# co2a0000390.rd
# 120 trials, 64 chans, 416 samples 368 post_stim samples
# 3.906000 msecs uV
# S2 nomatch, trial 87
# FP1 chan 0
87 FP1 0 -9.074
87 FP1 1 -7.121
87 FP1 2 -2.238
87 FP1 3 1.668
87 FP1 4 2.157
87 FP1 5 -0.285
87 FP1 6 -2.238
87 FP1 7 -0.773
87 FP1 8 2.645
87 FP1 9 6.063
87 FP1 10 7.528
87 FP1 11 5.575
87 FP1 12 3.133
87 FP1 13 1.668
87 FP1 14 2.645
87 FP1 15 4.598
87 FP1 16 6.063
87 FP1 17 5.086
87 FP1 18 3.133
87 FP1 19 1.668
87 FP1 20 1.180
87 FP1 21 1.668
87 FP1 22 2.157
87 FP1 23 3.133
87 FP1 24 4.598
87 FP1 25 7.528
87 FP1 26 9.969
87 FP1 27 10.457
87 FP1 28 8.993
87 FP1 29 5.575
87 FP1 30 2.157
87 FP1 31 0.203
87 FP1 32 0.692
87 FP1 33 2.157
87 FP1 34 4.110
87 FP1 35 6.551
87 FP1 36 8.993
87 FP1 37 10.946
87 FP1 38 11.434
87 FP1 39 9.969
87 FP1 40 6.551
87 FP1 41 4.110
87 FP1 42 3.621
87 FP1 43 6.063
87 FP1 44 8.993
87 FP1 45 9.481
87 FP1 46 6.551
87 FP1 47 1.668
87 FP1 48 -2.238
87 FP1 49 -2.726
87 FP1 50 -0.773
87 FP1 51 2.645
87 FP1 52 5.086
87 FP1 53 6.551
87 FP1 54 7.039
87 FP1 55 7.039
87 FP1 56 7.039
87 FP1 57 5.575
87 FP1 58 3.621
87 FP1 59 1.668
87 FP1 60 1.180
87 FP1 61 1.180
87 FP1 62 2.157
87 FP1 63 0.692
87 FP1 64 -2.238
87 FP1 65 -5.656
87 FP1 66 -7.121
87 FP1 67 -6.144
87 FP1 68 -3.703
87 FP1 69 -1.750
87 FP1 70 -1.261
87 FP1 71 -1.750
87 FP1 72 -0.285
87 FP1 73 2.645
87 FP1 74 5.575
87 FP1 75 6.063
87 FP1 76 3.133
87 FP1 77 -0.773
87 FP1 78 -2.726
87 FP1 79 -1.750
87 FP1 80 1.668
87 FP1 81 4.110
87 FP1 82 3.621
87 FP1 83 0.203
87 FP1 84 -3.215
87 FP1 85 -5.168
87 FP1 86 -4.679
87 FP1 87 -2.726
87 FP1 88 -1.261
87 FP1 89 -0.285
87 FP1 90 1.668
87 FP1 91 3.621
87 FP1 92 5.086
87 FP1 93 4.598
87 FP1 94 2.157
87 FP1 95 0.203
87 FP1 96 0.203
87 FP1 97 2.157
87 FP1 98 4.110
87 FP1 99 4.110
87 FP1 100 2.157
87 FP1 101 -0.285
87 FP1 102 -0.285
87 FP1 103 3.133
87 FP1 104 6.551
87 FP1 105 7.528
87 FP1 106 6.063
87 FP1 107 3.133
87 FP1 108 1.668
87 FP1 109 2.157
87 FP1 110 4.598
87 FP1 111 6.551
87 FP1 112 7.528
87 FP1 113 7.039
87 FP1 114 6.063
87 FP1 115 5.086
87 FP1 116 3.621
87 FP1 117 1.668
87 FP1 118 -0.285
87 FP1 119 -0.285
87 FP1 120 1.180
87 FP1 121 3.621
87 FP1 122 5.086
87 FP1 123 5.086
87 FP1 124 5.086
87 FP1 125 5.086
87 FP1 126 6.063
87 FP1 127 6.063
87 FP1 128 4.598
87 FP1 129 2.157
87 FP1 130 1.668
87 FP1 131 5.086
87 FP1 132 9.969
87 FP1 133 12.899
87 FP1 134 11.434
87 FP1 135 5.086
87 FP1 136 -0.773
87 FP1 137 -3.215
87 FP1 138 0.203
87 FP1 139 5.575
87 FP1 140 8.993
87 FP1 141 8.016
87 FP1 142 3.621
87 FP1 143 0.692
87 FP1 144 1.668
87 FP1 145 4.598
87 FP1 146 7.039
87 FP1 147 6.551
87 FP1 148 3.133
87 FP1 149 -0.773
87 FP1 150 -1.750
87 FP1 151 -0.773
87 FP1 152 0.203
87 FP1 153 -0.285
87 FP1 154 -2.238
87 FP1 155 -3.215
87 FP1 156 -0.773
87 FP1 157 3.621
87 FP1 158 7.528
87 FP1 159 8.016
87 FP1 160 4.110
87 FP1 161 -0.773
87 FP1 162 -4.191
87 FP1 163 -4.679
87 FP1 164 -3.215
87 FP1 165 -1.261
87 FP1 166 -0.285
87 FP1 167 -0.285
87 FP1 168 -0.285
87 FP1 169 -0.773
87 FP1 170 -0.773
87 FP1 171 -1.750
87 FP1 172 -3.703
87 FP1 173 -5.168
87 FP1 174 -6.144
87 FP1 175 -6.144
87 FP1 176 -5.656
87 FP1 177 -4.679
87 FP1 178 -3.215
87 FP1 179 -0.773
87 FP1 180 0.692
87 FP1 181 1.668
87 FP1 182 0.692
87 FP1 183 -1.750
87 FP1 184 -4.679
87 FP1 185 -6.632
87 FP1 186 -6.144
87 FP1 187 -3.703
87 FP1 188 -1.261
87 FP1 189 -0.773
87 FP1 190 -3.215
87 FP1 191 -6.632
87 FP1 192 -9.074
87 FP1 193 -8.097
87 FP1 194 -5.656
87 FP1 195 -2.726
87 FP1 196 -2.726
87 FP1 197 -6.144
87 FP1 198 -10.539
87 FP1 199 -12.980
87 FP1 200 -13.468
87 FP1 201 -12.492
87 FP1 202 -12.980
87 FP1 203 -13.957
87 FP1 204 -14.933
87 FP1 205 -12.492
87 FP1 206 -6.144
87 FP1 207 1.668
87 FP1 208 5.575
87 FP1 209 3.621
87 FP1 210 -2.726
87 FP1 211 -10.539
87 FP1 212 -13.957
87 FP1 213 -13.468
87 FP1 214 -9.562
87 FP1 215 -6.632
87 FP1 216 -5.656
87 FP1 217 -7.121
87 FP1 218 -8.097
87 FP1 219 -8.097
87 FP1 220 -6.632
87 FP1 221 -3.703
87 FP1 222 -1.750
87 FP1 223 -1.750
87 FP1 224 -2.238
87 FP1 225 -2.726
87 FP1 226 -3.215
87 FP1 227 -3.215
87 FP1 228 -4.679
87 FP1 229 -7.609
87 FP1 230 -11.027
87 FP1 231 -12.492
87 FP1 232 -10.539
87 FP1 233 -5.656
87 FP1 234 -1.750
87 FP1 235 -0.773
87 FP1 236 -2.726
87 FP1 237 -5.168
87 FP1 238 -5.656
87 FP1 239 -3.215
87 FP1 240 -0.285
87 FP1 241 1.180
87 FP1 242 -0.773
87 FP1 243 -4.679
87 FP1 244 -7.121
87 FP1 245 -6.144
87 FP1 246 -2.238
87 FP1 247 0.203
87 FP1 248 -0.285
87 FP1 249 -4.679
87 FP1 250 -9.074
87 FP1 251 -10.539
87 FP1 252 -8.097
87 FP1 253 -4.191
87 FP1 254 -1.261
87 FP1 255 -1.750
# FP2 chan 1
87 FP2 0 -3.581
87 FP2 1 -3.092
87 FP2 2 -1.139
87 FP2 3 -1.139
87 FP2 4 -4.557
87 FP2 5 -8.464
87 FP2 6 -9.440
87 FP2 7 -5.534
87 FP2 8 1.790
87 FP2 9 6.185
87 FP2 10 5.697
87 FP2 11 2.279
87 FP2 12 -0.163
87 FP2 13 2.279
87 FP2 14 7.650
87 FP2 15 10.579
87 FP2 16 7.161
87 FP2 17 -0.163
87 FP2 18 -6.999
87 FP2 19 -7.975
87 FP2 20 -3.092
87 FP2 21 3.743
87 FP2 22 6.673
87 FP2 23 5.697
87 FP2 24 3.255
87 FP2 25 2.279
87 FP2 26 3.743
87 FP2 27 4.720
87 FP2 28 2.767
87 FP2 29 -0.651
87 FP2 30 -2.604
87 FP2 31 -0.651
87 FP2 32 4.232
87 FP2 33 8.626
87 FP2 34 8.626
87 FP2 35 5.208
87 FP2 36 1.790
87 FP2 37 0.326
87 FP2 38 2.767
87 FP2 39 5.697
87 FP2 40 7.650
87 FP2 41 7.161
87 FP2 42 6.185
87 FP2 43 5.697
87 FP2 44 6.185
87 FP2 45 6.185
87 FP2 46 4.232
87 FP2 47 1.790
87 FP2 48 -0.163
87 FP2 49 -0.163
87 FP2 50 1.302
87 FP2 51 2.767
87 FP2 52 2.767
87 FP2 53 2.279
87 FP2 54 1.790
87 FP2 55 2.767
87 FP2 56 3.255
87 FP2 57 3.255
87 FP2 58 2.279
87 FP2 59 1.302
87 FP2 60 1.790
87 FP2 61 2.767
87 FP2 62 3.255
87 FP2 63 2.279
87 FP2 64 -0.651
87 FP2 65 -3.092
87 FP2 66 -3.092
87 FP2 67 -0.651
87 FP2 68 2.767
87 FP2 69 4.720
87 FP2 70 3.255
87 FP2 71 1.302
87 FP2 72 -0.651
87 FP2 73 0.814
87 FP2 74 3.743
87 FP2 75 6.673
87 FP2 76 6.673
87 FP2 77 5.208
87 FP2 78 2.767
87 FP2 79 1.302
87 FP2 80 0.326
87 FP2 81 -0.163
87 FP2 82 -1.628
87 FP2 83 -2.116
87 FP2 84 -1.628
87 FP2 85 0.326
87 FP2 86 1.302
87 FP2 87 1.302
87 FP2 88 -0.163
87 FP2 89 -0.651
87 FP2 90 0.814
87 FP2 91 3.255
87 FP2 92 4.720
87 FP2 93 4.232
87 FP2 94 2.767
87 FP2 95 0.814
87 FP2 96 -0.163
87 FP2 97 -0.163
87 FP2 98 -0.651
87 FP2 99 -1.628
87 FP2 100 -2.116
87 FP2 101 -0.163
87 FP2 102 4.232
87 FP2 103 9.115
87 FP2 104 11.068
87 FP2 105 10.091
87 FP2 106 7.161
87 FP2 107 4.720
87 FP2 108 4.232
87 FP2 109 5.208
87 FP2 110 6.185
87 FP2 111 6.673
87 FP2 112 7.161
87 FP2 113 7.650
87 FP2 114 8.138
87 FP2 115 7.161
87 FP2 116 4.232
87 FP2 117 1.302
87 FP2 118 -0.163
87 FP2 119 1.790
87 FP2 120 6.185
87 FP2 121 10.091
87 FP2 122 10.091
87 FP2 123 6.673
87 FP2 124 2.279
87 FP2 125 -0.163
87 FP2 126 0.814
87 FP2 127 3.743
87 FP2 128 5.208
87 FP2 129 4.232
87 FP2 130 3.255
87 FP2 131 3.743
87 FP2 132 7.650
87 FP2 133 12.044
87 FP2 134 12.533
87 FP2 135 7.650
87 FP2 136 -0.163
87 FP2 137 -5.534
87 FP2 138 -4.557
87 FP2 139 1.302
87 FP2 140 7.650
87 FP2 141 9.603
87 FP2 142 6.673
87 FP2 143 2.767
87 FP2 144 0.814
87 FP2 145 1.302
87 FP2 146 2.279
87 FP2 147 1.302
87 FP2 148 -1.139
87 FP2 149 -2.116
87 FP2 150 -0.651
87 FP2 151 2.767
87 FP2 152 3.255
87 FP2 153 0.814
87 FP2 154 -2.604
87 FP2 155 -3.581
87 FP2 156 0.326
87 FP2 157 6.673
87 FP2 158 10.579
87 FP2 159 8.138
87 FP2 160 1.790
87 FP2 161 -6.022
87 FP2 162 -9.440
87 FP2 163 -7.487
87 FP2 164 -4.069
87 FP2 165 -2.116
87 FP2 166 -3.092
87 FP2 167 -5.534
87 FP2 168 -7.487
87 FP2 169 -6.999
87 FP2 170 -5.534
87 FP2 171 -4.557
87 FP2 172 -5.046
87 FP2 173 -6.510
87 FP2 174 -7.487
87 FP2 175 -6.510
87 FP2 176 -5.046
87 FP2 177 -4.069
87 FP2 178 -4.069
87 FP2 179 -4.557
87 FP2 180 -5.046
87 FP2 181 -4.557
87 FP2 182 -4.069
87 FP2 183 -3.581
87 FP2 184 -4.557
87 FP2 185 -5.534
87 FP2 186 -6.022
87 FP2 187 -6.999
87 FP2 188 -7.487
87 FP2 189 -8.464
87 FP2 190 -7.487
87 FP2 191 -6.022
87 FP2 192 -4.069
87 FP2 193 -3.092
87 FP2 194 -5.046
87 FP2 195 -8.464
87 FP2 196 -10.905
87 FP2 197 -11.882
87 FP2 198 -10.905
87 FP2 199 -9.928
87 FP2 200 -11.393
87 FP2 201 -15.788
87 FP2 202 -20.182
87 FP2 203 -20.671
87 FP2 204 -15.299
87 FP2 205 -6.022
87 FP2 206 2.767
87 FP2 207 6.673
87 FP2 208 5.697
87 FP2 209 0.814
87 FP2 210 -3.581
87 FP2 211 -5.534
87 FP2 212 -6.510
87 FP2 213 -8.952
87 FP2 214 -12.370
87 FP2 215 -15.299
87 FP2 216 -15.299
87 FP2 217 -11.393
87 FP2 218 -6.999
87 FP2 219 -5.534
87 FP2 220 -7.487
87 FP2 221 -9.928
87 FP2 222 -10.417
87 FP2 223 -6.510
87 FP2 224 -1.139
87 FP2 225 1.790
87 FP2 226 0.326
87 FP2 227 -4.069
87 FP2 228 -8.464
87 FP2 229 -9.440
87 FP2 230 -7.487
87 FP2 231 -5.046
87 FP2 232 -3.581
87 FP2 233 -3.092
87 FP2 234 -4.069
87 FP2 235 -4.069
87 FP2 236 -3.581
87 FP2 237 -3.092
87 FP2 238 -3.092
87 FP2 239 -3.581
87 FP2 240 -3.581
87 FP2 241 -3.092
87 FP2 242 -1.628
87 FP2 243 -1.628
87 FP2 244 -3.092
87 FP2 245 -5.534
87 FP2 246 -7.975
87 FP2 247 -7.487
87 FP2 248 -6.022
87 FP2 249 -3.092
87 FP2 250 -1.628
87 FP2 251 -2.116
87 FP2 252 -3.581
87 FP2 253 -4.557
87 FP2 254 -3.092
87 FP2 255 -1.139
# F7 chan 2
87 F7 0 -18.972
87 F7 1 -14.577
87 F7 2 -0.417
87 F7 3 13.255
87 F7 4 16.673
87 F7 5 7.884
87 F7 6 -5.300
87 F7 7 -11.648
87 F7 8 -6.765
87 F7 9 3.489
87 F7 10 9.349
87 F7 11 5.442
87 F7 12 -3.835
87 F7 13 -9.206
87 F7 14 -3.347
87 F7 15 9.837
87 F7 16 19.602
87 F7 17 18.626
87 F7 18 7.884
87 F7 19 -4.323
87 F7 20 -9.206
87 F7 21 -5.300
87 F7 22 1.536
87 F7 23 3.489
87 F7 24 -1.394
87 F7 25 -8.718
87 F7 26 -10.671
87 F7 27 -4.323
87 F7 28 8.372
87 F7 29 18.626
87 F7 30 19.114
87 F7 31 10.325
87 F7 32 -3.347
87 F7 33 -12.136
87 F7 34 -11.648
87 F7 35 -2.858
87 F7 36 8.372
87 F7 37 16.184
87 F7 38 17.649
87 F7 39 13.743
87 F7 40 7.395
87 F7 41 2.024
87 F7 42 -0.905
87 F7 43 -2.370
87 F7 44 -1.882
87 F7 45 0.559
87 F7 46 3.001
87 F7 47 3.977
87 F7 48 1.048
87 F7 49 -5.300
87 F7 50 -12.136
87 F7 51 -15.554
87 F7 52 -11.648
87 F7 53 -1.394
87 F7 54 8.860
87 F7 55 13.743
87 F7 56 10.325
87 F7 57 0.559
87 F7 58 -9.206
87 F7 59 -13.112
87 F7 60 -9.694
87 F7 61 -3.347
87 F7 62 0.071
87 F7 63 -3.347
87 F7 64 -11.648
87 F7 65 -18.972
87 F7 66 -18.972
87 F7 67 -12.624
87 F7 68 -3.347
87 F7 69 2.024
87 F7 70 2.024
87 F7 71 -1.394
87 F7 72 -4.323
87 F7 73 -4.812
87 F7 74 -4.812
87 F7 75 -7.253
87 F7 76 -13.112
87 F7 77 -18.483
87 F7 78 -19.460
87 F7 79 -13.601
87 F7 80 -2.858
87 F7 81 5.442
87 F7 82 6.907
87 F7 83 2.024
87 F7 84 -4.323
87 F7 85 -5.788
87 F7 86 -2.370
87 F7 87 1.048
87 F7 88 -0.905
87 F7 89 -7.741
87 F7 90 -14.089
87 F7 91 -14.089
87 F7 92 -7.741
87 F7 93 -0.905
87 F7 94 -0.417
87 F7 95 -7.253
87 F7 96 -15.554
87 F7 97 -16.530
87 F7 98 -7.741
87 F7 99 6.419
87 F7 100 15.696
87 F7 101 14.720
87 F7 102 5.442
87 F7 103 -5.788
87 F7 104 -11.648
87 F7 105 -10.183
87 F7 106 -5.300
87 F7 107 -0.417
87 F7 108 0.559
87 F7 109 -0.905
87 F7 110 -4.812
87 F7 111 -9.206
87 F7 112 -12.624
87 F7 113 -13.601
87 F7 114 -10.671
87 F7 115 -4.812
87 F7 116 2.024
87 F7 117 5.442
87 F7 118 3.977
87 F7 119 -0.417
87 F7 120 -3.835
87 F7 121 -3.835
87 F7 122 -2.370
87 F7 123 -1.882
87 F7 124 -3.835
87 F7 125 -5.788
87 F7 126 -4.812
87 F7 127 1.048
87 F7 128 8.860
87 F7 129 13.255
87 F7 130 11.302
87 F7 131 3.489
87 F7 132 -5.788
87 F7 133 -12.136
87 F7 134 -14.089
87 F7 135 -13.112
87 F7 136 -9.694
87 F7 137 -4.812
87 F7 138 2.024
87 F7 139 8.860
87 F7 140 11.790
87 F7 141 7.395
87 F7 142 -1.882
87 F7 143 -10.183
87 F7 144 -10.671
87 F7 145 -2.858
87 F7 146 7.395
87 F7 147 9.349
87 F7 148 -0.417
87 F7 149 -16.530
87 F7 150 -26.784
87 F7 151 -23.366
87 F7 152 -7.253
87 F7 153 10.325
87 F7 154 19.114
87 F7 155 14.231
87 F7 156 0.559
87 F7 157 -12.624
87 F7 158 -16.530
87 F7 159 -10.671
87 F7 160 -0.905
87 F7 161 6.907
87 F7 162 7.884
87 F7 163 2.024
87 F7 164 -7.253
87 F7 165 -15.066
87 F7 166 -17.995
87 F7 167 -14.577
87 F7 168 -7.253
87 F7 169 -0.417
87 F7 170 1.536
87 F7 171 -1.882
87 F7 172 -9.206
87 F7 173 -14.577
87 F7 174 -15.554
87 F7 175 -12.136
87 F7 176 -6.765
87 F7 177 -2.858
87 F7 178 -1.394
87 F7 179 -2.858
87 F7 180 -5.300
87 F7 181 -6.765
87 F7 182 -6.276
87 F7 183 -2.858
87 F7 184 3.489
87 F7 185 8.860
87 F7 186 10.325
87 F7 187 4.954
87 F7 188 -5.788
87 F7 189 -17.507
87 F7 190 -24.831
87 F7 191 -25.319
87 F7 192 -19.948
87 F7 193 -11.648
87 F7 194 -2.858
87 F7 195 3.001
87 F7 196 4.466
87 F7 197 -0.417
87 F7 198 -10.183
87 F7 199 -21.413
87 F7 200 -29.714
87 F7 201 -32.155
87 F7 202 -30.202
87 F7 203 -26.784
87 F7 204 -24.831
87 F7 205 -22.390
87 F7 206 -16.042
87 F7 207 -4.323
87 F7 208 9.349
87 F7 209 16.184
87 F7 210 10.813
87 F7 211 -4.323
87 F7 212 -20.925
87 F7 213 -27.761
87 F7 214 -22.390
87 F7 215 -9.694
87 F7 216 -0.417
87 F7 217 -0.905
87 F7 218 -8.718
87 F7 219 -15.066
87 F7 220 -13.601
87 F7 221 -4.812
87 F7 222 3.489
87 F7 223 3.489
87 F7 224 -5.788
87 F7 225 -17.995
87 F7 226 -24.831
87 F7 227 -22.390
87 F7 228 -15.066
87 F7 229 -10.183
87 F7 230 -12.624
87 F7 231 -18.483
87 F7 232 -20.925
87 F7 233 -16.042
87 F7 234 -5.300
87 F7 235 3.001
87 F7 236 4.466
87 F7 237 -1.882
87 F7 238 -9.694
87 F7 239 -12.624
87 F7 240 -9.694
87 F7 241 -5.300
87 F7 242 -4.323
87 F7 243 -8.718
87 F7 244 -15.066
87 F7 245 -17.507
87 F7 246 -14.089
87 F7 247 -7.741
87 F7 248 -4.323
87 F7 249 -7.253
87 F7 250 -14.577
87 F7 251 -21.901
87 F7 252 -24.831
87 F7 253 -23.366
87 F7 254 -18.483
87 F7 255 -13.601
# F8 chan 3
87 F8 0 -0.427
87 F8 1 0.549
87 F8 2 0.549
87 F8 3 0.549
87 F8 4 0.549
87 F8 5 0.061
87 F8 6 -0.427
87 F8 7 -0.427
87 F8 8 -0.916
87 F8 9 -0.916
87 F8 10 0.061
87 F8 11 2.014
87 F8 12 4.456
87 F8 13 4.944
87 F8 14 2.502
87 F8 15 -1.404
87 F8 16 -5.310
87 F8 17 -6.775
87 F8 18 -6.287
87 F8 19 -4.333
87 F8 20 -3.845
87 F8 21 -5.310
87 F8 22 -6.775
87 F8 23 -6.287
87 F8 24 -2.869
87 F8 25 0.061
87 F8 26 0.061
87 F8 27 -3.357
87 F8 28 -6.775
87 F8 29 -6.287
87 F8 30 0.061
87 F8 31 7.874
87 F8 32 12.268
87 F8 33 9.827
87 F8 34 2.014
87 F8 35 -4.822
87 F8 36 -7.263
87 F8 37 -3.845
87 F8 38 1.038
87 F8 39 3.967
87 F8 40 3.479
87 F8 41 2.014
87 F8 42 2.014
87 F8 43 3.967
87 F8 44 5.920
87 F8 45 5.920
87 F8 46 3.479
87 F8 47 -0.916
87 F8 48 -3.845
87 F8 49 -4.822
87 F8 50 -3.845
87 F8 51 -2.380
87 F8 52 0.061
87 F8 53 2.502
87 F8 54 4.944
87 F8 55 5.920
87 F8 56 4.944
87 F8 57 2.502
87 F8 58 0.549
87 F8 59 0.549
87 F8 60 0.549
87 F8 61 1.038
87 F8 62 1.038
87 F8 63 0.549
87 F8 64 1.038
87 F8 65 2.014
87 F8 66 2.991
87 F8 67 2.502
87 F8 68 0.549
87 F8 69 -0.916
87 F8 70 -1.892
87 F8 71 -2.380
87 F8 72 -2.869
87 F8 73 -3.357
87 F8 74 -4.333
87 F8 75 -4.333
87 F8 76 -2.869
87 F8 77 0.061
87 F8 78 2.502
87 F8 79 4.456
87 F8 80 4.456
87 F8 81 3.479
87 F8 82 2.502
87 F8 83 1.526
87 F8 84 0.549
87 F8 85 0.061
87 F8 86 -1.404
87 F8 87 -2.869
87 F8 88 -4.333
87 F8 89 -4.822
87 F8 90 -4.333
87 F8 91 -1.892
87 F8 92 1.038
87 F8 93 2.014
87 F8 94 0.549
87 F8 95 -3.845
87 F8 96 -7.263
87 F8 97 -7.751
87 F8 98 -3.845
87 F8 99 1.526
87 F8 100 5.432
87 F8 101 4.456
87 F8 102 0.549
87 F8 103 -2.869
87 F8 104 -4.333
87 F8 105 -3.845
87 F8 106 -2.869
87 F8 107 -2.869
87 F8 108 -3.357
87 F8 109 -2.380
87 F8 110 0.549
87 F8 111 4.456
87 F8 112 5.432
87 F8 113 2.502
87 F8 114 -1.892
87 F8 115 -5.310
87 F8 116 -4.822
87 F8 117 -0.916
87 F8 118 2.502
87 F8 119 2.991
87 F8 120 0.061
87 F8 121 -3.845
87 F8 122 -6.287
87 F8 123 -5.310
87 F8 124 -2.380
87 F8 125 0.549
87 F8 126 1.526
87 F8 127 -0.427
87 F8 128 -2.869
87 F8 129 -3.357
87 F8 130 0.061
87 F8 131 5.432
87 F8 132 9.338
87 F8 133 7.385
87 F8 134 -0.916
87 F8 135 -10.681
87 F8 136 -16.541
87 F8 137 -14.099
87 F8 138 -5.310
87 F8 139 3.479
87 F8 140 6.409
87 F8 141 2.502
87 F8 142 -3.357
87 F8 143 -6.287
87 F8 144 -1.892
87 F8 145 4.944
87 F8 146 8.850
87 F8 147 6.409
87 F8 148 -1.892
87 F8 149 -10.193
87 F8 150 -14.587
87 F8 151 -11.658
87 F8 152 -5.798
87 F8 153 -0.916
87 F8 154 1.038
87 F8 155 -0.427
87 F8 156 -2.380
87 F8 157 -3.845
87 F8 158 -2.869
87 F8 159 0.061
87 F8 160 3.479
87 F8 161 4.944
87 F8 162 2.991
87 F8 163 -2.869
87 F8 164 -9.705
87 F8 165 -15.076
87 F8 166 -17.029
87 F8 167 -15.564
87 F8 168 -12.634
87 F8 169 -9.705
87 F8 170 -7.751
87 F8 171 -7.263
87 F8 172 -8.240
87 F8 173 -9.216
87 F8 174 -9.705
87 F8 175 -9.216
87 F8 176 -9.216
87 F8 177 -10.193
87 F8 178 -12.146
87 F8 179 -13.611
87 F8 180 -12.634
87 F8 181 -9.705
87 F8 182 -6.287
87 F8 183 -5.310
87 F8 184 -7.751
87 F8 185 -10.681
87 F8 186 -11.169
87 F8 187 -7.751
87 F8 188 -3.357
87 F8 189 -0.916
87 F8 190 -1.404
87 F8 191 -3.845
87 F8 192 -5.310
87 F8 193 -4.822
87 F8 194 -5.310
87 F8 195 -8.728
87 F8 196 -14.587
87 F8 197 -20.447
87 F8 198 -21.423
87 F8 199 -17.517
87 F8 200 -12.634
87 F8 201 -10.193
87 F8 202 -12.634
87 F8 203 -16.052
87 F8 204 -16.541
87 F8 205 -10.193
87 F8 206 -0.427
87 F8 207 6.409
87 F8 208 6.409
87 F8 209 -0.427
87 F8 210 -9.216
87 F8 211 -14.587
87 F8 212 -14.587
87 F8 213 -10.193
87 F8 214 -5.798
87 F8 215 -2.869
87 F8 216 -3.357
87 F8 217 -5.310
87 F8 218 -7.263
87 F8 219 -7.751
87 F8 220 -8.728
87 F8 221 -9.705
87 F8 222 -10.193
87 F8 223 -10.193
87 F8 224 -8.240
87 F8 225 -5.310
87 F8 226 -3.357
87 F8 227 -3.845
87 F8 228 -6.287
87 F8 229 -7.751
87 F8 230 -6.287
87 F8 231 -2.380
87 F8 232 0.549
87 F8 233 -0.427
87 F8 234 -4.333
87 F8 235 -9.216
87 F8 236 -11.658
87 F8 237 -11.169
87 F8 238 -9.705
87 F8 239 -8.728
87 F8 240 -9.705
87 F8 241 -10.193
87 F8 242 -9.216
87 F8 243 -7.751
87 F8 244 -5.798
87 F8 245 -4.822
87 F8 246 -3.845
87 F8 247 -2.869
87 F8 248 -1.892
87 F8 249 -1.404
87 F8 250 -3.357
87 F8 251 -7.263
87 F8 252 -9.705
87 F8 253 -10.193
87 F8 254 -8.728
87 F8 255 -6.775
# AF1 chan 4
87 AF1 0 -2.686
87 AF1 1 -1.221
87 AF1 2 1.709
87 AF1 3 3.662
87 AF1 4 3.662
87 AF1 5 1.221
87 AF1 6 -1.221
87 AF1 7 -1.221
87 AF1 8 0.732
87 AF1 9 3.662
87 AF1 10 5.127
87 AF1 11 4.639
87 AF1 12 3.174
87 AF1 13 2.686
87 AF1 14 3.174
87 AF1 15 5.127
87 AF1 16 6.592
87 AF1 17 6.104
87 AF1 18 4.639
87 AF1 19 2.686
87 AF1 20 1.709
87 AF1 21 1.709
87 AF1 22 1.709
87 AF1 23 1.709
87 AF1 24 1.709
87 AF1 25 2.686
87 AF1 26 4.639
87 AF1 27 6.592
87 AF1 28 7.080
87 AF1 29 5.615
87 AF1 30 3.174
87 AF1 31 1.709
87 AF1 32 2.686
87 AF1 33 5.127
87 AF1 34 7.568
87 AF1 35 8.057
87 AF1 36 7.568
87 AF1 37 6.104
87 AF1 38 5.127
87 AF1 39 5.127
87 AF1 40 5.615
87 AF1 41 5.615
87 AF1 42 5.127
87 AF1 43 5.127
87 AF1 44 4.639
87 AF1 45 3.662
87 AF1 46 2.686
87 AF1 47 1.221
87 AF1 48 0.244
87 AF1 49 0.732
87 AF1 50 2.197
87 AF1 51 4.150
87 AF1 52 5.615
87 AF1 53 6.104
87 AF1 54 5.615
87 AF1 55 4.639
87 AF1 56 3.174
87 AF1 57 1.709
87 AF1 58 0.244
87 AF1 59 -1.221
87 AF1 60 -1.221
87 AF1 61 0.244
87 AF1 62 1.221
87 AF1 63 1.709
87 AF1 64 0.732
87 AF1 65 -1.221
87 AF1 66 -2.686
87 AF1 67 -2.197
87 AF1 68 -0.732
87 AF1 69 0.732
87 AF1 70 1.709
87 AF1 71 1.221
87 AF1 72 1.221
87 AF1 73 1.221
87 AF1 74 2.197
87 AF1 75 2.686
87 AF1 76 2.197
87 AF1 77 0.732
87 AF1 78 -0.732
87 AF1 79 -0.732
87 AF1 80 0.244
87 AF1 81 2.197
87 AF1 82 2.686
87 AF1 83 1.709
87 AF1 84 -0.244
87 AF1 85 -1.709
87 AF1 86 -2.197
87 AF1 87 -1.709
87 AF1 88 -1.221
87 AF1 89 -0.732
87 AF1 90 -0.244
87 AF1 91 0.244
87 AF1 92 0.732
87 AF1 93 1.221
87 AF1 94 0.732
87 AF1 95 0.244
87 AF1 96 0.732
87 AF1 97 1.709
87 AF1 98 2.686
87 AF1 99 2.686
87 AF1 100 1.221
87 AF1 101 0.244
87 AF1 102 0.732
87 AF1 103 2.686
87 AF1 104 5.127
87 AF1 105 6.592
87 AF1 106 6.592
87 AF1 107 5.615
87 AF1 108 5.127
87 AF1 109 5.127
87 AF1 110 6.104
87 AF1 111 6.592
87 AF1 112 5.615
87 AF1 113 4.639
87 AF1 114 4.150
87 AF1 115 4.639
87 AF1 116 5.127
87 AF1 117 4.639
87 AF1 118 3.174
87 AF1 119 2.197
87 AF1 120 2.686
87 AF1 121 4.150
87 AF1 122 6.104
87 AF1 123 7.080
87 AF1 124 6.104
87 AF1 125 4.150
87 AF1 126 3.174
87 AF1 127 2.686
87 AF1 128 3.662
87 AF1 129 4.639
87 AF1 130 5.127
87 AF1 131 5.615
87 AF1 132 7.080
87 AF1 133 8.545
87 AF1 134 9.033
87 AF1 135 7.568
87 AF1 136 4.150
87 AF1 137 1.221
87 AF1 138 0.244
87 AF1 139 2.197
87 AF1 140 5.127
87 AF1 141 7.080
87 AF1 142 7.568
87 AF1 143 6.592
87 AF1 144 6.104
87 AF1 145 6.592
87 AF1 146 7.080
87 AF1 147 6.592
87 AF1 148 5.127
87 AF1 149 2.686
87 AF1 150 1.709
87 AF1 151 1.709
87 AF1 152 1.709
87 AF1 153 2.197
87 AF1 154 2.197
87 AF1 155 1.709
87 AF1 156 2.686
87 AF1 157 4.150
87 AF1 158 6.592
87 AF1 159 7.568
87 AF1 160 7.080
87 AF1 161 5.127
87 AF1 162 2.686
87 AF1 163 0.732
87 AF1 164 0.732
87 AF1 165 1.221
87 AF1 166 2.197
87 AF1 167 2.686
87 AF1 168 3.174
87 AF1 169 3.174
87 AF1 170 2.686
87 AF1 171 1.709
87 AF1 172 0.244
87 AF1 173 -1.221
87 AF1 174 -2.197
87 AF1 175 -1.709
87 AF1 176 -0.244
87 AF1 177 1.709
87 AF1 178 2.686
87 AF1 179 3.174
87 AF1 180 1.709
87 AF1 181 0.244
87 AF1 182 -0.732
87 AF1 183 -1.221
87 AF1 184 -0.244
87 AF1 185 0.244
87 AF1 186 0.244
87 AF1 187 -0.244
87 AF1 188 -1.221
87 AF1 189 -2.197
87 AF1 190 -2.197
87 AF1 191 -1.221
87 AF1 192 -0.732
87 AF1 193 -0.732
87 AF1 194 -1.709
87 AF1 195 -2.686
87 AF1 196 -4.150
87 AF1 197 -5.127
87 AF1 198 -6.104
87 AF1 199 -6.592
87 AF1 200 -7.080
87 AF1 201 -8.057
87 AF1 202 -8.057
87 AF1 203 -8.057
87 AF1 204 -7.568
87 AF1 205 -5.615
87 AF1 206 -3.174
87 AF1 207 -0.732
87 AF1 208 0.732
87 AF1 209 -0.244
87 AF1 210 -2.197
87 AF1 211 -5.127
87 AF1 212 -7.080
87 AF1 213 -7.080
87 AF1 214 -6.104
87 AF1 215 -4.150
87 AF1 216 -3.174
87 AF1 217 -3.174
87 AF1 218 -3.662
87 AF1 219 -4.150
87 AF1 220 -3.662
87 AF1 221 -2.197
87 AF1 222 -1.221
87 AF1 223 -0.732
87 AF1 224 -1.221
87 AF1 225 -2.197
87 AF1 226 -2.686
87 AF1 227 -2.197
87 AF1 228 -2.197
87 AF1 229 -2.197
87 AF1 230 -2.686
87 AF1 231 -3.662
87 AF1 232 -3.174
87 AF1 233 -1.709
87 AF1 234 -0.244
87 AF1 235 0.732
87 AF1 236 0.244
87 AF1 237 -1.221
87 AF1 238 -2.686
87 AF1 239 -3.662
87 AF1 240 -3.174
87 AF1 241 -3.174
87 AF1 242 -2.686
87 AF1 243 -2.686
87 AF1 244 -2.686
87 AF1 245 -2.197
87 AF1 246 -0.732
87 AF1 247 -0.244
87 AF1 248 -0.732
87 AF1 249 -2.686
87 AF1 250 -4.639
87 AF1 251 -6.104
87 AF1 252 -5.127
87 AF1 253 -2.686
87 AF1 254 -0.732
87 AF1 255 0.244
# AF2 chan 5
87 AF2 0 -1.343
87 AF2 1 0.122
87 AF2 2 2.075
87 AF2 3 3.052
87 AF2 4 2.075
87 AF2 5 -0.366
87 AF2 6 -2.319
87 AF2 7 -1.343
87 AF2 8 1.099
87 AF2 9 3.540
87 AF2 10 4.517
87 AF2 11 4.028
87 AF2 12 2.075
87 AF2 13 1.587
87 AF2 14 2.075
87 AF2 15 3.540
87 AF2 16 4.028
87 AF2 17 3.052
87 AF2 18 1.099
87 AF2 19 -0.366
87 AF2 20 -0.366
87 AF2 21 1.099
87 AF2 22 2.563
87 AF2 23 3.052
87 AF2 24 3.052
87 AF2 25 3.052
87 AF2 26 3.540
87 AF2 27 4.028
87 AF2 28 4.028
87 AF2 29 3.052
87 AF2 30 2.563
87 AF2 31 2.075
87 AF2 32 3.052
87 AF2 33 4.517
87 AF2 34 5.493
87 AF2 35 5.981
87 AF2 36 5.981
87 AF2 37 5.493
87 AF2 38 5.981
87 AF2 39 5.981
87 AF2 40 5.981
87 AF2 41 5.005
87 AF2 42 4.517
87 AF2 43 5.005
87 AF2 44 5.493
87 AF2 45 5.493
87 AF2 46 4.517
87 AF2 47 3.052
87 AF2 48 2.075
87 AF2 49 2.075
87 AF2 50 3.540
87 AF2 51 5.981
87 AF2 52 6.958
87 AF2 53 6.958
87 AF2 54 5.493
87 AF2 55 3.540
87 AF2 56 2.563
87 AF2 57 2.563
87 AF2 58 2.563
87 AF2 59 2.563
87 AF2 60 2.563
87 AF2 61 2.075
87 AF2 62 2.563
87 AF2 63 2.563
87 AF2 64 1.587
87 AF2 65 0.610
87 AF2 66 -0.366
87 AF2 67 -0.366
87 AF2 68 1.587
87 AF2 69 3.052
87 AF2 70 4.517
87 AF2 71 4.517
87 AF2 72 3.540
87 AF2 73 3.052
87 AF2 74 3.540
87 AF2 75 4.517
87 AF2 76 5.005
87 AF2 77 5.005
87 AF2 78 4.028
87 AF2 79 2.563
87 AF2 80 2.075
87 AF2 81 2.075
87 AF2 82 1.587
87 AF2 83 1.587
87 AF2 84 1.587
87 AF2 85 1.099
87 AF2 86 1.587
87 AF2 87 1.587
87 AF2 88 1.587
87 AF2 89 1.099
87 AF2 90 0.610
87 AF2 91 1.099
87 AF2 92 2.075
87 AF2 93 3.052
87 AF2 94 3.540
87 AF2 95 4.028
87 AF2 96 4.517
87 AF2 97 5.005
87 AF2 98 4.517
87 AF2 99 3.052
87 AF2 100 1.099
87 AF2 101 -0.366
87 AF2 102 -0.366
87 AF2 103 2.075
87 AF2 104 5.493
87 AF2 105 7.446
87 AF2 106 7.935
87 AF2 107 6.470
87 AF2 108 5.005
87 AF2 109 4.517
87 AF2 110 5.493
87 AF2 111 6.470
87 AF2 112 6.958
87 AF2 113 6.958
87 AF2 114 6.470
87 AF2 115 5.493
87 AF2 116 5.493
87 AF2 117 4.517
87 AF2 118 3.540
87 AF2 119 3.052
87 AF2 120 3.540
87 AF2 121 5.493
87 AF2 122 6.958
87 AF2 123 7.446
87 AF2 124 6.470
87 AF2 125 5.005
87 AF2 126 3.540
87 AF2 127 3.540
87 AF2 128 3.540
87 AF2 129 4.028
87 AF2 130 4.028
87 AF2 131 5.005
87 AF2 132 6.470
87 AF2 133 8.423
87 AF2 134 8.423
87 AF2 135 6.470
87 AF2 136 3.052
87 AF2 137 -0.366
87 AF2 138 -0.366
87 AF2 139 1.099
87 AF2 140 4.028
87 AF2 141 5.981
87 AF2 142 5.981
87 AF2 143 5.981
87 AF2 144 5.981
87 AF2 145 6.958
87 AF2 146 7.446
87 AF2 147 6.958
87 AF2 148 4.028
87 AF2 149 1.587
87 AF2 150 0.610
87 AF2 151 1.099
87 AF2 152 2.563
87 AF2 153 3.052
87 AF2 154 2.075
87 AF2 155 1.099
87 AF2 156 1.099
87 AF2 157 3.052
87 AF2 158 5.493
87 AF2 159 6.958
87 AF2 160 5.981
87 AF2 161 3.052
87 AF2 162 0.610
87 AF2 163 -0.854
87 AF2 164 -0.366
87 AF2 165 0.610
87 AF2 166 1.099
87 AF2 167 1.099
87 AF2 168 0.122
87 AF2 169 0.122
87 AF2 170 0.610
87 AF2 171 0.610
87 AF2 172 -0.366
87 AF2 173 -1.343
87 AF2 174 -2.808
87 AF2 175 -3.296
87 AF2 176 -2.808
87 AF2 177 -0.854
87 AF2 178 0.122
87 AF2 179 0.122
87 AF2 180 -0.854
87 AF2 181 -1.831
87 AF2 182 -2.808
87 AF2 183 -2.319
87 AF2 184 -2.319
87 AF2 185 -2.319
87 AF2 186 -2.808
87 AF2 187 -2.808
87 AF2 188 -3.296
87 AF2 189 -2.808
87 AF2 190 -2.319
87 AF2 191 -1.831
87 AF2 192 -1.831
87 AF2 193 -1.831
87 AF2 194 -2.319
87 AF2 195 -3.296
87 AF2 196 -4.272
87 AF2 197 -5.737
87 AF2 198 -6.714
87 AF2 199 -7.202
87 AF2 200 -7.202
87 AF2 201 -7.202
87 AF2 202 -7.202
87 AF2 203 -7.690
87 AF2 204 -7.202
87 AF2 205 -5.737
87 AF2 206 -2.808
87 AF2 207 0.610
87 AF2 208 2.075
87 AF2 209 0.610
87 AF2 210 -2.319
87 AF2 211 -5.249
87 AF2 212 -6.714
87 AF2 213 -6.714
87 AF2 214 -6.226
87 AF2 215 -5.249
87 AF2 216 -4.272
87 AF2 217 -3.296
87 AF2 218 -3.296
87 AF2 219 -2.808
87 AF2 220 -3.296
87 AF2 221 -3.296
87 AF2 222 -3.296
87 AF2 223 -2.808
87 AF2 224 -0.854
87 AF2 225 0.610
87 AF2 226 1.587
87 AF2 227 1.587
87 AF2 228 0.610
87 AF2 229 -0.854
87 AF2 230 -1.831
87 AF2 231 -1.831
87 AF2 232 -0.854
87 AF2 233 0.122
87 AF2 234 0.610
87 AF2 235 0.610
87 AF2 236 0.610
87 AF2 237 0.122
87 AF2 238 0.122
87 AF2 239 -0.366
87 AF2 240 -0.854
87 AF2 241 -1.343
87 AF2 242 -1.831
87 AF2 243 -1.343
87 AF2 244 -1.343
87 AF2 245 -0.854
87 AF2 246 -0.854
87 AF2 247 -0.854
87 AF2 248 -1.343
87 AF2 249 -1.831
87 AF2 250 -2.808
87 AF2 251 -2.808
87 AF2 252 -2.808
87 AF2 253 -1.831
87 AF2 254 -0.366
87 AF2 255 0.610
# FZ chan 6
87 FZ 0 -0.468
87 FZ 1 0.509
87 FZ 2 1.973
87 FZ 3 2.950
87 FZ 4 2.462
87 FZ 5 0.997
87 FZ 6 0.020
87 FZ 7 0.020
87 FZ 8 0.997
87 FZ 9 1.973
87 FZ 10 2.950
87 FZ 11 2.462
87 FZ 12 1.973
87 FZ 13 1.973
87 FZ 14 2.950
87 FZ 15 3.927
87 FZ 16 4.415
87 FZ 17 3.438
87 FZ 18 2.462
87 FZ 19 1.485
87 FZ 20 0.997
87 FZ 21 0.997
87 FZ 22 1.485
87 FZ 23 1.485
87 FZ 24 0.997
87 FZ 25 1.485
87 FZ 26 2.462
87 FZ 27 3.438
87 FZ 28 3.927
87 FZ 29 2.950
87 FZ 30 1.485
87 FZ 31 0.997
87 FZ 32 1.973
87 FZ 33 3.438
87 FZ 34 4.903
87 FZ 35 4.903
87 FZ 36 4.415
87 FZ 37 3.927
87 FZ 38 3.438
87 FZ 39 3.927
87 FZ 40 3.927
87 FZ 41 3.438
87 FZ 42 2.950
87 FZ 43 2.462
87 FZ 44 2.462
87 FZ 45 2.462
87 FZ 46 1.973
87 FZ 47 1.485
87 FZ 48 0.509
87 FZ 49 0.509
87 FZ 50 1.485
87 FZ 51 2.950
87 FZ 52 3.927
87 FZ 53 4.415
87 FZ 54 3.438
87 FZ 55 2.462
87 FZ 56 1.485
87 FZ 57 0.509
87 FZ 58 0.509
87 FZ 59 0.020
87 FZ 60 0.020
87 FZ 61 0.509
87 FZ 62 0.997
87 FZ 63 1.485
87 FZ 64 0.509
87 FZ 65 -0.468
87 FZ 66 -1.444
87 FZ 67 -1.444
87 FZ 68 -0.468
87 FZ 69 0.997
87 FZ 70 1.973
87 FZ 71 1.973
87 FZ 72 1.485
87 FZ 73 1.485
87 FZ 74 1.485
87 FZ 75 1.973
87 FZ 76 1.973
87 FZ 77 1.973
87 FZ 78 0.997
87 FZ 79 0.509
87 FZ 80 0.997
87 FZ 81 1.485
87 FZ 82 0.997
87 FZ 83 0.509
87 FZ 84 0.020
87 FZ 85 -0.468
87 FZ 86 -0.956
87 FZ 87 -0.468
87 FZ 88 -0.468
87 FZ 89 -0.468
87 FZ 90 0.020
87 FZ 91 0.020
87 FZ 92 0.509
87 FZ 93 0.997
87 FZ 94 1.485
87 FZ 95 1.485
87 FZ 96 1.973
87 FZ 97 2.462
87 FZ 98 2.462
87 FZ 99 1.973
87 FZ 100 0.997
87 FZ 101 0.509
87 FZ 102 0.997
87 FZ 103 1.973
87 FZ 104 3.927
87 FZ 105 4.903
87 FZ 106 4.903
87 FZ 107 4.415
87 FZ 108 3.927
87 FZ 109 3.927
87 FZ 110 4.415
87 FZ 111 4.903
87 FZ 112 4.903
87 FZ 113 4.415
87 FZ 114 3.927
87 FZ 115 2.950
87 FZ 116 2.950
87 FZ 117 2.950
87 FZ 118 2.462
87 FZ 119 2.462
87 FZ 120 2.462
87 FZ 121 2.950
87 FZ 122 3.927
87 FZ 123 4.415
87 FZ 124 3.927
87 FZ 125 2.950
87 FZ 126 2.462
87 FZ 127 2.462
87 FZ 128 2.462
87 FZ 129 2.462
87 FZ 130 2.950
87 FZ 131 3.927
87 FZ 132 4.903
87 FZ 133 5.880
87 FZ 134 6.368
87 FZ 135 4.903
87 FZ 136 2.950
87 FZ 137 0.509
87 FZ 138 -0.468
87 FZ 139 0.509
87 FZ 140 2.462
87 FZ 141 3.927
87 FZ 142 4.415
87 FZ 143 4.415
87 FZ 144 4.415
87 FZ 145 4.903
87 FZ 146 4.903
87 FZ 147 4.415
87 FZ 148 2.950
87 FZ 149 1.485
87 FZ 150 0.997
87 FZ 151 0.997
87 FZ 152 1.485
87 FZ 153 1.485
87 FZ 154 1.485
87 FZ 155 0.997
87 FZ 156 1.485
87 FZ 157 2.950
87 FZ 158 4.415
87 FZ 159 5.391
87 FZ 160 4.903
87 FZ 161 3.438
87 FZ 162 1.485
87 FZ 163 0.997
87 FZ 164 0.997
87 FZ 165 1.973
87 FZ 166 2.462
87 FZ 167 2.950
87 FZ 168 2.462
87 FZ 169 1.973
87 FZ 170 1.485
87 FZ 171 0.509
87 FZ 172 0.020
87 FZ 173 -0.468
87 FZ 174 -0.956
87 FZ 175 -0.956
87 FZ 176 0.020
87 FZ 177 0.509
87 FZ 178 1.485
87 FZ 179 1.485
87 FZ 180 0.509
87 FZ 181 0.020
87 FZ 182 -0.956
87 FZ 183 -1.444
87 FZ 184 -1.444
87 FZ 185 -0.956
87 FZ 186 -0.956
87 FZ 187 -0.956
87 FZ 188 -1.444
87 FZ 189 -1.444
87 FZ 190 -1.444
87 FZ 191 -0.956
87 FZ 192 -0.468
87 FZ 193 -0.468
87 FZ 194 -0.956
87 FZ 195 -1.933
87 FZ 196 -2.909
87 FZ 197 -3.886
87 FZ 198 -4.374
87 FZ 199 -4.374
87 FZ 200 -4.374
87 FZ 201 -4.862
87 FZ 202 -5.351
87 FZ 203 -5.839
87 FZ 204 -5.351
87 FZ 205 -3.886
87 FZ 206 -1.933
87 FZ 207 -0.468
87 FZ 208 0.020
87 FZ 209 -0.956
87 FZ 210 -2.421
87 FZ 211 -4.374
87 FZ 212 -5.351
87 FZ 213 -5.839
87 FZ 214 -4.862
87 FZ 215 -3.886
87 FZ 216 -2.909
87 FZ 217 -1.933
87 FZ 218 -1.933
87 FZ 219 -2.421
87 FZ 220 -2.421
87 FZ 221 -2.421
87 FZ 222 -1.933
87 FZ 223 -1.444
87 FZ 224 -0.956
87 FZ 225 -0.468
87 FZ 226 0.020
87 FZ 227 0.020
87 FZ 228 -0.468
87 FZ 229 -0.956
87 FZ 230 -1.933
87 FZ 231 -1.933
87 FZ 232 -1.933
87 FZ 233 -0.956
87 FZ 234 -0.468
87 FZ 235 0.020
87 FZ 236 0.020
87 FZ 237 -0.468
87 FZ 238 -0.956
87 FZ 239 -1.933
87 FZ 240 -2.909
87 FZ 241 -2.909
87 FZ 242 -2.909
87 FZ 243 -2.421
87 FZ 244 -2.421
87 FZ 245 -1.933
87 FZ 246 -1.933
87 FZ 247 -1.444
87 FZ 248 -1.933
87 FZ 249 -2.421
87 FZ 250 -3.398
87 FZ 251 -3.886
87 FZ 252 -3.398
87 FZ 253 -2.909
87 FZ 254 -1.444
87 FZ 255 -0.468
# F4 chan 7
87 F4 0 0.682
87 F4 1 1.170
87 F4 2 1.658
87 F4 3 2.146
87 F4 4 1.658
87 F4 5 0.193
87 F4 6 -1.272
87 F4 7 -1.272
87 F4 8 -0.783
87 F4 9 0.193
87 F4 10 1.170
87 F4 11 0.682
87 F4 12 0.193
87 F4 13 -0.295
87 F4 14 -0.783
87 F4 15 -0.295
87 F4 16 0.193
87 F4 17 -0.295
87 F4 18 -1.272
87 F4 19 -2.248
87 F4 20 -1.760
87 F4 21 -1.272
87 F4 22 0.193
87 F4 23 1.170
87 F4 24 1.170
87 F4 25 0.682
87 F4 26 0.682
87 F4 27 0.193
87 F4 28 0.682
87 F4 29 0.682
87 F4 30 0.193
87 F4 31 0.193
87 F4 32 0.193
87 F4 33 1.170
87 F4 34 1.658
87 F4 35 1.658
87 F4 36 2.146
87 F4 37 2.146
87 F4 38 2.146
87 F4 39 2.146
87 F4 40 1.658
87 F4 41 1.658
87 F4 42 1.658
87 F4 43 1.658
87 F4 44 2.146
87 F4 45 2.146
87 F4 46 2.146
87 F4 47 1.658
87 F4 48 1.170
87 F4 49 1.170
87 F4 50 1.658
87 F4 51 3.123
87 F4 52 4.100
87 F4 53 4.588
87 F4 54 3.611
87 F4 55 2.146
87 F4 56 1.170
87 F4 57 0.682
87 F4 58 1.170
87 F4 59 1.170
87 F4 60 1.170
87 F4 61 0.682
87 F4 62 1.170
87 F4 63 1.658
87 F4 64 2.146
87 F4 65 1.658
87 F4 66 1.170
87 F4 67 0.682
87 F4 68 0.682
87 F4 69 1.658
87 F4 70 3.123
87 F4 71 3.123
87 F4 72 2.635
87 F4 73 1.170
87 F4 74 1.170
87 F4 75 1.658
87 F4 76 3.123
87 F4 77 4.100
87 F4 78 3.611
87 F4 79 1.658
87 F4 80 0.193
87 F4 81 -0.783
87 F4 82 -0.783
87 F4 83 0.682
87 F4 84 1.658
87 F4 85 2.146
87 F4 86 1.658
87 F4 87 0.682
87 F4 88 0.193
87 F4 89 -0.295
87 F4 90 -0.783
87 F4 91 -0.295
87 F4 92 0.193
87 F4 93 1.170
87 F4 94 2.146
87 F4 95 2.635
87 F4 96 3.123
87 F4 97 2.635
87 F4 98 2.146
87 F4 99 0.682
87 F4 100 -0.783
87 F4 101 -1.760
87 F4 102 -1.760
87 F4 103 -0.783
87 F4 104 1.658
87 F4 105 3.123
87 F4 106 4.100
87 F4 107 4.100
87 F4 108 3.123
87 F4 109 2.635
87 F4 110 2.635
87 F4 111 3.611
87 F4 112 4.100
87 F4 113 4.100
87 F4 114 3.611
87 F4 115 3.611
87 F4 116 3.123
87 F4 117 3.123
87 F4 118 3.123
87 F4 119 3.123
87 F4 120 3.123
87 F4 121 3.611
87 F4 122 4.588
87 F4 123 4.588
87 F4 124 4.100
87 F4 125 2.635
87 F4 126 2.146
87 F4 127 1.658
87 F4 128 2.146
87 F4 129 2.635
87 F4 130 3.123
87 F4 131 3.611
87 F4 132 4.100
87 F4 133 4.588
87 F4 134 4.100
87 F4 135 2.146
87 F4 136 -0.783
87 F4 137 -2.736
87 F4 138 -3.225
87 F4 139 -1.272
87 F4 140 0.682
87 F4 141 2.146
87 F4 142 3.123
87 F4 143 3.123
87 F4 144 4.100
87 F4 145 4.588
87 F4 146 5.076
87 F4 147 3.611
87 F4 148 1.170
87 F4 149 -0.783
87 F4 150 -1.760
87 F4 151 -0.295
87 F4 152 1.658
87 F4 153 2.635
87 F4 154 1.658
87 F4 155 0.193
87 F4 156 0.193
87 F4 157 0.682
87 F4 158 2.635
87 F4 159 4.100
87 F4 160 3.611
87 F4 161 2.146
87 F4 162 0.193
87 F4 163 -0.783
87 F4 164 -0.783
87 F4 165 -0.783
87 F4 166 -1.272
87 F4 167 -1.760
87 F4 168 -2.248
87 F4 169 -2.248
87 F4 170 -1.760
87 F4 171 -1.272
87 F4 172 -1.760
87 F4 173 -3.225
87 F4 174 -3.713
87 F4 175 -3.713
87 F4 176 -3.225
87 F4 177 -2.248
87 F4 178 -1.760
87 F4 179 -2.248
87 F4 180 -3.225
87 F4 181 -3.713
87 F4 182 -3.225
87 F4 183 -3.225
87 F4 184 -3.713
87 F4 185 -4.201
87 F4 186 -4.201
87 F4 187 -4.201
87 F4 188 -3.225
87 F4 189 -2.248
87 F4 190 -1.272
87 F4 191 -0.783
87 F4 192 -1.272
87 F4 193 -0.783
87 F4 194 -1.272
87 F4 195 -1.760
87 F4 196 -3.225
87 F4 197 -4.690
87 F4 198 -5.666
87 F4 199 -5.666
87 F4 200 -5.666
87 F4 201 -5.178
87 F4 202 -5.178
87 F4 203 -5.666
87 F4 204 -5.666
87 F4 205 -4.201
87 F4 206 -2.248
87 F4 207 -0.295
87 F4 208 0.682
87 F4 209 -0.295
87 F4 210 -2.248
87 F4 211 -4.201
87 F4 212 -5.178
87 F4 213 -4.690
87 F4 214 -4.201
87 F4 215 -3.225
87 F4 216 -2.736
87 F4 217 -2.248
87 F4 218 -2.248
87 F4 219 -2.736
87 F4 220 -3.225
87 F4 221 -3.713
87 F4 222 -3.713
87 F4 223 -3.225
87 F4 224 -1.760
87 F4 225 0.193
87 F4 226 2.146
87 F4 227 2.635
87 F4 228 2.146
87 F4 229 1.170
87 F4 230 0.193
87 F4 231 -0.295
87 F4 232 -0.295
87 F4 233 -0.295
87 F4 234 -0.783
87 F4 235 -1.272
87 F4 236 -1.760
87 F4 237 -1.272
87 F4 238 -1.272
87 F4 239 -0.783
87 F4 240 -1.760
87 F4 241 -2.736
87 F4 242 -3.713
87 F4 243 -4.690
87 F4 244 -4.201
87 F4 245 -3.713
87 F4 246 -3.225
87 F4 247 -2.736
87 F4 248 -2.736
87 F4 249 -2.736
87 F4 250 -3.225
87 F4 251 -4.201
87 F4 252 -4.201
87 F4 253 -4.201
87 F4 254 -3.713
87 F4 255 -3.225
# F3 chan 8
87 F3 0 -0.387
87 F3 1 0.102
87 F3 2 1.078
87 F3 3 2.055
87 F3 4 2.055
87 F3 5 1.567
87 F3 6 1.078
87 F3 7 1.567
87 F3 8 2.055
87 F3 9 3.031
87 F3 10 3.520
87 F3 11 3.520
87 F3 12 3.520
87 F3 13 4.008
87 F3 14 4.985
87 F3 15 5.961
87 F3 16 6.938
87 F3 17 6.938
87 F3 18 5.961
87 F3 19 4.985
87 F3 20 4.008
87 F3 21 3.031
87 F3 22 2.055
87 F3 23 1.078
87 F3 24 0.590
87 F3 25 1.567
87 F3 26 3.520
87 F3 27 5.473
87 F3 28 6.449
87 F3 29 5.473
87 F3 30 3.520
87 F3 31 2.543
87 F3 32 4.008
87 F3 33 6.938
87 F3 34 9.379
87 F3 35 9.379
87 F3 36 7.426
87 F3 37 4.496
87 F3 38 3.520
87 F3 39 3.520
87 F3 40 4.985
87 F3 41 5.961
87 F3 42 5.473
87 F3 43 4.496
87 F3 44 3.031
87 F3 45 1.567
87 F3 46 1.078
87 F3 47 0.590
87 F3 48 1.078
87 F3 49 1.567
87 F3 50 2.543
87 F3 51 4.008
87 F3 52 4.496
87 F3 53 4.008
87 F3 54 2.543
87 F3 55 0.590
87 F3 56 -1.363
87 F3 57 -2.340
87 F3 58 -2.340
87 F3 59 -1.851
87 F3 60 -0.875
87 F3 61 -0.387
87 F3 62 0.590
87 F3 63 0.590
87 F3 64 0.102
87 F3 65 -0.875
87 F3 66 -1.851
87 F3 67 -2.340
87 F3 68 -2.340
87 F3 69 -1.363
87 F3 70 -0.875
87 F3 71 -0.387
87 F3 72 -0.387
87 F3 73 -0.387
87 F3 74 -0.387
87 F3 75 -0.875
87 F3 76 -1.851
87 F3 77 -2.340
87 F3 78 -1.363
87 F3 79 0.102
87 F3 80 1.567
87 F3 81 2.543
87 F3 82 2.055
87 F3 83 0.102
87 F3 84 -1.363
87 F3 85 -2.340
87 F3 86 -2.828
87 F3 87 -2.340
87 F3 88 -2.340
87 F3 89 -2.340
87 F3 90 -2.340
87 F3 91 -1.851
87 F3 92 -0.875
87 F3 93 -0.387
87 F3 94 0.102
87 F3 95 0.102
87 F3 96 0.590
87 F3 97 0.590
87 F3 98 0.590
87 F3 99 0.102
87 F3 100 -0.387
87 F3 101 -0.387
87 F3 102 0.590
87 F3 103 2.055
87 F3 104 3.520
87 F3 105 4.008
87 F3 106 3.520
87 F3 107 2.543
87 F3 108 2.543
87 F3 109 3.031
87 F3 110 3.520
87 F3 111 4.008
87 F3 112 3.520
87 F3 113 2.055
87 F3 114 1.078
87 F3 115 1.078
87 F3 116 1.567
87 F3 117 2.543
87 F3 118 3.031
87 F3 119 2.543
87 F3 120 1.567
87 F3 121 0.590
87 F3 122 1.078
87 F3 123 2.055
87 F3 124 2.543
87 F3 125 3.031
87 F3 126 2.543
87 F3 127 2.055
87 F3 128 1.078
87 F3 129 1.078
87 F3 130 1.567
87 F3 131 2.543
87 F3 132 4.008
87 F3 133 5.961
87 F3 134 6.938
87 F3 135 5.961
87 F3 136 4.008
87 F3 137 1.078
87 F3 138 -0.387
87 F3 139 -0.387
87 F3 140 0.590
87 F3 141 2.543
87 F3 142 3.520
87 F3 143 4.008
87 F3 144 3.520
87 F3 145 2.543
87 F3 146 1.567
87 F3 147 1.567
87 F3 148 2.055
87 F3 149 2.543
87 F3 150 3.031
87 F3 151 2.543
87 F3 152 0.590
87 F3 153 -1.363
87 F3 154 -2.340
87 F3 155 -2.340
87 F3 156 -0.387
87 F3 157 2.055
87 F3 158 4.008
87 F3 159 4.496
87 F3 160 3.520
87 F3 161 2.543
87 F3 162 1.078
87 F3 163 0.590
87 F3 164 1.078
87 F3 165 2.543
87 F3 166 3.031
87 F3 167 3.031
87 F3 168 2.055
87 F3 169 -0.387
87 F3 170 -2.340
87 F3 171 -3.805
87 F3 172 -4.293
87 F3 173 -2.828
87 F3 174 -1.363
87 F3 175 0.102
87 F3 176 0.590
87 F3 177 0.590
87 F3 178 0.590
87 F3 179 1.078
87 F3 180 0.590
87 F3 181 0.590
87 F3 182 -0.387
87 F3 183 -0.875
87 F3 184 -0.875
87 F3 185 -0.387
87 F3 186 -0.387
87 F3 187 -1.363
87 F3 188 -2.828
87 F3 189 -3.316
87 F3 190 -2.828
87 F3 191 -1.363
87 F3 192 0.102
87 F3 193 0.102
87 F3 194 -2.340
87 F3 195 -5.269
87 F3 196 -7.711
87 F3 197 -8.199
87 F3 198 -7.222
87 F3 199 -6.246
87 F3 200 -6.734
87 F3 201 -7.711
87 F3 202 -9.176
87 F3 203 -9.176
87 F3 204 -8.199
87 F3 205 -6.734
87 F3 206 -5.758
87 F3 207 -5.758
87 F3 208 -5.758
87 F3 209 -5.758
87 F3 210 -5.269
87 F3 211 -5.269
87 F3 212 -5.269
87 F3 213 -5.269
87 F3 214 -5.758
87 F3 215 -5.269
87 F3 216 -4.293
87 F3 217 -4.293
87 F3 218 -4.293
87 F3 219 -5.758
87 F3 220 -6.246
87 F3 221 -6.246
87 F3 222 -5.269
87 F3 223 -3.805
87 F3 224 -3.316
87 F3 225 -3.805
87 F3 226 -4.293
87 F3 227 -4.293
87 F3 228 -4.293
87 F3 229 -4.293
87 F3 230 -4.781
87 F3 231 -5.269
87 F3 232 -5.758
87 F3 233 -5.758
87 F3 234 -4.781
87 F3 235 -2.828
87 F3 236 -1.851
87 F3 237 -1.851
87 F3 238 -3.316
87 F3 239 -5.758
87 F3 240 -8.199
87 F3 241 -8.687
87 F3 242 -7.711
87 F3 243 -5.269
87 F3 244 -3.316
87 F3 245 -2.340
87 F3 246 -2.828
87 F3 247 -3.805
87 F3 248 -5.269
87 F3 249 -5.758
87 F3 250 -5.758
87 F3 251 -5.269
87 F3 252 -3.805
87 F3 253 -2.340
87 F3 254 -1.851
87 F3 255 -2.828
# FC6 chan 9
87 FC6 0 1.638
87 FC6 1 1.149
87 FC6 2 0.661
87 FC6 3 0.661
87 FC6 4 1.638
87 FC6 5 2.614
87 FC6 6 3.103
87 FC6 7 3.103
87 FC6 8 2.126
87 FC6 9 1.149
87 FC6 10 0.173
87 FC6 11 -0.315
87 FC6 12 -0.804
87 FC6 13 -0.804
87 FC6 14 -0.804
87 FC6 15 -0.804
87 FC6 16 -1.292
87 FC6 17 -2.268
87 FC6 18 -2.757
87 FC6 19 -2.757
87 FC6 20 -1.780
87 FC6 21 -0.315
87 FC6 22 1.149
87 FC6 23 1.638
87 FC6 24 1.149
87 FC6 25 0.661
87 FC6 26 0.661
87 FC6 27 1.149
87 FC6 28 2.614
87 FC6 29 3.103
87 FC6 30 2.614
87 FC6 31 1.638
87 FC6 32 0.661
87 FC6 33 0.173
87 FC6 34 0.173
87 FC6 35 0.661
87 FC6 36 1.149
87 FC6 37 2.126
87 FC6 38 2.614
87 FC6 39 2.614
87 FC6 40 2.126
87 FC6 41 2.126
87 FC6 42 2.126
87 FC6 43 3.103
87 FC6 44 4.079
87 FC6 45 4.567
87 FC6 46 4.079
87 FC6 47 3.103
87 FC6 48 1.638
87 FC6 49 1.149
87 FC6 50 2.126
87 FC6 51 3.103
87 FC6 52 4.567
87 FC6 53 5.544
87 FC6 54 6.032
87 FC6 55 6.032
87 FC6 56 5.056
87 FC6 57 4.079
87 FC6 58 2.126
87 FC6 59 0.173
87 FC6 60 -0.315
87 FC6 61 0.173
87 FC6 62 1.638
87 FC6 63 4.079
87 FC6 64 5.544
87 FC6 65 6.032
87 FC6 66 5.056
87 FC6 67 3.591
87 FC6 68 1.638
87 FC6 69 1.149
87 FC6 70 1.638
87 FC6 71 2.126
87 FC6 72 2.126
87 FC6 73 1.149
87 FC6 74 0.173
87 FC6 75 1.149
87 FC6 76 3.103
87 FC6 77 4.567
87 FC6 78 4.079
87 FC6 79 1.638
87 FC6 80 -1.292
87 FC6 81 -1.780
87 FC6 82 0.173
87 FC6 83 3.103
87 FC6 84 5.056
87 FC6 85 4.567
87 FC6 86 2.126
87 FC6 87 -0.315
87 FC6 88 -1.292
87 FC6 89 -0.315
87 FC6 90 1.149
87 FC6 91 1.149
87 FC6 92 0.661
87 FC6 93 0.173
87 FC6 94 0.173
87 FC6 95 1.638
87 FC6 96 2.614
87 FC6 97 2.614
87 FC6 98 1.149
87 FC6 99 -0.315
87 FC6 100 -1.780
87 FC6 101 -2.268
87 FC6 102 -3.245
87 FC6 103 -3.733
87 FC6 104 -3.245
87 FC6 105 -1.780
87 FC6 106 0.173
87 FC6 107 1.638
87 FC6 108 1.149
87 FC6 109 -0.315
87 FC6 110 -2.268
87 FC6 111 -2.757
87 FC6 112 -2.268
87 FC6 113 -1.292
87 FC6 114 -0.804
87 FC6 115 -1.292
87 FC6 116 -1.780
87 FC6 117 -1.292
87 FC6 118 0.173
87 FC6 119 2.126
87 FC6 120 3.103
87 FC6 121 3.103
87 FC6 122 1.638
87 FC6 123 0.661
87 FC6 124 -0.804
87 FC6 125 -1.292
87 FC6 126 -1.292
87 FC6 127 -1.292
87 FC6 128 -0.315
87 FC6 129 0.661
87 FC6 130 1.638
87 FC6 131 1.638
87 FC6 132 0.661
87 FC6 133 -0.315
87 FC6 134 -1.292
87 FC6 135 -1.780
87 FC6 136 -2.268
87 FC6 137 -2.757
87 FC6 138 -2.757
87 FC6 139 -2.757
87 FC6 140 -1.780
87 FC6 141 -1.292
87 FC6 142 -1.780
87 FC6 143 -1.292
87 FC6 144 -0.804
87 FC6 145 0.173
87 FC6 146 0.661
87 FC6 147 0.661
87 FC6 148 -0.804
87 FC6 149 -2.757
87 FC6 150 -3.733
87 FC6 151 -2.268
87 FC6 152 0.173
87 FC6 153 2.126
87 FC6 154 2.126
87 FC6 155 0.173
87 FC6 156 -2.268
87 FC6 157 -2.757
87 FC6 158 -1.292
87 FC6 159 0.661
87 FC6 160 2.126
87 FC6 161 1.149
87 FC6 162 -1.292
87 FC6 163 -4.710
87 FC6 164 -6.663
87 FC6 165 -7.640
87 FC6 166 -7.640
87 FC6 167 -6.663
87 FC6 168 -5.686
87 FC6 169 -5.198
87 FC6 170 -5.198
87 FC6 171 -5.686
87 FC6 172 -6.663
87 FC6 173 -7.151
87 FC6 174 -6.663
87 FC6 175 -5.198
87 FC6 176 -3.733
87 FC6 177 -3.733
87 FC6 178 -4.710
87 FC6 179 -6.175
87 FC6 180 -6.663
87 FC6 181 -6.663
87 FC6 182 -5.198
87 FC6 183 -4.710
87 FC6 184 -5.686
87 FC6 185 -6.663
87 FC6 186 -7.640
87 FC6 187 -6.663
87 FC6 188 -4.710
87 FC6 189 -2.757
87 FC6 190 -1.780
87 FC6 191 -1.292
87 FC6 192 -1.780
87 FC6 193 -2.268
87 FC6 194 -2.757
87 FC6 195 -3.733
87 FC6 196 -5.198
87 FC6 197 -6.663
87 FC6 198 -7.640
87 FC6 199 -8.128
87 FC6 200 -8.616
87 FC6 201 -8.616
87 FC6 202 -9.104
87 FC6 203 -8.616
87 FC6 204 -7.640
87 FC6 205 -5.686
87 FC6 206 -2.268
87 FC6 207 0.173
87 FC6 208 1.638
87 FC6 209 0.661
87 FC6 210 -1.780
87 FC6 211 -3.733
87 FC6 212 -5.198
87 FC6 213 -5.198
87 FC6 214 -4.710
87 FC6 215 -4.222
87 FC6 216 -3.245
87 FC6 217 -2.757
87 FC6 218 -1.780
87 FC6 219 -1.780
87 FC6 220 -2.757
87 FC6 221 -4.710
87 FC6 222 -5.686
87 FC6 223 -5.686
87 FC6 224 -4.222
87 FC6 225 -0.804
87 FC6 226 1.638
87 FC6 227 3.103
87 FC6 228 2.614
87 FC6 229 2.126
87 FC6 230 2.126
87 FC6 231 2.126
87 FC6 232 1.638
87 FC6 233 0.661
87 FC6 234 -0.804
87 FC6 235 -1.780
87 FC6 236 -2.268
87 FC6 237 -2.757
87 FC6 238 -3.245
87 FC6 239 -4.222
87 FC6 240 -4.222
87 FC6 241 -4.222
87 FC6 242 -3.245
87 FC6 243 -3.245
87 FC6 244 -3.245
87 FC6 245 -3.733
87 FC6 246 -3.245
87 FC6 247 -2.268
87 FC6 248 -0.804
87 FC6 249 -0.315
87 FC6 250 -1.292
87 FC6 251 -2.757
87 FC6 252 -3.733
87 FC6 253 -4.222
87 FC6 254 -3.733
87 FC6 255 -3.245
# FC5 chan 10
87 FC5 0 -3.021
87 FC5 1 -3.021
87 FC5 2 -3.021
87 FC5 3 -2.533
87 FC5 4 -1.556
87 FC5 5 -0.580
87 FC5 6 0.885
87 FC5 7 1.373
87 FC5 8 1.373
87 FC5 9 0.397
87 FC5 10 -0.580
87 FC5 11 -0.580
87 FC5 12 0.397
87 FC5 13 1.373
87 FC5 14 2.838
87 FC5 15 3.815
87 FC5 16 4.303
87 FC5 17 4.791
87 FC5 18 4.303
87 FC5 19 3.326
87 FC5 20 1.373
87 FC5 21 -1.068
87 FC5 22 -3.510
87 FC5 23 -3.998
87 FC5 24 -3.510
87 FC5 25 -1.556
87 FC5 26 0.885
87 FC5 27 1.373
87 FC5 28 0.397
87 FC5 29 -1.068
87 FC5 30 -1.556
87 FC5 31 -0.092
87 FC5 32 2.350
87 FC5 33 5.280
87 FC5 34 6.256
87 FC5 35 4.791
87 FC5 36 2.350
87 FC5 37 0.397
87 FC5 38 -0.092
87 FC5 39 0.885
87 FC5 40 2.838
87 FC5 41 3.326
87 FC5 42 2.838
87 FC5 43 1.373
87 FC5 44 -0.092
87 FC5 45 -0.580
87 FC5 46 -1.068
87 FC5 47 -1.556
87 FC5 48 -2.045
87 FC5 49 -2.533
87 FC5 50 -2.533
87 FC5 51 -2.533
87 FC5 52 -2.533
87 FC5 53 -3.021
87 FC5 54 -3.998
87 FC5 55 -4.974
87 FC5 56 -5.951
87 FC5 57 -5.951
87 FC5 58 -5.951
87 FC5 59 -4.974
87 FC5 60 -4.486
87 FC5 61 -3.998
87 FC5 62 -3.510
87 FC5 63 -3.998
87 FC5 64 -4.486
87 FC5 65 -5.463
87 FC5 66 -6.439
87 FC5 67 -6.927
87 FC5 68 -7.416
87 FC5 69 -7.416
87 FC5 70 -6.927
87 FC5 71 -6.439
87 FC5 72 -5.463
87 FC5 73 -5.463
87 FC5 74 -5.463
87 FC5 75 -6.439
87 FC5 76 -6.927
87 FC5 77 -6.927
87 FC5 78 -5.463
87 FC5 79 -3.021
87 FC5 80 -0.580
87 FC5 81 -0.092
87 FC5 82 -1.068
87 FC5 83 -3.021
87 FC5 84 -5.463
87 FC5 85 -6.439
87 FC5 86 -6.927
87 FC5 87 -6.927
87 FC5 88 -6.927
87 FC5 89 -6.927
87 FC5 90 -7.416
87 FC5 91 -7.416
87 FC5 92 -6.439
87 FC5 93 -4.974
87 FC5 94 -3.510
87 FC5 95 -2.533
87 FC5 96 -2.045
87 FC5 97 -2.533
87 FC5 98 -3.510
87 FC5 99 -3.998
87 FC5 100 -3.998
87 FC5 101 -3.021
87 FC5 102 -2.045
87 FC5 103 -1.556
87 FC5 104 -2.045
87 FC5 105 -2.533
87 FC5 106 -3.021
87 FC5 107 -3.021
87 FC5 108 -2.045
87 FC5 109 -1.068
87 FC5 110 -1.068
87 FC5 111 -2.045
87 FC5 112 -3.510
87 FC5 113 -4.486
87 FC5 114 -4.486
87 FC5 115 -3.510
87 FC5 116 -2.533
87 FC5 117 -1.068
87 FC5 118 -0.092
87 FC5 119 -0.092
87 FC5 120 -1.068
87 FC5 121 -2.045
87 FC5 122 -3.021
87 FC5 123 -3.021
87 FC5 124 -2.533
87 FC5 125 -1.068
87 FC5 126 -0.092
87 FC5 127 -0.580
87 FC5 128 -2.045
87 FC5 129 -3.021
87 FC5 130 -3.998
87 FC5 131 -3.021
87 FC5 132 -1.556
87 FC5 133 0.397
87 FC5 134 1.373
87 FC5 135 0.885
87 FC5 136 0.397
87 FC5 137 -1.068
87 FC5 138 -2.045
87 FC5 139 -2.533
87 FC5 140 -3.021
87 FC5 141 -3.021
87 FC5 142 -2.045
87 FC5 143 -0.580
87 FC5 144 -0.092
87 FC5 145 -1.068
87 FC5 146 -3.021
87 FC5 147 -3.510
87 FC5 148 -2.533
87 FC5 149 -0.580
87 FC5 150 0.885
87 FC5 151 0.397
87 FC5 152 -2.045
87 FC5 153 -5.463
87 FC5 154 -6.439
87 FC5 155 -5.463
87 FC5 156 -2.533
87 FC5 157 -0.092
87 FC5 158 0.885
87 FC5 159 0.397
87 FC5 160 -1.068
87 FC5 161 -2.045
87 FC5 162 -2.045
87 FC5 163 -1.556
87 FC5 164 -1.068
87 FC5 165 -0.580
87 FC5 166 -0.092
87 FC5 167 -0.580
87 FC5 168 -3.021
87 FC5 169 -6.439
87 FC5 170 -9.857
87 FC5 171 -11.810
87 FC5 172 -10.834
87 FC5 173 -7.416
87 FC5 174 -3.021
87 FC5 175 -0.092
87 FC5 176 0.885
87 FC5 177 -0.092
87 FC5 178 -1.068
87 FC5 179 -1.068
87 FC5 180 -0.580
87 FC5 181 -0.092
87 FC5 182 -0.580
87 FC5 183 -0.580
87 FC5 184 -0.580
87 FC5 185 -1.068
87 FC5 186 -1.556
87 FC5 187 -3.510
87 FC5 188 -5.951
87 FC5 189 -6.927
87 FC5 190 -6.439
87 FC5 191 -4.974
87 FC5 192 -3.998
87 FC5 193 -4.486
87 FC5 194 -6.927
87 FC5 195 -10.345
87 FC5 196 -12.299
87 FC5 197 -12.787
87 FC5 198 -11.322
87 FC5 199 -10.345
87 FC5 200 -10.345
87 FC5 201 -11.810
87 FC5 202 -13.275
87 FC5 203 -13.275
87 FC5 204 -12.299
87 FC5 205 -11.322
87 FC5 206 -10.345
87 FC5 207 -9.857
87 FC5 208 -7.904
87 FC5 209 -5.463
87 FC5 210 -2.533
87 FC5 211 -1.068
87 FC5 212 -1.068
87 FC5 213 -2.533
87 FC5 214 -4.486
87 FC5 215 -5.463
87 FC5 216 -4.974
87 FC5 217 -4.974
87 FC5 218 -5.463
87 FC5 219 -7.416
87 FC5 220 -8.881
87 FC5 221 -9.369
87 FC5 222 -8.392
87 FC5 223 -6.927
87 FC5 224 -6.439
87 FC5 225 -6.439
87 FC5 226 -6.927
87 FC5 227 -7.904
87 FC5 228 -7.904
87 FC5 229 -8.392
87 FC5 230 -9.369
87 FC5 231 -10.834
87 FC5 232 -11.322
87 FC5 233 -10.834
87 FC5 234 -8.881
87 FC5 235 -5.463
87 FC5 236 -3.510
87 FC5 237 -3.021
87 FC5 238 -4.974
87 FC5 239 -7.904
87 FC5 240 -9.857
87 FC5 241 -10.834
87 FC5 242 -9.857
87 FC5 243 -8.392
87 FC5 244 -6.927
87 FC5 245 -5.951
87 FC5 246 -6.439
87 FC5 247 -6.927
87 FC5 248 -8.392
87 FC5 249 -8.881
87 FC5 250 -8.392
87 FC5 251 -7.416
87 FC5 252 -6.439
87 FC5 253 -5.951
87 FC5 254 -6.439
87 FC5 255 -8.392
# FC2 chan 11
87 FC2 0 0.773
87 FC2 1 1.261
87 FC2 2 1.261
87 FC2 3 1.261
87 FC2 4 1.261
87 FC2 5 0.773
87 FC2 6 0.285
87 FC2 7 0.285
87 FC2 8 0.285
87 FC2 9 0.285
87 FC2 10 0.285
87 FC2 11 0.285
87 FC2 12 -0.203
87 FC2 13 -0.203
87 FC2 14 -0.203
87 FC2 15 0.285
87 FC2 16 0.773
87 FC2 17 0.773
87 FC2 18 -0.203
87 FC2 19 -0.203
87 FC2 20 -0.692
87 FC2 21 -0.203
87 FC2 22 0.285
87 FC2 23 0.773
87 FC2 24 0.773
87 FC2 25 0.773
87 FC2 26 0.773
87 FC2 27 0.285
87 FC2 28 0.285
87 FC2 29 0.285
87 FC2 30 0.285
87 FC2 31 0.285
87 FC2 32 0.285
87 FC2 33 0.773
87 FC2 34 0.773
87 FC2 35 1.261
87 FC2 36 1.261
87 FC2 37 1.750
87 FC2 38 1.750
87 FC2 39 1.750
87 FC2 40 1.261
87 FC2 41 1.261
87 FC2 42 1.261
87 FC2 43 1.261
87 FC2 44 1.750
87 FC2 45 2.238
87 FC2 46 2.238
87 FC2 47 1.750
87 FC2 48 1.261
87 FC2 49 0.773
87 FC2 50 1.261
87 FC2 51 1.750
87 FC2 52 2.726
87 FC2 53 3.215
87 FC2 54 3.215
87 FC2 55 3.215
87 FC2 56 2.238
87 FC2 57 1.750
87 FC2 58 1.261
87 FC2 59 1.261
87 FC2 60 1.261
87 FC2 61 1.261
87 FC2 62 1.261
87 FC2 63 1.750
87 FC2 64 2.238
87 FC2 65 1.750
87 FC2 66 1.261
87 FC2 67 1.261
87 FC2 68 1.261
87 FC2 69 1.750
87 FC2 70 2.726
87 FC2 71 2.726
87 FC2 72 2.726
87 FC2 73 2.238
87 FC2 74 1.750
87 FC2 75 1.750
87 FC2 76 2.238
87 FC2 77 2.726
87 FC2 78 2.238
87 FC2 79 1.261
87 FC2 80 0.773
87 FC2 81 0.285
87 FC2 82 0.773
87 FC2 83 1.261
87 FC2 84 1.261
87 FC2 85 1.261
87 FC2 86 0.773
87 FC2 87 0.773
87 FC2 88 0.285
87 FC2 89 0.773
87 FC2 90 0.773
87 FC2 91 0.773
87 FC2 92 1.261
87 FC2 93 1.261
87 FC2 94 1.750
87 FC2 95 1.750
87 FC2 96 1.750
87 FC2 97 1.750
87 FC2 98 1.750
87 FC2 99 0.773
87 FC2 100 0.285
87 FC2 101 -0.203
87 FC2 102 0.285
87 FC2 103 0.773
87 FC2 104 1.750
87 FC2 105 2.238
87 FC2 106 2.238
87 FC2 107 2.238
87 FC2 108 1.750
87 FC2 109 1.750
87 FC2 110 2.238
87 FC2 111 2.238
87 FC2 112 2.726
87 FC2 113 2.238
87 FC2 114 1.750
87 FC2 115 1.261
87 FC2 116 1.261
87 FC2 117 1.261
87 FC2 118 1.261
87 FC2 119 1.750
87 FC2 120 1.750
87 FC2 121 1.750
87 FC2 122 2.238
87 FC2 123 2.726
87 FC2 124 2.726
87 FC2 125 1.750
87 FC2 126 1.261
87 FC2 127 0.773
87 FC2 128 0.773
87 FC2 129 1.261
87 FC2 130 1.750
87 FC2 131 1.750
87 FC2 132 1.750
87 FC2 133 1.261
87 FC2 134 1.261
87 FC2 135 0.773
87 FC2 136 -0.203
87 FC2 137 -1.180
87 FC2 138 -1.180
87 FC2 139 -0.692
87 FC2 140 -0.203
87 FC2 141 0.773
87 FC2 142 1.261
87 FC2 143 1.750
87 FC2 144 1.750
87 FC2 145 1.750
87 FC2 146 2.238
87 FC2 147 1.261
87 FC2 148 0.773
87 FC2 149 -0.203
87 FC2 150 -0.692
87 FC2 151 -0.203
87 FC2 152 0.285
87 FC2 153 0.773
87 FC2 154 0.773
87 FC2 155 0.773
87 FC2 156 0.285
87 FC2 157 0.285
87 FC2 158 0.773
87 FC2 159 1.261
87 FC2 160 1.750
87 FC2 161 1.261
87 FC2 162 0.773
87 FC2 163 -0.203
87 FC2 164 -0.692
87 FC2 165 -0.692
87 FC2 166 -0.692
87 FC2 167 -0.692
87 FC2 168 -0.692
87 FC2 169 -0.692
87 FC2 170 -0.203
87 FC2 171 -0.203
87 FC2 172 -0.692
87 FC2 173 -1.180
87 FC2 174 -1.668
87 FC2 175 -2.157
87 FC2 176 -1.668
87 FC2 177 -1.668
87 FC2 178 -1.180
87 FC2 179 -1.180
87 FC2 180 -1.668
87 FC2 181 -2.157
87 FC2 182 -2.645
87 FC2 183 -2.645
87 FC2 184 -2.645
87 FC2 185 -2.157
87 FC2 186 -2.157
87 FC2 187 -2.157
87 FC2 188 -1.668
87 FC2 189 -1.180
87 FC2 190 -1.180
87 FC2 191 -0.692
87 FC2 192 -0.203
87 FC2 193 0.285
87 FC2 194 -0.203
87 FC2 195 -0.203
87 FC2 196 -0.692
87 FC2 197 -1.180
87 FC2 198 -1.668
87 FC2 199 -2.157
87 FC2 200 -2.157
87 FC2 201 -2.157
87 FC2 202 -2.157
87 FC2 203 -2.157
87 FC2 204 -1.668
87 FC2 205 -1.180
87 FC2 206 -0.203
87 FC2 207 0.285
87 FC2 208 0.285
87 FC2 209 -0.692
87 FC2 210 -2.157
87 FC2 211 -3.133
87 FC2 212 -3.133
87 FC2 213 -3.133
87 FC2 214 -2.645
87 FC2 215 -1.668
87 FC2 216 -1.180
87 FC2 217 -0.692
87 FC2 218 -0.692
87 FC2 219 -1.180
87 FC2 220 -1.180
87 FC2 221 -1.180
87 FC2 222 -1.180
87 FC2 223 -0.692
87 FC2 224 -0.203
87 FC2 225 0.285
87 FC2 226 1.261
87 FC2 227 1.750
87 FC2 228 1.750
87 FC2 229 1.750
87 FC2 230 1.261
87 FC2 231 0.773
87 FC2 232 0.773
87 FC2 233 0.773
87 FC2 234 0.285
87 FC2 235 0.285
87 FC2 236 -0.203
87 FC2 237 -0.203
87 FC2 238 -0.692
87 FC2 239 -0.692
87 FC2 240 -0.692
87 FC2 241 -1.180
87 FC2 242 -1.668
87 FC2 243 -2.157
87 FC2 244 -2.157
87 FC2 245 -2.157
87 FC2 246 -1.668
87 FC2 247 -1.180
87 FC2 248 -0.692
87 FC2 249 -0.692
87 FC2 250 -1.180
87 FC2 251 -2.157
87 FC2 252 -3.133
87 FC2 253 -3.133
87 FC2 254 -2.645
87 FC2 255 -2.157
# FC1 chan 12
87 FC1 0 0.926
87 FC1 1 0.926
87 FC1 2 1.414
87 FC1 3 1.414
87 FC1 4 1.414
87 FC1 5 0.926
87 FC1 6 0.926
87 FC1 7 0.437
87 FC1 8 0.926
87 FC1 9 1.414
87 FC1 10 1.414
87 FC1 11 1.902
87 FC1 12 1.902
87 FC1 13 2.391
87 FC1 14 2.879
87 FC1 15 3.367
87 FC1 16 3.855
87 FC1 17 3.367
87 FC1 18 2.879
87 FC1 19 2.391
87 FC1 20 1.414
87 FC1 21 0.926
87 FC1 22 0.437
87 FC1 23 -0.051
87 FC1 24 -0.051
87 FC1 25 0.926
87 FC1 26 1.902
87 FC1 27 2.391
87 FC1 28 2.391
87 FC1 29 1.902
87 FC1 30 1.414
87 FC1 31 0.926
87 FC1 32 1.414
87 FC1 33 2.879
87 FC1 34 3.367
87 FC1 35 3.367
87 FC1 36 2.879
87 FC1 37 2.391
87 FC1 38 2.391
87 FC1 39 2.391
87 FC1 40 2.879
87 FC1 41 2.879
87 FC1 42 2.391
87 FC1 43 1.414
87 FC1 44 0.926
87 FC1 45 0.926
87 FC1 46 0.926
87 FC1 47 0.437
87 FC1 48 0.926
87 FC1 49 0.926
87 FC1 50 1.414
87 FC1 51 1.902
87 FC1 52 1.902
87 FC1 53 1.902
87 FC1 54 1.414
87 FC1 55 0.437
87 FC1 56 -0.051
87 FC1 57 -0.539
87 FC1 58 -0.539
87 FC1 59 -0.539
87 FC1 60 -0.051
87 FC1 61 0.437
87 FC1 62 0.437
87 FC1 63 0.437
87 FC1 64 -0.539
87 FC1 65 -1.027
87 FC1 66 -1.516
87 FC1 67 -1.516
87 FC1 68 -0.539
87 FC1 69 -0.051
87 FC1 70 0.437
87 FC1 71 0.437
87 FC1 72 0.437
87 FC1 73 0.437
87 FC1 74 -0.051
87 FC1 75 -0.051
87 FC1 76 -0.539
87 FC1 77 -0.539
87 FC1 78 -0.051
87 FC1 79 0.437
87 FC1 80 0.926
87 FC1 81 0.926
87 FC1 82 0.926
87 FC1 83 -0.051
87 FC1 84 -0.539
87 FC1 85 -1.027
87 FC1 86 -1.027
87 FC1 87 -1.027
87 FC1 88 -1.516
87 FC1 89 -1.027
87 FC1 90 -1.027
87 FC1 91 -0.539
87 FC1 92 -0.051
87 FC1 93 0.437
87 FC1 94 0.437
87 FC1 95 0.437
87 FC1 96 0.437
87 FC1 97 0.926
87 FC1 98 1.414
87 FC1 99 1.414
87 FC1 100 1.414
87 FC1 101 0.926
87 FC1 102 1.414
87 FC1 103 1.902
87 FC1 104 2.879
87 FC1 105 2.879
87 FC1 106 2.879
87 FC1 107 2.391
87 FC1 108 2.391
87 FC1 109 2.879
87 FC1 110 2.879
87 FC1 111 3.367
87 FC1 112 2.391
87 FC1 113 1.902
87 FC1 114 1.414
87 FC1 115 1.414
87 FC1 116 1.414
87 FC1 117 1.414
87 FC1 118 1.414
87 FC1 119 1.414
87 FC1 120 0.926
87 FC1 121 0.926
87 FC1 122 1.414
87 FC1 123 1.902
87 FC1 124 2.391
87 FC1 125 1.902
87 FC1 126 1.902
87 FC1 127 1.414
87 FC1 128 0.926
87 FC1 129 0.926
87 FC1 130 1.414
87 FC1 131 1.902
87 FC1 132 2.879
87 FC1 133 3.855
87 FC1 134 3.855
87 FC1 135 3.367
87 FC1 136 2.391
87 FC1 137 1.414
87 FC1 138 0.437
87 FC1 139 0.926
87 FC1 140 1.414
87 FC1 141 2.391
87 FC1 142 2.879
87 FC1 143 2.879
87 FC1 144 3.367
87 FC1 145 2.879
87 FC1 146 2.879
87 FC1 147 2.391
87 FC1 148 2.391
87 FC1 149 2.391
87 FC1 150 2.391
87 FC1 151 2.391
87 FC1 152 1.902
87 FC1 153 0.926
87 FC1 154 0.437
87 FC1 155 0.437
87 FC1 156 0.926
87 FC1 157 2.391
87 FC1 158 3.367
87 FC1 159 3.367
87 FC1 160 2.879
87 FC1 161 1.902
87 FC1 162 1.902
87 FC1 163 1.902
87 FC1 164 2.391
87 FC1 165 3.367
87 FC1 166 3.855
87 FC1 167 3.367
87 FC1 168 2.391
87 FC1 169 1.414
87 FC1 170 0.437
87 FC1 171 -0.539
87 FC1 172 -0.051
87 FC1 173 0.437
87 FC1 174 1.414
87 FC1 175 1.902
87 FC1 176 1.902
87 FC1 177 1.902
87 FC1 178 1.902
87 FC1 179 1.902
87 FC1 180 1.902
87 FC1 181 1.414
87 FC1 182 1.414
87 FC1 183 0.926
87 FC1 184 0.926
87 FC1 185 0.926
87 FC1 186 0.926
87 FC1 187 -0.051
87 FC1 188 -0.539
87 FC1 189 -1.027
87 FC1 190 -0.539
87 FC1 191 0.437
87 FC1 192 0.437
87 FC1 193 0.437
87 FC1 194 -0.539
87 FC1 195 -2.004
87 FC1 196 -2.981
87 FC1 197 -2.981
87 FC1 198 -2.492
87 FC1 199 -2.004
87 FC1 200 -2.492
87 FC1 201 -2.981
87 FC1 202 -3.469
87 FC1 203 -3.469
87 FC1 204 -3.469
87 FC1 205 -2.981
87 FC1 206 -2.492
87 FC1 207 -1.516
87 FC1 208 -1.516
87 FC1 209 -0.539
87 FC1 210 -1.027
87 FC1 211 -1.516
87 FC1 212 -2.004
87 FC1 213 -2.492
87 FC1 214 -2.981
87 FC1 215 -2.492
87 FC1 216 -1.516
87 FC1 217 -1.027
87 FC1 218 -1.027
87 FC1 219 -1.516
87 FC1 220 -1.516
87 FC1 221 -2.004
87 FC1 222 -1.516
87 FC1 223 -1.027
87 FC1 224 -1.027
87 FC1 225 -1.027
87 FC1 226 -1.516
87 FC1 227 -1.516
87 FC1 228 -1.516
87 FC1 229 -2.004
87 FC1 230 -2.492
87 FC1 231 -2.981
87 FC1 232 -3.469
87 FC1 233 -2.981
87 FC1 234 -2.004
87 FC1 235 -1.027
87 FC1 236 -0.051
87 FC1 237 -0.539
87 FC1 238 -1.516
87 FC1 239 -2.492
87 FC1 240 -3.469
87 FC1 241 -3.469
87 FC1 242 -2.981
87 FC1 243 -2.492
87 FC1 244 -2.004
87 FC1 245 -1.516
87 FC1 246 -2.004
87 FC1 247 -2.492
87 FC1 248 -2.981
87 FC1 249 -2.981
87 FC1 250 -2.981
87 FC1 251 -2.981
87 FC1 252 -2.492
87 FC1 253 -1.516
87 FC1 254 -0.539
87 FC1 255 -1.027
# T8 chan 13
87 T8 0 2.167
87 T8 1 1.190
87 T8 2 0.702
87 T8 3 0.702
87 T8 4 1.678
87 T8 5 2.655
87 T8 6 2.655
87 T8 7 2.167
87 T8 8 0.702
87 T8 9 0.214
87 T8 10 -0.275
87 T8 11 -0.275
87 T8 12 -0.763
87 T8 13 -0.763
87 T8 14 -0.275
87 T8 15 -0.763
87 T8 16 -2.228
87 T8 17 -4.669
87 T8 18 -6.622
87 T8 19 -6.622
87 T8 20 -3.693
87 T8 21 -0.763
87 T8 22 0.702
87 T8 23 -0.275
87 T8 24 -2.228
87 T8 25 -2.716
87 T8 26 -0.763
87 T8 27 2.655
87 T8 28 4.608
87 T8 29 3.632
87 T8 30 0.214
87 T8 31 -2.716
87 T8 32 -3.693
87 T8 33 -1.251
87 T8 34 1.678
87 T8 35 3.143
87 T8 36 1.678
87 T8 37 -1.251
87 T8 38 -3.204
87 T8 39 -3.204
87 T8 40 -0.763
87 T8 41 2.167
87 T8 42 4.608
87 T8 43 5.096
87 T8 44 4.608
87 T8 45 3.632
87 T8 46 3.143
87 T8 47 2.167
87 T8 48 1.678
87 T8 49 0.214
87 T8 50 -1.740
87 T8 51 -2.716
87 T8 52 -3.204
87 T8 53 -2.228
87 T8 54 -0.763
87 T8 55 2.167
87 T8 56 4.608
87 T8 57 6.073
87 T8 58 6.073
87 T8 59 4.120
87 T8 60 1.678
87 T8 61 0.214
87 T8 62 0.214
87 T8 63 1.678
87 T8 64 3.143
87 T8 65 2.655
87 T8 66 0.702
87 T8 67 -1.740
87 T8 68 -2.716
87 T8 69 -1.740
87 T8 70 -0.763
87 T8 71 -1.251
87 T8 72 -3.204
87 T8 73 -5.157
87 T8 74 -4.181
87 T8 75 -0.275
87 T8 76 4.608
87 T8 77 6.073
87 T8 78 2.655
87 T8 79 -3.693
87 T8 80 -8.575
87 T8 81 -7.599
87 T8 82 -1.740
87 T8 83 4.608
87 T8 84 6.561
87 T8 85 3.632
87 T8 86 -1.740
87 T8 87 -5.157
87 T8 88 -5.157
87 T8 89 -2.716
87 T8 90 -1.251
87 T8 91 -2.716
87 T8 92 -5.157
87 T8 93 -6.622
87 T8 94 -4.181
87 T8 95 -0.275
87 T8 96 2.655
87 T8 97 2.655
87 T8 98 0.214
87 T8 99 -3.204
87 T8 100 -5.646
87 T8 101 -6.134
87 T8 102 -6.134
87 T8 103 -6.622
87 T8 104 -8.087
87 T8 105 -8.575
87 T8 106 -7.599
87 T8 107 -6.134
87 T8 108 -5.157
87 T8 109 -6.134
87 T8 110 -8.575
87 T8 111 -10.529
87 T8 112 -10.529
87 T8 113 -8.575
87 T8 114 -4.669
87 T8 115 -2.228
87 T8 116 -1.251
87 T8 117 -1.740
87 T8 118 -2.228
87 T8 119 -2.228
87 T8 120 -2.228
87 T8 121 -2.716
87 T8 122 -2.716
87 T8 123 -2.716
87 T8 124 -2.716
87 T8 125 -3.204
87 T8 126 -4.181
87 T8 127 -5.646
87 T8 128 -6.134
87 T8 129 -4.669
87 T8 130 -2.228
87 T8 131 -0.275
87 T8 132 -0.275
87 T8 133 -2.716
87 T8 134 -5.646
87 T8 135 -7.599
87 T8 136 -7.111
87 T8 137 -4.669
87 T8 138 -2.228
87 T8 139 -1.251
87 T8 140 -2.228
87 T8 141 -3.693
87 T8 142 -5.646
87 T8 143 -6.134
87 T8 144 -5.157
87 T8 145 -3.204
87 T8 146 -1.740
87 T8 147 -2.228
87 T8 148 -3.693
87 T8 149 -6.622
87 T8 150 -8.575
87 T8 151 -7.599
87 T8 152 -4.181
87 T8 153 0.214
87 T8 154 3.143
87 T8 155 3.143
87 T8 156 0.702
87 T8 157 -1.740
87 T8 158 -2.716
87 T8 159 -2.228
87 T8 160 -0.763
87 T8 161 -0.763
87 T8 162 -3.693
87 T8 163 -8.575
87 T8 164 -12.970
87 T8 165 -15.900
87 T8 166 -15.900
87 T8 167 -12.482
87 T8 168 -8.087
87 T8 169 -4.181
87 T8 170 -1.740
87 T8 171 -1.740
87 T8 172 -3.693
87 T8 173 -5.157
87 T8 174 -7.599
87 T8 175 -8.575
87 T8 176 -8.575
87 T8 177 -8.087
87 T8 178 -6.622
87 T8 179 -4.669
87 T8 180 -4.181
87 T8 181 -5.157
87 T8 182 -7.111
87 T8 183 -10.040
87 T8 184 -11.017
87 T8 185 -10.040
87 T8 186 -6.622
87 T8 187 -3.204
87 T8 188 -1.740
87 T8 189 -2.228
87 T8 190 -4.181
87 T8 191 -5.157
87 T8 192 -4.669
87 T8 193 -2.228
87 T8 194 -0.275
87 T8 195 -0.275
87 T8 196 -3.204
87 T8 197 -8.575
87 T8 198 -13.458
87 T8 199 -15.411
87 T8 200 -14.923
87 T8 201 -12.970
87 T8 202 -11.505
87 T8 203 -10.529
87 T8 204 -10.040
87 T8 205 -7.599
87 T8 206 -2.716
87 T8 207 2.655
87 T8 208 6.073
87 T8 209 5.585
87 T8 210 0.702
87 T8 211 -5.157
87 T8 212 -9.552
87 T8 213 -10.040
87 T8 214 -7.599
87 T8 215 -3.204
87 T8 216 0.214
87 T8 217 1.190
87 T8 218 -0.275
87 T8 219 -2.716
87 T8 220 -6.134
87 T8 221 -8.087
87 T8 222 -8.087
87 T8 223 -6.134
87 T8 224 -2.716
87 T8 225 -0.275
87 T8 226 1.190
87 T8 227 0.702
87 T8 228 -0.763
87 T8 229 -2.716
87 T8 230 -4.181
87 T8 231 -3.693
87 T8 232 -1.251
87 T8 233 2.167
87 T8 234 3.632
87 T8 235 2.655
87 T8 236 -1.251
87 T8 237 -5.157
87 T8 238 -7.599
87 T8 239 -6.622
87 T8 240 -3.693
87 T8 241 -1.740
87 T8 242 -2.716
87 T8 243 -6.134
87 T8 244 -9.552
87 T8 245 -11.017
87 T8 246 -10.040
87 T8 247 -7.599
87 T8 248 -4.181
87 T8 249 -2.716
87 T8 250 -1.740
87 T8 251 -2.228
87 T8 252 -3.204
87 T8 253 -5.157
87 T8 254 -6.134
87 T8 255 -7.111
# T7 chan 14
87 T7 0 -2.838
87 T7 1 -0.885
87 T7 2 1.556
87 T7 3 3.021
87 T7 4 3.021
87 T7 5 2.533
87 T7 6 1.068
87 T7 7 0.580
87 T7 8 0.092
87 T7 9 -0.397
87 T7 10 -0.885
87 T7 11 -1.373
87 T7 12 -0.885
87 T7 13 0.092
87 T7 14 0.092
87 T7 15 0.092
87 T7 16 0.092
87 T7 17 0.580
87 T7 18 2.533
87 T7 19 4.486
87 T7 20 3.998
87 T7 21 1.556
87 T7 22 -2.350
87 T7 23 -5.280
87 T7 24 -5.768
87 T7 25 -4.303
87 T7 26 -1.862
87 T7 27 -0.397
87 T7 28 -0.397
87 T7 29 -0.885
87 T7 30 -0.397
87 T7 31 1.068
87 T7 32 2.533
87 T7 33 3.021
87 T7 34 2.045
87 T7 35 -0.397
87 T7 36 -2.350
87 T7 37 -2.350
87 T7 38 -0.885
87 T7 39 2.045
87 T7 40 4.486
87 T7 41 5.463
87 T7 42 4.974
87 T7 43 2.533
87 T7 44 -0.397
87 T7 45 -3.326
87 T7 46 -5.280
87 T7 47 -5.768
87 T7 48 -6.256
87 T7 49 -6.256
87 T7 50 -6.744
87 T7 51 -7.233
87 T7 52 -7.721
87 T7 53 -7.721
87 T7 54 -7.721
87 T7 55 -7.233
87 T7 56 -7.721
87 T7 57 -8.698
87 T7 58 -9.186
87 T7 59 -9.674
87 T7 60 -9.186
87 T7 61 -7.233
87 T7 62 -5.768
87 T7 63 -4.791
87 T7 64 -4.791
87 T7 65 -6.256
87 T7 66 -8.698
87 T7 67 -12.604
87 T7 68 -15.533
87 T7 69 -17.487
87 T7 70 -16.022
87 T7 71 -12.604
87 T7 72 -9.186
87 T7 73 -7.721
87 T7 74 -9.186
87 T7 75 -11.139
87 T7 76 -12.115
87 T7 77 -9.674
87 T7 78 -5.768
87 T7 79 -3.326
87 T7 80 -3.815
87 T7 81 -7.233
87 T7 82 -10.651
87 T7 83 -11.139
87 T7 84 -8.209
87 T7 85 -3.815
87 T7 86 -2.350
87 T7 87 -4.303
87 T7 88 -8.698
87 T7 89 -12.604
87 T7 90 -13.580
87 T7 91 -11.627
87 T7 92 -7.721
87 T7 93 -5.280
87 T7 94 -4.791
87 T7 95 -5.768
87 T7 96 -7.233
87 T7 97 -8.698
87 T7 98 -9.674
87 T7 99 -9.186
87 T7 100 -7.233
87 T7 101 -5.280
87 T7 102 -4.791
87 T7 103 -5.768
87 T7 104 -7.721
87 T7 105 -9.674
87 T7 106 -9.186
87 T7 107 -8.209
87 T7 108 -6.744
87 T7 109 -7.721
87 T7 110 -9.674
87 T7 111 -12.115
87 T7 112 -13.580
87 T7 113 -13.092
87 T7 114 -11.139
87 T7 115 -8.698
87 T7 116 -6.256
87 T7 117 -3.815
87 T7 118 -1.862
87 T7 119 -0.885
87 T7 120 -2.350
87 T7 121 -5.280
87 T7 122 -7.721
87 T7 123 -8.209
87 T7 124 -5.768
87 T7 125 -2.350
87 T7 126 -1.373
87 T7 127 -3.815
87 T7 128 -8.209
87 T7 129 -13.092
87 T7 130 -15.045
87 T7 131 -13.580
87 T7 132 -9.674
87 T7 133 -6.256
87 T7 134 -3.326
87 T7 135 -1.862
87 T7 136 -1.373
87 T7 137 -2.350
87 T7 138 -4.303
87 T7 139 -7.233
87 T7 140 -10.162
87 T7 141 -11.627
87 T7 142 -12.115
87 T7 143 -11.139
87 T7 144 -9.674
87 T7 145 -7.721
87 T7 146 -6.744
87 T7 147 -6.256
87 T7 148 -6.744
87 T7 149 -8.209
87 T7 150 -9.186
87 T7 151 -8.698
87 T7 152 -6.744
87 T7 153 -4.791
87 T7 154 -4.303
87 T7 155 -5.280
87 T7 156 -7.233
87 T7 157 -8.209
87 T7 158 -8.209
87 T7 159 -7.233
87 T7 160 -6.256
87 T7 161 -6.744
87 T7 162 -8.209
87 T7 163 -9.674
87 T7 164 -8.698
87 T7 165 -5.280
87 T7 166 -1.862
87 T7 167 -1.373
87 T7 168 -4.791
87 T7 169 -10.651
87 T7 170 -15.045
87 T7 171 -16.510
87 T7 172 -13.580
87 T7 173 -9.186
87 T7 174 -5.768
87 T7 175 -3.815
87 T7 176 -3.326
87 T7 177 -2.838
87 T7 178 -0.885
87 T7 179 0.092
87 T7 180 0.092
87 T7 181 -2.350
87 T7 182 -5.768
87 T7 183 -8.698
87 T7 184 -11.139
87 T7 185 -12.604
87 T7 186 -14.069
87 T7 187 -14.557
87 T7 188 -13.580
87 T7 189 -11.627
87 T7 190 -10.162
87 T7 191 -10.162
87 T7 192 -11.627
87 T7 193 -13.580
87 T7 194 -14.557
87 T7 195 -13.580
87 T7 196 -12.115
87 T7 197 -12.115
87 T7 198 -13.092
87 T7 199 -13.580
87 T7 200 -12.604
87 T7 201 -9.674
87 T7 202 -7.721
87 T7 203 -10.162
87 T7 204 -16.510
87 T7 205 -22.858
87 T7 206 -25.299
87 T7 207 -19.440
87 T7 208 -8.698
87 T7 209 2.045
87 T7 210 6.439
87 T7 211 2.533
87 T7 212 -5.768
87 T7 213 -12.115
87 T7 214 -12.604
87 T7 215 -6.256
87 T7 216 1.068
87 T7 217 4.974
87 T7 218 2.533
87 T7 219 -3.815
87 T7 220 -9.674
87 T7 221 -12.115
87 T7 222 -12.115
87 T7 223 -11.139
87 T7 224 -11.627
87 T7 225 -13.092
87 T7 226 -14.557
87 T7 227 -14.557
87 T7 228 -13.092
87 T7 229 -11.139
87 T7 230 -10.651
87 T7 231 -11.627
87 T7 232 -12.115
87 T7 233 -11.139
87 T7 234 -9.186
87 T7 235 -6.744
87 T7 236 -4.791
87 T7 237 -4.791
87 T7 238 -6.744
87 T7 239 -9.674
87 T7 240 -12.115
87 T7 241 -12.604
87 T7 242 -10.651
87 T7 243 -7.233
87 T7 244 -3.815
87 T7 245 -2.838
87 T7 246 -4.791
87 T7 247 -8.698
87 T7 248 -11.627
87 T7 249 -12.604
87 T7 250 -11.139
87 T7 251 -9.186
87 T7 252 -9.186
87 T7 253 -11.139
87 T7 254 -13.092
87 T7 255 -13.580
# CZ chan 15
87 CZ 0 -7.619
87 CZ 1 -9.084
87 CZ 2 -8.596
87 CZ 3 -6.154
87 CZ 4 -4.201
87 CZ 5 -2.736
87 CZ 6 -1.272
87 CZ 7 -0.295
87 CZ 8 0.193
87 CZ 9 0.193
87 CZ 10 -0.783
87 CZ 11 -1.760
87 CZ 12 -1.272
87 CZ 13 0.193
87 CZ 14 1.170
87 CZ 15 1.170
87 CZ 16 0.682
87 CZ 17 0.193
87 CZ 18 0.682
87 CZ 19 2.146
87 CZ 20 2.635
87 CZ 21 1.658
87 CZ 22 -1.272
87 CZ 23 -4.201
87 CZ 24 -5.178
87 CZ 25 -4.201
87 CZ 26 -1.760
87 CZ 27 1.658
87 CZ 28 4.588
87 CZ 29 6.053
87 CZ 30 6.541
87 CZ 31 5.564
87 CZ 32 5.076
87 CZ 33 4.588
87 CZ 34 4.588
87 CZ 35 5.076
87 CZ 36 5.076
87 CZ 37 4.100
87 CZ 38 3.123
87 CZ 39 2.635
87 CZ 40 3.611
87 CZ 41 6.053
87 CZ 42 8.982
87 CZ 43 11.424
87 CZ 44 11.912
87 CZ 45 10.935
87 CZ 46 8.494
87 CZ 47 5.076
87 CZ 48 1.658
87 CZ 49 -0.783
87 CZ 50 -1.272
87 CZ 51 0.682
87 CZ 52 4.100
87 CZ 53 7.029
87 CZ 54 7.029
87 CZ 55 4.100
87 CZ 56 0.682
87 CZ 57 -0.783
87 CZ 58 -1.272
87 CZ 59 -0.295
87 CZ 60 -0.295
87 CZ 61 -2.248
87 CZ 62 -4.201
87 CZ 63 -5.178
87 CZ 64 -3.713
87 CZ 65 -2.248
87 CZ 66 -2.736
87 CZ 67 -6.154
87 CZ 68 -11.037
87 CZ 69 -14.455
87 CZ 70 -14.455
87 CZ 71 -12.014
87 CZ 72 -8.596
87 CZ 73 -5.666
87 CZ 74 -4.690
87 CZ 75 -4.690
87 CZ 76 -5.666
87 CZ 77 -7.131
87 CZ 78 -9.084
87 CZ 79 -11.037
87 CZ 80 -10.549
87 CZ 81 -8.108
87 CZ 82 -4.690
87 CZ 83 -2.248
87 CZ 84 -1.760
87 CZ 85 -3.713
87 CZ 86 -6.643
87 CZ 87 -8.596
87 CZ 88 -9.572
87 CZ 89 -9.572
87 CZ 90 -10.061
87 CZ 91 -10.549
87 CZ 92 -10.549
87 CZ 93 -9.084
87 CZ 94 -7.131
87 CZ 95 -6.154
87 CZ 96 -6.643
87 CZ 97 -8.596
87 CZ 98 -10.549
87 CZ 99 -11.525
87 CZ 100 -11.037
87 CZ 101 -9.084
87 CZ 102 -7.131
87 CZ 103 -6.154
87 CZ 104 -6.154
87 CZ 105 -8.108
87 CZ 106 -11.525
87 CZ 107 -14.943
87 CZ 108 -17.385
87 CZ 109 -18.361
87 CZ 110 -16.408
87 CZ 111 -13.479
87 CZ 112 -10.549
87 CZ 113 -9.084
87 CZ 114 -9.572
87 CZ 115 -11.525
87 CZ 116 -12.990
87 CZ 117 -12.502
87 CZ 118 -10.549
87 CZ 119 -8.596
87 CZ 120 -8.596
87 CZ 121 -9.572
87 CZ 122 -11.037
87 CZ 123 -11.525
87 CZ 124 -10.061
87 CZ 125 -8.108
87 CZ 126 -8.596
87 CZ 127 -11.037
87 CZ 128 -14.943
87 CZ 129 -18.361
87 CZ 130 -18.361
87 CZ 131 -15.432
87 CZ 132 -11.525
87 CZ 133 -8.596
87 CZ 134 -8.108
87 CZ 135 -10.061
87 CZ 136 -13.479
87 CZ 137 -16.408
87 CZ 138 -17.385
87 CZ 139 -17.873
87 CZ 140 -16.408
87 CZ 141 -14.455
87 CZ 142 -12.014
87 CZ 143 -9.572
87 CZ 144 -8.108
87 CZ 145 -9.084
87 CZ 146 -11.525
87 CZ 147 -15.920
87 CZ 148 -20.315
87 CZ 149 -23.733
87 CZ 150 -25.197
87 CZ 151 -23.733
87 CZ 152 -20.315
87 CZ 153 -16.408
87 CZ 154 -12.990
87 CZ 155 -12.502
87 CZ 156 -14.455
87 CZ 157 -16.897
87 CZ 158 -18.361
87 CZ 159 -18.361
87 CZ 160 -19.338
87 CZ 161 -21.779
87 CZ 162 -26.662
87 CZ 163 -31.057
87 CZ 164 -33.010
87 CZ 165 -32.033
87 CZ 166 -30.080
87 CZ 167 -30.080
87 CZ 168 -32.033
87 CZ 169 -34.963
87 CZ 170 -36.428
87 CZ 171 -34.963
87 CZ 172 -32.033
87 CZ 173 -30.080
87 CZ 174 -31.545
87 CZ 175 -35.451
87 CZ 176 -37.404
87 CZ 177 -35.940
87 CZ 178 -31.057
87 CZ 179 -25.197
87 CZ 180 -22.268
87 CZ 181 -22.756
87 CZ 182 -26.174
87 CZ 183 -29.592
87 CZ 184 -31.057
87 CZ 185 -31.545
87 CZ 186 -31.057
87 CZ 187 -31.057
87 CZ 188 -30.568
87 CZ 189 -29.104
87 CZ 190 -26.174
87 CZ 191 -23.733
87 CZ 192 -22.756
87 CZ 193 -24.709
87 CZ 194 -28.127
87 CZ 195 -31.545
87 CZ 196 -33.010
87 CZ 197 -32.522
87 CZ 198 -32.522
87 CZ 199 -33.498
87 CZ 200 -36.916
87 CZ 201 -40.334
87 CZ 202 -42.775
87 CZ 203 -43.752
87 CZ 204 -42.287
87 CZ 205 -38.381
87 CZ 206 -32.033
87 CZ 207 -23.244
87 CZ 208 -14.943
87 CZ 209 -11.037
87 CZ 210 -13.479
87 CZ 211 -20.803
87 CZ 212 -29.592
87 CZ 213 -34.963
87 CZ 214 -35.451
87 CZ 215 -33.010
87 CZ 216 -30.568
87 CZ 217 -29.592
87 CZ 218 -30.568
87 CZ 219 -32.033
87 CZ 220 -32.522
87 CZ 221 -33.010
87 CZ 222 -33.498
87 CZ 223 -33.986
87 CZ 224 -33.986
87 CZ 225 -33.498
87 CZ 226 -32.033
87 CZ 227 -31.057
87 CZ 228 -29.592
87 CZ 229 -29.104
87 CZ 230 -29.104
87 CZ 231 -28.615
87 CZ 232 -28.127
87 CZ 233 -27.639
87 CZ 234 -26.662
87 CZ 235 -25.686
87 CZ 236 -25.197
87 CZ 237 -25.686
87 CZ 238 -27.150
87 CZ 239 -28.615
87 CZ 240 -29.592
87 CZ 241 -29.104
87 CZ 242 -28.615
87 CZ 243 -28.127
87 CZ 244 -28.127
87 CZ 245 -28.127
87 CZ 246 -27.150
87 CZ 247 -24.709
87 CZ 248 -21.779
87 CZ 249 -20.315
87 CZ 250 -21.779
87 CZ 251 -25.686
87 CZ 252 -30.080
87 CZ 253 -32.522
87 CZ 254 -30.568
87 CZ 255 -26.662
# C3 chan 16
87 C3 0 -1.485
87 C3 1 -1.485
87 C3 2 -0.509
87 C3 3 -0.020
87 C3 4 0.956
87 C3 5 0.956
87 C3 6 0.468
87 C3 7 0.468
87 C3 8 -0.020
87 C3 9 -0.020
87 C3 10 -0.020
87 C3 11 0.468
87 C3 12 0.956
87 C3 13 1.444
87 C3 14 1.444
87 C3 15 1.444
87 C3 16 1.444
87 C3 17 1.444
87 C3 18 0.956
87 C3 19 0.468
87 C3 20 -0.020
87 C3 21 -0.997
87 C3 22 -2.462
87 C3 23 -2.950
87 C3 24 -2.950
87 C3 25 -1.485
87 C3 26 -0.020
87 C3 27 -0.020
87 C3 28 -0.020
87 C3 29 -0.997
87 C3 30 -0.997
87 C3 31 -0.509
87 C3 32 0.468
87 C3 33 0.956
87 C3 34 0.956
87 C3 35 0.468
87 C3 36 -0.020
87 C3 37 -0.020
87 C3 38 0.468
87 C3 39 0.956
87 C3 40 1.444
87 C3 41 1.444
87 C3 42 0.468
87 C3 43 -0.509
87 C3 44 -0.997
87 C3 45 -0.997
87 C3 46 -1.485
87 C3 47 -1.485
87 C3 48 -1.973
87 C3 49 -2.950
87 C3 50 -3.438
87 C3 51 -3.927
87 C3 52 -3.927
87 C3 53 -4.415
87 C3 54 -4.415
87 C3 55 -4.415
87 C3 56 -4.415
87 C3 57 -3.927
87 C3 58 -3.438
87 C3 59 -2.950
87 C3 60 -2.462
87 C3 61 -1.973
87 C3 62 -1.973
87 C3 63 -1.973
87 C3 64 -2.950
87 C3 65 -3.927
87 C3 66 -4.903
87 C3 67 -4.903
87 C3 68 -4.903
87 C3 69 -4.903
87 C3 70 -4.415
87 C3 71 -3.927
87 C3 72 -3.438
87 C3 73 -2.950
87 C3 74 -3.438
87 C3 75 -3.927
87 C3 76 -4.415
87 C3 77 -4.415
87 C3 78 -3.438
87 C3 79 -2.462
87 C3 80 -1.485
87 C3 81 -1.485
87 C3 82 -2.462
87 C3 83 -3.438
87 C3 84 -3.927
87 C3 85 -3.927
87 C3 86 -3.438
87 C3 87 -2.950
87 C3 88 -3.927
87 C3 89 -4.415
87 C3 90 -4.903
87 C3 91 -4.415
87 C3 92 -3.927
87 C3 93 -3.438
87 C3 94 -3.438
87 C3 95 -3.927
87 C3 96 -3.927
87 C3 97 -3.438
87 C3 98 -2.950
87 C3 99 -1.973
87 C3 100 -0.997
87 C3 101 -0.997
87 C3 102 -0.997
87 C3 103 -1.485
87 C3 104 -2.462
87 C3 105 -2.950
87 C3 106 -2.950
87 C3 107 -2.462
87 C3 108 -1.973
87 C3 109 -1.973
87 C3 110 -1.973
87 C3 111 -2.950
87 C3 112 -3.438
87 C3 113 -3.438
87 C3 114 -2.950
87 C3 115 -2.462
87 C3 116 -1.973
87 C3 117 -1.485
87 C3 118 -1.485
87 C3 119 -1.973
87 C3 120 -2.462
87 C3 121 -2.950
87 C3 122 -3.438
87 C3 123 -3.438
87 C3 124 -2.462
87 C3 125 -1.973
87 C3 126 -1.973
87 C3 127 -1.973
87 C3 128 -2.950
87 C3 129 -3.927
87 C3 130 -3.927
87 C3 131 -3.438
87 C3 132 -1.973
87 C3 133 -1.485
87 C3 134 -0.509
87 C3 135 -0.509
87 C3 136 -0.509
87 C3 137 -0.997
87 C3 138 -0.997
87 C3 139 -1.485
87 C3 140 -1.973
87 C3 141 -2.950
87 C3 142 -2.950
87 C3 143 -2.462
87 C3 144 -1.973
87 C3 145 -1.973
87 C3 146 -2.462
87 C3 147 -2.462
87 C3 148 -2.462
87 C3 149 -1.973
87 C3 150 -0.997
87 C3 151 -0.997
87 C3 152 -1.973
87 C3 153 -3.438
87 C3 154 -3.438
87 C3 155 -3.438
87 C3 156 -1.973
87 C3 157 -1.485
87 C3 158 -0.997
87 C3 159 -1.485
87 C3 160 -1.973
87 C3 161 -1.973
87 C3 162 -1.973
87 C3 163 -1.973
87 C3 164 -0.997
87 C3 165 -0.997
87 C3 166 -0.509
87 C3 167 -0.997
87 C3 168 -1.973
87 C3 169 -4.415
87 C3 170 -5.880
87 C3 171 -7.345
87 C3 172 -5.880
87 C3 173 -3.927
87 C3 174 -0.997
87 C3 175 0.468
87 C3 176 0.956
87 C3 177 0.468
87 C3 178 -0.020
87 C3 179 -0.509
87 C3 180 -0.509
87 C3 181 -0.020
87 C3 182 -0.509
87 C3 183 -0.509
87 C3 184 -0.997
87 C3 185 -0.997
87 C3 186 -1.485
87 C3 187 -2.462
87 C3 188 -3.927
87 C3 189 -4.415
87 C3 190 -4.415
87 C3 191 -3.927
87 C3 192 -3.438
87 C3 193 -3.927
87 C3 194 -4.415
87 C3 195 -5.391
87 C3 196 -5.880
87 C3 197 -5.880
87 C3 198 -5.880
87 C3 199 -5.391
87 C3 200 -5.391
87 C3 201 -4.903
87 C3 202 -4.903
87 C3 203 -5.391
87 C3 204 -6.368
87 C3 205 -7.345
87 C3 206 -7.345
87 C3 207 -6.368
87 C3 208 -3.927
87 C3 209 -0.509
87 C3 210 1.444
87 C3 211 1.444
87 C3 212 -0.020
87 C3 213 -1.973
87 C3 214 -2.950
87 C3 215 -2.950
87 C3 216 -1.973
87 C3 217 -0.997
87 C3 218 -1.485
87 C3 219 -2.462
87 C3 220 -3.438
87 C3 221 -4.415
87 C3 222 -3.927
87 C3 223 -3.927
87 C3 224 -3.438
87 C3 225 -3.927
87 C3 226 -4.415
87 C3 227 -4.903
87 C3 228 -5.391
87 C3 229 -5.880
87 C3 230 -6.368
87 C3 231 -7.345
87 C3 232 -7.345
87 C3 233 -6.368
87 C3 234 -4.903
87 C3 235 -2.462
87 C3 236 -1.485
87 C3 237 -0.997
87 C3 238 -2.462
87 C3 239 -3.927
87 C3 240 -4.415
87 C3 241 -4.903
87 C3 242 -4.415
87 C3 243 -3.927
87 C3 244 -3.438
87 C3 245 -3.438
87 C3 246 -3.927
87 C3 247 -4.903
87 C3 248 -5.391
87 C3 249 -5.391
87 C3 250 -5.391
87 C3 251 -4.415
87 C3 252 -3.927
87 C3 253 -3.438
87 C3 254 -3.438
87 C3 255 -4.415
# C4 chan 17
87 C4 0 0.773
87 C4 1 0.773
87 C4 2 0.285
87 C4 3 0.285
87 C4 4 0.773
87 C4 5 1.261
87 C4 6 1.750
87 C4 7 1.750
87 C4 8 1.750
87 C4 9 1.261
87 C4 10 0.285
87 C4 11 -1.180
87 C4 12 -2.157
87 C4 13 -2.645
87 C4 14 -2.157
87 C4 15 -1.180
87 C4 16 -0.692
87 C4 17 -1.180
87 C4 18 -1.668
87 C4 19 -1.668
87 C4 20 -1.668
87 C4 21 -0.692
87 C4 22 0.285
87 C4 23 1.261
87 C4 24 0.773
87 C4 25 0.285
87 C4 26 -0.203
87 C4 27 -0.203
87 C4 28 0.285
87 C4 29 0.285
87 C4 30 0.773
87 C4 31 0.285
87 C4 32 -0.692
87 C4 33 -1.180
87 C4 34 -1.180
87 C4 35 -0.692
87 C4 36 -0.203
87 C4 37 0.285
87 C4 38 0.285
87 C4 39 -0.203
87 C4 40 -0.692
87 C4 41 -0.692
87 C4 42 -0.203
87 C4 43 0.773
87 C4 44 1.750
87 C4 45 2.726
87 C4 46 2.726
87 C4 47 2.238
87 C4 48 1.750
87 C4 49 1.261
87 C4 50 0.773
87 C4 51 0.773
87 C4 52 1.261
87 C4 53 2.238
87 C4 54 2.726
87 C4 55 3.215
87 C4 56 3.215
87 C4 57 2.726
87 C4 58 1.261
87 C4 59 0.285
87 C4 60 -0.203
87 C4 61 0.285
87 C4 62 0.773
87 C4 63 2.238
87 C4 64 3.215
87 C4 65 3.215
87 C4 66 2.726
87 C4 67 2.238
87 C4 68 1.750
87 C4 69 1.261
87 C4 70 1.261
87 C4 71 1.261
87 C4 72 0.773
87 C4 73 0.285
87 C4 74 0.285
87 C4 75 1.261
87 C4 76 2.238
87 C4 77 2.726
87 C4 78 1.750
87 C4 79 -0.203
87 C4 80 -1.180
87 C4 81 -0.692
87 C4 82 0.773
87 C4 83 2.726
87 C4 84 3.215
87 C4 85 2.726
87 C4 86 1.750
87 C4 87 0.773
87 C4 88 0.773
87 C4 89 0.773
87 C4 90 0.773
87 C4 91 0.285
87 C4 92 -0.203
87 C4 93 -0.203
87 C4 94 0.285
87 C4 95 1.261
87 C4 96 1.261
87 C4 97 0.773
87 C4 98 -0.203
87 C4 99 -0.692
87 C4 100 -1.180
87 C4 101 -1.668
87 C4 102 -2.157
87 C4 103 -2.645
87 C4 104 -2.645
87 C4 105 -1.668
87 C4 106 -1.180
87 C4 107 -0.203
87 C4 108 -0.203
87 C4 109 -1.180
87 C4 110 -1.668
87 C4 111 -1.668
87 C4 112 -1.668
87 C4 113 -1.180
87 C4 114 -1.180
87 C4 115 -0.692
87 C4 116 -0.692
87 C4 117 -0.203
87 C4 118 0.773
87 C4 119 1.750
87 C4 120 2.238
87 C4 121 1.750
87 C4 122 1.261
87 C4 123 0.285
87 C4 124 -0.203
87 C4 125 -0.203
87 C4 126 0.285
87 C4 127 0.773
87 C4 128 0.773
87 C4 129 0.773
87 C4 130 0.285
87 C4 131 -0.203
87 C4 132 -0.203
87 C4 133 -0.692
87 C4 134 -1.180
87 C4 135 -1.180
87 C4 136 -1.668
87 C4 137 -1.668
87 C4 138 -1.180
87 C4 139 -0.203
87 C4 140 -0.203
87 C4 141 -0.203
87 C4 142 -0.692
87 C4 143 -1.180
87 C4 144 -1.180
87 C4 145 -0.692
87 C4 146 -0.203
87 C4 147 -0.203
87 C4 148 -0.692
87 C4 149 -1.180
87 C4 150 -1.668
87 C4 151 -0.692
87 C4 152 0.285
87 C4 153 1.261
87 C4 154 1.261
87 C4 155 0.773
87 C4 156 -0.203
87 C4 157 -0.203
87 C4 158 -0.203
87 C4 159 0.285
87 C4 160 0.773
87 C4 161 0.773
87 C4 162 -0.203
87 C4 163 -2.157
87 C4 164 -3.133
87 C4 165 -4.110
87 C4 166 -4.598
87 C4 167 -3.621
87 C4 168 -2.645
87 C4 169 -1.180
87 C4 170 -0.203
87 C4 171 -0.203
87 C4 172 -1.180
87 C4 173 -1.668
87 C4 174 -2.645
87 C4 175 -2.645
87 C4 176 -2.645
87 C4 177 -2.157
87 C4 178 -2.157
87 C4 179 -2.645
87 C4 180 -2.645
87 C4 181 -2.645
87 C4 182 -2.157
87 C4 183 -1.668
87 C4 184 -1.668
87 C4 185 -1.668
87 C4 186 -1.668
87 C4 187 -1.180
87 C4 188 -0.692
87 C4 189 -0.203
87 C4 190 0.285
87 C4 191 0.285
87 C4 192 0.285
87 C4 193 0.285
87 C4 194 0.773
87 C4 195 0.773
87 C4 196 0.285
87 C4 197 -0.203
87 C4 198 -1.180
87 C4 199 -2.157
87 C4 200 -2.157
87 C4 201 -1.668
87 C4 202 -1.180
87 C4 203 -0.203
87 C4 204 0.285
87 C4 205 1.261
87 C4 206 2.238
87 C4 207 2.726
87 C4 208 2.238
87 C4 209 1.261
87 C4 210 -0.203
87 C4 211 -1.180
87 C4 212 -1.668
87 C4 213 -0.692
87 C4 214 0.285
87 C4 215 0.773
87 C4 216 1.261
87 C4 217 1.261
87 C4 218 0.773
87 C4 219 0.773
87 C4 220 0.285
87 C4 221 0.285
87 C4 222 -0.203
87 C4 223 -0.203
87 C4 224 0.773
87 C4 225 1.750
87 C4 226 3.215
87 C4 227 3.703
87 C4 228 4.191
87 C4 229 3.703
87 C4 230 3.215
87 C4 231 3.215
87 C4 232 3.215
87 C4 233 3.215
87 C4 234 2.726
87 C4 235 1.750
87 C4 236 0.773
87 C4 237 0.285
87 C4 238 0.285
87 C4 239 0.773
87 C4 240 0.773
87 C4 241 0.285
87 C4 242 -0.203
87 C4 243 -0.692
87 C4 244 -0.692
87 C4 245 -0.203
87 C4 246 0.285
87 C4 247 1.261
87 C4 248 1.750
87 C4 249 2.238
87 C4 250 1.750
87 C4 251 1.261
87 C4 252 0.285
87 C4 253 -0.692
87 C4 254 -1.180
87 C4 255 -1.668
# CP5 chan 18
87 CP5 0 -3.377
87 CP5 1 -2.401
87 CP5 2 -0.936
87 CP5 3 0.529
87 CP5 4 1.017
87 CP5 5 0.529
87 CP5 6 0.041
87 CP5 7 -0.936
87 CP5 8 -0.936
87 CP5 9 -0.448
87 CP5 10 -0.936
87 CP5 11 -0.936
87 CP5 12 -0.936
87 CP5 13 -0.936
87 CP5 14 -0.936
87 CP5 15 -0.936
87 CP5 16 -1.424
87 CP5 17 -0.936
87 CP5 18 -0.936
87 CP5 19 -0.448
87 CP5 20 -0.936
87 CP5 21 -2.401
87 CP5 22 -3.866
87 CP5 23 -4.842
87 CP5 24 -3.866
87 CP5 25 -2.889
87 CP5 26 -1.912
87 CP5 27 -1.912
87 CP5 28 -2.401
87 CP5 29 -2.889
87 CP5 30 -2.401
87 CP5 31 -1.424
87 CP5 32 -0.448
87 CP5 33 -0.448
87 CP5 34 -1.912
87 CP5 35 -2.889
87 CP5 36 -3.377
87 CP5 37 -2.889
87 CP5 38 -1.424
87 CP5 39 -0.448
87 CP5 40 0.041
87 CP5 41 0.041
87 CP5 42 -0.936
87 CP5 43 -1.424
87 CP5 44 -1.424
87 CP5 45 -2.401
87 CP5 46 -3.377
87 CP5 47 -4.842
87 CP5 48 -6.307
87 CP5 49 -7.284
87 CP5 50 -8.260
87 CP5 51 -9.237
87 CP5 52 -9.725
87 CP5 53 -10.213
87 CP5 54 -10.213
87 CP5 55 -9.725
87 CP5 56 -9.237
87 CP5 57 -8.260
87 CP5 58 -7.772
87 CP5 59 -7.284
87 CP5 60 -6.795
87 CP5 61 -6.307
87 CP5 62 -6.307
87 CP5 63 -6.307
87 CP5 64 -7.772
87 CP5 65 -8.748
87 CP5 66 -10.213
87 CP5 67 -11.678
87 CP5 68 -12.655
87 CP5 69 -12.655
87 CP5 70 -12.166
87 CP5 71 -10.701
87 CP5 72 -9.237
87 CP5 73 -8.260
87 CP5 74 -8.748
87 CP5 75 -9.725
87 CP5 76 -10.701
87 CP5 77 -9.725
87 CP5 78 -8.260
87 CP5 79 -6.795
87 CP5 80 -6.307
87 CP5 81 -7.772
87 CP5 82 -9.725
87 CP5 83 -10.213
87 CP5 84 -9.725
87 CP5 85 -7.772
87 CP5 86 -6.307
87 CP5 87 -6.795
87 CP5 88 -8.260
87 CP5 89 -10.213
87 CP5 90 -11.190
87 CP5 91 -10.701
87 CP5 92 -9.725
87 CP5 93 -9.237
87 CP5 94 -9.725
87 CP5 95 -9.725
87 CP5 96 -9.725
87 CP5 97 -9.237
87 CP5 98 -7.772
87 CP5 99 -6.795
87 CP5 100 -5.819
87 CP5 101 -6.307
87 CP5 102 -7.284
87 CP5 103 -8.260
87 CP5 104 -9.237
87 CP5 105 -9.725
87 CP5 106 -9.725
87 CP5 107 -9.725
87 CP5 108 -9.725
87 CP5 109 -10.213
87 CP5 110 -11.190
87 CP5 111 -11.678
87 CP5 112 -12.166
87 CP5 113 -11.678
87 CP5 114 -10.213
87 CP5 115 -9.237
87 CP5 116 -7.772
87 CP5 117 -6.795
87 CP5 118 -6.307
87 CP5 119 -6.795
87 CP5 120 -7.772
87 CP5 121 -9.237
87 CP5 122 -9.725
87 CP5 123 -9.725
87 CP5 124 -8.748
87 CP5 125 -7.284
87 CP5 126 -6.795
87 CP5 127 -8.260
87 CP5 128 -10.701
87 CP5 129 -12.166
87 CP5 130 -12.166
87 CP5 131 -11.190
87 CP5 132 -9.725
87 CP5 133 -8.260
87 CP5 134 -8.260
87 CP5 135 -7.772
87 CP5 136 -7.772
87 CP5 137 -7.284
87 CP5 138 -7.772
87 CP5 139 -8.748
87 CP5 140 -10.701
87 CP5 141 -12.166
87 CP5 142 -12.655
87 CP5 143 -12.166
87 CP5 144 -11.190
87 CP5 145 -10.701
87 CP5 146 -10.213
87 CP5 147 -10.213
87 CP5 148 -10.213
87 CP5 149 -9.725
87 CP5 150 -9.725
87 CP5 151 -9.725
87 CP5 152 -9.725
87 CP5 153 -9.725
87 CP5 154 -9.725
87 CP5 155 -9.725
87 CP5 156 -10.213
87 CP5 157 -10.701
87 CP5 158 -10.701
87 CP5 159 -11.190
87 CP5 160 -10.701
87 CP5 161 -10.213
87 CP5 162 -9.725
87 CP5 163 -9.237
87 CP5 164 -9.237
87 CP5 165 -8.748
87 CP5 166 -8.260
87 CP5 167 -8.748
87 CP5 168 -10.701
87 CP5 169 -13.631
87 CP5 170 -15.584
87 CP5 171 -17.049
87 CP5 172 -15.584
87 CP5 173 -13.143
87 CP5 174 -10.213
87 CP5 175 -8.260
87 CP5 176 -6.795
87 CP5 177 -6.795
87 CP5 178 -6.307
87 CP5 179 -6.795
87 CP5 180 -7.284
87 CP5 181 -8.748
87 CP5 182 -9.725
87 CP5 183 -10.701
87 CP5 184 -10.701
87 CP5 185 -11.190
87 CP5 186 -12.166
87 CP5 187 -13.631
87 CP5 188 -15.096
87 CP5 189 -15.584
87 CP5 190 -15.584
87 CP5 191 -15.096
87 CP5 192 -14.608
87 CP5 193 -15.096
87 CP5 194 -15.584
87 CP5 195 -15.584
87 CP5 196 -15.096
87 CP5 197 -15.096
87 CP5 198 -15.096
87 CP5 199 -15.096
87 CP5 200 -15.096
87 CP5 201 -14.119
87 CP5 202 -13.631
87 CP5 203 -14.119
87 CP5 204 -16.561
87 CP5 205 -19.491
87 CP5 206 -20.467
87 CP5 207 -18.514
87 CP5 208 -13.143
87 CP5 209 -6.795
87 CP5 210 -3.377
87 CP5 211 -3.866
87 CP5 212 -7.772
87 CP5 213 -11.190
87 CP5 214 -13.143
87 CP5 215 -11.678
87 CP5 216 -8.748
87 CP5 217 -7.284
87 CP5 218 -7.284
87 CP5 219 -9.725
87 CP5 220 -11.678
87 CP5 221 -13.143
87 CP5 222 -13.143
87 CP5 223 -13.143
87 CP5 224 -13.631
87 CP5 225 -14.608
87 CP5 226 -15.584
87 CP5 227 -16.073
87 CP5 228 -16.073
87 CP5 229 -16.073
87 CP5 230 -16.073
87 CP5 231 -16.561
87 CP5 232 -16.561
87 CP5 233 -15.096
87 CP5 234 -13.143
87 CP5 235 -11.190
87 CP5 236 -9.725
87 CP5 237 -10.701
87 CP5 238 -12.166
87 CP5 239 -13.631
87 CP5 240 -14.608
87 CP5 241 -14.119
87 CP5 242 -12.655
87 CP5 243 -11.678
87 CP5 244 -11.190
87 CP5 245 -12.166
87 CP5 246 -13.143
87 CP5 247 -14.608
87 CP5 248 -15.096
87 CP5 249 -15.096
87 CP5 250 -14.608
87 CP5 251 -14.608
87 CP5 252 -14.608
87 CP5 253 -15.096
87 CP5 254 -15.096
87 CP5 255 -15.096
# CP6 chan 19
87 CP6 0 -0.061
87 CP6 1 -1.038
87 CP6 2 -2.014
87 CP6 3 -1.526
87 CP6 4 -0.549
87 CP6 5 1.404
87 CP6 6 2.869
87 CP6 7 3.845
87 CP6 8 3.357
87 CP6 9 1.892
87 CP6 10 -0.061
87 CP6 11 -1.526
87 CP6 12 -3.479
87 CP6 13 -3.967
87 CP6 14 -4.456
87 CP6 15 -4.456
87 CP6 16 -4.456
87 CP6 17 -4.944
87 CP6 18 -4.456
87 CP6 19 -3.967
87 CP6 20 -2.502
87 CP6 21 -0.549
87 CP6 22 0.916
87 CP6 23 1.404
87 CP6 24 0.916
87 CP6 25 0.427
87 CP6 26 -0.061
87 CP6 27 0.427
87 CP6 28 0.427
87 CP6 29 0.427
87 CP6 30 -0.061
87 CP6 31 -0.549
87 CP6 32 -1.038
87 CP6 33 -0.549
87 CP6 34 -0.549
87 CP6 35 -0.061
87 CP6 36 0.427
87 CP6 37 -0.061
87 CP6 38 -1.526
87 CP6 39 -2.991
87 CP6 40 -3.479
87 CP6 41 -2.502
87 CP6 42 -1.038
87 CP6 43 1.404
87 CP6 44 2.869
87 CP6 45 2.869
87 CP6 46 2.380
87 CP6 47 1.404
87 CP6 48 0.916
87 CP6 49 0.916
87 CP6 50 0.916
87 CP6 51 0.916
87 CP6 52 0.427
87 CP6 53 0.916
87 CP6 54 1.404
87 CP6 55 2.380
87 CP6 56 2.869
87 CP6 57 2.380
87 CP6 58 0.916
87 CP6 59 -0.061
87 CP6 60 -1.038
87 CP6 61 -1.038
87 CP6 62 0.427
87 CP6 63 1.892
87 CP6 64 3.357
87 CP6 65 3.357
87 CP6 66 2.380
87 CP6 67 0.427
87 CP6 68 -1.038
87 CP6 69 -2.502
87 CP6 70 -2.991
87 CP6 71 -3.479
87 CP6 72 -3.967
87 CP6 73 -3.479
87 CP6 74 -2.502
87 CP6 75 -1.038
87 CP6 76 0.916
87 CP6 77 1.892
87 CP6 78 0.916
87 CP6 79 -1.038
87 CP6 80 -2.991
87 CP6 81 -2.502
87 CP6 82 -0.549
87 CP6 83 1.404
87 CP6 84 2.380
87 CP6 85 1.404
87 CP6 86 -0.061
87 CP6 87 -1.038
87 CP6 88 -1.038
87 CP6 89 -0.549
87 CP6 90 -1.038
87 CP6 91 -2.014
87 CP6 92 -2.502
87 CP6 93 -1.526
87 CP6 94 -0.549
87 CP6 95 0.427
87 CP6 96 -0.061
87 CP6 97 -1.526
87 CP6 98 -2.991
87 CP6 99 -3.967
87 CP6 100 -3.967
87 CP6 101 -3.967
87 CP6 102 -4.456
87 CP6 103 -5.920
87 CP6 104 -6.409
87 CP6 105 -5.920
87 CP6 106 -3.967
87 CP6 107 -2.014
87 CP6 108 -2.014
87 CP6 109 -3.479
87 CP6 110 -5.432
87 CP6 111 -6.897
87 CP6 112 -6.897
87 CP6 113 -5.432
87 CP6 114 -4.456
87 CP6 115 -3.479
87 CP6 116 -2.502
87 CP6 117 -1.038
87 CP6 118 -0.061
87 CP6 119 1.404
87 CP6 120 1.404
87 CP6 121 0.916
87 CP6 122 -0.549
87 CP6 123 -1.526
87 CP6 124 -2.502
87 CP6 125 -2.502
87 CP6 126 -2.014
87 CP6 127 -2.014
87 CP6 128 -2.014
87 CP6 129 -2.014
87 CP6 130 -1.526
87 CP6 131 -1.038
87 CP6 132 -1.038
87 CP6 133 -1.038
87 CP6 134 -2.014
87 CP6 135 -2.502
87 CP6 136 -2.014
87 CP6 137 -1.038
87 CP6 138 -0.549
87 CP6 139 -0.061
87 CP6 140 -1.038
87 CP6 141 -2.502
87 CP6 142 -3.967
87 CP6 143 -3.967
87 CP6 144 -3.967
87 CP6 145 -2.991
87 CP6 146 -2.014
87 CP6 147 -2.014
87 CP6 148 -2.502
87 CP6 149 -2.991
87 CP6 150 -2.991
87 CP6 151 -2.014
87 CP6 152 -0.549
87 CP6 153 0.916
87 CP6 154 1.404
87 CP6 155 1.404
87 CP6 156 0.427
87 CP6 157 -0.061
87 CP6 158 -0.061
87 CP6 159 -0.061
87 CP6 160 -0.061
87 CP6 161 -1.038
87 CP6 162 -2.991
87 CP6 163 -5.920
87 CP6 164 -7.874
87 CP6 165 -8.362
87 CP6 166 -8.362
87 CP6 167 -5.920
87 CP6 168 -3.967
87 CP6 169 -1.038
87 CP6 170 -0.061
87 CP6 171 0.427
87 CP6 172 -0.549
87 CP6 173 -1.526
87 CP6 174 -2.502
87 CP6 175 -2.991
87 CP6 176 -3.479
87 CP6 177 -4.456
87 CP6 178 -5.432
87 CP6 179 -5.920
87 CP6 180 -5.432
87 CP6 181 -4.456
87 CP6 182 -3.479
87 CP6 183 -2.502
87 CP6 184 -2.502
87 CP6 185 -2.502
87 CP6 186 -2.502
87 CP6 187 -2.014
87 CP6 188 -1.526
87 CP6 189 -1.038
87 CP6 190 -1.526
87 CP6 191 -1.526
87 CP6 192 -2.014
87 CP6 193 -1.526
87 CP6 194 -1.038
87 CP6 195 -1.038
87 CP6 196 -2.502
87 CP6 197 -4.456
87 CP6 198 -5.432
87 CP6 199 -5.432
87 CP6 200 -3.967
87 CP6 201 -2.014
87 CP6 202 -1.038
87 CP6 203 -0.549
87 CP6 204 -1.038
87 CP6 205 -1.038
87 CP6 206 -0.061
87 CP6 207 0.916
87 CP6 208 1.892
87 CP6 209 0.916
87 CP6 210 -1.526
87 CP6 211 -2.991
87 CP6 212 -3.479
87 CP6 213 -2.502
87 CP6 214 -0.549
87 CP6 215 0.916
87 CP6 216 1.404
87 CP6 217 1.404
87 CP6 218 0.916
87 CP6 219 0.916
87 CP6 220 -0.061
87 CP6 221 -1.526
87 CP6 222 -2.502
87 CP6 223 -2.502
87 CP6 224 -1.526
87 CP6 225 0.427
87 CP6 226 2.380
87 CP6 227 2.869
87 CP6 228 2.869
87 CP6 229 2.380
87 CP6 230 1.892
87 CP6 231 1.892
87 CP6 232 2.869
87 CP6 233 3.357
87 CP6 234 2.869
87 CP6 235 1.404
87 CP6 236 -0.061
87 CP6 237 -1.038
87 CP6 238 -1.526
87 CP6 239 -1.526
87 CP6 240 -1.526
87 CP6 241 -2.502
87 CP6 242 -2.991
87 CP6 243 -2.991
87 CP6 244 -2.991
87 CP6 245 -2.014
87 CP6 246 -1.526
87 CP6 247 -1.038
87 CP6 248 -1.038
87 CP6 249 -1.038
87 CP6 250 -0.061
87 CP6 251 0.427
87 CP6 252 -0.061
87 CP6 253 -1.038
87 CP6 254 -2.502
87 CP6 255 -3.479
# CP1 chan 20
87 CP1 0 -0.936
87 CP1 1 -0.448
87 CP1 2 0.041
87 CP1 3 0.041
87 CP1 4 0.529
87 CP1 5 0.529
87 CP1 6 0.529
87 CP1 7 0.529
87 CP1 8 0.041
87 CP1 9 0.041
87 CP1 10 0.041
87 CP1 11 0.529
87 CP1 12 0.529
87 CP1 13 0.529
87 CP1 14 0.041
87 CP1 15 -0.448
87 CP1 16 -0.448
87 CP1 17 -0.448
87 CP1 18 0.041
87 CP1 19 0.041
87 CP1 20 0.041
87 CP1 21 0.041
87 CP1 22 -0.448
87 CP1 23 -0.936
87 CP1 24 -0.448
87 CP1 25 -0.448
87 CP1 26 0.041
87 CP1 27 -0.448
87 CP1 28 -0.936
87 CP1 29 -0.936
87 CP1 30 -0.936
87 CP1 31 -0.448
87 CP1 32 -0.448
87 CP1 33 -0.448
87 CP1 34 -0.448
87 CP1 35 -0.448
87 CP1 36 -0.936
87 CP1 37 -0.936
87 CP1 38 -0.936
87 CP1 39 -0.936
87 CP1 40 -0.448
87 CP1 41 -0.448
87 CP1 42 -0.448
87 CP1 43 -0.448
87 CP1 44 -0.936
87 CP1 45 -0.936
87 CP1 46 -1.424
87 CP1 47 -1.424
87 CP1 48 -1.424
87 CP1 49 -1.912
87 CP1 50 -1.912
87 CP1 51 -2.401
87 CP1 52 -2.889
87 CP1 53 -3.377
87 CP1 54 -3.377
87 CP1 55 -3.377
87 CP1 56 -2.889
87 CP1 57 -2.401
87 CP1 58 -1.912
87 CP1 59 -1.424
87 CP1 60 -0.448
87 CP1 61 -0.448
87 CP1 62 -0.448
87 CP1 63 -0.936
87 CP1 64 -0.936
87 CP1 65 -1.424
87 CP1 66 -1.424
87 CP1 67 -1.912
87 CP1 68 -2.401
87 CP1 69 -2.889
87 CP1 70 -3.377
87 CP1 71 -2.889
87 CP1 72 -2.401
87 CP1 73 -1.912
87 CP1 74 -1.912
87 CP1 75 -1.912
87 CP1 76 -1.912
87 CP1 77 -1.912
87 CP1 78 -1.424
87 CP1 79 -1.424
87 CP1 80 -0.936
87 CP1 81 -0.936
87 CP1 82 -1.424
87 CP1 83 -1.424
87 CP1 84 -1.424
87 CP1 85 -0.936
87 CP1 86 -0.936
87 CP1 87 -0.936
87 CP1 88 -0.936
87 CP1 89 -1.424
87 CP1 90 -1.424
87 CP1 91 -1.424
87 CP1 92 -0.936
87 CP1 93 -1.424
87 CP1 94 -1.424
87 CP1 95 -1.912
87 CP1 96 -1.912
87 CP1 97 -1.424
87 CP1 98 -0.936
87 CP1 99 -0.448
87 CP1 100 -0.448
87 CP1 101 -0.448
87 CP1 102 -0.936
87 CP1 103 -0.936
87 CP1 104 -1.424
87 CP1 105 -1.424
87 CP1 106 -0.936
87 CP1 107 -0.448
87 CP1 108 -0.448
87 CP1 109 -0.448
87 CP1 110 -0.936
87 CP1 111 -1.424
87 CP1 112 -0.936
87 CP1 113 -0.936
87 CP1 114 -0.448
87 CP1 115 -0.448
87 CP1 116 0.041
87 CP1 117 -0.448
87 CP1 118 -0.448
87 CP1 119 -0.448
87 CP1 120 -0.448
87 CP1 121 -0.936
87 CP1 122 -1.424
87 CP1 123 -1.424
87 CP1 124 -0.936
87 CP1 125 -0.448
87 CP1 126 0.041
87 CP1 127 0.041
87 CP1 128 -0.448
87 CP1 129 -1.424
87 CP1 130 -1.424
87 CP1 131 -1.424
87 CP1 132 -0.448
87 CP1 133 0.041
87 CP1 134 0.041
87 CP1 135 0.529
87 CP1 136 0.529
87 CP1 137 1.017
87 CP1 138 1.017
87 CP1 139 1.017
87 CP1 140 0.529
87 CP1 141 -0.448
87 CP1 142 -0.448
87 CP1 143 -0.936
87 CP1 144 -0.936
87 CP1 145 -0.936
87 CP1 146 -0.936
87 CP1 147 -0.448
87 CP1 148 -0.448
87 CP1 149 -0.448
87 CP1 150 0.041
87 CP1 151 0.041
87 CP1 152 0.041
87 CP1 153 -0.448
87 CP1 154 -0.448
87 CP1 155 -0.936
87 CP1 156 -0.936
87 CP1 157 -0.448
87 CP1 158 -0.448
87 CP1 159 -0.448
87 CP1 160 -0.448
87 CP1 161 -0.448
87 CP1 162 -0.448
87 CP1 163 -0.448
87 CP1 164 -0.448
87 CP1 165 0.041
87 CP1 166 0.529
87 CP1 167 0.529
87 CP1 168 0.041
87 CP1 169 -0.448
87 CP1 170 -1.424
87 CP1 171 -1.424
87 CP1 172 -1.424
87 CP1 173 -0.448
87 CP1 174 1.017
87 CP1 175 1.506
87 CP1 176 1.994
87 CP1 177 1.506
87 CP1 178 0.529
87 CP1 179 0.041
87 CP1 180 0.041
87 CP1 181 0.041
87 CP1 182 0.529
87 CP1 183 1.017
87 CP1 184 1.017
87 CP1 185 1.017
87 CP1 186 0.529
87 CP1 187 -0.448
87 CP1 188 -0.936
87 CP1 189 -1.424
87 CP1 190 -0.936
87 CP1 191 -0.936
87 CP1 192 -0.936
87 CP1 193 -0.936
87 CP1 194 -0.936
87 CP1 195 -0.936
87 CP1 196 -0.936
87 CP1 197 -1.424
87 CP1 198 -0.936
87 CP1 199 -0.936
87 CP1 200 -0.448
87 CP1 201 0.041
87 CP1 202 0.041
87 CP1 203 0.041
87 CP1 204 -0.448
87 CP1 205 -1.424
87 CP1 206 -1.912
87 CP1 207 -1.912
87 CP1 208 -0.448
87 CP1 209 1.017
87 CP1 210 2.482
87 CP1 211 2.970
87 CP1 212 1.994
87 CP1 213 1.506
87 CP1 214 0.529
87 CP1 215 0.529
87 CP1 216 0.529
87 CP1 217 1.506
87 CP1 218 1.506
87 CP1 219 1.506
87 CP1 220 1.017
87 CP1 221 0.529
87 CP1 222 0.041
87 CP1 223 0.041
87 CP1 224 0.041
87 CP1 225 0.041
87 CP1 226 0.041
87 CP1 227 -0.448
87 CP1 228 -0.936
87 CP1 229 -1.424
87 CP1 230 -1.912
87 CP1 231 -1.912
87 CP1 232 -1.424
87 CP1 233 -0.936
87 CP1 234 -0.448
87 CP1 235 0.529
87 CP1 236 1.017
87 CP1 237 1.017
87 CP1 238 1.017
87 CP1 239 0.529
87 CP1 240 -0.448
87 CP1 241 0.041
87 CP1 242 0.041
87 CP1 243 0.529
87 CP1 244 1.017
87 CP1 245 1.017
87 CP1 246 0.529
87 CP1 247 -0.448
87 CP1 248 -0.936
87 CP1 249 -0.936
87 CP1 250 -0.448
87 CP1 251 0.041
87 CP1 252 0.529
87 CP1 253 0.529
87 CP1 254 0.529
87 CP1 255 0.041
# CP2 chan 21
87 CP2 0 -1.740
87 CP2 1 -1.740
87 CP2 2 -2.228
87 CP2 3 -2.228
87 CP2 4 -2.228
87 CP2 5 -1.251
87 CP2 6 -0.275
87 CP2 7 -0.275
87 CP2 8 -0.763
87 CP2 9 -1.251
87 CP2 10 -2.228
87 CP2 11 -2.716
87 CP2 12 -2.716
87 CP2 13 -3.693
87 CP2 14 -3.693
87 CP2 15 -4.181
87 CP2 16 -4.181
87 CP2 17 -3.693
87 CP2 18 -3.693
87 CP2 19 -3.204
87 CP2 20 -2.716
87 CP2 21 -1.740
87 CP2 22 -1.251
87 CP2 23 -0.763
87 CP2 24 -0.763
87 CP2 25 -1.251
87 CP2 26 -1.740
87 CP2 27 -2.228
87 CP2 28 -2.228
87 CP2 29 -2.228
87 CP2 30 -2.228
87 CP2 31 -2.228
87 CP2 32 -2.716
87 CP2 33 -3.204
87 CP2 34 -3.693
87 CP2 35 -3.204
87 CP2 36 -2.716
87 CP2 37 -3.204
87 CP2 38 -3.693
87 CP2 39 -4.669
87 CP2 40 -5.157
87 CP2 41 -4.669
87 CP2 42 -3.693
87 CP2 43 -2.716
87 CP2 44 -1.740
87 CP2 45 -1.740
87 CP2 46 -1.740
87 CP2 47 -1.740
87 CP2 48 -1.740
87 CP2 49 -2.228
87 CP2 50 -2.716
87 CP2 51 -2.716
87 CP2 52 -2.716
87 CP2 53 -2.716
87 CP2 54 -2.228
87 CP2 55 -1.740
87 CP2 56 -1.740
87 CP2 57 -1.740
87 CP2 58 -2.228
87 CP2 59 -2.228
87 CP2 60 -2.228
87 CP2 61 -2.716
87 CP2 62 -2.228
87 CP2 63 -1.740
87 CP2 64 -1.251
87 CP2 65 -1.251
87 CP2 66 -1.251
87 CP2 67 -1.740
87 CP2 68 -2.716
87 CP2 69 -3.204
87 CP2 70 -3.693
87 CP2 71 -3.693
87 CP2 72 -3.693
87 CP2 73 -3.693
87 CP2 74 -3.204
87 CP2 75 -2.716
87 CP2 76 -2.228
87 CP2 77 -2.228
87 CP2 78 -2.228
87 CP2 79 -2.716
87 CP2 80 -3.204
87 CP2 81 -3.204
87 CP2 82 -2.716
87 CP2 83 -2.228
87 CP2 84 -1.251
87 CP2 85 -1.251
87 CP2 86 -1.740
87 CP2 87 -1.740
87 CP2 88 -1.740
87 CP2 89 -1.740
87 CP2 90 -2.228
87 CP2 91 -2.716
87 CP2 92 -3.204
87 CP2 93 -3.204
87 CP2 94 -3.204
87 CP2 95 -2.716
87 CP2 96 -2.716
87 CP2 97 -3.204
87 CP2 98 -4.181
87 CP2 99 -4.181
87 CP2 100 -4.181
87 CP2 101 -4.181
87 CP2 102 -4.181
87 CP2 103 -4.669
87 CP2 104 -4.669
87 CP2 105 -4.181
87 CP2 106 -3.693
87 CP2 107 -3.693
87 CP2 108 -3.693
87 CP2 109 -4.181
87 CP2 110 -4.669
87 CP2 111 -5.157
87 CP2 112 -5.157
87 CP2 113 -4.669
87 CP2 114 -3.693
87 CP2 115 -3.204
87 CP2 116 -2.716
87 CP2 117 -1.740
87 CP2 118 -1.251
87 CP2 119 -0.763
87 CP2 120 -1.251
87 CP2 121 -1.740
87 CP2 122 -2.716
87 CP2 123 -3.204
87 CP2 124 -3.204
87 CP2 125 -2.716
87 CP2 126 -2.228
87 CP2 127 -1.740
87 CP2 128 -1.740
87 CP2 129 -2.228
87 CP2 130 -2.716
87 CP2 131 -2.716
87 CP2 132 -2.716
87 CP2 133 -2.716
87 CP2 134 -2.716
87 CP2 135 -2.716
87 CP2 136 -2.716
87 CP2 137 -2.228
87 CP2 138 -1.740
87 CP2 139 -1.740
87 CP2 140 -2.228
87 CP2 141 -2.228
87 CP2 142 -3.204
87 CP2 143 -3.204
87 CP2 144 -3.693
87 CP2 145 -3.204
87 CP2 146 -2.716
87 CP2 147 -2.716
87 CP2 148 -2.716
87 CP2 149 -2.716
87 CP2 150 -2.716
87 CP2 151 -2.228
87 CP2 152 -1.740
87 CP2 153 -1.740
87 CP2 154 -1.251
87 CP2 155 -1.740
87 CP2 156 -2.228
87 CP2 157 -2.716
87 CP2 158 -2.716
87 CP2 159 -2.228
87 CP2 160 -2.228
87 CP2 161 -2.228
87 CP2 162 -2.716
87 CP2 163 -3.693
87 CP2 164 -4.181
87 CP2 165 -4.669
87 CP2 166 -4.669
87 CP2 167 -4.181
87 CP2 168 -2.716
87 CP2 169 -1.740
87 CP2 170 -0.763
87 CP2 171 -0.763
87 CP2 172 -1.251
87 CP2 173 -1.740
87 CP2 174 -2.228
87 CP2 175 -2.716
87 CP2 176 -2.716
87 CP2 177 -3.204
87 CP2 178 -3.693
87 CP2 179 -4.181
87 CP2 180 -3.693
87 CP2 181 -3.204
87 CP2 182 -2.228
87 CP2 183 -1.740
87 CP2 184 -1.740
87 CP2 185 -1.740
87 CP2 186 -2.228
87 CP2 187 -2.716
87 CP2 188 -2.228
87 CP2 189 -2.228
87 CP2 190 -1.740
87 CP2 191 -1.740
87 CP2 192 -2.228
87 CP2 193 -1.740
87 CP2 194 -1.251
87 CP2 195 -0.763
87 CP2 196 -0.763
87 CP2 197 -1.251
87 CP2 198 -1.740
87 CP2 199 -1.740
87 CP2 200 -1.740
87 CP2 201 -0.763
87 CP2 202 -0.275
87 CP2 203 0.214
87 CP2 204 0.214
87 CP2 205 0.214
87 CP2 206 -0.275
87 CP2 207 -0.275
87 CP2 208 -0.763
87 CP2 209 -1.251
87 CP2 210 -1.740
87 CP2 211 -1.740
87 CP2 212 -1.740
87 CP2 213 -0.763
87 CP2 214 -0.275
87 CP2 215 -0.275
87 CP2 216 -0.763
87 CP2 217 -0.763
87 CP2 218 -0.763
87 CP2 219 -1.251
87 CP2 220 -0.763
87 CP2 221 -1.251
87 CP2 222 -1.740
87 CP2 223 -2.228
87 CP2 224 -1.740
87 CP2 225 -1.740
87 CP2 226 -0.763
87 CP2 227 -0.763
87 CP2 228 -0.763
87 CP2 229 -1.251
87 CP2 230 -1.251
87 CP2 231 -1.251
87 CP2 232 -0.763
87 CP2 233 -0.763
87 CP2 234 -1.251
87 CP2 235 -2.228
87 CP2 236 -2.716
87 CP2 237 -3.204
87 CP2 238 -2.716
87 CP2 239 -2.716
87 CP2 240 -2.716
87 CP2 241 -2.716
87 CP2 242 -2.716
87 CP2 243 -2.716
87 CP2 244 -2.716
87 CP2 245 -1.740
87 CP2 246 -1.740
87 CP2 247 -1.740
87 CP2 248 -1.251
87 CP2 249 -1.251
87 CP2 250 -1.251
87 CP2 251 -1.251
87 CP2 252 -1.740
87 CP2 253 -2.716
87 CP2 254 -3.204
87 CP2 255 -3.204
# P3 chan 22
87 P3 0 -1.841
87 P3 1 -0.865
87 P3 2 -0.376
87 P3 3 1.088
87 P3 4 2.065
87 P3 5 2.553
87 P3 6 1.577
87 P3 7 0.600
87 P3 8 -0.865
87 P3 9 -1.353
87 P3 10 -0.865
87 P3 11 -0.376
87 P3 12 0.600
87 P3 13 0.112
87 P3 14 -0.865
87 P3 15 -1.353
87 P3 16 -1.353
87 P3 17 -0.865
87 P3 18 -0.376
87 P3 19 0.600
87 P3 20 0.112
87 P3 21 0.112
87 P3 22 0.112
87 P3 23 0.600
87 P3 24 1.088
87 P3 25 1.088
87 P3 26 0.600
87 P3 27 -0.376
87 P3 28 -0.865
87 P3 29 -0.865
87 P3 30 -0.376
87 P3 31 0.112
87 P3 32 0.112
87 P3 33 -0.376
87 P3 34 -0.865
87 P3 35 -1.353
87 P3 36 -1.353
87 P3 37 -0.865
87 P3 38 -0.865
87 P3 39 -0.376
87 P3 40 0.112
87 P3 41 1.088
87 P3 42 1.577
87 P3 43 1.577
87 P3 44 0.600
87 P3 45 -0.865
87 P3 46 -1.841
87 P3 47 -2.330
87 P3 48 -2.330
87 P3 49 -2.330
87 P3 50 -3.306
87 P3 51 -4.283
87 P3 52 -5.259
87 P3 53 -5.747
87 P3 54 -5.747
87 P3 55 -5.259
87 P3 56 -4.771
87 P3 57 -3.794
87 P3 58 -3.306
87 P3 59 -2.330
87 P3 60 -1.353
87 P3 61 -0.865
87 P3 62 -1.353
87 P3 63 -1.841
87 P3 64 -2.818
87 P3 65 -3.306
87 P3 66 -3.794
87 P3 67 -4.771
87 P3 68 -5.747
87 P3 69 -6.724
87 P3 70 -7.212
87 P3 71 -7.212
87 P3 72 -6.236
87 P3 73 -5.259
87 P3 74 -5.259
87 P3 75 -4.771
87 P3 76 -4.771
87 P3 77 -4.283
87 P3 78 -3.306
87 P3 79 -2.818
87 P3 80 -3.306
87 P3 81 -3.306
87 P3 82 -4.283
87 P3 83 -3.794
87 P3 84 -3.306
87 P3 85 -1.841
87 P3 86 -1.841
87 P3 87 -1.841
87 P3 88 -2.330
87 P3 89 -3.306
87 P3 90 -3.794
87 P3 91 -3.306
87 P3 92 -3.794
87 P3 93 -3.794
87 P3 94 -3.794
87 P3 95 -4.283
87 P3 96 -4.283
87 P3 97 -3.794
87 P3 98 -3.306
87 P3 99 -2.818
87 P3 100 -2.330
87 P3 101 -2.330
87 P3 102 -2.330
87 P3 103 -2.330
87 P3 104 -3.306
87 P3 105 -3.794
87 P3 106 -3.794
87 P3 107 -3.794
87 P3 108 -3.794
87 P3 109 -3.306
87 P3 110 -3.794
87 P3 111 -4.771
87 P3 112 -5.259
87 P3 113 -4.771
87 P3 114 -3.794
87 P3 115 -2.818
87 P3 116 -1.841
87 P3 117 -0.865
87 P3 118 -0.865
87 P3 119 -0.865
87 P3 120 -2.330
87 P3 121 -3.794
87 P3 122 -4.283
87 P3 123 -4.283
87 P3 124 -3.306
87 P3 125 -1.841
87 P3 126 -0.865
87 P3 127 -1.353
87 P3 128 -2.330
87 P3 129 -3.794
87 P3 130 -4.771
87 P3 131 -3.794
87 P3 132 -2.818
87 P3 133 -1.353
87 P3 134 -0.865
87 P3 135 -1.353
87 P3 136 -1.353
87 P3 137 -1.353
87 P3 138 -1.353
87 P3 139 -1.841
87 P3 140 -1.841
87 P3 141 -2.818
87 P3 142 -3.794
87 P3 143 -4.283
87 P3 144 -3.794
87 P3 145 -3.794
87 P3 146 -2.818
87 P3 147 -2.330
87 P3 148 -2.330
87 P3 149 -2.818
87 P3 150 -2.818
87 P3 151 -2.818
87 P3 152 -2.818
87 P3 153 -2.818
87 P3 154 -2.818
87 P3 155 -2.818
87 P3 156 -3.306
87 P3 157 -3.794
87 P3 158 -4.283
87 P3 159 -4.283
87 P3 160 -4.283
87 P3 161 -3.794
87 P3 162 -3.306
87 P3 163 -3.306
87 P3 164 -2.818
87 P3 165 -1.841
87 P3 166 -1.353
87 P3 167 -1.353
87 P3 168 -2.330
87 P3 169 -3.794
87 P3 170 -5.259
87 P3 171 -6.236
87 P3 172 -5.747
87 P3 173 -4.283
87 P3 174 -2.330
87 P3 175 -0.865
87 P3 176 -0.865
87 P3 177 -1.353
87 P3 178 -1.841
87 P3 179 -2.818
87 P3 180 -2.818
87 P3 181 -2.818
87 P3 182 -2.818
87 P3 183 -2.818
87 P3 184 -2.818
87 P3 185 -3.794
87 P3 186 -4.771
87 P3 187 -5.747
87 P3 188 -6.724
87 P3 189 -6.724
87 P3 190 -6.236
87 P3 191 -5.747
87 P3 192 -5.259
87 P3 193 -4.771
87 P3 194 -4.771
87 P3 195 -4.283
87 P3 196 -4.283
87 P3 197 -4.771
87 P3 198 -5.259
87 P3 199 -5.259
87 P3 200 -4.283
87 P3 201 -3.306
87 P3 202 -2.330
87 P3 203 -2.330
87 P3 204 -3.794
87 P3 205 -5.747
87 P3 206 -7.212
87 P3 207 -6.724
87 P3 208 -4.283
87 P3 209 -0.865
87 P3 210 1.577
87 P3 211 2.065
87 P3 212 0.112
87 P3 213 -1.841
87 P3 214 -2.818
87 P3 215 -3.306
87 P3 216 -2.330
87 P3 217 -0.865
87 P3 218 -0.865
87 P3 219 -0.865
87 P3 220 -1.841
87 P3 221 -2.818
87 P3 222 -3.306
87 P3 223 -3.794
87 P3 224 -3.794
87 P3 225 -3.794
87 P3 226 -3.794
87 P3 227 -4.283
87 P3 228 -4.771
87 P3 229 -5.259
87 P3 230 -5.747
87 P3 231 -5.747
87 P3 232 -5.259
87 P3 233 -4.283
87 P3 234 -3.306
87 P3 235 -2.330
87 P3 236 -1.841
87 P3 237 -1.841
87 P3 238 -2.330
87 P3 239 -3.306
87 P3 240 -4.283
87 P3 241 -4.771
87 P3 242 -3.794
87 P3 243 -2.330
87 P3 244 -1.353
87 P3 245 -0.865
87 P3 246 -1.841
87 P3 247 -3.306
87 P3 248 -4.771
87 P3 249 -5.259
87 P3 250 -5.259
87 P3 251 -3.794
87 P3 252 -3.306
87 P3 253 -3.306
87 P3 254 -3.794
87 P3 255 -4.283
# P4 chan 23
87 P4 0 -1.231
87 P4 1 -1.719
87 P4 2 -2.207
87 P4 3 -1.719
87 P4 4 -0.254
87 P4 5 1.699
87 P4 6 2.675
87 P4 7 2.675
87 P4 8 1.699
87 P4 9 0.722
87 P4 10 -0.254
87 P4 11 -1.231
87 P4 12 -1.719
87 P4 13 -3.184
87 P4 14 -4.161
87 P4 15 -5.137
87 P4 16 -5.137
87 P4 17 -4.649
87 P4 18 -3.184
87 P4 19 -2.696
87 P4 20 -1.719
87 P4 21 -0.254
87 P4 22 1.211
87 P4 23 2.187
87 P4 24 2.187
87 P4 25 1.699
87 P4 26 0.722
87 P4 27 -0.254
87 P4 28 -0.254
87 P4 29 -0.254
87 P4 30 -0.254
87 P4 31 -0.743
87 P4 32 -1.231
87 P4 33 -1.719
87 P4 34 -1.719
87 P4 35 -1.231
87 P4 36 -0.743
87 P4 37 -1.719
87 P4 38 -3.184
87 P4 39 -4.161
87 P4 40 -4.649
87 P4 41 -3.672
87 P4 42 -2.207
87 P4 43 0.234
87 P4 44 1.211
87 P4 45 1.211
87 P4 46 0.722
87 P4 47 0.234
87 P4 48 0.234
87 P4 49 -0.254
87 P4 50 -0.254
87 P4 51 -0.743
87 P4 52 -1.231
87 P4 53 -0.743
87 P4 54 -0.254
87 P4 55 0.722
87 P4 56 0.722
87 P4 57 0.722
87 P4 58 -0.254
87 P4 59 -0.743
87 P4 60 -1.231
87 P4 61 -1.231
87 P4 62 -0.743
87 P4 63 -0.254
87 P4 64 0.234
87 P4 65 0.722
87 P4 66 -0.254
87 P4 67 -1.719
87 P4 68 -2.696
87 P4 69 -4.161
87 P4 70 -5.137
87 P4 71 -5.625
87 P4 72 -5.625
87 P4 73 -5.137
87 P4 74 -4.161
87 P4 75 -2.696
87 P4 76 -1.231
87 P4 77 -0.254
87 P4 78 -0.743
87 P4 79 -1.719
87 P4 80 -2.696
87 P4 81 -2.696
87 P4 82 -1.719
87 P4 83 -0.254
87 P4 84 0.234
87 P4 85 0.234
87 P4 86 -0.254
87 P4 87 -0.743
87 P4 88 -0.254
87 P4 89 -0.743
87 P4 90 -1.231
87 P4 91 -2.207
87 P4 92 -3.184
87 P4 93 -3.184
87 P4 94 -2.696
87 P4 95 -1.719
87 P4 96 -1.719
87 P4 97 -2.696
87 P4 98 -3.672
87 P4 99 -4.161
87 P4 100 -4.161
87 P4 101 -4.161
87 P4 102 -4.649
87 P4 103 -5.137
87 P4 104 -5.625
87 P4 105 -4.649
87 P4 106 -3.672
87 P4 107 -3.184
87 P4 108 -3.184
87 P4 109 -4.649
87 P4 110 -6.114
87 P4 111 -6.602
87 P4 112 -6.602
87 P4 113 -5.625
87 P4 114 -4.161
87 P4 115 -3.184
87 P4 116 -2.696
87 P4 117 -1.231
87 P4 118 -0.743
87 P4 119 0.234
87 P4 120 -0.254
87 P4 121 -1.231
87 P4 122 -2.696
87 P4 123 -3.672
87 P4 124 -3.672
87 P4 125 -3.184
87 P4 126 -2.207
87 P4 127 -1.719
87 P4 128 -2.207
87 P4 129 -2.696
87 P4 130 -2.696
87 P4 131 -2.207
87 P4 132 -1.719
87 P4 133 -1.719
87 P4 134 -1.719
87 P4 135 -2.207
87 P4 136 -1.719
87 P4 137 -1.231
87 P4 138 -1.231
87 P4 139 -1.231
87 P4 140 -1.719
87 P4 141 -2.696
87 P4 142 -3.672
87 P4 143 -4.649
87 P4 144 -4.161
87 P4 145 -3.672
87 P4 146 -3.184
87 P4 147 -2.696
87 P4 148 -2.696
87 P4 149 -2.696
87 P4 150 -3.184
87 P4 151 -2.696
87 P4 152 -2.207
87 P4 153 -1.719
87 P4 154 -1.719
87 P4 155 -1.719
87 P4 156 -1.719
87 P4 157 -2.207
87 P4 158 -2.696
87 P4 159 -2.696
87 P4 160 -2.696
87 P4 161 -3.672
87 P4 162 -4.649
87 P4 163 -5.625
87 P4 164 -7.090
87 P4 165 -7.579
87 P4 166 -7.090
87 P4 167 -5.625
87 P4 168 -3.672
87 P4 169 -1.719
87 P4 170 -0.743
87 P4 171 -1.231
87 P4 172 -1.719
87 P4 173 -2.696
87 P4 174 -3.184
87 P4 175 -3.672
87 P4 176 -4.161
87 P4 177 -5.137
87 P4 178 -6.602
87 P4 179 -7.579
87 P4 180 -7.090
87 P4 181 -5.625
87 P4 182 -3.672
87 P4 183 -2.696
87 P4 184 -2.207
87 P4 185 -2.696
87 P4 186 -3.672
87 P4 187 -3.672
87 P4 188 -3.672
87 P4 189 -3.672
87 P4 190 -3.672
87 P4 191 -3.672
87 P4 192 -3.672
87 P4 193 -3.184
87 P4 194 -2.696
87 P4 195 -2.207
87 P4 196 -2.696
87 P4 197 -3.672
87 P4 198 -4.649
87 P4 199 -4.649
87 P4 200 -3.672
87 P4 201 -1.719
87 P4 202 -0.743
87 P4 203 -0.254
87 P4 204 -0.254
87 P4 205 -1.231
87 P4 206 -1.231
87 P4 207 -1.231
87 P4 208 -1.719
87 P4 209 -1.719
87 P4 210 -2.696
87 P4 211 -3.672
87 P4 212 -3.672
87 P4 213 -2.696
87 P4 214 -1.719
87 P4 215 -1.231
87 P4 216 -0.743
87 P4 217 -0.743
87 P4 218 -0.254
87 P4 219 -0.743
87 P4 220 -0.743
87 P4 221 -1.719
87 P4 222 -2.207
87 P4 223 -2.696
87 P4 224 -1.719
87 P4 225 -1.231
87 P4 226 0.234
87 P4 227 0.722
87 P4 228 0.234
87 P4 229 -0.254
87 P4 230 -0.743
87 P4 231 0.234
87 P4 232 1.211
87 P4 233 1.211
87 P4 234 0.722
87 P4 235 -0.743
87 P4 236 -2.207
87 P4 237 -2.696
87 P4 238 -3.184
87 P4 239 -2.696
87 P4 240 -3.184
87 P4 241 -3.672
87 P4 242 -3.672
87 P4 243 -3.672
87 P4 244 -2.696
87 P4 245 -1.231
87 P4 246 -0.743
87 P4 247 -0.743
87 P4 248 -1.231
87 P4 249 -1.719
87 P4 250 -1.231
87 P4 251 -0.743
87 P4 252 -0.743
87 P4 253 -1.719
87 P4 254 -2.696
87 P4 255 -3.672
# PZ chan 24
87 PZ 0 -1.668
87 PZ 1 -1.668
87 PZ 2 -1.668
87 PZ 3 -1.180
87 PZ 4 -0.203
87 PZ 5 0.285
87 PZ 6 0.773
87 PZ 7 0.285
87 PZ 8 -0.203
87 PZ 9 -0.692
87 PZ 10 -0.692
87 PZ 11 -0.692
87 PZ 12 -0.692
87 PZ 13 -1.668
87 PZ 14 -2.645
87 PZ 15 -3.133
87 PZ 16 -3.133
87 PZ 17 -2.645
87 PZ 18 -2.157
87 PZ 19 -1.180
87 PZ 20 -1.180
87 PZ 21 -0.692
87 PZ 22 -0.203
87 PZ 23 0.285
87 PZ 24 0.285
87 PZ 25 0.285
87 PZ 26 -0.692
87 PZ 27 -1.668
87 PZ 28 -2.157
87 PZ 29 -1.668
87 PZ 30 -1.668
87 PZ 31 -1.668
87 PZ 32 -1.668
87 PZ 33 -1.668
87 PZ 34 -2.157
87 PZ 35 -2.645
87 PZ 36 -2.645
87 PZ 37 -3.133
87 PZ 38 -3.621
87 PZ 39 -4.110
87 PZ 40 -4.598
87 PZ 41 -4.110
87 PZ 42 -2.645
87 PZ 43 -1.668
87 PZ 44 -1.180
87 PZ 45 -1.180
87 PZ 46 -1.668
87 PZ 47 -2.157
87 PZ 48 -2.157
87 PZ 49 -2.157
87 PZ 50 -2.645
87 PZ 51 -2.645
87 PZ 52 -3.621
87 PZ 53 -4.110
87 PZ 54 -4.110
87 PZ 55 -3.133
87 PZ 56 -2.645
87 PZ 57 -2.645
87 PZ 58 -2.157
87 PZ 59 -2.157
87 PZ 60 -1.668
87 PZ 61 -1.668
87 PZ 62 -1.668
87 PZ 63 -1.668
87 PZ 64 -1.668
87 PZ 65 -1.668
87 PZ 66 -1.668
87 PZ 67 -2.157
87 PZ 68 -3.133
87 PZ 69 -4.598
87 PZ 70 -5.575
87 PZ 71 -5.575
87 PZ 72 -5.575
87 PZ 73 -4.598
87 PZ 74 -4.110
87 PZ 75 -3.133
87 PZ 76 -2.645
87 PZ 77 -2.645
87 PZ 78 -2.157
87 PZ 79 -2.645
87 PZ 80 -2.645
87 PZ 81 -2.645
87 PZ 82 -2.645
87 PZ 83 -2.157
87 PZ 84 -1.668
87 PZ 85 -1.668
87 PZ 86 -1.668
87 PZ 87 -1.668
87 PZ 88 -1.668
87 PZ 89 -1.668
87 PZ 90 -1.668
87 PZ 91 -2.157
87 PZ 92 -2.645
87 PZ 93 -3.133
87 PZ 94 -3.621
87 PZ 95 -3.621
87 PZ 96 -3.621
87 PZ 97 -3.621
87 PZ 98 -3.621
87 PZ 99 -3.621
87 PZ 100 -3.133
87 PZ 101 -3.133
87 PZ 102 -3.621
87 PZ 103 -4.110
87 PZ 104 -4.110
87 PZ 105 -4.110
87 PZ 106 -3.133
87 PZ 107 -2.645
87 PZ 108 -3.133
87 PZ 109 -3.621
87 PZ 110 -4.598
87 PZ 111 -5.086
87 PZ 112 -5.086
87 PZ 113 -4.598
87 PZ 114 -3.621
87 PZ 115 -2.645
87 PZ 116 -1.668
87 PZ 117 -1.180
87 PZ 118 -1.180
87 PZ 119 -0.692
87 PZ 120 -1.180
87 PZ 121 -2.157
87 PZ 122 -3.133
87 PZ 123 -3.621
87 PZ 124 -3.133
87 PZ 125 -2.157
87 PZ 126 -1.180
87 PZ 127 -0.692
87 PZ 128 -1.180
87 PZ 129 -2.157
87 PZ 130 -2.645
87 PZ 131 -2.645
87 PZ 132 -2.157
87 PZ 133 -1.668
87 PZ 134 -1.180
87 PZ 135 -1.180
87 PZ 136 -1.180
87 PZ 137 -1.180
87 PZ 138 -0.692
87 PZ 139 -0.692
87 PZ 140 -0.692
87 PZ 141 -1.668
87 PZ 142 -2.645
87 PZ 143 -3.133
87 PZ 144 -3.621
87 PZ 145 -3.133
87 PZ 146 -2.645
87 PZ 147 -2.157
87 PZ 148 -2.157
87 PZ 149 -2.157
87 PZ 150 -2.157
87 PZ 151 -2.157
87 PZ 152 -2.157
87 PZ 153 -2.157
87 PZ 154 -1.668
87 PZ 155 -1.668
87 PZ 156 -2.157
87 PZ 157 -2.645
87 PZ 158 -2.645
87 PZ 159 -3.133
87 PZ 160 -3.133
87 PZ 161 -3.621
87 PZ 162 -3.621
87 PZ 163 -4.110
87 PZ 164 -4.110
87 PZ 165 -4.110
87 PZ 166 -3.621
87 PZ 167 -3.133
87 PZ 168 -2.157
87 PZ 169 -1.668
87 PZ 170 -1.668
87 PZ 171 -2.157
87 PZ 172 -2.645
87 PZ 173 -2.645
87 PZ 174 -2.645
87 PZ 175 -2.157
87 PZ 176 -2.157
87 PZ 177 -3.133
87 PZ 178 -4.110
87 PZ 179 -4.598
87 PZ 180 -4.598
87 PZ 181 -3.621
87 PZ 182 -2.645
87 PZ 183 -1.668
87 PZ 184 -1.668
87 PZ 185 -2.157
87 PZ 186 -3.133
87 PZ 187 -4.110
87 PZ 188 -4.110
87 PZ 189 -4.598
87 PZ 190 -4.110
87 PZ 191 -4.110
87 PZ 192 -3.621
87 PZ 193 -3.133
87 PZ 194 -2.645
87 PZ 195 -2.157
87 PZ 196 -2.157
87 PZ 197 -2.157
87 PZ 198 -2.645
87 PZ 199 -2.645
87 PZ 200 -2.157
87 PZ 201 -1.668
87 PZ 202 -0.692
87 PZ 203 -0.203
87 PZ 204 -1.180
87 PZ 205 -1.668
87 PZ 206 -2.645
87 PZ 207 -3.133
87 PZ 208 -2.645
87 PZ 209 -1.668
87 PZ 210 -1.180
87 PZ 211 -1.180
87 PZ 212 -1.180
87 PZ 213 -1.668
87 PZ 214 -1.668
87 PZ 215 -1.668
87 PZ 216 -1.180
87 PZ 217 -1.180
87 PZ 218 -0.692
87 PZ 219 -0.692
87 PZ 220 -1.180
87 PZ 221 -1.668
87 PZ 222 -2.157
87 PZ 223 -2.645
87 PZ 224 -2.645
87 PZ 225 -2.645
87 PZ 226 -2.157
87 PZ 227 -2.157
87 PZ 228 -2.645
87 PZ 229 -3.133
87 PZ 230 -3.133
87 PZ 231 -3.133
87 PZ 232 -2.645
87 PZ 233 -2.157
87 PZ 234 -2.157
87 PZ 235 -2.157
87 PZ 236 -2.645
87 PZ 237 -3.133
87 PZ 238 -3.133
87 PZ 239 -3.621
87 PZ 240 -3.621
87 PZ 241 -4.110
87 PZ 242 -3.621
87 PZ 243 -3.133
87 PZ 244 -2.645
87 PZ 245 -1.668
87 PZ 246 -1.668
87 PZ 247 -2.645
87 PZ 248 -3.133
87 PZ 249 -3.133
87 PZ 250 -3.133
87 PZ 251 -2.645
87 PZ 252 -2.157
87 PZ 253 -2.157
87 PZ 254 -2.645
87 PZ 255 -3.133
# P8 chan 25
87 P8 0 -1.577
87 P8 1 -3.042
87 P8 2 -3.530
87 P8 3 -3.042
87 P8 4 -0.112
87 P8 5 3.306
87 P8 6 5.747
87 P8 7 6.236
87 P8 8 4.771
87 P8 9 2.330
87 P8 10 -0.112
87 P8 11 -2.553
87 P8 12 -4.018
87 P8 13 -4.995
87 P8 14 -5.971
87 P8 15 -6.460
87 P8 16 -6.948
87 P8 17 -6.460
87 P8 18 -5.483
87 P8 19 -4.018
87 P8 20 -2.553
87 P8 21 -0.112
87 P8 22 1.841
87 P8 23 2.818
87 P8 24 3.306
87 P8 25 2.818
87 P8 26 1.841
87 P8 27 1.353
87 P8 28 1.353
87 P8 29 0.865
87 P8 30 0.865
87 P8 31 0.376
87 P8 32 -0.112
87 P8 33 0.376
87 P8 34 1.353
87 P8 35 2.330
87 P8 36 2.818
87 P8 37 1.353
87 P8 38 -0.600
87 P8 39 -3.042
87 P8 40 -4.018
87 P8 41 -3.042
87 P8 42 -0.600
87 P8 43 2.330
87 P8 44 4.283
87 P8 45 4.283
87 P8 46 3.794
87 P8 47 2.818
87 P8 48 1.841
87 P8 49 1.841
87 P8 50 2.330
87 P8 51 2.330
87 P8 52 2.330
87 P8 53 2.330
87 P8 54 2.818
87 P8 55 3.306
87 P8 56 3.794
87 P8 57 3.306
87 P8 58 1.841
87 P8 59 -0.112
87 P8 60 -1.088
87 P8 61 -1.577
87 P8 62 -0.112
87 P8 63 1.841
87 P8 64 3.306
87 P8 65 2.818
87 P8 66 1.353
87 P8 67 -1.577
87 P8 68 -4.506
87 P8 69 -5.971
87 P8 70 -6.948
87 P8 71 -6.948
87 P8 72 -6.948
87 P8 73 -6.948
87 P8 74 -5.483
87 P8 75 -2.553
87 P8 76 0.376
87 P8 77 1.841
87 P8 78 1.353
87 P8 79 -1.088
87 P8 80 -3.530
87 P8 81 -4.018
87 P8 82 -2.553
87 P8 83 -0.112
87 P8 84 0.865
87 P8 85 -0.112
87 P8 86 -1.577
87 P8 87 -2.553
87 P8 88 -1.577
87 P8 89 -1.088
87 P8 90 -0.600
87 P8 91 -1.577
87 P8 92 -2.065
87 P8 93 -1.577
87 P8 94 -0.112
87 P8 95 0.865
87 P8 96 0.376
87 P8 97 -2.065
87 P8 98 -4.506
87 P8 99 -5.483
87 P8 100 -4.995
87 P8 101 -4.018
87 P8 102 -4.506
87 P8 103 -5.971
87 P8 104 -7.436
87 P8 105 -7.436
87 P8 106 -5.483
87 P8 107 -3.042
87 P8 108 -2.553
87 P8 109 -4.506
87 P8 110 -7.436
87 P8 111 -9.878
87 P8 112 -9.389
87 P8 113 -7.924
87 P8 114 -5.971
87 P8 115 -4.506
87 P8 116 -3.530
87 P8 117 -2.553
87 P8 118 -0.600
87 P8 119 0.865
87 P8 120 1.841
87 P8 121 0.865
87 P8 122 -1.088
87 P8 123 -3.042
87 P8 124 -4.506
87 P8 125 -4.506
87 P8 126 -4.018
87 P8 127 -3.530
87 P8 128 -3.530
87 P8 129 -3.530
87 P8 130 -3.042
87 P8 131 -2.553
87 P8 132 -1.577
87 P8 133 -1.088
87 P8 134 -1.577
87 P8 135 -2.553
87 P8 136 -2.065
87 P8 137 -1.577
87 P8 138 -1.088
87 P8 139 -1.088
87 P8 140 -2.065
87 P8 141 -3.530
87 P8 142 -4.995
87 P8 143 -5.483
87 P8 144 -4.995
87 P8 145 -4.506
87 P8 146 -4.018
87 P8 147 -4.018
87 P8 148 -4.018
87 P8 149 -4.506
87 P8 150 -4.995
87 P8 151 -4.506
87 P8 152 -3.042
87 P8 153 -1.577
87 P8 154 -0.600
87 P8 155 -0.112
87 P8 156 -0.112
87 P8 157 -1.088
87 P8 158 -1.577
87 P8 159 -3.042
87 P8 160 -4.018
87 P8 161 -5.483
87 P8 162 -7.924
87 P8 163 -10.854
87 P8 164 -12.807
87 P8 165 -13.784
87 P8 166 -12.807
87 P8 167 -9.878
87 P8 168 -5.971
87 P8 169 -3.042
87 P8 170 -1.088
87 P8 171 -1.577
87 P8 172 -2.553
87 P8 173 -3.530
87 P8 174 -4.018
87 P8 175 -4.506
87 P8 176 -5.483
87 P8 177 -7.924
87 P8 178 -10.366
87 P8 179 -11.831
87 P8 180 -11.831
87 P8 181 -9.389
87 P8 182 -6.948
87 P8 183 -4.995
87 P8 184 -4.506
87 P8 185 -4.995
87 P8 186 -4.995
87 P8 187 -4.506
87 P8 188 -4.018
87 P8 189 -4.018
87 P8 190 -4.018
87 P8 191 -4.995
87 P8 192 -4.995
87 P8 193 -4.506
87 P8 194 -4.506
87 P8 195 -4.995
87 P8 196 -5.971
87 P8 197 -8.413
87 P8 198 -9.389
87 P8 199 -8.901
87 P8 200 -5.971
87 P8 201 -2.553
87 P8 202 -0.600
87 P8 203 -0.600
87 P8 204 -2.553
87 P8 205 -4.506
87 P8 206 -4.506
87 P8 207 -3.042
87 P8 208 -1.088
87 P8 209 -1.088
87 P8 210 -3.042
87 P8 211 -5.483
87 P8 212 -6.460
87 P8 213 -5.483
87 P8 214 -3.530
87 P8 215 -1.088
87 P8 216 -0.112
87 P8 217 -0.112
87 P8 218 -1.088
87 P8 219 -2.065
87 P8 220 -3.042
87 P8 221 -4.506
87 P8 222 -5.483
87 P8 223 -5.971
87 P8 224 -4.995
87 P8 225 -3.042
87 P8 226 -1.088
87 P8 227 -0.112
87 P8 228 -0.112
87 P8 229 -1.088
87 P8 230 -1.088
87 P8 231 -0.600
87 P8 232 0.865
87 P8 233 2.330
87 P8 234 1.841
87 P8 235 -0.112
87 P8 236 -2.553
87 P8 237 -4.018
87 P8 238 -4.018
87 P8 239 -4.018
87 P8 240 -4.506
87 P8 241 -5.483
87 P8 242 -6.948
87 P8 243 -7.924
87 P8 244 -7.436
87 P8 245 -5.971
87 P8 246 -4.995
87 P8 247 -4.995
87 P8 248 -4.995
87 P8 249 -4.995
87 P8 250 -4.506
87 P8 251 -3.042
87 P8 252 -2.553
87 P8 253 -2.553
87 P8 254 -3.530
87 P8 255 -4.995
# P7 chan 26
87 P7 0 -2.309
87 P7 1 -0.356
87 P7 2 1.597
87 P7 3 3.550
87 P7 4 4.038
87 P7 5 4.038
87 P7 6 3.062
87 P7 7 2.085
87 P7 8 0.621
87 P7 9 -0.356
87 P7 10 -0.356
87 P7 11 -0.356
87 P7 12 0.132
87 P7 13 -0.356
87 P7 14 -0.356
87 P7 15 -0.844
87 P7 16 -0.356
87 P7 17 0.132
87 P7 18 0.621
87 P7 19 1.109
87 P7 20 0.621
87 P7 21 0.132
87 P7 22 -0.844
87 P7 23 -0.844
87 P7 24 0.132
87 P7 25 0.132
87 P7 26 0.621
87 P7 27 0.132
87 P7 28 -0.356
87 P7 29 -0.356
87 P7 30 0.621
87 P7 31 1.597
87 P7 32 1.597
87 P7 33 1.109
87 P7 34 -0.356
87 P7 35 -1.821
87 P7 36 -2.309
87 P7 37 -1.821
87 P7 38 -0.356
87 P7 39 1.597
87 P7 40 3.550
87 P7 41 4.527
87 P7 42 4.527
87 P7 43 3.062
87 P7 44 1.597
87 P7 45 -0.356
87 P7 46 -1.821
87 P7 47 -3.286
87 P7 48 -4.751
87 P7 49 -5.727
87 P7 50 -7.192
87 P7 51 -7.680
87 P7 52 -8.169
87 P7 53 -8.169
87 P7 54 -8.169
87 P7 55 -7.680
87 P7 56 -7.680
87 P7 57 -7.680
87 P7 58 -7.192
87 P7 59 -6.215
87 P7 60 -5.239
87 P7 61 -4.262
87 P7 62 -4.262
87 P7 63 -4.751
87 P7 64 -5.727
87 P7 65 -7.192
87 P7 66 -8.169
87 P7 67 -10.610
87 P7 68 -12.563
87 P7 69 -14.028
87 P7 70 -14.516
87 P7 71 -13.540
87 P7 72 -11.587
87 P7 73 -10.122
87 P7 74 -10.122
87 P7 75 -10.610
87 P7 76 -10.122
87 P7 77 -8.657
87 P7 78 -6.215
87 P7 79 -3.774
87 P7 80 -3.774
87 P7 81 -5.727
87 P7 82 -8.169
87 P7 83 -8.657
87 P7 84 -7.192
87 P7 85 -4.751
87 P7 86 -3.774
87 P7 87 -4.751
87 P7 88 -7.192
87 P7 89 -10.122
87 P7 90 -10.610
87 P7 91 -9.633
87 P7 92 -7.192
87 P7 93 -5.239
87 P7 94 -5.239
87 P7 95 -6.215
87 P7 96 -7.680
87 P7 97 -8.657
87 P7 98 -8.657
87 P7 99 -7.192
87 P7 100 -5.727
87 P7 101 -4.262
87 P7 102 -4.262
87 P7 103 -5.727
87 P7 104 -7.680
87 P7 105 -9.145
87 P7 106 -10.122
87 P7 107 -9.633
87 P7 108 -9.633
87 P7 109 -9.145
87 P7 110 -10.122
87 P7 111 -10.610
87 P7 112 -11.587
87 P7 113 -11.587
87 P7 114 -10.610
87 P7 115 -8.657
87 P7 116 -6.215
87 P7 117 -3.774
87 P7 118 -2.309
87 P7 119 -2.309
87 P7 120 -3.774
87 P7 121 -6.215
87 P7 122 -8.169
87 P7 123 -8.657
87 P7 124 -7.192
87 P7 125 -4.751
87 P7 126 -3.774
87 P7 127 -4.262
87 P7 128 -6.215
87 P7 129 -8.657
87 P7 130 -9.633
87 P7 131 -9.145
87 P7 132 -7.680
87 P7 133 -5.727
87 P7 134 -4.262
87 P7 135 -3.774
87 P7 136 -3.774
87 P7 137 -4.751
87 P7 138 -6.215
87 P7 139 -8.169
87 P7 140 -10.122
87 P7 141 -11.098
87 P7 142 -11.098
87 P7 143 -10.610
87 P7 144 -10.122
87 P7 145 -9.145
87 P7 146 -7.680
87 P7 147 -7.680
87 P7 148 -7.680
87 P7 149 -7.680
87 P7 150 -8.169
87 P7 151 -8.169
87 P7 152 -7.192
87 P7 153 -5.727
87 P7 154 -4.751
87 P7 155 -5.239
87 P7 156 -7.192
87 P7 157 -8.657
87 P7 158 -9.633
87 P7 159 -9.145
87 P7 160 -8.169
87 P7 161 -8.169
87 P7 162 -7.680
87 P7 163 -7.680
87 P7 164 -6.215
87 P7 165 -3.774
87 P7 166 -1.333
87 P7 167 -0.844
87 P7 168 -3.774
87 P7 169 -8.657
87 P7 170 -12.563
87 P7 171 -14.516
87 P7 172 -13.051
87 P7 173 -9.633
87 P7 174 -6.215
87 P7 175 -3.774
87 P7 176 -3.286
87 P7 177 -2.797
87 P7 178 -2.309
87 P7 179 -2.309
87 P7 180 -3.286
87 P7 181 -5.239
87 P7 182 -8.169
87 P7 183 -10.610
87 P7 184 -11.587
87 P7 185 -12.563
87 P7 186 -12.563
87 P7 187 -13.051
87 P7 188 -13.051
87 P7 189 -12.563
87 P7 190 -12.563
87 P7 191 -12.075
87 P7 192 -12.075
87 P7 193 -11.587
87 P7 194 -10.610
87 P7 195 -10.122
87 P7 196 -9.145
87 P7 197 -9.633
87 P7 198 -10.610
87 P7 199 -11.098
87 P7 200 -10.610
87 P7 201 -8.657
87 P7 202 -7.192
87 P7 203 -7.680
87 P7 204 -11.098
87 P7 205 -15.493
87 P7 206 -17.446
87 P7 207 -14.516
87 P7 208 -7.680
87 P7 209 -0.356
87 P7 210 3.550
87 P7 211 1.597
87 P7 212 -3.286
87 P7 213 -8.657
87 P7 214 -10.610
87 P7 215 -8.169
87 P7 216 -3.774
87 P7 217 -0.356
87 P7 218 0.132
87 P7 219 -1.333
87 P7 220 -3.774
87 P7 221 -5.727
87 P7 222 -7.680
87 P7 223 -8.657
87 P7 224 -9.633
87 P7 225 -10.610
87 P7 226 -10.610
87 P7 227 -10.122
87 P7 228 -9.633
87 P7 229 -9.633
87 P7 230 -9.633
87 P7 231 -10.122
87 P7 232 -10.122
87 P7 233 -8.657
87 P7 234 -7.192
87 P7 235 -4.751
87 P7 236 -3.286
87 P7 237 -3.286
87 P7 238 -4.751
87 P7 239 -7.192
87 P7 240 -8.657
87 P7 241 -9.633
87 P7 242 -8.657
87 P7 243 -6.704
87 P7 244 -4.751
87 P7 245 -3.774
87 P7 246 -4.751
87 P7 247 -7.680
87 P7 248 -10.122
87 P7 249 -11.587
87 P7 250 -11.587
87 P7 251 -10.610
87 P7 252 -10.122
87 P7 253 -9.633
87 P7 254 -9.633
87 P7 255 -10.122
# PO2 chan 27
87 PO2 0 -1.658
87 PO2 1 -2.146
87 PO2 2 -2.146
87 PO2 3 -0.682
87 PO2 4 1.272
87 PO2 5 3.713
87 PO2 6 4.690
87 PO2 7 4.201
87 PO2 8 2.248
87 PO2 9 0.295
87 PO2 10 -0.193
87 PO2 11 -0.193
87 PO2 12 -0.193
87 PO2 13 -1.170
87 PO2 14 -3.123
87 PO2 15 -4.588
87 PO2 16 -5.076
87 PO2 17 -4.100
87 PO2 18 -2.635
87 PO2 19 -1.170
87 PO2 20 -0.193
87 PO2 21 0.295
87 PO2 22 1.760
87 PO2 23 3.225
87 PO2 24 4.201
87 PO2 25 4.201
87 PO2 26 3.225
87 PO2 27 1.272
87 PO2 28 -0.193
87 PO2 29 -0.682
87 PO2 30 -0.682
87 PO2 31 -0.193
87 PO2 32 -0.682
87 PO2 33 -0.682
87 PO2 34 -1.170
87 PO2 35 -1.170
87 PO2 36 -0.682
87 PO2 37 -1.658
87 PO2 38 -2.635
87 PO2 39 -4.100
87 PO2 40 -4.588
87 PO2 41 -3.611
87 PO2 42 -1.658
87 PO2 43 0.783
87 PO2 44 1.760
87 PO2 45 1.760
87 PO2 46 0.783
87 PO2 47 -0.193
87 PO2 48 -0.193
87 PO2 49 0.295
87 PO2 50 0.295
87 PO2 51 -0.682
87 PO2 52 -1.170
87 PO2 53 -1.658
87 PO2 54 -1.170
87 PO2 55 -0.193
87 PO2 56 0.295
87 PO2 57 0.783
87 PO2 58 0.783
87 PO2 59 -0.193
87 PO2 60 -1.170
87 PO2 61 -1.658
87 PO2 62 -1.658
87 PO2 63 -1.170
87 PO2 64 -1.170
87 PO2 65 -1.170
87 PO2 66 -1.658
87 PO2 67 -3.611
87 PO2 68 -5.076
87 PO2 69 -7.029
87 PO2 70 -8.006
87 PO2 71 -8.982
87 PO2 72 -8.494
87 PO2 73 -8.006
87 PO2 74 -6.541
87 PO2 75 -4.100
87 PO2 76 -2.635
87 PO2 77 -1.658
87 PO2 78 -1.658
87 PO2 79 -2.146
87 PO2 80 -3.123
87 PO2 81 -3.611
87 PO2 82 -2.635
87 PO2 83 -2.146
87 PO2 84 -1.658
87 PO2 85 -1.170
87 PO2 86 -1.170
87 PO2 87 -0.682
87 PO2 88 -0.682
87 PO2 89 -0.682
87 PO2 90 -1.170
87 PO2 91 -2.635
87 PO2 92 -4.100
87 PO2 93 -4.588
87 PO2 94 -4.100
87 PO2 95 -3.611
87 PO2 96 -2.635
87 PO2 97 -2.635
87 PO2 98 -3.611
87 PO2 99 -4.100
87 PO2 100 -4.100
87 PO2 101 -4.588
87 PO2 102 -4.588
87 PO2 103 -4.588
87 PO2 104 -5.076
87 PO2 105 -4.588
87 PO2 106 -4.100
87 PO2 107 -3.611
87 PO2 108 -3.611
87 PO2 109 -5.076
87 PO2 110 -7.029
87 PO2 111 -8.494
87 PO2 112 -8.494
87 PO2 113 -7.029
87 PO2 114 -5.076
87 PO2 115 -3.611
87 PO2 116 -2.635
87 PO2 117 -1.658
87 PO2 118 -1.170
87 PO2 119 -0.682
87 PO2 120 -0.682
87 PO2 121 -2.146
87 PO2 122 -3.611
87 PO2 123 -4.588
87 PO2 124 -4.588
87 PO2 125 -3.611
87 PO2 126 -2.146
87 PO2 127 -1.658
87 PO2 128 -2.146
87 PO2 129 -3.611
87 PO2 130 -4.100
87 PO2 131 -3.611
87 PO2 132 -2.635
87 PO2 133 -1.658
87 PO2 134 -1.170
87 PO2 135 -1.658
87 PO2 136 -2.146
87 PO2 137 -1.658
87 PO2 138 -1.170
87 PO2 139 -1.170
87 PO2 140 -1.170
87 PO2 141 -2.146
87 PO2 142 -3.611
87 PO2 143 -4.588
87 PO2 144 -4.588
87 PO2 145 -4.100
87 PO2 146 -3.611
87 PO2 147 -2.635
87 PO2 148 -2.635
87 PO2 149 -3.123
87 PO2 150 -3.611
87 PO2 151 -4.588
87 PO2 152 -4.588
87 PO2 153 -4.100
87 PO2 154 -3.123
87 PO2 155 -2.635
87 PO2 156 -2.635
87 PO2 157 -3.123
87 PO2 158 -4.100
87 PO2 159 -5.076
87 PO2 160 -5.564
87 PO2 161 -5.564
87 PO2 162 -5.564
87 PO2 163 -6.541
87 PO2 164 -7.517
87 PO2 165 -8.006
87 PO2 166 -7.517
87 PO2 167 -5.564
87 PO2 168 -3.611
87 PO2 169 -2.146
87 PO2 170 -2.146
87 PO2 171 -3.123
87 PO2 172 -3.611
87 PO2 173 -4.100
87 PO2 174 -3.611
87 PO2 175 -3.611
87 PO2 176 -4.588
87 PO2 177 -6.541
87 PO2 178 -8.982
87 PO2 179 -10.447
87 PO2 180 -9.471
87 PO2 181 -7.517
87 PO2 182 -5.564
87 PO2 183 -3.611
87 PO2 184 -3.611
87 PO2 185 -4.588
87 PO2 186 -5.564
87 PO2 187 -6.541
87 PO2 188 -6.541
87 PO2 189 -6.541
87 PO2 190 -6.053
87 PO2 191 -6.053
87 PO2 192 -6.053
87 PO2 193 -5.564
87 PO2 194 -5.076
87 PO2 195 -4.588
87 PO2 196 -4.588
87 PO2 197 -5.564
87 PO2 198 -6.053
87 PO2 199 -6.053
87 PO2 200 -5.076
87 PO2 201 -3.123
87 PO2 202 -0.682
87 PO2 203 0.295
87 PO2 204 -0.193
87 PO2 205 -1.170
