# co2c0000364.rd
# 120 trials, 64 chans, 416 samples 368 post_stim samples
# 3.906000 msecs uV
# S1 obj , trial 48
# FP1 chan 0
48 FP1 0 -4.364
48 FP1 1 -6.805
48 FP1 2 -6.805
48 FP1 3 -5.341
48 FP1 4 -3.387
48 FP1 5 -1.923
48 FP1 6 -0.946
48 FP1 7 -0.946
48 FP1 8 -1.923
48 FP1 9 -2.899
48 FP1 10 -3.876
48 FP1 11 -3.387
48 FP1 12 -1.923
48 FP1 13 1.984
48 FP1 14 5.890
48 FP1 15 10.284
48 FP1 16 13.214
48 FP1 17 13.214
48 FP1 18 11.749
48 FP1 19 7.843
48 FP1 20 3.448
48 FP1 21 -0.458
48 FP1 22 -3.876
48 FP1 23 -5.829
48 FP1 24 -6.317
48 FP1 25 -6.317
48 FP1 26 -6.317
48 FP1 27 -7.294
48 FP1 28 -9.247
48 FP1 29 -12.177
48 FP1 30 -13.641
48 FP1 31 -14.130
48 FP1 32 -12.665
48 FP1 33 -10.712
48 FP1 34 -10.223
48 FP1 35 -10.712
48 FP1 36 -11.200
48 FP1 37 -9.735
48 FP1 38 -5.341
48 FP1 39 0.031
48 FP1 40 4.913
48 FP1 41 6.378
48 FP1 42 3.937
48 FP1 43 -0.946
48 FP1 44 -5.829
48 FP1 45 -9.735
48 FP1 46 -10.223
48 FP1 47 -8.759
48 FP1 48 -6.317
48 FP1 49 -4.364
48 FP1 50 -3.876
48 FP1 51 -5.341
48 FP1 52 -6.805
48 FP1 53 -6.805
48 FP1 54 -5.829
48 FP1 55 -3.876
48 FP1 56 -2.411
48 FP1 57 -1.434
48 FP1 58 -0.946
48 FP1 59 0.031
48 FP1 60 1.007
48 FP1 61 1.495
48 FP1 62 1.007
48 FP1 63 -0.458
48 FP1 64 -1.434
48 FP1 65 -0.458
48 FP1 66 1.495
48 FP1 67 3.937
48 FP1 68 4.913
48 FP1 69 3.937
48 FP1 70 1.495
48 FP1 71 -0.458
48 FP1 72 -0.946
48 FP1 73 0.031
48 FP1 74 1.495
48 FP1 75 3.448
48 FP1 76 5.402
48 FP1 77 7.355
48 FP1 78 8.331
48 FP1 79 7.843
48 FP1 80 6.378
48 FP1 81 4.425
48 FP1 82 3.937
48 FP1 83 6.378
48 FP1 84 9.308
48 FP1 85 12.238
48 FP1 86 13.214
48 FP1 87 11.749
48 FP1 88 9.308
48 FP1 89 6.866
48 FP1 90 6.378
48 FP1 91 6.866
48 FP1 92 8.331
48 FP1 93 9.796
48 FP1 94 10.284
48 FP1 95 8.820
48 FP1 96 5.890
48 FP1 97 2.472
48 FP1 98 0.031
48 FP1 99 0.031
48 FP1 100 1.984
48 FP1 101 4.425
48 FP1 102 5.890
48 FP1 103 5.890
48 FP1 104 4.913
48 FP1 105 4.425
48 FP1 106 5.402
48 FP1 107 6.866
48 FP1 108 7.355
48 FP1 109 5.890
48 FP1 110 2.960
48 FP1 111 0.519
48 FP1 112 0.519
48 FP1 113 2.960
48 FP1 114 6.378
48 FP1 115 8.820
48 FP1 116 8.820
48 FP1 117 5.890
48 FP1 118 2.960
48 FP1 119 1.495
48 FP1 120 2.472
48 FP1 121 5.402
48 FP1 122 8.331
48 FP1 123 10.773
48 FP1 124 10.773
48 FP1 125 9.796
48 FP1 126 8.820
48 FP1 127 7.843
48 FP1 128 8.331
48 FP1 129 10.284
48 FP1 130 12.726
48 FP1 131 15.656
48 FP1 132 17.609
48 FP1 133 18.097
48 FP1 134 16.632
48 FP1 135 14.679
48 FP1 136 13.702
48 FP1 137 14.191
48 FP1 138 14.679
48 FP1 139 14.679
48 FP1 140 12.238
48 FP1 141 8.820
48 FP1 142 5.402
48 FP1 143 5.890
48 FP1 144 9.308
48 FP1 145 14.679
48 FP1 146 17.609
48 FP1 147 17.120
48 FP1 148 13.702
48 FP1 149 9.796
48 FP1 150 8.331
48 FP1 151 9.308
48 FP1 152 12.238
48 FP1 153 16.144
48 FP1 154 19.073
48 FP1 155 21.027
48 FP1 156 22.003
48 FP1 157 20.538
48 FP1 158 16.632
48 FP1 159 11.261
48 FP1 160 7.355
48 FP1 161 4.913
48 FP1 162 4.913
48 FP1 163 6.378
48 FP1 164 7.843
48 FP1 165 8.331
48 FP1 166 8.820
48 FP1 167 9.796
48 FP1 168 11.261
48 FP1 169 12.726
48 FP1 170 14.191
48 FP1 171 16.144
48 FP1 172 17.609
48 FP1 173 19.073
48 FP1 174 18.097
48 FP1 175 15.656
48 FP1 176 13.214
48 FP1 177 13.214
48 FP1 178 16.144
48 FP1 179 21.515
48 FP1 180 25.421
48 FP1 181 26.886
48 FP1 182 24.933
48 FP1 183 22.003
48 FP1 184 19.562
48 FP1 185 19.562
48 FP1 186 20.538
48 FP1 187 21.027
48 FP1 188 20.050
48 FP1 189 17.609
48 FP1 190 14.679
48 FP1 191 12.238
48 FP1 192 10.773
48 FP1 193 10.773
48 FP1 194 10.284
48 FP1 195 9.308
48 FP1 196 8.820
48 FP1 197 8.331
48 FP1 198 9.796
48 FP1 199 12.238
48 FP1 200 15.656
48 FP1 201 18.097
48 FP1 202 18.097
48 FP1 203 16.144
48 FP1 204 13.214
48 FP1 205 12.238
48 FP1 206 13.214
48 FP1 207 15.656
48 FP1 208 18.097
48 FP1 209 18.585
48 FP1 210 17.609
48 FP1 211 16.144
48 FP1 212 14.191
48 FP1 213 11.749
48 FP1 214 9.796
48 FP1 215 7.843
48 FP1 216 7.355
48 FP1 217 8.820
48 FP1 218 10.773
48 FP1 219 11.261
48 FP1 220 9.308
48 FP1 221 4.913
48 FP1 222 0.519
48 FP1 223 -2.411
48 FP1 224 -1.923
48 FP1 225 0.519
48 FP1 226 3.937
48 FP1 227 6.866
48 FP1 228 8.820
48 FP1 229 9.308
48 FP1 230 7.843
48 FP1 231 6.378
48 FP1 232 4.913
48 FP1 233 4.913
48 FP1 234 5.890
48 FP1 235 8.820
48 FP1 236 10.773
48 FP1 237 11.749
48 FP1 238 10.773
48 FP1 239 8.820
48 FP1 240 5.402
48 FP1 241 1.495
48 FP1 242 -0.946
48 FP1 243 -1.434
48 FP1 244 0.519
48 FP1 245 5.402
48 FP1 246 10.773
48 FP1 247 14.191
48 FP1 248 14.679
48 FP1 249 12.726
48 FP1 250 9.796
48 FP1 251 6.866
48 FP1 252 4.913
48 FP1 253 2.960
48 FP1 254 1.984
48 FP1 255 1.984
# FP2 chan 1
48 FP2 0 -0.498
48 FP2 1 -2.452
48 FP2 2 -4.405
48 FP2 3 -6.358
48 FP2 4 -6.358
48 FP2 5 -4.893
48 FP2 6 -2.452
48 FP2 7 0.478
48 FP2 8 2.431
48 FP2 9 3.408
48 FP2 10 2.920
48 FP2 11 3.408
48 FP2 12 4.384
48 FP2 13 6.826
48 FP2 14 10.732
48 FP2 15 15.127
48 FP2 16 17.080
48 FP2 17 17.568
48 FP2 18 15.127
48 FP2 19 10.732
48 FP2 20 5.361
48 FP2 21 0.478
48 FP2 22 -2.452
48 FP2 23 -3.916
48 FP2 24 -4.893
48 FP2 25 -6.846
48 FP2 26 -8.799
48 FP2 27 -10.264
48 FP2 28 -10.752
48 FP2 29 -9.776
48 FP2 30 -9.288
48 FP2 31 -10.264
48 FP2 32 -12.705
48 FP2 33 -15.635
48 FP2 34 -16.123
48 FP2 35 -13.194
48 FP2 36 -8.311
48 FP2 37 -3.428
48 FP2 38 -0.010
48 FP2 39 0.966
48 FP2 40 0.966
48 FP2 41 0.966
48 FP2 42 0.966
48 FP2 43 0.966
48 FP2 44 -0.498
48 FP2 45 -2.940
48 FP2 46 -5.870
48 FP2 47 -7.823
48 FP2 48 -8.311
48 FP2 49 -7.334
48 FP2 50 -5.870
48 FP2 51 -3.916
48 FP2 52 -2.452
48 FP2 53 -1.963
48 FP2 54 -1.963
48 FP2 55 -2.452
48 FP2 56 -2.940
48 FP2 57 -2.940
48 FP2 58 -1.963
48 FP2 59 0.966
48 FP2 60 3.896
48 FP2 61 5.361
48 FP2 62 5.361
48 FP2 63 3.408
48 FP2 64 1.455
48 FP2 65 0.478
48 FP2 66 0.966
48 FP2 67 1.455
48 FP2 68 1.455
48 FP2 69 0.478
48 FP2 70 -0.987
48 FP2 71 -2.452
48 FP2 72 -2.452
48 FP2 73 -2.452
48 FP2 74 -1.963
48 FP2 75 -1.475
48 FP2 76 -0.010
48 FP2 77 1.943
48 FP2 78 4.384
48 FP2 79 5.849
48 FP2 80 4.873
48 FP2 81 2.431
48 FP2 82 0.966
48 FP2 83 0.966
48 FP2 84 3.408
48 FP2 85 6.826
48 FP2 86 9.267
48 FP2 87 9.267
48 FP2 88 8.291
48 FP2 89 7.314
48 FP2 90 7.314
48 FP2 91 6.826
48 FP2 92 6.337
48 FP2 93 4.384
48 FP2 94 2.431
48 FP2 95 0.478
48 FP2 96 -0.010
48 FP2 97 -0.010
48 FP2 98 -0.010
48 FP2 99 -0.498
48 FP2 100 -1.963
48 FP2 101 -3.428
48 FP2 102 -4.405
48 FP2 103 -4.893
48 FP2 104 -3.916
48 FP2 105 -1.963
48 FP2 106 -0.010
48 FP2 107 1.455
48 FP2 108 1.943
48 FP2 109 1.455
48 FP2 110 -0.010
48 FP2 111 -0.987
48 FP2 112 -0.498
48 FP2 113 0.966
48 FP2 114 3.408
48 FP2 115 5.361
48 FP2 116 5.361
48 FP2 117 3.896
48 FP2 118 1.455
48 FP2 119 -0.010
48 FP2 120 -0.010
48 FP2 121 1.943
48 FP2 122 3.896
48 FP2 123 5.849
48 FP2 124 6.826
48 FP2 125 6.826
48 FP2 126 7.314
48 FP2 127 8.291
48 FP2 128 9.755
48 FP2 129 12.197
48 FP2 130 15.127
48 FP2 131 17.568
48 FP2 132 19.521
48 FP2 133 19.521
48 FP2 134 17.080
48 FP2 135 14.150
48 FP2 136 11.220
48 FP2 137 9.755
48 FP2 138 10.732
48 FP2 139 11.709
48 FP2 140 12.197
48 FP2 141 11.220
48 FP2 142 9.755
48 FP2 143 7.802
48 FP2 144 7.314
48 FP2 145 7.314
48 FP2 146 8.291
48 FP2 147 9.267
48 FP2 148 9.755
48 FP2 149 10.732
48 FP2 150 11.220
48 FP2 151 12.197
48 FP2 152 12.685
48 FP2 153 13.173
48 FP2 154 13.662
48 FP2 155 14.638
48 FP2 156 16.103
48 FP2 157 17.080
48 FP2 158 17.080
48 FP2 159 15.127
48 FP2 160 12.197
48 FP2 161 7.802
48 FP2 162 3.896
48 FP2 163 1.455
48 FP2 164 1.943
48 FP2 165 4.873
48 FP2 166 8.779
48 FP2 167 12.197
48 FP2 168 13.173
48 FP2 169 11.709
48 FP2 170 9.267
48 FP2 171 8.291
48 FP2 172 9.755
48 FP2 173 12.197
48 FP2 174 14.638
48 FP2 175 15.127
48 FP2 176 13.662
48 FP2 177 12.685
48 FP2 178 13.173
48 FP2 179 15.615
48 FP2 180 18.056
48 FP2 181 20.498
48 FP2 182 21.474
48 FP2 183 21.474
48 FP2 184 20.986
48 FP2 185 19.521
48 FP2 186 17.080
48 FP2 187 14.150
48 FP2 188 11.709
48 FP2 189 11.220
48 FP2 190 11.220
48 FP2 191 12.197
48 FP2 192 11.220
48 FP2 193 8.291
48 FP2 194 3.896
48 FP2 195 0.478
48 FP2 196 -0.010
48 FP2 197 1.455
48 FP2 198 4.873
48 FP2 199 8.291
48 FP2 200 10.732
48 FP2 201 11.709
48 FP2 202 12.685
48 FP2 203 12.197
48 FP2 204 12.197
48 FP2 205 12.685
48 FP2 206 12.685
48 FP2 207 13.173
48 FP2 208 13.173
48 FP2 209 12.685
48 FP2 210 11.709
48 FP2 211 10.244
48 FP2 212 9.267
48 FP2 213 8.779
48 FP2 214 8.779
48 FP2 215 8.779
48 FP2 216 7.314
48 FP2 217 5.849
48 FP2 218 3.408
48 FP2 219 1.943
48 FP2 220 0.966
48 FP2 221 0.478
48 FP2 222 -0.010
48 FP2 223 -0.498
48 FP2 224 -0.010
48 FP2 225 0.966
48 FP2 226 2.920
48 FP2 227 3.896
48 FP2 228 3.896
48 FP2 229 2.920
48 FP2 230 1.943
48 FP2 231 1.943
48 FP2 232 3.408
48 FP2 233 4.873
48 FP2 234 4.873
48 FP2 235 4.384
48 FP2 236 3.408
48 FP2 237 3.408
48 FP2 238 3.896
48 FP2 239 2.431
48 FP2 240 -0.498
48 FP2 241 -4.405
48 FP2 242 -6.846
48 FP2 243 -5.381
48 FP2 244 -0.498
48 FP2 245 6.337
48 FP2 246 11.220
48 FP2 247 11.709
48 FP2 248 9.267
48 FP2 249 6.826
48 FP2 250 6.337
48 FP2 251 6.826
48 FP2 252 6.826
48 FP2 253 4.873
48 FP2 254 1.455
48 FP2 255 -1.475
# F7 chan 2
48 F7 0 -3.377
48 F7 1 -5.330
48 F7 2 -6.307
48 F7 3 -5.330
48 F7 4 -4.354
48 F7 5 -3.377
48 F7 6 -2.889
48 F7 7 -2.889
48 F7 8 -3.377
48 F7 9 -4.842
48 F7 10 -6.307
48 F7 11 -7.284
48 F7 12 -6.307
48 F7 13 -3.866
48 F7 14 -0.448
48 F7 15 2.482
48 F7 16 4.435
48 F7 17 5.412
48 F7 18 4.435
48 F7 19 1.994
48 F7 20 -1.424
48 F7 21 -5.330
48 F7 22 -8.748
48 F7 23 -9.725
48 F7 24 -8.748
48 F7 25 -7.284
48 F7 26 -6.307
48 F7 27 -6.795
48 F7 28 -8.748
48 F7 29 -11.190
48 F7 30 -12.655
48 F7 31 -13.143
48 F7 32 -13.631
48 F7 33 -14.119
48 F7 34 -14.608
48 F7 35 -14.608
48 F7 36 -13.143
48 F7 37 -9.237
48 F7 38 -3.866
48 F7 39 0.529
48 F7 40 2.482
48 F7 41 1.506
48 F7 42 -1.912
48 F7 43 -5.330
48 F7 44 -8.260
48 F7 45 -9.725
48 F7 46 -10.701
48 F7 47 -10.701
48 F7 48 -10.701
48 F7 49 -9.725
48 F7 50 -7.772
48 F7 51 -5.819
48 F7 52 -4.842
48 F7 53 -4.354
48 F7 54 -4.354
48 F7 55 -4.842
48 F7 56 -4.354
48 F7 57 -3.377
48 F7 58 -2.889
48 F7 59 -2.401
48 F7 60 -2.401
48 F7 61 -2.401
48 F7 62 -2.889
48 F7 63 -2.401
48 F7 64 -2.401
48 F7 65 -1.912
48 F7 66 -0.936
48 F7 67 0.041
48 F7 68 0.529
48 F7 69 0.041
48 F7 70 -0.448
48 F7 71 -0.936
48 F7 72 -0.936
48 F7 73 0.041
48 F7 74 1.017
48 F7 75 2.482
48 F7 76 3.947
48 F7 77 4.435
48 F7 78 4.924
48 F7 79 5.412
48 F7 80 5.900
48 F7 81 6.877
48 F7 82 7.365
48 F7 83 8.830
48 F7 84 10.295
48 F7 85 11.271
48 F7 86 11.759
48 F7 87 10.783
48 F7 88 9.318
48 F7 89 7.365
48 F7 90 5.900
48 F7 91 5.900
48 F7 92 6.877
48 F7 93 8.830
48 F7 94 10.295
48 F7 95 10.295
48 F7 96 8.830
48 F7 97 6.877
48 F7 98 5.412
48 F7 99 4.924
48 F7 100 4.924
48 F7 101 5.412
48 F7 102 5.900
48 F7 103 5.900
48 F7 104 5.412
48 F7 105 5.900
48 F7 106 6.388
48 F7 107 6.877
48 F7 108 6.877
48 F7 109 5.412
48 F7 110 3.947
48 F7 111 2.970
48 F7 112 2.970
48 F7 113 3.947
48 F7 114 4.435
48 F7 115 3.947
48 F7 116 2.482
48 F7 117 1.506
48 F7 118 1.994
48 F7 119 3.459
48 F7 120 6.388
48 F7 121 8.341
48 F7 122 8.341
48 F7 123 7.853
48 F7 124 6.388
48 F7 125 5.900
48 F7 126 6.388
48 F7 127 6.877
48 F7 128 7.365
48 F7 129 8.341
48 F7 130 9.318
48 F7 131 11.271
48 F7 132 13.224
48 F7 133 14.201
48 F7 134 13.713
48 F7 135 12.248
48 F7 136 10.783
48 F7 137 9.806
48 F7 138 8.830
48 F7 139 7.853
48 F7 140 5.900
48 F7 141 4.435
48 F7 142 3.947
48 F7 143 5.412
48 F7 144 6.877
48 F7 145 8.830
48 F7 146 8.830
48 F7 147 7.853
48 F7 148 6.388
48 F7 149 5.900
48 F7 150 6.388
48 F7 151 7.365
48 F7 152 9.318
48 F7 153 10.783
48 F7 154 12.736
48 F7 155 14.201
48 F7 156 14.201
48 F7 157 12.736
48 F7 158 10.295
48 F7 159 7.365
48 F7 160 4.924
48 F7 161 2.970
48 F7 162 1.506
48 F7 163 0.529
48 F7 164 0.041
48 F7 165 0.529
48 F7 166 2.482
48 F7 167 3.947
48 F7 168 4.924
48 F7 169 4.924
48 F7 170 4.924
48 F7 171 6.388
48 F7 172 8.341
48 F7 173 10.295
48 F7 174 10.295
48 F7 175 9.806
48 F7 176 8.830
48 F7 177 9.318
48 F7 178 11.271
48 F7 179 13.224
48 F7 180 14.201
48 F7 181 13.713
48 F7 182 13.224
48 F7 183 13.713
48 F7 184 14.201
48 F7 185 14.689
48 F7 186 14.201
48 F7 187 12.248
48 F7 188 9.806
48 F7 189 8.341
48 F7 190 7.853
48 F7 191 6.877
48 F7 192 6.388
48 F7 193 5.412
48 F7 194 4.924
48 F7 195 3.947
48 F7 196 3.459
48 F7 197 3.459
48 F7 198 3.459
48 F7 199 4.435
48 F7 200 5.412
48 F7 201 6.877
48 F7 202 8.341
48 F7 203 9.318
48 F7 204 9.806
48 F7 205 10.783
48 F7 206 10.783
48 F7 207 10.783
48 F7 208 9.806
48 F7 209 9.318
48 F7 210 8.341
48 F7 211 8.830
48 F7 212 8.830
48 F7 213 7.853
48 F7 214 6.388
48 F7 215 5.412
48 F7 216 4.435
48 F7 217 4.435
48 F7 218 4.924
48 F7 219 4.924
48 F7 220 2.970
48 F7 221 1.017
48 F7 222 -1.424
48 F7 223 -2.889
48 F7 224 -2.889
48 F7 225 -1.912
48 F7 226 -0.448
48 F7 227 1.017
48 F7 228 2.970
48 F7 229 5.412
48 F7 230 6.877
48 F7 231 6.877
48 F7 232 5.412
48 F7 233 3.947
48 F7 234 2.970
48 F7 235 3.947
48 F7 236 6.388
48 F7 237 9.318
48 F7 238 10.783
48 F7 239 9.318
48 F7 240 5.900
48 F7 241 2.482
48 F7 242 0.529
48 F7 243 1.017
48 F7 244 3.459
48 F7 245 5.900
48 F7 246 7.853
48 F7 247 8.341
48 F7 248 9.318
48 F7 249 9.806
48 F7 250 10.295
48 F7 251 9.806
48 F7 252 7.853
48 F7 253 5.412
48 F7 254 3.459
48 F7 255 3.947
# F8 chan 3
48 F8 0 -4.527
48 F8 1 -5.992
48 F8 2 -5.992
48 F8 3 -5.503
48 F8 4 -4.527
48 F8 5 -3.550
48 F8 6 -3.062
48 F8 7 -2.085
48 F8 8 -0.621
48 F8 9 1.333
48 F8 10 3.774
48 F8 11 5.239
48 F8 12 5.727
48 F8 13 5.727
48 F8 14 7.680
48 F8 15 10.122
48 F8 16 13.540
48 F8 17 15.004
48 F8 18 13.540
48 F8 19 9.145
48 F8 20 2.309
48 F8 21 -4.038
48 F8 22 -7.456
48 F8 23 -7.945
48 F8 24 -6.480
48 F8 25 -5.992
48 F8 26 -6.968
48 F8 27 -9.898
48 F8 28 -12.339
48 F8 29 -13.804
48 F8 30 -14.292
48 F8 31 -15.269
48 F8 32 -16.246
48 F8 33 -16.246
48 F8 34 -14.781
48 F8 35 -11.363
48 F8 36 -7.456
48 F8 37 -4.527
48 F8 38 -3.550
48 F8 39 -3.550
48 F8 40 -3.062
48 F8 41 -2.085
48 F8 42 -0.621
48 F8 43 -0.132
48 F8 44 -1.109
48 F8 45 -3.550
48 F8 46 -5.503
48 F8 47 -6.968
48 F8 48 -7.456
48 F8 49 -7.945
48 F8 50 -8.921
48 F8 51 -8.921
48 F8 52 -7.945
48 F8 53 -6.968
48 F8 54 -5.503
48 F8 55 -4.038
48 F8 56 -3.062
48 F8 57 -2.085
48 F8 58 -0.132
48 F8 59 1.333
48 F8 60 1.333
48 F8 61 0.356
48 F8 62 -1.109
48 F8 63 -1.109
48 F8 64 0.356
48 F8 65 2.797
48 F8 66 4.262
48 F8 67 3.286
48 F8 68 -0.132
48 F8 69 -4.038
48 F8 70 -5.503
48 F8 71 -5.015
48 F8 72 -3.062
48 F8 73 -1.109
48 F8 74 -0.621
48 F8 75 -0.621
48 F8 76 -0.132
48 F8 77 1.821
48 F8 78 3.774
48 F8 79 4.751
48 F8 80 5.239
48 F8 81 3.774
48 F8 82 3.286
48 F8 83 3.286
48 F8 84 4.262
48 F8 85 6.704
48 F8 86 9.145
48 F8 87 10.610
48 F8 88 11.587
48 F8 89 12.075
48 F8 90 11.587
48 F8 91 10.122
48 F8 92 8.169
48 F8 93 5.727
48 F8 94 3.774
48 F8 95 2.797
48 F8 96 2.797
48 F8 97 3.774
48 F8 98 3.774
48 F8 99 2.797
48 F8 100 0.844
48 F8 101 -1.109
48 F8 102 -1.597
48 F8 103 -1.109
48 F8 104 0.844
48 F8 105 2.309
48 F8 106 3.774
48 F8 107 4.751
48 F8 108 5.727
48 F8 109 6.215
48 F8 110 5.239
48 F8 111 3.286
48 F8 112 0.844
48 F8 113 -0.132
48 F8 114 1.333
48 F8 115 5.239
48 F8 116 8.657
48 F8 117 10.122
48 F8 118 8.657
48 F8 119 6.215
48 F8 120 4.262
48 F8 121 4.751
48 F8 122 6.704
48 F8 123 9.145
48 F8 124 10.122
48 F8 125 9.633
48 F8 126 9.633
48 F8 127 9.633
48 F8 128 11.587
48 F8 129 14.516
48 F8 130 17.934
48 F8 131 19.887
48 F8 132 19.887
48 F8 133 18.422
48 F8 134 16.958
48 F8 135 15.004
48 F8 136 14.516
48 F8 137 14.028
48 F8 138 12.563
48 F8 139 10.122
48 F8 140 7.680
48 F8 141 5.727
48 F8 142 5.239
48 F8 143 7.192
48 F8 144 9.633
48 F8 145 11.098
48 F8 146 10.610
48 F8 147 9.633
48 F8 148 8.169
48 F8 149 7.680
48 F8 150 7.680
48 F8 151 8.169
48 F8 152 8.169
48 F8 153 8.169
48 F8 154 9.633
48 F8 155 12.563
48 F8 156 15.493
48 F8 157 17.446
48 F8 158 16.469
48 F8 159 13.051
48 F8 160 8.657
48 F8 161 5.239
48 F8 162 4.262
48 F8 163 4.262
48 F8 164 4.751
48 F8 165 4.751
48 F8 166 5.239
48 F8 167 6.215
48 F8 168 8.657
48 F8 169 10.610
48 F8 170 11.098
48 F8 171 10.610
48 F8 172 9.633
48 F8 173 9.145
48 F8 174 9.633
48 F8 175 9.145
48 F8 176 8.657
48 F8 177 8.169
48 F8 178 9.145
48 F8 179 12.075
48 F8 180 16.469
48 F8 181 19.887
48 F8 182 20.864
48 F8 183 18.911
48 F8 184 16.469
48 F8 185 14.028
48 F8 186 13.540
48 F8 187 13.051
48 F8 188 13.051
48 F8 189 13.051
48 F8 190 12.563
48 F8 191 11.587
48 F8 192 9.633
48 F8 193 6.215
48 F8 194 2.797
48 F8 195 -0.621
48 F8 196 -2.085
48 F8 197 -1.109
48 F8 198 1.821
48 F8 199 5.239
48 F8 200 8.657
48 F8 201 11.098
48 F8 202 11.587
48 F8 203 11.587
48 F8 204 10.610
48 F8 205 10.610
48 F8 206 10.610
48 F8 207 11.098
48 F8 208 11.587
48 F8 209 11.587
48 F8 210 12.075
48 F8 211 12.563
48 F8 212 13.540
48 F8 213 13.540
48 F8 214 12.075
48 F8 215 9.145
48 F8 216 6.215
48 F8 217 3.286
48 F8 218 1.821
48 F8 219 1.333
48 F8 220 1.821
48 F8 221 1.821
48 F8 222 1.821
48 F8 223 1.821
48 F8 224 1.821
48 F8 225 2.797
48 F8 226 3.774
48 F8 227 3.774
48 F8 228 2.797
48 F8 229 1.821
48 F8 230 2.797
48 F8 231 4.262
48 F8 232 5.239
48 F8 233 4.751
48 F8 234 2.309
48 F8 235 0.356
48 F8 236 0.356
48 F8 237 2.797
48 F8 238 6.704
48 F8 239 8.169
48 F8 240 6.215
48 F8 241 1.333
48 F8 242 -2.085
48 F8 243 -0.621
48 F8 244 5.727
48 F8 245 15.004
48 F8 246 22.329
48 F8 247 23.794
48 F8 248 19.887
48 F8 249 14.516
48 F8 250 11.098
48 F8 251 10.610
48 F8 252 11.587
48 F8 253 12.075
48 F8 254 10.610
48 F8 255 8.657
# AF1 chan 4
48 AF1 0 -2.797
48 AF1 1 -4.262
48 AF1 2 -4.751
48 AF1 3 -4.751
48 AF1 4 -3.774
48 AF1 5 -2.309
48 AF1 6 -1.821
48 AF1 7 -1.333
48 AF1 8 -1.333
48 AF1 9 -1.821
48 AF1 10 -2.797
48 AF1 11 -2.797
48 AF1 12 -1.333
48 AF1 13 1.109
48 AF1 14 4.527
48 AF1 15 7.945
48 AF1 16 10.386
48 AF1 17 11.363
48 AF1 18 9.898
48 AF1 19 6.480
48 AF1 20 1.597
48 AF1 21 -2.797
48 AF1 22 -5.727
48 AF1 23 -7.192
48 AF1 24 -7.192
48 AF1 25 -6.704
48 AF1 26 -6.704
48 AF1 27 -7.192
48 AF1 28 -9.145
48 AF1 29 -10.610
48 AF1 30 -11.587
48 AF1 31 -11.587
48 AF1 32 -11.587
48 AF1 33 -11.098
48 AF1 34 -11.098
48 AF1 35 -10.610
48 AF1 36 -9.633
48 AF1 37 -7.192
48 AF1 38 -4.262
48 AF1 39 -1.333
48 AF1 40 0.621
48 AF1 41 1.109
48 AF1 42 -0.356
48 AF1 43 -2.797
48 AF1 44 -5.239
48 AF1 45 -6.704
48 AF1 46 -7.192
48 AF1 47 -7.192
48 AF1 48 -6.704
48 AF1 49 -6.215
48 AF1 50 -5.727
48 AF1 51 -5.239
48 AF1 52 -4.262
48 AF1 53 -4.262
48 AF1 54 -4.262
48 AF1 55 -4.751
48 AF1 56 -4.751
48 AF1 57 -4.262
48 AF1 58 -3.286
48 AF1 59 -1.821
48 AF1 60 -0.844
48 AF1 61 -0.356
48 AF1 62 -0.844
48 AF1 63 -1.333
48 AF1 64 -1.333
48 AF1 65 -1.333
48 AF1 66 -0.356
48 AF1 67 0.621
48 AF1 68 0.621
48 AF1 69 -0.356
48 AF1 70 -1.821
48 AF1 71 -3.286
48 AF1 72 -4.262
48 AF1 73 -4.262
48 AF1 74 -3.286
48 AF1 75 -1.821
48 AF1 76 -0.356
48 AF1 77 1.109
48 AF1 78 2.085
48 AF1 79 2.574
48 AF1 80 2.574
48 AF1 81 2.574
48 AF1 82 3.062
48 AF1 83 3.550
48 AF1 84 4.527
48 AF1 85 5.503
48 AF1 86 5.503
48 AF1 87 4.527
48 AF1 88 3.550
48 AF1 89 2.085
48 AF1 90 1.109
48 AF1 91 1.109
48 AF1 92 1.597
48 AF1 93 2.085
48 AF1 94 1.597
48 AF1 95 1.109
48 AF1 96 -0.356
48 AF1 97 -1.821
48 AF1 98 -3.286
48 AF1 99 -3.286
48 AF1 100 -2.309
48 AF1 101 -1.821
48 AF1 102 -0.844
48 AF1 103 -0.356
48 AF1 104 -0.356
48 AF1 105 0.621
48 AF1 106 2.085
48 AF1 107 3.550
48 AF1 108 4.038
48 AF1 109 3.062
48 AF1 110 0.621
48 AF1 111 -0.844
48 AF1 112 -1.821
48 AF1 113 -0.356
48 AF1 114 2.085
48 AF1 115 3.550
48 AF1 116 4.038
48 AF1 117 3.062
48 AF1 118 1.597
48 AF1 119 0.621
48 AF1 120 1.109
48 AF1 121 3.062
48 AF1 122 4.527
48 AF1 123 5.503
48 AF1 124 5.503
48 AF1 125 5.503
48 AF1 126 5.015
48 AF1 127 5.503
48 AF1 128 6.968
48 AF1 129 8.921
48 AF1 130 11.363
48 AF1 131 13.316
48 AF1 132 14.781
48 AF1 133 14.292
48 AF1 134 13.316
48 AF1 135 11.363
48 AF1 136 10.386
48 AF1 137 9.898
48 AF1 138 9.898
48 AF1 139 9.410
48 AF1 140 8.433
48 AF1 141 6.480
48 AF1 142 5.015
48 AF1 143 4.527
48 AF1 144 5.503
48 AF1 145 7.456
48 AF1 146 8.921
48 AF1 147 9.410
48 AF1 148 8.433
48 AF1 149 7.456
48 AF1 150 6.480
48 AF1 151 6.968
48 AF1 152 7.945
48 AF1 153 9.410
48 AF1 154 11.363
48 AF1 155 13.316
48 AF1 156 13.804
48 AF1 157 13.316
48 AF1 158 11.851
48 AF1 159 8.921
48 AF1 160 5.503
48 AF1 161 3.062
48 AF1 162 1.109
48 AF1 163 1.109
48 AF1 164 1.109
48 AF1 165 2.085
48 AF1 166 3.062
48 AF1 167 3.550
48 AF1 168 4.527
48 AF1 169 5.015
48 AF1 170 5.992
48 AF1 171 7.945
48 AF1 172 10.386
48 AF1 173 11.851
48 AF1 174 12.828
48 AF1 175 12.339
48 AF1 176 11.851
48 AF1 177 12.339
48 AF1 178 13.316
48 AF1 179 14.781
48 AF1 180 15.757
48 AF1 181 16.246
48 AF1 182 16.246
48 AF1 183 16.246
48 AF1 184 16.734
48 AF1 185 16.734
48 AF1 186 15.757
48 AF1 187 14.292
48 AF1 188 12.339
48 AF1 189 10.386
48 AF1 190 8.433
48 AF1 191 7.456
48 AF1 192 5.503
48 AF1 193 4.527
48 AF1 194 4.038
48 AF1 195 3.550
48 AF1 196 3.550
48 AF1 197 4.038
48 AF1 198 4.527
48 AF1 199 5.992
48 AF1 200 7.945
48 AF1 201 9.410
48 AF1 202 10.874
48 AF1 203 10.874
48 AF1 204 10.386
48 AF1 205 9.898
48 AF1 206 9.898
48 AF1 207 10.386
48 AF1 208 11.363
48 AF1 209 11.363
48 AF1 210 10.386
48 AF1 211 9.410
48 AF1 212 7.945
48 AF1 213 5.992
48 AF1 214 5.015
48 AF1 215 4.038
48 AF1 216 3.550
48 AF1 217 3.550
48 AF1 218 3.062
48 AF1 219 3.062
48 AF1 220 1.597
48 AF1 221 -0.356
48 AF1 222 -2.309
48 AF1 223 -3.774
48 AF1 224 -3.774
48 AF1 225 -2.309
48 AF1 226 -0.356
48 AF1 227 2.085
48 AF1 228 3.550
48 AF1 229 4.527
48 AF1 230 5.015
48 AF1 231 5.015
48 AF1 232 4.527
48 AF1 233 4.038
48 AF1 234 4.038
48 AF1 235 4.527
48 AF1 236 5.503
48 AF1 237 5.992
48 AF1 238 5.503
48 AF1 239 3.550
48 AF1 240 1.597
48 AF1 241 -0.844
48 AF1 242 -2.309
48 AF1 243 -1.821
48 AF1 244 0.132
48 AF1 245 3.062
48 AF1 246 5.992
48 AF1 247 7.945
48 AF1 248 7.945
48 AF1 249 6.968
48 AF1 250 5.503
48 AF1 251 4.038
48 AF1 252 2.085
48 AF1 253 0.132
48 AF1 254 -1.333
48 AF1 255 -1.821
# AF2 chan 5
48 AF2 0 -0.661
48 AF2 1 -2.126
48 AF2 2 -3.591
48 AF2 3 -4.079
48 AF2 4 -4.079
48 AF2 5 -3.591
48 AF2 6 -2.126
48 AF2 7 -0.173
48 AF2 8 1.292
48 AF2 9 2.268
48 AF2 10 2.757
48 AF2 11 3.245
48 AF2 12 3.733
48 AF2 13 5.198
48 AF2 14 8.128
48 AF2 15 11.546
48 AF2 16 13.987
48 AF2 17 14.476
48 AF2 18 13.011
48 AF2 19 9.104
48 AF2 20 4.710
48 AF2 21 -0.173
48 AF2 22 -3.591
48 AF2 23 -6.032
48 AF2 24 -7.009
48 AF2 25 -7.497
48 AF2 26 -7.985
48 AF2 27 -8.962
48 AF2 28 -9.450
48 AF2 29 -10.427
48 AF2 30 -10.915
48 AF2 31 -11.892
48 AF2 32 -12.380
48 AF2 33 -12.380
48 AF2 34 -11.892
48 AF2 35 -10.427
48 AF2 36 -8.474
48 AF2 37 -6.521
48 AF2 38 -4.079
48 AF2 39 -2.614
48 AF2 40 -1.638
48 AF2 41 -1.149
48 AF2 42 -1.149
48 AF2 43 -1.638
48 AF2 44 -2.126
48 AF2 45 -3.103
48 AF2 46 -3.591
48 AF2 47 -5.056
48 AF2 48 -6.032
48 AF2 49 -7.009
48 AF2 50 -7.009
48 AF2 51 -6.032
48 AF2 52 -4.079
48 AF2 53 -2.614
48 AF2 54 -2.126
48 AF2 55 -2.126
48 AF2 56 -2.614
48 AF2 57 -2.126
48 AF2 58 -1.149
48 AF2 59 0.315
48 AF2 60 1.780
48 AF2 61 2.268
48 AF2 62 1.780
48 AF2 63 1.292
48 AF2 64 0.804
48 AF2 65 1.780
48 AF2 66 2.268
48 AF2 67 2.268
48 AF2 68 1.780
48 AF2 69 0.804
48 AF2 70 -0.173
48 AF2 71 -1.638
48 AF2 72 -2.126
48 AF2 73 -2.126
48 AF2 74 -2.614
48 AF2 75 -2.126
48 AF2 76 -1.149
48 AF2 77 0.315
48 AF2 78 1.292
48 AF2 79 2.757
48 AF2 80 3.733
48 AF2 81 4.222
48 AF2 82 4.222
48 AF2 83 4.222
48 AF2 84 4.222
48 AF2 85 4.222
48 AF2 86 4.710
48 AF2 87 4.710
48 AF2 88 4.710
48 AF2 89 4.222
48 AF2 90 4.222
48 AF2 91 3.733
48 AF2 92 2.757
48 AF2 93 1.780
48 AF2 94 0.804
48 AF2 95 -0.173
48 AF2 96 -1.149
48 AF2 97 -2.126
48 AF2 98 -2.614
48 AF2 99 -2.614
48 AF2 100 -2.614
48 AF2 101 -2.614
48 AF2 102 -2.614
48 AF2 103 -3.103
48 AF2 104 -3.103
48 AF2 105 -1.638
48 AF2 106 0.315
48 AF2 107 2.268
48 AF2 108 2.757
48 AF2 109 1.780
48 AF2 110 -0.661
48 AF2 111 -2.614
48 AF2 112 -2.614
48 AF2 113 -1.638
48 AF2 114 0.315
48 AF2 115 2.757
48 AF2 116 3.733
48 AF2 117 3.245
48 AF2 118 1.780
48 AF2 119 0.315
48 AF2 120 -0.173
48 AF2 121 -0.173
48 AF2 122 1.292
48 AF2 123 3.245
48 AF2 124 4.222
48 AF2 125 4.710
48 AF2 126 4.710
48 AF2 127 5.686
48 AF2 128 7.151
48 AF2 129 10.569
48 AF2 130 13.499
48 AF2 131 15.452
48 AF2 132 15.940
48 AF2 133 14.476
48 AF2 134 12.522
48 AF2 135 10.081
48 AF2 136 8.616
48 AF2 137 8.128
48 AF2 138 7.640
48 AF2 139 7.151
48 AF2 140 6.175
48 AF2 141 5.686
48 AF2 142 5.198
48 AF2 143 5.686
48 AF2 144 6.175
48 AF2 145 6.663
48 AF2 146 6.663
48 AF2 147 6.175
48 AF2 148 6.175
48 AF2 149 6.175
48 AF2 150 6.175
48 AF2 151 6.175
48 AF2 152 6.663
48 AF2 153 7.151
48 AF2 154 9.104
48 AF2 155 11.546
48 AF2 156 13.499
48 AF2 157 13.987
48 AF2 158 12.522
48 AF2 159 10.081
48 AF2 160 6.175
48 AF2 161 3.245
48 AF2 162 1.780
48 AF2 163 1.780
48 AF2 164 2.268
48 AF2 165 3.245
48 AF2 166 4.222
48 AF2 167 4.710
48 AF2 168 4.710
48 AF2 169 5.198
48 AF2 170 5.198
48 AF2 171 5.686
48 AF2 172 7.151
48 AF2 173 9.104
48 AF2 174 10.569
48 AF2 175 11.546
48 AF2 176 11.546
48 AF2 177 11.546
48 AF2 178 12.034
48 AF2 179 13.011
48 AF2 180 14.476
48 AF2 181 14.964
48 AF2 182 15.940
48 AF2 183 15.940
48 AF2 184 15.940
48 AF2 185 15.452
48 AF2 186 13.499
48 AF2 187 11.546
48 AF2 188 10.081
48 AF2 189 8.616
48 AF2 190 8.616
48 AF2 191 8.128
48 AF2 192 7.151
48 AF2 193 4.710
48 AF2 194 2.268
48 AF2 195 -0.173
48 AF2 196 -0.661
48 AF2 197 0.804
48 AF2 198 2.757
48 AF2 199 4.710
48 AF2 200 6.663
48 AF2 201 7.640
48 AF2 202 8.616
48 AF2 203 8.616
48 AF2 204 8.616
48 AF2 205 8.616
48 AF2 206 8.616
48 AF2 207 8.616
48 AF2 208 8.616
48 AF2 209 8.128
48 AF2 210 7.640
48 AF2 211 7.151
48 AF2 212 6.663
48 AF2 213 5.686
48 AF2 214 5.198
48 AF2 215 4.222
48 AF2 216 2.757
48 AF2 217 1.780
48 AF2 218 0.315
48 AF2 219 -0.173
48 AF2 220 -1.149
48 AF2 221 -1.638
48 AF2 222 -1.638
48 AF2 223 -1.638
48 AF2 224 -1.638
48 AF2 225 -1.638
48 AF2 226 -1.149
48 AF2 227 -0.173
48 AF2 228 0.315
48 AF2 229 0.804
48 AF2 230 1.292
48 AF2 231 2.268
48 AF2 232 3.245
48 AF2 233 3.733
48 AF2 234 3.733
48 AF2 235 3.245
48 AF2 236 1.780
48 AF2 237 1.292
48 AF2 238 0.804
48 AF2 239 -0.173
48 AF2 240 -1.149
48 AF2 241 -3.103
48 AF2 242 -4.567
48 AF2 243 -4.079
48 AF2 244 -1.149
48 AF2 245 3.245
48 AF2 246 6.663
48 AF2 247 8.128
48 AF2 248 7.151
48 AF2 249 4.710
48 AF2 250 2.757
48 AF2 251 1.292
48 AF2 252 0.315
48 AF2 253 -0.661
48 AF2 254 -1.638
48 AF2 255 -1.638
# FZ chan 6
48 FZ 0 -1.892
48 FZ 1 -2.869
48 FZ 2 -3.357
48 FZ 3 -3.845
48 FZ 4 -3.845
48 FZ 5 -2.869
48 FZ 6 -2.380
48 FZ 7 -0.916
48 FZ 8 -0.427
48 FZ 9 -0.427
48 FZ 10 -0.916
48 FZ 11 -0.916
48 FZ 12 0.061
48 FZ 13 2.014
48 FZ 14 5.432
48 FZ 15 7.874
48 FZ 16 9.338
48 FZ 17 9.827
48 FZ 18 7.874
48 FZ 19 4.944
48 FZ 20 1.526
48 FZ 21 -1.892
48 FZ 22 -4.822
48 FZ 23 -6.287
48 FZ 24 -6.775
48 FZ 25 -6.775
48 FZ 26 -7.263
48 FZ 27 -8.240
48 FZ 28 -9.216
48 FZ 29 -9.705
48 FZ 30 -10.193
48 FZ 31 -10.193
48 FZ 32 -10.193
48 FZ 33 -9.705
48 FZ 34 -9.216
48 FZ 35 -8.728
48 FZ 36 -7.263
48 FZ 37 -5.798
48 FZ 38 -3.845
48 FZ 39 -1.892
48 FZ 40 -0.427
48 FZ 41 -0.427
48 FZ 42 -1.404
48 FZ 43 -2.869
48 FZ 44 -3.845
48 FZ 45 -4.822
48 FZ 46 -4.822
48 FZ 47 -5.310
48 FZ 48 -5.310
48 FZ 49 -5.310
48 FZ 50 -4.822
48 FZ 51 -4.333
48 FZ 52 -2.869
48 FZ 53 -2.380
48 FZ 54 -2.380
48 FZ 55 -2.869
48 FZ 56 -3.357
48 FZ 57 -3.357
48 FZ 58 -2.869
48 FZ 59 -1.404
48 FZ 60 -0.916
48 FZ 61 -0.427
48 FZ 62 -0.427
48 FZ 63 -0.916
48 FZ 64 -0.427
48 FZ 65 0.061
48 FZ 66 0.549
48 FZ 67 1.526
48 FZ 68 0.549
48 FZ 69 -0.427
48 FZ 70 -2.380
48 FZ 71 -3.357
48 FZ 72 -3.845
48 FZ 73 -4.333
48 FZ 74 -3.845
48 FZ 75 -2.869
48 FZ 76 -1.892
48 FZ 77 -0.916
48 FZ 78 0.061
48 FZ 79 1.526
48 FZ 80 2.014
48 FZ 81 2.502
48 FZ 82 2.502
48 FZ 83 2.991
48 FZ 84 2.991
48 FZ 85 2.991
48 FZ 86 2.502
48 FZ 87 2.014
48 FZ 88 1.526
48 FZ 89 0.549
48 FZ 90 0.549
48 FZ 91 0.061
48 FZ 92 0.061
48 FZ 93 -0.427
48 FZ 94 -0.916
48 FZ 95 -1.404
48 FZ 96 -1.892
48 FZ 97 -2.869
48 FZ 98 -3.845
48 FZ 99 -3.357
48 FZ 100 -3.357
48 FZ 101 -2.869
48 FZ 102 -2.380
48 FZ 103 -2.380
48 FZ 104 -1.892
48 FZ 105 -0.916
48 FZ 106 0.549
48 FZ 107 2.502
48 FZ 108 2.991
48 FZ 109 2.502
48 FZ 110 1.038
48 FZ 111 -0.916
48 FZ 112 -1.404
48 FZ 113 -0.916
48 FZ 114 0.549
48 FZ 115 2.502
48 FZ 116 2.991
48 FZ 117 2.502
48 FZ 118 2.014
48 FZ 119 1.038
48 FZ 120 1.038
48 FZ 121 2.014
48 FZ 122 2.502
48 FZ 123 3.479
48 FZ 124 3.479
48 FZ 125 2.991
48 FZ 126 2.991
48 FZ 127 3.967
48 FZ 128 5.432
48 FZ 129 7.874
48 FZ 130 9.827
48 FZ 131 11.780
48 FZ 132 12.268
48 FZ 133 11.780
48 FZ 134 10.803
48 FZ 135 8.850
48 FZ 136 7.874
48 FZ 137 6.897
48 FZ 138 6.409
48 FZ 139 5.432
48 FZ 140 4.944
48 FZ 141 3.967
48 FZ 142 3.479
48 FZ 143 3.479
48 FZ 144 3.967
48 FZ 145 4.944
48 FZ 146 5.432
48 FZ 147 5.432
48 FZ 148 4.944
48 FZ 149 4.456
48 FZ 150 4.456
48 FZ 151 3.967
48 FZ 152 4.456
48 FZ 153 5.432
48 FZ 154 7.385
48 FZ 155 8.850
48 FZ 156 9.827
48 FZ 157 9.827
48 FZ 158 8.362
48 FZ 159 6.409
48 FZ 160 3.479
48 FZ 161 1.526
48 FZ 162 0.061
48 FZ 163 -0.427
48 FZ 164 -0.427
48 FZ 165 0.061
48 FZ 166 0.549
48 FZ 167 1.038
48 FZ 168 1.526
48 FZ 169 2.014
48 FZ 170 2.502
48 FZ 171 3.479
48 FZ 172 4.944
48 FZ 173 6.409
48 FZ 174 7.874
48 FZ 175 8.850
48 FZ 176 8.850
48 FZ 177 9.338
48 FZ 178 9.338
48 FZ 179 9.827
48 FZ 180 10.315
48 FZ 181 10.803
48 FZ 182 11.292
48 FZ 183 11.292
48 FZ 184 11.780
48 FZ 185 11.292
48 FZ 186 10.315
48 FZ 187 8.362
48 FZ 188 6.409
48 FZ 189 4.944
48 FZ 190 3.967
48 FZ 191 2.991
48 FZ 192 2.502
48 FZ 193 1.526
48 FZ 194 0.061
48 FZ 195 -0.427
48 FZ 196 -0.427
48 FZ 197 0.061
48 FZ 198 1.526
48 FZ 199 2.502
48 FZ 200 3.479
48 FZ 201 4.456
48 FZ 202 5.432
48 FZ 203 5.920
48 FZ 204 5.920
48 FZ 205 5.432
48 FZ 206 5.432
48 FZ 207 4.944
48 FZ 208 4.944
48 FZ 209 4.944
48 FZ 210 4.456
48 FZ 211 3.479
48 FZ 212 2.502
48 FZ 213 1.526
48 FZ 214 0.549
48 FZ 215 -0.427
48 FZ 216 -0.427
48 FZ 217 -1.404
48 FZ 218 -1.892
48 FZ 219 -2.380
48 FZ 220 -3.357
48 FZ 221 -3.845
48 FZ 222 -4.333
48 FZ 223 -4.822
48 FZ 224 -5.310
48 FZ 225 -4.822
48 FZ 226 -3.845
48 FZ 227 -2.380
48 FZ 228 -0.916
48 FZ 229 0.061
48 FZ 230 0.549
48 FZ 231 0.549
48 FZ 232 1.526
48 FZ 233 1.526
48 FZ 234 2.014
48 FZ 235 2.014
48 FZ 236 1.526
48 FZ 237 0.549
48 FZ 238 -0.427
48 FZ 239 -1.404
48 FZ 240 -2.380
48 FZ 241 -3.357
48 FZ 242 -3.845
48 FZ 243 -2.869
48 FZ 244 -1.892
48 FZ 245 0.061
48 FZ 246 2.502
48 FZ 247 3.479
48 FZ 248 3.479
48 FZ 249 2.502
48 FZ 250 0.549
48 FZ 251 -0.916
48 FZ 252 -2.380
48 FZ 253 -3.845
48 FZ 254 -4.822
48 FZ 255 -4.822
# F4 chan 7
48 F4 0 -0.987
48 F4 1 -2.452
48 F4 2 -3.428
48 F4 3 -3.916
48 F4 4 -4.405
48 F4 5 -3.428
48 F4 6 -1.963
48 F4 7 -0.010
48 F4 8 1.943
48 F4 9 2.920
48 F4 10 2.920
48 F4 11 2.920
48 F4 12 3.408
48 F4 13 5.361
48 F4 14 8.291
48 F4 15 10.732
48 F4 16 12.197
48 F4 17 11.709
48 F4 18 10.244
48 F4 19 6.826
48 F4 20 2.431
48 F4 21 -1.475
48 F4 22 -5.381
48 F4 23 -7.334
48 F4 24 -8.799
48 F4 25 -9.288
48 F4 26 -9.776
48 F4 27 -10.264
48 F4 28 -10.264
48 F4 29 -10.264
48 F4 30 -10.264
48 F4 31 -10.752
48 F4 32 -11.729
48 F4 33 -12.217
48 F4 34 -12.217
48 F4 35 -11.241
48 F4 36 -9.288
48 F4 37 -6.846
48 F4 38 -5.381
48 F4 39 -4.405
48 F4 40 -3.428
48 F4 41 -2.940
48 F4 42 -1.963
48 F4 43 -1.963
48 F4 44 -2.452
48 F4 45 -3.428
48 F4 46 -5.381
48 F4 47 -6.846
48 F4 48 -7.823
48 F4 49 -7.823
48 F4 50 -7.334
48 F4 51 -6.358
48 F4 52 -5.381
48 F4 53 -4.405
48 F4 54 -3.916
48 F4 55 -4.405
48 F4 56 -3.916
48 F4 57 -3.428
48 F4 58 -1.963
48 F4 59 -0.498
48 F4 60 0.966
48 F4 61 0.966
48 F4 62 -0.010
48 F4 63 -0.498
48 F4 64 -0.498
48 F4 65 0.478
48 F4 66 1.455
48 F4 67 1.943
48 F4 68 0.966
48 F4 69 -0.987
48 F4 70 -2.452
48 F4 71 -3.916
48 F4 72 -3.916
48 F4 73 -3.428
48 F4 74 -3.428
48 F4 75 -3.428
48 F4 76 -3.428
48 F4 77 -2.940
48 F4 78 -1.963
48 F4 79 -0.498
48 F4 80 1.455
48 F4 81 2.431
48 F4 82 2.431
48 F4 83 1.943
48 F4 84 1.943
48 F4 85 1.943
48 F4 86 1.943
48 F4 87 2.431
48 F4 88 2.431
48 F4 89 2.920
48 F4 90 3.408
48 F4 91 3.408
48 F4 92 2.920
48 F4 93 1.455
48 F4 94 -0.498
48 F4 95 -2.452
48 F4 96 -3.428
48 F4 97 -3.428
48 F4 98 -2.940
48 F4 99 -1.963
48 F4 100 -1.963
48 F4 101 -2.452
48 F4 102 -2.940
48 F4 103 -2.940
48 F4 104 -2.452
48 F4 105 -0.987
48 F4 106 0.478
48 F4 107 1.455
48 F4 108 1.455
48 F4 109 0.966
48 F4 110 -0.010
48 F4 111 -0.987
48 F4 112 -1.475
48 F4 113 -0.498
48 F4 114 0.966
48 F4 115 2.920
48 F4 116 3.896
48 F4 117 3.896
48 F4 118 2.431
48 F4 119 0.966
48 F4 120 -0.010
48 F4 121 -0.010
48 F4 122 1.455
48 F4 123 2.920
48 F4 124 3.896
48 F4 125 4.384
48 F4 126 4.384
48 F4 127 4.873
48 F4 128 6.826
48 F4 129 9.755
48 F4 130 12.685
48 F4 131 15.127
48 F4 132 15.615
48 F4 133 14.638
48 F4 134 13.173
48 F4 135 10.732
48 F4 136 8.779
48 F4 137 6.826
48 F4 138 4.873
48 F4 139 3.408
48 F4 140 2.431
48 F4 141 2.431
48 F4 142 3.408
48 F4 143 5.361
48 F4 144 6.826
48 F4 145 7.314
48 F4 146 6.826
48 F4 147 5.849
48 F4 148 4.873
48 F4 149 3.408
48 F4 150 2.920
48 F4 151 1.943
48 F4 152 1.943
48 F4 153 3.408
48 F4 154 5.361
48 F4 155 8.291
48 F4 156 10.732
48 F4 157 11.709
48 F4 158 10.732
48 F4 159 8.291
48 F4 160 4.873
48 F4 161 2.431
48 F4 162 0.966
48 F4 163 0.966
48 F4 164 1.455
48 F4 165 2.431
48 F4 166 3.408
48 F4 167 3.408
48 F4 168 3.408
48 F4 169 3.408
48 F4 170 3.896
48 F4 171 4.873
48 F4 172 6.337
48 F4 173 7.802
48 F4 174 8.779
48 F4 175 9.267
48 F4 176 8.779
48 F4 177 9.267
48 F4 178 9.755
48 F4 179 11.220
48 F4 180 13.173
48 F4 181 14.150
48 F4 182 14.638
48 F4 183 14.150
48 F4 184 14.150
48 F4 185 13.173
48 F4 186 11.709
48 F4 187 9.755
48 F4 188 7.802
48 F4 189 6.826
48 F4 190 6.826
48 F4 191 6.826
48 F4 192 6.337
48 F4 193 4.384
48 F4 194 1.943
48 F4 195 -0.010
48 F4 196 -0.010
48 F4 197 0.966
48 F4 198 2.431
48 F4 199 3.896
48 F4 200 4.873
48 F4 201 6.337
48 F4 202 7.314
48 F4 203 8.291
48 F4 204 8.779
48 F4 205 8.779
48 F4 206 7.802
48 F4 207 7.314
48 F4 208 7.314
48 F4 209 7.314
48 F4 210 7.314
48 F4 211 6.337
48 F4 212 5.849
48 F4 213 5.849
48 F4 214 5.849
48 F4 215 5.361
48 F4 216 3.896
48 F4 217 2.431
48 F4 218 -0.010
48 F4 219 -1.963
48 F4 220 -2.452
48 F4 221 -1.475
48 F4 222 -0.498
48 F4 223 -0.010
48 F4 224 -0.010
48 F4 225 -0.010
48 F4 226 -0.498
48 F4 227 -0.498
48 F4 228 -0.010
48 F4 229 0.966
48 F4 230 1.455
48 F4 231 2.431
48 F4 232 2.920
48 F4 233 3.408
48 F4 234 3.408
48 F4 235 2.431
48 F4 236 1.943
48 F4 237 1.455
48 F4 238 0.478
48 F4 239 -0.010
48 F4 240 -0.987
48 F4 241 -2.452
48 F4 242 -3.428
48 F4 243 -2.940
48 F4 244 -0.498
48 F4 245 3.408
48 F4 246 6.826
48 F4 247 8.291
48 F4 248 7.314
48 F4 249 4.873
48 F4 250 2.431
48 F4 251 0.478
48 F4 252 -0.010
48 F4 253 -0.987
48 F4 254 -1.475
48 F4 255 -1.475
# F3 chan 8
48 F3 0 -1.658
48 F3 1 -2.635
48 F3 2 -3.611
48 F3 3 -3.611
48 F3 4 -3.123
48 F3 5 -2.635
48 F3 6 -2.146
48 F3 7 -2.146
48 F3 8 -2.146
48 F3 9 -3.123
48 F3 10 -4.100
48 F3 11 -5.076
48 F3 12 -5.076
48 F3 13 -3.611
48 F3 14 -1.658
48 F3 15 0.783
48 F3 16 2.736
48 F3 17 3.713
48 F3 18 3.225
48 F3 19 1.760
48 F3 20 -1.170
48 F3 21 -4.100
48 F3 22 -5.564
48 F3 23 -6.053
48 F3 24 -5.564
48 F3 25 -4.588
48 F3 26 -4.100
48 F3 27 -5.076
48 F3 28 -7.029
48 F3 29 -8.006
48 F3 30 -8.494
48 F3 31 -8.494
48 F3 32 -8.006
48 F3 33 -8.494
48 F3 34 -8.982
48 F3 35 -8.982
48 F3 36 -7.517
48 F3 37 -5.564
48 F3 38 -2.635
48 F3 39 -0.193
48 F3 40 0.295
48 F3 41 -0.193
48 F3 42 -2.146
48 F3 43 -4.100
48 F3 44 -6.053
48 F3 45 -7.029
48 F3 46 -7.517
48 F3 47 -7.029
48 F3 48 -6.541
48 F3 49 -6.053
48 F3 50 -6.053
48 F3 51 -5.076
48 F3 52 -4.588
48 F3 53 -3.123
48 F3 54 -2.635
48 F3 55 -2.146
48 F3 56 -2.635
48 F3 57 -3.123
48 F3 58 -3.123
48 F3 59 -3.123
48 F3 60 -2.635
48 F3 61 -2.146
48 F3 62 -2.635
48 F3 63 -3.611
48 F3 64 -3.611
48 F3 65 -2.635
48 F3 66 -1.170
48 F3 67 -0.193
48 F3 68 -0.193
48 F3 69 -1.170
48 F3 70 -2.635
48 F3 71 -3.611
48 F3 72 -3.611
48 F3 73 -2.635
48 F3 74 -2.146
48 F3 75 -1.658
48 F3 76 -1.170
48 F3 77 -0.682
48 F3 78 0.295
48 F3 79 1.760
48 F3 80 3.225
48 F3 81 4.201
48 F3 82 4.201
48 F3 83 4.690
48 F3 84 5.178
48 F3 85 5.666
48 F3 86 5.178
48 F3 87 3.713
48 F3 88 2.248
48 F3 89 0.295
48 F3 90 -0.682
48 F3 91 -0.682
48 F3 92 -0.193
48 F3 93 0.295
48 F3 94 0.783
48 F3 95 0.783
48 F3 96 -0.193
48 F3 97 -1.170
48 F3 98 -2.635
48 F3 99 -3.123
48 F3 100 -3.123
48 F3 101 -2.146
48 F3 102 -1.170
48 F3 103 -0.193
48 F3 104 0.783
48 F3 105 1.272
48 F3 106 2.736
48 F3 107 3.225
48 F3 108 3.713
48 F3 109 1.760
48 F3 110 -0.682
48 F3 111 -2.635
48 F3 112 -3.123
48 F3 113 -2.146
48 F3 114 -0.193
48 F3 115 0.783
48 F3 116 0.783
48 F3 117 -0.682
48 F3 118 -1.658
48 F3 119 -1.170
48 F3 120 0.295
48 F3 121 2.736
48 F3 122 3.225
48 F3 123 3.713
48 F3 124 2.736
48 F3 125 1.760
48 F3 126 1.760
48 F3 127 2.248
48 F3 128 3.225
48 F3 129 4.690
48 F3 130 6.154
48 F3 131 8.108
48 F3 132 9.084
48 F3 133 10.061
48 F3 134 9.084
48 F3 135 7.619
48 F3 136 6.643
48 F3 137 6.154
48 F3 138 6.154
48 F3 139 6.154
48 F3 140 4.690
48 F3 141 2.736
48 F3 142 1.272
48 F3 143 0.783
48 F3 144 1.272
48 F3 145 2.736
48 F3 146 4.201
48 F3 147 4.690
48 F3 148 4.201
48 F3 149 3.713
48 F3 150 4.201
48 F3 151 5.178
48 F3 152 6.643
48 F3 153 7.131
48 F3 154 7.619
48 F3 155 7.131
48 F3 156 7.131
48 F3 157 6.643
48 F3 158 5.666
48 F3 159 3.225
48 F3 160 0.783
48 F3 161 -1.170
48 F3 162 -2.635
48 F3 163 -3.611
48 F3 164 -4.100
48 F3 165 -4.100
48 F3 166 -3.611
48 F3 167 -3.123
48 F3 168 -2.146
48 F3 169 -0.682
48 F3 170 1.272
48 F3 171 4.201
48 F3 172 6.154
48 F3 173 7.131
48 F3 174 7.619
48 F3 175 7.619
48 F3 176 8.108
48 F3 177 9.084
48 F3 178 9.084
48 F3 179 9.084
48 F3 180 8.596
48 F3 181 7.619
48 F3 182 8.108
48 F3 183 9.572
48 F3 184 11.525
48 F3 185 12.014
48 F3 186 11.037
48 F3 187 9.084
48 F3 188 7.131
48 F3 189 5.178
48 F3 190 3.713
48 F3 191 2.248
48 F3 192 0.783
48 F3 193 -0.193
48 F3 194 -0.193
48 F3 195 0.783
48 F3 196 1.272
48 F3 197 1.760
48 F3 198 2.248
48 F3 199 2.248
48 F3 200 3.713
48 F3 201 5.666
48 F3 202 7.131
48 F3 203 8.108
48 F3 204 7.619
48 F3 205 6.643
48 F3 206 5.666
48 F3 207 6.154
48 F3 208 6.643
48 F3 209 6.643
48 F3 210 6.154
48 F3 211 5.178
48 F3 212 3.713
48 F3 213 2.248
48 F3 214 1.760
48 F3 215 0.783
48 F3 216 -0.193
48 F3 217 -0.682
48 F3 218 -1.170
48 F3 219 -1.658
48 F3 220 -2.146
48 F3 221 -2.635
48 F3 222 -3.123
48 F3 223 -4.100
48 F3 224 -4.588
48 F3 225 -4.100
48 F3 226 -2.635
48 F3 227 -0.193
48 F3 228 2.248
48 F3 229 3.713
48 F3 230 4.201
48 F3 231 3.713
48 F3 232 3.225
48 F3 233 2.736
48 F3 234 2.736
48 F3 235 4.201
48 F3 236 5.178
48 F3 237 5.178
48 F3 238 4.201
48 F3 239 2.736
48 F3 240 0.783
48 F3 241 -1.170
48 F3 242 -2.146
48 F3 243 -1.170
48 F3 244 0.783
48 F3 245 2.736
48 F3 246 5.178
48 F3 247 6.154
48 F3 248 6.643
48 F3 249 6.154
48 F3 250 5.666
48 F3 251 4.201
48 F3 252 2.736
48 F3 253 0.783
48 F3 254 -0.193
48 F3 255 -0.682
# FC6 chan 9
48 FC6 0 -0.641
48 FC6 1 -2.106
48 FC6 2 -3.082
48 FC6 3 -4.547
48 FC6 4 -5.524
48 FC6 5 -5.035
48 FC6 6 -4.059
48 FC6 7 -1.617
48 FC6 8 0.824
48 FC6 9 2.289
48 FC6 10 2.777
48 FC6 11 2.777
48 FC6 12 3.265
48 FC6 13 4.242
48 FC6 14 6.683
48 FC6 15 8.636
48 FC6 16 9.613
48 FC6 17 8.636
48 FC6 18 6.683
48 FC6 19 3.754
48 FC6 20 0.824
48 FC6 21 -1.617
48 FC6 22 -3.571
48 FC6 23 -5.035
48 FC6 24 -6.500
48 FC6 25 -6.989
48 FC6 26 -7.965
48 FC6 27 -8.453
48 FC6 28 -8.942
48 FC6 29 -9.918
48 FC6 30 -10.406
48 FC6 31 -11.383
48 FC6 32 -11.871
48 FC6 33 -11.871
48 FC6 34 -10.895
48 FC6 35 -9.430
48 FC6 36 -7.965
48 FC6 37 -6.500
48 FC6 38 -5.524
48 FC6 39 -4.547
48 FC6 40 -3.571
48 FC6 41 -2.594
48 FC6 42 -1.617
48 FC6 43 -0.641
48 FC6 44 -0.641
48 FC6 45 -1.617
48 FC6 46 -3.082
48 FC6 47 -5.035
48 FC6 48 -6.500
48 FC6 49 -6.989
48 FC6 50 -6.500
48 FC6 51 -5.524
48 FC6 52 -4.547
48 FC6 53 -4.059
48 FC6 54 -4.547
48 FC6 55 -4.547
48 FC6 56 -4.547
48 FC6 57 -3.571
48 FC6 58 -2.106
48 FC6 59 -0.641
48 FC6 60 0.336
48 FC6 61 -0.153
48 FC6 62 -0.641
48 FC6 63 -1.129
48 FC6 64 -0.641
48 FC6 65 0.824
48 FC6 66 2.289
48 FC6 67 2.289
48 FC6 68 1.801
48 FC6 69 0.336
48 FC6 70 -0.641
48 FC6 71 -1.617
48 FC6 72 -1.129
48 FC6 73 -1.129
48 FC6 74 -1.129
48 FC6 75 -1.617
48 FC6 76 -2.106
48 FC6 77 -2.106
48 FC6 78 -1.617
48 FC6 79 -0.153
48 FC6 80 1.801
48 FC6 81 3.265
48 FC6 82 3.754
48 FC6 83 3.754
48 FC6 84 2.777
48 FC6 85 2.289
48 FC6 86 2.777
48 FC6 87 3.754
48 FC6 88 4.730
48 FC6 89 6.683
48 FC6 90 7.660
48 FC6 91 8.636
48 FC6 92 8.148
48 FC6 93 7.172
48 FC6 94 5.219
48 FC6 95 3.265
48 FC6 96 1.801
48 FC6 97 0.824
48 FC6 98 0.336
48 FC6 99 0.336
48 FC6 100 0.336
48 FC6 101 -0.641
48 FC6 102 -0.641
48 FC6 103 -0.641
48 FC6 104 -0.641
48 FC6 105 0.824
48 FC6 106 1.801
48 FC6 107 2.289
48 FC6 108 2.289
48 FC6 109 1.312
48 FC6 110 0.336
48 FC6 111 0.336
48 FC6 112 0.824
48 FC6 113 1.801
48 FC6 114 3.754
48 FC6 115 5.219
48 FC6 116 6.195
48 FC6 117 6.195
48 FC6 118 5.219
48 FC6 119 3.754
48 FC6 120 2.289
48 FC6 121 2.289
48 FC6 122 2.777
48 FC6 123 4.242
48 FC6 124 5.707
48 FC6 125 6.195
48 FC6 126 6.683
48 FC6 127 6.683
48 FC6 128 7.172
48 FC6 129 8.148
48 FC6 130 9.125
48 FC6 131 10.101
48 FC6 132 10.590
48 FC6 133 10.590
48 FC6 134 10.101
48 FC6 135 9.613
48 FC6 136 8.636
48 FC6 137 7.172
48 FC6 138 5.219
48 FC6 139 2.777
48 FC6 140 1.801
48 FC6 141 1.801
48 FC6 142 2.777
48 FC6 143 3.754
48 FC6 144 4.730
48 FC6 145 4.730
48 FC6 146 3.754
48 FC6 147 2.777
48 FC6 148 2.289
48 FC6 149 1.801
48 FC6 150 1.801
48 FC6 151 1.312
48 FC6 152 0.824
48 FC6 153 0.336
48 FC6 154 1.312
48 FC6 155 2.777
48 FC6 156 5.219
48 FC6 157 7.172
48 FC6 158 7.172
48 FC6 159 5.707
48 FC6 160 3.754
48 FC6 161 2.289
48 FC6 162 1.801
48 FC6 163 1.801
48 FC6 164 1.801
48 FC6 165 1.801
48 FC6 166 1.801
48 FC6 167 2.289
48 FC6 168 3.754
48 FC6 169 4.730
48 FC6 170 4.730
48 FC6 171 3.265
48 FC6 172 1.801
48 FC6 173 0.824
48 FC6 174 1.312
48 FC6 175 2.289
48 FC6 176 3.265
48 FC6 177 4.242
48 FC6 178 5.219
48 FC6 179 6.195
48 FC6 180 7.660
48 FC6 181 8.636
48 FC6 182 9.613
48 FC6 183 10.101
48 FC6 184 9.613
48 FC6 185 8.636
48 FC6 186 7.660
48 FC6 187 6.683
48 FC6 188 6.195
48 FC6 189 6.195
48 FC6 190 6.195
48 FC6 191 6.195
48 FC6 192 4.730
48 FC6 193 2.289
48 FC6 194 -0.153
48 FC6 195 -2.106
48 FC6 196 -2.594
48 FC6 197 -1.617
48 FC6 198 0.824
48 FC6 199 2.289
48 FC6 200 3.754
48 FC6 201 4.730
48 FC6 202 6.195
48 FC6 203 7.172
48 FC6 204 7.660
48 FC6 205 7.660
48 FC6 206 7.172
48 FC6 207 7.172
48 FC6 208 7.172
48 FC6 209 7.660
48 FC6 210 7.660
48 FC6 211 7.660
48 FC6 212 7.660
48 FC6 213 7.660
48 FC6 214 7.660
48 FC6 215 7.660
48 FC6 216 6.195
48 FC6 217 3.754
48 FC6 218 0.824
48 FC6 219 -1.129
48 FC6 220 -1.617
48 FC6 221 -0.641
48 FC6 222 0.336
48 FC6 223 0.824
48 FC6 224 0.824
48 FC6 225 -0.153
48 FC6 226 -0.641
48 FC6 227 -0.641
48 FC6 228 -0.641
48 FC6 229 -0.153
48 FC6 230 0.336
48 FC6 231 0.824
48 FC6 232 0.824
48 FC6 233 0.824
48 FC6 234 0.824
48 FC6 235 -0.153
48 FC6 236 -0.641
48 FC6 237 -0.641
48 FC6 238 -0.153
48 FC6 239 0.336
48 FC6 240 0.336
48 FC6 241 -0.153
48 FC6 242 -0.153
48 FC6 243 1.801
48 FC6 244 5.219
48 FC6 245 9.613
48 FC6 246 12.054
48 FC6 247 12.054
48 FC6 248 10.101
48 FC6 249 7.172
48 FC6 250 4.730
48 FC6 251 4.730
48 FC6 252 5.219
48 FC6 253 5.219
48 FC6 254 5.219
48 FC6 255 4.730
# FC5 chan 10
48 FC5 0 -1.272
48 FC5 1 -0.783
48 FC5 2 -0.295
48 FC5 3 0.193
48 FC5 4 -0.783
48 FC5 5 -2.248
48 FC5 6 -3.713
48 FC5 7 -4.201
48 FC5 8 -3.225
48 FC5 9 -2.736
48 FC5 10 -3.225
48 FC5 11 -5.178
48 FC5 12 -7.131
48 FC5 13 -8.108
48 FC5 14 -6.154
48 FC5 15 -3.225
48 FC5 16 -0.295
48 FC5 17 0.682
48 FC5 18 -0.295
48 FC5 19 -2.248
48 FC5 20 -4.201
48 FC5 21 -5.666
48 FC5 22 -6.154
48 FC5 23 -5.666
48 FC5 24 -5.178
48 FC5 25 -4.690
48 FC5 26 -4.201
48 FC5 27 -4.201
48 FC5 28 -4.690
48 FC5 29 -5.666
48 FC5 30 -6.154
48 FC5 31 -7.131
48 FC5 32 -7.619
48 FC5 33 -8.596
48 FC5 34 -9.084
48 FC5 35 -9.084
48 FC5 36 -7.619
48 FC5 37 -4.201
48 FC5 38 -0.295
48 FC5 39 2.635
48 FC5 40 3.123
48 FC5 41 1.170
48 FC5 42 -2.248
48 FC5 43 -5.178
48 FC5 44 -6.643
48 FC5 45 -7.131
48 FC5 46 -6.643
48 FC5 47 -6.643
48 FC5 48 -6.154
48 FC5 49 -5.178
48 FC5 50 -3.225
48 FC5 51 -1.272
48 FC5 52 0.682
48 FC5 53 1.658
48 FC5 54 2.146
48 FC5 55 1.170
48 FC5 56 1.170
48 FC5 57 0.193
48 FC5 58 -0.295
48 FC5 59 -0.295
48 FC5 60 -0.295
48 FC5 61 0.193
48 FC5 62 0.193
48 FC5 63 0.193
48 FC5 64 -0.295
48 FC5 65 -0.783
48 FC5 66 -1.272
48 FC5 67 -1.760
48 FC5 68 -1.760
48 FC5 69 -1.760
48 FC5 70 -1.272
48 FC5 71 -0.295
48 FC5 72 1.170
48 FC5 73 3.123
48 FC5 74 5.076
48 FC5 75 6.541
48 FC5 76 6.541
48 FC5 77 6.053
48 FC5 78 5.564
48 FC5 79 5.076
48 FC5 80 6.053
48 FC5 81 6.541
48 FC5 82 7.517
48 FC5 83 8.006
48 FC5 84 8.982
48 FC5 85 9.471
48 FC5 86 9.471
48 FC5 87 8.494
48 FC5 88 7.029
48 FC5 89 4.588
48 FC5 90 3.123
48 FC5 91 2.146
48 FC5 92 2.146
48 FC5 93 3.611
48 FC5 94 5.076
48 FC5 95 6.053
48 FC5 96 6.053
48 FC5 97 5.564
48 FC5 98 4.588
48 FC5 99 3.611
48 FC5 100 3.611
48 FC5 101 3.611
48 FC5 102 4.100
48 FC5 103 4.588
48 FC5 104 4.588
48 FC5 105 5.076
48 FC5 106 5.564
48 FC5 107 6.053
48 FC5 108 6.053
48 FC5 109 5.564
48 FC5 110 3.611
48 FC5 111 2.635
48 FC5 112 1.658
48 FC5 113 2.146
48 FC5 114 2.146
48 FC5 115 1.658
48 FC5 116 0.193
48 FC5 117 -1.272
48 FC5 118 -1.272
48 FC5 119 0.193
48 FC5 120 2.146
48 FC5 121 4.100
48 FC5 122 4.100
48 FC5 123 3.123
48 FC5 124 1.170
48 FC5 125 0.193
48 FC5 126 0.193
48 FC5 127 1.658
48 FC5 128 3.123
48 FC5 129 4.100
48 FC5 130 4.588
48 FC5 131 5.076
48 FC5 132 5.564
48 FC5 133 6.053
48 FC5 134 6.053
48 FC5 135 5.076
48 FC5 136 3.123
48 FC5 137 2.146
48 FC5 138 1.170
48 FC5 139 0.682
48 FC5 140 1.170
48 FC5 141 1.170
48 FC5 142 0.682
48 FC5 143 0.682
48 FC5 144 0.193
48 FC5 145 0.682
48 FC5 146 1.170
48 FC5 147 1.170
48 FC5 148 1.170
48 FC5 149 1.170
48 FC5 150 2.146
48 FC5 151 3.123
48 FC5 152 4.588
48 FC5 153 6.053
48 FC5 154 6.541
48 FC5 155 6.541
48 FC5 156 5.564
48 FC5 157 4.100
48 FC5 158 2.635
48 FC5 159 0.682
48 FC5 160 -1.272
48 FC5 161 -3.225
48 FC5 162 -5.178
48 FC5 163 -5.666
48 FC5 164 -5.666
48 FC5 165 -5.178
48 FC5 166 -3.713
48 FC5 167 -3.225
48 FC5 168 -2.736
48 FC5 169 -2.248
48 FC5 170 -0.295
48 FC5 171 2.146
48 FC5 172 4.100
48 FC5 173 5.076
48 FC5 174 4.588
48 FC5 175 3.611
48 FC5 176 3.123
48 FC5 177 3.611
48 FC5 178 4.100
48 FC5 179 4.588
48 FC5 180 3.611
48 FC5 181 2.635
48 FC5 182 2.146
48 FC5 183 2.635
48 FC5 184 4.100
48 FC5 185 4.588
48 FC5 186 3.611
48 FC5 187 2.146
48 FC5 188 0.193
48 FC5 189 -1.272
48 FC5 190 -1.272
48 FC5 191 -1.272
48 FC5 192 -0.783
48 FC5 193 -0.783
48 FC5 194 -0.783
48 FC5 195 -0.783
48 FC5 196 -1.272
48 FC5 197 -0.783
48 FC5 198 -0.295
48 FC5 199 0.682
48 FC5 200 1.658
48 FC5 201 2.635
48 FC5 202 2.635
48 FC5 203 3.123
48 FC5 204 3.123
48 FC5 205 3.611
48 FC5 206 4.100
48 FC5 207 3.611
48 FC5 208 2.635
48 FC5 209 1.170
48 FC5 210 0.193
48 FC5 211 0.193
48 FC5 212 0.682
48 FC5 213 0.682
48 FC5 214 -0.295
48 FC5 215 -1.760
48 FC5 216 -3.225
48 FC5 217 -3.713
48 FC5 218 -3.225
48 FC5 219 -2.248
48 FC5 220 -2.736
48 FC5 221 -3.225
48 FC5 222 -4.201
48 FC5 223 -4.690
48 FC5 224 -4.201
48 FC5 225 -3.713
48 FC5 226 -2.736
48 FC5 227 -1.760
48 FC5 228 -0.783
48 FC5 229 0.682
48 FC5 230 1.170
48 FC5 231 1.658
48 FC5 232 0.682
48 FC5 233 -0.295
48 FC5 234 -1.272
48 FC5 235 -0.295
48 FC5 236 1.170
48 FC5 237 3.123
48 FC5 238 3.611
48 FC5 239 2.635
48 FC5 240 1.170
48 FC5 241 0.193
48 FC5 242 0.682
48 FC5 243 1.170
48 FC5 244 1.658
48 FC5 245 2.146
48 FC5 246 2.635
48 FC5 247 3.123
48 FC5 248 4.100
48 FC5 249 5.564
48 FC5 250 6.053
48 FC5 251 5.076
48 FC5 252 3.123
48 FC5 253 0.682
48 FC5 254 -0.783
48 FC5 255 -0.783
# FC2 chan 11
48 FC2 0 -0.051
48 FC2 1 -0.539
48 FC2 2 -1.516
48 FC2 3 -1.516
48 FC2 4 -2.004
48 FC2 5 -1.516
48 FC2 6 -1.027
48 FC2 7 -0.051
48 FC2 8 0.926
48 FC2 9 1.414
48 FC2 10 1.414
48 FC2 11 1.902
48 FC2 12 2.879
48 FC2 13 3.855
48 FC2 14 5.809
48 FC2 15 7.273
48 FC2 16 8.250
48 FC2 17 7.762
48 FC2 18 6.297
48 FC2 19 3.855
48 FC2 20 1.414
48 FC2 21 -0.539
48 FC2 22 -2.492
48 FC2 23 -3.469
48 FC2 24 -3.957
48 FC2 25 -4.445
48 FC2 26 -4.445
48 FC2 27 -4.445
48 FC2 28 -4.934
48 FC2 29 -5.422
48 FC2 30 -5.422
48 FC2 31 -5.910
48 FC2 32 -5.910
48 FC2 33 -5.910
48 FC2 34 -5.422
48 FC2 35 -4.445
48 FC2 36 -3.469
48 FC2 37 -2.981
48 FC2 38 -2.004
48 FC2 39 -1.516
48 FC2 40 -0.539
48 FC2 41 -0.051
48 FC2 42 -0.051
48 FC2 43 -0.539
48 FC2 44 -1.516
48 FC2 45 -2.004
48 FC2 46 -2.492
48 FC2 47 -2.492
48 FC2 48 -2.492
48 FC2 49 -2.492
48 FC2 50 -2.492
48 FC2 51 -2.004
48 FC2 52 -1.516
48 FC2 53 -1.516
48 FC2 54 -1.516
48 FC2 55 -1.516
48 FC2 56 -1.516
48 FC2 57 -2.004
48 FC2 58 -1.516
48 FC2 59 -0.539
48 FC2 60 0.437
48 FC2 61 0.926
48 FC2 62 0.926
48 FC2 63 0.437
48 FC2 64 0.437
48 FC2 65 0.437
48 FC2 66 1.414
48 FC2 67 1.902
48 FC2 68 1.902
48 FC2 69 0.926
48 FC2 70 -0.539
48 FC2 71 -1.516
48 FC2 72 -1.516
48 FC2 73 -1.516
48 FC2 74 -1.027
48 FC2 75 -1.027
48 FC2 76 -0.539
48 FC2 77 -0.539
48 FC2 78 -0.051
48 FC2 79 0.437
48 FC2 80 1.414
48 FC2 81 1.902
48 FC2 82 1.902
48 FC2 83 2.879
48 FC2 84 2.391
48 FC2 85 1.902
48 FC2 86 1.414
48 FC2 87 0.926
48 FC2 88 0.437
48 FC2 89 0.926
48 FC2 90 1.414
48 FC2 91 1.414
48 FC2 92 1.414
48 FC2 93 0.926
48 FC2 94 -0.539
48 FC2 95 -1.516
48 FC2 96 -2.981
48 FC2 97 -3.469
48 FC2 98 -3.469
48 FC2 99 -3.469
48 FC2 100 -2.981
48 FC2 101 -2.492
48 FC2 102 -2.492
48 FC2 103 -2.492
48 FC2 104 -2.004
48 FC2 105 -1.516
48 FC2 106 -0.539
48 FC2 107 0.437
48 FC2 108 0.437
48 FC2 109 -0.051
48 FC2 110 -0.539
48 FC2 111 -1.516
48 FC2 112 -2.004
48 FC2 113 -1.516
48 FC2 114 -1.027
48 FC2 115 0.437
48 FC2 116 0.926
48 FC2 117 0.926
48 FC2 118 0.437
48 FC2 119 -0.539
48 FC2 120 -1.027
48 FC2 121 -1.027
48 FC2 122 -0.539
48 FC2 123 -0.051
48 FC2 124 0.437
48 FC2 125 0.437
48 FC2 126 0.437
48 FC2 127 0.926
48 FC2 128 1.902
48 FC2 129 3.855
48 FC2 130 5.809
48 FC2 131 7.273
48 FC2 132 7.273
48 FC2 133 6.785
48 FC2 134 6.297
48 FC2 135 5.320
48 FC2 136 4.344
48 FC2 137 3.367
48 FC2 138 2.391
48 FC2 139 1.414
48 FC2 140 0.437
48 FC2 141 0.437
48 FC2 142 0.926
48 FC2 143 0.926
48 FC2 144 1.414
48 FC2 145 1.902
48 FC2 146 1.902
48 FC2 147 1.902
48 FC2 148 1.902
48 FC2 149 1.414
48 FC2 150 1.414
48 FC2 151 0.926
48 FC2 152 0.926
48 FC2 153 1.414
48 FC2 154 1.902
48 FC2 155 3.367
48 FC2 156 4.832
48 FC2 157 5.809
48 FC2 158 5.320
48 FC2 159 4.344
48 FC2 160 2.879
48 FC2 161 1.414
48 FC2 162 0.437
48 FC2 163 0.437
48 FC2 164 0.437
48 FC2 165 0.437
48 FC2 166 0.437
48 FC2 167 0.437
48 FC2 168 0.437
48 FC2 169 0.437
48 FC2 170 1.414
48 FC2 171 1.902
48 FC2 172 2.391
48 FC2 173 3.367
48 FC2 174 4.344
48 FC2 175 5.320
48 FC2 176 5.809
48 FC2 177 6.297
48 FC2 178 6.785
48 FC2 179 7.273
48 FC2 180 7.273
48 FC2 181 7.762
48 FC2 182 8.250
48 FC2 183 8.738
48 FC2 184 8.738
48 FC2 185 8.738
48 FC2 186 7.273
48 FC2 187 5.809
48 FC2 188 4.344
48 FC2 189 3.367
48 FC2 190 2.879
48 FC2 191 2.879
48 FC2 192 2.879
48 FC2 193 1.902
48 FC2 194 0.926
48 FC2 195 -0.051
48 FC2 196 -0.539
48 FC2 197 -0.051
48 FC2 198 0.437
48 FC2 199 1.414
48 FC2 200 2.879
48 FC2 201 3.367
48 FC2 202 4.344
48 FC2 203 4.832
48 FC2 204 4.832
48 FC2 205 4.832
48 FC2 206 4.344
48 FC2 207 4.344
48 FC2 208 4.344
48 FC2 209 4.344
48 FC2 210 4.344
48 FC2 211 3.855
48 FC2 212 3.855
48 FC2 213 3.367
48 FC2 214 3.367
48 FC2 215 2.879
48 FC2 216 1.902
48 FC2 217 0.926
48 FC2 218 0.437
48 FC2 219 -1.027
48 FC2 220 -1.516
48 FC2 221 -1.516
48 FC2 222 -1.027
48 FC2 223 -1.027
48 FC2 224 -1.027
48 FC2 225 -1.027
48 FC2 226 -0.539
48 FC2 227 -0.051
48 FC2 228 -0.051
48 FC2 229 -0.051
48 FC2 230 0.437
48 FC2 231 0.437
48 FC2 232 1.414
48 FC2 233 1.902
48 FC2 234 1.902
48 FC2 235 2.391
48 FC2 236 1.414
48 FC2 237 0.926
48 FC2 238 0.437
48 FC2 239 -0.051
48 FC2 240 -0.539
48 FC2 241 -1.027
48 FC2 242 -1.516
48 FC2 243 -1.027
48 FC2 244 0.437
48 FC2 245 1.902
48 FC2 246 3.855
48 FC2 247 4.344
48 FC2 248 3.855
48 FC2 249 2.391
48 FC2 250 0.926
48 FC2 251 -0.051
48 FC2 252 -0.539
48 FC2 253 -1.516
48 FC2 254 -1.516
48 FC2 255 -2.004
# FC1 chan 12
48 FC1 0 -1.750
48 FC1 1 -1.750
48 FC1 2 -1.750
48 FC1 3 -1.750
48 FC1 4 -2.238
48 FC1 5 -2.238
48 FC1 6 -2.238
48 FC1 7 -2.726
48 FC1 8 -3.215
48 FC1 9 -3.703
48 FC1 10 -4.191
48 FC1 11 -4.191
48 FC1 12 -4.191
48 FC1 13 -3.215
48 FC1 14 -1.750
48 FC1 15 -0.773
48 FC1 16 -0.285
48 FC1 17 -0.285
48 FC1 18 -0.773
48 FC1 19 -1.750
48 FC1 20 -3.215
48 FC1 21 -4.679
48 FC1 22 -5.656
48 FC1 23 -5.656
48 FC1 24 -4.679
48 FC1 25 -3.703
48 FC1 26 -3.215
48 FC1 27 -3.703
48 FC1 28 -4.191
48 FC1 29 -5.168
48 FC1 30 -5.656
48 FC1 31 -5.656
48 FC1 32 -5.656
48 FC1 33 -5.656
48 FC1 34 -5.656
48 FC1 35 -5.656
48 FC1 36 -5.168
48 FC1 37 -4.191
48 FC1 38 -2.726
48 FC1 39 -1.750
48 FC1 40 -1.750
48 FC1 41 -2.238
48 FC1 42 -3.703
48 FC1 43 -4.679
48 FC1 44 -5.656
48 FC1 45 -5.656
48 FC1 46 -5.656
48 FC1 47 -5.168
48 FC1 48 -4.679
48 FC1 49 -4.679
48 FC1 50 -4.191
48 FC1 51 -3.703
48 FC1 52 -3.703
48 FC1 53 -3.215
48 FC1 54 -3.215
48 FC1 55 -3.215
48 FC1 56 -3.215
48 FC1 57 -3.703
48 FC1 58 -3.703
48 FC1 59 -3.703
48 FC1 60 -3.703
48 FC1 61 -4.191
48 FC1 62 -4.191
48 FC1 63 -3.703
48 FC1 64 -3.703
48 FC1 65 -3.215
48 FC1 66 -3.215
48 FC1 67 -3.215
48 FC1 68 -3.703
48 FC1 69 -4.191
48 FC1 70 -4.679
48 FC1 71 -5.168
48 FC1 72 -5.168
48 FC1 73 -5.168
48 FC1 74 -4.679
48 FC1 75 -3.703
48 FC1 76 -3.215
48 FC1 77 -2.238
48 FC1 78 -1.261
48 FC1 79 -0.773
48 FC1 80 -0.773
48 FC1 81 -0.773
48 FC1 82 -0.773
48 FC1 83 -0.285
48 FC1 84 -0.285
48 FC1 85 -0.773
48 FC1 86 -0.773
48 FC1 87 -1.750
48 FC1 88 -2.726
48 FC1 89 -3.703
48 FC1 90 -4.191
48 FC1 91 -4.679
48 FC1 92 -4.679
48 FC1 93 -4.191
48 FC1 94 -3.703
48 FC1 95 -3.703
48 FC1 96 -3.215
48 FC1 97 -3.215
48 FC1 98 -3.703
48 FC1 99 -3.703
48 FC1 100 -3.215
48 FC1 101 -2.726
48 FC1 102 -2.238
48 FC1 103 -2.238
48 FC1 104 -1.750
48 FC1 105 -1.261
48 FC1 106 -0.285
48 FC1 107 0.692
48 FC1 108 0.692
48 FC1 109 0.203
48 FC1 110 -1.261
48 FC1 111 -2.726
48 FC1 112 -3.215
48 FC1 113 -3.215
48 FC1 114 -2.726
48 FC1 115 -2.238
48 FC1 116 -2.726
48 FC1 117 -2.726
48 FC1 118 -2.726
48 FC1 119 -2.238
48 FC1 120 -0.773
48 FC1 121 0.203
48 FC1 122 0.692
48 FC1 123 -0.285
48 FC1 124 -0.773
48 FC1 125 -1.261
48 FC1 126 -1.261
48 FC1 127 -0.773
48 FC1 128 -0.285
48 FC1 129 1.180
48 FC1 130 2.645
48 FC1 131 4.598
48 FC1 132 5.575
48 FC1 133 5.575
48 FC1 134 5.086
48 FC1 135 3.621
48 FC1 136 2.645
48 FC1 137 1.668
48 FC1 138 1.668
48 FC1 139 1.668
48 FC1 140 1.180
48 FC1 141 0.692
48 FC1 142 0.692
48 FC1 143 0.692
48 FC1 144 1.180
48 FC1 145 1.668
48 FC1 146 2.157
48 FC1 147 2.157
48 FC1 148 2.645
48 FC1 149 2.645
48 FC1 150 2.645
48 FC1 151 3.133
48 FC1 152 3.621
48 FC1 153 3.621
48 FC1 154 4.110
48 FC1 155 5.086
48 FC1 156 5.086
48 FC1 157 4.598
48 FC1 158 3.133
48 FC1 159 1.180
48 FC1 160 -0.773
48 FC1 161 -2.238
48 FC1 162 -2.726
48 FC1 163 -2.726
48 FC1 164 -2.238
48 FC1 165 -1.261
48 FC1 166 -0.773
48 FC1 167 0.203
48 FC1 168 0.692
48 FC1 169 0.692
48 FC1 170 1.180
48 FC1 171 2.157
48 FC1 172 3.621
48 FC1 173 4.598
48 FC1 174 5.575
48 FC1 175 6.063
48 FC1 176 6.063
48 FC1 177 6.063
48 FC1 178 5.575
48 FC1 179 5.575
48 FC1 180 5.086
48 FC1 181 5.086
48 FC1 182 5.086
48 FC1 183 5.086
48 FC1 184 5.575
48 FC1 185 5.575
48 FC1 186 4.598
48 FC1 187 3.621
48 FC1 188 2.157
48 FC1 189 0.692
48 FC1 190 -0.285
48 FC1 191 -0.773
48 FC1 192 -1.750
48 FC1 193 -1.750
48 FC1 194 -1.261
48 FC1 195 -0.773
48 FC1 196 -0.285
48 FC1 197 0.692
48 FC1 198 0.692
48 FC1 199 0.692
48 FC1 200 0.692
48 FC1 201 1.180
48 FC1 202 1.668
48 FC1 203 2.157
48 FC1 204 2.645
48 FC1 205 2.645
48 FC1 206 2.157
48 FC1 207 1.180
48 FC1 208 0.692
48 FC1 209 -0.285
48 FC1 210 -0.285
48 FC1 211 -0.773
48 FC1 212 -1.750
48 FC1 213 -2.238
48 FC1 214 -3.215
48 FC1 215 -4.191
48 FC1 216 -4.679
48 FC1 217 -4.679
48 FC1 218 -4.191
48 FC1 219 -3.703
48 FC1 220 -3.703
48 FC1 221 -3.703
48 FC1 222 -4.191
48 FC1 223 -4.679
48 FC1 224 -4.679
48 FC1 225 -4.679
48 FC1 226 -3.703
48 FC1 227 -2.726
48 FC1 228 -1.750
48 FC1 229 -0.773
48 FC1 230 -0.285
48 FC1 231 0.203
48 FC1 232 0.203
48 FC1 233 0.203
48 FC1 234 -0.285
48 FC1 235 0.203
48 FC1 236 -0.285
48 FC1 237 -0.773
48 FC1 238 -2.238
48 FC1 239 -3.215
48 FC1 240 -3.703
48 FC1 241 -3.703
48 FC1 242 -2.726
48 FC1 243 -1.750
48 FC1 244 -0.773
48 FC1 245 0.203
48 FC1 246 0.692
48 FC1 247 0.692
48 FC1 248 0.692
48 FC1 249 0.692
48 FC1 250 -0.285
48 FC1 251 -0.773
48 FC1 252 -2.238
48 FC1 253 -3.215
48 FC1 254 -4.191
48 FC1 255 -4.191
# T8 chan 13
48 T8 0 -3.286
48 T8 1 -3.286
48 T8 2 -4.751
48 T8 3 -5.239
48 T8 4 -5.727
48 T8 5 -4.751
48 T8 6 -3.286
48 T8 7 -1.333
48 T8 8 0.132
48 T8 9 0.621
48 T8 10 0.621
48 T8 11 -0.356
48 T8 12 -0.844
48 T8 13 0.621
48 T8 14 2.574
48 T8 15 5.015
48 T8 16 6.968
48 T8 17 7.456
48 T8 18 5.992
48 T8 19 4.038
48 T8 20 1.597
48 T8 21 -1.333
48 T8 22 -3.286
48 T8 23 -5.239
48 T8 24 -6.704
48 T8 25 -7.680
48 T8 26 -8.657
48 T8 27 -10.122
48 T8 28 -11.587
48 T8 29 -13.051
48 T8 30 -13.540
48 T8 31 -13.051
48 T8 32 -13.051
48 T8 33 -12.563
48 T8 34 -11.587
48 T8 35 -10.610
48 T8 36 -9.145
48 T8 37 -7.192
48 T8 38 -5.727
48 T8 39 -4.751
48 T8 40 -4.262
48 T8 41 -2.797
48 T8 42 -1.333
48 T8 43 0.621
48 T8 44 1.109
48 T8 45 0.132
48 T8 46 -2.309
48 T8 47 -4.262
48 T8 48 -6.215
48 T8 49 -6.215
48 T8 50 -5.727
48 T8 51 -5.239
48 T8 52 -4.751
48 T8 53 -5.239
48 T8 54 -5.239
48 T8 55 -5.239
48 T8 56 -4.751
48 T8 57 -3.286
48 T8 58 -1.821
48 T8 59 -0.356
48 T8 60 0.621
48 T8 61 0.621
48 T8 62 0.621
48 T8 63 0.132
48 T8 64 0.621
48 T8 65 1.597
48 T8 66 3.062
48 T8 67 3.550
48 T8 68 2.085
48 T8 69 0.621
48 T8 70 -1.333
48 T8 71 -2.309
48 T8 72 -2.309
48 T8 73 -1.333
48 T8 74 0.132
48 T8 75 0.621
48 T8 76 0.132
48 T8 77 0.132
48 T8 78 0.621
48 T8 79 1.109
48 T8 80 1.597
48 T8 81 2.085
48 T8 82 2.085
48 T8 83 3.062
48 T8 84 4.038
48 T8 85 5.015
48 T8 86 5.015
48 T8 87 5.015
48 T8 88 5.503
48 T8 89 7.456
48 T8 90 9.410
48 T8 91 11.363
48 T8 92 11.851
48 T8 93 9.898
48 T8 94 7.456
48 T8 95 4.527
48 T8 96 3.062
48 T8 97 2.574
48 T8 98 3.062
48 T8 99 3.062
48 T8 100 2.574
48 T8 101 1.597
48 T8 102 1.109
48 T8 103 1.109
48 T8 104 1.597
48 T8 105 2.085
48 T8 106 2.574
48 T8 107 2.574
48 T8 108 2.574
48 T8 109 3.062
48 T8 110 3.550
48 T8 111 4.527
48 T8 112 5.015
48 T8 113 4.527
48 T8 114 5.015
48 T8 115 5.503
48 T8 116 6.480
48 T8 117 6.968
48 T8 118 6.480
48 T8 119 5.503
48 T8 120 4.527
48 T8 121 3.550
48 T8 122 4.038
48 T8 123 5.503
48 T8 124 7.456
48 T8 125 8.433
48 T8 126 8.433
48 T8 127 7.945
48 T8 128 6.968
48 T8 129 6.480
48 T8 130 6.480
48 T8 131 6.968
48 T8 132 7.456
48 T8 133 8.433
48 T8 134 9.410
48 T8 135 9.410
48 T8 136 9.410
48 T8 137 7.945
48 T8 138 5.992
48 T8 139 3.062
48 T8 140 0.621
48 T8 141 -0.844
48 T8 142 0.132
48 T8 143 1.109
48 T8 144 2.574
48 T8 145 2.574
48 T8 146 1.597
48 T8 147 0.621
48 T8 148 0.132
48 T8 149 0.621
48 T8 150 1.597
48 T8 151 2.085
48 T8 152 2.085
48 T8 153 1.597
48 T8 154 1.597
48 T8 155 2.085
48 T8 156 3.550
48 T8 157 4.527
48 T8 158 4.527
48 T8 159 4.038
48 T8 160 3.550
48 T8 161 3.062
48 T8 162 2.085
48 T8 163 1.109
48 T8 164 0.132
48 T8 165 -0.844
48 T8 166 -0.356
48 T8 167 1.109
48 T8 168 2.574
48 T8 169 3.550
48 T8 170 2.085
48 T8 171 0.132
48 T8 172 -2.797
48 T8 173 -3.774
48 T8 174 -3.286
48 T8 175 -1.821
48 T8 176 -0.844
48 T8 177 0.132
48 T8 178 0.132
48 T8 179 1.109
48 T8 180 3.062
48 T8 181 5.015
48 T8 182 6.480
48 T8 183 6.480
48 T8 184 5.992
48 T8 185 4.527
48 T8 186 3.550
48 T8 187 3.550
48 T8 188 4.527
48 T8 189 5.992
48 T8 190 6.480
48 T8 191 5.503
48 T8 192 3.062
48 T8 193 -0.844
48 T8 194 -4.751
48 T8 195 -7.192
48 T8 196 -7.192
48 T8 197 -5.239
48 T8 198 -1.333
48 T8 199 2.085
48 T8 200 5.015
48 T8 201 6.968
48 T8 202 6.968
48 T8 203 6.480
48 T8 204 5.503
48 T8 205 5.015
48 T8 206 5.015
48 T8 207 5.015
48 T8 208 5.992
48 T8 209 6.968
48 T8 210 7.456
48 T8 211 7.945
48 T8 212 7.456
48 T8 213 6.968
48 T8 214 5.992
48 T8 215 5.503
48 T8 216 4.527
48 T8 217 3.062
48 T8 218 1.109
48 T8 219 -1.333
48 T8 220 -2.797
48 T8 221 -3.286
48 T8 222 -2.797
48 T8 223 -1.333
48 T8 224 -0.356
48 T8 225 0.621
48 T8 226 0.621
48 T8 227 0.132
48 T8 228 -0.356
48 T8 229 -0.356
48 T8 230 -0.356
48 T8 231 -1.333
48 T8 232 -2.309
48 T8 233 -3.774
48 T8 234 -5.239
48 T8 235 -5.239
48 T8 236 -3.774
48 T8 237 -1.821
48 T8 238 0.621
48 T8 239 2.085
48 T8 240 2.574
48 T8 241 2.085
48 T8 242 2.574
48 T8 243 4.527
48 T8 244 7.456
48 T8 245 11.363
48 T8 246 13.804
48 T8 247 13.804
48 T8 248 11.363
48 T8 249 7.945
48 T8 250 5.503
48 T8 251 5.015
48 T8 252 5.992
48 T8 253 6.968
48 T8 254 7.945
48 T8 255 8.433
# T7 chan 14
48 T7 0 -4.934
48 T7 1 -3.469
48 T7 2 -1.516
48 T7 3 -0.051
48 T7 4 -0.051
48 T7 5 -2.004
48 T7 6 -3.469
48 T7 7 -4.445
48 T7 8 -3.957
48 T7 9 -3.469
48 T7 10 -3.957
48 T7 11 -4.934
48 T7 12 -5.910
48 T7 13 -6.399
48 T7 14 -4.445
48 T7 15 -2.004
48 T7 16 -0.051
48 T7 17 -0.051
48 T7 18 -1.516
48 T7 19 -3.957
48 T7 20 -5.910
48 T7 21 -6.887
48 T7 22 -7.375
48 T7 23 -7.863
48 T7 24 -7.863
48 T7 25 -8.352
48 T7 26 -9.328
48 T7 27 -9.816
48 T7 28 -9.816
48 T7 29 -9.816
48 T7 30 -9.816
48 T7 31 -9.816
48 T7 32 -10.793
48 T7 33 -11.770
48 T7 34 -12.746
48 T7 35 -13.234
48 T7 36 -11.281
48 T7 37 -7.863
48 T7 38 -3.957
48 T7 39 -1.027
48 T7 40 -0.051
48 T7 41 -0.539
48 T7 42 -2.004
48 T7 43 -3.469
48 T7 44 -3.957
48 T7 45 -3.957
48 T7 46 -4.934
48 T7 47 -5.910
48 T7 48 -6.399
48 T7 49 -6.887
48 T7 50 -4.934
48 T7 51 -2.981
48 T7 52 -0.051
48 T7 53 2.391
48 T7 54 3.367
48 T7 55 3.367
48 T7 56 2.879
48 T7 57 1.902
48 T7 58 1.414
48 T7 59 1.414
48 T7 60 1.902
48 T7 61 2.879
48 T7 62 2.879
48 T7 63 2.391
48 T7 64 0.437
48 T7 65 -1.516
48 T7 66 -2.981
48 T7 67 -3.957
48 T7 68 -2.981
48 T7 69 -2.492
48 T7 70 -2.004
48 T7 71 -2.492
48 T7 72 -2.004
48 T7 73 -0.539
48 T7 74 1.902
48 T7 75 4.344
48 T7 76 5.809
48 T7 77 5.320
48 T7 78 3.855
48 T7 79 2.879
48 T7 80 2.879
48 T7 81 3.367
48 T7 82 4.344
48 T7 83 4.832
48 T7 84 4.832
48 T7 85 4.832
48 T7 86 4.832
48 T7 87 5.320
48 T7 88 5.809
48 T7 89 5.809
48 T7 90 5.320
48 T7 91 4.832
48 T7 92 3.855
48 T7 93 4.344
48 T7 94 5.320
48 T7 95 6.785
48 T7 96 6.785
48 T7 97 5.809
48 T7 98 5.320
48 T7 99 4.832
48 T7 100 5.320
48 T7 101 6.297
48 T7 102 6.785
48 T7 103 6.297
48 T7 104 5.809
48 T7 105 5.809
48 T7 106 6.297
48 T7 107 7.762
48 T7 108 7.273
48 T7 109 5.809
48 T7 110 3.367
48 T7 111 1.414
48 T7 112 1.414
48 T7 113 2.391
48 T7 114 3.367
48 T7 115 3.855
48 T7 116 2.391
48 T7 117 0.437
48 T7 118 -0.539
48 T7 119 0.437
48 T7 120 2.391
48 T7 121 3.855
48 T7 122 3.855
48 T7 123 2.879
48 T7 124 1.414
48 T7 125 0.926
48 T7 126 1.414
48 T7 127 2.391
48 T7 128 2.879
48 T7 129 3.855
48 T7 130 4.344
48 T7 131 4.832
48 T7 132 4.832
48 T7 133 4.344
48 T7 134 3.367
48 T7 135 1.902
48 T7 136 0.437
48 T7 137 -0.539
48 T7 138 -1.027
48 T7 139 -0.539
48 T7 140 -0.051
48 T7 141 0.437
48 T7 142 0.437
48 T7 143 0.437
48 T7 144 -0.051
48 T7 145 -1.027
48 T7 146 -1.516
48 T7 147 -2.004
48 T7 148 -1.516
48 T7 149 -1.516
48 T7 150 -1.027
48 T7 151 -0.539
48 T7 152 0.926
48 T7 153 2.879
48 T7 154 5.320
48 T7 155 7.273
48 T7 156 7.762
48 T7 157 6.297
48 T7 158 3.367
48 T7 159 0.926
48 T7 160 -1.027
48 T7 161 -1.516
48 T7 162 -2.004
48 T7 163 -2.492
48 T7 164 -2.981
48 T7 165 -3.957
48 T7 166 -3.957
48 T7 167 -3.957
48 T7 168 -3.469
48 T7 169 -2.004
48 T7 170 -1.027
48 T7 171 0.926
48 T7 172 2.391
48 T7 173 2.391
48 T7 174 0.926
48 T7 175 -1.027
48 T7 176 -2.004
48 T7 177 -2.004
48 T7 178 -1.516
48 T7 179 -0.051
48 T7 180 0.437
48 T7 181 -0.051
48 T7 182 -0.539
48 T7 183 -0.539
48 T7 184 -0.051
48 T7 185 0.926
48 T7 186 1.414
48 T7 187 0.926
48 T7 188 0.437
48 T7 189 -0.539
48 T7 190 -0.539
48 T7 191 -0.539
48 T7 192 -1.027
48 T7 193 -2.004
48 T7 194 -3.469
48 T7 195 -4.445
48 T7 196 -4.934
48 T7 197 -4.445
48 T7 198 -2.981
48 T7 199 -1.516
48 T7 200 -1.027
48 T7 201 -1.027
48 T7 202 -1.027
48 T7 203 -1.027
48 T7 204 -0.051
48 T7 205 0.926
48 T7 206 0.926
48 T7 207 0.437
48 T7 208 -0.539
48 T7 209 -1.027
48 T7 210 -1.027
48 T7 211 -0.539
48 T7 212 -0.051
48 T7 213 -0.051
48 T7 214 -0.051
48 T7 215 -0.051
48 T7 216 -0.051
48 T7 217 -0.051
48 T7 218 -0.051
48 T7 219 -0.539
48 T7 220 -2.004
48 T7 221 -2.492
48 T7 222 -2.492
48 T7 223 -2.492
48 T7 224 -1.516
48 T7 225 -1.516
48 T7 226 -1.516
48 T7 227 -1.027
48 T7 228 -0.539
48 T7 229 0.437
48 T7 230 0.926
48 T7 231 0.926
48 T7 232 -1.027
48 T7 233 -2.492
48 T7 234 -2.981
48 T7 235 -1.516
48 T7 236 1.902
48 T7 237 4.832
48 T7 238 5.320
48 T7 239 4.344
48 T7 240 2.879
48 T7 241 0.926
48 T7 242 0.926
48 T7 243 1.414
48 T7 244 1.414
48 T7 245 0.926
48 T7 246 -0.051
48 T7 247 -0.051
48 T7 248 1.902
48 T7 249 4.832
48 T7 250 6.785
48 T7 251 6.297
48 T7 252 4.344
48 T7 253 1.414
48 T7 254 -0.051
48 T7 255 -0.539
# CZ chan 15
48 CZ 0 -6.704
48 CZ 1 -7.680
48 CZ 2 -8.657
48 CZ 3 -8.657
48 CZ 4 -9.145
48 CZ 5 -8.657
48 CZ 6 -7.680
48 CZ 7 -6.215
48 CZ 8 -5.239
48 CZ 9 -5.239
48 CZ 10 -5.239
48 CZ 11 -3.774
48 CZ 12 -1.333
48 CZ 13 3.550
48 CZ 14 8.433
48 CZ 15 11.851
48 CZ 16 12.339
48 CZ 17 10.386
48 CZ 18 7.945
48 CZ 19 5.503
48 CZ 20 3.062
48 CZ 21 0.132
48 CZ 22 -1.821
48 CZ 23 -4.262
48 CZ 24 -5.727
48 CZ 25 -6.704
48 CZ 26 -8.657
48 CZ 27 -11.098
48 CZ 28 -13.540
48 CZ 29 -15.493
48 CZ 30 -16.469
48 CZ 31 -16.469
48 CZ 32 -16.469
48 CZ 33 -17.446
48 CZ 34 -17.934
48 CZ 35 -17.446
48 CZ 36 -14.516
48 CZ 37 -7.680
48 CZ 38 0.132
48 CZ 39 7.456
48 CZ 40 11.851
48 CZ 41 12.828
48 CZ 42 10.874
48 CZ 43 7.945
48 CZ 44 4.527
48 CZ 45 0.621
48 CZ 46 -3.286
48 CZ 47 -6.215
48 CZ 48 -7.192
48 CZ 49 -5.727
48 CZ 50 -2.309
48 CZ 51 1.109
48 CZ 52 4.038
48 CZ 53 4.038
48 CZ 54 3.062
48 CZ 55 2.085
48 CZ 56 2.085
48 CZ 57 4.038
48 CZ 58 6.480
48 CZ 59 7.945
48 CZ 60 8.921
48 CZ 61 9.410
48 CZ 62 9.898
48 CZ 63 9.898
48 CZ 64 9.898
48 CZ 65 8.433
48 CZ 66 6.968
48 CZ 67 5.503
48 CZ 68 5.503
48 CZ 69 5.992
48 CZ 70 7.456
48 CZ 71 8.433
48 CZ 72 9.410
48 CZ 73 10.874
48 CZ 74 12.339
48 CZ 75 13.804
48 CZ 76 14.292
48 CZ 77 14.292
48 CZ 78 14.292
48 CZ 79 14.292
48 CZ 80 14.781
48 CZ 81 16.734
48 CZ 82 17.710
48 CZ 83 17.710
48 CZ 84 16.734
48 CZ 85 15.269
48 CZ 86 15.757
48 CZ 87 17.710
48 CZ 88 20.640
48 CZ 89 23.570
48 CZ 90 24.546
48 CZ 91 23.570
48 CZ 92 21.617
48 CZ 93 20.152
48 CZ 94 18.687
48 CZ 95 17.710
48 CZ 96 16.246
48 CZ 97 15.757
48 CZ 98 15.757
48 CZ 99 16.734
48 CZ 100 16.246
48 CZ 101 13.804
48 CZ 102 10.874
48 CZ 103 8.433
48 CZ 104 9.410
48 CZ 105 13.804
48 CZ 106 19.175
48 CZ 107 22.105
48 CZ 108 20.640
48 CZ 109 16.246
48 CZ 110 11.363
48 CZ 111 9.410
48 CZ 112 11.851
48 CZ 113 15.269
48 CZ 114 18.199
48 CZ 115 18.687
48 CZ 116 17.222
48 CZ 117 15.757
48 CZ 118 14.781
48 CZ 119 15.269
48 CZ 120 15.757
48 CZ 121 15.757
48 CZ 122 15.269
48 CZ 123 15.269
48 CZ 124 16.246
48 CZ 125 17.710
48 CZ 126 18.687
48 CZ 127 18.199
48 CZ 128 16.246
48 CZ 129 14.781
48 CZ 130 13.804
48 CZ 131 14.781
48 CZ 132 16.246
48 CZ 133 17.710
48 CZ 134 18.687
48 CZ 135 17.710
48 CZ 136 15.757
48 CZ 137 12.828
48 CZ 138 9.898
48 CZ 139 8.433
48 CZ 140 7.945
48 CZ 141 9.410
48 CZ 142 10.874
48 CZ 143 12.339
48 CZ 144 11.851
48 CZ 145 9.898
48 CZ 146 6.968
48 CZ 147 5.503
48 CZ 148 5.992
48 CZ 149 8.921
48 CZ 150 11.851
48 CZ 151 13.804
48 CZ 152 13.804
48 CZ 153 11.851
48 CZ 154 10.874
48 CZ 155 10.874
48 CZ 156 11.851
48 CZ 157 13.804
48 CZ 158 14.292
48 CZ 159 13.804
48 CZ 160 11.363
48 CZ 161 7.456
48 CZ 162 1.597
48 CZ 163 -3.286
48 CZ 164 -5.239
48 CZ 165 -3.286
48 CZ 166 2.085
48 CZ 167 8.433
48 CZ 168 11.363
48 CZ 169 9.410
48 CZ 170 4.038
48 CZ 171 -0.844
48 CZ 172 -3.286
48 CZ 173 -3.286
48 CZ 174 -0.844
48 CZ 175 0.621
48 CZ 176 1.109
48 CZ 177 1.597
48 CZ 178 3.062
48 CZ 179 4.038
48 CZ 180 4.527
48 CZ 181 4.038
48 CZ 182 3.550
48 CZ 183 4.038
48 CZ 184 5.992
48 CZ 185 7.456
48 CZ 186 6.968
48 CZ 187 5.015
48 CZ 188 2.085
48 CZ 189 0.621
48 CZ 190 0.621
48 CZ 191 1.109
48 CZ 192 -0.844
48 CZ 193 -4.262
48 CZ 194 -9.633
48 CZ 195 -12.075
48 CZ 196 -12.563
48 CZ 197 -10.610
48 CZ 198 -8.169
48 CZ 199 -6.704
48 CZ 200 -5.239
48 CZ 201 -3.286
48 CZ 202 -0.356
48 CZ 203 1.597
48 CZ 204 2.574
48 CZ 205 0.621
48 CZ 206 -2.797
48 CZ 207 -5.727
48 CZ 208 -6.215
48 CZ 209 -4.751
48 CZ 210 -1.821
48 CZ 211 0.132
48 CZ 212 1.597
48 CZ 213 1.597
48 CZ 214 0.621
48 CZ 215 -0.844
48 CZ 216 -2.797
48 CZ 217 -5.239
48 CZ 218 -7.680
48 CZ 219 -9.633
48 CZ 220 -11.587
48 CZ 221 -12.563
48 CZ 222 -12.563
48 CZ 223 -12.075
48 CZ 224 -10.610
48 CZ 225 -8.657
48 CZ 226 -6.215
48 CZ 227 -5.239
48 CZ 228 -5.239
48 CZ 229 -5.727
48 CZ 230 -6.215
48 CZ 231 -6.215
48 CZ 232 -6.215
48 CZ 233 -6.215
48 CZ 234 -7.192
48 CZ 235 -8.657
48 CZ 236 -9.145
48 CZ 237 -9.145
48 CZ 238 -8.169
48 CZ 239 -7.680
48 CZ 240 -8.657
48 CZ 241 -10.122
48 CZ 242 -11.587
48 CZ 243 -9.633
48 CZ 244 -5.239
48 CZ 245 0.132
48 CZ 246 3.062
48 CZ 247 2.574
48 CZ 248 -0.356
48 CZ 249 -2.797
48 CZ 250 -1.333
48 CZ 251 2.085
48 CZ 252 5.992
48 CZ 253 5.015
48 CZ 254 -0.356
48 CZ 255 -7.192
# C3 chan 16
48 C3 0 0.061
48 C3 1 1.038
48 C3 2 1.526
48 C3 3 1.038
48 C3 4 0.549
48 C3 5 0.061
48 C3 6 -0.427
48 C3 7 -0.916
48 C3 8 -1.892
48 C3 9 -2.869
48 C3 10 -3.845
48 C3 11 -4.822
48 C3 12 -5.310
48 C3 13 -5.798
48 C3 14 -6.287
48 C3 15 -6.775
48 C3 16 -7.263
48 C3 17 -7.263
48 C3 18 -6.775
48 C3 19 -5.798
48 C3 20 -3.845
48 C3 21 -2.380
48 C3 22 -1.404
48 C3 23 0.061
48 C3 24 1.526
48 C3 25 2.014
48 C3 26 2.502
48 C3 27 2.014
48 C3 28 1.526
48 C3 29 0.549
48 C3 30 -0.427
48 C3 31 -1.404
48 C3 32 -1.892
48 C3 33 -2.380
48 C3 34 -2.380
48 C3 35 -1.892
48 C3 36 -0.916
48 C3 37 0.061
48 C3 38 0.549
48 C3 39 0.549
48 C3 40 0.549
48 C3 41 -0.427
48 C3 42 -1.892
48 C3 43 -2.869
48 C3 44 -3.845
48 C3 45 -3.845
48 C3 46 -3.357
48 C3 47 -2.869
48 C3 48 -1.892
48 C3 49 -0.916
48 C3 50 -0.427
48 C3 51 0.549
48 C3 52 1.526
48 C3 53 2.014
48 C3 54 2.991
48 C3 55 3.479
48 C3 56 3.479
48 C3 57 2.991
48 C3 58 2.014
48 C3 59 1.038
48 C3 60 0.061
48 C3 61 -0.427
48 C3 62 -0.427
48 C3 63 -0.427
48 C3 64 -0.916
48 C3 65 -1.892
48 C3 66 -3.357
48 C3 67 -3.845
48 C3 68 -3.845
48 C3 69 -3.357
48 C3 70 -1.892
48 C3 71 -0.916
48 C3 72 0.549
48 C3 73 1.038
48 C3 74 2.014
48 C3 75 2.502
48 C3 76 2.991
48 C3 77 2.991
48 C3 78 2.991
48 C3 79 2.991
48 C3 80 2.502
48 C3 81 2.502
48 C3 82 2.014
48 C3 83 1.526
48 C3 84 1.526
48 C3 85 1.038
48 C3 86 1.038
48 C3 87 0.061
48 C3 88 -1.404
48 C3 89 -3.357
48 C3 90 -4.822
48 C3 91 -5.798
48 C3 92 -5.798
48 C3 93 -4.822
48 C3 94 -3.357
48 C3 95 -1.892
48 C3 96 -0.916
48 C3 97 -0.427
48 C3 98 -0.427
48 C3 99 0.061
48 C3 100 0.061
48 C3 101 0.549
48 C3 102 0.549
48 C3 103 0.549
48 C3 104 0.549
48 C3 105 1.038
48 C3 106 1.526
48 C3 107 2.014
48 C3 108 1.526
48 C3 109 0.549
48 C3 110 -0.916
48 C3 111 -1.892
48 C3 112 -2.869
48 C3 113 -3.357
48 C3 114 -3.845
48 C3 115 -4.333
48 C3 116 -5.310
48 C3 117 -5.310
48 C3 118 -4.822
48 C3 119 -3.357
48 C3 120 -1.404
48 C3 121 -0.916
48 C3 122 -1.404
48 C3 123 -1.892
48 C3 124 -2.380
48 C3 125 -1.892
48 C3 126 -1.404
48 C3 127 -0.916
48 C3 128 -0.427
48 C3 129 -0.916
48 C3 130 -0.916
48 C3 131 -0.916
48 C3 132 -0.916
48 C3 133 -0.427
48 C3 134 -0.916
48 C3 135 -1.892
48 C3 136 -2.380
48 C3 137 -2.380
48 C3 138 -2.380
48 C3 139 -2.380
48 C3 140 -1.892
48 C3 141 -0.916
48 C3 142 -0.427
48 C3 143 0.061
48 C3 144 0.549
48 C3 145 0.549
48 C3 146 0.549
48 C3 147 0.061
48 C3 148 -0.427
48 C3 149 -0.427
48 C3 150 -0.427
48 C3 151 0.061
48 C3 152 0.549
48 C3 153 1.038
48 C3 154 1.526
48 C3 155 1.526
48 C3 156 0.549
48 C3 157 -0.916
48 C3 158 -2.380
48 C3 159 -4.822
48 C3 160 -6.287
48 C3 161 -7.263
48 C3 162 -6.775
48 C3 163 -5.798
48 C3 164 -3.845
48 C3 165 -1.892
48 C3 166 -0.427
48 C3 167 0.549
48 C3 168 1.038
48 C3 169 0.549
48 C3 170 0.061
48 C3 171 0.549
48 C3 172 1.038
48 C3 173 1.038
48 C3 174 1.038
48 C3 175 0.061
48 C3 176 -0.427
48 C3 177 -0.916
48 C3 178 -0.916
48 C3 179 -0.916
48 C3 180 -1.404
48 C3 181 -1.892
48 C3 182 -2.380
48 C3 183 -2.380
48 C3 184 -2.869
48 C3 185 -3.357
48 C3 186 -3.845
48 C3 187 -4.333
48 C3 188 -4.822
48 C3 189 -4.333
48 C3 190 -3.845
48 C3 191 -3.357
48 C3 192 -2.869
48 C3 193 -1.892
48 C3 194 -1.404
48 C3 195 0.061
48 C3 196 1.038
48 C3 197 1.038
48 C3 198 0.549
48 C3 199 0.061
48 C3 200 0.061
48 C3 201 0.549
48 C3 202 0.549
48 C3 203 0.549
48 C3 204 0.061
48 C3 205 -0.427
48 C3 206 -0.916
48 C3 207 -1.404
48 C3 208 -1.892
48 C3 209 -2.869
48 C3 210 -3.845
48 C3 211 -4.333
48 C3 212 -4.822
48 C3 213 -4.822
48 C3 214 -4.822
48 C3 215 -5.310
48 C3 216 -5.798
48 C3 217 -5.798
48 C3 218 -4.822
48 C3 219 -2.869
48 C3 220 -1.404
48 C3 221 -0.427
48 C3 222 -0.916
48 C3 223 -1.404
48 C3 224 -2.380
48 C3 225 -1.892
48 C3 226 -1.404
48 C3 227 0.061
48 C3 228 1.038
48 C3 229 1.038
48 C3 230 1.038
48 C3 231 0.061
48 C3 232 -0.427
48 C3 233 -0.916
48 C3 234 -1.404
48 C3 235 -1.404
48 C3 236 -0.916
48 C3 237 -0.916
48 C3 238 -0.916
48 C3 239 -0.916
48 C3 240 -0.916
48 C3 241 -0.916
48 C3 242 0.061
48 C3 243 1.038
48 C3 244 2.014
48 C3 245 2.014
48 C3 246 2.014
48 C3 247 1.526
48 C3 248 1.038
48 C3 249 1.038
48 C3 250 1.526
48 C3 251 1.526
48 C3 252 1.038
48 C3 253 0.061
48 C3 254 -0.916
48 C3 255 -1.404
# C4 chan 17
48 C4 0 -1.292
48 C4 1 -1.780
48 C4 2 -2.268
48 C4 3 -2.757
48 C4 4 -2.757
48 C4 5 -2.268
48 C4 6 -1.780
48 C4 7 -0.804
48 C4 8 -0.315
48 C4 9 0.173
48 C4 10 0.173
48 C4 11 0.661
48 C4 12 1.149
48 C4 13 1.638
48 C4 14 2.126
48 C4 15 1.638
48 C4 16 0.661
48 C4 17 -0.315
48 C4 18 -0.804
48 C4 19 -0.315
48 C4 20 0.173
48 C4 21 0.661
48 C4 22 0.173
48 C4 23 -1.292
48 C4 24 -2.757
48 C4 25 -3.245
48 C4 26 -3.245
48 C4 27 -3.245
48 C4 28 -3.245
48 C4 29 -3.245
48 C4 30 -3.733
48 C4 31 -4.222
48 C4 32 -4.222
48 C4 33 -3.733
48 C4 34 -3.245
48 C4 35 -3.245
48 C4 36 -3.245
48 C4 37 -3.733
48 C4 38 -4.222
48 C4 39 -4.222
48 C4 40 -3.733
48 C4 41 -2.268
48 C4 42 -0.804
48 C4 43 0.661
48 C4 44 1.638
48 C4 45 1.638
48 C4 46 1.149
48 C4 47 0.661
48 C4 48 -0.315
48 C4 49 -0.804
48 C4 50 -0.804
48 C4 51 -1.292
48 C4 52 -1.292
48 C4 53 -1.780
48 C4 54 -2.268
48 C4 55 -2.268
48 C4 56 -2.268
48 C4 57 -1.780
48 C4 58 -0.804
48 C4 59 0.661
48 C4 60 1.149
48 C4 61 1.638
48 C4 62 1.149
48 C4 63 0.661
48 C4 64 0.661
48 C4 65 1.638
48 C4 66 2.614
48 C4 67 3.103
48 C4 68 3.103
48 C4 69 1.638
48 C4 70 0.661
48 C4 71 0.173
48 C4 72 0.661
48 C4 73 1.149
48 C4 74 1.638
48 C4 75 1.638
48 C4 76 0.661
48 C4 77 -0.315
48 C4 78 -0.804
48 C4 79 -0.804
48 C4 80 -0.315
48 C4 81 0.661
48 C4 82 1.149
48 C4 83 1.149
48 C4 84 0.661
48 C4 85 0.661
48 C4 86 0.661
48 C4 87 1.149
48 C4 88 2.126
48 C4 89 3.591
48 C4 90 5.056
48 C4 91 6.032
48 C4 92 6.521
48 C4 93 6.032
48 C4 94 5.056
48 C4 95 3.591
48 C4 96 3.103
48 C4 97 2.614
48 C4 98 3.103
48 C4 99 3.103
48 C4 100 2.614
48 C4 101 2.126
48 C4 102 1.149
48 C4 103 0.661
48 C4 104 0.173
48 C4 105 0.173
48 C4 106 -0.315
48 C4 107 -0.804
48 C4 108 -0.804
48 C4 109 0.661
48 C4 110 1.638
48 C4 111 3.103
48 C4 112 4.079
48 C4 113 5.056
48 C4 114 5.056
48 C4 115 5.056
48 C4 116 5.544
48 C4 117 6.032
48 C4 118 5.544
48 C4 119 5.056
48 C4 120 3.591
48 C4 121 3.103
48 C4 122 3.103
48 C4 123 3.591
48 C4 124 4.567
48 C4 125 5.056
48 C4 126 4.567
48 C4 127 4.079
48 C4 128 3.103
48 C4 129 3.103
48 C4 130 3.103
48 C4 131 3.103
48 C4 132 3.103
48 C4 133 3.103
48 C4 134 3.591
48 C4 135 4.079
48 C4 136 5.056
48 C4 137 5.056
48 C4 138 4.567
48 C4 139 3.591
48 C4 140 2.614
48 C4 141 2.126
48 C4 142 2.126
48 C4 143 2.614
48 C4 144 2.614
48 C4 145 2.614
48 C4 146 2.126
48 C4 147 1.149
48 C4 148 1.149
48 C4 149 0.661
48 C4 150 0.661
48 C4 151 0.173
48 C4 152 -0.804
48 C4 153 -1.292
48 C4 154 -1.780
48 C4 155 -2.268
48 C4 156 -1.780
48 C4 157 -1.292
48 C4 158 0.173
48 C4 159 1.638
48 C4 160 2.614
48 C4 161 3.591
48 C4 162 4.079
48 C4 163 3.591
48 C4 164 3.103
48 C4 165 2.126
48 C4 166 2.126
48 C4 167 2.126
48 C4 168 2.126
48 C4 169 2.126
48 C4 170 1.149
48 C4 171 -0.315
48 C4 172 -1.292
48 C4 173 -1.780
48 C4 174 -1.780
48 C4 175 -1.780
48 C4 176 -1.780
48 C4 177 -2.268
48 C4 178 -2.268
48 C4 179 -1.292
48 C4 180 -0.315
48 C4 181 1.149
48 C4 182 1.638
48 C4 183 1.638
48 C4 184 1.149
48 C4 185 0.661
48 C4 186 0.173
48 C4 187 0.173
48 C4 188 0.173
48 C4 189 0.661
48 C4 190 1.149
48 C4 191 0.661
48 C4 192 0.173
48 C4 193 -0.804
48 C4 194 -1.780
48 C4 195 -2.268
48 C4 196 -2.268
48 C4 197 -1.780
48 C4 198 -0.804
48 C4 199 0.173
48 C4 200 1.149
48 C4 201 1.638
48 C4 202 1.638
48 C4 203 1.638
48 C4 204 1.149
48 C4 205 1.149
48 C4 206 1.149
48 C4 207 1.638
48 C4 208 2.126
48 C4 209 3.591
48 C4 210 4.079
48 C4 211 4.567
48 C4 212 5.056
48 C4 213 5.544
48 C4 214 6.032
48 C4 215 6.032
48 C4 216 5.544
48 C4 217 4.079
48 C4 218 2.614
48 C4 219 1.149
48 C4 220 0.173
48 C4 221 0.173
48 C4 222 1.149
48 C4 223 1.638
48 C4 224 1.638
48 C4 225 1.638
48 C4 226 1.149
48 C4 227 0.173
48 C4 228 -0.315
48 C4 229 -0.804
48 C4 230 -0.804
48 C4 231 0.173
48 C4 232 0.661
48 C4 233 0.661
48 C4 234 0.661
48 C4 235 -0.315
48 C4 236 -0.804
48 C4 237 -0.804
48 C4 238 0.173
48 C4 239 1.149
48 C4 240 1.638
48 C4 241 1.638
48 C4 242 1.149
48 C4 243 1.149
48 C4 244 1.638
48 C4 245 2.614
48 C4 246 3.591
48 C4 247 4.079
48 C4 248 3.103
48 C4 249 2.126
48 C4 250 1.149
48 C4 251 1.149
48 C4 252 1.638
48 C4 253 2.614
48 C4 254 3.103
48 C4 255 3.591
# CP5 chan 18
48 CP5 0 -3.174
48 CP5 1 -2.686
48 CP5 2 -2.197
48 CP5 3 -1.709
48 CP5 4 -1.221
48 CP5 5 -0.244
48 CP5 6 -0.244
48 CP5 7 -1.221
48 CP5 8 -2.197
48 CP5 9 -2.686
48 CP5 10 -3.662
48 CP5 11 -3.174
48 CP5 12 -2.686
48 CP5 13 -2.686
48 CP5 14 -2.686
48 CP5 15 -3.662
48 CP5 16 -4.150
48 CP5 17 -4.639
48 CP5 18 -4.639
48 CP5 19 -3.662
48 CP5 20 -2.686
48 CP5 21 -2.686
48 CP5 22 -2.197
48 CP5 23 -2.197
48 CP5 24 -2.686
48 CP5 25 -2.686
48 CP5 26 -3.174
48 CP5 27 -3.662
48 CP5 28 -3.662
48 CP5 29 -4.150
48 CP5 30 -4.639
48 CP5 31 -5.615
48 CP5 32 -6.104
48 CP5 33 -6.104
48 CP5 34 -5.615
48 CP5 35 -5.127
48 CP5 36 -4.150
48 CP5 37 -2.197
48 CP5 38 -0.244
48 CP5 39 1.221
48 CP5 40 2.686
48 CP5 41 3.174
48 CP5 42 2.686
48 CP5 43 0.732
48 CP5 44 -1.221
48 CP5 45 -3.174
48 CP5 46 -4.639
48 CP5 47 -5.127
48 CP5 48 -4.639
48 CP5 49 -3.662
48 CP5 50 -2.686
48 CP5 51 -1.221
48 CP5 52 0.244
48 CP5 53 1.709
48 CP5 54 3.662
48 CP5 55 4.639
48 CP5 56 5.615
48 CP5 57 5.615
48 CP5 58 4.639
48 CP5 59 3.174
48 CP5 60 2.197
48 CP5 61 2.197
48 CP5 62 2.197
48 CP5 63 1.709
48 CP5 64 1.221
48 CP5 65 -0.244
48 CP5 66 -2.686
48 CP5 67 -4.150
48 CP5 68 -5.127
48 CP5 69 -4.639
48 CP5 70 -3.174
48 CP5 71 -1.221
48 CP5 72 0.244
48 CP5 73 0.732
48 CP5 74 0.732
48 CP5 75 0.244
48 CP5 76 -0.244
48 CP5 77 -0.244
48 CP5 78 -0.244
48 CP5 79 0.244
48 CP5 80 0.244
48 CP5 81 -0.244
48 CP5 82 -0.244
48 CP5 83 -0.244
48 CP5 84 0.244
48 CP5 85 1.221
48 CP5 86 1.709
48 CP5 87 1.709
48 CP5 88 1.221
48 CP5 89 0.244
48 CP5 90 -1.221
48 CP5 91 -1.221
48 CP5 92 0.244
48 CP5 93 1.221
48 CP5 94 2.686
48 CP5 95 3.174
48 CP5 96 3.662
48 CP5 97 4.150
48 CP5 98 4.150
48 CP5 99 4.150
48 CP5 100 3.662
48 CP5 101 3.174
48 CP5 102 2.686
48 CP5 103 3.174
48 CP5 104 4.150
48 CP5 105 5.127
48 CP5 106 5.127
48 CP5 107 4.639
48 CP5 108 4.150
48 CP5 109 2.686
48 CP5 110 2.686
48 CP5 111 2.686
48 CP5 112 2.686
48 CP5 113 1.709
48 CP5 114 0.244
48 CP5 115 -1.709
48 CP5 116 -2.686
48 CP5 117 -2.686
48 CP5 118 -1.221
48 CP5 119 0.244
48 CP5 120 1.221
48 CP5 121 0.732
48 CP5 122 0.244
48 CP5 123 -0.244
48 CP5 124 -0.244
48 CP5 125 0.244
48 CP5 126 0.732
48 CP5 127 0.732
48 CP5 128 0.732
48 CP5 129 0.244
48 CP5 130 -0.244
48 CP5 131 -0.244
48 CP5 132 -0.732
48 CP5 133 -0.732
48 CP5 134 -1.221
48 CP5 135 -1.709
48 CP5 136 -2.197
48 CP5 137 -2.197
48 CP5 138 -2.197
48 CP5 139 -1.709
48 CP5 140 -1.709
48 CP5 141 -2.197
48 CP5 142 -2.197
48 CP5 143 -2.197
48 CP5 144 -2.197
48 CP5 145 -1.709
48 CP5 146 -1.709
48 CP5 147 -2.197
48 CP5 148 -3.174
48 CP5 149 -3.174
48 CP5 150 -2.686
48 CP5 151 -1.709
48 CP5 152 -0.244
48 CP5 153 0.244
48 CP5 154 0.244
48 CP5 155 0.244
48 CP5 156 -0.244
48 CP5 157 -1.221
48 CP5 158 -2.197
48 CP5 159 -3.174
48 CP5 160 -4.639
48 CP5 161 -5.615
48 CP5 162 -5.615
48 CP5 163 -5.127
48 CP5 164 -4.639
48 CP5 165 -4.150
48 CP5 166 -3.662
48 CP5 167 -4.150
48 CP5 168 -4.639
48 CP5 169 -5.127
48 CP5 170 -5.615
48 CP5 171 -5.127
48 CP5 172 -4.639
48 CP5 173 -5.127
48 CP5 174 -5.615
48 CP5 175 -6.104
48 CP5 176 -7.080
48 CP5 177 -7.568
48 CP5 178 -7.568
48 CP5 179 -7.080
48 CP5 180 -6.592
48 CP5 181 -6.104
48 CP5 182 -6.104
48 CP5 183 -6.592
48 CP5 184 -7.568
48 CP5 185 -8.545
48 CP5 186 -9.033
48 CP5 187 -8.545
48 CP5 188 -7.568
48 CP5 189 -6.104
48 CP5 190 -5.615
48 CP5 191 -6.104
48 CP5 192 -6.592
48 CP5 193 -7.568
48 CP5 194 -7.568
48 CP5 195 -7.080
48 CP5 196 -7.080
48 CP5 197 -7.568
48 CP5 198 -8.545
48 CP5 199 -9.521
48 CP5 200 -9.033
48 CP5 201 -8.545
48 CP5 202 -7.568
48 CP5 203 -7.568
48 CP5 204 -7.568
48 CP5 205 -7.568
48 CP5 206 -7.080
48 CP5 207 -6.592
48 CP5 208 -7.080
48 CP5 209 -7.568
48 CP5 210 -8.057
48 CP5 211 -8.057
48 CP5 212 -6.592
48 CP5 213 -5.127
48 CP5 214 -3.662
48 CP5 215 -3.662
48 CP5 216 -3.662
48 CP5 217 -4.150
48 CP5 218 -4.150
48 CP5 219 -3.174
48 CP5 220 -2.686
48 CP5 221 -2.686
48 CP5 222 -3.662
48 CP5 223 -5.127
48 CP5 224 -5.615
48 CP5 225 -5.127
48 CP5 226 -4.150
48 CP5 227 -2.197
48 CP5 228 -1.221
48 CP5 229 -0.732
48 CP5 230 -1.709
48 CP5 231 -2.686
48 CP5 232 -3.662
48 CP5 233 -4.639
48 CP5 234 -4.639
48 CP5 235 -4.639
48 CP5 236 -4.639
48 CP5 237 -3.662
48 CP5 238 -2.686
48 CP5 239 -1.709
48 CP5 240 -1.221
48 CP5 241 -1.221
48 CP5 242 -1.709
48 CP5 243 -1.709
48 CP5 244 -1.709
48 CP5 245 -2.197
48 CP5 246 -2.686
48 CP5 247 -3.662
48 CP5 248 -4.150
48 CP5 249 -4.150
48 CP5 250 -3.174
48 CP5 251 -2.686
48 CP5 252 -2.197
48 CP5 253 -2.686
48 CP5 254 -3.174
48 CP5 255 -3.662
# CP6 chan 19
48 CP6 0 -1.546
48 CP6 1 -2.035
48 CP6 2 -3.011
48 CP6 3 -3.011
48 CP6 4 -2.523
48 CP6 5 -0.570
48 CP6 6 1.872
48 CP6 7 3.337
48 CP6 8 3.337
48 CP6 9 2.360
48 CP6 10 0.895
48 CP6 11 -0.081
48 CP6 12 -0.081
48 CP6 13 0.407
48 CP6 14 0.895
48 CP6 15 1.383
48 CP6 16 1.383
48 CP6 17 1.872
48 CP6 18 2.360
48 CP6 19 2.848
48 CP6 20 3.337
48 CP6 21 2.848
48 CP6 22 1.872
48 CP6 23 0.407
48 CP6 24 -1.058
48 CP6 25 -2.035
48 CP6 26 -3.011
48 CP6 27 -3.988
48 CP6 28 -4.964
48 CP6 29 -5.452
48 CP6 30 -5.941
48 CP6 31 -5.452
48 CP6 32 -4.476
48 CP6 33 -3.499
48 CP6 34 -2.523
48 CP6 35 -2.523
48 CP6 36 -2.523
48 CP6 37 -2.523
48 CP6 38 -3.011
48 CP6 39 -3.011
48 CP6 40 -2.035
48 CP6 41 -0.081
48 CP6 42 3.337
48 CP6 43 6.266
48 CP6 44 7.731
48 CP6 45 7.243
48 CP6 46 5.290
48 CP6 47 2.360
48 CP6 48 0.895
48 CP6 49 0.895
48 CP6 50 1.872
48 CP6 51 2.360
48 CP6 52 2.360
48 CP6 53 1.383
48 CP6 54 -0.081
48 CP6 55 -0.081
48 CP6 56 0.407
48 CP6 57 1.383
48 CP6 58 2.848
48 CP6 59 4.313
48 CP6 60 5.290
48 CP6 61 5.778
48 CP6 62 5.778
48 CP6 63 6.266
48 CP6 64 6.755
48 CP6 65 7.731
48 CP6 66 8.219
48 CP6 67 8.219
48 CP6 68 6.755
48 CP6 69 4.801
48 CP6 70 2.848
48 CP6 71 2.360
48 CP6 72 3.337
48 CP6 73 4.801
48 CP6 74 6.266
48 CP6 75 6.266
48 CP6 76 5.290
48 CP6 77 3.825
48 CP6 78 2.848
48 CP6 79 2.848
48 CP6 80 2.848
48 CP6 81 2.848
48 CP6 82 2.848
48 CP6 83 3.337
48 CP6 84 4.313
48 CP6 85 5.290
48 CP6 86 5.778
48 CP6 87 6.755
48 CP6 88 7.731
48 CP6 89 8.708
48 CP6 90 9.684
48 CP6 91 10.661
48 CP6 92 11.149
48 CP6 93 10.661
48 CP6 94 9.684
48 CP6 95 8.219
48 CP6 96 6.755
48 CP6 97 5.778
48 CP6 98 5.290
48 CP6 99 4.801
48 CP6 100 4.801
48 CP6 101 4.801
48 CP6 102 4.801
48 CP6 103 4.313
48 CP6 104 3.337
48 CP6 105 2.360
48 CP6 106 1.383
48 CP6 107 1.383
48 CP6 108 1.872
48 CP6 109 2.848
48 CP6 110 4.801
48 CP6 111 6.266
48 CP6 112 6.755
48 CP6 113 7.243
48 CP6 114 6.755
48 CP6 115 6.755
48 CP6 116 7.243
48 CP6 117 7.243
48 CP6 118 6.755
48 CP6 119 5.778
48 CP6 120 4.313
48 CP6 121 3.337
48 CP6 122 3.825
48 CP6 123 4.801
48 CP6 124 6.266
48 CP6 125 6.755
48 CP6 126 6.755
48 CP6 127 5.778
48 CP6 128 4.801
48 CP6 129 3.337
48 CP6 130 1.872
48 CP6 131 0.895
48 CP6 132 -0.081
48 CP6 133 0.407
48 CP6 134 1.872
48 CP6 135 3.337
48 CP6 136 4.313
48 CP6 137 4.801
48 CP6 138 4.313
48 CP6 139 2.848
48 CP6 140 1.383
48 CP6 141 -0.081
48 CP6 142 -0.570
48 CP6 143 -0.081
48 CP6 144 -0.570
48 CP6 145 -1.058
48 CP6 146 -2.035
48 CP6 147 -3.011
48 CP6 148 -3.011
48 CP6 149 -3.011
48 CP6 150 -2.523
48 CP6 151 -2.523
48 CP6 152 -2.035
48 CP6 153 -2.523
48 CP6 154 -2.523
48 CP6 155 -2.523
48 CP6 156 -2.523
48 CP6 157 -2.035
48 CP6 158 -1.546
48 CP6 159 -0.570
48 CP6 160 0.895
48 CP6 161 1.383
48 CP6 162 1.872
48 CP6 163 0.895
48 CP6 164 -0.570
48 CP6 165 -1.546
48 CP6 166 -1.546
48 CP6 167 -0.570
48 CP6 168 0.407
48 CP6 169 -0.081
48 CP6 170 -1.546
48 CP6 171 -4.964
48 CP6 172 -7.406
48 CP6 173 -8.870
48 CP6 174 -8.382
48 CP6 175 -7.894
48 CP6 176 -7.894
48 CP6 177 -8.382
48 CP6 178 -9.847
48 CP6 179 -9.359
48 CP6 180 -7.406
48 CP6 181 -3.988
48 CP6 182 -1.546
48 CP6 183 -1.058
48 CP6 184 -1.546
48 CP6 185 -3.011
48 CP6 186 -3.011
48 CP6 187 -1.546
48 CP6 188 -0.081
48 CP6 189 0.895
48 CP6 190 0.895
48 CP6 191 -0.570
48 CP6 192 -2.523
48 CP6 193 -4.476
48 CP6 194 -5.941
48 CP6 195 -6.429
48 CP6 196 -5.452
48 CP6 197 -3.988
48 CP6 198 -1.546
48 CP6 199 0.407
48 CP6 200 1.872
48 CP6 201 2.360
48 CP6 202 1.872
48 CP6 203 0.895
48 CP6 204 0.407
48 CP6 205 0.407
48 CP6 206 1.383
48 CP6 207 2.360
48 CP6 208 3.337
48 CP6 209 3.825
48 CP6 210 4.313
48 CP6 211 4.313
48 CP6 212 3.825
48 CP6 213 4.313
48 CP6 214 4.801
48 CP6 215 5.290
48 CP6 216 5.290
48 CP6 217 4.313
48 CP6 218 2.360
48 CP6 219 -0.081
48 CP6 220 -1.546
48 CP6 221 -2.035
48 CP6 222 -0.570
48 CP6 223 0.895
48 CP6 224 2.360
48 CP6 225 2.848
48 CP6 226 2.360
48 CP6 227 1.383
48 CP6 228 -0.081
48 CP6 229 -0.081
48 CP6 230 -0.081
48 CP6 231 -0.570
48 CP6 232 -1.546
48 CP6 233 -3.011
48 CP6 234 -4.964
48 CP6 235 -5.452
48 CP6 236 -4.964
48 CP6 237 -3.011
48 CP6 238 -0.570
48 CP6 239 1.383
48 CP6 240 2.848
48 CP6 241 3.825
48 CP6 242 4.313
48 CP6 243 4.801
48 CP6 244 5.778
48 CP6 245 6.755
48 CP6 246 6.755
48 CP6 247 6.266
48 CP6 248 4.313
48 CP6 249 2.360
48 CP6 250 1.383
48 CP6 251 1.872
48 CP6 252 2.848
48 CP6 253 4.313
48 CP6 254 5.290
48 CP6 255 6.266
# CP1 chan 20
48 CP1 0 -0.285
48 CP1 1 0.203
48 CP1 2 0.692
48 CP1 3 1.180
48 CP1 4 1.668
48 CP1 5 1.180
48 CP1 6 0.692
48 CP1 7 0.203
48 CP1 8 -0.285
48 CP1 9 -0.285
48 CP1 10 -0.773
48 CP1 11 -0.773
48 CP1 12 -1.261
48 CP1 13 -2.238
48 CP1 14 -2.726
48 CP1 15 -3.703
48 CP1 16 -3.703
48 CP1 17 -3.703
48 CP1 18 -2.238
48 CP1 19 -1.261
48 CP1 20 0.203
48 CP1 21 1.180
48 CP1 22 1.668
48 CP1 23 2.157
48 CP1 24 2.645
48 CP1 25 2.645
48 CP1 26 3.133
48 CP1 27 2.645
48 CP1 28 2.645
48 CP1 29 2.645
48 CP1 30 2.645
48 CP1 31 2.645
48 CP1 32 2.157
48 CP1 33 2.157
48 CP1 34 2.157
48 CP1 35 1.668
48 CP1 36 2.157
48 CP1 37 2.157
48 CP1 38 2.157
48 CP1 39 2.157
48 CP1 40 2.157
48 CP1 41 2.157
48 CP1 42 2.645
48 CP1 43 2.157
48 CP1 44 1.668
48 CP1 45 1.668
48 CP1 46 1.668
48 CP1 47 1.180
48 CP1 48 0.692
48 CP1 49 0.692
48 CP1 50 0.203
48 CP1 51 0.692
48 CP1 52 1.180
48 CP1 53 1.668
48 CP1 54 2.157
48 CP1 55 2.645
48 CP1 56 2.645
48 CP1 57 2.645
48 CP1 58 2.645
48 CP1 59 2.157
48 CP1 60 1.668
48 CP1 61 1.180
48 CP1 62 1.668
48 CP1 63 1.668
48 CP1 64 1.668
48 CP1 65 1.180
48 CP1 66 -0.285
48 CP1 67 -1.261
48 CP1 68 -1.750
48 CP1 69 -1.261
48 CP1 70 -0.285
48 CP1 71 0.692
48 CP1 72 1.180
48 CP1 73 1.180
48 CP1 74 1.180
48 CP1 75 1.180
48 CP1 76 1.180
48 CP1 77 0.692
48 CP1 78 0.203
48 CP1 79 0.203
48 CP1 80 0.203
48 CP1 81 0.692
48 CP1 82 0.692
48 CP1 83 0.692
48 CP1 84 0.203
48 CP1 85 0.203
48 CP1 86 0.203
48 CP1 87 0.692
48 CP1 88 0.203
48 CP1 89 -0.773
48 CP1 90 -1.261
48 CP1 91 -1.261
48 CP1 92 -0.773
48 CP1 93 0.203
48 CP1 94 0.692
48 CP1 95 1.180
48 CP1 96 1.180
48 CP1 97 1.180
48 CP1 98 1.180
48 CP1 99 1.668
48 CP1 100 1.180
48 CP1 101 1.180
48 CP1 102 1.180
48 CP1 103 1.180
48 CP1 104 1.180
48 CP1 105 1.180
48 CP1 106 1.180
48 CP1 107 0.203
48 CP1 108 0.203
48 CP1 109 0.203
48 CP1 110 0.692
48 CP1 111 0.692
48 CP1 112 0.203
48 CP1 113 -0.773
48 CP1 114 -1.261
48 CP1 115 -1.261
48 CP1 116 -1.261
48 CP1 117 -1.261
48 CP1 118 -1.261
48 CP1 119 -0.773
48 CP1 120 -0.285
48 CP1 121 -0.285
48 CP1 122 -0.773
48 CP1 123 -1.261
48 CP1 124 -1.261
48 CP1 125 -1.261
48 CP1 126 -0.773
48 CP1 127 -0.285
48 CP1 128 -0.285
48 CP1 129 -1.261
48 CP1 130 -2.726
48 CP1 131 -3.703
48 CP1 132 -4.191
48 CP1 133 -4.191
48 CP1 134 -3.703
48 CP1 135 -3.703
48 CP1 136 -3.215
48 CP1 137 -2.726
48 CP1 138 -2.238
48 CP1 139 -1.750
48 CP1 140 -1.261
48 CP1 141 -0.773
48 CP1 142 -0.773
48 CP1 143 -0.773
48 CP1 144 -1.261
48 CP1 145 -1.261
48 CP1 146 -1.750
48 CP1 147 -1.750
48 CP1 148 -1.750
48 CP1 149 -1.750
48 CP1 150 -1.750
48 CP1 151 -1.750
48 CP1 152 -1.750
48 CP1 153 -1.750
48 CP1 154 -1.261
48 CP1 155 -0.773
48 CP1 156 -0.773
48 CP1 157 -1.261
48 CP1 158 -2.238
48 CP1 159 -2.726
48 CP1 160 -2.726
48 CP1 161 -2.726
48 CP1 162 -2.726
48 CP1 163 -2.726
48 CP1 164 -2.238
48 CP1 165 -1.261
48 CP1 166 -0.773
48 CP1 167 -0.285
48 CP1 168 -1.261
48 CP1 169 -1.261
48 CP1 170 -1.261
48 CP1 171 -1.261
48 CP1 172 -1.261
48 CP1 173 -1.750
48 CP1 174 -2.238
48 CP1 175 -3.703
48 CP1 176 -4.679
48 CP1 177 -4.679
48 CP1 178 -4.679
48 CP1 179 -4.191
48 CP1 180 -4.679
48 CP1 181 -4.679
48 CP1 182 -4.679
48 CP1 183 -5.168
48 CP1 184 -5.168
48 CP1 185 -5.168
48 CP1 186 -5.656
48 CP1 187 -4.679
48 CP1 188 -3.703
48 CP1 189 -2.238
48 CP1 190 -1.750
48 CP1 191 -1.261
48 CP1 192 -1.750
48 CP1 193 -1.750
48 CP1 194 -1.261
48 CP1 195 -0.773
48 CP1 196 -0.285
48 CP1 197 -0.285
48 CP1 198 -0.285
48 CP1 199 -0.773
48 CP1 200 -1.261
48 CP1 201 -1.750
48 CP1 202 -1.750
48 CP1 203 -2.238
48 CP1 204 -2.238
48 CP1 205 -2.726
48 CP1 206 -3.215
48 CP1 207 -3.215
48 CP1 208 -3.703
48 CP1 209 -2.726
48 CP1 210 -2.726
48 CP1 211 -2.238
48 CP1 212 -2.238
48 CP1 213 -2.238
48 CP1 214 -2.238
48 CP1 215 -1.750
48 CP1 216 -1.261
48 CP1 217 -0.773
48 CP1 218 0.203
48 CP1 219 1.180
48 CP1 220 1.668
48 CP1 221 2.157
48 CP1 222 2.157
48 CP1 223 1.668
48 CP1 224 1.668
48 CP1 225 1.180
48 CP1 226 1.668
48 CP1 227 2.157
48 CP1 228 2.645
48 CP1 229 2.157
48 CP1 230 1.668
48 CP1 231 1.180
48 CP1 232 0.692
48 CP1 233 0.203
48 CP1 234 -0.285
48 CP1 235 0.203
48 CP1 236 0.692
48 CP1 237 1.180
48 CP1 238 1.180
48 CP1 239 1.180
48 CP1 240 1.668
48 CP1 241 1.668
48 CP1 242 2.157
48 CP1 243 1.668
48 CP1 244 1.668
48 CP1 245 1.180
48 CP1 246 0.203
48 CP1 247 0.203
48 CP1 248 0.203
48 CP1 249 0.203
48 CP1 250 0.692
48 CP1 251 1.180
48 CP1 252 1.668
48 CP1 253 1.668
48 CP1 254 1.668
48 CP1 255 1.668
# CP2 chan 21
48 CP2 0 -0.722
48 CP2 1 -1.211
48 CP2 2 -1.211
48 CP2 3 -0.722
48 CP2 4 -0.234
48 CP2 5 0.254
48 CP2 6 0.743
48 CP2 7 1.231
48 CP2 8 0.743
48 CP2 9 0.743
48 CP2 10 0.254
48 CP2 11 0.254
48 CP2 12 0.254
48 CP2 13 0.254
48 CP2 14 -0.234
48 CP2 15 -1.211
48 CP2 16 -1.699
48 CP2 17 -1.211
48 CP2 18 -0.722
48 CP2 19 0.743
48 CP2 20 2.207
48 CP2 21 2.696
48 CP2 22 2.696
48 CP2 23 2.207
48 CP2 24 1.719
48 CP2 25 1.231
48 CP2 26 1.231
48 CP2 27 1.719
48 CP2 28 2.207
48 CP2 29 2.207
48 CP2 30 1.719
48 CP2 31 2.207
48 CP2 32 2.207
48 CP2 33 2.696
48 CP2 34 2.696
48 CP2 35 2.207
48 CP2 36 1.231
48 CP2 37 0.254
48 CP2 38 -0.722
48 CP2 39 -1.211
48 CP2 40 -0.722
48 CP2 41 0.743
48 CP2 42 1.719
48 CP2 43 3.184
48 CP2 44 4.161
48 CP2 45 4.649
48 CP2 46 4.161
48 CP2 47 3.184
48 CP2 48 2.696
48 CP2 49 2.207
48 CP2 50 2.207
48 CP2 51 2.207
48 CP2 52 1.719
48 CP2 53 1.231
48 CP2 54 0.743
48 CP2 55 0.254
48 CP2 56 0.743
48 CP2 57 1.231
48 CP2 58 2.207
48 CP2 59 2.696
48 CP2 60 2.696
48 CP2 61 2.696
48 CP2 62 2.696
48 CP2 63 2.696
48 CP2 64 3.184
48 CP2 65 3.184
48 CP2 66 3.184
48 CP2 67 3.184
48 CP2 68 2.696
48 CP2 69 2.207
48 CP2 70 1.719
48 CP2 71 2.207
48 CP2 72 2.207
48 CP2 73 2.696
48 CP2 74 3.184
48 CP2 75 2.696
48 CP2 76 2.207
48 CP2 77 1.231
48 CP2 78 0.743
48 CP2 79 0.743
48 CP2 80 0.743
48 CP2 81 0.743
48 CP2 82 0.743
48 CP2 83 0.254
48 CP2 84 0.743
48 CP2 85 1.231
48 CP2 86 2.207
48 CP2 87 2.696
48 CP2 88 3.184
48 CP2 89 3.672
48 CP2 90 4.161
48 CP2 91 4.649
48 CP2 92 4.649
48 CP2 93 4.649
48 CP2 94 4.161
48 CP2 95 3.672
48 CP2 96 3.184
48 CP2 97 2.696
48 CP2 98 2.696
48 CP2 99 2.207
48 CP2 100 1.719
48 CP2 101 1.719
48 CP2 102 1.231
48 CP2 103 0.743
48 CP2 104 0.254
48 CP2 105 -0.234
48 CP2 106 -1.699
48 CP2 107 -2.187
48 CP2 108 -2.675
48 CP2 109 -1.699
48 CP2 110 -0.234
48 CP2 111 1.231
48 CP2 112 2.696
48 CP2 113 2.696
48 CP2 114 2.696
48 CP2 115 2.207
48 CP2 116 2.207
48 CP2 117 2.696
48 CP2 118 2.696
48 CP2 119 2.207
48 CP2 120 1.231
48 CP2 121 0.743
48 CP2 122 0.254
48 CP2 123 0.254
48 CP2 124 0.743
48 CP2 125 0.254
48 CP2 126 0.254
48 CP2 127 0.254
48 CP2 128 -0.234
48 CP2 129 -1.211
48 CP2 130 -2.187
48 CP2 131 -3.164
48 CP2 132 -4.140
48 CP2 133 -4.628
48 CP2 134 -3.652
48 CP2 135 -2.675
48 CP2 136 -1.211
48 CP2 137 0.254
48 CP2 138 0.743
48 CP2 139 0.743
48 CP2 140 0.743
48 CP2 141 0.254
48 CP2 142 -0.722
48 CP2 143 -1.211
48 CP2 144 -1.699
48 CP2 145 -1.699
48 CP2 146 -2.187
48 CP2 147 -2.187
48 CP2 148 -2.187
48 CP2 149 -2.187
48 CP2 150 -2.675
48 CP2 151 -2.675
48 CP2 152 -3.164
48 CP2 153 -3.652
48 CP2 154 -4.628
48 CP2 155 -5.117
48 CP2 156 -5.117
48 CP2 157 -4.628
48 CP2 158 -3.652
48 CP2 159 -2.187
48 CP2 160 -0.234
48 CP2 161 1.231
48 CP2 162 1.231
48 CP2 163 1.231
48 CP2 164 0.743
48 CP2 165 -0.234
48 CP2 166 -0.722
48 CP2 167 -1.211
48 CP2 168 -1.699
48 CP2 169 -1.699
48 CP2 170 -2.675
48 CP2 171 -3.652
48 CP2 172 -4.628
48 CP2 173 -5.605
48 CP2 174 -5.605
48 CP2 175 -6.093
48 CP2 176 -6.582
48 CP2 177 -7.070
48 CP2 178 -7.070
48 CP2 179 -7.070
48 CP2 180 -6.582
48 CP2 181 -5.605
48 CP2 182 -5.117
48 CP2 183 -5.117
48 CP2 184 -5.605
48 CP2 185 -5.605
48 CP2 186 -5.117
48 CP2 187 -4.628
48 CP2 188 -3.652
48 CP2 189 -3.164
48 CP2 190 -2.675
48 CP2 191 -2.675
48 CP2 192 -2.675
48 CP2 193 -2.187
48 CP2 194 -2.675
48 CP2 195 -3.164
48 CP2 196 -2.675
48 CP2 197 -2.187
48 CP2 198 -1.699
48 CP2 199 -0.722
48 CP2 200 -1.211
48 CP2 201 -1.699
48 CP2 202 -2.675
48 CP2 203 -3.164
48 CP2 204 -3.164
48 CP2 205 -2.675
48 CP2 206 -2.187
48 CP2 207 -1.699
48 CP2 208 -1.211
48 CP2 209 -0.722
48 CP2 210 -0.234
48 CP2 211 0.254
48 CP2 212 0.743
48 CP2 213 1.231
48 CP2 214 2.207
48 CP2 215 2.696
48 CP2 216 3.184
48 CP2 217 2.696
48 CP2 218 2.207
48 CP2 219 1.719
48 CP2 220 1.231
48 CP2 221 1.231
48 CP2 222 1.231
48 CP2 223 1.719
48 CP2 224 1.719
48 CP2 225 1.719
48 CP2 226 1.231
48 CP2 227 0.743
48 CP2 228 0.743
48 CP2 229 0.743
48 CP2 230 0.743
48 CP2 231 0.743
48 CP2 232 0.254
48 CP2 233 -0.234
48 CP2 234 -0.722
48 CP2 235 -0.722
48 CP2 236 -0.722
48 CP2 237 -0.234
48 CP2 238 0.254
48 CP2 239 1.231
48 CP2 240 1.719
48 CP2 241 1.719
48 CP2 242 1.231
48 CP2 243 0.743
48 CP2 244 0.743
48 CP2 245 0.254
48 CP2 246 0.254
48 CP2 247 0.254
48 CP2 248 -0.234
48 CP2 249 -0.234
48 CP2 250 -0.234
48 CP2 251 0.743
48 CP2 252 1.719
48 CP2 253 2.696
48 CP2 254 3.184
48 CP2 255 3.672
# P3 chan 22
48 P3 0 -1.455
48 P3 1 -0.478
48 P3 2 0.010
48 P3 3 0.987
48 P3 4 1.475
48 P3 5 1.963
48 P3 6 1.963
48 P3 7 1.475
48 P3 8 0.987
48 P3 9 0.498
48 P3 10 0.498
48 P3 11 0.987
48 P3 12 0.987
48 P3 13 0.010
48 P3 14 -0.478
48 P3 15 -1.455
48 P3 16 -1.943
48 P3 17 -1.455
48 P3 18 -0.478
48 P3 19 0.987
48 P3 20 1.963
48 P3 21 2.452
48 P3 22 2.940
48 P3 23 2.940
48 P3 24 2.940
48 P3 25 2.452
48 P3 26 2.452
48 P3 27 2.452
48 P3 28 2.452
48 P3 29 2.940
48 P3 30 2.940
48 P3 31 2.940
48 P3 32 2.940
48 P3 33 2.940
48 P3 34 2.940
48 P3 35 2.940
48 P3 36 2.940
48 P3 37 3.428
48 P3 38 4.405
48 P3 39 5.381
48 P3 40 6.846
48 P3 41 7.334
48 P3 42 7.823
48 P3 43 7.334
48 P3 44 6.358
48 P3 45 4.893
48 P3 46 3.428
48 P3 47 1.963
48 P3 48 0.987
48 P3 49 0.010
48 P3 50 -0.478
48 P3 51 -0.478
48 P3 52 0.498
48 P3 53 1.963
48 P3 54 3.428
48 P3 55 5.381
48 P3 56 6.358
48 P3 57 6.358
48 P3 58 5.870
48 P3 59 5.381
48 P3 60 4.893
48 P3 61 4.893
48 P3 62 5.381
48 P3 63 5.381
48 P3 64 4.893
48 P3 65 3.428
48 P3 66 0.987
48 P3 67 -0.966
48 P3 68 -1.943
48 P3 69 -1.455
48 P3 70 0.498
48 P3 71 1.475
48 P3 72 2.452
48 P3 73 2.940
48 P3 74 1.963
48 P3 75 1.475
48 P3 76 0.498
48 P3 77 0.010
48 P3 78 -0.478
48 P3 79 -0.478
48 P3 80 -0.478
48 P3 81 -0.478
48 P3 82 0.010
48 P3 83 0.498
48 P3 84 0.498
48 P3 85 1.475
48 P3 86 2.452
48 P3 87 2.940
48 P3 88 2.452
48 P3 89 1.963
48 P3 90 1.475
48 P3 91 0.987
48 P3 92 1.475
48 P3 93 2.452
48 P3 94 3.428
48 P3 95 3.916
48 P3 96 3.916
48 P3 97 3.916
48 P3 98 2.940
48 P3 99 2.940
48 P3 100 2.940
48 P3 101 3.428
48 P3 102 3.916
48 P3 103 3.916
48 P3 104 4.405
48 P3 105 3.916
48 P3 106 3.428
48 P3 107 2.940
48 P3 108 2.452
48 P3 109 2.452
48 P3 110 2.452
48 P3 111 2.940
48 P3 112 2.940
48 P3 113 1.963
48 P3 114 0.987
48 P3 115 0.010
48 P3 116 -0.478
48 P3 117 -0.478
48 P3 118 0.010
48 P3 119 0.987
48 P3 120 0.498
48 P3 121 -0.478
48 P3 122 -1.455
48 P3 123 -1.943
48 P3 124 -1.943
48 P3 125 -0.966
48 P3 126 0.010
48 P3 127 0.987
48 P3 128 0.498
48 P3 129 -0.478
48 P3 130 -1.943
48 P3 131 -3.896
48 P3 132 -4.873
48 P3 133 -5.361
48 P3 134 -4.873
48 P3 135 -4.384
48 P3 136 -3.408
48 P3 137 -2.920
48 P3 138 -1.943
48 P3 139 -1.455
48 P3 140 -1.455
48 P3 141 -1.455
48 P3 142 -1.943
48 P3 143 -2.920
48 P3 144 -3.408
48 P3 145 -3.896
48 P3 146 -3.896
48 P3 147 -3.896
48 P3 148 -3.896
48 P3 149 -3.408
48 P3 150 -2.920
48 P3 151 -2.920
48 P3 152 -2.431
48 P3 153 -1.455
48 P3 154 -0.966
48 P3 155 -0.478
48 P3 156 -0.478
48 P3 157 -0.478
48 P3 158 -1.455
48 P3 159 -2.431
48 P3 160 -2.920
48 P3 161 -3.408
48 P3 162 -3.408
48 P3 163 -3.408
48 P3 164 -3.408
48 P3 165 -3.408
48 P3 166 -3.896
48 P3 167 -4.384
48 P3 168 -4.384
48 P3 169 -4.384
48 P3 170 -3.896
48 P3 171 -3.896
48 P3 172 -4.384
48 P3 173 -5.361
48 P3 174 -6.826
48 P3 175 -8.291
48 P3 176 -9.267
48 P3 177 -9.755
48 P3 178 -9.755
48 P3 179 -9.267
48 P3 180 -8.779
48 P3 181 -8.291
48 P3 182 -8.291
48 P3 183 -8.779
48 P3 184 -9.755
48 P3 185 -10.244
48 P3 186 -9.755
48 P3 187 -8.779
48 P3 188 -7.314
48 P3 189 -5.849
48 P3 190 -4.873
48 P3 191 -4.873
48 P3 192 -4.873
48 P3 193 -4.873
48 P3 194 -4.873
48 P3 195 -4.873
48 P3 196 -4.873
48 P3 197 -4.873
48 P3 198 -4.873
48 P3 199 -4.873
48 P3 200 -5.361
48 P3 201 -5.849
48 P3 202 -6.337
48 P3 203 -6.826
48 P3 204 -6.826
48 P3 205 -7.314
48 P3 206 -6.826
48 P3 207 -6.826
48 P3 208 -6.337
48 P3 209 -5.849
48 P3 210 -4.873
48 P3 211 -3.896
48 P3 212 -2.920
48 P3 213 -2.431
48 P3 214 -1.455
48 P3 215 -0.966
48 P3 216 0.010
48 P3 217 0.498
48 P3 218 1.475
48 P3 219 2.452
48 P3 220 3.428
48 P3 221 3.916
48 P3 222 3.428
48 P3 223 2.940
48 P3 224 2.452
48 P3 225 2.452
48 P3 226 2.452
48 P3 227 3.428
48 P3 228 3.916
48 P3 229 4.405
48 P3 230 3.428
48 P3 231 1.963
48 P3 232 0.010
48 P3 233 -1.455
48 P3 234 -1.455
48 P3 235 -0.966
48 P3 236 0.010
48 P3 237 0.987
48 P3 238 1.963
48 P3 239 2.940
48 P3 240 2.940
48 P3 241 2.940
48 P3 242 2.452
48 P3 243 1.963
48 P3 244 1.963
48 P3 245 0.987
48 P3 246 0.498
48 P3 247 -0.478
48 P3 248 -0.966
48 P3 249 -0.966
48 P3 250 0.010
48 P3 251 0.987
48 P3 252 1.475
48 P3 253 1.963
48 P3 254 1.963
48 P3 255 2.452
# P4 chan 23
48 P4 0 -2.604
48 P4 1 -3.092
48 P4 2 -2.604
48 P4 3 -1.139
48 P4 4 0.326
48 P4 5 1.790
48 P4 6 2.767
48 P4 7 3.255
48 P4 8 3.255
48 P4 9 2.767
48 P4 10 2.279
48 P4 11 2.279
48 P4 12 1.302
48 P4 13 0.326
48 P4 14 -0.651
48 P4 15 -1.139
48 P4 16 -0.651
48 P4 17 0.814
48 P4 18 2.279
48 P4 19 4.232
48 P4 20 5.208
48 P4 21 5.208
48 P4 22 4.720
48 P4 23 3.255
48 P4 24 1.790
48 P4 25 1.302
48 P4 26 1.790
48 P4 27 2.279
48 P4 28 2.279
48 P4 29 2.279
48 P4 30 2.279
48 P4 31 2.279
48 P4 32 2.767
48 P4 33 3.255
48 P4 34 3.743
48 P4 35 3.255
48 P4 36 2.767
48 P4 37 1.790
48 P4 38 1.790
48 P4 39 1.790
48 P4 40 2.279
48 P4 41 3.743
48 P4 42 5.697
48 P4 43 7.650
48 P4 44 9.603
48 P4 45 9.603
48 P4 46 8.626
48 P4 47 6.673
48 P4 48 5.208
48 P4 49 4.720
48 P4 50 5.208
48 P4 51 6.185
48 P4 52 6.673
48 P4 53 5.697
48 P4 54 4.720
48 P4 55 4.232
48 P4 56 4.720
48 P4 57 5.697
48 P4 58 7.161
48 P4 59 8.138
48 P4 60 8.626
48 P4 61 8.626
48 P4 62 9.115
48 P4 63 9.115
48 P4 64 9.115
48 P4 65 8.626
48 P4 66 7.650
48 P4 67 6.673
48 P4 68 5.697
48 P4 69 5.208
48 P4 70 4.720
48 P4 71 5.208
48 P4 72 6.185
48 P4 73 6.673
48 P4 74 7.161
48 P4 75 6.185
48 P4 76 5.208
48 P4 77 3.743
48 P4 78 3.255
48 P4 79 3.255
48 P4 80 3.255
48 P4 81 3.255
48 P4 82 3.255
48 P4 83 3.743
48 P4 84 4.232
48 P4 85 4.720
48 P4 86 6.185
48 P4 87 7.161
48 P4 88 8.138
48 P4 89 8.138
48 P4 90 8.626
48 P4 91 8.626
48 P4 92 8.626
48 P4 93 8.138
48 P4 94 8.138
48 P4 95 7.161
48 P4 96 6.673
48 P4 97 6.185
48 P4 98 6.185
48 P4 99 5.697
48 P4 100 5.697
48 P4 101 5.697
48 P4 102 5.208
48 P4 103 4.720
48 P4 104 4.232
48 P4 105 3.255
48 P4 106 2.279
48 P4 107 1.302
48 P4 108 0.814
48 P4 109 1.302
48 P4 110 2.767
48 P4 111 5.208
48 P4 112 7.161
48 P4 113 7.650
48 P4 114 7.161
48 P4 115 6.673
48 P4 116 5.697
48 P4 117 5.697
48 P4 118 5.697
48 P4 119 5.208
48 P4 120 4.232
48 P4 121 3.743
48 P4 122 2.767
48 P4 123 2.767
48 P4 124 2.767
48 P4 125 2.767
48 P4 126 3.255
48 P4 127 3.743
48 P4 128 3.255
48 P4 129 2.279
48 P4 130 0.326
48 P4 131 -2.116
48 P4 132 -3.581
48 P4 133 -4.069
48 P4 134 -3.092
48 P4 135 -1.139
48 P4 136 0.814
48 P4 137 2.279
48 P4 138 2.767
48 P4 139 2.767
48 P4 140 2.279
48 P4 141 1.302
48 P4 142 -0.651
48 P4 143 -2.116
48 P4 144 -3.092
48 P4 145 -4.069
48 P4 146 -4.069
48 P4 147 -4.069
48 P4 148 -3.581
48 P4 149 -3.581
48 P4 150 -3.581
48 P4 151 -3.092
48 P4 152 -2.604
48 P4 153 -2.604
48 P4 154 -2.604
48 P4 155 -2.604
48 P4 156 -3.092
48 P4 157 -3.092
48 P4 158 -2.604
48 P4 159 -1.628
48 P4 160 -0.651
48 P4 161 0.326
48 P4 162 0.326
48 P4 163 -0.651
48 P4 164 -2.116
48 P4 165 -3.092
48 P4 166 -4.069
48 P4 167 -4.069
48 P4 168 -4.557
48 P4 169 -4.557
48 P4 170 -5.534
48 P4 171 -7.487
48 P4 172 -9.440
48 P4 173 -10.905
48 P4 174 -12.370
48 P4 175 -12.858
48 P4 176 -13.346
48 P4 177 -13.835
48 P4 178 -13.835
48 P4 179 -13.346
48 P4 180 -11.393
48 P4 181 -9.440
48 P4 182 -7.487
48 P4 183 -6.999
48 P4 184 -7.487
48 P4 185 -7.975
48 P4 186 -8.464
48 P4 187 -7.487
48 P4 188 -6.510
48 P4 189 -5.534
48 P4 190 -4.557
48 P4 191 -4.557
48 P4 192 -5.534
48 P4 193 -6.510
48 P4 194 -7.487
48 P4 195 -7.487
48 P4 196 -6.999
48 P4 197 -5.046
48 P4 198 -3.581
48 P4 199 -2.116
48 P4 200 -2.116
48 P4 201 -3.092
48 P4 202 -4.557
48 P4 203 -6.022
48 P4 204 -6.510
48 P4 205 -5.534
48 P4 206 -4.557
48 P4 207 -3.092
48 P4 208 -2.604
48 P4 209 -2.604
48 P4 210 -2.604
48 P4 211 -2.604
48 P4 212 -2.116
48 P4 213 -1.139
48 P4 214 0.814
48 P4 215 2.279
48 P4 216 2.767
48 P4 217 2.767
48 P4 218 1.790
48 P4 219 0.814
48 P4 220 0.326
48 P4 221 0.326
48 P4 222 1.302
48 P4 223 1.790
48 P4 224 1.790
48 P4 225 1.790
48 P4 226 1.302
48 P4 227 1.302
48 P4 228 0.814
48 P4 229 0.814
48 P4 230 0.326
48 P4 231 -0.651
48 P4 232 -1.628
48 P4 233 -3.092
48 P4 234 -4.557
48 P4 235 -4.557
48 P4 236 -4.557
48 P4 237 -3.092
48 P4 238 -1.139
48 P4 239 0.814
48 P4 240 2.279
48 P4 241 2.767
48 P4 242 2.279
48 P4 243 2.279
48 P4 244 1.790
48 P4 245 1.790
48 P4 246 1.790
48 P4 247 1.790
48 P4 248 0.814
48 P4 249 0.326
48 P4 250 -0.163
48 P4 251 0.326
48 P4 252 1.790
48 P4 253 2.767
48 P4 254 3.743
48 P4 255 3.743
# PZ chan 24
48 PZ 0 -2.106
48 PZ 1 -1.617
48 PZ 2 -1.129
48 PZ 3 -0.153
48 PZ 4 0.824
48 PZ 5 1.801
48 PZ 6 2.289
48 PZ 7 1.801
48 PZ 8 1.312
48 PZ 9 0.824
48 PZ 10 0.336
48 PZ 11 0.824
48 PZ 12 0.824
48 PZ 13 0.336
48 PZ 14 -0.153
48 PZ 15 -1.617
48 PZ 16 -2.106
48 PZ 17 -1.617
48 PZ 18 -0.641
48 PZ 19 0.824
48 PZ 20 1.801
48 PZ 21 2.777
48 PZ 22 2.289
48 PZ 23 1.801
48 PZ 24 1.312
48 PZ 25 1.312
48 PZ 26 1.801
48 PZ 27 2.289
48 PZ 28 3.265
48 PZ 29 3.265
48 PZ 30 3.754
48 PZ 31 3.754
48 PZ 32 4.242
48 PZ 33 4.242
48 PZ 34 3.754
48 PZ 35 2.777
48 PZ 36 1.312
48 PZ 37 0.336
48 PZ 38 0.336
48 PZ 39 0.824
48 PZ 40 1.801
48 PZ 41 2.777
48 PZ 42 3.754
48 PZ 43 4.242
48 PZ 44 4.242
48 PZ 45 4.242
48 PZ 46 3.265
48 PZ 47 2.289
48 PZ 48 1.312
48 PZ 49 0.336
48 PZ 50 -0.641
48 PZ 51 -0.641
48 PZ 52 -1.129
48 PZ 53 -1.617
48 PZ 54 -2.106
48 PZ 55 -2.106
48 PZ 56 -1.617
48 PZ 57 -0.641
48 PZ 58 0.336
48 PZ 59 0.824
48 PZ 60 1.312
48 PZ 61 1.312
48 PZ 62 1.801
48 PZ 63 2.289
48 PZ 64 1.801
48 PZ 65 1.312
48 PZ 66 0.336
48 PZ 67 -1.617
48 PZ 68 -2.594
48 PZ 69 -3.571
48 PZ 70 -3.571
48 PZ 71 -2.594
48 PZ 72 -2.106
48 PZ 73 -1.617
48 PZ 74 -1.617
48 PZ 75 -2.594
48 PZ 76 -3.571
48 PZ 77 -4.059
48 PZ 78 -4.059
48 PZ 79 -3.571
48 PZ 80 -3.082
48 PZ 81 -3.082
48 PZ 82 -3.082
48 PZ 83 -2.594
48 PZ 84 -1.617
48 PZ 85 -0.153
48 PZ 86 1.312
48 PZ 87 2.289
48 PZ 88 2.777
48 PZ 89 2.289
48 PZ 90 1.801
48 PZ 91 1.312
48 PZ 92 1.312
48 PZ 93 1.312
48 PZ 94 1.312
48 PZ 95 1.801
48 PZ 96 1.801
48 PZ 97 1.801
48 PZ 98 1.312
48 PZ 99 0.824
48 PZ 100 0.336
48 PZ 101 0.336
48 PZ 102 0.824
48 PZ 103 1.312
48 PZ 104 1.312
48 PZ 105 1.312
48 PZ 106 0.824
48 PZ 107 0.824
48 PZ 108 0.824
48 PZ 109 1.801
48 PZ 110 2.777
48 PZ 111 4.242
48 PZ 112 4.730
48 PZ 113 4.730
48 PZ 114 4.242
48 PZ 115 3.265
48 PZ 116 2.777
48 PZ 117 2.777
48 PZ 118 2.777
48 PZ 119 2.777
48 PZ 120 2.289
48 PZ 121 2.289
48 PZ 122 1.312
48 PZ 123 1.312
48 PZ 124 1.312
48 PZ 125 1.312
48 PZ 126 1.801
48 PZ 127 2.289
48 PZ 128 1.801
48 PZ 129 0.824
48 PZ 130 -0.641
48 PZ 131 -2.594
48 PZ 132 -4.059
48 PZ 133 -4.547
48 PZ 134 -3.571
48 PZ 135 -2.594
48 PZ 136 -1.617
48 PZ 137 -0.641
48 PZ 138 0.336
48 PZ 139 0.824
48 PZ 140 1.312
48 PZ 141 1.312
48 PZ 142 0.336
48 PZ 143 -0.641
48 PZ 144 -1.617
48 PZ 145 -2.106
48 PZ 146 -2.594
48 PZ 147 -2.594
48 PZ 148 -2.594
48 PZ 149 -2.594
48 PZ 150 -2.594
48 PZ 151 -2.594
48 PZ 152 -2.106
48 PZ 153 -2.106
48 PZ 154 -2.106
48 PZ 155 -2.106
48 PZ 156 -2.106
48 PZ 157 -1.617
48 PZ 158 -1.129
48 PZ 159 -0.641
48 PZ 160 0.336
48 PZ 161 0.336
48 PZ 162 0.824
48 PZ 163 0.336
48 PZ 164 -0.641
48 PZ 165 -1.617
48 PZ 166 -2.594
48 PZ 167 -3.082
48 PZ 168 -3.571
48 PZ 169 -3.082
48 PZ 170 -2.594
48 PZ 171 -3.082
48 PZ 172 -4.059
48 PZ 173 -5.035
48 PZ 174 -6.500
48 PZ 175 -7.965
48 PZ 176 -8.942
48 PZ 177 -8.942
48 PZ 178 -9.430
48 PZ 179 -8.942
48 PZ 180 -8.453
48 PZ 181 -7.965
48 PZ 182 -7.965
48 PZ 183 -7.965
48 PZ 184 -8.453
48 PZ 185 -8.942
48 PZ 186 -9.430
48 PZ 187 -8.453
48 PZ 188 -6.989
48 PZ 189 -5.035
48 PZ 190 -3.571
48 PZ 191 -2.594
48 PZ 192 -2.106
48 PZ 193 -2.594
48 PZ 194 -3.082
48 PZ 195 -2.594
48 PZ 196 -2.106
48 PZ 197 -1.129
48 PZ 198 0.336
48 PZ 199 0.824
48 PZ 200 0.336
48 PZ 201 -0.641
48 PZ 202 -2.106
48 PZ 203 -3.571
48 PZ 204 -4.059
48 PZ 205 -3.571
48 PZ 206 -3.082
48 PZ 207 -3.571
48 PZ 208 -3.571
48 PZ 209 -3.571
48 PZ 210 -3.571
48 PZ 211 -3.082
48 PZ 212 -2.106
48 PZ 213 -1.129
48 PZ 214 -0.153
48 PZ 215 1.312
48 PZ 216 1.801
48 PZ 217 2.777
48 PZ 218 3.265
48 PZ 219 3.754
48 PZ 220 3.754
48 PZ 221 3.754
48 PZ 222 4.242
48 PZ 223 4.242
48 PZ 224 4.730
48 PZ 225 4.730
48 PZ 226 5.219
48 PZ 227 5.707
48 PZ 228 5.707
48 PZ 229 5.219
48 PZ 230 4.242
48 PZ 231 2.777
48 PZ 232 1.312
48 PZ 233 0.336
48 PZ 234 -0.641
48 PZ 235 -1.129
48 PZ 236 -0.641
48 PZ 237 0.336
48 PZ 238 1.801
48 PZ 239 2.777
48 PZ 240 3.265
48 PZ 241 3.265
48 PZ 242 2.289
48 PZ 243 1.801
48 PZ 244 0.824
48 PZ 245 0.336
48 PZ 246 -0.641
48 PZ 247 -0.641
48 PZ 248 -0.641
48 PZ 249 -0.153
48 PZ 250 0.824
48 PZ 251 1.801
48 PZ 252 3.265
48 PZ 253 4.242
48 PZ 254 4.242
48 PZ 255 4.242
# P8 chan 25
48 P8 0 -4.303
48 P8 1 -5.280
48 P8 2 -4.791
48 P8 3 -2.350
48 P8 4 1.556
48 P8 5 3.998
48 P8 6 4.974
48 P8 7 3.998
48 P8 8 2.533
48 P8 9 1.556
48 P8 10 2.533
48 P8 11 3.998
48 P8 12 4.486
48 P8 13 3.021
48 P8 14 0.092
48 P8 15 -1.862
48 P8 16 -1.862
48 P8 17 0.092
48 P8 18 2.533
48 P8 19 4.974
48 P8 20 5.951
48 P8 21 4.486
48 P8 22 2.045
48 P8 23 -0.885
48 P8 24 -2.838
48 P8 25 -4.303
48 P8 26 -4.791
48 P8 27 -5.768
48 P8 28 -5.768
48 P8 29 -6.256
48 P8 30 -6.256
48 P8 31 -6.744
48 P8 32 -6.744
48 P8 33 -6.744
48 P8 34 -6.744
48 P8 35 -5.768
48 P8 36 -4.303
48 P8 37 -1.373
48 P8 38 2.045
48 P8 39 3.998
48 P8 40 4.486
48 P8 41 3.998
48 P8 42 4.486
48 P8 43 5.951
48 P8 44 7.904
48 P8 45 9.369
48 P8 46 8.392
48 P8 47 4.974
48 P8 48 1.068
48 P8 49 -0.885
48 P8 50 0.092
48 P8 51 3.021
48 P8 52 5.463
48 P8 53 5.951
48 P8 54 4.974
48 P8 55 2.533
48 P8 56 1.556
48 P8 57 2.533
48 P8 58 4.486
48 P8 59 6.927
48 P8 60 8.392
48 P8 61 8.881
48 P8 62 8.392
48 P8 63 7.904
48 P8 64 8.392
48 P8 65 8.392
48 P8 66 7.904
48 P8 67 6.927
48 P8 68 5.463
48 P8 69 3.998
48 P8 70 3.998
48 P8 71 4.486
48 P8 72 4.974
48 P8 73 5.951
48 P8 74 6.439
48 P8 75 5.951
48 P8 76 4.974
48 P8 77 3.998
48 P8 78 3.021
48 P8 79 2.533
48 P8 80 2.045
48 P8 81 2.533
48 P8 82 3.021
48 P8 83 3.510
48 P8 84 4.486
48 P8 85 5.463
48 P8 86 6.927
48 P8 87 8.392
48 P8 88 10.345
48 P8 89 11.810
48 P8 90 12.787
48 P8 91 12.787
48 P8 92 12.299
48 P8 93 11.322
48 P8 94 9.369
48 P8 95 7.904
48 P8 96 6.439
48 P8 97 6.439
48 P8 98 6.927
48 P8 99 7.904
48 P8 100 8.881
48 P8 101 8.881
48 P8 102 7.904
48 P8 103 6.439
48 P8 104 5.463
48 P8 105 4.974
48 P8 106 5.463
48 P8 107 5.463
48 P8 108 5.463
48 P8 109 4.974
48 P8 110 4.974
48 P8 111 5.951
48 P8 112 7.416
48 P8 113 8.881
48 P8 114 9.857
48 P8 115 9.857
48 P8 116 9.857
48 P8 117 8.881
48 P8 118 7.904
48 P8 119 7.416
48 P8 120 7.416
48 P8 121 6.927
48 P8 122 6.439
48 P8 123 5.463
48 P8 124 3.998
48 P8 125 3.510
48 P8 126 4.486
48 P8 127 5.951
48 P8 128 7.416
48 P8 129 6.927
48 P8 130 4.974
48 P8 131 2.045
48 P8 132 0.580
48 P8 133 0.092
48 P8 134 1.556
48 P8 135 2.533
48 P8 136 3.021
48 P8 137 2.533
48 P8 138 1.556
48 P8 139 1.068
48 P8 140 1.068
48 P8 141 0.580
48 P8 142 -1.373
48 P8 143 -3.815
48 P8 144 -5.768
48 P8 145 -7.233
48 P8 146 -7.233
48 P8 147 -6.256
48 P8 148 -5.768
48 P8 149 -4.791
48 P8 150 -4.303
48 P8 151 -4.303
48 P8 152 -3.326
48 P8 153 -2.838
48 P8 154 -2.838
48 P8 155 -2.838
48 P8 156 -2.838
48 P8 157 -2.350
48 P8 158 -1.373
48 P8 159 -0.397
48 P8 160 -0.885
48 P8 161 -1.373
48 P8 162 -2.838
48 P8 163 -3.815
48 P8 164 -4.303
48 P8 165 -3.815
48 P8 166 -2.838
48 P8 167 -1.862
48 P8 168 -2.350
48 P8 169 -3.326
48 P8 170 -5.768
48 P8 171 -8.698
48 P8 172 -11.627
48 P8 173 -13.580
48 P8 174 -14.557
48 P8 175 -14.557
48 P8 176 -14.557
48 P8 177 -14.557
48 P8 178 -14.069
48 P8 179 -13.092
48 P8 180 -10.651
48 P8 181 -8.209
48 P8 182 -5.280
48 P8 183 -3.326
48 P8 184 -2.350
48 P8 185 -2.838
48 P8 186 -3.815
48 P8 187 -4.791
48 P8 188 -5.768
48 P8 189 -6.256
48 P8 190 -6.256
48 P8 191 -5.280
48 P8 192 -5.280
48 P8 193 -5.768
48 P8 194 -7.721
48 P8 195 -9.674
48 P8 196 -11.139
48 P8 197 -10.651
48 P8 198 -7.721
48 P8 199 -3.815
48 P8 200 -0.885
48 P8 201 -0.885
48 P8 202 -3.326
48 P8 203 -6.256
48 P8 204 -7.233
48 P8 205 -5.768
48 P8 206 -2.350
48 P8 207 0.580
48 P8 208 1.556
48 P8 209 0.580
48 P8 210 -0.885
48 P8 211 -2.350
48 P8 212 -1.862
48 P8 213 -0.885
48 P8 214 0.092
48 P8 215 0.580
48 P8 216 1.068
48 P8 217 0.580
48 P8 218 0.580
48 P8 219 0.092
48 P8 220 -0.885
48 P8 221 -1.373
48 P8 222 -1.373
48 P8 223 -0.885
48 P8 224 0.092
48 P8 225 0.580
48 P8 226 0.580
48 P8 227 0.092
48 P8 228 -0.885
48 P8 229 -1.862
48 P8 230 -2.350
48 P8 231 -3.326
48 P8 232 -4.303
48 P8 233 -5.768
48 P8 234 -7.233
48 P8 235 -8.209
48 P8 236 -8.209
48 P8 237 -6.256
48 P8 238 -2.838
48 P8 239 0.580
48 P8 240 3.021
48 P8 241 4.486
48 P8 242 4.486
48 P8 243 4.486
48 P8 244 4.974
48 P8 245 4.974
48 P8 246 4.974
48 P8 247 4.486
48 P8 248 3.510
48 P8 249 2.045
48 P8 250 1.068
48 P8 251 0.580
48 P8 252 1.068
48 P8 253 1.556
48 P8 254 2.045
48 P8 255 2.533
# P7 chan 26
48 P7 0 -3.479
48 P7 1 -2.014
48 P7 2 -0.549
48 P7 3 0.427
48 P7 4 0.916
48 P7 5 1.404
48 P7 6 1.404
48 P7 7 1.892
48 P7 8 1.892
48 P7 9 1.404
48 P7 10 0.916
48 P7 11 0.427
48 P7 12 -0.061
48 P7 13 -0.061
48 P7 14 -0.061
48 P7 15 -0.061
48 P7 16 0.427
48 P7 17 0.427
48 P7 18 0.427
48 P7 19 -0.061
48 P7 20 -0.549
48 P7 21 -0.549
48 P7 22 -1.038
48 P7 23 -1.526
48 P7 24 -2.014
48 P7 25 -2.502
48 P7 26 -2.991
48 P7 27 -3.479
48 P7 28 -2.991
48 P7 29 -2.991
48 P7 30 -2.014
48 P7 31 -2.014
48 P7 32 -2.014
48 P7 33 -2.014
48 P7 34 -2.014
48 P7 35 -2.014
48 P7 36 -1.526
48 P7 37 -0.061
48 P7 38 2.380
48 P7 39 4.822
48 P7 40 7.263
48 P7 41 8.728
48 P7 42 8.240
48 P7 43 7.263
48 P7 44 4.822
48 P7 45 2.380
48 P7 46 0.427
48 P7 47 -0.549
48 P7 48 -1.526
48 P7 49 -1.526
48 P7 50 -1.038
48 P7 51 0.427
48 P7 52 2.869
48 P7 53 5.798
48 P7 54 8.728
48 P7 55 10.681
48 P7 56 11.658
48 P7 57 12.146
48 P7 58 11.658
48 P7 59 11.169
48 P7 60 10.681
48 P7 61 10.681
48 P7 62 10.193
48 P7 63 9.705
48 P7 64 7.751
48 P7 65 5.798
48 P7 66 3.357
48 P7 67 0.916
48 P7 68 -0.061
48 P7 69 -0.061
48 P7 70 0.916
48 P7 71 2.380
48 P7 72 3.845
48 P7 73 4.822
48 P7 74 5.310
48 P7 75 5.310
48 P7 76 4.822
48 P7 77 3.845
48 P7 78 3.357
48 P7 79 3.357
48 P7 80 3.357
48 P7 81 2.869
48 P7 82 2.380
48 P7 83 2.380
48 P7 84 2.380
48 P7 85 3.357
48 P7 86 4.822
48 P7 87 5.798
48 P7 88 5.798
48 P7 89 5.798
48 P7 90 5.798
48 P7 91 6.287
48 P7 92 7.263
48 P7 93 8.728
48 P7 94 9.216
48 P7 95 9.216
48 P7 96 8.240
48 P7 97 7.751
48 P7 98 6.775
48 P7 99 6.775
48 P7 100 6.775
48 P7 101 7.263
48 P7 102 7.263
48 P7 103 7.263
48 P7 104 7.751
48 P7 105 7.263
48 P7 106 7.263
48 P7 107 6.287
48 P7 108 5.310
48 P7 109 4.822
48 P7 110 4.333
48 P7 111 4.822
48 P7 112 5.310
48 P7 113 4.822
48 P7 114 3.357
48 P7 115 1.892
48 P7 116 0.427
48 P7 117 -0.061
48 P7 118 0.916
48 P7 119 2.380
48 P7 120 2.869
48 P7 121 2.380
48 P7 122 0.916
48 P7 123 0.427
48 P7 124 0.427
48 P7 125 0.916
48 P7 126 1.404
48 P7 127 1.892
48 P7 128 0.916
48 P7 129 -0.061
48 P7 130 -1.038
48 P7 131 -2.014
48 P7 132 -2.991
48 P7 133 -3.479
48 P7 134 -4.456
48 P7 135 -4.944
48 P7 136 -4.944
48 P7 137 -4.456
48 P7 138 -3.479
48 P7 139 -2.502
48 P7 140 -2.502
48 P7 141 -2.991
48 P7 142 -3.967
48 P7 143 -4.944
48 P7 144 -5.920
48 P7 145 -6.409
48 P7 146 -6.409
48 P7 147 -6.409
48 P7 148 -6.409
48 P7 149 -5.920
48 P7 150 -4.944
48 P7 151 -3.967
48 P7 152 -2.502
48 P7 153 -1.038
48 P7 154 -0.061
48 P7 155 0.427
48 P7 156 0.427
48 P7 157 -0.061
48 P7 158 -1.038
48 P7 159 -2.502
48 P7 160 -3.479
48 P7 161 -3.967
48 P7 162 -4.456
48 P7 163 -4.944
48 P7 164 -4.944
48 P7 165 -5.432
48 P7 166 -5.920
48 P7 167 -6.897
48 P7 168 -8.362
48 P7 169 -9.338
48 P7 170 -9.338
48 P7 171 -9.338
48 P7 172 -8.850
48 P7 173 -9.338
48 P7 174 -10.315
48 P7 175 -11.292
48 P7 176 -12.756
48 P7 177 -12.756
48 P7 178 -12.756
48 P7 179 -11.780
48 P7 180 -10.803
48 P7 181 -10.315
48 P7 182 -9.827
48 P7 183 -9.827
48 P7 184 -10.803
48 P7 185 -11.292
48 P7 186 -11.292
48 P7 187 -10.803
48 P7 188 -9.827
48 P7 189 -8.362
48 P7 190 -7.385
48 P7 191 -7.874
48 P7 192 -9.338
48 P7 193 -11.292
48 P7 194 -12.268
48 P7 195 -12.756
48 P7 196 -12.756
48 P7 197 -12.268
48 P7 198 -12.268
48 P7 199 -12.268
48 P7 200 -12.268
48 P7 201 -12.268
48 P7 202 -12.268
48 P7 203 -12.268
48 P7 204 -12.268
48 P7 205 -12.268
48 P7 206 -11.780
48 P7 207 -11.292
48 P7 208 -10.315
48 P7 209 -9.338
48 P7 210 -8.362
48 P7 211 -6.897
48 P7 212 -4.944
48 P7 213 -3.479
48 P7 214 -2.502
48 P7 215 -2.014
48 P7 216 -2.502
48 P7 217 -2.502
48 P7 218 -2.502
48 P7 219 -1.526
48 P7 220 -1.038
48 P7 221 -0.549
48 P7 222 -1.038
48 P7 223 -2.502
48 P7 224 -3.479
48 P7 225 -3.479
48 P7 226 -2.502
48 P7 227 -1.526
48 P7 228 -0.061
48 P7 229 0.916
48 P7 230 0.427
48 P7 231 -0.549
48 P7 232 -2.014
48 P7 233 -3.479
48 P7 234 -3.967
48 P7 235 -3.967
48 P7 236 -2.991
48 P7 237 -1.526
48 P7 238 -0.061
48 P7 239 0.916
48 P7 240 1.404
48 P7 241 1.404
48 P7 242 1.404
48 P7 243 0.916
48 P7 244 0.427
48 P7 245 -0.061
48 P7 246 -1.038
48 P7 247 -2.991
48 P7 248 -3.479
48 P7 249 -3.479
48 P7 250 -2.502
48 P7 251 -1.526
48 P7 252 -1.038
48 P7 253 -1.038
48 P7 254 -1.526
48 P7 255 -2.014
# PO2 chan 27
48 PO2 0 -16.581
48 PO2 1 -16.581
48 PO2 2 -15.605
48 PO2 3 -13.163
48 PO2 4 -10.722
48 PO2 5 -9.745
48 PO2 6 -9.257
48 PO2 7 -9.745
48 PO2 8 -10.234
48 PO2 9 -9.257
48 PO2 10 -8.769
48 PO2 11 -8.769
48 PO2 12 -9.745
48 PO2 13 -11.210
48 PO2 14 -12.675
48 PO2 15 -13.652
48 PO2 16 -12.675
48 PO2 17 -10.722
48 PO2 18 -8.769
48 PO2 19 -6.816
48 PO2 20 -6.327
48 PO2 21 -7.304
48 PO2 22 -8.769
48 PO2 23 -10.234
48 PO2 24 -11.210
48 PO2 25 -10.722
48 PO2 26 -9.745
48 PO2 27 -8.280
48 PO2 28 -7.304
48 PO2 29 -6.816
48 PO2 30 -7.304
48 PO2 31 -7.792
48 PO2 32 -7.304
48 PO2 33 -6.816
48 PO2 34 -5.839
48 PO2 35 -5.839
48 PO2 36 -6.327
48 PO2 37 -7.304
48 PO2 38 -6.816
48 PO2 39 -5.839
48 PO2 40 -4.862
48 PO2 41 -3.886
48 PO2 42 -2.421
48 PO2 43 -0.956
48 PO2 44 0.509
48 PO2 45 0.997
48 PO2 46 0.020
48 PO2 47 -1.933
48 PO2 48 -3.886
48 PO2 49 -4.374
48 PO2 50 -3.398
48 PO2 51 -1.933
48 PO2 52 -0.956
48 PO2 53 -0.956
48 PO2 54 -2.909
48 PO2 55 -4.374
48 PO2 56 -4.862
48 PO2 57 -3.398
48 PO2 58 -0.956
48 PO2 59 0.997
48 PO2 60 1.485
48 PO2 61 0.997
48 PO2 62 0.020
48 PO2 63 0.020
48 PO2 64 0.020
48 PO2 65 0.509
48 PO2 66 0.020
48 PO2 67 -1.933
48 PO2 68 -3.886
48 PO2 69 -4.862
48 PO2 70 -4.374
48 PO2 71 -2.909
48 PO2 72 -0.956
48 PO2 73 0.020
48 PO2 74 -0.468
48 PO2 75 -0.956
48 PO2 76 -1.444
48 PO2 77 -1.933
48 PO2 78 -1.933
48 PO2 79 -2.421
48 PO2 80 -2.421
48 PO2 81 -2.909
48 PO2 82 -2.909
48 PO2 83 -2.421
48 PO2 84 -1.444
48 PO2 85 0.020
48 PO2 86 1.973
48 PO2 87 2.950
48 PO2 88 3.927
48 PO2 89 4.415
48 PO2 90 4.903
48 PO2 91 4.903
48 PO2 92 4.415
48 PO2 93 3.927
48 PO2 94 3.927
48 PO2 95 3.438
48 PO2 96 3.438
48 PO2 97 3.927
48 PO2 98 3.927
48 PO2 99 4.415
48 PO2 100 4.415
48 PO2 101 3.927
48 PO2 102 4.415
48 PO2 103 3.927
48 PO2 104 3.927
48 PO2 105 3.438
48 PO2 106 2.950
48 PO2 107 2.462
48 PO2 108 1.973
48 PO2 109 1.973
48 PO2 110 2.950
48 PO2 111 4.415
48 PO2 112 5.880
48 PO2 113 6.856
48 PO2 114 6.856
48 PO2 115 6.368
48 PO2 116 5.391
48 PO2 117 4.903
48 PO2 118 4.903
48 PO2 119 4.903
48 PO2 120 4.415
48 PO2 121 3.438
48 PO2 122 1.973
48 PO2 123 1.485
48 PO2 124 1.485
48 PO2 125 1.973
48 PO2 126 2.950
48 PO2 127 3.927
48 PO2 128 3.438
48 PO2 129 2.462
48 PO2 130 0.509
48 PO2 131 -2.421
48 PO2 132 -4.374
48 PO2 133 -4.862
48 PO2 134 -4.374
48 PO2 135 -2.421
48 PO2 136 0.020
48 PO2 137 1.485
48 PO2 138 2.462
48 PO2 139 2.462
48 PO2 140 1.973
48 PO2 141 -0.468
48 PO2 142 -2.421
48 PO2 143 -4.862
48 PO2 144 -7.304
48 PO2 145 -8.280
48 PO2 146 -8.280
48 PO2 147 -6.816
48 PO2 148 -5.839
48 PO2 149 -4.862
48 PO2 150 -4.374
48 PO2 151 -3.886
48 PO2 152 -2.909
48 PO2 153 -1.933
48 PO2 154 -0.956
48 PO2 155 -0.956
48 PO2 156 -1.933
48 PO2 157 -2.909
48 PO2 158 -3.398
48 PO2 159 -2.909
48 PO2 160 -2.421
48 PO2 161 -1.933
48 PO2 162 -2.909
48 PO2 163 -3.886
48 PO2 164 -5.351
48 PO2 165 -6.327
48 PO2 166 -6.816
48 PO2 167 -6.816
48 PO2 168 -6.816
48 PO2 169 -7.304
48 PO2 170 -7.792
48 PO2 171 -9.257
48 PO2 172 -10.722
48 PO2 173 -12.675
48 PO2 174 -14.140
48 PO2 175 -15.605
48 PO2 176 -16.093
48 PO2 177 -16.581
48 PO2 178 -15.605
48 PO2 179 -14.140
48 PO2 180 -11.698
48 PO2 181 -9.745
48 PO2 182 -7.792
48 PO2 183 -6.816
48 PO2 184 -7.792
48 PO2 185 -8.769
48 PO2 186 -10.234
48 PO2 187 -10.234
48 PO2 188 -9.745
48 PO2 189 -8.769
48 PO2 190 -8.280
48 PO2 191 -8.769
48 PO2 192 -9.257
48 PO2 193 -9.745
48 PO2 194 -9.745
48 PO2 195 -9.257
48 PO2 196 -7.792
48 PO2 197 -6.327
48 PO2 198 -4.862
48 PO2 199 -4.374
48 PO2 200 -5.351
48 PO2 201 -7.304
48 PO2 202 -9.745
48 PO2 203 -11.210
48 PO2 204 -10.722
48 PO2 205 -9.745
48 PO2 206 -7.792
48 PO2 207 -5.839
48 PO2 208 -4.862
48 PO2 209 -5.351
48 PO2 210 -5.839
48 PO2 211 -5.839
48 PO2 212 -4.862
48 PO2 213 -2.909
48 PO2 214 -0.956
48 PO2 215 0.997
48 PO2 216 1.485
48 PO2 217 1.973
48 PO2 218 1.485
48 PO2 219 0.997
48 PO2 220 0.509
48 PO2 221 0.509
48 PO2 222 0.997
48 PO2 223 1.485
48 PO2 224 1.973
48 PO2 225 1.973
48 PO2 226 2.462
48 PO2 227 2.462
48 PO2 228 2.462
48 PO2 229 1.973
48 PO2 230 0.997
48 PO2 231 0.020
48 PO2 232 -1.933
48 PO2 233 -2.909
48 PO2 234 -3.886
48 PO2 235 -4.374
48 PO2 236 -3.886
48 PO2 237 -2.421
48 PO2 238 -0.956
48 PO2 239 0.997
48 PO2 240 1.973
48 PO2 241 2.462
48 PO2 242 2.950
48 PO2 243 2.462
48 PO2 244 2.950
48 PO2 245 2.462
48 PO2 246 1.973
48 PO2 247 1.973
48 PO2 248 0.997
48 PO2 249 0.997
48 PO2 250 0.997
48 PO2 251 1.973
48 PO2 252 3.438
48 PO2 253 4.415
48 PO2 254 5.391
48 PO2 255 5.391
# PO1 chan 28
48 PO1 0 -1.434
48 PO1 1 -1.434
48 PO1 2 -0.458
48 PO1 3 0.519
48 PO1 4 1.984
48 PO1 5 2.960
48 PO1 6 2.960
48 PO1 7 1.984
48 PO1 8 1.007
48 PO1 9 0.519
48 PO1 10 1.007
48 PO1 11 1.984
48 PO1 12 2.472
48 PO1 13 1.984
48 PO1 14 1.007
48 PO1 15 0.031
48 PO1 16 -0.458
48 PO1 17 0.519
48 PO1 18 1.495
48 PO1 19 2.472
48 PO1 20 2.960
48 PO1 21 2.960
48 PO1 22 2.472
48 PO1 23 1.984
48 PO1 24 1.495
48 PO1 25 1.495
48 PO1 26 1.984
48 PO1 27 2.472
48 PO1 28 3.448
48 PO1 29 3.448
48 PO1 30 3.448
48 PO1 31 3.937
48 PO1 32 4.425
48 PO1 33 4.913
48 PO1 34 4.913
48 PO1 35 4.425
48 PO1 36 3.937
48 PO1 37 2.960
48 PO1 38 2.960
48 PO1 39 4.425
48 PO1 40 5.890
48 PO1 41 7.843
48 PO1 42 8.820
48 PO1 43 8.820
48 PO1 44 7.843
48 PO1 45 6.378
48 PO1 46 4.425
48 PO1 47 1.984
48 PO1 48 0.519
48 PO1 49 0.519
48 PO1 50 1.007
48 PO1 51 1.495
48 PO1 52 2.472
48 PO1 53 2.472
48 PO1 54 2.472
