# co3a0000458.rd
# 120 trials, 64 chans, 416 samples 368 post_stim samples
# 3.906000 msecs uV
# S2 nomatch, trial 95
# FP1 chan 0
95 FP1 0 -6.694
95 FP1 1 -3.276
95 FP1 2 -0.346
95 FP1 3 1.607
95 FP1 4 0.142
95 FP1 5 -2.787
95 FP1 6 -6.205
95 FP1 7 -7.670
95 FP1 8 -6.205
95 FP1 9 -1.322
95 FP1 10 5.025
95 FP1 11 11.861
95 FP1 12 16.744
95 FP1 13 18.697
95 FP1 14 17.721
95 FP1 15 13.326
95 FP1 16 7.467
95 FP1 17 2.584
95 FP1 18 1.119
95 FP1 19 3.560
95 FP1 20 7.955
95 FP1 21 11.373
95 FP1 22 11.861
95 FP1 23 8.443
95 FP1 24 2.584
95 FP1 25 -2.299
95 FP1 26 -6.205
95 FP1 27 -7.182
95 FP1 28 -6.694
95 FP1 29 -4.740
95 FP1 30 -2.299
95 FP1 31 0.631
95 FP1 32 3.560
95 FP1 33 4.537
95 FP1 34 4.049
95 FP1 35 3.072
95 FP1 36 3.072
95 FP1 37 5.514
95 FP1 38 10.396
95 FP1 39 16.256
95 FP1 40 20.162
95 FP1 41 20.162
95 FP1 42 16.256
95 FP1 43 10.396
95 FP1 44 5.025
95 FP1 45 1.607
95 FP1 46 1.607
95 FP1 47 3.072
95 FP1 48 6.002
95 FP1 49 7.467
95 FP1 50 7.955
95 FP1 51 6.978
95 FP1 52 4.537
95 FP1 53 2.096
95 FP1 54 -0.346
95 FP1 55 -2.299
95 FP1 56 -2.787
95 FP1 57 -2.299
95 FP1 58 -0.346
95 FP1 59 2.584
95 FP1 60 6.490
95 FP1 61 9.420
95 FP1 62 10.396
95 FP1 63 10.885
95 FP1 64 10.396
95 FP1 65 10.885
95 FP1 66 11.861
95 FP1 67 13.326
95 FP1 68 13.814
95 FP1 69 12.838
95 FP1 70 10.885
95 FP1 71 8.443
95 FP1 72 6.490
95 FP1 73 5.025
95 FP1 74 4.537
95 FP1 75 4.049
95 FP1 76 2.584
95 FP1 77 1.607
95 FP1 78 1.119
95 FP1 79 2.096
95 FP1 80 4.537
95 FP1 81 6.978
95 FP1 82 9.420
95 FP1 83 9.908
95 FP1 84 9.420
95 FP1 85 8.931
95 FP1 86 8.443
95 FP1 87 8.931
95 FP1 88 9.420
95 FP1 89 8.931
95 FP1 90 9.420
95 FP1 91 10.396
95 FP1 92 11.861
95 FP1 93 13.814
95 FP1 94 14.303
95 FP1 95 13.326
95 FP1 96 11.861
95 FP1 97 9.420
95 FP1 98 7.955
95 FP1 99 6.490
95 FP1 100 5.514
95 FP1 101 4.537
95 FP1 102 4.537
95 FP1 103 5.025
95 FP1 104 6.002
95 FP1 105 6.978
95 FP1 106 6.978
95 FP1 107 6.002
95 FP1 108 4.537
95 FP1 109 3.072
95 FP1 110 1.607
95 FP1 111 0.631
95 FP1 112 0.631
95 FP1 113 2.096
95 FP1 114 4.537
95 FP1 115 6.978
95 FP1 116 8.443
95 FP1 117 8.443
95 FP1 118 6.978
95 FP1 119 6.002
95 FP1 120 6.002
95 FP1 121 6.490
95 FP1 122 6.002
95 FP1 123 3.560
95 FP1 124 0.631
95 FP1 125 -1.322
95 FP1 126 -0.834
95 FP1 127 1.607
95 FP1 128 4.537
95 FP1 129 6.978
95 FP1 130 6.978
95 FP1 131 5.514
95 FP1 132 4.049
95 FP1 133 3.072
95 FP1 134 3.072
95 FP1 135 3.560
95 FP1 136 3.560
95 FP1 137 3.560
95 FP1 138 3.072
95 FP1 139 3.072
95 FP1 140 3.072
95 FP1 141 3.560
95 FP1 142 4.537
95 FP1 143 5.025
95 FP1 144 5.025
95 FP1 145 4.049
95 FP1 146 3.560
95 FP1 147 3.560
95 FP1 148 4.049
95 FP1 149 4.537
95 FP1 150 4.537
95 FP1 151 3.072
95 FP1 152 0.631
95 FP1 153 -1.322
95 FP1 154 -1.322
95 FP1 155 1.119
95 FP1 156 4.537
95 FP1 157 7.467
95 FP1 158 7.955
95 FP1 159 5.514
95 FP1 160 3.072
95 FP1 161 2.096
95 FP1 162 3.560
95 FP1 163 6.490
95 FP1 164 7.955
95 FP1 165 6.002
95 FP1 166 2.584
95 FP1 167 -0.834
95 FP1 168 -1.322
95 FP1 169 0.142
95 FP1 170 2.096
95 FP1 171 2.584
95 FP1 172 1.119
95 FP1 173 -1.811
95 FP1 174 -4.252
95 FP1 175 -5.717
95 FP1 176 -6.205
95 FP1 177 -6.205
95 FP1 178 -6.205
95 FP1 179 -5.717
95 FP1 180 -4.252
95 FP1 181 -2.787
95 FP1 182 -1.322
95 FP1 183 -0.834
95 FP1 184 -1.322
95 FP1 185 -1.322
95 FP1 186 -0.346
95 FP1 187 1.607
95 FP1 188 2.584
95 FP1 189 1.607
95 FP1 190 -0.834
95 FP1 191 -4.740
95 FP1 192 -7.670
95 FP1 193 -8.158
95 FP1 194 -6.205
95 FP1 195 -2.299
95 FP1 196 1.119
95 FP1 197 4.049
95 FP1 198 5.025
95 FP1 199 5.025
95 FP1 200 3.072
95 FP1 201 0.631
95 FP1 202 -0.346
95 FP1 203 0.631
95 FP1 204 3.560
95 FP1 205 6.490
95 FP1 206 7.467
95 FP1 207 5.025
95 FP1 208 0.142
95 FP1 209 -4.252
95 FP1 210 -6.205
95 FP1 211 -6.205
95 FP1 212 -3.764
95 FP1 213 -1.811
95 FP1 214 -0.834
95 FP1 215 -1.322
95 FP1 216 -2.787
95 FP1 217 -4.740
95 FP1 218 -7.182
95 FP1 219 -8.647
95 FP1 220 -8.158
95 FP1 221 -5.717
95 FP1 222 -0.834
95 FP1 223 3.560
95 FP1 224 6.002
95 FP1 225 4.537
95 FP1 226 0.631
95 FP1 227 -2.787
95 FP1 228 -4.252
95 FP1 229 -3.276
95 FP1 230 -0.834
95 FP1 231 1.607
95 FP1 232 2.584
95 FP1 233 2.584
95 FP1 234 2.096
95 FP1 235 1.119
95 FP1 236 -1.322
95 FP1 237 -5.229
95 FP1 238 -10.600
95 FP1 239 -14.994
95 FP1 240 -16.947
95 FP1 241 -15.483
95 FP1 242 -11.576
95 FP1 243 -6.205
95 FP1 244 -1.322
95 FP1 245 2.584
95 FP1 246 3.560
95 FP1 247 4.049
95 FP1 248 3.072
95 FP1 249 2.096
95 FP1 250 2.096
95 FP1 251 2.584
95 FP1 252 3.072
95 FP1 253 4.049
95 FP1 254 4.049
95 FP1 255 4.049
# FP2 chan 1
95 FP2 0 -4.924
95 FP2 1 -3.459
95 FP2 2 -1.994
95 FP2 3 -0.529
95 FP2 4 0.936
95 FP2 5 0.936
95 FP2 6 -0.041
95 FP2 7 -1.994
95 FP2 8 -2.970
95 FP2 9 -2.970
95 FP2 10 -0.041
95 FP2 11 5.330
95 FP2 12 11.190
95 FP2 13 15.584
95 FP2 14 17.049
95 FP2 15 14.119
95 FP2 16 8.748
95 FP2 17 2.889
95 FP2 18 -1.017
95 FP2 19 -1.017
95 FP2 20 0.936
95 FP2 21 4.354
95 FP2 22 6.307
95 FP2 23 5.819
95 FP2 24 2.889
95 FP2 25 -1.506
95 FP2 26 -6.877
95 FP2 27 -10.783
95 FP2 28 -13.224
95 FP2 29 -12.736
95 FP2 30 -9.806
95 FP2 31 -4.924
95 FP2 32 -0.529
95 FP2 33 2.889
95 FP2 34 3.866
95 FP2 35 2.401
95 FP2 36 0.936
95 FP2 37 1.912
95 FP2 38 5.330
95 FP2 39 10.213
95 FP2 40 14.608
95 FP2 41 16.561
95 FP2 42 14.119
95 FP2 43 9.237
95 FP2 44 3.866
95 FP2 45 -0.041
95 FP2 46 -1.506
95 FP2 47 -0.529
95 FP2 48 1.912
95 FP2 49 3.866
95 FP2 50 4.354
95 FP2 51 3.866
95 FP2 52 2.401
95 FP2 53 0.448
95 FP2 54 -1.506
95 FP2 55 -3.459
95 FP2 56 -4.924
95 FP2 57 -5.900
95 FP2 58 -4.924
95 FP2 59 -1.994
95 FP2 60 1.912
95 FP2 61 5.330
95 FP2 62 6.795
95 FP2 63 6.307
95 FP2 64 4.842
95 FP2 65 4.354
95 FP2 66 4.842
95 FP2 67 5.819
95 FP2 68 6.307
95 FP2 69 5.330
95 FP2 70 3.377
95 FP2 71 0.936
95 FP2 72 -1.017
95 FP2 73 -2.482
95 FP2 74 -3.459
95 FP2 75 -3.947
95 FP2 76 -4.924
95 FP2 77 -5.900
95 FP2 78 -6.388
95 FP2 79 -4.924
95 FP2 80 -1.994
95 FP2 81 1.424
95 FP2 82 3.866
95 FP2 83 4.354
95 FP2 84 3.866
95 FP2 85 2.401
95 FP2 86 2.401
95 FP2 87 2.889
95 FP2 88 3.866
95 FP2 89 4.842
95 FP2 90 5.330
95 FP2 91 5.819
95 FP2 92 6.795
95 FP2 93 7.772
95 FP2 94 8.260
95 FP2 95 7.284
95 FP2 96 5.330
95 FP2 97 1.912
95 FP2 98 -1.017
95 FP2 99 -3.459
95 FP2 100 -3.947
95 FP2 101 -3.947
95 FP2 102 -2.970
95 FP2 103 -1.994
95 FP2 104 -1.506
95 FP2 105 -1.017
95 FP2 106 -1.506
95 FP2 107 -1.994
95 FP2 108 -3.947
95 FP2 109 -5.900
95 FP2 110 -8.341
95 FP2 111 -9.806
95 FP2 112 -9.806
95 FP2 113 -7.853
95 FP2 114 -3.947
95 FP2 115 -1.017
95 FP2 116 0.936
95 FP2 117 0.448
95 FP2 118 -0.529
95 FP2 119 -1.506
95 FP2 120 -2.482
95 FP2 121 -3.947
95 FP2 122 -6.388
95 FP2 123 -9.318
95 FP2 124 -11.759
95 FP2 125 -12.248
95 FP2 126 -10.295
95 FP2 127 -6.877
95 FP2 128 -3.947
95 FP2 129 -2.970
95 FP2 130 -3.947
95 FP2 131 -5.900
95 FP2 132 -7.853
95 FP2 133 -8.830
95 FP2 134 -8.830
95 FP2 135 -9.318
95 FP2 136 -9.318
95 FP2 137 -9.806
95 FP2 138 -9.806
95 FP2 139 -9.318
95 FP2 140 -8.341
95 FP2 141 -7.853
95 FP2 142 -6.877
95 FP2 143 -6.877
95 FP2 144 -7.853
95 FP2 145 -8.830
95 FP2 146 -9.806
95 FP2 147 -9.806
95 FP2 148 -9.806
95 FP2 149 -10.295
95 FP2 150 -10.295
95 FP2 151 -11.759
95 FP2 152 -13.224
95 FP2 153 -13.713
95 FP2 154 -12.736
95 FP2 155 -9.318
95 FP2 156 -5.412
95 FP2 157 -2.970
95 FP2 158 -2.970
95 FP2 159 -4.924
95 FP2 160 -7.365
95 FP2 161 -9.318
95 FP2 162 -9.806
95 FP2 163 -8.830
95 FP2 164 -8.830
95 FP2 165 -9.806
95 FP2 166 -12.248
95 FP2 167 -14.689
95 FP2 168 -15.177
95 FP2 169 -14.201
95 FP2 170 -13.224
95 FP2 171 -13.224
95 FP2 172 -14.689
95 FP2 173 -16.642
95 FP2 174 -19.572
95 FP2 175 -21.525
95 FP2 176 -22.502
95 FP2 177 -22.502
95 FP2 178 -21.037
95 FP2 179 -18.595
95 FP2 180 -16.154
95 FP2 181 -13.713
95 FP2 182 -11.759
95 FP2 183 -11.759
95 FP2 184 -11.271
95 FP2 185 -11.271
95 FP2 186 -10.783
95 FP2 187 -9.806
95 FP2 188 -9.806
95 FP2 189 -10.783
95 FP2 190 -13.713
95 FP2 191 -17.619
95 FP2 192 -20.549
95 FP2 193 -22.013
95 FP2 194 -21.525
95 FP2 195 -19.084
95 FP2 196 -15.666
95 FP2 197 -12.736
95 FP2 198 -10.295
95 FP2 199 -10.295
95 FP2 200 -12.248
95 FP2 201 -14.689
95 FP2 202 -16.154
95 FP2 203 -15.177
95 FP2 204 -12.736
95 FP2 205 -10.295
95 FP2 206 -9.806
95 FP2 207 -11.759
95 FP2 208 -15.666
95 FP2 209 -19.572
95 FP2 210 -22.502
95 FP2 211 -23.478
95 FP2 212 -22.502
95 FP2 213 -20.549
95 FP2 214 -18.107
95 FP2 215 -16.642
95 FP2 216 -15.666
95 FP2 217 -16.154
95 FP2 218 -17.619
95 FP2 219 -19.572
95 FP2 220 -19.572
95 FP2 221 -18.595
95 FP2 222 -15.177
95 FP2 223 -12.736
95 FP2 224 -11.759
95 FP2 225 -13.224
95 FP2 226 -16.154
95 FP2 227 -18.595
95 FP2 228 -18.595
95 FP2 229 -16.154
95 FP2 230 -13.713
95 FP2 231 -11.759
95 FP2 232 -11.759
95 FP2 233 -12.736
95 FP2 234 -14.689
95 FP2 235 -16.642
95 FP2 236 -18.107
95 FP2 237 -20.549
95 FP2 238 -22.502
95 FP2 239 -23.966
95 FP2 240 -24.943
95 FP2 241 -23.966
95 FP2 242 -22.013
95 FP2 243 -19.572
95 FP2 244 -17.131
95 FP2 245 -14.689
95 FP2 246 -12.248
95 FP2 247 -10.783
95 FP2 248 -10.783
95 FP2 249 -11.759
95 FP2 250 -13.224
95 FP2 251 -13.713
95 FP2 252 -13.713
95 FP2 253 -12.248
95 FP2 254 -11.271
95 FP2 255 -11.759
# F7 chan 2
95 F7 0 -5.371
95 F7 1 0.000
95 F7 2 4.395
95 F7 3 5.371
95 F7 4 2.441
95 F7 5 -2.930
95 F7 6 -8.301
95 F7 7 -10.254
95 F7 8 -6.836
95 F7 9 0.977
95 F7 10 9.766
95 F7 11 17.090
95 F7 12 20.020
95 F7 13 18.066
95 F7 14 13.184
95 F7 15 7.812
95 F7 16 4.395
95 F7 17 3.906
95 F7 18 6.836
95 F7 19 10.742
95 F7 20 13.672
95 F7 21 13.672
95 F7 22 9.277
95 F7 23 3.418
95 F7 24 -1.953
95 F7 25 -4.395
95 F7 26 -3.418
95 F7 27 -1.465
95 F7 28 0.488
95 F7 29 0.977
95 F7 30 0.977
95 F7 31 1.465
95 F7 32 1.953
95 F7 33 1.465
95 F7 34 0.488
95 F7 35 -0.488
95 F7 36 0.000
95 F7 37 4.395
95 F7 38 10.254
95 F7 39 15.625
95 F7 40 18.066
95 F7 41 16.113
95 F7 42 11.230
95 F7 43 5.859
95 F7 44 2.930
95 F7 45 2.930
95 F7 46 4.883
95 F7 47 6.348
95 F7 48 5.859
95 F7 49 3.418
95 F7 50 0.977
95 F7 51 -1.953
95 F7 52 -3.418
95 F7 53 -4.883
95 F7 54 -6.348
95 F7 55 -7.324
95 F7 56 -7.812
95 F7 57 -5.371
95 F7 58 -1.465
95 F7 59 3.418
95 F7 60 7.324
95 F7 61 8.789
95 F7 62 8.301
95 F7 63 6.836
95 F7 64 6.836
95 F7 65 8.301
95 F7 66 11.719
95 F7 67 14.648
95 F7 68 16.113
95 F7 69 15.137
95 F7 70 12.207
95 F7 71 8.301
95 F7 72 5.371
95 F7 73 4.395
95 F7 74 4.883
95 F7 75 5.371
95 F7 76 5.371
95 F7 77 3.906
95 F7 78 1.953
95 F7 79 0.977
95 F7 80 1.953
95 F7 81 4.395
95 F7 82 7.812
95 F7 83 10.254
95 F7 84 11.719
95 F7 85 11.719
95 F7 86 11.230
95 F7 87 10.254
95 F7 88 9.277
95 F7 89 8.301
95 F7 90 7.324
95 F7 91 7.812
95 F7 92 9.766
95 F7 93 11.719
95 F7 94 13.672
95 F7 95 13.672
95 F7 96 12.695
95 F7 97 10.254
95 F7 98 6.836
95 F7 99 3.906
95 F7 100 1.465
95 F7 101 0.977
95 F7 102 1.953
95 F7 103 3.906
95 F7 104 5.859
95 F7 105 6.348
95 F7 106 5.859
95 F7 107 4.883
95 F7 108 4.883
95 F7 109 4.883
95 F7 110 4.883
95 F7 111 3.418
95 F7 112 0.977
95 F7 113 -0.977
95 F7 114 -1.953
95 F7 115 -0.977
95 F7 116 0.977
95 F7 117 2.930
95 F7 118 4.395
95 F7 119 4.395
95 F7 120 3.906
95 F7 121 2.930
95 F7 122 2.441
95 F7 123 1.465
95 F7 124 -0.488
95 F7 125 -1.953
95 F7 126 -1.953
95 F7 127 0.000
95 F7 128 3.906
95 F7 129 6.836
95 F7 130 8.301
95 F7 131 6.836
95 F7 132 3.906
95 F7 133 1.465
95 F7 134 -0.488
95 F7 135 -0.488
95 F7 136 -0.488
95 F7 137 0.000
95 F7 138 0.000
95 F7 139 0.488
95 F7 140 1.465
95 F7 141 2.930
95 F7 142 3.418
95 F7 143 2.930
95 F7 144 0.977
95 F7 145 -0.977
95 F7 146 -2.441
95 F7 147 -3.418
95 F7 148 -2.930
95 F7 149 -2.441
95 F7 150 -2.441
95 F7 151 -3.418
95 F7 152 -4.883
95 F7 153 -5.859
95 F7 154 -5.371
95 F7 155 -3.418
95 F7 156 -0.977
95 F7 157 0.488
95 F7 158 -0.488
95 F7 159 -2.441
95 F7 160 -3.418
95 F7 161 -1.465
95 F7 162 2.930
95 F7 163 8.301
95 F7 164 11.230
95 F7 165 9.766
95 F7 166 4.883
95 F7 167 -1.465
95 F7 168 -4.395
95 F7 169 -4.395
95 F7 170 -1.953
95 F7 171 0.000
95 F7 172 0.000
95 F7 173 -1.953
95 F7 174 -4.395
95 F7 175 -6.348
95 F7 176 -6.348
95 F7 177 -5.371
95 F7 178 -4.883
95 F7 179 -4.395
95 F7 180 -3.906
95 F7 181 -1.953
95 F7 182 0.977
95 F7 183 2.441
95 F7 184 2.441
95 F7 185 0.000
95 F7 186 -2.930
95 F7 187 -4.883
95 F7 188 -4.395
95 F7 189 -2.930
95 F7 190 -0.488
95 F7 191 1.465
95 F7 192 2.930
95 F7 193 3.906
95 F7 194 4.395
95 F7 195 4.883
95 F7 196 5.371
95 F7 197 5.371
95 F7 198 5.371
95 F7 199 5.371
95 F7 200 5.371
95 F7 201 4.883
95 F7 202 4.395
95 F7 203 5.371
95 F7 204 7.324
95 F7 205 8.789
95 F7 206 9.277
95 F7 207 8.301
95 F7 208 5.859
95 F7 209 3.418
95 F7 210 2.441
95 F7 211 1.953
95 F7 212 1.953
95 F7 213 0.488
95 F7 214 -1.953
95 F7 215 -4.883
95 F7 216 -7.812
95 F7 217 -10.742
95 F7 218 -12.695
95 F7 219 -14.160
95 F7 220 -13.672
95 F7 221 -9.766
95 F7 222 -2.930
95 F7 223 4.883
95 F7 224 10.254
95 F7 225 11.230
95 F7 226 8.301
95 F7 227 2.930
95 F7 228 -0.977
95 F7 229 -2.441
95 F7 230 -1.465
95 F7 231 0.977
95 F7 232 2.930
95 F7 233 3.906
95 F7 234 3.906
95 F7 235 1.953
95 F7 236 -0.977
95 F7 237 -5.859
95 F7 238 -11.230
95 F7 239 -16.113
95 F7 240 -18.555
95 F7 241 -18.066
95 F7 242 -14.648
95 F7 243 -8.789
95 F7 244 -2.441
95 F7 245 1.465
95 F7 246 2.930
95 F7 247 1.953
95 F7 248 -0.488
95 F7 249 -1.465
95 F7 250 -0.977
95 F7 251 0.977
95 F7 252 3.906
95 F7 253 5.371
95 F7 254 6.348
95 F7 255 6.348
# F8 chan 3
95 F8 0 -0.509
95 F8 1 -2.462
95 F8 2 -2.462
95 F8 3 -0.509
95 F8 4 1.933
95 F8 5 3.886
95 F8 6 2.909
95 F8 7 -0.020
95 F8 8 -2.950
95 F8 9 -3.438
95 F8 10 0.468
95 F8 11 7.304
95 F8 12 15.116
95 F8 13 19.999
95 F8 14 20.976
95 F8 15 17.558
95 F8 16 12.675
95 F8 17 8.280
95 F8 18 6.327
95 F8 19 8.280
95 F8 20 12.187
95 F8 21 16.581
95 F8 22 19.511
95 F8 23 19.023
95 F8 24 15.116
95 F8 25 8.769
95 F8 26 0.956
95 F8 27 -4.903
95 F8 28 -7.833
95 F8 29 -6.368
95 F8 30 -1.973
95 F8 31 3.398
95 F8 32 8.280
95 F8 33 10.234
95 F8 34 8.769
95 F8 35 5.839
95 F8 36 2.909
95 F8 37 2.421
95 F8 38 5.351
95 F8 39 10.722
95 F8 40 17.069
95 F8 41 20.976
95 F8 42 20.976
95 F8 43 17.558
95 F8 44 11.698
95 F8 45 5.351
95 F8 46 1.444
95 F8 47 0.468
95 F8 48 2.421
95 F8 49 5.839
95 F8 50 8.769
95 F8 51 9.745
95 F8 52 8.280
95 F8 53 5.839
95 F8 54 2.909
95 F8 55 0.468
95 F8 56 -1.485
95 F8 57 -2.950
95 F8 58 -2.462
95 F8 59 -0.509
95 F8 60 3.886
95 F8 61 7.792
95 F8 62 10.722
95 F8 63 10.722
95 F8 64 9.745
95 F8 65 8.769
95 F8 66 9.745
95 F8 67 12.187
95 F8 68 13.163
95 F8 69 12.187
95 F8 70 8.280
95 F8 71 4.374
95 F8 72 1.444
95 F8 73 1.444
95 F8 74 2.421
95 F8 75 2.421
95 F8 76 0.956
95 F8 77 -0.509
95 F8 78 -0.509
95 F8 79 1.933
95 F8 80 5.351
95 F8 81 7.792
95 F8 82 7.792
95 F8 83 5.839
95 F8 84 4.862
95 F8 85 4.862
95 F8 86 6.327
95 F8 87 7.792
95 F8 88 8.280
95 F8 89 7.304
95 F8 90 6.327
95 F8 91 6.327
95 F8 92 7.792
95 F8 93 9.745
95 F8 94 10.722
95 F8 95 10.722
95 F8 96 9.257
95 F8 97 7.792
95 F8 98 7.304
95 F8 99 6.327
95 F8 100 5.351
95 F8 101 4.862
95 F8 102 4.374
95 F8 103 4.862
95 F8 104 5.839
95 F8 105 6.327
95 F8 106 6.327
95 F8 107 5.351
95 F8 108 2.909
95 F8 109 -0.020
95 F8 110 -3.927
95 F8 111 -6.368
95 F8 112 -7.345
95 F8 113 -4.415
95 F8 114 0.468
95 F8 115 6.327
95 F8 116 11.210
95 F8 117 12.187
95 F8 118 10.722
95 F8 119 7.792
95 F8 120 3.886
95 F8 121 0.956
95 F8 122 -1.485
95 F8 123 -2.462
95 F8 124 -2.950
95 F8 125 -1.973
95 F8 126 -0.509
95 F8 127 0.468
95 F8 128 1.444
95 F8 129 1.444
95 F8 130 1.933
95 F8 131 1.933
95 F8 132 2.421
95 F8 133 2.421
95 F8 134 1.933
95 F8 135 0.468
95 F8 136 -0.020
95 F8 137 -0.020
95 F8 138 1.444
95 F8 139 3.398
95 F8 140 5.351
95 F8 141 6.816
95 F8 142 6.816
95 F8 143 6.327
95 F8 144 4.862
95 F8 145 3.398
95 F8 146 3.398
95 F8 147 3.398
95 F8 148 4.374
95 F8 149 4.862
95 F8 150 4.374
95 F8 151 1.933
95 F8 152 -0.509
95 F8 153 -1.485
95 F8 154 -0.020
95 F8 155 4.374
95 F8 156 9.257
95 F8 157 12.187
95 F8 158 11.210
95 F8 159 7.304
95 F8 160 3.398
95 F8 161 1.444
95 F8 162 2.421
95 F8 163 4.374
95 F8 164 4.374
95 F8 165 2.909
95 F8 166 -0.020
95 F8 167 -0.997
95 F8 168 -0.509
95 F8 169 0.468
95 F8 170 0.468
95 F8 171 -0.997
95 F8 172 -3.927
95 F8 173 -5.391
95 F8 174 -5.391
95 F8 175 -3.927
95 F8 176 -2.462
95 F8 177 -1.973
95 F8 178 -1.485
95 F8 179 -0.997
95 F8 180 0.956
95 F8 181 2.421
95 F8 182 2.909
95 F8 183 2.421
95 F8 184 2.421
95 F8 185 3.398
95 F8 186 5.839
95 F8 187 8.769
95 F8 188 10.722
95 F8 189 10.722
95 F8 190 8.769
95 F8 191 5.839
95 F8 192 3.398
95 F8 193 0.956
95 F8 194 -0.020
95 F8 195 -0.020
95 F8 196 2.421
95 F8 197 5.351
95 F8 198 8.280
95 F8 199 9.257
95 F8 200 8.769
95 F8 201 6.816
95 F8 202 5.351
95 F8 203 5.839
95 F8 204 7.304
95 F8 205 8.280
95 F8 206 8.280
95 F8 207 6.816
95 F8 208 4.374
95 F8 209 2.909
95 F8 210 2.421
95 F8 211 2.421
95 F8 212 2.909
95 F8 213 2.909
95 F8 214 2.421
95 F8 215 1.933
95 F8 216 1.933
95 F8 217 0.956
95 F8 218 -0.509
95 F8 219 -2.462
95 F8 220 -3.438
95 F8 221 -2.950
95 F8 222 -0.509
95 F8 223 1.933
95 F8 224 2.909
95 F8 225 1.933
95 F8 226 0.468
95 F8 227 -0.509
95 F8 228 -0.020
95 F8 229 1.933
95 F8 230 3.886
95 F8 231 4.374
95 F8 232 2.909
95 F8 233 1.444
95 F8 234 0.468
95 F8 235 0.468
95 F8 236 -0.020
95 F8 237 -1.485
95 F8 238 -2.462
95 F8 239 -2.950
95 F8 240 -1.973
95 F8 241 -0.997
95 F8 242 -0.020
95 F8 243 -0.509
95 F8 244 -1.973
95 F8 245 -3.438
95 F8 246 -3.438
95 F8 247 -1.973
95 F8 248 0.468
95 F8 249 2.421
95 F8 250 2.909
95 F8 251 3.398
95 F8 252 3.398
95 F8 253 4.862
95 F8 254 5.351
95 F8 255 4.862
# AF1 chan 4
95 AF1 0 -5.208
95 AF1 1 -1.790
95 AF1 2 0.651
95 AF1 3 1.139
95 AF1 4 -0.326
95 AF1 5 -3.743
95 AF1 6 -6.673
95 AF1 7 -7.650
95 AF1 8 -5.697
95 AF1 9 -0.326
95 AF1 10 6.510
95 AF1 11 13.346
95 AF1 12 17.253
95 AF1 13 17.741
95 AF1 14 14.323
95 AF1 15 8.464
95 AF1 16 2.604
95 AF1 17 -0.326
95 AF1 18 0.163
95 AF1 19 4.069
95 AF1 20 7.975
95 AF1 21 9.440
95 AF1 22 7.975
95 AF1 23 3.092
95 AF1 24 -2.767
95 AF1 25 -7.161
95 AF1 26 -8.626
95 AF1 27 -8.138
95 AF1 28 -6.673
95 AF1 29 -4.232
95 AF1 30 -1.790
95 AF1 31 0.163
95 AF1 32 1.628
95 AF1 33 2.116
95 AF1 34 1.628
95 AF1 35 1.139
95 AF1 36 1.139
95 AF1 37 4.069
95 AF1 38 8.464
95 AF1 39 13.346
95 AF1 40 16.276
95 AF1 41 16.276
95 AF1 42 12.858
95 AF1 43 7.487
95 AF1 44 3.581
95 AF1 45 1.628
95 AF1 46 1.628
95 AF1 47 3.581
95 AF1 48 5.046
95 AF1 49 5.534
95 AF1 50 5.046
95 AF1 51 4.069
95 AF1 52 3.092
95 AF1 53 1.628
95 AF1 54 0.651
95 AF1 55 -0.814
95 AF1 56 -1.790
95 AF1 57 -2.279
95 AF1 58 -1.790
95 AF1 59 0.651
95 AF1 60 3.092
95 AF1 61 5.046
95 AF1 62 6.510
95 AF1 63 6.999
95 AF1 64 6.999
95 AF1 65 7.487
95 AF1 66 8.464
95 AF1 67 8.952
95 AF1 68 9.440
95 AF1 69 8.952
95 AF1 70 7.487
95 AF1 71 5.046
95 AF1 72 3.092
95 AF1 73 2.116
95 AF1 74 2.116
95 AF1 75 2.604
95 AF1 76 2.604
95 AF1 77 2.116
95 AF1 78 1.139
95 AF1 79 0.651
95 AF1 80 1.628
95 AF1 81 3.581
95 AF1 82 5.534
95 AF1 83 6.999
95 AF1 84 7.975
95 AF1 85 6.999
95 AF1 86 6.510
95 AF1 87 6.510
95 AF1 88 6.022
95 AF1 89 6.022
95 AF1 90 6.510
95 AF1 91 7.487
95 AF1 92 8.952
95 AF1 93 10.905
95 AF1 94 11.882
95 AF1 95 11.393
95 AF1 96 9.440
95 AF1 97 6.999
95 AF1 98 4.069
95 AF1 99 2.604
95 AF1 100 2.116
95 AF1 101 2.604
95 AF1 102 3.581
95 AF1 103 5.046
95 AF1 104 6.022
95 AF1 105 6.022
95 AF1 106 5.046
95 AF1 107 3.581
95 AF1 108 2.116
95 AF1 109 1.139
95 AF1 110 0.651
95 AF1 111 1.139
95 AF1 112 1.628
95 AF1 113 3.581
95 AF1 114 5.046
95 AF1 115 6.022
95 AF1 116 6.022
95 AF1 117 5.534
95 AF1 118 5.046
95 AF1 119 4.557
95 AF1 120 5.046
95 AF1 121 5.046
95 AF1 122 4.557
95 AF1 123 3.092
95 AF1 124 1.139
95 AF1 125 -0.326
95 AF1 126 -0.814
95 AF1 127 0.651
95 AF1 128 2.604
95 AF1 129 4.069
95 AF1 130 4.557
95 AF1 131 4.069
95 AF1 132 3.092
95 AF1 133 2.116
95 AF1 134 2.604
95 AF1 135 2.604
95 AF1 136 2.604
95 AF1 137 2.116
95 AF1 138 1.139
95 AF1 139 0.163
95 AF1 140 0.163
95 AF1 141 1.139
95 AF1 142 2.604
95 AF1 143 4.069
95 AF1 144 5.046
95 AF1 145 5.046
95 AF1 146 4.069
95 AF1 147 3.581
95 AF1 148 2.604
95 AF1 149 2.116
95 AF1 150 1.628
95 AF1 151 0.163
95 AF1 152 -0.814
95 AF1 153 -1.790
95 AF1 154 -1.302
95 AF1 155 0.651
95 AF1 156 3.092
95 AF1 157 4.557
95 AF1 158 4.557
95 AF1 159 3.092
95 AF1 160 1.139
95 AF1 161 0.163
95 AF1 162 1.139
95 AF1 163 2.604
95 AF1 164 3.092
95 AF1 165 2.116
95 AF1 166 0.163
95 AF1 167 -1.790
95 AF1 168 -2.279
95 AF1 169 -1.302
95 AF1 170 -0.326
95 AF1 171 -0.326
95 AF1 172 -1.790
95 AF1 173 -4.232
95 AF1 174 -6.185
95 AF1 175 -7.161
95 AF1 176 -7.161
95 AF1 177 -6.673
95 AF1 178 -5.697
95 AF1 179 -4.720
95 AF1 180 -3.743
95 AF1 181 -2.767
95 AF1 182 -1.790
95 AF1 183 -1.302
95 AF1 184 -1.302
95 AF1 185 -1.302
95 AF1 186 -1.790
95 AF1 187 -0.814
95 AF1 188 -0.326
95 AF1 189 -1.302
95 AF1 190 -3.255
95 AF1 191 -5.697
95 AF1 192 -7.650
95 AF1 193 -8.626
95 AF1 194 -7.161
95 AF1 195 -4.232
95 AF1 196 -1.302
95 AF1 197 1.139
95 AF1 198 1.628
95 AF1 199 0.651
95 AF1 200 -0.814
95 AF1 201 -2.279
95 AF1 202 -2.279
95 AF1 203 -0.326
95 AF1 204 2.116
95 AF1 205 3.581
95 AF1 206 3.092
95 AF1 207 -0.326
95 AF1 208 -4.232
95 AF1 209 -8.138
95 AF1 210 -9.603
95 AF1 211 -8.626
95 AF1 212 -6.185
95 AF1 213 -3.743
95 AF1 214 -2.279
95 AF1 215 -1.790
95 AF1 216 -3.743
95 AF1 217 -5.697
95 AF1 218 -7.650
95 AF1 219 -8.626
95 AF1 220 -8.138
95 AF1 221 -5.697
95 AF1 222 -1.302
95 AF1 223 2.116
95 AF1 224 3.581
95 AF1 225 2.116
95 AF1 226 -1.302
95 AF1 227 -4.720
95 AF1 228 -6.185
95 AF1 229 -5.208
95 AF1 230 -1.790
95 AF1 231 1.139
95 AF1 232 2.604
95 AF1 233 2.604
95 AF1 234 1.139
95 AF1 235 -1.302
95 AF1 236 -4.232
95 AF1 237 -7.161
95 AF1 238 -10.091
95 AF1 239 -12.533
95 AF1 240 -13.021
95 AF1 241 -12.533
95 AF1 242 -10.091
95 AF1 243 -6.185
95 AF1 244 -2.279
95 AF1 245 0.651
95 AF1 246 2.604
95 AF1 247 3.581
95 AF1 248 3.092
95 AF1 249 2.116
95 AF1 250 1.628
95 AF1 251 1.139
95 AF1 252 1.139
95 AF1 253 1.139
95 AF1 254 1.139
95 AF1 255 0.651
# AF2 chan 5
95 AF2 0 -3.693
95 AF2 1 -2.716
95 AF2 2 -1.251
95 AF2 3 -0.275
95 AF2 4 0.214
95 AF2 5 -0.275
95 AF2 6 -1.251
95 AF2 7 -2.228
95 AF2 8 -2.228
95 AF2 9 0.214
95 AF2 10 4.120
95 AF2 11 9.491
95 AF2 12 14.374
95 AF2 13 16.815
95 AF2 14 16.327
95 AF2 15 12.421
95 AF2 16 7.050
95 AF2 17 2.655
95 AF2 18 1.190
95 AF2 19 2.655
95 AF2 20 6.073
95 AF2 21 9.003
95 AF2 22 9.979
95 AF2 23 7.538
95 AF2 24 3.143
95 AF2 25 -1.740
95 AF2 26 -6.134
95 AF2 27 -8.087
95 AF2 28 -8.575
95 AF2 29 -6.622
95 AF2 30 -3.204
95 AF2 31 0.702
95 AF2 32 4.120
95 AF2 33 5.585
95 AF2 34 5.096
95 AF2 35 3.632
95 AF2 36 2.167
95 AF2 37 2.655
95 AF2 38 5.585
95 AF2 39 9.979
95 AF2 40 14.374
95 AF2 41 16.327
95 AF2 42 15.350
95 AF2 43 11.932
95 AF2 44 6.561
95 AF2 45 2.655
95 AF2 46 0.214
95 AF2 47 -0.275
95 AF2 48 1.190
95 AF2 49 3.143
95 AF2 50 5.096
95 AF2 51 6.073
95 AF2 52 6.561
95 AF2 53 5.585
95 AF2 54 4.120
95 AF2 55 1.190
95 AF2 56 -1.251
95 AF2 57 -2.716
95 AF2 58 -3.204
95 AF2 59 -1.740
95 AF2 60 1.678
95 AF2 61 5.096
95 AF2 62 7.538
95 AF2 63 8.514
95 AF2 64 8.514
95 AF2 65 8.026
95 AF2 66 7.538
95 AF2 67 8.026
95 AF2 68 8.026
95 AF2 69 7.538
95 AF2 70 6.073
95 AF2 71 4.120
95 AF2 72 2.167
95 AF2 73 0.702
95 AF2 74 0.702
95 AF2 75 1.190
95 AF2 76 1.678
95 AF2 77 1.190
95 AF2 78 1.190
95 AF2 79 1.190
95 AF2 80 2.167
95 AF2 81 3.632
95 AF2 82 5.096
95 AF2 83 5.585
95 AF2 84 5.096
95 AF2 85 4.608
95 AF2 86 4.120
95 AF2 87 4.608
95 AF2 88 5.096
95 AF2 89 5.585
95 AF2 90 6.073
95 AF2 91 7.050
95 AF2 92 8.514
95 AF2 93 9.979
95 AF2 94 10.956
95 AF2 95 10.468
95 AF2 96 9.003
95 AF2 97 6.073
95 AF2 98 4.120
95 AF2 99 2.655
95 AF2 100 1.678
95 AF2 101 2.167
95 AF2 102 3.143
95 AF2 103 4.120
95 AF2 104 5.585
95 AF2 105 6.561
95 AF2 106 6.073
95 AF2 107 4.608
95 AF2 108 2.167
95 AF2 109 0.214
95 AF2 110 -1.740
95 AF2 111 -1.740
95 AF2 112 -1.251
95 AF2 113 0.702
95 AF2 114 3.143
95 AF2 115 5.585
95 AF2 116 7.050
95 AF2 117 7.538
95 AF2 118 6.561
95 AF2 119 5.585
95 AF2 120 4.120
95 AF2 121 3.632
95 AF2 122 2.167
95 AF2 123 1.190
95 AF2 124 -0.275
95 AF2 125 -0.763
95 AF2 126 -0.763
95 AF2 127 0.702
95 AF2 128 1.678
95 AF2 129 3.143
95 AF2 130 3.632
95 AF2 131 3.632
95 AF2 132 2.655
95 AF2 133 2.167
95 AF2 134 1.678
95 AF2 135 1.678
95 AF2 136 1.678
95 AF2 137 1.678
95 AF2 138 1.678
95 AF2 139 1.678
95 AF2 140 1.678
95 AF2 141 2.655
95 AF2 142 3.632
95 AF2 143 4.608
95 AF2 144 5.096
95 AF2 145 4.608
95 AF2 146 4.120
95 AF2 147 3.143
95 AF2 148 2.655
95 AF2 149 2.167
95 AF2 150 2.655
95 AF2 151 2.167
95 AF2 152 1.190
95 AF2 153 0.214
95 AF2 154 0.214
95 AF2 155 1.678
95 AF2 156 4.120
95 AF2 157 6.073
95 AF2 158 6.073
95 AF2 159 4.608
95 AF2 160 3.143
95 AF2 161 1.678
95 AF2 162 1.190
95 AF2 163 2.167
95 AF2 164 2.167
95 AF2 165 1.190
95 AF2 166 -0.763
95 AF2 167 -2.716
95 AF2 168 -2.716
95 AF2 169 -1.740
95 AF2 170 -0.763
95 AF2 171 -0.763
95 AF2 172 -2.716
95 AF2 173 -5.157
95 AF2 174 -7.111
95 AF2 175 -7.111
95 AF2 176 -6.622
95 AF2 177 -5.646
95 AF2 178 -5.157
95 AF2 179 -4.181
95 AF2 180 -3.693
95 AF2 181 -3.204
95 AF2 182 -2.228
95 AF2 183 -1.740
95 AF2 184 -1.251
95 AF2 185 -0.275
95 AF2 186 0.702
95 AF2 187 2.655
95 AF2 188 3.143
95 AF2 189 2.167
95 AF2 190 -0.763
95 AF2 191 -4.181
95 AF2 192 -7.111
95 AF2 193 -8.087
95 AF2 194 -7.111
95 AF2 195 -4.669
95 AF2 196 -1.740
95 AF2 197 0.702
95 AF2 198 1.190
95 AF2 199 0.214
95 AF2 200 -2.228
95 AF2 201 -3.693
95 AF2 202 -3.693
95 AF2 203 -2.228
95 AF2 204 0.702
95 AF2 205 2.655
95 AF2 206 2.167
95 AF2 207 -0.763
95 AF2 208 -4.669
95 AF2 209 -8.087
95 AF2 210 -10.040
95 AF2 211 -9.064
95 AF2 212 -7.111
95 AF2 213 -5.157
95 AF2 214 -3.693
95 AF2 215 -3.204
95 AF2 216 -3.204
95 AF2 217 -4.181
95 AF2 218 -5.646
95 AF2 219 -7.111
95 AF2 220 -6.134
95 AF2 221 -4.669
95 AF2 222 -2.228
95 AF2 223 -0.275
95 AF2 224 0.214
95 AF2 225 -1.740
95 AF2 226 -5.157
95 AF2 227 -7.111
95 AF2 228 -7.111
95 AF2 229 -4.181
95 AF2 230 -0.275
95 AF2 231 2.655
95 AF2 232 3.632
95 AF2 233 2.167
95 AF2 234 -0.763
95 AF2 235 -3.693
95 AF2 236 -6.622
95 AF2 237 -9.064
95 AF2 238 -10.040
95 AF2 239 -10.529
95 AF2 240 -9.552
95 AF2 241 -8.087
95 AF2 242 -5.646
95 AF2 243 -3.693
95 AF2 244 -2.716
95 AF2 245 -1.740
95 AF2 246 -0.763
95 AF2 247 0.214
95 AF2 248 0.214
95 AF2 249 0.702
95 AF2 250 0.702
95 AF2 251 0.702
95 AF2 252 0.702
95 AF2 253 0.702
95 AF2 254 0.702
95 AF2 255 0.214
# FZ chan 6
95 FZ 0 -2.452
95 FZ 1 -0.987
95 FZ 2 0.478
95 FZ 3 0.478
95 FZ 4 -0.498
95 FZ 5 -2.452
95 FZ 6 -4.405
95 FZ 7 -4.405
95 FZ 8 -2.452
95 FZ 9 1.943
95 FZ 10 7.314
95 FZ 11 12.197
95 FZ 12 15.615
95 FZ 13 15.127
95 FZ 14 11.709
95 FZ 15 6.337
95 FZ 16 1.943
95 FZ 17 -0.987
95 FZ 18 0.478
95 FZ 19 3.896
95 FZ 20 7.314
95 FZ 21 8.291
95 FZ 22 6.337
95 FZ 23 0.966
95 FZ 24 -4.405
95 FZ 25 -8.799
95 FZ 26 -10.264
95 FZ 27 -9.776
95 FZ 28 -7.334
95 FZ 29 -3.916
95 FZ 30 -0.987
95 FZ 31 1.455
95 FZ 32 2.920
95 FZ 33 2.920
95 FZ 34 2.431
95 FZ 35 0.966
95 FZ 36 0.478
95 FZ 37 1.455
95 FZ 38 4.384
95 FZ 39 8.779
95 FZ 40 12.197
95 FZ 41 13.173
95 FZ 42 11.709
95 FZ 43 8.291
95 FZ 44 4.873
95 FZ 45 1.943
95 FZ 46 0.478
95 FZ 47 0.478
95 FZ 48 1.455
95 FZ 49 1.943
95 FZ 50 2.431
95 FZ 51 2.920
95 FZ 52 3.896
95 FZ 53 3.896
95 FZ 54 3.896
95 FZ 55 1.943
95 FZ 56 -0.498
95 FZ 57 -2.452
95 FZ 58 -3.428
95 FZ 59 -2.452
95 FZ 60 -0.498
95 FZ 61 2.431
95 FZ 62 4.384
95 FZ 63 5.849
95 FZ 64 6.337
95 FZ 65 5.849
95 FZ 66 5.361
95 FZ 67 5.361
95 FZ 68 4.873
95 FZ 69 4.384
95 FZ 70 3.408
95 FZ 71 1.943
95 FZ 72 0.478
95 FZ 73 -0.010
95 FZ 74 -0.010
95 FZ 75 0.966
95 FZ 76 1.455
95 FZ 77 1.455
95 FZ 78 0.478
95 FZ 79 -0.498
95 FZ 80 -0.010
95 FZ 81 0.966
95 FZ 82 2.431
95 FZ 83 3.896
95 FZ 84 4.873
95 FZ 85 4.873
95 FZ 86 4.384
95 FZ 87 3.896
95 FZ 88 3.896
95 FZ 89 4.384
95 FZ 90 4.873
95 FZ 91 5.849
95 FZ 92 7.802
95 FZ 93 8.779
95 FZ 94 9.755
95 FZ 95 9.267
95 FZ 96 7.802
95 FZ 97 5.361
95 FZ 98 2.920
95 FZ 99 0.966
95 FZ 100 0.966
95 FZ 101 1.455
95 FZ 102 2.920
95 FZ 103 4.384
95 FZ 104 5.361
95 FZ 105 5.361
95 FZ 106 3.896
95 FZ 107 1.943
95 FZ 108 -0.010
95 FZ 109 -0.987
95 FZ 110 -0.987
95 FZ 111 -0.010
95 FZ 112 1.943
95 FZ 113 3.408
95 FZ 114 5.361
95 FZ 115 5.849
95 FZ 116 5.361
95 FZ 117 4.384
95 FZ 118 3.896
95 FZ 119 3.408
95 FZ 120 3.896
95 FZ 121 4.384
95 FZ 122 4.873
95 FZ 123 4.384
95 FZ 124 2.431
95 FZ 125 0.966
95 FZ 126 0.478
95 FZ 127 0.478
95 FZ 128 1.455
95 FZ 129 2.431
95 FZ 130 2.920
95 FZ 131 2.920
95 FZ 132 2.431
95 FZ 133 1.943
95 FZ 134 2.431
95 FZ 135 2.431
95 FZ 136 1.943
95 FZ 137 1.455
95 FZ 138 0.478
95 FZ 139 -0.498
95 FZ 140 -0.010
95 FZ 141 0.478
95 FZ 142 2.431
95 FZ 143 3.896
95 FZ 144 5.361
95 FZ 145 5.361
95 FZ 146 4.873
95 FZ 147 3.408
95 FZ 148 1.943
95 FZ 149 0.966
95 FZ 150 -0.010
95 FZ 151 -0.010
95 FZ 152 -0.987
95 FZ 153 -1.475
95 FZ 154 -1.475
95 FZ 155 -0.010
95 FZ 156 1.455
95 FZ 157 2.431
95 FZ 158 2.431
95 FZ 159 1.455
95 FZ 160 -0.010
95 FZ 161 -1.475
95 FZ 162 -1.475
95 FZ 163 -0.987
95 FZ 164 -0.987
95 FZ 165 -1.475
95 FZ 166 -1.963
95 FZ 167 -2.452
95 FZ 168 -1.963
95 FZ 169 -1.475
95 FZ 170 -0.987
95 FZ 171 -2.452
95 FZ 172 -3.916
95 FZ 173 -5.870
95 FZ 174 -7.334
95 FZ 175 -7.334
95 FZ 176 -6.358
95 FZ 177 -5.381
95 FZ 178 -4.405
95 FZ 179 -3.916
95 FZ 180 -3.916
95 FZ 181 -3.428
95 FZ 182 -2.940
95 FZ 183 -2.940
95 FZ 184 -2.940
95 FZ 185 -2.452
95 FZ 186 -1.963
95 FZ 187 -0.498
95 FZ 188 -0.010
95 FZ 189 -0.987
95 FZ 190 -2.940
95 FZ 191 -5.870
95 FZ 192 -7.823
95 FZ 193 -8.799
95 FZ 194 -7.334
95 FZ 195 -4.893
95 FZ 196 -2.452
95 FZ 197 -0.987
95 FZ 198 -0.987
95 FZ 199 -2.940
95 FZ 200 -4.893
95 FZ 201 -5.870
95 FZ 202 -5.381
95 FZ 203 -2.452
95 FZ 204 0.478
95 FZ 205 1.943
95 FZ 206 0.966
95 FZ 207 -1.963
95 FZ 208 -6.358
95 FZ 209 -10.264
95 FZ 210 -11.241
95 FZ 211 -10.264
95 FZ 212 -7.334
95 FZ 213 -4.405
95 FZ 214 -2.452
95 FZ 215 -1.475
95 FZ 216 -2.452
95 FZ 217 -4.405
95 FZ 218 -6.358
95 FZ 219 -7.823
95 FZ 220 -7.334
95 FZ 221 -5.381
95 FZ 222 -2.452
95 FZ 223 0.478
95 FZ 224 1.455
95 FZ 225 -0.498
95 FZ 226 -3.916
95 FZ 227 -6.846
95 FZ 228 -7.334
95 FZ 229 -5.381
95 FZ 230 -1.963
95 FZ 231 1.455
95 FZ 232 2.920
95 FZ 233 2.431
95 FZ 234 -0.010
95 FZ 235 -2.940
95 FZ 236 -5.870
95 FZ 237 -7.823
95 FZ 238 -9.776
95 FZ 239 -10.264
95 FZ 240 -10.264
95 FZ 241 -8.799
95 FZ 242 -6.358
95 FZ 243 -3.916
95 FZ 244 -1.475
95 FZ 245 0.966
95 FZ 246 1.943
95 FZ 247 2.920
95 FZ 248 2.920
95 FZ 249 2.431
95 FZ 250 1.455
95 FZ 251 0.478
95 FZ 252 -0.010
95 FZ 253 -0.010
95 FZ 254 -0.010
95 FZ 255 -0.987
# F4 chan 7
95 F4 0 -0.682
95 F4 1 -1.170
95 F4 2 -1.170
95 F4 3 -0.682
95 F4 4 0.295
95 F4 5 1.272
95 F4 6 0.295
95 F4 7 -0.682
95 F4 8 -1.658
95 F4 9 -1.170
95 F4 10 1.272
95 F4 11 6.154
95 F4 12 11.037
95 F4 13 13.967
95 F4 14 13.967
95 F4 15 10.549
95 F4 16 6.154
95 F4 17 1.760
95 F4 18 -0.193
95 F4 19 1.272
95 F4 20 4.201
95 F4 21 7.619
95 F4 22 9.084
95 F4 23 7.619
95 F4 24 2.736
95 F4 25 -3.123
95 F4 26 -8.494
95 F4 27 -12.400
95 F4 28 -12.889
95 F4 29 -9.959
95 F4 30 -5.076
95 F4 31 0.783
95 F4 32 5.178
95 F4 33 6.643
95 F4 34 5.666
95 F4 35 2.736
95 F4 36 0.783
95 F4 37 -0.193
95 F4 38 2.248
95 F4 39 6.154
95 F4 40 11.037
95 F4 41 14.455
95 F4 42 15.432
95 F4 43 13.479
95 F4 44 9.572
95 F4 45 4.690
95 F4 46 1.272
95 F4 47 -0.682
95 F4 48 0.295
95 F4 49 2.248
95 F4 50 5.178
95 F4 51 6.643
95 F4 52 7.619
95 F4 53 7.131
95 F4 54 5.178
95 F4 55 2.248
95 F4 56 -0.682
95 F4 57 -3.123
95 F4 58 -4.588
95 F4 59 -4.100
95 F4 60 -1.658
95 F4 61 1.760
95 F4 62 5.178
95 F4 63 7.619
95 F4 64 7.619
95 F4 65 7.131
95 F4 66 6.154
95 F4 67 5.666
95 F4 68 5.178
95 F4 69 4.201
95 F4 70 2.248
95 F4 71 -0.193
95 F4 72 -2.146
95 F4 73 -3.123
95 F4 74 -2.635
95 F4 75 -1.658
95 F4 76 -1.658
95 F4 77 -1.658
95 F4 78 -2.146
95 F4 79 -2.146
95 F4 80 -1.658
95 F4 81 -0.682
95 F4 82 0.295
95 F4 83 1.272
95 F4 84 1.272
95 F4 85 1.760
95 F4 86 2.248
95 F4 87 2.736
95 F4 88 3.225
95 F4 89 4.201
95 F4 90 4.690
95 F4 91 6.154
95 F4 92 7.619
95 F4 93 8.596
95 F4 94 8.596
95 F4 95 7.131
95 F4 96 5.178
95 F4 97 3.225
95 F4 98 1.760
95 F4 99 1.272
95 F4 100 0.783
95 F4 101 0.783
95 F4 102 1.272
95 F4 103 2.736
95 F4 104 4.201
95 F4 105 5.178
95 F4 106 4.690
95 F4 107 2.248
95 F4 108 -0.193
95 F4 109 -2.635
95 F4 110 -4.588
95 F4 111 -5.076
95 F4 112 -4.588
95 F4 113 -2.635
95 F4 114 0.295
95 F4 115 3.713
95 F4 116 6.154
95 F4 117 7.131
95 F4 118 6.643
95 F4 119 4.690
95 F4 120 2.248
95 F4 121 0.295
95 F4 122 -1.658
95 F4 123 -2.146
95 F4 124 -2.146
95 F4 125 -1.658
95 F4 126 -0.682
95 F4 127 -0.193
95 F4 128 0.295
95 F4 129 0.295
95 F4 130 0.783
95 F4 131 0.783
95 F4 132 1.272
95 F4 133 1.272
95 F4 134 0.783
95 F4 135 0.295
95 F4 136 -0.193
95 F4 137 -0.193
95 F4 138 0.295
95 F4 139 1.272
95 F4 140 1.272
95 F4 141 1.760
95 F4 142 1.760
95 F4 143 2.248
95 F4 144 2.248
95 F4 145 1.760
95 F4 146 0.783
95 F4 147 0.295
95 F4 148 -0.193
95 F4 149 0.295
95 F4 150 1.272
95 F4 151 1.760
95 F4 152 1.272
95 F4 153 0.295
95 F4 154 -0.682
95 F4 155 -0.193
95 F4 156 2.248
95 F4 157 4.201
95 F4 158 4.690
95 F4 159 3.713
95 F4 160 1.272
95 F4 161 -0.193
95 F4 162 -0.682
95 F4 163 -0.193
95 F4 164 -0.193
95 F4 165 -1.170
95 F4 166 -3.123
95 F4 167 -5.076
95 F4 168 -5.076
95 F4 169 -4.100
95 F4 170 -3.123
95 F4 171 -4.100
95 F4 172 -6.053
95 F4 173 -8.494
95 F4 174 -9.959
95 F4 175 -9.471
95 F4 176 -8.006
95 F4 177 -6.541
95 F4 178 -5.564
95 F4 179 -5.564
95 F4 180 -5.564
95 F4 181 -5.564
95 F4 182 -5.564
95 F4 183 -5.076
95 F4 184 -4.588
95 F4 185 -4.100
95 F4 186 -2.635
95 F4 187 -0.682
95 F4 188 0.295
95 F4 189 -0.682
95 F4 190 -2.635
95 F4 191 -6.053
95 F4 192 -8.982
95 F4 193 -10.447
95 F4 194 -9.959
95 F4 195 -8.006
95 F4 196 -5.564
95 F4 197 -3.611
95 F4 198 -3.123
95 F4 199 -4.100
95 F4 200 -5.564
95 F4 201 -6.541
95 F4 202 -5.564
95 F4 203 -3.611
95 F4 204 -1.658
95 F4 205 -0.682
95 F4 206 -1.658
95 F4 207 -4.100
95 F4 208 -7.517
95 F4 209 -9.959
95 F4 210 -10.935
95 F4 211 -9.959
95 F4 212 -8.494
95 F4 213 -7.029
95 F4 214 -6.053
95 F4 215 -6.053
95 F4 216 -6.053
95 F4 217 -7.029
95 F4 218 -7.517
95 F4 219 -8.006
95 F4 220 -7.029
95 F4 221 -5.076
95 F4 222 -3.123
95 F4 223 -2.635
95 F4 224 -3.123
95 F4 225 -5.564
95 F4 226 -8.494
95 F4 227 -8.982
95 F4 228 -7.029
95 F4 229 -3.611
95 F4 230 1.272
95 F4 231 4.201
95 F4 232 4.201
95 F4 233 2.248
95 F4 234 -0.682
95 F4 235 -3.611
95 F4 236 -6.053
95 F4 237 -7.517
95 F4 238 -7.517
95 F4 239 -6.053
95 F4 240 -4.100
95 F4 241 -2.146
95 F4 242 -1.170
95 F4 243 -1.170
95 F4 244 -2.146
95 F4 245 -3.123
95 F4 246 -2.635
95 F4 247 -1.170
95 F4 248 0.295
95 F4 249 1.272
95 F4 250 1.272
95 F4 251 1.272
95 F4 252 0.783
95 F4 253 0.783
95 F4 254 0.783
95 F4 255 -0.193
# F3 chan 8
95 F3 0 -4.913
95 F3 1 0.458
95 F3 2 3.876
95 F3 3 3.876
95 F3 4 0.458
95 F3 5 -5.402
95 F3 6 -10.284
95 F3 7 -10.773
95 F3 8 -6.866
95 F3 9 1.434
95 F3 10 10.712
95 F3 11 17.059
95 F3 12 18.524
95 F3 13 15.106
95 F3 14 8.270
95 F3 15 1.923
95 F3 16 -1.984
95 F3 17 -1.495
95 F3 18 2.411
95 F3 19 7.294
95 F3 20 10.223
95 F3 21 8.759
95 F3 22 3.387
95 F3 23 -3.937
95 F3 24 -9.308
95 F3 25 -11.749
95 F3 26 -9.796
95 F3 27 -5.890
95 F3 28 -1.984
95 F3 29 -0.031
95 F3 30 -0.031
95 F3 31 -1.007
95 F3 32 -2.472
95 F3 33 -2.960
95 F3 34 -3.448
95 F3 35 -2.472
95 F3 36 -0.031
95 F3 37 4.364
95 F3 38 9.247
95 F3 39 13.153
95 F3 40 14.618
95 F3 41 12.665
95 F3 42 7.782
95 F3 43 2.899
95 F3 44 0.458
95 F3 45 0.946
95 F3 46 3.876
95 F3 47 6.317
95 F3 48 6.805
95 F3 49 4.852
95 F3 50 1.923
95 F3 51 -0.519
95 F3 52 -1.984
95 F3 53 -2.472
95 F3 54 -1.984
95 F3 55 -2.472
95 F3 56 -1.984
95 F3 57 -1.495
95 F3 58 -0.519
95 F3 59 0.946
95 F3 60 1.923
95 F3 61 2.899
95 F3 62 2.899
95 F3 63 2.899
95 F3 64 3.387
95 F3 65 4.852
95 F3 66 6.805
95 F3 67 8.270
95 F3 68 9.247
95 F3 69 7.782
95 F3 70 5.829
95 F3 71 2.899
95 F3 72 0.946
95 F3 73 0.946
95 F3 74 1.434
95 F3 75 2.899
95 F3 76 3.387
95 F3 77 2.411
95 F3 78 0.458
95 F3 79 -1.495
95 F3 80 -1.495
95 F3 81 0.458
95 F3 82 2.899
95 F3 83 5.829
95 F3 84 6.805
95 F3 85 6.805
95 F3 86 5.829
95 F3 87 4.852
95 F3 88 3.876
95 F3 89 2.899
95 F3 90 3.387
95 F3 91 4.364
95 F3 92 6.317
95 F3 93 8.270
95 F3 94 10.223
95 F3 95 10.223
95 F3 96 8.270
95 F3 97 5.341
95 F3 98 1.923
95 F3 99 -0.031
95 F3 100 -0.031
95 F3 101 1.434
95 F3 102 3.387
95 F3 103 5.341
95 F3 104 5.829
95 F3 105 5.341
95 F3 106 3.876
95 F3 107 1.923
95 F3 108 0.946
95 F3 109 0.946
95 F3 110 1.923
95 F3 111 3.387
95 F3 112 4.364
95 F3 113 4.852
95 F3 114 4.364
95 F3 115 3.387
95 F3 116 2.899
95 F3 117 2.411
95 F3 118 2.899
95 F3 119 3.876
95 F3 120 4.852
95 F3 121 5.341
95 F3 122 5.341
95 F3 123 3.876
95 F3 124 1.434
95 F3 125 -0.519
95 F3 126 -1.495
95 F3 127 -0.031
95 F3 128 1.923
95 F3 129 3.876
95 F3 130 4.852
95 F3 131 4.852
95 F3 132 3.876
95 F3 133 2.899
95 F3 134 2.411
95 F3 135 2.411
95 F3 136 2.411
95 F3 137 1.434
95 F3 138 -0.031
95 F3 139 -1.984
95 F3 140 -2.472
95 F3 141 -1.007
95 F3 142 0.946
95 F3 143 3.876
95 F3 144 5.341
95 F3 145 5.829
95 F3 146 5.341
95 F3 147 3.876
95 F3 148 2.411
95 F3 149 0.946
95 F3 150 -0.031
95 F3 151 -1.495
95 F3 152 -1.984
95 F3 153 -2.960
95 F3 154 -2.472
95 F3 155 -0.519
95 F3 156 0.946
95 F3 157 2.411
95 F3 158 1.923
95 F3 159 0.946
95 F3 160 -0.031
95 F3 161 -0.519
95 F3 162 0.458
95 F3 163 1.434
95 F3 164 2.411
95 F3 165 1.923
95 F3 166 -0.031
95 F3 167 -2.472
95 F3 168 -2.960
95 F3 169 -2.472
95 F3 170 -1.495
95 F3 171 -1.495
95 F3 172 -2.472
95 F3 173 -4.425
95 F3 174 -6.866
95 F3 175 -7.355
95 F3 176 -7.355
95 F3 177 -6.866
95 F3 178 -5.890
95 F3 179 -4.913
95 F3 180 -4.425
95 F3 181 -2.960
95 F3 182 -1.984
95 F3 183 -1.495
95 F3 184 -1.495
95 F3 185 -2.472
95 F3 186 -3.937
95 F3 187 -4.425
95 F3 188 -4.913
95 F3 189 -4.913
95 F3 190 -4.913
95 F3 191 -5.402
95 F3 192 -5.890
95 F3 193 -5.402
95 F3 194 -4.913
95 F3 195 -3.448
95 F3 196 -2.472
95 F3 197 -1.984
95 F3 198 -2.472
95 F3 199 -2.960
95 F3 200 -2.960
95 F3 201 -2.472
95 F3 202 -1.007
95 F3 203 0.946
95 F3 204 2.411
95 F3 205 2.411
95 F3 206 -0.031
95 F3 207 -3.448
95 F3 208 -7.355
95 F3 209 -9.308
95 F3 210 -9.308
95 F3 211 -6.866
95 F3 212 -3.937
95 F3 213 -1.984
95 F3 214 -1.984
95 F3 215 -3.937
95 F3 216 -6.866
95 F3 217 -9.796
95 F3 218 -11.261
95 F3 219 -11.749
95 F3 220 -9.796
95 F3 221 -5.890
95 F3 222 -1.984
95 F3 223 1.923
95 F3 224 3.387
95 F3 225 2.411
95 F3 226 -1.495
95 F3 227 -5.402
95 F3 228 -7.843
95 F3 229 -7.355
95 F3 230 -4.913
95 F3 231 -1.495
95 F3 232 0.458
95 F3 233 0.946
95 F3 234 -0.519
95 F3 235 -2.960
95 F3 236 -5.890
95 F3 237 -8.820
95 F3 238 -10.773
95 F3 239 -12.726
95 F3 240 -13.214
95 F3 241 -12.726
95 F3 242 -10.773
95 F3 243 -7.843
95 F3 244 -3.937
95 F3 245 -0.519
95 F3 246 1.923
95 F3 247 2.899
95 F3 248 2.899
95 F3 249 1.923
95 F3 250 1.434
95 F3 251 0.946
95 F3 252 0.458
95 F3 253 -0.031
95 F3 254 -1.495
95 F3 255 -2.960
# FC6 chan 9
95 FC6 0 -0.285
95 FC6 1 -2.238
95 FC6 2 -2.726
95 FC6 3 -2.238
95 FC6 4 -0.773
95 FC6 5 0.203
95 FC6 6 -0.285
95 FC6 7 -2.238
95 FC6 8 -5.168
95 FC6 9 -6.632
95 FC6 10 -4.679
95 FC6 11 -0.773
95 FC6 12 4.598
95 FC6 13 8.016
95 FC6 14 8.504
95 FC6 15 6.063
95 FC6 16 3.133
95 FC6 17 0.203
95 FC6 18 -0.285
95 FC6 19 1.180
95 FC6 20 4.110
95 FC6 21 7.528
95 FC6 22 8.993
95 FC6 23 8.993
95 FC6 24 5.575
95 FC6 25 0.692
95 FC6 26 -5.168
95 FC6 27 -9.562
95 FC6 28 -11.515
95 FC6 29 -10.050
95 FC6 30 -6.632
95 FC6 31 -2.238
95 FC6 32 0.692
95 FC6 33 1.668
95 FC6 34 0.203
95 FC6 35 -2.238
95 FC6 36 -4.679
95 FC6 37 -6.144
95 FC6 38 -4.679
95 FC6 39 -1.261
95 FC6 40 3.621
95 FC6 41 7.528
95 FC6 42 9.481
95 FC6 43 8.504
95 FC6 44 5.086
95 FC6 45 0.203
95 FC6 46 -4.191
95 FC6 47 -6.144
95 FC6 48 -5.168
95 FC6 49 -2.726
95 FC6 50 0.203
95 FC6 51 2.157
95 FC6 52 2.645
95 FC6 53 1.180
95 FC6 54 -0.285
95 FC6 55 -2.238
95 FC6 56 -4.191
95 FC6 57 -5.656
95 FC6 58 -6.144
95 FC6 59 -5.656
95 FC6 60 -2.726
95 FC6 61 0.203
95 FC6 62 2.645
95 FC6 63 3.621
95 FC6 64 3.621
95 FC6 65 3.621
95 FC6 66 4.110
95 FC6 67 6.063
95 FC6 68 7.039
95 FC6 69 6.063
95 FC6 70 3.621
95 FC6 71 0.692
95 FC6 72 -1.750
95 FC6 73 -2.238
95 FC6 74 -1.750
95 FC6 75 -1.750
95 FC6 76 -2.238
95 FC6 77 -3.215
95 FC6 78 -2.726
95 FC6 79 -1.750
95 FC6 80 0.692
95 FC6 81 2.645
95 FC6 82 2.645
95 FC6 83 1.668
95 FC6 84 0.692
95 FC6 85 -0.285
95 FC6 86 -0.285
95 FC6 87 0.692
95 FC6 88 1.180
95 FC6 89 1.180
95 FC6 90 0.692
95 FC6 91 0.692
95 FC6 92 1.180
95 FC6 93 2.157
95 FC6 94 2.645
95 FC6 95 2.157
95 FC6 96 1.180
95 FC6 97 0.692
95 FC6 98 0.203
95 FC6 99 -0.285
95 FC6 100 -0.285
95 FC6 101 -0.773
95 FC6 102 -0.285
95 FC6 103 0.203
95 FC6 104 1.180
95 FC6 105 2.157
95 FC6 106 2.645
95 FC6 107 2.157
95 FC6 108 0.203
95 FC6 109 -2.726
95 FC6 110 -6.144
95 FC6 111 -8.586
95 FC6 112 -9.074
95 FC6 113 -8.097
95 FC6 114 -4.191
95 FC6 115 0.203
95 FC6 116 3.621
95 FC6 117 5.086
95 FC6 118 4.110
95 FC6 119 0.692
95 FC6 120 -3.215
95 FC6 121 -6.144
95 FC6 122 -7.609
95 FC6 123 -7.609
95 FC6 124 -6.632
95 FC6 125 -5.656
95 FC6 126 -5.168
95 FC6 127 -4.191
95 FC6 128 -4.191
95 FC6 129 -3.703
95 FC6 130 -3.215
95 FC6 131 -2.238
95 FC6 132 -1.750
95 FC6 133 -1.750
95 FC6 134 -2.238
95 FC6 135 -3.215
95 FC6 136 -4.191
95 FC6 137 -3.215
95 FC6 138 -2.238
95 FC6 139 -0.285
95 FC6 140 1.180
95 FC6 141 1.668
95 FC6 142 1.180
95 FC6 143 0.203
95 FC6 144 -0.773
95 FC6 145 -2.238
95 FC6 146 -2.238
95 FC6 147 -2.238
95 FC6 148 -0.773
95 FC6 149 0.203
95 FC6 150 1.180
95 FC6 151 0.692
95 FC6 152 -0.773
95 FC6 153 -2.238
95 FC6 154 -2.726
95 FC6 155 -0.773
95 FC6 156 2.645
95 FC6 157 5.575
95 FC6 158 6.063
95 FC6 159 4.110
95 FC6 160 1.180
95 FC6 161 -0.773
95 FC6 162 -1.261
95 FC6 163 -0.285
95 FC6 164 0.203
95 FC6 165 -0.773
95 FC6 166 -2.726
95 FC6 167 -4.679
95 FC6 168 -5.168
95 FC6 169 -5.168
95 FC6 170 -5.168
95 FC6 171 -6.632
95 FC6 172 -9.074
95 FC6 173 -10.539
95 FC6 174 -11.027
95 FC6 175 -9.562
95 FC6 176 -7.609
95 FC6 177 -6.144
95 FC6 178 -5.656
95 FC6 179 -5.168
95 FC6 180 -5.168
95 FC6 181 -4.679
95 FC6 182 -4.679
95 FC6 183 -4.191
95 FC6 184 -3.215
95 FC6 185 -2.238
95 FC6 186 -0.285
95 FC6 187 1.668
95 FC6 188 3.133
95 FC6 189 3.133
95 FC6 190 2.157
95 FC6 191 -0.773
95 FC6 192 -3.215
95 FC6 193 -5.656
95 FC6 194 -6.632
95 FC6 195 -5.656
95 FC6 196 -4.191
95 FC6 197 -2.238
95 FC6 198 -0.773
95 FC6 199 0.203
95 FC6 200 -0.773
95 FC6 201 -1.750
95 FC6 202 -3.215
95 FC6 203 -3.215
95 FC6 204 -2.238
95 FC6 205 -1.261
95 FC6 206 -1.261
95 FC6 207 -1.261
95 FC6 208 -2.726
95 FC6 209 -4.191
95 FC6 210 -4.679
95 FC6 211 -4.679
95 FC6 212 -4.679
95 FC6 213 -4.679
95 FC6 214 -4.191
95 FC6 215 -4.191
95 FC6 216 -4.191
95 FC6 217 -4.679
95 FC6 218 -5.656
95 FC6 219 -6.632
95 FC6 220 -7.609
95 FC6 221 -7.609
95 FC6 222 -5.656
95 FC6 223 -4.191
95 FC6 224 -3.703
95 FC6 225 -4.679
95 FC6 226 -6.144
95 FC6 227 -7.609
95 FC6 228 -7.121
95 FC6 229 -5.656
95 FC6 230 -3.215
95 FC6 231 -2.238
95 FC6 232 -2.238
95 FC6 233 -3.215
95 FC6 234 -4.679
95 FC6 235 -5.656
95 FC6 236 -6.144
95 FC6 237 -6.144
95 FC6 238 -5.656
95 FC6 239 -5.656
95 FC6 240 -5.168
95 FC6 241 -5.168
95 FC6 242 -5.656
95 FC6 243 -6.632
95 FC6 244 -7.609
95 FC6 245 -8.586
95 FC6 246 -8.097
95 FC6 247 -6.632
95 FC6 248 -4.679
95 FC6 249 -3.215
95 FC6 250 -2.726
95 FC6 251 -2.726
95 FC6 252 -2.238
95 FC6 253 -1.750
95 FC6 254 -1.261
95 FC6 255 -1.261
# FC5 chan 10
95 FC5 0 -3.174
95 FC5 1 2.197
95 FC5 2 5.615
95 FC5 3 5.615
95 FC5 4 2.197
95 FC5 5 -3.174
95 FC5 6 -8.057
95 FC5 7 -9.521
95 FC5 8 -5.615
95 FC5 9 1.709
95 FC5 10 10.010
95 FC5 11 15.381
95 FC5 12 16.357
95 FC5 13 12.939
95 FC5 14 7.568
95 FC5 15 3.174
95 FC5 16 1.709
95 FC5 17 3.174
95 FC5 18 6.104
95 FC5 19 9.521
95 FC5 20 10.498
95 FC5 21 8.057
95 FC5 22 2.686
95 FC5 23 -3.174
95 FC5 24 -6.592
95 FC5 25 -7.080
95 FC5 26 -4.150
95 FC5 27 -0.244
95 FC5 28 2.686
95 FC5 29 3.174
95 FC5 30 1.709
95 FC5 31 -0.732
95 FC5 32 -2.686
95 FC5 33 -3.662
95 FC5 34 -4.150
95 FC5 35 -2.686
95 FC5 36 -0.244
95 FC5 37 3.662
95 FC5 38 8.057
95 FC5 39 11.963
95 FC5 40 12.451
95 FC5 41 10.010
95 FC5 42 5.615
95 FC5 43 1.221
95 FC5 44 -0.244
95 FC5 45 1.221
95 FC5 46 4.639
95 FC5 47 7.568
95 FC5 48 7.080
95 FC5 49 4.150
95 FC5 50 -0.732
95 FC5 51 -4.639
95 FC5 52 -7.080
95 FC5 53 -8.057
95 FC5 54 -8.057
95 FC5 55 -7.568
95 FC5 56 -6.104
95 FC5 57 -3.174
95 FC5 58 0.244
95 FC5 59 3.174
95 FC5 60 4.639
95 FC5 61 4.639
95 FC5 62 3.174
95 FC5 63 2.197
95 FC5 64 2.686
95 FC5 65 5.127
95 FC5 66 9.033
95 FC5 67 11.963
95 FC5 68 13.916
95 FC5 69 12.451
95 FC5 70 9.521
95 FC5 71 6.104
95 FC5 72 3.662
95 FC5 73 2.686
95 FC5 74 3.662
95 FC5 75 5.127
95 FC5 76 6.104
95 FC5 77 4.639
95 FC5 78 2.686
95 FC5 79 0.244
95 FC5 80 -0.244
95 FC5 81 0.732
95 FC5 82 3.662
95 FC5 83 6.104
95 FC5 84 8.057
95 FC5 85 8.545
95 FC5 86 8.057
95 FC5 87 7.080
95 FC5 88 5.615
95 FC5 89 4.150
95 FC5 90 3.662
95 FC5 91 4.150
95 FC5 92 5.615
95 FC5 93 8.057
95 FC5 94 10.498
95 FC5 95 11.475
95 FC5 96 10.010
95 FC5 97 7.080
95 FC5 98 3.662
95 FC5 99 0.732
95 FC5 100 0.244
95 FC5 101 0.732
95 FC5 102 2.686
95 FC5 103 4.639
95 FC5 104 5.615
95 FC5 105 5.615
95 FC5 106 4.150
95 FC5 107 3.174
95 FC5 108 2.686
95 FC5 109 3.662
95 FC5 110 4.150
95 FC5 111 4.639
95 FC5 112 4.150
95 FC5 113 2.197
95 FC5 114 0.732
95 FC5 115 -0.244
95 FC5 116 -0.244
95 FC5 117 0.732
95 FC5 118 2.197
95 FC5 119 3.174
95 FC5 120 3.662
95 FC5 121 3.174
95 FC5 122 2.686
95 FC5 123 1.221
95 FC5 124 -0.244
95 FC5 125 -1.709
95 FC5 126 -2.197
95 FC5 127 -1.221
95 FC5 128 0.732
95 FC5 129 2.686
95 FC5 130 4.639
95 FC5 131 4.150
95 FC5 132 2.686
95 FC5 133 0.244
95 FC5 134 -1.221
95 FC5 135 -1.221
95 FC5 136 -0.732
95 FC5 137 -0.732
95 FC5 138 -1.221
95 FC5 139 -1.221
95 FC5 140 -1.221
95 FC5 141 -0.244
95 FC5 142 0.732
95 FC5 143 2.197
95 FC5 144 2.197
95 FC5 145 1.709
95 FC5 146 0.244
95 FC5 147 -0.732
95 FC5 148 -0.732
95 FC5 149 -0.732
95 FC5 150 -1.221
95 FC5 151 -2.197
95 FC5 152 -3.174
95 FC5 153 -3.662
95 FC5 154 -2.686
95 FC5 155 -1.221
95 FC5 156 -0.244
95 FC5 157 0.244
95 FC5 158 -0.732
95 FC5 159 -1.709
95 FC5 160 -1.709
95 FC5 161 -0.244
95 FC5 162 3.174
95 FC5 163 6.592
95 FC5 164 8.057
95 FC5 165 6.592
95 FC5 166 3.174
95 FC5 167 -0.732
95 FC5 168 -3.662
95 FC5 169 -3.662
95 FC5 170 -1.709
95 FC5 171 0.732
95 FC5 172 1.709
95 FC5 173 0.732
95 FC5 174 -1.221
95 FC5 175 -3.174
95 FC5 176 -4.150
95 FC5 177 -4.150
95 FC5 178 -3.174
95 FC5 179 -2.686
95 FC5 180 -1.709
95 FC5 181 -0.244
95 FC5 182 2.197
95 FC5 183 3.662
95 FC5 184 4.150
95 FC5 185 2.197
95 FC5 186 -0.732
95 FC5 187 -3.662
95 FC5 188 -4.150
95 FC5 189 -2.686
95 FC5 190 -0.244
95 FC5 191 1.709
95 FC5 192 3.174
95 FC5 193 3.174
95 FC5 194 3.174
95 FC5 195 3.174
95 FC5 196 2.686
95 FC5 197 2.686
95 FC5 198 2.686
95 FC5 199 2.686
95 FC5 200 3.662
95 FC5 201 4.639
95 FC5 202 5.615
95 FC5 203 6.104
95 FC5 204 6.592
95 FC5 205 6.104
95 FC5 206 5.127
95 FC5 207 3.662
95 FC5 208 1.709
95 FC5 209 0.732
95 FC5 210 1.221
95 FC5 211 2.686
95 FC5 212 3.174
95 FC5 213 2.197
95 FC5 214 -0.244
95 FC5 215 -4.150
95 FC5 216 -8.057
95 FC5 217 -10.498
95 FC5 218 -10.986
95 FC5 219 -10.010
95 FC5 220 -8.057
95 FC5 221 -4.639
95 FC5 222 -0.732
95 FC5 223 3.662
95 FC5 224 6.592
95 FC5 225 7.080
95 FC5 226 5.127
95 FC5 227 1.221
95 FC5 228 -2.197
95 FC5 229 -3.662
95 FC5 230 -2.197
95 FC5 231 0.244
95 FC5 232 2.197
95 FC5 233 2.686
95 FC5 234 1.221
95 FC5 235 -1.221
95 FC5 236 -3.662
95 FC5 237 -6.104
95 FC5 238 -8.057
95 FC5 239 -9.521
95 FC5 240 -10.498
95 FC5 241 -10.986
95 FC5 242 -9.521
95 FC5 243 -6.592
95 FC5 244 -3.662
95 FC5 245 -1.221
95 FC5 246 0.244
95 FC5 247 0.244
95 FC5 248 0.244
95 FC5 249 0.732
95 FC5 250 2.197
95 FC5 251 4.150
95 FC5 252 4.639
95 FC5 253 4.150
95 FC5 254 2.686
95 FC5 255 0.732
# FC2 chan 11
95 FC2 0 0.214
95 FC2 1 -1.251
95 FC2 2 -1.740
95 FC2 3 -1.740
95 FC2 4 -1.251
95 FC2 5 -0.763
95 FC2 6 -0.763
95 FC2 7 -0.275
95 FC2 8 0.214
95 FC2 9 0.702
95 FC2 10 2.167
95 FC2 11 3.632
95 FC2 12 5.585
95 FC2 13 6.561
95 FC2 14 6.561
95 FC2 15 5.096
95 FC2 16 2.655
95 FC2 17 0.702
95 FC2 18 0.214
95 FC2 19 1.190
95 FC2 20 3.143
95 FC2 21 4.608
95 FC2 22 4.608
95 FC2 23 3.143
95 FC2 24 -0.275
95 FC2 25 -3.693
95 FC2 26 -6.622
95 FC2 27 -8.087
95 FC2 28 -7.599
95 FC2 29 -5.157
95 FC2 30 -2.228
95 FC2 31 0.214
95 FC2 32 2.167
95 FC2 33 2.655
95 FC2 34 1.678
95 FC2 35 -0.275
95 FC2 36 -1.740
95 FC2 37 -1.740
95 FC2 38 -0.763
95 FC2 39 1.678
95 FC2 40 4.608
95 FC2 41 6.561
95 FC2 42 7.538
95 FC2 43 6.561
95 FC2 44 4.120
95 FC2 45 1.190
95 FC2 46 -0.763
95 FC2 47 -2.228
95 FC2 48 -1.740
95 FC2 49 -0.275
95 FC2 50 1.190
95 FC2 51 2.655
95 FC2 52 3.632
95 FC2 53 3.632
95 FC2 54 3.143
95 FC2 55 1.678
95 FC2 56 -0.275
95 FC2 57 -2.228
95 FC2 58 -3.204
95 FC2 59 -3.204
95 FC2 60 -1.740
95 FC2 61 0.702
95 FC2 62 2.655
95 FC2 63 3.143
95 FC2 64 3.632
95 FC2 65 3.632
95 FC2 66 3.143
95 FC2 67 3.143
95 FC2 68 2.655
95 FC2 69 1.678
95 FC2 70 0.702
95 FC2 71 -0.763
95 FC2 72 -1.740
95 FC2 73 -2.228
95 FC2 74 -2.228
95 FC2 75 -2.228
95 FC2 76 -1.740
95 FC2 77 -1.251
95 FC2 78 -1.740
95 FC2 79 -1.740
95 FC2 80 -1.740
95 FC2 81 -1.251
95 FC2 82 -0.763
95 FC2 83 -0.275
95 FC2 84 0.214
95 FC2 85 -0.275
95 FC2 86 -0.275
95 FC2 87 -0.275
95 FC2 88 0.214
95 FC2 89 0.702
95 FC2 90 1.190
95 FC2 91 1.678
95 FC2 92 2.655
95 FC2 93 3.143
95 FC2 94 2.655
95 FC2 95 2.655
95 FC2 96 1.678
95 FC2 97 0.702
95 FC2 98 0.214
95 FC2 99 -0.763
95 FC2 100 -0.763
95 FC2 101 -0.275
95 FC2 102 0.214
95 FC2 103 1.190
95 FC2 104 1.678
95 FC2 105 2.167
95 FC2 106 1.678
95 FC2 107 0.702
95 FC2 108 -0.763
95 FC2 109 -1.740
95 FC2 110 -2.228
95 FC2 111 -2.716
95 FC2 112 -2.228
95 FC2 113 -1.251
95 FC2 114 0.702
95 FC2 115 2.167
95 FC2 116 3.143
95 FC2 117 3.143
95 FC2 118 2.655
95 FC2 119 1.190
95 FC2 120 0.214
95 FC2 121 -0.275
95 FC2 122 -0.763
95 FC2 123 -0.763
95 FC2 124 -0.763
95 FC2 125 -0.763
95 FC2 126 -0.763
95 FC2 127 -0.763
95 FC2 128 -0.763
95 FC2 129 -0.763
95 FC2 130 0.214
95 FC2 131 0.702
95 FC2 132 0.702
95 FC2 133 1.190
95 FC2 134 0.702
95 FC2 135 0.702
95 FC2 136 0.214
95 FC2 137 0.214
95 FC2 138 0.214
95 FC2 139 0.214
95 FC2 140 0.702
95 FC2 141 0.702
95 FC2 142 0.702
95 FC2 143 1.190
95 FC2 144 1.678
95 FC2 145 1.678
95 FC2 146 1.678
95 FC2 147 0.702
95 FC2 148 0.214
95 FC2 149 0.214
95 FC2 150 0.702
95 FC2 151 1.190
95 FC2 152 0.702
95 FC2 153 0.214
95 FC2 154 -0.275
95 FC2 155 -0.763
95 FC2 156 0.214
95 FC2 157 1.190
95 FC2 158 1.190
95 FC2 159 1.190
95 FC2 160 0.214
95 FC2 161 -1.251
95 FC2 162 -1.740
95 FC2 163 -2.228
95 FC2 164 -2.228
95 FC2 165 -2.228
95 FC2 166 -2.228
95 FC2 167 -2.716
95 FC2 168 -2.228
95 FC2 169 -2.228
95 FC2 170 -2.228
95 FC2 171 -2.716
95 FC2 172 -4.181
95 FC2 173 -5.157
95 FC2 174 -5.646
95 FC2 175 -4.669
95 FC2 176 -3.693
95 FC2 177 -2.716
95 FC2 178 -2.228
95 FC2 179 -2.228
95 FC2 180 -2.716
95 FC2 181 -3.204
95 FC2 182 -3.693
95 FC2 183 -3.693
95 FC2 184 -3.204
95 FC2 185 -2.228
95 FC2 186 -0.275
95 FC2 187 1.190
95 FC2 188 1.678
95 FC2 189 0.702
95 FC2 190 -0.763
95 FC2 191 -3.204
95 FC2 192 -4.669
95 FC2 193 -5.646
95 FC2 194 -5.157
95 FC2 195 -4.181
95 FC2 196 -2.716
95 FC2 197 -1.740
95 FC2 198 -1.740
95 FC2 199 -2.716
95 FC2 200 -4.181
95 FC2 201 -5.157
95 FC2 202 -4.181
95 FC2 203 -2.716
95 FC2 204 -1.251
95 FC2 205 -0.275
95 FC2 206 -0.763
95 FC2 207 -2.716
95 FC2 208 -5.646
95 FC2 209 -7.111
95 FC2 210 -7.111
95 FC2 211 -6.134
95 FC2 212 -4.669
95 FC2 213 -3.204
95 FC2 214 -2.228
95 FC2 215 -2.716
95 FC2 216 -3.204
95 FC2 217 -4.181
95 FC2 218 -5.157
95 FC2 219 -5.157
95 FC2 220 -4.669
95 FC2 221 -3.204
95 FC2 222 -2.228
95 FC2 223 -1.740
95 FC2 224 -2.228
95 FC2 225 -3.693
95 FC2 226 -5.646
95 FC2 227 -6.134
95 FC2 228 -5.646
95 FC2 229 -3.693
95 FC2 230 -0.763
95 FC2 231 1.190
95 FC2 232 2.167
95 FC2 233 1.190
95 FC2 234 -1.251
95 FC2 235 -3.693
95 FC2 236 -5.157
95 FC2 237 -6.134
95 FC2 238 -5.646
95 FC2 239 -4.669
95 FC2 240 -3.693
95 FC2 241 -2.716
95 FC2 242 -2.228
95 FC2 243 -1.251
95 FC2 244 -1.251
95 FC2 245 -1.251
95 FC2 246 -1.251
95 FC2 247 -0.275
95 FC2 248 0.214
95 FC2 249 0.214
95 FC2 250 0.214
95 FC2 251 -0.763
95 FC2 252 -1.251
95 FC2 253 -1.251
95 FC2 254 -0.763
95 FC2 255 -1.251
# FC1 chan 12
95 FC1 0 -2.268
95 FC1 1 0.173
95 FC1 2 2.126
95 FC1 3 1.638
95 FC1 4 -0.804
95 FC1 5 -4.222
95 FC1 6 -6.663
95 FC1 7 -6.175
95 FC1 8 -3.245
95 FC1 9 2.614
95 FC1 10 7.985
95 FC1 11 11.403
95 FC1 12 11.892
95 FC1 13 9.450
95 FC1 14 5.056
95 FC1 15 0.661
95 FC1 16 -1.780
95 FC1 17 -1.292
95 FC1 18 2.126
95 FC1 19 5.056
95 FC1 20 6.521
95 FC1 21 5.056
95 FC1 22 0.661
95 FC1 23 -4.710
95 FC1 24 -8.128
95 FC1 25 -9.104
95 FC1 26 -8.128
95 FC1 27 -4.710
95 FC1 28 -2.268
95 FC1 29 -0.804
95 FC1 30 -0.315
95 FC1 31 -0.804
95 FC1 32 -1.292
95 FC1 33 -1.780
95 FC1 34 -2.268
95 FC1 35 -1.780
95 FC1 36 -0.315
95 FC1 37 1.638
95 FC1 38 4.079
95 FC1 39 6.521
95 FC1 40 7.009
95 FC1 41 6.521
95 FC1 42 4.567
95 FC1 43 2.614
95 FC1 44 1.638
95 FC1 45 1.638
95 FC1 46 3.103
95 FC1 47 3.591
95 FC1 48 3.103
95 FC1 49 1.149
95 FC1 50 -0.315
95 FC1 51 -1.292
95 FC1 52 -0.804
95 FC1 53 -0.315
95 FC1 54 0.173
95 FC1 55 -0.315
95 FC1 56 -0.804
95 FC1 57 -1.292
95 FC1 58 -1.780
95 FC1 59 -1.292
95 FC1 60 -0.804
95 FC1 61 0.173
95 FC1 62 1.149
95 FC1 63 2.126
95 FC1 64 2.614
95 FC1 65 3.591
95 FC1 66 4.079
95 FC1 67 4.567
95 FC1 68 4.079
95 FC1 69 3.591
95 FC1 70 2.126
95 FC1 71 1.149
95 FC1 72 0.173
95 FC1 73 0.173
95 FC1 74 0.661
95 FC1 75 2.126
95 FC1 76 2.126
95 FC1 77 1.149
95 FC1 78 -0.315
95 FC1 79 -1.780
95 FC1 80 -1.780
95 FC1 81 -0.804
95 FC1 82 0.661
95 FC1 83 2.614
95 FC1 84 3.591
95 FC1 85 3.103
95 FC1 86 2.614
95 FC1 87 1.638
95 FC1 88 1.149
95 FC1 89 0.661
95 FC1 90 0.661
95 FC1 91 1.638
95 FC1 92 3.591
95 FC1 93 5.056
95 FC1 94 6.032
95 FC1 95 5.544
95 FC1 96 4.567
95 FC1 97 2.614
95 FC1 98 0.661
95 FC1 99 -0.804
95 FC1 100 -0.804
95 FC1 101 0.173
95 FC1 102 1.149
95 FC1 103 2.614
95 FC1 104 3.103
95 FC1 105 2.614
95 FC1 106 1.149
95 FC1 107 -0.315
95 FC1 108 -1.292
95 FC1 109 -1.292
95 FC1 110 -0.804
95 FC1 111 0.661
95 FC1 112 2.126
95 FC1 113 2.614
95 FC1 114 2.126
95 FC1 115 1.638
95 FC1 116 1.638
95 FC1 117 1.149
95 FC1 118 1.638
95 FC1 119 1.638
95 FC1 120 2.126
95 FC1 121 2.614
95 FC1 122 3.103
95 FC1 123 2.614
95 FC1 124 1.638
95 FC1 125 -0.315
95 FC1 126 -1.292
95 FC1 127 -1.292
95 FC1 128 -0.315
95 FC1 129 0.661
95 FC1 130 1.149
95 FC1 131 1.149
95 FC1 132 0.661
95 FC1 133 0.661
95 FC1 134 0.661
95 FC1 135 1.149
95 FC1 136 1.149
95 FC1 137 0.173
95 FC1 138 -1.292
95 FC1 139 -2.757
95 FC1 140 -3.245
95 FC1 141 -2.757
95 FC1 142 -0.804
95 FC1 143 1.149
95 FC1 144 3.103
95 FC1 145 3.103
95 FC1 146 2.614
95 FC1 147 1.638
95 FC1 148 0.173
95 FC1 149 -1.292
95 FC1 150 -2.268
95 FC1 151 -3.245
95 FC1 152 -3.245
95 FC1 153 -3.733
95 FC1 154 -3.245
95 FC1 155 -2.268
95 FC1 156 -1.780
95 FC1 157 -1.292
95 FC1 158 -1.292
95 FC1 159 -1.780
95 FC1 160 -2.757
95 FC1 161 -2.757
95 FC1 162 -2.757
95 FC1 163 -2.268
95 FC1 164 -2.268
95 FC1 165 -2.268
95 FC1 166 -3.245
95 FC1 167 -3.245
95 FC1 168 -3.245
95 FC1 169 -2.757
95 FC1 170 -2.268
95 FC1 171 -2.757
95 FC1 172 -3.733
95 FC1 173 -5.686
95 FC1 174 -6.175
95 FC1 175 -6.663
95 FC1 176 -6.175
95 FC1 177 -5.686
95 FC1 178 -4.710
95 FC1 179 -4.710
95 FC1 180 -4.222
95 FC1 181 -3.733
95 FC1 182 -2.757
95 FC1 183 -2.757
95 FC1 184 -3.245
95 FC1 185 -4.222
95 FC1 186 -4.710
95 FC1 187 -4.710
95 FC1 188 -4.710
95 FC1 189 -5.198
95 FC1 190 -5.198
95 FC1 191 -5.686
95 FC1 192 -6.175
95 FC1 193 -6.175
95 FC1 194 -5.198
95 FC1 195 -4.222
95 FC1 196 -3.733
95 FC1 197 -3.733
95 FC1 198 -4.222
95 FC1 199 -4.710
95 FC1 200 -5.198
95 FC1 201 -4.710
95 FC1 202 -3.733
95 FC1 203 -2.268
95 FC1 204 -0.804
95 FC1 205 -0.315
95 FC1 206 -1.780
95 FC1 207 -4.222
95 FC1 208 -7.151
95 FC1 209 -8.616
95 FC1 210 -8.616
95 FC1 211 -7.640
95 FC1 212 -5.198
95 FC1 213 -3.245
95 FC1 214 -2.757
95 FC1 215 -3.733
95 FC1 216 -5.198
95 FC1 217 -7.151
95 FC1 218 -8.128
95 FC1 219 -8.616
95 FC1 220 -7.640
95 FC1 221 -5.686
95 FC1 222 -3.245
95 FC1 223 -0.804
95 FC1 224 0.173
95 FC1 225 -0.315
95 FC1 226 -2.757
95 FC1 227 -5.198
95 FC1 228 -6.663
95 FC1 229 -6.175
95 FC1 230 -4.710
95 FC1 231 -2.757
95 FC1 232 -1.292
95 FC1 233 -1.292
95 FC1 234 -2.268
95 FC1 235 -3.733
95 FC1 236 -5.686
95 FC1 237 -7.151
95 FC1 238 -8.616
95 FC1 239 -9.593
95 FC1 240 -10.081
95 FC1 241 -9.593
95 FC1 242 -8.128
95 FC1 243 -6.175
95 FC1 244 -3.733
95 FC1 245 -1.780
95 FC1 246 0.173
95 FC1 247 0.661
95 FC1 248 0.661
95 FC1 249 0.173
95 FC1 250 -0.804
95 FC1 251 -1.292
95 FC1 252 -1.780
95 FC1 253 -2.268
95 FC1 254 -3.245
95 FC1 255 -3.733
# T8 chan 13
95 T8 0 -1.119
95 T8 1 -3.560
95 T8 2 -4.537
95 T8 3 -3.072
95 T8 4 -0.631
95 T8 5 2.299
95 T8 6 2.787
95 T8 7 0.346
95 T8 8 -3.560
95 T8 9 -6.002
95 T8 10 -5.514
95 T8 11 -2.096
95 T8 12 3.276
95 T8 13 6.694
95 T8 14 8.158
95 T8 15 7.182
95 T8 16 5.229
95 T8 17 3.764
95 T8 18 3.276
95 T8 19 3.764
95 T8 20 5.717
95 T8 21 7.670
95 T8 22 8.647
95 T8 23 9.135
95 T8 24 6.694
95 T8 25 2.787
95 T8 26 -2.584
95 T8 27 -6.978
95 T8 28 -9.420
95 T8 29 -9.420
95 T8 30 -7.467
95 T8 31 -6.002
95 T8 32 -4.049
95 T8 33 -3.560
95 T8 34 -4.049
95 T8 35 -6.002
95 T8 36 -7.955
95 T8 37 -9.420
95 T8 38 -8.443
95 T8 39 -5.025
95 T8 40 -0.142
95 T8 41 4.740
95 T8 42 7.182
95 T8 43 6.205
95 T8 44 1.811
95 T8 45 -3.072
95 T8 46 -7.467
95 T8 47 -9.420
95 T8 48 -7.955
95 T8 49 -6.002
95 T8 50 -4.537
95 T8 51 -4.537
95 T8 52 -6.002
95 T8 53 -7.467
95 T8 54 -9.420
95 T8 55 -9.420
95 T8 56 -8.931
95 T8 57 -7.955
95 T8 58 -6.490
95 T8 59 -4.537
95 T8 60 -2.096
95 T8 61 -0.142
95 T8 62 0.834
95 T8 63 0.346
95 T8 64 -0.142
95 T8 65 0.834
95 T8 66 4.252
95 T8 67 8.158
95 T8 68 10.111
95 T8 69 8.647
95 T8 70 5.229
95 T8 71 1.811
95 T8 72 0.346
95 T8 73 0.834
95 T8 74 1.811
95 T8 75 0.346
95 T8 76 -2.584
95 T8 77 -5.514
95 T8 78 -5.514
95 T8 79 -2.584
95 T8 80 2.787
95 T8 81 6.694
95 T8 82 8.158
95 T8 83 7.670
95 T8 84 6.205
95 T8 85 5.229
95 T8 86 4.740
95 T8 87 3.764
95 T8 88 2.299
95 T8 89 1.322
95 T8 90 1.322
95 T8 91 2.787
95 T8 92 4.740
95 T8 93 5.229
95 T8 94 3.764
95 T8 95 1.811
95 T8 96 0.834
95 T8 97 1.322
95 T8 98 3.276
95 T8 99 3.764
95 T8 100 3.276
95 T8 101 1.322
95 T8 102 -0.142
95 T8 103 0.346
95 T8 104 1.322
95 T8 105 3.276
95 T8 106 3.764
95 T8 107 2.299
95 T8 108 -0.142
95 T8 109 -4.049
95 T8 110 -7.467
95 T8 111 -10.396
95 T8 112 -11.861
95 T8 113 -9.908
95 T8 114 -5.514
95 T8 115 0.346
95 T8 116 5.229
95 T8 117 6.694
95 T8 118 4.740
95 T8 119 0.346
95 T8 120 -4.049
95 T8 121 -6.490
95 T8 122 -7.467
95 T8 123 -7.955
95 T8 124 -7.955
95 T8 125 -7.955
95 T8 126 -6.978
95 T8 127 -6.002
95 T8 128 -4.537
95 T8 129 -4.049
95 T8 130 -3.560
95 T8 131 -4.049
95 T8 132 -4.049
95 T8 133 -4.049
95 T8 134 -3.560
95 T8 135 -3.072
95 T8 136 -2.584
95 T8 137 -2.096
95 T8 138 -0.631
95 T8 139 -0.142
95 T8 140 0.346
95 T8 141 -0.631
95 T8 142 -2.096
95 T8 143 -3.072
95 T8 144 -4.049
95 T8 145 -3.560
95 T8 146 -3.072
95 T8 147 -2.096
95 T8 148 -2.096
95 T8 149 -2.096
95 T8 150 -2.584
95 T8 151 -3.560
95 T8 152 -4.049
95 T8 153 -4.049
95 T8 154 -3.072
95 T8 155 -0.631
95 T8 156 2.787
95 T8 157 5.229
95 T8 158 5.229
95 T8 159 3.764
95 T8 160 0.834
95 T8 161 0.346
95 T8 162 1.811
95 T8 163 4.740
95 T8 164 6.205
95 T8 165 5.229
95 T8 166 2.299
95 T8 167 -1.607
95 T8 168 -4.537
95 T8 169 -6.490
95 T8 170 -7.467
95 T8 171 -8.931
95 T8 172 -10.396
95 T8 173 -10.885
95 T8 174 -10.396
95 T8 175 -9.420
95 T8 176 -8.443
95 T8 177 -7.955
95 T8 178 -7.955
95 T8 179 -7.467
95 T8 180 -5.514
95 T8 181 -3.072
95 T8 182 -2.096
95 T8 183 -2.096
95 T8 184 -2.584
95 T8 185 -2.584
95 T8 186 -1.119
95 T8 187 1.322
95 T8 188 3.276
95 T8 189 3.764
95 T8 190 3.276
95 T8 191 1.322
95 T8 192 -1.119
95 T8 193 -3.560
95 T8 194 -5.025
95 T8 195 -5.514
95 T8 196 -4.049
95 T8 197 -0.631
95 T8 198 2.787
95 T8 199 5.229
95 T8 200 5.229
95 T8 201 2.787
95 T8 202 -0.142
95 T8 203 -2.096
95 T8 204 -2.584
95 T8 205 -0.631
95 T8 206 2.299
95 T8 207 4.252
95 T8 208 5.717
95 T8 209 5.717
95 T8 210 4.740
95 T8 211 3.276
95 T8 212 1.322
95 T8 213 -0.631
95 T8 214 -2.096
95 T8 215 -2.096
95 T8 216 -1.119
95 T8 217 -1.119
95 T8 218 -2.096
95 T8 219 -4.537
95 T8 220 -6.490
95 T8 221 -6.978
95 T8 222 -5.514
95 T8 223 -2.584
95 T8 224 -0.142
95 T8 225 1.322
95 T8 226 0.834
95 T8 227 -0.631
95 T8 228 -2.096
95 T8 229 -3.560
95 T8 230 -5.025
95 T8 231 -6.978
95 T8 232 -7.467
95 T8 233 -6.978
95 T8 234 -5.025
95 T8 235 -2.584
95 T8 236 -0.142
95 T8 237 0.834
95 T8 238 -0.631
95 T8 239 -2.584
95 T8 240 -5.025
95 T8 241 -6.978
95 T8 242 -8.443
95 T8 243 -9.420
95 T8 244 -10.396
95 T8 245 -10.885
95 T8 246 -9.908
95 T8 247 -8.443
95 T8 248 -6.002
95 T8 249 -4.049
95 T8 250 -2.584
95 T8 251 -2.096
95 T8 252 -1.119
95 T8 253 -0.142
95 T8 254 0.346
95 T8 255 0.834
# T7 chan 14
95 T7 0 -2.767
95 T7 1 1.139
95 T7 2 4.557
95 T7 3 5.534
95 T7 4 4.557
95 T7 5 0.651
95 T7 6 -3.255
95 T7 7 -5.697
95 T7 8 -5.697
95 T7 9 -2.767
95 T7 10 2.604
95 T7 11 7.487
95 T7 12 10.417
95 T7 13 10.905
95 T7 14 9.928
95 T7 15 7.975
95 T7 16 6.510
95 T7 17 5.534
95 T7 18 6.022
95 T7 19 6.022
95 T7 20 6.022
95 T7 21 4.557
95 T7 22 2.116
95 T7 23 -0.814
95 T7 24 -2.279
95 T7 25 -1.790
95 T7 26 -0.814
95 T7 27 0.163
95 T7 28 0.163
95 T7 29 -1.302
95 T7 30 -2.767
95 T7 31 -3.255
95 T7 32 -2.767
95 T7 33 -1.790
95 T7 34 -1.790
95 T7 35 -2.279
95 T7 36 -3.255
95 T7 37 -1.790
95 T7 38 0.651
95 T7 39 3.581
95 T7 40 5.046
95 T7 41 4.557
95 T7 42 1.628
95 T7 43 -0.326
95 T7 44 -1.790
95 T7 45 -1.302
95 T7 46 0.163
95 T7 47 0.163
95 T7 48 -1.790
95 T7 49 -5.697
95 T7 50 -10.091
95 T7 51 -13.997
95 T7 52 -15.462
95 T7 53 -15.462
95 T7 54 -14.974
95 T7 55 -14.486
95 T7 56 -13.021
95 T7 57 -10.579
95 T7 58 -6.673
95 T7 59 -1.790
95 T7 60 1.139
95 T7 61 2.116
95 T7 62 1.139
95 T7 63 0.163
95 T7 64 1.139
95 T7 65 4.557
95 T7 66 8.952
95 T7 67 12.858
95 T7 68 13.835
95 T7 69 12.858
95 T7 70 9.928
95 T7 71 6.022
95 T7 72 3.092
95 T7 73 1.628
95 T7 74 1.628
95 T7 75 2.604
95 T7 76 2.116
95 T7 77 1.139
95 T7 78 -0.814
95 T7 79 -2.279
95 T7 80 -2.279
95 T7 81 -0.814
95 T7 82 1.139
95 T7 83 3.092
95 T7 84 4.069
95 T7 85 4.557
95 T7 86 4.557
95 T7 87 4.069
95 T7 88 4.069
95 T7 89 3.581
95 T7 90 3.581
95 T7 91 3.581
95 T7 92 5.046
95 T7 93 6.999
95 T7 94 8.464
95 T7 95 8.952
95 T7 96 8.464
95 T7 97 6.022
95 T7 98 3.092
95 T7 99 0.163
95 T7 100 -1.302
95 T7 101 -1.302
95 T7 102 -0.326
95 T7 103 1.139
95 T7 104 2.116
95 T7 105 2.604
95 T7 106 2.116
95 T7 107 2.116
95 T7 108 2.604
95 T7 109 3.581
95 T7 110 4.069
95 T7 111 3.092
95 T7 112 1.139
95 T7 113 -1.302
95 T7 114 -2.767
95 T7 115 -2.767
95 T7 116 -1.790
95 T7 117 -0.814
95 T7 118 0.163
95 T7 119 -0.326
95 T7 120 -1.302
95 T7 121 -1.790
95 T7 122 -2.279
95 T7 123 -2.279
95 T7 124 -2.767
95 T7 125 -4.232
95 T7 126 -4.720
95 T7 127 -4.232
95 T7 128 -2.767
95 T7 129 -1.790
95 T7 130 -0.814
95 T7 131 -1.790
95 T7 132 -3.743
95 T7 133 -5.208
95 T7 134 -5.208
95 T7 135 -3.743
95 T7 136 -1.790
95 T7 137 -0.814
95 T7 138 -1.302
95 T7 139 -2.279
95 T7 140 -2.767
95 T7 141 -2.767
95 T7 142 -1.790
95 T7 143 -1.302
95 T7 144 -1.790
95 T7 145 -3.255
95 T7 146 -3.743
95 T7 147 -3.255
95 T7 148 -2.279
95 T7 149 -1.302
95 T7 150 -1.790
95 T7 151 -3.743
95 T7 152 -5.697
95 T7 153 -6.185
95 T7 154 -4.720
95 T7 155 -2.279
95 T7 156 0.163
95 T7 157 -0.326
95 T7 158 -1.790
95 T7 159 -2.279
95 T7 160 -1.302
95 T7 161 2.604
95 T7 162 7.487
95 T7 163 10.905
95 T7 164 11.882
95 T7 165 10.417
95 T7 166 6.022
95 T7 167 1.628
95 T7 168 -1.302
95 T7 169 -1.790
95 T7 170 0.163
95 T7 171 2.604
95 T7 172 4.069
95 T7 173 3.092
95 T7 174 0.651
95 T7 175 -1.790
95 T7 176 -2.767
95 T7 177 -2.767
95 T7 178 -2.767
95 T7 179 -2.767
95 T7 180 -2.279
95 T7 181 0.163
95 T7 182 3.092
95 T7 183 6.022
95 T7 184 6.999
95 T7 185 5.046
95 T7 186 1.139
95 T7 187 -1.790
95 T7 188 -2.279
95 T7 189 -0.814
95 T7 190 1.628
95 T7 191 3.581
95 T7 192 4.557
95 T7 193 4.557
95 T7 194 5.534
95 T7 195 6.999
95 T7 196 7.975
95 T7 197 8.952
95 T7 198 8.464
95 T7 199 7.975
95 T7 200 6.999
95 T7 201 6.510
95 T7 202 6.022
95 T7 203 6.022
95 T7 204 6.510
95 T7 205 8.464
95 T7 206 10.417
95 T7 207 11.393
95 T7 208 11.393
95 T7 209 9.440
95 T7 210 7.975
95 T7 211 6.022
95 T7 212 5.046
95 T7 213 3.092
95 T7 214 -0.326
95 T7 215 -3.743
95 T7 216 -7.161
95 T7 217 -8.626
95 T7 218 -8.138
95 T7 219 -7.161
95 T7 220 -6.185
95 T7 221 -4.720
95 T7 222 -1.302
95 T7 223 3.581
95 T7 224 9.440
95 T7 225 13.835
95 T7 226 13.835
95 T7 227 10.417
95 T7 228 5.046
95 T7 229 0.651
95 T7 230 -0.326
95 T7 231 1.139
95 T7 232 3.092
95 T7 233 4.069
95 T7 234 4.069
95 T7 235 2.604
95 T7 236 1.628
95 T7 237 0.163
95 T7 238 -1.790
95 T7 239 -4.720
95 T7 240 -7.650
95 T7 241 -10.579
95 T7 242 -10.579
95 T7 243 -8.138
95 T7 244 -5.208
95 T7 245 -2.767
95 T7 246 -1.790
95 T7 247 -1.790
95 T7 248 -0.814
95 T7 249 1.139
95 T7 250 4.069
95 T7 251 6.510
95 T7 252 7.975
95 T7 253 7.975
95 T7 254 7.487
95 T7 255 7.487
# CZ chan 15
95 CZ 0 -3.133
95 CZ 1 -5.086
95 CZ 2 -6.551
95 CZ 3 -6.551
95 CZ 4 -3.621
95 CZ 5 0.773
95 CZ 6 3.703
95 CZ 7 3.215
95 CZ 8 0.285
95 CZ 9 -2.157
95 CZ 10 -2.157
95 CZ 11 1.261
95 CZ 12 6.632
95 CZ 13 11.027
95 CZ 14 13.957
95 CZ 15 14.933
95 CZ 16 13.468
95 CZ 17 10.539
95 CZ 18 6.632
95 CZ 19 3.703
95 CZ 20 3.703
95 CZ 21 7.121
95 CZ 22 12.004
95 CZ 23 15.910
95 CZ 24 16.398
95 CZ 25 12.980
95 CZ 26 8.097
95 CZ 27 2.726
95 CZ 28 -1.180
95 CZ 29 -3.621
95 CZ 30 -4.110
95 CZ 31 -3.133
95 CZ 32 0.285
95 CZ 33 5.168
95 CZ 34 9.074
95 CZ 35 10.539
95 CZ 36 10.050
95 CZ 37 9.074
95 CZ 38 9.562
95 CZ 39 12.492
95 CZ 40 16.886
95 CZ 41 20.304
95 CZ 42 20.304
95 CZ 43 16.398
95 CZ 44 12.004
95 CZ 45 7.121
95 CZ 46 3.703
95 CZ 47 1.261
95 CZ 48 0.773
95 CZ 49 1.261
95 CZ 50 2.238
95 CZ 51 2.238
95 CZ 52 1.261
95 CZ 53 -1.180
95 CZ 54 -4.598
95 CZ 55 -7.528
95 CZ 56 -8.016
95 CZ 57 -5.575
95 CZ 58 -1.180
95 CZ 59 4.191
95 CZ 60 9.562
95 CZ 61 13.957
95 CZ 62 15.910
95 CZ 63 15.910
95 CZ 64 14.445
95 CZ 65 13.468
95 CZ 66 13.468
95 CZ 67 15.422
95 CZ 68 16.886
95 CZ 69 17.375
95 CZ 70 15.910
95 CZ 71 13.468
95 CZ 72 11.515
95 CZ 73 10.539
95 CZ 74 9.074
95 CZ 75 6.632
95 CZ 76 2.726
95 CZ 77 -0.692
95 CZ 78 -1.180
95 CZ 79 2.238
95 CZ 80 7.609
95 CZ 81 11.515
95 CZ 82 11.515
95 CZ 83 9.074
95 CZ 84 7.609
95 CZ 85 9.562
95 CZ 86 14.933
95 CZ 87 19.816
95 CZ 88 21.281
95 CZ 89 19.328
95 CZ 90 16.398
95 CZ 91 15.422
95 CZ 92 17.863
95 CZ 93 21.281
95 CZ 94 23.234
95 CZ 95 21.769
95 CZ 96 18.351
95 CZ 97 14.445
95 CZ 98 12.492
95 CZ 99 12.492
95 CZ 100 12.492
95 CZ 101 12.004
95 CZ 102 10.050
95 CZ 103 7.609
95 CZ 104 6.144
95 CZ 105 6.144
95 CZ 106 7.121
95 CZ 107 8.097
95 CZ 108 7.609
95 CZ 109 4.679
95 CZ 110 -0.692
95 CZ 111 -6.551
95 CZ 112 -10.457
95 CZ 113 -8.993
95 CZ 114 -2.645
95 CZ 115 5.168
95 CZ 116 10.050
95 CZ 117 10.539
95 CZ 118 8.097
95 CZ 119 5.168
95 CZ 120 4.679
95 CZ 121 5.656
95 CZ 122 5.168
95 CZ 123 1.750
95 CZ 124 -4.110
95 CZ 125 -8.504
95 CZ 126 -8.016
95 CZ 127 -3.133
95 CZ 128 2.726
95 CZ 129 6.632
95 CZ 130 5.656
95 CZ 131 1.261
95 CZ 132 -3.621
95 CZ 133 -6.551
95 CZ 134 -6.063
95 CZ 135 -3.621
95 CZ 136 -0.203
95 CZ 137 2.726
95 CZ 138 4.191
95 CZ 139 4.191
95 CZ 140 2.238
95 CZ 141 -0.692
95 CZ 142 -3.133
95 CZ 143 -4.110
95 CZ 144 -3.621
95 CZ 145 -2.645
95 CZ 146 -1.668
95 CZ 147 -0.692
95 CZ 148 -0.203
95 CZ 149 -1.180
95 CZ 150 -3.621
95 CZ 151 -8.504
95 CZ 152 -14.852
95 CZ 153 -18.270
95 CZ 154 -17.293
95 CZ 155 -9.969
95 CZ 156 -0.203
95 CZ 157 7.121
95 CZ 158 8.097
95 CZ 159 3.215
95 CZ 160 -1.668
95 CZ 161 -3.621
95 CZ 162 -0.692
95 CZ 163 4.679
95 CZ 164 6.632
95 CZ 165 3.215
95 CZ 166 -3.133
95 CZ 167 -8.993
95 CZ 168 -11.434
95 CZ 169 -9.969
95 CZ 170 -7.039
95 CZ 171 -6.063
95 CZ 172 -7.039
95 CZ 173 -9.481
95 CZ 174 -11.434
95 CZ 175 -12.899
95 CZ 176 -13.875
95 CZ 177 -15.340
95 CZ 178 -15.828
95 CZ 179 -14.852
95 CZ 180 -11.434
95 CZ 181 -8.016
95 CZ 182 -5.575
95 CZ 183 -6.063
95 CZ 184 -7.528
95 CZ 185 -8.016
95 CZ 186 -4.598
95 CZ 187 -0.203
95 CZ 188 3.215
95 CZ 189 2.726
95 CZ 190 -2.157
95 CZ 191 -8.504
95 CZ 192 -12.899
95 CZ 193 -12.899
95 CZ 194 -8.993
95 CZ 195 -3.621
95 CZ 196 1.750
95 CZ 197 5.656
95 CZ 198 7.609
95 CZ 199 7.609
95 CZ 200 5.168
95 CZ 201 1.261
95 CZ 202 -3.621
95 CZ 203 -6.551
95 CZ 204 -6.063
95 CZ 205 -1.180
95 CZ 206 5.656
95 CZ 207 11.027
95 CZ 208 12.492
95 CZ 209 10.050
95 CZ 210 5.168
95 CZ 211 -0.692
95 CZ 212 -5.086
95 CZ 213 -7.039
95 CZ 214 -6.063
95 CZ 215 -4.110
95 CZ 216 -2.157
95 CZ 217 -4.110
95 CZ 218 -10.457
95 CZ 219 -18.270
95 CZ 220 -23.641
95 CZ 221 -21.688
95 CZ 222 -12.899
95 CZ 223 -1.180
95 CZ 224 7.121
95 CZ 225 9.074
95 CZ 226 5.656
95 CZ 227 1.261
95 CZ 228 -0.692
95 CZ 229 -0.203
95 CZ 230 1.750
95 CZ 231 1.261
95 CZ 232 -0.692
95 CZ 233 -2.645
95 CZ 234 -2.645
95 CZ 235 -0.203
95 CZ 236 1.261
95 CZ 237 -1.180
95 CZ 238 -8.016
95 CZ 239 -17.782
95 CZ 240 -25.106
95 CZ 241 -28.035
95 CZ 242 -26.571
95 CZ 243 -22.176
95 CZ 244 -17.782
95 CZ 245 -14.364
95 CZ 246 -10.457
95 CZ 247 -6.551
95 CZ 248 -3.133
95 CZ 249 -1.668
95 CZ 250 -2.157
95 CZ 251 -4.598
95 CZ 252 -5.575
95 CZ 253 -4.598
95 CZ 254 -1.180
95 CZ 255 1.261
# C3 chan 16
95 C3 0 -1.567
95 C3 1 1.851
95 C3 2 3.805
95 C3 3 3.805
95 C3 4 1.851
95 C3 5 -1.078
95 C3 6 -3.520
95 C3 7 -4.008
95 C3 8 -2.055
95 C3 9 1.851
95 C3 10 5.269
95 C3 11 7.222
95 C3 12 7.222
95 C3 13 4.781
95 C3 14 2.340
95 C3 15 0.875
95 C3 16 1.363
95 C3 17 2.340
95 C3 18 3.805
95 C3 19 4.293
95 C3 20 3.316
95 C3 21 0.875
95 C3 22 -2.055
95 C3 23 -4.008
95 C3 24 -4.008
95 C3 25 -2.055
95 C3 26 0.387
95 C3 27 2.828
95 C3 28 3.316
95 C3 29 2.340
95 C3 30 0.875
95 C3 31 -0.590
95 C3 32 -1.567
95 C3 33 -1.567
95 C3 34 -1.567
95 C3 35 -1.078
95 C3 36 -0.590
95 C3 37 0.875
95 C3 38 1.851
95 C3 39 2.828
95 C3 40 2.828
95 C3 41 1.851
95 C3 42 0.875
95 C3 43 -0.102
95 C3 44 0.387
95 C3 45 1.851
95 C3 46 2.828
95 C3 47 3.316
95 C3 48 1.851
95 C3 49 -0.102
95 C3 50 -2.055
95 C3 51 -4.008
95 C3 52 -4.985
95 C3 53 -5.473
95 C3 54 -4.985
95 C3 55 -4.496
95 C3 56 -3.520
95 C3 57 -2.055
95 C3 58 -0.590
95 C3 59 0.875
95 C3 60 1.851
95 C3 61 1.363
95 C3 62 0.875
95 C3 63 0.387
95 C3 64 1.363
95 C3 65 2.828
95 C3 66 5.269
95 C3 67 7.222
95 C3 68 8.199
95 C3 69 7.711
95 C3 70 6.734
95 C3 71 5.269
95 C3 72 4.781
95 C3 73 4.781
95 C3 74 4.781
95 C3 75 5.758
95 C3 76 5.269
95 C3 77 4.781
95 C3 78 3.316
95 C3 79 1.851
95 C3 80 1.363
95 C3 81 1.851
95 C3 82 2.828
95 C3 83 3.805
95 C3 84 4.293
95 C3 85 4.293
95 C3 86 3.805
95 C3 87 3.316
95 C3 88 2.828
95 C3 89 1.851
95 C3 90 1.363
95 C3 91 0.875
95 C3 92 1.851
95 C3 93 3.316
95 C3 94 4.781
95 C3 95 5.269
95 C3 96 4.781
95 C3 97 3.805
95 C3 98 2.340
95 C3 99 0.875
95 C3 100 0.387
95 C3 101 0.387
95 C3 102 0.875
95 C3 103 1.363
95 C3 104 1.851
95 C3 105 1.851
95 C3 106 1.851
95 C3 107 1.851
95 C3 108 2.340
95 C3 109 2.828
95 C3 110 2.828
95 C3 111 2.340
95 C3 112 1.363
95 C3 113 0.387
95 C3 114 -0.102
95 C3 115 -0.590
95 C3 116 0.387
95 C3 117 1.363
95 C3 118 2.340
95 C3 119 2.340
95 C3 120 2.340
95 C3 121 2.340
95 C3 122 2.340
95 C3 123 1.851
95 C3 124 0.875
95 C3 125 -0.102
95 C3 126 -0.590
95 C3 127 -0.590
95 C3 128 0.387
95 C3 129 1.363
95 C3 130 1.851
95 C3 131 1.363
95 C3 132 0.387
95 C3 133 -1.078
95 C3 134 -1.078
95 C3 135 -0.590
95 C3 136 -0.102
95 C3 137 0.387
95 C3 138 -0.102
95 C3 139 -1.078
95 C3 140 -1.567
95 C3 141 -1.567
95 C3 142 -0.590
95 C3 143 0.387
95 C3 144 0.875
95 C3 145 -0.102
95 C3 146 -0.102
95 C3 147 -0.590
95 C3 148 -0.590
95 C3 149 -0.102
95 C3 150 -0.590
95 C3 151 -1.078
95 C3 152 -1.567
95 C3 153 -2.055
95 C3 154 -1.567
95 C3 155 -0.102
95 C3 156 0.387
95 C3 157 0.387
95 C3 158 -0.590
95 C3 159 -1.567
95 C3 160 -1.078
95 C3 161 0.875
95 C3 162 2.828
95 C3 163 4.293
95 C3 164 5.269
95 C3 165 3.805
95 C3 166 1.851
95 C3 167 -0.590
95 C3 168 -2.055
95 C3 169 -1.567
95 C3 170 -0.590
95 C3 171 0.875
95 C3 172 1.851
95 C3 173 1.363
95 C3 174 0.387
95 C3 175 -0.590
95 C3 176 -2.055
95 C3 177 -2.055
95 C3 178 -2.055
95 C3 179 -1.567
95 C3 180 -0.590
95 C3 181 0.387
95 C3 182 1.851
95 C3 183 2.340
95 C3 184 1.851
95 C3 185 0.387
95 C3 186 -1.567
95 C3 187 -3.031
95 C3 188 -3.520
95 C3 189 -3.031
95 C3 190 -1.078
95 C3 191 -0.102
95 C3 192 0.875
95 C3 193 1.363
95 C3 194 1.851
95 C3 195 1.363
95 C3 196 1.363
95 C3 197 0.875
95 C3 198 1.363
95 C3 199 1.851
95 C3 200 2.828
95 C3 201 3.316
95 C3 202 3.316
95 C3 203 3.316
95 C3 204 2.828
95 C3 205 2.828
95 C3 206 2.340
95 C3 207 1.851
95 C3 208 1.363
95 C3 209 0.875
95 C3 210 0.875
95 C3 211 1.363
95 C3 212 1.363
95 C3 213 0.875
95 C3 214 -0.102
95 C3 215 -1.567
95 C3 216 -3.031
95 C3 217 -3.520
95 C3 218 -3.520
95 C3 219 -2.543
95 C3 220 -1.567
95 C3 221 -0.102
95 C3 222 1.363
95 C3 223 3.316
95 C3 224 5.269
95 C3 225 5.758
95 C3 226 4.781
95 C3 227 2.828
95 C3 228 0.387
95 C3 229 -1.567
95 C3 230 -1.567
95 C3 231 -1.078
95 C3 232 0.387
95 C3 233 0.387
95 C3 234 0.387
95 C3 235 0.387
95 C3 236 -0.102
95 C3 237 -0.590
95 C3 238 -1.078
95 C3 239 -2.055
95 C3 240 -3.520
95 C3 241 -4.496
95 C3 242 -4.985
95 C3 243 -4.496
95 C3 244 -2.543
95 C3 245 -1.078
95 C3 246 -0.102
95 C3 247 -0.102
95 C3 248 0.387
95 C3 249 0.875
95 C3 250 2.340
95 C3 251 3.316
95 C3 252 3.316
95 C3 253 2.340
95 C3 254 0.875
95 C3 255 -0.102
# C4 chan 17
95 C4 0 1.485
95 C4 1 0.509
95 C4 2 0.020
95 C4 3 0.509
95 C4 4 1.485
95 C4 5 1.485
95 C4 6 0.997
95 C4 7 -0.468
95 C4 8 -2.909
95 C4 9 -5.351
95 C4 10 -5.839
95 C4 11 -4.862
95 C4 12 -2.421
95 C4 13 -0.468
95 C4 14 0.997
95 C4 15 1.485
95 C4 16 0.509
95 C4 17 0.020
95 C4 18 -0.956
95 C4 19 0.020
95 C4 20 1.485
95 C4 21 3.927
95 C4 22 5.880
95 C4 23 6.368
95 C4 24 4.903
95 C4 25 1.973
95 C4 26 -1.933
95 C4 27 -4.374
95 C4 28 -5.351
95 C4 29 -4.374
95 C4 30 -2.421
95 C4 31 -0.956
95 C4 32 -0.468
95 C4 33 -0.956
95 C4 34 -2.421
95 C4 35 -4.374
95 C4 36 -5.839
95 C4 37 -6.816
95 C4 38 -6.327
95 C4 39 -5.351
95 C4 40 -2.909
95 C4 41 -0.468
95 C4 42 0.997
95 C4 43 0.997
95 C4 44 -0.468
95 C4 45 -1.933
95 C4 46 -2.909
95 C4 47 -2.909
95 C4 48 -1.933
95 C4 49 -0.468
95 C4 50 0.509
95 C4 51 0.997
95 C4 52 0.997
95 C4 53 0.020
95 C4 54 -0.956
95 C4 55 -1.933
95 C4 56 -1.933
95 C4 57 -1.933
95 C4 58 -1.444
95 C4 59 -0.956
95 C4 60 0.020
95 C4 61 0.020
95 C4 62 -0.468
95 C4 63 -1.444
95 C4 64 -1.933
95 C4 65 -1.444
95 C4 66 0.020
95 C4 67 1.973
95 C4 68 2.950
95 C4 69 2.950
95 C4 70 1.973
95 C4 71 0.997
95 C4 72 -0.468
95 C4 73 -0.956
95 C4 74 -0.956
95 C4 75 -1.933
95 C4 76 -2.909
95 C4 77 -2.909
95 C4 78 -2.421
95 C4 79 -0.956
95 C4 80 0.020
95 C4 81 0.997
95 C4 82 1.485
95 C4 83 0.997
95 C4 84 0.509
95 C4 85 0.020
95 C4 86 -0.956
95 C4 87 -1.444
95 C4 88 -1.933
95 C4 89 -2.421
95 C4 90 -2.909
95 C4 91 -2.909
95 C4 92 -2.421
95 C4 93 -2.421
95 C4 94 -2.909
95 C4 95 -3.398
95 C4 96 -3.398
95 C4 97 -2.909
95 C4 98 -1.444
95 C4 99 -0.468
95 C4 100 0.020
95 C4 101 0.509
95 C4 102 0.020
95 C4 103 0.509
95 C4 104 0.509
95 C4 105 0.997
95 C4 106 0.997
95 C4 107 0.509
95 C4 108 -0.956
95 C4 109 -1.933
95 C4 110 -3.398
95 C4 111 -4.862
95 C4 112 -5.351
95 C4 113 -4.862
95 C4 114 -2.421
95 C4 115 0.020
95 C4 116 2.462
95 C4 117 2.462
95 C4 118 0.997
95 C4 119 -1.444
95 C4 120 -3.886
95 C4 121 -5.351
95 C4 122 -5.351
95 C4 123 -4.862
95 C4 124 -3.398
95 C4 125 -2.421
95 C4 126 -1.933
95 C4 127 -1.933
95 C4 128 -1.933
95 C4 129 -1.933
95 C4 130 -1.444
95 C4 131 -0.956
95 C4 132 -0.468
95 C4 133 -0.468
95 C4 134 -0.956
95 C4 135 -1.933
95 C4 136 -1.933
95 C4 137 -1.444
95 C4 138 0.020
95 C4 139 0.997
95 C4 140 0.997
95 C4 141 0.509
95 C4 142 -0.468
95 C4 143 -1.933
95 C4 144 -2.421
95 C4 145 -2.421
95 C4 146 -1.933
95 C4 147 -0.468
95 C4 148 0.509
95 C4 149 1.485
95 C4 150 1.973
95 C4 151 1.485
95 C4 152 0.997
95 C4 153 0.509
95 C4 154 0.509
95 C4 155 1.485
95 C4 156 2.462
95 C4 157 2.950
95 C4 158 2.950
95 C4 159 1.973
95 C4 160 0.997
95 C4 161 0.509
95 C4 162 0.509
95 C4 163 1.485
95 C4 164 1.485
95 C4 165 0.509
95 C4 166 -1.444
95 C4 167 -2.909
95 C4 168 -4.374
95 C4 169 -4.374
95 C4 170 -4.374
95 C4 171 -4.862
95 C4 172 -5.351
95 C4 173 -5.351
95 C4 174 -5.351
95 C4 175 -4.374
95 C4 176 -3.886
95 C4 177 -2.909
95 C4 178 -2.421
95 C4 179 -2.421
95 C4 180 -2.421
95 C4 181 -2.421
95 C4 182 -2.421
95 C4 183 -2.909
95 C4 184 -2.909
95 C4 185 -1.933
95 C4 186 -0.956
95 C4 187 0.509
95 C4 188 1.485
95 C4 189 1.973
95 C4 190 0.997
95 C4 191 0.020
95 C4 192 -1.933
95 C4 193 -3.398
95 C4 194 -3.886
95 C4 195 -3.886
95 C4 196 -2.909
95 C4 197 -1.444
95 C4 198 0.020
95 C4 199 0.509
95 C4 200 0.020
95 C4 201 -1.444
95 C4 202 -2.421
95 C4 203 -2.909
95 C4 204 -2.909
95 C4 205 -1.933
95 C4 206 -0.468
95 C4 207 0.020
95 C4 208 0.509
95 C4 209 0.020
95 C4 210 -0.468
95 C4 211 -0.956
95 C4 212 -0.956
95 C4 213 -0.956
95 C4 214 -0.956
95 C4 215 -0.956
95 C4 216 -0.468
95 C4 217 -0.468
95 C4 218 -0.956
95 C4 219 -1.444
95 C4 220 -1.933
95 C4 221 -2.421
95 C4 222 -2.421
95 C4 223 -1.933
95 C4 224 -1.933
95 C4 225 -1.933
95 C4 226 -2.909
95 C4 227 -3.398
95 C4 228 -3.886
95 C4 229 -3.886
95 C4 230 -3.886
95 C4 231 -3.398
95 C4 232 -2.909
95 C4 233 -2.421
95 C4 234 -1.933
95 C4 235 -1.444
95 C4 236 -1.444
95 C4 237 -1.444
95 C4 238 -1.933
95 C4 239 -1.933
95 C4 240 -2.909
95 C4 241 -3.398
95 C4 242 -3.886
95 C4 243 -4.374
95 C4 244 -4.862
95 C4 245 -4.862
95 C4 246 -4.862
95 C4 247 -3.886
95 C4 248 -3.398
95 C4 249 -3.398
95 C4 250 -3.398
95 C4 251 -3.398
95 C4 252 -3.398
95 C4 253 -2.421
95 C4 254 -1.933
95 C4 255 -1.444
# CP5 chan 18
95 CP5 0 -4.415
95 CP5 1 -0.509
95 CP5 2 2.909
95 CP5 3 4.862
95 CP5 4 4.862
95 CP5 5 2.909
95 CP5 6 -0.020
95 CP5 7 -1.973
95 CP5 8 -2.462
95 CP5 9 -0.997
95 CP5 10 1.933
95 CP5 11 3.398
95 CP5 12 4.374
95 CP5 13 3.886
95 CP5 14 3.398
95 CP5 15 3.398
95 CP5 16 3.886
95 CP5 17 4.862
95 CP5 18 4.374
95 CP5 19 2.421
95 CP5 20 -0.020
95 CP5 21 -2.462
95 CP5 22 -4.415
95 CP5 23 -4.415
95 CP5 24 -2.950
95 CP5 25 -0.997
95 CP5 26 1.444
95 CP5 27 2.421
95 CP5 28 2.909
95 CP5 29 1.444
95 CP5 30 -0.020
95 CP5 31 -1.485
95 CP5 32 -2.462
95 CP5 33 -3.438
95 CP5 34 -3.927
95 CP5 35 -4.903
95 CP5 36 -5.391
95 CP5 37 -4.415
95 CP5 38 -3.438
95 CP5 39 -2.462
95 CP5 40 -1.485
95 CP5 41 -1.973
95 CP5 42 -1.973
95 CP5 43 -2.462
95 CP5 44 -1.485
95 CP5 45 -0.509
95 CP5 46 -0.020
95 CP5 47 -0.997
95 CP5 48 -3.438
95 CP5 49 -6.856
95 CP5 50 -10.274
95 CP5 51 -12.716
95 CP5 52 -14.181
95 CP5 53 -14.181
95 CP5 54 -13.692
95 CP5 55 -13.204
95 CP5 56 -11.739
95 CP5 57 -9.298
95 CP5 58 -6.368
95 CP5 59 -2.950
95 CP5 60 -0.997
95 CP5 61 -0.509
95 CP5 62 -0.509
95 CP5 63 -0.020
95 CP5 64 1.444
95 CP5 65 3.886
95 CP5 66 7.304
95 CP5 67 9.745
95 CP5 68 10.234
95 CP5 69 9.745
95 CP5 70 8.769
95 CP5 71 7.792
95 CP5 72 6.816
95 CP5 73 6.816
95 CP5 74 6.327
95 CP5 75 5.351
95 CP5 76 4.374
95 CP5 77 2.421
95 CP5 78 0.468
95 CP5 79 -0.509
95 CP5 80 -0.020
95 CP5 81 0.956
95 CP5 82 2.421
95 CP5 83 2.909
95 CP5 84 2.909
95 CP5 85 2.421
95 CP5 86 1.933
95 CP5 87 0.956
95 CP5 88 0.468
95 CP5 89 -0.509
95 CP5 90 -1.485
95 CP5 91 -1.485
95 CP5 92 -0.997
95 CP5 93 -0.020
95 CP5 94 1.444
95 CP5 95 1.933
95 CP5 96 1.933
95 CP5 97 0.956
95 CP5 98 -0.509
95 CP5 99 -1.485
95 CP5 100 -2.462
95 CP5 101 -2.462
95 CP5 102 -2.462
95 CP5 103 -2.462
95 CP5 104 -2.462
95 CP5 105 -1.973
95 CP5 106 -0.997
95 CP5 107 0.468
95 CP5 108 2.421
95 CP5 109 3.398
95 CP5 110 3.398
95 CP5 111 1.933
95 CP5 112 -0.020
95 CP5 113 -1.973
95 CP5 114 -2.950
95 CP5 115 -3.438
95 CP5 116 -2.462
95 CP5 117 -1.485
95 CP5 118 -0.997
95 CP5 119 -0.997
95 CP5 120 -0.997
95 CP5 121 -1.973
95 CP5 122 -2.462
95 CP5 123 -2.950
95 CP5 124 -3.927
95 CP5 125 -4.903
95 CP5 126 -5.391
95 CP5 127 -5.880
95 CP5 128 -5.391
95 CP5 129 -3.927
95 CP5 130 -3.438
95 CP5 131 -3.927
95 CP5 132 -5.391
95 CP5 133 -7.345
95 CP5 134 -7.833
95 CP5 135 -7.345
95 CP5 136 -6.368
95 CP5 137 -5.391
95 CP5 138 -5.391
95 CP5 139 -5.880
95 CP5 140 -5.880
95 CP5 141 -5.880
95 CP5 142 -5.391
95 CP5 143 -4.903
95 CP5 144 -5.391
95 CP5 145 -5.880
95 CP5 146 -5.880
95 CP5 147 -4.903
95 CP5 148 -3.927
95 CP5 149 -2.950
95 CP5 150 -3.438
95 CP5 151 -5.391
95 CP5 152 -6.856
95 CP5 153 -7.345
95 CP5 154 -6.368
95 CP5 155 -4.415
95 CP5 156 -3.438
95 CP5 157 -3.438
95 CP5 158 -4.415
95 CP5 159 -5.391
95 CP5 160 -4.903
95 CP5 161 -2.462
95 CP5 162 0.956
95 CP5 163 4.374
95 CP5 164 6.327
95 CP5 165 5.351
95 CP5 166 1.933
95 CP5 167 -2.462
95 CP5 168 -4.903
95 CP5 169 -5.391
95 CP5 170 -3.927
95 CP5 171 -0.997
95 CP5 172 0.956
95 CP5 173 1.444
95 CP5 174 -0.509
95 CP5 175 -2.462
95 CP5 176 -4.415
95 CP5 177 -5.391
95 CP5 178 -6.368
95 CP5 179 -6.856
95 CP5 180 -5.880
95 CP5 181 -3.927
95 CP5 182 -1.485
95 CP5 183 0.956
95 CP5 184 0.956
95 CP5 185 -0.509
95 CP5 186 -3.438
95 CP5 187 -5.880
95 CP5 188 -6.368
95 CP5 189 -5.391
95 CP5 190 -2.950
95 CP5 191 -0.509
95 CP5 192 0.956
95 CP5 193 0.956
95 CP5 194 1.444
95 CP5 195 0.956
95 CP5 196 0.956
95 CP5 197 1.444
95 CP5 198 2.421
95 CP5 199 3.886
95 CP5 200 4.862
95 CP5 201 4.374
95 CP5 202 3.886
95 CP5 203 2.421
95 CP5 204 2.421
95 CP5 205 2.909
95 CP5 206 4.374
95 CP5 207 5.839
95 CP5 208 5.839
95 CP5 209 5.351
95 CP5 210 4.374
95 CP5 211 2.421
95 CP5 212 0.956
95 CP5 213 -0.997
95 CP5 214 -2.950
95 CP5 215 -4.903
95 CP5 216 -5.391
95 CP5 217 -5.391
95 CP5 218 -4.415
95 CP5 219 -3.438
95 CP5 220 -2.950
95 CP5 221 -2.950
95 CP5 222 -1.485
95 CP5 223 0.956
95 CP5 224 4.374
95 CP5 225 6.816
95 CP5 226 7.304
95 CP5 227 4.374
95 CP5 228 0.468
95 CP5 229 -3.438
95 CP5 230 -5.391
95 CP5 231 -5.391
95 CP5 232 -3.438
95 CP5 233 -1.973
95 CP5 234 -0.509
95 CP5 235 -0.020
95 CP5 236 0.468
95 CP5 237 0.468
95 CP5 238 0.468
95 CP5 239 -1.973
95 CP5 240 -4.903
95 CP5 241 -8.809
95 CP5 242 -11.251
95 CP5 243 -11.739
95 CP5 244 -10.763
95 CP5 245 -9.298
95 CP5 246 -7.833
95 CP5 247 -6.368
95 CP5 248 -4.903
95 CP5 249 -2.462
95 CP5 250 0.468
95 CP5 251 2.421
95 CP5 252 3.398
95 CP5 253 2.421
95 CP5 254 0.956
95 CP5 255 -0.509
# CP6 chan 19
95 CP6 0 -2.584
95 CP6 1 -3.072
95 CP6 2 -2.584
95 CP6 3 -0.631
95 CP6 4 1.811
95 CP6 5 3.276
95 CP6 6 3.276
95 CP6 7 1.322
95 CP6 8 -2.096
95 CP6 9 -5.025
95 CP6 10 -6.002
95 CP6 11 -5.025
95 CP6 12 -2.584
95 CP6 13 -0.142
95 CP6 14 2.299
95 CP6 15 3.764
95 CP6 16 4.252
95 CP6 17 3.764
95 CP6 18 2.299
95 CP6 19 1.322
95 CP6 20 1.811
95 CP6 21 3.276
95 CP6 22 5.229
95 CP6 23 5.717
95 CP6 24 3.764
95 CP6 25 -0.631
95 CP6 26 -5.025
95 CP6 27 -8.443
95 CP6 28 -8.931
95 CP6 29 -7.955
95 CP6 30 -6.490
95 CP6 31 -5.025
95 CP6 32 -5.514
95 CP6 33 -6.978
95 CP6 34 -8.931
95 CP6 35 -11.373
95 CP6 36 -12.838
95 CP6 37 -13.326
95 CP6 38 -12.838
95 CP6 39 -10.885
95 CP6 40 -7.955
95 CP6 41 -5.025
95 CP6 42 -3.072
95 CP6 43 -3.072
95 CP6 44 -5.025
95 CP6 45 -6.978
95 CP6 46 -8.443
95 CP6 47 -8.443
95 CP6 48 -7.467
95 CP6 49 -6.490
95 CP6 50 -6.978
95 CP6 51 -7.955
95 CP6 52 -10.396
95 CP6 53 -12.349
95 CP6 54 -12.838
95 CP6 55 -12.349
95 CP6 56 -10.396
95 CP6 57 -7.467
95 CP6 58 -5.025
95 CP6 59 -2.584
95 CP6 60 -1.119
95 CP6 61 -1.119
95 CP6 62 -2.096
95 CP6 63 -3.560
95 CP6 64 -4.049
95 CP6 65 -3.072
95 CP6 66 -0.142
95 CP6 67 3.276
95 CP6 68 5.229
95 CP6 69 5.717
95 CP6 70 4.740
95 CP6 71 2.787
95 CP6 72 1.322
95 CP6 73 0.346
95 CP6 74 -1.119
95 CP6 75 -3.072
95 CP6 76 -5.025
95 CP6 77 -5.514
95 CP6 78 -4.537
95 CP6 79 -1.607
95 CP6 80 0.834
95 CP6 81 2.299
95 CP6 82 2.787
95 CP6 83 2.299
95 CP6 84 1.322
95 CP6 85 0.346
95 CP6 86 -1.119
95 CP6 87 -2.096
95 CP6 88 -3.560
95 CP6 89 -4.537
95 CP6 90 -4.537
95 CP6 91 -4.537
95 CP6 92 -4.537
95 CP6 93 -5.025
95 CP6 94 -5.514
95 CP6 95 -6.490
95 CP6 96 -6.490
95 CP6 97 -5.025
95 CP6 98 -2.584
95 CP6 99 -0.631
95 CP6 100 0.346
95 CP6 101 -0.142
95 CP6 102 -0.631
95 CP6 103 -1.119
95 CP6 104 -1.607
95 CP6 105 -1.607
95 CP6 106 -1.119
95 CP6 107 -1.607
95 CP6 108 -2.096
95 CP6 109 -4.049
95 CP6 110 -6.002
95 CP6 111 -7.955
95 CP6 112 -8.443
95 CP6 113 -7.467
95 CP6 114 -4.049
95 CP6 115 -0.631
95 CP6 116 2.299
95 CP6 117 2.787
95 CP6 118 0.834
95 CP6 119 -2.096
95 CP6 120 -5.514
95 CP6 121 -7.955
95 CP6 122 -8.443
95 CP6 123 -7.955
95 CP6 124 -6.978
95 CP6 125 -5.514
95 CP6 126 -5.025
95 CP6 127 -4.049
95 CP6 128 -4.049
95 CP6 129 -4.049
95 CP6 130 -3.560
95 CP6 131 -3.072
95 CP6 132 -3.560
95 CP6 133 -4.049
95 CP6 134 -4.537
95 CP6 135 -4.537
95 CP6 136 -4.049
95 CP6 137 -2.584
95 CP6 138 -1.119
95 CP6 139 -0.631
95 CP6 140 -1.119
95 CP6 141 -2.096
95 CP6 142 -4.049
95 CP6 143 -5.514
95 CP6 144 -6.490
95 CP6 145 -6.490
95 CP6 146 -5.514
95 CP6 147 -4.049
95 CP6 148 -2.584
95 CP6 149 -1.607
95 CP6 150 -1.607
95 CP6 151 -2.584
95 CP6 152 -3.560
95 CP6 153 -3.560
95 CP6 154 -2.096
95 CP6 155 0.346
95 CP6 156 2.299
95 CP6 157 3.276
95 CP6 158 3.276
95 CP6 159 1.811
95 CP6 160 0.834
95 CP6 161 1.322
95 CP6 162 2.787
95 CP6 163 4.252
95 CP6 164 4.740
95 CP6 165 3.764
95 CP6 166 0.834
95 CP6 167 -3.072
95 CP6 168 -5.514
95 CP6 169 -6.978
95 CP6 170 -6.978
95 CP6 171 -6.490
95 CP6 172 -6.490
95 CP6 173 -6.490
95 CP6 174 -6.490
95 CP6 175 -6.002
95 CP6 176 -6.002
95 CP6 177 -6.490
95 CP6 178 -6.490
95 CP6 179 -6.002
95 CP6 180 -5.025
95 CP6 181 -4.049
95 CP6 182 -2.584
95 CP6 183 -2.584
95 CP6 184 -2.584
95 CP6 185 -2.584
95 CP6 186 -2.096
95 CP6 187 -1.119
95 CP6 188 -0.142
95 CP6 189 0.834
95 CP6 190 0.834
95 CP6 191 0.346
95 CP6 192 -1.119
95 CP6 193 -3.560
95 CP6 194 -5.025
95 CP6 195 -6.002
95 CP6 196 -4.537
95 CP6 197 -2.096
95 CP6 198 0.834
95 CP6 199 3.276
95 CP6 200 3.276
95 CP6 201 1.811
95 CP6 202 -1.607
95 CP6 203 -4.049
95 CP6 204 -5.025
95 CP6 205 -3.072
95 CP6 206 0.346
95 CP6 207 3.764
95 CP6 208 6.205
95 CP6 209 6.694
95 CP6 210 5.717
95 CP6 211 3.276
95 CP6 212 1.322
95 CP6 213 -0.631
95 CP6 214 -0.631
95 CP6 215 -0.142
95 CP6 216 0.834
95 CP6 217 1.322
95 CP6 218 0.834
95 CP6 219 -0.142
95 CP6 220 -1.607
95 CP6 221 -2.096
95 CP6 222 -1.607
95 CP6 223 -0.631
95 CP6 224 1.322
95 CP6 225 1.811
95 CP6 226 1.322
95 CP6 227 0.346
95 CP6 228 -2.584
95 CP6 229 -5.025
95 CP6 230 -7.467
95 CP6 231 -7.955
95 CP6 232 -7.467
95 CP6 233 -5.025
95 CP6 234 -2.096
95 CP6 235 0.834
95 CP6 236 2.787
95 CP6 237 2.787
95 CP6 238 1.811
95 CP6 239 -0.631
95 CP6 240 -4.049
95 CP6 241 -7.467
95 CP6 242 -9.908
95 CP6 243 -11.373
95 CP6 244 -11.373
95 CP6 245 -10.396
95 CP6 246 -9.420
95 CP6 247 -7.467
95 CP6 248 -5.514
95 CP6 249 -4.537
95 CP6 250 -3.560
95 CP6 251 -3.560
95 CP6 252 -3.072
95 CP6 253 -2.584
95 CP6 254 -1.607
95 CP6 255 -0.631
# CP1 chan 20
95 CP1 0 0.600
95 CP1 1 2.553
95 CP1 2 4.018
95 CP1 3 4.506
95 CP1 4 4.506
95 CP1 5 3.530
95 CP1 6 2.553
95 CP1 7 1.577
95 CP1 8 0.600
95 CP1 9 0.600
95 CP1 10 0.600
95 CP1 11 0.112
95 CP1 12 -0.376
95 CP1 13 -0.865
95 CP1 14 -0.865
95 CP1 15 -0.376
95 CP1 16 0.600
95 CP1 17 1.088
95 CP1 18 1.088
95 CP1 19 -0.376
95 CP1 20 -1.841
95 CP1 21 -2.818
95 CP1 22 -2.818
95 CP1 23 -0.865
95 CP1 24 1.088
95 CP1 25 3.530
95 CP1 26 5.483
95 CP1 27 5.971
95 CP1 28 5.483
95 CP1 29 4.506
95 CP1 30 3.042
95 CP1 31 2.065
95 CP1 32 1.577
95 CP1 33 1.088
95 CP1 34 0.112
95 CP1 35 -0.865
95 CP1 36 -1.841
95 CP1 37 -2.818
95 CP1 38 -3.306
95 CP1 39 -2.818
95 CP1 40 -2.818
95 CP1 41 -2.818
95 CP1 42 -2.330
95 CP1 43 -1.841
95 CP1 44 -0.865
95 CP1 45 -0.376
95 CP1 46 0.112
95 CP1 47 0.112
95 CP1 48 -0.376
95 CP1 49 -1.353
95 CP1 50 -2.330
95 CP1 51 -3.306
95 CP1 52 -4.283
95 CP1 53 -4.771
95 CP1 54 -4.283
95 CP1 55 -4.283
95 CP1 56 -3.306
95 CP1 57 -1.353
95 CP1 58 0.112
95 CP1 59 1.088
95 CP1 60 1.577
95 CP1 61 1.088
95 CP1 62 -0.376
95 CP1 63 -1.353
95 CP1 64 -1.353
95 CP1 65 -0.865
95 CP1 66 1.088
95 CP1 67 2.553
95 CP1 68 4.018
95 CP1 69 4.506
95 CP1 70 4.506
95 CP1 71 4.506
95 CP1 72 4.506
95 CP1 73 4.018
95 CP1 74 3.530
95 CP1 75 3.530
95 CP1 76 3.042
95 CP1 77 2.553
95 CP1 78 2.553
95 CP1 79 2.553
95 CP1 80 2.553
95 CP1 81 2.553
95 CP1 82 3.042
95 CP1 83 3.530
95 CP1 84 2.553
95 CP1 85 2.065
95 CP1 86 1.577
95 CP1 87 1.088
95 CP1 88 -0.376
95 CP1 89 -1.353
95 CP1 90 -2.330
95 CP1 91 -2.818
95 CP1 92 -2.330
95 CP1 93 -1.353
95 CP1 94 -0.376
95 CP1 95 0.600
95 CP1 96 1.088
95 CP1 97 1.088
95 CP1 98 1.088
95 CP1 99 0.600
95 CP1 100 1.088
95 CP1 101 0.600
95 CP1 102 0.600
95 CP1 103 0.112
95 CP1 104 0.112
95 CP1 105 0.112
95 CP1 106 0.112
95 CP1 107 1.088
95 CP1 108 1.577
95 CP1 109 2.553
95 CP1 110 2.065
95 CP1 111 1.088
95 CP1 112 -0.376
95 CP1 113 -0.865
95 CP1 114 -1.353
95 CP1 115 -1.353
95 CP1 116 -0.376
95 CP1 117 0.112
95 CP1 118 0.600
95 CP1 119 0.600
95 CP1 120 0.600
95 CP1 121 0.112
95 CP1 122 0.112
95 CP1 123 0.112
95 CP1 124 -0.376
95 CP1 125 -0.865
95 CP1 126 -1.841
95 CP1 127 -1.841
95 CP1 128 -1.353
95 CP1 129 -0.865
95 CP1 130 -0.376
95 CP1 131 -0.865
95 CP1 132 -1.353
95 CP1 133 -2.330
95 CP1 134 -2.330
95 CP1 135 -2.330
95 CP1 136 -1.353
95 CP1 137 -0.865
95 CP1 138 -0.865
95 CP1 139 -1.353
95 CP1 140 -1.841
95 CP1 141 -1.841
95 CP1 142 -1.841
95 CP1 143 -1.841
95 CP1 144 -2.330
95 CP1 145 -2.818
95 CP1 146 -2.818
95 CP1 147 -2.330
95 CP1 148 -0.865
95 CP1 149 -0.376
95 CP1 150 -0.376
95 CP1 151 -0.376
95 CP1 152 -0.865
95 CP1 153 -0.865
95 CP1 154 -0.376
95 CP1 155 1.088
95 CP1 156 1.577
95 CP1 157 1.088
95 CP1 158 0.600
95 CP1 159 0.112
95 CP1 160 0.112
95 CP1 161 1.088
95 CP1 162 3.042
95 CP1 163 4.506
95 CP1 164 4.995
95 CP1 165 4.506
95 CP1 166 2.553
95 CP1 167 0.600
95 CP1 168 -0.865
95 CP1 169 -0.865
95 CP1 170 -0.376
95 CP1 171 1.577
95 CP1 172 3.042
95 CP1 173 3.530
95 CP1 174 3.042
95 CP1 175 2.065
95 CP1 176 0.600
95 CP1 177 0.112
95 CP1 178 -0.865
95 CP1 179 -0.376
95 CP1 180 0.112
95 CP1 181 1.088
95 CP1 182 2.553
95 CP1 183 3.042
95 CP1 184 2.553
95 CP1 185 1.088
95 CP1 186 -0.865
95 CP1 187 -2.330
95 CP1 188 -2.330
95 CP1 189 -1.353
95 CP1 190 0.112
95 CP1 191 1.577
95 CP1 192 2.553
95 CP1 193 2.065
95 CP1 194 2.065
95 CP1 195 1.577
95 CP1 196 1.577
95 CP1 197 1.577
95 CP1 198 2.553
95 CP1 199 3.530
95 CP1 200 4.506
95 CP1 201 4.506
95 CP1 202 3.530
95 CP1 203 2.065
95 CP1 204 0.600
95 CP1 205 0.600
95 CP1 206 1.577
95 CP1 207 3.530
95 CP1 208 4.018
95 CP1 209 4.018
95 CP1 210 3.530
95 CP1 211 2.553
95 CP1 212 2.065
95 CP1 213 2.065
95 CP1 214 2.065
95 CP1 215 2.065
95 CP1 216 2.553
95 CP1 217 2.553
95 CP1 218 3.042
95 CP1 219 3.042
95 CP1 220 3.042
95 CP1 221 2.553
95 CP1 222 2.553
95 CP1 223 3.042
95 CP1 224 4.018
95 CP1 225 4.995
95 CP1 226 5.483
95 CP1 227 4.018
95 CP1 228 2.065
95 CP1 229 -0.376
95 CP1 230 -2.330
95 CP1 231 -2.818
95 CP1 232 -1.353
95 CP1 233 0.112
95 CP1 234 2.065
95 CP1 235 3.530
95 CP1 236 4.018
95 CP1 237 4.018
95 CP1 238 3.530
95 CP1 239 2.553
95 CP1 240 1.088
95 CP1 241 -0.865
95 CP1 242 -2.330
95 CP1 243 -2.818
95 CP1 244 -2.818
95 CP1 245 -1.841
95 CP1 246 -1.353
95 CP1 247 -1.353
95 CP1 248 -0.865
95 CP1 249 -0.376
95 CP1 250 0.600
95 CP1 251 2.065
95 CP1 252 2.553
95 CP1 253 2.065
95 CP1 254 1.088
95 CP1 255 0.600
# CP2 chan 21
95 CP2 0 4.628
95 CP2 1 4.628
95 CP2 2 4.628
95 CP2 3 5.605
95 CP2 4 6.093
95 CP2 5 7.070
95 CP2 6 6.582
95 CP2 7 4.628
95 CP2 8 1.699
95 CP2 9 -1.231
95 CP2 10 -3.672
95 CP2 11 -5.137
95 CP2 12 -4.649
95 CP2 13 -3.184
95 CP2 14 -1.231
95 CP2 15 0.722
95 CP2 16 1.211
95 CP2 17 1.211
95 CP2 18 0.234
95 CP2 19 -0.743
95 CP2 20 -0.254
95 CP2 21 1.211
95 CP2 22 3.652
95 CP2 23 6.093
95 CP2 24 7.070
95 CP2 25 6.582
95 CP2 26 5.117
95 CP2 27 3.164
95 CP2 28 2.675
95 CP2 29 2.675
95 CP2 30 3.164
95 CP2 31 3.164
95 CP2 32 3.164
95 CP2 33 2.187
95 CP2 34 0.234
95 CP2 35 -1.719
95 CP2 36 -3.672
95 CP2 37 -4.649
95 CP2 38 -5.625
95 CP2 39 -5.625
95 CP2 40 -5.137
95 CP2 41 -4.161
95 CP2 42 -3.184
95 CP2 43 -2.207
95 CP2 44 -1.719
95 CP2 45 -2.207
95 CP2 46 -2.207
95 CP2 47 -1.719
95 CP2 48 -0.743
95 CP2 49 0.722
95 CP2 50 1.211
95 CP2 51 1.211
95 CP2 52 0.234
95 CP2 53 -1.231
95 CP2 54 -1.719
95 CP2 55 -1.719
95 CP2 56 -0.743
95 CP2 57 1.211
95 CP2 58 2.675
95 CP2 59 3.164
95 CP2 60 2.675
95 CP2 61 1.211
95 CP2 62 -1.231
95 CP2 63 -3.184
95 CP2 64 -4.649
95 CP2 65 -4.649
95 CP2 66 -3.672
95 CP2 67 -2.207
95 CP2 68 -0.743
95 CP2 69 0.234
95 CP2 70 1.211
95 CP2 71 2.187
95 CP2 72 2.187
95 CP2 73 2.187
95 CP2 74 1.211
95 CP2 75 0.234
95 CP2 76 -0.254
95 CP2 77 -0.254
95 CP2 78 1.211
95 CP2 79 2.675
95 CP2 80 3.652
95 CP2 81 4.628
95 CP2 82 4.140
95 CP2 83 3.164
95 CP2 84 2.675
95 CP2 85 1.699
95 CP2 86 1.211
95 CP2 87 0.234
95 CP2 88 -0.254
95 CP2 89 -1.231
95 CP2 90 -2.207
95 CP2 91 -3.672
95 CP2 92 -4.161
95 CP2 93 -4.161
95 CP2 94 -4.161
95 CP2 95 -3.672
95 CP2 96 -2.696
95 CP2 97 -1.231
95 CP2 98 0.234
95 CP2 99 1.699
95 CP2 100 2.675
95 CP2 101 3.164
95 CP2 102 2.675
95 CP2 103 1.699
95 CP2 104 0.722
95 CP2 105 0.722
95 CP2 106 0.722
95 CP2 107 1.211
95 CP2 108 1.699
95 CP2 109 1.699
95 CP2 110 0.722
95 CP2 111 -0.254
95 CP2 112 -1.231
95 CP2 113 -0.743
95 CP2 114 -0.254
95 CP2 115 1.211
95 CP2 116 1.699
95 CP2 117 1.699
95 CP2 118 0.722
95 CP2 119 -0.743
95 CP2 120 -1.719
95 CP2 121 -2.207
95 CP2 122 -2.207
95 CP2 123 -1.231
95 CP2 124 -0.254
95 CP2 125 0.234
95 CP2 126 0.234
95 CP2 127 0.234
95 CP2 128 -0.254
95 CP2 129 -0.254
95 CP2 130 -0.254
95 CP2 131 0.234
95 CP2 132 0.234
95 CP2 133 -0.254
95 CP2 134 -0.743
95 CP2 135 -0.743
95 CP2 136 -0.254
95 CP2 137 0.722
95 CP2 138 1.699
95 CP2 139 2.187
95 CP2 140 1.211
95 CP2 141 0.234
95 CP2 142 -1.231
95 CP2 143 -1.719
95 CP2 144 -2.696
95 CP2 145 -2.696
95 CP2 146 -1.719
95 CP2 147 -0.743
95 CP2 148 0.722
95 CP2 149 1.699
95 CP2 150 2.187
95 CP2 151 2.187
95 CP2 152 2.187
95 CP2 153 2.187
95 CP2 154 2.675
95 CP2 155 4.140
95 CP2 156 4.628
95 CP2 157 5.117
95 CP2 158 4.140
95 CP2 159 3.652
95 CP2 160 3.164
95 CP2 161 3.652
95 CP2 162 4.628
95 CP2 163 5.605
95 CP2 164 6.093
95 CP2 165 5.605
95 CP2 166 3.652
95 CP2 167 1.699
95 CP2 168 0.722
95 CP2 169 0.234
95 CP2 170 0.722
95 CP2 171 1.699
95 CP2 172 2.675
95 CP2 173 4.140
95 CP2 174 4.140
95 CP2 175 3.652
95 CP2 176 2.675
95 CP2 177 1.699
95 CP2 178 1.699
95 CP2 179 1.699
95 CP2 180 2.675
95 CP2 181 3.164
95 CP2 182 3.652
95 CP2 183 3.164
95 CP2 184 2.675
95 CP2 185 1.699
95 CP2 186 1.699
95 CP2 187 1.699
95 CP2 188 2.675
95 CP2 189 3.652
95 CP2 190 4.628
95 CP2 191 4.628
95 CP2 192 4.628
95 CP2 193 4.140
95 CP2 194 3.164
95 CP2 195 2.675
95 CP2 196 3.164
95 CP2 197 4.140
95 CP2 198 5.605
95 CP2 199 6.582
95 CP2 200 6.582
95 CP2 201 5.117
95 CP2 202 2.675
95 CP2 203 0.722
95 CP2 204 -0.254
95 CP2 205 0.722
95 CP2 206 3.164
95 CP2 207 6.093
95 CP2 208 7.558
95 CP2 209 8.046
95 CP2 210 7.558
95 CP2 211 6.582
95 CP2 212 5.605
95 CP2 213 5.117
95 CP2 214 5.605
95 CP2 215 6.582
95 CP2 216 7.558
95 CP2 217 8.046
95 CP2 218 8.046
95 CP2 219 7.558
95 CP2 220 6.093
95 CP2 221 4.628
95 CP2 222 4.140
95 CP2 223 3.652
95 CP2 224 4.628
95 CP2 225 5.117
95 CP2 226 5.605
95 CP2 227 5.117
95 CP2 228 3.652
95 CP2 229 2.187
95 CP2 230 0.722
95 CP2 231 0.234
95 CP2 232 0.722
95 CP2 233 2.675
95 CP2 234 4.628
95 CP2 235 6.093
95 CP2 236 7.070
95 CP2 237 7.070
95 CP2 238 6.093
95 CP2 239 5.117
95 CP2 240 3.652
95 CP2 241 2.675
95 CP2 242 2.187
95 CP2 243 1.699
95 CP2 244 1.211
95 CP2 245 0.722
95 CP2 246 -0.254
95 CP2 247 -0.254
95 CP2 248 -0.254
95 CP2 249 0.234
95 CP2 250 0.722
95 CP2 251 1.699
95 CP2 252 1.699
95 CP2 253 2.187
95 CP2 254 2.675
95 CP2 255 3.164
# P3 chan 22
95 P3 0 -2.462
95 P3 1 0.956
95 P3 2 3.398
95 P3 3 5.351
95 P3 4 6.327
95 P3 5 5.839
95 P3 6 4.374
95 P3 7 2.909
95 P3 8 1.444
95 P3 9 -0.020
95 P3 10 -1.485
95 P3 11 -2.462
95 P3 12 -2.950
95 P3 13 -3.438
95 P3 14 -2.462
95 P3 15 -1.485
95 P3 16 0.468
95 P3 17 1.444
95 P3 18 0.468
95 P3 19 -2.462
95 P3 20 -5.391
95 P3 21 -7.345
95 P3 22 -7.345
95 P3 23 -4.415
95 P3 24 -0.509
95 P3 25 3.886
95 P3 26 6.327
95 P3 27 7.304
95 P3 28 6.327
95 P3 29 4.862
95 P3 30 3.398
95 P3 31 1.933
95 P3 32 1.444
95 P3 33 -0.509
95 P3 34 -2.462
95 P3 35 -5.391
95 P3 36 -7.833
95 P3 37 -9.298
95 P3 38 -9.786
95 P3 39 -8.809
95 P3 40 -8.321
95 P3 41 -6.856
95 P3 42 -5.880
95 P3 43 -5.391
95 P3 44 -4.903
95 P3 45 -4.903
95 P3 46 -5.391
95 P3 47 -5.880
95 P3 48 -6.856
95 P3 49 -8.321
95 P3 50 -9.786
95 P3 51 -11.251
95 P3 52 -12.716
95 P3 53 -13.204
95 P3 54 -13.692
95 P3 55 -12.716
95 P3 56 -10.763
95 P3 57 -7.833
95 P3 58 -4.415
95 P3 59 -1.973
95 P3 60 -0.509
95 P3 61 -0.997
95 P3 62 -2.462
95 P3 63 -2.950
95 P3 64 -1.973
95 P3 65 -0.020
95 P3 66 2.909
95 P3 67 4.862
95 P3 68 6.816
95 P3 69 7.304
95 P3 70 7.304
95 P3 71 7.792
95 P3 72 7.792
95 P3 73 7.304
95 P3 74 6.327
95 P3 75 4.862
95 P3 76 2.909
95 P3 77 1.444
95 P3 78 0.468
95 P3 79 0.468
95 P3 80 1.444
95 P3 81 2.421
95 P3 82 2.909
95 P3 83 2.909
95 P3 84 2.421
95 P3 85 0.956
95 P3 86 -0.509
95 P3 87 -1.973
95 P3 88 -2.950
95 P3 89 -3.927
95 P3 90 -4.415
95 P3 91 -4.903
95 P3 92 -4.415
95 P3 93 -3.438
95 P3 94 -2.462
95 P3 95 -1.973
95 P3 96 -1.973
95 P3 97 -1.973
95 P3 98 -2.462
95 P3 99 -2.950
95 P3 100 -2.462
95 P3 101 -1.973
95 P3 102 -1.973
95 P3 103 -2.462
95 P3 104 -2.950
95 P3 105 -2.950
95 P3 106 -2.462
95 P3 107 -0.997
95 P3 108 0.956
95 P3 109 2.421
95 P3 110 2.421
95 P3 111 1.444
95 P3 112 -0.509
95 P3 113 -1.973
95 P3 114 -2.462
95 P3 115 -2.462
95 P3 116 -0.997
95 P3 117 -0.020
95 P3 118 0.468
95 P3 119 -0.020
95 P3 120 -0.997
95 P3 121 -1.973
95 P3 122 -2.462
95 P3 123 -2.950
95 P3 124 -3.927
95 P3 125 -4.415
95 P3 126 -5.391
95 P3 127 -5.391
95 P3 128 -4.903
95 P3 129 -4.415
95 P3 130 -4.415
95 P3 131 -4.903
95 P3 132 -5.880
95 P3 133 -6.368
95 P3 134 -6.368
95 P3 135 -5.391
95 P3 136 -4.415
95 P3 137 -3.438
95 P3 138 -3.438
95 P3 139 -3.927
95 P3 140 -4.415
95 P3 141 -5.391
95 P3 142 -5.391
95 P3 143 -6.368
95 P3 144 -7.345
95 P3 145 -8.321
95 P3 146 -7.833
95 P3 147 -6.856
95 P3 148 -4.415
95 P3 149 -2.950
95 P3 150 -1.973
95 P3 151 -2.950
95 P3 152 -4.415
95 P3 153 -4.903
95 P3 154 -3.927
95 P3 155 -2.462
95 P3 156 -1.485
95 P3 157 -1.485
95 P3 158 -2.462
95 P3 159 -2.950
95 P3 160 -2.462
95 P3 161 -0.509
95 P3 162 1.933
95 P3 163 4.374
95 P3 164 5.839
95 P3 165 5.351
95 P3 166 2.909
95 P3 167 -0.020
95 P3 168 -2.950
95 P3 169 -3.927
95 P3 170 -2.950
95 P3 171 -1.485
95 P3 172 0.956
95 P3 173 1.933
95 P3 174 1.933
95 P3 175 0.956
95 P3 176 -0.509
95 P3 177 -1.973
95 P3 178 -2.950
95 P3 179 -3.927
95 P3 180 -3.438
95 P3 181 -1.485
95 P3 182 0.468
95 P3 183 2.421
95 P3 184 2.421
95 P3 185 -0.020
95 P3 186 -2.950
95 P3 187 -5.391
95 P3 188 -5.880
95 P3 189 -4.415
95 P3 190 -1.973
95 P3 191 -0.020
95 P3 192 0.956
95 P3 193 0.956
95 P3 194 0.468
95 P3 195 -0.509
95 P3 196 -0.509
95 P3 197 -0.020
95 P3 198 1.444
95 P3 199 3.398
95 P3 200 4.862
95 P3 201 5.351
95 P3 202 3.886
95 P3 203 1.444
95 P3 204 -0.020
95 P3 205 -0.509
95 P3 206 1.444
95 P3 207 3.886
95 P3 208 5.839
95 P3 209 5.839
95 P3 210 4.862
95 P3 211 2.909
95 P3 212 1.444
95 P3 213 0.956
95 P3 214 0.468
95 P3 215 0.468
95 P3 216 0.956
95 P3 217 1.444
95 P3 218 2.421
95 P3 219 2.909
95 P3 220 2.421
95 P3 221 1.933
95 P3 222 1.444
95 P3 223 1.933
95 P3 224 3.886
95 P3 225 5.839
95 P3 226 5.839
95 P3 227 3.886
95 P3 228 -0.020
95 P3 229 -4.415
95 P3 230 -7.345
95 P3 231 -7.833
95 P3 232 -5.880
95 P3 233 -2.462
95 P3 234 0.468
95 P3 235 3.398
95 P3 236 5.351
95 P3 237 6.327
95 P3 238 5.839
95 P3 239 3.886
95 P3 240 -0.509
95 P3 241 -4.903
95 P3 242 -8.809
95 P3 243 -10.274
95 P3 244 -10.274
95 P3 245 -8.321
95 P3 246 -6.856
95 P3 247 -5.880
95 P3 248 -3.927
95 P3 249 -1.485
95 P3 250 0.956
95 P3 251 2.909
95 P3 252 3.398
95 P3 253 2.421
95 P3 254 0.468
95 P3 255 -0.509
# P4 chan 23
95 P4 0 -0.926
95 P4 1 -0.926
95 P4 2 -0.437
95 P4 3 1.516
95 P4 4 3.957
95 P4 5 5.910
95 P4 6 6.399
95 P4 7 4.445
95 P4 8 1.027
95 P4 9 -2.391
95 P4 10 -5.320
95 P4 11 -6.297
95 P4 12 -4.832
95 P4 13 -2.391
95 P4 14 0.539
95 P4 15 2.981
95 P4 16 3.957
95 P4 17 2.981
95 P4 18 1.027
95 P4 19 -0.437
95 P4 20 -0.926
95 P4 21 0.051
95 P4 22 1.516
95 P4 23 2.492
95 P4 24 2.004
95 P4 25 0.051
95 P4 26 -3.367
95 P4 27 -4.832
95 P4 28 -5.320
95 P4 29 -3.855
95 P4 30 -1.414
95 P4 31 -0.437
95 P4 32 -0.926
95 P4 33 -3.367
95 P4 34 -6.785
95 P4 35 -9.715
95 P4 36 -12.156
95 P4 37 -13.133
95 P4 38 -13.133
95 P4 39 -12.156
95 P4 40 -10.203
95 P4 41 -7.762
95 P4 42 -5.809
95 P4 43 -4.832
95 P4 44 -5.320
95 P4 45 -6.785
95 P4 46 -8.250
95 P4 47 -8.738
95 P4 48 -8.250
95 P4 49 -7.273
95 P4 50 -7.762
95 P4 51 -9.715
95 P4 52 -12.156
95 P4 53 -14.109
95 P4 54 -15.086
95 P4 55 -14.109
95 P4 56 -11.668
95 P4 57 -7.762
95 P4 58 -3.855
95 P4 59 -1.414
95 P4 60 -0.926
95 P4 61 -2.391
95 P4 62 -4.344
95 P4 63 -6.785
95 P4 64 -7.762
95 P4 65 -7.273
95 P4 66 -5.320
95 P4 67 -2.879
95 P4 68 -0.437
95 P4 69 1.027
95 P4 70 1.516
95 P4 71 1.516
95 P4 72 0.539
95 P4 73 -0.437
95 P4 74 -2.391
95 P4 75 -3.855
95 P4 76 -4.832
95 P4 77 -5.320
95 P4 78 -3.855
95 P4 79 -2.391
95 P4 80 0.051
95 P4 81 1.516
95 P4 82 1.516
95 P4 83 1.027
95 P4 84 0.051
95 P4 85 -1.414
95 P4 86 -2.879
95 P4 87 -3.855
95 P4 88 -5.320
95 P4 89 -6.297
95 P4 90 -7.273
95 P4 91 -7.762
95 P4 92 -7.762
95 P4 93 -7.762
95 P4 94 -8.250
95 P4 95 -8.738
95 P4 96 -8.250
95 P4 97 -7.273
95 P4 98 -4.832
95 P4 99 -2.879
95 P4 100 -1.414
95 P4 101 -1.414
95 P4 102 -2.391
95 P4 103 -3.367
95 P4 104 -3.855
95 P4 105 -3.855
95 P4 106 -2.879
95 P4 107 -2.391
95 P4 108 -2.879
95 P4 109 -3.855
95 P4 110 -5.320
95 P4 111 -6.785
95 P4 112 -7.273
95 P4 113 -5.809
95 P4 114 -3.855
95 P4 115 -1.414
95 P4 116 0.539
95 P4 117 1.027
95 P4 118 0.051
95 P4 119 -1.902
95 P4 120 -4.832
95 P4 121 -6.785
95 P4 122 -7.762
95 P4 123 -7.273
95 P4 124 -6.297
95 P4 125 -5.809
95 P4 126 -5.320
95 P4 127 -5.320
95 P4 128 -5.320
95 P4 129 -5.320
95 P4 130 -4.832
95 P4 131 -4.832
95 P4 132 -4.832
95 P4 133 -5.320
95 P4 134 -5.320
95 P4 135 -4.832
95 P4 136 -3.367
95 P4 137 -1.902
95 P4 138 -0.437
95 P4 139 -0.437
95 P4 140 -1.414
95 P4 141 -3.855
95 P4 142 -5.809
95 P4 143 -7.273
95 P4 144 -8.250
95 P4 145 -8.738
95 P4 146 -7.762
95 P4 147 -5.809
95 P4 148 -3.855
95 P4 149 -2.391
95 P4 150 -1.414
95 P4 151 -2.391
95 P4 152 -2.879
95 P4 153 -3.367
95 P4 154 -2.391
95 P4 155 0.051
95 P4 156 2.004
95 P4 157 2.981
95 P4 158 2.981
95 P4 159 2.004
95 P4 160 1.516
95 P4 161 2.004
95 P4 162 2.981
95 P4 163 4.445
95 P4 164 5.422
95 P4 165 4.445
95 P4 166 2.004
95 P4 167 -1.414
95 P4 168 -4.832
95 P4 169 -5.809
95 P4 170 -5.320
95 P4 171 -3.855
95 P4 172 -2.391
95 P4 173 -1.414
95 P4 174 -1.414
95 P4 175 -1.902
95 P4 176 -2.879
95 P4 177 -3.855
95 P4 178 -4.344
95 P4 179 -4.344
95 P4 180 -3.855
95 P4 181 -2.391
95 P4 182 -1.414
95 P4 183 -0.926
95 P4 184 -1.414
95 P4 185 -2.391
95 P4 186 -2.879
95 P4 187 -2.879
95 P4 188 -1.414
95 P4 189 0.051
95 P4 190 1.027
95 P4 191 1.516
95 P4 192 0.539
95 P4 193 -1.414
95 P4 194 -3.367
95 P4 195 -3.855
95 P4 196 -3.367
95 P4 197 -0.926
95 P4 198 1.516
95 P4 199 3.957
95 P4 200 3.957
95 P4 201 2.004
95 P4 202 -1.414
95 P4 203 -5.320
95 P4 204 -6.297
95 P4 205 -5.320
95 P4 206 -1.414
95 P4 207 2.981
95 P4 208 6.399
95 P4 209 7.375
95 P4 210 5.910
95 P4 211 3.957
95 P4 212 2.004
95 P4 213 1.027
95 P4 214 1.027
95 P4 215 2.004
95 P4 216 3.469
95 P4 217 4.445
95 P4 218 4.934
95 P4 219 3.469
95 P4 220 2.004
95 P4 221 0.539
95 P4 222 0.051
95 P4 223 0.539
95 P4 224 1.516
95 P4 225 2.981
95 P4 226 2.981
95 P4 227 1.516
95 P4 228 -1.414
95 P4 229 -4.832
95 P4 230 -7.273
95 P4 231 -7.762
95 P4 232 -6.297
95 P4 233 -3.367
95 P4 234 0.539
95 P4 235 3.469
95 P4 236 4.934
95 P4 237 5.422
95 P4 238 3.957
95 P4 239 1.516
95 P4 240 -1.414
95 P4 241 -4.344
95 P4 242 -6.785
95 P4 243 -8.738
95 P4 244 -9.715
95 P4 245 -9.715
95 P4 246 -9.226
95 P4 247 -7.762
95 P4 248 -6.785
95 P4 249 -4.832
95 P4 250 -2.879
95 P4 251 -1.902
95 P4 252 -1.414
95 P4 253 -0.926
95 P4 254 0.051
95 P4 255 0.539
# PZ chan 24
95 PZ 0 3.591
95 PZ 1 4.567
95 PZ 2 5.056
95 PZ 3 6.521
95 PZ 4 8.474
95 PZ 5 8.962
95 PZ 6 8.962
95 PZ 7 7.009
95 PZ 8 3.591
95 PZ 9 -0.315
95 PZ 10 -4.222
95 PZ 11 -6.175
95 PZ 12 -6.663
95 PZ 13 -5.686
95 PZ 14 -3.733
95 PZ 15 -1.780
95 PZ 16 -0.804
95 PZ 17 -0.804
95 PZ 18 -2.268
95 PZ 19 -4.222
95 PZ 20 -4.710
95 PZ 21 -3.733
95 PZ 22 -1.292
95 PZ 23 2.126
95 PZ 24 5.056
95 PZ 25 6.521
95 PZ 26 7.009
95 PZ 27 6.521
95 PZ 28 6.032
95 PZ 29 6.032
95 PZ 30 7.009
95 PZ 31 7.497
95 PZ 32 7.497
95 PZ 33 5.544
95 PZ 34 2.126
95 PZ 35 -1.780
95 PZ 36 -5.198
95 PZ 37 -7.640
95 PZ 38 -8.616
95 PZ 39 -9.104
95 PZ 40 -8.128
95 PZ 41 -6.663
95 PZ 42 -5.198
95 PZ 43 -4.222
95 PZ 44 -3.733
95 PZ 45 -4.222
95 PZ 46 -4.710
95 PZ 47 -4.710
95 PZ 48 -4.222
95 PZ 49 -3.733
95 PZ 50 -3.733
95 PZ 51 -4.710
95 PZ 52 -6.663
95 PZ 53 -8.128
95 PZ 54 -9.104
95 PZ 55 -8.616
95 PZ 56 -6.175
95 PZ 57 -2.757
95 PZ 58 0.661
95 PZ 59 2.614
95 PZ 60 2.126
95 PZ 61 -0.315
95 PZ 62 -3.733
95 PZ 63 -7.151
95 PZ 64 -8.616
95 PZ 65 -8.616
95 PZ 66 -7.151
95 PZ 67 -5.198
95 PZ 68 -3.245
95 PZ 69 -1.780
95 PZ 70 -0.804
95 PZ 71 0.173
95 PZ 72 0.661
95 PZ 73 0.661
95 PZ 74 -0.315
95 PZ 75 -0.804
95 PZ 76 -2.268
95 PZ 77 -1.780
95 PZ 78 -0.315
95 PZ 79 1.638
95 PZ 80 3.103
95 PZ 81 4.567
95 PZ 82 5.056
95 PZ 83 5.056
95 PZ 84 3.591
95 PZ 85 2.126
95 PZ 86 0.173
95 PZ 87 -1.780
95 PZ 88 -3.733
95 PZ 89 -5.198
95 PZ 90 -7.151
95 PZ 91 -8.128
95 PZ 92 -8.616
95 PZ 93 -8.128
95 PZ 94 -7.151
95 PZ 95 -6.663
95 PZ 96 -5.686
95 PZ 97 -4.222
95 PZ 98 -2.757
95 PZ 99 -1.292
95 PZ 100 0.173
95 PZ 101 0.661
95 PZ 102 0.661
95 PZ 103 -0.315
95 PZ 104 -0.804
95 PZ 105 -0.804
95 PZ 106 0.173
95 PZ 107 1.149
95 PZ 108 1.638
95 PZ 109 1.149
95 PZ 110 0.173
95 PZ 111 -1.292
95 PZ 112 -2.268
95 PZ 113 -2.757
95 PZ 114 -2.268
95 PZ 115 -0.804
95 PZ 116 0.173
95 PZ 117 0.661
95 PZ 118 0.661
95 PZ 119 -0.804
95 PZ 120 -1.780
95 PZ 121 -2.757
95 PZ 122 -3.245
95 PZ 123 -2.757
95 PZ 124 -2.757
95 PZ 125 -2.757
95 PZ 126 -3.245
95 PZ 127 -3.245
95 PZ 128 -3.733
95 PZ 129 -3.245
95 PZ 130 -2.268
95 PZ 131 -2.268
95 PZ 132 -2.268
95 PZ 133 -2.757
95 PZ 134 -2.757
95 PZ 135 -2.268
95 PZ 136 -0.804
95 PZ 137 0.173
95 PZ 138 0.661
95 PZ 139 0.173
95 PZ 140 -1.780
95 PZ 141 -3.245
95 PZ 142 -5.198
95 PZ 143 -6.175
95 PZ 144 -7.151
95 PZ 145 -7.151
95 PZ 146 -6.663
95 PZ 147 -4.710
95 PZ 148 -2.268
95 PZ 149 0.173
95 PZ 150 1.149
95 PZ 151 1.149
95 PZ 152 0.661
95 PZ 153 0.661
95 PZ 154 1.149
95 PZ 155 2.614
95 PZ 156 4.079
95 PZ 157 4.567
95 PZ 158 3.591
95 PZ 159 3.103
95 PZ 160 2.614
95 PZ 161 3.103
95 PZ 162 4.079
95 PZ 163 5.544
95 PZ 164 6.032
95 PZ 165 5.544
95 PZ 166 3.103
95 PZ 167 0.173
95 PZ 168 -2.268
95 PZ 169 -3.245
95 PZ 170 -2.757
95 PZ 171 -0.315
95 PZ 172 2.126
95 PZ 173 3.591
95 PZ 174 4.079
95 PZ 175 3.591
95 PZ 176 2.126
95 PZ 177 0.661
95 PZ 178 -0.315
95 PZ 179 -0.804
95 PZ 180 -0.315
95 PZ 181 1.149
95 PZ 182 2.614
95 PZ 183 3.103
95 PZ 184 2.126
95 PZ 185 0.173
95 PZ 186 -1.780
95 PZ 187 -2.757
95 PZ 188 -2.268
95 PZ 189 -0.315
95 PZ 190 1.638
95 PZ 191 3.103
95 PZ 192 3.103
95 PZ 193 2.126
95 PZ 194 0.661
95 PZ 195 0.173
95 PZ 196 -0.315
95 PZ 197 0.661
95 PZ 198 2.614
95 PZ 199 4.079
95 PZ 200 4.567
95 PZ 201 3.591
95 PZ 202 0.661
95 PZ 203 -2.757
95 PZ 204 -4.222
95 PZ 205 -3.245
95 PZ 206 -0.315
95 PZ 207 3.103
95 PZ 208 5.544
95 PZ 209 6.032
95 PZ 210 5.056
95 PZ 211 3.103
95 PZ 212 2.126
95 PZ 213 2.126
95 PZ 214 3.103
95 PZ 215 4.079
95 PZ 216 5.544
95 PZ 217 6.521
95 PZ 218 7.009
95 PZ 219 6.521
95 PZ 220 5.056
95 PZ 221 3.591
95 PZ 222 2.126
95 PZ 223 2.126
95 PZ 224 3.103
95 PZ 225 4.567
95 PZ 226 5.056
95 PZ 227 4.079
95 PZ 228 1.149
95 PZ 229 -2.757
95 PZ 230 -5.198
95 PZ 231 -6.175
95 PZ 232 -4.222
95 PZ 233 -1.292
95 PZ 234 2.126
95 PZ 235 4.567
95 PZ 236 6.032
95 PZ 237 6.521
95 PZ 238 6.032
95 PZ 239 4.079
95 PZ 240 1.638
95 PZ 241 -0.804
95 PZ 242 -2.757
95 PZ 243 -3.733
95 PZ 244 -4.222
95 PZ 245 -4.710
95 PZ 246 -5.198
95 PZ 247 -5.686
95 PZ 248 -5.686
95 PZ 249 -4.710
95 PZ 250 -2.757
95 PZ 251 -1.292
95 PZ 252 -0.315
95 PZ 253 -0.315
95 PZ 254 -0.315
95 PZ 255 -0.315
# P8 chan 25
95 P8 0 -14.028
95 P8 1 -13.051
95 P8 2 -10.122
95 P8 3 -5.727
95 P8 4 -0.356
95 P8 5 4.527
95 P8 6 7.456
95 P8 7 7.945
95 P8 8 6.480
95 P8 9 4.038
95 P8 10 1.597
95 P8 11 1.109
95 P8 12 1.597
95 P8 13 3.550
95 P8 14 5.992
95 P8 15 8.433
95 P8 16 9.410
95 P8 17 8.921
95 P8 18 6.480
95 P8 19 4.038
95 P8 20 2.574
95 P8 21 2.574
95 P8 22 3.062
95 P8 23 2.085
95 P8 24 -1.821
95 P8 25 -7.680
95 P8 26 -14.516
95 P8 27 -18.911
95 P8 28 -20.376
95 P8 29 -18.422
95 P8 30 -14.516
95 P8 31 -11.098
95 P8 32 -9.633
95 P8 33 -10.610
95 P8 34 -13.051
95 P8 35 -15.981
95 P8 36 -17.446
95 P8 37 -17.446
95 P8 38 -15.981
95 P8 39 -13.540
95 P8 40 -9.633
95 P8 41 -6.215
95 P8 42 -3.774
95 P8 43 -3.286
95 P8 44 -5.727
95 P8 45 -9.145
95 P8 46 -12.563
95 P8 47 -14.516
95 P8 48 -15.004
95 P8 49 -15.004
95 P8 50 -15.981
95 P8 51 -17.934
95 P8 52 -19.887
95 P8 53 -21.840
95 P8 54 -21.840
95 P8 55 -19.399
95 P8 56 -16.469
95 P8 57 -12.075
95 P8 58 -8.169
95 P8 59 -4.751
95 P8 60 -1.821
95 P8 61 -0.356
95 P8 62 0.132
95 P8 63 0.132
95 P8 64 1.109
95 P8 65 3.550
95 P8 66 6.968
95 P8 67 9.898
95 P8 68 12.339
95 P8 69 11.851
95 P8 70 9.898
95 P8 71 7.945
95 P8 72 5.992
95 P8 73 4.527
95 P8 74 3.062
95 P8 75 0.621
95 P8 76 -2.309
95 P8 77 -4.262
95 P8 78 -3.774
95 P8 79 -1.821
95 P8 80 1.109
95 P8 81 2.574
95 P8 82 2.085
95 P8 83 1.109
95 P8 84 -0.356
95 P8 85 -1.821
95 P8 86 -2.309
95 P8 87 -2.797
95 P8 88 -3.286
95 P8 89 -3.286
95 P8 90 -2.797
95 P8 91 -1.333
95 P8 92 -0.356
95 P8 93 0.621
95 P8 94 -0.356
95 P8 95 -1.333
95 P8 96 -3.286
95 P8 97 -3.774
95 P8 98 -3.774
95 P8 99 -3.286
95 P8 100 -2.309
95 P8 101 -2.309
95 P8 102 -2.309
95 P8 103 -3.286
95 P8 104 -3.774
95 P8 105 -4.262
95 P8 106 -3.774
95 P8 107 -2.797
95 P8 108 -2.797
95 P8 109 -3.774
95 P8 110 -5.727
95 P8 111 -7.680
95 P8 112 -8.169
95 P8 113 -6.215
95 P8 114 -1.821
95 P8 115 2.574
95 P8 116 5.503
95 P8 117 6.480
95 P8 118 4.527
95 P8 119 0.621
95 P8 120 -3.286
95 P8 121 -6.704
95 P8 122 -8.657
95 P8 123 -9.633
95 P8 124 -8.657
95 P8 125 -7.680
95 P8 126 -6.215
95 P8 127 -5.239
95 P8 128 -5.727
95 P8 129 -6.215
95 P8 130 -7.192
95 P8 131 -7.192
95 P8 132 -6.215
95 P8 133 -5.727
95 P8 134 -5.239
95 P8 135 -4.751
95 P8 136 -3.774
95 P8 137 -2.309
95 P8 138 -1.333
95 P8 139 -0.356
95 P8 140 -0.356
95 P8 141 -1.821
95 P8 142 -4.262
95 P8 143 -6.215
95 P8 144 -7.680
95 P8 145 -8.169
95 P8 146 -7.680
95 P8 147 -6.215
95 P8 148 -4.751
95 P8 149 -4.262
95 P8 150 -4.751
95 P8 151 -6.215
95 P8 152 -7.192
95 P8 153 -7.192
95 P8 154 -5.239
95 P8 155 -1.821
95 P8 156 0.621
95 P8 157 2.085
95 P8 158 2.085
95 P8 159 1.597
95 P8 160 1.109
95 P8 161 1.597
95 P8 162 4.038
95 P8 163 6.480
95 P8 164 8.433
95 P8 165 7.456
95 P8 166 4.527
95 P8 167 0.132
95 P8 168 -4.262
95 P8 169 -7.192
95 P8 170 -8.169
95 P8 171 -7.680
95 P8 172 -6.704
95 P8 173 -6.215
95 P8 174 -6.704
95 P8 175 -8.169
95 P8 176 -9.145
95 P8 177 -9.633
95 P8 178 -9.145
95 P8 179 -7.680
95 P8 180 -6.215
95 P8 181 -4.751
95 P8 182 -3.286
95 P8 183 -2.309
95 P8 184 -1.821
95 P8 185 -2.309
95 P8 186 -1.333
95 P8 187 -0.356
95 P8 188 1.109
95 P8 189 2.574
95 P8 190 3.062
95 P8 191 2.574
95 P8 192 0.621
95 P8 193 -2.309
95 P8 194 -4.751
95 P8 195 -6.215
95 P8 196 -5.239
95 P8 197 -1.821
95 P8 198 3.062
95 P8 199 6.968
95 P8 200 8.433
95 P8 201 6.480
95 P8 202 2.574
95 P8 203 -1.333
95 P8 204 -2.797
95 P8 205 -0.844
95 P8 206 3.550
95 P8 207 8.921
95 P8 208 12.339
95 P8 209 13.804
95 P8 210 12.339
95 P8 211 9.410
95 P8 212 5.992
95 P8 213 3.550
95 P8 214 2.085
95 P8 215 2.574
95 P8 216 3.550
95 P8 217 4.527
95 P8 218 4.038
95 P8 219 2.574
95 P8 220 0.621
95 P8 221 -0.356
95 P8 222 1.109
95 P8 223 3.550
95 P8 224 6.480
95 P8 225 8.433
95 P8 226 8.433
95 P8 227 5.503
95 P8 228 1.597
95 P8 229 -3.286
95 P8 230 -6.704
95 P8 231 -8.657
95 P8 232 -7.192
95 P8 233 -3.774
95 P8 234 1.109
95 P8 235 5.503
95 P8 236 8.433
95 P8 237 9.410
95 P8 238 7.456
95 P8 239 3.550
95 P8 240 -1.821
95 P8 241 -7.192
95 P8 242 -12.563
95 P8 243 -16.469
95 P8 244 -18.911
95 P8 245 -18.911
95 P8 246 -15.981
95 P8 247 -11.098
95 P8 248 -5.239
95 P8 249 0.132
95 P8 250 3.550
95 P8 251 5.015
95 P8 252 5.503
95 P8 253 6.480
95 P8 254 6.968
95 P8 255 7.456
# P7 chan 26
95 P7 0 -4.883
95 P7 1 -0.488
95 P7 2 3.906
95 P7 3 6.836
95 P7 4 7.324
95 P7 5 6.348
95 P7 6 3.906
95 P7 7 1.953
95 P7 8 0.000
95 P7 9 -0.488
95 P7 10 -0.977
95 P7 11 -1.465
95 P7 12 -1.465
95 P7 13 -1.953
95 P7 14 -0.488
95 P7 15 0.977
95 P7 16 2.930
95 P7 17 3.906
95 P7 18 3.418
95 P7 19 0.977
95 P7 20 -2.930
95 P7 21 -5.859
95 P7 22 -7.324
95 P7 23 -5.859
95 P7 24 -2.441
95 P7 25 1.465
95 P7 26 3.906
95 P7 27 4.395
95 P7 28 2.930
95 P7 29 0.488
95 P7 30 -1.953
95 P7 31 -3.418
95 P7 32 -4.395
95 P7 33 -5.371
95 P7 34 -7.324
95 P7 35 -9.766
95 P7 36 -11.719
95 P7 37 -12.207
95 P7 38 -11.230
95 P7 39 -9.277
95 P7 40 -8.301
95 P7 41 -7.324
95 P7 42 -7.324
95 P7 43 -7.324
95 P7 44 -8.301
95 P7 45 -8.789
95 P7 46 -9.277
95 P7 47 -10.742
95 P7 48 -12.207
95 P7 49 -14.160
95 P7 50 -16.602
95 P7 51 -18.555
95 P7 52 -20.508
95 P7 53 -21.484
95 P7 54 -21.484
95 P7 55 -20.020
95 P7 56 -17.578
95 P7 57 -13.672
95 P7 58 -9.277
95 P7 59 -5.371
95 P7 60 -2.930
95 P7 61 -1.465
95 P7 62 -1.465
95 P7 63 -0.977
95 P7 64 0.977
95 P7 65 4.395
95 P7 66 8.301
95 P7 67 11.230
95 P7 68 12.695
95 P7 69 12.695
95 P7 70 12.207
95 P7 71 11.230
95 P7 72 10.742
95 P7 73 10.254
95 P7 74 8.789
95 P7 75 6.348
95 P7 76 2.930
95 P7 77 0.000
95 P7 78 -1.465
95 P7 79 -1.953
95 P7 80 -0.977
95 P7 81 0.000
95 P7 82 0.488
95 P7 83 -0.488
95 P7 84 -1.953
95 P7 85 -3.418
95 P7 86 -3.906
95 P7 87 -4.395
95 P7 88 -3.906
95 P7 89 -3.418
95 P7 90 -2.930
95 P7 91 -2.441
95 P7 92 -0.977
95 P7 93 0.000
95 P7 94 0.977
95 P7 95 0.977
95 P7 96 0.488
95 P7 97 -0.977
95 P7 98 -2.930
95 P7 99 -3.906
95 P7 100 -4.395
95 P7 101 -4.395
95 P7 102 -3.906
95 P7 103 -3.906
95 P7 104 -4.883
95 P7 105 -5.859
95 P7 106 -5.371
95 P7 107 -3.418
95 P7 108 0.488
95 P7 109 3.418
95 P7 110 4.883
95 P7 111 3.418
95 P7 112 0.488
95 P7 113 -2.441
95 P7 114 -3.906
95 P7 115 -3.906
95 P7 116 -2.930
95 P7 117 -1.465
95 P7 118 -0.977
95 P7 119 -1.953
95 P7 120 -3.418
95 P7 121 -4.395
95 P7 122 -5.371
95 P7 123 -5.859
95 P7 124 -6.836
95 P7 125 -7.324
95 P7 126 -8.301
95 P7 127 -8.789
95 P7 128 -8.301
95 P7 129 -8.301
95 P7 130 -8.301
95 P7 131 -9.277
95 P7 132 -10.742
95 P7 133 -11.230
95 P7 134 -10.742
95 P7 135 -9.766
95 P7 136 -8.301
95 P7 137 -7.324
95 P7 138 -6.836
95 P7 139 -6.836
95 P7 140 -6.836
95 P7 141 -7.324
95 P7 142 -8.301
95 P7 143 -9.766
95 P7 144 -11.230
95 P7 145 -12.207
95 P7 146 -11.719
95 P7 147 -10.254
95 P7 148 -7.812
95 P7 149 -5.859
95 P7 150 -6.348
95 P7 151 -8.789
95 P7 152 -10.742
95 P7 153 -12.207
95 P7 154 -11.230
95 P7 155 -8.789
95 P7 156 -7.324
95 P7 157 -6.836
95 P7 158 -7.812
95 P7 159 -8.301
95 P7 160 -7.324
95 P7 161 -4.883
95 P7 162 -0.488
95 P7 163 2.930
95 P7 164 5.371
95 P7 165 4.883
95 P7 166 2.441
95 P7 167 -1.465
95 P7 168 -4.395
95 P7 169 -5.859
95 P7 170 -5.371
95 P7 171 -4.395
95 P7 172 -2.930
95 P7 173 -2.441
95 P7 174 -2.441
95 P7 175 -3.418
95 P7 176 -3.906
95 P7 177 -5.371
95 P7 178 -6.348
95 P7 179 -7.324
95 P7 180 -7.324
95 P7 181 -5.859
95 P7 182 -2.930
95 P7 183 -0.488
95 P7 184 0.000
95 P7 185 -1.465
95 P7 186 -4.395
95 P7 187 -6.836
95 P7 188 -7.324
95 P7 189 -6.348
95 P7 190 -4.395
95 P7 191 -1.953
95 P7 192 -0.488
95 P7 193 0.000
95 P7 194 0.488
95 P7 195 0.977
95 P7 196 1.465
95 P7 197 1.953
95 P7 198 2.930
95 P7 199 3.906
95 P7 200 4.883
95 P7 201 4.883
95 P7 202 3.418
95 P7 203 1.465
95 P7 204 0.000
95 P7 205 0.488
95 P7 206 3.418
95 P7 207 7.324
95 P7 208 9.766
95 P7 209 10.254
95 P7 210 8.301
95 P7 211 5.371
95 P7 212 1.953
95 P7 213 -0.488
95 P7 214 -1.953
95 P7 215 -3.418
95 P7 216 -3.906
95 P7 217 -4.395
95 P7 218 -3.906
95 P7 219 -4.395
95 P7 220 -4.395
95 P7 221 -4.395
95 P7 222 -3.418
95 P7 223 -0.977
95 P7 224 2.441
95 P7 225 5.859
95 P7 226 6.836
95 P7 227 4.395
95 P7 228 -0.488
95 P7 229 -6.348
95 P7 230 -10.254
95 P7 231 -11.230
95 P7 232 -10.254
95 P7 233 -7.324
95 P7 234 -4.395
95 P7 235 -1.465
95 P7 236 0.977
95 P7 237 3.418
95 P7 238 3.906
95 P7 239 1.953
95 P7 240 -2.930
95 P7 241 -9.277
95 P7 242 -14.648
95 P7 243 -17.090
95 P7 244 -17.090
95 P7 245 -15.137
95 P7 246 -13.184
95 P7 247 -11.230
95 P7 248 -8.789
95 P7 249 -5.371
95 P7 250 -0.977
95 P7 251 2.930
95 P7 252 4.395
95 P7 253 3.906
95 P7 254 1.953
95 P7 255 0.000
# PO2 chan 27
95 PO2 0 -2.553
95 PO2 1 -1.577
95 PO2 2 0.376
95 PO2 3 2.818
95 PO2 4 6.236
95 PO2 5 9.165
95 PO2 6 10.630
95 PO2 7 9.654
95 PO2 8 6.236
95 PO2 9 1.841
95 PO2 10 -2.553
95 PO2 11 -4.506
95 PO2 12 -4.506
95 PO2 13 -3.042
95 PO2 14 -0.600
95 PO2 15 1.841
95 PO2 16 2.818
95 PO2 17 1.841
95 PO2 18 -0.112
95 PO2 19 -2.553
95 PO2 20 -3.530
95 PO2 21 -3.042
95 PO2 22 -1.088
95 PO2 23 0.376
95 PO2 24 0.865
95 PO2 25 -0.600
95 PO2 26 -2.553
95 PO2 27 -3.530
95 PO2 28 -3.042
95 PO2 29 -1.088
95 PO2 30 1.841
95 PO2 31 3.794
95 PO2 32 3.306
95 PO2 33 0.376
95 PO2 34 -4.018
95 PO2 35 -8.901
95 PO2 36 -12.319
95 PO2 37 -14.760
95 PO2 38 -15.249
95 PO2 39 -14.272
95 PO2 40 -11.831
95 PO2 41 -8.901
95 PO2 42 -5.971
95 PO2 43 -4.506
95 PO2 44 -5.483
95 PO2 45 -7.436
95 PO2 46 -10.366
95 PO2 47 -12.319
95 PO2 48 -13.295
95 PO2 49 -13.784
95 PO2 50 -14.760
95 PO2 51 -17.202
95 PO2 52 -20.131
95 PO2 53 -22.573
95 PO2 54 -23.549
95 PO2 55 -21.596
95 PO2 56 -18.178
95 PO2 57 -13.295
95 PO2 58 -8.901
95 PO2 59 -5.971
95 PO2 60 -5.483
95 PO2 61 -6.948
95 PO2 62 -9.389
95 PO2 63 -11.831
95 PO2 64 -13.295
95 PO2 65 -12.319
95 PO2 66 -9.878
95 PO2 67 -6.948
95 PO2 68 -4.506
95 PO2 69 -2.553
95 PO2 70 -1.577
95 PO2 71 -1.088
95 PO2 72 -1.577
95 PO2 73 -2.553
95 PO2 74 -4.506
95 PO2 75 -6.948
95 PO2 76 -8.413
95 PO2 77 -9.389
95 PO2 78 -8.413
95 PO2 79 -6.460
95 PO2 80 -4.018
95 PO2 81 -2.065
95 PO2 82 -1.577
95 PO2 83 -2.065
95 PO2 84 -4.018
95 PO2 85 -5.971
95 PO2 86 -6.948
95 PO2 87 -7.924
95 PO2 88 -8.901
95 PO2 89 -9.389
95 PO2 90 -9.878
95 PO2 91 -10.854
95 PO2 92 -10.854
95 PO2 93 -10.854
95 PO2 94 -10.366
95 PO2 95 -10.366
95 PO2 96 -10.366
95 PO2 97 -9.878
95 PO2 98 -9.389
95 PO2 99 -8.413
95 PO2 100 -7.436
95 PO2 101 -7.436
95 PO2 102 -7.924
95 PO2 103 -8.413
95 PO2 104 -8.901
95 PO2 105 -8.413
95 PO2 106 -6.948
95 PO2 107 -6.460
95 PO2 108 -5.971
95 PO2 109 -6.948
95 PO2 110 -8.901
95 PO2 111 -10.366
95 PO2 112 -10.854
95 PO2 113 -9.878
95 PO2 114 -7.436
95 PO2 115 -4.995
95 PO2 116 -2.553
95 PO2 117 -1.577
95 PO2 118 -1.577
95 PO2 119 -3.042
95 PO2 120 -5.483
95 PO2 121 -8.413
95 PO2 122 -10.366
95 PO2 123 -11.342
95 PO2 124 -11.342
95 PO2 125 -10.366
95 PO2 126 -10.366
95 PO2 127 -10.854
95 PO2 128 -10.854
95 PO2 129 -10.854
95 PO2 130 -10.366
95 PO2 131 -10.366
95 PO2 132 -9.878
95 PO2 133 -9.878
95 PO2 134 -9.389
95 PO2 135 -7.924
95 PO2 136 -5.971
95 PO2 137 -3.530
95 PO2 138 -1.577
95 PO2 139 -2.065
95 PO2 140 -4.018
95 PO2 141 -7.436
95 PO2 142 -10.366
95 PO2 143 -12.807
95 PO2 144 -14.272
95 PO2 145 -14.760
95 PO2 146 -13.295
95 PO2 147 -10.366
95 PO2 148 -6.948
95 PO2 149 -4.506
95 PO2 150 -4.018
95 PO2 151 -4.995
95 PO2 152 -6.460
95 PO2 153 -6.460
95 PO2 154 -5.483
95 PO2 155 -3.530
95 PO2 156 -1.088
95 PO2 157 0.865
95 PO2 158 0.865
95 PO2 159 0.376
95 PO2 160 -0.112
95 PO2 161 -0.112
95 PO2 162 0.865
95 PO2 163 2.818
95 PO2 164 4.283
95 PO2 165 3.794
95 PO2 166 0.865
95 PO2 167 -3.530
95 PO2 168 -7.436
95 PO2 169 -9.878
95 PO2 170 -9.878
95 PO2 171 -7.436
95 PO2 172 -4.018
95 PO2 173 -1.577
95 PO2 174 -0.600
95 PO2 175 -1.577
95 PO2 176 -3.042
95 PO2 177 -4.995
95 PO2 178 -6.460
95 PO2 179 -6.948
95 PO2 180 -6.460
95 PO2 181 -4.506
95 PO2 182 -3.042
95 PO2 183 -2.065
95 PO2 184 -2.065
95 PO2 185 -3.530
95 PO2 186 -4.506
95 PO2 187 -4.995
95 PO2 188 -3.530
95 PO2 189 -0.600
95 PO2 190 1.353
95 PO2 191 2.330
95 PO2 192 0.865
95 PO2 193 -1.577
95 PO2 194 -3.530
95 PO2 195 -4.995
95 PO2 196 -4.506
95 PO2 197 -2.065
95 PO2 198 0.865
95 PO2 199 3.306
95 PO2 200 3.306
95 PO2 201 1.353
95 PO2 202 -3.042
95 PO2 203 -7.436
95 PO2 204 -9.878
95 PO2 205 -9.389
95 PO2 206 -4.995
95 PO2 207 0.865
95 PO2 208 5.259
95 PO2 209 7.701
95 PO2 210 7.701
95 PO2 211 5.747
95 PO2 212 3.306
95 PO2 213 2.330
95 PO2 214 2.330
95 PO2 215 3.794
95 PO2 216 5.259
95 PO2 217 6.236
95 PO2 218 5.747
95 PO2 219 4.283
95 PO2 220 2.330
95 PO2 221 -0.112
95 PO2 222 -1.088
95 PO2 223 -0.600
95 PO2 224 0.376
95 PO2 225 2.330
95 PO2 226 2.818
95 PO2 227 0.376
95 PO2 228 -3.530
95 PO2 229 -7.924
95 PO2 230 -11.342
95 PO2 231 -11.831
95 PO2 232 -9.389
95 PO2 233 -4.506
95 PO2 234 -0.112
95 PO2 235 3.794
95 PO2 236 5.747
95 PO2 237 6.724
95 PO2 238 5.747
95 PO2 239 3.794
95 PO2 240 0.376
95 PO2 241 -3.530
95 PO2 242 -7.924
95 PO2 243 -11.342
95 PO2 244 -13.295
95 PO2 245 -14.272
95 PO2 246 -14.272
95 PO2 247 -12.807
95 PO2 248 -10.854
95 PO2 249 -7.436
95 PO2 250 -4.506
95 PO2 251 -1.577
95 PO2 252 -0.112
95 PO2 253 -0.112
95 PO2 254 0.376
95 PO2 255 0.865
# PO1 chan 28
95 PO1 0 -2.441
95 PO1 1 0.977
95 PO1 2 3.906
95 PO1 3 6.348
95 PO1 4 8.301
95 PO1 5 9.277
95 PO1 6 8.789
95 PO1 7 6.836
95 PO1 8 3.906
95 PO1 9 0.488
95 PO1 10 -2.441
95 PO1 11 -4.883
95 PO1 12 -5.859
95 PO1 13 -5.371
95 PO1 14 -3.906
