# co2a0000417.rd
# 120 trials, 64 chans, 416 samples 368 post_stim samples
# 3.906000 msecs uV
# S2 match , trial 101
# FP1 chan 0
101 FP1 0 -12.054
101 FP1 1 -12.543
101 FP1 2 -11.078
101 FP1 3 -10.101
101 FP1 4 -10.101
101 FP1 5 -10.590
101 FP1 6 -10.590
101 FP1 7 -8.636
101 FP1 8 -4.730
101 FP1 9 -1.312
101 FP1 10 0.641
101 FP1 11 0.153
101 FP1 12 -1.312
101 FP1 13 -2.777
101 FP1 14 -2.777
101 FP1 15 -2.289
101 FP1 16 -2.289
101 FP1 17 -2.777
101 FP1 18 -3.754
101 FP1 19 -3.754
101 FP1 20 -2.777
101 FP1 21 -1.801
101 FP1 22 -0.824
101 FP1 23 -1.312
101 FP1 24 -2.777
101 FP1 25 -4.730
101 FP1 26 -5.707
101 FP1 27 -5.707
101 FP1 28 -4.242
101 FP1 29 -3.754
101 FP1 30 -4.242
101 FP1 31 -6.683
101 FP1 32 -9.613
101 FP1 33 -11.078
101 FP1 34 -11.078
101 FP1 35 -10.101
101 FP1 36 -9.125
101 FP1 37 -9.125
101 FP1 38 -10.101
101 FP1 39 -11.566
101 FP1 40 -11.078
101 FP1 41 -9.613
101 FP1 42 -7.660
101 FP1 43 -5.707
101 FP1 44 -5.219
101 FP1 45 -5.707
101 FP1 46 -6.195
101 FP1 47 -5.707
101 FP1 48 -3.754
101 FP1 49 -0.824
101 FP1 50 1.129
101 FP1 51 2.106
101 FP1 52 1.617
101 FP1 53 0.153
101 FP1 54 -1.312
101 FP1 55 -2.777
101 FP1 56 -4.242
101 FP1 57 -5.707
101 FP1 58 -6.683
101 FP1 59 -8.148
101 FP1 60 -8.636
101 FP1 61 -9.613
101 FP1 62 -11.078
101 FP1 63 -13.031
101 FP1 64 -15.472
101 FP1 65 -16.937
101 FP1 66 -17.426
101 FP1 67 -17.426
101 FP1 68 -17.914
101 FP1 69 -19.867
101 FP1 70 -23.285
101 FP1 71 -26.703
101 FP1 72 -28.168
101 FP1 73 -27.679
101 FP1 74 -25.726
101 FP1 75 -23.285
101 FP1 76 -21.332
101 FP1 77 -20.355
101 FP1 78 -19.379
101 FP1 79 -18.890
101 FP1 80 -19.867
101 FP1 81 -21.332
101 FP1 82 -22.308
101 FP1 83 -22.308
101 FP1 84 -19.867
101 FP1 85 -16.937
101 FP1 86 -14.984
101 FP1 87 -14.984
101 FP1 88 -17.426
101 FP1 89 -19.379
101 FP1 90 -20.355
101 FP1 91 -18.890
101 FP1 92 -15.961
101 FP1 93 -13.031
101 FP1 94 -11.078
101 FP1 95 -11.078
101 FP1 96 -11.566
101 FP1 97 -12.543
101 FP1 98 -13.031
101 FP1 99 -14.008
101 FP1 100 -15.472
101 FP1 101 -16.937
101 FP1 102 -18.402
101 FP1 103 -18.890
101 FP1 104 -19.379
101 FP1 105 -18.890
101 FP1 106 -19.379
101 FP1 107 -19.867
101 FP1 108 -20.355
101 FP1 109 -20.844
101 FP1 110 -20.844
101 FP1 111 -19.867
101 FP1 112 -18.890
101 FP1 113 -18.890
101 FP1 114 -19.867
101 FP1 115 -20.844
101 FP1 116 -20.355
101 FP1 117 -19.379
101 FP1 118 -17.426
101 FP1 119 -15.961
101 FP1 120 -15.961
101 FP1 121 -15.961
101 FP1 122 -15.961
101 FP1 123 -14.496
101 FP1 124 -12.054
101 FP1 125 -11.078
101 FP1 126 -12.054
101 FP1 127 -14.984
101 FP1 128 -17.426
101 FP1 129 -18.890
101 FP1 130 -18.402
101 FP1 131 -16.937
101 FP1 132 -15.472
101 FP1 133 -15.472
101 FP1 134 -15.472
101 FP1 135 -15.961
101 FP1 136 -15.472
101 FP1 137 -15.472
101 FP1 138 -16.937
101 FP1 139 -18.890
101 FP1 140 -20.844
101 FP1 141 -21.820
101 FP1 142 -20.844
101 FP1 143 -18.890
101 FP1 144 -16.937
101 FP1 145 -15.961
101 FP1 146 -15.961
101 FP1 147 -16.449
101 FP1 148 -16.449
101 FP1 149 -15.472
101 FP1 150 -14.496
101 FP1 151 -13.031
101 FP1 152 -12.054
101 FP1 153 -11.078
101 FP1 154 -10.101
101 FP1 155 -10.101
101 FP1 156 -10.101
101 FP1 157 -11.566
101 FP1 158 -12.543
101 FP1 159 -13.519
101 FP1 160 -14.008
101 FP1 161 -14.496
101 FP1 162 -14.496
101 FP1 163 -14.496
101 FP1 164 -14.008
101 FP1 165 -13.031
101 FP1 166 -12.543
101 FP1 167 -12.054
101 FP1 168 -12.543
101 FP1 169 -13.031
101 FP1 170 -13.031
101 FP1 171 -12.543
101 FP1 172 -12.543
101 FP1 173 -13.031
101 FP1 174 -14.008
101 FP1 175 -14.984
101 FP1 176 -14.984
101 FP1 177 -14.008
101 FP1 178 -13.519
101 FP1 179 -13.519
101 FP1 180 -14.496
101 FP1 181 -15.472
101 FP1 182 -15.472
101 FP1 183 -14.008
101 FP1 184 -12.543
101 FP1 185 -11.566
101 FP1 186 -11.566
101 FP1 187 -11.566
101 FP1 188 -11.078
101 FP1 189 -9.613
101 FP1 190 -8.636
101 FP1 191 -8.636
101 FP1 192 -10.590
101 FP1 193 -13.519
101 FP1 194 -15.961
101 FP1 195 -16.937
101 FP1 196 -16.937
101 FP1 197 -16.937
101 FP1 198 -17.426
101 FP1 199 -18.890
101 FP1 200 -19.867
101 FP1 201 -19.867
101 FP1 202 -18.402
101 FP1 203 -16.449
101 FP1 204 -15.472
101 FP1 205 -15.472
101 FP1 206 -16.449
101 FP1 207 -17.426
101 FP1 208 -17.426
101 FP1 209 -16.937
101 FP1 210 -16.937
101 FP1 211 -17.914
101 FP1 212 -20.355
101 FP1 213 -23.285
101 FP1 214 -26.215
101 FP1 215 -29.144
101 FP1 216 -31.586
101 FP1 217 -33.051
101 FP1 218 -32.562
101 FP1 219 -29.144
101 FP1 220 -24.261
101 FP1 221 -18.402
101 FP1 222 -14.984
101 FP1 223 -14.984
101 FP1 224 -17.914
101 FP1 225 -21.332
101 FP1 226 -22.797
101 FP1 227 -21.332
101 FP1 228 -18.890
101 FP1 229 -17.426
101 FP1 230 -17.426
101 FP1 231 -18.402
101 FP1 232 -18.890
101 FP1 233 -18.402
101 FP1 234 -17.914
101 FP1 235 -17.914
101 FP1 236 -19.867
101 FP1 237 -21.820
101 FP1 238 -22.797
101 FP1 239 -21.820
101 FP1 240 -19.379
101 FP1 241 -17.426
101 FP1 242 -16.937
101 FP1 243 -18.402
101 FP1 244 -20.355
101 FP1 245 -21.820
101 FP1 246 -22.308
101 FP1 247 -21.332
101 FP1 248 -20.844
101 FP1 249 -20.844
101 FP1 250 -20.844
101 FP1 251 -21.820
101 FP1 252 -22.308
101 FP1 253 -22.797
101 FP1 254 -23.285
101 FP1 255 -23.285
# FP2 chan 1
101 FP2 0 -11.363
101 FP2 1 -10.874
101 FP2 2 -9.410
101 FP2 3 -8.433
101 FP2 4 -9.410
101 FP2 5 -11.851
101 FP2 6 -13.316
101 FP2 7 -11.851
101 FP2 8 -8.433
101 FP2 9 -4.527
101 FP2 10 -2.085
101 FP2 11 -1.597
101 FP2 12 -2.574
101 FP2 13 -2.574
101 FP2 14 -1.597
101 FP2 15 -0.621
101 FP2 16 -0.621
101 FP2 17 -2.574
101 FP2 18 -5.503
101 FP2 19 -5.992
101 FP2 20 -5.015
101 FP2 21 -1.597
101 FP2 22 0.844
101 FP2 23 1.333
101 FP2 24 -0.132
101 FP2 25 -2.574
101 FP2 26 -4.038
101 FP2 27 -4.527
101 FP2 28 -4.527
101 FP2 29 -5.503
101 FP2 30 -6.968
101 FP2 31 -8.921
101 FP2 32 -10.874
101 FP2 33 -11.363
101 FP2 34 -11.363
101 FP2 35 -10.874
101 FP2 36 -10.386
101 FP2 37 -9.898
101 FP2 38 -8.921
101 FP2 39 -8.921
101 FP2 40 -8.921
101 FP2 41 -8.921
101 FP2 42 -8.921
101 FP2 43 -7.945
101 FP2 44 -5.992
101 FP2 45 -4.038
101 FP2 46 -3.550
101 FP2 47 -4.038
101 FP2 48 -4.527
101 FP2 49 -4.038
101 FP2 50 -2.085
101 FP2 51 -0.132
101 FP2 52 0.356
101 FP2 53 -0.621
101 FP2 54 -2.574
101 FP2 55 -3.550
101 FP2 56 -3.550
101 FP2 57 -3.062
101 FP2 58 -4.038
101 FP2 59 -5.503
101 FP2 60 -7.456
101 FP2 61 -8.921
101 FP2 62 -9.898
101 FP2 63 -10.874
101 FP2 64 -13.316
101 FP2 65 -16.246
101 FP2 66 -18.687
101 FP2 67 -19.175
101 FP2 68 -18.199
101 FP2 69 -17.710
101 FP2 70 -19.663
101 FP2 71 -23.081
101 FP2 72 -27.476
101 FP2 73 -29.917
101 FP2 74 -28.941
101 FP2 75 -26.011
101 FP2 76 -22.105
101 FP2 77 -19.175
101 FP2 78 -18.199
101 FP2 79 -18.687
101 FP2 80 -19.663
101 FP2 81 -20.640
101 FP2 82 -20.152
101 FP2 83 -19.175
101 FP2 84 -17.710
101 FP2 85 -16.734
101 FP2 86 -16.734
101 FP2 87 -16.734
101 FP2 88 -17.222
101 FP2 89 -16.734
101 FP2 90 -15.757
101 FP2 91 -13.804
101 FP2 92 -11.363
101 FP2 93 -9.410
101 FP2 94 -7.945
101 FP2 95 -7.945
101 FP2 96 -8.921
101 FP2 97 -10.386
101 FP2 98 -11.851
101 FP2 99 -13.316
101 FP2 100 -14.292
101 FP2 101 -15.269
101 FP2 102 -15.269
101 FP2 103 -15.269
101 FP2 104 -15.757
101 FP2 105 -16.246
101 FP2 106 -17.222
101 FP2 107 -18.199
101 FP2 108 -18.199
101 FP2 109 -17.710
101 FP2 110 -16.734
101 FP2 111 -16.246
101 FP2 112 -16.734
101 FP2 113 -17.710
101 FP2 114 -18.199
101 FP2 115 -18.199
101 FP2 116 -17.222
101 FP2 117 -15.757
101 FP2 118 -15.269
101 FP2 119 -15.269
101 FP2 120 -14.781
101 FP2 121 -13.804
101 FP2 122 -11.363
101 FP2 123 -8.433
101 FP2 124 -6.480
101 FP2 125 -5.992
101 FP2 126 -7.456
101 FP2 127 -9.898
101 FP2 128 -12.339
101 FP2 129 -14.781
101 FP2 130 -15.757
101 FP2 131 -15.757
101 FP2 132 -14.781
101 FP2 133 -13.316
101 FP2 134 -11.851
101 FP2 135 -11.851
101 FP2 136 -12.828
101 FP2 137 -14.781
101 FP2 138 -16.734
101 FP2 139 -17.222
101 FP2 140 -17.222
101 FP2 141 -16.734
101 FP2 142 -15.269
101 FP2 143 -14.292
101 FP2 144 -13.804
101 FP2 145 -13.316
101 FP2 146 -13.316
101 FP2 147 -13.316
101 FP2 148 -12.828
101 FP2 149 -11.851
101 FP2 150 -11.363
101 FP2 151 -10.386
101 FP2 152 -10.386
101 FP2 153 -10.386
101 FP2 154 -10.874
101 FP2 155 -10.874
101 FP2 156 -10.386
101 FP2 157 -9.898
101 FP2 158 -9.898
101 FP2 159 -10.386
101 FP2 160 -11.363
101 FP2 161 -11.851
101 FP2 162 -12.339
101 FP2 163 -11.851
101 FP2 164 -10.874
101 FP2 165 -10.386
101 FP2 166 -9.898
101 FP2 167 -10.386
101 FP2 168 -10.874
101 FP2 169 -10.386
101 FP2 170 -9.898
101 FP2 171 -8.921
101 FP2 172 -8.433
101 FP2 173 -8.921
101 FP2 174 -9.898
101 FP2 175 -10.386
101 FP2 176 -9.898
101 FP2 177 -8.433
101 FP2 178 -7.456
101 FP2 179 -7.456
101 FP2 180 -9.410
101 FP2 181 -11.851
101 FP2 182 -13.316
101 FP2 183 -13.316
101 FP2 184 -11.851
101 FP2 185 -10.386
101 FP2 186 -9.410
101 FP2 187 -8.433
101 FP2 188 -7.945
101 FP2 189 -6.968
101 FP2 190 -5.503
101 FP2 191 -4.527
101 FP2 192 -5.015
101 FP2 193 -7.945
101 FP2 194 -10.874
101 FP2 195 -13.316
101 FP2 196 -14.292
101 FP2 197 -14.781
101 FP2 198 -14.781
101 FP2 199 -15.269
101 FP2 200 -15.757
101 FP2 201 -14.781
101 FP2 202 -13.316
101 FP2 203 -11.851
101 FP2 204 -11.851
101 FP2 205 -13.316
101 FP2 206 -15.757
101 FP2 207 -17.710
101 FP2 208 -17.710
101 FP2 209 -16.246
101 FP2 210 -15.269
101 FP2 211 -15.269
101 FP2 212 -17.222
101 FP2 213 -19.663
101 FP2 214 -21.128
101 FP2 215 -23.081
101 FP2 216 -25.523
101 FP2 217 -27.964
101 FP2 218 -29.917
101 FP2 219 -28.941
101 FP2 220 -25.035
101 FP2 221 -18.687
101 FP2 222 -13.804
101 FP2 223 -12.828
101 FP2 224 -15.269
101 FP2 225 -19.175
101 FP2 226 -21.617
101 FP2 227 -20.152
101 FP2 228 -17.710
101 FP2 229 -15.269
101 FP2 230 -15.269
101 FP2 231 -16.734
101 FP2 232 -17.710
101 FP2 233 -16.734
101 FP2 234 -14.781
101 FP2 235 -14.292
101 FP2 236 -15.757
101 FP2 237 -18.199
101 FP2 238 -20.152
101 FP2 239 -18.687
101 FP2 240 -15.757
101 FP2 241 -13.316
101 FP2 242 -12.828
101 FP2 243 -14.292
101 FP2 244 -16.734
101 FP2 245 -18.687
101 FP2 246 -18.687
101 FP2 247 -17.710
101 FP2 248 -17.222
101 FP2 249 -17.710
101 FP2 250 -18.199
101 FP2 251 -18.199
101 FP2 252 -17.710
101 FP2 253 -17.710
101 FP2 254 -17.710
101 FP2 255 -18.687
# F7 chan 2
101 F7 0 -16.703
101 F7 1 -15.238
101 F7 2 -10.844
101 F7 3 -6.449
101 F7 4 -2.055
101 F7 5 0.387
101 F7 6 2.340
101 F7 7 2.340
101 F7 8 1.363
101 F7 9 0.387
101 F7 10 -1.078
101 F7 11 -1.567
101 F7 12 -2.543
101 F7 13 -4.496
101 F7 14 -6.938
101 F7 15 -7.914
101 F7 16 -6.449
101 F7 17 -3.520
101 F7 18 -1.078
101 F7 19 -0.590
101 F7 20 -2.055
101 F7 21 -4.008
101 F7 22 -4.008
101 F7 23 -1.567
101 F7 24 1.363
101 F7 25 2.828
101 F7 26 1.363
101 F7 27 -1.567
101 F7 28 -4.496
101 F7 29 -7.426
101 F7 30 -10.356
101 F7 31 -13.774
101 F7 32 -17.192
101 F7 33 -18.168
101 F7 34 -15.238
101 F7 35 -9.379
101 F7 36 -3.031
101 F7 37 -0.102
101 F7 38 -1.078
101 F7 39 -4.985
101 F7 40 -7.426
101 F7 41 -6.938
101 F7 42 -3.031
101 F7 43 0.387
101 F7 44 0.387
101 F7 45 -4.008
101 F7 46 -10.356
101 F7 47 -13.774
101 F7 48 -11.820
101 F7 49 -3.520
101 F7 50 6.246
101 F7 51 13.082
101 F7 52 13.570
101 F7 53 8.687
101 F7 54 0.387
101 F7 55 -6.449
101 F7 56 -9.867
101 F7 57 -11.820
101 F7 58 -12.797
101 F7 59 -15.238
101 F7 60 -18.168
101 F7 61 -21.098
101 F7 62 -22.074
101 F7 63 -21.098
101 F7 64 -17.680
101 F7 65 -11.820
101 F7 66 -6.449
101 F7 67 -4.496
101 F7 68 -7.426
101 F7 69 -14.262
101 F7 70 -21.586
101 F7 71 -25.981
101 F7 72 -27.934
101 F7 73 -28.422
101 F7 74 -30.375
101 F7 75 -32.328
101 F7 76 -30.863
101 F7 77 -24.516
101 F7 78 -14.750
101 F7 79 -8.403
101 F7 80 -9.867
101 F7 81 -18.168
101 F7 82 -26.469
101 F7 83 -25.981
101 F7 84 -16.215
101 F7 85 -5.473
101 F7 86 -2.055
101 F7 87 -11.332
101 F7 88 -25.981
101 F7 89 -35.746
101 F7 90 -33.305
101 F7 91 -20.610
101 F7 92 -6.938
101 F7 93 -0.590
101 F7 94 -4.008
101 F7 95 -11.820
101 F7 96 -17.192
101 F7 97 -15.727
101 F7 98 -10.844
101 F7 99 -7.914
101 F7 100 -9.867
101 F7 101 -16.703
101 F7 102 -24.028
101 F7 103 -26.469
101 F7 104 -22.563
101 F7 105 -14.750
101 F7 106 -7.426
101 F7 107 -5.961
101 F7 108 -10.356
101 F7 109 -17.192
101 F7 110 -22.074
101 F7 111 -21.098
101 F7 112 -15.238
101 F7 113 -8.403
101 F7 114 -5.961
101 F7 115 -9.867
101 F7 116 -16.215
101 F7 117 -21.098
101 F7 118 -20.121
101 F7 119 -14.750
101 F7 120 -9.867
101 F7 121 -6.938
101 F7 122 -6.938
101 F7 123 -6.449
101 F7 124 -4.496
101 F7 125 -3.031
101 F7 126 -4.985
101 F7 127 -10.356
101 F7 128 -16.703
101 F7 129 -19.145
101 F7 130 -15.727
101 F7 131 -8.891
101 F7 132 -5.473
101 F7 133 -7.426
101 F7 134 -12.309
101 F7 135 -15.238
101 F7 136 -11.820
101 F7 137 -4.008
101 F7 138 0.875
101 F7 139 -2.055
101 F7 140 -11.332
101 F7 141 -21.586
101 F7 142 -26.469
101 F7 143 -24.028
101 F7 144 -17.680
101 F7 145 -13.285
101 F7 146 -11.820
101 F7 147 -11.820
101 F7 148 -11.332
101 F7 149 -8.891
101 F7 150 -6.938
101 F7 151 -5.473
101 F7 152 -4.496
101 F7 153 -2.543
101 F7 154 1.363
101 F7 155 3.316
101 F7 156 0.875
101 F7 157 -5.961
101 F7 158 -13.285
101 F7 159 -17.680
101 F7 160 -16.703
101 F7 161 -12.797
101 F7 162 -10.356
101 F7 163 -10.356
101 F7 164 -12.797
101 F7 165 -14.750
101 F7 166 -15.238
101 F7 167 -14.750
101 F7 168 -13.774
101 F7 169 -12.797
101 F7 170 -10.844
101 F7 171 -7.426
101 F7 172 -4.985
101 F7 173 -4.985
101 F7 174 -8.403
101 F7 175 -13.285
101 F7 176 -18.168
101 F7 177 -21.098
101 F7 178 -22.563
101 F7 179 -22.563
101 F7 180 -21.098
101 F7 181 -17.680
101 F7 182 -12.309
101 F7 183 -8.403
101 F7 184 -8.403
101 F7 185 -13.285
101 F7 186 -18.656
101 F7 187 -19.145
101 F7 188 -14.262
101 F7 189 -6.449
101 F7 190 -2.055
101 F7 191 -5.473
101 F7 192 -15.238
101 F7 193 -25.004
101 F7 194 -28.910
101 F7 195 -25.981
101 F7 196 -18.168
101 F7 197 -12.309
101 F7 198 -10.356
101 F7 199 -12.797
101 F7 200 -17.680
101 F7 201 -22.074
101 F7 202 -25.492
101 F7 203 -26.469
101 F7 204 -25.981
101 F7 205 -23.539
101 F7 206 -18.656
101 F7 207 -13.774
101 F7 208 -11.332
101 F7 209 -12.309
101 F7 210 -16.215
101 F7 211 -21.586
101 F7 212 -25.004
101 F7 213 -25.492
101 F7 214 -23.539
101 F7 215 -22.074
101 F7 216 -23.539
101 F7 217 -27.445
101 F7 218 -32.328
101 F7 219 -33.305
101 F7 220 -28.422
101 F7 221 -18.656
101 F7 222 -8.403
101 F7 223 -3.520
101 F7 224 -5.473
101 F7 225 -14.262
101 F7 226 -24.028
101 F7 227 -30.375
101 F7 228 -30.375
101 F7 229 -25.004
101 F7 230 -17.680
101 F7 231 -12.797
101 F7 232 -11.332
101 F7 233 -14.262
101 F7 234 -18.656
101 F7 235 -23.539
101 F7 236 -25.981
101 F7 237 -25.981
101 F7 238 -24.516
101 F7 239 -23.051
101 F7 240 -23.051
101 F7 241 -25.004
101 F7 242 -26.957
101 F7 243 -27.445
101 F7 244 -25.004
101 F7 245 -21.098
101 F7 246 -17.680
101 F7 247 -16.703
101 F7 248 -18.656
101 F7 249 -21.586
101 F7 250 -23.051
101 F7 251 -22.563
101 F7 252 -22.074
101 F7 253 -22.563
101 F7 254 -25.981
101 F7 255 -29.399
# F8 chan 3
101 F8 0 -12.278
101 F8 1 -4.466
101 F8 2 -0.559
101 F8 3 -3.489
101 F8 4 -9.837
101 F8 5 -13.743
101 F8 6 -10.325
101 F8 7 -2.513
101 F8 8 4.323
101 F8 9 4.812
101 F8 10 -2.513
101 F8 11 -12.767
101 F8 12 -19.114
101 F8 13 -17.649
101 F8 14 -10.325
101 F8 15 -1.536
101 F8 16 3.347
101 F8 17 2.858
101 F8 18 -0.559
101 F8 19 -2.024
101 F8 20 -0.559
101 F8 21 2.858
101 F8 22 5.788
101 F8 23 6.276
101 F8 24 4.323
101 F8 25 1.394
101 F8 26 -1.536
101 F8 27 -4.954
101 F8 28 -8.860
101 F8 29 -12.767
101 F8 30 -15.208
101 F8 31 -14.231
101 F8 32 -9.837
101 F8 33 -3.489
101 F8 34 0.417
101 F8 35 -0.559
101 F8 36 -5.931
101 F8 37 -12.767
101 F8 38 -16.184
101 F8 39 -13.743
101 F8 40 -6.907
101 F8 41 0.417
101 F8 42 5.788
101 F8 43 6.765
101 F8 44 5.300
101 F8 45 1.882
101 F8 46 -1.048
101 F8 47 -3.977
101 F8 48 -7.395
101 F8 49 -9.349
101 F8 50 -9.837
101 F8 51 -8.372
101 F8 52 -5.931
101 F8 53 -3.977
101 F8 54 -3.977
101 F8 55 -4.954
101 F8 56 -6.419
101 F8 57 -7.395
101 F8 58 -6.907
101 F8 59 -6.907
101 F8 60 -7.884
101 F8 61 -11.302
101 F8 62 -16.673
101 F8 63 -22.532
101 F8 64 -26.438
101 F8 65 -25.462
101 F8 66 -19.602
101 F8 67 -10.813
101 F8 68 -4.466
101 F8 69 -3.977
101 F8 70 -9.837
101 F8 71 -19.602
101 F8 72 -28.392
101 F8 73 -31.809
101 F8 74 -29.856
101 F8 75 -24.485
101 F8 76 -17.649
101 F8 77 -12.767
101 F8 78 -9.349
101 F8 79 -8.372
101 F8 80 -11.302
101 F8 81 -17.161
101 F8 82 -23.509
101 F8 83 -25.462
101 F8 84 -22.532
101 F8 85 -15.208
101 F8 86 -8.860
101 F8 87 -7.395
101 F8 88 -10.325
101 F8 89 -14.720
101 F8 90 -17.161
101 F8 91 -16.184
101 F8 92 -13.743
101 F8 93 -12.767
101 F8 94 -12.767
101 F8 95 -13.255
101 F8 96 -12.278
101 F8 97 -10.325
101 F8 98 -8.372
101 F8 99 -8.860
101 F8 100 -11.302
101 F8 101 -14.231
101 F8 102 -16.673
101 F8 103 -17.649
101 F8 104 -17.161
101 F8 105 -16.673
101 F8 106 -16.673
101 F8 107 -17.161
101 F8 108 -16.184
101 F8 109 -14.720
101 F8 110 -12.278
101 F8 111 -10.325
101 F8 112 -8.372
101 F8 113 -7.395
101 F8 114 -7.395
101 F8 115 -8.860
101 F8 116 -11.790
101 F8 117 -16.184
101 F8 118 -19.602
101 F8 119 -19.602
101 F8 120 -15.696
101 F8 121 -8.860
101 F8 122 -3.001
101 F8 123 -0.559
101 F8 124 -2.513
101 F8 125 -7.395
101 F8 126 -11.790
101 F8 127 -14.231
101 F8 128 -13.255
101 F8 129 -11.302
101 F8 130 -9.837
101 F8 131 -10.325
101 F8 132 -12.278
101 F8 133 -13.743
101 F8 134 -13.743
101 F8 135 -13.255
101 F8 136 -13.743
101 F8 137 -16.184
101 F8 138 -19.602
101 F8 139 -21.556
101 F8 140 -19.602
101 F8 141 -13.743
101 F8 142 -6.907
101 F8 143 -3.977
101 F8 144 -6.419
101 F8 145 -11.302
101 F8 146 -14.231
101 F8 147 -13.255
101 F8 148 -9.349
101 F8 149 -6.907
101 F8 150 -8.372
101 F8 151 -11.790
101 F8 152 -14.720
101 F8 153 -14.231
101 F8 154 -10.813
101 F8 155 -8.372
101 F8 156 -8.860
101 F8 157 -11.302
101 F8 158 -12.767
101 F8 159 -11.302
101 F8 160 -7.884
101 F8 161 -5.931
101 F8 162 -7.395
101 F8 163 -11.790
101 F8 164 -15.208
101 F8 165 -14.720
101 F8 166 -10.813
101 F8 167 -6.907
101 F8 168 -6.907
101 F8 169 -11.302
101 F8 170 -17.161
101 F8 171 -19.602
101 F8 172 -18.138
101 F8 173 -14.231
101 F8 174 -10.325
101 F8 175 -7.884
101 F8 176 -5.931
101 F8 177 -4.466
101 F8 178 -3.001
101 F8 179 -3.977
101 F8 180 -7.884
101 F8 181 -12.767
101 F8 182 -15.208
101 F8 183 -13.255
101 F8 184 -7.884
101 F8 185 -3.977
101 F8 186 -4.466
101 F8 187 -9.349
101 F8 188 -13.743
101 F8 189 -14.720
101 F8 190 -11.302
101 F8 191 -7.395
101 F8 192 -5.931
101 F8 193 -8.860
101 F8 194 -13.255
101 F8 195 -16.673
101 F8 196 -18.138
101 F8 197 -17.649
101 F8 198 -16.184
101 F8 199 -15.696
101 F8 200 -15.208
101 F8 201 -14.231
101 F8 202 -14.231
101 F8 203 -14.720
101 F8 204 -15.696
101 F8 205 -16.673
101 F8 206 -17.649
101 F8 207 -18.626
101 F8 208 -21.067
101 F8 209 -24.974
101 F8 210 -29.368
101 F8 211 -30.345
101 F8 212 -27.415
101 F8 213 -22.044
101 F8 214 -17.649
101 F8 215 -18.626
101 F8 216 -24.974
101 F8 217 -31.321
101 F8 218 -33.763
101 F8 219 -29.368
101 F8 220 -21.556
101 F8 221 -15.696
101 F8 222 -15.208
101 F8 223 -19.114
101 F8 224 -22.532
101 F8 225 -22.044
101 F8 226 -16.673
101 F8 227 -12.278
101 F8 228 -13.255
101 F8 229 -20.091
101 F8 230 -28.392
101 F8 231 -32.298
101 F8 232 -28.392
101 F8 233 -19.602
101 F8 234 -12.278
101 F8 235 -10.813
101 F8 236 -14.720
101 F8 237 -20.579
101 F8 238 -23.020
101 F8 239 -19.602
101 F8 240 -13.255
101 F8 241 -9.349
101 F8 242 -10.813
101 F8 243 -16.673
101 F8 244 -22.044
101 F8 245 -23.509
101 F8 246 -20.091
101 F8 247 -15.208
101 F8 248 -12.278
101 F8 249 -14.720
101 F8 250 -19.114
101 F8 251 -22.532
101 F8 252 -23.020
101 F8 253 -21.556
101 F8 254 -20.579
101 F8 255 -22.044
# AF1 chan 4
101 AF1 0 -8.464
101 AF1 1 -9.928
101 AF1 2 -9.440
101 AF1 3 -7.975
101 AF1 4 -6.999
101 AF1 5 -7.487
101 AF1 6 -7.487
101 AF1 7 -6.999
101 AF1 8 -4.557
101 AF1 9 -1.139
101 AF1 10 1.790
101 AF1 11 2.279
101 AF1 12 1.302
101 AF1 13 -0.163
101 AF1 14 -1.628
101 AF1 15 -1.628
101 AF1 16 -1.628
101 AF1 17 -1.628
101 AF1 18 -1.628
101 AF1 19 -1.628
101 AF1 20 -1.139
101 AF1 21 -0.163
101 AF1 22 0.326
101 AF1 23 -0.163
101 AF1 24 -0.651
101 AF1 25 -1.628
101 AF1 26 -2.116
101 AF1 27 -1.628
101 AF1 28 -0.651
101 AF1 29 0.326
101 AF1 30 0.326
101 AF1 31 -1.628
101 AF1 32 -3.581
101 AF1 33 -4.557
101 AF1 34 -4.557
101 AF1 35 -3.581
101 AF1 36 -3.581
101 AF1 37 -5.046
101 AF1 38 -6.999
101 AF1 39 -8.952
101 AF1 40 -8.464
101 AF1 41 -6.510
101 AF1 42 -3.092
101 AF1 43 -1.139
101 AF1 44 -0.163
101 AF1 45 -0.651
101 AF1 46 -1.139
101 AF1 47 -0.163
101 AF1 48 1.302
101 AF1 49 3.255
101 AF1 50 4.232
101 AF1 51 3.743
101 AF1 52 2.767
101 AF1 53 1.790
101 AF1 54 2.279
101 AF1 55 2.767
101 AF1 56 2.767
101 AF1 57 1.302
101 AF1 58 -0.651
101 AF1 59 -2.604
101 AF1 60 -3.092
101 AF1 61 -3.092
101 AF1 62 -3.092
101 AF1 63 -5.046
101 AF1 64 -8.464
101 AF1 65 -11.882
101 AF1 66 -13.835
101 AF1 67 -13.346
101 AF1 68 -12.370
101 AF1 69 -11.882
101 AF1 70 -13.346
101 AF1 71 -15.788
101 AF1 72 -17.741
101 AF1 73 -18.229
101 AF1 74 -16.276
101 AF1 75 -13.346
101 AF1 76 -10.905
101 AF1 77 -9.440
101 AF1 78 -9.440
101 AF1 79 -10.905
101 AF1 80 -12.370
101 AF1 81 -13.346
101 AF1 82 -13.835
101 AF1 83 -12.858
101 AF1 84 -11.393
101 AF1 85 -9.440
101 AF1 86 -8.464
101 AF1 87 -9.440
101 AF1 88 -10.417
101 AF1 89 -11.882
101 AF1 90 -12.370
101 AF1 91 -11.393
101 AF1 92 -9.928
101 AF1 93 -8.464
101 AF1 94 -6.999
101 AF1 95 -6.022
101 AF1 96 -6.022
101 AF1 97 -6.022
101 AF1 98 -6.999
101 AF1 99 -7.975
101 AF1 100 -8.952
101 AF1 101 -9.928
101 AF1 102 -10.417
101 AF1 103 -10.417
101 AF1 104 -10.417
101 AF1 105 -10.905
101 AF1 106 -11.882
101 AF1 107 -13.835
101 AF1 108 -14.811
101 AF1 109 -15.788
101 AF1 110 -15.299
101 AF1 111 -14.323
101 AF1 112 -13.346
101 AF1 113 -12.858
101 AF1 114 -13.346
101 AF1 115 -13.346
101 AF1 116 -12.858
101 AF1 117 -11.882
101 AF1 118 -11.393
101 AF1 119 -10.417
101 AF1 120 -9.928
101 AF1 121 -9.440
101 AF1 122 -8.464
101 AF1 123 -7.487
101 AF1 124 -6.510
101 AF1 125 -6.999
101 AF1 126 -8.464
101 AF1 127 -10.417
101 AF1 128 -11.882
101 AF1 129 -12.370
101 AF1 130 -12.370
101 AF1 131 -11.393
101 AF1 132 -10.905
101 AF1 133 -11.393
101 AF1 134 -11.393
101 AF1 135 -11.393
101 AF1 136 -11.882
101 AF1 137 -12.370
101 AF1 138 -12.858
101 AF1 139 -14.323
101 AF1 140 -15.299
101 AF1 141 -15.299
101 AF1 142 -15.299
101 AF1 143 -14.323
101 AF1 144 -12.858
101 AF1 145 -11.882
101 AF1 146 -10.905
101 AF1 147 -11.393
101 AF1 148 -10.905
101 AF1 149 -10.417
101 AF1 150 -9.440
101 AF1 151 -8.952
101 AF1 152 -8.464
101 AF1 153 -8.952
101 AF1 154 -9.440
101 AF1 155 -9.928
101 AF1 156 -10.417
101 AF1 157 -10.417
101 AF1 158 -9.928
101 AF1 159 -10.417
101 AF1 160 -10.417
101 AF1 161 -10.905
101 AF1 162 -10.417
101 AF1 163 -9.928
101 AF1 164 -8.952
101 AF1 165 -8.464
101 AF1 166 -8.464
101 AF1 167 -8.464
101 AF1 168 -8.464
101 AF1 169 -8.464
101 AF1 170 -8.464
101 AF1 171 -8.952
101 AF1 172 -9.440
101 AF1 173 -9.928
101 AF1 174 -9.440
101 AF1 175 -8.952
101 AF1 176 -7.975
101 AF1 177 -7.487
101 AF1 178 -7.975
101 AF1 179 -7.975
101 AF1 180 -8.464
101 AF1 181 -8.952
101 AF1 182 -8.952
101 AF1 183 -8.952
101 AF1 184 -7.975
101 AF1 185 -6.999
101 AF1 186 -6.022
101 AF1 187 -6.022
101 AF1 188 -6.022
101 AF1 189 -7.487
101 AF1 190 -8.952
101 AF1 191 -10.417
101 AF1 192 -10.905
101 AF1 193 -10.905
101 AF1 194 -10.905
101 AF1 195 -11.393
101 AF1 196 -12.370
101 AF1 197 -13.346
101 AF1 198 -14.811
101 AF1 199 -14.811
101 AF1 200 -14.811
101 AF1 201 -13.835
101 AF1 202 -12.858
101 AF1 203 -11.882
101 AF1 204 -11.393
101 AF1 205 -10.905
101 AF1 206 -11.393
101 AF1 207 -11.882
101 AF1 208 -11.882
101 AF1 209 -11.882
101 AF1 210 -11.882
101 AF1 211 -12.370
101 AF1 212 -13.835
101 AF1 213 -16.764
101 AF1 214 -19.694
101 AF1 215 -22.135
101 AF1 216 -23.112
101 AF1 217 -23.112
101 AF1 218 -21.647
101 AF1 219 -18.717
101 AF1 220 -16.276
101 AF1 221 -13.835
101 AF1 222 -12.858
101 AF1 223 -13.835
101 AF1 224 -15.788
101 AF1 225 -16.764
101 AF1 226 -16.764
101 AF1 227 -15.299
101 AF1 228 -13.835
101 AF1 229 -12.370
101 AF1 230 -12.858
101 AF1 231 -13.835
101 AF1 232 -14.323
101 AF1 233 -13.835
101 AF1 234 -13.346
101 AF1 235 -12.370
101 AF1 236 -12.858
101 AF1 237 -13.835
101 AF1 238 -14.811
101 AF1 239 -15.299
101 AF1 240 -14.323
101 AF1 241 -13.346
101 AF1 242 -12.370
101 AF1 243 -12.370
101 AF1 244 -13.346
101 AF1 245 -15.299
101 AF1 246 -17.253
101 AF1 247 -17.741
101 AF1 248 -17.253
101 AF1 249 -15.788
101 AF1 250 -14.811
101 AF1 251 -14.811
101 AF1 252 -15.788
101 AF1 253 -16.764
101 AF1 254 -17.741
101 AF1 255 -17.253
# AF2 chan 5
101 AF2 0 -8.189
101 AF2 1 -8.677
101 AF2 2 -8.189
101 AF2 3 -7.701
101 AF2 4 -7.701
101 AF2 5 -8.677
101 AF2 6 -9.654
101 AF2 7 -9.654
101 AF2 8 -7.701
101 AF2 9 -4.771
101 AF2 10 -1.841
101 AF2 11 -0.376
101 AF2 12 -0.376
101 AF2 13 -1.841
101 AF2 14 -2.818
101 AF2 15 -3.794
101 AF2 16 -4.283
101 AF2 17 -5.259
101 AF2 18 -5.747
101 AF2 19 -6.236
101 AF2 20 -5.747
101 AF2 21 -4.283
101 AF2 22 -2.818
101 AF2 23 -2.330
101 AF2 24 -2.330
101 AF2 25 -3.306
101 AF2 26 -3.794
101 AF2 27 -3.794
101 AF2 28 -2.818
101 AF2 29 -1.841
101 AF2 30 -2.330
101 AF2 31 -3.794
101 AF2 32 -5.747
101 AF2 33 -8.189
101 AF2 34 -9.654
101 AF2 35 -9.654
101 AF2 36 -8.189
101 AF2 37 -6.724
101 AF2 38 -5.259
101 AF2 39 -5.747
101 AF2 40 -6.724
101 AF2 41 -7.701
101 AF2 42 -7.701
101 AF2 43 -6.724
101 AF2 44 -4.771
101 AF2 45 -3.306
101 AF2 46 -2.330
101 AF2 47 -2.330
101 AF2 48 -2.330
101 AF2 49 -1.841
101 AF2 50 -0.865
101 AF2 51 0.600
101 AF2 52 1.088
101 AF2 53 0.600
101 AF2 54 -0.376
101 AF2 55 -0.865
101 AF2 56 -0.865
101 AF2 57 -0.865
101 AF2 58 -1.353
101 AF2 59 -2.330
101 AF2 60 -3.794
101 AF2 61 -5.259
101 AF2 62 -6.724
101 AF2 63 -8.677
101 AF2 64 -11.119
101 AF2 65 -13.560
101 AF2 66 -15.513
101 AF2 67 -15.513
101 AF2 68 -14.537
101 AF2 69 -13.560
101 AF2 70 -13.560
101 AF2 71 -16.001
101 AF2 72 -18.931
101 AF2 73 -20.884
101 AF2 74 -19.419
101 AF2 75 -16.978
101 AF2 76 -13.072
101 AF2 77 -11.119
101 AF2 78 -11.119
101 AF2 79 -12.583
101 AF2 80 -14.048
101 AF2 81 -14.537
101 AF2 82 -13.560
101 AF2 83 -12.583
101 AF2 84 -12.095
101 AF2 85 -12.095
101 AF2 86 -12.583
101 AF2 87 -13.072
101 AF2 88 -13.560
101 AF2 89 -13.560
101 AF2 90 -13.560
101 AF2 91 -12.583
101 AF2 92 -11.119
101 AF2 93 -9.165
101 AF2 94 -7.701
101 AF2 95 -6.724
101 AF2 96 -7.212
101 AF2 97 -9.165
101 AF2 98 -10.630
101 AF2 99 -13.072
101 AF2 100 -14.537
101 AF2 101 -15.025
101 AF2 102 -14.537
101 AF2 103 -13.072
101 AF2 104 -11.607
101 AF2 105 -11.119
101 AF2 106 -11.119
101 AF2 107 -12.095
101 AF2 108 -14.048
101 AF2 109 -15.025
101 AF2 110 -15.025
101 AF2 111 -14.537
101 AF2 112 -13.072
101 AF2 113 -13.072
101 AF2 114 -13.072
101 AF2 115 -13.560
101 AF2 116 -14.537
101 AF2 117 -14.537
101 AF2 118 -13.560
101 AF2 119 -12.095
101 AF2 120 -11.119
101 AF2 121 -10.142
101 AF2 122 -10.142
101 AF2 123 -9.654
101 AF2 124 -8.677
101 AF2 125 -7.701
101 AF2 126 -7.212
101 AF2 127 -8.677
101 AF2 128 -10.630
101 AF2 129 -13.072
101 AF2 130 -14.537
101 AF2 131 -14.537
101 AF2 132 -13.072
101 AF2 133 -12.095
101 AF2 134 -11.607
101 AF2 135 -11.607
101 AF2 136 -12.583
101 AF2 137 -13.560
101 AF2 138 -14.537
101 AF2 139 -14.537
101 AF2 140 -15.025
101 AF2 141 -15.513
101 AF2 142 -15.513
101 AF2 143 -14.537
101 AF2 144 -14.048
101 AF2 145 -13.560
101 AF2 146 -13.560
101 AF2 147 -14.537
101 AF2 148 -14.537
101 AF2 149 -13.560
101 AF2 150 -12.095
101 AF2 151 -10.630
101 AF2 152 -10.142
101 AF2 153 -11.119
101 AF2 154 -12.583
101 AF2 155 -13.560
101 AF2 156 -13.072
101 AF2 157 -11.607
101 AF2 158 -10.630
101 AF2 159 -10.630
101 AF2 160 -11.607
101 AF2 161 -12.583
101 AF2 162 -13.560
101 AF2 163 -13.072
101 AF2 164 -12.095
101 AF2 165 -11.119
101 AF2 166 -10.630
101 AF2 167 -10.630
101 AF2 168 -10.630
101 AF2 169 -10.630
101 AF2 170 -10.630
101 AF2 171 -10.630
101 AF2 172 -10.630
101 AF2 173 -10.630
101 AF2 174 -10.630
101 AF2 175 -10.630
101 AF2 176 -10.142
101 AF2 177 -10.142
101 AF2 178 -9.654
101 AF2 179 -9.654
101 AF2 180 -10.142
101 AF2 181 -10.630
101 AF2 182 -11.607
101 AF2 183 -12.583
101 AF2 184 -13.072
101 AF2 185 -12.095
101 AF2 186 -11.119
101 AF2 187 -10.142
101 AF2 188 -9.654
101 AF2 189 -9.165
101 AF2 190 -9.654
101 AF2 191 -9.654
101 AF2 192 -10.142
101 AF2 193 -11.119
101 AF2 194 -13.072
101 AF2 195 -15.513
101 AF2 196 -16.978
101 AF2 197 -17.955
101 AF2 198 -17.955
101 AF2 199 -17.466
101 AF2 200 -17.466
101 AF2 201 -16.490
101 AF2 202 -15.025
101 AF2 203 -13.560
101 AF2 204 -12.095
101 AF2 205 -12.583
101 AF2 206 -14.048
101 AF2 207 -15.513
101 AF2 208 -17.466
101 AF2 209 -17.466
101 AF2 210 -17.466
101 AF2 211 -17.466
101 AF2 212 -18.443
101 AF2 213 -20.396
101 AF2 214 -22.349
101 AF2 215 -23.814
101 AF2 216 -24.302
101 AF2 217 -24.790
101 AF2 218 -24.790
101 AF2 219 -24.790
101 AF2 220 -23.326
101 AF2 221 -21.372
101 AF2 222 -18.931
101 AF2 223 -18.443
101 AF2 224 -18.931
101 AF2 225 -20.396
101 AF2 226 -20.884
101 AF2 227 -20.396
101 AF2 228 -18.931
101 AF2 229 -18.443
101 AF2 230 -18.931
101 AF2 231 -20.396
101 AF2 232 -20.884
101 AF2 233 -19.908
101 AF2 234 -18.443
101 AF2 235 -16.978
101 AF2 236 -17.466
101 AF2 237 -18.931
101 AF2 238 -19.908
101 AF2 239 -19.419
101 AF2 240 -17.466
101 AF2 241 -16.001
101 AF2 242 -16.490
101 AF2 243 -18.931
101 AF2 244 -21.861
101 AF2 245 -23.326
101 AF2 246 -23.326
101 AF2 247 -21.861
101 AF2 248 -20.396
101 AF2 249 -19.908
101 AF2 250 -19.908
101 AF2 251 -20.884
101 AF2 252 -21.372
101 AF2 253 -21.372
101 AF2 254 -21.372
101 AF2 255 -21.372
# FZ chan 6
101 FZ 0 -4.639
101 FZ 1 -6.592
101 FZ 2 -7.080
101 FZ 3 -6.592
101 FZ 4 -5.615
101 FZ 5 -5.615
101 FZ 6 -5.615
101 FZ 7 -5.615
101 FZ 8 -4.150
101 FZ 9 -2.197
101 FZ 10 0.244
101 FZ 11 1.221
101 FZ 12 0.732
101 FZ 13 -0.244
101 FZ 14 -1.709
101 FZ 15 -2.686
101 FZ 16 -2.686
101 FZ 17 -2.686
101 FZ 18 -2.686
101 FZ 19 -3.174
101 FZ 20 -3.174
101 FZ 21 -2.686
101 FZ 22 -2.197
101 FZ 23 -2.197
101 FZ 24 -2.197
101 FZ 25 -2.686
101 FZ 26 -3.174
101 FZ 27 -2.197
101 FZ 28 -0.732
101 FZ 29 0.732
101 FZ 30 1.221
101 FZ 31 0.244
101 FZ 32 -1.709
101 FZ 33 -3.662
101 FZ 34 -4.639
101 FZ 35 -5.127
101 FZ 36 -4.639
101 FZ 37 -4.150
101 FZ 38 -4.639
101 FZ 39 -5.127
101 FZ 40 -5.615
101 FZ 41 -5.615
101 FZ 42 -5.127
101 FZ 43 -3.662
101 FZ 44 -3.174
101 FZ 45 -1.709
101 FZ 46 -1.221
101 FZ 47 -0.244
101 FZ 48 0.244
101 FZ 49 0.732
101 FZ 50 0.732
101 FZ 51 1.221
101 FZ 52 1.221
101 FZ 53 1.709
101 FZ 54 2.197
101 FZ 55 2.197
101 FZ 56 1.709
101 FZ 57 1.221
101 FZ 58 -0.244
101 FZ 59 -1.221
101 FZ 60 -2.197
101 FZ 61 -2.686
101 FZ 62 -3.174
101 FZ 63 -4.639
101 FZ 64 -7.080
101 FZ 65 -9.521
101 FZ 66 -11.475
101 FZ 67 -12.451
101 FZ 68 -11.475
101 FZ 69 -10.498
101 FZ 70 -10.010
101 FZ 71 -10.986
101 FZ 72 -12.939
101 FZ 73 -13.916
101 FZ 74 -13.428
101 FZ 75 -11.475
101 FZ 76 -9.033
101 FZ 77 -7.568
101 FZ 78 -7.568
101 FZ 79 -8.057
101 FZ 80 -9.033
101 FZ 81 -9.033
101 FZ 82 -8.545
101 FZ 83 -7.568
101 FZ 84 -6.592
101 FZ 85 -6.104
101 FZ 86 -6.104
101 FZ 87 -6.104
101 FZ 88 -6.104
101 FZ 89 -6.592
101 FZ 90 -7.080
101 FZ 91 -7.568
101 FZ 92 -7.080
101 FZ 93 -6.104
101 FZ 94 -4.639
101 FZ 95 -3.662
101 FZ 96 -3.662
101 FZ 97 -5.127
101 FZ 98 -6.592
101 FZ 99 -8.057
101 FZ 100 -9.033
101 FZ 101 -9.521
101 FZ 102 -8.545
101 FZ 103 -7.568
101 FZ 104 -6.592
101 FZ 105 -6.592
101 FZ 106 -7.568
101 FZ 107 -9.521
101 FZ 108 -10.986
101 FZ 109 -11.963
101 FZ 110 -11.475
101 FZ 111 -10.498
101 FZ 112 -9.521
101 FZ 113 -8.545
101 FZ 114 -9.033
101 FZ 115 -9.521
101 FZ 116 -10.010
101 FZ 117 -10.010
101 FZ 118 -9.033
101 FZ 119 -8.057
101 FZ 120 -7.568
101 FZ 121 -7.080
101 FZ 122 -7.080
101 FZ 123 -6.104
101 FZ 124 -5.127
101 FZ 125 -5.127
101 FZ 126 -5.127
101 FZ 127 -6.592
101 FZ 128 -7.568
101 FZ 129 -9.033
101 FZ 130 -10.010
101 FZ 131 -10.010
101 FZ 132 -9.521
101 FZ 133 -9.033
101 FZ 134 -8.057
101 FZ 135 -8.057
101 FZ 136 -8.545
101 FZ 137 -9.033
101 FZ 138 -10.010
101 FZ 139 -10.498
101 FZ 140 -10.498
101 FZ 141 -10.010
101 FZ 142 -9.521
101 FZ 143 -9.033
101 FZ 144 -8.057
101 FZ 145 -8.057
101 FZ 146 -8.057
101 FZ 147 -8.057
101 FZ 148 -8.545
101 FZ 149 -8.057
101 FZ 150 -7.080
101 FZ 151 -6.104
101 FZ 152 -5.615
101 FZ 153 -6.104
101 FZ 154 -7.080
101 FZ 155 -8.545
101 FZ 156 -8.057
101 FZ 157 -7.568
101 FZ 158 -6.104
101 FZ 159 -5.127
101 FZ 160 -5.127
101 FZ 161 -6.592
101 FZ 162 -7.568
101 FZ 163 -8.057
101 FZ 164 -8.057
101 FZ 165 -8.057
101 FZ 166 -7.568
101 FZ 167 -7.568
101 FZ 168 -7.568
101 FZ 169 -7.568
101 FZ 170 -8.057
101 FZ 171 -8.545
101 FZ 172 -8.057
101 FZ 173 -8.057
101 FZ 174 -7.568
101 FZ 175 -7.080
101 FZ 176 -7.080
101 FZ 177 -7.568
101 FZ 178 -8.057
101 FZ 179 -8.057
101 FZ 180 -8.057
101 FZ 181 -8.057
101 FZ 182 -8.057
101 FZ 183 -8.545
101 FZ 184 -8.545
101 FZ 185 -7.568
101 FZ 186 -6.592
101 FZ 187 -6.104
101 FZ 188 -6.104
101 FZ 189 -7.080
101 FZ 190 -8.057
101 FZ 191 -9.033
101 FZ 192 -9.033
101 FZ 193 -9.521
101 FZ 194 -9.521
101 FZ 195 -10.498
101 FZ 196 -11.475
101 FZ 197 -12.451
101 FZ 198 -12.939
101 FZ 199 -12.939
101 FZ 200 -12.939
101 FZ 201 -12.451
101 FZ 202 -11.963
101 FZ 203 -10.986
101 FZ 204 -10.010
101 FZ 205 -10.010
101 FZ 206 -10.498
101 FZ 207 -11.475
101 FZ 208 -12.451
101 FZ 209 -11.963
101 FZ 210 -10.498
101 FZ 211 -10.010
101 FZ 212 -10.986
101 FZ 213 -13.916
101 FZ 214 -16.357
101 FZ 215 -17.822
101 FZ 216 -17.822
101 FZ 217 -15.869
101 FZ 218 -14.404
101 FZ 219 -13.428
101 FZ 220 -12.939
101 FZ 221 -13.428
101 FZ 222 -12.939
101 FZ 223 -12.939
101 FZ 224 -12.939
101 FZ 225 -12.939
101 FZ 226 -13.428
101 FZ 227 -13.428
101 FZ 228 -13.428
101 FZ 229 -12.451
101 FZ 230 -12.451
101 FZ 231 -12.451
101 FZ 232 -12.451
101 FZ 233 -11.963
101 FZ 234 -11.475
101 FZ 235 -10.986
101 FZ 236 -10.986
101 FZ 237 -11.475
101 FZ 238 -11.963
101 FZ 239 -12.451
101 FZ 240 -11.963
101 FZ 241 -11.963
101 FZ 242 -11.475
101 FZ 243 -11.475
101 FZ 244 -12.451
101 FZ 245 -13.916
101 FZ 246 -15.381
101 FZ 247 -15.381
101 FZ 248 -14.893
101 FZ 249 -13.428
101 FZ 250 -12.939
101 FZ 251 -12.451
101 FZ 252 -12.939
101 FZ 253 -13.916
101 FZ 254 -13.916
101 FZ 255 -12.939
# F4 chan 7
101 F4 0 0.783
101 F4 1 -0.682
101 F4 2 -1.658
101 F4 3 -2.146
101 F4 4 -1.658
101 F4 5 -1.658
101 F4 6 -3.123
101 F4 7 -5.564
101 F4 8 -8.006
101 F4 9 -7.517
101 F4 10 -4.100
101 F4 11 1.272
101 F4 12 5.178
101 F4 13 5.666
101 F4 14 3.713
101 F4 15 0.783
101 F4 16 -1.170
101 F4 17 -1.658
101 F4 18 -1.658
101 F4 19 -1.170
101 F4 20 -1.170
101 F4 21 -0.682
101 F4 22 0.783
101 F4 23 2.736
101 F4 24 4.690
101 F4 25 5.178
101 F4 26 5.178
101 F4 27 4.201
101 F4 28 3.225
101 F4 29 3.713
101 F4 30 4.201
101 F4 31 3.713
101 F4 32 1.272
101 F4 33 -2.635
101 F4 34 -5.564
101 F4 35 -6.541
101 F4 36 -3.611
101 F4 37 1.272
101 F4 38 5.178
101 F4 39 6.154
101 F4 40 3.713
101 F4 41 -0.193
101 F4 42 -2.635
101 F4 43 -1.170
101 F4 44 2.736
101 F4 45 6.643
101 F4 46 7.131
101 F4 47 4.690
101 F4 48 1.272
101 F4 49 -0.193
101 F4 50 1.272
101 F4 51 4.201
101 F4 52 7.131
101 F4 53 7.131
101 F4 54 5.666
101 F4 55 3.713
101 F4 56 2.248
101 F4 57 1.272
101 F4 58 0.783
101 F4 59 -0.193
101 F4 60 -1.170
101 F4 61 -1.658
101 F4 62 -1.170
101 F4 63 -1.658
101 F4 64 -3.123
101 F4 65 -5.564
101 F4 66 -8.494
101 F4 67 -8.982
101 F4 68 -7.517
101 F4 69 -5.564
101 F4 70 -4.588
101 F4 71 -5.564
101 F4 72 -8.494
101 F4 73 -9.471
101 F4 74 -8.006
101 F4 75 -4.100
101 F4 76 -0.193
101 F4 77 0.295
101 F4 78 -1.658
101 F4 79 -5.076
101 F4 80 -6.541
101 F4 81 -5.564
101 F4 82 -2.635
101 F4 83 -0.193
101 F4 84 -0.193
101 F4 85 -1.658
101 F4 86 -3.611
101 F4 87 -4.588
101 F4 88 -3.611
101 F4 89 -2.635
101 F4 90 -2.146
101 F4 91 -1.658
101 F4 92 -0.682
101 F4 93 0.295
101 F4 94 2.248
101 F4 95 3.225
101 F4 96 2.736
101 F4 97 0.295
101 F4 98 -2.635
101 F4 99 -6.541
101 F4 100 -9.471
101 F4 101 -9.959
101 F4 102 -8.982
101 F4 103 -5.564
101 F4 104 -1.658
101 F4 105 0.783
101 F4 106 1.760
101 F4 107 0.295
101 F4 108 -1.170
101 F4 109 -2.146
101 F4 110 -1.658
101 F4 111 -0.193
101 F4 112 1.760
101 F4 113 2.736
101 F4 114 1.272
101 F4 115 -2.146
101 F4 116 -5.076
101 F4 117 -6.053
101 F4 118 -4.100
101 F4 119 -0.193
101 F4 120 3.225
101 F4 121 3.713
101 F4 122 1.272
101 F4 123 -1.658
101 F4 124 -2.635
101 F4 125 -0.682
101 F4 126 2.736
101 F4 127 3.713
101 F4 128 1.760
101 F4 129 -2.146
101 F4 130 -5.076
101 F4 131 -5.076
101 F4 132 -2.635
101 F4 133 -0.682
101 F4 134 -0.682
101 F4 135 -2.146
101 F4 136 -3.611
101 F4 137 -3.123
101 F4 138 -1.658
101 F4 139 -0.682
101 F4 140 -1.658
101 F4 141 -3.611
101 F4 142 -5.076
101 F4 143 -4.100
101 F4 144 -1.170
101 F4 145 1.272
101 F4 146 0.783
101 F4 147 -2.146
101 F4 148 -5.076
101 F4 149 -6.053
101 F4 150 -3.123
101 F4 151 0.783
101 F4 152 3.225
101 F4 153 2.248
101 F4 154 -0.682
101 F4 155 -3.611
101 F4 156 -3.611
101 F4 157 -1.658
101 F4 158 0.783
101 F4 159 1.272
101 F4 160 0.295
101 F4 161 -1.658
101 F4 162 -3.611
101 F4 163 -4.100
101 F4 164 -3.611
101 F4 165 -2.146
101 F4 166 -1.658
101 F4 167 -1.170
101 F4 168 -1.170
101 F4 169 -0.682
101 F4 170 -0.682
101 F4 171 -0.682
101 F4 172 0.295
101 F4 173 1.272
101 F4 174 2.736
101 F4 175 3.225
101 F4 176 3.225
101 F4 177 1.760
101 F4 178 1.272
101 F4 179 1.760
101 F4 180 2.736
101 F4 181 2.736
101 F4 182 1.272
101 F4 183 -1.170
101 F4 184 -3.123
101 F4 185 -3.123
101 F4 186 -1.170
101 F4 187 1.760
101 F4 188 4.201
101 F4 189 4.690
101 F4 190 4.690
101 F4 191 4.690
101 F4 192 4.201
101 F4 193 2.736
101 F4 194 0.295
101 F4 195 -3.611
101 F4 196 -7.029
101 F4 197 -8.006
101 F4 198 -7.029
101 F4 199 -5.564
101 F4 200 -3.611
101 F4 201 -2.635
101 F4 202 -2.146
101 F4 203 -1.658
101 F4 204 -0.682
101 F4 205 -1.170
101 F4 206 -3.123
101 F4 207 -5.564
101 F4 208 -7.029
101 F4 209 -6.541
101 F4 210 -5.564
101 F4 211 -4.588
101 F4 212 -6.053
101 F4 213 -9.471
101 F4 214 -11.912
101 F4 215 -12.400
101 F4 216 -11.424
101 F4 217 -10.447
101 F4 218 -11.424
101 F4 219 -13.377
101 F4 220 -14.353
101 F4 221 -12.889
101 F4 222 -9.471
101 F4 223 -5.076
101 F4 224 -3.611
101 F4 225 -5.076
101 F4 226 -8.006
101 F4 227 -9.471
101 F4 228 -9.471
101 F4 229 -7.517
101 F4 230 -6.053
101 F4 231 -5.564
101 F4 232 -5.564
101 F4 233 -5.564
101 F4 234 -5.076
101 F4 235 -5.564
101 F4 236 -6.541
101 F4 237 -8.006
101 F4 238 -8.006
101 F4 239 -5.076
101 F4 240 -2.146
101 F4 241 -1.170
101 F4 242 -2.635
101 F4 243 -6.541
101 F4 244 -9.959
101 F4 245 -10.447
101 F4 246 -8.982
101 F4 247 -6.541
101 F4 248 -5.564
101 F4 249 -6.053
101 F4 250 -6.541
101 F4 251 -5.564
101 F4 252 -3.611
101 F4 253 -2.146
101 F4 254 -2.146
101 F4 255 -3.611
# F3 chan 8
101 F3 0 -3.876
101 F3 1 -6.317
101 F3 2 -6.317
101 F3 3 -4.852
101 F3 4 -3.387
101 F3 5 -3.876
101 F3 6 -3.876
101 F3 7 -3.387
101 F3 8 -0.946
101 F3 9 1.984
101 F3 10 3.448
101 F3 11 2.960
101 F3 12 0.519
101 F3 13 -1.923
101 F3 14 -2.899
101 F3 15 -2.899
101 F3 16 -2.411
101 F3 17 -2.411
101 F3 18 -2.411
101 F3 19 -1.923
101 F3 20 -0.946
101 F3 21 0.031
101 F3 22 1.007
101 F3 23 0.519
101 F3 24 -0.458
101 F3 25 -1.434
101 F3 26 -1.923
101 F3 27 -0.458
101 F3 28 1.007
101 F3 29 1.984
101 F3 30 1.007
101 F3 31 -0.946
101 F3 32 -2.411
101 F3 33 -2.899
101 F3 34 -1.923
101 F3 35 -0.946
101 F3 36 -1.923
101 F3 37 -5.829
101 F3 38 -10.223
101 F3 39 -12.177
101 F3 40 -10.223
101 F3 41 -4.852
101 F3 42 0.031
101 F3 43 1.984
101 F3 44 1.007
101 F3 45 -0.946
101 F3 46 -0.458
101 F3 47 1.984
101 F3 48 5.402
101 F3 49 6.866
101 F3 50 3.937
101 F3 51 -0.458
101 F3 52 -2.899
101 F3 53 -2.411
101 F3 54 1.495
101 F3 55 5.402
101 F3 56 6.378
101 F3 57 4.425
101 F3 58 0.519
101 F3 59 -2.899
101 F3 60 -3.876
101 F3 61 -1.923
101 F3 62 0.031
101 F3 63 -0.458
101 F3 64 -3.387
101 F3 65 -8.270
101 F3 66 -12.665
101 F3 67 -14.130
101 F3 68 -12.665
101 F3 69 -10.223
101 F3 70 -8.759
101 F3 71 -9.735
101 F3 72 -11.688
101 F3 73 -13.153
101 F3 74 -11.688
101 F3 75 -8.759
101 F3 76 -5.341
101 F3 77 -4.364
101 F3 78 -5.829
101 F3 79 -8.270
101 F3 80 -10.223
101 F3 81 -9.735
101 F3 82 -8.759
101 F3 83 -6.805
101 F3 84 -5.829
101 F3 85 -5.341
101 F3 86 -4.852
101 F3 87 -4.364
101 F3 88 -3.876
101 F3 89 -4.364
101 F3 90 -6.317
101 F3 91 -8.270
101 F3 92 -9.247
101 F3 93 -8.759
101 F3 94 -6.805
101 F3 95 -4.852
101 F3 96 -3.387
101 F3 97 -2.411
101 F3 98 -1.923
101 F3 99 -1.434
101 F3 100 -0.946
101 F3 101 -0.946
101 F3 102 -1.923
101 F3 103 -2.899
101 F3 104 -3.876
101 F3 105 -5.341
101 F3 106 -7.294
101 F3 107 -9.735
101 F3 108 -11.200
101 F3 109 -11.688
101 F3 110 -10.712
101 F3 111 -8.759
101 F3 112 -7.782
101 F3 113 -7.294
101 F3 114 -7.782
101 F3 115 -8.270
101 F3 116 -6.805
101 F3 117 -4.364
101 F3 118 -2.411
101 F3 119 -0.946
101 F3 120 -0.458
101 F3 121 -0.458
101 F3 122 -0.946
101 F3 123 -1.434
101 F3 124 -2.411
101 F3 125 -3.876
101 F3 126 -5.341
101 F3 127 -6.805
101 F3 128 -6.317
101 F3 129 -5.829
101 F3 130 -4.852
101 F3 131 -4.364
101 F3 132 -4.364
101 F3 133 -3.876
101 F3 134 -3.387
101 F3 135 -2.899
101 F3 136 -3.876
101 F3 137 -5.829
101 F3 138 -7.782
101 F3 139 -8.759
101 F3 140 -8.270
101 F3 141 -5.829
101 F3 142 -4.364
101 F3 143 -3.876
101 F3 144 -4.364
101 F3 145 -4.364
101 F3 146 -3.876
101 F3 147 -1.923
101 F3 148 0.031
101 F3 149 1.495
101 F3 150 2.472
101 F3 151 2.472
101 F3 152 1.007
101 F3 153 -0.946
101 F3 154 -2.899
101 F3 155 -3.876
101 F3 156 -3.387
101 F3 157 -1.434
101 F3 158 0.031
101 F3 159 0.519
101 F3 160 -0.458
101 F3 161 -1.434
101 F3 162 -0.946
101 F3 163 0.031
101 F3 164 1.007
101 F3 165 1.984
101 F3 166 1.984
101 F3 167 1.984
101 F3 168 1.495
101 F3 169 0.519
101 F3 170 -1.434
101 F3 171 -3.876
101 F3 172 -4.852
101 F3 173 -4.852
101 F3 174 -2.899
101 F3 175 -1.923
101 F3 176 -1.434
101 F3 177 -2.411
101 F3 178 -3.876
101 F3 179 -4.364
101 F3 180 -3.876
101 F3 181 -2.899
101 F3 182 -3.387
101 F3 183 -3.876
101 F3 184 -3.876
101 F3 185 -1.923
101 F3 186 1.007
101 F3 187 3.448
101 F3 188 2.472
101 F3 189 -1.434
101 F3 190 -6.805
101 F3 191 -10.223
101 F3 192 -10.223
101 F3 193 -7.294
101 F3 194 -3.876
101 F3 195 -2.411
101 F3 196 -3.876
101 F3 197 -6.317
101 F3 198 -8.270
101 F3 199 -8.759
101 F3 200 -8.270
101 F3 201 -7.294
101 F3 202 -6.317
101 F3 203 -6.317
101 F3 204 -5.829
101 F3 205 -5.829
101 F3 206 -6.317
101 F3 207 -6.805
101 F3 208 -6.805
101 F3 209 -5.341
101 F3 210 -3.387
101 F3 211 -1.923
101 F3 212 -2.899
101 F3 213 -6.317
101 F3 214 -11.200
101 F3 215 -14.618
101 F3 216 -14.618
101 F3 217 -11.688
101 F3 218 -6.317
101 F3 219 -2.411
101 F3 220 -0.946
101 F3 221 -2.411
101 F3 222 -5.341
101 F3 223 -8.270
101 F3 224 -9.735
101 F3 225 -9.735
101 F3 226 -8.270
101 F3 227 -6.317
101 F3 228 -4.364
101 F3 229 -3.876
101 F3 230 -3.387
101 F3 231 -3.876
101 F3 232 -4.852
101 F3 233 -5.829
101 F3 234 -6.317
101 F3 235 -5.829
101 F3 236 -4.852
101 F3 237 -3.876
101 F3 238 -3.387
101 F3 239 -3.876
101 F3 240 -4.852
101 F3 241 -4.852
101 F3 242 -3.876
101 F3 243 -2.411
101 F3 244 -2.899
101 F3 245 -5.829
101 F3 246 -9.247
101 F3 247 -10.712
101 F3 248 -10.223
101 F3 249 -6.317
101 F3 250 -3.387
101 F3 251 -2.411
101 F3 252 -2.899
101 F3 253 -4.852
101 F3 254 -5.829
101 F3 255 -5.341
# FC6 chan 9
101 FC6 0 12.299
101 FC6 1 4.974
101 FC6 2 0.092
101 FC6 3 3.510
101 FC6 4 11.322
101 FC6 5 13.763
101 FC6 6 2.045
101 FC6 7 -19.440
101 FC6 8 -38.483
101 FC6 9 -39.948
101 FC6 10 -21.881
101 FC6 11 4.486
101 FC6 12 22.064
101 FC6 13 23.529
101 FC6 14 12.787
101 FC6 15 2.045
101 FC6 16 -0.397
101 FC6 17 3.021
101 FC6 18 3.510
101 FC6 19 -3.815
101 FC6 20 -15.045
101 FC6 21 -21.881
101 FC6 22 -17.487
101 FC6 23 -4.791
101 FC6 24 7.416
101 FC6 25 11.810
101 FC6 26 7.904
101 FC6 27 1.556
101 FC6 28 1.556
101 FC6 29 6.927
101 FC6 30 13.275
101 FC6 31 12.299
101 FC6 32 -0.397
101 FC6 33 -18.463
101 FC6 34 -31.647
101 FC6 35 -31.158
101 FC6 36 -16.510
101 FC6 37 3.998
101 FC6 38 19.135
101 FC6 39 21.088
101 FC6 40 10.834
101 FC6 41 -3.326
101 FC6 42 -11.139
101 FC6 43 -9.186
101 FC6 44 -0.885
101 FC6 45 6.439
101 FC6 46 7.416
101 FC6 47 2.045
101 FC6 48 -5.280
101 FC6 49 -10.162
101 FC6 50 -10.651
101 FC6 51 -8.698
101 FC6 52 -6.744
101 FC6 53 -5.280
101 FC6 54 -3.815
101 FC6 55 -2.838
101 FC6 56 -2.838
101 FC6 57 -5.768
101 FC6 58 -9.674
101 FC6 59 -13.092
101 FC6 60 -12.604
101 FC6 61 -7.233
101 FC6 62 0.092
101 FC6 63 4.486
101 FC6 64 2.533
101 FC6 65 -6.256
101 FC6 66 -16.510
101 FC6 67 -22.858
101 FC6 68 -23.346
101 FC6 69 -18.463
101 FC6 70 -13.092
101 FC6 71 -10.162
101 FC6 72 -9.674
101 FC6 73 -8.209
101 FC6 74 -3.326
101 FC6 75 2.533
101 FC6 76 3.998
101 FC6 77 -3.326
101 FC6 78 -16.998
101 FC6 79 -27.252
101 FC6 80 -25.299
101 FC6 81 -11.627
101 FC6 82 3.510
101 FC6 83 7.904
101 FC6 84 -3.326
101 FC6 85 -22.369
101 FC6 86 -34.576
101 FC6 87 -32.135
101 FC6 88 -16.998
101 FC6 89 -0.397
101 FC6 90 7.416
101 FC6 91 4.974
101 FC6 92 -1.862
101 FC6 93 -5.280
101 FC6 94 -2.838
101 FC6 95 2.045
101 FC6 96 3.021
101 FC6 97 -2.350
101 FC6 98 -12.604
101 FC6 99 -21.881
101 FC6 100 -26.276
101 FC6 101 -24.323
101 FC6 102 -18.463
101 FC6 103 -13.092
101 FC6 104 -9.674
101 FC6 105 -8.209
101 FC6 106 -5.280
101 FC6 107 -1.373
101 FC6 108 3.021
101 FC6 109 4.974
101 FC6 110 3.021
101 FC6 111 -0.885
101 FC6 112 -4.303
101 FC6 113 -6.256
101 FC6 114 -8.209
101 FC6 115 -11.627
101 FC6 116 -15.533
101 FC6 117 -15.533
101 FC6 118 -8.209
101 FC6 119 3.510
101 FC6 120 11.810
101 FC6 121 9.369
101 FC6 122 -3.815
101 FC6 123 -18.951
101 FC6 124 -24.323
101 FC6 125 -15.045
101 FC6 126 0.580
101 FC6 127 10.834
101 FC6 128 7.416
101 FC6 129 -4.303
101 FC6 130 -14.069
101 FC6 131 -14.557
101 FC6 132 -7.721
101 FC6 133 -3.326
101 FC6 134 -6.256
101 FC6 135 -13.580
101 FC6 136 -16.998
101 FC6 137 -13.092
101 FC6 138 -4.303
101 FC6 139 0.092
101 FC6 140 -3.326
101 FC6 141 -11.139
101 FC6 142 -14.557
101 FC6 143 -8.209
101 FC6 144 3.021
101 FC6 145 9.369
101 FC6 146 3.510
101 FC6 147 -12.115
101 FC6 148 -25.787
101 FC6 149 -26.276
101 FC6 150 -13.580
101 FC6 151 3.510
101 FC6 152 11.810
101 FC6 153 6.927
101 FC6 154 -5.280
101 FC6 155 -14.069
101 FC6 156 -11.627
101 FC6 157 -0.885
101 FC6 158 8.881
101 FC6 159 10.834
101 FC6 160 3.510
101 FC6 161 -8.209
101 FC6 162 -17.487
101 FC6 163 -21.881
101 FC6 164 -21.881
101 FC6 165 -18.951
101 FC6 166 -13.580
101 FC6 167 -7.721
101 FC6 168 -1.862
101 FC6 169 -0.397
101 FC6 170 -2.838
101 FC6 171 -6.744
101 FC6 172 -6.744
101 FC6 173 -0.885
101 FC6 174 7.904
101 FC6 175 12.787
101 FC6 176 8.881
101 FC6 177 -1.862
101 FC6 178 -12.604
101 FC6 179 -16.022
101 FC6 180 -11.627
101 FC6 181 -4.791
101 FC6 182 -2.350
101 FC6 183 -6.744
101 FC6 184 -12.115
101 FC6 185 -13.092
101 FC6 186 -7.233
101 FC6 187 1.068
101 FC6 188 6.927
101 FC6 189 7.416
101 FC6 190 4.486
101 FC6 191 0.580
101 FC6 192 -3.326
101 FC6 193 -7.721
101 FC6 194 -14.069
101 FC6 195 -19.440
101 FC6 196 -20.905
101 FC6 197 -16.998
101 FC6 198 -11.139
101 FC6 199 -8.209
101 FC6 200 -9.674
101 FC6 201 -11.627
101 FC6 202 -11.139
101 FC6 203 -6.744
101 FC6 204 -1.862
101 FC6 205 -1.862
101 FC6 206 -7.721
101 FC6 207 -13.580
101 FC6 208 -14.557
101 FC6 209 -7.721
101 FC6 210 0.580
101 FC6 211 2.045
101 FC6 212 -7.233
101 FC6 213 -21.393
101 FC6 214 -29.694
101 FC6 215 -25.787
101 FC6 216 -12.115
101 FC6 217 -0.885
101 FC6 218 -2.350
101 FC6 219 -16.022
101 FC6 220 -30.670
101 FC6 221 -33.112
101 FC6 222 -20.905
101 FC6 223 -2.838
101 FC6 224 6.927
101 FC6 225 0.092
101 FC6 226 -16.510
101 FC6 227 -31.158
101 FC6 228 -33.112
101 FC6 229 -22.369
101 FC6 230 -8.209
101 FC6 231 0.092
101 FC6 232 -0.885
101 FC6 233 -5.768
101 FC6 234 -11.139
101 FC6 235 -12.604
101 FC6 236 -12.604
101 FC6 237 -11.627
101 FC6 238 -10.651
101 FC6 239 -8.209
101 FC6 240 -5.768
101 FC6 241 -4.791
101 FC6 242 -6.744
101 FC6 243 -10.162
101 FC6 244 -13.092
101 FC6 245 -14.557
101 FC6 246 -15.533
101 FC6 247 -17.487
101 FC6 248 -19.928
101 FC6 249 -18.951
101 FC6 250 -13.580
101 FC6 251 -5.768
101 FC6 252 1.068
101 FC6 253 3.021
101 FC6 254 0.092
101 FC6 255 -4.303
# FC5 chan 10
101 FC5 0 -1.424
101 FC5 1 -2.401
101 FC5 2 -2.401
101 FC5 3 -3.377
101 FC5 4 -6.307
101 FC5 5 -9.237
101 FC5 6 -9.237
101 FC5 7 -4.842
101 FC5 8 1.994
101 FC5 9 7.365
101 FC5 10 7.365
101 FC5 11 3.947
101 FC5 12 1.017
101 FC5 13 0.041
101 FC5 14 -0.448
101 FC5 15 -2.401
101 FC5 16 -6.307
101 FC5 17 -9.237
101 FC5 18 -8.260
101 FC5 19 -3.377
101 FC5 20 1.506
101 FC5 21 2.970
101 FC5 22 -0.448
101 FC5 23 -4.842
101 FC5 24 -7.284
101 FC5 25 -6.307
101 FC5 26 -3.866
101 FC5 27 -2.401
101 FC5 28 -2.401
101 FC5 29 -2.889
101 FC5 30 -2.401
101 FC5 31 0.041
101 FC5 32 4.435
101 FC5 33 8.830
101 FC5 34 10.295
101 FC5 35 6.388
101 FC5 36 -4.354
101 FC5 37 -19.002
101 FC5 38 -31.209
101 FC5 39 -32.674
101 FC5 40 -23.397
101 FC5 41 -7.772
101 FC5 42 4.435
101 FC5 43 6.877
101 FC5 44 2.970
101 FC5 45 -0.448
101 FC5 46 2.482
101 FC5 47 11.271
101 FC5 48 18.107
101 FC5 49 15.666
101 FC5 50 2.482
101 FC5 51 -15.584
101 FC5 52 -26.815
101 FC5 53 -25.350
101 FC5 54 -12.166
101 FC5 55 2.970
101 FC5 56 9.806
101 FC5 57 5.412
101 FC5 58 -6.307
101 FC5 59 -15.584
101 FC5 60 -15.584
101 FC5 61 -6.307
101 FC5 62 5.900
101 FC5 63 10.783
101 FC5 64 4.435
101 FC5 65 -9.237
101 FC5 66 -21.444
101 FC5 67 -24.373
101 FC5 68 -19.002
101 FC5 69 -11.678
101 FC5 70 -8.748
101 FC5 71 -11.190
101 FC5 72 -14.608
101 FC5 73 -12.655
101 FC5 74 -5.819
101 FC5 75 1.017
101 FC5 76 1.994
101 FC5 77 -3.377
101 FC5 78 -10.213
101 FC5 79 -11.678
101 FC5 80 -6.795
101 FC5 81 -1.424
101 FC5 82 -2.889
101 FC5 83 -12.655
101 FC5 84 -23.397
101 FC5 85 -26.815
101 FC5 86 -18.514
101 FC5 87 -4.354
101 FC5 88 6.388
101 FC5 89 5.412
101 FC5 90 -4.354
101 FC5 91 -15.096
101 FC5 92 -20.467
101 FC5 93 -17.049
101 FC5 94 -10.701
101 FC5 95 -6.307
101 FC5 96 -4.842
101 FC5 97 -3.866
101 FC5 98 -0.936
101 FC5 99 3.459
101 FC5 100 6.388
101 FC5 101 4.924
101 FC5 102 0.529
101 FC5 103 -3.866
101 FC5 104 -6.795
101 FC5 105 -9.237
101 FC5 106 -13.143
101 FC5 107 -18.514
101 FC5 108 -21.932
101 FC5 109 -19.002
101 FC5 110 -11.678
101 FC5 111 -4.354
101 FC5 112 -2.401
101 FC5 113 -5.330
101 FC5 114 -8.748
101 FC5 115 -8.748
101 FC5 116 -4.354
101 FC5 117 0.041
101 FC5 118 0.529
101 FC5 119 -1.912
101 FC5 120 -3.866
101 FC5 121 -1.912
101 FC5 122 2.482
101 FC5 123 4.924
101 FC5 124 1.017
101 FC5 125 -8.260
101 FC5 126 -16.561
101 FC5 127 -18.026
101 FC5 128 -12.655
101 FC5 129 -4.842
101 FC5 130 0.041
101 FC5 131 -0.936
101 FC5 132 -2.889
101 FC5 133 -2.401
101 FC5 134 -0.448
101 FC5 135 -0.936
101 FC5 136 -8.260
101 FC5 137 -18.514
101 FC5 138 -24.862
101 FC5 139 -21.444
101 FC5 140 -9.725
101 FC5 141 2.482
101 FC5 142 5.900
101 FC5 143 0.529
101 FC5 144 -6.307
101 FC5 145 -9.237
101 FC5 146 -6.307
101 FC5 147 -1.424
101 FC5 148 0.529
101 FC5 149 0.529
101 FC5 150 -0.448
101 FC5 151 -0.448
101 FC5 152 -3.377
101 FC5 153 -11.190
101 FC5 154 -21.932
101 FC5 155 -27.791
101 FC5 156 -23.397
101 FC5 157 -9.725
101 FC5 158 3.947
101 FC5 159 10.295
101 FC5 160 5.900
101 FC5 161 -2.401
101 FC5 162 -7.284
101 FC5 163 -5.819
101 FC5 164 -0.448
101 FC5 165 2.482
101 FC5 166 1.506
101 FC5 167 -1.424
101 FC5 168 -4.354
101 FC5 169 -7.284
101 FC5 170 -10.213
101 FC5 171 -14.119
101 FC5 172 -16.561
101 FC5 173 -15.584
101 FC5 174 -11.678
101 FC5 175 -8.260
101 FC5 176 -6.795
101 FC5 177 -8.260
101 FC5 178 -9.725
101 FC5 179 -9.237
101 FC5 180 -8.260
101 FC5 181 -7.772
101 FC5 182 -8.748
101 FC5 183 -8.748
101 FC5 184 -4.842
101 FC5 185 2.970
101 FC5 186 11.759
101 FC5 187 14.201
101 FC5 188 7.365
101 FC5 189 -6.795
101 FC5 190 -21.932
101 FC5 191 -28.280
101 FC5 192 -24.373
101 FC5 193 -14.119
101 FC5 194 -5.330
101 FC5 195 -2.401
101 FC5 196 -4.842
101 FC5 197 -8.260
101 FC5 198 -9.237
101 FC5 199 -8.260
101 FC5 200 -9.725
101 FC5 201 -13.631
101 FC5 202 -18.514
101 FC5 203 -19.491
101 FC5 204 -15.096
101 FC5 205 -8.260
101 FC5 206 -4.842
101 FC5 207 -6.795
101 FC5 208 -11.190
101 FC5 209 -13.631
101 FC5 210 -12.166
101 FC5 211 -8.748
101 FC5 212 -9.237
101 FC5 213 -15.096
101 FC5 214 -22.909
101 FC5 215 -26.815
101 FC5 216 -22.909
101 FC5 217 -12.655
101 FC5 218 -1.912
101 FC5 219 2.482
101 FC5 220 -1.424
101 FC5 221 -10.701
101 FC5 222 -20.467
101 FC5 223 -26.326
101 FC5 224 -26.326
101 FC5 225 -22.420
101 FC5 226 -17.537
101 FC5 227 -12.655
101 FC5 228 -8.748
101 FC5 229 -6.795
101 FC5 230 -8.260
101 FC5 231 -13.143
101 FC5 232 -20.467
101 FC5 233 -25.838
101 FC5 234 -24.862
101 FC5 235 -18.026
101 FC5 236 -8.260
101 FC5 237 -2.401
101 FC5 238 -3.866
101 FC5 239 -11.190
101 FC5 240 -18.026
101 FC5 241 -19.491
101 FC5 242 -14.608
101 FC5 243 -8.260
101 FC5 244 -6.307
101 FC5 245 -11.190
101 FC5 246 -19.979
101 FC5 247 -25.838
101 FC5 248 -26.326
101 FC5 249 -21.444
101 FC5 250 -16.561
101 FC5 251 -14.119
101 FC5 252 -15.096
101 FC5 253 -16.561
101 FC5 254 -16.561
101 FC5 255 -15.096
# FC2 chan 11
101 FC2 0 0.020
101 FC2 1 -1.933
101 FC2 2 -2.909
101 FC2 3 -3.398
101 FC2 4 -2.421
101 FC2 5 -1.933
101 FC2 6 -1.933
101 FC2 7 -3.886
101 FC2 8 -4.862
101 FC2 9 -4.862
101 FC2 10 -2.421
101 FC2 11 0.509
101 FC2 12 2.950
101 FC2 13 2.950
101 FC2 14 1.485
101 FC2 15 -0.468
101 FC2 16 -0.956
101 FC2 17 -0.956
101 FC2 18 -0.468
101 FC2 19 -0.468
101 FC2 20 -0.956
101 FC2 21 -1.933
101 FC2 22 -1.444
101 FC2 23 -0.956
101 FC2 24 0.509
101 FC2 25 0.997
101 FC2 26 1.485
101 FC2 27 1.485
101 FC2 28 1.485
101 FC2 29 1.973
101 FC2 30 2.462
101 FC2 31 2.462
101 FC2 32 0.509
101 FC2 33 -1.933
101 FC2 34 -3.886
101 FC2 35 -4.374
101 FC2 36 -2.909
101 FC2 37 -0.468
101 FC2 38 1.485
101 FC2 39 1.973
101 FC2 40 0.020
101 FC2 41 -2.421
101 FC2 42 -3.398
101 FC2 43 -2.909
101 FC2 44 -0.956
101 FC2 45 0.509
101 FC2 46 0.997
101 FC2 47 0.509
101 FC2 48 -0.956
101 FC2 49 -0.956
101 FC2 50 -0.468
101 FC2 51 0.509
101 FC2 52 1.485
101 FC2 53 0.997
101 FC2 54 0.997
101 FC2 55 0.509
101 FC2 56 0.509
101 FC2 57 0.509
101 FC2 58 0.509
101 FC2 59 -0.468
101 FC2 60 -1.933
101 FC2 61 -2.909
101 FC2 62 -2.909
101 FC2 63 -3.398
101 FC2 64 -3.886
101 FC2 65 -5.351
101 FC2 66 -6.816
101 FC2 67 -7.304
101 FC2 68 -6.327
101 FC2 69 -5.351
101 FC2 70 -4.374
101 FC2 71 -3.886
101 FC2 72 -4.862
101 FC2 73 -5.351
101 FC2 74 -4.862
101 FC2 75 -3.886
101 FC2 76 -2.421
101 FC2 77 -2.421
101 FC2 78 -3.398
101 FC2 79 -4.374
101 FC2 80 -4.862
101 FC2 81 -4.862
101 FC2 82 -3.886
101 FC2 83 -3.398
101 FC2 84 -3.886
101 FC2 85 -4.374
101 FC2 86 -4.862
101 FC2 87 -4.862
101 FC2 88 -3.886
101 FC2 89 -3.886
101 FC2 90 -3.398
101 FC2 91 -3.398
101 FC2 92 -3.398
101 FC2 93 -2.909
101 FC2 94 -2.421
101 FC2 95 -1.933
101 FC2 96 -2.909
101 FC2 97 -4.862
101 FC2 98 -6.327
101 FC2 99 -8.280
101 FC2 100 -8.769
101 FC2 101 -8.769
101 FC2 102 -7.792
101 FC2 103 -5.839
101 FC2 104 -3.886
101 FC2 105 -2.909
101 FC2 106 -1.933
101 FC2 107 -2.421
101 FC2 108 -2.909
101 FC2 109 -3.398
101 FC2 110 -3.398
101 FC2 111 -3.398
101 FC2 112 -3.398
101 FC2 113 -2.909
101 FC2 114 -2.909
101 FC2 115 -3.886
101 FC2 116 -4.862
101 FC2 117 -5.351
101 FC2 118 -4.862
101 FC2 119 -3.886
101 FC2 120 -2.421
101 FC2 121 -2.421
101 FC2 122 -3.398
101 FC2 123 -4.374
101 FC2 124 -5.351
101 FC2 125 -4.374
101 FC2 126 -2.909
101 FC2 127 -1.933
101 FC2 128 -2.909
101 FC2 129 -4.374
101 FC2 130 -5.839
101 FC2 131 -5.839
101 FC2 132 -4.862
101 FC2 133 -3.398
101 FC2 134 -3.398
101 FC2 135 -4.374
101 FC2 136 -5.351
101 FC2 137 -5.351
101 FC2 138 -4.862
101 FC2 139 -4.374
101 FC2 140 -4.862
101 FC2 141 -5.839
101 FC2 142 -6.327
101 FC2 143 -5.839
101 FC2 144 -4.374
101 FC2 145 -3.398
101 FC2 146 -3.886
101 FC2 147 -5.351
101 FC2 148 -6.327
101 FC2 149 -5.839
101 FC2 150 -3.886
101 FC2 151 -1.933
101 FC2 152 -0.956
101 FC2 153 -1.444
101 FC2 154 -3.398
101 FC2 155 -4.862
101 FC2 156 -4.862
101 FC2 157 -3.886
101 FC2 158 -2.909
101 FC2 159 -2.421
101 FC2 160 -3.398
101 FC2 161 -4.374
101 FC2 162 -4.862
101 FC2 163 -5.351
101 FC2 164 -4.862
101 FC2 165 -4.374
101 FC2 166 -3.886
101 FC2 167 -3.886
101 FC2 168 -3.886
101 FC2 169 -4.374
101 FC2 170 -4.862
101 FC2 171 -4.862
101 FC2 172 -4.374
101 FC2 173 -3.398
101 FC2 174 -1.933
101 FC2 175 -1.933
101 FC2 176 -1.933
101 FC2 177 -2.909
101 FC2 178 -3.398
101 FC2 179 -3.398
101 FC2 180 -2.421
101 FC2 181 -2.421
101 FC2 182 -2.909
101 FC2 183 -4.374
101 FC2 184 -5.351
101 FC2 185 -5.839
101 FC2 186 -4.862
101 FC2 187 -3.398
101 FC2 188 -2.421
101 FC2 189 -1.933
101 FC2 190 -2.421
101 FC2 191 -2.909
101 FC2 192 -3.398
101 FC2 193 -4.374
101 FC2 194 -5.351
101 FC2 195 -6.816
101 FC2 196 -7.792
101 FC2 197 -8.280
101 FC2 198 -8.280
101 FC2 199 -8.280
101 FC2 200 -7.304
101 FC2 201 -6.816
101 FC2 202 -5.839
101 FC2 203 -4.862
101 FC2 204 -3.886
101 FC2 205 -4.862
101 FC2 206 -6.327
101 FC2 207 -7.792
101 FC2 208 -8.280
101 FC2 209 -7.304
101 FC2 210 -6.327
101 FC2 211 -5.839
101 FC2 212 -7.304
101 FC2 213 -9.257
101 FC2 214 -10.722
101 FC2 215 -10.722
101 FC2 216 -9.745
101 FC2 217 -8.280
101 FC2 218 -8.280
101 FC2 219 -9.745
101 FC2 220 -11.210
101 FC2 221 -11.210
101 FC2 222 -9.745
101 FC2 223 -8.280
101 FC2 224 -6.816
101 FC2 225 -7.304
101 FC2 226 -8.769
101 FC2 227 -9.745
101 FC2 228 -10.234
101 FC2 229 -9.257
101 FC2 230 -8.769
101 FC2 231 -8.280
101 FC2 232 -8.280
101 FC2 233 -8.280
101 FC2 234 -7.792
101 FC2 235 -7.304
101 FC2 236 -7.792
101 FC2 237 -8.280
101 FC2 238 -8.769
101 FC2 239 -8.769
101 FC2 240 -8.280
101 FC2 241 -7.792
101 FC2 242 -8.280
101 FC2 243 -9.745
101 FC2 244 -11.210
101 FC2 245 -11.698
101 FC2 246 -11.698
101 FC2 247 -11.210
101 FC2 248 -10.722
101 FC2 249 -9.745
101 FC2 250 -9.257
101 FC2 251 -8.769
101 FC2 252 -8.280
101 FC2 253 -8.280
101 FC2 254 -7.792
101 FC2 255 -8.280
# FC1 chan 12
101 FC1 0 -2.879
101 FC1 1 -3.367
101 FC1 2 -3.855
101 FC1 3 -3.855
101 FC1 4 -3.855
101 FC1 5 -3.855
101 FC1 6 -3.855
101 FC1 7 -2.391
101 FC1 8 -0.926
101 FC1 9 1.516
101 FC1 10 2.492
101 FC1 11 2.981
101 FC1 12 2.004
101 FC1 13 0.539
101 FC1 14 -0.437
101 FC1 15 -0.926
101 FC1 16 -0.926
101 FC1 17 -0.926
101 FC1 18 -0.926
101 FC1 19 -0.926
101 FC1 20 -0.926
101 FC1 21 -1.414
101 FC1 22 -1.414
101 FC1 23 -1.902
101 FC1 24 -1.902
101 FC1 25 -1.902
101 FC1 26 -1.414
101 FC1 27 -0.437
101 FC1 28 1.027
101 FC1 29 2.004
101 FC1 30 2.004
101 FC1 31 1.516
101 FC1 32 1.027
101 FC1 33 0.539
101 FC1 34 1.027
101 FC1 35 1.027
101 FC1 36 0.051
101 FC1 37 -2.391
101 FC1 38 -5.809
101 FC1 39 -7.762
101 FC1 40 -7.273
101 FC1 41 -5.320
101 FC1 42 -2.391
101 FC1 43 -0.437
101 FC1 44 0.051
101 FC1 45 0.051
101 FC1 46 0.051
101 FC1 47 1.516
101 FC1 48 2.492
101 FC1 49 2.981
101 FC1 50 1.027
101 FC1 51 -0.926
101 FC1 52 -2.391
101 FC1 53 -1.902
101 FC1 54 0.539
101 FC1 55 2.981
101 FC1 56 3.469
101 FC1 57 2.981
101 FC1 58 0.539
101 FC1 59 -1.414
101 FC1 60 -2.391
101 FC1 61 -1.902
101 FC1 62 -0.926
101 FC1 63 -0.926
101 FC1 64 -3.367
101 FC1 65 -6.297
101 FC1 66 -9.226
101 FC1 67 -9.715
101 FC1 68 -8.738
101 FC1 69 -6.785
101 FC1 70 -5.320
101 FC1 71 -5.809
101 FC1 72 -7.273
101 FC1 73 -8.250
101 FC1 74 -7.762
101 FC1 75 -6.297
101 FC1 76 -4.344
101 FC1 77 -3.367
101 FC1 78 -3.855
101 FC1 79 -4.832
101 FC1 80 -5.320
101 FC1 81 -5.320
101 FC1 82 -4.832
101 FC1 83 -4.344
101 FC1 84 -4.344
101 FC1 85 -4.344
101 FC1 86 -3.855
101 FC1 87 -3.367
101 FC1 88 -2.879
101 FC1 89 -2.879
101 FC1 90 -3.855
101 FC1 91 -4.832
101 FC1 92 -5.809
101 FC1 93 -5.809
101 FC1 94 -4.832
101 FC1 95 -3.367
101 FC1 96 -2.391
101 FC1 97 -2.391
101 FC1 98 -2.391
101 FC1 99 -2.879
101 FC1 100 -2.879
101 FC1 101 -3.367
101 FC1 102 -3.367
101 FC1 103 -3.367
101 FC1 104 -3.367
101 FC1 105 -3.855
101 FC1 106 -5.320
101 FC1 107 -7.273
101 FC1 108 -8.250
101 FC1 109 -8.738
101 FC1 110 -8.250
101 FC1 111 -7.273
101 FC1 112 -6.785
101 FC1 113 -6.785
101 FC1 114 -7.273
101 FC1 115 -6.785
101 FC1 116 -5.809
101 FC1 117 -4.832
101 FC1 118 -4.344
101 FC1 119 -4.832
101 FC1 120 -5.320
101 FC1 121 -5.320
101 FC1 122 -5.320
101 FC1 123 -4.344
101 FC1 124 -3.855
101 FC1 125 -3.855
101 FC1 126 -4.344
101 FC1 127 -5.320
101 FC1 128 -5.809
101 FC1 129 -5.809
101 FC1 130 -6.297
101 FC1 131 -6.785
101 FC1 132 -7.273
101 FC1 133 -7.762
101 FC1 134 -6.785
101 FC1 135 -6.297
101 FC1 136 -6.297
101 FC1 137 -7.762
101 FC1 138 -8.738
101 FC1 139 -9.226
101 FC1 140 -8.738
101 FC1 141 -7.273
101 FC1 142 -6.297
101 FC1 143 -6.785
101 FC1 144 -7.273
101 FC1 145 -7.762
101 FC1 146 -7.762
101 FC1 147 -7.273
101 FC1 148 -6.297
101 FC1 149 -5.809
101 FC1 150 -5.320
101 FC1 151 -5.809
101 FC1 152 -6.785
101 FC1 153 -8.250
101 FC1 154 -9.715
101 FC1 155 -10.203
101 FC1 156 -9.226
101 FC1 157 -7.273
101 FC1 158 -5.320
101 FC1 159 -4.344
101 FC1 160 -4.344
101 FC1 161 -4.832
101 FC1 162 -5.320
101 FC1 163 -5.320
101 FC1 164 -5.320
101 FC1 165 -5.320
101 FC1 166 -5.320
101 FC1 167 -5.320
101 FC1 168 -5.809
101 FC1 169 -6.297
101 FC1 170 -6.785
101 FC1 171 -7.762
101 FC1 172 -8.738
101 FC1 173 -7.762
101 FC1 174 -6.297
101 FC1 175 -4.832
101 FC1 176 -4.344
101 FC1 177 -4.832
101 FC1 178 -6.297
101 FC1 179 -7.273
101 FC1 180 -7.273
101 FC1 181 -6.785
101 FC1 182 -6.785
101 FC1 183 -6.297
101 FC1 184 -5.809
101 FC1 185 -5.320
101 FC1 186 -3.855
101 FC1 187 -3.367
101 FC1 188 -3.855
101 FC1 189 -5.320
101 FC1 190 -7.762
101 FC1 191 -9.226
101 FC1 192 -9.226
101 FC1 193 -7.273
101 FC1 194 -5.809
101 FC1 195 -4.832
101 FC1 196 -5.809
101 FC1 197 -6.785
101 FC1 198 -8.250
101 FC1 199 -8.250
101 FC1 200 -8.250
101 FC1 201 -8.250
101 FC1 202 -8.250
101 FC1 203 -8.738
101 FC1 204 -8.250
101 FC1 205 -7.762
101 FC1 206 -7.273
101 FC1 207 -7.273
101 FC1 208 -7.273
101 FC1 209 -7.762
101 FC1 210 -7.762
101 FC1 211 -7.762
101 FC1 212 -7.762
101 FC1 213 -8.738
101 FC1 214 -10.691
101 FC1 215 -11.668
101 FC1 216 -11.668
101 FC1 217 -10.203
101 FC1 218 -8.738
101 FC1 219 -7.273
101 FC1 220 -7.273
101 FC1 221 -8.250
101 FC1 222 -9.715
101 FC1 223 -10.691
101 FC1 224 -10.691
101 FC1 225 -10.691
101 FC1 226 -10.203
101 FC1 227 -9.226
101 FC1 228 -8.738
101 FC1 229 -8.250
101 FC1 230 -7.762
101 FC1 231 -8.738
101 FC1 232 -9.715
101 FC1 233 -10.203
101 FC1 234 -9.715
101 FC1 235 -8.738
101 FC1 236 -7.762
101 FC1 237 -7.273
101 FC1 238 -8.250
101 FC1 239 -9.715
101 FC1 240 -10.691
101 FC1 241 -10.691
101 FC1 242 -9.715
101 FC1 243 -8.738
101 FC1 244 -9.226
101 FC1 245 -10.691
101 FC1 246 -12.644
101 FC1 247 -13.133
101 FC1 248 -12.644
101 FC1 249 -10.691
101 FC1 250 -9.715
101 FC1 251 -9.226
101 FC1 252 -9.715
101 FC1 253 -10.691
101 FC1 254 -10.691
101 FC1 255 -10.203
# T8 chan 13
101 T8 0 1.221
101 T8 1 3.662
101 T8 2 3.662
101 T8 3 0.244
101 T8 4 -3.662
101 T8 5 -6.592
101 T8 6 -6.592
101 T8 7 -4.150
101 T8 8 -0.732
101 T8 9 1.709
101 T8 10 1.221
101 T8 11 -1.221
101 T8 12 -4.150
101 T8 13 -5.127
101 T8 14 -2.686
101 T8 15 1.709
101 T8 16 4.639
101 T8 17 3.662
101 T8 18 -1.221
101 T8 19 -6.592
101 T8 20 -8.545
101 T8 21 -4.639
101 T8 22 2.197
101 T8 23 7.568
101 T8 24 8.057
101 T8 25 4.150
101 T8 26 -0.732
101 T8 27 -3.174
101 T8 28 -2.686
101 T8 29 -1.709
101 T8 30 -3.662
101 T8 31 -9.033
101 T8 32 -13.916
101 T8 33 -14.404
101 T8 34 -10.010
101 T8 35 -4.150
101 T8 36 -0.732
101 T8 37 -2.686
101 T8 38 -6.592
101 T8 39 -8.057
101 T8 40 -4.639
101 T8 41 2.197
101 T8 42 8.057
101 T8 43 9.521
101 T8 44 5.615
101 T8 45 -0.244
101 T8 46 -5.127
101 T8 47 -7.080
101 T8 48 -6.592
101 T8 49 -4.639
101 T8 50 -2.686
101 T8 51 -1.221
101 T8 52 -0.244
101 T8 53 -0.732
101 T8 54 -3.662
101 T8 55 -7.568
101 T8 56 -10.010
101 T8 57 -9.521
101 T8 58 -5.615
101 T8 59 -1.709
101 T8 60 -0.732
101 T8 61 -6.104
101 T8 62 -13.428
101 T8 63 -20.752
101 T8 64 -22.705
101 T8 65 -18.799
101 T8 66 -11.963
101 T8 67 -6.104
101 T8 68 -4.150
101 T8 69 -6.104
101 T8 70 -9.521
101 T8 71 -13.428
101 T8 72 -15.869
101 T8 73 -17.822
101 T8 74 -19.287
101 T8 75 -20.752
101 T8 76 -21.240
101 T8 77 -20.752
101 T8 78 -18.799
101 T8 79 -15.869
101 T8 80 -12.939
101 T8 81 -11.475
101 T8 82 -11.475
101 T8 83 -12.939
101 T8 84 -14.893
101 T8 85 -15.869
101 T8 86 -14.893
101 T8 87 -12.451
101 T8 88 -10.498
101 T8 89 -10.498
101 T8 90 -11.963
101 T8 91 -14.893
101 T8 92 -16.846
101 T8 93 -15.869
101 T8 94 -11.963
101 T8 95 -6.104
101 T8 96 -0.732
101 T8 97 0.244
101 T8 98 -1.709
101 T8 99 -6.592
101 T8 100 -10.986
101 T8 101 -13.428
101 T8 102 -13.428
101 T8 103 -12.939
101 T8 104 -13.428
101 T8 105 -15.381
101 T8 106 -15.869
101 T8 107 -14.893
101 T8 108 -11.963
101 T8 109 -9.521
101 T8 110 -9.033
101 T8 111 -10.986
101 T8 112 -12.939
101 T8 113 -11.963
101 T8 114 -8.545
101 T8 115 -4.150
101 T8 116 -1.709
101 T8 117 -2.197
101 T8 118 -4.639
101 T8 119 -6.592
101 T8 120 -7.080
101 T8 121 -5.615
101 T8 122 -4.150
101 T8 123 -4.639
101 T8 124 -6.104
101 T8 125 -7.080
101 T8 126 -7.080
101 T8 127 -5.615
101 T8 128 -5.127
101 T8 129 -5.615
101 T8 130 -6.592
101 T8 131 -6.592
101 T8 132 -6.104
101 T8 133 -5.615
101 T8 134 -6.592
101 T8 135 -9.033
101 T8 136 -10.986
101 T8 137 -12.451
101 T8 138 -11.475
101 T8 139 -9.521
101 T8 140 -8.545
101 T8 141 -8.545
101 T8 142 -7.568
101 T8 143 -6.104
101 T8 144 -3.662
101 T8 145 -2.686
101 T8 146 -3.662
101 T8 147 -7.080
101 T8 148 -9.033
101 T8 149 -7.568
101 T8 150 -4.639
101 T8 151 -1.221
101 T8 152 -0.732
101 T8 153 -4.150
101 T8 154 -8.545
101 T8 155 -11.963
101 T8 156 -12.451
101 T8 157 -10.986
101 T8 158 -9.033
101 T8 159 -9.033
101 T8 160 -10.986
101 T8 161 -13.428
101 T8 162 -15.381
101 T8 163 -14.404
101 T8 164 -11.475
101 T8 165 -8.545
101 T8 166 -6.592
101 T8 167 -7.568
101 T8 168 -9.521
101 T8 169 -10.498
101 T8 170 -10.010
101 T8 171 -8.057
101 T8 172 -6.592
101 T8 173 -6.592
101 T8 174 -8.057
101 T8 175 -10.010
101 T8 176 -10.010
101 T8 177 -7.568
101 T8 178 -3.662
101 T8 179 -2.197
101 T8 180 -4.639
101 T8 181 -9.033
101 T8 182 -12.451
101 T8 183 -12.939
101 T8 184 -8.545
101 T8 185 -4.150
101 T8 186 -1.709
101 T8 187 -2.686
101 T8 188 -6.104
101 T8 189 -9.033
101 T8 190 -10.010
101 T8 191 -9.521
101 T8 192 -9.521
101 T8 193 -10.010
101 T8 194 -10.010
101 T8 195 -9.521
101 T8 196 -7.568
101 T8 197 -6.104
101 T8 198 -8.057
101 T8 199 -11.963
101 T8 200 -16.357
101 T8 201 -18.799
101 T8 202 -18.311
101 T8 203 -15.381
101 T8 204 -13.428
101 T8 205 -12.939
101 T8 206 -13.916
101 T8 207 -15.381
101 T8 208 -15.381
101 T8 209 -16.357
101 T8 210 -17.334
101 T8 211 -18.311
101 T8 212 -18.311
101 T8 213 -15.869
101 T8 214 -12.451
101 T8 215 -9.521
101 T8 216 -10.010
101 T8 217 -13.916
101 T8 218 -19.775
101 T8 219 -23.682
101 T8 220 -23.193
101 T8 221 -19.775
101 T8 222 -15.381
101 T8 223 -12.451
101 T8 224 -11.475
101 T8 225 -11.963
101 T8 226 -13.428
101 T8 227 -15.381
101 T8 228 -18.311
101 T8 229 -21.240
101 T8 230 -21.729
101 T8 231 -19.287
101 T8 232 -13.916
101 T8 233 -8.057
101 T8 234 -6.104
101 T8 235 -8.057
101 T8 236 -13.428
101 T8 237 -17.822
101 T8 238 -19.287
101 T8 239 -17.334
101 T8 240 -13.916
101 T8 241 -11.475
101 T8 242 -11.475
101 T8 243 -12.939
101 T8 244 -14.404
101 T8 245 -13.428
101 T8 246 -10.498
101 T8 247 -6.592
101 T8 248 -4.639
101 T8 249 -5.615
101 T8 250 -10.010
101 T8 251 -16.357
101 T8 252 -21.729
101 T8 253 -22.705
101 T8 254 -19.775
101 T8 255 -14.893
# T7 chan 14
101 T7 0 -1.363
101 T7 1 -2.340
101 T7 2 -2.340
101 T7 3 -2.828
101 T7 4 -3.316
101 T7 5 -3.316
101 T7 6 -1.363
101 T7 7 1.078
101 T7 8 3.520
101 T7 9 3.520
101 T7 10 1.078
101 T7 11 -2.340
101 T7 12 -4.781
101 T7 13 -4.781
101 T7 14 -2.340
101 T7 15 -0.387
101 T7 16 0.102
101 T7 17 -1.851
101 T7 18 -4.781
101 T7 19 -6.734
101 T7 20 -6.246
101 T7 21 -3.316
101 T7 22 0.590
101 T7 23 3.031
101 T7 24 3.031
101 T7 25 1.078
101 T7 26 -1.851
101 T7 27 -3.805
101 T7 28 -5.269
101 T7 29 -6.246
101 T7 30 -8.199
101 T7 31 -9.664
101 T7 32 -10.640
101 T7 33 -10.152
101 T7 34 -8.687
101 T7 35 -7.222
101 T7 36 -6.734
101 T7 37 -7.711
101 T7 38 -9.664
101 T7 39 -10.152
101 T7 40 -9.176
101 T7 41 -6.246
101 T7 42 -2.340
101 T7 43 1.567
101 T7 44 3.031
101 T7 45 1.567
101 T7 46 -0.875
101 T7 47 -3.805
101 T7 48 -5.758
101 T7 49 -6.246
101 T7 50 -5.269
101 T7 51 -3.316
101 T7 52 -0.387
101 T7 53 2.543
101 T7 54 4.496
101 T7 55 4.008
101 T7 56 -0.387
101 T7 57 -6.734
101 T7 58 -12.105
101 T7 59 -14.058
101 T7 60 -13.082
101 T7 61 -10.152
101 T7 62 -8.199
101 T7 63 -8.687
101 T7 64 -11.129
101 T7 65 -12.594
101 T7 66 -11.617
101 T7 67 -8.687
101 T7 68 -6.246
101 T7 69 -6.246
101 T7 70 -8.687
101 T7 71 -12.594
101 T7 72 -15.523
101 T7 73 -16.012
101 T7 74 -15.035
101 T7 75 -13.570
101 T7 76 -13.570
101 T7 77 -15.035
101 T7 78 -16.988
101 T7 79 -18.453
101 T7 80 -18.453
101 T7 81 -16.500
101 T7 82 -13.570
101 T7 83 -10.152
101 T7 84 -7.711
101 T7 85 -7.222
101 T7 86 -8.199
101 T7 87 -10.640
101 T7 88 -12.105
101 T7 89 -12.105
101 T7 90 -9.664
101 T7 91 -7.222
101 T7 92 -5.758
101 T7 93 -6.246
101 T7 94 -7.711
101 T7 95 -9.176
101 T7 96 -9.176
101 T7 97 -8.199
101 T7 98 -5.758
101 T7 99 -3.805
101 T7 100 -3.316
101 T7 101 -3.805
101 T7 102 -6.246
101 T7 103 -8.687
101 T7 104 -10.152
101 T7 105 -10.152
101 T7 106 -9.176
101 T7 107 -7.711
101 T7 108 -6.734
101 T7 109 -6.734
101 T7 110 -6.734
101 T7 111 -7.222
101 T7 112 -7.711
101 T7 113 -7.711
101 T7 114 -7.711
101 T7 115 -7.222
101 T7 116 -6.246
101 T7 117 -4.781
101 T7 118 -2.340
101 T7 119 -0.875
101 T7 120 -0.875
101 T7 121 -0.875
101 T7 122 -0.875
101 T7 123 0.102
101 T7 124 1.567
101 T7 125 2.055
101 T7 126 1.078
101 T7 127 -1.851
101 T7 128 -4.781
101 T7 129 -6.734
101 T7 130 -7.711
101 T7 131 -7.711
101 T7 132 -7.711
101 T7 133 -6.246
101 T7 134 -2.828
101 T7 135 1.567
101 T7 136 4.985
101 T7 137 5.473
101 T7 138 1.567
101 T7 139 -4.781
101 T7 140 -10.640
101 T7 141 -12.594
101 T7 142 -10.640
101 T7 143 -7.222
101 T7 144 -5.269
101 T7 145 -6.246
101 T7 146 -7.711
101 T7 147 -7.222
101 T7 148 -3.805
101 T7 149 0.590
101 T7 150 3.031
101 T7 151 2.055
101 T7 152 0.102
101 T7 153 -0.875
101 T7 154 0.590
101 T7 155 2.543
101 T7 156 3.520
101 T7 157 0.590
101 T7 158 -3.805
101 T7 159 -7.711
101 T7 160 -8.687
101 T7 161 -7.222
101 T7 162 -5.758
101 T7 163 -5.269
101 T7 164 -5.758
101 T7 165 -6.246
101 T7 166 -5.269
101 T7 167 -2.828
101 T7 168 -1.363
101 T7 169 -1.851
101 T7 170 -3.805
101 T7 171 -5.758
101 T7 172 -7.222
101 T7 173 -7.222
101 T7 174 -6.734
101 T7 175 -6.734
101 T7 176 -6.734
101 T7 177 -6.734
101 T7 178 -6.246
101 T7 179 -5.269
101 T7 180 -3.805
101 T7 181 -2.828
101 T7 182 -2.340
101 T7 183 -2.828
101 T7 184 -2.828
101 T7 185 -2.828
101 T7 186 -2.828
101 T7 187 -2.340
101 T7 188 -1.851
101 T7 189 -2.340
101 T7 190 -4.781
101 T7 191 -7.711
101 T7 192 -10.152
101 T7 193 -11.129
101 T7 194 -9.664
101 T7 195 -6.734
101 T7 196 -4.293
101 T7 197 -3.805
101 T7 198 -5.758
101 T7 199 -9.176
101 T7 200 -11.129
101 T7 201 -11.129
101 T7 202 -9.664
101 T7 203 -8.199
101 T7 204 -7.711
101 T7 205 -8.687
101 T7 206 -10.152
101 T7 207 -10.152
101 T7 208 -10.152
101 T7 209 -9.664
101 T7 210 -10.152
101 T7 211 -11.129
101 T7 212 -11.617
101 T7 213 -10.640
101 T7 214 -9.664
101 T7 215 -9.176
101 T7 216 -10.152
101 T7 217 -12.105
101 T7 218 -14.058
101 T7 219 -13.570
101 T7 220 -11.617
101 T7 221 -9.176
101 T7 222 -8.199
101 T7 223 -8.687
101 T7 224 -9.176
101 T7 225 -8.199
101 T7 226 -6.734
101 T7 227 -7.222
101 T7 228 -10.640
101 T7 229 -15.523
101 T7 230 -19.430
101 T7 231 -20.406
101 T7 232 -16.988
101 T7 233 -12.105
101 T7 234 -9.664
101 T7 235 -10.152
101 T7 236 -12.594
101 T7 237 -14.058
101 T7 238 -13.570
101 T7 239 -11.617
101 T7 240 -11.129
101 T7 241 -12.594
101 T7 242 -14.058
101 T7 243 -15.035
101 T7 244 -14.058
101 T7 245 -12.105
101 T7 246 -10.640
101 T7 247 -10.640
101 T7 248 -11.617
101 T7 249 -11.129
101 T7 250 -10.640
101 T7 251 -10.640
101 T7 252 -12.105
101 T7 253 -15.035
101 T7 254 -17.476
101 T7 255 -18.453
# CZ chan 15
101 CZ 0 -10.986
101 CZ 1 -12.451
101 CZ 2 -11.475
101 CZ 3 -10.498
101 CZ 4 -10.010
101 CZ 5 -9.521
101 CZ 6 -7.568
101 CZ 7 -5.127
101 CZ 8 -3.174
101 CZ 9 -3.174
101 CZ 10 -5.127
101 CZ 11 -7.568
101 CZ 12 -7.080
101 CZ 13 -3.174
101 CZ 14 1.709
101 CZ 15 4.150
101 CZ 16 2.686
101 CZ 17 -2.686
101 CZ 18 -7.080
101 CZ 19 -7.568
101 CZ 20 -3.174
101 CZ 21 2.686
101 CZ 22 6.104
101 CZ 23 5.127
101 CZ 24 0.732
101 CZ 25 -4.150
101 CZ 26 -7.080
101 CZ 27 -7.080
101 CZ 28 -6.592
101 CZ 29 -7.080
101 CZ 30 -9.521
101 CZ 31 -12.939
101 CZ 32 -15.381
101 CZ 33 -15.869
101 CZ 34 -15.381
101 CZ 35 -13.916
101 CZ 36 -13.428
101 CZ 37 -13.428
101 CZ 38 -12.939
101 CZ 39 -12.939
101 CZ 40 -11.475
101 CZ 41 -9.033
101 CZ 42 -5.615
101 CZ 43 -2.686
101 CZ 44 -1.221
101 CZ 45 -2.197
101 CZ 46 -5.615
101 CZ 47 -9.521
101 CZ 48 -11.475
101 CZ 49 -10.498
101 CZ 50 -7.080
101 CZ 51 -4.639
101 CZ 52 -4.639
101 CZ 53 -7.568
101 CZ 54 -11.475
101 CZ 55 -13.428
101 CZ 56 -12.939
101 CZ 57 -10.986
101 CZ 58 -9.521
101 CZ 59 -10.498
101 CZ 60 -13.428
101 CZ 61 -16.357
101 CZ 62 -17.822
101 CZ 63 -17.334
101 CZ 64 -16.846
101 CZ 65 -17.822
101 CZ 66 -20.752
101 CZ 67 -24.658
101 CZ 68 -29.541
101 CZ 69 -33.447
101 CZ 70 -36.377
101 CZ 71 -37.842
101 CZ 72 -39.307
101 CZ 73 -39.307
101 CZ 74 -39.307
101 CZ 75 -39.307
101 CZ 76 -39.307
101 CZ 77 -39.795
101 CZ 78 -41.260
101 CZ 79 -43.213
101 CZ 80 -44.678
101 CZ 81 -45.166
101 CZ 82 -43.701
101 CZ 83 -41.748
101 CZ 84 -39.307
101 CZ 85 -37.842
101 CZ 86 -37.354
101 CZ 87 -36.377
101 CZ 88 -34.424
101 CZ 89 -31.494
101 CZ 90 -28.564
101 CZ 91 -26.611
101 CZ 92 -26.611
101 CZ 93 -27.100
101 CZ 94 -27.588
101 CZ 95 -28.076
101 CZ 96 -27.588
101 CZ 97 -26.611
101 CZ 98 -25.146
101 CZ 99 -23.193
101 CZ 100 -22.217
101 CZ 101 -22.217
101 CZ 102 -25.146
101 CZ 103 -29.541
101 CZ 104 -33.936
101 CZ 105 -36.865
101 CZ 106 -35.889
101 CZ 107 -32.959
101 CZ 108 -29.541
101 CZ 109 -27.100
101 CZ 110 -26.611
101 CZ 111 -27.588
101 CZ 112 -28.564
101 CZ 113 -29.541
101 CZ 114 -29.541
101 CZ 115 -28.564
101 CZ 116 -27.588
101 CZ 117 -26.611
101 CZ 118 -26.611
101 CZ 119 -28.076
101 CZ 120 -29.541
101 CZ 121 -30.029
101 CZ 122 -27.588
101 CZ 123 -23.193
101 CZ 124 -17.822
101 CZ 125 -15.381
101 CZ 126 -16.357
101 CZ 127 -20.264
101 CZ 128 -23.682
101 CZ 129 -24.658
101 CZ 130 -23.193
101 CZ 131 -20.264
101 CZ 132 -18.311
101 CZ 133 -18.311
101 CZ 134 -19.775
101 CZ 135 -21.240
101 CZ 136 -21.240
101 CZ 137 -20.264
101 CZ 138 -19.287
101 CZ 139 -19.775
101 CZ 140 -21.729
101 CZ 141 -24.658
101 CZ 142 -26.123
101 CZ 143 -26.123
101 CZ 144 -24.170
101 CZ 145 -22.217
101 CZ 146 -20.264
101 CZ 147 -19.287
101 CZ 148 -18.799
101 CZ 149 -19.287
101 CZ 150 -19.775
101 CZ 151 -20.264
101 CZ 152 -20.752
101 CZ 153 -20.264
101 CZ 154 -18.799
101 CZ 155 -16.846
101 CZ 156 -15.869
101 CZ 157 -16.357
101 CZ 158 -19.775
101 CZ 159 -24.170
101 CZ 160 -28.564
101 CZ 161 -31.006
101 CZ 162 -30.518
101 CZ 163 -28.076
101 CZ 164 -24.170
101 CZ 165 -21.240
101 CZ 166 -20.264
101 CZ 167 -22.217
101 CZ 168 -25.146
101 CZ 169 -27.100
101 CZ 170 -26.611
101 CZ 171 -24.658
101 CZ 172 -23.193
101 CZ 173 -24.170
101 CZ 174 -27.100
101 CZ 175 -30.029
101 CZ 176 -31.006
101 CZ 177 -29.053
101 CZ 178 -26.611
101 CZ 179 -25.635
101 CZ 180 -27.588
101 CZ 181 -30.518
101 CZ 182 -31.006
101 CZ 183 -28.076
101 CZ 184 -24.658
101 CZ 185 -23.193
101 CZ 186 -25.146
101 CZ 187 -28.076
101 CZ 188 -29.541
101 CZ 189 -27.100
101 CZ 190 -23.193
101 CZ 191 -21.729
101 CZ 192 -24.658
101 CZ 193 -31.006
101 CZ 194 -35.400
101 CZ 195 -35.400
101 CZ 196 -31.006
101 CZ 197 -27.588
101 CZ 198 -27.588
101 CZ 199 -31.982
101 CZ 200 -36.377
101 CZ 201 -38.330
101 CZ 202 -35.400
101 CZ 203 -31.494
101 CZ 204 -29.541
101 CZ 205 -30.518
101 CZ 206 -33.447
101 CZ 207 -36.377
101 CZ 208 -38.330
101 CZ 209 -39.307
101 CZ 210 -40.771
101 CZ 211 -42.236
101 CZ 212 -42.236
101 CZ 213 -40.283
101 CZ 214 -37.842
101 CZ 215 -36.865
101 CZ 216 -40.283
101 CZ 217 -46.631
101 CZ 218 -51.514
101 CZ 219 -51.514
101 CZ 220 -44.678
101 CZ 221 -34.424
101 CZ 222 -26.611
101 CZ 223 -25.635
101 CZ 224 -31.982
101 CZ 225 -40.771
101 CZ 226 -46.631
101 CZ 227 -46.631
101 CZ 228 -42.236
101 CZ 229 -37.842
101 CZ 230 -36.865
101 CZ 231 -39.307
101 CZ 232 -42.236
101 CZ 233 -42.236
101 CZ 234 -39.307
101 CZ 235 -36.377
101 CZ 236 -35.889
101 CZ 237 -38.330
101 CZ 238 -42.236
101 CZ 239 -44.678
101 CZ 240 -43.701
101 CZ 241 -40.771
101 CZ 242 -37.354
101 CZ 243 -35.400
101 CZ 244 -34.912
101 CZ 245 -34.424
101 CZ 246 -33.447
101 CZ 247 -32.471
101 CZ 248 -32.471
101 CZ 249 -34.912
101 CZ 250 -38.818
101 CZ 251 -43.213
101 CZ 252 -45.654
101 CZ 253 -45.654
101 CZ 254 -44.189
101 CZ 255 -41.748
# C3 chan 16
101 C3 0 -0.041
101 C3 1 0.448
101 C3 2 0.936
101 C3 3 0.936
101 C3 4 0.448
101 C3 5 -0.041
101 C3 6 0.936
101 C3 7 3.377
101 C3 8 5.819
101 C3 9 6.307
101 C3 10 4.842
101 C3 11 1.424
101 C3 12 -1.506
101 C3 13 -2.970
101 C3 14 -2.482
101 C3 15 -1.017
101 C3 16 -0.529
101 C3 17 -0.041
101 C3 18 -0.529
101 C3 19 -0.529
101 C3 20 -0.041
101 C3 21 0.448
101 C3 22 0.448
101 C3 23 0.448
101 C3 24 0.448
101 C3 25 -0.041
101 C3 26 0.448
101 C3 27 0.448
101 C3 28 0.448
101 C3 29 0.448
101 C3 30 -0.041
101 C3 31 -0.529
101 C3 32 -0.529
101 C3 33 0.448
101 C3 34 2.401
101 C3 35 2.401
101 C3 36 -0.041
101 C3 37 -4.435
101 C3 38 -8.830
101 C3 39 -11.271
101 C3 40 -9.806
101 C3 41 -5.412
101 C3 42 -2.482
101 C3 43 -1.017
101 C3 44 -2.482
101 C3 45 -3.459
101 C3 46 -3.459
101 C3 47 -1.506
101 C3 48 0.448
101 C3 49 0.936
101 C3 50 -1.017
101 C3 51 -3.459
101 C3 52 -4.924
101 C3 53 -4.924
101 C3 54 -2.970
101 C3 55 -1.017
101 C3 56 0.448
101 C3 57 -0.041
101 C3 58 -1.994
101 C3 59 -3.459
101 C3 60 -3.947
101 C3 61 -3.459
101 C3 62 -1.017
101 C3 63 0.448
101 C3 64 0.448
101 C3 65 -1.017
101 C3 66 -2.970
101 C3 67 -3.947
101 C3 68 -2.970
101 C3 69 -1.994
101 C3 70 -0.529
101 C3 71 -0.529
101 C3 72 -1.017
101 C3 73 -1.994
101 C3 74 -2.482
101 C3 75 -2.970
101 C3 76 -3.459
101 C3 77 -3.947
101 C3 78 -4.435
101 C3 79 -3.947
101 C3 80 -2.482
101 C3 81 -1.994
101 C3 82 -1.994
101 C3 83 -2.970
101 C3 84 -2.970
101 C3 85 -2.482
101 C3 86 -1.017
101 C3 87 0.448
101 C3 88 1.424
101 C3 89 0.936
101 C3 90 -0.041
101 C3 91 -1.506
101 C3 92 -2.970
101 C3 93 -3.947
101 C3 94 -3.947
101 C3 95 -3.947
101 C3 96 -2.482
101 C3 97 -0.529
101 C3 98 1.912
101 C3 99 3.866
101 C3 100 4.354
101 C3 101 3.377
101 C3 102 1.912
101 C3 103 0.448
101 C3 104 -1.017
101 C3 105 -1.994
101 C3 106 -3.947
101 C3 107 -5.900
101 C3 108 -7.365
101 C3 109 -7.365
101 C3 110 -5.900
101 C3 111 -3.947
101 C3 112 -2.482
101 C3 113 -1.994
101 C3 114 -1.994
101 C3 115 -1.994
101 C3 116 -1.017
101 C3 117 -0.041
101 C3 118 -0.041
101 C3 119 -0.529
101 C3 120 -1.017
101 C3 121 -1.506
101 C3 122 -0.529
101 C3 123 0.936
101 C3 124 1.424
101 C3 125 0.448
101 C3 126 -1.017
101 C3 127 -1.994
101 C3 128 -1.994
101 C3 129 -1.506
101 C3 130 -1.506
101 C3 131 -1.017
101 C3 132 -1.017
101 C3 133 -0.529
101 C3 134 -0.041
101 C3 135 0.936
101 C3 136 0.448
101 C3 137 -1.017
101 C3 138 -1.994
101 C3 139 -1.994
101 C3 140 -0.529
101 C3 141 -0.041
101 C3 142 -0.041
101 C3 143 -1.506
101 C3 144 -2.482
101 C3 145 -1.994
101 C3 146 -0.041
101 C3 147 1.424
101 C3 148 1.912
101 C3 149 1.424
101 C3 150 -0.041
101 C3 151 -1.017
101 C3 152 -1.506
101 C3 153 -2.482
101 C3 154 -3.459
101 C3 155 -3.947
101 C3 156 -2.970
101 C3 157 -1.506
101 C3 158 0.448
101 C3 159 1.424
101 C3 160 0.936
101 C3 161 -0.041
101 C3 162 -1.017
101 C3 163 -1.017
101 C3 164 -0.529
101 C3 165 -1.017
101 C3 166 -1.506
101 C3 167 -1.994
101 C3 168 -1.994
101 C3 169 -1.506
101 C3 170 -1.994
101 C3 171 -2.482
101 C3 172 -2.970
101 C3 173 -2.482
101 C3 174 -1.506
101 C3 175 -0.041
101 C3 176 0.448
101 C3 177 -0.529
101 C3 178 -2.482
101 C3 179 -3.459
101 C3 180 -3.947
101 C3 181 -3.459
101 C3 182 -2.970
101 C3 183 -1.994
101 C3 184 -1.506
101 C3 185 -0.041
101 C3 186 0.936
101 C3 187 1.912
101 C3 188 1.424
101 C3 189 -0.529
101 C3 190 -3.459
101 C3 191 -5.412
101 C3 192 -5.412
101 C3 193 -3.947
101 C3 194 -1.994
101 C3 195 -0.529
101 C3 196 -0.529
101 C3 197 -0.529
101 C3 198 -0.529
101 C3 199 -0.529
101 C3 200 -1.017
101 C3 201 -2.482
101 C3 202 -4.924
101 C3 203 -6.877
101 C3 204 -6.877
101 C3 205 -5.412
101 C3 206 -2.482
101 C3 207 -0.529
101 C3 208 -0.529
101 C3 209 -1.994
101 C3 210 -3.947
101 C3 211 -4.924
101 C3 212 -4.924
101 C3 213 -4.924
101 C3 214 -4.435
101 C3 215 -3.947
101 C3 216 -3.459
101 C3 217 -2.482
101 C3 218 -1.994
101 C3 219 -1.506
101 C3 220 -2.482
101 C3 221 -3.947
101 C3 222 -4.924
101 C3 223 -4.924
101 C3 224 -4.435
101 C3 225 -4.435
101 C3 226 -5.412
101 C3 227 -6.388
101 C3 228 -7.853
101 C3 229 -7.365
101 C3 230 -7.365
101 C3 231 -6.877
101 C3 232 -7.853
101 C3 233 -8.830
101 C3 234 -8.830
101 C3 235 -7.853
101 C3 236 -6.388
101 C3 237 -5.412
101 C3 238 -5.412
101 C3 239 -6.877
101 C3 240 -8.830
101 C3 241 -8.830
101 C3 242 -8.341
101 C3 243 -6.877
101 C3 244 -6.388
101 C3 245 -6.388
101 C3 246 -6.877
101 C3 247 -7.365
101 C3 248 -6.877
101 C3 249 -6.388
101 C3 250 -6.388
101 C3 251 -6.877
101 C3 252 -7.365
101 C3 253 -7.853
101 C3 254 -7.365
101 C3 255 -6.877
# C4 chan 17
101 C4 0 2.014
101 C4 1 0.061
101 C4 2 -1.892
101 C4 3 -1.404
101 C4 4 0.549
101 C4 5 2.991
101 C4 6 2.502
101 C4 7 -0.916
101 C4 8 -5.798
101 C4 9 -7.263
101 C4 10 -5.310
101 C4 11 -0.427
101 C4 12 2.991
101 C4 13 3.479
101 C4 14 1.038
101 C4 15 -1.404
101 C4 16 -2.380
101 C4 17 -1.892
101 C4 18 -0.916
101 C4 19 -0.916
101 C4 20 -3.357
101 C4 21 -5.310
101 C4 22 -4.822
101 C4 23 -2.380
101 C4 24 1.526
101 C4 25 4.456
101 C4 26 4.456
101 C4 27 2.014
101 C4 28 -0.916
101 C4 29 -2.869
101 C4 30 -3.357
101 C4 31 -2.869
101 C4 32 -2.869
101 C4 33 -4.333
101 C4 34 -6.775
101 C4 35 -7.751
101 C4 36 -5.310
101 C4 37 -0.427
101 C4 38 4.456
101 C4 39 6.897
101 C4 40 5.432
101 C4 41 1.038
101 C4 42 -2.869
101 C4 43 -3.845
101 C4 44 -2.380
101 C4 45 -0.427
101 C4 46 0.549
101 C4 47 -0.916
101 C4 48 -3.357
101 C4 49 -4.822
101 C4 50 -4.822
101 C4 51 -3.357
101 C4 52 -2.380
101 C4 53 -2.869
101 C4 54 -4.822
101 C4 55 -5.798
101 C4 56 -6.287
101 C4 57 -5.310
101 C4 58 -4.333
101 C4 59 -4.822
101 C4 60 -6.775
101 C4 61 -8.240
101 C4 62 -8.728
101 C4 63 -7.263
101 C4 64 -5.310
101 C4 65 -4.333
101 C4 66 -5.310
101 C4 67 -6.775
101 C4 68 -8.240
101 C4 69 -8.240
101 C4 70 -7.751
101 C4 71 -6.287
101 C4 72 -6.775
101 C4 73 -6.775
101 C4 74 -7.263
101 C4 75 -6.775
101 C4 76 -5.310
101 C4 77 -4.822
101 C4 78 -5.798
101 C4 79 -8.240
101 C4 80 -9.705
101 C4 81 -10.193
101 C4 82 -9.216
101 C4 83 -8.728
101 C4 84 -8.728
101 C4 85 -9.705
101 C4 86 -10.681
101 C4 87 -10.681
101 C4 88 -9.705
101 C4 89 -7.751
101 C4 90 -6.287
101 C4 91 -5.310
101 C4 92 -4.822
101 C4 93 -4.333
101 C4 94 -3.845
101 C4 95 -4.333
101 C4 96 -6.287
101 C4 97 -9.705
101 C4 98 -13.123
101 C4 99 -15.564
101 C4 100 -16.052
101 C4 101 -14.587
101 C4 102 -12.146
101 C4 103 -10.193
101 C4 104 -9.216
101 C4 105 -9.705
101 C4 106 -9.216
101 C4 107 -8.240
101 C4 108 -7.263
101 C4 109 -6.287
101 C4 110 -6.287
101 C4 111 -6.775
101 C4 112 -6.775
101 C4 113 -5.310
101 C4 114 -4.333
101 C4 115 -5.310
101 C4 116 -7.263
101 C4 117 -10.193
101 C4 118 -11.169
101 C4 119 -10.193
101 C4 120 -7.751
101 C4 121 -5.798
101 C4 122 -6.775
101 C4 123 -8.728
101 C4 124 -11.169
101 C4 125 -11.169
101 C4 126 -9.705
101 C4 127 -7.751
101 C4 128 -7.751
101 C4 129 -8.728
101 C4 130 -10.681
101 C4 131 -11.658
101 C4 132 -11.169
101 C4 133 -10.193
101 C4 134 -9.705
101 C4 135 -9.705
101 C4 136 -9.705
101 C4 137 -9.705
101 C4 138 -9.216
101 C4 139 -9.216
101 C4 140 -10.193
101 C4 141 -10.681
101 C4 142 -11.169
101 C4 143 -10.193
101 C4 144 -9.216
101 C4 145 -8.728
101 C4 146 -9.705
101 C4 147 -11.169
101 C4 148 -12.146
101 C4 149 -12.146
101 C4 150 -11.658
101 C4 151 -10.193
101 C4 152 -9.705
101 C4 153 -9.705
101 C4 154 -10.193
101 C4 155 -10.681
101 C4 156 -10.193
101 C4 157 -10.193
101 C4 158 -10.193
101 C4 159 -11.169
101 C4 160 -12.634
101 C4 161 -13.123
101 C4 162 -13.611
101 C4 163 -13.611
101 C4 164 -13.123
101 C4 165 -12.634
101 C4 166 -12.146
101 C4 167 -11.658
101 C4 168 -11.658
101 C4 169 -11.658
101 C4 170 -12.146
101 C4 171 -12.146
101 C4 172 -11.169
101 C4 173 -9.216
101 C4 174 -7.263
101 C4 175 -6.775
101 C4 176 -7.751
101 C4 177 -9.705
101 C4 178 -10.681
101 C4 179 -10.193
101 C4 180 -9.216
101 C4 181 -7.751
101 C4 182 -8.240
101 C4 183 -9.705
101 C4 184 -11.658
101 C4 185 -13.123
101 C4 186 -13.611
101 C4 187 -13.123
101 C4 188 -12.146
101 C4 189 -11.169
101 C4 190 -9.705
101 C4 191 -9.216
101 C4 192 -9.216
101 C4 193 -10.681
101 C4 194 -13.123
101 C4 195 -15.564
101 C4 196 -17.029
101 C4 197 -16.541
101 C4 198 -15.076
101 C4 199 -13.123
101 C4 200 -12.634
101 C4 201 -12.146
101 C4 202 -11.658
101 C4 203 -11.169
101 C4 204 -11.169
101 C4 205 -12.634
101 C4 206 -15.076
101 C4 207 -18.005
101 C4 208 -18.982
101 C4 209 -17.517
101 C4 210 -14.587
101 C4 211 -13.123
101 C4 212 -13.611
101 C4 213 -16.052
101 C4 214 -17.517
101 C4 215 -17.517
101 C4 216 -15.076
101 C4 217 -12.634
101 C4 218 -13.123
101 C4 219 -16.052
101 C4 220 -19.958
101 C4 221 -20.935
101 C4 222 -18.982
101 C4 223 -15.564
101 C4 224 -13.611
101 C4 225 -14.099
101 C4 226 -17.029
101 C4 227 -19.958
101 C4 228 -20.447
101 C4 229 -18.494
101 C4 230 -15.564
101 C4 231 -13.611
101 C4 232 -13.611
101 C4 233 -14.099
101 C4 234 -14.587
101 C4 235 -14.099
101 C4 236 -14.587
101 C4 237 -15.076
101 C4 238 -16.052
101 C4 239 -16.541
101 C4 240 -16.052
101 C4 241 -15.564
101 C4 242 -15.076
101 C4 243 -16.052
101 C4 244 -16.541
101 C4 245 -17.029
101 C4 246 -16.541
101 C4 247 -15.564
101 C4 248 -14.587
101 C4 249 -14.099
101 C4 250 -13.123
101 C4 251 -12.634
101 C4 252 -12.146
101 C4 253 -12.146
101 C4 254 -13.611
101 C4 255 -15.564
# CP5 chan 18
101 CP5 0 -1.475
101 CP5 1 -0.987
101 CP5 2 0.478
101 CP5 3 2.431
101 CP5 4 3.408
101 CP5 5 3.408
101 CP5 6 3.896
101 CP5 7 5.849
101 CP5 8 7.314
101 CP5 9 7.802
101 CP5 10 5.361
101 CP5 11 1.455
101 CP5 12 -1.963
101 CP5 13 -3.916
101 CP5 14 -3.916
101 CP5 15 -2.940
101 CP5 16 -2.452
101 CP5 17 -2.452
101 CP5 18 -2.452
101 CP5 19 -1.963
101 CP5 20 -0.498
101 CP5 21 1.455
101 CP5 22 2.920
101 CP5 23 3.408
101 CP5 24 2.920
101 CP5 25 1.455
101 CP5 26 0.478
101 CP5 27 -0.498
101 CP5 28 -1.963
101 CP5 29 -3.916
101 CP5 30 -6.358
101 CP5 31 -8.799
101 CP5 32 -9.776
101 CP5 33 -8.311
101 CP5 34 -5.381
101 CP5 35 -2.452
101 CP5 36 -1.963
101 CP5 37 -3.916
101 CP5 38 -6.846
101 CP5 39 -8.799
101 CP5 40 -7.334
101 CP5 41 -4.893
101 CP5 42 -1.475
101 CP5 43 -0.010
101 CP5 44 -0.010
101 CP5 45 -1.475
101 CP5 46 -2.940
101 CP5 47 -3.428
101 CP5 48 -3.428
101 CP5 49 -2.940
101 CP5 50 -1.963
101 CP5 51 -1.475
101 CP5 52 -0.010
101 CP5 53 1.455
101 CP5 54 2.920
101 CP5 55 2.920
101 CP5 56 1.455
101 CP5 57 -0.987
101 CP5 58 -3.428
101 CP5 59 -5.870
101 CP5 60 -7.334
101 CP5 61 -6.846
101 CP5 62 -5.381
101 CP5 63 -3.428
101 CP5 64 -1.475
101 CP5 65 -0.498
101 CP5 66 -0.987
101 CP5 67 -1.475
101 CP5 68 -1.963
101 CP5 69 -1.963
101 CP5 70 -2.452
101 CP5 71 -2.940
101 CP5 72 -3.916
101 CP5 73 -5.381
101 CP5 74 -6.846
101 CP5 75 -8.311
101 CP5 76 -8.799
101 CP5 77 -8.311
101 CP5 78 -6.846
101 CP5 79 -5.381
101 CP5 80 -3.916
101 CP5 81 -3.916
101 CP5 82 -3.916
101 CP5 83 -3.916
101 CP5 84 -2.452
101 CP5 85 -1.475
101 CP5 86 -1.475
101 CP5 87 -3.428
101 CP5 88 -5.381
101 CP5 89 -5.870
101 CP5 90 -4.893
101 CP5 91 -2.452
101 CP5 92 -0.498
101 CP5 93 -0.498
101 CP5 94 -1.963
101 CP5 95 -3.428
101 CP5 96 -3.428
101 CP5 97 -1.475
101 CP5 98 1.943
101 CP5 99 5.361
101 CP5 100 6.826
101 CP5 101 5.849
101 CP5 102 3.408
101 CP5 103 -0.010
101 CP5 104 -3.428
101 CP5 105 -4.893
101 CP5 106 -4.893
101 CP5 107 -3.916
101 CP5 108 -2.452
101 CP5 109 -0.987
101 CP5 110 -0.498
101 CP5 111 0.478
101 CP5 112 0.478
101 CP5 113 1.455
101 CP5 114 2.431
101 CP5 115 3.408
101 CP5 116 3.896
101 CP5 117 4.384
101 CP5 118 3.408
101 CP5 119 2.920
101 CP5 120 2.431
101 CP5 121 2.920
101 CP5 122 3.896
101 CP5 123 5.849
101 CP5 124 7.802
101 CP5 125 8.291
101 CP5 126 8.291
101 CP5 127 7.314
101 CP5 128 6.337
101 CP5 129 6.337
101 CP5 130 5.849
101 CP5 131 6.337
101 CP5 132 6.826
101 CP5 133 7.802
101 CP5 134 9.267
101 CP5 135 9.755
101 CP5 136 9.755
101 CP5 137 8.779
101 CP5 138 7.314
101 CP5 139 6.337
101 CP5 140 5.361
101 CP5 141 4.384
101 CP5 142 3.408
101 CP5 143 2.431
101 CP5 144 1.455
101 CP5 145 1.455
101 CP5 146 2.431
101 CP5 147 4.384
101 CP5 148 6.826
101 CP5 149 8.291
101 CP5 150 7.314
101 CP5 151 5.361
101 CP5 152 3.896
101 CP5 153 3.408
101 CP5 154 4.384
101 CP5 155 6.337
101 CP5 156 7.802
101 CP5 157 7.802
101 CP5 158 6.337
101 CP5 159 4.384
101 CP5 160 3.896
101 CP5 161 4.384
101 CP5 162 5.849
101 CP5 163 6.826
101 CP5 164 6.826
101 CP5 165 5.849
101 CP5 166 4.384
101 CP5 167 3.408
101 CP5 168 3.896
101 CP5 169 5.361
101 CP5 170 6.826
101 CP5 171 8.291
101 CP5 172 8.779
101 CP5 173 8.779
101 CP5 174 8.291
101 CP5 175 7.802
101 CP5 176 7.314
101 CP5 177 6.826
101 CP5 178 6.826
101 CP5 179 6.337
101 CP5 180 6.337
101 CP5 181 6.826
101 CP5 182 7.802
101 CP5 183 7.802
101 CP5 184 8.291
101 CP5 185 7.802
101 CP5 186 7.802
101 CP5 187 8.291
101 CP5 188 9.267
101 CP5 189 10.244
101 CP5 190 9.267
101 CP5 191 7.802
101 CP5 192 5.361
101 CP5 193 4.384
101 CP5 194 4.873
101 CP5 195 6.826
101 CP5 196 8.291
101 CP5 197 8.291
101 CP5 198 7.802
101 CP5 199 6.826
101 CP5 200 6.337
101 CP5 201 6.826
101 CP5 202 6.337
101 CP5 203 4.873
101 CP5 204 2.920
101 CP5 205 1.943
101 CP5 206 3.408
101 CP5 207 5.849
101 CP5 208 8.291
101 CP5 209 7.802
101 CP5 210 5.361
101 CP5 211 2.431
101 CP5 212 1.943
101 CP5 213 3.408
101 CP5 214 6.337
101 CP5 215 9.267
101 CP5 216 9.267
101 CP5 217 7.802
101 CP5 218 4.873
101 CP5 219 3.408
101 CP5 220 3.408
101 CP5 221 4.873
101 CP5 222 6.337
101 CP5 223 7.802
101 CP5 224 8.291
101 CP5 225 8.291
101 CP5 226 7.314
101 CP5 227 5.849
101 CP5 228 3.408
101 CP5 229 1.455
101 CP5 230 -0.010
101 CP5 231 -0.010
101 CP5 232 0.478
101 CP5 233 1.455
101 CP5 234 1.943
101 CP5 235 1.943
101 CP5 236 1.943
101 CP5 237 1.943
101 CP5 238 2.431
101 CP5 239 2.920
101 CP5 240 3.408
101 CP5 241 2.920
101 CP5 242 3.408
101 CP5 243 4.384
101 CP5 244 5.849
101 CP5 245 6.826
101 CP5 246 7.314
101 CP5 247 7.314
101 CP5 248 7.314
101 CP5 249 7.314
101 CP5 250 7.314
101 CP5 251 7.314
101 CP5 252 5.849
101 CP5 253 3.408
101 CP5 254 0.966
101 CP5 255 -0.498
# CP6 chan 19
101 CP6 0 -4.293
101 CP6 1 -3.805
101 CP6 2 -2.828
101 CP6 3 -0.875
101 CP6 4 1.078
101 CP6 5 2.055
101 CP6 6 1.567
101 CP6 7 -0.387
101 CP6 8 -3.316
101 CP6 9 -4.293
101 CP6 10 -3.805
101 CP6 11 -2.340
101 CP6 12 -0.875
101 CP6 13 -0.875
101 CP6 14 -2.340
101 CP6 15 -3.316
101 CP6 16 -3.316
101 CP6 17 -2.340
101 CP6 18 -0.875
101 CP6 19 0.590
101 CP6 20 0.590
101 CP6 21 0.102
101 CP6 22 0.590
101 CP6 23 2.055
101 CP6 24 4.008
101 CP6 25 5.473
101 CP6 26 4.496
101 CP6 27 2.543
101 CP6 28 -1.363
101 CP6 29 -4.781
101 CP6 30 -7.222
101 CP6 31 -8.199
101 CP6 32 -8.687
101 CP6 33 -9.176
101 CP6 34 -9.664
101 CP6 35 -9.176
101 CP6 36 -7.222
101 CP6 37 -3.805
101 CP6 38 0.102
101 CP6 39 2.543
101 CP6 40 2.543
101 CP6 41 0.590
101 CP6 42 -0.875
101 CP6 43 -1.363
101 CP6 44 -0.875
101 CP6 45 -0.387
101 CP6 46 -1.851
101 CP6 47 -3.316
101 CP6 48 -5.269
101 CP6 49 -5.269
101 CP6 50 -3.805
101 CP6 51 -1.851
101 CP6 52 -0.875
101 CP6 53 -1.851
101 CP6 54 -3.805
101 CP6 55 -5.758
101 CP6 56 -6.734
101 CP6 57 -6.734
101 CP6 58 -5.269
101 CP6 59 -5.758
101 CP6 60 -7.222
101 CP6 61 -9.664
101 CP6 62 -10.640
101 CP6 63 -10.640
101 CP6 64 -8.687
101 CP6 65 -6.734
101 CP6 66 -6.246
101 CP6 67 -7.222
101 CP6 68 -8.687
101 CP6 69 -10.152
101 CP6 70 -9.664
101 CP6 71 -8.199
101 CP6 72 -7.711
101 CP6 73 -8.687
101 CP6 74 -10.152
101 CP6 75 -10.640
101 CP6 76 -10.152
101 CP6 77 -8.687
101 CP6 78 -7.222
101 CP6 79 -7.222
101 CP6 80 -9.176
101 CP6 81 -11.617
101 CP6 82 -14.058
101 CP6 83 -14.547
101 CP6 84 -13.082
101 CP6 85 -10.640
101 CP6 86 -8.687
101 CP6 87 -7.711
101 CP6 88 -7.711
101 CP6 89 -7.222
101 CP6 90 -6.734
101 CP6 91 -5.269
101 CP6 92 -4.293
101 CP6 93 -4.293
101 CP6 94 -5.269
101 CP6 95 -6.734
101 CP6 96 -8.687
101 CP6 97 -11.129
101 CP6 98 -12.105
101 CP6 99 -12.594
101 CP6 100 -11.617
101 CP6 101 -10.152
101 CP6 102 -9.176
101 CP6 103 -9.176
101 CP6 104 -11.129
101 CP6 105 -12.594
101 CP6 106 -13.082
101 CP6 107 -12.105
101 CP6 108 -10.152
101 CP6 109 -8.199
101 CP6 110 -7.222
101 CP6 111 -6.734
101 CP6 112 -6.246
101 CP6 113 -5.269
101 CP6 114 -4.293
101 CP6 115 -4.781
101 CP6 116 -6.734
101 CP6 117 -9.176
101 CP6 118 -11.129
101 CP6 119 -10.640
101 CP6 120 -8.687
101 CP6 121 -6.246
101 CP6 122 -5.758
101 CP6 123 -6.246
101 CP6 124 -7.222
101 CP6 125 -8.199
101 CP6 126 -8.199
101 CP6 127 -7.711
101 CP6 128 -7.711
101 CP6 129 -8.199
101 CP6 130 -9.176
101 CP6 131 -9.176
101 CP6 132 -9.176
101 CP6 133 -8.199
101 CP6 134 -7.711
101 CP6 135 -7.222
101 CP6 136 -7.711
101 CP6 137 -8.199
101 CP6 138 -9.176
101 CP6 139 -10.152
101 CP6 140 -10.152
101 CP6 141 -9.176
101 CP6 142 -7.711
101 CP6 143 -7.222
101 CP6 144 -8.199
101 CP6 145 -10.152
101 CP6 146 -11.617
101 CP6 147 -12.105
101 CP6 148 -11.129
101 CP6 149 -10.152
101 CP6 150 -10.152
101 CP6 151 -11.617
101 CP6 152 -13.082
101 CP6 153 -13.570
101 CP6 154 -12.594
101 CP6 155 -10.640
101 CP6 156 -9.664
101 CP6 157 -10.152
101 CP6 158 -12.594
101 CP6 159 -15.523
101 CP6 160 -16.988
101 CP6 161 -16.500
101 CP6 162 -14.547
101 CP6 163 -13.082
101 CP6 164 -12.105
101 CP6 165 -12.105
101 CP6 166 -12.594
101 CP6 167 -12.594
101 CP6 168 -12.105
101 CP6 169 -11.129
101 CP6 170 -10.152
101 CP6 171 -9.176
101 CP6 172 -8.199
101 CP6 173 -7.711
101 CP6 174 -8.199
101 CP6 175 -9.176
101 CP6 176 -11.129
101 CP6 177 -12.105
101 CP6 178 -12.105
101 CP6 179 -11.129
101 CP6 180 -9.664
101 CP6 181 -8.199
101 CP6 182 -8.199
101 CP6 183 -8.199
101 CP6 184 -9.176
101 CP6 185 -10.152
101 CP6 186 -11.129
101 CP6 187 -12.594
101 CP6 188 -13.570
101 CP6 189 -13.082
101 CP6 190 -11.617
101 CP6 191 -9.664
101 CP6 192 -9.176
101 CP6 193 -10.640
101 CP6 194 -12.594
101 CP6 195 -14.547
101 CP6 196 -15.035
101 CP6 197 -13.570
101 CP6 198 -12.594
101 CP6 199 -11.617
101 CP6 200 -11.129
101 CP6 201 -11.129
101 CP6 202 -11.129
101 CP6 203 -10.640
101 CP6 204 -11.129
101 CP6 205 -13.082
101 CP6 206 -15.523
101 CP6 207 -18.453
101 CP6 208 -19.918
101 CP6 209 -19.430
101 CP6 210 -17.476
101 CP6 211 -15.523
101 CP6 212 -15.035
101 CP6 213 -15.523
101 CP6 214 -16.500
101 CP6 215 -16.012
101 CP6 216 -15.035
101 CP6 217 -14.058
101 CP6 218 -14.547
101 CP6 219 -16.012
101 CP6 220 -17.965
101 CP6 221 -18.941
101 CP6 222 -17.476
101 CP6 223 -16.012
101 CP6 224 -15.035
101 CP6 225 -15.035
101 CP6 226 -16.500
101 CP6 227 -17.476
101 CP6 228 -17.965
101 CP6 229 -16.988
101 CP6 230 -16.500
101 CP6 231 -16.012
101 CP6 232 -16.012
101 CP6 233 -16.012
101 CP6 234 -15.523
101 CP6 235 -15.035
101 CP6 236 -15.035
101 CP6 237 -15.523
101 CP6 238 -16.500
101 CP6 239 -16.500
101 CP6 240 -16.012
101 CP6 241 -15.035
101 CP6 242 -14.058
101 CP6 243 -14.058
101 CP6 244 -14.547
101 CP6 245 -14.058
101 CP6 246 -12.594
101 CP6 247 -11.129
101 CP6 248 -10.152
101 CP6 249 -10.152
101 CP6 250 -11.617
101 CP6 251 -12.594
101 CP6 252 -13.570
101 CP6 253 -13.570
101 CP6 254 -14.547
101 CP6 255 -16.500
# CP1 chan 20
101 CP1 0 0.112
101 CP1 1 1.088
101 CP1 2 1.577
101 CP1 3 2.065
101 CP1 4 2.553
101 CP1 5 2.553
101 CP1 6 3.042
101 CP1 7 3.530
101 CP1 8 4.018
101 CP1 9 3.530
101 CP1 10 1.088
101 CP1 11 -0.865
101 CP1 12 -2.330
101 CP1 13 -2.818
101 CP1 14 -2.330
101 CP1 15 -1.841
101 CP1 16 -1.353
101 CP1 17 -0.865
101 CP1 18 -0.376
101 CP1 19 0.600
101 CP1 20 0.600
101 CP1 21 0.600
101 CP1 22 0.112
101 CP1 23 -0.376
101 CP1 24 -0.376
101 CP1 25 0.600
101 CP1 26 1.088
101 CP1 27 1.088
101 CP1 28 0.600
101 CP1 29 -0.865
101 CP1 30 -2.330
101 CP1 31 -3.306
101 CP1 32 -3.306
101 CP1 33 -2.330
101 CP1 34 -1.841
101 CP1 35 -1.353
101 CP1 36 -2.818
101 CP1 37 -4.283
101 CP1 38 -5.259
101 CP1 39 -5.747
101 CP1 40 -4.771
101 CP1 41 -3.794
101 CP1 42 -2.818
101 CP1 43 -2.330
101 CP1 44 -2.818
101 CP1 45 -3.306
101 CP1 46 -3.306
101 CP1 47 -3.794
101 CP1 48 -4.283
101 CP1 49 -4.283
101 CP1 50 -4.283
101 CP1 51 -3.794
101 CP1 52 -2.818
101 CP1 53 -1.353
101 CP1 54 -0.376
101 CP1 55 0.112
101 CP1 56 -0.376
101 CP1 57 -0.865
101 CP1 58 -1.353
101 CP1 59 -2.330
101 CP1 60 -3.306
101 CP1 61 -3.794
101 CP1 62 -3.306
101 CP1 63 -2.330
101 CP1 64 -1.353
101 CP1 65 0.112
101 CP1 66 0.600
101 CP1 67 1.088
101 CP1 68 1.088
101 CP1 69 1.088
101 CP1 70 0.600
101 CP1 71 0.112
101 CP1 72 -0.376
101 CP1 73 -0.376
101 CP1 74 -0.865
101 CP1 75 -1.353
101 CP1 76 -2.330
101 CP1 77 -2.818
101 CP1 78 -2.818
101 CP1 79 -2.818
101 CP1 80 -2.330
101 CP1 81 -2.818
101 CP1 82 -3.306
101 CP1 83 -3.306
101 CP1 84 -2.818
101 CP1 85 -1.353
101 CP1 86 -0.376
101 CP1 87 -0.376
101 CP1 88 -1.353
101 CP1 89 -2.330
101 CP1 90 -2.818
101 CP1 91 -2.330
101 CP1 92 -1.353
101 CP1 93 -1.353
101 CP1 94 -1.841
101 CP1 95 -2.330
101 CP1 96 -2.330
101 CP1 97 -1.353
101 CP1 98 0.600
101 CP1 99 2.065
101 CP1 100 3.042
101 CP1 101 2.553
101 CP1 102 1.088
101 CP1 103 -0.376
101 CP1 104 -2.330
101 CP1 105 -3.306
101 CP1 106 -4.283
101 CP1 107 -4.283
101 CP1 108 -3.794
101 CP1 109 -2.818
101 CP1 110 -1.841
101 CP1 111 -0.865
101 CP1 112 -0.376
101 CP1 113 -0.865
101 CP1 114 -0.865
101 CP1 115 -0.865
101 CP1 116 -0.865
101 CP1 117 -0.865
101 CP1 118 -1.353
101 CP1 119 -2.330
101 CP1 120 -2.818
101 CP1 121 -2.818
101 CP1 122 -1.841
101 CP1 123 -0.376
101 CP1 124 0.112
101 CP1 125 0.112
101 CP1 126 -0.376
101 CP1 127 -0.865
101 CP1 128 -0.865
101 CP1 129 -0.865
101 CP1 130 -1.353
101 CP1 131 -0.865
101 CP1 132 -0.376
101 CP1 133 0.600
101 CP1 134 1.577
101 CP1 135 2.065
101 CP1 136 1.577
101 CP1 137 0.600
101 CP1 138 -0.376
101 CP1 139 -0.865
101 CP1 140 -0.865
101 CP1 141 -0.865
101 CP1 142 -1.841
101 CP1 143 -2.818
101 CP1 144 -3.794
101 CP1 145 -4.283
101 CP1 146 -3.306
101 CP1 147 -2.330
101 CP1 148 -1.353
101 CP1 149 -0.865
101 CP1 150 -0.865
101 CP1 151 -1.353
101 CP1 152 -1.841
101 CP1 153 -2.818
101 CP1 154 -2.818
101 CP1 155 -2.818
101 CP1 156 -2.330
101 CP1 157 -1.841
101 CP1 158 -1.841
101 CP1 159 -1.841
101 CP1 160 -2.818
101 CP1 161 -3.306
101 CP1 162 -3.794
101 CP1 163 -3.794
101 CP1 164 -3.306
101 CP1 165 -3.306
101 CP1 166 -3.794
101 CP1 167 -3.794
101 CP1 168 -3.794
101 CP1 169 -3.306
101 CP1 170 -2.818
101 CP1 171 -2.330
101 CP1 172 -2.330
101 CP1 173 -1.841
101 CP1 174 -1.841
101 CP1 175 -1.841
101 CP1 176 -2.330
101 CP1 177 -2.330
101 CP1 178 -2.818
101 CP1 179 -2.818
101 CP1 180 -2.818
101 CP1 181 -2.818
101 CP1 182 -2.330
101 CP1 183 -2.330
101 CP1 184 -1.841
101 CP1 185 -1.841
101 CP1 186 -1.353
101 CP1 187 -1.353
101 CP1 188 -1.841
101 CP1 189 -2.330
101 CP1 190 -2.818
101 CP1 191 -3.306
101 CP1 192 -2.818
101 CP1 193 -2.330
101 CP1 194 -1.353
101 CP1 195 -0.376
101 CP1 196 0.112
101 CP1 197 0.112
101 CP1 198 -0.376
101 CP1 199 -0.376
101 CP1 200 -0.865
101 CP1 201 -1.353
101 CP1 202 -2.330
101 CP1 203 -3.306
101 CP1 204 -4.283
101 CP1 205 -4.283
101 CP1 206 -3.306
101 CP1 207 -2.330
101 CP1 208 -1.841
101 CP1 209 -2.330
101 CP1 210 -3.306
101 CP1 211 -4.283
101 CP1 212 -4.771
101 CP1 213 -3.794
101 CP1 214 -2.330
101 CP1 215 -1.353
101 CP1 216 -1.353
101 CP1 217 -2.330
101 CP1 218 -3.306
101 CP1 219 -4.283
101 CP1 220 -4.771
101 CP1 221 -4.771
101 CP1 222 -4.771
101 CP1 223 -3.794
101 CP1 224 -2.818
101 CP1 225 -2.818
101 CP1 226 -3.306
101 CP1 227 -4.283
101 CP1 228 -5.747
101 CP1 229 -6.724
101 CP1 230 -7.212
101 CP1 231 -7.701
101 CP1 232 -7.212
101 CP1 233 -7.212
101 CP1 234 -6.724
101 CP1 235 -6.724
101 CP1 236 -6.236
101 CP1 237 -6.236
101 CP1 238 -6.724
101 CP1 239 -6.724
101 CP1 240 -6.236
101 CP1 241 -6.236
101 CP1 242 -5.259
101 CP1 243 -4.771
101 CP1 244 -4.283
101 CP1 245 -4.283
101 CP1 246 -4.283
101 CP1 247 -3.794
101 CP1 248 -3.306
101 CP1 249 -2.818
101 CP1 250 -2.818
101 CP1 251 -3.306
101 CP1 252 -4.771
101 CP1 253 -5.259
101 CP1 254 -5.259
101 CP1 255 -5.747
# CP2 chan 21
101 CP2 0 1.200
101 CP2 1 1.689
101 CP2 2 2.177
101 CP2 3 2.665
101 CP2 4 3.153
101 CP2 5 3.642
101 CP2 6 3.642
101 CP2 7 2.665
101 CP2 8 1.200
101 CP2 9 0.224
101 CP2 10 -0.264
101 CP2 11 -0.753
101 CP2 12 -0.264
101 CP2 13 -0.264
101 CP2 14 -0.264
101 CP2 15 0.224
101 CP2 16 0.224
101 CP2 17 0.712
101 CP2 18 1.200
101 CP2 19 1.689
101 CP2 20 1.200
101 CP2 21 0.712
101 CP2 22 1.200
101 CP2 23 1.689
101 CP2 24 3.153
101 CP2 25 4.130
101 CP2 26 4.130
101 CP2 27 3.642
101 CP2 28 1.689
101 CP2 29 -0.264
101 CP2 30 -1.241
101 CP2 31 -2.218
101 CP2 32 -2.218
101 CP2 33 -2.706
101 CP2 34 -2.706
101 CP2 35 -2.706
101 CP2 36 -1.241
101 CP2 37 0.224
101 CP2 38 2.177
101 CP2 39 3.153
101 CP2 40 2.665
101 CP2 41 1.689
101 CP2 42 0.712
101 CP2 43 0.224
101 CP2 44 0.224
101 CP2 45 0.224
101 CP2 46 -0.753
101 CP2 47 -1.729
101 CP2 48 -2.706
101 CP2 49 -2.706
101 CP2 50 -2.218
101 CP2 51 -1.241
101 CP2 52 -0.264
101 CP2 53 0.224
101 CP2 54 0.224
101 CP2 55 0.224
101 CP2 56 -0.264
101 CP2 57 -0.264
101 CP2 58 -1.241
101 CP2 59 -2.218
101 CP2 60 -3.682
101 CP2 61 -4.659
101 CP2 62 -5.147
101 CP2 63 -4.171
101 CP2 64 -2.218
101 CP2 65 -0.264
101 CP2 66 1.200
101 CP2 67 1.200
101 CP2 68 0.712
101 CP2 69 0.224
101 CP2 70 0.224
101 CP2 71 0.712
101 CP2 72 0.712
101 CP2 73 1.200
101 CP2 74 0.712
101 CP2 75 0.224
101 CP2 76 -0.264
101 CP2 77 -0.753
101 CP2 78 -1.241
101 CP2 79 -1.729
101 CP2 80 -2.218
101 CP2 81 -3.194
101 CP2 82 -3.682
101 CP2 83 -3.682
101 CP2 84 -3.194
101 CP2 85 -2.706
101 CP2 86 -1.729
101 CP2 87 -1.241
101 CP2 88 -1.241
101 CP2 89 -0.753
101 CP2 90 -0.753
101 CP2 91 -0.264
101 CP2 92 0.224
101 CP2 93 0.712
101 CP2 94 0.224
101 CP2 95 -0.753
101 CP2 96 -2.218
101 CP2 97 -3.194
101 CP2 98 -3.682
101 CP2 99 -3.682
101 CP2 100 -2.706
101 CP2 101 -2.218
101 CP2 102 -2.218
101 CP2 103 -2.706
101 CP2 104 -3.682
101 CP2 105 -4.171
101 CP2 106 -4.659
101 CP2 107 -3.682
101 CP2 108 -2.218
101 CP2 109 -0.753
101 CP2 110 0.224
101 CP2 111 0.712
101 CP2 112 1.200
101 CP2 113 1.200
101 CP2 114 1.689
101 CP2 115 1.200
101 CP2 116 -0.264
101 CP2 117 -1.729
101 CP2 118 -3.194
101 CP2 119 -3.194
101 CP2 120 -3.194
101 CP2 121 -2.706
101 CP2 122 -2.706
101 CP2 123 -2.706
101 CP2 124 -2.218
101 CP2 125 -2.218
101 CP2 126 -1.241
101 CP2 127 -1.241
101 CP2 128 -1.729
101 CP2 129 -2.218
101 CP2 130 -2.218
101 CP2 131 -1.729
101 CP2 132 -1.241
101 CP2 133 -0.264
101 CP2 134 0.712
101 CP2 135 0.712
101 CP2 136 0.712
101 CP2 137 0.224
101 CP2 138 -0.264
101 CP2 139 -1.241
101 CP2 140 -1.729
101 CP2 141 -2.218
101 CP2 142 -2.218
101 CP2 143 -2.218
101 CP2 144 -2.218
101 CP2 145 -2.706
101 CP2 146 -3.682
101 CP2 147 -4.659
101 CP2 148 -4.171
101 CP2 149 -3.682
101 CP2 150 -3.194
101 CP2 151 -3.194
101 CP2 152 -3.682
101 CP2 153 -4.171
101 CP2 154 -3.682
101 CP2 155 -3.194
101 CP2 156 -2.706
101 CP2 157 -3.194
101 CP2 158 -4.171
101 CP2 159 -5.147
101 CP2 160 -5.636
101 CP2 161 -5.636
101 CP2 162 -5.147
101 CP2 163 -4.659
101 CP2 164 -4.659
101 CP2 165 -4.659
101 CP2 166 -4.659
101 CP2 167 -4.171
101 CP2 168 -3.194
101 CP2 169 -2.706
101 CP2 170 -2.218
101 CP2 171 -1.729
101 CP2 172 -1.241
101 CP2 173 -1.241
101 CP2 174 -1.241
101 CP2 175 -1.729
101 CP2 176 -2.706
101 CP2 177 -3.194
101 CP2 178 -3.194
101 CP2 179 -2.218
101 CP2 180 -2.218
101 CP2 181 -1.729
101 CP2 182 -2.218
101 CP2 183 -3.194
101 CP2 184 -3.194
101 CP2 185 -3.682
101 CP2 186 -3.682
101 CP2 187 -4.171
101 CP2 188 -4.171
101 CP2 189 -3.682
101 CP2 190 -2.706
101 CP2 191 -1.729
101 CP2 192 -1.729
101 CP2 193 -2.218
101 CP2 194 -3.194
101 CP2 195 -3.682
101 CP2 196 -3.194
101 CP2 197 -2.706
101 CP2 198 -2.706
101 CP2 199 -2.218
101 CP2 200 -2.706
101 CP2 201 -1.729
101 CP2 202 -1.241
101 CP2 203 -1.241
101 CP2 204 -1.729
101 CP2 205 -3.194
101 CP2 206 -4.659
101 CP2 207 -5.147
101 CP2 208 -5.147
101 CP2 209 -4.659
101 CP2 210 -4.171
101 CP2 211 -4.659
101 CP2 212 -4.659
101 CP2 213 -5.147
101 CP2 214 -4.659
101 CP2 215 -3.682
101 CP2 216 -2.706
101 CP2 217 -2.706
101 CP2 218 -4.171
101 CP2 219 -6.124
101 CP2 220 -7.589
101 CP2 221 -7.589
101 CP2 222 -6.612
101 CP2 223 -4.171
101 CP2 224 -2.706
101 CP2 225 -2.706
101 CP2 226 -3.682
101 CP2 227 -5.147
101 CP2 228 -6.124
101 CP2 229 -6.612
101 CP2 230 -6.124
101 CP2 231 -6.124
101 CP2 232 -6.124
101 CP2 233 -6.124
101 CP2 234 -6.124
101 CP2 235 -6.612
101 CP2 236 -7.100
101 CP2 237 -7.589
101 CP2 238 -7.589
101 CP2 239 -7.100
101 CP2 240 -6.612
101 CP2 241 -6.124
101 CP2 242 -5.636
101 CP2 243 -5.636
101 CP2 244 -5.636
101 CP2 245 -5.636
101 CP2 246 -4.659
101 CP2 247 -3.682
101 CP2 248 -2.706
101 CP2 249 -2.706
101 CP2 250 -3.194
101 CP2 251 -3.682
101 CP2 252 -4.659
101 CP2 253 -4.659
101 CP2 254 -5.636
101 CP2 255 -6.124
# P3 chan 22
101 P3 0 -0.865
101 P3 1 0.112
101 P3 2 1.577
101 P3 3 2.553
101 P3 4 3.042
101 P3 5 3.042
101 P3 6 3.530
101 P3 7 3.530
101 P3 8 3.530
101 P3 9 2.065
101 P3 10 -0.865
101 P3 11 -3.306
101 P3 12 -4.771
101 P3 13 -4.771
101 P3 14 -3.306
101 P3 15 -2.330
101 P3 16 -1.841
101 P3 17 -1.353
101 P3 18 -1.353
101 P3 19 -1.353
101 P3 20 -0.865
101 P3 21 -0.376
101 P3 22 -0.865
101 P3 23 -1.353
101 P3 24 -1.353
101 P3 25 -1.841
101 P3 26 -1.841
101 P3 27 -2.818
101 P3 28 -4.771
101 P3 29 -7.701
101 P3 30 -10.142
101 P3 31 -11.607
101 P3 32 -11.119
101 P3 33 -9.654
101 P3 34 -8.677
101 P3 35 -9.165
101 P3 36 -11.119
101 P3 37 -12.583
101 P3 38 -13.072
101 P3 39 -12.095
101 P3 40 -10.630
101 P3 41 -8.677
101 P3 42 -8.189
101 P3 43 -8.189
101 P3 44 -8.189
101 P3 45 -9.165
101 P3 46 -9.654
101 P3 47 -11.119
101 P3 48 -12.095
101 P3 49 -12.095
101 P3 50 -10.630
101 P3 51 -8.677
101 P3 52 -6.236
101 P3 53 -4.283
101 P3 54 -3.794
101 P3 55 -4.283
101 P3 56 -5.747
101 P3 57 -7.701
101 P3 58 -9.165
101 P3 59 -10.630
101 P3 60 -11.607
101 P3 61 -12.095
101 P3 62 -11.607
101 P3 63 -10.142
101 P3 64 -8.189
101 P3 65 -5.747
101 P3 66 -3.794
101 P3 67 -3.794
101 P3 68 -4.283
101 P3 69 -5.747
101 P3 70 -7.212
101 P3 71 -8.189
101 P3 72 -8.677
101 P3 73 -8.677
101 P3 74 -9.654
101 P3 75 -10.630
101 P3 76 -12.095
101 P3 77 -13.072
101 P3 78 -13.072
101 P3 79 -12.095
101 P3 80 -11.119
101 P3 81 -10.630
101 P3 82 -10.630
101 P3 83 -10.630
101 P3 84 -10.142
101 P3 85 -8.677
101 P3 86 -8.189
101 P3 87 -8.677
101 P3 88 -10.142
101 P3 89 -11.607
101 P3 90 -12.095
101 P3 91 -11.119
101 P3 92 -10.630
101 P3 93 -10.630
101 P3 94 -11.607
101 P3 95 -12.583
101 P3 96 -11.607
101 P3 97 -10.142
101 P3 98 -6.724
101 P3 99 -4.283
101 P3 100 -3.306
101 P3 101 -4.283
101 P3 102 -6.724
101 P3 103 -9.165
101 P3 104 -11.119
101 P3 105 -12.095
101 P3 106 -12.095
101 P3 107 -11.119
101 P3 108 -9.654
101 P3 109 -8.189
101 P3 110 -6.724
101 P3 111 -5.747
101 P3 112 -5.747
101 P3 113 -5.747
101 P3 114 -6.724
101 P3 115 -7.212
101 P3 116 -7.701
101 P3 117 -7.701
101 P3 118 -8.677
101 P3 119 -9.654
101 P3 120 -11.119
101 P3 121 -11.119
101 P3 122 -10.142
101 P3 123 -8.189
101 P3 124 -6.236
101 P3 125 -5.747
101 P3 126 -6.724
101 P3 127 -7.701
101 P3 128 -8.677
101 P3 129 -8.677
101 P3 130 -8.189
101 P3 131 -6.724
101 P3 132 -5.747
101 P3 133 -4.771
101 P3 134 -4.283
101 P3 135 -4.283
101 P3 136 -4.771
101 P3 137 -5.747
101 P3 138 -6.724
101 P3 139 -7.212
101 P3 140 -8.189
101 P3 141 -8.677
101 P3 142 -10.630
101 P3 143 -12.095
101 P3 144 -13.560
101 P3 145 -14.048
101 P3 146 -13.072
101 P3 147 -11.119
101 P3 148 -9.165
101 P3 149 -7.701
101 P3 150 -8.677
101 P3 151 -10.142
101 P3 152 -12.095
101 P3 153 -12.583
101 P3 154 -11.607
101 P3 155 -10.142
101 P3 156 -9.165
101 P3 157 -9.654
101 P3 158 -11.119
101 P3 159 -12.583
101 P3 160 -13.560
101 P3 161 -14.048
101 P3 162 -14.537
101 P3 163 -15.025
101 P3 164 -15.025
101 P3 165 -15.025
101 P3 166 -14.537
101 P3 167 -13.560
101 P3 168 -12.583
101 P3 169 -12.095
101 P3 170 -11.607
101 P3 171 -11.119
101 P3 172 -11.607
101 P3 173 -12.095
101 P3 174 -12.583
101 P3 175 -13.560
101 P3 176 -14.048
101 P3 177 -14.537
101 P3 178 -14.537
101 P3 179 -14.048
101 P3 180 -13.560
101 P3 181 -13.072
101 P3 182 -12.583
101 P3 183 -12.095
101 P3 184 -12.583
101 P3 185 -13.072
101 P3 186 -13.560
101 P3 187 -14.048
101 P3 188 -14.048
101 P3 189 -13.072
101 P3 190 -12.583
101 P3 191 -12.095
101 P3 192 -12.583
101 P3 193 -12.583
101 P3 194 -12.095
101 P3 195 -10.630
101 P3 196 -9.654
101 P3 197 -9.654
101 P3 198 -10.142
101 P3 199 -11.119
101 P3 200 -11.607
101 P3 201 -12.095
101 P3 202 -12.583
101 P3 203 -14.537
101 P3 204 -16.001
101 P3 205 -17.466
101 P3 206 -16.490
101 P3 207 -15.025
101 P3 208 -14.048
101 P3 209 -14.537
101 P3 210 -16.490
101 P3 211 -17.955
101 P3 212 -17.955
101 P3 213 -16.490
101 P3 214 -14.048
101 P3 215 -12.583
101 P3 216 -12.583
101 P3 217 -14.048
101 P3 218 -15.513
101 P3 219 -16.490
101 P3 220 -16.978
101 P3 221 -16.001
101 P3 222 -15.513
101 P3 223 -15.025
101 P3 224 -14.048
101 P3 225 -13.560
101 P3 226 -14.048
101 P3 227 -15.513
101 P3 228 -17.955
101 P3 229 -20.396
101 P3 230 -21.372
101 P3 231 -21.372
101 P3 232 -20.884
101 P3 233 -20.884
101 P3 234 -20.884
101 P3 235 -21.372
101 P3 236 -21.372
101 P3 237 -20.884
101 P3 238 -19.908
101 P3 239 -19.419
101 P3 240 -19.419
101 P3 241 -19.419
101 P3 242 -19.419
101 P3 243 -18.931
101 P3 244 -17.466
101 P3 245 -16.490
101 P3 246 -15.513
101 P3 247 -14.537
101 P3 248 -14.048
101 P3 249 -14.537
101 P3 250 -15.513
101 P3 251 -17.466
101 P3 252 -19.419
101 P3 253 -21.372
101 P3 254 -22.349
101 P3 255 -22.349
# P4 chan 23
101 P4 0 -1.658
101 P4 1 -0.682
101 P4 2 0.783
101 P4 3 2.736
101 P4 4 4.201
101 P4 5 5.178
101 P4 6 5.666
101 P4 7 5.178
101 P4 8 3.225
101 P4 9 1.272
101 P4 10 -0.682
101 P4 11 -2.146
101 P4 12 -2.635
101 P4 13 -3.123
101 P4 14 -2.146
101 P4 15 -1.658
101 P4 16 -0.682
101 P4 17 0.295
101 P4 18 1.272
101 P4 19 1.760
101 P4 20 2.248
101 P4 21 3.225
101 P4 22 4.201
101 P4 23 5.178
101 P4 24 6.154
101 P4 25 6.643
101 P4 26 5.666
101 P4 27 3.713
101 P4 28 0.295
101 P4 29 -3.123
101 P4 30 -6.053
101 P4 31 -7.517
101 P4 32 -8.006
101 P4 33 -8.006
101 P4 34 -8.006
101 P4 35 -7.517
101 P4 36 -5.564
101 P4 37 -3.611
101 P4 38 -1.170
101 P4 39 0.783
101 P4 40 1.760
101 P4 41 1.272
101 P4 42 0.295
101 P4 43 -0.193
101 P4 44 -0.682
101 P4 45 -1.170
101 P4 46 -2.146
101 P4 47 -3.123
101 P4 48 -3.611
101 P4 49 -3.123
101 P4 50 -1.658
101 P4 51 0.295
101 P4 52 1.760
101 P4 53 1.760
101 P4 54 1.272
101 P4 55 -0.193
101 P4 56 -1.658
101 P4 57 -3.123
101 P4 58 -3.611
101 P4 59 -4.588
101 P4 60 -6.053
101 P4 61 -7.517
101 P4 62 -8.006
101 P4 63 -7.517
101 P4 64 -5.564
101 P4 65 -2.635
101 P4 66 -0.682
101 P4 67 -0.193
101 P4 68 -1.170
101 P4 69 -3.123
101 P4 70 -4.100
101 P4 71 -4.100
101 P4 72 -3.611
101 P4 73 -3.123
101 P4 74 -4.100
101 P4 75 -4.588
101 P4 76 -5.076
101 P4 77 -5.076
101 P4 78 -5.076
101 P4 79 -4.588
101 P4 80 -5.076
101 P4 81 -6.053
101 P4 82 -7.029
101 P4 83 -7.517
101 P4 84 -6.541
101 P4 85 -5.564
101 P4 86 -4.100
101 P4 87 -3.611
101 P4 88 -3.123
101 P4 89 -2.635
101 P4 90 -2.635
101 P4 91 -1.658
101 P4 92 -1.658
101 P4 93 -2.635
101 P4 94 -3.611
101 P4 95 -5.076
101 P4 96 -6.053
101 P4 97 -6.541
101 P4 98 -6.541
101 P4 99 -6.053
101 P4 100 -5.076
101 P4 101 -4.100
101 P4 102 -4.100
101 P4 103 -5.076
101 P4 104 -7.029
101 P4 105 -8.006
101 P4 106 -7.517
101 P4 107 -6.053
101 P4 108 -3.611
101 P4 109 -1.170
101 P4 110 0.783
101 P4 111 2.248
101 P4 112 3.225
101 P4 113 3.713
101 P4 114 4.201
101 P4 115 2.736
101 P4 116 0.783
101 P4 117 -1.658
101 P4 118 -3.123
101 P4 119 -3.611
101 P4 120 -3.123
101 P4 121 -3.123
101 P4 122 -2.635
101 P4 123 -2.146
101 P4 124 -1.658
101 P4 125 -1.170
101 P4 126 -0.682
101 P4 127 -1.658
101 P4 128 -2.146
101 P4 129 -3.123
101 P4 130 -2.635
101 P4 131 -1.658
101 P4 132 -0.193
101 P4 133 1.272
101 P4 134 2.248
101 P4 135 2.248
101 P4 136 1.760
101 P4 137 1.272
101 P4 138 0.295
101 P4 139 -0.682
101 P4 140 -1.658
101 P4 141 -2.146
101 P4 142 -2.635
101 P4 143 -2.635
101 P4 144 -3.123
101 P4 145 -4.588
101 P4 146 -5.564
101 P4 147 -5.564
101 P4 148 -4.588
101 P4 149 -3.611
101 P4 150 -4.100
101 P4 151 -6.053
101 P4 152 -8.006
101 P4 153 -8.494
101 P4 154 -8.006
101 P4 155 -5.564
101 P4 156 -4.100
101 P4 157 -4.100
101 P4 158 -6.053
101 P4 159 -7.517
101 P4 160 -8.494
101 P4 161 -8.494
101 P4 162 -7.517
101 P4 163 -6.541
101 P4 164 -6.053
101 P4 165 -6.053
101 P4 166 -6.541
101 P4 167 -6.541
101 P4 168 -6.053
101 P4 169 -4.588
101 P4 170 -3.123
101 P4 171 -1.170
101 P4 172 -0.193
101 P4 173 -0.193
101 P4 174 -1.658
101 P4 175 -3.611
101 P4 176 -5.076
101 P4 177 -5.564
101 P4 178 -4.588
101 P4 179 -4.100
101 P4 180 -3.123
101 P4 181 -3.123
101 P4 182 -2.635
101 P4 183 -2.635
101 P4 184 -2.146
101 P4 185 -3.123
101 P4 186 -4.588
101 P4 187 -5.564
101 P4 188 -5.564
101 P4 189 -4.100
101 P4 190 -2.146
101 P4 191 -0.682
101 P4 192 -1.170
101 P4 193 -2.146
101 P4 194 -3.611
101 P4 195 -3.611
101 P4 196 -3.123
101 P4 197 -2.146
101 P4 198 -1.658
101 P4 199 -1.658
101 P4 200 -1.658
101 P4 201 -1.170
101 P4 202 -0.682
101 P4 203 -1.170
101 P4 204 -1.658
101 P4 205 -3.611
101 P4 206 -4.588
101 P4 207 -5.564
101 P4 208 -6.053
101 P4 209 -6.541
101 P4 210 -6.541
101 P4 211 -6.541
101 P4 212 -5.076
101 P4 213 -4.100
101 P4 214 -2.635
101 P4 215 -1.658
101 P4 216 -2.146
101 P4 217 -3.123
101 P4 218 -4.588
101 P4 219 -5.564
101 P4 220 -6.541
101 P4 221 -6.053
101 P4 222 -5.076
101 P4 223 -3.123
101 P4 224 -2.146
101 P4 225 -1.658
101 P4 226 -2.146
101 P4 227 -3.123
101 P4 228 -4.588
101 P4 229 -5.564
101 P4 230 -6.053
101 P4 231 -6.053
101 P4 232 -5.564
101 P4 233 -5.076
101 P4 234 -4.588
101 P4 235 -4.588
101 P4 236 -5.076
101 P4 237 -5.564
101 P4 238 -5.564
101 P4 239 -5.564
101 P4 240 -5.076
101 P4 241 -4.588
101 P4 242 -4.100
101 P4 243 -3.611
101 P4 244 -2.635
101 P4 245 -1.170
101 P4 246 0.295
101 P4 247 1.272
101 P4 248 2.248
101 P4 249 1.760
101 P4 250 0.783
101 P4 251 -0.682
101 P4 252 -2.146
101 P4 253 -3.123
101 P4 254 -4.100
101 P4 255 -5.076
# PZ chan 24
101 PZ 0 0.824
101 PZ 1 1.312
101 PZ 2 2.777
101 PZ 3 4.242
101 PZ 4 5.219
101 PZ 5 5.707
101 PZ 6 6.195
101 PZ 7 6.195
101 PZ 8 5.707
101 PZ 9 4.730
101 PZ 10 2.777
101 PZ 11 0.336
101 PZ 12 -1.129
101 PZ 13 -1.617
101 PZ 14 -1.129
101 PZ 15 -0.153
101 PZ 16 0.824
101 PZ 17 1.312
101 PZ 18 1.801
101 PZ 19 2.289
101 PZ 20 2.777
101 PZ 21 3.265
101 PZ 22 2.777
101 PZ 23 2.777
101 PZ 24 3.265
101 PZ 25 3.754
101 PZ 26 3.754
101 PZ 27 2.777
101 PZ 28 0.336
101 PZ 29 -2.106
101 PZ 30 -4.547
101 PZ 31 -5.524
101 PZ 32 -5.524
101 PZ 33 -5.035
101 PZ 34 -4.547
101 PZ 35 -4.547
101 PZ 36 -4.547
101 PZ 37 -4.059
101 PZ 38 -3.082
101 PZ 39 -1.617
101 PZ 40 -0.641
101 PZ 41 -0.153
101 PZ 42 -0.641
101 PZ 43 -1.617
101 PZ 44 -2.106
101 PZ 45 -2.106
101 PZ 46 -2.594
101 PZ 47 -3.571
101 PZ 48 -4.547
101 PZ 49 -5.035
101 PZ 50 -4.547
101 PZ 51 -3.082
101 PZ 52 -0.641
101 PZ 53 0.336
101 PZ 54 1.312
101 PZ 55 0.824
101 PZ 56 0.336
101 PZ 57 -1.129
101 PZ 58 -2.106
101 PZ 59 -3.082
101 PZ 60 -4.547
101 PZ 61 -5.524
101 PZ 62 -5.524
101 PZ 63 -4.547
101 PZ 64 -2.594
101 PZ 65 0.336
101 PZ 66 2.777
101 PZ 67 3.754
101 PZ 68 3.754
101 PZ 69 2.289
101 PZ 70 0.824
101 PZ 71 0.336
101 PZ 72 0.336
101 PZ 73 0.824
101 PZ 74 0.336
101 PZ 75 -0.641
101 PZ 76 -2.106
101 PZ 77 -3.082
101 PZ 78 -3.082
101 PZ 79 -3.082
101 PZ 80 -3.082
101 PZ 81 -3.082
101 PZ 82 -4.059
101 PZ 83 -4.547
101 PZ 84 -4.547
101 PZ 85 -3.571
101 PZ 86 -2.106
101 PZ 87 -1.617
101 PZ 88 -1.617
101 PZ 89 -2.106
101 PZ 90 -2.106
101 PZ 91 -1.617
101 PZ 92 -1.129
101 PZ 93 -0.641
101 PZ 94 -1.129
101 PZ 95 -2.106
101 PZ 96 -2.594
101 PZ 97 -2.594
101 PZ 98 -2.106
101 PZ 99 -0.641
101 PZ 100 0.336
101 PZ 101 0.824
101 PZ 102 -0.153
101 PZ 103 -1.129
101 PZ 104 -3.082
101 PZ 105 -4.059
101 PZ 106 -4.547
101 PZ 107 -3.571
101 PZ 108 -2.106
101 PZ 109 -0.153
101 PZ 110 1.312
101 PZ 111 2.777
101 PZ 112 3.265
101 PZ 113 2.777
101 PZ 114 2.289
101 PZ 115 1.312
101 PZ 116 0.824
101 PZ 117 -0.641
101 PZ 118 -1.617
101 PZ 119 -3.082
101 PZ 120 -4.059
101 PZ 121 -3.571
101 PZ 122 -3.082
101 PZ 123 -1.617
101 PZ 124 -0.641
101 PZ 125 -0.153
101 PZ 126 0.336
101 PZ 127 -0.153
101 PZ 128 -0.641
101 PZ 129 -0.641
101 PZ 130 -0.153
101 PZ 131 0.824
101 PZ 132 2.289
101 PZ 133 3.265
101 PZ 134 4.730
101 PZ 135 4.730
101 PZ 136 4.242
101 PZ 137 3.265
101 PZ 138 1.801
101 PZ 139 0.824
101 PZ 140 -0.641
101 PZ 141 -1.617
101 PZ 142 -3.082
101 PZ 143 -3.571
101 PZ 144 -4.547
101 PZ 145 -4.547
101 PZ 146 -4.547
101 PZ 147 -4.547
101 PZ 148 -3.571
101 PZ 149 -3.082
101 PZ 150 -3.082
101 PZ 151 -3.571
101 PZ 152 -5.035
101 PZ 153 -5.035
101 PZ 154 -4.547
101 PZ 155 -3.571
101 PZ 156 -3.082
101 PZ 157 -3.571
101 PZ 158 -4.547
101 PZ 159 -5.524
101 PZ 160 -6.500
101 PZ 161 -6.989
101 PZ 162 -6.500
101 PZ 163 -6.500
101 PZ 164 -6.012
101 PZ 165 -5.524
101 PZ 166 -5.524
101 PZ 167 -4.547
101 PZ 168 -4.059
101 PZ 169 -3.082
101 PZ 170 -2.106
101 PZ 171 -1.617
101 PZ 172 -1.617
101 PZ 173 -2.106
101 PZ 174 -3.082
101 PZ 175 -4.059
101 PZ 176 -4.547
101 PZ 177 -4.059
101 PZ 178 -4.059
101 PZ 179 -4.059
101 PZ 180 -4.059
101 PZ 181 -4.059
101 PZ 182 -4.059
101 PZ 183 -3.571
101 PZ 184 -3.571
101 PZ 185 -4.059
101 PZ 186 -5.035
101 PZ 187 -6.012
101 PZ 188 -6.500
101 PZ 189 -5.524
101 PZ 190 -4.059
101 PZ 191 -2.594
101 PZ 192 -2.106
101 PZ 193 -2.106
101 PZ 194 -2.106
101 PZ 195 -2.106
101 PZ 196 -1.617
101 PZ 197 -1.129
101 PZ 198 -1.129
101 PZ 199 -1.129
101 PZ 200 -1.129
101 PZ 201 -1.617
101 PZ 202 -1.617
101 PZ 203 -2.106
101 PZ 204 -3.082
101 PZ 205 -3.571
101 PZ 206 -4.059
101 PZ 207 -4.059
101 PZ 208 -4.059
101 PZ 209 -4.547
101 PZ 210 -5.524
101 PZ 211 -6.500
101 PZ 212 -6.500
101 PZ 213 -5.524
101 PZ 214 -3.571
101 PZ 215 -2.106
101 PZ 216 -1.617
101 PZ 217 -2.594
101 PZ 218 -4.547
101 PZ 219 -6.500
101 PZ 220 -7.477
101 PZ 221 -7.477
101 PZ 222 -6.500
101 PZ 223 -4.547
101 PZ 224 -3.571
101 PZ 225 -3.082
101 PZ 226 -3.571
101 PZ 227 -5.035
101 PZ 228 -6.989
101 PZ 229 -7.965
101 PZ 230 -8.942
101 PZ 231 -8.942
101 PZ 232 -8.942
101 PZ 233 -8.942
101 PZ 234 -8.942
101 PZ 235 -8.453
101 PZ 236 -8.453
101 PZ 237 -8.453
101 PZ 238 -7.965
101 PZ 239 -7.965
101 PZ 240 -7.965
101 PZ 241 -7.965
101 PZ 242 -7.477
101 PZ 243 -6.500
101 PZ 244 -5.524
101 PZ 245 -4.547
101 PZ 246 -3.571
101 PZ 247 -2.594
101 PZ 248 -2.106
101 PZ 249 -2.594
101 PZ 250 -3.571
101 PZ 251 -5.035
101 PZ 252 -6.500
101 PZ 253 -7.477
101 PZ 254 -7.965
101 PZ 255 -7.965
# P8 chan 25
101 P8 0 -6.856
101 P8 1 -5.880
101 P8 2 -3.438
101 P8 3 -1.485
101 P8 4 -0.020
101 P8 5 0.468
101 P8 6 0.956
101 P8 7 1.444
101 P8 8 1.933
101 P8 9 1.933
101 P8 10 0.468
101 P8 11 -1.973
101 P8 12 -4.415
101 P8 13 -5.880
101 P8 14 -5.391
101 P8 15 -2.950
101 P8 16 -0.997
101 P8 17 0.468
101 P8 18 0.468
101 P8 19 0.468
101 P8 20 0.956
101 P8 21 2.909
101 P8 22 5.351
101 P8 23 6.816
101 P8 24 7.792
101 P8 25 7.792
101 P8 26 5.839
101 P8 27 3.886
101 P8 28 -0.020
101 P8 29 -4.415
101 P8 30 -9.298
101 P8 31 -13.204
101 P8 32 -15.645
101 P8 33 -16.134
101 P8 34 -15.157
101 P8 35 -13.204
101 P8 36 -11.739
101 P8 37 -9.786
101 P8 38 -7.833
101 P8 39 -5.880
101 P8 40 -4.415
101 P8 41 -3.438
101 P8 42 -3.438
101 P8 43 -4.415
101 P8 44 -5.880
101 P8 45 -7.345
101 P8 46 -8.809
101 P8 47 -8.809
101 P8 48 -7.833
101 P8 49 -6.856
101 P8 50 -4.903
101 P8 51 -2.950
101 P8 52 -1.485
101 P8 53 -0.509
101 P8 54 -0.509
101 P8 55 -2.462
101 P8 56 -4.903
101 P8 57 -7.345
101 P8 58 -8.809
101 P8 59 -9.298
101 P8 60 -10.274
101 P8 61 -12.227
101 P8 62 -14.181
101 P8 63 -15.157
101 P8 64 -14.669
101 P8 65 -11.739
101 P8 66 -9.298
101 P8 67 -7.833
101 P8 68 -8.809
101 P8 69 -11.251
101 P8 70 -13.692
101 P8 71 -15.157
101 P8 72 -15.157
101 P8 73 -15.157
101 P8 74 -15.645
101 P8 75 -16.134
101 P8 76 -16.622
101 P8 77 -16.134
101 P8 78 -14.669
101 P8 79 -13.692
101 P8 80 -13.692
101 P8 81 -15.157
101 P8 82 -17.110
101 P8 83 -18.087
101 P8 84 -17.598
101 P8 85 -16.134
101 P8 86 -14.669
101 P8 87 -13.692
101 P8 88 -12.716
101 P8 89 -12.227
101 P8 90 -11.739
101 P8 91 -11.251
101 P8 92 -11.251
101 P8 93 -11.251
101 P8 94 -11.251
101 P8 95 -10.763
101 P8 96 -10.274
101 P8 97 -10.274
101 P8 98 -10.763
101 P8 99 -11.251
101 P8 100 -10.763
101 P8 101 -9.786
101 P8 102 -9.786
101 P8 103 -10.763
101 P8 104 -12.716
101 P8 105 -15.157
101 P8 106 -16.134
101 P8 107 -15.645
101 P8 108 -13.204
101 P8 109 -10.763
101 P8 110 -8.809
101 P8 111 -7.833
101 P8 112 -7.345
101 P8 113 -6.368
101 P8 114 -5.391
101 P8 115 -5.391
101 P8 116 -5.391
101 P8 117 -6.368
101 P8 118 -7.345
101 P8 119 -8.321
101 P8 120 -8.321
101 P8 121 -7.833
101 P8 122 -6.856
101 P8 123 -6.368
101 P8 124 -5.391
101 P8 125 -5.880
101 P8 126 -6.368
101 P8 127 -7.345
101 P8 128 -8.321
101 P8 129 -9.298
101 P8 130 -9.298
101 P8 131 -8.809
101 P8 132 -7.833
101 P8 133 -6.368
101 P8 134 -5.391
101 P8 135 -4.903
101 P8 136 -4.903
101 P8 137 -5.880
101 P8 138 -7.345
101 P8 139 -8.321
101 P8 140 -8.321
101 P8 141 -7.833
101 P8 142 -7.833
101 P8 143 -7.833
101 P8 144 -9.298
101 P8 145 -11.251
101 P8 146 -12.716
101 P8 147 -12.716
101 P8 148 -11.251
101 P8 149 -9.298
101 P8 150 -9.298
101 P8 151 -11.251
101 P8 152 -13.204
101 P8 153 -14.669
101 P8 154 -14.669
101 P8 155 -13.204
