# co2a0000425.rd
# 120 trials, 64 chans, 416 samples 368 post_stim samples
# 3.906000 msecs uV
# S1 obj , trial 56
# FP1 chan 0
56 FP1 0 -8.921
56 FP1 1 -9.410
56 FP1 2 -10.386
56 FP1 3 -10.874
56 FP1 4 -10.874
56 FP1 5 -10.874
56 FP1 6 -11.363
56 FP1 7 -12.828
56 FP1 8 -14.781
56 FP1 9 -16.246
56 FP1 10 -15.757
56 FP1 11 -13.316
56 FP1 12 -10.874
56 FP1 13 -9.410
56 FP1 14 -10.386
56 FP1 15 -12.339
56 FP1 16 -13.316
56 FP1 17 -13.804
56 FP1 18 -12.339
56 FP1 19 -10.386
56 FP1 20 -9.898
56 FP1 21 -10.874
56 FP1 22 -12.339
56 FP1 23 -13.316
56 FP1 24 -14.292
56 FP1 25 -14.781
56 FP1 26 -14.781
56 FP1 27 -15.269
56 FP1 28 -16.246
56 FP1 29 -17.710
56 FP1 30 -19.175
56 FP1 31 -20.640
56 FP1 32 -22.593
56 FP1 33 -24.058
56 FP1 34 -24.546
56 FP1 35 -23.570
56 FP1 36 -21.617
56 FP1 37 -20.152
56 FP1 38 -18.687
56 FP1 39 -18.199
56 FP1 40 -17.710
56 FP1 41 -17.222
56 FP1 42 -15.757
56 FP1 43 -14.292
56 FP1 44 -12.828
56 FP1 45 -11.851
56 FP1 46 -11.363
56 FP1 47 -10.874
56 FP1 48 -10.386
56 FP1 49 -9.898
56 FP1 50 -9.898
56 FP1 51 -10.386
56 FP1 52 -10.874
56 FP1 53 -11.363
56 FP1 54 -10.874
56 FP1 55 -10.874
56 FP1 56 -9.898
56 FP1 57 -9.410
56 FP1 58 -8.921
56 FP1 59 -8.921
56 FP1 60 -8.921
56 FP1 61 -8.921
56 FP1 62 -9.410
56 FP1 63 -9.898
56 FP1 64 -10.386
56 FP1 65 -10.874
56 FP1 66 -11.363
56 FP1 67 -10.874
56 FP1 68 -9.898
56 FP1 69 -9.410
56 FP1 70 -9.410
56 FP1 71 -10.874
56 FP1 72 -13.804
56 FP1 73 -15.757
56 FP1 74 -15.757
56 FP1 75 -13.804
56 FP1 76 -10.874
56 FP1 77 -8.921
56 FP1 78 -8.433
56 FP1 79 -9.898
56 FP1 80 -11.363
56 FP1 81 -12.339
56 FP1 82 -12.339
56 FP1 83 -12.828
56 FP1 84 -13.804
56 FP1 85 -15.269
56 FP1 86 -16.734
56 FP1 87 -16.734
56 FP1 88 -15.757
56 FP1 89 -14.292
56 FP1 90 -13.804
56 FP1 91 -13.316
56 FP1 92 -13.804
56 FP1 93 -13.316
56 FP1 94 -12.828
56 FP1 95 -12.339
56 FP1 96 -13.316
56 FP1 97 -14.292
56 FP1 98 -15.757
56 FP1 99 -15.757
56 FP1 100 -15.269
56 FP1 101 -14.781
56 FP1 102 -14.781
56 FP1 103 -15.269
56 FP1 104 -15.269
56 FP1 105 -12.828
56 FP1 106 -8.433
56 FP1 107 -4.038
56 FP1 108 -2.085
56 FP1 109 -3.062
56 FP1 110 -5.992
56 FP1 111 -8.433
56 FP1 112 -9.898
56 FP1 113 -8.921
56 FP1 114 -8.433
56 FP1 115 -7.945
56 FP1 116 -8.433
56 FP1 117 -9.410
56 FP1 118 -9.898
56 FP1 119 -10.874
56 FP1 120 -12.828
56 FP1 121 -16.246
56 FP1 122 -19.175
56 FP1 123 -19.663
56 FP1 124 -18.199
56 FP1 125 -15.269
56 FP1 126 -12.828
56 FP1 127 -12.339
56 FP1 128 -12.828
56 FP1 129 -13.316
56 FP1 130 -12.828
56 FP1 131 -11.851
56 FP1 132 -10.874
56 FP1 133 -11.363
56 FP1 134 -12.339
56 FP1 135 -13.316
56 FP1 136 -12.828
56 FP1 137 -10.874
56 FP1 138 -9.898
56 FP1 139 -9.410
56 FP1 140 -10.386
56 FP1 141 -11.851
56 FP1 142 -12.339
56 FP1 143 -11.363
56 FP1 144 -9.410
56 FP1 145 -8.921
56 FP1 146 -8.921
56 FP1 147 -10.386
56 FP1 148 -10.874
56 FP1 149 -10.874
56 FP1 150 -10.386
56 FP1 151 -10.386
56 FP1 152 -10.874
56 FP1 153 -10.874
56 FP1 154 -10.386
56 FP1 155 -8.921
56 FP1 156 -7.945
56 FP1 157 -7.456
56 FP1 158 -8.921
56 FP1 159 -10.874
56 FP1 160 -11.851
56 FP1 161 -11.363
56 FP1 162 -9.410
56 FP1 163 -6.480
56 FP1 164 -4.527
56 FP1 165 -4.527
56 FP1 166 -5.015
56 FP1 167 -6.968
56 FP1 168 -8.921
56 FP1 169 -10.386
56 FP1 170 -10.386
56 FP1 171 -9.410
56 FP1 172 -6.968
56 FP1 173 -5.015
56 FP1 174 -3.550
56 FP1 175 -4.038
56 FP1 176 -5.503
56 FP1 177 -6.968
56 FP1 178 -6.480
56 FP1 179 -4.527
56 FP1 180 -2.574
56 FP1 181 -0.621
56 FP1 182 0.356
56 FP1 183 0.844
56 FP1 184 1.333
56 FP1 185 1.821
56 FP1 186 3.286
56 FP1 187 4.751
56 FP1 188 7.680
56 FP1 189 12.075
56 FP1 190 17.934
56 FP1 191 25.747
56 FP1 192 34.047
56 FP1 193 43.325
56 FP1 194 52.114
56 FP1 195 60.903
56 FP1 196 70.180
56 FP1 197 79.458
56 FP1 198 89.712
56 FP1 199 99.477
56 FP1 200 108.754
56 FP1 201 117.055
56 FP1 202 124.379
56 FP1 203 132.192
56 FP1 204 140.493
56 FP1 205 149.770
56 FP1 206 157.094
56 FP1 207 161.977
56 FP1 208 164.419
56 FP1 209 165.395
56 FP1 210 167.348
56 FP1 211 170.766
56 FP1 212 174.184
56 FP1 213 176.137
56 FP1 214 175.161
56 FP1 215 172.231
56 FP1 216 169.790
56 FP1 217 169.301
56 FP1 218 169.301
56 FP1 219 168.325
56 FP1 220 164.907
56 FP1 221 159.536
56 FP1 222 153.676
56 FP1 223 149.282
56 FP1 224 146.352
56 FP1 225 142.934
56 FP1 226 137.563
56 FP1 227 129.751
56 FP1 228 120.962
56 FP1 229 113.637
56 FP1 230 108.266
56 FP1 231 104.360
56 FP1 232 100.454
56 FP1 233 96.059
56 FP1 234 92.153
56 FP1 235 88.247
56 FP1 236 85.317
56 FP1 237 83.364
56 FP1 238 81.411
56 FP1 239 78.969
56 FP1 240 77.504
56 FP1 241 77.016
56 FP1 242 76.528
56 FP1 243 75.551
56 FP1 244 73.110
56 FP1 245 68.715
56 FP1 246 64.321
56 FP1 247 60.415
56 FP1 248 57.485
56 FP1 249 56.020
56 FP1 250 54.555
56 FP1 251 53.090
56 FP1 252 50.649
56 FP1 253 48.208
56 FP1 254 45.766
56 FP1 255 44.301
# FP2 chan 1
56 FP2 0 -2.543
56 FP2 1 -2.543
56 FP2 2 -3.031
56 FP2 3 -2.543
56 FP2 4 -2.055
56 FP2 5 -1.567
56 FP2 6 -1.567
56 FP2 7 -2.543
56 FP2 8 -4.008
56 FP2 9 -4.496
56 FP2 10 -3.520
56 FP2 11 -1.567
56 FP2 12 1.363
56 FP2 13 2.828
56 FP2 14 3.316
56 FP2 15 2.828
56 FP2 16 2.340
56 FP2 17 2.828
56 FP2 18 2.828
56 FP2 19 2.340
56 FP2 20 1.363
56 FP2 21 0.387
56 FP2 22 -1.078
56 FP2 23 -2.543
56 FP2 24 -3.031
56 FP2 25 -3.031
56 FP2 26 -3.031
56 FP2 27 -3.031
56 FP2 28 -2.543
56 FP2 29 -3.031
56 FP2 30 -4.008
56 FP2 31 -5.961
56 FP2 32 -8.403
56 FP2 33 -9.379
56 FP2 34 -8.891
56 FP2 35 -6.449
56 FP2 36 -4.008
56 FP2 37 -1.567
56 FP2 38 -0.590
56 FP2 39 -1.567
56 FP2 40 -2.543
56 FP2 41 -3.520
56 FP2 42 -3.031
56 FP2 43 -1.567
56 FP2 44 -0.102
56 FP2 45 0.875
56 FP2 46 1.851
56 FP2 47 2.340
56 FP2 48 3.316
56 FP2 49 3.316
56 FP2 50 3.805
56 FP2 51 3.805
56 FP2 52 3.316
56 FP2 53 2.828
56 FP2 54 2.340
56 FP2 55 2.340
56 FP2 56 3.316
56 FP2 57 3.805
56 FP2 58 4.293
56 FP2 59 4.781
56 FP2 60 4.293
56 FP2 61 4.293
56 FP2 62 3.805
56 FP2 63 3.316
56 FP2 64 2.340
56 FP2 65 1.851
56 FP2 66 1.363
56 FP2 67 1.851
56 FP2 68 3.316
56 FP2 69 4.293
56 FP2 70 5.269
56 FP2 71 4.293
56 FP2 72 1.851
56 FP2 73 0.387
56 FP2 74 0.387
56 FP2 75 1.851
56 FP2 76 4.781
56 FP2 77 6.246
56 FP2 78 6.734
56 FP2 79 5.758
56 FP2 80 4.293
56 FP2 81 2.828
56 FP2 82 2.340
56 FP2 83 2.828
56 FP2 84 2.340
56 FP2 85 1.851
56 FP2 86 1.851
56 FP2 87 1.851
56 FP2 88 2.828
56 FP2 89 3.805
56 FP2 90 4.293
56 FP2 91 4.781
56 FP2 92 5.269
56 FP2 93 5.758
56 FP2 94 5.758
56 FP2 95 5.758
56 FP2 96 4.781
56 FP2 97 3.805
56 FP2 98 3.316
56 FP2 99 3.316
56 FP2 100 3.805
56 FP2 101 4.293
56 FP2 102 4.293
56 FP2 103 3.805
56 FP2 104 2.828
56 FP2 105 2.828
56 FP2 106 4.293
56 FP2 107 6.734
56 FP2 108 8.687
56 FP2 109 9.664
56 FP2 110 9.176
56 FP2 111 8.199
56 FP2 112 7.222
56 FP2 113 6.246
56 FP2 114 5.269
56 FP2 115 4.781
56 FP2 116 4.293
56 FP2 117 3.805
56 FP2 118 3.805
56 FP2 119 3.316
56 FP2 120 0.875
56 FP2 121 -1.567
56 FP2 122 -3.031
56 FP2 123 -2.543
56 FP2 124 -0.590
56 FP2 125 2.340
56 FP2 126 4.293
56 FP2 127 4.781
56 FP2 128 4.781
56 FP2 129 4.781
56 FP2 130 5.758
56 FP2 131 7.222
56 FP2 132 7.222
56 FP2 133 6.734
56 FP2 134 5.758
56 FP2 135 5.758
56 FP2 136 7.222
56 FP2 137 8.199
56 FP2 138 8.199
56 FP2 139 6.246
56 FP2 140 3.805
56 FP2 141 0.875
56 FP2 142 0.387
56 FP2 143 1.363
56 FP2 144 2.828
56 FP2 145 3.316
56 FP2 146 2.340
56 FP2 147 0.875
56 FP2 148 -0.102
56 FP2 149 -0.590
56 FP2 150 -0.102
56 FP2 151 0.387
56 FP2 152 0.387
56 FP2 153 -0.102
56 FP2 154 0.387
56 FP2 155 1.363
56 FP2 156 3.316
56 FP2 157 4.293
56 FP2 158 3.805
56 FP2 159 2.340
56 FP2 160 1.851
56 FP2 161 2.340
56 FP2 162 3.805
56 FP2 163 5.758
56 FP2 164 7.222
56 FP2 165 8.199
56 FP2 166 7.222
56 FP2 167 6.246
56 FP2 168 5.269
56 FP2 169 5.269
56 FP2 170 5.269
56 FP2 171 7.222
56 FP2 172 9.176
56 FP2 173 11.129
56 FP2 174 12.594
56 FP2 175 11.129
56 FP2 176 8.687
56 FP2 177 6.734
56 FP2 178 5.269
56 FP2 179 6.246
56 FP2 180 7.711
56 FP2 181 9.664
56 FP2 182 10.640
56 FP2 183 10.640
56 FP2 184 10.640
56 FP2 185 11.129
56 FP2 186 11.617
56 FP2 187 13.082
56 FP2 188 16.012
56 FP2 189 19.918
56 FP2 190 26.265
56 FP2 191 34.078
56 FP2 192 42.867
56 FP2 193 52.144
56 FP2 194 60.445
56 FP2 195 69.234
56 FP2 196 77.535
56 FP2 197 86.324
56 FP2 198 96.090
56 FP2 199 106.344
56 FP2 200 116.109
56 FP2 201 123.922
56 FP2 202 129.781
56 FP2 203 135.640
56 FP2 204 142.965
56 FP2 205 151.265
56 FP2 206 159.078
56 FP2 207 164.937
56 FP2 208 167.379
56 FP2 209 167.867
56 FP2 210 168.844
56 FP2 211 171.285
56 FP2 212 174.703
56 FP2 213 177.144
56 FP2 214 177.144
56 FP2 215 174.215
56 FP2 216 171.285
56 FP2 217 169.820
56 FP2 218 169.820
56 FP2 219 169.820
56 FP2 220 167.867
56 FP2 221 162.984
56 FP2 222 157.125
56 FP2 223 152.730
56 FP2 224 149.801
56 FP2 225 146.871
56 FP2 226 142.476
56 FP2 227 135.640
56 FP2 228 127.340
56 FP2 229 119.527
56 FP2 230 113.668
56 FP2 231 109.762
56 FP2 232 106.832
56 FP2 233 103.902
56 FP2 234 99.996
56 FP2 235 97.066
56 FP2 236 95.113
56 FP2 237 93.160
56 FP2 238 91.695
56 FP2 239 89.742
56 FP2 240 87.789
56 FP2 241 86.324
56 FP2 242 85.347
56 FP2 243 84.371
56 FP2 244 82.418
56 FP2 245 79.000
56 FP2 246 75.094
56 FP2 247 71.187
56 FP2 248 68.258
56 FP2 249 66.793
56 FP2 250 65.328
56 FP2 251 64.840
56 FP2 252 63.863
56 FP2 253 62.887
56 FP2 254 61.422
56 FP2 255 59.957
# F7 chan 2
56 F7 0 -2.492
56 F7 1 -4.445
56 F7 2 -6.887
56 F7 3 -8.352
56 F7 4 -7.863
56 F7 5 -6.887
56 F7 6 -5.910
56 F7 7 -6.887
56 F7 8 -7.863
56 F7 9 -8.352
56 F7 10 -6.887
56 F7 11 -3.957
56 F7 12 -0.539
56 F7 13 1.902
56 F7 14 2.391
56 F7 15 0.926
56 F7 16 -0.539
56 F7 17 -1.027
56 F7 18 -0.539
56 F7 19 1.414
56 F7 20 3.367
56 F7 21 4.344
56 F7 22 2.879
56 F7 23 0.926
56 F7 24 -2.004
56 F7 25 -3.957
56 F7 26 -3.469
56 F7 27 -2.492
56 F7 28 -2.004
56 F7 29 -2.492
56 F7 30 -4.445
56 F7 31 -6.887
56 F7 32 -8.352
56 F7 33 -7.375
56 F7 34 -4.934
56 F7 35 -2.492
56 F7 36 -0.539
56 F7 37 0.437
56 F7 38 0.437
56 F7 39 -0.539
56 F7 40 -1.516
56 F7 41 -2.492
56 F7 42 -2.492
56 F7 43 -1.027
56 F7 44 1.414
56 F7 45 3.367
56 F7 46 4.344
56 F7 47 4.344
56 F7 48 3.367
56 F7 49 2.391
56 F7 50 1.414
56 F7 51 0.926
56 F7 52 0.437
56 F7 53 -0.051
56 F7 54 -1.027
56 F7 55 -2.004
56 F7 56 -2.004
56 F7 57 -1.516
56 F7 58 -0.051
56 F7 59 1.414
56 F7 60 3.367
56 F7 61 4.344
56 F7 62 4.832
56 F7 63 3.367
56 F7 64 1.902
56 F7 65 0.926
56 F7 66 1.414
56 F7 67 2.879
56 F7 68 4.344
56 F7 69 4.832
56 F7 70 3.855
56 F7 71 1.414
56 F7 72 -1.027
56 F7 73 -2.492
56 F7 74 -3.469
56 F7 75 -2.981
56 F7 76 -2.492
56 F7 77 -2.004
56 F7 78 -1.027
56 F7 79 0.437
56 F7 80 1.902
56 F7 81 2.879
56 F7 82 2.879
56 F7 83 1.414
56 F7 84 -0.051
56 F7 85 -1.027
56 F7 86 -1.027
56 F7 87 0.437
56 F7 88 2.391
56 F7 89 3.855
56 F7 90 3.855
56 F7 91 3.855
56 F7 92 4.344
56 F7 93 4.832
56 F7 94 5.320
56 F7 95 5.320
56 F7 96 3.855
56 F7 97 2.391
56 F7 98 0.926
56 F7 99 0.926
56 F7 100 0.926
56 F7 101 0.437
56 F7 102 -1.027
56 F7 103 -2.981
56 F7 104 -3.469
56 F7 105 -1.027
56 F7 106 4.344
56 F7 107 10.203
56 F7 108 13.621
56 F7 109 13.621
56 F7 110 11.180
56 F7 111 8.250
56 F7 112 6.785
56 F7 113 7.273
56 F7 114 7.762
56 F7 115 6.785
56 F7 116 4.832
56 F7 117 2.879
56 F7 118 2.879
56 F7 119 3.367
56 F7 120 3.367
56 F7 121 1.414
56 F7 122 -1.516
56 F7 123 -3.469
56 F7 124 -2.492
56 F7 125 0.437
56 F7 126 3.367
56 F7 127 3.855
56 F7 128 2.391
56 F7 129 0.437
56 F7 130 0.437
56 F7 131 1.902
56 F7 132 3.855
56 F7 133 3.367
56 F7 134 1.902
56 F7 135 -0.539
56 F7 136 -1.516
56 F7 137 -0.051
56 F7 138 1.902
56 F7 139 2.391
56 F7 140 0.926
56 F7 141 -1.516
56 F7 142 -3.469
56 F7 143 -2.981
56 F7 144 -1.516
56 F7 145 -0.051
56 F7 146 0.437
56 F7 147 -1.027
56 F7 148 -3.469
56 F7 149 -4.445
56 F7 150 -5.910
56 F7 151 -6.399
56 F7 152 -7.375
56 F7 153 -7.375
56 F7 154 -6.399
56 F7 155 -4.445
56 F7 156 -2.004
56 F7 157 -0.539
56 F7 158 -0.539
56 F7 159 -1.516
56 F7 160 -2.492
56 F7 161 -1.516
56 F7 162 0.437
56 F7 163 2.879
56 F7 164 4.344
56 F7 165 3.855
56 F7 166 1.414
56 F7 167 -2.004
56 F7 168 -4.445
56 F7 169 -6.399
56 F7 170 -5.422
56 F7 171 -3.469
56 F7 172 -0.051
56 F7 173 1.902
56 F7 174 2.391
56 F7 175 1.902
56 F7 176 0.437
56 F7 177 -0.051
56 F7 178 -0.539
56 F7 179 -0.051
56 F7 180 -0.051
56 F7 181 -0.051
56 F7 182 -0.051
56 F7 183 0.437
56 F7 184 0.926
56 F7 185 1.414
56 F7 186 1.414
56 F7 187 0.926
56 F7 188 1.414
56 F7 189 3.367
56 F7 190 7.273
56 F7 191 11.668
56 F7 192 17.039
56 F7 193 20.945
56 F7 194 23.875
56 F7 195 26.805
56 F7 196 28.758
56 F7 197 31.199
56 F7 198 34.129
56 F7 199 37.547
56 F7 200 39.988
56 F7 201 42.430
56 F7 202 43.894
56 F7 203 46.824
56 F7 204 50.730
56 F7 205 55.125
56 F7 206 59.031
56 F7 207 60.984
56 F7 208 61.473
56 F7 209 61.961
56 F7 210 63.426
56 F7 211 65.867
56 F7 212 67.332
56 F7 213 66.844
56 F7 214 64.891
56 F7 215 61.961
56 F7 216 60.496
56 F7 217 60.984
56 F7 218 61.961
56 F7 219 61.961
56 F7 220 60.496
56 F7 221 58.543
56 F7 222 57.078
56 F7 223 57.078
56 F7 224 57.566
56 F7 225 56.590
56 F7 226 53.172
56 F7 227 49.266
56 F7 228 44.871
56 F7 229 41.941
56 F7 230 39.988
56 F7 231 38.035
56 F7 232 35.594
56 F7 233 33.152
56 F7 234 31.199
56 F7 235 30.711
56 F7 236 30.711
56 F7 237 30.711
56 F7 238 29.734
56 F7 239 27.781
56 F7 240 26.316
56 F7 241 25.340
56 F7 242 24.851
56 F7 243 24.363
56 F7 244 22.898
56 F7 245 20.945
56 F7 246 19.480
56 F7 247 17.527
56 F7 248 15.574
56 F7 249 13.621
56 F7 250 13.133
56 F7 251 13.133
56 F7 252 13.621
56 F7 253 14.598
56 F7 254 15.086
56 F7 255 15.574
# F8 chan 3
56 F8 0 -5.463
56 F8 1 -3.998
56 F8 2 -0.580
56 F8 3 2.838
56 F8 4 4.303
56 F8 5 3.326
56 F8 6 0.885
56 F8 7 -1.556
56 F8 8 -2.045
56 F8 9 -1.068
56 F8 10 1.373
56 F8 11 3.326
56 F8 12 3.815
56 F8 13 3.326
56 F8 14 2.838
56 F8 15 4.303
56 F8 16 6.256
56 F8 17 7.721
56 F8 18 7.233
56 F8 19 4.791
56 F8 20 2.350
56 F8 21 0.397
56 F8 22 0.885
56 F8 23 2.838
56 F8 24 4.791
56 F8 25 5.768
56 F8 26 4.303
56 F8 27 2.350
56 F8 28 0.397
56 F8 29 -1.556
56 F8 30 -2.533
56 F8 31 -3.998
56 F8 32 -6.927
56 F8 33 -9.369
56 F8 34 -9.369
56 F8 35 -6.439
56 F8 36 -1.556
56 F8 37 2.350
56 F8 38 2.838
56 F8 39 -0.580
56 F8 40 -3.998
56 F8 41 -5.951
56 F8 42 -4.486
56 F8 43 -1.556
56 F8 44 1.373
56 F8 45 1.373
56 F8 46 0.885
56 F8 47 -0.092
56 F8 48 0.885
56 F8 49 2.838
56 F8 50 3.815
56 F8 51 3.815
56 F8 52 2.350
56 F8 53 0.885
56 F8 54 0.885
56 F8 55 1.862
56 F8 56 4.303
56 F8 57 6.256
56 F8 58 7.721
56 F8 59 8.698
56 F8 60 9.186
56 F8 61 8.698
56 F8 62 8.209
56 F8 63 7.721
56 F8 64 7.233
56 F8 65 6.256
56 F8 66 4.791
56 F8 67 3.326
56 F8 68 0.885
56 F8 69 -0.580
56 F8 70 -1.556
56 F8 71 -1.556
56 F8 72 -1.068
56 F8 73 0.397
56 F8 74 2.838
56 F8 75 4.791
56 F8 76 5.768
56 F8 77 5.768
56 F8 78 5.280
56 F8 79 5.280
56 F8 80 5.768
56 F8 81 5.280
56 F8 82 3.815
56 F8 83 1.373
56 F8 84 -0.580
56 F8 85 -0.580
56 F8 86 0.885
56 F8 87 4.303
56 F8 88 7.721
56 F8 89 8.698
56 F8 90 8.209
56 F8 91 6.744
56 F8 92 4.791
56 F8 93 5.280
56 F8 94 5.768
56 F8 95 6.256
56 F8 96 4.303
56 F8 97 1.373
56 F8 98 -0.580
56 F8 99 0.397
56 F8 100 4.303
56 F8 101 8.698
56 F8 102 10.651
56 F8 103 9.186
56 F8 104 5.768
56 F8 105 3.326
56 F8 106 3.326
56 F8 107 6.256
56 F8 108 8.698
56 F8 109 10.162
56 F8 110 9.674
56 F8 111 7.721
56 F8 112 6.256
56 F8 113 5.280
56 F8 114 3.815
56 F8 115 1.373
56 F8 116 -0.092
56 F8 117 0.397
56 F8 118 2.350
56 F8 119 3.815
56 F8 120 3.326
56 F8 121 0.397
56 F8 122 -3.021
56 F8 123 -3.998
56 F8 124 -2.045
56 F8 125 1.862
56 F8 126 5.280
56 F8 127 6.744
56 F8 128 6.744
56 F8 129 6.256
56 F8 130 7.233
56 F8 131 8.209
56 F8 132 8.698
56 F8 133 7.233
56 F8 134 6.256
56 F8 135 5.280
56 F8 136 6.256
56 F8 137 8.209
56 F8 138 10.162
56 F8 139 10.162
56 F8 140 8.698
56 F8 141 6.256
56 F8 142 3.815
56 F8 143 2.838
56 F8 144 2.838
56 F8 145 3.326
56 F8 146 2.838
56 F8 147 1.373
56 F8 148 -0.092
56 F8 149 -1.068
56 F8 150 -1.556
56 F8 151 -1.068
56 F8 152 -0.580
56 F8 153 1.373
56 F8 154 4.791
56 F8 155 8.698
56 F8 156 12.115
56 F8 157 13.092
56 F8 158 11.139
56 F8 159 7.721
56 F8 160 5.768
56 F8 161 6.256
56 F8 162 8.698
56 F8 163 11.139
56 F8 164 11.627
56 F8 165 10.651
56 F8 166 8.698
56 F8 167 6.744
56 F8 168 5.280
56 F8 169 3.815
56 F8 170 2.838
56 F8 171 3.815
56 F8 172 6.744
56 F8 173 10.651
56 F8 174 13.580
56 F8 175 13.580
56 F8 176 9.674
56 F8 177 4.303
56 F8 178 0.885
56 F8 179 0.397
56 F8 180 3.326
56 F8 181 7.233
56 F8 182 10.162
56 F8 183 11.627
56 F8 184 12.115
56 F8 185 11.627
56 F8 186 11.139
56 F8 187 10.162
56 F8 188 9.186
56 F8 189 11.139
56 F8 190 15.533
56 F8 191 20.905
56 F8 192 25.787
56 F8 193 28.717
56 F8 194 30.182
56 F8 195 32.135
56 F8 196 36.530
56 F8 197 43.365
56 F8 198 51.178
56 F8 199 56.549
56 F8 200 58.990
56 F8 201 58.502
56 F8 202 58.014
56 F8 203 59.967
56 F8 204 64.850
56 F8 205 70.221
56 F8 206 74.615
56 F8 207 75.104
56 F8 208 72.662
56 F8 209 69.733
56 F8 210 69.733
56 F8 211 74.127
56 F8 212 79.987
56 F8 213 84.381
56 F8 214 84.869
56 F8 215 81.451
56 F8 216 77.057
56 F8 217 74.127
56 F8 218 74.127
56 F8 219 74.615
56 F8 220 73.639
56 F8 221 70.709
56 F8 222 67.780
56 F8 223 66.803
56 F8 224 68.268
56 F8 225 69.244
56 F8 226 67.291
56 F8 227 60.455
56 F8 228 53.131
56 F8 229 47.272
56 F8 230 44.830
56 F8 231 45.319
56 F8 232 45.807
56 F8 233 44.830
56 F8 234 43.365
56 F8 235 41.901
56 F8 236 41.901
56 F8 237 42.877
56 F8 238 43.365
56 F8 239 43.854
56 F8 240 44.342
56 F8 241 44.830
56 F8 242 45.319
56 F8 243 44.830
56 F8 244 42.877
56 F8 245 39.948
56 F8 246 37.506
56 F8 247 36.530
56 F8 248 36.041
56 F8 249 36.041
56 F8 250 35.553
56 F8 251 34.088
56 F8 252 33.112
56 F8 253 32.623
56 F8 254 31.647
56 F8 255 31.647
# AF1 chan 4
56 AF1 0 1.902
56 AF1 1 1.902
56 AF1 2 1.414
56 AF1 3 0.437
56 AF1 4 -0.051
56 AF1 5 -0.051
56 AF1 6 0.437
56 AF1 7 -0.051
56 AF1 8 -0.539
56 AF1 9 -1.027
56 AF1 10 -0.539
56 AF1 11 0.926
56 AF1 12 3.367
56 AF1 13 5.320
56 AF1 14 5.320
56 AF1 15 4.344
56 AF1 16 3.367
56 AF1 17 2.391
56 AF1 18 2.391
56 AF1 19 2.879
56 AF1 20 3.367
56 AF1 21 3.367
56 AF1 22 2.391
56 AF1 23 1.414
56 AF1 24 0.926
56 AF1 25 -0.051
56 AF1 26 -0.539
56 AF1 27 -1.027
56 AF1 28 -1.027
56 AF1 29 -1.027
56 AF1 30 -1.516
56 AF1 31 -2.004
56 AF1 32 -2.004
56 AF1 33 -2.981
56 AF1 34 -2.492
56 AF1 35 -1.516
56 AF1 36 0.437
56 AF1 37 2.391
56 AF1 38 3.855
56 AF1 39 3.855
56 AF1 40 3.367
56 AF1 41 2.391
56 AF1 42 2.391
56 AF1 43 3.367
56 AF1 44 5.320
56 AF1 45 6.785
56 AF1 46 7.762
56 AF1 47 7.762
56 AF1 48 7.762
56 AF1 49 7.762
56 AF1 50 7.762
56 AF1 51 7.762
56 AF1 52 6.785
56 AF1 53 5.809
56 AF1 54 4.344
56 AF1 55 3.855
56 AF1 56 4.344
56 AF1 57 5.320
56 AF1 58 6.297
56 AF1 59 6.785
56 AF1 60 6.297
56 AF1 61 6.297
56 AF1 62 5.809
56 AF1 63 5.809
56 AF1 64 6.297
56 AF1 65 7.273
56 AF1 66 8.738
56 AF1 67 10.691
56 AF1 68 12.644
56 AF1 69 14.109
56 AF1 70 14.109
56 AF1 71 13.133
56 AF1 72 11.668
56 AF1 73 11.180
56 AF1 74 11.668
56 AF1 75 13.133
56 AF1 76 14.598
56 AF1 77 15.574
56 AF1 78 15.574
56 AF1 79 15.086
56 AF1 80 14.109
56 AF1 81 13.621
56 AF1 82 13.133
56 AF1 83 12.644
56 AF1 84 11.668
56 AF1 85 10.691
56 AF1 86 10.203
56 AF1 87 10.691
56 AF1 88 12.156
56 AF1 89 14.109
56 AF1 90 15.086
56 AF1 91 15.574
56 AF1 92 15.086
56 AF1 93 14.109
56 AF1 94 14.109
56 AF1 95 14.109
56 AF1 96 13.621
56 AF1 97 13.133
56 AF1 98 12.644
56 AF1 99 13.133
56 AF1 100 13.621
56 AF1 101 14.598
56 AF1 102 15.086
56 AF1 103 15.574
56 AF1 104 16.062
56 AF1 105 17.039
56 AF1 106 18.992
56 AF1 107 20.945
56 AF1 108 22.410
56 AF1 109 22.898
56 AF1 110 21.922
56 AF1 111 20.457
56 AF1 112 18.992
56 AF1 113 18.016
56 AF1 114 18.016
56 AF1 115 18.016
56 AF1 116 18.016
56 AF1 117 18.016
56 AF1 118 18.016
56 AF1 119 17.039
56 AF1 120 15.086
56 AF1 121 12.156
56 AF1 122 10.203
56 AF1 123 9.226
56 AF1 124 9.715
56 AF1 125 11.180
56 AF1 126 12.644
56 AF1 127 14.109
56 AF1 128 14.598
56 AF1 129 15.574
56 AF1 130 17.039
56 AF1 131 17.527
56 AF1 132 17.527
56 AF1 133 17.039
56 AF1 134 16.062
56 AF1 135 16.062
56 AF1 136 17.039
56 AF1 137 18.504
56 AF1 138 19.480
56 AF1 139 18.992
56 AF1 140 17.527
56 AF1 141 16.062
56 AF1 142 15.574
56 AF1 143 15.574
56 AF1 144 16.062
56 AF1 145 15.574
56 AF1 146 14.598
56 AF1 147 13.133
56 AF1 148 12.156
56 AF1 149 12.644
56 AF1 150 13.133
56 AF1 151 13.133
56 AF1 152 11.668
56 AF1 153 10.691
56 AF1 154 10.203
56 AF1 155 11.668
56 AF1 156 14.109
56 AF1 157 15.574
56 AF1 158 16.062
56 AF1 159 15.574
56 AF1 160 14.109
56 AF1 161 14.598
56 AF1 162 16.062
56 AF1 163 18.016
56 AF1 164 19.480
56 AF1 165 19.480
56 AF1 166 18.504
56 AF1 167 17.527
56 AF1 168 17.527
56 AF1 169 17.527
56 AF1 170 18.016
56 AF1 171 18.992
56 AF1 172 19.969
56 AF1 173 20.457
56 AF1 174 21.434
56 AF1 175 20.945
56 AF1 176 19.480
56 AF1 177 18.016
56 AF1 178 16.551
56 AF1 179 16.062
56 AF1 180 17.039
56 AF1 181 18.016
56 AF1 182 18.504
56 AF1 183 18.992
56 AF1 184 18.992
56 AF1 185 18.992
56 AF1 186 19.480
56 AF1 187 20.457
56 AF1 188 21.922
56 AF1 189 24.363
56 AF1 190 28.269
56 AF1 191 32.664
56 AF1 192 38.035
56 AF1 193 42.918
56 AF1 194 47.312
56 AF1 195 51.219
56 AF1 196 54.637
56 AF1 197 58.543
56 AF1 198 63.426
56 AF1 199 68.309
56 AF1 200 73.191
56 AF1 201 77.586
56 AF1 202 81.492
56 AF1 203 85.887
56 AF1 204 91.258
56 AF1 205 97.117
56 AF1 206 102.000
56 AF1 207 105.906
56 AF1 208 106.883
56 AF1 209 107.371
56 AF1 210 107.371
56 AF1 211 108.348
56 AF1 212 109.812
56 AF1 213 110.789
56 AF1 214 110.789
56 AF1 215 108.836
56 AF1 216 106.883
56 AF1 217 105.906
56 AF1 218 105.906
56 AF1 219 106.394
56 AF1 220 106.394
56 AF1 221 104.930
56 AF1 222 102.976
56 AF1 223 101.023
56 AF1 224 99.070
56 AF1 225 96.629
56 AF1 226 93.211
56 AF1 227 88.328
56 AF1 228 83.445
56 AF1 229 79.051
56 AF1 230 75.633
56 AF1 231 73.191
56 AF1 232 71.726
56 AF1 233 69.773
56 AF1 234 67.820
56 AF1 235 65.867
56 AF1 236 64.402
56 AF1 237 63.914
56 AF1 238 63.426
56 AF1 239 63.426
56 AF1 240 63.426
56 AF1 241 63.426
56 AF1 242 63.914
56 AF1 243 63.426
56 AF1 244 61.961
56 AF1 245 59.519
56 AF1 246 57.078
56 AF1 247 54.148
56 AF1 248 51.707
56 AF1 249 50.242
56 AF1 250 49.754
56 AF1 251 49.754
56 AF1 252 49.754
56 AF1 253 49.754
56 AF1 254 49.754
56 AF1 255 48.289
# AF2 chan 5
56 AF2 0 -0.478
56 AF2 1 -0.966
56 AF2 2 -0.478
56 AF2 3 0.498
56 AF2 4 1.963
56 AF2 5 3.428
56 AF2 6 2.940
56 AF2 7 1.963
56 AF2 8 0.010
56 AF2 9 -1.455
56 AF2 10 -0.966
56 AF2 11 0.987
56 AF2 12 3.428
56 AF2 13 4.405
56 AF2 14 4.893
56 AF2 15 4.893
56 AF2 16 4.893
56 AF2 17 4.893
56 AF2 18 5.381
56 AF2 19 4.893
56 AF2 20 3.428
56 AF2 21 2.452
56 AF2 22 1.475
56 AF2 23 0.987
56 AF2 24 0.498
56 AF2 25 -0.478
56 AF2 26 -0.966
56 AF2 27 -1.943
56 AF2 28 -1.943
56 AF2 29 -2.431
56 AF2 30 -2.431
56 AF2 31 -3.408
56 AF2 32 -4.384
56 AF2 33 -4.873
56 AF2 34 -4.384
56 AF2 35 -2.920
56 AF2 36 -0.478
56 AF2 37 1.475
56 AF2 38 2.940
56 AF2 39 3.428
56 AF2 40 2.940
56 AF2 41 2.452
56 AF2 42 1.475
56 AF2 43 1.475
56 AF2 44 1.963
56 AF2 45 2.452
56 AF2 46 4.405
56 AF2 47 5.381
56 AF2 48 6.358
56 AF2 49 7.334
56 AF2 50 7.823
56 AF2 51 8.311
56 AF2 52 8.311
56 AF2 53 8.311
56 AF2 54 7.334
56 AF2 55 6.358
56 AF2 56 6.358
56 AF2 57 6.358
56 AF2 58 6.846
56 AF2 59 7.334
56 AF2 60 7.334
56 AF2 61 7.334
56 AF2 62 6.846
56 AF2 63 6.358
56 AF2 64 6.358
56 AF2 65 5.870
56 AF2 66 5.870
56 AF2 67 6.846
56 AF2 68 8.799
56 AF2 69 10.264
56 AF2 70 11.241
56 AF2 71 11.241
56 AF2 72 10.264
56 AF2 73 9.288
56 AF2 74 9.776
56 AF2 75 10.752
56 AF2 76 12.217
56 AF2 77 13.194
56 AF2 78 13.194
56 AF2 79 12.217
56 AF2 80 11.241
56 AF2 81 10.752
56 AF2 82 11.729
56 AF2 83 12.217
56 AF2 84 12.217
56 AF2 85 11.729
56 AF2 86 10.264
56 AF2 87 9.288
56 AF2 88 9.288
56 AF2 89 10.264
56 AF2 90 11.729
56 AF2 91 12.217
56 AF2 92 12.705
56 AF2 93 12.705
56 AF2 94 12.217
56 AF2 95 11.729
56 AF2 96 10.752
56 AF2 97 9.776
56 AF2 98 9.288
56 AF2 99 9.288
56 AF2 100 10.264
56 AF2 101 11.241
56 AF2 102 12.705
56 AF2 103 13.682
56 AF2 104 13.682
56 AF2 105 14.170
56 AF2 106 14.659
56 AF2 107 16.123
56 AF2 108 17.100
56 AF2 109 17.588
56 AF2 110 17.100
56 AF2 111 16.123
56 AF2 112 15.147
56 AF2 113 14.659
56 AF2 114 14.659
56 AF2 115 15.147
56 AF2 116 14.659
56 AF2 117 14.170
56 AF2 118 13.194
56 AF2 119 12.217
56 AF2 120 10.264
56 AF2 121 8.311
56 AF2 122 6.358
56 AF2 123 5.381
56 AF2 124 5.381
56 AF2 125 6.846
56 AF2 126 8.311
56 AF2 127 10.264
56 AF2 128 11.729
56 AF2 129 13.194
56 AF2 130 14.659
56 AF2 131 16.123
56 AF2 132 17.100
56 AF2 133 17.588
56 AF2 134 18.077
56 AF2 135 18.565
56 AF2 136 19.541
56 AF2 137 20.518
56 AF2 138 20.518
56 AF2 139 19.053
56 AF2 140 17.100
56 AF2 141 15.147
56 AF2 142 14.170
56 AF2 143 15.147
56 AF2 144 15.635
56 AF2 145 15.635
56 AF2 146 14.659
56 AF2 147 13.682
56 AF2 148 12.705
56 AF2 149 13.682
56 AF2 150 14.170
56 AF2 151 14.659
56 AF2 152 13.194
56 AF2 153 11.729
56 AF2 154 10.752
56 AF2 155 11.241
56 AF2 156 13.194
56 AF2 157 14.659
56 AF2 158 15.147
56 AF2 159 14.659
56 AF2 160 14.170
56 AF2 161 14.659
56 AF2 162 16.123
56 AF2 163 18.565
56 AF2 164 20.518
56 AF2 165 21.495
56 AF2 166 21.495
56 AF2 167 21.006
56 AF2 168 19.541
56 AF2 169 18.077
56 AF2 170 17.100
56 AF2 171 17.588
56 AF2 172 20.030
56 AF2 173 21.983
56 AF2 174 23.448
56 AF2 175 22.959
56 AF2 176 21.006
56 AF2 177 19.053
56 AF2 178 18.077
56 AF2 179 18.077
56 AF2 180 18.565
56 AF2 181 20.030
56 AF2 182 21.495
56 AF2 183 22.471
56 AF2 184 23.936
56 AF2 185 24.424
56 AF2 186 24.424
56 AF2 187 23.936
56 AF2 188 24.424
56 AF2 189 26.377
56 AF2 190 30.284
56 AF2 191 35.655
56 AF2 192 40.538
56 AF2 193 44.932
56 AF2 194 48.350
56 AF2 195 51.768
56 AF2 196 56.651
56 AF2 197 61.534
56 AF2 198 67.393
56 AF2 199 72.764
56 AF2 200 77.647
56 AF2 201 81.553
56 AF2 202 84.483
56 AF2 203 88.389
56 AF2 204 93.272
56 AF2 205 98.643
56 AF2 206 104.014
56 AF2 207 107.920
56 AF2 208 109.385
56 AF2 209 109.873
56 AF2 210 110.362
56 AF2 211 111.338
56 AF2 212 112.803
56 AF2 213 113.780
56 AF2 214 113.780
56 AF2 215 112.803
56 AF2 216 111.338
56 AF2 217 110.850
56 AF2 218 111.338
56 AF2 219 111.827
56 AF2 220 110.850
56 AF2 221 109.385
56 AF2 222 106.455
56 AF2 223 104.014
56 AF2 224 101.084
56 AF2 225 98.155
56 AF2 226 94.248
56 AF2 227 89.366
56 AF2 228 83.995
56 AF2 229 80.088
56 AF2 230 77.159
56 AF2 231 74.717
56 AF2 232 73.252
56 AF2 233 71.299
56 AF2 234 68.858
56 AF2 235 67.393
56 AF2 236 66.416
56 AF2 237 66.416
56 AF2 238 65.928
56 AF2 239 65.928
56 AF2 240 65.440
56 AF2 241 64.463
56 AF2 242 63.975
56 AF2 243 62.998
56 AF2 244 61.045
56 AF2 245 58.116
56 AF2 246 55.186
56 AF2 247 52.256
56 AF2 248 50.303
56 AF2 249 49.815
56 AF2 250 50.303
56 AF2 251 51.280
56 AF2 252 51.280
56 AF2 253 50.791
56 AF2 254 50.303
56 AF2 255 49.815
# FZ chan 6
56 FZ 0 4.659
56 FZ 1 4.659
56 FZ 2 5.636
56 FZ 3 6.124
56 FZ 4 7.100
56 FZ 5 8.077
56 FZ 6 8.077
56 FZ 7 7.589
56 FZ 8 7.100
56 FZ 9 5.636
56 FZ 10 5.636
56 FZ 11 6.124
56 FZ 12 7.589
56 FZ 13 8.565
56 FZ 14 8.565
56 FZ 15 8.077
56 FZ 16 7.100
56 FZ 17 5.636
56 FZ 18 5.636
56 FZ 19 5.636
56 FZ 20 6.124
56 FZ 21 6.124
56 FZ 22 5.636
56 FZ 23 5.147
56 FZ 24 4.659
56 FZ 25 4.171
56 FZ 26 4.659
56 FZ 27 5.147
56 FZ 28 5.636
56 FZ 29 5.147
56 FZ 30 4.659
56 FZ 31 3.194
56 FZ 32 2.706
56 FZ 33 3.194
56 FZ 34 4.659
56 FZ 35 6.612
56 FZ 36 8.565
56 FZ 37 10.030
56 FZ 38 10.518
56 FZ 39 10.030
56 FZ 40 9.542
56 FZ 41 9.054
56 FZ 42 8.565
56 FZ 43 9.054
56 FZ 44 9.542
56 FZ 45 9.542
56 FZ 46 9.054
56 FZ 47 8.565
56 FZ 48 8.077
56 FZ 49 8.077
56 FZ 50 8.565
56 FZ 51 8.077
56 FZ 52 7.100
56 FZ 53 5.636
56 FZ 54 3.682
56 FZ 55 2.218
56 FZ 56 2.218
56 FZ 57 3.194
56 FZ 58 4.171
56 FZ 59 4.659
56 FZ 60 4.659
56 FZ 61 4.659
56 FZ 62 5.147
56 FZ 63 6.124
56 FZ 64 7.100
56 FZ 65 7.589
56 FZ 66 8.077
56 FZ 67 9.542
56 FZ 68 11.007
56 FZ 69 12.472
56 FZ 70 13.448
56 FZ 71 12.960
56 FZ 72 11.007
56 FZ 73 9.542
56 FZ 74 9.542
56 FZ 75 11.495
56 FZ 76 13.936
56 FZ 77 14.913
56 FZ 78 14.913
56 FZ 79 12.960
56 FZ 80 11.983
56 FZ 81 11.983
56 FZ 82 12.960
56 FZ 83 13.936
56 FZ 84 13.936
56 FZ 85 12.472
56 FZ 86 11.007
56 FZ 87 9.542
56 FZ 88 9.054
56 FZ 89 9.054
56 FZ 90 9.054
56 FZ 91 9.054
56 FZ 92 9.542
56 FZ 93 10.030
56 FZ 94 10.518
56 FZ 95 10.518
56 FZ 96 10.030
56 FZ 97 9.054
56 FZ 98 8.077
56 FZ 99 8.077
56 FZ 100 9.054
56 FZ 101 10.030
56 FZ 102 10.518
56 FZ 103 10.518
56 FZ 104 10.518
56 FZ 105 11.007
56 FZ 106 11.983
56 FZ 107 13.448
56 FZ 108 13.448
56 FZ 109 12.960
56 FZ 110 11.495
56 FZ 111 10.518
56 FZ 112 9.542
56 FZ 113 10.030
56 FZ 114 10.030
56 FZ 115 10.518
56 FZ 116 11.007
56 FZ 117 11.007
56 FZ 118 10.518
56 FZ 119 9.542
56 FZ 120 7.100
56 FZ 121 5.147
56 FZ 122 3.194
56 FZ 123 3.194
56 FZ 124 4.171
56 FZ 125 5.147
56 FZ 126 6.124
56 FZ 127 6.124
56 FZ 128 6.612
56 FZ 129 7.589
56 FZ 130 10.030
56 FZ 131 11.495
56 FZ 132 12.472
56 FZ 133 11.983
56 FZ 134 11.495
56 FZ 135 11.983
56 FZ 136 12.960
56 FZ 137 13.936
56 FZ 138 14.425
56 FZ 139 13.448
56 FZ 140 11.983
56 FZ 141 11.007
56 FZ 142 11.495
56 FZ 143 11.983
56 FZ 144 11.983
56 FZ 145 11.007
56 FZ 146 9.542
56 FZ 147 8.077
56 FZ 148 8.077
56 FZ 149 9.542
56 FZ 150 11.007
56 FZ 151 11.495
56 FZ 152 9.542
56 FZ 153 6.612
56 FZ 154 4.171
56 FZ 155 3.194
56 FZ 156 4.171
56 FZ 157 5.636
56 FZ 158 7.100
56 FZ 159 7.100
56 FZ 160 6.124
56 FZ 161 5.147
56 FZ 162 4.659
56 FZ 163 5.147
56 FZ 164 6.612
56 FZ 165 8.077
56 FZ 166 8.077
56 FZ 167 7.589
56 FZ 168 6.124
56 FZ 169 4.659
56 FZ 170 4.171
56 FZ 171 4.659
56 FZ 172 6.124
56 FZ 173 7.100
56 FZ 174 7.589
56 FZ 175 6.124
56 FZ 176 4.171
56 FZ 177 3.194
56 FZ 178 3.194
56 FZ 179 4.171
56 FZ 180 5.636
56 FZ 181 6.124
56 FZ 182 6.124
56 FZ 183 6.124
56 FZ 184 6.612
56 FZ 185 8.077
56 FZ 186 9.542
56 FZ 187 10.030
56 FZ 188 9.542
56 FZ 189 9.054
56 FZ 190 10.030
56 FZ 191 12.960
56 FZ 192 16.866
56 FZ 193 20.284
56 FZ 194 23.214
56 FZ 195 24.190
56 FZ 196 24.679
56 FZ 197 25.655
56 FZ 198 27.120
56 FZ 199 29.561
56 FZ 200 32.979
56 FZ 201 35.421
56 FZ 202 37.374
56 FZ 203 39.815
56 FZ 204 43.233
56 FZ 205 46.651
56 FZ 206 49.581
56 FZ 207 51.046
56 FZ 208 51.046
56 FZ 209 50.069
56 FZ 210 49.093
56 FZ 211 49.093
56 FZ 212 50.069
56 FZ 213 50.557
56 FZ 214 50.557
56 FZ 215 50.557
56 FZ 216 50.069
56 FZ 217 49.581
56 FZ 218 50.069
56 FZ 219 50.069
56 FZ 220 50.069
56 FZ 221 49.581
56 FZ 222 48.604
56 FZ 223 47.139
56 FZ 224 45.675
56 FZ 225 43.722
56 FZ 226 40.792
56 FZ 227 38.350
56 FZ 228 35.421
56 FZ 229 32.979
56 FZ 230 31.026
56 FZ 231 29.561
56 FZ 232 27.608
56 FZ 233 26.632
56 FZ 234 25.655
56 FZ 235 25.655
56 FZ 236 26.632
56 FZ 237 27.608
56 FZ 238 28.097
56 FZ 239 28.097
56 FZ 240 27.608
56 FZ 241 27.120
56 FZ 242 27.120
56 FZ 243 27.120
56 FZ 244 27.120
56 FZ 245 26.143
56 FZ 246 24.679
56 FZ 247 23.214
56 FZ 248 20.772
56 FZ 249 19.307
56 FZ 250 18.331
56 FZ 251 17.843
56 FZ 252 18.331
56 FZ 253 18.819
56 FZ 254 18.819
56 FZ 255 17.843
# F4 chan 7
56 F4 0 4.639
56 F4 1 5.127
56 F4 2 6.104
56 F4 3 7.080
56 F4 4 7.568
56 F4 5 6.592
56 F4 6 6.104
56 F4 7 5.127
56 F4 8 4.150
56 F4 9 3.174
56 F4 10 3.174
56 F4 11 3.662
56 F4 12 5.127
56 F4 13 6.104
56 F4 14 7.080
56 F4 15 7.080
56 F4 16 7.080
56 F4 17 7.080
56 F4 18 7.568
56 F4 19 7.568
56 F4 20 7.080
56 F4 21 5.615
56 F4 22 4.150
56 F4 23 3.174
56 F4 24 2.197
56 F4 25 1.709
56 F4 26 0.732
56 F4 27 0.244
56 F4 28 -0.732
56 F4 29 -1.221
56 F4 30 -1.709
56 F4 31 -2.197
56 F4 32 -2.686
56 F4 33 -2.686
56 F4 34 -1.709
56 F4 35 0.244
56 F4 36 2.686
56 F4 37 4.150
56 F4 38 4.639
56 F4 39 3.174
56 F4 40 1.709
56 F4 41 0.732
56 F4 42 1.709
56 F4 43 2.686
56 F4 44 3.662
56 F4 45 3.662
56 F4 46 3.662
56 F4 47 3.662
56 F4 48 4.639
56 F4 49 6.592
56 F4 50 8.057
56 F4 51 8.057
56 F4 52 6.592
56 F4 53 5.127
56 F4 54 3.662
56 F4 55 4.150
56 F4 56 5.127
56 F4 57 6.592
56 F4 58 8.057
56 F4 59 8.545
56 F4 60 9.033
56 F4 61 10.010
56 F4 62 10.498
56 F4 63 10.010
56 F4 64 8.545
56 F4 65 7.080
56 F4 66 6.104
56 F4 67 6.104
56 F4 68 7.080
56 F4 69 8.545
56 F4 70 9.033
56 F4 71 8.545
56 F4 72 7.568
56 F4 73 6.592
56 F4 74 6.104
56 F4 75 7.080
56 F4 76 7.568
56 F4 77 8.057
56 F4 78 8.545
56 F4 79 8.545
56 F4 80 9.033
56 F4 81 10.010
56 F4 82 10.010
56 F4 83 10.010
56 F4 84 9.521
56 F4 85 9.521
56 F4 86 9.521
56 F4 87 10.010
56 F4 88 10.010
56 F4 89 10.010
56 F4 90 9.033
56 F4 91 8.545
56 F4 92 9.033
56 F4 93 9.521
56 F4 94 10.986
56 F4 95 11.475
56 F4 96 10.986
56 F4 97 10.010
56 F4 98 9.033
56 F4 99 8.545
56 F4 100 9.033
56 F4 101 10.010
56 F4 102 10.498
56 F4 103 10.986
56 F4 104 10.010
56 F4 105 9.521
56 F4 106 9.521
56 F4 107 10.010
56 F4 108 11.475
56 F4 109 12.451
56 F4 110 12.939
56 F4 111 12.939
56 F4 112 12.939
56 F4 113 12.451
56 F4 114 11.963
56 F4 115 11.475
56 F4 116 10.498
56 F4 117 9.521
56 F4 118 7.568
56 F4 119 5.615
56 F4 120 3.174
56 F4 121 1.221
56 F4 122 0.732
56 F4 123 1.221
56 F4 124 2.197
56 F4 125 3.174
56 F4 126 4.150
56 F4 127 5.127
56 F4 128 6.104
56 F4 129 7.080
56 F4 130 8.545
56 F4 131 9.521
56 F4 132 10.010
56 F4 133 10.010
56 F4 134 10.010
56 F4 135 10.986
56 F4 136 11.963
56 F4 137 11.963
56 F4 138 10.986
56 F4 139 9.521
56 F4 140 8.057
56 F4 141 7.080
56 F4 142 7.080
56 F4 143 7.080
56 F4 144 6.104
56 F4 145 4.639
56 F4 146 2.686
56 F4 147 1.709
56 F4 148 1.709
56 F4 149 2.686
56 F4 150 3.174
56 F4 151 2.686
56 F4 152 1.221
56 F4 153 0.732
56 F4 154 1.221
56 F4 155 3.174
56 F4 156 4.639
56 F4 157 5.615
56 F4 158 5.615
56 F4 159 4.639
56 F4 160 3.662
56 F4 161 4.639
56 F4 162 6.104
56 F4 163 7.568
56 F4 164 8.057
56 F4 165 8.545
56 F4 166 8.057
56 F4 167 7.568
56 F4 168 7.568
56 F4 169 8.057
56 F4 170 8.545
56 F4 171 9.521
56 F4 172 10.010
56 F4 173 10.498
56 F4 174 10.498
56 F4 175 9.033
56 F4 176 7.080
56 F4 177 5.127
56 F4 178 4.639
56 F4 179 5.127
56 F4 180 7.080
56 F4 181 9.033
56 F4 182 10.010
56 F4 183 10.498
56 F4 184 9.521
56 F4 185 9.033
56 F4 186 9.033
56 F4 187 10.010
56 F4 188 11.475
56 F4 189 13.428
56 F4 190 16.357
56 F4 191 20.264
56 F4 192 24.170
56 F4 193 27.588
56 F4 194 30.029
56 F4 195 31.494
56 F4 196 32.471
56 F4 197 34.424
56 F4 198 38.330
56 F4 199 42.236
56 F4 200 46.631
56 F4 201 49.561
56 F4 202 50.537
56 F4 203 51.514
56 F4 204 53.467
56 F4 205 57.373
56 F4 206 61.768
56 F4 207 64.697
56 F4 208 65.674
56 F4 209 64.209
56 F4 210 62.744
56 F4 211 63.232
56 F4 212 65.674
56 F4 213 68.115
56 F4 214 68.604
56 F4 215 67.627
56 F4 216 66.162
56 F4 217 64.697
56 F4 218 65.186
56 F4 219 66.162
56 F4 220 66.650
56 F4 221 65.186
56 F4 222 63.232
56 F4 223 60.791
56 F4 224 59.814
56 F4 225 58.350
56 F4 226 56.396
56 F4 227 52.979
56 F4 228 49.072
56 F4 229 45.654
56 F4 230 43.213
56 F4 231 41.748
56 F4 232 40.771
56 F4 233 39.795
56 F4 234 39.307
56 F4 235 39.307
56 F4 236 39.795
56 F4 237 40.771
56 F4 238 41.260
56 F4 239 41.748
56 F4 240 42.236
56 F4 241 43.701
56 F4 242 45.166
56 F4 243 46.143
56 F4 244 45.654
56 F4 245 43.701
56 F4 246 41.260
56 F4 247 39.795
56 F4 248 38.818
56 F4 249 39.307
56 F4 250 39.307
56 F4 251 39.795
56 F4 252 39.795
56 F4 253 40.283
56 F4 254 40.771
56 F4 255 41.260
# F3 chan 8
56 F3 0 0.641
56 F3 1 1.129
56 F3 2 0.641
56 F3 3 -0.336
56 F3 4 -0.824
56 F3 5 -1.312
56 F3 6 -0.824
56 F3 7 -0.824
56 F3 8 -0.824
56 F3 9 -0.824
56 F3 10 -0.336
56 F3 11 1.129
56 F3 12 3.571
56 F3 13 5.035
56 F3 14 5.035
56 F3 15 4.059
56 F3 16 2.106
56 F3 17 0.641
56 F3 18 0.153
56 F3 19 0.641
56 F3 20 1.617
56 F3 21 2.106
56 F3 22 1.617
56 F3 23 0.641
56 F3 24 -0.824
56 F3 25 -1.801
56 F3 26 -2.289
56 F3 27 -1.801
56 F3 28 -0.824
56 F3 29 -0.336
56 F3 30 -1.312
56 F3 31 -2.777
56 F3 32 -4.730
56 F3 33 -5.707
56 F3 34 -5.219
56 F3 35 -3.265
56 F3 36 -1.312
56 F3 37 0.641
56 F3 38 1.617
56 F3 39 2.106
56 F3 40 2.594
56 F3 41 2.594
56 F3 42 3.082
56 F3 43 4.059
56 F3 44 5.035
56 F3 45 6.012
56 F3 46 6.012
56 F3 47 6.012
56 F3 48 6.012
56 F3 49 6.012
56 F3 50 5.524
56 F3 51 4.547
56 F3 52 3.571
56 F3 53 2.594
56 F3 54 1.617
56 F3 55 1.129
56 F3 56 1.129
56 F3 57 1.617
56 F3 58 2.106
56 F3 59 2.594
56 F3 60 3.082
56 F3 61 3.571
56 F3 62 3.571
56 F3 63 3.571
56 F3 64 3.082
56 F3 65 2.594
56 F3 66 3.082
56 F3 67 5.035
56 F3 68 6.989
56 F3 69 8.453
56 F3 70 8.942
56 F3 71 7.965
56 F3 72 6.012
56 F3 73 5.035
56 F3 74 5.035
56 F3 75 6.012
56 F3 76 6.989
56 F3 77 7.477
56 F3 78 7.477
56 F3 79 6.500
56 F3 80 6.500
56 F3 81 6.989
56 F3 82 7.477
56 F3 83 7.965
56 F3 84 7.477
56 F3 85 6.989
56 F3 86 6.989
56 F3 87 6.989
56 F3 88 7.965
56 F3 89 7.965
56 F3 90 7.965
56 F3 91 7.477
56 F3 92 7.477
56 F3 93 7.965
56 F3 94 7.965
56 F3 95 7.965
56 F3 96 7.477
56 F3 97 7.477
56 F3 98 6.989
56 F3 99 6.989
56 F3 100 7.477
56 F3 101 7.477
56 F3 102 6.989
56 F3 103 6.012
56 F3 104 5.524
56 F3 105 6.989
56 F3 106 9.430
56 F3 107 12.848
56 F3 108 15.289
56 F3 109 15.778
56 F3 110 14.313
56 F3 111 11.871
56 F3 112 9.430
56 F3 113 7.965
56 F3 114 7.965
56 F3 115 8.453
56 F3 116 9.430
56 F3 117 10.895
56 F3 118 11.383
56 F3 119 10.895
56 F3 120 8.942
56 F3 121 6.500
56 F3 122 4.059
56 F3 123 3.082
56 F3 124 3.571
56 F3 125 6.012
56 F3 126 7.477
56 F3 127 7.965
56 F3 128 7.965
56 F3 129 7.965
56 F3 130 8.453
56 F3 131 9.430
56 F3 132 9.918
56 F3 133 9.918
56 F3 134 8.942
56 F3 135 8.942
56 F3 136 9.430
56 F3 137 10.406
56 F3 138 11.383
56 F3 139 11.383
56 F3 140 10.895
56 F3 141 9.918
56 F3 142 9.918
56 F3 143 10.895
56 F3 144 11.871
56 F3 145 12.360
56 F3 146 11.871
56 F3 147 10.895
56 F3 148 9.430
56 F3 149 8.453
56 F3 150 8.453
56 F3 151 7.965
56 F3 152 7.965
56 F3 153 6.989
56 F3 154 6.989
56 F3 155 6.989
56 F3 156 7.477
56 F3 157 7.965
56 F3 158 8.453
56 F3 159 7.965
56 F3 160 8.453
56 F3 161 9.430
56 F3 162 10.895
56 F3 163 12.360
56 F3 164 13.336
56 F3 165 13.336
56 F3 166 12.848
56 F3 167 12.848
56 F3 168 12.360
56 F3 169 12.848
56 F3 170 13.824
56 F3 171 14.801
56 F3 172 15.778
56 F3 173 16.266
56 F3 174 16.266
56 F3 175 16.266
56 F3 176 15.289
56 F3 177 14.313
56 F3 178 14.313
56 F3 179 13.824
56 F3 180 14.313
56 F3 181 14.801
56 F3 182 15.289
56 F3 183 15.289
56 F3 184 15.289
56 F3 185 15.289
56 F3 186 15.289
56 F3 187 16.266
56 F3 188 17.731
56 F3 189 20.172
56 F3 190 23.102
56 F3 191 26.031
56 F3 192 28.961
56 F3 193 30.914
56 F3 194 32.867
56 F3 195 34.332
56 F3 196 36.285
56 F3 197 38.239
56 F3 198 40.680
56 F3 199 43.610
56 F3 200 46.051
56 F3 201 48.981
56 F3 202 51.422
56 F3 203 54.352
56 F3 204 57.281
56 F3 205 60.699
56 F3 206 63.141
56 F3 207 64.606
56 F3 208 65.094
56 F3 209 65.094
56 F3 210 64.606
56 F3 211 65.582
56 F3 212 66.559
56 F3 213 67.535
56 F3 214 67.535
56 F3 215 67.047
56 F3 216 66.071
56 F3 217 66.071
56 F3 218 66.071
56 F3 219 66.071
56 F3 220 65.582
56 F3 221 64.606
56 F3 222 63.629
56 F3 223 63.141
56 F3 224 63.141
56 F3 225 62.164
56 F3 226 59.723
56 F3 227 55.817
56 F3 228 51.910
56 F3 229 48.004
56 F3 230 45.563
56 F3 231 44.586
56 F3 232 44.098
56 F3 233 44.098
56 F3 234 43.610
56 F3 235 43.121
56 F3 236 42.145
56 F3 237 41.168
56 F3 238 40.192
56 F3 239 40.192
56 F3 240 40.680
56 F3 241 42.145
56 F3 242 43.121
56 F3 243 43.610
56 F3 244 43.121
56 F3 245 41.656
56 F3 246 40.192
56 F3 247 38.727
56 F3 248 37.262
56 F3 249 35.797
56 F3 250 34.821
56 F3 251 34.821
56 F3 252 34.821
56 F3 253 35.797
56 F3 254 35.797
56 F3 255 35.309
# FC6 chan 9
56 FC6 0 1.027
56 FC6 1 1.516
56 FC6 2 2.492
56 FC6 3 3.469
56 FC6 4 2.981
56 FC6 5 1.516
56 FC6 6 -0.437
56 FC6 7 -1.414
56 FC6 8 -0.926
56 FC6 9 0.051
56 FC6 10 2.004
56 FC6 11 2.492
56 FC6 12 2.492
56 FC6 13 2.004
56 FC6 14 2.004
56 FC6 15 3.469
56 FC6 16 5.422
56 FC6 17 6.399
56 FC6 18 5.910
56 FC6 19 4.934
56 FC6 20 3.957
56 FC6 21 3.957
56 FC6 22 5.422
56 FC6 23 6.399
56 FC6 24 5.910
56 FC6 25 3.957
56 FC6 26 0.539
56 FC6 27 -0.926
56 FC6 28 -1.414
56 FC6 29 -0.437
56 FC6 30 0.051
56 FC6 31 -0.437
56 FC6 32 -2.391
56 FC6 33 -3.855
56 FC6 34 -3.855
56 FC6 35 -2.391
56 FC6 36 -0.437
56 FC6 37 0.539
56 FC6 38 0.051
56 FC6 39 -1.414
56 FC6 40 -2.879
56 FC6 41 -2.879
56 FC6 42 -1.902
56 FC6 43 -0.437
56 FC6 44 0.051
56 FC6 45 -0.437
56 FC6 46 -0.926
56 FC6 47 -0.926
56 FC6 48 0.539
56 FC6 49 2.492
56 FC6 50 3.957
56 FC6 51 4.445
56 FC6 52 3.469
56 FC6 53 3.469
56 FC6 54 3.957
56 FC6 55 5.910
56 FC6 56 7.863
56 FC6 57 9.328
56 FC6 58 9.816
56 FC6 59 8.840
56 FC6 60 8.352
56 FC6 61 8.840
56 FC6 62 9.816
56 FC6 63 10.305
56 FC6 64 9.816
56 FC6 65 8.352
56 FC6 66 5.910
56 FC6 67 4.445
56 FC6 68 4.445
56 FC6 69 5.422
56 FC6 70 5.910
56 FC6 71 5.910
56 FC6 72 3.957
56 FC6 73 2.492
56 FC6 74 2.004
56 FC6 75 2.981
56 FC6 76 4.934
56 FC6 77 6.887
56 FC6 78 7.863
56 FC6 79 8.352
56 FC6 80 7.863
56 FC6 81 7.863
56 FC6 82 7.863
56 FC6 83 7.863
56 FC6 84 7.863
56 FC6 85 7.863
56 FC6 86 8.352
56 FC6 87 8.352
56 FC6 88 7.863
56 FC6 89 7.863
56 FC6 90 7.863
56 FC6 91 7.375
56 FC6 92 7.863
56 FC6 93 8.352
56 FC6 94 8.352
56 FC6 95 7.863
56 FC6 96 7.863
56 FC6 97 7.863
56 FC6 98 8.352
56 FC6 99 8.840
56 FC6 100 9.328
56 FC6 101 9.328
56 FC6 102 8.352
56 FC6 103 8.352
56 FC6 104 8.352
56 FC6 105 9.328
56 FC6 106 9.816
56 FC6 107 10.793
56 FC6 108 10.793
56 FC6 109 10.793
56 FC6 110 10.305
56 FC6 111 10.305
56 FC6 112 10.305
56 FC6 113 10.305
56 FC6 114 10.305
56 FC6 115 9.328
56 FC6 116 8.352
56 FC6 117 6.887
56 FC6 118 5.910
56 FC6 119 3.957
56 FC6 120 2.981
56 FC6 121 2.004
56 FC6 122 1.516
56 FC6 123 2.004
56 FC6 124 2.981
56 FC6 125 4.445
56 FC6 126 5.910
56 FC6 127 7.375
56 FC6 128 8.840
56 FC6 129 10.305
56 FC6 130 11.770
56 FC6 131 12.258
56 FC6 132 11.770
56 FC6 133 12.258
56 FC6 134 13.234
56 FC6 135 14.211
56 FC6 136 15.188
56 FC6 137 15.188
56 FC6 138 13.234
56 FC6 139 11.281
56 FC6 140 9.328
56 FC6 141 8.840
56 FC6 142 9.816
56 FC6 143 10.305
56 FC6 144 9.816
56 FC6 145 7.863
56 FC6 146 5.910
56 FC6 147 4.445
56 FC6 148 4.445
56 FC6 149 5.422
56 FC6 150 6.399
56 FC6 151 6.887
56 FC6 152 6.887
56 FC6 153 7.375
56 FC6 154 8.840
56 FC6 155 10.305
56 FC6 156 11.770
56 FC6 157 12.746
56 FC6 158 12.258
56 FC6 159 11.281
56 FC6 160 10.305
56 FC6 161 9.816
56 FC6 162 10.793
56 FC6 163 11.770
56 FC6 164 12.746
56 FC6 165 12.746
56 FC6 166 11.770
56 FC6 167 10.305
56 FC6 168 8.352
56 FC6 169 7.375
56 FC6 170 7.863
56 FC6 171 9.328
56 FC6 172 11.281
56 FC6 173 12.258
56 FC6 174 12.258
56 FC6 175 10.793
56 FC6 176 8.840
56 FC6 177 6.399
56 FC6 178 5.910
56 FC6 179 6.399
56 FC6 180 7.863
56 FC6 181 9.328
56 FC6 182 9.816
56 FC6 183 9.816
56 FC6 184 9.328
56 FC6 185 8.840
56 FC6 186 8.352
56 FC6 187 7.863
56 FC6 188 8.352
56 FC6 189 9.328
56 FC6 190 11.770
56 FC6 191 14.699
56 FC6 192 17.629
56 FC6 193 20.070
56 FC6 194 21.047
56 FC6 195 20.070
56 FC6 196 19.582
56 FC6 197 20.070
56 FC6 198 22.024
56 FC6 199 25.441
56 FC6 200 28.371
56 FC6 201 29.836
56 FC6 202 29.836
56 FC6 203 28.859
56 FC6 204 29.348
56 FC6 205 30.813
56 FC6 206 32.766
56 FC6 207 34.231
56 FC6 208 34.719
56 FC6 209 33.742
56 FC6 210 33.742
56 FC6 211 35.207
56 FC6 212 37.649
56 FC6 213 39.602
56 FC6 214 39.113
56 FC6 215 37.160
56 FC6 216 34.719
56 FC6 217 33.254
56 FC6 218 33.254
56 FC6 219 33.742
56 FC6 220 33.742
56 FC6 221 33.254
56 FC6 222 32.277
56 FC6 223 31.789
56 FC6 224 31.301
56 FC6 225 30.324
56 FC6 226 28.371
56 FC6 227 24.465
56 FC6 228 21.047
56 FC6 229 18.117
56 FC6 230 17.141
56 FC6 231 17.629
56 FC6 232 18.117
56 FC6 233 19.094
56 FC6 234 20.070
56 FC6 235 21.535
56 FC6 236 23.488
56 FC6 237 24.465
56 FC6 238 24.465
56 FC6 239 23.977
56 FC6 240 23.977
56 FC6 241 23.977
56 FC6 242 24.465
56 FC6 243 24.465
56 FC6 244 24.465
56 FC6 245 23.488
56 FC6 246 22.024
56 FC6 247 21.047
56 FC6 248 21.047
56 FC6 249 21.535
56 FC6 250 23.000
56 FC6 251 23.488
56 FC6 252 24.465
56 FC6 253 23.977
56 FC6 254 23.488
56 FC6 255 22.512
# FC5 chan 10
56 FC5 0 -3.072
56 FC5 1 -2.096
56 FC5 2 -0.631
56 FC5 3 1.322
56 FC5 4 2.299
56 FC5 5 1.811
56 FC5 6 0.834
56 FC5 7 -1.119
56 FC5 8 -1.607
56 FC5 9 -1.607
56 FC5 10 -0.142
56 FC5 11 1.811
56 FC5 12 3.276
56 FC5 13 3.276
56 FC5 14 2.299
56 FC5 15 1.811
56 FC5 16 1.322
56 FC5 17 1.811
56 FC5 18 2.299
56 FC5 19 2.299
56 FC5 20 2.299
56 FC5 21 1.811
56 FC5 22 0.834
56 FC5 23 -0.142
56 FC5 24 -1.607
56 FC5 25 -1.607
56 FC5 26 -1.119
56 FC5 27 0.346
56 FC5 28 1.322
56 FC5 29 1.811
56 FC5 30 0.346
56 FC5 31 -1.119
56 FC5 32 -2.096
56 FC5 33 -2.096
56 FC5 34 -1.607
56 FC5 35 -1.119
56 FC5 36 -0.631
56 FC5 37 0.346
56 FC5 38 1.811
56 FC5 39 3.764
56 FC5 40 4.740
56 FC5 41 5.229
56 FC5 42 5.229
56 FC5 43 5.229
56 FC5 44 7.182
56 FC5 45 9.623
56 FC5 46 12.065
56 FC5 47 12.553
56 FC5 48 11.576
56 FC5 49 9.135
56 FC5 50 6.205
56 FC5 51 4.740
56 FC5 52 3.764
56 FC5 53 3.764
56 FC5 54 4.252
56 FC5 55 4.252
56 FC5 56 3.764
56 FC5 57 3.764
56 FC5 58 4.252
56 FC5 59 6.205
56 FC5 60 8.158
56 FC5 61 9.623
56 FC5 62 10.111
56 FC5 63 8.158
56 FC5 64 5.717
56 FC5 65 4.740
56 FC5 66 6.205
56 FC5 67 9.623
56 FC5 68 13.041
56 FC5 69 14.994
56 FC5 70 14.018
56 FC5 71 11.088
56 FC5 72 8.158
56 FC5 73 6.694
56 FC5 74 7.182
56 FC5 75 8.158
56 FC5 76 8.647
56 FC5 77 8.647
56 FC5 78 8.158
56 FC5 79 8.647
56 FC5 80 10.111
56 FC5 81 12.553
56 FC5 82 13.529
56 FC5 83 13.529
56 FC5 84 11.576
56 FC5 85 10.111
56 FC5 86 10.111
56 FC5 87 11.088
56 FC5 88 12.553
56 FC5 89 13.529
56 FC5 90 13.041
56 FC5 91 11.576
56 FC5 92 10.600
56 FC5 93 11.088
56 FC5 94 12.065
56 FC5 95 13.529
56 FC5 96 14.018
56 FC5 97 14.018
56 FC5 98 13.529
56 FC5 99 12.065
56 FC5 100 10.600
56 FC5 101 9.135
56 FC5 102 7.670
56 FC5 103 7.182
56 FC5 104 8.158
56 FC5 105 10.600
56 FC5 106 14.506
56 FC5 107 17.924
56 FC5 108 20.365
56 FC5 109 20.854
56 FC5 110 18.901
56 FC5 111 16.459
56 FC5 112 14.506
56 FC5 113 14.018
56 FC5 114 14.506
56 FC5 115 15.483
56 FC5 116 16.459
56 FC5 117 16.947
56 FC5 118 17.924
56 FC5 119 17.924
56 FC5 120 16.947
56 FC5 121 14.994
56 FC5 122 12.065
56 FC5 123 10.111
56 FC5 124 10.111
56 FC5 125 12.553
56 FC5 126 14.994
56 FC5 127 16.947
56 FC5 128 16.947
56 FC5 129 15.971
56 FC5 130 14.506
56 FC5 131 14.506
56 FC5 132 14.506
56 FC5 133 15.483
56 FC5 134 14.994
56 FC5 135 14.018
56 FC5 136 12.553
56 FC5 137 12.065
56 FC5 138 12.553
56 FC5 139 13.529
56 FC5 140 14.506
56 FC5 141 14.994
56 FC5 142 14.994
56 FC5 143 14.506
56 FC5 144 14.994
56 FC5 145 15.483
56 FC5 146 15.971
56 FC5 147 15.483
56 FC5 148 14.018
56 FC5 149 12.065
56 FC5 150 10.600
56 FC5 151 10.111
56 FC5 152 10.600
56 FC5 153 11.576
56 FC5 154 12.553
56 FC5 155 13.041
56 FC5 156 12.065
56 FC5 157 10.600
56 FC5 158 10.111
56 FC5 159 11.088
56 FC5 160 12.553
56 FC5 161 14.506
56 FC5 162 15.971
56 FC5 163 15.971
56 FC5 164 15.483
56 FC5 165 14.506
56 FC5 166 14.018
56 FC5 167 13.041
56 FC5 168 13.041
56 FC5 169 13.041
56 FC5 170 13.529
56 FC5 171 14.506
56 FC5 172 15.971
56 FC5 173 16.947
56 FC5 174 16.947
56 FC5 175 16.459
56 FC5 176 14.994
56 FC5 177 14.018
56 FC5 178 13.529
56 FC5 179 13.041
56 FC5 180 13.041
56 FC5 181 13.041
56 FC5 182 13.041
56 FC5 183 13.041
56 FC5 184 13.041
56 FC5 185 12.553
56 FC5 186 12.553
56 FC5 187 13.529
56 FC5 188 14.994
56 FC5 189 16.947
56 FC5 190 18.901
56 FC5 191 19.877
56 FC5 192 20.365
56 FC5 193 20.854
56 FC5 194 22.807
56 FC5 195 24.760
56 FC5 196 26.713
56 FC5 197 28.178
56 FC5 198 28.666
56 FC5 199 28.666
56 FC5 200 29.154
56 FC5 201 30.131
56 FC5 202 31.596
56 FC5 203 33.061
56 FC5 204 34.526
56 FC5 205 35.990
56 FC5 206 37.455
56 FC5 207 38.432
56 FC5 208 38.920
56 FC5 209 38.920
56 FC5 210 38.432
56 FC5 211 38.432
56 FC5 212 38.432
56 FC5 213 38.432
56 FC5 214 38.432
56 FC5 215 37.944
56 FC5 216 37.944
56 FC5 217 38.920
56 FC5 218 39.897
56 FC5 219 40.385
56 FC5 220 40.385
56 FC5 221 39.408
56 FC5 222 38.432
56 FC5 223 37.944
56 FC5 224 37.944
56 FC5 225 37.944
56 FC5 226 36.967
56 FC5 227 36.479
56 FC5 228 35.014
56 FC5 229 33.549
56 FC5 230 32.084
56 FC5 231 30.131
56 FC5 232 28.666
56 FC5 233 28.666
56 FC5 234 29.154
56 FC5 235 30.131
56 FC5 236 30.619
56 FC5 237 29.643
56 FC5 238 28.178
56 FC5 239 27.690
56 FC5 240 28.178
56 FC5 241 28.666
56 FC5 242 29.643
56 FC5 243 29.643
56 FC5 244 29.643
56 FC5 245 30.131
56 FC5 246 30.619
56 FC5 247 31.596
56 FC5 248 31.596
56 FC5 249 30.619
56 FC5 250 28.666
56 FC5 251 27.690
56 FC5 252 27.201
56 FC5 253 28.178
56 FC5 254 29.643
56 FC5 255 30.619
# FC2 chan 11
56 FC2 0 -0.295
56 FC2 1 0.682
56 FC2 2 1.658
56 FC2 3 2.635
56 FC2 4 3.123
56 FC2 5 3.123
56 FC2 6 2.635
56 FC2 7 1.658
56 FC2 8 1.170
56 FC2 9 0.682
56 FC2 10 0.193
56 FC2 11 0.682
56 FC2 12 1.170
56 FC2 13 1.658
56 FC2 14 2.146
56 FC2 15 2.146
56 FC2 16 1.658
56 FC2 17 1.170
56 FC2 18 0.193
56 FC2 19 -0.783
56 FC2 20 -0.783
56 FC2 21 -0.783
56 FC2 22 -0.295
56 FC2 23 -0.783
56 FC2 24 -1.272
56 FC2 25 -2.248
56 FC2 26 -3.225
56 FC2 27 -3.225
56 FC2 28 -2.736
56 FC2 29 -2.248
56 FC2 30 -2.736
56 FC2 31 -3.225
56 FC2 32 -4.201
56 FC2 33 -4.201
56 FC2 34 -3.225
56 FC2 35 -1.272
56 FC2 36 0.682
56 FC2 37 1.658
56 FC2 38 1.658
56 FC2 39 1.170
56 FC2 40 0.193
56 FC2 41 0.193
56 FC2 42 0.193
56 FC2 43 0.193
56 FC2 44 0.193
56 FC2 45 -0.295
56 FC2 46 -0.783
56 FC2 47 -0.295
56 FC2 48 0.682
56 FC2 49 1.658
56 FC2 50 2.635
56 FC2 51 3.123
56 FC2 52 2.635
56 FC2 53 1.658
56 FC2 54 1.170
56 FC2 55 0.682
56 FC2 56 0.682
56 FC2 57 1.658
56 FC2 58 2.635
56 FC2 59 3.123
56 FC2 60 3.611
56 FC2 61 4.588
56 FC2 62 5.564
56 FC2 63 6.053
56 FC2 64 6.053
56 FC2 65 6.053
56 FC2 66 5.564
56 FC2 67 5.076
56 FC2 68 5.076
56 FC2 69 5.564
56 FC2 70 6.053
56 FC2 71 6.053
56 FC2 72 5.564
56 FC2 73 5.564
56 FC2 74 5.076
56 FC2 75 5.076
56 FC2 76 4.588
56 FC2 77 4.100
56 FC2 78 3.611
56 FC2 79 3.123
56 FC2 80 3.611
56 FC2 81 3.611
56 FC2 82 4.100
56 FC2 83 4.588
56 FC2 84 3.611
56 FC2 85 3.123
56 FC2 86 2.146
56 FC2 87 1.658
56 FC2 88 1.658
56 FC2 89 1.658
56 FC2 90 1.658
56 FC2 91 2.146
56 FC2 92 2.635
56 FC2 93 2.635
56 FC2 94 3.123
56 FC2 95 3.611
56 FC2 96 4.100
56 FC2 97 4.100
56 FC2 98 4.100
56 FC2 99 4.100
56 FC2 100 4.588
56 FC2 101 4.588
56 FC2 102 5.076
56 FC2 103 5.076
56 FC2 104 5.076
56 FC2 105 5.076
56 FC2 106 4.100
56 FC2 107 3.123
56 FC2 108 2.635
56 FC2 109 2.635
56 FC2 110 2.635
56 FC2 111 3.123
56 FC2 112 3.123
56 FC2 113 3.123
56 FC2 114 2.635
56 FC2 115 2.635
56 FC2 116 2.146
56 FC2 117 2.146
56 FC2 118 1.658
56 FC2 119 1.170
56 FC2 120 -0.295
56 FC2 121 -0.783
56 FC2 122 -0.783
56 FC2 123 0.682
56 FC2 124 1.658
56 FC2 125 2.635
56 FC2 126 2.635
56 FC2 127 2.146
56 FC2 128 2.635
56 FC2 129 4.100
56 FC2 130 5.564
56 FC2 131 7.517
56 FC2 132 8.006
56 FC2 133 8.006
56 FC2 134 7.517
56 FC2 135 7.517
56 FC2 136 8.006
56 FC2 137 8.982
56 FC2 138 9.471
56 FC2 139 8.982
56 FC2 140 8.982
56 FC2 141 8.494
56 FC2 142 8.006
56 FC2 143 7.517
56 FC2 144 7.029
56 FC2 145 6.053
56 FC2 146 5.564
56 FC2 147 5.076
56 FC2 148 5.076
56 FC2 149 5.076
56 FC2 150 5.076
56 FC2 151 4.100
56 FC2 152 3.611
56 FC2 153 3.123
56 FC2 154 3.123
56 FC2 155 3.611
56 FC2 156 4.588
56 FC2 157 5.076
56 FC2 158 5.076
56 FC2 159 5.564
56 FC2 160 5.564
56 FC2 161 6.053
56 FC2 162 7.029
56 FC2 163 8.006
56 FC2 164 8.494
56 FC2 165 8.982
56 FC2 166 8.982
56 FC2 167 8.982
56 FC2 168 8.494
56 FC2 169 8.006
56 FC2 170 7.517
56 FC2 171 7.517
56 FC2 172 7.517
56 FC2 173 8.006
56 FC2 174 8.494
56 FC2 175 8.006
56 FC2 176 7.517
56 FC2 177 6.053
56 FC2 178 5.564
56 FC2 179 5.564
56 FC2 180 6.053
56 FC2 181 7.029
56 FC2 182 8.006
56 FC2 183 8.494
56 FC2 184 8.494
56 FC2 185 8.494
56 FC2 186 8.006
56 FC2 187 8.006
56 FC2 188 8.006
56 FC2 189 9.471
56 FC2 190 10.935
56 FC2 191 12.889
56 FC2 192 13.865
56 FC2 193 14.353
56 FC2 194 14.353
56 FC2 195 14.353
56 FC2 196 14.353
56 FC2 197 14.353
56 FC2 198 15.818
56 FC2 199 17.283
56 FC2 200 18.748
56 FC2 201 20.213
56 FC2 202 21.189
56 FC2 203 21.678
56 FC2 204 22.166
56 FC2 205 22.654
56 FC2 206 24.119
56 FC2 207 25.096
56 FC2 208 25.584
56 FC2 209 25.584
56 FC2 210 25.096
56 FC2 211 25.096
56 FC2 212 25.096
56 FC2 213 25.584
56 FC2 214 25.584
56 FC2 215 25.096
56 FC2 216 24.607
56 FC2 217 24.607
56 FC2 218 24.607
56 FC2 219 25.096
56 FC2 220 25.096
56 FC2 221 24.607
56 FC2 222 24.119
56 FC2 223 23.631
56 FC2 224 23.142
56 FC2 225 22.654
56 FC2 226 21.189
56 FC2 227 18.748
56 FC2 228 16.307
56 FC2 229 14.353
56 FC2 230 12.889
56 FC2 231 12.400
56 FC2 232 12.889
56 FC2 233 12.889
56 FC2 234 12.889
56 FC2 235 12.400
56 FC2 236 12.400
56 FC2 237 12.889
56 FC2 238 13.377
56 FC2 239 14.353
56 FC2 240 15.330
56 FC2 241 16.795
56 FC2 242 17.771
56 FC2 243 18.748
56 FC2 244 18.748
56 FC2 245 18.260
56 FC2 246 17.283
56 FC2 247 16.307
56 FC2 248 15.818
56 FC2 249 16.307
56 FC2 250 17.283
56 FC2 251 17.771
56 FC2 252 17.771
56 FC2 253 17.283
56 FC2 254 16.307
56 FC2 255 16.307
# FC1 chan 12
56 FC1 0 -0.559
56 FC1 1 -0.071
56 FC1 2 0.905
56 FC1 3 1.394
56 FC1 4 1.394
56 FC1 5 0.905
56 FC1 6 0.417
56 FC1 7 -0.071
56 FC1 8 -0.559
56 FC1 9 -0.559
56 FC1 10 0.417
56 FC1 11 1.882
56 FC1 12 2.858
56 FC1 13 3.347
56 FC1 14 2.370
56 FC1 15 1.394
56 FC1 16 -0.071
56 FC1 17 -1.048
56 FC1 18 -1.048
56 FC1 19 0.417
56 FC1 20 1.882
56 FC1 21 3.347
56 FC1 22 3.347
56 FC1 23 2.858
56 FC1 24 0.905
56 FC1 25 -0.559
56 FC1 26 -2.024
56 FC1 27 -2.513
56 FC1 28 -2.024
56 FC1 29 -1.048
56 FC1 30 -0.071
56 FC1 31 -0.071
56 FC1 32 -0.559
56 FC1 33 -1.048
56 FC1 34 -1.048
56 FC1 35 -0.071
56 FC1 36 1.394
56 FC1 37 3.347
56 FC1 38 4.323
56 FC1 39 4.323
56 FC1 40 4.323
56 FC1 41 4.323
56 FC1 42 5.788
56 FC1 43 7.253
56 FC1 44 8.230
56 FC1 45 8.718
56 FC1 46 8.230
56 FC1 47 8.230
56 FC1 48 8.230
56 FC1 49 8.718
56 FC1 50 8.718
56 FC1 51 7.741
56 FC1 52 5.788
56 FC1 53 4.323
56 FC1 54 2.858
56 FC1 55 2.370
56 FC1 56 2.370
56 FC1 57 2.370
56 FC1 58 2.858
56 FC1 59 2.858
56 FC1 60 3.347
56 FC1 61 4.323
56 FC1 62 5.300
56 FC1 63 5.788
56 FC1 64 7.253
56 FC1 65 8.230
56 FC1 66 9.694
56 FC1 67 10.671
56 FC1 68 11.159
56 FC1 69 10.671
56 FC1 70 10.183
56 FC1 71 9.694
56 FC1 72 9.206
56 FC1 73 9.694
56 FC1 74 10.183
56 FC1 75 11.159
56 FC1 76 11.159
56 FC1 77 10.671
56 FC1 78 9.694
56 FC1 79 9.206
56 FC1 80 9.694
56 FC1 81 10.183
56 FC1 82 11.648
56 FC1 83 12.136
56 FC1 84 11.648
56 FC1 85 10.671
56 FC1 86 9.694
56 FC1 87 9.206
56 FC1 88 9.206
56 FC1 89 9.206
56 FC1 90 8.718
56 FC1 91 8.230
56 FC1 92 8.230
56 FC1 93 8.718
56 FC1 94 8.718
56 FC1 95 9.206
56 FC1 96 8.718
56 FC1 97 8.718
56 FC1 98 8.230
56 FC1 99 8.718
56 FC1 100 9.206
56 FC1 101 8.718
56 FC1 102 8.230
56 FC1 103 7.741
56 FC1 104 6.765
56 FC1 105 6.765
56 FC1 106 7.253
56 FC1 107 7.741
56 FC1 108 8.230
56 FC1 109 8.230
56 FC1 110 8.230
56 FC1 111 7.741
56 FC1 112 8.230
56 FC1 113 8.230
56 FC1 114 7.741
56 FC1 115 7.741
56 FC1 116 7.741
56 FC1 117 7.741
56 FC1 118 8.230
56 FC1 119 7.741
56 FC1 120 6.765
56 FC1 121 4.812
56 FC1 122 3.835
56 FC1 123 3.835
56 FC1 124 4.812
56 FC1 125 5.788
56 FC1 126 5.788
56 FC1 127 5.300
56 FC1 128 4.812
56 FC1 129 5.300
56 FC1 130 6.276
56 FC1 131 7.741
56 FC1 132 8.718
56 FC1 133 8.718
56 FC1 134 8.230
56 FC1 135 8.230
56 FC1 136 8.230
56 FC1 137 9.206
56 FC1 138 9.694
56 FC1 139 10.183
56 FC1 140 10.671
56 FC1 141 11.159
56 FC1 142 11.648
56 FC1 143 12.624
56 FC1 144 12.624
56 FC1 145 12.136
56 FC1 146 11.648
56 FC1 147 11.159
56 FC1 148 11.159
56 FC1 149 12.136
56 FC1 150 12.624
56 FC1 151 12.624
56 FC1 152 11.159
56 FC1 153 9.206
56 FC1 154 7.253
56 FC1 155 6.276
56 FC1 156 6.765
56 FC1 157 8.230
56 FC1 158 8.718
56 FC1 159 9.206
56 FC1 160 8.718
56 FC1 161 8.230
56 FC1 162 8.230
56 FC1 163 8.718
56 FC1 164 9.694
56 FC1 165 10.183
56 FC1 166 10.671
56 FC1 167 10.671
56 FC1 168 11.159
56 FC1 169 11.159
56 FC1 170 11.648
56 FC1 171 12.136
56 FC1 172 12.136
56 FC1 173 12.624
56 FC1 174 12.624
56 FC1 175 12.136
56 FC1 176 12.136
56 FC1 177 11.159
56 FC1 178 10.183
56 FC1 179 9.694
56 FC1 180 9.694
56 FC1 181 10.183
56 FC1 182 11.648
56 FC1 183 12.136
56 FC1 184 12.624
56 FC1 185 12.136
56 FC1 186 11.648
56 FC1 187 11.159
56 FC1 188 11.648
56 FC1 189 12.624
56 FC1 190 14.577
56 FC1 191 15.554
56 FC1 192 17.507
56 FC1 193 18.483
56 FC1 194 19.948
56 FC1 195 20.925
56 FC1 196 21.901
56 FC1 197 21.901
56 FC1 198 21.901
56 FC1 199 21.901
56 FC1 200 22.390
56 FC1 201 23.366
56 FC1 202 24.343
56 FC1 203 26.296
56 FC1 204 27.761
56 FC1 205 29.714
56 FC1 206 30.691
56 FC1 207 31.179
56 FC1 208 31.179
56 FC1 209 30.691
56 FC1 210 30.202
56 FC1 211 30.202
56 FC1 212 29.714
56 FC1 213 29.714
56 FC1 214 29.714
56 FC1 215 29.226
56 FC1 216 29.226
56 FC1 217 29.226
56 FC1 218 30.202
56 FC1 219 31.179
56 FC1 220 31.667
56 FC1 221 32.155
56 FC1 222 32.155
56 FC1 223 32.155
56 FC1 224 31.179
56 FC1 225 29.714
56 FC1 226 28.737
56 FC1 227 27.273
56 FC1 228 25.808
56 FC1 229 24.831
56 FC1 230 23.855
56 FC1 231 23.366
56 FC1 232 22.878
56 FC1 233 22.390
56 FC1 234 21.901
56 FC1 235 21.413
56 FC1 236 21.413
56 FC1 237 21.413
56 FC1 238 21.413
56 FC1 239 21.413
56 FC1 240 22.390
56 FC1 241 23.366
56 FC1 242 23.855
56 FC1 243 23.855
56 FC1 244 23.366
56 FC1 245 22.878
56 FC1 246 21.901
56 FC1 247 20.925
56 FC1 248 19.948
56 FC1 249 19.460
56 FC1 250 18.483
56 FC1 251 18.483
56 FC1 252 18.972
56 FC1 253 18.972
56 FC1 254 18.483
56 FC1 255 17.507
# T8 chan 13
56 T8 0 -1.007
56 T8 1 -3.937
56 T8 2 -3.937
56 T8 3 -1.495
56 T8 4 0.946
56 T8 5 2.899
56 T8 6 2.411
56 T8 7 1.923
56 T8 8 0.946
56 T8 9 1.923
56 T8 10 2.899
56 T8 11 3.876
56 T8 12 3.387
56 T8 13 1.923
56 T8 14 1.434
56 T8 15 1.923
56 T8 16 3.876
56 T8 17 6.317
56 T8 18 6.317
56 T8 19 4.852
56 T8 20 2.899
56 T8 21 1.434
56 T8 22 2.411
56 T8 23 4.364
56 T8 24 5.829
56 T8 25 5.341
56 T8 26 3.387
56 T8 27 1.434
56 T8 28 0.458
56 T8 29 0.458
56 T8 30 0.458
56 T8 31 -0.519
56 T8 32 -1.984
56 T8 33 -3.937
56 T8 34 -3.448
56 T8 35 -1.495
56 T8 36 0.946
56 T8 37 0.946
56 T8 38 -1.495
56 T8 39 -5.890
56 T8 40 -8.331
56 T8 41 -8.331
56 T8 42 -5.402
56 T8 43 -1.984
56 T8 44 -0.031
56 T8 45 -0.519
56 T8 46 -1.495
56 T8 47 -2.472
56 T8 48 -1.984
56 T8 49 -0.031
56 T8 50 1.923
56 T8 51 3.387
56 T8 52 3.876
56 T8 53 3.387
56 T8 54 2.899
56 T8 55 2.899
56 T8 56 3.387
56 T8 57 4.364
56 T8 58 5.829
56 T8 59 6.805
56 T8 60 7.782
56 T8 61 8.270
56 T8 62 9.735
56 T8 63 10.712
56 T8 64 10.712
56 T8 65 8.270
56 T8 66 5.829
56 T8 67 4.852
56 T8 68 5.829
56 T8 69 6.805
56 T8 70 7.294
56 T8 71 4.852
56 T8 72 1.434
56 T8 73 -1.007
56 T8 74 -0.031
56 T8 75 2.899
56 T8 76 6.317
56 T8 77 7.294
56 T8 78 6.805
56 T8 79 5.829
56 T8 80 6.805
56 T8 81 8.759
56 T8 82 11.200
56 T8 83 11.200
56 T8 84 9.247
56 T8 85 6.805
56 T8 86 6.317
56 T8 87 6.317
56 T8 88 6.317
56 T8 89 5.829
56 T8 90 3.876
56 T8 91 2.411
56 T8 92 2.899
56 T8 93 5.341
56 T8 94 7.294
56 T8 95 7.782
56 T8 96 6.317
56 T8 97 3.876
56 T8 98 2.899
56 T8 99 3.876
56 T8 100 5.341
56 T8 101 6.317
56 T8 102 6.317
56 T8 103 6.805
56 T8 104 8.270
56 T8 105 11.200
56 T8 106 13.153
56 T8 107 13.641
56 T8 108 12.177
56 T8 109 10.223
56 T8 110 8.270
56 T8 111 8.270
56 T8 112 8.270
56 T8 113 8.759
56 T8 114 7.782
56 T8 115 6.805
56 T8 116 6.805
56 T8 117 7.294
56 T8 118 8.270
56 T8 119 8.270
56 T8 120 5.829
56 T8 121 2.899
56 T8 122 0.946
56 T8 123 1.923
56 T8 124 3.876
56 T8 125 6.805
56 T8 126 8.270
56 T8 127 8.270
56 T8 128 7.782
56 T8 129 8.759
56 T8 130 10.223
56 T8 131 11.200
56 T8 132 10.712
56 T8 133 8.759
56 T8 134 7.782
56 T8 135 8.270
56 T8 136 10.223
56 T8 137 12.177
56 T8 138 12.177
56 T8 139 9.735
56 T8 140 5.829
56 T8 141 3.876
56 T8 142 3.876
56 T8 143 5.829
56 T8 144 7.294
56 T8 145 6.805
56 T8 146 4.852
56 T8 147 3.387
56 T8 148 3.387
56 T8 149 4.852
56 T8 150 6.805
56 T8 151 7.782
56 T8 152 7.782
56 T8 153 7.782
56 T8 154 9.247
56 T8 155 12.177
56 T8 156 14.618
56 T8 157 14.618
56 T8 158 11.688
56 T8 159 7.782
56 T8 160 5.829
56 T8 161 6.317
56 T8 162 9.735
56 T8 163 13.153
56 T8 164 15.594
56 T8 165 16.083
56 T8 166 13.641
56 T8 167 9.247
56 T8 168 4.852
56 T8 169 2.899
56 T8 170 2.899
56 T8 171 5.341
56 T8 172 8.270
56 T8 173 10.223
56 T8 174 9.247
56 T8 175 6.317
56 T8 176 3.876
56 T8 177 2.411
56 T8 178 3.387
56 T8 179 5.829
56 T8 180 7.782
56 T8 181 8.759
56 T8 182 8.270
56 T8 183 6.805
56 T8 184 5.341
56 T8 185 4.364
56 T8 186 3.876
56 T8 187 3.876
56 T8 188 3.387
56 T8 189 3.876
56 T8 190 5.341
56 T8 191 8.270
56 T8 192 11.688
56 T8 193 13.641
56 T8 194 13.641
56 T8 195 10.712
56 T8 196 7.294
56 T8 197 4.852
56 T8 198 4.364
56 T8 199 6.317
56 T8 200 7.782
56 T8 201 8.270
56 T8 202 7.294
56 T8 203 5.829
56 T8 204 5.829
56 T8 205 7.294
56 T8 206 8.759
56 T8 207 8.759
56 T8 208 7.782
56 T8 209 7.294
56 T8 210 8.270
56 T8 211 11.200
56 T8 212 14.130
56 T8 213 14.130
56 T8 214 10.712
56 T8 215 6.805
56 T8 216 3.876
56 T8 217 4.364
56 T8 218 6.317
56 T8 219 7.294
56 T8 220 5.829
56 T8 221 2.899
56 T8 222 1.434
56 T8 223 3.387
56 T8 224 8.270
56 T8 225 11.688
56 T8 226 11.200
56 T8 227 6.317
56 T8 228 -0.031
56 T8 229 -3.448
56 T8 230 -3.448
56 T8 231 -0.519
56 T8 232 1.923
56 T8 233 2.899
56 T8 234 3.387
56 T8 235 4.364
56 T8 236 7.294
56 T8 237 10.712
56 T8 238 12.177
56 T8 239 11.688
56 T8 240 10.712
56 T8 241 11.200
56 T8 242 12.665
56 T8 243 14.130
56 T8 244 13.641
56 T8 245 10.712
56 T8 246 6.317
56 T8 247 4.364
56 T8 248 4.852
56 T8 249 8.270
56 T8 250 10.712
56 T8 251 11.688
56 T8 252 10.712
56 T8 253 10.223
56 T8 254 11.200
56 T8 255 12.665
# T7 chan 14
56 T7 0 -5.554
56 T7 1 -9.460
56 T7 2 -9.460
56 T7 3 -5.554
56 T7 4 -1.160
56 T7 5 1.770
56 T7 6 1.770
56 T7 7 -0.671
56 T7 8 -2.625
56 T7 9 -3.113
56 T7 10 -2.136
56 T7 11 -0.671
56 T7 12 0.305
56 T7 13 0.305
56 T7 14 -0.183
56 T7 15 -0.671
56 T7 16 -1.160
56 T7 17 -1.648
56 T7 18 -2.625
56 T7 19 -3.113
56 T7 20 -3.113
56 T7 21 -3.113
56 T7 22 -2.625
56 T7 23 -2.136
56 T7 24 -2.136
56 T7 25 -1.648
56 T7 26 -1.160
56 T7 27 -0.671
56 T7 28 -0.671
56 T7 29 -1.648
56 T7 30 -2.625
56 T7 31 -2.625
56 T7 32 -2.625
56 T7 33 -2.136
56 T7 34 -3.113
56 T7 35 -5.554
56 T7 36 -7.996
56 T7 37 -9.949
56 T7 38 -8.972
56 T7 39 -6.531
56 T7 40 -3.113
56 T7 41 -1.160
56 T7 42 -0.671
56 T7 43 -1.160
56 T7 44 -0.671
56 T7 45 0.793
56 T7 46 3.723
56 T7 47 6.165
56 T7 48 6.653
56 T7 49 4.700
56 T7 50 1.282
56 T7 51 -2.136
56 T7 52 -4.578
56 T7 53 -4.578
56 T7 54 -4.089
56 T7 55 -3.113
56 T7 56 -2.136
56 T7 57 -0.671
56 T7 58 1.282
56 T7 59 2.747
56 T7 60 3.235
56 T7 61 2.258
56 T7 62 0.793
56 T7 63 -0.671
56 T7 64 -1.160
56 T7 65 -1.160
56 T7 66 -0.183
56 T7 67 1.770
56 T7 68 4.700
56 T7 69 7.141
56 T7 70 8.118
56 T7 71 6.165
56 T7 72 2.258
56 T7 73 -1.648
56 T7 74 -3.601
56 T7 75 -1.648
56 T7 76 0.793
56 T7 77 2.747
56 T7 78 2.258
56 T7 79 1.282
56 T7 80 1.282
56 T7 81 4.211
56 T7 82 8.118
56 T7 83 10.559
56 T7 84 10.071
56 T7 85 6.653
56 T7 86 3.235
56 T7 87 1.282
56 T7 88 1.770
56 T7 89 3.235
56 T7 90 4.700
56 T7 91 5.676
56 T7 92 5.676
56 T7 93 5.676
56 T7 94 6.165
56 T7 95 6.653
56 T7 96 7.629
56 T7 97 8.118
56 T7 98 8.118
56 T7 99 6.653
56 T7 100 4.211
56 T7 101 1.770
56 T7 102 0.305
56 T7 103 0.305
56 T7 104 2.258
56 T7 105 4.211
56 T7 106 6.653
56 T7 107 9.583
56 T7 108 11.536
56 T7 109 12.512
56 T7 110 13.000
56 T7 111 12.512
56 T7 112 12.512
56 T7 113 13.000
56 T7 114 12.024
56 T7 115 10.071
56 T7 116 7.629
56 T7 117 6.165
56 T7 118 7.141
56 T7 119 9.094
56 T7 120 10.559
56 T7 121 9.583
56 T7 122 6.165
56 T7 123 3.235
56 T7 124 3.723
56 T7 125 7.141
56 T7 126 9.583
56 T7 127 9.094
56 T7 128 4.700
56 T7 129 0.793
56 T7 130 0.305
56 T7 131 4.211
56 T7 132 9.583
56 T7 133 11.536
56 T7 134 8.606
56 T7 135 2.258
56 T7 136 -1.648
56 T7 137 -1.160
56 T7 138 3.723
56 T7 139 8.606
56 T7 140 10.559
56 T7 141 8.606
56 T7 142 5.676
56 T7 143 4.211
56 T7 144 5.188
56 T7 145 6.653
56 T7 146 7.141
56 T7 147 5.188
56 T7 148 2.258
56 T7 149 0.305
56 T7 150 -0.671
56 T7 151 -0.183
56 T7 152 1.770
56 T7 153 4.211
56 T7 154 7.629
56 T7 155 11.047
56 T7 156 12.024
56 T7 157 10.559
56 T7 158 7.141
56 T7 159 4.700
56 T7 160 5.188
56 T7 161 8.118
56 T7 162 11.047
56 T7 163 11.047
56 T7 164 8.606
56 T7 165 4.700
56 T7 166 2.258
56 T7 167 2.258
56 T7 168 4.211
56 T7 169 5.676
56 T7 170 6.653
56 T7 171 6.653
56 T7 172 6.653
56 T7 173 7.629
56 T7 174 8.118
56 T7 175 7.629
56 T7 176 6.165
56 T7 177 4.700
56 T7 178 4.700
56 T7 179 6.165
56 T7 180 8.118
56 T7 181 10.071
56 T7 182 10.559
56 T7 183 9.094
56 T7 184 7.141
56 T7 185 4.700
56 T7 186 3.235
56 T7 187 3.235
56 T7 188 3.723
56 T7 189 5.188
56 T7 190 6.653
56 T7 191 7.629
56 T7 192 8.118
56 T7 193 8.118
56 T7 194 7.629
56 T7 195 6.653
56 T7 196 6.165
56 T7 197 6.653
56 T7 198 7.141
56 T7 199 7.141
56 T7 200 6.165
56 T7 201 4.211
56 T7 202 3.235
56 T7 203 2.747
56 T7 204 3.235
56 T7 205 3.723
56 T7 206 3.723
56 T7 207 3.723
56 T7 208 4.211
56 T7 209 6.165
56 T7 210 8.606
56 T7 211 10.071
56 T7 212 9.583
56 T7 213 7.141
56 T7 214 4.700
56 T7 215 3.723
56 T7 216 4.700
56 T7 217 7.141
56 T7 218 9.583
56 T7 219 10.071
56 T7 220 9.094
56 T7 221 7.141
56 T7 222 6.165
56 T7 223 6.653
56 T7 224 7.629
56 T7 225 8.606
56 T7 226 8.606
56 T7 227 8.606
56 T7 228 8.606
56 T7 229 9.583
56 T7 230 11.536
56 T7 231 13.489
56 T7 232 13.977
56 T7 233 13.000
56 T7 234 11.047
56 T7 235 9.094
56 T7 236 8.118
56 T7 237 8.606
56 T7 238 9.094
56 T7 239 9.094
56 T7 240 8.118
56 T7 241 5.676
56 T7 242 3.235
56 T7 243 1.770
56 T7 244 3.235
56 T7 245 6.165
56 T7 246 9.583
56 T7 247 11.536
56 T7 248 10.559
56 T7 249 8.118
56 T7 250 4.700
56 T7 251 4.211
56 T7 252 5.676
56 T7 253 9.094
56 T7 254 11.536
56 T7 255 12.512
# CZ chan 15
56 CZ 0 12.410
56 CZ 1 10.946
56 CZ 2 9.481
56 CZ 3 8.993
56 CZ 4 10.946
56 CZ 5 13.387
56 CZ 6 15.340
56 CZ 7 14.852
56 CZ 8 12.410
56 CZ 9 10.457
56 CZ 10 10.946
56 CZ 11 13.875
56 CZ 12 17.293
56 CZ 13 19.246
56 CZ 14 19.246
56 CZ 15 18.270
56 CZ 16 18.270
56 CZ 17 19.246
56 CZ 18 20.711
56 CZ 19 22.176
56 CZ 20 21.688
56 CZ 21 20.711
56 CZ 22 19.735
56 CZ 23 19.735
56 CZ 24 21.200
56 CZ 25 22.664
56 CZ 26 23.641
56 CZ 27 23.641
56 CZ 28 21.688
56 CZ 29 18.758
56 CZ 30 16.317
56 CZ 31 14.852
56 CZ 32 13.875
56 CZ 33 13.875
56 CZ 34 14.364
56 CZ 35 14.364
56 CZ 36 15.340
56 CZ 37 16.805
56 CZ 38 18.758
56 CZ 39 20.223
56 CZ 40 20.223
56 CZ 41 19.246
56 CZ 42 16.805
56 CZ 43 15.340
56 CZ 44 15.340
56 CZ 45 17.782
56 CZ 46 20.223
56 CZ 47 22.176
56 CZ 48 22.176
56 CZ 49 20.223
56 CZ 50 18.270
56 CZ 51 18.270
56 CZ 52 20.711
56 CZ 53 24.129
56 CZ 54 26.082
56 CZ 55 25.594
56 CZ 56 23.641
56 CZ 57 21.688
56 CZ 58 21.200
56 CZ 59 22.664
56 CZ 60 25.106
56 CZ 61 27.059
56 CZ 62 28.524
56 CZ 63 29.500
56 CZ 64 29.500
56 CZ 65 28.524
56 CZ 66 27.059
56 CZ 67 25.594
56 CZ 68 25.594
56 CZ 69 26.082
56 CZ 70 26.082
56 CZ 71 24.618
56 CZ 72 21.200
56 CZ 73 18.270
56 CZ 74 17.782
56 CZ 75 21.688
56 CZ 76 27.547
56 CZ 77 32.430
56 CZ 78 34.383
56 CZ 79 32.918
56 CZ 80 29.500
56 CZ 81 27.547
56 CZ 82 26.571
56 CZ 83 26.082
56 CZ 84 24.618
56 CZ 85 23.153
56 CZ 86 22.176
56 CZ 87 23.153
56 CZ 88 25.594
56 CZ 89 28.524
56 CZ 90 30.477
56 CZ 91 31.453
56 CZ 92 30.965
56 CZ 93 30.477
56 CZ 94 30.477
56 CZ 95 30.477
56 CZ 96 29.989
56 CZ 97 29.500
56 CZ 98 28.524
56 CZ 99 27.547
56 CZ 100 25.594
56 CZ 101 23.641
56 CZ 102 21.688
56 CZ 103 19.735
56 CZ 104 18.758
56 CZ 105 19.735
56 CZ 106 23.641
56 CZ 107 28.035
56 CZ 108 32.430
56 CZ 109 34.383
56 CZ 110 33.407
56 CZ 111 30.965
56 CZ 112 28.035
56 CZ 113 25.594
56 CZ 114 24.129
56 CZ 115 23.641
56 CZ 116 24.129
56 CZ 117 25.594
56 CZ 118 28.035
56 CZ 119 29.989
56 CZ 120 29.012
56 CZ 121 26.082
56 CZ 122 22.176
56 CZ 123 19.735
56 CZ 124 21.200
56 CZ 125 25.594
56 CZ 126 29.500
56 CZ 127 30.965
56 CZ 128 30.477
56 CZ 129 28.524
56 CZ 130 27.547
56 CZ 131 28.035
56 CZ 132 28.524
56 CZ 133 28.035
56 CZ 134 25.594
56 CZ 135 23.641
56 CZ 136 23.153
56 CZ 137 24.618
56 CZ 138 25.594
56 CZ 139 25.106
56 CZ 140 22.176
56 CZ 141 18.758
56 CZ 142 16.805
56 CZ 143 17.782
56 CZ 144 20.223
56 CZ 145 21.200
56 CZ 146 20.711
56 CZ 147 18.758
56 CZ 148 17.782
56 CZ 149 18.270
56 CZ 150 20.711
56 CZ 151 22.664
56 CZ 152 23.153
56 CZ 153 23.641
56 CZ 154 24.618
56 CZ 155 26.082
56 CZ 156 28.035
56 CZ 157 27.547
56 CZ 158 25.594
56 CZ 159 23.153
56 CZ 160 23.153
56 CZ 161 26.571
56 CZ 162 31.942
56 CZ 163 35.848
56 CZ 164 36.336
56 CZ 165 33.407
56 CZ 166 28.524
56 CZ 167 24.618
56 CZ 168 22.664
56 CZ 169 23.641
56 CZ 170 25.594
56 CZ 171 27.547
56 CZ 172 29.500
56 CZ 173 29.500
56 CZ 174 29.012
56 CZ 175 27.059
56 CZ 176 25.106
56 CZ 177 24.618
56 CZ 178 25.106
56 CZ 179 26.571
56 CZ 180 28.524
56 CZ 181 29.500
56 CZ 182 29.500
56 CZ 183 28.524
56 CZ 184 26.082
56 CZ 185 23.153
56 CZ 186 19.246
56 CZ 187 16.317
56 CZ 188 14.852
56 CZ 189 14.364
56 CZ 190 14.364
56 CZ 191 13.875
56 CZ 192 11.922
56 CZ 193 8.993
56 CZ 194 7.039
56 CZ 195 4.598
56 CZ 196 2.157
56 CZ 197 -1.261
56 CZ 198 -4.679
56 CZ 199 -7.609
56 CZ 200 -10.050
56 CZ 201 -12.492
56 CZ 202 -14.933
56 CZ 203 -17.863
56 CZ 204 -19.328
56 CZ 205 -19.328
56 CZ 206 -17.863
56 CZ 207 -16.398
56 CZ 208 -16.886
56 CZ 209 -17.863
56 CZ 210 -17.863
56 CZ 211 -16.398
56 CZ 212 -14.445
56 CZ 213 -13.468
56 CZ 214 -14.933
56 CZ 215 -16.886
56 CZ 216 -15.910
56 CZ 217 -10.539
56 CZ 218 -2.238
56 CZ 219 4.110
56 CZ 220 6.551
56 CZ 221 4.598
56 CZ 222 3.621
56 CZ 223 7.039
56 CZ 224 16.317
56 CZ 225 26.571
56 CZ 226 33.407
56 CZ 227 33.895
56 CZ 228 29.989
56 CZ 229 27.059
56 CZ 230 28.035
56 CZ 231 32.430
56 CZ 232 36.825
56 CZ 233 39.266
56 CZ 234 40.731
56 CZ 235 43.172
56 CZ 236 47.078
56 CZ 237 52.450
56 CZ 238 56.844
56 CZ 239 58.309
56 CZ 240 59.285
56 CZ 241 60.750
56 CZ 242 64.168
56 CZ 243 68.563
56 CZ 244 71.981
56 CZ 245 71.981
56 CZ 246 70.028
56 CZ 247 68.075
56 CZ 248 67.586
56 CZ 249 69.539
56 CZ 250 71.493
56 CZ 251 72.957
56 CZ 252 73.446
56 CZ 253 74.910
56 CZ 254 77.352
56 CZ 255 81.258
# C3 chan 16
56 C3 0 -2.431
56 C3 1 0.010
56 C3 2 1.475
56 C3 3 1.475
56 C3 4 0.498
56 C3 5 -1.455
56 C3 6 -2.431
56 C3 7 -2.920
56 C3 8 -3.408
56 C3 9 -2.920
56 C3 10 -2.920
56 C3 11 -2.431
56 C3 12 -0.966
56 C3 13 -0.478
56 C3 14 -0.478
56 C3 15 -0.966
56 C3 16 -0.966
56 C3 17 -0.478
56 C3 18 0.010
56 C3 19 0.987
56 C3 20 1.475
56 C3 21 0.987
56 C3 22 0.010
56 C3 23 -0.966
56 C3 24 -1.943
56 C3 25 -3.408
56 C3 26 -3.408
56 C3 27 -2.431
56 C3 28 0.010
56 C3 29 1.963
56 C3 30 2.452
56 C3 31 1.963
56 C3 32 -0.966
56 C3 33 -3.896
56 C3 34 -5.849
56 C3 35 -5.849
56 C3 36 -3.896
56 C3 37 -1.943
56 C3 38 0.010
56 C3 39 0.987
56 C3 40 0.498
56 C3 41 0.498
56 C3 42 0.498
56 C3 43 0.987
56 C3 44 2.452
56 C3 45 3.916
56 C3 46 5.381
56 C3 47 5.870
56 C3 48 5.381
56 C3 49 4.405
56 C3 50 2.940
56 C3 51 1.475
56 C3 52 0.498
56 C3 53 -0.478
56 C3 54 -0.966
56 C3 55 -1.455
56 C3 56 -1.455
56 C3 57 -1.943
56 C3 58 -1.455
56 C3 59 -0.478
56 C3 60 1.475
56 C3 61 3.916
56 C3 62 4.405
56 C3 63 3.916
56 C3 64 2.452
56 C3 65 0.987
56 C3 66 0.498
56 C3 67 1.963
56 C3 68 3.916
56 C3 69 5.381
56 C3 70 5.381
56 C3 71 3.916
56 C3 72 1.963
56 C3 73 0.498
56 C3 74 0.498
56 C3 75 0.987
56 C3 76 1.963
56 C3 77 1.963
56 C3 78 2.940
56 C3 79 3.916
56 C3 80 4.893
56 C3 81 5.381
56 C3 82 5.381
56 C3 83 5.381
56 C3 84 5.381
56 C3 85 5.870
56 C3 86 6.846
56 C3 87 7.334
56 C3 88 7.823
56 C3 89 7.823
56 C3 90 6.846
56 C3 91 5.870
56 C3 92 4.893
56 C3 93 4.405
56 C3 94 4.405
56 C3 95 4.893
56 C3 96 5.870
56 C3 97 6.358
56 C3 98 5.381
56 C3 99 4.405
56 C3 100 3.428
56 C3 101 2.940
56 C3 102 2.452
56 C3 103 2.940
56 C3 104 3.428
56 C3 105 4.405
56 C3 106 5.381
56 C3 107 6.846
56 C3 108 8.311
56 C3 109 8.799
56 C3 110 8.311
56 C3 111 6.846
56 C3 112 5.381
56 C3 113 4.405
56 C3 114 4.405
56 C3 115 5.381
56 C3 116 6.846
56 C3 117 8.311
56 C3 118 8.799
56 C3 119 8.799
56 C3 120 8.311
56 C3 121 7.334
56 C3 122 5.870
56 C3 123 4.893
56 C3 124 4.893
56 C3 125 5.381
56 C3 126 6.358
56 C3 127 7.334
56 C3 128 7.334
56 C3 129 6.846
56 C3 130 5.381
56 C3 131 3.916
56 C3 132 2.940
56 C3 133 3.428
56 C3 134 4.405
56 C3 135 5.381
56 C3 136 5.870
56 C3 137 5.381
56 C3 138 4.405
56 C3 139 3.916
56 C3 140 4.405
56 C3 141 5.381
56 C3 142 6.358
56 C3 143 6.846
56 C3 144 7.334
56 C3 145 7.823
56 C3 146 8.311
56 C3 147 8.311
56 C3 148 8.311
56 C3 149 7.823
56 C3 150 6.846
56 C3 151 6.846
56 C3 152 6.358
56 C3 153 6.358
56 C3 154 6.358
56 C3 155 5.381
56 C3 156 3.916
56 C3 157 3.428
56 C3 158 3.428
56 C3 159 4.405
56 C3 160 5.870
56 C3 161 6.846
56 C3 162 7.334
56 C3 163 7.823
56 C3 164 8.311
56 C3 165 8.799
56 C3 166 8.799
56 C3 167 8.799
56 C3 168 7.823
56 C3 169 7.334
56 C3 170 6.846
56 C3 171 6.846
56 C3 172 7.334
56 C3 173 7.823
56 C3 174 7.823
56 C3 175 7.823
56 C3 176 7.823
56 C3 177 7.334
56 C3 178 7.334
56 C3 179 7.823
56 C3 180 8.311
56 C3 181 8.799
56 C3 182 9.288
56 C3 183 9.288
56 C3 184 8.799
56 C3 185 7.334
56 C3 186 6.358
56 C3 187 5.870
56 C3 188 6.358
56 C3 189 7.823
56 C3 190 9.288
56 C3 191 9.776
56 C3 192 9.776
56 C3 193 9.776
56 C3 194 9.288
56 C3 195 9.288
56 C3 196 9.288
56 C3 197 8.799
56 C3 198 8.311
56 C3 199 8.311
56 C3 200 8.311
56 C3 201 7.823
56 C3 202 7.823
56 C3 203 8.311
56 C3 204 8.311
56 C3 205 8.799
56 C3 206 9.288
56 C3 207 9.776
56 C3 208 10.752
56 C3 209 11.241
56 C3 210 11.729
56 C3 211 11.729
56 C3 212 11.729
56 C3 213 10.264
56 C3 214 9.288
56 C3 215 8.799
56 C3 216 8.799
56 C3 217 9.776
56 C3 218 10.752
56 C3 219 11.241
56 C3 220 10.752
56 C3 221 9.776
56 C3 222 8.799
56 C3 223 8.311
56 C3 224 8.799
56 C3 225 9.288
56 C3 226 9.776
56 C3 227 9.776
56 C3 228 10.264
56 C3 229 10.752
56 C3 230 11.241
56 C3 231 11.241
56 C3 232 11.729
56 C3 233 11.241
56 C3 234 10.752
56 C3 235 10.264
56 C3 236 9.776
56 C3 237 9.288
56 C3 238 8.799
56 C3 239 8.311
56 C3 240 8.311
56 C3 241 8.311
56 C3 242 8.799
56 C3 243 9.288
56 C3 244 9.776
56 C3 245 9.776
56 C3 246 9.288
56 C3 247 8.799
56 C3 248 7.823
56 C3 249 7.823
56 C3 250 8.311
56 C3 251 8.799
56 C3 252 9.288
56 C3 253 9.288
56 C3 254 9.288
56 C3 255 8.311
# C4 chan 17
56 C4 0 0.437
56 C4 1 0.437
56 C4 2 0.926
56 C4 3 1.414
56 C4 4 1.902
56 C4 5 1.414
56 C4 6 0.437
56 C4 7 -0.051
56 C4 8 -0.051
56 C4 9 0.926
56 C4 10 1.414
56 C4 11 1.414
56 C4 12 1.414
56 C4 13 0.926
56 C4 14 0.926
56 C4 15 1.414
56 C4 16 1.902
56 C4 17 2.391
56 C4 18 2.391
56 C4 19 1.902
56 C4 20 1.902
56 C4 21 2.391
56 C4 22 3.855
56 C4 23 4.832
56 C4 24 4.344
56 C4 25 2.879
56 C4 26 0.437
56 C4 27 -0.539
56 C4 28 -0.539
56 C4 29 -0.539
56 C4 30 -0.539
56 C4 31 -1.027
56 C4 32 -2.492
56 C4 33 -3.469
56 C4 34 -2.492
56 C4 35 -1.516
56 C4 36 -1.027
56 C4 37 -1.027
56 C4 38 -2.004
56 C4 39 -2.492
56 C4 40 -2.492
56 C4 41 -1.027
56 C4 42 -0.051
56 C4 43 0.437
56 C4 44 -0.051
56 C4 45 -1.027
56 C4 46 -1.027
56 C4 47 -0.539
56 C4 48 0.437
56 C4 49 0.926
56 C4 50 0.437
56 C4 51 -0.539
56 C4 52 -1.027
56 C4 53 -0.051
56 C4 54 1.902
56 C4 55 4.832
56 C4 56 6.785
56 C4 57 7.762
56 C4 58 7.762
56 C4 59 7.273
56 C4 60 6.785
56 C4 61 7.273
56 C4 62 8.250
56 C4 63 8.250
56 C4 64 7.762
56 C4 65 6.785
56 C4 66 4.832
56 C4 67 3.367
56 C4 68 2.391
56 C4 69 2.879
56 C4 70 3.855
56 C4 71 4.832
56 C4 72 5.809
56 C4 73 6.297
56 C4 74 5.809
56 C4 75 5.320
56 C4 76 4.344
56 C4 77 4.344
56 C4 78 5.320
56 C4 79 7.273
56 C4 80 8.250
56 C4 81 7.762
56 C4 82 6.785
56 C4 83 6.297
56 C4 84 5.809
56 C4 85 6.297
56 C4 86 6.785
56 C4 87 6.785
56 C4 88 6.297
56 C4 89 6.297
56 C4 90 6.297
56 C4 91 6.297
56 C4 92 5.809
56 C4 93 4.344
56 C4 94 3.367
56 C4 95 2.879
56 C4 96 3.855
56 C4 97 5.320
56 C4 98 6.297
56 C4 99 6.297
56 C4 100 5.809
56 C4 101 4.832
56 C4 102 5.320
56 C4 103 5.809
56 C4 104 6.785
56 C4 105 6.785
56 C4 106 6.297
56 C4 107 6.297
56 C4 108 6.785
56 C4 109 7.762
56 C4 110 8.250
56 C4 111 7.762
56 C4 112 6.297
56 C4 113 5.320
56 C4 114 4.344
56 C4 115 4.832
56 C4 116 5.809
56 C4 117 6.297
56 C4 118 5.320
56 C4 119 3.855
56 C4 120 2.879
56 C4 121 2.879
56 C4 122 3.855
56 C4 123 3.855
56 C4 124 3.855
56 C4 125 2.879
56 C4 126 2.391
56 C4 127 3.367
56 C4 128 4.832
56 C4 129 6.297
56 C4 130 7.273
56 C4 131 7.273
56 C4 132 7.762
56 C4 133 8.250
56 C4 134 9.226
56 C4 135 9.715
56 C4 136 8.738
56 C4 137 6.785
56 C4 138 5.320
56 C4 139 5.320
56 C4 140 6.785
56 C4 141 8.250
56 C4 142 8.738
56 C4 143 7.762
56 C4 144 5.809
56 C4 145 4.344
56 C4 146 3.367
56 C4 147 3.367
56 C4 148 3.367
56 C4 149 2.879
56 C4 150 2.391
56 C4 151 2.879
56 C4 152 3.367
56 C4 153 5.320
56 C4 154 6.785
56 C4 155 7.762
56 C4 156 7.762
56 C4 157 7.762
56 C4 158 6.785
56 C4 159 5.809
56 C4 160 5.320
56 C4 161 4.832
56 C4 162 5.320
56 C4 163 6.297
56 C4 164 7.762
56 C4 165 8.738
56 C4 166 8.250
56 C4 167 6.297
56 C4 168 4.832
56 C4 169 3.855
56 C4 170 4.344
56 C4 171 5.320
56 C4 172 6.785
56 C4 173 7.273
56 C4 174 6.785
56 C4 175 5.809
56 C4 176 5.320
56 C4 177 5.320
56 C4 178 5.320
56 C4 179 5.320
56 C4 180 5.320
56 C4 181 5.809
56 C4 182 6.297
56 C4 183 6.785
56 C4 184 6.785
56 C4 185 6.297
56 C4 186 5.320
56 C4 187 4.344
56 C4 188 4.832
56 C4 189 5.809
56 C4 190 7.273
56 C4 191 8.250
56 C4 192 9.226
56 C4 193 9.226
56 C4 194 8.250
56 C4 195 7.273
56 C4 196 6.297
56 C4 197 6.297
56 C4 198 6.297
56 C4 199 8.250
56 C4 200 9.226
56 C4 201 10.691
56 C4 202 10.691
56 C4 203 10.203
56 C4 204 9.226
56 C4 205 9.226
56 C4 206 9.226
56 C4 207 10.203
56 C4 208 10.203
56 C4 209 10.203
56 C4 210 10.203
56 C4 211 11.180
56 C4 212 12.156
56 C4 213 13.133
56 C4 214 12.644
56 C4 215 11.668
56 C4 216 10.203
56 C4 217 8.738
56 C4 218 7.762
56 C4 219 7.762
56 C4 220 7.273
56 C4 221 7.273
56 C4 222 7.273
56 C4 223 7.762
56 C4 224 8.738
56 C4 225 8.738
56 C4 226 8.250
56 C4 227 6.297
56 C4 228 3.855
56 C4 229 2.391
56 C4 230 2.391
56 C4 231 3.367
56 C4 232 4.832
56 C4 233 5.809
56 C4 234 6.297
56 C4 235 6.297
56 C4 236 6.785
56 C4 237 7.273
56 C4 238 7.762
56 C4 239 8.738
56 C4 240 9.715
56 C4 241 10.203
56 C4 242 11.180
56 C4 243 11.180
56 C4 244 10.691
56 C4 245 10.203
56 C4 246 8.738
56 C4 247 7.762
56 C4 248 8.250
56 C4 249 9.226
56 C4 250 10.691
56 C4 251 11.668
56 C4 252 11.668
56 C4 253 11.180
56 C4 254 10.691
56 C4 255 10.203
# CP5 chan 18
56 CP5 0 -1.485
56 CP5 1 0.468
56 CP5 2 1.444
56 CP5 3 1.444
56 CP5 4 0.468
56 CP5 5 -0.509
56 CP5 6 -1.973
56 CP5 7 -2.950
56 CP5 8 -3.927
56 CP5 9 -3.927
56 CP5 10 -2.950
56 CP5 11 -0.997
56 CP5 12 0.956
56 CP5 13 1.444
56 CP5 14 -0.020
56 CP5 15 -1.973
56 CP5 16 -2.950
56 CP5 17 -2.462
56 CP5 18 -0.997
56 CP5 19 -0.020
56 CP5 20 0.468
56 CP5 21 0.468
56 CP5 22 0.956
56 CP5 23 0.956
56 CP5 24 0.956
56 CP5 25 0.468
56 CP5 26 0.468
56 CP5 27 1.444
56 CP5 28 3.398
56 CP5 29 5.351
56 CP5 30 5.351
56 CP5 31 3.398
56 CP5 32 -0.509
56 CP5 33 -4.415
56 CP5 34 -6.368
56 CP5 35 -5.391
56 CP5 36 -3.438
56 CP5 37 -0.997
56 CP5 38 0.468
56 CP5 39 0.468
56 CP5 40 -0.509
56 CP5 41 -1.485
56 CP5 42 -1.973
56 CP5 43 -1.485
56 CP5 44 -0.509
56 CP5 45 0.956
56 CP5 46 2.421
56 CP5 47 2.421
56 CP5 48 1.933
56 CP5 49 1.444
56 CP5 50 0.956
56 CP5 51 0.956
56 CP5 52 1.444
56 CP5 53 1.444
56 CP5 54 1.933
56 CP5 55 1.933
56 CP5 56 1.933
56 CP5 57 1.444
56 CP5 58 1.444
56 CP5 59 1.444
56 CP5 60 2.909
56 CP5 61 4.862
56 CP5 62 6.816
56 CP5 63 7.304
56 CP5 64 5.839
56 CP5 65 3.398
56 CP5 66 1.933
56 CP5 67 1.933
56 CP5 68 2.909
56 CP5 69 4.374
56 CP5 70 5.351
56 CP5 71 4.374
56 CP5 72 2.909
56 CP5 73 0.956
56 CP5 74 -0.509
56 CP5 75 -0.997
56 CP5 76 -0.020
56 CP5 77 2.421
56 CP5 78 5.351
56 CP5 79 7.792
56 CP5 80 8.280
56 CP5 81 7.792
56 CP5 82 6.816
56 CP5 83 6.327
56 CP5 84 6.327
56 CP5 85 6.816
56 CP5 86 7.304
56 CP5 87 7.792
56 CP5 88 7.792
56 CP5 89 7.792
56 CP5 90 6.816
56 CP5 91 5.839
56 CP5 92 4.374
56 CP5 93 3.398
56 CP5 94 3.398
56 CP5 95 4.862
56 CP5 96 6.327
56 CP5 97 6.816
56 CP5 98 6.327
56 CP5 99 4.374
56 CP5 100 2.909
56 CP5 101 2.909
56 CP5 102 3.398
56 CP5 103 3.886
56 CP5 104 4.862
56 CP5 105 5.839
56 CP5 106 7.304
56 CP5 107 10.234
56 CP5 108 12.675
56 CP5 109 14.140
56 CP5 110 13.652
56 CP5 111 11.210
56 CP5 112 8.280
56 CP5 113 6.816
56 CP5 114 6.816
56 CP5 115 8.769
56 CP5 116 10.722
56 CP5 117 12.187
56 CP5 118 12.187
56 CP5 119 11.698
56 CP5 120 10.234
56 CP5 121 8.280
56 CP5 122 6.816
56 CP5 123 5.839
56 CP5 124 5.839
56 CP5 125 6.816
56 CP5 126 7.792
56 CP5 127 8.769
56 CP5 128 8.280
56 CP5 129 6.816
56 CP5 130 5.351
56 CP5 131 4.374
56 CP5 132 4.374
56 CP5 133 5.839
56 CP5 134 7.304
56 CP5 135 7.792
56 CP5 136 7.304
56 CP5 137 5.839
56 CP5 138 4.374
56 CP5 139 3.886
56 CP5 140 4.374
56 CP5 141 4.862
56 CP5 142 6.327
56 CP5 143 6.816
56 CP5 144 6.816
56 CP5 145 7.304
56 CP5 146 7.304
56 CP5 147 7.304
56 CP5 148 6.327
56 CP5 149 5.839
56 CP5 150 4.862
56 CP5 151 4.374
56 CP5 152 4.374
56 CP5 153 4.862
56 CP5 154 5.839
56 CP5 155 5.839
56 CP5 156 5.839
56 CP5 157 5.351
56 CP5 158 4.862
56 CP5 159 4.862
56 CP5 160 5.351
56 CP5 161 6.816
56 CP5 162 8.280
56 CP5 163 8.769
56 CP5 164 9.257
56 CP5 165 8.769
56 CP5 166 7.304
56 CP5 167 6.327
56 CP5 168 5.351
56 CP5 169 4.374
56 CP5 170 4.374
56 CP5 171 4.374
56 CP5 172 5.351
56 CP5 173 5.351
56 CP5 174 5.839
56 CP5 175 5.351
56 CP5 176 4.862
56 CP5 177 4.374
56 CP5 178 4.374
56 CP5 179 4.862
56 CP5 180 5.839
56 CP5 181 6.816
56 CP5 182 8.280
56 CP5 183 8.280
56 CP5 184 7.304
56 CP5 185 5.351
56 CP5 186 3.398
56 CP5 187 1.933
56 CP5 188 1.933
56 CP5 189 1.933
56 CP5 190 2.421
56 CP5 191 2.421
56 CP5 192 1.933
56 CP5 193 1.444
56 CP5 194 1.933
56 CP5 195 1.933
56 CP5 196 1.444
56 CP5 197 0.468
56 CP5 198 -0.997
56 CP5 199 -2.462
56 CP5 200 -3.927
56 CP5 201 -4.903
56 CP5 202 -5.391
56 CP5 203 -6.368
56 CP5 204 -6.368
56 CP5 205 -6.368
56 CP5 206 -5.880
56 CP5 207 -4.903
56 CP5 208 -3.438
56 CP5 209 -1.973
56 CP5 210 -1.485
56 CP5 211 -1.485
56 CP5 212 -2.950
56 CP5 213 -4.903
56 CP5 214 -6.368
56 CP5 215 -6.368
56 CP5 216 -5.880
56 CP5 217 -4.415
56 CP5 218 -3.438
56 CP5 219 -3.927
56 CP5 220 -4.903
56 CP5 221 -6.368
56 CP5 222 -7.345
56 CP5 223 -7.345
56 CP5 224 -5.880
56 CP5 225 -4.415
56 CP5 226 -1.973
56 CP5 227 -0.020
56 CP5 228 2.421
56 CP5 229 4.374
56 CP5 230 6.327
56 CP5 231 7.792
56 CP5 232 8.280
56 CP5 233 7.304
56 CP5 234 5.351
56 CP5 235 3.398
56 CP5 236 1.444
56 CP5 237 0.468
56 CP5 238 -0.509
56 CP5 239 -0.997
56 CP5 240 -1.485
56 CP5 241 -2.462
56 CP5 242 -2.462
56 CP5 243 -1.485
56 CP5 244 -0.509
56 CP5 245 0.468
56 CP5 246 0.956
56 CP5 247 0.956
56 CP5 248 0.468
56 CP5 249 0.956
56 CP5 250 1.444
56 CP5 251 2.909
56 CP5 252 2.909
56 CP5 253 3.398
56 CP5 254 2.909
56 CP5 255 2.421
# CP6 chan 19
56 CP6 0 -1.506
56 CP6 1 -0.529
56 CP6 2 -0.041
56 CP6 3 0.448
56 CP6 4 -0.041
56 CP6 5 -1.506
56 CP6 6 -2.482
56 CP6 7 -2.482
56 CP6 8 -1.994
56 CP6 9 -1.017
56 CP6 10 -0.529
56 CP6 11 -1.506
56 CP6 12 -1.994
56 CP6 13 -2.482
56 CP6 14 -1.994
56 CP6 15 -1.506
56 CP6 16 -2.482
56 CP6 17 -4.435
56 CP6 18 -6.388
56 CP6 19 -5.900
56 CP6 20 -2.482
56 CP6 21 3.377
56 CP6 22 6.307
56 CP6 23 5.330
56 CP6 24 -0.041
56 CP6 25 -5.412
56 CP6 26 -7.853
56 CP6 27 -5.900
56 CP6 28 -2.482
56 CP6 29 -0.529
56 CP6 30 -1.994
56 CP6 31 -5.412
56 CP6 32 -7.365
56 CP6 33 -7.365
56 CP6 34 -5.412
56 CP6 35 -4.435
56 CP6 36 -5.900
56 CP6 37 -9.318
56 CP6 38 -11.759
56 CP6 39 -11.759
56 CP6 40 -9.806
56 CP6 41 -7.365
56 CP6 42 -7.365
56 CP6 43 -8.830
56 CP6 44 -9.806
56 CP6 45 -7.853
56 CP6 46 -3.947
56 CP6 47 -0.529
56 CP6 48 0.448
56 CP6 49 -2.970
56 CP6 50 -9.318
56 CP6 51 -14.201
56 CP6 52 -15.666
56 CP6 53 -12.736
56 CP6 54 -6.877
56 CP6 55 -1.506
56 CP6 56 1.912
56 CP6 57 2.401
56 CP6 58 1.424
56 CP6 59 0.936
56 CP6 60 1.912
56 CP6 61 3.866
56 CP6 62 5.330
56 CP6 63 5.819
56 CP6 64 5.330
56 CP6 65 3.866
56 CP6 66 1.424
56 CP6 67 -1.506
56 CP6 68 -3.947
56 CP6 69 -4.924
56 CP6 70 -2.970
56 CP6 71 0.936
56 CP6 72 4.842
56 CP6 73 6.307
56 CP6 74 4.842
56 CP6 75 1.424
56 CP6 76 -0.529
56 CP6 77 0.936
56 CP6 78 4.354
56 CP6 79 7.284
56 CP6 80 7.772
56 CP6 81 5.330
56 CP6 82 2.401
56 CP6 83 1.912
56 CP6 84 4.842
56 CP6 85 8.260
56 CP6 86 9.725
56 CP6 87 8.748
56 CP6 88 5.819
56 CP6 89 3.866
56 CP6 90 3.866
56 CP6 91 4.354
56 CP6 92 2.889
56 CP6 93 -0.041
56 CP6 94 -2.970
56 CP6 95 -2.970
56 CP6 96 -0.041
56 CP6 97 4.842
56 CP6 98 8.260
56 CP6 99 8.260
56 CP6 100 5.819
56 CP6 101 4.354
56 CP6 102 4.842
56 CP6 103 7.284
56 CP6 104 8.260
56 CP6 105 6.307
56 CP6 106 3.866
56 CP6 107 1.912
56 CP6 108 3.866
56 CP6 109 7.772
56 CP6 110 11.190
56 CP6 111 10.701
56 CP6 112 6.307
56 CP6 113 0.936
56 CP6 114 -1.506
56 CP6 115 0.936
56 CP6 116 6.307
56 CP6 117 9.237
56 CP6 118 8.748
56 CP6 119 4.354
56 CP6 120 -0.529
56 CP6 121 -2.482
56 CP6 122 -0.529
56 CP6 123 2.401
56 CP6 124 4.354
56 CP6 125 3.866
56 CP6 126 2.401
56 CP6 127 1.912
56 CP6 128 3.377
56 CP6 129 5.330
56 CP6 130 6.795
56 CP6 131 7.772
56 CP6 132 8.748
56 CP6 133 9.237
56 CP6 134 9.725
56 CP6 135 8.748
56 CP6 136 6.307
56 CP6 137 3.866
56 CP6 138 2.401
56 CP6 139 3.377
56 CP6 140 5.330
56 CP6 141 6.795
56 CP6 142 6.795
56 CP6 143 5.819
56 CP6 144 5.330
56 CP6 145 5.819
56 CP6 146 6.795
56 CP6 147 6.307
56 CP6 148 3.866
56 CP6 149 -0.529
56 CP6 150 -3.459
56 CP6 151 -2.970
56 CP6 152 0.448
56 CP6 153 5.330
56 CP6 154 9.237
56 CP6 155 9.237
56 CP6 156 7.772
56 CP6 157 6.307
56 CP6 158 6.307
56 CP6 159 7.284
56 CP6 160 7.772
56 CP6 161 6.307
56 CP6 162 3.377
56 CP6 163 0.936
56 CP6 164 0.448
56 CP6 165 1.912
56 CP6 166 3.377
56 CP6 167 3.866
56 CP6 168 2.401
56 CP6 169 0.448
56 CP6 170 -0.529
56 CP6 171 -1.017
56 CP6 172 -1.017
56 CP6 173 -1.994
56 CP6 174 -2.970
56 CP6 175 -3.947
56 CP6 176 -3.947
56 CP6 177 -2.970
56 CP6 178 -1.994
56 CP6 179 -1.506
56 CP6 180 -1.994
56 CP6 181 -2.482
56 CP6 182 -1.994
56 CP6 183 -1.994
56 CP6 184 -2.482
56 CP6 185 -3.459
56 CP6 186 -4.435
56 CP6 187 -5.412
56 CP6 188 -4.924
56 CP6 189 -3.459
56 CP6 190 -1.994
56 CP6 191 -1.017
56 CP6 192 -1.506
56 CP6 193 -2.482
56 CP6 194 -3.947
56 CP6 195 -6.388
56 CP6 196 -8.341
56 CP6 197 -10.295
56 CP6 198 -11.271
56 CP6 199 -10.783
56 CP6 200 -10.783
56 CP6 201 -10.295
56 CP6 202 -11.759
56 CP6 203 -12.736
56 CP6 204 -14.201
56 CP6 205 -14.201
56 CP6 206 -14.201
56 CP6 207 -13.713
56 CP6 208 -14.201
56 CP6 209 -14.689
56 CP6 210 -14.689
56 CP6 211 -13.713
56 CP6 212 -10.783
56 CP6 213 -9.318
56 CP6 214 -9.318
56 CP6 215 -10.783
56 CP6 216 -12.736
56 CP6 217 -14.689
56 CP6 218 -16.154
56 CP6 219 -17.131
56 CP6 220 -18.595
56 CP6 221 -19.572
56 CP6 222 -19.572
56 CP6 223 -18.107
56 CP6 224 -14.689
56 CP6 225 -11.759
56 CP6 226 -10.295
56 CP6 227 -11.759
56 CP6 228 -14.201
56 CP6 229 -15.666
56 CP6 230 -15.177
56 CP6 231 -13.224
56 CP6 232 -11.271
56 CP6 233 -10.295
56 CP6 234 -10.295
56 CP6 235 -10.783
56 CP6 236 -11.271
56 CP6 237 -10.295
56 CP6 238 -9.318
56 CP6 239 -8.830
56 CP6 240 -8.341
56 CP6 241 -8.341
56 CP6 242 -8.830
56 CP6 243 -9.318
56 CP6 244 -10.295
56 CP6 245 -11.271
56 CP6 246 -12.736
56 CP6 247 -12.736
56 CP6 248 -12.248
56 CP6 249 -10.295
56 CP6 250 -8.341
56 CP6 251 -7.853
56 CP6 252 -8.341
56 CP6 253 -9.806
56 CP6 254 -10.783
56 CP6 255 -10.783
# CP1 chan 20
56 CP1 0 -1.272
56 CP1 1 -0.295
56 CP1 2 1.170
56 CP1 3 1.658
56 CP1 4 1.170
56 CP1 5 0.193
56 CP1 6 -0.783
56 CP1 7 -1.760
56 CP1 8 -1.760
56 CP1 9 -1.760
56 CP1 10 -1.272
56 CP1 11 -0.783
56 CP1 12 -0.295
56 CP1 13 -0.783
56 CP1 14 -1.272
56 CP1 15 -1.272
56 CP1 16 -1.760
56 CP1 17 -1.760
56 CP1 18 -1.272
56 CP1 19 -0.783
56 CP1 20 0.193
56 CP1 21 0.682
56 CP1 22 1.658
56 CP1 23 1.658
56 CP1 24 1.658
56 CP1 25 1.658
56 CP1 26 1.658
56 CP1 27 2.146
56 CP1 28 3.123
56 CP1 29 3.611
56 CP1 30 3.611
56 CP1 31 3.123
56 CP1 32 1.658
56 CP1 33 -0.295
56 CP1 34 -1.760
56 CP1 35 -2.248
56 CP1 36 -2.736
56 CP1 37 -1.760
56 CP1 38 -0.783
56 CP1 39 -0.295
56 CP1 40 0.193
56 CP1 41 0.193
56 CP1 42 -0.295
56 CP1 43 -0.295
56 CP1 44 -0.295
56 CP1 45 0.193
56 CP1 46 0.682
56 CP1 47 1.170
56 CP1 48 1.170
56 CP1 49 1.170
56 CP1 50 0.682
56 CP1 51 1.170
56 CP1 52 1.658
56 CP1 53 2.146
56 CP1 54 3.123
56 CP1 55 3.123
56 CP1 56 3.123
56 CP1 57 2.146
56 CP1 58 2.146
56 CP1 59 2.635
56 CP1 60 3.611
56 CP1 61 4.588
56 CP1 62 5.564
56 CP1 63 5.564
56 CP1 64 4.588
56 CP1 65 3.123
56 CP1 66 2.146
56 CP1 67 2.146
56 CP1 68 3.123
56 CP1 69 3.611
56 CP1 70 3.123
56 CP1 71 2.635
56 CP1 72 1.658
56 CP1 73 1.170
56 CP1 74 1.170
56 CP1 75 1.658
56 CP1 76 2.146
56 CP1 77 3.611
56 CP1 78 4.100
56 CP1 79 5.076
56 CP1 80 5.076
56 CP1 81 5.564
56 CP1 82 5.564
56 CP1 83 5.076
56 CP1 84 5.076
56 CP1 85 5.076
56 CP1 86 5.076
56 CP1 87 5.564
56 CP1 88 5.564
56 CP1 89 5.564
56 CP1 90 5.076
56 CP1 91 4.588
56 CP1 92 3.611
56 CP1 93 3.123
56 CP1 94 3.123
56 CP1 95 3.611
56 CP1 96 4.100
56 CP1 97 4.588
56 CP1 98 4.100
56 CP1 99 3.123
56 CP1 100 2.146
56 CP1 101 1.658
56 CP1 102 1.658
56 CP1 103 2.146
56 CP1 104 2.635
56 CP1 105 3.611
56 CP1 106 4.588
56 CP1 107 5.564
56 CP1 108 6.053
56 CP1 109 6.053
56 CP1 110 6.053
56 CP1 111 5.564
56 CP1 112 5.076
56 CP1 113 4.588
56 CP1 114 4.588
56 CP1 115 5.076
56 CP1 116 5.564
56 CP1 117 6.541
56 CP1 118 7.029
56 CP1 119 7.029
56 CP1 120 6.541
56 CP1 121 5.564
56 CP1 122 4.588
56 CP1 123 4.100
56 CP1 124 4.100
56 CP1 125 5.076
56 CP1 126 5.564
56 CP1 127 6.053
56 CP1 128 6.053
56 CP1 129 5.564
56 CP1 130 4.588
56 CP1 131 4.588
56 CP1 132 4.588
56 CP1 133 5.564
56 CP1 134 5.564
56 CP1 135 5.564
56 CP1 136 5.076
56 CP1 137 5.076
56 CP1 138 4.588
56 CP1 139 4.588
56 CP1 140 5.076
56 CP1 141 5.076
56 CP1 142 5.076
56 CP1 143 4.588
56 CP1 144 5.076
56 CP1 145 5.076
56 CP1 146 5.564
56 CP1 147 5.564
56 CP1 148 5.076
56 CP1 149 4.588
56 CP1 150 4.588
56 CP1 151 5.076
56 CP1 152 5.076
56 CP1 153 5.564
56 CP1 154 6.053
56 CP1 155 5.076
56 CP1 156 4.588
56 CP1 157 3.611
56 CP1 158 3.611
56 CP1 159 3.611
56 CP1 160 4.100
56 CP1 161 4.588
56 CP1 162 5.564
56 CP1 163 6.053
56 CP1 164 6.541
56 CP1 165 6.053
56 CP1 166 5.564
56 CP1 167 5.564
56 CP1 168 5.076
56 CP1 169 5.076
56 CP1 170 5.564
56 CP1 171 5.564
56 CP1 172 6.053
56 CP1 173 6.053
56 CP1 174 6.053
56 CP1 175 6.053
56 CP1 176 6.053
56 CP1 177 6.541
56 CP1 178 6.541
56 CP1 179 7.029
56 CP1 180 7.517
56 CP1 181 8.006
56 CP1 182 8.494
56 CP1 183 8.494
56 CP1 184 8.006
56 CP1 185 7.029
56 CP1 186 6.053
56 CP1 187 5.564
56 CP1 188 5.076
56 CP1 189 4.588
56 CP1 190 4.100
56 CP1 191 4.100
56 CP1 192 3.611
56 CP1 193 3.611
56 CP1 194 3.123
56 CP1 195 3.123
56 CP1 196 2.635
56 CP1 197 1.658
56 CP1 198 0.682
56 CP1 199 -0.295
56 CP1 200 -0.783
56 CP1 201 -1.760
56 CP1 202 -2.736
56 CP1 203 -2.736
56 CP1 204 -3.225
56 CP1 205 -2.736
56 CP1 206 -2.248
56 CP1 207 -1.272
56 CP1 208 -0.783
56 CP1 209 -0.295
56 CP1 210 -0.295
56 CP1 211 -0.295
56 CP1 212 -0.783
56 CP1 213 -1.272
56 CP1 214 -2.736
56 CP1 215 -3.225
56 CP1 216 -3.225
56 CP1 217 -2.736
56 CP1 218 -2.736
56 CP1 219 -2.736
56 CP1 220 -3.713
56 CP1 221 -4.690
56 CP1 222 -5.178
56 CP1 223 -5.178
56 CP1 224 -3.713
56 CP1 225 -2.248
56 CP1 226 -0.295
56 CP1 227 0.682
56 CP1 228 1.658
56 CP1 229 2.635
56 CP1 230 3.611
56 CP1 231 4.100
56 CP1 232 4.588
56 CP1 233 4.588
56 CP1 234 4.100
56 CP1 235 3.123
56 CP1 236 2.146
56 CP1 237 0.682
56 CP1 238 0.193
56 CP1 239 -0.295
56 CP1 240 -0.295
56 CP1 241 -0.783
56 CP1 242 -0.783
56 CP1 243 -0.295
56 CP1 244 0.193
56 CP1 245 0.682
56 CP1 246 1.170
56 CP1 247 1.658
56 CP1 248 1.658
56 CP1 249 1.658
56 CP1 250 1.658
56 CP1 251 1.658
56 CP1 252 1.658
56 CP1 253 1.658
56 CP1 254 1.658
56 CP1 255 1.658
# CP2 chan 21
56 CP2 0 -0.712
56 CP2 1 -1.200
56 CP2 2 -0.712
56 CP2 3 -0.224
56 CP2 4 -0.224
56 CP2 5 -0.224
56 CP2 6 -0.712
56 CP2 7 -1.200
56 CP2 8 -0.712
56 CP2 9 -0.224
56 CP2 10 0.753
56 CP2 11 0.264
56 CP2 12 -0.712
56 CP2 13 -1.689
56 CP2 14 -2.665
56 CP2 15 -3.153
56 CP2 16 -3.153
56 CP2 17 -3.153
56 CP2 18 -3.153
56 CP2 19 -2.665
56 CP2 20 -1.200
56 CP2 21 0.264
56 CP2 22 1.241
56 CP2 23 1.241
56 CP2 24 0.753
56 CP2 25 -0.224
56 CP2 26 -0.224
56 CP2 27 -0.224
56 CP2 28 0.753
56 CP2 29 0.753
56 CP2 30 0.753
56 CP2 31 -0.224
56 CP2 32 -0.712
56 CP2 33 -1.200
56 CP2 34 -1.689
56 CP2 35 -2.177
56 CP2 36 -3.153
56 CP2 37 -5.107
56 CP2 38 -5.595
56 CP2 39 -6.083
56 CP2 40 -5.107
56 CP2 41 -4.130
56 CP2 42 -3.153
56 CP2 43 -3.153
56 CP2 44 -2.665
56 CP2 45 -2.177
56 CP2 46 -1.689
56 CP2 47 -1.200
56 CP2 48 -1.200
56 CP2 49 -1.689
56 CP2 50 -2.177
56 CP2 51 -2.665
56 CP2 52 -2.177
56 CP2 53 -0.712
56 CP2 54 1.729
56 CP2 55 3.194
56 CP2 56 4.659
56 CP2 57 4.659
56 CP2 58 4.659
56 CP2 59 4.659
56 CP2 60 5.147
56 CP2 61 6.124
56 CP2 62 6.612
56 CP2 63 6.612
56 CP2 64 5.636
56 CP2 65 4.659
56 CP2 66 3.682
56 CP2 67 2.218
56 CP2 68 1.729
56 CP2 69 1.241
56 CP2 70 1.729
56 CP2 71 3.194
56 CP2 72 4.171
56 CP2 73 5.147
56 CP2 74 5.147
56 CP2 75 4.659
56 CP2 76 3.682
56 CP2 77 3.682
56 CP2 78 4.171
56 CP2 79 5.147
56 CP2 80 5.636
56 CP2 81 5.147
56 CP2 82 4.659
56 CP2 83 4.659
56 CP2 84 4.659
56 CP2 85 4.659
56 CP2 86 5.147
56 CP2 87 5.147
56 CP2 88 4.659
56 CP2 89 4.659
56 CP2 90 4.171
56 CP2 91 3.194
56 CP2 92 2.218
56 CP2 93 0.753
56 CP2 94 -0.224
56 CP2 95 -0.224
56 CP2 96 0.753
56 CP2 97 2.218
56 CP2 98 3.194
56 CP2 99 3.194
56 CP2 100 2.218
56 CP2 101 2.218
56 CP2 102 2.218
56 CP2 103 3.194
56 CP2 104 3.682
56 CP2 105 4.171
56 CP2 106 4.171
56 CP2 107 4.171
56 CP2 108 4.659
56 CP2 109 5.147
56 CP2 110 5.636
56 CP2 111 5.147
56 CP2 112 4.171
56 CP2 113 3.682
56 CP2 114 3.194
56 CP2 115 3.682
56 CP2 116 4.659
56 CP2 117 5.147
56 CP2 118 4.659
56 CP2 119 3.682
56 CP2 120 3.194
56 CP2 121 2.218
56 CP2 122 2.218
56 CP2 123 2.218
56 CP2 124 2.706
56 CP2 125 3.194
56 CP2 126 3.682
56 CP2 127 4.171
56 CP2 128 4.659
56 CP2 129 5.147
56 CP2 130 5.147
56 CP2 131 5.636
56 CP2 132 6.124
56 CP2 133 6.612
56 CP2 134 7.589
56 CP2 135 7.100
56 CP2 136 6.612
56 CP2 137 5.636
56 CP2 138 5.147
56 CP2 139 5.147
56 CP2 140 5.147
56 CP2 141 5.147
56 CP2 142 4.659
56 CP2 143 4.171
56 CP2 144 3.194
56 CP2 145 3.194
56 CP2 146 3.194
56 CP2 147 2.218
56 CP2 148 2.218
56 CP2 149 1.729
56 CP2 150 1.729
56 CP2 151 3.194
56 CP2 152 4.659
56 CP2 153 6.612
56 CP2 154 7.589
56 CP2 155 8.077
56 CP2 156 7.589
56 CP2 157 6.612
56 CP2 158 6.124
56 CP2 159 5.147
56 CP2 160 4.171
56 CP2 161 4.171
56 CP2 162 3.682
56 CP2 163 4.171
56 CP2 164 4.171
56 CP2 165 3.682
56 CP2 166 3.194
56 CP2 167 2.218
56 CP2 168 1.241
56 CP2 169 1.241
56 CP2 170 1.729
56 CP2 171 2.218
56 CP2 172 3.194
56 CP2 173 3.194
56 CP2 174 3.194
56 CP2 175 3.194
56 CP2 176 3.194
56 CP2 177 3.682
56 CP2 178 4.171
56 CP2 179 4.659
56 CP2 180 5.147
56 CP2 181 5.636
56 CP2 182 6.124
56 CP2 183 6.124
56 CP2 184 5.636
56 CP2 185 5.147
56 CP2 186 4.171
56 CP2 187 3.194
56 CP2 188 2.706
56 CP2 189 2.218
56 CP2 190 2.218
56 CP2 191 1.729
56 CP2 192 1.241
56 CP2 193 0.753
56 CP2 194 -0.224
56 CP2 195 -1.200
56 CP2 196 -2.177
56 CP2 197 -3.153
56 CP2 198 -3.153
56 CP2 199 -3.153
56 CP2 200 -3.642
56 CP2 201 -4.130
56 CP2 202 -4.618
56 CP2 203 -5.107
56 CP2 204 -5.595
56 CP2 205 -6.083
56 CP2 206 -5.595
56 CP2 207 -5.107
56 CP2 208 -4.618
56 CP2 209 -4.618
56 CP2 210 -4.130
56 CP2 211 -3.153
56 CP2 212 -2.665
56 CP2 213 -2.665
56 CP2 214 -3.153
56 CP2 215 -4.130
56 CP2 216 -5.595
56 CP2 217 -6.571
56 CP2 218 -7.060
56 CP2 219 -8.036
56 CP2 220 -8.525
56 CP2 221 -9.013
56 CP2 222 -9.013
56 CP2 223 -8.036
56 CP2 224 -6.083
56 CP2 225 -4.130
56 CP2 226 -3.153
56 CP2 227 -3.153
56 CP2 228 -3.642
56 CP2 229 -3.642
56 CP2 230 -3.153
56 CP2 231 -1.689
56 CP2 232 -0.224
56 CP2 233 0.753
56 CP2 234 1.241
56 CP2 235 0.753
56 CP2 236 0.264
56 CP2 237 -0.712
56 CP2 238 -0.712
56 CP2 239 -1.200
56 CP2 240 -1.200
56 CP2 241 -1.689
56 CP2 242 -2.177
56 CP2 243 -2.177
56 CP2 244 -2.177
56 CP2 245 -1.689
56 CP2 246 -1.689
56 CP2 247 -1.689
56 CP2 248 -1.200
56 CP2 249 -0.712
56 CP2 250 0.264
56 CP2 251 0.753
56 CP2 252 1.241
56 CP2 253 1.729
56 CP2 254 1.729
56 CP2 255 2.218
# P3 chan 22
56 P3 0 0.285
56 P3 1 1.261
56 P3 2 2.238
56 P3 3 2.726
56 P3 4 2.726
56 P3 5 1.750
56 P3 6 1.261
56 P3 7 0.285
56 P3 8 0.285
56 P3 9 0.285
56 P3 10 0.773
56 P3 11 1.750
56 P3 12 2.238
56 P3 13 2.726
56 P3 14 2.238
56 P3 15 1.261
56 P3 16 0.773
56 P3 17 0.285
56 P3 18 0.773
56 P3 19 1.261
56 P3 20 2.238
56 P3 21 3.703
56 P3 22 5.168
56 P3 23 6.144
56 P3 24 6.632
56 P3 25 6.632
56 P3 26 6.632
56 P3 27 6.632
56 P3 28 7.609
56 P3 29 8.097
56 P3 30 8.097
56 P3 31 7.121
56 P3 32 4.679
56 P3 33 2.726
56 P3 34 0.773
56 P3 35 -0.203
56 P3 36 0.285
56 P3 37 0.773
56 P3 38 1.261
56 P3 39 1.750
56 P3 40 1.750
56 P3 41 1.261
56 P3 42 0.773
56 P3 43 0.285
56 P3 44 -0.203
56 P3 45 0.285
56 P3 46 0.285
56 P3 47 0.773
56 P3 48 0.773
56 P3 49 1.261
56 P3 50 1.261
56 P3 51 1.750
56 P3 52 3.215
56 P3 53 4.679
56 P3 54 6.144
56 P3 55 7.121
56 P3 56 7.609
56 P3 57 7.121
56 P3 58 7.121
56 P3 59 7.121
56 P3 60 8.097
56 P3 61 8.586
56 P3 62 9.074
56 P3 63 8.097
56 P3 64 6.144
56 P3 65 4.679
56 P3 66 4.191
56 P3 67 4.191
56 P3 68 4.191
56 P3 69 4.679
56 P3 70 4.191
56 P3 71 3.215
56 P3 72 2.238
56 P3 73 1.261
56 P3 74 0.773
56 P3 75 1.261
56 P3 76 2.238
56 P3 77 4.191
56 P3 78 5.656
56 P3 79 7.121
56 P3 80 7.609
56 P3 81 7.609
56 P3 82 7.121
56 P3 83 6.632
56 P3 84 6.632
56 P3 85 6.144
56 P3 86 6.632
56 P3 87 7.121
56 P3 88 7.121
56 P3 89 6.632
56 P3 90 5.656
56 P3 91 4.191
56 P3 92 2.238
56 P3 93 1.261
56 P3 94 1.261
56 P3 95 2.238
56 P3 96 3.215
56 P3 97 4.191
56 P3 98 4.191
56 P3 99 3.703
56 P3 100 2.238
56 P3 101 1.750
56 P3 102 1.750
56 P3 103 2.238
56 P3 104 3.215
56 P3 105 4.191
56 P3 106 5.656
56 P3 107 7.609
56 P3 108 9.074
56 P3 109 10.050
56 P3 110 9.074
56 P3 111 8.097
56 P3 112 6.632
56 P3 113 6.144
56 P3 114 6.144
56 P3 115 7.121
56 P3 116 8.097
56 P3 117 8.586
56 P3 118 9.074
56 P3 119 8.586
56 P3 120 7.121
56 P3 121 5.656
56 P3 122 3.703
56 P3 123 2.726
56 P3 124 3.215
56 P3 125 4.191
56 P3 126 5.168
56 P3 127 5.656
56 P3 128 5.168
56 P3 129 4.679
56 P3 130 4.679
56 P3 131 5.168
56 P3 132 6.144
56 P3 133 7.121
56 P3 134 7.121
56 P3 135 7.121
56 P3 136 6.144
56 P3 137 5.656
56 P3 138 5.168
56 P3 139 5.168
56 P3 140 5.168
56 P3 141 5.168
56 P3 142 5.168
56 P3 143 4.679
56 P3 144 5.168
56 P3 145 5.168
56 P3 146 5.168
56 P3 147 4.679
56 P3 148 3.703
56 P3 149 2.726
56 P3 150 2.726
56 P3 151 3.215
56 P3 152 3.703
56 P3 153 4.191
56 P3 154 4.679
56 P3 155 4.191
56 P3 156 3.703
56 P3 157 2.726
56 P3 158 2.238
56 P3 159 2.238
56 P3 160 3.215
56 P3 161 4.679
56 P3 162 6.632
56 P3 163 7.609
56 P3 164 8.097
56 P3 165 7.121
56 P3 166 6.144
56 P3 167 4.679
56 P3 168 3.703
56 P3 169 3.703
56 P3 170 3.215
56 P3 171 3.703
56 P3 172 3.703
56 P3 173 4.191
56 P3 174 4.679
56 P3 175 4.191
56 P3 176 4.191
56 P3 177 3.703
56 P3 178 4.191
56 P3 179 4.679
56 P3 180 5.656
56 P3 181 6.632
56 P3 182 7.609
56 P3 183 7.609
56 P3 184 6.632
56 P3 185 5.168
56 P3 186 4.191
56 P3 187 3.215
56 P3 188 2.726
56 P3 189 2.238
56 P3 190 1.750
56 P3 191 1.261
56 P3 192 0.285
56 P3 193 -0.203
56 P3 194 -0.203
56 P3 195 -0.203
56 P3 196 -0.692
56 P3 197 -2.157
56 P3 198 -4.110
56 P3 199 -6.551
56 P3 200 -8.504
56 P3 201 -10.457
56 P3 202 -11.922
56 P3 203 -12.410
56 P3 204 -11.922
56 P3 205 -10.946
56 P3 206 -10.457
56 P3 207 -9.481
56 P3 208 -8.504
56 P3 209 -7.039
56 P3 210 -6.551
56 P3 211 -6.551
56 P3 212 -7.528
56 P3 213 -8.993
56 P3 214 -10.946
56 P3 215 -11.434
56 P3 216 -10.946
56 P3 217 -10.457
56 P3 218 -10.457
56 P3 219 -11.434
56 P3 220 -13.875
56 P3 221 -16.317
56 P3 222 -17.293
56 P3 223 -16.805
56 P3 224 -14.364
56 P3 225 -10.946
56 P3 226 -7.039
56 P3 227 -4.110
56 P3 228 -1.180
56 P3 229 1.261
56 P3 230 3.703
56 P3 231 5.656
56 P3 232 6.144
56 P3 233 5.656
56 P3 234 3.703
56 P3 235 1.750
56 P3 236 -0.692
56 P3 237 -2.645
56 P3 238 -3.621
56 P3 239 -5.086
56 P3 240 -6.063
56 P3 241 -6.551
56 P3 242 -6.551
56 P3 243 -5.575
56 P3 244 -4.110
56 P3 245 -2.645
56 P3 246 -1.180
56 P3 247 -0.203
56 P3 248 -0.203
56 P3 249 -0.203
56 P3 250 -0.203
56 P3 251 -0.203
56 P3 252 0.285
56 P3 253 0.773
56 P3 254 0.773
56 P3 255 0.773
# P4 chan 23
56 P4 0 -0.824
56 P4 1 -1.312
56 P4 2 -0.824
56 P4 3 0.641
56 P4 4 1.617
56 P4 5 1.129
56 P4 6 -0.336
56 P4 7 -0.824
56 P4 8 -0.824
56 P4 9 0.641
56 P4 10 1.617
56 P4 11 2.106
56 P4 12 0.641
56 P4 13 -1.312
56 P4 14 -3.265
56 P4 15 -4.242
56 P4 16 -4.730
56 P4 17 -4.242
56 P4 18 -3.265
56 P4 19 -1.801
56 P4 20 1.129
56 P4 21 4.059
56 P4 22 6.012
56 P4 23 5.524
56 P4 24 4.059
56 P4 25 1.617
56 P4 26 0.641
56 P4 27 1.129
56 P4 28 2.106
56 P4 29 3.082
56 P4 30 2.594
56 P4 31 1.129
56 P4 32 0.153
56 P4 33 -0.336
56 P4 34 -0.336
56 P4 35 -1.801
56 P4 36 -3.754
56 P4 37 -6.195
56 P4 38 -6.683
56 P4 39 -6.683
56 P4 40 -5.707
56 P4 41 -4.730
56 P4 42 -5.219
56 P4 43 -6.683
56 P4 44 -7.172
56 P4 45 -6.195
56 P4 46 -4.242
56 P4 47 -2.289
56 P4 48 -2.289
56 P4 49 -3.754
56 P4 50 -5.707
56 P4 51 -6.195
56 P4 52 -4.730
56 P4 53 -1.312
56 P4 54 2.594
56 P4 55 6.012
56 P4 56 7.477
56 P4 57 7.477
56 P4 58 7.477
56 P4 59 7.477
56 P4 60 8.453
56 P4 61 9.430
56 P4 62 9.918
56 P4 63 9.430
56 P4 64 8.453
56 P4 65 7.477
56 P4 66 6.012
56 P4 67 5.035
56 P4 68 4.059
56 P4 69 3.571
56 P4 70 4.059
56 P4 71 5.524
56 P4 72 7.477
56 P4 73 8.453
56 P4 74 7.965
56 P4 75 6.989
56 P4 76 6.012
56 P4 77 6.989
56 P4 78 8.453
56 P4 79 10.406
56 P4 80 10.406
56 P4 81 9.430
56 P4 82 7.477
56 P4 83 6.500
56 P4 84 6.989
56 P4 85 8.453
56 P4 86 9.430
56 P4 87 9.430
56 P4 88 8.453
56 P4 89 7.477
56 P4 90 6.989
56 P4 91 5.524
56 P4 92 3.571
56 P4 93 1.617
56 P4 94 -0.336
56 P4 95 -0.336
56 P4 96 1.129
56 P4 97 3.571
56 P4 98 5.035
56 P4 99 5.524
56 P4 100 5.035
56 P4 101 4.547
56 P4 102 4.547
56 P4 103 5.035
56 P4 104 5.035
56 P4 105 5.035
56 P4 106 5.524
56 P4 107 6.500
56 P4 108 8.453
56 P4 109 10.406
56 P4 110 10.895
56 P4 111 9.430
56 P4 112 6.989
56 P4 113 5.035
56 P4 114 5.035
56 P4 115 6.500
56 P4 116 8.453
56 P4 117 9.918
56 P4 118 9.430
56 P4 119 7.477
56 P4 120 5.035
56 P4 121 3.571
56 P4 122 2.594
56 P4 123 3.571
56 P4 124 4.547
56 P4 125 5.524
56 P4 126 6.012
56 P4 127 6.500
56 P4 128 6.989
56 P4 129 7.965
56 P4 130 8.453
56 P4 131 9.430
56 P4 132 10.895
56 P4 133 12.360
56 P4 134 12.848
56 P4 135 12.848
56 P4 136 11.383
56 P4 137 9.918
56 P4 138 8.453
56 P4 139 8.453
56 P4 140 8.942
56 P4 141 8.942
56 P4 142 8.453
56 P4 143 7.477
56 P4 144 6.989
56 P4 145 6.500
56 P4 146 6.500
56 P4 147 6.012
56 P4 148 4.547
56 P4 149 3.082
56 P4 150 2.594
56 P4 151 3.571
56 P4 152 6.500
56 P4 153 9.430
56 P4 154 10.895
56 P4 155 10.895
56 P4 156 9.918
56 P4 157 8.453
56 P4 158 7.965
56 P4 159 7.965
56 P4 160 7.477
56 P4 161 6.989
56 P4 162 6.500
56 P4 163 6.500
56 P4 164 6.500
56 P4 165 6.500
56 P4 166 6.012
56 P4 167 5.035
56 P4 168 3.571
56 P4 169 2.594
56 P4 170 2.594
56 P4 171 3.082
56 P4 172 3.082
56 P4 173 3.082
56 P4 174 3.082
56 P4 175 2.594
56 P4 176 3.082
56 P4 177 4.059
56 P4 178 4.547
56 P4 179 5.524
56 P4 180 5.524
56 P4 181 6.012
56 P4 182 6.012
56 P4 183 6.012
56 P4 184 5.524
56 P4 185 4.547
56 P4 186 3.571
56 P4 187 2.594
56 P4 188 1.617
56 P4 189 1.617
56 P4 190 1.129
56 P4 191 1.129
56 P4 192 1.129
56 P4 193 0.153
56 P4 194 -0.824
56 P4 195 -2.289
56 P4 196 -3.754
56 P4 197 -5.219
56 P4 198 -6.683
56 P4 199 -7.172
56 P4 200 -8.148
56 P4 201 -9.613
56 P4 202 -11.078
56 P4 203 -12.054
56 P4 204 -12.543
56 P4 205 -12.054
56 P4 206 -11.566
56 P4 207 -11.078
56 P4 208 -10.590
56 P4 209 -10.101
56 P4 210 -9.125
56 P4 211 -8.148
56 P4 212 -7.660
56 P4 213 -8.148
56 P4 214 -9.125
56 P4 215 -10.101
56 P4 216 -11.566
56 P4 217 -12.543
56 P4 218 -14.008
56 P4 219 -15.961
56 P4 220 -18.402
56 P4 221 -20.355
56 P4 222 -20.844
56 P4 223 -19.379
56 P4 224 -15.961
56 P4 225 -12.054
56 P4 226 -9.613
56 P4 227 -8.148
56 P4 228 -8.148
56 P4 229 -9.125
56 P4 230 -8.636
56 P4 231 -7.172
56 P4 232 -4.730
56 P4 233 -3.265
56 P4 234 -2.777
56 P4 235 -3.265
56 P4 236 -4.242
56 P4 237 -5.219
56 P4 238 -5.219
56 P4 239 -4.730
56 P4 240 -4.242
56 P4 241 -4.242
56 P4 242 -4.730
56 P4 243 -5.219
56 P4 244 -5.219
56 P4 245 -5.219
56 P4 246 -4.730
56 P4 247 -4.730
56 P4 248 -5.219
56 P4 249 -5.219
56 P4 250 -5.219
56 P4 251 -4.242
56 P4 252 -3.754
56 P4 253 -3.265
56 P4 254 -2.777
56 P4 255 -1.312
# PZ chan 24
56 PZ 0 -1.567
56 PZ 1 -1.567
56 PZ 2 -1.078
56 PZ 3 0.387
56 PZ 4 0.875
56 PZ 5 0.875
56 PZ 6 0.387
56 PZ 7 -0.102
56 PZ 8 -0.102
56 PZ 9 0.387
56 PZ 10 0.875
56 PZ 11 0.387
56 PZ 12 -1.078
56 PZ 13 -3.031
56 PZ 14 -4.985
56 PZ 15 -5.961
56 PZ 16 -6.449
56 PZ 17 -6.938
56 PZ 18 -7.426
56 PZ 19 -7.914
56 PZ 20 -6.938
56 PZ 21 -4.496
56 PZ 22 -1.078
56 PZ 23 1.851
56 PZ 24 2.828
56 PZ 25 1.363
56 PZ 26 -0.102
56 PZ 27 -0.590
56 PZ 28 0.387
56 PZ 29 2.340
56 PZ 30 3.805
56 PZ 31 3.316
56 PZ 32 1.363
56 PZ 33 -0.590
56 PZ 34 -2.543
56 PZ 35 -3.031
56 PZ 36 -4.008
56 PZ 37 -4.496
56 PZ 38 -5.473
56 PZ 39 -6.449
56 PZ 40 -5.473
56 PZ 41 -4.985
56 PZ 42 -4.008
56 PZ 43 -3.031
56 PZ 44 -3.031
56 PZ 45 -4.008
56 PZ 46 -4.008
56 PZ 47 -3.520
56 PZ 48 -3.520
56 PZ 49 -3.520
56 PZ 50 -4.008
56 PZ 51 -4.008
56 PZ 52 -3.031
56 PZ 53 -1.078
56 PZ 54 1.363
56 PZ 55 3.316
56 PZ 56 4.293
56 PZ 57 4.293
56 PZ 58 3.805
56 PZ 59 3.316
56 PZ 60 3.316
56 PZ 61 3.805
56 PZ 62 3.805
56 PZ 63 2.828
56 PZ 64 1.851
56 PZ 65 1.363
56 PZ 66 0.387
56 PZ 67 -0.102
56 PZ 68 -1.078
56 PZ 69 -2.543
56 PZ 70 -3.520
56 PZ 71 -4.496
56 PZ 72 -4.496
56 PZ 73 -4.008
56 PZ 74 -3.520
56 PZ 75 -3.031
56 PZ 76 -2.543
56 PZ 77 -1.567
56 PZ 78 -0.102
56 PZ 79 1.363
56 PZ 80 1.363
56 PZ 81 0.387
56 PZ 82 -0.590
56 PZ 83 -1.078
56 PZ 84 -0.102
56 PZ 85 1.363
56 PZ 86 3.316
56 PZ 87 4.781
56 PZ 88 4.781
56 PZ 89 3.805
56 PZ 90 2.340
56 PZ 91 0.387
56 PZ 92 -1.567
56 PZ 93 -3.031
56 PZ 94 -4.008
56 PZ 95 -4.496
56 PZ 96 -4.496
56 PZ 97 -4.496
56 PZ 98 -4.496
56 PZ 99 -4.985
56 PZ 100 -5.961
56 PZ 101 -6.449
56 PZ 102 -6.938
56 PZ 103 -6.449
56 PZ 104 -5.473
56 PZ 105 -4.008
56 PZ 106 -2.543
56 PZ 107 -0.590
56 PZ 108 0.387
56 PZ 109 1.363
56 PZ 110 1.363
56 PZ 111 0.387
56 PZ 112 -0.590
56 PZ 113 -2.055
56 PZ 114 -3.031
56 PZ 115 -4.008
56 PZ 116 -4.008
56 PZ 117 -4.496
56 PZ 118 -4.985
56 PZ 119 -5.961
56 PZ 120 -7.426
56 PZ 121 -8.403
56 PZ 122 -9.379
56 PZ 123 -9.867
56 PZ 124 -9.379
56 PZ 125 -7.914
56 PZ 126 -6.449
56 PZ 127 -4.496
56 PZ 128 -3.031
56 PZ 129 -1.567
56 PZ 130 -1.078
56 PZ 131 -1.078
56 PZ 132 -1.567
56 PZ 133 -1.567
56 PZ 134 -2.055
56 PZ 135 -2.543
56 PZ 136 -3.031
56 PZ 137 -2.543
56 PZ 138 -2.055
56 PZ 139 -1.078
56 PZ 140 -0.102
56 PZ 141 0.387
56 PZ 142 -0.590
56 PZ 143 -1.567
56 PZ 144 -3.520
56 PZ 145 -4.496
56 PZ 146 -4.985
56 PZ 147 -4.985
56 PZ 148 -5.473
56 PZ 149 -6.449
56 PZ 150 -6.449
56 PZ 151 -5.473
56 PZ 152 -4.985
56 PZ 153 -4.008
56 PZ 154 -3.031
56 PZ 155 -3.031
56 PZ 156 -3.031
56 PZ 157 -3.520
56 PZ 158 -3.520
56 PZ 159 -4.008
56 PZ 160 -4.008
56 PZ 161 -3.520
56 PZ 162 -3.031
56 PZ 163 -2.543
56 PZ 164 -2.543
56 PZ 165 -2.543
56 PZ 166 -4.008
56 PZ 167 -4.985
56 PZ 168 -6.449
56 PZ 169 -6.938
56 PZ 170 -7.426
56 PZ 171 -6.449
56 PZ 172 -5.473
56 PZ 173 -4.985
56 PZ 174 -4.985
56 PZ 175 -4.496
56 PZ 176 -4.985
56 PZ 177 -5.473
56 PZ 178 -5.961
56 PZ 179 -5.473
56 PZ 180 -5.473
56 PZ 181 -5.473
56 PZ 182 -6.449
56 PZ 183 -7.914
56 PZ 184 -10.356
56 PZ 185 -11.820
56 PZ 186 -12.797
56 PZ 187 -12.309
56 PZ 188 -11.332
56 PZ 189 -10.356
56 PZ 190 -10.844
56 PZ 191 -12.309
56 PZ 192 -13.774
56 PZ 193 -14.262
56 PZ 194 -14.262
56 PZ 195 -13.285
56 PZ 196 -13.285
56 PZ 197 -13.774
56 PZ 198 -15.238
56 PZ 199 -17.192
56 PZ 200 -18.656
56 PZ 201 -20.121
56 PZ 202 -21.586
56 PZ 203 -22.563
56 PZ 204 -23.051
56 PZ 205 -22.563
56 PZ 206 -21.586
56 PZ 207 -20.121
56 PZ 208 -18.656
56 PZ 209 -17.680
56 PZ 210 -17.192
56 PZ 211 -16.703
56 PZ 212 -16.703
56 PZ 213 -17.192
56 PZ 214 -18.168
56 PZ 215 -19.145
56 PZ 216 -19.145
56 PZ 217 -19.633
56 PZ 218 -19.633
56 PZ 219 -20.610
56 PZ 220 -22.563
56 PZ 221 -24.028
56 PZ 222 -25.492
56 PZ 223 -25.492
56 PZ 224 -24.028
56 PZ 225 -21.098
56 PZ 226 -17.680
56 PZ 227 -14.750
56 PZ 228 -12.309
56 PZ 229 -10.356
56 PZ 230 -8.403
56 PZ 231 -6.449
56 PZ 232 -4.985
56 PZ 233 -4.985
56 PZ 234 -5.473
56 PZ 235 -7.426
56 PZ 236 -9.379
56 PZ 237 -10.844
56 PZ 238 -11.332
56 PZ 239 -11.332
56 PZ 240 -11.820
56 PZ 241 -11.820
56 PZ 242 -11.332
56 PZ 243 -10.356
56 PZ 244 -9.379
56 PZ 245 -7.914
56 PZ 246 -6.938
56 PZ 247 -7.426
56 PZ 248 -8.403
56 PZ 249 -9.379
56 PZ 250 -9.867
56 PZ 251 -9.379
56 PZ 252 -8.891
56 PZ 253 -7.426
56 PZ 254 -5.961
56 PZ 255 -4.496
# P8 chan 25
56 P8 0 -0.132
56 P8 1 -1.109
56 P8 2 -0.621
56 P8 3 1.333
56 P8 4 3.774
56 P8 5 3.774
56 P8 6 2.797
56 P8 7 0.844
56 P8 8 0.356
56 P8 9 1.333
56 P8 10 3.286
56 P8 11 4.262
56 P8 12 3.286
56 P8 13 0.844
56 P8 14 -1.597
56 P8 15 -2.574
56 P8 16 -3.062
56 P8 17 -2.574
56 P8 18 -1.597
56 P8 19 0.356
56 P8 20 3.774
56 P8 21 7.192
56 P8 22 9.145
56 P8 23 8.169
56 P8 24 5.239
56 P8 25 2.309
56 P8 26 1.333
56 P8 27 3.286
56 P8 28 6.215
56 P8 29 7.680
56 P8 30 6.704
56 P8 31 4.751
56 P8 32 2.309
56 P8 33 0.356
56 P8 34 -0.621
56 P8 35 -2.085
56 P8 36 -3.550
56 P8 37 -4.038
56 P8 38 -3.550
56 P8 39 -2.574
56 P8 40 -2.085
56 P8 41 -3.550
56 P8 42 -6.480
56 P8 43 -8.921
56 P8 44 -8.921
56 P8 45 -5.503
56 P8 46 -2.085
56 P8 47 0.844
56 P8 48 0.844
56 P8 49 -1.597
56 P8 50 -3.550
56 P8 51 -4.038
56 P8 52 -1.597
56 P8 53 2.309
56 P8 54 6.704
56 P8 55 8.657
56 P8 56 9.145
56 P8 57 9.145
56 P8 58 9.145
56 P8 59 10.122
56 P8 60 12.563
56 P8 61 13.540
56 P8 62 14.028
56 P8 63 13.051
56 P8 64 12.075
56 P8 65 11.587
56 P8 66 10.610
56 P8 67 11.587
56 P8 68 11.587
56 P8 69 12.075
56 P8 70 12.563
56 P8 71 12.563
56 P8 72 12.075
56 P8 73 10.610
56 P8 74 9.145
56 P8 75 8.169
56 P8 76 9.145
56 P8 77 12.563
56 P8 78 15.981
56 P8 79 18.422
56 P8 80 17.446
56 P8 81 15.004
56 P8 82 12.563
56 P8 83 11.098
56 P8 84 11.587
56 P8 85 13.540
56 P8 86 14.516
56 P8 87 14.516
56 P8 88 14.028
56 P8 89 13.051
56 P8 90 12.563
56 P8 91 10.610
56 P8 92 8.657
56 P8 93 6.215
56 P8 94 4.751
56 P8 95 4.751
56 P8 96 6.704
56 P8 97 8.657
56 P8 98 10.122
56 P8 99 10.610
56 P8 100 11.098
56 P8 101 12.075
56 P8 102 13.051
56 P8 103 14.028
56 P8 104 13.540
56 P8 105 12.075
56 P8 106 11.587
56 P8 107 13.051
56 P8 108 15.981
56 P8 109 18.911
56 P8 110 19.887
56 P8 111 17.934
56 P8 112 14.516
56 P8 113 12.075
56 P8 114 11.587
56 P8 115 14.516
56 P8 116 17.446
56 P8 117 18.911
56 P8 118 18.422
56 P8 119 15.493
56 P8 120 12.563
56 P8 121 10.610
56 P8 122 9.633
56 P8 123 9.633
56 P8 124 10.610
56 P8 125 12.075
56 P8 126 13.540
56 P8 127 15.004
56 P8 128 15.493
56 P8 129 15.493
56 P8 130 14.516
56 P8 131 14.516
56 P8 132 16.469
56 P8 133 19.399
56 P8 134 21.840
56 P8 135 22.817
56 P8 136 20.864
56 P8 137 16.958
56 P8 138 14.028
56 P8 139 12.075
56 P8 140 12.563
56 P8 141 13.540
56 P8 142 14.516
56 P8 143 14.516
56 P8 144 14.028
56 P8 145 14.028
56 P8 146 13.540
56 P8 147 13.051
56 P8 148 11.587
56 P8 149 10.122
56 P8 150 9.633
56 P8 151 12.075
56 P8 152 15.004
56 P8 153 17.934
56 P8 154 19.399
56 P8 155 18.911
56 P8 156 18.422
56 P8 157 17.934
56 P8 158 17.934
56 P8 159 17.934
56 P8 160 17.934
56 P8 161 17.446
56 P8 162 16.958
56 P8 163 17.446
56 P8 164 18.422
56 P8 165 18.911
56 P8 166 18.422
56 P8 167 16.958
56 P8 168 15.004
56 P8 169 13.051
56 P8 170 11.587
56 P8 171 11.098
56 P8 172 10.610
56 P8 173 10.122
56 P8 174 9.145
56 P8 175 8.169
56 P8 176 8.169
56 P8 177 8.657
56 P8 178 10.122
56 P8 179 12.075
56 P8 180 13.540
56 P8 181 14.516
56 P8 182 15.004
56 P8 183 15.004
56 P8 184 14.516
56 P8 185 13.540
56 P8 186 12.075
56 P8 187 10.122
56 P8 188 8.169
56 P8 189 7.680
56 P8 190 7.680
56 P8 191 9.145
56 P8 192 10.122
56 P8 193 10.122
56 P8 194 9.145
56 P8 195 7.680
56 P8 196 5.239
56 P8 197 2.797
56 P8 198 1.333
56 P8 199 -0.621
56 P8 200 -2.085
56 P8 201 -4.038
56 P8 202 -5.992
56 P8 203 -6.968
56 P8 204 -6.480
56 P8 205 -5.503
56 P8 206 -4.527
56 P8 207 -4.527
56 P8 208 -5.503
56 P8 209 -5.992
56 P8 210 -5.503
56 P8 211 -3.550
56 P8 212 -1.597
56 P8 213 -0.621
56 P8 214 -1.109
56 P8 215 -3.550
56 P8 216 -5.503
56 P8 217 -6.968
56 P8 218 -7.456
56 P8 219 -8.433
56 P8 220 -10.386
56 P8 221 -12.828
56 P8 222 -14.781
56 P8 223 -14.292
56 P8 224 -10.386
56 P8 225 -5.503
56 P8 226 -1.597
56 P8 227 -0.621
56 P8 228 -2.085
56 P8 229 -4.038
56 P8 230 -5.503
56 P8 231 -4.038
56 P8 232 -1.109
56 P8 233 1.821
56 P8 234 3.286
56 P8 235 2.797
56 P8 236 1.821
56 P8 237 1.821
56 P8 238 3.286
56 P8 239 4.751
56 P8 240 6.215
56 P8 241 5.727
56 P8 242 5.239
56 P8 243 5.239
56 P8 244 5.239
56 P8 245 6.215
56 P8 246 6.215
56 P8 247 6.215
56 P8 248 5.239
56 P8 249 4.751
56 P8 250 4.751
56 P8 251 5.727
56 P8 252 6.704
56 P8 253 7.680
56 P8 254 8.657
56 P8 255 10.122
# P7 chan 26
56 P7 0 -4.445
56 P7 1 -2.981
56 P7 2 -1.027
56 P7 3 0.437
56 P7 4 0.926
56 P7 5 -0.539
56 P7 6 -2.492
56 P7 7 -3.957
56 P7 8 -4.934
56 P7 9 -4.445
56 P7 10 -2.981
56 P7 11 -1.027
56 P7 12 -0.051
56 P7 13 -0.051
56 P7 14 -1.027
56 P7 15 -2.004
56 P7 16 -2.981
56 P7 17 -3.469
56 P7 18 -3.957
56 P7 19 -3.957
56 P7 20 -3.469
56 P7 21 -2.981
56 P7 22 -1.516
56 P7 23 -0.051
56 P7 24 0.437
56 P7 25 -0.051
56 P7 26 -0.539
56 P7 27 -0.539
56 P7 28 -0.051
56 P7 29 1.414
56 P7 30 1.902
56 P7 31 0.926
56 P7 32 -1.027
56 P7 33 -2.981
56 P7 34 -4.934
56 P7 35 -5.422
56 P7 36 -5.422
56 P7 37 -5.910
56 P7 38 -6.887
56 P7 39 -7.863
56 P7 40 -8.352
56 P7 41 -8.840
56 P7 42 -8.352
56 P7 43 -7.375
56 P7 44 -6.887
56 P7 45 -6.399
56 P7 46 -5.910
56 P7 47 -5.910
56 P7 48 -6.399
56 P7 49 -6.887
56 P7 50 -6.887
56 P7 51 -6.399
56 P7 52 -4.934
56 P7 53 -2.981
56 P7 54 -1.516
56 P7 55 -1.027
56 P7 56 -1.516
56 P7 57 -2.004
56 P7 58 -2.004
56 P7 59 -1.516
56 P7 60 0.437
56 P7 61 1.902
56 P7 62 2.391
56 P7 63 1.414
56 P7 64 -0.051
56 P7 65 -1.027
56 P7 66 -1.516
56 P7 67 -0.051
56 P7 68 0.926
56 P7 69 1.414
56 P7 70 0.437
56 P7 71 -1.516
56 P7 72 -3.469
56 P7 73 -4.934
56 P7 74 -4.934
56 P7 75 -4.445
56 P7 76 -3.469
56 P7 77 -2.004
56 P7 78 -1.027
56 P7 79 0.437
56 P7 80 1.902
56 P7 81 3.367
56 P7 82 3.855
56 P7 83 3.367
56 P7 84 2.391
56 P7 85 0.926
56 P7 86 0.437
56 P7 87 0.437
56 P7 88 0.926
56 P7 89 0.926
56 P7 90 0.926
56 P7 91 -0.539
56 P7 92 -2.004
56 P7 93 -3.469
56 P7 94 -3.957
56 P7 95 -2.981
56 P7 96 -1.027
56 P7 97 0.437
56 P7 98 1.414
56 P7 99 1.414
56 P7 100 0.437
56 P7 101 0.437
56 P7 102 0.437
56 P7 103 0.926
56 P7 104 1.414
56 P7 105 2.879
56 P7 106 4.344
56 P7 107 6.297
56 P7 108 8.738
56 P7 109 10.203
56 P7 110 10.203
56 P7 111 8.250
56 P7 112 6.297
56 P7 113 4.832
56 P7 114 4.344
56 P7 115 4.832
56 P7 116 5.809
56 P7 117 6.297
56 P7 118 5.809
56 P7 119 5.320
56 P7 120 4.344
56 P7 121 3.855
56 P7 122 2.879
56 P7 123 2.391
56 P7 124 2.879
56 P7 125 2.391
56 P7 126 1.902
56 P7 127 0.926
56 P7 128 -0.051
56 P7 129 -0.051
56 P7 130 0.437
56 P7 131 2.391
56 P7 132 3.855
56 P7 133 5.320
56 P7 134 5.809
56 P7 135 5.809
56 P7 136 5.320
56 P7 137 4.832
56 P7 138 4.344
56 P7 139 3.367
56 P7 140 2.879
56 P7 141 2.879
56 P7 142 2.879
56 P7 143 3.855
56 P7 144 5.320
56 P7 145 6.297
56 P7 146 6.297
56 P7 147 4.832
56 P7 148 2.391
56 P7 149 -0.051
56 P7 150 -2.004
56 P7 151 -2.492
56 P7 152 -1.516
56 P7 153 1.414
56 P7 154 3.855
56 P7 155 5.320
56 P7 156 5.320
56 P7 157 3.855
56 P7 158 1.414
56 P7 159 0.437
56 P7 160 1.414
56 P7 161 4.832
56 P7 162 8.250
56 P7 163 10.203
56 P7 164 10.203
56 P7 165 8.738
56 P7 166 5.320
56 P7 167 1.902
56 P7 168 -0.539
56 P7 169 -2.004
56 P7 170 -1.027
56 P7 171 0.437
56 P7 172 1.902
56 P7 173 2.391
56 P7 174 1.414
56 P7 175 -0.539
56 P7 176 -1.516
56 P7 177 -2.004
56 P7 178 -1.516
56 P7 179 -0.539
56 P7 180 0.437
56 P7 181 1.414
56 P7 182 2.879
56 P7 183 3.855
56 P7 184 3.855
56 P7 185 2.879
56 P7 186 0.926
56 P7 187 -1.027
56 P7 188 -2.004
56 P7 189 -2.492
56 P7 190 -2.004
56 P7 191 -2.004
56 P7 192 -2.981
56 P7 193 -3.957
56 P7 194 -4.445
56 P7 195 -5.422
56 P7 196 -6.399
56 P7 197 -8.840
56 P7 198 -11.281
56 P7 199 -14.699
56 P7 200 -16.652
56 P7 201 -17.629
56 P7 202 -18.117
56 P7 203 -18.117
56 P7 204 -18.117
56 P7 205 -18.606
56 P7 206 -18.117
56 P7 207 -16.164
56 P7 208 -13.723
56 P7 209 -10.793
56 P7 210 -8.840
56 P7 211 -9.328
56 P7 212 -11.770
56 P7 213 -15.188
56 P7 214 -17.629
56 P7 215 -18.606
56 P7 216 -17.629
56 P7 217 -16.652
56 P7 218 -15.676
56 P7 219 -16.652
56 P7 220 -19.094
56 P7 221 -22.024
56 P7 222 -23.488
56 P7 223 -23.000
56 P7 224 -20.070
56 P7 225 -15.676
56 P7 226 -11.281
56 P7 227 -6.887
56 P7 228 -2.981
56 P7 229 0.926
56 P7 230 4.832
56 P7 231 7.273
56 P7 232 7.273
56 P7 233 4.832
56 P7 234 0.437
56 P7 235 -3.957
56 P7 236 -7.375
56 P7 237 -8.840
56 P7 238 -8.352
56 P7 239 -7.375
56 P7 240 -7.375
56 P7 241 -7.863
56 P7 242 -8.352
56 P7 243 -7.863
56 P7 244 -5.910
56 P7 245 -3.957
56 P7 246 -2.004
56 P7 247 -1.516
56 P7 248 -2.004
56 P7 249 -2.492
56 P7 250 -3.469
56 P7 251 -2.981
56 P7 252 -2.004
56 P7 253 -0.539
56 P7 254 0.926
56 P7 255 1.414
# PO2 chan 27
56 PO2 0 -0.783
56 PO2 1 -1.272
56 PO2 2 -0.783
56 PO2 3 0.193
56 PO2 4 0.682
56 PO2 5 0.682
56 PO2 6 -0.295
56 PO2 7 -1.272
56 PO2 8 -0.783
56 PO2 9 0.193
56 PO2 10 1.170
56 PO2 11 1.658
56 PO2 12 0.682
56 PO2 13 -1.272
56 PO2 14 -2.736
56 PO2 15 -4.201
56 PO2 16 -4.690
56 PO2 17 -4.201
56 PO2 18 -3.713
56 PO2 19 -2.248
56 PO2 20 0.193
56 PO2 21 2.635
56 PO2 22 5.076
56 PO2 23 6.541
56 PO2 24 6.541
56 PO2 25 5.564
56 PO2 26 4.588
56 PO2 27 4.588
56 PO2 28 4.588
56 PO2 29 5.076
56 PO2 30 4.588
56 PO2 31 3.123
56 PO2 32 1.658
56 PO2 33 -0.295
56 PO2 34 -1.760
56 PO2 35 -3.713
56 PO2 36 -5.178
56 PO2 37 -6.643
56 PO2 38 -7.619
56 PO2 39 -8.108
56 PO2 40 -8.596
56 PO2 41 -8.596
56 PO2 42 -8.596
56 PO2 43 -9.084
56 PO2 44 -9.084
56 PO2 45 -8.596
56 PO2 46 -7.131
56 PO2 47 -6.154
56 PO2 48 -5.178
56 PO2 49 -5.178
56 PO2 50 -4.690
56 PO2 51 -4.201
56 PO2 52 -2.248
56 PO2 53 1.170
56 PO2 54 4.100
56 PO2 55 6.541
56 PO2 56 7.517
56 PO2 57 8.006
56 PO2 58 8.006
56 PO2 59 8.494
56 PO2 60 9.471
56 PO2 61 10.447
56 PO2 62 9.959
56 PO2 63 9.959
56 PO2 64 8.494
56 PO2 65 7.517
56 PO2 66 6.541
56 PO2 67 6.053
56 PO2 68 5.076
56 PO2 69 4.100
56 PO2 70 3.611
56 PO2 71 4.100
56 PO2 72 4.588
56 PO2 73 5.076
56 PO2 74 5.564
56 PO2 75 5.564
56 PO2 76 5.564
56 PO2 77 6.541
56 PO2 78 8.006
56 PO2 79 8.982
56 PO2 80 9.471
56 PO2 81 8.982
56 PO2 82 7.517
56 PO2 83 6.541
56 PO2 84 6.053
56 PO2 85 6.541
56 PO2 86 7.029
56 PO2 87 8.006
56 PO2 88 7.517
56 PO2 89 7.029
56 PO2 90 5.564
56 PO2 91 3.611
56 PO2 92 1.658
56 PO2 93 -0.295
56 PO2 94 -1.272
56 PO2 95 -1.272
56 PO2 96 -0.295
56 PO2 97 1.170
56 PO2 98 2.635
56 PO2 99 3.611
56 PO2 100 3.611
56 PO2 101 3.123
56 PO2 102 3.123
56 PO2 103 2.635
56 PO2 104 3.123
56 PO2 105 3.611
56 PO2 106 5.076
56 PO2 107 6.541
56 PO2 108 8.006
56 PO2 109 8.494
56 PO2 110 7.517
56 PO2 111 6.541
56 PO2 112 5.076
56 PO2 113 4.588
56 PO2 114 5.076
56 PO2 115 6.053
56 PO2 116 7.029
56 PO2 117 7.029
56 PO2 118 7.029
56 PO2 119 6.053
56 PO2 120 4.588
56 PO2 121 3.611
56 PO2 122 2.146
56 PO2 123 1.658
56 PO2 124 2.146
56 PO2 125 3.123
56 PO2 126 3.611
56 PO2 127 4.588
56 PO2 128 4.588
56 PO2 129 5.076
56 PO2 130 6.053
56 PO2 131 7.517
56 PO2 132 9.471
56 PO2 133 10.935
56 PO2 134 11.424
56 PO2 135 10.935
56 PO2 136 8.982
56 PO2 137 7.517
56 PO2 138 7.029
56 PO2 139 7.029
56 PO2 140 7.517
56 PO2 141 7.517
56 PO2 142 7.029
56 PO2 143 6.541
56 PO2 144 6.053
56 PO2 145 5.564
56 PO2 146 4.588
56 PO2 147 4.100
56 PO2 148 2.635
56 PO2 149 1.658
56 PO2 150 2.146
56 PO2 151 3.123
56 PO2 152 5.076
56 PO2 153 7.029
56 PO2 154 8.006
56 PO2 155 7.517
56 PO2 156 6.541
56 PO2 157 5.564
56 PO2 158 5.076
56 PO2 159 4.588
56 PO2 160 4.588
56 PO2 161 5.076
56 PO2 162 6.053
56 PO2 163 6.053
56 PO2 164 6.053
56 PO2 165 5.076
56 PO2 166 3.611
56 PO2 167 1.658
56 PO2 168 0.682
56 PO2 169 -0.295
56 PO2 170 -0.295
56 PO2 171 -0.783
56 PO2 172 -0.783
56 PO2 173 -1.272
56 PO2 174 -0.783
56 PO2 175 -0.783
56 PO2 176 0.193
56 PO2 177 1.170
56 PO2 178 2.146
56 PO2 179 2.635
56 PO2 180 3.611
56 PO2 181 4.100
56 PO2 182 5.076
56 PO2 183 5.076
56 PO2 184 4.588
56 PO2 185 3.123
56 PO2 186 1.658
56 PO2 187 0.193
56 PO2 188 -1.272
56 PO2 189 -2.248
56 PO2 190 -3.225
56 PO2 191 -3.713
56 PO2 192 -4.201
56 PO2 193 -4.201
56 PO2 194 -4.201
56 PO2 195 -4.690
56 PO2 196 -5.666
56 PO2 197 -7.131
56 PO2 198 -9.084
56 PO2 199 -12.014
56 PO2 200 -14.943
56 PO2 201 -17.873
56 PO2 202 -19.826
56 PO2 203 -20.803
56 PO2 204 -20.803
56 PO2 205 -19.826
56 PO2 206 -18.850
56 PO2 207 -17.873
56 PO2 208 -16.897
56 PO2 209 -15.920
56 PO2 210 -14.943
56 PO2 211 -13.967
56 PO2 212 -13.479
56 PO2 213 -13.479
56 PO2 214 -14.943
56 PO2 215 -16.408
56 PO2 216 -17.873
56 PO2 217 -19.338
56 PO2 218 -20.315
56 PO2 219 -22.268
56 PO2 220 -25.197
56 PO2 221 -27.639
56 PO2 222 -28.615
56 PO2 223 -27.150
56 PO2 224 -23.244
56 PO2 225 -18.361
56 PO2 226 -13.479
56 PO2 227 -10.549
56 PO2 228 -9.084
56 PO2 229 -8.108
56 PO2 230 -7.131
56 PO2 231 -5.666
56 PO2 232 -3.225
56 PO2 233 -2.248
56 PO2 234 -2.736
56 PO2 235 -4.690
56 PO2 236 -6.643
56 PO2 237 -8.108
56 PO2 238 -8.596
56 PO2 239 -8.108
56 PO2 240 -8.108
56 PO2 241 -8.108
56 PO2 242 -8.596
56 PO2 243 -8.596
56 PO2 244 -7.619
56 PO2 245 -6.154
56 PO2 246 -5.666
56 PO2 247 -5.666
56 PO2 248 -6.154
56 PO2 249 -6.643
56 PO2 250 -6.643
56 PO2 251 -6.154
56 PO2 252 -4.690
56 PO2 253 -3.225
56 PO2 254 -2.248
56 PO2 255 -1.760
# PO1 chan 28
56 PO1 0 -0.824
56 PO1 1 -1.312
56 PO1 2 -1.801
56 PO1 3 -1.801
56 PO1 4 -1.312
56 PO1 5 -1.312
56 PO1 6 -1.801
56 PO1 7 -2.289
56 PO1 8 -2.289
56 PO1 9 -1.801
56 PO1 10 -1.312
56 PO1 11 -0.336
56 PO1 12 0.153
56 PO1 13 -0.824
56 PO1 14 -1.801
56 PO1 15 -2.777
56 PO1 16 -3.754
56 PO1 17 -4.242
56 PO1 18 -4.242
56 PO1 19 -3.754
56 PO1 20 -1.801
56 PO1 21 0.153
56 PO1 22 3.082
56 PO1 23 5.035
56 PO1 24 6.500
56 PO1 25 6.012
