# co2a0000419.rd
# 120 trials, 64 chans, 416 samples 368 post_stim samples
# 3.906000 msecs uV
# S1 obj , trial 50
# FP1 chan 0
50 FP1 0 6.348
50 FP1 1 3.418
50 FP1 2 0.977
50 FP1 3 0.977
50 FP1 4 2.930
50 FP1 5 4.883
50 FP1 6 6.348
50 FP1 7 5.859
50 FP1 8 4.395
50 FP1 9 1.465
50 FP1 10 -1.953
50 FP1 11 -3.906
50 FP1 12 -4.883
50 FP1 13 -3.906
50 FP1 14 -2.441
50 FP1 15 -1.465
50 FP1 16 -1.465
50 FP1 17 -2.441
50 FP1 18 -3.906
50 FP1 19 -4.395
50 FP1 20 -3.418
50 FP1 21 -0.977
50 FP1 22 2.441
50 FP1 23 5.859
50 FP1 24 9.277
50 FP1 25 12.695
50 FP1 26 16.113
50 FP1 27 18.555
50 FP1 28 19.043
50 FP1 29 17.578
50 FP1 30 15.625
50 FP1 31 14.160
50 FP1 32 14.648
50 FP1 33 16.602
50 FP1 34 19.043
50 FP1 35 20.996
50 FP1 36 20.996
50 FP1 37 19.531
50 FP1 38 17.578
50 FP1 39 16.113
50 FP1 40 16.113
50 FP1 41 17.090
50 FP1 42 18.066
50 FP1 43 17.578
50 FP1 44 16.113
50 FP1 45 13.184
50 FP1 46 10.742
50 FP1 47 8.789
50 FP1 48 8.789
50 FP1 49 10.254
50 FP1 50 12.695
50 FP1 51 14.160
50 FP1 52 15.137
50 FP1 53 15.137
50 FP1 54 14.648
50 FP1 55 13.672
50 FP1 56 12.695
50 FP1 57 11.230
50 FP1 58 9.277
50 FP1 59 7.324
50 FP1 60 5.859
50 FP1 61 5.371
50 FP1 62 5.371
50 FP1 63 5.371
50 FP1 64 5.859
50 FP1 65 6.348
50 FP1 66 7.324
50 FP1 67 8.301
50 FP1 68 9.277
50 FP1 69 9.277
50 FP1 70 6.348
50 FP1 71 2.441
50 FP1 72 -2.441
50 FP1 73 -4.395
50 FP1 74 -2.930
50 FP1 75 1.465
50 FP1 76 7.812
50 FP1 77 12.207
50 FP1 78 13.184
50 FP1 79 13.184
50 FP1 80 12.695
50 FP1 81 15.137
50 FP1 82 19.531
50 FP1 83 23.438
50 FP1 84 24.902
50 FP1 85 23.438
50 FP1 86 20.996
50 FP1 87 19.531
50 FP1 88 20.996
50 FP1 89 22.949
50 FP1 90 24.414
50 FP1 91 23.438
50 FP1 92 20.996
50 FP1 93 18.555
50 FP1 94 16.602
50 FP1 95 15.625
50 FP1 96 14.160
50 FP1 97 11.230
50 FP1 98 7.324
50 FP1 99 3.906
50 FP1 100 2.441
50 FP1 101 3.418
50 FP1 102 5.371
50 FP1 103 7.812
50 FP1 104 9.277
50 FP1 105 10.742
50 FP1 106 12.207
50 FP1 107 14.648
50 FP1 108 17.578
50 FP1 109 20.020
50 FP1 110 20.996
50 FP1 111 20.508
50 FP1 112 19.043
50 FP1 113 16.602
50 FP1 114 13.672
50 FP1 115 10.254
50 FP1 116 6.348
50 FP1 117 3.418
50 FP1 118 1.953
50 FP1 119 1.465
50 FP1 120 0.977
50 FP1 121 -0.488
50 FP1 122 -2.930
50 FP1 123 -5.859
50 FP1 124 -7.812
50 FP1 125 -8.789
50 FP1 126 -9.277
50 FP1 127 -11.230
50 FP1 128 -13.672
50 FP1 129 -15.137
50 FP1 130 -15.137
50 FP1 131 -12.695
50 FP1 132 -8.789
50 FP1 133 -5.371
50 FP1 134 -2.930
50 FP1 135 -1.465
50 FP1 136 0.488
50 FP1 137 2.930
50 FP1 138 5.371
50 FP1 139 8.301
50 FP1 140 9.766
50 FP1 141 11.230
50 FP1 142 12.207
50 FP1 143 12.207
50 FP1 144 10.254
50 FP1 145 6.348
50 FP1 146 0.000
50 FP1 147 -6.348
50 FP1 148 -10.742
50 FP1 149 -12.207
50 FP1 150 -13.184
50 FP1 151 -14.160
50 FP1 152 -16.113
50 FP1 153 -18.555
50 FP1 154 -18.555
50 FP1 155 -16.113
50 FP1 156 -11.230
50 FP1 157 -7.324
50 FP1 158 -4.883
50 FP1 159 -4.395
50 FP1 160 -4.395
50 FP1 161 -3.906
50 FP1 162 -2.441
50 FP1 163 -0.488
50 FP1 164 0.488
50 FP1 165 1.465
50 FP1 166 1.953
50 FP1 167 2.930
50 FP1 168 3.418
50 FP1 169 3.418
50 FP1 170 1.465
50 FP1 171 -0.977
50 FP1 172 -2.930
50 FP1 173 -3.906
50 FP1 174 -2.930
50 FP1 175 -1.953
50 FP1 176 -1.465
50 FP1 177 -2.930
50 FP1 178 -5.859
50 FP1 179 -9.277
50 FP1 180 -12.207
50 FP1 181 -13.184
50 FP1 182 -14.160
50 FP1 183 -14.648
50 FP1 184 -15.137
50 FP1 185 -16.113
50 FP1 186 -16.113
50 FP1 187 -14.160
50 FP1 188 -11.719
50 FP1 189 -9.277
50 FP1 190 -8.301
50 FP1 191 -8.789
50 FP1 192 -9.766
50 FP1 193 -10.254
50 FP1 194 -10.254
50 FP1 195 -8.789
50 FP1 196 -8.301
50 FP1 197 -8.789
50 FP1 198 -10.254
50 FP1 199 -11.719
50 FP1 200 -12.207
50 FP1 201 -12.207
50 FP1 202 -12.207
50 FP1 203 -12.207
50 FP1 204 -13.184
50 FP1 205 -13.672
50 FP1 206 -13.184
50 FP1 207 -11.719
50 FP1 208 -10.254
50 FP1 209 -8.789
50 FP1 210 -8.301
50 FP1 211 -8.301
50 FP1 212 -7.812
50 FP1 213 -6.348
50 FP1 214 -4.395
50 FP1 215 -0.977
50 FP1 216 2.930
50 FP1 217 6.836
50 FP1 218 9.766
50 FP1 219 11.230
50 FP1 220 10.254
50 FP1 221 7.812
50 FP1 222 3.906
50 FP1 223 0.000
50 FP1 224 -2.930
50 FP1 225 -3.906
50 FP1 226 -2.930
50 FP1 227 -0.977
50 FP1 228 0.977
50 FP1 229 3.418
50 FP1 230 4.883
50 FP1 231 5.859
50 FP1 232 5.371
50 FP1 233 2.441
50 FP1 234 -1.465
50 FP1 235 -5.371
50 FP1 236 -7.812
50 FP1 237 -8.301
50 FP1 238 -6.348
50 FP1 239 -2.441
50 FP1 240 2.930
50 FP1 241 8.301
50 FP1 242 13.184
50 FP1 243 16.113
50 FP1 244 17.578
50 FP1 245 18.066
50 FP1 246 19.043
50 FP1 247 20.508
50 FP1 248 22.461
50 FP1 249 21.973
50 FP1 250 18.066
50 FP1 251 12.207
50 FP1 252 6.836
50 FP1 253 2.930
50 FP1 254 2.441
50 FP1 255 2.441
# FP2 chan 1
50 FP2 0 7.853
50 FP2 1 6.388
50 FP2 2 4.924
50 FP2 3 3.947
50 FP2 4 4.435
50 FP2 5 5.412
50 FP2 6 6.388
50 FP2 7 6.388
50 FP2 8 4.435
50 FP2 9 1.506
50 FP2 10 -2.401
50 FP2 11 -4.842
50 FP2 12 -5.330
50 FP2 13 -4.842
50 FP2 14 -2.889
50 FP2 15 -1.424
50 FP2 16 -0.936
50 FP2 17 -1.424
50 FP2 18 -2.889
50 FP2 19 -4.354
50 FP2 20 -4.842
50 FP2 21 -4.354
50 FP2 22 -2.401
50 FP2 23 0.529
50 FP2 24 3.459
50 FP2 25 6.388
50 FP2 26 8.830
50 FP2 27 10.783
50 FP2 28 11.759
50 FP2 29 12.248
50 FP2 30 11.759
50 FP2 31 11.271
50 FP2 32 11.271
50 FP2 33 12.248
50 FP2 34 13.713
50 FP2 35 15.177
50 FP2 36 15.177
50 FP2 37 14.201
50 FP2 38 11.271
50 FP2 39 9.318
50 FP2 40 8.830
50 FP2 41 9.806
50 FP2 42 10.783
50 FP2 43 11.271
50 FP2 44 9.318
50 FP2 45 6.388
50 FP2 46 3.459
50 FP2 47 1.506
50 FP2 48 1.506
50 FP2 49 2.482
50 FP2 50 3.459
50 FP2 51 3.459
50 FP2 52 3.459
50 FP2 53 3.459
50 FP2 54 4.435
50 FP2 55 5.900
50 FP2 56 6.388
50 FP2 57 5.412
50 FP2 58 2.970
50 FP2 59 0.041
50 FP2 60 -2.401
50 FP2 61 -2.401
50 FP2 62 -1.424
50 FP2 63 -0.936
50 FP2 64 -1.424
50 FP2 65 -2.401
50 FP2 66 -2.889
50 FP2 67 -2.401
50 FP2 68 -0.448
50 FP2 69 0.529
50 FP2 70 -0.448
50 FP2 71 -4.354
50 FP2 72 -8.260
50 FP2 73 -10.701
50 FP2 74 -9.237
50 FP2 75 -3.377
50 FP2 76 3.459
50 FP2 77 7.853
50 FP2 78 8.341
50 FP2 79 6.388
50 FP2 80 4.924
50 FP2 81 6.388
50 FP2 82 10.783
50 FP2 83 15.666
50 FP2 84 17.619
50 FP2 85 16.642
50 FP2 86 13.713
50 FP2 87 12.248
50 FP2 88 12.248
50 FP2 89 14.201
50 FP2 90 15.177
50 FP2 91 14.689
50 FP2 92 12.248
50 FP2 93 9.318
50 FP2 94 6.877
50 FP2 95 4.924
50 FP2 96 2.482
50 FP2 97 -0.448
50 FP2 98 -2.889
50 FP2 99 -3.377
50 FP2 100 -1.424
50 FP2 101 1.994
50 FP2 102 5.412
50 FP2 103 7.365
50 FP2 104 7.853
50 FP2 105 7.853
50 FP2 106 8.341
50 FP2 107 10.295
50 FP2 108 12.248
50 FP2 109 13.224
50 FP2 110 13.224
50 FP2 111 12.736
50 FP2 112 12.248
50 FP2 113 11.759
50 FP2 114 9.806
50 FP2 115 6.388
50 FP2 116 1.506
50 FP2 117 -2.889
50 FP2 118 -5.330
50 FP2 119 -5.330
50 FP2 120 -4.354
50 FP2 121 -3.866
50 FP2 122 -4.354
50 FP2 123 -5.330
50 FP2 124 -6.795
50 FP2 125 -7.284
50 FP2 126 -8.260
50 FP2 127 -10.213
50 FP2 128 -12.655
50 FP2 129 -14.119
50 FP2 130 -13.631
50 FP2 131 -10.701
50 FP2 132 -7.284
50 FP2 133 -4.842
50 FP2 134 -4.354
50 FP2 135 -4.842
50 FP2 136 -4.842
50 FP2 137 -2.401
50 FP2 138 1.017
50 FP2 139 4.435
50 FP2 140 6.877
50 FP2 141 7.365
50 FP2 142 7.365
50 FP2 143 6.388
50 FP2 144 4.435
50 FP2 145 0.529
50 FP2 146 -5.330
50 FP2 147 -11.678
50 FP2 148 -17.049
50 FP2 149 -19.979
50 FP2 150 -21.932
50 FP2 151 -22.420
50 FP2 152 -22.420
50 FP2 153 -21.932
50 FP2 154 -19.979
50 FP2 155 -16.561
50 FP2 156 -12.166
50 FP2 157 -8.260
50 FP2 158 -5.819
50 FP2 159 -4.354
50 FP2 160 -3.377
50 FP2 161 -1.912
50 FP2 162 0.041
50 FP2 163 1.017
50 FP2 164 1.506
50 FP2 165 1.506
50 FP2 166 1.506
50 FP2 167 2.482
50 FP2 168 3.459
50 FP2 169 3.947
50 FP2 170 3.459
50 FP2 171 2.482
50 FP2 172 1.017
50 FP2 173 0.529
50 FP2 174 0.041
50 FP2 175 -0.448
50 FP2 176 -0.936
50 FP2 177 -2.401
50 FP2 178 -3.377
50 FP2 179 -4.354
50 FP2 180 -4.354
50 FP2 181 -4.354
50 FP2 182 -3.866
50 FP2 183 -3.866
50 FP2 184 -3.866
50 FP2 185 -4.354
50 FP2 186 -3.866
50 FP2 187 -2.889
50 FP2 188 -1.424
50 FP2 189 -0.936
50 FP2 190 -0.936
50 FP2 191 -1.912
50 FP2 192 -2.401
50 FP2 193 -2.401
50 FP2 194 -1.912
50 FP2 195 -1.424
50 FP2 196 -2.401
50 FP2 197 -3.377
50 FP2 198 -5.330
50 FP2 199 -6.795
50 FP2 200 -7.284
50 FP2 201 -7.284
50 FP2 202 -7.284
50 FP2 203 -8.260
50 FP2 204 -9.237
50 FP2 205 -8.748
50 FP2 206 -7.772
50 FP2 207 -6.307
50 FP2 208 -4.842
50 FP2 209 -4.842
50 FP2 210 -5.330
50 FP2 211 -6.307
50 FP2 212 -5.819
50 FP2 213 -4.842
50 FP2 214 -2.401
50 FP2 215 1.017
50 FP2 216 4.924
50 FP2 217 9.806
50 FP2 218 13.224
50 FP2 219 14.689
50 FP2 220 13.224
50 FP2 221 9.806
50 FP2 222 5.900
50 FP2 223 2.970
50 FP2 224 1.506
50 FP2 225 2.482
50 FP2 226 3.947
50 FP2 227 4.924
50 FP2 228 5.900
50 FP2 229 6.877
50 FP2 230 7.365
50 FP2 231 7.365
50 FP2 232 5.412
50 FP2 233 1.506
50 FP2 234 -2.401
50 FP2 235 -5.819
50 FP2 236 -6.795
50 FP2 237 -6.307
50 FP2 238 -5.330
50 FP2 239 -3.377
50 FP2 240 -1.424
50 FP2 241 1.017
50 FP2 242 4.924
50 FP2 243 8.830
50 FP2 244 12.736
50 FP2 245 15.666
50 FP2 246 17.619
50 FP2 247 19.084
50 FP2 248 19.084
50 FP2 249 17.619
50 FP2 250 14.201
50 FP2 251 9.318
50 FP2 252 4.924
50 FP2 253 1.506
50 FP2 254 0.529
50 FP2 255 0.529
# F7 chan 2
50 F7 0 8.413
50 F7 1 5.971
50 F7 2 5.971
50 F7 3 7.924
50 F7 4 11.342
50 F7 5 13.784
50 F7 6 14.760
50 F7 7 13.295
50 F7 8 9.878
50 F7 9 5.483
50 F7 10 1.577
50 F7 11 -1.841
50 F7 12 -2.818
50 F7 13 -2.818
50 F7 14 -2.818
50 F7 15 -3.306
50 F7 16 -4.771
50 F7 17 -6.236
50 F7 18 -7.212
50 F7 19 -6.724
50 F7 20 -5.747
50 F7 21 -4.283
50 F7 22 -3.306
50 F7 23 -1.353
50 F7 24 2.065
50 F7 25 6.948
50 F7 26 12.807
50 F7 27 16.713
50 F7 28 17.690
50 F7 29 15.737
50 F7 30 13.295
50 F7 31 11.342
50 F7 32 11.831
50 F7 33 13.784
50 F7 34 16.713
50 F7 35 18.178
50 F7 36 18.178
50 F7 37 17.202
50 F7 38 16.225
50 F7 39 16.225
50 F7 40 16.713
50 F7 41 17.202
50 F7 42 16.225
50 F7 43 13.295
50 F7 44 9.878
50 F7 45 5.971
50 F7 46 3.042
50 F7 47 1.577
50 F7 48 2.065
50 F7 49 4.018
50 F7 50 6.948
50 F7 51 10.366
50 F7 52 12.807
50 F7 53 13.784
50 F7 54 13.295
50 F7 55 11.342
50 F7 56 8.901
50 F7 57 6.948
50 F7 58 5.483
50 F7 59 4.995
50 F7 60 4.506
50 F7 61 3.530
50 F7 62 3.042
50 F7 63 2.553
50 F7 64 2.065
50 F7 65 2.553
50 F7 66 3.042
50 F7 67 3.042
50 F7 68 2.553
50 F7 69 1.088
50 F7 70 -1.841
50 F7 71 -5.747
50 F7 72 -9.654
50 F7 73 -12.095
50 F7 74 -12.095
50 F7 75 -9.654
50 F7 76 -4.771
50 F7 77 -0.376
50 F7 78 3.042
50 F7 79 5.971
50 F7 80 8.413
50 F7 81 11.342
50 F7 82 14.272
50 F7 83 16.713
50 F7 84 17.202
50 F7 85 16.713
50 F7 86 15.249
50 F7 87 14.760
50 F7 88 15.737
50 F7 89 17.690
50 F7 90 19.155
50 F7 91 19.643
50 F7 92 18.667
50 F7 93 16.713
50 F7 94 15.249
50 F7 95 13.784
50 F7 96 12.319
50 F7 97 10.366
50 F7 98 7.924
50 F7 99 5.483
50 F7 100 3.042
50 F7 101 1.577
50 F7 102 0.112
50 F7 103 -0.376
50 F7 104 0.112
50 F7 105 2.553
50 F7 106 6.460
50 F7 107 10.854
50 F7 108 14.272
50 F7 109 16.713
50 F7 110 17.202
50 F7 111 16.713
50 F7 112 15.249
50 F7 113 13.295
50 F7 114 10.366
50 F7 115 6.948
50 F7 116 4.018
50 F7 117 2.553
50 F7 118 2.553
50 F7 119 2.553
50 F7 120 2.065
50 F7 121 -0.865
50 F7 122 -5.747
50 F7 123 -10.630
50 F7 124 -13.072
50 F7 125 -15.025
50 F7 126 -15.513
50 F7 127 -16.978
50 F7 128 -18.931
50 F7 129 -20.396
50 F7 130 -19.908
50 F7 131 -17.466
50 F7 132 -13.560
50 F7 133 -9.654
50 F7 134 -6.236
50 F7 135 -3.306
50 F7 136 1.088
50 F7 137 4.995
50 F7 138 8.901
50 F7 139 10.854
50 F7 140 11.342
50 F7 141 10.854
50 F7 142 9.878
50 F7 143 9.878
50 F7 144 9.878
50 F7 145 8.413
50 F7 146 5.483
50 F7 147 2.065
50 F7 148 -1.353
50 F7 149 -3.794
50 F7 150 -6.724
50 F7 151 -10.142
50 F7 152 -14.048
50 F7 153 -16.490
50 F7 154 -16.978
50 F7 155 -13.560
50 F7 156 -9.165
50 F7 157 -4.771
50 F7 158 -2.818
50 F7 159 -2.818
50 F7 160 -3.306
50 F7 161 -3.794
50 F7 162 -2.818
50 F7 163 -1.353
50 F7 164 0.112
50 F7 165 2.065
50 F7 166 4.018
50 F7 167 6.460
50 F7 168 8.413
50 F7 169 8.901
50 F7 170 7.436
50 F7 171 5.483
50 F7 172 3.530
50 F7 173 2.553
50 F7 174 2.553
50 F7 175 2.065
50 F7 176 1.577
50 F7 177 -0.376
50 F7 178 -2.818
50 F7 179 -5.747
50 F7 180 -8.677
50 F7 181 -10.630
50 F7 182 -12.583
50 F7 183 -12.583
50 F7 184 -12.095
50 F7 185 -10.630
50 F7 186 -8.677
50 F7 187 -6.236
50 F7 188 -4.283
50 F7 189 -2.818
50 F7 190 -1.841
50 F7 191 -2.330
50 F7 192 -2.818
50 F7 193 -2.818
50 F7 194 -1.353
50 F7 195 1.088
50 F7 196 3.530
50 F7 197 4.995
50 F7 198 4.018
50 F7 199 1.577
50 F7 200 -1.841
50 F7 201 -4.771
50 F7 202 -6.236
50 F7 203 -7.212
50 F7 204 -7.701
50 F7 205 -8.677
50 F7 206 -9.654
50 F7 207 -10.142
50 F7 208 -10.142
50 F7 209 -9.654
50 F7 210 -8.677
50 F7 211 -8.677
50 F7 212 -8.189
50 F7 213 -7.701
50 F7 214 -5.747
50 F7 215 -2.330
50 F7 216 1.577
50 F7 217 5.483
50 F7 218 7.436
50 F7 219 6.948
50 F7 220 4.506
50 F7 221 0.600
50 F7 222 -3.794
50 F7 223 -7.212
50 F7 224 -9.165
50 F7 225 -9.165
50 F7 226 -6.724
50 F7 227 -4.283
50 F7 228 -2.330
50 F7 229 -0.865
50 F7 230 -0.376
50 F7 231 -1.353
50 F7 232 -3.306
50 F7 233 -6.236
50 F7 234 -9.654
50 F7 235 -13.560
50 F7 236 -16.490
50 F7 237 -17.466
50 F7 238 -15.025
50 F7 239 -8.677
50 F7 240 1.088
50 F7 241 11.342
50 F7 242 19.155
50 F7 243 21.596
50 F7 244 20.620
50 F7 245 17.690
50 F7 246 17.202
50 F7 247 19.643
50 F7 248 23.061
50 F7 249 24.526
50 F7 250 20.131
50 F7 251 11.831
50 F7 252 3.530
50 F7 253 -1.841
50 F7 254 -2.818
50 F7 255 -0.865
# F8 chan 3
50 F8 0 2.594
50 F8 1 3.571
50 F8 2 3.571
50 F8 3 2.106
50 F8 4 1.617
50 F8 5 1.617
50 F8 6 3.082
50 F8 7 4.547
50 F8 8 5.035
50 F8 9 3.571
50 F8 10 0.641
50 F8 11 -2.777
50 F8 12 -4.730
50 F8 13 -5.219
50 F8 14 -4.730
50 F8 15 -3.754
50 F8 16 -3.754
50 F8 17 -4.242
50 F8 18 -5.219
50 F8 19 -5.707
50 F8 20 -6.195
50 F8 21 -5.707
50 F8 22 -4.730
50 F8 23 -3.265
50 F8 24 -1.312
50 F8 25 0.641
50 F8 26 3.571
50 F8 27 5.524
50 F8 28 7.965
50 F8 29 9.430
50 F8 30 10.406
50 F8 31 10.895
50 F8 32 11.383
50 F8 33 11.871
50 F8 34 12.848
50 F8 35 12.848
50 F8 36 12.848
50 F8 37 12.360
50 F8 38 11.871
50 F8 39 10.406
50 F8 40 8.942
50 F8 41 6.989
50 F8 42 3.571
50 F8 43 0.641
50 F8 44 -2.289
50 F8 45 -3.754
50 F8 46 -3.754
50 F8 47 -2.289
50 F8 48 -0.824
50 F8 49 -0.824
50 F8 50 -1.801
50 F8 51 -3.265
50 F8 52 -4.242
50 F8 53 -2.777
50 F8 54 -0.336
50 F8 55 2.594
50 F8 56 4.059
50 F8 57 3.571
50 F8 58 2.594
50 F8 59 1.129
50 F8 60 1.129
50 F8 61 0.641
50 F8 62 0.153
50 F8 63 -2.289
50 F8 64 -4.730
50 F8 65 -6.195
50 F8 66 -6.195
50 F8 67 -4.242
50 F8 68 -1.801
50 F8 69 -1.801
50 F8 70 -4.730
50 F8 71 -8.636
50 F8 72 -12.054
50 F8 73 -11.566
50 F8 74 -6.683
50 F8 75 0.641
50 F8 76 6.989
50 F8 77 8.453
50 F8 78 5.524
50 F8 79 1.129
50 F8 80 -1.312
50 F8 81 0.641
50 F8 82 5.524
50 F8 83 11.383
50 F8 84 14.801
50 F8 85 15.289
50 F8 86 13.336
50 F8 87 12.360
50 F8 88 12.360
50 F8 89 12.848
50 F8 90 12.360
50 F8 91 9.918
50 F8 92 6.989
50 F8 93 4.547
50 F8 94 3.571
50 F8 95 3.082
50 F8 96 1.617
50 F8 97 -0.336
50 F8 98 -2.289
50 F8 99 -2.777
50 F8 100 -0.824
50 F8 101 2.594
50 F8 102 6.500
50 F8 103 9.430
50 F8 104 10.406
50 F8 105 10.406
50 F8 106 10.895
50 F8 107 11.383
50 F8 108 11.871
50 F8 109 11.871
50 F8 110 11.871
50 F8 111 11.871
50 F8 112 12.360
50 F8 113 12.848
50 F8 114 12.360
50 F8 115 8.942
50 F8 116 3.571
50 F8 117 -1.801
50 F8 118 -4.730
50 F8 119 -5.219
50 F8 120 -4.242
50 F8 121 -3.265
50 F8 122 -4.242
50 F8 123 -5.707
50 F8 124 -7.172
50 F8 125 -7.172
50 F8 126 -6.683
50 F8 127 -7.172
50 F8 128 -8.636
50 F8 129 -10.590
50 F8 130 -11.566
50 F8 131 -10.101
50 F8 132 -7.660
50 F8 133 -5.219
50 F8 134 -4.242
50 F8 135 -3.754
50 F8 136 -2.289
50 F8 137 0.641
50 F8 138 4.059
50 F8 139 6.500
50 F8 140 6.989
50 F8 141 5.524
50 F8 142 3.571
50 F8 143 1.617
50 F8 144 -0.824
50 F8 145 -4.242
50 F8 146 -9.613
50 F8 147 -16.937
50 F8 148 -24.261
50 F8 149 -30.609
50 F8 150 -33.539
50 F8 151 -33.539
50 F8 152 -31.097
50 F8 153 -27.679
50 F8 154 -23.773
50 F8 155 -18.890
50 F8 156 -13.031
50 F8 157 -6.683
50 F8 158 -0.824
50 F8 159 2.594
50 F8 160 3.571
50 F8 161 2.594
50 F8 162 1.617
50 F8 163 0.641
50 F8 164 -0.336
50 F8 165 -1.801
50 F8 166 -3.754
50 F8 167 -5.707
50 F8 168 -6.683
50 F8 169 -5.707
50 F8 170 -3.754
50 F8 171 -2.289
50 F8 172 -2.289
50 F8 173 -4.242
50 F8 174 -6.683
50 F8 175 -8.148
50 F8 176 -8.636
50 F8 177 -7.660
50 F8 178 -6.683
50 F8 179 -6.195
50 F8 180 -6.195
50 F8 181 -6.683
50 F8 182 -7.660
50 F8 183 -8.636
50 F8 184 -10.590
50 F8 185 -11.566
50 F8 186 -12.054
50 F8 187 -11.078
50 F8 188 -9.613
50 F8 189 -8.148
50 F8 190 -7.660
50 F8 191 -8.148
50 F8 192 -8.148
50 F8 193 -7.660
50 F8 194 -6.683
50 F8 195 -5.707
50 F8 196 -5.707
50 F8 197 -6.683
50 F8 198 -7.660
50 F8 199 -8.636
50 F8 200 -8.148
50 F8 201 -7.172
50 F8 202 -6.195
50 F8 203 -6.683
50 F8 204 -7.660
50 F8 205 -8.636
50 F8 206 -9.125
50 F8 207 -8.636
50 F8 208 -8.636
50 F8 209 -8.636
50 F8 210 -8.636
50 F8 211 -9.125
50 F8 212 -8.148
50 F8 213 -6.683
50 F8 214 -3.754
50 F8 215 -0.824
50 F8 216 2.594
50 F8 217 4.059
50 F8 218 4.547
50 F8 219 3.571
50 F8 220 2.106
50 F8 221 0.153
50 F8 222 0.153
50 F8 223 0.641
50 F8 224 1.617
50 F8 225 2.594
50 F8 226 2.106
50 F8 227 1.129
50 F8 228 -0.824
50 F8 229 -1.312
50 F8 230 -1.312
50 F8 231 -2.289
50 F8 232 -3.754
50 F8 233 -6.195
50 F8 234 -7.660
50 F8 235 -7.660
50 F8 236 -6.683
50 F8 237 -5.707
50 F8 238 -6.683
50 F8 239 -9.125
50 F8 240 -11.078
50 F8 241 -11.078
50 F8 242 -7.172
50 F8 243 -0.824
50 F8 244 6.012
50 F8 245 12.360
50 F8 246 15.289
50 F8 247 14.801
50 F8 248 11.383
50 F8 249 6.989
50 F8 250 3.082
50 F8 251 0.153
50 F8 252 -0.336
50 F8 253 0.153
50 F8 254 1.129
50 F8 255 1.129
# AF1 chan 4
50 AF1 0 10.712
50 AF1 1 7.782
50 AF1 2 4.852
50 AF1 3 2.899
50 AF1 4 3.387
50 AF1 5 5.341
50 AF1 6 6.805
50 AF1 7 6.317
50 AF1 8 3.876
50 AF1 9 -0.519
50 AF1 10 -4.425
50 AF1 11 -5.890
50 AF1 12 -5.890
50 AF1 13 -4.913
50 AF1 14 -4.425
50 AF1 15 -5.402
50 AF1 16 -6.378
50 AF1 17 -6.866
50 AF1 18 -6.866
50 AF1 19 -6.378
50 AF1 20 -5.890
50 AF1 21 -4.913
50 AF1 22 -3.448
50 AF1 23 -1.007
50 AF1 24 2.411
50 AF1 25 5.829
50 AF1 26 8.759
50 AF1 27 9.735
50 AF1 28 9.735
50 AF1 29 9.247
50 AF1 30 8.270
50 AF1 31 7.782
50 AF1 32 8.270
50 AF1 33 9.735
50 AF1 34 11.688
50 AF1 35 13.153
50 AF1 36 13.641
50 AF1 37 13.641
50 AF1 38 12.177
50 AF1 39 11.200
50 AF1 40 10.223
50 AF1 41 10.712
50 AF1 42 11.200
50 AF1 43 11.200
50 AF1 44 10.223
50 AF1 45 8.759
50 AF1 46 6.317
50 AF1 47 4.852
50 AF1 48 3.876
50 AF1 49 4.364
50 AF1 50 5.341
50 AF1 51 6.317
50 AF1 52 6.805
50 AF1 53 6.805
50 AF1 54 6.805
50 AF1 55 6.805
50 AF1 56 5.829
50 AF1 57 4.852
50 AF1 58 2.411
50 AF1 59 -0.519
50 AF1 60 -2.472
50 AF1 61 -2.960
50 AF1 62 -1.495
50 AF1 63 0.458
50 AF1 64 1.923
50 AF1 65 2.411
50 AF1 66 1.923
50 AF1 67 1.923
50 AF1 68 2.411
50 AF1 69 2.411
50 AF1 70 1.434
50 AF1 71 -1.984
50 AF1 72 -5.402
50 AF1 73 -6.866
50 AF1 74 -5.890
50 AF1 75 -1.984
50 AF1 76 2.411
50 AF1 77 5.341
50 AF1 78 5.829
50 AF1 79 6.317
50 AF1 80 7.294
50 AF1 81 9.735
50 AF1 82 14.130
50 AF1 83 17.059
50 AF1 84 17.548
50 AF1 85 16.083
50 AF1 86 14.618
50 AF1 87 14.618
50 AF1 88 16.083
50 AF1 89 17.548
50 AF1 90 18.036
50 AF1 91 17.059
50 AF1 92 15.106
50 AF1 93 12.665
50 AF1 94 11.200
50 AF1 95 9.735
50 AF1 96 7.294
50 AF1 97 4.852
50 AF1 98 1.923
50 AF1 99 -0.031
50 AF1 100 -0.519
50 AF1 101 -0.519
50 AF1 102 0.946
50 AF1 103 2.411
50 AF1 104 3.876
50 AF1 105 6.317
50 AF1 106 8.759
50 AF1 107 11.688
50 AF1 108 13.641
50 AF1 109 15.594
50 AF1 110 15.594
50 AF1 111 14.130
50 AF1 112 12.177
50 AF1 113 9.735
50 AF1 114 7.294
50 AF1 115 5.829
50 AF1 116 4.364
50 AF1 117 3.387
50 AF1 118 2.411
50 AF1 119 1.923
50 AF1 120 0.946
50 AF1 121 -0.031
50 AF1 122 -1.495
50 AF1 123 -2.960
50 AF1 124 -4.425
50 AF1 125 -5.890
50 AF1 126 -7.843
50 AF1 127 -10.284
50 AF1 128 -11.749
50 AF1 129 -11.261
50 AF1 130 -9.308
50 AF1 131 -5.402
50 AF1 132 -1.984
50 AF1 133 0.458
50 AF1 134 1.923
50 AF1 135 2.899
50 AF1 136 3.876
50 AF1 137 5.829
50 AF1 138 7.782
50 AF1 139 8.759
50 AF1 140 9.735
50 AF1 141 10.223
50 AF1 142 10.712
50 AF1 143 10.712
50 AF1 144 9.735
50 AF1 145 7.294
50 AF1 146 3.387
50 AF1 147 -0.519
50 AF1 148 -3.937
50 AF1 149 -6.378
50 AF1 150 -7.843
50 AF1 151 -8.820
50 AF1 152 -10.284
50 AF1 153 -10.773
50 AF1 154 -10.773
50 AF1 155 -8.820
50 AF1 156 -6.378
50 AF1 157 -4.425
50 AF1 158 -3.937
50 AF1 159 -3.937
50 AF1 160 -3.937
50 AF1 161 -2.960
50 AF1 162 -0.519
50 AF1 163 1.434
50 AF1 164 2.899
50 AF1 165 3.876
50 AF1 166 4.364
50 AF1 167 5.341
50 AF1 168 6.317
50 AF1 169 6.805
50 AF1 170 5.829
50 AF1 171 4.364
50 AF1 172 2.411
50 AF1 173 0.946
50 AF1 174 0.458
50 AF1 175 0.458
50 AF1 176 -0.519
50 AF1 177 -1.984
50 AF1 178 -2.960
50 AF1 179 -3.937
50 AF1 180 -4.425
50 AF1 181 -4.425
50 AF1 182 -5.402
50 AF1 183 -5.890
50 AF1 184 -6.378
50 AF1 185 -5.402
50 AF1 186 -3.448
50 AF1 187 -1.984
50 AF1 188 -1.007
50 AF1 189 -1.495
50 AF1 190 -1.984
50 AF1 191 -2.960
50 AF1 192 -3.448
50 AF1 193 -3.448
50 AF1 194 -2.960
50 AF1 195 -2.960
50 AF1 196 -3.937
50 AF1 197 -5.402
50 AF1 198 -7.355
50 AF1 199 -8.820
50 AF1 200 -9.308
50 AF1 201 -9.796
50 AF1 202 -9.796
50 AF1 203 -9.796
50 AF1 204 -9.796
50 AF1 205 -10.284
50 AF1 206 -10.773
50 AF1 207 -10.773
50 AF1 208 -10.773
50 AF1 209 -10.773
50 AF1 210 -9.796
50 AF1 211 -8.820
50 AF1 212 -7.843
50 AF1 213 -6.378
50 AF1 214 -4.913
50 AF1 215 -1.984
50 AF1 216 1.434
50 AF1 217 4.852
50 AF1 218 6.805
50 AF1 219 7.782
50 AF1 220 6.805
50 AF1 221 4.364
50 AF1 222 1.434
50 AF1 223 -1.495
50 AF1 224 -3.448
50 AF1 225 -4.425
50 AF1 226 -3.937
50 AF1 227 -3.448
50 AF1 228 -2.472
50 AF1 229 -1.007
50 AF1 230 -0.031
50 AF1 231 0.946
50 AF1 232 0.458
50 AF1 233 -1.007
50 AF1 234 -3.448
50 AF1 235 -6.866
50 AF1 236 -9.308
50 AF1 237 -10.773
50 AF1 238 -10.773
50 AF1 239 -7.843
50 AF1 240 -2.960
50 AF1 241 2.411
50 AF1 242 6.317
50 AF1 243 8.759
50 AF1 244 9.735
50 AF1 245 10.712
50 AF1 246 12.665
50 AF1 247 15.594
50 AF1 248 17.548
50 AF1 249 18.036
50 AF1 250 15.106
50 AF1 251 10.712
50 AF1 252 5.341
50 AF1 253 0.946
50 AF1 254 -1.007
50 AF1 255 -1.984
# AF2 chan 5
50 AF2 0 8.525
50 AF2 1 6.083
50 AF2 2 3.153
50 AF2 3 1.200
50 AF2 4 1.689
50 AF2 5 3.642
50 AF2 6 5.107
50 AF2 7 5.107
50 AF2 8 3.642
50 AF2 9 0.712
50 AF2 10 -2.218
50 AF2 11 -4.171
50 AF2 12 -4.171
50 AF2 13 -4.171
50 AF2 14 -3.682
50 AF2 15 -3.682
50 AF2 16 -3.682
50 AF2 17 -4.171
50 AF2 18 -4.171
50 AF2 19 -4.171
50 AF2 20 -3.682
50 AF2 21 -3.194
50 AF2 22 -1.729
50 AF2 23 0.712
50 AF2 24 3.642
50 AF2 25 6.571
50 AF2 26 9.013
50 AF2 27 9.989
50 AF2 28 9.989
50 AF2 29 9.013
50 AF2 30 8.036
50 AF2 31 8.036
50 AF2 32 9.013
50 AF2 33 10.966
50 AF2 34 12.919
50 AF2 35 13.896
50 AF2 36 14.384
50 AF2 37 13.407
50 AF2 38 12.431
50 AF2 39 11.454
50 AF2 40 10.966
50 AF2 41 10.966
50 AF2 42 10.966
50 AF2 43 10.966
50 AF2 44 9.501
50 AF2 45 8.036
50 AF2 46 6.083
50 AF2 47 5.107
50 AF2 48 4.618
50 AF2 49 4.618
50 AF2 50 4.618
50 AF2 51 5.107
50 AF2 52 5.595
50 AF2 53 5.595
50 AF2 54 5.595
50 AF2 55 5.595
50 AF2 56 5.595
50 AF2 57 4.618
50 AF2 58 3.153
50 AF2 59 1.200
50 AF2 60 -0.264
50 AF2 61 -1.241
50 AF2 62 -0.753
50 AF2 63 0.224
50 AF2 64 0.224
50 AF2 65 0.224
50 AF2 66 0.224
50 AF2 67 0.712
50 AF2 68 1.200
50 AF2 69 1.200
50 AF2 70 0.224
50 AF2 71 -2.218
50 AF2 72 -5.147
50 AF2 73 -6.124
50 AF2 74 -4.171
50 AF2 75 0.224
50 AF2 76 5.107
50 AF2 77 8.036
50 AF2 78 8.525
50 AF2 79 8.036
50 AF2 80 7.548
50 AF2 81 9.501
50 AF2 82 13.407
50 AF2 83 16.825
50 AF2 84 18.778
50 AF2 85 18.290
50 AF2 86 16.825
50 AF2 87 14.872
50 AF2 88 14.872
50 AF2 89 15.849
50 AF2 90 16.337
50 AF2 91 15.849
50 AF2 92 14.384
50 AF2 93 11.943
50 AF2 94 9.501
50 AF2 95 8.036
50 AF2 96 6.083
50 AF2 97 4.130
50 AF2 98 1.689
50 AF2 99 -0.264
50 AF2 100 -0.753
50 AF2 101 0.712
50 AF2 102 3.153
50 AF2 103 5.107
50 AF2 104 7.060
50 AF2 105 8.036
50 AF2 106 9.013
50 AF2 107 10.478
50 AF2 108 12.431
50 AF2 109 13.896
50 AF2 110 14.872
50 AF2 111 13.896
50 AF2 112 11.943
50 AF2 113 9.989
50 AF2 114 7.548
50 AF2 115 5.595
50 AF2 116 3.642
50 AF2 117 2.177
50 AF2 118 1.200
50 AF2 119 1.200
50 AF2 120 0.712
50 AF2 121 0.224
50 AF2 122 -0.753
50 AF2 123 -1.729
50 AF2 124 -2.706
50 AF2 125 -3.682
50 AF2 126 -4.659
50 AF2 127 -6.124
50 AF2 128 -7.100
50 AF2 129 -7.589
50 AF2 130 -6.124
50 AF2 131 -3.682
50 AF2 132 -0.753
50 AF2 133 0.712
50 AF2 134 1.200
50 AF2 135 1.200
50 AF2 136 1.200
50 AF2 137 2.177
50 AF2 138 3.642
50 AF2 139 5.595
50 AF2 140 7.548
50 AF2 141 9.013
50 AF2 142 9.501
50 AF2 143 9.501
50 AF2 144 8.036
50 AF2 145 4.618
50 AF2 146 -0.264
50 AF2 147 -5.636
50 AF2 148 -10.030
50 AF2 149 -12.960
50 AF2 150 -13.936
50 AF2 151 -14.425
50 AF2 152 -14.425
50 AF2 153 -13.936
50 AF2 154 -12.960
50 AF2 155 -11.007
50 AF2 156 -8.077
50 AF2 157 -5.636
50 AF2 158 -4.171
50 AF2 159 -3.682
50 AF2 160 -2.706
50 AF2 161 -1.241
50 AF2 162 0.224
50 AF2 163 2.177
50 AF2 164 2.665
50 AF2 165 2.665
50 AF2 166 2.665
50 AF2 167 3.153
50 AF2 168 4.130
50 AF2 169 4.618
50 AF2 170 4.130
50 AF2 171 2.177
50 AF2 172 -0.264
50 AF2 173 -1.729
50 AF2 174 -1.729
50 AF2 175 -1.241
50 AF2 176 -1.729
50 AF2 177 -2.706
50 AF2 178 -4.659
50 AF2 179 -6.612
50 AF2 180 -8.077
50 AF2 181 -8.077
50 AF2 182 -7.589
50 AF2 183 -7.100
50 AF2 184 -6.612
50 AF2 185 -6.124
50 AF2 186 -5.147
50 AF2 187 -4.171
50 AF2 188 -3.194
50 AF2 189 -2.706
50 AF2 190 -3.194
50 AF2 191 -3.682
50 AF2 192 -5.147
50 AF2 193 -5.147
50 AF2 194 -6.124
50 AF2 195 -6.612
50 AF2 196 -7.100
50 AF2 197 -8.077
50 AF2 198 -9.054
50 AF2 199 -10.030
50 AF2 200 -10.030
50 AF2 201 -9.542
50 AF2 202 -8.565
50 AF2 203 -8.565
50 AF2 204 -8.565
50 AF2 205 -9.054
50 AF2 206 -10.030
50 AF2 207 -10.030
50 AF2 208 -9.542
50 AF2 209 -8.565
50 AF2 210 -8.077
50 AF2 211 -7.589
50 AF2 212 -7.589
50 AF2 213 -6.612
50 AF2 214 -4.171
50 AF2 215 -1.241
50 AF2 216 2.665
50 AF2 217 6.083
50 AF2 218 8.036
50 AF2 219 8.525
50 AF2 220 7.548
50 AF2 221 6.083
50 AF2 222 4.130
50 AF2 223 2.665
50 AF2 224 1.200
50 AF2 225 0.224
50 AF2 226 0.224
50 AF2 227 0.224
50 AF2 228 0.712
50 AF2 229 1.200
50 AF2 230 2.177
50 AF2 231 2.177
50 AF2 232 1.200
50 AF2 233 -0.264
50 AF2 234 -3.194
50 AF2 235 -6.124
50 AF2 236 -8.077
50 AF2 237 -8.565
50 AF2 238 -7.589
50 AF2 239 -5.147
50 AF2 240 -2.218
50 AF2 241 0.712
50 AF2 242 3.642
50 AF2 243 5.595
50 AF2 244 8.036
50 AF2 245 10.478
50 AF2 246 13.407
50 AF2 247 16.337
50 AF2 248 17.314
50 AF2 249 16.337
50 AF2 250 12.919
50 AF2 251 8.525
50 AF2 252 4.618
50 AF2 253 1.200
50 AF2 254 -0.264
50 AF2 255 -0.753
# FZ chan 6
50 FZ 0 8.413
50 FZ 1 5.971
50 FZ 2 3.530
50 FZ 3 1.577
50 FZ 4 2.065
50 FZ 5 4.506
50 FZ 6 6.460
50 FZ 7 7.436
50 FZ 8 5.483
50 FZ 9 2.553
50 FZ 10 0.112
50 FZ 11 -1.841
50 FZ 12 -2.330
50 FZ 13 -1.841
50 FZ 14 -1.841
50 FZ 15 -1.841
50 FZ 16 -2.330
50 FZ 17 -2.818
50 FZ 18 -2.818
50 FZ 19 -2.330
50 FZ 20 -1.841
50 FZ 21 -0.865
50 FZ 22 1.088
50 FZ 23 4.506
50 FZ 24 7.924
50 FZ 25 10.854
50 FZ 26 12.807
50 FZ 27 13.295
50 FZ 28 12.319
50 FZ 29 11.342
50 FZ 30 10.366
50 FZ 31 10.854
50 FZ 32 11.831
50 FZ 33 13.784
50 FZ 34 15.249
50 FZ 35 15.737
50 FZ 36 15.737
50 FZ 37 15.249
50 FZ 38 14.272
50 FZ 39 13.295
50 FZ 40 13.295
50 FZ 41 13.295
50 FZ 42 13.784
50 FZ 43 13.295
50 FZ 44 12.807
50 FZ 45 11.831
50 FZ 46 10.366
50 FZ 47 8.901
50 FZ 48 8.413
50 FZ 49 7.924
50 FZ 50 8.413
50 FZ 51 8.413
50 FZ 52 7.436
50 FZ 53 6.948
50 FZ 54 6.460
50 FZ 55 5.971
50 FZ 56 5.483
50 FZ 57 4.995
50 FZ 58 3.530
50 FZ 59 2.065
50 FZ 60 0.600
50 FZ 61 0.112
50 FZ 62 1.088
50 FZ 63 2.553
50 FZ 64 4.018
50 FZ 65 4.018
50 FZ 66 4.018
50 FZ 67 4.018
50 FZ 68 4.995
50 FZ 69 5.483
50 FZ 70 4.995
50 FZ 71 3.042
50 FZ 72 1.088
50 FZ 73 0.112
50 FZ 74 1.088
50 FZ 75 4.506
50 FZ 76 7.436
50 FZ 77 9.878
50 FZ 78 10.366
50 FZ 79 9.878
50 FZ 80 10.366
50 FZ 81 11.831
50 FZ 82 14.760
50 FZ 83 17.690
50 FZ 84 18.667
50 FZ 85 18.178
50 FZ 86 17.202
50 FZ 87 16.713
50 FZ 88 16.713
50 FZ 89 17.202
50 FZ 90 17.690
50 FZ 91 17.202
50 FZ 92 16.225
50 FZ 93 14.760
50 FZ 94 13.295
50 FZ 95 12.319
50 FZ 96 10.854
50 FZ 97 8.413
50 FZ 98 5.483
50 FZ 99 3.042
50 FZ 100 2.065
50 FZ 101 2.065
50 FZ 102 4.018
50 FZ 103 5.483
50 FZ 104 7.436
50 FZ 105 8.901
50 FZ 106 9.878
50 FZ 107 11.831
50 FZ 108 13.295
50 FZ 109 15.249
50 FZ 110 16.225
50 FZ 111 15.737
50 FZ 112 13.784
50 FZ 113 11.342
50 FZ 114 9.389
50 FZ 115 7.436
50 FZ 116 6.948
50 FZ 117 6.460
50 FZ 118 5.971
50 FZ 119 5.971
50 FZ 120 4.995
50 FZ 121 4.018
50 FZ 122 3.530
50 FZ 123 3.042
50 FZ 124 2.553
50 FZ 125 1.088
50 FZ 126 0.112
50 FZ 127 -1.353
50 FZ 128 -1.841
50 FZ 129 -0.865
50 FZ 130 1.088
50 FZ 131 3.530
50 FZ 132 5.483
50 FZ 133 6.460
50 FZ 134 7.436
50 FZ 135 7.436
50 FZ 136 7.924
50 FZ 137 8.901
50 FZ 138 9.389
50 FZ 139 9.878
50 FZ 140 9.878
50 FZ 141 10.366
50 FZ 142 10.854
50 FZ 143 11.342
50 FZ 144 10.366
50 FZ 145 8.413
50 FZ 146 4.995
50 FZ 147 1.577
50 FZ 148 -1.353
50 FZ 149 -2.330
50 FZ 150 -2.818
50 FZ 151 -3.794
50 FZ 152 -4.283
50 FZ 153 -4.771
50 FZ 154 -4.283
50 FZ 155 -2.818
50 FZ 156 -1.353
50 FZ 157 -1.353
50 FZ 158 -1.353
50 FZ 159 -1.353
50 FZ 160 -0.376
50 FZ 161 1.577
50 FZ 162 4.018
50 FZ 163 5.483
50 FZ 164 5.971
50 FZ 165 5.971
50 FZ 166 5.483
50 FZ 167 5.971
50 FZ 168 6.460
50 FZ 169 6.948
50 FZ 170 5.971
50 FZ 171 4.506
50 FZ 172 2.553
50 FZ 173 1.577
50 FZ 174 1.577
50 FZ 175 1.577
50 FZ 176 1.577
50 FZ 177 0.600
50 FZ 178 -0.376
50 FZ 179 -0.865
50 FZ 180 -1.353
50 FZ 181 -1.353
50 FZ 182 -0.865
50 FZ 183 -0.376
50 FZ 184 0.112
50 FZ 185 0.600
50 FZ 186 1.577
50 FZ 187 2.553
50 FZ 188 3.042
50 FZ 189 4.018
50 FZ 190 4.018
50 FZ 191 4.018
50 FZ 192 3.530
50 FZ 193 2.553
50 FZ 194 1.088
50 FZ 195 0.112
50 FZ 196 -1.353
50 FZ 197 -2.330
50 FZ 198 -2.818
50 FZ 199 -3.306
50 FZ 200 -2.818
50 FZ 201 -2.330
50 FZ 202 -1.841
50 FZ 203 -1.353
50 FZ 204 -1.841
50 FZ 205 -2.818
50 FZ 206 -4.283
50 FZ 207 -4.771
50 FZ 208 -4.771
50 FZ 209 -3.794
50 FZ 210 -2.330
50 FZ 211 -1.841
50 FZ 212 -1.353
50 FZ 213 -0.376
50 FZ 214 1.088
50 FZ 215 3.042
50 FZ 216 5.971
50 FZ 217 8.413
50 FZ 218 10.366
50 FZ 219 11.342
50 FZ 220 11.342
50 FZ 221 10.854
50 FZ 222 9.389
50 FZ 223 7.436
50 FZ 224 5.483
50 FZ 225 3.530
50 FZ 226 3.042
50 FZ 227 3.042
50 FZ 228 4.018
50 FZ 229 5.483
50 FZ 230 6.948
50 FZ 231 7.436
50 FZ 232 6.460
50 FZ 233 5.483
50 FZ 234 3.530
50 FZ 235 1.088
50 FZ 236 -0.376
50 FZ 237 -1.353
50 FZ 238 -0.865
50 FZ 239 0.600
50 FZ 240 3.042
50 FZ 241 5.483
50 FZ 242 7.436
50 FZ 243 9.389
50 FZ 244 11.342
50 FZ 245 13.784
50 FZ 246 16.713
50 FZ 247 19.643
50 FZ 248 21.108
50 FZ 249 20.620
50 FZ 250 17.690
50 FZ 251 12.807
50 FZ 252 8.413
50 FZ 253 4.995
50 FZ 254 3.530
50 FZ 255 3.530
# F4 chan 7
50 F4 0 7.334
50 F4 1 6.358
50 F4 2 3.916
50 F4 3 1.475
50 F4 4 0.987
50 F4 5 1.963
50 F4 6 3.428
50 F4 7 3.916
50 F4 8 3.428
50 F4 9 0.987
50 F4 10 -0.966
50 F4 11 -2.920
50 F4 12 -3.408
50 F4 13 -3.408
50 F4 14 -3.408
50 F4 15 -3.408
50 F4 16 -3.408
50 F4 17 -3.896
50 F4 18 -4.384
50 F4 19 -4.384
50 F4 20 -4.384
50 F4 21 -4.384
50 F4 22 -2.920
50 F4 23 -0.478
50 F4 24 2.452
50 F4 25 4.893
50 F4 26 6.358
50 F4 27 6.846
50 F4 28 6.358
50 F4 29 5.870
50 F4 30 5.870
50 F4 31 7.334
50 F4 32 9.288
50 F4 33 11.241
50 F4 34 12.705
50 F4 35 13.194
50 F4 36 13.194
50 F4 37 12.217
50 F4 38 10.752
50 F4 39 8.799
50 F4 40 7.823
50 F4 41 6.358
50 F4 42 5.381
50 F4 43 4.405
50 F4 44 2.940
50 F4 45 0.987
50 F4 46 0.010
50 F4 47 -0.478
50 F4 48 -0.478
50 F4 49 0.010
50 F4 50 0.010
50 F4 51 -0.478
50 F4 52 -0.966
50 F4 53 -0.966
50 F4 54 -0.478
50 F4 55 0.010
50 F4 56 0.498
50 F4 57 0.498
50 F4 58 -0.478
50 F4 59 -1.943
50 F4 60 -2.920
50 F4 61 -2.920
50 F4 62 -2.431
50 F4 63 -2.431
50 F4 64 -2.431
50 F4 65 -2.920
50 F4 66 -3.408
50 F4 67 -3.408
50 F4 68 -2.431
50 F4 69 -1.455
50 F4 70 -1.943
50 F4 71 -3.408
50 F4 72 -5.849
50 F4 73 -6.337
50 F4 74 -3.896
50 F4 75 0.498
50 F4 76 5.381
50 F4 77 7.334
50 F4 78 7.334
50 F4 79 5.381
50 F4 80 4.405
50 F4 81 5.870
50 F4 82 9.288
50 F4 83 13.682
50 F4 84 15.635
50 F4 85 16.123
50 F4 86 14.170
50 F4 87 12.217
50 F4 88 11.241
50 F4 89 11.241
50 F4 90 11.241
50 F4 91 10.264
50 F4 92 8.311
50 F4 93 6.358
50 F4 94 3.916
50 F4 95 2.452
50 F4 96 1.475
50 F4 97 0.010
50 F4 98 -1.455
50 F4 99 -2.431
50 F4 100 -2.431
50 F4 101 -0.966
50 F4 102 1.963
50 F4 103 4.405
50 F4 104 5.870
50 F4 105 6.358
50 F4 106 6.358
50 F4 107 6.846
50 F4 108 7.823
50 F4 109 8.799
50 F4 110 8.799
50 F4 111 8.311
50 F4 112 7.334
50 F4 113 6.358
50 F4 114 5.381
50 F4 115 3.428
50 F4 116 1.475
50 F4 117 -0.478
50 F4 118 -1.455
50 F4 119 -1.943
50 F4 120 -2.431
50 F4 121 -2.431
50 F4 122 -2.920
50 F4 123 -3.896
50 F4 124 -4.384
50 F4 125 -4.873
50 F4 126 -4.873
50 F4 127 -4.873
50 F4 128 -4.873
50 F4 129 -4.384
50 F4 130 -3.408
50 F4 131 -1.943
50 F4 132 -1.455
50 F4 133 -1.455
50 F4 134 -2.431
50 F4 135 -2.920
50 F4 136 -2.431
50 F4 137 -0.966
50 F4 138 0.987
50 F4 139 2.940
50 F4 140 3.916
50 F4 141 4.405
50 F4 142 4.893
50 F4 143 4.405
50 F4 144 2.940
50 F4 145 0.010
50 F4 146 -4.384
50 F4 147 -9.267
50 F4 148 -13.173
50 F4 149 -16.103
50 F4 150 -18.056
50 F4 151 -18.056
50 F4 152 -17.568
50 F4 153 -16.103
50 F4 154 -13.662
50 F4 155 -10.244
50 F4 156 -6.826
50 F4 157 -4.384
50 F4 158 -2.920
50 F4 159 -1.455
50 F4 160 -0.478
50 F4 161 0.987
50 F4 162 1.963
50 F4 163 1.963
50 F4 164 1.475
50 F4 165 0.010
50 F4 166 -0.478
50 F4 167 0.010
50 F4 168 0.498
50 F4 169 1.475
50 F4 170 0.498
50 F4 171 -0.478
50 F4 172 -1.943
50 F4 173 -2.431
50 F4 174 -2.920
50 F4 175 -3.408
50 F4 176 -3.896
50 F4 177 -4.873
50 F4 178 -5.361
50 F4 179 -5.361
50 F4 180 -5.361
50 F4 181 -4.873
50 F4 182 -4.873
50 F4 183 -4.873
50 F4 184 -5.361
50 F4 185 -4.873
50 F4 186 -4.384
50 F4 187 -3.408
50 F4 188 -1.943
50 F4 189 -0.966
50 F4 190 -0.966
50 F4 191 -1.943
50 F4 192 -3.408
50 F4 193 -4.873
50 F4 194 -6.337
50 F4 195 -7.314
50 F4 196 -7.802
50 F4 197 -7.802
50 F4 198 -7.802
50 F4 199 -7.314
50 F4 200 -6.826
50 F4 201 -5.849
50 F4 202 -5.361
50 F4 203 -4.873
50 F4 204 -5.849
50 F4 205 -7.802
50 F4 206 -9.267
50 F4 207 -9.755
50 F4 208 -9.267
50 F4 209 -7.314
50 F4 210 -4.873
50 F4 211 -4.384
50 F4 212 -4.384
50 F4 213 -4.384
50 F4 214 -3.408
50 F4 215 -1.455
50 F4 216 0.987
50 F4 217 2.940
50 F4 218 4.405
50 F4 219 4.405
50 F4 220 4.893
50 F4 221 5.381
50 F4 222 5.870
50 F4 223 5.381
50 F4 224 4.405
50 F4 225 2.452
50 F4 226 1.475
50 F4 227 0.010
50 F4 228 -0.478
50 F4 229 -0.478
50 F4 230 0.010
50 F4 231 -0.478
50 F4 232 -1.455
50 F4 233 -2.920
50 F4 234 -4.873
50 F4 235 -6.337
50 F4 236 -7.314
50 F4 237 -7.314
50 F4 238 -6.826
50 F4 239 -5.849
50 F4 240 -4.873
50 F4 241 -3.896
50 F4 242 -1.943
50 F4 243 0.498
50 F4 244 3.916
50 F4 245 8.311
50 F4 246 11.241
50 F4 247 13.682
50 F4 248 13.682
50 F4 249 10.752
50 F4 250 7.823
50 F4 251 3.916
50 F4 252 0.498
50 F4 253 -1.455
50 F4 254 -2.920
50 F4 255 -2.920
# F3 chan 8
50 F3 0 8.525
50 F3 1 5.595
50 F3 2 4.130
50 F3 3 4.130
50 F3 4 6.083
50 F3 5 9.013
50 F3 6 10.966
50 F3 7 9.989
50 F3 8 6.571
50 F3 9 1.689
50 F3 10 -2.218
50 F3 11 -5.147
50 F3 12 -6.124
50 F3 13 -6.124
50 F3 14 -6.612
50 F3 15 -7.100
50 F3 16 -8.077
50 F3 17 -8.077
50 F3 18 -8.077
50 F3 19 -8.077
50 F3 20 -8.077
50 F3 21 -7.100
50 F3 22 -4.659
50 F3 23 -0.753
50 F3 24 4.618
50 F3 25 9.501
50 F3 26 12.919
50 F3 27 13.896
50 F3 28 12.919
50 F3 29 10.966
50 F3 30 9.501
50 F3 31 9.013
50 F3 32 9.989
50 F3 33 12.431
50 F3 34 14.384
50 F3 35 15.849
50 F3 36 16.337
50 F3 37 16.337
50 F3 38 16.337
50 F3 39 16.337
50 F3 40 16.337
50 F3 41 16.337
50 F3 42 15.361
50 F3 43 13.896
50 F3 44 11.943
50 F3 45 9.013
50 F3 46 7.060
50 F3 47 6.571
50 F3 48 6.571
50 F3 49 8.036
50 F3 50 9.989
50 F3 51 10.478
50 F3 52 10.478
50 F3 53 9.013
50 F3 54 8.036
50 F3 55 7.060
50 F3 56 6.571
50 F3 57 5.595
50 F3 58 4.130
50 F3 59 2.177
50 F3 60 1.200
50 F3 61 0.712
50 F3 62 2.177
50 F3 63 3.642
50 F3 64 5.107
50 F3 65 6.083
50 F3 66 6.571
50 F3 67 6.571
50 F3 68 6.571
50 F3 69 5.595
50 F3 70 3.153
50 F3 71 -0.753
50 F3 72 -4.171
50 F3 73 -6.124
50 F3 74 -4.659
50 F3 75 -0.753
50 F3 76 3.153
50 F3 77 5.595
50 F3 78 6.571
50 F3 79 7.548
50 F3 80 9.501
50 F3 81 12.431
50 F3 82 15.849
50 F3 83 18.290
50 F3 84 17.314
50 F3 85 16.337
50 F3 86 15.361
50 F3 87 15.849
50 F3 88 17.802
50 F3 89 20.243
50 F3 90 20.732
50 F3 91 19.755
50 F3 92 17.802
50 F3 93 16.337
50 F3 94 15.361
50 F3 95 14.872
50 F3 96 13.896
50 F3 97 11.943
50 F3 98 8.525
50 F3 99 5.595
50 F3 100 3.153
50 F3 101 2.177
50 F3 102 2.665
50 F3 103 3.153
50 F3 104 4.618
50 F3 105 6.083
50 F3 106 8.525
50 F3 107 11.454
50 F3 108 15.361
50 F3 109 17.802
50 F3 110 19.267
50 F3 111 18.778
50 F3 112 16.337
50 F3 113 12.919
50 F3 114 9.501
50 F3 115 6.571
50 F3 116 5.107
50 F3 117 4.618
50 F3 118 4.618
50 F3 119 5.107
50 F3 120 5.107
50 F3 121 4.130
50 F3 122 2.665
50 F3 123 0.712
50 F3 124 -0.753
50 F3 125 -2.706
50 F3 126 -5.147
50 F3 127 -7.589
50 F3 128 -9.542
50 F3 129 -10.518
50 F3 130 -9.054
50 F3 131 -6.124
50 F3 132 -2.706
50 F3 133 -0.264
50 F3 134 2.665
50 F3 135 4.618
50 F3 136 7.548
50 F3 137 9.989
50 F3 138 11.943
50 F3 139 12.919
50 F3 140 13.407
50 F3 141 13.407
50 F3 142 14.384
50 F3 143 14.384
50 F3 144 13.896
50 F3 145 11.454
50 F3 146 8.036
50 F3 147 4.618
50 F3 148 2.177
50 F3 149 0.712
50 F3 150 -0.264
50 F3 151 -1.729
50 F3 152 -3.194
50 F3 153 -4.171
50 F3 154 -4.171
50 F3 155 -2.706
50 F3 156 -1.729
50 F3 157 -1.729
50 F3 158 -1.729
50 F3 159 -2.218
50 F3 160 -1.729
50 F3 161 -0.264
50 F3 162 1.689
50 F3 163 3.153
50 F3 164 3.642
50 F3 165 4.618
50 F3 166 6.083
50 F3 167 8.036
50 F3 168 9.501
50 F3 169 9.013
50 F3 170 6.571
50 F3 171 4.130
50 F3 172 1.689
50 F3 173 1.689
50 F3 174 2.177
50 F3 175 3.153
50 F3 176 3.153
50 F3 177 2.177
50 F3 178 0.712
50 F3 179 -0.753
50 F3 180 -2.218
50 F3 181 -3.194
50 F3 182 -3.682
50 F3 183 -4.171
50 F3 184 -4.171
50 F3 185 -3.682
50 F3 186 -2.218
50 F3 187 -0.753
50 F3 188 0.712
50 F3 189 1.689
50 F3 190 2.177
50 F3 191 2.665
50 F3 192 2.177
50 F3 193 2.177
50 F3 194 1.689
50 F3 195 1.200
50 F3 196 0.224
50 F3 197 -1.241
50 F3 198 -2.706
50 F3 199 -4.659
50 F3 200 -5.147
50 F3 201 -5.147
50 F3 202 -5.147
50 F3 203 -4.659
50 F3 204 -4.659
50 F3 205 -4.659
50 F3 206 -5.147
50 F3 207 -5.147
50 F3 208 -5.636
50 F3 209 -6.124
50 F3 210 -7.100
50 F3 211 -7.589
50 F3 212 -7.100
50 F3 213 -5.636
50 F3 214 -2.706
50 F3 215 0.224
50 F3 216 4.130
50 F3 217 7.060
50 F3 218 9.013
50 F3 219 9.989
50 F3 220 9.989
50 F3 221 8.525
50 F3 222 5.595
50 F3 223 1.689
50 F3 224 -1.729
50 F3 225 -4.171
50 F3 226 -4.171
50 F3 227 -2.706
50 F3 228 -0.753
50 F3 229 1.689
50 F3 230 3.153
50 F3 231 3.642
50 F3 232 3.642
50 F3 233 2.177
50 F3 234 0.224
50 F3 235 -2.218
50 F3 236 -5.147
50 F3 237 -6.612
50 F3 238 -5.636
50 F3 239 -2.218
50 F3 240 2.665
50 F3 241 7.548
50 F3 242 11.454
50 F3 243 12.919
50 F3 244 12.919
50 F3 245 13.407
50 F3 246 15.361
50 F3 247 18.778
50 F3 248 21.220
50 F3 249 21.708
50 F3 250 18.778
50 F3 251 13.896
50 F3 252 8.525
50 F3 253 4.618
50 F3 254 2.665
50 F3 255 2.177
# FC6 chan 9
50 FC6 0 4.435
50 FC6 1 4.435
50 FC6 2 2.970
50 FC6 3 1.506
50 FC6 4 1.017
50 FC6 5 1.506
50 FC6 6 2.970
50 FC6 7 3.947
50 FC6 8 4.924
50 FC6 9 3.947
50 FC6 10 1.506
50 FC6 11 -1.424
50 FC6 12 -4.842
50 FC6 13 -7.284
50 FC6 14 -8.260
50 FC6 15 -7.772
50 FC6 16 -6.795
50 FC6 17 -5.819
50 FC6 18 -5.819
50 FC6 19 -6.795
50 FC6 20 -8.260
50 FC6 21 -8.748
50 FC6 22 -7.772
50 FC6 23 -6.307
50 FC6 24 -3.866
50 FC6 25 -2.401
50 FC6 26 -1.424
50 FC6 27 -0.936
50 FC6 28 0.041
50 FC6 29 1.506
50 FC6 30 2.970
50 FC6 31 4.924
50 FC6 32 5.900
50 FC6 33 6.877
50 FC6 34 8.341
50 FC6 35 9.806
50 FC6 36 10.295
50 FC6 37 10.295
50 FC6 38 8.341
50 FC6 39 5.900
50 FC6 40 2.970
50 FC6 41 0.041
50 FC6 42 -3.377
50 FC6 43 -7.284
50 FC6 44 -10.701
50 FC6 45 -12.655
50 FC6 46 -12.166
50 FC6 47 -10.213
50 FC6 48 -7.284
50 FC6 49 -4.842
50 FC6 50 -4.842
50 FC6 51 -6.307
50 FC6 52 -7.284
50 FC6 53 -6.795
50 FC6 54 -4.842
50 FC6 55 -3.377
50 FC6 56 -1.912
50 FC6 57 -1.912
50 FC6 58 -2.889
50 FC6 59 -4.354
50 FC6 60 -5.330
50 FC6 61 -5.330
50 FC6 62 -5.330
50 FC6 63 -5.819
50 FC6 64 -6.795
50 FC6 65 -8.748
50 FC6 66 -9.725
50 FC6 67 -10.213
50 FC6 68 -9.725
50 FC6 69 -8.748
50 FC6 70 -9.237
50 FC6 71 -10.701
50 FC6 72 -11.190
50 FC6 73 -9.725
50 FC6 74 -6.307
50 FC6 75 -0.936
50 FC6 76 2.482
50 FC6 77 2.970
50 FC6 78 -0.448
50 FC6 79 -4.842
50 FC6 80 -6.795
50 FC6 81 -4.354
50 FC6 82 1.994
50 FC6 83 8.830
50 FC6 84 13.224
50 FC6 85 13.224
50 FC6 86 10.783
50 FC6 87 7.365
50 FC6 88 4.924
50 FC6 89 3.947
50 FC6 90 2.482
50 FC6 91 1.017
50 FC6 92 -1.424
50 FC6 93 -3.377
50 FC6 94 -4.842
50 FC6 95 -5.330
50 FC6 96 -4.842
50 FC6 97 -5.330
50 FC6 98 -5.330
50 FC6 99 -5.819
50 FC6 100 -5.819
50 FC6 101 -4.354
50 FC6 102 -1.912
50 FC6 103 1.017
50 FC6 104 3.947
50 FC6 105 5.900
50 FC6 106 6.388
50 FC6 107 5.900
50 FC6 108 4.435
50 FC6 109 3.459
50 FC6 110 3.459
50 FC6 111 3.947
50 FC6 112 4.435
50 FC6 113 3.947
50 FC6 114 1.994
50 FC6 115 -0.936
50 FC6 116 -3.866
50 FC6 117 -6.795
50 FC6 118 -8.748
50 FC6 119 -10.701
50 FC6 120 -12.166
50 FC6 121 -13.143
50 FC6 122 -13.631
50 FC6 123 -12.655
50 FC6 124 -11.190
50 FC6 125 -9.725
50 FC6 126 -8.748
50 FC6 127 -9.237
50 FC6 128 -10.213
50 FC6 129 -11.190
50 FC6 130 -11.190
50 FC6 131 -10.701
50 FC6 132 -11.678
50 FC6 133 -12.655
50 FC6 134 -13.143
50 FC6 135 -13.143
50 FC6 136 -10.701
50 FC6 137 -7.284
50 FC6 138 -3.866
50 FC6 139 -1.424
50 FC6 140 -1.424
50 FC6 141 -2.889
50 FC6 142 -4.842
50 FC6 143 -6.795
50 FC6 144 -9.237
50 FC6 145 -12.655
50 FC6 146 -16.561
50 FC6 147 -21.444
50 FC6 148 -25.838
50 FC6 149 -28.768
50 FC6 150 -29.744
50 FC6 151 -29.256
50 FC6 152 -26.815
50 FC6 153 -24.373
50 FC6 154 -21.444
50 FC6 155 -17.049
50 FC6 156 -12.655
50 FC6 157 -7.284
50 FC6 158 -2.401
50 FC6 159 0.529
50 FC6 160 1.017
50 FC6 161 -0.448
50 FC6 162 -1.912
50 FC6 163 -3.377
50 FC6 164 -4.842
50 FC6 165 -6.795
50 FC6 166 -8.748
50 FC6 167 -9.725
50 FC6 168 -10.213
50 FC6 169 -8.748
50 FC6 170 -6.795
50 FC6 171 -4.842
50 FC6 172 -4.354
50 FC6 173 -4.842
50 FC6 174 -5.330
50 FC6 175 -6.307
50 FC6 176 -6.307
50 FC6 177 -5.819
50 FC6 178 -4.842
50 FC6 179 -4.354
50 FC6 180 -4.354
50 FC6 181 -4.842
50 FC6 182 -6.307
50 FC6 183 -8.260
50 FC6 184 -9.725
50 FC6 185 -10.213
50 FC6 186 -9.237
50 FC6 187 -6.795
50 FC6 188 -4.842
50 FC6 189 -3.866
50 FC6 190 -4.354
50 FC6 191 -5.819
50 FC6 192 -7.772
50 FC6 193 -9.237
50 FC6 194 -9.725
50 FC6 195 -8.748
50 FC6 196 -7.772
50 FC6 197 -6.307
50 FC6 198 -5.330
50 FC6 199 -4.842
50 FC6 200 -4.842
50 FC6 201 -4.842
50 FC6 202 -5.330
50 FC6 203 -6.307
50 FC6 204 -8.260
50 FC6 205 -9.725
50 FC6 206 -10.701
50 FC6 207 -10.213
50 FC6 208 -8.748
50 FC6 209 -6.795
50 FC6 210 -5.330
50 FC6 211 -5.330
50 FC6 212 -5.330
50 FC6 213 -5.819
50 FC6 214 -4.842
50 FC6 215 -3.866
50 FC6 216 -2.889
50 FC6 217 -2.401
50 FC6 218 -3.377
50 FC6 219 -3.866
50 FC6 220 -4.354
50 FC6 221 -3.866
50 FC6 222 -2.401
50 FC6 223 -1.912
50 FC6 224 -1.424
50 FC6 225 -1.912
50 FC6 226 -2.401
50 FC6 227 -2.401
50 FC6 228 -2.401
50 FC6 229 -2.889
50 FC6 230 -2.889
50 FC6 231 -3.866
50 FC6 232 -5.330
50 FC6 233 -6.795
50 FC6 234 -7.772
50 FC6 235 -7.772
50 FC6 236 -7.772
50 FC6 237 -7.284
50 FC6 238 -7.772
50 FC6 239 -8.748
50 FC6 240 -9.725
50 FC6 241 -10.213
50 FC6 242 -7.772
50 FC6 243 -2.889
50 FC6 244 2.482
50 FC6 245 6.877
50 FC6 246 8.341
50 FC6 247 6.388
50 FC6 248 2.482
50 FC6 249 -0.936
50 FC6 250 -3.377
50 FC6 251 -3.866
50 FC6 252 -4.354
50 FC6 253 -4.842
50 FC6 254 -5.330
50 FC6 255 -6.307
# FC5 chan 10
50 FC5 0 7.131
50 FC5 1 6.643
50 FC5 2 7.131
50 FC5 3 9.084
50 FC5 4 12.014
50 FC5 5 14.455
50 FC5 6 15.432
50 FC5 7 14.455
50 FC5 8 11.525
50 FC5 9 7.619
50 FC5 10 4.201
50 FC5 11 1.272
50 FC5 12 -0.682
50 FC5 13 -2.635
50 FC5 14 -4.100
50 FC5 15 -5.076
50 FC5 16 -5.564
50 FC5 17 -5.564
50 FC5 18 -5.564
50 FC5 19 -5.564
50 FC5 20 -5.564
50 FC5 21 -4.100
50 FC5 22 -2.635
50 FC5 23 0.295
50 FC5 24 3.713
50 FC5 25 7.619
50 FC5 26 11.525
50 FC5 27 14.455
50 FC5 28 15.432
50 FC5 29 14.455
50 FC5 30 12.014
50 FC5 31 9.572
50 FC5 32 8.596
50 FC5 33 9.084
50 FC5 34 11.037
50 FC5 35 12.990
50 FC5 36 14.455
50 FC5 37 15.432
50 FC5 38 16.408
50 FC5 39 17.873
50 FC5 40 18.850
50 FC5 41 17.873
50 FC5 42 14.943
50 FC5 43 10.549
50 FC5 44 6.643
50 FC5 45 3.713
50 FC5 46 2.248
50 FC5 47 2.248
50 FC5 48 2.736
50 FC5 49 4.201
50 FC5 50 6.154
50 FC5 51 9.084
50 FC5 52 11.037
50 FC5 53 12.502
50 FC5 54 12.502
50 FC5 55 11.525
50 FC5 56 9.084
50 FC5 57 7.131
50 FC5 58 5.178
50 FC5 59 3.713
50 FC5 60 3.225
50 FC5 61 3.225
50 FC5 62 3.713
50 FC5 63 4.201
50 FC5 64 4.201
50 FC5 65 4.201
50 FC5 66 4.201
50 FC5 67 4.201
50 FC5 68 3.225
50 FC5 69 1.272
50 FC5 70 -2.635
50 FC5 71 -7.517
50 FC5 72 -11.424
50 FC5 73 -12.889
50 FC5 74 -11.424
50 FC5 75 -7.517
50 FC5 76 -4.100
50 FC5 77 -2.146
50 FC5 78 -0.193
50 FC5 79 2.248
50 FC5 80 6.154
50 FC5 81 10.549
50 FC5 82 13.967
50 FC5 83 15.432
50 FC5 84 14.455
50 FC5 85 12.990
50 FC5 86 13.479
50 FC5 87 15.432
50 FC5 88 18.361
50 FC5 89 20.803
50 FC5 90 21.291
50 FC5 91 19.826
50 FC5 92 17.385
50 FC5 93 15.920
50 FC5 94 15.920
50 FC5 95 15.920
50 FC5 96 15.432
50 FC5 97 14.455
50 FC5 98 12.014
50 FC5 99 10.061
50 FC5 100 7.619
50 FC5 101 5.666
50 FC5 102 3.713
50 FC5 103 1.272
50 FC5 104 0.295
50 FC5 105 0.783
50 FC5 106 3.225
50 FC5 107 7.131
50 FC5 108 10.549
50 FC5 109 12.990
50 FC5 110 13.967
50 FC5 111 14.943
50 FC5 112 14.943
50 FC5 113 14.943
50 FC5 114 12.990
50 FC5 115 10.061
50 FC5 116 6.643
50 FC5 117 5.178
50 FC5 118 5.178
50 FC5 119 6.643
50 FC5 120 7.131
50 FC5 121 6.154
50 FC5 122 3.225
50 FC5 123 -0.682
50 FC5 124 -3.611
50 FC5 125 -6.053
50 FC5 126 -8.494
50 FC5 127 -11.424
50 FC5 128 -13.865
50 FC5 129 -15.330
50 FC5 130 -15.330
50 FC5 131 -13.865
50 FC5 132 -11.912
50 FC5 133 -9.471
50 FC5 134 -7.029
50 FC5 135 -3.123
50 FC5 136 1.272
50 FC5 137 6.154
50 FC5 138 9.572
50 FC5 139 11.037
50 FC5 140 10.549
50 FC5 141 10.061
50 FC5 142 10.061
50 FC5 143 10.061
50 FC5 144 9.084
50 FC5 145 7.619
50 FC5 146 5.666
50 FC5 147 3.713
50 FC5 148 3.225
50 FC5 149 2.248
50 FC5 150 0.295
50 FC5 151 -3.611
50 FC5 152 -8.006
50 FC5 153 -11.424
50 FC5 154 -12.400
50 FC5 155 -10.447
50 FC5 156 -7.517
50 FC5 157 -6.053
50 FC5 158 -5.564
50 FC5 159 -6.541
50 FC5 160 -6.541
50 FC5 161 -6.053
50 FC5 162 -5.564
50 FC5 163 -5.076
50 FC5 164 -4.588
50 FC5 165 -3.123
50 FC5 166 0.295
50 FC5 167 3.713
50 FC5 168 6.643
50 FC5 169 7.619
50 FC5 170 5.666
50 FC5 171 2.736
50 FC5 172 1.272
50 FC5 173 0.783
50 FC5 174 1.272
50 FC5 175 1.760
50 FC5 176 0.783
50 FC5 177 -0.193
50 FC5 178 -2.146
50 FC5 179 -4.100
50 FC5 180 -6.541
50 FC5 181 -8.494
50 FC5 182 -10.447
50 FC5 183 -11.424
50 FC5 184 -11.424
50 FC5 185 -10.447
50 FC5 186 -8.006
50 FC5 187 -5.076
50 FC5 188 -2.146
50 FC5 189 -0.682
50 FC5 190 0.295
50 FC5 191 -0.193
50 FC5 192 -0.682
50 FC5 193 -0.682
50 FC5 194 0.783
50 FC5 195 3.713
50 FC5 196 6.154
50 FC5 197 7.619
50 FC5 198 6.154
50 FC5 199 3.225
50 FC5 200 -0.682
50 FC5 201 -3.611
50 FC5 202 -4.588
50 FC5 203 -4.588
50 FC5 204 -4.588
50 FC5 205 -5.076
50 FC5 206 -6.053
50 FC5 207 -7.029
50 FC5 208 -7.029
50 FC5 209 -7.029
50 FC5 210 -7.517
50 FC5 211 -8.982
50 FC5 212 -9.959
50 FC5 213 -9.959
50 FC5 214 -7.029
50 FC5 215 -2.635
50 FC5 216 1.760
50 FC5 217 5.178
50 FC5 218 5.666
50 FC5 219 4.201
50 FC5 220 2.248
50 FC5 221 0.295
50 FC5 222 -1.658
50 FC5 223 -3.611
50 FC5 224 -5.564
50 FC5 225 -6.053
50 FC5 226 -5.564
50 FC5 227 -3.123
50 FC5 228 -0.193
50 FC5 229 1.272
50 FC5 230 1.272
50 FC5 231 -1.170
50 FC5 232 -3.611
50 FC5 233 -6.541
50 FC5 234 -8.494
50 FC5 235 -10.447
50 FC5 236 -11.912
50 FC5 237 -12.889
50 FC5 238 -11.424
50 FC5 239 -6.541
50 FC5 240 0.783
50 FC5 241 8.108
50 FC5 242 13.967
50 FC5 243 15.920
50 FC5 244 14.943
50 FC5 245 12.990
50 FC5 246 12.990
50 FC5 247 15.920
50 FC5 248 19.338
50 FC5 249 20.803
50 FC5 250 18.850
50 FC5 251 13.479
50 FC5 252 7.131
50 FC5 253 3.225
50 FC5 254 2.248
50 FC5 255 2.736
# FC2 chan 11
50 FC2 0 4.761
50 FC2 1 3.784
50 FC2 2 2.808
50 FC2 3 1.343
50 FC2 4 1.831
50 FC2 5 2.808
50 FC2 6 3.784
50 FC2 7 4.272
50 FC2 8 3.296
50 FC2 9 1.831
50 FC2 10 0.366
50 FC2 11 -0.610
50 FC2 12 -1.099
50 FC2 13 -2.075
50 FC2 14 -2.075
50 FC2 15 -2.075
50 FC2 16 -2.075
50 FC2 17 -2.075
50 FC2 18 -2.075
50 FC2 19 -2.075
50 FC2 20 -2.075
50 FC2 21 -1.587
50 FC2 22 -0.610
50 FC2 23 0.854
50 FC2 24 2.808
50 FC2 25 3.784
50 FC2 26 4.761
50 FC2 27 4.761
50 FC2 28 5.249
50 FC2 29 5.737
50 FC2 30 6.226
50 FC2 31 7.690
50 FC2 32 8.667
50 FC2 33 9.644
50 FC2 34 10.132
50 FC2 35 10.620
50 FC2 36 10.132
50 FC2 37 9.644
50 FC2 38 7.690
50 FC2 39 6.226
50 FC2 40 5.249
50 FC2 41 4.761
50 FC2 42 4.272
50 FC2 43 3.784
50 FC2 44 3.296
50 FC2 45 2.808
50 FC2 46 2.319
50 FC2 47 2.319
50 FC2 48 1.831
50 FC2 49 1.831
50 FC2 50 0.854
50 FC2 51 0.366
50 FC2 52 -0.122
50 FC2 53 -0.122
50 FC2 54 -0.122
50 FC2 55 -0.122
50 FC2 56 -0.122
50 FC2 57 -0.122
50 FC2 58 -0.610
50 FC2 59 -1.099
50 FC2 60 -1.099
50 FC2 61 -1.099
50 FC2 62 -0.610
50 FC2 63 -1.099
50 FC2 64 -1.587
50 FC2 65 -2.075
50 FC2 66 -2.563
50 FC2 67 -2.563
50 FC2 68 -1.099
50 FC2 69 -0.122
50 FC2 70 0.854
50 FC2 71 0.854
50 FC2 72 0.854
50 FC2 73 0.854
50 FC2 74 2.319
50 FC2 75 4.272
50 FC2 76 6.226
50 FC2 77 6.714
50 FC2 78 5.737
50 FC2 79 4.761
50 FC2 80 4.272
50 FC2 81 5.249
50 FC2 82 7.690
50 FC2 83 10.132
50 FC2 84 11.108
50 FC2 85 11.108
50 FC2 86 9.644
50 FC2 87 8.667
50 FC2 88 7.690
50 FC2 89 6.714
50 FC2 90 6.714
50 FC2 91 5.737
50 FC2 92 5.249
50 FC2 93 4.272
50 FC2 94 3.296
50 FC2 95 2.808
50 FC2 96 1.831
50 FC2 97 0.854
50 FC2 98 -0.122
50 FC2 99 -0.610
50 FC2 100 -0.610
50 FC2 101 0.366
50 FC2 102 2.319
50 FC2 103 3.784
50 FC2 104 5.249
50 FC2 105 5.737
50 FC2 106 5.737
50 FC2 107 6.226
50 FC2 108 7.202
50 FC2 109 8.179
50 FC2 110 8.667
50 FC2 111 7.690
50 FC2 112 6.714
50 FC2 113 4.761
50 FC2 114 3.784
50 FC2 115 3.296
50 FC2 116 2.808
50 FC2 117 2.319
50 FC2 118 1.343
50 FC2 119 0.854
50 FC2 120 0.366
50 FC2 121 0.366
50 FC2 122 0.854
50 FC2 123 0.366
50 FC2 124 0.366
50 FC2 125 -0.122
50 FC2 126 -0.122
50 FC2 127 -0.122
50 FC2 128 0.854
50 FC2 129 1.831
50 FC2 130 2.808
50 FC2 131 3.296
50 FC2 132 3.296
50 FC2 133 2.808
50 FC2 134 2.808
50 FC2 135 2.319
50 FC2 136 2.319
50 FC2 137 2.808
50 FC2 138 2.808
50 FC2 139 2.808
50 FC2 140 2.808
50 FC2 141 3.296
50 FC2 142 3.296
50 FC2 143 3.296
50 FC2 144 2.319
50 FC2 145 0.366
50 FC2 146 -1.099
50 FC2 147 -3.052
50 FC2 148 -4.517
50 FC2 149 -5.981
50 FC2 150 -6.470
50 FC2 151 -6.470
50 FC2 152 -6.470
50 FC2 153 -5.005
50 FC2 154 -3.540
50 FC2 155 -2.563
50 FC2 156 -1.587
50 FC2 157 -1.099
50 FC2 158 -0.610
50 FC2 159 -0.122
50 FC2 160 0.854
50 FC2 161 1.831
50 FC2 162 2.808
50 FC2 163 3.296
50 FC2 164 3.296
50 FC2 165 2.808
50 FC2 166 2.319
50 FC2 167 2.319
50 FC2 168 2.808
50 FC2 169 3.296
50 FC2 170 2.808
50 FC2 171 2.319
50 FC2 172 1.343
50 FC2 173 0.854
50 FC2 174 0.366
50 FC2 175 -0.122
50 FC2 176 -0.610
50 FC2 177 -1.099
50 FC2 178 -1.587
50 FC2 179 -1.587
50 FC2 180 -1.587
50 FC2 181 -0.610
50 FC2 182 -0.122
50 FC2 183 0.854
50 FC2 184 1.343
50 FC2 185 1.831
50 FC2 186 2.319
50 FC2 187 3.296
50 FC2 188 3.784
50 FC2 189 4.272
50 FC2 190 4.272
50 FC2 191 3.296
50 FC2 192 1.831
50 FC2 193 0.366
50 FC2 194 -1.099
50 FC2 195 -1.587
50 FC2 196 -2.075
50 FC2 197 -2.075
50 FC2 198 -1.587
50 FC2 199 -1.587
50 FC2 200 -0.610
50 FC2 201 0.366
50 FC2 202 0.854
50 FC2 203 1.343
50 FC2 204 0.854
50 FC2 205 -0.122
50 FC2 206 -1.099
50 FC2 207 -1.587
50 FC2 208 -0.610
50 FC2 209 0.854
50 FC2 210 2.319
50 FC2 211 2.808
50 FC2 212 2.808
50 FC2 213 3.296
50 FC2 214 3.296
50 FC2 215 4.272
50 FC2 216 4.761
50 FC2 217 5.249
50 FC2 218 5.249
50 FC2 219 5.249
50 FC2 220 6.226
50 FC2 221 6.714
50 FC2 222 6.714
50 FC2 223 6.226
50 FC2 224 5.249
50 FC2 225 3.784
50 FC2 226 2.808
50 FC2 227 2.319
50 FC2 228 2.319
50 FC2 229 2.808
50 FC2 230 3.296
50 FC2 231 3.784
50 FC2 232 3.296
50 FC2 233 2.808
50 FC2 234 1.831
50 FC2 235 0.854
50 FC2 236 0.366
50 FC2 237 0.366
50 FC2 238 0.366
50 FC2 239 0.854
50 FC2 240 0.854
50 FC2 241 0.366
50 FC2 242 0.854
50 FC2 243 1.831
50 FC2 244 4.761
50 FC2 245 7.690
50 FC2 246 10.620
50 FC2 247 12.085
50 FC2 248 11.597
50 FC2 249 9.644
50 FC2 250 7.202
50 FC2 251 4.272
50 FC2 252 1.831
50 FC2 253 0.366
50 FC2 254 -0.122
50 FC2 255 -0.122
# FC1 chan 12
50 FC1 0 4.232
50 FC1 1 2.767
50 FC1 2 1.790
50 FC1 3 1.790
50 FC1 4 3.743
50 FC1 5 6.673
50 FC1 6 8.626
50 FC1 7 9.603
50 FC1 8 8.626
50 FC1 9 6.185
50 FC1 10 3.255
50 FC1 11 0.326
50 FC1 12 -1.139
50 FC1 13 -3.092
50 FC1 14 -3.581
50 FC1 15 -4.069
50 FC1 16 -4.557
50 FC1 17 -4.557
50 FC1 18 -4.557
50 FC1 19 -4.069
50 FC1 20 -3.581
50 FC1 21 -2.604
50 FC1 22 -0.651
50 FC1 23 1.790
50 FC1 24 4.720
50 FC1 25 7.161
50 FC1 26 8.626
50 FC1 27 9.115
50 FC1 28 8.626
50 FC1 29 7.650
50 FC1 30 7.161
50 FC1 31 7.161
50 FC1 32 7.161
50 FC1 33 8.138
50 FC1 34 9.115
50 FC1 35 9.603
50 FC1 36 10.579
50 FC1 37 11.068
50 FC1 38 11.556
50 FC1 39 11.556
50 FC1 40 10.579
50 FC1 41 10.091
50 FC1 42 10.091
50 FC1 43 10.091
50 FC1 44 10.091
50 FC1 45 9.603
50 FC1 46 8.626
50 FC1 47 7.650
50 FC1 48 7.161
50 FC1 49 7.650
50 FC1 50 8.138
50 FC1 51 9.115
50 FC1 52 9.115
50 FC1 53 8.626
50 FC1 54 7.161
50 FC1 55 6.185
50 FC1 56 5.697
50 FC1 57 5.697
50 FC1 58 6.185
50 FC1 59 5.208
50 FC1 60 4.232
50 FC1 61 3.255
50 FC1 62 3.255
50 FC1 63 4.232
50 FC1 64 5.697
50 FC1 65 7.650
50 FC1 66 9.115
50 FC1 67 9.603
50 FC1 68 9.603
50 FC1 69 8.626
50 FC1 70 7.161
50 FC1 71 4.720
50 FC1 72 2.767
50 FC1 73 1.790
50 FC1 74 2.279
50 FC1 75 3.743
50 FC1 76 5.208
50 FC1 77 6.185
50 FC1 78 6.185
50 FC1 79 6.673
50 FC1 80 8.138
50 FC1 81 10.091
50 FC1 82 13.021
50 FC1 83 14.486
50 FC1 84 14.974
50 FC1 85 13.997
50 FC1 86 13.509
50 FC1 87 14.486
50 FC1 88 15.462
50 FC1 89 15.951
50 FC1 90 16.927
50 FC1 91 15.951
50 FC1 92 13.997
50 FC1 93 12.044
50 FC1 94 11.556
50 FC1 95 11.556
50 FC1 96 12.044
50 FC1 97 11.556
50 FC1 98 9.603
50 FC1 99 7.650
50 FC1 100 5.208
50 FC1 101 4.232
50 FC1 102 3.255
50 FC1 103 3.255
50 FC1 104 3.255
50 FC1 105 3.743
50 FC1 106 5.208
50 FC1 107 7.161
50 FC1 108 9.115
50 FC1 109 11.556
50 FC1 110 13.021
50 FC1 111 13.021
50 FC1 112 12.044
50 FC1 113 10.579
50 FC1 114 8.626
50 FC1 115 7.161
50 FC1 116 5.697
50 FC1 117 5.697
50 FC1 118 5.208
50 FC1 119 5.208
50 FC1 120 5.208
50 FC1 121 4.720
50 FC1 122 4.232
50 FC1 123 2.767
50 FC1 124 1.790
50 FC1 125 0.326
50 FC1 126 -1.139
50 FC1 127 -2.604
50 FC1 128 -3.581
50 FC1 129 -3.581
50 FC1 130 -2.604
50 FC1 131 -0.651
50 FC1 132 0.814
50 FC1 133 2.279
50 FC1 134 3.255
50 FC1 135 4.232
50 FC1 136 5.208
50 FC1 137 6.185
50 FC1 138 7.650
50 FC1 139 8.138
50 FC1 140 8.138
50 FC1 141 8.626
50 FC1 142 8.626
50 FC1 143 8.626
50 FC1 144 7.650
50 FC1 145 6.185
50 FC1 146 4.232
50 FC1 147 2.279
50 FC1 148 1.302
50 FC1 149 1.302
50 FC1 150 1.302
50 FC1 151 0.814
50 FC1 152 -0.163
50 FC1 153 -2.116
50 FC1 154 -3.581
50 FC1 155 -4.069
50 FC1 156 -4.069
50 FC1 157 -4.069
50 FC1 158 -3.092
50 FC1 159 -2.604
50 FC1 160 -1.628
50 FC1 161 -0.651
50 FC1 162 0.814
50 FC1 163 1.302
50 FC1 164 1.790
50 FC1 165 1.790
50 FC1 166 2.279
50 FC1 167 3.255
50 FC1 168 4.232
50 FC1 169 4.232
50 FC1 170 3.743
50 FC1 171 1.790
50 FC1 172 -0.163
50 FC1 173 -1.139
50 FC1 174 -2.116
50 FC1 175 -2.604
50 FC1 176 -3.581
50 FC1 177 -4.069
50 FC1 178 -4.557
50 FC1 179 -4.069
50 FC1 180 -3.581
50 FC1 181 -3.092
50 FC1 182 -2.604
50 FC1 183 -2.604
50 FC1 184 -2.116
50 FC1 185 -1.628
50 FC1 186 -1.139
50 FC1 187 -0.651
50 FC1 188 -0.163
50 FC1 189 -0.163
50 FC1 190 -0.163
50 FC1 191 -0.163
50 FC1 192 -0.163
50 FC1 193 -0.651
50 FC1 194 -1.628
50 FC1 195 -2.604
50 FC1 196 -3.092
50 FC1 197 -3.092
50 FC1 198 -3.092
50 FC1 199 -2.604
50 FC1 200 -2.116
50 FC1 201 -1.628
50 FC1 202 -0.651
50 FC1 203 0.326
50 FC1 204 -0.163
50 FC1 205 -0.651
50 FC1 206 -1.628
50 FC1 207 -3.092
50 FC1 208 -4.069
50 FC1 209 -5.046
50 FC1 210 -5.046
50 FC1 211 -5.046
50 FC1 212 -4.069
50 FC1 213 -2.604
50 FC1 214 -1.139
50 FC1 215 1.790
50 FC1 216 3.743
50 FC1 217 4.720
50 FC1 218 5.208
50 FC1 219 5.208
50 FC1 220 5.208
50 FC1 221 5.208
50 FC1 222 4.720
50 FC1 223 3.743
50 FC1 224 1.790
50 FC1 225 0.326
50 FC1 226 -0.163
50 FC1 227 -0.163
50 FC1 228 0.814
50 FC1 229 1.790
50 FC1 230 2.279
50 FC1 231 2.767
50 FC1 232 2.279
50 FC1 233 1.302
50 FC1 234 -0.163
50 FC1 235 -1.628
50 FC1 236 -3.581
50 FC1 237 -4.557
50 FC1 238 -4.557
50 FC1 239 -3.092
50 FC1 240 -1.628
50 FC1 241 0.326
50 FC1 242 1.790
50 FC1 243 2.767
50 FC1 244 3.743
50 FC1 245 5.697
50 FC1 246 8.138
50 FC1 247 11.068
50 FC1 248 13.509
50 FC1 249 14.486
50 FC1 250 13.509
50 FC1 251 11.068
50 FC1 252 8.138
50 FC1 253 5.208
50 FC1 254 3.255
50 FC1 255 2.279
# T8 chan 13
50 T8 0 5.819
50 T8 1 6.795
50 T8 2 5.330
50 T8 3 1.912
50 T8 4 -1.017
50 T8 5 -1.017
50 T8 6 1.424
50 T8 7 5.819
50 T8 8 9.237
50 T8 9 9.725
50 T8 10 4.842
50 T8 11 -2.970
50 T8 12 -10.783
50 T8 13 -15.177
50 T8 14 -14.689
50 T8 15 -10.783
50 T8 16 -6.877
50 T8 17 -4.435
50 T8 18 -4.924
50 T8 19 -6.388
50 T8 20 -7.365
50 T8 21 -7.853
50 T8 22 -7.365
50 T8 23 -6.877
50 T8 24 -6.877
50 T8 25 -6.877
50 T8 26 -5.412
50 T8 27 -2.482
50 T8 28 1.912
50 T8 29 5.819
50 T8 30 7.284
50 T8 31 5.819
50 T8 32 3.377
50 T8 33 1.424
50 T8 34 2.401
50 T8 35 5.819
50 T8 36 9.237
50 T8 37 10.213
50 T8 38 7.772
50 T8 39 3.377
50 T8 40 -0.529
50 T8 41 -2.482
50 T8 42 -4.924
50 T8 43 -8.341
50 T8 44 -12.736
50 T8 45 -16.642
50 T8 46 -17.619
50 T8 47 -14.689
50 T8 48 -9.318
50 T8 49 -5.900
50 T8 50 -5.900
50 T8 51 -9.318
50 T8 52 -12.248
50 T8 53 -12.248
50 T8 54 -8.341
50 T8 55 -2.970
50 T8 56 1.424
50 T8 57 1.912
50 T8 58 -1.017
50 T8 59 -5.412
50 T8 60 -8.341
50 T8 61 -9.806
50 T8 62 -10.783
50 T8 63 -12.248
50 T8 64 -14.201
50 T8 65 -15.177
50 T8 66 -14.689
50 T8 67 -12.248
50 T8 68 -9.806
50 T8 69 -9.806
50 T8 70 -12.736
50 T8 71 -16.154
50 T8 72 -18.107
50 T8 73 -15.666
50 T8 74 -9.806
50 T8 75 -3.459
50 T8 76 -0.529
50 T8 77 -2.970
50 T8 78 -8.341
50 T8 79 -14.201
50 T8 80 -15.666
50 T8 81 -12.248
50 T8 82 -4.924
50 T8 83 1.912
50 T8 84 7.284
50 T8 85 9.237
50 T8 86 9.237
50 T8 87 7.284
50 T8 88 3.377
50 T8 89 -1.506
50 T8 90 -6.877
50 T8 91 -9.318
50 T8 92 -8.341
50 T8 93 -4.924
50 T8 94 -1.017
50 T8 95 0.936
50 T8 96 -1.017
50 T8 97 -3.947
50 T8 98 -7.365
50 T8 99 -8.830
50 T8 100 -8.830
50 T8 101 -8.341
50 T8 102 -6.877
50 T8 103 -3.459
50 T8 104 2.401
50 T8 105 8.260
50 T8 106 11.678
50 T8 107 11.190
50 T8 108 6.307
50 T8 109 0.448
50 T8 110 -2.482
50 T8 111 -1.994
50 T8 112 1.424
50 T8 113 3.866
50 T8 114 3.377
50 T8 115 -0.529
50 T8 116 -6.388
50 T8 117 -11.759
50 T8 118 -15.666
50 T8 119 -17.131
50 T8 120 -18.595
50 T8 121 -18.595
50 T8 122 -18.107
50 T8 123 -16.154
50 T8 124 -13.713
50 T8 125 -11.271
50 T8 126 -11.271
50 T8 127 -13.224
50 T8 128 -16.154
50 T8 129 -18.107
50 T8 130 -18.595
50 T8 131 -18.107
50 T8 132 -18.107
50 T8 133 -19.572
50 T8 134 -20.549
50 T8 135 -19.572
50 T8 136 -15.177
50 T8 137 -7.853
50 T8 138 -0.041
50 T8 139 4.354
50 T8 140 2.889
50 T8 141 -2.970
50 T8 142 -11.759
50 T8 143 -18.595
50 T8 144 -23.966
50 T8 145 -25.920
50 T8 146 -27.384
50 T8 147 -29.338
50 T8 148 -31.779
50 T8 149 -34.220
50 T8 150 -34.709
50 T8 151 -33.244
50 T8 152 -30.802
50 T8 153 -28.849
50 T8 154 -27.873
50 T8 155 -26.896
50 T8 156 -22.990
50 T8 157 -15.666
50 T8 158 -5.900
50 T8 159 2.401
50 T8 160 4.842
50 T8 161 1.912
50 T8 162 -4.435
50 T8 163 -9.806
50 T8 164 -12.248
50 T8 165 -11.759
50 T8 166 -10.783
50 T8 167 -10.783
50 T8 168 -10.783
50 T8 169 -10.295
50 T8 170 -7.365
50 T8 171 -4.435
50 T8 172 -2.970
50 T8 173 -4.924
50 T8 174 -7.853
50 T8 175 -9.806
50 T8 176 -8.341
50 T8 177 -3.459
50 T8 178 0.936
50 T8 179 2.401
50 T8 180 -0.041
50 T8 181 -4.435
50 T8 182 -9.318
50 T8 183 -12.248
50 T8 184 -14.689
50 T8 185 -15.177
50 T8 186 -15.666
50 T8 187 -13.713
50 T8 188 -9.806
50 T8 189 -5.412
50 T8 190 -1.506
50 T8 191 -1.994
50 T8 192 -5.900
50 T8 193 -11.271
50 T8 194 -15.177
50 T8 195 -14.689
50 T8 196 -10.295
50 T8 197 -5.412
50 T8 198 -1.506
50 T8 199 -1.506
50 T8 200 -3.947
50 T8 201 -7.365
50 T8 202 -9.318
50 T8 203 -10.295
50 T8 204 -10.783
50 T8 205 -11.759
50 T8 206 -12.736
50 T8 207 -13.713
50 T8 208 -13.713
50 T8 209 -13.224
50 T8 210 -11.759
50 T8 211 -10.783
50 T8 212 -10.783
50 T8 213 -10.783
50 T8 214 -10.295
50 T8 215 -10.295
50 T8 216 -10.783
50 T8 217 -12.248
50 T8 218 -14.689
50 T8 219 -15.666
50 T8 220 -15.666
50 T8 221 -13.713
50 T8 222 -11.271
50 T8 223 -9.806
50 T8 224 -9.806
50 T8 225 -10.295
50 T8 226 -10.783
50 T8 227 -10.783
50 T8 228 -10.295
50 T8 229 -9.806
50 T8 230 -9.318
50 T8 231 -8.830
50 T8 232 -7.365
50 T8 233 -5.900
50 T8 234 -4.924
50 T8 235 -4.924
50 T8 236 -6.877
50 T8 237 -10.295
50 T8 238 -13.713
50 T8 239 -16.642
50 T8 240 -18.595
50 T8 241 -17.131
50 T8 242 -12.736
50 T8 243 -5.412
50 T8 244 2.401
50 T8 245 6.795
50 T8 246 6.307
50 T8 247 0.448
50 T8 248 -6.388
50 T8 249 -11.271
50 T8 250 -12.248
50 T8 251 -9.806
50 T8 252 -7.365
50 T8 253 -7.853
50 T8 254 -9.806
50 T8 255 -11.759
# T7 chan 14
50 T7 0 3.082
50 T7 1 4.547
50 T7 2 7.965
50 T7 3 10.895
50 T7 4 11.383
50 T7 5 10.895
50 T7 6 10.406
50 T7 7 11.383
50 T7 8 13.824
50 T7 9 14.313
50 T7 10 10.895
50 T7 11 4.059
50 T7 12 -2.777
50 T7 13 -5.707
50 T7 14 -4.730
50 T7 15 -2.289
50 T7 16 -0.824
50 T7 17 -3.265
50 T7 18 -7.660
50 T7 19 -10.101
50 T7 20 -9.125
50 T7 21 -5.219
50 T7 22 -0.824
50 T7 23 1.129
50 T7 24 1.129
50 T7 25 1.617
50 T7 26 4.547
50 T7 27 8.942
50 T7 28 10.895
50 T7 29 8.942
50 T7 30 3.082
50 T7 31 -0.824
50 T7 32 0.641
50 T7 33 6.012
50 T7 34 11.871
50 T7 35 12.848
50 T7 36 9.430
50 T7 37 4.547
50 T7 38 3.082
50 T7 39 6.989
50 T7 40 10.895
50 T7 41 12.360
50 T7 42 8.942
50 T7 43 3.082
50 T7 44 0.153
50 T7 45 0.153
50 T7 46 2.594
50 T7 47 3.082
50 T7 48 0.641
50 T7 49 -3.265
50 T7 50 -5.219
50 T7 51 -3.754
50 T7 52 1.129
50 T7 53 6.500
50 T7 54 8.942
50 T7 55 7.965
50 T7 56 6.012
50 T7 57 4.547
50 T7 58 4.059
50 T7 59 3.571
50 T7 60 3.082
50 T7 61 1.129
50 T7 62 -0.824
50 T7 63 -1.312
50 T7 64 -0.824
50 T7 65 -0.824
50 T7 66 -0.824
50 T7 67 -3.265
50 T7 68 -7.172
50 T7 69 -12.543
50 T7 70 -18.402
50 T7 71 -22.797
50 T7 72 -23.773
50 T7 73 -19.867
50 T7 74 -13.519
50 T7 75 -7.172
50 T7 76 -4.242
50 T7 77 -6.195
50 T7 78 -10.101
50 T7 79 -12.543
50 T7 80 -10.590
50 T7 81 -5.219
50 T7 82 0.153
50 T7 83 3.082
50 T7 84 2.594
50 T7 85 2.106
50 T7 86 5.035
50 T7 87 10.895
50 T7 88 17.242
50 T7 89 20.660
50 T7 90 19.196
50 T7 91 13.824
50 T7 92 8.453
50 T7 93 5.524
50 T7 94 6.012
50 T7 95 7.965
50 T7 96 9.918
50 T7 97 10.406
50 T7 98 9.918
50 T7 99 8.942
50 T7 100 8.942
50 T7 101 6.989
50 T7 102 3.082
50 T7 103 -3.754
50 T7 104 -9.613
50 T7 105 -11.566
50 T7 106 -7.172
50 T7 107 1.129
50 T7 108 9.430
50 T7 109 14.801
50 T7 110 15.289
50 T7 111 13.824
50 T7 112 13.336
50 T7 113 13.824
50 T7 114 13.336
50 T7 115 9.430
50 T7 116 2.106
50 T7 117 -5.219
50 T7 118 -9.613
50 T7 119 -8.636
50 T7 120 -4.730
50 T7 121 -0.824
50 T7 122 0.153
50 T7 123 -2.777
50 T7 124 -9.125
50 T7 125 -16.449
50 T7 126 -21.820
50 T7 127 -24.261
50 T7 128 -23.285
50 T7 129 -19.867
50 T7 130 -16.449
50 T7 131 -15.961
50 T7 132 -18.402
50 T7 133 -20.844
50 T7 134 -20.355
50 T7 135 -14.984
50 T7 136 -7.172
50 T7 137 -0.824
50 T7 138 2.594
50 T7 139 3.571
50 T7 140 4.547
50 T7 141 6.989
50 T7 142 9.430
50 T7 143 8.942
50 T7 144 4.547
50 T7 145 -1.801
50 T7 146 -6.195
50 T7 147 -4.730
50 T7 148 0.153
50 T7 149 5.524
50 T7 150 7.965
50 T7 151 5.524
50 T7 152 0.641
50 T7 153 -4.730
50 T7 154 -7.172
50 T7 155 -7.660
50 T7 156 -8.148
50 T7 157 -10.101
50 T7 158 -13.031
50 T7 159 -15.961
50 T7 160 -16.449
50 T7 161 -14.984
50 T7 162 -11.078
50 T7 163 -6.683
50 T7 164 -2.777
50 T7 165 0.153
50 T7 166 2.106
50 T7 167 2.106
50 T7 168 -0.336
50 T7 169 -3.265
50 T7 170 -5.219
50 T7 171 -4.730
50 T7 172 -2.289
50 T7 173 0.641
50 T7 174 2.594
50 T7 175 2.594
50 T7 176 1.617
50 T7 177 0.153
50 T7 178 -1.801
50 T7 179 -5.219
50 T7 180 -12.054
50 T7 181 -19.867
50 T7 182 -25.726
50 T7 183 -25.726
50 T7 184 -19.867
50 T7 185 -10.590
50 T7 186 -3.754
50 T7 187 -2.777
50 T7 188 -5.219
50 T7 189 -7.660
50 T7 190 -6.683
50 T7 191 -3.754
50 T7 192 -2.289
50 T7 193 -3.754
50 T7 194 -5.219
50 T7 195 -2.777
50 T7 196 5.035
50 T7 197 14.313
50 T7 198 19.196
50 T7 199 14.801
50 T7 200 4.059
50 T7 201 -5.707
50 T7 202 -8.636
50 T7 203 -5.707
50 T7 204 -2.777
50 T7 205 -4.242
50 T7 206 -10.590
50 T7 207 -16.937
50 T7 208 -18.890
50 T7 209 -15.472
50 T7 210 -10.590
50 T7 211 -8.636
50 T7 212 -11.078
50 T7 213 -13.031
50 T7 214 -11.566
50 T7 215 -6.195
50 T7 216 -1.801
50 T7 217 -2.289
50 T7 218 -7.172
50 T7 219 -13.031
50 T7 220 -15.472
50 T7 221 -13.519
50 T7 222 -9.125
50 T7 223 -7.172
50 T7 224 -7.660
50 T7 225 -9.125
50 T7 226 -9.125
50 T7 227 -7.172
50 T7 228 -6.195
50 T7 229 -7.660
50 T7 230 -12.543
50 T7 231 -17.426
50 T7 232 -19.867
50 T7 233 -19.867
50 T7 234 -19.867
50 T7 235 -21.820
50 T7 236 -26.215
50 T7 237 -29.144
50 T7 238 -26.215
50 T7 239 -17.426
50 T7 240 -4.730
50 T7 241 6.500
50 T7 242 12.360
50 T7 243 11.871
50 T7 244 8.453
50 T7 245 6.012
50 T7 246 6.500
50 T7 247 8.942
50 T7 248 12.360
50 T7 249 12.848
50 T7 250 9.918
50 T7 251 4.059
50 T7 252 -2.777
50 T7 253 -7.172
50 T7 254 -8.636
50 T7 255 -7.172
# CZ chan 15
50 CZ 0 2.218
50 CZ 1 1.729
50 CZ 2 4.659
50 CZ 3 8.077
50 CZ 4 11.495
50 CZ 5 12.960
50 CZ 6 12.472
50 CZ 7 10.518
50 CZ 8 8.077
50 CZ 9 5.636
50 CZ 10 3.194
50 CZ 11 0.753
50 CZ 12 -0.224
50 CZ 13 -0.224
50 CZ 14 1.241
50 CZ 15 2.706
50 CZ 16 4.171
50 CZ 17 4.659
50 CZ 18 3.682
50 CZ 19 1.729
50 CZ 20 0.264
50 CZ 21 -1.200
50 CZ 22 -1.200
50 CZ 23 0.753
50 CZ 24 3.682
50 CZ 25 8.565
50 CZ 26 14.425
50 CZ 27 20.772
50 CZ 28 25.167
50 CZ 29 26.632
50 CZ 30 25.167
50 CZ 31 22.237
50 CZ 32 20.284
50 CZ 33 20.284
50 CZ 34 21.749
50 CZ 35 24.190
50 CZ 36 24.679
50 CZ 37 24.190
50 CZ 38 23.214
50 CZ 39 22.237
50 CZ 40 22.237
50 CZ 41 21.261
50 CZ 42 19.307
50 CZ 43 14.913
50 CZ 44 10.030
50 CZ 45 6.124
50 CZ 46 5.147
50 CZ 47 6.612
50 CZ 48 8.565
50 CZ 49 9.542
50 CZ 50 9.054
50 CZ 51 7.589
50 CZ 52 7.100
50 CZ 53 8.565
50 CZ 54 11.983
50 CZ 55 16.378
50 CZ 56 18.819
50 CZ 57 18.819
50 CZ 58 15.401
50 CZ 59 11.495
50 CZ 60 8.077
50 CZ 61 5.636
50 CZ 62 5.147
50 CZ 63 6.124
50 CZ 64 7.100
50 CZ 65 8.565
50 CZ 66 9.542
50 CZ 67 10.030
50 CZ 68 9.542
50 CZ 69 6.612
50 CZ 70 1.729
50 CZ 71 -3.642
50 CZ 72 -7.548
50 CZ 73 -7.548
50 CZ 74 -2.177
50 CZ 75 6.124
50 CZ 76 14.425
50 CZ 77 18.819
50 CZ 78 18.819
50 CZ 79 16.378
50 CZ 80 15.401
50 CZ 81 17.843
50 CZ 82 23.702
50 CZ 83 29.073
50 CZ 84 31.514
50 CZ 85 28.585
50 CZ 86 24.190
50 CZ 87 20.772
50 CZ 88 21.261
50 CZ 89 25.167
50 CZ 90 29.561
50 CZ 91 30.538
50 CZ 92 28.585
50 CZ 93 25.167
50 CZ 94 22.237
50 CZ 95 20.772
50 CZ 96 19.796
50 CZ 97 18.819
50 CZ 98 15.889
50 CZ 99 13.448
50 CZ 100 13.448
50 CZ 101 14.913
50 CZ 102 18.331
50 CZ 103 20.284
50 CZ 104 21.261
50 CZ 105 22.237
50 CZ 106 23.702
50 CZ 107 25.655
50 CZ 108 28.097
50 CZ 109 29.073
50 CZ 110 28.585
50 CZ 111 27.120
50 CZ 112 25.655
50 CZ 113 24.190
50 CZ 114 21.749
50 CZ 115 17.843
50 CZ 116 12.472
50 CZ 117 7.589
50 CZ 118 5.636
50 CZ 119 5.636
50 CZ 120 6.612
50 CZ 121 6.612
50 CZ 122 4.659
50 CZ 123 1.729
50 CZ 124 -0.224
50 CZ 125 -2.665
50 CZ 126 -5.595
50 CZ 127 -9.989
50 CZ 128 -14.872
50 CZ 129 -17.314
50 CZ 130 -16.337
50 CZ 131 -11.454
50 CZ 132 -6.083
50 CZ 133 -2.177
50 CZ 134 -0.712
50 CZ 135 -0.712
50 CZ 136 1.241
50 CZ 137 5.636
50 CZ 138 11.007
50 CZ 139 15.401
50 CZ 140 17.354
50 CZ 141 18.331
50 CZ 142 17.843
50 CZ 143 17.354
50 CZ 144 15.401
50 CZ 145 10.030
50 CZ 146 -0.224
50 CZ 147 -12.919
50 CZ 148 -25.614
50 CZ 149 -34.403
50 CZ 150 -39.286
50 CZ 151 -39.775
50 CZ 152 -37.821
50 CZ 153 -33.915
50 CZ 154 -27.079
50 CZ 155 -17.314
50 CZ 156 -6.083
50 CZ 157 2.706
50 CZ 158 8.077
50 CZ 159 8.565
50 CZ 160 7.100
50 CZ 161 6.124
50 CZ 162 7.589
50 CZ 163 11.007
50 CZ 164 13.936
50 CZ 165 14.425
50 CZ 166 13.448
50 CZ 167 12.472
50 CZ 168 12.960
50 CZ 169 14.913
50 CZ 170 15.889
50 CZ 171 14.913
50 CZ 172 12.472
50 CZ 173 10.518
50 CZ 174 11.007
50 CZ 175 11.983
50 CZ 176 13.448
50 CZ 177 12.472
50 CZ 178 9.054
50 CZ 179 4.659
50 CZ 180 0.264
50 CZ 181 -1.200
50 CZ 182 -1.689
50 CZ 183 -2.177
50 CZ 184 -3.642
50 CZ 185 -4.618
50 CZ 186 -4.130
50 CZ 187 -2.665
50 CZ 188 -0.224
50 CZ 189 0.264
50 CZ 190 -1.200
50 CZ 191 -3.153
50 CZ 192 -4.618
50 CZ 193 -3.153
50 CZ 194 0.753
50 CZ 195 4.659
50 CZ 196 7.100
50 CZ 197 7.100
50 CZ 198 5.147
50 CZ 199 2.706
50 CZ 200 -0.224
50 CZ 201 -3.153
50 CZ 202 -6.571
50 CZ 203 -9.989
50 CZ 204 -11.454
50 CZ 205 -11.454
50 CZ 206 -9.501
50 CZ 207 -6.571
50 CZ 208 -4.618
50 CZ 209 -4.130
50 CZ 210 -4.618
50 CZ 211 -5.107
50 CZ 212 -5.107
50 CZ 213 -3.642
50 CZ 214 -0.712
50 CZ 215 2.706
50 CZ 216 6.612
50 CZ 217 9.054
50 CZ 218 9.054
50 CZ 219 7.100
50 CZ 220 3.682
50 CZ 221 0.264
50 CZ 222 -2.177
50 CZ 223 -3.642
50 CZ 224 -2.665
50 CZ 225 -1.200
50 CZ 226 1.241
50 CZ 227 4.171
50 CZ 228 6.612
50 CZ 229 8.077
50 CZ 230 8.565
50 CZ 231 7.100
50 CZ 232 4.659
50 CZ 233 2.706
50 CZ 234 0.753
50 CZ 235 -0.224
50 CZ 236 -1.689
50 CZ 237 -2.665
50 CZ 238 -2.665
50 CZ 239 0.264
50 CZ 240 6.612
50 CZ 241 14.425
50 CZ 242 21.261
50 CZ 243 24.679
50 CZ 244 24.679
50 CZ 245 24.190
50 CZ 246 25.655
50 CZ 247 27.608
50 CZ 248 28.585
50 CZ 249 25.655
50 CZ 250 18.331
50 CZ 251 10.518
50 CZ 252 5.147
50 CZ 253 4.171
50 CZ 254 6.124
50 CZ 255 8.077
# C3 chan 16
50 C3 0 2.645
50 C3 1 2.645
50 C3 2 3.133
50 C3 3 3.621
50 C3 4 5.575
50 C3 5 7.039
50 C3 6 8.504
50 C3 7 9.481
50 C3 8 9.969
50 C3 9 8.504
50 C3 10 6.551
50 C3 11 3.621
50 C3 12 1.180
50 C3 13 -0.285
50 C3 14 -0.773
50 C3 15 -1.750
50 C3 16 -1.750
50 C3 17 -2.726
50 C3 18 -3.215
50 C3 19 -3.703
50 C3 20 -3.703
50 C3 21 -3.215
50 C3 22 -2.726
50 C3 23 -1.750
50 C3 24 -0.773
50 C3 25 0.203
50 C3 26 2.157
50 C3 27 4.598
50 C3 28 5.575
50 C3 29 5.575
50 C3 30 4.598
50 C3 31 3.133
50 C3 32 1.180
50 C3 33 0.203
50 C3 34 -0.285
50 C3 35 0.203
50 C3 36 1.180
50 C3 37 3.133
50 C3 38 5.575
50 C3 39 8.016
50 C3 40 9.481
50 C3 41 9.481
50 C3 42 8.016
50 C3 43 5.086
50 C3 44 1.180
50 C3 45 -1.261
50 C3 46 -3.215
50 C3 47 -3.703
50 C3 48 -3.215
50 C3 49 -1.750
50 C3 50 0.203
50 C3 51 2.645
50 C3 52 5.086
50 C3 53 7.039
50 C3 54 7.528
50 C3 55 7.528
50 C3 56 6.551
50 C3 57 5.086
50 C3 58 4.110
50 C3 59 3.133
50 C3 60 2.645
50 C3 61 2.157
50 C3 62 2.157
50 C3 63 2.645
50 C3 64 2.645
50 C3 65 2.157
50 C3 66 1.668
50 C3 67 0.692
50 C3 68 -1.750
50 C3 69 -4.191
50 C3 70 -7.609
50 C3 71 -11.027
50 C3 72 -13.468
50 C3 73 -14.445
50 C3 74 -14.445
50 C3 75 -12.492
50 C3 76 -11.027
50 C3 77 -9.562
50 C3 78 -8.097
50 C3 79 -6.144
50 C3 80 -2.726
50 C3 81 0.692
50 C3 82 3.621
50 C3 83 5.575
50 C3 84 6.063
50 C3 85 5.575
50 C3 86 6.551
50 C3 87 8.016
50 C3 88 10.457
50 C3 89 11.922
50 C3 90 11.922
50 C3 91 11.434
50 C3 92 10.457
50 C3 93 9.481
50 C3 94 9.969
50 C3 95 10.457
50 C3 96 9.969
50 C3 97 8.993
50 C3 98 7.039
50 C3 99 5.086
50 C3 100 3.621
50 C3 101 1.668
50 C3 102 -0.773
50 C3 103 -3.703
50 C3 104 -6.632
50 C3 105 -8.097
50 C3 106 -7.609
50 C3 107 -5.168
50 C3 108 -2.238
50 C3 109 0.203
50 C3 110 2.645
50 C3 111 4.598
50 C3 112 7.039
50 C3 113 8.016
50 C3 114 8.504
50 C3 115 8.016
50 C3 116 6.551
50 C3 117 5.086
50 C3 118 5.086
50 C3 119 5.575
50 C3 120 5.575
50 C3 121 5.086
50 C3 122 3.133
50 C3 123 1.180
50 C3 124 -1.261
50 C3 125 -2.726
50 C3 126 -4.679
50 C3 127 -7.121
50 C3 128 -9.562
50 C3 129 -11.515
50 C3 130 -12.492
50 C3 131 -12.492
50 C3 132 -12.004
50 C3 133 -11.027
50 C3 134 -9.562
50 C3 135 -7.121
50 C3 136 -3.703
50 C3 137 0.203
50 C3 138 3.621
50 C3 139 6.063
50 C3 140 7.039
50 C3 141 7.528
50 C3 142 7.528
50 C3 143 7.528
50 C3 144 7.039
50 C3 145 6.063
50 C3 146 4.598
50 C3 147 4.598
50 C3 148 5.086
50 C3 149 6.063
50 C3 150 6.063
50 C3 151 3.621
50 C3 152 0.203
50 C3 153 -3.703
50 C3 154 -6.144
50 C3 155 -7.121
50 C3 156 -6.632
50 C3 157 -6.144
50 C3 158 -6.144
50 C3 159 -7.121
50 C3 160 -7.609
50 C3 161 -8.586
50 C3 162 -9.074
50 C3 163 -9.074
50 C3 164 -7.609
50 C3 165 -5.168
50 C3 166 -1.750
50 C3 167 1.668
50 C3 168 4.598
50 C3 169 6.063
50 C3 170 5.575
50 C3 171 5.086
50 C3 172 4.110
50 C3 173 3.621
50 C3 174 3.133
50 C3 175 2.645
50 C3 176 2.157
50 C3 177 0.692
50 C3 178 -1.750
50 C3 179 -3.703
50 C3 180 -6.144
50 C3 181 -7.609
50 C3 182 -8.586
50 C3 183 -9.074
50 C3 184 -8.097
50 C3 185 -7.121
50 C3 186 -5.656
50 C3 187 -4.191
50 C3 188 -2.238
50 C3 189 -0.773
50 C3 190 0.692
50 C3 191 1.668
50 C3 192 2.645
50 C3 193 3.621
50 C3 194 5.086
50 C3 195 6.551
50 C3 196 7.528
50 C3 197 8.016
50 C3 198 6.551
50 C3 199 4.110
50 C3 200 1.668
50 C3 201 -0.285
50 C3 202 -0.773
50 C3 203 -1.261
50 C3 204 -1.261
50 C3 205 -2.238
50 C3 206 -3.703
50 C3 207 -5.168
50 C3 208 -7.121
50 C3 209 -8.097
50 C3 210 -10.050
50 C3 211 -11.515
50 C3 212 -12.004
50 C3 213 -12.004
50 C3 214 -10.050
50 C3 215 -7.121
50 C3 216 -3.703
50 C3 217 -1.750
50 C3 218 -0.773
50 C3 219 -1.261
50 C3 220 -1.750
50 C3 221 -2.726
50 C3 222 -3.215
50 C3 223 -4.191
50 C3 224 -4.679
50 C3 225 -4.191
50 C3 226 -3.215
50 C3 227 -1.261
50 C3 228 -0.773
50 C3 229 -1.750
50 C3 230 -3.703
50 C3 231 -6.632
50 C3 232 -9.074
50 C3 233 -10.539
50 C3 234 -11.515
50 C3 235 -12.004
50 C3 236 -12.004
50 C3 237 -12.004
50 C3 238 -10.539
50 C3 239 -7.121
50 C3 240 -2.726
50 C3 241 2.157
50 C3 242 5.575
50 C3 243 6.551
50 C3 244 5.575
50 C3 245 3.621
50 C3 246 3.133
50 C3 247 3.621
50 C3 248 5.575
50 C3 249 7.528
50 C3 250 7.528
50 C3 251 5.575
50 C3 252 2.645
50 C3 253 0.692
50 C3 254 -0.285
50 C3 255 0.203
# C4 chan 17
50 C4 0 3.733
50 C4 1 4.222
50 C4 2 3.245
50 C4 3 0.804
50 C4 4 -1.149
50 C4 5 -1.638
50 C4 6 -0.661
50 C4 7 0.804
50 C4 8 2.268
50 C4 9 3.245
50 C4 10 2.757
50 C4 11 0.315
50 C4 12 -2.126
50 C4 13 -4.079
50 C4 14 -5.544
50 C4 15 -6.032
50 C4 16 -5.544
50 C4 17 -5.056
50 C4 18 -5.544
50 C4 19 -6.521
50 C4 20 -7.497
50 C4 21 -8.962
50 C4 22 -9.450
50 C4 23 -9.450
50 C4 24 -8.474
50 C4 25 -7.009
50 C4 26 -6.032
50 C4 27 -4.567
50 C4 28 -3.591
50 C4 29 -2.614
50 C4 30 -1.638
50 C4 31 -1.149
50 C4 32 -0.173
50 C4 33 0.315
50 C4 34 1.292
50 C4 35 1.780
50 C4 36 2.268
50 C4 37 2.757
50 C4 38 2.268
50 C4 39 0.804
50 C4 40 -0.661
50 C4 41 -3.103
50 C4 42 -6.521
50 C4 43 -10.427
50 C4 44 -14.333
50 C4 45 -16.286
50 C4 46 -15.798
50 C4 47 -12.868
50 C4 48 -8.962
50 C4 49 -6.032
50 C4 50 -4.567
50 C4 51 -4.567
50 C4 52 -5.056
50 C4 53 -4.567
50 C4 54 -3.591
50 C4 55 -2.126
50 C4 56 -1.149
50 C4 57 -1.149
50 C4 58 -2.126
50 C4 59 -2.614
50 C4 60 -2.614
50 C4 61 -2.614
50 C4 62 -3.591
50 C4 63 -5.056
50 C4 64 -7.497
50 C4 65 -9.939
50 C4 66 -12.380
50 C4 67 -12.868
50 C4 68 -12.380
50 C4 69 -10.427
50 C4 70 -7.985
50 C4 71 -5.544
50 C4 72 -3.103
50 C4 73 -1.638
50 C4 74 -0.173
50 C4 75 0.315
50 C4 76 -0.173
50 C4 77 -1.149
50 C4 78 -3.103
50 C4 79 -4.079
50 C4 80 -4.567
50 C4 81 -2.126
50 C4 82 1.780
50 C4 83 5.686
50 C4 84 8.616
50 C4 85 8.616
50 C4 86 6.663
50 C4 87 2.757
50 C4 88 -0.661
50 C4 89 -3.591
50 C4 90 -6.032
50 C4 91 -7.497
50 C4 92 -8.962
50 C4 93 -10.915
50 C4 94 -11.892
50 C4 95 -12.380
50 C4 96 -11.892
50 C4 97 -10.427
50 C4 98 -8.962
50 C4 99 -7.497
50 C4 100 -5.544
50 C4 101 -4.079
50 C4 102 -2.126
50 C4 103 0.315
50 C4 104 2.268
50 C4 105 3.733
50 C4 106 4.222
50 C4 107 3.733
50 C4 108 2.757
50 C4 109 1.292
50 C4 110 0.315
50 C4 111 -0.173
50 C4 112 -0.173
50 C4 113 -0.661
50 C4 114 -2.126
50 C4 115 -4.567
50 C4 116 -7.497
50 C4 117 -10.427
50 C4 118 -12.868
50 C4 119 -13.845
50 C4 120 -14.333
50 C4 121 -14.333
50 C4 122 -13.357
50 C4 123 -11.403
50 C4 124 -8.962
50 C4 125 -6.032
50 C4 126 -3.591
50 C4 127 -2.126
50 C4 128 -2.614
50 C4 129 -4.079
50 C4 130 -5.056
50 C4 131 -6.521
50 C4 132 -7.009
50 C4 133 -7.497
50 C4 134 -7.985
50 C4 135 -7.985
50 C4 136 -7.009
50 C4 137 -6.521
50 C4 138 -5.056
50 C4 139 -4.079
50 C4 140 -4.567
50 C4 141 -6.032
50 C4 142 -7.985
50 C4 143 -9.450
50 C4 144 -10.915
50 C4 145 -11.892
50 C4 146 -12.868
50 C4 147 -14.333
50 C4 148 -15.798
50 C4 149 -16.774
50 C4 150 -15.798
50 C4 151 -13.845
50 C4 152 -11.892
50 C4 153 -9.450
50 C4 154 -8.474
50 C4 155 -7.497
50 C4 156 -6.032
50 C4 157 -4.567
50 C4 158 -2.126
50 C4 159 -0.661
50 C4 160 -0.661
50 C4 161 -1.638
50 C4 162 -4.079
50 C4 163 -6.521
50 C4 164 -8.962
50 C4 165 -11.892
50 C4 166 -13.357
50 C4 167 -14.821
50 C4 168 -14.821
50 C4 169 -12.868
50 C4 170 -10.915
50 C4 171 -8.474
50 C4 172 -7.009
50 C4 173 -6.032
50 C4 174 -6.032
50 C4 175 -5.544
50 C4 176 -5.056
50 C4 177 -4.079
50 C4 178 -2.614
50 C4 179 -1.638
50 C4 180 -1.149
50 C4 181 -1.149
50 C4 182 -2.126
50 C4 183 -3.591
50 C4 184 -5.056
50 C4 185 -6.032
50 C4 186 -5.544
50 C4 187 -4.079
50 C4 188 -3.103
50 C4 189 -2.614
50 C4 190 -3.591
50 C4 191 -5.056
50 C4 192 -7.497
50 C4 193 -8.474
50 C4 194 -7.497
50 C4 195 -6.032
50 C4 196 -3.591
50 C4 197 -2.614
50 C4 198 -2.126
50 C4 199 -2.614
50 C4 200 -3.103
50 C4 201 -3.103
50 C4 202 -3.103
50 C4 203 -2.126
50 C4 204 -1.638
50 C4 205 -1.149
50 C4 206 -0.661
50 C4 207 0.315
50 C4 208 1.780
50 C4 209 2.757
50 C4 210 3.245
50 C4 211 3.245
50 C4 212 2.757
50 C4 213 1.780
50 C4 214 0.804
50 C4 215 -0.661
50 C4 216 -2.614
50 C4 217 -3.591
50 C4 218 -5.056
50 C4 219 -5.056
50 C4 220 -4.567
50 C4 221 -3.591
50 C4 222 -2.126
50 C4 223 -1.638
50 C4 224 -1.638
50 C4 225 -1.638
50 C4 226 -1.638
50 C4 227 -2.126
50 C4 228 -2.126
50 C4 229 -2.126
50 C4 230 -2.126
50 C4 231 -1.638
50 C4 232 -0.661
50 C4 233 -0.173
50 C4 234 0.804
50 C4 235 0.804
50 C4 236 1.292
50 C4 237 1.292
50 C4 238 -0.173
50 C4 239 -1.638
50 C4 240 -4.079
50 C4 241 -5.056
50 C4 242 -4.567
50 C4 243 -2.614
50 C4 244 0.315
50 C4 245 2.268
50 C4 246 1.292
50 C4 247 -2.614
50 C4 248 -7.009
50 C4 249 -9.939
50 C4 250 -11.403
50 C4 251 -10.427
50 C4 252 -8.474
50 C4 253 -7.497
50 C4 254 -7.009
50 C4 255 -7.497
# CP5 chan 18
50 CP5 0 4.333
50 CP5 1 3.845
50 CP5 2 3.845
50 CP5 3 4.333
50 CP5 4 4.333
50 CP5 5 4.333
50 CP5 6 4.822
50 CP5 7 5.798
50 CP5 8 6.287
50 CP5 9 4.333
50 CP5 10 1.892
50 CP5 11 -1.038
50 CP5 12 -2.991
50 CP5 13 -4.456
50 CP5 14 -4.456
50 CP5 15 -4.456
50 CP5 16 -4.944
50 CP5 17 -5.920
50 CP5 18 -6.897
50 CP5 19 -6.409
50 CP5 20 -4.944
50 CP5 21 -3.967
50 CP5 22 -3.479
50 CP5 23 -2.991
50 CP5 24 -2.502
50 CP5 25 -1.038
50 CP5 26 1.404
50 CP5 27 3.845
50 CP5 28 4.333
50 CP5 29 3.357
50 CP5 30 0.916
50 CP5 31 -2.014
50 CP5 32 -3.967
50 CP5 33 -4.944
50 CP5 34 -4.944
50 CP5 35 -4.944
50 CP5 36 -4.944
50 CP5 37 -3.479
50 CP5 38 -1.526
50 CP5 39 1.892
50 CP5 40 4.333
50 CP5 41 4.822
50 CP5 42 3.357
50 CP5 43 -0.549
50 CP5 44 -4.944
50 CP5 45 -8.362
50 CP5 46 -9.827
50 CP5 47 -9.827
50 CP5 48 -8.362
50 CP5 49 -6.409
50 CP5 50 -4.456
50 CP5 51 -2.014
50 CP5 52 0.427
50 CP5 53 3.357
50 CP5 54 5.310
50 CP5 55 6.287
50 CP5 56 6.287
50 CP5 57 4.822
50 CP5 58 3.357
50 CP5 59 1.892
50 CP5 60 0.916
50 CP5 61 0.916
50 CP5 62 0.427
50 CP5 63 0.427
50 CP5 64 -0.549
50 CP5 65 -2.014
50 CP5 66 -3.479
50 CP5 67 -5.920
50 CP5 68 -8.362
50 CP5 69 -11.292
50 CP5 70 -14.221
50 CP5 71 -17.151
50 CP5 72 -19.104
50 CP5 73 -19.592
50 CP5 74 -19.104
50 CP5 75 -18.127
50 CP5 76 -17.151
50 CP5 77 -16.174
50 CP5 78 -15.198
50 CP5 79 -12.756
50 CP5 80 -8.850
50 CP5 81 -4.944
50 CP5 82 -1.526
50 CP5 83 0.427
50 CP5 84 0.916
50 CP5 85 1.404
50 CP5 86 2.380
50 CP5 87 3.845
50 CP5 88 6.287
50 CP5 89 8.240
50 CP5 90 9.705
50 CP5 91 10.193
50 CP5 92 10.193
50 CP5 93 10.681
50 CP5 94 10.681
50 CP5 95 10.193
50 CP5 96 8.240
50 CP5 97 6.287
50 CP5 98 4.333
50 CP5 99 2.869
50 CP5 100 1.892
50 CP5 101 0.916
50 CP5 102 -1.526
50 CP5 103 -4.456
50 CP5 104 -6.409
50 CP5 105 -7.385
50 CP5 106 -5.920
50 CP5 107 -2.991
50 CP5 108 -0.549
50 CP5 109 1.892
50 CP5 110 2.869
50 CP5 111 4.333
50 CP5 112 5.798
50 CP5 113 6.775
50 CP5 114 7.751
50 CP5 115 7.263
50 CP5 116 5.310
50 CP5 117 4.333
50 CP5 118 3.357
50 CP5 119 2.869
50 CP5 120 1.892
50 CP5 121 -0.549
50 CP5 122 -3.967
50 CP5 123 -7.385
50 CP5 124 -9.827
50 CP5 125 -11.292
50 CP5 126 -12.268
50 CP5 127 -13.733
50 CP5 128 -15.686
50 CP5 129 -17.639
50 CP5 130 -19.104
50 CP5 131 -18.616
50 CP5 132 -18.616
50 CP5 133 -17.639
50 CP5 134 -16.174
50 CP5 135 -13.733
50 CP5 136 -9.827
50 CP5 137 -4.944
50 CP5 138 0.427
50 CP5 139 3.357
50 CP5 140 4.333
50 CP5 141 3.357
50 CP5 142 1.892
50 CP5 143 0.916
50 CP5 144 0.427
50 CP5 145 0.916
50 CP5 146 2.869
50 CP5 147 5.310
50 CP5 148 9.216
50 CP5 149 12.146
50 CP5 150 13.123
50 CP5 151 11.169
50 CP5 152 5.310
50 CP5 153 -1.038
50 CP5 154 -6.897
50 CP5 155 -10.315
50 CP5 156 -10.315
50 CP5 157 -8.850
50 CP5 158 -6.897
50 CP5 159 -6.897
50 CP5 160 -7.385
50 CP5 161 -9.338
50 CP5 162 -11.292
50 CP5 163 -13.245
50 CP5 164 -13.245
50 CP5 165 -11.780
50 CP5 166 -8.362
50 CP5 167 -3.479
50 CP5 168 0.916
50 CP5 169 4.333
50 CP5 170 5.798
50 CP5 171 5.310
50 CP5 172 4.333
50 CP5 173 2.380
50 CP5 174 1.404
50 CP5 175 -0.061
50 CP5 176 -1.526
50 CP5 177 -3.479
50 CP5 178 -6.409
50 CP5 179 -9.338
50 CP5 180 -11.780
50 CP5 181 -13.733
50 CP5 182 -14.709
50 CP5 183 -14.709
50 CP5 184 -14.221
50 CP5 185 -13.245
50 CP5 186 -11.292
50 CP5 187 -9.338
50 CP5 188 -6.897
50 CP5 189 -4.944
50 CP5 190 -3.967
50 CP5 191 -2.991
50 CP5 192 -2.014
50 CP5 193 0.427
50 CP5 194 2.869
50 CP5 195 6.287
50 CP5 196 8.728
50 CP5 197 9.705
50 CP5 198 8.728
50 CP5 199 6.287
50 CP5 200 3.845
50 CP5 201 1.404
50 CP5 202 -0.549
50 CP5 203 -2.502
50 CP5 204 -3.967
50 CP5 205 -5.920
50 CP5 206 -7.874
50 CP5 207 -9.827
50 CP5 208 -11.292
50 CP5 209 -12.756
50 CP5 210 -14.221
50 CP5 211 -15.686
50 CP5 212 -16.663
50 CP5 213 -16.663
50 CP5 214 -14.709
50 CP5 215 -11.780
50 CP5 216 -8.850
50 CP5 217 -6.897
50 CP5 218 -6.897
50 CP5 219 -7.874
50 CP5 220 -9.827
50 CP5 221 -11.780
50 CP5 222 -12.268
50 CP5 223 -12.756
50 CP5 224 -11.780
50 CP5 225 -10.315
50 CP5 226 -8.850
50 CP5 227 -7.385
50 CP5 228 -7.385
50 CP5 229 -7.874
50 CP5 230 -9.827
50 CP5 231 -12.756
50 CP5 232 -16.174
50 CP5 233 -19.104
50 CP5 234 -21.545
50 CP5 235 -23.987
50 CP5 236 -24.963
50 CP5 237 -24.475
50 CP5 238 -22.034
50 CP5 239 -16.663
50 CP5 240 -9.827
50 CP5 241 -2.014
50 CP5 242 3.845
50 CP5 243 6.775
50 CP5 244 7.263
50 CP5 245 5.310
50 CP5 246 3.357
50 CP5 247 2.380
50 CP5 248 1.892
50 CP5 249 1.892
50 CP5 250 0.427
50 CP5 251 -2.014
50 CP5 252 -4.456
50 CP5 253 -5.920
50 CP5 254 -5.920
50 CP5 255 -4.944
# CP6 chan 19
50 CP6 0 1.211
50 CP6 1 0.722
50 CP6 2 -0.743
50 CP6 3 -3.184
50 CP6 4 -5.625
50 CP6 5 -7.090
50 CP6 6 -6.114
50 CP6 7 -3.672
50 CP6 8 -1.231
50 CP6 9 -0.254
50 CP6 10 -2.207
50 CP6 11 -6.114
50 CP6 12 -10.997
50 CP6 13 -14.903
50 CP6 14 -16.368
50 CP6 15 -15.879
50 CP6 16 -14.414
50 CP6 17 -13.438
50 CP6 18 -12.950
50 CP6 19 -12.950
50 CP6 20 -12.461
50 CP6 21 -12.950
50 CP6 22 -12.461
50 CP6 23 -12.461
50 CP6 24 -11.485
50 CP6 25 -10.997
50 CP6 26 -9.043
50 CP6 27 -7.090
50 CP6 28 -6.114
50 CP6 29 -5.625
50 CP6 30 -6.114
50 CP6 31 -7.090
50 CP6 32 -8.555
50 CP6 33 -10.020
50 CP6 34 -10.508
50 CP6 35 -10.508
50 CP6 36 -10.020
50 CP6 37 -9.532
50 CP6 38 -8.555
50 CP6 39 -8.555
50 CP6 40 -8.555
50 CP6 41 -10.020
50 CP6 42 -13.438
50 CP6 43 -18.321
50 CP6 44 -22.715
50 CP6 45 -25.645
50 CP6 46 -25.645
50 CP6 47 -23.204
50 CP6 48 -19.297
50 CP6 49 -16.368
50 CP6 50 -14.414
50 CP6 51 -12.950
50 CP6 52 -12.461
50 CP6 53 -10.508
50 CP6 54 -8.067
50 CP6 55 -6.114
50 CP6 56 -5.625
50 CP6 57 -6.602
50 CP6 58 -8.067
50 CP6 59 -10.020
50 CP6 60 -10.508
50 CP6 61 -10.508
50 CP6 62 -10.997
50 CP6 63 -12.461
50 CP6 64 -14.903
50 CP6 65 -16.856
50 CP6 66 -18.321
50 CP6 67 -18.809
50 CP6 68 -17.832
50 CP6 69 -16.856
50 CP6 70 -15.879
50 CP6 71 -14.414
50 CP6 72 -13.438
50 CP6 73 -11.973
50 CP6 74 -10.508
50 CP6 75 -10.508
50 CP6 76 -11.485
50 CP6 77 -12.950
50 CP6 78 -15.391
50 CP6 79 -16.368
50 CP6 80 -14.903
50 CP6 81 -11.485
50 CP6 82 -6.602
50 CP6 83 -1.719
50 CP6 84 1.211
50 CP6 85 1.211
50 CP6 86 -1.231
50 CP6 87 -4.649
50 CP6 88 -8.067
50 CP6 89 -10.508
50 CP6 90 -11.485
50 CP6 91 -11.485
50 CP6 92 -11.485
50 CP6 93 -11.973
50 CP6 94 -13.438
50 CP6 95 -13.926
50 CP6 96 -14.414
50 CP6 97 -13.926
50 CP6 98 -12.461
50 CP6 99 -10.508
50 CP6 100 -8.555
50 CP6 101 -7.090
50 CP6 102 -5.625
50 CP6 103 -4.161
50 CP6 104 -2.207
50 CP6 105 -0.743
50 CP6 106 0.722
50 CP6 107 0.722
50 CP6 108 -0.254
50 CP6 109 -2.696
50 CP6 110 -4.161
50 CP6 111 -5.137
50 CP6 112 -4.649
50 CP6 113 -4.649
50 CP6 114 -6.114
50 CP6 115 -9.043
50 CP6 116 -13.438
50 CP6 117 -17.832
50 CP6 118 -20.762
50 CP6 119 -22.227
50 CP6 120 -22.227
50 CP6 121 -21.250
50 CP6 122 -20.274
50 CP6 123 -17.832
50 CP6 124 -14.903
50 CP6 125 -11.485
50 CP6 126 -9.043
50 CP6 127 -8.555
50 CP6 128 -10.508
50 CP6 129 -13.438
50 CP6 130 -15.879
50 CP6 131 -16.856
50 CP6 132 -16.856
50 CP6 133 -15.879
50 CP6 134 -15.391
50 CP6 135 -14.414
50 CP6 136 -11.973
50 CP6 137 -8.555
50 CP6 138 -5.137
50 CP6 139 -3.184
50 CP6 140 -4.161
50 CP6 141 -7.090
50 CP6 142 -11.973
50 CP6 143 -15.879
50 CP6 144 -19.297
50 CP6 145 -21.739
50 CP6 146 -23.692
50 CP6 147 -26.133
50 CP6 148 -27.598
50 CP6 149 -26.622
50 CP6 150 -23.692
50 CP6 151 -19.297
50 CP6 152 -15.391
50 CP6 153 -13.438
50 CP6 154 -12.950
50 CP6 155 -12.461
50 CP6 156 -11.485
50 CP6 157 -8.555
50 CP6 158 -5.137
50 CP6 159 -2.696
50 CP6 160 -2.207
50 CP6 161 -4.161
50 CP6 162 -7.579
50 CP6 163 -11.485
50 CP6 164 -14.903
50 CP6 165 -17.344
50 CP6 166 -18.809
50 CP6 167 -19.297
50 CP6 168 -17.832
50 CP6 169 -14.903
50 CP6 170 -11.485
50 CP6 171 -8.555
50 CP6 172 -7.090
50 CP6 173 -6.602
50 CP6 174 -6.602
50 CP6 175 -6.602
50 CP6 176 -6.114
50 CP6 177 -4.649
50 CP6 178 -3.672
50 CP6 179 -3.672
50 CP6 180 -4.649
50 CP6 181 -6.114
50 CP6 182 -8.555
50 CP6 183 -10.997
50 CP6 184 -13.926
50 CP6 185 -15.879
50 CP6 186 -16.368
50 CP6 187 -15.391
50 CP6 188 -13.438
50 CP6 189 -12.461
50 CP6 190 -12.461
50 CP6 191 -13.926
50 CP6 192 -15.391
50 CP6 193 -14.903
50 CP6 194 -13.438
50 CP6 195 -10.020
50 CP6 196 -7.090
50 CP6 197 -5.137
50 CP6 198 -5.137
50 CP6 199 -6.114
50 CP6 200 -7.579
50 CP6 201 -8.555
50 CP6 202 -10.020
50 CP6 203 -10.508
50 CP6 204 -10.020
50 CP6 205 -9.532
50 CP6 206 -8.555
50 CP6 207 -7.579
50 CP6 208 -6.602
50 CP6 209 -6.602
50 CP6 210 -6.602
50 CP6 211 -7.579
50 CP6 212 -8.555
50 CP6 213 -10.020
50 CP6 214 -11.485
50 CP6 215 -12.461
50 CP6 216 -13.926
50 CP6 217 -14.414
50 CP6 218 -15.391
50 CP6 219 -16.368
50 CP6 220 -17.344
50 CP6 221 -18.809
50 CP6 222 -19.297
50 CP6 223 -18.809
50 CP6 224 -17.832
50 CP6 225 -15.879
50 CP6 226 -13.438
50 CP6 227 -10.997
50 CP6 228 -9.043
50 CP6 229 -8.555
50 CP6 230 -8.555
50 CP6 231 -9.043
50 CP6 232 -9.043
50 CP6 233 -9.043
50 CP6 234 -9.043
50 CP6 235 -8.067
50 CP6 236 -7.579
50 CP6 237 -7.579
50 CP6 238 -8.067
50 CP6 239 -9.532
50 CP6 240 -11.485
50 CP6 241 -11.973
50 CP6 242 -10.508
50 CP6 243 -7.579
50 CP6 244 -4.649
50 CP6 245 -3.672
50 CP6 246 -5.625
50 CP6 247 -10.508
50 CP6 248 -16.368
50 CP6 249 -21.250
50 CP6 250 -22.715
50 CP6 251 -22.227
50 CP6 252 -19.786
50 CP6 253 -17.344
50 CP6 254 -15.879
50 CP6 255 -13.926
# CP1 chan 20
50 CP1 0 -2.004
50 CP1 1 -2.981
50 CP1 2 -3.469
50 CP1 3 -4.445
50 CP1 4 -5.422
50 CP1 5 -5.422
50 CP1 6 -4.445
50 CP1 7 -2.492
50 CP1 8 -0.051
50 CP1 9 0.926
50 CP1 10 0.926
50 CP1 11 -0.539
50 CP1 12 -1.516
50 CP1 13 -1.516
50 CP1 14 -1.516
50 CP1 15 -0.539
50 CP1 16 -0.539
50 CP1 17 -0.539
50 CP1 18 -1.027
50 CP1 19 -1.027
50 CP1 20 -0.539
50 CP1 21 -0.051
50 CP1 22 -0.539
50 CP1 23 -1.516
50 CP1 24 -2.492
50 CP1 25 -3.957
50 CP1 26 -3.957
50 CP1 27 -3.957
50 CP1 28 -3.957
50 CP1 29 -3.957
50 CP1 30 -5.422
50 CP1 31 -6.887
50 CP1 32 -8.352
50 CP1 33 -9.816
50 CP1 34 -10.305
50 CP1 35 -10.793
50 CP1 36 -11.281
50 CP1 37 -11.281
50 CP1 38 -10.305
50 CP1 39 -8.352
50 CP1 40 -5.910
50 CP1 41 -4.445
50 CP1 42 -3.957
50 CP1 43 -4.934
50 CP1 44 -6.887
50 CP1 45 -8.352
50 CP1 46 -8.352
50 CP1 47 -7.375
50 CP1 48 -6.399
50 CP1 49 -4.934
50 CP1 50 -3.469
50 CP1 51 -2.004
50 CP1 52 -0.539
50 CP1 53 1.414
50 CP1 54 2.879
50 CP1 55 3.367
50 CP1 56 2.879
50 CP1 57 2.879
50 CP1 58 2.391
50 CP1 59 1.902
50 CP1 60 0.926
50 CP1 61 0.437
50 CP1 62 -0.051
50 CP1 63 0.437
50 CP1 64 0.926
50 CP1 65 0.926
50 CP1 66 -0.051
50 CP1 67 -1.516
50 CP1 68 -3.957
50 CP1 69 -6.399
50 CP1 70 -7.863
50 CP1 71 -9.328
50 CP1 72 -10.305
50 CP1 73 -11.770
50 CP1 74 -12.746
50 CP1 75 -13.234
50 CP1 76 -13.234
50 CP1 77 -12.258
50 CP1 78 -10.793
50 CP1 79 -8.840
50 CP1 80 -6.399
50 CP1 81 -4.934
50 CP1 82 -3.469
50 CP1 83 -2.981
50 CP1 84 -2.981
50 CP1 85 -2.981
50 CP1 86 -2.492
50 CP1 87 -1.516
50 CP1 88 -0.539
50 CP1 89 0.437
50 CP1 90 0.926
50 CP1 91 1.414
50 CP1 92 1.902
50 CP1 93 2.391
50 CP1 94 2.391
50 CP1 95 2.391
50 CP1 96 1.414
50 CP1 97 0.926
50 CP1 98 -0.051
50 CP1 99 -1.027
50 CP1 100 -2.004
50 CP1 101 -3.469
50 CP1 102 -5.422
50 CP1 103 -7.863
50 CP1 104 -9.328
50 CP1 105 -9.816
50 CP1 106 -9.816
50 CP1 107 -9.816
50 CP1 108 -9.328
50 CP1 109 -8.840
50 CP1 110 -7.863
50 CP1 111 -6.399
50 CP1 112 -3.957
50 CP1 113 -1.027
50 CP1 114 1.414
50 CP1 115 2.391
50 CP1 116 1.902
50 CP1 117 0.926
50 CP1 118 0.437
50 CP1 119 0.437
50 CP1 120 0.437
50 CP1 121 -0.539
50 CP1 122 -2.004
50 CP1 123 -3.957
50 CP1 124 -4.934
50 CP1 125 -4.934
50 CP1 126 -4.445
50 CP1 127 -4.445
50 CP1 128 -5.422
50 CP1 129 -6.399
50 CP1 130 -7.863
50 CP1 131 -8.352
50 CP1 132 -8.352
50 CP1 133 -7.863
50 CP1 134 -7.863
50 CP1 135 -7.863
50 CP1 136 -6.887
50 CP1 137 -5.422
50 CP1 138 -2.492
50 CP1 139 -0.051
50 CP1 140 1.414
50 CP1 141 1.414
50 CP1 142 0.437
50 CP1 143 0.437
50 CP1 144 -0.051
50 CP1 145 0.437
50 CP1 146 0.926
50 CP1 147 1.902
50 CP1 148 3.367
50 CP1 149 4.832
50 CP1 150 5.809
50 CP1 151 5.809
50 CP1 152 4.832
50 CP1 153 2.391
50 CP1 154 -0.051
50 CP1 155 -2.004
50 CP1 156 -2.492
50 CP1 157 -2.004
50 CP1 158 -1.516
50 CP1 159 -2.004
50 CP1 160 -3.469
50 CP1 161 -5.422
50 CP1 162 -7.375
50 CP1 163 -8.840
50 CP1 164 -9.328
50 CP1 165 -8.840
50 CP1 166 -7.375
50 CP1 167 -5.422
50 CP1 168 -3.469
50 CP1 169 -1.027
50 CP1 170 0.926
50 CP1 171 1.902
50 CP1 172 1.902
50 CP1 173 1.414
50 CP1 174 0.437
50 CP1 175 -0.539
50 CP1 176 -1.027
50 CP1 177 -1.516
50 CP1 178 -2.492
50 CP1 179 -3.957
50 CP1 180 -5.910
50 CP1 181 -6.887
50 CP1 182 -7.863
50 CP1 183 -8.352
50 CP1 184 -8.840
50 CP1 185 -8.840
50 CP1 186 -8.352
50 CP1 187 -8.352
50 CP1 188 -7.375
50 CP1 189 -6.399
50 CP1 190 -5.422
50 CP1 191 -3.957
50 CP1 192 -2.492
50 CP1 193 -0.051
50 CP1 194 1.902
50 CP1 195 3.855
50 CP1 196 5.320
50 CP1 197 6.785
50 CP1 198 6.785
50 CP1 199 6.297
50 CP1 200 5.320
50 CP1 201 3.855
50 CP1 202 2.391
50 CP1 203 1.902
50 CP1 204 1.414
50 CP1 205 0.926
50 CP1 206 -0.051
50 CP1 207 -1.027
50 CP1 208 -2.981
50 CP1 209 -4.445
50 CP1 210 -5.910
50 CP1 211 -6.887
50 CP1 212 -7.863
50 CP1 213 -8.352
50 CP1 214 -8.840
50 CP1 215 -8.352
50 CP1 216 -7.375
50 CP1 217 -6.399
50 CP1 218 -4.934
50 CP1 219 -3.957
50 CP1 220 -3.957
50 CP1 221 -4.445
50 CP1 222 -4.934
50 CP1 223 -4.445
50 CP1 224 -3.469
50 CP1 225 -2.004
50 CP1 226 -1.027
50 CP1 227 -0.051
50 CP1 228 -0.539
50 CP1 229 -2.004
50 CP1 230 -3.957
50 CP1 231 -5.910
50 CP1 232 -7.375
50 CP1 233 -8.840
50 CP1 234 -9.328
50 CP1 235 -8.352
50 CP1 236 -7.375
50 CP1 237 -5.910
50 CP1 238 -4.934
50 CP1 239 -3.957
50 CP1 240 -2.981
50 CP1 241 -1.516
50 CP1 242 -0.539
50 CP1 243 -0.539
50 CP1 244 -1.516
50 CP1 245 -3.469
50 CP1 246 -5.422
50 CP1 247 -6.399
50 CP1 248 -6.399
50 CP1 249 -4.934
50 CP1 250 -2.981
50 CP1 251 -2.004
50 CP1 252 -1.516
50 CP1 253 -1.516
50 CP1 254 -1.027
50 CP1 255 -0.539
# CP2 chan 21
50 CP2 0 -0.315
50 CP2 1 -0.804
50 CP2 2 -1.780
50 CP2 3 -4.222
50 CP2 4 -7.151
50 CP2 5 -9.104
50 CP2 6 -10.081
50 CP2 7 -8.616
50 CP2 8 -6.663
50 CP2 9 -4.710
50 CP2 10 -3.733
50 CP2 11 -4.222
50 CP2 12 -5.198
50 CP2 13 -5.686
50 CP2 14 -6.175
50 CP2 15 -5.686
50 CP2 16 -5.198
50 CP2 17 -4.222
50 CP2 18 -4.222
50 CP2 19 -3.733
50 CP2 20 -3.733
50 CP2 21 -4.710
50 CP2 22 -5.686
50 CP2 23 -6.663
50 CP2 24 -7.640
50 CP2 25 -8.128
50 CP2 26 -7.640
50 CP2 27 -7.151
50 CP2 28 -6.663
50 CP2 29 -6.663
50 CP2 30 -7.640
50 CP2 31 -9.104
50 CP2 32 -10.081
50 CP2 33 -11.546
50 CP2 34 -12.522
50 CP2 35 -13.011
50 CP2 36 -13.011
50 CP2 37 -12.522
50 CP2 38 -12.034
50 CP2 39 -11.546
50 CP2 40 -10.569
50 CP2 41 -10.569
50 CP2 42 -11.546
50 CP2 43 -13.499
50 CP2 44 -14.964
50 CP2 45 -15.452
50 CP2 46 -14.476
50 CP2 47 -12.522
50 CP2 48 -10.569
50 CP2 49 -9.593
50 CP2 50 -9.104
50 CP2 51 -9.104
50 CP2 52 -9.104
50 CP2 53 -8.128
50 CP2 54 -7.151
50 CP2 55 -6.175
50 CP2 56 -5.686
50 CP2 57 -6.175
50 CP2 58 -6.663
50 CP2 59 -6.663
50 CP2 60 -6.663
50 CP2 61 -6.663
50 CP2 62 -7.151
50 CP2 63 -8.128
50 CP2 64 -9.104
50 CP2 65 -9.593
50 CP2 66 -10.569
50 CP2 67 -10.569
50 CP2 68 -10.569
50 CP2 69 -10.081
50 CP2 70 -8.616
50 CP2 71 -7.151
50 CP2 72 -6.175
50 CP2 73 -6.175
50 CP2 74 -6.663
50 CP2 75 -8.128
50 CP2 76 -9.593
50 CP2 77 -10.569
50 CP2 78 -11.058
50 CP2 79 -11.058
50 CP2 80 -10.081
50 CP2 81 -8.128
50 CP2 82 -6.175
50 CP2 83 -5.198
50 CP2 84 -5.198
50 CP2 85 -6.175
50 CP2 86 -8.128
50 CP2 87 -9.593
50 CP2 88 -11.058
50 CP2 89 -12.034
50 CP2 90 -12.522
50 CP2 91 -12.034
50 CP2 92 -11.546
50 CP2 93 -11.058
50 CP2 94 -11.058
50 CP2 95 -10.569
50 CP2 96 -10.569
50 CP2 97 -9.593
50 CP2 98 -8.128
50 CP2 99 -5.686
50 CP2 100 -4.222
50 CP2 101 -3.245
50 CP2 102 -2.757
50 CP2 103 -3.245
50 CP2 104 -3.245
50 CP2 105 -3.245
50 CP2 106 -3.733
50 CP2 107 -4.710
50 CP2 108 -6.663
50 CP2 109 -9.104
50 CP2 110 -10.569
50 CP2 111 -11.058
50 CP2 112 -10.569
50 CP2 113 -9.593
50 CP2 114 -9.104
50 CP2 115 -10.081
50 CP2 116 -12.034
50 CP2 117 -13.987
50 CP2 118 -14.964
50 CP2 119 -14.964
50 CP2 120 -14.964
50 CP2 121 -14.964
50 CP2 122 -14.476
50 CP2 123 -13.499
50 CP2 124 -11.058
50 CP2 125 -8.128
50 CP2 126 -5.686
50 CP2 127 -4.222
50 CP2 128 -4.222
50 CP2 129 -5.686
50 CP2 130 -6.663
50 CP2 131 -7.640
50 CP2 132 -8.128
50 CP2 133 -8.128
50 CP2 134 -8.616
50 CP2 135 -9.104
50 CP2 136 -9.104
50 CP2 137 -8.616
50 CP2 138 -8.128
50 CP2 139 -7.640
50 CP2 140 -8.616
50 CP2 141 -10.081
50 CP2 142 -12.034
50 CP2 143 -13.011
50 CP2 144 -13.011
50 CP2 145 -12.034
50 CP2 146 -11.546
50 CP2 147 -11.058
50 CP2 148 -10.569
50 CP2 149 -8.616
50 CP2 150 -6.663
50 CP2 151 -3.733
50 CP2 152 -2.268
50 CP2 153 -1.780
50 CP2 154 -2.757
50 CP2 155 -3.245
50 CP2 156 -2.757
50 CP2 157 -1.292
50 CP2 158 0.173
50 CP2 159 0.661
50 CP2 160 -0.315
50 CP2 161 -2.268
50 CP2 162 -4.710
50 CP2 163 -7.640
50 CP2 164 -9.593
50 CP2 165 -12.034
50 CP2 166 -14.476
50 CP2 167 -15.452
50 CP2 168 -15.452
50 CP2 169 -13.499
50 CP2 170 -11.058
50 CP2 171 -9.104
50 CP2 172 -8.128
50 CP2 173 -7.640
50 CP2 174 -8.128
50 CP2 175 -7.640
50 CP2 176 -6.663
50 CP2 177 -5.198
50 CP2 178 -3.733
50 CP2 179 -2.757
50 CP2 180 -2.268
50 CP2 181 -2.268
50 CP2 182 -2.757
50 CP2 183 -4.222
50 CP2 184 -6.175
50 CP2 185 -7.640
50 CP2 186 -8.128
50 CP2 187 -8.128
50 CP2 188 -8.128
50 CP2 189 -8.616
50 CP2 190 -9.593
50 CP2 191 -11.058
50 CP2 192 -11.546
50 CP2 193 -10.569
50 CP2 194 -8.128
50 CP2 195 -5.686
50 CP2 196 -3.245
50 CP2 197 -1.780
50 CP2 198 -1.292
50 CP2 199 -1.780
50 CP2 200 -2.268
50 CP2 201 -2.268
50 CP2 202 -2.757
50 CP2 203 -2.268
50 CP2 204 -1.780
50 CP2 205 -0.804
50 CP2 206 -0.315
50 CP2 207 0.173
50 CP2 208 0.173
50 CP2 209 0.173
50 CP2 210 -0.315
50 CP2 211 -0.804
50 CP2 212 -1.780
50 CP2 213 -3.733
50 CP2 214 -5.686
50 CP2 215 -7.640
50 CP2 216 -9.593
50 CP2 217 -11.058
50 CP2 218 -12.034
50 CP2 219 -12.522
50 CP2 220 -12.522
50 CP2 221 -12.522
50 CP2 222 -12.034
50 CP2 223 -10.569
50 CP2 224 -9.104
50 CP2 225 -7.640
50 CP2 226 -6.175
50 CP2 227 -4.710
50 CP2 228 -4.222
50 CP2 229 -4.222
50 CP2 230 -4.222
50 CP2 231 -4.710
50 CP2 232 -4.222
50 CP2 233 -3.733
50 CP2 234 -2.757
50 CP2 235 -1.780
50 CP2 236 -1.292
50 CP2 237 -1.780
50 CP2 238 -2.757
50 CP2 239 -4.222
50 CP2 240 -5.198
50 CP2 241 -5.686
50 CP2 242 -5.686
50 CP2 243 -5.198
50 CP2 244 -5.198
50 CP2 245 -7.151
50 CP2 246 -10.569
50 CP2 247 -14.964
50 CP2 248 -18.870
50 CP2 249 -20.335
50 CP2 250 -19.847
50 CP2 251 -17.405
50 CP2 252 -14.476
50 CP2 253 -11.546
50 CP2 254 -10.081
50 CP2 255 -8.616
# P3 chan 22
50 P3 0 1.424
50 P3 1 -0.041
50 P3 2 -1.506
50 P3 3 -2.970
50 P3 4 -4.924
50 P3 5 -5.412
50 P3 6 -4.924
50 P3 7 -3.459
50 P3 8 -1.994
50 P3 9 -2.482
50 P3 10 -3.947
50 P3 11 -6.388
50 P3 12 -6.877
50 P3 13 -6.388
50 P3 14 -5.412
50 P3 15 -4.924
50 P3 16 -5.412
50 P3 17 -5.900
50 P3 18 -4.924
50 P3 19 -3.459
50 P3 20 -1.994
50 P3 21 -1.017
50 P3 22 -1.506
50 P3 23 -2.482
50 P3 24 -2.482
50 P3 25 -1.994
50 P3 26 -0.529
50 P3 27 -0.041
50 P3 28 -0.529
50 P3 29 -2.482
50 P3 30 -5.412
50 P3 31 -7.365
50 P3 32 -9.318
50 P3 33 -10.783
50 P3 34 -11.759
50 P3 35 -13.224
50 P3 36 -13.224
50 P3 37 -13.224
50 P3 38 -11.271
50 P3 39 -9.318
50 P3 40 -7.365
50 P3 41 -6.877
50 P3 42 -8.341
50 P3 43 -10.783
50 P3 44 -14.201
50 P3 45 -17.131
50 P3 46 -17.619
50 P3 47 -17.131
50 P3 48 -14.689
50 P3 49 -12.736
50 P3 50 -10.295
50 P3 51 -7.853
50 P3 52 -4.924
50 P3 53 -1.506
50 P3 54 1.912
50 P3 55 3.866
50 P3 56 4.842
50 P3 57 4.354
50 P3 58 3.377
50 P3 59 1.912
50 P3 60 0.936
50 P3 61 0.448
50 P3 62 0.448
50 P3 63 -0.041
50 P3 64 -0.529
50 P3 65 -1.506
50 P3 66 -3.459
50 P3 67 -6.388
50 P3 68 -8.830
50 P3 69 -11.759
50 P3 70 -14.201
50 P3 71 -15.666
50 P3 72 -17.619
50 P3 73 -19.084
50 P3 74 -20.549
50 P3 75 -21.037
50 P3 76 -21.037
50 P3 77 -20.060
50 P3 78 -18.107
50 P3 79 -15.666
50 P3 80 -11.759
50 P3 81 -7.853
50 P3 82 -4.924
50 P3 83 -3.459
50 P3 84 -2.970
50 P3 85 -2.970
50 P3 86 -2.482
50 P3 87 -1.506
50 P3 88 -0.041
50 P3 89 1.424
50 P3 90 2.889
50 P3 91 4.354
50 P3 92 5.819
50 P3 93 6.795
50 P3 94 6.307
50 P3 95 4.354
50 P3 96 1.912
50 P3 97 -0.529
50 P3 98 -2.482
50 P3 99 -3.459
50 P3 100 -3.947
50 P3 101 -5.900
50 P3 102 -8.341
50 P3 103 -10.783
50 P3 104 -12.248
50 P3 105 -12.248
50 P3 106 -10.295
50 P3 107 -8.341
50 P3 108 -6.877
50 P3 109 -5.412
50 P3 110 -4.435
50 P3 111 -2.482
50 P3 112 -0.041
50 P3 113 2.401
50 P3 114 4.354
50 P3 115 5.330
50 P3 116 4.842
50 P3 117 3.866
50 P3 118 2.889
50 P3 119 1.424
50 P3 120 -0.529
50 P3 121 -3.947
50 P3 122 -6.877
50 P3 123 -9.806
50 P3 124 -11.271
50 P3 125 -11.759
50 P3 126 -11.759
50 P3 127 -12.736
50 P3 128 -14.201
50 P3 129 -15.666
50 P3 130 -16.642
50 P3 131 -16.642
50 P3 132 -15.666
50 P3 133 -15.666
50 P3 134 -15.666
50 P3 135 -14.689
50 P3 136 -12.248
50 P3 137 -7.853
50 P3 138 -3.459
50 P3 139 0.448
50 P3 140 1.424
50 P3 141 0.448
50 P3 142 -1.994
50 P3 143 -3.459
50 P3 144 -3.459
50 P3 145 -1.994
50 P3 146 0.448
50 P3 147 4.354
50 P3 148 8.748
50 P3 149 13.143
50 P3 150 15.584
50 P3 151 15.096
50 P3 152 10.701
50 P3 153 4.354
50 P3 154 -1.994
50 P3 155 -6.388
50 P3 156 -6.877
50 P3 157 -5.900
50 P3 158 -3.947
50 P3 159 -3.947
50 P3 160 -5.900
50 P3 161 -8.830
50 P3 162 -12.736
50 P3 163 -15.666
50 P3 164 -16.642
50 P3 165 -15.666
50 P3 166 -12.248
50 P3 167 -7.853
50 P3 168 -2.482
50 P3 169 1.912
50 P3 170 5.330
50 P3 171 6.307
50 P3 172 5.819
50 P3 173 3.866
50 P3 174 1.424
50 P3 175 -1.506
50 P3 176 -3.947
50 P3 177 -5.900
50 P3 178 -8.341
50 P3 179 -10.295
50 P3 180 -12.736
50 P3 181 -14.201
50 P3 182 -15.666
50 P3 183 -16.154
50 P3 184 -16.154
50 P3 185 -16.154
50 P3 186 -15.666
50 P3 187 -14.689
50 P3 188 -13.224
50 P3 189 -11.271
50 P3 190 -9.318
50 P3 191 -7.365
50 P3 192 -5.900
50 P3 193 -2.970
50 P3 194 -0.041
50 P3 195 3.377
50 P3 196 6.307
50 P3 197 7.772
50 P3 198 7.772
50 P3 199 6.795
50 P3 200 4.842
50 P3 201 2.401
50 P3 202 0.448
50 P3 203 -1.506
50 P3 204 -3.459
50 P3 205 -4.924
50 P3 206 -6.877
50 P3 207 -8.830
50 P3 208 -11.271
50 P3 209 -13.224
50 P3 210 -15.177
50 P3 211 -16.154
50 P3 212 -16.642
50 P3 213 -15.666
50 P3 214 -14.689
50 P3 215 -13.713
50 P3 216 -12.248
50 P3 217 -10.783
50 P3 218 -9.806
50 P3 219 -9.806
50 P3 220 -10.783
50 P3 221 -12.736
50 P3 222 -13.224
50 P3 223 -12.736
50 P3 224 -10.783
50 P3 225 -8.341
50 P3 226 -6.388
50 P3 227 -4.924
50 P3 228 -5.412
50 P3 229 -6.877
50 P3 230 -8.830
50 P3 231 -11.759
50 P3 232 -14.689
50 P3 233 -17.131
50 P3 234 -18.107
50 P3 235 -18.107
50 P3 236 -18.107
50 P3 237 -17.131
50 P3 238 -15.666
50 P3 239 -12.736
50 P3 240 -8.830
50 P3 241 -4.435
50 P3 242 -0.529
50 P3 243 1.424
50 P3 244 0.936
50 P3 245 -1.017
50 P3 246 -3.459
50 P3 247 -5.412
50 P3 248 -6.388
50 P3 249 -6.877
50 P3 250 -6.877
50 P3 251 -6.877
50 P3 252 -6.877
50 P3 253 -6.877
50 P3 254 -6.877
50 P3 255 -5.412
# P4 chan 23
50 P4 0 0.112
50 P4 1 -0.376
50 P4 2 -1.353
50 P4 3 -4.283
50 P4 4 -7.701
50 P4 5 -9.654
50 P4 6 -9.165
50 P4 7 -6.724
50 P4 8 -3.794
50 P4 9 -2.818
50 P4 10 -3.794
50 P4 11 -7.212
50 P4 12 -10.142
50 P4 13 -12.095
50 P4 14 -12.095
50 P4 15 -11.119
50 P4 16 -10.142
50 P4 17 -9.654
50 P4 18 -9.165
50 P4 19 -8.677
50 P4 20 -8.189
50 P4 21 -7.701
50 P4 22 -7.701
50 P4 23 -7.701
50 P4 24 -7.701
50 P4 25 -6.724
50 P4 26 -5.259
50 P4 27 -4.283
50 P4 28 -4.283
50 P4 29 -5.259
50 P4 30 -7.212
50 P4 31 -9.654
50 P4 32 -12.095
50 P4 33 -14.537
50 P4 34 -15.513
50 P4 35 -16.490
50 P4 36 -16.490
50 P4 37 -15.513
50 P4 38 -14.537
50 P4 39 -14.048
50 P4 40 -13.560
50 P4 41 -15.025
50 P4 42 -17.466
50 P4 43 -21.372
50 P4 44 -24.302
50 P4 45 -25.767
50 P4 46 -23.814
50 P4 47 -20.396
50 P4 48 -16.490
50 P4 49 -14.048
50 P4 50 -13.560
50 P4 51 -13.560
50 P4 52 -12.583
50 P4 53 -10.630
50 P4 54 -7.701
50 P4 55 -5.747
50 P4 56 -5.259
50 P4 57 -5.747
50 P4 58 -7.212
50 P4 59 -8.677
50 P4 60 -9.654
50 P4 61 -10.142
50 P4 62 -10.630
50 P4 63 -11.607
50 P4 64 -13.072
50 P4 65 -14.048
50 P4 66 -14.048
50 P4 67 -14.537
50 P4 68 -14.537
50 P4 69 -14.048
50 P4 70 -13.072
50 P4 71 -12.095
50 P4 72 -10.630
50 P4 73 -10.142
50 P4 74 -10.630
50 P4 75 -11.607
50 P4 76 -13.072
50 P4 77 -15.025
50 P4 78 -16.001
50 P4 79 -16.001
50 P4 80 -14.048
50 P4 81 -10.630
50 P4 82 -6.724
50 P4 83 -3.306
50 P4 84 -2.330
50 P4 85 -3.306
50 P4 86 -5.747
50 P4 87 -8.677
50 P4 88 -11.119
50 P4 89 -13.072
50 P4 90 -13.072
50 P4 91 -13.072
50 P4 92 -12.583
50 P4 93 -12.583
50 P4 94 -12.583
50 P4 95 -13.072
50 P4 96 -13.072
50 P4 97 -12.583
50 P4 98 -10.630
50 P4 99 -8.189
50 P4 100 -6.236
50 P4 101 -5.259
50 P4 102 -4.771
50 P4 103 -4.283
50 P4 104 -3.794
50 P4 105 -3.306
50 P4 106 -2.818
50 P4 107 -3.794
50 P4 108 -5.747
50 P4 109 -8.189
50 P4 110 -9.654
50 P4 111 -9.654
50 P4 112 -8.677
50 P4 113 -7.701
50 P4 114 -8.189
50 P4 115 -10.630
50 P4 116 -14.048
50 P4 117 -16.978
50 P4 118 -18.931
50 P4 119 -19.419
50 P4 120 -18.931
50 P4 121 -17.955
50 P4 122 -17.466
50 P4 123 -15.513
50 P4 124 -13.072
50 P4 125 -10.142
50 P4 126 -8.189
50 P4 127 -7.701
50 P4 128 -8.677
50 P4 129 -10.630
50 P4 130 -12.095
50 P4 131 -12.583
50 P4 132 -12.583
50 P4 133 -12.583
50 P4 134 -12.095
50 P4 135 -11.119
50 P4 136 -9.165
50 P4 137 -6.724
50 P4 138 -3.794
50 P4 139 -2.818
50 P4 140 -3.794
50 P4 141 -6.724
50 P4 142 -10.142
50 P4 143 -13.560
50 P4 144 -16.490
50 P4 145 -18.443
50 P4 146 -19.908
50 P4 147 -19.419
50 P4 148 -17.466
50 P4 149 -13.560
50 P4 150 -8.677
50 P4 151 -4.283
50 P4 152 -1.353
50 P4 153 -1.353
50 P4 154 -2.818
50 P4 155 -4.283
50 P4 156 -4.283
50 P4 157 -3.306
50 P4 158 -1.841
50 P4 159 -1.353
50 P4 160 -2.818
50 P4 161 -5.259
50 P4 162 -8.677
50 P4 163 -12.095
50 P4 164 -14.537
50 P4 165 -16.978
50 P4 166 -18.443
50 P4 167 -18.931
50 P4 168 -17.466
50 P4 169 -14.048
50 P4 170 -10.142
50 P4 171 -6.724
50 P4 172 -5.747
50 P4 173 -6.724
50 P4 174 -7.701
50 P4 175 -7.701
50 P4 176 -7.212
50 P4 177 -6.724
50 P4 178 -6.236
50 P4 179 -6.236
50 P4 180 -7.701
50 P4 181 -8.677
50 P4 182 -11.119
50 P4 183 -13.072
50 P4 184 -15.513
50 P4 185 -16.490
50 P4 186 -16.490
50 P4 187 -15.513
50 P4 188 -14.537
50 P4 189 -14.537
50 P4 190 -15.025
50 P4 191 -16.001
50 P4 192 -16.001
50 P4 193 -13.560
50 P4 194 -10.142
50 P4 195 -5.259
50 P4 196 -1.353
50 P4 197 0.600
50 P4 198 1.088
50 P4 199 -0.376
50 P4 200 -1.841
50 P4 201 -3.306
50 P4 202 -4.283
50 P4 203 -4.283
50 P4 204 -3.794
50 P4 205 -2.818
50 P4 206 -2.330
50 P4 207 -1.353
50 P4 208 -0.865
50 P4 209 -0.376
50 P4 210 -0.376
50 P4 211 -0.865
50 P4 212 -1.841
50 P4 213 -3.794
50 P4 214 -5.747
50 P4 215 -7.212
50 P4 216 -9.165
50 P4 217 -10.142
50 P4 218 -11.119
50 P4 219 -12.583
50 P4 220 -13.560
50 P4 221 -15.025
50 P4 222 -15.025
50 P4 223 -14.537
50 P4 224 -12.583
50 P4 225 -9.654
50 P4 226 -6.236
50 P4 227 -3.794
50 P4 228 -2.330
50 P4 229 -2.330
50 P4 230 -2.818
50 P4 231 -3.794
50 P4 232 -4.283
50 P4 233 -4.283
50 P4 234 -3.794
50 P4 235 -2.818
50 P4 236 -2.330
50 P4 237 -1.841
50 P4 238 -2.330
50 P4 239 -3.306
50 P4 240 -4.283
50 P4 241 -3.794
50 P4 242 -2.818
50 P4 243 -0.865
50 P4 244 -0.376
50 P4 245 -1.353
50 P4 246 -5.259
50 P4 247 -10.630
50 P4 248 -16.001
50 P4 249 -18.443
50 P4 250 -18.931
50 P4 251 -16.978
50 P4 252 -14.537
50 P4 253 -12.095
50 P4 254 -10.142
50 P4 255 -7.701
# PZ chan 24
50 PZ 0 0.427
50 PZ 1 -1.038
50 PZ 2 -2.502
50 PZ 3 -4.944
50 PZ 4 -7.874
50 PZ 5 -9.338
50 PZ 6 -9.338
50 PZ 7 -8.362
50 PZ 8 -6.409
50 PZ 9 -5.432
50 PZ 10 -5.432
50 PZ 11 -7.385
50 PZ 12 -8.850
50 PZ 13 -9.338
50 PZ 14 -8.850
50 PZ 15 -7.874
50 PZ 16 -7.385
50 PZ 17 -6.897
50 PZ 18 -6.409
50 PZ 19 -5.432
50 PZ 20 -3.967
50 PZ 21 -2.991
50 PZ 22 -2.991
50 PZ 23 -3.967
50 PZ 24 -4.944
50 PZ 25 -4.944
50 PZ 26 -4.456
50 PZ 27 -3.967
50 PZ 28 -3.967
50 PZ 29 -4.944
50 PZ 30 -7.385
50 PZ 31 -9.827
50 PZ 32 -12.268
50 PZ 33 -14.221
50 PZ 34 -16.174
50 PZ 35 -17.639
50 PZ 36 -18.616
50 PZ 37 -18.616
50 PZ 38 -18.127
50 PZ 39 -16.174
50 PZ 40 -14.221
50 PZ 41 -12.756
50 PZ 42 -13.245
50 PZ 43 -15.198
50 PZ 44 -17.151
50 PZ 45 -18.616
50 PZ 46 -18.127
50 PZ 47 -16.174
50 PZ 48 -14.221
50 PZ 49 -12.756
50 PZ 50 -12.268
50 PZ 51 -11.292
50 PZ 52 -9.827
50 PZ 53 -7.874
50 PZ 54 -4.944
50 PZ 55 -3.479
50 PZ 56 -2.502
50 PZ 57 -2.991
50 PZ 58 -4.456
50 PZ 59 -5.920
50 PZ 60 -6.897
50 PZ 61 -7.385
50 PZ 62 -7.874
50 PZ 63 -7.874
50 PZ 64 -7.874
50 PZ 65 -7.874
50 PZ 66 -8.362
50 PZ 67 -8.850
50 PZ 68 -9.827
50 PZ 69 -10.803
50 PZ 70 -11.780
50 PZ 71 -12.268
50 PZ 72 -12.756
50 PZ 73 -13.733
50 PZ 74 -14.709
50 PZ 75 -15.686
50 PZ 76 -16.174
50 PZ 77 -17.151
50 PZ 78 -16.174
50 PZ 79 -15.198
50 PZ 80 -13.245
50 PZ 81 -10.803
50 PZ 82 -8.850
50 PZ 83 -7.874
50 PZ 84 -7.874
50 PZ 85 -8.850
50 PZ 86 -9.827
50 PZ 87 -10.803
50 PZ 88 -11.292
50 PZ 89 -10.803
50 PZ 90 -9.827
50 PZ 91 -8.362
50 PZ 92 -6.897
50 PZ 93 -5.920
50 PZ 94 -5.432
50 PZ 95 -5.920
50 PZ 96 -6.409
50 PZ 97 -7.385
50 PZ 98 -7.385
50 PZ 99 -6.897
50 PZ 100 -5.920
50 PZ 101 -6.409
50 PZ 102 -7.385
50 PZ 103 -8.850
50 PZ 104 -10.315
50 PZ 105 -10.315
50 PZ 106 -9.827
50 PZ 107 -9.827
50 PZ 108 -10.315
50 PZ 109 -11.780
50 PZ 110 -13.245
50 PZ 111 -13.245
50 PZ 112 -11.292
50 PZ 113 -8.850
50 PZ 114 -6.897
50 PZ 115 -6.409
50 PZ 116 -7.385
50 PZ 117 -8.850
50 PZ 118 -9.827
50 PZ 119 -9.827
50 PZ 120 -9.827
50 PZ 121 -10.803
50 PZ 122 -12.268
50 PZ 123 -13.245
50 PZ 124 -13.245
50 PZ 125 -11.780
50 PZ 126 -10.315
50 PZ 127 -9.338
50 PZ 128 -9.827
50 PZ 129 -11.292
50 PZ 130 -12.268
50 PZ 131 -12.756
50 PZ 132 -12.268
50 PZ 133 -12.268
50 PZ 134 -12.268
50 PZ 135 -12.756
50 PZ 136 -11.780
50 PZ 137 -9.827
50 PZ 138 -6.897
50 PZ 139 -3.967
50 PZ 140 -2.991
50 PZ 141 -3.967
50 PZ 142 -5.920
50 PZ 143 -7.874
50 PZ 144 -8.362
50 PZ 145 -7.385
50 PZ 146 -5.920
50 PZ 147 -3.967
50 PZ 148 -1.526
50 PZ 149 0.916
50 PZ 150 3.357
50 PZ 151 5.310
50 PZ 152 5.310
50 PZ 153 2.869
50 PZ 154 -0.061
50 PZ 155 -2.502
50 PZ 156 -3.479
50 PZ 157 -2.014
50 PZ 158 -0.549
50 PZ 159 -0.061
50 PZ 160 -1.038
50 PZ 161 -3.479
50 PZ 162 -6.897
50 PZ 163 -10.315
50 PZ 164 -11.780
50 PZ 165 -13.245
50 PZ 166 -12.756
50 PZ 167 -11.780
50 PZ 168 -9.338
50 PZ 169 -5.920
50 PZ 170 -2.014
50 PZ 171 -0.061
50 PZ 172 0.427
50 PZ 173 -1.038
50 PZ 174 -2.991
50 PZ 175 -4.944
50 PZ 176 -5.920
50 PZ 177 -5.920
50 PZ 178 -5.920
50 PZ 179 -6.409
50 PZ 180 -8.362
50 PZ 181 -9.338
50 PZ 182 -11.292
50 PZ 183 -12.756
50 PZ 184 -13.733
50 PZ 185 -14.221
50 PZ 186 -14.221
50 PZ 187 -13.733
50 PZ 188 -12.756
50 PZ 189 -12.268
50 PZ 190 -11.292
50 PZ 191 -10.803
50 PZ 192 -9.338
50 PZ 193 -6.897
50 PZ 194 -4.456
50 PZ 195 -0.549
50 PZ 196 1.892
50 PZ 197 3.357
50 PZ 198 3.845
50 PZ 199 2.869
50 PZ 200 1.892
50 PZ 201 0.427
50 PZ 202 -0.549
50 PZ 203 -1.038
50 PZ 204 -1.526
50 PZ 205 -1.526
50 PZ 206 -2.014
50 PZ 207 -2.991
50 PZ 208 -4.456
50 PZ 209 -5.920
50 PZ 210 -6.897
50 PZ 211 -7.874
50 PZ 212 -8.362
50 PZ 213 -8.850
50 PZ 214 -9.827
50 PZ 215 -10.803
50 PZ 216 -11.780
50 PZ 217 -12.268
50 PZ 218 -12.268
50 PZ 219 -12.268
50 PZ 220 -12.268
50 PZ 221 -12.756
50 PZ 222 -13.245
50 PZ 223 -12.268
50 PZ 224 -10.803
50 PZ 225 -8.362
50 PZ 226 -5.920
50 PZ 227 -4.456
50 PZ 228 -3.967
50 PZ 229 -4.944
50 PZ 230 -6.409
50 PZ 231 -7.874
50 PZ 232 -8.850
50 PZ 233 -9.338
50 PZ 234 -8.850
50 PZ 235 -8.362
50 PZ 236 -7.385
50 PZ 237 -7.385
50 PZ 238 -6.897
50 PZ 239 -6.897
50 PZ 240 -5.920
50 PZ 241 -4.456
50 PZ 242 -2.991
50 PZ 243 -2.014
50 PZ 244 -2.502
50 PZ 245 -4.944
50 PZ 246 -8.362
50 PZ 247 -12.268
50 PZ 248 -14.709
50 PZ 249 -15.686
50 PZ 250 -15.198
50 PZ 251 -13.245
50 PZ 252 -10.803
50 PZ 253 -9.338
50 PZ 254 -7.874
50 PZ 255 -6.409
# P8 chan 25
50 P8 0 1.790
50 P8 1 2.279
50 P8 2 1.790
50 P8 3 0.326
50 P8 4 -2.116
50 P8 5 -4.557
50 P8 6 -4.557
50 P8 7 -2.604
50 P8 8 -0.651
50 P8 9 0.814
50 P8 10 -1.139
50 P8 11 -6.022
50 P8 12 -10.905
50 P8 13 -14.811
50 P8 14 -15.788
50 P8 15 -15.299
50 P8 16 -14.323
50 P8 17 -13.346
50 P8 18 -13.346
50 P8 19 -13.835
50 P8 20 -13.835
50 P8 21 -13.835
50 P8 22 -12.858
50 P8 23 -11.882
50 P8 24 -9.928
50 P8 25 -7.487
50 P8 26 -5.046
50 P8 27 -3.092
50 P8 28 -2.116
50 P8 29 -2.604
50 P8 30 -3.581
50 P8 31 -5.046
50 P8 32 -6.510
50 P8 33 -7.975
50 P8 34 -8.952
50 P8 35 -9.928
50 P8 36 -10.417
50 P8 37 -10.417
50 P8 38 -9.928
50 P8 39 -8.464
50 P8 40 -7.975
50 P8 41 -8.952
50 P8 42 -10.905
50 P8 43 -14.811
50 P8 44 -18.229
50 P8 45 -21.159
50 P8 46 -22.135
50 P8 47 -20.671
50 P8 48 -17.741
50 P8 49 -15.299
50 P8 50 -13.346
50 P8 51 -10.905
50 P8 52 -8.952
50 P8 53 -6.022
50 P8 54 -3.092
50 P8 55 -2.116
50 P8 56 -2.116
50 P8 57 -4.557
50 P8 58 -7.487
50 P8 59 -9.440
50 P8 60 -10.905
50 P8 61 -10.905
50 P8 62 -11.393
50 P8 63 -12.858
50 P8 64 -14.811
50 P8 65 -15.788
50 P8 66 -16.276
50 P8 67 -15.788
50 P8 68 -15.299
50 P8 69 -15.788
50 P8 70 -16.276
50 P8 71 -16.764
50 P8 72 -15.788
50 P8 73 -13.835
50 P8 74 -12.370
50 P8 75 -11.882
50 P8 76 -12.370
50 P8 77 -14.323
50 P8 78 -15.788
50 P8 79 -15.788
50 P8 80 -13.835
50 P8 81 -9.440
50 P8 82 -4.069
50 P8 83 0.814
50 P8 84 3.255
50 P8 85 2.767
50 P8 86 -0.163
50 P8 87 -3.581
50 P8 88 -5.534
50 P8 89 -5.046
50 P8 90 -3.092
50 P8 91 -1.628
50 P8 92 -1.139
50 P8 93 -2.604
50 P8 94 -5.046
50 P8 95 -7.975
50 P8 96 -9.440
50 P8 97 -8.952
50 P8 98 -7.487
50 P8 99 -4.557
50 P8 100 -2.116
50 P8 101 -0.651
50 P8 102 0.326
50 P8 103 0.326
50 P8 104 1.302
50 P8 105 2.279
50 P8 106 3.743
50 P8 107 4.720
50 P8 108 4.720
50 P8 109 3.255
50 P8 110 1.302
50 P8 111 0.326
50 P8 112 0.814
50 P8 113 1.302
50 P8 114 1.302
50 P8 115 -0.651
50 P8 116 -5.046
50 P8 117 -9.440
50 P8 118 -13.835
50 P8 119 -16.276
50 P8 120 -17.253
50 P8 121 -17.741
50 P8 122 -17.741
50 P8 123 -16.276
50 P8 124 -14.323
50 P8 125 -11.393
50 P8 126 -9.440
50 P8 127 -9.440
50 P8 128 -11.882
50 P8 129 -14.811
50 P8 130 -16.764
50 P8 131 -15.788
50 P8 132 -13.835
50 P8 133 -12.370
50 P8 134 -11.393
50 P8 135 -10.905
50 P8 136 -9.440
50 P8 137 -6.022
50 P8 138 -1.139
50 P8 139 2.279
50 P8 140 2.767
50 P8 141 -1.139
50 P8 142 -6.999
50 P8 143 -12.858
50 P8 144 -17.741
50 P8 145 -21.647
50 P8 146 -24.577
50 P8 147 -26.530
50 P8 148 -27.018
50 P8 149 -24.577
50 P8 150 -19.206
50 P8 151 -12.858
50 P8 152 -7.975
50 P8 153 -6.022
50 P8 154 -6.510
50 P8 155 -7.975
50 P8 156 -9.440
50 P8 157 -8.464
50 P8 158 -6.022
50 P8 159 -3.092
50 P8 160 -1.628
50 P8 161 -2.604
50 P8 162 -5.534
50 P8 163 -9.928
50 P8 164 -13.835
50 P8 165 -16.276
50 P8 166 -16.764
50 P8 167 -15.788
50 P8 168 -12.858
50 P8 169 -8.952
50 P8 170 -5.534
50 P8 171 -4.069
50 P8 172 -3.581
50 P8 173 -4.557
50 P8 174 -5.046
50 P8 175 -4.557
50 P8 176 -4.069
50 P8 177 -4.069
50 P8 178 -5.046
50 P8 179 -7.487
50 P8 180 -9.440
50 P8 181 -10.905
50 P8 182 -11.882
50 P8 183 -13.346
50 P8 184 -15.299
50 P8 185 -17.741
50 P8 186 -18.717
50 P8 187 -18.229
50 P8 188 -16.764
50 P8 189 -15.299
50 P8 190 -14.811
50 P8 191 -14.811
50 P8 192 -14.811
50 P8 193 -13.346
50 P8 194 -10.417
50 P8 195 -6.510
50 P8 196 -3.581
50 P8 197 -2.116
50 P8 198 -2.116
50 P8 199 -3.581
50 P8 200 -5.534
50 P8 201 -7.975
50 P8 202 -10.905
50 P8 203 -12.858
50 P8 204 -14.323
50 P8 205 -13.835
50 P8 206 -12.858
50 P8 207 -10.905
50 P8 208 -9.440
50 P8 209 -8.464
50 P8 210 -8.464
50 P8 211 -8.464
50 P8 212 -9.440
50 P8 213 -10.905
50 P8 214 -11.882
50 P8 215 -12.858
50 P8 216 -12.858
50 P8 217 -12.858
50 P8 218 -12.858
50 P8 219 -13.835
50 P8 220 -16.276
50 P8 221 -18.717
50 P8 222 -21.159
50 P8 223 -21.647
50 P8 224 -20.182
50 P8 225 -17.741
50 P8 226 -14.323
50 P8 227 -11.393
50 P8 228 -8.952
50 P8 229 -6.999
50 P8 230 -6.510
50 P8 231 -6.510
50 P8 232 -7.975
50 P8 233 -9.440
50 P8 234 -10.417
50 P8 235 -10.417
50 P8 236 -9.440
50 P8 237 -7.975
50 P8 238 -6.999
50 P8 239 -7.487
50 P8 240 -7.975
50 P8 241 -7.975
50 P8 242 -6.022
50 P8 243 -2.604
50 P8 244 0.814
50 P8 245 2.279
50 P8 246 1.302
50 P8 247 -2.116
50 P8 248 -6.999
50 P8 249 -11.393
50 P8 250 -14.811
50 P8 251 -16.764
50 P8 252 -17.253
50 P8 253 -16.276
50 P8 254 -14.323
50 P8 255 -11.393
# P7 chan 26
50 P7 0 4.395
50 P7 1 3.418
50 P7 2 1.953
50 P7 3 1.465
50 P7 4 1.465
50 P7 5 2.441
50 P7 6 3.418
50 P7 7 3.906
50 P7 8 2.441
50 P7 9 -0.488
50 P7 10 -4.395
50 P7 11 -6.836
50 P7 12 -8.301
50 P7 13 -8.301
50 P7 14 -8.789
50 P7 15 -9.766
50 P7 16 -11.230
50 P7 17 -12.207
50 P7 18 -10.742
50 P7 19 -8.301
50 P7 20 -6.348
50 P7 21 -6.348
50 P7 22 -7.812
50 P7 23 -8.789
50 P7 24 -6.836
50 P7 25 -2.930
50 P7 26 1.465
50 P7 27 3.906
50 P7 28 2.930
50 P7 29 -0.977
50 P7 30 -4.395
50 P7 31 -6.348
50 P7 32 -7.324
50 P7 33 -7.324
50 P7 34 -8.789
50 P7 35 -10.742
50 P7 36 -12.695
50 P7 37 -12.695
50 P7 38 -11.230
50 P7 39 -8.789
50 P7 40 -7.324
50 P7 41 -8.301
50 P7 42 -12.207
50 P7 43 -17.090
50 P7 44 -22.461
50 P7 45 -25.391
50 P7 46 -25.879
50 P7 47 -23.926
50 P7 48 -20.996
50 P7 49 -18.066
50 P7 50 -16.113
50 P7 51 -14.160
50 P7 52 -12.695
50 P7 53 -9.766
50 P7 54 -6.348
50 P7 55 -2.930
50 P7 56 -0.977
50 P7 57 -0.977
50 P7 58 -2.441
50 P7 59 -4.395
50 P7 60 -5.859
50 P7 61 -6.348
50 P7 62 -6.348
50 P7 63 -7.324
50 P7 64 -8.789
50 P7 65 -11.230
50 P7 66 -13.672
50 P7 67 -15.625
50 P7 68 -17.090
50 P7 69 -18.555
50 P7 70 -20.996
50 P7 71 -23.926
50 P7 72 -26.367
50 P7 73 -27.832
50 P7 74 -27.832
50 P7 75 -27.832
50 P7 76 -26.855
50 P7 77 -26.367
50 P7 78 -24.902
50 P7 79 -22.461
50 P7 80 -18.066
50 P7 81 -13.184
50 P7 82 -9.277
50 P7 83 -6.836
50 P7 84 -6.348
50 P7 85 -6.348
50 P7 86 -6.348
50 P7 87 -5.859
50 P7 88 -5.371
50 P7 89 -3.906
50 P7 90 -1.953
50 P7 91 0.488
50 P7 92 2.441
50 P7 93 3.906
50 P7 94 2.930
50 P7 95 0.488
50 P7 96 -2.441
50 P7 97 -4.395
50 P7 98 -5.859
50 P7 99 -5.859
50 P7 100 -5.859
50 P7 101 -7.324
50 P7 102 -8.789
50 P7 103 -9.766
50 P7 104 -10.254
50 P7 105 -8.789
50 P7 106 -6.836
50 P7 107 -5.371
50 P7 108 -3.418
50 P7 109 -1.465
50 P7 110 0.488
50 P7 111 1.465
50 P7 112 1.953
50 P7 113 1.465
50 P7 114 0.977
50 P7 115 -0.488
50 P7 116 -0.977
50 P7 117 -1.465
50 P7 118 -1.953
50 P7 119 -3.418
50 P7 120 -6.348
50 P7 121 -11.230
50 P7 122 -16.602
50 P7 123 -20.020
50 P7 124 -22.461
50 P7 125 -22.949
50 P7 126 -22.949
50 P7 127 -23.926
50 P7 128 -25.391
50 P7 129 -27.344
50 P7 130 -28.320
50 P7 131 -27.344
50 P7 132 -25.879
50 P7 133 -24.414
50 P7 134 -21.973
50 P7 135 -19.531
50 P7 136 -15.137
50 P7 137 -9.766
50 P7 138 -4.883
50 P7 139 -1.953
50 P7 140 -2.441
50 P7 141 -5.371
50 P7 142 -8.789
50 P7 143 -11.230
50 P7 144 -9.766
50 P7 145 -4.883
50 P7 146 3.418
50 P7 147 12.695
50 P7 148 21.973
50 P7 149 29.297
50 P7 150 32.715
50 P7 151 30.762
50 P7 152 23.438
50 P7 153 12.207
50 P7 154 0.488
50 P7 155 -8.301
50 P7 156 -12.207
50 P7 157 -11.719
50 P7 158 -8.789
50 P7 159 -7.324
50 P7 160 -7.324
50 P7 161 -10.254
50 P7 162 -13.672
50 P7 163 -16.602
50 P7 164 -17.578
50 P7 165 -17.090
50 P7 166 -14.648
50 P7 167 -10.742
50 P7 168 -6.348
50 P7 169 -2.441
50 P7 170 0.000
50 P7 171 0.000
50 P7 172 -0.977
50 P7 173 -2.930
50 P7 174 -4.883
50 P7 175 -6.836
50 P7 176 -8.789
50 P7 177 -11.719
50 P7 178 -14.648
50 P7 179 -16.602
50 P7 180 -18.066
50 P7 181 -18.555
50 P7 182 -18.555
50 P7 183 -19.043
50 P7 184 -20.020
50 P7 185 -20.020
50 P7 186 -19.531
50 P7 187 -18.066
50 P7 188 -15.625
50 P7 189 -14.648
50 P7 190 -13.672
50 P7 191 -13.184
50 P7 192 -11.719
50 P7 193 -8.789
50 P7 194 -4.395
50 P7 195 0.488
50 P7 196 3.906
50 P7 197 5.371
50 P7 198 4.883
50 P7 199 2.930
50 P7 200 0.000
50 P7 201 -2.930
50 P7 202 -5.859
50 P7 203 -8.789
50 P7 204 -11.230
50 P7 205 -12.207
50 P7 206 -13.184
50 P7 207 -13.672
50 P7 208 -15.137
50 P7 209 -17.578
50 P7 210 -19.531
50 P7 211 -20.996
50 P7 212 -20.996
50 P7 213 -19.531
50 P7 214 -17.578
50 P7 215 -15.625
50 P7 216 -14.160
50 P7 217 -13.184
50 P7 218 -13.672
50 P7 219 -15.137
50 P7 220 -18.066
50 P7 221 -21.484
50 P7 222 -24.902
50 P7 223 -26.855
50 P7 224 -26.367
50 P7 225 -23.926
50 P7 226 -20.508
50 P7 227 -17.090
50 P7 228 -15.625
50 P7 229 -15.625
50 P7 230 -17.090
50 P7 231 -19.043
50 P7 232 -21.973
50 P7 233 -24.902
50 P7 234 -27.832
50 P7 235 -30.762
50 P7 236 -32.227
50 P7 237 -32.227
50 P7 238 -30.273
50 P7 239 -26.367
50 P7 240 -21.484
50 P7 241 -15.625
50 P7 242 -10.254
50 P7 243 -5.371
50 P7 244 -2.441
50 P7 245 -0.977
50 P7 246 -1.953
50 P7 247 -4.395
50 P7 248 -6.836
50 P7 249 -9.766
50 P7 250 -11.719
50 P7 251 -13.184
50 P7 252 -15.137
50 P7 253 -17.090
50 P7 254 -18.555
50 P7 255 -17.090
# PO2 chan 27
50 PO2 0 -0.468
50 PO2 1 -0.956
50 PO2 2 -1.933
50 PO2 3 -4.374
50 PO2 4 -7.304
50 PO2 5 -9.745
50 PO2 6 -10.234
50 PO2 7 -8.280
50 PO2 8 -6.327
50 PO2 9 -5.351
50 PO2 10 -6.816
50 PO2 11 -10.234
50 PO2 12 -14.140
50 PO2 13 -16.093
50 PO2 14 -16.581
50 PO2 15 -16.581
50 PO2 16 -16.093
50 PO2 17 -16.093
50 PO2 18 -16.581
50 PO2 19 -16.581
50 PO2 20 -15.605
50 PO2 21 -14.628
50 PO2 22 -13.652
50 PO2 23 -12.675
50 PO2 24 -12.187
50 PO2 25 -11.210
50 PO2 26 -9.257
50 PO2 27 -7.304
50 PO2 28 -6.816
50 PO2 29 -7.304
50 PO2 30 -9.745
50 PO2 31 -12.187
50 PO2 32 -14.628
50 PO2 33 -17.069
50 PO2 34 -19.511
50 PO2 35 -21.464
50 PO2 36 -23.417
50 PO2 37 -25.370
50 PO2 38 -24.882
50 PO2 39 -23.417
50 PO2 40 -21.952
50 PO2 41 -21.464
50 PO2 42 -23.417
50 PO2 43 -26.835
50 PO2 44 -30.741
50 PO2 45 -32.206
50 PO2 46 -31.230
50 PO2 47 -27.812
50 PO2 48 -24.394
50 PO2 49 -22.441
50 PO2 50 -21.464
50 PO2 51 -20.487
50 PO2 52 -18.046
50 PO2 53 -14.628
50 PO2 54 -10.722
50 PO2 55 -8.280
50 PO2 56 -7.792
50 PO2 57 -8.769
50 PO2 58 -10.722
50 PO2 59 -13.163
50 PO2 60 -15.605
50 PO2 61 -17.069
50 PO2 62 -18.534
50 PO2 63 -19.511
50 PO2 64 -19.511
50 PO2 65 -18.534
50 PO2 66 -17.558
50 PO2 67 -17.069
50 PO2 68 -17.558
50 PO2 69 -18.046
50 PO2 70 -18.534
50 PO2 71 -18.046
50 PO2 72 -18.046
50 PO2 73 -18.046
50 PO2 74 -18.534
50 PO2 75 -19.999
50 PO2 76 -21.952
50 PO2 77 -22.929
50 PO2 78 -23.417
50 PO2 79 -21.952
50 PO2 80 -19.511
50 PO2 81 -15.605
50 PO2 82 -11.698
50 PO2 83 -8.769
50 PO2 84 -7.304
50 PO2 85 -7.792
50 PO2 86 -9.257
50 PO2 87 -11.210
50 PO2 88 -13.163
50 PO2 89 -13.652
50 PO2 90 -13.652
50 PO2 91 -13.163
50 PO2 92 -12.187
50 PO2 93 -11.698
50 PO2 94 -12.187
50 PO2 95 -13.163
50 PO2 96 -14.140
50 PO2 97 -14.140
50 PO2 98 -13.163
50 PO2 99 -10.722
50 PO2 100 -8.769
50 PO2 101 -7.792
50 PO2 102 -8.280
50 PO2 103 -9.745
50 PO2 104 -10.722
50 PO2 105 -10.722
50 PO2 106 -10.234
50 PO2 107 -9.745
50 PO2 108 -11.210
50 PO2 109 -13.163
50 PO2 110 -14.628
50 PO2 111 -15.116
50 PO2 112 -13.652
50 PO2 113 -11.698
50 PO2 114 -11.210
50 PO2 115 -12.187
50 PO2 116 -14.628
50 PO2 117 -17.558
50 PO2 118 -19.023
50 PO2 119 -19.511
50 PO2 120 -19.999
50 PO2 121 -20.976
50 PO2 122 -21.952
50 PO2 123 -22.929
50 PO2 124 -22.441
50 PO2 125 -19.999
50 PO2 126 -17.558
50 PO2 127 -16.581
50 PO2 128 -17.069
50 PO2 129 -18.046
50 PO2 130 -19.023
50 PO2 131 -18.534
50 PO2 132 -17.069
50 PO2 133 -16.581
50 PO2 134 -16.581
50 PO2 135 -16.581
50 PO2 136 -15.116
50 PO2 137 -12.187
50 PO2 138 -7.792
50 PO2 139 -3.886
50 PO2 140 -3.398
50 PO2 141 -5.839
50 PO2 142 -9.745
50 PO2 143 -13.652
50 PO2 144 -15.605
50 PO2 145 -16.093
50 PO2 146 -14.628
50 PO2 147 -12.187
50 PO2 148 -9.257
