# co2c0000354.rd
# 120 trials, 64 chans, 416 samples 368 post_stim samples
# 3.906000 msecs uV
# S1 obj , trial 12
# FP1 chan 0
12 FP1 0 -7.660
12 FP1 1 -6.195
12 FP1 2 -5.219
12 FP1 3 -5.219
12 FP1 4 -6.195
12 FP1 5 -5.707
12 FP1 6 -4.242
12 FP1 7 -1.312
12 FP1 8 2.106
12 FP1 9 5.524
12 FP1 10 7.965
12 FP1 11 10.406
12 FP1 12 11.383
12 FP1 13 10.895
12 FP1 14 8.942
12 FP1 15 5.524
12 FP1 16 2.594
12 FP1 17 1.617
12 FP1 18 3.571
12 FP1 19 6.500
12 FP1 20 9.430
12 FP1 21 9.918
12 FP1 22 7.965
12 FP1 23 5.035
12 FP1 24 2.594
12 FP1 25 1.617
12 FP1 26 2.594
12 FP1 27 5.035
12 FP1 28 6.989
12 FP1 29 8.453
12 FP1 30 8.942
12 FP1 31 8.942
12 FP1 32 8.453
12 FP1 33 7.477
12 FP1 34 5.524
12 FP1 35 3.571
12 FP1 36 1.129
12 FP1 37 -1.801
12 FP1 38 -4.242
12 FP1 39 -5.707
12 FP1 40 -5.707
12 FP1 41 -4.730
12 FP1 42 -3.754
12 FP1 43 -2.289
12 FP1 44 -0.336
12 FP1 45 1.129
12 FP1 46 2.106
12 FP1 47 1.617
12 FP1 48 0.153
12 FP1 49 -1.312
12 FP1 50 -1.801
12 FP1 51 -0.336
12 FP1 52 1.617
12 FP1 53 2.594
12 FP1 54 2.106
12 FP1 55 0.153
12 FP1 56 -1.801
12 FP1 57 -2.289
12 FP1 58 -2.289
12 FP1 59 -1.312
12 FP1 60 -1.801
12 FP1 61 -3.265
12 FP1 62 -4.730
12 FP1 63 -5.707
12 FP1 64 -4.730
12 FP1 65 -3.754
12 FP1 66 -3.754
12 FP1 67 -4.730
12 FP1 68 -6.195
12 FP1 69 -6.683
12 FP1 70 -6.683
12 FP1 71 -6.195
12 FP1 72 -6.683
12 FP1 73 -7.172
12 FP1 74 -7.660
12 FP1 75 -7.660
12 FP1 76 -6.195
12 FP1 77 -4.730
12 FP1 78 -3.754
12 FP1 79 -2.777
12 FP1 80 -1.312
12 FP1 81 0.153
12 FP1 82 2.106
12 FP1 83 4.059
12 FP1 84 4.547
12 FP1 85 4.059
12 FP1 86 3.571
12 FP1 87 3.082
12 FP1 88 3.571
12 FP1 89 4.059
12 FP1 90 4.059
12 FP1 91 3.571
12 FP1 92 2.594
12 FP1 93 1.617
12 FP1 94 1.617
12 FP1 95 1.617
12 FP1 96 1.129
12 FP1 97 0.641
12 FP1 98 0.641
12 FP1 99 0.641
12 FP1 100 2.106
12 FP1 101 3.082
12 FP1 102 3.082
12 FP1 103 2.594
12 FP1 104 2.106
12 FP1 105 2.106
12 FP1 106 2.106
12 FP1 107 2.106
12 FP1 108 1.129
12 FP1 109 -0.336
12 FP1 110 -2.289
12 FP1 111 -3.754
12 FP1 112 -4.242
12 FP1 113 -3.265
12 FP1 114 -2.777
12 FP1 115 -2.777
12 FP1 116 -3.265
12 FP1 117 -3.265
12 FP1 118 -2.289
12 FP1 119 -0.824
12 FP1 120 1.129
12 FP1 121 2.106
12 FP1 122 3.082
12 FP1 123 3.082
12 FP1 124 4.059
12 FP1 125 5.524
12 FP1 126 7.965
12 FP1 127 10.406
12 FP1 128 12.360
12 FP1 129 13.336
12 FP1 130 13.336
12 FP1 131 13.336
12 FP1 132 12.360
12 FP1 133 10.895
12 FP1 134 8.942
12 FP1 135 6.989
12 FP1 136 6.012
12 FP1 137 6.012
12 FP1 138 6.012
12 FP1 139 6.500
12 FP1 140 6.989
12 FP1 141 7.477
12 FP1 142 8.942
12 FP1 143 9.918
12 FP1 144 9.918
12 FP1 145 7.965
12 FP1 146 5.035
12 FP1 147 1.617
12 FP1 148 -1.312
12 FP1 149 -2.777
12 FP1 150 -3.265
12 FP1 151 -3.265
12 FP1 152 -2.289
12 FP1 153 -2.289
12 FP1 154 -1.801
12 FP1 155 -1.312
12 FP1 156 -1.312
12 FP1 157 -1.801
12 FP1 158 -2.289
12 FP1 159 -1.801
12 FP1 160 -1.312
12 FP1 161 -0.824
12 FP1 162 0.153
12 FP1 163 0.641
12 FP1 164 1.617
12 FP1 165 3.082
12 FP1 166 4.059
12 FP1 167 5.035
12 FP1 168 5.524
12 FP1 169 6.012
12 FP1 170 6.500
12 FP1 171 7.477
12 FP1 172 7.477
12 FP1 173 6.989
12 FP1 174 6.989
12 FP1 175 7.965
12 FP1 176 10.406
12 FP1 177 12.848
12 FP1 178 14.801
12 FP1 179 13.824
12 FP1 180 11.383
12 FP1 181 8.453
12 FP1 182 6.989
12 FP1 183 7.965
12 FP1 184 10.895
12 FP1 185 13.824
12 FP1 186 15.778
12 FP1 187 15.778
12 FP1 188 15.289
12 FP1 189 14.313
12 FP1 190 13.336
12 FP1 191 12.360
12 FP1 192 10.895
12 FP1 193 8.942
12 FP1 194 6.012
12 FP1 195 3.571
12 FP1 196 1.617
12 FP1 197 1.129
12 FP1 198 2.106
12 FP1 199 3.082
12 FP1 200 3.571
12 FP1 201 3.571
12 FP1 202 2.594
12 FP1 203 2.594
12 FP1 204 4.547
12 FP1 205 6.989
12 FP1 206 9.430
12 FP1 207 11.383
12 FP1 208 11.871
12 FP1 209 11.383
12 FP1 210 10.895
12 FP1 211 11.871
12 FP1 212 13.824
12 FP1 213 15.778
12 FP1 214 16.754
12 FP1 215 16.754
12 FP1 216 15.778
12 FP1 217 14.313
12 FP1 218 13.336
12 FP1 219 13.336
12 FP1 220 13.824
12 FP1 221 14.313
12 FP1 222 14.313
12 FP1 223 13.336
12 FP1 224 11.871
12 FP1 225 10.406
12 FP1 226 9.918
12 FP1 227 10.895
12 FP1 228 12.848
12 FP1 229 13.824
12 FP1 230 13.824
12 FP1 231 12.360
12 FP1 232 10.406
12 FP1 233 8.453
12 FP1 234 7.477
12 FP1 235 7.965
12 FP1 236 8.942
12 FP1 237 10.406
12 FP1 238 11.871
12 FP1 239 13.824
12 FP1 240 14.801
12 FP1 241 15.289
12 FP1 242 15.289
12 FP1 243 14.801
12 FP1 244 14.801
12 FP1 245 15.289
12 FP1 246 16.266
12 FP1 247 16.266
12 FP1 248 15.778
12 FP1 249 14.313
12 FP1 250 12.848
12 FP1 251 11.383
12 FP1 252 10.406
12 FP1 253 9.918
12 FP1 254 9.430
12 FP1 255 9.918
# FP2 chan 1
12 FP2 0 -17.365
12 FP2 1 -16.876
12 FP2 2 -14.923
12 FP2 3 -12.970
12 FP2 4 -11.505
12 FP2 5 -10.040
12 FP2 6 -8.575
12 FP2 7 -6.622
12 FP2 8 -3.693
12 FP2 9 -1.251
12 FP2 10 1.190
12 FP2 11 3.143
12 FP2 12 4.608
12 FP2 13 5.585
12 FP2 14 5.096
12 FP2 15 4.608
12 FP2 16 3.632
12 FP2 17 3.143
12 FP2 18 4.608
12 FP2 19 6.073
12 FP2 20 8.514
12 FP2 21 9.979
12 FP2 22 10.468
12 FP2 23 9.491
12 FP2 24 9.003
12 FP2 25 8.026
12 FP2 26 8.514
12 FP2 27 9.979
12 FP2 28 11.932
12 FP2 29 13.397
12 FP2 30 14.374
12 FP2 31 14.374
12 FP2 32 13.885
12 FP2 33 13.397
12 FP2 34 13.397
12 FP2 35 12.421
12 FP2 36 10.468
12 FP2 37 7.538
12 FP2 38 4.120
12 FP2 39 1.190
12 FP2 40 0.214
12 FP2 41 0.702
12 FP2 42 2.655
12 FP2 43 4.608
12 FP2 44 6.561
12 FP2 45 7.050
12 FP2 46 7.538
12 FP2 47 7.050
12 FP2 48 6.073
12 FP2 49 5.585
12 FP2 50 5.096
12 FP2 51 5.585
12 FP2 52 6.073
12 FP2 53 6.561
12 FP2 54 5.585
12 FP2 55 3.632
12 FP2 56 2.167
12 FP2 57 1.190
12 FP2 58 1.190
12 FP2 59 1.190
12 FP2 60 0.702
12 FP2 61 -0.275
12 FP2 62 -1.740
12 FP2 63 -1.740
12 FP2 64 -1.251
12 FP2 65 0.214
12 FP2 66 1.190
12 FP2 67 0.702
12 FP2 68 -0.275
12 FP2 69 -1.251
12 FP2 70 -1.740
12 FP2 71 -2.716
12 FP2 72 -3.204
12 FP2 73 -3.693
12 FP2 74 -4.181
12 FP2 75 -3.693
12 FP2 76 -2.228
12 FP2 77 -0.275
12 FP2 78 1.678
12 FP2 79 3.143
12 FP2 80 3.632
12 FP2 81 3.632
12 FP2 82 3.632
12 FP2 83 3.632
12 FP2 84 4.608
12 FP2 85 4.608
12 FP2 86 5.096
12 FP2 87 4.608
12 FP2 88 4.120
12 FP2 89 4.120
12 FP2 90 3.632
12 FP2 91 3.632
12 FP2 92 3.632
12 FP2 93 4.120
12 FP2 94 4.120
12 FP2 95 4.120
12 FP2 96 3.143
12 FP2 97 2.655
12 FP2 98 2.655
12 FP2 99 3.143
12 FP2 100 4.120
12 FP2 101 5.585
12 FP2 102 5.585
12 FP2 103 4.608
12 FP2 104 3.143
12 FP2 105 1.678
12 FP2 106 0.702
12 FP2 107 0.214
12 FP2 108 -0.763
12 FP2 109 -1.740
12 FP2 110 -3.204
12 FP2 111 -3.693
12 FP2 112 -3.204
12 FP2 113 -1.740
12 FP2 114 -0.275
12 FP2 115 1.190
12 FP2 116 1.678
12 FP2 117 2.167
12 FP2 118 3.143
12 FP2 119 5.096
12 FP2 120 6.561
12 FP2 121 7.538
12 FP2 122 8.026
12 FP2 123 8.026
12 FP2 124 8.514
12 FP2 125 9.979
12 FP2 126 12.421
12 FP2 127 14.862
12 FP2 128 17.303
12 FP2 129 18.280
12 FP2 130 18.768
12 FP2 131 17.303
12 FP2 132 14.862
12 FP2 133 12.421
12 FP2 134 9.979
12 FP2 135 9.003
12 FP2 136 9.491
12 FP2 137 10.468
12 FP2 138 11.444
12 FP2 139 11.444
12 FP2 140 11.444
12 FP2 141 11.444
12 FP2 142 11.444
12 FP2 143 11.932
12 FP2 144 11.932
12 FP2 145 10.956
12 FP2 146 8.514
12 FP2 147 6.561
12 FP2 148 4.120
12 FP2 149 2.655
12 FP2 150 1.190
12 FP2 151 0.214
12 FP2 152 -0.275
12 FP2 153 -0.763
12 FP2 154 -1.251
12 FP2 155 -1.740
12 FP2 156 -2.228
12 FP2 157 -3.204
12 FP2 158 -2.716
12 FP2 159 -2.228
12 FP2 160 -0.275
12 FP2 161 1.190
12 FP2 162 2.167
12 FP2 163 2.655
12 FP2 164 2.655
12 FP2 165 3.143
12 FP2 166 4.120
12 FP2 167 5.096
12 FP2 168 6.073
12 FP2 169 7.050
12 FP2 170 7.050
12 FP2 171 6.561
12 FP2 172 6.073
12 FP2 173 5.096
12 FP2 174 5.585
12 FP2 175 7.050
12 FP2 176 10.468
12 FP2 177 13.397
12 FP2 178 14.862
12 FP2 179 14.374
12 FP2 180 11.932
12 FP2 181 9.003
12 FP2 182 7.050
12 FP2 183 7.538
12 FP2 184 9.491
12 FP2 185 11.444
12 FP2 186 13.397
12 FP2 187 14.374
12 FP2 188 14.374
12 FP2 189 13.885
12 FP2 190 13.397
12 FP2 191 12.909
12 FP2 192 11.444
12 FP2 193 9.491
12 FP2 194 7.538
12 FP2 195 5.585
12 FP2 196 4.120
12 FP2 197 4.120
12 FP2 198 4.608
12 FP2 199 4.608
12 FP2 200 3.632
12 FP2 201 1.190
12 FP2 202 -0.763
12 FP2 203 -1.251
12 FP2 204 0.214
12 FP2 205 3.143
12 FP2 206 6.073
12 FP2 207 7.538
12 FP2 208 8.026
12 FP2 209 8.026
12 FP2 210 9.491
12 FP2 211 11.932
12 FP2 212 13.885
12 FP2 213 15.350
12 FP2 214 15.350
12 FP2 215 14.374
12 FP2 216 12.421
12 FP2 217 11.444
12 FP2 218 10.956
12 FP2 219 10.956
12 FP2 220 10.468
12 FP2 221 10.956
12 FP2 222 10.956
12 FP2 223 11.444
12 FP2 224 11.444
12 FP2 225 10.956
12 FP2 226 10.468
12 FP2 227 10.468
12 FP2 228 11.444
12 FP2 229 12.421
12 FP2 230 12.421
12 FP2 231 11.444
12 FP2 232 8.514
12 FP2 233 4.608
12 FP2 234 2.167
12 FP2 235 2.167
12 FP2 236 4.120
12 FP2 237 6.561
12 FP2 238 9.491
12 FP2 239 11.444
12 FP2 240 12.421
12 FP2 241 12.421
12 FP2 242 12.421
12 FP2 243 12.421
12 FP2 244 13.397
12 FP2 245 13.885
12 FP2 246 14.374
12 FP2 247 14.862
12 FP2 248 14.374
12 FP2 249 13.885
12 FP2 250 12.909
12 FP2 251 11.932
12 FP2 252 11.444
12 FP2 253 11.932
12 FP2 254 12.909
12 FP2 255 14.862
# F7 chan 2
12 F7 0 1.221
12 F7 1 2.686
12 F7 2 2.686
12 F7 3 0.244
12 F7 4 -1.709
12 F7 5 -1.709
12 F7 6 1.221
12 F7 7 5.615
12 F7 8 10.010
12 F7 9 13.428
12 F7 10 14.404
12 F7 11 14.404
12 F7 12 13.428
12 F7 13 11.475
12 F7 14 8.545
12 F7 15 5.127
12 F7 16 2.197
12 F7 17 1.709
12 F7 18 3.174
12 F7 19 6.592
12 F7 20 9.521
12 F7 21 9.521
12 F7 22 7.080
12 F7 23 3.662
12 F7 24 1.709
12 F7 25 1.709
12 F7 26 3.174
12 F7 27 4.639
12 F7 28 6.104
12 F7 29 6.592
12 F7 30 7.568
12 F7 31 8.057
12 F7 32 8.545
12 F7 33 8.057
12 F7 34 6.592
12 F7 35 4.150
12 F7 36 2.197
12 F7 37 0.244
12 F7 38 -1.221
12 F7 39 -2.686
12 F7 40 -4.150
12 F7 41 -6.104
12 F7 42 -7.080
12 F7 43 -6.104
12 F7 44 -3.662
12 F7 45 -0.244
12 F7 46 2.197
12 F7 47 2.197
12 F7 48 -0.732
12 F7 49 -3.662
12 F7 50 -4.639
12 F7 51 -2.686
12 F7 52 0.244
12 F7 53 1.709
12 F7 54 0.732
12 F7 55 -2.197
12 F7 56 -4.150
12 F7 57 -4.639
12 F7 58 -2.197
12 F7 59 -0.244
12 F7 60 -0.244
12 F7 61 -1.709
12 F7 62 -3.174
12 F7 63 -3.662
12 F7 64 -2.686
12 F7 65 -1.709
12 F7 66 -2.197
12 F7 67 -3.662
12 F7 68 -4.639
12 F7 69 -4.639
12 F7 70 -3.174
12 F7 71 -2.686
12 F7 72 -3.662
12 F7 73 -6.104
12 F7 74 -7.568
12 F7 75 -7.080
12 F7 76 -5.127
12 F7 77 -2.686
12 F7 78 -0.732
12 F7 79 -0.244
12 F7 80 0.244
12 F7 81 2.197
12 F7 82 5.127
12 F7 83 7.080
12 F7 84 7.080
12 F7 85 5.127
12 F7 86 2.686
12 F7 87 1.709
12 F7 88 2.686
12 F7 89 4.150
12 F7 90 5.615
12 F7 91 5.127
12 F7 92 3.662
12 F7 93 1.709
12 F7 94 1.221
12 F7 95 1.709
12 F7 96 2.197
12 F7 97 3.662
12 F7 98 5.127
12 F7 99 6.592
12 F7 100 8.545
12 F7 101 9.033
12 F7 102 9.033
12 F7 103 8.545
12 F7 104 8.545
12 F7 105 10.010
12 F7 106 11.475
12 F7 107 10.986
12 F7 108 8.057
12 F7 109 4.150
12 F7 110 0.244
12 F7 111 -1.221
12 F7 112 0.244
12 F7 113 2.686
12 F7 114 4.639
12 F7 115 4.639
12 F7 116 3.662
12 F7 117 2.197
12 F7 118 1.709
12 F7 119 3.174
12 F7 120 4.639
12 F7 121 5.615
12 F7 122 6.592
12 F7 123 7.080
12 F7 124 9.033
12 F7 125 11.963
12 F7 126 14.404
12 F7 127 15.381
12 F7 128 13.916
12 F7 129 11.475
12 F7 130 8.545
12 F7 131 7.568
12 F7 132 8.057
12 F7 133 9.033
12 F7 134 9.521
12 F7 135 9.033
12 F7 136 9.033
12 F7 137 8.057
12 F7 138 7.568
12 F7 139 6.592
12 F7 140 6.104
12 F7 141 6.592
12 F7 142 8.545
12 F7 143 10.986
12 F7 144 12.451
12 F7 145 11.475
12 F7 146 8.545
12 F7 147 5.127
12 F7 148 2.197
12 F7 149 0.732
12 F7 150 1.221
12 F7 151 2.686
12 F7 152 3.662
12 F7 153 4.639
12 F7 154 5.127
12 F7 155 5.127
12 F7 156 5.127
12 F7 157 4.639
12 F7 158 3.662
12 F7 159 2.197
12 F7 160 1.221
12 F7 161 0.732
12 F7 162 0.732
12 F7 163 1.709
12 F7 164 3.662
12 F7 165 6.104
12 F7 166 7.568
12 F7 167 8.057
12 F7 168 7.568
12 F7 169 6.592
12 F7 170 5.615
12 F7 171 6.592
12 F7 172 7.568
12 F7 173 8.545
12 F7 174 9.033
12 F7 175 9.521
12 F7 176 10.498
12 F7 177 11.963
12 F7 178 13.428
12 F7 179 12.939
12 F7 180 10.986
12 F7 181 8.545
12 F7 182 7.080
12 F7 183 8.057
12 F7 184 10.498
12 F7 185 12.451
12 F7 186 12.451
12 F7 187 11.963
12 F7 188 10.986
12 F7 189 10.986
12 F7 190 11.475
12 F7 191 11.963
12 F7 192 10.498
12 F7 193 7.568
12 F7 194 4.150
12 F7 195 2.197
12 F7 196 2.197
12 F7 197 3.662
12 F7 198 6.104
12 F7 199 8.545
12 F7 200 10.498
12 F7 201 11.475
12 F7 202 11.963
12 F7 203 11.963
12 F7 204 13.428
12 F7 205 15.869
12 F7 206 18.799
12 F7 207 20.264
12 F7 208 19.775
12 F7 209 16.357
12 F7 210 12.939
12 F7 211 10.986
12 F7 212 11.963
12 F7 213 15.869
12 F7 214 18.799
12 F7 215 20.264
12 F7 216 18.799
12 F7 217 15.869
12 F7 218 14.404
12 F7 219 14.893
12 F7 220 16.357
12 F7 221 17.334
12 F7 222 15.869
12 F7 223 12.939
12 F7 224 10.498
12 F7 225 9.521
12 F7 226 10.498
12 F7 227 12.451
12 F7 228 13.916
12 F7 229 14.404
12 F7 230 13.428
12 F7 231 12.939
12 F7 232 12.939
12 F7 233 13.428
12 F7 234 14.404
12 F7 235 15.869
12 F7 236 17.334
12 F7 237 17.822
12 F7 238 18.799
12 F7 239 18.799
12 F7 240 18.311
12 F7 241 16.846
12 F7 242 15.381
12 F7 243 13.916
12 F7 244 13.916
12 F7 245 14.893
12 F7 246 15.869
12 F7 247 16.357
12 F7 248 15.869
12 F7 249 13.916
12 F7 250 11.963
12 F7 251 10.010
12 F7 252 8.545
12 F7 253 8.057
12 F7 254 8.545
12 F7 255 9.033
# F8 chan 3
12 F8 0 -21.973
12 F8 1 -20.020
12 F8 2 -15.625
12 F8 3 -11.230
12 F8 4 -8.301
12 F8 5 -6.836
12 F8 6 -6.836
12 F8 7 -6.836
12 F8 8 -5.859
12 F8 9 -4.395
12 F8 10 -1.953
12 F8 11 0.977
12 F8 12 3.418
12 F8 13 4.883
12 F8 14 5.371
12 F8 15 4.395
12 F8 16 2.441
12 F8 17 1.465
12 F8 18 2.441
12 F8 19 4.883
12 F8 20 7.812
12 F8 21 10.254
12 F8 22 11.230
12 F8 23 11.230
12 F8 24 9.766
12 F8 25 8.789
12 F8 26 8.301
12 F8 27 9.277
12 F8 28 10.742
12 F8 29 12.695
12 F8 30 14.160
12 F8 31 15.137
12 F8 32 15.625
12 F8 33 15.625
12 F8 34 15.137
12 F8 35 14.160
12 F8 36 12.207
12 F8 37 8.789
12 F8 38 4.883
12 F8 39 1.953
12 F8 40 0.488
12 F8 41 0.977
12 F8 42 2.930
12 F8 43 5.371
12 F8 44 7.324
12 F8 45 7.812
12 F8 46 7.324
12 F8 47 6.348
12 F8 48 5.859
12 F8 49 5.859
12 F8 50 6.836
12 F8 51 8.301
12 F8 52 8.301
12 F8 53 6.836
12 F8 54 3.906
12 F8 55 0.488
12 F8 56 -1.465
12 F8 57 -1.953
12 F8 58 -0.977
12 F8 59 0.000
12 F8 60 0.000
12 F8 61 -0.977
12 F8 62 -2.441
12 F8 63 -2.441
12 F8 64 -1.465
12 F8 65 -0.488
12 F8 66 0.000
12 F8 67 0.000
12 F8 68 -0.977
12 F8 69 -1.465
12 F8 70 -1.465
12 F8 71 -0.977
12 F8 72 -0.977
12 F8 73 -1.953
12 F8 74 -1.953
12 F8 75 -0.977
12 F8 76 0.977
12 F8 77 3.418
12 F8 78 5.371
12 F8 79 6.348
12 F8 80 6.836
12 F8 81 6.836
12 F8 82 6.836
12 F8 83 6.348
12 F8 84 6.348
12 F8 85 5.859
12 F8 86 5.859
12 F8 87 5.859
12 F8 88 6.348
12 F8 89 6.348
12 F8 90 5.859
12 F8 91 5.371
12 F8 92 4.883
12 F8 93 6.348
12 F8 94 8.301
12 F8 95 10.742
12 F8 96 12.207
12 F8 97 12.695
12 F8 98 12.207
12 F8 99 11.719
12 F8 100 11.230
12 F8 101 10.742
12 F8 102 9.766
12 F8 103 7.324
12 F8 104 4.395
12 F8 105 1.953
12 F8 106 0.977
12 F8 107 0.977
12 F8 108 1.465
12 F8 109 1.953
12 F8 110 1.465
12 F8 111 1.465
12 F8 112 1.953
12 F8 113 3.418
12 F8 114 5.859
12 F8 115 8.789
12 F8 116 11.230
12 F8 117 11.719
12 F8 118 12.207
12 F8 119 12.207
12 F8 120 11.719
12 F8 121 11.230
12 F8 122 11.719
12 F8 123 12.207
12 F8 124 12.695
12 F8 125 13.184
12 F8 126 14.160
12 F8 127 16.113
12 F8 128 17.578
12 F8 129 18.555
12 F8 130 18.066
12 F8 131 15.625
12 F8 132 12.207
12 F8 133 9.277
12 F8 134 7.812
12 F8 135 8.301
12 F8 136 10.742
12 F8 137 13.672
12 F8 138 15.625
12 F8 139 15.625
12 F8 140 14.160
12 F8 141 12.695
12 F8 142 11.230
12 F8 143 11.230
12 F8 144 11.719
12 F8 145 12.207
12 F8 146 12.207
12 F8 147 11.719
12 F8 148 9.766
12 F8 149 6.836
12 F8 150 3.418
12 F8 151 0.977
12 F8 152 -0.977
12 F8 153 -0.977
12 F8 154 -0.977
12 F8 155 -0.977
12 F8 156 -0.488
12 F8 157 0.000
12 F8 158 0.977
12 F8 159 3.418
12 F8 160 6.836
12 F8 161 9.277
12 F8 162 10.742
12 F8 163 10.742
12 F8 164 9.277
12 F8 165 7.324
12 F8 166 6.836
12 F8 167 7.324
12 F8 168 8.789
12 F8 169 11.230
12 F8 170 12.695
12 F8 171 13.184
12 F8 172 12.207
12 F8 173 10.254
12 F8 174 9.766
12 F8 175 10.254
12 F8 176 12.695
12 F8 177 15.625
12 F8 178 17.090
12 F8 179 17.090
12 F8 180 15.137
12 F8 181 13.184
12 F8 182 11.719
12 F8 183 11.230
12 F8 184 11.719
12 F8 185 12.207
12 F8 186 12.207
12 F8 187 12.207
12 F8 188 12.695
12 F8 189 13.672
12 F8 190 14.648
12 F8 191 14.648
12 F8 192 14.160
12 F8 193 12.695
12 F8 194 11.230
12 F8 195 10.742
12 F8 196 11.230
12 F8 197 13.184
12 F8 198 15.137
12 F8 199 16.113
12 F8 200 15.625
12 F8 201 14.160
12 F8 202 12.207
12 F8 203 10.742
12 F8 204 10.742
12 F8 205 11.719
12 F8 206 13.184
12 F8 207 14.648
12 F8 208 15.137
12 F8 209 15.137
12 F8 210 14.160
12 F8 211 14.160
12 F8 212 13.672
12 F8 213 13.184
12 F8 214 12.695
12 F8 215 11.719
12 F8 216 11.719
12 F8 217 11.230
12 F8 218 10.742
12 F8 219 10.742
12 F8 220 10.742
12 F8 221 10.254
12 F8 222 9.766
12 F8 223 9.277
12 F8 224 9.277
12 F8 225 9.766
12 F8 226 10.742
12 F8 227 11.719
12 F8 228 13.184
12 F8 229 13.672
12 F8 230 12.207
12 F8 231 8.789
12 F8 232 4.883
12 F8 233 0.977
12 F8 234 -0.977
12 F8 235 -0.977
12 F8 236 0.488
12 F8 237 1.953
12 F8 238 3.418
12 F8 239 4.395
12 F8 240 4.883
12 F8 241 5.371
12 F8 242 5.859
12 F8 243 6.348
12 F8 244 7.324
12 F8 245 7.812
12 F8 246 8.301
12 F8 247 7.812
12 F8 248 6.836
12 F8 249 6.348
12 F8 250 7.324
12 F8 251 9.277
12 F8 252 11.230
12 F8 253 13.184
12 F8 254 13.672
12 F8 255 13.672
# AF1 chan 4
12 AF1 0 -6.683
12 AF1 1 -4.730
12 AF1 2 -4.730
12 AF1 3 -5.707
12 AF1 4 -6.683
12 AF1 5 -7.172
12 AF1 6 -6.195
12 AF1 7 -4.242
12 AF1 8 -1.312
12 AF1 9 1.617
12 AF1 10 3.571
12 AF1 11 6.012
12 AF1 12 7.477
12 AF1 13 7.477
12 AF1 14 6.012
12 AF1 15 3.082
12 AF1 16 0.641
12 AF1 17 -0.336
12 AF1 18 1.129
12 AF1 19 4.059
12 AF1 20 6.012
12 AF1 21 6.500
12 AF1 22 5.524
12 AF1 23 3.571
12 AF1 24 2.106
12 AF1 25 1.129
12 AF1 26 1.617
12 AF1 27 2.594
12 AF1 28 4.059
12 AF1 29 6.012
12 AF1 30 7.477
12 AF1 31 8.453
12 AF1 32 7.965
12 AF1 33 5.524
12 AF1 34 3.082
12 AF1 35 0.641
12 AF1 36 -1.312
12 AF1 37 -2.289
12 AF1 38 -3.265
12 AF1 39 -3.754
12 AF1 40 -4.730
12 AF1 41 -4.730
12 AF1 42 -3.754
12 AF1 43 -1.801
12 AF1 44 0.153
12 AF1 45 1.129
12 AF1 46 1.617
12 AF1 47 1.129
12 AF1 48 -0.336
12 AF1 49 -1.312
12 AF1 50 -1.312
12 AF1 51 -0.824
12 AF1 52 0.153
12 AF1 53 1.617
12 AF1 54 1.617
12 AF1 55 0.153
12 AF1 56 -1.801
12 AF1 57 -3.754
12 AF1 58 -4.242
12 AF1 59 -3.754
12 AF1 60 -3.754
12 AF1 61 -4.242
12 AF1 62 -5.219
12 AF1 63 -6.195
12 AF1 64 -5.707
12 AF1 65 -5.219
12 AF1 66 -4.730
12 AF1 67 -5.707
12 AF1 68 -6.683
12 AF1 69 -8.148
12 AF1 70 -8.148
12 AF1 71 -7.660
12 AF1 72 -7.660
12 AF1 73 -7.660
12 AF1 74 -8.636
12 AF1 75 -8.636
12 AF1 76 -8.636
12 AF1 77 -7.172
12 AF1 78 -6.195
12 AF1 79 -4.730
12 AF1 80 -3.265
12 AF1 81 -1.801
12 AF1 82 -1.312
12 AF1 83 -0.824
12 AF1 84 -0.824
12 AF1 85 -1.312
12 AF1 86 -1.801
12 AF1 87 -1.801
12 AF1 88 -1.312
12 AF1 89 -0.824
12 AF1 90 -0.824
12 AF1 91 -0.336
12 AF1 92 -0.824
12 AF1 93 -1.312
12 AF1 94 -1.801
12 AF1 95 -1.801
12 AF1 96 -2.289
12 AF1 97 -2.289
12 AF1 98 -2.289
12 AF1 99 -2.289
12 AF1 100 -1.312
12 AF1 101 -0.336
12 AF1 102 0.153
12 AF1 103 0.153
12 AF1 104 0.153
12 AF1 105 0.641
12 AF1 106 1.129
12 AF1 107 1.129
12 AF1 108 1.129
12 AF1 109 -0.336
12 AF1 110 -2.777
12 AF1 111 -4.242
12 AF1 112 -5.219
12 AF1 113 -4.730
12 AF1 114 -4.242
12 AF1 115 -3.754
12 AF1 116 -4.730
12 AF1 117 -4.730
12 AF1 118 -3.754
12 AF1 119 -1.312
12 AF1 120 2.106
12 AF1 121 3.571
12 AF1 122 3.571
12 AF1 123 2.106
12 AF1 124 1.129
12 AF1 125 2.106
12 AF1 126 4.547
12 AF1 127 6.989
12 AF1 128 8.942
12 AF1 129 9.918
12 AF1 130 10.406
12 AF1 131 10.895
12 AF1 132 10.895
12 AF1 133 10.406
12 AF1 134 8.942
12 AF1 135 6.989
12 AF1 136 5.035
12 AF1 137 3.571
12 AF1 138 3.082
12 AF1 139 3.571
12 AF1 140 4.059
12 AF1 141 5.035
12 AF1 142 6.012
12 AF1 143 6.989
12 AF1 144 7.477
12 AF1 145 6.012
12 AF1 146 3.082
12 AF1 147 -0.824
12 AF1 148 -3.754
12 AF1 149 -5.219
12 AF1 150 -5.219
12 AF1 151 -4.242
12 AF1 152 -3.265
12 AF1 153 -1.801
12 AF1 154 -0.824
12 AF1 155 -0.336
12 AF1 156 -1.312
12 AF1 157 -2.777
12 AF1 158 -4.242
12 AF1 159 -5.219
12 AF1 160 -5.707
12 AF1 161 -5.707
12 AF1 162 -5.219
12 AF1 163 -4.242
12 AF1 164 -2.777
12 AF1 165 -0.824
12 AF1 166 0.641
12 AF1 167 1.617
12 AF1 168 2.106
12 AF1 169 1.617
12 AF1 170 1.617
12 AF1 171 1.617
12 AF1 172 1.129
12 AF1 173 0.641
12 AF1 174 1.129
12 AF1 175 2.594
12 AF1 176 5.035
12 AF1 177 7.477
12 AF1 178 9.430
12 AF1 179 8.942
12 AF1 180 6.012
12 AF1 181 3.571
12 AF1 182 2.594
12 AF1 183 3.082
12 AF1 184 5.524
12 AF1 185 7.965
12 AF1 186 9.918
12 AF1 187 10.895
12 AF1 188 11.383
12 AF1 189 10.895
12 AF1 190 10.406
12 AF1 191 8.942
12 AF1 192 6.500
12 AF1 193 3.571
12 AF1 194 0.641
12 AF1 195 -2.289
12 AF1 196 -3.754
12 AF1 197 -3.754
12 AF1 198 -3.265
12 AF1 199 -2.777
12 AF1 200 -2.289
12 AF1 201 -3.265
12 AF1 202 -4.242
12 AF1 203 -4.242
12 AF1 204 -2.289
12 AF1 205 0.153
12 AF1 206 2.594
12 AF1 207 4.547
12 AF1 208 5.524
12 AF1 209 6.012
12 AF1 210 6.989
12 AF1 211 7.477
12 AF1 212 7.965
12 AF1 213 9.430
12 AF1 214 9.918
12 AF1 215 10.406
12 AF1 216 9.430
12 AF1 217 8.453
12 AF1 218 7.477
12 AF1 219 7.477
12 AF1 220 7.477
12 AF1 221 7.965
12 AF1 222 8.453
12 AF1 223 7.477
12 AF1 224 6.012
12 AF1 225 4.547
12 AF1 226 3.571
12 AF1 227 4.059
12 AF1 228 5.524
12 AF1 229 6.500
12 AF1 230 6.500
12 AF1 231 5.524
12 AF1 232 3.571
12 AF1 233 2.106
12 AF1 234 1.617
12 AF1 235 2.106
12 AF1 236 3.571
12 AF1 237 5.524
12 AF1 238 7.965
12 AF1 239 9.918
12 AF1 240 10.406
12 AF1 241 10.406
12 AF1 242 9.430
12 AF1 243 8.942
12 AF1 244 9.430
12 AF1 245 9.918
12 AF1 246 9.918
12 AF1 247 9.918
12 AF1 248 9.918
12 AF1 249 9.430
12 AF1 250 8.942
12 AF1 251 7.965
12 AF1 252 7.477
12 AF1 253 6.989
12 AF1 254 6.989
12 AF1 255 7.477
# AF2 chan 5
12 AF2 0 -14.394
12 AF2 1 -13.906
12 AF2 2 -12.929
12 AF2 3 -11.464
12 AF2 4 -10.000
12 AF2 5 -9.511
12 AF2 6 -8.535
12 AF2 7 -8.046
12 AF2 8 -7.070
12 AF2 9 -5.605
12 AF2 10 -3.652
12 AF2 11 -0.722
12 AF2 12 2.207
12 AF2 13 4.649
12 AF2 14 5.137
12 AF2 15 3.672
12 AF2 16 1.719
12 AF2 17 0.743
12 AF2 18 0.743
12 AF2 19 2.207
12 AF2 20 3.672
12 AF2 21 5.137
12 AF2 22 5.625
12 AF2 23 5.137
12 AF2 24 5.137
12 AF2 25 5.137
12 AF2 26 5.625
12 AF2 27 5.625
12 AF2 28 6.602
12 AF2 29 7.579
12 AF2 30 9.043
12 AF2 31 10.020
12 AF2 32 9.532
12 AF2 33 9.043
12 AF2 34 7.579
12 AF2 35 6.602
12 AF2 36 5.625
12 AF2 37 4.649
12 AF2 38 3.184
12 AF2 39 1.231
12 AF2 40 -0.234
12 AF2 41 -1.211
12 AF2 42 -0.722
12 AF2 43 0.743
12 AF2 44 2.696
12 AF2 45 3.672
12 AF2 46 3.672
12 AF2 47 3.184
12 AF2 48 2.696
12 AF2 49 2.696
12 AF2 50 3.672
12 AF2 51 4.161
12 AF2 52 4.161
12 AF2 53 4.161
12 AF2 54 3.184
12 AF2 55 1.719
12 AF2 56 -0.234
12 AF2 57 -2.187
12 AF2 58 -2.675
12 AF2 59 -2.675
12 AF2 60 -2.675
12 AF2 61 -2.187
12 AF2 62 -2.675
12 AF2 63 -3.164
12 AF2 64 -3.164
12 AF2 65 -2.675
12 AF2 66 -2.187
12 AF2 67 -3.164
12 AF2 68 -4.140
12 AF2 69 -4.628
12 AF2 70 -5.117
12 AF2 71 -5.117
12 AF2 72 -5.117
12 AF2 73 -4.628
12 AF2 74 -5.117
12 AF2 75 -5.117
12 AF2 76 -5.117
12 AF2 77 -4.140
12 AF2 78 -3.164
12 AF2 79 -2.187
12 AF2 80 -1.211
12 AF2 81 -0.234
12 AF2 82 -0.722
12 AF2 83 -1.211
12 AF2 84 -2.187
12 AF2 85 -2.187
12 AF2 86 -2.187
12 AF2 87 -2.187
12 AF2 88 -2.187
12 AF2 89 -2.187
12 AF2 90 -2.187
12 AF2 91 -1.699
12 AF2 92 -1.699
12 AF2 93 -1.699
12 AF2 94 -1.211
12 AF2 95 -1.699
12 AF2 96 -1.699
12 AF2 97 -2.187
12 AF2 98 -1.699
12 AF2 99 -1.211
12 AF2 100 -0.234
12 AF2 101 0.254
12 AF2 102 0.743
12 AF2 103 0.254
12 AF2 104 -0.234
12 AF2 105 -0.722
12 AF2 106 -1.211
12 AF2 107 -0.722
12 AF2 108 -0.722
12 AF2 109 -1.211
12 AF2 110 -2.675
12 AF2 111 -3.652
12 AF2 112 -4.628
12 AF2 113 -4.140
12 AF2 114 -2.675
12 AF2 115 -1.699
12 AF2 116 -1.699
12 AF2 117 -1.699
12 AF2 118 -0.722
12 AF2 119 1.231
12 AF2 120 3.184
12 AF2 121 5.137
12 AF2 122 4.649
12 AF2 123 3.672
12 AF2 124 2.207
12 AF2 125 2.696
12 AF2 126 4.649
12 AF2 127 7.579
12 AF2 128 9.532
12 AF2 129 10.997
12 AF2 130 10.997
12 AF2 131 10.508
12 AF2 132 9.532
12 AF2 133 8.067
12 AF2 134 7.090
12 AF2 135 5.137
12 AF2 136 5.137
12 AF2 137 5.625
12 AF2 138 6.114
12 AF2 139 6.602
12 AF2 140 6.114
12 AF2 141 5.625
12 AF2 142 5.137
12 AF2 143 5.625
12 AF2 144 6.114
12 AF2 145 5.137
12 AF2 146 3.184
12 AF2 147 0.743
12 AF2 148 -1.699
12 AF2 149 -3.652
12 AF2 150 -4.628
12 AF2 151 -5.117
12 AF2 152 -5.117
12 AF2 153 -4.628
12 AF2 154 -4.628
12 AF2 155 -4.628
12 AF2 156 -5.605
12 AF2 157 -7.070
12 AF2 158 -7.558
12 AF2 159 -7.558
12 AF2 160 -6.582
12 AF2 161 -5.117
12 AF2 162 -3.652
12 AF2 163 -2.675
12 AF2 164 -2.187
12 AF2 165 -1.211
12 AF2 166 -0.234
12 AF2 167 0.743
12 AF2 168 1.719
12 AF2 169 2.207
12 AF2 170 2.207
12 AF2 171 1.719
12 AF2 172 0.743
12 AF2 173 -0.234
12 AF2 174 -0.234
12 AF2 175 1.719
12 AF2 176 4.161
12 AF2 177 7.090
12 AF2 178 8.067
12 AF2 179 7.090
12 AF2 180 5.137
12 AF2 181 2.696
12 AF2 182 1.231
12 AF2 183 1.719
12 AF2 184 3.184
12 AF2 185 5.137
12 AF2 186 6.602
12 AF2 187 8.067
12 AF2 188 8.555
12 AF2 189 9.043
12 AF2 190 8.067
12 AF2 191 6.602
12 AF2 192 4.161
12 AF2 193 1.231
12 AF2 194 -1.211
12 AF2 195 -3.164
12 AF2 196 -3.652
12 AF2 197 -3.164
12 AF2 198 -2.675
12 AF2 199 -2.187
12 AF2 200 -2.675
12 AF2 201 -4.628
12 AF2 202 -6.582
12 AF2 203 -7.558
12 AF2 204 -6.093
12 AF2 205 -4.140
12 AF2 206 -1.211
12 AF2 207 1.231
12 AF2 208 2.696
12 AF2 209 3.672
12 AF2 210 4.649
12 AF2 211 5.625
12 AF2 212 6.602
12 AF2 213 7.579
12 AF2 214 7.579
12 AF2 215 7.090
12 AF2 216 6.114
12 AF2 217 5.625
12 AF2 218 4.649
12 AF2 219 4.649
12 AF2 220 5.137
12 AF2 221 5.137
12 AF2 222 5.625
12 AF2 223 5.137
12 AF2 224 4.649
12 AF2 225 4.161
12 AF2 226 3.672
12 AF2 227 4.161
12 AF2 228 5.137
12 AF2 229 6.114
12 AF2 230 5.625
12 AF2 231 3.672
12 AF2 232 0.743
12 AF2 233 -2.675
12 AF2 234 -4.140
12 AF2 235 -4.628
12 AF2 236 -3.164
12 AF2 237 -0.234
12 AF2 238 3.184
12 AF2 239 5.625
12 AF2 240 6.602
12 AF2 241 6.114
12 AF2 242 5.137
12 AF2 243 4.161
12 AF2 244 4.161
12 AF2 245 5.137
12 AF2 246 6.114
12 AF2 247 6.114
12 AF2 248 6.114
12 AF2 249 5.625
12 AF2 250 5.137
12 AF2 251 5.137
12 AF2 252 5.625
12 AF2 253 6.114
12 AF2 254 7.090
12 AF2 255 8.067
# FZ chan 6
12 FZ 0 -7.029
12 FZ 1 -6.541
12 FZ 2 -6.053
12 FZ 3 -6.541
12 FZ 4 -7.029
12 FZ 5 -8.006
12 FZ 6 -8.006
12 FZ 7 -7.029
12 FZ 8 -6.541
12 FZ 9 -5.564
12 FZ 10 -3.611
12 FZ 11 -0.682
12 FZ 12 2.248
12 FZ 13 4.201
12 FZ 14 4.201
12 FZ 15 2.248
12 FZ 16 0.295
12 FZ 17 -0.682
12 FZ 18 -0.682
12 FZ 19 0.783
12 FZ 20 2.248
12 FZ 21 3.225
12 FZ 22 3.225
12 FZ 23 2.736
12 FZ 24 2.736
12 FZ 25 2.736
12 FZ 26 2.736
12 FZ 27 2.736
12 FZ 28 3.713
12 FZ 29 5.178
12 FZ 30 6.643
12 FZ 31 7.619
12 FZ 32 7.131
12 FZ 33 5.666
12 FZ 34 3.225
12 FZ 35 1.760
12 FZ 36 0.783
12 FZ 37 0.783
12 FZ 38 0.783
12 FZ 39 -0.193
12 FZ 40 -0.682
12 FZ 41 -1.170
12 FZ 42 -0.682
12 FZ 43 0.295
12 FZ 44 1.272
12 FZ 45 2.248
12 FZ 46 1.760
12 FZ 47 1.272
12 FZ 48 0.783
12 FZ 49 0.783
12 FZ 50 0.783
12 FZ 51 0.295
12 FZ 52 0.783
12 FZ 53 1.272
12 FZ 54 1.272
12 FZ 55 -0.193
12 FZ 56 -2.146
12 FZ 57 -4.588
12 FZ 58 -5.564
12 FZ 59 -5.564
12 FZ 60 -5.076
12 FZ 61 -4.588
12 FZ 62 -4.588
12 FZ 63 -5.076
12 FZ 64 -4.588
12 FZ 65 -4.588
12 FZ 66 -4.588
12 FZ 67 -5.564
12 FZ 68 -6.541
12 FZ 69 -8.006
12 FZ 70 -8.006
12 FZ 71 -7.517
12 FZ 72 -7.029
12 FZ 73 -7.029
12 FZ 74 -7.029
12 FZ 75 -7.029
12 FZ 76 -7.029
12 FZ 77 -6.541
12 FZ 78 -6.053
12 FZ 79 -5.564
12 FZ 80 -4.588
12 FZ 81 -4.588
12 FZ 82 -4.588
12 FZ 83 -4.588
12 FZ 84 -5.564
12 FZ 85 -5.564
12 FZ 86 -6.053
12 FZ 87 -5.564
12 FZ 88 -5.564
12 FZ 89 -5.076
12 FZ 90 -4.588
12 FZ 91 -4.100
12 FZ 92 -4.100
12 FZ 93 -4.100
12 FZ 94 -4.588
12 FZ 95 -5.564
12 FZ 96 -5.564
12 FZ 97 -6.053
12 FZ 98 -6.053
12 FZ 99 -5.564
12 FZ 100 -4.588
12 FZ 101 -3.611
12 FZ 102 -2.635
12 FZ 103 -2.635
12 FZ 104 -3.123
12 FZ 105 -3.123
12 FZ 106 -3.123
12 FZ 107 -2.635
12 FZ 108 -2.635
12 FZ 109 -3.611
12 FZ 110 -5.076
12 FZ 111 -6.541
12 FZ 112 -7.517
12 FZ 113 -7.029
12 FZ 114 -6.053
12 FZ 115 -6.053
12 FZ 116 -6.541
12 FZ 117 -6.541
12 FZ 118 -5.564
12 FZ 119 -2.635
12 FZ 120 0.295
12 FZ 121 2.248
12 FZ 122 2.248
12 FZ 123 0.295
12 FZ 124 -1.170
12 FZ 125 -0.682
12 FZ 126 0.783
12 FZ 127 2.736
12 FZ 128 4.690
12 FZ 129 5.666
12 FZ 130 6.643
12 FZ 131 7.131
12 FZ 132 7.619
12 FZ 133 7.131
12 FZ 134 6.154
12 FZ 135 4.201
12 FZ 136 2.248
12 FZ 137 0.295
12 FZ 138 0.295
12 FZ 139 0.295
12 FZ 140 0.783
12 FZ 141 1.272
12 FZ 142 2.248
12 FZ 143 2.736
12 FZ 144 3.225
12 FZ 145 2.248
12 FZ 146 -0.193
12 FZ 147 -3.123
12 FZ 148 -5.564
12 FZ 149 -7.029
12 FZ 150 -7.517
12 FZ 151 -6.541
12 FZ 152 -5.564
12 FZ 153 -4.588
12 FZ 154 -3.611
12 FZ 155 -4.100
12 FZ 156 -5.076
12 FZ 157 -6.053
12 FZ 158 -7.517
12 FZ 159 -8.006
12 FZ 160 -8.006
12 FZ 161 -8.006
12 FZ 162 -7.029
12 FZ 163 -6.053
12 FZ 164 -4.588
12 FZ 165 -3.123
12 FZ 166 -1.658
12 FZ 167 -1.170
12 FZ 168 -1.170
12 FZ 169 -1.170
12 FZ 170 -1.658
12 FZ 171 -2.146
12 FZ 172 -2.635
12 FZ 173 -3.123
12 FZ 174 -2.635
12 FZ 175 -1.170
12 FZ 176 1.272
12 FZ 177 3.225
12 FZ 178 3.713
12 FZ 179 3.225
12 FZ 180 1.272
12 FZ 181 -0.682
12 FZ 182 -1.658
12 FZ 183 -1.170
12 FZ 184 0.295
12 FZ 185 2.248
12 FZ 186 3.713
12 FZ 187 4.690
12 FZ 188 6.154
12 FZ 189 6.643
12 FZ 190 6.154
12 FZ 191 4.201
12 FZ 192 1.272
12 FZ 193 -2.146
12 FZ 194 -5.076
12 FZ 195 -6.541
12 FZ 196 -7.029
12 FZ 197 -6.541
12 FZ 198 -5.564
12 FZ 199 -5.076
12 FZ 200 -5.564
12 FZ 201 -7.029
12 FZ 202 -8.494
12 FZ 203 -8.982
12 FZ 204 -7.517
12 FZ 205 -5.564
12 FZ 206 -3.611
12 FZ 207 -2.146
12 FZ 208 -0.682
12 FZ 209 0.783
12 FZ 210 1.760
12 FZ 211 2.736
12 FZ 212 3.713
12 FZ 213 4.201
12 FZ 214 4.201
12 FZ 215 4.201
12 FZ 216 3.713
12 FZ 217 3.225
12 FZ 218 2.736
12 FZ 219 2.248
12 FZ 220 2.248
12 FZ 221 2.736
12 FZ 222 2.736
12 FZ 223 2.736
12 FZ 224 1.760
12 FZ 225 0.295
12 FZ 226 -0.682
12 FZ 227 -0.682
12 FZ 228 0.295
12 FZ 229 1.272
12 FZ 230 0.783
12 FZ 231 -0.193
12 FZ 232 -2.146
12 FZ 233 -4.100
12 FZ 234 -5.076
12 FZ 235 -5.076
12 FZ 236 -4.100
12 FZ 237 -2.146
12 FZ 238 0.295
12 FZ 239 2.736
12 FZ 240 3.713
12 FZ 241 3.713
12 FZ 242 3.225
12 FZ 243 2.248
12 FZ 244 1.760
12 FZ 245 1.760
12 FZ 246 1.760
12 FZ 247 1.760
12 FZ 248 1.760
12 FZ 249 2.248
12 FZ 250 2.248
12 FZ 251 2.248
12 FZ 252 2.248
12 FZ 253 2.248
12 FZ 254 2.736
12 FZ 255 3.713
# F4 chan 7
12 F4 0 -15.849
12 F4 1 -15.849
12 F4 2 -13.896
12 F4 3 -10.966
12 F4 4 -8.525
12 F4 5 -7.060
12 F4 6 -7.548
12 F4 7 -8.036
12 F4 8 -8.525
12 F4 9 -8.036
12 F4 10 -6.083
12 F4 11 -3.153
12 F4 12 0.753
12 F4 13 3.682
12 F4 14 4.659
12 F4 15 4.171
12 F4 16 2.218
12 F4 17 0.264
12 F4 18 -0.224
12 F4 19 0.264
12 F4 20 1.729
12 F4 21 3.682
12 F4 22 4.659
12 F4 23 5.147
12 F4 24 5.636
12 F4 25 5.147
12 F4 26 5.147
12 F4 27 4.659
12 F4 28 4.659
12 F4 29 5.147
12 F4 30 7.100
12 F4 31 8.077
12 F4 32 8.565
12 F4 33 8.077
12 F4 34 7.100
12 F4 35 6.124
12 F4 36 6.124
12 F4 37 5.636
12 F4 38 4.659
12 F4 39 2.706
12 F4 40 0.753
12 F4 41 -0.712
12 F4 42 -0.712
12 F4 43 0.264
12 F4 44 1.241
12 F4 45 1.729
12 F4 46 1.241
12 F4 47 0.753
12 F4 48 1.241
12 F4 49 2.706
12 F4 50 3.682
12 F4 51 4.171
12 F4 52 4.171
12 F4 53 3.194
12 F4 54 2.218
12 F4 55 0.264
12 F4 56 -1.689
12 F4 57 -3.642
12 F4 58 -4.130
12 F4 59 -4.130
12 F4 60 -3.153
12 F4 61 -2.177
12 F4 62 -2.177
12 F4 63 -2.177
12 F4 64 -2.665
12 F4 65 -2.665
12 F4 66 -2.665
12 F4 67 -3.153
12 F4 68 -4.130
12 F4 69 -5.107
12 F4 70 -5.107
12 F4 71 -5.107
12 F4 72 -4.618
12 F4 73 -4.130
12 F4 74 -4.130
12 F4 75 -4.130
12 F4 76 -4.130
12 F4 77 -3.642
12 F4 78 -3.642
12 F4 79 -3.153
12 F4 80 -2.665
12 F4 81 -2.665
12 F4 82 -3.153
12 F4 83 -3.642
12 F4 84 -4.618
12 F4 85 -4.618
12 F4 86 -4.618
12 F4 87 -4.618
12 F4 88 -4.618
12 F4 89 -4.618
12 F4 90 -4.618
12 F4 91 -4.618
12 F4 92 -4.130
12 F4 93 -3.642
12 F4 94 -3.153
12 F4 95 -2.177
12 F4 96 -1.689
12 F4 97 -1.200
12 F4 98 -0.712
12 F4 99 -0.712
12 F4 100 -0.712
12 F4 101 -0.224
12 F4 102 -0.224
12 F4 103 -0.712
12 F4 104 -1.200
12 F4 105 -1.689
12 F4 106 -1.200
12 F4 107 -0.712
12 F4 108 -0.224
12 F4 109 -0.712
12 F4 110 -1.689
12 F4 111 -3.153
12 F4 112 -3.642
12 F4 113 -3.642
12 F4 114 -2.177
12 F4 115 -1.200
12 F4 116 -1.200
12 F4 117 -1.200
12 F4 118 -0.712
12 F4 119 0.753
12 F4 120 2.218
12 F4 121 2.706
12 F4 122 1.729
12 F4 123 0.264
12 F4 124 -0.712
12 F4 125 -0.224
12 F4 126 2.218
12 F4 127 4.659
12 F4 128 6.612
12 F4 129 7.100
12 F4 130 7.100
12 F4 131 6.124
12 F4 132 5.147
12 F4 133 3.682
12 F4 134 3.194
12 F4 135 2.706
12 F4 136 3.682
12 F4 137 4.659
12 F4 138 5.636
12 F4 139 6.124
12 F4 140 5.147
12 F4 141 3.682
12 F4 142 3.194
12 F4 143 3.194
12 F4 144 4.171
12 F4 145 4.171
12 F4 146 3.194
12 F4 147 1.241
12 F4 148 -1.200
12 F4 149 -3.642
12 F4 150 -5.595
12 F4 151 -7.060
12 F4 152 -8.036
12 F4 153 -8.036
12 F4 154 -7.548
12 F4 155 -7.060
12 F4 156 -7.548
12 F4 157 -8.525
12 F4 158 -9.013
12 F4 159 -8.525
12 F4 160 -6.571
12 F4 161 -5.107
12 F4 162 -3.642
12 F4 163 -3.153
12 F4 164 -2.665
12 F4 165 -2.177
12 F4 166 -1.200
12 F4 167 -0.224
12 F4 168 0.753
12 F4 169 1.241
12 F4 170 1.241
12 F4 171 0.264
12 F4 172 -0.712
12 F4 173 -1.200
12 F4 174 -1.200
12 F4 175 0.264
12 F4 176 2.706
12 F4 177 4.659
12 F4 178 5.636
12 F4 179 4.659
12 F4 180 2.706
12 F4 181 1.241
12 F4 182 0.264
12 F4 183 0.264
12 F4 184 0.753
12 F4 185 1.241
12 F4 186 2.218
12 F4 187 3.194
12 F4 188 4.659
12 F4 189 5.636
12 F4 190 5.636
12 F4 191 4.171
12 F4 192 1.241
12 F4 193 -1.689
12 F4 194 -4.130
12 F4 195 -5.107
12 F4 196 -5.107
12 F4 197 -4.130
12 F4 198 -2.665
12 F4 199 -2.177
12 F4 200 -2.665
12 F4 201 -4.618
12 F4 202 -6.571
12 F4 203 -7.548
12 F4 204 -6.571
12 F4 205 -5.107
12 F4 206 -2.665
12 F4 207 -0.712
12 F4 208 1.241
12 F4 209 2.706
12 F4 210 3.682
12 F4 211 4.171
12 F4 212 4.171
12 F4 213 4.171
12 F4 214 4.171
12 F4 215 3.682
12 F4 216 3.194
12 F4 217 2.706
12 F4 218 2.706
12 F4 219 2.218
12 F4 220 2.218
12 F4 221 2.218
12 F4 222 2.218
12 F4 223 2.706
12 F4 224 2.706
12 F4 225 2.218
12 F4 226 2.218
12 F4 227 3.194
12 F4 228 4.171
12 F4 229 4.659
12 F4 230 3.682
12 F4 231 1.241
12 F4 232 -2.177
12 F4 233 -5.595
12 F4 234 -7.548
12 F4 235 -7.548
12 F4 236 -6.083
12 F4 237 -3.153
12 F4 238 0.264
12 F4 239 2.706
12 F4 240 3.194
12 F4 241 2.218
12 F4 242 0.753
12 F4 243 -0.224
12 F4 244 -0.224
12 F4 245 1.241
12 F4 246 2.706
12 F4 247 3.682
12 F4 248 3.682
12 F4 249 3.194
12 F4 250 3.194
12 F4 251 3.194
12 F4 252 3.682
12 F4 253 4.659
12 F4 254 6.124
12 F4 255 7.589
# F3 chan 8
12 F3 0 -0.580
12 F3 1 0.885
12 F3 2 0.397
12 F3 3 -1.556
12 F3 4 -3.021
12 F3 5 -3.510
12 F3 6 -2.533
12 F3 7 0.397
12 F3 8 3.326
12 F3 9 5.768
12 F3 10 7.721
12 F3 11 8.698
12 F3 12 8.698
12 F3 13 7.233
12 F3 14 4.791
12 F3 15 1.862
12 F3 16 -0.580
12 F3 17 -1.068
12 F3 18 -0.092
12 F3 19 1.862
12 F3 20 2.838
12 F3 21 2.838
12 F3 22 1.373
12 F3 23 -0.580
12 F3 24 -2.045
12 F3 25 -2.533
12 F3 26 -2.533
12 F3 27 -1.556
12 F3 28 -0.092
12 F3 29 2.350
12 F3 30 3.815
12 F3 31 4.303
12 F3 32 3.326
12 F3 33 0.885
12 F3 34 -2.533
12 F3 35 -5.463
12 F3 36 -6.927
12 F3 37 -7.904
12 F3 38 -7.416
12 F3 39 -6.927
12 F3 40 -6.927
12 F3 41 -6.439
12 F3 42 -5.951
12 F3 43 -5.463
12 F3 44 -3.998
12 F3 45 -2.533
12 F3 46 -2.045
12 F3 47 -2.045
12 F3 48 -3.998
12 F3 49 -5.951
12 F3 50 -7.416
12 F3 51 -6.439
12 F3 52 -3.998
12 F3 53 -2.533
12 F3 54 -2.045
12 F3 55 -3.510
12 F3 56 -5.951
12 F3 57 -7.416
12 F3 58 -7.416
12 F3 59 -6.439
12 F3 60 -5.951
12 F3 61 -5.951
12 F3 62 -6.439
12 F3 63 -6.439
12 F3 64 -5.463
12 F3 65 -4.974
12 F3 66 -5.463
12 F3 67 -6.927
12 F3 68 -8.881
12 F3 69 -9.857
12 F3 70 -9.857
12 F3 71 -8.881
12 F3 72 -7.904
12 F3 73 -8.392
12 F3 74 -8.881
12 F3 75 -9.857
12 F3 76 -9.857
12 F3 77 -8.392
12 F3 78 -6.439
12 F3 79 -5.463
12 F3 80 -4.486
12 F3 81 -4.486
12 F3 82 -3.510
12 F3 83 -3.021
12 F3 84 -3.021
12 F3 85 -3.510
12 F3 86 -4.486
12 F3 87 -4.974
12 F3 88 -4.974
12 F3 89 -3.998
12 F3 90 -3.021
12 F3 91 -2.533
12 F3 92 -2.533
12 F3 93 -2.533
12 F3 94 -3.021
12 F3 95 -3.021
12 F3 96 -3.510
12 F3 97 -3.998
12 F3 98 -3.998
12 F3 99 -3.510
12 F3 100 -2.045
12 F3 101 -1.068
12 F3 102 -0.092
12 F3 103 0.397
12 F3 104 0.885
12 F3 105 1.862
12 F3 106 2.838
12 F3 107 2.838
12 F3 108 1.862
12 F3 109 -0.092
12 F3 110 -2.533
12 F3 111 -4.486
12 F3 112 -5.463
12 F3 113 -5.463
12 F3 114 -4.974
12 F3 115 -4.974
12 F3 116 -5.463
12 F3 117 -5.463
12 F3 118 -3.998
12 F3 119 -1.556
12 F3 120 0.885
12 F3 121 2.350
12 F3 122 1.862
12 F3 123 0.397
12 F3 124 -0.580
12 F3 125 -0.092
12 F3 126 1.862
12 F3 127 4.303
12 F3 128 5.768
12 F3 129 6.256
12 F3 130 6.744
12 F3 131 7.233
12 F3 132 8.698
12 F3 133 9.186
12 F3 134 9.186
12 F3 135 7.233
12 F3 136 4.791
12 F3 137 2.350
12 F3 138 0.885
12 F3 139 0.885
12 F3 140 1.862
12 F3 141 4.303
12 F3 142 6.256
12 F3 143 7.721
12 F3 144 7.721
12 F3 145 6.256
12 F3 146 3.326
12 F3 147 -0.092
12 F3 148 -3.021
12 F3 149 -4.486
12 F3 150 -3.998
12 F3 151 -2.045
12 F3 152 0.397
12 F3 153 2.350
12 F3 154 3.326
12 F3 155 3.326
12 F3 156 1.862
12 F3 157 -0.092
12 F3 158 -2.533
12 F3 159 -4.486
12 F3 160 -5.951
12 F3 161 -7.416
12 F3 162 -7.416
12 F3 163 -5.951
12 F3 164 -3.998
12 F3 165 -1.556
12 F3 166 -0.092
12 F3 167 0.885
12 F3 168 0.397
12 F3 169 -0.092
12 F3 170 -0.092
12 F3 171 -0.092
12 F3 172 -0.092
12 F3 173 -0.092
12 F3 174 -0.092
12 F3 175 0.885
12 F3 176 2.838
12 F3 177 5.768
12 F3 178 7.233
12 F3 179 7.233
12 F3 180 5.280
12 F3 181 3.326
12 F3 182 1.373
12 F3 183 1.373
12 F3 184 2.838
12 F3 185 4.303
12 F3 186 6.256
12 F3 187 6.744
12 F3 188 7.233
12 F3 189 7.233
12 F3 190 7.233
12 F3 191 6.256
12 F3 192 4.303
12 F3 193 1.373
12 F3 194 -1.556
12 F3 195 -3.510
12 F3 196 -4.486
12 F3 197 -3.998
12 F3 198 -3.021
12 F3 199 -2.045
12 F3 200 -1.556
12 F3 201 -2.533
12 F3 202 -3.510
12 F3 203 -3.998
12 F3 204 -2.533
12 F3 205 0.397
12 F3 206 3.326
12 F3 207 5.280
12 F3 208 6.256
12 F3 209 5.280
12 F3 210 4.303
12 F3 211 4.303
12 F3 212 5.280
12 F3 213 7.233
12 F3 214 8.209
12 F3 215 8.209
12 F3 216 6.744
12 F3 217 5.280
12 F3 218 4.303
12 F3 219 4.303
12 F3 220 4.791
12 F3 221 5.768
12 F3 222 5.280
12 F3 223 4.303
12 F3 224 2.350
12 F3 225 0.885
12 F3 226 0.397
12 F3 227 0.885
12 F3 228 1.862
12 F3 229 3.326
12 F3 230 3.815
12 F3 231 3.815
12 F3 232 2.838
12 F3 233 1.373
12 F3 234 0.885
12 F3 235 1.373
12 F3 236 3.326
12 F3 237 5.280
12 F3 238 6.744
12 F3 239 8.209
12 F3 240 8.698
12 F3 241 8.698
12 F3 242 8.209
12 F3 243 7.233
12 F3 244 6.744
12 F3 245 6.256
12 F3 246 6.256
12 F3 247 6.256
12 F3 248 6.256
12 F3 249 5.768
12 F3 250 5.768
12 F3 251 5.280
12 F3 252 5.280
12 F3 253 5.280
12 F3 254 5.280
12 F3 255 5.768
# FC6 chan 9
12 FC6 0 -17.354
12 FC6 1 -16.378
12 FC6 2 -11.983
12 FC6 3 -7.100
12 FC6 4 -3.194
12 FC6 5 -1.729
12 FC6 6 -2.218
12 FC6 7 -3.194
12 FC6 8 -3.682
12 FC6 9 -2.706
12 FC6 10 -0.753
12 FC6 11 1.200
12 FC6 12 2.665
12 FC6 13 3.642
12 FC6 14 3.642
12 FC6 15 3.153
12 FC6 16 2.177
12 FC6 17 1.689
12 FC6 18 1.689
12 FC6 19 2.665
12 FC6 20 5.107
12 FC6 21 7.548
12 FC6 22 9.013
12 FC6 23 9.013
12 FC6 24 8.036
12 FC6 25 6.083
12 FC6 26 5.107
12 FC6 27 5.107
12 FC6 28 7.060
12 FC6 29 9.013
12 FC6 30 10.966
12 FC6 31 12.919
12 FC6 32 13.407
12 FC6 33 12.431
12 FC6 34 11.454
12 FC6 35 10.966
12 FC6 36 9.501
12 FC6 37 8.525
12 FC6 38 7.060
12 FC6 39 5.595
12 FC6 40 4.618
12 FC6 41 3.642
12 FC6 42 3.642
12 FC6 43 4.130
12 FC6 44 4.130
12 FC6 45 4.130
12 FC6 46 3.642
12 FC6 47 3.642
12 FC6 48 3.642
12 FC6 49 4.618
12 FC6 50 6.083
12 FC6 51 7.060
12 FC6 52 7.548
12 FC6 53 6.083
12 FC6 54 3.153
12 FC6 55 0.224
12 FC6 56 -1.241
12 FC6 57 -1.241
12 FC6 58 -0.264
12 FC6 59 0.712
12 FC6 60 0.224
12 FC6 61 -0.753
12 FC6 62 -2.218
12 FC6 63 -2.706
12 FC6 64 -1.729
12 FC6 65 -0.264
12 FC6 66 0.712
12 FC6 67 0.712
12 FC6 68 0.224
12 FC6 69 -0.264
12 FC6 70 -0.264
12 FC6 71 0.224
12 FC6 72 0.712
12 FC6 73 1.200
12 FC6 74 1.200
12 FC6 75 1.200
12 FC6 76 1.200
12 FC6 77 1.689
12 FC6 78 2.177
12 FC6 79 2.665
12 FC6 80 3.153
12 FC6 81 3.642
12 FC6 82 4.618
12 FC6 83 4.618
12 FC6 84 4.130
12 FC6 85 3.642
12 FC6 86 3.153
12 FC6 87 3.153
12 FC6 88 2.665
12 FC6 89 2.665
12 FC6 90 2.665
12 FC6 91 2.177
12 FC6 92 2.665
12 FC6 93 4.130
12 FC6 94 6.571
12 FC6 95 8.525
12 FC6 96 9.989
12 FC6 97 9.989
12 FC6 98 9.013
12 FC6 99 8.036
12 FC6 100 7.060
12 FC6 101 7.060
12 FC6 102 6.571
12 FC6 103 5.595
12 FC6 104 4.130
12 FC6 105 2.177
12 FC6 106 0.712
12 FC6 107 0.224
12 FC6 108 0.224
12 FC6 109 0.224
12 FC6 110 0.224
12 FC6 111 0.224
12 FC6 112 1.200
12 FC6 113 2.665
12 FC6 114 5.107
12 FC6 115 7.060
12 FC6 116 8.525
12 FC6 117 8.525
12 FC6 118 8.036
12 FC6 119 7.060
12 FC6 120 6.083
12 FC6 121 5.595
12 FC6 122 5.595
12 FC6 123 5.595
12 FC6 124 6.083
12 FC6 125 7.060
12 FC6 126 8.525
12 FC6 127 9.989
12 FC6 128 11.454
12 FC6 129 11.454
12 FC6 130 10.966
12 FC6 131 9.013
12 FC6 132 6.571
12 FC6 133 4.618
12 FC6 134 4.130
12 FC6 135 5.595
12 FC6 136 9.013
12 FC6 137 11.943
12 FC6 138 13.896
12 FC6 139 13.896
12 FC6 140 12.919
12 FC6 141 10.966
12 FC6 142 9.501
12 FC6 143 8.036
12 FC6 144 8.036
12 FC6 145 8.525
12 FC6 146 8.525
12 FC6 147 8.036
12 FC6 148 6.571
12 FC6 149 3.642
12 FC6 150 0.224
12 FC6 151 -1.729
12 FC6 152 -2.706
12 FC6 153 -2.218
12 FC6 154 -1.241
12 FC6 155 -0.753
12 FC6 156 0.224
12 FC6 157 1.689
12 FC6 158 3.153
12 FC6 159 5.107
12 FC6 160 7.060
12 FC6 161 8.525
12 FC6 162 9.013
12 FC6 163 9.013
12 FC6 164 8.036
12 FC6 165 7.060
12 FC6 166 6.571
12 FC6 167 7.060
12 FC6 168 8.036
12 FC6 169 9.501
12 FC6 170 10.478
12 FC6 171 9.989
12 FC6 172 8.525
12 FC6 173 7.060
12 FC6 174 6.571
12 FC6 175 7.548
12 FC6 176 9.501
12 FC6 177 11.943
12 FC6 178 13.896
12 FC6 179 14.384
12 FC6 180 13.407
12 FC6 181 12.431
12 FC6 182 10.478
12 FC6 183 9.501
12 FC6 184 8.525
12 FC6 185 8.525
12 FC6 186 8.525
12 FC6 187 9.013
12 FC6 188 9.501
12 FC6 189 10.478
12 FC6 190 10.966
12 FC6 191 10.478
12 FC6 192 9.989
12 FC6 193 9.013
12 FC6 194 8.036
12 FC6 195 7.548
12 FC6 196 8.525
12 FC6 197 9.989
12 FC6 198 11.454
12 FC6 199 12.431
12 FC6 200 11.943
12 FC6 201 10.966
12 FC6 202 9.501
12 FC6 203 8.525
12 FC6 204 8.036
12 FC6 205 8.525
12 FC6 206 9.989
12 FC6 207 10.966
12 FC6 208 11.454
12 FC6 209 11.454
12 FC6 210 10.966
12 FC6 211 10.478
12 FC6 212 10.478
12 FC6 213 9.989
12 FC6 214 9.989
12 FC6 215 9.013
12 FC6 216 9.013
12 FC6 217 8.525
12 FC6 218 8.525
12 FC6 219 9.013
12 FC6 220 8.525
12 FC6 221 8.036
12 FC6 222 7.548
12 FC6 223 6.571
12 FC6 224 6.083
12 FC6 225 6.571
12 FC6 226 7.548
12 FC6 227 8.525
12 FC6 228 9.501
12 FC6 229 9.501
12 FC6 230 8.525
12 FC6 231 6.083
12 FC6 232 3.153
12 FC6 233 0.224
12 FC6 234 -1.729
12 FC6 235 -1.729
12 FC6 236 -0.753
12 FC6 237 0.224
12 FC6 238 1.200
12 FC6 239 1.689
12 FC6 240 1.689
12 FC6 241 2.177
12 FC6 242 2.665
12 FC6 243 3.642
12 FC6 244 4.130
12 FC6 245 4.618
12 FC6 246 5.595
12 FC6 247 5.595
12 FC6 248 5.595
12 FC6 249 5.595
12 FC6 250 6.083
12 FC6 251 7.060
12 FC6 252 8.525
12 FC6 253 9.989
12 FC6 254 10.966
12 FC6 255 10.966
# FC5 chan 10
12 FC5 0 4.496
12 FC5 1 4.008
12 FC5 2 1.567
12 FC5 3 -0.387
12 FC5 4 -0.875
12 FC5 5 0.102
12 FC5 6 3.031
12 FC5 7 5.961
12 FC5 8 8.403
12 FC5 9 9.867
12 FC5 10 9.867
12 FC5 11 8.403
12 FC5 12 6.449
12 FC5 13 4.008
12 FC5 14 1.078
12 FC5 15 -0.387
12 FC5 16 -0.875
12 FC5 17 0.102
12 FC5 18 2.055
12 FC5 19 4.008
12 FC5 20 4.985
12 FC5 21 4.496
12 FC5 22 3.031
12 FC5 23 1.567
12 FC5 24 0.590
12 FC5 25 1.078
12 FC5 26 1.567
12 FC5 27 3.031
12 FC5 28 3.520
12 FC5 29 4.496
12 FC5 30 5.473
12 FC5 31 5.961
12 FC5 32 5.473
12 FC5 33 4.496
12 FC5 34 2.543
12 FC5 35 0.590
12 FC5 36 -0.875
12 FC5 37 -1.851
12 FC5 38 -2.828
12 FC5 39 -2.828
12 FC5 40 -3.316
12 FC5 41 -4.293
12 FC5 42 -4.781
12 FC5 43 -4.781
12 FC5 44 -3.805
12 FC5 45 -1.851
12 FC5 46 0.102
12 FC5 47 0.102
12 FC5 48 -2.340
12 FC5 49 -5.758
12 FC5 50 -7.222
12 FC5 51 -6.734
12 FC5 52 -4.293
12 FC5 53 -2.340
12 FC5 54 -2.340
12 FC5 55 -3.805
12 FC5 56 -5.269
12 FC5 57 -5.269
12 FC5 58 -3.805
12 FC5 59 -2.340
12 FC5 60 -1.851
12 FC5 61 -2.828
12 FC5 62 -3.805
12 FC5 63 -3.316
12 FC5 64 -2.340
12 FC5 65 -1.363
12 FC5 66 -1.851
12 FC5 67 -4.293
12 FC5 68 -6.246
12 FC5 69 -6.734
12 FC5 70 -5.758
12 FC5 71 -4.293
12 FC5 72 -3.805
12 FC5 73 -5.269
12 FC5 74 -7.222
12 FC5 75 -7.711
12 FC5 76 -6.246
12 FC5 77 -4.293
12 FC5 78 -2.828
12 FC5 79 -2.828
12 FC5 80 -3.805
12 FC5 81 -3.805
12 FC5 82 -1.851
12 FC5 83 0.102
12 FC5 84 1.078
12 FC5 85 0.102
12 FC5 86 -2.340
12 FC5 87 -3.805
12 FC5 88 -3.316
12 FC5 89 -1.363
12 FC5 90 1.078
12 FC5 91 2.055
12 FC5 92 1.078
12 FC5 93 0.102
12 FC5 94 0.102
12 FC5 95 1.078
12 FC5 96 2.543
12 FC5 97 3.031
12 FC5 98 2.543
12 FC5 99 1.567
12 FC5 100 1.078
12 FC5 101 1.567
12 FC5 102 2.543
12 FC5 103 4.008
12 FC5 104 5.473
12 FC5 105 5.961
12 FC5 106 5.473
12 FC5 107 4.496
12 FC5 108 3.031
12 FC5 109 0.590
12 FC5 110 -1.363
12 FC5 111 -2.340
12 FC5 112 -1.851
12 FC5 113 -0.875
12 FC5 114 0.102
12 FC5 115 0.102
12 FC5 116 0.102
12 FC5 117 -0.387
12 FC5 118 0.102
12 FC5 119 1.567
12 FC5 120 3.031
12 FC5 121 4.496
12 FC5 122 4.985
12 FC5 123 5.473
12 FC5 124 5.961
12 FC5 125 6.938
12 FC5 126 8.403
12 FC5 127 9.379
12 FC5 128 9.379
12 FC5 129 9.379
12 FC5 130 8.403
12 FC5 131 7.426
12 FC5 132 7.426
12 FC5 133 7.426
12 FC5 134 8.403
12 FC5 135 8.891
12 FC5 136 9.379
12 FC5 137 8.891
12 FC5 138 8.403
12 FC5 139 6.938
12 FC5 140 6.449
12 FC5 141 6.938
12 FC5 142 8.891
12 FC5 143 10.356
12 FC5 144 10.844
12 FC5 145 9.379
12 FC5 146 6.938
12 FC5 147 4.008
12 FC5 148 2.055
12 FC5 149 2.055
12 FC5 150 3.031
12 FC5 151 4.496
12 FC5 152 4.985
12 FC5 153 4.985
12 FC5 154 4.985
12 FC5 155 4.985
12 FC5 156 4.985
12 FC5 157 4.985
12 FC5 158 4.008
12 FC5 159 2.055
12 FC5 160 0.102
12 FC5 161 -1.363
12 FC5 162 -0.875
12 FC5 163 1.078
12 FC5 164 3.520
12 FC5 165 4.985
12 FC5 166 5.961
12 FC5 167 5.473
12 FC5 168 4.985
12 FC5 169 4.496
12 FC5 170 4.496
12 FC5 171 4.985
12 FC5 172 5.473
12 FC5 173 5.473
12 FC5 174 5.473
12 FC5 175 5.961
12 FC5 176 7.426
12 FC5 177 9.379
12 FC5 178 10.844
12 FC5 179 11.820
12 FC5 180 11.332
12 FC5 181 9.867
12 FC5 182 7.914
12 FC5 183 6.449
12 FC5 184 6.938
12 FC5 185 7.914
12 FC5 186 9.379
12 FC5 187 10.356
12 FC5 188 9.867
12 FC5 189 8.403
12 FC5 190 6.938
12 FC5 191 5.473
12 FC5 192 5.473
12 FC5 193 4.496
12 FC5 194 3.520
12 FC5 195 2.055
12 FC5 196 1.567
12 FC5 197 3.031
12 FC5 198 5.961
12 FC5 199 8.403
12 FC5 200 9.867
12 FC5 201 9.379
12 FC5 202 7.426
12 FC5 203 6.938
12 FC5 204 8.403
12 FC5 205 12.309
12 FC5 206 15.727
12 FC5 207 17.192
12 FC5 208 15.238
12 FC5 209 11.332
12 FC5 210 8.403
12 FC5 211 6.938
12 FC5 212 8.403
12 FC5 213 11.332
12 FC5 214 13.285
12 FC5 215 13.774
12 FC5 216 12.309
12 FC5 217 11.332
12 FC5 218 10.844
12 FC5 219 11.820
12 FC5 220 13.285
12 FC5 221 13.774
12 FC5 222 12.797
12 FC5 223 10.844
12 FC5 224 8.403
12 FC5 225 6.938
12 FC5 226 5.961
12 FC5 227 5.473
12 FC5 228 5.473
12 FC5 229 5.473
12 FC5 230 6.938
12 FC5 231 7.914
12 FC5 232 8.891
12 FC5 233 9.379
12 FC5 234 9.867
12 FC5 235 10.356
12 FC5 236 11.332
12 FC5 237 11.820
12 FC5 238 11.820
12 FC5 239 11.820
12 FC5 240 11.820
12 FC5 241 12.309
12 FC5 242 12.797
12 FC5 243 12.797
12 FC5 244 12.309
12 FC5 245 10.844
12 FC5 246 9.867
12 FC5 247 9.379
12 FC5 248 9.379
12 FC5 249 8.891
12 FC5 250 7.914
12 FC5 251 6.938
12 FC5 252 5.473
12 FC5 253 4.985
12 FC5 254 4.985
12 FC5 255 5.473
# FC2 chan 11
12 FC2 0 -8.850
12 FC2 1 -8.850
12 FC2 2 -7.385
12 FC2 3 -5.920
12 FC2 4 -4.456
12 FC2 5 -3.967
12 FC2 6 -4.944
12 FC2 7 -5.920
12 FC2 8 -6.897
12 FC2 9 -6.897
12 FC2 10 -4.944
12 FC2 11 -2.502
12 FC2 12 -0.061
12 FC2 13 1.892
12 FC2 14 2.869
12 FC2 15 2.869
12 FC2 16 1.892
12 FC2 17 0.916
12 FC2 18 -0.061
12 FC2 19 -0.061
12 FC2 20 0.916
12 FC2 21 1.404
12 FC2 22 1.892
12 FC2 23 1.892
12 FC2 24 0.916
12 FC2 25 -0.061
12 FC2 26 -0.549
12 FC2 27 -0.549
12 FC2 28 0.427
12 FC2 29 1.892
12 FC2 30 3.845
12 FC2 31 4.333
12 FC2 32 4.333
12 FC2 33 3.845
12 FC2 34 2.869
12 FC2 35 3.357
12 FC2 36 3.845
12 FC2 37 3.845
12 FC2 38 3.845
12 FC2 39 3.357
12 FC2 40 2.869
12 FC2 41 1.892
12 FC2 42 1.404
12 FC2 43 0.427
12 FC2 44 -0.061
12 FC2 45 -1.038
12 FC2 46 -0.549
12 FC2 47 -0.549
12 FC2 48 -0.061
12 FC2 49 0.427
12 FC2 50 0.916
12 FC2 51 1.404
12 FC2 52 1.892
12 FC2 53 1.404
12 FC2 54 -0.061
12 FC2 55 -1.526
12 FC2 56 -2.991
12 FC2 57 -3.967
12 FC2 58 -3.967
12 FC2 59 -3.479
12 FC2 60 -3.479
12 FC2 61 -2.991
12 FC2 62 -3.479
12 FC2 63 -3.479
12 FC2 64 -3.479
12 FC2 65 -3.479
12 FC2 66 -3.479
12 FC2 67 -3.967
12 FC2 68 -4.456
12 FC2 69 -4.456
12 FC2 70 -4.944
12 FC2 71 -3.967
12 FC2 72 -3.479
12 FC2 73 -2.991
12 FC2 74 -2.991
12 FC2 75 -3.479
12 FC2 76 -3.967
12 FC2 77 -4.456
12 FC2 78 -4.456
12 FC2 79 -4.456
12 FC2 80 -3.967
12 FC2 81 -3.967
12 FC2 82 -3.967
12 FC2 83 -4.456
12 FC2 84 -5.432
12 FC2 85 -5.920
12 FC2 86 -6.409
12 FC2 87 -6.409
12 FC2 88 -5.920
12 FC2 89 -5.432
12 FC2 90 -5.432
12 FC2 91 -5.432
12 FC2 92 -5.432
12 FC2 93 -4.944
12 FC2 94 -4.456
12 FC2 95 -3.967
12 FC2 96 -3.967
12 FC2 97 -3.967
12 FC2 98 -3.967
12 FC2 99 -3.967
12 FC2 100 -2.991
12 FC2 101 -2.014
12 FC2 102 -2.014
12 FC2 103 -2.502
12 FC2 104 -2.991
12 FC2 105 -2.991
12 FC2 106 -2.991
12 FC2 107 -2.502
12 FC2 108 -2.502
12 FC2 109 -2.502
12 FC2 110 -3.479
12 FC2 111 -3.967
12 FC2 112 -3.967
12 FC2 113 -3.967
12 FC2 114 -3.479
12 FC2 115 -3.479
12 FC2 116 -3.479
12 FC2 117 -3.479
12 FC2 118 -3.479
12 FC2 119 -2.502
12 FC2 120 -2.014
12 FC2 121 -1.526
12 FC2 122 -2.014
12 FC2 123 -2.014
12 FC2 124 -2.502
12 FC2 125 -2.502
12 FC2 126 -1.526
12 FC2 127 -1.038
12 FC2 128 -0.061
12 FC2 129 0.427
12 FC2 130 0.916
12 FC2 131 0.916
12 FC2 132 0.427
12 FC2 133 0.427
12 FC2 134 0.916
12 FC2 135 0.916
12 FC2 136 0.427
12 FC2 137 0.427
12 FC2 138 -0.061
12 FC2 139 -0.549
12 FC2 140 -0.549
12 FC2 141 -0.061
12 FC2 142 -0.061
12 FC2 143 -0.061
12 FC2 144 -0.549
12 FC2 145 -0.549
12 FC2 146 -0.549
12 FC2 147 -1.526
12 FC2 148 -2.991
12 FC2 149 -4.944
12 FC2 150 -6.897
12 FC2 151 -7.385
12 FC2 152 -6.897
12 FC2 153 -5.920
12 FC2 154 -4.944
12 FC2 155 -4.944
12 FC2 156 -5.432
12 FC2 157 -5.920
12 FC2 158 -5.920
12 FC2 159 -5.432
12 FC2 160 -4.944
12 FC2 161 -4.944
12 FC2 162 -4.456
12 FC2 163 -4.456
12 FC2 164 -3.967
12 FC2 165 -2.991
12 FC2 166 -2.502
12 FC2 167 -2.014
12 FC2 168 -2.014
12 FC2 169 -2.014
12 FC2 170 -2.502
12 FC2 171 -2.991
12 FC2 172 -2.991
12 FC2 173 -3.479
12 FC2 174 -2.502
12 FC2 175 -1.526
12 FC2 176 -0.061
12 FC2 177 0.916
12 FC2 178 0.916
12 FC2 179 0.427
12 FC2 180 -0.549
12 FC2 181 -1.526
12 FC2 182 -2.014
12 FC2 183 -1.526
12 FC2 184 -1.038
12 FC2 185 -0.549
12 FC2 186 -0.061
12 FC2 187 0.427
12 FC2 188 1.404
12 FC2 189 1.892
12 FC2 190 1.892
12 FC2 191 0.427
12 FC2 192 -1.526
12 FC2 193 -3.479
12 FC2 194 -4.944
12 FC2 195 -5.432
12 FC2 196 -4.944
12 FC2 197 -3.967
12 FC2 198 -3.479
12 FC2 199 -2.991
12 FC2 200 -3.479
12 FC2 201 -4.456
12 FC2 202 -5.432
12 FC2 203 -6.409
12 FC2 204 -6.897
12 FC2 205 -6.409
12 FC2 206 -4.944
12 FC2 207 -3.479
12 FC2 208 -2.502
12 FC2 209 -1.526
12 FC2 210 -1.038
12 FC2 211 -0.549
12 FC2 212 -0.061
12 FC2 213 -0.061
12 FC2 214 -0.061
12 FC2 215 -0.549
12 FC2 216 -0.549
12 FC2 217 -0.549
12 FC2 218 -1.038
12 FC2 219 -0.549
12 FC2 220 -1.038
12 FC2 221 -1.038
12 FC2 222 -1.038
12 FC2 223 -1.038
12 FC2 224 -1.038
12 FC2 225 -1.526
12 FC2 226 -1.526
12 FC2 227 -1.526
12 FC2 228 -1.038
12 FC2 229 -1.038
12 FC2 230 -1.038
12 FC2 231 -2.014
12 FC2 232 -3.479
12 FC2 233 -5.432
12 FC2 234 -6.409
12 FC2 235 -6.897
12 FC2 236 -6.409
12 FC2 237 -4.944
12 FC2 238 -3.479
12 FC2 239 -2.502
12 FC2 240 -2.014
12 FC2 241 -1.526
12 FC2 242 -1.526
12 FC2 243 -2.014
12 FC2 244 -2.502
12 FC2 245 -2.991
12 FC2 246 -2.502
12 FC2 247 -2.014
12 FC2 248 -1.526
12 FC2 249 -1.526
12 FC2 250 -1.526
12 FC2 251 -1.526
12 FC2 252 -1.038
12 FC2 253 -0.549
12 FC2 254 0.427
12 FC2 255 1.404
# FC1 chan 12
12 FC1 0 0.773
12 FC1 1 0.773
12 FC1 2 0.285
12 FC1 3 -1.180
12 FC1 4 -2.157
12 FC1 5 -2.157
12 FC1 6 -1.668
12 FC1 7 -0.692
12 FC1 8 0.285
12 FC1 9 1.261
12 FC1 10 2.238
12 FC1 11 3.215
12 FC1 12 3.215
12 FC1 13 3.703
12 FC1 14 2.726
12 FC1 15 0.773
12 FC1 16 -0.692
12 FC1 17 -1.668
12 FC1 18 -1.668
12 FC1 19 -1.180
12 FC1 20 -1.180
12 FC1 21 -1.668
12 FC1 22 -1.668
12 FC1 23 -1.668
12 FC1 24 -1.668
12 FC1 25 -1.180
12 FC1 26 -1.180
12 FC1 27 -0.692
12 FC1 28 -0.203
12 FC1 29 0.773
12 FC1 30 2.238
12 FC1 31 2.726
12 FC1 32 1.750
12 FC1 33 0.285
12 FC1 34 -2.157
12 FC1 35 -4.110
12 FC1 36 -5.575
12 FC1 37 -6.063
12 FC1 38 -6.063
12 FC1 39 -5.575
12 FC1 40 -4.598
12 FC1 41 -3.621
12 FC1 42 -3.133
12 FC1 43 -2.645
12 FC1 44 -2.157
12 FC1 45 -1.668
12 FC1 46 -1.668
12 FC1 47 -1.668
12 FC1 48 -2.157
12 FC1 49 -3.133
12 FC1 50 -4.110
12 FC1 51 -4.598
12 FC1 52 -3.621
12 FC1 53 -3.133
12 FC1 54 -2.645
12 FC1 55 -3.133
12 FC1 56 -4.598
12 FC1 57 -6.063
12 FC1 58 -6.551
12 FC1 59 -6.551
12 FC1 60 -5.575
12 FC1 61 -5.575
12 FC1 62 -4.598
12 FC1 63 -4.598
12 FC1 64 -3.621
12 FC1 65 -3.621
12 FC1 66 -4.110
12 FC1 67 -5.086
12 FC1 68 -6.551
12 FC1 69 -7.039
12 FC1 70 -6.551
12 FC1 71 -6.063
12 FC1 72 -5.575
12 FC1 73 -6.063
12 FC1 74 -6.551
12 FC1 75 -7.039
12 FC1 76 -7.039
12 FC1 77 -6.063
12 FC1 78 -5.086
12 FC1 79 -5.086
12 FC1 80 -5.086
12 FC1 81 -5.086
12 FC1 82 -5.575
12 FC1 83 -5.575
12 FC1 84 -6.063
12 FC1 85 -6.063
12 FC1 86 -6.063
12 FC1 87 -6.063
12 FC1 88 -5.575
12 FC1 89 -5.086
12 FC1 90 -4.110
12 FC1 91 -3.621
12 FC1 92 -3.621
12 FC1 93 -3.621
12 FC1 94 -4.110
12 FC1 95 -4.598
12 FC1 96 -5.086
12 FC1 97 -5.086
12 FC1 98 -5.086
12 FC1 99 -4.598
12 FC1 100 -3.621
12 FC1 101 -3.133
12 FC1 102 -2.645
12 FC1 103 -2.645
12 FC1 104 -2.157
12 FC1 105 -2.157
12 FC1 106 -1.668
12 FC1 107 -1.180
12 FC1 108 -1.668
12 FC1 109 -3.133
12 FC1 110 -4.110
12 FC1 111 -5.086
12 FC1 112 -5.575
12 FC1 113 -5.575
12 FC1 114 -5.575
12 FC1 115 -6.063
12 FC1 116 -6.551
12 FC1 117 -6.063
12 FC1 118 -5.086
12 FC1 119 -3.133
12 FC1 120 -1.180
12 FC1 121 -0.203
12 FC1 122 -0.203
12 FC1 123 -1.668
12 FC1 124 -2.645
12 FC1 125 -2.645
12 FC1 126 -1.668
12 FC1 127 0.285
12 FC1 128 1.261
12 FC1 129 2.238
12 FC1 130 2.238
12 FC1 131 2.726
12 FC1 132 3.703
12 FC1 133 4.679
12 FC1 134 4.679
12 FC1 135 3.215
12 FC1 136 1.261
12 FC1 137 -0.692
12 FC1 138 -2.157
12 FC1 139 -2.157
12 FC1 140 -1.668
12 FC1 141 -0.203
12 FC1 142 1.261
12 FC1 143 2.238
12 FC1 144 2.238
12 FC1 145 1.261
12 FC1 146 -0.692
12 FC1 147 -2.645
12 FC1 148 -4.110
12 FC1 149 -4.598
12 FC1 150 -3.621
12 FC1 151 -2.157
12 FC1 152 -1.180
12 FC1 153 -0.203
12 FC1 154 -0.203
12 FC1 155 -0.203
12 FC1 156 -0.692
12 FC1 157 -1.668
12 FC1 158 -2.645
12 FC1 159 -3.621
12 FC1 160 -5.086
12 FC1 161 -6.063
12 FC1 162 -6.063
12 FC1 163 -5.575
12 FC1 164 -4.110
12 FC1 165 -2.157
12 FC1 166 -1.180
12 FC1 167 -0.692
12 FC1 168 -1.180
12 FC1 169 -1.180
12 FC1 170 -1.180
12 FC1 171 -1.180
12 FC1 172 -1.180
12 FC1 173 -1.668
12 FC1 174 -2.157
12 FC1 175 -2.157
12 FC1 176 -1.180
12 FC1 177 0.285
12 FC1 178 1.261
12 FC1 179 0.773
12 FC1 180 -0.203
12 FC1 181 -1.180
12 FC1 182 -2.157
12 FC1 183 -2.645
12 FC1 184 -2.157
12 FC1 185 -1.180
12 FC1 186 -0.203
12 FC1 187 0.773
12 FC1 188 1.261
12 FC1 189 1.750
12 FC1 190 1.750
12 FC1 191 0.773
12 FC1 192 -1.180
12 FC1 193 -3.133
12 FC1 194 -5.086
12 FC1 195 -6.063
12 FC1 196 -6.551
12 FC1 197 -5.575
12 FC1 198 -4.598
12 FC1 199 -3.621
12 FC1 200 -3.621
12 FC1 201 -4.598
12 FC1 202 -5.575
12 FC1 203 -5.575
12 FC1 204 -5.086
12 FC1 205 -3.133
12 FC1 206 -1.668
12 FC1 207 -0.203
12 FC1 208 -0.203
12 FC1 209 0.285
12 FC1 210 0.285
12 FC1 211 0.773
12 FC1 212 1.261
12 FC1 213 1.750
12 FC1 214 2.238
12 FC1 215 1.750
12 FC1 216 0.773
12 FC1 217 0.285
12 FC1 218 -0.203
12 FC1 219 0.285
12 FC1 220 0.773
12 FC1 221 1.261
12 FC1 222 1.261
12 FC1 223 0.285
12 FC1 224 -1.180
12 FC1 225 -2.645
12 FC1 226 -2.645
12 FC1 227 -2.157
12 FC1 228 -1.668
12 FC1 229 -0.692
12 FC1 230 -0.203
12 FC1 231 -0.692
12 FC1 232 -2.157
12 FC1 233 -3.133
12 FC1 234 -3.621
12 FC1 235 -3.621
12 FC1 236 -3.133
12 FC1 237 -2.157
12 FC1 238 -0.692
12 FC1 239 0.285
12 FC1 240 1.261
12 FC1 241 1.750
12 FC1 242 1.750
12 FC1 243 1.261
12 FC1 244 0.285
12 FC1 245 -0.692
12 FC1 246 -1.180
12 FC1 247 -1.668
12 FC1 248 -1.180
12 FC1 249 -0.692
12 FC1 250 0.285
12 FC1 251 0.773
12 FC1 252 0.773
12 FC1 253 0.773
12 FC1 254 0.773
12 FC1 255 0.773
# T8 chan 13
12 T8 0 -12.939
12 T8 1 -10.498
12 T8 2 -6.104
12 T8 3 -2.197
12 T8 4 -0.244
12 T8 5 0.244
12 T8 6 -0.244
12 T8 7 0.244
12 T8 8 1.221
12 T8 9 2.686
12 T8 10 4.150
12 T8 11 5.615
12 T8 12 6.592
12 T8 13 7.080
12 T8 14 7.080
12 T8 15 6.592
12 T8 16 5.615
12 T8 17 5.127
12 T8 18 6.104
12 T8 19 8.057
12 T8 20 10.498
12 T8 21 12.939
12 T8 22 14.404
12 T8 23 13.916
12 T8 24 12.451
12 T8 25 10.986
12 T8 26 10.498
12 T8 27 10.986
12 T8 28 12.939
12 T8 29 15.381
12 T8 30 17.334
12 T8 31 18.311
12 T8 32 18.311
12 T8 33 17.334
12 T8 34 16.357
12 T8 35 14.893
12 T8 36 12.939
12 T8 37 10.498
12 T8 38 7.568
12 T8 39 5.615
12 T8 40 4.639
12 T8 41 4.639
12 T8 42 5.127
12 T8 43 6.104
12 T8 44 6.592
12 T8 45 7.080
12 T8 46 6.592
12 T8 47 6.592
12 T8 48 6.592
12 T8 49 7.080
12 T8 50 7.080
12 T8 51 6.592
12 T8 52 6.104
12 T8 53 4.639
12 T8 54 2.686
12 T8 55 0.732
12 T8 56 0.244
12 T8 57 0.244
12 T8 58 1.709
12 T8 59 2.197
12 T8 60 2.197
12 T8 61 1.221
12 T8 62 -0.244
12 T8 63 -1.221
12 T8 64 -1.221
12 T8 65 -0.244
12 T8 66 0.244
12 T8 67 0.732
12 T8 68 1.221
12 T8 69 1.709
12 T8 70 2.197
12 T8 71 2.686
12 T8 72 3.174
12 T8 73 3.662
12 T8 74 3.662
12 T8 75 4.150
12 T8 76 5.127
12 T8 77 5.615
12 T8 78 6.592
12 T8 79 7.568
12 T8 80 8.545
12 T8 81 10.010
12 T8 82 11.475
12 T8 83 12.939
12 T8 84 13.428
12 T8 85 12.939
12 T8 86 12.451
12 T8 87 10.986
12 T8 88 10.498
12 T8 89 10.010
12 T8 90 9.521
12 T8 91 9.521
12 T8 92 10.010
12 T8 93 11.475
12 T8 94 13.428
12 T8 95 14.893
12 T8 96 15.381
12 T8 97 14.404
12 T8 98 12.939
12 T8 99 11.475
12 T8 100 10.986
12 T8 101 10.986
12 T8 102 10.986
12 T8 103 10.010
12 T8 104 7.568
12 T8 105 4.639
12 T8 106 2.197
12 T8 107 0.244
12 T8 108 -0.244
12 T8 109 -0.732
12 T8 110 -0.244
12 T8 111 0.732
12 T8 112 2.197
12 T8 113 4.639
12 T8 114 7.568
12 T8 115 10.498
12 T8 116 11.963
12 T8 117 11.475
12 T8 118 10.498
12 T8 119 9.521
12 T8 120 8.545
12 T8 121 8.545
12 T8 122 9.521
12 T8 123 10.498
12 T8 124 11.963
12 T8 125 12.939
12 T8 126 14.404
12 T8 127 15.869
12 T8 128 16.357
12 T8 129 16.846
12 T8 130 15.381
12 T8 131 12.939
12 T8 132 10.010
12 T8 133 7.568
12 T8 134 6.592
12 T8 135 7.568
12 T8 136 10.010
12 T8 137 13.428
12 T8 138 15.381
12 T8 139 15.869
12 T8 140 14.893
12 T8 141 13.428
12 T8 142 11.475
12 T8 143 10.498
12 T8 144 10.010
12 T8 145 9.033
12 T8 146 8.545
12 T8 147 8.057
12 T8 148 7.080
12 T8 149 6.104
12 T8 150 5.127
12 T8 151 3.662
12 T8 152 2.686
12 T8 153 1.709
12 T8 154 1.221
12 T8 155 1.709
12 T8 156 3.174
12 T8 157 5.615
12 T8 158 8.057
12 T8 159 10.498
12 T8 160 12.939
12 T8 161 14.404
12 T8 162 15.381
12 T8 163 14.893
12 T8 164 13.916
12 T8 165 12.939
12 T8 166 12.939
12 T8 167 13.428
12 T8 168 13.916
12 T8 169 14.404
12 T8 170 13.916
12 T8 171 13.428
12 T8 172 11.963
12 T8 173 10.010
12 T8 174 9.521
12 T8 175 10.010
12 T8 176 11.475
12 T8 177 13.916
12 T8 178 16.357
12 T8 179 17.334
12 T8 180 16.846
12 T8 181 15.381
12 T8 182 13.428
12 T8 183 11.963
12 T8 184 11.963
12 T8 185 12.451
12 T8 186 13.428
12 T8 187 13.916
12 T8 188 13.916
12 T8 189 13.428
12 T8 190 13.428
12 T8 191 14.404
12 T8 192 15.381
12 T8 193 16.357
12 T8 194 16.846
12 T8 195 17.334
12 T8 196 18.311
12 T8 197 19.287
12 T8 198 20.752
12 T8 199 22.217
12 T8 200 22.705
12 T8 201 22.217
12 T8 202 21.729
12 T8 203 20.752
12 T8 204 19.775
12 T8 205 19.287
12 T8 206 18.799
12 T8 207 18.311
12 T8 208 17.822
12 T8 209 17.334
12 T8 210 16.357
12 T8 211 16.357
12 T8 212 16.357
12 T8 213 16.357
12 T8 214 15.869
12 T8 215 14.893
12 T8 216 14.404
12 T8 217 13.916
12 T8 218 13.916
12 T8 219 14.404
12 T8 220 14.404
12 T8 221 14.404
12 T8 222 13.428
12 T8 223 12.451
12 T8 224 10.986
12 T8 225 10.498
12 T8 226 10.498
12 T8 227 10.986
12 T8 228 11.475
12 T8 229 11.475
12 T8 230 10.986
12 T8 231 9.033
12 T8 232 7.568
12 T8 233 5.615
12 T8 234 4.639
12 T8 235 4.639
12 T8 236 4.150
12 T8 237 3.662
12 T8 238 2.686
12 T8 239 2.197
12 T8 240 2.197
12 T8 241 3.174
12 T8 242 3.662
12 T8 243 4.150
12 T8 244 4.639
12 T8 245 5.615
12 T8 246 5.615
12 T8 247 7.080
12 T8 248 7.568
12 T8 249 9.033
12 T8 250 9.521
12 T8 251 10.498
12 T8 252 11.475
12 T8 253 11.963
12 T8 254 11.963
12 T8 255 10.986
# T7 chan 14
12 T7 0 5.259
12 T7 1 5.259
12 T7 2 4.283
12 T7 3 2.818
12 T7 4 1.353
12 T7 5 0.376
12 T7 6 0.865
12 T7 7 3.306
12 T7 8 6.236
12 T7 9 8.677
12 T7 10 10.142
12 T7 11 9.165
12 T7 12 6.724
12 T7 13 4.283
12 T7 14 1.841
12 T7 15 0.376
12 T7 16 -0.112
12 T7 17 0.865
12 T7 18 3.306
12 T7 19 7.212
12 T7 20 10.630
12 T7 21 13.072
12 T7 22 13.560
12 T7 23 13.072
12 T7 24 11.607
12 T7 25 10.142
12 T7 26 9.654
12 T7 27 10.630
12 T7 28 11.607
12 T7 29 13.072
12 T7 30 14.537
12 T7 31 15.513
12 T7 32 15.513
12 T7 33 15.513
12 T7 34 14.537
12 T7 35 13.072
12 T7 36 11.119
12 T7 37 7.701
12 T7 38 4.771
12 T7 39 2.818
12 T7 40 1.353
12 T7 41 0.865
12 T7 42 1.353
12 T7 43 1.841
12 T7 44 2.818
12 T7 45 3.794
12 T7 46 4.771
12 T7 47 4.771
12 T7 48 3.306
12 T7 49 1.353
12 T7 50 -1.088
12 T7 51 -2.065
12 T7 52 -1.088
12 T7 53 0.376
12 T7 54 1.353
12 T7 55 0.865
12 T7 56 -0.112
12 T7 57 -0.600
12 T7 58 0.865
12 T7 59 2.330
12 T7 60 3.794
12 T7 61 3.794
12 T7 62 2.330
12 T7 63 0.865
12 T7 64 0.376
12 T7 65 0.376
12 T7 66 1.353
12 T7 67 1.841
12 T7 68 1.353
12 T7 69 0.865
12 T7 70 0.376
12 T7 71 -0.600
12 T7 72 -1.088
12 T7 73 -2.065
12 T7 74 -2.553
12 T7 75 -2.553
12 T7 76 -1.088
12 T7 77 0.865
12 T7 78 2.818
12 T7 79 3.794
12 T7 80 3.794
12 T7 81 4.283
12 T7 82 4.771
12 T7 83 5.259
12 T7 84 5.747
12 T7 85 5.747
12 T7 86 5.259
12 T7 87 5.259
12 T7 88 5.259
12 T7 89 6.236
12 T7 90 7.212
12 T7 91 7.701
12 T7 92 7.212
12 T7 93 6.724
12 T7 94 6.236
12 T7 95 6.724
12 T7 96 7.701
12 T7 97 8.189
12 T7 98 8.677
12 T7 99 9.165
12 T7 100 8.677
12 T7 101 8.677
12 T7 102 8.677
12 T7 103 8.677
12 T7 104 8.677
12 T7 105 8.189
12 T7 106 7.212
12 T7 107 5.747
12 T7 108 3.794
12 T7 109 1.841
12 T7 110 -0.112
12 T7 111 -0.600
12 T7 112 -0.112
12 T7 113 0.865
12 T7 114 2.330
12 T7 115 3.306
12 T7 116 3.794
12 T7 117 3.794
12 T7 118 4.283
12 T7 119 5.747
12 T7 120 7.212
12 T7 121 9.165
12 T7 122 10.630
12 T7 123 12.095
12 T7 124 13.560
12 T7 125 15.025
12 T7 126 16.490
12 T7 127 16.978
12 T7 128 16.001
12 T7 129 15.025
12 T7 130 13.560
12 T7 131 12.583
12 T7 132 12.583
12 T7 133 13.560
12 T7 134 14.048
12 T7 135 14.537
12 T7 136 14.048
12 T7 137 13.560
12 T7 138 12.583
12 T7 139 12.095
12 T7 140 12.095
12 T7 141 13.072
12 T7 142 14.048
12 T7 143 14.537
12 T7 144 14.048
12 T7 145 12.583
12 T7 146 11.119
12 T7 147 10.630
12 T7 148 10.142
12 T7 149 9.654
12 T7 150 10.142
12 T7 151 10.142
12 T7 152 10.142
12 T7 153 10.142
12 T7 154 9.654
12 T7 155 9.165
12 T7 156 9.165
12 T7 157 9.654
12 T7 158 10.142
12 T7 159 10.630
12 T7 160 10.630
12 T7 161 10.630
12 T7 162 11.119
12 T7 163 12.095
12 T7 164 14.048
12 T7 165 16.001
12 T7 166 16.490
12 T7 167 15.513
12 T7 168 13.560
12 T7 169 11.607
12 T7 170 10.630
12 T7 171 11.119
12 T7 172 12.583
12 T7 173 13.560
12 T7 174 13.560
12 T7 175 13.072
12 T7 176 12.583
12 T7 177 13.072
12 T7 178 14.537
12 T7 179 16.001
12 T7 180 16.490
12 T7 181 16.490
12 T7 182 15.513
12 T7 183 15.025
12 T7 184 15.025
12 T7 185 16.001
12 T7 186 16.490
12 T7 187 16.001
12 T7 188 14.537
12 T7 189 13.072
12 T7 190 12.095
12 T7 191 12.583
12 T7 192 13.072
12 T7 193 13.560
12 T7 194 13.072
12 T7 195 12.583
12 T7 196 13.072
12 T7 197 15.025
12 T7 198 18.443
12 T7 199 20.884
12 T7 200 21.861
12 T7 201 21.372
12 T7 202 20.884
12 T7 203 21.372
12 T7 204 23.326
12 T7 205 25.279
12 T7 206 26.255
12 T7 207 24.790
12 T7 208 22.349
12 T7 209 18.931
12 T7 210 16.490
12 T7 211 15.513
12 T7 212 16.490
12 T7 213 17.955
12 T7 214 19.908
12 T7 215 20.884
12 T7 216 20.884
12 T7 217 20.884
12 T7 218 21.372
12 T7 219 21.372
12 T7 220 21.372
12 T7 221 20.884
12 T7 222 19.908
12 T7 223 17.955
12 T7 224 16.001
12 T7 225 13.560
12 T7 226 11.607
12 T7 227 10.142
12 T7 228 9.654
12 T7 229 10.142
12 T7 230 11.607
12 T7 231 13.560
12 T7 232 15.513
12 T7 233 17.466
12 T7 234 19.419
12 T7 235 21.372
12 T7 236 21.861
12 T7 237 21.372
12 T7 238 19.419
12 T7 239 16.490
12 T7 240 14.537
12 T7 241 14.537
12 T7 242 15.025
12 T7 243 15.025
12 T7 244 15.025
12 T7 245 14.537
12 T7 246 14.048
12 T7 247 14.537
12 T7 248 14.537
12 T7 249 13.560
12 T7 250 11.607
12 T7 251 8.189
12 T7 252 5.259
12 T7 253 3.306
12 T7 254 3.306
12 T7 255 3.306
# CZ chan 15
12 CZ 0 -27.018
12 CZ 1 -24.089
12 CZ 2 -19.206
12 CZ 3 -13.346
12 CZ 4 -8.464
12 CZ 5 -5.046
12 CZ 6 -2.604
12 CZ 7 0.326
12 CZ 8 4.232
12 CZ 9 7.650
12 CZ 10 11.068
12 CZ 11 12.533
12 CZ 12 13.021
12 CZ 13 12.044
12 CZ 14 11.556
12 CZ 15 10.091
12 CZ 16 9.115
12 CZ 17 9.115
12 CZ 18 10.091
12 CZ 19 12.533
12 CZ 20 14.974
12 CZ 21 17.415
12 CZ 22 17.904
12 CZ 23 16.439
12 CZ 24 14.486
12 CZ 25 13.509
12 CZ 26 14.974
12 CZ 27 17.904
12 CZ 28 21.322
12 CZ 29 23.275
12 CZ 30 23.275
12 CZ 31 21.322
12 CZ 32 19.368
12 CZ 33 18.392
12 CZ 34 17.904
12 CZ 35 16.927
12 CZ 36 14.486
12 CZ 37 9.603
12 CZ 38 4.720
12 CZ 39 1.302
12 CZ 40 -0.651
12 CZ 41 -0.163
12 CZ 42 1.302
12 CZ 43 3.255
12 CZ 44 4.232
12 CZ 45 5.697
12 CZ 46 6.673
12 CZ 47 6.673
12 CZ 48 6.185
12 CZ 49 5.697
12 CZ 50 5.697
12 CZ 51 6.673
12 CZ 52 7.161
12 CZ 53 6.673
12 CZ 54 4.232
12 CZ 55 0.814
12 CZ 56 -1.628
12 CZ 57 -1.628
12 CZ 58 -0.163
12 CZ 59 1.302
12 CZ 60 0.814
12 CZ 61 -1.139
12 CZ 62 -3.581
12 CZ 63 -4.069
12 CZ 64 -2.116
12 CZ 65 1.302
12 CZ 66 3.743
12 CZ 67 4.720
12 CZ 68 4.232
12 CZ 69 3.255
12 CZ 70 2.767
12 CZ 71 2.767
12 CZ 72 3.743
12 CZ 73 4.232
12 CZ 74 5.697
12 CZ 75 7.161
12 CZ 76 9.603
12 CZ 77 12.044
12 CZ 78 13.997
12 CZ 79 15.462
12 CZ 80 16.927
12 CZ 81 18.880
12 CZ 82 21.810
12 CZ 83 25.228
12 CZ 84 26.693
12 CZ 85 27.181
12 CZ 86 26.204
12 CZ 87 24.740
12 CZ 88 23.275
12 CZ 89 22.298
12 CZ 90 21.322
12 CZ 91 20.345
12 CZ 92 19.368
12 CZ 93 18.880
12 CZ 94 19.368
12 CZ 95 20.345
12 CZ 96 20.833
12 CZ 97 21.322
12 CZ 98 21.322
12 CZ 99 20.833
12 CZ 100 21.322
12 CZ 101 20.833
12 CZ 102 19.368
12 CZ 103 17.415
12 CZ 104 14.486
12 CZ 105 12.533
12 CZ 106 11.556
12 CZ 107 11.556
12 CZ 108 11.068
12 CZ 109 10.091
12 CZ 110 8.626
12 CZ 111 8.138
12 CZ 112 7.650
12 CZ 113 9.603
12 CZ 114 12.533
12 CZ 115 14.974
12 CZ 116 17.415
12 CZ 117 17.415
12 CZ 118 16.439
12 CZ 119 15.462
12 CZ 120 15.462
12 CZ 121 17.904
12 CZ 122 21.322
12 CZ 123 24.740
12 CZ 124 27.669
12 CZ 125 28.646
12 CZ 126 28.158
12 CZ 127 27.669
12 CZ 128 28.158
12 CZ 129 28.646
12 CZ 130 28.158
12 CZ 131 26.204
12 CZ 132 23.275
12 CZ 133 19.368
12 CZ 134 16.927
12 CZ 135 15.951
12 CZ 136 15.951
12 CZ 137 16.439
12 CZ 138 16.927
12 CZ 139 16.927
12 CZ 140 17.415
12 CZ 141 17.904
12 CZ 142 18.880
12 CZ 143 18.392
12 CZ 144 16.927
12 CZ 145 13.997
12 CZ 146 10.579
12 CZ 147 8.138
12 CZ 148 6.185
12 CZ 149 5.697
12 CZ 150 6.185
12 CZ 151 8.138
12 CZ 152 9.115
12 CZ 153 8.626
12 CZ 154 6.185
12 CZ 155 3.743
12 CZ 156 2.279
12 CZ 157 3.743
12 CZ 158 8.138
12 CZ 159 13.509
12 CZ 160 17.904
12 CZ 161 19.857
12 CZ 162 19.857
12 CZ 163 19.857
12 CZ 164 19.857
12 CZ 165 20.345
12 CZ 166 19.368
12 CZ 167 16.439
12 CZ 168 12.533
12 CZ 169 11.068
12 CZ 170 12.533
12 CZ 171 17.415
12 CZ 172 22.298
12 CZ 173 23.763
12 CZ 174 22.298
12 CZ 175 19.368
12 CZ 176 18.392
12 CZ 177 20.833
12 CZ 178 24.740
12 CZ 179 27.669
12 CZ 180 26.693
12 CZ 181 23.275
12 CZ 182 20.833
12 CZ 183 21.322
12 CZ 184 24.740
12 CZ 185 27.669
12 CZ 186 26.693
12 CZ 187 22.786
12 CZ 188 19.368
12 CZ 189 19.857
12 CZ 190 25.716
12 CZ 191 32.552
12 CZ 192 36.458
12 CZ 193 34.505
12 CZ 194 28.646
12 CZ 195 25.228
12 CZ 196 26.693
12 CZ 197 32.064
12 CZ 198 37.435
12 CZ 199 37.923
12 CZ 200 33.040
12 CZ 201 25.716
12 CZ 202 21.322
12 CZ 203 22.298
12 CZ 204 28.158
12 CZ 205 34.993
12 CZ 206 39.388
12 CZ 207 39.388
12 CZ 208 35.482
12 CZ 209 31.087
12 CZ 210 28.646
12 CZ 211 30.111
12 CZ 212 33.040
12 CZ 213 36.458
12 CZ 214 36.947
12 CZ 215 34.993
12 CZ 216 33.040
12 CZ 217 33.040
12 CZ 218 35.482
12 CZ 219 38.411
12 CZ 220 38.900
12 CZ 221 36.458
12 CZ 222 32.552
12 CZ 223 30.599
12 CZ 224 32.064
12 CZ 225 35.482
12 CZ 226 38.900
12 CZ 227 38.900
12 CZ 228 36.947
12 CZ 229 34.993
12 CZ 230 34.017
12 CZ 231 34.017
12 CZ 232 32.064
12 CZ 233 27.181
12 CZ 234 20.345
12 CZ 235 14.486
12 CZ 236 13.509
12 CZ 237 17.904
12 CZ 238 24.740
12 CZ 239 29.622
12 CZ 240 31.576
12 CZ 241 31.087
12 CZ 242 30.599
12 CZ 243 32.552
12 CZ 244 36.458
12 CZ 245 40.365
12 CZ 246 41.829
12 CZ 247 40.365
12 CZ 248 36.947
12 CZ 249 33.040
12 CZ 250 30.111
12 CZ 251 29.134
12 CZ 252 29.134
12 CZ 253 29.622
12 CZ 254 30.111
12 CZ 255 30.599
# C3 chan 16
12 C3 0 6.022
12 C3 1 5.046
12 C3 2 3.581
12 C3 3 1.628
12 C3 4 0.651
12 C3 5 1.139
12 C3 6 3.092
12 C3 7 4.557
12 C3 8 6.022
12 C3 9 6.022
12 C3 10 5.046
12 C3 11 3.581
12 C3 12 1.139
12 C3 13 -0.814
12 C3 14 -2.279
12 C3 15 -2.279
12 C3 16 -0.814
12 C3 17 0.651
12 C3 18 2.116
12 C3 19 3.092
12 C3 20 2.116
12 C3 21 0.651
12 C3 22 -0.814
12 C3 23 -1.790
12 C3 24 -1.790
12 C3 25 -0.814
12 C3 26 -0.326
12 C3 27 0.651
12 C3 28 1.139
12 C3 29 1.139
12 C3 30 0.163
12 C3 31 -1.302
12 C3 32 -2.767
12 C3 33 -4.232
12 C3 34 -5.208
12 C3 35 -5.697
12 C3 36 -6.185
12 C3 37 -6.673
12 C3 38 -6.673
12 C3 39 -6.673
12 C3 40 -6.673
12 C3 41 -6.185
12 C3 42 -5.697
12 C3 43 -5.208
12 C3 44 -4.720
12 C3 45 -3.743
12 C3 46 -2.767
12 C3 47 -2.279
12 C3 48 -2.767
12 C3 49 -4.232
12 C3 50 -6.185
12 C3 51 -7.161
12 C3 52 -6.673
12 C3 53 -6.185
12 C3 54 -4.720
12 C3 55 -4.720
12 C3 56 -4.720
12 C3 57 -4.720
12 C3 58 -3.743
12 C3 59 -2.767
12 C3 60 -0.814
12 C3 61 0.163
12 C3 62 1.139
12 C3 63 1.139
12 C3 64 0.651
12 C3 65 -0.814
12 C3 66 -1.790
12 C3 67 -3.255
12 C3 68 -4.232
12 C3 69 -3.743
12 C3 70 -3.255
12 C3 71 -2.767
12 C3 72 -3.255
12 C3 73 -4.232
12 C3 74 -5.697
12 C3 75 -6.185
12 C3 76 -5.208
12 C3 77 -3.743
12 C3 78 -2.279
12 C3 79 -1.302
12 C3 80 -1.302
12 C3 81 -1.302
12 C3 82 -1.302
12 C3 83 -1.302
12 C3 84 -0.814
12 C3 85 -1.302
12 C3 86 -1.790
12 C3 87 -2.279
12 C3 88 -2.279
12 C3 89 -1.302
12 C3 90 -0.326
12 C3 91 0.163
12 C3 92 0.163
12 C3 93 -0.326
12 C3 94 -0.326
12 C3 95 0.163
12 C3 96 0.651
12 C3 97 1.139
12 C3 98 1.139
12 C3 99 0.163
12 C3 100 -0.814
12 C3 101 -1.302
12 C3 102 -0.814
12 C3 103 -0.326
12 C3 104 0.163
12 C3 105 0.163
12 C3 106 0.163
12 C3 107 -0.326
12 C3 108 -1.302
12 C3 109 -1.790
12 C3 110 -1.790
12 C3 111 -2.279
12 C3 112 -1.790
12 C3 113 -1.302
12 C3 114 -1.790
12 C3 115 -1.790
12 C3 116 -2.279
12 C3 117 -2.279
12 C3 118 -1.790
12 C3 119 -0.814
12 C3 120 0.163
12 C3 121 0.163
12 C3 122 -0.326
12 C3 123 -1.302
12 C3 124 -1.302
12 C3 125 -0.814
12 C3 126 1.139
12 C3 127 3.092
12 C3 128 4.069
12 C3 129 4.069
12 C3 130 4.069
12 C3 131 3.581
12 C3 132 4.069
12 C3 133 5.046
12 C3 134 5.534
12 C3 135 5.534
12 C3 136 5.046
12 C3 137 4.069
12 C3 138 3.092
12 C3 139 2.604
12 C3 140 2.116
12 C3 141 2.604
12 C3 142 3.092
12 C3 143 3.581
12 C3 144 3.581
12 C3 145 2.604
12 C3 146 1.628
12 C3 147 0.651
12 C3 148 1.139
12 C3 149 1.628
12 C3 150 2.604
12 C3 151 2.604
12 C3 152 2.116
12 C3 153 1.139
12 C3 154 -0.326
12 C3 155 -0.326
12 C3 156 0.163
12 C3 157 0.163
12 C3 158 1.139
12 C3 159 1.139
12 C3 160 0.651
12 C3 161 0.163
12 C3 162 0.163
12 C3 163 1.139
12 C3 164 1.628
12 C3 165 2.604
12 C3 166 2.604
12 C3 167 2.116
12 C3 168 2.116
12 C3 169 1.628
12 C3 170 2.116
12 C3 171 2.116
12 C3 172 2.116
12 C3 173 1.628
12 C3 174 0.651
12 C3 175 0.651
12 C3 176 0.651
12 C3 177 1.628
12 C3 178 3.092
12 C3 179 4.069
12 C3 180 4.557
12 C3 181 4.557
12 C3 182 3.581
12 C3 183 3.092
12 C3 184 2.604
12 C3 185 2.604
12 C3 186 2.116
12 C3 187 1.139
12 C3 188 0.163
12 C3 189 -0.326
12 C3 190 -0.326
12 C3 191 0.651
12 C3 192 1.628
12 C3 193 1.628
12 C3 194 1.139
12 C3 195 0.163
12 C3 196 -0.326
12 C3 197 -0.326
12 C3 198 0.651
12 C3 199 1.628
12 C3 200 2.116
12 C3 201 1.628
12 C3 202 1.628
12 C3 203 1.628
12 C3 204 3.092
12 C3 205 4.069
12 C3 206 5.046
12 C3 207 5.046
12 C3 208 4.557
12 C3 209 3.092
12 C3 210 2.116
12 C3 211 2.116
12 C3 212 3.092
12 C3 213 4.069
12 C3 214 4.069
12 C3 215 4.069
12 C3 216 3.092
12 C3 217 2.116
12 C3 218 1.628
12 C3 219 2.116
12 C3 220 3.092
12 C3 221 3.581
12 C3 222 3.581
12 C3 223 3.092
12 C3 224 2.604
12 C3 225 2.116
12 C3 226 1.139
12 C3 227 0.651
12 C3 228 -0.326
12 C3 229 -0.814
12 C3 230 -1.302
12 C3 231 -1.302
12 C3 232 -0.814
12 C3 233 -0.326
12 C3 234 0.163
12 C3 235 0.651
12 C3 236 1.139
12 C3 237 1.139
12 C3 238 1.139
12 C3 239 1.628
12 C3 240 2.604
12 C3 241 3.581
12 C3 242 4.069
12 C3 243 3.581
12 C3 244 2.604
12 C3 245 1.628
12 C3 246 1.139
12 C3 247 0.651
12 C3 248 0.651
12 C3 249 0.163
12 C3 250 -0.814
12 C3 251 -1.790
12 C3 252 -3.255
12 C3 253 -3.743
12 C3 254 -3.255
12 C3 255 -3.255
# C4 chan 17
12 C4 0 -11.698
12 C4 1 -10.722
12 C4 2 -7.792
12 C4 3 -3.398
12 C4 4 0.020
12 C4 5 1.485
12 C4 6 1.485
12 C4 7 0.509
12 C4 8 -0.468
12 C4 9 -0.468
12 C4 10 -0.468
12 C4 11 0.509
12 C4 12 0.997
12 C4 13 1.485
12 C4 14 2.462
12 C4 15 2.950
12 C4 16 2.950
12 C4 17 2.462
12 C4 18 1.485
12 C4 19 1.485
12 C4 20 2.462
12 C4 21 3.438
12 C4 22 4.415
12 C4 23 3.438
12 C4 24 1.973
12 C4 25 0.020
12 C4 26 -1.444
12 C4 27 -1.444
12 C4 28 0.020
12 C4 29 2.462
12 C4 30 4.903
12 C4 31 6.368
12 C4 32 7.345
12 C4 33 7.345
12 C4 34 6.856
12 C4 35 6.856
12 C4 36 6.856
12 C4 37 6.856
12 C4 38 6.856
12 C4 39 6.368
12 C4 40 5.880
12 C4 41 4.903
12 C4 42 3.438
12 C4 43 2.462
12 C4 44 0.997
12 C4 45 0.509
12 C4 46 0.509
12 C4 47 0.997
12 C4 48 2.462
12 C4 49 3.927
12 C4 50 5.880
12 C4 51 6.856
12 C4 52 6.368
12 C4 53 4.903
12 C4 54 2.950
12 C4 55 1.485
12 C4 56 0.997
12 C4 57 1.485
12 C4 58 1.973
12 C4 59 2.462
12 C4 60 1.485
12 C4 61 0.020
12 C4 62 -1.444
12 C4 63 -2.421
12 C4 64 -1.933
12 C4 65 -1.444
12 C4 66 -0.468
12 C4 67 0.020
12 C4 68 0.509
12 C4 69 0.997
12 C4 70 0.997
12 C4 71 1.485
12 C4 72 1.973
12 C4 73 2.462
12 C4 74 2.462
12 C4 75 2.462
12 C4 76 1.485
12 C4 77 0.020
12 C4 78 -0.956
12 C4 79 -0.956
12 C4 80 -0.468
12 C4 81 0.509
12 C4 82 0.997
12 C4 83 0.509
12 C4 84 0.020
12 C4 85 -0.468
12 C4 86 -0.956
12 C4 87 -0.956
12 C4 88 -0.956
12 C4 89 -1.933
12 C4 90 -2.421
12 C4 91 -2.421
12 C4 92 -0.956
12 C4 93 0.997
12 C4 94 2.950
12 C4 95 4.415
12 C4 96 4.415
12 C4 97 3.438
12 C4 98 2.462
12 C4 99 0.997
12 C4 100 0.020
12 C4 101 0.020
12 C4 102 0.509
12 C4 103 0.509
12 C4 104 0.020
12 C4 105 -0.468
12 C4 106 -1.444
12 C4 107 -1.933
12 C4 108 -2.421
12 C4 109 -1.933
12 C4 110 -1.933
12 C4 111 -0.956
12 C4 112 0.020
12 C4 113 0.997
12 C4 114 2.462
12 C4 115 3.438
12 C4 116 3.927
12 C4 117 2.950
12 C4 118 1.485
12 C4 119 -0.468
12 C4 120 -2.421
12 C4 121 -3.398
12 C4 122 -3.398
12 C4 123 -2.909
12 C4 124 -1.933
12 C4 125 -0.956
12 C4 126 0.020
12 C4 127 0.020
12 C4 128 0.020
12 C4 129 0.020
12 C4 130 -0.468
12 C4 131 -1.444
12 C4 132 -2.421
12 C4 133 -2.421
12 C4 134 -1.444
12 C4 135 0.997
12 C4 136 3.927
12 C4 137 6.368
12 C4 138 7.833
12 C4 139 7.833
12 C4 140 6.368
12 C4 141 3.927
12 C4 142 1.485
12 C4 143 0.020
12 C4 144 -0.468
12 C4 145 0.020
12 C4 146 0.509
12 C4 147 0.509
12 C4 148 -0.468
12 C4 149 -2.421
12 C4 150 -4.374
12 C4 151 -5.351
12 C4 152 -5.839
12 C4 153 -5.839
12 C4 154 -5.351
12 C4 155 -4.862
12 C4 156 -3.886
12 C4 157 -1.933
12 C4 158 0.509
12 C4 159 1.973
12 C4 160 2.950
12 C4 161 3.438
12 C4 162 2.462
12 C4 163 1.485
12 C4 164 0.509
12 C4 165 0.020
12 C4 166 -0.468
12 C4 167 -0.468
12 C4 168 -0.468
12 C4 169 -0.468
12 C4 170 -0.956
12 C4 171 -1.444
12 C4 172 -1.933
12 C4 173 -1.933
12 C4 174 -1.444
12 C4 175 -0.956
12 C4 176 0.020
12 C4 177 0.997
12 C4 178 1.973
12 C4 179 2.462
12 C4 180 2.950
12 C4 181 2.462
12 C4 182 1.973
12 C4 183 0.997
12 C4 184 0.509
12 C4 185 0.509
12 C4 186 0.020
12 C4 187 0.020
12 C4 188 0.020
12 C4 189 0.020
12 C4 190 0.020
12 C4 191 0.020
12 C4 192 0.020
12 C4 193 0.509
12 C4 194 1.485
12 C4 195 2.462
12 C4 196 2.950
12 C4 197 2.950
12 C4 198 2.950
12 C4 199 2.462
12 C4 200 1.973
12 C4 201 1.485
12 C4 202 0.997
12 C4 203 0.509
12 C4 204 0.020
12 C4 205 -0.468
12 C4 206 -0.956
12 C4 207 -0.956
12 C4 208 -0.468
12 C4 209 -0.468
12 C4 210 -0.468
12 C4 211 -0.468
12 C4 212 -0.468
12 C4 213 -0.956
12 C4 214 -0.956
12 C4 215 -0.956
12 C4 216 -0.956
12 C4 217 -0.956
12 C4 218 -0.956
12 C4 219 -0.468
12 C4 220 -0.468
12 C4 221 -0.956
12 C4 222 -0.956
12 C4 223 -1.444
12 C4 224 -1.444
12 C4 225 -0.468
12 C4 226 0.509
12 C4 227 0.997
12 C4 228 0.997
12 C4 229 0.509
12 C4 230 -0.468
12 C4 231 -1.933
12 C4 232 -2.909
12 C4 233 -3.398
12 C4 234 -3.886
12 C4 235 -4.374
12 C4 236 -4.862
12 C4 237 -5.839
12 C4 238 -6.327
12 C4 239 -5.839
12 C4 240 -5.839
12 C4 241 -4.862
12 C4 242 -4.862
12 C4 243 -4.374
12 C4 244 -4.374
12 C4 245 -3.886
12 C4 246 -3.886
12 C4 247 -3.398
12 C4 248 -2.909
12 C4 249 -2.909
12 C4 250 -2.909
12 C4 251 -2.421
12 C4 252 -1.933
12 C4 253 -1.444
12 C4 254 -0.956
12 C4 255 -0.468
# CP5 chan 18
12 CP5 0 9.918
12 CP5 1 8.942
12 CP5 2 7.477
12 CP5 3 5.035
12 CP5 4 3.082
12 CP5 5 2.106
12 CP5 6 2.106
12 CP5 7 4.059
12 CP5 8 6.012
12 CP5 9 7.477
12 CP5 10 6.989
12 CP5 11 5.524
12 CP5 12 2.594
12 CP5 13 -0.336
12 CP5 14 -2.289
12 CP5 15 -2.289
12 CP5 16 -0.336
12 CP5 17 2.106
12 CP5 18 5.035
12 CP5 19 7.965
12 CP5 20 9.918
12 CP5 21 10.406
12 CP5 22 9.430
12 CP5 23 8.453
12 CP5 24 6.989
12 CP5 25 6.500
12 CP5 26 6.012
12 CP5 27 6.012
12 CP5 28 6.012
12 CP5 29 5.524
12 CP5 30 4.547
12 CP5 31 4.059
12 CP5 32 3.571
12 CP5 33 3.082
12 CP5 34 2.594
12 CP5 35 2.106
12 CP5 36 1.129
12 CP5 37 -0.336
12 CP5 38 -1.801
12 CP5 39 -3.265
12 CP5 40 -3.754
12 CP5 41 -3.754
12 CP5 42 -3.754
12 CP5 43 -3.265
12 CP5 44 -2.777
12 CP5 45 -2.289
12 CP5 46 -1.312
12 CP5 47 -0.824
12 CP5 48 -1.801
12 CP5 49 -3.265
12 CP5 50 -5.219
12 CP5 51 -6.195
12 CP5 52 -5.219
12 CP5 53 -3.754
12 CP5 54 -1.801
12 CP5 55 -0.824
12 CP5 56 -0.336
12 CP5 57 0.153
12 CP5 58 1.129
12 CP5 59 2.594
12 CP5 60 3.571
12 CP5 61 3.571
12 CP5 62 2.594
12 CP5 63 1.129
12 CP5 64 0.153
12 CP5 65 -0.336
12 CP5 66 -0.824
12 CP5 67 -1.801
12 CP5 68 -1.801
12 CP5 69 -1.801
12 CP5 70 -1.801
12 CP5 71 -1.312
12 CP5 72 -2.289
12 CP5 73 -3.265
12 CP5 74 -4.242
12 CP5 75 -4.242
12 CP5 76 -3.265
12 CP5 77 -0.824
12 CP5 78 1.129
12 CP5 79 2.594
12 CP5 80 2.594
12 CP5 81 2.594
12 CP5 82 3.082
12 CP5 83 4.059
12 CP5 84 5.035
12 CP5 85 5.035
12 CP5 86 4.547
12 CP5 87 4.059
12 CP5 88 4.059
12 CP5 89 5.035
12 CP5 90 6.012
12 CP5 91 6.989
12 CP5 92 6.989
12 CP5 93 6.989
12 CP5 94 6.500
12 CP5 95 6.989
12 CP5 96 7.477
12 CP5 97 7.477
12 CP5 98 7.477
12 CP5 99 6.500
12 CP5 100 5.524
12 CP5 101 5.035
12 CP5 102 4.547
12 CP5 103 5.035
12 CP5 104 5.035
12 CP5 105 5.035
12 CP5 106 4.059
12 CP5 107 3.082
12 CP5 108 1.129
12 CP5 109 -0.824
12 CP5 110 -2.289
12 CP5 111 -2.289
12 CP5 112 -1.312
12 CP5 113 -0.336
12 CP5 114 0.641
12 CP5 115 1.129
12 CP5 116 1.129
12 CP5 117 0.641
12 CP5 118 0.641
12 CP5 119 1.129
12 CP5 120 2.106
12 CP5 121 3.082
12 CP5 122 4.059
12 CP5 123 4.547
12 CP5 124 5.524
12 CP5 125 6.500
12 CP5 126 7.477
12 CP5 127 8.453
12 CP5 128 8.453
12 CP5 129 7.965
12 CP5 130 7.477
12 CP5 131 6.989
12 CP5 132 6.989
12 CP5 133 7.477
12 CP5 134 7.965
12 CP5 135 8.453
12 CP5 136 8.942
12 CP5 137 8.453
12 CP5 138 7.965
12 CP5 139 7.965
12 CP5 140 7.965
12 CP5 141 7.965
12 CP5 142 7.965
12 CP5 143 6.989
12 CP5 144 5.524
12 CP5 145 4.547
12 CP5 146 3.571
12 CP5 147 3.571
12 CP5 148 4.547
12 CP5 149 5.524
12 CP5 150 5.524
12 CP5 151 5.524
12 CP5 152 4.547
12 CP5 153 3.571
12 CP5 154 3.082
12 CP5 155 3.082
12 CP5 156 4.059
12 CP5 157 5.524
12 CP5 158 6.500
12 CP5 159 7.477
12 CP5 160 7.477
12 CP5 161 6.989
12 CP5 162 6.500
12 CP5 163 7.477
12 CP5 164 8.453
12 CP5 165 9.918
12 CP5 166 10.406
12 CP5 167 9.918
12 CP5 168 8.453
12 CP5 169 6.989
12 CP5 170 6.989
12 CP5 171 7.965
12 CP5 172 8.453
12 CP5 173 8.453
12 CP5 174 7.965
12 CP5 175 6.500
12 CP5 176 5.524
12 CP5 177 6.012
12 CP5 178 7.477
12 CP5 179 8.453
12 CP5 180 9.430
12 CP5 181 9.918
12 CP5 182 8.942
12 CP5 183 8.453
12 CP5 184 8.942
12 CP5 185 9.430
12 CP5 186 9.430
12 CP5 187 8.453
12 CP5 188 6.989
12 CP5 189 6.012
12 CP5 190 6.500
12 CP5 191 7.965
12 CP5 192 9.918
12 CP5 193 10.895
12 CP5 194 10.895
12 CP5 195 9.918
12 CP5 196 9.918
12 CP5 197 10.895
12 CP5 198 12.360
12 CP5 199 13.336
12 CP5 200 12.848
12 CP5 201 11.871
12 CP5 202 11.383
12 CP5 203 12.360
12 CP5 204 14.313
12 CP5 205 16.266
12 CP5 206 17.242
12 CP5 207 16.754
12 CP5 208 14.313
12 CP5 209 11.871
12 CP5 210 9.918
12 CP5 211 9.430
12 CP5 212 10.406
12 CP5 213 11.871
12 CP5 214 13.336
12 CP5 215 13.824
12 CP5 216 13.824
12 CP5 217 13.824
12 CP5 218 13.824
12 CP5 219 14.313
12 CP5 220 14.313
12 CP5 221 14.313
12 CP5 222 13.824
12 CP5 223 12.848
12 CP5 224 11.383
12 CP5 225 9.918
12 CP5 226 7.477
12 CP5 227 5.524
12 CP5 228 3.571
12 CP5 229 3.082
12 CP5 230 4.059
12 CP5 231 5.524
12 CP5 232 7.965
12 CP5 233 10.406
12 CP5 234 12.848
12 CP5 235 15.289
12 CP5 236 16.754
12 CP5 237 16.266
12 CP5 238 14.313
12 CP5 239 11.871
12 CP5 240 9.918
12 CP5 241 9.918
12 CP5 242 10.895
12 CP5 243 11.383
12 CP5 244 11.871
12 CP5 245 10.895
12 CP5 246 10.406
12 CP5 247 9.918
12 CP5 248 9.430
12 CP5 249 8.453
12 CP5 250 6.012
12 CP5 251 3.571
12 CP5 252 1.129
12 CP5 253 0.153
12 CP5 254 0.153
12 CP5 255 0.641
# CP6 chan 19
12 CP6 0 -4.364
12 CP6 1 -2.899
12 CP6 2 0.519
12 CP6 3 3.448
12 CP6 4 4.913
12 CP6 5 4.425
12 CP6 6 2.960
12 CP6 7 2.472
12 CP6 8 3.448
12 CP6 9 4.913
12 CP6 10 6.378
12 CP6 11 6.866
12 CP6 12 6.866
12 CP6 13 6.378
12 CP6 14 5.890
12 CP6 15 5.402
12 CP6 16 4.913
12 CP6 17 4.425
12 CP6 18 4.913
12 CP6 19 6.378
12 CP6 20 8.820
12 CP6 21 11.261
12 CP6 22 12.238
12 CP6 23 12.238
12 CP6 24 11.261
12 CP6 25 9.796
12 CP6 26 9.308
12 CP6 27 9.796
12 CP6 28 10.773
12 CP6 29 12.238
12 CP6 30 13.214
12 CP6 31 14.191
12 CP6 32 14.679
12 CP6 33 14.679
12 CP6 34 14.191
12 CP6 35 13.214
12 CP6 36 11.749
12 CP6 37 9.796
12 CP6 38 8.331
12 CP6 39 6.866
12 CP6 40 5.890
12 CP6 41 4.913
12 CP6 42 4.425
12 CP6 43 4.425
12 CP6 44 4.425
12 CP6 45 3.937
12 CP6 46 4.425
12 CP6 47 4.913
12 CP6 48 6.378
12 CP6 49 7.355
12 CP6 50 8.331
12 CP6 51 8.820
12 CP6 52 7.843
12 CP6 53 6.378
12 CP6 54 4.913
12 CP6 55 4.913
12 CP6 56 5.890
12 CP6 57 7.843
12 CP6 58 9.796
12 CP6 59 10.284
12 CP6 60 9.796
12 CP6 61 8.331
12 CP6 62 7.355
12 CP6 63 5.890
12 CP6 64 4.913
12 CP6 65 4.913
12 CP6 66 4.913
12 CP6 67 5.402
12 CP6 68 6.378
12 CP6 69 6.866
12 CP6 70 6.866
12 CP6 71 6.378
12 CP6 72 6.378
12 CP6 73 6.378
12 CP6 74 6.866
12 CP6 75 7.355
12 CP6 76 6.866
12 CP6 77 6.378
12 CP6 78 6.378
12 CP6 79 6.866
12 CP6 80 8.331
12 CP6 81 10.284
12 CP6 82 11.749
12 CP6 83 12.238
12 CP6 84 12.238
12 CP6 85 11.261
12 CP6 86 10.773
12 CP6 87 10.284
12 CP6 88 9.308
12 CP6 89 8.331
12 CP6 90 7.843
12 CP6 91 8.331
12 CP6 92 9.308
12 CP6 93 11.749
12 CP6 94 14.191
12 CP6 95 15.167
12 CP6 96 15.167
12 CP6 97 13.702
12 CP6 98 11.261
12 CP6 99 8.820
12 CP6 100 7.843
12 CP6 101 7.843
12 CP6 102 8.820
12 CP6 103 9.308
12 CP6 104 9.308
12 CP6 105 8.820
12 CP6 106 7.355
12 CP6 107 5.402
12 CP6 108 3.937
12 CP6 109 2.960
12 CP6 110 3.448
12 CP6 111 4.425
12 CP6 112 5.890
12 CP6 113 7.843
12 CP6 114 9.796
12 CP6 115 11.261
12 CP6 116 12.238
12 CP6 117 11.749
12 CP6 118 9.796
12 CP6 119 7.355
12 CP6 120 4.913
12 CP6 121 4.425
12 CP6 122 4.913
12 CP6 123 6.866
12 CP6 124 8.820
12 CP6 125 9.796
12 CP6 126 11.261
12 CP6 127 11.749
12 CP6 128 11.749
12 CP6 129 11.749
12 CP6 130 11.261
12 CP6 131 9.308
12 CP6 132 6.866
12 CP6 133 4.913
12 CP6 134 4.913
12 CP6 135 6.378
12 CP6 136 9.308
12 CP6 137 12.238
12 CP6 138 14.191
12 CP6 139 14.191
12 CP6 140 12.238
12 CP6 141 9.308
12 CP6 142 6.866
12 CP6 143 5.402
12 CP6 144 4.425
12 CP6 145 4.425
12 CP6 146 4.913
12 CP6 147 4.913
12 CP6 148 4.425
12 CP6 149 3.448
12 CP6 150 3.448
12 CP6 151 2.960
12 CP6 152 2.472
12 CP6 153 2.472
12 CP6 154 1.984
12 CP6 155 2.472
12 CP6 156 3.937
12 CP6 157 6.378
12 CP6 158 8.820
12 CP6 159 11.261
12 CP6 160 12.726
12 CP6 161 13.214
12 CP6 162 13.214
12 CP6 163 12.238
12 CP6 164 10.773
12 CP6 165 9.796
12 CP6 166 9.308
12 CP6 167 9.308
12 CP6 168 9.796
12 CP6 169 10.284
12 CP6 170 9.796
12 CP6 171 8.820
12 CP6 172 7.355
12 CP6 173 6.378
12 CP6 174 5.402
12 CP6 175 5.890
12 CP6 176 6.866
12 CP6 177 8.820
12 CP6 178 10.284
12 CP6 179 11.261
12 CP6 180 11.261
12 CP6 181 10.773
12 CP6 182 9.308
12 CP6 183 8.331
12 CP6 184 8.820
12 CP6 185 9.308
12 CP6 186 9.796
12 CP6 187 9.796
12 CP6 188 8.820
12 CP6 189 8.331
12 CP6 190 7.843
12 CP6 191 9.308
12 CP6 192 11.261
12 CP6 193 13.214
12 CP6 194 14.679
12 CP6 195 15.167
12 CP6 196 15.656
12 CP6 197 15.656
12 CP6 198 16.144
12 CP6 199 17.120
12 CP6 200 17.609
12 CP6 201 17.609
12 CP6 202 17.120
12 CP6 203 16.144
12 CP6 204 15.167
12 CP6 205 13.702
12 CP6 206 12.238
12 CP6 207 11.749
12 CP6 208 11.261
12 CP6 209 10.773
12 CP6 210 10.284
12 CP6 211 10.284
12 CP6 212 9.308
12 CP6 213 8.331
12 CP6 214 7.843
12 CP6 215 6.866
12 CP6 216 6.866
12 CP6 217 6.866
12 CP6 218 7.355
12 CP6 219 8.331
12 CP6 220 8.820
12 CP6 221 8.820
12 CP6 222 7.843
12 CP6 223 6.866
12 CP6 224 6.378
12 CP6 225 6.378
12 CP6 226 7.355
12 CP6 227 7.843
12 CP6 228 8.331
12 CP6 229 8.331
12 CP6 230 7.843
12 CP6 231 6.866
12 CP6 232 6.378
12 CP6 233 5.890
12 CP6 234 5.890
12 CP6 235 4.913
12 CP6 236 3.937
12 CP6 237 2.472
12 CP6 238 1.007
12 CP6 239 0.519
12 CP6 240 -0.946
12 CP6 241 -1.434
12 CP6 242 -1.923
12 CP6 243 -1.923
12 CP6 244 -1.434
12 CP6 245 -0.458
12 CP6 246 1.007
12 CP6 247 1.984
12 CP6 248 2.960
12 CP6 249 3.448
12 CP6 250 3.937
12 CP6 251 4.913
12 CP6 252 5.402
12 CP6 253 5.890
12 CP6 254 5.402
12 CP6 255 3.937
# CP1 chan 20
12 CP1 0 6.744
12 CP1 1 6.256
12 CP1 2 5.768
12 CP1 3 4.791
12 CP1 4 4.303
12 CP1 5 4.303
12 CP1 6 4.791
12 CP1 7 5.280
12 CP1 8 6.256
12 CP1 9 5.768
12 CP1 10 4.791
12 CP1 11 3.326
12 CP1 12 1.373
12 CP1 13 -0.580
12 CP1 14 -1.068
12 CP1 15 -1.068
12 CP1 16 -0.092
12 CP1 17 1.862
12 CP1 18 3.326
12 CP1 19 4.303
12 CP1 20 4.791
12 CP1 21 4.303
12 CP1 22 3.326
12 CP1 23 2.350
12 CP1 24 1.862
12 CP1 25 2.350
12 CP1 26 2.350
12 CP1 27 2.838
12 CP1 28 1.862
12 CP1 29 0.885
12 CP1 30 -0.580
12 CP1 31 -1.556
12 CP1 32 -2.045
12 CP1 33 -2.045
12 CP1 34 -1.556
12 CP1 35 -1.556
12 CP1 36 -1.556
12 CP1 37 -2.045
12 CP1 38 -2.533
12 CP1 39 -3.021
12 CP1 40 -3.021
12 CP1 41 -2.533
12 CP1 42 -2.045
12 CP1 43 -1.556
12 CP1 44 -1.068
12 CP1 45 -0.092
12 CP1 46 0.397
12 CP1 47 0.397
12 CP1 48 0.397
12 CP1 49 -0.580
12 CP1 50 -1.068
12 CP1 51 -1.556
12 CP1 52 -1.068
12 CP1 53 -0.092
12 CP1 54 0.885
12 CP1 55 1.373
12 CP1 56 2.838
12 CP1 57 3.326
12 CP1 58 4.303
12 CP1 59 4.791
12 CP1 60 5.280
12 CP1 61 5.280
12 CP1 62 5.280
12 CP1 63 4.791
12 CP1 64 4.303
12 CP1 65 3.326
12 CP1 66 2.350
12 CP1 67 1.862
12 CP1 68 1.862
12 CP1 69 2.350
12 CP1 70 2.838
12 CP1 71 2.350
12 CP1 72 1.862
12 CP1 73 1.373
12 CP1 74 0.885
12 CP1 75 0.885
12 CP1 76 1.862
12 CP1 77 2.838
12 CP1 78 3.326
12 CP1 79 3.815
12 CP1 80 4.303
12 CP1 81 4.303
12 CP1 82 4.791
12 CP1 83 5.280
12 CP1 84 5.768
12 CP1 85 6.256
12 CP1 86 6.256
12 CP1 87 5.768
12 CP1 88 6.256
12 CP1 89 6.256
12 CP1 90 6.744
12 CP1 91 6.744
12 CP1 92 6.256
12 CP1 93 5.768
12 CP1 94 5.768
12 CP1 95 5.768
12 CP1 96 5.768
12 CP1 97 6.256
12 CP1 98 5.768
12 CP1 99 5.280
12 CP1 100 4.791
12 CP1 101 4.303
12 CP1 102 4.303
12 CP1 103 4.303
12 CP1 104 4.791
12 CP1 105 4.791
12 CP1 106 4.791
12 CP1 107 4.303
12 CP1 108 3.326
12 CP1 109 2.350
12 CP1 110 1.862
12 CP1 111 1.373
12 CP1 112 1.862
12 CP1 113 2.350
12 CP1 114 2.350
12 CP1 115 2.350
12 CP1 116 1.862
12 CP1 117 1.373
12 CP1 118 1.373
12 CP1 119 1.373
12 CP1 120 1.373
12 CP1 121 1.862
12 CP1 122 1.862
12 CP1 123 2.350
12 CP1 124 2.838
12 CP1 125 3.326
12 CP1 126 3.815
12 CP1 127 3.815
12 CP1 128 3.815
12 CP1 129 3.326
12 CP1 130 3.326
12 CP1 131 3.326
12 CP1 132 3.326
12 CP1 133 3.815
12 CP1 134 3.815
12 CP1 135 3.326
12 CP1 136 3.326
12 CP1 137 3.326
12 CP1 138 3.815
12 CP1 139 3.815
12 CP1 140 4.303
12 CP1 141 3.815
12 CP1 142 3.326
12 CP1 143 2.838
12 CP1 144 2.838
12 CP1 145 2.350
12 CP1 146 2.838
12 CP1 147 3.326
12 CP1 148 4.303
12 CP1 149 4.791
12 CP1 150 5.768
12 CP1 151 5.768
12 CP1 152 5.280
12 CP1 153 4.791
12 CP1 154 4.303
12 CP1 155 3.815
12 CP1 156 3.815
12 CP1 157 4.303
12 CP1 158 4.791
12 CP1 159 4.791
12 CP1 160 4.791
12 CP1 161 4.791
12 CP1 162 4.303
12 CP1 163 4.303
12 CP1 164 4.791
12 CP1 165 4.791
12 CP1 166 4.791
12 CP1 167 4.791
12 CP1 168 4.791
12 CP1 169 4.303
12 CP1 170 4.303
12 CP1 171 4.303
12 CP1 172 4.303
12 CP1 173 3.815
12 CP1 174 2.838
12 CP1 175 2.350
12 CP1 176 2.350
12 CP1 177 2.350
12 CP1 178 2.838
12 CP1 179 3.326
12 CP1 180 3.815
12 CP1 181 3.815
12 CP1 182 3.815
12 CP1 183 3.815
12 CP1 184 3.815
12 CP1 185 3.815
12 CP1 186 3.326
12 CP1 187 2.350
12 CP1 188 0.885
12 CP1 189 0.397
12 CP1 190 1.373
12 CP1 191 2.838
12 CP1 192 4.303
12 CP1 193 6.256
12 CP1 194 6.256
12 CP1 195 5.768
12 CP1 196 5.280
12 CP1 197 4.791
12 CP1 198 4.791
12 CP1 199 4.303
12 CP1 200 4.303
12 CP1 201 3.815
12 CP1 202 4.303
12 CP1 203 4.791
12 CP1 204 5.280
12 CP1 205 5.768
12 CP1 206 5.768
12 CP1 207 5.280
12 CP1 208 4.303
12 CP1 209 3.326
12 CP1 210 2.838
12 CP1 211 2.350
12 CP1 212 2.838
12 CP1 213 3.326
12 CP1 214 3.815
12 CP1 215 4.303
12 CP1 216 4.303
12 CP1 217 3.815
12 CP1 218 3.815
12 CP1 219 3.815
12 CP1 220 3.815
12 CP1 221 4.303
12 CP1 222 4.303
12 CP1 223 3.815
12 CP1 224 3.326
12 CP1 225 2.838
12 CP1 226 2.350
12 CP1 227 1.373
12 CP1 228 0.885
12 CP1 229 0.397
12 CP1 230 0.885
12 CP1 231 1.373
12 CP1 232 2.350
12 CP1 233 3.326
12 CP1 234 4.791
12 CP1 235 5.768
12 CP1 236 6.256
12 CP1 237 6.256
12 CP1 238 5.280
12 CP1 239 4.303
12 CP1 240 2.838
12 CP1 241 2.838
12 CP1 242 2.838
12 CP1 243 3.326
12 CP1 244 3.326
12 CP1 245 2.838
12 CP1 246 2.838
12 CP1 247 2.838
12 CP1 248 2.838
12 CP1 249 2.838
12 CP1 250 1.862
12 CP1 251 1.373
12 CP1 252 0.397
12 CP1 253 -0.092
12 CP1 254 -0.580
12 CP1 255 -1.068
# CP2 chan 21
12 CP2 0 -0.295
12 CP2 1 0.193
12 CP2 2 1.658
12 CP2 3 2.635
12 CP2 4 3.611
12 CP2 5 3.611
12 CP2 6 3.123
12 CP2 7 3.123
12 CP2 8 3.123
12 CP2 9 3.123
12 CP2 10 3.123
12 CP2 11 2.146
12 CP2 12 1.658
12 CP2 13 1.170
12 CP2 14 0.682
12 CP2 15 0.682
12 CP2 16 0.682
12 CP2 17 0.682
12 CP2 18 1.170
12 CP2 19 2.146
12 CP2 20 3.123
12 CP2 21 4.100
12 CP2 22 4.588
12 CP2 23 4.588
12 CP2 24 3.611
12 CP2 25 3.123
12 CP2 26 2.635
12 CP2 27 2.635
12 CP2 28 2.146
12 CP2 29 2.146
12 CP2 30 1.658
12 CP2 31 2.146
12 CP2 32 3.123
12 CP2 33 3.611
12 CP2 34 4.100
12 CP2 35 4.100
12 CP2 36 4.100
12 CP2 37 3.123
12 CP2 38 3.123
12 CP2 39 2.635
12 CP2 40 2.635
12 CP2 41 2.146
12 CP2 42 1.658
12 CP2 43 1.170
12 CP2 44 1.170
12 CP2 45 0.682
12 CP2 46 0.682
12 CP2 47 1.170
12 CP2 48 1.658
12 CP2 49 2.635
12 CP2 50 3.611
12 CP2 51 4.100
12 CP2 52 4.100
12 CP2 53 3.611
12 CP2 54 3.611
12 CP2 55 3.611
12 CP2 56 4.588
12 CP2 57 6.053
12 CP2 58 7.029
12 CP2 59 7.029
12 CP2 60 6.541
12 CP2 61 5.564
12 CP2 62 4.588
12 CP2 63 4.100
12 CP2 64 3.611
12 CP2 65 3.123
12 CP2 66 3.611
12 CP2 67 4.100
12 CP2 68 4.100
12 CP2 69 4.100
12 CP2 70 4.100
12 CP2 71 3.611
12 CP2 72 3.611
12 CP2 73 3.611
12 CP2 74 4.100
12 CP2 75 4.100
12 CP2 76 4.100
12 CP2 77 3.123
12 CP2 78 2.635
12 CP2 79 3.123
12 CP2 80 3.611
12 CP2 81 4.588
12 CP2 82 5.076
12 CP2 83 5.076
12 CP2 84 5.076
12 CP2 85 4.588
12 CP2 86 4.588
12 CP2 87 4.588
12 CP2 88 4.588
12 CP2 89 4.588
12 CP2 90 3.611
12 CP2 91 3.611
12 CP2 92 4.100
12 CP2 93 5.076
12 CP2 94 6.053
12 CP2 95 7.029
12 CP2 96 7.029
12 CP2 97 6.541
12 CP2 98 6.053
12 CP2 99 5.076
12 CP2 100 4.588
12 CP2 101 4.100
12 CP2 102 4.588
12 CP2 103 4.100
12 CP2 104 4.100
12 CP2 105 3.611
12 CP2 106 3.123
12 CP2 107 2.635
12 CP2 108 2.146
12 CP2 109 2.146
12 CP2 110 2.146
12 CP2 111 2.635
12 CP2 112 3.123
12 CP2 113 3.123
12 CP2 114 3.611
12 CP2 115 4.100
12 CP2 116 4.588
12 CP2 117 4.588
12 CP2 118 3.611
12 CP2 119 1.658
12 CP2 120 0.193
12 CP2 121 -0.783
12 CP2 122 -1.272
12 CP2 123 -0.295
12 CP2 124 1.170
12 CP2 125 1.658
12 CP2 126 2.146
12 CP2 127 2.146
12 CP2 128 2.146
12 CP2 129 1.658
12 CP2 130 1.658
12 CP2 131 1.170
12 CP2 132 0.193
12 CP2 133 0.193
12 CP2 134 0.682
12 CP2 135 1.658
12 CP2 136 3.123
12 CP2 137 4.588
12 CP2 138 5.564
12 CP2 139 6.053
12 CP2 140 5.564
12 CP2 141 4.100
12 CP2 142 2.635
12 CP2 143 1.170
12 CP2 144 0.682
12 CP2 145 0.682
12 CP2 146 1.170
12 CP2 147 1.658
12 CP2 148 1.170
12 CP2 149 1.170
12 CP2 150 1.170
12 CP2 151 0.682
12 CP2 152 0.682
12 CP2 153 0.193
12 CP2 154 0.193
12 CP2 155 0.193
12 CP2 156 1.170
12 CP2 157 1.658
12 CP2 158 3.123
12 CP2 159 4.100
12 CP2 160 4.100
12 CP2 161 4.100
12 CP2 162 3.611
12 CP2 163 3.123
12 CP2 164 2.635
12 CP2 165 1.658
12 CP2 166 1.658
12 CP2 167 1.658
12 CP2 168 1.658
12 CP2 169 1.658
12 CP2 170 1.170
12 CP2 171 1.170
12 CP2 172 0.682
12 CP2 173 0.682
12 CP2 174 0.682
12 CP2 175 1.170
12 CP2 176 1.170
12 CP2 177 1.658
12 CP2 178 2.146
12 CP2 179 2.635
12 CP2 180 2.635
12 CP2 181 2.635
12 CP2 182 2.146
12 CP2 183 1.658
12 CP2 184 1.658
12 CP2 185 1.658
12 CP2 186 1.658
12 CP2 187 1.170
12 CP2 188 0.193
12 CP2 189 -0.783
12 CP2 190 -0.783
12 CP2 191 0.193
12 CP2 192 2.146
12 CP2 193 4.100
12 CP2 194 6.053
12 CP2 195 7.029
12 CP2 196 6.541
12 CP2 197 6.053
12 CP2 198 5.076
12 CP2 199 4.588
12 CP2 200 5.076
12 CP2 201 5.076
12 CP2 202 5.076
12 CP2 203 4.588
12 CP2 204 4.100
12 CP2 205 2.635
12 CP2 206 1.658
12 CP2 207 0.682
12 CP2 208 0.193
12 CP2 209 0.193
12 CP2 210 0.193
12 CP2 211 0.193
12 CP2 212 -0.295
12 CP2 213 -0.295
12 CP2 214 -0.295
12 CP2 215 -0.295
12 CP2 216 -0.295
12 CP2 217 -0.295
12 CP2 218 0.193
12 CP2 219 0.193
12 CP2 220 0.193
12 CP2 221 0.193
12 CP2 222 -0.295
12 CP2 223 -0.295
12 CP2 224 -0.295
12 CP2 225 0.193
12 CP2 226 0.682
12 CP2 227 0.682
12 CP2 228 0.682
12 CP2 229 0.193
12 CP2 230 -0.295
12 CP2 231 -0.295
12 CP2 232 0.193
12 CP2 233 0.682
12 CP2 234 1.170
12 CP2 235 0.682
12 CP2 236 0.193
12 CP2 237 -0.783
12 CP2 238 -2.248
12 CP2 239 -3.225
12 CP2 240 -3.713
12 CP2 241 -4.201
12 CP2 242 -4.201
12 CP2 243 -4.201
12 CP2 244 -3.713
12 CP2 245 -3.225
12 CP2 246 -2.736
12 CP2 247 -2.248
12 CP2 248 -2.248
12 CP2 249 -2.248
12 CP2 250 -1.760
12 CP2 251 -1.760
12 CP2 252 -1.760
12 CP2 253 -1.760
12 CP2 254 -1.760
12 CP2 255 -2.248
# P3 chan 22
12 P3 0 12.980
12 P3 1 12.492
12 P3 2 11.027
12 P3 3 9.074
12 P3 4 7.121
12 P3 5 5.656
12 P3 6 5.168
12 P3 7 6.144
12 P3 8 7.609
12 P3 9 9.074
12 P3 10 9.074
12 P3 11 7.609
12 P3 12 4.679
12 P3 13 2.238
12 P3 14 1.261
12 P3 15 1.261
12 P3 16 2.726
12 P3 17 5.168
12 P3 18 8.586
12 P3 19 11.027
12 P3 20 12.492
12 P3 21 13.468
12 P3 22 12.492
12 P3 23 11.027
12 P3 24 9.074
12 P3 25 7.609
12 P3 26 7.121
12 P3 27 6.632
12 P3 28 5.168
12 P3 29 3.703
12 P3 30 2.238
12 P3 31 0.773
12 P3 32 0.285
12 P3 33 0.285
12 P3 34 0.773
12 P3 35 0.773
12 P3 36 -0.203
12 P3 37 -1.668
12 P3 38 -3.621
12 P3 39 -4.598
12 P3 40 -4.598
12 P3 41 -4.598
12 P3 42 -3.621
12 P3 43 -3.133
12 P3 44 -2.645
12 P3 45 -1.180
12 P3 46 0.285
12 P3 47 1.261
12 P3 48 1.261
12 P3 49 -0.203
12 P3 50 -1.180
12 P3 51 -1.668
12 P3 52 -1.180
12 P3 53 0.773
12 P3 54 2.726
12 P3 55 4.191
12 P3 56 5.168
12 P3 57 6.144
12 P3 58 7.609
12 P3 59 9.074
12 P3 60 10.050
12 P3 61 10.050
12 P3 62 9.074
12 P3 63 7.609
12 P3 64 6.632
12 P3 65 5.168
12 P3 66 4.191
12 P3 67 3.215
12 P3 68 2.726
12 P3 69 2.726
12 P3 70 3.215
12 P3 71 2.238
12 P3 72 1.261
12 P3 73 -0.203
12 P3 74 -1.180
12 P3 75 -0.692
12 P3 76 0.773
12 P3 77 2.726
12 P3 78 4.679
12 P3 79 6.144
12 P3 80 6.632
12 P3 81 7.121
12 P3 82 8.097
12 P3 83 9.074
12 P3 84 10.050
12 P3 85 10.539
12 P3 86 10.050
12 P3 87 10.050
12 P3 88 10.050
12 P3 89 10.539
12 P3 90 11.515
12 P3 91 12.004
12 P3 92 12.004
12 P3 93 11.515
12 P3 94 11.027
12 P3 95 11.027
12 P3 96 11.515
12 P3 97 12.004
12 P3 98 12.004
12 P3 99 11.515
12 P3 100 10.539
12 P3 101 9.562
12 P3 102 8.586
12 P3 103 8.097
12 P3 104 8.097
12 P3 105 8.097
12 P3 106 7.121
12 P3 107 5.656
12 P3 108 3.703
12 P3 109 2.238
12 P3 110 0.773
12 P3 111 0.773
12 P3 112 1.750
12 P3 113 2.726
12 P3 114 3.703
12 P3 115 3.703
12 P3 116 3.703
12 P3 117 3.215
12 P3 118 2.726
12 P3 119 2.726
12 P3 120 3.215
12 P3 121 4.191
12 P3 122 5.168
12 P3 123 5.656
12 P3 124 6.632
12 P3 125 7.121
12 P3 126 7.609
12 P3 127 7.609
12 P3 128 8.097
12 P3 129 7.609
12 P3 130 7.121
12 P3 131 6.632
12 P3 132 6.632
12 P3 133 6.632
12 P3 134 7.609
12 P3 135 8.097
12 P3 136 8.586
12 P3 137 8.586
12 P3 138 9.074
12 P3 139 9.562
12 P3 140 9.562
12 P3 141 9.562
12 P3 142 8.097
12 P3 143 6.632
12 P3 144 5.168
12 P3 145 4.191
12 P3 146 4.191
12 P3 147 5.168
12 P3 148 6.632
12 P3 149 7.609
12 P3 150 8.586
12 P3 151 8.586
12 P3 152 8.097
12 P3 153 7.121
12 P3 154 6.632
12 P3 155 7.121
12 P3 156 8.097
12 P3 157 10.050
12 P3 158 11.515
12 P3 159 12.980
12 P3 160 12.980
12 P3 161 12.492
12 P3 162 11.515
12 P3 163 11.515
12 P3 164 12.492
12 P3 165 13.468
12 P3 166 13.957
12 P3 167 13.468
12 P3 168 12.004
12 P3 169 11.027
12 P3 170 10.539
12 P3 171 10.539
12 P3 172 11.027
12 P3 173 10.539
12 P3 174 9.074
12 P3 175 7.609
12 P3 176 6.632
12 P3 177 7.121
12 P3 178 7.609
12 P3 179 8.586
12 P3 180 9.074
12 P3 181 8.586
12 P3 182 7.609
12 P3 183 7.609
12 P3 184 8.097
12 P3 185 9.074
12 P3 186 9.562
12 P3 187 8.586
12 P3 188 7.609
12 P3 189 6.632
12 P3 190 7.609
12 P3 191 10.050
12 P3 192 12.492
12 P3 193 14.445
12 P3 194 14.445
12 P3 195 13.957
12 P3 196 13.468
12 P3 197 13.957
12 P3 198 14.445
12 P3 199 14.445
12 P3 200 12.980
12 P3 201 11.515
12 P3 202 11.027
12 P3 203 12.004
12 P3 204 13.957
12 P3 205 16.398
12 P3 206 16.886
12 P3 207 15.910
12 P3 208 13.468
12 P3 209 11.027
12 P3 210 9.074
12 P3 211 9.074
12 P3 212 10.539
12 P3 213 12.004
12 P3 214 12.980
12 P3 215 13.468
12 P3 216 13.468
12 P3 217 13.957
12 P3 218 14.445
12 P3 219 14.933
12 P3 220 14.933
12 P3 221 13.957
12 P3 222 12.980
12 P3 223 11.515
12 P3 224 9.562
12 P3 225 8.097
12 P3 226 5.656
12 P3 227 4.191
12 P3 228 3.215
12 P3 229 3.215
12 P3 230 3.703
12 P3 231 5.656
12 P3 232 7.609
12 P3 233 10.539
12 P3 234 13.468
12 P3 235 16.398
12 P3 236 17.863
12 P3 237 17.375
12 P3 238 14.933
12 P3 239 12.004
12 P3 240 9.562
12 P3 241 8.586
12 P3 242 9.074
12 P3 243 10.050
12 P3 244 10.539
12 P3 245 10.050
12 P3 246 9.562
12 P3 247 9.074
12 P3 248 8.586
12 P3 249 7.121
12 P3 250 5.168
12 P3 251 2.726
12 P3 252 0.773
12 P3 253 -0.203
12 P3 254 0.285
12 P3 255 -0.203
# P4 chan 23
12 P4 0 3.672
12 P4 1 5.137
12 P4 2 7.090
12 P4 3 9.043
12 P4 4 9.043
12 P4 5 7.579
12 P4 6 5.625
12 P4 7 5.625
12 P4 8 6.114
12 P4 9 8.067
12 P4 10 8.555
12 P4 11 8.555
12 P4 12 7.090
12 P4 13 5.625
12 P4 14 4.649
12 P4 15 4.161
12 P4 16 4.161
12 P4 17 4.161
12 P4 18 4.649
12 P4 19 6.602
12 P4 20 8.555
12 P4 21 10.508
12 P4 22 11.973
12 P4 23 11.485
12 P4 24 10.997
12 P4 25 10.508
12 P4 26 10.997
12 P4 27 10.997
12 P4 28 10.508
12 P4 29 9.043
12 P4 30 7.579
12 P4 31 7.090
12 P4 32 7.579
12 P4 33 8.555
12 P4 34 9.532
12 P4 35 9.043
12 P4 36 8.067
12 P4 37 6.602
12 P4 38 5.137
12 P4 39 4.161
12 P4 40 3.672
12 P4 41 3.672
12 P4 42 3.184
12 P4 43 2.696
12 P4 44 2.696
12 P4 45 3.184
12 P4 46 3.184
12 P4 47 3.672
12 P4 48 4.649
12 P4 49 6.114
12 P4 50 7.579
12 P4 51 8.555
12 P4 52 9.043
12 P4 53 8.555
12 P4 54 8.555
12 P4 55 9.532
12 P4 56 11.485
12 P4 57 14.414
12 P4 58 17.344
12 P4 59 18.321
12 P4 60 17.344
12 P4 61 15.879
12 P4 62 14.414
12 P4 63 12.950
12 P4 64 11.973
12 P4 65 10.997
12 P4 66 10.508
12 P4 67 10.508
12 P4 68 10.508
12 P4 69 10.508
12 P4 70 9.532
12 P4 71 8.555
12 P4 72 7.579
12 P4 73 7.579
12 P4 74 8.067
12 P4 75 8.555
12 P4 76 8.555
12 P4 77 8.067
12 P4 78 8.067
12 P4 79 9.043
12 P4 80 10.508
12 P4 81 12.461
12 P4 82 12.950
12 P4 83 12.950
12 P4 84 12.461
12 P4 85 12.461
12 P4 86 12.461
12 P4 87 12.461
12 P4 88 11.973
12 P4 89 11.973
12 P4 90 11.485
12 P4 91 11.485
12 P4 92 12.461
12 P4 93 13.926
12 P4 94 15.391
12 P4 95 16.368
12 P4 96 16.368
12 P4 97 14.903
12 P4 98 12.950
12 P4 99 10.997
12 P4 100 10.020
12 P4 101 10.508
12 P4 102 10.997
12 P4 103 11.973
12 P4 104 12.461
12 P4 105 11.973
12 P4 106 10.997
12 P4 107 9.532
12 P4 108 8.555
12 P4 109 8.067
12 P4 110 8.067
12 P4 111 8.555
12 P4 112 9.043
12 P4 113 9.532
12 P4 114 10.508
12 P4 115 11.485
12 P4 116 12.461
12 P4 117 12.461
12 P4 118 10.997
12 P4 119 8.067
12 P4 120 5.625
12 P4 121 4.161
12 P4 122 4.649
12 P4 123 6.602
12 P4 124 9.043
12 P4 125 10.508
12 P4 126 11.485
12 P4 127 11.973
12 P4 128 11.973
12 P4 129 11.485
12 P4 130 10.508
12 P4 131 9.532
12 P4 132 8.067
12 P4 133 7.090
12 P4 134 6.602
12 P4 135 7.579
12 P4 136 9.532
12 P4 137 10.997
12 P4 138 12.461
12 P4 139 12.950
12 P4 140 11.973
12 P4 141 10.020
12 P4 142 7.579
12 P4 143 6.114
12 P4 144 4.649
12 P4 145 4.649
12 P4 146 4.649
12 P4 147 5.137
12 P4 148 5.625
12 P4 149 6.602
12 P4 150 6.602
12 P4 151 7.090
12 P4 152 6.602
12 P4 153 6.114
12 P4 154 5.625
12 P4 155 5.625
12 P4 156 6.114
12 P4 157 7.579
12 P4 158 9.043
12 P4 159 10.997
12 P4 160 11.973
12 P4 161 12.461
12 P4 162 11.485
12 P4 163 10.508
12 P4 164 9.532
12 P4 165 8.555
12 P4 166 8.555
12 P4 167 9.043
12 P4 168 9.532
12 P4 169 10.020
12 P4 170 9.532
12 P4 171 8.067
12 P4 172 7.090
12 P4 173 6.602
12 P4 174 6.114
12 P4 175 6.602
12 P4 176 7.090
12 P4 177 8.067
12 P4 178 9.043
12 P4 179 9.532
12 P4 180 10.020
12 P4 181 9.043
12 P4 182 8.067
12 P4 183 8.067
12 P4 184 8.067
12 P4 185 9.043
12 P4 186 9.532
12 P4 187 8.555
12 P4 188 7.090
12 P4 189 5.137
12 P4 190 5.137
12 P4 191 7.090
12 P4 192 10.997
12 P4 193 14.903
12 P4 194 17.344
12 P4 195 17.344
12 P4 196 16.368
12 P4 197 15.391
12 P4 198 14.903
12 P4 199 14.903
12 P4 200 15.879
12 P4 201 16.368
12 P4 202 15.879
12 P4 203 15.391
12 P4 204 14.414
12 P4 205 13.438
12 P4 206 11.485
12 P4 207 10.020
12 P4 208 8.555
12 P4 209 8.067
12 P4 210 7.579
12 P4 211 7.579
12 P4 212 7.090
12 P4 213 6.602
12 P4 214 6.114
12 P4 215 5.137
12 P4 216 5.137
12 P4 217 5.137
12 P4 218 5.137
12 P4 219 5.625
12 P4 220 5.625
12 P4 221 5.137
12 P4 222 4.161
12 P4 223 3.672
12 P4 224 3.672
12 P4 225 4.649
12 P4 226 4.649
12 P4 227 5.137
12 P4 228 4.649
12 P4 229 4.649
12 P4 230 5.137
12 P4 231 6.114
12 P4 232 7.579
12 P4 233 8.067
12 P4 234 8.067
12 P4 235 7.090
12 P4 236 5.625
12 P4 237 4.161
12 P4 238 2.207
12 P4 239 0.254
12 P4 240 -1.699
12 P4 241 -3.164
12 P4 242 -4.140
12 P4 243 -3.652
12 P4 244 -3.164
12 P4 245 -1.699
12 P4 246 -1.211
12 P4 247 -0.234
12 P4 248 -0.234
12 P4 249 0.254
12 P4 250 1.231
12 P4 251 2.207
12 P4 252 2.696
12 P4 253 3.184
12 P4 254 2.207
12 P4 255 0.254
# PZ chan 24
12 PZ 0 7.955
12 PZ 1 7.955
12 PZ 2 7.955
12 PZ 3 8.443
12 PZ 4 8.443
12 PZ 5 7.955
12 PZ 6 7.467
12 PZ 7 7.467
12 PZ 8 7.955
12 PZ 9 8.931
12 PZ 10 8.443
12 PZ 11 7.467
12 PZ 12 5.514
12 PZ 13 3.072
12 PZ 14 2.096
12 PZ 15 2.096
12 PZ 16 3.072
12 PZ 17 4.537
12 PZ 18 6.490
12 PZ 19 7.955
12 PZ 20 8.931
12 PZ 21 9.420
12 PZ 22 8.931
12 PZ 23 7.467
12 PZ 24 6.490
12 PZ 25 6.002
12 PZ 26 6.002
12 PZ 27 6.002
12 PZ 28 4.537
12 PZ 29 2.584
12 PZ 30 1.119
12 PZ 31 0.142
12 PZ 32 0.142
12 PZ 33 1.607
12 PZ 34 2.584
12 PZ 35 3.072
12 PZ 36 2.584
12 PZ 37 1.607
12 PZ 38 0.142
12 PZ 39 -0.346
12 PZ 40 -0.346
12 PZ 41 -0.346
12 PZ 42 0.631
12 PZ 43 1.607
12 PZ 44 3.072
12 PZ 45 4.049
12 PZ 46 4.537
12 PZ 47 4.537
12 PZ 48 4.537
12 PZ 49 5.025
12 PZ 50 5.025
12 PZ 51 5.514
12 PZ 52 5.514
12 PZ 53 6.002
12 PZ 54 6.978
12 PZ 55 7.955
12 PZ 56 9.908
12 PZ 57 12.349
12 PZ 58 14.303
12 PZ 59 15.279
12 PZ 60 15.279
12 PZ 61 14.303
12 PZ 62 13.326
12 PZ 63 11.861
12 PZ 64 10.885
12 PZ 65 9.908
12 PZ 66 8.931
12 PZ 67 8.443
12 PZ 68 8.443
12 PZ 69 8.443
12 PZ 70 8.443
12 PZ 71 7.467
12 PZ 72 6.490
12 PZ 73 6.490
12 PZ 74 6.002
12 PZ 75 6.490
12 PZ 76 7.467
12 PZ 77 8.443
12 PZ 78 9.420
12 PZ 79 10.396
12 PZ 80 11.373
12 PZ 81 11.861
12 PZ 82 12.349
12 PZ 83 12.349
12 PZ 84 12.838
12 PZ 85 12.838
12 PZ 86 12.838
12 PZ 87 12.838
12 PZ 88 12.838
12 PZ 89 12.838
12 PZ 90 12.838
12 PZ 91 12.838
12 PZ 92 12.838
12 PZ 93 12.838
12 PZ 94 13.326
12 PZ 95 13.814
12 PZ 96 14.303
12 PZ 97 14.303
12 PZ 98 13.814
12 PZ 99 13.326
12 PZ 100 13.326
12 PZ 101 12.838
12 PZ 102 11.861
12 PZ 103 11.861
12 PZ 104 11.861
12 PZ 105 11.861
12 PZ 106 11.373
12 PZ 107 9.908
12 PZ 108 8.931
12 PZ 109 7.467
12 PZ 110 6.978
12 PZ 111 6.978
12 PZ 112 7.467
12 PZ 113 7.955
12 PZ 114 8.443
12 PZ 115 7.955
12 PZ 116 7.955
12 PZ 117 7.467
12 PZ 118 6.978
12 PZ 119 6.002
12 PZ 120 5.514
12 PZ 121 5.514
12 PZ 122 6.002
12 PZ 123 7.467
12 PZ 124 8.931
12 PZ 125 10.396
12 PZ 126 10.885
12 PZ 127 10.396
12 PZ 128 9.908
12 PZ 129 9.420
12 PZ 130 8.931
12 PZ 131 8.443
12 PZ 132 8.443
12 PZ 133 7.955
12 PZ 134 7.467
12 PZ 135 7.955
12 PZ 136 7.955
12 PZ 137 8.931
12 PZ 138 9.908
12 PZ 139 10.885
12 PZ 140 11.373
12 PZ 141 11.373
12 PZ 142 10.396
12 PZ 143 9.420
12 PZ 144 8.443
12 PZ 145 7.955
12 PZ 146 8.443
12 PZ 147 8.931
12 PZ 148 10.396
12 PZ 149 11.861
12 PZ 150 12.349
12 PZ 151 12.838
12 PZ 152 12.349
12 PZ 153 11.373
12 PZ 154 10.885
12 PZ 155 10.396
12 PZ 156 10.885
12 PZ 157 11.373
12 PZ 158 12.838
12 PZ 159 13.814
12 PZ 160 13.814
12 PZ 161 13.326
12 PZ 162 12.349
12 PZ 163 11.373
12 PZ 164 11.373
12 PZ 165 11.373
12 PZ 166 11.861
12 PZ 167 11.861
12 PZ 168 12.838
12 PZ 169 12.838
12 PZ 170 12.349
12 PZ 171 11.861
12 PZ 172 11.373
12 PZ 173 10.396
12 PZ 174 10.396
12 PZ 175 10.396
12 PZ 176 10.396
12 PZ 177 11.373
12 PZ 178 11.373
12 PZ 179 11.861
12 PZ 180 11.373
12 PZ 181 10.396
12 PZ 182 9.420
12 PZ 183 8.931
12 PZ 184 8.443
12 PZ 185 8.443
12 PZ 186 8.443
12 PZ 187 7.467
12 PZ 188 6.002
12 PZ 189 5.025
12 PZ 190 5.514
12 PZ 191 8.443
12 PZ 192 12.349
12 PZ 193 16.256
12 PZ 194 19.185
12 PZ 195 19.674
12 PZ 196 18.697
12 PZ 197 17.721
12 PZ 198 16.744
12 PZ 199 16.256
12 PZ 200 15.279
12 PZ 201 14.791
12 PZ 202 13.814
12 PZ 203 14.303
12 PZ 204 14.303
12 PZ 205 14.303
12 PZ 206 13.326
12 PZ 207 11.373
12 PZ 208 9.420
12 PZ 209 7.955
12 PZ 210 7.467
12 PZ 211 7.955
12 PZ 212 8.931
12 PZ 213 9.420
12 PZ 214 9.908
12 PZ 215 10.396
12 PZ 216 10.396
12 PZ 217 10.885
12 PZ 218 11.373
12 PZ 219 12.349
12 PZ 220 12.349
12 PZ 221 11.861
12 PZ 222 10.885
12 PZ 223 10.396
12 PZ 224 9.420
12 PZ 225 8.931
12 PZ 226 7.955
12 PZ 227 7.467
12 PZ 228 6.978
12 PZ 229 6.490
12 PZ 230 6.978
12 PZ 231 7.467
12 PZ 232 8.931
12 PZ 233 10.396
12 PZ 234 11.861
12 PZ 235 13.326
12 PZ 236 14.303
12 PZ 237 13.326
12 PZ 238 11.373
12 PZ 239 9.420
12 PZ 240 7.467
12 PZ 241 6.002
12 PZ 242 5.514
12 PZ 243 6.002
12 PZ 244 6.490
12 PZ 245 6.978
12 PZ 246 7.467
12 PZ 247 7.955
12 PZ 248 8.443
12 PZ 249 8.443
12 PZ 250 8.443
12 PZ 251 7.955
12 PZ 252 6.978
12 PZ 253 6.490
12 PZ 254 5.514
12 PZ 255 4.049
# P8 chan 25
12 P8 0 3.611
12 P8 1 6.053
12 P8 2 8.982
12 P8 3 9.959
12 P8 4 8.982
12 P8 5 6.053
12 P8 6 3.123
12 P8 7 2.146
12 P8 8 3.611
12 P8 9 6.541
12 P8 10 8.982
12 P8 11 10.447
12 P8 12 9.959
12 P8 13 8.982
12 P8 14 8.006
12 P8 15 6.541
12 P8 16 6.053
12 P8 17 6.053
12 P8 18 7.517
12 P8 19 9.471
12 P8 20 12.400
12 P8 21 14.842
12 P8 22 16.307
12 P8 23 16.307
12 P8 24 15.818
12 P8 25 15.818
12 P8 26 15.818
12 P8 27 17.283
12 P8 28 18.260
12 P8 29 18.748
12 P8 30 18.748
12 P8 31 17.771
12 P8 32 16.795
12 P8 33 16.307
12 P8 34 15.818
12 P8 35 15.330
12 P8 36 13.865
12 P8 37 11.912
12 P8 38 8.494
12 P8 39 6.541
12 P8 40 5.076
12 P8 41 5.076
12 P8 42 5.564
12 P8 43 5.564
12 P8 44 5.564
12 P8 45 5.564
12 P8 46 5.564
12 P8 47 6.541
12 P8 48 8.006
12 P8 49 9.471
12 P8 50 9.959
12 P8 51 9.959
12 P8 52 8.982
12 P8 53 7.517
12 P8 54 7.029
12 P8 55 7.517
12 P8 56 8.982
12 P8 57 10.935
12 P8 58 13.865
12 P8 59 15.330
12 P8 60 16.307
12 P8 61 15.818
12 P8 62 15.330
12 P8 63 13.865
12 P8 64 12.400
12 P8 65 11.424
12 P8 66 10.447
12 P8 67 9.959
12 P8 68 10.447
12 P8 69 10.935
12 P8 70 9.959
12 P8 71 9.471
12 P8 72 8.494
12 P8 73 8.494
12 P8 74 8.982
12 P8 75 10.447
12 P8 76 11.424
12 P8 77 12.400
12 P8 78 13.377
12 P8 79 14.842
12 P8 80 16.307
12 P8 81 18.748
12 P8 82 20.701
12 P8 83 21.678
12 P8 84 21.678
12 P8 85 20.701
12 P8 86 20.213
12 P8 87 19.236
12 P8 88 19.236
12 P8 89 18.748
12 P8 90 18.260
12 P8 91 19.236
12 P8 92 20.701
12 P8 93 23.142
12 P8 94 25.584
12 P8 95 27.049
12 P8 96 26.072
12 P8 97 23.142
12 P8 98 20.213
12 P8 99 17.771
12 P8 100 17.283
12 P8 101 18.260
12 P8 102 19.236
12 P8 103 20.701
12 P8 104 20.701
12 P8 105 19.725
12 P8 106 18.260
12 P8 107 15.818
12 P8 108 13.865
12 P8 109 12.400
12 P8 110 11.912
12 P8 111 11.912
12 P8 112 13.377
12 P8 113 14.842
12 P8 114 16.307
12 P8 115 18.260
12 P8 116 19.236
12 P8 117 18.748
12 P8 118 17.283
12 P8 119 14.842
12 P8 120 12.889
12 P8 121 12.889
12 P8 122 13.865
12 P8 123 16.307
12 P8 124 18.748
12 P8 125 20.701
12 P8 126 21.678
12 P8 127 22.166
12 P8 128 22.166
12 P8 129 21.678
12 P8 130 20.701
12 P8 131 18.260
12 P8 132 14.842
12 P8 133 11.912
12 P8 134 9.959
12 P8 135 9.959
12 P8 136 11.424
12 P8 137 13.377
12 P8 138 15.330
12 P8 139 15.330
12 P8 140 13.377
12 P8 141 10.935
12 P8 142 8.494
12 P8 143 7.029
12 P8 144 6.053
12 P8 145 6.053
12 P8 146 6.541
12 P8 147 7.517
12 P8 148 7.517
12 P8 149 8.006
12 P8 150 8.006
12 P8 151 8.006
12 P8 152 7.517
12 P8 153 7.029
12 P8 154 6.541
12 P8 155 6.541
12 P8 156 7.517
12 P8 157 9.959
12 P8 158 12.889
12 P8 159 16.307
12 P8 160 19.236
12 P8 161 20.701
12 P8 162 20.213
12 P8 163 19.236
12 P8 164 18.260
12 P8 165 17.771
12 P8 166 17.283
12 P8 167 17.283
12 P8 168 17.283
12 P8 169 17.283
12 P8 170 16.795
12 P8 171 15.818
12 P8 172 14.842
12 P8 173 13.377
12 P8 174 12.889
12 P8 175 12.400
12 P8 176 12.889
12 P8 177 14.353
12 P8 178 16.307
12 P8 179 17.771
12 P8 180 17.283
12 P8 181 15.818
12 P8 182 14.353
12 P8 183 13.377
12 P8 184 14.842
12 P8 185 16.795
12 P8 186 18.748
12 P8 187 19.236
12 P8 188 18.260
12 P8 189 17.283
12 P8 190 17.283
12 P8 191 18.748
12 P8 192 21.189
12 P8 193 23.142
12 P8 194 24.119
12 P8 195 23.631
12 P8 196 23.142
12 P8 197 23.631
12 P8 198 24.119
12 P8 199 26.072
12 P8 200 27.537
12 P8 201 28.025
12 P8 202 28.025
12 P8 203 28.025
12 P8 204 28.025
12 P8 205 27.049
12 P8 206 25.584
12 P8 207 23.142
12 P8 208 20.701
12 P8 209 18.748
12 P8 210 17.283
12 P8 211 16.795
12 P8 212 16.795
12 P8 213 17.283
12 P8 214 17.771
12 P8 215 17.283
12 P8 216 17.283
12 P8 217 16.795
12 P8 218 16.795
12 P8 219 16.795
12 P8 220 16.795
12 P8 221 16.307
12 P8 222 15.330
12 P8 223 13.865
12 P8 224 12.889
12 P8 225 11.912
12 P8 226 11.912
12 P8 227 11.424
12 P8 228 11.912
12 P8 229 11.912
12 P8 230 12.889
12 P8 231 13.865
12 P8 232 15.330
12 P8 233 15.818
12 P8 234 15.818
12 P8 235 14.842
12 P8 236 13.865
12 P8 237 12.889
12 P8 238 10.935
12 P8 239 8.494
12 P8 240 5.564
12 P8 241 2.635
12 P8 242 0.682
12 P8 243 0.682
12 P8 244 1.658
12 P8 245 3.611
12 P8 246 5.564
12 P8 247 7.029
12 P8 248 8.006
12 P8 249 8.006
12 P8 250 8.982
12 P8 251 9.959
12 P8 252 11.424
12 P8 253 11.424
12 P8 254 9.959
12 P8 255 7.517
# P7 chan 26
12 P7 0 15.503
12 P7 1 14.526
12 P7 2 12.573
12 P7 3 9.155
12 P7 4 5.737
12 P7 5 2.808
12 P7 6 1.343
12 P7 7 1.831
12 P7 8 5.249
12 P7 9 8.667
12 P7 10 11.108
12 P7 11 11.597
12 P7 12 9.644
12 P7 13 6.714
12 P7 14 3.784
12 P7 15 2.808
12 P7 16 2.808
12 P7 17 4.761
12 P7 18 7.202
12 P7 19 10.620
12 P7 20 14.038
12 P7 21 16.479
12 P7 22 16.968
12 P7 23 15.991
12 P7 24 14.038
12 P7 25 11.597
12 P7 26 10.620
12 P7 27 10.620
12 P7 28 10.620
12 P7 29 10.620
12 P7 30 10.132
12 P7 31 8.667
12 P7 32 7.202
12 P7 33 6.714
12 P7 34 6.714
12 P7 35 6.226
12 P7 36 3.784
12 P7 37 0.854
12 P7 38 -2.563
12 P7 39 -5.005
12 P7 40 -6.470
12 P7 41 -6.958
12 P7 42 -6.470
12 P7 43 -5.981
12 P7 44 -5.005
12 P7 45 -3.540
12 P7 46 -1.587
12 P7 47 -0.122
12 P7 48 -0.122
12 P7 49 -0.610
12 P7 50 -1.587
12 P7 51 -1.099
12 P7 52 -0.122
12 P7 53 1.831
12 P7 54 3.296
12 P7 55 4.272
12 P7 56 4.761
12 P7 57 5.737
12 P7 58 7.202
12 P7 59 8.667
12 P7 60 9.644
12 P7 61 9.155
12 P7 62 8.179
12 P7 63 6.714
12 P7 64 5.737
12 P7 65 5.249
12 P7 66 4.761
12 P7 67 4.272
12 P7 68 3.784
12 P7 69 3.296
12 P7 70 2.808
12 P7 71 2.319
12 P7 72 1.343
12 P7 73 0.366
12 P7 74 -0.122
12 P7 75 0.366
12 P7 76 2.319
12 P7 77 4.272
12 P7 78 6.714
12 P7 79 8.179
12 P7 80 8.667
12 P7 81 9.155
12 P7 82 9.644
12 P7 83 10.620
12 P7 84 11.597
12 P7 85 12.573
12 P7 86 12.573
12 P7 87 12.573
12 P7 88 12.573
12 P7 89 13.062
12 P7 90 14.038
12 P7 91 15.015
12 P7 92 15.503
12 P7 93 15.503
12 P7 94 15.503
12 P7 95 15.015
12 P7 96 15.015
12 P7 97 15.503
12 P7 98 15.991
12 P7 99 15.991
12 P7 100 15.503
12 P7 101 14.526
12 P7 102 13.550
12 P7 103 13.062
12 P7 104 13.062
12 P7 105 12.573
12 P7 106 11.108
12 P7 107 8.667
12 P7 108 6.226
12 P7 109 3.784
12 P7 110 2.319
12 P7 111 2.808
12 P7 112 3.784
12 P7 113 5.737
12 P7 114 6.714
12 P7 115 7.202
12 P7 116 7.202
12 P7 117 6.714
12 P7 118 6.226
12 P7 119 5.737
12 P7 120 6.226
12 P7 121 7.202
12 P7 122 8.667
12 P7 123 10.620
12 P7 124 12.573
12 P7 125 14.038
12 P7 126 15.503
12 P7 127 15.991
12 P7 128 15.503
12 P7 129 14.038
12 P7 130 12.085
12 P7 131 10.132
12 P7 132 9.644
12 P7 133 9.155
12 P7 134 10.132
12 P7 135 10.620
12 P7 136 11.108
12 P7 137 11.108
12 P7 138 11.108
12 P7 139 11.108
12 P7 140 11.108
12 P7 141 10.132
12 P7 142 9.155
12 P7 143 7.690
12 P7 144 6.714
12 P7 145 5.737
12 P7 146 6.226
12 P7 147 7.202
12 P7 148 8.179
12 P7 149 9.155
12 P7 150 9.155
12 P7 151 8.667
12 P7 152 7.690
12 P7 153 6.714
12 P7 154 6.714
12 P7 155 7.690
12 P7 156 9.644
12 P7 157 12.085
12 P7 158 14.526
12 P7 159 15.991
12 P7 160 16.479
12 P7 161 16.479
12 P7 162 15.991
12 P7 163 15.991
12 P7 164 16.479
12 P7 165 17.456
12 P7 166 17.944
12 P7 167 17.456
12 P7 168 15.503
12 P7 169 13.550
12 P7 170 12.573
12 P7 171 12.085
12 P7 172 12.573
12 P7 173 13.550
12 P7 174 13.062
12 P7 175 12.085
12 P7 176 10.620
12 P7 177 10.132
12 P7 178 10.132
12 P7 179 11.597
12 P7 180 12.085
12 P7 181 12.085
12 P7 182 11.108
12 P7 183 10.620
12 P7 184 11.108
12 P7 185 12.573
12 P7 186 14.526
12 P7 187 15.015
12 P7 188 14.526
12 P7 189 13.062
12 P7 190 12.573
12 P7 191 13.550
12 P7 192 15.503
12 P7 193 16.968
12 P7 194 16.968
12 P7 195 16.479
12 P7 196 15.991
12 P7 197 17.456
12 P7 198 19.409
12 P7 199 20.874
12 P7 200 21.362
12 P7 201 20.386
12 P7 202 18.921
12 P7 203 19.409
12 P7 204 21.362
12 P7 205 23.804
12 P7 206 25.269
12 P7 207 24.780
12 P7 208 21.851
12 P7 209 18.433
12 P7 210 15.991
12 P7 211 15.503
12 P7 212 16.479
12 P7 213 17.944
12 P7 214 18.433
12 P7 215 18.433
12 P7 216 17.456
12 P7 217 17.456
12 P7 218 18.433
12 P7 219 18.921
12 P7 220 18.433
12 P7 221 17.456
12 P7 222 15.503
12 P7 223 14.038
12 P7 224 12.573
12 P7 225 10.620
12 P7 226 9.155
12 P7 227 6.714
12 P7 228 5.249
12 P7 229 5.249
12 P7 230 7.202
12 P7 231 10.132
12 P7 232 14.038
12 P7 233 17.944
12 P7 234 22.339
12 P7 235 25.269
12 P7 236 27.222
12 P7 237 26.245
12 P7 238 22.339
12 P7 239 16.968
12 P7 240 11.597
12 P7 241 8.667
12 P7 242 8.667
12 P7 243 10.132
12 P7 244 12.085
12 P7 245 13.062
12 P7 246 13.062
12 P7 247 12.573
12 P7 248 11.597
12 P7 249 10.620
12 P7 250 8.179
12 P7 251 5.249
12 P7 252 2.319
12 P7 253 0.854
12 P7 254 0.854
12 P7 255 1.831
# PO2 chan 27
12 PO2 0 10.315
12 PO2 1 11.780
12 PO2 2 13.245
12 PO2 3 13.733
12 PO2 4 12.268
12 PO2 5 9.338
12 PO2 6 6.897
12 PO2 7 6.409
12 PO2 8 7.874
12 PO2 9 10.803
12 PO2 10 12.268
12 PO2 11 12.268
12 PO2 12 10.803
12 PO2 13 8.362
12 PO2 14 6.897
12 PO2 15 6.409
12 PO2 16 6.409
12 PO2 17 6.897
12 PO2 18 8.362
12 PO2 19 10.315
12 PO2 20 12.756
12 PO2 21 14.221
12 PO2 22 14.221
12 PO2 23 13.245
12 PO2 24 12.268
12 PO2 25 11.780
12 PO2 26 11.292
12 PO2 27 10.803
12 PO2 28 9.827
12 PO2 29 7.385
12 PO2 30 4.944
12 PO2 31 3.479
12 PO2 32 3.479
12 PO2 33 4.944
12 PO2 34 5.920
12 PO2 35 5.920
12 PO2 36 5.432
12 PO2 37 3.967
12 PO2 38 2.991
12 PO2 39 1.526
12 PO2 40 1.038
12 PO2 41 1.526
12 PO2 42 2.014
12 PO2 43 3.479
12 PO2 44 4.456
12 PO2 45 5.432
12 PO2 46 6.409
12 PO2 47 7.385
12 PO2 48 8.362
12 PO2 49 10.315
12 PO2 50 11.780
12 PO2 51 12.756
12 PO2 52 13.245
12 PO2 53 13.245
12 PO2 54 14.221
12 PO2 55 15.198
12 PO2 56 18.127
12 PO2 57 22.034
12 PO2 58 24.963
12 PO2 59 26.917
12 PO2 60 26.917
12 PO2 61 25.940
12 PO2 62 24.475
12 PO2 63 22.522
12 PO2 64 20.569
12 PO2 65 19.104
12 PO2 66 18.127
12 PO2 67 17.151
12 PO2 68 16.663
12 PO2 69 16.174
12 PO2 70 15.198
12 PO2 71 13.733
12 PO2 72 12.268
12 PO2 73 11.292
12 PO2 74 11.292
12 PO2 75 12.268
12 PO2 76 13.245
12 PO2 77 14.221
12 PO2 78 14.709
12 PO2 79 15.686
12 PO2 80 17.151
12 PO2 81 18.127
12 PO2 82 18.616
12 PO2 83 18.616
12 PO2 84 18.616
12 PO2 85 18.127
12 PO2 86 18.127
12 PO2 87 18.127
12 PO2 88 18.616
12 PO2 89 18.616
12 PO2 90 19.104
12 PO2 91 19.592
12 PO2 92 20.081
12 PO2 93 21.545
12 PO2 94 22.522
12 PO2 95 23.010
12 PO2 96 22.522
12 PO2 97 21.057
12 PO2 98 19.592
12 PO2 99 18.616
12 PO2 100 17.639
12 PO2 101 18.127
12 PO2 102 18.616
12 PO2 103 19.592
12 PO2 104 20.081
12 PO2 105 20.081
12 PO2 106 18.616
12 PO2 107 16.174
12 PO2 108 14.221
12 PO2 109 12.756
12 PO2 110 12.268
12 PO2 111 13.245
12 PO2 112 13.245
12 PO2 113 13.733
12 PO2 114 13.733
12 PO2 115 14.221
12 PO2 116 14.709
12 PO2 117 15.198
12 PO2 118 14.221
12 PO2 119 12.268
12 PO2 120 10.315
12 PO2 121 9.338
12 PO2 122 10.315
12 PO2 123 13.245
12 PO2 124 15.686
12 PO2 125 18.127
12 PO2 126 19.104
12 PO2 127 19.104
12 PO2 128 18.616
12 PO2 129 18.127
12 PO2 130 17.639
12 PO2 131 16.174
12 PO2 132 14.709
12 PO2 133 13.245
12 PO2 134 12.756
12 PO2 135 12.268
12 PO2 136 12.756
12 PO2 137 13.733
12 PO2 138 14.709
12 PO2 139 15.198
12 PO2 140 15.686
12 PO2 141 14.221
12 PO2 142 12.268
12 PO2 143 10.803
12 PO2 144 9.338
12 PO2 145 8.850
12 PO2 146 9.827
12 PO2 147 10.803
12 PO2 148 12.268
12 PO2 149 12.756
12 PO2 150 13.733
12 PO2 151 13.733
12 PO2 152 13.245
12 PO2 153 12.756
12 PO2 154 12.268
12 PO2 155 11.780
12 PO2 156 12.268
12 PO2 157 13.733
12 PO2 158 15.686
12 PO2 159 18.127
12 PO2 160 20.081
12 PO2 161 20.081
12 PO2 162 19.104
12 PO2 163 17.639
12 PO2 164 16.663
12 PO2 165 16.174
12 PO2 166 16.174
12 PO2 167 17.151
12 PO2 168 18.127
12 PO2 169 18.616
12 PO2 170 17.639
12 PO2 171 16.663
12 PO2 172 15.198
12 PO2 173 13.733
12 PO2 174 13.245
12 PO2 175 13.733
12 PO2 176 14.709
12 PO2 177 15.686
12 PO2 178 16.174
12 PO2 179 16.663
12 PO2 180 16.174
12 PO2 181 14.221
12 PO2 182 12.756
12 PO2 183 12.268
12 PO2 184 13.245
12 PO2 185 14.709
12 PO2 186 15.686
12 PO2 187 15.686
12 PO2 188 13.733
12 PO2 189 12.268
12 PO2 190 12.268
12 PO2 191 14.709
12 PO2 192 19.592
12 PO2 193 23.987
12 PO2 194 26.917
12 PO2 195 26.917
12 PO2 196 25.452
12 PO2 197 23.987
12 PO2 198 23.010
12 PO2 199 23.010
12 PO2 200 23.010
12 PO2 201 23.010
12 PO2 202 22.522
12 PO2 203 23.010
12 PO2 204 23.010
12 PO2 205 22.522
12 PO2 206 21.057
12 PO2 207 19.104
12 PO2 208 16.663
12 PO2 209 15.198
12 PO2 210 14.709
12 PO2 211 14.221
12 PO2 212 14.709
12 PO2 213 14.709
12 PO2 214 14.221
12 PO2 215 13.733
12 PO2 216 13.733
12 PO2 217 13.733
12 PO2 218 13.733
12 PO2 219 14.221
12 PO2 220 13.733
12 PO2 221 13.245
12 PO2 222 11.780
12 PO2 223 10.315
12 PO2 224 9.338
12 PO2 225 8.850
12 PO2 226 8.850
12 PO2 227 8.850
12 PO2 228 8.850
12 PO2 229 9.338
12 PO2 230 10.315
12 PO2 231 12.268
12 PO2 232 14.709
12 PO2 233 17.151
12 PO2 234 18.616
12 PO2 235 19.104
12 PO2 236 18.616
12 PO2 237 16.663
12 PO2 238 13.733
12 PO2 239 10.315
12 PO2 240 6.897
12 PO2 241 3.967
12 PO2 242 2.014
12 PO2 243 1.526
12 PO2 244 2.502
12 PO2 245 3.967
12 PO2 246 5.432
12 PO2 247 5.920
12 PO2 248 6.409
12 PO2 249 5.920
12 PO2 250 6.409
12 PO2 251 7.385
12 PO2 252 8.850
12 PO2 253 8.850
12 PO2 254 7.874
12 PO2 255 4.944
# PO1 chan 28
12 PO1 0 14.750
12 PO1 1 14.750
12 PO1 2 14.262
12 PO1 3 13.285
12 PO1 4 10.844
12 PO1 5 8.403
12 PO1 6 6.449
12 PO1 7 6.938
12 PO1 8 9.379
12 PO1 9 11.820
12 PO1 10 12.797
12 PO1 11 11.820
12 PO1 12 9.379
12 PO1 13 6.938
12 PO1 14 5.961
12 PO1 15 6.449
12 PO1 16 7.914
12 PO1 17 9.867
12 PO1 18 11.820
12 PO1 19 14.262
12 PO1 20 16.215
12 PO1 21 17.192
12 PO1 22 16.215
12 PO1 23 13.774
12 PO1 24 10.356
12 PO1 25 7.914
12 PO1 26 5.961
12 PO1 27 3.520
12 PO1 28 1.078
12 PO1 29 -1.851
12 PO1 30 -4.293
12 PO1 31 -6.246
12 PO1 32 -6.246
12 PO1 33 -5.758
12 PO1 34 -4.781
12 PO1 35 -4.293
12 PO1 36 -4.781
12 PO1 37 -5.758
12 PO1 38 -6.734
12 PO1 39 -7.222
12 PO1 40 -6.734
12 PO1 41 -5.758
12 PO1 42 -4.293
12 PO1 43 -2.340
12 PO1 44 -0.875
12 PO1 45 1.567
12 PO1 46 3.520
12 PO1 47 4.985
12 PO1 48 6.449
12 PO1 49 6.938
12 PO1 50 7.426
12 PO1 51 7.426
12 PO1 52 8.403
12 PO1 53 9.867
12 PO1 54 11.332
12 PO1 55 12.797
12 PO1 56 15.238
12 PO1 57 18.168
12 PO1 58 20.610
12 PO1 59 23.051
12 PO1 60 24.028
12 PO1 61 23.539
