# co2c0000354.rd
# 120 trials, 64 chans, 416 samples 368 post_stim samples
# 3.906000 msecs uV
# S2 nomatch, trial 45
# FP1 chan 0
45 FP1 0 0.539
45 FP1 1 2.981
45 FP1 2 4.445
45 FP1 3 3.957
45 FP1 4 2.004
45 FP1 5 -0.437
45 FP1 6 -1.414
45 FP1 7 -0.437
45 FP1 8 2.004
45 FP1 9 5.422
45 FP1 10 8.352
45 FP1 11 8.352
45 FP1 12 6.887
45 FP1 13 4.445
45 FP1 14 1.516
45 FP1 15 -1.414
45 FP1 16 -3.855
45 FP1 17 -6.297
45 FP1 18 -8.250
45 FP1 19 -9.226
45 FP1 20 -9.226
45 FP1 21 -7.762
45 FP1 22 -6.785
45 FP1 23 -5.809
45 FP1 24 -4.344
45 FP1 25 -1.902
45 FP1 26 2.492
45 FP1 27 6.887
45 FP1 28 10.305
45 FP1 29 11.281
45 FP1 30 10.793
45 FP1 31 9.328
45 FP1 32 8.840
45 FP1 33 9.328
45 FP1 34 10.793
45 FP1 35 11.281
45 FP1 36 11.281
45 FP1 37 10.305
45 FP1 38 9.816
45 FP1 39 9.816
45 FP1 40 9.816
45 FP1 41 10.305
45 FP1 42 10.793
45 FP1 43 10.793
45 FP1 44 11.281
45 FP1 45 11.770
45 FP1 46 11.281
45 FP1 47 10.305
45 FP1 48 8.352
45 FP1 49 6.887
45 FP1 50 6.399
45 FP1 51 7.375
45 FP1 52 8.352
45 FP1 53 9.328
45 FP1 54 9.328
45 FP1 55 8.352
45 FP1 56 7.375
45 FP1 57 7.375
45 FP1 58 7.863
45 FP1 59 8.840
45 FP1 60 10.305
45 FP1 61 10.793
45 FP1 62 11.281
45 FP1 63 11.281
45 FP1 64 10.305
45 FP1 65 9.328
45 FP1 66 9.328
45 FP1 67 11.281
45 FP1 68 14.699
45 FP1 69 19.094
45 FP1 70 23.488
45 FP1 71 26.906
45 FP1 72 28.371
45 FP1 73 29.348
45 FP1 74 29.348
45 FP1 75 28.859
45 FP1 76 28.859
45 FP1 77 27.883
45 FP1 78 25.441
45 FP1 79 22.024
45 FP1 80 18.117
45 FP1 81 15.188
45 FP1 82 14.699
45 FP1 83 15.188
45 FP1 84 16.164
45 FP1 85 17.141
45 FP1 86 17.141
45 FP1 87 16.652
45 FP1 88 15.676
45 FP1 89 14.211
45 FP1 90 12.258
45 FP1 91 11.281
45 FP1 92 10.305
45 FP1 93 10.793
45 FP1 94 11.770
45 FP1 95 12.258
45 FP1 96 12.258
45 FP1 97 11.281
45 FP1 98 9.816
45 FP1 99 7.863
45 FP1 100 6.887
45 FP1 101 6.887
45 FP1 102 7.863
45 FP1 103 9.328
45 FP1 104 11.281
45 FP1 105 12.746
45 FP1 106 12.746
45 FP1 107 12.746
45 FP1 108 12.746
45 FP1 109 12.258
45 FP1 110 12.258
45 FP1 111 12.258
45 FP1 112 12.258
45 FP1 113 12.258
45 FP1 114 11.770
45 FP1 115 11.770
45 FP1 116 12.258
45 FP1 117 12.746
45 FP1 118 12.746
45 FP1 119 12.746
45 FP1 120 12.258
45 FP1 121 10.793
45 FP1 122 9.328
45 FP1 123 8.352
45 FP1 124 6.887
45 FP1 125 5.910
45 FP1 126 4.445
45 FP1 127 2.981
45 FP1 128 1.516
45 FP1 129 0.539
45 FP1 130 0.539
45 FP1 131 1.516
45 FP1 132 3.469
45 FP1 133 5.910
45 FP1 134 8.840
45 FP1 135 11.281
45 FP1 136 13.723
45 FP1 137 16.164
45 FP1 138 18.117
45 FP1 139 19.582
45 FP1 140 19.582
45 FP1 141 18.606
45 FP1 142 18.117
45 FP1 143 18.117
45 FP1 144 20.559
45 FP1 145 23.488
45 FP1 146 26.418
45 FP1 147 27.883
45 FP1 148 28.371
45 FP1 149 27.883
45 FP1 150 27.883
45 FP1 151 28.859
45 FP1 152 28.859
45 FP1 153 28.859
45 FP1 154 27.883
45 FP1 155 26.418
45 FP1 156 25.441
45 FP1 157 25.930
45 FP1 158 27.395
45 FP1 159 29.836
45 FP1 160 31.789
45 FP1 161 32.277
45 FP1 162 31.301
45 FP1 163 29.836
45 FP1 164 27.883
45 FP1 165 27.395
45 FP1 166 27.395
45 FP1 167 27.395
45 FP1 168 26.906
45 FP1 169 25.930
45 FP1 170 23.977
45 FP1 171 22.024
45 FP1 172 20.559
45 FP1 173 19.094
45 FP1 174 17.141
45 FP1 175 15.676
45 FP1 176 14.211
45 FP1 177 13.234
45 FP1 178 12.746
45 FP1 179 12.746
45 FP1 180 13.234
45 FP1 181 14.211
45 FP1 182 15.188
45 FP1 183 16.164
45 FP1 184 17.141
45 FP1 185 17.141
45 FP1 186 16.652
45 FP1 187 16.652
45 FP1 188 17.141
45 FP1 189 18.117
45 FP1 190 18.606
45 FP1 191 18.606
45 FP1 192 18.606
45 FP1 193 18.606
45 FP1 194 18.606
45 FP1 195 18.606
45 FP1 196 19.094
45 FP1 197 19.094
45 FP1 198 19.582
45 FP1 199 21.047
45 FP1 200 23.000
45 FP1 201 24.953
45 FP1 202 25.930
45 FP1 203 25.930
45 FP1 204 24.953
45 FP1 205 23.977
45 FP1 206 23.000
45 FP1 207 22.512
45 FP1 208 22.024
45 FP1 209 22.024
45 FP1 210 23.488
45 FP1 211 25.441
45 FP1 212 27.883
45 FP1 213 28.859
45 FP1 214 26.906
45 FP1 215 23.000
45 FP1 216 17.629
45 FP1 217 13.234
45 FP1 218 10.305
45 FP1 219 9.328
45 FP1 220 10.305
45 FP1 221 11.281
45 FP1 222 12.258
45 FP1 223 13.234
45 FP1 224 12.746
45 FP1 225 12.258
45 FP1 226 12.258
45 FP1 227 13.234
45 FP1 228 14.699
45 FP1 229 16.164
45 FP1 230 17.141
45 FP1 231 17.141
45 FP1 232 16.652
45 FP1 233 17.141
45 FP1 234 18.606
45 FP1 235 19.582
45 FP1 236 19.582
45 FP1 237 18.117
45 FP1 238 15.188
45 FP1 239 13.234
45 FP1 240 12.258
45 FP1 241 13.234
45 FP1 242 14.211
45 FP1 243 16.164
45 FP1 244 18.117
45 FP1 245 20.559
45 FP1 246 22.024
45 FP1 247 22.024
45 FP1 248 21.047
45 FP1 249 17.629
45 FP1 250 14.699
45 FP1 251 12.258
45 FP1 252 10.793
45 FP1 253 10.793
45 FP1 254 10.793
45 FP1 255 10.793
# FP2 chan 1
45 FP2 0 1.139
45 FP2 1 3.581
45 FP2 2 5.046
45 FP2 3 5.046
45 FP2 4 3.581
45 FP2 5 2.116
45 FP2 6 1.139
45 FP2 7 2.116
45 FP2 8 4.069
45 FP2 9 6.999
45 FP2 10 8.952
45 FP2 11 9.928
45 FP2 12 8.952
45 FP2 13 5.534
45 FP2 14 1.628
45 FP2 15 -1.790
45 FP2 16 -4.720
45 FP2 17 -6.185
45 FP2 18 -7.161
45 FP2 19 -7.650
45 FP2 20 -7.650
45 FP2 21 -7.161
45 FP2 22 -6.673
45 FP2 23 -5.697
45 FP2 24 -4.232
45 FP2 25 -1.790
45 FP2 26 2.116
45 FP2 27 6.510
45 FP2 28 9.928
45 FP2 29 11.882
45 FP2 30 12.370
45 FP2 31 12.370
45 FP2 32 12.370
45 FP2 33 12.370
45 FP2 34 12.370
45 FP2 35 11.882
45 FP2 36 10.905
45 FP2 37 10.417
45 FP2 38 9.928
45 FP2 39 9.928
45 FP2 40 10.417
45 FP2 41 9.928
45 FP2 42 8.952
45 FP2 43 7.487
45 FP2 44 6.510
45 FP2 45 6.510
45 FP2 46 6.510
45 FP2 47 6.510
45 FP2 48 6.022
45 FP2 49 5.046
45 FP2 50 4.069
45 FP2 51 3.581
45 FP2 52 3.092
45 FP2 53 2.116
45 FP2 54 1.628
45 FP2 55 0.651
45 FP2 56 0.163
45 FP2 57 1.139
45 FP2 58 2.604
45 FP2 59 4.557
45 FP2 60 6.510
45 FP2 61 7.975
45 FP2 62 8.464
45 FP2 63 7.975
45 FP2 64 7.487
45 FP2 65 6.510
45 FP2 66 6.999
45 FP2 67 8.464
45 FP2 68 11.393
45 FP2 69 14.811
45 FP2 70 19.206
45 FP2 71 22.624
45 FP2 72 25.065
45 FP2 73 26.530
45 FP2 74 27.018
45 FP2 75 27.507
45 FP2 76 27.018
45 FP2 77 25.553
45 FP2 78 23.112
45 FP2 79 19.694
45 FP2 80 16.764
45 FP2 81 14.811
45 FP2 82 14.323
45 FP2 83 14.811
45 FP2 84 15.299
45 FP2 85 15.299
45 FP2 86 15.788
45 FP2 87 16.276
45 FP2 88 17.253
45 FP2 89 17.741
45 FP2 90 17.741
45 FP2 91 16.764
45 FP2 92 15.788
45 FP2 93 14.811
45 FP2 94 14.811
45 FP2 95 14.811
45 FP2 96 14.323
45 FP2 97 13.346
45 FP2 98 11.393
45 FP2 99 9.928
45 FP2 100 8.952
45 FP2 101 8.464
45 FP2 102 8.952
45 FP2 103 8.952
45 FP2 104 8.952
45 FP2 105 8.464
45 FP2 106 7.975
45 FP2 107 7.487
45 FP2 108 8.464
45 FP2 109 9.928
45 FP2 110 11.882
45 FP2 111 13.346
45 FP2 112 13.835
45 FP2 113 13.346
45 FP2 114 12.370
45 FP2 115 10.905
45 FP2 116 10.417
45 FP2 117 9.440
45 FP2 118 8.952
45 FP2 119 8.464
45 FP2 120 7.975
45 FP2 121 6.999
45 FP2 122 6.022
45 FP2 123 5.046
45 FP2 124 3.092
45 FP2 125 1.628
45 FP2 126 -0.326
45 FP2 127 -0.814
45 FP2 128 -0.814
45 FP2 129 -0.326
45 FP2 130 0.651
45 FP2 131 2.116
45 FP2 132 4.069
45 FP2 133 6.510
45 FP2 134 8.952
45 FP2 135 10.905
45 FP2 136 12.858
45 FP2 137 14.323
45 FP2 138 14.811
45 FP2 139 15.299
45 FP2 140 14.811
45 FP2 141 13.346
45 FP2 142 12.858
45 FP2 143 13.346
45 FP2 144 15.788
45 FP2 145 19.206
45 FP2 146 21.647
45 FP2 147 23.112
45 FP2 148 23.600
45 FP2 149 23.600
45 FP2 150 24.577
45 FP2 151 26.042
45 FP2 152 26.530
45 FP2 153 26.042
45 FP2 154 23.112
45 FP2 155 19.694
45 FP2 156 16.764
45 FP2 157 16.276
45 FP2 158 17.253
45 FP2 159 19.694
45 FP2 160 21.647
45 FP2 161 22.624
45 FP2 162 22.135
45 FP2 163 20.671
45 FP2 164 19.206
45 FP2 165 17.741
45 FP2 166 17.741
45 FP2 167 17.741
45 FP2 168 17.741
45 FP2 169 16.764
45 FP2 170 15.299
45 FP2 171 13.346
45 FP2 172 11.882
45 FP2 173 10.905
45 FP2 174 9.928
45 FP2 175 9.928
45 FP2 176 9.928
45 FP2 177 9.928
45 FP2 178 8.952
45 FP2 179 8.952
45 FP2 180 8.952
45 FP2 181 9.928
45 FP2 182 11.393
45 FP2 183 12.858
45 FP2 184 13.346
45 FP2 185 12.858
45 FP2 186 11.882
45 FP2 187 10.905
45 FP2 188 10.905
45 FP2 189 11.882
45 FP2 190 13.346
45 FP2 191 14.811
45 FP2 192 15.299
45 FP2 193 14.811
45 FP2 194 14.323
45 FP2 195 13.835
45 FP2 196 13.346
45 FP2 197 13.346
45 FP2 198 14.811
45 FP2 199 16.764
45 FP2 200 19.694
45 FP2 201 22.135
45 FP2 202 23.600
45 FP2 203 24.089
45 FP2 204 24.089
45 FP2 205 24.089
45 FP2 206 23.600
45 FP2 207 23.112
45 FP2 208 22.135
45 FP2 209 21.159
45 FP2 210 20.182
45 FP2 211 20.671
45 FP2 212 21.159
45 FP2 213 21.159
45 FP2 214 19.694
45 FP2 215 17.741
45 FP2 216 14.811
45 FP2 217 12.858
45 FP2 218 11.882
45 FP2 219 11.882
45 FP2 220 12.858
45 FP2 221 13.346
45 FP2 222 13.835
45 FP2 223 12.858
45 FP2 224 11.882
45 FP2 225 10.905
45 FP2 226 10.905
45 FP2 227 10.905
45 FP2 228 12.370
45 FP2 229 12.858
45 FP2 230 12.858
45 FP2 231 12.858
45 FP2 232 13.346
45 FP2 233 15.299
45 FP2 234 19.206
45 FP2 235 22.624
45 FP2 236 24.089
45 FP2 237 23.112
45 FP2 238 20.671
45 FP2 239 17.741
45 FP2 240 16.276
45 FP2 241 15.299
45 FP2 242 15.788
45 FP2 243 17.253
45 FP2 244 18.717
45 FP2 245 20.182
45 FP2 246 21.647
45 FP2 247 22.135
45 FP2 248 21.647
45 FP2 249 19.206
45 FP2 250 16.276
45 FP2 251 12.858
45 FP2 252 10.417
45 FP2 253 8.952
45 FP2 254 8.464
45 FP2 255 8.464
# F7 chan 2
45 F7 0 1.007
45 F7 1 3.937
45 F7 2 5.890
45 F7 3 5.890
45 F7 4 2.960
45 F7 5 0.031
45 F7 6 -1.923
45 F7 7 -2.899
45 F7 8 -1.434
45 F7 9 1.007
45 F7 10 2.960
45 F7 11 4.913
45 F7 12 5.402
45 F7 13 5.890
45 F7 14 4.425
45 F7 15 2.472
45 F7 16 -1.434
45 F7 17 -5.829
45 F7 18 -9.247
45 F7 19 -11.200
45 F7 20 -10.223
45 F7 21 -7.294
45 F7 22 -3.876
45 F7 23 -0.946
45 F7 24 1.007
45 F7 25 2.960
45 F7 26 5.402
45 F7 27 8.820
45 F7 28 12.238
45 F7 29 13.214
45 F7 30 12.726
45 F7 31 10.773
45 F7 32 9.308
45 F7 33 9.796
45 F7 34 11.261
45 F7 35 11.749
45 F7 36 10.773
45 F7 37 8.820
45 F7 38 7.355
45 F7 39 7.355
45 F7 40 9.308
45 F7 41 12.238
45 F7 42 14.191
45 F7 43 14.679
45 F7 44 13.702
45 F7 45 11.749
45 F7 46 8.820
45 F7 47 6.378
45 F7 48 5.402
45 F7 49 5.402
45 F7 50 6.378
45 F7 51 8.331
45 F7 52 9.308
45 F7 53 9.796
45 F7 54 9.308
45 F7 55 8.331
45 F7 56 7.843
45 F7 57 8.331
45 F7 58 9.796
45 F7 59 12.726
45 F7 60 16.632
45 F7 61 21.515
45 F7 62 25.421
45 F7 63 26.398
45 F7 64 24.445
45 F7 65 20.050
45 F7 66 16.632
45 F7 67 16.144
45 F7 68 19.562
45 F7 69 24.445
45 F7 70 29.816
45 F7 71 33.722
45 F7 72 35.187
45 F7 73 35.187
45 F7 74 33.722
45 F7 75 32.257
45 F7 76 29.816
45 F7 77 26.886
45 F7 78 23.468
45 F7 79 21.027
45 F7 80 18.585
45 F7 81 17.609
45 F7 82 16.632
45 F7 83 16.632
45 F7 84 17.609
45 F7 85 19.073
45 F7 86 20.050
45 F7 87 19.562
45 F7 88 17.120
45 F7 89 13.702
45 F7 90 9.796
45 F7 91 7.355
45 F7 92 5.890
45 F7 93 5.402
45 F7 94 5.890
45 F7 95 5.890
45 F7 96 5.890
45 F7 97 5.890
45 F7 98 5.402
45 F7 99 4.913
45 F7 100 4.425
45 F7 101 5.890
45 F7 102 7.355
45 F7 103 9.308
45 F7 104 11.261
45 F7 105 11.749
45 F7 106 11.261
45 F7 107 10.284
45 F7 108 9.796
45 F7 109 10.773
45 F7 110 12.238
45 F7 111 13.702
45 F7 112 14.191
45 F7 113 13.702
45 F7 114 13.214
45 F7 115 12.726
45 F7 116 13.214
45 F7 117 13.702
45 F7 118 14.191
45 F7 119 13.702
45 F7 120 12.238
45 F7 121 10.284
45 F7 122 7.843
45 F7 123 5.890
45 F7 124 4.913
45 F7 125 4.913
45 F7 126 5.402
45 F7 127 5.402
45 F7 128 4.425
45 F7 129 2.960
45 F7 130 1.495
45 F7 131 1.984
45 F7 132 3.937
45 F7 133 6.866
45 F7 134 8.820
45 F7 135 10.284
45 F7 136 11.749
45 F7 137 13.702
45 F7 138 16.144
45 F7 139 17.609
45 F7 140 17.120
45 F7 141 13.702
45 F7 142 9.796
45 F7 143 7.843
45 F7 144 8.331
45 F7 145 11.749
45 F7 146 14.191
45 F7 147 14.679
45 F7 148 13.702
45 F7 149 12.238
45 F7 150 12.238
45 F7 151 13.214
45 F7 152 15.167
45 F7 153 16.632
45 F7 154 16.632
45 F7 155 17.120
45 F7 156 19.073
45 F7 157 22.003
45 F7 158 24.445
45 F7 159 25.909
45 F7 160 24.933
45 F7 161 22.980
45 F7 162 21.027
45 F7 163 20.050
45 F7 164 20.050
45 F7 165 20.538
45 F7 166 21.515
45 F7 167 21.515
45 F7 168 21.515
45 F7 169 21.027
45 F7 170 19.562
45 F7 171 17.609
45 F7 172 14.679
45 F7 173 12.238
45 F7 174 11.261
45 F7 175 10.773
45 F7 176 11.261
45 F7 177 11.749
45 F7 178 10.773
45 F7 179 10.284
45 F7 180 10.284
45 F7 181 11.261
45 F7 182 12.238
45 F7 183 12.238
45 F7 184 11.749
45 F7 185 10.773
45 F7 186 11.261
45 F7 187 13.702
45 F7 188 17.120
45 F7 189 20.538
45 F7 190 22.003
45 F7 191 20.050
45 F7 192 17.609
45 F7 193 16.144
45 F7 194 16.144
45 F7 195 18.097
45 F7 196 19.562
45 F7 197 20.050
45 F7 198 19.562
45 F7 199 19.562
45 F7 200 21.027
45 F7 201 23.468
45 F7 202 25.909
45 F7 203 27.374
45 F7 204 26.398
45 F7 205 23.956
45 F7 206 21.027
45 F7 207 19.073
45 F7 208 17.609
45 F7 209 18.097
45 F7 210 19.562
45 F7 211 21.515
45 F7 212 22.491
45 F7 213 22.491
45 F7 214 21.027
45 F7 215 18.097
45 F7 216 14.679
45 F7 217 10.773
45 F7 218 7.843
45 F7 219 6.378
45 F7 220 6.378
45 F7 221 7.843
45 F7 222 10.284
45 F7 223 12.238
45 F7 224 13.214
45 F7 225 12.238
45 F7 226 11.749
45 F7 227 12.238
45 F7 228 14.679
45 F7 229 18.097
45 F7 230 21.027
45 F7 231 21.515
45 F7 232 20.538
45 F7 233 19.073
45 F7 234 17.609
45 F7 235 16.632
45 F7 236 15.656
45 F7 237 13.702
45 F7 238 10.773
45 F7 239 8.331
45 F7 240 7.843
45 F7 241 8.331
45 F7 242 10.284
45 F7 243 12.726
45 F7 244 15.167
45 F7 245 16.632
45 F7 246 17.609
45 F7 247 17.120
45 F7 248 14.679
45 F7 249 12.238
45 F7 250 10.284
45 F7 251 9.308
45 F7 252 10.773
45 F7 253 12.238
45 F7 254 13.214
45 F7 255 12.238
# F8 chan 3
45 F8 0 0.844
45 F8 1 3.774
45 F8 2 5.727
45 F8 3 5.239
45 F8 4 3.286
45 F8 5 0.844
45 F8 6 -0.132
45 F8 7 0.844
45 F8 8 2.797
45 F8 9 5.727
45 F8 10 8.657
45 F8 11 9.633
45 F8 12 8.657
45 F8 13 4.751
45 F8 14 0.356
45 F8 15 -4.038
45 F8 16 -6.480
45 F8 17 -7.945
45 F8 18 -7.456
45 F8 19 -5.503
45 F8 20 -3.062
45 F8 21 -1.109
45 F8 22 0.356
45 F8 23 1.333
45 F8 24 2.797
45 F8 25 4.751
45 F8 26 8.169
45 F8 27 11.587
45 F8 28 15.004
45 F8 29 16.958
45 F8 30 17.934
45 F8 31 17.446
45 F8 32 16.958
45 F8 33 15.981
45 F8 34 14.516
45 F8 35 12.075
45 F8 36 9.633
45 F8 37 8.169
45 F8 38 8.169
45 F8 39 9.145
45 F8 40 10.122
45 F8 41 10.610
45 F8 42 9.145
45 F8 43 7.192
45 F8 44 5.239
45 F8 45 4.262
45 F8 46 4.751
45 F8 47 5.727
45 F8 48 5.727
45 F8 49 4.751
45 F8 50 3.286
45 F8 51 1.333
45 F8 52 -0.132
45 F8 53 -0.621
45 F8 54 -0.621
45 F8 55 -1.109
45 F8 56 -0.621
45 F8 57 -0.132
45 F8 58 0.844
45 F8 59 2.309
45 F8 60 3.286
45 F8 61 3.774
45 F8 62 4.262
45 F8 63 5.239
45 F8 64 6.215
45 F8 65 7.680
45 F8 66 8.657
45 F8 67 9.633
45 F8 68 10.122
45 F8 69 10.610
45 F8 70 12.563
45 F8 71 15.493
45 F8 72 18.422
45 F8 73 20.376
45 F8 74 19.887
45 F8 75 18.422
45 F8 76 16.958
45 F8 77 16.469
45 F8 78 15.981
45 F8 79 15.981
45 F8 80 14.516
45 F8 81 13.051
45 F8 82 11.587
45 F8 83 12.075
45 F8 84 13.540
45 F8 85 15.493
45 F8 86 17.446
45 F8 87 18.422
45 F8 88 18.422
45 F8 89 17.934
45 F8 90 16.469
45 F8 91 14.516
45 F8 92 12.563
45 F8 93 11.587
45 F8 94 11.098
45 F8 95 12.075
45 F8 96 11.587
45 F8 97 11.098
45 F8 98 9.145
45 F8 99 7.192
45 F8 100 6.704
45 F8 101 8.169
45 F8 102 10.122
45 F8 103 11.587
45 F8 104 11.098
45 F8 105 9.633
45 F8 106 9.145
45 F8 107 10.122
45 F8 108 13.540
45 F8 109 17.446
45 F8 110 20.864
45 F8 111 21.840
45 F8 112 21.352
45 F8 113 19.399
45 F8 114 17.446
45 F8 115 15.493
45 F8 116 14.028
45 F8 117 13.051
45 F8 118 12.563
45 F8 119 12.075
45 F8 120 11.587
45 F8 121 10.122
45 F8 122 8.169
45 F8 123 5.727
45 F8 124 3.774
45 F8 125 2.797
45 F8 126 2.309
45 F8 127 2.309
45 F8 128 3.286
45 F8 129 4.262
45 F8 130 5.727
45 F8 131 8.169
45 F8 132 10.122
45 F8 133 11.587
45 F8 134 11.587
45 F8 135 11.587
45 F8 136 11.587
45 F8 137 11.098
45 F8 138 11.098
45 F8 139 9.633
45 F8 140 7.192
45 F8 141 3.774
45 F8 142 1.333
45 F8 143 1.821
45 F8 144 3.774
45 F8 145 7.192
45 F8 146 10.610
45 F8 147 12.075
45 F8 148 12.075
45 F8 149 11.587
45 F8 150 11.098
45 F8 151 11.098
45 F8 152 10.122
45 F8 153 8.169
45 F8 154 4.751
45 F8 155 1.821
45 F8 156 0.356
45 F8 157 0.844
45 F8 158 2.797
45 F8 159 5.239
45 F8 160 6.215
45 F8 161 5.727
45 F8 162 4.262
45 F8 163 1.821
45 F8 164 -0.621
45 F8 165 -2.085
45 F8 166 -2.574
45 F8 167 -2.085
45 F8 168 -1.109
45 F8 169 0.356
45 F8 170 2.309
45 F8 171 4.262
45 F8 172 5.239
45 F8 173 5.239
45 F8 174 4.751
45 F8 175 4.262
45 F8 176 4.751
45 F8 177 5.727
45 F8 178 5.727
45 F8 179 5.239
45 F8 180 4.262
45 F8 181 4.262
45 F8 182 5.727
45 F8 183 8.657
45 F8 184 10.610
45 F8 185 11.587
45 F8 186 10.610
45 F8 187 9.145
45 F8 188 8.169
45 F8 189 8.169
45 F8 190 9.145
45 F8 191 9.145
45 F8 192 9.145
45 F8 193 8.169
45 F8 194 6.215
45 F8 195 4.751
45 F8 196 4.262
45 F8 197 5.239
45 F8 198 7.192
45 F8 199 9.633
45 F8 200 12.563
45 F8 201 14.516
45 F8 202 16.469
45 F8 203 17.446
45 F8 204 18.911
45 F8 205 20.376
45 F8 206 20.864
45 F8 207 20.376
45 F8 208 19.399
45 F8 209 17.934
45 F8 210 16.469
45 F8 211 15.981
45 F8 212 16.469
45 F8 213 16.958
45 F8 214 17.446
45 F8 215 16.469
45 F8 216 15.004
45 F8 217 14.028
45 F8 218 13.540
45 F8 219 14.028
45 F8 220 15.493
45 F8 221 16.469
45 F8 222 16.958
45 F8 223 15.981
45 F8 224 14.028
45 F8 225 12.563
45 F8 226 12.075
45 F8 227 12.563
45 F8 228 13.051
45 F8 229 14.028
45 F8 230 14.028
45 F8 231 14.028
45 F8 232 15.004
45 F8 233 17.934
45 F8 234 20.864
45 F8 235 23.305
45 F8 236 23.794
45 F8 237 22.329
45 F8 238 20.376
45 F8 239 18.422
45 F8 240 17.934
45 F8 241 17.446
45 F8 242 18.422
45 F8 243 18.911
45 F8 244 19.399
45 F8 245 19.399
45 F8 246 19.399
45 F8 247 19.887
45 F8 248 19.399
45 F8 249 18.911
45 F8 250 17.446
45 F8 251 15.981
45 F8 252 14.028
45 F8 253 12.563
45 F8 254 11.587
45 F8 255 11.587
# AF1 chan 4
45 AF1 0 0.285
45 AF1 1 2.238
45 AF1 2 3.215
45 AF1 3 3.215
45 AF1 4 2.726
45 AF1 5 1.750
45 AF1 6 1.750
45 AF1 7 1.750
45 AF1 8 3.703
45 AF1 9 6.144
45 AF1 10 8.586
45 AF1 11 9.562
45 AF1 12 8.586
45 AF1 13 6.144
45 AF1 14 2.726
45 AF1 15 0.285
45 AF1 16 -1.668
45 AF1 17 -3.621
45 AF1 18 -4.598
45 AF1 19 -5.086
45 AF1 20 -5.086
45 AF1 21 -4.598
45 AF1 22 -4.110
45 AF1 23 -3.133
45 AF1 24 -1.668
45 AF1 25 0.285
45 AF1 26 3.215
45 AF1 27 6.632
45 AF1 28 8.586
45 AF1 29 9.562
45 AF1 30 9.562
45 AF1 31 8.586
45 AF1 32 8.097
45 AF1 33 8.586
45 AF1 34 10.050
45 AF1 35 11.027
45 AF1 36 11.515
45 AF1 37 11.027
45 AF1 38 10.050
45 AF1 39 9.562
45 AF1 40 10.050
45 AF1 41 10.539
45 AF1 42 11.027
45 AF1 43 12.004
45 AF1 44 12.492
45 AF1 45 13.468
45 AF1 46 13.468
45 AF1 47 12.980
45 AF1 48 11.027
45 AF1 49 9.074
45 AF1 50 7.609
45 AF1 51 8.097
45 AF1 52 8.586
45 AF1 53 9.074
45 AF1 54 9.074
45 AF1 55 7.609
45 AF1 56 6.632
45 AF1 57 6.632
45 AF1 58 7.121
45 AF1 59 7.609
45 AF1 60 7.609
45 AF1 61 8.586
45 AF1 62 9.074
45 AF1 63 9.562
45 AF1 64 9.562
45 AF1 65 8.586
45 AF1 66 8.097
45 AF1 67 8.097
45 AF1 68 10.050
45 AF1 69 13.468
45 AF1 70 17.375
45 AF1 71 20.304
45 AF1 72 21.769
45 AF1 73 21.769
45 AF1 74 21.281
45 AF1 75 20.304
45 AF1 76 19.328
45 AF1 77 18.351
45 AF1 78 16.886
45 AF1 79 14.933
45 AF1 80 12.492
45 AF1 81 11.027
45 AF1 82 10.050
45 AF1 83 10.539
45 AF1 84 11.515
45 AF1 85 12.492
45 AF1 86 12.980
45 AF1 87 12.492
45 AF1 88 12.492
45 AF1 89 11.515
45 AF1 90 10.050
45 AF1 91 9.074
45 AF1 92 8.586
45 AF1 93 8.097
45 AF1 94 8.586
45 AF1 95 9.074
45 AF1 96 9.074
45 AF1 97 8.097
45 AF1 98 7.121
45 AF1 99 5.656
45 AF1 100 5.168
45 AF1 101 5.168
45 AF1 102 6.144
45 AF1 103 8.097
45 AF1 104 9.562
45 AF1 105 10.050
45 AF1 106 9.074
45 AF1 107 8.097
45 AF1 108 7.121
45 AF1 109 6.632
45 AF1 110 6.632
45 AF1 111 7.121
45 AF1 112 7.121
45 AF1 113 7.121
45 AF1 114 7.121
45 AF1 115 7.609
45 AF1 116 8.097
45 AF1 117 8.586
45 AF1 118 8.586
45 AF1 119 9.074
45 AF1 120 8.586
45 AF1 121 7.609
45 AF1 122 6.632
45 AF1 123 4.679
45 AF1 124 3.215
45 AF1 125 1.261
45 AF1 126 -1.180
45 AF1 127 -3.133
45 AF1 128 -4.110
45 AF1 129 -4.110
45 AF1 130 -3.621
45 AF1 131 -2.645
45 AF1 132 -0.692
45 AF1 133 0.773
45 AF1 134 2.726
45 AF1 135 4.191
45 AF1 136 5.656
45 AF1 137 7.121
45 AF1 138 8.097
45 AF1 139 9.074
45 AF1 140 9.074
45 AF1 141 9.562
45 AF1 142 10.050
45 AF1 143 10.539
45 AF1 144 11.515
45 AF1 145 13.468
45 AF1 146 15.910
45 AF1 147 17.375
45 AF1 148 18.351
45 AF1 149 17.863
45 AF1 150 17.863
45 AF1 151 17.863
45 AF1 152 18.840
45 AF1 153 19.328
45 AF1 154 18.351
45 AF1 155 16.886
45 AF1 156 15.910
45 AF1 157 15.422
45 AF1 158 16.886
45 AF1 159 18.840
45 AF1 160 20.793
45 AF1 161 22.257
45 AF1 162 22.746
45 AF1 163 22.257
45 AF1 164 21.769
45 AF1 165 21.769
45 AF1 166 22.257
45 AF1 167 22.257
45 AF1 168 21.281
45 AF1 169 19.328
45 AF1 170 16.886
45 AF1 171 13.957
45 AF1 172 12.004
45 AF1 173 10.050
45 AF1 174 8.586
45 AF1 175 7.121
45 AF1 176 6.632
45 AF1 177 6.632
45 AF1 178 6.632
45 AF1 179 6.632
45 AF1 180 6.632
45 AF1 181 6.632
45 AF1 182 7.609
45 AF1 183 8.586
45 AF1 184 9.562
45 AF1 185 9.562
45 AF1 186 10.050
45 AF1 187 10.539
45 AF1 188 11.515
45 AF1 189 12.004
45 AF1 190 12.004
45 AF1 191 11.515
45 AF1 192 11.515
45 AF1 193 12.492
45 AF1 194 13.957
45 AF1 195 14.933
45 AF1 196 14.933
45 AF1 197 14.933
45 AF1 198 15.422
45 AF1 199 16.398
45 AF1 200 17.375
45 AF1 201 18.840
45 AF1 202 19.328
45 AF1 203 18.351
45 AF1 204 16.886
45 AF1 205 15.422
45 AF1 206 14.445
45 AF1 207 13.468
45 AF1 208 12.980
45 AF1 209 12.980
45 AF1 210 13.957
45 AF1 211 15.910
45 AF1 212 18.351
45 AF1 213 20.304
45 AF1 214 20.304
45 AF1 215 17.375
45 AF1 216 12.980
45 AF1 217 8.097
45 AF1 218 5.656
45 AF1 219 4.679
45 AF1 220 5.168
45 AF1 221 5.656
45 AF1 222 6.632
45 AF1 223 6.632
45 AF1 224 7.609
45 AF1 225 8.586
45 AF1 226 9.562
45 AF1 227 10.539
45 AF1 228 11.515
45 AF1 229 12.004
45 AF1 230 12.004
45 AF1 231 12.004
45 AF1 232 11.515
45 AF1 233 11.027
45 AF1 234 11.515
45 AF1 235 12.004
45 AF1 236 12.004
45 AF1 237 10.050
45 AF1 238 8.097
45 AF1 239 5.656
45 AF1 240 4.679
45 AF1 241 5.656
45 AF1 242 7.609
45 AF1 243 10.050
45 AF1 244 12.492
45 AF1 245 13.957
45 AF1 246 13.957
45 AF1 247 13.957
45 AF1 248 12.980
45 AF1 249 11.515
45 AF1 250 10.050
45 AF1 251 9.562
45 AF1 252 8.586
45 AF1 253 8.586
45 AF1 254 8.586
45 AF1 255 9.074
# AF2 chan 5
45 AF2 0 1.526
45 AF2 1 3.479
45 AF2 2 3.967
45 AF2 3 3.479
45 AF2 4 2.502
45 AF2 5 2.014
45 AF2 6 2.502
45 AF2 7 3.967
45 AF2 8 5.920
45 AF2 9 8.362
45 AF2 10 9.827
45 AF2 11 10.315
45 AF2 12 9.338
45 AF2 13 6.409
45 AF2 14 2.991
45 AF2 15 0.061
45 AF2 16 -2.380
45 AF2 17 -3.845
45 AF2 18 -4.333
45 AF2 19 -3.845
45 AF2 20 -3.357
45 AF2 21 -2.869
45 AF2 22 -1.892
45 AF2 23 -1.892
45 AF2 24 -0.916
45 AF2 25 0.549
45 AF2 26 3.479
45 AF2 27 6.409
45 AF2 28 9.338
45 AF2 29 10.803
45 AF2 30 10.803
45 AF2 31 10.315
45 AF2 32 10.315
45 AF2 33 10.803
45 AF2 34 11.292
45 AF2 35 12.268
45 AF2 36 12.756
45 AF2 37 12.268
45 AF2 38 11.780
45 AF2 39 11.780
45 AF2 40 11.780
45 AF2 41 11.780
45 AF2 42 10.803
45 AF2 43 10.315
45 AF2 44 9.827
45 AF2 45 10.315
45 AF2 46 10.803
45 AF2 47 10.803
45 AF2 48 9.827
45 AF2 49 7.874
45 AF2 50 5.920
45 AF2 51 4.944
45 AF2 52 4.456
45 AF2 53 3.967
45 AF2 54 3.479
45 AF2 55 2.014
45 AF2 56 1.526
45 AF2 57 2.014
45 AF2 58 3.479
45 AF2 59 4.456
45 AF2 60 5.432
45 AF2 61 5.432
45 AF2 62 4.944
45 AF2 63 4.456
45 AF2 64 3.967
45 AF2 65 3.967
45 AF2 66 3.967
45 AF2 67 5.432
45 AF2 68 7.385
45 AF2 69 10.315
45 AF2 70 13.245
45 AF2 71 16.174
45 AF2 72 17.639
45 AF2 73 18.127
45 AF2 74 17.639
45 AF2 75 16.663
45 AF2 76 15.198
45 AF2 77 14.221
45 AF2 78 12.756
45 AF2 79 11.780
45 AF2 80 10.315
45 AF2 81 9.827
45 AF2 82 9.338
45 AF2 83 9.827
45 AF2 84 9.827
45 AF2 85 10.315
45 AF2 86 10.315
45 AF2 87 10.803
45 AF2 88 11.780
45 AF2 89 12.756
45 AF2 90 12.756
45 AF2 91 12.268
45 AF2 92 11.292
45 AF2 93 10.803
45 AF2 94 10.315
45 AF2 95 10.315
45 AF2 96 9.827
45 AF2 97 9.338
45 AF2 98 8.362
45 AF2 99 7.385
45 AF2 100 6.897
45 AF2 101 6.897
45 AF2 102 6.897
45 AF2 103 7.385
45 AF2 104 7.874
45 AF2 105 6.897
45 AF2 106 5.920
45 AF2 107 4.944
45 AF2 108 4.944
45 AF2 109 6.409
45 AF2 110 8.362
45 AF2 111 10.315
45 AF2 112 10.803
45 AF2 113 10.315
45 AF2 114 9.338
45 AF2 115 8.362
45 AF2 116 7.874
45 AF2 117 7.874
45 AF2 118 7.385
45 AF2 119 7.385
45 AF2 120 6.897
45 AF2 121 5.920
45 AF2 122 4.944
45 AF2 123 3.967
45 AF2 124 2.014
45 AF2 125 0.061
45 AF2 126 -2.380
45 AF2 127 -3.845
45 AF2 128 -3.845
45 AF2 129 -2.869
45 AF2 130 -0.916
45 AF2 131 0.549
45 AF2 132 2.014
45 AF2 133 2.991
45 AF2 134 3.967
45 AF2 135 4.944
45 AF2 136 6.409
45 AF2 137 7.385
45 AF2 138 7.874
45 AF2 139 7.874
45 AF2 140 7.385
45 AF2 141 7.385
45 AF2 142 7.385
45 AF2 143 7.874
45 AF2 144 9.338
45 AF2 145 11.292
45 AF2 146 13.733
45 AF2 147 15.198
45 AF2 148 15.686
45 AF2 149 14.709
45 AF2 150 14.709
45 AF2 151 15.198
45 AF2 152 16.174
45 AF2 153 16.174
45 AF2 154 14.709
45 AF2 155 11.292
45 AF2 156 8.850
45 AF2 157 7.385
45 AF2 158 9.338
45 AF2 159 11.780
45 AF2 160 14.709
45 AF2 161 16.663
45 AF2 162 16.663
45 AF2 163 16.174
45 AF2 164 15.198
45 AF2 165 14.709
45 AF2 166 14.221
45 AF2 167 14.221
45 AF2 168 13.733
45 AF2 169 12.268
45 AF2 170 10.803
45 AF2 171 8.850
45 AF2 172 7.385
45 AF2 173 6.409
45 AF2 174 5.920
45 AF2 175 5.432
45 AF2 176 5.432
45 AF2 177 5.920
45 AF2 178 5.920
45 AF2 179 5.432
45 AF2 180 4.944
45 AF2 181 5.432
45 AF2 182 5.920
45 AF2 183 6.897
45 AF2 184 7.385
45 AF2 185 7.385
45 AF2 186 6.897
45 AF2 187 6.409
45 AF2 188 6.897
45 AF2 189 7.874
45 AF2 190 8.850
45 AF2 191 8.850
45 AF2 192 9.338
45 AF2 193 9.827
45 AF2 194 10.315
45 AF2 195 10.803
45 AF2 196 10.803
45 AF2 197 11.292
45 AF2 198 11.780
45 AF2 199 13.245
45 AF2 200 14.709
45 AF2 201 16.174
45 AF2 202 17.639
45 AF2 203 18.127
45 AF2 204 18.616
45 AF2 205 18.127
45 AF2 206 17.639
45 AF2 207 16.663
45 AF2 208 15.686
45 AF2 209 14.709
45 AF2 210 13.733
45 AF2 211 13.245
45 AF2 212 13.733
45 AF2 213 14.221
45 AF2 214 14.709
45 AF2 215 13.245
45 AF2 216 10.803
45 AF2 217 8.850
45 AF2 218 7.385
45 AF2 219 7.385
45 AF2 220 7.874
45 AF2 221 8.362
45 AF2 222 8.362
45 AF2 223 7.385
45 AF2 224 7.385
45 AF2 225 7.385
45 AF2 226 7.874
45 AF2 227 8.362
45 AF2 228 8.362
45 AF2 229 8.362
45 AF2 230 8.362
45 AF2 231 7.874
45 AF2 232 7.874
45 AF2 233 8.850
45 AF2 234 11.292
45 AF2 235 14.221
45 AF2 236 16.663
45 AF2 237 16.663
45 AF2 238 14.709
45 AF2 239 11.780
45 AF2 240 9.338
45 AF2 241 8.850
45 AF2 242 8.850
45 AF2 243 9.827
45 AF2 244 11.292
45 AF2 245 13.245
45 AF2 246 14.221
45 AF2 247 15.198
45 AF2 248 14.709
45 AF2 249 13.733
45 AF2 250 11.780
45 AF2 251 9.338
45 AF2 252 6.897
45 AF2 253 5.432
45 AF2 254 4.944
45 AF2 255 5.920
# FZ chan 6
45 FZ 0 0.722
45 FZ 1 2.187
45 FZ 2 2.187
45 FZ 3 1.699
45 FZ 4 1.699
45 FZ 5 1.699
45 FZ 6 2.187
45 FZ 7 3.164
45 FZ 8 4.140
45 FZ 9 6.582
45 FZ 10 8.046
45 FZ 11 8.046
45 FZ 12 6.582
45 FZ 13 4.140
45 FZ 14 1.211
45 FZ 15 -1.231
45 FZ 16 -2.207
45 FZ 17 -2.696
45 FZ 18 -2.207
45 FZ 19 -2.207
45 FZ 20 -1.719
45 FZ 21 -1.719
45 FZ 22 -1.719
45 FZ 23 -1.719
45 FZ 24 -0.743
45 FZ 25 1.211
45 FZ 26 3.652
45 FZ 27 6.093
45 FZ 28 8.046
45 FZ 29 8.046
45 FZ 30 8.046
45 FZ 31 7.558
45 FZ 32 7.070
45 FZ 33 7.558
45 FZ 34 8.535
45 FZ 35 9.511
45 FZ 36 10.488
45 FZ 37 10.488
45 FZ 38 10.000
45 FZ 39 9.023
45 FZ 40 9.023
45 FZ 41 8.535
45 FZ 42 8.535
45 FZ 43 9.023
45 FZ 44 9.511
45 FZ 45 10.976
45 FZ 46 11.464
45 FZ 47 11.464
45 FZ 48 10.488
45 FZ 49 8.535
45 FZ 50 7.070
45 FZ 51 6.582
45 FZ 52 6.093
45 FZ 53 6.093
45 FZ 54 5.605
45 FZ 55 4.140
45 FZ 56 3.164
45 FZ 57 2.675
45 FZ 58 3.652
45 FZ 59 3.652
45 FZ 60 3.652
45 FZ 61 3.164
45 FZ 62 3.164
45 FZ 63 3.652
45 FZ 64 3.652
45 FZ 65 3.652
45 FZ 66 3.652
45 FZ 67 3.652
45 FZ 68 4.628
45 FZ 69 6.582
45 FZ 70 9.023
45 FZ 71 11.464
45 FZ 72 12.441
45 FZ 73 12.441
45 FZ 74 11.464
45 FZ 75 10.000
45 FZ 76 8.535
45 FZ 77 7.558
45 FZ 78 6.582
45 FZ 79 5.117
45 FZ 80 4.140
45 FZ 81 4.140
45 FZ 82 4.140
45 FZ 83 5.117
45 FZ 84 5.605
45 FZ 85 5.605
45 FZ 86 5.605
45 FZ 87 5.605
45 FZ 88 6.582
45 FZ 89 7.070
45 FZ 90 7.558
45 FZ 91 7.558
45 FZ 92 7.070
45 FZ 93 7.070
45 FZ 94 7.070
45 FZ 95 7.558
45 FZ 96 7.070
45 FZ 97 5.605
45 FZ 98 4.628
45 FZ 99 3.652
45 FZ 100 2.675
45 FZ 101 2.675
45 FZ 102 3.652
45 FZ 103 5.117
45 FZ 104 6.093
45 FZ 105 6.093
45 FZ 106 4.628
45 FZ 107 3.652
45 FZ 108 3.164
45 FZ 109 3.652
45 FZ 110 4.628
45 FZ 111 5.605
45 FZ 112 5.605
45 FZ 113 5.117
45 FZ 114 4.628
45 FZ 115 4.140
45 FZ 116 4.628
45 FZ 117 4.628
45 FZ 118 4.628
45 FZ 119 4.628
45 FZ 120 4.140
45 FZ 121 3.164
45 FZ 122 2.187
45 FZ 123 1.211
45 FZ 124 -0.743
45 FZ 125 -2.696
45 FZ 126 -4.649
45 FZ 127 -6.602
45 FZ 128 -7.090
45 FZ 129 -6.114
45 FZ 130 -4.649
45 FZ 131 -3.184
45 FZ 132 -2.207
45 FZ 133 -1.719
45 FZ 134 -1.231
45 FZ 135 -0.254
45 FZ 136 0.722
45 FZ 137 1.699
45 FZ 138 2.187
45 FZ 139 2.187
45 FZ 140 2.675
45 FZ 141 3.164
45 FZ 142 4.140
45 FZ 143 5.117
45 FZ 144 6.093
45 FZ 145 7.558
45 FZ 146 10.000
45 FZ 147 10.976
45 FZ 148 11.464
45 FZ 149 10.976
45 FZ 150 10.976
45 FZ 151 11.464
45 FZ 152 12.929
45 FZ 153 13.418
45 FZ 154 12.929
45 FZ 155 10.000
45 FZ 156 8.535
45 FZ 157 8.046
45 FZ 158 9.511
45 FZ 159 11.464
45 FZ 160 13.906
45 FZ 161 14.882
45 FZ 162 15.859
45 FZ 163 15.371
45 FZ 164 14.882
45 FZ 165 14.394
45 FZ 166 14.394
45 FZ 167 13.906
45 FZ 168 12.929
45 FZ 169 10.976
45 FZ 170 9.023
45 FZ 171 7.558
45 FZ 172 6.582
45 FZ 173 6.093
45 FZ 174 4.628
45 FZ 175 4.140
45 FZ 176 3.164
45 FZ 177 3.164
45 FZ 178 3.164
45 FZ 179 3.164
45 FZ 180 3.164
45 FZ 181 3.652
45 FZ 182 4.140
45 FZ 183 4.628
45 FZ 184 4.628
45 FZ 185 4.628
45 FZ 186 4.140
45 FZ 187 4.628
45 FZ 188 5.605
45 FZ 189 6.093
45 FZ 190 5.605
45 FZ 191 4.628
45 FZ 192 4.628
45 FZ 193 5.605
45 FZ 194 7.070
45 FZ 195 8.535
45 FZ 196 9.023
45 FZ 197 9.023
45 FZ 198 9.511
45 FZ 199 10.488
45 FZ 200 10.976
45 FZ 201 11.953
45 FZ 202 11.953
45 FZ 203 11.953
45 FZ 204 10.976
45 FZ 205 10.488
45 FZ 206 10.000
45 FZ 207 10.000
45 FZ 208 9.511
45 FZ 209 8.535
45 FZ 210 8.046
45 FZ 211 8.535
45 FZ 212 10.000
45 FZ 213 11.464
45 FZ 214 11.953
45 FZ 215 10.976
45 FZ 216 8.046
45 FZ 217 5.605
45 FZ 218 4.140
45 FZ 219 4.140
45 FZ 220 4.140
45 FZ 221 4.140
45 FZ 222 3.652
45 FZ 223 3.652
45 FZ 224 4.140
45 FZ 225 5.117
45 FZ 226 5.605
45 FZ 227 6.093
45 FZ 228 5.605
45 FZ 229 5.605
45 FZ 230 4.628
45 FZ 231 4.140
45 FZ 232 3.652
45 FZ 233 3.652
45 FZ 234 4.628
45 FZ 235 6.582
45 FZ 236 8.046
45 FZ 237 8.046
45 FZ 238 6.582
45 FZ 239 4.628
45 FZ 240 3.164
45 FZ 241 3.164
45 FZ 242 4.140
45 FZ 243 5.117
45 FZ 244 6.093
45 FZ 245 7.070
45 FZ 246 7.558
45 FZ 247 8.046
45 FZ 248 8.046
45 FZ 249 7.558
45 FZ 250 6.582
45 FZ 251 5.117
45 FZ 252 3.652
45 FZ 253 2.675
45 FZ 254 2.675
45 FZ 255 3.652
# F4 chan 7
45 F4 0 3.174
45 F4 1 4.639
45 F4 2 4.150
45 F4 3 2.686
45 F4 4 1.709
45 F4 5 1.709
45 F4 6 2.686
45 F4 7 4.639
45 F4 8 7.080
45 F4 9 9.033
45 F4 10 10.498
45 F4 11 10.498
45 F4 12 9.033
45 F4 13 6.104
45 F4 14 1.709
45 F4 15 -1.221
45 F4 16 -3.662
45 F4 17 -4.639
45 F4 18 -4.150
45 F4 19 -2.686
45 F4 20 -0.732
45 F4 21 0.732
45 F4 22 1.709
45 F4 23 1.709
45 F4 24 1.709
45 F4 25 2.686
45 F4 26 4.150
45 F4 27 6.104
45 F4 28 8.057
45 F4 29 9.521
45 F4 30 10.498
45 F4 31 10.986
45 F4 32 10.498
45 F4 33 10.498
45 F4 34 10.498
45 F4 35 10.986
45 F4 36 10.498
45 F4 37 10.498
45 F4 38 10.498
45 F4 39 10.986
45 F4 40 11.475
45 F4 41 11.475
45 F4 42 10.986
45 F4 43 10.010
45 F4 44 9.033
45 F4 45 9.033
45 F4 46 9.521
45 F4 47 10.010
45 F4 48 9.521
45 F4 49 7.568
45 F4 50 5.127
45 F4 51 4.150
45 F4 52 2.686
45 F4 53 1.709
45 F4 54 1.221
45 F4 55 -0.244
45 F4 56 -0.732
45 F4 57 0.244
45 F4 58 1.221
45 F4 59 2.197
45 F4 60 2.686
45 F4 61 2.197
45 F4 62 1.221
45 F4 63 0.732
45 F4 64 0.244
45 F4 65 0.732
45 F4 66 1.221
45 F4 67 2.686
45 F4 68 4.150
45 F4 69 6.592
45 F4 70 8.545
45 F4 71 10.010
45 F4 72 11.475
45 F4 73 11.963
45 F4 74 11.475
45 F4 75 10.010
45 F4 76 8.057
45 F4 77 7.080
45 F4 78 6.104
45 F4 79 6.592
45 F4 80 7.080
45 F4 81 7.080
45 F4 82 7.080
45 F4 83 6.592
45 F4 84 6.104
45 F4 85 6.104
45 F4 86 7.080
45 F4 87 8.545
45 F4 88 10.010
45 F4 89 10.986
45 F4 90 10.986
45 F4 91 10.498
45 F4 92 9.033
45 F4 93 8.057
45 F4 94 7.568
45 F4 95 7.080
45 F4 96 6.592
45 F4 97 6.592
45 F4 98 6.592
45 F4 99 6.104
45 F4 100 6.104
45 F4 101 5.615
45 F4 102 5.127
45 F4 103 5.127
45 F4 104 5.127
45 F4 105 4.150
45 F4 106 3.174
45 F4 107 2.686
45 F4 108 3.662
45 F4 109 6.104
45 F4 110 9.033
45 F4 111 10.986
45 F4 112 10.498
45 F4 113 9.521
45 F4 114 7.568
45 F4 115 6.592
45 F4 116 6.592
45 F4 117 7.080
45 F4 118 7.080
45 F4 119 6.592
45 F4 120 6.104
45 F4 121 4.639
45 F4 122 3.662
45 F4 123 2.686
45 F4 124 1.221
45 F4 125 -0.732
45 F4 126 -2.197
45 F4 127 -3.174
45 F4 128 -2.686
45 F4 129 -1.221
45 F4 130 0.732
45 F4 131 2.197
45 F4 132 2.686
45 F4 133 2.686
45 F4 134 2.686
45 F4 135 3.174
45 F4 136 4.150
45 F4 137 4.639
45 F4 138 5.615
45 F4 139 6.104
45 F4 140 6.104
45 F4 141 5.615
45 F4 142 5.127
45 F4 143 5.127
45 F4 144 6.104
45 F4 145 7.568
45 F4 146 9.521
45 F4 147 10.986
45 F4 148 10.498
45 F4 149 9.033
45 F4 150 8.057
45 F4 151 8.057
45 F4 152 9.033
45 F4 153 9.033
45 F4 154 7.080
45 F4 155 4.150
45 F4 156 1.709
45 F4 157 1.221
45 F4 158 3.174
45 F4 159 6.592
45 F4 160 9.521
45 F4 161 10.986
45 F4 162 10.986
45 F4 163 10.010
45 F4 164 8.545
45 F4 165 8.057
45 F4 166 8.057
45 F4 167 7.568
45 F4 168 7.080
45 F4 169 6.104
45 F4 170 4.639
45 F4 171 3.662
45 F4 172 2.686
45 F4 173 2.686
45 F4 174 2.686
45 F4 175 2.686
45 F4 176 3.662
45 F4 177 4.150
45 F4 178 3.662
45 F4 179 3.174
45 F4 180 1.709
45 F4 181 1.221
45 F4 182 1.709
45 F4 183 3.174
45 F4 184 3.662
45 F4 185 3.662
45 F4 186 3.174
45 F4 187 2.686
45 F4 188 2.686
45 F4 189 2.686
45 F4 190 3.662
45 F4 191 3.662
45 F4 192 4.150
45 F4 193 4.639
45 F4 194 5.127
45 F4 195 6.104
45 F4 196 6.592
45 F4 197 7.080
45 F4 198 8.057
45 F4 199 9.521
45 F4 200 10.986
45 F4 201 11.963
45 F4 202 13.428
45 F4 203 14.404
45 F4 204 15.381
45 F4 205 15.869
45 F4 206 15.381
45 F4 207 14.893
45 F4 208 13.428
45 F4 209 11.475
45 F4 210 10.010
45 F4 211 9.033
45 F4 212 8.545
45 F4 213 9.521
45 F4 214 9.521
45 F4 215 9.521
45 F4 216 8.057
45 F4 217 7.080
45 F4 218 6.104
45 F4 219 6.592
45 F4 220 7.080
45 F4 221 7.568
45 F4 222 7.080
45 F4 223 6.104
45 F4 224 5.127
45 F4 225 4.639
45 F4 226 4.639
45 F4 227 4.639
45 F4 228 4.639
45 F4 229 4.150
45 F4 230 3.174
45 F4 231 2.197
45 F4 232 2.197
45 F4 233 3.662
45 F4 234 7.080
45 F4 235 10.986
45 F4 236 13.428
45 F4 237 13.916
45 F4 238 11.963
45 F4 239 9.521
45 F4 240 6.592
45 F4 241 5.127
45 F4 242 4.639
45 F4 243 6.104
45 F4 244 7.568
45 F4 245 9.033
45 F4 246 10.498
45 F4 247 11.475
45 F4 248 10.986
45 F4 249 10.010
45 F4 250 8.057
45 F4 251 5.615
45 F4 252 3.662
45 F4 253 2.197
45 F4 254 1.709
45 F4 255 2.197
# F3 chan 8
45 F3 0 -2.350
45 F3 1 0.092
45 F3 2 2.045
45 F3 3 2.533
45 F3 4 2.045
45 F3 5 1.068
45 F3 6 0.092
45 F3 7 0.580
45 F3 8 2.045
45 F3 9 4.486
45 F3 10 6.439
45 F3 11 7.416
45 F3 12 6.927
45 F3 13 5.463
45 F3 14 3.510
45 F3 15 1.556
45 F3 16 0.092
45 F3 17 -1.373
45 F3 18 -2.838
45 F3 19 -3.815
45 F3 20 -4.303
45 F3 21 -4.303
45 F3 22 -3.326
45 F3 23 -1.862
45 F3 24 0.092
45 F3 25 2.045
45 F3 26 4.486
45 F3 27 6.439
45 F3 28 7.416
45 F3 29 7.904
45 F3 30 6.927
45 F3 31 5.463
45 F3 32 4.974
45 F3 33 5.951
45 F3 34 7.416
45 F3 35 9.369
45 F3 36 9.369
45 F3 37 8.881
45 F3 38 6.927
45 F3 39 5.951
45 F3 40 5.951
45 F3 41 6.927
45 F3 42 8.881
45 F3 43 11.322
45 F3 44 12.787
45 F3 45 13.763
45 F3 46 12.787
45 F3 47 10.834
45 F3 48 8.881
45 F3 49 7.904
45 F3 50 7.416
45 F3 51 8.392
45 F3 52 8.881
45 F3 53 8.881
45 F3 54 8.881
45 F3 55 8.392
45 F3 56 6.927
45 F3 57 6.439
45 F3 58 5.951
45 F3 59 5.951
45 F3 60 7.416
45 F3 61 9.369
45 F3 62 11.322
45 F3 63 11.810
45 F3 64 11.322
45 F3 65 9.857
45 F3 66 8.881
45 F3 67 7.904
45 F3 68 8.392
45 F3 69 10.345
45 F3 70 12.787
45 F3 71 15.228
45 F3 72 16.693
45 F3 73 16.693
45 F3 74 15.717
45 F3 75 14.252
45 F3 76 13.763
45 F3 77 12.787
45 F3 78 12.299
45 F3 79 10.345
45 F3 80 8.392
45 F3 81 6.439
45 F3 82 5.951
45 F3 83 5.951
45 F3 84 7.416
45 F3 85 8.881
45 F3 86 9.369
45 F3 87 9.857
45 F3 88 9.369
45 F3 89 8.392
45 F3 90 6.927
45 F3 91 5.463
45 F3 92 3.998
45 F3 93 3.021
45 F3 94 3.021
45 F3 95 3.998
45 F3 96 4.486
45 F3 97 4.486
45 F3 98 3.998
45 F3 99 3.021
45 F3 100 2.533
45 F3 101 3.510
45 F3 102 5.463
45 F3 103 7.416
45 F3 104 8.392
45 F3 105 7.904
45 F3 106 6.439
45 F3 107 4.974
45 F3 108 3.510
45 F3 109 2.045
45 F3 110 1.556
45 F3 111 1.556
45 F3 112 2.533
45 F3 113 3.510
45 F3 114 4.486
45 F3 115 4.974
45 F3 116 5.463
45 F3 117 5.951
45 F3 118 5.951
45 F3 119 5.463
45 F3 120 5.463
45 F3 121 4.486
45 F3 122 3.510
45 F3 123 1.556
45 F3 124 -0.397
45 F3 125 -2.350
45 F3 126 -3.815
45 F3 127 -4.791
45 F3 128 -5.280
45 F3 129 -4.791
45 F3 130 -4.303
45 F3 131 -3.326
45 F3 132 -2.350
45 F3 133 -1.373
45 F3 134 -0.885
45 F3 135 -0.397
45 F3 136 -0.397
45 F3 137 0.092
45 F3 138 1.068
45 F3 139 3.021
45 F3 140 3.998
45 F3 141 4.486
45 F3 142 4.486
45 F3 143 4.974
45 F3 144 5.951
45 F3 145 7.416
45 F3 146 8.881
45 F3 147 9.369
45 F3 148 8.881
45 F3 149 8.881
45 F3 150 9.857
45 F3 151 11.322
45 F3 152 12.299
45 F3 153 12.787
45 F3 154 12.299
45 F3 155 11.322
45 F3 156 10.834
45 F3 157 11.810
45 F3 158 12.787
45 F3 159 14.252
45 F3 160 15.228
45 F3 161 15.717
45 F3 162 15.717
45 F3 163 16.693
45 F3 164 17.670
45 F3 165 18.158
45 F3 166 18.646
45 F3 167 18.646
45 F3 168 17.670
45 F3 169 15.717
45 F3 170 13.763
45 F3 171 10.345
45 F3 172 6.439
45 F3 173 3.510
45 F3 174 1.068
45 F3 175 0.092
45 F3 176 1.068
45 F3 177 1.556
45 F3 178 1.556
45 F3 179 1.068
45 F3 180 0.580
45 F3 181 0.092
45 F3 182 0.092
45 F3 183 0.580
45 F3 184 1.556
45 F3 185 2.533
45 F3 186 3.998
45 F3 187 4.974
45 F3 188 5.463
45 F3 189 5.951
45 F3 190 5.951
45 F3 191 5.951
45 F3 192 5.951
45 F3 193 6.927
45 F3 194 8.881
45 F3 195 10.345
45 F3 196 11.322
45 F3 197 11.810
45 F3 198 12.299
45 F3 199 12.787
45 F3 200 13.763
45 F3 201 14.252
45 F3 202 13.763
45 F3 203 11.322
45 F3 204 9.369
45 F3 205 6.927
45 F3 206 5.951
45 F3 207 5.463
45 F3 208 4.974
45 F3 209 5.951
45 F3 210 7.904
45 F3 211 10.834
45 F3 212 13.763
45 F3 213 15.717
45 F3 214 14.740
45 F3 215 11.322
45 F3 216 6.927
45 F3 217 2.533
45 F3 218 0.092
45 F3 219 -1.373
45 F3 220 -0.885
45 F3 221 -0.885
45 F3 222 0.092
45 F3 223 1.556
45 F3 224 3.510
45 F3 225 5.463
45 F3 226 7.416
45 F3 227 9.369
45 F3 228 10.345
45 F3 229 10.834
45 F3 230 10.345
45 F3 231 8.881
45 F3 232 7.416
45 F3 233 5.951
45 F3 234 4.974
45 F3 235 3.021
45 F3 236 0.580
45 F3 237 -2.838
45 F3 238 -5.280
45 F3 239 -5.768
45 F3 240 -4.303
45 F3 241 -0.885
45 F3 242 3.021
45 F3 243 6.439
45 F3 244 7.416
45 F3 245 7.416
45 F3 246 5.951
45 F3 247 4.974
45 F3 248 4.486
45 F3 249 4.486
45 F3 250 4.974
45 F3 251 4.974
45 F3 252 5.951
45 F3 253 6.439
45 F3 254 6.927
45 F3 255 7.416
# FC6 chan 9
45 FC6 0 3.530
45 FC6 1 6.460
45 FC6 2 7.436
45 FC6 3 6.948
45 FC6 4 5.483
45 FC6 5 4.506
45 FC6 6 4.018
45 FC6 7 4.995
45 FC6 8 6.460
45 FC6 9 7.436
45 FC6 10 8.413
45 FC6 11 8.901
45 FC6 12 8.413
45 FC6 13 6.460
45 FC6 14 3.042
45 FC6 15 -1.353
45 FC6 16 -4.283
45 FC6 17 -4.283
45 FC6 18 -2.818
45 FC6 19 0.112
45 FC6 20 3.042
45 FC6 21 4.506
45 FC6 22 4.995
45 FC6 23 5.483
45 FC6 24 6.460
45 FC6 25 7.924
45 FC6 26 9.389
45 FC6 27 11.342
45 FC6 28 13.295
45 FC6 29 14.760
45 FC6 30 16.225
45 FC6 31 16.225
45 FC6 32 15.249
45 FC6 33 13.295
45 FC6 34 11.342
45 FC6 35 9.389
45 FC6 36 7.924
45 FC6 37 7.436
45 FC6 38 7.924
45 FC6 39 8.413
45 FC6 40 8.901
45 FC6 41 8.901
45 FC6 42 8.413
45 FC6 43 7.924
45 FC6 44 7.436
45 FC6 45 6.948
45 FC6 46 6.948
45 FC6 47 6.460
45 FC6 48 5.971
45 FC6 49 5.483
45 FC6 50 4.995
45 FC6 51 4.018
45 FC6 52 3.530
45 FC6 53 3.042
45 FC6 54 2.553
45 FC6 55 1.577
45 FC6 56 0.600
45 FC6 57 0.112
45 FC6 58 0.112
45 FC6 59 0.600
45 FC6 60 1.577
45 FC6 61 2.553
45 FC6 62 3.042
45 FC6 63 3.530
45 FC6 64 3.530
45 FC6 65 4.506
45 FC6 66 5.971
45 FC6 67 7.436
45 FC6 68 7.924
45 FC6 69 8.413
45 FC6 70 8.901
45 FC6 71 10.366
45 FC6 72 11.831
45 FC6 73 13.295
45 FC6 74 13.295
45 FC6 75 11.342
45 FC6 76 9.389
45 FC6 77 8.413
45 FC6 78 9.389
45 FC6 79 10.854
45 FC6 80 11.831
45 FC6 81 11.831
45 FC6 82 10.854
45 FC6 83 9.878
45 FC6 84 9.878
45 FC6 85 11.342
45 FC6 86 13.784
45 FC6 87 16.225
45 FC6 88 16.713
45 FC6 89 16.225
45 FC6 90 14.272
45 FC6 91 11.831
45 FC6 92 9.878
45 FC6 93 7.924
45 FC6 94 7.436
45 FC6 95 7.436
45 FC6 96 7.924
45 FC6 97 8.413
45 FC6 98 7.924
45 FC6 99 6.948
45 FC6 100 6.460
45 FC6 101 6.948
45 FC6 102 7.924
45 FC6 103 8.413
45 FC6 104 8.413
45 FC6 105 7.924
45 FC6 106 7.924
45 FC6 107 9.878
45 FC6 108 12.807
45 FC6 109 16.225
45 FC6 110 18.667
45 FC6 111 19.155
45 FC6 112 17.690
45 FC6 113 15.249
45 FC6 114 13.295
45 FC6 115 11.831
45 FC6 116 11.342
45 FC6 117 11.342
45 FC6 118 10.854
45 FC6 119 9.878
45 FC6 120 9.389
45 FC6 121 8.901
45 FC6 122 8.901
45 FC6 123 7.924
45 FC6 124 6.948
45 FC6 125 5.483
45 FC6 126 4.506
45 FC6 127 4.018
45 FC6 128 4.018
45 FC6 129 4.506
45 FC6 130 5.483
45 FC6 131 6.460
45 FC6 132 7.436
45 FC6 133 7.436
45 FC6 134 6.948
45 FC6 135 6.460
45 FC6 136 6.460
45 FC6 137 7.436
45 FC6 138 8.901
45 FC6 139 9.878
45 FC6 140 8.901
45 FC6 141 6.460
45 FC6 142 4.018
45 FC6 143 3.042
45 FC6 144 4.506
45 FC6 145 6.948
45 FC6 146 8.901
45 FC6 147 8.901
45 FC6 148 6.948
45 FC6 149 5.483
45 FC6 150 4.018
45 FC6 151 3.530
45 FC6 152 4.018
45 FC6 153 4.018
45 FC6 154 4.018
45 FC6 155 3.042
45 FC6 156 3.042
45 FC6 157 4.018
45 FC6 158 5.483
45 FC6 159 6.948
45 FC6 160 7.924
45 FC6 161 7.436
45 FC6 162 6.460
45 FC6 163 4.995
45 FC6 164 4.018
45 FC6 165 2.553
45 FC6 166 1.577
45 FC6 167 1.088
45 FC6 168 0.600
45 FC6 169 1.088
45 FC6 170 3.042
45 FC6 171 4.506
45 FC6 172 5.483
45 FC6 173 5.971
45 FC6 174 5.971
45 FC6 175 6.460
45 FC6 176 7.436
45 FC6 177 8.413
45 FC6 178 9.389
45 FC6 179 8.901
45 FC6 180 8.413
45 FC6 181 8.413
45 FC6 182 9.389
45 FC6 183 11.342
45 FC6 184 13.295
45 FC6 185 13.784
45 FC6 186 12.319
45 FC6 187 9.878
45 FC6 188 7.924
45 FC6 189 6.948
45 FC6 190 7.436
45 FC6 191 8.413
45 FC6 192 8.413
45 FC6 193 6.948
45 FC6 194 4.506
45 FC6 195 3.042
45 FC6 196 3.042
45 FC6 197 4.018
45 FC6 198 5.971
45 FC6 199 7.924
45 FC6 200 9.878
45 FC6 201 11.342
45 FC6 202 12.807
45 FC6 203 14.272
45 FC6 204 15.737
45 FC6 205 16.713
45 FC6 206 17.202
45 FC6 207 16.713
45 FC6 208 15.737
45 FC6 209 14.760
45 FC6 210 13.784
45 FC6 211 13.295
45 FC6 212 13.295
45 FC6 213 13.784
45 FC6 214 14.272
45 FC6 215 15.249
45 FC6 216 15.249
45 FC6 217 14.760
45 FC6 218 13.784
45 FC6 219 13.295
45 FC6 220 14.272
45 FC6 221 14.760
45 FC6 222 15.249
45 FC6 223 14.272
45 FC6 224 12.807
45 FC6 225 10.854
45 FC6 226 9.878
45 FC6 227 10.366
45 FC6 228 11.831
45 FC6 229 12.319
45 FC6 230 12.319
45 FC6 231 11.342
45 FC6 232 11.831
45 FC6 233 13.295
45 FC6 234 16.225
45 FC6 235 19.155
45 FC6 236 20.620
45 FC6 237 20.620
45 FC6 238 19.643
45 FC6 239 18.667
45 FC6 240 17.690
45 FC6 241 17.202
45 FC6 242 17.202
45 FC6 243 17.202
45 FC6 244 17.202
45 FC6 245 17.690
45 FC6 246 18.178
45 FC6 247 18.667
45 FC6 248 18.667
45 FC6 249 17.690
45 FC6 250 15.737
45 FC6 251 13.784
45 FC6 252 11.831
45 FC6 253 10.854
45 FC6 254 10.854
45 FC6 255 10.854
# FC5 chan 10
45 FC5 0 -0.336
45 FC5 1 2.106
45 FC5 2 4.059
45 FC5 3 4.059
45 FC5 4 3.082
45 FC5 5 1.129
45 FC5 6 -0.336
45 FC5 7 -1.801
45 FC5 8 -1.801
45 FC5 9 -1.312
45 FC5 10 0.641
45 FC5 11 3.082
45 FC5 12 5.524
45 FC5 13 6.989
45 FC5 14 6.989
45 FC5 15 6.012
45 FC5 16 4.059
45 FC5 17 1.129
45 FC5 18 -1.312
45 FC5 19 -3.265
45 FC5 20 -4.730
45 FC5 21 -4.242
45 FC5 22 -2.777
45 FC5 23 -0.824
45 FC5 24 1.617
45 FC5 25 3.571
45 FC5 26 5.524
45 FC5 27 7.965
45 FC5 28 8.942
45 FC5 29 8.942
45 FC5 30 7.477
45 FC5 31 5.035
45 FC5 32 3.571
45 FC5 33 4.059
45 FC5 34 6.500
45 FC5 35 8.453
45 FC5 36 8.942
45 FC5 37 7.477
45 FC5 38 4.547
45 FC5 39 3.082
45 FC5 40 3.571
45 FC5 41 6.012
45 FC5 42 8.453
45 FC5 43 9.918
45 FC5 44 9.430
45 FC5 45 7.477
45 FC5 46 5.035
45 FC5 47 3.082
45 FC5 48 3.082
45 FC5 49 3.571
45 FC5 50 5.035
45 FC5 51 5.524
45 FC5 52 5.524
45 FC5 53 5.035
45 FC5 54 5.035
45 FC5 55 4.547
45 FC5 56 4.547
45 FC5 57 5.035
45 FC5 58 5.524
45 FC5 59 7.477
45 FC5 60 10.406
45 FC5 61 14.801
45 FC5 62 18.219
45 FC5 63 19.684
45 FC5 64 18.219
45 FC5 65 15.289
45 FC5 66 12.360
45 FC5 67 11.383
45 FC5 68 12.360
45 FC5 69 14.801
45 FC5 70 17.731
45 FC5 71 19.196
45 FC5 72 19.196
45 FC5 73 18.219
45 FC5 74 17.731
45 FC5 75 17.731
45 FC5 76 17.731
45 FC5 77 16.754
45 FC5 78 15.778
45 FC5 79 13.824
45 FC5 80 11.871
45 FC5 81 10.895
45 FC5 82 10.406
45 FC5 83 10.895
45 FC5 84 11.383
45 FC5 85 11.383
45 FC5 86 10.895
45 FC5 87 9.918
45 FC5 88 7.965
45 FC5 89 6.500
45 FC5 90 5.035
45 FC5 91 4.059
45 FC5 92 3.082
45 FC5 93 2.594
45 FC5 94 2.594
45 FC5 95 2.594
45 FC5 96 3.082
45 FC5 97 3.571
45 FC5 98 3.571
45 FC5 99 4.059
45 FC5 100 4.547
45 FC5 101 5.524
45 FC5 102 6.500
45 FC5 103 7.477
45 FC5 104 6.989
45 FC5 105 6.012
45 FC5 106 5.035
45 FC5 107 5.035
45 FC5 108 5.035
45 FC5 109 5.035
45 FC5 110 5.035
45 FC5 111 6.012
45 FC5 112 7.477
45 FC5 113 8.942
45 FC5 114 9.430
45 FC5 115 9.430
45 FC5 116 8.942
45 FC5 117 8.453
45 FC5 118 7.965
45 FC5 119 8.453
45 FC5 120 7.965
45 FC5 121 6.500
45 FC5 122 3.571
45 FC5 123 0.153
45 FC5 124 -1.312
45 FC5 125 -0.824
45 FC5 126 0.641
45 FC5 127 2.106
45 FC5 128 2.106
45 FC5 129 0.641
45 FC5 130 -0.824
45 FC5 131 -0.824
45 FC5 132 0.641
45 FC5 133 2.594
45 FC5 134 4.059
45 FC5 135 4.547
45 FC5 136 4.547
45 FC5 137 4.547
45 FC5 138 5.035
45 FC5 139 5.524
45 FC5 140 6.012
45 FC5 141 5.524
45 FC5 142 4.059
45 FC5 143 4.059
45 FC5 144 4.547
45 FC5 145 6.012
45 FC5 146 6.500
45 FC5 147 6.012
45 FC5 148 4.547
45 FC5 149 3.571
45 FC5 150 3.082
45 FC5 151 4.547
45 FC5 152 5.524
45 FC5 153 7.477
45 FC5 154 7.965
45 FC5 155 8.453
45 FC5 156 8.942
45 FC5 157 9.918
45 FC5 158 11.871
45 FC5 159 12.848
45 FC5 160 13.824
45 FC5 161 13.336
45 FC5 162 12.360
45 FC5 163 11.383
45 FC5 164 10.895
45 FC5 165 11.871
45 FC5 166 13.336
45 FC5 167 14.801
45 FC5 168 15.778
45 FC5 169 15.289
45 FC5 170 13.824
45 FC5 171 10.895
45 FC5 172 7.477
45 FC5 173 3.571
45 FC5 174 0.153
45 FC5 175 -1.801
45 FC5 176 -1.312
45 FC5 177 -0.336
45 FC5 178 1.129
45 FC5 179 2.106
45 FC5 180 2.594
45 FC5 181 2.594
45 FC5 182 2.594
45 FC5 183 2.594
45 FC5 184 3.571
45 FC5 185 5.035
45 FC5 186 6.989
45 FC5 187 7.965
45 FC5 188 8.942
45 FC5 189 8.942
45 FC5 190 9.918
45 FC5 191 10.895
45 FC5 192 11.871
45 FC5 193 12.848
45 FC5 194 12.848
45 FC5 195 12.360
45 FC5 196 11.871
45 FC5 197 11.871
45 FC5 198 12.848
45 FC5 199 14.801
45 FC5 200 16.266
45 FC5 201 16.754
45 FC5 202 16.266
45 FC5 203 15.289
45 FC5 204 13.824
45 FC5 205 12.848
45 FC5 206 11.383
45 FC5 207 10.406
45 FC5 208 9.918
45 FC5 209 9.918
45 FC5 210 11.383
45 FC5 211 12.848
45 FC5 212 13.824
45 FC5 213 13.824
45 FC5 214 11.871
45 FC5 215 9.430
45 FC5 216 7.477
45 FC5 217 5.524
45 FC5 218 5.035
45 FC5 219 4.059
45 FC5 220 3.082
45 FC5 221 2.594
45 FC5 222 2.594
45 FC5 223 3.082
45 FC5 224 4.547
45 FC5 225 6.500
45 FC5 226 8.453
45 FC5 227 10.895
45 FC5 228 13.336
45 FC5 229 14.801
45 FC5 230 15.778
45 FC5 231 15.778
45 FC5 232 14.801
45 FC5 233 13.824
45 FC5 234 12.360
45 FC5 235 9.918
45 FC5 236 6.989
45 FC5 237 2.594
45 FC5 238 -0.336
45 FC5 239 -1.312
45 FC5 240 1.129
45 FC5 241 5.035
45 FC5 242 9.430
45 FC5 243 11.383
45 FC5 244 10.895
45 FC5 245 8.453
45 FC5 246 6.500
45 FC5 247 5.524
45 FC5 248 6.012
45 FC5 249 6.012
45 FC5 250 5.524
45 FC5 251 4.059
45 FC5 252 4.059
45 FC5 253 4.547
45 FC5 254 6.012
45 FC5 255 6.989
# FC2 chan 11
45 FC2 0 0.834
45 FC2 1 1.322
45 FC2 2 0.834
45 FC2 3 0.346
45 FC2 4 0.346
45 FC2 5 0.834
45 FC2 6 1.322
45 FC2 7 2.299
45 FC2 8 3.764
45 FC2 9 4.740
45 FC2 10 5.717
45 FC2 11 5.717
45 FC2 12 4.740
45 FC2 13 2.299
45 FC2 14 -0.631
45 FC2 15 -2.584
45 FC2 16 -3.072
45 FC2 17 -2.584
45 FC2 18 -1.119
45 FC2 19 0.346
45 FC2 20 0.834
45 FC2 21 0.834
45 FC2 22 0.834
45 FC2 23 1.322
45 FC2 24 1.811
45 FC2 25 2.299
45 FC2 26 2.787
45 FC2 27 3.276
45 FC2 28 4.252
45 FC2 29 5.229
45 FC2 30 5.717
45 FC2 31 5.717
45 FC2 32 5.717
45 FC2 33 5.229
45 FC2 34 4.740
45 FC2 35 4.740
45 FC2 36 5.717
45 FC2 37 6.205
45 FC2 38 6.694
45 FC2 39 6.694
45 FC2 40 6.205
45 FC2 41 5.717
45 FC2 42 5.229
45 FC2 43 4.740
45 FC2 44 5.229
45 FC2 45 5.717
45 FC2 46 6.205
45 FC2 47 6.205
45 FC2 48 6.205
45 FC2 49 5.717
45 FC2 50 5.229
45 FC2 51 3.764
45 FC2 52 2.787
45 FC2 53 1.811
45 FC2 54 1.322
45 FC2 55 0.834
45 FC2 56 0.346
45 FC2 57 -0.142
45 FC2 58 -0.631
45 FC2 59 -0.631
45 FC2 60 -0.631
45 FC2 61 -0.142
45 FC2 62 -0.142
45 FC2 63 -0.631
45 FC2 64 -1.607
45 FC2 65 -1.607
45 FC2 66 -1.119
45 FC2 67 0.346
45 FC2 68 1.322
45 FC2 69 1.811
45 FC2 70 2.787
45 FC2 71 3.276
45 FC2 72 4.252
45 FC2 73 4.740
45 FC2 74 4.252
45 FC2 75 2.299
45 FC2 76 1.322
45 FC2 77 -0.142
45 FC2 78 -0.142
45 FC2 79 0.346
45 FC2 80 0.834
45 FC2 81 0.834
45 FC2 82 0.834
45 FC2 83 0.834
45 FC2 84 0.834
45 FC2 85 1.322
45 FC2 86 2.299
45 FC2 87 3.276
45 FC2 88 3.764
45 FC2 89 4.252
45 FC2 90 4.252
45 FC2 91 4.252
45 FC2 92 3.764
45 FC2 93 3.276
45 FC2 94 2.787
45 FC2 95 2.299
45 FC2 96 1.811
45 FC2 97 1.322
45 FC2 98 0.834
45 FC2 99 -0.142
45 FC2 100 -0.631
45 FC2 101 -0.631
45 FC2 102 -0.631
45 FC2 103 -0.142
45 FC2 104 0.346
45 FC2 105 0.346
45 FC2 106 0.834
45 FC2 107 1.811
45 FC2 108 2.787
45 FC2 109 4.252
45 FC2 110 4.740
45 FC2 111 5.229
45 FC2 112 4.740
45 FC2 113 4.252
45 FC2 114 3.276
45 FC2 115 2.787
45 FC2 116 2.787
45 FC2 117 2.787
45 FC2 118 2.787
45 FC2 119 2.787
45 FC2 120 1.811
45 FC2 121 1.322
45 FC2 122 0.834
45 FC2 123 0.346
45 FC2 124 -0.631
45 FC2 125 -1.607
45 FC2 126 -2.584
45 FC2 127 -3.560
45 FC2 128 -3.560
45 FC2 129 -3.072
45 FC2 130 -2.584
45 FC2 131 -1.607
45 FC2 132 -0.631
45 FC2 133 -0.142
45 FC2 134 -0.142
45 FC2 135 -0.142
45 FC2 136 -0.142
45 FC2 137 0.346
45 FC2 138 0.346
45 FC2 139 0.834
45 FC2 140 0.834
45 FC2 141 0.834
45 FC2 142 0.346
45 FC2 143 1.322
45 FC2 144 2.787
45 FC2 145 4.252
45 FC2 146 4.252
45 FC2 147 3.764
45 FC2 148 2.299
45 FC2 149 1.811
45 FC2 150 1.811
45 FC2 151 3.276
45 FC2 152 4.740
45 FC2 153 5.717
45 FC2 154 4.740
45 FC2 155 2.787
45 FC2 156 1.322
45 FC2 157 0.834
45 FC2 158 1.811
45 FC2 159 3.764
45 FC2 160 5.717
45 FC2 161 7.182
45 FC2 162 7.182
45 FC2 163 6.694
45 FC2 164 6.205
45 FC2 165 5.229
45 FC2 166 4.740
45 FC2 167 3.764
45 FC2 168 2.787
45 FC2 169 2.299
45 FC2 170 1.811
45 FC2 171 1.811
45 FC2 172 2.299
45 FC2 173 2.787
45 FC2 174 2.787
45 FC2 175 3.276
45 FC2 176 3.276
45 FC2 177 2.787
45 FC2 178 2.299
45 FC2 179 1.811
45 FC2 180 1.322
45 FC2 181 1.322
45 FC2 182 1.322
45 FC2 183 1.322
45 FC2 184 1.811
45 FC2 185 2.299
45 FC2 186 2.787
45 FC2 187 2.299
45 FC2 188 1.322
45 FC2 189 0.346
45 FC2 190 -0.142
45 FC2 191 -0.142
45 FC2 192 0.346
45 FC2 193 0.834
45 FC2 194 1.322
45 FC2 195 1.811
45 FC2 196 1.811
45 FC2 197 2.299
45 FC2 198 2.787
45 FC2 199 3.764
45 FC2 200 4.252
45 FC2 201 5.229
45 FC2 202 5.717
45 FC2 203 5.717
45 FC2 204 6.205
45 FC2 205 6.205
45 FC2 206 6.205
45 FC2 207 6.205
45 FC2 208 5.717
45 FC2 209 4.740
45 FC2 210 3.764
45 FC2 211 3.276
45 FC2 212 3.764
45 FC2 213 4.252
45 FC2 214 4.740
45 FC2 215 4.740
45 FC2 216 4.252
45 FC2 217 4.252
45 FC2 218 3.764
45 FC2 219 3.764
45 FC2 220 3.764
45 FC2 221 3.764
45 FC2 222 3.764
45 FC2 223 2.787
45 FC2 224 2.299
45 FC2 225 1.322
45 FC2 226 1.322
45 FC2 227 1.322
45 FC2 228 0.834
45 FC2 229 0.346
45 FC2 230 -0.631
45 FC2 231 -1.119
45 FC2 232 -1.607
45 FC2 233 -0.631
45 FC2 234 1.811
45 FC2 235 3.764
45 FC2 236 5.717
45 FC2 237 6.205
45 FC2 238 5.717
45 FC2 239 4.740
45 FC2 240 2.787
45 FC2 241 2.299
45 FC2 242 1.322
45 FC2 243 1.322
45 FC2 244 1.811
45 FC2 245 2.299
45 FC2 246 3.276
45 FC2 247 4.252
45 FC2 248 4.252
45 FC2 249 3.764
45 FC2 250 2.299
45 FC2 251 0.834
45 FC2 252 -0.142
45 FC2 253 -0.142
45 FC2 254 0.346
45 FC2 255 0.834
# FC1 chan 12
45 FC1 0 -1.516
45 FC1 1 -0.539
45 FC1 2 0.437
45 FC1 3 0.926
45 FC1 4 0.926
45 FC1 5 0.926
45 FC1 6 0.437
45 FC1 7 0.437
45 FC1 8 0.926
45 FC1 9 1.902
45 FC1 10 2.391
45 FC1 11 2.391
45 FC1 12 1.414
45 FC1 13 0.437
45 FC1 14 -0.539
45 FC1 15 -1.027
45 FC1 16 -0.539
45 FC1 17 -0.051
45 FC1 18 -0.539
45 FC1 19 -1.027
45 FC1 20 -2.004
45 FC1 21 -2.492
45 FC1 22 -2.492
45 FC1 23 -1.516
45 FC1 24 0.437
45 FC1 25 1.902
45 FC1 26 3.367
45 FC1 27 3.855
45 FC1 28 3.855
45 FC1 29 3.367
45 FC1 30 2.391
45 FC1 31 1.414
45 FC1 32 0.926
45 FC1 33 0.926
45 FC1 34 1.414
45 FC1 35 2.879
45 FC1 36 3.855
45 FC1 37 3.855
45 FC1 38 2.879
45 FC1 39 2.391
45 FC1 40 1.902
45 FC1 41 1.902
45 FC1 42 2.879
45 FC1 43 4.344
45 FC1 44 5.809
45 FC1 45 6.785
45 FC1 46 6.785
45 FC1 47 6.785
45 FC1 48 6.297
45 FC1 49 5.809
45 FC1 50 5.320
45 FC1 51 4.344
45 FC1 52 3.855
45 FC1 53 3.367
45 FC1 54 2.391
45 FC1 55 2.391
45 FC1 56 2.391
45 FC1 57 2.391
45 FC1 58 2.879
45 FC1 59 3.367
45 FC1 60 3.367
45 FC1 61 3.367
45 FC1 62 3.855
45 FC1 63 4.344
45 FC1 64 4.832
45 FC1 65 4.344
45 FC1 66 3.367
45 FC1 67 2.391
45 FC1 68 1.902
45 FC1 69 1.902
45 FC1 70 2.879
45 FC1 71 4.344
45 FC1 72 5.320
45 FC1 73 5.320
45 FC1 74 4.344
45 FC1 75 3.367
45 FC1 76 2.391
45 FC1 77 1.902
45 FC1 78 0.926
45 FC1 79 -0.051
45 FC1 80 -1.027
45 FC1 81 -1.027
45 FC1 82 -0.539
45 FC1 83 0.437
45 FC1 84 0.926
45 FC1 85 1.414
45 FC1 86 0.926
45 FC1 87 0.437
45 FC1 88 -0.051
45 FC1 89 -0.539
45 FC1 90 -0.539
45 FC1 91 -0.539
45 FC1 92 -0.539
45 FC1 93 -0.539
45 FC1 94 -0.051
45 FC1 95 0.437
45 FC1 96 -0.051
45 FC1 97 -0.539
45 FC1 98 -1.027
45 FC1 99 -1.516
45 FC1 100 -1.027
45 FC1 101 -0.051
45 FC1 102 1.414
45 FC1 103 2.391
45 FC1 104 2.879
45 FC1 105 1.902
45 FC1 106 0.926
45 FC1 107 -0.051
45 FC1 108 -1.027
45 FC1 109 -1.516
45 FC1 110 -1.516
45 FC1 111 -1.516
45 FC1 112 -1.027
45 FC1 113 -1.027
45 FC1 114 -0.539
45 FC1 115 -0.051
45 FC1 116 -0.051
45 FC1 117 -0.051
45 FC1 118 -0.051
45 FC1 119 -0.539
45 FC1 120 -0.539
45 FC1 121 -1.027
45 FC1 122 -1.516
45 FC1 123 -2.492
45 FC1 124 -3.469
45 FC1 125 -3.957
45 FC1 126 -4.934
45 FC1 127 -4.934
45 FC1 128 -4.934
45 FC1 129 -4.934
45 FC1 130 -4.445
45 FC1 131 -3.957
45 FC1 132 -3.469
45 FC1 133 -2.981
45 FC1 134 -2.492
45 FC1 135 -2.492
45 FC1 136 -2.981
45 FC1 137 -2.981
45 FC1 138 -2.492
45 FC1 139 -1.516
45 FC1 140 -1.027
45 FC1 141 -0.051
45 FC1 142 -0.051
45 FC1 143 0.437
45 FC1 144 0.926
45 FC1 145 1.902
45 FC1 146 2.391
45 FC1 147 2.391
45 FC1 148 2.879
45 FC1 149 2.879
45 FC1 150 3.367
45 FC1 151 3.855
45 FC1 152 4.344
45 FC1 153 4.344
45 FC1 154 3.855
45 FC1 155 3.367
45 FC1 156 3.367
45 FC1 157 3.855
45 FC1 158 5.320
45 FC1 159 6.297
45 FC1 160 7.273
45 FC1 161 7.762
45 FC1 162 8.250
45 FC1 163 8.738
45 FC1 164 8.738
45 FC1 165 8.738
45 FC1 166 8.738
45 FC1 167 8.738
45 FC1 168 8.250
45 FC1 169 7.273
45 FC1 170 6.297
45 FC1 171 4.832
45 FC1 172 2.879
45 FC1 173 0.926
45 FC1 174 -0.539
45 FC1 175 -2.004
45 FC1 176 -2.004
45 FC1 177 -2.004
45 FC1 178 -2.004
45 FC1 179 -2.004
45 FC1 180 -2.004
45 FC1 181 -2.492
45 FC1 182 -2.981
45 FC1 183 -2.981
45 FC1 184 -2.981
45 FC1 185 -2.981
45 FC1 186 -2.004
45 FC1 187 -1.516
45 FC1 188 -0.539
45 FC1 189 -0.539
45 FC1 190 -0.539
45 FC1 191 -1.027
45 FC1 192 -1.027
45 FC1 193 -0.051
45 FC1 194 1.414
45 FC1 195 2.879
45 FC1 196 3.367
45 FC1 197 3.367
45 FC1 198 3.855
45 FC1 199 4.344
45 FC1 200 5.320
45 FC1 201 5.320
45 FC1 202 4.344
45 FC1 203 2.879
45 FC1 204 1.902
45 FC1 205 1.414
45 FC1 206 1.414
45 FC1 207 1.414
45 FC1 208 1.414
45 FC1 209 0.926
45 FC1 210 1.414
45 FC1 211 2.879
45 FC1 212 4.344
45 FC1 213 5.320
45 FC1 214 4.832
45 FC1 215 3.367
45 FC1 216 1.414
45 FC1 217 -0.539
45 FC1 218 -1.027
45 FC1 219 -1.516
45 FC1 220 -1.516
45 FC1 221 -2.004
45 FC1 222 -2.004
45 FC1 223 -1.027
45 FC1 224 0.437
45 FC1 225 1.902
45 FC1 226 3.855
45 FC1 227 4.344
45 FC1 228 4.344
45 FC1 229 3.367
45 FC1 230 2.391
45 FC1 231 1.902
45 FC1 232 0.926
45 FC1 233 0.437
45 FC1 234 -0.051
45 FC1 235 -1.027
45 FC1 236 -2.004
45 FC1 237 -2.981
45 FC1 238 -4.445
45 FC1 239 -4.445
45 FC1 240 -3.469
45 FC1 241 -1.516
45 FC1 242 0.926
45 FC1 243 2.391
45 FC1 244 2.391
45 FC1 245 1.414
45 FC1 246 -0.051
45 FC1 247 -0.539
45 FC1 248 -0.051
45 FC1 249 0.926
45 FC1 250 0.926
45 FC1 251 0.926
45 FC1 252 -0.051
45 FC1 253 -0.539
45 FC1 254 -0.539
45 FC1 255 0.437
# T8 chan 13
45 T8 0 6.531
45 T8 1 9.949
45 T8 2 13.367
45 T8 3 15.808
45 T8 4 15.320
45 T8 5 12.878
45 T8 6 9.949
45 T8 7 7.996
45 T8 8 7.996
45 T8 9 9.949
45 T8 10 11.902
45 T8 11 12.390
45 T8 12 9.949
45 T8 13 6.042
45 T8 14 1.648
45 T8 15 -2.258
45 T8 16 -4.211
45 T8 17 -4.700
45 T8 18 -4.700
45 T8 19 -4.700
45 T8 20 -4.211
45 T8 21 -2.258
45 T8 22 0.671
45 T8 23 4.089
45 T8 24 6.531
45 T8 25 8.972
45 T8 26 12.390
45 T8 27 15.808
45 T8 28 19.714
45 T8 29 22.156
45 T8 30 22.156
45 T8 31 18.738
45 T8 32 14.832
45 T8 33 10.925
45 T8 34 8.484
45 T8 35 7.507
45 T8 36 7.019
45 T8 37 6.531
45 T8 38 6.531
45 T8 39 7.019
45 T8 40 7.507
45 T8 41 7.019
45 T8 42 6.042
45 T8 43 5.554
45 T8 44 5.554
45 T8 45 7.019
45 T8 46 8.972
45 T8 47 9.949
45 T8 48 9.949
45 T8 49 8.972
45 T8 50 7.996
45 T8 51 7.019
45 T8 52 6.042
45 T8 53 5.066
45 T8 54 3.601
45 T8 55 1.648
45 T8 56 -0.305
45 T8 57 -1.770
45 T8 58 -2.747
45 T8 59 -2.258
45 T8 60 -0.305
45 T8 61 1.648
45 T8 62 5.066
45 T8 63 8.484
45 T8 64 10.925
45 T8 65 12.390
45 T8 66 12.878
45 T8 67 12.390
45 T8 68 11.414
45 T8 69 11.414
45 T8 70 12.390
45 T8 71 13.855
45 T8 72 14.832
45 T8 73 14.832
45 T8 74 13.367
45 T8 75 11.414
45 T8 76 10.437
45 T8 77 10.925
45 T8 78 11.902
45 T8 79 12.878
45 T8 80 13.367
45 T8 81 12.878
45 T8 82 12.878
45 T8 83 13.855
45 T8 84 15.808
45 T8 85 17.761
45 T8 86 19.226
45 T8 87 19.226
45 T8 88 18.738
45 T8 89 17.761
45 T8 90 16.785
45 T8 91 15.320
45 T8 92 12.878
45 T8 93 10.925
45 T8 94 9.460
45 T8 95 9.460
45 T8 96 10.437
45 T8 97 11.902
45 T8 98 11.902
45 T8 99 10.925
45 T8 100 9.460
45 T8 101 9.460
45 T8 102 10.925
45 T8 103 12.390
45 T8 104 13.855
45 T8 105 14.343
45 T8 106 13.855
45 T8 107 14.343
45 T8 108 16.296
45 T8 109 19.226
45 T8 110 21.179
45 T8 111 21.667
45 T8 112 20.203
45 T8 113 17.273
45 T8 114 14.832
45 T8 115 13.855
45 T8 116 13.855
45 T8 117 13.855
45 T8 118 13.855
45 T8 119 12.390
45 T8 120 10.437
45 T8 121 8.972
45 T8 122 7.507
45 T8 123 7.019
45 T8 124 6.531
45 T8 125 6.531
45 T8 126 7.019
45 T8 127 7.507
45 T8 128 8.484
45 T8 129 8.972
45 T8 130 8.484
45 T8 131 7.507
45 T8 132 6.531
45 T8 133 6.042
45 T8 134 6.042
45 T8 135 7.507
45 T8 136 8.484
45 T8 137 9.460
45 T8 138 10.925
45 T8 139 11.414
45 T8 140 9.949
45 T8 141 7.996
45 T8 142 5.066
45 T8 143 2.625
45 T8 144 1.648
45 T8 145 2.136
45 T8 146 3.113
45 T8 147 3.113
45 T8 148 2.136
45 T8 149 1.160
45 T8 150 -0.305
45 T8 151 -0.793
45 T8 152 -0.305
45 T8 153 0.183
45 T8 154 0.671
45 T8 155 1.648
45 T8 156 2.136
45 T8 157 4.089
45 T8 158 6.042
45 T8 159 7.996
45 T8 160 8.972
45 T8 161 8.484
45 T8 162 6.531
45 T8 163 3.113
45 T8 164 -0.793
45 T8 165 -3.235
45 T8 166 -4.211
45 T8 167 -3.235
45 T8 168 -0.793
45 T8 169 1.648
45 T8 170 3.601
45 T8 171 4.578
45 T8 172 5.066
45 T8 173 5.554
45 T8 174 5.554
45 T8 175 6.042
45 T8 176 6.531
45 T8 177 7.507
45 T8 178 8.484
45 T8 179 9.460
45 T8 180 10.437
45 T8 181 11.902
45 T8 182 13.367
45 T8 183 14.832
45 T8 184 15.320
45 T8 185 14.832
45 T8 186 12.878
45 T8 187 11.414
45 T8 188 10.925
45 T8 189 11.414
45 T8 190 12.390
45 T8 191 11.902
45 T8 192 8.972
45 T8 193 5.066
45 T8 194 1.648
45 T8 195 -0.305
45 T8 196 -0.793
45 T8 197 0.671
45 T8 198 2.136
45 T8 199 4.089
45 T8 200 5.554
45 T8 201 7.507
45 T8 202 8.972
45 T8 203 10.925
45 T8 204 12.390
45 T8 205 13.855
45 T8 206 15.320
45 T8 207 16.785
45 T8 208 17.273
45 T8 209 17.761
45 T8 210 18.250
45 T8 211 18.738
45 T8 212 18.738
45 T8 213 19.226
45 T8 214 18.738
45 T8 215 17.761
45 T8 216 16.785
45 T8 217 16.785
45 T8 218 17.761
45 T8 219 19.226
45 T8 220 20.691
45 T8 221 20.203
45 T8 222 18.738
45 T8 223 16.296
45 T8 224 13.367
45 T8 225 11.414
45 T8 226 10.437
45 T8 227 10.437
45 T8 228 10.437
45 T8 229 11.414
45 T8 230 12.878
45 T8 231 14.343
45 T8 232 16.785
45 T8 233 18.250
45 T8 234 18.738
45 T8 235 18.738
45 T8 236 18.738
45 T8 237 18.738
45 T8 238 19.714
45 T8 239 20.203
45 T8 240 20.691
45 T8 241 20.203
45 T8 242 19.226
45 T8 243 18.738
45 T8 244 19.714
45 T8 245 20.691
45 T8 246 22.156
45 T8 247 22.644
45 T8 248 22.156
45 T8 249 20.203
45 T8 250 17.761
45 T8 251 15.808
45 T8 252 13.855
45 T8 253 12.878
45 T8 254 12.390
45 T8 255 12.390
# T7 chan 14
45 T7 0 1.475
45 T7 1 3.916
45 T7 2 5.381
45 T7 3 5.870
45 T7 4 4.405
45 T7 5 1.963
45 T7 6 0.010
45 T7 7 -0.478
45 T7 8 0.010
45 T7 9 0.987
45 T7 10 1.963
45 T7 11 2.940
45 T7 12 3.916
45 T7 13 5.381
45 T7 14 6.358
45 T7 15 6.358
45 T7 16 3.916
45 T7 17 0.010
45 T7 18 -3.896
45 T7 19 -6.337
45 T7 20 -6.826
45 T7 21 -4.873
45 T7 22 -1.943
45 T7 23 0.498
45 T7 24 1.963
45 T7 25 3.916
45 T7 26 6.846
45 T7 27 9.776
45 T7 28 12.217
45 T7 29 12.217
45 T7 30 9.776
45 T7 31 6.846
45 T7 32 4.405
45 T7 33 4.893
45 T7 34 6.358
45 T7 35 7.334
45 T7 36 6.846
45 T7 37 5.381
45 T7 38 3.428
45 T7 39 2.452
45 T7 40 3.428
45 T7 41 4.405
45 T7 42 4.405
45 T7 43 3.916
45 T7 44 3.428
45 T7 45 2.452
45 T7 46 2.452
45 T7 47 1.963
45 T7 48 0.987
45 T7 49 -0.478
45 T7 50 -0.966
45 T7 51 -0.966
45 T7 52 -0.478
45 T7 53 0.498
45 T7 54 0.987
45 T7 55 1.475
45 T7 56 1.963
45 T7 57 3.916
45 T7 58 5.870
45 T7 59 8.799
45 T7 60 12.217
45 T7 61 16.123
45 T7 62 19.541
45 T7 63 21.495
45 T7 64 20.030
45 T7 65 17.100
45 T7 66 13.682
45 T7 67 11.729
45 T7 68 12.705
45 T7 69 15.147
45 T7 70 17.588
45 T7 71 18.565
45 T7 72 18.565
45 T7 73 18.077
45 T7 74 18.077
45 T7 75 20.030
45 T7 76 21.495
45 T7 77 22.471
45 T7 78 21.983
45 T7 79 20.518
45 T7 80 18.565
45 T7 81 16.612
45 T7 82 16.123
45 T7 83 16.123
45 T7 84 16.123
45 T7 85 15.147
45 T7 86 12.705
45 T7 87 9.776
45 T7 88 6.846
45 T7 89 5.381
45 T7 90 4.893
45 T7 91 5.381
45 T7 92 6.358
45 T7 93 6.358
45 T7 94 6.846
45 T7 95 6.846
45 T7 96 7.334
45 T7 97 8.311
45 T7 98 8.799
45 T7 99 8.799
45 T7 100 8.799
45 T7 101 9.288
45 T7 102 9.776
45 T7 103 11.241
45 T7 104 12.217
45 T7 105 12.217
45 T7 106 11.241
45 T7 107 10.752
45 T7 108 10.264
45 T7 109 11.241
45 T7 110 13.194
45 T7 111 15.147
45 T7 112 16.123
45 T7 113 16.123
45 T7 114 15.147
45 T7 115 13.682
45 T7 116 12.705
45 T7 117 11.729
45 T7 118 11.729
45 T7 119 11.241
45 T7 120 10.264
45 T7 121 8.799
45 T7 122 6.846
45 T7 123 5.870
45 T7 124 5.870
45 T7 125 6.358
45 T7 126 7.334
45 T7 127 7.334
45 T7 128 6.846
45 T7 129 5.381
45 T7 130 3.916
45 T7 131 2.940
45 T7 132 2.452
45 T7 133 3.428
45 T7 134 4.405
45 T7 135 6.358
45 T7 136 7.823
45 T7 137 9.288
45 T7 138 10.752
45 T7 139 11.241
45 T7 140 10.264
45 T7 141 8.311
45 T7 142 6.358
45 T7 143 4.405
45 T7 144 3.916
45 T7 145 4.893
45 T7 146 6.846
45 T7 147 8.311
45 T7 148 8.799
45 T7 149 7.334
45 T7 150 5.381
45 T7 151 3.428
45 T7 152 2.940
45 T7 153 3.916
45 T7 154 5.381
45 T7 155 6.846
45 T7 156 7.823
45 T7 157 9.288
45 T7 158 10.264
45 T7 159 11.241
45 T7 160 11.729
45 T7 161 12.217
45 T7 162 12.217
45 T7 163 12.705
45 T7 164 12.705
45 T7 165 13.194
45 T7 166 13.682
45 T7 167 13.682
45 T7 168 14.659
45 T7 169 14.659
45 T7 170 14.170
45 T7 171 12.217
45 T7 172 8.799
45 T7 173 4.893
45 T7 174 1.475
45 T7 175 0.498
45 T7 176 0.987
45 T7 177 2.940
45 T7 178 4.405
45 T7 179 5.870
45 T7 180 6.358
45 T7 181 7.334
45 T7 182 8.311
45 T7 183 8.799
45 T7 184 9.288
45 T7 185 9.776
45 T7 186 10.264
45 T7 187 11.729
45 T7 188 14.170
45 T7 189 16.612
45 T7 190 18.565
45 T7 191 19.053
45 T7 192 18.077
45 T7 193 16.612
45 T7 194 15.147
45 T7 195 14.170
45 T7 196 13.682
45 T7 197 13.682
45 T7 198 14.659
45 T7 199 16.612
45 T7 200 18.077
45 T7 201 19.541
45 T7 202 20.518
45 T7 203 21.006
45 T7 204 21.495
45 T7 205 21.006
45 T7 206 20.518
45 T7 207 19.541
45 T7 208 18.077
45 T7 209 17.588
45 T7 210 17.588
45 T7 211 17.588
45 T7 212 16.612
45 T7 213 15.635
45 T7 214 14.170
45 T7 215 13.682
45 T7 216 13.682
45 T7 217 14.170
45 T7 218 14.170
45 T7 219 13.682
45 T7 220 13.194
45 T7 221 12.705
45 T7 222 12.705
45 T7 223 12.217
45 T7 224 11.729
45 T7 225 11.241
45 T7 226 11.241
45 T7 227 12.705
45 T7 228 15.635
45 T7 229 19.053
45 T7 230 21.495
45 T7 231 21.983
45 T7 232 21.006
45 T7 233 19.053
45 T7 234 17.100
45 T7 235 15.147
45 T7 236 12.705
45 T7 237 9.776
45 T7 238 7.823
45 T7 239 6.846
45 T7 240 7.823
45 T7 241 9.776
45 T7 242 12.217
45 T7 243 13.194
45 T7 244 13.682
45 T7 245 13.194
45 T7 246 12.705
45 T7 247 11.729
45 T7 248 11.241
45 T7 249 9.776
45 T7 250 7.334
45 T7 251 4.893
45 T7 252 3.428
45 T7 253 3.916
45 T7 254 5.381
45 T7 255 7.334
# CZ chan 15
45 CZ 0 3.479
45 CZ 1 5.920
45 CZ 2 6.897
45 CZ 3 7.385
45 CZ 4 5.432
45 CZ 5 2.991
45 CZ 6 0.061
45 CZ 7 -1.404
45 CZ 8 -1.404
45 CZ 9 0.549
45 CZ 10 2.014
45 CZ 11 2.502
45 CZ 12 0.549
45 CZ 13 -2.869
45 CZ 14 -6.775
45 CZ 15 -10.193
45 CZ 16 -14.099
45 CZ 17 -18.005
45 CZ 18 -20.447
45 CZ 19 -21.912
45 CZ 20 -20.935
45 CZ 21 -18.494
45 CZ 22 -15.076
45 CZ 23 -12.146
45 CZ 24 -8.728
45 CZ 25 -4.822
45 CZ 26 1.526
45 CZ 27 8.362
45 CZ 28 13.733
45 CZ 29 16.663
45 CZ 30 16.663
45 CZ 31 15.686
45 CZ 32 15.686
45 CZ 33 16.663
45 CZ 34 17.151
45 CZ 35 15.686
45 CZ 36 11.292
45 CZ 37 7.385
45 CZ 38 5.432
45 CZ 39 6.897
45 CZ 40 9.338
45 CZ 41 9.827
45 CZ 42 7.874
45 CZ 43 3.967
45 CZ 44 1.038
45 CZ 45 0.061
45 CZ 46 1.038
45 CZ 47 2.014
45 CZ 48 1.526
45 CZ 49 -0.427
45 CZ 50 -1.892
45 CZ 51 -2.380
45 CZ 52 -0.916
45 CZ 53 1.038
45 CZ 54 2.014
45 CZ 55 1.526
45 CZ 56 0.549
45 CZ 57 0.549
45 CZ 58 2.014
45 CZ 59 4.944
45 CZ 60 9.338
45 CZ 61 12.756
45 CZ 62 15.198
45 CZ 63 16.174
45 CZ 64 16.174
45 CZ 65 15.686
45 CZ 66 16.174
45 CZ 67 18.127
45 CZ 68 20.081
45 CZ 69 22.522
45 CZ 70 25.452
45 CZ 71 27.893
45 CZ 72 29.846
45 CZ 73 31.799
45 CZ 74 33.752
45 CZ 75 34.241
45 CZ 76 34.729
45 CZ 77 33.752
45 CZ 78 30.823
45 CZ 79 26.917
45 CZ 80 22.034
45 CZ 81 19.104
45 CZ 82 18.127
45 CZ 83 18.616
45 CZ 84 19.592
45 CZ 85 19.592
45 CZ 86 19.104
45 CZ 87 18.127
45 CZ 88 18.127
45 CZ 89 18.127
45 CZ 90 18.127
45 CZ 91 17.151
45 CZ 92 15.686
45 CZ 93 14.221
45 CZ 94 14.221
45 CZ 95 15.198
45 CZ 96 15.686
45 CZ 97 14.709
45 CZ 98 12.268
45 CZ 99 9.338
45 CZ 100 7.385
45 CZ 101 7.385
45 CZ 102 8.850
45 CZ 103 10.315
45 CZ 104 11.292
45 CZ 105 10.803
45 CZ 106 10.315
45 CZ 107 11.292
45 CZ 108 13.245
45 CZ 109 15.686
45 CZ 110 17.639
45 CZ 111 18.127
45 CZ 112 16.663
45 CZ 113 14.221
45 CZ 114 12.756
45 CZ 115 12.268
45 CZ 116 12.268
45 CZ 117 11.292
45 CZ 118 9.827
45 CZ 119 7.385
45 CZ 120 4.944
45 CZ 121 2.991
45 CZ 122 2.014
45 CZ 123 1.038
45 CZ 124 0.061
45 CZ 125 0.061
45 CZ 126 0.549
45 CZ 127 1.038
45 CZ 128 1.038
45 CZ 129 -0.427
45 CZ 130 -2.380
45 CZ 131 -4.333
45 CZ 132 -5.798
45 CZ 133 -5.310
45 CZ 134 -3.357
45 CZ 135 -1.404
45 CZ 136 -0.427
45 CZ 137 -0.916
45 CZ 138 -2.869
45 CZ 139 -5.798
45 CZ 140 -9.705
45 CZ 141 -14.099
45 CZ 142 -18.005
45 CZ 143 -20.447
45 CZ 144 -21.912
45 CZ 145 -21.912
45 CZ 146 -22.400
45 CZ 147 -22.888
45 CZ 148 -24.353
45 CZ 149 -25.818
45 CZ 150 -27.283
45 CZ 151 -27.771
45 CZ 152 -28.259
45 CZ 153 -28.259
45 CZ 154 -28.748
45 CZ 155 -28.259
45 CZ 156 -27.283
45 CZ 157 -24.841
45 CZ 158 -21.912
45 CZ 159 -18.982
45 CZ 160 -18.005
45 CZ 161 -18.494
45 CZ 162 -21.912
45 CZ 163 -26.306
45 CZ 164 -31.189
45 CZ 165 -35.095
45 CZ 166 -38.025
45 CZ 167 -39.490
45 CZ 168 -39.978
45 CZ 169 -39.001
45 CZ 170 -36.072
45 CZ 171 -31.189
45 CZ 172 -26.306
45 CZ 173 -22.888
45 CZ 174 -22.400
45 CZ 175 -23.865
45 CZ 176 -25.818
45 CZ 177 -26.794
45 CZ 178 -25.818
45 CZ 179 -23.376
45 CZ 180 -21.423
45 CZ 181 -19.470
45 CZ 182 -18.494
45 CZ 183 -17.517
45 CZ 184 -18.005
45 CZ 185 -18.982
45 CZ 186 -19.958
45 CZ 187 -20.447
45 CZ 188 -18.982
45 CZ 189 -15.564
45 CZ 190 -12.634
45 CZ 191 -11.658
45 CZ 192 -13.611
45 CZ 193 -17.029
45 CZ 194 -20.935
45 CZ 195 -22.888
45 CZ 196 -23.865
45 CZ 197 -22.888
45 CZ 198 -21.423
45 CZ 199 -19.470
45 CZ 200 -16.541
45 CZ 201 -14.099
45 CZ 202 -11.658
45 CZ 203 -10.193
45 CZ 204 -9.216
45 CZ 205 -8.240
45 CZ 206 -6.287
45 CZ 207 -4.333
45 CZ 208 -3.357
45 CZ 209 -3.357
45 CZ 210 -3.845
45 CZ 211 -4.333
45 CZ 212 -3.357
45 CZ 213 -2.380
45 CZ 214 -2.380
45 CZ 215 -3.357
45 CZ 216 -4.822
45 CZ 217 -6.775
45 CZ 218 -7.751
45 CZ 219 -7.263
45 CZ 220 -5.798
45 CZ 221 -4.822
45 CZ 222 -5.310
45 CZ 223 -6.775
45 CZ 224 -9.216
45 CZ 225 -11.658
45 CZ 226 -12.634
45 CZ 227 -12.146
45 CZ 228 -10.193
45 CZ 229 -8.240
45 CZ 230 -5.798
45 CZ 231 -4.333
45 CZ 232 -2.380
45 CZ 233 -0.916
45 CZ 234 0.549
45 CZ 235 1.038
45 CZ 236 0.061
45 CZ 237 -2.380
45 CZ 238 -4.822
45 CZ 239 -6.775
45 CZ 240 -6.287
45 CZ 241 -4.822
45 CZ 242 -2.869
45 CZ 243 -1.892
45 CZ 244 -1.404
45 CZ 245 -0.916
45 CZ 246 -0.427
45 CZ 247 1.038
45 CZ 248 1.038
45 CZ 249 -1.404
45 CZ 250 -5.798
45 CZ 251 -10.681
45 CZ 252 -14.099
45 CZ 253 -14.587
45 CZ 254 -12.146
45 CZ 255 -9.216
# C3 chan 16
45 C3 0 0.336
45 C3 1 1.312
45 C3 2 2.289
45 C3 3 1.801
45 C3 4 0.336
45 C3 5 -2.106
45 C3 6 -4.059
45 C3 7 -5.035
45 C3 8 -4.547
45 C3 9 -4.059
45 C3 10 -3.571
45 C3 11 -3.082
45 C3 12 -2.106
45 C3 13 0.336
45 C3 14 3.265
45 C3 15 6.195
45 C3 16 7.660
45 C3 17 6.683
45 C3 18 3.754
45 C3 19 -0.153
45 C3 20 -2.106
45 C3 21 -2.594
45 C3 22 -1.617
45 C3 23 -0.153
45 C3 24 0.336
45 C3 25 0.824
45 C3 26 0.824
45 C3 27 1.312
45 C3 28 1.312
45 C3 29 0.824
45 C3 30 -0.153
45 C3 31 -1.617
45 C3 32 -2.106
45 C3 33 -1.617
45 C3 34 0.336
45 C3 35 2.289
45 C3 36 2.777
45 C3 37 2.289
45 C3 38 0.336
45 C3 39 -1.617
45 C3 40 -1.617
45 C3 41 -0.153
45 C3 42 1.312
45 C3 43 2.777
45 C3 44 2.777
45 C3 45 2.289
45 C3 46 0.824
45 C3 47 -0.641
45 C3 48 -2.106
45 C3 49 -2.594
45 C3 50 -3.082
45 C3 51 -3.082
45 C3 52 -4.059
45 C3 53 -4.059
45 C3 54 -4.059
45 C3 55 -3.571
45 C3 56 -2.106
45 C3 57 0.336
45 C3 58 1.801
45 C3 59 3.265
45 C3 60 3.754
45 C3 61 4.730
45 C3 62 5.707
45 C3 63 7.172
45 C3 64 7.660
45 C3 65 7.172
45 C3 66 5.219
45 C3 67 3.265
45 C3 68 2.289
45 C3 69 2.289
45 C3 70 2.777
45 C3 71 3.265
45 C3 72 2.289
45 C3 73 1.312
45 C3 74 0.336
45 C3 75 0.336
45 C3 76 0.336
45 C3 77 0.824
45 C3 78 0.336
45 C3 79 -0.153
45 C3 80 -0.153
45 C3 81 0.336
45 C3 82 1.801
45 C3 83 2.777
45 C3 84 3.265
45 C3 85 1.801
45 C3 86 0.336
45 C3 87 -1.129
45 C3 88 -3.082
45 C3 89 -4.547
45 C3 90 -5.524
45 C3 91 -6.012
45 C3 92 -6.500
45 C3 93 -6.012
45 C3 94 -5.524
45 C3 95 -5.035
45 C3 96 -4.547
45 C3 97 -4.547
45 C3 98 -3.571
45 C3 99 -1.617
45 C3 100 0.336
45 C3 101 1.801
45 C3 102 2.289
45 C3 103 1.801
45 C3 104 0.824
45 C3 105 -0.153
45 C3 106 -1.129
45 C3 107 -2.106
45 C3 108 -3.571
45 C3 109 -4.547
45 C3 110 -5.035
45 C3 111 -4.547
45 C3 112 -3.082
45 C3 113 -2.594
45 C3 114 -2.594
45 C3 115 -3.082
45 C3 116 -4.059
45 C3 117 -4.059
45 C3 118 -3.571
45 C3 119 -2.594
45 C3 120 -1.617
45 C3 121 -2.106
45 C3 122 -3.082
45 C3 123 -3.571
45 C3 124 -3.082
45 C3 125 -2.106
45 C3 126 -0.641
45 C3 127 -0.153
45 C3 128 -0.641
45 C3 129 -2.106
45 C3 130 -3.082
45 C3 131 -3.571
45 C3 132 -4.059
45 C3 133 -4.059
45 C3 134 -4.059
45 C3 135 -4.547
45 C3 136 -4.059
45 C3 137 -4.059
45 C3 138 -3.571
45 C3 139 -2.594
45 C3 140 -2.106
45 C3 141 -2.106
45 C3 142 -2.106
45 C3 143 -2.594
45 C3 144 -2.594
45 C3 145 -2.106
45 C3 146 -1.129
45 C3 147 -0.153
45 C3 148 -0.153
45 C3 149 -0.153
45 C3 150 -1.617
45 C3 151 -3.082
45 C3 152 -4.059
45 C3 153 -4.547
45 C3 154 -4.547
45 C3 155 -4.059
45 C3 156 -3.082
45 C3 157 -2.106
45 C3 158 -0.641
45 C3 159 -0.641
45 C3 160 -1.129
45 C3 161 -2.106
45 C3 162 -2.106
45 C3 163 -1.129
45 C3 164 -0.153
45 C3 165 0.824
45 C3 166 0.824
45 C3 167 0.824
45 C3 168 1.312
45 C3 169 1.312
45 C3 170 1.312
45 C3 171 -0.153
45 C3 172 -2.594
45 C3 173 -5.524
45 C3 174 -7.965
45 C3 175 -8.942
45 C3 176 -7.965
45 C3 177 -7.477
45 C3 178 -6.989
45 C3 179 -6.989
45 C3 180 -6.989
45 C3 181 -6.989
45 C3 182 -6.012
45 C3 183 -5.035
45 C3 184 -5.035
45 C3 185 -5.035
45 C3 186 -5.035
45 C3 187 -4.059
45 C3 188 -2.594
45 C3 189 -0.641
45 C3 190 0.824
45 C3 191 1.801
45 C3 192 2.289
45 C3 193 2.289
45 C3 194 2.777
45 C3 195 2.289
45 C3 196 2.289
45 C3 197 1.801
45 C3 198 1.312
45 C3 199 1.801
45 C3 200 2.777
45 C3 201 3.265
45 C3 202 3.754
45 C3 203 3.265
45 C3 204 2.289
45 C3 205 1.312
45 C3 206 0.824
45 C3 207 -0.153
45 C3 208 -0.641
45 C3 209 -1.129
45 C3 210 -1.617
45 C3 211 -2.594
45 C3 212 -3.571
45 C3 213 -5.035
45 C3 214 -6.012
45 C3 215 -6.500
45 C3 216 -6.500
45 C3 217 -6.012
45 C3 218 -6.012
45 C3 219 -6.012
45 C3 220 -6.012
45 C3 221 -6.012
45 C3 222 -5.524
45 C3 223 -4.547
45 C3 224 -3.571
45 C3 225 -2.594
45 C3 226 -1.617
45 C3 227 -1.129
45 C3 228 0.336
45 C3 229 2.289
45 C3 230 4.242
45 C3 231 5.707
45 C3 232 6.195
45 C3 233 5.707
45 C3 234 4.242
45 C3 235 1.801
45 C3 236 -0.641
45 C3 237 -3.571
45 C3 238 -5.524
45 C3 239 -6.500
45 C3 240 -5.035
45 C3 241 -3.082
45 C3 242 -0.641
45 C3 243 0.336
45 C3 244 -0.641
45 C3 245 -2.106
45 C3 246 -4.059
45 C3 247 -4.547
45 C3 248 -4.059
45 C3 249 -3.082
45 C3 250 -2.594
45 C3 251 -3.082
45 C3 252 -4.059
45 C3 253 -4.059
45 C3 254 -4.059
45 C3 255 -3.082
# C4 chan 17
45 C4 0 2.584
45 C4 1 4.537
45 C4 2 5.514
45 C4 3 5.514
45 C4 4 4.537
45 C4 5 4.049
45 C4 6 3.560
45 C4 7 3.072
45 C4 8 3.560
45 C4 9 4.049
45 C4 10 4.537
45 C4 11 4.537
45 C4 12 3.560
45 C4 13 2.584
45 C4 14 0.631
45 C4 15 -1.322
45 C4 16 -2.787
45 C4 17 -3.276
45 C4 18 -2.787
45 C4 19 -1.811
45 C4 20 -0.346
45 C4 21 1.119
45 C4 22 2.096
45 C4 23 2.096
45 C4 24 2.096
45 C4 25 1.607
45 C4 26 2.096
45 C4 27 3.072
45 C4 28 4.537
45 C4 29 6.490
45 C4 30 7.467
45 C4 31 7.467
45 C4 32 6.490
45 C4 33 4.537
45 C4 34 3.072
45 C4 35 2.096
45 C4 36 2.096
45 C4 37 2.584
45 C4 38 3.072
45 C4 39 3.072
45 C4 40 3.072
45 C4 41 2.584
45 C4 42 1.607
45 C4 43 1.119
45 C4 44 0.631
45 C4 45 0.142
45 C4 46 0.142
45 C4 47 0.142
45 C4 48 0.631
45 C4 49 1.119
45 C4 50 1.119
45 C4 51 1.607
45 C4 52 1.119
45 C4 53 0.631
45 C4 54 0.142
45 C4 55 -0.834
45 C4 56 -1.811
45 C4 57 -2.787
45 C4 58 -3.764
45 C4 59 -4.252
45 C4 60 -4.252
45 C4 61 -3.764
45 C4 62 -3.276
45 C4 63 -2.787
45 C4 64 -2.299
45 C4 65 -1.811
45 C4 66 -0.834
45 C4 67 0.631
45 C4 68 1.119
45 C4 69 1.607
45 C4 70 1.119
45 C4 71 1.119
45 C4 72 1.119
45 C4 73 1.119
45 C4 74 1.119
45 C4 75 0.142
45 C4 76 -0.834
45 C4 77 -1.322
45 C4 78 -0.346
45 C4 79 1.119
45 C4 80 3.072
45 C4 81 3.560
45 C4 82 3.072
45 C4 83 2.584
45 C4 84 2.584
45 C4 85 4.049
45 C4 86 6.002
45 C4 87 7.955
45 C4 88 8.931
45 C4 89 8.931
45 C4 90 7.467
45 C4 91 5.025
45 C4 92 2.584
45 C4 93 0.142
45 C4 94 -1.322
45 C4 95 -1.811
45 C4 96 -1.322
45 C4 97 -0.834
45 C4 98 -0.346
45 C4 99 -0.834
45 C4 100 -1.322
45 C4 101 -2.299
45 C4 102 -2.299
45 C4 103 -1.811
45 C4 104 -0.834
45 C4 105 0.631
45 C4 106 1.607
45 C4 107 3.072
45 C4 108 5.025
45 C4 109 6.490
45 C4 110 7.467
45 C4 111 7.467
45 C4 112 6.002
45 C4 113 4.537
45 C4 114 3.072
45 C4 115 3.072
45 C4 116 4.049
45 C4 117 4.537
45 C4 118 4.537
45 C4 119 3.560
45 C4 120 3.072
45 C4 121 2.584
45 C4 122 3.072
45 C4 123 3.072
45 C4 124 2.584
45 C4 125 2.096
45 C4 126 1.607
45 C4 127 1.607
45 C4 128 1.607
45 C4 129 1.607
45 C4 130 1.119
45 C4 131 1.119
45 C4 132 0.142
45 C4 133 -0.346
45 C4 134 -0.834
45 C4 135 0.142
45 C4 136 1.119
45 C4 137 1.607
45 C4 138 2.584
45 C4 139 2.584
45 C4 140 1.119
45 C4 141 -0.834
45 C4 142 -2.299
45 C4 143 -2.787
45 C4 144 -2.299
45 C4 145 -0.834
45 C4 146 -0.834
45 C4 147 -1.811
45 C4 148 -3.764
45 C4 149 -5.229
45 C4 150 -6.205
45 C4 151 -5.229
45 C4 152 -3.276
45 C4 153 -1.322
45 C4 154 -0.346
45 C4 155 0.142
45 C4 156 0.142
45 C4 157 0.631
45 C4 158 1.119
45 C4 159 1.607
45 C4 160 1.607
45 C4 161 0.631
45 C4 162 -0.346
45 C4 163 -1.322
45 C4 164 -1.811
45 C4 165 -1.322
45 C4 166 -0.834
45 C4 167 -1.322
45 C4 168 -1.811
45 C4 169 -2.787
45 C4 170 -2.787
45 C4 171 -1.811
45 C4 172 -0.834
45 C4 173 0.142
45 C4 174 1.119
45 C4 175 1.119
45 C4 176 1.607
45 C4 177 2.584
45 C4 178 3.072
45 C4 179 3.560
45 C4 180 4.049
45 C4 181 4.049
45 C4 182 5.025
45 C4 183 6.002
45 C4 184 6.490
45 C4 185 6.002
45 C4 186 4.537
45 C4 187 3.072
45 C4 188 1.607
45 C4 189 1.119
45 C4 190 1.119
45 C4 191 1.607
45 C4 192 1.607
45 C4 193 0.631
45 C4 194 -0.834
45 C4 195 -1.811
45 C4 196 -2.299
45 C4 197 -1.811
45 C4 198 -0.346
45 C4 199 0.631
45 C4 200 1.607
45 C4 201 2.096
45 C4 202 3.072
45 C4 203 3.072
45 C4 204 3.560
45 C4 205 4.049
45 C4 206 4.049
45 C4 207 4.049
45 C4 208 4.049
45 C4 209 4.049
45 C4 210 3.072
45 C4 211 3.072
45 C4 212 2.584
45 C4 213 3.072
45 C4 214 4.049
45 C4 215 4.537
45 C4 216 5.514
45 C4 217 5.514
45 C4 218 5.025
45 C4 219 4.537
45 C4 220 5.514
45 C4 221 6.002
45 C4 222 6.490
45 C4 223 6.002
45 C4 224 4.537
45 C4 225 3.072
45 C4 226 1.607
45 C4 227 1.607
45 C4 228 2.096
45 C4 229 2.096
45 C4 230 2.096
45 C4 231 1.607
45 C4 232 2.096
45 C4 233 2.584
45 C4 234 4.537
45 C4 235 6.002
45 C4 236 6.978
45 C4 237 7.955
45 C4 238 7.955
45 C4 239 7.955
45 C4 240 7.955
45 C4 241 6.978
45 C4 242 6.002
45 C4 243 5.025
45 C4 244 4.049
45 C4 245 4.537
45 C4 246 5.025
45 C4 247 6.002
45 C4 248 5.514
45 C4 249 4.537
45 C4 250 3.072
45 C4 251 2.096
45 C4 252 1.607
45 C4 253 1.607
45 C4 254 2.096
45 C4 255 2.096
# CP5 chan 18
45 CP5 0 2.981
45 CP5 1 4.445
45 CP5 2 5.910
45 CP5 3 5.422
45 CP5 4 3.957
45 CP5 5 1.516
45 CP5 6 -1.414
45 CP5 7 -2.879
45 CP5 8 -3.367
45 CP5 9 -3.367
45 CP5 10 -2.879
45 CP5 11 -2.391
45 CP5 12 -0.437
45 CP5 13 2.492
45 CP5 14 4.934
45 CP5 15 6.399
45 CP5 16 5.422
45 CP5 17 2.492
45 CP5 18 -0.926
45 CP5 19 -2.879
45 CP5 20 -3.367
45 CP5 21 -1.902
45 CP5 22 -0.437
45 CP5 23 0.051
45 CP5 24 -0.437
45 CP5 25 -0.437
45 CP5 26 0.051
45 CP5 27 2.492
45 CP5 28 3.957
45 CP5 29 4.934
45 CP5 30 3.957
45 CP5 31 2.004
45 CP5 32 1.027
45 CP5 33 1.516
45 CP5 34 2.492
45 CP5 35 3.469
45 CP5 36 2.981
45 CP5 37 1.516
45 CP5 38 -0.437
45 CP5 39 -1.414
45 CP5 40 -1.902
45 CP5 41 -1.414
45 CP5 42 -0.926
45 CP5 43 -1.414
45 CP5 44 -1.902
45 CP5 45 -3.367
45 CP5 46 -4.832
45 CP5 47 -6.297
45 CP5 48 -7.762
45 CP5 49 -8.738
45 CP5 50 -8.738
45 CP5 51 -7.762
45 CP5 52 -6.297
45 CP5 53 -5.320
45 CP5 54 -3.367
45 CP5 55 -1.902
45 CP5 56 -0.437
45 CP5 57 1.516
45 CP5 58 2.492
45 CP5 59 3.957
45 CP5 60 5.910
45 CP5 61 8.840
45 CP5 62 11.281
45 CP5 63 13.234
45 CP5 64 12.746
45 CP5 65 10.793
45 CP5 66 8.352
45 CP5 67 6.887
45 CP5 68 6.399
45 CP5 69 7.375
45 CP5 70 7.863
45 CP5 71 7.863
45 CP5 72 7.375
45 CP5 73 6.887
45 CP5 74 7.863
45 CP5 75 9.816
45 CP5 76 11.770
45 CP5 77 13.234
45 CP5 78 13.234
45 CP5 79 11.770
45 CP5 80 10.305
45 CP5 81 9.816
45 CP5 82 10.305
45 CP5 83 11.281
45 CP5 84 11.770
45 CP5 85 10.305
45 CP5 86 7.375
45 CP5 87 3.957
45 CP5 88 1.027
45 CP5 89 -0.437
45 CP5 90 -0.926
45 CP5 91 -0.437
45 CP5 92 0.051
45 CP5 93 0.539
45 CP5 94 1.027
45 CP5 95 2.004
45 CP5 96 3.469
45 CP5 97 4.934
45 CP5 98 5.910
45 CP5 99 6.399
45 CP5 100 6.399
45 CP5 101 6.887
45 CP5 102 6.887
45 CP5 103 7.375
45 CP5 104 7.375
45 CP5 105 6.399
45 CP5 106 4.934
45 CP5 107 2.981
45 CP5 108 1.516
45 CP5 109 1.516
45 CP5 110 2.004
45 CP5 111 3.469
45 CP5 112 4.445
45 CP5 113 4.934
45 CP5 114 4.445
45 CP5 115 3.469
45 CP5 116 2.492
45 CP5 117 2.004
45 CP5 118 2.492
45 CP5 119 2.981
45 CP5 120 2.981
45 CP5 121 2.004
45 CP5 122 0.051
45 CP5 123 -0.926
45 CP5 124 -0.926
45 CP5 125 0.051
45 CP5 126 2.004
45 CP5 127 2.492
45 CP5 128 1.516
45 CP5 129 -0.437
45 CP5 130 -2.391
45 CP5 131 -3.855
45 CP5 132 -5.320
45 CP5 133 -5.320
45 CP5 134 -4.832
45 CP5 135 -3.367
45 CP5 136 -1.414
45 CP5 137 0.539
45 CP5 138 2.004
45 CP5 139 1.516
45 CP5 140 0.051
45 CP5 141 -1.414
45 CP5 142 -2.391
45 CP5 143 -2.391
45 CP5 144 -1.414
45 CP5 145 0.051
45 CP5 146 2.492
45 CP5 147 3.957
45 CP5 148 4.934
45 CP5 149 4.934
45 CP5 150 3.469
45 CP5 151 2.004
45 CP5 152 0.539
45 CP5 153 0.051
45 CP5 154 1.027
45 CP5 155 2.004
45 CP5 156 2.981
45 CP5 157 3.469
45 CP5 158 2.981
45 CP5 159 1.516
45 CP5 160 1.027
45 CP5 161 1.516
45 CP5 162 2.492
45 CP5 163 3.469
45 CP5 164 4.445
45 CP5 165 4.445
45 CP5 166 4.934
45 CP5 167 5.910
45 CP5 168 7.375
45 CP5 169 9.328
45 CP5 170 9.816
45 CP5 171 9.328
45 CP5 172 6.887
45 CP5 173 3.469
45 CP5 174 1.027
45 CP5 175 -0.437
45 CP5 176 -0.926
45 CP5 177 -0.926
45 CP5 178 -0.437
45 CP5 179 -0.437
45 CP5 180 0.051
45 CP5 181 1.516
45 CP5 182 2.981
45 CP5 183 3.957
45 CP5 184 4.445
45 CP5 185 3.957
45 CP5 186 4.445
45 CP5 187 5.422
45 CP5 188 7.375
45 CP5 189 10.305
45 CP5 190 12.258
45 CP5 191 13.234
45 CP5 192 13.234
45 CP5 193 12.258
45 CP5 194 10.793
45 CP5 195 8.840
45 CP5 196 6.887
45 CP5 197 6.399
45 CP5 198 6.399
45 CP5 199 7.375
45 CP5 200 9.328
45 CP5 201 10.793
45 CP5 202 12.746
45 CP5 203 13.234
45 CP5 204 12.746
45 CP5 205 11.770
45 CP5 206 10.305
45 CP5 207 9.328
45 CP5 208 8.352
45 CP5 209 7.863
45 CP5 210 7.375
45 CP5 211 6.887
45 CP5 212 5.422
45 CP5 213 3.957
45 CP5 214 2.981
45 CP5 215 2.981
45 CP5 216 3.469
45 CP5 217 4.934
45 CP5 218 5.422
45 CP5 219 5.422
45 CP5 220 4.445
45 CP5 221 3.957
45 CP5 222 3.469
45 CP5 223 3.469
45 CP5 224 3.469
45 CP5 225 3.469
45 CP5 226 3.469
45 CP5 227 4.934
45 CP5 228 7.375
45 CP5 229 10.305
45 CP5 230 12.258
45 CP5 231 13.723
45 CP5 232 14.699
45 CP5 233 14.211
45 CP5 234 12.746
45 CP5 235 10.305
45 CP5 236 6.887
45 CP5 237 2.981
45 CP5 238 -0.437
45 CP5 239 -2.391
45 CP5 240 -1.902
45 CP5 241 -0.437
45 CP5 242 2.004
45 CP5 243 3.469
45 CP5 244 4.445
45 CP5 245 4.445
45 CP5 246 4.445
45 CP5 247 3.957
45 CP5 248 3.469
45 CP5 249 2.004
45 CP5 250 0.539
45 CP5 251 -0.926
45 CP5 252 -1.414
45 CP5 253 -1.414
45 CP5 254 -0.926
45 CP5 255 0.051
# CP6 chan 19
45 CP6 0 10.986
45 CP6 1 13.916
45 CP6 2 16.357
45 CP6 3 17.334
45 CP6 4 16.846
45 CP6 5 15.381
45 CP6 6 12.939
45 CP6 7 11.475
45 CP6 8 10.986
45 CP6 9 10.498
45 CP6 10 10.498
45 CP6 11 9.521
45 CP6 12 7.080
45 CP6 13 4.639
45 CP6 14 1.221
45 CP6 15 -1.709
45 CP6 16 -3.662
45 CP6 17 -5.615
45 CP6 18 -7.080
45 CP6 19 -6.592
45 CP6 20 -4.639
45 CP6 21 -1.709
45 CP6 22 1.709
45 CP6 23 4.639
45 CP6 24 6.592
45 CP6 25 8.545
45 CP6 26 10.986
45 CP6 27 13.916
45 CP6 28 16.846
45 CP6 29 18.311
45 CP6 30 17.334
45 CP6 31 14.893
45 CP6 32 11.475
45 CP6 33 8.545
45 CP6 34 6.592
45 CP6 35 4.639
45 CP6 36 4.150
45 CP6 37 4.150
45 CP6 38 4.150
45 CP6 39 4.639
45 CP6 40 5.127
45 CP6 41 4.639
45 CP6 42 3.174
45 CP6 43 2.197
45 CP6 44 1.709
45 CP6 45 1.709
45 CP6 46 1.709
45 CP6 47 2.197
45 CP6 48 2.686
45 CP6 49 2.686
45 CP6 50 3.174
45 CP6 51 3.662
45 CP6 52 4.150
45 CP6 53 4.150
45 CP6 54 3.174
45 CP6 55 1.709
45 CP6 56 0.244
45 CP6 57 -1.221
45 CP6 58 -1.221
45 CP6 59 -0.244
45 CP6 60 1.221
45 CP6 61 3.174
45 CP6 62 5.615
45 CP6 63 7.080
45 CP6 64 7.568
45 CP6 65 8.545
45 CP6 66 9.521
45 CP6 67 10.010
45 CP6 68 10.010
45 CP6 69 9.521
45 CP6 70 8.545
45 CP6 71 8.057
45 CP6 72 8.057
45 CP6 73 8.057
45 CP6 74 7.568
45 CP6 75 6.592
45 CP6 76 5.615
45 CP6 77 5.615
45 CP6 78 6.592
45 CP6 79 9.033
45 CP6 80 10.986
45 CP6 81 11.963
45 CP6 82 12.451
45 CP6 83 11.963
45 CP6 84 12.939
45 CP6 85 13.916
45 CP6 86 15.381
45 CP6 87 15.869
45 CP6 88 15.381
45 CP6 89 14.404
45 CP6 90 12.939
45 CP6 91 11.475
45 CP6 92 9.521
45 CP6 93 7.080
45 CP6 94 6.104
45 CP6 95 5.615
45 CP6 96 6.592
45 CP6 97 7.568
45 CP6 98 7.568
45 CP6 99 7.080
45 CP6 100 6.104
45 CP6 101 5.615
45 CP6 102 6.592
45 CP6 103 8.545
45 CP6 104 10.498
45 CP6 105 10.986
45 CP6 106 11.475
45 CP6 107 11.963
45 CP6 108 13.428
45 CP6 109 15.381
45 CP6 110 16.357
45 CP6 111 15.869
45 CP6 112 13.916
45 CP6 113 11.475
45 CP6 114 10.010
45 CP6 115 9.521
45 CP6 116 10.010
45 CP6 117 10.010
45 CP6 118 9.033
45 CP6 119 7.568
45 CP6 120 6.592
45 CP6 121 5.615
45 CP6 122 6.104
45 CP6 123 6.104
45 CP6 124 6.592
45 CP6 125 6.592
45 CP6 126 7.080
45 CP6 127 7.568
45 CP6 128 8.057
45 CP6 129 8.057
45 CP6 130 7.080
45 CP6 131 5.615
45 CP6 132 3.662
45 CP6 133 2.197
45 CP6 134 1.709
45 CP6 135 2.686
45 CP6 136 4.639
45 CP6 137 6.592
45 CP6 138 7.568
45 CP6 139 6.592
45 CP6 140 4.639
45 CP6 141 1.709
45 CP6 142 -1.221
45 CP6 143 -3.174
45 CP6 144 -3.662
45 CP6 145 -3.662
45 CP6 146 -3.662
45 CP6 147 -4.150
45 CP6 148 -4.150
45 CP6 149 -4.639
45 CP6 150 -4.150
45 CP6 151 -3.662
45 CP6 152 -2.197
45 CP6 153 -0.244
45 CP6 154 1.221
45 CP6 155 3.174
45 CP6 156 5.127
45 CP6 157 6.592
45 CP6 158 7.568
45 CP6 159 6.592
45 CP6 160 4.639
45 CP6 161 1.709
45 CP6 162 -0.732
45 CP6 163 -2.197
45 CP6 164 -3.174
45 CP6 165 -2.686
45 CP6 166 -1.709
45 CP6 167 -0.244
45 CP6 168 0.732
45 CP6 169 1.709
45 CP6 170 2.197
45 CP6 171 3.174
45 CP6 172 3.174
45 CP6 173 2.686
45 CP6 174 2.197
45 CP6 175 1.709
45 CP6 176 2.686
45 CP6 177 4.150
45 CP6 178 5.127
45 CP6 179 6.592
45 CP6 180 7.568
45 CP6 181 8.057
45 CP6 182 8.545
45 CP6 183 9.521
45 CP6 184 10.010
45 CP6 185 9.521
45 CP6 186 8.545
45 CP6 187 7.080
45 CP6 188 6.104
45 CP6 189 5.615
45 CP6 190 5.127
45 CP6 191 4.639
45 CP6 192 3.662
45 CP6 193 1.221
45 CP6 194 -1.221
45 CP6 195 -2.686
45 CP6 196 -3.662
45 CP6 197 -2.686
45 CP6 198 -1.221
45 CP6 199 0.244
45 CP6 200 1.221
45 CP6 201 2.197
45 CP6 202 2.686
45 CP6 203 3.174
45 CP6 204 4.639
45 CP6 205 5.127
45 CP6 206 6.104
45 CP6 207 7.080
45 CP6 208 8.545
45 CP6 209 9.521
45 CP6 210 10.498
45 CP6 211 11.475
45 CP6 212 11.475
45 CP6 213 10.986
45 CP6 214 10.986
45 CP6 215 11.475
45 CP6 216 11.475
45 CP6 217 11.475
45 CP6 218 11.475
45 CP6 219 10.986
45 CP6 220 10.986
45 CP6 221 10.986
45 CP6 222 10.986
45 CP6 223 9.521
45 CP6 224 7.080
45 CP6 225 5.127
45 CP6 226 3.662
45 CP6 227 4.150
45 CP6 228 4.639
45 CP6 229 6.104
45 CP6 230 6.592
45 CP6 231 6.592
45 CP6 232 7.080
45 CP6 233 8.545
45 CP6 234 9.521
45 CP6 235 10.498
45 CP6 236 10.986
45 CP6 237 11.475
45 CP6 238 11.475
45 CP6 239 11.963
45 CP6 240 12.939
45 CP6 241 13.428
45 CP6 242 12.939
45 CP6 243 11.963
45 CP6 244 11.963
45 CP6 245 11.475
45 CP6 246 12.451
45 CP6 247 12.451
45 CP6 248 11.963
45 CP6 249 10.986
45 CP6 250 9.033
45 CP6 251 7.568
45 CP6 252 6.592
45 CP6 253 5.615
45 CP6 254 5.127
45 CP6 255 4.150
# CP1 chan 20
45 CP1 0 1.556
45 CP1 1 1.556
45 CP1 2 1.556
45 CP1 3 1.556
45 CP1 4 0.580
45 CP1 5 -0.885
45 CP1 6 -1.862
45 CP1 7 -2.350
45 CP1 8 -2.838
45 CP1 9 -2.838
45 CP1 10 -2.838
45 CP1 11 -1.862
45 CP1 12 -0.397
45 CP1 13 2.045
45 CP1 14 3.998
45 CP1 15 5.463
45 CP1 16 4.974
45 CP1 17 3.510
45 CP1 18 1.556
45 CP1 19 0.092
45 CP1 20 -0.397
45 CP1 21 0.580
45 CP1 22 1.068
45 CP1 23 1.068
45 CP1 24 0.092
45 CP1 25 -0.885
45 CP1 26 -1.373
45 CP1 27 -1.373
45 CP1 28 -0.885
45 CP1 29 -0.397
45 CP1 30 -0.885
45 CP1 31 -0.885
45 CP1 32 -0.885
45 CP1 33 -0.397
45 CP1 34 -0.397
45 CP1 35 0.092
45 CP1 36 -0.397
45 CP1 37 -1.373
45 CP1 38 -1.862
45 CP1 39 -1.862
45 CP1 40 -1.862
45 CP1 41 -1.373
45 CP1 42 -1.373
45 CP1 43 -1.373
45 CP1 44 -1.862
45 CP1 45 -3.326
45 CP1 46 -3.815
45 CP1 47 -4.791
45 CP1 48 -5.768
45 CP1 49 -5.768
45 CP1 50 -5.280
45 CP1 51 -4.791
45 CP1 52 -3.815
45 CP1 53 -3.326
45 CP1 54 -1.862
45 CP1 55 -0.885
45 CP1 56 -0.397
45 CP1 57 0.580
45 CP1 58 1.068
45 CP1 59 1.068
45 CP1 60 1.556
45 CP1 61 2.533
45 CP1 62 3.998
45 CP1 63 4.974
45 CP1 64 4.974
45 CP1 65 4.486
45 CP1 66 3.510
45 CP1 67 2.533
45 CP1 68 2.045
45 CP1 69 1.556
45 CP1 70 1.068
45 CP1 71 0.580
45 CP1 72 -0.397
45 CP1 73 -0.397
45 CP1 74 1.068
45 CP1 75 2.045
45 CP1 76 3.510
45 CP1 77 4.486
45 CP1 78 4.486
45 CP1 79 3.998
45 CP1 80 3.510
45 CP1 81 3.510
45 CP1 82 3.998
45 CP1 83 3.998
45 CP1 84 3.998
45 CP1 85 3.021
45 CP1 86 2.045
45 CP1 87 0.580
45 CP1 88 -0.885
45 CP1 89 -1.862
45 CP1 90 -1.862
45 CP1 91 -1.862
45 CP1 92 -1.373
45 CP1 93 -1.373
45 CP1 94 -0.885
45 CP1 95 -0.397
45 CP1 96 0.580
45 CP1 97 1.556
45 CP1 98 2.045
45 CP1 99 2.533
45 CP1 100 3.021
45 CP1 101 3.021
45 CP1 102 3.021
45 CP1 103 3.021
45 CP1 104 3.021
45 CP1 105 2.533
45 CP1 106 1.556
45 CP1 107 0.092
45 CP1 108 -1.373
45 CP1 109 -1.862
45 CP1 110 -2.350
45 CP1 111 -1.862
45 CP1 112 -0.885
45 CP1 113 -0.397
45 CP1 114 -0.397
45 CP1 115 -0.885
45 CP1 116 -0.885
45 CP1 117 -1.373
45 CP1 118 -1.373
45 CP1 119 -0.885
45 CP1 120 -0.397
45 CP1 121 -0.397
45 CP1 122 0.092
45 CP1 123 0.580
45 CP1 124 1.068
45 CP1 125 2.045
45 CP1 126 3.021
45 CP1 127 3.510
45 CP1 128 3.021
45 CP1 129 2.045
45 CP1 130 1.068
45 CP1 131 -0.397
45 CP1 132 -0.885
45 CP1 133 -1.373
45 CP1 134 -1.862
45 CP1 135 -1.862
45 CP1 136 -1.373
45 CP1 137 -0.885
45 CP1 138 -0.397
45 CP1 139 -0.397
45 CP1 140 -0.885
45 CP1 141 -1.862
45 CP1 142 -1.862
45 CP1 143 -2.350
45 CP1 144 -1.862
45 CP1 145 -1.373
45 CP1 146 -0.397
45 CP1 147 1.068
45 CP1 148 2.045
45 CP1 149 2.533
45 CP1 150 2.533
45 CP1 151 1.068
45 CP1 152 -0.397
45 CP1 153 -0.885
45 CP1 154 -1.373
45 CP1 155 -0.885
45 CP1 156 -0.397
45 CP1 157 -0.885
45 CP1 158 -1.373
45 CP1 159 -2.838
45 CP1 160 -4.303
45 CP1 161 -4.791
45 CP1 162 -4.791
45 CP1 163 -3.815
45 CP1 164 -3.326
45 CP1 165 -2.838
45 CP1 166 -1.862
45 CP1 167 -1.862
45 CP1 168 -0.885
45 CP1 169 0.580
45 CP1 170 1.556
45 CP1 171 1.556
45 CP1 172 1.068
45 CP1 173 -0.397
45 CP1 174 -0.885
45 CP1 175 -1.862
45 CP1 176 -1.373
45 CP1 177 -1.373
45 CP1 178 -1.373
45 CP1 179 -1.862
45 CP1 180 -1.373
45 CP1 181 -0.885
45 CP1 182 -0.397
45 CP1 183 0.092
45 CP1 184 0.092
45 CP1 185 -0.397
45 CP1 186 -0.885
45 CP1 187 -1.373
45 CP1 188 -0.397
45 CP1 189 1.068
45 CP1 190 2.533
45 CP1 191 3.510
45 CP1 192 3.998
45 CP1 193 3.998
45 CP1 194 3.510
45 CP1 195 3.021
45 CP1 196 2.045
45 CP1 197 1.068
45 CP1 198 0.580
45 CP1 199 0.580
45 CP1 200 0.580
45 CP1 201 1.068
45 CP1 202 1.556
45 CP1 203 2.045
45 CP1 204 2.045
45 CP1 205 1.556
45 CP1 206 0.580
45 CP1 207 0.580
45 CP1 208 0.092
45 CP1 209 0.580
45 CP1 210 0.580
45 CP1 211 0.580
45 CP1 212 -0.397
45 CP1 213 -1.373
45 CP1 214 -2.350
45 CP1 215 -2.350
45 CP1 216 -1.862
45 CP1 217 -1.373
45 CP1 218 -1.373
45 CP1 219 -1.862
45 CP1 220 -1.862
45 CP1 221 -2.350
45 CP1 222 -1.862
45 CP1 223 -1.373
45 CP1 224 -1.373
45 CP1 225 -1.373
45 CP1 226 -1.373
45 CP1 227 -0.885
45 CP1 228 0.092
45 CP1 229 2.045
45 CP1 230 3.510
45 CP1 231 4.486
45 CP1 232 4.974
45 CP1 233 4.974
45 CP1 234 4.486
45 CP1 235 3.510
45 CP1 236 2.045
45 CP1 237 0.580
45 CP1 238 -1.373
45 CP1 239 -2.350
45 CP1 240 -2.350
45 CP1 241 -1.862
45 CP1 242 -1.373
45 CP1 243 -0.885
45 CP1 244 -0.885
45 CP1 245 -0.885
45 CP1 246 -1.373
45 CP1 247 -1.862
45 CP1 248 -1.862
45 CP1 249 -1.862
45 CP1 250 -1.862
45 CP1 251 -1.373
45 CP1 252 -1.862
45 CP1 253 -1.862
45 CP1 254 -1.862
45 CP1 255 -1.862
# CP2 chan 21
45 CP2 0 4.008
45 CP2 1 4.496
45 CP2 2 5.473
45 CP2 3 5.961
45 CP2 4 5.961
45 CP2 5 5.473
45 CP2 6 4.008
45 CP2 7 3.031
45 CP2 8 2.055
45 CP2 9 2.055
45 CP2 10 2.055
45 CP2 11 2.055
45 CP2 12 2.055
45 CP2 13 2.055
45 CP2 14 1.567
45 CP2 15 0.590
45 CP2 16 -0.875
45 CP2 17 -2.828
45 CP2 18 -3.805
45 CP2 19 -3.805
45 CP2 20 -2.340
45 CP2 21 -0.875
45 CP2 22 0.590
45 CP2 23 0.590
45 CP2 24 -0.387
45 CP2 25 -0.875
45 CP2 26 -1.363
45 CP2 27 0.102
45 CP2 28 2.055
45 CP2 29 3.520
45 CP2 30 4.008
45 CP2 31 3.520
45 CP2 32 2.055
45 CP2 33 1.078
45 CP2 34 0.102
45 CP2 35 -0.875
45 CP2 36 -1.363
45 CP2 37 -1.363
45 CP2 38 -1.363
45 CP2 39 -0.387
45 CP2 40 -0.387
45 CP2 41 -0.387
45 CP2 42 -0.875
45 CP2 43 -2.340
45 CP2 44 -3.316
45 CP2 45 -3.805
45 CP2 46 -4.293
45 CP2 47 -4.293
45 CP2 48 -3.805
45 CP2 49 -3.316
45 CP2 50 -2.828
45 CP2 51 -1.851
45 CP2 52 -1.363
45 CP2 53 -0.387
45 CP2 54 0.102
45 CP2 55 0.102
45 CP2 56 -0.875
45 CP2 57 -1.363
45 CP2 58 -1.851
45 CP2 59 -2.340
45 CP2 60 -1.363
45 CP2 61 -0.387
45 CP2 62 0.102
45 CP2 63 1.078
45 CP2 64 0.590
45 CP2 65 0.590
45 CP2 66 1.567
45 CP2 67 2.055
45 CP2 68 2.055
45 CP2 69 2.055
45 CP2 70 1.078
45 CP2 71 0.590
45 CP2 72 0.590
45 CP2 73 0.590
45 CP2 74 1.567
45 CP2 75 2.055
45 CP2 76 3.031
45 CP2 77 4.008
45 CP2 78 4.496
45 CP2 79 5.473
45 CP2 80 5.473
45 CP2 81 5.961
45 CP2 82 5.473
45 CP2 83 4.985
45 CP2 84 4.985
45 CP2 85 5.473
45 CP2 86 5.961
45 CP2 87 6.938
45 CP2 88 6.938
45 CP2 89 6.938
45 CP2 90 5.961
45 CP2 91 4.496
45 CP2 92 3.520
45 CP2 93 2.055
45 CP2 94 1.078
45 CP2 95 1.078
45 CP2 96 1.078
45 CP2 97 2.055
45 CP2 98 2.055
45 CP2 99 2.055
45 CP2 100 2.055
45 CP2 101 2.055
45 CP2 102 2.055
45 CP2 103 2.543
45 CP2 104 3.031
45 CP2 105 3.031
45 CP2 106 3.520
45 CP2 107 3.520
45 CP2 108 4.496
45 CP2 109 5.473
45 CP2 110 5.473
45 CP2 111 5.473
45 CP2 112 4.985
45 CP2 113 3.520
45 CP2 114 3.031
45 CP2 115 3.031
45 CP2 116 3.520
45 CP2 117 3.520
45 CP2 118 3.520
45 CP2 119 3.031
45 CP2 120 2.055
45 CP2 121 1.567
45 CP2 122 2.055
45 CP2 123 3.520
45 CP2 124 4.496
45 CP2 125 4.985
45 CP2 126 4.985
45 CP2 127 4.985
45 CP2 128 4.496
45 CP2 129 4.496
45 CP2 130 4.008
45 CP2 131 3.520
45 CP2 132 2.543
45 CP2 133 1.078
45 CP2 134 0.102
45 CP2 135 0.102
45 CP2 136 0.590
45 CP2 137 1.078
45 CP2 138 1.078
45 CP2 139 0.590
45 CP2 140 -0.875
45 CP2 141 -2.828
45 CP2 142 -3.805
45 CP2 143 -4.781
45 CP2 144 -5.269
45 CP2 145 -4.781
45 CP2 146 -4.781
45 CP2 147 -4.293
45 CP2 148 -3.316
45 CP2 149 -2.828
45 CP2 150 -2.340
45 CP2 151 -2.340
45 CP2 152 -1.851
45 CP2 153 -1.363
45 CP2 154 -0.387
45 CP2 155 0.590
45 CP2 156 1.567
45 CP2 157 1.567
45 CP2 158 0.590
45 CP2 159 -0.875
45 CP2 160 -2.828
45 CP2 161 -4.781
45 CP2 162 -5.758
45 CP2 163 -5.758
45 CP2 164 -5.269
45 CP2 165 -4.781
45 CP2 166 -3.805
45 CP2 167 -3.316
45 CP2 168 -2.828
45 CP2 169 -2.828
45 CP2 170 -2.340
45 CP2 171 -1.363
45 CP2 172 -0.875
45 CP2 173 0.102
45 CP2 174 0.590
45 CP2 175 0.590
45 CP2 176 0.590
45 CP2 177 0.590
45 CP2 178 0.590
45 CP2 179 1.567
45 CP2 180 2.055
45 CP2 181 3.031
45 CP2 182 3.520
45 CP2 183 3.520
45 CP2 184 3.031
45 CP2 185 2.055
45 CP2 186 1.078
45 CP2 187 0.590
45 CP2 188 0.102
45 CP2 189 0.590
45 CP2 190 1.078
45 CP2 191 1.078
45 CP2 192 0.590
45 CP2 193 -0.875
45 CP2 194 -2.340
45 CP2 195 -2.828
45 CP2 196 -2.828
45 CP2 197 -2.340
45 CP2 198 -1.363
45 CP2 199 -1.363
45 CP2 200 -1.851
45 CP2 201 -1.851
45 CP2 202 -1.851
45 CP2 203 -1.363
45 CP2 204 -0.387
45 CP2 205 0.102
45 CP2 206 0.102
45 CP2 207 -0.387
45 CP2 208 -0.875
45 CP2 209 -0.875
45 CP2 210 -0.875
45 CP2 211 -0.387
45 CP2 212 0.102
45 CP2 213 0.102
45 CP2 214 0.590
45 CP2 215 1.078
45 CP2 216 1.567
45 CP2 217 1.567
45 CP2 218 1.078
45 CP2 219 0.102
45 CP2 220 0.102
45 CP2 221 0.102
45 CP2 222 0.590
45 CP2 223 0.102
45 CP2 224 -0.875
45 CP2 225 -1.851
45 CP2 226 -2.828
45 CP2 227 -2.340
45 CP2 228 -2.340
45 CP2 229 -1.363
45 CP2 230 -0.875
45 CP2 231 -0.875
45 CP2 232 -0.387
45 CP2 233 0.102
45 CP2 234 0.590
45 CP2 235 0.590
45 CP2 236 0.590
45 CP2 237 0.590
45 CP2 238 0.590
45 CP2 239 0.590
45 CP2 240 0.590
45 CP2 241 0.590
45 CP2 242 0.102
45 CP2 243 -0.387
45 CP2 244 -0.387
45 CP2 245 -0.387
45 CP2 246 0.102
45 CP2 247 0.102
45 CP2 248 -0.387
45 CP2 249 -0.387
45 CP2 250 -0.875
45 CP2 251 -0.875
45 CP2 252 -0.875
45 CP2 253 -1.363
45 CP2 254 -1.363
45 CP2 255 -2.340
# P3 chan 22
45 P3 0 4.893
45 P3 1 5.870
45 P3 2 6.358
45 P3 3 6.358
45 P3 4 4.893
45 P3 5 2.940
45 P3 6 0.498
45 P3 7 -0.966
45 P3 8 -2.431
45 P3 9 -2.920
45 P3 10 -3.408
45 P3 11 -2.920
45 P3 12 -1.943
45 P3 13 0.498
45 P3 14 3.428
45 P3 15 4.893
45 P3 16 3.916
45 P3 17 1.475
45 P3 18 -1.455
45 P3 19 -2.920
45 P3 20 -2.920
45 P3 21 -1.943
45 P3 22 -0.966
45 P3 23 -1.455
45 P3 24 -2.431
45 P3 25 -2.920
45 P3 26 -1.455
45 P3 27 0.987
45 P3 28 3.428
45 P3 29 4.893
45 P3 30 4.893
45 P3 31 3.428
45 P3 32 2.452
45 P3 33 1.963
45 P3 34 2.452
45 P3 35 1.963
45 P3 36 0.987
45 P3 37 -0.966
45 P3 38 -2.920
45 P3 39 -3.408
45 P3 40 -3.896
45 P3 41 -3.408
45 P3 42 -3.896
45 P3 43 -4.873
45 P3 44 -6.337
45 P3 45 -7.802
45 P3 46 -9.267
45 P3 47 -10.732
45 P3 48 -10.732
45 P3 49 -10.732
45 P3 50 -9.755
45 P3 51 -8.291
45 P3 52 -6.337
45 P3 53 -4.384
45 P3 54 -2.431
45 P3 55 -0.966
45 P3 56 0.010
45 P3 57 1.475
45 P3 58 1.963
45 P3 59 2.940
45 P3 60 4.893
45 P3 61 7.823
45 P3 62 10.264
45 P3 63 11.729
45 P3 64 11.729
45 P3 65 10.264
45 P3 66 8.799
45 P3 67 7.823
45 P3 68 6.846
45 P3 69 6.358
45 P3 70 5.870
45 P3 71 4.893
45 P3 72 3.916
45 P3 73 4.405
45 P3 74 6.358
45 P3 75 8.799
45 P3 76 11.729
45 P3 77 13.194
45 P3 78 13.194
45 P3 79 12.217
45 P3 80 10.752
45 P3 81 10.264
45 P3 82 11.241
45 P3 83 12.217
45 P3 84 12.217
45 P3 85 10.752
45 P3 86 8.311
45 P3 87 5.381
45 P3 88 3.428
45 P3 89 1.963
45 P3 90 1.963
45 P3 91 2.940
45 P3 92 3.428
45 P3 93 3.428
45 P3 94 3.916
45 P3 95 5.381
45 P3 96 6.358
45 P3 97 8.311
45 P3 98 9.288
45 P3 99 9.288
45 P3 100 8.799
45 P3 101 8.799
45 P3 102 8.311
45 P3 103 8.311
45 P3 104 8.311
45 P3 105 6.846
45 P3 106 4.893
45 P3 107 2.940
45 P3 108 1.475
45 P3 109 0.987
45 P3 110 1.963
45 P3 111 3.428
45 P3 112 4.893
45 P3 113 5.381
45 P3 114 4.405
45 P3 115 2.452
45 P3 116 0.498
45 P3 117 0.010
45 P3 118 0.010
45 P3 119 0.987
45 P3 120 0.987
45 P3 121 0.498
45 P3 122 -0.478
45 P3 123 -1.455
45 P3 124 -0.966
45 P3 125 0.498
45 P3 126 1.963
45 P3 127 2.452
45 P3 128 1.963
45 P3 129 0.010
45 P3 130 -2.431
45 P3 131 -4.384
45 P3 132 -6.337
45 P3 133 -6.826
45 P3 134 -6.826
45 P3 135 -5.849
45 P3 136 -4.384
45 P3 137 -2.920
45 P3 138 -2.431
45 P3 139 -3.896
45 P3 140 -5.361
45 P3 141 -6.337
45 P3 142 -6.826
45 P3 143 -6.337
45 P3 144 -4.873
45 P3 145 -2.920
45 P3 146 -0.478
45 P3 147 2.452
45 P3 148 4.405
45 P3 149 5.381
45 P3 150 4.893
45 P3 151 2.940
45 P3 152 0.987
45 P3 153 0.010
45 P3 154 0.010
45 P3 155 0.987
45 P3 156 0.987
45 P3 157 0.010
45 P3 158 -1.455
45 P3 159 -3.408
45 P3 160 -4.873
45 P3 161 -4.873
45 P3 162 -4.384
45 P3 163 -2.920
45 P3 164 -1.943
45 P3 165 -0.966
45 P3 166 0.010
45 P3 167 1.963
45 P3 168 4.405
45 P3 169 6.846
45 P3 170 8.311
45 P3 171 8.311
45 P3 172 6.846
45 P3 173 4.405
45 P3 174 2.452
45 P3 175 1.475
45 P3 176 0.987
45 P3 177 0.498
45 P3 178 0.010
45 P3 179 -0.478
45 P3 180 -0.966
45 P3 181 0.010
45 P3 182 1.475
45 P3 183 2.940
45 P3 184 2.940
45 P3 185 2.452
45 P3 186 1.963
45 P3 187 2.452
45 P3 188 4.405
45 P3 189 6.846
45 P3 190 8.799
45 P3 191 10.264
45 P3 192 9.776
45 P3 193 8.799
45 P3 194 7.334
45 P3 195 5.870
45 P3 196 3.916
45 P3 197 2.940
45 P3 198 2.452
45 P3 199 2.452
45 P3 200 3.916
45 P3 201 5.381
45 P3 202 7.334
45 P3 203 7.823
45 P3 204 7.334
45 P3 205 6.358
45 P3 206 4.893
45 P3 207 3.916
45 P3 208 3.428
45 P3 209 3.916
45 P3 210 4.405
45 P3 211 3.916
45 P3 212 3.428
45 P3 213 2.452
45 P3 214 1.963
45 P3 215 2.452
45 P3 216 3.428
45 P3 217 4.405
45 P3 218 4.893
45 P3 219 4.405
45 P3 220 3.428
45 P3 221 2.452
45 P3 222 1.963
45 P3 223 1.475
45 P3 224 0.010
45 P3 225 -0.966
45 P3 226 -0.966
45 P3 227 -0.478
45 P3 228 1.963
45 P3 229 4.405
45 P3 230 7.334
45 P3 231 9.288
45 P3 232 10.752
45 P3 233 10.752
45 P3 234 9.776
45 P3 235 7.823
45 P3 236 4.405
45 P3 237 0.498
45 P3 238 -2.920
45 P3 239 -4.873
45 P3 240 -5.849
45 P3 241 -5.361
45 P3 242 -3.896
45 P3 243 -2.431
45 P3 244 -0.966
45 P3 245 0.010
45 P3 246 0.010
45 P3 247 0.010
45 P3 248 -0.966
45 P3 249 -1.455
45 P3 250 -2.431
45 P3 251 -3.408
45 P3 252 -3.896
45 P3 253 -4.384
45 P3 254 -4.384
45 P3 255 -3.896
# P4 chan 23
45 P4 0 12.817
45 P4 1 14.282
45 P4 2 16.235
45 P4 3 16.724
45 P4 4 16.235
45 P4 5 13.794
45 P4 6 11.353
45 P4 7 9.399
45 P4 8 8.911
45 P4 9 8.423
45 P4 10 7.446
45 P4 11 5.981
45 P4 12 4.517
45 P4 13 2.563
45 P4 14 0.610
45 P4 15 -0.854
45 P4 16 -3.784
45 P4 17 -6.226
45 P4 18 -7.690
45 P4 19 -7.690
45 P4 20 -5.737
45 P4 21 -2.319
45 P4 22 1.099
45 P4 23 3.052
45 P4 24 4.028
45 P4 25 5.005
45 P4 26 7.935
45 P4 27 10.864
45 P4 28 13.306
45 P4 29 14.771
45 P4 30 13.306
45 P4 31 10.376
45 P4 32 7.446
45 P4 33 5.005
45 P4 34 3.540
45 P4 35 1.587
45 P4 36 0.122
45 P4 37 -1.343
45 P4 38 -1.831
45 P4 39 -1.343
45 P4 40 0.122
45 P4 41 0.122
45 P4 42 -0.854
45 P4 43 -2.319
45 P4 44 -3.784
45 P4 45 -4.272
45 P4 46 -4.272
45 P4 47 -4.761
45 P4 48 -4.272
45 P4 49 -3.784
45 P4 50 -2.319
45 P4 51 0.122
45 P4 52 2.563
45 P4 53 4.517
45 P4 54 5.005
45 P4 55 4.517
45 P4 56 3.540
45 P4 57 3.052
45 P4 58 3.540
45 P4 59 5.005
45 P4 60 6.470
45 P4 61 7.935
45 P4 62 8.911
45 P4 63 9.399
45 P4 64 9.399
45 P4 65 9.888
45 P4 66 10.376
45 P4 67 10.376
45 P4 68 10.376
45 P4 69 8.911
45 P4 70 7.935
45 P4 71 7.446
45 P4 72 7.935
45 P4 73 8.423
45 P4 74 9.888
45 P4 75 10.864
45 P4 76 11.841
45 P4 77 12.817
45 P4 78 13.794
45 P4 79 15.259
45 P4 80 16.235
45 P4 81 16.235
45 P4 82 15.259
45 P4 83 14.282
45 P4 84 14.282
45 P4 85 14.282
45 P4 86 14.771
45 P4 87 15.259
45 P4 88 14.771
45 P4 89 14.282
45 P4 90 13.306
45 P4 91 11.841
45 P4 92 10.376
45 P4 93 8.423
45 P4 94 7.446
45 P4 95 6.958
45 P4 96 7.935
45 P4 97 9.399
45 P4 98 9.888
45 P4 99 9.888
45 P4 100 9.399
45 P4 101 9.399
45 P4 102 10.376
45 P4 103 11.841
45 P4 104 13.306
45 P4 105 13.306
45 P4 106 13.306
45 P4 107 13.306
45 P4 108 13.794
45 P4 109 14.771
45 P4 110 15.747
45 P4 111 15.259
45 P4 112 13.794
45 P4 113 11.353
45 P4 114 9.888
45 P4 115 8.911
45 P4 116 8.911
45 P4 117 8.423
45 P4 118 7.446
45 P4 119 5.981
45 P4 120 5.493
45 P4 121 5.005
45 P4 122 5.493
45 P4 123 6.958
45 P4 124 7.935
45 P4 125 8.911
45 P4 126 9.399
45 P4 127 9.888
45 P4 128 9.888
45 P4 129 9.888
45 P4 130 9.399
45 P4 131 7.446
45 P4 132 5.005
45 P4 133 3.052
45 P4 134 1.587
45 P4 135 2.075
45 P4 136 3.052
45 P4 137 4.028
45 P4 138 4.517
45 P4 139 3.052
45 P4 140 0.122
45 P4 141 -3.296
45 P4 142 -5.737
45 P4 143 -7.202
45 P4 144 -8.179
45 P4 145 -8.179
45 P4 146 -7.202
45 P4 147 -5.737
45 P4 148 -4.761
45 P4 149 -2.808
45 P4 150 -0.854
45 P4 151 0.610
45 P4 152 2.075
45 P4 153 3.540
45 P4 154 5.005
45 P4 155 6.958
45 P4 156 8.423
45 P4 157 8.911
45 P4 158 7.446
45 P4 159 4.517
45 P4 160 1.099
45 P4 161 -2.319
45 P4 162 -4.761
45 P4 163 -6.226
45 P4 164 -5.737
45 P4 165 -5.249
45 P4 166 -3.296
45 P4 167 -1.831
45 P4 168 -0.854
45 P4 169 0.610
45 P4 170 1.099
45 P4 171 2.075
45 P4 172 2.075
45 P4 173 1.587
45 P4 174 1.587
45 P4 175 1.099
45 P4 176 2.075
45 P4 177 3.052
45 P4 178 4.517
45 P4 179 5.981
45 P4 180 6.958
45 P4 181 7.446
45 P4 182 7.446
45 P4 183 7.935
45 P4 184 7.446
45 P4 185 6.470
45 P4 186 5.005
45 P4 187 4.028
45 P4 188 3.540
45 P4 189 3.540
45 P4 190 3.540
45 P4 191 3.052
45 P4 192 1.587
45 P4 193 -0.366
45 P4 194 -2.319
45 P4 195 -2.808
45 P4 196 -3.296
45 P4 197 -2.319
45 P4 198 -1.343
45 P4 199 -0.854
45 P4 200 -0.366
45 P4 201 -0.366
45 P4 202 0.610
45 P4 203 1.099
45 P4 204 1.587
45 P4 205 1.587
45 P4 206 1.099
45 P4 207 1.099
45 P4 208 1.587
45 P4 209 3.540
45 P4 210 5.005
45 P4 211 5.981
45 P4 212 6.958
45 P4 213 6.470
45 P4 214 5.493
45 P4 215 5.005
45 P4 216 5.005
45 P4 217 5.005
45 P4 218 4.517
45 P4 219 4.028
45 P4 220 3.540
45 P4 221 3.052
45 P4 222 2.563
45 P4 223 2.075
45 P4 224 0.610
45 P4 225 -1.343
45 P4 226 -1.831
45 P4 227 -1.831
45 P4 228 -0.366
45 P4 229 1.099
45 P4 230 2.563
45 P4 231 3.540
45 P4 232 3.540
45 P4 233 4.028
45 P4 234 4.028
45 P4 235 4.028
45 P4 236 4.028
45 P4 237 4.028
45 P4 238 4.517
45 P4 239 4.517
45 P4 240 5.005
45 P4 241 4.517
45 P4 242 4.028
45 P4 243 3.540
45 P4 244 3.540
45 P4 245 4.028
45 P4 246 4.028
45 P4 247 4.517
45 P4 248 3.540
45 P4 249 2.563
45 P4 250 1.587
45 P4 251 1.099
45 P4 252 0.610
45 P4 253 0.122
45 P4 254 -0.366
45 P4 255 -1.343
# PZ chan 24
45 PZ 0 4.985
45 PZ 1 4.985
45 PZ 2 4.985
45 PZ 3 5.473
45 PZ 4 4.496
45 PZ 5 3.520
45 PZ 6 2.055
45 PZ 7 0.590
45 PZ 8 0.102
45 PZ 9 -0.387
45 PZ 10 -0.875
45 PZ 11 -0.387
45 PZ 12 0.102
45 PZ 13 1.078
45 PZ 14 2.543
45 PZ 15 3.031
45 PZ 16 2.055
45 PZ 17 0.590
45 PZ 18 -1.363
45 PZ 19 -2.828
45 PZ 20 -2.340
45 PZ 21 -0.875
45 PZ 22 0.102
45 PZ 23 -0.387
45 PZ 24 -1.851
45 PZ 25 -2.828
45 PZ 26 -2.828
45 PZ 27 -0.875
45 PZ 28 1.078
45 PZ 29 3.031
45 PZ 30 3.031
45 PZ 31 2.543
45 PZ 32 1.567
45 PZ 33 1.078
45 PZ 34 0.590
45 PZ 35 0.102
45 PZ 36 -1.363
45 PZ 37 -2.828
45 PZ 38 -3.805
45 PZ 39 -3.805
45 PZ 40 -2.828
45 PZ 41 -1.851
45 PZ 42 -1.851
45 PZ 43 -2.828
45 PZ 44 -4.781
45 PZ 45 -6.246
45 PZ 46 -7.711
45 PZ 47 -8.199
45 PZ 48 -8.199
45 PZ 49 -7.711
45 PZ 50 -6.246
45 PZ 51 -4.293
45 PZ 52 -2.340
45 PZ 53 0.102
45 PZ 54 1.078
45 PZ 55 1.567
45 PZ 56 1.078
45 PZ 57 1.078
45 PZ 58 1.078
45 PZ 59 2.055
45 PZ 60 3.520
45 PZ 61 5.473
45 PZ 62 6.449
45 PZ 63 6.938
45 PZ 64 7.426
45 PZ 65 7.426
45 PZ 66 7.426
45 PZ 67 7.426
45 PZ 68 6.938
45 PZ 69 5.961
45 PZ 70 4.985
45 PZ 71 4.008
45 PZ 72 4.496
45 PZ 73 5.961
45 PZ 74 8.403
45 PZ 75 10.356
45 PZ 76 12.797
45 PZ 77 14.262
45 PZ 78 14.262
45 PZ 79 13.774
45 PZ 80 13.285
45 PZ 81 12.309
45 PZ 82 11.820
45 PZ 83 11.332
45 PZ 84 10.844
45 PZ 85 10.356
45 PZ 86 9.379
45 PZ 87 8.403
45 PZ 88 7.914
45 PZ 89 7.426
45 PZ 90 7.426
45 PZ 91 6.938
45 PZ 92 6.449
45 PZ 93 5.961
45 PZ 94 5.961
45 PZ 95 5.961
45 PZ 96 6.449
45 PZ 97 7.426
45 PZ 98 7.914
45 PZ 99 8.403
45 PZ 100 8.403
45 PZ 101 8.891
45 PZ 102 8.891
45 PZ 103 9.379
45 PZ 104 9.867
45 PZ 105 9.379
45 PZ 106 8.403
45 PZ 107 6.938
45 PZ 108 5.961
45 PZ 109 5.473
45 PZ 110 5.473
45 PZ 111 6.449
45 PZ 112 6.938
45 PZ 113 6.938
45 PZ 114 5.961
45 PZ 115 4.008
45 PZ 116 3.031
45 PZ 117 2.055
45 PZ 118 2.055
45 PZ 119 2.055
45 PZ 120 2.543
45 PZ 121 3.031
45 PZ 122 3.520
45 PZ 123 4.985
45 PZ 124 6.449
45 PZ 125 8.403
45 PZ 126 9.379
45 PZ 127 9.867
45 PZ 128 9.379
45 PZ 129 8.891
45 PZ 130 7.426
45 PZ 131 5.961
45 PZ 132 3.520
45 PZ 133 1.078
45 PZ 134 -0.387
45 PZ 135 -0.387
45 PZ 136 0.102
45 PZ 137 1.078
45 PZ 138 1.078
45 PZ 139 -0.387
45 PZ 140 -2.340
45 PZ 141 -4.293
45 PZ 142 -5.758
45 PZ 143 -6.246
45 PZ 144 -6.246
45 PZ 145 -5.758
45 PZ 146 -4.293
45 PZ 147 -1.851
45 PZ 148 1.078
45 PZ 149 4.008
45 PZ 150 5.961
45 PZ 151 5.961
45 PZ 152 5.473
45 PZ 153 4.985
45 PZ 154 5.473
45 PZ 155 5.473
45 PZ 156 5.473
45 PZ 157 4.985
45 PZ 158 2.543
45 PZ 159 -0.875
45 PZ 160 -4.293
45 PZ 161 -6.246
45 PZ 162 -7.222
45 PZ 163 -6.734
45 PZ 164 -6.246
45 PZ 165 -4.781
45 PZ 166 -4.293
45 PZ 167 -3.316
45 PZ 168 -2.340
45 PZ 169 -0.875
45 PZ 170 1.078
45 PZ 171 2.543
45 PZ 172 3.520
45 PZ 173 3.520
45 PZ 174 3.520
45 PZ 175 3.520
45 PZ 176 4.496
45 PZ 177 4.985
45 PZ 178 5.473
45 PZ 179 4.985
45 PZ 180 4.985
45 PZ 181 4.985
45 PZ 182 5.473
45 PZ 183 5.473
45 PZ 184 4.985
45 PZ 185 3.520
45 PZ 186 1.567
45 PZ 187 0.590
45 PZ 188 0.590
45 PZ 189 1.567
45 PZ 190 3.520
45 PZ 191 4.985
45 PZ 192 4.985
45 PZ 193 4.496
45 PZ 194 3.520
45 PZ 195 3.031
45 PZ 196 3.031
45 PZ 197 3.031
45 PZ 198 2.543
45 PZ 199 2.543
45 PZ 200 2.543
45 PZ 201 2.543
45 PZ 202 3.031
45 PZ 203 3.520
45 PZ 204 3.520
45 PZ 205 3.031
45 PZ 206 1.567
45 PZ 207 0.590
45 PZ 208 0.590
45 PZ 209 0.590
45 PZ 210 1.567
45 PZ 211 2.543
45 PZ 212 3.031
45 PZ 213 3.031
45 PZ 214 3.031
45 PZ 215 3.520
45 PZ 216 4.008
45 PZ 217 4.008
45 PZ 218 4.496
45 PZ 219 4.008
45 PZ 220 3.520
45 PZ 221 3.031
45 PZ 222 2.055
45 PZ 223 1.567
45 PZ 224 0.590
45 PZ 225 -0.875
45 PZ 226 -1.851
45 PZ 227 -1.363
45 PZ 228 -0.387
45 PZ 229 1.567
45 PZ 230 3.520
45 PZ 231 4.985
45 PZ 232 5.473
45 PZ 233 5.961
45 PZ 234 5.961
45 PZ 235 5.473
45 PZ 236 4.985
45 PZ 237 3.520
45 PZ 238 2.543
45 PZ 239 1.078
45 PZ 240 0.590
45 PZ 241 -0.387
45 PZ 242 -0.875
45 PZ 243 -0.875
45 PZ 244 -0.387
45 PZ 245 -0.387
45 PZ 246 0.102
45 PZ 247 -0.387
45 PZ 248 -0.875
45 PZ 249 -0.875
45 PZ 250 -0.875
45 PZ 251 -0.875
45 PZ 252 -0.387
45 PZ 253 -0.875
45 PZ 254 -0.875
45 PZ 255 -1.363
# P8 chan 25
45 P8 0 18.728
45 P8 1 23.122
45 P8 2 26.052
45 P8 3 27.517
45 P8 4 26.540
45 P8 5 23.122
45 P8 6 18.728
45 P8 7 15.798
45 P8 8 13.845
45 P8 9 13.357
45 P8 10 12.868
45 P8 11 10.915
45 P8 12 8.474
45 P8 13 5.544
45 P8 14 2.126
45 P8 15 -0.804
45 P8 16 -4.222
45 P8 17 -7.640
45 P8 18 -10.569
45 P8 19 -11.058
45 P8 20 -8.616
45 P8 21 -4.222
45 P8 22 0.661
45 P8 23 6.032
45 P8 24 10.427
45 P8 25 14.333
45 P8 26 19.216
45 P8 27 24.587
45 P8 28 28.982
45 P8 29 30.446
45 P8 30 28.493
45 P8 31 23.610
45 P8 32 18.239
45 P8 33 13.357
45 P8 34 9.450
45 P8 35 6.521
45 P8 36 4.567
45 P8 37 3.103
45 P8 38 2.126
45 P8 39 2.126
45 P8 40 2.614
45 P8 41 2.126
45 P8 42 1.638
45 P8 43 0.661
45 P8 44 0.173
45 P8 45 1.149
45 P8 46 2.126
45 P8 47 2.614
45 P8 48 3.103
45 P8 49 2.614
45 P8 50 2.614
45 P8 51 3.591
45 P8 52 5.056
45 P8 53 6.032
45 P8 54 6.521
45 P8 55 5.544
45 P8 56 3.591
45 P8 57 2.614
45 P8 58 3.103
45 P8 59 6.032
45 P8 60 9.450
45 P8 61 13.357
45 P8 62 15.798
45 P8 63 16.286
45 P8 64 16.286
45 P8 65 16.286
45 P8 66 16.774
45 P8 67 17.263
45 P8 68 16.774
45 P8 69 15.310
45 P8 70 13.845
45 P8 71 12.868
45 P8 72 12.868
45 P8 73 13.845
45 P8 74 14.333
45 P8 75 13.845
45 P8 76 13.357
45 P8 77 12.868
45 P8 78 14.333
45 P8 79 15.798
45 P8 80 17.751
45 P8 81 18.239
45 P8 82 17.751
45 P8 83 17.751
45 P8 84 17.751
45 P8 85 18.728
45 P8 86 19.216
45 P8 87 19.216
45 P8 88 18.728
45 P8 89 17.751
45 P8 90 17.263
45 P8 91 16.774
45 P8 92 15.798
45 P8 93 14.821
45 P8 94 13.845
45 P8 95 13.845
45 P8 96 14.821
45 P8 97 16.286
45 P8 98 16.774
45 P8 99 15.798
45 P8 100 14.333
45 P8 101 13.357
45 P8 102 14.333
45 P8 103 16.774
45 P8 104 18.728
45 P8 105 19.216
45 P8 106 18.728
45 P8 107 17.751
45 P8 108 18.728
45 P8 109 20.681
45 P8 110 22.634
45 P8 111 23.610
45 P8 112 22.146
45 P8 113 19.216
45 P8 114 16.774
45 P8 115 16.286
45 P8 116 15.798
45 P8 117 15.798
45 P8 118 14.333
45 P8 119 11.403
45 P8 120 8.962
45 P8 121 7.009
45 P8 122 6.521
45 P8 123 6.032
45 P8 124 6.032
45 P8 125 6.521
45 P8 126 7.497
45 P8 127 8.962
45 P8 128 10.427
45 P8 129 10.427
45 P8 130 8.962
45 P8 131 7.009
45 P8 132 5.544
45 P8 133 4.079
45 P8 134 4.567
45 P8 135 5.056
45 P8 136 6.521
45 P8 137 7.985
45 P8 138 8.962
45 P8 139 8.474
45 P8 140 7.009
45 P8 141 4.079
45 P8 142 0.173
45 P8 143 -3.245
45 P8 144 -5.198
45 P8 145 -5.686
45 P8 146 -5.198
45 P8 147 -4.710
45 P8 148 -3.733
45 P8 149 -3.245
45 P8 150 -2.757
45 P8 151 -1.780
45 P8 152 -0.315
45 P8 153 1.149
45 P8 154 3.103
45 P8 155 5.544
45 P8 156 7.985
45 P8 157 9.939
45 P8 158 10.915
45 P8 159 9.939
45 P8 160 7.985
45 P8 161 4.567
45 P8 162 1.149
45 P8 163 -1.292
45 P8 164 -2.268
45 P8 165 -1.780
45 P8 166 0.173
45 P8 167 2.126
45 P8 168 4.567
45 P8 169 6.521
45 P8 170 7.985
45 P8 171 8.474
45 P8 172 7.009
45 P8 173 4.567
45 P8 174 2.126
45 P8 175 1.149
45 P8 176 1.638
45 P8 177 3.591
45 P8 178 5.544
45 P8 179 7.009
45 P8 180 7.497
45 P8 181 7.985
45 P8 182 8.962
45 P8 183 10.915
45 P8 184 11.892
45 P8 185 11.403
45 P8 186 9.939
45 P8 187 8.474
45 P8 188 7.497
45 P8 189 7.497
45 P8 190 7.497
45 P8 191 6.521
45 P8 192 4.079
45 P8 193 0.661
45 P8 194 -1.780
45 P8 195 -3.733
45 P8 196 -4.222
45 P8 197 -3.733
45 P8 198 -3.245
45 P8 199 -2.268
45 P8 200 -1.780
45 P8 201 -0.315
45 P8 202 1.149
45 P8 203 3.103
45 P8 204 4.567
45 P8 205 5.056
45 P8 206 6.032
45 P8 207 7.497
45 P8 208 9.939
45 P8 209 12.868
45 P8 210 15.798
45 P8 211 17.263
45 P8 212 17.263
45 P8 213 16.774
45 P8 214 16.286
45 P8 215 16.286
45 P8 216 16.774
45 P8 217 17.751
45 P8 218 18.239
45 P8 219 17.263
45 P8 220 16.774
45 P8 221 15.310
45 P8 222 14.333
45 P8 223 12.380
45 P8 224 10.427
45 P8 225 7.985
45 P8 226 6.521
45 P8 227 6.521
45 P8 228 7.497
45 P8 229 9.450
45 P8 230 11.403
45 P8 231 12.380
45 P8 232 12.868
45 P8 233 12.868
45 P8 234 13.357
45 P8 235 13.357
45 P8 236 13.357
45 P8 237 13.845
45 P8 238 13.845
45 P8 239 14.333
45 P8 240 14.821
45 P8 241 14.821
45 P8 242 14.821
45 P8 243 14.333
45 P8 244 14.333
45 P8 245 14.821
45 P8 246 15.310
45 P8 247 15.310
45 P8 248 14.333
45 P8 249 11.892
45 P8 250 8.962
45 P8 251 6.521
45 P8 252 4.079
45 P8 253 3.103
45 P8 254 2.614
45 P8 255 2.614
# P7 chan 26
45 P7 0 6.429
45 P7 1 8.382
45 P7 2 9.847
45 P7 3 9.847
45 P7 4 8.382
45 P7 5 5.452
45 P7 6 3.011
45 P7 7 1.546
45 P7 8 1.546
45 P7 9 1.546
45 P7 10 1.546
45 P7 11 1.546
45 P7 12 2.035
45 P7 13 2.523
45 P7 14 3.499
45 P7 15 3.011
45 P7 16 1.058
45 P7 17 -1.383
45 P7 18 -3.825
45 P7 19 -5.290
45 P7 20 -4.801
45 P7 21 -3.337
45 P7 22 -1.872
45 P7 23 -1.383
45 P7 24 -1.383
45 P7 25 -0.407
45 P7 26 2.523
45 P7 27 6.429
45 P7 28 10.824
45 P7 29 13.265
45 P7 30 13.265
45 P7 31 11.312
45 P7 32 9.359
45 P7 33 7.894
45 P7 34 7.406
45 P7 35 6.429
45 P7 36 4.964
45 P7 37 2.523
45 P7 38 -0.407
45 P7 39 -1.383
45 P7 40 -1.872
45 P7 41 -1.383
45 P7 42 -0.895
45 P7 43 -1.872
45 P7 44 -3.337
45 P7 45 -5.290
45 P7 46 -7.243
45 P7 47 -8.219
45 P7 48 -9.196
45 P7 49 -8.708
45 P7 50 -7.731
45 P7 51 -6.266
45 P7 52 -3.825
45 P7 53 -1.872
45 P7 54 -0.407
45 P7 55 0.081
45 P7 56 0.570
45 P7 57 1.546
45 P7 58 3.011
45 P7 59 5.941
45 P7 60 10.335
45 P7 61 14.242
45 P7 62 17.171
45 P7 63 18.148
45 P7 64 16.683
45 P7 65 14.730
45 P7 66 12.288
45 P7 67 11.312
45 P7 68 10.824
45 P7 69 10.824
45 P7 70 9.847
45 P7 71 8.870
45 P7 72 7.894
45 P7 73 8.382
45 P7 74 9.847
45 P7 75 12.777
45 P7 76 16.195
45 P7 77 17.660
45 P7 78 18.148
45 P7 79 16.195
45 P7 80 14.730
45 P7 81 14.242
45 P7 82 15.218
45 P7 83 16.195
45 P7 84 16.683
45 P7 85 15.218
45 P7 86 10.824
45 P7 87 6.429
45 P7 88 3.499
45 P7 89 3.011
45 P7 90 3.988
45 P7 91 5.941
45 P7 92 6.917
45 P7 93 6.917
45 P7 94 6.917
45 P7 95 7.406
45 P7 96 8.870
45 P7 97 11.312
45 P7 98 12.777
45 P7 99 13.265
45 P7 100 12.288
45 P7 101 11.800
45 P7 102 11.800
45 P7 103 12.777
45 P7 104 13.265
45 P7 105 12.288
45 P7 106 9.359
45 P7 107 6.917
45 P7 108 5.941
45 P7 109 6.917
45 P7 110 9.359
45 P7 111 11.800
45 P7 112 12.777
45 P7 113 12.288
45 P7 114 10.335
45 P7 115 8.870
45 P7 116 6.917
45 P7 117 6.429
45 P7 118 5.941
45 P7 119 5.941
45 P7 120 4.964
45 P7 121 3.499
45 P7 122 1.546
45 P7 123 0.081
45 P7 124 0.081
45 P7 125 1.058
45 P7 126 2.523
45 P7 127 3.499
45 P7 128 3.011
45 P7 129 1.546
45 P7 130 -0.895
45 P7 131 -2.848
45 P7 132 -4.313
45 P7 133 -4.801
45 P7 134 -3.337
45 P7 135 -1.872
45 P7 136 0.570
45 P7 137 2.523
45 P7 138 3.011
45 P7 139 2.035
45 P7 140 0.081
45 P7 141 -2.360
45 P7 142 -4.313
45 P7 143 -5.290
45 P7 144 -4.313
45 P7 145 -2.360
45 P7 146 0.081
45 P7 147 2.523
45 P7 148 3.988
45 P7 149 3.499
45 P7 150 2.035
45 P7 151 -0.407
45 P7 152 -1.872
45 P7 153 -2.360
45 P7 154 -1.383
45 P7 155 0.081
45 P7 156 1.058
45 P7 157 1.058
45 P7 158 0.081
45 P7 159 -0.895
45 P7 160 -1.383
45 P7 161 -0.407
45 P7 162 2.035
45 P7 163 4.476
45 P7 164 5.941
45 P7 165 7.406
45 P7 166 8.870
45 P7 167 10.335
45 P7 168 11.800
45 P7 169 13.265
45 P7 170 13.265
45 P7 171 10.824
45 P7 172 7.406
45 P7 173 3.499
45 P7 174 1.058
45 P7 175 0.570
45 P7 176 1.058
45 P7 177 1.058
45 P7 178 1.058
45 P7 179 1.058
45 P7 180 1.058
45 P7 181 2.523
45 P7 182 4.964
45 P7 183 6.429
45 P7 184 6.917
45 P7 185 6.429
45 P7 186 5.941
45 P7 187 6.429
45 P7 188 8.382
45 P7 189 11.312
45 P7 190 13.265
45 P7 191 13.753
45 P7 192 12.777
45 P7 193 10.335
45 P7 194 8.382
45 P7 195 6.429
45 P7 196 5.452
45 P7 197 4.964
45 P7 198 4.964
45 P7 199 5.452
45 P7 200 6.429
45 P7 201 8.382
45 P7 202 10.335
45 P7 203 11.312
45 P7 204 11.312
45 P7 205 10.335
45 P7 206 8.870
45 P7 207 8.382
45 P7 208 8.382
45 P7 209 8.870
45 P7 210 8.870
45 P7 211 9.359
45 P7 212 8.870
45 P7 213 8.870
45 P7 214 9.359
45 P7 215 10.824
45 P7 216 12.288
45 P7 217 13.265
45 P7 218 12.777
45 P7 219 11.800
45 P7 220 10.824
45 P7 221 10.335
45 P7 222 9.847
45 P7 223 8.870
45 P7 224 6.917
45 P7 225 4.964
45 P7 226 3.499
45 P7 227 3.988
45 P7 228 6.429
45 P7 229 9.359
45 P7 230 12.288
45 P7 231 13.753
45 P7 232 14.730
45 P7 233 14.730
45 P7 234 13.753
45 P7 235 11.800
45 P7 236 7.894
45 P7 237 3.988
45 P7 238 0.570
45 P7 239 -0.895
45 P7 240 -0.895
45 P7 241 -0.407
45 P7 242 0.570
45 P7 243 1.546
45 P7 244 2.523
45 P7 245 4.476
45 P7 246 5.941
45 P7 247 5.941
45 P7 248 4.964
45 P7 249 2.523
45 P7 250 -0.407
45 P7 251 -2.360
45 P7 252 -4.313
45 P7 253 -4.801
45 P7 254 -4.801
45 P7 255 -3.825
# PO2 chan 27
45 PO2 0 15.483
45 PO2 1 16.459
45 PO2 2 17.924
45 PO2 3 17.924
45 PO2 4 17.436
45 PO2 5 14.994
45 PO2 6 12.065
45 PO2 7 9.623
45 PO2 8 8.158
45 PO2 9 7.182
45 PO2 10 6.205
45 PO2 11 4.740
45 PO2 12 3.764
45 PO2 13 2.787
45 PO2 14 1.811
45 PO2 15 0.346
45 PO2 16 -2.096
45 PO2 17 -5.025
45 PO2 18 -6.978
45 PO2 19 -7.467
45 PO2 20 -6.002
45 PO2 21 -3.072
45 PO2 22 -0.631
45 PO2 23 0.834
45 PO2 24 1.811
45 PO2 25 3.764
45 PO2 26 7.182
45 PO2 27 11.088
45 PO2 28 14.994
45 PO2 29 16.459
45 PO2 30 15.971
45 PO2 31 13.041
45 PO2 32 10.111
45 PO2 33 7.182
45 PO2 34 4.740
45 PO2 35 2.787
45 PO2 36 0.346
45 PO2 37 -1.607
45 PO2 38 -2.584
45 PO2 39 -2.584
45 PO2 40 -1.607
45 PO2 41 -0.631
45 PO2 42 -0.631
45 PO2 43 -1.607
45 PO2 44 -2.584
45 PO2 45 -3.560
45 PO2 46 -4.049
45 PO2 47 -4.537
45 PO2 48 -5.514
45 PO2 49 -5.025
45 PO2 50 -3.072
45 PO2 51 0.346
45 PO2 52 3.764
45 PO2 53 6.694
45 PO2 54 8.647
45 PO2 55 9.135
45 PO2 56 8.647
45 PO2 57 8.158
45 PO2 58 9.135
45 PO2 59 11.088
45 PO2 60 13.529
45 PO2 61 15.483
45 PO2 62 15.971
45 PO2 63 15.971
45 PO2 64 15.483
45 PO2 65 15.483
45 PO2 66 15.971
45 PO2 67 16.459
45 PO2 68 15.971
45 PO2 69 14.994
45 PO2 70 14.018
45 PO2 71 13.041
45 PO2 72 13.529
45 PO2 73 15.483
45 PO2 74 17.924
45 PO2 75 20.365
45 PO2 76 21.830
45 PO2 77 23.295
45 PO2 78 24.272
45 PO2 79 24.760
45 PO2 80 24.272
45 PO2 81 23.295
45 PO2 82 22.319
45 PO2 83 20.854
45 PO2 84 20.365
45 PO2 85 19.877
45 PO2 86 19.389
45 PO2 87 18.412
45 PO2 88 17.436
45 PO2 89 16.947
45 PO2 90 16.459
45 PO2 91 15.971
45 PO2 92 15.483
45 PO2 93 14.994
45 PO2 94 14.018
45 PO2 95 14.018
45 PO2 96 14.994
45 PO2 97 15.971
45 PO2 98 16.947
45 PO2 99 16.947
45 PO2 100 16.459
45 PO2 101 15.971
45 PO2 102 16.947
45 PO2 103 18.412
45 PO2 104 18.901
45 PO2 105 18.901
45 PO2 106 17.924
45 PO2 107 16.459
45 PO2 108 16.459
45 PO2 109 17.436
45 PO2 110 18.412
45 PO2 111 19.389
45 PO2 112 18.412
45 PO2 113 16.947
45 PO2 114 14.506
45 PO2 115 12.553
45 PO2 116 11.088
45 PO2 117 9.623
45 PO2 118 8.647
45 PO2 119 7.182
45 PO2 120 5.717
45 PO2 121 5.229
45 PO2 122 5.717
45 PO2 123 6.694
45 PO2 124 9.135
45 PO2 125 11.088
45 PO2 126 12.553
45 PO2 127 14.018
45 PO2 128 14.506
45 PO2 129 14.506
45 PO2 130 13.041
45 PO2 131 11.088
45 PO2 132 7.670
45 PO2 133 4.740
45 PO2 134 3.276
45 PO2 135 3.276
45 PO2 136 4.740
45 PO2 137 6.205
45 PO2 138 5.717
45 PO2 139 3.276
45 PO2 140 -0.142
45 PO2 141 -4.537
45 PO2 142 -6.978
45 PO2 143 -8.443
45 PO2 144 -9.908
45 PO2 145 -9.908
45 PO2 146 -8.931
45 PO2 147 -6.490
45 PO2 148 -3.072
45 PO2 149 0.834
45 PO2 150 4.252
45 PO2 151 6.205
45 PO2 152 7.182
45 PO2 153 7.182
45 PO2 154 7.670
45 PO2 155 9.135
45 PO2 156 10.600
45 PO2 157 10.600
45 PO2 158 8.158
45 PO2 159 4.740
45 PO2 160 0.346
45 PO2 161 -3.072
45 PO2 162 -5.025
45 PO2 163 -6.002
45 PO2 164 -5.514
45 PO2 165 -4.537
45 PO2 166 -2.584
45 PO2 167 -1.119
45 PO2 168 1.322
45 PO2 169 3.276
45 PO2 170 4.740
45 PO2 171 4.740
45 PO2 172 4.252
45 PO2 173 3.276
45 PO2 174 2.787
45 PO2 175 3.276
45 PO2 176 4.740
45 PO2 177 6.694
45 PO2 178 7.670
45 PO2 179 8.647
45 PO2 180 8.647
45 PO2 181 9.135
45 PO2 182 9.135
45 PO2 183 8.647
45 PO2 184 7.670
45 PO2 185 6.694
45 PO2 186 5.229
45 PO2 187 4.252
45 PO2 188 4.252
45 PO2 189 4.252
45 PO2 190 4.740
45 PO2 191 4.252
45 PO2 192 3.276
45 PO2 193 1.811
45 PO2 194 -0.142
45 PO2 195 -1.119
45 PO2 196 -1.119
45 PO2 197 -0.631
45 PO2 198 -0.631
45 PO2 199 0.346
45 PO2 200 0.346
45 PO2 201 0.834
45 PO2 202 1.811
45 PO2 203 2.299
45 PO2 204 2.299
45 PO2 205 2.299
45 PO2 206 1.322
45 PO2 207 0.346
45 PO2 208 1.322
45 PO2 209 2.787
45 PO2 210 5.717
45 PO2 211 8.158
45 PO2 212 9.135
45 PO2 213 8.647
45 PO2 214 7.670
45 PO2 215 6.694
45 PO2 216 6.694
45 PO2 217 6.694
45 PO2 218 6.205
45 PO2 219 6.205
45 PO2 220 4.740
45 PO2 221 4.252
45 PO2 222 3.276
45 PO2 223 1.811
45 PO2 224 0.834
45 PO2 225 -0.631
45 PO2 226 -1.607
45 PO2 227 -1.119
45 PO2 228 0.346
45 PO2 229 3.276
45 PO2 230 5.717
45 PO2 231 7.182
45 PO2 232 7.670
45 PO2 233 8.158
45 PO2 234 7.670
45 PO2 235 7.182
45 PO2 236 6.694
45 PO2 237 6.205
45 PO2 238 5.717
45 PO2 239 5.229
45 PO2 240 4.740
45 PO2 241 4.252
45 PO2 242 3.764
45 PO2 243 3.276
45 PO2 244 3.764
45 PO2 245 4.252
45 PO2 246 4.252
45 PO2 247 3.764
45 PO2 248 2.299
45 PO2 249 0.834
45 PO2 250 -0.631
45 PO2 251 -1.607
45 PO2 252 -1.607
45 PO2 253 -1.607
45 PO2 254 -1.607
45 PO2 255 -2.096
# PO1 chan 28
45 PO1 0 6.124
45 PO1 1 6.612
45 PO1 2 7.589
45 PO1 3 8.565
45 PO1 4 8.565
45 PO1 5 8.077
45 PO1 6 6.612
45 PO1 7 4.659
45 PO1 8 3.194
45 PO1 9 1.729
45 PO1 10 0.753
45 PO1 11 0.264
45 PO1 12 0.753
45 PO1 13 2.218
45 PO1 14 3.682
45 PO1 15 4.171
45 PO1 16 2.706
45 PO1 17 0.264
45 PO1 18 -3.153
45 PO1 19 -5.595
45 PO1 20 -5.595
45 PO1 21 -5.107
45 PO1 22 -5.107
45 PO1 23 -5.595
45 PO1 24 -6.571
45 PO1 25 -6.083
45 PO1 26 -3.153
45 PO1 27 1.241
45 PO1 28 5.636
45 PO1 29 8.565
45 PO1 30 9.542
45 PO1 31 8.565
45 PO1 32 7.100
45 PO1 33 5.636
45 PO1 34 4.659
45 PO1 35 3.194
45 PO1 36 1.241
45 PO1 37 -0.224
45 PO1 38 -0.712
45 PO1 39 -0.712
45 PO1 40 -0.224
45 PO1 41 -0.224
45 PO1 42 -0.712
45 PO1 43 -2.177
45 PO1 44 -3.642
45 PO1 45 -5.595
45 PO1 46 -7.060
45 PO1 47 -8.036
45 PO1 48 -8.525
45 PO1 49 -7.548
45 PO1 50 -5.595
45 PO1 51 -2.665
45 PO1 52 0.753
45 PO1 53 3.194
45 PO1 54 5.147
45 PO1 55 6.124
45 PO1 56 6.612
45 PO1 57 7.100
45 PO1 58 7.589
45 PO1 59 9.542
45 PO1 60 11.983
45 PO1 61 14.913
45 PO1 62 16.378
45 PO1 63 16.866
45 PO1 64 16.866
45 PO1 65 15.889
45 PO1 66 15.401
45 PO1 67 15.401
