# co2c0000354.rd
# 120 trials, 64 chans, 416 samples 368 post_stim samples
# 3.906000 msecs uV
# S1 obj , trial 74
# FP1 chan 0
74 FP1 0 -13.814
74 FP1 1 -17.232
74 FP1 2 -19.185
74 FP1 3 -19.674
74 FP1 4 -19.185
74 FP1 5 -17.232
74 FP1 6 -13.814
74 FP1 7 -9.420
74 FP1 8 -5.514
74 FP1 9 -3.560
74 FP1 10 -2.096
74 FP1 11 -1.607
74 FP1 12 -1.607
74 FP1 13 -1.607
74 FP1 14 -3.560
74 FP1 15 -6.978
74 FP1 16 -11.373
74 FP1 17 -15.279
74 FP1 18 -17.232
74 FP1 19 -17.232
74 FP1 20 -15.279
74 FP1 21 -12.838
74 FP1 22 -10.396
74 FP1 23 -8.443
74 FP1 24 -6.978
74 FP1 25 -5.514
74 FP1 26 -4.049
74 FP1 27 -3.560
74 FP1 28 -3.560
74 FP1 29 -4.049
74 FP1 30 -5.025
74 FP1 31 -5.025
74 FP1 32 -4.537
74 FP1 33 -3.072
74 FP1 34 0.346
74 FP1 35 3.276
74 FP1 36 5.229
74 FP1 37 5.229
74 FP1 38 3.764
74 FP1 39 1.811
74 FP1 40 1.322
74 FP1 41 2.787
74 FP1 42 6.205
74 FP1 43 9.623
74 FP1 44 10.600
74 FP1 45 9.135
74 FP1 46 6.205
74 FP1 47 2.787
74 FP1 48 0.834
74 FP1 49 -0.631
74 FP1 50 -1.607
74 FP1 51 -3.560
74 FP1 52 -6.978
74 FP1 53 -10.396
74 FP1 54 -13.326
74 FP1 55 -14.791
74 FP1 56 -15.279
74 FP1 57 -16.256
74 FP1 58 -17.721
74 FP1 59 -19.185
74 FP1 60 -19.674
74 FP1 61 -19.185
74 FP1 62 -18.209
74 FP1 63 -17.232
74 FP1 64 -15.767
74 FP1 65 -13.326
74 FP1 66 -8.931
74 FP1 67 -4.049
74 FP1 68 -0.142
74 FP1 69 0.346
74 FP1 70 -1.119
74 FP1 71 -2.584
74 FP1 72 -1.119
74 FP1 73 2.299
74 FP1 74 5.717
74 FP1 75 7.670
74 FP1 76 6.694
74 FP1 77 4.740
74 FP1 78 2.787
74 FP1 79 3.276
74 FP1 80 5.229
74 FP1 81 6.205
74 FP1 82 6.694
74 FP1 83 6.205
74 FP1 84 5.229
74 FP1 85 5.229
74 FP1 86 6.205
74 FP1 87 6.205
74 FP1 88 5.717
74 FP1 89 4.252
74 FP1 90 1.322
74 FP1 91 -2.096
74 FP1 92 -6.002
74 FP1 93 -9.420
74 FP1 94 -11.373
74 FP1 95 -11.373
74 FP1 96 -8.931
74 FP1 97 -5.514
74 FP1 98 -2.096
74 FP1 99 -0.142
74 FP1 100 0.834
74 FP1 101 1.322
74 FP1 102 1.811
74 FP1 103 2.299
74 FP1 104 2.299
74 FP1 105 1.322
74 FP1 106 -1.119
74 FP1 107 -4.537
74 FP1 108 -6.490
74 FP1 109 -6.978
74 FP1 110 -6.002
74 FP1 111 -4.049
74 FP1 112 -0.631
74 FP1 113 3.764
74 FP1 114 8.647
74 FP1 115 13.041
74 FP1 116 15.483
74 FP1 117 14.994
74 FP1 118 13.041
74 FP1 119 10.600
74 FP1 120 9.135
74 FP1 121 9.623
74 FP1 122 10.600
74 FP1 123 11.088
74 FP1 124 10.600
74 FP1 125 9.135
74 FP1 126 7.182
74 FP1 127 6.205
74 FP1 128 6.205
74 FP1 129 6.205
74 FP1 130 6.205
74 FP1 131 5.229
74 FP1 132 4.740
74 FP1 133 4.252
74 FP1 134 4.252
74 FP1 135 4.252
74 FP1 136 4.252
74 FP1 137 4.252
74 FP1 138 3.276
74 FP1 139 2.787
74 FP1 140 2.787
74 FP1 141 2.787
74 FP1 142 3.764
74 FP1 143 4.252
74 FP1 144 6.205
74 FP1 145 8.647
74 FP1 146 10.600
74 FP1 147 12.065
74 FP1 148 12.065
74 FP1 149 10.600
74 FP1 150 8.158
74 FP1 151 6.205
74 FP1 152 4.252
74 FP1 153 3.276
74 FP1 154 2.787
74 FP1 155 2.299
74 FP1 156 2.787
74 FP1 157 3.276
74 FP1 158 3.764
74 FP1 159 3.764
74 FP1 160 3.276
74 FP1 161 1.811
74 FP1 162 1.322
74 FP1 163 0.834
74 FP1 164 1.322
74 FP1 165 1.322
74 FP1 166 0.834
74 FP1 167 0.346
74 FP1 168 1.322
74 FP1 169 2.299
74 FP1 170 3.764
74 FP1 171 3.764
74 FP1 172 2.787
74 FP1 173 0.834
74 FP1 174 0.346
74 FP1 175 1.322
74 FP1 176 4.252
74 FP1 177 6.694
74 FP1 178 6.694
74 FP1 179 4.252
74 FP1 180 1.322
74 FP1 181 -1.607
74 FP1 182 -2.096
74 FP1 183 -2.096
74 FP1 184 -1.607
74 FP1 185 -2.584
74 FP1 186 -3.560
74 FP1 187 -4.537
74 FP1 188 -4.049
74 FP1 189 -4.049
74 FP1 190 -4.537
74 FP1 191 -5.514
74 FP1 192 -6.002
74 FP1 193 -5.514
74 FP1 194 -3.560
74 FP1 195 -1.119
74 FP1 196 0.834
74 FP1 197 2.299
74 FP1 198 3.276
74 FP1 199 4.740
74 FP1 200 6.205
74 FP1 201 7.182
74 FP1 202 6.205
74 FP1 203 4.252
74 FP1 204 2.299
74 FP1 205 0.346
74 FP1 206 0.834
74 FP1 207 2.299
74 FP1 208 3.276
74 FP1 209 3.276
74 FP1 210 2.299
74 FP1 211 1.811
74 FP1 212 2.299
74 FP1 213 3.764
74 FP1 214 5.717
74 FP1 215 7.182
74 FP1 216 7.182
74 FP1 217 6.205
74 FP1 218 4.252
74 FP1 219 1.322
74 FP1 220 -2.096
74 FP1 221 -5.025
74 FP1 222 -6.978
74 FP1 223 -7.955
74 FP1 224 -7.467
74 FP1 225 -6.978
74 FP1 226 -6.002
74 FP1 227 -5.514
74 FP1 228 -4.049
74 FP1 229 -3.072
74 FP1 230 -2.584
74 FP1 231 -2.584
74 FP1 232 -3.072
74 FP1 233 -3.560
74 FP1 234 -3.072
74 FP1 235 -1.607
74 FP1 236 1.322
74 FP1 237 4.252
74 FP1 238 6.694
74 FP1 239 8.647
74 FP1 240 9.623
74 FP1 241 8.647
74 FP1 242 6.694
74 FP1 243 4.740
74 FP1 244 2.787
74 FP1 245 2.787
74 FP1 246 3.764
74 FP1 247 5.229
74 FP1 248 5.717
74 FP1 249 5.229
74 FP1 250 3.276
74 FP1 251 2.787
74 FP1 252 3.276
74 FP1 253 5.717
74 FP1 254 8.158
74 FP1 255 9.623
# FP2 chan 1
74 FP2 0 -11.902
74 FP2 1 -11.902
74 FP2 2 -11.902
74 FP2 3 -12.390
74 FP2 4 -12.390
74 FP2 5 -12.390
74 FP2 6 -11.414
74 FP2 7 -9.460
74 FP2 8 -7.019
74 FP2 9 -5.554
74 FP2 10 -4.578
74 FP2 11 -4.578
74 FP2 12 -4.578
74 FP2 13 -3.601
74 FP2 14 -2.625
74 FP2 15 -3.113
74 FP2 16 -5.066
74 FP2 17 -8.484
74 FP2 18 -10.925
74 FP2 19 -11.414
74 FP2 20 -10.437
74 FP2 21 -7.507
74 FP2 22 -5.554
74 FP2 23 -4.089
74 FP2 24 -4.089
74 FP2 25 -3.601
74 FP2 26 -3.601
74 FP2 27 -3.113
74 FP2 28 -3.113
74 FP2 29 -4.089
74 FP2 30 -5.066
74 FP2 31 -6.042
74 FP2 32 -5.066
74 FP2 33 -2.625
74 FP2 34 0.793
74 FP2 35 3.723
74 FP2 36 5.188
74 FP2 37 5.188
74 FP2 38 3.723
74 FP2 39 2.747
74 FP2 40 2.258
74 FP2 41 3.235
74 FP2 42 5.188
74 FP2 43 7.141
74 FP2 44 8.606
74 FP2 45 9.094
74 FP2 46 8.606
74 FP2 47 7.629
74 FP2 48 6.653
74 FP2 49 6.165
74 FP2 50 6.653
74 FP2 51 6.653
74 FP2 52 5.188
74 FP2 53 3.235
74 FP2 54 -0.671
74 FP2 55 -4.089
74 FP2 56 -6.531
74 FP2 57 -7.996
74 FP2 58 -8.972
74 FP2 59 -9.460
74 FP2 60 -9.460
74 FP2 61 -9.460
74 FP2 62 -8.484
74 FP2 63 -7.507
74 FP2 64 -6.531
74 FP2 65 -4.578
74 FP2 66 -2.625
74 FP2 67 0.305
74 FP2 68 1.770
74 FP2 69 2.258
74 FP2 70 2.258
74 FP2 71 2.747
74 FP2 72 5.188
74 FP2 73 8.606
74 FP2 74 11.536
74 FP2 75 12.512
74 FP2 76 11.047
74 FP2 77 8.118
74 FP2 78 6.165
74 FP2 79 6.165
74 FP2 80 8.118
74 FP2 81 10.559
74 FP2 82 12.024
74 FP2 83 12.512
74 FP2 84 11.047
74 FP2 85 9.583
74 FP2 86 8.606
74 FP2 87 9.094
74 FP2 88 9.094
74 FP2 89 9.583
74 FP2 90 8.118
74 FP2 91 5.188
74 FP2 92 0.793
74 FP2 93 -3.601
74 FP2 94 -6.042
74 FP2 95 -5.066
74 FP2 96 -1.160
74 FP2 97 4.700
74 FP2 98 9.583
74 FP2 99 13.000
74 FP2 100 13.977
74 FP2 101 13.489
74 FP2 102 12.512
74 FP2 103 12.024
74 FP2 104 11.536
74 FP2 105 10.071
74 FP2 106 7.629
74 FP2 107 4.700
74 FP2 108 2.258
74 FP2 109 0.793
74 FP2 110 1.282
74 FP2 111 3.723
74 FP2 112 7.141
74 FP2 113 11.536
74 FP2 114 15.930
74 FP2 115 18.372
74 FP2 116 19.348
74 FP2 117 18.860
74 FP2 118 16.907
74 FP2 119 15.442
74 FP2 120 14.954
74 FP2 121 16.418
74 FP2 122 17.395
74 FP2 123 17.883
74 FP2 124 17.883
74 FP2 125 16.907
74 FP2 126 16.418
74 FP2 127 15.930
74 FP2 128 15.930
74 FP2 129 15.442
74 FP2 130 13.977
74 FP2 131 12.512
74 FP2 132 11.047
74 FP2 133 11.047
74 FP2 134 11.047
74 FP2 135 11.047
74 FP2 136 12.024
74 FP2 137 12.512
74 FP2 138 13.000
74 FP2 139 13.000
74 FP2 140 12.024
74 FP2 141 11.047
74 FP2 142 9.583
74 FP2 143 9.094
74 FP2 144 9.583
74 FP2 145 11.047
74 FP2 146 12.512
74 FP2 147 13.977
74 FP2 148 14.465
74 FP2 149 14.465
74 FP2 150 13.489
74 FP2 151 12.024
74 FP2 152 9.583
74 FP2 153 7.141
74 FP2 154 5.676
74 FP2 155 5.676
74 FP2 156 6.165
74 FP2 157 7.141
74 FP2 158 8.118
74 FP2 159 8.606
74 FP2 160 8.606
74 FP2 161 8.606
74 FP2 162 8.606
74 FP2 163 8.118
74 FP2 164 8.118
74 FP2 165 7.141
74 FP2 166 6.653
74 FP2 167 7.141
74 FP2 168 8.606
74 FP2 169 10.071
74 FP2 170 11.536
74 FP2 171 11.536
74 FP2 172 10.071
74 FP2 173 9.583
74 FP2 174 10.071
74 FP2 175 12.512
74 FP2 176 15.442
74 FP2 177 17.395
74 FP2 178 16.907
74 FP2 179 14.465
74 FP2 180 11.047
74 FP2 181 8.118
74 FP2 182 7.141
74 FP2 183 7.141
74 FP2 184 6.653
74 FP2 185 6.165
74 FP2 186 5.676
74 FP2 187 5.676
74 FP2 188 6.165
74 FP2 189 6.165
74 FP2 190 5.188
74 FP2 191 3.723
74 FP2 192 2.747
74 FP2 193 3.235
74 FP2 194 5.676
74 FP2 195 9.583
74 FP2 196 12.512
74 FP2 197 14.465
74 FP2 198 15.442
74 FP2 199 16.418
74 FP2 200 16.907
74 FP2 201 16.907
74 FP2 202 15.442
74 FP2 203 13.000
74 FP2 204 11.047
74 FP2 205 11.047
74 FP2 206 12.024
74 FP2 207 13.000
74 FP2 208 13.489
74 FP2 209 12.024
74 FP2 210 10.071
74 FP2 211 8.606
74 FP2 212 8.606
74 FP2 213 9.583
74 FP2 214 11.047
74 FP2 215 11.536
74 FP2 216 11.047
74 FP2 217 10.071
74 FP2 218 9.094
74 FP2 219 7.629
74 FP2 220 6.165
74 FP2 221 4.211
74 FP2 222 3.235
74 FP2 223 2.258
74 FP2 224 2.258
74 FP2 225 2.747
74 FP2 226 3.723
74 FP2 227 5.676
74 FP2 228 7.141
74 FP2 229 8.118
74 FP2 230 8.118
74 FP2 231 7.141
74 FP2 232 5.676
74 FP2 233 4.700
74 FP2 234 5.188
74 FP2 235 7.141
74 FP2 236 10.559
74 FP2 237 13.489
74 FP2 238 14.954
74 FP2 239 15.442
74 FP2 240 14.465
74 FP2 241 13.000
74 FP2 242 11.536
74 FP2 243 11.047
74 FP2 244 11.047
74 FP2 245 11.047
74 FP2 246 11.536
74 FP2 247 12.024
74 FP2 248 12.512
74 FP2 249 13.489
74 FP2 250 13.977
74 FP2 251 14.954
74 FP2 252 15.930
74 FP2 253 17.395
74 FP2 254 17.395
74 FP2 255 16.907
# F7 chan 2
74 F7 0 -6.276
74 F7 1 -9.694
74 F7 2 -12.624
74 F7 3 -13.601
74 F7 4 -12.136
74 F7 5 -8.718
74 F7 6 -2.858
74 F7 7 3.001
74 F7 8 7.884
74 F7 9 10.813
74 F7 10 11.790
74 F7 11 11.302
74 F7 12 10.813
74 F7 13 9.349
74 F7 14 7.395
74 F7 15 3.001
74 F7 16 -1.394
74 F7 17 -5.788
74 F7 18 -7.741
74 F7 19 -6.276
74 F7 20 -3.347
74 F7 21 0.071
74 F7 22 3.977
74 F7 23 7.395
74 F7 24 10.813
74 F7 25 14.231
74 F7 26 16.673
74 F7 27 17.649
74 F7 28 18.138
74 F7 29 17.161
74 F7 30 16.184
74 F7 31 15.208
74 F7 32 14.720
74 F7 33 14.231
74 F7 34 14.720
74 F7 35 17.161
74 F7 36 20.091
74 F7 37 22.044
74 F7 38 21.556
74 F7 39 19.114
74 F7 40 17.161
74 F7 41 17.649
74 F7 42 20.579
74 F7 43 24.485
74 F7 44 26.438
74 F7 45 24.485
74 F7 46 20.091
74 F7 47 15.696
74 F7 48 12.767
74 F7 49 10.813
74 F7 50 8.860
74 F7 51 5.442
74 F7 52 1.536
74 F7 53 -1.394
74 F7 54 -2.370
74 F7 55 -1.882
74 F7 56 -0.905
74 F7 57 -1.882
74 F7 58 -4.323
74 F7 59 -5.788
74 F7 60 -5.788
74 F7 61 -4.323
74 F7 62 -2.858
74 F7 63 -2.370
74 F7 64 -1.394
74 F7 65 2.513
74 F7 66 9.349
74 F7 67 18.138
74 F7 68 23.997
74 F7 69 24.974
74 F7 70 22.532
74 F7 71 20.579
74 F7 72 22.044
74 F7 73 25.462
74 F7 74 27.415
74 F7 75 26.438
74 F7 76 22.532
74 F7 77 19.114
74 F7 78 18.138
74 F7 79 19.602
74 F7 80 21.556
74 F7 81 21.556
74 F7 82 20.091
74 F7 83 18.138
74 F7 84 16.673
74 F7 85 16.673
74 F7 86 15.696
74 F7 87 14.231
74 F7 88 11.790
74 F7 89 9.837
74 F7 90 7.884
74 F7 91 6.907
74 F7 92 4.954
74 F7 93 2.024
74 F7 94 -0.417
74 F7 95 -0.905
74 F7 96 1.048
74 F7 97 4.466
74 F7 98 8.372
74 F7 99 11.302
74 F7 100 12.767
74 F7 101 13.743
74 F7 102 15.208
74 F7 103 16.184
74 F7 104 16.184
74 F7 105 14.720
74 F7 106 11.302
74 F7 107 7.884
74 F7 108 5.442
74 F7 109 4.954
74 F7 110 4.954
74 F7 111 5.442
74 F7 112 6.907
74 F7 113 10.325
74 F7 114 14.720
74 F7 115 19.114
74 F7 116 23.020
74 F7 117 23.509
74 F7 118 21.556
74 F7 119 19.602
74 F7 120 18.626
74 F7 121 19.114
74 F7 122 19.602
74 F7 123 19.602
74 F7 124 18.138
74 F7 125 15.208
74 F7 126 13.743
74 F7 127 13.255
74 F7 128 14.720
74 F7 129 16.184
74 F7 130 17.161
74 F7 131 17.649
74 F7 132 17.649
74 F7 133 18.138
74 F7 134 17.649
74 F7 135 17.649
74 F7 136 16.673
74 F7 137 15.696
74 F7 138 15.696
74 F7 139 15.208
74 F7 140 14.720
74 F7 141 13.743
74 F7 142 12.767
74 F7 143 13.255
74 F7 144 15.208
74 F7 145 17.649
74 F7 146 20.091
74 F7 147 20.579
74 F7 148 18.626
74 F7 149 15.208
74 F7 150 11.790
74 F7 151 8.860
74 F7 152 7.395
74 F7 153 6.907
74 F7 154 7.395
74 F7 155 7.884
74 F7 156 8.372
74 F7 157 8.860
74 F7 158 7.884
74 F7 159 6.419
74 F7 160 4.954
74 F7 161 4.466
74 F7 162 5.442
74 F7 163 6.419
74 F7 164 6.907
74 F7 165 5.931
74 F7 166 3.489
74 F7 167 1.048
74 F7 168 -0.905
74 F7 169 -1.394
74 F7 170 -1.394
74 F7 171 -0.905
74 F7 172 -1.882
74 F7 173 -2.858
74 F7 174 -2.858
74 F7 175 -2.370
74 F7 176 -1.394
74 F7 177 -0.905
74 F7 178 -2.858
74 F7 179 -5.300
74 F7 180 -7.741
74 F7 181 -8.718
74 F7 182 -8.230
74 F7 183 -6.765
74 F7 184 -5.788
74 F7 185 -4.323
74 F7 186 -3.835
74 F7 187 -3.835
74 F7 188 -4.812
74 F7 189 -6.765
74 F7 190 -9.694
74 F7 191 -11.648
74 F7 192 -12.136
74 F7 193 -10.671
74 F7 194 -8.718
74 F7 195 -6.765
74 F7 196 -5.300
74 F7 197 -4.323
74 F7 198 -3.835
74 F7 199 -2.858
74 F7 200 -0.905
74 F7 201 0.071
74 F7 202 0.071
74 F7 203 -0.905
74 F7 204 -3.835
74 F7 205 -7.253
74 F7 206 -9.694
74 F7 207 -11.159
74 F7 208 -11.648
74 F7 209 -10.671
74 F7 210 -10.183
74 F7 211 -9.206
74 F7 212 -7.741
74 F7 213 -5.788
74 F7 214 -3.347
74 F7 215 -1.882
74 F7 216 -1.394
74 F7 217 -2.370
74 F7 218 -4.812
74 F7 219 -7.253
74 F7 220 -10.183
74 F7 221 -13.112
74 F7 222 -16.042
74 F7 223 -17.507
74 F7 224 -18.483
74 F7 225 -18.483
74 F7 226 -17.507
74 F7 227 -16.530
74 F7 228 -15.066
74 F7 229 -13.112
74 F7 230 -11.648
74 F7 231 -10.671
74 F7 232 -10.183
74 F7 233 -10.671
74 F7 234 -11.648
74 F7 235 -12.624
74 F7 236 -12.624
74 F7 237 -11.648
74 F7 238 -8.718
74 F7 239 -5.300
74 F7 240 -3.347
74 F7 241 -3.347
74 F7 242 -5.788
74 F7 243 -9.694
74 F7 244 -12.136
74 F7 245 -12.624
74 F7 246 -10.671
74 F7 247 -8.718
74 F7 248 -8.230
74 F7 249 -9.206
74 F7 250 -10.671
74 F7 251 -10.671
74 F7 252 -7.741
74 F7 253 -3.835
74 F7 254 0.071
74 F7 255 2.024
# F8 chan 3
74 F8 0 -3.937
74 F8 1 -0.519
74 F8 2 1.434
74 F8 3 2.899
74 F8 4 4.364
74 F8 5 5.341
74 F8 6 5.829
74 F8 7 5.341
74 F8 8 3.876
74 F8 9 1.923
74 F8 10 0.458
74 F8 11 1.434
74 F8 12 3.387
74 F8 13 6.805
74 F8 14 9.247
74 F8 15 10.223
74 F8 16 9.247
74 F8 17 6.317
74 F8 18 3.387
74 F8 19 1.434
74 F8 20 1.923
74 F8 21 4.364
74 F8 22 7.782
74 F8 23 10.223
74 F8 24 10.223
74 F8 25 9.735
74 F8 26 8.270
74 F8 27 7.294
74 F8 28 7.294
74 F8 29 6.805
74 F8 30 5.829
74 F8 31 4.364
74 F8 32 3.387
74 F8 33 4.364
74 F8 34 6.805
74 F8 35 10.223
74 F8 36 11.200
74 F8 37 10.223
74 F8 38 7.782
74 F8 39 5.341
74 F8 40 4.364
74 F8 41 4.852
74 F8 42 6.317
74 F8 43 6.805
74 F8 44 6.805
74 F8 45 6.317
74 F8 46 6.317
74 F8 47 6.805
74 F8 48 7.782
74 F8 49 8.759
74 F8 50 9.247
74 F8 51 8.759
74 F8 52 7.294
74 F8 53 5.341
74 F8 54 2.899
74 F8 55 0.458
74 F8 56 -1.984
74 F8 57 -4.425
74 F8 58 -6.866
74 F8 59 -8.820
74 F8 60 -9.796
74 F8 61 -9.308
74 F8 62 -8.331
74 F8 63 -6.378
74 F8 64 -4.913
74 F8 65 -3.448
74 F8 66 -2.472
74 F8 67 -1.007
74 F8 68 0.458
74 F8 69 1.923
74 F8 70 2.411
74 F8 71 1.923
74 F8 72 1.434
74 F8 73 1.923
74 F8 74 1.923
74 F8 75 2.411
74 F8 76 1.434
74 F8 77 -1.007
74 F8 78 -2.960
74 F8 79 -3.937
74 F8 80 -2.960
74 F8 81 -1.007
74 F8 82 0.458
74 F8 83 -0.519
74 F8 84 -3.937
74 F8 85 -8.331
74 F8 86 -11.749
74 F8 87 -12.726
74 F8 88 -11.261
74 F8 89 -9.796
74 F8 90 -9.308
74 F8 91 -11.749
74 F8 92 -15.167
74 F8 93 -18.097
74 F8 94 -19.073
74 F8 95 -17.609
74 F8 96 -13.702
74 F8 97 -8.820
74 F8 98 -3.937
74 F8 99 -0.519
74 F8 100 1.434
74 F8 101 1.434
74 F8 102 0.458
74 F8 103 -1.007
74 F8 104 -1.984
74 F8 105 -3.937
74 F8 106 -6.378
74 F8 107 -9.796
74 F8 108 -13.702
74 F8 109 -17.120
74 F8 110 -18.097
74 F8 111 -16.144
74 F8 112 -12.726
74 F8 113 -8.820
74 F8 114 -5.890
74 F8 115 -4.913
74 F8 116 -5.402
74 F8 117 -6.378
74 F8 118 -7.843
74 F8 119 -8.820
74 F8 120 -9.308
74 F8 121 -8.331
74 F8 122 -7.355
74 F8 123 -5.890
74 F8 124 -4.425
74 F8 125 -2.960
74 F8 126 -2.472
74 F8 127 -2.960
74 F8 128 -3.937
74 F8 129 -5.402
74 F8 130 -6.866
74 F8 131 -8.331
74 F8 132 -9.308
74 F8 133 -9.308
74 F8 134 -9.308
74 F8 135 -8.820
74 F8 136 -7.843
74 F8 137 -6.378
74 F8 138 -6.378
74 F8 139 -6.866
74 F8 140 -8.331
74 F8 141 -10.773
74 F8 142 -13.702
74 F8 143 -15.656
74 F8 144 -16.632
74 F8 145 -15.167
74 F8 146 -13.214
74 F8 147 -10.773
74 F8 148 -9.796
74 F8 149 -10.284
74 F8 150 -12.238
74 F8 151 -14.679
74 F8 152 -16.144
74 F8 153 -17.609
74 F8 154 -18.097
74 F8 155 -19.073
74 F8 156 -20.538
74 F8 157 -21.515
74 F8 158 -21.515
74 F8 159 -21.027
74 F8 160 -20.050
74 F8 161 -19.073
74 F8 162 -19.562
74 F8 163 -20.050
74 F8 164 -21.027
74 F8 165 -22.491
74 F8 166 -22.980
74 F8 167 -23.956
74 F8 168 -24.445
74 F8 169 -24.933
74 F8 170 -25.421
74 F8 171 -25.421
74 F8 172 -25.421
74 F8 173 -23.956
74 F8 174 -22.003
74 F8 175 -18.585
74 F8 176 -15.656
74 F8 177 -13.214
74 F8 178 -13.214
74 F8 179 -15.167
74 F8 180 -17.609
74 F8 181 -20.050
74 F8 182 -21.515
74 F8 183 -22.491
74 F8 184 -22.980
74 F8 185 -22.491
74 F8 186 -22.003
74 F8 187 -21.027
74 F8 188 -20.538
74 F8 189 -21.027
74 F8 190 -22.491
74 F8 191 -24.445
74 F8 192 -25.421
74 F8 193 -25.421
74 F8 194 -23.956
74 F8 195 -22.491
74 F8 196 -21.027
74 F8 197 -20.538
74 F8 198 -19.562
74 F8 199 -18.585
74 F8 200 -17.120
74 F8 201 -16.632
74 F8 202 -17.609
74 F8 203 -19.562
74 F8 204 -21.515
74 F8 205 -22.980
74 F8 206 -22.980
74 F8 207 -22.980
74 F8 208 -24.445
74 F8 209 -26.398
74 F8 210 -28.839
74 F8 211 -30.304
74 F8 212 -30.304
74 F8 213 -28.839
74 F8 214 -26.886
74 F8 215 -25.909
74 F8 216 -26.398
74 F8 217 -27.374
74 F8 218 -28.351
74 F8 219 -28.351
74 F8 220 -27.863
74 F8 221 -28.351
74 F8 222 -29.327
74 F8 223 -30.304
74 F8 224 -31.281
74 F8 225 -31.769
74 F8 226 -31.281
74 F8 227 -31.281
74 F8 228 -31.769
74 F8 229 -31.769
74 F8 230 -31.769
74 F8 231 -31.281
74 F8 232 -30.792
74 F8 233 -30.304
74 F8 234 -30.792
74 F8 235 -30.792
74 F8 236 -30.304
74 F8 237 -30.304
74 F8 238 -29.816
74 F8 239 -30.304
74 F8 240 -31.281
74 F8 241 -32.257
74 F8 242 -32.257
74 F8 243 -31.281
74 F8 244 -30.304
74 F8 245 -29.816
74 F8 246 -30.792
74 F8 247 -31.281
74 F8 248 -30.792
74 F8 249 -28.839
74 F8 250 -25.909
74 F8 251 -22.980
74 F8 252 -21.027
74 F8 253 -20.538
74 F8 254 -20.538
74 F8 255 -21.027
# AF1 chan 4
74 AF1 0 -13.265
74 AF1 1 -16.195
74 AF1 2 -18.636
74 AF1 3 -20.101
74 AF1 4 -20.101
74 AF1 5 -18.148
74 AF1 6 -14.242
74 AF1 7 -9.359
74 AF1 8 -4.964
74 AF1 9 -2.035
74 AF1 10 -1.546
74 AF1 11 -1.546
74 AF1 12 -2.035
74 AF1 13 -2.523
74 AF1 14 -3.988
74 AF1 15 -6.917
74 AF1 16 -10.824
74 AF1 17 -14.730
74 AF1 18 -17.660
74 AF1 19 -17.660
74 AF1 20 -16.683
74 AF1 21 -15.218
74 AF1 22 -13.753
74 AF1 23 -12.777
74 AF1 24 -12.288
74 AF1 25 -10.824
74 AF1 26 -8.870
74 AF1 27 -6.917
74 AF1 28 -5.452
74 AF1 29 -5.452
74 AF1 30 -6.429
74 AF1 31 -7.406
74 AF1 32 -7.406
74 AF1 33 -5.941
74 AF1 34 -3.499
74 AF1 35 -1.546
74 AF1 36 -0.570
74 AF1 37 -1.058
74 AF1 38 -3.011
74 AF1 39 -4.964
74 AF1 40 -5.452
74 AF1 41 -4.476
74 AF1 42 -1.546
74 AF1 43 1.383
74 AF1 44 2.848
74 AF1 45 2.848
74 AF1 46 0.407
74 AF1 47 -2.035
74 AF1 48 -3.988
74 AF1 49 -4.964
74 AF1 50 -4.964
74 AF1 51 -5.941
74 AF1 52 -8.382
74 AF1 53 -11.800
74 AF1 54 -15.218
74 AF1 55 -17.171
74 AF1 56 -18.148
74 AF1 57 -17.660
74 AF1 58 -17.171
74 AF1 59 -17.660
74 AF1 60 -18.636
74 AF1 61 -18.636
74 AF1 62 -17.660
74 AF1 63 -16.195
74 AF1 64 -14.242
74 AF1 65 -12.288
74 AF1 66 -10.824
74 AF1 67 -8.870
74 AF1 68 -7.406
74 AF1 69 -5.941
74 AF1 70 -4.964
74 AF1 71 -4.476
74 AF1 72 -3.011
74 AF1 73 -1.058
74 AF1 74 1.383
74 AF1 75 2.360
74 AF1 76 1.872
74 AF1 77 0.895
74 AF1 78 -0.570
74 AF1 79 -0.570
74 AF1 80 0.895
74 AF1 81 2.848
74 AF1 82 3.825
74 AF1 83 4.313
74 AF1 84 4.313
74 AF1 85 4.801
74 AF1 86 5.290
74 AF1 87 5.290
74 AF1 88 5.290
74 AF1 89 3.825
74 AF1 90 1.383
74 AF1 91 -2.035
74 AF1 92 -6.429
74 AF1 93 -9.847
74 AF1 94 -12.288
74 AF1 95 -11.800
74 AF1 96 -9.359
74 AF1 97 -5.941
74 AF1 98 -3.011
74 AF1 99 -1.546
74 AF1 100 -0.570
74 AF1 101 -0.570
74 AF1 102 -0.081
74 AF1 103 -0.081
74 AF1 104 -0.081
74 AF1 105 -1.058
74 AF1 106 -3.011
74 AF1 107 -5.452
74 AF1 108 -7.406
74 AF1 109 -7.894
74 AF1 110 -6.917
74 AF1 111 -3.988
74 AF1 112 -1.058
74 AF1 113 2.360
74 AF1 114 5.778
74 AF1 115 8.708
74 AF1 116 10.173
74 AF1 117 9.684
74 AF1 118 7.731
74 AF1 119 5.290
74 AF1 120 3.825
74 AF1 121 4.313
74 AF1 122 4.801
74 AF1 123 5.290
74 AF1 124 4.313
74 AF1 125 2.360
74 AF1 126 0.407
74 AF1 127 -0.570
74 AF1 128 -0.570
74 AF1 129 -0.081
74 AF1 130 -0.081
74 AF1 131 -1.058
74 AF1 132 -2.035
74 AF1 133 -2.035
74 AF1 134 -1.546
74 AF1 135 -0.081
74 AF1 136 -0.081
74 AF1 137 -0.081
74 AF1 138 -1.058
74 AF1 139 -1.058
74 AF1 140 -0.570
74 AF1 141 0.895
74 AF1 142 1.872
74 AF1 143 3.337
74 AF1 144 4.313
74 AF1 145 5.778
74 AF1 146 8.219
74 AF1 147 9.684
74 AF1 148 9.684
74 AF1 149 8.219
74 AF1 150 5.290
74 AF1 151 2.360
74 AF1 152 0.407
74 AF1 153 -1.058
74 AF1 154 -1.546
74 AF1 155 -1.546
74 AF1 156 -0.570
74 AF1 157 0.407
74 AF1 158 0.895
74 AF1 159 0.407
74 AF1 160 -0.570
74 AF1 161 -2.035
74 AF1 162 -3.011
74 AF1 163 -3.011
74 AF1 164 -3.011
74 AF1 165 -3.499
74 AF1 166 -3.499
74 AF1 167 -3.011
74 AF1 168 -2.035
74 AF1 169 0.407
74 AF1 170 1.872
74 AF1 171 2.360
74 AF1 172 0.895
74 AF1 173 -1.058
74 AF1 174 -2.035
74 AF1 175 -0.570
74 AF1 176 1.383
74 AF1 177 2.848
74 AF1 178 2.848
74 AF1 179 0.407
74 AF1 180 -3.011
74 AF1 181 -4.964
74 AF1 182 -5.941
74 AF1 183 -5.452
74 AF1 184 -4.964
74 AF1 185 -5.452
74 AF1 186 -5.452
74 AF1 187 -5.941
74 AF1 188 -5.941
74 AF1 189 -5.452
74 AF1 190 -5.941
74 AF1 191 -6.917
74 AF1 192 -8.382
74 AF1 193 -8.382
74 AF1 194 -6.917
74 AF1 195 -4.964
74 AF1 196 -2.523
74 AF1 197 -0.570
74 AF1 198 0.407
74 AF1 199 1.383
74 AF1 200 2.848
74 AF1 201 3.825
74 AF1 202 3.337
74 AF1 203 0.895
74 AF1 204 -1.546
74 AF1 205 -2.523
74 AF1 206 -2.035
74 AF1 207 -0.570
74 AF1 208 0.407
74 AF1 209 0.895
74 AF1 210 -0.081
74 AF1 211 -1.058
74 AF1 212 -1.058
74 AF1 213 -0.081
74 AF1 214 1.872
74 AF1 215 2.360
74 AF1 216 2.360
74 AF1 217 0.407
74 AF1 218 -2.035
74 AF1 219 -4.964
74 AF1 220 -6.917
74 AF1 221 -8.870
74 AF1 222 -9.847
74 AF1 223 -10.335
74 AF1 224 -9.847
74 AF1 225 -8.870
74 AF1 226 -7.894
74 AF1 227 -6.917
74 AF1 228 -5.941
74 AF1 229 -4.964
74 AF1 230 -4.964
74 AF1 231 -4.964
74 AF1 232 -6.429
74 AF1 233 -7.406
74 AF1 234 -7.894
74 AF1 235 -6.917
74 AF1 236 -3.988
74 AF1 237 -0.081
74 AF1 238 2.848
74 AF1 239 5.290
74 AF1 240 5.290
74 AF1 241 3.825
74 AF1 242 1.383
74 AF1 243 -0.570
74 AF1 244 -2.035
74 AF1 245 -2.523
74 AF1 246 -2.035
74 AF1 247 -1.058
74 AF1 248 -1.546
74 AF1 249 -2.523
74 AF1 250 -3.499
74 AF1 251 -3.988
74 AF1 252 -3.011
74 AF1 253 -1.058
74 AF1 254 0.407
74 AF1 255 0.407
# AF2 chan 5
74 AF2 0 -11.322
74 AF2 1 -12.299
74 AF2 2 -12.299
74 AF2 3 -12.787
74 AF2 4 -12.787
74 AF2 5 -11.810
74 AF2 6 -9.857
74 AF2 7 -7.416
74 AF2 8 -4.974
74 AF2 9 -3.998
74 AF2 10 -4.486
74 AF2 11 -4.974
74 AF2 12 -4.974
74 AF2 13 -3.998
74 AF2 14 -3.510
74 AF2 15 -4.486
74 AF2 16 -6.927
74 AF2 17 -9.857
74 AF2 18 -12.299
74 AF2 19 -13.275
74 AF2 20 -12.299
74 AF2 21 -10.834
74 AF2 22 -8.392
74 AF2 23 -7.416
74 AF2 24 -6.439
74 AF2 25 -6.439
74 AF2 26 -6.927
74 AF2 27 -6.439
74 AF2 28 -6.439
74 AF2 29 -6.927
74 AF2 30 -7.904
74 AF2 31 -7.904
74 AF2 32 -7.416
74 AF2 33 -5.951
74 AF2 34 -3.510
74 AF2 35 -1.068
74 AF2 36 -0.580
74 AF2 37 -1.556
74 AF2 38 -3.998
74 AF2 39 -5.951
74 AF2 40 -6.439
74 AF2 41 -4.974
74 AF2 42 -2.533
74 AF2 43 0.397
74 AF2 44 1.862
74 AF2 45 2.350
74 AF2 46 1.373
74 AF2 47 0.885
74 AF2 48 0.397
74 AF2 49 0.397
74 AF2 50 0.885
74 AF2 51 0.885
74 AF2 52 -0.580
74 AF2 53 -3.510
74 AF2 54 -6.439
74 AF2 55 -9.369
74 AF2 56 -10.834
74 AF2 57 -11.322
74 AF2 58 -11.810
74 AF2 59 -12.299
74 AF2 60 -12.787
74 AF2 61 -13.275
74 AF2 62 -13.275
74 AF2 63 -11.810
74 AF2 64 -10.834
74 AF2 65 -9.857
74 AF2 66 -9.857
74 AF2 67 -8.881
74 AF2 68 -8.392
74 AF2 69 -7.416
74 AF2 70 -5.951
74 AF2 71 -4.974
74 AF2 72 -3.021
74 AF2 73 -1.068
74 AF2 74 0.397
74 AF2 75 1.373
74 AF2 76 0.397
74 AF2 77 -1.556
74 AF2 78 -3.021
74 AF2 79 -3.021
74 AF2 80 -1.556
74 AF2 81 1.373
74 AF2 82 3.326
74 AF2 83 4.303
74 AF2 84 3.815
74 AF2 85 2.838
74 AF2 86 2.350
74 AF2 87 1.862
74 AF2 88 1.373
74 AF2 89 1.373
74 AF2 90 0.397
74 AF2 91 -2.045
74 AF2 92 -5.951
74 AF2 93 -9.857
74 AF2 94 -12.299
74 AF2 95 -11.322
74 AF2 96 -7.904
74 AF2 97 -3.021
74 AF2 98 1.373
74 AF2 99 3.815
74 AF2 100 4.303
74 AF2 101 3.815
74 AF2 102 2.838
74 AF2 103 1.862
74 AF2 104 0.885
74 AF2 105 -0.092
74 AF2 106 -1.068
74 AF2 107 -2.533
74 AF2 108 -4.486
74 AF2 109 -5.463
74 AF2 110 -5.463
74 AF2 111 -3.510
74 AF2 112 -1.556
74 AF2 113 1.373
74 AF2 114 3.815
74 AF2 115 5.768
74 AF2 116 6.744
74 AF2 117 6.256
74 AF2 118 4.303
74 AF2 119 2.838
74 AF2 120 1.862
74 AF2 121 2.838
74 AF2 122 4.303
74 AF2 123 5.768
74 AF2 124 5.768
74 AF2 125 4.791
74 AF2 126 2.838
74 AF2 127 1.373
74 AF2 128 0.885
74 AF2 129 0.885
74 AF2 130 0.885
74 AF2 131 0.397
74 AF2 132 -0.580
74 AF2 133 -0.580
74 AF2 134 -0.580
74 AF2 135 0.397
74 AF2 136 1.373
74 AF2 137 1.373
74 AF2 138 1.373
74 AF2 139 0.885
74 AF2 140 0.885
74 AF2 141 0.397
74 AF2 142 -0.092
74 AF2 143 -0.580
74 AF2 144 -0.092
74 AF2 145 0.885
74 AF2 146 2.838
74 AF2 147 5.280
74 AF2 148 6.256
74 AF2 149 5.768
74 AF2 150 3.815
74 AF2 151 0.885
74 AF2 152 -1.556
74 AF2 153 -3.021
74 AF2 154 -4.486
74 AF2 155 -4.974
74 AF2 156 -4.974
74 AF2 157 -4.486
74 AF2 158 -3.510
74 AF2 159 -3.021
74 AF2 160 -2.533
74 AF2 161 -2.533
74 AF2 162 -3.021
74 AF2 163 -3.510
74 AF2 164 -3.998
74 AF2 165 -4.486
74 AF2 166 -4.486
74 AF2 167 -3.998
74 AF2 168 -2.533
74 AF2 169 -1.068
74 AF2 170 0.397
74 AF2 171 0.397
74 AF2 172 -0.580
74 AF2 173 -1.068
74 AF2 174 -1.068
74 AF2 175 0.885
74 AF2 176 3.326
74 AF2 177 4.791
74 AF2 178 4.303
74 AF2 179 2.350
74 AF2 180 -0.580
74 AF2 181 -3.510
74 AF2 182 -4.486
74 AF2 183 -3.998
74 AF2 184 -3.998
74 AF2 185 -3.510
74 AF2 186 -3.998
74 AF2 187 -3.998
74 AF2 188 -3.510
74 AF2 189 -3.021
74 AF2 190 -3.510
74 AF2 191 -4.486
74 AF2 192 -6.439
74 AF2 193 -6.927
74 AF2 194 -5.463
74 AF2 195 -2.045
74 AF2 196 0.885
74 AF2 197 3.326
74 AF2 198 4.303
74 AF2 199 5.280
74 AF2 200 6.256
74 AF2 201 6.256
74 AF2 202 5.280
74 AF2 203 3.326
74 AF2 204 1.373
74 AF2 205 1.373
74 AF2 206 2.350
74 AF2 207 3.815
74 AF2 208 4.791
74 AF2 209 3.815
74 AF2 210 1.862
74 AF2 211 0.397
74 AF2 212 -0.092
74 AF2 213 0.885
74 AF2 214 1.862
74 AF2 215 2.350
74 AF2 216 1.373
74 AF2 217 -0.092
74 AF2 218 -1.556
74 AF2 219 -3.021
74 AF2 220 -3.510
74 AF2 221 -4.486
74 AF2 222 -4.974
74 AF2 223 -5.463
74 AF2 224 -4.974
74 AF2 225 -4.486
74 AF2 226 -3.021
74 AF2 227 -1.556
74 AF2 228 -1.068
74 AF2 229 -0.092
74 AF2 230 -0.092
74 AF2 231 -0.580
74 AF2 232 -1.556
74 AF2 233 -2.533
74 AF2 234 -2.533
74 AF2 235 -1.556
74 AF2 236 0.885
74 AF2 237 3.326
74 AF2 238 5.768
74 AF2 239 6.256
74 AF2 240 5.768
74 AF2 241 4.303
74 AF2 242 2.838
74 AF2 243 1.373
74 AF2 244 0.885
74 AF2 245 1.373
74 AF2 246 1.373
74 AF2 247 1.862
74 AF2 248 2.350
74 AF2 249 2.838
74 AF2 250 3.326
74 AF2 251 4.303
74 AF2 252 5.280
74 AF2 253 5.768
74 AF2 254 5.768
74 AF2 255 5.280
# FZ chan 6
74 FZ 0 -8.301
74 FZ 1 -10.254
74 FZ 2 -12.207
74 FZ 3 -13.184
74 FZ 4 -13.672
74 FZ 5 -12.695
74 FZ 6 -9.766
74 FZ 7 -6.348
74 FZ 8 -2.930
74 FZ 9 -1.465
74 FZ 10 -1.953
74 FZ 11 -2.930
74 FZ 12 -3.906
74 FZ 13 -3.906
74 FZ 14 -3.906
74 FZ 15 -5.371
74 FZ 16 -8.301
74 FZ 17 -11.230
74 FZ 18 -13.672
74 FZ 19 -14.648
74 FZ 20 -14.648
74 FZ 21 -14.160
74 FZ 22 -13.672
74 FZ 23 -13.672
74 FZ 24 -13.672
74 FZ 25 -13.184
74 FZ 26 -11.719
74 FZ 27 -10.254
74 FZ 28 -9.277
74 FZ 29 -9.277
74 FZ 30 -9.766
74 FZ 31 -10.254
74 FZ 32 -9.766
74 FZ 33 -8.301
74 FZ 34 -6.348
74 FZ 35 -5.371
74 FZ 36 -5.371
74 FZ 37 -6.836
74 FZ 38 -8.301
74 FZ 39 -10.254
74 FZ 40 -10.742
74 FZ 41 -10.254
74 FZ 42 -7.812
74 FZ 43 -5.859
74 FZ 44 -4.395
74 FZ 45 -4.395
74 FZ 46 -4.883
74 FZ 47 -5.371
74 FZ 48 -5.859
74 FZ 49 -5.859
74 FZ 50 -5.371
74 FZ 51 -5.371
74 FZ 52 -7.324
74 FZ 53 -9.766
74 FZ 54 -12.695
74 FZ 55 -14.648
74 FZ 56 -14.648
74 FZ 57 -14.160
74 FZ 58 -13.184
74 FZ 59 -13.184
74 FZ 60 -14.160
74 FZ 61 -15.137
74 FZ 62 -15.625
74 FZ 63 -14.648
74 FZ 64 -14.160
74 FZ 65 -14.160
74 FZ 66 -14.160
74 FZ 67 -14.160
74 FZ 68 -14.160
74 FZ 69 -13.184
74 FZ 70 -11.719
74 FZ 71 -10.254
74 FZ 72 -8.789
74 FZ 73 -6.836
74 FZ 74 -5.371
74 FZ 75 -4.395
74 FZ 76 -4.883
74 FZ 77 -6.348
74 FZ 78 -7.324
74 FZ 79 -6.836
74 FZ 80 -5.371
74 FZ 81 -3.418
74 FZ 82 -1.465
74 FZ 83 -0.488
74 FZ 84 -0.488
74 FZ 85 0.000
74 FZ 86 0.000
74 FZ 87 0.488
74 FZ 88 0.488
74 FZ 89 0.000
74 FZ 90 -1.465
74 FZ 91 -4.395
74 FZ 92 -7.324
74 FZ 93 -10.254
74 FZ 94 -11.719
74 FZ 95 -10.742
74 FZ 96 -8.301
74 FZ 97 -4.883
74 FZ 98 -2.441
74 FZ 99 -0.977
74 FZ 100 -0.977
74 FZ 101 -1.465
74 FZ 102 -1.953
74 FZ 103 -1.953
74 FZ 104 -1.953
74 FZ 105 -2.441
74 FZ 106 -3.418
74 FZ 107 -4.883
74 FZ 108 -6.348
74 FZ 109 -6.348
74 FZ 110 -5.859
74 FZ 111 -3.906
74 FZ 112 -1.465
74 FZ 113 0.977
74 FZ 114 2.930
74 FZ 115 4.395
74 FZ 116 5.371
74 FZ 117 4.883
74 FZ 118 3.418
74 FZ 119 1.465
74 FZ 120 0.488
74 FZ 121 0.977
74 FZ 122 2.441
74 FZ 123 3.418
74 FZ 124 2.930
74 FZ 125 0.977
74 FZ 126 -0.488
74 FZ 127 -1.465
74 FZ 128 -0.977
74 FZ 129 -0.488
74 FZ 130 -0.488
74 FZ 131 -0.977
74 FZ 132 -1.465
74 FZ 133 -0.977
74 FZ 134 -0.488
74 FZ 135 0.488
74 FZ 136 0.977
74 FZ 137 0.488
74 FZ 138 0.000
74 FZ 139 0.000
74 FZ 140 0.977
74 FZ 141 1.953
74 FZ 142 2.441
74 FZ 143 2.930
74 FZ 144 2.930
74 FZ 145 3.906
74 FZ 146 5.371
74 FZ 147 6.836
74 FZ 148 7.324
74 FZ 149 6.348
74 FZ 150 3.906
74 FZ 151 0.977
74 FZ 152 -0.977
74 FZ 153 -1.953
74 FZ 154 -2.930
74 FZ 155 -2.930
74 FZ 156 -2.441
74 FZ 157 -1.465
74 FZ 158 -0.977
74 FZ 159 -0.488
74 FZ 160 -1.465
74 FZ 161 -2.441
74 FZ 162 -3.418
74 FZ 163 -3.418
74 FZ 164 -3.418
74 FZ 165 -3.418
74 FZ 166 -3.418
74 FZ 167 -2.441
74 FZ 168 -0.977
74 FZ 169 0.977
74 FZ 170 2.441
74 FZ 171 2.930
74 FZ 172 1.465
74 FZ 173 0.000
74 FZ 174 -0.488
74 FZ 175 0.977
74 FZ 176 2.441
74 FZ 177 3.906
74 FZ 178 3.906
74 FZ 179 1.953
74 FZ 180 0.000
74 FZ 181 -1.465
74 FZ 182 -2.441
74 FZ 183 -1.953
74 FZ 184 -1.465
74 FZ 185 -1.953
74 FZ 186 -2.441
74 FZ 187 -2.930
74 FZ 188 -2.441
74 FZ 189 -1.953
74 FZ 190 -2.441
74 FZ 191 -3.418
74 FZ 192 -5.371
74 FZ 193 -5.859
74 FZ 194 -4.883
74 FZ 195 -2.930
74 FZ 196 -0.488
74 FZ 197 0.977
74 FZ 198 1.953
74 FZ 199 3.418
74 FZ 200 4.395
74 FZ 201 4.395
74 FZ 202 3.418
74 FZ 203 1.465
74 FZ 204 0.000
74 FZ 205 -0.977
74 FZ 206 0.000
74 FZ 207 1.953
74 FZ 208 3.418
74 FZ 209 3.418
74 FZ 210 2.930
74 FZ 211 1.953
74 FZ 212 1.953
74 FZ 213 2.441
74 FZ 214 2.930
74 FZ 215 2.930
74 FZ 216 1.953
74 FZ 217 0.488
74 FZ 218 -0.977
74 FZ 219 -1.953
74 FZ 220 -3.418
74 FZ 221 -3.418
74 FZ 222 -3.418
74 FZ 223 -2.441
74 FZ 224 -1.953
74 FZ 225 -0.977
74 FZ 226 -0.488
74 FZ 227 0.488
74 FZ 228 0.977
74 FZ 229 0.977
74 FZ 230 0.977
74 FZ 231 0.488
74 FZ 232 -0.488
74 FZ 233 -1.465
74 FZ 234 -1.465
74 FZ 235 -0.977
74 FZ 236 1.465
74 FZ 237 3.906
74 FZ 238 6.348
74 FZ 239 7.324
74 FZ 240 6.836
74 FZ 241 5.371
74 FZ 242 3.906
74 FZ 243 1.953
74 FZ 244 0.977
74 FZ 245 0.488
74 FZ 246 0.488
74 FZ 247 0.977
74 FZ 248 1.465
74 FZ 249 1.465
74 FZ 250 1.465
74 FZ 251 1.465
74 FZ 252 1.953
74 FZ 253 2.441
74 FZ 254 2.930
74 FZ 255 1.953
# F4 chan 7
74 F4 0 -12.594
74 F4 1 -12.105
74 F4 2 -11.617
74 F4 3 -11.129
74 F4 4 -10.640
74 F4 5 -9.664
74 F4 6 -8.687
74 F4 7 -7.711
74 F4 8 -7.222
74 F4 9 -8.199
74 F4 10 -9.664
74 F4 11 -10.152
74 F4 12 -9.664
74 F4 13 -8.199
74 F4 14 -7.222
74 F4 15 -7.222
74 F4 16 -9.176
74 F4 17 -12.105
74 F4 18 -14.547
74 F4 19 -15.523
74 F4 20 -15.035
74 F4 21 -13.570
74 F4 22 -12.105
74 F4 23 -11.129
74 F4 24 -11.129
74 F4 25 -12.105
74 F4 26 -13.082
74 F4 27 -13.082
74 F4 28 -13.082
74 F4 29 -13.082
74 F4 30 -13.570
74 F4 31 -14.058
74 F4 32 -13.570
74 F4 33 -11.617
74 F4 34 -9.176
74 F4 35 -7.711
74 F4 36 -7.711
74 F4 37 -10.152
74 F4 38 -13.082
74 F4 39 -15.035
74 F4 40 -15.523
74 F4 41 -13.570
74 F4 42 -11.129
74 F4 43 -8.687
74 F4 44 -7.711
74 F4 45 -7.222
74 F4 46 -7.711
74 F4 47 -7.222
74 F4 48 -7.222
74 F4 49 -6.246
74 F4 50 -5.269
74 F4 51 -5.269
74 F4 52 -6.246
74 F4 53 -8.687
74 F4 54 -11.129
74 F4 55 -13.570
74 F4 56 -15.035
74 F4 57 -15.523
74 F4 58 -15.523
74 F4 59 -16.500
74 F4 60 -16.988
74 F4 61 -17.476
74 F4 62 -16.988
74 F4 63 -15.523
74 F4 64 -14.547
74 F4 65 -14.058
74 F4 66 -14.547
74 F4 67 -15.035
74 F4 68 -14.058
74 F4 69 -12.594
74 F4 70 -11.129
74 F4 71 -10.152
74 F4 72 -9.664
74 F4 73 -8.687
74 F4 74 -7.222
74 F4 75 -6.734
74 F4 76 -6.734
74 F4 77 -7.711
74 F4 78 -9.176
74 F4 79 -8.687
74 F4 80 -7.222
74 F4 81 -4.293
74 F4 82 -2.340
74 F4 83 -1.851
74 F4 84 -2.828
74 F4 85 -4.293
74 F4 86 -5.269
74 F4 87 -5.758
74 F4 88 -5.269
74 F4 89 -4.781
74 F4 90 -4.781
74 F4 91 -6.734
74 F4 92 -9.664
74 F4 93 -13.082
74 F4 94 -14.547
74 F4 95 -13.570
74 F4 96 -10.152
74 F4 97 -5.269
74 F4 98 -0.875
74 F4 99 2.055
74 F4 100 3.031
74 F4 101 2.055
74 F4 102 0.590
74 F4 103 -0.387
74 F4 104 -1.363
74 F4 105 -1.363
74 F4 106 -1.851
74 F4 107 -2.828
74 F4 108 -4.781
74 F4 109 -6.246
74 F4 110 -6.246
74 F4 111 -5.269
74 F4 112 -3.316
74 F4 113 -1.363
74 F4 114 0.102
74 F4 115 1.567
74 F4 116 2.055
74 F4 117 1.567
74 F4 118 0.590
74 F4 119 -0.387
74 F4 120 -0.387
74 F4 121 0.590
74 F4 122 2.543
74 F4 123 4.008
74 F4 124 4.496
74 F4 125 3.520
74 F4 126 2.055
74 F4 127 0.590
74 F4 128 0.102
74 F4 129 0.102
74 F4 130 0.102
74 F4 131 -0.387
74 F4 132 -0.387
74 F4 133 0.102
74 F4 134 0.590
74 F4 135 1.567
74 F4 136 2.543
74 F4 137 3.031
74 F4 138 3.031
74 F4 139 2.543
74 F4 140 2.055
74 F4 141 1.567
74 F4 142 0.590
74 F4 143 -0.387
74 F4 144 -0.875
74 F4 145 0.102
74 F4 146 2.543
74 F4 147 5.473
74 F4 148 6.938
74 F4 149 6.449
74 F4 150 4.008
74 F4 151 1.567
74 F4 152 -0.875
74 F4 153 -2.340
74 F4 154 -3.316
74 F4 155 -3.805
74 F4 156 -4.293
74 F4 157 -4.293
74 F4 158 -3.316
74 F4 159 -2.340
74 F4 160 -1.851
74 F4 161 -1.363
74 F4 162 -1.851
74 F4 163 -2.340
74 F4 164 -2.340
74 F4 165 -2.828
74 F4 166 -2.828
74 F4 167 -2.828
74 F4 168 -1.851
74 F4 169 -0.875
74 F4 170 0.102
74 F4 171 0.102
74 F4 172 -0.875
74 F4 173 -0.875
74 F4 174 0.590
74 F4 175 3.031
74 F4 176 6.449
74 F4 177 7.914
74 F4 178 7.426
74 F4 179 4.985
74 F4 180 2.543
74 F4 181 0.590
74 F4 182 -0.387
74 F4 183 0.102
74 F4 184 0.590
74 F4 185 0.590
74 F4 186 0.590
74 F4 187 1.567
74 F4 188 2.543
74 F4 189 4.008
74 F4 190 3.520
74 F4 191 1.567
74 F4 192 -0.875
74 F4 193 -1.851
74 F4 194 -0.387
74 F4 195 2.055
74 F4 196 5.473
74 F4 197 7.426
74 F4 198 8.403
74 F4 199 8.891
74 F4 200 9.379
74 F4 201 9.379
74 F4 202 8.403
74 F4 203 7.426
74 F4 204 6.449
74 F4 205 6.449
74 F4 206 7.426
74 F4 207 8.403
74 F4 208 8.891
74 F4 209 7.426
74 F4 210 5.961
74 F4 211 4.496
74 F4 212 4.985
74 F4 213 5.961
74 F4 214 6.938
74 F4 215 6.938
74 F4 216 5.473
74 F4 217 4.008
74 F4 218 3.031
74 F4 219 2.543
74 F4 220 2.543
74 F4 221 2.543
74 F4 222 2.055
74 F4 223 1.567
74 F4 224 1.567
74 F4 225 2.055
74 F4 226 3.031
74 F4 227 4.008
74 F4 228 4.008
74 F4 229 4.008
74 F4 230 4.008
74 F4 231 4.008
74 F4 232 4.008
74 F4 233 4.008
74 F4 234 3.520
74 F4 235 4.008
74 F4 236 5.473
74 F4 237 6.449
74 F4 238 7.426
74 F4 239 7.426
74 F4 240 6.938
74 F4 241 5.961
74 F4 242 5.473
74 F4 243 4.985
74 F4 244 4.985
74 F4 245 5.473
74 F4 246 5.473
74 F4 247 5.473
74 F4 248 5.473
74 F4 249 6.449
74 F4 250 7.914
74 F4 251 9.379
74 F4 252 10.356
74 F4 253 10.844
74 F4 254 10.356
74 F4 255 9.379
# F3 chan 8
74 F3 0 -15.544
74 F3 1 -20.426
74 F3 2 -23.844
74 F3 3 -25.798
74 F3 4 -24.821
74 F3 5 -21.403
74 F3 6 -16.520
74 F3 7 -11.149
74 F3 8 -6.266
74 F3 9 -3.337
74 F3 10 -1.872
74 F3 11 -1.872
74 F3 12 -2.360
74 F3 13 -3.825
74 F3 14 -5.778
74 F3 15 -9.196
74 F3 16 -13.590
74 F3 17 -17.008
74 F3 18 -19.450
74 F3 19 -20.426
74 F3 20 -20.426
74 F3 21 -20.426
74 F3 22 -20.426
74 F3 23 -20.426
74 F3 24 -18.473
74 F3 25 -15.055
74 F3 26 -11.149
74 F3 27 -7.243
74 F3 28 -4.801
74 F3 29 -4.313
74 F3 30 -5.290
74 F3 31 -5.778
74 F3 32 -6.266
74 F3 33 -5.778
74 F3 34 -4.801
74 F3 35 -3.337
74 F3 36 -2.360
74 F3 37 -3.337
74 F3 38 -5.290
74 F3 39 -7.243
74 F3 40 -8.219
74 F3 41 -7.243
74 F3 42 -4.801
74 F3 43 -1.383
74 F3 44 0.570
74 F3 45 0.570
74 F3 46 -1.383
74 F3 47 -3.825
74 F3 48 -5.778
74 F3 49 -6.266
74 F3 50 -6.755
74 F3 51 -7.731
74 F3 52 -9.684
74 F3 53 -12.614
74 F3 54 -15.055
74 F3 55 -16.032
74 F3 56 -15.544
74 F3 57 -14.567
74 F3 58 -13.590
74 F3 59 -13.102
74 F3 60 -12.126
74 F3 61 -11.149
74 F3 62 -9.684
74 F3 63 -8.708
74 F3 64 -7.731
74 F3 65 -6.755
74 F3 66 -5.290
74 F3 67 -3.337
74 F3 68 -1.383
74 F3 69 0.570
74 F3 70 1.546
74 F3 71 2.035
74 F3 72 3.499
74 F3 73 5.452
74 F3 74 7.406
74 F3 75 8.382
74 F3 76 8.382
74 F3 77 7.406
74 F3 78 6.429
74 F3 79 5.941
74 F3 80 6.429
74 F3 81 8.382
74 F3 82 9.847
74 F3 83 10.824
74 F3 84 11.800
74 F3 85 12.777
74 F3 86 13.753
74 F3 87 14.242
74 F3 88 14.242
74 F3 89 12.777
74 F3 90 9.847
74 F3 91 6.429
74 F3 92 3.011
74 F3 93 0.570
74 F3 94 -1.383
74 F3 95 -1.383
74 F3 96 -0.895
74 F3 97 0.570
74 F3 98 2.035
74 F3 99 3.499
74 F3 100 4.964
74 F3 101 5.941
74 F3 102 7.406
74 F3 103 8.382
74 F3 104 8.382
74 F3 105 8.382
74 F3 106 6.917
74 F3 107 4.964
74 F3 108 3.988
74 F3 109 3.499
74 F3 110 4.476
74 F3 111 6.917
74 F3 112 9.359
74 F3 113 13.265
74 F3 114 16.195
74 F3 115 18.148
74 F3 116 18.636
74 F3 117 17.171
74 F3 118 14.730
74 F3 119 12.777
74 F3 120 11.800
74 F3 121 11.800
74 F3 122 11.800
74 F3 123 10.824
74 F3 124 9.359
74 F3 125 7.406
74 F3 126 5.941
74 F3 127 5.452
74 F3 128 5.452
74 F3 129 6.429
74 F3 130 6.429
74 F3 131 6.917
74 F3 132 6.917
74 F3 133 7.406
74 F3 134 8.382
74 F3 135 9.359
74 F3 136 10.335
74 F3 137 10.335
74 F3 138 10.335
74 F3 139 10.335
74 F3 140 11.312
74 F3 141 12.777
74 F3 142 14.242
74 F3 143 16.683
74 F3 144 19.124
74 F3 145 21.077
74 F3 146 22.542
74 F3 147 23.031
74 F3 148 22.054
74 F3 149 20.101
74 F3 150 17.171
74 F3 151 13.753
74 F3 152 11.312
74 F3 153 9.847
74 F3 154 9.847
74 F3 155 11.800
74 F3 156 13.753
74 F3 157 15.218
74 F3 158 15.218
74 F3 159 14.242
74 F3 160 12.288
74 F3 161 10.824
74 F3 162 10.335
74 F3 163 10.335
74 F3 164 10.335
74 F3 165 9.847
74 F3 166 8.870
74 F3 167 8.870
74 F3 168 10.335
74 F3 169 11.800
74 F3 170 13.265
74 F3 171 14.242
74 F3 172 13.265
74 F3 173 11.312
74 F3 174 10.335
74 F3 175 10.824
74 F3 176 11.800
74 F3 177 12.777
74 F3 178 12.777
74 F3 179 11.312
74 F3 180 9.359
74 F3 181 8.382
74 F3 182 7.894
74 F3 183 8.382
74 F3 184 8.870
74 F3 185 9.847
74 F3 186 10.335
74 F3 187 10.335
74 F3 188 10.335
74 F3 189 9.847
74 F3 190 8.382
74 F3 191 7.406
74 F3 192 6.429
74 F3 193 6.917
74 F3 194 8.382
74 F3 195 9.359
74 F3 196 10.824
74 F3 197 12.288
74 F3 198 13.753
74 F3 199 15.218
74 F3 200 16.683
74 F3 201 18.148
74 F3 202 17.660
74 F3 203 16.195
74 F3 204 14.242
74 F3 205 12.777
74 F3 206 13.265
74 F3 207 14.242
74 F3 208 15.218
74 F3 209 15.706
74 F3 210 14.730
74 F3 211 14.242
74 F3 212 14.242
74 F3 213 15.218
74 F3 214 17.171
74 F3 215 18.636
74 F3 216 18.636
74 F3 217 16.683
74 F3 218 13.753
74 F3 219 10.824
74 F3 220 8.382
74 F3 221 6.917
74 F3 222 6.917
74 F3 223 6.917
74 F3 224 7.894
74 F3 225 8.382
74 F3 226 9.359
74 F3 227 10.335
74 F3 228 11.312
74 F3 229 12.777
74 F3 230 13.265
74 F3 231 13.265
74 F3 232 11.800
74 F3 233 10.824
74 F3 234 10.824
74 F3 235 11.312
74 F3 236 13.265
74 F3 237 16.195
74 F3 238 19.124
74 F3 239 21.077
74 F3 240 22.054
74 F3 241 21.566
74 F3 242 19.613
74 F3 243 17.171
74 F3 244 14.730
74 F3 245 14.242
74 F3 246 13.753
74 F3 247 14.242
74 F3 248 14.242
74 F3 249 13.753
74 F3 250 13.265
74 F3 251 13.265
74 F3 252 14.242
74 F3 253 16.195
74 F3 254 18.636
74 F3 255 19.124
# FC6 chan 9
74 FC6 0 -10.986
74 FC6 1 -9.033
74 FC6 2 -7.568
74 FC6 3 -6.592
74 FC6 4 -6.104
74 FC6 5 -5.615
74 FC6 6 -6.104
74 FC6 7 -7.080
74 FC6 8 -8.545
74 FC6 9 -10.498
74 FC6 10 -11.475
74 FC6 11 -10.986
74 FC6 12 -9.521
74 FC6 13 -7.080
74 FC6 14 -4.639
74 FC6 15 -4.150
74 FC6 16 -4.639
74 FC6 17 -7.080
74 FC6 18 -9.521
74 FC6 19 -11.475
74 FC6 20 -11.963
74 FC6 21 -10.986
74 FC6 22 -8.545
74 FC6 23 -6.592
74 FC6 24 -6.104
74 FC6 25 -7.080
74 FC6 26 -8.545
74 FC6 27 -9.521
74 FC6 28 -10.010
74 FC6 29 -9.033
74 FC6 30 -8.545
74 FC6 31 -8.057
74 FC6 32 -8.545
74 FC6 33 -9.033
74 FC6 34 -9.033
74 FC6 35 -7.568
74 FC6 36 -7.080
74 FC6 37 -8.057
74 FC6 38 -10.010
74 FC6 39 -11.963
74 FC6 40 -12.939
74 FC6 41 -11.963
74 FC6 42 -10.010
74 FC6 43 -8.545
74 FC6 44 -7.568
74 FC6 45 -7.080
74 FC6 46 -7.080
74 FC6 47 -6.592
74 FC6 48 -6.104
74 FC6 49 -6.104
74 FC6 50 -6.104
74 FC6 51 -6.104
74 FC6 52 -7.080
74 FC6 53 -8.057
74 FC6 54 -9.033
74 FC6 55 -10.498
74 FC6 56 -11.963
74 FC6 57 -13.428
74 FC6 58 -15.381
74 FC6 59 -16.846
74 FC6 60 -16.846
74 FC6 61 -15.869
74 FC6 62 -14.404
74 FC6 63 -12.451
74 FC6 64 -10.986
74 FC6 65 -10.498
74 FC6 66 -9.521
74 FC6 67 -9.033
74 FC6 68 -8.057
74 FC6 69 -6.592
74 FC6 70 -6.104
74 FC6 71 -5.615
74 FC6 72 -5.127
74 FC6 73 -4.639
74 FC6 74 -3.662
74 FC6 75 -3.174
74 FC6 76 -3.174
74 FC6 77 -3.662
74 FC6 78 -5.615
74 FC6 79 -7.080
74 FC6 80 -7.568
74 FC6 81 -6.592
74 FC6 82 -5.615
74 FC6 83 -5.615
74 FC6 84 -7.568
74 FC6 85 -10.010
74 FC6 86 -11.963
74 FC6 87 -11.963
74 FC6 88 -10.010
74 FC6 89 -8.057
74 FC6 90 -7.080
74 FC6 91 -8.057
74 FC6 92 -9.521
74 FC6 93 -10.498
74 FC6 94 -10.498
74 FC6 95 -9.033
74 FC6 96 -7.080
74 FC6 97 -4.150
74 FC6 98 -1.221
74 FC6 99 1.709
74 FC6 100 3.662
74 FC6 101 4.639
74 FC6 102 4.150
74 FC6 103 3.174
74 FC6 104 2.686
74 FC6 105 2.197
74 FC6 106 1.221
74 FC6 107 -1.221
74 FC6 108 -4.150
74 FC6 109 -7.568
74 FC6 110 -9.521
74 FC6 111 -9.033
74 FC6 112 -7.080
74 FC6 113 -3.662
74 FC6 114 -1.709
74 FC6 115 -1.221
74 FC6 116 -1.221
74 FC6 117 -1.709
74 FC6 118 -1.221
74 FC6 119 -0.732
74 FC6 120 -0.244
74 FC6 121 0.732
74 FC6 122 2.197
74 FC6 123 3.662
74 FC6 124 4.639
74 FC6 125 5.615
74 FC6 126 5.127
74 FC6 127 3.662
74 FC6 128 2.197
74 FC6 129 1.221
74 FC6 130 1.221
74 FC6 131 1.709
74 FC6 132 1.709
74 FC6 133 2.197
74 FC6 134 2.197
74 FC6 135 2.686
74 FC6 136 3.662
74 FC6 137 4.150
74 FC6 138 4.639
74 FC6 139 3.662
74 FC6 140 2.197
74 FC6 141 0.244
74 FC6 142 -1.221
74 FC6 143 -1.709
74 FC6 144 -1.221
74 FC6 145 -0.732
74 FC6 146 0.732
74 FC6 147 1.709
74 FC6 148 2.197
74 FC6 149 2.197
74 FC6 150 1.221
74 FC6 151 -0.244
74 FC6 152 -1.221
74 FC6 153 -1.709
74 FC6 154 -2.686
74 FC6 155 -3.174
74 FC6 156 -4.150
74 FC6 157 -5.127
74 FC6 158 -5.615
74 FC6 159 -5.615
74 FC6 160 -4.639
74 FC6 161 -4.150
74 FC6 162 -4.150
74 FC6 163 -5.127
74 FC6 164 -5.615
74 FC6 165 -6.104
74 FC6 166 -5.615
74 FC6 167 -5.127
74 FC6 168 -5.127
74 FC6 169 -6.104
74 FC6 170 -7.568
74 FC6 171 -9.033
74 FC6 172 -9.033
74 FC6 173 -7.568
74 FC6 174 -5.127
74 FC6 175 -1.221
74 FC6 176 1.221
74 FC6 177 3.174
74 FC6 178 3.174
74 FC6 179 2.686
74 FC6 180 2.197
74 FC6 181 1.709
74 FC6 182 1.221
74 FC6 183 1.221
74 FC6 184 0.244
74 FC6 185 -0.244
74 FC6 186 -0.244
74 FC6 187 0.732
74 FC6 188 1.709
74 FC6 189 1.709
74 FC6 190 0.732
74 FC6 191 -1.221
74 FC6 192 -2.686
74 FC6 193 -3.174
74 FC6 194 -1.709
74 FC6 195 -0.244
74 FC6 196 1.709
74 FC6 197 3.174
74 FC6 198 3.662
74 FC6 199 4.639
74 FC6 200 5.615
74 FC6 201 6.592
74 FC6 202 6.104
74 FC6 203 5.615
74 FC6 204 4.639
74 FC6 205 3.174
74 FC6 206 2.686
74 FC6 207 2.197
74 FC6 208 1.221
74 FC6 209 0.244
74 FC6 210 -1.221
74 FC6 211 -1.709
74 FC6 212 -1.709
74 FC6 213 -0.732
74 FC6 214 -0.244
74 FC6 215 -0.244
74 FC6 216 -0.244
74 FC6 217 -0.244
74 FC6 218 0.244
74 FC6 219 0.732
74 FC6 220 1.709
74 FC6 221 1.221
74 FC6 222 0.244
74 FC6 223 -1.221
74 FC6 224 -1.709
74 FC6 225 -2.197
74 FC6 226 -2.686
74 FC6 227 -3.174
74 FC6 228 -4.150
74 FC6 229 -4.150
74 FC6 230 -4.150
74 FC6 231 -3.174
74 FC6 232 -2.197
74 FC6 233 -1.709
74 FC6 234 -1.709
74 FC6 235 -2.197
74 FC6 236 -2.686
74 FC6 237 -2.686
74 FC6 238 -2.686
74 FC6 239 -3.174
74 FC6 240 -4.150
74 FC6 241 -4.639
74 FC6 242 -4.150
74 FC6 243 -2.686
74 FC6 244 -1.709
74 FC6 245 -0.732
74 FC6 246 -1.221
74 FC6 247 -2.686
74 FC6 248 -3.662
74 FC6 249 -3.174
74 FC6 250 -0.732
74 FC6 251 2.686
74 FC6 252 5.127
74 FC6 253 6.592
74 FC6 254 6.104
74 FC6 255 5.127
# FC5 chan 10
74 FC5 0 -16.317
74 FC5 1 -19.735
74 FC5 2 -21.200
74 FC5 3 -21.200
74 FC5 4 -19.246
74 FC5 5 -16.317
74 FC5 6 -12.899
74 FC5 7 -9.969
74 FC5 8 -8.016
74 FC5 9 -6.551
74 FC5 10 -7.039
74 FC5 11 -7.528
74 FC5 12 -8.016
74 FC5 13 -8.993
74 FC5 14 -9.969
74 FC5 15 -11.922
74 FC5 16 -14.364
74 FC5 17 -16.805
74 FC5 18 -18.270
74 FC5 19 -17.782
74 FC5 20 -17.293
74 FC5 21 -15.828
74 FC5 22 -14.852
74 FC5 23 -13.875
74 FC5 24 -11.922
74 FC5 25 -8.993
74 FC5 26 -6.063
74 FC5 27 -3.133
74 FC5 28 -1.180
74 FC5 29 -1.180
74 FC5 30 -2.157
74 FC5 31 -4.110
74 FC5 32 -5.575
74 FC5 33 -6.551
74 FC5 34 -6.063
74 FC5 35 -4.110
74 FC5 36 -2.645
74 FC5 37 -1.668
74 FC5 38 -2.645
74 FC5 39 -5.086
74 FC5 40 -6.551
74 FC5 41 -7.039
74 FC5 42 -5.575
74 FC5 43 -2.645
74 FC5 44 -1.180
74 FC5 45 -1.668
74 FC5 46 -4.598
74 FC5 47 -8.016
74 FC5 48 -10.457
74 FC5 49 -11.434
74 FC5 50 -11.434
74 FC5 51 -11.922
74 FC5 52 -13.387
74 FC5 53 -14.852
74 FC5 54 -15.828
74 FC5 55 -15.828
74 FC5 56 -14.364
74 FC5 57 -13.387
74 FC5 58 -12.899
74 FC5 59 -12.899
74 FC5 60 -12.410
74 FC5 61 -11.922
74 FC5 62 -10.946
74 FC5 63 -10.457
74 FC5 64 -9.969
74 FC5 65 -8.504
74 FC5 66 -5.086
74 FC5 67 -0.203
74 FC5 68 4.191
74 FC5 69 6.632
74 FC5 70 7.121
74 FC5 71 5.656
74 FC5 72 4.679
74 FC5 73 5.168
74 FC5 74 6.144
74 FC5 75 7.609
74 FC5 76 7.121
74 FC5 77 6.144
74 FC5 78 4.679
74 FC5 79 3.215
74 FC5 80 2.726
74 FC5 81 3.215
74 FC5 82 4.191
74 FC5 83 5.168
74 FC5 84 6.144
74 FC5 85 7.121
74 FC5 86 7.121
74 FC5 87 6.632
74 FC5 88 5.656
74 FC5 89 3.703
74 FC5 90 1.750
74 FC5 91 -0.203
74 FC5 92 -1.668
74 FC5 93 -2.157
74 FC5 94 -2.157
74 FC5 95 -2.157
74 FC5 96 -1.668
74 FC5 97 -0.692
74 FC5 98 1.261
74 FC5 99 3.215
74 FC5 100 5.168
74 FC5 101 6.632
74 FC5 102 8.586
74 FC5 103 9.562
74 FC5 104 10.539
74 FC5 105 11.027
74 FC5 106 10.539
74 FC5 107 8.586
74 FC5 108 7.121
74 FC5 109 5.656
74 FC5 110 6.144
74 FC5 111 8.097
74 FC5 112 10.050
74 FC5 113 12.980
74 FC5 114 15.422
74 FC5 115 16.886
74 FC5 116 16.886
74 FC5 117 15.910
74 FC5 118 14.933
74 FC5 119 13.957
74 FC5 120 12.980
74 FC5 121 12.004
74 FC5 122 10.539
74 FC5 123 9.074
74 FC5 124 7.609
74 FC5 125 7.609
74 FC5 126 7.609
74 FC5 127 8.586
74 FC5 128 9.074
74 FC5 129 9.074
74 FC5 130 9.074
74 FC5 131 9.562
74 FC5 132 11.027
74 FC5 133 13.468
74 FC5 134 15.422
74 FC5 135 15.422
74 FC5 136 14.933
74 FC5 137 13.468
74 FC5 138 12.492
74 FC5 139 12.492
74 FC5 140 12.980
74 FC5 141 14.445
74 FC5 142 15.422
74 FC5 143 16.398
74 FC5 144 17.375
74 FC5 145 18.840
74 FC5 146 19.816
74 FC5 147 19.816
74 FC5 148 18.351
74 FC5 149 15.910
74 FC5 150 13.468
74 FC5 151 10.539
74 FC5 152 8.586
74 FC5 153 8.586
74 FC5 154 9.562
74 FC5 155 11.027
74 FC5 156 12.980
74 FC5 157 13.468
74 FC5 158 12.492
74 FC5 159 11.027
74 FC5 160 10.539
74 FC5 161 11.515
74 FC5 162 13.957
74 FC5 163 15.422
74 FC5 164 15.910
74 FC5 165 14.445
74 FC5 166 12.004
74 FC5 167 10.539
74 FC5 168 10.050
74 FC5 169 10.539
74 FC5 170 11.027
74 FC5 171 11.027
74 FC5 172 10.050
74 FC5 173 9.562
74 FC5 174 9.074
74 FC5 175 9.074
74 FC5 176 8.586
74 FC5 177 8.097
74 FC5 178 7.121
74 FC5 179 6.632
74 FC5 180 6.632
74 FC5 181 6.632
74 FC5 182 7.609
74 FC5 183 8.097
74 FC5 184 9.074
74 FC5 185 9.562
74 FC5 186 10.539
74 FC5 187 10.050
74 FC5 188 9.074
74 FC5 189 7.121
74 FC5 190 5.656
74 FC5 191 5.656
74 FC5 192 6.144
74 FC5 193 7.609
74 FC5 194 8.586
74 FC5 195 9.562
74 FC5 196 10.050
74 FC5 197 11.027
74 FC5 198 12.492
74 FC5 199 13.957
74 FC5 200 15.910
74 FC5 201 16.886
74 FC5 202 16.886
74 FC5 203 15.422
74 FC5 204 13.468
74 FC5 205 11.515
74 FC5 206 10.539
74 FC5 207 10.539
74 FC5 208 12.004
74 FC5 209 13.468
74 FC5 210 13.957
74 FC5 211 13.468
74 FC5 212 12.492
74 FC5 213 12.980
74 FC5 214 14.445
74 FC5 215 16.886
74 FC5 216 18.351
74 FC5 217 17.863
74 FC5 218 15.422
74 FC5 219 12.004
74 FC5 220 8.586
74 FC5 221 6.632
74 FC5 222 6.144
74 FC5 223 6.632
74 FC5 224 7.609
74 FC5 225 7.609
74 FC5 226 7.609
74 FC5 227 7.609
74 FC5 228 7.609
74 FC5 229 9.562
74 FC5 230 10.539
74 FC5 231 12.004
74 FC5 232 12.004
74 FC5 233 12.004
74 FC5 234 12.004
74 FC5 235 12.004
74 FC5 236 12.004
74 FC5 237 12.004
74 FC5 238 12.492
74 FC5 239 12.980
74 FC5 240 13.957
74 FC5 241 14.445
74 FC5 242 13.957
74 FC5 243 12.492
74 FC5 244 10.050
74 FC5 245 8.586
74 FC5 246 8.097
74 FC5 247 8.586
74 FC5 248 9.562
74 FC5 249 10.050
74 FC5 250 10.539
74 FC5 251 11.027
74 FC5 252 12.980
74 FC5 253 15.910
74 FC5 254 18.840
74 FC5 255 20.304
# FC2 chan 11
74 FC2 0 -3.408
74 FC2 1 -4.384
74 FC2 2 -4.873
74 FC2 3 -4.873
74 FC2 4 -3.896
74 FC2 5 -2.920
74 FC2 6 -1.943
74 FC2 7 -1.455
74 FC2 8 -1.943
74 FC2 9 -2.920
74 FC2 10 -3.896
74 FC2 11 -4.873
74 FC2 12 -5.361
74 FC2 13 -5.361
74 FC2 14 -4.873
74 FC2 15 -4.384
74 FC2 16 -4.384
74 FC2 17 -4.873
74 FC2 18 -5.361
74 FC2 19 -6.337
74 FC2 20 -7.314
74 FC2 21 -7.314
74 FC2 22 -6.826
74 FC2 23 -6.337
74 FC2 24 -6.337
74 FC2 25 -7.314
74 FC2 26 -8.291
74 FC2 27 -9.267
74 FC2 28 -9.755
74 FC2 29 -9.267
74 FC2 30 -8.291
74 FC2 31 -6.826
74 FC2 32 -6.337
74 FC2 33 -5.361
74 FC2 34 -5.361
74 FC2 35 -5.361
74 FC2 36 -6.337
74 FC2 37 -8.291
74 FC2 38 -10.244
74 FC2 39 -12.197
74 FC2 40 -12.685
74 FC2 41 -12.197
74 FC2 42 -10.732
74 FC2 43 -9.267
74 FC2 44 -8.291
74 FC2 45 -7.802
74 FC2 46 -7.802
74 FC2 47 -7.314
74 FC2 48 -6.826
74 FC2 49 -6.337
74 FC2 50 -5.849
74 FC2 51 -6.337
74 FC2 52 -7.802
74 FC2 53 -9.267
74 FC2 54 -11.220
74 FC2 55 -11.709
74 FC2 56 -11.220
74 FC2 57 -11.220
74 FC2 58 -10.732
74 FC2 59 -11.709
74 FC2 60 -12.685
74 FC2 61 -13.662
74 FC2 62 -13.662
74 FC2 63 -13.662
74 FC2 64 -13.662
74 FC2 65 -14.150
74 FC2 66 -14.638
74 FC2 67 -15.615
74 FC2 68 -16.103
74 FC2 69 -16.103
74 FC2 70 -15.127
74 FC2 71 -14.638
74 FC2 72 -13.662
74 FC2 73 -12.197
74 FC2 74 -11.220
74 FC2 75 -10.732
74 FC2 76 -10.732
74 FC2 77 -11.220
74 FC2 78 -11.709
74 FC2 79 -11.709
74 FC2 80 -11.709
74 FC2 81 -10.244
74 FC2 82 -9.267
74 FC2 83 -9.267
74 FC2 84 -9.267
74 FC2 85 -10.244
74 FC2 86 -10.244
74 FC2 87 -10.244
74 FC2 88 -9.755
74 FC2 89 -9.755
74 FC2 90 -10.244
74 FC2 91 -11.220
74 FC2 92 -12.685
74 FC2 93 -13.173
74 FC2 94 -13.662
74 FC2 95 -12.685
74 FC2 96 -11.709
74 FC2 97 -9.755
74 FC2 98 -8.291
74 FC2 99 -6.826
74 FC2 100 -6.337
74 FC2 101 -6.337
74 FC2 102 -6.826
74 FC2 103 -7.314
74 FC2 104 -7.314
74 FC2 105 -7.802
74 FC2 106 -8.291
74 FC2 107 -9.755
74 FC2 108 -10.732
74 FC2 109 -11.709
74 FC2 110 -12.197
74 FC2 111 -11.220
74 FC2 112 -10.244
74 FC2 113 -8.779
74 FC2 114 -7.314
74 FC2 115 -6.337
74 FC2 116 -5.849
74 FC2 117 -5.849
74 FC2 118 -5.849
74 FC2 119 -6.337
74 FC2 120 -5.361
74 FC2 121 -4.873
74 FC2 122 -3.408
74 FC2 123 -2.920
74 FC2 124 -2.920
74 FC2 125 -3.896
74 FC2 126 -5.361
74 FC2 127 -6.826
74 FC2 128 -7.314
74 FC2 129 -6.826
74 FC2 130 -5.361
74 FC2 131 -4.384
74 FC2 132 -3.896
74 FC2 133 -3.408
74 FC2 134 -3.408
74 FC2 135 -3.896
74 FC2 136 -3.896
74 FC2 137 -4.384
74 FC2 138 -4.384
74 FC2 139 -4.384
74 FC2 140 -4.873
74 FC2 141 -4.873
74 FC2 142 -4.873
74 FC2 143 -4.384
74 FC2 144 -4.384
74 FC2 145 -3.896
74 FC2 146 -3.408
74 FC2 147 -2.920
74 FC2 148 -1.943
74 FC2 149 -1.943
74 FC2 150 -2.920
74 FC2 151 -4.384
74 FC2 152 -5.849
74 FC2 153 -7.314
74 FC2 154 -7.802
74 FC2 155 -7.802
74 FC2 156 -7.314
74 FC2 157 -7.802
74 FC2 158 -7.802
74 FC2 159 -8.291
74 FC2 160 -8.291
74 FC2 161 -7.314
74 FC2 162 -6.826
74 FC2 163 -6.826
74 FC2 164 -6.826
74 FC2 165 -7.314
74 FC2 166 -7.314
74 FC2 167 -7.314
74 FC2 168 -6.337
74 FC2 169 -6.337
74 FC2 170 -6.337
74 FC2 171 -6.337
74 FC2 172 -6.337
74 FC2 173 -5.849
74 FC2 174 -4.384
74 FC2 175 -2.920
74 FC2 176 -0.478
74 FC2 177 0.010
74 FC2 178 0.010
74 FC2 179 -1.455
74 FC2 180 -2.920
74 FC2 181 -3.408
74 FC2 182 -3.408
74 FC2 183 -2.920
74 FC2 184 -2.920
74 FC2 185 -2.431
74 FC2 186 -2.431
74 FC2 187 -2.431
74 FC2 188 -1.943
74 FC2 189 -1.455
74 FC2 190 -1.943
74 FC2 191 -3.408
74 FC2 192 -4.384
74 FC2 193 -4.873
74 FC2 194 -4.384
74 FC2 195 -3.408
74 FC2 196 -1.943
74 FC2 197 -0.478
74 FC2 198 0.010
74 FC2 199 0.987
74 FC2 200 0.987
74 FC2 201 0.987
74 FC2 202 0.498
74 FC2 203 0.010
74 FC2 204 -0.478
74 FC2 205 -0.478
74 FC2 206 0.010
74 FC2 207 0.987
74 FC2 208 1.475
74 FC2 209 1.475
74 FC2 210 1.475
74 FC2 211 0.987
74 FC2 212 1.475
74 FC2 213 1.963
74 FC2 214 2.452
74 FC2 215 2.452
74 FC2 216 1.475
74 FC2 217 0.010
74 FC2 218 -0.966
74 FC2 219 -0.966
74 FC2 220 -0.478
74 FC2 221 0.010
74 FC2 222 0.498
74 FC2 223 0.987
74 FC2 224 0.987
74 FC2 225 0.987
74 FC2 226 0.498
74 FC2 227 0.987
74 FC2 228 0.987
74 FC2 229 0.987
74 FC2 230 1.475
74 FC2 231 1.475
74 FC2 232 0.987
74 FC2 233 0.987
74 FC2 234 0.987
74 FC2 235 1.475
74 FC2 236 1.963
74 FC2 237 2.940
74 FC2 238 3.428
74 FC2 239 3.428
74 FC2 240 3.428
74 FC2 241 2.940
74 FC2 242 2.940
74 FC2 243 2.940
74 FC2 244 2.452
74 FC2 245 2.452
74 FC2 246 1.475
74 FC2 247 1.475
74 FC2 248 1.475
74 FC2 249 2.452
74 FC2 250 3.428
74 FC2 251 4.405
74 FC2 252 4.405
74 FC2 253 3.916
74 FC2 254 3.428
74 FC2 255 2.940
# FC1 chan 12
74 FC1 0 -5.788
74 FC1 1 -8.718
74 FC1 2 -10.671
74 FC1 3 -12.136
74 FC1 4 -12.136
74 FC1 5 -10.671
74 FC1 6 -8.230
74 FC1 7 -4.812
74 FC1 8 -1.882
74 FC1 9 0.071
74 FC1 10 0.559
74 FC1 11 0.559
74 FC1 12 0.559
74 FC1 13 0.071
74 FC1 14 -0.905
74 FC1 15 -2.858
74 FC1 16 -5.300
74 FC1 17 -7.253
74 FC1 18 -8.718
74 FC1 19 -10.183
74 FC1 20 -11.159
74 FC1 21 -12.624
74 FC1 22 -14.089
74 FC1 23 -15.066
74 FC1 24 -14.089
74 FC1 25 -11.648
74 FC1 26 -8.230
74 FC1 27 -5.300
74 FC1 28 -3.347
74 FC1 29 -2.858
74 FC1 30 -3.347
74 FC1 31 -4.323
74 FC1 32 -4.812
74 FC1 33 -4.812
74 FC1 34 -4.323
74 FC1 35 -3.835
74 FC1 36 -3.835
74 FC1 37 -4.323
74 FC1 38 -6.276
74 FC1 39 -7.741
74 FC1 40 -8.718
74 FC1 41 -8.718
74 FC1 42 -7.253
74 FC1 43 -5.788
74 FC1 44 -4.812
74 FC1 45 -4.812
74 FC1 46 -5.788
74 FC1 47 -7.253
74 FC1 48 -7.253
74 FC1 49 -6.765
74 FC1 50 -5.788
74 FC1 51 -6.276
74 FC1 52 -7.253
74 FC1 53 -9.206
74 FC1 54 -11.159
74 FC1 55 -12.136
74 FC1 56 -11.648
74 FC1 57 -10.671
74 FC1 58 -9.206
74 FC1 59 -8.718
74 FC1 60 -7.741
74 FC1 61 -7.741
74 FC1 62 -7.741
74 FC1 63 -8.230
74 FC1 64 -9.206
74 FC1 65 -10.183
74 FC1 66 -10.183
74 FC1 67 -10.183
74 FC1 68 -9.206
74 FC1 69 -9.206
74 FC1 70 -8.718
74 FC1 71 -8.230
74 FC1 72 -6.765
74 FC1 73 -5.300
74 FC1 74 -3.347
74 FC1 75 -1.882
74 FC1 76 -1.882
74 FC1 77 -2.858
74 FC1 78 -3.835
74 FC1 79 -4.323
74 FC1 80 -4.323
74 FC1 81 -3.347
74 FC1 82 -2.858
74 FC1 83 -2.370
74 FC1 84 -1.882
74 FC1 85 -0.417
74 FC1 86 1.048
74 FC1 87 2.024
74 FC1 88 2.513
74 FC1 89 1.536
74 FC1 90 -0.905
74 FC1 91 -3.835
74 FC1 92 -5.788
74 FC1 93 -7.253
74 FC1 94 -7.741
74 FC1 95 -7.741
74 FC1 96 -8.230
74 FC1 97 -7.253
74 FC1 98 -7.253
74 FC1 99 -6.765
74 FC1 100 -6.276
74 FC1 101 -6.276
74 FC1 102 -6.276
74 FC1 103 -5.300
74 FC1 104 -4.323
74 FC1 105 -3.835
74 FC1 106 -3.347
74 FC1 107 -3.835
74 FC1 108 -4.323
74 FC1 109 -4.323
74 FC1 110 -3.835
74 FC1 111 -2.370
74 FC1 112 -0.417
74 FC1 113 2.024
74 FC1 114 3.977
74 FC1 115 4.466
74 FC1 116 4.466
74 FC1 117 3.489
74 FC1 118 1.536
74 FC1 119 0.071
74 FC1 120 -0.905
74 FC1 121 -1.882
74 FC1 122 -2.370
74 FC1 123 -3.835
74 FC1 124 -5.300
74 FC1 125 -6.276
74 FC1 126 -6.765
74 FC1 127 -6.276
74 FC1 128 -5.300
74 FC1 129 -5.300
74 FC1 130 -5.300
74 FC1 131 -5.300
74 FC1 132 -5.300
74 FC1 133 -4.812
74 FC1 134 -3.835
74 FC1 135 -2.858
74 FC1 136 -1.882
74 FC1 137 -1.394
74 FC1 138 -0.905
74 FC1 139 -0.417
74 FC1 140 0.071
74 FC1 141 1.048
74 FC1 142 2.024
74 FC1 143 2.513
74 FC1 144 3.489
74 FC1 145 4.466
74 FC1 146 5.442
74 FC1 147 6.419
74 FC1 148 5.442
74 FC1 149 4.466
74 FC1 150 2.513
74 FC1 151 1.048
74 FC1 152 -0.417
74 FC1 153 -1.394
74 FC1 154 -1.394
74 FC1 155 -0.417
74 FC1 156 0.559
74 FC1 157 1.536
74 FC1 158 1.536
74 FC1 159 1.048
74 FC1 160 0.559
74 FC1 161 -0.417
74 FC1 162 -0.417
74 FC1 163 -0.417
74 FC1 164 -0.417
74 FC1 165 -1.394
74 FC1 166 -1.394
74 FC1 167 -1.394
74 FC1 168 -0.417
74 FC1 169 1.048
74 FC1 170 2.513
74 FC1 171 3.001
74 FC1 172 2.513
74 FC1 173 2.024
74 FC1 174 1.048
74 FC1 175 1.048
74 FC1 176 1.048
74 FC1 177 1.048
74 FC1 178 1.048
74 FC1 179 0.559
74 FC1 180 0.071
74 FC1 181 0.071
74 FC1 182 0.071
74 FC1 183 0.071
74 FC1 184 0.071
74 FC1 185 0.071
74 FC1 186 0.071
74 FC1 187 0.071
74 FC1 188 0.071
74 FC1 189 -0.417
74 FC1 190 -1.394
74 FC1 191 -1.882
74 FC1 192 -1.882
74 FC1 193 -1.882
74 FC1 194 -0.905
74 FC1 195 -0.417
74 FC1 196 0.559
74 FC1 197 1.048
74 FC1 198 1.536
74 FC1 199 2.513
74 FC1 200 3.489
74 FC1 201 3.977
74 FC1 202 3.977
74 FC1 203 3.001
74 FC1 204 2.513
74 FC1 205 2.513
74 FC1 206 3.001
74 FC1 207 3.977
74 FC1 208 4.954
74 FC1 209 5.442
74 FC1 210 5.442
74 FC1 211 4.954
74 FC1 212 4.954
74 FC1 213 5.442
74 FC1 214 5.931
74 FC1 215 5.442
74 FC1 216 4.954
74 FC1 217 3.977
74 FC1 218 2.024
74 FC1 219 1.048
74 FC1 220 0.071
74 FC1 221 0.559
74 FC1 222 1.536
74 FC1 223 3.001
74 FC1 224 4.466
74 FC1 225 4.954
74 FC1 226 5.442
74 FC1 227 5.442
74 FC1 228 5.442
74 FC1 229 5.442
74 FC1 230 5.442
74 FC1 231 5.442
74 FC1 232 4.954
74 FC1 233 4.954
74 FC1 234 5.442
74 FC1 235 5.931
74 FC1 236 7.395
74 FC1 237 8.372
74 FC1 238 9.837
74 FC1 239 10.325
74 FC1 240 10.325
74 FC1 241 10.325
74 FC1 242 8.860
74 FC1 243 7.395
74 FC1 244 5.931
74 FC1 245 5.442
74 FC1 246 5.442
74 FC1 247 6.419
74 FC1 248 6.907
74 FC1 249 7.395
74 FC1 250 7.395
74 FC1 251 7.395
74 FC1 252 7.395
74 FC1 253 7.884
74 FC1 254 8.372
74 FC1 255 7.884
# T8 chan 13
74 T8 0 -9.725
74 T8 1 -6.795
74 T8 2 -3.866
74 T8 3 -2.889
74 T8 4 -2.889
74 T8 5 -2.889
74 T8 6 -3.377
74 T8 7 -2.889
74 T8 8 -2.889
74 T8 9 -3.377
74 T8 10 -3.866
74 T8 11 -3.377
74 T8 12 -2.401
74 T8 13 -0.448
74 T8 14 1.506
74 T8 15 2.482
74 T8 16 1.506
74 T8 17 -0.448
74 T8 18 -2.401
74 T8 19 -2.889
74 T8 20 -2.401
74 T8 21 0.529
74 T8 22 3.459
74 T8 23 5.900
74 T8 24 6.388
74 T8 25 4.924
74 T8 26 1.994
74 T8 27 0.041
74 T8 28 -0.448
74 T8 29 0.529
74 T8 30 1.017
74 T8 31 0.041
74 T8 32 -1.912
74 T8 33 -3.866
74 T8 34 -3.377
74 T8 35 -0.448
74 T8 36 2.482
74 T8 37 4.435
74 T8 38 3.947
74 T8 39 2.970
74 T8 40 1.994
74 T8 41 2.482
74 T8 42 3.947
74 T8 43 4.924
74 T8 44 3.947
74 T8 45 2.970
74 T8 46 1.994
74 T8 47 1.994
74 T8 48 3.459
74 T8 49 5.412
74 T8 50 6.388
74 T8 51 6.388
74 T8 52 5.412
74 T8 53 3.947
74 T8 54 2.482
74 T8 55 0.529
74 T8 56 -1.424
74 T8 57 -4.354
74 T8 58 -7.284
74 T8 59 -9.237
74 T8 60 -9.725
74 T8 61 -7.772
74 T8 62 -5.330
74 T8 63 -2.889
74 T8 64 -0.936
74 T8 65 0.041
74 T8 66 1.017
74 T8 67 2.482
74 T8 68 4.435
74 T8 69 6.388
74 T8 70 6.877
74 T8 71 6.877
74 T8 72 6.877
74 T8 73 6.877
74 T8 74 7.853
74 T8 75 8.830
74 T8 76 8.830
74 T8 77 7.853
74 T8 78 5.412
74 T8 79 2.482
74 T8 80 0.529
74 T8 81 -0.448
74 T8 82 -0.448
74 T8 83 -0.936
74 T8 84 -1.912
74 T8 85 -4.354
74 T8 86 -6.307
74 T8 87 -6.307
74 T8 88 -4.354
74 T8 89 -1.912
74 T8 90 1.017
74 T8 91 1.017
74 T8 92 0.041
74 T8 93 -1.424
74 T8 94 -1.912
74 T8 95 -0.936
74 T8 96 1.017
74 T8 97 3.459
74 T8 98 5.900
74 T8 99 6.877
74 T8 100 7.853
74 T8 101 7.853
74 T8 102 7.853
74 T8 103 7.853
74 T8 104 7.853
74 T8 105 7.365
74 T8 106 6.388
74 T8 107 4.435
74 T8 108 1.994
74 T8 109 0.041
74 T8 110 -0.936
74 T8 111 -1.424
74 T8 112 -0.936
74 T8 113 0.041
74 T8 114 1.017
74 T8 115 1.994
74 T8 116 3.459
74 T8 117 3.459
74 T8 118 3.947
74 T8 119 3.947
74 T8 120 3.459
74 T8 121 4.435
74 T8 122 5.412
74 T8 123 6.877
74 T8 124 7.365
74 T8 125 7.853
74 T8 126 8.341
74 T8 127 8.830
74 T8 128 8.830
74 T8 129 8.830
74 T8 130 7.853
74 T8 131 7.365
74 T8 132 6.877
74 T8 133 7.365
74 T8 134 7.853
74 T8 135 8.830
74 T8 136 8.830
74 T8 137 8.341
74 T8 138 7.853
74 T8 139 6.877
74 T8 140 5.900
74 T8 141 4.924
74 T8 142 2.970
74 T8 143 1.994
74 T8 144 1.017
74 T8 145 1.506
74 T8 146 2.970
74 T8 147 3.947
74 T8 148 4.924
74 T8 149 5.412
74 T8 150 4.924
74 T8 151 3.947
74 T8 152 2.970
74 T8 153 1.994
74 T8 154 0.529
74 T8 155 0.041
74 T8 156 0.041
74 T8 157 0.041
74 T8 158 1.017
74 T8 159 1.017
74 T8 160 0.529
74 T8 161 -0.936
74 T8 162 -1.912
74 T8 163 -1.912
74 T8 164 -1.424
74 T8 165 -0.936
74 T8 166 -0.936
74 T8 167 -1.424
74 T8 168 -2.401
74 T8 169 -3.377
74 T8 170 -3.377
74 T8 171 -2.889
74 T8 172 -1.912
74 T8 173 -0.448
74 T8 174 1.017
74 T8 175 3.459
74 T8 176 5.900
74 T8 177 8.830
74 T8 178 11.271
74 T8 179 12.736
74 T8 180 12.736
74 T8 181 11.271
74 T8 182 8.830
74 T8 183 5.900
74 T8 184 3.947
74 T8 185 2.970
74 T8 186 3.459
74 T8 187 4.924
74 T8 188 5.412
74 T8 189 4.924
74 T8 190 3.459
74 T8 191 1.994
74 T8 192 1.994
74 T8 193 2.482
74 T8 194 3.947
74 T8 195 4.924
74 T8 196 5.900
74 T8 197 7.365
74 T8 198 8.830
74 T8 199 11.271
74 T8 200 13.713
74 T8 201 14.689
74 T8 202 14.201
74 T8 203 12.248
74 T8 204 10.295
74 T8 205 8.341
74 T8 206 6.877
74 T8 207 5.412
74 T8 208 2.970
74 T8 209 1.017
74 T8 210 0.041
74 T8 211 0.041
74 T8 212 1.017
74 T8 213 1.994
74 T8 214 2.482
74 T8 215 2.482
74 T8 216 3.459
74 T8 217 4.924
74 T8 218 6.388
74 T8 219 8.341
74 T8 220 8.830
74 T8 221 7.853
74 T8 222 5.900
74 T8 223 2.970
74 T8 224 1.017
74 T8 225 0.529
74 T8 226 0.529
74 T8 227 1.017
74 T8 228 1.994
74 T8 229 1.994
74 T8 230 2.482
74 T8 231 2.482
74 T8 232 2.482
74 T8 233 1.994
74 T8 234 0.529
74 T8 235 -0.936
74 T8 236 -2.401
74 T8 237 -3.866
74 T8 238 -3.866
74 T8 239 -4.354
74 T8 240 -4.354
74 T8 241 -4.354
74 T8 242 -4.354
74 T8 243 -3.377
74 T8 244 -2.401
74 T8 245 -1.424
74 T8 246 -1.424
74 T8 247 -2.401
74 T8 248 -2.401
74 T8 249 -1.424
74 T8 250 1.994
74 T8 251 5.900
74 T8 252 9.806
74 T8 253 12.736
74 T8 254 13.224
74 T8 255 11.759
# T7 chan 14
74 T7 0 -9.735
74 T7 1 -9.247
74 T7 2 -7.782
74 T7 3 -5.829
74 T7 4 -4.364
74 T7 5 -3.387
74 T7 6 -2.411
74 T7 7 -1.434
74 T7 8 -0.946
74 T7 9 -0.458
74 T7 10 -0.946
74 T7 11 -1.434
74 T7 12 -0.946
74 T7 13 0.031
74 T7 14 1.007
74 T7 15 1.007
74 T7 16 0.031
74 T7 17 -1.434
74 T7 18 -1.434
74 T7 19 0.519
74 T7 20 4.425
74 T7 21 8.820
74 T7 22 12.238
74 T7 23 14.679
74 T7 24 16.144
74 T7 25 17.120
74 T7 26 17.120
74 T7 27 17.609
74 T7 28 16.632
74 T7 29 15.167
74 T7 30 13.214
74 T7 31 11.261
74 T7 32 9.308
74 T7 33 8.820
74 T7 34 8.820
74 T7 35 9.796
74 T7 36 11.749
74 T7 37 13.702
74 T7 38 15.167
74 T7 39 16.632
74 T7 40 17.609
74 T7 41 18.585
74 T7 42 18.585
74 T7 43 18.585
74 T7 44 17.120
74 T7 45 15.656
74 T7 46 13.702
74 T7 47 11.749
74 T7 48 10.284
74 T7 49 9.308
74 T7 50 9.308
74 T7 51 9.308
74 T7 52 9.796
74 T7 53 10.284
74 T7 54 10.773
74 T7 55 11.261
74 T7 56 10.773
74 T7 57 10.773
74 T7 58 10.773
74 T7 59 11.261
74 T7 60 12.238
74 T7 61 13.214
74 T7 62 12.726
74 T7 63 11.261
74 T7 64 10.773
74 T7 65 13.214
74 T7 66 17.609
74 T7 67 23.956
74 T7 68 29.327
74 T7 69 31.281
74 T7 70 29.816
74 T7 71 27.374
74 T7 72 25.421
74 T7 73 25.421
74 T7 74 27.374
74 T7 75 28.839
74 T7 76 28.839
74 T7 77 26.886
74 T7 78 24.445
74 T7 79 22.491
74 T7 80 21.027
74 T7 81 21.027
74 T7 82 20.050
74 T7 83 18.585
74 T7 84 16.144
74 T7 85 13.702
74 T7 86 11.749
74 T7 87 11.261
74 T7 88 11.261
74 T7 89 12.726
74 T7 90 13.702
74 T7 91 13.702
74 T7 92 13.214
74 T7 93 12.238
74 T7 94 11.749
74 T7 95 12.726
74 T7 96 14.191
74 T7 97 16.144
74 T7 98 18.097
74 T7 99 20.050
74 T7 100 21.027
74 T7 101 21.027
74 T7 102 21.515
74 T7 103 22.003
74 T7 104 23.468
74 T7 105 24.933
74 T7 106 26.398
74 T7 107 25.909
74 T7 108 24.933
74 T7 109 23.468
74 T7 110 22.003
74 T7 111 21.027
74 T7 112 20.538
74 T7 113 21.027
74 T7 114 21.027
74 T7 115 20.538
74 T7 116 20.538
74 T7 117 20.050
74 T7 118 19.562
74 T7 119 19.562
74 T7 120 20.050
74 T7 121 20.050
74 T7 122 20.538
74 T7 123 19.562
74 T7 124 19.562
74 T7 125 20.538
74 T7 126 22.003
74 T7 127 22.980
74 T7 128 23.468
74 T7 129 22.980
74 T7 130 22.003
74 T7 131 22.003
74 T7 132 22.491
74 T7 133 24.445
74 T7 134 25.909
74 T7 135 26.398
74 T7 136 24.445
74 T7 137 22.491
74 T7 138 20.050
74 T7 139 19.073
74 T7 140 19.073
74 T7 141 19.073
74 T7 142 18.585
74 T7 143 18.097
74 T7 144 17.609
74 T7 145 18.585
74 T7 146 19.562
74 T7 147 20.538
74 T7 148 19.562
74 T7 149 17.609
74 T7 150 15.167
74 T7 151 13.214
74 T7 152 13.214
74 T7 153 13.702
74 T7 154 14.679
74 T7 155 15.167
74 T7 156 15.656
74 T7 157 16.144
74 T7 158 16.632
74 T7 159 17.120
74 T7 160 18.097
74 T7 161 19.073
74 T7 162 20.050
74 T7 163 21.515
74 T7 164 22.491
74 T7 165 22.491
74 T7 166 21.515
74 T7 167 19.562
74 T7 168 18.585
74 T7 169 18.097
74 T7 170 19.073
74 T7 171 19.562
74 T7 172 19.073
74 T7 173 17.609
74 T7 174 15.167
74 T7 175 12.726
74 T7 176 11.261
74 T7 177 10.284
74 T7 178 10.773
74 T7 179 11.261
74 T7 180 11.261
74 T7 181 10.773
74 T7 182 9.796
74 T7 183 9.796
74 T7 184 9.796
74 T7 185 11.261
74 T7 186 12.238
74 T7 187 12.238
74 T7 188 11.749
74 T7 189 10.284
74 T7 190 8.820
74 T7 191 8.331
74 T7 192 8.820
74 T7 193 10.773
74 T7 194 13.214
74 T7 195 14.679
74 T7 196 15.167
74 T7 197 15.656
74 T7 198 15.167
74 T7 199 15.656
74 T7 200 16.144
74 T7 201 17.120
74 T7 202 17.120
74 T7 203 16.144
74 T7 204 15.167
74 T7 205 13.214
74 T7 206 11.749
74 T7 207 11.261
74 T7 208 11.749
74 T7 209 12.238
74 T7 210 12.238
74 T7 211 13.214
74 T7 212 13.214
74 T7 213 14.191
74 T7 214 14.679
74 T7 215 15.167
74 T7 216 15.656
74 T7 217 16.144
74 T7 218 16.144
74 T7 219 15.167
74 T7 220 13.214
74 T7 221 11.749
74 T7 222 10.284
74 T7 223 9.308
74 T7 224 8.820
74 T7 225 8.331
74 T7 226 7.843
74 T7 227 7.843
74 T7 228 7.843
74 T7 229 8.331
74 T7 230 9.308
74 T7 231 9.796
74 T7 232 10.284
74 T7 233 10.284
74 T7 234 10.284
74 T7 235 10.773
74 T7 236 10.284
74 T7 237 9.796
74 T7 238 9.308
74 T7 239 9.308
74 T7 240 9.308
74 T7 241 9.796
74 T7 242 9.308
74 T7 243 8.331
74 T7 244 6.866
74 T7 245 5.402
74 T7 246 4.913
74 T7 247 5.402
74 T7 248 6.866
74 T7 249 8.820
74 T7 250 10.284
74 T7 251 12.238
74 T7 252 14.679
74 T7 253 17.120
74 T7 254 19.562
74 T7 255 20.538
# CZ chan 15
74 CZ 0 3.326
74 CZ 1 -6.927
74 CZ 2 -12.787
74 CZ 3 -12.299
74 CZ 4 -7.416
74 CZ 5 -3.998
74 CZ 6 -4.486
74 CZ 7 -5.463
74 CZ 8 -2.533
74 CZ 9 5.280
74 CZ 10 14.069
74 CZ 11 14.557
74 CZ 12 3.326
74 CZ 13 -14.252
74 CZ 14 -27.435
74 CZ 15 -26.459
74 CZ 16 -11.322
74 CZ 17 7.721
74 CZ 18 16.998
74 CZ 19 11.139
74 CZ 20 -3.510
74 CZ 21 -13.763
74 CZ 22 -11.810
74 CZ 23 0.885
74 CZ 24 13.092
74 CZ 25 15.045
74 CZ 26 6.744
74 CZ 27 -3.021
74 CZ 28 -6.439
74 CZ 29 -2.533
74 CZ 30 1.373
74 CZ 31 -1.068
74 CZ 32 -9.369
74 CZ 33 -16.205
74 CZ 34 -15.717
74 CZ 35 -8.881
74 CZ 36 -1.556
74 CZ 37 -0.580
74 CZ 38 -4.974
74 CZ 39 -9.369
74 CZ 40 -6.927
74 CZ 41 2.350
74 CZ 42 13.092
74 CZ 43 18.951
74 CZ 44 16.022
74 CZ 45 6.256
74 CZ 46 -6.927
74 CZ 47 -18.646
74 CZ 48 -25.482
74 CZ 49 -26.459
74 CZ 50 -22.064
74 CZ 51 -15.717
74 CZ 52 -12.299
74 CZ 53 -12.787
74 CZ 54 -16.693
74 CZ 55 -21.088
74 CZ 56 -23.041
74 CZ 57 -22.552
74 CZ 58 -20.599
74 CZ 59 -20.599
74 CZ 60 -23.529
74 CZ 61 -27.924
74 CZ 62 -31.830
74 CZ 63 -33.783
74 CZ 64 -32.806
74 CZ 65 -28.900
74 CZ 66 -21.576
74 CZ 67 -11.810
74 CZ 68 -3.510
74 CZ 69 -1.556
74 CZ 70 -7.904
74 CZ 71 -17.181
74 CZ 72 -23.041
74 CZ 73 -18.646
74 CZ 74 -6.927
74 CZ 75 3.815
74 CZ 76 5.768
74 CZ 77 -1.556
74 CZ 78 -11.810
74 CZ 79 -15.717
74 CZ 80 -12.787
74 CZ 81 -7.904
74 CZ 82 -8.392
74 CZ 83 -16.693
74 CZ 84 -26.459
74 CZ 85 -31.830
74 CZ 86 -30.365
74 CZ 87 -25.482
74 CZ 88 -22.552
74 CZ 89 -24.994
74 CZ 90 -28.412
74 CZ 91 -30.365
74 CZ 92 -29.877
74 CZ 93 -28.900
74 CZ 94 -28.900
74 CZ 95 -28.900
74 CZ 96 -25.482
74 CZ 97 -17.670
74 CZ 98 -8.881
74 CZ 99 -4.486
74 CZ 100 -6.439
74 CZ 101 -12.299
74 CZ 102 -16.205
74 CZ 103 -16.205
74 CZ 104 -14.740
74 CZ 105 -15.228
74 CZ 106 -19.623
74 CZ 107 -25.482
74 CZ 108 -29.388
74 CZ 109 -30.365
74 CZ 110 -30.365
74 CZ 111 -30.365
74 CZ 112 -31.830
74 CZ 113 -30.365
74 CZ 114 -23.041
74 CZ 115 -11.810
74 CZ 116 -2.045
74 CZ 117 -0.092
74 CZ 118 -5.463
74 CZ 119 -13.763
74 CZ 120 -18.158
74 CZ 121 -15.228
74 CZ 122 -6.927
74 CZ 123 2.350
74 CZ 124 6.744
74 CZ 125 5.768
74 CZ 126 0.885
74 CZ 127 -4.486
74 CZ 128 -6.927
74 CZ 129 -5.951
74 CZ 130 -3.510
74 CZ 131 -0.580
74 CZ 132 -0.092
74 CZ 133 -1.556
74 CZ 134 -3.021
74 CZ 135 -4.974
74 CZ 136 -6.927
74 CZ 137 -10.834
74 CZ 138 -15.228
74 CZ 139 -19.135
74 CZ 140 -21.088
74 CZ 141 -19.623
74 CZ 142 -17.670
74 CZ 143 -15.717
74 CZ 144 -16.205
74 CZ 145 -17.181
74 CZ 146 -17.670
74 CZ 147 -17.181
74 CZ 148 -17.181
74 CZ 149 -19.623
74 CZ 150 -24.506
74 CZ 151 -30.365
74 CZ 152 -33.295
74 CZ 153 -30.365
74 CZ 154 -24.017
74 CZ 155 -17.181
74 CZ 156 -15.717
74 CZ 157 -20.111
74 CZ 158 -26.459
74 CZ 159 -31.342
74 CZ 160 -32.318
74 CZ 161 -30.365
74 CZ 162 -27.924
74 CZ 163 -26.459
74 CZ 164 -24.994
74 CZ 165 -24.017
74 CZ 166 -23.041
74 CZ 167 -24.994
74 CZ 168 -29.388
74 CZ 169 -33.783
74 CZ 170 -36.224
74 CZ 171 -34.271
74 CZ 172 -30.853
74 CZ 173 -29.877
74 CZ 174 -32.318
74 CZ 175 -35.736
74 CZ 176 -35.248
74 CZ 177 -29.877
74 CZ 178 -22.552
74 CZ 179 -20.111
74 CZ 180 -23.041
74 CZ 181 -29.388
74 CZ 182 -34.271
74 CZ 183 -33.783
74 CZ 184 -30.853
74 CZ 185 -30.853
74 CZ 186 -35.736
74 CZ 187 -41.595
74 CZ 188 -42.084
74 CZ 189 -36.224
74 CZ 190 -28.412
74 CZ 191 -25.482
74 CZ 192 -30.365
74 CZ 193 -38.666
74 CZ 194 -45.013
74 CZ 195 -43.549
74 CZ 196 -36.713
74 CZ 197 -28.900
74 CZ 198 -25.482
74 CZ 199 -25.970
74 CZ 200 -28.412
74 CZ 201 -31.830
74 CZ 202 -35.736
74 CZ 203 -38.666
74 CZ 204 -40.619
74 CZ 205 -40.131
74 CZ 206 -38.666
74 CZ 207 -38.666
74 CZ 208 -41.595
74 CZ 209 -46.967
74 CZ 210 -50.385
74 CZ 211 -49.408
74 CZ 212 -45.013
74 CZ 213 -40.131
74 CZ 214 -38.177
74 CZ 215 -39.154
74 CZ 216 -39.642
74 CZ 217 -38.177
74 CZ 218 -34.760
74 CZ 219 -32.806
74 CZ 220 -34.760
74 CZ 221 -40.131
74 CZ 222 -46.967
74 CZ 223 -52.826
74 CZ 224 -55.756
74 CZ 225 -56.732
74 CZ 226 -55.267
74 CZ 227 -51.849
74 CZ 228 -47.455
74 CZ 229 -45.013
74 CZ 230 -45.502
74 CZ 231 -48.920
74 CZ 232 -52.338
74 CZ 233 -52.826
74 CZ 234 -49.896
74 CZ 235 -45.990
74 CZ 236 -44.525
74 CZ 237 -46.478
74 CZ 238 -48.920
74 CZ 239 -48.920
74 CZ 240 -45.990
74 CZ 241 -43.549
74 CZ 242 -44.037
74 CZ 243 -47.455
74 CZ 244 -50.873
74 CZ 245 -51.361
74 CZ 246 -47.455
74 CZ 247 -43.060
74 CZ 248 -42.572
74 CZ 249 -45.990
74 CZ 250 -50.385
74 CZ 251 -50.385
74 CZ 252 -44.525
74 CZ 253 -35.248
74 CZ 254 -28.900
74 CZ 255 -28.900
# C3 chan 16
74 C3 0 -7.792
74 C3 1 -8.280
74 C3 2 -7.792
74 C3 3 -7.792
74 C3 4 -8.769
74 C3 5 -9.257
74 C3 6 -10.234
74 C3 7 -10.234
74 C3 8 -10.234
74 C3 9 -9.745
74 C3 10 -8.769
74 C3 11 -7.792
74 C3 12 -6.327
74 C3 13 -5.351
74 C3 14 -4.374
74 C3 15 -4.862
74 C3 16 -5.839
74 C3 17 -6.816
74 C3 18 -7.792
74 C3 19 -8.280
74 C3 20 -9.257
74 C3 21 -11.210
74 C3 22 -13.163
74 C3 23 -14.628
74 C3 24 -14.628
74 C3 25 -12.675
74 C3 26 -10.722
74 C3 27 -8.280
74 C3 28 -6.816
74 C3 29 -7.304
74 C3 30 -7.792
74 C3 31 -8.280
74 C3 32 -9.257
74 C3 33 -9.745
74 C3 34 -8.769
74 C3 35 -7.792
74 C3 36 -6.327
74 C3 37 -5.351
74 C3 38 -5.839
74 C3 39 -6.816
74 C3 40 -8.769
74 C3 41 -10.234
74 C3 42 -11.698
74 C3 43 -12.187
74 C3 44 -12.675
74 C3 45 -14.140
74 C3 46 -15.116
74 C3 47 -16.093
74 C3 48 -16.093
74 C3 49 -15.605
74 C3 50 -14.628
74 C3 51 -14.140
74 C3 52 -14.140
74 C3 53 -14.140
74 C3 54 -14.140
74 C3 55 -14.628
74 C3 56 -15.116
74 C3 57 -15.605
74 C3 58 -16.581
74 C3 59 -16.093
74 C3 60 -15.116
74 C3 61 -14.140
74 C3 62 -14.140
74 C3 63 -14.628
74 C3 64 -16.093
74 C3 65 -16.093
74 C3 66 -14.628
74 C3 67 -11.698
74 C3 68 -8.280
74 C3 69 -5.839
74 C3 70 -5.839
74 C3 71 -6.816
74 C3 72 -8.769
74 C3 73 -10.234
74 C3 74 -10.722
74 C3 75 -10.234
74 C3 76 -10.722
74 C3 77 -10.722
74 C3 78 -11.698
74 C3 79 -12.187
74 C3 80 -11.698
74 C3 81 -11.210
74 C3 82 -10.722
74 C3 83 -10.722
74 C3 84 -10.722
74 C3 85 -11.210
74 C3 86 -10.722
74 C3 87 -10.234
74 C3 88 -8.769
74 C3 89 -8.769
74 C3 90 -8.769
74 C3 91 -9.745
74 C3 92 -10.722
74 C3 93 -12.187
74 C3 94 -13.652
74 C3 95 -15.116
74 C3 96 -17.069
74 C3 97 -18.534
74 C3 98 -19.023
74 C3 99 -18.046
74 C3 100 -16.581
74 C3 101 -15.605
74 C3 102 -15.116
74 C3 103 -15.116
74 C3 104 -14.140
74 C3 105 -12.187
74 C3 106 -10.234
74 C3 107 -7.792
74 C3 108 -6.327
74 C3 109 -5.351
74 C3 110 -3.886
74 C3 111 -2.421
74 C3 112 -1.444
74 C3 113 -0.468
74 C3 114 -0.468
74 C3 115 -1.444
74 C3 116 -2.421
74 C3 117 -3.886
74 C3 118 -5.351
74 C3 119 -6.816
74 C3 120 -7.792
74 C3 121 -10.234
74 C3 122 -12.187
74 C3 123 -14.140
74 C3 124 -15.116
74 C3 125 -14.628
74 C3 126 -14.140
74 C3 127 -13.652
74 C3 128 -13.652
74 C3 129 -14.140
74 C3 130 -14.628
74 C3 131 -14.140
74 C3 132 -12.675
74 C3 133 -10.234
74 C3 134 -8.769
74 C3 135 -7.304
74 C3 136 -7.304
74 C3 137 -8.280
74 C3 138 -9.257
74 C3 139 -9.745
74 C3 140 -9.745
74 C3 141 -9.257
74 C3 142 -8.280
74 C3 143 -7.304
74 C3 144 -6.816
74 C3 145 -6.327
74 C3 146 -5.839
74 C3 147 -5.839
74 C3 148 -6.327
74 C3 149 -7.304
74 C3 150 -7.792
74 C3 151 -7.792
74 C3 152 -7.792
74 C3 153 -7.304
74 C3 154 -6.327
74 C3 155 -5.351
74 C3 156 -3.398
74 C3 157 -2.421
74 C3 158 -0.956
74 C3 159 -0.468
74 C3 160 0.020
74 C3 161 0.509
74 C3 162 0.997
74 C3 163 0.997
74 C3 164 0.997
74 C3 165 0.509
74 C3 166 -0.468
74 C3 167 -1.444
74 C3 168 -1.933
74 C3 169 -1.933
74 C3 170 -1.444
74 C3 171 -0.956
74 C3 172 -0.956
74 C3 173 -1.933
74 C3 174 -3.398
74 C3 175 -4.374
74 C3 176 -5.839
74 C3 177 -5.839
74 C3 178 -5.839
74 C3 179 -4.862
74 C3 180 -3.398
74 C3 181 -2.421
74 C3 182 -1.933
74 C3 183 -1.444
74 C3 184 -1.444
74 C3 185 -0.956
74 C3 186 -0.956
74 C3 187 -1.444
74 C3 188 -2.421
74 C3 189 -3.398
74 C3 190 -4.374
74 C3 191 -4.374
74 C3 192 -3.398
74 C3 193 -1.933
74 C3 194 -0.956
74 C3 195 -0.468
74 C3 196 -0.468
74 C3 197 -0.468
74 C3 198 0.020
74 C3 199 0.509
74 C3 200 1.485
74 C3 201 2.950
74 C3 202 3.438
74 C3 203 3.927
74 C3 204 2.950
74 C3 205 2.462
74 C3 206 1.973
74 C3 207 2.950
74 C3 208 3.927
74 C3 209 4.903
74 C3 210 5.391
74 C3 211 4.903
74 C3 212 4.415
74 C3 213 3.927
74 C3 214 3.927
74 C3 215 3.927
74 C3 216 4.415
74 C3 217 4.415
74 C3 218 3.927
74 C3 219 3.438
74 C3 220 2.950
74 C3 221 2.462
74 C3 222 2.462
74 C3 223 3.438
74 C3 224 4.415
74 C3 225 4.415
74 C3 226 4.415
74 C3 227 3.927
74 C3 228 3.927
74 C3 229 3.927
74 C3 230 4.903
74 C3 231 5.880
74 C3 232 6.856
74 C3 233 7.345
74 C3 234 7.833
74 C3 235 8.321
74 C3 236 8.321
74 C3 237 7.345
74 C3 238 6.368
74 C3 239 5.391
74 C3 240 4.903
74 C3 241 4.903
74 C3 242 4.415
74 C3 243 3.927
74 C3 244 2.950
74 C3 245 2.950
74 C3 246 3.438
74 C3 247 4.903
74 C3 248 5.880
74 C3 249 6.856
74 C3 250 6.856
74 C3 251 6.856
74 C3 252 7.833
74 C3 253 9.298
74 C3 254 10.763
74 C3 255 11.251
# C4 chan 17
74 C4 0 -4.557
74 C4 1 -4.069
74 C4 2 -4.069
74 C4 3 -4.069
74 C4 4 -4.069
74 C4 5 -3.581
74 C4 6 -4.069
74 C4 7 -4.557
74 C4 8 -5.534
74 C4 9 -6.999
74 C4 10 -8.464
74 C4 11 -9.440
74 C4 12 -9.440
74 C4 13 -8.464
74 C4 14 -6.999
74 C4 15 -5.534
74 C4 16 -4.557
74 C4 17 -5.534
74 C4 18 -6.510
74 C4 19 -7.487
74 C4 20 -7.487
74 C4 21 -6.022
74 C4 22 -3.581
74 C4 23 -2.116
74 C4 24 -2.604
74 C4 25 -4.557
74 C4 26 -7.487
74 C4 27 -9.928
74 C4 28 -10.905
74 C4 29 -10.417
74 C4 30 -9.440
74 C4 31 -7.975
74 C4 32 -7.487
74 C4 33 -7.487
74 C4 34 -8.464
74 C4 35 -9.928
74 C4 36 -11.393
74 C4 37 -12.858
74 C4 38 -14.811
74 C4 39 -15.788
74 C4 40 -15.788
74 C4 41 -14.811
74 C4 42 -13.835
74 C4 43 -12.370
74 C4 44 -11.393
74 C4 45 -10.417
74 C4 46 -10.417
74 C4 47 -10.417
74 C4 48 -10.417
74 C4 49 -11.393
74 C4 50 -12.370
74 C4 51 -13.346
74 C4 52 -14.323
74 C4 53 -14.323
74 C4 54 -13.835
74 C4 55 -13.346
74 C4 56 -12.858
74 C4 57 -13.346
74 C4 58 -14.811
74 C4 59 -16.276
74 C4 60 -17.741
74 C4 61 -18.229
74 C4 62 -17.253
74 C4 63 -15.299
74 C4 64 -13.835
74 C4 65 -12.370
74 C4 66 -12.370
74 C4 67 -12.370
74 C4 68 -12.370
74 C4 69 -12.858
74 C4 70 -12.858
74 C4 71 -12.858
74 C4 72 -12.858
74 C4 73 -12.370
74 C4 74 -11.882
74 C4 75 -10.905
74 C4 76 -10.417
74 C4 77 -10.905
74 C4 78 -12.370
74 C4 79 -14.323
74 C4 80 -15.299
74 C4 81 -15.788
74 C4 82 -15.788
74 C4 83 -15.788
74 C4 84 -15.788
74 C4 85 -15.788
74 C4 86 -15.788
74 C4 87 -15.299
74 C4 88 -14.323
74 C4 89 -13.346
74 C4 90 -12.370
74 C4 91 -11.882
74 C4 92 -11.393
74 C4 93 -11.393
74 C4 94 -11.882
74 C4 95 -12.370
74 C4 96 -12.858
74 C4 97 -12.370
74 C4 98 -11.393
74 C4 99 -8.952
74 C4 100 -6.999
74 C4 101 -5.534
74 C4 102 -4.557
74 C4 103 -4.557
74 C4 104 -5.046
74 C4 105 -6.022
74 C4 106 -6.999
74 C4 107 -8.952
74 C4 108 -10.417
74 C4 109 -11.882
74 C4 110 -12.370
74 C4 111 -12.370
74 C4 112 -11.882
74 C4 113 -11.882
74 C4 114 -11.393
74 C4 115 -10.417
74 C4 116 -9.440
74 C4 117 -8.464
74 C4 118 -7.487
74 C4 119 -6.510
74 C4 120 -6.022
74 C4 121 -4.557
74 C4 122 -3.581
74 C4 123 -2.116
74 C4 124 -2.116
74 C4 125 -2.604
74 C4 126 -4.557
74 C4 127 -6.022
74 C4 128 -6.510
74 C4 129 -6.022
74 C4 130 -4.557
74 C4 131 -3.092
74 C4 132 -1.628
74 C4 133 -1.139
74 C4 134 -0.651
74 C4 135 -1.139
74 C4 136 -2.116
74 C4 137 -3.092
74 C4 138 -4.557
74 C4 139 -5.046
74 C4 140 -5.534
74 C4 141 -5.534
74 C4 142 -5.046
74 C4 143 -5.046
74 C4 144 -5.046
74 C4 145 -5.046
74 C4 146 -4.557
74 C4 147 -3.581
74 C4 148 -3.092
74 C4 149 -3.581
74 C4 150 -4.069
74 C4 151 -4.557
74 C4 152 -5.046
74 C4 153 -5.046
74 C4 154 -4.557
74 C4 155 -5.046
74 C4 156 -6.022
74 C4 157 -7.487
74 C4 158 -8.464
74 C4 159 -8.464
74 C4 160 -7.487
74 C4 161 -6.510
74 C4 162 -6.510
74 C4 163 -6.510
74 C4 164 -6.510
74 C4 165 -5.534
74 C4 166 -4.069
74 C4 167 -3.092
74 C4 168 -3.092
74 C4 169 -4.557
74 C4 170 -6.999
74 C4 171 -8.952
74 C4 172 -9.440
74 C4 173 -7.975
74 C4 174 -5.534
74 C4 175 -2.604
74 C4 176 -0.651
74 C4 177 0.326
74 C4 178 0.814
74 C4 179 0.814
74 C4 180 1.302
74 C4 181 1.790
74 C4 182 1.790
74 C4 183 0.814
74 C4 184 -0.163
74 C4 185 -1.139
74 C4 186 -0.651
74 C4 187 -0.163
74 C4 188 0.814
74 C4 189 1.302
74 C4 190 1.302
74 C4 191 0.326
74 C4 192 -0.163
74 C4 193 -0.163
74 C4 194 -0.163
74 C4 195 0.326
74 C4 196 1.302
74 C4 197 1.790
74 C4 198 1.790
74 C4 199 1.790
74 C4 200 1.790
74 C4 201 2.279
74 C4 202 2.279
74 C4 203 3.255
74 C4 204 3.743
74 C4 205 3.743
74 C4 206 3.743
74 C4 207 3.255
74 C4 208 2.279
74 C4 209 2.279
74 C4 210 2.279
74 C4 211 2.279
74 C4 212 2.279
74 C4 213 2.279
74 C4 214 1.790
74 C4 215 1.790
74 C4 216 1.790
74 C4 217 1.790
74 C4 218 2.279
74 C4 219 3.255
74 C4 220 3.255
74 C4 221 3.255
74 C4 222 2.279
74 C4 223 0.814
74 C4 224 -0.163
74 C4 225 -1.139
74 C4 226 -1.628
74 C4 227 -1.139
74 C4 228 -0.651
74 C4 229 0.326
74 C4 230 1.302
74 C4 231 1.790
74 C4 232 1.790
74 C4 233 1.302
74 C4 234 0.326
74 C4 235 -0.163
74 C4 236 -0.163
74 C4 237 -0.651
74 C4 238 -1.139
74 C4 239 -1.628
74 C4 240 -1.139
74 C4 241 -0.163
74 C4 242 1.302
74 C4 243 3.743
74 C4 244 4.720
74 C4 245 4.232
74 C4 246 1.790
74 C4 247 -0.163
74 C4 248 -2.116
74 C4 249 -2.116
74 C4 250 -0.651
74 C4 251 1.302
74 C4 252 2.767
74 C4 253 3.743
74 C4 254 4.720
74 C4 255 4.232
# CP5 chan 18
74 CP5 0 -11.108
74 CP5 1 -9.644
74 CP5 2 -8.179
74 CP5 3 -7.690
74 CP5 4 -8.179
74 CP5 5 -9.644
74 CP5 6 -12.085
74 CP5 7 -13.550
74 CP5 8 -15.015
74 CP5 9 -15.991
74 CP5 10 -16.479
74 CP5 11 -15.991
74 CP5 12 -15.015
74 CP5 13 -13.550
74 CP5 14 -12.085
74 CP5 15 -11.597
74 CP5 16 -11.597
74 CP5 17 -11.597
74 CP5 18 -10.620
74 CP5 19 -9.155
74 CP5 20 -7.202
74 CP5 21 -5.249
74 CP5 22 -4.272
74 CP5 23 -3.784
74 CP5 24 -3.784
74 CP5 25 -3.296
74 CP5 26 -3.784
74 CP5 27 -4.272
74 CP5 28 -5.249
74 CP5 29 -7.202
74 CP5 30 -9.155
74 CP5 31 -11.597
74 CP5 32 -13.062
74 CP5 33 -14.038
74 CP5 34 -13.062
74 CP5 35 -11.108
74 CP5 36 -8.667
74 CP5 37 -5.737
74 CP5 38 -3.784
74 CP5 39 -2.319
74 CP5 40 -2.319
74 CP5 41 -2.808
74 CP5 42 -3.784
74 CP5 43 -5.737
74 CP5 44 -7.690
74 CP5 45 -9.155
74 CP5 46 -10.620
74 CP5 47 -12.085
74 CP5 48 -12.573
74 CP5 49 -13.062
74 CP5 50 -12.573
74 CP5 51 -11.597
74 CP5 52 -10.132
74 CP5 53 -8.667
74 CP5 54 -7.202
74 CP5 55 -6.226
74 CP5 56 -6.714
74 CP5 57 -6.714
74 CP5 58 -7.202
74 CP5 59 -6.714
74 CP5 60 -5.737
74 CP5 61 -4.761
74 CP5 62 -4.272
74 CP5 63 -4.272
74 CP5 64 -4.272
74 CP5 65 -2.808
74 CP5 66 0.122
74 CP5 67 5.005
74 CP5 68 9.399
74 CP5 69 11.353
74 CP5 70 10.864
74 CP5 71 8.423
74 CP5 72 5.493
74 CP5 73 4.517
74 CP5 74 4.028
74 CP5 75 5.005
74 CP5 76 5.005
74 CP5 77 4.028
74 CP5 78 2.563
74 CP5 79 1.099
74 CP5 80 0.610
74 CP5 81 1.099
74 CP5 82 1.587
74 CP5 83 1.587
74 CP5 84 0.122
74 CP5 85 -1.343
74 CP5 86 -2.319
74 CP5 87 -1.343
74 CP5 88 1.099
74 CP5 89 3.540
74 CP5 90 5.493
74 CP5 91 5.981
74 CP5 92 5.005
74 CP5 93 3.052
74 CP5 94 2.075
74 CP5 95 1.099
74 CP5 96 0.610
74 CP5 97 0.122
74 CP5 98 -0.366
74 CP5 99 0.122
74 CP5 100 1.099
74 CP5 101 1.099
74 CP5 102 1.587
74 CP5 103 2.075
74 CP5 104 3.540
74 CP5 105 6.470
74 CP5 106 9.888
74 CP5 107 13.306
74 CP5 108 15.259
74 CP5 109 16.724
74 CP5 110 16.724
74 CP5 111 16.235
74 CP5 112 16.235
74 CP5 113 15.259
74 CP5 114 13.306
74 CP5 115 10.864
74 CP5 116 8.423
74 CP5 117 6.958
74 CP5 118 6.470
74 CP5 119 6.470
74 CP5 120 5.981
74 CP5 121 4.517
74 CP5 122 2.563
74 CP5 123 1.587
74 CP5 124 1.587
74 CP5 125 3.052
74 CP5 126 4.517
74 CP5 127 5.981
74 CP5 128 5.981
74 CP5 129 5.005
74 CP5 130 3.540
74 CP5 131 3.052
74 CP5 132 4.517
74 CP5 133 6.470
74 CP5 134 8.423
74 CP5 135 8.911
74 CP5 136 8.423
74 CP5 137 6.470
74 CP5 138 5.493
74 CP5 139 5.493
74 CP5 140 5.493
74 CP5 141 5.981
74 CP5 142 5.981
74 CP5 143 5.981
74 CP5 144 5.981
74 CP5 145 6.470
74 CP5 146 6.470
74 CP5 147 6.470
74 CP5 148 5.981
74 CP5 149 5.005
74 CP5 150 3.540
74 CP5 151 3.052
74 CP5 152 4.028
74 CP5 153 5.005
74 CP5 154 6.470
74 CP5 155 7.446
74 CP5 156 8.423
74 CP5 157 9.399
74 CP5 158 10.376
74 CP5 159 11.353
74 CP5 160 11.841
74 CP5 161 12.817
74 CP5 162 13.794
74 CP5 163 14.771
74 CP5 164 15.259
74 CP5 165 15.259
74 CP5 166 14.282
74 CP5 167 13.306
74 CP5 168 12.329
74 CP5 169 12.329
74 CP5 170 12.329
74 CP5 171 12.817
74 CP5 172 11.353
74 CP5 173 9.399
74 CP5 174 6.958
74 CP5 175 4.517
74 CP5 176 3.052
74 CP5 177 2.563
74 CP5 178 3.052
74 CP5 179 4.028
74 CP5 180 5.005
74 CP5 181 5.981
74 CP5 182 5.981
74 CP5 183 5.981
74 CP5 184 5.981
74 CP5 185 6.470
74 CP5 186 6.470
74 CP5 187 6.470
74 CP5 188 5.493
74 CP5 189 4.028
74 CP5 190 3.052
74 CP5 191 3.052
74 CP5 192 4.517
74 CP5 193 6.958
74 CP5 194 8.423
74 CP5 195 9.399
74 CP5 196 9.888
74 CP5 197 8.911
74 CP5 198 8.911
74 CP5 199 8.911
74 CP5 200 9.399
74 CP5 201 10.376
74 CP5 202 11.353
74 CP5 203 11.841
74 CP5 204 11.353
74 CP5 205 10.864
74 CP5 206 10.376
74 CP5 207 10.864
74 CP5 208 11.353
74 CP5 209 11.353
74 CP5 210 10.864
74 CP5 211 9.888
74 CP5 212 8.423
74 CP5 213 7.446
74 CP5 214 6.958
74 CP5 215 7.446
74 CP5 216 8.911
74 CP5 217 9.888
74 CP5 218 10.864
74 CP5 219 10.376
74 CP5 220 9.399
74 CP5 221 7.446
74 CP5 222 5.981
74 CP5 223 5.005
74 CP5 224 4.517
74 CP5 225 4.028
74 CP5 226 3.540
74 CP5 227 3.540
74 CP5 228 4.028
74 CP5 229 5.493
74 CP5 230 6.958
74 CP5 231 8.423
74 CP5 232 8.911
74 CP5 233 9.399
74 CP5 234 9.888
74 CP5 235 10.376
74 CP5 236 10.376
74 CP5 237 9.399
74 CP5 238 8.423
74 CP5 239 6.470
74 CP5 240 5.493
74 CP5 241 4.517
74 CP5 242 4.028
74 CP5 243 3.540
74 CP5 244 2.075
74 CP5 245 1.099
74 CP5 246 1.099
74 CP5 247 2.075
74 CP5 248 4.028
74 CP5 249 5.493
74 CP5 250 5.981
74 CP5 251 6.958
74 CP5 252 7.935
74 CP5 253 9.399
74 CP5 254 10.864
74 CP5 255 11.353
# CP6 chan 19
74 CP6 0 -15.371
74 CP6 1 -13.906
74 CP6 2 -12.929
74 CP6 3 -12.929
74 CP6 4 -12.929
74 CP6 5 -12.441
74 CP6 6 -11.953
74 CP6 7 -11.953
74 CP6 8 -12.929
74 CP6 9 -13.906
74 CP6 10 -15.371
74 CP6 11 -15.859
74 CP6 12 -15.371
74 CP6 13 -13.418
74 CP6 14 -10.976
74 CP6 15 -9.511
74 CP6 16 -9.511
74 CP6 17 -10.488
74 CP6 18 -11.953
74 CP6 19 -12.441
74 CP6 20 -10.976
74 CP6 21 -8.046
74 CP6 22 -5.117
74 CP6 23 -4.140
74 CP6 24 -5.605
74 CP6 25 -8.535
74 CP6 26 -11.953
74 CP6 27 -14.882
74 CP6 28 -15.859
74 CP6 29 -15.371
74 CP6 30 -14.882
74 CP6 31 -14.882
74 CP6 32 -14.882
74 CP6 33 -15.371
74 CP6 34 -14.882
74 CP6 35 -13.906
74 CP6 36 -12.929
74 CP6 37 -12.441
74 CP6 38 -12.929
74 CP6 39 -13.418
74 CP6 40 -13.906
74 CP6 41 -14.394
74 CP6 42 -14.394
74 CP6 43 -14.394
74 CP6 44 -14.394
74 CP6 45 -13.906
74 CP6 46 -13.418
74 CP6 47 -11.953
74 CP6 48 -10.976
74 CP6 49 -10.488
74 CP6 50 -10.000
74 CP6 51 -10.000
74 CP6 52 -9.511
74 CP6 53 -8.535
74 CP6 54 -8.535
74 CP6 55 -10.000
74 CP6 56 -11.953
74 CP6 57 -13.906
74 CP6 58 -15.371
74 CP6 59 -15.859
74 CP6 60 -15.371
74 CP6 61 -13.906
74 CP6 62 -12.441
74 CP6 63 -10.976
74 CP6 64 -9.023
74 CP6 65 -7.070
74 CP6 66 -5.117
74 CP6 67 -3.164
74 CP6 68 -1.211
74 CP6 69 0.743
74 CP6 70 1.719
74 CP6 71 2.207
74 CP6 72 1.719
74 CP6 73 0.743
74 CP6 74 0.254
74 CP6 75 0.254
74 CP6 76 0.254
74 CP6 77 -0.722
74 CP6 78 -2.187
74 CP6 79 -5.117
74 CP6 80 -7.558
74 CP6 81 -9.023
74 CP6 82 -9.511
74 CP6 83 -9.511
74 CP6 84 -9.511
74 CP6 85 -9.511
74 CP6 86 -9.511
74 CP6 87 -9.023
74 CP6 88 -7.558
74 CP6 89 -6.093
74 CP6 90 -4.140
74 CP6 91 -2.675
74 CP6 92 -2.187
74 CP6 93 -1.699
74 CP6 94 -1.699
74 CP6 95 -2.675
74 CP6 96 -2.675
74 CP6 97 -2.187
74 CP6 98 -0.722
74 CP6 99 1.719
74 CP6 100 2.696
74 CP6 101 3.184
74 CP6 102 2.696
74 CP6 103 2.207
74 CP6 104 2.207
74 CP6 105 3.184
74 CP6 106 3.672
74 CP6 107 3.184
74 CP6 108 1.719
74 CP6 109 0.743
74 CP6 110 -0.234
74 CP6 111 -0.234
74 CP6 112 -0.722
74 CP6 113 -1.699
74 CP6 114 -2.675
74 CP6 115 -3.652
74 CP6 116 -3.652
74 CP6 117 -2.675
74 CP6 118 -1.211
74 CP6 119 -0.722
74 CP6 120 -0.722
74 CP6 121 -1.211
74 CP6 122 -0.234
74 CP6 123 1.231
74 CP6 124 2.696
74 CP6 125 3.672
74 CP6 126 3.672
74 CP6 127 3.184
74 CP6 128 2.207
74 CP6 129 1.719
74 CP6 130 1.231
74 CP6 131 2.207
74 CP6 132 3.184
74 CP6 133 4.161
74 CP6 134 4.649
74 CP6 135 4.649
74 CP6 136 4.161
74 CP6 137 3.672
74 CP6 138 3.184
74 CP6 139 2.696
74 CP6 140 2.696
74 CP6 141 2.207
74 CP6 142 1.719
74 CP6 143 0.743
74 CP6 144 0.254
74 CP6 145 0.254
74 CP6 146 0.743
74 CP6 147 1.231
74 CP6 148 2.207
74 CP6 149 2.696
74 CP6 150 2.207
74 CP6 151 2.207
74 CP6 152 2.207
74 CP6 153 2.207
74 CP6 154 3.184
74 CP6 155 3.672
74 CP6 156 3.184
74 CP6 157 2.696
74 CP6 158 1.719
74 CP6 159 1.719
74 CP6 160 1.719
74 CP6 161 1.719
74 CP6 162 1.231
74 CP6 163 0.743
74 CP6 164 0.254
74 CP6 165 1.231
74 CP6 166 3.184
74 CP6 167 4.161
74 CP6 168 4.161
74 CP6 169 3.184
74 CP6 170 1.231
74 CP6 171 -0.234
74 CP6 172 -0.722
74 CP6 173 0.254
74 CP6 174 2.696
74 CP6 175 5.137
74 CP6 176 7.090
74 CP6 177 8.555
74 CP6 178 10.020
74 CP6 179 10.997
74 CP6 180 11.973
74 CP6 181 11.973
74 CP6 182 10.997
74 CP6 183 10.020
74 CP6 184 8.555
74 CP6 185 7.090
74 CP6 186 7.090
74 CP6 187 7.579
74 CP6 188 8.555
74 CP6 189 9.532
74 CP6 190 9.043
74 CP6 191 8.555
74 CP6 192 8.555
74 CP6 193 8.555
74 CP6 194 9.532
74 CP6 195 10.508
74 CP6 196 10.997
74 CP6 197 11.973
74 CP6 198 11.973
74 CP6 199 12.461
74 CP6 200 12.950
74 CP6 201 13.438
74 CP6 202 13.926
74 CP6 203 13.926
74 CP6 204 12.950
74 CP6 205 11.973
74 CP6 206 10.020
74 CP6 207 8.067
74 CP6 208 6.602
74 CP6 209 6.114
74 CP6 210 6.114
74 CP6 211 6.114
74 CP6 212 6.114
74 CP6 213 5.625
74 CP6 214 5.137
74 CP6 215 5.137
74 CP6 216 6.114
74 CP6 217 8.067
74 CP6 218 9.532
74 CP6 219 10.020
74 CP6 220 9.532
74 CP6 221 7.579
74 CP6 222 5.625
74 CP6 223 3.672
74 CP6 224 2.696
74 CP6 225 2.207
74 CP6 226 2.207
74 CP6 227 2.696
74 CP6 228 4.161
74 CP6 229 6.114
74 CP6 230 7.579
74 CP6 231 8.555
74 CP6 232 8.555
74 CP6 233 7.090
74 CP6 234 5.625
74 CP6 235 4.161
74 CP6 236 3.672
74 CP6 237 2.696
74 CP6 238 1.719
74 CP6 239 -0.234
74 CP6 240 -1.699
74 CP6 241 -1.699
74 CP6 242 -0.234
74 CP6 243 1.719
74 CP6 244 2.696
74 CP6 245 2.207
74 CP6 246 0.254
74 CP6 247 -1.699
74 CP6 248 -2.187
74 CP6 249 -1.211
74 CP6 250 1.231
74 CP6 251 4.161
74 CP6 252 6.602
74 CP6 253 8.555
74 CP6 254 9.532
74 CP6 255 10.020
# CP1 chan 20
74 CP1 0 -0.346
74 CP1 1 1.119
74 CP1 2 2.096
74 CP1 3 2.096
74 CP1 4 0.631
74 CP1 5 -1.811
74 CP1 6 -3.764
74 CP1 7 -5.717
74 CP1 8 -6.694
74 CP1 9 -7.670
74 CP1 10 -7.182
74 CP1 11 -6.205
74 CP1 12 -5.229
74 CP1 13 -3.764
74 CP1 14 -2.299
74 CP1 15 -1.811
74 CP1 16 -1.322
74 CP1 17 -1.322
74 CP1 18 -0.834
74 CP1 19 0.631
74 CP1 20 1.119
74 CP1 21 1.119
74 CP1 22 0.631
74 CP1 23 -0.346
74 CP1 24 -1.322
74 CP1 25 -2.299
74 CP1 26 -2.787
74 CP1 27 -2.787
74 CP1 28 -3.764
74 CP1 29 -4.740
74 CP1 30 -5.717
74 CP1 31 -6.694
74 CP1 32 -7.670
74 CP1 33 -8.158
74 CP1 34 -7.670
74 CP1 35 -6.205
74 CP1 36 -3.764
74 CP1 37 -1.811
74 CP1 38 0.142
74 CP1 39 0.631
74 CP1 40 -0.346
74 CP1 41 -1.811
74 CP1 42 -3.764
74 CP1 43 -5.717
74 CP1 44 -7.182
74 CP1 45 -7.670
74 CP1 46 -8.158
74 CP1 47 -9.135
74 CP1 48 -9.623
74 CP1 49 -10.111
74 CP1 50 -10.600
74 CP1 51 -10.600
74 CP1 52 -9.135
74 CP1 53 -7.670
74 CP1 54 -5.717
74 CP1 55 -4.740
74 CP1 56 -4.740
74 CP1 57 -5.717
74 CP1 58 -6.205
74 CP1 59 -6.205
74 CP1 60 -5.717
74 CP1 61 -4.740
74 CP1 62 -3.764
74 CP1 63 -3.764
74 CP1 64 -4.252
74 CP1 65 -4.252
74 CP1 66 -3.764
74 CP1 67 -1.811
74 CP1 68 -0.346
74 CP1 69 0.631
74 CP1 70 0.142
74 CP1 71 -1.811
74 CP1 72 -4.252
74 CP1 73 -6.694
74 CP1 74 -7.670
74 CP1 75 -8.647
74 CP1 76 -8.647
74 CP1 77 -8.647
74 CP1 78 -9.135
74 CP1 79 -9.135
74 CP1 80 -9.135
74 CP1 81 -8.647
74 CP1 82 -7.670
74 CP1 83 -7.182
74 CP1 84 -7.670
74 CP1 85 -8.158
74 CP1 86 -8.647
74 CP1 87 -8.158
74 CP1 88 -7.182
74 CP1 89 -5.717
74 CP1 90 -4.740
74 CP1 91 -4.252
74 CP1 92 -4.740
74 CP1 93 -5.229
74 CP1 94 -6.205
74 CP1 95 -7.670
74 CP1 96 -9.623
74 CP1 97 -11.088
74 CP1 98 -12.065
74 CP1 99 -12.553
74 CP1 100 -12.553
74 CP1 101 -12.553
74 CP1 102 -13.041
74 CP1 103 -13.529
74 CP1 104 -13.529
74 CP1 105 -12.065
74 CP1 106 -9.623
74 CP1 107 -6.694
74 CP1 108 -3.764
74 CP1 109 -2.787
74 CP1 110 -2.299
74 CP1 111 -2.299
74 CP1 112 -3.276
74 CP1 113 -3.764
74 CP1 114 -5.229
74 CP1 115 -6.694
74 CP1 116 -7.670
74 CP1 117 -8.647
74 CP1 118 -8.647
74 CP1 119 -9.623
74 CP1 120 -10.111
74 CP1 121 -11.576
74 CP1 122 -12.553
74 CP1 123 -13.529
74 CP1 124 -13.529
74 CP1 125 -12.553
74 CP1 126 -11.576
74 CP1 127 -11.088
74 CP1 128 -11.576
74 CP1 129 -12.065
74 CP1 130 -13.041
74 CP1 131 -13.041
74 CP1 132 -13.041
74 CP1 133 -12.065
74 CP1 134 -11.576
74 CP1 135 -11.088
74 CP1 136 -10.600
74 CP1 137 -10.600
74 CP1 138 -11.088
74 CP1 139 -11.088
74 CP1 140 -11.088
74 CP1 141 -11.088
74 CP1 142 -11.576
74 CP1 143 -11.576
74 CP1 144 -11.576
74 CP1 145 -11.576
74 CP1 146 -11.576
74 CP1 147 -11.576
74 CP1 148 -11.576
74 CP1 149 -11.576
74 CP1 150 -11.088
74 CP1 151 -9.623
74 CP1 152 -8.647
74 CP1 153 -7.670
74 CP1 154 -7.182
74 CP1 155 -6.694
74 CP1 156 -5.717
74 CP1 157 -5.229
74 CP1 158 -4.252
74 CP1 159 -3.764
74 CP1 160 -3.764
74 CP1 161 -4.252
74 CP1 162 -4.252
74 CP1 163 -4.252
74 CP1 164 -4.252
74 CP1 165 -3.764
74 CP1 166 -4.252
74 CP1 167 -5.229
74 CP1 168 -6.205
74 CP1 169 -6.694
74 CP1 170 -6.694
74 CP1 171 -6.205
74 CP1 172 -6.694
74 CP1 173 -6.694
74 CP1 174 -7.670
74 CP1 175 -8.158
74 CP1 176 -9.135
74 CP1 177 -9.135
74 CP1 178 -8.158
74 CP1 179 -7.182
74 CP1 180 -6.205
74 CP1 181 -5.229
74 CP1 182 -4.740
74 CP1 183 -4.740
74 CP1 184 -4.740
74 CP1 185 -5.229
74 CP1 186 -5.229
74 CP1 187 -5.717
74 CP1 188 -5.717
74 CP1 189 -6.205
74 CP1 190 -6.694
74 CP1 191 -6.205
74 CP1 192 -5.717
74 CP1 193 -5.229
74 CP1 194 -4.740
74 CP1 195 -4.740
74 CP1 196 -5.229
74 CP1 197 -5.229
74 CP1 198 -5.717
74 CP1 199 -5.717
74 CP1 200 -5.717
74 CP1 201 -5.229
74 CP1 202 -4.740
74 CP1 203 -3.764
74 CP1 204 -3.764
74 CP1 205 -3.276
74 CP1 206 -2.787
74 CP1 207 -2.299
74 CP1 208 -2.787
74 CP1 209 -2.787
74 CP1 210 -3.764
74 CP1 211 -4.740
74 CP1 212 -5.229
74 CP1 213 -6.205
74 CP1 214 -5.717
74 CP1 215 -5.717
74 CP1 216 -4.740
74 CP1 217 -3.764
74 CP1 218 -2.787
74 CP1 219 -2.787
74 CP1 220 -3.764
74 CP1 221 -4.252
74 CP1 222 -5.229
74 CP1 223 -5.717
74 CP1 224 -5.717
74 CP1 225 -5.717
74 CP1 226 -5.229
74 CP1 227 -5.229
74 CP1 228 -4.252
74 CP1 229 -3.276
74 CP1 230 -2.787
74 CP1 231 -1.811
74 CP1 232 -1.811
74 CP1 233 -1.811
74 CP1 234 -1.811
74 CP1 235 -1.811
74 CP1 236 -1.811
74 CP1 237 -2.299
74 CP1 238 -3.276
74 CP1 239 -4.252
74 CP1 240 -5.229
74 CP1 241 -5.717
74 CP1 242 -5.717
74 CP1 243 -5.717
74 CP1 244 -5.717
74 CP1 245 -5.717
74 CP1 246 -5.229
74 CP1 247 -4.252
74 CP1 248 -3.764
74 CP1 249 -3.764
74 CP1 250 -3.764
74 CP1 251 -4.252
74 CP1 252 -3.764
74 CP1 253 -3.276
74 CP1 254 -2.299
74 CP1 255 -1.322
# CP2 chan 21
74 CP2 0 0.193
74 CP2 1 1.170
74 CP2 2 1.658
74 CP2 3 1.170
74 CP2 4 0.682
74 CP2 5 0.193
74 CP2 6 -0.295
74 CP2 7 -0.295
74 CP2 8 -0.783
74 CP2 9 -1.272
74 CP2 10 -2.248
74 CP2 11 -3.225
74 CP2 12 -3.225
74 CP2 13 -2.736
74 CP2 14 -1.272
74 CP2 15 -0.295
74 CP2 16 0.193
74 CP2 17 -0.295
74 CP2 18 -0.295
74 CP2 19 -0.295
74 CP2 20 0.682
74 CP2 21 2.146
74 CP2 22 3.123
74 CP2 23 3.611
74 CP2 24 3.123
74 CP2 25 1.658
74 CP2 26 -0.783
74 CP2 27 -3.225
74 CP2 28 -4.201
74 CP2 29 -4.690
74 CP2 30 -4.690
74 CP2 31 -4.690
74 CP2 32 -4.690
74 CP2 33 -5.178
74 CP2 34 -5.666
74 CP2 35 -6.154
74 CP2 36 -5.666
74 CP2 37 -5.178
74 CP2 38 -5.178
74 CP2 39 -4.690
74 CP2 40 -4.690
74 CP2 41 -4.201
74 CP2 42 -4.690
74 CP2 43 -4.690
74 CP2 44 -5.178
74 CP2 45 -4.690
74 CP2 46 -4.690
74 CP2 47 -4.201
74 CP2 48 -4.201
74 CP2 49 -4.201
74 CP2 50 -4.690
74 CP2 51 -5.666
74 CP2 52 -5.666
74 CP2 53 -4.690
74 CP2 54 -4.201
74 CP2 55 -3.225
74 CP2 56 -3.713
74 CP2 57 -4.690
74 CP2 58 -5.666
74 CP2 59 -6.154
74 CP2 60 -6.643
74 CP2 61 -6.154
74 CP2 62 -5.178
74 CP2 63 -3.713
74 CP2 64 -2.248
74 CP2 65 -0.783
74 CP2 66 0.193
74 CP2 67 1.170
74 CP2 68 1.658
74 CP2 69 1.658
74 CP2 70 1.170
74 CP2 71 0.193
74 CP2 72 -0.783
74 CP2 73 -2.248
74 CP2 74 -3.225
74 CP2 75 -3.225
74 CP2 76 -3.713
74 CP2 77 -4.201
74 CP2 78 -5.178
74 CP2 79 -6.643
74 CP2 80 -7.131
74 CP2 81 -8.108
74 CP2 82 -8.108
74 CP2 83 -8.108
74 CP2 84 -8.108
74 CP2 85 -8.596
74 CP2 86 -8.108
74 CP2 87 -8.108
74 CP2 88 -7.131
74 CP2 89 -6.154
74 CP2 90 -4.690
74 CP2 91 -3.713
74 CP2 92 -3.225
74 CP2 93 -3.225
74 CP2 94 -3.713
74 CP2 95 -4.201
74 CP2 96 -5.178
74 CP2 97 -5.178
74 CP2 98 -4.690
74 CP2 99 -4.201
74 CP2 100 -3.713
74 CP2 101 -3.225
74 CP2 102 -3.225
74 CP2 103 -3.225
74 CP2 104 -3.225
74 CP2 105 -2.736
74 CP2 106 -2.736
74 CP2 107 -2.736
74 CP2 108 -3.225
74 CP2 109 -3.713
74 CP2 110 -4.201
74 CP2 111 -4.690
74 CP2 112 -6.154
74 CP2 113 -7.131
74 CP2 114 -9.084
74 CP2 115 -10.061
74 CP2 116 -10.549
74 CP2 117 -9.572
74 CP2 118 -8.596
74 CP2 119 -7.619
74 CP2 120 -7.131
74 CP2 121 -6.154
74 CP2 122 -5.666
74 CP2 123 -4.690
74 CP2 124 -3.713
74 CP2 125 -3.225
74 CP2 126 -3.225
74 CP2 127 -3.713
74 CP2 128 -4.201
74 CP2 129 -4.690
74 CP2 130 -5.178
74 CP2 131 -5.178
74 CP2 132 -5.178
74 CP2 133 -5.178
74 CP2 134 -5.178
74 CP2 135 -4.690
74 CP2 136 -5.178
74 CP2 137 -5.178
74 CP2 138 -5.666
74 CP2 139 -6.643
74 CP2 140 -7.131
74 CP2 141 -7.131
74 CP2 142 -7.619
74 CP2 143 -7.619
74 CP2 144 -7.619
74 CP2 145 -8.108
74 CP2 146 -8.596
74 CP2 147 -9.084
74 CP2 148 -8.596
74 CP2 149 -8.108
74 CP2 150 -7.131
74 CP2 151 -6.154
74 CP2 152 -5.666
74 CP2 153 -5.178
74 CP2 154 -5.178
74 CP2 155 -5.178
74 CP2 156 -5.666
74 CP2 157 -6.154
74 CP2 158 -6.643
74 CP2 159 -6.643
74 CP2 160 -7.131
74 CP2 161 -7.131
74 CP2 162 -7.131
74 CP2 163 -7.131
74 CP2 164 -7.131
74 CP2 165 -6.643
74 CP2 166 -5.666
74 CP2 167 -5.178
74 CP2 168 -5.178
74 CP2 169 -6.154
74 CP2 170 -7.131
74 CP2 171 -8.596
74 CP2 172 -9.084
74 CP2 173 -8.596
74 CP2 174 -8.108
74 CP2 175 -7.131
74 CP2 176 -6.154
74 CP2 177 -5.178
74 CP2 178 -4.201
74 CP2 179 -3.225
74 CP2 180 -2.248
74 CP2 181 -2.248
74 CP2 182 -2.248
74 CP2 183 -3.225
74 CP2 184 -3.713
74 CP2 185 -3.713
74 CP2 186 -3.713
74 CP2 187 -3.225
74 CP2 188 -2.736
74 CP2 189 -2.248
74 CP2 190 -2.248
74 CP2 191 -2.248
74 CP2 192 -1.760
74 CP2 193 -1.760
74 CP2 194 -1.272
74 CP2 195 -1.760
74 CP2 196 -1.760
74 CP2 197 -2.736
74 CP2 198 -3.225
74 CP2 199 -3.713
74 CP2 200 -4.201
74 CP2 201 -4.201
74 CP2 202 -3.713
74 CP2 203 -3.225
74 CP2 204 -2.736
74 CP2 205 -2.736
74 CP2 206 -3.225
74 CP2 207 -3.713
74 CP2 208 -4.201
74 CP2 209 -4.690
74 CP2 210 -4.690
74 CP2 211 -4.201
74 CP2 212 -4.201
74 CP2 213 -4.201
74 CP2 214 -4.690
74 CP2 215 -5.178
74 CP2 216 -4.690
74 CP2 217 -4.201
74 CP2 218 -3.225
74 CP2 219 -2.736
74 CP2 220 -3.225
74 CP2 221 -4.201
74 CP2 222 -5.178
74 CP2 223 -7.131
74 CP2 224 -8.108
74 CP2 225 -9.084
74 CP2 226 -8.596
74 CP2 227 -8.108
74 CP2 228 -6.643
74 CP2 229 -5.178
74 CP2 230 -4.201
74 CP2 231 -3.225
74 CP2 232 -3.225
74 CP2 233 -4.201
74 CP2 234 -5.178
74 CP2 235 -5.178
74 CP2 236 -5.666
74 CP2 237 -5.666
74 CP2 238 -6.154
74 CP2 239 -6.643
74 CP2 240 -7.619
74 CP2 241 -8.108
74 CP2 242 -7.619
74 CP2 243 -6.643
74 CP2 244 -5.666
74 CP2 245 -5.178
74 CP2 246 -6.154
74 CP2 247 -7.619
74 CP2 248 -8.596
74 CP2 249 -8.596
74 CP2 250 -8.596
74 CP2 251 -7.619
74 CP2 252 -6.643
74 CP2 253 -5.178
74 CP2 254 -4.201
74 CP2 255 -3.225
# P3 chan 22
74 P3 0 -7.090
74 P3 1 -4.649
74 P3 2 -3.184
74 P3 3 -3.672
74 P3 4 -6.114
74 P3 5 -10.020
74 P3 6 -14.414
74 P3 7 -17.832
74 P3 8 -21.250
74 P3 9 -23.204
74 P3 10 -24.180
74 P3 11 -23.692
74 P3 12 -22.227
74 P3 13 -19.786
74 P3 14 -17.344
74 P3 15 -15.391
74 P3 16 -13.926
74 P3 17 -12.950
74 P3 18 -11.485
74 P3 19 -9.043
74 P3 20 -7.090
74 P3 21 -5.137
74 P3 22 -4.649
74 P3 23 -5.137
74 P3 24 -6.602
74 P3 25 -9.043
74 P3 26 -11.485
74 P3 27 -14.903
74 P3 28 -18.321
74 P3 29 -22.227
74 P3 30 -25.645
74 P3 31 -28.086
74 P3 32 -29.551
74 P3 33 -29.551
74 P3 34 -28.086
74 P3 35 -25.157
74 P3 36 -21.250
74 P3 37 -16.368
74 P3 38 -12.461
74 P3 39 -10.508
74 P3 40 -10.020
74 P3 41 -11.485
74 P3 42 -13.926
74 P3 43 -16.368
74 P3 44 -18.809
74 P3 45 -20.762
74 P3 46 -22.227
74 P3 47 -24.180
74 P3 48 -25.645
74 P3 49 -27.110
74 P3 50 -27.110
74 P3 51 -26.133
74 P3 52 -24.180
74 P3 53 -21.250
74 P3 54 -19.297
74 P3 55 -17.344
74 P3 56 -16.856
74 P3 57 -16.856
74 P3 58 -16.856
74 P3 59 -16.368
74 P3 60 -14.903
74 P3 61 -13.438
74 P3 62 -12.461
74 P3 63 -12.461
74 P3 64 -12.461
74 P3 65 -11.485
74 P3 66 -9.043
74 P3 67 -5.625
74 P3 68 -2.696
74 P3 69 -1.719
74 P3 70 -2.696
74 P3 71 -5.625
74 P3 72 -9.043
74 P3 73 -11.485
74 P3 74 -12.950
74 P3 75 -12.950
74 P3 76 -13.926
74 P3 77 -15.391
74 P3 78 -17.344
74 P3 79 -18.809
74 P3 80 -18.809
74 P3 81 -18.321
74 P3 82 -16.856
74 P3 83 -15.879
74 P3 84 -15.391
74 P3 85 -15.879
74 P3 86 -15.879
74 P3 87 -14.903
74 P3 88 -11.973
74 P3 89 -9.532
74 P3 90 -6.602
74 P3 91 -5.625
74 P3 92 -6.602
74 P3 93 -8.555
74 P3 94 -10.508
74 P3 95 -12.461
74 P3 96 -14.414
74 P3 97 -15.879
74 P3 98 -16.856
74 P3 99 -17.344
74 P3 100 -17.344
74 P3 101 -17.344
74 P3 102 -17.344
74 P3 103 -16.856
74 P3 104 -14.903
74 P3 105 -11.485
74 P3 106 -6.602
74 P3 107 -1.719
74 P3 108 2.675
74 P3 109 4.628
74 P3 110 5.605
74 P3 111 4.628
74 P3 112 3.164
74 P3 113 1.211
74 P3 114 -1.719
74 P3 115 -4.649
74 P3 116 -7.579
74 P3 117 -9.043
74 P3 118 -9.043
74 P3 119 -9.532
74 P3 120 -10.508
74 P3 121 -11.973
74 P3 122 -13.926
74 P3 123 -14.903
74 P3 124 -14.903
74 P3 125 -12.950
74 P3 126 -10.997
74 P3 127 -10.020
74 P3 128 -10.020
74 P3 129 -11.485
74 P3 130 -12.950
74 P3 131 -12.950
74 P3 132 -11.973
74 P3 133 -10.020
74 P3 134 -8.555
74 P3 135 -8.067
74 P3 136 -8.067
74 P3 137 -9.043
74 P3 138 -9.532
74 P3 139 -10.020
74 P3 140 -9.532
74 P3 141 -9.532
74 P3 142 -10.508
74 P3 143 -11.485
74 P3 144 -11.973
74 P3 145 -11.973
74 P3 146 -11.485
74 P3 147 -10.997
74 P3 148 -11.485
74 P3 149 -11.973
74 P3 150 -12.461
74 P3 151 -11.973
74 P3 152 -10.508
74 P3 153 -8.067
74 P3 154 -6.114
74 P3 155 -5.137
74 P3 156 -4.649
74 P3 157 -3.672
74 P3 158 -2.696
74 P3 159 -1.719
74 P3 160 -0.254
74 P3 161 0.234
74 P3 162 0.234
74 P3 163 0.722
74 P3 164 1.211
74 P3 165 1.211
74 P3 166 0.722
74 P3 167 -0.743
74 P3 168 -2.207
74 P3 169 -2.696
74 P3 170 -3.672
74 P3 171 -3.672
74 P3 172 -5.137
74 P3 173 -7.090
74 P3 174 -9.043
74 P3 175 -11.485
74 P3 176 -11.973
74 P3 177 -11.485
74 P3 178 -10.020
74 P3 179 -8.067
74 P3 180 -6.602
74 P3 181 -5.625
74 P3 182 -4.649
74 P3 183 -4.649
74 P3 184 -4.649
74 P3 185 -4.649
74 P3 186 -4.649
74 P3 187 -5.137
74 P3 188 -6.114
74 P3 189 -7.090
74 P3 190 -7.579
74 P3 191 -7.090
74 P3 192 -6.602
74 P3 193 -4.649
74 P3 194 -3.184
74 P3 195 -2.696
74 P3 196 -2.696
74 P3 197 -3.672
74 P3 198 -4.649
74 P3 199 -4.649
74 P3 200 -4.161
74 P3 201 -3.184
74 P3 202 -2.207
74 P3 203 -1.231
74 P3 204 -0.743
74 P3 205 -0.254
74 P3 206 0.234
74 P3 207 1.211
74 P3 208 0.722
74 P3 209 0.234
74 P3 210 -1.719
74 P3 211 -3.672
74 P3 212 -5.625
74 P3 213 -6.602
74 P3 214 -7.090
74 P3 215 -5.625
74 P3 216 -4.161
74 P3 217 -2.207
74 P3 218 -1.231
74 P3 219 -1.231
74 P3 220 -2.696
74 P3 221 -4.649
74 P3 222 -6.602
74 P3 223 -8.067
74 P3 224 -9.043
74 P3 225 -9.532
74 P3 226 -9.532
74 P3 227 -8.555
74 P3 228 -7.090
74 P3 229 -4.161
74 P3 230 -1.719
74 P3 231 0.234
74 P3 232 0.722
74 P3 233 1.211
74 P3 234 0.722
74 P3 235 1.211
74 P3 236 1.211
74 P3 237 0.722
74 P3 238 -1.719
74 P3 239 -4.161
74 P3 240 -7.090
74 P3 241 -9.043
74 P3 242 -10.020
74 P3 243 -10.508
74 P3 244 -10.997
74 P3 245 -10.997
74 P3 246 -10.508
74 P3 247 -9.043
74 P3 248 -7.579
74 P3 249 -6.114
74 P3 250 -5.137
74 P3 251 -4.649
74 P3 252 -4.161
74 P3 253 -3.184
74 P3 254 -1.231
74 P3 255 0.722
# P4 chan 23
74 P4 0 -7.589
74 P4 1 -5.636
74 P4 2 -5.147
74 P4 3 -5.636
74 P4 4 -6.124
74 P4 5 -7.100
74 P4 6 -7.100
74 P4 7 -7.589
74 P4 8 -7.589
74 P4 9 -8.565
74 P4 10 -9.542
74 P4 11 -10.518
74 P4 12 -10.030
74 P4 13 -8.565
74 P4 14 -6.124
74 P4 15 -4.659
74 P4 16 -4.171
74 P4 17 -5.636
74 P4 18 -6.612
74 P4 19 -7.100
74 P4 20 -5.636
74 P4 21 -3.682
74 P4 22 -1.729
74 P4 23 -1.729
74 P4 24 -3.682
74 P4 25 -7.100
74 P4 26 -11.007
74 P4 27 -13.936
74 P4 28 -15.401
74 P4 29 -16.378
74 P4 30 -17.354
74 P4 31 -18.331
74 P4 32 -19.307
74 P4 33 -19.796
74 P4 34 -19.796
74 P4 35 -18.819
74 P4 36 -17.354
74 P4 37 -15.401
74 P4 38 -14.913
74 P4 39 -14.913
74 P4 40 -15.889
74 P4 41 -17.354
74 P4 42 -18.819
74 P4 43 -19.796
74 P4 44 -20.284
74 P4 45 -19.307
74 P4 46 -17.843
74 P4 47 -16.866
74 P4 48 -15.889
74 P4 49 -15.889
74 P4 50 -16.378
74 P4 51 -15.889
74 P4 52 -14.913
74 P4 53 -13.936
74 P4 54 -12.472
74 P4 55 -12.472
74 P4 56 -13.448
74 P4 57 -14.913
74 P4 58 -15.889
74 P4 59 -15.401
74 P4 60 -14.913
74 P4 61 -13.448
74 P4 62 -11.983
74 P4 63 -10.518
74 P4 64 -9.054
74 P4 65 -7.589
74 P4 66 -6.124
74 P4 67 -4.659
74 P4 68 -2.706
74 P4 69 -1.241
74 P4 70 -1.241
74 P4 71 -1.729
74 P4 72 -3.194
74 P4 73 -5.147
74 P4 74 -6.612
74 P4 75 -7.100
74 P4 76 -7.589
74 P4 77 -7.589
74 P4 78 -9.054
74 P4 79 -11.007
74 P4 80 -13.448
74 P4 81 -15.401
74 P4 82 -16.378
74 P4 83 -16.378
74 P4 84 -16.378
74 P4 85 -15.401
74 P4 86 -14.913
74 P4 87 -13.936
74 P4 88 -12.472
74 P4 89 -10.518
74 P4 90 -9.054
74 P4 91 -7.589
74 P4 92 -7.100
74 P4 93 -7.100
74 P4 94 -7.589
74 P4 95 -8.077
74 P4 96 -8.565
74 P4 97 -8.565
74 P4 98 -8.077
74 P4 99 -7.100
74 P4 100 -7.100
74 P4 101 -7.100
74 P4 102 -7.100
74 P4 103 -7.100
74 P4 104 -6.124
74 P4 105 -4.659
74 P4 106 -3.194
74 P4 107 -2.706
74 P4 108 -2.218
74 P4 109 -2.706
74 P4 110 -3.194
74 P4 111 -4.171
74 P4 112 -5.636
74 P4 113 -7.589
74 P4 114 -10.518
74 P4 115 -12.472
74 P4 116 -13.448
74 P4 117 -12.960
74 P4 118 -11.495
74 P4 119 -10.518
74 P4 120 -10.030
74 P4 121 -10.030
74 P4 122 -9.542
74 P4 123 -8.077
74 P4 124 -6.612
74 P4 125 -5.147
74 P4 126 -5.147
74 P4 127 -5.636
74 P4 128 -7.100
74 P4 129 -7.589
74 P4 130 -7.589
74 P4 131 -6.612
74 P4 132 -6.124
74 P4 133 -5.147
74 P4 134 -4.659
74 P4 135 -5.147
74 P4 136 -5.147
74 P4 137 -5.636
74 P4 138 -6.124
74 P4 139 -7.100
74 P4 140 -8.077
74 P4 141 -9.054
74 P4 142 -9.054
74 P4 143 -9.542
74 P4 144 -9.542
74 P4 145 -9.542
74 P4 146 -9.542
74 P4 147 -9.054
74 P4 148 -8.077
74 P4 149 -7.100
74 P4 150 -6.612
74 P4 151 -5.636
74 P4 152 -4.659
74 P4 153 -3.194
74 P4 154 -1.729
74 P4 155 -1.241
74 P4 156 -1.729
74 P4 157 -2.706
74 P4 158 -3.682
74 P4 159 -4.659
74 P4 160 -5.147
74 P4 161 -5.636
74 P4 162 -6.124
74 P4 163 -6.612
74 P4 164 -6.612
74 P4 165 -5.636
74 P4 166 -3.682
74 P4 167 -3.194
74 P4 168 -3.682
74 P4 169 -5.147
74 P4 170 -6.612
74 P4 171 -7.589
74 P4 172 -7.589
74 P4 173 -6.612
74 P4 174 -5.636
74 P4 175 -4.659
74 P4 176 -3.682
74 P4 177 -2.218
74 P4 178 -0.753
74 P4 179 1.200
74 P4 180 2.177
74 P4 181 2.177
74 P4 182 1.689
74 P4 183 1.200
74 P4 184 0.712
74 P4 185 0.712
74 P4 186 0.712
74 P4 187 1.200
74 P4 188 1.689
74 P4 189 2.177
74 P4 190 2.665
74 P4 191 2.665
74 P4 192 2.177
74 P4 193 2.177
74 P4 194 2.177
74 P4 195 2.177
74 P4 196 2.177
74 P4 197 1.689
74 P4 198 1.200
74 P4 199 0.712
74 P4 200 0.224
74 P4 201 0.224
74 P4 202 0.712
74 P4 203 0.712
74 P4 204 0.224
74 P4 205 0.224
74 P4 206 -0.264
74 P4 207 -0.264
74 P4 208 -0.264
74 P4 209 0.224
74 P4 210 0.224
74 P4 211 0.224
74 P4 212 0.224
74 P4 213 -0.753
74 P4 214 -1.241
74 P4 215 -1.241
74 P4 216 -1.241
74 P4 217 -0.264
74 P4 218 0.224
74 P4 219 0.224
74 P4 220 -0.753
74 P4 221 -2.706
74 P4 222 -5.147
74 P4 223 -7.100
74 P4 224 -8.565
74 P4 225 -9.542
74 P4 226 -9.542
74 P4 227 -8.077
74 P4 228 -6.124
74 P4 229 -3.682
74 P4 230 -1.241
74 P4 231 0.224
74 P4 232 0.712
74 P4 233 0.224
74 P4 234 -0.753
74 P4 235 -1.241
74 P4 236 -1.729
74 P4 237 -2.706
74 P4 238 -4.171
74 P4 239 -6.124
74 P4 240 -7.589
74 P4 241 -8.565
74 P4 242 -8.565
74 P4 243 -7.589
74 P4 244 -7.589
74 P4 245 -8.565
74 P4 246 -9.542
74 P4 247 -11.007
74 P4 248 -11.495
74 P4 249 -10.518
74 P4 250 -8.565
74 P4 251 -6.612
74 P4 252 -3.682
74 P4 253 -1.729
74 P4 254 1.200
74 P4 255 2.665
# PZ chan 24
74 PZ 0 -1.923
74 PZ 1 -0.458
74 PZ 2 0.519
74 PZ 3 0.031
74 PZ 4 -1.923
74 PZ 5 -4.364
74 PZ 6 -7.294
74 PZ 7 -9.247
74 PZ 8 -10.712
74 PZ 9 -12.177
74 PZ 10 -13.153
74 PZ 11 -13.641
74 PZ 12 -12.177
74 PZ 13 -10.223
74 PZ 14 -7.782
74 PZ 15 -5.829
74 PZ 16 -4.852
74 PZ 17 -4.852
74 PZ 18 -4.364
74 PZ 19 -3.387
74 PZ 20 -1.923
74 PZ 21 0.031
74 PZ 22 0.519
74 PZ 23 -0.458
74 PZ 24 -2.899
74 PZ 25 -5.829
74 PZ 26 -9.247
74 PZ 27 -12.177
74 PZ 28 -15.106
74 PZ 29 -17.548
74 PZ 30 -19.989
74 PZ 31 -21.942
74 PZ 32 -23.407
74 PZ 33 -23.895
74 PZ 34 -22.919
74 PZ 35 -20.966
74 PZ 36 -17.548
74 PZ 37 -14.130
74 PZ 38 -10.223
74 PZ 39 -8.270
74 PZ 40 -8.270
74 PZ 41 -9.735
74 PZ 42 -11.688
74 PZ 43 -13.641
74 PZ 44 -14.130
74 PZ 45 -14.618
74 PZ 46 -14.130
74 PZ 47 -14.618
74 PZ 48 -15.594
74 PZ 49 -17.059
74 PZ 50 -17.548
74 PZ 51 -17.548
74 PZ 52 -16.083
74 PZ 53 -14.130
74 PZ 54 -12.177
74 PZ 55 -10.712
74 PZ 56 -10.712
74 PZ 57 -11.200
74 PZ 58 -12.177
74 PZ 59 -12.177
74 PZ 60 -11.200
74 PZ 61 -9.735
74 PZ 62 -8.270
74 PZ 63 -7.782
74 PZ 64 -7.294
74 PZ 65 -7.294
74 PZ 66 -6.317
74 PZ 67 -4.364
74 PZ 68 -2.899
74 PZ 69 -1.434
74 PZ 70 -1.434
74 PZ 71 -3.876
74 PZ 72 -6.317
74 PZ 73 -9.247
74 PZ 74 -11.200
74 PZ 75 -11.200
74 PZ 76 -11.688
74 PZ 77 -11.688
74 PZ 78 -12.665
74 PZ 79 -14.130
74 PZ 80 -16.083
74 PZ 81 -16.571
74 PZ 82 -16.571
74 PZ 83 -16.083
74 PZ 84 -15.106
74 PZ 85 -14.618
74 PZ 86 -14.618
74 PZ 87 -13.641
74 PZ 88 -12.177
74 PZ 89 -10.223
74 PZ 90 -8.270
74 PZ 91 -7.782
74 PZ 92 -7.782
74 PZ 93 -8.759
74 PZ 94 -10.223
74 PZ 95 -11.200
74 PZ 96 -12.665
74 PZ 97 -13.153
74 PZ 98 -13.641
74 PZ 99 -13.153
74 PZ 100 -13.153
74 PZ 101 -12.665
74 PZ 102 -12.177
74 PZ 103 -12.177
74 PZ 104 -11.200
74 PZ 105 -9.735
74 PZ 106 -6.805
74 PZ 107 -3.876
74 PZ 108 -1.434
74 PZ 109 -0.458
74 PZ 110 -0.458
74 PZ 111 -1.923
74 PZ 112 -4.364
74 PZ 113 -6.805
74 PZ 114 -9.735
74 PZ 115 -12.177
74 PZ 116 -13.641
74 PZ 117 -14.618
74 PZ 118 -14.130
74 PZ 119 -13.641
74 PZ 120 -13.641
74 PZ 121 -13.641
74 PZ 122 -14.130
74 PZ 123 -14.130
74 PZ 124 -13.153
74 PZ 125 -12.177
74 PZ 126 -10.712
74 PZ 127 -10.223
74 PZ 128 -10.223
74 PZ 129 -11.200
74 PZ 130 -11.688
74 PZ 131 -11.688
74 PZ 132 -10.712
74 PZ 133 -10.223
74 PZ 134 -9.247
74 PZ 135 -9.247
74 PZ 136 -9.247
74 PZ 137 -9.735
74 PZ 138 -9.735
74 PZ 139 -10.223
74 PZ 140 -10.223
74 PZ 141 -11.688
74 PZ 142 -12.665
74 PZ 143 -14.130
74 PZ 144 -14.618
74 PZ 145 -15.106
74 PZ 146 -14.618
74 PZ 147 -14.130
74 PZ 148 -13.153
74 PZ 149 -12.665
74 PZ 150 -11.200
74 PZ 151 -9.735
74 PZ 152 -7.294
74 PZ 153 -4.852
74 PZ 154 -3.387
74 PZ 155 -2.411
74 PZ 156 -2.411
74 PZ 157 -2.411
74 PZ 158 -1.923
74 PZ 159 -1.923
74 PZ 160 -2.411
74 PZ 161 -3.387
74 PZ 162 -4.364
74 PZ 163 -5.341
74 PZ 164 -5.829
74 PZ 165 -5.341
74 PZ 166 -5.341
74 PZ 167 -5.829
74 PZ 168 -6.317
74 PZ 169 -7.782
74 PZ 170 -8.270
74 PZ 171 -8.759
74 PZ 172 -8.270
74 PZ 173 -8.270
74 PZ 174 -8.759
74 PZ 175 -9.247
74 PZ 176 -8.759
74 PZ 177 -7.782
74 PZ 178 -5.829
74 PZ 179 -3.876
74 PZ 180 -2.411
74 PZ 181 -1.434
74 PZ 182 -1.923
74 PZ 183 -1.923
74 PZ 184 -2.411
74 PZ 185 -2.899
74 PZ 186 -2.899
74 PZ 187 -3.387
74 PZ 188 -3.387
74 PZ 189 -3.387
74 PZ 190 -3.387
74 PZ 191 -2.899
74 PZ 192 -1.923
74 PZ 193 -0.946
74 PZ 194 -0.946
74 PZ 195 -0.946
74 PZ 196 -1.434
74 PZ 197 -2.411
74 PZ 198 -3.387
74 PZ 199 -4.364
74 PZ 200 -4.852
74 PZ 201 -4.852
74 PZ 202 -4.852
74 PZ 203 -4.852
74 PZ 204 -4.852
74 PZ 205 -4.364
74 PZ 206 -3.876
74 PZ 207 -3.387
74 PZ 208 -2.899
74 PZ 209 -2.899
74 PZ 210 -3.876
74 PZ 211 -4.852
74 PZ 212 -6.317
74 PZ 213 -6.805
74 PZ 214 -6.805
74 PZ 215 -6.317
74 PZ 216 -4.852
74 PZ 217 -3.387
74 PZ 218 -1.923
74 PZ 219 -1.434
74 PZ 220 -2.411
74 PZ 221 -4.364
74 PZ 222 -6.805
74 PZ 223 -9.247
74 PZ 224 -11.200
74 PZ 225 -12.665
74 PZ 226 -12.665
74 PZ 227 -11.688
74 PZ 228 -10.223
74 PZ 229 -7.782
74 PZ 230 -5.829
74 PZ 231 -4.364
74 PZ 232 -3.387
74 PZ 233 -3.387
74 PZ 234 -3.387
74 PZ 235 -3.387
74 PZ 236 -3.387
74 PZ 237 -3.876
74 PZ 238 -5.341
74 PZ 239 -7.294
74 PZ 240 -9.735
74 PZ 241 -11.200
74 PZ 242 -12.177
74 PZ 243 -12.177
74 PZ 244 -12.177
74 PZ 245 -12.177
74 PZ 246 -12.177
74 PZ 247 -12.177
74 PZ 248 -12.177
74 PZ 249 -11.688
74 PZ 250 -11.200
74 PZ 251 -10.712
74 PZ 252 -10.223
74 PZ 253 -8.759
74 PZ 254 -6.317
74 PZ 255 -3.876
# P8 chan 25
74 P8 0 -14.150
74 P8 1 -11.220
74 P8 2 -9.755
74 P8 3 -8.779
74 P8 4 -9.267
74 P8 5 -9.755
74 P8 6 -10.244
74 P8 7 -10.732
74 P8 8 -11.709
74 P8 9 -12.685
74 P8 10 -13.662
74 P8 11 -13.662
74 P8 12 -11.709
74 P8 13 -8.779
74 P8 14 -4.873
74 P8 15 -2.431
74 P8 16 -1.943
74 P8 17 -2.920
74 P8 18 -3.896
74 P8 19 -3.896
74 P8 20 -1.943
74 P8 21 0.498
74 P8 22 2.940
74 P8 23 2.940
74 P8 24 0.498
74 P8 25 -3.408
74 P8 26 -7.314
74 P8 27 -9.755
74 P8 28 -10.244
74 P8 29 -9.755
74 P8 30 -9.755
74 P8 31 -10.244
74 P8 32 -11.709
74 P8 33 -12.685
74 P8 34 -12.197
74 P8 35 -9.755
74 P8 36 -6.337
74 P8 37 -3.896
74 P8 38 -3.408
74 P8 39 -3.896
74 P8 40 -5.361
74 P8 41 -7.314
74 P8 42 -9.755
74 P8 43 -11.709
74 P8 44 -13.662
74 P8 45 -14.638
74 P8 46 -14.150
74 P8 47 -13.173
74 P8 48 -11.220
74 P8 49 -10.244
74 P8 50 -9.267
74 P8 51 -8.779
74 P8 52 -7.802
74 P8 53 -6.826
74 P8 54 -7.314
74 P8 55 -8.291
74 P8 56 -11.220
74 P8 57 -13.662
74 P8 58 -14.638
74 P8 59 -13.662
74 P8 60 -11.220
74 P8 61 -8.779
74 P8 62 -7.314
74 P8 63 -6.337
74 P8 64 -5.849
74 P8 65 -4.384
74 P8 66 -1.943
74 P8 67 0.498
74 P8 68 2.940
74 P8 69 5.381
74 P8 70 6.846
74 P8 71 7.334
74 P8 72 7.334
74 P8 73 6.358
74 P8 74 5.870
74 P8 75 5.381
74 P8 76 4.893
74 P8 77 4.405
74 P8 78 2.452
74 P8 79 0.010
74 P8 80 -2.920
74 P8 81 -4.873
74 P8 82 -6.337
74 P8 83 -6.826
74 P8 84 -7.314
74 P8 85 -8.291
74 P8 86 -9.267
74 P8 87 -9.267
74 P8 88 -7.802
74 P8 89 -5.849
74 P8 90 -3.896
74 P8 91 -1.455
74 P8 92 0.010
74 P8 93 0.498
74 P8 94 0.498
74 P8 95 -0.478
74 P8 96 -0.966
74 P8 97 -0.478
74 P8 98 0.498
74 P8 99 1.475
74 P8 100 1.963
74 P8 101 1.475
74 P8 102 0.498
74 P8 103 0.010
74 P8 104 1.475
74 P8 105 3.916
74 P8 106 6.846
74 P8 107 8.311
74 P8 108 8.311
74 P8 109 7.823
74 P8 110 6.846
74 P8 111 6.846
74 P8 112 5.870
74 P8 113 3.916
74 P8 114 0.987
74 P8 115 -1.943
74 P8 116 -3.408
74 P8 117 -3.408
74 P8 118 -1.943
74 P8 119 -1.455
74 P8 120 -0.966
74 P8 121 -1.455
74 P8 122 -0.966
74 P8 123 0.498
74 P8 124 2.452
74 P8 125 4.893
74 P8 126 5.381
74 P8 127 4.893
74 P8 128 4.405
74 P8 129 3.916
74 P8 130 4.405
74 P8 131 5.381
74 P8 132 6.358
74 P8 133 6.358
74 P8 134 5.870
74 P8 135 4.893
74 P8 136 4.405
74 P8 137 3.916
74 P8 138 3.428
74 P8 139 1.963
74 P8 140 0.498
74 P8 141 -0.966
74 P8 142 -1.943
74 P8 143 -2.431
74 P8 144 -3.408
74 P8 145 -3.896
74 P8 146 -3.896
74 P8 147 -3.408
74 P8 148 -1.943
74 P8 149 -0.478
74 P8 150 0.010
74 P8 151 0.498
74 P8 152 0.010
74 P8 153 0.010
74 P8 154 0.498
74 P8 155 1.475
74 P8 156 1.963
74 P8 157 1.963
74 P8 158 1.475
74 P8 159 0.987
74 P8 160 0.987
74 P8 161 0.987
74 P8 162 0.010
74 P8 163 -0.478
74 P8 164 -1.455
74 P8 165 -1.455
74 P8 166 -0.478
74 P8 167 0.010
74 P8 168 0.010
74 P8 169 -0.478
74 P8 170 -1.943
74 P8 171 -2.920
74 P8 172 -3.896
74 P8 173 -3.408
74 P8 174 -2.431
74 P8 175 -0.966
74 P8 176 0.498
74 P8 177 2.452
74 P8 178 4.405
74 P8 179 6.358
74 P8 180 7.823
74 P8 181 7.823
74 P8 182 7.334
74 P8 183 6.358
74 P8 184 4.893
74 P8 185 3.916
74 P8 186 3.916
74 P8 187 4.893
74 P8 188 5.870
74 P8 189 6.358
74 P8 190 6.358
74 P8 191 5.870
74 P8 192 5.381
74 P8 193 4.405
74 P8 194 4.893
74 P8 195 4.893
74 P8 196 4.893
74 P8 197 4.893
74 P8 198 4.893
74 P8 199 5.381
74 P8 200 5.870
74 P8 201 6.846
74 P8 202 7.334
74 P8 203 7.334
74 P8 204 6.358
74 P8 205 4.893
74 P8 206 2.940
74 P8 207 1.963
74 P8 208 0.987
74 P8 209 0.498
74 P8 210 0.987
74 P8 211 0.987
74 P8 212 0.987
74 P8 213 0.987
74 P8 214 0.498
74 P8 215 0.987
74 P8 216 1.963
74 P8 217 3.428
74 P8 218 3.916
74 P8 219 4.893
74 P8 220 3.916
74 P8 221 2.452
74 P8 222 -0.478
74 P8 223 -2.920
74 P8 224 -4.873
74 P8 225 -5.849
74 P8 226 -5.849
74 P8 227 -4.384
74 P8 228 -2.431
74 P8 229 -0.478
74 P8 230 0.987
74 P8 231 1.963
74 P8 232 0.987
74 P8 233 -0.966
74 P8 234 -2.431
74 P8 235 -4.384
74 P8 236 -5.361
74 P8 237 -6.826
74 P8 238 -8.779
74 P8 239 -11.709
74 P8 240 -14.638
74 P8 241 -15.615
74 P8 242 -15.127
74 P8 243 -13.173
74 P8 244 -11.220
74 P8 245 -10.732
74 P8 246 -11.220
74 P8 247 -12.197
74 P8 248 -12.685
74 P8 249 -11.709
74 P8 250 -9.267
74 P8 251 -5.849
74 P8 252 -1.943
74 P8 253 0.010
74 P8 254 1.475
74 P8 255 1.475
# P7 chan 26
74 P7 0 -13.133
74 P7 1 -11.180
74 P7 2 -8.738
74 P7 3 -7.762
74 P7 4 -8.250
74 P7 5 -10.691
74 P7 6 -13.621
74 P7 7 -16.551
74 P7 8 -18.504
74 P7 9 -19.969
74 P7 10 -20.945
74 P7 11 -20.945
74 P7 12 -19.969
74 P7 13 -18.016
74 P7 14 -15.574
74 P7 15 -13.621
74 P7 16 -12.644
74 P7 17 -11.668
74 P7 18 -10.691
74 P7 19 -7.762
74 P7 20 -3.855
74 P7 21 -0.437
74 P7 22 2.004
74 P7 23 2.981
74 P7 24 2.492
74 P7 25 0.539
74 P7 26 -2.391
74 P7 27 -5.809
74 P7 28 -9.715
74 P7 29 -13.621
74 P7 30 -16.551
74 P7 31 -18.992
74 P7 32 -19.969
74 P7 33 -19.480
74 P7 34 -18.504
74 P7 35 -15.574
74 P7 36 -12.644
74 P7 37 -8.738
74 P7 38 -5.809
74 P7 39 -3.367
74 P7 40 -2.391
74 P7 41 -2.391
74 P7 42 -3.855
74 P7 43 -5.320
74 P7 44 -7.273
74 P7 45 -9.715
74 P7 46 -12.156
74 P7 47 -14.109
74 P7 48 -15.574
74 P7 49 -15.574
74 P7 50 -15.086
74 P7 51 -13.621
74 P7 52 -11.668
74 P7 53 -10.203
74 P7 54 -9.226
74 P7 55 -8.250
74 P7 56 -7.762
74 P7 57 -7.273
74 P7 58 -6.785
74 P7 59 -6.297
74 P7 60 -5.320
74 P7 61 -4.344
74 P7 62 -3.367
74 P7 63 -2.879
74 P7 64 -2.391
74 P7 65 -0.926
74 P7 66 2.492
74 P7 67 6.887
74 P7 68 10.793
74 P7 69 12.746
74 P7 70 11.281
74 P7 71 8.352
74 P7 72 5.910
74 P7 73 4.934
74 P7 74 4.934
74 P7 75 5.910
74 P7 76 5.422
74 P7 77 3.469
74 P7 78 1.027
74 P7 79 -0.926
74 P7 80 -2.391
74 P7 81 -2.879
74 P7 82 -2.879
74 P7 83 -3.367
74 P7 84 -4.344
74 P7 85 -5.809
74 P7 86 -6.297
74 P7 87 -6.297
74 P7 88 -4.344
74 P7 89 -2.391
74 P7 90 -0.437
74 P7 91 0.051
74 P7 92 0.051
74 P7 93 -0.926
74 P7 94 -1.902
74 P7 95 -2.391
74 P7 96 -2.391
74 P7 97 -1.902
74 P7 98 -0.926
74 P7 99 -0.437
74 P7 100 -0.437
74 P7 101 -1.414
74 P7 102 -2.391
74 P7 103 -1.902
74 P7 104 1.027
74 P7 105 6.399
74 P7 106 13.234
74 P7 107 19.094
74 P7 108 23.000
74 P7 109 23.977
74 P7 110 22.512
74 P7 111 20.070
74 P7 112 16.652
74 P7 113 13.234
74 P7 114 8.840
74 P7 115 4.934
74 P7 116 2.004
74 P7 117 1.027
74 P7 118 1.516
74 P7 119 2.492
74 P7 120 2.981
74 P7 121 2.981
74 P7 122 1.516
74 P7 123 0.539
74 P7 124 1.516
74 P7 125 3.469
74 P7 126 6.399
74 P7 127 7.863
74 P7 128 7.863
74 P7 129 6.399
74 P7 130 4.445
74 P7 131 3.469
74 P7 132 3.469
74 P7 133 5.422
74 P7 134 6.399
74 P7 135 6.887
74 P7 136 6.399
74 P7 137 4.934
74 P7 138 2.981
74 P7 139 2.004
74 P7 140 1.027
74 P7 141 0.051
74 P7 142 -1.902
74 P7 143 -3.855
74 P7 144 -4.344
74 P7 145 -3.855
74 P7 146 -3.367
74 P7 147 -2.391
74 P7 148 -2.879
74 P7 149 -3.855
74 P7 150 -5.320
74 P7 151 -4.832
74 P7 152 -3.367
74 P7 153 -0.926
74 P7 154 1.516
74 P7 155 2.492
74 P7 156 2.981
74 P7 157 2.981
74 P7 158 3.957
74 P7 159 4.445
74 P7 160 4.934
74 P7 161 5.422
74 P7 162 5.910
74 P7 163 6.887
74 P7 164 8.352
74 P7 165 8.352
74 P7 166 7.863
74 P7 167 6.887
74 P7 168 5.910
74 P7 169 5.910
74 P7 170 6.399
74 P7 171 6.399
74 P7 172 4.934
74 P7 173 1.516
74 P7 174 -1.902
74 P7 175 -3.855
74 P7 176 -4.344
74 P7 177 -3.367
74 P7 178 -1.902
74 P7 179 -0.926
74 P7 180 -0.926
74 P7 181 -0.926
74 P7 182 -1.414
74 P7 183 -1.414
74 P7 184 -1.414
74 P7 185 -0.926
74 P7 186 -0.437
74 P7 187 0.051
74 P7 188 0.051
74 P7 189 -0.926
74 P7 190 -2.391
74 P7 191 -2.879
74 P7 192 -1.902
74 P7 193 0.051
74 P7 194 2.492
74 P7 195 3.957
74 P7 196 4.445
74 P7 197 3.469
74 P7 198 2.492
74 P7 199 2.492
74 P7 200 2.981
74 P7 201 3.957
74 P7 202 4.445
74 P7 203 3.957
74 P7 204 3.469
74 P7 205 2.981
74 P7 206 2.492
74 P7 207 2.004
74 P7 208 2.004
74 P7 209 2.004
74 P7 210 1.516
74 P7 211 0.539
74 P7 212 -0.926
74 P7 213 -2.391
74 P7 214 -2.879
74 P7 215 -2.391
74 P7 216 -0.437
74 P7 217 1.516
74 P7 218 3.469
74 P7 219 4.445
74 P7 220 3.957
74 P7 221 2.004
74 P7 222 0.539
74 P7 223 -0.926
74 P7 224 -2.391
74 P7 225 -4.344
74 P7 226 -5.320
74 P7 227 -5.809
74 P7 228 -4.344
74 P7 229 -1.902
74 P7 230 0.539
74 P7 231 2.004
74 P7 232 2.004
74 P7 233 1.516
74 P7 234 1.516
74 P7 235 2.492
74 P7 236 3.469
74 P7 237 2.981
74 P7 238 0.539
74 P7 239 -2.391
74 P7 240 -5.320
74 P7 241 -6.297
74 P7 242 -6.297
74 P7 243 -5.809
74 P7 244 -5.809
74 P7 245 -5.809
74 P7 246 -5.809
74 P7 247 -4.832
74 P7 248 -2.879
74 P7 249 -0.926
74 P7 250 0.539
74 P7 251 1.027
74 P7 252 1.516
74 P7 253 2.492
74 P7 254 4.445
74 P7 255 5.910
# PO2 chan 27
74 PO2 0 -7.497
74 PO2 1 -5.544
74 PO2 2 -4.567
74 PO2 3 -4.567
74 PO2 4 -6.521
74 PO2 5 -8.962
74 PO2 6 -11.403
74 PO2 7 -12.868
74 PO2 8 -13.845
74 PO2 9 -13.845
74 PO2 10 -13.845
74 PO2 11 -13.845
74 PO2 12 -12.868
74 PO2 13 -10.427
74 PO2 14 -7.985
74 PO2 15 -5.544
74 PO2 16 -4.079
74 PO2 17 -4.567
74 PO2 18 -5.056
74 PO2 19 -5.544
74 PO2 20 -4.567
74 PO2 21 -3.103
74 PO2 22 -2.126
74 PO2 23 -3.103
74 PO2 24 -6.032
74 PO2 25 -10.427
74 PO2 26 -15.798
74 PO2 27 -19.704
74 PO2 28 -22.634
74 PO2 29 -25.075
74 PO2 30 -27.517
74 PO2 31 -29.470
74 PO2 32 -31.423
74 PO2 33 -32.399
74 PO2 34 -31.911
74 PO2 35 -28.982
74 PO2 36 -25.075
74 PO2 37 -21.169
74 PO2 38 -18.239
74 PO2 39 -16.774
74 PO2 40 -16.774
74 PO2 41 -18.239
74 PO2 42 -20.192
74 PO2 43 -21.657
74 PO2 44 -22.634
74 PO2 45 -22.634
74 PO2 46 -21.169
74 PO2 47 -20.192
74 PO2 48 -19.216
74 PO2 49 -19.216
74 PO2 50 -19.216
74 PO2 51 -18.728
74 PO2 52 -17.263
74 PO2 53 -15.310
74 PO2 54 -13.845
74 PO2 55 -12.868
74 PO2 56 -13.357
74 PO2 57 -14.333
74 PO2 58 -14.821
74 PO2 59 -14.333
74 PO2 60 -12.868
74 PO2 61 -11.403
74 PO2 62 -9.939
74 PO2 63 -8.962
74 PO2 64 -8.474
74 PO2 65 -7.497
74 PO2 66 -5.544
74 PO2 67 -3.591
74 PO2 68 -1.638
74 PO2 69 0.315
74 PO2 70 0.315
74 PO2 71 -0.661
74 PO2 72 -2.126
74 PO2 73 -4.567
74 PO2 74 -5.544
74 PO2 75 -6.521
74 PO2 76 -6.521
74 PO2 77 -7.009
74 PO2 78 -7.985
74 PO2 79 -10.427
74 PO2 80 -13.357
74 PO2 81 -15.798
74 PO2 82 -17.263
74 PO2 83 -17.263
74 PO2 84 -16.774
74 PO2 85 -15.798
74 PO2 86 -14.333
74 PO2 87 -13.357
74 PO2 88 -11.403
74 PO2 89 -9.450
74 PO2 90 -7.985
74 PO2 91 -6.521
74 PO2 92 -6.521
74 PO2 93 -7.009
74 PO2 94 -8.474
74 PO2 95 -9.939
74 PO2 96 -10.915
74 PO2 97 -11.403
74 PO2 98 -10.427
74 PO2 99 -9.939
74 PO2 100 -9.450
74 PO2 101 -8.962
74 PO2 102 -9.450
74 PO2 103 -8.962
74 PO2 104 -7.497
74 PO2 105 -4.567
74 PO2 106 -1.149
74 PO2 107 2.268
74 PO2 108 3.733
74 PO2 109 4.710
74 PO2 110 4.222
74 PO2 111 3.245
74 PO2 112 1.292
74 PO2 113 -2.126
74 PO2 114 -6.032
74 PO2 115 -9.939
74 PO2 116 -11.892
74 PO2 117 -11.892
74 PO2 118 -10.427
74 PO2 119 -8.962
74 PO2 120 -8.474
74 PO2 121 -8.474
74 PO2 122 -8.474
74 PO2 123 -7.985
74 PO2 124 -7.009
74 PO2 125 -5.544
74 PO2 126 -4.567
74 PO2 127 -5.056
74 PO2 128 -5.544
74 PO2 129 -6.032
74 PO2 130 -5.544
74 PO2 131 -4.567
74 PO2 132 -3.591
74 PO2 133 -2.126
74 PO2 134 -1.638
74 PO2 135 -1.638
74 PO2 136 -1.638
74 PO2 137 -2.126
74 PO2 138 -3.103
74 PO2 139 -4.567
74 PO2 140 -6.032
74 PO2 141 -7.497
74 PO2 142 -8.962
74 PO2 143 -9.939
74 PO2 144 -10.427
74 PO2 145 -10.915
74 PO2 146 -10.427
74 PO2 147 -9.939
74 PO2 148 -8.474
74 PO2 149 -7.497
