# co2c0000345.rd
# 120 trials, 64 chans, 416 samples 368 post_stim samples
# 3.906000 msecs uV
# S2 match , trial 79
# FP1 chan 0
79 FP1 0 0.549
79 FP1 1 2.014
79 FP1 2 3.479
79 FP1 3 5.920
79 FP1 4 7.385
79 FP1 5 8.362
79 FP1 6 7.874
79 FP1 7 6.409
79 FP1 8 5.920
79 FP1 9 5.920
79 FP1 10 5.920
79 FP1 11 6.409
79 FP1 12 5.432
79 FP1 13 3.967
79 FP1 14 3.479
79 FP1 15 3.967
79 FP1 16 5.432
79 FP1 17 6.897
79 FP1 18 8.850
79 FP1 19 10.803
79 FP1 20 12.268
79 FP1 21 13.245
79 FP1 22 12.756
79 FP1 23 11.292
79 FP1 24 10.315
79 FP1 25 9.827
79 FP1 26 10.315
79 FP1 27 11.292
79 FP1 28 10.803
79 FP1 29 9.338
79 FP1 30 7.874
79 FP1 31 7.385
79 FP1 32 7.874
79 FP1 33 9.338
79 FP1 34 10.803
79 FP1 35 12.268
79 FP1 36 13.733
79 FP1 37 15.198
79 FP1 38 16.174
79 FP1 39 17.151
79 FP1 40 17.151
79 FP1 41 16.174
79 FP1 42 14.221
79 FP1 43 12.756
79 FP1 44 12.268
79 FP1 45 12.756
79 FP1 46 13.733
79 FP1 47 15.198
79 FP1 48 17.151
79 FP1 49 19.104
79 FP1 50 20.569
79 FP1 51 21.545
79 FP1 52 22.522
79 FP1 53 23.499
79 FP1 54 23.987
79 FP1 55 23.987
79 FP1 56 23.499
79 FP1 57 22.522
79 FP1 58 22.522
79 FP1 59 23.010
79 FP1 60 23.010
79 FP1 61 21.057
79 FP1 62 17.151
79 FP1 63 12.268
79 FP1 64 6.897
79 FP1 65 3.479
79 FP1 66 1.038
79 FP1 67 -0.427
79 FP1 68 -3.357
79 FP1 69 -6.775
79 FP1 70 -11.169
79 FP1 71 -14.099
79 FP1 72 -14.587
79 FP1 73 -14.587
79 FP1 74 -15.076
79 FP1 75 -16.052
79 FP1 76 -17.517
79 FP1 77 -18.494
79 FP1 78 -17.517
79 FP1 79 -15.076
79 FP1 80 -12.146
79 FP1 81 -10.193
79 FP1 82 -9.705
79 FP1 83 -10.193
79 FP1 84 -10.681
79 FP1 85 -10.681
79 FP1 86 -9.705
79 FP1 87 -9.705
79 FP1 88 -10.193
79 FP1 89 -10.681
79 FP1 90 -11.658
79 FP1 91 -12.146
79 FP1 92 -12.146
79 FP1 93 -12.634
79 FP1 94 -13.123
79 FP1 95 -14.099
79 FP1 96 -15.076
79 FP1 97 -15.076
79 FP1 98 -15.076
79 FP1 99 -15.076
79 FP1 100 -14.587
79 FP1 101 -14.099
79 FP1 102 -13.123
79 FP1 103 -13.123
79 FP1 104 -13.611
79 FP1 105 -15.076
79 FP1 106 -17.029
79 FP1 107 -18.005
79 FP1 108 -17.029
79 FP1 109 -14.587
79 FP1 110 -11.658
79 FP1 111 -9.705
79 FP1 112 -8.728
79 FP1 113 -8.240
79 FP1 114 -6.775
79 FP1 115 -3.357
79 FP1 116 0.061
79 FP1 117 2.502
79 FP1 118 2.014
79 FP1 119 -0.916
79 FP1 120 -4.333
79 FP1 121 -6.775
79 FP1 122 -6.287
79 FP1 123 -4.822
79 FP1 124 -3.357
79 FP1 125 -1.892
79 FP1 126 -0.427
79 FP1 127 0.549
79 FP1 128 1.526
79 FP1 129 0.549
79 FP1 130 -0.916
79 FP1 131 -2.380
79 FP1 132 -3.845
79 FP1 133 -4.333
79 FP1 134 -4.333
79 FP1 135 -5.310
79 FP1 136 -6.775
79 FP1 137 -8.728
79 FP1 138 -10.193
79 FP1 139 -10.193
79 FP1 140 -9.216
79 FP1 141 -7.751
79 FP1 142 -6.287
79 FP1 143 -4.333
79 FP1 144 -2.380
79 FP1 145 -0.427
79 FP1 146 0.061
79 FP1 147 -1.404
79 FP1 148 -3.845
79 FP1 149 -7.263
79 FP1 150 -10.193
79 FP1 151 -13.611
79 FP1 152 -16.052
79 FP1 153 -18.005
79 FP1 154 -19.470
79 FP1 155 -20.447
79 FP1 156 -20.935
79 FP1 157 -21.912
79 FP1 158 -22.888
79 FP1 159 -22.888
79 FP1 160 -22.888
79 FP1 161 -22.400
79 FP1 162 -20.935
79 FP1 163 -18.982
79 FP1 164 -17.517
79 FP1 165 -16.541
79 FP1 166 -15.076
79 FP1 167 -13.123
79 FP1 168 -10.193
79 FP1 169 -6.287
79 FP1 170 -2.869
79 FP1 171 -0.427
79 FP1 172 0.549
79 FP1 173 -0.916
79 FP1 174 -2.380
79 FP1 175 -4.822
79 FP1 176 -7.263
79 FP1 177 -9.216
79 FP1 178 -11.658
79 FP1 179 -13.611
79 FP1 180 -15.076
79 FP1 181 -16.052
79 FP1 182 -16.541
79 FP1 183 -17.517
79 FP1 184 -19.470
79 FP1 185 -21.423
79 FP1 186 -22.400
79 FP1 187 -20.935
79 FP1 188 -17.029
79 FP1 189 -12.146
79 FP1 190 -7.751
79 FP1 191 -6.287
79 FP1 192 -6.775
79 FP1 193 -7.263
79 FP1 194 -7.263
79 FP1 195 -5.310
79 FP1 196 -3.845
79 FP1 197 -2.869
79 FP1 198 -2.869
79 FP1 199 -3.357
79 FP1 200 -3.845
79 FP1 201 -3.357
79 FP1 202 -2.869
79 FP1 203 -2.380
79 FP1 204 -2.869
79 FP1 205 -4.333
79 FP1 206 -6.775
79 FP1 207 -9.216
79 FP1 208 -11.658
79 FP1 209 -13.123
79 FP1 210 -12.634
79 FP1 211 -12.146
79 FP1 212 -11.658
79 FP1 213 -11.658
79 FP1 214 -11.169
79 FP1 215 -10.193
79 FP1 216 -8.240
79 FP1 217 -5.310
79 FP1 218 -2.869
79 FP1 219 -1.892
79 FP1 220 -1.404
79 FP1 221 -1.404
79 FP1 222 -1.404
79 FP1 223 -0.916
79 FP1 224 -0.427
79 FP1 225 -1.892
79 FP1 226 -4.822
79 FP1 227 -9.216
79 FP1 228 -14.587
79 FP1 229 -18.982
79 FP1 230 -22.400
79 FP1 231 -23.865
79 FP1 232 -23.376
79 FP1 233 -22.400
79 FP1 234 -20.447
79 FP1 235 -18.982
79 FP1 236 -16.541
79 FP1 237 -15.076
79 FP1 238 -12.634
79 FP1 239 -9.216
79 FP1 240 -5.798
79 FP1 241 -1.404
79 FP1 242 2.991
79 FP1 243 7.385
79 FP1 244 11.292
79 FP1 245 13.245
79 FP1 246 14.221
79 FP1 247 12.756
79 FP1 248 10.315
79 FP1 249 6.897
79 FP1 250 3.479
79 FP1 251 0.549
79 FP1 252 -1.404
79 FP1 253 -1.892
79 FP1 254 -1.404
79 FP1 255 0.061
# FP2 chan 1
79 FP2 0 3.784
79 FP2 1 4.761
79 FP2 2 5.737
79 FP2 3 7.202
79 FP2 4 8.179
79 FP2 5 8.179
79 FP2 6 6.714
79 FP2 7 5.249
79 FP2 8 4.272
79 FP2 9 4.761
79 FP2 10 6.714
79 FP2 11 7.202
79 FP2 12 7.202
79 FP2 13 7.202
79 FP2 14 7.202
79 FP2 15 8.179
79 FP2 16 9.155
79 FP2 17 10.132
79 FP2 18 11.597
79 FP2 19 13.062
79 FP2 20 14.526
79 FP2 21 15.503
79 FP2 22 15.015
79 FP2 23 13.550
79 FP2 24 11.597
79 FP2 25 11.108
79 FP2 26 11.108
79 FP2 27 11.108
79 FP2 28 10.132
79 FP2 29 8.667
79 FP2 30 6.714
79 FP2 31 6.226
79 FP2 32 7.202
79 FP2 33 8.667
79 FP2 34 10.132
79 FP2 35 11.597
79 FP2 36 13.062
79 FP2 37 15.015
79 FP2 38 17.456
79 FP2 39 18.921
79 FP2 40 19.409
79 FP2 41 18.433
79 FP2 42 16.968
79 FP2 43 15.503
79 FP2 44 15.015
79 FP2 45 15.503
79 FP2 46 16.479
79 FP2 47 17.456
79 FP2 48 18.433
79 FP2 49 19.409
79 FP2 50 19.897
79 FP2 51 20.386
79 FP2 52 21.851
79 FP2 53 23.315
79 FP2 54 24.780
79 FP2 55 25.269
79 FP2 56 24.292
79 FP2 57 23.315
79 FP2 58 22.827
79 FP2 59 23.804
79 FP2 60 24.780
79 FP2 61 24.292
79 FP2 62 21.851
79 FP2 63 16.479
79 FP2 64 10.620
79 FP2 65 5.737
79 FP2 66 2.319
79 FP2 67 -0.610
79 FP2 68 -3.540
79 FP2 69 -7.446
79 FP2 70 -10.864
79 FP2 71 -12.817
79 FP2 72 -14.282
79 FP2 73 -14.282
79 FP2 74 -15.259
79 FP2 75 -16.724
79 FP2 76 -18.677
79 FP2 77 -19.653
79 FP2 78 -19.165
79 FP2 79 -17.212
79 FP2 80 -14.282
79 FP2 81 -11.841
79 FP2 82 -10.864
79 FP2 83 -10.376
79 FP2 84 -9.888
79 FP2 85 -9.888
79 FP2 86 -9.888
79 FP2 87 -10.376
79 FP2 88 -10.864
79 FP2 89 -10.864
79 FP2 90 -10.864
79 FP2 91 -10.864
79 FP2 92 -11.353
79 FP2 93 -12.329
79 FP2 94 -13.794
79 FP2 95 -15.259
79 FP2 96 -16.235
79 FP2 97 -16.235
79 FP2 98 -17.212
79 FP2 99 -17.212
79 FP2 100 -17.700
79 FP2 101 -17.700
79 FP2 102 -18.188
79 FP2 103 -19.165
79 FP2 104 -21.118
79 FP2 105 -23.560
79 FP2 106 -25.513
79 FP2 107 -25.024
79 FP2 108 -22.583
79 FP2 109 -19.165
79 FP2 110 -16.235
79 FP2 111 -15.259
79 FP2 112 -14.282
79 FP2 113 -13.794
79 FP2 114 -11.353
79 FP2 115 -7.446
79 FP2 116 -3.540
79 FP2 117 -1.099
79 FP2 118 -0.610
79 FP2 119 -2.075
79 FP2 120 -4.517
79 FP2 121 -6.470
79 FP2 122 -7.446
79 FP2 123 -7.446
79 FP2 124 -6.470
79 FP2 125 -5.493
79 FP2 126 -3.540
79 FP2 127 -2.563
79 FP2 128 -1.587
79 FP2 129 -2.075
79 FP2 130 -3.052
79 FP2 131 -4.517
79 FP2 132 -5.981
79 FP2 133 -6.470
79 FP2 134 -7.446
79 FP2 135 -7.935
79 FP2 136 -9.399
79 FP2 137 -9.888
79 FP2 138 -10.864
79 FP2 139 -10.864
79 FP2 140 -11.353
79 FP2 141 -11.353
79 FP2 142 -11.353
79 FP2 143 -9.888
79 FP2 144 -7.446
79 FP2 145 -5.005
79 FP2 146 -4.028
79 FP2 147 -4.517
79 FP2 148 -5.981
79 FP2 149 -8.911
79 FP2 150 -11.353
79 FP2 151 -13.306
79 FP2 152 -15.259
79 FP2 153 -17.212
79 FP2 154 -18.677
79 FP2 155 -19.653
79 FP2 156 -20.630
79 FP2 157 -21.118
79 FP2 158 -21.606
79 FP2 159 -21.606
79 FP2 160 -21.118
79 FP2 161 -20.142
79 FP2 162 -18.188
79 FP2 163 -16.235
79 FP2 164 -15.259
79 FP2 165 -14.282
79 FP2 166 -13.306
79 FP2 167 -11.353
79 FP2 168 -8.423
79 FP2 169 -4.517
79 FP2 170 -1.587
79 FP2 171 -0.122
79 FP2 172 -0.122
79 FP2 173 -1.587
79 FP2 174 -3.540
79 FP2 175 -5.493
79 FP2 176 -7.446
79 FP2 177 -9.399
79 FP2 178 -11.353
79 FP2 179 -12.817
79 FP2 180 -13.306
79 FP2 181 -13.306
79 FP2 182 -13.794
79 FP2 183 -14.282
79 FP2 184 -15.747
79 FP2 185 -18.188
79 FP2 186 -18.677
79 FP2 187 -16.724
79 FP2 188 -12.817
79 FP2 189 -7.935
79 FP2 190 -4.517
79 FP2 191 -2.563
79 FP2 192 -2.563
79 FP2 193 -3.540
79 FP2 194 -3.540
79 FP2 195 -2.075
79 FP2 196 -1.099
79 FP2 197 -0.122
79 FP2 198 -0.122
79 FP2 199 -0.122
79 FP2 200 0.366
79 FP2 201 0.854
79 FP2 202 2.319
79 FP2 203 2.808
79 FP2 204 2.319
79 FP2 205 0.854
79 FP2 206 -2.075
79 FP2 207 -4.517
79 FP2 208 -6.958
79 FP2 209 -8.423
79 FP2 210 -8.911
79 FP2 211 -8.423
79 FP2 212 -8.423
79 FP2 213 -8.423
79 FP2 214 -8.423
79 FP2 215 -6.958
79 FP2 216 -4.517
79 FP2 217 -2.075
79 FP2 218 0.366
79 FP2 219 1.831
79 FP2 220 2.319
79 FP2 221 2.319
79 FP2 222 1.831
79 FP2 223 1.831
79 FP2 224 0.854
79 FP2 225 -1.587
79 FP2 226 -5.005
79 FP2 227 -9.888
79 FP2 228 -14.771
79 FP2 229 -19.165
79 FP2 230 -22.095
79 FP2 231 -23.071
79 FP2 232 -22.095
79 FP2 233 -20.142
79 FP2 234 -17.700
79 FP2 235 -15.747
79 FP2 236 -14.282
79 FP2 237 -12.329
79 FP2 238 -10.376
79 FP2 239 -7.446
79 FP2 240 -3.052
79 FP2 241 1.343
79 FP2 242 5.737
79 FP2 243 9.644
79 FP2 244 12.573
79 FP2 245 14.038
79 FP2 246 14.038
79 FP2 247 12.573
79 FP2 248 10.620
79 FP2 249 7.690
79 FP2 250 4.761
79 FP2 251 1.831
79 FP2 252 -0.610
79 FP2 253 -1.587
79 FP2 254 -1.587
79 FP2 255 -0.610
# F7 chan 2
79 F7 0 2.635
79 F7 1 5.076
79 F7 2 8.006
79 F7 3 11.424
79 F7 4 14.353
79 F7 5 15.330
79 F7 6 14.842
79 F7 7 13.377
79 F7 8 11.424
79 F7 9 10.935
79 F7 10 9.959
79 F7 11 8.982
79 F7 12 7.029
79 F7 13 5.076
79 F7 14 4.100
79 F7 15 3.611
79 F7 16 3.611
79 F7 17 3.611
79 F7 18 3.611
79 F7 19 4.100
79 F7 20 5.564
79 F7 21 7.029
79 F7 22 8.006
79 F7 23 8.494
79 F7 24 8.982
79 F7 25 10.447
79 F7 26 12.889
79 F7 27 14.842
79 F7 28 15.330
79 F7 29 14.353
79 F7 30 12.400
79 F7 31 11.912
79 F7 32 12.400
79 F7 33 14.353
79 F7 34 15.818
79 F7 35 16.795
79 F7 36 17.283
79 F7 37 17.283
79 F7 38 17.283
79 F7 39 16.795
79 F7 40 15.818
79 F7 41 13.377
79 F7 42 10.447
79 F7 43 8.982
79 F7 44 7.517
79 F7 45 6.541
79 F7 46 6.053
79 F7 47 6.053
79 F7 48 7.517
79 F7 49 9.959
79 F7 50 12.889
79 F7 51 15.330
79 F7 52 16.795
79 F7 53 16.795
79 F7 54 16.307
79 F7 55 16.795
79 F7 56 17.283
79 F7 57 17.771
79 F7 58 17.771
79 F7 59 17.283
79 F7 60 15.330
79 F7 61 12.889
79 F7 62 9.471
79 F7 63 5.564
79 F7 64 2.146
79 F7 65 -0.295
79 F7 66 -2.248
79 F7 67 -3.713
79 F7 68 -5.178
79 F7 69 -7.131
79 F7 70 -8.596
79 F7 71 -10.061
79 F7 72 -10.549
79 F7 73 -11.525
79 F7 74 -12.990
79 F7 75 -15.432
79 F7 76 -17.873
79 F7 77 -18.850
79 F7 78 -17.873
79 F7 79 -14.943
79 F7 80 -11.525
79 F7 81 -8.596
79 F7 82 -7.131
79 F7 83 -6.643
79 F7 84 -7.619
79 F7 85 -7.131
79 F7 86 -6.643
79 F7 87 -5.666
79 F7 88 -5.666
79 F7 89 -6.154
79 F7 90 -6.643
79 F7 91 -6.154
79 F7 92 -5.178
79 F7 93 -4.201
79 F7 94 -3.225
79 F7 95 -3.713
79 F7 96 -5.178
79 F7 97 -6.154
79 F7 98 -6.643
79 F7 99 -5.666
79 F7 100 -3.225
79 F7 101 -0.783
79 F7 102 1.170
79 F7 103 2.635
79 F7 104 2.635
79 F7 105 1.658
79 F7 106 -0.295
79 F7 107 -2.248
79 F7 108 -2.736
79 F7 109 -1.760
79 F7 110 -0.295
79 F7 111 0.193
79 F7 112 0.193
79 F7 113 -1.272
79 F7 114 -1.272
79 F7 115 -0.295
79 F7 116 1.170
79 F7 117 2.146
79 F7 118 1.170
79 F7 119 -1.272
79 F7 120 -3.713
79 F7 121 -5.178
79 F7 122 -3.713
79 F7 123 -1.760
79 F7 124 1.170
79 F7 125 3.123
79 F7 126 4.588
79 F7 127 5.076
79 F7 128 5.564
79 F7 129 4.588
79 F7 130 3.123
79 F7 131 1.658
79 F7 132 1.170
79 F7 133 1.658
79 F7 134 2.635
79 F7 135 2.146
79 F7 136 0.682
79 F7 137 -2.248
79 F7 138 -4.201
79 F7 139 -4.690
79 F7 140 -2.736
79 F7 141 -0.295
79 F7 142 2.635
79 F7 143 5.564
79 F7 144 8.006
79 F7 145 9.471
79 F7 146 9.959
79 F7 147 8.494
79 F7 148 6.053
79 F7 149 2.635
79 F7 150 -1.760
79 F7 151 -5.666
79 F7 152 -9.572
79 F7 153 -12.014
79 F7 154 -12.990
79 F7 155 -12.502
79 F7 156 -11.525
79 F7 157 -10.549
79 F7 158 -9.572
79 F7 159 -9.084
79 F7 160 -8.596
79 F7 161 -7.619
79 F7 162 -6.643
79 F7 163 -4.690
79 F7 164 -2.736
79 F7 165 -0.783
79 F7 166 1.170
79 F7 167 4.100
79 F7 168 7.029
79 F7 169 10.447
79 F7 170 12.889
79 F7 171 13.865
79 F7 172 13.377
79 F7 173 11.912
79 F7 174 9.471
79 F7 175 7.029
79 F7 176 4.588
79 F7 177 0.682
79 F7 178 -2.736
79 F7 179 -5.666
79 F7 180 -6.643
79 F7 181 -5.666
79 F7 182 -4.201
79 F7 183 -3.225
79 F7 184 -4.690
79 F7 185 -6.643
79 F7 186 -8.596
79 F7 187 -8.596
79 F7 188 -5.666
79 F7 189 -1.272
79 F7 190 3.123
79 F7 191 5.076
79 F7 192 5.564
79 F7 193 5.564
79 F7 194 5.564
79 F7 195 6.541
79 F7 196 7.517
79 F7 197 8.494
79 F7 198 9.471
79 F7 199 8.494
79 F7 200 7.517
79 F7 201 5.564
79 F7 202 4.100
79 F7 203 3.611
79 F7 204 3.123
79 F7 205 2.146
79 F7 206 1.658
79 F7 207 0.682
79 F7 208 -0.783
79 F7 209 -0.783
79 F7 210 0.193
79 F7 211 1.170
79 F7 212 1.658
79 F7 213 1.170
79 F7 214 0.682
79 F7 215 0.682
79 F7 216 1.658
79 F7 217 3.123
79 F7 218 4.588
79 F7 219 5.076
79 F7 220 5.076
79 F7 221 6.053
79 F7 222 7.029
79 F7 223 8.494
79 F7 224 8.494
79 F7 225 7.029
79 F7 226 3.611
79 F7 227 0.193
79 F7 228 -3.225
79 F7 229 -5.666
79 F7 230 -8.108
79 F7 231 -10.061
79 F7 232 -12.014
79 F7 233 -12.502
79 F7 234 -12.014
79 F7 235 -9.572
79 F7 236 -6.643
79 F7 237 -3.225
79 F7 238 -0.295
79 F7 239 1.658
79 F7 240 4.100
79 F7 241 6.541
79 F7 242 9.471
79 F7 243 12.889
79 F7 244 16.795
79 F7 245 20.213
79 F7 246 21.678
79 F7 247 20.213
79 F7 248 16.795
79 F7 249 12.400
79 F7 250 8.006
79 F7 251 4.588
79 F7 252 2.635
79 F7 253 2.146
79 F7 254 2.635
79 F7 255 4.100
# F8 chan 3
79 F8 0 7.182
79 F8 1 9.135
79 F8 2 9.623
79 F8 3 9.623
79 F8 4 9.135
79 F8 5 8.158
79 F8 6 7.182
79 F8 7 7.182
79 F8 8 7.670
79 F8 9 9.623
79 F8 10 10.600
79 F8 11 11.088
79 F8 12 11.088
79 F8 13 11.088
79 F8 14 11.576
79 F8 15 12.065
79 F8 16 12.065
79 F8 17 11.576
79 F8 18 11.088
79 F8 19 11.576
79 F8 20 13.041
79 F8 21 14.018
79 F8 22 14.018
79 F8 23 12.553
79 F8 24 10.600
79 F8 25 9.623
79 F8 26 9.135
79 F8 27 9.135
79 F8 28 8.158
79 F8 29 6.205
79 F8 30 5.229
79 F8 31 4.740
79 F8 32 5.717
79 F8 33 7.182
79 F8 34 8.158
79 F8 35 8.647
79 F8 36 9.623
79 F8 37 11.088
79 F8 38 13.529
79 F8 39 15.483
79 F8 40 16.947
79 F8 41 16.947
79 F8 42 16.459
79 F8 43 14.994
79 F8 44 13.529
79 F8 45 13.041
79 F8 46 13.041
79 F8 47 14.018
79 F8 48 14.994
79 F8 49 15.483
79 F8 50 15.483
79 F8 51 14.994
79 F8 52 15.483
79 F8 53 16.459
79 F8 54 18.412
79 F8 55 18.901
79 F8 56 18.412
79 F8 57 16.947
79 F8 58 16.947
79 F8 59 18.412
79 F8 60 21.342
79 F8 61 22.807
79 F8 62 21.830
79 F8 63 17.924
79 F8 64 12.065
79 F8 65 6.205
79 F8 66 1.811
79 F8 67 -2.096
79 F8 68 -5.514
79 F8 69 -8.931
79 F8 70 -11.861
79 F8 71 -13.326
79 F8 72 -14.303
79 F8 73 -15.767
79 F8 74 -18.697
79 F8 75 -21.627
79 F8 76 -24.556
79 F8 77 -26.510
79 F8 78 -26.021
79 F8 79 -24.556
79 F8 80 -21.627
79 F8 81 -18.209
79 F8 82 -14.303
79 F8 83 -10.885
79 F8 84 -9.420
79 F8 85 -9.420
79 F8 86 -10.396
79 F8 87 -11.861
79 F8 88 -11.861
79 F8 89 -9.908
79 F8 90 -7.467
79 F8 91 -6.002
79 F8 92 -6.002
79 F8 93 -6.978
79 F8 94 -8.443
79 F8 95 -9.908
79 F8 96 -10.396
79 F8 97 -10.885
79 F8 98 -11.861
79 F8 99 -12.349
79 F8 100 -12.349
79 F8 101 -11.861
79 F8 102 -12.349
79 F8 103 -14.303
79 F8 104 -18.209
79 F8 105 -22.603
79 F8 106 -24.556
79 F8 107 -22.603
79 F8 108 -18.209
79 F8 109 -13.326
79 F8 110 -10.885
79 F8 111 -10.885
79 F8 112 -11.373
79 F8 113 -10.885
79 F8 114 -8.443
79 F8 115 -5.514
79 F8 116 -3.072
79 F8 117 -1.119
79 F8 118 -1.119
79 F8 119 -1.607
79 F8 120 -2.584
79 F8 121 -3.072
79 F8 122 -4.049
79 F8 123 -4.049
79 F8 124 -3.560
79 F8 125 -2.096
79 F8 126 0.346
79 F8 127 1.811
79 F8 128 2.299
79 F8 129 1.811
79 F8 130 1.322
79 F8 131 1.322
79 F8 132 0.834
79 F8 133 -0.142
79 F8 134 -1.119
79 F8 135 -2.584
79 F8 136 -3.072
79 F8 137 -2.584
79 F8 138 -2.096
79 F8 139 -1.607
79 F8 140 -2.584
79 F8 141 -4.049
79 F8 142 -5.514
79 F8 143 -4.537
79 F8 144 -2.584
79 F8 145 -0.631
79 F8 146 0.346
79 F8 147 -0.142
79 F8 148 -1.607
79 F8 149 -3.072
79 F8 150 -4.049
79 F8 151 -4.537
79 F8 152 -5.514
79 F8 153 -6.978
79 F8 154 -8.443
79 F8 155 -10.396
79 F8 156 -10.885
79 F8 157 -11.373
79 F8 158 -10.885
79 F8 159 -10.885
79 F8 160 -10.396
79 F8 161 -8.931
79 F8 162 -6.978
79 F8 163 -5.025
79 F8 164 -3.560
79 F8 165 -2.584
79 F8 166 -1.119
79 F8 167 0.834
79 F8 168 4.252
79 F8 169 8.158
79 F8 170 10.600
79 F8 171 12.065
79 F8 172 11.576
79 F8 173 10.600
79 F8 174 9.135
79 F8 175 7.670
79 F8 176 5.717
79 F8 177 3.276
79 F8 178 0.834
79 F8 179 -1.119
79 F8 180 -2.096
79 F8 181 -2.096
79 F8 182 -2.096
79 F8 183 -2.096
79 F8 184 -2.584
79 F8 185 -3.560
79 F8 186 -3.072
79 F8 187 -1.607
79 F8 188 1.811
79 F8 189 5.717
79 F8 190 9.135
79 F8 191 10.600
79 F8 192 10.111
79 F8 193 8.158
79 F8 194 7.182
79 F8 195 7.182
79 F8 196 8.158
79 F8 197 9.135
79 F8 198 9.623
79 F8 199 9.135
79 F8 200 9.135
79 F8 201 9.135
79 F8 202 9.623
79 F8 203 9.623
79 F8 204 8.158
79 F8 205 5.229
79 F8 206 1.811
79 F8 207 -0.631
79 F8 208 -2.096
79 F8 209 -2.584
79 F8 210 -2.096
79 F8 211 -1.119
79 F8 212 -1.607
79 F8 213 -1.607
79 F8 214 -1.119
79 F8 215 -0.142
79 F8 216 1.811
79 F8 217 3.764
79 F8 218 5.229
79 F8 219 6.694
79 F8 220 7.182
79 F8 221 8.647
79 F8 222 9.623
79 F8 223 10.600
79 F8 224 10.600
79 F8 225 8.158
79 F8 226 3.764
79 F8 227 -1.119
79 F8 228 -6.490
79 F8 229 -10.396
79 F8 230 -11.861
79 F8 231 -11.861
79 F8 232 -10.396
79 F8 233 -8.443
79 F8 234 -6.490
79 F8 235 -4.537
79 F8 236 -2.584
79 F8 237 -0.142
79 F8 238 1.811
79 F8 239 4.740
79 F8 240 7.670
79 F8 241 10.600
79 F8 242 14.018
79 F8 243 16.947
79 F8 244 18.901
79 F8 245 19.389
79 F8 246 18.412
79 F8 247 15.971
79 F8 248 13.529
79 F8 249 11.088
79 F8 250 8.647
79 F8 251 7.182
79 F8 252 5.229
79 F8 253 4.252
79 F8 254 4.252
79 F8 255 4.740
# AF1 chan 4
79 AF1 0 1.139
79 AF1 1 3.092
79 AF1 2 4.069
79 AF1 3 5.534
79 AF1 4 6.999
79 AF1 5 7.975
79 AF1 6 7.487
79 AF1 7 6.022
79 AF1 8 4.557
79 AF1 9 3.092
79 AF1 10 2.604
79 AF1 11 2.604
79 AF1 12 2.116
79 AF1 13 2.116
79 AF1 14 2.604
79 AF1 15 4.069
79 AF1 16 6.022
79 AF1 17 8.464
79 AF1 18 10.417
79 AF1 19 12.370
79 AF1 20 13.835
79 AF1 21 13.835
79 AF1 22 13.346
79 AF1 23 12.858
79 AF1 24 11.882
79 AF1 25 11.393
79 AF1 26 11.393
79 AF1 27 11.393
79 AF1 28 9.928
79 AF1 29 8.952
79 AF1 30 8.464
79 AF1 31 8.464
79 AF1 32 8.952
79 AF1 33 9.928
79 AF1 34 11.393
79 AF1 35 12.370
79 AF1 36 13.346
79 AF1 37 14.811
79 AF1 38 16.276
79 AF1 39 17.253
79 AF1 40 16.764
79 AF1 41 15.299
79 AF1 42 14.323
79 AF1 43 12.858
79 AF1 44 12.370
79 AF1 45 12.370
79 AF1 46 12.858
79 AF1 47 13.835
79 AF1 48 14.323
79 AF1 49 15.788
79 AF1 50 17.253
79 AF1 51 18.229
79 AF1 52 18.717
79 AF1 53 18.717
79 AF1 54 18.717
79 AF1 55 18.229
79 AF1 56 18.229
79 AF1 57 17.741
79 AF1 58 17.741
79 AF1 59 18.229
79 AF1 60 18.229
79 AF1 61 17.253
79 AF1 62 14.323
79 AF1 63 9.440
79 AF1 64 5.046
79 AF1 65 1.139
79 AF1 66 -1.302
79 AF1 67 -3.255
79 AF1 68 -4.720
79 AF1 69 -7.161
79 AF1 70 -9.603
79 AF1 71 -11.556
79 AF1 72 -12.533
79 AF1 73 -11.556
79 AF1 74 -11.068
79 AF1 75 -10.091
79 AF1 76 -10.091
79 AF1 77 -9.603
79 AF1 78 -8.138
79 AF1 79 -5.697
79 AF1 80 -3.255
79 AF1 81 -1.790
79 AF1 82 -0.814
79 AF1 83 -0.814
79 AF1 84 -0.814
79 AF1 85 -0.326
79 AF1 86 0.651
79 AF1 87 1.139
79 AF1 88 1.139
79 AF1 89 0.651
79 AF1 90 -0.814
79 AF1 91 -2.279
79 AF1 92 -3.255
79 AF1 93 -4.720
79 AF1 94 -5.697
79 AF1 95 -6.673
79 AF1 96 -8.138
79 AF1 97 -9.115
79 AF1 98 -9.603
79 AF1 99 -10.091
79 AF1 100 -9.603
79 AF1 101 -9.115
79 AF1 102 -9.115
79 AF1 103 -9.115
79 AF1 104 -10.091
79 AF1 105 -11.556
79 AF1 106 -13.021
79 AF1 107 -13.997
79 AF1 108 -13.021
79 AF1 109 -11.068
79 AF1 110 -8.626
79 AF1 111 -7.161
79 AF1 112 -6.185
79 AF1 113 -5.697
79 AF1 114 -4.232
79 AF1 115 -1.302
79 AF1 116 1.628
79 AF1 117 3.581
79 AF1 118 3.581
79 AF1 119 1.628
79 AF1 120 -1.302
79 AF1 121 -3.743
79 AF1 122 -5.208
79 AF1 123 -4.720
79 AF1 124 -3.255
79 AF1 125 -1.302
79 AF1 126 0.651
79 AF1 127 2.116
79 AF1 128 3.092
79 AF1 129 2.116
79 AF1 130 0.651
79 AF1 131 -1.302
79 AF1 132 -2.279
79 AF1 133 -2.767
79 AF1 134 -2.279
79 AF1 135 -2.767
79 AF1 136 -4.232
79 AF1 137 -6.673
79 AF1 138 -8.138
79 AF1 139 -7.650
79 AF1 140 -6.185
79 AF1 141 -3.743
79 AF1 142 -1.302
79 AF1 143 1.628
79 AF1 144 4.069
79 AF1 145 5.534
79 AF1 146 5.534
79 AF1 147 3.581
79 AF1 148 0.163
79 AF1 149 -3.743
79 AF1 150 -7.650
79 AF1 151 -10.091
79 AF1 152 -12.533
79 AF1 153 -13.997
79 AF1 154 -14.974
79 AF1 155 -16.439
79 AF1 156 -17.415
79 AF1 157 -17.904
79 AF1 158 -18.392
79 AF1 159 -18.392
79 AF1 160 -17.904
79 AF1 161 -16.927
79 AF1 162 -14.974
79 AF1 163 -13.509
79 AF1 164 -12.533
79 AF1 165 -11.556
79 AF1 166 -10.579
79 AF1 167 -8.626
79 AF1 168 -5.697
79 AF1 169 -1.790
79 AF1 170 1.628
79 AF1 171 4.069
79 AF1 172 4.557
79 AF1 173 3.092
79 AF1 174 1.628
79 AF1 175 -0.326
79 AF1 176 -2.279
79 AF1 177 -4.232
79 AF1 178 -6.185
79 AF1 179 -8.626
79 AF1 180 -9.603
79 AF1 181 -10.579
79 AF1 182 -11.068
79 AF1 183 -12.044
79 AF1 184 -13.997
79 AF1 185 -15.951
79 AF1 186 -16.927
79 AF1 187 -15.462
79 AF1 188 -11.556
79 AF1 189 -7.161
79 AF1 190 -3.743
79 AF1 191 -2.279
79 AF1 192 -2.767
79 AF1 193 -3.743
79 AF1 194 -3.743
79 AF1 195 -3.255
79 AF1 196 -1.790
79 AF1 197 -0.814
79 AF1 198 0.163
79 AF1 199 -0.326
79 AF1 200 -0.326
79 AF1 201 -0.326
79 AF1 202 -0.326
79 AF1 203 0.163
79 AF1 204 0.163
79 AF1 205 -0.326
79 AF1 206 -1.790
79 AF1 207 -3.743
79 AF1 208 -6.185
79 AF1 209 -7.650
79 AF1 210 -7.650
79 AF1 211 -7.161
79 AF1 212 -6.673
79 AF1 213 -6.673
79 AF1 214 -6.673
79 AF1 215 -6.185
79 AF1 216 -4.232
79 AF1 217 -1.302
79 AF1 218 1.139
79 AF1 219 2.604
79 AF1 220 2.604
79 AF1 221 2.116
79 AF1 222 1.628
79 AF1 223 2.116
79 AF1 224 2.116
79 AF1 225 1.139
79 AF1 226 -1.790
79 AF1 227 -6.185
79 AF1 228 -10.579
79 AF1 229 -14.974
79 AF1 230 -17.904
79 AF1 231 -19.368
79 AF1 232 -19.857
79 AF1 233 -18.880
79 AF1 234 -17.415
79 AF1 235 -14.974
79 AF1 236 -12.533
79 AF1 237 -10.579
79 AF1 238 -8.138
79 AF1 239 -5.697
79 AF1 240 -2.767
79 AF1 241 1.139
79 AF1 242 5.534
79 AF1 243 9.928
79 AF1 244 13.346
79 AF1 245 15.788
79 AF1 246 16.276
79 AF1 247 15.299
79 AF1 248 13.346
79 AF1 249 10.905
79 AF1 250 7.975
79 AF1 251 5.046
79 AF1 252 2.604
79 AF1 253 1.628
79 AF1 254 2.116
79 AF1 255 3.581
# AF2 chan 5
79 AF2 0 3.408
79 AF2 1 4.873
79 AF2 2 6.337
79 AF2 3 7.314
79 AF2 4 8.291
79 AF2 5 8.291
79 AF2 6 7.314
79 AF2 7 5.849
79 AF2 8 4.873
79 AF2 9 3.896
79 AF2 10 4.384
79 AF2 11 4.384
79 AF2 12 4.873
79 AF2 13 5.849
79 AF2 14 6.826
79 AF2 15 8.291
79 AF2 16 9.755
79 AF2 17 11.220
79 AF2 18 12.685
79 AF2 19 14.150
79 AF2 20 15.127
79 AF2 21 15.615
79 AF2 22 15.127
79 AF2 23 13.662
79 AF2 24 12.685
79 AF2 25 12.197
79 AF2 26 11.709
79 AF2 27 10.732
79 AF2 28 9.755
79 AF2 29 7.802
79 AF2 30 6.826
79 AF2 31 6.826
79 AF2 32 7.802
79 AF2 33 8.779
79 AF2 34 10.244
79 AF2 35 11.220
79 AF2 36 12.685
79 AF2 37 14.638
79 AF2 38 16.591
79 AF2 39 18.545
79 AF2 40 18.545
79 AF2 41 18.056
79 AF2 42 16.103
79 AF2 43 15.127
79 AF2 44 14.638
79 AF2 45 14.638
79 AF2 46 15.615
79 AF2 47 16.103
79 AF2 48 16.103
79 AF2 49 16.103
79 AF2 50 16.591
79 AF2 51 17.080
79 AF2 52 18.056
79 AF2 53 19.521
79 AF2 54 20.498
79 AF2 55 20.986
79 AF2 56 20.009
79 AF2 57 19.033
79 AF2 58 19.033
79 AF2 59 19.033
79 AF2 60 20.009
79 AF2 61 20.009
79 AF2 62 17.568
79 AF2 63 13.173
79 AF2 64 8.291
79 AF2 65 3.896
79 AF2 66 0.478
79 AF2 67 -1.963
79 AF2 68 -4.405
79 AF2 69 -6.358
79 AF2 70 -8.311
79 AF2 71 -9.776
79 AF2 72 -9.776
79 AF2 73 -8.311
79 AF2 74 -7.334
79 AF2 75 -7.334
79 AF2 76 -7.823
79 AF2 77 -8.799
79 AF2 78 -8.311
79 AF2 79 -6.846
79 AF2 80 -4.893
79 AF2 81 -2.940
79 AF2 82 -1.963
79 AF2 83 -0.987
79 AF2 84 -0.987
79 AF2 85 -0.498
79 AF2 86 0.478
79 AF2 87 0.478
79 AF2 88 0.478
79 AF2 89 -0.010
79 AF2 90 -0.498
79 AF2 91 -1.475
79 AF2 92 -2.940
79 AF2 93 -4.405
79 AF2 94 -6.358
79 AF2 95 -8.311
79 AF2 96 -9.288
79 AF2 97 -10.264
79 AF2 98 -11.241
79 AF2 99 -11.729
79 AF2 100 -12.705
79 AF2 101 -14.170
79 AF2 102 -15.147
79 AF2 103 -17.100
79 AF2 104 -19.053
79 AF2 105 -21.006
79 AF2 106 -21.983
79 AF2 107 -21.983
79 AF2 108 -20.030
79 AF2 109 -17.100
79 AF2 110 -15.147
79 AF2 111 -13.682
79 AF2 112 -12.705
79 AF2 113 -12.217
79 AF2 114 -10.264
79 AF2 115 -6.846
79 AF2 116 -3.428
79 AF2 117 -0.987
79 AF2 118 -0.498
79 AF2 119 -1.963
79 AF2 120 -4.405
79 AF2 121 -6.846
79 AF2 122 -8.311
79 AF2 123 -8.311
79 AF2 124 -7.334
79 AF2 125 -5.870
79 AF2 126 -3.916
79 AF2 127 -2.452
79 AF2 128 -1.475
79 AF2 129 -1.963
79 AF2 130 -2.940
79 AF2 131 -3.916
79 AF2 132 -4.405
79 AF2 133 -4.893
79 AF2 134 -5.381
79 AF2 135 -5.870
79 AF2 136 -6.846
79 AF2 137 -7.823
79 AF2 138 -8.311
79 AF2 139 -8.311
79 AF2 140 -7.823
79 AF2 141 -6.846
79 AF2 142 -4.893
79 AF2 143 -2.940
79 AF2 144 -0.498
79 AF2 145 1.455
79 AF2 146 1.455
79 AF2 147 -0.010
79 AF2 148 -2.940
79 AF2 149 -5.870
79 AF2 150 -8.311
79 AF2 151 -10.264
79 AF2 152 -11.729
79 AF2 153 -13.194
79 AF2 154 -15.147
79 AF2 155 -16.612
79 AF2 156 -17.588
79 AF2 157 -19.053
79 AF2 158 -19.541
79 AF2 159 -19.053
79 AF2 160 -18.077
79 AF2 161 -16.612
79 AF2 162 -14.659
79 AF2 163 -13.682
79 AF2 164 -13.194
79 AF2 165 -12.705
79 AF2 166 -12.217
79 AF2 167 -10.264
79 AF2 168 -6.846
79 AF2 169 -2.940
79 AF2 170 -0.010
79 AF2 171 1.943
79 AF2 172 1.943
79 AF2 173 1.455
79 AF2 174 -0.010
79 AF2 175 -1.475
79 AF2 176 -3.428
79 AF2 177 -4.893
79 AF2 178 -6.846
79 AF2 179 -8.311
79 AF2 180 -8.799
79 AF2 181 -9.288
79 AF2 182 -9.776
79 AF2 183 -10.752
79 AF2 184 -13.194
79 AF2 185 -15.147
79 AF2 186 -16.123
79 AF2 187 -15.147
79 AF2 188 -11.729
79 AF2 189 -7.334
79 AF2 190 -4.405
79 AF2 191 -2.452
79 AF2 192 -1.963
79 AF2 193 -2.452
79 AF2 194 -2.452
79 AF2 195 -1.963
79 AF2 196 -0.987
79 AF2 197 -0.498
79 AF2 198 0.478
79 AF2 199 0.966
79 AF2 200 2.431
79 AF2 201 3.408
79 AF2 202 4.873
79 AF2 203 5.849
79 AF2 204 5.361
79 AF2 205 3.408
79 AF2 206 1.455
79 AF2 207 -1.475
79 AF2 208 -3.916
79 AF2 209 -4.405
79 AF2 210 -4.893
79 AF2 211 -4.405
79 AF2 212 -4.405
79 AF2 213 -4.893
79 AF2 214 -5.381
79 AF2 215 -4.405
79 AF2 216 -2.452
79 AF2 217 0.478
79 AF2 218 2.431
79 AF2 219 3.408
79 AF2 220 3.896
79 AF2 221 3.408
79 AF2 222 3.408
79 AF2 223 3.896
79 AF2 224 3.408
79 AF2 225 1.455
79 AF2 226 -1.475
79 AF2 227 -5.870
79 AF2 228 -11.241
79 AF2 229 -15.147
79 AF2 230 -18.077
79 AF2 231 -19.053
79 AF2 232 -18.077
79 AF2 233 -16.123
79 AF2 234 -13.682
79 AF2 235 -11.729
79 AF2 236 -10.264
79 AF2 237 -8.799
79 AF2 238 -7.334
79 AF2 239 -4.405
79 AF2 240 -0.987
79 AF2 241 3.408
79 AF2 242 7.802
79 AF2 243 12.197
79 AF2 244 15.127
79 AF2 245 16.591
79 AF2 246 16.591
79 AF2 247 15.127
79 AF2 248 13.662
79 AF2 249 11.220
79 AF2 250 8.779
79 AF2 251 5.849
79 AF2 252 3.896
79 AF2 253 2.431
79 AF2 254 1.943
79 AF2 255 2.920
# FZ chan 6
79 FZ 0 2.024
79 FZ 1 3.489
79 FZ 2 4.954
79 FZ 3 5.931
79 FZ 4 7.395
79 FZ 5 8.860
79 FZ 6 8.860
79 FZ 7 7.884
79 FZ 8 6.419
79 FZ 9 4.466
79 FZ 10 3.001
79 FZ 11 3.001
79 FZ 12 3.489
79 FZ 13 4.466
79 FZ 14 6.419
79 FZ 15 8.860
79 FZ 16 10.813
79 FZ 17 12.278
79 FZ 18 14.231
79 FZ 19 15.696
79 FZ 20 16.673
79 FZ 21 16.673
79 FZ 22 16.184
79 FZ 23 15.696
79 FZ 24 15.208
79 FZ 25 15.208
79 FZ 26 14.720
79 FZ 27 13.255
79 FZ 28 11.302
79 FZ 29 9.837
79 FZ 30 9.349
79 FZ 31 9.349
79 FZ 32 10.325
79 FZ 33 10.813
79 FZ 34 10.813
79 FZ 35 10.325
79 FZ 36 10.813
79 FZ 37 11.790
79 FZ 38 13.743
79 FZ 39 14.720
79 FZ 40 15.208
79 FZ 41 14.231
79 FZ 42 13.255
79 FZ 43 12.278
79 FZ 44 11.790
79 FZ 45 11.790
79 FZ 46 12.278
79 FZ 47 12.767
79 FZ 48 12.767
79 FZ 49 12.278
79 FZ 50 11.790
79 FZ 51 11.790
79 FZ 52 12.278
79 FZ 53 13.255
79 FZ 54 13.743
79 FZ 55 13.743
79 FZ 56 12.767
79 FZ 57 11.790
79 FZ 58 10.325
79 FZ 59 9.837
79 FZ 60 9.349
79 FZ 61 9.349
79 FZ 62 7.395
79 FZ 63 3.977
79 FZ 64 0.071
79 FZ 65 -2.858
79 FZ 66 -4.323
79 FZ 67 -4.812
79 FZ 68 -5.300
79 FZ 69 -5.788
79 FZ 70 -6.765
79 FZ 71 -6.765
79 FZ 72 -5.300
79 FZ 73 -2.858
79 FZ 74 0.071
79 FZ 75 2.024
79 FZ 76 3.001
79 FZ 77 3.489
79 FZ 78 3.977
79 FZ 79 5.442
79 FZ 80 6.907
79 FZ 81 7.884
79 FZ 82 7.884
79 FZ 83 7.395
79 FZ 84 7.395
79 FZ 85 7.884
79 FZ 86 8.860
79 FZ 87 9.349
79 FZ 88 9.349
79 FZ 89 7.884
79 FZ 90 5.931
79 FZ 91 3.977
79 FZ 92 2.024
79 FZ 93 0.071
79 FZ 94 -1.882
79 FZ 95 -3.835
79 FZ 96 -5.788
79 FZ 97 -7.741
79 FZ 98 -9.206
79 FZ 99 -10.183
79 FZ 100 -11.648
79 FZ 101 -13.112
79 FZ 102 -15.066
79 FZ 103 -17.507
79 FZ 104 -18.972
79 FZ 105 -20.437
79 FZ 106 -20.437
79 FZ 107 -19.948
79 FZ 108 -18.483
79 FZ 109 -17.019
79 FZ 110 -16.042
79 FZ 111 -14.577
79 FZ 112 -13.601
79 FZ 113 -11.648
79 FZ 114 -9.694
79 FZ 115 -6.765
79 FZ 116 -4.812
79 FZ 117 -3.347
79 FZ 118 -3.347
79 FZ 119 -4.812
79 FZ 120 -6.765
79 FZ 121 -8.718
79 FZ 122 -9.206
79 FZ 123 -9.694
79 FZ 124 -8.718
79 FZ 125 -7.253
79 FZ 126 -5.300
79 FZ 127 -3.835
79 FZ 128 -2.370
79 FZ 129 -1.394
79 FZ 130 -1.394
79 FZ 131 -1.882
79 FZ 132 -2.370
79 FZ 133 -2.370
79 FZ 134 -2.858
79 FZ 135 -3.347
79 FZ 136 -4.323
79 FZ 137 -4.812
79 FZ 138 -5.300
79 FZ 139 -4.812
79 FZ 140 -3.347
79 FZ 141 -1.394
79 FZ 142 1.048
79 FZ 143 3.489
79 FZ 144 4.954
79 FZ 145 5.931
79 FZ 146 4.954
79 FZ 147 3.001
79 FZ 148 0.071
79 FZ 149 -2.858
79 FZ 150 -4.812
79 FZ 151 -6.765
79 FZ 152 -8.230
79 FZ 153 -10.183
79 FZ 154 -11.648
79 FZ 155 -12.624
79 FZ 156 -13.112
79 FZ 157 -13.601
79 FZ 158 -14.089
79 FZ 159 -14.577
79 FZ 160 -13.601
79 FZ 161 -11.648
79 FZ 162 -9.694
79 FZ 163 -7.741
79 FZ 164 -6.765
79 FZ 165 -6.765
79 FZ 166 -6.765
79 FZ 167 -5.300
79 FZ 168 -2.370
79 FZ 169 0.559
79 FZ 170 3.489
79 FZ 171 4.466
79 FZ 172 4.466
79 FZ 173 3.977
79 FZ 174 3.001
79 FZ 175 2.024
79 FZ 176 0.071
79 FZ 177 -2.370
79 FZ 178 -4.323
79 FZ 179 -5.788
79 FZ 180 -6.276
79 FZ 181 -6.276
79 FZ 182 -6.276
79 FZ 183 -7.741
79 FZ 184 -9.694
79 FZ 185 -11.159
79 FZ 186 -11.648
79 FZ 187 -10.671
79 FZ 188 -8.230
79 FZ 189 -6.276
79 FZ 190 -3.835
79 FZ 191 -2.858
79 FZ 192 -2.370
79 FZ 193 -1.882
79 FZ 194 -1.882
79 FZ 195 -1.394
79 FZ 196 -1.394
79 FZ 197 -0.417
79 FZ 198 0.071
79 FZ 199 1.048
79 FZ 200 2.024
79 FZ 201 2.513
79 FZ 202 3.489
79 FZ 203 4.466
79 FZ 204 4.466
79 FZ 205 3.489
79 FZ 206 1.536
79 FZ 207 -0.905
79 FZ 208 -2.858
79 FZ 209 -3.835
79 FZ 210 -3.347
79 FZ 211 -2.370
79 FZ 212 -2.370
79 FZ 213 -2.370
79 FZ 214 -2.858
79 FZ 215 -2.370
79 FZ 216 -0.417
79 FZ 217 2.024
79 FZ 218 4.466
79 FZ 219 5.931
79 FZ 220 6.419
79 FZ 221 6.419
79 FZ 222 6.907
79 FZ 223 7.395
79 FZ 224 7.884
79 FZ 225 6.907
79 FZ 226 4.466
79 FZ 227 1.536
79 FZ 228 -2.370
79 FZ 229 -5.788
79 FZ 230 -8.230
79 FZ 231 -9.206
79 FZ 232 -8.718
79 FZ 233 -7.253
79 FZ 234 -5.788
79 FZ 235 -4.812
79 FZ 236 -4.323
79 FZ 237 -4.323
79 FZ 238 -3.347
79 FZ 239 -1.882
79 FZ 240 1.048
79 FZ 241 4.466
79 FZ 242 8.372
79 FZ 243 11.790
79 FZ 244 14.231
79 FZ 245 15.208
79 FZ 246 15.208
79 FZ 247 13.743
79 FZ 248 12.278
79 FZ 249 10.325
79 FZ 250 8.372
79 FZ 251 6.907
79 FZ 252 5.931
79 FZ 253 5.442
79 FZ 254 5.442
79 FZ 255 6.419
# F4 chan 7
79 F4 0 4.323
79 F4 1 5.300
79 F4 2 5.788
79 F4 3 6.276
79 F4 4 6.276
79 F4 5 6.276
79 F4 6 5.300
79 F4 7 4.323
79 F4 8 3.347
79 F4 9 3.347
79 F4 10 3.347
79 F4 11 3.835
79 F4 12 4.812
79 F4 13 5.788
79 F4 14 6.765
79 F4 15 8.230
79 F4 16 9.206
79 F4 17 9.694
79 F4 18 9.694
79 F4 19 10.671
79 F4 20 11.159
79 F4 21 11.648
79 F4 22 11.159
79 F4 23 9.694
79 F4 24 8.718
79 F4 25 7.253
79 F4 26 6.276
79 F4 27 5.300
79 F4 28 3.835
79 F4 29 2.370
79 F4 30 1.394
79 F4 31 1.882
79 F4 32 3.347
79 F4 33 5.300
79 F4 34 6.276
79 F4 35 6.765
79 F4 36 7.741
79 F4 37 9.206
79 F4 38 11.159
79 F4 39 13.601
79 F4 40 14.577
79 F4 41 14.089
79 F4 42 13.112
79 F4 43 11.648
79 F4 44 11.159
79 F4 45 11.648
79 F4 46 12.136
79 F4 47 12.624
79 F4 48 12.136
79 F4 49 11.159
79 F4 50 10.671
79 F4 51 10.671
79 F4 52 12.136
79 F4 53 13.601
79 F4 54 15.554
79 F4 55 16.042
79 F4 56 15.066
79 F4 57 13.601
79 F4 58 13.112
79 F4 59 14.089
79 F4 60 15.554
79 F4 61 16.042
79 F4 62 15.066
79 F4 63 12.136
79 F4 64 8.230
79 F4 65 4.323
79 F4 66 1.394
79 F4 67 -0.559
79 F4 68 -2.513
79 F4 69 -4.466
79 F4 70 -6.419
79 F4 71 -6.907
79 F4 72 -6.907
79 F4 73 -5.931
79 F4 74 -4.954
79 F4 75 -4.954
79 F4 76 -5.931
79 F4 77 -6.907
79 F4 78 -7.395
79 F4 79 -6.419
79 F4 80 -4.954
79 F4 81 -2.513
79 F4 82 -1.536
79 F4 83 -0.559
79 F4 84 -0.071
79 F4 85 0.905
79 F4 86 1.394
79 F4 87 1.882
79 F4 88 1.882
79 F4 89 1.394
79 F4 90 0.905
79 F4 91 -0.071
79 F4 92 -1.048
79 F4 93 -3.001
79 F4 94 -4.466
79 F4 95 -6.419
79 F4 96 -7.395
79 F4 97 -8.372
79 F4 98 -9.349
79 F4 99 -9.837
79 F4 100 -11.302
79 F4 101 -13.255
79 F4 102 -15.696
79 F4 103 -18.138
79 F4 104 -21.067
79 F4 105 -23.020
79 F4 106 -23.509
79 F4 107 -22.044
79 F4 108 -19.602
79 F4 109 -17.161
79 F4 110 -15.208
79 F4 111 -14.231
79 F4 112 -13.743
79 F4 113 -13.255
79 F4 114 -10.813
79 F4 115 -7.884
79 F4 116 -4.954
79 F4 117 -3.001
79 F4 118 -2.024
79 F4 119 -3.489
79 F4 120 -4.954
79 F4 121 -6.907
79 F4 122 -8.372
79 F4 123 -8.372
79 F4 124 -7.884
79 F4 125 -6.419
79 F4 126 -4.466
79 F4 127 -2.513
79 F4 128 -1.536
79 F4 129 -1.048
79 F4 130 -1.536
79 F4 131 -2.513
79 F4 132 -3.001
79 F4 133 -3.001
79 F4 134 -3.001
79 F4 135 -3.001
79 F4 136 -3.489
79 F4 137 -3.977
79 F4 138 -3.977
79 F4 139 -3.489
79 F4 140 -3.489
79 F4 141 -3.001
79 F4 142 -2.513
79 F4 143 -1.536
79 F4 144 -0.071
79 F4 145 1.394
79 F4 146 1.882
79 F4 147 0.905
79 F4 148 -1.536
79 F4 149 -3.489
79 F4 150 -5.442
79 F4 151 -6.907
79 F4 152 -7.395
79 F4 153 -8.372
79 F4 154 -9.837
79 F4 155 -11.302
79 F4 156 -12.278
79 F4 157 -13.255
79 F4 158 -13.255
79 F4 159 -13.255
79 F4 160 -13.255
79 F4 161 -11.790
79 F4 162 -10.325
79 F4 163 -9.349
79 F4 164 -8.860
79 F4 165 -8.860
79 F4 166 -8.372
79 F4 167 -6.907
79 F4 168 -4.466
79 F4 169 -1.048
79 F4 170 1.394
79 F4 171 2.858
79 F4 172 2.858
79 F4 173 2.370
79 F4 174 0.905
79 F4 175 -0.559
79 F4 176 -2.024
79 F4 177 -3.489
79 F4 178 -4.466
79 F4 179 -5.931
79 F4 180 -6.419
79 F4 181 -6.419
79 F4 182 -6.907
79 F4 183 -7.884
79 F4 184 -9.349
79 F4 185 -11.302
79 F4 186 -11.302
79 F4 187 -10.325
79 F4 188 -7.884
79 F4 189 -4.954
79 F4 190 -3.001
79 F4 191 -2.024
79 F4 192 -2.024
79 F4 193 -1.536
79 F4 194 -1.048
79 F4 195 -0.071
79 F4 196 0.417
79 F4 197 0.905
79 F4 198 1.394
79 F4 199 1.882
79 F4 200 2.370
79 F4 201 2.858
79 F4 202 3.347
79 F4 203 2.858
79 F4 204 1.882
79 F4 205 0.417
79 F4 206 -2.024
79 F4 207 -4.466
79 F4 208 -5.931
79 F4 209 -5.931
79 F4 210 -5.931
79 F4 211 -5.442
79 F4 212 -5.931
79 F4 213 -6.419
79 F4 214 -6.907
79 F4 215 -6.419
79 F4 216 -4.466
79 F4 217 -2.024
79 F4 218 -0.071
79 F4 219 0.905
79 F4 220 1.394
79 F4 221 1.882
79 F4 222 2.370
79 F4 223 3.347
79 F4 224 2.858
79 F4 225 1.394
79 F4 226 -1.048
79 F4 227 -4.954
79 F4 228 -8.860
79 F4 229 -11.790
79 F4 230 -13.743
79 F4 231 -14.720
79 F4 232 -13.743
79 F4 233 -12.278
79 F4 234 -9.837
79 F4 235 -7.884
79 F4 236 -6.419
79 F4 237 -5.442
79 F4 238 -3.977
79 F4 239 -2.024
79 F4 240 0.417
79 F4 241 3.347
79 F4 242 6.765
79 F4 243 10.183
79 F4 244 12.136
79 F4 245 13.112
79 F4 246 13.112
79 F4 247 11.648
79 F4 248 10.183
79 F4 249 7.741
79 F4 250 5.300
79 F4 251 2.858
79 F4 252 0.905
79 F4 253 -0.071
79 F4 254 -0.071
79 F4 255 0.417
# F3 chan 8
79 F3 0 2.604
79 F3 1 4.557
79 F3 2 5.534
79 F3 3 6.999
79 F3 4 7.975
79 F3 5 8.952
79 F3 6 8.952
79 F3 7 8.464
79 F3 8 6.999
79 F3 9 5.534
79 F3 10 4.069
79 F3 11 3.092
79 F3 12 2.604
79 F3 13 2.604
79 F3 14 3.581
79 F3 15 5.046
79 F3 16 6.510
79 F3 17 7.487
79 F3 18 8.952
79 F3 19 9.440
79 F3 20 10.417
79 F3 21 10.417
79 F3 22 10.417
79 F3 23 10.905
79 F3 24 10.905
79 F3 25 11.393
79 F3 26 11.393
79 F3 27 10.905
79 F3 28 9.928
79 F3 29 9.440
79 F3 30 8.952
79 F3 31 9.440
79 F3 32 10.417
79 F3 33 10.905
79 F3 34 10.905
79 F3 35 11.393
79 F3 36 12.370
79 F3 37 12.858
79 F3 38 13.346
79 F3 39 13.346
79 F3 40 12.370
79 F3 41 10.905
79 F3 42 9.928
79 F3 43 9.440
79 F3 44 8.952
79 F3 45 8.952
79 F3 46 8.464
79 F3 47 7.975
79 F3 48 8.464
79 F3 49 9.928
79 F3 50 11.393
79 F3 51 12.858
79 F3 52 13.346
79 F3 53 13.346
79 F3 54 12.858
79 F3 55 12.858
79 F3 56 12.858
79 F3 57 12.858
79 F3 58 12.370
79 F3 59 11.393
79 F3 60 10.417
79 F3 61 8.464
79 F3 62 6.510
79 F3 63 3.581
79 F3 64 1.139
79 F3 65 -0.814
79 F3 66 -2.279
79 F3 67 -3.255
79 F3 68 -3.743
79 F3 69 -4.232
79 F3 70 -5.208
79 F3 71 -5.208
79 F3 72 -5.208
79 F3 73 -4.232
79 F3 74 -3.255
79 F3 75 -2.279
79 F3 76 -1.302
79 F3 77 0.163
79 F3 78 2.116
79 F3 79 3.581
79 F3 80 5.534
79 F3 81 6.510
79 F3 82 7.487
79 F3 83 7.487
79 F3 84 7.487
79 F3 85 7.975
79 F3 86 8.464
79 F3 87 8.952
79 F3 88 8.464
79 F3 89 7.487
79 F3 90 6.022
79 F3 91 4.557
79 F3 92 3.581
79 F3 93 3.092
79 F3 94 2.116
79 F3 95 0.651
79 F3 96 -1.302
79 F3 97 -2.767
79 F3 98 -4.232
79 F3 99 -4.720
79 F3 100 -4.720
79 F3 101 -4.232
79 F3 102 -3.743
79 F3 103 -4.232
79 F3 104 -4.720
79 F3 105 -5.208
79 F3 106 -5.208
79 F3 107 -5.208
79 F3 108 -4.232
79 F3 109 -3.255
79 F3 110 -2.279
79 F3 111 -1.790
79 F3 112 -1.790
79 F3 113 -1.790
79 F3 114 -0.814
79 F3 115 0.651
79 F3 116 2.604
79 F3 117 4.069
79 F3 118 4.069
79 F3 119 2.604
79 F3 120 0.163
79 F3 121 -1.302
79 F3 122 -2.279
79 F3 123 -1.302
79 F3 124 0.163
79 F3 125 2.116
79 F3 126 3.581
79 F3 127 5.046
79 F3 128 6.022
79 F3 129 6.022
79 F3 130 5.046
79 F3 131 3.581
79 F3 132 2.604
79 F3 133 2.604
79 F3 134 3.092
79 F3 135 3.092
79 F3 136 1.628
79 F3 137 0.163
79 F3 138 -0.814
79 F3 139 -0.814
79 F3 140 0.651
79 F3 141 3.092
79 F3 142 5.534
79 F3 143 7.975
79 F3 144 9.440
79 F3 145 10.417
79 F3 146 9.928
79 F3 147 8.464
79 F3 148 6.510
79 F3 149 3.581
79 F3 150 0.651
79 F3 151 -1.790
79 F3 152 -4.232
79 F3 153 -5.697
79 F3 154 -7.161
79 F3 155 -7.650
79 F3 156 -8.138
79 F3 157 -8.626
79 F3 158 -8.626
79 F3 159 -8.626
79 F3 160 -7.650
79 F3 161 -6.673
79 F3 162 -5.208
79 F3 163 -3.743
79 F3 164 -3.255
79 F3 165 -2.767
79 F3 166 -1.790
79 F3 167 0.163
79 F3 168 3.092
79 F3 169 6.022
79 F3 170 8.464
79 F3 171 8.952
79 F3 172 8.952
79 F3 173 7.487
79 F3 174 6.022
79 F3 175 4.557
79 F3 176 3.092
79 F3 177 0.651
79 F3 178 -1.302
79 F3 179 -3.255
79 F3 180 -3.743
79 F3 181 -3.743
79 F3 182 -3.255
79 F3 183 -3.255
79 F3 184 -4.720
79 F3 185 -6.185
79 F3 186 -6.673
79 F3 187 -5.208
79 F3 188 -2.767
79 F3 189 0.163
79 F3 190 2.604
79 F3 191 3.581
79 F3 192 3.581
79 F3 193 3.581
79 F3 194 3.581
79 F3 195 3.581
79 F3 196 4.069
79 F3 197 4.557
79 F3 198 4.557
79 F3 199 4.557
79 F3 200 4.069
79 F3 201 3.581
79 F3 202 3.581
79 F3 203 3.092
79 F3 204 3.581
79 F3 205 3.092
79 F3 206 2.116
79 F3 207 0.163
79 F3 208 -1.302
79 F3 209 -2.767
79 F3 210 -2.279
79 F3 211 -1.790
79 F3 212 -1.302
79 F3 213 -1.790
79 F3 214 -2.279
79 F3 215 -2.279
79 F3 216 -1.302
79 F3 217 0.651
79 F3 218 3.092
79 F3 219 4.557
79 F3 220 5.046
79 F3 221 5.046
79 F3 222 5.046
79 F3 223 5.534
79 F3 224 5.534
79 F3 225 5.046
79 F3 226 3.092
79 F3 227 0.163
79 F3 228 -2.767
79 F3 229 -6.185
79 F3 230 -8.626
79 F3 231 -9.603
79 F3 232 -10.091
79 F3 233 -9.115
79 F3 234 -8.626
79 F3 235 -7.161
79 F3 236 -5.208
79 F3 237 -3.743
79 F3 238 -2.279
79 F3 239 -0.326
79 F3 240 1.628
79 F3 241 4.557
79 F3 242 6.999
79 F3 243 9.928
79 F3 244 13.346
79 F3 245 15.299
79 F3 246 16.764
79 F3 247 16.276
79 F3 248 14.811
79 F3 249 12.370
79 F3 250 9.928
79 F3 251 7.487
79 F3 252 6.022
79 F3 253 5.046
79 F3 254 5.046
79 F3 255 6.510
# FC6 chan 9
79 FC6 0 5.697
79 FC6 1 7.161
79 FC6 2 7.161
79 FC6 3 6.673
79 FC6 4 5.697
79 FC6 5 4.720
79 FC6 6 4.232
79 FC6 7 4.232
79 FC6 8 5.208
79 FC6 9 6.185
79 FC6 10 6.673
79 FC6 11 7.161
79 FC6 12 6.673
79 FC6 13 7.161
79 FC6 14 7.650
79 FC6 15 8.626
79 FC6 16 8.626
79 FC6 17 8.138
79 FC6 18 7.161
79 FC6 19 6.673
79 FC6 20 7.161
79 FC6 21 7.650
79 FC6 22 8.138
79 FC6 23 7.650
79 FC6 24 6.185
79 FC6 25 4.720
79 FC6 26 3.743
79 FC6 27 3.255
79 FC6 28 2.767
79 FC6 29 1.790
79 FC6 30 1.302
79 FC6 31 1.790
79 FC6 32 2.767
79 FC6 33 4.232
79 FC6 34 5.208
79 FC6 35 6.673
79 FC6 36 7.650
79 FC6 37 9.115
79 FC6 38 10.091
79 FC6 39 11.556
79 FC6 40 12.044
79 FC6 41 12.044
79 FC6 42 10.579
79 FC6 43 8.626
79 FC6 44 6.673
79 FC6 45 6.185
79 FC6 46 6.185
79 FC6 47 7.161
79 FC6 48 7.650
79 FC6 49 7.650
79 FC6 50 7.161
79 FC6 51 7.161
79 FC6 52 8.138
79 FC6 53 10.091
79 FC6 54 11.556
79 FC6 55 12.044
79 FC6 56 11.068
79 FC6 57 10.091
79 FC6 58 11.068
79 FC6 59 13.021
79 FC6 60 15.951
79 FC6 61 17.415
79 FC6 62 16.439
79 FC6 63 13.997
79 FC6 64 10.579
79 FC6 65 7.161
79 FC6 66 4.232
79 FC6 67 1.302
79 FC6 68 -2.116
79 FC6 69 -5.046
79 FC6 70 -6.999
79 FC6 71 -7.975
79 FC6 72 -7.975
79 FC6 73 -7.975
79 FC6 74 -8.952
79 FC6 75 -11.393
79 FC6 76 -14.323
79 FC6 77 -15.788
79 FC6 78 -16.276
79 FC6 79 -15.299
79 FC6 80 -13.346
79 FC6 81 -11.393
79 FC6 82 -9.440
79 FC6 83 -7.975
79 FC6 84 -6.022
79 FC6 85 -4.557
79 FC6 86 -3.581
79 FC6 87 -3.092
79 FC6 88 -3.092
79 FC6 89 -2.116
79 FC6 90 -1.139
79 FC6 91 -1.139
79 FC6 92 -1.628
79 FC6 93 -3.581
79 FC6 94 -5.046
79 FC6 95 -5.534
79 FC6 96 -6.022
79 FC6 97 -5.534
79 FC6 98 -5.046
79 FC6 99 -5.046
79 FC6 100 -5.534
79 FC6 101 -6.510
79 FC6 102 -7.975
79 FC6 103 -10.417
79 FC6 104 -13.346
79 FC6 105 -15.788
79 FC6 106 -16.764
79 FC6 107 -16.276
79 FC6 108 -14.323
79 FC6 109 -12.370
79 FC6 110 -10.905
79 FC6 111 -10.905
79 FC6 112 -11.393
79 FC6 113 -10.417
79 FC6 114 -8.464
79 FC6 115 -5.534
79 FC6 116 -2.604
79 FC6 117 -1.139
79 FC6 118 -0.651
79 FC6 119 -1.628
79 FC6 120 -2.604
79 FC6 121 -4.069
79 FC6 122 -5.534
79 FC6 123 -6.022
79 FC6 124 -6.022
79 FC6 125 -4.557
79 FC6 126 -2.604
79 FC6 127 -1.139
79 FC6 128 -0.163
79 FC6 129 -0.163
79 FC6 130 -1.139
79 FC6 131 -1.139
79 FC6 132 -0.651
79 FC6 133 0.326
79 FC6 134 0.814
79 FC6 135 0.814
79 FC6 136 0.326
79 FC6 137 -0.163
79 FC6 138 0.326
79 FC6 139 0.814
79 FC6 140 0.326
79 FC6 141 -0.651
79 FC6 142 -1.628
79 FC6 143 -1.628
79 FC6 144 -0.163
79 FC6 145 1.790
79 FC6 146 3.743
79 FC6 147 3.743
79 FC6 148 3.255
79 FC6 149 1.302
79 FC6 150 0.814
79 FC6 151 0.814
79 FC6 152 0.326
79 FC6 153 -0.651
79 FC6 154 -1.628
79 FC6 155 -3.092
79 FC6 156 -3.581
79 FC6 157 -4.069
79 FC6 158 -4.069
79 FC6 159 -4.557
79 FC6 160 -5.534
79 FC6 161 -6.022
79 FC6 162 -5.046
79 FC6 163 -4.069
79 FC6 164 -2.604
79 FC6 165 -2.116
79 FC6 166 -2.116
79 FC6 167 -1.139
79 FC6 168 0.326
79 FC6 169 3.743
79 FC6 170 6.673
79 FC6 171 8.626
79 FC6 172 8.626
79 FC6 173 8.138
79 FC6 174 6.673
79 FC6 175 5.697
79 FC6 176 4.720
79 FC6 177 3.743
79 FC6 178 2.279
79 FC6 179 1.302
79 FC6 180 0.326
79 FC6 181 -0.651
79 FC6 182 -1.139
79 FC6 183 -1.628
79 FC6 184 -2.116
79 FC6 185 -2.604
79 FC6 186 -1.628
79 FC6 187 0.326
79 FC6 188 2.279
79 FC6 189 4.720
79 FC6 190 5.697
79 FC6 191 6.185
79 FC6 192 5.697
79 FC6 193 5.208
79 FC6 194 5.697
79 FC6 195 6.673
79 FC6 196 7.650
79 FC6 197 8.138
79 FC6 198 8.138
79 FC6 199 7.650
79 FC6 200 6.673
79 FC6 201 6.185
79 FC6 202 5.208
79 FC6 203 3.743
79 FC6 204 1.790
79 FC6 205 -0.651
79 FC6 206 -3.092
79 FC6 207 -5.046
79 FC6 208 -5.534
79 FC6 209 -5.046
79 FC6 210 -4.069
79 FC6 211 -3.581
79 FC6 212 -3.581
79 FC6 213 -4.557
79 FC6 214 -4.557
79 FC6 215 -3.581
79 FC6 216 -1.628
79 FC6 217 0.326
79 FC6 218 2.279
79 FC6 219 2.767
79 FC6 220 3.255
79 FC6 221 3.743
79 FC6 222 4.232
79 FC6 223 4.720
79 FC6 224 4.232
79 FC6 225 2.279
79 FC6 226 -0.651
79 FC6 227 -4.069
79 FC6 228 -6.999
79 FC6 229 -8.952
79 FC6 230 -10.417
79 FC6 231 -10.417
79 FC6 232 -9.928
79 FC6 233 -8.952
79 FC6 234 -7.487
79 FC6 235 -5.046
79 FC6 236 -2.604
79 FC6 237 0.326
79 FC6 238 2.767
79 FC6 239 4.232
79 FC6 240 5.697
79 FC6 241 7.650
79 FC6 242 9.603
79 FC6 243 11.556
79 FC6 244 13.509
79 FC6 245 13.997
79 FC6 246 13.509
79 FC6 247 10.579
79 FC6 248 7.650
79 FC6 249 4.720
79 FC6 250 2.279
79 FC6 251 0.326
79 FC6 252 -1.139
79 FC6 253 -2.604
79 FC6 254 -3.581
79 FC6 255 -3.092
# FC5 chan 10
79 FC5 0 1.434
79 FC5 1 3.387
79 FC5 2 5.829
79 FC5 3 7.294
79 FC5 4 8.759
79 FC5 5 9.735
79 FC5 6 9.247
79 FC5 7 8.759
79 FC5 8 7.294
79 FC5 9 6.317
79 FC5 10 4.852
79 FC5 11 3.387
79 FC5 12 1.434
79 FC5 13 -0.031
79 FC5 14 -0.519
79 FC5 15 -1.007
79 FC5 16 -0.031
79 FC5 17 0.458
79 FC5 18 0.458
79 FC5 19 0.458
79 FC5 20 0.458
79 FC5 21 0.946
79 FC5 22 1.923
79 FC5 23 3.387
79 FC5 24 5.341
79 FC5 25 7.294
79 FC5 26 8.759
79 FC5 27 9.735
79 FC5 28 9.735
79 FC5 29 9.735
79 FC5 30 9.735
79 FC5 31 10.223
79 FC5 32 10.712
79 FC5 33 11.200
79 FC5 34 11.688
79 FC5 35 12.177
79 FC5 36 12.177
79 FC5 37 12.177
79 FC5 38 11.200
79 FC5 39 9.735
79 FC5 40 7.782
79 FC5 41 5.341
79 FC5 42 3.876
79 FC5 43 2.899
79 FC5 44 2.411
79 FC5 45 1.434
79 FC5 46 0.458
79 FC5 47 0.458
79 FC5 48 1.923
79 FC5 49 4.364
79 FC5 50 7.294
79 FC5 51 9.735
79 FC5 52 10.712
79 FC5 53 10.712
79 FC5 54 11.200
79 FC5 55 11.688
79 FC5 56 13.153
79 FC5 57 13.641
79 FC5 58 13.641
79 FC5 59 12.177
79 FC5 60 10.223
79 FC5 61 7.782
79 FC5 62 5.829
79 FC5 63 4.364
79 FC5 64 2.411
79 FC5 65 0.458
79 FC5 66 -1.007
79 FC5 67 -2.472
79 FC5 68 -3.448
79 FC5 69 -3.937
79 FC5 70 -3.937
79 FC5 71 -4.425
79 FC5 72 -4.425
79 FC5 73 -4.913
79 FC5 74 -5.402
79 FC5 75 -5.890
79 FC5 76 -5.402
79 FC5 77 -4.425
79 FC5 78 -2.960
79 FC5 79 -1.007
79 FC5 80 0.946
79 FC5 81 2.411
79 FC5 82 2.899
79 FC5 83 2.899
79 FC5 84 2.899
79 FC5 85 2.899
79 FC5 86 2.899
79 FC5 87 2.899
79 FC5 88 2.411
79 FC5 89 2.411
79 FC5 90 1.434
79 FC5 91 1.434
79 FC5 92 1.434
79 FC5 93 0.946
79 FC5 94 -0.031
79 FC5 95 -1.495
79 FC5 96 -2.472
79 FC5 97 -3.448
79 FC5 98 -2.960
79 FC5 99 -1.984
79 FC5 100 -0.519
79 FC5 101 0.946
79 FC5 102 2.411
79 FC5 103 3.876
79 FC5 104 5.829
79 FC5 105 6.805
79 FC5 106 7.294
79 FC5 107 7.294
79 FC5 108 6.805
79 FC5 109 6.805
79 FC5 110 6.805
79 FC5 111 6.317
79 FC5 112 4.852
79 FC5 113 3.387
79 FC5 114 1.434
79 FC5 115 0.946
79 FC5 116 1.923
79 FC5 117 3.387
79 FC5 118 3.876
79 FC5 119 3.387
79 FC5 120 1.434
79 FC5 121 0.458
79 FC5 122 0.946
79 FC5 123 2.899
79 FC5 124 5.341
79 FC5 125 7.294
79 FC5 126 8.270
79 FC5 127 8.759
79 FC5 128 8.759
79 FC5 129 8.270
79 FC5 130 7.782
79 FC5 131 6.805
79 FC5 132 6.317
79 FC5 133 5.829
79 FC5 134 5.829
79 FC5 135 5.829
79 FC5 136 4.852
79 FC5 137 3.876
79 FC5 138 2.899
79 FC5 139 3.387
79 FC5 140 4.852
79 FC5 141 7.294
79 FC5 142 9.247
79 FC5 143 11.200
79 FC5 144 12.177
79 FC5 145 12.177
79 FC5 146 11.688
79 FC5 147 11.200
79 FC5 148 9.735
79 FC5 149 8.759
79 FC5 150 6.317
79 FC5 151 3.876
79 FC5 152 1.434
79 FC5 153 -0.519
79 FC5 154 -1.984
79 FC5 155 -2.472
79 FC5 156 -1.984
79 FC5 157 -1.495
79 FC5 158 -1.495
79 FC5 159 -1.495
79 FC5 160 -1.007
79 FC5 161 -0.519
79 FC5 162 0.946
79 FC5 163 2.411
79 FC5 164 3.387
79 FC5 165 4.852
79 FC5 166 6.805
79 FC5 167 8.759
79 FC5 168 11.200
79 FC5 169 13.641
79 FC5 170 14.618
79 FC5 171 14.130
79 FC5 172 13.153
79 FC5 173 11.688
79 FC5 174 9.735
79 FC5 175 7.782
79 FC5 176 5.341
79 FC5 177 2.411
79 FC5 178 -0.519
79 FC5 179 -2.472
79 FC5 180 -3.448
79 FC5 181 -2.472
79 FC5 182 -1.984
79 FC5 183 -1.007
79 FC5 184 -1.007
79 FC5 185 -1.495
79 FC5 186 -1.984
79 FC5 187 -1.007
79 FC5 188 1.434
79 FC5 189 4.852
79 FC5 190 7.294
79 FC5 191 9.247
79 FC5 192 9.735
79 FC5 193 9.735
79 FC5 194 9.247
79 FC5 195 8.759
79 FC5 196 8.270
79 FC5 197 7.782
79 FC5 198 6.805
79 FC5 199 5.829
79 FC5 200 4.852
79 FC5 201 3.876
79 FC5 202 2.899
79 FC5 203 1.923
79 FC5 204 1.434
79 FC5 205 1.434
79 FC5 206 1.434
79 FC5 207 1.434
79 FC5 208 0.946
79 FC5 209 0.458
79 FC5 210 0.946
79 FC5 211 0.946
79 FC5 212 0.946
79 FC5 213 -0.031
79 FC5 214 -1.007
79 FC5 215 -1.984
79 FC5 216 -1.984
79 FC5 217 -1.007
79 FC5 218 -0.031
79 FC5 219 0.458
79 FC5 220 0.458
79 FC5 221 0.946
79 FC5 222 1.434
79 FC5 223 2.411
79 FC5 224 2.899
79 FC5 225 2.411
79 FC5 226 0.946
79 FC5 227 -1.007
79 FC5 228 -3.448
79 FC5 229 -5.402
79 FC5 230 -7.355
79 FC5 231 -8.820
79 FC5 232 -9.796
79 FC5 233 -9.796
79 FC5 234 -9.308
79 FC5 235 -7.355
79 FC5 236 -5.402
79 FC5 237 -3.937
79 FC5 238 -1.984
79 FC5 239 -0.031
79 FC5 240 1.923
79 FC5 241 4.852
79 FC5 242 7.294
79 FC5 243 9.735
79 FC5 244 12.177
79 FC5 245 14.130
79 FC5 246 15.594
79 FC5 247 15.594
79 FC5 248 14.130
79 FC5 249 12.177
79 FC5 250 8.759
79 FC5 251 5.829
79 FC5 252 3.387
79 FC5 253 1.434
79 FC5 254 0.946
79 FC5 255 1.923
# FC2 chan 11
79 FC2 0 2.014
79 FC2 1 2.014
79 FC2 2 2.014
79 FC2 3 2.502
79 FC2 4 2.502
79 FC2 5 2.991
79 FC2 6 2.991
79 FC2 7 2.502
79 FC2 8 2.014
79 FC2 9 1.526
79 FC2 10 1.038
79 FC2 11 1.038
79 FC2 12 1.038
79 FC2 13 2.014
79 FC2 14 2.991
79 FC2 15 4.456
79 FC2 16 5.432
79 FC2 17 5.920
79 FC2 18 6.409
79 FC2 19 6.409
79 FC2 20 6.409
79 FC2 21 6.897
79 FC2 22 6.409
79 FC2 23 5.920
79 FC2 24 5.432
79 FC2 25 4.456
79 FC2 26 3.479
79 FC2 27 2.502
79 FC2 28 1.038
79 FC2 29 0.549
79 FC2 30 0.061
79 FC2 31 0.549
79 FC2 32 1.526
79 FC2 33 2.502
79 FC2 34 2.991
79 FC2 35 2.991
79 FC2 36 3.479
79 FC2 37 3.967
79 FC2 38 4.944
79 FC2 39 6.409
79 FC2 40 6.897
79 FC2 41 6.897
79 FC2 42 6.409
79 FC2 43 5.432
79 FC2 44 4.944
79 FC2 45 4.944
79 FC2 46 4.944
79 FC2 47 4.944
79 FC2 48 4.456
79 FC2 49 2.991
79 FC2 50 2.014
79 FC2 51 1.526
79 FC2 52 2.014
79 FC2 53 2.991
79 FC2 54 4.456
79 FC2 55 4.944
79 FC2 56 4.456
79 FC2 57 3.479
79 FC2 58 2.991
79 FC2 59 3.479
79 FC2 60 4.456
79 FC2 61 4.456
79 FC2 62 3.479
79 FC2 63 1.526
79 FC2 64 -0.427
79 FC2 65 -2.380
79 FC2 66 -3.357
79 FC2 67 -3.357
79 FC2 68 -4.333
79 FC2 69 -4.822
79 FC2 70 -5.798
79 FC2 71 -5.798
79 FC2 72 -5.310
79 FC2 73 -4.333
79 FC2 74 -3.845
79 FC2 75 -3.357
79 FC2 76 -3.357
79 FC2 77 -3.845
79 FC2 78 -3.357
79 FC2 79 -3.357
79 FC2 80 -2.869
79 FC2 81 -2.380
79 FC2 82 -1.892
79 FC2 83 -1.892
79 FC2 84 -1.404
79 FC2 85 -0.916
79 FC2 86 0.061
79 FC2 87 0.061
79 FC2 88 0.061
79 FC2 89 -0.916
79 FC2 90 -1.892
79 FC2 91 -2.869
79 FC2 92 -3.845
79 FC2 93 -4.822
79 FC2 94 -5.798
79 FC2 95 -6.775
79 FC2 96 -7.751
79 FC2 97 -8.728
79 FC2 98 -10.193
79 FC2 99 -10.681
79 FC2 100 -12.146
79 FC2 101 -13.123
79 FC2 102 -15.076
79 FC2 103 -17.517
79 FC2 104 -19.958
79 FC2 105 -20.935
79 FC2 106 -20.935
79 FC2 107 -19.958
79 FC2 108 -18.494
79 FC2 109 -17.517
79 FC2 110 -16.052
79 FC2 111 -15.564
79 FC2 112 -15.076
79 FC2 113 -13.611
79 FC2 114 -11.169
79 FC2 115 -8.728
79 FC2 116 -7.263
79 FC2 117 -6.287
79 FC2 118 -6.287
79 FC2 119 -6.775
79 FC2 120 -7.751
79 FC2 121 -8.240
79 FC2 122 -8.728
79 FC2 123 -9.216
79 FC2 124 -9.216
79 FC2 125 -8.728
79 FC2 126 -7.751
79 FC2 127 -6.287
79 FC2 128 -4.822
79 FC2 129 -3.357
79 FC2 130 -3.357
79 FC2 131 -2.869
79 FC2 132 -2.869
79 FC2 133 -2.380
79 FC2 134 -2.380
79 FC2 135 -2.380
79 FC2 136 -2.869
79 FC2 137 -3.357
79 FC2 138 -3.357
79 FC2 139 -2.869
79 FC2 140 -2.869
79 FC2 141 -2.380
79 FC2 142 -2.380
79 FC2 143 -1.404
79 FC2 144 -0.427
79 FC2 145 0.061
79 FC2 146 0.549
79 FC2 147 -0.427
79 FC2 148 -1.892
79 FC2 149 -3.357
79 FC2 150 -4.333
79 FC2 151 -4.822
79 FC2 152 -5.310
79 FC2 153 -6.287
79 FC2 154 -6.775
79 FC2 155 -7.263
79 FC2 156 -7.751
79 FC2 157 -8.240
79 FC2 158 -9.216
79 FC2 159 -10.193
79 FC2 160 -10.193
79 FC2 161 -9.705
79 FC2 162 -8.728
79 FC2 163 -7.263
79 FC2 164 -6.775
79 FC2 165 -6.775
79 FC2 166 -6.775
79 FC2 167 -6.775
79 FC2 168 -5.310
79 FC2 169 -3.357
79 FC2 170 -1.404
79 FC2 171 0.061
79 FC2 172 0.061
79 FC2 173 -0.916
79 FC2 174 -1.404
79 FC2 175 -2.380
79 FC2 176 -2.869
79 FC2 177 -3.357
79 FC2 178 -4.333
79 FC2 179 -4.822
79 FC2 180 -4.822
79 FC2 181 -5.310
79 FC2 182 -6.287
79 FC2 183 -7.263
79 FC2 184 -8.728
79 FC2 185 -10.193
79 FC2 186 -10.193
79 FC2 187 -9.705
79 FC2 188 -8.240
79 FC2 189 -7.263
79 FC2 190 -6.775
79 FC2 191 -6.775
79 FC2 192 -6.775
79 FC2 193 -5.798
79 FC2 194 -5.310
79 FC2 195 -4.333
79 FC2 196 -3.357
79 FC2 197 -3.357
79 FC2 198 -3.357
79 FC2 199 -2.869
79 FC2 200 -2.869
79 FC2 201 -2.380
79 FC2 202 -2.380
79 FC2 203 -2.380
79 FC2 204 -3.357
79 FC2 205 -4.333
79 FC2 206 -5.798
79 FC2 207 -7.751
79 FC2 208 -8.240
79 FC2 209 -8.728
79 FC2 210 -8.728
79 FC2 211 -8.240
79 FC2 212 -8.240
79 FC2 213 -8.728
79 FC2 214 -8.728
79 FC2 215 -8.240
79 FC2 216 -7.751
79 FC2 217 -6.287
79 FC2 218 -4.822
79 FC2 219 -3.357
79 FC2 220 -2.869
79 FC2 221 -1.892
79 FC2 222 -1.404
79 FC2 223 -1.404
79 FC2 224 -1.404
79 FC2 225 -2.380
79 FC2 226 -3.845
79 FC2 227 -5.310
79 FC2 228 -7.263
79 FC2 229 -8.728
79 FC2 230 -10.193
79 FC2 231 -10.193
79 FC2 232 -10.193
79 FC2 233 -8.728
79 FC2 234 -7.751
79 FC2 235 -6.775
79 FC2 236 -5.798
79 FC2 237 -5.798
79 FC2 238 -5.310
79 FC2 239 -4.333
79 FC2 240 -2.869
79 FC2 241 -1.404
79 FC2 242 1.038
79 FC2 243 2.991
79 FC2 244 4.456
79 FC2 245 5.432
79 FC2 246 5.432
79 FC2 247 4.456
79 FC2 248 3.479
79 FC2 249 1.526
79 FC2 250 0.061
79 FC2 251 -1.404
79 FC2 252 -1.892
79 FC2 253 -1.892
79 FC2 254 -1.892
79 FC2 255 -1.892
# FC1 chan 12
79 FC1 0 1.882
79 FC1 1 2.858
79 FC1 2 3.835
79 FC1 3 4.812
79 FC1 4 5.300
79 FC1 5 5.300
79 FC1 6 5.788
79 FC1 7 5.300
79 FC1 8 4.812
79 FC1 9 3.835
79 FC1 10 2.370
79 FC1 11 1.394
79 FC1 12 0.905
79 FC1 13 1.394
79 FC1 14 1.882
79 FC1 15 2.370
79 FC1 16 3.347
79 FC1 17 3.835
79 FC1 18 4.812
79 FC1 19 4.812
79 FC1 20 4.812
79 FC1 21 5.300
79 FC1 22 5.300
79 FC1 23 6.276
79 FC1 24 7.253
79 FC1 25 7.741
79 FC1 26 7.741
79 FC1 27 7.741
79 FC1 28 6.765
79 FC1 29 6.765
79 FC1 30 7.253
79 FC1 31 7.253
79 FC1 32 7.741
79 FC1 33 7.253
79 FC1 34 7.253
79 FC1 35 7.253
79 FC1 36 7.741
79 FC1 37 8.230
79 FC1 38 8.230
79 FC1 39 7.741
79 FC1 40 6.765
79 FC1 41 5.788
79 FC1 42 5.300
79 FC1 43 5.300
79 FC1 44 5.300
79 FC1 45 5.300
79 FC1 46 5.300
79 FC1 47 5.788
79 FC1 48 6.276
79 FC1 49 6.765
79 FC1 50 7.741
79 FC1 51 7.253
79 FC1 52 7.253
79 FC1 53 7.253
79 FC1 54 7.741
79 FC1 55 8.718
79 FC1 56 9.206
79 FC1 57 9.206
79 FC1 58 8.230
79 FC1 59 6.765
79 FC1 60 5.300
79 FC1 61 3.835
79 FC1 62 2.370
79 FC1 63 1.394
79 FC1 64 -0.071
79 FC1 65 -1.536
79 FC1 66 -2.024
79 FC1 67 -2.513
79 FC1 68 -2.513
79 FC1 69 -2.024
79 FC1 70 -2.024
79 FC1 71 -1.536
79 FC1 72 -1.048
79 FC1 73 -0.559
79 FC1 74 0.417
79 FC1 75 1.394
79 FC1 76 2.858
79 FC1 77 4.323
79 FC1 78 5.300
79 FC1 79 6.765
79 FC1 80 7.253
79 FC1 81 7.741
79 FC1 82 7.741
79 FC1 83 7.741
79 FC1 84 7.253
79 FC1 85 7.741
79 FC1 86 7.253
79 FC1 87 7.253
79 FC1 88 6.765
79 FC1 89 5.788
79 FC1 90 4.812
79 FC1 91 3.835
79 FC1 92 2.858
79 FC1 93 2.370
79 FC1 94 1.882
79 FC1 95 0.905
79 FC1 96 -0.559
79 FC1 97 -2.024
79 FC1 98 -3.489
79 FC1 99 -3.489
79 FC1 100 -3.489
79 FC1 101 -3.489
79 FC1 102 -3.489
79 FC1 103 -3.977
79 FC1 104 -4.466
79 FC1 105 -3.977
79 FC1 106 -3.489
79 FC1 107 -3.001
79 FC1 108 -2.024
79 FC1 109 -1.536
79 FC1 110 -1.536
79 FC1 111 -1.536
79 FC1 112 -1.536
79 FC1 113 -1.048
79 FC1 114 -1.048
79 FC1 115 -0.071
79 FC1 116 0.417
79 FC1 117 0.417
79 FC1 118 0.417
79 FC1 119 -0.559
79 FC1 120 -1.048
79 FC1 121 -1.536
79 FC1 122 -1.536
79 FC1 123 -0.559
79 FC1 124 0.417
79 FC1 125 1.394
79 FC1 126 2.858
79 FC1 127 4.323
79 FC1 128 5.788
79 FC1 129 6.276
79 FC1 130 6.276
79 FC1 131 5.788
79 FC1 132 5.300
79 FC1 133 4.812
79 FC1 134 4.323
79 FC1 135 3.835
79 FC1 136 3.347
79 FC1 137 2.858
79 FC1 138 2.858
79 FC1 139 3.347
79 FC1 140 4.323
79 FC1 141 5.788
79 FC1 142 6.765
79 FC1 143 8.230
79 FC1 144 8.718
79 FC1 145 8.718
79 FC1 146 8.230
79 FC1 147 7.741
79 FC1 148 6.276
79 FC1 149 5.300
79 FC1 150 3.347
79 FC1 151 1.882
79 FC1 152 0.417
79 FC1 153 -1.048
79 FC1 154 -1.536
79 FC1 155 -2.513
79 FC1 156 -2.024
79 FC1 157 -2.513
79 FC1 158 -2.513
79 FC1 159 -2.024
79 FC1 160 -1.536
79 FC1 161 -0.559
79 FC1 162 0.417
79 FC1 163 0.905
79 FC1 164 1.394
79 FC1 165 1.882
79 FC1 166 2.858
79 FC1 167 4.323
79 FC1 168 6.276
79 FC1 169 8.230
79 FC1 170 8.718
79 FC1 171 8.718
79 FC1 172 7.741
79 FC1 173 7.253
79 FC1 174 6.276
79 FC1 175 5.300
79 FC1 176 3.835
79 FC1 177 1.882
79 FC1 178 0.417
79 FC1 179 -0.559
79 FC1 180 -0.559
79 FC1 181 0.417
79 FC1 182 0.905
79 FC1 183 0.905
79 FC1 184 -0.071
79 FC1 185 -1.048
79 FC1 186 -1.048
79 FC1 187 -0.559
79 FC1 188 0.905
79 FC1 189 2.370
79 FC1 190 3.347
79 FC1 191 4.323
79 FC1 192 4.323
79 FC1 193 4.323
79 FC1 194 4.323
79 FC1 195 4.323
79 FC1 196 4.323
79 FC1 197 4.323
79 FC1 198 3.835
79 FC1 199 3.835
79 FC1 200 3.835
79 FC1 201 3.835
79 FC1 202 3.835
79 FC1 203 4.323
79 FC1 204 4.812
79 FC1 205 5.300
79 FC1 206 4.812
79 FC1 207 3.835
79 FC1 208 2.370
79 FC1 209 1.394
79 FC1 210 0.905
79 FC1 211 0.905
79 FC1 212 1.394
79 FC1 213 1.394
79 FC1 214 0.905
79 FC1 215 0.417
79 FC1 216 0.417
79 FC1 217 1.394
79 FC1 218 2.370
79 FC1 219 3.347
79 FC1 220 4.812
79 FC1 221 5.300
79 FC1 222 5.788
79 FC1 223 6.276
79 FC1 224 6.765
79 FC1 225 6.765
79 FC1 226 6.276
79 FC1 227 4.812
79 FC1 228 2.370
79 FC1 229 -0.559
79 FC1 230 -2.024
79 FC1 231 -3.001
79 FC1 232 -3.001
79 FC1 233 -2.513
79 FC1 234 -1.536
79 FC1 235 -1.536
79 FC1 236 -1.048
79 FC1 237 -1.048
79 FC1 238 -0.071
79 FC1 239 1.394
79 FC1 240 3.347
79 FC1 241 5.788
79 FC1 242 7.253
79 FC1 243 9.206
79 FC1 244 10.671
79 FC1 245 12.136
79 FC1 246 13.112
79 FC1 247 13.112
79 FC1 248 12.624
79 FC1 249 11.159
79 FC1 250 9.694
79 FC1 251 7.741
79 FC1 252 6.765
79 FC1 253 6.765
79 FC1 254 6.765
79 FC1 255 7.253
# T8 chan 13
79 T8 0 4.028
79 T8 1 5.493
79 T8 2 5.005
79 T8 3 4.517
79 T8 4 4.028
79 T8 5 5.005
79 T8 6 5.981
79 T8 7 7.446
79 T8 8 7.935
79 T8 9 8.911
79 T8 10 9.399
79 T8 11 9.399
79 T8 12 8.423
79 T8 13 7.446
79 T8 14 5.005
79 T8 15 3.052
79 T8 16 1.587
79 T8 17 1.099
79 T8 18 1.587
79 T8 19 2.563
79 T8 20 4.028
79 T8 21 4.517
79 T8 22 4.517
79 T8 23 4.517
79 T8 24 4.517
79 T8 25 4.517
79 T8 26 4.517
79 T8 27 3.052
79 T8 28 1.099
79 T8 29 0.122
79 T8 30 -0.366
79 T8 31 1.099
79 T8 32 3.052
79 T8 33 4.517
79 T8 34 4.517
79 T8 35 4.517
79 T8 36 4.517
79 T8 37 5.981
79 T8 38 7.935
79 T8 39 8.911
79 T8 40 7.935
79 T8 41 5.981
79 T8 42 2.563
79 T8 43 0.610
79 T8 44 0.122
79 T8 45 0.610
79 T8 46 2.075
79 T8 47 2.563
79 T8 48 3.052
79 T8 49 2.563
79 T8 50 2.075
79 T8 51 2.563
79 T8 52 4.517
79 T8 53 6.958
79 T8 54 8.911
79 T8 55 9.888
79 T8 56 9.888
79 T8 57 9.888
79 T8 58 9.888
79 T8 59 11.353
79 T8 60 13.306
79 T8 61 14.282
79 T8 62 13.794
79 T8 63 11.353
79 T8 64 8.423
79 T8 65 5.493
79 T8 66 2.563
79 T8 67 -1.343
79 T8 68 -6.226
79 T8 69 -11.108
79 T8 70 -15.015
79 T8 71 -16.479
79 T8 72 -16.968
79 T8 73 -16.968
79 T8 74 -18.921
79 T8 75 -22.827
79 T8 76 -27.222
79 T8 77 -29.663
79 T8 78 -28.687
79 T8 79 -25.757
79 T8 80 -22.339
79 T8 81 -19.409
79 T8 82 -17.456
79 T8 83 -16.479
79 T8 84 -15.503
79 T8 85 -14.038
79 T8 86 -12.573
79 T8 87 -10.620
79 T8 88 -9.644
79 T8 89 -8.667
79 T8 90 -7.690
79 T8 91 -6.714
79 T8 92 -5.737
79 T8 93 -5.737
79 T8 94 -5.737
79 T8 95 -6.714
79 T8 96 -6.714
79 T8 97 -6.714
79 T8 98 -6.226
79 T8 99 -4.272
79 T8 100 -3.296
79 T8 101 -2.808
79 T8 102 -3.784
79 T8 103 -6.714
79 T8 104 -10.132
79 T8 105 -13.062
79 T8 106 -14.038
79 T8 107 -12.573
79 T8 108 -10.620
79 T8 109 -8.179
79 T8 110 -6.714
79 T8 111 -6.714
79 T8 112 -7.690
79 T8 113 -7.202
79 T8 114 -5.737
79 T8 115 -2.808
79 T8 116 0.122
79 T8 117 2.563
79 T8 118 3.540
79 T8 119 2.563
79 T8 120 2.075
79 T8 121 1.099
79 T8 122 0.610
79 T8 123 -0.366
79 T8 124 -1.343
79 T8 125 -1.831
79 T8 126 -1.831
79 T8 127 -1.343
79 T8 128 -0.366
79 T8 129 -0.366
79 T8 130 -1.343
79 T8 131 -3.296
79 T8 132 -4.272
79 T8 133 -4.272
79 T8 134 -3.296
79 T8 135 -1.831
79 T8 136 -0.854
79 T8 137 0.122
79 T8 138 0.122
79 T8 139 0.610
79 T8 140 -0.366
79 T8 141 -2.319
79 T8 142 -3.784
79 T8 143 -4.272
79 T8 144 -3.296
79 T8 145 0.122
79 T8 146 3.540
79 T8 147 5.981
79 T8 148 7.446
79 T8 149 7.446
79 T8 150 6.470
79 T8 151 5.005
79 T8 152 3.540
79 T8 153 2.563
79 T8 154 1.587
79 T8 155 1.587
79 T8 156 2.075
79 T8 157 1.587
79 T8 158 0.610
79 T8 159 -1.831
79 T8 160 -4.272
79 T8 161 -5.249
79 T8 162 -3.784
79 T8 163 -0.854
79 T8 164 3.052
79 T8 165 5.493
79 T8 166 5.981
79 T8 167 5.981
79 T8 168 6.470
79 T8 169 8.423
79 T8 170 11.353
79 T8 171 13.794
79 T8 172 14.771
79 T8 173 13.794
79 T8 174 10.864
79 T8 175 8.423
79 T8 176 6.470
79 T8 177 5.493
79 T8 178 4.028
79 T8 179 2.563
79 T8 180 0.122
79 T8 181 -1.343
79 T8 182 -1.831
79 T8 183 -1.343
79 T8 184 -0.366
79 T8 185 0.610
79 T8 186 1.587
79 T8 187 3.052
79 T8 188 4.517
79 T8 189 6.958
79 T8 190 9.399
79 T8 191 11.353
79 T8 192 11.841
79 T8 193 11.353
79 T8 194 9.888
79 T8 195 8.911
79 T8 196 8.911
79 T8 197 8.423
79 T8 198 8.423
79 T8 199 7.446
79 T8 200 5.981
79 T8 201 3.540
79 T8 202 1.099
79 T8 203 -1.343
79 T8 204 -2.808
79 T8 205 -4.272
79 T8 206 -5.249
79 T8 207 -5.737
79 T8 208 -5.249
79 T8 209 -4.272
79 T8 210 -3.296
79 T8 211 -2.319
79 T8 212 -2.808
79 T8 213 -2.808
79 T8 214 -2.808
79 T8 215 -1.343
79 T8 216 1.099
79 T8 217 3.540
79 T8 218 5.005
79 T8 219 4.517
79 T8 220 4.028
79 T8 221 4.517
79 T8 222 5.005
79 T8 223 5.981
79 T8 224 5.005
79 T8 225 1.587
79 T8 226 -2.808
79 T8 227 -7.690
79 T8 228 -10.620
79 T8 229 -12.085
79 T8 230 -12.085
79 T8 231 -11.108
79 T8 232 -10.132
79 T8 233 -8.179
79 T8 234 -5.737
79 T8 235 -2.319
79 T8 236 1.099
79 T8 237 5.005
79 T8 238 7.935
79 T8 239 9.399
79 T8 240 10.376
79 T8 241 11.353
79 T8 242 12.329
79 T8 243 13.794
79 T8 244 14.771
79 T8 245 14.282
79 T8 246 11.353
79 T8 247 6.958
79 T8 248 2.563
79 T8 249 -1.343
79 T8 250 -2.808
79 T8 251 -3.784
79 T8 252 -4.272
79 T8 253 -5.737
79 T8 254 -7.202
79 T8 255 -8.179
# T7 chan 14
79 T7 0 -0.763
79 T7 1 2.167
79 T7 2 5.585
79 T7 3 9.491
79 T7 4 13.397
79 T7 5 15.350
79 T7 6 15.839
79 T7 7 14.374
79 T7 8 13.397
79 T7 9 12.421
79 T7 10 12.421
79 T7 11 10.468
79 T7 12 6.561
79 T7 13 1.678
79 T7 14 -2.228
79 T7 15 -4.181
79 T7 16 -4.669
79 T7 17 -4.669
79 T7 18 -5.157
79 T7 19 -6.134
79 T7 20 -6.622
79 T7 21 -5.646
79 T7 22 -3.204
79 T7 23 -0.275
79 T7 24 2.655
79 T7 25 4.608
79 T7 26 6.561
79 T7 27 8.026
79 T7 28 9.003
79 T7 29 9.491
79 T7 30 9.979
79 T7 31 10.468
79 T7 32 10.956
79 T7 33 10.956
79 T7 34 10.956
79 T7 35 10.468
79 T7 36 10.468
79 T7 37 9.491
79 T7 38 8.026
79 T7 39 5.096
79 T7 40 1.678
79 T7 41 -1.740
79 T7 42 -4.669
79 T7 43 -6.622
79 T7 44 -8.087
79 T7 45 -9.552
79 T7 46 -9.552
79 T7 47 -8.575
79 T7 48 -6.622
79 T7 49 -3.204
79 T7 50 0.214
79 T7 51 3.143
79 T7 52 5.096
79 T7 53 7.050
79 T7 54 9.491
79 T7 55 11.932
79 T7 56 13.397
79 T7 57 14.374
79 T7 58 13.885
79 T7 59 13.397
79 T7 60 13.397
79 T7 61 12.421
79 T7 62 10.956
79 T7 63 7.538
79 T7 64 3.632
79 T7 65 -0.275
79 T7 66 -2.716
79 T7 67 -4.181
79 T7 68 -5.646
79 T7 69 -6.622
79 T7 70 -9.064
79 T7 71 -11.505
79 T7 72 -13.947
79 T7 73 -15.411
79 T7 74 -16.388
79 T7 75 -16.876
79 T7 76 -16.388
79 T7 77 -15.411
79 T7 78 -14.435
79 T7 79 -13.458
79 T7 80 -12.482
79 T7 81 -11.505
79 T7 82 -10.529
79 T7 83 -10.040
79 T7 84 -10.040
79 T7 85 -9.552
79 T7 86 -9.064
79 T7 87 -8.087
79 T7 88 -6.622
79 T7 89 -5.646
79 T7 90 -5.157
79 T7 91 -5.157
79 T7 92 -6.134
79 T7 93 -7.599
79 T7 94 -10.040
79 T7 95 -11.505
79 T7 96 -11.017
79 T7 97 -9.552
79 T7 98 -6.622
79 T7 99 -3.693
79 T7 100 -1.740
79 T7 101 -0.275
79 T7 102 2.167
79 T7 103 5.585
79 T7 104 9.491
79 T7 105 12.421
79 T7 106 13.397
79 T7 107 11.444
79 T7 108 9.003
79 T7 109 7.050
79 T7 110 6.561
79 T7 111 5.585
79 T7 112 3.632
79 T7 113 0.214
79 T7 114 -2.716
79 T7 115 -3.693
79 T7 116 -1.740
79 T7 117 1.190
79 T7 118 3.632
79 T7 119 3.632
79 T7 120 1.678
79 T7 121 0.702
79 T7 122 1.678
79 T7 123 4.120
79 T7 124 7.050
79 T7 125 7.538
79 T7 126 6.073
79 T7 127 4.608
79 T7 128 3.632
79 T7 129 3.632
79 T7 130 4.120
79 T7 131 3.632
79 T7 132 2.655
79 T7 133 1.190
79 T7 134 0.702
79 T7 135 0.702
79 T7 136 1.190
79 T7 137 0.214
79 T7 138 -1.251
79 T7 139 -2.716
79 T7 140 -2.716
79 T7 141 -0.763
79 T7 142 2.655
79 T7 143 5.585
79 T7 144 7.050
79 T7 145 7.050
79 T7 146 6.561
79 T7 147 6.073
79 T7 148 6.073
79 T7 149 6.073
79 T7 150 5.585
79 T7 151 3.143
79 T7 152 -0.275
79 T7 153 -3.693
79 T7 154 -5.157
79 T7 155 -4.669
79 T7 156 -2.716
79 T7 157 -0.275
79 T7 158 1.678
79 T7 159 2.167
79 T7 160 2.167
79 T7 161 2.655
79 T7 162 3.632
79 T7 163 5.096
79 T7 164 7.050
79 T7 165 9.979
79 T7 166 12.909
79 T7 167 16.327
79 T7 168 18.768
79 T7 169 20.233
79 T7 170 19.745
79 T7 171 18.768
79 T7 172 16.815
79 T7 173 14.862
79 T7 174 12.909
79 T7 175 9.491
79 T7 176 5.096
79 T7 177 0.214
79 T7 178 -4.181
79 T7 179 -6.622
79 T7 180 -7.111
79 T7 181 -6.134
79 T7 182 -5.157
79 T7 183 -5.157
79 T7 184 -5.157
79 T7 185 -5.157
79 T7 186 -3.693
79 T7 187 -1.251
79 T7 188 3.143
79 T7 189 7.050
79 T7 190 10.956
79 T7 191 13.397
79 T7 192 14.374
79 T7 193 14.374
79 T7 194 13.397
79 T7 195 10.956
79 T7 196 8.514
79 T7 197 6.073
79 T7 198 4.608
79 T7 199 4.120
79 T7 200 4.608
79 T7 201 4.120
79 T7 202 3.143
79 T7 203 1.678
79 T7 204 0.214
79 T7 205 -0.275
79 T7 206 0.214
79 T7 207 1.190
79 T7 208 1.190
79 T7 209 1.678
79 T7 210 2.655
79 T7 211 4.120
79 T7 212 5.096
79 T7 213 5.096
79 T7 214 4.608
79 T7 215 3.143
79 T7 216 1.678
79 T7 217 0.702
79 T7 218 -0.275
79 T7 219 -1.251
79 T7 220 -1.251
79 T7 221 -0.275
79 T7 222 1.190
79 T7 223 1.678
79 T7 224 1.190
79 T7 225 -0.275
79 T7 226 -2.228
79 T7 227 -3.204
79 T7 228 -3.204
79 T7 229 -3.693
79 T7 230 -4.669
79 T7 231 -7.599
79 T7 232 -10.040
79 T7 233 -11.505
79 T7 234 -9.552
79 T7 235 -6.622
79 T7 236 -3.204
79 T7 237 -0.275
79 T7 238 2.167
79 T7 239 4.120
79 T7 240 6.561
79 T7 241 9.003
79 T7 242 11.444
79 T7 243 12.909
79 T7 244 14.374
79 T7 245 15.839
79 T7 246 17.792
79 T7 247 18.280
79 T7 248 17.303
79 T7 249 14.374
79 T7 250 9.491
79 T7 251 4.120
79 T7 252 -0.275
79 T7 253 -3.204
79 T7 254 -4.181
79 T7 255 -3.693
# CZ chan 15
79 CZ 0 6.531
79 CZ 1 8.972
79 CZ 2 11.902
79 CZ 3 16.296
79 CZ 4 20.691
79 CZ 5 23.132
79 CZ 6 22.644
79 CZ 7 20.691
79 CZ 8 19.714
79 CZ 9 20.203
79 CZ 10 22.156
79 CZ 11 24.109
79 CZ 12 23.621
79 CZ 13 21.179
79 CZ 14 17.761
79 CZ 15 14.832
79 CZ 16 13.367
79 CZ 17 12.878
79 CZ 18 13.855
79 CZ 19 15.808
79 CZ 20 18.250
79 CZ 21 19.226
79 CZ 22 18.738
79 CZ 23 17.761
79 CZ 24 17.273
79 CZ 25 18.738
79 CZ 26 22.156
79 CZ 27 24.597
79 CZ 28 25.574
79 CZ 29 24.109
79 CZ 30 22.156
79 CZ 31 20.203
79 CZ 32 19.226
79 CZ 33 19.226
79 CZ 34 19.226
79 CZ 35 19.226
79 CZ 36 19.714
79 CZ 37 20.691
79 CZ 38 22.156
79 CZ 39 23.132
79 CZ 40 22.156
79 CZ 41 20.203
79 CZ 42 17.761
79 CZ 43 16.785
79 CZ 44 17.761
79 CZ 45 19.714
79 CZ 46 22.156
79 CZ 47 24.109
79 CZ 48 25.574
79 CZ 49 27.039
79 CZ 50 28.015
79 CZ 51 29.480
79 CZ 52 31.921
79 CZ 53 34.363
79 CZ 54 37.292
79 CZ 55 39.734
79 CZ 56 41.199
79 CZ 57 41.687
79 CZ 58 41.687
79 CZ 59 40.710
79 CZ 60 40.710
79 CZ 61 39.734
79 CZ 62 37.292
79 CZ 63 32.898
79 CZ 64 26.550
79 CZ 65 20.203
79 CZ 66 14.343
79 CZ 67 8.484
79 CZ 68 4.089
79 CZ 69 -0.793
79 CZ 70 -5.188
79 CZ 71 -9.094
79 CZ 72 -13.000
79 CZ 73 -16.907
79 CZ 74 -21.301
79 CZ 75 -26.672
79 CZ 76 -32.043
79 CZ 77 -36.438
79 CZ 78 -37.903
79 CZ 79 -35.950
79 CZ 80 -31.555
79 CZ 81 -27.161
79 CZ 82 -24.231
79 CZ 83 -24.231
79 CZ 84 -26.184
79 CZ 85 -27.649
79 CZ 86 -28.137
79 CZ 87 -27.161
79 CZ 88 -25.696
79 CZ 89 -24.231
79 CZ 90 -22.766
79 CZ 91 -21.790
79 CZ 92 -20.813
79 CZ 93 -19.836
79 CZ 94 -19.348
79 CZ 95 -18.860
79 CZ 96 -19.348
79 CZ 97 -19.348
79 CZ 98 -17.883
79 CZ 99 -14.954
79 CZ 100 -10.559
79 CZ 101 -6.653
79 CZ 102 -4.700
79 CZ 103 -6.165
79 CZ 104 -13.000
79 CZ 105 -21.790
79 CZ 106 -29.602
79 CZ 107 -33.508
79 CZ 108 -31.555
79 CZ 109 -24.719
79 CZ 110 -15.930
79 CZ 111 -10.071
79 CZ 112 -7.629
79 CZ 113 -8.118
79 CZ 114 -8.606
79 CZ 115 -6.165
79 CZ 116 -1.282
79 CZ 117 4.089
79 CZ 118 7.507
79 CZ 119 7.507
79 CZ 120 6.042
79 CZ 121 4.089
79 CZ 122 4.578
79 CZ 123 7.507
79 CZ 124 11.902
79 CZ 125 15.320
79 CZ 126 17.761
79 CZ 127 18.250
79 CZ 128 17.273
79 CZ 129 16.296
79 CZ 130 14.832
79 CZ 131 12.878
79 CZ 132 11.414
79 CZ 133 9.949
79 CZ 134 7.996
79 CZ 135 6.042
79 CZ 136 4.578
79 CZ 137 2.625
79 CZ 138 1.648
79 CZ 139 1.160
79 CZ 140 0.183
79 CZ 141 -0.793
79 CZ 142 -1.282
79 CZ 143 -0.793
79 CZ 144 1.160
79 CZ 145 3.113
79 CZ 146 4.578
79 CZ 147 4.578
79 CZ 148 3.601
79 CZ 149 2.136
79 CZ 150 1.160
79 CZ 151 -0.305
79 CZ 152 -1.282
79 CZ 153 -2.258
79 CZ 154 -3.235
79 CZ 155 -2.258
79 CZ 156 -1.282
79 CZ 157 -0.305
79 CZ 158 0.183
79 CZ 159 1.160
79 CZ 160 1.648
79 CZ 161 3.113
79 CZ 162 5.066
79 CZ 163 8.484
79 CZ 164 11.902
79 CZ 165 14.343
79 CZ 166 15.808
79 CZ 167 16.785
79 CZ 168 17.761
79 CZ 169 19.226
79 CZ 170 21.179
79 CZ 171 22.644
79 CZ 172 23.132
79 CZ 173 21.179
79 CZ 174 17.761
79 CZ 175 13.855
79 CZ 176 10.437
79 CZ 177 8.484
79 CZ 178 7.507
79 CZ 179 6.531
79 CZ 180 6.042
79 CZ 181 5.066
79 CZ 182 4.578
79 CZ 183 4.578
79 CZ 184 4.578
79 CZ 185 5.066
79 CZ 186 5.554
79 CZ 187 7.507
79 CZ 188 11.414
79 CZ 189 16.296
79 CZ 190 21.179
79 CZ 191 25.574
79 CZ 192 28.503
79 CZ 193 29.480
79 CZ 194 29.968
79 CZ 195 30.945
79 CZ 196 30.945
79 CZ 197 31.433
79 CZ 198 31.921
79 CZ 199 30.945
79 CZ 200 28.992
79 CZ 201 26.550
79 CZ 202 24.109
79 CZ 203 21.667
79 CZ 204 19.714
79 CZ 205 17.761
79 CZ 206 14.832
79 CZ 207 11.414
79 CZ 208 8.484
79 CZ 209 7.019
79 CZ 210 7.996
79 CZ 211 9.949
79 CZ 212 10.925
79 CZ 213 10.437
79 CZ 214 8.972
79 CZ 215 8.484
79 CZ 216 9.460
79 CZ 217 12.878
79 CZ 218 16.785
79 CZ 219 19.714
79 CZ 220 20.203
79 CZ 221 20.203
79 CZ 222 20.203
79 CZ 223 20.691
79 CZ 224 21.179
79 CZ 225 20.691
79 CZ 226 17.761
79 CZ 227 12.878
79 CZ 228 8.484
79 CZ 229 4.578
79 CZ 230 2.625
79 CZ 231 2.136
79 CZ 232 2.136
79 CZ 233 2.625
79 CZ 234 3.113
79 CZ 235 4.578
79 CZ 236 7.019
79 CZ 237 10.437
79 CZ 238 14.832
79 CZ 239 18.738
79 CZ 240 22.156
79 CZ 241 24.109
79 CZ 242 24.597
79 CZ 243 25.085
79 CZ 244 26.062
79 CZ 245 27.039
79 CZ 246 28.015
79 CZ 247 27.039
79 CZ 248 24.109
79 CZ 249 19.714
79 CZ 250 15.808
79 CZ 251 13.855
79 CZ 252 13.367
79 CZ 253 14.343
79 CZ 254 13.855
79 CZ 255 12.390
# C3 chan 16
79 C3 0 1.241
79 C3 1 3.194
79 C3 2 4.171
79 C3 3 5.147
79 C3 4 5.147
79 C3 5 4.659
79 C3 6 4.171
79 C3 7 3.682
79 C3 8 3.194
79 C3 9 2.706
79 C3 10 1.729
79 C3 11 0.753
79 C3 12 -0.224
79 C3 13 -1.200
79 C3 14 -2.177
79 C3 15 -2.177
79 C3 16 -2.177
79 C3 17 -2.177
79 C3 18 -2.177
79 C3 19 -2.665
79 C3 20 -2.665
79 C3 21 -2.665
79 C3 22 -1.689
79 C3 23 -0.712
79 C3 24 0.753
79 C3 25 2.706
79 C3 26 4.171
79 C3 27 5.636
79 C3 28 6.124
79 C3 29 6.612
79 C3 30 6.612
79 C3 31 6.612
79 C3 32 6.612
79 C3 33 7.100
79 C3 34 7.100
79 C3 35 7.589
79 C3 36 7.100
79 C3 37 6.612
79 C3 38 5.147
79 C3 39 3.194
79 C3 40 0.264
79 C3 41 -1.689
79 C3 42 -2.665
79 C3 43 -3.153
79 C3 44 -3.642
79 C3 45 -3.642
79 C3 46 -3.642
79 C3 47 -2.665
79 C3 48 -1.200
79 C3 49 0.753
79 C3 50 2.706
79 C3 51 4.171
79 C3 52 4.171
79 C3 53 4.659
79 C3 54 5.147
79 C3 55 6.124
79 C3 56 7.589
79 C3 57 8.565
79 C3 58 8.077
79 C3 59 6.612
79 C3 60 4.659
79 C3 61 3.194
79 C3 62 2.706
79 C3 63 2.218
79 C3 64 2.218
79 C3 65 1.241
79 C3 66 -0.224
79 C3 67 -1.200
79 C3 68 -2.177
79 C3 69 -2.177
79 C3 70 -1.689
79 C3 71 -1.200
79 C3 72 -1.689
79 C3 73 -1.689
79 C3 74 -1.689
79 C3 75 -1.200
79 C3 76 -0.224
79 C3 77 1.241
79 C3 78 2.218
79 C3 79 3.682
79 C3 80 4.171
79 C3 81 4.659
79 C3 82 5.147
79 C3 83 4.659
79 C3 84 4.171
79 C3 85 4.171
79 C3 86 3.682
79 C3 87 3.682
79 C3 88 3.682
79 C3 89 3.194
79 C3 90 2.218
79 C3 91 1.241
79 C3 92 1.241
79 C3 93 0.753
79 C3 94 0.264
79 C3 95 -0.712
79 C3 96 -1.689
79 C3 97 -1.689
79 C3 98 -1.200
79 C3 99 -0.224
79 C3 100 0.753
79 C3 101 1.729
79 C3 102 2.706
79 C3 103 4.171
79 C3 104 6.124
79 C3 105 8.077
79 C3 106 9.542
79 C3 107 10.030
79 C3 108 9.542
79 C3 109 9.054
79 C3 110 8.565
79 C3 111 7.100
79 C3 112 5.636
79 C3 113 4.171
79 C3 114 2.706
79 C3 115 1.729
79 C3 116 1.241
79 C3 117 1.241
79 C3 118 1.241
79 C3 119 1.241
79 C3 120 0.753
79 C3 121 0.753
79 C3 122 2.218
79 C3 123 3.682
79 C3 124 5.147
79 C3 125 6.124
79 C3 126 6.124
79 C3 127 6.124
79 C3 128 6.124
79 C3 129 5.636
79 C3 130 5.147
79 C3 131 4.171
79 C3 132 3.194
79 C3 133 2.218
79 C3 134 1.241
79 C3 135 0.264
79 C3 136 -0.224
79 C3 137 -0.224
79 C3 138 0.264
79 C3 139 1.241
79 C3 140 3.194
79 C3 141 4.659
79 C3 142 6.124
79 C3 143 6.612
79 C3 144 6.612
79 C3 145 6.124
79 C3 146 6.124
79 C3 147 5.636
79 C3 148 5.636
79 C3 149 5.636
79 C3 150 5.147
79 C3 151 3.682
79 C3 152 2.218
79 C3 153 1.241
79 C3 154 0.753
79 C3 155 1.241
79 C3 156 1.241
79 C3 157 2.218
79 C3 158 2.218
79 C3 159 2.706
79 C3 160 2.706
79 C3 161 3.194
79 C3 162 3.682
79 C3 163 4.171
79 C3 164 5.147
79 C3 165 5.636
79 C3 166 7.100
79 C3 167 9.054
79 C3 168 10.518
79 C3 169 11.007
79 C3 170 10.518
79 C3 171 9.054
79 C3 172 7.589
79 C3 173 6.612
79 C3 174 5.636
79 C3 175 4.659
79 C3 176 3.194
79 C3 177 0.753
79 C3 178 -0.712
79 C3 179 -2.177
79 C3 180 -2.177
79 C3 181 -1.200
79 C3 182 -0.224
79 C3 183 1.241
79 C3 184 2.218
79 C3 185 2.706
79 C3 186 3.682
79 C3 187 5.147
79 C3 188 6.612
79 C3 189 7.589
79 C3 190 8.565
79 C3 191 9.054
79 C3 192 8.565
79 C3 193 8.077
79 C3 194 7.100
79 C3 195 5.636
79 C3 196 4.659
79 C3 197 3.194
79 C3 198 2.218
79 C3 199 0.753
79 C3 200 -0.224
79 C3 201 -0.224
79 C3 202 -0.712
79 C3 203 -0.712
79 C3 204 -0.224
79 C3 205 1.241
79 C3 206 2.218
79 C3 207 3.682
79 C3 208 4.659
79 C3 209 5.636
79 C3 210 6.124
79 C3 211 6.124
79 C3 212 5.147
79 C3 213 4.171
79 C3 214 2.706
79 C3 215 1.241
79 C3 216 0.753
79 C3 217 -0.224
79 C3 218 -0.224
79 C3 219 -1.200
79 C3 220 -1.689
79 C3 221 -1.689
79 C3 222 -1.689
79 C3 223 -0.712
79 C3 224 0.264
79 C3 225 0.753
79 C3 226 0.753
79 C3 227 -0.224
79 C3 228 -1.200
79 C3 229 -2.665
79 C3 230 -3.642
79 C3 231 -4.130
79 C3 232 -4.618
79 C3 233 -4.618
79 C3 234 -4.618
79 C3 235 -4.618
79 C3 236 -4.618
79 C3 237 -4.130
79 C3 238 -3.153
79 C3 239 -1.689
79 C3 240 0.264
79 C3 241 2.706
79 C3 242 4.171
79 C3 243 5.147
79 C3 244 6.612
79 C3 245 7.589
79 C3 246 8.077
79 C3 247 8.565
79 C3 248 9.054
79 C3 249 8.565
79 C3 250 6.612
79 C3 251 4.659
79 C3 252 3.194
79 C3 253 1.241
79 C3 254 0.264
79 C3 255 -0.224
# C4 chan 17
79 C4 0 2.777
79 C4 1 2.289
79 C4 2 0.824
79 C4 3 -0.641
79 C4 4 -1.617
79 C4 5 -1.617
79 C4 6 -1.617
79 C4 7 -0.641
79 C4 8 0.336
79 C4 9 0.824
79 C4 10 1.801
79 C4 11 2.777
79 C4 12 3.265
79 C4 13 3.754
79 C4 14 3.754
79 C4 15 3.754
79 C4 16 3.265
79 C4 17 2.777
79 C4 18 2.289
79 C4 19 2.289
79 C4 20 3.265
79 C4 21 3.754
79 C4 22 3.754
79 C4 23 3.265
79 C4 24 1.312
79 C4 25 -0.641
79 C4 26 -2.594
79 C4 27 -4.059
79 C4 28 -5.035
79 C4 29 -6.012
79 C4 30 -6.012
79 C4 31 -5.524
79 C4 32 -4.059
79 C4 33 -2.106
79 C4 34 -1.129
79 C4 35 0.336
79 C4 36 0.824
79 C4 37 1.312
79 C4 38 2.289
79 C4 39 2.777
79 C4 40 2.777
79 C4 41 2.289
79 C4 42 0.824
79 C4 43 -0.641
79 C4 44 -2.106
79 C4 45 -3.082
79 C4 46 -3.571
79 C4 47 -3.571
79 C4 48 -3.571
79 C4 49 -3.571
79 C4 50 -4.059
79 C4 51 -4.059
79 C4 52 -3.571
79 C4 53 -2.594
79 C4 54 -1.617
79 C4 55 -1.129
79 C4 56 -1.129
79 C4 57 -1.617
79 C4 58 -1.129
79 C4 59 -0.153
79 C4 60 2.289
79 C4 61 3.754
79 C4 62 4.242
79 C4 63 2.777
79 C4 64 1.312
79 C4 65 -0.641
79 C4 66 -2.106
79 C4 67 -4.059
79 C4 68 -6.012
79 C4 69 -7.965
79 C4 70 -9.430
79 C4 71 -10.406
79 C4 72 -10.406
79 C4 73 -10.406
79 C4 74 -11.383
79 C4 75 -13.336
79 C4 76 -15.289
79 C4 77 -16.266
79 C4 78 -16.266
79 C4 79 -15.289
79 C4 80 -14.313
79 C4 81 -12.848
79 C4 82 -11.871
79 C4 83 -10.895
79 C4 84 -10.406
79 C4 85 -9.430
79 C4 86 -8.942
79 C4 87 -8.453
79 C4 88 -8.453
79 C4 89 -7.965
79 C4 90 -7.965
79 C4 91 -7.965
79 C4 92 -7.965
79 C4 93 -8.453
79 C4 94 -8.453
79 C4 95 -7.965
79 C4 96 -6.989
79 C4 97 -6.500
79 C4 98 -5.524
79 C4 99 -6.012
79 C4 100 -6.012
79 C4 101 -6.989
79 C4 102 -7.965
79 C4 103 -8.942
79 C4 104 -9.430
79 C4 105 -9.918
79 C4 106 -9.918
79 C4 107 -9.430
79 C4 108 -9.430
79 C4 109 -9.430
79 C4 110 -9.918
79 C4 111 -10.406
79 C4 112 -10.406
79 C4 113 -10.406
79 C4 114 -9.430
79 C4 115 -7.965
79 C4 116 -6.012
79 C4 117 -5.035
79 C4 118 -5.035
79 C4 119 -5.035
79 C4 120 -6.012
79 C4 121 -6.500
79 C4 122 -6.989
79 C4 123 -7.477
79 C4 124 -7.965
79 C4 125 -8.453
79 C4 126 -8.453
79 C4 127 -7.965
79 C4 128 -7.477
79 C4 129 -6.989
79 C4 130 -6.989
79 C4 131 -6.500
79 C4 132 -6.012
79 C4 133 -5.035
79 C4 134 -3.571
79 C4 135 -2.594
79 C4 136 -2.106
79 C4 137 -2.106
79 C4 138 -2.594
79 C4 139 -2.594
79 C4 140 -3.571
79 C4 141 -4.059
79 C4 142 -4.059
79 C4 143 -3.571
79 C4 144 -3.082
79 C4 145 -1.617
79 C4 146 -0.641
79 C4 147 0.336
79 C4 148 0.824
79 C4 149 0.824
79 C4 150 0.336
79 C4 151 0.336
79 C4 152 0.336
79 C4 153 0.336
79 C4 154 0.824
79 C4 155 1.312
79 C4 156 0.824
79 C4 157 -0.153
79 C4 158 -2.106
79 C4 159 -4.547
79 C4 160 -6.012
79 C4 161 -6.500
79 C4 162 -6.012
79 C4 163 -5.035
79 C4 164 -4.547
79 C4 165 -5.035
79 C4 166 -6.012
79 C4 167 -6.500
79 C4 168 -6.500
79 C4 169 -5.524
79 C4 170 -3.571
79 C4 171 -2.594
79 C4 172 -2.106
79 C4 173 -1.617
79 C4 174 -1.617
79 C4 175 -1.617
79 C4 176 -1.129
79 C4 177 -1.129
79 C4 178 -1.129
79 C4 179 -2.106
79 C4 180 -3.082
79 C4 181 -4.547
79 C4 182 -5.524
79 C4 183 -6.500
79 C4 184 -6.989
79 C4 185 -6.500
79 C4 186 -6.012
79 C4 187 -5.035
79 C4 188 -4.059
79 C4 189 -3.571
79 C4 190 -3.082
79 C4 191 -3.082
79 C4 192 -2.594
79 C4 193 -1.617
79 C4 194 -1.617
79 C4 195 -1.617
79 C4 196 -1.617
79 C4 197 -2.106
79 C4 198 -2.594
79 C4 199 -2.594
79 C4 200 -2.594
79 C4 201 -3.571
79 C4 202 -4.547
79 C4 203 -6.500
79 C4 204 -8.453
79 C4 205 -10.406
79 C4 206 -11.383
79 C4 207 -11.871
79 C4 208 -11.383
79 C4 209 -10.406
79 C4 210 -9.430
79 C4 211 -8.453
79 C4 212 -7.965
79 C4 213 -6.989
79 C4 214 -6.500
79 C4 215 -5.035
79 C4 216 -4.547
79 C4 217 -4.059
79 C4 218 -4.547
79 C4 219 -5.035
79 C4 220 -5.035
79 C4 221 -5.035
79 C4 222 -5.524
79 C4 223 -6.989
79 C4 224 -9.430
79 C4 225 -11.383
79 C4 226 -13.336
79 C4 227 -14.313
79 C4 228 -14.313
79 C4 229 -13.336
79 C4 230 -13.336
79 C4 231 -12.848
79 C4 232 -12.360
79 C4 233 -11.383
79 C4 234 -9.918
79 C4 235 -6.989
79 C4 236 -4.547
79 C4 237 -2.594
79 C4 238 -1.617
79 C4 239 -1.617
79 C4 240 -2.106
79 C4 241 -2.106
79 C4 242 -1.617
79 C4 243 -1.129
79 C4 244 -0.641
79 C4 245 -1.129
79 C4 246 -3.082
79 C4 247 -5.035
79 C4 248 -6.989
79 C4 249 -8.453
79 C4 250 -9.430
79 C4 251 -10.406
79 C4 252 -11.871
79 C4 253 -13.336
79 C4 254 -14.313
79 C4 255 -14.801
# CP5 chan 18
79 CP5 0 1.048
79 CP5 1 3.489
79 CP5 2 4.954
79 CP5 3 5.931
79 CP5 4 6.419
79 CP5 5 5.931
79 CP5 6 5.931
79 CP5 7 4.954
79 CP5 8 4.954
79 CP5 9 4.954
79 CP5 10 4.466
79 CP5 11 3.489
79 CP5 12 2.024
79 CP5 13 0.071
79 CP5 14 -2.370
79 CP5 15 -4.323
79 CP5 16 -6.276
79 CP5 17 -7.741
79 CP5 18 -8.718
79 CP5 19 -8.718
79 CP5 20 -8.230
79 CP5 21 -6.765
79 CP5 22 -5.300
79 CP5 23 -3.835
79 CP5 24 -1.882
79 CP5 25 0.559
79 CP5 26 3.489
79 CP5 27 5.931
79 CP5 28 7.395
79 CP5 29 7.395
79 CP5 30 5.931
79 CP5 31 4.466
79 CP5 32 3.001
79 CP5 33 3.001
79 CP5 34 3.489
79 CP5 35 3.977
79 CP5 36 3.489
79 CP5 37 1.048
79 CP5 38 -2.370
79 CP5 39 -6.276
79 CP5 40 -9.694
79 CP5 41 -12.624
79 CP5 42 -14.577
79 CP5 43 -16.042
79 CP5 44 -16.530
79 CP5 45 -16.530
79 CP5 46 -16.530
79 CP5 47 -15.066
79 CP5 48 -12.624
79 CP5 49 -8.718
79 CP5 50 -4.812
79 CP5 51 -1.394
79 CP5 52 0.071
79 CP5 53 1.048
79 CP5 54 2.513
79 CP5 55 3.977
79 CP5 56 6.419
79 CP5 57 8.372
79 CP5 58 8.860
79 CP5 59 6.907
79 CP5 60 3.977
79 CP5 61 1.536
79 CP5 62 0.559
79 CP5 63 0.559
79 CP5 64 1.048
79 CP5 65 0.071
79 CP5 66 -2.370
79 CP5 67 -4.812
79 CP5 68 -7.741
79 CP5 69 -8.718
79 CP5 70 -8.718
79 CP5 71 -9.206
79 CP5 72 -9.694
79 CP5 73 -10.183
79 CP5 74 -11.159
79 CP5 75 -10.671
79 CP5 76 -8.718
79 CP5 77 -7.253
79 CP5 78 -5.788
79 CP5 79 -4.812
79 CP5 80 -4.323
79 CP5 81 -3.835
79 CP5 82 -3.835
79 CP5 83 -3.835
79 CP5 84 -3.347
79 CP5 85 -2.858
79 CP5 86 -2.370
79 CP5 87 -1.882
79 CP5 88 -1.882
79 CP5 89 -2.370
79 CP5 90 -3.347
79 CP5 91 -3.835
79 CP5 92 -3.835
79 CP5 93 -3.835
79 CP5 94 -4.323
79 CP5 95 -5.300
79 CP5 96 -5.788
79 CP5 97 -5.788
79 CP5 98 -4.323
79 CP5 99 -2.370
79 CP5 100 0.071
79 CP5 101 2.513
79 CP5 102 4.466
79 CP5 103 7.395
79 CP5 104 10.813
79 CP5 105 14.720
79 CP5 106 17.161
79 CP5 107 16.673
79 CP5 108 14.720
79 CP5 109 12.278
79 CP5 110 9.349
79 CP5 111 7.395
79 CP5 112 5.442
79 CP5 113 3.489
79 CP5 114 1.048
79 CP5 115 -0.417
79 CP5 116 -0.905
79 CP5 117 -0.417
79 CP5 118 -0.417
79 CP5 119 -0.417
79 CP5 120 -0.417
79 CP5 121 0.559
79 CP5 122 2.024
79 CP5 123 3.977
79 CP5 124 5.931
79 CP5 125 6.419
79 CP5 126 5.931
79 CP5 127 4.466
79 CP5 128 3.001
79 CP5 129 1.048
79 CP5 130 -0.905
79 CP5 131 -1.882
79 CP5 132 -3.347
79 CP5 133 -4.323
79 CP5 134 -6.276
79 CP5 135 -7.741
79 CP5 136 -9.206
79 CP5 137 -9.694
79 CP5 138 -8.230
79 CP5 139 -5.788
79 CP5 140 -3.347
79 CP5 141 -0.417
79 CP5 142 0.559
79 CP5 143 1.048
79 CP5 144 0.559
79 CP5 145 0.071
79 CP5 146 -0.417
79 CP5 147 -0.417
79 CP5 148 0.559
79 CP5 149 2.024
79 CP5 150 2.513
79 CP5 151 2.513
79 CP5 152 2.024
79 CP5 153 1.048
79 CP5 154 0.559
79 CP5 155 0.559
79 CP5 156 1.536
79 CP5 157 2.024
79 CP5 158 2.024
79 CP5 159 1.536
79 CP5 160 1.536
79 CP5 161 2.024
79 CP5 162 3.001
79 CP5 163 4.466
79 CP5 164 6.419
79 CP5 165 8.372
79 CP5 166 10.325
79 CP5 167 11.790
79 CP5 168 12.767
79 CP5 169 12.767
79 CP5 170 12.278
79 CP5 171 10.325
79 CP5 172 8.860
79 CP5 173 7.395
79 CP5 174 5.931
79 CP5 175 4.466
79 CP5 176 2.513
79 CP5 177 -0.417
79 CP5 178 -2.858
79 CP5 179 -5.788
79 CP5 180 -7.741
79 CP5 181 -8.230
79 CP5 182 -7.253
79 CP5 183 -4.323
79 CP5 184 -0.905
79 CP5 185 3.001
79 CP5 186 7.395
79 CP5 187 10.813
79 CP5 188 14.231
79 CP5 189 16.673
79 CP5 190 18.138
79 CP5 191 18.138
79 CP5 192 17.161
79 CP5 193 14.720
79 CP5 194 11.790
79 CP5 195 7.884
79 CP5 196 4.466
79 CP5 197 1.536
79 CP5 198 -0.905
79 CP5 199 -2.370
79 CP5 200 -3.835
79 CP5 201 -5.300
79 CP5 202 -7.253
79 CP5 203 -8.230
79 CP5 204 -8.718
79 CP5 205 -7.253
79 CP5 206 -4.812
79 CP5 207 -0.905
79 CP5 208 3.489
79 CP5 209 7.395
79 CP5 210 10.813
79 CP5 211 13.255
79 CP5 212 13.743
79 CP5 213 12.767
79 CP5 214 11.302
79 CP5 215 9.349
79 CP5 216 6.907
79 CP5 217 4.466
79 CP5 218 1.048
79 CP5 219 -3.347
79 CP5 220 -6.765
79 CP5 221 -9.694
79 CP5 222 -11.159
79 CP5 223 -11.159
79 CP5 224 -11.159
79 CP5 225 -11.159
79 CP5 226 -11.648
79 CP5 227 -12.136
79 CP5 228 -11.648
79 CP5 229 -10.671
79 CP5 230 -9.206
79 CP5 231 -8.230
79 CP5 232 -7.741
79 CP5 233 -7.741
79 CP5 234 -7.253
79 CP5 235 -6.276
79 CP5 236 -4.812
79 CP5 237 -2.858
79 CP5 238 -0.905
79 CP5 239 2.024
79 CP5 240 4.466
79 CP5 241 6.907
79 CP5 242 9.349
79 CP5 243 10.325
79 CP5 244 10.813
79 CP5 245 10.813
79 CP5 246 10.325
79 CP5 247 10.325
79 CP5 248 9.837
79 CP5 249 8.372
79 CP5 250 5.931
79 CP5 251 3.001
79 CP5 252 -0.905
79 CP5 253 -4.812
79 CP5 254 -8.230
79 CP5 255 -10.183
# CP6 chan 19
79 CP6 0 3.601
79 CP6 1 3.601
79 CP6 2 2.625
79 CP6 3 1.648
79 CP6 4 0.671
79 CP6 5 0.183
79 CP6 6 0.671
79 CP6 7 2.136
79 CP6 8 3.601
79 CP6 9 5.066
79 CP6 10 5.066
79 CP6 11 4.578
79 CP6 12 3.601
79 CP6 13 3.113
79 CP6 14 2.625
79 CP6 15 2.625
79 CP6 16 1.160
79 CP6 17 -0.305
79 CP6 18 -1.770
79 CP6 19 -2.258
79 CP6 20 -0.793
79 CP6 21 1.160
79 CP6 22 2.625
79 CP6 23 2.625
79 CP6 24 1.648
79 CP6 25 0.183
79 CP6 26 -1.282
79 CP6 27 -1.770
79 CP6 28 -2.258
79 CP6 29 -3.235
79 CP6 30 -3.723
79 CP6 31 -3.723
79 CP6 32 -2.747
79 CP6 33 -1.770
79 CP6 34 -1.282
79 CP6 35 -1.282
79 CP6 36 -0.793
79 CP6 37 -0.793
79 CP6 38 -0.305
79 CP6 39 0.183
79 CP6 40 -0.305
79 CP6 41 -2.258
79 CP6 42 -4.211
79 CP6 43 -6.165
79 CP6 44 -7.141
79 CP6 45 -7.141
79 CP6 46 -7.141
79 CP6 47 -6.653
79 CP6 48 -6.165
79 CP6 49 -5.676
79 CP6 50 -4.700
79 CP6 51 -3.235
79 CP6 52 -1.282
79 CP6 53 1.160
79 CP6 54 3.113
79 CP6 55 4.089
79 CP6 56 4.578
79 CP6 57 5.066
79 CP6 58 5.554
79 CP6 59 6.531
79 CP6 60 7.996
79 CP6 61 8.972
79 CP6 62 8.484
79 CP6 63 7.507
79 CP6 64 5.066
79 CP6 65 2.136
79 CP6 66 -1.282
79 CP6 67 -4.700
79 CP6 68 -7.629
79 CP6 69 -9.583
79 CP6 70 -11.047
79 CP6 71 -11.047
79 CP6 72 -11.536
79 CP6 73 -13.000
79 CP6 74 -14.954
79 CP6 75 -17.395
79 CP6 76 -19.348
79 CP6 77 -19.836
79 CP6 78 -19.836
79 CP6 79 -18.372
79 CP6 80 -16.907
79 CP6 81 -15.442
79 CP6 82 -13.489
79 CP6 83 -11.536
79 CP6 84 -9.583
79 CP6 85 -8.118
79 CP6 86 -7.141
79 CP6 87 -7.141
79 CP6 88 -7.629
79 CP6 89 -7.629
79 CP6 90 -7.141
79 CP6 91 -6.165
79 CP6 92 -5.676
79 CP6 93 -5.676
79 CP6 94 -5.676
79 CP6 95 -5.676
79 CP6 96 -4.700
79 CP6 97 -3.235
79 CP6 98 -2.258
79 CP6 99 -1.282
79 CP6 100 -1.282
79 CP6 101 -1.282
79 CP6 102 -1.770
79 CP6 103 -1.282
79 CP6 104 -0.793
79 CP6 105 -0.305
79 CP6 106 0.183
79 CP6 107 0.183
79 CP6 108 -0.305
79 CP6 109 -1.282
79 CP6 110 -2.747
79 CP6 111 -4.211
79 CP6 112 -5.188
79 CP6 113 -6.165
79 CP6 114 -5.188
79 CP6 115 -3.723
79 CP6 116 -1.282
79 CP6 117 0.183
79 CP6 118 0.183
79 CP6 119 -0.793
79 CP6 120 -1.770
79 CP6 121 -2.258
79 CP6 122 -2.258
79 CP6 123 -2.258
79 CP6 124 -2.747
79 CP6 125 -4.211
79 CP6 126 -5.188
79 CP6 127 -6.165
79 CP6 128 -6.165
79 CP6 129 -6.165
79 CP6 130 -6.165
79 CP6 131 -7.141
79 CP6 132 -8.118
79 CP6 133 -8.118
79 CP6 134 -7.141
79 CP6 135 -5.676
79 CP6 136 -4.211
79 CP6 137 -2.747
79 CP6 138 -2.747
79 CP6 139 -3.235
79 CP6 140 -3.723
79 CP6 141 -4.700
79 CP6 142 -5.188
79 CP6 143 -5.188
79 CP6 144 -3.723
79 CP6 145 -2.258
79 CP6 146 0.183
79 CP6 147 2.625
79 CP6 148 4.089
79 CP6 149 5.066
79 CP6 150 5.066
79 CP6 151 4.578
79 CP6 152 4.578
79 CP6 153 5.066
79 CP6 154 6.042
79 CP6 155 6.042
79 CP6 156 6.042
79 CP6 157 4.578
79 CP6 158 2.136
79 CP6 159 0.183
79 CP6 160 -1.770
79 CP6 161 -2.258
79 CP6 162 -1.770
79 CP6 163 -0.305
79 CP6 164 0.183
79 CP6 165 0.671
79 CP6 166 0.183
79 CP6 167 -0.305
79 CP6 168 -0.793
79 CP6 169 0.183
79 CP6 170 2.136
79 CP6 171 4.578
79 CP6 172 6.042
79 CP6 173 6.042
79 CP6 174 5.554
79 CP6 175 4.578
79 CP6 176 4.089
79 CP6 177 3.601
79 CP6 178 2.136
79 CP6 179 0.183
79 CP6 180 -2.258
79 CP6 181 -4.700
79 CP6 182 -5.676
79 CP6 183 -5.188
79 CP6 184 -3.235
79 CP6 185 -0.793
79 CP6 186 1.648
79 CP6 187 4.089
79 CP6 188 5.554
79 CP6 189 7.019
79 CP6 190 7.996
79 CP6 191 8.972
79 CP6 192 8.972
79 CP6 193 8.484
79 CP6 194 7.507
79 CP6 195 6.042
79 CP6 196 4.578
79 CP6 197 3.113
79 CP6 198 2.136
79 CP6 199 0.671
79 CP6 200 -0.793
79 CP6 201 -2.747
79 CP6 202 -5.676
79 CP6 203 -9.094
79 CP6 204 -12.024
79 CP6 205 -13.489
79 CP6 206 -13.977
79 CP6 207 -13.489
79 CP6 208 -11.536
79 CP6 209 -9.094
79 CP6 210 -6.165
79 CP6 211 -3.235
79 CP6 212 -0.305
79 CP6 213 2.625
79 CP6 214 5.554
79 CP6 215 7.996
79 CP6 216 8.972
79 CP6 217 7.996
79 CP6 218 6.531
79 CP6 219 4.089
79 CP6 220 2.136
79 CP6 221 0.671
79 CP6 222 -1.282
79 CP6 223 -4.700
79 CP6 224 -9.583
79 CP6 225 -13.977
79 CP6 226 -17.883
79 CP6 227 -19.348
79 CP6 228 -18.372
79 CP6 229 -16.418
79 CP6 230 -13.977
79 CP6 231 -11.536
79 CP6 232 -9.583
79 CP6 233 -6.653
79 CP6 234 -2.747
79 CP6 235 2.136
79 CP6 236 7.019
79 CP6 237 10.925
79 CP6 238 12.878
79 CP6 239 13.367
79 CP6 240 13.367
79 CP6 241 12.390
79 CP6 242 11.902
79 CP6 243 11.414
79 CP6 244 9.949
79 CP6 245 7.507
79 CP6 246 4.578
79 CP6 247 1.160
79 CP6 248 -2.258
79 CP6 249 -5.188
79 CP6 250 -8.118
79 CP6 251 -11.047
79 CP6 252 -14.465
79 CP6 253 -17.395
79 CP6 254 -19.836
79 CP6 255 -20.325
# CP1 chan 20
79 CP1 0 0.926
79 CP1 1 1.414
79 CP1 2 1.414
79 CP1 3 1.414
79 CP1 4 1.414
79 CP1 5 0.926
79 CP1 6 0.437
79 CP1 7 0.437
79 CP1 8 0.437
79 CP1 9 0.926
79 CP1 10 0.926
79 CP1 11 0.926
79 CP1 12 0.437
79 CP1 13 -0.051
79 CP1 14 -1.027
79 CP1 15 -2.004
79 CP1 16 -2.981
79 CP1 17 -3.469
79 CP1 18 -3.957
79 CP1 19 -3.957
79 CP1 20 -3.957
79 CP1 21 -3.469
79 CP1 22 -3.469
79 CP1 23 -2.981
79 CP1 24 -2.492
79 CP1 25 -2.004
79 CP1 26 -1.027
79 CP1 27 -0.051
79 CP1 28 0.926
79 CP1 29 0.926
79 CP1 30 0.926
79 CP1 31 0.437
79 CP1 32 -0.051
79 CP1 33 -0.051
79 CP1 34 -0.051
79 CP1 35 0.437
79 CP1 36 -0.051
79 CP1 37 -0.539
79 CP1 38 -2.004
79 CP1 39 -3.469
79 CP1 40 -4.934
79 CP1 41 -5.910
79 CP1 42 -6.399
79 CP1 43 -6.887
79 CP1 44 -7.375
79 CP1 45 -7.375
79 CP1 46 -7.375
79 CP1 47 -7.375
79 CP1 48 -6.887
79 CP1 49 -5.910
79 CP1 50 -4.445
79 CP1 51 -2.981
79 CP1 52 -2.492
79 CP1 53 -2.004
79 CP1 54 -2.004
79 CP1 55 -2.004
79 CP1 56 -1.516
79 CP1 57 -1.027
79 CP1 58 -1.027
79 CP1 59 -1.027
79 CP1 60 -1.516
79 CP1 61 -2.004
79 CP1 62 -1.516
79 CP1 63 -1.027
79 CP1 64 -0.539
79 CP1 65 -0.539
79 CP1 66 -1.027
79 CP1 67 -2.004
79 CP1 68 -2.492
79 CP1 69 -2.981
79 CP1 70 -2.981
79 CP1 71 -2.981
79 CP1 72 -2.981
79 CP1 73 -3.469
79 CP1 74 -3.469
79 CP1 75 -3.957
79 CP1 76 -3.469
79 CP1 77 -3.469
79 CP1 78 -2.981
79 CP1 79 -2.981
79 CP1 80 -2.492
79 CP1 81 -2.004
79 CP1 82 -2.004
79 CP1 83 -1.027
79 CP1 84 -0.539
79 CP1 85 -0.539
79 CP1 86 -0.539
79 CP1 87 -0.539
79 CP1 88 -1.027
79 CP1 89 -1.027
79 CP1 90 -1.027
79 CP1 91 -1.027
79 CP1 92 -1.027
79 CP1 93 -1.027
79 CP1 94 -1.516
79 CP1 95 -1.516
79 CP1 96 -1.516
79 CP1 97 -1.027
79 CP1 98 -0.051
79 CP1 99 0.437
79 CP1 100 0.926
79 CP1 101 1.414
79 CP1 102 2.391
79 CP1 103 3.855
79 CP1 104 5.809
79 CP1 105 7.762
79 CP1 106 8.250
79 CP1 107 8.250
79 CP1 108 7.273
79 CP1 109 6.297
79 CP1 110 5.320
79 CP1 111 4.832
79 CP1 112 3.855
79 CP1 113 2.879
79 CP1 114 1.414
79 CP1 115 0.926
79 CP1 116 0.437
79 CP1 117 0.926
79 CP1 118 0.926
79 CP1 119 0.437
79 CP1 120 -0.051
79 CP1 121 -0.051
79 CP1 122 0.437
79 CP1 123 1.414
79 CP1 124 2.391
79 CP1 125 2.879
79 CP1 126 1.902
79 CP1 127 0.437
79 CP1 128 -1.027
79 CP1 129 -2.492
79 CP1 130 -2.981
79 CP1 131 -2.492
79 CP1 132 -2.981
79 CP1 133 -3.469
79 CP1 134 -3.957
79 CP1 135 -3.957
79 CP1 136 -4.445
79 CP1 137 -4.445
79 CP1 138 -3.957
79 CP1 139 -2.981
79 CP1 140 -2.981
79 CP1 141 -2.004
79 CP1 142 -1.516
79 CP1 143 -2.004
79 CP1 144 -2.981
79 CP1 145 -3.469
79 CP1 146 -3.469
79 CP1 147 -2.981
79 CP1 148 -2.492
79 CP1 149 -1.027
79 CP1 150 -0.539
79 CP1 151 -0.051
79 CP1 152 -0.539
79 CP1 153 -0.051
79 CP1 154 -0.051
79 CP1 155 0.437
79 CP1 156 0.437
79 CP1 157 0.926
79 CP1 158 0.926
79 CP1 159 0.926
79 CP1 160 1.414
79 CP1 161 1.414
79 CP1 162 1.414
79 CP1 163 1.414
79 CP1 164 1.414
79 CP1 165 1.414
79 CP1 166 1.414
79 CP1 167 1.414
79 CP1 168 0.926
79 CP1 169 0.437
79 CP1 170 -0.539
79 CP1 171 -1.027
79 CP1 172 -1.027
79 CP1 173 -1.027
79 CP1 174 -0.539
79 CP1 175 -0.051
79 CP1 176 -0.051
79 CP1 177 -0.051
79 CP1 178 -0.539
79 CP1 179 -0.539
79 CP1 180 -1.027
79 CP1 181 -1.027
79 CP1 182 -1.027
79 CP1 183 -0.051
79 CP1 184 0.926
79 CP1 185 2.391
79 CP1 186 3.367
79 CP1 187 4.832
79 CP1 188 5.320
79 CP1 189 5.809
79 CP1 190 6.297
79 CP1 191 6.297
79 CP1 192 6.297
79 CP1 193 5.320
79 CP1 194 4.344
79 CP1 195 2.879
79 CP1 196 1.414
79 CP1 197 -0.051
79 CP1 198 -1.027
79 CP1 199 -1.516
79 CP1 200 -2.004
79 CP1 201 -2.492
79 CP1 202 -2.492
79 CP1 203 -2.981
79 CP1 204 -2.981
79 CP1 205 -2.492
79 CP1 206 -1.516
79 CP1 207 0.437
79 CP1 208 2.391
79 CP1 209 3.855
79 CP1 210 4.832
79 CP1 211 5.320
79 CP1 212 4.832
79 CP1 213 3.855
79 CP1 214 2.879
79 CP1 215 1.902
79 CP1 216 0.926
79 CP1 217 -0.051
79 CP1 218 -1.027
79 CP1 219 -2.981
79 CP1 220 -4.445
79 CP1 221 -5.910
79 CP1 222 -6.399
79 CP1 223 -6.399
79 CP1 224 -5.910
79 CP1 225 -5.910
79 CP1 226 -5.422
79 CP1 227 -4.445
79 CP1 228 -3.957
79 CP1 229 -2.981
79 CP1 230 -2.004
79 CP1 231 -1.516
79 CP1 232 -1.516
79 CP1 233 -1.516
79 CP1 234 -1.516
79 CP1 235 -1.516
79 CP1 236 -1.516
79 CP1 237 -1.516
79 CP1 238 -2.004
79 CP1 239 -2.492
79 CP1 240 -2.981
79 CP1 241 -3.469
79 CP1 242 -3.957
79 CP1 243 -4.445
79 CP1 244 -4.934
79 CP1 245 -5.422
79 CP1 246 -5.422
79 CP1 247 -5.422
79 CP1 248 -4.445
79 CP1 249 -3.957
79 CP1 250 -2.492
79 CP1 251 -2.004
79 CP1 252 -2.492
79 CP1 253 -3.469
79 CP1 254 -4.445
79 CP1 255 -5.422
# CP2 chan 21
79 CP2 0 1.689
79 CP2 1 0.712
79 CP2 2 -0.264
79 CP2 3 -0.753
79 CP2 4 -1.729
79 CP2 5 -1.729
79 CP2 6 -1.729
79 CP2 7 -1.729
79 CP2 8 -1.241
79 CP2 9 -0.753
79 CP2 10 0.224
79 CP2 11 1.200
79 CP2 12 1.689
79 CP2 13 1.689
79 CP2 14 2.177
79 CP2 15 2.177
79 CP2 16 2.177
79 CP2 17 1.689
79 CP2 18 0.712
79 CP2 19 0.224
79 CP2 20 0.224
79 CP2 21 0.712
79 CP2 22 0.712
79 CP2 23 0.224
79 CP2 24 -0.753
79 CP2 25 -2.218
79 CP2 26 -3.194
79 CP2 27 -4.171
79 CP2 28 -4.659
79 CP2 29 -5.636
79 CP2 30 -5.636
79 CP2 31 -5.636
79 CP2 32 -5.147
79 CP2 33 -4.171
79 CP2 34 -3.682
79 CP2 35 -3.194
79 CP2 36 -3.194
79 CP2 37 -3.194
79 CP2 38 -2.706
79 CP2 39 -2.218
79 CP2 40 -2.218
79 CP2 41 -2.706
79 CP2 42 -3.194
79 CP2 43 -4.659
79 CP2 44 -5.147
79 CP2 45 -5.147
79 CP2 46 -4.659
79 CP2 47 -4.659
79 CP2 48 -4.171
79 CP2 49 -4.659
79 CP2 50 -4.171
79 CP2 51 -3.194
79 CP2 52 -2.706
79 CP2 53 -2.218
79 CP2 54 -2.218
79 CP2 55 -2.706
79 CP2 56 -3.194
79 CP2 57 -2.706
79 CP2 58 -2.218
79 CP2 59 -0.753
79 CP2 60 0.224
79 CP2 61 1.200
79 CP2 62 1.689
79 CP2 63 1.689
79 CP2 64 1.200
79 CP2 65 0.712
79 CP2 66 -0.264
79 CP2 67 -1.241
79 CP2 68 -2.218
79 CP2 69 -2.706
79 CP2 70 -3.682
79 CP2 71 -4.171
79 CP2 72 -4.659
79 CP2 73 -5.636
79 CP2 74 -6.612
79 CP2 75 -7.589
79 CP2 76 -8.077
79 CP2 77 -8.565
79 CP2 78 -8.565
79 CP2 79 -8.077
79 CP2 80 -7.589
79 CP2 81 -6.612
79 CP2 82 -5.636
79 CP2 83 -4.171
79 CP2 84 -2.706
79 CP2 85 -2.218
79 CP2 86 -2.706
79 CP2 87 -3.194
79 CP2 88 -4.171
79 CP2 89 -4.659
79 CP2 90 -4.659
79 CP2 91 -4.171
79 CP2 92 -3.682
79 CP2 93 -3.194
79 CP2 94 -2.706
79 CP2 95 -2.706
79 CP2 96 -1.729
79 CP2 97 -0.753
79 CP2 98 0.224
79 CP2 99 1.200
79 CP2 100 1.689
79 CP2 101 1.689
79 CP2 102 1.689
79 CP2 103 2.177
79 CP2 104 3.153
79 CP2 105 4.130
79 CP2 106 4.618
79 CP2 107 4.618
79 CP2 108 3.642
79 CP2 109 3.153
79 CP2 110 2.177
79 CP2 111 1.689
79 CP2 112 0.712
79 CP2 113 0.224
79 CP2 114 -0.753
79 CP2 115 -0.264
79 CP2 116 0.712
79 CP2 117 1.689
79 CP2 118 2.177
79 CP2 119 1.689
79 CP2 120 0.712
79 CP2 121 -0.264
79 CP2 122 -0.753
79 CP2 123 -0.264
79 CP2 124 0.224
79 CP2 125 -0.264
79 CP2 126 -1.241
79 CP2 127 -2.706
79 CP2 128 -3.682
79 CP2 129 -4.659
79 CP2 130 -5.147
79 CP2 131 -5.147
79 CP2 132 -4.659
79 CP2 133 -4.659
79 CP2 134 -4.171
79 CP2 135 -3.682
79 CP2 136 -3.194
79 CP2 137 -2.706
79 CP2 138 -2.706
79 CP2 139 -2.706
79 CP2 140 -3.194
79 CP2 141 -3.194
79 CP2 142 -4.659
79 CP2 143 -5.636
79 CP2 144 -5.636
79 CP2 145 -5.636
79 CP2 146 -4.659
79 CP2 147 -3.682
79 CP2 148 -2.706
79 CP2 149 -2.218
79 CP2 150 -1.241
79 CP2 151 -0.264
79 CP2 152 0.712
79 CP2 153 2.177
79 CP2 154 2.665
79 CP2 155 3.153
79 CP2 156 2.665
79 CP2 157 1.200
79 CP2 158 0.224
79 CP2 159 -0.264
79 CP2 160 -0.753
79 CP2 161 -0.264
79 CP2 162 -0.264
79 CP2 163 -0.753
79 CP2 164 -1.241
79 CP2 165 -1.729
79 CP2 166 -2.218
79 CP2 167 -3.194
79 CP2 168 -4.171
79 CP2 169 -4.659
79 CP2 170 -4.659
79 CP2 171 -4.171
79 CP2 172 -3.194
79 CP2 173 -2.218
79 CP2 174 -1.241
79 CP2 175 -0.264
79 CP2 176 0.712
79 CP2 177 1.689
79 CP2 178 2.665
79 CP2 179 2.665
79 CP2 180 2.177
79 CP2 181 1.200
79 CP2 182 -0.264
79 CP2 183 -0.753
79 CP2 184 -0.264
79 CP2 185 0.712
79 CP2 186 2.665
79 CP2 187 3.642
79 CP2 188 4.618
79 CP2 189 4.618
79 CP2 190 5.107
79 CP2 191 5.107
79 CP2 192 4.618
79 CP2 193 4.130
79 CP2 194 3.642
79 CP2 195 3.153
79 CP2 196 2.177
79 CP2 197 1.689
79 CP2 198 1.689
79 CP2 199 1.200
79 CP2 200 0.712
79 CP2 201 0.224
79 CP2 202 -1.241
79 CP2 203 -3.194
79 CP2 204 -4.659
79 CP2 205 -5.636
79 CP2 206 -5.636
79 CP2 207 -4.659
79 CP2 208 -2.706
79 CP2 209 -0.753
79 CP2 210 0.712
79 CP2 211 1.689
79 CP2 212 2.177
79 CP2 213 2.665
79 CP2 214 3.642
79 CP2 215 4.618
79 CP2 216 4.618
79 CP2 217 3.642
79 CP2 218 2.177
79 CP2 219 0.712
79 CP2 220 -0.753
79 CP2 221 -1.729
79 CP2 222 -2.706
79 CP2 223 -4.171
79 CP2 224 -6.612
79 CP2 225 -8.565
79 CP2 226 -9.054
79 CP2 227 -8.565
79 CP2 228 -7.100
79 CP2 229 -4.659
79 CP2 230 -2.706
79 CP2 231 -1.729
79 CP2 232 -1.241
79 CP2 233 -0.264
79 CP2 234 2.177
79 CP2 235 4.618
79 CP2 236 6.571
79 CP2 237 7.548
79 CP2 238 7.060
79 CP2 239 5.595
79 CP2 240 3.642
79 CP2 241 2.177
79 CP2 242 1.200
79 CP2 243 0.224
79 CP2 244 -1.729
79 CP2 245 -3.682
79 CP2 246 -6.124
79 CP2 247 -7.589
79 CP2 248 -8.077
79 CP2 249 -7.589
79 CP2 250 -6.612
79 CP2 251 -6.124
79 CP2 252 -6.612
79 CP2 253 -7.100
79 CP2 254 -8.077
79 CP2 255 -8.565
# P3 chan 22
79 P3 0 3.204
79 P3 1 4.669
79 P3 2 5.157
79 P3 3 4.669
79 P3 4 4.181
79 P3 5 3.204
79 P3 6 2.716
79 P3 7 2.716
79 P3 8 3.204
79 P3 9 3.204
79 P3 10 3.693
79 P3 11 2.716
79 P3 12 1.251
79 P3 13 -0.702
79 P3 14 -3.632
79 P3 15 -5.585
79 P3 16 -7.050
79 P3 17 -8.514
79 P3 18 -9.003
79 P3 19 -9.491
79 P3 20 -8.514
79 P3 21 -7.538
79 P3 22 -6.561
79 P3 23 -5.585
79 P3 24 -4.608
79 P3 25 -3.143
79 P3 26 -1.678
79 P3 27 0.763
79 P3 28 2.228
79 P3 29 2.716
79 P3 30 0.763
79 P3 31 -1.190
79 P3 32 -2.655
79 P3 33 -3.632
79 P3 34 -3.143
79 P3 35 -3.143
79 P3 36 -3.632
79 P3 37 -6.073
79 P3 38 -9.003
79 P3 39 -12.421
79 P3 40 -15.350
79 P3 41 -17.303
79 P3 42 -19.257
79 P3 43 -20.233
79 P3 44 -20.721
79 P3 45 -20.721
79 P3 46 -20.233
79 P3 47 -18.768
79 P3 48 -16.815
79 P3 49 -13.885
79 P3 50 -10.956
79 P3 51 -8.026
79 P3 52 -5.585
79 P3 53 -4.608
79 P3 54 -4.120
79 P3 55 -3.143
79 P3 56 -1.678
79 P3 57 -0.214
79 P3 58 0.763
79 P3 59 0.275
79 P3 60 -1.678
79 P3 61 -3.143
79 P3 62 -3.632
79 P3 63 -3.143
79 P3 64 -2.167
79 P3 65 -3.143
79 P3 66 -5.585
79 P3 67 -8.514
79 P3 68 -10.956
79 P3 69 -11.932
79 P3 70 -11.932
79 P3 71 -11.932
79 P3 72 -11.932
79 P3 73 -12.909
79 P3 74 -13.397
79 P3 75 -12.909
79 P3 76 -12.421
79 P3 77 -10.956
79 P3 78 -9.491
79 P3 79 -9.003
79 P3 80 -8.514
79 P3 81 -7.538
79 P3 82 -6.561
79 P3 83 -5.585
79 P3 84 -4.608
79 P3 85 -4.120
79 P3 86 -4.120
79 P3 87 -3.632
79 P3 88 -4.120
79 P3 89 -4.608
79 P3 90 -5.096
79 P3 91 -5.585
79 P3 92 -6.073
79 P3 93 -6.073
79 P3 94 -6.073
79 P3 95 -6.073
79 P3 96 -6.073
79 P3 97 -5.585
79 P3 98 -4.120
79 P3 99 -2.655
79 P3 100 -1.190
79 P3 101 0.275
79 P3 102 2.228
79 P3 103 5.646
79 P3 104 9.064
79 P3 105 12.970
79 P3 106 14.923
79 P3 107 14.435
79 P3 108 11.993
79 P3 109 9.552
79 P3 110 7.111
79 P3 111 5.646
79 P3 112 3.693
79 P3 113 2.228
79 P3 114 0.763
79 P3 115 -0.214
79 P3 116 -0.214
79 P3 117 -0.214
79 P3 118 -0.214
79 P3 119 -0.702
79 P3 120 -1.190
79 P3 121 -1.190
79 P3 122 0.275
79 P3 123 2.228
79 P3 124 3.693
79 P3 125 4.181
79 P3 126 3.204
79 P3 127 0.763
79 P3 128 -2.167
79 P3 129 -4.608
79 P3 130 -5.585
79 P3 131 -6.073
79 P3 132 -6.561
79 P3 133 -7.538
79 P3 134 -9.003
79 P3 135 -10.956
79 P3 136 -12.421
79 P3 137 -12.421
79 P3 138 -11.444
79 P3 139 -9.491
79 P3 140 -7.050
79 P3 141 -6.073
79 P3 142 -6.073
79 P3 143 -6.561
79 P3 144 -7.538
79 P3 145 -8.026
79 P3 146 -8.026
79 P3 147 -7.050
79 P3 148 -5.096
79 P3 149 -2.655
79 P3 150 -1.678
79 P3 151 -1.190
79 P3 152 -1.678
79 P3 153 -1.678
79 P3 154 -1.678
79 P3 155 -1.190
79 P3 156 -0.702
79 P3 157 -1.190
79 P3 158 -1.678
79 P3 159 -1.678
79 P3 160 -2.167
79 P3 161 -1.190
79 P3 162 -0.702
79 P3 163 0.275
79 P3 164 0.763
79 P3 165 1.251
79 P3 166 1.740
79 P3 167 2.228
79 P3 168 2.228
79 P3 169 2.228
79 P3 170 1.740
79 P3 171 1.251
79 P3 172 0.763
79 P3 173 0.763
79 P3 174 0.275
79 P3 175 0.275
79 P3 176 -0.214
79 P3 177 -1.678
79 P3 178 -3.143
79 P3 179 -5.585
79 P3 180 -7.538
79 P3 181 -9.003
79 P3 182 -9.491
79 P3 183 -7.538
79 P3 184 -4.120
79 P3 185 -0.214
79 P3 186 4.181
79 P3 187 8.087
79 P3 188 11.017
79 P3 189 13.947
79 P3 190 15.900
79 P3 191 16.876
79 P3 192 16.388
79 P3 193 14.435
79 P3 194 11.017
79 P3 195 6.622
79 P3 196 2.716
79 P3 197 -0.702
79 P3 198 -3.632
79 P3 199 -6.073
79 P3 200 -8.026
79 P3 201 -9.979
79 P3 202 -11.932
79 P3 203 -13.885
79 P3 204 -14.862
79 P3 205 -13.885
79 P3 206 -10.956
79 P3 207 -6.073
79 P3 208 -0.214
79 P3 209 6.134
79 P3 210 10.529
79 P3 211 12.970
79 P3 212 13.458
79 P3 213 11.993
79 P3 214 9.552
79 P3 215 7.599
79 P3 216 5.157
79 P3 217 2.228
79 P3 218 -1.190
79 P3 219 -6.073
79 P3 220 -10.468
79 P3 221 -14.374
79 P3 222 -16.327
79 P3 223 -17.792
79 P3 224 -17.792
79 P3 225 -18.280
79 P3 226 -18.280
79 P3 227 -17.303
79 P3 228 -15.839
79 P3 229 -12.909
79 P3 230 -10.468
79 P3 231 -8.026
79 P3 232 -7.050
79 P3 233 -6.073
79 P3 234 -5.096
79 P3 235 -3.632
79 P3 236 -1.678
79 P3 237 -0.214
79 P3 238 0.275
79 P3 239 0.275
79 P3 240 0.275
79 P3 241 -0.214
79 P3 242 -0.702
79 P3 243 -1.190
79 P3 244 -2.167
79 P3 245 -3.632
79 P3 246 -4.608
79 P3 247 -5.096
79 P3 248 -4.608
79 P3 249 -4.120
79 P3 250 -3.632
79 P3 251 -4.120
79 P3 252 -6.073
79 P3 253 -9.003
79 P3 254 -12.421
79 P3 255 -14.862
# P4 chan 23
79 P4 0 1.770
79 P4 1 1.282
79 P4 2 -0.183
79 P4 3 -1.648
79 P4 4 -2.625
79 P4 5 -3.113
79 P4 6 -3.113
79 P4 7 -1.648
79 P4 8 0.305
79 P4 9 2.258
79 P4 10 2.747
79 P4 11 2.258
79 P4 12 1.282
79 P4 13 -0.183
79 P4 14 -1.160
79 P4 15 -1.648
79 P4 16 -2.625
79 P4 17 -4.089
79 P4 18 -5.066
79 P4 19 -6.042
79 P4 20 -5.554
79 P4 21 -3.601
79 P4 22 -1.648
79 P4 23 -1.160
79 P4 24 -2.136
79 P4 25 -4.089
79 P4 26 -5.554
79 P4 27 -6.531
79 P4 28 -7.019
79 P4 29 -7.507
79 P4 30 -8.484
79 P4 31 -8.972
79 P4 32 -9.460
79 P4 33 -8.972
79 P4 34 -8.484
79 P4 35 -7.996
79 P4 36 -7.507
79 P4 37 -7.507
79 P4 38 -7.507
79 P4 39 -7.019
79 P4 40 -7.507
79 P4 41 -8.484
79 P4 42 -10.437
79 P4 43 -12.390
79 P4 44 -13.367
79 P4 45 -13.367
79 P4 46 -12.390
79 P4 47 -11.902
79 P4 48 -10.925
79 P4 49 -9.460
79 P4 50 -7.996
79 P4 51 -5.554
79 P4 52 -3.113
79 P4 53 -0.671
79 P4 54 0.793
79 P4 55 0.793
79 P4 56 1.282
79 P4 57 1.282
79 P4 58 2.747
79 P4 59 4.211
79 P4 60 5.188
79 P4 61 6.165
79 P4 62 6.165
79 P4 63 4.700
79 P4 64 2.747
79 P4 65 -0.183
79 P4 66 -3.113
79 P4 67 -6.042
79 P4 68 -8.484
79 P4 69 -9.949
79 P4 70 -10.437
79 P4 71 -10.437
79 P4 72 -10.437
79 P4 73 -10.925
79 P4 74 -12.878
79 P4 75 -14.343
79 P4 76 -15.320
79 P4 77 -15.320
79 P4 78 -14.832
79 P4 79 -13.855
79 P4 80 -12.390
79 P4 81 -10.925
79 P4 82 -9.460
79 P4 83 -7.507
79 P4 84 -5.554
79 P4 85 -4.578
79 P4 86 -4.578
79 P4 87 -5.554
79 P4 88 -6.531
79 P4 89 -7.019
79 P4 90 -6.531
79 P4 91 -6.531
79 P4 92 -6.042
79 P4 93 -6.042
79 P4 94 -6.042
79 P4 95 -6.531
79 P4 96 -5.554
79 P4 97 -4.089
79 P4 98 -2.136
79 P4 99 -1.160
79 P4 100 -0.183
79 P4 101 -0.183
79 P4 102 0.793
79 P4 103 2.258
79 P4 104 4.211
79 P4 105 6.165
79 P4 106 6.653
79 P4 107 6.653
79 P4 108 5.188
79 P4 109 3.235
79 P4 110 0.793
79 P4 111 -1.160
79 P4 112 -3.113
79 P4 113 -4.089
79 P4 114 -4.578
79 P4 115 -3.601
79 P4 116 -2.136
79 P4 117 -0.671
79 P4 118 -0.671
79 P4 119 -1.648
79 P4 120 -2.625
79 P4 121 -3.601
79 P4 122 -3.113
79 P4 123 -2.136
79 P4 124 -1.648
79 P4 125 -2.136
79 P4 126 -3.601
79 P4 127 -5.066
79 P4 128 -6.531
79 P4 129 -7.507
79 P4 130 -7.996
79 P4 131 -8.972
79 P4 132 -9.949
79 P4 133 -10.437
79 P4 134 -9.949
79 P4 135 -8.484
79 P4 136 -6.531
79 P4 137 -5.066
79 P4 138 -4.089
79 P4 139 -4.089
79 P4 140 -4.578
79 P4 141 -5.554
79 P4 142 -5.554
79 P4 143 -6.042
79 P4 144 -6.531
79 P4 145 -6.042
79 P4 146 -5.554
79 P4 147 -4.578
79 P4 148 -3.113
79 P4 149 -2.136
79 P4 150 -1.160
79 P4 151 -0.183
79 P4 152 0.793
79 P4 153 2.258
79 P4 154 4.211
79 P4 155 5.188
79 P4 156 4.700
79 P4 157 3.235
79 P4 158 1.282
79 P4 159 -0.671
79 P4 160 -1.648
79 P4 161 -1.648
79 P4 162 -1.160
79 P4 163 -1.160
79 P4 164 -1.648
79 P4 165 -2.136
79 P4 166 -3.113
79 P4 167 -4.578
79 P4 168 -6.042
79 P4 169 -6.042
79 P4 170 -5.066
79 P4 171 -3.601
79 P4 172 -1.648
79 P4 173 -1.160
79 P4 174 -1.160
79 P4 175 -1.160
79 P4 176 -1.160
79 P4 177 -0.183
79 P4 178 -0.183
79 P4 179 -1.160
79 P4 180 -3.601
79 P4 181 -6.042
79 P4 182 -7.019
79 P4 183 -6.531
79 P4 184 -3.601
79 P4 185 -1.160
79 P4 186 1.770
79 P4 187 3.723
79 P4 188 5.676
79 P4 189 7.141
79 P4 190 8.606
79 P4 191 9.094
79 P4 192 9.094
79 P4 193 7.629
79 P4 194 5.188
79 P4 195 3.235
79 P4 196 1.282
79 P4 197 -0.183
79 P4 198 -1.160
79 P4 199 -2.625
79 P4 200 -4.578
79 P4 201 -7.019
79 P4 202 -10.437
79 P4 203 -14.343
79 P4 204 -17.761
79 P4 205 -19.714
79 P4 206 -20.203
79 P4 207 -18.250
79 P4 208 -14.832
79 P4 209 -10.437
79 P4 210 -5.554
79 P4 211 -1.160
79 P4 212 3.235
79 P4 213 7.141
79 P4 214 10.559
79 P4 215 13.000
79 P4 216 13.977
79 P4 217 13.000
79 P4 218 10.559
79 P4 219 7.629
79 P4 220 4.700
79 P4 221 1.770
79 P4 222 -2.625
79 P4 223 -7.507
79 P4 224 -13.367
79 P4 225 -18.738
79 P4 226 -22.156
79 P4 227 -22.644
79 P4 228 -21.179
79 P4 229 -18.250
79 P4 230 -14.832
79 P4 231 -11.902
79 P4 232 -9.460
79 P4 233 -5.554
79 P4 234 -0.183
79 P4 235 5.676
79 P4 236 11.047
79 P4 237 14.954
79 P4 238 16.907
79 P4 239 15.930
79 P4 240 14.465
79 P4 241 12.024
79 P4 242 9.583
79 P4 243 7.141
79 P4 244 3.723
79 P4 245 -0.183
79 P4 246 -4.578
79 P4 247 -8.972
79 P4 248 -11.902
79 P4 249 -14.343
79 P4 250 -15.808
79 P4 251 -17.761
79 P4 252 -19.714
79 P4 253 -22.156
79 P4 254 -24.597
79 P4 255 -25.574
# PZ chan 24
79 PZ 0 3.347
79 PZ 1 3.835
79 PZ 2 3.835
79 PZ 3 2.858
79 PZ 4 1.882
79 PZ 5 0.905
79 PZ 6 0.417
79 PZ 7 0.905
79 PZ 8 1.394
79 PZ 9 2.858
79 PZ 10 3.347
79 PZ 11 3.347
79 PZ 12 1.882
79 PZ 13 -0.071
79 PZ 14 -2.024
79 PZ 15 -3.489
79 PZ 16 -4.954
79 PZ 17 -5.931
79 PZ 18 -7.395
79 PZ 19 -7.884
79 PZ 20 -7.884
79 PZ 21 -6.907
79 PZ 22 -5.931
79 PZ 23 -4.954
79 PZ 24 -5.442
79 PZ 25 -5.442
79 PZ 26 -5.442
79 PZ 27 -4.466
79 PZ 28 -3.489
79 PZ 29 -3.001
79 PZ 30 -3.489
79 PZ 31 -5.442
79 PZ 32 -6.419
79 PZ 33 -6.907
79 PZ 34 -6.907
79 PZ 35 -6.419
79 PZ 36 -6.419
79 PZ 37 -7.884
79 PZ 38 -9.349
79 PZ 39 -10.813
79 PZ 40 -11.790
79 PZ 41 -13.255
79 PZ 42 -14.720
79 PZ 43 -16.184
79 PZ 44 -16.673
79 PZ 45 -17.161
79 PZ 46 -16.673
79 PZ 47 -15.696
79 PZ 48 -14.720
79 PZ 49 -13.743
79 PZ 50 -11.302
79 PZ 51 -9.349
79 PZ 52 -6.907
79 PZ 53 -5.442
79 PZ 54 -4.954
79 PZ 55 -5.442
79 PZ 56 -5.442
79 PZ 57 -4.466
79 PZ 58 -3.489
79 PZ 59 -2.513
79 PZ 60 -1.536
79 PZ 61 -1.536
79 PZ 62 -1.048
79 PZ 63 -1.048
79 PZ 64 -1.536
79 PZ 65 -3.001
79 PZ 66 -4.954
79 PZ 67 -7.395
79 PZ 68 -8.860
79 PZ 69 -10.325
79 PZ 70 -10.325
79 PZ 71 -10.813
79 PZ 72 -10.813
79 PZ 73 -11.302
79 PZ 74 -12.767
79 PZ 75 -13.743
79 PZ 76 -14.231
79 PZ 77 -14.720
79 PZ 78 -14.231
79 PZ 79 -13.743
79 PZ 80 -12.278
79 PZ 81 -10.813
79 PZ 82 -8.372
79 PZ 83 -6.419
79 PZ 84 -4.466
79 PZ 85 -3.489
79 PZ 86 -3.001
79 PZ 87 -3.489
79 PZ 88 -3.977
79 PZ 89 -4.954
79 PZ 90 -5.442
79 PZ 91 -5.442
79 PZ 92 -5.442
79 PZ 93 -5.442
79 PZ 94 -5.931
79 PZ 95 -5.442
79 PZ 96 -4.954
79 PZ 97 -3.977
79 PZ 98 -3.001
79 PZ 99 -1.536
79 PZ 100 -0.559
79 PZ 101 0.417
79 PZ 102 1.882
79 PZ 103 4.812
79 PZ 104 8.230
79 PZ 105 11.159
79 PZ 106 12.624
79 PZ 107 12.624
79 PZ 108 11.159
79 PZ 109 8.718
79 PZ 110 6.765
79 PZ 111 5.300
79 PZ 112 3.835
79 PZ 113 2.370
79 PZ 114 1.394
79 PZ 115 1.394
79 PZ 116 1.882
79 PZ 117 2.370
79 PZ 118 2.858
79 PZ 119 1.882
79 PZ 120 0.905
79 PZ 121 0.417
79 PZ 122 0.905
79 PZ 123 1.882
79 PZ 124 3.347
79 PZ 125 3.835
79 PZ 126 2.858
79 PZ 127 -0.071
79 PZ 128 -3.001
79 PZ 129 -5.442
79 PZ 130 -6.907
79 PZ 131 -7.395
79 PZ 132 -7.884
79 PZ 133 -8.372
79 PZ 134 -9.349
79 PZ 135 -9.349
79 PZ 136 -9.349
79 PZ 137 -9.349
79 PZ 138 -8.372
79 PZ 139 -7.395
79 PZ 140 -6.907
79 PZ 141 -6.419
79 PZ 142 -6.419
79 PZ 143 -6.419
79 PZ 144 -7.395
79 PZ 145 -7.884
79 PZ 146 -8.372
79 PZ 147 -7.395
79 PZ 148 -6.419
79 PZ 149 -4.954
79 PZ 150 -4.466
79 PZ 151 -3.977
79 PZ 152 -3.489
79 PZ 153 -3.489
79 PZ 154 -2.513
79 PZ 155 -1.536
79 PZ 156 -1.536
79 PZ 157 -2.024
79 PZ 158 -2.513
79 PZ 159 -3.001
79 PZ 160 -2.513
79 PZ 161 -2.024
79 PZ 162 -1.048
79 PZ 163 -1.048
79 PZ 164 -1.048
79 PZ 165 -1.536
79 PZ 166 -2.513
79 PZ 167 -3.489
79 PZ 168 -4.466
79 PZ 169 -4.954
79 PZ 170 -5.931
79 PZ 171 -5.442
79 PZ 172 -4.954
79 PZ 173 -4.466
79 PZ 174 -3.977
79 PZ 175 -3.001
79 PZ 176 -2.024
79 PZ 177 -0.559
79 PZ 178 -0.071
79 PZ 179 -0.071
79 PZ 180 -1.048
79 PZ 181 -2.513
79 PZ 182 -3.489
79 PZ 183 -2.513
79 PZ 184 -1.048
79 PZ 185 1.882
79 PZ 186 4.323
79 PZ 187 5.788
79 PZ 188 7.253
79 PZ 189 8.718
79 PZ 190 10.183
79 PZ 191 11.648
79 PZ 192 12.136
79 PZ 193 10.671
79 PZ 194 8.230
79 PZ 195 5.300
79 PZ 196 2.858
79 PZ 197 0.417
79 PZ 198 -1.048
79 PZ 199 -2.024
79 PZ 200 -3.489
79 PZ 201 -4.954
79 PZ 202 -6.419
79 PZ 203 -8.372
79 PZ 204 -9.349
79 PZ 205 -10.325
79 PZ 206 -9.349
79 PZ 207 -6.907
79 PZ 208 -3.489
79 PZ 209 -0.071
79 PZ 210 3.347
79 PZ 211 4.812
79 PZ 212 5.788
79 PZ 213 5.300
79 PZ 214 5.300
79 PZ 215 4.812
79 PZ 216 4.323
79 PZ 217 2.858
79 PZ 218 0.905
79 PZ 219 -1.536
79 PZ 220 -3.977
79 PZ 221 -6.419
79 PZ 222 -8.372
79 PZ 223 -9.837
79 PZ 224 -10.813
79 PZ 225 -11.790
79 PZ 226 -12.278
79 PZ 227 -11.302
79 PZ 228 -9.349
79 PZ 229 -6.419
79 PZ 230 -3.977
79 PZ 231 -2.024
79 PZ 232 -1.048
79 PZ 233 -0.071
79 PZ 234 1.882
79 PZ 235 4.323
79 PZ 236 5.788
79 PZ 237 6.765
79 PZ 238 6.276
79 PZ 239 4.323
79 PZ 240 1.394
79 PZ 241 -1.048
79 PZ 242 -3.489
79 PZ 243 -5.442
79 PZ 244 -7.884
79 PZ 245 -10.813
79 PZ 246 -13.255
79 PZ 247 -14.720
79 PZ 248 -14.720
79 PZ 249 -13.255
79 PZ 250 -10.813
79 PZ 251 -9.349
79 PZ 252 -8.372
79 PZ 253 -9.349
79 PZ 254 -10.813
79 PZ 255 -12.278
# P8 chan 25
79 P8 0 1.149
79 P8 1 2.614
79 P8 2 3.103
79 P8 3 3.591
79 P8 4 3.103
79 P8 5 2.614
79 P8 6 2.614
79 P8 7 4.079
79 P8 8 5.544
79 P8 9 7.009
79 P8 10 6.032
79 P8 11 3.591
79 P8 12 0.173
79 P8 13 -2.268
79 P8 14 -2.757
79 P8 15 -2.757
79 P8 16 -3.245
79 P8 17 -5.686
79 P8 18 -9.104
79 P8 19 -11.058
79 P8 20 -10.569
79 P8 21 -8.128
79 P8 22 -5.686
79 P8 23 -4.222
79 P8 24 -4.222
79 P8 25 -5.198
79 P8 26 -5.198
79 P8 27 -4.222
79 P8 28 -3.733
79 P8 29 -4.710
79 P8 30 -6.663
79 P8 31 -8.128
79 P8 32 -7.640
79 P8 33 -5.686
79 P8 34 -3.733
79 P8 35 -3.245
79 P8 36 -4.222
79 P8 37 -6.663
79 P8 38 -8.128
79 P8 39 -8.616
79 P8 40 -10.081
79 P8 41 -11.546
79 P8 42 -13.499
79 P8 43 -14.964
79 P8 44 -15.452
79 P8 45 -14.476
79 P8 46 -13.011
79 P8 47 -11.546
79 P8 48 -10.569
79 P8 49 -10.081
79 P8 50 -8.616
79 P8 51 -5.686
79 P8 52 -1.780
79 P8 53 2.126
79 P8 54 5.544
79 P8 55 7.497
79 P8 56 7.985
79 P8 57 7.985
79 P8 58 7.497
79 P8 59 6.521
79 P8 60 6.032
79 P8 61 5.544
79 P8 62 4.079
79 P8 63 1.638
79 P8 64 -2.268
79 P8 65 -6.663
79 P8 66 -12.034
79 P8 67 -16.429
79 P8 68 -18.870
79 P8 69 -20.823
79 P8 70 -21.311
79 P8 71 -21.800
79 P8 72 -23.265
79 P8 73 -25.218
79 P8 74 -27.659
79 P8 75 -30.101
79 P8 76 -31.077
79 P8 77 -31.565
79 P8 78 -31.565
79 P8 79 -31.077
79 P8 80 -30.101
79 P8 81 -28.147
79 P8 82 -25.706
79 P8 83 -21.800
79 P8 84 -18.870
79 P8 85 -16.917
79 P8 86 -16.429
79 P8 87 -17.405
79 P8 88 -17.893
79 P8 89 -18.382
79 P8 90 -17.893
79 P8 91 -16.917
79 P8 92 -15.940
79 P8 93 -15.940
79 P8 94 -15.940
79 P8 95 -15.940
79 P8 96 -15.452
79 P8 97 -14.964
79 P8 98 -13.499
79 P8 99 -12.034
79 P8 100 -11.058
79 P8 101 -10.081
79 P8 102 -8.616
79 P8 103 -6.175
79 P8 104 -2.268
79 P8 105 1.149
79 P8 106 4.567
79 P8 107 5.544
79 P8 108 5.544
79 P8 109 3.591
79 P8 110 0.661
79 P8 111 -2.757
79 P8 112 -6.175
79 P8 113 -8.128
79 P8 114 -8.616
79 P8 115 -7.640
79 P8 116 -4.710
79 P8 117 -2.268
79 P8 118 -0.315
79 P8 119 -0.315
79 P8 120 -0.804
79 P8 121 -0.804
79 P8 122 -0.315
79 P8 123 0.173
79 P8 124 0.661
79 P8 125 0.173
79 P8 126 -0.804
79 P8 127 -2.268
79 P8 128 -2.757
79 P8 129 -3.733
79 P8 130 -4.222
79 P8 131 -5.686
79 P8 132 -7.151
79 P8 133 -9.104
79 P8 134 -10.081
79 P8 135 -10.081
79 P8 136 -8.616
79 P8 137 -7.151
79 P8 138 -5.686
79 P8 139 -5.198
79 P8 140 -5.198
79 P8 141 -5.686
79 P8 142 -6.175
79 P8 143 -6.175
79 P8 144 -5.198
79 P8 145 -3.733
79 P8 146 -1.292
79 P8 147 2.126
79 P8 148 5.056
79 P8 149 6.521
79 P8 150 6.032
79 P8 151 4.567
79 P8 152 3.103
79 P8 153 1.638
79 P8 154 2.614
79 P8 155 4.079
79 P8 156 4.567
79 P8 157 4.567
79 P8 158 2.614
79 P8 159 0.173
79 P8 160 -1.292
79 P8 161 -1.292
79 P8 162 -0.315
79 P8 163 1.149
79 P8 164 3.103
79 P8 165 3.591
79 P8 166 4.567
79 P8 167 5.056
79 P8 168 7.009
79 P8 169 9.450
79 P8 170 12.380
79 P8 171 13.357
79 P8 172 13.357
79 P8 173 10.915
79 P8 174 8.474
79 P8 175 6.521
79 P8 176 4.567
79 P8 177 2.614
79 P8 178 -0.315
79 P8 179 -3.733
79 P8 180 -7.640
79 P8 181 -9.593
79 P8 182 -9.104
79 P8 183 -6.175
79 P8 184 -2.268
79 P8 185 1.638
79 P8 186 5.056
79 P8 187 7.009
79 P8 188 8.962
79 P8 189 10.427
79 P8 190 11.892
79 P8 191 12.868
79 P8 192 13.357
79 P8 193 12.380
79 P8 194 10.427
79 P8 195 7.985
79 P8 196 5.056
79 P8 197 2.126
79 P8 198 -0.804
79 P8 199 -3.733
79 P8 200 -7.151
79 P8 201 -10.569
79 P8 202 -14.964
79 P8 203 -18.870
79 P8 204 -21.800
79 P8 205 -23.265
79 P8 206 -23.265
79 P8 207 -21.311
79 P8 208 -17.893
79 P8 209 -14.476
79 P8 210 -10.081
79 P8 211 -6.663
79 P8 212 -2.268
79 P8 213 1.638
79 P8 214 6.032
79 P8 215 9.939
79 P8 216 11.403
79 P8 217 10.915
79 P8 218 7.985
79 P8 219 4.079
79 P8 220 0.661
79 P8 221 -2.757
79 P8 222 -6.175
79 P8 223 -11.058
79 P8 224 -16.917
79 P8 225 -23.753
79 P8 226 -29.612
79 P8 227 -32.542
79 P8 228 -32.054
79 P8 229 -29.124
79 P8 230 -24.729
79 P8 231 -20.335
79 P8 232 -16.429
79 P8 233 -12.522
79 P8 234 -7.640
79 P8 235 -2.268
79 P8 236 3.591
79 P8 237 8.962
79 P8 238 13.845
79 P8 239 16.774
79 P8 240 18.728
79 P8 241 19.704
79 P8 242 19.704
79 P8 243 18.239
79 P8 244 16.286
79 P8 245 12.868
79 P8 246 9.450
79 P8 247 5.544
79 P8 248 0.661
79 P8 249 -4.710
79 P8 250 -11.058
79 P8 251 -16.917
79 P8 252 -23.265
79 P8 253 -28.147
79 P8 254 -32.054
79 P8 255 -32.542
# P7 chan 26
79 P7 0 1.109
79 P7 1 4.038
79 P7 2 6.480
79 P7 3 7.945
79 P7 4 8.433
79 P7 5 8.921
79 P7 6 8.921
79 P7 7 8.921
79 P7 8 8.921
79 P7 9 8.433
79 P7 10 7.945
79 P7 11 6.968
79 P7 12 5.015
79 P7 13 2.574
79 P7 14 -0.844
79 P7 15 -4.751
79 P7 16 -8.169
79 P7 17 -10.610
79 P7 18 -12.075
79 P7 19 -12.563
79 P7 20 -11.098
79 P7 21 -9.633
79 P7 22 -7.192
79 P7 23 -5.727
79 P7 24 -3.774
79 P7 25 -0.844
79 P7 26 2.085
79 P7 27 5.015
79 P7 28 6.480
79 P7 29 5.992
79 P7 30 3.550
79 P7 31 0.132
79 P7 32 -2.797
79 P7 33 -4.262
79 P7 34 -3.774
79 P7 35 -2.797
79 P7 36 -4.262
79 P7 37 -6.704
79 P7 38 -11.587
79 P7 39 -16.958
79 P7 40 -20.864
79 P7 41 -23.305
79 P7 42 -24.770
79 P7 43 -26.235
79 P7 44 -26.723
79 P7 45 -27.212
79 P7 46 -26.235
79 P7 47 -23.305
79 P7 48 -18.911
79 P7 49 -14.516
79 P7 50 -9.633
79 P7 51 -6.215
79 P7 52 -4.262
79 P7 53 -2.797
79 P7 54 -0.844
79 P7 55 1.597
79 P7 56 5.015
79 P7 57 6.968
79 P7 58 6.968
79 P7 59 4.038
79 P7 60 -0.844
79 P7 61 -5.727
79 P7 62 -8.169
79 P7 63 -7.680
79 P7 64 -6.704
79 P7 65 -6.215
79 P7 66 -9.145
79 P7 67 -14.028
79 P7 68 -18.911
79 P7 69 -21.352
79 P7 70 -21.352
79 P7 71 -19.887
79 P7 72 -19.399
79 P7 73 -20.864
79 P7 74 -22.329
79 P7 75 -22.329
79 P7 76 -20.864
79 P7 77 -17.934
79 P7 78 -15.981
79 P7 79 -15.981
79 P7 80 -16.958
79 P7 81 -17.446
79 P7 82 -16.469
79 P7 83 -15.004
79 P7 84 -13.540
79 P7 85 -12.563
79 P7 86 -12.563
79 P7 87 -13.051
79 P7 88 -13.540
79 P7 89 -14.516
79 P7 90 -15.004
79 P7 91 -15.493
79 P7 92 -15.493
79 P7 93 -15.004
79 P7 94 -14.516
79 P7 95 -14.516
79 P7 96 -15.004
79 P7 97 -15.493
79 P7 98 -14.516
79 P7 99 -12.563
79 P7 100 -9.145
79 P7 101 -5.239
79 P7 102 -1.333
79 P7 103 2.574
79 P7 104 7.945
79 P7 105 12.828
79 P7 106 16.246
79 P7 107 17.222
79 P7 108 14.781
79 P7 109 9.898
79 P7 110 4.527
79 P7 111 0.132
79 P7 112 -2.309
79 P7 113 -4.262
79 P7 114 -5.239
79 P7 115 -5.727
79 P7 116 -5.239
79 P7 117 -4.751
79 P7 118 -3.774
79 P7 119 -2.309
79 P7 120 -1.333
79 P7 121 0.132
79 P7 122 1.109
79 P7 123 2.574
79 P7 124 3.062
79 P7 125 3.550
79 P7 126 3.062
79 P7 127 1.597
79 P7 128 -0.844
79 P7 129 -3.774
79 P7 130 -6.215
79 P7 131 -7.680
79 P7 132 -8.657
79 P7 133 -9.145
79 P7 134 -10.122
79 P7 135 -12.563
79 P7 136 -14.028
79 P7 137 -15.004
79 P7 138 -14.028
79 P7 139 -11.587
79 P7 140 -8.657
79 P7 141 -5.727
79 P7 142 -4.262
79 P7 143 -3.774
79 P7 144 -3.774
79 P7 145 -4.751
79 P7 146 -5.239
79 P7 147 -5.239
79 P7 148 -4.262
79 P7 149 -2.309
79 P7 150 -0.844
79 P7 151 0.132
79 P7 152 0.132
79 P7 153 -0.356
79 P7 154 -0.844
79 P7 155 -0.844
79 P7 156 -0.356
79 P7 157 -0.356
79 P7 158 -0.356
79 P7 159 -0.844
79 P7 160 -0.844
79 P7 161 -0.356
79 P7 162 1.109
79 P7 163 4.038
79 P7 164 6.968
79 P7 165 10.386
79 P7 166 12.339
79 P7 167 13.804
79 P7 168 14.292
79 P7 169 13.804
79 P7 170 12.828
79 P7 171 10.874
79 P7 172 8.921
79 P7 173 6.480
79 P7 174 4.038
79 P7 175 2.085
79 P7 176 -0.356
79 P7 177 -2.309
79 P7 178 -5.239
79 P7 179 -8.657
79 P7 180 -11.587
79 P7 181 -14.028
79 P7 182 -14.516
79 P7 183 -12.075
79 P7 184 -8.169
79 P7 185 -2.309
79 P7 186 3.062
79 P7 187 7.945
79 P7 188 11.851
79 P7 189 15.757
79 P7 190 18.199
79 P7 191 20.152
79 P7 192 20.152
79 P7 193 18.199
79 P7 194 14.292
79 P7 195 8.921
79 P7 196 3.550
79 P7 197 -0.844
79 P7 198 -3.774
79 P7 199 -5.727
79 P7 200 -6.704
79 P7 201 -8.169
79 P7 202 -10.122
79 P7 203 -12.563
79 P7 204 -14.028
79 P7 205 -14.516
79 P7 206 -12.075
79 P7 207 -8.657
79 P7 208 -3.286
79 P7 209 2.085
79 P7 210 6.480
79 P7 211 9.898
79 P7 212 11.363
79 P7 213 11.363
79 P7 214 10.874
79 P7 215 9.410
79 P7 216 7.945
79 P7 217 5.503
79 P7 218 1.597
79 P7 219 -4.262
79 P7 220 -10.610
79 P7 221 -15.981
79 P7 222 -19.399
79 P7 223 -21.352
79 P7 224 -22.817
79 P7 225 -24.770
79 P7 226 -26.723
79 P7 227 -27.700
79 P7 228 -27.212
79 P7 229 -24.770
79 P7 230 -22.329
79 P7 231 -20.864
79 P7 232 -18.911
79 P7 233 -17.934
79 P7 234 -15.493
79 P7 235 -12.075
79 P7 236 -7.680
79 P7 237 -2.797
79 P7 238 2.085
79 P7 239 6.480
79 P7 240 10.874
79 P7 241 14.292
79 P7 242 16.734
79 P7 243 17.710
79 P7 244 18.199
79 P7 245 17.222
79 P7 246 16.246
79 P7 247 14.781
79 P7 248 12.339
79 P7 249 8.433
79 P7 250 3.550
79 P7 251 -1.821
79 P7 252 -7.680
79 P7 253 -13.051
79 P7 254 -18.422
79 P7 255 -21.840
# PO2 chan 27
79 PO2 0 4.578
79 PO2 1 5.066
79 PO2 2 5.554
79 PO2 3 5.554
79 PO2 4 5.554
79 PO2 5 5.554
79 PO2 6 5.554
79 PO2 7 6.531
79 PO2 8 7.507
79 PO2 9 8.484
79 PO2 10 8.484
79 PO2 11 6.531
79 PO2 12 3.601
79 PO2 13 1.160
79 PO2 14 -0.305
79 PO2 15 -0.793
79 PO2 16 -1.282
79 PO2 17 -2.747
79 PO2 18 -5.676
79 PO2 19 -8.118
79 PO2 20 -9.094
79 PO2 21 -7.629
79 PO2 22 -5.188
79 PO2 23 -3.235
79 PO2 24 -3.235
79 PO2 25 -5.188
79 PO2 26 -7.141
79 PO2 27 -8.606
79 PO2 28 -8.606
79 PO2 29 -8.606
79 PO2 30 -10.071
79 PO2 31 -12.024
79 PO2 32 -13.489
79 PO2 33 -14.465
79 PO2 34 -13.489
79 PO2 35 -12.512
79 PO2 36 -12.024
79 PO2 37 -12.512
79 PO2 38 -13.489
79 PO2 39 -13.977
79 PO2 40 -14.954
79 PO2 41 -15.930
79 PO2 42 -17.883
79 PO2 43 -20.325
79 PO2 44 -21.301
79 PO2 45 -20.813
79 PO2 46 -18.860
79 PO2 47 -16.907
79 PO2 48 -14.954
79 PO2 49 -13.489
79 PO2 50 -11.536
79 PO2 51 -9.094
79 PO2 52 -6.165
79 PO2 53 -3.235
79 PO2 54 -0.305
79 PO2 55 1.160
79 PO2 56 1.160
79 PO2 57 1.648
79 PO2 58 1.648
79 PO2 59 1.648
79 PO2 60 1.648
79 PO2 61 1.648
79 PO2 62 1.648
79 PO2 63 0.671
79 PO2 64 -1.770
79 PO2 65 -5.188
79 PO2 66 -9.583
79 PO2 67 -13.489
79 PO2 68 -15.930
79 PO2 69 -16.418
79 PO2 70 -16.418
79 PO2 71 -16.418
79 PO2 72 -17.395
79 PO2 73 -17.883
79 PO2 74 -19.348
79 PO2 75 -19.348
79 PO2 76 -19.836
79 PO2 77 -19.836
79 PO2 78 -19.836
79 PO2 79 -19.836
79 PO2 80 -18.860
79 PO2 81 -16.418
79 PO2 82 -13.000
79 PO2 83 -10.071
79 PO2 84 -7.141
79 PO2 85 -6.165
79 PO2 86 -6.165
79 PO2 87 -7.141
79 PO2 88 -8.118
79 PO2 89 -8.606
79 PO2 90 -9.094
79 PO2 91 -9.583
79 PO2 92 -10.559
79 PO2 93 -12.024
79 PO2 94 -13.000
79 PO2 95 -13.489
79 PO2 96 -12.512
79 PO2 97 -10.559
79 PO2 98 -9.094
79 PO2 99 -7.629
79 PO2 100 -6.653
79 PO2 101 -6.165
79 PO2 102 -3.723
79 PO2 103 -0.305
79 PO2 104 4.578
79 PO2 105 9.460
79 PO2 106 12.390
79 PO2 107 12.878
79 PO2 108 11.414
79 PO2 109 7.996
79 PO2 110 4.578
79 PO2 111 1.160
79 PO2 112 -1.282
79 PO2 113 -1.770
79 PO2 114 -1.770
79 PO2 115 -0.305
79 PO2 116 1.160
79 PO2 117 2.625
79 PO2 118 3.113
79 PO2 119 2.625
79 PO2 120 2.136
79 PO2 121 2.136
79 PO2 122 3.601
79 PO2 123 5.554
79 PO2 124 7.019
79 PO2 125 7.507
79 PO2 126 6.042
79 PO2 127 4.089
79 PO2 128 1.160
79 PO2 129 -1.282
79 PO2 130 -3.235
79 PO2 131 -5.188
79 PO2 132 -7.141
79 PO2 133 -8.606
79 PO2 134 -9.583
79 PO2 135 -9.094
79 PO2 136 -8.118
79 PO2 137 -6.653
79 PO2 138 -5.188
79 PO2 139 -4.700
79 PO2 140 -4.700
79 PO2 141 -5.188
79 PO2 142 -5.676
79 PO2 143 -6.165
79 PO2 144 -5.676
79 PO2 145 -5.188
79 PO2 146 -3.235
79 PO2 147 -1.770
79 PO2 148 -0.305
79 PO2 149 0.183
79 PO2 150 -0.793
79 PO2 151 -1.282
79 PO2 152 -1.770
79 PO2 153 -0.793
79 PO2 154 1.160
79 PO2 155 2.625
79 PO2 156 3.113
79 PO2 157 2.625
79 PO2 158 1.160
79 PO2 159 -0.305
79 PO2 160 -1.282
79 PO2 161 -0.793
79 PO2 162 0.183
79 PO2 163 1.160
79 PO2 164 1.648
79 PO2 165 1.160
79 PO2 166 0.671
79 PO2 167 -0.305
79 PO2 168 -0.793
79 PO2 169 -0.305
79 PO2 170 1.160
79 PO2 171 2.625
79 PO2 172 2.136
79 PO2 173 0.671
79 PO2 174 -1.282
79 PO2 175 -1.282
79 PO2 176 -0.305
79 PO2 177 1.648
79 PO2 178 2.625
79 PO2 179 0.671
79 PO2 180 -3.235
79 PO2 181 -6.653
79 PO2 182 -8.118
79 PO2 183 -5.676
79 PO2 184 -1.282
79 PO2 185 4.578
79 PO2 186 8.484
79 PO2 187 11.414
79 PO2 188 12.390
79 PO2 189 13.367
79 PO2 190 14.832
79 PO2 191 16.296
79 PO2 192 16.785
79 PO2 193 15.808
79 PO2 194 12.390
79 PO2 195 7.996
79 PO2 196 4.578
79 PO2 197 2.625
79 PO2 198 2.625
