# co2a0000438.rd
# 120 trials, 64 chans, 416 samples 368 post_stim samples
# 3.906000 msecs uV
# S2 match , trial 25
# FP1 chan 0
25 FP1 0 5.147
25 FP1 1 5.147
25 FP1 2 5.147
25 FP1 3 6.124
25 FP1 4 7.100
25 FP1 5 8.077
25 FP1 6 9.054
25 FP1 7 10.030
25 FP1 8 11.495
25 FP1 9 12.960
25 FP1 10 15.401
25 FP1 11 16.866
25 FP1 12 17.354
25 FP1 13 16.866
25 FP1 14 15.889
25 FP1 15 15.401
25 FP1 16 14.913
25 FP1 17 14.913
25 FP1 18 15.401
25 FP1 19 16.378
25 FP1 20 17.354
25 FP1 21 17.354
25 FP1 22 16.866
25 FP1 23 14.425
25 FP1 24 11.007
25 FP1 25 7.589
25 FP1 26 5.636
25 FP1 27 5.636
25 FP1 28 7.589
25 FP1 29 9.542
25 FP1 30 10.518
25 FP1 31 11.495
25 FP1 32 11.495
25 FP1 33 11.495
25 FP1 34 11.495
25 FP1 35 11.495
25 FP1 36 11.495
25 FP1 37 12.472
25 FP1 38 13.936
25 FP1 39 14.913
25 FP1 40 15.401
25 FP1 41 15.401
25 FP1 42 14.913
25 FP1 43 14.913
25 FP1 44 15.401
25 FP1 45 15.401
25 FP1 46 14.913
25 FP1 47 12.960
25 FP1 48 11.495
25 FP1 49 10.518
25 FP1 50 11.495
25 FP1 51 12.960
25 FP1 52 14.425
25 FP1 53 14.425
25 FP1 54 12.472
25 FP1 55 10.030
25 FP1 56 8.565
25 FP1 57 7.100
25 FP1 58 7.100
25 FP1 59 8.077
25 FP1 60 8.565
25 FP1 61 8.565
25 FP1 62 7.589
25 FP1 63 6.124
25 FP1 64 5.147
25 FP1 65 4.659
25 FP1 66 5.636
25 FP1 67 6.612
25 FP1 68 7.100
25 FP1 69 7.100
25 FP1 70 6.124
25 FP1 71 4.659
25 FP1 72 4.171
25 FP1 73 3.682
25 FP1 74 2.218
25 FP1 75 0.753
25 FP1 76 -1.200
25 FP1 77 -3.153
25 FP1 78 -5.107
25 FP1 79 -6.083
25 FP1 80 -7.548
25 FP1 81 -9.501
25 FP1 82 -11.454
25 FP1 83 -12.431
25 FP1 84 -13.407
25 FP1 85 -13.896
25 FP1 86 -14.872
25 FP1 87 -15.849
25 FP1 88 -16.825
25 FP1 89 -17.314
25 FP1 90 -17.314
25 FP1 91 -16.825
25 FP1 92 -15.849
25 FP1 93 -15.361
25 FP1 94 -14.872
25 FP1 95 -14.872
25 FP1 96 -15.361
25 FP1 97 -16.825
25 FP1 98 -17.802
25 FP1 99 -18.778
25 FP1 100 -19.267
25 FP1 101 -19.267
25 FP1 102 -19.267
25 FP1 103 -18.290
25 FP1 104 -16.337
25 FP1 105 -13.407
25 FP1 106 -10.478
25 FP1 107 -9.013
25 FP1 108 -9.501
25 FP1 109 -10.478
25 FP1 110 -10.966
25 FP1 111 -9.501
25 FP1 112 -7.548
25 FP1 113 -6.083
25 FP1 114 -6.571
25 FP1 115 -7.548
25 FP1 116 -8.036
25 FP1 117 -6.571
25 FP1 118 -3.642
25 FP1 119 -1.200
25 FP1 120 0.753
25 FP1 121 1.241
25 FP1 122 1.729
25 FP1 123 2.706
25 FP1 124 4.659
25 FP1 125 6.124
25 FP1 126 6.124
25 FP1 127 5.147
25 FP1 128 3.682
25 FP1 129 3.682
25 FP1 130 4.659
25 FP1 131 5.636
25 FP1 132 5.147
25 FP1 133 2.706
25 FP1 134 -0.712
25 FP1 135 -3.642
25 FP1 136 -4.618
25 FP1 137 -4.618
25 FP1 138 -4.130
25 FP1 139 -4.130
25 FP1 140 -5.107
25 FP1 141 -5.595
25 FP1 142 -5.107
25 FP1 143 -2.665
25 FP1 144 -0.224
25 FP1 145 0.264
25 FP1 146 -1.200
25 FP1 147 -4.130
25 FP1 148 -7.548
25 FP1 149 -9.013
25 FP1 150 -8.036
25 FP1 151 -5.595
25 FP1 152 -2.665
25 FP1 153 -0.712
25 FP1 154 0.264
25 FP1 155 -0.224
25 FP1 156 -0.712
25 FP1 157 -1.200
25 FP1 158 -1.200
25 FP1 159 0.264
25 FP1 160 1.729
25 FP1 161 4.171
25 FP1 162 6.124
25 FP1 163 6.612
25 FP1 164 6.124
25 FP1 165 5.147
25 FP1 166 4.171
25 FP1 167 4.171
25 FP1 168 5.147
25 FP1 169 7.100
25 FP1 170 8.077
25 FP1 171 9.054
25 FP1 172 8.565
25 FP1 173 7.589
25 FP1 174 6.612
25 FP1 175 5.147
25 FP1 176 3.194
25 FP1 177 1.729
25 FP1 178 0.753
25 FP1 179 0.753
25 FP1 180 1.729
25 FP1 181 2.706
25 FP1 182 3.194
25 FP1 183 2.706
25 FP1 184 1.729
25 FP1 185 0.264
25 FP1 186 -0.712
25 FP1 187 -1.689
25 FP1 188 -1.689
25 FP1 189 -1.689
25 FP1 190 -1.200
25 FP1 191 -0.712
25 FP1 192 0.264
25 FP1 193 2.218
25 FP1 194 5.147
25 FP1 195 7.589
25 FP1 196 9.542
25 FP1 197 9.054
25 FP1 198 7.589
25 FP1 199 5.147
25 FP1 200 3.194
25 FP1 201 2.218
25 FP1 202 3.194
25 FP1 203 4.659
25 FP1 204 6.612
25 FP1 205 7.589
25 FP1 206 7.589
25 FP1 207 7.589
25 FP1 208 7.100
25 FP1 209 6.612
25 FP1 210 5.636
25 FP1 211 4.171
25 FP1 212 1.729
25 FP1 213 0.264
25 FP1 214 -0.224
25 FP1 215 0.264
25 FP1 216 2.706
25 FP1 217 4.659
25 FP1 218 6.124
25 FP1 219 4.659
25 FP1 220 2.218
25 FP1 221 -0.224
25 FP1 222 -1.200
25 FP1 223 -1.200
25 FP1 224 -0.712
25 FP1 225 -0.712
25 FP1 226 -1.689
25 FP1 227 -1.689
25 FP1 228 0.264
25 FP1 229 3.194
25 FP1 230 4.659
25 FP1 231 4.171
25 FP1 232 1.241
25 FP1 233 -2.177
25 FP1 234 -3.153
25 FP1 235 -0.712
25 FP1 236 2.706
25 FP1 237 5.636
25 FP1 238 6.124
25 FP1 239 6.612
25 FP1 240 8.565
25 FP1 241 12.472
25 FP1 242 16.866
25 FP1 243 20.772
25 FP1 244 22.237
25 FP1 245 21.749
25 FP1 246 22.237
25 FP1 247 24.679
25 FP1 248 29.561
25 FP1 249 34.932
25 FP1 250 40.304
25 FP1 251 44.210
25 FP1 252 47.628
25 FP1 253 51.534
25 FP1 254 55.440
25 FP1 255 58.858
# FP2 chan 1
25 FP2 0 -0.458
25 FP2 1 1.495
25 FP2 2 3.937
25 FP2 3 4.913
25 FP2 4 5.402
25 FP2 5 4.913
25 FP2 6 5.890
25 FP2 7 6.866
25 FP2 8 8.820
25 FP2 9 11.261
25 FP2 10 12.726
25 FP2 11 12.726
25 FP2 12 11.261
25 FP2 13 8.820
25 FP2 14 6.866
25 FP2 15 5.890
25 FP2 16 6.866
25 FP2 17 7.843
25 FP2 18 8.331
25 FP2 19 7.843
25 FP2 20 7.355
25 FP2 21 8.820
25 FP2 22 10.284
25 FP2 23 11.261
25 FP2 24 8.820
25 FP2 25 3.448
25 FP2 26 -2.899
25 FP2 27 -6.805
25 FP2 28 -7.294
25 FP2 29 -4.852
25 FP2 30 -1.434
25 FP2 31 0.031
25 FP2 32 -0.946
25 FP2 33 -1.923
25 FP2 34 -1.923
25 FP2 35 -1.434
25 FP2 36 -0.458
25 FP2 37 -0.458
25 FP2 38 -1.434
25 FP2 39 -2.411
25 FP2 40 -1.923
25 FP2 41 0.031
25 FP2 42 2.472
25 FP2 43 3.448
25 FP2 44 2.960
25 FP2 45 1.984
25 FP2 46 1.495
25 FP2 47 1.495
25 FP2 48 1.984
25 FP2 49 2.472
25 FP2 50 1.984
25 FP2 51 1.007
25 FP2 52 0.031
25 FP2 53 0.031
25 FP2 54 0.031
25 FP2 55 -0.458
25 FP2 56 -1.434
25 FP2 57 -2.411
25 FP2 58 -2.899
25 FP2 59 -1.923
25 FP2 60 -0.946
25 FP2 61 0.031
25 FP2 62 -0.458
25 FP2 63 -1.434
25 FP2 64 -2.899
25 FP2 65 -3.876
25 FP2 66 -3.876
25 FP2 67 -3.876
25 FP2 68 -3.876
25 FP2 69 -3.876
25 FP2 70 -2.899
25 FP2 71 -1.923
25 FP2 72 -1.434
25 FP2 73 -1.923
25 FP2 74 -3.387
25 FP2 75 -4.364
25 FP2 76 -3.876
25 FP2 77 -2.411
25 FP2 78 -1.923
25 FP2 79 -3.387
25 FP2 80 -8.270
25 FP2 81 -14.130
25 FP2 82 -19.012
25 FP2 83 -20.966
25 FP2 84 -20.966
25 FP2 85 -19.501
25 FP2 86 -19.501
25 FP2 87 -21.454
25 FP2 88 -24.384
25 FP2 89 -27.802
25 FP2 90 -29.755
25 FP2 91 -30.243
25 FP2 92 -29.266
25 FP2 93 -27.313
25 FP2 94 -24.872
25 FP2 95 -23.407
25 FP2 96 -23.407
25 FP2 97 -25.360
25 FP2 98 -28.290
25 FP2 99 -30.243
25 FP2 100 -31.219
25 FP2 101 -30.243
25 FP2 102 -28.778
25 FP2 103 -28.290
25 FP2 104 -28.778
25 FP2 105 -29.266
25 FP2 106 -29.266
25 FP2 107 -27.802
25 FP2 108 -26.825
25 FP2 109 -26.337
25 FP2 110 -26.825
25 FP2 111 -27.313
25 FP2 112 -26.337
25 FP2 113 -24.872
25 FP2 114 -24.384
25 FP2 115 -26.337
25 FP2 116 -29.266
25 FP2 117 -32.196
25 FP2 118 -32.196
25 FP2 119 -28.778
25 FP2 120 -24.384
25 FP2 121 -21.454
25 FP2 122 -20.966
25 FP2 123 -22.919
25 FP2 124 -24.872
25 FP2 125 -24.872
25 FP2 126 -22.919
25 FP2 127 -21.942
25 FP2 128 -22.430
25 FP2 129 -24.384
25 FP2 130 -26.337
25 FP2 131 -26.825
25 FP2 132 -25.848
25 FP2 133 -25.360
25 FP2 134 -26.337
25 FP2 135 -29.755
25 FP2 136 -32.684
25 FP2 137 -34.637
25 FP2 138 -33.661
25 FP2 139 -31.219
25 FP2 140 -28.778
25 FP2 141 -26.337
25 FP2 142 -25.360
25 FP2 143 -24.872
25 FP2 144 -25.360
25 FP2 145 -26.825
25 FP2 146 -29.266
25 FP2 147 -31.708
25 FP2 148 -32.684
25 FP2 149 -31.219
25 FP2 150 -28.290
25 FP2 151 -25.360
25 FP2 152 -24.872
25 FP2 153 -26.337
25 FP2 154 -29.266
25 FP2 155 -30.731
25 FP2 156 -30.243
25 FP2 157 -28.778
25 FP2 158 -27.313
25 FP2 159 -26.337
25 FP2 160 -25.360
25 FP2 161 -24.384
25 FP2 162 -22.430
25 FP2 163 -20.966
25 FP2 164 -20.966
25 FP2 165 -22.919
25 FP2 166 -25.360
25 FP2 167 -25.848
25 FP2 168 -24.872
25 FP2 169 -22.430
25 FP2 170 -20.477
25 FP2 171 -20.477
25 FP2 172 -21.942
25 FP2 173 -22.430
25 FP2 174 -22.430
25 FP2 175 -21.942
25 FP2 176 -21.942
25 FP2 177 -23.895
25 FP2 178 -26.825
25 FP2 179 -28.778
25 FP2 180 -28.778
25 FP2 181 -26.825
25 FP2 182 -24.872
25 FP2 183 -23.407
25 FP2 184 -23.407
25 FP2 185 -24.384
25 FP2 186 -26.337
25 FP2 187 -27.313
25 FP2 188 -27.313
25 FP2 189 -27.313
25 FP2 190 -27.313
25 FP2 191 -27.313
25 FP2 192 -26.825
25 FP2 193 -25.848
25 FP2 194 -23.895
25 FP2 195 -22.430
25 FP2 196 -21.454
25 FP2 197 -21.942
25 FP2 198 -23.407
25 FP2 199 -24.872
25 FP2 200 -25.360
25 FP2 201 -24.872
25 FP2 202 -23.407
25 FP2 203 -21.454
25 FP2 204 -20.966
25 FP2 205 -20.966
25 FP2 206 -21.454
25 FP2 207 -21.942
25 FP2 208 -21.942
25 FP2 209 -22.430
25 FP2 210 -23.895
25 FP2 211 -26.337
25 FP2 212 -28.290
25 FP2 213 -28.290
25 FP2 214 -27.802
25 FP2 215 -25.848
25 FP2 216 -24.384
25 FP2 217 -24.384
25 FP2 218 -26.337
25 FP2 219 -28.778
25 FP2 220 -30.243
25 FP2 221 -31.219
25 FP2 222 -30.731
25 FP2 223 -29.755
25 FP2 224 -28.778
25 FP2 225 -29.266
25 FP2 226 -30.243
25 FP2 227 -31.219
25 FP2 228 -30.731
25 FP2 229 -28.778
25 FP2 230 -26.337
25 FP2 231 -24.872
25 FP2 232 -25.360
25 FP2 233 -27.802
25 FP2 234 -29.755
25 FP2 235 -30.243
25 FP2 236 -29.266
25 FP2 237 -27.802
25 FP2 238 -26.337
25 FP2 239 -24.872
25 FP2 240 -22.919
25 FP2 241 -19.012
25 FP2 242 -15.106
25 FP2 243 -12.665
25 FP2 244 -11.688
25 FP2 245 -11.688
25 FP2 246 -11.200
25 FP2 247 -7.782
25 FP2 248 -1.923
25 FP2 249 3.448
25 FP2 250 6.866
25 FP2 251 8.331
25 FP2 252 9.308
25 FP2 253 11.261
25 FP2 254 14.679
25 FP2 255 17.609
# F7 chan 2
25 F7 0 0.946
25 F7 1 5.829
25 F7 2 7.782
25 F7 3 6.805
25 F7 4 5.829
25 F7 5 6.317
25 F7 6 8.270
25 F7 7 9.735
25 F7 8 8.270
25 F7 9 4.852
25 F7 10 2.411
25 F7 11 1.923
25 F7 12 3.876
25 F7 13 5.829
25 F7 14 6.317
25 F7 15 6.317
25 F7 16 7.294
25 F7 17 8.270
25 F7 18 10.223
25 F7 19 12.177
25 F7 20 13.153
25 F7 21 12.665
25 F7 22 10.712
25 F7 23 6.317
25 F7 24 0.458
25 F7 25 -4.425
25 F7 26 -6.378
25 F7 27 -3.937
25 F7 28 1.434
25 F7 29 6.805
25 F7 30 9.247
25 F7 31 8.759
25 F7 32 6.317
25 F7 33 4.364
25 F7 34 2.411
25 F7 35 1.923
25 F7 36 1.923
25 F7 37 3.387
25 F7 38 5.341
25 F7 39 7.294
25 F7 40 7.782
25 F7 41 6.805
25 F7 42 4.852
25 F7 43 3.387
25 F7 44 4.364
25 F7 45 6.317
25 F7 46 8.270
25 F7 47 8.759
25 F7 48 6.805
25 F7 49 3.876
25 F7 50 1.923
25 F7 51 1.923
25 F7 52 1.923
25 F7 53 1.923
25 F7 54 -0.519
25 F7 55 -3.937
25 F7 56 -6.378
25 F7 57 -5.890
25 F7 58 -2.472
25 F7 59 3.387
25 F7 60 8.270
25 F7 61 9.247
25 F7 62 5.829
25 F7 63 -0.031
25 F7 64 -5.402
25 F7 65 -6.866
25 F7 66 -4.425
25 F7 67 -0.031
25 F7 68 2.899
25 F7 69 3.387
25 F7 70 0.946
25 F7 71 -1.495
25 F7 72 -1.984
25 F7 73 -0.519
25 F7 74 2.411
25 F7 75 4.852
25 F7 76 4.852
25 F7 77 2.899
25 F7 78 -0.031
25 F7 79 -3.448
25 F7 80 -5.890
25 F7 81 -7.355
25 F7 82 -7.843
25 F7 83 -7.843
25 F7 84 -6.866
25 F7 85 -6.866
25 F7 86 -8.820
25 F7 87 -11.749
25 F7 88 -14.679
25 F7 89 -16.632
25 F7 90 -16.144
25 F7 91 -15.167
25 F7 92 -14.191
25 F7 93 -14.191
25 F7 94 -14.679
25 F7 95 -14.679
25 F7 96 -14.191
25 F7 97 -14.679
25 F7 98 -15.167
25 F7 99 -16.144
25 F7 100 -16.632
25 F7 101 -17.609
25 F7 102 -18.585
25 F7 103 -20.538
25 F7 104 -22.491
25 F7 105 -22.980
25 F7 106 -21.027
25 F7 107 -18.097
25 F7 108 -15.656
25 F7 109 -14.679
25 F7 110 -15.167
25 F7 111 -15.656
25 F7 112 -14.679
25 F7 113 -13.214
25 F7 114 -12.238
25 F7 115 -12.238
25 F7 116 -13.214
25 F7 117 -12.238
25 F7 118 -9.308
25 F7 119 -5.402
25 F7 120 -1.984
25 F7 121 -1.495
25 F7 122 -2.960
25 F7 123 -4.425
25 F7 124 -4.913
25 F7 125 -4.425
25 F7 126 -3.448
25 F7 127 -3.448
25 F7 128 -3.937
25 F7 129 -4.425
25 F7 130 -3.937
25 F7 131 -3.448
25 F7 132 -2.960
25 F7 133 -2.472
25 F7 134 -3.448
25 F7 135 -4.913
25 F7 136 -6.378
25 F7 137 -7.843
25 F7 138 -7.843
25 F7 139 -5.890
25 F7 140 -2.472
25 F7 141 0.946
25 F7 142 2.411
25 F7 143 1.434
25 F7 144 -1.007
25 F7 145 -3.448
25 F7 146 -4.913
25 F7 147 -4.913
25 F7 148 -4.425
25 F7 149 -4.425
25 F7 150 -4.425
25 F7 151 -3.937
25 F7 152 -1.984
25 F7 153 0.458
25 F7 154 1.923
25 F7 155 1.923
25 F7 156 0.458
25 F7 157 -0.519
25 F7 158 -1.007
25 F7 159 0.946
25 F7 160 3.387
25 F7 161 4.852
25 F7 162 4.364
25 F7 163 1.923
25 F7 164 -0.519
25 F7 165 -1.984
25 F7 166 -1.984
25 F7 167 -1.007
25 F7 168 -0.031
25 F7 169 -0.519
25 F7 170 -0.519
25 F7 171 0.458
25 F7 172 2.411
25 F7 173 4.364
25 F7 174 4.364
25 F7 175 0.946
25 F7 176 -4.425
25 F7 177 -8.820
25 F7 178 -10.284
25 F7 179 -8.820
25 F7 180 -5.890
25 F7 181 -2.472
25 F7 182 -0.031
25 F7 183 1.434
25 F7 184 2.411
25 F7 185 2.411
25 F7 186 0.946
25 F7 187 -1.984
25 F7 188 -5.402
25 F7 189 -7.355
25 F7 190 -7.355
25 F7 191 -4.425
25 F7 192 -1.007
25 F7 193 1.923
25 F7 194 2.899
25 F7 195 1.923
25 F7 196 0.458
25 F7 197 -0.519
25 F7 198 -1.495
25 F7 199 -1.984
25 F7 200 -3.448
25 F7 201 -4.425
25 F7 202 -3.448
25 F7 203 -0.519
25 F7 204 2.411
25 F7 205 3.387
25 F7 206 2.411
25 F7 207 -0.031
25 F7 208 -1.984
25 F7 209 -1.984
25 F7 210 -1.495
25 F7 211 -2.472
25 F7 212 -5.890
25 F7 213 -10.284
25 F7 214 -13.702
25 F7 215 -12.726
25 F7 216 -7.843
25 F7 217 -1.495
25 F7 218 0.946
25 F7 219 -1.495
25 F7 220 -7.843
25 F7 221 -12.726
25 F7 222 -12.726
25 F7 223 -8.331
25 F7 224 -3.448
25 F7 225 -2.472
25 F7 226 -5.890
25 F7 227 -9.796
25 F7 228 -10.773
25 F7 229 -7.843
25 F7 230 -2.960
25 F7 231 -1.007
25 F7 232 -3.937
25 F7 233 -9.308
25 F7 234 -11.749
25 F7 235 -9.796
25 F7 236 -4.425
25 F7 237 0.458
25 F7 238 1.434
25 F7 239 -0.519
25 F7 240 -2.960
25 F7 241 -2.960
25 F7 242 -0.031
25 F7 243 3.876
25 F7 244 7.294
25 F7 245 7.782
25 F7 246 7.782
25 F7 247 7.782
25 F7 248 8.759
25 F7 249 10.223
25 F7 250 12.665
25 F7 251 16.083
25 F7 252 19.989
25 F7 253 22.919
25 F7 254 23.895
25 F7 255 20.477
# F8 chan 3
25 F8 0 3.479
25 F8 1 3.967
25 F8 2 4.944
25 F8 3 5.432
25 F8 4 6.409
25 F8 5 7.874
25 F8 6 8.850
25 F8 7 9.338
25 F8 8 8.362
25 F8 9 5.432
25 F8 10 3.479
25 F8 11 2.991
25 F8 12 3.967
25 F8 13 5.432
25 F8 14 6.897
25 F8 15 5.920
25 F8 16 3.967
25 F8 17 1.038
25 F8 18 -0.427
25 F8 19 0.061
25 F8 20 2.991
25 F8 21 5.920
25 F8 22 7.385
25 F8 23 6.409
25 F8 24 3.479
25 F8 25 0.549
25 F8 26 -1.404
25 F8 27 -0.916
25 F8 28 1.038
25 F8 29 2.991
25 F8 30 3.967
25 F8 31 4.456
25 F8 32 3.967
25 F8 33 3.479
25 F8 34 2.991
25 F8 35 2.014
25 F8 36 1.526
25 F8 37 1.526
25 F8 38 2.014
25 F8 39 2.991
25 F8 40 3.479
25 F8 41 3.967
25 F8 42 3.479
25 F8 43 2.991
25 F8 44 2.014
25 F8 45 1.526
25 F8 46 0.549
25 F8 47 -1.404
25 F8 48 -3.357
25 F8 49 -4.333
25 F8 50 -4.333
25 F8 51 -3.357
25 F8 52 -1.892
25 F8 53 -0.916
25 F8 54 -1.404
25 F8 55 -3.357
25 F8 56 -5.310
25 F8 57 -7.263
25 F8 58 -7.751
25 F8 59 -7.751
25 F8 60 -7.751
25 F8 61 -7.263
25 F8 62 -7.263
25 F8 63 -7.263
25 F8 64 -8.240
25 F8 65 -8.728
25 F8 66 -9.705
25 F8 67 -10.193
25 F8 68 -9.705
25 F8 69 -8.728
25 F8 70 -7.263
25 F8 71 -6.775
25 F8 72 -7.751
25 F8 73 -9.705
25 F8 74 -12.146
25 F8 75 -13.611
25 F8 76 -13.123
25 F8 77 -10.681
25 F8 78 -8.240
25 F8 79 -6.775
25 F8 80 -7.751
25 F8 81 -9.705
25 F8 82 -11.658
25 F8 83 -12.634
25 F8 84 -12.146
25 F8 85 -11.658
25 F8 86 -12.146
25 F8 87 -14.587
25 F8 88 -17.517
25 F8 89 -19.470
25 F8 90 -19.470
25 F8 91 -18.005
25 F8 92 -15.076
25 F8 93 -13.123
25 F8 94 -12.146
25 F8 95 -12.146
25 F8 96 -13.123
25 F8 97 -13.611
25 F8 98 -13.123
25 F8 99 -11.658
25 F8 100 -10.193
25 F8 101 -10.193
25 F8 102 -11.169
25 F8 103 -12.634
25 F8 104 -13.123
25 F8 105 -12.634
25 F8 106 -11.169
25 F8 107 -9.216
25 F8 108 -9.216
25 F8 109 -9.705
25 F8 110 -9.705
25 F8 111 -8.728
25 F8 112 -6.775
25 F8 113 -5.798
25 F8 114 -6.775
25 F8 115 -9.216
25 F8 116 -12.146
25 F8 117 -13.123
25 F8 118 -12.146
25 F8 119 -10.193
25 F8 120 -8.728
25 F8 121 -8.240
25 F8 122 -8.728
25 F8 123 -8.728
25 F8 124 -7.751
25 F8 125 -6.775
25 F8 126 -6.287
25 F8 127 -6.775
25 F8 128 -7.751
25 F8 129 -8.240
25 F8 130 -7.263
25 F8 131 -5.310
25 F8 132 -4.333
25 F8 133 -4.333
25 F8 134 -5.798
25 F8 135 -8.240
25 F8 136 -9.705
25 F8 137 -10.193
25 F8 138 -8.728
25 F8 139 -6.775
25 F8 140 -4.822
25 F8 141 -3.845
25 F8 142 -3.845
25 F8 143 -4.333
25 F8 144 -4.333
25 F8 145 -4.333
25 F8 146 -4.822
25 F8 147 -4.822
25 F8 148 -5.798
25 F8 149 -5.798
25 F8 150 -5.798
25 F8 151 -6.287
25 F8 152 -7.263
25 F8 153 -8.240
25 F8 154 -9.216
25 F8 155 -9.705
25 F8 156 -8.240
25 F8 157 -6.287
25 F8 158 -4.333
25 F8 159 -3.845
25 F8 160 -3.845
25 F8 161 -4.822
25 F8 162 -5.798
25 F8 163 -6.287
25 F8 164 -7.263
25 F8 165 -7.751
25 F8 166 -8.240
25 F8 167 -8.240
25 F8 168 -6.775
25 F8 169 -4.822
25 F8 170 -3.845
25 F8 171 -3.845
25 F8 172 -5.310
25 F8 173 -7.751
25 F8 174 -8.728
25 F8 175 -8.240
25 F8 176 -7.263
25 F8 177 -6.287
25 F8 178 -6.287
25 F8 179 -7.263
25 F8 180 -7.751
25 F8 181 -7.263
25 F8 182 -5.310
25 F8 183 -3.845
25 F8 184 -4.333
25 F8 185 -5.798
25 F8 186 -8.240
25 F8 187 -9.216
25 F8 188 -9.216
25 F8 189 -7.751
25 F8 190 -6.775
25 F8 191 -6.287
25 F8 192 -5.798
25 F8 193 -5.310
25 F8 194 -3.845
25 F8 195 -2.380
25 F8 196 -0.916
25 F8 197 -0.916
25 F8 198 -1.892
25 F8 199 -4.333
25 F8 200 -6.775
25 F8 201 -8.728
25 F8 202 -8.728
25 F8 203 -7.263
25 F8 204 -5.310
25 F8 205 -2.869
25 F8 206 -1.892
25 F8 207 -2.380
25 F8 208 -3.845
25 F8 209 -5.310
25 F8 210 -5.798
25 F8 211 -5.310
25 F8 212 -4.822
25 F8 213 -4.333
25 F8 214 -4.333
25 F8 215 -4.822
25 F8 216 -5.310
25 F8 217 -6.775
25 F8 218 -8.240
25 F8 219 -10.193
25 F8 220 -12.146
25 F8 221 -13.611
25 F8 222 -13.611
25 F8 223 -12.634
25 F8 224 -11.658
25 F8 225 -12.146
25 F8 226 -13.123
25 F8 227 -14.587
25 F8 228 -14.587
25 F8 229 -13.123
25 F8 230 -11.658
25 F8 231 -11.658
25 F8 232 -12.634
25 F8 233 -14.587
25 F8 234 -14.587
25 F8 235 -13.123
25 F8 236 -9.705
25 F8 237 -8.240
25 F8 238 -7.751
25 F8 239 -8.728
25 F8 240 -9.216
25 F8 241 -8.240
25 F8 242 -6.287
25 F8 243 -5.798
25 F8 244 -7.263
25 F8 245 -9.216
25 F8 246 -9.705
25 F8 247 -8.240
25 F8 248 -4.333
25 F8 249 -0.427
25 F8 250 1.526
25 F8 251 2.502
25 F8 252 2.991
25 F8 253 4.456
25 F8 254 5.920
25 F8 255 6.897
# AF1 chan 4
25 AF1 0 2.248
25 AF1 1 2.248
25 AF1 2 1.760
25 AF1 3 2.248
25 AF1 4 2.736
25 AF1 5 3.713
25 AF1 6 4.690
25 AF1 7 5.666
25 AF1 8 6.643
25 AF1 9 8.108
25 AF1 10 9.084
25 AF1 11 10.061
25 AF1 12 9.572
25 AF1 13 7.619
25 AF1 14 5.666
25 AF1 15 4.201
25 AF1 16 3.225
25 AF1 17 2.736
25 AF1 18 2.248
25 AF1 19 2.248
25 AF1 20 2.736
25 AF1 21 3.713
25 AF1 22 4.201
25 AF1 23 3.713
25 AF1 24 1.272
25 AF1 25 -1.658
25 AF1 26 -3.611
25 AF1 27 -3.611
25 AF1 28 -1.658
25 AF1 29 0.295
25 AF1 30 1.760
25 AF1 31 0.783
25 AF1 32 -1.170
25 AF1 33 -3.123
25 AF1 34 -5.076
25 AF1 35 -5.564
25 AF1 36 -5.076
25 AF1 37 -4.100
25 AF1 38 -3.123
25 AF1 39 -2.635
25 AF1 40 -2.635
25 AF1 41 -3.123
25 AF1 42 -3.611
25 AF1 43 -3.611
25 AF1 44 -3.123
25 AF1 45 -2.146
25 AF1 46 -2.635
25 AF1 47 -4.100
25 AF1 48 -5.564
25 AF1 49 -6.541
25 AF1 50 -6.541
25 AF1 51 -5.564
25 AF1 52 -4.588
25 AF1 53 -5.076
25 AF1 54 -7.029
25 AF1 55 -9.471
25 AF1 56 -10.935
25 AF1 57 -10.935
25 AF1 58 -9.471
25 AF1 59 -8.006
25 AF1 60 -7.517
25 AF1 61 -8.494
25 AF1 62 -10.447
25 AF1 63 -12.400
25 AF1 64 -12.889
25 AF1 65 -11.912
25 AF1 66 -8.982
25 AF1 67 -6.053
25 AF1 68 -3.611
25 AF1 69 -2.635
25 AF1 70 -3.123
25 AF1 71 -4.100
25 AF1 72 -5.076
25 AF1 73 -5.564
25 AF1 74 -6.053
25 AF1 75 -5.564
25 AF1 76 -5.564
25 AF1 77 -6.053
25 AF1 78 -7.029
25 AF1 79 -8.982
25 AF1 80 -10.935
25 AF1 81 -13.377
25 AF1 82 -15.818
25 AF1 83 -17.771
25 AF1 84 -18.748
25 AF1 85 -19.725
25 AF1 86 -19.236
25 AF1 87 -19.236
25 AF1 88 -19.236
25 AF1 89 -20.213
25 AF1 90 -21.189
25 AF1 91 -21.678
25 AF1 92 -21.678
25 AF1 93 -20.213
25 AF1 94 -18.260
25 AF1 95 -16.307
25 AF1 96 -14.842
25 AF1 97 -14.353
25 AF1 98 -14.353
25 AF1 99 -15.330
25 AF1 100 -16.307
25 AF1 101 -17.283
25 AF1 102 -18.260
25 AF1 103 -18.260
25 AF1 104 -17.771
25 AF1 105 -16.307
25 AF1 106 -14.842
25 AF1 107 -13.377
25 AF1 108 -13.377
25 AF1 109 -13.377
25 AF1 110 -13.377
25 AF1 111 -12.889
25 AF1 112 -11.424
25 AF1 113 -10.447
25 AF1 114 -10.935
25 AF1 115 -11.912
25 AF1 116 -12.889
25 AF1 117 -13.377
25 AF1 118 -12.889
25 AF1 119 -11.912
25 AF1 120 -10.447
25 AF1 121 -9.471
25 AF1 122 -8.006
25 AF1 123 -6.053
25 AF1 124 -4.588
25 AF1 125 -3.123
25 AF1 126 -3.123
25 AF1 127 -4.100
25 AF1 128 -5.076
25 AF1 129 -6.053
25 AF1 130 -6.541
25 AF1 131 -6.541
25 AF1 132 -6.541
25 AF1 133 -7.029
25 AF1 134 -8.494
25 AF1 135 -9.471
25 AF1 136 -9.959
25 AF1 137 -9.959
25 AF1 138 -9.959
25 AF1 139 -9.471
25 AF1 140 -8.982
25 AF1 141 -8.494
25 AF1 142 -8.006
25 AF1 143 -8.494
25 AF1 144 -8.982
25 AF1 145 -9.959
25 AF1 146 -10.447
25 AF1 147 -10.447
25 AF1 148 -9.959
25 AF1 149 -9.471
25 AF1 150 -9.471
25 AF1 151 -8.982
25 AF1 152 -8.982
25 AF1 153 -8.494
25 AF1 154 -8.494
25 AF1 155 -8.494
25 AF1 156 -8.982
25 AF1 157 -9.471
25 AF1 158 -9.471
25 AF1 159 -8.494
25 AF1 160 -7.517
25 AF1 161 -6.053
25 AF1 162 -5.076
25 AF1 163 -5.076
25 AF1 164 -7.029
25 AF1 165 -9.471
25 AF1 166 -11.912
25 AF1 167 -12.889
25 AF1 168 -11.912
25 AF1 169 -8.982
25 AF1 170 -5.564
25 AF1 171 -3.123
25 AF1 172 -3.123
25 AF1 173 -4.100
25 AF1 174 -4.588
25 AF1 175 -4.100
25 AF1 176 -3.123
25 AF1 177 -2.635
25 AF1 178 -4.100
25 AF1 179 -6.053
25 AF1 180 -8.006
25 AF1 181 -8.982
25 AF1 182 -8.982
25 AF1 183 -8.006
25 AF1 184 -7.517
25 AF1 185 -8.006
25 AF1 186 -9.471
25 AF1 187 -10.935
25 AF1 188 -11.912
25 AF1 189 -11.424
25 AF1 190 -10.447
25 AF1 191 -9.471
25 AF1 192 -7.517
25 AF1 193 -5.564
25 AF1 194 -3.123
25 AF1 195 -1.170
25 AF1 196 -0.193
25 AF1 197 -1.170
25 AF1 198 -3.611
25 AF1 199 -7.517
25 AF1 200 -10.447
25 AF1 201 -10.935
25 AF1 202 -8.982
25 AF1 203 -6.053
25 AF1 204 -3.123
25 AF1 205 -2.635
25 AF1 206 -3.123
25 AF1 207 -4.588
25 AF1 208 -5.564
25 AF1 209 -5.564
25 AF1 210 -6.053
25 AF1 211 -7.029
25 AF1 212 -8.006
25 AF1 213 -8.494
25 AF1 214 -8.006
25 AF1 215 -7.029
25 AF1 216 -5.564
25 AF1 217 -5.564
25 AF1 218 -7.029
25 AF1 219 -8.982
25 AF1 220 -10.935
25 AF1 221 -12.400
25 AF1 222 -13.377
25 AF1 223 -14.353
25 AF1 224 -14.842
25 AF1 225 -15.330
25 AF1 226 -15.330
25 AF1 227 -14.842
25 AF1 228 -13.865
25 AF1 229 -12.400
25 AF1 230 -10.935
25 AF1 231 -10.447
25 AF1 232 -10.935
25 AF1 233 -12.400
25 AF1 234 -13.377
25 AF1 235 -14.353
25 AF1 236 -13.865
25 AF1 237 -12.889
25 AF1 238 -11.424
25 AF1 239 -9.959
25 AF1 240 -8.494
25 AF1 241 -6.541
25 AF1 242 -4.588
25 AF1 243 -3.611
25 AF1 244 -3.123
25 AF1 245 -2.635
25 AF1 246 -1.170
25 AF1 247 2.248
25 AF1 248 5.666
25 AF1 249 9.572
25 AF1 250 12.014
25 AF1 251 13.479
25 AF1 252 15.432
25 AF1 253 17.385
25 AF1 254 19.338
25 AF1 255 19.826
# AF2 chan 5
25 AF2 0 -2.726
25 AF2 1 -1.750
25 AF2 2 0.203
25 AF2 3 1.668
25 AF2 4 2.645
25 AF2 5 3.621
25 AF2 6 5.086
25 AF2 7 7.039
25 AF2 8 8.504
25 AF2 9 9.481
25 AF2 10 8.993
25 AF2 11 8.016
25 AF2 12 6.551
25 AF2 13 5.086
25 AF2 14 4.110
25 AF2 15 3.133
25 AF2 16 2.157
25 AF2 17 1.668
25 AF2 18 1.668
25 AF2 19 2.157
25 AF2 20 3.133
25 AF2 21 4.110
25 AF2 22 4.110
25 AF2 23 2.645
25 AF2 24 0.203
25 AF2 25 -2.726
25 AF2 26 -4.679
25 AF2 27 -5.656
25 AF2 28 -4.679
25 AF2 29 -3.703
25 AF2 30 -2.726
25 AF2 31 -2.726
25 AF2 32 -3.215
25 AF2 33 -4.191
25 AF2 34 -4.679
25 AF2 35 -5.168
25 AF2 36 -5.168
25 AF2 37 -5.168
25 AF2 38 -4.679
25 AF2 39 -4.679
25 AF2 40 -4.191
25 AF2 41 -4.191
25 AF2 42 -4.191
25 AF2 43 -3.703
25 AF2 44 -3.703
25 AF2 45 -4.191
25 AF2 46 -4.679
25 AF2 47 -5.168
25 AF2 48 -5.168
25 AF2 49 -5.168
25 AF2 50 -5.168
25 AF2 51 -4.679
25 AF2 52 -5.168
25 AF2 53 -6.144
25 AF2 54 -7.121
25 AF2 55 -8.097
25 AF2 56 -8.586
25 AF2 57 -8.586
25 AF2 58 -8.097
25 AF2 59 -8.097
25 AF2 60 -7.609
25 AF2 61 -7.121
25 AF2 62 -7.121
25 AF2 63 -6.632
25 AF2 64 -6.144
25 AF2 65 -6.144
25 AF2 66 -5.656
25 AF2 67 -5.656
25 AF2 68 -6.144
25 AF2 69 -6.632
25 AF2 70 -7.121
25 AF2 71 -7.121
25 AF2 72 -6.632
25 AF2 73 -7.121
25 AF2 74 -8.097
25 AF2 75 -9.562
25 AF2 76 -10.050
25 AF2 77 -10.050
25 AF2 78 -9.074
25 AF2 79 -8.586
25 AF2 80 -8.586
25 AF2 81 -11.027
25 AF2 82 -13.468
25 AF2 83 -15.422
25 AF2 84 -15.910
25 AF2 85 -15.422
25 AF2 86 -14.445
25 AF2 87 -13.468
25 AF2 88 -13.957
25 AF2 89 -14.933
25 AF2 90 -16.398
25 AF2 91 -17.375
25 AF2 92 -16.886
25 AF2 93 -15.422
25 AF2 94 -12.980
25 AF2 95 -11.515
25 AF2 96 -11.027
25 AF2 97 -12.492
25 AF2 98 -13.957
25 AF2 99 -14.933
25 AF2 100 -14.933
25 AF2 101 -14.933
25 AF2 102 -14.445
25 AF2 103 -14.445
25 AF2 104 -14.445
25 AF2 105 -13.957
25 AF2 106 -12.492
25 AF2 107 -11.515
25 AF2 108 -11.027
25 AF2 109 -12.004
25 AF2 110 -12.492
25 AF2 111 -12.492
25 AF2 112 -11.027
25 AF2 113 -9.074
25 AF2 114 -7.609
25 AF2 115 -8.586
25 AF2 116 -10.050
25 AF2 117 -12.004
25 AF2 118 -11.515
25 AF2 119 -10.050
25 AF2 120 -7.609
25 AF2 121 -6.144
25 AF2 122 -5.656
25 AF2 123 -5.656
25 AF2 124 -5.168
25 AF2 125 -4.679
25 AF2 126 -4.191
25 AF2 127 -5.656
25 AF2 128 -8.097
25 AF2 129 -11.027
25 AF2 130 -12.492
25 AF2 131 -12.004
25 AF2 132 -10.539
25 AF2 133 -9.562
25 AF2 134 -9.562
25 AF2 135 -11.515
25 AF2 136 -13.957
25 AF2 137 -15.422
25 AF2 138 -15.422
25 AF2 139 -14.445
25 AF2 140 -13.468
25 AF2 141 -12.492
25 AF2 142 -12.004
25 AF2 143 -11.515
25 AF2 144 -12.004
25 AF2 145 -12.004
25 AF2 146 -13.468
25 AF2 147 -14.933
25 AF2 148 -15.910
25 AF2 149 -15.910
25 AF2 150 -14.933
25 AF2 151 -13.468
25 AF2 152 -12.492
25 AF2 153 -12.004
25 AF2 154 -12.492
25 AF2 155 -12.980
25 AF2 156 -12.980
25 AF2 157 -12.004
25 AF2 158 -11.515
25 AF2 159 -10.539
25 AF2 160 -10.050
25 AF2 161 -9.562
25 AF2 162 -9.074
25 AF2 163 -8.586
25 AF2 164 -9.074
25 AF2 165 -10.539
25 AF2 166 -12.492
25 AF2 167 -13.468
25 AF2 168 -12.980
25 AF2 169 -11.515
25 AF2 170 -10.050
25 AF2 171 -9.562
25 AF2 172 -10.050
25 AF2 173 -11.027
25 AF2 174 -11.515
25 AF2 175 -12.004
25 AF2 176 -12.492
25 AF2 177 -13.468
25 AF2 178 -14.445
25 AF2 179 -14.933
25 AF2 180 -14.933
25 AF2 181 -13.468
25 AF2 182 -12.004
25 AF2 183 -11.027
25 AF2 184 -10.539
25 AF2 185 -11.515
25 AF2 186 -12.980
25 AF2 187 -13.957
25 AF2 188 -14.933
25 AF2 189 -15.422
25 AF2 190 -15.422
25 AF2 191 -14.445
25 AF2 192 -12.980
25 AF2 193 -11.027
25 AF2 194 -8.586
25 AF2 195 -7.121
25 AF2 196 -6.632
25 AF2 197 -7.609
25 AF2 198 -9.562
25 AF2 199 -12.492
25 AF2 200 -14.445
25 AF2 201 -14.933
25 AF2 202 -13.468
25 AF2 203 -12.004
25 AF2 204 -10.050
25 AF2 205 -9.562
25 AF2 206 -10.539
25 AF2 207 -11.515
25 AF2 208 -12.492
25 AF2 209 -13.957
25 AF2 210 -14.933
25 AF2 211 -15.422
25 AF2 212 -15.910
25 AF2 213 -15.910
25 AF2 214 -15.422
25 AF2 215 -14.445
25 AF2 216 -13.957
25 AF2 217 -13.957
25 AF2 218 -14.933
25 AF2 219 -15.910
25 AF2 220 -17.375
25 AF2 221 -17.863
25 AF2 222 -18.840
25 AF2 223 -19.816
25 AF2 224 -20.304
25 AF2 225 -20.793
25 AF2 226 -20.793
25 AF2 227 -21.281
25 AF2 228 -20.304
25 AF2 229 -18.840
25 AF2 230 -17.375
25 AF2 231 -16.886
25 AF2 232 -17.375
25 AF2 233 -18.351
25 AF2 234 -19.816
25 AF2 235 -20.304
25 AF2 236 -19.328
25 AF2 237 -18.351
25 AF2 238 -17.375
25 AF2 239 -16.398
25 AF2 240 -14.445
25 AF2 241 -12.492
25 AF2 242 -10.050
25 AF2 243 -9.074
25 AF2 244 -8.586
25 AF2 245 -9.562
25 AF2 246 -9.562
25 AF2 247 -8.097
25 AF2 248 -5.656
25 AF2 249 -3.215
25 AF2 250 -1.261
25 AF2 251 0.203
25 AF2 252 1.668
25 AF2 253 4.110
25 AF2 254 7.528
25 AF2 255 9.969
# FZ chan 6
25 FZ 0 -2.950
25 FZ 1 -1.973
25 FZ 2 -0.997
25 FZ 3 -0.509
25 FZ 4 -0.020
25 FZ 5 0.468
25 FZ 6 1.444
25 FZ 7 2.421
25 FZ 8 3.886
25 FZ 9 3.886
25 FZ 10 4.374
25 FZ 11 3.886
25 FZ 12 3.398
25 FZ 13 2.909
25 FZ 14 2.421
25 FZ 15 1.933
25 FZ 16 2.421
25 FZ 17 2.909
25 FZ 18 3.398
25 FZ 19 4.374
25 FZ 20 5.351
25 FZ 21 5.839
25 FZ 22 5.839
25 FZ 23 4.374
25 FZ 24 2.421
25 FZ 25 -0.020
25 FZ 26 -1.485
25 FZ 27 -1.485
25 FZ 28 -0.509
25 FZ 29 0.468
25 FZ 30 1.444
25 FZ 31 0.956
25 FZ 32 0.956
25 FZ 33 0.468
25 FZ 34 -0.020
25 FZ 35 -0.020
25 FZ 36 -0.509
25 FZ 37 -0.509
25 FZ 38 -0.020
25 FZ 39 0.468
25 FZ 40 0.468
25 FZ 41 0.468
25 FZ 42 -0.020
25 FZ 43 0.468
25 FZ 44 0.468
25 FZ 45 0.956
25 FZ 46 0.956
25 FZ 47 -0.020
25 FZ 48 -0.997
25 FZ 49 -1.973
25 FZ 50 -1.973
25 FZ 51 -1.973
25 FZ 52 -1.973
25 FZ 53 -1.973
25 FZ 54 -2.950
25 FZ 55 -3.927
25 FZ 56 -4.415
25 FZ 57 -3.927
25 FZ 58 -2.950
25 FZ 59 -1.973
25 FZ 60 -0.997
25 FZ 61 -0.997
25 FZ 62 -1.485
25 FZ 63 -2.462
25 FZ 64 -2.950
25 FZ 65 -2.462
25 FZ 66 -1.973
25 FZ 67 -0.997
25 FZ 68 -0.509
25 FZ 69 -0.997
25 FZ 70 -0.997
25 FZ 71 -1.485
25 FZ 72 -1.973
25 FZ 73 -2.462
25 FZ 74 -3.438
25 FZ 75 -3.927
25 FZ 76 -3.927
25 FZ 77 -3.438
25 FZ 78 -2.950
25 FZ 79 -3.438
25 FZ 80 -4.415
25 FZ 81 -6.856
25 FZ 82 -9.298
25 FZ 83 -11.251
25 FZ 84 -11.739
25 FZ 85 -11.251
25 FZ 86 -10.274
25 FZ 87 -9.786
25 FZ 88 -10.274
25 FZ 89 -11.251
25 FZ 90 -12.716
25 FZ 91 -13.204
25 FZ 92 -12.716
25 FZ 93 -11.739
25 FZ 94 -10.274
25 FZ 95 -9.298
25 FZ 96 -9.298
25 FZ 97 -10.274
25 FZ 98 -11.739
25 FZ 99 -12.716
25 FZ 100 -13.204
25 FZ 101 -13.692
25 FZ 102 -13.692
25 FZ 103 -14.181
25 FZ 104 -13.692
25 FZ 105 -12.227
25 FZ 106 -10.763
25 FZ 107 -9.786
25 FZ 108 -9.786
25 FZ 109 -10.274
25 FZ 110 -10.763
25 FZ 111 -10.274
25 FZ 112 -9.298
25 FZ 113 -8.321
25 FZ 114 -8.321
25 FZ 115 -9.298
25 FZ 116 -10.274
25 FZ 117 -10.763
25 FZ 118 -10.274
25 FZ 119 -8.809
25 FZ 120 -7.345
25 FZ 121 -6.856
25 FZ 122 -6.856
25 FZ 123 -7.345
25 FZ 124 -6.856
25 FZ 125 -5.880
25 FZ 126 -5.391
25 FZ 127 -5.880
25 FZ 128 -6.856
25 FZ 129 -8.321
25 FZ 130 -8.809
25 FZ 131 -8.809
25 FZ 132 -7.833
25 FZ 133 -7.833
25 FZ 134 -8.321
25 FZ 135 -9.786
25 FZ 136 -11.739
25 FZ 137 -13.204
25 FZ 138 -13.692
25 FZ 139 -13.204
25 FZ 140 -12.227
25 FZ 141 -11.739
25 FZ 142 -11.251
25 FZ 143 -11.251
25 FZ 144 -12.227
25 FZ 145 -12.716
25 FZ 146 -13.692
25 FZ 147 -14.669
25 FZ 148 -15.645
25 FZ 149 -15.645
25 FZ 150 -15.645
25 FZ 151 -14.669
25 FZ 152 -13.204
25 FZ 153 -12.227
25 FZ 154 -12.227
25 FZ 155 -12.227
25 FZ 156 -12.716
25 FZ 157 -12.716
25 FZ 158 -11.739
25 FZ 159 -10.763
25 FZ 160 -9.786
25 FZ 161 -9.298
25 FZ 162 -8.809
25 FZ 163 -9.298
25 FZ 164 -10.763
25 FZ 165 -12.716
25 FZ 166 -14.669
25 FZ 167 -15.645
25 FZ 168 -15.645
25 FZ 169 -13.692
25 FZ 170 -11.739
25 FZ 171 -10.274
25 FZ 172 -9.786
25 FZ 173 -10.274
25 FZ 174 -10.763
25 FZ 175 -11.251
25 FZ 176 -11.251
25 FZ 177 -11.739
25 FZ 178 -12.716
25 FZ 179 -13.204
25 FZ 180 -13.204
25 FZ 181 -12.227
25 FZ 182 -10.763
25 FZ 183 -9.298
25 FZ 184 -8.809
25 FZ 185 -9.298
25 FZ 186 -10.274
25 FZ 187 -10.763
25 FZ 188 -11.739
25 FZ 189 -11.739
25 FZ 190 -11.739
25 FZ 191 -11.251
25 FZ 192 -10.763
25 FZ 193 -9.298
25 FZ 194 -7.833
25 FZ 195 -5.880
25 FZ 196 -5.391
25 FZ 197 -5.880
25 FZ 198 -7.833
25 FZ 199 -10.274
25 FZ 200 -12.716
25 FZ 201 -12.716
25 FZ 202 -11.739
25 FZ 203 -9.786
25 FZ 204 -8.321
25 FZ 205 -7.833
25 FZ 206 -7.833
25 FZ 207 -8.809
25 FZ 208 -9.298
25 FZ 209 -9.786
25 FZ 210 -9.786
25 FZ 211 -10.274
25 FZ 212 -10.274
25 FZ 213 -10.274
25 FZ 214 -10.274
25 FZ 215 -9.786
25 FZ 216 -9.298
25 FZ 217 -9.298
25 FZ 218 -8.809
25 FZ 219 -8.809
25 FZ 220 -9.298
25 FZ 221 -10.763
25 FZ 222 -12.227
25 FZ 223 -13.204
25 FZ 224 -13.692
25 FZ 225 -14.181
25 FZ 226 -14.181
25 FZ 227 -14.181
25 FZ 228 -13.204
25 FZ 229 -11.739
25 FZ 230 -9.786
25 FZ 231 -8.809
25 FZ 232 -9.298
25 FZ 233 -10.274
25 FZ 234 -11.251
25 FZ 235 -12.227
25 FZ 236 -11.251
25 FZ 237 -9.786
25 FZ 238 -8.321
25 FZ 239 -7.833
25 FZ 240 -6.856
25 FZ 241 -5.880
25 FZ 242 -4.903
25 FZ 243 -3.927
25 FZ 244 -3.438
25 FZ 245 -3.438
25 FZ 246 -2.950
25 FZ 247 -1.973
25 FZ 248 -0.997
25 FZ 249 0.468
25 FZ 250 1.444
25 FZ 251 1.933
25 FZ 252 2.421
25 FZ 253 3.398
25 FZ 254 4.862
25 FZ 255 5.839
# F4 chan 7
25 F4 0 -0.102
25 F4 1 0.875
25 F4 2 2.340
25 F4 3 2.828
25 F4 4 3.316
25 F4 5 4.293
25 F4 6 4.781
25 F4 7 4.781
25 F4 8 4.781
25 F4 9 5.269
25 F4 10 5.269
25 F4 11 5.269
25 F4 12 5.269
25 F4 13 5.269
25 F4 14 4.781
25 F4 15 4.781
25 F4 16 3.316
25 F4 17 2.340
25 F4 18 1.363
25 F4 19 1.851
25 F4 20 2.828
25 F4 21 4.781
25 F4 22 5.269
25 F4 23 4.781
25 F4 24 2.828
25 F4 25 0.387
25 F4 26 -1.078
25 F4 27 -1.567
25 F4 28 -1.567
25 F4 29 -1.567
25 F4 30 -2.055
25 F4 31 -3.031
25 F4 32 -3.520
25 F4 33 -4.008
25 F4 34 -4.008
25 F4 35 -4.496
25 F4 36 -4.985
25 F4 37 -5.473
25 F4 38 -5.473
25 F4 39 -4.985
25 F4 40 -4.496
25 F4 41 -4.008
25 F4 42 -4.008
25 F4 43 -4.008
25 F4 44 -4.008
25 F4 45 -4.496
25 F4 46 -4.985
25 F4 47 -5.961
25 F4 48 -6.938
25 F4 49 -7.914
25 F4 50 -7.914
25 F4 51 -6.938
25 F4 52 -6.449
25 F4 53 -5.961
25 F4 54 -6.449
25 F4 55 -7.426
25 F4 56 -8.891
25 F4 57 -8.891
25 F4 58 -8.403
25 F4 59 -7.914
25 F4 60 -7.914
25 F4 61 -8.891
25 F4 62 -10.844
25 F4 63 -11.820
25 F4 64 -12.309
25 F4 65 -11.820
25 F4 66 -10.844
25 F4 67 -9.867
25 F4 68 -8.891
25 F4 69 -8.403
25 F4 70 -7.426
25 F4 71 -6.938
25 F4 72 -6.938
25 F4 73 -7.914
25 F4 74 -9.867
25 F4 75 -10.844
25 F4 76 -10.356
25 F4 77 -8.891
25 F4 78 -6.449
25 F4 79 -6.449
25 F4 80 -7.426
25 F4 81 -10.844
25 F4 82 -14.262
25 F4 83 -15.238
25 F4 84 -14.262
25 F4 85 -12.309
25 F4 86 -10.844
25 F4 87 -10.844
25 F4 88 -12.309
25 F4 89 -13.774
25 F4 90 -14.262
25 F4 91 -13.285
25 F4 92 -11.332
25 F4 93 -9.379
25 F4 94 -7.914
25 F4 95 -7.914
25 F4 96 -8.403
25 F4 97 -9.379
25 F4 98 -10.356
25 F4 99 -10.844
25 F4 100 -11.820
25 F4 101 -12.797
25 F4 102 -12.797
25 F4 103 -13.285
25 F4 104 -12.309
25 F4 105 -10.844
25 F4 106 -8.891
25 F4 107 -7.426
25 F4 108 -7.426
25 F4 109 -8.403
25 F4 110 -8.891
25 F4 111 -7.914
25 F4 112 -6.938
25 F4 113 -5.961
25 F4 114 -5.961
25 F4 115 -7.426
25 F4 116 -9.379
25 F4 117 -10.356
25 F4 118 -10.356
25 F4 119 -9.867
25 F4 120 -8.891
25 F4 121 -8.403
25 F4 122 -7.914
25 F4 123 -7.426
25 F4 124 -5.961
25 F4 125 -4.496
25 F4 126 -4.008
25 F4 127 -4.985
25 F4 128 -6.938
25 F4 129 -7.914
25 F4 130 -8.403
25 F4 131 -6.938
25 F4 132 -4.985
25 F4 133 -4.008
25 F4 134 -4.985
25 F4 135 -6.938
25 F4 136 -8.403
25 F4 137 -9.379
25 F4 138 -9.379
25 F4 139 -8.403
25 F4 140 -7.426
25 F4 141 -6.938
25 F4 142 -6.449
25 F4 143 -6.449
25 F4 144 -6.938
25 F4 145 -8.403
25 F4 146 -9.867
25 F4 147 -11.820
25 F4 148 -12.309
25 F4 149 -11.820
25 F4 150 -9.867
25 F4 151 -8.403
25 F4 152 -7.426
25 F4 153 -7.914
25 F4 154 -9.379
25 F4 155 -10.356
25 F4 156 -10.356
25 F4 157 -8.891
25 F4 158 -8.403
25 F4 159 -8.403
25 F4 160 -9.379
25 F4 161 -10.844
25 F4 162 -10.844
25 F4 163 -10.844
25 F4 164 -10.844
25 F4 165 -10.844
25 F4 166 -12.309
25 F4 167 -12.797
25 F4 168 -12.797
25 F4 169 -10.844
25 F4 170 -9.379
25 F4 171 -8.891
25 F4 172 -8.891
25 F4 173 -9.867
25 F4 174 -10.356
25 F4 175 -9.867
25 F4 176 -8.891
25 F4 177 -8.891
25 F4 178 -9.867
25 F4 179 -10.844
25 F4 180 -11.820
25 F4 181 -11.820
25 F4 182 -10.844
25 F4 183 -9.867
25 F4 184 -9.379
25 F4 185 -9.867
25 F4 186 -10.356
25 F4 187 -11.332
25 F4 188 -11.820
25 F4 189 -11.820
25 F4 190 -11.332
25 F4 191 -11.332
25 F4 192 -11.820
25 F4 193 -11.820
25 F4 194 -11.820
25 F4 195 -11.820
25 F4 196 -11.332
25 F4 197 -11.332
25 F4 198 -11.820
25 F4 199 -12.309
25 F4 200 -13.285
25 F4 201 -13.285
25 F4 202 -12.797
25 F4 203 -12.309
25 F4 204 -10.844
25 F4 205 -9.379
25 F4 206 -8.403
25 F4 207 -8.891
25 F4 208 -9.379
25 F4 209 -10.356
25 F4 210 -11.332
25 F4 211 -12.797
25 F4 212 -12.797
25 F4 213 -12.797
25 F4 214 -12.797
25 F4 215 -12.797
25 F4 216 -13.285
25 F4 217 -13.774
25 F4 218 -14.750
25 F4 219 -15.238
25 F4 220 -15.727
25 F4 221 -16.215
25 F4 222 -16.215
25 F4 223 -15.727
25 F4 224 -15.727
25 F4 225 -15.727
25 F4 226 -16.215
25 F4 227 -16.703
25 F4 228 -16.215
25 F4 229 -15.727
25 F4 230 -14.750
25 F4 231 -14.750
25 F4 232 -14.750
25 F4 233 -15.238
25 F4 234 -15.727
25 F4 235 -15.727
25 F4 236 -15.238
25 F4 237 -14.750
25 F4 238 -14.750
25 F4 239 -14.262
25 F4 240 -13.774
25 F4 241 -11.820
25 F4 242 -10.356
25 F4 243 -9.379
25 F4 244 -9.867
25 F4 245 -10.844
25 F4 246 -11.332
25 F4 247 -10.844
25 F4 248 -9.379
25 F4 249 -7.914
25 F4 250 -7.914
25 F4 251 -8.403
25 F4 252 -7.914
25 F4 253 -5.473
25 F4 254 -2.055
25 F4 255 -0.102
# F3 chan 8
25 F3 0 -2.421
25 F3 1 -0.956
25 F3 2 0.509
25 F3 3 1.485
25 F3 4 2.462
25 F3 5 2.950
25 F3 6 3.438
25 F3 7 3.927
25 F3 8 3.927
25 F3 9 4.415
25 F3 10 5.391
25 F3 11 6.856
25 F3 12 8.321
25 F3 13 8.809
25 F3 14 8.809
25 F3 15 7.833
25 F3 16 6.856
25 F3 17 6.368
25 F3 18 7.345
25 F3 19 8.321
25 F3 20 9.298
25 F3 21 9.298
25 F3 22 7.833
25 F3 23 4.903
25 F3 24 1.485
25 F3 25 -1.444
25 F3 26 -2.421
25 F3 27 -1.444
25 F3 28 0.020
25 F3 29 1.973
25 F3 30 2.950
25 F3 31 2.462
25 F3 32 1.973
25 F3 33 0.509
25 F3 34 0.020
25 F3 35 -0.468
25 F3 36 0.020
25 F3 37 0.997
25 F3 38 2.950
25 F3 39 3.927
25 F3 40 4.415
25 F3 41 2.950
25 F3 42 1.485
25 F3 43 0.020
25 F3 44 0.020
25 F3 45 1.485
25 F3 46 2.462
25 F3 47 2.462
25 F3 48 0.997
25 F3 49 -0.956
25 F3 50 -1.933
25 F3 51 -1.444
25 F3 52 -0.468
25 F3 53 -0.956
25 F3 54 -2.421
25 F3 55 -4.862
25 F3 56 -6.816
25 F3 57 -6.327
25 F3 58 -4.374
25 F3 59 -1.444
25 F3 60 0.997
25 F3 61 1.485
25 F3 62 0.509
25 F3 63 -1.444
25 F3 64 -2.909
25 F3 65 -3.398
25 F3 66 -2.421
25 F3 67 -0.468
25 F3 68 1.485
25 F3 69 2.950
25 F3 70 2.462
25 F3 71 0.997
25 F3 72 -0.956
25 F3 73 -2.421
25 F3 74 -2.421
25 F3 75 -0.956
25 F3 76 0.020
25 F3 77 0.020
25 F3 78 -0.956
25 F3 79 -1.933
25 F3 80 -3.398
25 F3 81 -4.374
25 F3 82 -5.351
25 F3 83 -7.304
25 F3 84 -8.769
25 F3 85 -10.234
25 F3 86 -10.234
25 F3 87 -9.257
25 F3 88 -7.792
25 F3 89 -7.304
25 F3 90 -8.769
25 F3 91 -10.722
25 F3 92 -12.675
25 F3 93 -12.675
25 F3 94 -10.722
25 F3 95 -8.769
25 F3 96 -7.792
25 F3 97 -8.280
25 F3 98 -9.745
25 F3 99 -12.187
25 F3 100 -13.163
25 F3 101 -14.628
25 F3 102 -15.605
25 F3 103 -16.581
25 F3 104 -17.558
25 F3 105 -17.069
25 F3 106 -16.093
25 F3 107 -14.140
25 F3 108 -13.652
25 F3 109 -13.652
25 F3 110 -14.140
25 F3 111 -14.140
25 F3 112 -12.675
25 F3 113 -11.698
25 F3 114 -10.722
25 F3 115 -10.722
25 F3 116 -10.722
25 F3 117 -10.722
25 F3 118 -9.745
25 F3 119 -8.769
25 F3 120 -7.792
25 F3 121 -6.816
25 F3 122 -6.327
25 F3 123 -4.862
25 F3 124 -3.886
25 F3 125 -3.398
25 F3 126 -3.886
25 F3 127 -4.862
25 F3 128 -5.351
25 F3 129 -4.862
25 F3 130 -3.886
25 F3 131 -2.909
25 F3 132 -3.398
25 F3 133 -4.862
25 F3 134 -6.816
25 F3 135 -8.769
25 F3 136 -9.257
25 F3 137 -9.257
25 F3 138 -8.769
25 F3 139 -8.769
25 F3 140 -8.280
25 F3 141 -7.792
25 F3 142 -7.792
25 F3 143 -7.792
25 F3 144 -7.792
25 F3 145 -8.280
25 F3 146 -8.769
25 F3 147 -10.234
25 F3 148 -12.675
25 F3 149 -15.116
25 F3 150 -16.093
25 F3 151 -15.116
25 F3 152 -12.675
25 F3 153 -9.745
25 F3 154 -8.280
25 F3 155 -7.792
25 F3 156 -8.769
25 F3 157 -9.257
25 F3 158 -8.769
25 F3 159 -7.792
25 F3 160 -6.327
25 F3 161 -5.839
25 F3 162 -6.327
25 F3 163 -6.816
25 F3 164 -8.280
25 F3 165 -10.234
25 F3 166 -11.210
25 F3 167 -11.698
25 F3 168 -10.722
25 F3 169 -8.769
25 F3 170 -7.304
25 F3 171 -6.327
25 F3 172 -6.327
25 F3 173 -6.327
25 F3 174 -6.327
25 F3 175 -6.327
25 F3 176 -6.327
25 F3 177 -7.304
25 F3 178 -8.769
25 F3 179 -9.745
25 F3 180 -10.722
25 F3 181 -10.722
25 F3 182 -10.234
25 F3 183 -9.257
25 F3 184 -8.280
25 F3 185 -7.792
25 F3 186 -7.304
25 F3 187 -7.792
25 F3 188 -8.769
25 F3 189 -9.745
25 F3 190 -9.745
25 F3 191 -8.769
25 F3 192 -7.304
25 F3 193 -5.351
25 F3 194 -3.886
25 F3 195 -2.909
25 F3 196 -3.398
25 F3 197 -4.862
25 F3 198 -6.327
25 F3 199 -8.280
25 F3 200 -10.234
25 F3 201 -10.722
25 F3 202 -9.745
25 F3 203 -8.280
25 F3 204 -7.304
25 F3 205 -6.816
25 F3 206 -7.792
25 F3 207 -9.745
25 F3 208 -10.722
25 F3 209 -11.210
25 F3 210 -11.210
25 F3 211 -10.722
25 F3 212 -11.210
25 F3 213 -11.698
25 F3 214 -12.187
25 F3 215 -11.210
25 F3 216 -9.745
25 F3 217 -7.792
25 F3 218 -6.816
25 F3 219 -6.816
25 F3 220 -8.769
25 F3 221 -12.187
25 F3 222 -14.628
25 F3 223 -17.069
25 F3 224 -17.558
25 F3 225 -17.069
25 F3 226 -16.093
25 F3 227 -14.628
25 F3 228 -12.675
25 F3 229 -11.210
25 F3 230 -9.257
25 F3 231 -8.769
25 F3 232 -8.769
25 F3 233 -10.234
25 F3 234 -11.210
25 F3 235 -12.187
25 F3 236 -11.698
25 F3 237 -10.722
25 F3 238 -9.257
25 F3 239 -7.792
25 F3 240 -5.839
25 F3 241 -4.862
25 F3 242 -3.398
25 F3 243 -2.909
25 F3 244 -2.421
25 F3 245 -2.421
25 F3 246 -1.933
25 F3 247 -0.468
25 F3 248 0.997
25 F3 249 2.950
25 F3 250 3.927
25 F3 251 4.903
25 F3 252 4.903
25 F3 253 5.391
25 F3 254 5.880
25 F3 255 5.880
# FC6 chan 9
25 FC6 0 1.068
25 FC6 1 2.045
25 FC6 2 2.533
25 FC6 3 3.510
25 FC6 4 4.486
25 FC6 5 6.439
25 FC6 6 6.927
25 FC6 7 6.927
25 FC6 8 4.974
25 FC6 9 3.021
25 FC6 10 1.068
25 FC6 11 1.556
25 FC6 12 3.021
25 FC6 13 4.486
25 FC6 14 5.951
25 FC6 15 4.974
25 FC6 16 2.533
25 FC6 17 0.092
25 FC6 18 -0.885
25 FC6 19 -0.885
25 FC6 20 0.580
25 FC6 21 2.533
25 FC6 22 3.998
25 FC6 23 4.486
25 FC6 24 3.510
25 FC6 25 3.021
25 FC6 26 2.533
25 FC6 27 1.556
25 FC6 28 1.068
25 FC6 29 0.092
25 FC6 30 -0.885
25 FC6 31 -1.373
25 FC6 32 -0.397
25 FC6 33 0.092
25 FC6 34 1.068
25 FC6 35 0.092
25 FC6 36 -1.373
25 FC6 37 -2.838
25 FC6 38 -3.326
25 FC6 39 -3.326
25 FC6 40 -2.350
25 FC6 41 -1.862
25 FC6 42 -1.373
25 FC6 43 -1.862
25 FC6 44 -2.838
25 FC6 45 -3.815
25 FC6 46 -4.303
25 FC6 47 -4.791
25 FC6 48 -6.256
25 FC6 49 -6.744
25 FC6 50 -6.744
25 FC6 51 -6.256
25 FC6 52 -4.791
25 FC6 53 -3.815
25 FC6 54 -4.303
25 FC6 55 -5.280
25 FC6 56 -7.233
25 FC6 57 -8.698
25 FC6 58 -9.186
25 FC6 59 -8.698
25 FC6 60 -7.721
25 FC6 61 -7.721
25 FC6 62 -8.698
25 FC6 63 -11.139
25 FC6 64 -12.604
25 FC6 65 -12.604
25 FC6 66 -11.627
25 FC6 67 -10.162
25 FC6 68 -8.698
25 FC6 69 -7.721
25 FC6 70 -7.721
25 FC6 71 -7.721
25 FC6 72 -8.698
25 FC6 73 -9.674
25 FC6 74 -10.651
25 FC6 75 -11.139
25 FC6 76 -10.162
25 FC6 77 -8.209
25 FC6 78 -6.256
25 FC6 79 -5.280
25 FC6 80 -6.256
25 FC6 81 -7.721
25 FC6 82 -9.674
25 FC6 83 -10.651
25 FC6 84 -11.139
25 FC6 85 -11.627
25 FC6 86 -12.604
25 FC6 87 -15.045
25 FC6 88 -17.487
25 FC6 89 -19.440
25 FC6 90 -19.928
25 FC6 91 -19.440
25 FC6 92 -17.975
25 FC6 93 -16.510
25 FC6 94 -15.533
25 FC6 95 -15.533
25 FC6 96 -16.022
25 FC6 97 -16.510
25 FC6 98 -16.510
25 FC6 99 -16.022
25 FC6 100 -16.022
25 FC6 101 -16.022
25 FC6 102 -16.510
25 FC6 103 -16.022
25 FC6 104 -14.557
25 FC6 105 -12.604
25 FC6 106 -10.651
25 FC6 107 -9.674
25 FC6 108 -10.162
25 FC6 109 -10.651
25 FC6 110 -10.651
25 FC6 111 -9.674
25 FC6 112 -8.698
25 FC6 113 -8.698
25 FC6 114 -10.162
25 FC6 115 -12.115
25 FC6 116 -13.092
25 FC6 117 -12.115
25 FC6 118 -10.651
25 FC6 119 -8.698
25 FC6 120 -7.721
25 FC6 121 -8.698
25 FC6 122 -10.162
25 FC6 123 -10.651
25 FC6 124 -10.651
25 FC6 125 -9.674
25 FC6 126 -9.186
25 FC6 127 -9.674
25 FC6 128 -11.139
25 FC6 129 -12.115
25 FC6 130 -12.115
25 FC6 131 -10.651
25 FC6 132 -8.698
25 FC6 133 -7.721
25 FC6 134 -7.721
25 FC6 135 -9.186
25 FC6 136 -11.139
25 FC6 137 -12.604
25 FC6 138 -12.604
25 FC6 139 -11.627
25 FC6 140 -10.162
25 FC6 141 -8.698
25 FC6 142 -7.233
25 FC6 143 -6.744
25 FC6 144 -6.256
25 FC6 145 -6.744
25 FC6 146 -7.721
25 FC6 147 -9.186
25 FC6 148 -9.674
25 FC6 149 -9.186
25 FC6 150 -8.209
25 FC6 151 -6.744
25 FC6 152 -6.744
25 FC6 153 -7.721
25 FC6 154 -8.209
25 FC6 155 -8.698
25 FC6 156 -8.209
25 FC6 157 -7.233
25 FC6 158 -6.744
25 FC6 159 -7.233
25 FC6 160 -8.698
25 FC6 161 -10.162
25 FC6 162 -11.139
25 FC6 163 -11.139
25 FC6 164 -11.139
25 FC6 165 -12.115
25 FC6 166 -13.580
25 FC6 167 -14.557
25 FC6 168 -14.069
25 FC6 169 -11.627
25 FC6 170 -8.698
25 FC6 171 -7.721
25 FC6 172 -8.698
25 FC6 173 -11.139
25 FC6 174 -12.604
25 FC6 175 -11.627
25 FC6 176 -10.162
25 FC6 177 -8.698
25 FC6 178 -9.674
25 FC6 179 -11.627
25 FC6 180 -14.069
25 FC6 181 -14.069
25 FC6 182 -12.115
25 FC6 183 -9.186
25 FC6 184 -7.721
25 FC6 185 -8.209
25 FC6 186 -9.674
25 FC6 187 -11.627
25 FC6 188 -12.115
25 FC6 189 -11.139
25 FC6 190 -10.162
25 FC6 191 -9.674
25 FC6 192 -10.162
25 FC6 193 -11.139
25 FC6 194 -11.139
25 FC6 195 -10.162
25 FC6 196 -8.698
25 FC6 197 -7.721
25 FC6 198 -8.209
25 FC6 199 -10.162
25 FC6 200 -13.092
25 FC6 201 -15.045
25 FC6 202 -14.557
25 FC6 203 -12.604
25 FC6 204 -9.674
25 FC6 205 -7.721
25 FC6 206 -7.233
25 FC6 207 -7.721
25 FC6 208 -9.186
25 FC6 209 -10.651
25 FC6 210 -10.651
25 FC6 211 -11.139
25 FC6 212 -11.627
25 FC6 213 -13.092
25 FC6 214 -14.557
25 FC6 215 -15.533
25 FC6 216 -15.533
25 FC6 217 -15.533
25 FC6 218 -15.533
25 FC6 219 -16.510
25 FC6 220 -17.975
25 FC6 221 -18.951
25 FC6 222 -18.951
25 FC6 223 -18.463
25 FC6 224 -17.975
25 FC6 225 -17.975
25 FC6 226 -18.951
25 FC6 227 -19.440
25 FC6 228 -18.463
25 FC6 229 -17.487
25 FC6 230 -15.533
25 FC6 231 -14.557
25 FC6 232 -15.533
25 FC6 233 -16.510
25 FC6 234 -17.487
25 FC6 235 -16.510
25 FC6 236 -15.045
25 FC6 237 -13.580
25 FC6 238 -13.580
25 FC6 239 -14.069
25 FC6 240 -15.045
25 FC6 241 -15.533
25 FC6 242 -15.045
25 FC6 243 -14.557
25 FC6 244 -14.557
25 FC6 245 -15.045
25 FC6 246 -15.533
25 FC6 247 -15.533
25 FC6 248 -14.069
25 FC6 249 -13.092
25 FC6 250 -12.115
25 FC6 251 -12.115
25 FC6 252 -12.115
25 FC6 253 -11.627
25 FC6 254 -10.162
25 FC6 255 -9.186
# FC5 chan 10
25 FC5 0 -0.732
25 FC5 1 1.221
25 FC5 2 2.197
25 FC5 3 2.686
25 FC5 4 3.174
25 FC5 5 4.150
25 FC5 6 4.639
25 FC5 7 3.174
25 FC5 8 0.244
25 FC5 9 -2.197
25 FC5 10 -1.709
25 FC5 11 1.221
25 FC5 12 5.615
25 FC5 13 8.545
25 FC5 14 8.057
25 FC5 15 4.150
25 FC5 16 -0.244
25 FC5 17 -2.197
25 FC5 18 -0.732
25 FC5 19 2.686
25 FC5 20 5.127
25 FC5 21 3.662
25 FC5 22 -0.732
25 FC5 23 -5.615
25 FC5 24 -8.057
25 FC5 25 -7.080
25 FC5 26 -3.174
25 FC5 27 0.244
25 FC5 28 1.709
25 FC5 29 1.221
25 FC5 30 -0.244
25 FC5 31 -0.244
25 FC5 32 -0.244
25 FC5 33 -0.732
25 FC5 34 -2.197
25 FC5 35 -3.662
25 FC5 36 -3.174
25 FC5 37 -0.732
25 FC5 38 3.174
25 FC5 39 5.615
25 FC5 40 5.615
25 FC5 41 3.662
25 FC5 42 1.221
25 FC5 43 0.732
25 FC5 44 2.197
25 FC5 45 3.662
25 FC5 46 4.150
25 FC5 47 1.221
25 FC5 48 -3.662
25 FC5 49 -7.568
25 FC5 50 -9.521
25 FC5 51 -8.057
25 FC5 52 -6.104
25 FC5 53 -5.615
25 FC5 54 -8.545
25 FC5 55 -12.939
25 FC5 56 -16.357
25 FC5 57 -16.357
25 FC5 58 -12.939
25 FC5 59 -7.568
25 FC5 60 -3.662
25 FC5 61 -2.197
25 FC5 62 -4.150
25 FC5 63 -7.568
25 FC5 64 -10.498
25 FC5 65 -11.475
25 FC5 66 -10.498
25 FC5 67 -9.033
25 FC5 68 -7.568
25 FC5 69 -7.080
25 FC5 70 -8.057
25 FC5 71 -9.521
25 FC5 72 -10.010
25 FC5 73 -8.545
25 FC5 74 -5.615
25 FC5 75 -2.197
25 FC5 76 -0.244
25 FC5 77 -1.221
25 FC5 78 -3.662
25 FC5 79 -6.104
25 FC5 80 -7.080
25 FC5 81 -5.615
25 FC5 82 -4.639
25 FC5 83 -6.104
25 FC5 84 -10.010
25 FC5 85 -15.381
25 FC5 86 -18.311
25 FC5 87 -17.334
25 FC5 88 -13.916
25 FC5 89 -12.451
25 FC5 90 -15.381
25 FC5 91 -21.240
25 FC5 92 -26.123
25 FC5 93 -26.123
25 FC5 94 -21.240
25 FC5 95 -15.381
25 FC5 96 -13.428
25 FC5 97 -16.357
25 FC5 98 -22.217
25 FC5 99 -26.123
25 FC5 100 -26.123
25 FC5 101 -23.682
25 FC5 102 -22.217
25 FC5 103 -24.170
25 FC5 104 -28.076
25 FC5 105 -30.518
25 FC5 106 -28.564
25 FC5 107 -23.193
25 FC5 108 -18.311
25 FC5 109 -16.357
25 FC5 110 -17.822
25 FC5 111 -20.752
25 FC5 112 -21.729
25 FC5 113 -20.752
25 FC5 114 -18.311
25 FC5 115 -16.846
25 FC5 116 -16.357
25 FC5 117 -16.846
25 FC5 118 -17.334
25 FC5 119 -17.334
25 FC5 120 -15.869
25 FC5 121 -13.428
25 FC5 122 -10.498
25 FC5 123 -8.057
25 FC5 124 -7.568
25 FC5 125 -8.545
25 FC5 126 -10.986
25 FC5 127 -12.451
25 FC5 128 -11.963
25 FC5 129 -10.010
25 FC5 130 -8.057
25 FC5 131 -8.057
25 FC5 132 -9.521
25 FC5 133 -11.963
25 FC5 134 -12.939
25 FC5 135 -12.451
25 FC5 136 -11.963
25 FC5 137 -11.963
25 FC5 138 -11.963
25 FC5 139 -10.986
25 FC5 140 -8.545
25 FC5 141 -5.615
25 FC5 142 -5.127
25 FC5 143 -6.104
25 FC5 144 -7.568
25 FC5 145 -7.568
25 FC5 146 -6.104
25 FC5 147 -5.127
25 FC5 148 -7.568
25 FC5 149 -13.428
25 FC5 150 -18.311
25 FC5 151 -18.799
25 FC5 152 -13.916
25 FC5 153 -7.080
25 FC5 154 -3.174
25 FC5 155 -5.127
25 FC5 156 -9.521
25 FC5 157 -12.451
25 FC5 158 -10.986
25 FC5 159 -6.592
25 FC5 160 -3.174
25 FC5 161 -3.662
25 FC5 162 -8.057
25 FC5 163 -13.428
25 FC5 164 -17.334
25 FC5 165 -18.311
25 FC5 166 -17.334
25 FC5 167 -16.357
25 FC5 168 -15.381
25 FC5 169 -14.404
25 FC5 170 -12.939
25 FC5 171 -11.475
25 FC5 172 -10.498
25 FC5 173 -10.498
25 FC5 174 -10.498
25 FC5 175 -10.010
25 FC5 176 -10.010
25 FC5 177 -10.010
25 FC5 178 -10.498
25 FC5 179 -10.010
25 FC5 180 -9.521
25 FC5 181 -8.545
25 FC5 182 -9.033
25 FC5 183 -10.498
25 FC5 184 -12.939
25 FC5 185 -14.893
25 FC5 186 -14.893
25 FC5 187 -13.916
25 FC5 188 -13.428
25 FC5 189 -13.428
25 FC5 190 -14.893
25 FC5 191 -15.381
25 FC5 192 -13.428
25 FC5 193 -10.010
25 FC5 194 -7.080
25 FC5 195 -5.615
25 FC5 196 -7.080
25 FC5 197 -9.521
25 FC5 198 -11.963
25 FC5 199 -13.428
25 FC5 200 -13.916
25 FC5 201 -12.939
25 FC5 202 -11.963
25 FC5 203 -10.498
25 FC5 204 -8.545
25 FC5 205 -6.592
25 FC5 206 -6.592
25 FC5 207 -9.033
25 FC5 208 -11.963
25 FC5 209 -14.893
25 FC5 210 -15.381
25 FC5 211 -14.404
25 FC5 212 -13.916
25 FC5 213 -14.893
25 FC5 214 -17.334
25 FC5 215 -18.311
25 FC5 216 -17.334
25 FC5 217 -12.939
25 FC5 218 -8.057
25 FC5 219 -5.615
25 FC5 220 -8.057
25 FC5 221 -13.916
25 FC5 222 -21.240
25 FC5 223 -26.123
25 FC5 224 -27.100
25 FC5 225 -24.658
25 FC5 226 -20.752
25 FC5 227 -16.846
25 FC5 228 -14.404
25 FC5 229 -14.404
25 FC5 230 -14.893
25 FC5 231 -15.869
25 FC5 232 -16.357
25 FC5 233 -16.846
25 FC5 234 -16.846
25 FC5 235 -17.822
25 FC5 236 -18.311
25 FC5 237 -17.334
25 FC5 238 -15.381
25 FC5 239 -12.939
25 FC5 240 -11.475
25 FC5 241 -10.986
25 FC5 242 -11.963
25 FC5 243 -12.451
25 FC5 244 -11.963
25 FC5 245 -11.475
25 FC5 246 -10.010
25 FC5 247 -8.545
25 FC5 248 -7.080
25 FC5 249 -5.127
25 FC5 250 -3.662
25 FC5 251 -2.686
25 FC5 252 -4.150
25 FC5 253 -7.080
25 FC5 254 -10.010
25 FC5 255 -10.986
# FC2 chan 11
25 FC2 0 -4.252
25 FC2 1 -3.764
25 FC2 2 -3.764
25 FC2 3 -3.276
25 FC2 4 -2.787
25 FC2 5 -2.787
25 FC2 6 -2.787
25 FC2 7 -2.787
25 FC2 8 -3.276
25 FC2 9 -3.276
25 FC2 10 -2.787
25 FC2 11 -1.811
25 FC2 12 -0.834
25 FC2 13 0.142
25 FC2 14 0.631
25 FC2 15 0.142
25 FC2 16 -0.834
25 FC2 17 -1.811
25 FC2 18 -2.299
25 FC2 19 -1.811
25 FC2 20 -0.834
25 FC2 21 0.142
25 FC2 22 -0.346
25 FC2 23 -1.322
25 FC2 24 -2.787
25 FC2 25 -3.276
25 FC2 26 -3.276
25 FC2 27 -2.299
25 FC2 28 -1.811
25 FC2 29 -1.811
25 FC2 30 -2.787
25 FC2 31 -3.764
25 FC2 32 -4.740
25 FC2 33 -4.252
25 FC2 34 -4.252
25 FC2 35 -4.252
25 FC2 36 -4.740
25 FC2 37 -5.229
25 FC2 38 -5.717
25 FC2 39 -6.205
25 FC2 40 -7.182
25 FC2 41 -8.158
25 FC2 42 -8.647
25 FC2 43 -9.135
25 FC2 44 -8.647
25 FC2 45 -8.647
25 FC2 46 -9.135
25 FC2 47 -10.111
25 FC2 48 -11.576
25 FC2 49 -13.529
25 FC2 50 -14.506
25 FC2 51 -14.506
25 FC2 52 -14.018
25 FC2 53 -13.529
25 FC2 54 -13.041
25 FC2 55 -13.529
25 FC2 56 -14.018
25 FC2 57 -14.018
25 FC2 58 -12.553
25 FC2 59 -11.088
25 FC2 60 -9.623
25 FC2 61 -8.647
25 FC2 62 -9.135
25 FC2 63 -10.111
25 FC2 64 -10.111
25 FC2 65 -9.135
25 FC2 66 -7.670
25 FC2 67 -6.694
25 FC2 68 -6.694
25 FC2 69 -6.694
25 FC2 70 -7.670
25 FC2 71 -8.647
25 FC2 72 -9.623
25 FC2 73 -10.600
25 FC2 74 -12.065
25 FC2 75 -12.553
25 FC2 76 -12.553
25 FC2 77 -11.088
25 FC2 78 -8.647
25 FC2 79 -7.182
25 FC2 80 -7.182
25 FC2 81 -8.647
25 FC2 82 -10.600
25 FC2 83 -12.553
25 FC2 84 -12.553
25 FC2 85 -12.553
25 FC2 86 -12.065
25 FC2 87 -12.553
25 FC2 88 -13.529
25 FC2 89 -14.506
25 FC2 90 -14.994
25 FC2 91 -14.506
25 FC2 92 -13.529
25 FC2 93 -12.553
25 FC2 94 -11.576
25 FC2 95 -11.088
25 FC2 96 -10.600
25 FC2 97 -10.111
25 FC2 98 -9.623
25 FC2 99 -10.111
25 FC2 100 -10.600
25 FC2 101 -11.576
25 FC2 102 -13.041
25 FC2 103 -13.041
25 FC2 104 -11.576
25 FC2 105 -9.135
25 FC2 106 -7.670
25 FC2 107 -7.670
25 FC2 108 -9.135
25 FC2 109 -10.600
25 FC2 110 -10.600
25 FC2 111 -9.623
25 FC2 112 -8.158
25 FC2 113 -7.670
25 FC2 114 -8.647
25 FC2 115 -10.600
25 FC2 116 -12.065
25 FC2 117 -12.065
25 FC2 118 -10.600
25 FC2 119 -9.623
25 FC2 120 -9.623
25 FC2 121 -10.600
25 FC2 122 -11.576
25 FC2 123 -12.065
25 FC2 124 -11.088
25 FC2 125 -9.623
25 FC2 126 -8.647
25 FC2 127 -9.135
25 FC2 128 -10.111
25 FC2 129 -11.088
25 FC2 130 -11.088
25 FC2 131 -10.111
25 FC2 132 -9.135
25 FC2 133 -8.647
25 FC2 134 -9.135
25 FC2 135 -10.111
25 FC2 136 -10.600
25 FC2 137 -10.600
25 FC2 138 -10.111
25 FC2 139 -9.135
25 FC2 140 -8.647
25 FC2 141 -8.158
25 FC2 142 -7.670
25 FC2 143 -7.182
25 FC2 144 -7.182
25 FC2 145 -7.182
25 FC2 146 -8.647
25 FC2 147 -9.623
25 FC2 148 -10.111
25 FC2 149 -10.600
25 FC2 150 -9.623
25 FC2 151 -8.158
25 FC2 152 -7.670
25 FC2 153 -8.158
25 FC2 154 -8.647
25 FC2 155 -9.135
25 FC2 156 -8.647
25 FC2 157 -8.158
25 FC2 158 -7.670
25 FC2 159 -8.158
25 FC2 160 -9.623
25 FC2 161 -10.600
25 FC2 162 -10.600
25 FC2 163 -10.600
25 FC2 164 -10.600
25 FC2 165 -12.553
25 FC2 166 -14.994
25 FC2 167 -16.947
25 FC2 168 -16.947
25 FC2 169 -14.994
25 FC2 170 -12.553
25 FC2 171 -11.088
25 FC2 172 -10.600
25 FC2 173 -11.576
25 FC2 174 -12.553
25 FC2 175 -12.065
25 FC2 176 -11.088
25 FC2 177 -11.088
25 FC2 178 -12.065
25 FC2 179 -13.529
25 FC2 180 -14.506
25 FC2 181 -13.529
25 FC2 182 -11.576
25 FC2 183 -9.623
25 FC2 184 -9.135
25 FC2 185 -9.135
25 FC2 186 -10.111
25 FC2 187 -11.088
25 FC2 188 -11.088
25 FC2 189 -11.088
25 FC2 190 -10.600
25 FC2 191 -10.600
25 FC2 192 -10.600
25 FC2 193 -11.088
25 FC2 194 -10.600
25 FC2 195 -10.111
25 FC2 196 -9.135
25 FC2 197 -9.135
25 FC2 198 -10.111
25 FC2 199 -12.065
25 FC2 200 -14.018
25 FC2 201 -14.506
25 FC2 202 -13.041
25 FC2 203 -10.600
25 FC2 204 -8.158
25 FC2 205 -7.670
25 FC2 206 -8.647
25 FC2 207 -9.623
25 FC2 208 -10.600
25 FC2 209 -10.600
25 FC2 210 -10.600
25 FC2 211 -10.600
25 FC2 212 -11.576
25 FC2 213 -12.553
25 FC2 214 -13.041
25 FC2 215 -13.041
25 FC2 216 -12.065
25 FC2 217 -11.088
25 FC2 218 -10.600
25 FC2 219 -11.576
25 FC2 220 -12.553
25 FC2 221 -13.529
25 FC2 222 -14.018
25 FC2 223 -13.529
25 FC2 224 -13.529
25 FC2 225 -14.018
25 FC2 226 -14.994
25 FC2 227 -14.994
25 FC2 228 -14.018
25 FC2 229 -11.576
25 FC2 230 -9.135
25 FC2 231 -8.158
25 FC2 232 -8.647
25 FC2 233 -9.623
25 FC2 234 -10.600
25 FC2 235 -10.600
25 FC2 236 -10.111
25 FC2 237 -8.647
25 FC2 238 -8.647
25 FC2 239 -8.647
25 FC2 240 -9.135
25 FC2 241 -9.135
25 FC2 242 -8.158
25 FC2 243 -7.670
25 FC2 244 -7.182
25 FC2 245 -6.694
25 FC2 246 -6.694
25 FC2 247 -6.205
25 FC2 248 -5.717
25 FC2 249 -6.205
25 FC2 250 -6.205
25 FC2 251 -7.182
25 FC2 252 -7.182
25 FC2 253 -5.717
25 FC2 254 -3.764
25 FC2 255 -2.787
# FC1 chan 12
25 FC1 0 -2.279
25 FC1 1 -2.279
25 FC1 2 -3.255
25 FC1 3 -4.232
25 FC1 4 -4.232
25 FC1 5 -4.232
25 FC1 6 -3.255
25 FC1 7 -2.767
25 FC1 8 -2.767
25 FC1 9 -2.279
25 FC1 10 -1.790
25 FC1 11 -0.326
25 FC1 12 0.651
25 FC1 13 1.139
25 FC1 14 0.651
25 FC1 15 -0.326
25 FC1 16 -0.326
25 FC1 17 -0.326
25 FC1 18 1.139
25 FC1 19 1.628
25 FC1 20 2.116
25 FC1 21 2.116
25 FC1 22 1.139
25 FC1 23 -0.326
25 FC1 24 -1.790
25 FC1 25 -2.767
25 FC1 26 -3.743
25 FC1 27 -3.743
25 FC1 28 -3.255
25 FC1 29 -2.767
25 FC1 30 -2.279
25 FC1 31 -1.302
25 FC1 32 -1.302
25 FC1 33 -1.790
25 FC1 34 -2.767
25 FC1 35 -3.743
25 FC1 36 -4.232
25 FC1 37 -4.232
25 FC1 38 -3.743
25 FC1 39 -2.767
25 FC1 40 -2.767
25 FC1 41 -3.743
25 FC1 42 -4.720
25 FC1 43 -5.697
25 FC1 44 -5.697
25 FC1 45 -4.720
25 FC1 46 -4.232
25 FC1 47 -4.232
25 FC1 48 -5.208
25 FC1 49 -7.161
25 FC1 50 -8.626
25 FC1 51 -9.603
25 FC1 52 -9.603
25 FC1 53 -9.115
25 FC1 54 -9.603
25 FC1 55 -10.579
25 FC1 56 -12.044
25 FC1 57 -13.021
25 FC1 58 -13.021
25 FC1 59 -11.556
25 FC1 60 -10.091
25 FC1 61 -7.650
25 FC1 62 -7.161
25 FC1 63 -7.650
25 FC1 64 -9.603
25 FC1 65 -11.556
25 FC1 66 -12.533
25 FC1 67 -12.044
25 FC1 68 -10.091
25 FC1 69 -8.626
25 FC1 70 -8.626
25 FC1 71 -10.091
25 FC1 72 -12.533
25 FC1 73 -13.997
25 FC1 74 -14.974
25 FC1 75 -14.486
25 FC1 76 -13.997
25 FC1 77 -13.997
25 FC1 78 -14.486
25 FC1 79 -14.974
25 FC1 80 -14.974
25 FC1 81 -14.486
25 FC1 82 -13.997
25 FC1 83 -14.486
25 FC1 84 -15.951
25 FC1 85 -16.927
25 FC1 86 -16.927
25 FC1 87 -15.951
25 FC1 88 -14.486
25 FC1 89 -14.974
25 FC1 90 -15.951
25 FC1 91 -17.904
25 FC1 92 -18.392
25 FC1 93 -16.927
25 FC1 94 -14.974
25 FC1 95 -13.997
25 FC1 96 -14.486
25 FC1 97 -16.927
25 FC1 98 -18.880
25 FC1 99 -19.368
25 FC1 100 -18.392
25 FC1 101 -17.904
25 FC1 102 -18.392
25 FC1 103 -19.368
25 FC1 104 -20.345
25 FC1 105 -19.368
25 FC1 106 -17.904
25 FC1 107 -17.415
25 FC1 108 -17.904
25 FC1 109 -18.880
25 FC1 110 -19.857
25 FC1 111 -18.880
25 FC1 112 -16.927
25 FC1 113 -15.951
25 FC1 114 -16.439
25 FC1 115 -17.904
25 FC1 116 -18.880
25 FC1 117 -18.880
25 FC1 118 -17.415
25 FC1 119 -15.462
25 FC1 120 -13.997
25 FC1 121 -14.486
25 FC1 122 -15.462
25 FC1 123 -15.951
25 FC1 124 -15.951
25 FC1 125 -14.486
25 FC1 126 -13.021
25 FC1 127 -12.533
25 FC1 128 -13.997
25 FC1 129 -15.462
25 FC1 130 -16.927
25 FC1 131 -17.415
25 FC1 132 -17.415
25 FC1 133 -16.927
25 FC1 134 -16.439
25 FC1 135 -16.927
25 FC1 136 -17.415
25 FC1 137 -17.415
25 FC1 138 -16.439
25 FC1 139 -14.974
25 FC1 140 -13.509
25 FC1 141 -12.533
25 FC1 142 -13.509
25 FC1 143 -14.486
25 FC1 144 -15.951
25 FC1 145 -16.439
25 FC1 146 -16.927
25 FC1 147 -16.927
25 FC1 148 -18.880
25 FC1 149 -20.833
25 FC1 150 -22.298
25 FC1 151 -21.810
25 FC1 152 -19.857
25 FC1 153 -17.904
25 FC1 154 -16.439
25 FC1 155 -16.439
25 FC1 156 -16.927
25 FC1 157 -17.904
25 FC1 158 -17.415
25 FC1 159 -16.439
25 FC1 160 -15.951
25 FC1 161 -16.439
25 FC1 162 -17.904
25 FC1 163 -20.345
25 FC1 164 -23.763
25 FC1 165 -26.693
25 FC1 166 -29.134
25 FC1 167 -29.134
25 FC1 168 -27.181
25 FC1 169 -23.275
25 FC1 170 -19.368
25 FC1 171 -17.415
25 FC1 172 -16.927
25 FC1 173 -17.904
25 FC1 174 -19.368
25 FC1 175 -20.345
25 FC1 176 -20.833
25 FC1 177 -22.298
25 FC1 178 -24.251
25 FC1 179 -25.228
25 FC1 180 -24.740
25 FC1 181 -22.786
25 FC1 182 -20.833
25 FC1 183 -19.857
25 FC1 184 -20.345
25 FC1 185 -22.298
25 FC1 186 -24.251
25 FC1 187 -25.228
25 FC1 188 -24.740
25 FC1 189 -24.251
25 FC1 190 -23.763
25 FC1 191 -24.740
25 FC1 192 -25.228
25 FC1 193 -25.228
25 FC1 194 -24.251
25 FC1 195 -22.298
25 FC1 196 -20.345
25 FC1 197 -19.368
25 FC1 198 -19.857
25 FC1 199 -21.322
25 FC1 200 -22.786
25 FC1 201 -23.763
25 FC1 202 -23.275
25 FC1 203 -22.298
25 FC1 204 -21.322
25 FC1 205 -21.322
25 FC1 206 -21.322
25 FC1 207 -22.786
25 FC1 208 -23.763
25 FC1 209 -24.251
25 FC1 210 -24.251
25 FC1 211 -24.251
25 FC1 212 -23.763
25 FC1 213 -23.275
25 FC1 214 -23.763
25 FC1 215 -24.740
25 FC1 216 -24.740
25 FC1 217 -24.740
25 FC1 218 -24.740
25 FC1 219 -25.228
25 FC1 220 -27.181
25 FC1 221 -29.134
25 FC1 222 -31.087
25 FC1 223 -31.576
25 FC1 224 -31.087
25 FC1 225 -29.622
25 FC1 226 -28.158
25 FC1 227 -27.669
25 FC1 228 -27.181
25 FC1 229 -26.693
25 FC1 230 -25.228
25 FC1 231 -23.275
25 FC1 232 -21.810
25 FC1 233 -21.810
25 FC1 234 -21.322
25 FC1 235 -21.322
25 FC1 236 -20.833
25 FC1 237 -19.857
25 FC1 238 -19.368
25 FC1 239 -19.368
25 FC1 240 -19.368
25 FC1 241 -19.368
25 FC1 242 -18.880
25 FC1 243 -17.904
25 FC1 244 -17.415
25 FC1 245 -16.927
25 FC1 246 -16.927
25 FC1 247 -17.904
25 FC1 248 -18.392
25 FC1 249 -18.392
25 FC1 250 -18.880
25 FC1 251 -19.368
25 FC1 252 -19.857
25 FC1 253 -20.833
25 FC1 254 -20.833
25 FC1 255 -19.857
# T8 chan 13
25 T8 0 4.171
25 T8 1 5.147
25 T8 2 5.636
25 T8 3 6.612
25 T8 4 7.589
25 T8 5 8.077
25 T8 6 8.077
25 T8 7 7.589
25 T8 8 5.636
25 T8 9 3.682
25 T8 10 2.218
25 T8 11 1.729
25 T8 12 2.218
25 T8 13 3.194
25 T8 14 3.194
25 T8 15 1.729
25 T8 16 -0.224
25 T8 17 -3.153
25 T8 18 -4.618
25 T8 19 -4.618
25 T8 20 -2.665
25 T8 21 -0.712
25 T8 22 -0.224
25 T8 23 -0.712
25 T8 24 -1.689
25 T8 25 -2.177
25 T8 26 -2.177
25 T8 27 -1.689
25 T8 28 -1.200
25 T8 29 -1.689
25 T8 30 -2.177
25 T8 31 -2.665
25 T8 32 -2.177
25 T8 33 -1.689
25 T8 34 -0.712
25 T8 35 -1.200
25 T8 36 -2.665
25 T8 37 -4.130
25 T8 38 -5.107
25 T8 39 -5.107
25 T8 40 -4.618
25 T8 41 -3.642
25 T8 42 -4.130
25 T8 43 -5.107
25 T8 44 -7.060
25 T8 45 -8.525
25 T8 46 -9.989
25 T8 47 -10.966
25 T8 48 -11.454
25 T8 49 -12.431
25 T8 50 -12.431
25 T8 51 -12.919
25 T8 52 -12.919
25 T8 53 -12.431
25 T8 54 -12.431
25 T8 55 -12.919
25 T8 56 -13.896
25 T8 57 -14.384
25 T8 58 -14.384
25 T8 59 -13.896
25 T8 60 -14.384
25 T8 61 -15.361
25 T8 62 -17.314
25 T8 63 -19.267
25 T8 64 -19.755
25 T8 65 -19.267
25 T8 66 -18.290
25 T8 67 -17.802
25 T8 68 -17.802
25 T8 69 -18.778
25 T8 70 -18.778
25 T8 71 -18.778
25 T8 72 -18.778
25 T8 73 -19.267
25 T8 74 -20.732
25 T8 75 -22.196
25 T8 76 -22.685
25 T8 77 -20.732
25 T8 78 -18.290
25 T8 79 -15.849
25 T8 80 -14.872
25 T8 81 -15.849
25 T8 82 -17.802
25 T8 83 -19.267
25 T8 84 -19.755
25 T8 85 -19.267
25 T8 86 -19.755
25 T8 87 -21.708
25 T8 88 -24.150
25 T8 89 -26.591
25 T8 90 -28.056
25 T8 91 -28.056
25 T8 92 -27.568
25 T8 93 -27.079
25 T8 94 -26.103
25 T8 95 -25.614
25 T8 96 -24.638
25 T8 97 -23.661
25 T8 98 -22.685
25 T8 99 -23.173
25 T8 100 -24.150
25 T8 101 -25.126
25 T8 102 -25.614
25 T8 103 -23.661
25 T8 104 -21.708
25 T8 105 -19.267
25 T8 106 -18.778
25 T8 107 -19.267
25 T8 108 -20.732
25 T8 109 -21.708
25 T8 110 -21.220
25 T8 111 -20.732
25 T8 112 -20.243
25 T8 113 -21.708
25 T8 114 -23.661
25 T8 115 -25.614
25 T8 116 -25.614
25 T8 117 -24.150
25 T8 118 -21.708
25 T8 119 -20.732
25 T8 120 -21.220
25 T8 121 -23.661
25 T8 122 -26.591
25 T8 123 -27.568
25 T8 124 -26.103
25 T8 125 -23.661
25 T8 126 -21.708
25 T8 127 -21.708
25 T8 128 -22.685
25 T8 129 -24.150
25 T8 130 -24.638
25 T8 131 -23.173
25 T8 132 -21.220
25 T8 133 -18.778
25 T8 134 -17.802
25 T8 135 -18.778
25 T8 136 -19.755
25 T8 137 -20.732
25 T8 138 -20.732
25 T8 139 -19.755
25 T8 140 -18.290
25 T8 141 -16.825
25 T8 142 -15.361
25 T8 143 -14.384
25 T8 144 -14.384
25 T8 145 -15.849
25 T8 146 -18.290
25 T8 147 -20.732
25 T8 148 -22.196
25 T8 149 -21.708
25 T8 150 -20.243
25 T8 151 -18.778
25 T8 152 -17.314
25 T8 153 -16.825
25 T8 154 -15.849
25 T8 155 -15.361
25 T8 156 -14.872
25 T8 157 -14.384
25 T8 158 -14.872
25 T8 159 -15.849
25 T8 160 -16.825
25 T8 161 -17.802
25 T8 162 -18.290
25 T8 163 -19.267
25 T8 164 -21.220
25 T8 165 -24.150
25 T8 166 -26.591
25 T8 167 -27.079
25 T8 168 -25.126
25 T8 169 -21.220
25 T8 170 -17.802
25 T8 171 -16.337
25 T8 172 -17.802
25 T8 173 -20.732
25 T8 174 -23.661
25 T8 175 -24.638
25 T8 176 -24.638
25 T8 177 -24.150
25 T8 178 -24.638
25 T8 179 -26.103
25 T8 180 -26.591
25 T8 181 -25.614
25 T8 182 -23.173
25 T8 183 -20.732
25 T8 184 -19.755
25 T8 185 -20.732
25 T8 186 -22.196
25 T8 187 -23.173
25 T8 188 -23.173
25 T8 189 -21.708
25 T8 190 -20.732
25 T8 191 -20.243
25 T8 192 -20.732
25 T8 193 -20.732
25 T8 194 -20.243
25 T8 195 -19.267
25 T8 196 -18.778
25 T8 197 -18.778
25 T8 198 -19.755
25 T8 199 -20.243
25 T8 200 -20.732
25 T8 201 -20.732
25 T8 202 -19.755
25 T8 203 -18.778
25 T8 204 -17.314
25 T8 205 -15.849
25 T8 206 -14.872
25 T8 207 -14.872
25 T8 208 -14.384
25 T8 209 -14.872
25 T8 210 -15.849
25 T8 211 -16.825
25 T8 212 -17.802
25 T8 213 -20.243
25 T8 214 -22.196
25 T8 215 -23.661
25 T8 216 -24.638
25 T8 217 -25.614
25 T8 218 -26.103
25 T8 219 -27.079
25 T8 220 -29.032
25 T8 221 -30.009
25 T8 222 -29.521
25 T8 223 -29.032
25 T8 224 -28.056
25 T8 225 -28.056
25 T8 226 -28.544
25 T8 227 -29.521
25 T8 228 -29.521
25 T8 229 -28.544
25 T8 230 -27.079
25 T8 231 -27.079
25 T8 232 -28.056
25 T8 233 -29.521
25 T8 234 -30.009
25 T8 235 -28.544
25 T8 236 -25.614
25 T8 237 -23.661
25 T8 238 -22.196
25 T8 239 -22.685
25 T8 240 -24.638
25 T8 241 -26.103
25 T8 242 -27.568
25 T8 243 -29.032
25 T8 244 -30.497
25 T8 245 -31.474
25 T8 246 -32.450
25 T8 247 -31.474
25 T8 248 -30.497
25 T8 249 -28.544
25 T8 250 -27.079
25 T8 251 -26.103
25 T8 252 -25.614
25 T8 253 -25.614
25 T8 254 -24.638
25 T8 255 -23.661
# T7 chan 14
25 T7 0 3.764
25 T7 1 6.205
25 T7 2 5.717
25 T7 3 1.811
25 T7 4 -1.607
25 T7 5 -2.584
25 T7 6 0.346
25 T7 7 4.252
25 T7 8 5.717
25 T7 9 3.764
25 T7 10 -0.631
25 T7 11 -4.049
25 T7 12 -3.560
25 T7 13 0.346
25 T7 14 4.740
25 T7 15 7.670
25 T7 16 7.182
25 T7 17 4.740
25 T7 18 3.764
25 T7 19 3.764
25 T7 20 4.740
25 T7 21 4.252
25 T7 22 0.834
25 T7 23 -4.537
25 T7 24 -9.420
25 T7 25 -9.908
25 T7 26 -6.490
25 T7 27 -1.607
25 T7 28 1.811
25 T7 29 3.276
25 T7 30 1.811
25 T7 31 0.346
25 T7 32 -0.142
25 T7 33 1.322
25 T7 34 3.276
25 T7 35 4.740
25 T7 36 5.229
25 T7 37 4.252
25 T7 38 3.764
25 T7 39 3.764
25 T7 40 4.252
25 T7 41 5.229
25 T7 42 6.205
25 T7 43 5.229
25 T7 44 3.276
25 T7 45 0.346
25 T7 46 -3.072
25 T7 47 -5.514
25 T7 48 -5.514
25 T7 49 -3.072
25 T7 50 1.322
25 T7 51 4.740
25 T7 52 5.229
25 T7 53 1.322
25 T7 54 -5.025
25 T7 55 -11.373
25 T7 56 -13.814
25 T7 57 -11.861
25 T7 58 -6.490
25 T7 59 -2.096
25 T7 60 0.346
25 T7 61 -0.631
25 T7 62 -3.560
25 T7 63 -6.002
25 T7 64 -7.955
25 T7 65 -7.955
25 T7 66 -6.978
25 T7 67 -4.537
25 T7 68 -2.584
25 T7 69 -0.631
25 T7 70 1.322
25 T7 71 2.299
25 T7 72 2.299
25 T7 73 1.322
25 T7 74 -0.631
25 T7 75 -2.584
25 T7 76 -3.072
25 T7 77 -1.607
25 T7 78 0.346
25 T7 79 1.811
25 T7 80 1.322
25 T7 81 -0.142
25 T7 82 -1.607
25 T7 83 -2.096
25 T7 84 -2.584
25 T7 85 -3.560
25 T7 86 -6.002
25 T7 87 -9.908
25 T7 88 -13.326
25 T7 89 -14.791
25 T7 90 -14.791
25 T7 91 -15.279
25 T7 92 -17.232
25 T7 93 -20.162
25 T7 94 -22.603
25 T7 95 -23.092
25 T7 96 -21.627
25 T7 97 -18.697
25 T7 98 -17.721
25 T7 99 -19.674
25 T7 100 -24.068
25 T7 101 -28.463
25 T7 102 -30.416
25 T7 103 -29.439
25 T7 104 -26.998
25 T7 105 -24.068
25 T7 106 -23.092
25 T7 107 -23.092
25 T7 108 -22.603
25 T7 109 -21.139
25 T7 110 -18.697
25 T7 111 -17.721
25 T7 112 -18.209
25 T7 113 -20.162
25 T7 114 -21.627
25 T7 115 -21.627
25 T7 116 -19.185
25 T7 117 -16.744
25 T7 118 -14.303
25 T7 119 -12.838
25 T7 120 -12.349
25 T7 121 -12.838
25 T7 122 -13.326
25 T7 123 -13.326
25 T7 124 -12.838
25 T7 125 -11.861
25 T7 126 -9.908
25 T7 127 -8.443
25 T7 128 -7.955
25 T7 129 -9.420
25 T7 130 -11.861
25 T7 131 -13.326
25 T7 132 -13.326
25 T7 133 -12.838
25 T7 134 -11.373
25 T7 135 -11.373
25 T7 136 -12.349
25 T7 137 -12.349
25 T7 138 -11.373
25 T7 139 -10.396
25 T7 140 -8.443
25 T7 141 -6.490
25 T7 142 -5.025
25 T7 143 -4.049
25 T7 144 -5.025
25 T7 145 -7.467
25 T7 146 -11.861
25 T7 147 -15.279
25 T7 148 -16.744
25 T7 149 -16.256
25 T7 150 -14.303
25 T7 151 -11.861
25 T7 152 -9.908
25 T7 153 -7.955
25 T7 154 -6.490
25 T7 155 -4.537
25 T7 156 -4.537
25 T7 157 -6.002
25 T7 158 -8.931
25 T7 159 -10.885
25 T7 160 -11.373
25 T7 161 -8.931
25 T7 162 -5.514
25 T7 163 -3.072
25 T7 164 -3.072
25 T7 165 -6.978
25 T7 166 -12.349
25 T7 167 -16.744
25 T7 168 -18.209
25 T7 169 -15.279
25 T7 170 -10.396
25 T7 171 -6.490
25 T7 172 -5.025
25 T7 173 -6.978
25 T7 174 -9.908
25 T7 175 -12.349
25 T7 176 -13.326
25 T7 177 -12.349
25 T7 178 -12.349
25 T7 179 -12.838
25 T7 180 -13.814
25 T7 181 -14.303
25 T7 182 -12.349
25 T7 183 -9.908
25 T7 184 -8.443
25 T7 185 -9.908
25 T7 186 -13.814
25 T7 187 -18.209
25 T7 188 -19.674
25 T7 189 -17.232
25 T7 190 -12.838
25 T7 191 -8.931
25 T7 192 -8.931
25 T7 193 -10.885
25 T7 194 -12.838
25 T7 195 -12.349
25 T7 196 -9.420
25 T7 197 -6.490
25 T7 198 -6.978
25 T7 199 -9.908
25 T7 200 -14.303
25 T7 201 -15.279
25 T7 202 -12.838
25 T7 203 -7.955
25 T7 204 -4.049
25 T7 205 -2.584
25 T7 206 -2.584
25 T7 207 -3.560
25 T7 208 -3.072
25 T7 209 -3.072
25 T7 210 -4.049
25 T7 211 -6.978
25 T7 212 -11.373
25 T7 213 -14.303
25 T7 214 -14.303
25 T7 215 -11.861
25 T7 216 -9.420
25 T7 217 -8.443
25 T7 218 -9.420
25 T7 219 -11.861
25 T7 220 -13.814
25 T7 221 -15.279
25 T7 222 -15.279
25 T7 223 -14.791
25 T7 224 -14.791
25 T7 225 -15.767
25 T7 226 -17.232
25 T7 227 -18.209
25 T7 228 -17.721
25 T7 229 -17.232
25 T7 230 -16.256
25 T7 231 -15.279
25 T7 232 -14.303
25 T7 233 -13.814
25 T7 234 -12.349
25 T7 235 -11.373
25 T7 236 -11.373
25 T7 237 -13.326
25 T7 238 -15.767
25 T7 239 -16.744
25 T7 240 -15.767
25 T7 241 -12.349
25 T7 242 -8.931
25 T7 243 -7.467
25 T7 244 -7.955
25 T7 245 -8.931
25 T7 246 -9.420
25 T7 247 -8.931
25 T7 248 -8.443
25 T7 249 -8.443
25 T7 250 -8.443
25 T7 251 -7.955
25 T7 252 -6.978
25 T7 253 -6.002
25 T7 254 -6.978
25 T7 255 -9.420
# CZ chan 15
25 CZ 0 8.189
25 CZ 1 11.607
25 CZ 2 14.537
25 CZ 3 15.513
25 CZ 4 15.513
25 CZ 5 14.537
25 CZ 6 14.537
25 CZ 7 15.025
25 CZ 8 15.025
25 CZ 9 15.513
25 CZ 10 15.513
25 CZ 11 16.001
25 CZ 12 16.490
25 CZ 13 16.490
25 CZ 14 15.513
25 CZ 15 13.072
25 CZ 16 9.654
25 CZ 17 7.212
25 CZ 18 6.236
25 CZ 19 6.236
25 CZ 20 7.212
25 CZ 21 8.677
25 CZ 22 9.165
25 CZ 23 7.701
25 CZ 24 4.771
25 CZ 25 0.376
25 CZ 26 -3.042
25 CZ 27 -4.018
25 CZ 28 -2.065
25 CZ 29 2.330
25 CZ 30 5.747
25 CZ 31 6.724
25 CZ 32 4.771
25 CZ 33 1.841
25 CZ 34 -0.112
25 CZ 35 1.353
25 CZ 36 4.283
25 CZ 37 7.212
25 CZ 38 8.189
25 CZ 39 6.724
25 CZ 40 4.283
25 CZ 41 4.771
25 CZ 42 7.701
25 CZ 43 12.095
25 CZ 44 15.513
25 CZ 45 16.490
25 CZ 46 14.537
25 CZ 47 11.119
25 CZ 48 8.189
25 CZ 49 6.724
25 CZ 50 7.212
25 CZ 51 8.677
25 CZ 52 10.142
25 CZ 53 10.142
25 CZ 54 8.677
25 CZ 55 6.236
25 CZ 56 4.771
25 CZ 57 4.283
25 CZ 58 5.747
25 CZ 59 6.236
25 CZ 60 5.747
25 CZ 61 1.841
25 CZ 62 -2.065
25 CZ 63 -4.506
25 CZ 64 -4.018
25 CZ 65 -1.577
25 CZ 66 0.865
25 CZ 67 1.353
25 CZ 68 -0.600
25 CZ 69 -3.042
25 CZ 70 -4.018
25 CZ 71 -3.042
25 CZ 72 -1.577
25 CZ 73 -1.577
25 CZ 74 -4.506
25 CZ 75 -8.901
25 CZ 76 -12.807
25 CZ 77 -14.272
25 CZ 78 -13.295
25 CZ 79 -10.854
25 CZ 80 -9.878
25 CZ 81 -10.854
25 CZ 82 -13.784
25 CZ 83 -17.202
25 CZ 84 -19.643
25 CZ 85 -20.131
25 CZ 86 -19.643
25 CZ 87 -20.131
25 CZ 88 -21.596
25 CZ 89 -24.038
25 CZ 90 -26.967
25 CZ 91 -28.920
25 CZ 92 -29.409
25 CZ 93 -28.920
25 CZ 94 -27.456
25 CZ 95 -25.014
25 CZ 96 -22.085
25 CZ 97 -19.155
25 CZ 98 -16.713
25 CZ 99 -17.202
25 CZ 100 -19.643
25 CZ 101 -23.061
25 CZ 102 -26.967
25 CZ 103 -27.456
25 CZ 104 -25.991
25 CZ 105 -22.573
25 CZ 106 -19.155
25 CZ 107 -16.713
25 CZ 108 -15.249
25 CZ 109 -14.272
25 CZ 110 -14.272
25 CZ 111 -15.249
25 CZ 112 -17.690
25 CZ 113 -21.108
25 CZ 114 -23.061
25 CZ 115 -21.108
25 CZ 116 -16.225
25 CZ 117 -10.366
25 CZ 118 -6.948
25 CZ 119 -8.413
25 CZ 120 -12.807
25 CZ 121 -16.713
25 CZ 122 -17.202
25 CZ 123 -14.760
25 CZ 124 -11.342
25 CZ 125 -8.413
25 CZ 126 -8.413
25 CZ 127 -8.901
25 CZ 128 -10.366
25 CZ 129 -11.342
25 CZ 130 -11.831
25 CZ 131 -11.831
25 CZ 132 -11.342
25 CZ 133 -9.389
25 CZ 134 -7.436
25 CZ 135 -5.971
25 CZ 136 -4.506
25 CZ 137 -3.530
25 CZ 138 -2.553
25 CZ 139 -2.553
25 CZ 140 -3.530
25 CZ 141 -5.483
25 CZ 142 -7.436
25 CZ 143 -8.413
25 CZ 144 -6.948
25 CZ 145 -4.995
25 CZ 146 -3.530
25 CZ 147 -4.506
25 CZ 148 -6.460
25 CZ 149 -8.901
25 CZ 150 -10.854
25 CZ 151 -11.342
25 CZ 152 -11.342
25 CZ 153 -11.342
25 CZ 154 -10.854
25 CZ 155 -8.413
25 CZ 156 -4.995
25 CZ 157 -2.065
25 CZ 158 -1.088
25 CZ 159 -2.553
25 CZ 160 -5.483
25 CZ 161 -6.948
25 CZ 162 -6.948
25 CZ 163 -5.483
25 CZ 164 -4.018
25 CZ 165 -3.530
25 CZ 166 -3.530
25 CZ 167 -3.530
25 CZ 168 -1.577
25 CZ 169 0.376
25 CZ 170 1.841
25 CZ 171 1.841
25 CZ 172 -0.112
25 CZ 173 -2.553
25 CZ 174 -4.995
25 CZ 175 -5.971
25 CZ 176 -5.483
25 CZ 177 -4.995
25 CZ 178 -5.483
25 CZ 179 -7.436
25 CZ 180 -9.389
25 CZ 181 -9.878
25 CZ 182 -7.924
25 CZ 183 -4.995
25 CZ 184 -3.042
25 CZ 185 -4.018
25 CZ 186 -7.924
25 CZ 187 -13.295
25 CZ 188 -17.202
25 CZ 189 -17.690
25 CZ 190 -13.784
25 CZ 191 -6.460
25 CZ 192 -0.112
25 CZ 193 2.818
25 CZ 194 1.841
25 CZ 195 -2.065
25 CZ 196 -6.460
25 CZ 197 -8.901
25 CZ 198 -8.413
25 CZ 199 -6.460
25 CZ 200 -4.506
25 CZ 201 -2.553
25 CZ 202 -0.600
25 CZ 203 1.353
25 CZ 204 2.818
25 CZ 205 2.818
25 CZ 206 -0.112
25 CZ 207 -4.506
25 CZ 208 -7.436
25 CZ 209 -7.436
25 CZ 210 -4.018
25 CZ 211 -0.600
25 CZ 212 -1.088
25 CZ 213 -4.995
25 CZ 214 -11.342
25 CZ 215 -14.760
25 CZ 216 -13.784
25 CZ 217 -9.389
25 CZ 218 -6.460
25 CZ 219 -7.924
25 CZ 220 -13.784
25 CZ 221 -19.155
25 CZ 222 -19.643
25 CZ 223 -15.249
25 CZ 224 -9.389
25 CZ 225 -5.971
25 CZ 226 -7.924
25 CZ 227 -12.807
25 CZ 228 -16.225
25 CZ 229 -16.713
25 CZ 230 -14.272
25 CZ 231 -12.319
25 CZ 232 -12.807
25 CZ 233 -14.272
25 CZ 234 -15.737
25 CZ 235 -15.737
25 CZ 236 -14.760
25 CZ 237 -14.272
25 CZ 238 -15.737
25 CZ 239 -18.178
25 CZ 240 -20.131
25 CZ 241 -21.596
25 CZ 242 -23.061
25 CZ 243 -25.503
25 CZ 244 -29.897
25 CZ 245 -36.245
25 CZ 246 -42.104
25 CZ 247 -46.010
25 CZ 248 -47.475
25 CZ 249 -46.010
25 CZ 250 -43.569
25 CZ 251 -41.616
25 CZ 252 -40.639
25 CZ 253 -41.616
25 CZ 254 -44.545
25 CZ 255 -47.475
# C3 chan 16
25 C3 0 -2.482
25 C3 1 -2.970
25 C3 2 -3.459
25 C3 3 -3.459
25 C3 4 -1.994
25 C3 5 -0.529
25 C3 6 -0.041
25 C3 7 -1.017
25 C3 8 -2.482
25 C3 9 -2.970
25 C3 10 -1.994
25 C3 11 0.448
25 C3 12 2.401
25 C3 13 3.377
25 C3 14 2.401
25 C3 15 1.424
25 C3 16 0.936
25 C3 17 0.448
25 C3 18 0.448
25 C3 19 -0.041
25 C3 20 -0.529
25 C3 21 -1.017
25 C3 22 -1.506
25 C3 23 -2.482
25 C3 24 -2.970
25 C3 25 -2.970
25 C3 26 -2.482
25 C3 27 -2.482
25 C3 28 -1.994
25 C3 29 -1.994
25 C3 30 -1.994
25 C3 31 -1.506
25 C3 32 -1.017
25 C3 33 -0.529
25 C3 34 -0.041
25 C3 35 -0.041
25 C3 36 -0.041
25 C3 37 -0.041
25 C3 38 -0.041
25 C3 39 0.448
25 C3 40 0.936
25 C3 41 -0.041
25 C3 42 -1.017
25 C3 43 -1.506
25 C3 44 -1.506
25 C3 45 -1.017
25 C3 46 -0.529
25 C3 47 -1.506
25 C3 48 -3.459
25 C3 49 -6.388
25 C3 50 -7.853
25 C3 51 -8.341
25 C3 52 -6.877
25 C3 53 -6.388
25 C3 54 -6.877
25 C3 55 -8.830
25 C3 56 -10.783
25 C3 57 -11.271
25 C3 58 -9.318
25 C3 59 -6.388
25 C3 60 -3.459
25 C3 61 -1.994
25 C3 62 -2.482
25 C3 63 -3.947
25 C3 64 -5.412
25 C3 65 -5.900
25 C3 66 -5.412
25 C3 67 -4.435
25 C3 68 -2.970
25 C3 69 -2.970
25 C3 70 -4.435
25 C3 71 -5.900
25 C3 72 -7.853
25 C3 73 -7.853
25 C3 74 -6.388
25 C3 75 -4.435
25 C3 76 -2.482
25 C3 77 -1.994
25 C3 78 -3.459
25 C3 79 -4.924
25 C3 80 -6.388
25 C3 81 -6.877
25 C3 82 -6.388
25 C3 83 -5.900
25 C3 84 -4.924
25 C3 85 -4.924
25 C3 86 -4.924
25 C3 87 -4.924
25 C3 88 -5.412
25 C3 89 -6.388
25 C3 90 -7.365
25 C3 91 -7.365
25 C3 92 -6.877
25 C3 93 -4.924
25 C3 94 -3.947
25 C3 95 -3.947
25 C3 96 -5.412
25 C3 97 -7.365
25 C3 98 -9.318
25 C3 99 -10.295
25 C3 100 -10.783
25 C3 101 -11.759
25 C3 102 -12.736
25 C3 103 -13.224
25 C3 104 -13.713
25 C3 105 -12.736
25 C3 106 -10.783
25 C3 107 -9.318
25 C3 108 -7.853
25 C3 109 -6.877
25 C3 110 -6.388
25 C3 111 -5.900
25 C3 112 -6.388
25 C3 113 -8.341
25 C3 114 -9.806
25 C3 115 -10.783
25 C3 116 -10.295
25 C3 117 -8.341
25 C3 118 -5.900
25 C3 119 -5.412
25 C3 120 -5.900
25 C3 121 -7.853
25 C3 122 -8.341
25 C3 123 -7.853
25 C3 124 -5.412
25 C3 125 -3.947
25 C3 126 -3.459
25 C3 127 -3.947
25 C3 128 -4.924
25 C3 129 -5.900
25 C3 130 -6.877
25 C3 131 -7.853
25 C3 132 -8.830
25 C3 133 -9.318
25 C3 134 -9.318
25 C3 135 -8.341
25 C3 136 -6.877
25 C3 137 -5.900
25 C3 138 -5.412
25 C3 139 -5.412
25 C3 140 -4.924
25 C3 141 -4.435
25 C3 142 -3.459
25 C3 143 -3.947
25 C3 144 -3.947
25 C3 145 -3.459
25 C3 146 -2.970
25 C3 147 -2.482
25 C3 148 -2.970
25 C3 149 -2.970
25 C3 150 -3.947
25 C3 151 -3.947
25 C3 152 -2.970
25 C3 153 -2.482
25 C3 154 -2.970
25 C3 155 -3.459
25 C3 156 -4.435
25 C3 157 -4.924
25 C3 158 -3.947
25 C3 159 -2.970
25 C3 160 -1.994
25 C3 161 -2.482
25 C3 162 -3.947
25 C3 163 -6.877
25 C3 164 -10.295
25 C3 165 -13.224
25 C3 166 -14.689
25 C3 167 -14.689
25 C3 168 -12.736
25 C3 169 -10.295
25 C3 170 -8.341
25 C3 171 -7.365
25 C3 172 -7.853
25 C3 173 -8.341
25 C3 174 -8.830
25 C3 175 -8.830
25 C3 176 -9.318
25 C3 177 -10.295
25 C3 178 -11.759
25 C3 179 -12.248
25 C3 180 -11.759
25 C3 181 -9.806
25 C3 182 -7.853
25 C3 183 -6.877
25 C3 184 -6.877
25 C3 185 -7.853
25 C3 186 -8.830
25 C3 187 -8.830
25 C3 188 -8.341
25 C3 189 -7.853
25 C3 190 -7.853
25 C3 191 -7.853
25 C3 192 -7.365
25 C3 193 -6.388
25 C3 194 -5.412
25 C3 195 -3.947
25 C3 196 -3.947
25 C3 197 -4.924
25 C3 198 -6.388
25 C3 199 -7.853
25 C3 200 -8.830
25 C3 201 -9.318
25 C3 202 -9.318
25 C3 203 -9.318
25 C3 204 -8.830
25 C3 205 -8.341
25 C3 206 -7.365
25 C3 207 -7.365
25 C3 208 -7.365
25 C3 209 -8.341
25 C3 210 -8.830
25 C3 211 -8.830
25 C3 212 -8.830
25 C3 213 -8.341
25 C3 214 -8.830
25 C3 215 -8.830
25 C3 216 -8.341
25 C3 217 -6.877
25 C3 218 -6.388
25 C3 219 -6.877
25 C3 220 -9.806
25 C3 221 -13.224
25 C3 222 -16.154
25 C3 223 -16.642
25 C3 224 -16.154
25 C3 225 -14.201
25 C3 226 -12.736
25 C3 227 -12.248
25 C3 228 -12.736
25 C3 229 -12.248
25 C3 230 -11.759
25 C3 231 -10.295
25 C3 232 -9.806
25 C3 233 -10.295
25 C3 234 -10.295
25 C3 235 -11.271
25 C3 236 -11.271
25 C3 237 -10.783
25 C3 238 -10.783
25 C3 239 -10.295
25 C3 240 -9.318
25 C3 241 -8.341
25 C3 242 -6.877
25 C3 243 -5.900
25 C3 244 -5.900
25 C3 245 -6.388
25 C3 246 -6.877
25 C3 247 -7.365
25 C3 248 -7.853
25 C3 249 -7.365
25 C3 250 -7.365
25 C3 251 -7.853
25 C3 252 -8.341
25 C3 253 -8.830
25 C3 254 -8.830
25 C3 255 -7.853
# C4 chan 17
25 C4 0 -4.740
25 C4 1 -5.717
25 C4 2 -6.205
25 C4 3 -5.229
25 C4 4 -3.764
25 C4 5 -2.299
25 C4 6 -1.322
25 C4 7 -2.299
25 C4 8 -4.252
25 C4 9 -6.205
25 C4 10 -7.670
25 C4 11 -8.158
25 C4 12 -7.670
25 C4 13 -6.205
25 C4 14 -4.740
25 C4 15 -3.276
25 C4 16 -2.787
25 C4 17 -3.276
25 C4 18 -4.740
25 C4 19 -5.717
25 C4 20 -5.229
25 C4 21 -3.764
25 C4 22 -3.276
25 C4 23 -3.276
25 C4 24 -4.252
25 C4 25 -4.740
25 C4 26 -4.740
25 C4 27 -3.276
25 C4 28 -3.276
25 C4 29 -4.252
25 C4 30 -5.717
25 C4 31 -6.694
25 C4 32 -6.694
25 C4 33 -5.717
25 C4 34 -6.205
25 C4 35 -7.670
25 C4 36 -9.623
25 C4 37 -10.600
25 C4 38 -9.135
25 C4 39 -7.182
25 C4 40 -6.205
25 C4 41 -6.205
25 C4 42 -7.670
25 C4 43 -9.623
25 C4 44 -10.111
25 C4 45 -9.623
25 C4 46 -9.623
25 C4 47 -10.600
25 C4 48 -13.041
25 C4 49 -14.994
25 C4 50 -15.483
25 C4 51 -14.994
25 C4 52 -14.018
25 C4 53 -13.529
25 C4 54 -14.018
25 C4 55 -14.506
25 C4 56 -14.994
25 C4 57 -14.994
25 C4 58 -14.018
25 C4 59 -13.529
25 C4 60 -12.553
25 C4 61 -12.065
25 C4 62 -11.576
25 C4 63 -11.576
25 C4 64 -11.088
25 C4 65 -11.576
25 C4 66 -11.576
25 C4 67 -11.576
25 C4 68 -11.088
25 C4 69 -10.600
25 C4 70 -10.600
25 C4 71 -11.576
25 C4 72 -13.529
25 C4 73 -15.483
25 C4 74 -16.947
25 C4 75 -17.436
25 C4 76 -16.947
25 C4 77 -15.483
25 C4 78 -13.529
25 C4 79 -11.576
25 C4 80 -9.623
25 C4 81 -9.135
25 C4 82 -9.135
25 C4 83 -10.600
25 C4 84 -12.553
25 C4 85 -14.506
25 C4 86 -15.971
25 C4 87 -17.436
25 C4 88 -19.389
25 C4 89 -20.365
25 C4 90 -21.830
25 C4 91 -22.319
25 C4 92 -22.319
25 C4 93 -21.342
25 C4 94 -20.365
25 C4 95 -18.901
25 C4 96 -16.947
25 C4 97 -14.506
25 C4 98 -12.553
25 C4 99 -12.065
25 C4 100 -13.041
25 C4 101 -14.506
25 C4 102 -14.994
25 C4 103 -14.506
25 C4 104 -12.553
25 C4 105 -11.088
25 C4 106 -11.088
25 C4 107 -13.041
25 C4 108 -14.994
25 C4 109 -15.483
25 C4 110 -14.018
25 C4 111 -11.576
25 C4 112 -10.111
25 C4 113 -10.111
25 C4 114 -11.576
25 C4 115 -13.529
25 C4 116 -14.506
25 C4 117 -13.529
25 C4 118 -12.065
25 C4 119 -10.600
25 C4 120 -11.088
25 C4 121 -14.018
25 C4 122 -16.947
25 C4 123 -19.389
25 C4 124 -19.389
25 C4 125 -17.436
25 C4 126 -14.506
25 C4 127 -13.041
25 C4 128 -13.041
25 C4 129 -13.529
25 C4 130 -14.018
25 C4 131 -13.529
25 C4 132 -13.041
25 C4 133 -13.041
25 C4 134 -13.529
25 C4 135 -14.506
25 C4 136 -15.483
25 C4 137 -15.483
25 C4 138 -15.483
25 C4 139 -15.483
25 C4 140 -14.018
25 C4 141 -11.576
25 C4 142 -9.135
25 C4 143 -7.670
25 C4 144 -7.670
25 C4 145 -8.647
25 C4 146 -10.111
25 C4 147 -10.600
25 C4 148 -9.135
25 C4 149 -7.182
25 C4 150 -5.717
25 C4 151 -6.205
25 C4 152 -7.670
25 C4 153 -9.623
25 C4 154 -10.111
25 C4 155 -9.135
25 C4 156 -6.694
25 C4 157 -4.740
25 C4 158 -3.276
25 C4 159 -2.787
25 C4 160 -3.276
25 C4 161 -3.764
25 C4 162 -4.252
25 C4 163 -4.740
25 C4 164 -6.205
25 C4 165 -8.647
25 C4 166 -11.576
25 C4 167 -13.041
25 C4 168 -13.529
25 C4 169 -11.576
25 C4 170 -9.135
25 C4 171 -7.670
25 C4 172 -7.182
25 C4 173 -7.182
25 C4 174 -7.182
25 C4 175 -6.694
25 C4 176 -6.205
25 C4 177 -7.670
25 C4 178 -9.623
25 C4 179 -11.576
25 C4 180 -12.553
25 C4 181 -12.553
25 C4 182 -11.088
25 C4 183 -10.600
25 C4 184 -11.576
25 C4 185 -14.018
25 C4 186 -15.483
25 C4 187 -15.483
25 C4 188 -14.018
25 C4 189 -11.576
25 C4 190 -9.135
25 C4 191 -8.647
25 C4 192 -9.623
25 C4 193 -11.088
25 C4 194 -11.576
25 C4 195 -11.576
25 C4 196 -11.088
25 C4 197 -11.088
25 C4 198 -12.065
25 C4 199 -13.529
25 C4 200 -14.994
25 C4 201 -15.483
25 C4 202 -14.506
25 C4 203 -11.576
25 C4 204 -8.647
25 C4 205 -6.205
25 C4 206 -5.229
25 C4 207 -5.717
25 C4 208 -6.205
25 C4 209 -6.694
25 C4 210 -6.694
25 C4 211 -7.182
25 C4 212 -7.670
25 C4 213 -9.623
25 C4 214 -11.576
25 C4 215 -13.529
25 C4 216 -14.018
25 C4 217 -13.529
25 C4 218 -13.041
25 C4 219 -12.553
25 C4 220 -13.041
25 C4 221 -13.529
25 C4 222 -13.529
25 C4 223 -13.041
25 C4 224 -12.553
25 C4 225 -13.041
25 C4 226 -14.018
25 C4 227 -15.483
25 C4 228 -15.483
25 C4 229 -14.506
25 C4 230 -13.041
25 C4 231 -11.576
25 C4 232 -12.065
25 C4 233 -13.529
25 C4 234 -14.506
25 C4 235 -14.506
25 C4 236 -13.529
25 C4 237 -12.553
25 C4 238 -12.553
25 C4 239 -13.529
25 C4 240 -14.506
25 C4 241 -15.483
25 C4 242 -15.483
25 C4 243 -14.506
25 C4 244 -13.041
25 C4 245 -11.576
25 C4 246 -10.600
25 C4 247 -9.623
25 C4 248 -9.623
25 C4 249 -10.111
25 C4 250 -11.576
25 C4 251 -14.018
25 C4 252 -15.971
25 C4 253 -16.459
25 C4 254 -14.506
25 C4 255 -12.065
# CP5 chan 18
25 CP5 0 2.441
25 CP5 1 3.906
25 CP5 2 3.906
25 CP5 3 3.906
25 CP5 4 3.418
25 CP5 5 3.906
25 CP5 6 2.930
25 CP5 7 1.465
25 CP5 8 -0.977
25 CP5 9 -2.930
25 CP5 10 -3.418
25 CP5 11 -2.441
25 CP5 12 -1.953
25 CP5 13 -1.953
25 CP5 14 -2.441
25 CP5 15 -1.953
25 CP5 16 0.000
25 CP5 17 1.953
25 CP5 18 2.930
25 CP5 19 0.977
25 CP5 20 -2.930
25 CP5 21 -7.324
25 CP5 22 -9.766
25 CP5 23 -10.254
25 CP5 24 -9.277
25 CP5 25 -7.812
25 CP5 26 -6.836
25 CP5 27 -6.348
25 CP5 28 -5.859
25 CP5 29 -5.371
25 CP5 30 -4.395
25 CP5 31 -3.906
25 CP5 32 -3.906
25 CP5 33 -3.906
25 CP5 34 -4.883
25 CP5 35 -5.371
25 CP5 36 -5.371
25 CP5 37 -4.883
25 CP5 38 -3.418
25 CP5 39 -2.930
25 CP5 40 -3.906
25 CP5 41 -5.859
25 CP5 42 -7.812
25 CP5 43 -9.766
25 CP5 44 -9.766
25 CP5 45 -9.277
25 CP5 46 -8.789
25 CP5 47 -8.789
25 CP5 48 -9.766
25 CP5 49 -11.230
25 CP5 50 -11.719
25 CP5 51 -11.719
25 CP5 52 -11.230
25 CP5 53 -11.230
25 CP5 54 -12.207
25 CP5 55 -13.672
25 CP5 56 -14.648
25 CP5 57 -15.137
25 CP5 58 -13.184
25 CP5 59 -11.719
25 CP5 60 -8.789
25 CP5 61 -7.324
25 CP5 62 -6.348
25 CP5 63 -6.836
25 CP5 64 -7.812
25 CP5 65 -7.812
25 CP5 66 -7.324
25 CP5 67 -5.859
25 CP5 68 -3.906
25 CP5 69 -2.441
25 CP5 70 -2.441
25 CP5 71 -3.906
25 CP5 72 -5.859
25 CP5 73 -6.836
25 CP5 74 -6.348
25 CP5 75 -4.883
25 CP5 76 -3.906
25 CP5 77 -2.930
25 CP5 78 -1.953
25 CP5 79 -1.465
25 CP5 80 -0.488
25 CP5 81 0.000
25 CP5 82 -1.465
25 CP5 83 -3.418
25 CP5 84 -5.371
25 CP5 85 -6.348
25 CP5 86 -6.348
25 CP5 87 -5.859
25 CP5 88 -6.348
25 CP5 89 -8.301
25 CP5 90 -11.719
25 CP5 91 -14.648
25 CP5 92 -14.648
25 CP5 93 -13.672
25 CP5 94 -11.230
25 CP5 95 -9.766
25 CP5 96 -9.766
25 CP5 97 -10.742
25 CP5 98 -11.719
25 CP5 99 -13.184
25 CP5 100 -15.137
25 CP5 101 -16.602
25 CP5 102 -18.066
25 CP5 103 -18.066
25 CP5 104 -16.602
25 CP5 105 -15.137
25 CP5 106 -14.160
25 CP5 107 -14.648
25 CP5 108 -15.625
25 CP5 109 -15.625
25 CP5 110 -14.648
25 CP5 111 -13.672
25 CP5 112 -13.672
25 CP5 113 -15.625
25 CP5 114 -18.066
25 CP5 115 -18.555
25 CP5 116 -16.602
25 CP5 117 -11.719
25 CP5 118 -7.324
25 CP5 119 -5.371
25 CP5 120 -5.859
25 CP5 121 -7.324
25 CP5 122 -8.789
25 CP5 123 -7.812
25 CP5 124 -5.859
25 CP5 125 -4.395
25 CP5 126 -4.395
25 CP5 127 -5.371
25 CP5 128 -5.859
25 CP5 129 -6.348
25 CP5 130 -6.348
25 CP5 131 -6.836
25 CP5 132 -8.301
25 CP5 133 -9.766
25 CP5 134 -9.766
25 CP5 135 -7.324
25 CP5 136 -3.906
25 CP5 137 -1.465
25 CP5 138 -1.465
25 CP5 139 -3.418
25 CP5 140 -6.348
25 CP5 141 -7.812
25 CP5 142 -6.836
25 CP5 143 -3.906
25 CP5 144 -0.977
25 CP5 145 0.488
25 CP5 146 0.000
25 CP5 147 -0.977
25 CP5 148 -1.465
25 CP5 149 -0.977
25 CP5 150 0.488
25 CP5 151 1.953
25 CP5 152 3.418
25 CP5 153 3.906
25 CP5 154 4.395
25 CP5 155 4.883
25 CP5 156 5.859
25 CP5 157 6.836
25 CP5 158 6.348
25 CP5 159 5.371
25 CP5 160 3.906
25 CP5 161 3.906
25 CP5 162 3.418
25 CP5 163 1.465
25 CP5 164 -2.930
25 CP5 165 -9.277
25 CP5 166 -15.137
25 CP5 167 -16.602
25 CP5 168 -13.672
25 CP5 169 -7.324
25 CP5 170 -1.465
25 CP5 171 0.000
25 CP5 172 -2.441
25 CP5 173 -5.859
25 CP5 174 -7.812
25 CP5 175 -7.812
25 CP5 176 -6.836
25 CP5 177 -7.812
25 CP5 178 -10.254
25 CP5 179 -12.207
25 CP5 180 -11.719
25 CP5 181 -8.301
25 CP5 182 -4.883
25 CP5 183 -2.930
25 CP5 184 -3.906
25 CP5 185 -6.348
25 CP5 186 -8.789
25 CP5 187 -9.277
25 CP5 188 -7.812
25 CP5 189 -6.836
25 CP5 190 -5.859
25 CP5 191 -5.859
25 CP5 192 -6.348
25 CP5 193 -6.348
25 CP5 194 -4.883
25 CP5 195 -3.906
25 CP5 196 -2.441
25 CP5 197 -2.441
25 CP5 198 -2.930
25 CP5 199 -3.906
25 CP5 200 -4.883
25 CP5 201 -5.371
25 CP5 202 -4.883
25 CP5 203 -3.906
25 CP5 204 -2.441
25 CP5 205 -0.488
25 CP5 206 0.977
25 CP5 207 1.465
25 CP5 208 1.465
25 CP5 209 0.000
25 CP5 210 -0.977
25 CP5 211 -1.953
25 CP5 212 -2.930
25 CP5 213 -4.395
25 CP5 214 -5.371
25 CP5 215 -6.348
25 CP5 216 -6.836
25 CP5 217 -6.836
25 CP5 218 -6.836
25 CP5 219 -7.812
25 CP5 220 -9.766
25 CP5 221 -11.719
25 CP5 222 -13.184
25 CP5 223 -13.184
25 CP5 224 -12.695
25 CP5 225 -11.719
25 CP5 226 -10.742
25 CP5 227 -10.254
25 CP5 228 -8.789
25 CP5 229 -7.812
25 CP5 230 -7.324
25 CP5 231 -7.324
25 CP5 232 -6.836
25 CP5 233 -5.859
25 CP5 234 -3.906
25 CP5 235 -1.953
25 CP5 236 0.000
25 CP5 237 -0.488
25 CP5 238 -1.953
25 CP5 239 -2.930
25 CP5 240 -2.441
25 CP5 241 0.000
25 CP5 242 2.930
25 CP5 243 5.371
25 CP5 244 6.348
25 CP5 245 4.883
25 CP5 246 1.953
25 CP5 247 -0.488
25 CP5 248 -1.953
25 CP5 249 -1.465
25 CP5 250 -0.488
25 CP5 251 0.488
25 CP5 252 0.488
25 CP5 253 0.000
25 CP5 254 -0.977
25 CP5 255 -1.953
# CP6 chan 19
25 CP6 0 -1.740
25 CP6 1 -2.228
25 CP6 2 -2.228
25 CP6 3 -1.740
25 CP6 4 -0.275
25 CP6 5 1.190
25 CP6 6 1.678
25 CP6 7 2.167
25 CP6 8 1.190
25 CP6 9 0.214
25 CP6 10 -0.275
25 CP6 11 0.214
25 CP6 12 1.190
25 CP6 13 2.655
25 CP6 14 3.143
25 CP6 15 2.655
25 CP6 16 1.678
25 CP6 17 -0.275
25 CP6 18 -1.740
25 CP6 19 -2.228
25 CP6 20 -1.740
25 CP6 21 -0.763
25 CP6 22 -0.275
25 CP6 23 0.702
25 CP6 24 1.678
25 CP6 25 2.167
25 CP6 26 1.678
25 CP6 27 0.702
25 CP6 28 -1.251
25 CP6 29 -3.204
25 CP6 30 -4.181
25 CP6 31 -3.693
25 CP6 32 -1.740
25 CP6 33 -0.275
25 CP6 34 -0.275
25 CP6 35 -2.228
25 CP6 36 -4.181
25 CP6 37 -6.622
25 CP6 38 -7.111
25 CP6 39 -6.622
25 CP6 40 -5.646
25 CP6 41 -5.157
25 CP6 42 -5.157
25 CP6 43 -6.134
25 CP6 44 -8.087
25 CP6 45 -9.552
25 CP6 46 -11.017
25 CP6 47 -11.505
25 CP6 48 -11.505
25 CP6 49 -10.529
25 CP6 50 -9.064
25 CP6 51 -8.087
25 CP6 52 -7.111
25 CP6 53 -6.622
25 CP6 54 -7.111
25 CP6 55 -9.064
25 CP6 56 -10.529
25 CP6 57 -11.505
25 CP6 58 -11.505
25 CP6 59 -10.529
25 CP6 60 -10.040
25 CP6 61 -10.529
25 CP6 62 -12.482
25 CP6 63 -14.435
25 CP6 64 -14.923
25 CP6 65 -13.458
25 CP6 66 -11.017
25 CP6 67 -8.575
25 CP6 68 -8.087
25 CP6 69 -7.599
25 CP6 70 -7.599
25 CP6 71 -7.599
25 CP6 72 -8.087
25 CP6 73 -9.552
25 CP6 74 -11.505
25 CP6 75 -12.970
25 CP6 76 -12.970
25 CP6 77 -11.017
25 CP6 78 -8.087
25 CP6 79 -5.646
25 CP6 80 -4.669
25 CP6 81 -5.646
25 CP6 82 -7.111
25 CP6 83 -8.575
25 CP6 84 -9.552
25 CP6 85 -11.017
25 CP6 86 -13.458
25 CP6 87 -16.388
25 CP6 88 -18.829
25 CP6 89 -19.806
25 CP6 90 -18.829
25 CP6 91 -17.365
25 CP6 92 -15.900
25 CP6 93 -14.435
25 CP6 94 -13.947
25 CP6 95 -12.970
25 CP6 96 -11.993
25 CP6 97 -10.529
25 CP6 98 -10.040
25 CP6 99 -10.040
25 CP6 100 -10.529
25 CP6 101 -11.505
25 CP6 102 -11.505
25 CP6 103 -10.040
25 CP6 104 -7.599
25 CP6 105 -4.669
25 CP6 106 -3.693
25 CP6 107 -3.693
25 CP6 108 -4.669
25 CP6 109 -5.646
25 CP6 110 -5.646
25 CP6 111 -4.669
25 CP6 112 -4.181
25 CP6 113 -4.669
25 CP6 114 -6.134
25 CP6 115 -7.599
25 CP6 116 -7.599
25 CP6 117 -5.646
25 CP6 118 -3.204
25 CP6 119 -1.740
25 CP6 120 -3.204
25 CP6 121 -6.134
25 CP6 122 -9.064
25 CP6 123 -10.040
25 CP6 124 -9.064
25 CP6 125 -7.111
25 CP6 126 -6.622
25 CP6 127 -8.575
25 CP6 128 -11.505
25 CP6 129 -13.947
25 CP6 130 -14.923
25 CP6 131 -13.458
25 CP6 132 -11.993
25 CP6 133 -10.529
25 CP6 134 -10.040
25 CP6 135 -10.529
25 CP6 136 -10.529
25 CP6 137 -10.040
25 CP6 138 -10.040
25 CP6 139 -9.552
25 CP6 140 -8.087
25 CP6 141 -5.646
25 CP6 142 -2.716
25 CP6 143 -0.275
25 CP6 144 0.214
25 CP6 145 -1.740
25 CP6 146 -4.669
25 CP6 147 -7.111
25 CP6 148 -8.087
25 CP6 149 -7.111
25 CP6 150 -5.157
25 CP6 151 -3.693
25 CP6 152 -2.228
25 CP6 153 -1.740
25 CP6 154 -1.740
25 CP6 155 -1.740
25 CP6 156 -1.740
25 CP6 157 -1.740
25 CP6 158 -1.740
25 CP6 159 -1.740
25 CP6 160 -2.228
25 CP6 161 -2.716
25 CP6 162 -4.669
25 CP6 163 -7.111
25 CP6 164 -10.040
25 CP6 165 -13.947
25 CP6 166 -16.876
25 CP6 167 -17.365
25 CP6 168 -14.435
25 CP6 169 -9.552
25 CP6 170 -4.181
25 CP6 171 -2.228
25 CP6 172 -3.693
25 CP6 173 -6.622
25 CP6 174 -9.552
25 CP6 175 -9.064
25 CP6 176 -7.111
25 CP6 177 -5.646
25 CP6 178 -5.646
25 CP6 179 -7.111
25 CP6 180 -8.087
25 CP6 181 -6.622
25 CP6 182 -3.204
25 CP6 183 -0.275
25 CP6 184 0.214
25 CP6 185 -1.740
25 CP6 186 -4.669
25 CP6 187 -6.134
25 CP6 188 -5.646
25 CP6 189 -3.693
25 CP6 190 -2.228
25 CP6 191 -2.228
25 CP6 192 -2.716
25 CP6 193 -2.716
25 CP6 194 -1.740
25 CP6 195 -0.275
25 CP6 196 0.702
25 CP6 197 0.214
25 CP6 198 -1.251
25 CP6 199 -2.716
25 CP6 200 -3.693
25 CP6 201 -3.693
25 CP6 202 -3.204
25 CP6 203 -2.716
25 CP6 204 -2.228
25 CP6 205 -2.228
25 CP6 206 -2.228
25 CP6 207 -1.740
25 CP6 208 -0.763
25 CP6 209 -0.763
25 CP6 210 -1.251
25 CP6 211 -3.204
25 CP6 212 -6.134
25 CP6 213 -8.575
25 CP6 214 -9.552
25 CP6 215 -9.064
25 CP6 216 -8.087
25 CP6 217 -8.087
25 CP6 218 -8.575
25 CP6 219 -10.040
25 CP6 220 -11.017
25 CP6 221 -11.505
25 CP6 222 -11.017
25 CP6 223 -10.529
25 CP6 224 -11.505
25 CP6 225 -13.458
25 CP6 226 -14.435
25 CP6 227 -14.435
25 CP6 228 -12.482
25 CP6 229 -10.040
25 CP6 230 -8.575
25 CP6 231 -8.575
25 CP6 232 -10.040
25 CP6 233 -10.529
25 CP6 234 -9.552
25 CP6 235 -7.111
25 CP6 236 -4.181
25 CP6 237 -2.228
25 CP6 238 -2.228
25 CP6 239 -3.204
25 CP6 240 -3.693
25 CP6 241 -3.693
25 CP6 242 -2.228
25 CP6 243 -1.251
25 CP6 244 -0.763
25 CP6 245 -1.251
25 CP6 246 -1.251
25 CP6 247 -1.740
25 CP6 248 -1.251
25 CP6 249 -0.763
25 CP6 250 -0.763
25 CP6 251 -2.228
25 CP6 252 -3.204
25 CP6 253 -4.181
25 CP6 254 -4.669
25 CP6 255 -4.181
# CP1 chan 20
25 CP1 0 -9.450
25 CP1 1 -8.962
25 CP1 2 -8.474
25 CP1 3 -7.009
25 CP1 4 -5.056
25 CP1 5 -4.079
25 CP1 6 -4.079
25 CP1 7 -6.032
25 CP1 8 -7.985
25 CP1 9 -9.939
25 CP1 10 -10.427
25 CP1 11 -9.939
25 CP1 12 -8.474
25 CP1 13 -7.497
25 CP1 14 -6.032
25 CP1 15 -5.056
25 CP1 16 -4.567
25 CP1 17 -4.079
25 CP1 18 -4.079
25 CP1 19 -4.567
25 CP1 20 -5.544
25 CP1 21 -5.544
25 CP1 22 -5.056
25 CP1 23 -4.567
25 CP1 24 -4.567
25 CP1 25 -5.544
25 CP1 26 -7.009
25 CP1 27 -8.474
25 CP1 28 -9.450
25 CP1 29 -9.450
25 CP1 30 -8.474
25 CP1 31 -7.009
25 CP1 32 -5.544
25 CP1 33 -4.567
25 CP1 34 -4.567
25 CP1 35 -4.567
25 CP1 36 -5.544
25 CP1 37 -7.009
25 CP1 38 -8.474
25 CP1 39 -9.939
25 CP1 40 -10.915
25 CP1 41 -10.427
25 CP1 42 -9.450
25 CP1 43 -8.474
25 CP1 44 -7.009
25 CP1 45 -5.544
25 CP1 46 -4.567
25 CP1 47 -4.567
25 CP1 48 -5.544
25 CP1 49 -7.009
25 CP1 50 -8.962
25 CP1 51 -10.427
25 CP1 52 -10.915
25 CP1 53 -11.403
25 CP1 54 -11.892
25 CP1 55 -12.380
25 CP1 56 -12.868
25 CP1 57 -12.380
25 CP1 58 -11.403
25 CP1 59 -9.939
25 CP1 60 -7.985
25 CP1 61 -7.497
25 CP1 62 -7.985
25 CP1 63 -8.474
25 CP1 64 -8.962
25 CP1 65 -8.474
25 CP1 66 -6.521
25 CP1 67 -5.056
25 CP1 68 -4.079
25 CP1 69 -3.591
25 CP1 70 -3.591
25 CP1 71 -4.079
25 CP1 72 -6.032
25 CP1 73 -8.474
25 CP1 74 -11.403
25 CP1 75 -13.357
25 CP1 76 -13.845
25 CP1 77 -11.403
25 CP1 78 -8.962
25 CP1 79 -6.521
25 CP1 80 -5.544
25 CP1 81 -6.032
25 CP1 82 -6.521
25 CP1 83 -7.497
25 CP1 84 -7.009
25 CP1 85 -7.009
25 CP1 86 -7.497
25 CP1 87 -8.474
25 CP1 88 -10.427
25 CP1 89 -11.892
25 CP1 90 -12.380
25 CP1 91 -12.380
25 CP1 92 -11.403
25 CP1 93 -10.427
25 CP1 94 -9.450
25 CP1 95 -8.474
25 CP1 96 -7.985
25 CP1 97 -7.985
25 CP1 98 -8.474
25 CP1 99 -9.450
25 CP1 100 -9.939
25 CP1 101 -10.427
25 CP1 102 -9.939
25 CP1 103 -9.450
25 CP1 104 -8.962
25 CP1 105 -8.962
25 CP1 106 -9.939
25 CP1 107 -10.427
25 CP1 108 -9.939
25 CP1 109 -8.962
25 CP1 110 -7.497
25 CP1 111 -7.009
25 CP1 112 -7.497
25 CP1 113 -9.939
25 CP1 114 -12.380
25 CP1 115 -14.333
25 CP1 116 -14.333
25 CP1 117 -12.380
25 CP1 118 -9.450
25 CP1 119 -7.497
25 CP1 120 -7.985
25 CP1 121 -9.450
25 CP1 122 -10.915
25 CP1 123 -10.915
25 CP1 124 -9.450
25 CP1 125 -7.009
25 CP1 126 -6.032
25 CP1 127 -6.032
25 CP1 128 -7.009
25 CP1 129 -7.985
25 CP1 130 -7.985
25 CP1 131 -7.497
25 CP1 132 -7.009
25 CP1 133 -7.497
25 CP1 134 -7.985
25 CP1 135 -7.497
25 CP1 136 -7.009
25 CP1 137 -5.544
25 CP1 138 -5.056
25 CP1 139 -4.567
25 CP1 140 -5.056
25 CP1 141 -4.567
25 CP1 142 -4.079
25 CP1 143 -2.614
25 CP1 144 -1.149
25 CP1 145 -0.661
25 CP1 146 -0.661
25 CP1 147 -1.638
25 CP1 148 -2.126
25 CP1 149 -2.126
25 CP1 150 -1.149
25 CP1 151 0.804
25 CP1 152 1.780
25 CP1 153 2.268
25 CP1 154 1.780
25 CP1 155 0.804
25 CP1 156 -0.173
25 CP1 157 -0.173
25 CP1 158 -0.661
25 CP1 159 -1.149
25 CP1 160 -2.126
25 CP1 161 -3.103
25 CP1 162 -4.079
25 CP1 163 -5.544
25 CP1 164 -8.962
25 CP1 165 -12.868
25 CP1 166 -16.286
25 CP1 167 -16.774
25 CP1 168 -13.845
25 CP1 169 -8.962
25 CP1 170 -5.056
25 CP1 171 -4.079
25 CP1 172 -6.032
25 CP1 173 -8.962
25 CP1 174 -11.403
25 CP1 175 -11.403
25 CP1 176 -10.427
25 CP1 177 -9.939
25 CP1 178 -10.915
25 CP1 179 -11.892
25 CP1 180 -12.380
25 CP1 181 -10.427
25 CP1 182 -7.497
25 CP1 183 -5.056
25 CP1 184 -5.056
25 CP1 185 -6.032
25 CP1 186 -7.497
25 CP1 187 -8.962
25 CP1 188 -8.962
25 CP1 189 -8.474
25 CP1 190 -7.985
25 CP1 191 -8.474
25 CP1 192 -8.474
25 CP1 193 -7.985
25 CP1 194 -7.009
25 CP1 195 -5.056
25 CP1 196 -2.614
25 CP1 197 -1.149
25 CP1 198 -0.661
25 CP1 199 -1.149
25 CP1 200 -2.614
25 CP1 201 -4.567
25 CP1 202 -6.521
25 CP1 203 -7.497
25 CP1 204 -7.497
25 CP1 205 -7.009
25 CP1 206 -7.009
25 CP1 207 -7.497
25 CP1 208 -8.474
25 CP1 209 -9.450
25 CP1 210 -10.427
25 CP1 211 -10.427
25 CP1 212 -11.403
25 CP1 213 -11.892
25 CP1 214 -11.892
25 CP1 215 -11.892
25 CP1 216 -11.403
25 CP1 217 -10.427
25 CP1 218 -10.427
25 CP1 219 -10.915
25 CP1 220 -12.868
25 CP1 221 -13.845
25 CP1 222 -14.821
25 CP1 223 -13.845
25 CP1 224 -12.868
25 CP1 225 -12.380
25 CP1 226 -12.380
25 CP1 227 -12.380
25 CP1 228 -12.380
25 CP1 229 -11.403
25 CP1 230 -10.427
25 CP1 231 -10.427
25 CP1 232 -11.403
25 CP1 233 -11.892
25 CP1 234 -11.892
25 CP1 235 -10.427
25 CP1 236 -8.962
25 CP1 237 -7.497
25 CP1 238 -7.009
25 CP1 239 -7.009
25 CP1 240 -6.521
25 CP1 241 -4.567
25 CP1 242 -2.126
25 CP1 243 -0.173
25 CP1 244 0.315
25 CP1 245 -0.661
25 CP1 246 -2.614
25 CP1 247 -5.056
25 CP1 248 -7.009
25 CP1 249 -7.985
25 CP1 250 -8.474
25 CP1 251 -8.962
25 CP1 252 -9.450
25 CP1 253 -9.939
25 CP1 254 -9.450
25 CP1 255 -8.474
# CP2 chan 21
25 CP2 0 -4.873
25 CP2 1 -4.384
25 CP2 2 -4.873
25 CP2 3 -5.361
25 CP2 4 -5.361
25 CP2 5 -4.384
25 CP2 6 -3.408
25 CP2 7 -3.408
25 CP2 8 -3.408
25 CP2 9 -4.873
25 CP2 10 -5.361
25 CP2 11 -4.873
25 CP2 12 -3.896
25 CP2 13 -2.431
25 CP2 14 -1.943
25 CP2 15 -1.943
25 CP2 16 -2.920
25 CP2 17 -3.896
25 CP2 18 -4.873
25 CP2 19 -4.873
25 CP2 20 -4.873
25 CP2 21 -3.896
25 CP2 22 -3.896
25 CP2 23 -4.384
25 CP2 24 -5.361
25 CP2 25 -5.361
25 CP2 26 -5.849
25 CP2 27 -5.361
25 CP2 28 -4.873
25 CP2 29 -4.873
25 CP2 30 -5.361
25 CP2 31 -5.361
25 CP2 32 -4.873
25 CP2 33 -3.896
25 CP2 34 -3.408
25 CP2 35 -2.920
25 CP2 36 -2.920
25 CP2 37 -3.408
25 CP2 38 -3.896
25 CP2 39 -4.873
25 CP2 40 -5.361
25 CP2 41 -6.337
25 CP2 42 -6.826
25 CP2 43 -7.314
25 CP2 44 -6.826
25 CP2 45 -6.337
25 CP2 46 -6.337
25 CP2 47 -6.826
25 CP2 48 -7.314
25 CP2 49 -8.779
25 CP2 50 -9.267
25 CP2 51 -9.267
25 CP2 52 -8.779
25 CP2 53 -8.779
25 CP2 54 -9.267
25 CP2 55 -10.244
25 CP2 56 -11.709
25 CP2 57 -11.220
25 CP2 58 -11.220
25 CP2 59 -9.755
25 CP2 60 -8.779
25 CP2 61 -8.779
25 CP2 62 -9.267
25 CP2 63 -9.755
25 CP2 64 -10.244
25 CP2 65 -9.755
25 CP2 66 -9.267
25 CP2 67 -8.291
25 CP2 68 -7.802
25 CP2 69 -6.826
25 CP2 70 -5.849
25 CP2 71 -6.337
25 CP2 72 -7.802
25 CP2 73 -10.244
25 CP2 74 -12.197
25 CP2 75 -12.685
25 CP2 76 -11.220
25 CP2 77 -8.779
25 CP2 78 -6.337
25 CP2 79 -4.873
25 CP2 80 -5.361
25 CP2 81 -6.826
25 CP2 82 -8.779
25 CP2 83 -10.244
25 CP2 84 -10.732
25 CP2 85 -11.220
25 CP2 86 -11.220
25 CP2 87 -11.709
25 CP2 88 -12.197
25 CP2 89 -12.685
25 CP2 90 -13.662
25 CP2 91 -13.173
25 CP2 92 -12.197
25 CP2 93 -10.244
25 CP2 94 -9.267
25 CP2 95 -9.267
25 CP2 96 -10.244
25 CP2 97 -11.709
25 CP2 98 -12.197
25 CP2 99 -11.220
25 CP2 100 -10.732
25 CP2 101 -10.732
25 CP2 102 -11.709
25 CP2 103 -12.685
25 CP2 104 -12.197
25 CP2 105 -10.244
25 CP2 106 -7.802
25 CP2 107 -5.849
25 CP2 108 -6.337
25 CP2 109 -7.802
25 CP2 110 -8.779
25 CP2 111 -8.291
25 CP2 112 -6.826
25 CP2 113 -6.337
25 CP2 114 -6.826
25 CP2 115 -8.779
25 CP2 116 -10.244
25 CP2 117 -10.732
25 CP2 118 -10.244
25 CP2 119 -9.755
25 CP2 120 -10.244
25 CP2 121 -11.709
25 CP2 122 -13.173
25 CP2 123 -12.685
25 CP2 124 -10.732
25 CP2 125 -8.779
25 CP2 126 -7.802
25 CP2 127 -8.291
25 CP2 128 -10.244
25 CP2 129 -11.709
25 CP2 130 -11.709
25 CP2 131 -11.220
25 CP2 132 -9.755
25 CP2 133 -8.779
25 CP2 134 -9.267
25 CP2 135 -9.755
25 CP2 136 -10.244
25 CP2 137 -10.732
25 CP2 138 -10.732
25 CP2 139 -10.244
25 CP2 140 -9.267
25 CP2 141 -7.802
25 CP2 142 -6.826
25 CP2 143 -5.849
25 CP2 144 -5.849
25 CP2 145 -5.849
25 CP2 146 -6.826
25 CP2 147 -6.826
25 CP2 148 -6.826
25 CP2 149 -6.337
25 CP2 150 -6.337
25 CP2 151 -5.849
25 CP2 152 -5.849
25 CP2 153 -5.849
25 CP2 154 -5.849
25 CP2 155 -5.849
25 CP2 156 -6.337
25 CP2 157 -6.337
25 CP2 158 -6.826
25 CP2 159 -6.826
25 CP2 160 -6.337
25 CP2 161 -5.361
25 CP2 162 -5.361
25 CP2 163 -5.849
25 CP2 164 -7.802
25 CP2 165 -10.244
25 CP2 166 -12.197
25 CP2 167 -12.685
25 CP2 168 -11.220
25 CP2 169 -9.267
25 CP2 170 -7.802
25 CP2 171 -8.291
25 CP2 172 -10.244
25 CP2 173 -13.173
25 CP2 174 -14.638
25 CP2 175 -14.638
25 CP2 176 -13.662
25 CP2 177 -12.685
25 CP2 178 -12.685
25 CP2 179 -13.173
25 CP2 180 -13.662
25 CP2 181 -12.685
25 CP2 182 -11.220
25 CP2 183 -10.244
25 CP2 184 -10.732
25 CP2 185 -13.173
25 CP2 186 -15.615
25 CP2 187 -16.591
25 CP2 188 -15.615
25 CP2 189 -13.662
25 CP2 190 -12.197
25 CP2 191 -12.685
25 CP2 192 -14.150
25 CP2 193 -16.103
25 CP2 194 -16.591
25 CP2 195 -16.103
25 CP2 196 -15.127
25 CP2 197 -14.150
25 CP2 198 -14.150
25 CP2 199 -14.150
25 CP2 200 -14.638
25 CP2 201 -14.638
25 CP2 202 -13.662
25 CP2 203 -12.685
25 CP2 204 -11.709
25 CP2 205 -10.732
25 CP2 206 -10.732
25 CP2 207 -11.220
25 CP2 208 -11.709
25 CP2 209 -13.173
25 CP2 210 -13.662
25 CP2 211 -14.150
25 CP2 212 -14.150
25 CP2 213 -14.150
25 CP2 214 -14.150
25 CP2 215 -14.638
25 CP2 216 -15.127
25 CP2 217 -15.127
25 CP2 218 -15.615
25 CP2 219 -15.615
25 CP2 220 -16.591
25 CP2 221 -17.568
25 CP2 222 -18.056
25 CP2 223 -18.545
25 CP2 224 -18.056
25 CP2 225 -18.056
25 CP2 226 -18.056
25 CP2 227 -17.568
25 CP2 228 -17.080
25 CP2 229 -16.591
25 CP2 230 -15.615
25 CP2 231 -14.638
25 CP2 232 -14.150
25 CP2 233 -13.662
25 CP2 234 -13.173
25 CP2 235 -12.197
25 CP2 236 -11.709
25 CP2 237 -11.709
25 CP2 238 -11.709
25 CP2 239 -11.709
25 CP2 240 -12.197
25 CP2 241 -11.220
25 CP2 242 -10.244
25 CP2 243 -9.755
25 CP2 244 -9.755
25 CP2 245 -10.732
25 CP2 246 -11.709
25 CP2 247 -11.709
25 CP2 248 -11.220
25 CP2 249 -10.732
25 CP2 250 -10.732
25 CP2 251 -12.197
25 CP2 252 -13.173
25 CP2 253 -14.150
25 CP2 254 -13.662
25 CP2 255 -12.197
# P3 chan 22
25 P3 0 0.214
25 P3 1 1.190
25 P3 2 1.678
25 P3 3 1.190
25 P3 4 0.214
25 P3 5 -1.740
25 P3 6 -3.204
25 P3 7 -5.157
25 P3 8 -6.134
25 P3 9 -5.646
25 P3 10 -4.181
25 P3 11 -1.740
25 P3 12 0.214
25 P3 13 2.167
25 P3 14 2.655
25 P3 15 2.655
25 P3 16 1.678
25 P3 17 0.702
25 P3 18 -0.275
25 P3 19 -0.763
25 P3 20 -1.251
25 P3 21 -1.740
25 P3 22 -2.716
25 P3 23 -4.669
25 P3 24 -6.134
25 P3 25 -6.622
25 P3 26 -5.646
25 P3 27 -4.669
25 P3 28 -3.693
25 P3 29 -3.204
25 P3 30 -3.693
25 P3 31 -3.693
25 P3 32 -3.204
25 P3 33 -2.228
25 P3 34 -1.740
25 P3 35 -1.740
25 P3 36 -2.716
25 P3 37 -2.716
25 P3 38 -2.716
25 P3 39 -2.228
25 P3 40 -2.716
25 P3 41 -4.181
25 P3 42 -6.134
25 P3 43 -7.599
25 P3 44 -8.087
25 P3 45 -8.575
25 P3 46 -8.087
25 P3 47 -8.575
25 P3 48 -9.552
25 P3 49 -10.040
25 P3 50 -10.040
25 P3 51 -9.064
25 P3 52 -9.064
25 P3 53 -9.552
25 P3 54 -11.993
25 P3 55 -14.435
25 P3 56 -16.388
25 P3 57 -16.388
25 P3 58 -15.411
25 P3 59 -13.947
25 P3 60 -12.482
25 P3 61 -11.993
25 P3 62 -12.482
25 P3 63 -12.482
25 P3 64 -11.993
25 P3 65 -10.529
25 P3 66 -9.552
25 P3 67 -9.552
25 P3 68 -10.040
25 P3 69 -11.017
25 P3 70 -11.017
25 P3 71 -11.017
25 P3 72 -11.505
25 P3 73 -12.482
25 P3 74 -13.947
25 P3 75 -13.947
25 P3 76 -12.482
25 P3 77 -9.552
25 P3 78 -6.622
25 P3 79 -5.646
25 P3 80 -7.111
25 P3 81 -8.575
25 P3 82 -9.064
25 P3 83 -9.064
25 P3 84 -8.087
25 P3 85 -7.111
25 P3 86 -7.599
25 P3 87 -9.552
25 P3 88 -11.505
25 P3 89 -12.970
25 P3 90 -13.458
25 P3 91 -12.970
25 P3 92 -12.970
25 P3 93 -12.482
25 P3 94 -11.993
25 P3 95 -11.993
25 P3 96 -11.505
25 P3 97 -11.993
25 P3 98 -12.970
25 P3 99 -13.947
25 P3 100 -15.411
25 P3 101 -16.388
25 P3 102 -16.876
25 P3 103 -16.388
25 P3 104 -15.900
25 P3 105 -14.923
25 P3 106 -14.435
25 P3 107 -13.947
25 P3 108 -13.458
25 P3 109 -12.482
25 P3 110 -11.505
25 P3 111 -10.529
25 P3 112 -11.017
25 P3 113 -12.482
25 P3 114 -14.435
25 P3 115 -14.923
25 P3 116 -13.947
25 P3 117 -11.017
25 P3 118 -8.575
25 P3 119 -8.087
25 P3 120 -10.040
25 P3 121 -13.458
25 P3 122 -16.388
25 P3 123 -16.876
25 P3 124 -14.923
25 P3 125 -11.993
25 P3 126 -10.529
25 P3 127 -10.529
25 P3 128 -11.993
25 P3 129 -12.970
25 P3 130 -12.970
25 P3 131 -12.482
25 P3 132 -12.482
25 P3 133 -11.993
25 P3 134 -10.529
25 P3 135 -9.064
25 P3 136 -7.111
25 P3 137 -6.622
25 P3 138 -7.599
25 P3 139 -8.575
25 P3 140 -9.552
25 P3 141 -8.087
25 P3 142 -5.646
25 P3 143 -3.204
25 P3 144 -2.716
25 P3 145 -3.693
25 P3 146 -5.646
25 P3 147 -7.111
25 P3 148 -7.111
25 P3 149 -5.157
25 P3 150 -3.204
25 P3 151 -2.228
25 P3 152 -3.693
25 P3 153 -4.669
25 P3 154 -6.134
25 P3 155 -6.622
25 P3 156 -6.134
25 P3 157 -6.134
25 P3 158 -6.134
25 P3 159 -6.134
25 P3 160 -6.134
25 P3 161 -5.646
25 P3 162 -6.134
25 P3 163 -8.087
25 P3 164 -12.482
25 P3 165 -16.876
25 P3 166 -19.806
25 P3 167 -19.318
25 P3 168 -15.900
25 P3 169 -10.529
25 P3 170 -6.134
25 P3 171 -4.181
25 P3 172 -4.669
25 P3 173 -7.111
25 P3 174 -9.064
25 P3 175 -10.529
25 P3 176 -11.505
25 P3 177 -12.482
25 P3 178 -13.947
25 P3 179 -14.435
25 P3 180 -13.458
25 P3 181 -11.505
25 P3 182 -10.040
25 P3 183 -9.552
25 P3 184 -11.505
25 P3 185 -13.947
25 P3 186 -16.388
25 P3 187 -16.876
25 P3 188 -15.411
25 P3 189 -13.458
25 P3 190 -12.482
25 P3 191 -12.482
25 P3 192 -13.458
25 P3 193 -13.947
25 P3 194 -13.947
25 P3 195 -12.970
25 P3 196 -11.017
25 P3 197 -9.552
25 P3 198 -10.040
25 P3 199 -11.017
25 P3 200 -12.482
25 P3 201 -12.970
25 P3 202 -11.993
25 P3 203 -10.529
25 P3 204 -8.575
25 P3 205 -6.622
25 P3 206 -5.646
25 P3 207 -5.157
25 P3 208 -5.646
25 P3 209 -6.622
25 P3 210 -8.575
25 P3 211 -11.993
25 P3 212 -14.923
25 P3 213 -16.876
25 P3 214 -17.853
25 P3 215 -16.876
25 P3 216 -15.900
25 P3 217 -14.435
25 P3 218 -13.947
25 P3 219 -13.947
25 P3 220 -15.411
25 P3 221 -16.876
25 P3 222 -18.341
25 P3 223 -19.318
25 P3 224 -18.341
25 P3 225 -17.365
25 P3 226 -15.411
25 P3 227 -14.435
25 P3 228 -13.947
25 P3 229 -13.947
25 P3 230 -14.923
25 P3 231 -16.388
25 P3 232 -16.876
25 P3 233 -16.876
25 P3 234 -15.411
25 P3 235 -13.947
25 P3 236 -12.482
25 P3 237 -11.505
25 P3 238 -11.017
25 P3 239 -11.017
25 P3 240 -10.529
25 P3 241 -9.064
25 P3 242 -7.111
25 P3 243 -5.157
25 P3 244 -4.181
25 P3 245 -4.669
25 P3 246 -6.134
25 P3 247 -9.552
25 P3 248 -12.482
25 P3 249 -15.411
25 P3 250 -16.876
25 P3 251 -16.876
25 P3 252 -15.900
25 P3 253 -14.923
25 P3 254 -14.923
25 P3 255 -15.900
# P4 chan 23
25 P4 0 -3.021
25 P4 1 -1.556
25 P4 2 -1.556
25 P4 3 -1.556
25 P4 4 -2.045
25 P4 5 -1.556
25 P4 6 -1.556
25 P4 7 -1.068
25 P4 8 -2.045
25 P4 9 -3.021
25 P4 10 -3.998
25 P4 11 -4.486
25 P4 12 -3.510
25 P4 13 -1.556
25 P4 14 -0.092
25 P4 15 0.885
25 P4 16 0.885
25 P4 17 -0.092
25 P4 18 -1.556
25 P4 19 -2.533
25 P4 20 -2.533
25 P4 21 -2.045
25 P4 22 -2.045
25 P4 23 -2.045
25 P4 24 -2.533
25 P4 25 -2.533
25 P4 26 -3.021
25 P4 27 -2.045
25 P4 28 -2.045
25 P4 29 -2.045
25 P4 30 -2.533
25 P4 31 -3.021
25 P4 32 -3.021
25 P4 33 -2.533
25 P4 34 -2.533
25 P4 35 -2.533
25 P4 36 -2.045
25 P4 37 -2.045
25 P4 38 -1.556
25 P4 39 -1.068
25 P4 40 -1.068
25 P4 41 -2.533
25 P4 42 -3.998
25 P4 43 -5.463
25 P4 44 -6.439
25 P4 45 -7.416
25 P4 46 -7.416
25 P4 47 -6.927
25 P4 48 -6.927
25 P4 49 -6.439
25 P4 50 -6.439
25 P4 51 -5.463
25 P4 52 -4.974
25 P4 53 -4.486
25 P4 54 -5.463
25 P4 55 -6.439
25 P4 56 -8.392
25 P4 57 -9.369
25 P4 58 -8.881
25 P4 59 -6.927
25 P4 60 -5.463
25 P4 61 -4.974
25 P4 62 -5.951
25 P4 63 -7.416
25 P4 64 -8.881
25 P4 65 -9.369
25 P4 66 -8.392
25 P4 67 -7.416
25 P4 68 -6.927
25 P4 69 -6.927
25 P4 70 -6.927
25 P4 71 -6.439
25 P4 72 -6.439
25 P4 73 -7.416
25 P4 74 -9.369
25 P4 75 -10.834
25 P4 76 -11.322
25 P4 77 -9.369
25 P4 78 -5.951
25 P4 79 -2.045
25 P4 80 -0.092
25 P4 81 -0.092
25 P4 82 -2.045
25 P4 83 -3.998
25 P4 84 -4.486
25 P4 85 -3.510
25 P4 86 -2.045
25 P4 87 -1.556
25 P4 88 -2.045
25 P4 89 -3.998
25 P4 90 -5.463
25 P4 91 -6.439
25 P4 92 -6.927
25 P4 93 -6.927
25 P4 94 -6.439
25 P4 95 -5.951
25 P4 96 -4.974
25 P4 97 -3.021
25 P4 98 -1.556
25 P4 99 -1.556
25 P4 100 -3.510
25 P4 101 -5.951
25 P4 102 -6.927
25 P4 103 -5.951
25 P4 104 -3.021
25 P4 105 -0.092
25 P4 106 1.862
25 P4 107 1.862
25 P4 108 0.397
25 P4 109 -0.580
25 P4 110 -1.068
25 P4 111 -0.580
25 P4 112 -1.068
25 P4 113 -2.533
25 P4 114 -3.998
25 P4 115 -3.998
25 P4 116 -3.021
25 P4 117 -0.580
25 P4 118 1.373
25 P4 119 0.885
25 P4 120 -2.045
25 P4 121 -4.974
25 P4 122 -7.904
25 P4 123 -7.904
25 P4 124 -6.439
25 P4 125 -4.486
25 P4 126 -3.998
25 P4 127 -4.486
25 P4 128 -5.463
25 P4 129 -5.951
25 P4 130 -4.974
25 P4 131 -3.510
25 P4 132 -1.556
25 P4 133 -0.580
25 P4 134 0.397
25 P4 135 0.885
25 P4 136 1.373
25 P4 137 1.862
25 P4 138 1.373
25 P4 139 1.373
25 P4 140 2.350
25 P4 141 4.303
25 P4 142 6.744
25 P4 143 8.209
25 P4 144 8.698
25 P4 145 7.721
25 P4 146 6.256
25 P4 147 5.768
25 P4 148 5.768
25 P4 149 6.744
25 P4 150 7.233
25 P4 151 7.233
25 P4 152 5.768
25 P4 153 3.815
25 P4 154 3.326
25 P4 155 3.326
25 P4 156 3.815
25 P4 157 4.303
25 P4 158 4.303
25 P4 159 4.303
25 P4 160 3.815
25 P4 161 2.838
25 P4 162 1.862
25 P4 163 0.397
25 P4 164 -2.045
25 P4 165 -3.998
25 P4 166 -5.951
25 P4 167 -6.439
25 P4 168 -4.974
25 P4 169 -2.533
25 P4 170 -0.580
25 P4 171 -0.580
25 P4 172 -2.533
25 P4 173 -5.463
25 P4 174 -6.927
25 P4 175 -7.416
25 P4 176 -5.951
25 P4 177 -4.974
25 P4 178 -3.998
25 P4 179 -3.510
25 P4 180 -2.533
25 P4 181 -0.580
25 P4 182 1.862
25 P4 183 3.326
25 P4 184 3.815
25 P4 185 2.350
25 P4 186 1.862
25 P4 187 1.373
25 P4 188 1.862
25 P4 189 2.350
25 P4 190 1.373
25 P4 191 -0.092
25 P4 192 -1.068
25 P4 193 -0.580
25 P4 194 0.885
25 P4 195 2.350
25 P4 196 3.326
25 P4 197 2.350
25 P4 198 0.885
25 P4 199 -0.092
25 P4 200 -0.580
25 P4 201 0.397
25 P4 202 2.350
25 P4 203 3.815
25 P4 204 5.280
25 P4 205 6.256
25 P4 206 6.744
25 P4 207 7.721
25 P4 208 6.744
25 P4 209 5.768
25 P4 210 4.791
25 P4 211 2.350
25 P4 212 -0.092
25 P4 213 -2.045
25 P4 214 -3.510
25 P4 215 -3.510
25 P4 216 -3.510
25 P4 217 -3.021
25 P4 218 -3.510
25 P4 219 -4.974
25 P4 220 -6.927
25 P4 221 -7.904
25 P4 222 -7.416
25 P4 223 -6.439
25 P4 224 -5.951
25 P4 225 -6.439
25 P4 226 -7.416
25 P4 227 -7.904
25 P4 228 -6.927
25 P4 229 -4.486
25 P4 230 -2.045
25 P4 231 -0.580
25 P4 232 -1.068
25 P4 233 -2.045
25 P4 234 -2.533
25 P4 235 -1.556
25 P4 236 -0.092
25 P4 237 1.373
25 P4 238 1.862
25 P4 239 1.373
25 P4 240 0.397
25 P4 241 -0.092
25 P4 242 -0.092
25 P4 243 -0.092
25 P4 244 -0.092
25 P4 245 -0.092
25 P4 246 -0.580
25 P4 247 -0.092
25 P4 248 0.885
25 P4 249 0.885
25 P4 250 0.397
25 P4 251 -1.068
25 P4 252 -3.021
25 P4 253 -4.486
25 P4 254 -4.974
25 P4 255 -3.998
# PZ chan 24
25 PZ 0 -11.047
25 PZ 1 -10.071
25 PZ 2 -9.094
25 PZ 3 -8.606
25 PZ 4 -8.606
25 PZ 5 -9.094
25 PZ 6 -10.071
25 PZ 7 -11.536
25 PZ 8 -13.000
25 PZ 9 -13.000
25 PZ 10 -12.024
25 PZ 11 -10.071
25 PZ 12 -7.629
25 PZ 13 -6.653
25 PZ 14 -6.165
25 PZ 15 -6.165
25 PZ 16 -6.165
25 PZ 17 -5.188
25 PZ 18 -3.723
25 PZ 19 -3.723
25 PZ 20 -4.211
25 PZ 21 -6.165
25 PZ 22 -8.118
25 PZ 23 -9.583
25 PZ 24 -9.583
25 PZ 25 -9.094
25 PZ 26 -9.094
25 PZ 27 -10.071
25 PZ 28 -11.047
25 PZ 29 -12.024
25 PZ 30 -12.024
25 PZ 31 -11.536
25 PZ 32 -10.071
25 PZ 33 -9.583
25 PZ 34 -9.094
25 PZ 35 -9.094
25 PZ 36 -9.094
25 PZ 37 -8.606
25 PZ 38 -8.118
25 PZ 39 -8.606
25 PZ 40 -9.583
25 PZ 41 -11.047
25 PZ 42 -12.024
25 PZ 43 -13.000
25 PZ 44 -13.977
25 PZ 45 -15.930
25 PZ 46 -18.372
25 PZ 47 -21.301
25 PZ 48 -22.278
25 PZ 49 -22.278
25 PZ 50 -20.325
25 PZ 51 -17.883
25 PZ 52 -16.418
25 PZ 53 -16.907
25 PZ 54 -18.372
25 PZ 55 -20.813
25 PZ 56 -22.766
25 PZ 57 -23.743
25 PZ 58 -23.743
25 PZ 59 -23.743
25 PZ 60 -23.254
25 PZ 61 -23.254
25 PZ 62 -23.743
25 PZ 63 -24.231
25 PZ 64 -23.743
25 PZ 65 -23.254
25 PZ 66 -22.766
25 PZ 67 -22.766
25 PZ 68 -23.254
25 PZ 69 -23.743
25 PZ 70 -23.743
25 PZ 71 -23.254
25 PZ 72 -22.278
25 PZ 73 -21.301
25 PZ 74 -20.813
25 PZ 75 -21.301
25 PZ 76 -22.278
25 PZ 77 -21.790
25 PZ 78 -20.325
25 PZ 79 -16.907
25 PZ 80 -14.465
25 PZ 81 -13.000
25 PZ 82 -13.977
25 PZ 83 -15.930
25 PZ 84 -16.418
25 PZ 85 -15.930
25 PZ 86 -13.977
25 PZ 87 -12.512
25 PZ 88 -12.512
25 PZ 89 -14.465
25 PZ 90 -16.907
25 PZ 91 -18.372
25 PZ 92 -18.860
25 PZ 93 -17.395
25 PZ 94 -16.418
25 PZ 95 -15.930
25 PZ 96 -16.418
25 PZ 97 -16.418
25 PZ 98 -16.418
25 PZ 99 -16.907
25 PZ 100 -17.395
25 PZ 101 -18.372
25 PZ 102 -19.348
25 PZ 103 -20.325
25 PZ 104 -20.325
25 PZ 105 -19.348
25 PZ 106 -18.372
25 PZ 107 -16.907
25 PZ 108 -16.418
25 PZ 109 -15.442
25 PZ 110 -14.954
25 PZ 111 -14.954
25 PZ 112 -15.442
25 PZ 113 -15.930
25 PZ 114 -16.418
25 PZ 115 -16.418
25 PZ 116 -14.954
25 PZ 117 -13.489
25 PZ 118 -11.536
25 PZ 119 -11.536
25 PZ 120 -12.024
25 PZ 121 -13.489
25 PZ 122 -14.465
25 PZ 123 -13.977
25 PZ 124 -12.512
25 PZ 125 -11.047
25 PZ 126 -11.047
25 PZ 127 -11.536
25 PZ 128 -13.000
25 PZ 129 -13.977
25 PZ 130 -13.977
25 PZ 131 -13.000
25 PZ 132 -12.024
25 PZ 133 -11.047
25 PZ 134 -10.559
25 PZ 135 -9.583
25 PZ 136 -8.118
25 PZ 137 -7.141
25 PZ 138 -6.165
25 PZ 139 -5.676
25 PZ 140 -4.211
25 PZ 141 -2.747
25 PZ 142 -1.770
25 PZ 143 -0.793
25 PZ 144 -1.282
25 PZ 145 -1.770
25 PZ 146 -2.747
25 PZ 147 -3.235
25 PZ 148 -2.747
25 PZ 149 -2.258
25 PZ 150 -1.770
25 PZ 151 -0.793
25 PZ 152 -0.305
25 PZ 153 0.183
25 PZ 154 0.671
25 PZ 155 1.160
25 PZ 156 1.648
25 PZ 157 1.648
25 PZ 158 2.136
25 PZ 159 2.136
25 PZ 160 2.136
25 PZ 161 1.160
25 PZ 162 -1.282
25 PZ 163 -5.188
25 PZ 164 -8.118
25 PZ 165 -11.536
25 PZ 166 -13.489
25 PZ 167 -13.977
25 PZ 168 -13.489
25 PZ 169 -12.512
25 PZ 170 -12.024
25 PZ 171 -13.489
25 PZ 172 -16.418
25 PZ 173 -18.860
25 PZ 174 -20.813
25 PZ 175 -20.325
25 PZ 176 -17.883
25 PZ 177 -14.465
25 PZ 178 -12.512
25 PZ 179 -11.047
25 PZ 180 -12.024
25 PZ 181 -12.512
25 PZ 182 -12.024
25 PZ 183 -10.559
25 PZ 184 -9.583
25 PZ 185 -10.071
25 PZ 186 -12.024
25 PZ 187 -13.489
25 PZ 188 -13.977
25 PZ 189 -13.000
25 PZ 190 -10.071
25 PZ 191 -8.118
25 PZ 192 -8.118
25 PZ 193 -10.559
25 PZ 194 -13.977
25 PZ 195 -16.418
25 PZ 196 -17.395
25 PZ 197 -17.395
25 PZ 198 -16.418
25 PZ 199 -15.930
25 PZ 200 -15.442
25 PZ 201 -13.977
25 PZ 202 -11.536
25 PZ 203 -9.094
25 PZ 204 -6.653
25 PZ 205 -5.188
25 PZ 206 -5.188
25 PZ 207 -5.188
25 PZ 208 -5.676
25 PZ 209 -5.676
25 PZ 210 -5.676
25 PZ 211 -6.653
25 PZ 212 -9.583
25 PZ 213 -13.000
25 PZ 214 -15.930
25 PZ 215 -16.907
25 PZ 216 -15.930
25 PZ 217 -13.489
25 PZ 218 -11.047
25 PZ 219 -11.047
25 PZ 220 -13.977
25 PZ 221 -18.372
25 PZ 222 -22.278
25 PZ 223 -23.254
25 PZ 224 -23.743
25 PZ 225 -21.790
25 PZ 226 -19.836
25 PZ 227 -18.372
25 PZ 228 -16.907
25 PZ 229 -14.954
25 PZ 230 -13.000
25 PZ 231 -12.024
25 PZ 232 -13.489
25 PZ 233 -17.395
25 PZ 234 -21.301
25 PZ 235 -23.254
25 PZ 236 -22.766
25 PZ 237 -20.813
25 PZ 238 -18.860
25 PZ 239 -19.348
25 PZ 240 -21.301
25 PZ 241 -22.766
25 PZ 242 -21.301
25 PZ 243 -17.395
25 PZ 244 -12.024
25 PZ 245 -8.606
25 PZ 246 -8.118
25 PZ 247 -10.071
25 PZ 248 -13.000
25 PZ 249 -15.442
25 PZ 250 -16.418
25 PZ 251 -17.395
25 PZ 252 -18.860
25 PZ 253 -20.325
25 PZ 254 -22.766
25 PZ 255 -24.231
# P8 chan 25
25 P8 0 -1.689
25 P8 1 -2.665
25 P8 2 -2.665
25 P8 3 -1.689
25 P8 4 0.264
25 P8 5 1.241
25 P8 6 0.264
25 P8 7 -2.177
25 P8 8 -5.107
25 P8 9 -6.571
25 P8 10 -6.571
25 P8 11 -5.107
25 P8 12 -2.665
25 P8 13 -1.689
25 P8 14 -1.689
25 P8 15 -3.153
25 P8 16 -5.595
25 P8 17 -8.036
25 P8 18 -10.966
25 P8 19 -12.919
25 P8 20 -13.407
25 P8 21 -12.919
25 P8 22 -11.454
25 P8 23 -9.989
25 P8 24 -8.525
25 P8 25 -7.548
25 P8 26 -7.548
25 P8 27 -8.036
25 P8 28 -9.013
25 P8 29 -9.989
25 P8 30 -11.454
25 P8 31 -12.431
25 P8 32 -12.919
25 P8 33 -13.407
25 P8 34 -14.384
25 P8 35 -14.872
25 P8 36 -14.872
25 P8 37 -13.407
25 P8 38 -10.966
25 P8 39 -8.525
25 P8 40 -7.548
25 P8 41 -8.036
25 P8 42 -10.478
25 P8 43 -13.407
25 P8 44 -16.337
25 P8 45 -18.290
25 P8 46 -18.290
25 P8 47 -17.314
25 P8 48 -14.872
25 P8 49 -12.431
25 P8 50 -10.966
25 P8 51 -10.966
25 P8 52 -12.431
25 P8 53 -14.872
25 P8 54 -16.825
25 P8 55 -17.802
25 P8 56 -17.314
25 P8 57 -15.849
25 P8 58 -13.896
25 P8 59 -12.919
25 P8 60 -13.896
25 P8 61 -16.825
25 P8 62 -20.243
25 P8 63 -22.685
25 P8 64 -23.173
25 P8 65 -21.708
25 P8 66 -19.267
25 P8 67 -17.314
25 P8 68 -16.825
25 P8 69 -18.290
25 P8 70 -19.267
25 P8 71 -20.243
25 P8 72 -20.732
25 P8 73 -21.220
25 P8 74 -22.196
25 P8 75 -23.173
25 P8 76 -23.661
25 P8 77 -22.196
25 P8 78 -19.755
25 P8 79 -17.314
25 P8 80 -16.337
25 P8 81 -16.337
25 P8 82 -16.825
25 P8 83 -17.314
25 P8 84 -17.314
25 P8 85 -17.802
25 P8 86 -18.290
25 P8 87 -20.243
25 P8 88 -23.173
25 P8 89 -25.126
25 P8 90 -26.591
25 P8 91 -27.079
25 P8 92 -26.591
25 P8 93 -26.591
25 P8 94 -26.103
25 P8 95 -25.126
25 P8 96 -23.173
25 P8 97 -21.708
25 P8 98 -20.732
25 P8 99 -21.708
25 P8 100 -23.173
25 P8 101 -25.614
25 P8 102 -26.103
25 P8 103 -24.638
25 P8 104 -21.220
25 P8 105 -17.802
25 P8 106 -16.337
25 P8 107 -16.337
25 P8 108 -16.825
25 P8 109 -16.825
25 P8 110 -15.849
25 P8 111 -14.872
25 P8 112 -15.849
25 P8 113 -18.778
25 P8 114 -22.685
25 P8 115 -25.126
25 P8 116 -24.150
25 P8 117 -21.220
25 P8 118 -18.290
25 P8 119 -17.802
25 P8 120 -19.267
25 P8 121 -21.708
25 P8 122 -22.685
25 P8 123 -22.196
25 P8 124 -21.220
25 P8 125 -21.220
25 P8 126 -22.685
25 P8 127 -25.126
25 P8 128 -26.103
25 P8 129 -24.638
25 P8 130 -21.708
25 P8 131 -18.778
25 P8 132 -16.825
25 P8 133 -16.337
25 P8 134 -17.314
25 P8 135 -18.778
25 P8 136 -20.243
25 P8 137 -21.220
25 P8 138 -21.708
25 P8 139 -20.732
25 P8 140 -18.778
25 P8 141 -15.849
25 P8 142 -14.384
25 P8 143 -14.872
25 P8 144 -17.314
25 P8 145 -20.243
25 P8 146 -22.685
25 P8 147 -23.661
25 P8 148 -23.173
25 P8 149 -21.708
25 P8 150 -20.732
25 P8 151 -19.755
25 P8 152 -19.267
25 P8 153 -19.267
25 P8 154 -19.755
25 P8 155 -20.243
25 P8 156 -21.220
25 P8 157 -21.708
25 P8 158 -22.685
25 P8 159 -22.685
25 P8 160 -22.196
25 P8 161 -21.220
25 P8 162 -19.755
25 P8 163 -18.778
25 P8 164 -20.243
25 P8 165 -24.638
25 P8 166 -30.497
25 P8 167 -34.892
25 P8 168 -34.892
25 P8 169 -31.474
25 P8 170 -25.126
25 P8 171 -20.243
25 P8 172 -19.755
25 P8 173 -22.685
25 P8 174 -26.103
25 P8 175 -27.568
25 P8 176 -26.103
25 P8 177 -23.661
25 P8 178 -21.708
25 P8 179 -21.220
25 P8 180 -20.732
25 P8 181 -19.755
25 P8 182 -16.825
25 P8 183 -13.896
25 P8 184 -13.407
25 P8 185 -14.872
25 P8 186 -17.802
25 P8 187 -19.755
25 P8 188 -19.267
25 P8 189 -17.802
25 P8 190 -15.849
25 P8 191 -15.361
25 P8 192 -16.337
25 P8 193 -16.825
25 P8 194 -16.825
25 P8 195 -14.872
25 P8 196 -12.431
25 P8 197 -11.454
25 P8 198 -11.943
25 P8 199 -13.896
25 P8 200 -15.849
25 P8 201 -16.337
25 P8 202 -15.849
25 P8 203 -15.361
25 P8 204 -14.872
25 P8 205 -14.384
25 P8 206 -13.407
25 P8 207 -12.431
25 P8 208 -11.943
25 P8 209 -12.431
25 P8 210 -13.896
25 P8 211 -15.361
25 P8 212 -16.825
25 P8 213 -17.314
25 P8 214 -17.314
25 P8 215 -17.314
25 P8 216 -18.290
25 P8 217 -20.243
25 P8 218 -23.173
25 P8 219 -25.614
25 P8 220 -26.591
25 P8 221 -26.103
25 P8 222 -25.614
25 P8 223 -25.614
25 P8 224 -26.591
25 P8 225 -28.056
25 P8 226 -29.521
25 P8 227 -29.032
25 P8 228 -26.591
25 P8 229 -23.661
25 P8 230 -21.708
25 P8 231 -21.708
25 P8 232 -23.173
25 P8 233 -24.150
25 P8 234 -24.150
25 P8 235 -23.173
25 P8 236 -22.685
25 P8 237 -23.173
25 P8 238 -24.638
25 P8 239 -26.103
25 P8 240 -25.614
25 P8 241 -24.150
25 P8 242 -23.173
25 P8 243 -23.173
25 P8 244 -24.638
25 P8 245 -25.614
25 P8 246 -25.126
25 P8 247 -23.173
25 P8 248 -20.732
25 P8 249 -20.243
25 P8 250 -21.708
25 P8 251 -24.150
25 P8 252 -25.126
25 P8 253 -24.638
25 P8 254 -22.685
25 P8 255 -21.708
# P7 chan 26
25 P7 0 -0.305
25 P7 1 1.648
25 P7 2 3.113
25 P7 3 3.113
25 P7 4 2.136
25 P7 5 0.671
25 P7 6 -0.793
25 P7 7 -1.770
25 P7 8 -3.235
25 P7 9 -4.700
25 P7 10 -6.165
25 P7 11 -6.165
25 P7 12 -4.700
25 P7 13 -2.258
25 P7 14 0.671
25 P7 15 2.136
25 P7 16 3.601
25 P7 17 4.089
25 P7 18 4.089
25 P7 19 3.601
25 P7 20 1.648
25 P7 21 -1.770
25 P7 22 -6.165
25 P7 23 -9.583
25 P7 24 -10.071
25 P7 25 -8.118
25 P7 26 -4.700
25 P7 27 -1.282
25 P7 28 -0.305
25 P7 29 -1.282
25 P7 30 -2.258
25 P7 31 -2.258
25 P7 32 -0.793
25 P7 33 -0.305
25 P7 34 -0.305
25 P7 35 -2.258
25 P7 36 -3.723
25 P7 37 -4.211
25 P7 38 -3.235
25 P7 39 -1.770
25 P7 40 -2.258
25 P7 41 -3.235
25 P7 42 -5.188
25 P7 43 -7.141
25 P7 44 -7.629
25 P7 45 -7.629
25 P7 46 -8.118
25 P7 47 -10.071
25 P7 48 -12.024
25 P7 49 -13.489
25 P7 50 -13.000
25 P7 51 -12.024
25 P7 52 -10.559
25 P7 53 -10.559
25 P7 54 -13.000
25 P7 55 -15.930
25 P7 56 -18.860
25 P7 57 -19.348
25 P7 58 -17.395
25 P7 59 -13.977
25 P7 60 -11.047
25 P7 61 -9.583
25 P7 62 -10.071
25 P7 63 -11.047
25 P7 64 -12.024
25 P7 65 -11.536
25 P7 66 -11.047
25 P7 67 -10.071
25 P7 68 -10.071
25 P7 69 -10.559
25 P7 70 -11.047
25 P7 71 -10.559
25 P7 72 -10.071
25 P7 73 -9.583
25 P7 74 -9.583
25 P7 75 -9.583
25 P7 76 -9.094
25 P7 77 -7.141
25 P7 78 -4.211
25 P7 79 -1.770
25 P7 80 -0.793
25 P7 81 -3.235
25 P7 82 -5.676
25 P7 83 -8.118
25 P7 84 -8.606
25 P7 85 -7.629
25 P7 86 -6.653
25 P7 87 -6.653
25 P7 88 -9.094
25 P7 89 -11.536
25 P7 90 -13.489
25 P7 91 -13.977
25 P7 92 -13.000
25 P7 93 -11.536
25 P7 94 -11.536
25 P7 95 -12.512
25 P7 96 -13.000
25 P7 97 -13.000
25 P7 98 -12.024
25 P7 99 -11.047
25 P7 100 -11.047
25 P7 101 -12.512
25 P7 102 -14.465
25 P7 103 -15.442
25 P7 104 -14.954
25 P7 105 -13.000
25 P7 106 -11.047
25 P7 107 -10.559
25 P7 108 -11.047
25 P7 109 -12.024
25 P7 110 -13.000
25 P7 111 -13.489
25 P7 112 -14.465
25 P7 113 -15.930
25 P7 114 -17.883
25 P7 115 -17.883
25 P7 116 -16.907
25 P7 117 -13.977
25 P7 118 -12.024
25 P7 119 -11.536
25 P7 120 -13.000
25 P7 121 -14.954
25 P7 122 -15.442
25 P7 123 -13.489
25 P7 124 -10.559
25 P7 125 -7.629
25 P7 126 -6.165
25 P7 127 -7.141
25 P7 128 -8.606
25 P7 129 -10.071
25 P7 130 -11.047
25 P7 131 -11.047
25 P7 132 -10.559
25 P7 133 -10.071
25 P7 134 -9.583
25 P7 135 -9.094
25 P7 136 -8.606
25 P7 137 -8.118
25 P7 138 -7.141
25 P7 139 -6.653
25 P7 140 -6.165
25 P7 141 -5.676
25 P7 142 -5.188
25 P7 143 -4.211
25 P7 144 -3.235
25 P7 145 -2.747
25 P7 146 -2.747
25 P7 147 -3.235
25 P7 148 -3.235
25 P7 149 -3.235
25 P7 150 -1.770
25 P7 151 -0.305
25 P7 152 0.671
25 P7 153 0.671
25 P7 154 0.671
25 P7 155 0.183
25 P7 156 -0.305
25 P7 157 -0.793
25 P7 158 -0.793
25 P7 159 -0.793
25 P7 160 -0.793
25 P7 161 -0.305
25 P7 162 -0.793
25 P7 163 -2.258
25 P7 164 -5.676
25 P7 165 -9.583
25 P7 166 -12.512
25 P7 167 -13.000
25 P7 168 -9.583
25 P7 169 -4.211
25 P7 170 0.671
25 P7 171 3.113
25 P7 172 1.648
25 P7 173 -1.282
25 P7 174 -4.211
25 P7 175 -4.700
25 P7 176 -4.700
25 P7 177 -5.188
25 P7 178 -6.653
25 P7 179 -8.606
25 P7 180 -9.583
25 P7 181 -7.629
25 P7 182 -4.211
25 P7 183 -0.793
25 P7 184 0.183
25 P7 185 -1.282
25 P7 186 -4.211
25 P7 187 -7.141
25 P7 188 -7.629
25 P7 189 -6.165
25 P7 190 -3.235
25 P7 191 -0.793
25 P7 192 0.671
25 P7 193 0.671
25 P7 194 0.183
25 P7 195 -0.305
25 P7 196 -0.305
25 P7 197 -0.793
25 P7 198 -1.282
25 P7 199 -1.282
25 P7 200 -0.793
25 P7 201 -0.305
25 P7 202 1.648
25 P7 203 3.113
25 P7 204 4.578
25 P7 205 5.554
25 P7 206 6.042
25 P7 207 6.042
25 P7 208 5.554
25 P7 209 4.089
25 P7 210 2.136
25 P7 211 -0.793
25 P7 212 -4.700
25 P7 213 -7.629
25 P7 214 -10.071
25 P7 215 -10.559
25 P7 216 -10.071
25 P7 217 -9.094
25 P7 218 -9.094
25 P7 219 -10.559
25 P7 220 -13.000
25 P7 221 -14.465
25 P7 222 -14.465
25 P7 223 -13.977
25 P7 224 -12.512
25 P7 225 -11.536
25 P7 226 -12.024
25 P7 227 -13.489
25 P7 228 -14.465
25 P7 229 -13.977
25 P7 230 -13.000
25 P7 231 -12.512
25 P7 232 -12.024
25 P7 233 -12.024
25 P7 234 -11.047
25 P7 235 -10.559
25 P7 236 -10.071
25 P7 237 -10.071
25 P7 238 -10.559
25 P7 239 -10.071
25 P7 240 -8.606
25 P7 241 -4.700
25 P7 242 -0.305
25 P7 243 3.601
25 P7 244 5.554
25 P7 245 4.578
25 P7 246 1.648
