# co2c0000359.rd
# 120 trials, 64 chans, 416 samples 368 post_stim samples
# 3.906000 msecs uV
# S2 nomatch, trial 87
# FP1 chan 0
87 FP1 0 -9.674
87 FP1 1 -13.092
87 FP1 2 -15.045
87 FP1 3 -15.533
87 FP1 4 -15.045
87 FP1 5 -16.022
87 FP1 6 -18.463
87 FP1 7 -21.881
87 FP1 8 -24.323
87 FP1 9 -23.834
87 FP1 10 -19.928
87 FP1 11 -14.069
87 FP1 12 -7.721
87 FP1 13 -3.326
87 FP1 14 -0.397
87 FP1 15 0.092
87 FP1 16 0.580
87 FP1 17 0.580
87 FP1 18 1.068
87 FP1 19 2.045
87 FP1 20 3.510
87 FP1 21 5.951
87 FP1 22 7.904
87 FP1 23 9.369
87 FP1 24 9.369
87 FP1 25 7.416
87 FP1 26 4.486
87 FP1 27 0.092
87 FP1 28 -4.791
87 FP1 29 -9.674
87 FP1 30 -14.069
87 FP1 31 -17.487
87 FP1 32 -18.463
87 FP1 33 -17.487
87 FP1 34 -16.022
87 FP1 35 -15.533
87 FP1 36 -16.998
87 FP1 37 -19.440
87 FP1 38 -21.393
87 FP1 39 -21.881
87 FP1 40 -18.951
87 FP1 41 -14.557
87 FP1 42 -8.698
87 FP1 43 -3.326
87 FP1 44 1.068
87 FP1 45 4.974
87 FP1 46 8.392
87 FP1 47 11.322
87 FP1 48 13.275
87 FP1 49 13.275
87 FP1 50 11.322
87 FP1 51 7.416
87 FP1 52 2.045
87 FP1 53 -2.838
87 FP1 54 -7.233
87 FP1 55 -11.139
87 FP1 56 -14.069
87 FP1 57 -16.510
87 FP1 58 -18.463
87 FP1 59 -20.416
87 FP1 60 -21.881
87 FP1 61 -22.858
87 FP1 62 -21.881
87 FP1 63 -19.928
87 FP1 64 -17.487
87 FP1 65 -16.022
87 FP1 66 -16.022
87 FP1 67 -16.998
87 FP1 68 -17.975
87 FP1 69 -17.975
87 FP1 70 -16.998
87 FP1 71 -15.045
87 FP1 72 -12.604
87 FP1 73 -10.651
87 FP1 74 -8.698
87 FP1 75 -6.744
87 FP1 76 -5.280
87 FP1 77 -3.326
87 FP1 78 -2.350
87 FP1 79 -2.350
87 FP1 80 -4.791
87 FP1 81 -10.162
87 FP1 82 -17.487
87 FP1 83 -25.787
87 FP1 84 -32.135
87 FP1 85 -35.553
87 FP1 86 -35.065
87 FP1 87 -33.600
87 FP1 88 -31.158
87 FP1 89 -30.182
87 FP1 90 -28.717
87 FP1 91 -27.252
87 FP1 92 -24.811
87 FP1 93 -21.881
87 FP1 94 -18.951
87 FP1 95 -17.487
87 FP1 96 -16.022
87 FP1 97 -14.557
87 FP1 98 -12.115
87 FP1 99 -10.162
87 FP1 100 -9.186
87 FP1 101 -10.162
87 FP1 102 -13.092
87 FP1 103 -17.487
87 FP1 104 -21.881
87 FP1 105 -26.764
87 FP1 106 -30.670
87 FP1 107 -34.088
87 FP1 108 -37.018
87 FP1 109 -38.971
87 FP1 110 -40.924
87 FP1 111 -40.924
87 FP1 112 -39.948
87 FP1 113 -37.018
87 FP1 114 -32.135
87 FP1 115 -26.276
87 FP1 116 -20.416
87 FP1 117 -15.045
87 FP1 118 -12.115
87 FP1 119 -9.674
87 FP1 120 -8.209
87 FP1 121 -6.744
87 FP1 122 -5.280
87 FP1 123 -4.303
87 FP1 124 -3.815
87 FP1 125 -4.791
87 FP1 126 -5.280
87 FP1 127 -5.768
87 FP1 128 -4.791
87 FP1 129 -3.815
87 FP1 130 -3.815
87 FP1 131 -5.768
87 FP1 132 -9.674
87 FP1 133 -14.557
87 FP1 134 -19.928
87 FP1 135 -23.346
87 FP1 136 -26.276
87 FP1 137 -28.229
87 FP1 138 -30.182
87 FP1 139 -31.647
87 FP1 140 -32.135
87 FP1 141 -30.670
87 FP1 142 -28.229
87 FP1 143 -24.323
87 FP1 144 -19.440
87 FP1 145 -14.557
87 FP1 146 -9.674
87 FP1 147 -4.303
87 FP1 148 0.580
87 FP1 149 4.486
87 FP1 150 5.463
87 FP1 151 4.486
87 FP1 152 1.068
87 FP1 153 -3.815
87 FP1 154 -8.209
87 FP1 155 -11.627
87 FP1 156 -14.069
87 FP1 157 -16.022
87 FP1 158 -17.487
87 FP1 159 -18.463
87 FP1 160 -18.463
87 FP1 161 -17.975
87 FP1 162 -16.510
87 FP1 163 -15.045
87 FP1 164 -14.557
87 FP1 165 -13.580
87 FP1 166 -12.604
87 FP1 167 -11.139
87 FP1 168 -9.186
87 FP1 169 -7.721
87 FP1 170 -7.233
87 FP1 171 -6.744
87 FP1 172 -4.791
87 FP1 173 -0.397
87 FP1 174 5.463
87 FP1 175 10.345
87 FP1 176 12.787
87 FP1 177 11.322
87 FP1 178 7.904
87 FP1 179 5.463
87 FP1 180 5.463
87 FP1 181 6.927
87 FP1 182 7.416
87 FP1 183 5.951
87 FP1 184 2.045
87 FP1 185 -1.862
87 FP1 186 -3.326
87 FP1 187 -1.862
87 FP1 188 1.556
87 FP1 189 5.463
87 FP1 190 8.392
87 FP1 191 9.857
87 FP1 192 11.322
87 FP1 193 11.810
87 FP1 194 11.810
87 FP1 195 10.834
87 FP1 196 9.369
87 FP1 197 8.392
87 FP1 198 7.904
87 FP1 199 8.881
87 FP1 200 10.834
87 FP1 201 12.299
87 FP1 202 12.299
87 FP1 203 10.345
87 FP1 204 6.927
87 FP1 205 1.556
87 FP1 206 -3.815
87 FP1 207 -9.674
87 FP1 208 -15.045
87 FP1 209 -19.440
87 FP1 210 -23.346
87 FP1 211 -24.811
87 FP1 212 -24.323
87 FP1 213 -21.881
87 FP1 214 -18.463
87 FP1 215 -14.557
87 FP1 216 -11.139
87 FP1 217 -7.721
87 FP1 218 -4.791
87 FP1 219 -1.862
87 FP1 220 1.068
87 FP1 221 4.974
87 FP1 222 9.857
87 FP1 223 15.228
87 FP1 224 19.135
87 FP1 225 21.576
87 FP1 226 21.576
87 FP1 227 19.135
87 FP1 228 15.228
87 FP1 229 10.345
87 FP1 230 4.974
87 FP1 231 0.092
87 FP1 232 -4.791
87 FP1 233 -9.674
87 FP1 234 -14.557
87 FP1 235 -18.463
87 FP1 236 -21.393
87 FP1 237 -23.346
87 FP1 238 -24.323
87 FP1 239 -23.834
87 FP1 240 -21.881
87 FP1 241 -17.975
87 FP1 242 -13.580
87 FP1 243 -8.698
87 FP1 244 -4.303
87 FP1 245 -0.397
87 FP1 246 2.533
87 FP1 247 4.974
87 FP1 248 7.904
87 FP1 249 10.345
87 FP1 250 13.763
87 FP1 251 17.670
87 FP1 252 23.041
87 FP1 253 28.412
87 FP1 254 33.783
87 FP1 255 37.201
# FP2 chan 1
87 FP2 0 -10.203
87 FP2 1 -14.598
87 FP2 2 -17.039
87 FP2 3 -17.039
87 FP2 4 -17.039
87 FP2 5 -17.527
87 FP2 6 -19.480
87 FP2 7 -22.898
87 FP2 8 -24.851
87 FP2 9 -23.387
87 FP2 10 -18.992
87 FP2 11 -13.133
87 FP2 12 -6.297
87 FP2 13 -1.414
87 FP2 14 1.516
87 FP2 15 2.492
87 FP2 16 2.004
87 FP2 17 1.516
87 FP2 18 1.516
87 FP2 19 2.492
87 FP2 20 4.445
87 FP2 21 7.375
87 FP2 22 9.816
87 FP2 23 11.281
87 FP2 24 11.281
87 FP2 25 8.840
87 FP2 26 5.422
87 FP2 27 1.516
87 FP2 28 -2.879
87 FP2 29 -7.273
87 FP2 30 -11.668
87 FP2 31 -16.062
87 FP2 32 -19.480
87 FP2 33 -20.945
87 FP2 34 -20.457
87 FP2 35 -19.480
87 FP2 36 -18.992
87 FP2 37 -18.992
87 FP2 38 -19.480
87 FP2 39 -18.992
87 FP2 40 -16.551
87 FP2 41 -12.156
87 FP2 42 -6.297
87 FP2 43 -0.437
87 FP2 44 4.934
87 FP2 45 9.816
87 FP2 46 13.723
87 FP2 47 16.652
87 FP2 48 17.629
87 FP2 49 17.141
87 FP2 50 13.723
87 FP2 51 9.816
87 FP2 52 5.910
87 FP2 53 2.004
87 FP2 54 -1.902
87 FP2 55 -5.809
87 FP2 56 -9.715
87 FP2 57 -12.644
87 FP2 58 -14.598
87 FP2 59 -16.062
87 FP2 60 -16.551
87 FP2 61 -16.551
87 FP2 62 -16.062
87 FP2 63 -14.598
87 FP2 64 -13.133
87 FP2 65 -11.668
87 FP2 66 -11.180
87 FP2 67 -11.180
87 FP2 68 -12.156
87 FP2 69 -11.668
87 FP2 70 -10.691
87 FP2 71 -8.250
87 FP2 72 -5.809
87 FP2 73 -3.855
87 FP2 74 -1.902
87 FP2 75 -0.437
87 FP2 76 1.027
87 FP2 77 2.981
87 FP2 78 4.445
87 FP2 79 3.957
87 FP2 80 1.027
87 FP2 81 -5.320
87 FP2 82 -13.133
87 FP2 83 -20.945
87 FP2 84 -26.805
87 FP2 85 -28.758
87 FP2 86 -28.269
87 FP2 87 -26.805
87 FP2 88 -25.828
87 FP2 89 -25.340
87 FP2 90 -25.340
87 FP2 91 -23.875
87 FP2 92 -21.434
87 FP2 93 -18.504
87 FP2 94 -15.574
87 FP2 95 -14.109
87 FP2 96 -13.133
87 FP2 97 -11.180
87 FP2 98 -9.226
87 FP2 99 -6.297
87 FP2 100 -5.320
87 FP2 101 -5.809
87 FP2 102 -8.738
87 FP2 103 -12.644
87 FP2 104 -16.551
87 FP2 105 -19.969
87 FP2 106 -22.410
87 FP2 107 -25.340
87 FP2 108 -28.269
87 FP2 109 -30.711
87 FP2 110 -32.664
87 FP2 111 -33.152
87 FP2 112 -32.664
87 FP2 113 -30.223
87 FP2 114 -26.316
87 FP2 115 -21.434
87 FP2 116 -16.551
87 FP2 117 -11.668
87 FP2 118 -8.738
87 FP2 119 -7.273
87 FP2 120 -5.320
87 FP2 121 -3.367
87 FP2 122 -1.414
87 FP2 123 1.027
87 FP2 124 1.516
87 FP2 125 1.027
87 FP2 126 0.051
87 FP2 127 0.539
87 FP2 128 2.004
87 FP2 129 4.445
87 FP2 130 4.934
87 FP2 131 3.469
87 FP2 132 0.051
87 FP2 133 -4.832
87 FP2 134 -9.715
87 FP2 135 -13.621
87 FP2 136 -17.039
87 FP2 137 -19.480
87 FP2 138 -21.922
87 FP2 139 -23.387
87 FP2 140 -23.875
87 FP2 141 -22.898
87 FP2 142 -20.945
87 FP2 143 -17.527
87 FP2 144 -14.109
87 FP2 145 -10.691
87 FP2 146 -6.297
87 FP2 147 -1.902
87 FP2 148 2.004
87 FP2 149 5.422
87 FP2 150 6.887
87 FP2 151 6.399
87 FP2 152 4.934
87 FP2 153 2.004
87 FP2 154 -0.437
87 FP2 155 -3.367
87 FP2 156 -5.809
87 FP2 157 -8.250
87 FP2 158 -11.180
87 FP2 159 -14.109
87 FP2 160 -15.086
87 FP2 161 -15.086
87 FP2 162 -13.133
87 FP2 163 -11.180
87 FP2 164 -9.715
87 FP2 165 -9.226
87 FP2 166 -8.738
87 FP2 167 -8.738
87 FP2 168 -7.762
87 FP2 169 -7.273
87 FP2 170 -6.785
87 FP2 171 -5.809
87 FP2 172 -4.344
87 FP2 173 -0.926
87 FP2 174 3.957
87 FP2 175 7.375
87 FP2 176 8.840
87 FP2 177 7.375
87 FP2 178 4.934
87 FP2 179 4.445
87 FP2 180 5.910
87 FP2 181 8.840
87 FP2 182 10.305
87 FP2 183 8.840
87 FP2 184 4.445
87 FP2 185 0.539
87 FP2 186 -1.902
87 FP2 187 -1.414
87 FP2 188 1.027
87 FP2 189 3.957
87 FP2 190 6.399
87 FP2 191 8.352
87 FP2 192 8.840
87 FP2 193 8.840
87 FP2 194 8.352
87 FP2 195 6.887
87 FP2 196 5.910
87 FP2 197 5.910
87 FP2 198 6.887
87 FP2 199 8.352
87 FP2 200 10.305
87 FP2 201 11.281
87 FP2 202 11.281
87 FP2 203 9.816
87 FP2 204 6.887
87 FP2 205 2.981
87 FP2 206 -2.391
87 FP2 207 -7.762
87 FP2 208 -13.133
87 FP2 209 -17.527
87 FP2 210 -20.457
87 FP2 211 -21.922
87 FP2 212 -21.434
87 FP2 213 -18.992
87 FP2 214 -15.086
87 FP2 215 -11.180
87 FP2 216 -6.785
87 FP2 217 -3.367
87 FP2 218 -0.926
87 FP2 219 0.539
87 FP2 220 2.981
87 FP2 221 6.399
87 FP2 222 11.281
87 FP2 223 16.164
87 FP2 224 20.070
87 FP2 225 21.535
87 FP2 226 19.582
87 FP2 227 15.188
87 FP2 228 9.816
87 FP2 229 3.957
87 FP2 230 -0.926
87 FP2 231 -4.832
87 FP2 232 -8.250
87 FP2 233 -12.156
87 FP2 234 -16.062
87 FP2 235 -20.457
87 FP2 236 -23.387
87 FP2 237 -25.340
87 FP2 238 -25.828
87 FP2 239 -24.363
87 FP2 240 -21.922
87 FP2 241 -18.016
87 FP2 242 -14.109
87 FP2 243 -9.715
87 FP2 244 -5.320
87 FP2 245 -1.902
87 FP2 246 0.539
87 FP2 247 2.004
87 FP2 248 3.469
87 FP2 249 5.422
87 FP2 250 8.840
87 FP2 251 13.234
87 FP2 252 18.606
87 FP2 253 24.465
87 FP2 254 29.836
87 FP2 255 33.254
# F7 chan 2
87 F7 0 -4.059
87 F7 1 -6.989
87 F7 2 -8.942
87 F7 3 -9.918
87 F7 4 -10.406
87 F7 5 -10.895
87 F7 6 -12.360
87 F7 7 -15.289
87 F7 8 -17.242
87 F7 9 -17.242
87 F7 10 -14.313
87 F7 11 -9.430
87 F7 12 -3.571
87 F7 13 0.336
87 F7 14 2.777
87 F7 15 3.265
87 F7 16 2.777
87 F7 17 1.801
87 F7 18 0.336
87 F7 19 -0.153
87 F7 20 0.336
87 F7 21 2.289
87 F7 22 4.730
87 F7 23 7.172
87 F7 24 7.660
87 F7 25 6.683
87 F7 26 4.242
87 F7 27 0.824
87 F7 28 -3.082
87 F7 29 -6.500
87 F7 30 -9.430
87 F7 31 -11.383
87 F7 32 -10.895
87 F7 33 -9.430
87 F7 34 -6.989
87 F7 35 -6.012
87 F7 36 -6.989
87 F7 37 -9.918
87 F7 38 -12.848
87 F7 39 -13.824
87 F7 40 -12.360
87 F7 41 -8.453
87 F7 42 -3.571
87 F7 43 0.824
87 F7 44 3.754
87 F7 45 6.195
87 F7 46 9.125
87 F7 47 12.543
87 F7 48 14.984
87 F7 49 15.961
87 F7 50 14.496
87 F7 51 11.566
87 F7 52 7.660
87 F7 53 3.754
87 F7 54 0.336
87 F7 55 -3.571
87 F7 56 -7.965
87 F7 57 -11.871
87 F7 58 -15.289
87 F7 59 -16.754
87 F7 60 -17.242
87 F7 61 -15.778
87 F7 62 -13.824
87 F7 63 -10.895
87 F7 64 -7.477
87 F7 65 -5.035
87 F7 66 -4.059
87 F7 67 -4.547
87 F7 68 -5.524
87 F7 69 -6.500
87 F7 70 -6.500
87 F7 71 -5.524
87 F7 72 -3.571
87 F7 73 -1.129
87 F7 74 1.312
87 F7 75 3.754
87 F7 76 6.683
87 F7 77 8.636
87 F7 78 9.613
87 F7 79 8.148
87 F7 80 3.265
87 F7 81 -4.059
87 F7 82 -12.360
87 F7 83 -19.684
87 F7 84 -24.567
87 F7 85 -25.055
87 F7 86 -23.102
87 F7 87 -20.660
87 F7 88 -18.707
87 F7 89 -17.242
87 F7 90 -15.778
87 F7 91 -13.336
87 F7 92 -9.430
87 F7 93 -5.524
87 F7 94 -3.082
87 F7 95 -1.617
87 F7 96 -0.641
87 F7 97 1.312
87 F7 98 3.754
87 F7 99 5.707
87 F7 100 6.195
87 F7 101 3.265
87 F7 102 -1.617
87 F7 103 -7.965
87 F7 104 -13.336
87 F7 105 -17.731
87 F7 106 -21.637
87 F7 107 -25.055
87 F7 108 -28.473
87 F7 109 -30.914
87 F7 110 -31.891
87 F7 111 -30.914
87 F7 112 -28.961
87 F7 113 -26.031
87 F7 114 -22.614
87 F7 115 -18.219
87 F7 116 -13.336
87 F7 117 -7.965
87 F7 118 -3.571
87 F7 119 0.336
87 F7 120 1.801
87 F7 121 2.777
87 F7 122 3.754
87 F7 123 4.730
87 F7 124 6.195
87 F7 125 7.172
87 F7 126 7.172
87 F7 127 6.195
87 F7 128 4.242
87 F7 129 2.289
87 F7 130 -0.641
87 F7 131 -4.547
87 F7 132 -9.430
87 F7 133 -15.289
87 F7 134 -20.660
87 F7 135 -24.078
87 F7 136 -26.520
87 F7 137 -27.496
87 F7 138 -27.985
87 F7 139 -28.473
87 F7 140 -28.473
87 F7 141 -26.520
87 F7 142 -22.614
87 F7 143 -17.731
87 F7 144 -12.360
87 F7 145 -7.477
87 F7 146 -1.617
87 F7 147 3.754
87 F7 148 9.613
87 F7 149 14.496
87 F7 150 16.937
87 F7 151 15.961
87 F7 152 12.543
87 F7 153 8.148
87 F7 154 3.754
87 F7 155 1.801
87 F7 156 0.336
87 F7 157 -0.641
87 F7 158 -2.106
87 F7 159 -4.059
87 F7 160 -5.035
87 F7 161 -5.035
87 F7 162 -4.059
87 F7 163 -2.594
87 F7 164 -2.594
87 F7 165 -3.082
87 F7 166 -2.594
87 F7 167 -0.641
87 F7 168 3.754
87 F7 169 8.636
87 F7 170 12.054
87 F7 171 14.496
87 F7 172 16.937
87 F7 173 19.867
87 F7 174 23.773
87 F7 175 26.703
87 F7 176 27.191
87 F7 177 24.261
87 F7 178 19.379
87 F7 179 15.961
87 F7 180 14.496
87 F7 181 14.984
87 F7 182 14.008
87 F7 183 11.078
87 F7 184 6.683
87 F7 185 3.265
87 F7 186 3.265
87 F7 187 5.707
87 F7 188 10.101
87 F7 189 13.519
87 F7 190 15.472
87 F7 191 16.449
87 F7 192 17.914
87 F7 193 19.379
87 F7 194 21.820
87 F7 195 22.797
87 F7 196 23.285
87 F7 197 22.797
87 F7 198 22.797
87 F7 199 23.773
87 F7 200 25.238
87 F7 201 26.703
87 F7 202 26.703
87 F7 203 24.750
87 F7 204 20.844
87 F7 205 14.984
87 F7 206 8.148
87 F7 207 1.312
87 F7 208 -5.035
87 F7 209 -9.430
87 F7 210 -12.360
87 F7 211 -13.336
87 F7 212 -12.360
87 F7 213 -10.406
87 F7 214 -7.477
87 F7 215 -4.059
87 F7 216 -1.129
87 F7 217 1.801
87 F7 218 4.730
87 F7 219 7.660
87 F7 220 10.590
87 F7 221 15.472
87 F7 222 20.355
87 F7 223 26.703
87 F7 224 32.074
87 F7 225 35.980
87 F7 226 37.933
87 F7 227 36.469
87 F7 228 34.027
87 F7 229 30.121
87 F7 230 25.726
87 F7 231 20.844
87 F7 232 15.472
87 F7 233 9.613
87 F7 234 4.242
87 F7 235 -0.641
87 F7 236 -4.059
87 F7 237 -6.989
87 F7 238 -8.942
87 F7 239 -9.918
87 F7 240 -9.430
87 F7 241 -7.477
87 F7 242 -4.059
87 F7 243 -0.153
87 F7 244 2.777
87 F7 245 5.219
87 F7 246 7.172
87 F7 247 10.101
87 F7 248 13.031
87 F7 249 16.937
87 F7 250 20.355
87 F7 251 24.261
87 F7 252 28.168
87 F7 253 33.051
87 F7 254 38.422
87 F7 255 41.840
# F8 chan 3
87 F8 0 -10.905
87 F8 1 -14.323
87 F8 2 -15.788
87 F8 3 -15.788
87 F8 4 -15.299
87 F8 5 -15.788
87 F8 6 -17.253
87 F8 7 -18.717
87 F8 8 -19.206
87 F8 9 -17.253
87 F8 10 -12.858
87 F8 11 -6.022
87 F8 12 -0.651
87 F8 13 2.767
87 F8 14 3.255
87 F8 15 1.790
87 F8 16 -0.651
87 F8 17 -3.092
87 F8 18 -4.069
87 F8 19 -4.069
87 F8 20 -1.628
87 F8 21 1.790
87 F8 22 5.697
87 F8 23 9.603
87 F8 24 11.556
87 F8 25 12.044
87 F8 26 10.579
87 F8 27 7.161
87 F8 28 2.279
87 F8 29 -3.092
87 F8 30 -9.440
87 F8 31 -15.788
87 F8 32 -20.182
87 F8 33 -21.647
87 F8 34 -20.671
87 F8 35 -18.229
87 F8 36 -16.276
87 F8 37 -15.299
87 F8 38 -14.811
87 F8 39 -13.835
87 F8 40 -11.393
87 F8 41 -7.487
87 F8 42 -2.604
87 F8 43 1.790
87 F8 44 5.697
87 F8 45 9.603
87 F8 46 12.533
87 F8 47 15.951
87 F8 48 17.415
87 F8 49 17.415
87 F8 50 15.462
87 F8 51 12.533
87 F8 52 9.603
87 F8 53 6.185
87 F8 54 2.767
87 F8 55 -1.628
87 F8 56 -6.022
87 F8 57 -9.440
87 F8 58 -10.905
87 F8 59 -10.905
87 F8 60 -9.928
87 F8 61 -8.464
87 F8 62 -6.510
87 F8 63 -5.046
87 F8 64 -3.581
87 F8 65 -2.116
87 F8 66 -1.628
87 F8 67 -2.116
87 F8 68 -3.092
87 F8 69 -2.604
87 F8 70 -1.139
87 F8 71 1.302
87 F8 72 4.720
87 F8 73 8.138
87 F8 74 11.068
87 F8 75 13.021
87 F8 76 14.486
87 F8 77 16.439
87 F8 78 15.951
87 F8 79 13.997
87 F8 80 9.115
87 F8 81 1.302
87 F8 82 -7.975
87 F8 83 -16.276
87 F8 84 -22.135
87 F8 85 -24.577
87 F8 86 -24.089
87 F8 87 -22.135
87 F8 88 -20.182
87 F8 89 -19.206
87 F8 90 -17.741
87 F8 91 -15.788
87 F8 92 -12.858
87 F8 93 -9.440
87 F8 94 -6.999
87 F8 95 -6.022
87 F8 96 -5.046
87 F8 97 -3.581
87 F8 98 -0.163
87 F8 99 2.767
87 F8 100 4.720
87 F8 101 3.743
87 F8 102 0.814
87 F8 103 -3.092
87 F8 104 -6.510
87 F8 105 -8.952
87 F8 106 -10.905
87 F8 107 -12.858
87 F8 108 -14.811
87 F8 109 -16.764
87 F8 110 -18.229
87 F8 111 -18.717
87 F8 112 -18.717
87 F8 113 -18.229
87 F8 114 -16.276
87 F8 115 -13.346
87 F8 116 -9.440
87 F8 117 -5.534
87 F8 118 -1.628
87 F8 119 0.814
87 F8 120 2.767
87 F8 121 4.720
87 F8 122 6.673
87 F8 123 8.138
87 F8 124 9.115
87 F8 125 9.115
87 F8 126 9.603
87 F8 127 10.579
87 F8 128 12.533
87 F8 129 14.486
87 F8 130 14.974
87 F8 131 13.509
87 F8 132 10.091
87 F8 133 5.697
87 F8 134 1.790
87 F8 135 -1.628
87 F8 136 -5.046
87 F8 137 -7.487
87 F8 138 -9.928
87 F8 139 -10.905
87 F8 140 -10.905
87 F8 141 -9.440
87 F8 142 -7.487
87 F8 143 -5.534
87 F8 144 -3.581
87 F8 145 -1.139
87 F8 146 1.790
87 F8 147 5.697
87 F8 148 10.579
87 F8 149 14.486
87 F8 150 17.415
87 F8 151 17.904
87 F8 152 16.927
87 F8 153 14.974
87 F8 154 12.044
87 F8 155 9.603
87 F8 156 6.673
87 F8 157 3.255
87 F8 158 -0.163
87 F8 159 -3.581
87 F8 160 -6.022
87 F8 161 -6.999
87 F8 162 -6.510
87 F8 163 -6.022
87 F8 164 -6.022
87 F8 165 -6.510
87 F8 166 -7.975
87 F8 167 -7.975
87 F8 168 -7.487
87 F8 169 -6.999
87 F8 170 -5.534
87 F8 171 -4.069
87 F8 172 -1.139
87 F8 173 3.255
87 F8 174 7.650
87 F8 175 10.091
87 F8 176 9.115
87 F8 177 5.697
87 F8 178 2.279
87 F8 179 1.790
87 F8 180 4.232
87 F8 181 8.626
87 F8 182 11.556
87 F8 183 11.068
87 F8 184 7.161
87 F8 185 2.767
87 F8 186 0.326
87 F8 187 -0.163
87 F8 188 0.814
87 F8 189 2.767
87 F8 190 4.232
87 F8 191 5.208
87 F8 192 5.697
87 F8 193 5.697
87 F8 194 5.208
87 F8 195 3.743
87 F8 196 3.255
87 F8 197 3.743
87 F8 198 6.185
87 F8 199 9.115
87 F8 200 11.556
87 F8 201 13.509
87 F8 202 14.486
87 F8 203 13.997
87 F8 204 12.533
87 F8 205 9.603
87 F8 206 6.185
87 F8 207 2.279
87 F8 208 -2.116
87 F8 209 -6.510
87 F8 210 -9.440
87 F8 211 -11.882
87 F8 212 -11.882
87 F8 213 -10.417
87 F8 214 -6.999
87 F8 215 -2.604
87 F8 216 0.814
87 F8 217 2.767
87 F8 218 3.743
87 F8 219 4.232
87 F8 220 5.697
87 F8 221 9.115
87 F8 222 13.509
87 F8 223 18.880
87 F8 224 22.786
87 F8 225 23.763
87 F8 226 21.322
87 F8 227 15.462
87 F8 228 9.115
87 F8 229 3.255
87 F8 230 -0.163
87 F8 231 -2.116
87 F8 232 -3.092
87 F8 233 -4.557
87 F8 234 -7.975
87 F8 235 -11.882
87 F8 236 -14.811
87 F8 237 -16.764
87 F8 238 -16.276
87 F8 239 -15.299
87 F8 240 -13.835
87 F8 241 -12.370
87 F8 242 -10.417
87 F8 243 -7.487
87 F8 244 -4.069
87 F8 245 -1.628
87 F8 246 -0.651
87 F8 247 -0.651
87 F8 248 -0.651
87 F8 249 0.326
87 F8 250 3.255
87 F8 251 8.138
87 F8 252 13.509
87 F8 253 18.880
87 F8 254 22.786
87 F8 255 25.228
# AF1 chan 4
87 AF1 0 -5.208
87 AF1 1 -8.626
87 AF1 2 -11.068
87 AF1 3 -12.533
87 AF1 4 -13.509
87 AF1 5 -14.974
87 AF1 6 -17.904
87 AF1 7 -21.322
87 AF1 8 -23.763
87 AF1 9 -23.763
87 AF1 10 -20.833
87 AF1 11 -15.462
87 AF1 12 -9.115
87 AF1 13 -3.255
87 AF1 14 0.651
87 AF1 15 2.604
87 AF1 16 3.581
87 AF1 17 4.069
87 AF1 18 4.557
87 AF1 19 5.534
87 AF1 20 6.999
87 AF1 21 7.975
87 AF1 22 8.464
87 AF1 23 8.464
87 AF1 24 7.487
87 AF1 25 6.022
87 AF1 26 3.092
87 AF1 27 0.163
87 AF1 28 -3.255
87 AF1 29 -7.161
87 AF1 30 -10.579
87 AF1 31 -12.533
87 AF1 32 -13.997
87 AF1 33 -13.997
87 AF1 34 -13.997
87 AF1 35 -14.486
87 AF1 36 -15.462
87 AF1 37 -16.927
87 AF1 38 -18.392
87 AF1 39 -18.392
87 AF1 40 -15.951
87 AF1 41 -12.533
87 AF1 42 -7.650
87 AF1 43 -3.255
87 AF1 44 1.139
87 AF1 45 5.046
87 AF1 46 8.464
87 AF1 47 11.393
87 AF1 48 12.858
87 AF1 49 12.370
87 AF1 50 10.905
87 AF1 51 7.975
87 AF1 52 4.557
87 AF1 53 0.651
87 AF1 54 -3.255
87 AF1 55 -6.673
87 AF1 56 -9.603
87 AF1 57 -12.533
87 AF1 58 -15.462
87 AF1 59 -17.904
87 AF1 60 -20.345
87 AF1 61 -21.810
87 AF1 62 -21.810
87 AF1 63 -20.345
87 AF1 64 -18.392
87 AF1 65 -16.439
87 AF1 66 -14.974
87 AF1 67 -14.974
87 AF1 68 -14.974
87 AF1 69 -14.974
87 AF1 70 -13.509
87 AF1 71 -12.044
87 AF1 72 -10.579
87 AF1 73 -9.603
87 AF1 74 -8.626
87 AF1 75 -8.626
87 AF1 76 -7.650
87 AF1 77 -6.673
87 AF1 78 -5.697
87 AF1 79 -5.697
87 AF1 80 -7.161
87 AF1 81 -10.579
87 AF1 82 -15.951
87 AF1 83 -21.322
87 AF1 84 -25.228
87 AF1 85 -27.669
87 AF1 86 -27.669
87 AF1 87 -27.181
87 AF1 88 -26.204
87 AF1 89 -26.204
87 AF1 90 -26.204
87 AF1 91 -25.716
87 AF1 92 -24.740
87 AF1 93 -22.786
87 AF1 94 -20.345
87 AF1 95 -18.880
87 AF1 96 -16.927
87 AF1 97 -14.486
87 AF1 98 -11.556
87 AF1 99 -8.138
87 AF1 100 -5.697
87 AF1 101 -5.697
87 AF1 102 -8.138
87 AF1 103 -12.044
87 AF1 104 -16.439
87 AF1 105 -20.833
87 AF1 106 -24.251
87 AF1 107 -27.181
87 AF1 108 -29.622
87 AF1 109 -31.576
87 AF1 110 -32.552
87 AF1 111 -32.552
87 AF1 112 -31.087
87 AF1 113 -28.158
87 AF1 114 -24.251
87 AF1 115 -19.857
87 AF1 116 -15.462
87 AF1 117 -11.556
87 AF1 118 -8.626
87 AF1 119 -6.673
87 AF1 120 -5.697
87 AF1 121 -4.232
87 AF1 122 -3.255
87 AF1 123 -2.767
87 AF1 124 -3.255
87 AF1 125 -4.232
87 AF1 126 -4.232
87 AF1 127 -3.743
87 AF1 128 -2.767
87 AF1 129 -1.302
87 AF1 130 -1.302
87 AF1 131 -3.255
87 AF1 132 -6.673
87 AF1 133 -10.579
87 AF1 134 -14.486
87 AF1 135 -17.415
87 AF1 136 -20.345
87 AF1 137 -22.786
87 AF1 138 -24.740
87 AF1 139 -26.204
87 AF1 140 -26.204
87 AF1 141 -24.251
87 AF1 142 -20.833
87 AF1 143 -16.439
87 AF1 144 -11.068
87 AF1 145 -6.185
87 AF1 146 -1.302
87 AF1 147 2.604
87 AF1 148 6.022
87 AF1 149 8.464
87 AF1 150 8.464
87 AF1 151 6.022
87 AF1 152 2.116
87 AF1 153 -2.279
87 AF1 154 -7.161
87 AF1 155 -10.579
87 AF1 156 -13.021
87 AF1 157 -14.974
87 AF1 158 -16.439
87 AF1 159 -16.439
87 AF1 160 -15.462
87 AF1 161 -13.509
87 AF1 162 -10.579
87 AF1 163 -8.626
87 AF1 164 -8.138
87 AF1 165 -8.626
87 AF1 166 -9.115
87 AF1 167 -9.603
87 AF1 168 -9.115
87 AF1 169 -8.138
87 AF1 170 -7.650
87 AF1 171 -6.673
87 AF1 172 -5.208
87 AF1 173 -2.279
87 AF1 174 2.116
87 AF1 175 6.022
87 AF1 176 7.975
87 AF1 177 7.487
87 AF1 178 5.534
87 AF1 179 3.581
87 AF1 180 3.092
87 AF1 181 3.092
87 AF1 182 2.604
87 AF1 183 0.163
87 AF1 184 -2.767
87 AF1 185 -6.185
87 AF1 186 -7.161
87 AF1 187 -5.208
87 AF1 188 -1.302
87 AF1 189 3.092
87 AF1 190 6.510
87 AF1 191 8.952
87 AF1 192 9.928
87 AF1 193 9.928
87 AF1 194 9.928
87 AF1 195 8.952
87 AF1 196 7.975
87 AF1 197 6.999
87 AF1 198 6.999
87 AF1 199 6.999
87 AF1 200 8.464
87 AF1 201 9.928
87 AF1 202 10.417
87 AF1 203 9.440
87 AF1 204 6.510
87 AF1 205 1.628
87 AF1 206 -4.232
87 AF1 207 -10.091
87 AF1 208 -15.462
87 AF1 209 -19.857
87 AF1 210 -22.786
87 AF1 211 -24.251
87 AF1 212 -22.786
87 AF1 213 -19.368
87 AF1 214 -14.974
87 AF1 215 -10.091
87 AF1 216 -5.697
87 AF1 217 -2.279
87 AF1 218 0.163
87 AF1 219 1.628
87 AF1 220 3.581
87 AF1 221 6.022
87 AF1 222 9.440
87 AF1 223 13.346
87 AF1 224 17.253
87 AF1 225 20.182
87 AF1 226 21.159
87 AF1 227 20.182
87 AF1 228 16.764
87 AF1 229 12.858
87 AF1 230 7.975
87 AF1 231 3.092
87 AF1 232 -1.790
87 AF1 233 -6.673
87 AF1 234 -10.579
87 AF1 235 -14.486
87 AF1 236 -16.927
87 AF1 237 -18.392
87 AF1 238 -18.880
87 AF1 239 -18.392
87 AF1 240 -16.439
87 AF1 241 -13.509
87 AF1 242 -9.603
87 AF1 243 -5.208
87 AF1 244 -0.814
87 AF1 245 2.604
87 AF1 246 5.534
87 AF1 247 7.487
87 AF1 248 9.440
87 AF1 249 10.905
87 AF1 250 12.858
87 AF1 251 15.299
87 AF1 252 18.229
87 AF1 253 21.159
87 AF1 254 24.089
87 AF1 255 25.065
# AF2 chan 5
87 AF2 0 -4.974
87 AF2 1 -8.881
87 AF2 2 -11.322
87 AF2 3 -12.299
87 AF2 4 -13.763
87 AF2 5 -15.228
87 AF2 6 -17.670
87 AF2 7 -21.088
87 AF2 8 -23.529
87 AF2 9 -23.529
87 AF2 10 -20.111
87 AF2 11 -13.763
87 AF2 12 -6.439
87 AF2 13 -0.580
87 AF2 14 3.326
87 AF2 15 5.280
87 AF2 16 5.280
87 AF2 17 4.303
87 AF2 18 4.303
87 AF2 19 4.303
87 AF2 20 5.280
87 AF2 21 6.744
87 AF2 22 8.209
87 AF2 23 9.186
87 AF2 24 9.674
87 AF2 25 8.698
87 AF2 26 6.744
87 AF2 27 3.815
87 AF2 28 -0.092
87 AF2 29 -3.998
87 AF2 30 -8.881
87 AF2 31 -13.275
87 AF2 32 -16.693
87 AF2 33 -18.158
87 AF2 34 -18.646
87 AF2 35 -17.670
87 AF2 36 -17.181
87 AF2 37 -16.693
87 AF2 38 -16.693
87 AF2 39 -15.717
87 AF2 40 -13.763
87 AF2 41 -9.857
87 AF2 42 -4.486
87 AF2 43 0.397
87 AF2 44 5.280
87 AF2 45 9.674
87 AF2 46 13.092
87 AF2 47 15.533
87 AF2 48 16.998
87 AF2 49 16.510
87 AF2 50 14.557
87 AF2 51 11.627
87 AF2 52 7.721
87 AF2 53 4.303
87 AF2 54 0.397
87 AF2 55 -3.021
87 AF2 56 -6.927
87 AF2 57 -9.857
87 AF2 58 -12.299
87 AF2 59 -14.740
87 AF2 60 -16.205
87 AF2 61 -16.693
87 AF2 62 -16.693
87 AF2 63 -15.228
87 AF2 64 -13.275
87 AF2 65 -11.322
87 AF2 66 -9.857
87 AF2 67 -9.857
87 AF2 68 -10.345
87 AF2 69 -9.857
87 AF2 70 -8.881
87 AF2 71 -6.927
87 AF2 72 -4.974
87 AF2 73 -3.510
87 AF2 74 -2.533
87 AF2 75 -1.556
87 AF2 76 -1.068
87 AF2 77 0.397
87 AF2 78 1.373
87 AF2 79 1.373
87 AF2 80 -0.580
87 AF2 81 -5.463
87 AF2 82 -11.810
87 AF2 83 -18.158
87 AF2 84 -22.552
87 AF2 85 -24.994
87 AF2 86 -24.994
87 AF2 87 -24.994
87 AF2 88 -24.506
87 AF2 89 -24.506
87 AF2 90 -24.506
87 AF2 91 -23.529
87 AF2 92 -21.576
87 AF2 93 -18.646
87 AF2 94 -16.205
87 AF2 95 -14.740
87 AF2 96 -13.275
87 AF2 97 -11.810
87 AF2 98 -8.881
87 AF2 99 -6.439
87 AF2 100 -3.998
87 AF2 101 -3.510
87 AF2 102 -5.463
87 AF2 103 -7.904
87 AF2 104 -10.834
87 AF2 105 -13.763
87 AF2 106 -16.205
87 AF2 107 -18.646
87 AF2 108 -20.599
87 AF2 109 -22.552
87 AF2 110 -24.017
87 AF2 111 -24.017
87 AF2 112 -23.529
87 AF2 113 -22.064
87 AF2 114 -19.135
87 AF2 115 -15.228
87 AF2 116 -11.322
87 AF2 117 -8.392
87 AF2 118 -5.951
87 AF2 119 -3.998
87 AF2 120 -2.533
87 AF2 121 -1.068
87 AF2 122 0.397
87 AF2 123 1.862
87 AF2 124 1.862
87 AF2 125 1.373
87 AF2 126 1.373
87 AF2 127 1.862
87 AF2 128 3.326
87 AF2 129 5.280
87 AF2 130 6.256
87 AF2 131 5.280
87 AF2 132 2.350
87 AF2 133 -1.556
87 AF2 134 -4.974
87 AF2 135 -8.392
87 AF2 136 -10.834
87 AF2 137 -13.275
87 AF2 138 -15.717
87 AF2 139 -17.181
87 AF2 140 -17.181
87 AF2 141 -16.205
87 AF2 142 -14.252
87 AF2 143 -11.322
87 AF2 144 -7.416
87 AF2 145 -3.998
87 AF2 146 -0.580
87 AF2 147 2.838
87 AF2 148 6.256
87 AF2 149 8.698
87 AF2 150 9.674
87 AF2 151 9.186
87 AF2 152 7.233
87 AF2 153 3.815
87 AF2 154 0.885
87 AF2 155 -2.045
87 AF2 156 -4.974
87 AF2 157 -7.416
87 AF2 158 -9.369
87 AF2 159 -11.322
87 AF2 160 -11.810
87 AF2 161 -10.834
87 AF2 162 -8.881
87 AF2 163 -6.927
87 AF2 164 -5.951
87 AF2 165 -6.439
87 AF2 166 -7.416
87 AF2 167 -8.392
87 AF2 168 -8.881
87 AF2 169 -8.881
87 AF2 170 -8.881
87 AF2 171 -8.392
87 AF2 172 -7.416
87 AF2 173 -4.486
87 AF2 174 -1.068
87 AF2 175 1.862
87 AF2 176 2.838
87 AF2 177 2.350
87 AF2 178 0.885
87 AF2 179 0.397
87 AF2 180 1.373
87 AF2 181 3.326
87 AF2 182 4.303
87 AF2 183 2.838
87 AF2 184 -0.580
87 AF2 185 -3.998
87 AF2 186 -6.439
87 AF2 187 -5.951
87 AF2 188 -3.510
87 AF2 189 -0.092
87 AF2 190 2.838
87 AF2 191 5.280
87 AF2 192 6.256
87 AF2 193 5.768
87 AF2 194 4.791
87 AF2 195 3.815
87 AF2 196 2.350
87 AF2 197 1.862
87 AF2 198 2.350
87 AF2 199 4.303
87 AF2 200 5.768
87 AF2 201 7.721
87 AF2 202 8.698
87 AF2 203 8.698
87 AF2 204 6.744
87 AF2 205 3.326
87 AF2 206 -1.068
87 AF2 207 -5.951
87 AF2 208 -10.834
87 AF2 209 -14.740
87 AF2 210 -18.158
87 AF2 211 -19.623
87 AF2 212 -18.646
87 AF2 213 -16.205
87 AF2 214 -11.810
87 AF2 215 -6.927
87 AF2 216 -2.045
87 AF2 217 0.885
87 AF2 218 2.838
87 AF2 219 3.815
87 AF2 220 4.791
87 AF2 221 6.744
87 AF2 222 9.674
87 AF2 223 13.580
87 AF2 224 16.510
87 AF2 225 18.463
87 AF2 226 17.975
87 AF2 227 15.045
87 AF2 228 10.651
87 AF2 229 6.256
87 AF2 230 1.862
87 AF2 231 -1.556
87 AF2 232 -4.974
87 AF2 233 -8.392
87 AF2 234 -12.299
87 AF2 235 -16.205
87 AF2 236 -18.646
87 AF2 237 -20.111
87 AF2 238 -19.623
87 AF2 239 -18.158
87 AF2 240 -15.717
87 AF2 241 -12.299
87 AF2 242 -8.881
87 AF2 243 -4.486
87 AF2 244 -1.068
87 AF2 245 1.862
87 AF2 246 4.303
87 AF2 247 5.280
87 AF2 248 5.768
87 AF2 249 6.744
87 AF2 250 8.698
87 AF2 251 11.139
87 AF2 252 14.557
87 AF2 253 16.998
87 AF2 254 19.440
87 AF2 255 20.905
# FZ chan 6
87 FZ 0 -0.366
87 FZ 1 -2.808
87 FZ 2 -5.249
87 FZ 3 -7.202
87 FZ 4 -9.155
87 FZ 5 -11.108
87 FZ 6 -13.550
87 FZ 7 -16.479
87 FZ 8 -18.433
87 FZ 9 -18.433
87 FZ 10 -15.991
87 FZ 11 -11.597
87 FZ 12 -6.226
87 FZ 13 -1.343
87 FZ 14 2.563
87 FZ 15 5.493
87 FZ 16 6.958
87 FZ 17 7.446
87 FZ 18 7.935
87 FZ 19 8.423
87 FZ 20 8.911
87 FZ 21 9.399
87 FZ 22 8.911
87 FZ 23 7.935
87 FZ 24 5.981
87 FZ 25 4.517
87 FZ 26 2.563
87 FZ 27 1.099
87 FZ 28 -0.854
87 FZ 29 -3.296
87 FZ 30 -5.737
87 FZ 31 -8.179
87 FZ 32 -10.132
87 FZ 33 -11.108
87 FZ 34 -11.108
87 FZ 35 -11.108
87 FZ 36 -12.085
87 FZ 37 -12.085
87 FZ 38 -12.085
87 FZ 39 -11.108
87 FZ 40 -9.644
87 FZ 41 -6.226
87 FZ 42 -2.808
87 FZ 43 0.610
87 FZ 44 4.517
87 FZ 45 7.935
87 FZ 46 10.376
87 FZ 47 12.329
87 FZ 48 13.306
87 FZ 49 12.817
87 FZ 50 11.353
87 FZ 51 9.399
87 FZ 52 6.958
87 FZ 53 4.517
87 FZ 54 1.587
87 FZ 55 -1.343
87 FZ 56 -4.272
87 FZ 57 -6.714
87 FZ 58 -8.667
87 FZ 59 -11.108
87 FZ 60 -13.550
87 FZ 61 -15.503
87 FZ 62 -15.991
87 FZ 63 -15.503
87 FZ 64 -14.038
87 FZ 65 -12.085
87 FZ 66 -10.620
87 FZ 67 -9.644
87 FZ 68 -9.644
87 FZ 69 -9.155
87 FZ 70 -8.179
87 FZ 71 -7.202
87 FZ 72 -5.737
87 FZ 73 -5.249
87 FZ 74 -4.761
87 FZ 75 -4.761
87 FZ 76 -4.272
87 FZ 77 -3.296
87 FZ 78 -2.319
87 FZ 79 -1.343
87 FZ 80 -2.319
87 FZ 81 -4.272
87 FZ 82 -8.179
87 FZ 83 -12.085
87 FZ 84 -15.015
87 FZ 85 -16.968
87 FZ 86 -17.944
87 FZ 87 -18.433
87 FZ 88 -19.409
87 FZ 89 -20.386
87 FZ 90 -21.362
87 FZ 91 -21.362
87 FZ 92 -20.386
87 FZ 93 -18.921
87 FZ 94 -17.456
87 FZ 95 -15.991
87 FZ 96 -14.038
87 FZ 97 -12.085
87 FZ 98 -9.644
87 FZ 99 -6.714
87 FZ 100 -4.761
87 FZ 101 -3.784
87 FZ 102 -4.761
87 FZ 103 -6.714
87 FZ 104 -9.155
87 FZ 105 -11.597
87 FZ 106 -13.550
87 FZ 107 -15.503
87 FZ 108 -16.968
87 FZ 109 -17.944
87 FZ 110 -18.433
87 FZ 111 -18.921
87 FZ 112 -18.921
87 FZ 113 -17.456
87 FZ 114 -15.991
87 FZ 115 -14.038
87 FZ 116 -11.108
87 FZ 117 -8.667
87 FZ 118 -6.714
87 FZ 119 -5.737
87 FZ 120 -4.272
87 FZ 121 -2.808
87 FZ 122 -1.831
87 FZ 123 -1.343
87 FZ 124 -0.854
87 FZ 125 -1.831
87 FZ 126 -2.319
87 FZ 127 -2.319
87 FZ 128 -1.831
87 FZ 129 -1.343
87 FZ 130 -1.343
87 FZ 131 -2.319
87 FZ 132 -4.272
87 FZ 133 -6.714
87 FZ 134 -8.667
87 FZ 135 -10.620
87 FZ 136 -12.085
87 FZ 137 -13.062
87 FZ 138 -14.526
87 FZ 139 -15.015
87 FZ 140 -15.015
87 FZ 141 -14.038
87 FZ 142 -11.597
87 FZ 143 -8.179
87 FZ 144 -4.761
87 FZ 145 -1.343
87 FZ 146 1.587
87 FZ 147 4.028
87 FZ 148 6.470
87 FZ 149 7.935
87 FZ 150 7.935
87 FZ 151 6.470
87 FZ 152 4.028
87 FZ 153 0.610
87 FZ 154 -2.319
87 FZ 155 -4.272
87 FZ 156 -6.226
87 FZ 157 -8.179
87 FZ 158 -10.132
87 FZ 159 -11.108
87 FZ 160 -10.620
87 FZ 161 -8.667
87 FZ 162 -5.737
87 FZ 163 -3.784
87 FZ 164 -3.296
87 FZ 165 -4.272
87 FZ 166 -5.737
87 FZ 167 -7.202
87 FZ 168 -7.690
87 FZ 169 -8.179
87 FZ 170 -8.667
87 FZ 171 -8.667
87 FZ 172 -8.179
87 FZ 173 -5.737
87 FZ 174 -2.808
87 FZ 175 0.122
87 FZ 176 1.587
87 FZ 177 1.587
87 FZ 178 0.610
87 FZ 179 -0.366
87 FZ 180 -0.366
87 FZ 181 0.122
87 FZ 182 -0.366
87 FZ 183 -2.808
87 FZ 184 -5.737
87 FZ 185 -8.179
87 FZ 186 -8.667
87 FZ 187 -7.202
87 FZ 188 -4.272
87 FZ 189 -0.854
87 FZ 190 2.563
87 FZ 191 4.517
87 FZ 192 5.493
87 FZ 193 5.493
87 FZ 194 4.517
87 FZ 195 3.052
87 FZ 196 1.587
87 FZ 197 1.099
87 FZ 198 1.099
87 FZ 199 2.075
87 FZ 200 3.540
87 FZ 201 5.493
87 FZ 202 5.981
87 FZ 203 5.005
87 FZ 204 2.563
87 FZ 205 -1.831
87 FZ 206 -6.226
87 FZ 207 -11.108
87 FZ 208 -15.503
87 FZ 209 -18.433
87 FZ 210 -20.874
87 FZ 211 -21.362
87 FZ 212 -19.897
87 FZ 213 -15.991
87 FZ 214 -11.108
87 FZ 215 -6.226
87 FZ 216 -1.343
87 FZ 217 1.587
87 FZ 218 3.052
87 FZ 219 2.563
87 FZ 220 2.563
87 FZ 221 2.563
87 FZ 222 4.028
87 FZ 223 6.958
87 FZ 224 9.888
87 FZ 225 12.329
87 FZ 226 13.306
87 FZ 227 12.329
87 FZ 228 9.888
87 FZ 229 6.470
87 FZ 230 2.563
87 FZ 231 -1.343
87 FZ 232 -4.761
87 FZ 233 -8.667
87 FZ 234 -12.573
87 FZ 235 -15.503
87 FZ 236 -16.968
87 FZ 237 -17.456
87 FZ 238 -16.479
87 FZ 239 -14.526
87 FZ 240 -12.573
87 FZ 241 -10.132
87 FZ 242 -6.226
87 FZ 243 -2.319
87 FZ 244 1.099
87 FZ 245 4.517
87 FZ 246 6.470
87 FZ 247 7.446
87 FZ 248 7.935
87 FZ 249 7.935
87 FZ 250 8.423
87 FZ 251 9.399
87 FZ 252 10.376
87 FZ 253 11.353
87 FZ 254 11.841
87 FZ 255 11.353
# F4 chan 7
87 F4 0 -2.716
87 F4 1 -5.157
87 F4 2 -7.599
87 F4 3 -9.064
87 F4 4 -10.040
87 F4 5 -11.505
87 F4 6 -14.435
87 F4 7 -17.853
87 F4 8 -20.294
87 F4 9 -19.806
87 F4 10 -16.388
87 F4 11 -10.040
87 F4 12 -3.204
87 F4 13 2.655
87 F4 14 6.073
87 F4 15 7.050
87 F4 16 6.073
87 F4 17 4.120
87 F4 18 2.655
87 F4 19 2.167
87 F4 20 2.655
87 F4 21 3.632
87 F4 22 5.585
87 F4 23 7.538
87 F4 24 9.491
87 F4 25 9.979
87 F4 26 9.979
87 F4 27 8.026
87 F4 28 4.608
87 F4 29 0.214
87 F4 30 -5.157
87 F4 31 -10.040
87 F4 32 -13.947
87 F4 33 -15.900
87 F4 34 -16.388
87 F4 35 -15.411
87 F4 36 -14.923
87 F4 37 -13.947
87 F4 38 -12.970
87 F4 39 -11.505
87 F4 40 -9.552
87 F4 41 -5.157
87 F4 42 -1.251
87 F4 43 3.143
87 F4 44 7.050
87 F4 45 10.468
87 F4 46 13.885
87 F4 47 15.839
87 F4 48 16.815
87 F4 49 16.327
87 F4 50 14.862
87 F4 51 13.397
87 F4 52 10.468
87 F4 53 8.026
87 F4 54 4.608
87 F4 55 1.190
87 F4 56 -2.716
87 F4 57 -5.646
87 F4 58 -8.087
87 F4 59 -9.552
87 F4 60 -10.529
87 F4 61 -11.505
87 F4 62 -11.017
87 F4 63 -10.040
87 F4 64 -7.599
87 F4 65 -5.646
87 F4 66 -4.669
87 F4 67 -4.181
87 F4 68 -4.669
87 F4 69 -4.669
87 F4 70 -3.693
87 F4 71 -2.228
87 F4 72 -0.275
87 F4 73 1.190
87 F4 74 2.167
87 F4 75 3.143
87 F4 76 4.120
87 F4 77 5.096
87 F4 78 5.585
87 F4 79 5.096
87 F4 80 2.167
87 F4 81 -2.228
87 F4 82 -8.575
87 F4 83 -14.435
87 F4 84 -18.829
87 F4 85 -21.271
87 F4 86 -21.271
87 F4 87 -21.271
87 F4 88 -20.782
87 F4 89 -20.782
87 F4 90 -20.294
87 F4 91 -19.318
87 F4 92 -16.876
87 F4 93 -13.947
87 F4 94 -11.505
87 F4 95 -10.040
87 F4 96 -8.575
87 F4 97 -6.622
87 F4 98 -4.181
87 F4 99 -1.740
87 F4 100 0.702
87 F4 101 1.190
87 F4 102 0.214
87 F4 103 -1.740
87 F4 104 -3.693
87 F4 105 -5.157
87 F4 106 -7.111
87 F4 107 -9.552
87 F4 108 -11.505
87 F4 109 -12.970
87 F4 110 -13.947
87 F4 111 -14.435
87 F4 112 -13.947
87 F4 113 -12.970
87 F4 114 -11.505
87 F4 115 -9.552
87 F4 116 -6.622
87 F4 117 -4.669
87 F4 118 -2.228
87 F4 119 -0.275
87 F4 120 1.678
87 F4 121 3.632
87 F4 122 5.585
87 F4 123 6.561
87 F4 124 7.538
87 F4 125 7.050
87 F4 126 6.561
87 F4 127 7.538
87 F4 128 9.003
87 F4 129 10.956
87 F4 130 11.444
87 F4 131 10.468
87 F4 132 8.026
87 F4 133 4.608
87 F4 134 1.678
87 F4 135 -0.763
87 F4 136 -3.204
87 F4 137 -5.157
87 F4 138 -7.111
87 F4 139 -8.575
87 F4 140 -9.064
87 F4 141 -8.087
87 F4 142 -6.134
87 F4 143 -3.693
87 F4 144 -0.763
87 F4 145 1.678
87 F4 146 4.120
87 F4 147 7.050
87 F4 148 9.979
87 F4 149 12.421
87 F4 150 13.885
87 F4 151 13.885
87 F4 152 12.421
87 F4 153 9.979
87 F4 154 7.538
87 F4 155 5.096
87 F4 156 3.143
87 F4 157 0.214
87 F4 158 -2.228
87 F4 159 -4.181
87 F4 160 -5.157
87 F4 161 -4.669
87 F4 162 -3.693
87 F4 163 -2.716
87 F4 164 -2.716
87 F4 165 -3.693
87 F4 166 -5.157
87 F4 167 -7.111
87 F4 168 -8.087
87 F4 169 -8.575
87 F4 170 -8.087
87 F4 171 -7.111
87 F4 172 -5.157
87 F4 173 -2.228
87 F4 174 0.702
87 F4 175 2.655
87 F4 176 3.143
87 F4 177 1.678
87 F4 178 0.214
87 F4 179 0.214
87 F4 180 1.678
87 F4 181 4.120
87 F4 182 5.585
87 F4 183 5.096
87 F4 184 2.167
87 F4 185 -1.740
87 F4 186 -4.181
87 F4 187 -4.669
87 F4 188 -3.693
87 F4 189 -1.251
87 F4 190 1.678
87 F4 191 3.143
87 F4 192 4.120
87 F4 193 4.120
87 F4 194 3.143
87 F4 195 1.190
87 F4 196 0.214
87 F4 197 0.214
87 F4 198 1.190
87 F4 199 3.143
87 F4 200 5.096
87 F4 201 7.050
87 F4 202 8.514
87 F4 203 9.003
87 F4 204 8.514
87 F4 205 7.050
87 F4 206 3.632
87 F4 207 0.214
87 F4 208 -4.181
87 F4 209 -8.087
87 F4 210 -10.529
87 F4 211 -12.482
87 F4 212 -11.505
87 F4 213 -9.552
87 F4 214 -5.157
87 F4 215 -0.763
87 F4 216 3.143
87 F4 217 5.585
87 F4 218 6.073
87 F4 219 6.073
87 F4 220 6.073
87 F4 221 7.050
87 F4 222 9.491
87 F4 223 12.909
87 F4 224 15.350
87 F4 225 16.327
87 F4 226 15.350
87 F4 227 11.932
87 F4 228 8.026
87 F4 229 3.632
87 F4 230 0.702
87 F4 231 -2.228
87 F4 232 -4.181
87 F4 233 -7.111
87 F4 234 -10.529
87 F4 235 -13.458
87 F4 236 -15.900
87 F4 237 -16.388
87 F4 238 -15.411
87 F4 239 -13.458
87 F4 240 -11.505
87 F4 241 -8.575
87 F4 242 -5.646
87 F4 243 -2.716
87 F4 244 0.702
87 F4 245 3.143
87 F4 246 4.120
87 F4 247 4.120
87 F4 248 3.632
87 F4 249 4.120
87 F4 250 5.585
87 F4 251 8.514
87 F4 252 11.444
87 F4 253 12.909
87 F4 254 13.885
87 F4 255 13.397
# F3 chan 8
87 F3 0 -1.628
87 F3 1 -4.557
87 F3 2 -6.999
87 F3 3 -8.464
87 F3 4 -10.417
87 F3 5 -12.370
87 F3 6 -14.811
87 F3 7 -17.741
87 F3 8 -19.694
87 F3 9 -19.206
87 F3 10 -16.764
87 F3 11 -12.370
87 F3 12 -6.999
87 F3 13 -2.604
87 F3 14 0.326
87 F3 15 1.302
87 F3 16 1.302
87 F3 17 0.326
87 F3 18 0.326
87 F3 19 1.302
87 F3 20 3.255
87 F3 21 5.208
87 F3 22 6.185
87 F3 23 5.697
87 F3 24 4.232
87 F3 25 2.767
87 F3 26 0.326
87 F3 27 -1.139
87 F3 28 -3.092
87 F3 29 -5.534
87 F3 30 -6.510
87 F3 31 -6.999
87 F3 32 -6.999
87 F3 33 -6.510
87 F3 34 -6.510
87 F3 35 -7.975
87 F3 36 -10.417
87 F3 37 -12.858
87 F3 38 -13.835
87 F3 39 -13.346
87 F3 40 -11.393
87 F3 41 -8.464
87 F3 42 -6.022
87 F3 43 -3.092
87 F3 44 -0.163
87 F3 45 2.767
87 F3 46 4.720
87 F3 47 6.673
87 F3 48 7.161
87 F3 49 7.161
87 F3 50 6.185
87 F3 51 4.232
87 F3 52 2.279
87 F3 53 -0.163
87 F3 54 -2.604
87 F3 55 -5.046
87 F3 56 -7.487
87 F3 57 -10.417
87 F3 58 -12.370
87 F3 59 -14.323
87 F3 60 -16.764
87 F3 61 -18.229
87 F3 62 -18.717
87 F3 63 -18.717
87 F3 64 -16.764
87 F3 65 -14.323
87 F3 66 -12.370
87 F3 67 -10.905
87 F3 68 -10.905
87 F3 69 -10.905
87 F3 70 -10.905
87 F3 71 -10.417
87 F3 72 -9.440
87 F3 73 -7.975
87 F3 74 -7.487
87 F3 75 -6.999
87 F3 76 -6.510
87 F3 77 -6.022
87 F3 78 -6.022
87 F3 79 -6.022
87 F3 80 -7.975
87 F3 81 -10.905
87 F3 82 -15.299
87 F3 83 -19.694
87 F3 84 -22.624
87 F3 85 -24.089
87 F3 86 -23.112
87 F3 87 -22.135
87 F3 88 -21.159
87 F3 89 -20.671
87 F3 90 -21.159
87 F3 91 -20.671
87 F3 92 -19.694
87 F3 93 -17.741
87 F3 94 -15.299
87 F3 95 -13.835
87 F3 96 -11.882
87 F3 97 -9.440
87 F3 98 -6.022
87 F3 99 -2.604
87 F3 100 -0.651
87 F3 101 -1.139
87 F3 102 -3.581
87 F3 103 -7.975
87 F3 104 -12.370
87 F3 105 -16.764
87 F3 106 -19.694
87 F3 107 -22.624
87 F3 108 -24.577
87 F3 109 -26.530
87 F3 110 -27.018
87 F3 111 -26.530
87 F3 112 -25.553
87 F3 113 -22.624
87 F3 114 -20.182
87 F3 115 -17.253
87 F3 116 -13.835
87 F3 117 -10.417
87 F3 118 -6.999
87 F3 119 -4.557
87 F3 120 -2.604
87 F3 121 -1.139
87 F3 122 -0.163
87 F3 123 -0.163
87 F3 124 -0.163
87 F3 125 -0.651
87 F3 126 -1.139
87 F3 127 -1.139
87 F3 128 -0.651
87 F3 129 -1.139
87 F3 130 -3.092
87 F3 131 -6.510
87 F3 132 -10.417
87 F3 133 -14.323
87 F3 134 -17.253
87 F3 135 -19.206
87 F3 136 -21.159
87 F3 137 -22.135
87 F3 138 -23.112
87 F3 139 -23.600
87 F3 140 -23.112
87 F3 141 -20.671
87 F3 142 -17.741
87 F3 143 -13.346
87 F3 144 -8.952
87 F3 145 -4.069
87 F3 146 0.326
87 F3 147 4.720
87 F3 148 7.650
87 F3 149 10.091
87 F3 150 10.091
87 F3 151 8.626
87 F3 152 4.720
87 F3 153 0.814
87 F3 154 -4.069
87 F3 155 -7.975
87 F3 156 -11.393
87 F3 157 -13.835
87 F3 158 -14.811
87 F3 159 -14.323
87 F3 160 -12.858
87 F3 161 -9.928
87 F3 162 -7.487
87 F3 163 -6.510
87 F3 164 -6.510
87 F3 165 -7.975
87 F3 166 -9.440
87 F3 167 -8.952
87 F3 168 -7.487
87 F3 169 -5.534
87 F3 170 -4.069
87 F3 171 -2.604
87 F3 172 -0.651
87 F3 173 2.767
87 F3 174 6.185
87 F3 175 10.091
87 F3 176 11.556
87 F3 177 11.068
87 F3 178 9.115
87 F3 179 6.673
87 F3 180 4.720
87 F3 181 3.255
87 F3 182 1.302
87 F3 183 -1.628
87 F3 184 -4.557
87 F3 185 -6.999
87 F3 186 -7.487
87 F3 187 -5.534
87 F3 188 -2.604
87 F3 189 1.302
87 F3 190 4.232
87 F3 191 6.185
87 F3 192 7.650
87 F3 193 7.650
87 F3 194 8.138
87 F3 195 8.138
87 F3 196 8.138
87 F3 197 8.138
87 F3 198 8.138
87 F3 199 9.115
87 F3 200 10.091
87 F3 201 11.556
87 F3 202 11.556
87 F3 203 10.091
87 F3 204 6.185
87 F3 205 1.302
87 F3 206 -5.046
87 F3 207 -11.393
87 F3 208 -16.764
87 F3 209 -20.182
87 F3 210 -22.624
87 F3 211 -22.624
87 F3 212 -21.159
87 F3 213 -17.741
87 F3 214 -13.346
87 F3 215 -8.464
87 F3 216 -5.046
87 F3 217 -2.116
87 F3 218 -0.651
87 F3 219 0.326
87 F3 220 1.790
87 F3 221 3.255
87 F3 222 6.185
87 F3 223 10.579
87 F3 224 14.974
87 F3 225 18.880
87 F3 226 21.322
87 F3 227 21.322
87 F3 228 19.368
87 F3 229 16.927
87 F3 230 13.021
87 F3 231 9.115
87 F3 232 4.232
87 F3 233 -0.163
87 F3 234 -4.557
87 F3 235 -8.464
87 F3 236 -11.882
87 F3 237 -14.323
87 F3 238 -15.788
87 F3 239 -15.788
87 F3 240 -14.811
87 F3 241 -12.858
87 F3 242 -10.417
87 F3 243 -7.487
87 F3 244 -4.069
87 F3 245 -1.139
87 F3 246 1.302
87 F3 247 3.743
87 F3 248 5.208
87 F3 249 6.673
87 F3 250 8.138
87 F3 251 10.091
87 F3 252 12.533
87 F3 253 15.462
87 F3 254 18.392
87 F3 255 19.857
# FC6 chan 9
87 FC6 0 -7.660
87 FC6 1 -10.101
87 FC6 2 -10.590
87 FC6 3 -10.101
87 FC6 4 -8.636
87 FC6 5 -7.660
87 FC6 6 -8.148
87 FC6 7 -8.636
87 FC6 8 -9.125
87 FC6 9 -8.148
87 FC6 10 -5.219
87 FC6 11 -1.312
87 FC6 12 2.594
87 FC6 13 4.547
87 FC6 14 4.547
87 FC6 15 2.594
87 FC6 16 -0.336
87 FC6 17 -3.265
87 FC6 18 -4.730
87 FC6 19 -4.730
87 FC6 20 -3.265
87 FC6 21 -0.336
87 FC6 22 4.547
87 FC6 23 9.430
87 FC6 24 13.824
87 FC6 25 17.242
87 FC6 26 17.731
87 FC6 27 15.778
87 FC6 28 11.871
87 FC6 29 6.012
87 FC6 30 -0.336
87 FC6 31 -5.707
87 FC6 32 -9.613
87 FC6 33 -11.566
87 FC6 34 -11.566
87 FC6 35 -11.078
87 FC6 36 -10.101
87 FC6 37 -9.613
87 FC6 38 -9.613
87 FC6 39 -8.636
87 FC6 40 -6.195
87 FC6 41 -2.289
87 FC6 42 1.617
87 FC6 43 5.524
87 FC6 44 8.453
87 FC6 45 10.895
87 FC6 46 12.360
87 FC6 47 13.824
87 FC6 48 15.289
87 FC6 49 15.778
87 FC6 50 15.289
87 FC6 51 14.313
87 FC6 52 11.871
87 FC6 53 9.918
87 FC6 54 7.477
87 FC6 55 5.035
87 FC6 56 2.594
87 FC6 57 0.153
87 FC6 58 -1.801
87 FC6 59 -2.289
87 FC6 60 -1.801
87 FC6 61 -0.336
87 FC6 62 1.617
87 FC6 63 3.082
87 FC6 64 4.059
87 FC6 65 5.035
87 FC6 66 5.035
87 FC6 67 4.547
87 FC6 68 4.547
87 FC6 69 5.035
87 FC6 70 6.500
87 FC6 71 9.430
87 FC6 72 12.360
87 FC6 73 16.266
87 FC6 74 19.196
87 FC6 75 22.125
87 FC6 76 23.590
87 FC6 77 24.567
87 FC6 78 24.078
87 FC6 79 21.149
87 FC6 80 16.266
87 FC6 81 9.918
87 FC6 82 2.106
87 FC6 83 -5.707
87 FC6 84 -11.078
87 FC6 85 -13.519
87 FC6 86 -13.031
87 FC6 87 -11.078
87 FC6 88 -8.636
87 FC6 89 -6.195
87 FC6 90 -4.730
87 FC6 91 -2.777
87 FC6 92 -0.336
87 FC6 93 2.106
87 FC6 94 3.571
87 FC6 95 4.547
87 FC6 96 4.547
87 FC6 97 6.012
87 FC6 98 8.453
87 FC6 99 10.895
87 FC6 100 12.848
87 FC6 101 13.336
87 FC6 102 11.383
87 FC6 103 8.453
87 FC6 104 6.012
87 FC6 105 3.571
87 FC6 106 1.617
87 FC6 107 -0.336
87 FC6 108 -2.289
87 FC6 109 -4.730
87 FC6 110 -6.195
87 FC6 111 -6.683
87 FC6 112 -6.683
87 FC6 113 -6.195
87 FC6 114 -5.219
87 FC6 115 -3.265
87 FC6 116 -1.312
87 FC6 117 2.106
87 FC6 118 5.524
87 FC6 119 8.453
87 FC6 120 11.383
87 FC6 121 13.336
87 FC6 122 15.289
87 FC6 123 16.754
87 FC6 124 17.731
87 FC6 125 18.219
87 FC6 126 19.196
87 FC6 127 20.660
87 FC6 128 22.614
87 FC6 129 24.567
87 FC6 130 25.055
87 FC6 131 24.078
87 FC6 132 21.637
87 FC6 133 17.731
87 FC6 134 13.824
87 FC6 135 10.406
87 FC6 136 6.989
87 FC6 137 4.059
87 FC6 138 1.617
87 FC6 139 0.153
87 FC6 140 -0.824
87 FC6 141 -0.336
87 FC6 142 1.129
87 FC6 143 3.571
87 FC6 144 6.012
87 FC6 145 8.942
87 FC6 146 12.848
87 FC6 147 16.754
87 FC6 148 20.660
87 FC6 149 24.078
87 FC6 150 26.520
87 FC6 151 27.008
87 FC6 152 26.520
87 FC6 153 25.055
87 FC6 154 23.102
87 FC6 155 21.149
87 FC6 156 19.196
87 FC6 157 16.754
87 FC6 158 13.824
87 FC6 159 11.383
87 FC6 160 8.453
87 FC6 161 6.012
87 FC6 162 4.547
87 FC6 163 3.082
87 FC6 164 1.617
87 FC6 165 0.641
87 FC6 166 0.153
87 FC6 167 0.153
87 FC6 168 1.617
87 FC6 169 3.571
87 FC6 170 6.500
87 FC6 171 9.430
87 FC6 172 13.336
87 FC6 173 16.754
87 FC6 174 19.196
87 FC6 175 20.172
87 FC6 176 18.707
87 FC6 177 15.778
87 FC6 178 12.848
87 FC6 179 11.383
87 FC6 180 12.848
87 FC6 181 15.778
87 FC6 182 19.196
87 FC6 183 20.172
87 FC6 184 19.196
87 FC6 185 16.754
87 FC6 186 14.313
87 FC6 187 12.360
87 FC6 188 12.360
87 FC6 189 12.848
87 FC6 190 13.824
87 FC6 191 14.801
87 FC6 192 15.289
87 FC6 193 14.313
87 FC6 194 12.848
87 FC6 195 11.383
87 FC6 196 9.918
87 FC6 197 10.406
87 FC6 198 11.383
87 FC6 199 13.336
87 FC6 200 15.778
87 FC6 201 18.219
87 FC6 202 20.172
87 FC6 203 21.637
87 FC6 204 22.614
87 FC6 205 22.125
87 FC6 206 20.172
87 FC6 207 17.731
87 FC6 208 15.289
87 FC6 209 12.848
87 FC6 210 10.895
87 FC6 211 9.430
87 FC6 212 8.942
87 FC6 213 9.430
87 FC6 214 11.383
87 FC6 215 13.336
87 FC6 216 14.801
87 FC6 217 14.801
87 FC6 218 13.336
87 FC6 219 11.871
87 FC6 220 11.871
87 FC6 221 13.336
87 FC6 222 15.778
87 FC6 223 19.196
87 FC6 224 22.614
87 FC6 225 24.078
87 FC6 226 23.102
87 FC6 227 19.684
87 FC6 228 15.778
87 FC6 229 11.383
87 FC6 230 7.965
87 FC6 231 6.500
87 FC6 232 6.989
87 FC6 233 6.989
87 FC6 234 6.989
87 FC6 235 5.524
87 FC6 236 4.547
87 FC6 237 4.547
87 FC6 238 5.035
87 FC6 239 6.500
87 FC6 240 7.477
87 FC6 241 7.965
87 FC6 242 8.942
87 FC6 243 10.406
87 FC6 244 12.360
87 FC6 245 13.336
87 FC6 246 13.336
87 FC6 247 12.360
87 FC6 248 11.871
87 FC6 249 12.848
87 FC6 250 15.778
87 FC6 251 19.196
87 FC6 252 22.614
87 FC6 253 24.567
87 FC6 254 25.055
87 FC6 255 25.055
# FC5 chan 10
87 FC5 0 1.556
87 FC5 1 -0.885
87 FC5 2 -2.838
87 FC5 3 -4.303
87 FC5 4 -6.256
87 FC5 5 -7.721
87 FC5 6 -9.674
87 FC5 7 -10.651
87 FC5 8 -11.627
87 FC5 9 -11.139
87 FC5 10 -9.186
87 FC5 11 -5.768
87 FC5 12 -1.373
87 FC5 13 1.068
87 FC5 14 2.533
87 FC5 15 1.556
87 FC5 16 -0.885
87 FC5 17 -3.815
87 FC5 18 -5.768
87 FC5 19 -5.768
87 FC5 20 -4.303
87 FC5 21 -1.862
87 FC5 22 2.045
87 FC5 23 4.486
87 FC5 24 5.463
87 FC5 25 5.463
87 FC5 26 4.486
87 FC5 27 3.021
87 FC5 28 2.045
87 FC5 29 1.068
87 FC5 30 0.580
87 FC5 31 0.092
87 FC5 32 0.092
87 FC5 33 1.068
87 FC5 34 2.045
87 FC5 35 2.533
87 FC5 36 1.068
87 FC5 37 -1.862
87 FC5 38 -5.280
87 FC5 39 -6.744
87 FC5 40 -6.256
87 FC5 41 -3.815
87 FC5 42 0.092
87 FC5 43 2.533
87 FC5 44 3.998
87 FC5 45 3.998
87 FC5 46 4.486
87 FC5 47 5.463
87 FC5 48 7.904
87 FC5 49 9.857
87 FC5 50 10.345
87 FC5 51 9.369
87 FC5 52 7.416
87 FC5 53 4.974
87 FC5 54 2.045
87 FC5 55 -1.373
87 FC5 56 -4.303
87 FC5 57 -6.744
87 FC5 58 -9.186
87 FC5 59 -10.651
87 FC5 60 -11.139
87 FC5 61 -10.651
87 FC5 62 -8.698
87 FC5 63 -6.256
87 FC5 64 -3.815
87 FC5 65 -1.862
87 FC5 66 -0.397
87 FC5 67 -0.397
87 FC5 68 -0.397
87 FC5 69 -0.885
87 FC5 70 -0.397
87 FC5 71 0.580
87 FC5 72 2.045
87 FC5 73 3.998
87 FC5 74 6.439
87 FC5 75 9.369
87 FC5 76 11.810
87 FC5 77 13.763
87 FC5 78 13.763
87 FC5 79 11.810
87 FC5 80 6.439
87 FC5 81 0.092
87 FC5 82 -7.233
87 FC5 83 -12.115
87 FC5 84 -15.045
87 FC5 85 -14.557
87 FC5 86 -12.604
87 FC5 87 -10.651
87 FC5 88 -8.209
87 FC5 89 -6.256
87 FC5 90 -3.815
87 FC5 91 -0.885
87 FC5 92 2.045
87 FC5 93 4.974
87 FC5 94 6.439
87 FC5 95 7.904
87 FC5 96 9.369
87 FC5 97 11.810
87 FC5 98 14.740
87 FC5 99 16.693
87 FC5 100 16.205
87 FC5 101 13.763
87 FC5 102 8.881
87 FC5 103 3.510
87 FC5 104 -1.373
87 FC5 105 -5.280
87 FC5 106 -8.698
87 FC5 107 -12.115
87 FC5 108 -15.533
87 FC5 109 -18.463
87 FC5 110 -20.416
87 FC5 111 -20.416
87 FC5 112 -19.928
87 FC5 113 -17.487
87 FC5 114 -14.557
87 FC5 115 -10.651
87 FC5 116 -6.256
87 FC5 117 -2.350
87 FC5 118 1.068
87 FC5 119 3.510
87 FC5 120 5.463
87 FC5 121 6.927
87 FC5 122 9.369
87 FC5 123 11.322
87 FC5 124 13.275
87 FC5 125 14.252
87 FC5 126 14.252
87 FC5 127 13.275
87 FC5 128 11.810
87 FC5 129 9.369
87 FC5 130 5.951
87 FC5 131 2.045
87 FC5 132 -2.838
87 FC5 133 -7.721
87 FC5 134 -11.627
87 FC5 135 -14.069
87 FC5 136 -15.045
87 FC5 137 -15.045
87 FC5 138 -14.557
87 FC5 139 -14.069
87 FC5 140 -13.092
87 FC5 141 -11.627
87 FC5 142 -9.186
87 FC5 143 -5.280
87 FC5 144 -0.397
87 FC5 145 5.463
87 FC5 146 10.834
87 FC5 147 16.205
87 FC5 148 20.599
87 FC5 149 24.017
87 FC5 150 24.994
87 FC5 151 24.506
87 FC5 152 21.576
87 FC5 153 18.158
87 FC5 154 14.252
87 FC5 155 11.322
87 FC5 156 9.369
87 FC5 157 7.904
87 FC5 158 6.439
87 FC5 159 5.463
87 FC5 160 4.486
87 FC5 161 3.998
87 FC5 162 4.974
87 FC5 163 5.463
87 FC5 164 5.463
87 FC5 165 4.974
87 FC5 166 4.974
87 FC5 167 6.439
87 FC5 168 9.857
87 FC5 169 14.740
87 FC5 170 19.135
87 FC5 171 23.041
87 FC5 172 26.459
87 FC5 173 28.900
87 FC5 174 31.342
87 FC5 175 32.806
87 FC5 176 32.318
87 FC5 177 29.877
87 FC5 178 26.947
87 FC5 179 24.506
87 FC5 180 22.064
87 FC5 181 20.111
87 FC5 182 18.158
87 FC5 183 14.740
87 FC5 184 10.834
87 FC5 185 7.904
87 FC5 186 6.927
87 FC5 187 8.392
87 FC5 188 10.834
87 FC5 189 13.275
87 FC5 190 14.252
87 FC5 191 14.740
87 FC5 192 15.717
87 FC5 193 18.158
87 FC5 194 21.088
87 FC5 195 23.529
87 FC5 196 25.970
87 FC5 197 26.459
87 FC5 198 26.947
87 FC5 199 27.924
87 FC5 200 29.388
87 FC5 201 30.853
87 FC5 202 31.342
87 FC5 203 28.900
87 FC5 204 24.506
87 FC5 205 18.646
87 FC5 206 12.299
87 FC5 207 6.927
87 FC5 208 2.533
87 FC5 209 -0.885
87 FC5 210 -3.326
87 FC5 211 -4.791
87 FC5 212 -3.815
87 FC5 213 -1.862
87 FC5 214 1.556
87 FC5 215 4.486
87 FC5 216 6.439
87 FC5 217 7.904
87 FC5 218 8.881
87 FC5 219 10.345
87 FC5 220 12.787
87 FC5 221 16.205
87 FC5 222 20.111
87 FC5 223 24.994
87 FC5 224 29.388
87 FC5 225 33.295
87 FC5 226 36.224
87 FC5 227 37.201
87 FC5 228 36.713
87 FC5 229 34.760
87 FC5 230 31.830
87 FC5 231 28.412
87 FC5 232 24.994
87 FC5 233 21.088
87 FC5 234 17.181
87 FC5 235 12.787
87 FC5 236 8.392
87 FC5 237 4.974
87 FC5 238 2.533
87 FC5 239 1.068
87 FC5 240 1.068
87 FC5 241 2.045
87 FC5 242 3.021
87 FC5 243 4.486
87 FC5 244 5.463
87 FC5 245 5.951
87 FC5 246 6.927
87 FC5 247 7.904
87 FC5 248 10.345
87 FC5 249 12.787
87 FC5 250 16.693
87 FC5 251 19.623
87 FC5 252 24.017
87 FC5 253 28.412
87 FC5 254 32.806
87 FC5 255 36.224
# FC2 chan 11
87 FC2 0 0.671
87 FC2 1 -0.793
87 FC2 2 -2.258
87 FC2 3 -3.723
87 FC2 4 -4.700
87 FC2 5 -6.165
87 FC2 6 -7.629
87 FC2 7 -9.094
87 FC2 8 -9.094
87 FC2 9 -8.606
87 FC2 10 -6.653
87 FC2 11 -4.211
87 FC2 12 -1.282
87 FC2 13 0.671
87 FC2 14 2.625
87 FC2 15 3.113
87 FC2 16 3.601
87 FC2 17 3.601
87 FC2 18 3.601
87 FC2 19 3.113
87 FC2 20 3.113
87 FC2 21 2.625
87 FC2 22 3.113
87 FC2 23 3.601
87 FC2 24 4.089
87 FC2 25 4.578
87 FC2 26 4.578
87 FC2 27 4.089
87 FC2 28 2.136
87 FC2 29 0.183
87 FC2 30 -2.747
87 FC2 31 -5.188
87 FC2 32 -7.141
87 FC2 33 -8.118
87 FC2 34 -8.118
87 FC2 35 -8.118
87 FC2 36 -8.118
87 FC2 37 -7.629
87 FC2 38 -7.629
87 FC2 39 -7.141
87 FC2 40 -6.165
87 FC2 41 -3.723
87 FC2 42 -1.282
87 FC2 43 1.648
87 FC2 44 4.089
87 FC2 45 6.042
87 FC2 46 7.507
87 FC2 47 8.484
87 FC2 48 8.972
87 FC2 49 8.972
87 FC2 50 8.484
87 FC2 51 7.507
87 FC2 52 6.531
87 FC2 53 5.066
87 FC2 54 3.601
87 FC2 55 2.136
87 FC2 56 0.671
87 FC2 57 -0.305
87 FC2 58 -1.770
87 FC2 59 -3.235
87 FC2 60 -4.211
87 FC2 61 -5.188
87 FC2 62 -5.676
87 FC2 63 -5.676
87 FC2 64 -4.211
87 FC2 65 -3.235
87 FC2 66 -3.235
87 FC2 67 -3.235
87 FC2 68 -3.235
87 FC2 69 -3.235
87 FC2 70 -2.258
87 FC2 71 -1.282
87 FC2 72 -0.305
87 FC2 73 0.183
87 FC2 74 0.671
87 FC2 75 0.671
87 FC2 76 1.160
87 FC2 77 2.136
87 FC2 78 2.625
87 FC2 79 2.625
87 FC2 80 1.160
87 FC2 81 -0.793
87 FC2 82 -3.723
87 FC2 83 -6.653
87 FC2 84 -9.094
87 FC2 85 -10.071
87 FC2 86 -11.047
87 FC2 87 -11.047
87 FC2 88 -11.536
87 FC2 89 -12.024
87 FC2 90 -12.024
87 FC2 91 -12.024
87 FC2 92 -11.536
87 FC2 93 -10.559
87 FC2 94 -9.094
87 FC2 95 -7.629
87 FC2 96 -6.165
87 FC2 97 -4.700
87 FC2 98 -3.723
87 FC2 99 -2.747
87 FC2 100 -1.770
87 FC2 101 -0.793
87 FC2 102 -0.305
87 FC2 103 -0.793
87 FC2 104 -2.258
87 FC2 105 -3.723
87 FC2 106 -5.188
87 FC2 107 -6.653
87 FC2 108 -7.141
87 FC2 109 -7.629
87 FC2 110 -8.118
87 FC2 111 -8.118
87 FC2 112 -8.606
87 FC2 113 -8.606
87 FC2 114 -8.118
87 FC2 115 -7.141
87 FC2 116 -6.653
87 FC2 117 -5.676
87 FC2 118 -4.211
87 FC2 119 -3.235
87 FC2 120 -1.770
87 FC2 121 0.183
87 FC2 122 1.648
87 FC2 123 2.625
87 FC2 124 3.113
87 FC2 125 3.113
87 FC2 126 2.625
87 FC2 127 2.625
87 FC2 128 2.625
87 FC2 129 3.113
87 FC2 130 3.601
87 FC2 131 2.625
87 FC2 132 1.648
87 FC2 133 -0.305
87 FC2 134 -1.770
87 FC2 135 -3.235
87 FC2 136 -4.211
87 FC2 137 -5.676
87 FC2 138 -6.653
87 FC2 139 -7.629
87 FC2 140 -7.629
87 FC2 141 -7.141
87 FC2 142 -6.165
87 FC2 143 -4.700
87 FC2 144 -2.747
87 FC2 145 -1.282
87 FC2 146 0.671
87 FC2 147 2.136
87 FC2 148 3.601
87 FC2 149 5.066
87 FC2 150 6.042
87 FC2 151 6.042
87 FC2 152 6.042
87 FC2 153 5.066
87 FC2 154 4.089
87 FC2 155 3.113
87 FC2 156 1.648
87 FC2 157 -0.305
87 FC2 158 -1.770
87 FC2 159 -3.235
87 FC2 160 -4.211
87 FC2 161 -4.211
87 FC2 162 -3.723
87 FC2 163 -3.235
87 FC2 164 -3.235
87 FC2 165 -3.723
87 FC2 166 -4.700
87 FC2 167 -5.676
87 FC2 168 -6.165
87 FC2 169 -6.653
87 FC2 170 -6.653
87 FC2 171 -6.653
87 FC2 172 -5.676
87 FC2 173 -4.211
87 FC2 174 -2.258
87 FC2 175 -0.793
87 FC2 176 -0.305
87 FC2 177 -0.793
87 FC2 178 -1.282
87 FC2 179 -1.282
87 FC2 180 -0.305
87 FC2 181 0.671
87 FC2 182 1.648
87 FC2 183 1.160
87 FC2 184 -0.305
87 FC2 185 -1.770
87 FC2 186 -2.747
87 FC2 187 -2.747
87 FC2 188 -2.258
87 FC2 189 -0.793
87 FC2 190 0.671
87 FC2 191 1.648
87 FC2 192 1.648
87 FC2 193 1.648
87 FC2 194 0.671
87 FC2 195 -0.793
87 FC2 196 -2.258
87 FC2 197 -3.235
87 FC2 198 -3.235
87 FC2 199 -1.770
87 FC2 200 0.183
87 FC2 201 1.648
87 FC2 202 3.113
87 FC2 203 3.601
87 FC2 204 3.113
87 FC2 205 1.648
87 FC2 206 0.671
87 FC2 207 -1.282
87 FC2 208 -3.235
87 FC2 209 -5.676
87 FC2 210 -7.141
87 FC2 211 -7.629
87 FC2 212 -7.141
87 FC2 213 -4.700
87 FC2 214 -2.258
87 FC2 215 0.671
87 FC2 216 2.625
87 FC2 217 3.601
87 FC2 218 3.113
87 FC2 219 2.625
87 FC2 220 1.648
87 FC2 221 1.648
87 FC2 222 1.648
87 FC2 223 3.113
87 FC2 224 4.089
87 FC2 225 5.066
87 FC2 226 5.066
87 FC2 227 4.089
87 FC2 228 1.160
87 FC2 229 -1.770
87 FC2 230 -4.700
87 FC2 231 -7.141
87 FC2 232 -8.606
87 FC2 233 -9.583
87 FC2 234 -10.559
87 FC2 235 -11.047
87 FC2 236 -11.047
87 FC2 237 -10.071
87 FC2 238 -8.606
87 FC2 239 -7.141
87 FC2 240 -5.676
87 FC2 241 -4.211
87 FC2 242 -2.258
87 FC2 243 -0.305
87 FC2 244 2.625
87 FC2 245 4.578
87 FC2 246 5.554
87 FC2 247 5.554
87 FC2 248 5.066
87 FC2 249 5.066
87 FC2 250 6.042
87 FC2 251 7.019
87 FC2 252 7.996
87 FC2 253 7.507
87 FC2 254 6.531
87 FC2 255 4.578
# FC1 chan 12
87 FC1 0 1.292
87 FC1 1 -0.173
87 FC1 2 -2.126
87 FC1 3 -4.079
87 FC1 4 -5.544
87 FC1 5 -7.009
87 FC1 6 -8.474
87 FC1 7 -9.450
87 FC1 8 -9.939
87 FC1 9 -9.939
87 FC1 10 -9.450
87 FC1 11 -7.497
87 FC1 12 -5.056
87 FC1 13 -2.614
87 FC1 14 -0.661
87 FC1 15 0.804
87 FC1 16 0.804
87 FC1 17 0.804
87 FC1 18 0.804
87 FC1 19 1.292
87 FC1 20 2.757
87 FC1 21 3.733
87 FC1 22 4.222
87 FC1 23 3.733
87 FC1 24 2.268
87 FC1 25 0.315
87 FC1 26 -0.661
87 FC1 27 -1.638
87 FC1 28 -2.126
87 FC1 29 -3.103
87 FC1 30 -4.079
87 FC1 31 -4.567
87 FC1 32 -4.079
87 FC1 33 -4.079
87 FC1 34 -3.591
87 FC1 35 -4.079
87 FC1 36 -5.544
87 FC1 37 -6.521
87 FC1 38 -7.009
87 FC1 39 -7.009
87 FC1 40 -6.032
87 FC1 41 -4.567
87 FC1 42 -2.614
87 FC1 43 -1.149
87 FC1 44 0.315
87 FC1 45 2.268
87 FC1 46 3.733
87 FC1 47 5.198
87 FC1 48 5.198
87 FC1 49 5.198
87 FC1 50 4.710
87 FC1 51 3.733
87 FC1 52 2.757
87 FC1 53 1.780
87 FC1 54 0.315
87 FC1 55 -1.638
87 FC1 56 -3.103
87 FC1 57 -4.567
87 FC1 58 -6.032
87 FC1 59 -7.497
87 FC1 60 -8.962
87 FC1 61 -9.939
87 FC1 62 -10.427
87 FC1 63 -9.450
87 FC1 64 -8.962
87 FC1 65 -7.497
87 FC1 66 -7.009
87 FC1 67 -6.521
87 FC1 68 -7.009
87 FC1 69 -7.009
87 FC1 70 -6.521
87 FC1 71 -6.032
87 FC1 72 -5.056
87 FC1 73 -4.567
87 FC1 74 -3.103
87 FC1 75 -2.126
87 FC1 76 -1.638
87 FC1 77 -1.149
87 FC1 78 -1.149
87 FC1 79 -2.126
87 FC1 80 -3.103
87 FC1 81 -5.544
87 FC1 82 -7.985
87 FC1 83 -10.427
87 FC1 84 -12.380
87 FC1 85 -13.357
87 FC1 86 -13.357
87 FC1 87 -12.380
87 FC1 88 -12.380
87 FC1 89 -12.380
87 FC1 90 -12.868
87 FC1 91 -12.380
87 FC1 92 -11.403
87 FC1 93 -9.939
87 FC1 94 -8.474
87 FC1 95 -7.009
87 FC1 96 -5.544
87 FC1 97 -4.567
87 FC1 98 -3.103
87 FC1 99 -1.638
87 FC1 100 -0.661
87 FC1 101 -0.661
87 FC1 102 -1.638
87 FC1 103 -3.591
87 FC1 104 -6.032
87 FC1 105 -7.985
87 FC1 106 -9.450
87 FC1 107 -10.915
87 FC1 108 -11.403
87 FC1 109 -12.868
87 FC1 110 -13.845
87 FC1 111 -14.821
87 FC1 112 -15.310
87 FC1 113 -14.333
87 FC1 114 -12.868
87 FC1 115 -10.915
87 FC1 116 -8.962
87 FC1 117 -7.009
87 FC1 118 -5.544
87 FC1 119 -3.591
87 FC1 120 -2.126
87 FC1 121 -1.149
87 FC1 122 -0.661
87 FC1 123 -0.173
87 FC1 124 -0.173
87 FC1 125 -0.173
87 FC1 126 -0.661
87 FC1 127 -0.661
87 FC1 128 -1.638
87 FC1 129 -2.614
87 FC1 130 -4.079
87 FC1 131 -5.544
87 FC1 132 -7.497
87 FC1 133 -8.962
87 FC1 134 -10.427
87 FC1 135 -11.403
87 FC1 136 -11.892
87 FC1 137 -11.892
87 FC1 138 -12.380
87 FC1 139 -12.380
87 FC1 140 -12.380
87 FC1 141 -11.403
87 FC1 142 -9.939
87 FC1 143 -7.497
87 FC1 144 -4.567
87 FC1 145 -1.638
87 FC1 146 0.804
87 FC1 147 3.245
87 FC1 148 4.710
87 FC1 149 6.175
87 FC1 150 6.663
87 FC1 151 6.175
87 FC1 152 4.710
87 FC1 153 2.268
87 FC1 154 -0.661
87 FC1 155 -3.103
87 FC1 156 -5.056
87 FC1 157 -6.521
87 FC1 158 -7.985
87 FC1 159 -8.474
87 FC1 160 -7.985
87 FC1 161 -6.521
87 FC1 162 -5.056
87 FC1 163 -3.591
87 FC1 164 -3.103
87 FC1 165 -4.079
87 FC1 166 -4.567
87 FC1 167 -5.056
87 FC1 168 -5.056
87 FC1 169 -4.079
87 FC1 170 -3.103
87 FC1 171 -2.126
87 FC1 172 -0.661
87 FC1 173 1.292
87 FC1 174 3.733
87 FC1 175 5.686
87 FC1 176 7.151
87 FC1 177 6.663
87 FC1 178 5.686
87 FC1 179 4.710
87 FC1 180 3.733
87 FC1 181 3.245
87 FC1 182 2.268
87 FC1 183 0.315
87 FC1 184 -2.126
87 FC1 185 -4.079
87 FC1 186 -5.056
87 FC1 187 -4.567
87 FC1 188 -2.614
87 FC1 189 -0.173
87 FC1 190 1.780
87 FC1 191 3.245
87 FC1 192 4.222
87 FC1 193 4.710
87 FC1 194 5.686
87 FC1 195 6.175
87 FC1 196 6.175
87 FC1 197 6.175
87 FC1 198 6.663
87 FC1 199 7.640
87 FC1 200 9.104
87 FC1 201 10.081
87 FC1 202 10.081
87 FC1 203 7.640
87 FC1 204 4.710
87 FC1 205 0.804
87 FC1 206 -3.103
87 FC1 207 -6.521
87 FC1 208 -9.450
87 FC1 209 -11.892
87 FC1 210 -13.357
87 FC1 211 -13.357
87 FC1 212 -12.380
87 FC1 213 -9.450
87 FC1 214 -6.521
87 FC1 215 -3.103
87 FC1 216 -1.149
87 FC1 217 0.315
87 FC1 218 1.292
87 FC1 219 1.292
87 FC1 220 1.780
87 FC1 221 1.780
87 FC1 222 2.757
87 FC1 223 4.710
87 FC1 224 7.640
87 FC1 225 10.081
87 FC1 226 11.546
87 FC1 227 12.522
87 FC1 228 11.546
87 FC1 229 10.569
87 FC1 230 9.104
87 FC1 231 6.663
87 FC1 232 3.733
87 FC1 233 0.804
87 FC1 234 -2.614
87 FC1 235 -5.056
87 FC1 236 -6.521
87 FC1 237 -7.497
87 FC1 238 -8.474
87 FC1 239 -8.474
87 FC1 240 -8.474
87 FC1 241 -7.497
87 FC1 242 -6.032
87 FC1 243 -3.591
87 FC1 244 -1.638
87 FC1 245 -0.173
87 FC1 246 1.292
87 FC1 247 2.268
87 FC1 248 3.245
87 FC1 249 4.222
87 FC1 250 4.710
87 FC1 251 5.686
87 FC1 252 6.663
87 FC1 253 8.128
87 FC1 254 9.593
87 FC1 255 10.569
# T8 chan 13
87 T8 0 -13.519
87 T8 1 -15.961
87 T8 2 -15.472
87 T8 3 -12.054
87 T8 4 -7.660
87 T8 5 -5.219
87 T8 6 -4.730
87 T8 7 -6.195
87 T8 8 -7.172
87 T8 9 -6.195
87 T8 10 -3.265
87 T8 11 -0.336
87 T8 12 1.129
87 T8 13 -0.336
87 T8 14 -3.754
87 T8 15 -9.125
87 T8 16 -14.008
87 T8 17 -16.937
87 T8 18 -18.402
87 T8 19 -16.937
87 T8 20 -13.519
87 T8 21 -8.148
87 T8 22 -1.801
87 T8 23 5.035
87 T8 24 10.895
87 T8 25 14.801
87 T8 26 16.266
87 T8 27 15.289
87 T8 28 11.383
87 T8 29 5.524
87 T8 30 -0.824
87 T8 31 -6.195
87 T8 32 -9.613
87 T8 33 -11.566
87 T8 34 -12.054
87 T8 35 -12.054
87 T8 36 -11.566
87 T8 37 -11.078
87 T8 38 -11.078
87 T8 39 -10.101
87 T8 40 -8.636
87 T8 41 -6.195
87 T8 42 -3.754
87 T8 43 -0.824
87 T8 44 1.129
87 T8 45 2.106
87 T8 46 2.594
87 T8 47 3.082
87 T8 48 4.059
87 T8 49 5.524
87 T8 50 5.524
87 T8 51 5.035
87 T8 52 2.594
87 T8 53 -0.336
87 T8 54 -2.777
87 T8 55 -5.707
87 T8 56 -7.660
87 T8 57 -8.636
87 T8 58 -10.101
87 T8 59 -9.613
87 T8 60 -8.148
87 T8 61 -5.707
87 T8 62 -2.777
87 T8 63 -0.824
87 T8 64 0.153
87 T8 65 -0.336
87 T8 66 -0.824
87 T8 67 -1.801
87 T8 68 -1.312
87 T8 69 0.153
87 T8 70 2.594
87 T8 71 6.989
87 T8 72 11.383
87 T8 73 16.266
87 T8 74 21.637
87 T8 75 25.543
87 T8 76 28.473
87 T8 77 28.473
87 T8 78 26.520
87 T8 79 21.637
87 T8 80 13.824
87 T8 81 5.035
87 T8 82 -5.219
87 T8 83 -14.008
87 T8 84 -19.379
87 T8 85 -20.844
87 T8 86 -19.867
87 T8 87 -16.449
87 T8 88 -13.519
87 T8 89 -10.590
87 T8 90 -7.660
87 T8 91 -4.242
87 T8 92 -1.312
87 T8 93 1.129
87 T8 94 2.106
87 T8 95 1.129
87 T8 96 0.153
87 T8 97 0.641
87 T8 98 2.594
87 T8 99 5.035
87 T8 100 6.500
87 T8 101 5.035
87 T8 102 1.617
87 T8 103 -2.289
87 T8 104 -5.707
87 T8 105 -7.660
87 T8 106 -9.613
87 T8 107 -12.054
87 T8 108 -15.472
87 T8 109 -18.890
87 T8 110 -21.332
87 T8 111 -22.308
87 T8 112 -22.308
87 T8 113 -20.844
87 T8 114 -18.890
87 T8 115 -16.449
87 T8 116 -13.519
87 T8 117 -10.590
87 T8 118 -7.660
87 T8 119 -4.730
87 T8 120 -2.289
87 T8 121 0.641
87 T8 122 4.059
87 T8 123 6.500
87 T8 124 8.453
87 T8 125 9.918
87 T8 126 11.383
87 T8 127 13.336
87 T8 128 15.289
87 T8 129 16.754
87 T8 130 16.754
87 T8 131 14.801
87 T8 132 10.406
87 T8 133 5.524
87 T8 134 1.129
87 T8 135 -2.777
87 T8 136 -6.683
87 T8 137 -9.613
87 T8 138 -12.054
87 T8 139 -14.496
87 T8 140 -15.472
87 T8 141 -15.472
87 T8 142 -14.008
87 T8 143 -11.566
87 T8 144 -8.636
87 T8 145 -4.730
87 T8 146 0.153
87 T8 147 5.035
87 T8 148 10.406
87 T8 149 14.313
87 T8 150 16.754
87 T8 151 17.242
87 T8 152 16.266
87 T8 153 15.289
87 T8 154 13.336
87 T8 155 11.383
87 T8 156 8.942
87 T8 157 6.012
87 T8 158 2.106
87 T8 159 -1.312
87 T8 160 -5.707
87 T8 161 -8.636
87 T8 162 -11.566
87 T8 163 -14.496
87 T8 164 -16.449
87 T8 165 -17.426
87 T8 166 -17.426
87 T8 167 -15.472
87 T8 168 -12.054
87 T8 169 -8.148
87 T8 170 -2.777
87 T8 171 2.594
87 T8 172 8.453
87 T8 173 12.848
87 T8 174 15.778
87 T8 175 16.266
87 T8 176 13.824
87 T8 177 9.430
87 T8 178 5.524
87 T8 179 3.571
87 T8 180 4.547
87 T8 181 6.989
87 T8 182 9.430
87 T8 183 9.918
87 T8 184 8.942
87 T8 185 6.012
87 T8 186 3.082
87 T8 187 1.129
87 T8 188 -0.336
87 T8 189 -0.336
87 T8 190 0.641
87 T8 191 1.129
87 T8 192 1.129
87 T8 193 0.641
87 T8 194 -0.824
87 T8 195 -2.777
87 T8 196 -3.265
87 T8 197 -3.265
87 T8 198 -1.801
87 T8 199 0.153
87 T8 200 2.594
87 T8 201 5.035
87 T8 202 6.989
87 T8 203 8.453
87 T8 204 8.942
87 T8 205 8.453
87 T8 206 7.477
87 T8 207 6.012
87 T8 208 4.059
87 T8 209 2.594
87 T8 210 1.129
87 T8 211 0.153
87 T8 212 -0.824
87 T8 213 -1.801
87 T8 214 -1.801
87 T8 215 -2.777
87 T8 216 -3.754
87 T8 217 -6.195
87 T8 218 -8.636
87 T8 219 -11.078
87 T8 220 -12.054
87 T8 221 -11.078
87 T8 222 -8.148
87 T8 223 -3.754
87 T8 224 0.641
87 T8 225 4.547
87 T8 226 6.012
87 T8 227 5.524
87 T8 228 2.106
87 T8 229 -1.801
87 T8 230 -5.219
87 T8 231 -7.172
87 T8 232 -7.172
87 T8 233 -6.195
87 T8 234 -5.707
87 T8 235 -6.195
87 T8 236 -7.660
87 T8 237 -9.125
87 T8 238 -10.101
87 T8 239 -11.078
87 T8 240 -11.078
87 T8 241 -11.078
87 T8 242 -10.590
87 T8 243 -10.590
87 T8 244 -10.101
87 T8 245 -10.590
87 T8 246 -11.566
87 T8 247 -13.519
87 T8 248 -14.496
87 T8 249 -13.519
87 T8 250 -10.590
87 T8 251 -6.195
87 T8 252 -2.289
87 T8 253 1.129
87 T8 254 3.571
87 T8 255 4.547
# T7 chan 14
87 T7 0 -3.459
87 T7 1 -6.877
87 T7 2 -10.295
87 T7 3 -12.736
87 T7 4 -14.201
87 T7 5 -14.689
87 T7 6 -15.177
87 T7 7 -15.666
87 T7 8 -15.666
87 T7 9 -14.689
87 T7 10 -12.736
87 T7 11 -10.295
87 T7 12 -7.365
87 T7 13 -5.412
87 T7 14 -5.900
87 T7 15 -8.830
87 T7 16 -14.201
87 T7 17 -20.549
87 T7 18 -25.920
87 T7 19 -28.361
87 T7 20 -26.896
87 T7 21 -22.502
87 T7 22 -17.131
87 T7 23 -11.759
87 T7 24 -8.830
87 T7 25 -7.853
87 T7 26 -8.830
87 T7 27 -10.783
87 T7 28 -11.759
87 T7 29 -11.271
87 T7 30 -9.806
87 T7 31 -8.341
87 T7 32 -7.365
87 T7 33 -7.365
87 T7 34 -8.830
87 T7 35 -11.271
87 T7 36 -13.713
87 T7 37 -16.154
87 T7 38 -18.595
87 T7 39 -21.037
87 T7 40 -22.013
87 T7 41 -21.525
87 T7 42 -20.060
87 T7 43 -17.619
87 T7 44 -16.154
87 T7 45 -16.154
87 T7 46 -16.154
87 T7 47 -16.154
87 T7 48 -14.201
87 T7 49 -11.271
87 T7 50 -8.341
87 T7 51 -7.365
87 T7 52 -8.830
87 T7 53 -12.736
87 T7 54 -18.107
87 T7 55 -22.990
87 T7 56 -27.873
87 T7 57 -31.291
87 T7 58 -33.732
87 T7 59 -34.220
87 T7 60 -34.220
87 T7 61 -31.779
87 T7 62 -28.361
87 T7 63 -24.943
87 T7 64 -21.525
87 T7 65 -19.084
87 T7 66 -18.107
87 T7 67 -17.619
87 T7 68 -18.107
87 T7 69 -19.572
87 T7 70 -20.549
87 T7 71 -20.060
87 T7 72 -18.107
87 T7 73 -14.201
87 T7 74 -9.318
87 T7 75 -4.924
87 T7 76 -2.482
87 T7 77 -1.506
87 T7 78 -2.970
87 T7 79 -5.412
87 T7 80 -10.783
87 T7 81 -18.595
87 T7 82 -27.384
87 T7 83 -35.685
87 T7 84 -41.056
87 T7 85 -42.521
87 T7 86 -39.591
87 T7 87 -34.709
87 T7 88 -29.338
87 T7 89 -24.943
87 T7 90 -21.037
87 T7 91 -17.619
87 T7 92 -14.201
87 T7 93 -10.783
87 T7 94 -7.853
87 T7 95 -6.388
87 T7 96 -5.900
87 T7 97 -4.924
87 T7 98 -3.459
87 T7 99 -2.970
87 T7 100 -4.435
87 T7 101 -9.318
87 T7 102 -16.154
87 T7 103 -23.478
87 T7 104 -29.826
87 T7 105 -34.709
87 T7 106 -38.615
87 T7 107 -43.009
87 T7 108 -46.916
87 T7 109 -50.822
87 T7 110 -52.775
87 T7 111 -52.287
87 T7 112 -50.822
87 T7 113 -48.381
87 T7 114 -45.451
87 T7 115 -42.033
87 T7 116 -38.127
87 T7 117 -34.220
87 T7 118 -30.314
87 T7 119 -27.384
87 T7 120 -25.431
87 T7 121 -23.478
87 T7 122 -21.037
87 T7 123 -17.619
87 T7 124 -14.201
87 T7 125 -12.736
87 T7 126 -12.736
87 T7 127 -14.201
87 T7 128 -16.642
87 T7 129 -20.060
87 T7 130 -23.966
87 T7 131 -28.849
87 T7 132 -34.709
87 T7 133 -40.568
87 T7 134 -44.963
87 T7 135 -47.404
87 T7 136 -47.892
87 T7 137 -46.916
87 T7 138 -46.916
87 T7 139 -47.404
87 T7 140 -48.381
87 T7 141 -47.404
87 T7 142 -43.986
87 T7 143 -38.615
87 T7 144 -31.291
87 T7 145 -23.966
87 T7 146 -17.619
87 T7 147 -12.248
87 T7 148 -7.853
87 T7 149 -4.435
87 T7 150 -2.970
87 T7 151 -3.459
87 T7 152 -5.412
87 T7 153 -9.318
87 T7 154 -13.224
87 T7 155 -17.131
87 T7 156 -20.060
87 T7 157 -22.502
87 T7 158 -24.455
87 T7 159 -25.431
87 T7 160 -26.896
87 T7 161 -27.873
87 T7 162 -29.338
87 T7 163 -30.314
87 T7 164 -31.779
87 T7 165 -32.267
87 T7 166 -30.314
87 T7 167 -26.896
87 T7 168 -21.037
87 T7 169 -14.689
87 T7 170 -8.830
87 T7 171 -3.947
87 T7 172 -0.529
87 T7 173 2.401
87 T7 174 4.354
87 T7 175 4.842
87 T7 176 2.889
87 T7 177 -1.017
87 T7 178 -5.900
87 T7 179 -9.806
87 T7 180 -12.248
87 T7 181 -13.713
87 T7 182 -15.666
87 T7 183 -18.595
87 T7 184 -22.502
87 T7 185 -26.896
87 T7 186 -29.338
87 T7 187 -29.338
87 T7 188 -27.873
87 T7 189 -25.920
87 T7 190 -24.455
87 T7 191 -22.502
87 T7 192 -20.549
87 T7 193 -18.595
87 T7 194 -15.666
87 T7 195 -12.736
87 T7 196 -9.806
87 T7 197 -7.365
87 T7 198 -5.900
87 T7 199 -3.947
87 T7 200 -2.970
87 T7 201 -2.482
87 T7 202 -2.970
87 T7 203 -4.924
87 T7 204 -9.318
87 T7 205 -14.689
87 T7 206 -21.037
87 T7 207 -26.408
87 T7 208 -31.291
87 T7 209 -34.220
87 T7 210 -36.662
87 T7 211 -38.615
87 T7 212 -40.080
87 T7 213 -40.080
87 T7 214 -39.591
87 T7 215 -38.615
87 T7 216 -36.174
87 T7 217 -34.709
87 T7 218 -33.244
87 T7 219 -31.779
87 T7 220 -29.826
87 T7 221 -26.408
87 T7 222 -21.525
87 T7 223 -15.666
87 T7 224 -9.806
87 T7 225 -5.412
87 T7 226 -2.970
87 T7 227 -1.994
87 T7 228 -2.970
87 T7 229 -4.435
87 T7 230 -6.877
87 T7 231 -9.318
87 T7 232 -12.248
87 T7 233 -15.666
87 T7 234 -19.572
87 T7 235 -23.478
87 T7 236 -27.384
87 T7 237 -31.291
87 T7 238 -34.220
87 T7 239 -36.174
87 T7 240 -37.150
87 T7 241 -36.662
87 T7 242 -35.685
87 T7 243 -35.197
87 T7 244 -35.197
87 T7 245 -36.662
87 T7 246 -37.150
87 T7 247 -37.150
87 T7 248 -35.685
87 T7 249 -33.244
87 T7 250 -29.338
87 T7 251 -25.431
87 T7 252 -21.525
87 T7 253 -17.131
87 T7 254 -11.759
87 T7 255 -7.365
# CZ chan 15
87 CZ 0 -20.406
87 CZ 1 -21.383
87 CZ 2 -18.941
87 CZ 3 -14.058
87 CZ 4 -9.664
87 CZ 5 -8.199
87 CZ 6 -11.129
87 CZ 7 -16.012
87 CZ 8 -19.918
87 CZ 9 -20.894
87 CZ 10 -16.988
87 CZ 11 -10.152
87 CZ 12 -3.316
87 CZ 13 0.102
87 CZ 14 0.102
87 CZ 15 -2.828
87 CZ 16 -6.734
87 CZ 17 -10.640
87 CZ 18 -12.105
87 CZ 19 -11.617
87 CZ 20 -9.176
87 CZ 21 -4.781
87 CZ 22 0.102
87 CZ 23 3.520
87 CZ 24 4.985
87 CZ 25 3.031
87 CZ 26 -1.363
87 CZ 27 -7.222
87 CZ 28 -13.082
87 CZ 29 -17.476
87 CZ 30 -19.918
87 CZ 31 -20.894
87 CZ 32 -19.918
87 CZ 33 -17.965
87 CZ 34 -16.012
87 CZ 35 -14.547
87 CZ 36 -15.523
87 CZ 37 -17.965
87 CZ 38 -20.894
87 CZ 39 -23.336
87 CZ 40 -23.336
87 CZ 41 -19.918
87 CZ 42 -15.523
87 CZ 43 -10.152
87 CZ 44 -4.293
87 CZ 45 2.055
87 CZ 46 7.426
87 CZ 47 11.332
87 CZ 48 12.309
87 CZ 49 10.356
87 CZ 50 6.449
87 CZ 51 1.567
87 CZ 52 -2.828
87 CZ 53 -6.734
87 CZ 54 -11.129
87 CZ 55 -15.035
87 CZ 56 -18.941
87 CZ 57 -22.359
87 CZ 58 -23.824
87 CZ 59 -23.336
87 CZ 60 -20.894
87 CZ 61 -16.988
87 CZ 62 -14.058
87 CZ 63 -11.617
87 CZ 64 -10.640
87 CZ 65 -10.640
87 CZ 66 -10.640
87 CZ 67 -10.152
87 CZ 68 -9.664
87 CZ 69 -9.664
87 CZ 70 -11.129
87 CZ 71 -12.594
87 CZ 72 -13.082
87 CZ 73 -10.152
87 CZ 74 -4.781
87 CZ 75 1.567
87 CZ 76 6.938
87 CZ 77 9.867
87 CZ 78 10.356
87 CZ 79 7.914
87 CZ 80 3.031
87 CZ 81 -5.269
87 CZ 82 -15.523
87 CZ 83 -24.801
87 CZ 84 -29.683
87 CZ 85 -30.660
87 CZ 86 -28.707
87 CZ 87 -26.754
87 CZ 88 -26.265
87 CZ 89 -26.754
87 CZ 90 -25.777
87 CZ 91 -22.359
87 CZ 92 -17.476
87 CZ 93 -14.058
87 CZ 94 -15.035
87 CZ 95 -19.918
87 CZ 96 -25.777
87 CZ 97 -28.707
87 CZ 98 -26.754
87 CZ 99 -21.383
87 CZ 100 -17.965
87 CZ 101 -19.918
87 CZ 102 -28.219
87 CZ 103 -39.449
87 CZ 104 -49.215
87 CZ 105 -54.586
87 CZ 106 -54.097
87 CZ 107 -50.680
87 CZ 108 -48.238
87 CZ 109 -49.215
87 CZ 110 -53.609
87 CZ 111 -60.933
87 CZ 112 -66.793
87 CZ 113 -68.258
87 CZ 114 -64.351
87 CZ 115 -55.074
87 CZ 116 -44.820
87 CZ 117 -36.031
87 CZ 118 -30.172
87 CZ 119 -27.730
87 CZ 120 -26.754
87 CZ 121 -26.754
87 CZ 122 -25.289
87 CZ 123 -23.336
87 CZ 124 -20.406
87 CZ 125 -16.988
87 CZ 126 -14.547
87 CZ 127 -13.570
87 CZ 128 -15.523
87 CZ 129 -19.918
87 CZ 130 -25.289
87 CZ 131 -29.195
87 CZ 132 -31.148
87 CZ 133 -31.637
87 CZ 134 -33.590
87 CZ 135 -38.472
87 CZ 136 -45.308
87 CZ 137 -51.656
87 CZ 138 -55.074
87 CZ 139 -53.609
87 CZ 140 -49.215
87 CZ 141 -44.820
87 CZ 142 -41.890
87 CZ 143 -40.914
87 CZ 144 -40.914
87 CZ 145 -39.449
87 CZ 146 -34.566
87 CZ 147 -27.730
87 CZ 148 -19.918
87 CZ 149 -15.035
87 CZ 150 -13.082
87 CZ 151 -15.035
87 CZ 152 -18.941
87 CZ 153 -23.336
87 CZ 154 -26.265
87 CZ 155 -26.754
87 CZ 156 -26.754
87 CZ 157 -26.754
87 CZ 158 -28.219
87 CZ 159 -31.637
87 CZ 160 -36.519
87 CZ 161 -40.426
87 CZ 162 -42.379
87 CZ 163 -42.379
87 CZ 164 -41.890
87 CZ 165 -41.402
87 CZ 166 -40.914
87 CZ 167 -40.426
87 CZ 168 -37.984
87 CZ 169 -34.566
87 CZ 170 -30.660
87 CZ 171 -26.754
87 CZ 172 -21.871
87 CZ 173 -16.012
87 CZ 174 -10.152
87 CZ 175 -7.222
87 CZ 176 -9.664
87 CZ 177 -16.500
87 CZ 178 -24.312
87 CZ 179 -27.242
87 CZ 180 -23.824
87 CZ 181 -16.500
87 CZ 182 -10.640
87 CZ 183 -11.617
87 CZ 184 -18.941
87 CZ 185 -27.730
87 CZ 186 -33.101
87 CZ 187 -33.101
87 CZ 188 -29.683
87 CZ 189 -25.777
87 CZ 190 -24.312
87 CZ 191 -24.312
87 CZ 192 -25.289
87 CZ 193 -25.289
87 CZ 194 -24.801
87 CZ 195 -23.824
87 CZ 196 -22.847
87 CZ 197 -21.383
87 CZ 198 -18.941
87 CZ 199 -16.012
87 CZ 200 -12.105
87 CZ 201 -9.664
87 CZ 202 -9.176
87 CZ 203 -10.640
87 CZ 204 -14.547
87 CZ 205 -20.406
87 CZ 206 -28.219
87 CZ 207 -37.008
87 CZ 208 -44.820
87 CZ 209 -49.215
87 CZ 210 -49.703
87 CZ 211 -46.773
87 CZ 212 -42.867
87 CZ 213 -40.426
87 CZ 214 -41.402
87 CZ 215 -43.355
87 CZ 216 -45.797
87 CZ 217 -45.308
87 CZ 218 -41.890
87 CZ 219 -37.008
87 CZ 220 -31.148
87 CZ 221 -26.265
87 CZ 222 -21.383
87 CZ 223 -16.012
87 CZ 224 -11.129
87 CZ 225 -7.711
87 CZ 226 -7.222
87 CZ 227 -9.664
87 CZ 228 -15.523
87 CZ 229 -21.871
87 CZ 230 -27.242
87 CZ 231 -30.660
87 CZ 232 -32.613
87 CZ 233 -34.078
87 CZ 234 -36.031
87 CZ 235 -39.449
87 CZ 236 -44.820
87 CZ 237 -49.703
87 CZ 238 -52.633
87 CZ 239 -53.121
87 CZ 240 -51.168
87 CZ 241 -47.262
87 CZ 242 -42.867
87 CZ 243 -40.914
87 CZ 244 -40.426
87 CZ 245 -41.402
87 CZ 246 -42.379
87 CZ 247 -41.402
87 CZ 248 -38.472
87 CZ 249 -33.590
87 CZ 250 -28.219
87 CZ 251 -22.847
87 CZ 252 -18.941
87 CZ 253 -16.500
87 CZ 254 -15.523
87 CZ 255 -16.988
# C3 chan 16
87 C3 0 2.391
87 C3 1 2.879
87 C3 2 1.414
87 C3 3 -1.027
87 C3 4 -1.516
87 C3 5 -0.539
87 C3 6 1.414
87 C3 7 2.391
87 C3 8 0.926
87 C3 9 -1.516
87 C3 10 -3.957
87 C3 11 -4.934
87 C3 12 -4.445
87 C3 13 -3.469
87 C3 14 -3.469
87 C3 15 -4.934
87 C3 16 -8.840
87 C3 17 -13.234
87 C3 18 -16.164
87 C3 19 -17.141
87 C3 20 -15.188
87 C3 21 -11.281
87 C3 22 -6.887
87 C3 23 -2.981
87 C3 24 -0.051
87 C3 25 1.902
87 C3 26 2.391
87 C3 27 2.879
87 C3 28 2.879
87 C3 29 2.879
87 C3 30 3.367
87 C3 31 4.344
87 C3 32 6.297
87 C3 33 7.273
87 C3 34 7.273
87 C3 35 5.320
87 C3 36 2.879
87 C3 37 0.926
87 C3 38 -0.539
87 C3 39 -0.539
87 C3 40 -1.027
87 C3 41 -2.004
87 C3 42 -3.469
87 C3 43 -5.422
87 C3 44 -6.887
87 C3 45 -7.375
87 C3 46 -7.375
87 C3 47 -7.863
87 C3 48 -7.863
87 C3 49 -7.375
87 C3 50 -6.399
87 C3 51 -4.934
87 C3 52 -3.469
87 C3 53 -2.981
87 C3 54 -2.981
87 C3 55 -4.445
87 C3 56 -5.422
87 C3 57 -6.887
87 C3 58 -7.863
87 C3 59 -9.328
87 C3 60 -9.328
87 C3 61 -8.352
87 C3 62 -5.910
87 C3 63 -3.469
87 C3 64 -2.492
87 C3 65 -1.516
87 C3 66 -1.516
87 C3 67 -1.516
87 C3 68 -1.516
87 C3 69 -1.516
87 C3 70 -1.516
87 C3 71 -1.027
87 C3 72 0.437
87 C3 73 2.391
87 C3 74 5.320
87 C3 75 7.762
87 C3 76 8.738
87 C3 77 8.250
87 C3 78 6.785
87 C3 79 4.344
87 C3 80 1.902
87 C3 81 -1.027
87 C3 82 -4.934
87 C3 83 -8.840
87 C3 84 -12.258
87 C3 85 -13.234
87 C3 86 -11.770
87 C3 87 -8.352
87 C3 88 -4.445
87 C3 89 -1.027
87 C3 90 1.414
87 C3 91 3.367
87 C3 92 5.320
87 C3 93 7.762
87 C3 94 9.226
87 C3 95 9.226
87 C3 96 8.738
87 C3 97 7.762
87 C3 98 7.762
87 C3 99 8.738
87 C3 100 9.715
87 C3 101 9.715
87 C3 102 7.273
87 C3 103 3.855
87 C3 104 0.437
87 C3 105 -2.004
87 C3 106 -2.981
87 C3 107 -4.445
87 C3 108 -5.910
87 C3 109 -9.328
87 C3 110 -12.258
87 C3 111 -13.723
87 C3 112 -13.723
87 C3 113 -12.258
87 C3 114 -10.305
87 C3 115 -7.863
87 C3 116 -6.399
87 C3 117 -3.957
87 C3 118 -1.516
87 C3 119 1.414
87 C3 120 3.367
87 C3 121 3.855
87 C3 122 3.367
87 C3 123 3.367
87 C3 124 3.855
87 C3 125 5.320
87 C3 126 6.785
87 C3 127 7.273
87 C3 128 6.297
87 C3 129 3.855
87 C3 130 1.414
87 C3 131 -1.516
87 C3 132 -4.445
87 C3 133 -6.887
87 C3 134 -8.840
87 C3 135 -8.840
87 C3 136 -8.352
87 C3 137 -6.887
87 C3 138 -6.399
87 C3 139 -6.887
87 C3 140 -8.352
87 C3 141 -8.840
87 C3 142 -7.863
87 C3 143 -4.934
87 C3 144 -1.027
87 C3 145 2.879
87 C3 146 6.297
87 C3 147 8.250
87 C3 148 10.203
87 C3 149 13.133
87 C3 150 15.086
87 C3 151 16.062
87 C3 152 14.598
87 C3 153 12.156
87 C3 154 9.226
87 C3 155 6.297
87 C3 156 4.832
87 C3 157 3.367
87 C3 158 1.414
87 C3 159 0.437
87 C3 160 -1.027
87 C3 161 -1.027
87 C3 162 -0.539
87 C3 163 -0.539
87 C3 164 -0.539
87 C3 165 -1.027
87 C3 166 -1.027
87 C3 167 0.926
87 C3 168 3.855
87 C3 169 7.762
87 C3 170 11.180
87 C3 171 13.133
87 C3 172 14.109
87 C3 173 14.598
87 C3 174 16.062
87 C3 175 17.527
87 C3 176 18.504
87 C3 177 18.504
87 C3 178 16.551
87 C3 179 14.109
87 C3 180 11.668
87 C3 181 10.203
87 C3 182 8.250
87 C3 183 5.809
87 C3 184 2.391
87 C3 185 -1.027
87 C3 186 -3.469
87 C3 187 -4.445
87 C3 188 -3.469
87 C3 189 -2.004
87 C3 190 -0.539
87 C3 191 0.926
87 C3 192 2.391
87 C3 193 3.367
87 C3 194 4.344
87 C3 195 5.809
87 C3 196 7.762
87 C3 197 9.715
87 C3 198 11.668
87 C3 199 13.621
87 C3 200 14.598
87 C3 201 14.109
87 C3 202 12.644
87 C3 203 10.203
87 C3 204 7.762
87 C3 205 5.320
87 C3 206 2.879
87 C3 207 0.437
87 C3 208 -2.004
87 C3 209 -3.957
87 C3 210 -4.445
87 C3 211 -4.934
87 C3 212 -5.422
87 C3 213 -6.887
87 C3 214 -8.840
87 C3 215 -9.816
87 C3 216 -9.816
87 C3 217 -8.840
87 C3 218 -7.375
87 C3 219 -6.887
87 C3 220 -7.375
87 C3 221 -7.863
87 C3 222 -6.887
87 C3 223 -3.957
87 C3 224 -0.051
87 C3 225 3.855
87 C3 226 5.809
87 C3 227 7.273
87 C3 228 8.250
87 C3 229 9.226
87 C3 230 10.691
87 C3 231 11.668
87 C3 232 10.691
87 C3 233 9.226
87 C3 234 6.785
87 C3 235 4.344
87 C3 236 1.902
87 C3 237 -0.051
87 C3 238 -2.492
87 C3 239 -5.422
87 C3 240 -7.375
87 C3 241 -8.352
87 C3 242 -8.840
87 C3 243 -9.816
87 C3 244 -11.281
87 C3 245 -13.723
87 C3 246 -15.676
87 C3 247 -16.652
87 C3 248 -16.164
87 C3 249 -14.699
87 C3 250 -12.258
87 C3 251 -10.305
87 C3 252 -6.399
87 C3 253 -2.004
87 C3 254 3.855
87 C3 255 9.226
# C4 chan 17
87 C4 0 -4.944
87 C4 1 -4.944
87 C4 2 -4.456
87 C4 3 -2.991
87 C4 4 -1.038
87 C4 5 -0.061
87 C4 6 -0.061
87 C4 7 -1.038
87 C4 8 -1.038
87 C4 9 -1.038
87 C4 10 -0.549
87 C4 11 -0.549
87 C4 12 -1.038
87 C4 13 -2.502
87 C4 14 -4.944
87 C4 15 -7.874
87 C4 16 -9.827
87 C4 17 -11.292
87 C4 18 -11.780
87 C4 19 -11.292
87 C4 20 -9.827
87 C4 21 -6.897
87 C4 22 -2.991
87 C4 23 2.380
87 C4 24 8.240
87 C4 25 12.634
87 C4 26 15.076
87 C4 27 14.587
87 C4 28 11.658
87 C4 29 7.751
87 C4 30 3.845
87 C4 31 0.427
87 C4 32 -1.526
87 C4 33 -2.991
87 C4 34 -3.967
87 C4 35 -4.456
87 C4 36 -5.432
87 C4 37 -5.920
87 C4 38 -5.920
87 C4 39 -5.920
87 C4 40 -5.432
87 C4 41 -4.456
87 C4 42 -2.991
87 C4 43 -2.014
87 C4 44 -2.014
87 C4 45 -2.014
87 C4 46 -2.014
87 C4 47 -2.014
87 C4 48 -1.038
87 C4 49 0.427
87 C4 50 1.892
87 C4 51 2.869
87 C4 52 3.357
87 C4 53 3.845
87 C4 54 3.845
87 C4 55 3.845
87 C4 56 3.357
87 C4 57 2.869
87 C4 58 1.892
87 C4 59 1.404
87 C4 60 1.404
87 C4 61 1.404
87 C4 62 1.892
87 C4 63 2.869
87 C4 64 2.869
87 C4 65 2.869
87 C4 66 2.380
87 C4 67 2.380
87 C4 68 1.892
87 C4 69 1.892
87 C4 70 2.869
87 C4 71 4.333
87 C4 72 5.798
87 C4 73 7.751
87 C4 74 9.705
87 C4 75 11.169
87 C4 76 11.658
87 C4 77 12.634
87 C4 78 12.146
87 C4 79 11.169
87 C4 80 8.728
87 C4 81 4.822
87 C4 82 0.427
87 C4 83 -3.967
87 C4 84 -6.897
87 C4 85 -7.874
87 C4 86 -7.385
87 C4 87 -5.920
87 C4 88 -3.967
87 C4 89 -2.014
87 C4 90 -0.549
87 C4 91 0.427
87 C4 92 0.916
87 C4 93 0.916
87 C4 94 0.916
87 C4 95 0.427
87 C4 96 -0.061
87 C4 97 -0.061
87 C4 98 0.916
87 C4 99 2.869
87 C4 100 4.333
87 C4 101 4.822
87 C4 102 4.333
87 C4 103 3.357
87 C4 104 2.869
87 C4 105 1.892
87 C4 106 1.404
87 C4 107 0.427
87 C4 108 -1.038
87 C4 109 -2.502
87 C4 110 -3.967
87 C4 111 -3.967
87 C4 112 -4.456
87 C4 113 -3.967
87 C4 114 -3.967
87 C4 115 -3.967
87 C4 116 -3.479
87 C4 117 -2.502
87 C4 118 -1.038
87 C4 119 0.916
87 C4 120 2.380
87 C4 121 3.845
87 C4 122 4.822
87 C4 123 5.798
87 C4 124 6.287
87 C4 125 7.263
87 C4 126 8.240
87 C4 127 10.193
87 C4 128 11.658
87 C4 129 13.611
87 C4 130 14.099
87 C4 131 13.123
87 C4 132 10.681
87 C4 133 8.240
87 C4 134 5.798
87 C4 135 3.845
87 C4 136 1.404
87 C4 137 -0.549
87 C4 138 -2.991
87 C4 139 -4.456
87 C4 140 -5.432
87 C4 141 -5.920
87 C4 142 -4.944
87 C4 143 -3.967
87 C4 144 -2.014
87 C4 145 -0.061
87 C4 146 1.892
87 C4 147 4.333
87 C4 148 6.775
87 C4 149 8.240
87 C4 150 9.216
87 C4 151 10.681
87 C4 152 10.681
87 C4 153 10.681
87 C4 154 10.681
87 C4 155 9.705
87 C4 156 9.216
87 C4 157 8.240
87 C4 158 7.263
87 C4 159 5.310
87 C4 160 2.380
87 C4 161 -1.038
87 C4 162 -3.967
87 C4 163 -6.409
87 C4 164 -7.385
87 C4 165 -7.385
87 C4 166 -6.897
87 C4 167 -5.920
87 C4 168 -4.944
87 C4 169 -3.479
87 C4 170 -2.014
87 C4 171 0.427
87 C4 172 2.869
87 C4 173 4.333
87 C4 174 5.310
87 C4 175 4.822
87 C4 176 2.869
87 C4 177 1.404
87 C4 178 -0.061
87 C4 179 -0.549
87 C4 180 0.427
87 C4 181 2.380
87 C4 182 4.822
87 C4 183 6.287
87 C4 184 7.751
87 C4 185 7.751
87 C4 186 6.775
87 C4 187 4.822
87 C4 188 3.357
87 C4 189 2.869
87 C4 190 2.380
87 C4 191 1.892
87 C4 192 0.916
87 C4 193 -1.038
87 C4 194 -3.479
87 C4 195 -5.920
87 C4 196 -7.874
87 C4 197 -8.850
87 C4 198 -8.850
87 C4 199 -8.850
87 C4 200 -7.385
87 C4 201 -5.432
87 C4 202 -2.014
87 C4 203 1.404
87 C4 204 4.822
87 C4 205 7.263
87 C4 206 8.728
87 C4 207 9.216
87 C4 208 9.216
87 C4 209 8.728
87 C4 210 8.240
87 C4 211 6.775
87 C4 212 5.798
87 C4 213 5.310
87 C4 214 5.310
87 C4 215 5.310
87 C4 216 3.845
87 C4 217 1.404
87 C4 218 -1.526
87 C4 219 -4.944
87 C4 220 -7.874
87 C4 221 -9.338
87 C4 222 -9.827
87 C4 223 -9.338
87 C4 224 -8.850
87 C4 225 -7.385
87 C4 226 -7.385
87 C4 227 -7.874
87 C4 228 -9.827
87 C4 229 -12.756
87 C4 230 -14.709
87 C4 231 -14.221
87 C4 232 -12.268
87 C4 233 -9.827
87 C4 234 -6.897
87 C4 235 -4.944
87 C4 236 -2.991
87 C4 237 -1.526
87 C4 238 -0.061
87 C4 239 0.427
87 C4 240 -0.061
87 C4 241 -0.549
87 C4 242 -0.549
87 C4 243 -0.549
87 C4 244 -0.061
87 C4 245 -0.549
87 C4 246 -2.502
87 C4 247 -4.456
87 C4 248 -5.920
87 C4 249 -5.432
87 C4 250 -3.479
87 C4 251 -0.549
87 C4 252 0.916
87 C4 253 1.404
87 C4 254 -0.061
87 C4 255 -1.526
# CP5 chan 18
87 CP5 0 2.004
87 CP5 1 3.469
87 CP5 2 4.934
87 CP5 3 5.422
87 CP5 4 5.910
87 CP5 5 6.399
87 CP5 6 6.887
87 CP5 7 6.399
87 CP5 8 5.422
87 CP5 9 3.957
87 CP5 10 2.981
87 CP5 11 2.981
87 CP5 12 3.469
87 CP5 13 2.004
87 CP5 14 -1.902
87 CP5 15 -9.715
87 CP5 16 -19.969
87 CP5 17 -29.734
87 CP5 18 -36.570
87 CP5 19 -39.012
87 CP5 20 -37.059
87 CP5 21 -30.711
87 CP5 22 -22.898
87 CP5 23 -14.598
87 CP5 24 -6.785
87 CP5 25 0.051
87 CP5 26 4.445
87 CP5 27 7.863
87 CP5 28 9.816
87 CP5 29 11.770
87 CP5 30 13.723
87 CP5 31 15.188
87 CP5 32 16.164
87 CP5 33 15.676
87 CP5 34 14.211
87 CP5 35 11.770
87 CP5 36 9.328
87 CP5 37 6.887
87 CP5 38 4.445
87 CP5 39 2.004
87 CP5 40 0.051
87 CP5 41 -1.414
87 CP5 42 -3.367
87 CP5 43 -5.809
87 CP5 44 -9.226
87 CP5 45 -14.109
87 CP5 46 -18.504
87 CP5 47 -21.434
87 CP5 48 -21.922
87 CP5 49 -19.969
87 CP5 50 -16.551
87 CP5 51 -13.621
87 CP5 52 -12.644
87 CP5 53 -12.644
87 CP5 54 -14.109
87 CP5 55 -15.086
87 CP5 56 -16.551
87 CP5 57 -17.039
87 CP5 58 -16.551
87 CP5 59 -15.574
87 CP5 60 -14.109
87 CP5 61 -11.180
87 CP5 62 -8.250
87 CP5 63 -4.832
87 CP5 64 -1.414
87 CP5 65 2.004
87 CP5 66 4.445
87 CP5 67 5.422
87 CP5 68 4.934
87 CP5 69 3.957
87 CP5 70 3.957
87 CP5 71 4.934
87 CP5 72 7.375
87 CP5 73 10.793
87 CP5 74 13.723
87 CP5 75 15.676
87 CP5 76 17.141
87 CP5 77 17.141
87 CP5 78 16.164
87 CP5 79 13.234
87 CP5 80 7.863
87 CP5 81 1.027
87 CP5 82 -7.273
87 CP5 83 -14.109
87 CP5 84 -18.016
87 CP5 85 -18.016
87 CP5 86 -15.086
87 CP5 87 -10.203
87 CP5 88 -5.320
87 CP5 89 0.051
87 CP5 90 4.445
87 CP5 91 8.840
87 CP5 92 12.258
87 CP5 93 15.188
87 CP5 94 16.652
87 CP5 95 17.629
87 CP5 96 18.117
87 CP5 97 19.582
87 CP5 98 21.047
87 CP5 99 21.535
87 CP5 100 20.070
87 CP5 101 16.164
87 CP5 102 11.281
87 CP5 103 6.399
87 CP5 104 2.981
87 CP5 105 0.051
87 CP5 106 -2.391
87 CP5 107 -5.809
87 CP5 108 -9.715
87 CP5 109 -13.621
87 CP5 110 -17.039
87 CP5 111 -18.992
87 CP5 112 -19.480
87 CP5 113 -17.527
87 CP5 114 -14.109
87 CP5 115 -9.715
87 CP5 116 -5.320
87 CP5 117 -1.902
87 CP5 118 0.539
87 CP5 119 1.516
87 CP5 120 2.492
87 CP5 121 3.957
87 CP5 122 5.910
87 CP5 123 7.863
87 CP5 124 9.328
87 CP5 125 10.305
87 CP5 126 11.281
87 CP5 127 11.770
87 CP5 128 10.793
87 CP5 129 8.840
87 CP5 130 4.934
87 CP5 131 0.051
87 CP5 132 -4.832
87 CP5 133 -8.738
87 CP5 134 -11.180
87 CP5 135 -11.180
87 CP5 136 -10.203
87 CP5 137 -8.738
87 CP5 138 -7.762
87 CP5 139 -6.785
87 CP5 140 -6.297
87 CP5 141 -5.809
87 CP5 142 -5.320
87 CP5 143 -3.367
87 CP5 144 -0.437
87 CP5 145 3.469
87 CP5 146 8.352
87 CP5 147 12.258
87 CP5 148 15.188
87 CP5 149 17.141
87 CP5 150 18.117
87 CP5 151 18.606
87 CP5 152 17.629
87 CP5 153 15.676
87 CP5 154 12.746
87 CP5 155 8.840
87 CP5 156 5.422
87 CP5 157 2.492
87 CP5 158 1.027
87 CP5 159 -0.437
87 CP5 160 -1.902
87 CP5 161 -3.367
87 CP5 162 -5.320
87 CP5 163 -7.273
87 CP5 164 -8.250
87 CP5 165 -9.226
87 CP5 166 -8.250
87 CP5 167 -6.785
87 CP5 168 -2.879
87 CP5 169 2.492
87 CP5 170 8.840
87 CP5 171 14.699
87 CP5 172 19.582
87 CP5 173 22.512
87 CP5 174 23.000
87 CP5 175 22.512
87 CP5 176 21.047
87 CP5 177 19.094
87 CP5 178 17.141
87 CP5 179 15.188
87 CP5 180 12.746
87 CP5 181 9.816
87 CP5 182 6.399
87 CP5 183 2.981
87 CP5 184 -1.414
87 CP5 185 -5.809
87 CP5 186 -9.715
87 CP5 187 -12.156
87 CP5 188 -13.133
87 CP5 189 -12.644
87 CP5 190 -11.180
87 CP5 191 -8.738
87 CP5 192 -6.785
87 CP5 193 -4.344
87 CP5 194 -0.926
87 CP5 195 2.492
87 CP5 196 5.910
87 CP5 197 8.352
87 CP5 198 9.816
87 CP5 199 10.305
87 CP5 200 10.793
87 CP5 201 10.793
87 CP5 202 10.793
87 CP5 203 9.328
87 CP5 204 6.887
87 CP5 205 3.957
87 CP5 206 1.027
87 CP5 207 -1.414
87 CP5 208 -3.855
87 CP5 209 -5.809
87 CP5 210 -7.762
87 CP5 211 -9.715
87 CP5 212 -11.668
87 CP5 213 -13.621
87 CP5 214 -15.086
87 CP5 215 -17.039
87 CP5 216 -18.992
87 CP5 217 -20.945
87 CP5 218 -22.410
87 CP5 219 -22.410
87 CP5 220 -21.922
87 CP5 221 -19.969
87 CP5 222 -17.039
87 CP5 223 -13.133
87 CP5 224 -8.738
87 CP5 225 -4.832
87 CP5 226 -2.391
87 CP5 227 -0.437
87 CP5 228 1.027
87 CP5 229 2.981
87 CP5 230 5.910
87 CP5 231 9.328
87 CP5 232 11.281
87 CP5 233 11.770
87 CP5 234 10.793
87 CP5 235 8.352
87 CP5 236 5.910
87 CP5 237 2.492
87 CP5 238 0.051
87 CP5 239 -2.879
87 CP5 240 -5.809
87 CP5 241 -7.762
87 CP5 242 -10.203
87 CP5 243 -13.133
87 CP5 244 -16.551
87 CP5 245 -21.434
87 CP5 246 -25.828
87 CP5 247 -29.246
87 CP5 248 -30.711
87 CP5 249 -30.711
87 CP5 250 -29.246
87 CP5 251 -27.293
87 CP5 252 -23.387
87 CP5 253 -16.551
87 CP5 254 -8.250
87 CP5 255 1.027
# CP6 chan 19
87 CP6 0 -4.852
87 CP6 1 -4.852
87 CP6 2 -3.387
87 CP6 3 -0.946
87 CP6 4 1.495
87 CP6 5 2.960
87 CP6 6 3.448
87 CP6 7 2.472
87 CP6 8 1.984
87 CP6 9 1.984
87 CP6 10 1.984
87 CP6 11 0.031
87 CP6 12 -2.899
87 CP6 13 -7.782
87 CP6 14 -13.641
87 CP6 15 -19.501
87 CP6 16 -23.407
87 CP6 17 -26.337
87 CP6 18 -26.825
87 CP6 19 -24.872
87 CP6 20 -20.477
87 CP6 21 -13.641
87 CP6 22 -4.364
87 CP6 23 6.378
87 CP6 24 16.632
87 CP6 25 24.933
87 CP6 26 28.839
87 CP6 27 28.351
87 CP6 28 23.956
87 CP6 29 18.097
87 CP6 30 12.726
87 CP6 31 8.820
87 CP6 32 5.890
87 CP6 33 3.937
87 CP6 34 1.984
87 CP6 35 -0.946
87 CP6 36 -2.899
87 CP6 37 -4.852
87 CP6 38 -5.829
87 CP6 39 -4.852
87 CP6 40 -3.387
87 CP6 41 -1.923
87 CP6 42 -0.946
87 CP6 43 -1.434
87 CP6 44 -2.411
87 CP6 45 -3.876
87 CP6 46 -3.876
87 CP6 47 -2.899
87 CP6 48 -0.458
87 CP6 49 1.495
87 CP6 50 2.960
87 CP6 51 2.960
87 CP6 52 2.960
87 CP6 53 2.472
87 CP6 54 2.472
87 CP6 55 1.984
87 CP6 56 1.007
87 CP6 57 -0.946
87 CP6 58 -2.411
87 CP6 59 -3.387
87 CP6 60 -2.411
87 CP6 61 0.031
87 CP6 62 2.960
87 CP6 63 5.402
87 CP6 64 6.378
87 CP6 65 7.355
87 CP6 66 6.866
87 CP6 67 6.378
87 CP6 68 6.866
87 CP6 69 7.355
87 CP6 70 9.308
87 CP6 71 12.726
87 CP6 72 17.609
87 CP6 73 22.980
87 CP6 74 27.374
87 CP6 75 30.304
87 CP6 76 31.281
87 CP6 77 30.304
87 CP6 78 27.374
87 CP6 79 23.468
87 CP6 80 17.609
87 CP6 81 9.796
87 CP6 82 1.984
87 CP6 83 -4.852
87 CP6 84 -9.247
87 CP6 85 -10.223
87 CP6 86 -7.782
87 CP6 87 -3.876
87 CP6 88 1.007
87 CP6 89 4.913
87 CP6 90 8.331
87 CP6 91 10.773
87 CP6 92 12.238
87 CP6 93 13.214
87 CP6 94 12.238
87 CP6 95 11.749
87 CP6 96 10.773
87 CP6 97 11.749
87 CP6 98 13.214
87 CP6 99 14.679
87 CP6 100 15.167
87 CP6 101 13.702
87 CP6 102 10.773
87 CP6 103 8.331
87 CP6 104 5.890
87 CP6 105 4.425
87 CP6 106 3.448
87 CP6 107 1.495
87 CP6 108 -0.458
87 CP6 109 -2.899
87 CP6 110 -4.364
87 CP6 111 -5.829
87 CP6 112 -6.317
87 CP6 113 -6.317
87 CP6 114 -5.829
87 CP6 115 -4.852
87 CP6 116 -2.899
87 CP6 117 -0.458
87 CP6 118 1.984
87 CP6 119 4.425
87 CP6 120 6.866
87 CP6 121 8.820
87 CP6 122 10.284
87 CP6 123 11.749
87 CP6 124 12.726
87 CP6 125 13.702
87 CP6 126 16.144
87 CP6 127 18.585
87 CP6 128 21.515
87 CP6 129 22.491
87 CP6 130 22.003
87 CP6 131 19.562
87 CP6 132 15.656
87 CP6 133 11.749
87 CP6 134 8.331
87 CP6 135 5.890
87 CP6 136 3.937
87 CP6 137 2.960
87 CP6 138 0.519
87 CP6 139 -0.946
87 CP6 140 -2.899
87 CP6 141 -3.876
87 CP6 142 -4.364
87 CP6 143 -2.899
87 CP6 144 -0.946
87 CP6 145 2.960
87 CP6 146 7.843
87 CP6 147 12.238
87 CP6 148 16.144
87 CP6 149 18.097
87 CP6 150 19.073
87 CP6 151 18.585
87 CP6 152 18.097
87 CP6 153 16.632
87 CP6 154 15.656
87 CP6 155 15.167
87 CP6 156 13.702
87 CP6 157 12.238
87 CP6 158 10.773
87 CP6 159 7.843
87 CP6 160 3.937
87 CP6 161 0.031
87 CP6 162 -4.364
87 CP6 163 -6.805
87 CP6 164 -7.782
87 CP6 165 -6.805
87 CP6 166 -4.364
87 CP6 167 -1.923
87 CP6 168 1.007
87 CP6 169 3.937
87 CP6 170 7.843
87 CP6 171 12.238
87 CP6 172 17.120
87 CP6 173 20.538
87 CP6 174 22.003
87 CP6 175 21.027
87 CP6 176 18.585
87 CP6 177 15.656
87 CP6 178 13.214
87 CP6 179 11.749
87 CP6 180 10.773
87 CP6 181 11.261
87 CP6 182 12.726
87 CP6 183 14.191
87 CP6 184 15.656
87 CP6 185 15.656
87 CP6 186 14.679
87 CP6 187 12.726
87 CP6 188 10.284
87 CP6 189 8.820
87 CP6 190 7.843
87 CP6 191 7.355
87 CP6 192 6.378
87 CP6 193 5.402
87 CP6 194 3.937
87 CP6 195 2.472
87 CP6 196 1.495
87 CP6 197 1.007
87 CP6 198 0.031
87 CP6 199 -0.946
87 CP6 200 -0.946
87 CP6 201 0.031
87 CP6 202 1.984
87 CP6 203 5.402
87 CP6 204 9.308
87 CP6 205 12.726
87 CP6 206 14.679
87 CP6 207 16.632
87 CP6 208 17.120
87 CP6 209 16.144
87 CP6 210 14.191
87 CP6 211 11.749
87 CP6 212 9.796
87 CP6 213 8.331
87 CP6 214 6.866
87 CP6 215 4.913
87 CP6 216 1.495
87 CP6 217 -4.364
87 CP6 218 -10.712
87 CP6 219 -16.571
87 CP6 220 -20.966
87 CP6 221 -23.407
87 CP6 222 -22.919
87 CP6 223 -20.477
87 CP6 224 -15.106
87 CP6 225 -8.759
87 CP6 226 -2.411
87 CP6 227 1.984
87 CP6 228 2.960
87 CP6 229 1.007
87 CP6 230 -0.458
87 CP6 231 -0.946
87 CP6 232 1.007
87 CP6 233 4.425
87 CP6 234 7.355
87 CP6 235 8.331
87 CP6 236 7.843
87 CP6 237 5.890
87 CP6 238 3.448
87 CP6 239 1.007
87 CP6 240 -0.946
87 CP6 241 -2.411
87 CP6 242 -3.387
87 CP6 243 -4.364
87 CP6 244 -6.317
87 CP6 245 -10.223
87 CP6 246 -14.618
87 CP6 247 -19.012
87 CP6 248 -20.477
87 CP6 249 -19.012
87 CP6 250 -15.594
87 CP6 251 -10.712
87 CP6 252 -6.805
87 CP6 253 -4.364
87 CP6 254 -2.411
87 CP6 255 -1.923
# CP1 chan 20
87 CP1 0 -1.455
87 CP1 1 0.498
87 CP1 2 1.963
87 CP1 3 3.428
87 CP1 4 4.893
87 CP1 5 6.358
87 CP1 6 7.823
87 CP1 7 8.311
87 CP1 8 7.823
87 CP1 9 6.358
87 CP1 10 4.405
87 CP1 11 2.452
87 CP1 12 0.987
87 CP1 13 -0.478
87 CP1 14 -2.920
87 CP1 15 -6.337
87 CP1 16 -10.732
87 CP1 17 -15.127
87 CP1 18 -18.545
87 CP1 19 -20.009
87 CP1 20 -19.521
87 CP1 21 -16.591
87 CP1 22 -13.173
87 CP1 23 -8.291
87 CP1 24 -4.384
87 CP1 25 0.010
87 CP1 26 2.940
87 CP1 27 4.893
87 CP1 28 6.846
87 CP1 29 7.823
87 CP1 30 9.288
87 CP1 31 10.752
87 CP1 32 11.729
87 CP1 33 12.217
87 CP1 34 11.729
87 CP1 35 10.264
87 CP1 36 8.799
87 CP1 37 7.334
87 CP1 38 6.358
87 CP1 39 5.381
87 CP1 40 3.916
87 CP1 41 1.963
87 CP1 42 -0.966
87 CP1 43 -4.384
87 CP1 44 -7.802
87 CP1 45 -10.732
87 CP1 46 -13.173
87 CP1 47 -15.127
87 CP1 48 -15.615
87 CP1 49 -14.150
87 CP1 50 -12.197
87 CP1 51 -9.755
87 CP1 52 -7.802
87 CP1 53 -5.849
87 CP1 54 -4.384
87 CP1 55 -2.920
87 CP1 56 -2.920
87 CP1 57 -2.431
87 CP1 58 -2.920
87 CP1 59 -2.431
87 CP1 60 -1.455
87 CP1 61 0.010
87 CP1 62 1.475
87 CP1 63 2.452
87 CP1 64 2.940
87 CP1 65 3.916
87 CP1 66 4.405
87 CP1 67 4.893
87 CP1 68 5.381
87 CP1 69 4.893
87 CP1 70 4.405
87 CP1 71 4.405
87 CP1 72 4.893
87 CP1 73 4.893
87 CP1 74 5.381
87 CP1 75 5.381
87 CP1 76 4.893
87 CP1 77 4.405
87 CP1 78 4.893
87 CP1 79 5.381
87 CP1 80 5.870
87 CP1 81 5.381
87 CP1 82 4.405
87 CP1 83 2.452
87 CP1 84 0.987
87 CP1 85 0.498
87 CP1 86 1.963
87 CP1 87 4.405
87 CP1 88 6.846
87 CP1 89 9.288
87 CP1 90 11.241
87 CP1 91 12.217
87 CP1 92 12.705
87 CP1 93 12.705
87 CP1 94 11.241
87 CP1 95 9.776
87 CP1 96 7.823
87 CP1 97 7.334
87 CP1 98 7.334
87 CP1 99 8.311
87 CP1 100 8.799
87 CP1 101 8.799
87 CP1 102 7.823
87 CP1 103 6.846
87 CP1 104 6.358
87 CP1 105 6.846
87 CP1 106 7.334
87 CP1 107 7.823
87 CP1 108 6.846
87 CP1 109 4.893
87 CP1 110 2.452
87 CP1 111 0.987
87 CP1 112 0.498
87 CP1 113 0.987
87 CP1 114 1.963
87 CP1 115 2.452
87 CP1 116 2.940
87 CP1 117 2.452
87 CP1 118 2.452
87 CP1 119 1.963
87 CP1 120 1.475
87 CP1 121 0.987
87 CP1 122 0.010
87 CP1 123 -0.966
87 CP1 124 -0.966
87 CP1 125 0.010
87 CP1 126 1.963
87 CP1 127 3.916
87 CP1 128 5.870
87 CP1 129 6.846
87 CP1 130 6.358
87 CP1 131 5.381
87 CP1 132 3.916
87 CP1 133 2.940
87 CP1 134 2.940
87 CP1 135 3.916
87 CP1 136 5.381
87 CP1 137 6.358
87 CP1 138 6.846
87 CP1 139 6.358
87 CP1 140 5.870
87 CP1 141 4.405
87 CP1 142 4.405
87 CP1 143 4.405
87 CP1 144 4.893
87 CP1 145 5.381
87 CP1 146 5.870
87 CP1 147 5.381
87 CP1 148 5.870
87 CP1 149 6.358
87 CP1 150 7.334
87 CP1 151 7.823
87 CP1 152 7.823
87 CP1 153 7.334
87 CP1 154 6.358
87 CP1 155 5.870
87 CP1 156 5.381
87 CP1 157 5.381
87 CP1 158 4.893
87 CP1 159 4.893
87 CP1 160 4.405
87 CP1 161 3.916
87 CP1 162 3.428
87 CP1 163 2.940
87 CP1 164 2.940
87 CP1 165 2.452
87 CP1 166 2.940
87 CP1 167 3.916
87 CP1 168 4.893
87 CP1 169 6.358
87 CP1 170 7.823
87 CP1 171 8.799
87 CP1 172 8.799
87 CP1 173 8.799
87 CP1 174 8.799
87 CP1 175 8.311
87 CP1 176 8.311
87 CP1 177 8.311
87 CP1 178 8.311
87 CP1 179 7.823
87 CP1 180 6.846
87 CP1 181 5.870
87 CP1 182 4.405
87 CP1 183 2.940
87 CP1 184 1.475
87 CP1 185 0.010
87 CP1 186 -1.455
87 CP1 187 -1.943
87 CP1 188 -2.920
87 CP1 189 -2.431
87 CP1 190 -1.943
87 CP1 191 -1.455
87 CP1 192 -1.943
87 CP1 193 -1.943
87 CP1 194 -2.431
87 CP1 195 -1.943
87 CP1 196 -1.455
87 CP1 197 -0.966
87 CP1 198 -0.966
87 CP1 199 -1.455
87 CP1 200 -1.943
87 CP1 201 -2.920
87 CP1 202 -2.920
87 CP1 203 -2.431
87 CP1 204 -1.455
87 CP1 205 0.010
87 CP1 206 1.475
87 CP1 207 2.940
87 CP1 208 4.405
87 CP1 209 6.358
87 CP1 210 6.846
87 CP1 211 6.358
87 CP1 212 4.405
87 CP1 213 0.987
87 CP1 214 -2.920
87 CP1 215 -5.849
87 CP1 216 -8.291
87 CP1 217 -9.755
87 CP1 218 -10.732
87 CP1 219 -12.685
87 CP1 220 -14.150
87 CP1 221 -15.615
87 CP1 222 -16.591
87 CP1 223 -16.103
87 CP1 224 -15.615
87 CP1 225 -14.638
87 CP1 226 -14.150
87 CP1 227 -12.197
87 CP1 228 -10.244
87 CP1 229 -6.826
87 CP1 230 -2.920
87 CP1 231 1.475
87 CP1 232 5.381
87 CP1 233 7.334
87 CP1 234 8.799
87 CP1 235 8.799
87 CP1 236 8.311
87 CP1 237 7.334
87 CP1 238 5.381
87 CP1 239 3.428
87 CP1 240 1.475
87 CP1 241 -0.478
87 CP1 242 -2.920
87 CP1 243 -5.849
87 CP1 244 -10.244
87 CP1 245 -14.150
87 CP1 246 -18.056
87 CP1 247 -20.986
87 CP1 248 -22.451
87 CP1 249 -22.939
87 CP1 250 -22.939
87 CP1 251 -22.451
87 CP1 252 -20.009
87 CP1 253 -15.615
87 CP1 254 -8.779
87 CP1 255 -1.455
# CP2 chan 21
87 CP2 0 -2.696
87 CP2 1 -2.207
87 CP2 2 -1.231
87 CP2 3 0.722
87 CP2 4 2.675
87 CP2 5 4.628
87 CP2 6 5.117
87 CP2 7 4.628
87 CP2 8 4.140
87 CP2 9 3.164
87 CP2 10 2.675
87 CP2 11 1.211
87 CP2 12 -1.231
87 CP2 13 -4.161
87 CP2 14 -7.579
87 CP2 15 -10.508
87 CP2 16 -12.950
87 CP2 17 -14.414
87 CP2 18 -15.391
87 CP2 19 -14.903
87 CP2 20 -13.438
87 CP2 21 -10.508
87 CP2 22 -6.602
87 CP2 23 -1.231
87 CP2 24 4.140
87 CP2 25 8.535
87 CP2 26 11.464
87 CP2 27 11.953
87 CP2 28 10.976
87 CP2 29 9.511
87 CP2 30 8.046
87 CP2 31 7.070
87 CP2 32 6.093
87 CP2 33 5.605
87 CP2 34 4.140
87 CP2 35 3.164
87 CP2 36 1.699
87 CP2 37 1.211
87 CP2 38 0.234
87 CP2 39 0.234
87 CP2 40 0.234
87 CP2 41 -0.743
87 CP2 42 -2.207
87 CP2 43 -3.184
87 CP2 44 -5.137
87 CP2 45 -7.090
87 CP2 46 -9.043
87 CP2 47 -10.020
87 CP2 48 -9.532
87 CP2 49 -7.579
87 CP2 50 -4.649
87 CP2 51 -2.696
87 CP2 52 -0.743
87 CP2 53 0.234
87 CP2 54 0.722
87 CP2 55 0.722
87 CP2 56 0.722
87 CP2 57 0.234
87 CP2 58 -0.254
87 CP2 59 0.234
87 CP2 60 1.211
87 CP2 61 2.187
87 CP2 62 3.164
87 CP2 63 4.140
87 CP2 64 4.140
87 CP2 65 4.628
87 CP2 66 4.628
87 CP2 67 5.117
87 CP2 68 5.605
87 CP2 69 5.605
87 CP2 70 5.605
87 CP2 71 6.093
87 CP2 72 6.582
87 CP2 73 7.558
87 CP2 74 8.535
87 CP2 75 9.023
87 CP2 76 9.023
87 CP2 77 9.023
87 CP2 78 8.535
87 CP2 79 8.535
87 CP2 80 8.046
87 CP2 81 6.582
87 CP2 82 5.117
87 CP2 83 3.164
87 CP2 84 2.187
87 CP2 85 1.699
87 CP2 86 3.164
87 CP2 87 5.117
87 CP2 88 7.070
87 CP2 89 9.023
87 CP2 90 10.000
87 CP2 91 10.488
87 CP2 92 10.000
87 CP2 93 9.023
87 CP2 94 7.558
87 CP2 95 5.605
87 CP2 96 3.652
87 CP2 97 2.187
87 CP2 98 2.187
87 CP2 99 3.164
87 CP2 100 3.652
87 CP2 101 3.652
87 CP2 102 3.164
87 CP2 103 3.164
87 CP2 104 3.652
87 CP2 105 4.140
87 CP2 106 5.117
87 CP2 107 5.117
87 CP2 108 4.628
87 CP2 109 4.140
87 CP2 110 3.164
87 CP2 111 2.675
87 CP2 112 2.675
87 CP2 113 2.675
87 CP2 114 2.675
87 CP2 115 2.187
87 CP2 116 1.699
87 CP2 117 1.211
87 CP2 118 0.722
87 CP2 119 0.722
87 CP2 120 1.211
87 CP2 121 0.722
87 CP2 122 0.722
87 CP2 123 0.722
87 CP2 124 0.234
87 CP2 125 1.211
87 CP2 126 2.187
87 CP2 127 5.117
87 CP2 128 7.558
87 CP2 129 9.511
87 CP2 130 10.976
87 CP2 131 10.488
87 CP2 132 9.511
87 CP2 133 8.535
87 CP2 134 8.046
87 CP2 135 7.558
87 CP2 136 7.070
87 CP2 137 6.582
87 CP2 138 5.605
87 CP2 139 4.140
87 CP2 140 3.164
87 CP2 141 2.187
87 CP2 142 1.699
87 CP2 143 1.699
87 CP2 144 1.699
87 CP2 145 2.187
87 CP2 146 2.187
87 CP2 147 2.187
87 CP2 148 2.187
87 CP2 149 2.187
87 CP2 150 2.187
87 CP2 151 2.187
87 CP2 152 2.187
87 CP2 153 2.675
87 CP2 154 3.164
87 CP2 155 4.628
87 CP2 156 5.605
87 CP2 157 6.582
87 CP2 158 7.070
87 CP2 159 7.070
87 CP2 160 6.093
87 CP2 161 4.140
87 CP2 162 1.699
87 CP2 163 -0.254
87 CP2 164 -1.719
87 CP2 165 -1.231
87 CP2 166 0.234
87 CP2 167 1.699
87 CP2 168 3.164
87 CP2 169 4.140
87 CP2 170 5.117
87 CP2 171 6.093
87 CP2 172 6.582
87 CP2 173 6.093
87 CP2 174 4.140
87 CP2 175 2.187
87 CP2 176 0.234
87 CP2 177 -1.231
87 CP2 178 -2.207
87 CP2 179 -2.696
87 CP2 180 -2.207
87 CP2 181 -1.719
87 CP2 182 -0.254
87 CP2 183 1.699
87 CP2 184 4.140
87 CP2 185 5.605
87 CP2 186 6.582
87 CP2 187 6.093
87 CP2 188 5.117
87 CP2 189 4.628
87 CP2 190 4.140
87 CP2 191 3.164
87 CP2 192 2.675
87 CP2 193 1.699
87 CP2 194 -0.254
87 CP2 195 -1.719
87 CP2 196 -3.672
87 CP2 197 -5.137
87 CP2 198 -7.090
87 CP2 199 -9.532
87 CP2 200 -11.485
87 CP2 201 -12.461
87 CP2 202 -10.997
87 CP2 203 -8.555
87 CP2 204 -4.649
87 CP2 205 -1.231
87 CP2 206 2.187
87 CP2 207 6.093
87 CP2 208 9.023
87 CP2 209 11.464
87 CP2 210 12.441
87 CP2 211 12.441
87 CP2 212 10.976
87 CP2 213 9.023
87 CP2 214 7.070
87 CP2 215 5.117
87 CP2 216 2.675
87 CP2 217 -0.743
87 CP2 218 -4.161
87 CP2 219 -8.067
87 CP2 220 -11.485
87 CP2 221 -13.438
87 CP2 222 -14.903
87 CP2 223 -15.391
87 CP2 224 -14.414
87 CP2 225 -12.950
87 CP2 226 -10.997
87 CP2 227 -9.043
87 CP2 228 -8.067
87 CP2 229 -7.579
87 CP2 230 -7.090
87 CP2 231 -5.625
87 CP2 232 -2.696
87 CP2 233 0.722
87 CP2 234 4.140
87 CP2 235 6.093
87 CP2 236 6.582
87 CP2 237 6.582
87 CP2 238 6.093
87 CP2 239 5.605
87 CP2 240 4.628
87 CP2 241 3.164
87 CP2 242 1.699
87 CP2 243 0.234
87 CP2 244 -2.207
87 CP2 245 -5.137
87 CP2 246 -8.555
87 CP2 247 -11.485
87 CP2 248 -13.926
87 CP2 249 -14.414
87 CP2 250 -13.438
87 CP2 251 -10.997
87 CP2 252 -9.043
87 CP2 253 -7.579
87 CP2 254 -6.114
87 CP2 255 -4.649
# P3 chan 22
87 P3 0 4.944
87 P3 1 9.827
87 P3 2 13.733
87 P3 3 16.174
87 P3 4 19.104
87 P3 5 21.545
87 P3 6 22.522
87 P3 7 22.034
87 P3 8 19.592
87 P3 9 15.686
87 P3 10 11.780
87 P3 11 8.850
87 P3 12 5.920
87 P3 13 2.014
87 P3 14 -4.822
87 P3 15 -15.076
87 P3 16 -27.283
87 P3 17 -38.513
87 P3 18 -47.302
87 P3 19 -51.208
87 P3 20 -48.767
87 P3 21 -41.443
87 P3 22 -30.212
87 P3 23 -16.541
87 P3 24 -3.845
87 P3 25 6.897
87 P3 26 13.733
87 P3 27 17.639
87 P3 28 20.081
87 P3 29 22.034
87 P3 30 24.475
87 P3 31 26.428
87 P3 32 27.405
87 P3 33 26.917
87 P3 34 24.963
87 P3 35 22.034
87 P3 36 19.592
87 P3 37 17.151
87 P3 38 14.709
87 P3 39 11.292
87 P3 40 7.385
87 P3 41 2.991
87 P3 42 -1.892
87 P3 43 -7.751
87 P3 44 -13.611
87 P3 45 -20.447
87 P3 46 -26.794
87 P3 47 -30.701
87 P3 48 -31.677
87 P3 49 -28.748
87 P3 50 -24.353
87 P3 51 -18.982
87 P3 52 -14.587
87 P3 53 -11.658
87 P3 54 -10.193
87 P3 55 -10.193
87 P3 56 -11.169
87 P3 57 -12.146
87 P3 58 -12.634
87 P3 59 -11.169
87 P3 60 -8.728
87 P3 61 -5.310
87 P3 62 -1.892
87 P3 63 1.526
87 P3 64 4.944
87 P3 65 8.362
87 P3 66 10.803
87 P3 67 12.268
87 P3 68 13.733
87 P3 69 13.733
87 P3 70 15.198
87 P3 71 17.639
87 P3 72 20.569
87 P3 73 23.499
87 P3 74 24.475
87 P3 75 24.475
87 P3 76 23.010
87 P3 77 21.545
87 P3 78 21.057
87 P3 79 20.081
87 P3 80 17.639
87 P3 81 12.756
87 P3 82 6.409
87 P3 83 -0.427
87 P3 84 -5.310
87 P3 85 -6.287
87 P3 86 -4.822
87 P3 87 -1.404
87 P3 88 2.991
87 P3 89 6.897
87 P3 90 10.803
87 P3 91 14.709
87 P3 92 18.127
87 P3 93 20.081
87 P3 94 20.569
87 P3 95 20.569
87 P3 96 20.569
87 P3 97 21.545
87 P3 98 23.987
87 P3 99 25.940
87 P3 100 25.940
87 P3 101 23.987
87 P3 102 20.569
87 P3 103 16.663
87 P3 104 13.733
87 P3 105 11.780
87 P3 106 10.803
87 P3 107 8.362
87 P3 108 4.456
87 P3 109 -0.427
87 P3 110 -4.822
87 P3 111 -7.751
87 P3 112 -8.240
87 P3 113 -7.751
87 P3 114 -5.310
87 P3 115 -2.869
87 P3 116 0.061
87 P3 117 2.014
87 P3 118 2.991
87 P3 119 3.967
87 P3 120 4.456
87 P3 121 4.944
87 P3 122 5.920
87 P3 123 6.897
87 P3 124 7.874
87 P3 125 9.827
87 P3 126 11.780
87 P3 127 14.221
87 P3 128 16.174
87 P3 129 16.174
87 P3 130 14.709
87 P3 131 11.292
87 P3 132 6.897
87 P3 133 3.967
87 P3 134 2.502
87 P3 135 2.991
87 P3 136 4.944
87 P3 137 6.409
87 P3 138 6.897
87 P3 139 6.409
87 P3 140 5.920
87 P3 141 4.944
87 P3 142 4.944
87 P3 143 5.920
87 P3 144 7.385
87 P3 145 9.338
87 P3 146 10.803
87 P3 147 12.756
87 P3 148 14.221
87 P3 149 16.174
87 P3 150 18.127
87 P3 151 19.104
87 P3 152 20.081
87 P3 153 19.592
87 P3 154 17.639
87 P3 155 14.709
87 P3 156 12.268
87 P3 157 9.338
87 P3 158 6.897
87 P3 159 4.944
87 P3 160 3.479
87 P3 161 1.526
87 P3 162 -0.916
87 P3 163 -2.869
87 P3 164 -4.333
87 P3 165 -5.798
87 P3 166 -5.310
87 P3 167 -4.333
87 P3 168 -2.380
87 P3 169 1.038
87 P3 170 5.432
87 P3 171 10.315
87 P3 172 14.221
87 P3 173 16.663
87 P3 174 18.127
87 P3 175 18.127
87 P3 176 17.639
87 P3 177 17.151
87 P3 178 17.151
87 P3 179 15.686
87 P3 180 14.221
87 P3 181 11.292
87 P3 182 7.385
87 P3 183 3.479
87 P3 184 -1.892
87 P3 185 -6.775
87 P3 186 -11.169
87 P3 187 -15.076
87 P3 188 -16.541
87 P3 189 -16.052
87 P3 190 -13.611
87 P3 191 -11.169
87 P3 192 -9.216
87 P3 193 -8.240
87 P3 194 -7.263
87 P3 195 -6.287
87 P3 196 -4.822
87 P3 197 -3.357
87 P3 198 -2.869
87 P3 199 -3.845
87 P3 200 -4.822
87 P3 201 -5.798
87 P3 202 -5.798
87 P3 203 -4.822
87 P3 204 -2.869
87 P3 205 -1.404
87 P3 206 -0.427
87 P3 207 0.061
87 P3 208 1.038
87 P3 209 1.526
87 P3 210 1.526
87 P3 211 0.061
87 P3 212 -2.869
87 P3 213 -7.751
87 P3 214 -12.634
87 P3 215 -17.517
87 P3 216 -20.935
87 P3 217 -23.376
87 P3 218 -26.306
87 P3 219 -29.236
87 P3 220 -31.677
87 P3 221 -32.654
87 P3 222 -31.677
87 P3 223 -28.748
87 P3 224 -25.818
87 P3 225 -23.865
87 P3 226 -23.376
87 P3 227 -22.400
87 P3 228 -19.470
87 P3 229 -13.611
87 P3 230 -5.798
87 P3 231 3.479
87 P3 232 10.315
87 P3 233 14.709
87 P3 234 15.686
87 P3 235 15.686
87 P3 236 13.733
87 P3 237 11.780
87 P3 238 8.362
87 P3 239 4.944
87 P3 240 1.038
87 P3 241 -2.869
87 P3 242 -6.287
87 P3 243 -11.169
87 P3 244 -17.029
87 P3 245 -24.353
87 P3 246 -31.189
87 P3 247 -37.048
87 P3 248 -41.443
87 P3 249 -44.861
87 P3 250 -46.814
87 P3 251 -47.302
87 P3 252 -43.884
87 P3 253 -36.072
87 P3 254 -23.865
87 P3 255 -9.705
# P4 chan 23
87 P4 0 5.351
87 P4 1 3.886
87 P4 2 3.886
87 P4 3 5.351
87 P4 4 7.304
87 P4 5 8.769
87 P4 6 7.792
87 P4 7 6.327
87 P4 8 5.351
87 P4 9 3.886
87 P4 10 2.421
87 P4 11 -1.485
87 P4 12 -7.345
87 P4 13 -15.157
87 P4 14 -23.458
87 P4 15 -30.294
87 P4 16 -35.177
87 P4 17 -37.130
87 P4 18 -36.641
87 P4 19 -33.712
87 P4 20 -26.876
87 P4 21 -16.622
87 P4 22 -3.438
87 P4 23 11.698
87 P4 24 24.882
87 P4 25 34.648
87 P4 26 39.042
87 P4 27 37.577
87 P4 28 32.694
87 P4 29 25.859
87 P4 30 19.999
87 P4 31 14.628
87 P4 32 10.234
87 P4 33 4.862
87 P4 34 -0.997
87 P4 35 -6.368
87 P4 36 -10.763
87 P4 37 -13.204
87 P4 38 -13.204
87 P4 39 -12.227
87 P4 40 -11.251
87 P4 41 -10.274
87 P4 42 -9.786
87 P4 43 -9.298
87 P4 44 -9.298
87 P4 45 -9.298
87 P4 46 -9.298
87 P4 47 -7.833
87 P4 48 -4.903
87 P4 49 -0.997
87 P4 50 2.909
87 P4 51 5.839
87 P4 52 6.327
87 P4 53 4.862
87 P4 54 1.444
87 P4 55 -2.462
87 P4 56 -5.880
87 P4 57 -9.298
87 P4 58 -10.763
87 P4 59 -10.274
87 P4 60 -7.345
87 P4 61 -3.927
87 P4 62 -0.997
87 P4 63 0.956
87 P4 64 1.933
87 P4 65 1.933
87 P4 66 3.398
87 P4 67 5.351
87 P4 68 7.304
87 P4 69 9.257
87 P4 70 11.210
87 P4 71 13.652
87 P4 72 17.558
87 P4 73 21.952
87 P4 74 26.835
87 P4 75 29.765
87 P4 76 29.765
87 P4 77 27.812
87 P4 78 23.905
87 P4 79 19.023
87 P4 80 13.163
87 P4 81 6.816
87 P4 82 0.468
87 P4 83 -4.415
87 P4 84 -7.833
87 P4 85 -7.833
87 P4 86 -4.903
87 P4 87 -0.509
87 P4 88 3.886
87 P4 89 8.280
87 P4 90 11.698
87 P4 91 14.140
87 P4 92 15.605
87 P4 93 16.093
87 P4 94 14.628
87 P4 95 12.187
87 P4 96 10.234
87 P4 97 9.745
87 P4 98 10.722
87 P4 99 12.187
87 P4 100 12.187
87 P4 101 10.722
87 P4 102 7.792
87 P4 103 4.862
87 P4 104 3.398
87 P4 105 2.909
87 P4 106 2.909
87 P4 107 2.421
87 P4 108 0.468
87 P4 109 -2.462
87 P4 110 -5.391
87 P4 111 -6.856
87 P4 112 -6.856
87 P4 113 -6.368
87 P4 114 -5.391
87 P4 115 -4.903
87 P4 116 -4.415
87 P4 117 -4.415
87 P4 118 -3.927
87 P4 119 -2.950
87 P4 120 -1.485
87 P4 121 -0.020
87 P4 122 1.444
87 P4 123 2.421
87 P4 124 3.398
87 P4 125 4.862
87 P4 126 6.816
87 P4 127 9.257
87 P4 128 12.187
87 P4 129 14.140
87 P4 130 14.628
87 P4 131 12.675
87 P4 132 10.234
87 P4 133 7.304
87 P4 134 5.839
87 P4 135 5.839
87 P4 136 5.839
87 P4 137 5.839
87 P4 138 4.862
87 P4 139 2.909
87 P4 140 1.444
87 P4 141 -0.020
87 P4 142 -0.020
87 P4 143 1.444
87 P4 144 2.909
87 P4 145 5.351
87 P4 146 7.792
87 P4 147 9.745
87 P4 148 11.210
87 P4 149 11.698
87 P4 150 11.698
87 P4 151 10.234
87 P4 152 8.769
87 P4 153 6.816
87 P4 154 5.839
87 P4 155 4.862
87 P4 156 4.374
87 P4 157 4.374
87 P4 158 3.886
87 P4 159 3.398
87 P4 160 1.444
87 P4 161 -0.997
87 P4 162 -3.438
87 P4 163 -5.391
87 P4 164 -4.415
87 P4 165 -1.973
87 P4 166 1.933
87 P4 167 6.327
87 P4 168 10.234
87 P4 169 13.652
87 P4 170 16.581
87 P4 171 19.511
87 P4 172 20.976
87 P4 173 21.464
87 P4 174 19.511
87 P4 175 16.581
87 P4 176 13.163
87 P4 177 10.234
87 P4 178 8.280
87 P4 179 7.304
87 P4 180 6.327
87 P4 181 5.351
87 P4 182 4.862
87 P4 183 4.862
87 P4 184 5.839
87 P4 185 6.816
87 P4 186 6.816
87 P4 187 6.327
87 P4 188 4.862
87 P4 189 3.886
87 P4 190 3.886
87 P4 191 4.374
87 P4 192 5.351
87 P4 193 6.327
87 P4 194 6.816
87 P4 195 7.304
87 P4 196 7.792
87 P4 197 6.816
87 P4 198 4.862
87 P4 199 1.933
87 P4 200 -1.485
87 P4 201 -3.438
87 P4 202 -3.927
87 P4 203 -2.950
87 P4 204 -0.509
87 P4 205 2.421
87 P4 206 6.327
87 P4 207 9.745
87 P4 208 12.187
87 P4 209 12.675
87 P4 210 11.698
87 P4 211 9.257
87 P4 212 6.327
87 P4 213 4.374
87 P4 214 2.421
87 P4 215 -0.997
87 P4 216 -5.880
87 P4 217 -13.204
87 P4 218 -21.016
87 P4 219 -28.829
87 P4 220 -35.177
87 P4 221 -39.083
87 P4 222 -39.571
87 P4 223 -36.641
87 P4 224 -28.829
87 P4 225 -17.598
87 P4 226 -5.391
87 P4 227 4.374
87 P4 228 9.257
87 P4 229 9.745
87 P4 230 9.257
87 P4 231 9.745
87 P4 232 12.675
87 P4 233 16.581
87 P4 234 19.511
87 P4 235 19.023
87 P4 236 15.605
87 P4 237 9.745
87 P4 238 3.886
87 P4 239 -0.997
87 P4 240 -4.415
87 P4 241 -6.856
87 P4 242 -9.298
87 P4 243 -13.204
87 P4 244 -17.598
87 P4 245 -23.458
87 P4 246 -29.806
87 P4 247 -34.688
87 P4 248 -37.618
87 P4 249 -36.641
87 P4 250 -32.247
87 P4 251 -25.899
87 P4 252 -19.552
87 P4 253 -13.692
87 P4 254 -9.786
87 P4 255 -7.345
# PZ chan 24
87 PZ 0 -8.494
87 PZ 1 -7.517
87 PZ 2 -7.029
87 PZ 3 -5.564
87 PZ 4 -3.123
87 PZ 5 0.295
87 PZ 6 3.225
87 PZ 7 5.666
87 PZ 8 7.619
87 PZ 9 8.108
87 PZ 10 7.619
87 PZ 11 6.643
87 PZ 12 4.690
87 PZ 13 1.760
87 PZ 14 -2.146
87 PZ 15 -6.541
87 PZ 16 -11.912
87 PZ 17 -17.283
87 PZ 18 -21.678
87 PZ 19 -24.119
87 PZ 20 -24.119
87 PZ 21 -22.166
87 PZ 22 -17.283
87 PZ 23 -11.424
87 PZ 24 -5.564
87 PZ 25 -0.682
87 PZ 26 2.248
87 PZ 27 3.713
87 PZ 28 3.713
87 PZ 29 4.201
87 PZ 30 5.666
87 PZ 31 7.619
87 PZ 32 9.572
87 PZ 33 11.037
87 PZ 34 11.525
87 PZ 35 11.037
87 PZ 36 10.061
87 PZ 37 8.596
87 PZ 38 7.619
87 PZ 39 6.643
87 PZ 40 5.178
87 PZ 41 3.713
87 PZ 42 1.272
87 PZ 43 -1.658
87 PZ 44 -5.564
87 PZ 45 -9.959
87 PZ 46 -14.353
87 PZ 47 -17.283
87 PZ 48 -18.260
87 PZ 49 -17.771
87 PZ 50 -15.330
87 PZ 51 -13.377
87 PZ 52 -11.912
87 PZ 53 -11.912
87 PZ 54 -11.912
87 PZ 55 -11.912
87 PZ 56 -12.400
87 PZ 57 -12.400
87 PZ 58 -11.424
87 PZ 59 -9.959
87 PZ 60 -6.541
87 PZ 61 -3.123
87 PZ 62 0.295
87 PZ 63 2.736
87 PZ 64 3.713
87 PZ 65 4.690
87 PZ 66 5.666
87 PZ 67 7.131
87 PZ 68 7.619
87 PZ 69 8.108
87 PZ 70 7.619
87 PZ 71 6.643
87 PZ 72 6.643
87 PZ 73 6.643
87 PZ 74 6.643
87 PZ 75 5.666
87 PZ 76 4.690
87 PZ 77 3.713
87 PZ 78 3.713
87 PZ 79 5.666
87 PZ 80 7.619
87 PZ 81 9.084
87 PZ 82 9.084
87 PZ 83 8.108
87 PZ 84 7.131
87 PZ 85 7.619
87 PZ 86 10.061
87 PZ 87 12.990
87 PZ 88 16.408
87 PZ 89 18.850
87 PZ 90 19.826
87 PZ 91 19.826
87 PZ 92 19.338
87 PZ 93 17.385
87 PZ 94 13.967
87 PZ 95 10.061
87 PZ 96 6.643
87 PZ 97 4.201
87 PZ 98 3.713
87 PZ 99 4.201
87 PZ 100 5.178
87 PZ 101 4.690
87 PZ 102 3.225
87 PZ 103 2.248
87 PZ 104 2.248
87 PZ 105 3.225
87 PZ 106 5.178
87 PZ 107 6.643
87 PZ 108 6.643
87 PZ 109 4.690
87 PZ 110 2.736
87 PZ 111 1.760
87 PZ 112 1.760
87 PZ 113 3.225
87 PZ 114 3.713
87 PZ 115 3.713
87 PZ 116 2.736
87 PZ 117 0.295
87 PZ 118 -1.658
87 PZ 119 -3.123
87 PZ 120 -4.100
87 PZ 121 -5.564
87 PZ 122 -6.541
87 PZ 123 -8.494
87 PZ 124 -9.471
87 PZ 125 -8.982
87 PZ 126 -6.053
87 PZ 127 -1.658
87 PZ 128 3.225
87 PZ 129 7.131
87 PZ 130 9.084
87 PZ 131 8.596
87 PZ 132 7.619
87 PZ 133 6.154
87 PZ 134 6.154
87 PZ 135 8.108
87 PZ 136 10.061
87 PZ 137 12.502
87 PZ 138 12.502
87 PZ 139 12.014
87 PZ 140 10.549
87 PZ 141 9.084
87 PZ 142 8.596
87 PZ 143 8.108
87 PZ 144 7.131
87 PZ 145 6.154
87 PZ 146 4.690
87 PZ 147 3.225
87 PZ 148 1.760
87 PZ 149 0.295
87 PZ 150 -0.682
87 PZ 151 -1.170
87 PZ 152 -2.146
87 PZ 153 -2.635
87 PZ 154 -2.635
87 PZ 155 -2.146
87 PZ 156 -0.682
87 PZ 157 0.783
87 PZ 158 2.736
87 PZ 159 4.201
87 PZ 160 5.178
87 PZ 161 5.178
87 PZ 162 5.178
87 PZ 163 4.201
87 PZ 164 4.201
87 PZ 165 5.178
87 PZ 166 6.643
87 PZ 167 8.596
87 PZ 168 10.061
87 PZ 169 11.037
87 PZ 170 11.525
87 PZ 171 11.525
87 PZ 172 10.549
87 PZ 173 8.596
87 PZ 174 5.666
87 PZ 175 2.248
87 PZ 176 -1.170
87 PZ 177 -3.123
87 PZ 178 -3.611
87 PZ 179 -3.611
87 PZ 180 -3.123
87 PZ 181 -3.123
87 PZ 182 -3.123
87 PZ 183 -2.635
87 PZ 184 -2.635
87 PZ 185 -1.658
87 PZ 186 -1.170
87 PZ 187 -0.682
87 PZ 188 -0.193
87 PZ 189 1.760
87 PZ 190 4.201
87 PZ 191 6.154
87 PZ 192 7.619
87 PZ 193 7.131
87 PZ 194 5.666
87 PZ 195 3.713
87 PZ 196 0.783
87 PZ 197 -2.146
87 PZ 198 -5.564
87 PZ 199 -9.471
87 PZ 200 -13.865
87 PZ 201 -17.771
87 PZ 202 -20.213
87 PZ 203 -20.213
87 PZ 204 -18.260
87 PZ 205 -14.842
87 PZ 206 -9.959
87 PZ 207 -3.611
87 PZ 208 3.225
87 PZ 209 10.061
87 PZ 210 14.943
87 PZ 211 16.897
87 PZ 212 14.943
87 PZ 213 11.037
87 PZ 214 6.154
87 PZ 215 1.272
87 PZ 216 -2.635
87 PZ 217 -5.076
87 PZ 218 -7.517
87 PZ 219 -9.959
87 PZ 220 -12.889
87 PZ 221 -15.818
87 PZ 222 -17.771
87 PZ 223 -18.748
87 PZ 224 -18.748
87 PZ 225 -18.260
87 PZ 226 -17.771
87 PZ 227 -16.795
87 PZ 228 -15.818
87 PZ 229 -13.377
87 PZ 230 -9.471
87 PZ 231 -4.588
87 PZ 232 0.783
87 PZ 233 5.666
87 PZ 234 9.572
87 PZ 235 12.014
87 PZ 236 12.990
87 PZ 237 12.990
87 PZ 238 12.014
87 PZ 239 11.037
87 PZ 240 10.061
87 PZ 241 8.108
87 PZ 242 5.666
87 PZ 243 1.272
87 PZ 244 -4.100
87 PZ 245 -9.959
87 PZ 246 -16.307
87 PZ 247 -22.166
87 PZ 248 -27.049
87 PZ 249 -29.978
87 PZ 250 -31.932
87 PZ 251 -32.908
87 PZ 252 -31.443
87 PZ 253 -27.537
87 PZ 254 -21.189
87 PZ 255 -12.400
# P8 chan 25
87 P8 0 -8.301
87 P8 1 -6.348
87 P8 2 -2.930
87 P8 3 1.465
87 P8 4 4.883
87 P8 5 6.836
87 P8 6 6.348
87 P8 7 5.859
87 P8 8 5.859
87 P8 9 5.859
87 P8 10 4.883
87 P8 11 1.465
87 P8 12 -4.395
87 P8 13 -11.719
87 P8 14 -19.531
87 P8 15 -26.367
87 P8 16 -32.227
87 P8 17 -36.133
87 P8 18 -39.062
87 P8 19 -38.086
87 P8 20 -33.691
87 P8 21 -23.438
87 P8 22 -9.277
87 P8 23 6.836
87 P8 24 20.996
87 P8 25 31.250
87 P8 26 35.645
87 P8 27 35.156
87 P8 28 31.738
87 P8 29 26.367
87 P8 30 20.508
87 P8 31 16.113
87 P8 32 11.719
87 P8 33 8.301
87 P8 34 3.906
87 P8 35 0.000
87 P8 36 -2.441
87 P8 37 -3.418
87 P8 38 -1.953
87 P8 39 -0.488
87 P8 40 0.488
87 P8 41 -0.488
87 P8 42 -2.930
87 P8 43 -4.883
87 P8 44 -6.348
87 P8 45 -5.859
87 P8 46 -3.906
87 P8 47 -1.465
87 P8 48 0.977
87 P8 49 3.418
87 P8 50 4.883
87 P8 51 4.883
87 P8 52 2.930
87 P8 53 -0.977
87 P8 54 -5.859
87 P8 55 -10.254
87 P8 56 -13.184
87 P8 57 -13.184
87 P8 58 -11.230
87 P8 59 -7.812
87 P8 60 -4.395
87 P8 61 -1.953
87 P8 62 0.000
87 P8 63 2.441
87 P8 64 4.883
87 P8 65 7.812
87 P8 66 10.254
87 P8 67 11.230
87 P8 68 11.230
87 P8 69 11.719
87 P8 70 13.672
87 P8 71 17.578
87 P8 72 23.926
87 P8 73 31.250
87 P8 74 37.109
87 P8 75 41.016
87 P8 76 41.016
87 P8 77 37.598
87 P8 78 32.227
87 P8 79 24.902
87 P8 80 16.602
87 P8 81 8.301
87 P8 82 0.488
87 P8 83 -5.859
87 P8 84 -10.742
87 P8 85 -12.695
87 P8 86 -10.742
87 P8 87 -4.883
87 P8 88 2.441
87 P8 89 8.789
87 P8 90 14.648
87 P8 91 17.578
87 P8 92 19.531
87 P8 93 20.508
87 P8 94 20.508
87 P8 95 19.531
87 P8 96 17.578
87 P8 97 15.625
87 P8 98 14.160
87 P8 99 14.648
87 P8 100 15.625
87 P8 101 15.625
87 P8 102 13.672
87 P8 103 9.766
87 P8 104 4.883
87 P8 105 0.488
87 P8 106 -2.930
87 P8 107 -5.371
87 P8 108 -6.836
87 P8 109 -9.277
87 P8 110 -12.207
87 P8 111 -14.160
87 P8 112 -15.137
87 P8 113 -14.160
87 P8 114 -11.719
87 P8 115 -8.789
87 P8 116 -6.348
87 P8 117 -4.883
87 P8 118 -3.418
87 P8 119 -1.465
87 P8 120 1.465
87 P8 121 5.371
87 P8 122 9.766
87 P8 123 14.160
87 P8 124 16.602
87 P8 125 17.578
87 P8 126 17.578
87 P8 127 17.578
87 P8 128 18.555
87 P8 129 20.020
87 P8 130 19.043
87 P8 131 15.625
87 P8 132 9.277
87 P8 133 2.930
87 P8 134 -1.465
87 P8 135 -3.418
87 P8 136 -3.906
87 P8 137 -4.395
87 P8 138 -6.836
87 P8 139 -10.254
87 P8 140 -13.184
87 P8 141 -12.695
87 P8 142 -9.277
87 P8 143 -3.418
87 P8 144 1.953
87 P8 145 5.371
87 P8 146 8.301
87 P8 147 11.230
87 P8 148 15.625
87 P8 149 19.531
87 P8 150 22.461
87 P8 151 21.973
87 P8 152 18.555
87 P8 153 14.648
87 P8 154 12.207
87 P8 155 11.230
87 P8 156 10.742
87 P8 157 10.254
87 P8 158 7.324
87 P8 159 3.906
87 P8 160 -0.977
87 P8 161 -4.883
87 P8 162 -8.789
87 P8 163 -12.207
87 P8 164 -14.160
87 P8 165 -13.672
87 P8 166 -10.742
87 P8 167 -4.883
87 P8 168 2.930
87 P8 169 10.254
87 P8 170 17.090
87 P8 171 22.949
87 P8 172 28.320
87 P8 173 33.203
87 P8 174 36.133
87 P8 175 36.133
87 P8 176 33.203
87 P8 177 28.809
87 P8 178 24.414
87 P8 179 20.508
87 P8 180 19.043
87 P8 181 17.578
87 P8 182 16.113
87 P8 183 13.672
87 P8 184 11.230
87 P8 185 8.789
87 P8 186 8.301
87 P8 187 8.789
87 P8 188 9.277
87 P8 189 10.254
87 P8 190 10.254
87 P8 191 8.789
87 P8 192 6.836
87 P8 193 4.883
87 P8 194 3.418
87 P8 195 3.418
87 P8 196 3.418
87 P8 197 3.418
87 P8 198 2.441
87 P8 199 1.465
87 P8 200 1.465
87 P8 201 2.441
87 P8 202 4.883
87 P8 203 7.812
87 P8 204 9.766
87 P8 205 10.742
87 P8 206 10.742
87 P8 207 9.766
87 P8 208 9.277
87 P8 209 9.277
87 P8 210 9.766
87 P8 211 9.766
87 P8 212 8.789
87 P8 213 5.371
87 P8 214 0.488
87 P8 215 -5.859
87 P8 216 -13.184
87 P8 217 -21.484
87 P8 218 -30.273
87 P8 219 -38.574
87 P8 220 -45.410
87 P8 221 -48.340
87 P8 222 -46.875
87 P8 223 -41.016
87 P8 224 -31.250
87 P8 225 -19.531
87 P8 226 -9.766
87 P8 227 -3.418
87 P8 228 -0.488
87 P8 229 0.488
87 P8 230 1.953
87 P8 231 5.859
87 P8 232 10.254
87 P8 233 14.648
87 P8 234 16.113
87 P8 235 14.160
87 P8 236 10.254
87 P8 237 4.883
87 P8 238 -0.488
87 P8 239 -5.371
87 P8 240 -9.277
87 P8 241 -12.695
87 P8 242 -14.648
87 P8 243 -16.602
87 P8 244 -20.020
87 P8 245 -25.391
87 P8 246 -32.227
87 P8 247 -38.574
87 P8 248 -41.992
87 P8 249 -41.016
87 P8 250 -38.086
87 P8 251 -33.203
87 P8 252 -29.297
87 P8 253 -26.367
87 P8 254 -22.461
87 P8 255 -18.066
# P7 chan 26
87 P7 0 3.469
87 P7 1 6.887
87 P7 2 9.328
87 P7 3 11.281
87 P7 4 12.258
87 P7 5 13.234
87 P7 6 13.723
87 P7 7 14.211
87 P7 8 15.188
87 P7 9 15.676
87 P7 10 15.676
87 P7 11 14.699
87 P7 12 11.770
87 P7 13 6.887
87 P7 14 -0.926
87 P7 15 -11.180
87 P7 16 -24.363
87 P7 17 -38.523
87 P7 18 -49.754
87 P7 19 -54.637
87 P7 20 -52.684
87 P7 21 -43.406
87 P7 22 -30.711
87 P7 23 -17.527
87 P7 24 -7.273
87 P7 25 -0.437
87 P7 26 3.957
87 P7 27 6.887
87 P7 28 10.305
87 P7 29 13.723
87 P7 30 17.141
87 P7 31 19.094
87 P7 32 20.559
87 P7 33 20.559
87 P7 34 19.582
87 P7 35 18.117
87 P7 36 16.164
87 P7 37 14.211
87 P7 38 10.793
87 P7 39 7.375
87 P7 40 3.957
87 P7 41 1.027
87 P7 42 -2.391
87 P7 43 -5.809
87 P7 44 -10.203
87 P7 45 -16.062
87 P7 46 -21.434
87 P7 47 -25.828
87 P7 48 -27.293
87 P7 49 -25.828
87 P7 50 -22.410
87 P7 51 -18.992
87 P7 52 -17.527
87 P7 53 -18.504
87 P7 54 -20.945
87 P7 55 -23.875
87 P7 56 -25.828
87 P7 57 -26.316
87 P7 58 -25.340
87 P7 59 -23.387
87 P7 60 -19.969
87 P7 61 -16.062
87 P7 62 -10.691
87 P7 63 -4.832
87 P7 64 1.027
87 P7 65 6.399
87 P7 66 10.305
87 P7 67 12.258
87 P7 68 12.746
87 P7 69 13.234
87 P7 70 13.234
87 P7 71 14.699
87 P7 72 16.652
87 P7 73 19.094
87 P7 74 21.047
87 P7 75 22.024
87 P7 76 22.512
87 P7 77 21.535
87 P7 78 19.582
87 P7 79 15.676
87 P7 80 9.328
87 P7 81 1.027
87 P7 82 -8.738
87 P7 83 -17.527
87 P7 84 -22.410
87 P7 85 -22.410
87 P7 86 -18.504
87 P7 87 -12.644
87 P7 88 -6.297
87 P7 89 -0.926
87 P7 90 4.445
87 P7 91 9.328
87 P7 92 14.211
87 P7 93 17.629
87 P7 94 19.582
87 P7 95 20.559
87 P7 96 21.047
87 P7 97 22.024
87 P7 98 23.488
87 P7 99 23.488
87 P7 100 21.535
87 P7 101 17.141
87 P7 102 10.793
87 P7 103 4.934
87 P7 104 0.051
87 P7 105 -3.855
87 P7 106 -6.785
87 P7 107 -9.715
87 P7 108 -13.621
87 P7 109 -17.527
87 P7 110 -21.434
87 P7 111 -23.387
87 P7 112 -22.898
87 P7 113 -20.945
87 P7 114 -16.551
87 P7 115 -10.691
87 P7 116 -5.809
87 P7 117 -1.414
87 P7 118 1.027
87 P7 119 2.492
87 P7 120 3.957
87 P7 121 4.934
87 P7 122 6.887
87 P7 123 9.328
87 P7 124 12.258
87 P7 125 13.723
87 P7 126 14.699
87 P7 127 15.188
87 P7 128 14.211
87 P7 129 12.258
87 P7 130 8.840
87 P7 131 3.957
87 P7 132 -1.414
87 P7 133 -5.320
87 P7 134 -7.273
87 P7 135 -7.273
87 P7 136 -5.320
87 P7 137 -3.367
87 P7 138 -3.367
87 P7 139 -4.344
87 P7 140 -5.809
87 P7 141 -5.809
87 P7 142 -4.344
87 P7 143 -1.414
87 P7 144 1.516
87 P7 145 4.934
87 P7 146 7.863
87 P7 147 11.281
87 P7 148 14.699
87 P7 149 17.629
87 P7 150 19.582
87 P7 151 19.582
87 P7 152 17.629
87 P7 153 14.211
87 P7 154 10.305
87 P7 155 7.375
87 P7 156 4.934
87 P7 157 2.492
87 P7 158 1.027
87 P7 159 -0.926
87 P7 160 -1.902
87 P7 161 -3.367
87 P7 162 -5.320
87 P7 163 -7.762
87 P7 164 -9.715
87 P7 165 -12.156
87 P7 166 -13.133
87 P7 167 -12.156
87 P7 168 -8.738
87 P7 169 -2.879
87 P7 170 4.934
87 P7 171 12.258
87 P7 172 19.094
87 P7 173 23.977
87 P7 174 26.418
87 P7 175 27.395
87 P7 176 25.930
87 P7 177 23.488
87 P7 178 20.070
87 P7 179 16.164
87 P7 180 12.746
87 P7 181 9.816
87 P7 182 7.863
87 P7 183 4.934
87 P7 184 1.027
87 P7 185 -4.832
87 P7 186 -10.203
87 P7 187 -15.086
87 P7 188 -17.527
87 P7 189 -17.039
87 P7 190 -15.086
87 P7 191 -12.644
87 P7 192 -9.715
87 P7 193 -7.762
87 P7 194 -4.832
87 P7 195 -1.414
87 P7 196 2.492
87 P7 197 6.399
87 P7 198 8.352
87 P7 199 9.816
87 P7 200 11.281
87 P7 201 12.746
87 P7 202 13.723
87 P7 203 13.723
87 P7 204 12.258
87 P7 205 7.863
87 P7 206 2.492
87 P7 207 -2.879
87 P7 208 -7.273
87 P7 209 -10.691
87 P7 210 -13.133
87 P7 211 -15.574
87 P7 212 -18.504
87 P7 213 -21.922
87 P7 214 -24.851
87 P7 215 -27.293
87 P7 216 -29.246
87 P7 217 -30.711
87 P7 218 -32.664
87 P7 219 -34.617
87 P7 220 -36.082
87 P7 221 -35.105
87 P7 222 -32.176
87 P7 223 -26.805
87 P7 224 -19.969
87 P7 225 -13.133
87 P7 226 -7.273
87 P7 227 -3.367
87 P7 228 -0.437
87 P7 229 2.492
87 P7 230 6.399
87 P7 231 10.305
87 P7 232 13.234
87 P7 233 14.699
87 P7 234 13.723
87 P7 235 10.793
87 P7 236 6.399
87 P7 237 1.516
87 P7 238 -3.367
87 P7 239 -7.762
87 P7 240 -11.180
87 P7 241 -13.621
87 P7 242 -16.062
87 P7 243 -18.992
87 P7 244 -23.875
87 P7 245 -30.223
87 P7 246 -36.082
87 P7 247 -40.476
87 P7 248 -42.918
87 P7 249 -43.894
87 P7 250 -42.918
87 P7 251 -40.965
87 P7 252 -36.082
87 P7 253 -27.781
87 P7 254 -16.062
87 P7 255 -3.367
# PO2 chan 27
87 PO2 0 6.195
87 PO2 1 3.754
87 PO2 2 2.777
87 PO2 3 3.265
87 PO2 4 4.730
87 PO2 5 5.707
87 PO2 6 4.730
87 PO2 7 3.754
87 PO2 8 2.777
87 PO2 9 2.289
87 PO2 10 1.312
87 PO2 11 -0.641
87 PO2 12 -5.035
87 PO2 13 -11.383
87 PO2 14 -18.707
87 PO2 15 -25.543
87 PO2 16 -30.914
87 PO2 17 -34.332
87 PO2 18 -34.821
87 PO2 19 -31.891
87 PO2 20 -24.567
87 PO2 21 -12.848
87 PO2 22 1.801
87 PO2 23 17.914
87 PO2 24 30.609
87 PO2 25 38.422
87 PO2 26 39.886
87 PO2 27 35.492
87 PO2 28 27.679
87 PO2 29 19.379
87 PO2 30 11.566
87 PO2 31 6.195
87 PO2 32 0.824
87 PO2 33 -4.059
87 PO2 34 -9.430
87 PO2 35 -14.313
87 PO2 36 -17.731
87 PO2 37 -19.196
87 PO2 38 -19.196
87 PO2 39 -17.242
87 PO2 40 -15.289
87 PO2 41 -12.848
87 PO2 42 -10.895
87 PO2 43 -8.942
87 PO2 44 -7.477
87 PO2 45 -6.989
87 PO2 46 -6.500
87 PO2 47 -4.547
87 PO2 48 -1.129
87 PO2 49 3.265
87 PO2 50 7.660
87 PO2 51 9.125
87 PO2 52 8.148
87 PO2 53 3.754
87 PO2 54 -2.594
87 PO2 55 -8.942
87 PO2 56 -14.801
87 PO2 57 -18.707
87 PO2 58 -20.660
87 PO2 59 -20.172
87 PO2 60 -17.242
87 PO2 61 -12.848
87 PO2 62 -9.430
87 PO2 63 -6.500
87 PO2 64 -4.547
87 PO2 65 -2.594
87 PO2 66 -0.641
87 PO2 67 2.777
87 PO2 68 6.195
87 PO2 69 9.125
87 PO2 70 11.566
87 PO2 71 14.984
87 PO2 72 19.867
87 PO2 73 24.750
87 PO2 74 29.633
87 PO2 75 32.562
87 PO2 76 32.074
87 PO2 77 29.144
87 PO2 78 24.750
87 PO2 79 18.890
87 PO2 80 12.543
87 PO2 81 5.219
87 PO2 82 -2.106
87 PO2 83 -8.453
87 PO2 84 -11.871
87 PO2 85 -12.360
87 PO2 86 -9.430
87 PO2 87 -4.547
87 PO2 88 1.312
87 PO2 89 6.195
87 PO2 90 10.101
87 PO2 91 13.519
87 PO2 92 15.961
87 PO2 93 16.937
87 PO2 94 16.449
87 PO2 95 14.496
87 PO2 96 12.054
87 PO2 97 11.566
87 PO2 98 12.543
87 PO2 99 14.008
87 PO2 100 14.008
87 PO2 101 11.566
87 PO2 102 7.172
87 PO2 103 2.289
87 PO2 104 -0.641
87 PO2 105 -2.594
87 PO2 106 -3.082
87 PO2 107 -5.035
87 PO2 108 -7.965
87 PO2 109 -11.871
87 PO2 110 -15.778
87 PO2 111 -17.731
87 PO2 112 -17.242
87 PO2 113 -14.801
87 PO2 114 -12.360
87 PO2 115 -9.918
87 PO2 116 -8.453
87 PO2 117 -7.965
87 PO2 118 -7.477
87 PO2 119 -6.012
87 PO2 120 -4.547
87 PO2 121 -3.082
87 PO2 122 -1.617
87 PO2 123 -0.641
87 PO2 124 -0.641
87 PO2 125 0.336
87 PO2 126 2.777
87 PO2 127 5.707
87 PO2 128 9.125
87 PO2 129 11.078
87 PO2 130 11.078
87 PO2 131 9.125
87 PO2 132 5.707
87 PO2 133 2.777
87 PO2 134 1.312
