# co2c0000387.rd
# 120 trials, 64 chans, 416 samples 368 post_stim samples
# 3.906000 msecs uV
# S2 match , trial 51
# FP1 chan 0
51 FP1 0 -0.610
51 FP1 1 -1.099
51 FP1 2 -0.610
51 FP1 3 -0.122
51 FP1 4 0.854
51 FP1 5 1.831
51 FP1 6 2.808
51 FP1 7 3.784
51 FP1 8 3.296
51 FP1 9 3.296
51 FP1 10 2.319
51 FP1 11 1.831
51 FP1 12 0.854
51 FP1 13 -0.122
51 FP1 14 -1.587
51 FP1 15 -2.563
51 FP1 16 -3.052
51 FP1 17 -2.563
51 FP1 18 -1.099
51 FP1 19 0.854
51 FP1 20 2.808
51 FP1 21 3.784
51 FP1 22 4.761
51 FP1 23 5.249
51 FP1 24 5.249
51 FP1 25 5.249
51 FP1 26 4.761
51 FP1 27 4.272
51 FP1 28 4.272
51 FP1 29 3.296
51 FP1 30 2.808
51 FP1 31 1.831
51 FP1 32 0.854
51 FP1 33 0.366
51 FP1 34 0.854
51 FP1 35 1.831
51 FP1 36 2.808
51 FP1 37 3.784
51 FP1 38 4.272
51 FP1 39 3.784
51 FP1 40 3.296
51 FP1 41 3.296
51 FP1 42 3.296
51 FP1 43 3.296
51 FP1 44 3.296
51 FP1 45 1.831
51 FP1 46 0.366
51 FP1 47 -1.099
51 FP1 48 -1.099
51 FP1 49 -1.587
51 FP1 50 -2.563
51 FP1 51 -3.540
51 FP1 52 -4.517
51 FP1 53 -4.517
51 FP1 54 -3.540
51 FP1 55 -2.075
51 FP1 56 -1.099
51 FP1 57 -1.587
51 FP1 58 -2.563
51 FP1 59 -3.052
51 FP1 60 -1.587
51 FP1 61 1.343
51 FP1 62 4.761
51 FP1 63 7.202
51 FP1 64 7.690
51 FP1 65 6.226
51 FP1 66 4.761
51 FP1 67 4.272
51 FP1 68 5.737
51 FP1 69 6.714
51 FP1 70 7.690
51 FP1 71 7.202
51 FP1 72 5.249
51 FP1 73 2.319
51 FP1 74 -0.122
51 FP1 75 -2.075
51 FP1 76 -3.052
51 FP1 77 -4.517
51 FP1 78 -6.470
51 FP1 79 -8.911
51 FP1 80 -11.841
51 FP1 81 -14.282
51 FP1 82 -15.747
51 FP1 83 -15.747
51 FP1 84 -15.747
51 FP1 85 -16.724
51 FP1 86 -18.188
51 FP1 87 -19.653
51 FP1 88 -21.118
51 FP1 89 -21.118
51 FP1 90 -21.118
51 FP1 91 -20.142
51 FP1 92 -19.653
51 FP1 93 -19.165
51 FP1 94 -17.700
51 FP1 95 -16.235
51 FP1 96 -13.794
51 FP1 97 -12.329
51 FP1 98 -12.329
51 FP1 99 -12.817
51 FP1 100 -13.306
51 FP1 101 -12.817
51 FP1 102 -11.353
51 FP1 103 -9.888
51 FP1 104 -10.376
51 FP1 105 -11.841
51 FP1 106 -13.306
51 FP1 107 -13.306
51 FP1 108 -11.353
51 FP1 109 -8.911
51 FP1 110 -7.446
51 FP1 111 -8.423
51 FP1 112 -10.864
51 FP1 113 -12.817
51 FP1 114 -14.282
51 FP1 115 -14.282
51 FP1 116 -14.282
51 FP1 117 -14.771
51 FP1 118 -16.235
51 FP1 119 -16.724
51 FP1 120 -15.747
51 FP1 121 -13.794
51 FP1 122 -11.841
51 FP1 123 -10.864
51 FP1 124 -11.353
51 FP1 125 -12.817
51 FP1 126 -13.794
51 FP1 127 -14.282
51 FP1 128 -14.282
51 FP1 129 -14.282
51 FP1 130 -13.794
51 FP1 131 -12.329
51 FP1 132 -9.888
51 FP1 133 -6.470
51 FP1 134 -4.028
51 FP1 135 -3.052
51 FP1 136 -3.540
51 FP1 137 -5.493
51 FP1 138 -7.446
51 FP1 139 -7.446
51 FP1 140 -5.981
51 FP1 141 -4.028
51 FP1 142 -3.540
51 FP1 143 -3.052
51 FP1 144 -3.052
51 FP1 145 -2.075
51 FP1 146 -0.610
51 FP1 147 0.854
51 FP1 148 0.366
51 FP1 149 -1.587
51 FP1 150 -4.028
51 FP1 151 -4.517
51 FP1 152 -3.052
51 FP1 153 -1.099
51 FP1 154 -0.122
51 FP1 155 -0.610
51 FP1 156 -2.563
51 FP1 157 -4.028
51 FP1 158 -3.540
51 FP1 159 -1.099
51 FP1 160 1.343
51 FP1 161 3.296
51 FP1 162 2.808
51 FP1 163 0.854
51 FP1 164 -1.587
51 FP1 165 -2.563
51 FP1 166 -3.540
51 FP1 167 -4.028
51 FP1 168 -5.493
51 FP1 169 -6.958
51 FP1 170 -8.423
51 FP1 171 -7.446
51 FP1 172 -3.540
51 FP1 173 1.343
51 FP1 174 5.249
51 FP1 175 5.737
51 FP1 176 3.296
51 FP1 177 -1.099
51 FP1 178 -4.517
51 FP1 179 -5.493
51 FP1 180 -4.517
51 FP1 181 -3.540
51 FP1 182 -4.028
51 FP1 183 -4.517
51 FP1 184 -5.493
51 FP1 185 -5.493
51 FP1 186 -4.028
51 FP1 187 -3.052
51 FP1 188 -1.099
51 FP1 189 -0.122
51 FP1 190 -0.122
51 FP1 191 -0.122
51 FP1 192 -0.610
51 FP1 193 -0.610
51 FP1 194 -0.610
51 FP1 195 0.366
51 FP1 196 0.366
51 FP1 197 0.854
51 FP1 198 0.366
51 FP1 199 -0.610
51 FP1 200 -2.075
51 FP1 201 -3.540
51 FP1 202 -4.517
51 FP1 203 -5.005
51 FP1 204 -5.005
51 FP1 205 -5.005
51 FP1 206 -4.028
51 FP1 207 -2.075
51 FP1 208 0.854
51 FP1 209 2.808
51 FP1 210 2.808
51 FP1 211 1.343
51 FP1 212 -1.587
51 FP1 213 -3.540
51 FP1 214 -3.540
51 FP1 215 -2.563
51 FP1 216 -1.587
51 FP1 217 -1.587
51 FP1 218 -3.540
51 FP1 219 -5.981
51 FP1 220 -6.958
51 FP1 221 -5.981
51 FP1 222 -2.563
51 FP1 223 0.854
51 FP1 224 3.784
51 FP1 225 4.761
51 FP1 226 4.272
51 FP1 227 3.296
51 FP1 228 2.808
51 FP1 229 2.808
51 FP1 230 2.808
51 FP1 231 1.831
51 FP1 232 0.366
51 FP1 233 -1.099
51 FP1 234 -2.075
51 FP1 235 -1.587
51 FP1 236 0.366
51 FP1 237 2.319
51 FP1 238 3.296
51 FP1 239 2.808
51 FP1 240 0.854
51 FP1 241 -1.587
51 FP1 242 -3.052
51 FP1 243 -4.028
51 FP1 244 -5.493
51 FP1 245 -6.958
51 FP1 246 -8.911
51 FP1 247 -9.399
51 FP1 248 -8.423
51 FP1 249 -5.981
51 FP1 250 -3.052
51 FP1 251 -0.610
51 FP1 252 0.854
51 FP1 253 2.808
51 FP1 254 4.272
51 FP1 255 4.761
# FP2 chan 1
51 FP2 0 0.173
51 FP2 1 0.173
51 FP2 2 1.638
51 FP2 3 2.614
51 FP2 4 3.591
51 FP2 5 4.079
51 FP2 6 5.056
51 FP2 7 6.032
51 FP2 8 6.521
51 FP2 9 6.521
51 FP2 10 5.544
51 FP2 11 3.591
51 FP2 12 2.126
51 FP2 13 0.661
51 FP2 14 -1.780
51 FP2 15 -3.733
51 FP2 16 -5.686
51 FP2 17 -5.686
51 FP2 18 -4.222
51 FP2 19 -1.780
51 FP2 20 1.149
51 FP2 21 3.591
51 FP2 22 4.079
51 FP2 23 4.567
51 FP2 24 5.056
51 FP2 25 5.056
51 FP2 26 6.032
51 FP2 27 6.032
51 FP2 28 5.056
51 FP2 29 2.614
51 FP2 30 -0.315
51 FP2 31 -3.245
51 FP2 32 -4.710
51 FP2 33 -4.710
51 FP2 34 -3.733
51 FP2 35 -1.292
51 FP2 36 0.173
51 FP2 37 0.173
51 FP2 38 -0.315
51 FP2 39 -0.804
51 FP2 40 -0.315
51 FP2 41 0.661
51 FP2 42 2.126
51 FP2 43 1.149
51 FP2 44 -0.804
51 FP2 45 -4.222
51 FP2 46 -7.151
51 FP2 47 -7.151
51 FP2 48 -5.686
51 FP2 49 -3.245
51 FP2 50 -1.780
51 FP2 51 -0.315
51 FP2 52 0.173
51 FP2 53 1.638
51 FP2 54 3.103
51 FP2 55 4.079
51 FP2 56 4.079
51 FP2 57 2.126
51 FP2 58 -0.315
51 FP2 59 -1.292
51 FP2 60 -0.315
51 FP2 61 1.638
51 FP2 62 4.567
51 FP2 63 5.544
51 FP2 64 6.032
51 FP2 65 5.544
51 FP2 66 4.567
51 FP2 67 4.567
51 FP2 68 4.079
51 FP2 69 3.103
51 FP2 70 1.638
51 FP2 71 0.661
51 FP2 72 1.149
51 FP2 73 1.638
51 FP2 74 2.126
51 FP2 75 0.661
51 FP2 76 -2.268
51 FP2 77 -6.663
51 FP2 78 -10.569
51 FP2 79 -13.499
51 FP2 80 -14.476
51 FP2 81 -13.987
51 FP2 82 -13.499
51 FP2 83 -13.011
51 FP2 84 -13.011
51 FP2 85 -14.476
51 FP2 86 -15.452
51 FP2 87 -16.917
51 FP2 88 -17.893
51 FP2 89 -18.870
51 FP2 90 -18.870
51 FP2 91 -17.405
51 FP2 92 -15.940
51 FP2 93 -13.987
51 FP2 94 -13.011
51 FP2 95 -12.522
51 FP2 96 -13.011
51 FP2 97 -13.499
51 FP2 98 -13.011
51 FP2 99 -12.522
51 FP2 100 -11.058
51 FP2 101 -10.081
51 FP2 102 -9.593
51 FP2 103 -10.081
51 FP2 104 -10.569
51 FP2 105 -11.058
51 FP2 106 -10.569
51 FP2 107 -9.104
51 FP2 108 -7.640
51 FP2 109 -6.663
51 FP2 110 -6.175
51 FP2 111 -7.151
51 FP2 112 -8.128
51 FP2 113 -9.593
51 FP2 114 -10.569
51 FP2 115 -13.011
51 FP2 116 -14.964
51 FP2 117 -16.917
51 FP2 118 -17.405
51 FP2 119 -16.429
51 FP2 120 -14.476
51 FP2 121 -12.034
51 FP2 122 -11.058
51 FP2 123 -11.058
51 FP2 124 -12.034
51 FP2 125 -12.522
51 FP2 126 -12.522
51 FP2 127 -12.034
51 FP2 128 -11.058
51 FP2 129 -10.569
51 FP2 130 -10.081
51 FP2 131 -8.128
51 FP2 132 -5.686
51 FP2 133 -2.757
51 FP2 134 -0.804
51 FP2 135 -0.804
51 FP2 136 -1.780
51 FP2 137 -3.733
51 FP2 138 -5.686
51 FP2 139 -6.175
51 FP2 140 -5.686
51 FP2 141 -4.710
51 FP2 142 -3.245
51 FP2 143 -1.292
51 FP2 144 -0.315
51 FP2 145 1.149
51 FP2 146 3.103
51 FP2 147 4.079
51 FP2 148 4.567
51 FP2 149 3.591
51 FP2 150 1.149
51 FP2 151 -1.292
51 FP2 152 -2.757
51 FP2 153 -2.757
51 FP2 154 -1.780
51 FP2 155 -0.804
51 FP2 156 -0.315
51 FP2 157 -0.315
51 FP2 158 -0.315
51 FP2 159 0.173
51 FP2 160 1.149
51 FP2 161 2.614
51 FP2 162 3.591
51 FP2 163 3.591
51 FP2 164 2.614
51 FP2 165 1.149
51 FP2 166 -0.804
51 FP2 167 -2.268
51 FP2 168 -4.710
51 FP2 169 -7.151
51 FP2 170 -9.104
51 FP2 171 -8.616
51 FP2 172 -5.686
51 FP2 173 -1.780
51 FP2 174 1.638
51 FP2 175 3.591
51 FP2 176 2.614
51 FP2 177 -0.804
51 FP2 178 -4.710
51 FP2 179 -7.640
51 FP2 180 -9.593
51 FP2 181 -9.104
51 FP2 182 -8.128
51 FP2 183 -5.686
51 FP2 184 -4.222
51 FP2 185 -2.757
51 FP2 186 -2.757
51 FP2 187 -2.757
51 FP2 188 -2.268
51 FP2 189 -0.804
51 FP2 190 0.173
51 FP2 191 0.661
51 FP2 192 -0.804
51 FP2 193 -2.268
51 FP2 194 -3.245
51 FP2 195 -2.757
51 FP2 196 -0.804
51 FP2 197 0.173
51 FP2 198 0.173
51 FP2 199 -2.268
51 FP2 200 -5.198
51 FP2 201 -7.151
51 FP2 202 -8.128
51 FP2 203 -8.616
51 FP2 204 -8.616
51 FP2 205 -8.616
51 FP2 206 -8.128
51 FP2 207 -6.663
51 FP2 208 -4.222
51 FP2 209 -2.268
51 FP2 210 -1.780
51 FP2 211 -2.757
51 FP2 212 -4.710
51 FP2 213 -5.686
51 FP2 214 -6.175
51 FP2 215 -5.198
51 FP2 216 -4.710
51 FP2 217 -5.198
51 FP2 218 -6.175
51 FP2 219 -6.663
51 FP2 220 -6.663
51 FP2 221 -5.198
51 FP2 222 -2.757
51 FP2 223 -0.804
51 FP2 224 0.661
51 FP2 225 1.638
51 FP2 226 2.126
51 FP2 227 2.614
51 FP2 228 2.126
51 FP2 229 1.638
51 FP2 230 0.173
51 FP2 231 -1.780
51 FP2 232 -2.757
51 FP2 233 -2.268
51 FP2 234 -1.780
51 FP2 235 -0.804
51 FP2 236 -0.315
51 FP2 237 -0.804
51 FP2 238 -1.292
51 FP2 239 -1.292
51 FP2 240 -0.804
51 FP2 241 0.173
51 FP2 242 -0.804
51 FP2 243 -3.733
51 FP2 244 -8.128
51 FP2 245 -12.034
51 FP2 246 -13.987
51 FP2 247 -13.499
51 FP2 248 -10.569
51 FP2 249 -7.151
51 FP2 250 -4.710
51 FP2 251 -3.245
51 FP2 252 -3.245
51 FP2 253 -2.757
51 FP2 254 -1.780
51 FP2 255 -1.780
# F7 chan 2
51 F7 0 -6.653
51 F7 1 -7.629
51 F7 2 -7.629
51 F7 3 -7.141
51 F7 4 -5.676
51 F7 5 -4.211
51 F7 6 -2.747
51 F7 7 -2.258
51 F7 8 -1.282
51 F7 9 -0.793
51 F7 10 -0.305
51 F7 11 -0.305
51 F7 12 0.183
51 F7 13 0.671
51 F7 14 0.671
51 F7 15 1.160
51 F7 16 1.160
51 F7 17 2.136
51 F7 18 3.113
51 F7 19 3.601
51 F7 20 3.601
51 F7 21 3.601
51 F7 22 3.113
51 F7 23 2.136
51 F7 24 2.136
51 F7 25 3.113
51 F7 26 4.089
51 F7 27 5.554
51 F7 28 5.066
51 F7 29 3.601
51 F7 30 1.160
51 F7 31 -1.282
51 F7 32 -1.770
51 F7 33 -0.793
51 F7 34 1.160
51 F7 35 3.113
51 F7 36 4.578
51 F7 37 5.554
51 F7 38 5.554
51 F7 39 5.066
51 F7 40 5.066
51 F7 41 4.578
51 F7 42 4.089
51 F7 43 4.089
51 F7 44 3.601
51 F7 45 3.601
51 F7 46 3.113
51 F7 47 2.625
51 F7 48 1.160
51 F7 49 -0.793
51 F7 50 -3.235
51 F7 51 -5.676
51 F7 52 -7.141
51 F7 53 -8.118
51 F7 54 -8.118
51 F7 55 -7.629
51 F7 56 -7.629
51 F7 57 -8.118
51 F7 58 -8.606
51 F7 59 -7.629
51 F7 60 -6.165
51 F7 61 -3.723
51 F7 62 -1.282
51 F7 63 0.183
51 F7 64 0.671
51 F7 65 0.183
51 F7 66 -0.305
51 F7 67 -1.282
51 F7 68 -2.258
51 F7 69 -4.211
51 F7 70 -5.676
51 F7 71 -7.141
51 F7 72 -7.629
51 F7 73 -8.118
51 F7 74 -8.118
51 F7 75 -8.606
51 F7 76 -10.071
51 F7 77 -12.024
51 F7 78 -12.512
51 F7 79 -13.000
51 F7 80 -13.000
51 F7 81 -13.000
51 F7 82 -13.489
51 F7 83 -14.954
51 F7 84 -16.418
51 F7 85 -18.372
51 F7 86 -19.836
51 F7 87 -21.301
51 F7 88 -21.790
51 F7 89 -21.790
51 F7 90 -21.301
51 F7 91 -19.836
51 F7 92 -18.372
51 F7 93 -17.395
51 F7 94 -16.907
51 F7 95 -16.907
51 F7 96 -16.418
51 F7 97 -15.930
51 F7 98 -15.442
51 F7 99 -13.977
51 F7 100 -13.489
51 F7 101 -13.000
51 F7 102 -12.512
51 F7 103 -12.512
51 F7 104 -12.024
51 F7 105 -12.512
51 F7 106 -12.512
51 F7 107 -12.512
51 F7 108 -12.024
51 F7 109 -10.559
51 F7 110 -9.094
51 F7 111 -7.629
51 F7 112 -6.653
51 F7 113 -6.653
51 F7 114 -7.629
51 F7 115 -9.094
51 F7 116 -10.559
51 F7 117 -11.536
51 F7 118 -12.024
51 F7 119 -11.536
51 F7 120 -10.559
51 F7 121 -10.071
51 F7 122 -10.559
51 F7 123 -11.047
51 F7 124 -12.512
51 F7 125 -13.489
51 F7 126 -13.977
51 F7 127 -14.465
51 F7 128 -13.000
51 F7 129 -11.536
51 F7 130 -9.583
51 F7 131 -7.629
51 F7 132 -7.141
51 F7 133 -7.629
51 F7 134 -8.118
51 F7 135 -8.118
51 F7 136 -7.629
51 F7 137 -6.653
51 F7 138 -7.141
51 F7 139 -7.629
51 F7 140 -8.118
51 F7 141 -7.629
51 F7 142 -6.653
51 F7 143 -6.165
51 F7 144 -6.165
51 F7 145 -6.653
51 F7 146 -7.141
51 F7 147 -6.653
51 F7 148 -6.653
51 F7 149 -7.141
51 F7 150 -9.094
51 F7 151 -10.559
51 F7 152 -11.047
51 F7 153 -9.094
51 F7 154 -7.141
51 F7 155 -5.676
51 F7 156 -5.188
51 F7 157 -6.165
51 F7 158 -6.653
51 F7 159 -5.676
51 F7 160 -3.723
51 F7 161 -2.258
51 F7 162 -1.770
51 F7 163 -2.747
51 F7 164 -5.188
51 F7 165 -7.141
51 F7 166 -8.118
51 F7 167 -8.606
51 F7 168 -8.606
51 F7 169 -8.606
51 F7 170 -9.094
51 F7 171 -8.118
51 F7 172 -5.188
51 F7 173 -1.770
51 F7 174 0.671
51 F7 175 0.183
51 F7 176 -2.747
51 F7 177 -6.165
51 F7 178 -7.629
51 F7 179 -5.676
51 F7 180 -2.747
51 F7 181 -0.793
51 F7 182 -2.258
51 F7 183 -6.653
51 F7 184 -11.536
51 F7 185 -13.489
51 F7 186 -12.024
51 F7 187 -7.629
51 F7 188 -2.747
51 F7 189 -0.305
51 F7 190 0.671
51 F7 191 -0.793
51 F7 192 -2.258
51 F7 193 -3.723
51 F7 194 -3.723
51 F7 195 -2.747
51 F7 196 -2.258
51 F7 197 -2.747
51 F7 198 -2.747
51 F7 199 -3.235
51 F7 200 -3.723
51 F7 201 -4.700
51 F7 202 -5.676
51 F7 203 -5.676
51 F7 204 -4.700
51 F7 205 -2.747
51 F7 206 -0.305
51 F7 207 1.648
51 F7 208 1.648
51 F7 209 -0.305
51 F7 210 -3.235
51 F7 211 -5.676
51 F7 212 -6.653
51 F7 213 -6.165
51 F7 214 -5.676
51 F7 215 -5.188
51 F7 216 -4.700
51 F7 217 -5.676
51 F7 218 -6.165
51 F7 219 -7.141
51 F7 220 -7.141
51 F7 221 -6.165
51 F7 222 -4.211
51 F7 223 -2.747
51 F7 224 -1.282
51 F7 225 -1.282
51 F7 226 -1.282
51 F7 227 -2.258
51 F7 228 -2.258
51 F7 229 -1.770
51 F7 230 -0.793
51 F7 231 0.183
51 F7 232 1.160
51 F7 233 1.648
51 F7 234 1.160
51 F7 235 0.671
51 F7 236 0.671
51 F7 237 0.183
51 F7 238 0.671
51 F7 239 0.183
51 F7 240 -0.305
51 F7 241 -0.793
51 F7 242 -1.282
51 F7 243 -1.282
51 F7 244 -2.258
51 F7 245 -3.235
51 F7 246 -4.211
51 F7 247 -4.700
51 F7 248 -4.700
51 F7 249 -3.723
51 F7 250 -3.723
51 F7 251 -3.723
51 F7 252 -3.723
51 F7 253 -2.747
51 F7 254 -0.793
51 F7 255 2.136
# F8 chan 3
51 F8 0 -2.340
51 F8 1 -1.363
51 F8 2 0.102
51 F8 3 2.055
51 F8 4 4.008
51 F8 5 4.985
51 F8 6 5.961
51 F8 7 5.961
51 F8 8 5.961
51 F8 9 4.496
51 F8 10 3.031
51 F8 11 1.567
51 F8 12 1.567
51 F8 13 1.078
51 F8 14 0.590
51 F8 15 -0.387
51 F8 16 -1.851
51 F8 17 -2.828
51 F8 18 -2.340
51 F8 19 -0.875
51 F8 20 1.567
51 F8 21 3.520
51 F8 22 4.008
51 F8 23 4.496
51 F8 24 4.008
51 F8 25 4.496
51 F8 26 4.496
51 F8 27 4.985
51 F8 28 4.496
51 F8 29 3.031
51 F8 30 1.078
51 F8 31 -1.363
51 F8 32 -3.805
51 F8 33 -4.781
51 F8 34 -5.758
51 F8 35 -5.269
51 F8 36 -4.293
51 F8 37 -2.828
51 F8 38 -1.363
51 F8 39 -0.387
51 F8 40 0.590
51 F8 41 1.078
51 F8 42 1.567
51 F8 43 0.590
51 F8 44 -1.363
51 F8 45 -4.293
51 F8 46 -6.734
51 F8 47 -7.222
51 F8 48 -5.758
51 F8 49 -3.316
51 F8 50 -0.387
51 F8 51 1.567
51 F8 52 2.543
51 F8 53 2.543
51 F8 54 3.520
51 F8 55 4.008
51 F8 56 4.008
51 F8 57 3.031
51 F8 58 1.078
51 F8 59 -0.387
51 F8 60 -1.363
51 F8 61 -1.363
51 F8 62 -0.387
51 F8 63 0.102
51 F8 64 0.590
51 F8 65 0.102
51 F8 66 -0.875
51 F8 67 -2.340
51 F8 68 -3.805
51 F8 69 -4.781
51 F8 70 -5.269
51 F8 71 -4.293
51 F8 72 -2.340
51 F8 73 -0.387
51 F8 74 1.078
51 F8 75 0.102
51 F8 76 -2.340
51 F8 77 -6.246
51 F8 78 -9.176
51 F8 79 -10.640
51 F8 80 -10.640
51 F8 81 -10.640
51 F8 82 -10.152
51 F8 83 -10.640
51 F8 84 -11.129
51 F8 85 -12.105
51 F8 86 -12.105
51 F8 87 -12.105
51 F8 88 -12.594
51 F8 89 -12.594
51 F8 90 -12.594
51 F8 91 -12.594
51 F8 92 -12.105
51 F8 93 -11.617
51 F8 94 -11.617
51 F8 95 -11.617
51 F8 96 -11.617
51 F8 97 -12.105
51 F8 98 -11.617
51 F8 99 -11.617
51 F8 100 -11.617
51 F8 101 -12.105
51 F8 102 -12.594
51 F8 103 -12.105
51 F8 104 -11.129
51 F8 105 -9.664
51 F8 106 -7.222
51 F8 107 -4.781
51 F8 108 -2.828
51 F8 109 -2.340
51 F8 110 -3.805
51 F8 111 -5.758
51 F8 112 -6.734
51 F8 113 -7.222
51 F8 114 -6.734
51 F8 115 -6.734
51 F8 116 -7.222
51 F8 117 -7.711
51 F8 118 -7.711
51 F8 119 -6.246
51 F8 120 -4.293
51 F8 121 -2.340
51 F8 122 -1.851
51 F8 123 -3.316
51 F8 124 -5.269
51 F8 125 -6.734
51 F8 126 -6.734
51 F8 127 -6.246
51 F8 128 -5.758
51 F8 129 -5.758
51 F8 130 -6.246
51 F8 131 -6.246
51 F8 132 -5.269
51 F8 133 -3.805
51 F8 134 -2.828
51 F8 135 -2.828
51 F8 136 -3.805
51 F8 137 -4.293
51 F8 138 -4.293
51 F8 139 -3.805
51 F8 140 -3.316
51 F8 141 -2.340
51 F8 142 -1.851
51 F8 143 -0.387
51 F8 144 0.590
51 F8 145 1.078
51 F8 146 1.078
51 F8 147 -0.387
51 F8 148 -1.851
51 F8 149 -2.828
51 F8 150 -3.316
51 F8 151 -2.340
51 F8 152 -1.851
51 F8 153 -1.363
51 F8 154 -0.875
51 F8 155 -0.387
51 F8 156 0.590
51 F8 157 1.567
51 F8 158 2.055
51 F8 159 1.567
51 F8 160 1.567
51 F8 161 1.078
51 F8 162 1.567
51 F8 163 2.055
51 F8 164 2.055
51 F8 165 1.078
51 F8 166 -1.851
51 F8 167 -5.269
51 F8 168 -8.687
51 F8 169 -11.129
51 F8 170 -12.594
51 F8 171 -11.129
51 F8 172 -8.687
51 F8 173 -6.246
51 F8 174 -3.805
51 F8 175 -2.828
51 F8 176 -4.293
51 F8 177 -6.734
51 F8 178 -9.664
51 F8 179 -12.594
51 F8 180 -14.547
51 F8 181 -14.547
51 F8 182 -13.570
51 F8 183 -12.105
51 F8 184 -9.664
51 F8 185 -7.711
51 F8 186 -5.758
51 F8 187 -3.805
51 F8 188 -1.851
51 F8 189 0.102
51 F8 190 1.567
51 F8 191 1.567
51 F8 192 0.590
51 F8 193 -0.875
51 F8 194 -1.363
51 F8 195 -0.875
51 F8 196 0.102
51 F8 197 0.590
51 F8 198 0.102
51 F8 199 -1.363
51 F8 200 -3.805
51 F8 201 -5.758
51 F8 202 -7.711
51 F8 203 -8.199
51 F8 204 -8.687
51 F8 205 -8.199
51 F8 206 -6.734
51 F8 207 -4.781
51 F8 208 -2.340
51 F8 209 -0.875
51 F8 210 -1.851
51 F8 211 -3.316
51 F8 212 -5.758
51 F8 213 -7.222
51 F8 214 -7.711
51 F8 215 -7.711
51 F8 216 -7.222
51 F8 217 -6.734
51 F8 218 -5.758
51 F8 219 -4.781
51 F8 220 -4.293
51 F8 221 -3.805
51 F8 222 -3.805
51 F8 223 -3.316
51 F8 224 -2.828
51 F8 225 -1.851
51 F8 226 -0.387
51 F8 227 -0.387
51 F8 228 -0.875
51 F8 229 -1.363
51 F8 230 -2.828
51 F8 231 -3.805
51 F8 232 -4.781
51 F8 233 -4.781
51 F8 234 -3.805
51 F8 235 -1.363
51 F8 236 1.567
51 F8 237 3.520
51 F8 238 3.520
51 F8 239 2.543
51 F8 240 0.102
51 F8 241 -1.363
51 F8 242 -2.340
51 F8 243 -3.316
51 F8 244 -4.781
51 F8 245 -6.734
51 F8 246 -8.687
51 F8 247 -9.664
51 F8 248 -8.199
51 F8 249 -6.246
51 F8 250 -3.316
51 F8 251 -1.851
51 F8 252 -2.340
51 F8 253 -3.805
51 F8 254 -5.269
51 F8 255 -5.758
# AF1 chan 4
51 AF1 0 -0.041
51 AF1 1 -1.017
51 AF1 2 -1.017
51 AF1 3 -0.041
51 AF1 4 1.424
51 AF1 5 2.401
51 AF1 6 3.377
51 AF1 7 3.377
51 AF1 8 3.377
51 AF1 9 2.889
51 AF1 10 2.401
51 AF1 11 1.424
51 AF1 12 0.936
51 AF1 13 0.448
51 AF1 14 -0.041
51 AF1 15 -1.017
51 AF1 16 -1.506
51 AF1 17 -1.017
51 AF1 18 -0.041
51 AF1 19 0.936
51 AF1 20 2.889
51 AF1 21 3.866
51 AF1 22 4.354
51 AF1 23 3.866
51 AF1 24 3.866
51 AF1 25 3.866
51 AF1 26 4.354
51 AF1 27 4.842
51 AF1 28 4.354
51 AF1 29 2.889
51 AF1 30 0.448
51 AF1 31 -1.994
51 AF1 32 -2.482
51 AF1 33 -1.506
51 AF1 34 0.448
51 AF1 35 2.889
51 AF1 36 3.866
51 AF1 37 4.354
51 AF1 38 4.354
51 AF1 39 3.377
51 AF1 40 2.889
51 AF1 41 2.401
51 AF1 42 1.912
51 AF1 43 1.424
51 AF1 44 0.448
51 AF1 45 -0.041
51 AF1 46 -0.041
51 AF1 47 0.936
51 AF1 48 1.912
51 AF1 49 1.912
51 AF1 50 1.912
51 AF1 51 0.448
51 AF1 52 -0.529
51 AF1 53 -1.017
51 AF1 54 -0.529
51 AF1 55 -0.041
51 AF1 56 -0.041
51 AF1 57 -0.529
51 AF1 58 -1.017
51 AF1 59 -0.041
51 AF1 60 1.912
51 AF1 61 4.842
51 AF1 62 7.772
51 AF1 63 9.237
51 AF1 64 9.725
51 AF1 65 9.237
51 AF1 66 8.260
51 AF1 67 7.772
51 AF1 68 6.795
51 AF1 69 5.819
51 AF1 70 4.842
51 AF1 71 3.866
51 AF1 72 3.866
51 AF1 73 3.377
51 AF1 74 2.401
51 AF1 75 0.936
51 AF1 76 -1.506
51 AF1 77 -3.459
51 AF1 78 -5.412
51 AF1 79 -6.877
51 AF1 80 -7.365
51 AF1 81 -8.341
51 AF1 82 -9.318
51 AF1 83 -10.783
51 AF1 84 -11.759
51 AF1 85 -13.224
51 AF1 86 -14.689
51 AF1 87 -15.666
51 AF1 88 -16.642
51 AF1 89 -17.619
51 AF1 90 -17.131
51 AF1 91 -15.177
51 AF1 92 -12.736
51 AF1 93 -9.806
51 AF1 94 -7.853
51 AF1 95 -7.365
51 AF1 96 -7.365
51 AF1 97 -7.853
51 AF1 98 -8.341
51 AF1 99 -7.853
51 AF1 100 -6.877
51 AF1 101 -5.900
51 AF1 102 -4.924
51 AF1 103 -4.924
51 AF1 104 -5.900
51 AF1 105 -6.877
51 AF1 106 -7.365
51 AF1 107 -6.877
51 AF1 108 -5.900
51 AF1 109 -4.435
51 AF1 110 -3.459
51 AF1 111 -3.459
51 AF1 112 -4.435
51 AF1 113 -5.412
51 AF1 114 -6.388
51 AF1 115 -7.853
51 AF1 116 -10.295
51 AF1 117 -12.736
51 AF1 118 -15.177
51 AF1 119 -15.666
51 AF1 120 -14.689
51 AF1 121 -12.736
51 AF1 122 -10.783
51 AF1 123 -9.806
51 AF1 124 -9.806
51 AF1 125 -10.783
51 AF1 126 -11.759
51 AF1 127 -11.271
51 AF1 128 -10.783
51 AF1 129 -10.295
51 AF1 130 -9.806
51 AF1 131 -8.341
51 AF1 132 -6.388
51 AF1 133 -4.924
51 AF1 134 -2.970
51 AF1 135 -1.994
51 AF1 136 -1.994
51 AF1 137 -2.970
51 AF1 138 -3.459
51 AF1 139 -4.435
51 AF1 140 -4.435
51 AF1 141 -3.459
51 AF1 142 -1.994
51 AF1 143 -0.041
51 AF1 144 1.424
51 AF1 145 2.401
51 AF1 146 2.889
51 AF1 147 1.912
51 AF1 148 0.936
51 AF1 149 -0.041
51 AF1 150 -1.017
51 AF1 151 -1.017
51 AF1 152 -1.017
51 AF1 153 -1.017
51 AF1 154 -0.529
51 AF1 155 -0.529
51 AF1 156 -0.041
51 AF1 157 -0.041
51 AF1 158 0.936
51 AF1 159 2.401
51 AF1 160 3.377
51 AF1 161 3.866
51 AF1 162 3.377
51 AF1 163 1.912
51 AF1 164 0.448
51 AF1 165 -0.041
51 AF1 166 -0.041
51 AF1 167 -0.041
51 AF1 168 0.448
51 AF1 169 -0.041
51 AF1 170 -0.529
51 AF1 171 -0.041
51 AF1 172 2.401
51 AF1 173 5.330
51 AF1 174 7.284
51 AF1 175 7.772
51 AF1 176 5.819
51 AF1 177 3.377
51 AF1 178 1.424
51 AF1 179 0.448
51 AF1 180 1.424
51 AF1 181 2.889
51 AF1 182 2.889
51 AF1 183 2.889
51 AF1 184 2.401
51 AF1 185 2.401
51 AF1 186 2.889
51 AF1 187 3.866
51 AF1 188 4.842
51 AF1 189 6.307
51 AF1 190 6.795
51 AF1 191 6.795
51 AF1 192 5.819
51 AF1 193 4.842
51 AF1 194 3.866
51 AF1 195 3.866
51 AF1 196 4.842
51 AF1 197 5.330
51 AF1 198 5.819
51 AF1 199 4.842
51 AF1 200 3.377
51 AF1 201 1.912
51 AF1 202 0.936
51 AF1 203 0.448
51 AF1 204 0.448
51 AF1 205 0.448
51 AF1 206 0.936
51 AF1 207 1.912
51 AF1 208 2.889
51 AF1 209 3.377
51 AF1 210 3.866
51 AF1 211 2.889
51 AF1 212 1.424
51 AF1 213 0.448
51 AF1 214 -0.041
51 AF1 215 0.448
51 AF1 216 0.936
51 AF1 217 1.424
51 AF1 218 0.936
51 AF1 219 0.448
51 AF1 220 -0.041
51 AF1 221 0.936
51 AF1 222 2.401
51 AF1 223 4.354
51 AF1 224 5.819
51 AF1 225 6.795
51 AF1 226 7.284
51 AF1 227 6.795
51 AF1 228 6.795
51 AF1 229 5.819
51 AF1 230 4.842
51 AF1 231 2.889
51 AF1 232 1.424
51 AF1 233 0.936
51 AF1 234 1.912
51 AF1 235 2.889
51 AF1 236 3.866
51 AF1 237 4.842
51 AF1 238 4.842
51 AF1 239 4.842
51 AF1 240 4.354
51 AF1 241 3.866
51 AF1 242 2.889
51 AF1 243 0.936
51 AF1 244 -1.017
51 AF1 245 -2.482
51 AF1 246 -3.459
51 AF1 247 -3.459
51 AF1 248 -2.482
51 AF1 249 -0.529
51 AF1 250 1.424
51 AF1 251 2.889
51 AF1 252 3.866
51 AF1 253 4.842
51 AF1 254 5.330
51 AF1 255 5.330
# AF2 chan 5
51 AF2 0 2.075
51 AF2 1 1.587
51 AF2 2 2.075
51 AF2 3 3.052
51 AF2 4 4.028
51 AF2 5 5.005
51 AF2 6 5.981
51 AF2 7 5.981
51 AF2 8 5.493
51 AF2 9 4.517
51 AF2 10 3.052
51 AF2 11 1.099
51 AF2 12 0.122
51 AF2 13 -0.854
51 AF2 14 -1.343
51 AF2 15 -2.319
51 AF2 16 -2.808
51 AF2 17 -3.296
51 AF2 18 -2.319
51 AF2 19 -0.854
51 AF2 20 1.099
51 AF2 21 2.075
51 AF2 22 2.563
51 AF2 23 2.563
51 AF2 24 2.563
51 AF2 25 2.563
51 AF2 26 3.540
51 AF2 27 4.517
51 AF2 28 4.028
51 AF2 29 2.075
51 AF2 30 -0.854
51 AF2 31 -3.784
51 AF2 32 -6.226
51 AF2 33 -6.226
51 AF2 34 -4.761
51 AF2 35 -1.831
51 AF2 36 0.610
51 AF2 37 2.075
51 AF2 38 1.587
51 AF2 39 0.610
51 AF2 40 0.122
51 AF2 41 -0.366
51 AF2 42 -0.366
51 AF2 43 -1.343
51 AF2 44 -2.808
51 AF2 45 -4.761
51 AF2 46 -6.226
51 AF2 47 -5.737
51 AF2 48 -3.296
51 AF2 49 -0.854
51 AF2 50 1.099
51 AF2 51 2.075
51 AF2 52 2.075
51 AF2 53 2.075
51 AF2 54 2.075
51 AF2 55 2.563
51 AF2 56 2.563
51 AF2 57 1.587
51 AF2 58 1.099
51 AF2 59 1.099
51 AF2 60 2.075
51 AF2 61 4.517
51 AF2 62 6.958
51 AF2 63 8.911
51 AF2 64 9.399
51 AF2 65 8.911
51 AF2 66 7.935
51 AF2 67 6.470
51 AF2 68 5.005
51 AF2 69 3.540
51 AF2 70 3.052
51 AF2 71 3.052
51 AF2 72 4.028
51 AF2 73 4.028
51 AF2 74 4.028
51 AF2 75 1.587
51 AF2 76 -1.343
51 AF2 77 -4.272
51 AF2 78 -6.714
51 AF2 79 -7.690
51 AF2 80 -8.179
51 AF2 81 -8.667
51 AF2 82 -9.155
51 AF2 83 -10.132
51 AF2 84 -10.620
51 AF2 85 -11.108
51 AF2 86 -11.597
51 AF2 87 -12.573
51 AF2 88 -14.038
51 AF2 89 -14.526
51 AF2 90 -13.550
51 AF2 91 -11.597
51 AF2 92 -9.155
51 AF2 93 -6.226
51 AF2 94 -4.761
51 AF2 95 -4.272
51 AF2 96 -4.761
51 AF2 97 -5.737
51 AF2 98 -6.714
51 AF2 99 -6.714
51 AF2 100 -6.226
51 AF2 101 -4.761
51 AF2 102 -3.784
51 AF2 103 -2.808
51 AF2 104 -2.808
51 AF2 105 -3.296
51 AF2 106 -3.296
51 AF2 107 -2.319
51 AF2 108 -0.854
51 AF2 109 0.122
51 AF2 110 0.122
51 AF2 111 -0.366
51 AF2 112 -1.343
51 AF2 113 -1.831
51 AF2 114 -2.319
51 AF2 115 -3.296
51 AF2 116 -5.737
51 AF2 117 -9.155
51 AF2 118 -12.085
51 AF2 119 -13.550
51 AF2 120 -12.573
51 AF2 121 -9.644
51 AF2 122 -7.202
51 AF2 123 -6.226
51 AF2 124 -6.714
51 AF2 125 -7.690
51 AF2 126 -7.690
51 AF2 127 -7.202
51 AF2 128 -6.714
51 AF2 129 -6.226
51 AF2 130 -6.714
51 AF2 131 -6.226
51 AF2 132 -4.761
51 AF2 133 -2.319
51 AF2 134 -0.366
51 AF2 135 0.122
51 AF2 136 -1.343
51 AF2 137 -3.784
51 AF2 138 -5.737
51 AF2 139 -5.737
51 AF2 140 -3.784
51 AF2 141 -1.343
51 AF2 142 0.610
51 AF2 143 2.563
51 AF2 144 3.540
51 AF2 145 4.028
51 AF2 146 5.005
51 AF2 147 4.517
51 AF2 148 3.540
51 AF2 149 2.075
51 AF2 150 0.122
51 AF2 151 -0.854
51 AF2 152 -0.854
51 AF2 153 -0.366
51 AF2 154 0.122
51 AF2 155 0.610
51 AF2 156 1.587
51 AF2 157 2.563
51 AF2 158 4.028
51 AF2 159 5.005
51 AF2 160 5.493
51 AF2 161 5.493
51 AF2 162 4.517
51 AF2 163 3.540
51 AF2 164 3.052
51 AF2 165 2.563
51 AF2 166 2.563
51 AF2 167 1.587
51 AF2 168 0.122
51 AF2 169 -1.831
51 AF2 170 -3.296
51 AF2 171 -2.808
51 AF2 172 -0.366
51 AF2 173 2.563
51 AF2 174 5.005
51 AF2 175 5.493
51 AF2 176 4.517
51 AF2 177 1.587
51 AF2 178 -1.343
51 AF2 179 -2.319
51 AF2 180 -2.319
51 AF2 181 -0.854
51 AF2 182 0.122
51 AF2 183 1.099
51 AF2 184 2.075
51 AF2 185 2.563
51 AF2 186 3.540
51 AF2 187 4.028
51 AF2 188 4.517
51 AF2 189 5.493
51 AF2 190 5.981
51 AF2 191 5.493
51 AF2 192 5.005
51 AF2 193 4.517
51 AF2 194 4.028
51 AF2 195 4.517
51 AF2 196 5.493
51 AF2 197 5.981
51 AF2 198 5.493
51 AF2 199 4.028
51 AF2 200 1.587
51 AF2 201 -0.854
51 AF2 202 -2.808
51 AF2 203 -3.784
51 AF2 204 -3.296
51 AF2 205 -2.808
51 AF2 206 -1.831
51 AF2 207 -0.366
51 AF2 208 1.099
51 AF2 209 2.563
51 AF2 210 3.052
51 AF2 211 2.563
51 AF2 212 1.099
51 AF2 213 -0.854
51 AF2 214 -1.831
51 AF2 215 -2.319
51 AF2 216 -1.343
51 AF2 217 -0.366
51 AF2 218 0.122
51 AF2 219 0.122
51 AF2 220 0.122
51 AF2 221 0.122
51 AF2 222 1.099
51 AF2 223 2.563
51 AF2 224 4.028
51 AF2 225 6.470
51 AF2 226 7.446
51 AF2 227 6.958
51 AF2 228 5.981
51 AF2 229 4.517
51 AF2 230 2.563
51 AF2 231 0.610
51 AF2 232 -0.854
51 AF2 233 -0.854
51 AF2 234 -0.366
51 AF2 235 1.099
51 AF2 236 3.052
51 AF2 237 4.517
51 AF2 238 5.005
51 AF2 239 4.517
51 AF2 240 3.540
51 AF2 241 1.587
51 AF2 242 -0.854
51 AF2 243 -2.808
51 AF2 244 -4.272
51 AF2 245 -5.249
51 AF2 246 -5.737
51 AF2 247 -5.737
51 AF2 248 -4.272
51 AF2 249 -2.319
51 AF2 250 0.122
51 AF2 251 1.587
51 AF2 252 2.563
51 AF2 253 2.563
51 AF2 254 2.563
51 AF2 255 2.075
# FZ chan 6
51 FZ 0 1.668
51 FZ 1 1.180
51 FZ 2 1.180
51 FZ 3 2.157
51 FZ 4 3.621
51 FZ 5 4.598
51 FZ 6 5.086
51 FZ 7 4.598
51 FZ 8 3.621
51 FZ 9 2.645
51 FZ 10 2.157
51 FZ 11 1.180
51 FZ 12 1.180
51 FZ 13 1.180
51 FZ 14 1.180
51 FZ 15 1.180
51 FZ 16 1.180
51 FZ 17 1.180
51 FZ 18 1.668
51 FZ 19 2.157
51 FZ 20 2.645
51 FZ 21 3.133
51 FZ 22 3.133
51 FZ 23 3.133
51 FZ 24 3.621
51 FZ 25 4.110
51 FZ 26 4.110
51 FZ 27 4.598
51 FZ 28 4.598
51 FZ 29 3.133
51 FZ 30 1.180
51 FZ 31 -1.261
51 FZ 32 -2.726
51 FZ 33 -2.238
51 FZ 34 -0.773
51 FZ 35 1.668
51 FZ 36 3.621
51 FZ 37 4.110
51 FZ 38 4.110
51 FZ 39 3.133
51 FZ 40 2.645
51 FZ 41 2.157
51 FZ 42 2.157
51 FZ 43 1.180
51 FZ 44 0.203
51 FZ 45 -0.773
51 FZ 46 -0.773
51 FZ 47 0.692
51 FZ 48 2.645
51 FZ 49 4.110
51 FZ 50 4.110
51 FZ 51 3.133
51 FZ 52 2.157
51 FZ 53 1.668
51 FZ 54 2.157
51 FZ 55 2.645
51 FZ 56 3.133
51 FZ 57 2.645
51 FZ 58 2.645
51 FZ 59 3.133
51 FZ 60 4.598
51 FZ 61 7.039
51 FZ 62 8.993
51 FZ 63 10.457
51 FZ 64 10.457
51 FZ 65 9.481
51 FZ 66 8.504
51 FZ 67 7.528
51 FZ 68 7.039
51 FZ 69 6.063
51 FZ 70 5.086
51 FZ 71 4.598
51 FZ 72 4.598
51 FZ 73 4.598
51 FZ 74 4.598
51 FZ 75 3.133
51 FZ 76 1.180
51 FZ 77 -1.261
51 FZ 78 -3.215
51 FZ 79 -4.191
51 FZ 80 -4.191
51 FZ 81 -4.679
51 FZ 82 -4.679
51 FZ 83 -5.656
51 FZ 84 -5.656
51 FZ 85 -6.632
51 FZ 86 -7.121
51 FZ 87 -8.097
51 FZ 88 -8.586
51 FZ 89 -8.586
51 FZ 90 -8.097
51 FZ 91 -6.144
51 FZ 92 -3.215
51 FZ 93 -0.773
51 FZ 94 0.692
51 FZ 95 0.692
51 FZ 96 -0.285
51 FZ 97 -1.261
51 FZ 98 -2.238
51 FZ 99 -2.238
51 FZ 100 -1.261
51 FZ 101 -0.285
51 FZ 102 0.692
51 FZ 103 1.180
51 FZ 104 0.692
51 FZ 105 0.203
51 FZ 106 -0.285
51 FZ 107 0.203
51 FZ 108 1.180
51 FZ 109 2.157
51 FZ 110 2.645
51 FZ 111 2.157
51 FZ 112 1.180
51 FZ 113 0.203
51 FZ 114 -0.773
51 FZ 115 -1.750
51 FZ 116 -4.191
51 FZ 117 -6.632
51 FZ 118 -9.074
51 FZ 119 -10.539
51 FZ 120 -10.050
51 FZ 121 -8.097
51 FZ 122 -6.144
51 FZ 123 -4.679
51 FZ 124 -4.679
51 FZ 125 -4.679
51 FZ 126 -4.679
51 FZ 127 -4.679
51 FZ 128 -4.679
51 FZ 129 -4.679
51 FZ 130 -4.191
51 FZ 131 -3.703
51 FZ 132 -2.726
51 FZ 133 -1.261
51 FZ 134 0.203
51 FZ 135 0.692
51 FZ 136 0.203
51 FZ 137 -0.773
51 FZ 138 -1.750
51 FZ 139 -2.238
51 FZ 140 -2.238
51 FZ 141 -1.261
51 FZ 142 0.203
51 FZ 143 1.668
51 FZ 144 3.133
51 FZ 145 4.110
51 FZ 146 4.598
51 FZ 147 4.110
51 FZ 148 3.621
51 FZ 149 2.645
51 FZ 150 1.668
51 FZ 151 1.180
51 FZ 152 1.180
51 FZ 153 1.180
51 FZ 154 1.180
51 FZ 155 0.692
51 FZ 156 1.668
51 FZ 157 2.645
51 FZ 158 3.621
51 FZ 159 4.110
51 FZ 160 5.086
51 FZ 161 5.575
51 FZ 162 5.086
51 FZ 163 4.598
51 FZ 164 4.110
51 FZ 165 3.621
51 FZ 166 3.621
51 FZ 167 4.110
51 FZ 168 4.110
51 FZ 169 3.621
51 FZ 170 3.133
51 FZ 171 3.133
51 FZ 172 4.110
51 FZ 173 5.575
51 FZ 174 7.528
51 FZ 175 8.016
51 FZ 176 7.039
51 FZ 177 5.575
51 FZ 178 4.598
51 FZ 179 4.110
51 FZ 180 4.110
51 FZ 181 5.086
51 FZ 182 6.551
51 FZ 183 7.528
51 FZ 184 7.039
51 FZ 185 7.039
51 FZ 186 7.528
51 FZ 187 7.528
51 FZ 188 8.504
51 FZ 189 9.481
51 FZ 190 9.481
51 FZ 191 9.481
51 FZ 192 8.993
51 FZ 193 8.016
51 FZ 194 7.039
51 FZ 195 7.039
51 FZ 196 7.528
51 FZ 197 8.016
51 FZ 198 8.016
51 FZ 199 7.039
51 FZ 200 6.063
51 FZ 201 5.086
51 FZ 202 4.598
51 FZ 203 4.598
51 FZ 204 4.110
51 FZ 205 4.598
51 FZ 206 4.598
51 FZ 207 4.598
51 FZ 208 5.575
51 FZ 209 6.063
51 FZ 210 6.063
51 FZ 211 5.575
51 FZ 212 5.086
51 FZ 213 4.110
51 FZ 214 4.110
51 FZ 215 4.110
51 FZ 216 4.598
51 FZ 217 5.086
51 FZ 218 5.086
51 FZ 219 5.086
51 FZ 220 4.598
51 FZ 221 5.086
51 FZ 222 6.551
51 FZ 223 8.016
51 FZ 224 8.993
51 FZ 225 9.969
51 FZ 226 10.457
51 FZ 227 9.969
51 FZ 228 8.993
51 FZ 229 7.528
51 FZ 230 6.063
51 FZ 231 4.598
51 FZ 232 3.621
51 FZ 233 3.621
51 FZ 234 4.598
51 FZ 235 5.575
51 FZ 236 6.551
51 FZ 237 7.039
51 FZ 238 7.528
51 FZ 239 7.039
51 FZ 240 7.039
51 FZ 241 6.551
51 FZ 242 5.575
51 FZ 243 4.110
51 FZ 244 2.645
51 FZ 245 1.180
51 FZ 246 0.692
51 FZ 247 0.692
51 FZ 248 1.668
51 FZ 249 2.645
51 FZ 250 4.110
51 FZ 251 5.575
51 FZ 252 6.551
51 FZ 253 7.039
51 FZ 254 7.039
51 FZ 255 6.551
# F4 chan 7
51 F4 0 2.513
51 F4 1 3.001
51 F4 2 3.977
51 F4 3 4.954
51 F4 4 5.442
51 F4 5 5.442
51 F4 6 4.954
51 F4 7 4.954
51 F4 8 3.977
51 F4 9 3.001
51 F4 10 2.024
51 F4 11 1.048
51 F4 12 0.559
51 F4 13 0.559
51 F4 14 -0.417
51 F4 15 -0.905
51 F4 16 -1.882
51 F4 17 -2.370
51 F4 18 -1.882
51 F4 19 -0.417
51 F4 20 1.048
51 F4 21 2.024
51 F4 22 2.513
51 F4 23 2.513
51 F4 24 2.513
51 F4 25 2.513
51 F4 26 3.001
51 F4 27 3.977
51 F4 28 3.489
51 F4 29 2.024
51 F4 30 -0.417
51 F4 31 -3.835
51 F4 32 -5.788
51 F4 33 -6.276
51 F4 34 -5.788
51 F4 35 -3.835
51 F4 36 -1.394
51 F4 37 0.071
51 F4 38 0.559
51 F4 39 0.559
51 F4 40 0.559
51 F4 41 0.071
51 F4 42 -0.417
51 F4 43 -1.882
51 F4 44 -3.835
51 F4 45 -5.788
51 F4 46 -6.765
51 F4 47 -5.300
51 F4 48 -3.347
51 F4 49 0.071
51 F4 50 1.536
51 F4 51 2.513
51 F4 52 2.513
51 F4 53 3.001
51 F4 54 3.489
51 F4 55 4.466
51 F4 56 3.977
51 F4 57 2.513
51 F4 58 1.048
51 F4 59 0.559
51 F4 60 1.536
51 F4 61 3.489
51 F4 62 5.931
51 F4 63 7.884
51 F4 64 8.372
51 F4 65 7.884
51 F4 66 6.419
51 F4 67 4.954
51 F4 68 3.001
51 F4 69 1.536
51 F4 70 1.048
51 F4 71 2.024
51 F4 72 3.489
51 F4 73 4.466
51 F4 74 4.954
51 F4 75 3.977
51 F4 76 1.536
51 F4 77 -1.394
51 F4 78 -3.835
51 F4 79 -4.812
51 F4 80 -4.812
51 F4 81 -4.812
51 F4 82 -4.812
51 F4 83 -5.300
51 F4 84 -5.788
51 F4 85 -6.765
51 F4 86 -7.741
51 F4 87 -8.718
51 F4 88 -9.206
51 F4 89 -8.718
51 F4 90 -7.253
51 F4 91 -5.300
51 F4 92 -2.370
51 F4 93 -0.417
51 F4 94 1.048
51 F4 95 1.048
51 F4 96 0.071
51 F4 97 -0.905
51 F4 98 -1.882
51 F4 99 -2.858
51 F4 100 -2.858
51 F4 101 -2.370
51 F4 102 -0.905
51 F4 103 0.071
51 F4 104 1.048
51 F4 105 1.536
51 F4 106 2.513
51 F4 107 3.001
51 F4 108 3.977
51 F4 109 3.977
51 F4 110 3.489
51 F4 111 3.001
51 F4 112 2.513
51 F4 113 2.513
51 F4 114 2.513
51 F4 115 1.048
51 F4 116 -0.905
51 F4 117 -4.323
51 F4 118 -6.765
51 F4 119 -7.741
51 F4 120 -6.276
51 F4 121 -3.835
51 F4 122 -1.882
51 F4 123 -1.394
51 F4 124 -1.394
51 F4 125 -2.370
51 F4 126 -2.858
51 F4 127 -2.858
51 F4 128 -2.858
51 F4 129 -3.347
51 F4 130 -3.347
51 F4 131 -2.858
51 F4 132 -0.905
51 F4 133 1.048
51 F4 134 1.536
51 F4 135 1.048
51 F4 136 -1.394
51 F4 137 -3.347
51 F4 138 -4.323
51 F4 139 -3.835
51 F4 140 -2.370
51 F4 141 -0.417
51 F4 142 1.048
51 F4 143 2.024
51 F4 144 3.001
51 F4 145 3.977
51 F4 146 4.466
51 F4 147 4.466
51 F4 148 3.489
51 F4 149 2.024
51 F4 150 1.048
51 F4 151 0.071
51 F4 152 -0.417
51 F4 153 -0.417
51 F4 154 0.071
51 F4 155 1.048
51 F4 156 3.001
51 F4 157 3.977
51 F4 158 5.442
51 F4 159 5.931
51 F4 160 5.931
51 F4 161 5.442
51 F4 162 5.442
51 F4 163 4.954
51 F4 164 4.466
51 F4 165 3.489
51 F4 166 2.513
51 F4 167 1.048
51 F4 168 0.071
51 F4 169 -1.394
51 F4 170 -1.882
51 F4 171 -1.394
51 F4 172 0.071
51 F4 173 2.024
51 F4 174 3.489
51 F4 175 3.489
51 F4 176 3.001
51 F4 177 1.048
51 F4 178 -1.394
51 F4 179 -2.370
51 F4 180 -2.858
51 F4 181 -1.394
51 F4 182 0.071
51 F4 183 2.024
51 F4 184 3.001
51 F4 185 3.489
51 F4 186 3.977
51 F4 187 4.466
51 F4 188 5.931
51 F4 189 6.419
51 F4 190 6.419
51 F4 191 6.419
51 F4 192 5.442
51 F4 193 4.954
51 F4 194 4.466
51 F4 195 4.954
51 F4 196 5.931
51 F4 197 5.931
51 F4 198 5.931
51 F4 199 3.977
51 F4 200 2.024
51 F4 201 0.071
51 F4 202 -1.394
51 F4 203 -1.394
51 F4 204 -1.394
51 F4 205 -0.905
51 F4 206 0.071
51 F4 207 0.559
51 F4 208 1.536
51 F4 209 2.513
51 F4 210 3.001
51 F4 211 3.489
51 F4 212 2.513
51 F4 213 1.048
51 F4 214 0.071
51 F4 215 -0.905
51 F4 216 -0.417
51 F4 217 0.559
51 F4 218 1.536
51 F4 219 2.024
51 F4 220 2.024
51 F4 221 1.536
51 F4 222 2.024
51 F4 223 2.513
51 F4 224 3.977
51 F4 225 5.442
51 F4 226 5.931
51 F4 227 5.442
51 F4 228 4.466
51 F4 229 3.001
51 F4 230 1.048
51 F4 231 0.071
51 F4 232 -0.417
51 F4 233 0.071
51 F4 234 0.559
51 F4 235 2.024
51 F4 236 3.001
51 F4 237 3.977
51 F4 238 4.954
51 F4 239 4.466
51 F4 240 3.489
51 F4 241 2.024
51 F4 242 0.559
51 F4 243 -0.417
51 F4 244 -1.882
51 F4 245 -2.370
51 F4 246 -2.370
51 F4 247 -2.858
51 F4 248 -1.882
51 F4 249 -0.417
51 F4 250 1.536
51 F4 251 3.001
51 F4 252 3.489
51 F4 253 3.001
51 F4 254 1.536
51 F4 255 1.048
# F3 chan 8
51 F3 0 -1.526
51 F3 1 -2.991
51 F3 2 -2.991
51 F3 3 -2.502
51 F3 4 -1.038
51 F3 5 0.427
51 F3 6 1.404
51 F3 7 1.404
51 F3 8 1.404
51 F3 9 1.404
51 F3 10 0.916
51 F3 11 0.916
51 F3 12 0.916
51 F3 13 0.916
51 F3 14 1.404
51 F3 15 1.404
51 F3 16 1.892
51 F3 17 2.380
51 F3 18 2.869
51 F3 19 3.357
51 F3 20 3.845
51 F3 21 4.333
51 F3 22 4.822
51 F3 23 4.822
51 F3 24 4.333
51 F3 25 4.822
51 F3 26 4.822
51 F3 27 4.333
51 F3 28 3.845
51 F3 29 1.892
51 F3 30 -0.061
51 F3 31 -1.526
51 F3 32 -1.526
51 F3 33 -0.061
51 F3 34 2.380
51 F3 35 4.333
51 F3 36 5.798
51 F3 37 5.798
51 F3 38 4.822
51 F3 39 3.845
51 F3 40 2.869
51 F3 41 1.892
51 F3 42 1.892
51 F3 43 1.892
51 F3 44 2.380
51 F3 45 3.357
51 F3 46 3.845
51 F3 47 4.822
51 F3 48 5.310
51 F3 49 4.822
51 F3 50 3.357
51 F3 51 1.404
51 F3 52 -0.549
51 F3 53 -1.526
51 F3 54 -2.014
51 F3 55 -2.014
51 F3 56 -2.014
51 F3 57 -2.014
51 F3 58 -2.014
51 F3 59 -0.549
51 F3 60 1.892
51 F3 61 4.822
51 F3 62 7.263
51 F3 63 8.240
51 F3 64 8.240
51 F3 65 7.751
51 F3 66 6.775
51 F3 67 6.775
51 F3 68 6.287
51 F3 69 5.310
51 F3 70 3.845
51 F3 71 2.380
51 F3 72 0.916
51 F3 73 0.916
51 F3 74 0.427
51 F3 75 -0.549
51 F3 76 -1.526
51 F3 77 -2.991
51 F3 78 -3.967
51 F3 79 -4.456
51 F3 80 -4.456
51 F3 81 -4.944
51 F3 82 -5.920
51 F3 83 -7.385
51 F3 84 -8.850
51 F3 85 -10.315
51 F3 86 -11.780
51 F3 87 -12.756
51 F3 88 -13.245
51 F3 89 -13.733
51 F3 90 -13.245
51 F3 91 -11.292
51 F3 92 -8.362
51 F3 93 -5.920
51 F3 94 -3.967
51 F3 95 -3.479
51 F3 96 -3.967
51 F3 97 -4.456
51 F3 98 -5.432
51 F3 99 -4.944
51 F3 100 -4.944
51 F3 101 -3.967
51 F3 102 -3.967
51 F3 103 -4.456
51 F3 104 -5.920
51 F3 105 -6.897
51 F3 106 -7.874
51 F3 107 -6.897
51 F3 108 -5.920
51 F3 109 -3.967
51 F3 110 -2.991
51 F3 111 -2.991
51 F3 112 -2.991
51 F3 113 -3.479
51 F3 114 -3.967
51 F3 115 -4.944
51 F3 116 -7.385
51 F3 117 -9.827
51 F3 118 -12.268
51 F3 119 -12.756
51 F3 120 -12.268
51 F3 121 -10.315
51 F3 122 -8.850
51 F3 123 -8.362
51 F3 124 -8.850
51 F3 125 -9.338
51 F3 126 -9.338
51 F3 127 -8.850
51 F3 128 -7.874
51 F3 129 -7.385
51 F3 130 -7.385
51 F3 131 -6.897
51 F3 132 -6.409
51 F3 133 -4.944
51 F3 134 -3.967
51 F3 135 -2.991
51 F3 136 -2.014
51 F3 137 -2.014
51 F3 138 -2.502
51 F3 139 -2.502
51 F3 140 -2.502
51 F3 141 -2.014
51 F3 142 -0.549
51 F3 143 0.427
51 F3 144 1.404
51 F3 145 1.892
51 F3 146 1.404
51 F3 147 -0.061
51 F3 148 -2.014
51 F3 149 -2.991
51 F3 150 -3.479
51 F3 151 -3.479
51 F3 152 -3.479
51 F3 153 -2.991
51 F3 154 -2.502
51 F3 155 -2.014
51 F3 156 -1.526
51 F3 157 -0.549
51 F3 158 0.427
51 F3 159 1.404
51 F3 160 2.380
51 F3 161 2.380
51 F3 162 1.404
51 F3 163 -0.549
51 F3 164 -1.526
51 F3 165 -2.014
51 F3 166 -1.038
51 F3 167 0.427
51 F3 168 1.404
51 F3 169 0.916
51 F3 170 0.427
51 F3 171 0.916
51 F3 172 2.869
51 F3 173 5.310
51 F3 174 6.775
51 F3 175 6.775
51 F3 176 5.310
51 F3 177 3.357
51 F3 178 2.380
51 F3 179 2.869
51 F3 180 3.357
51 F3 181 3.845
51 F3 182 3.845
51 F3 183 2.869
51 F3 184 2.380
51 F3 185 1.892
51 F3 186 2.869
51 F3 187 3.357
51 F3 188 4.333
51 F3 189 4.822
51 F3 190 4.822
51 F3 191 4.333
51 F3 192 3.845
51 F3 193 3.357
51 F3 194 2.869
51 F3 195 2.869
51 F3 196 3.357
51 F3 197 4.333
51 F3 198 5.310
51 F3 199 5.798
51 F3 200 4.822
51 F3 201 3.845
51 F3 202 3.357
51 F3 203 2.869
51 F3 204 2.869
51 F3 205 2.869
51 F3 206 2.869
51 F3 207 2.869
51 F3 208 2.869
51 F3 209 2.869
51 F3 210 1.892
51 F3 211 1.404
51 F3 212 0.916
51 F3 213 0.916
51 F3 214 1.892
51 F3 215 2.869
51 F3 216 3.845
51 F3 217 2.869
51 F3 218 1.892
51 F3 219 0.916
51 F3 220 0.427
51 F3 221 1.404
51 F3 222 3.357
51 F3 223 4.822
51 F3 224 5.798
51 F3 225 6.287
51 F3 226 6.287
51 F3 227 6.775
51 F3 228 7.263
51 F3 229 6.775
51 F3 230 5.798
51 F3 231 4.333
51 F3 232 2.869
51 F3 233 2.869
51 F3 234 3.845
51 F3 235 4.822
51 F3 236 5.798
51 F3 237 5.798
51 F3 238 5.310
51 F3 239 5.310
51 F3 240 5.310
51 F3 241 5.798
51 F3 242 5.798
51 F3 243 4.822
51 F3 244 2.869
51 F3 245 1.404
51 F3 246 -0.061
51 F3 247 -0.549
51 F3 248 -0.061
51 F3 249 1.404
51 F3 250 2.380
51 F3 251 3.845
51 F3 252 5.310
51 F3 253 5.798
51 F3 254 6.287
51 F3 255 6.287
# FC6 chan 9
51 FC6 0 -1.760
51 FC6 1 0.193
51 FC6 2 2.146
51 FC6 3 3.123
51 FC6 4 3.611
51 FC6 5 3.123
51 FC6 6 3.123
51 FC6 7 2.635
51 FC6 8 2.146
51 FC6 9 1.658
51 FC6 10 0.682
51 FC6 11 -0.295
51 FC6 12 -0.783
51 FC6 13 -0.295
51 FC6 14 -0.295
51 FC6 15 -0.783
51 FC6 16 -1.760
51 FC6 17 -2.248
51 FC6 18 -2.248
51 FC6 19 -0.783
51 FC6 20 1.170
51 FC6 21 3.611
51 FC6 22 4.588
51 FC6 23 4.100
51 FC6 24 3.611
51 FC6 25 3.611
51 FC6 26 3.611
51 FC6 27 4.588
51 FC6 28 5.076
51 FC6 29 5.076
51 FC6 30 3.611
51 FC6 31 1.658
51 FC6 32 -0.783
51 FC6 33 -2.736
51 FC6 34 -3.713
51 FC6 35 -3.225
51 FC6 36 -2.736
51 FC6 37 -1.272
51 FC6 38 -0.783
51 FC6 39 -0.783
51 FC6 40 -1.272
51 FC6 41 -1.760
51 FC6 42 -1.760
51 FC6 43 -1.760
51 FC6 44 -2.736
51 FC6 45 -4.201
51 FC6 46 -5.666
51 FC6 47 -6.643
51 FC6 48 -6.154
51 FC6 49 -4.201
51 FC6 50 -1.760
51 FC6 51 0.193
51 FC6 52 1.170
51 FC6 53 2.146
51 FC6 54 3.123
51 FC6 55 3.611
51 FC6 56 3.611
51 FC6 57 2.146
51 FC6 58 1.170
51 FC6 59 -0.295
51 FC6 60 -0.783
51 FC6 61 -0.783
51 FC6 62 -0.295
51 FC6 63 0.682
51 FC6 64 0.682
51 FC6 65 0.682
51 FC6 66 -0.295
51 FC6 67 -1.272
51 FC6 68 -2.248
51 FC6 69 -3.225
51 FC6 70 -2.736
51 FC6 71 -1.760
51 FC6 72 0.193
51 FC6 73 1.658
51 FC6 74 2.635
51 FC6 75 2.146
51 FC6 76 0.193
51 FC6 77 -1.760
51 FC6 78 -3.713
51 FC6 79 -4.690
51 FC6 80 -4.690
51 FC6 81 -5.666
51 FC6 82 -6.154
51 FC6 83 -6.643
51 FC6 84 -6.643
51 FC6 85 -6.154
51 FC6 86 -5.178
51 FC6 87 -4.690
51 FC6 88 -5.178
51 FC6 89 -5.666
51 FC6 90 -6.154
51 FC6 91 -5.666
51 FC6 92 -5.178
51 FC6 93 -4.690
51 FC6 94 -4.690
51 FC6 95 -5.178
51 FC6 96 -5.178
51 FC6 97 -5.178
51 FC6 98 -4.690
51 FC6 99 -5.178
51 FC6 100 -6.154
51 FC6 101 -6.643
51 FC6 102 -7.131
51 FC6 103 -6.643
51 FC6 104 -5.178
51 FC6 105 -2.736
51 FC6 106 -0.295
51 FC6 107 1.170
51 FC6 108 1.170
51 FC6 109 0.193
51 FC6 110 -1.760
51 FC6 111 -3.225
51 FC6 112 -4.201
51 FC6 113 -3.713
51 FC6 114 -2.248
51 FC6 115 -1.760
51 FC6 116 -1.760
51 FC6 117 -2.736
51 FC6 118 -3.225
51 FC6 119 -3.225
51 FC6 120 -1.760
51 FC6 121 -0.295
51 FC6 122 0.682
51 FC6 123 0.193
51 FC6 124 -1.272
51 FC6 125 -1.760
51 FC6 126 -2.248
51 FC6 127 -1.272
51 FC6 128 -1.272
51 FC6 129 -1.272
51 FC6 130 -1.760
51 FC6 131 -2.248
51 FC6 132 -1.272
51 FC6 133 -0.783
51 FC6 134 -0.783
51 FC6 135 -1.272
51 FC6 136 -3.225
51 FC6 137 -4.690
51 FC6 138 -5.178
51 FC6 139 -5.178
51 FC6 140 -3.713
51 FC6 141 -2.248
51 FC6 142 -0.783
51 FC6 143 0.193
51 FC6 144 1.170
51 FC6 145 1.170
51 FC6 146 1.170
51 FC6 147 1.170
51 FC6 148 1.658
51 FC6 149 1.658
51 FC6 150 0.682
51 FC6 151 -0.295
51 FC6 152 -1.760
51 FC6 153 -2.248
51 FC6 154 -1.272
51 FC6 155 0.193
51 FC6 156 2.146
51 FC6 157 3.123
51 FC6 158 3.123
51 FC6 159 2.635
51 FC6 160 2.635
51 FC6 161 3.123
51 FC6 162 4.100
51 FC6 163 4.100
51 FC6 164 3.123
51 FC6 165 1.658
51 FC6 166 -0.783
51 FC6 167 -2.736
51 FC6 168 -4.201
51 FC6 169 -5.178
51 FC6 170 -6.154
51 FC6 171 -5.666
51 FC6 172 -4.690
51 FC6 173 -3.225
51 FC6 174 -2.248
51 FC6 175 -1.760
51 FC6 176 -2.248
51 FC6 177 -4.201
51 FC6 178 -6.154
51 FC6 179 -8.108
51 FC6 180 -9.572
51 FC6 181 -9.084
51 FC6 182 -8.108
51 FC6 183 -6.643
51 FC6 184 -5.178
51 FC6 185 -4.201
51 FC6 186 -2.736
51 FC6 187 -1.760
51 FC6 188 -0.295
51 FC6 189 1.170
51 FC6 190 1.658
51 FC6 191 1.658
51 FC6 192 1.170
51 FC6 193 0.682
51 FC6 194 0.682
51 FC6 195 1.170
51 FC6 196 1.658
51 FC6 197 1.658
51 FC6 198 1.658
51 FC6 199 0.193
51 FC6 200 -1.272
51 FC6 201 -2.736
51 FC6 202 -3.713
51 FC6 203 -4.201
51 FC6 204 -4.690
51 FC6 205 -4.690
51 FC6 206 -4.201
51 FC6 207 -3.225
51 FC6 208 -2.248
51 FC6 209 -1.760
51 FC6 210 -1.272
51 FC6 211 -1.760
51 FC6 212 -2.736
51 FC6 213 -3.713
51 FC6 214 -4.690
51 FC6 215 -5.178
51 FC6 216 -5.178
51 FC6 217 -4.690
51 FC6 218 -3.713
51 FC6 219 -3.713
51 FC6 220 -3.713
51 FC6 221 -3.713
51 FC6 222 -3.713
51 FC6 223 -3.225
51 FC6 224 -2.736
51 FC6 225 -1.760
51 FC6 226 -1.760
51 FC6 227 -2.248
51 FC6 228 -3.225
51 FC6 229 -4.690
51 FC6 230 -5.178
51 FC6 231 -5.178
51 FC6 232 -4.201
51 FC6 233 -3.225
51 FC6 234 -2.248
51 FC6 235 -1.760
51 FC6 236 -0.295
51 FC6 237 0.682
51 FC6 238 0.682
51 FC6 239 0.682
51 FC6 240 0.193
51 FC6 241 -0.783
51 FC6 242 -1.272
51 FC6 243 -1.760
51 FC6 244 -2.248
51 FC6 245 -3.713
51 FC6 246 -5.178
51 FC6 247 -6.643
51 FC6 248 -7.131
51 FC6 249 -6.154
51 FC6 250 -4.690
51 FC6 251 -3.225
51 FC6 252 -3.225
51 FC6 253 -4.690
51 FC6 254 -5.666
51 FC6 255 -5.666
# FC5 chan 10
51 FC5 0 -6.317
51 FC5 1 -7.782
51 FC5 2 -8.270
51 FC5 3 -7.294
51 FC5 4 -5.829
51 FC5 5 -3.876
51 FC5 6 -2.411
51 FC5 7 -0.946
51 FC5 8 0.519
51 FC5 9 0.519
51 FC5 10 0.519
51 FC5 11 0.031
51 FC5 12 0.519
51 FC5 13 1.495
51 FC5 14 2.960
51 FC5 15 3.937
51 FC5 16 3.448
51 FC5 17 2.960
51 FC5 18 2.960
51 FC5 19 2.960
51 FC5 20 3.448
51 FC5 21 3.937
51 FC5 22 3.448
51 FC5 23 2.472
51 FC5 24 1.495
51 FC5 25 1.495
51 FC5 26 1.984
51 FC5 27 3.448
51 FC5 28 3.448
51 FC5 29 2.960
51 FC5 30 1.007
51 FC5 31 0.031
51 FC5 32 -0.458
51 FC5 33 -0.458
51 FC5 34 1.007
51 FC5 35 1.984
51 FC5 36 2.960
51 FC5 37 4.425
51 FC5 38 4.913
51 FC5 39 4.425
51 FC5 40 3.937
51 FC5 41 2.960
51 FC5 42 2.960
51 FC5 43 3.448
51 FC5 44 4.425
51 FC5 45 5.402
51 FC5 46 5.402
51 FC5 47 4.913
51 FC5 48 3.937
51 FC5 49 2.960
51 FC5 50 1.984
51 FC5 51 0.519
51 FC5 52 -0.946
51 FC5 53 -2.899
51 FC5 54 -3.876
51 FC5 55 -3.876
51 FC5 56 -3.876
51 FC5 57 -4.364
51 FC5 58 -4.364
51 FC5 59 -4.364
51 FC5 60 -2.899
51 FC5 61 -0.946
51 FC5 62 1.007
51 FC5 63 2.472
51 FC5 64 2.472
51 FC5 65 1.007
51 FC5 66 0.031
51 FC5 67 -0.946
51 FC5 68 -1.923
51 FC5 69 -2.899
51 FC5 70 -4.364
51 FC5 71 -5.341
51 FC5 72 -6.317
51 FC5 73 -6.805
51 FC5 74 -6.317
51 FC5 75 -6.317
51 FC5 76 -6.805
51 FC5 77 -7.294
51 FC5 78 -7.782
51 FC5 79 -7.782
51 FC5 80 -7.782
51 FC5 81 -7.782
51 FC5 82 -8.759
51 FC5 83 -9.735
51 FC5 84 -10.712
51 FC5 85 -11.688
51 FC5 86 -12.177
51 FC5 87 -12.665
51 FC5 88 -12.665
51 FC5 89 -12.177
51 FC5 90 -12.177
51 FC5 91 -11.200
51 FC5 92 -10.223
51 FC5 93 -9.247
51 FC5 94 -8.759
51 FC5 95 -8.759
51 FC5 96 -9.247
51 FC5 97 -9.247
51 FC5 98 -8.759
51 FC5 99 -7.782
51 FC5 100 -7.294
51 FC5 101 -6.805
51 FC5 102 -6.805
51 FC5 103 -7.782
51 FC5 104 -8.270
51 FC5 105 -8.759
51 FC5 106 -7.782
51 FC5 107 -6.317
51 FC5 108 -4.852
51 FC5 109 -3.387
51 FC5 110 -2.899
51 FC5 111 -2.899
51 FC5 112 -3.387
51 FC5 113 -3.876
51 FC5 114 -3.876
51 FC5 115 -3.876
51 FC5 116 -4.852
51 FC5 117 -5.829
51 FC5 118 -7.782
51 FC5 119 -9.247
51 FC5 120 -9.247
51 FC5 121 -9.247
51 FC5 122 -8.270
51 FC5 123 -8.270
51 FC5 124 -8.270
51 FC5 125 -7.782
51 FC5 126 -7.782
51 FC5 127 -6.805
51 FC5 128 -6.317
51 FC5 129 -6.317
51 FC5 130 -6.805
51 FC5 131 -7.782
51 FC5 132 -7.782
51 FC5 133 -7.294
51 FC5 134 -5.829
51 FC5 135 -4.364
51 FC5 136 -3.387
51 FC5 137 -2.899
51 FC5 138 -3.387
51 FC5 139 -3.876
51 FC5 140 -3.876
51 FC5 141 -3.387
51 FC5 142 -2.899
51 FC5 143 -2.899
51 FC5 144 -2.899
51 FC5 145 -3.876
51 FC5 146 -5.341
51 FC5 147 -6.805
51 FC5 148 -7.782
51 FC5 149 -8.759
51 FC5 150 -8.759
51 FC5 151 -8.759
51 FC5 152 -8.759
51 FC5 153 -7.782
51 FC5 154 -6.805
51 FC5 155 -5.341
51 FC5 156 -3.876
51 FC5 157 -2.411
51 FC5 158 -0.946
51 FC5 159 -0.458
51 FC5 160 0.031
51 FC5 161 -0.946
51 FC5 162 -2.411
51 FC5 163 -4.364
51 FC5 164 -5.829
51 FC5 165 -6.317
51 FC5 166 -5.341
51 FC5 167 -4.364
51 FC5 168 -4.852
51 FC5 169 -5.829
51 FC5 170 -7.294
51 FC5 171 -7.294
51 FC5 172 -5.341
51 FC5 173 -2.899
51 FC5 174 -0.458
51 FC5 175 0.031
51 FC5 176 -1.434
51 FC5 177 -3.387
51 FC5 178 -4.364
51 FC5 179 -4.364
51 FC5 180 -3.387
51 FC5 181 -2.899
51 FC5 182 -3.387
51 FC5 183 -4.364
51 FC5 184 -4.852
51 FC5 185 -4.852
51 FC5 186 -3.387
51 FC5 187 -1.923
51 FC5 188 -0.946
51 FC5 189 -0.458
51 FC5 190 -0.458
51 FC5 191 -0.458
51 FC5 192 -0.946
51 FC5 193 -1.434
51 FC5 194 -2.411
51 FC5 195 -2.899
51 FC5 196 -2.899
51 FC5 197 -2.411
51 FC5 198 -1.434
51 FC5 199 -0.946
51 FC5 200 -1.434
51 FC5 201 -1.923
51 FC5 202 -1.923
51 FC5 203 -1.434
51 FC5 204 0.031
51 FC5 205 0.519
51 FC5 206 0.519
51 FC5 207 0.031
51 FC5 208 -0.946
51 FC5 209 -1.434
51 FC5 210 -1.923
51 FC5 211 -2.899
51 FC5 212 -3.876
51 FC5 213 -3.876
51 FC5 214 -2.899
51 FC5 215 -1.434
51 FC5 216 -0.458
51 FC5 217 -0.458
51 FC5 218 -1.923
51 FC5 219 -2.899
51 FC5 220 -3.387
51 FC5 221 -2.899
51 FC5 222 -0.946
51 FC5 223 0.519
51 FC5 224 1.007
51 FC5 225 0.519
51 FC5 226 0.519
51 FC5 227 0.519
51 FC5 228 1.984
51 FC5 229 2.472
51 FC5 230 2.472
51 FC5 231 1.007
51 FC5 232 0.031
51 FC5 233 0.031
51 FC5 234 1.007
51 FC5 235 2.960
51 FC5 236 3.937
51 FC5 237 3.937
51 FC5 238 2.960
51 FC5 239 2.472
51 FC5 240 2.960
51 FC5 241 3.937
51 FC5 242 4.425
51 FC5 243 3.937
51 FC5 244 2.472
51 FC5 245 0.519
51 FC5 246 -0.946
51 FC5 247 -0.946
51 FC5 248 -0.946
51 FC5 249 -0.458
51 FC5 250 -0.458
51 FC5 251 -0.458
51 FC5 252 0.031
51 FC5 253 1.495
51 FC5 254 2.472
51 FC5 255 2.960
# FC2 chan 11
51 FC2 0 2.248
51 FC2 1 3.225
51 FC2 2 3.713
51 FC2 3 4.201
51 FC2 4 3.713
51 FC2 5 3.713
51 FC2 6 3.225
51 FC2 7 2.736
51 FC2 8 2.736
51 FC2 9 2.248
51 FC2 10 1.760
51 FC2 11 1.272
51 FC2 12 0.783
51 FC2 13 0.783
51 FC2 14 0.783
51 FC2 15 0.783
51 FC2 16 0.295
51 FC2 17 0.295
51 FC2 18 0.295
51 FC2 19 0.783
51 FC2 20 1.272
51 FC2 21 1.760
51 FC2 22 2.736
51 FC2 23 2.736
51 FC2 24 3.225
51 FC2 25 3.225
51 FC2 26 3.713
51 FC2 27 3.713
51 FC2 28 4.201
51 FC2 29 3.713
51 FC2 30 2.736
51 FC2 31 1.272
51 FC2 32 -0.193
51 FC2 33 -1.170
51 FC2 34 -0.682
51 FC2 35 -0.193
51 FC2 36 0.295
51 FC2 37 0.783
51 FC2 38 1.272
51 FC2 39 1.760
51 FC2 40 1.760
51 FC2 41 1.760
51 FC2 42 0.783
51 FC2 43 -0.193
51 FC2 44 -1.170
51 FC2 45 -2.146
51 FC2 46 -2.146
51 FC2 47 -1.658
51 FC2 48 -0.193
51 FC2 49 0.783
51 FC2 50 1.272
51 FC2 51 1.760
51 FC2 52 1.760
51 FC2 53 1.760
51 FC2 54 2.736
51 FC2 55 3.225
51 FC2 56 3.225
51 FC2 57 2.248
51 FC2 58 1.760
51 FC2 59 1.760
51 FC2 60 2.248
51 FC2 61 3.225
51 FC2 62 3.713
51 FC2 63 4.690
51 FC2 64 4.690
51 FC2 65 4.690
51 FC2 66 3.713
51 FC2 67 3.225
51 FC2 68 2.248
51 FC2 69 1.760
51 FC2 70 1.760
51 FC2 71 2.248
51 FC2 72 3.225
51 FC2 73 3.713
51 FC2 74 4.201
51 FC2 75 3.225
51 FC2 76 1.760
51 FC2 77 0.295
51 FC2 78 -0.682
51 FC2 79 -1.170
51 FC2 80 -1.658
51 FC2 81 -1.658
51 FC2 82 -2.146
51 FC2 83 -2.146
51 FC2 84 -2.146
51 FC2 85 -2.146
51 FC2 86 -2.146
51 FC2 87 -2.146
51 FC2 88 -2.146
51 FC2 89 -2.146
51 FC2 90 -1.658
51 FC2 91 -0.682
51 FC2 92 0.783
51 FC2 93 1.760
51 FC2 94 2.736
51 FC2 95 2.248
51 FC2 96 2.248
51 FC2 97 1.272
51 FC2 98 0.783
51 FC2 99 0.295
51 FC2 100 0.295
51 FC2 101 0.783
51 FC2 102 1.272
51 FC2 103 1.760
51 FC2 104 2.736
51 FC2 105 3.225
51 FC2 106 3.713
51 FC2 107 3.713
51 FC2 108 3.713
51 FC2 109 3.225
51 FC2 110 2.248
51 FC2 111 1.760
51 FC2 112 1.272
51 FC2 113 1.272
51 FC2 114 1.760
51 FC2 115 1.760
51 FC2 116 1.272
51 FC2 117 -0.193
51 FC2 118 -1.170
51 FC2 119 -1.658
51 FC2 120 -1.170
51 FC2 121 -0.193
51 FC2 122 0.783
51 FC2 123 1.272
51 FC2 124 1.272
51 FC2 125 0.783
51 FC2 126 0.783
51 FC2 127 0.783
51 FC2 128 0.295
51 FC2 129 0.295
51 FC2 130 0.295
51 FC2 131 0.783
51 FC2 132 1.272
51 FC2 133 1.760
51 FC2 134 2.248
51 FC2 135 1.760
51 FC2 136 0.783
51 FC2 137 0.295
51 FC2 138 -0.193
51 FC2 139 -0.193
51 FC2 140 -0.193
51 FC2 141 0.295
51 FC2 142 0.783
51 FC2 143 1.760
51 FC2 144 2.736
51 FC2 145 3.225
51 FC2 146 3.713
51 FC2 147 3.713
51 FC2 148 3.713
51 FC2 149 4.201
51 FC2 150 3.713
51 FC2 151 3.225
51 FC2 152 2.248
51 FC2 153 2.248
51 FC2 154 2.248
51 FC2 155 2.736
51 FC2 156 3.225
51 FC2 157 3.713
51 FC2 158 3.713
51 FC2 159 3.713
51 FC2 160 4.201
51 FC2 161 4.690
51 FC2 162 4.690
51 FC2 163 4.690
51 FC2 164 4.201
51 FC2 165 3.713
51 FC2 166 3.225
51 FC2 167 3.225
51 FC2 168 2.736
51 FC2 169 2.736
51 FC2 170 2.248
51 FC2 171 2.248
51 FC2 172 2.248
51 FC2 173 2.736
51 FC2 174 3.713
51 FC2 175 4.201
51 FC2 176 3.713
51 FC2 177 2.736
51 FC2 178 1.760
51 FC2 179 0.783
51 FC2 180 0.783
51 FC2 181 1.760
51 FC2 182 2.248
51 FC2 183 3.225
51 FC2 184 3.713
51 FC2 185 3.713
51 FC2 186 4.201
51 FC2 187 4.690
51 FC2 188 5.178
51 FC2 189 5.178
51 FC2 190 5.178
51 FC2 191 4.690
51 FC2 192 4.201
51 FC2 193 3.713
51 FC2 194 3.713
51 FC2 195 3.713
51 FC2 196 4.201
51 FC2 197 3.713
51 FC2 198 3.713
51 FC2 199 2.736
51 FC2 200 1.760
51 FC2 201 1.272
51 FC2 202 0.783
51 FC2 203 0.783
51 FC2 204 0.783
51 FC2 205 1.272
51 FC2 206 1.272
51 FC2 207 1.760
51 FC2 208 2.248
51 FC2 209 3.225
51 FC2 210 3.713
51 FC2 211 3.713
51 FC2 212 3.225
51 FC2 213 2.248
51 FC2 214 1.760
51 FC2 215 1.760
51 FC2 216 1.760
51 FC2 217 1.760
51 FC2 218 1.760
51 FC2 219 1.760
51 FC2 220 1.760
51 FC2 221 1.760
51 FC2 222 1.760
51 FC2 223 2.736
51 FC2 224 3.225
51 FC2 225 3.713
51 FC2 226 3.713
51 FC2 227 3.225
51 FC2 228 2.248
51 FC2 229 1.272
51 FC2 230 0.783
51 FC2 231 0.783
51 FC2 232 0.783
51 FC2 233 0.783
51 FC2 234 1.272
51 FC2 235 1.760
51 FC2 236 2.736
51 FC2 237 3.225
51 FC2 238 3.225
51 FC2 239 3.225
51 FC2 240 2.736
51 FC2 241 2.248
51 FC2 242 1.760
51 FC2 243 1.272
51 FC2 244 0.783
51 FC2 245 0.783
51 FC2 246 0.295
51 FC2 247 0.783
51 FC2 248 0.783
51 FC2 249 1.272
51 FC2 250 2.248
51 FC2 251 2.736
51 FC2 252 3.225
51 FC2 253 2.736
51 FC2 254 2.248
51 FC2 255 2.248
# FC1 chan 12
51 FC1 0 0.529
51 FC1 1 -0.936
51 FC1 2 -1.424
51 FC1 3 -0.936
51 FC1 4 0.041
51 FC1 5 1.017
51 FC1 6 1.506
51 FC1 7 1.994
51 FC1 8 1.506
51 FC1 9 1.017
51 FC1 10 1.017
51 FC1 11 1.017
51 FC1 12 1.017
51 FC1 13 1.994
51 FC1 14 2.482
51 FC1 15 2.970
51 FC1 16 2.970
51 FC1 17 2.482
51 FC1 18 1.994
51 FC1 19 1.994
51 FC1 20 2.482
51 FC1 21 2.970
51 FC1 22 2.970
51 FC1 23 3.459
51 FC1 24 3.459
51 FC1 25 2.970
51 FC1 26 2.970
51 FC1 27 3.459
51 FC1 28 2.970
51 FC1 29 1.994
51 FC1 30 1.017
51 FC1 31 0.041
51 FC1 32 -0.936
51 FC1 33 0.041
51 FC1 34 1.506
51 FC1 35 2.970
51 FC1 36 4.435
51 FC1 37 4.435
51 FC1 38 3.947
51 FC1 39 2.970
51 FC1 40 2.482
51 FC1 41 2.482
51 FC1 42 2.482
51 FC1 43 2.482
51 FC1 44 2.482
51 FC1 45 2.970
51 FC1 46 2.970
51 FC1 47 3.459
51 FC1 48 4.435
51 FC1 49 4.924
51 FC1 50 4.435
51 FC1 51 3.459
51 FC1 52 1.994
51 FC1 53 1.017
51 FC1 54 0.529
51 FC1 55 1.017
51 FC1 56 1.506
51 FC1 57 1.506
51 FC1 58 1.506
51 FC1 59 1.994
51 FC1 60 2.970
51 FC1 61 4.435
51 FC1 62 6.388
51 FC1 63 7.365
51 FC1 64 7.365
51 FC1 65 6.388
51 FC1 66 4.924
51 FC1 67 3.947
51 FC1 68 3.459
51 FC1 69 2.970
51 FC1 70 1.994
51 FC1 71 1.017
51 FC1 72 0.529
51 FC1 73 0.041
51 FC1 74 0.529
51 FC1 75 0.041
51 FC1 76 -0.448
51 FC1 77 -0.936
51 FC1 78 -1.912
51 FC1 79 -2.401
51 FC1 80 -2.401
51 FC1 81 -2.889
51 FC1 82 -2.889
51 FC1 83 -3.377
51 FC1 84 -3.377
51 FC1 85 -4.354
51 FC1 86 -4.354
51 FC1 87 -4.842
51 FC1 88 -5.330
51 FC1 89 -4.842
51 FC1 90 -4.354
51 FC1 91 -3.377
51 FC1 92 -1.912
51 FC1 93 -0.936
51 FC1 94 0.529
51 FC1 95 0.529
51 FC1 96 0.041
51 FC1 97 -0.448
51 FC1 98 -1.424
51 FC1 99 -1.912
51 FC1 100 -1.912
51 FC1 101 -0.936
51 FC1 102 -0.936
51 FC1 103 -0.936
51 FC1 104 -1.424
51 FC1 105 -2.401
51 FC1 106 -2.889
51 FC1 107 -2.401
51 FC1 108 -1.424
51 FC1 109 -0.448
51 FC1 110 0.041
51 FC1 111 0.041
51 FC1 112 0.041
51 FC1 113 -0.448
51 FC1 114 -0.936
51 FC1 115 -1.912
51 FC1 116 -2.889
51 FC1 117 -4.842
51 FC1 118 -5.819
51 FC1 119 -6.795
51 FC1 120 -6.307
51 FC1 121 -5.330
51 FC1 122 -3.866
51 FC1 123 -3.866
51 FC1 124 -3.866
51 FC1 125 -3.866
51 FC1 126 -3.866
51 FC1 127 -3.377
51 FC1 128 -2.889
51 FC1 129 -2.889
51 FC1 130 -2.889
51 FC1 131 -2.889
51 FC1 132 -2.889
51 FC1 133 -1.912
51 FC1 134 -0.936
51 FC1 135 0.041
51 FC1 136 0.529
51 FC1 137 0.529
51 FC1 138 0.041
51 FC1 139 -0.448
51 FC1 140 -0.448
51 FC1 141 0.041
51 FC1 142 0.529
51 FC1 143 1.506
51 FC1 144 2.482
51 FC1 145 2.970
51 FC1 146 2.482
51 FC1 147 1.994
51 FC1 148 0.529
51 FC1 149 0.041
51 FC1 150 -0.448
51 FC1 151 -0.936
51 FC1 152 -0.936
51 FC1 153 -0.936
51 FC1 154 -0.936
51 FC1 155 -0.448
51 FC1 156 0.041
51 FC1 157 0.529
51 FC1 158 1.506
51 FC1 159 1.994
51 FC1 160 2.482
51 FC1 161 2.970
51 FC1 162 2.482
51 FC1 163 1.994
51 FC1 164 1.506
51 FC1 165 1.506
51 FC1 166 1.994
51 FC1 167 2.970
51 FC1 168 2.970
51 FC1 169 3.459
51 FC1 170 2.970
51 FC1 171 2.970
51 FC1 172 3.459
51 FC1 173 4.435
51 FC1 174 5.412
51 FC1 175 5.900
51 FC1 176 5.412
51 FC1 177 4.924
51 FC1 178 4.435
51 FC1 179 4.435
51 FC1 180 4.924
51 FC1 181 5.412
51 FC1 182 4.924
51 FC1 183 4.924
51 FC1 184 4.435
51 FC1 185 4.435
51 FC1 186 4.435
51 FC1 187 4.924
51 FC1 188 5.412
51 FC1 189 5.900
51 FC1 190 5.900
51 FC1 191 5.900
51 FC1 192 4.924
51 FC1 193 3.947
51 FC1 194 3.459
51 FC1 195 3.459
51 FC1 196 3.947
51 FC1 197 4.435
51 FC1 198 4.435
51 FC1 199 4.435
51 FC1 200 4.435
51 FC1 201 4.435
51 FC1 202 3.947
51 FC1 203 4.435
51 FC1 204 3.947
51 FC1 205 4.435
51 FC1 206 4.435
51 FC1 207 3.947
51 FC1 208 3.947
51 FC1 209 3.947
51 FC1 210 2.970
51 FC1 211 2.970
51 FC1 212 2.970
51 FC1 213 3.459
51 FC1 214 4.435
51 FC1 215 4.924
51 FC1 216 5.412
51 FC1 217 4.924
51 FC1 218 4.435
51 FC1 219 3.947
51 FC1 220 3.947
51 FC1 221 4.435
51 FC1 222 5.412
51 FC1 223 5.900
51 FC1 224 6.388
51 FC1 225 6.388
51 FC1 226 6.877
51 FC1 227 6.877
51 FC1 228 6.388
51 FC1 229 5.900
51 FC1 230 4.924
51 FC1 231 3.947
51 FC1 232 2.970
51 FC1 233 2.970
51 FC1 234 3.947
51 FC1 235 4.924
51 FC1 236 5.412
51 FC1 237 5.412
51 FC1 238 5.412
51 FC1 239 4.924
51 FC1 240 5.412
51 FC1 241 5.900
51 FC1 242 5.900
51 FC1 243 4.924
51 FC1 244 3.947
51 FC1 245 2.482
51 FC1 246 1.994
51 FC1 247 1.017
51 FC1 248 1.506
51 FC1 249 1.994
51 FC1 250 2.970
51 FC1 251 3.947
51 FC1 252 4.435
51 FC1 253 4.924
51 FC1 254 5.412
51 FC1 255 5.412
# T8 chan 13
51 T8 0 -1.058
51 T8 1 -2.035
51 T8 2 -2.035
51 T8 3 -2.035
51 T8 4 -1.058
51 T8 5 0.895
51 T8 6 1.872
51 T8 7 2.848
51 T8 8 2.360
51 T8 9 1.383
51 T8 10 0.895
51 T8 11 -0.081
51 T8 12 -0.570
51 T8 13 -0.081
51 T8 14 -0.570
51 T8 15 -0.570
51 T8 16 -0.570
51 T8 17 -1.058
51 T8 18 -0.570
51 T8 19 -0.081
51 T8 20 1.383
51 T8 21 2.848
51 T8 22 4.801
51 T8 23 5.778
51 T8 24 6.755
51 T8 25 7.243
51 T8 26 8.708
51 T8 27 11.149
51 T8 28 13.102
51 T8 29 13.590
51 T8 30 12.126
51 T8 31 8.708
51 T8 32 4.801
51 T8 33 2.360
51 T8 34 1.383
51 T8 35 1.872
51 T8 36 1.872
51 T8 37 1.383
51 T8 38 -0.081
51 T8 39 -0.570
51 T8 40 -0.570
51 T8 41 0.895
51 T8 42 1.872
51 T8 43 2.360
51 T8 44 0.407
51 T8 45 -2.523
51 T8 46 -5.452
51 T8 47 -6.429
51 T8 48 -5.941
51 T8 49 -3.499
51 T8 50 -1.058
51 T8 51 1.383
51 T8 52 2.848
51 T8 53 3.825
51 T8 54 4.313
51 T8 55 3.337
51 T8 56 1.872
51 T8 57 0.895
51 T8 58 0.407
51 T8 59 0.895
51 T8 60 1.383
51 T8 61 0.407
51 T8 62 -1.546
51 T8 63 -3.499
51 T8 64 -3.499
51 T8 65 -3.011
51 T8 66 -2.035
51 T8 67 -2.523
51 T8 68 -4.476
51 T8 69 -6.917
51 T8 70 -7.894
51 T8 71 -5.941
51 T8 72 -3.011
51 T8 73 -0.081
51 T8 74 1.872
51 T8 75 1.872
51 T8 76 0.895
51 T8 77 0.895
51 T8 78 0.407
51 T8 79 -0.081
51 T8 80 -1.546
51 T8 81 -3.988
51 T8 82 -5.452
51 T8 83 -5.452
51 T8 84 -4.964
51 T8 85 -4.476
51 T8 86 -5.452
51 T8 87 -6.429
51 T8 88 -6.429
51 T8 89 -5.452
51 T8 90 -4.476
51 T8 91 -4.964
51 T8 92 -6.917
51 T8 93 -10.335
51 T8 94 -12.288
51 T8 95 -11.312
51 T8 96 -7.406
51 T8 97 -3.499
51 T8 98 -2.035
51 T8 99 -3.988
51 T8 100 -8.382
51 T8 101 -11.312
51 T8 102 -11.800
51 T8 103 -9.847
51 T8 104 -5.941
51 T8 105 -3.011
51 T8 106 -1.058
51 T8 107 -0.570
51 T8 108 -0.570
51 T8 109 -1.058
51 T8 110 -2.523
51 T8 111 -3.988
51 T8 112 -5.941
51 T8 113 -6.917
51 T8 114 -6.917
51 T8 115 -5.452
51 T8 116 -3.988
51 T8 117 -3.011
51 T8 118 -1.546
51 T8 119 -0.081
51 T8 120 1.872
51 T8 121 2.848
51 T8 122 2.848
51 T8 123 0.895
51 T8 124 -1.058
51 T8 125 -3.011
51 T8 126 -2.523
51 T8 127 -1.546
51 T8 128 -0.570
51 T8 129 -0.081
51 T8 130 -0.570
51 T8 131 -1.546
51 T8 132 -1.058
51 T8 133 -1.058
51 T8 134 -1.546
51 T8 135 -3.988
51 T8 136 -7.406
51 T8 137 -9.847
51 T8 138 -10.335
51 T8 139 -7.894
51 T8 140 -4.476
51 T8 141 -2.035
51 T8 142 -1.546
51 T8 143 -2.035
51 T8 144 -2.035
51 T8 145 -1.058
51 T8 146 0.407
51 T8 147 0.895
51 T8 148 -1.058
51 T8 149 -3.988
51 T8 150 -6.917
51 T8 151 -7.406
51 T8 152 -5.452
51 T8 153 -2.035
51 T8 154 0.895
51 T8 155 1.872
51 T8 156 1.872
51 T8 157 0.895
51 T8 158 0.895
51 T8 159 1.872
51 T8 160 2.848
51 T8 161 2.848
51 T8 162 1.872
51 T8 163 0.407
51 T8 164 -1.546
51 T8 165 -3.499
51 T8 166 -5.452
51 T8 167 -6.429
51 T8 168 -7.406
51 T8 169 -8.382
51 T8 170 -9.359
51 T8 171 -10.824
51 T8 172 -10.824
51 T8 173 -10.335
51 T8 174 -9.359
51 T8 175 -8.382
51 T8 176 -8.870
51 T8 177 -10.824
51 T8 178 -13.753
51 T8 179 -16.683
51 T8 180 -18.636
51 T8 181 -18.636
51 T8 182 -17.171
51 T8 183 -15.218
51 T8 184 -13.753
51 T8 185 -12.777
51 T8 186 -11.800
51 T8 187 -9.847
51 T8 188 -7.406
51 T8 189 -4.476
51 T8 190 -3.499
51 T8 191 -3.011
51 T8 192 -3.988
51 T8 193 -4.476
51 T8 194 -4.964
51 T8 195 -4.476
51 T8 196 -4.476
51 T8 197 -4.476
51 T8 198 -4.964
51 T8 199 -5.452
51 T8 200 -6.429
51 T8 201 -7.894
51 T8 202 -8.870
51 T8 203 -9.847
51 T8 204 -9.847
51 T8 205 -9.359
51 T8 206 -7.894
51 T8 207 -6.429
51 T8 208 -5.941
51 T8 209 -5.941
51 T8 210 -6.429
51 T8 211 -6.917
51 T8 212 -7.894
51 T8 213 -9.359
51 T8 214 -10.824
51 T8 215 -11.800
51 T8 216 -11.800
51 T8 217 -10.335
51 T8 218 -8.382
51 T8 219 -6.917
51 T8 220 -6.429
51 T8 221 -6.429
51 T8 222 -6.429
51 T8 223 -6.917
51 T8 224 -7.894
51 T8 225 -9.847
51 T8 226 -12.288
51 T8 227 -14.730
51 T8 228 -14.730
51 T8 229 -11.800
51 T8 230 -6.917
51 T8 231 -3.988
51 T8 232 -3.499
51 T8 233 -4.964
51 T8 234 -6.429
51 T8 235 -4.964
51 T8 236 -1.546
51 T8 237 2.360
51 T8 238 2.848
51 T8 239 0.407
51 T8 240 -3.499
51 T8 241 -6.429
51 T8 242 -6.429
51 T8 243 -4.964
51 T8 244 -4.476
51 T8 245 -5.941
51 T8 246 -9.847
51 T8 247 -11.800
51 T8 248 -11.312
51 T8 249 -7.894
51 T8 250 -4.476
51 T8 251 -3.499
51 T8 252 -5.452
51 T8 253 -8.382
51 T8 254 -9.847
51 T8 255 -8.382
# T7 chan 14
51 T7 0 -9.176
51 T7 1 -11.617
51 T7 2 -12.105
51 T7 3 -10.152
51 T7 4 -7.222
51 T7 5 -4.293
51 T7 6 -2.340
51 T7 7 -1.851
51 T7 8 -1.363
51 T7 9 -0.875
51 T7 10 0.590
51 T7 11 1.567
51 T7 12 3.031
51 T7 13 4.496
51 T7 14 4.496
51 T7 15 4.008
51 T7 16 3.031
51 T7 17 2.543
51 T7 18 3.031
51 T7 19 3.520
51 T7 20 4.496
51 T7 21 4.496
51 T7 22 3.520
51 T7 23 2.055
51 T7 24 0.102
51 T7 25 -0.875
51 T7 26 -0.387
51 T7 27 1.567
51 T7 28 4.496
51 T7 29 6.449
51 T7 30 5.961
51 T7 31 3.031
51 T7 32 0.102
51 T7 33 -2.340
51 T7 34 -2.340
51 T7 35 -0.387
51 T7 36 3.031
51 T7 37 5.473
51 T7 38 6.449
51 T7 39 4.985
51 T7 40 3.031
51 T7 41 2.055
51 T7 42 3.031
51 T7 43 5.473
51 T7 44 7.914
51 T7 45 8.891
51 T7 46 6.938
51 T7 47 4.496
51 T7 48 2.543
51 T7 49 2.055
51 T7 50 2.543
51 T7 51 2.543
51 T7 52 0.590
51 T7 53 -2.828
51 T7 54 -6.246
51 T7 55 -7.711
51 T7 56 -8.199
51 T7 57 -6.734
51 T7 58 -5.758
51 T7 59 -5.269
51 T7 60 -5.269
51 T7 61 -5.758
51 T7 62 -5.269
51 T7 63 -4.293
51 T7 64 -2.828
51 T7 65 -2.340
51 T7 66 -3.316
51 T7 67 -4.293
51 T7 68 -6.734
51 T7 69 -8.687
51 T7 70 -10.640
51 T7 71 -11.617
51 T7 72 -11.617
51 T7 73 -10.640
51 T7 74 -8.687
51 T7 75 -7.222
51 T7 76 -6.734
51 T7 77 -7.222
51 T7 78 -8.687
51 T7 79 -9.176
51 T7 80 -8.687
51 T7 81 -8.687
51 T7 82 -8.199
51 T7 83 -9.176
51 T7 84 -10.640
51 T7 85 -12.105
51 T7 86 -13.570
51 T7 87 -14.547
51 T7 88 -14.547
51 T7 89 -13.082
51 T7 90 -12.105
51 T7 91 -10.640
51 T7 92 -9.664
51 T7 93 -10.152
51 T7 94 -11.129
51 T7 95 -11.617
51 T7 96 -11.617
51 T7 97 -10.640
51 T7 98 -9.664
51 T7 99 -9.176
51 T7 100 -10.152
51 T7 101 -12.105
51 T7 102 -13.082
51 T7 103 -13.082
51 T7 104 -11.129
51 T7 105 -9.176
51 T7 106 -6.734
51 T7 107 -5.269
51 T7 108 -4.781
51 T7 109 -4.293
51 T7 110 -4.293
51 T7 111 -3.805
51 T7 112 -2.828
51 T7 113 -2.340
51 T7 114 -2.340
51 T7 115 -2.828
51 T7 116 -4.293
51 T7 117 -6.246
51 T7 118 -9.176
51 T7 119 -10.640
51 T7 120 -10.640
51 T7 121 -9.176
51 T7 122 -7.711
51 T7 123 -7.222
51 T7 124 -8.199
51 T7 125 -9.176
51 T7 126 -9.176
51 T7 127 -8.687
51 T7 128 -7.711
51 T7 129 -7.711
51 T7 130 -9.664
51 T7 131 -11.129
51 T7 132 -12.105
51 T7 133 -10.640
51 T7 134 -8.199
51 T7 135 -6.734
51 T7 136 -7.711
51 T7 137 -10.152
51 T7 138 -12.105
51 T7 139 -11.129
51 T7 140 -7.222
51 T7 141 -2.340
51 T7 142 -0.387
51 T7 143 -2.340
51 T7 144 -7.222
51 T7 145 -12.594
51 T7 146 -14.547
51 T7 147 -13.082
51 T7 148 -10.640
51 T7 149 -9.176
51 T7 150 -10.640
51 T7 151 -13.570
51 T7 152 -15.523
51 T7 153 -14.547
51 T7 154 -11.617
51 T7 155 -8.687
51 T7 156 -6.734
51 T7 157 -7.711
51 T7 158 -9.664
51 T7 159 -12.105
51 T7 160 -12.105
51 T7 161 -10.640
51 T7 162 -7.222
51 T7 163 -3.805
51 T7 164 -2.340
51 T7 165 -3.805
51 T7 166 -7.711
51 T7 167 -12.594
51 T7 168 -16.500
51 T7 169 -17.476
51 T7 170 -16.500
51 T7 171 -14.547
51 T7 172 -13.082
51 T7 173 -12.105
51 T7 174 -11.617
51 T7 175 -13.082
51 T7 176 -16.012
51 T7 177 -18.941
51 T7 178 -19.430
51 T7 179 -16.500
51 T7 180 -11.129
51 T7 181 -6.246
51 T7 182 -6.246
51 T7 183 -11.129
51 T7 184 -17.965
51 T7 185 -20.894
51 T7 186 -16.988
51 T7 187 -8.199
51 T7 188 0.102
51 T7 189 3.031
51 T7 190 0.102
51 T7 191 -6.246
51 T7 192 -11.129
51 T7 193 -11.129
51 T7 194 -8.199
51 T7 195 -5.758
51 T7 196 -5.269
51 T7 197 -7.711
51 T7 198 -10.152
51 T7 199 -10.640
51 T7 200 -9.664
51 T7 201 -7.222
51 T7 202 -6.246
51 T7 203 -6.246
51 T7 204 -7.222
51 T7 205 -8.687
51 T7 206 -9.664
51 T7 207 -10.152
51 T7 208 -10.640
51 T7 209 -10.640
51 T7 210 -10.640
51 T7 211 -10.152
51 T7 212 -8.687
51 T7 213 -7.711
51 T7 214 -7.222
51 T7 215 -8.687
51 T7 216 -10.640
51 T7 217 -11.129
51 T7 218 -10.152
51 T7 219 -7.222
51 T7 220 -5.269
51 T7 221 -4.293
51 T7 222 -4.781
51 T7 223 -6.734
51 T7 224 -7.711
51 T7 225 -7.222
51 T7 226 -6.246
51 T7 227 -4.781
51 T7 228 -3.805
51 T7 229 -4.293
51 T7 230 -4.781
51 T7 231 -6.246
51 T7 232 -6.734
51 T7 233 -6.246
51 T7 234 -5.758
51 T7 235 -3.805
51 T7 236 -1.851
51 T7 237 -0.387
51 T7 238 0.590
51 T7 239 0.102
51 T7 240 -0.875
51 T7 241 -1.851
51 T7 242 -1.851
51 T7 243 -1.363
51 T7 244 -0.875
51 T7 245 -1.363
51 T7 246 -2.828
51 T7 247 -4.781
51 T7 248 -6.246
51 T7 249 -7.222
51 T7 250 -7.222
51 T7 251 -6.734
51 T7 252 -6.246
51 T7 253 -4.293
51 T7 254 -2.828
51 T7 255 -1.851
# CZ chan 15
51 CZ 0 -5.463
51 CZ 1 -3.021
51 CZ 2 0.885
51 CZ 3 4.791
51 CZ 4 6.744
51 CZ 5 8.209
51 CZ 6 9.186
51 CZ 7 10.651
51 CZ 8 12.604
51 CZ 9 14.069
51 CZ 10 14.557
51 CZ 11 14.069
51 CZ 12 12.604
51 CZ 13 11.627
51 CZ 14 10.651
51 CZ 15 9.674
51 CZ 16 8.698
51 CZ 17 8.209
51 CZ 18 7.721
51 CZ 19 7.233
51 CZ 20 7.721
51 CZ 21 9.186
51 CZ 22 11.139
51 CZ 23 12.604
51 CZ 24 13.580
51 CZ 25 14.069
51 CZ 26 13.092
51 CZ 27 12.604
51 CZ 28 12.115
51 CZ 29 12.115
51 CZ 30 12.604
51 CZ 31 12.115
51 CZ 32 10.651
51 CZ 33 8.698
51 CZ 34 6.744
51 CZ 35 6.744
51 CZ 36 8.698
51 CZ 37 13.092
51 CZ 38 16.998
51 CZ 39 20.416
51 CZ 40 22.369
51 CZ 41 22.369
51 CZ 42 20.905
51 CZ 43 18.951
51 CZ 44 16.998
51 CZ 45 14.557
51 CZ 46 12.604
51 CZ 47 12.115
51 CZ 48 11.627
51 CZ 49 12.115
51 CZ 50 11.627
51 CZ 51 10.651
51 CZ 52 9.186
51 CZ 53 8.209
51 CZ 54 8.209
51 CZ 55 9.186
51 CZ 56 9.674
51 CZ 57 10.162
51 CZ 58 10.162
51 CZ 59 9.674
51 CZ 60 9.674
51 CZ 61 9.674
51 CZ 62 9.674
51 CZ 63 9.674
51 CZ 64 9.186
51 CZ 65 8.698
51 CZ 66 7.233
51 CZ 67 5.768
51 CZ 68 3.326
51 CZ 69 1.373
51 CZ 70 0.397
51 CZ 71 1.373
51 CZ 72 3.815
51 CZ 73 6.744
51 CZ 74 8.209
51 CZ 75 8.209
51 CZ 76 5.280
51 CZ 77 1.373
51 CZ 78 -2.045
51 CZ 79 -4.974
51 CZ 80 -7.416
51 CZ 81 -9.857
51 CZ 82 -12.299
51 CZ 83 -13.763
51 CZ 84 -14.252
51 CZ 85 -13.275
51 CZ 86 -11.810
51 CZ 87 -11.322
51 CZ 88 -12.299
51 CZ 89 -13.763
51 CZ 90 -16.693
51 CZ 91 -18.158
51 CZ 92 -18.158
51 CZ 93 -16.693
51 CZ 94 -15.228
51 CZ 95 -14.740
51 CZ 96 -15.717
51 CZ 97 -17.670
51 CZ 98 -19.623
51 CZ 99 -20.599
51 CZ 100 -20.111
51 CZ 101 -18.158
51 CZ 102 -15.717
51 CZ 103 -13.763
51 CZ 104 -12.787
51 CZ 105 -12.299
51 CZ 106 -10.345
51 CZ 107 -7.416
51 CZ 108 -3.998
51 CZ 109 -2.045
51 CZ 110 -1.556
51 CZ 111 -3.998
51 CZ 112 -6.439
51 CZ 113 -8.392
51 CZ 114 -8.881
51 CZ 115 -6.927
51 CZ 116 -4.974
51 CZ 117 -3.021
51 CZ 118 -1.556
51 CZ 119 -0.580
51 CZ 120 0.885
51 CZ 121 1.373
51 CZ 122 1.862
51 CZ 123 1.373
51 CZ 124 0.397
51 CZ 125 -1.556
51 CZ 126 -2.533
51 CZ 127 -3.510
51 CZ 128 -3.021
51 CZ 129 -2.045
51 CZ 130 -0.580
51 CZ 131 0.397
51 CZ 132 1.373
51 CZ 133 2.838
51 CZ 134 4.303
51 CZ 135 5.768
51 CZ 136 6.744
51 CZ 137 7.721
51 CZ 138 7.233
51 CZ 139 5.768
51 CZ 140 4.303
51 CZ 141 2.350
51 CZ 142 1.862
51 CZ 143 2.350
51 CZ 144 3.815
51 CZ 145 5.280
51 CZ 146 5.280
51 CZ 147 4.303
51 CZ 148 2.350
51 CZ 149 0.397
51 CZ 150 -1.068
51 CZ 151 -2.045
51 CZ 152 -1.556
51 CZ 153 -1.556
51 CZ 154 -0.580
51 CZ 155 0.885
51 CZ 156 2.838
51 CZ 157 5.280
51 CZ 158 6.744
51 CZ 159 6.744
51 CZ 160 5.280
51 CZ 161 3.815
51 CZ 162 2.350
51 CZ 163 0.397
51 CZ 164 -1.068
51 CZ 165 -3.998
51 CZ 166 -6.927
51 CZ 167 -9.857
51 CZ 168 -12.787
51 CZ 169 -15.228
51 CZ 170 -16.205
51 CZ 171 -14.740
51 CZ 172 -10.345
51 CZ 173 -4.486
51 CZ 174 0.397
51 CZ 175 0.885
51 CZ 176 -2.045
51 CZ 177 -7.904
51 CZ 178 -14.740
51 CZ 179 -18.646
51 CZ 180 -20.111
51 CZ 181 -19.623
51 CZ 182 -18.646
51 CZ 183 -17.670
51 CZ 184 -16.205
51 CZ 185 -15.228
51 CZ 186 -13.275
51 CZ 187 -11.322
51 CZ 188 -8.881
51 CZ 189 -5.951
51 CZ 190 -3.998
51 CZ 191 -2.533
51 CZ 192 -2.533
51 CZ 193 -3.021
51 CZ 194 -3.998
51 CZ 195 -4.486
51 CZ 196 -4.974
51 CZ 197 -4.974
51 CZ 198 -4.974
51 CZ 199 -6.439
51 CZ 200 -7.416
51 CZ 201 -7.904
51 CZ 202 -8.881
51 CZ 203 -8.881
51 CZ 204 -7.904
51 CZ 205 -6.927
51 CZ 206 -5.463
51 CZ 207 -3.998
51 CZ 208 -2.533
51 CZ 209 -3.021
51 CZ 210 -4.486
51 CZ 211 -6.927
51 CZ 212 -9.369
51 CZ 213 -10.834
51 CZ 214 -10.834
51 CZ 215 -9.857
51 CZ 216 -9.369
51 CZ 217 -8.881
51 CZ 218 -8.881
51 CZ 219 -8.392
51 CZ 220 -7.416
51 CZ 221 -5.463
51 CZ 222 -3.998
51 CZ 223 -2.045
51 CZ 224 -1.068
51 CZ 225 -0.580
51 CZ 226 -1.068
51 CZ 227 -1.068
51 CZ 228 -0.580
51 CZ 229 -0.092
51 CZ 230 0.885
51 CZ 231 1.862
51 CZ 232 1.862
51 CZ 233 1.862
51 CZ 234 1.373
51 CZ 235 1.862
51 CZ 236 2.838
51 CZ 237 4.791
51 CZ 238 5.768
51 CZ 239 5.280
51 CZ 240 2.838
51 CZ 241 -0.580
51 CZ 242 -3.510
51 CZ 243 -5.463
51 CZ 244 -6.439
51 CZ 245 -6.927
51 CZ 246 -6.927
51 CZ 247 -6.439
51 CZ 248 -4.974
51 CZ 249 -3.021
51 CZ 250 -1.068
51 CZ 251 -1.068
51 CZ 252 -2.533
51 CZ 253 -3.998
51 CZ 254 -4.974
51 CZ 255 -5.463
# C3 chan 16
51 C3 0 -3.052
51 C3 1 -4.517
51 C3 2 -5.493
51 C3 3 -5.493
51 C3 4 -5.005
51 C3 5 -4.028
51 C3 6 -2.563
51 C3 7 -1.099
51 C3 8 -0.610
51 C3 9 -0.610
51 C3 10 -0.610
51 C3 11 -1.099
51 C3 12 -0.610
51 C3 13 0.366
51 C3 14 1.831
51 C3 15 2.319
51 C3 16 2.319
51 C3 17 1.831
51 C3 18 0.854
51 C3 19 0.854
51 C3 20 1.343
51 C3 21 1.343
51 C3 22 1.343
51 C3 23 0.854
51 C3 24 -0.122
51 C3 25 -1.099
51 C3 26 -0.610
51 C3 27 -0.122
51 C3 28 0.854
51 C3 29 0.854
51 C3 30 0.366
51 C3 31 -0.610
51 C3 32 -1.099
51 C3 33 -1.099
51 C3 34 -0.610
51 C3 35 -0.122
51 C3 36 0.366
51 C3 37 1.343
51 C3 38 1.343
51 C3 39 1.831
51 C3 40 1.343
51 C3 41 0.366
51 C3 42 0.366
51 C3 43 1.343
51 C3 44 2.808
51 C3 45 3.784
51 C3 46 3.784
51 C3 47 3.296
51 C3 48 2.319
51 C3 49 1.831
51 C3 50 1.831
51 C3 51 1.343
51 C3 52 0.366
51 C3 53 -1.099
51 C3 54 -2.563
51 C3 55 -3.540
51 C3 56 -3.052
51 C3 57 -2.563
51 C3 58 -2.075
51 C3 59 -2.075
51 C3 60 -2.075
51 C3 61 -1.587
51 C3 62 -0.610
51 C3 63 0.366
51 C3 64 0.366
51 C3 65 -0.122
51 C3 66 -2.075
51 C3 67 -3.540
51 C3 68 -4.517
51 C3 69 -5.005
51 C3 70 -5.005
51 C3 71 -5.493
51 C3 72 -5.493
51 C3 73 -5.493
51 C3 74 -5.005
51 C3 75 -4.517
51 C3 76 -4.028
51 C3 77 -4.028
51 C3 78 -3.540
51 C3 79 -3.052
51 C3 80 -2.075
51 C3 81 -1.587
51 C3 82 -2.075
51 C3 83 -3.052
51 C3 84 -4.028
51 C3 85 -5.005
51 C3 86 -5.493
51 C3 87 -5.005
51 C3 88 -4.517
51 C3 89 -4.028
51 C3 90 -3.540
51 C3 91 -3.052
51 C3 92 -2.563
51 C3 93 -2.075
51 C3 94 -1.099
51 C3 95 -1.099
51 C3 96 -1.587
51 C3 97 -2.563
51 C3 98 -3.052
51 C3 99 -3.052
51 C3 100 -3.052
51 C3 101 -2.563
51 C3 102 -2.563
51 C3 103 -3.052
51 C3 104 -4.028
51 C3 105 -4.517
51 C3 106 -4.517
51 C3 107 -4.028
51 C3 108 -3.052
51 C3 109 -2.075
51 C3 110 -1.099
51 C3 111 -0.610
51 C3 112 -0.610
51 C3 113 -1.099
51 C3 114 -1.099
51 C3 115 -1.587
51 C3 116 -2.075
51 C3 117 -3.052
51 C3 118 -4.028
51 C3 119 -5.005
51 C3 120 -5.493
51 C3 121 -5.493
51 C3 122 -5.005
51 C3 123 -5.005
51 C3 124 -4.517
51 C3 125 -4.517
51 C3 126 -4.028
51 C3 127 -3.540
51 C3 128 -3.052
51 C3 129 -2.563
51 C3 130 -3.052
51 C3 131 -3.052
51 C3 132 -4.028
51 C3 133 -3.540
51 C3 134 -3.052
51 C3 135 -2.563
51 C3 136 -2.075
51 C3 137 -1.587
51 C3 138 -1.587
51 C3 139 -1.587
51 C3 140 -1.587
51 C3 141 -1.099
51 C3 142 -1.099
51 C3 143 -1.099
51 C3 144 -1.587
51 C3 145 -2.563
51 C3 146 -3.052
51 C3 147 -4.028
51 C3 148 -4.517
51 C3 149 -5.493
51 C3 150 -6.470
51 C3 151 -6.470
51 C3 152 -6.470
51 C3 153 -5.493
51 C3 154 -4.028
51 C3 155 -2.563
51 C3 156 -1.587
51 C3 157 -0.610
51 C3 158 0.366
51 C3 159 0.854
51 C3 160 0.854
51 C3 161 0.366
51 C3 162 -0.610
51 C3 163 -2.075
51 C3 164 -3.052
51 C3 165 -3.052
51 C3 166 -3.052
51 C3 167 -2.563
51 C3 168 -2.563
51 C3 169 -3.052
51 C3 170 -4.517
51 C3 171 -5.005
51 C3 172 -4.517
51 C3 173 -3.540
51 C3 174 -1.587
51 C3 175 -1.099
51 C3 176 -1.099
51 C3 177 -2.075
51 C3 178 -2.563
51 C3 179 -2.075
51 C3 180 -1.099
51 C3 181 -0.610
51 C3 182 -1.099
51 C3 183 -2.563
51 C3 184 -4.028
51 C3 185 -4.517
51 C3 186 -3.540
51 C3 187 -2.075
51 C3 188 -0.610
51 C3 189 -0.122
51 C3 190 -0.610
51 C3 191 -1.099
51 C3 192 -1.587
51 C3 193 -2.563
51 C3 194 -3.052
51 C3 195 -3.540
51 C3 196 -4.028
51 C3 197 -3.540
51 C3 198 -3.052
51 C3 199 -2.075
51 C3 200 -1.587
51 C3 201 -1.099
51 C3 202 -1.099
51 C3 203 -0.122
51 C3 204 0.366
51 C3 205 0.854
51 C3 206 0.366
51 C3 207 -0.610
51 C3 208 -1.587
51 C3 209 -2.563
51 C3 210 -3.052
51 C3 211 -3.052
51 C3 212 -2.563
51 C3 213 -1.099
51 C3 214 0.854
51 C3 215 1.831
51 C3 216 2.319
51 C3 217 1.831
51 C3 218 1.343
51 C3 219 0.854
51 C3 220 0.854
51 C3 221 1.343
51 C3 222 1.343
51 C3 223 1.343
51 C3 224 0.366
51 C3 225 -0.122
51 C3 226 -0.122
51 C3 227 0.854
51 C3 228 1.343
51 C3 229 1.343
51 C3 230 0.366
51 C3 231 -0.610
51 C3 232 -0.610
51 C3 233 0.366
51 C3 234 1.831
51 C3 235 3.296
51 C3 236 3.784
51 C3 237 3.784
51 C3 238 3.296
51 C3 239 3.296
51 C3 240 4.272
51 C3 241 5.249
51 C3 242 5.737
51 C3 243 5.249
51 C3 244 3.784
51 C3 245 2.319
51 C3 246 1.343
51 C3 247 0.366
51 C3 248 -0.122
51 C3 249 -0.122
51 C3 250 -1.099
51 C3 251 -1.099
51 C3 252 -1.587
51 C3 253 -0.610
51 C3 254 0.854
51 C3 255 1.343
# C4 chan 17
51 C4 0 0.427
51 C4 1 1.404
51 C4 2 1.892
51 C4 3 2.380
51 C4 4 1.892
51 C4 5 1.404
51 C4 6 0.916
51 C4 7 0.916
51 C4 8 0.427
51 C4 9 -0.061
51 C4 10 -0.549
51 C4 11 -1.526
51 C4 12 -2.014
51 C4 13 -2.014
51 C4 14 -2.014
51 C4 15 -2.014
51 C4 16 -2.014
51 C4 17 -2.502
51 C4 18 -1.526
51 C4 19 -0.549
51 C4 20 0.916
51 C4 21 2.380
51 C4 22 3.357
51 C4 23 3.845
51 C4 24 3.845
51 C4 25 3.845
51 C4 26 3.845
51 C4 27 4.333
51 C4 28 4.822
51 C4 29 5.310
51 C4 30 4.822
51 C4 31 3.845
51 C4 32 1.892
51 C4 33 0.427
51 C4 34 -0.549
51 C4 35 -1.526
51 C4 36 -1.526
51 C4 37 -1.526
51 C4 38 -1.038
51 C4 39 -0.549
51 C4 40 -0.061
51 C4 41 -0.061
51 C4 42 -0.061
51 C4 43 -0.061
51 C4 44 -1.038
51 C4 45 -2.014
51 C4 46 -2.991
51 C4 47 -3.479
51 C4 48 -3.479
51 C4 49 -2.991
51 C4 50 -2.502
51 C4 51 -1.526
51 C4 52 -1.038
51 C4 53 -0.061
51 C4 54 0.916
51 C4 55 1.404
51 C4 56 1.892
51 C4 57 1.404
51 C4 58 0.427
51 C4 59 -0.061
51 C4 60 -0.549
51 C4 61 -1.038
51 C4 62 -1.038
51 C4 63 -0.549
51 C4 64 -0.061
51 C4 65 0.427
51 C4 66 0.427
51 C4 67 0.427
51 C4 68 -0.061
51 C4 69 -0.061
51 C4 70 0.427
51 C4 71 1.404
51 C4 72 2.380
51 C4 73 3.357
51 C4 74 4.333
51 C4 75 4.822
51 C4 76 4.822
51 C4 77 4.333
51 C4 78 3.845
51 C4 79 2.869
51 C4 80 1.404
51 C4 81 0.427
51 C4 82 -1.038
51 C4 83 -1.526
51 C4 84 -1.038
51 C4 85 -0.061
51 C4 86 1.404
51 C4 87 2.380
51 C4 88 2.869
51 C4 89 2.380
51 C4 90 1.892
51 C4 91 0.427
51 C4 92 -0.061
51 C4 93 -0.061
51 C4 94 -0.061
51 C4 95 0.916
51 C4 96 1.892
51 C4 97 2.869
51 C4 98 3.357
51 C4 99 2.869
51 C4 100 1.404
51 C4 101 0.427
51 C4 102 -0.549
51 C4 103 -0.061
51 C4 104 1.404
51 C4 105 3.357
51 C4 106 4.822
51 C4 107 5.798
51 C4 108 4.822
51 C4 109 3.357
51 C4 110 0.916
51 C4 111 -0.061
51 C4 112 -0.549
51 C4 113 0.427
51 C4 114 1.892
51 C4 115 3.357
51 C4 116 3.845
51 C4 117 3.845
51 C4 118 3.357
51 C4 119 3.357
51 C4 120 3.357
51 C4 121 3.845
51 C4 122 4.822
51 C4 123 4.822
51 C4 124 4.822
51 C4 125 4.333
51 C4 126 3.845
51 C4 127 3.357
51 C4 128 3.357
51 C4 129 3.357
51 C4 130 3.357
51 C4 131 3.357
51 C4 132 3.357
51 C4 133 2.869
51 C4 134 2.869
51 C4 135 1.892
51 C4 136 0.916
51 C4 137 0.427
51 C4 138 0.427
51 C4 139 0.916
51 C4 140 1.404
51 C4 141 2.869
51 C4 142 3.357
51 C4 143 4.333
51 C4 144 4.333
51 C4 145 4.333
51 C4 146 4.333
51 C4 147 4.822
51 C4 148 4.822
51 C4 149 5.310
51 C4 150 4.822
51 C4 151 4.333
51 C4 152 3.357
51 C4 153 2.869
51 C4 154 2.869
51 C4 155 3.357
51 C4 156 3.845
51 C4 157 3.845
51 C4 158 4.333
51 C4 159 3.845
51 C4 160 4.333
51 C4 161 4.822
51 C4 162 4.822
51 C4 163 4.822
51 C4 164 4.333
51 C4 165 3.357
51 C4 166 2.869
51 C4 167 2.380
51 C4 168 1.892
51 C4 169 1.892
51 C4 170 1.404
51 C4 171 1.404
51 C4 172 1.404
51 C4 173 1.404
51 C4 174 2.380
51 C4 175 2.869
51 C4 176 2.380
51 C4 177 1.404
51 C4 178 -0.549
51 C4 179 -1.526
51 C4 180 -2.014
51 C4 181 -2.014
51 C4 182 -2.014
51 C4 183 -1.038
51 C4 184 -1.038
51 C4 185 -0.549
51 C4 186 0.427
51 C4 187 1.404
51 C4 188 2.380
51 C4 189 2.380
51 C4 190 2.380
51 C4 191 2.380
51 C4 192 2.380
51 C4 193 2.869
51 C4 194 3.357
51 C4 195 3.357
51 C4 196 3.357
51 C4 197 2.869
51 C4 198 1.892
51 C4 199 0.427
51 C4 200 -0.549
51 C4 201 -1.038
51 C4 202 -1.526
51 C4 203 -1.526
51 C4 204 -1.038
51 C4 205 -1.038
51 C4 206 -0.549
51 C4 207 -0.549
51 C4 208 0.427
51 C4 209 0.916
51 C4 210 1.404
51 C4 211 0.916
51 C4 212 0.427
51 C4 213 -0.549
51 C4 214 -2.014
51 C4 215 -2.991
51 C4 216 -2.991
51 C4 217 -2.502
51 C4 218 -1.526
51 C4 219 -1.526
51 C4 220 -1.526
51 C4 221 -1.526
51 C4 222 -2.014
51 C4 223 -2.014
51 C4 224 -2.502
51 C4 225 -2.502
51 C4 226 -2.991
51 C4 227 -3.479
51 C4 228 -3.967
51 C4 229 -3.479
51 C4 230 -2.991
51 C4 231 -1.526
51 C4 232 -1.038
51 C4 233 -0.549
51 C4 234 -0.061
51 C4 235 0.427
51 C4 236 0.916
51 C4 237 1.404
51 C4 238 0.916
51 C4 239 0.427
51 C4 240 -0.549
51 C4 241 -1.038
51 C4 242 -1.038
51 C4 243 -0.549
51 C4 244 0.427
51 C4 245 0.427
51 C4 246 -0.061
51 C4 247 -1.038
51 C4 248 -1.526
51 C4 249 -1.526
51 C4 250 -1.038
51 C4 251 -0.549
51 C4 252 -0.549
51 C4 253 -1.038
51 C4 254 -1.526
51 C4 255 -1.038
# CP5 chan 18
51 CP5 0 -6.968
51 CP5 1 -8.433
51 CP5 2 -9.410
51 CP5 3 -9.898
51 CP5 4 -9.410
51 CP5 5 -7.945
51 CP5 6 -5.015
51 CP5 7 -3.062
51 CP5 8 -1.597
51 CP5 9 -1.597
51 CP5 10 -2.085
51 CP5 11 -3.062
51 CP5 12 -2.574
51 CP5 13 -0.621
51 CP5 14 1.333
51 CP5 15 2.309
51 CP5 16 2.309
51 CP5 17 0.844
51 CP5 18 0.356
51 CP5 19 0.356
51 CP5 20 1.333
51 CP5 21 1.821
51 CP5 22 1.333
51 CP5 23 -0.132
51 CP5 24 -2.085
51 CP5 25 -2.574
51 CP5 26 -1.109
51 CP5 27 1.821
51 CP5 28 4.262
51 CP5 29 4.751
51 CP5 30 4.262
51 CP5 31 2.309
51 CP5 32 0.356
51 CP5 33 -0.621
51 CP5 34 -1.597
51 CP5 35 -1.109
51 CP5 36 -0.621
51 CP5 37 0.356
51 CP5 38 1.333
51 CP5 39 1.333
51 CP5 40 0.356
51 CP5 41 -0.132
51 CP5 42 -0.132
51 CP5 43 1.333
51 CP5 44 3.286
51 CP5 45 4.262
51 CP5 46 3.774
51 CP5 47 2.309
51 CP5 48 0.844
51 CP5 49 -0.132
51 CP5 50 -0.132
51 CP5 51 -1.109
51 CP5 52 -2.574
51 CP5 53 -5.015
51 CP5 54 -6.968
51 CP5 55 -7.945
51 CP5 56 -7.945
51 CP5 57 -7.456
51 CP5 58 -7.945
51 CP5 59 -8.433
51 CP5 60 -9.410
51 CP5 61 -9.410
51 CP5 62 -7.945
51 CP5 63 -5.992
51 CP5 64 -5.015
51 CP5 65 -5.015
51 CP5 66 -6.968
51 CP5 67 -8.433
51 CP5 68 -9.898
51 CP5 69 -9.898
51 CP5 70 -9.898
51 CP5 71 -9.898
51 CP5 72 -9.410
51 CP5 73 -8.433
51 CP5 74 -6.968
51 CP5 75 -5.015
51 CP5 76 -3.550
51 CP5 77 -2.574
51 CP5 78 -2.085
51 CP5 79 -1.597
51 CP5 80 -1.109
51 CP5 81 -1.597
51 CP5 82 -2.085
51 CP5 83 -3.062
51 CP5 84 -4.527
51 CP5 85 -5.503
51 CP5 86 -5.992
51 CP5 87 -5.503
51 CP5 88 -4.527
51 CP5 89 -3.550
51 CP5 90 -3.550
51 CP5 91 -3.550
51 CP5 92 -3.062
51 CP5 93 -3.062
51 CP5 94 -3.062
51 CP5 95 -3.550
51 CP5 96 -4.038
51 CP5 97 -4.527
51 CP5 98 -5.015
51 CP5 99 -5.503
51 CP5 100 -5.503
51 CP5 101 -5.503
51 CP5 102 -5.503
51 CP5 103 -5.503
51 CP5 104 -5.015
51 CP5 105 -5.015
51 CP5 106 -4.038
51 CP5 107 -3.550
51 CP5 108 -3.062
51 CP5 109 -1.597
51 CP5 110 -0.621
51 CP5 111 -0.132
51 CP5 112 0.356
51 CP5 113 -0.132
51 CP5 114 -0.621
51 CP5 115 -1.597
51 CP5 116 -2.085
51 CP5 117 -3.062
51 CP5 118 -4.038
51 CP5 119 -5.503
51 CP5 120 -5.992
51 CP5 121 -6.968
51 CP5 122 -7.456
51 CP5 123 -7.945
51 CP5 124 -7.945
51 CP5 125 -7.456
51 CP5 126 -6.480
51 CP5 127 -5.015
51 CP5 128 -3.550
51 CP5 129 -3.062
51 CP5 130 -3.550
51 CP5 131 -4.038
51 CP5 132 -4.527
51 CP5 133 -4.527
51 CP5 134 -5.015
51 CP5 135 -5.503
51 CP5 136 -5.503
51 CP5 137 -5.015
51 CP5 138 -4.527
51 CP5 139 -3.550
51 CP5 140 -3.062
51 CP5 141 -2.574
51 CP5 142 -3.062
51 CP5 143 -4.038
51 CP5 144 -5.503
51 CP5 145 -6.968
51 CP5 146 -7.945
51 CP5 147 -8.433
51 CP5 148 -9.410
51 CP5 149 -10.386
51 CP5 150 -11.363
51 CP5 151 -11.363
51 CP5 152 -10.874
51 CP5 153 -9.410
51 CP5 154 -6.968
51 CP5 155 -5.015
51 CP5 156 -3.062
51 CP5 157 -1.597
51 CP5 158 -1.109
51 CP5 159 -0.621
51 CP5 160 -1.109
51 CP5 161 -2.085
51 CP5 162 -4.038
51 CP5 163 -6.480
51 CP5 164 -8.921
51 CP5 165 -10.386
51 CP5 166 -10.874
51 CP5 167 -11.363
51 CP5 168 -12.339
51 CP5 169 -13.804
51 CP5 170 -15.269
51 CP5 171 -15.269
51 CP5 172 -14.292
51 CP5 173 -11.851
51 CP5 174 -9.898
51 CP5 175 -8.921
51 CP5 176 -9.410
51 CP5 177 -9.898
51 CP5 178 -10.386
51 CP5 179 -9.898
51 CP5 180 -8.433
51 CP5 181 -8.921
51 CP5 182 -10.386
51 CP5 183 -13.316
51 CP5 184 -15.757
51 CP5 185 -15.757
51 CP5 186 -13.804
51 CP5 187 -10.386
51 CP5 188 -6.968
51 CP5 189 -5.503
51 CP5 190 -5.503
51 CP5 191 -5.992
51 CP5 192 -7.456
51 CP5 193 -8.433
51 CP5 194 -9.410
51 CP5 195 -10.874
51 CP5 196 -11.363
51 CP5 197 -12.339
51 CP5 198 -11.363
51 CP5 199 -9.898
51 CP5 200 -8.433
51 CP5 201 -7.456
51 CP5 202 -6.480
51 CP5 203 -5.503
51 CP5 204 -4.527
51 CP5 205 -3.550
51 CP5 206 -3.550
51 CP5 207 -4.527
51 CP5 208 -5.992
51 CP5 209 -7.945
51 CP5 210 -9.898
51 CP5 211 -9.898
51 CP5 212 -9.410
51 CP5 213 -7.456
51 CP5 214 -5.503
51 CP5 215 -3.550
51 CP5 216 -3.062
51 CP5 217 -2.574
51 CP5 218 -3.062
51 CP5 219 -2.574
51 CP5 220 -2.085
51 CP5 221 -2.574
51 CP5 222 -3.550
51 CP5 223 -5.503
51 CP5 224 -6.968
51 CP5 225 -7.945
51 CP5 226 -6.968
51 CP5 227 -5.503
51 CP5 228 -3.550
51 CP5 229 -3.062
51 CP5 230 -4.038
51 CP5 231 -4.527
51 CP5 232 -4.527
51 CP5 233 -3.062
51 CP5 234 -1.109
51 CP5 235 0.844
51 CP5 236 1.333
51 CP5 237 0.844
51 CP5 238 -0.132
51 CP5 239 0.356
51 CP5 240 1.821
51 CP5 241 4.262
51 CP5 242 5.727
51 CP5 243 5.727
51 CP5 244 3.774
51 CP5 245 1.333
51 CP5 246 -0.621
51 CP5 247 -2.085
51 CP5 248 -3.550
51 CP5 249 -5.015
51 CP5 250 -6.480
51 CP5 251 -7.456
51 CP5 252 -7.945
51 CP5 253 -6.480
51 CP5 254 -4.527
51 CP5 255 -2.085
# CP6 chan 19
51 CP6 0 -1.394
51 CP6 1 -0.905
51 CP6 2 -0.417
51 CP6 3 0.071
51 CP6 4 0.559
51 CP6 5 1.536
51 CP6 6 1.536
51 CP6 7 1.536
51 CP6 8 1.048
51 CP6 9 0.071
51 CP6 10 -0.905
51 CP6 11 -2.370
51 CP6 12 -3.347
51 CP6 13 -3.347
51 CP6 14 -3.347
51 CP6 15 -2.370
51 CP6 16 -2.370
51 CP6 17 -1.882
51 CP6 18 -0.905
51 CP6 19 0.559
51 CP6 20 3.489
51 CP6 21 5.931
51 CP6 22 7.395
51 CP6 23 8.372
51 CP6 24 7.884
51 CP6 25 7.884
51 CP6 26 8.372
51 CP6 27 9.837
51 CP6 28 11.790
51 CP6 29 12.767
51 CP6 30 12.767
51 CP6 31 11.302
51 CP6 32 9.349
51 CP6 33 6.419
51 CP6 34 3.977
51 CP6 35 2.024
51 CP6 36 1.048
51 CP6 37 1.048
51 CP6 38 1.536
51 CP6 39 2.513
51 CP6 40 2.513
51 CP6 41 3.001
51 CP6 42 2.513
51 CP6 43 3.001
51 CP6 44 2.513
51 CP6 45 1.048
51 CP6 46 -0.417
51 CP6 47 -2.370
51 CP6 48 -3.347
51 CP6 49 -3.347
51 CP6 50 -2.370
51 CP6 51 -1.394
51 CP6 52 0.071
51 CP6 53 1.048
51 CP6 54 2.024
51 CP6 55 2.513
51 CP6 56 2.513
51 CP6 57 2.513
51 CP6 58 1.536
51 CP6 59 0.071
51 CP6 60 -1.882
51 CP6 61 -2.858
51 CP6 62 -3.835
51 CP6 63 -3.347
51 CP6 64 -3.347
51 CP6 65 -2.858
51 CP6 66 -2.858
51 CP6 67 -3.347
51 CP6 68 -3.347
51 CP6 69 -3.347
51 CP6 70 -2.370
51 CP6 71 -0.905
51 CP6 72 1.048
51 CP6 73 3.489
51 CP6 74 5.931
51 CP6 75 7.884
51 CP6 76 8.860
51 CP6 77 8.372
51 CP6 78 7.395
51 CP6 79 6.419
51 CP6 80 4.954
51 CP6 81 3.001
51 CP6 82 2.024
51 CP6 83 0.559
51 CP6 84 1.048
51 CP6 85 1.536
51 CP6 86 3.001
51 CP6 87 4.466
51 CP6 88 5.442
51 CP6 89 4.954
51 CP6 90 3.489
51 CP6 91 1.536
51 CP6 92 -0.417
51 CP6 93 -1.882
51 CP6 94 -1.882
51 CP6 95 -1.394
51 CP6 96 0.559
51 CP6 97 2.513
51 CP6 98 3.977
51 CP6 99 3.977
51 CP6 100 2.513
51 CP6 101 0.559
51 CP6 102 -0.905
51 CP6 103 -0.905
51 CP6 104 -0.417
51 CP6 105 1.048
51 CP6 106 2.513
51 CP6 107 3.001
51 CP6 108 2.513
51 CP6 109 1.048
51 CP6 110 -0.905
51 CP6 111 -1.882
51 CP6 112 -2.370
51 CP6 113 -1.394
51 CP6 114 0.071
51 CP6 115 2.024
51 CP6 116 3.977
51 CP6 117 5.442
51 CP6 118 5.931
51 CP6 119 6.419
51 CP6 120 6.419
51 CP6 121 5.931
51 CP6 122 5.931
51 CP6 123 5.442
51 CP6 124 4.466
51 CP6 125 3.977
51 CP6 126 3.489
51 CP6 127 3.001
51 CP6 128 3.489
51 CP6 129 3.489
51 CP6 130 3.489
51 CP6 131 3.001
51 CP6 132 2.513
51 CP6 133 2.024
51 CP6 134 1.048
51 CP6 135 -0.417
51 CP6 136 -1.394
51 CP6 137 -2.370
51 CP6 138 -2.370
51 CP6 139 -1.394
51 CP6 140 0.071
51 CP6 141 2.024
51 CP6 142 3.489
51 CP6 143 3.977
51 CP6 144 3.489
51 CP6 145 3.001
51 CP6 146 2.513
51 CP6 147 1.536
51 CP6 148 1.048
51 CP6 149 0.559
51 CP6 150 0.071
51 CP6 151 0.071
51 CP6 152 0.559
51 CP6 153 0.559
51 CP6 154 1.536
51 CP6 155 1.536
51 CP6 156 2.024
51 CP6 157 1.536
51 CP6 158 1.536
51 CP6 159 1.536
51 CP6 160 1.536
51 CP6 161 1.048
51 CP6 162 0.071
51 CP6 163 -1.394
51 CP6 164 -2.370
51 CP6 165 -3.347
51 CP6 166 -2.858
51 CP6 167 -2.370
51 CP6 168 -2.370
51 CP6 169 -2.370
51 CP6 170 -3.347
51 CP6 171 -4.812
51 CP6 172 -5.788
51 CP6 173 -6.276
51 CP6 174 -6.765
51 CP6 175 -6.765
51 CP6 176 -6.765
51 CP6 177 -7.741
51 CP6 178 -9.206
51 CP6 179 -11.159
51 CP6 180 -12.624
51 CP6 181 -14.089
51 CP6 182 -15.554
51 CP6 183 -16.530
51 CP6 184 -16.530
51 CP6 185 -15.066
51 CP6 186 -12.624
51 CP6 187 -10.183
51 CP6 188 -7.253
51 CP6 189 -6.276
51 CP6 190 -6.276
51 CP6 191 -6.276
51 CP6 192 -6.276
51 CP6 193 -5.300
51 CP6 194 -3.347
51 CP6 195 -2.370
51 CP6 196 -2.858
51 CP6 197 -4.323
51 CP6 198 -5.788
51 CP6 199 -7.253
51 CP6 200 -7.741
51 CP6 201 -7.741
51 CP6 202 -7.741
51 CP6 203 -7.741
51 CP6 204 -8.230
51 CP6 205 -7.741
51 CP6 206 -6.765
51 CP6 207 -5.300
51 CP6 208 -3.835
51 CP6 209 -3.347
51 CP6 210 -3.347
51 CP6 211 -4.323
51 CP6 212 -6.276
51 CP6 213 -8.230
51 CP6 214 -10.183
51 CP6 215 -10.671
51 CP6 216 -10.183
51 CP6 217 -8.230
51 CP6 218 -6.276
51 CP6 219 -4.323
51 CP6 220 -3.835
51 CP6 221 -4.812
51 CP6 222 -6.276
51 CP6 223 -8.718
51 CP6 224 -10.671
51 CP6 225 -12.136
51 CP6 226 -13.112
51 CP6 227 -13.601
51 CP6 228 -12.136
51 CP6 229 -9.694
51 CP6 230 -5.788
51 CP6 231 -2.370
51 CP6 232 -0.417
51 CP6 233 0.559
51 CP6 234 0.559
51 CP6 235 0.559
51 CP6 236 0.071
51 CP6 237 -0.417
51 CP6 238 -1.882
51 CP6 239 -4.323
51 CP6 240 -6.276
51 CP6 241 -6.765
51 CP6 242 -5.788
51 CP6 243 -3.347
51 CP6 244 -1.394
51 CP6 245 -0.417
51 CP6 246 -0.905
51 CP6 247 -2.858
51 CP6 248 -3.835
51 CP6 249 -4.812
51 CP6 250 -5.300
51 CP6 251 -5.300
51 CP6 252 -6.276
51 CP6 253 -6.765
51 CP6 254 -6.765
51 CP6 255 -4.812
# CP1 chan 20
51 CP1 0 -2.553
51 CP1 1 -4.018
51 CP1 2 -4.506
51 CP1 3 -4.995
51 CP1 4 -4.995
51 CP1 5 -4.018
51 CP1 6 -3.042
51 CP1 7 -2.553
51 CP1 8 -2.065
51 CP1 9 -2.553
51 CP1 10 -2.553
51 CP1 11 -3.042
51 CP1 12 -2.553
51 CP1 13 -1.577
51 CP1 14 -0.600
51 CP1 15 0.376
51 CP1 16 0.376
51 CP1 17 -0.112
51 CP1 18 -0.112
51 CP1 19 -0.600
51 CP1 20 -0.112
51 CP1 21 -0.112
51 CP1 22 -0.600
51 CP1 23 -1.577
51 CP1 24 -2.553
51 CP1 25 -3.042
51 CP1 26 -2.553
51 CP1 27 -2.065
51 CP1 28 -1.088
51 CP1 29 -0.600
51 CP1 30 -0.112
51 CP1 31 -0.112
51 CP1 32 -0.112
51 CP1 33 -0.600
51 CP1 34 -1.088
51 CP1 35 -1.088
51 CP1 36 -1.088
51 CP1 37 -0.112
51 CP1 38 0.376
51 CP1 39 0.865
51 CP1 40 0.376
51 CP1 41 -0.112
51 CP1 42 -0.112
51 CP1 43 0.865
51 CP1 44 2.330
51 CP1 45 3.306
51 CP1 46 2.818
51 CP1 47 1.841
51 CP1 48 0.376
51 CP1 49 -0.112
51 CP1 50 -0.112
51 CP1 51 -0.112
51 CP1 52 -0.600
51 CP1 53 -2.065
51 CP1 54 -3.042
51 CP1 55 -3.530
51 CP1 56 -3.042
51 CP1 57 -2.065
51 CP1 58 -2.065
51 CP1 59 -3.042
51 CP1 60 -4.018
51 CP1 61 -4.995
51 CP1 62 -4.995
51 CP1 63 -4.018
51 CP1 64 -3.530
51 CP1 65 -4.018
51 CP1 66 -4.995
51 CP1 67 -5.483
51 CP1 68 -5.483
51 CP1 69 -4.506
51 CP1 70 -4.018
51 CP1 71 -3.530
51 CP1 72 -3.530
51 CP1 73 -3.042
51 CP1 74 -2.065
51 CP1 75 -0.600
51 CP1 76 0.376
51 CP1 77 1.841
51 CP1 78 1.841
51 CP1 79 2.330
51 CP1 80 2.818
51 CP1 81 3.306
51 CP1 82 2.818
51 CP1 83 1.841
51 CP1 84 0.865
51 CP1 85 -0.112
51 CP1 86 -0.600
51 CP1 87 0.376
51 CP1 88 1.353
51 CP1 89 1.841
51 CP1 90 2.330
51 CP1 91 2.330
51 CP1 92 1.841
51 CP1 93 1.841
51 CP1 94 1.353
51 CP1 95 1.353
51 CP1 96 0.376
51 CP1 97 -0.112
51 CP1 98 -0.112
51 CP1 99 -0.112
51 CP1 100 0.376
51 CP1 101 0.865
51 CP1 102 0.865
51 CP1 103 0.865
51 CP1 104 -0.112
51 CP1 105 -0.600
51 CP1 106 -1.088
51 CP1 107 -1.088
51 CP1 108 -0.600
51 CP1 109 0.376
51 CP1 110 1.353
51 CP1 111 2.330
51 CP1 112 2.818
51 CP1 113 2.818
51 CP1 114 1.841
51 CP1 115 1.353
51 CP1 116 0.865
51 CP1 117 1.353
51 CP1 118 0.865
51 CP1 119 0.376
51 CP1 120 -0.600
51 CP1 121 -1.088
51 CP1 122 -1.577
51 CP1 123 -2.065
51 CP1 124 -1.577
51 CP1 125 -1.088
51 CP1 126 -0.112
51 CP1 127 0.376
51 CP1 128 0.865
51 CP1 129 0.865
51 CP1 130 0.865
51 CP1 131 0.865
51 CP1 132 0.865
51 CP1 133 0.376
51 CP1 134 -0.112
51 CP1 135 -0.600
51 CP1 136 -0.600
51 CP1 137 -0.112
51 CP1 138 0.865
51 CP1 139 1.841
51 CP1 140 2.330
51 CP1 141 2.818
51 CP1 142 1.841
51 CP1 143 0.865
51 CP1 144 -0.112
51 CP1 145 -0.600
51 CP1 146 -1.577
51 CP1 147 -2.553
51 CP1 148 -3.530
51 CP1 149 -4.506
51 CP1 150 -4.995
51 CP1 151 -4.506
51 CP1 152 -3.530
51 CP1 153 -2.553
51 CP1 154 -1.577
51 CP1 155 -0.600
51 CP1 156 -0.112
51 CP1 157 0.376
51 CP1 158 1.353
51 CP1 159 1.353
51 CP1 160 0.865
51 CP1 161 -0.112
51 CP1 162 -1.577
51 CP1 163 -2.553
51 CP1 164 -3.530
51 CP1 165 -3.530
51 CP1 166 -3.530
51 CP1 167 -3.530
51 CP1 168 -3.530
51 CP1 169 -4.506
51 CP1 170 -5.483
51 CP1 171 -5.971
51 CP1 172 -5.971
51 CP1 173 -5.483
51 CP1 174 -4.995
51 CP1 175 -4.506
51 CP1 176 -4.018
51 CP1 177 -3.530
51 CP1 178 -3.530
51 CP1 179 -3.042
51 CP1 180 -2.553
51 CP1 181 -3.042
51 CP1 182 -4.506
51 CP1 183 -6.460
51 CP1 184 -7.924
51 CP1 185 -8.413
51 CP1 186 -7.436
51 CP1 187 -6.460
51 CP1 188 -4.995
51 CP1 189 -4.995
51 CP1 190 -4.995
51 CP1 191 -5.483
51 CP1 192 -5.483
51 CP1 193 -5.971
51 CP1 194 -6.948
51 CP1 195 -7.436
51 CP1 196 -7.436
51 CP1 197 -7.436
51 CP1 198 -5.483
51 CP1 199 -3.530
51 CP1 200 -2.553
51 CP1 201 -2.065
51 CP1 202 -2.065
51 CP1 203 -1.577
51 CP1 204 -1.577
51 CP1 205 -1.577
51 CP1 206 -2.065
51 CP1 207 -3.530
51 CP1 208 -4.995
51 CP1 209 -5.483
51 CP1 210 -5.483
51 CP1 211 -5.483
51 CP1 212 -4.506
51 CP1 213 -3.530
51 CP1 214 -2.553
51 CP1 215 -1.577
51 CP1 216 -0.600
51 CP1 217 -0.112
51 CP1 218 0.865
51 CP1 219 1.353
51 CP1 220 1.353
51 CP1 221 1.353
51 CP1 222 0.376
51 CP1 223 -1.088
51 CP1 224 -2.553
51 CP1 225 -3.530
51 CP1 226 -3.042
51 CP1 227 -2.553
51 CP1 228 -1.577
51 CP1 229 -1.577
51 CP1 230 -2.065
51 CP1 231 -1.577
51 CP1 232 -1.088
51 CP1 233 0.376
51 CP1 234 1.353
51 CP1 235 2.330
51 CP1 236 2.330
51 CP1 237 1.841
51 CP1 238 1.353
51 CP1 239 1.841
51 CP1 240 2.818
51 CP1 241 3.794
51 CP1 242 4.771
51 CP1 243 4.771
51 CP1 244 3.794
51 CP1 245 3.306
51 CP1 246 2.330
51 CP1 247 1.841
51 CP1 248 0.865
51 CP1 249 -0.600
51 CP1 250 -2.553
51 CP1 251 -3.530
51 CP1 252 -4.018
51 CP1 253 -3.530
51 CP1 254 -2.553
51 CP1 255 -0.600
# CP2 chan 21
51 CP2 0 -0.854
51 CP2 1 -0.366
51 CP2 2 0.122
51 CP2 3 0.122
51 CP2 4 0.122
51 CP2 5 0.122
51 CP2 6 0.122
51 CP2 7 0.122
51 CP2 8 0.122
51 CP2 9 -0.366
51 CP2 10 -1.343
51 CP2 11 -2.319
51 CP2 12 -2.808
51 CP2 13 -3.296
51 CP2 14 -3.296
51 CP2 15 -2.808
51 CP2 16 -2.319
51 CP2 17 -1.831
51 CP2 18 -0.854
51 CP2 19 0.122
51 CP2 20 1.587
51 CP2 21 2.075
51 CP2 22 2.563
51 CP2 23 2.563
51 CP2 24 1.587
51 CP2 25 1.099
51 CP2 26 1.099
51 CP2 27 1.587
51 CP2 28 2.563
51 CP2 29 3.540
51 CP2 30 4.028
51 CP2 31 4.028
51 CP2 32 3.540
51 CP2 33 2.563
51 CP2 34 1.099
51 CP2 35 0.610
51 CP2 36 0.122
51 CP2 37 0.122
51 CP2 38 0.610
51 CP2 39 1.099
51 CP2 40 1.587
51 CP2 41 2.075
51 CP2 42 2.563
51 CP2 43 3.052
51 CP2 44 2.075
51 CP2 45 1.587
51 CP2 46 0.122
51 CP2 47 -0.854
51 CP2 48 -2.319
51 CP2 49 -2.808
51 CP2 50 -2.808
51 CP2 51 -2.319
51 CP2 52 -1.343
51 CP2 53 -0.854
51 CP2 54 -0.854
51 CP2 55 -0.366
51 CP2 56 0.122
51 CP2 57 0.610
51 CP2 58 0.122
51 CP2 59 -0.366
51 CP2 60 -1.343
51 CP2 61 -2.808
51 CP2 62 -3.296
51 CP2 63 -3.296
51 CP2 64 -3.296
51 CP2 65 -2.808
51 CP2 66 -2.319
51 CP2 67 -2.319
51 CP2 68 -1.343
51 CP2 69 -0.854
51 CP2 70 0.122
51 CP2 71 1.099
51 CP2 72 1.587
51 CP2 73 2.563
51 CP2 74 4.028
51 CP2 75 5.005
51 CP2 76 6.470
51 CP2 77 6.958
51 CP2 78 6.958
51 CP2 79 6.470
51 CP2 80 5.493
51 CP2 81 5.005
51 CP2 82 4.028
51 CP2 83 3.052
51 CP2 84 3.052
51 CP2 85 3.540
51 CP2 86 4.028
51 CP2 87 5.005
51 CP2 88 5.981
51 CP2 89 5.981
51 CP2 90 5.005
51 CP2 91 3.540
51 CP2 92 2.075
51 CP2 93 1.099
51 CP2 94 0.610
51 CP2 95 0.610
51 CP2 96 1.587
51 CP2 97 3.052
51 CP2 98 4.028
51 CP2 99 4.517
51 CP2 100 4.028
51 CP2 101 3.540
51 CP2 102 2.563
51 CP2 103 2.075
51 CP2 104 2.563
51 CP2 105 2.563
51 CP2 106 2.563
51 CP2 107 2.563
51 CP2 108 1.587
51 CP2 109 1.099
51 CP2 110 1.099
51 CP2 111 1.587
51 CP2 112 2.075
51 CP2 113 2.563
51 CP2 114 3.052
51 CP2 115 4.028
51 CP2 116 4.517
51 CP2 117 5.005
51 CP2 118 4.517
51 CP2 119 4.028
51 CP2 120 3.540
51 CP2 121 3.540
51 CP2 122 3.540
51 CP2 123 3.540
51 CP2 124 3.540
51 CP2 125 3.540
51 CP2 126 3.052
51 CP2 127 2.563
51 CP2 128 2.563
51 CP2 129 3.052
51 CP2 130 2.563
51 CP2 131 2.563
51 CP2 132 2.075
51 CP2 133 1.587
51 CP2 134 1.099
51 CP2 135 0.610
51 CP2 136 1.099
51 CP2 137 1.099
51 CP2 138 1.587
51 CP2 139 2.563
51 CP2 140 3.052
51 CP2 141 3.540
51 CP2 142 3.052
51 CP2 143 2.563
51 CP2 144 2.075
51 CP2 145 1.587
51 CP2 146 0.610
51 CP2 147 0.122
51 CP2 148 -0.366
51 CP2 149 -0.854
51 CP2 150 -1.343
51 CP2 151 -1.343
51 CP2 152 -0.854
51 CP2 153 -0.366
51 CP2 154 0.122
51 CP2 155 -0.366
51 CP2 156 -0.366
51 CP2 157 -0.854
51 CP2 158 -0.854
51 CP2 159 -0.366
51 CP2 160 -0.366
51 CP2 161 -0.854
51 CP2 162 -1.343
51 CP2 163 -2.319
51 CP2 164 -3.296
51 CP2 165 -3.296
51 CP2 166 -2.808
51 CP2 167 -2.319
51 CP2 168 -2.319
51 CP2 169 -2.319
51 CP2 170 -2.808
51 CP2 171 -3.296
51 CP2 172 -3.784
51 CP2 173 -4.272
51 CP2 174 -3.784
51 CP2 175 -3.784
51 CP2 176 -3.784
51 CP2 177 -3.784
51 CP2 178 -4.272
51 CP2 179 -4.761
51 CP2 180 -5.249
51 CP2 181 -6.226
51 CP2 182 -7.690
51 CP2 183 -8.667
51 CP2 184 -10.132
51 CP2 185 -10.132
51 CP2 186 -9.155
51 CP2 187 -8.179
51 CP2 188 -7.202
51 CP2 189 -6.226
51 CP2 190 -6.226
51 CP2 191 -5.249
51 CP2 192 -4.272
51 CP2 193 -3.296
51 CP2 194 -2.808
51 CP2 195 -2.808
51 CP2 196 -3.296
51 CP2 197 -3.784
51 CP2 198 -4.272
51 CP2 199 -4.272
51 CP2 200 -4.272
51 CP2 201 -4.272
51 CP2 202 -5.249
51 CP2 203 -4.761
51 CP2 204 -4.761
51 CP2 205 -4.272
51 CP2 206 -3.784
51 CP2 207 -3.784
51 CP2 208 -3.784
51 CP2 209 -3.296
51 CP2 210 -2.808
51 CP2 211 -2.808
51 CP2 212 -3.296
51 CP2 213 -3.784
51 CP2 214 -4.272
51 CP2 215 -4.272
51 CP2 216 -3.784
51 CP2 217 -2.319
51 CP2 218 -0.854
51 CP2 219 -0.366
51 CP2 220 -0.854
51 CP2 221 -1.831
51 CP2 222 -3.296
51 CP2 223 -4.272
51 CP2 224 -5.249
51 CP2 225 -5.737
51 CP2 226 -6.226
51 CP2 227 -6.226
51 CP2 228 -6.226
51 CP2 229 -4.761
51 CP2 230 -2.319
51 CP2 231 -0.366
51 CP2 232 0.610
51 CP2 233 1.587
51 CP2 234 1.587
51 CP2 235 1.587
51 CP2 236 1.587
51 CP2 237 1.099
51 CP2 238 0.122
51 CP2 239 -1.831
51 CP2 240 -2.808
51 CP2 241 -3.296
51 CP2 242 -2.808
51 CP2 243 -1.343
51 CP2 244 0.122
51 CP2 245 0.610
51 CP2 246 1.099
51 CP2 247 0.610
51 CP2 248 0.122
51 CP2 249 -0.854
51 CP2 250 -1.343
51 CP2 251 -2.319
51 CP2 252 -3.296
51 CP2 253 -3.784
51 CP2 254 -3.784
51 CP2 255 -2.808
# P3 chan 22
51 P3 0 -5.066
51 P3 1 -6.042
51 P3 2 -7.019
51 P3 3 -7.996
51 P3 4 -8.484
51 P3 5 -7.507
51 P3 6 -5.554
51 P3 7 -3.601
51 P3 8 -2.625
51 P3 9 -3.601
51 P3 10 -5.066
51 P3 11 -6.042
51 P3 12 -5.554
51 P3 13 -3.601
51 P3 14 -0.671
51 P3 15 0.793
51 P3 16 0.793
51 P3 17 -0.183
51 P3 18 -0.671
51 P3 19 -0.671
51 P3 20 0.305
51 P3 21 0.305
51 P3 22 -0.671
51 P3 23 -2.625
51 P3 24 -3.601
51 P3 25 -3.113
51 P3 26 -1.160
51 P3 27 2.258
51 P3 28 4.211
51 P3 29 5.188
51 P3 30 4.211
51 P3 31 3.235
51 P3 32 1.770
51 P3 33 0.305
51 P3 34 -0.671
51 P3 35 -1.160
51 P3 36 -0.671
51 P3 37 0.793
51 P3 38 2.258
51 P3 39 2.747
51 P3 40 1.770
51 P3 41 0.793
51 P3 42 0.305
51 P3 43 1.282
51 P3 44 3.235
51 P3 45 5.188
51 P3 46 4.700
51 P3 47 2.747
51 P3 48 0.793
51 P3 49 -0.183
51 P3 50 -0.183
51 P3 51 -0.183
51 P3 52 -1.160
51 P3 53 -3.113
51 P3 54 -5.554
51 P3 55 -6.531
51 P3 56 -6.042
51 P3 57 -5.554
51 P3 58 -6.042
51 P3 59 -7.996
51 P3 60 -10.437
51 P3 61 -11.414
51 P3 62 -9.949
51 P3 63 -7.507
51 P3 64 -5.554
51 P3 65 -6.042
51 P3 66 -7.507
51 P3 67 -9.460
51 P3 68 -9.949
51 P3 69 -8.972
51 P3 70 -7.507
51 P3 71 -6.531
51 P3 72 -5.066
51 P3 73 -3.601
51 P3 74 -0.671
51 P3 75 1.770
51 P3 76 4.211
51 P3 77 5.676
51 P3 78 6.653
51 P3 79 7.141
51 P3 80 7.141
51 P3 81 6.165
51 P3 82 5.188
51 P3 83 3.235
51 P3 84 1.770
51 P3 85 1.282
51 P3 86 1.770
51 P3 87 3.723
51 P3 88 5.676
51 P3 89 6.653
51 P3 90 7.141
51 P3 91 6.653
51 P3 92 6.165
51 P3 93 5.188
51 P3 94 4.211
51 P3 95 2.747
51 P3 96 1.282
51 P3 97 0.305
51 P3 98 0.305
51 P3 99 1.282
51 P3 100 2.258
51 P3 101 2.258
51 P3 102 2.258
51 P3 103 1.770
51 P3 104 1.770
51 P3 105 1.282
51 P3 106 1.282
51 P3 107 1.282
51 P3 108 1.282
51 P3 109 2.747
51 P3 110 4.211
51 P3 111 6.653
51 P3 112 7.629
51 P3 113 6.653
51 P3 114 5.188
51 P3 115 2.747
51 P3 116 1.282
51 P3 117 -0.183
51 P3 118 -0.671
51 P3 119 -1.648
51 P3 120 -2.136
51 P3 121 -3.113
51 P3 122 -4.089
51 P3 123 -5.066
51 P3 124 -4.578
51 P3 125 -3.113
51 P3 126 -1.648
51 P3 127 -0.183
51 P3 128 0.793
51 P3 129 1.282
51 P3 130 1.282
51 P3 131 1.282
51 P3 132 1.282
51 P3 133 0.793
51 P3 134 -0.671
51 P3 135 -2.136
51 P3 136 -2.625
51 P3 137 -1.648
51 P3 138 0.305
51 P3 139 3.235
51 P3 140 4.700
51 P3 141 4.211
51 P3 142 2.747
51 P3 143 0.305
51 P3 144 -1.160
51 P3 145 -1.648
51 P3 146 -2.625
51 P3 147 -4.089
51 P3 148 -6.042
51 P3 149 -8.484
51 P3 150 -9.949
51 P3 151 -9.460
51 P3 152 -7.996
51 P3 153 -5.554
51 P3 154 -3.601
51 P3 155 -1.648
51 P3 156 0.305
51 P3 157 1.770
51 P3 158 2.747
51 P3 159 2.747
51 P3 160 1.282
51 P3 161 -1.648
51 P3 162 -4.089
51 P3 163 -7.507
51 P3 164 -9.460
51 P3 165 -10.437
51 P3 166 -10.437
51 P3 167 -10.925
51 P3 168 -12.390
51 P3 169 -14.832
51 P3 170 -17.273
51 P3 171 -18.250
51 P3 172 -17.761
51 P3 173 -15.320
51 P3 174 -12.878
51 P3 175 -11.414
51 P3 176 -10.437
51 P3 177 -10.437
51 P3 178 -9.949
51 P3 179 -9.460
51 P3 180 -9.460
51 P3 181 -11.414
51 P3 182 -14.343
51 P3 183 -18.738
51 P3 184 -22.156
51 P3 185 -22.156
51 P3 186 -19.226
51 P3 187 -15.320
51 P3 188 -12.390
51 P3 189 -10.925
51 P3 190 -10.925
51 P3 191 -11.414
51 P3 192 -12.390
51 P3 193 -13.855
51 P3 194 -15.320
51 P3 195 -17.273
51 P3 196 -17.761
51 P3 197 -16.785
51 P3 198 -14.343
51 P3 199 -11.414
51 P3 200 -8.484
51 P3 201 -6.531
51 P3 202 -5.554
51 P3 203 -4.578
51 P3 204 -4.089
51 P3 205 -4.089
51 P3 206 -5.554
51 P3 207 -7.996
51 P3 208 -10.925
51 P3 209 -13.367
51 P3 210 -14.832
51 P3 211 -14.832
51 P3 212 -13.855
51 P3 213 -11.902
51 P3 214 -9.460
51 P3 215 -6.531
51 P3 216 -4.089
51 P3 217 -1.648
51 P3 218 0.305
51 P3 219 2.258
51 P3 220 2.747
51 P3 221 1.282
51 P3 222 -2.136
51 P3 223 -6.042
51 P3 224 -9.460
51 P3 225 -10.437
51 P3 226 -8.972
51 P3 227 -7.019
51 P3 228 -5.554
51 P3 229 -6.042
51 P3 230 -6.531
51 P3 231 -6.042
51 P3 232 -4.578
51 P3 233 -1.648
51 P3 234 1.282
51 P3 235 1.770
51 P3 236 0.305
51 P3 237 -1.160
51 P3 238 -1.648
51 P3 239 -0.183
51 P3 240 2.747
51 P3 241 5.676
51 P3 242 7.629
51 P3 243 8.118
51 P3 244 6.165
51 P3 245 4.211
51 P3 246 2.258
51 P3 247 -0.183
51 P3 248 -3.113
51 P3 249 -6.531
51 P3 250 -9.949
51 P3 251 -11.902
51 P3 252 -12.878
51 P3 253 -11.902
51 P3 254 -8.972
51 P3 255 -5.066
# P4 chan 23
51 P4 0 -0.570
51 P4 1 -0.570
51 P4 2 -1.058
51 P4 3 -0.570
51 P4 4 -0.081
51 P4 5 0.407
51 P4 6 0.895
51 P4 7 0.895
51 P4 8 -0.081
51 P4 9 -1.058
51 P4 10 -2.523
51 P4 11 -3.499
51 P4 12 -4.476
51 P4 13 -4.964
51 P4 14 -4.476
51 P4 15 -3.499
51 P4 16 -3.011
51 P4 17 -2.035
51 P4 18 -0.570
51 P4 19 1.872
51 P4 20 4.313
51 P4 21 6.266
51 P4 22 6.755
51 P4 23 6.266
51 P4 24 5.290
51 P4 25 4.801
51 P4 26 4.801
51 P4 27 6.266
51 P4 28 8.219
51 P4 29 10.173
51 P4 30 11.149
51 P4 31 11.637
51 P4 32 10.661
51 P4 33 8.708
51 P4 34 6.755
51 P4 35 5.290
51 P4 36 4.801
51 P4 37 5.290
51 P4 38 6.266
51 P4 39 6.755
51 P4 40 7.243
51 P4 41 7.731
51 P4 42 8.219
51 P4 43 9.196
51 P4 44 9.196
51 P4 45 7.731
51 P4 46 4.801
51 P4 47 2.360
51 P4 48 -0.081
51 P4 49 -1.058
51 P4 50 -1.058
51 P4 51 -0.081
51 P4 52 0.895
51 P4 53 1.383
51 P4 54 2.360
51 P4 55 2.360
51 P4 56 2.848
51 P4 57 3.337
51 P4 58 2.360
51 P4 59 0.407
51 P4 60 -1.546
51 P4 61 -3.499
51 P4 62 -3.988
51 P4 63 -3.499
51 P4 64 -3.499
51 P4 65 -3.011
51 P4 66 -3.499
51 P4 67 -3.011
51 P4 68 -2.523
51 P4 69 -1.058
51 P4 70 0.407
51 P4 71 2.360
51 P4 72 4.313
51 P4 73 6.266
51 P4 74 9.196
51 P4 75 11.637
51 P4 76 14.079
51 P4 77 15.055
51 P4 78 14.567
51 P4 79 13.590
51 P4 80 12.126
51 P4 81 10.173
51 P4 82 8.708
51 P4 83 7.731
51 P4 84 7.731
51 P4 85 8.219
51 P4 86 9.196
51 P4 87 10.173
51 P4 88 11.149
51 P4 89 11.149
51 P4 90 9.684
51 P4 91 7.731
51 P4 92 5.290
51 P4 93 3.337
51 P4 94 1.872
51 P4 95 2.360
51 P4 96 4.313
51 P4 97 6.266
51 P4 98 7.243
51 P4 99 8.219
51 P4 100 7.731
51 P4 101 7.243
51 P4 102 5.778
51 P4 103 4.801
51 P4 104 4.313
51 P4 105 3.825
51 P4 106 3.337
51 P4 107 2.848
51 P4 108 1.872
51 P4 109 1.383
51 P4 110 1.872
51 P4 111 2.360
51 P4 112 3.337
51 P4 113 4.313
51 P4 114 5.290
51 P4 115 6.266
51 P4 116 7.243
51 P4 117 7.243
51 P4 118 7.243
51 P4 119 6.755
51 P4 120 6.266
51 P4 121 5.778
51 P4 122 5.778
51 P4 123 6.266
51 P4 124 5.778
51 P4 125 5.290
51 P4 126 4.801
51 P4 127 4.313
51 P4 128 4.313
51 P4 129 4.313
51 P4 130 3.825
51 P4 131 3.337
51 P4 132 2.360
51 P4 133 1.383
51 P4 134 0.407
51 P4 135 -0.081
51 P4 136 -0.081
51 P4 137 -0.081
51 P4 138 0.895
51 P4 139 2.848
51 P4 140 4.801
51 P4 141 6.266
51 P4 142 6.755
51 P4 143 5.778
51 P4 144 4.313
51 P4 145 1.872
51 P4 146 0.407
51 P4 147 -1.546
51 P4 148 -3.011
51 P4 149 -3.988
51 P4 150 -4.964
51 P4 151 -4.964
51 P4 152 -3.499
51 P4 153 -2.035
51 P4 154 -0.570
51 P4 155 -0.081
51 P4 156 -0.570
51 P4 157 -1.058
51 P4 158 -1.058
51 P4 159 -1.058
51 P4 160 -1.058
51 P4 161 -2.523
51 P4 162 -4.964
51 P4 163 -7.406
51 P4 164 -9.359
51 P4 165 -9.359
51 P4 166 -7.894
51 P4 167 -6.429
51 P4 168 -5.452
51 P4 169 -5.452
51 P4 170 -5.941
51 P4 171 -6.917
51 P4 172 -7.406
51 P4 173 -7.406
51 P4 174 -7.406
51 P4 175 -7.406
51 P4 176 -7.406
51 P4 177 -7.894
51 P4 178 -7.894
51 P4 179 -8.870
51 P4 180 -11.312
51 P4 181 -14.242
51 P4 182 -18.148
51 P4 183 -22.054
51 P4 184 -24.495
51 P4 185 -24.007
51 P4 186 -22.054
51 P4 187 -19.613
51 P4 188 -16.683
51 P4 189 -15.218
51 P4 190 -13.753
51 P4 191 -11.800
51 P4 192 -9.359
51 P4 193 -6.917
51 P4 194 -4.964
51 P4 195 -4.964
51 P4 196 -5.452
51 P4 197 -7.406
51 P4 198 -8.870
51 P4 199 -9.847
51 P4 200 -10.335
51 P4 201 -10.335
51 P4 202 -10.824
51 P4 203 -10.824
51 P4 204 -10.824
51 P4 205 -10.824
51 P4 206 -10.335
51 P4 207 -9.847
51 P4 208 -8.870
51 P4 209 -8.382
51 P4 210 -7.406
51 P4 211 -7.406
51 P4 212 -8.382
51 P4 213 -9.847
51 P4 214 -10.824
51 P4 215 -10.335
51 P4 216 -8.870
51 P4 217 -5.941
51 P4 218 -2.523
51 P4 219 -0.570
51 P4 220 -0.570
51 P4 221 -2.523
51 P4 222 -5.452
51 P4 223 -8.870
51 P4 224 -11.800
51 P4 225 -13.753
51 P4 226 -14.730
51 P4 227 -14.730
51 P4 228 -12.777
51 P4 229 -9.359
51 P4 230 -4.964
51 P4 231 -0.081
51 P4 232 3.337
51 P4 233 5.290
51 P4 234 6.266
51 P4 235 5.778
51 P4 236 4.313
51 P4 237 2.360
51 P4 238 -1.058
51 P4 239 -4.476
51 P4 240 -7.406
51 P4 241 -7.894
51 P4 242 -5.941
51 P4 243 -2.523
51 P4 244 0.407
51 P4 245 1.872
51 P4 246 2.360
51 P4 247 1.872
51 P4 248 0.407
51 P4 249 -1.546
51 P4 250 -3.499
51 P4 251 -5.941
51 P4 252 -8.382
51 P4 253 -9.359
51 P4 254 -8.382
51 P4 255 -6.429
# PZ chan 24
51 PZ 0 -3.133
51 PZ 1 -4.110
51 PZ 2 -4.598
51 PZ 3 -4.598
51 PZ 4 -5.086
51 PZ 5 -4.598
51 PZ 6 -3.621
51 PZ 7 -3.133
51 PZ 8 -3.133
51 PZ 9 -4.110
51 PZ 10 -5.575
51 PZ 11 -7.039
51 PZ 12 -8.016
51 PZ 13 -7.528
51 PZ 14 -6.063
51 PZ 15 -4.110
51 PZ 16 -3.133
51 PZ 17 -2.157
51 PZ 18 -2.157
51 PZ 19 -1.668
51 PZ 20 -1.180
51 PZ 21 -1.180
51 PZ 22 -2.157
51 PZ 23 -3.133
51 PZ 24 -5.086
51 PZ 25 -6.551
51 PZ 26 -7.039
51 PZ 27 -6.063
51 PZ 28 -4.110
51 PZ 29 -1.668
51 PZ 30 0.773
51 PZ 31 1.750
51 PZ 32 2.238
51 PZ 33 1.750
51 PZ 34 1.261
51 PZ 35 0.773
51 PZ 36 0.773
51 PZ 37 1.750
51 PZ 38 3.215
51 PZ 39 3.703
51 PZ 40 3.703
51 PZ 41 3.703
51 PZ 42 3.215
51 PZ 43 3.215
51 PZ 44 3.703
51 PZ 45 3.215
51 PZ 46 1.261
51 PZ 47 -1.180
51 PZ 48 -4.110
51 PZ 49 -5.575
51 PZ 50 -5.575
51 PZ 51 -4.598
51 PZ 52 -3.133
51 PZ 53 -2.645
51 PZ 54 -2.645
51 PZ 55 -3.133
51 PZ 56 -2.645
51 PZ 57 -2.157
51 PZ 58 -2.157
51 PZ 59 -3.621
51 PZ 60 -5.575
51 PZ 61 -8.504
51 PZ 62 -9.969
51 PZ 63 -10.457
51 PZ 64 -9.969
51 PZ 65 -8.993
51 PZ 66 -8.504
51 PZ 67 -8.504
51 PZ 68 -7.528
51 PZ 69 -6.551
51 PZ 70 -5.086
51 PZ 71 -3.621
51 PZ 72 -2.157
51 PZ 73 -0.692
51 PZ 74 1.261
51 PZ 75 3.215
51 PZ 76 5.656
51 PZ 77 7.609
51 PZ 78 9.074
51 PZ 79 9.562
51 PZ 80 9.562
51 PZ 81 8.586
51 PZ 82 7.609
51 PZ 83 6.632
51 PZ 84 5.168
51 PZ 85 4.191
51 PZ 86 4.191
51 PZ 87 5.656
51 PZ 88 6.632
51 PZ 89 7.609
51 PZ 90 7.609
51 PZ 91 7.121
51 PZ 92 5.168
51 PZ 93 3.703
51 PZ 94 1.750
51 PZ 95 0.773
51 PZ 96 0.773
51 PZ 97 1.750
51 PZ 98 2.726
51 PZ 99 3.703
51 PZ 100 4.191
51 PZ 101 4.191
51 PZ 102 3.703
51 PZ 103 3.215
51 PZ 104 2.726
51 PZ 105 1.750
51 PZ 106 0.285
51 PZ 107 -0.692
51 PZ 108 -0.692
51 PZ 109 -0.203
51 PZ 110 1.750
51 PZ 111 3.215
51 PZ 112 3.703
51 PZ 113 3.703
51 PZ 114 2.726
51 PZ 115 2.238
51 PZ 116 2.238
51 PZ 117 2.726
51 PZ 118 2.238
51 PZ 119 1.750
51 PZ 120 0.285
51 PZ 121 -0.203
51 PZ 122 -0.692
51 PZ 123 -0.203
51 PZ 124 0.285
51 PZ 125 0.773
51 PZ 126 1.750
51 PZ 127 1.750
51 PZ 128 2.238
51 PZ 129 2.238
51 PZ 130 1.750
51 PZ 131 1.261
51 PZ 132 0.773
51 PZ 133 -0.203
51 PZ 134 -1.180
51 PZ 135 -2.157
51 PZ 136 -2.157
51 PZ 137 -1.180
51 PZ 138 1.261
51 PZ 139 3.703
51 PZ 140 5.656
51 PZ 141 5.656
51 PZ 142 4.679
51 PZ 143 2.238
51 PZ 144 0.285
51 PZ 145 -1.668
51 PZ 146 -3.133
51 PZ 147 -5.086
51 PZ 148 -7.039
51 PZ 149 -8.993
51 PZ 150 -9.969
51 PZ 151 -9.481
51 PZ 152 -7.528
51 PZ 153 -5.575
51 PZ 154 -4.110
51 PZ 155 -3.133
51 PZ 156 -3.133
51 PZ 157 -3.621
51 PZ 158 -3.133
51 PZ 159 -2.645
51 PZ 160 -2.645
51 PZ 161 -4.110
51 PZ 162 -6.551
51 PZ 163 -8.504
51 PZ 164 -9.481
51 PZ 165 -8.993
51 PZ 166 -7.039
51 PZ 167 -6.063
51 PZ 168 -5.575
51 PZ 169 -6.551
51 PZ 170 -8.993
51 PZ 171 -10.457
51 PZ 172 -11.434
51 PZ 173 -11.922
51 PZ 174 -11.434
51 PZ 175 -10.946
51 PZ 176 -9.969
51 PZ 177 -9.481
51 PZ 178 -8.993
51 PZ 179 -8.504
51 PZ 180 -8.993
51 PZ 181 -10.457
51 PZ 182 -13.387
51 PZ 183 -16.805
51 PZ 184 -18.758
51 PZ 185 -19.246
51 PZ 186 -17.782
51 PZ 187 -15.828
51 PZ 188 -14.364
51 PZ 189 -13.387
51 PZ 190 -12.899
51 PZ 191 -12.899
51 PZ 192 -12.410
51 PZ 193 -11.922
51 PZ 194 -12.410
51 PZ 195 -12.899
51 PZ 196 -13.387
51 PZ 197 -12.899
51 PZ 198 -10.946
51 PZ 199 -8.993
51 PZ 200 -7.528
51 PZ 201 -7.039
51 PZ 202 -6.551
51 PZ 203 -6.551
51 PZ 204 -6.551
51 PZ 205 -6.551
51 PZ 206 -7.039
51 PZ 207 -8.016
51 PZ 208 -9.481
51 PZ 209 -9.969
51 PZ 210 -9.969
51 PZ 211 -9.481
51 PZ 212 -8.993
51 PZ 213 -8.993
51 PZ 214 -8.993
51 PZ 215 -8.993
51 PZ 216 -7.528
51 PZ 217 -5.086
51 PZ 218 -2.157
51 PZ 219 -0.203
51 PZ 220 1.261
51 PZ 221 0.285
51 PZ 222 -1.668
51 PZ 223 -4.598
51 PZ 224 -6.551
51 PZ 225 -8.016
51 PZ 226 -8.016
51 PZ 227 -8.016
51 PZ 228 -8.016
51 PZ 229 -7.528
51 PZ 230 -6.551
51 PZ 231 -4.598
51 PZ 232 -2.645
51 PZ 233 -0.203
51 PZ 234 1.750
51 PZ 235 2.726
51 PZ 236 2.238
51 PZ 237 1.261
51 PZ 238 -0.203
51 PZ 239 -0.692
51 PZ 240 -1.180
51 PZ 241 -0.692
51 PZ 242 -0.203
51 PZ 243 0.773
51 PZ 244 1.750
51 PZ 245 2.726
51 PZ 246 3.215
51 PZ 247 2.726
51 PZ 248 2.238
51 PZ 249 0.285
51 PZ 250 -2.157
51 PZ 251 -5.086
51 PZ 252 -7.528
51 PZ 253 -8.504
51 PZ 254 -8.504
51 PZ 255 -7.039
# P8 chan 25
51 P8 0 -1.984
51 P8 1 -1.984
51 P8 2 -1.495
51 P8 3 -0.031
51 P8 4 1.434
51 P8 5 3.387
51 P8 6 4.364
51 P8 7 4.852
51 P8 8 3.876
51 P8 9 2.411
51 P8 10 0.946
51 P8 11 -0.519
51 P8 12 -1.495
51 P8 13 -1.495
51 P8 14 -1.007
51 P8 15 -0.031
51 P8 16 -0.031
51 P8 17 0.458
51 P8 18 0.946
51 P8 19 2.899
51 P8 20 6.317
51 P8 21 10.223
51 P8 22 13.641
51 P8 23 15.594
51 P8 24 15.594
51 P8 25 16.083
51 P8 26 17.548
51 P8 27 19.501
51 P8 28 22.430
51 P8 29 24.872
51 P8 30 25.360
51 P8 31 23.895
51 P8 32 21.454
51 P8 33 18.524
51 P8 34 15.106
51 P8 35 12.665
51 P8 36 11.200
51 P8 37 10.712
51 P8 38 10.712
51 P8 39 10.712
51 P8 40 10.712
51 P8 41 10.712
51 P8 42 11.200
51 P8 43 11.688
51 P8 44 11.200
51 P8 45 9.735
51 P8 46 6.805
51 P8 47 3.876
51 P8 48 1.434
51 P8 49 0.946
51 P8 50 1.923
51 P8 51 3.387
51 P8 52 5.341
51 P8 53 6.317
51 P8 54 6.805
51 P8 55 7.294
51 P8 56 6.805
51 P8 57 6.317
51 P8 58 4.364
51 P8 59 1.923
51 P8 60 -0.519
51 P8 61 -2.472
51 P8 62 -3.937
51 P8 63 -3.937
51 P8 64 -3.448
51 P8 65 -3.448
51 P8 66 -3.448
51 P8 67 -3.448
51 P8 68 -3.448
51 P8 69 -2.960
51 P8 70 -1.495
51 P8 71 0.946
51 P8 72 4.852
51 P8 73 9.735
51 P8 74 14.618
51 P8 75 18.036
51 P8 76 19.989
51 P8 77 19.501
51 P8 78 18.524
51 P8 79 16.571
51 P8 80 14.618
51 P8 81 12.665
51 P8 82 11.200
51 P8 83 10.223
51 P8 84 9.247
51 P8 85 9.735
51 P8 86 11.200
51 P8 87 12.177
51 P8 88 12.665
51 P8 89 12.177
51 P8 90 10.223
51 P8 91 8.270
51 P8 92 5.829
51 P8 93 4.364
51 P8 94 3.876
51 P8 95 3.876
51 P8 96 5.341
51 P8 97 7.294
51 P8 98 8.759
51 P8 99 9.735
51 P8 100 9.247
51 P8 101 7.782
51 P8 102 5.829
51 P8 103 4.852
51 P8 104 4.852
51 P8 105 5.341
51 P8 106 6.805
51 P8 107 7.294
51 P8 108 6.805
51 P8 109 6.317
51 P8 110 5.341
51 P8 111 4.852
51 P8 112 4.852
51 P8 113 5.829
51 P8 114 6.805
51 P8 115 7.782
51 P8 116 9.735
51 P8 117 11.688
51 P8 118 13.641
51 P8 119 15.106
51 P8 120 15.594
51 P8 121 15.106
51 P8 122 13.641
51 P8 123 12.177
51 P8 124 10.712
51 P8 125 10.223
51 P8 126 9.735
51 P8 127 9.735
51 P8 128 9.247
51 P8 129 9.735
51 P8 130 10.223
51 P8 131 10.712
51 P8 132 10.712
51 P8 133 10.223
51 P8 134 8.270
51 P8 135 5.341
51 P8 136 2.411
51 P8 137 -0.031
51 P8 138 -0.519
51 P8 139 0.946
51 P8 140 3.876
51 P8 141 7.782
51 P8 142 11.200
51 P8 143 12.665
51 P8 144 12.177
51 P8 145 9.735
51 P8 146 7.782
51 P8 147 6.805
51 P8 148 6.805
51 P8 149 7.294
51 P8 150 7.294
51 P8 151 6.805
51 P8 152 6.317
51 P8 153 6.805
51 P8 154 7.782
51 P8 155 9.247
51 P8 156 9.735
51 P8 157 8.270
51 P8 158 6.805
51 P8 159 4.852
51 P8 160 3.387
51 P8 161 0.946
51 P8 162 -2.472
51 P8 163 -5.402
51 P8 164 -7.355
51 P8 165 -7.843
51 P8 166 -6.378
51 P8 167 -3.448
51 P8 168 -1.007
51 P8 169 -0.031
51 P8 170 -0.519
51 P8 171 -2.472
51 P8 172 -4.913
51 P8 173 -7.843
51 P8 174 -10.284
51 P8 175 -12.238
51 P8 176 -13.702
51 P8 177 -15.167
51 P8 178 -17.120
51 P8 179 -19.562
51 P8 180 -23.468
51 P8 181 -26.886
51 P8 182 -30.792
51 P8 183 -33.722
51 P8 184 -33.722
51 P8 185 -30.792
51 P8 186 -25.909
51 P8 187 -19.562
51 P8 188 -14.679
51 P8 189 -12.238
51 P8 190 -12.238
51 P8 191 -13.214
51 P8 192 -13.214
51 P8 193 -11.749
51 P8 194 -9.796
51 P8 195 -8.820
51 P8 196 -9.796
51 P8 197 -13.702
51 P8 198 -17.609
51 P8 199 -20.050
51 P8 200 -20.050
51 P8 201 -18.585
51 P8 202 -16.632
51 P8 203 -14.679
51 P8 204 -14.191
51 P8 205 -13.702
51 P8 206 -12.726
51 P8 207 -10.773
51 P8 208 -9.308
51 P8 209 -8.820
51 P8 210 -10.773
51 P8 211 -13.702
51 P8 212 -17.120
51 P8 213 -19.562
51 P8 214 -21.027
51 P8 215 -20.538
51 P8 216 -17.120
51 P8 217 -12.726
51 P8 218 -7.843
51 P8 219 -3.937
51 P8 220 -2.960
51 P8 221 -5.402
51 P8 222 -9.796
51 P8 223 -14.679
51 P8 224 -19.073
51 P8 225 -22.491
51 P8 226 -23.956
51 P8 227 -23.468
51 P8 228 -21.027
51 P8 229 -15.167
51 P8 230 -7.355
51 P8 231 0.458
51 P8 232 6.317
51 P8 233 8.759
51 P8 234 8.270
51 P8 235 5.341
51 P8 236 1.434
51 P8 237 -3.448
51 P8 238 -8.331
51 P8 239 -12.726
51 P8 240 -14.679
51 P8 241 -13.702
51 P8 242 -9.308
51 P8 243 -3.448
51 P8 244 0.946
51 P8 245 1.923
51 P8 246 -0.031
51 P8 247 -3.937
51 P8 248 -6.866
51 P8 249 -8.331
51 P8 250 -8.820
51 P8 251 -10.284
51 P8 252 -11.749
51 P8 253 -13.214
51 P8 254 -13.214
51 P8 255 -10.284
# P7 chan 26
51 P7 0 -5.819
51 P7 1 -6.795
51 P7 2 -7.772
51 P7 3 -9.237
51 P7 4 -8.748
51 P7 5 -7.772
51 P7 6 -4.354
51 P7 7 -1.424
51 P7 8 0.529
51 P7 9 1.017
51 P7 10 -0.448
51 P7 11 -1.912
51 P7 12 -1.424
51 P7 13 0.529
51 P7 14 2.482
51 P7 15 2.970
51 P7 16 1.994
51 P7 17 0.529
51 P7 18 -0.448
51 P7 19 0.041
51 P7 20 1.994
51 P7 21 2.970
51 P7 22 1.994
51 P7 23 -0.448
51 P7 24 -1.912
51 P7 25 -0.936
51 P7 26 2.970
51 P7 27 7.853
51 P7 28 11.271
51 P7 29 11.759
51 P7 30 9.318
51 P7 31 5.900
51 P7 32 2.970
51 P7 33 1.994
51 P7 34 1.506
51 P7 35 1.994
51 P7 36 2.482
51 P7 37 3.947
51 P7 38 4.924
51 P7 39 5.412
51 P7 40 4.924
51 P7 41 3.947
51 P7 42 3.459
51 P7 43 3.947
51 P7 44 5.412
51 P7 45 6.877
51 P7 46 5.900
51 P7 47 3.459
51 P7 48 1.017
51 P7 49 -0.448
51 P7 50 -1.912
51 P7 51 -1.912
51 P7 52 -2.889
51 P7 53 -4.842
51 P7 54 -7.284
51 P7 55 -8.748
51 P7 56 -8.748
51 P7 57 -8.748
51 P7 58 -9.725
51 P7 59 -12.166
51 P7 60 -14.608
51 P7 61 -16.073
51 P7 62 -14.608
51 P7 63 -11.678
51 P7 64 -9.237
51 P7 65 -8.260
51 P7 66 -10.213
51 P7 67 -12.655
51 P7 68 -14.608
51 P7 69 -14.119
51 P7 70 -13.143
51 P7 71 -11.678
51 P7 72 -9.725
51 P7 73 -8.260
51 P7 74 -6.307
51 P7 75 -3.377
51 P7 76 -0.936
51 P7 77 1.017
51 P7 78 1.506
51 P7 79 1.506
51 P7 80 0.041
51 P7 81 -0.936
51 P7 82 -1.912
51 P7 83 -2.889
51 P7 84 -3.377
51 P7 85 -2.889
51 P7 86 -2.401
51 P7 87 -0.936
51 P7 88 0.529
51 P7 89 1.017
51 P7 90 0.529
51 P7 91 -0.448
51 P7 92 -1.424
51 P7 93 -2.401
51 P7 94 -2.889
51 P7 95 -4.354
51 P7 96 -5.330
51 P7 97 -6.307
51 P7 98 -5.819
51 P7 99 -5.330
51 P7 100 -4.842
51 P7 101 -3.866
51 P7 102 -3.866
51 P7 103 -3.866
51 P7 104 -2.889
51 P7 105 -1.912
51 P7 106 -0.448
51 P7 107 1.017
51 P7 108 1.506
51 P7 109 1.994
51 P7 110 3.459
51 P7 111 4.435
51 P7 112 4.924
51 P7 113 4.435
51 P7 114 2.970
51 P7 115 0.529
51 P7 116 -1.424
51 P7 117 -2.889
51 P7 118 -2.401
51 P7 119 -1.912
51 P7 120 -1.424
51 P7 121 -1.912
51 P7 122 -3.866
51 P7 123 -6.307
51 P7 124 -7.772
51 P7 125 -7.772
51 P7 126 -5.819
51 P7 127 -2.401
51 P7 128 0.041
51 P7 129 1.506
51 P7 130 1.506
51 P7 131 1.017
51 P7 132 1.017
51 P7 133 -0.448
51 P7 134 -1.912
51 P7 135 -2.889
51 P7 136 -3.866
51 P7 137 -2.401
51 P7 138 -0.448
51 P7 139 1.994
51 P7 140 3.459
51 P7 141 3.459
51 P7 142 1.994
51 P7 143 0.529
51 P7 144 -0.936
51 P7 145 -1.424
51 P7 146 -1.912
51 P7 147 -3.377
51 P7 148 -5.330
51 P7 149 -7.772
51 P7 150 -9.725
51 P7 151 -10.213
51 P7 152 -9.237
51 P7 153 -6.795
51 P7 154 -3.866
51 P7 155 -0.936
51 P7 156 1.506
51 P7 157 3.459
51 P7 158 4.435
51 P7 159 3.947
51 P7 160 1.994
51 P7 161 -1.424
51 P7 162 -5.819
51 P7 163 -10.701
51 P7 164 -14.608
51 P7 165 -17.049
51 P7 166 -18.514
51 P7 167 -20.467
51 P7 168 -21.932
51 P7 169 -23.397
51 P7 170 -23.397
51 P7 171 -22.420
51 P7 172 -19.002
51 P7 173 -15.096
51 P7 174 -12.166
51 P7 175 -10.701
51 P7 176 -11.678
51 P7 177 -12.166
51 P7 178 -12.655
51 P7 179 -13.143
51 P7 180 -13.631
51 P7 181 -16.561
51 P7 182 -21.444
51 P7 183 -26.815
51 P7 184 -29.256
51 P7 185 -27.791
51 P7 186 -22.420
51 P7 187 -15.584
51 P7 188 -10.213
51 P7 189 -7.772
51 P7 190 -7.284
51 P7 191 -7.772
51 P7 192 -8.748
51 P7 193 -9.725
51 P7 194 -12.166
51 P7 195 -15.584
51 P7 196 -19.002
51 P7 197 -21.444
51 P7 198 -21.444
51 P7 199 -19.002
51 P7 200 -15.584
51 P7 201 -12.166
51 P7 202 -9.725
51 P7 203 -6.795
51 P7 204 -4.354
51 P7 205 -2.889
51 P7 206 -2.889
51 P7 207 -4.354
51 P7 208 -7.772
51 P7 209 -11.678
51 P7 210 -14.608
51 P7 211 -16.073
51 P7 212 -15.096
51 P7 213 -12.166
51 P7 214 -8.260
51 P7 215 -4.842
51 P7 216 -2.401
51 P7 217 -1.912
51 P7 218 -1.912
51 P7 219 -2.401
51 P7 220 -2.889
51 P7 221 -4.354
51 P7 222 -7.772
51 P7 223 -11.678
51 P7 224 -14.119
51 P7 225 -14.119
51 P7 226 -11.678
51 P7 227 -7.772
51 P7 228 -4.842
51 P7 229 -4.354
51 P7 230 -5.330
51 P7 231 -6.307
51 P7 232 -5.330
51 P7 233 -2.889
51 P7 234 -0.448
51 P7 235 0.529
51 P7 236 -0.936
51 P7 237 -3.866
51 P7 238 -4.842
51 P7 239 -3.866
51 P7 240 -0.936
51 P7 241 2.970
51 P7 242 4.924
51 P7 243 4.435
51 P7 244 2.482
51 P7 245 0.041
51 P7 246 -2.401
51 P7 247 -4.842
51 P7 248 -7.772
51 P7 249 -10.701
51 P7 250 -14.119
51 P7 251 -16.561
51 P7 252 -17.049
51 P7 253 -15.584
51 P7 254 -12.166
51 P7 255 -7.772
# PO2 chan 27
51 PO2 0 -1.648
51 PO2 1 -2.625
51 PO2 2 -3.113
51 PO2 3 -3.113
51 PO2 4 -2.625
51 PO2 5 -1.160
51 PO2 6 0.305
51 PO2 7 0.793
51 PO2 8 -0.183
51 PO2 9 -1.648
51 PO2 10 -3.601
51 PO2 11 -5.554
51 PO2 12 -6.531
51 PO2 13 -6.042
51 PO2 14 -5.066
51 PO2 15 -3.113
51 PO2 16 -1.648
51 PO2 17 -0.183
51 PO2 18 1.282
51 PO2 19 2.747
51 PO2 20 4.211
51 PO2 21 4.700
51 PO2 22 4.211
51 PO2 23 2.747
51 PO2 24 1.282
51 PO2 25 0.305
51 PO2 26 1.282
51 PO2 27 4.211
51 PO2 28 7.141
51 PO2 29 10.071
51 PO2 30 12.024
51 PO2 31 13.489
51 PO2 32 13.489
51 PO2 33 12.512
51 PO2 34 11.047
51 PO2 35 9.583
51 PO2 36 9.094
51 PO2 37 10.071
51 PO2 38 11.536
51 PO2 39 13.000
51 PO2 40 13.977
51 PO2 41 13.977
51 PO2 42 13.977
51 PO2 43 13.977
51 PO2 44 14.465
51 PO2 45 13.000
51 PO2 46 10.559
51 PO2 47 6.653
51 PO2 48 3.235
51 PO2 49 0.793
51 PO2 50 0.793
51 PO2 51 1.770
51 PO2 52 3.235
51 PO2 53 3.723
51 PO2 54 3.235
51 PO2 55 3.235
51 PO2 56 3.235
51 PO2 57 3.235
51 PO2 58 2.747
51 PO2 59 0.793
51 PO2 60 -1.648
51 PO2 61 -4.089
51 PO2 62 -5.554
51 PO2 63 -5.554
51 PO2 64 -5.066
51 PO2 65 -5.554
51 PO2 66 -6.042
51 PO2 67 -7.019
51 PO2 68 -7.019
51 PO2 69 -5.554
51 PO2 70 -3.113
51 PO2 71 -0.183
51 PO2 72 2.258
51 PO2 73 5.188
51 PO2 74 8.118
51 PO2 75 11.047
51 PO2 76 13.977
51 PO2 77 15.930
51 PO2 78 15.930
51 PO2 79 14.954
51 PO2 80 12.512
51 PO2 81 10.071
51 PO2 82 8.606
51 PO2 83 7.629
51 PO2 84 7.141
51 PO2 85 7.629
51 PO2 86 8.118
51 PO2 87 9.583
51 PO2 88 11.536
51 PO2 89 12.024
51 PO2 90 12.024
51 PO2 91 10.071
51 PO2 92 7.141
51 PO2 93 4.211
51 PO2 94 2.258
51 PO2 95 1.282
51 PO2 96 2.258
51 PO2 97 4.211
51 PO2 98 6.165
51 PO2 99 7.629
51 PO2 100 8.118
51 PO2 101 7.629
51 PO2 102 6.653
51 PO2 103 5.188
51 PO2 104 3.723
51 PO2 105 2.258
51 PO2 106 0.305
51 PO2 107 -0.671
51 PO2 108 -1.160
51 PO2 109 -0.671
51 PO2 110 1.282
51 PO2 111 3.235
51 PO2 112 5.188
51 PO2 113 5.676
51 PO2 114 5.188
51 PO2 115 5.188
51 PO2 116 4.700
51 PO2 117 4.700
51 PO2 118 4.700
51 PO2 119 5.188
51 PO2 120 4.700
51 PO2 121 4.700
51 PO2 122 4.700
51 PO2 123 4.211
51 PO2 124 4.211
51 PO2 125 4.211
51 PO2 126 4.700
51 PO2 127 5.188
51 PO2 128 5.188
51 PO2 129 4.700
51 PO2 130 3.235
51 PO2 131 1.770
51 PO2 132 0.793
51 PO2 133 -0.183
51 PO2 134 -0.183
51 PO2 135 -0.671
51 PO2 136 -0.671
51 PO2 137 -0.183
51 PO2 138 1.770
51 PO2 139 4.211
51 PO2 140 7.141
51 PO2 141 8.118
51 PO2 142 7.141
51 PO2 143 5.188
51 PO2 144 2.747
51 PO2 145 0.793
51 PO2 146 -1.160
51 PO2 147 -3.113
51 PO2 148 -5.554
51 PO2 149 -7.996
51 PO2 150 -8.972
51 PO2 151 -8.484
51 PO2 152 -6.531
51 PO2 153 -4.578
51 PO2 154 -3.113
51 PO2 155 -2.625
51 PO2 156 -2.625
51 PO2 157 -2.625
51 PO2 158 -2.136
51 PO2 159 -1.648
51 PO2 160 -2.625
51 PO2 161 -4.578
51 PO2 162 -7.996
51 PO2 163 -10.925
51 PO2 164 -12.390
51 PO2 165 -12.390
51 PO2 166 -10.925
51 PO2 167 -9.460
51 PO2 168 -8.972
51 PO2 169 -9.949
51 PO2 170 -11.414
51 PO2 171 -13.367
51 PO2 172 -13.855
51 PO2 173 -13.367
51 PO2 174 -12.390
51 PO2 175 -10.925
51 PO2 176 -9.949
51 PO2 177 -8.972
51 PO2 178 -8.484
51 PO2 179 -9.460
51 PO2 180 -11.902
51 PO2 181 -17.273
51 PO2 182 -24.109
51 PO2 183 -30.457
51 PO2 184 -34.363
51 PO2 185 -34.363
51 PO2 186 -30.457
51 PO2 187 -25.574
51 PO2 188 -21.179
51 PO2 189 -17.761
51 PO2 190 -16.296
51 PO2 191 -14.343
51 PO2 192 -12.390
51 PO2 193 -10.925
51 PO2 194 -11.414
51 PO2 195 -13.367
51 PO2 196 -15.320
51 PO2 197 -16.785
51 PO2 198 -16.296
51 PO2 199 -13.855
51 PO2 200 -12.390
51 PO2 201 -10.925
51 PO2 202 -9.949
51 PO2 203 -9.949
51 PO2 204 -9.460
51 PO2 205 -9.949
51 PO2 206 -10.437
51 PO2 207 -11.414
51 PO2 208 -12.390
51 PO2 209 -13.367
51 PO2 210 -13.367
51 PO2 211 -13.367
51 PO2 212 -13.367
51 PO2 213 -13.855
51 PO2 214 -13.855
51 PO2 215 -13.367
51 PO2 216 -10.437
51 PO2 217 -6.042
51 PO2 218 -1.160
51 PO2 219 2.747
51 PO2 220 3.723
51 PO2 221 1.770
51 PO2 222 -2.625
51 PO2 223 -7.019
51 PO2 224 -10.925
51 PO2 225 -12.878
51 PO2 226 -13.855
51 PO2 227 -14.343
51 PO2 228 -13.855
51 PO2 229 -11.902
51 PO2 230 -8.484
51 PO2 231 -3.113
51 PO2 232 2.747
51 PO2 233 6.653
51 PO2 234 8.606
51 PO2 235 8.118
51 PO2 236 5.676
51 PO2 237 3.235
51 PO2 238 0.305
