# co2c0000347.rd
# 120 trials, 64 chans, 416 samples 368 post_stim samples
# 3.906000 msecs uV
# S1 obj , trial 30
# FP1 chan 0
30 FP1 0 -3.479
30 FP1 1 -5.920
30 FP1 2 -8.362
30 FP1 3 -9.338
30 FP1 4 -9.338
30 FP1 5 -10.803
30 FP1 6 -13.245
30 FP1 7 -16.174
30 FP1 8 -16.663
30 FP1 9 -13.245
30 FP1 10 -7.874
30 FP1 11 -2.991
30 FP1 12 -1.526
30 FP1 13 -3.479
30 FP1 14 -5.920
30 FP1 15 -6.897
30 FP1 16 -3.967
30 FP1 17 -0.061
30 FP1 18 2.869
30 FP1 19 3.845
30 FP1 20 2.869
30 FP1 21 0.427
30 FP1 22 -2.991
30 FP1 23 -5.432
30 FP1 24 -7.385
30 FP1 25 -7.874
30 FP1 26 -7.385
30 FP1 27 -5.920
30 FP1 28 -5.432
30 FP1 29 -4.944
30 FP1 30 -4.456
30 FP1 31 -4.944
30 FP1 32 -6.409
30 FP1 33 -10.315
30 FP1 34 -16.174
30 FP1 35 -22.522
30 FP1 36 -25.940
30 FP1 37 -24.963
30 FP1 38 -20.569
30 FP1 39 -16.663
30 FP1 40 -16.174
30 FP1 41 -19.104
30 FP1 42 -24.475
30 FP1 43 -27.893
30 FP1 44 -29.846
30 FP1 45 -29.846
30 FP1 46 -29.358
30 FP1 47 -27.893
30 FP1 48 -25.940
30 FP1 49 -22.522
30 FP1 50 -20.081
30 FP1 51 -20.081
30 FP1 52 -21.545
30 FP1 53 -22.522
30 FP1 54 -22.034
30 FP1 55 -18.127
30 FP1 56 -13.733
30 FP1 57 -10.315
30 FP1 58 -9.827
30 FP1 59 -11.292
30 FP1 60 -13.245
30 FP1 61 -14.221
30 FP1 62 -13.245
30 FP1 63 -11.780
30 FP1 64 -9.827
30 FP1 65 -8.362
30 FP1 66 -8.362
30 FP1 67 -9.338
30 FP1 68 -11.780
30 FP1 69 -13.733
30 FP1 70 -14.221
30 FP1 71 -12.756
30 FP1 72 -9.338
30 FP1 73 -5.920
30 FP1 74 -4.456
30 FP1 75 -5.432
30 FP1 76 -8.850
30 FP1 77 -12.268
30 FP1 78 -15.198
30 FP1 79 -17.151
30 FP1 80 -17.639
30 FP1 81 -16.663
30 FP1 82 -14.709
30 FP1 83 -12.756
30 FP1 84 -12.268
30 FP1 85 -13.245
30 FP1 86 -14.709
30 FP1 87 -15.198
30 FP1 88 -12.756
30 FP1 89 -9.827
30 FP1 90 -8.362
30 FP1 91 -10.315
30 FP1 92 -15.198
30 FP1 93 -19.592
30 FP1 94 -20.569
30 FP1 95 -16.174
30 FP1 96 -9.338
30 FP1 97 -3.967
30 FP1 98 -3.967
30 FP1 99 -8.362
30 FP1 100 -14.221
30 FP1 101 -16.663
30 FP1 102 -14.221
30 FP1 103 -9.338
30 FP1 104 -5.920
30 FP1 105 -7.385
30 FP1 106 -12.268
30 FP1 107 -17.151
30 FP1 108 -19.592
30 FP1 109 -18.127
30 FP1 110 -14.221
30 FP1 111 -10.315
30 FP1 112 -7.385
30 FP1 113 -5.432
30 FP1 114 -4.456
30 FP1 115 -4.456
30 FP1 116 -5.920
30 FP1 117 -6.897
30 FP1 118 -8.362
30 FP1 119 -8.362
30 FP1 120 -8.362
30 FP1 121 -10.315
30 FP1 122 -13.245
30 FP1 123 -16.663
30 FP1 124 -18.127
30 FP1 125 -17.151
30 FP1 126 -14.221
30 FP1 127 -12.268
30 FP1 128 -11.292
30 FP1 129 -11.780
30 FP1 130 -13.733
30 FP1 131 -15.686
30 FP1 132 -17.151
30 FP1 133 -18.127
30 FP1 134 -18.127
30 FP1 135 -17.151
30 FP1 136 -16.174
30 FP1 137 -16.174
30 FP1 138 -17.151
30 FP1 139 -18.616
30 FP1 140 -19.592
30 FP1 141 -18.127
30 FP1 142 -17.151
30 FP1 143 -16.174
30 FP1 144 -17.151
30 FP1 145 -19.104
30 FP1 146 -20.081
30 FP1 147 -18.127
30 FP1 148 -14.709
30 FP1 149 -12.268
30 FP1 150 -11.780
30 FP1 151 -14.221
30 FP1 152 -17.151
30 FP1 153 -17.639
30 FP1 154 -16.174
30 FP1 155 -13.733
30 FP1 156 -11.780
30 FP1 157 -11.780
30 FP1 158 -11.780
30 FP1 159 -11.780
30 FP1 160 -11.292
30 FP1 161 -10.315
30 FP1 162 -8.850
30 FP1 163 -7.385
30 FP1 164 -3.479
30 FP1 165 1.892
30 FP1 166 6.287
30 FP1 167 7.263
30 FP1 168 3.845
30 FP1 169 -1.038
30 FP1 170 -3.967
30 FP1 171 -3.967
30 FP1 172 -2.014
30 FP1 173 -1.038
30 FP1 174 -2.502
30 FP1 175 -4.944
30 FP1 176 -5.432
30 FP1 177 -2.991
30 FP1 178 1.404
30 FP1 179 5.310
30 FP1 180 6.287
30 FP1 181 3.845
30 FP1 182 -0.549
30 FP1 183 -3.479
30 FP1 184 -4.456
30 FP1 185 -3.967
30 FP1 186 -1.526
30 FP1 187 1.404
30 FP1 188 3.845
30 FP1 189 4.333
30 FP1 190 2.380
30 FP1 191 -2.014
30 FP1 192 -5.432
30 FP1 193 -6.409
30 FP1 194 -2.502
30 FP1 195 3.357
30 FP1 196 7.263
30 FP1 197 7.263
30 FP1 198 4.822
30 FP1 199 2.380
30 FP1 200 2.380
30 FP1 201 4.333
30 FP1 202 6.287
30 FP1 203 5.310
30 FP1 204 2.869
30 FP1 205 0.916
30 FP1 206 1.892
30 FP1 207 5.798
30 FP1 208 10.681
30 FP1 209 12.634
30 FP1 210 11.169
30 FP1 211 7.751
30 FP1 212 5.310
30 FP1 213 4.822
30 FP1 214 5.798
30 FP1 215 5.310
30 FP1 216 2.869
30 FP1 217 -1.038
30 FP1 218 -4.456
30 FP1 219 -5.432
30 FP1 220 -3.967
30 FP1 221 -0.549
30 FP1 222 1.404
30 FP1 223 2.380
30 FP1 224 1.404
30 FP1 225 1.892
30 FP1 226 3.845
30 FP1 227 6.775
30 FP1 228 8.240
30 FP1 229 6.775
30 FP1 230 2.869
30 FP1 231 -1.038
30 FP1 232 -3.479
30 FP1 233 -2.502
30 FP1 234 0.916
30 FP1 235 4.333
30 FP1 236 6.287
30 FP1 237 6.775
30 FP1 238 7.263
30 FP1 239 8.240
30 FP1 240 8.728
30 FP1 241 7.751
30 FP1 242 5.310
30 FP1 243 2.380
30 FP1 244 0.916
30 FP1 245 2.380
30 FP1 246 4.822
30 FP1 247 6.775
30 FP1 248 5.798
30 FP1 249 2.869
30 FP1 250 -0.549
30 FP1 251 -2.014
30 FP1 252 -0.549
30 FP1 253 2.380
30 FP1 254 4.822
30 FP1 255 5.310
# FP2 chan 1
30 FP2 0 -6.165
30 FP2 1 -9.583
30 FP2 2 -12.512
30 FP2 3 -12.512
30 FP2 4 -8.606
30 FP2 5 -2.747
30 FP2 6 0.183
30 FP2 7 -3.723
30 FP2 8 -11.536
30 FP2 9 -18.372
30 FP2 10 -18.372
30 FP2 11 -11.047
30 FP2 12 -0.793
30 FP2 13 7.507
30 FP2 14 9.949
30 FP2 15 7.996
30 FP2 16 4.578
30 FP2 17 1.160
30 FP2 18 -0.793
30 FP2 19 -1.770
30 FP2 20 -1.282
30 FP2 21 0.183
30 FP2 22 2.136
30 FP2 23 3.113
30 FP2 24 0.671
30 FP2 25 -4.211
30 FP2 26 -9.583
30 FP2 27 -11.536
30 FP2 28 -9.583
30 FP2 29 -5.188
30 FP2 30 -1.282
30 FP2 31 -0.305
30 FP2 32 -3.723
30 FP2 33 -9.583
30 FP2 34 -15.442
30 FP2 35 -18.860
30 FP2 36 -20.325
30 FP2 37 -21.301
30 FP2 38 -21.301
30 FP2 39 -21.301
30 FP2 40 -20.813
30 FP2 41 -19.348
30 FP2 42 -17.395
30 FP2 43 -17.395
30 FP2 44 -18.860
30 FP2 45 -21.790
30 FP2 46 -24.231
30 FP2 47 -24.231
30 FP2 48 -21.301
30 FP2 49 -16.907
30 FP2 50 -12.512
30 FP2 51 -11.536
30 FP2 52 -14.465
30 FP2 53 -18.372
30 FP2 54 -20.813
30 FP2 55 -18.860
30 FP2 56 -13.977
30 FP2 57 -9.094
30 FP2 58 -7.629
30 FP2 59 -10.559
30 FP2 60 -15.442
30 FP2 61 -17.883
30 FP2 62 -16.418
30 FP2 63 -11.536
30 FP2 64 -8.118
30 FP2 65 -7.141
30 FP2 66 -9.583
30 FP2 67 -12.024
30 FP2 68 -13.000
30 FP2 69 -11.536
30 FP2 70 -10.071
30 FP2 71 -9.094
30 FP2 72 -9.583
30 FP2 73 -10.559
30 FP2 74 -11.536
30 FP2 75 -12.512
30 FP2 76 -14.465
30 FP2 77 -16.418
30 FP2 78 -17.395
30 FP2 79 -15.442
30 FP2 80 -12.512
30 FP2 81 -9.583
30 FP2 82 -10.071
30 FP2 83 -14.465
30 FP2 84 -19.348
30 FP2 85 -23.254
30 FP2 86 -23.254
30 FP2 87 -19.836
30 FP2 88 -14.954
30 FP2 89 -11.047
30 FP2 90 -9.583
30 FP2 91 -10.559
30 FP2 92 -13.489
30 FP2 93 -15.442
30 FP2 94 -14.954
30 FP2 95 -13.000
30 FP2 96 -10.559
30 FP2 97 -10.559
30 FP2 98 -12.512
30 FP2 99 -14.465
30 FP2 100 -15.442
30 FP2 101 -13.977
30 FP2 102 -11.047
30 FP2 103 -9.583
30 FP2 104 -10.559
30 FP2 105 -13.000
30 FP2 106 -14.465
30 FP2 107 -14.465
30 FP2 108 -12.024
30 FP2 109 -9.094
30 FP2 110 -7.629
30 FP2 111 -8.606
30 FP2 112 -10.071
30 FP2 113 -10.071
30 FP2 114 -7.629
30 FP2 115 -3.235
30 FP2 116 0.183
30 FP2 117 0.671
30 FP2 118 -3.235
30 FP2 119 -8.606
30 FP2 120 -13.000
30 FP2 121 -13.977
30 FP2 122 -12.024
30 FP2 123 -9.094
30 FP2 124 -7.141
30 FP2 125 -8.118
30 FP2 126 -10.559
30 FP2 127 -13.977
30 FP2 128 -15.930
30 FP2 129 -16.907
30 FP2 130 -16.907
30 FP2 131 -16.907
30 FP2 132 -17.395
30 FP2 133 -17.395
30 FP2 134 -15.930
30 FP2 135 -14.954
30 FP2 136 -14.954
30 FP2 137 -16.907
30 FP2 138 -19.836
30 FP2 139 -21.301
30 FP2 140 -18.860
30 FP2 141 -14.465
30 FP2 142 -10.559
30 FP2 143 -10.559
30 FP2 144 -14.465
30 FP2 145 -17.395
30 FP2 146 -18.372
30 FP2 147 -16.907
30 FP2 148 -15.930
30 FP2 149 -17.883
30 FP2 150 -21.790
30 FP2 151 -23.254
30 FP2 152 -19.836
30 FP2 153 -13.489
30 FP2 154 -8.118
30 FP2 155 -8.606
30 FP2 156 -13.489
30 FP2 157 -18.372
30 FP2 158 -17.395
30 FP2 159 -11.536
30 FP2 160 -4.700
30 FP2 161 -3.235
30 FP2 162 -7.629
30 FP2 163 -13.489
30 FP2 164 -13.977
30 FP2 165 -5.676
30 FP2 166 6.042
30 FP2 167 14.343
30 FP2 168 12.878
30 FP2 169 4.089
30 FP2 170 -7.141
30 FP2 171 -14.465
30 FP2 172 -15.930
30 FP2 173 -13.977
30 FP2 174 -11.536
30 FP2 175 -8.606
30 FP2 176 -4.211
30 FP2 177 2.136
30 FP2 178 8.972
30 FP2 179 11.414
30 FP2 180 8.484
30 FP2 181 0.183
30 FP2 182 -7.629
30 FP2 183 -12.024
30 FP2 184 -11.047
30 FP2 185 -7.629
30 FP2 186 -4.700
30 FP2 187 -3.723
30 FP2 188 -4.700
30 FP2 189 -5.676
30 FP2 190 -6.165
30 FP2 191 -5.676
30 FP2 192 -3.235
30 FP2 193 -1.282
30 FP2 194 0.183
30 FP2 195 1.160
30 FP2 196 0.671
30 FP2 197 -0.305
30 FP2 198 -0.793
30 FP2 199 0.183
30 FP2 200 1.648
30 FP2 201 2.625
30 FP2 202 1.648
30 FP2 203 -1.282
30 FP2 204 -3.723
30 FP2 205 -4.700
30 FP2 206 -1.770
30 FP2 207 2.625
30 FP2 208 7.507
30 FP2 209 9.949
30 FP2 210 11.414
30 FP2 211 11.902
30 FP2 212 12.390
30 FP2 213 11.902
30 FP2 214 8.972
30 FP2 215 3.601
30 FP2 216 -3.235
30 FP2 217 -8.118
30 FP2 218 -9.094
30 FP2 219 -6.653
30 FP2 220 -1.770
30 FP2 221 2.625
30 FP2 222 5.066
30 FP2 223 5.066
30 FP2 224 4.089
30 FP2 225 4.089
30 FP2 226 5.554
30 FP2 227 7.996
30 FP2 228 9.460
30 FP2 229 8.972
30 FP2 230 6.531
30 FP2 231 3.113
30 FP2 232 2.136
30 FP2 233 4.578
30 FP2 234 8.484
30 FP2 235 11.414
30 FP2 236 10.925
30 FP2 237 7.996
30 FP2 238 4.578
30 FP2 239 2.136
30 FP2 240 2.136
30 FP2 241 2.136
30 FP2 242 2.136
30 FP2 243 2.136
30 FP2 244 3.601
30 FP2 245 7.019
30 FP2 246 11.902
30 FP2 247 13.855
30 FP2 248 12.390
30 FP2 249 7.996
30 FP2 250 2.625
30 FP2 251 -0.305
30 FP2 252 -1.282
30 FP2 253 0.183
30 FP2 254 1.160
30 FP2 255 3.113
# F7 chan 2
30 F7 0 -9.349
30 F7 1 -11.302
30 F7 2 -10.325
30 F7 3 -7.395
30 F7 4 -5.442
30 F7 5 -7.884
30 F7 6 -14.231
30 F7 7 -19.602
30 F7 8 -21.556
30 F7 9 -19.114
30 F7 10 -15.208
30 F7 11 -12.278
30 F7 12 -12.278
30 F7 13 -13.743
30 F7 14 -14.720
30 F7 15 -13.743
30 F7 16 -12.278
30 F7 17 -10.325
30 F7 18 -8.372
30 F7 19 -6.419
30 F7 20 -5.442
30 F7 21 -6.419
30 F7 22 -10.325
30 F7 23 -15.208
30 F7 24 -17.161
30 F7 25 -15.208
30 F7 26 -11.302
30 F7 27 -8.860
30 F7 28 -10.325
30 F7 29 -14.231
30 F7 30 -17.161
30 F7 31 -16.673
30 F7 32 -13.255
30 F7 33 -10.325
30 F7 34 -10.813
30 F7 35 -13.255
30 F7 36 -16.673
30 F7 37 -18.626
30 F7 38 -19.602
30 F7 39 -20.579
30 F7 40 -22.044
30 F7 41 -22.532
30 F7 42 -21.067
30 F7 43 -19.114
30 F7 44 -17.649
30 F7 45 -18.626
30 F7 46 -21.556
30 F7 47 -24.485
30 F7 48 -24.974
30 F7 49 -23.997
30 F7 50 -22.532
30 F7 51 -23.020
30 F7 52 -24.485
30 F7 53 -24.485
30 F7 54 -22.044
30 F7 55 -18.626
30 F7 56 -15.696
30 F7 57 -15.696
30 F7 58 -17.161
30 F7 59 -17.161
30 F7 60 -14.231
30 F7 61 -9.837
30 F7 62 -7.395
30 F7 63 -8.860
30 F7 64 -12.767
30 F7 65 -15.696
30 F7 66 -15.696
30 F7 67 -12.278
30 F7 68 -9.837
30 F7 69 -9.349
30 F7 70 -9.837
30 F7 71 -9.349
30 F7 72 -6.419
30 F7 73 -1.048
30 F7 74 2.370
30 F7 75 1.394
30 F7 76 -3.001
30 F7 77 -8.372
30 F7 78 -11.302
30 F7 79 -11.302
30 F7 80 -9.837
30 F7 81 -9.349
30 F7 82 -10.325
30 F7 83 -11.790
30 F7 84 -12.767
30 F7 85 -12.767
30 F7 86 -11.302
30 F7 87 -8.372
30 F7 88 -4.954
30 F7 89 -1.536
30 F7 90 -1.048
30 F7 91 -3.489
30 F7 92 -7.884
30 F7 93 -10.813
30 F7 94 -10.325
30 F7 95 -5.931
30 F7 96 -1.048
30 F7 97 1.882
30 F7 98 1.394
30 F7 99 -2.024
30 F7 100 -4.954
30 F7 101 -6.419
30 F7 102 -6.419
30 F7 103 -5.442
30 F7 104 -4.466
30 F7 105 -3.489
30 F7 106 -2.024
30 F7 107 -1.536
30 F7 108 -3.001
30 F7 109 -5.931
30 F7 110 -8.372
30 F7 111 -9.349
30 F7 112 -8.860
30 F7 113 -7.395
30 F7 114 -7.395
30 F7 115 -7.884
30 F7 116 -8.372
30 F7 117 -7.884
30 F7 118 -6.907
30 F7 119 -6.419
30 F7 120 -6.907
30 F7 121 -8.860
30 F7 122 -10.325
30 F7 123 -12.278
30 F7 124 -13.255
30 F7 125 -14.231
30 F7 126 -13.743
30 F7 127 -11.790
30 F7 128 -8.372
30 F7 129 -6.419
30 F7 130 -7.884
30 F7 131 -12.767
30 F7 132 -17.649
30 F7 133 -18.626
30 F7 134 -13.743
30 F7 135 -5.442
30 F7 136 0.417
30 F7 137 0.905
30 F7 138 -3.489
30 F7 139 -9.837
30 F7 140 -13.255
30 F7 141 -12.767
30 F7 142 -10.325
30 F7 143 -8.860
30 F7 144 -9.349
30 F7 145 -10.325
30 F7 146 -9.837
30 F7 147 -7.395
30 F7 148 -4.466
30 F7 149 -3.001
30 F7 150 -3.489
30 F7 151 -4.466
30 F7 152 -5.931
30 F7 153 -6.907
30 F7 154 -7.884
30 F7 155 -8.372
30 F7 156 -8.372
30 F7 157 -7.395
30 F7 158 -6.419
30 F7 159 -5.442
30 F7 160 -5.931
30 F7 161 -7.884
30 F7 162 -9.349
30 F7 163 -7.884
30 F7 164 -3.001
30 F7 165 3.835
30 F7 166 9.206
30 F7 167 9.694
30 F7 168 5.300
30 F7 169 -2.024
30 F7 170 -7.395
30 F7 171 -9.349
30 F7 172 -7.884
30 F7 173 -5.442
30 F7 174 -4.954
30 F7 175 -6.419
30 F7 176 -8.860
30 F7 177 -9.349
30 F7 178 -8.372
30 F7 179 -5.931
30 F7 180 -3.489
30 F7 181 -2.513
30 F7 182 -3.489
30 F7 183 -5.931
30 F7 184 -9.349
30 F7 185 -11.790
30 F7 186 -11.790
30 F7 187 -8.860
30 F7 188 -3.489
30 F7 189 -0.071
30 F7 190 -0.071
30 F7 191 -3.977
30 F7 192 -8.372
30 F7 193 -8.372
30 F7 194 -3.489
30 F7 195 3.347
30 F7 196 7.253
30 F7 197 4.812
30 F7 198 -2.024
30 F7 199 -8.860
30 F7 200 -9.837
30 F7 201 -5.931
30 F7 202 -0.559
30 F7 203 1.394
30 F7 204 0.417
30 F7 205 -2.513
30 F7 206 -3.001
30 F7 207 -0.559
30 F7 208 2.370
30 F7 209 4.323
30 F7 210 4.323
30 F7 211 3.347
30 F7 212 2.858
30 F7 213 3.835
30 F7 214 4.812
30 F7 215 4.323
30 F7 216 0.905
30 F7 217 -4.954
30 F7 218 -11.302
30 F7 219 -17.161
30 F7 220 -19.602
30 F7 221 -18.626
30 F7 222 -13.743
30 F7 223 -6.907
30 F7 224 -0.559
30 F7 225 2.370
30 F7 226 1.882
30 F7 227 -0.559
30 F7 228 -3.001
30 F7 229 -3.977
30 F7 230 -3.489
30 F7 231 -3.489
30 F7 232 -5.442
30 F7 233 -7.395
30 F7 234 -7.884
30 F7 235 -4.954
30 F7 236 0.905
30 F7 237 6.765
30 F7 238 9.694
30 F7 239 8.718
30 F7 240 5.300
30 F7 241 1.394
30 F7 242 -1.048
30 F7 243 -2.024
30 F7 244 -3.489
30 F7 245 -5.442
30 F7 246 -7.395
30 F7 247 -7.884
30 F7 248 -5.931
30 F7 249 -3.489
30 F7 250 -1.536
30 F7 251 -1.536
30 F7 252 -3.001
30 F7 253 -4.954
30 F7 254 -5.442
30 F7 255 -4.466
# F8 chan 3
30 F8 0 -5.666
30 F8 1 -8.108
30 F8 2 -11.037
30 F8 3 -14.455
30 F8 4 -15.920
30 F8 5 -15.432
30 F8 6 -15.432
30 F8 7 -15.920
30 F8 8 -16.408
30 F8 9 -15.432
30 F8 10 -12.990
30 F8 11 -9.572
30 F8 12 -8.596
30 F8 13 -9.572
30 F8 14 -11.525
30 F8 15 -12.502
30 F8 16 -10.549
30 F8 17 -7.619
30 F8 18 -6.154
30 F8 19 -6.643
30 F8 20 -9.084
30 F8 21 -11.525
30 F8 22 -13.479
30 F8 23 -14.943
30 F8 24 -16.408
30 F8 25 -18.361
30 F8 26 -19.826
30 F8 27 -19.338
30 F8 28 -17.385
30 F8 29 -14.943
30 F8 30 -12.502
30 F8 31 -11.525
30 F8 32 -12.014
30 F8 33 -13.967
30 F8 34 -16.408
30 F8 35 -18.850
30 F8 36 -20.315
30 F8 37 -20.315
30 F8 38 -19.826
30 F8 39 -18.850
30 F8 40 -17.385
30 F8 41 -16.897
30 F8 42 -15.432
30 F8 43 -14.455
30 F8 44 -13.967
30 F8 45 -14.455
30 F8 46 -16.897
30 F8 47 -19.826
30 F8 48 -21.779
30 F8 49 -21.291
30 F8 50 -19.826
30 F8 51 -17.873
30 F8 52 -18.361
30 F8 53 -19.338
30 F8 54 -20.315
30 F8 55 -19.826
30 F8 56 -18.850
30 F8 57 -18.361
30 F8 58 -19.338
30 F8 59 -21.779
30 F8 60 -23.733
30 F8 61 -23.733
30 F8 62 -21.779
30 F8 63 -18.361
30 F8 64 -15.920
30 F8 65 -15.432
30 F8 66 -16.408
30 F8 67 -18.850
30 F8 68 -20.315
30 F8 69 -21.291
30 F8 70 -19.826
30 F8 71 -16.897
30 F8 72 -13.479
30 F8 73 -10.061
30 F8 74 -9.084
30 F8 75 -11.037
30 F8 76 -14.943
30 F8 77 -17.385
30 F8 78 -17.873
30 F8 79 -16.408
30 F8 80 -14.943
30 F8 81 -14.943
30 F8 82 -17.385
30 F8 83 -20.315
30 F8 84 -21.779
30 F8 85 -21.291
30 F8 86 -18.850
30 F8 87 -15.920
30 F8 88 -13.479
30 F8 89 -11.525
30 F8 90 -11.037
30 F8 91 -11.525
30 F8 92 -13.479
30 F8 93 -15.432
30 F8 94 -16.408
30 F8 95 -15.432
30 F8 96 -13.479
30 F8 97 -10.549
30 F8 98 -8.596
30 F8 99 -6.643
30 F8 100 -4.690
30 F8 101 -4.201
30 F8 102 -5.666
30 F8 103 -8.596
30 F8 104 -12.502
30 F8 105 -14.455
30 F8 106 -12.990
30 F8 107 -9.572
30 F8 108 -6.154
30 F8 109 -6.154
30 F8 110 -8.108
30 F8 111 -11.525
30 F8 112 -12.502
30 F8 113 -10.061
30 F8 114 -5.178
30 F8 115 -0.295
30 F8 116 2.635
30 F8 117 2.635
30 F8 118 0.193
30 F8 119 -3.225
30 F8 120 -6.154
30 F8 121 -8.108
30 F8 122 -8.596
30 F8 123 -8.596
30 F8 124 -8.108
30 F8 125 -6.643
30 F8 126 -4.690
30 F8 127 -2.736
30 F8 128 -0.783
30 F8 129 -0.295
30 F8 130 -0.295
30 F8 131 -0.295
30 F8 132 -0.783
30 F8 133 0.193
30 F8 134 1.170
30 F8 135 2.146
30 F8 136 2.635
30 F8 137 2.146
30 F8 138 1.170
30 F8 139 1.658
30 F8 140 3.123
30 F8 141 5.564
30 F8 142 6.053
30 F8 143 5.076
30 F8 144 2.635
30 F8 145 0.682
30 F8 146 1.170
30 F8 147 4.100
30 F8 148 8.006
30 F8 149 9.959
30 F8 150 9.959
30 F8 151 8.006
30 F8 152 7.517
30 F8 153 8.982
30 F8 154 12.400
30 F8 155 14.842
30 F8 156 14.842
30 F8 157 13.377
30 F8 158 12.400
30 F8 159 14.353
30 F8 160 17.283
30 F8 161 20.701
30 F8 162 22.166
30 F8 163 21.678
30 F8 164 21.678
30 F8 165 23.631
30 F8 166 28.025
30 F8 167 31.932
30 F8 168 32.420
30 F8 169 28.025
30 F8 170 22.166
30 F8 171 17.283
30 F8 172 15.330
30 F8 173 15.818
30 F8 174 17.283
30 F8 175 19.236
30 F8 176 21.678
30 F8 177 25.584
30 F8 178 30.467
30 F8 179 34.373
30 F8 180 33.885
30 F8 181 29.978
30 F8 182 23.142
30 F8 183 17.771
30 F8 184 15.818
30 F8 185 17.283
30 F8 186 20.701
30 F8 187 23.631
30 F8 188 24.607
30 F8 189 25.096
30 F8 190 25.096
30 F8 191 24.607
30 F8 192 24.119
30 F8 193 22.166
30 F8 194 20.701
30 F8 195 21.678
30 F8 196 25.584
30 F8 197 30.467
30 F8 198 34.861
30 F8 199 36.814
30 F8 200 36.326
30 F8 201 34.861
30 F8 202 35.350
30 F8 203 36.326
30 F8 204 37.791
30 F8 205 38.279
30 F8 206 37.791
30 F8 207 36.814
30 F8 208 36.326
30 F8 209 36.326
30 F8 210 37.791
30 F8 211 40.232
30 F8 212 43.162
30 F8 213 46.580
30 F8 214 48.045
30 F8 215 46.580
30 F8 216 41.697
30 F8 217 36.326
30 F8 218 32.420
30 F8 219 33.396
30 F8 220 38.279
30 F8 221 43.650
30 F8 222 47.557
30 F8 223 48.533
30 F8 224 46.580
30 F8 225 43.650
30 F8 226 41.209
30 F8 227 40.721
30 F8 228 42.185
30 F8 229 44.627
30 F8 230 45.603
30 F8 231 44.627
30 F8 232 42.185
30 F8 233 40.232
30 F8 234 40.232
30 F8 235 42.674
30 F8 236 45.603
30 F8 237 47.557
30 F8 238 47.557
30 F8 239 46.092
30 F8 240 45.115
30 F8 241 43.650
30 F8 242 42.674
30 F8 243 41.697
30 F8 244 39.744
30 F8 245 38.767
30 F8 246 39.256
30 F8 247 41.209
30 F8 248 42.674
30 F8 249 42.674
30 F8 250 41.209
30 F8 251 40.721
30 F8 252 41.209
30 F8 253 44.627
30 F8 254 48.045
30 F8 255 49.998
# AF1 chan 4
30 AF1 0 1.109
30 AF1 1 0.132
30 AF1 2 -1.333
30 AF1 3 -3.286
30 AF1 4 -4.751
30 AF1 5 -5.727
30 AF1 6 -6.704
30 AF1 7 -7.680
30 AF1 8 -8.169
30 AF1 9 -7.680
30 AF1 10 -5.727
30 AF1 11 -2.309
30 AF1 12 0.132
30 AF1 13 1.109
30 AF1 14 1.597
30 AF1 15 2.085
30 AF1 16 3.550
30 AF1 17 5.015
30 AF1 18 5.503
30 AF1 19 5.503
30 AF1 20 4.038
30 AF1 21 2.574
30 AF1 22 1.597
30 AF1 23 1.109
30 AF1 24 0.621
30 AF1 25 0.132
30 AF1 26 -0.844
30 AF1 27 -1.333
30 AF1 28 -1.333
30 AF1 29 -0.356
30 AF1 30 0.132
30 AF1 31 -0.356
30 AF1 32 -2.797
30 AF1 33 -7.192
30 AF1 34 -11.098
30 AF1 35 -14.028
30 AF1 36 -14.516
30 AF1 37 -13.540
30 AF1 38 -12.563
30 AF1 39 -13.051
30 AF1 40 -14.516
30 AF1 41 -17.446
30 AF1 42 -18.911
30 AF1 43 -18.911
30 AF1 44 -17.446
30 AF1 45 -15.981
30 AF1 46 -14.516
30 AF1 47 -13.540
30 AF1 48 -12.075
30 AF1 49 -10.610
30 AF1 50 -9.633
30 AF1 51 -10.122
30 AF1 52 -11.587
30 AF1 53 -13.540
30 AF1 54 -13.540
30 AF1 55 -11.587
30 AF1 56 -8.169
30 AF1 57 -4.751
30 AF1 58 -1.821
30 AF1 59 -0.844
30 AF1 60 -0.844
30 AF1 61 -1.333
30 AF1 62 -1.333
30 AF1 63 -1.333
30 AF1 64 -0.844
30 AF1 65 -0.844
30 AF1 66 -1.333
30 AF1 67 -1.821
30 AF1 68 -2.797
30 AF1 69 -2.797
30 AF1 70 -2.309
30 AF1 71 -1.333
30 AF1 72 -0.844
30 AF1 73 -1.333
30 AF1 74 -2.309
30 AF1 75 -3.286
30 AF1 76 -3.774
30 AF1 77 -4.262
30 AF1 78 -4.751
30 AF1 79 -6.704
30 AF1 80 -8.657
30 AF1 81 -10.122
30 AF1 82 -11.098
30 AF1 83 -10.610
30 AF1 84 -9.145
30 AF1 85 -8.169
30 AF1 86 -7.680
30 AF1 87 -6.704
30 AF1 88 -5.239
30 AF1 89 -3.286
30 AF1 90 -2.309
30 AF1 91 -3.286
30 AF1 92 -6.215
30 AF1 93 -9.633
30 AF1 94 -11.098
30 AF1 95 -9.633
30 AF1 96 -5.727
30 AF1 97 -1.821
30 AF1 98 -0.356
30 AF1 99 -1.333
30 AF1 100 -3.286
30 AF1 101 -3.774
30 AF1 102 -2.309
30 AF1 103 -0.356
30 AF1 104 0.621
30 AF1 105 -0.356
30 AF1 106 -3.286
30 AF1 107 -5.727
30 AF1 108 -6.215
30 AF1 109 -5.239
30 AF1 110 -2.797
30 AF1 111 -0.844
30 AF1 112 0.132
30 AF1 113 1.109
30 AF1 114 2.574
30 AF1 115 4.038
30 AF1 116 5.015
30 AF1 117 5.503
30 AF1 118 5.015
30 AF1 119 4.038
30 AF1 120 2.574
30 AF1 121 0.132
30 AF1 122 -2.309
30 AF1 123 -4.262
30 AF1 124 -4.751
30 AF1 125 -3.286
30 AF1 126 -2.309
30 AF1 127 -1.333
30 AF1 128 -1.821
30 AF1 129 -2.797
30 AF1 130 -3.774
30 AF1 131 -4.262
30 AF1 132 -4.262
30 AF1 133 -4.262
30 AF1 134 -4.262
30 AF1 135 -4.262
30 AF1 136 -3.286
30 AF1 137 -2.797
30 AF1 138 -2.797
30 AF1 139 -3.774
30 AF1 140 -5.239
30 AF1 141 -6.704
30 AF1 142 -6.215
30 AF1 143 -5.239
30 AF1 144 -4.262
30 AF1 145 -4.262
30 AF1 146 -4.751
30 AF1 147 -5.239
30 AF1 148 -4.751
30 AF1 149 -3.774
30 AF1 150 -2.797
30 AF1 151 -2.309
30 AF1 152 -2.309
30 AF1 153 -2.797
30 AF1 154 -3.286
30 AF1 155 -4.262
30 AF1 156 -4.751
30 AF1 157 -5.727
30 AF1 158 -5.727
30 AF1 159 -4.751
30 AF1 160 -2.309
30 AF1 161 0.132
30 AF1 162 1.597
30 AF1 163 2.574
30 AF1 164 3.550
30 AF1 165 6.480
30 AF1 166 9.410
30 AF1 167 11.363
30 AF1 168 10.386
30 AF1 169 7.456
30 AF1 170 3.550
30 AF1 171 0.621
30 AF1 172 0.132
30 AF1 173 1.109
30 AF1 174 2.574
30 AF1 175 3.550
30 AF1 176 3.550
30 AF1 177 4.527
30 AF1 178 5.503
30 AF1 179 7.456
30 AF1 180 8.433
30 AF1 181 8.433
30 AF1 182 6.968
30 AF1 183 5.015
30 AF1 184 3.550
30 AF1 185 2.574
30 AF1 186 2.085
30 AF1 187 3.062
30 AF1 188 3.550
30 AF1 189 4.527
30 AF1 190 4.527
30 AF1 191 4.038
30 AF1 192 3.550
30 AF1 193 4.038
30 AF1 194 5.503
30 AF1 195 7.456
30 AF1 196 7.945
30 AF1 197 6.968
30 AF1 198 5.015
30 AF1 199 3.062
30 AF1 200 2.574
30 AF1 201 3.062
30 AF1 202 5.015
30 AF1 203 6.480
30 AF1 204 6.968
30 AF1 205 6.968
30 AF1 206 7.945
30 AF1 207 9.410
30 AF1 208 11.363
30 AF1 209 11.851
30 AF1 210 10.874
30 AF1 211 8.921
30 AF1 212 6.968
30 AF1 213 6.480
30 AF1 214 6.968
30 AF1 215 7.456
30 AF1 216 7.456
30 AF1 217 5.503
30 AF1 218 2.574
30 AF1 219 0.621
30 AF1 220 0.132
30 AF1 221 1.109
30 AF1 222 3.550
30 AF1 223 5.992
30 AF1 224 7.945
30 AF1 225 9.410
30 AF1 226 9.898
30 AF1 227 10.386
30 AF1 228 10.874
30 AF1 229 10.386
30 AF1 230 8.433
30 AF1 231 6.480
30 AF1 232 4.038
30 AF1 233 3.550
30 AF1 234 4.038
30 AF1 235 5.992
30 AF1 236 7.945
30 AF1 237 8.921
30 AF1 238 9.410
30 AF1 239 9.410
30 AF1 240 9.410
30 AF1 241 9.410
30 AF1 242 8.921
30 AF1 243 8.433
30 AF1 244 7.456
30 AF1 245 6.480
30 AF1 246 5.992
30 AF1 247 5.503
30 AF1 248 5.015
30 AF1 249 4.038
30 AF1 250 4.038
30 AF1 251 4.038
30 AF1 252 3.550
30 AF1 253 4.038
30 AF1 254 5.015
30 AF1 255 5.992
# AF2 chan 5
30 AF2 0 -0.153
30 AF2 1 -0.641
30 AF2 2 -1.617
30 AF2 3 -3.082
30 AF2 4 -3.571
30 AF2 5 -2.594
30 AF2 6 -1.617
30 AF2 7 -2.106
30 AF2 8 -3.571
30 AF2 9 -5.524
30 AF2 10 -4.547
30 AF2 11 -1.617
30 AF2 12 2.777
30 AF2 13 5.707
30 AF2 14 6.683
30 AF2 15 6.683
30 AF2 16 6.195
30 AF2 17 6.683
30 AF2 18 7.172
30 AF2 19 6.683
30 AF2 20 4.242
30 AF2 21 1.312
30 AF2 22 -1.129
30 AF2 23 -1.617
30 AF2 24 -0.641
30 AF2 25 0.824
30 AF2 26 0.824
30 AF2 27 -0.641
30 AF2 28 -1.617
30 AF2 29 -0.641
30 AF2 30 0.824
30 AF2 31 1.312
30 AF2 32 -2.106
30 AF2 33 -7.965
30 AF2 34 -14.801
30 AF2 35 -19.196
30 AF2 36 -18.707
30 AF2 37 -14.801
30 AF2 38 -10.895
30 AF2 39 -9.430
30 AF2 40 -11.383
30 AF2 41 -13.824
30 AF2 42 -14.801
30 AF2 43 -13.336
30 AF2 44 -10.406
30 AF2 45 -8.453
30 AF2 46 -9.430
30 AF2 47 -10.895
30 AF2 48 -11.383
30 AF2 49 -10.406
30 AF2 50 -7.965
30 AF2 51 -6.989
30 AF2 52 -7.965
30 AF2 53 -9.918
30 AF2 54 -11.383
30 AF2 55 -9.918
30 AF2 56 -6.500
30 AF2 57 -3.571
30 AF2 58 -2.106
30 AF2 59 -3.571
30 AF2 60 -4.547
30 AF2 61 -5.035
30 AF2 62 -3.082
30 AF2 63 -0.641
30 AF2 64 0.336
30 AF2 65 -0.153
30 AF2 66 -2.594
30 AF2 67 -4.547
30 AF2 68 -5.524
30 AF2 69 -5.035
30 AF2 70 -4.059
30 AF2 71 -3.082
30 AF2 72 -2.594
30 AF2 73 -1.617
30 AF2 74 -1.617
30 AF2 75 -1.617
30 AF2 76 -1.617
30 AF2 77 -2.594
30 AF2 78 -4.547
30 AF2 79 -6.500
30 AF2 80 -8.942
30 AF2 81 -10.895
30 AF2 82 -12.360
30 AF2 83 -13.336
30 AF2 84 -12.360
30 AF2 85 -11.871
30 AF2 86 -10.406
30 AF2 87 -8.942
30 AF2 88 -6.989
30 AF2 89 -5.035
30 AF2 90 -4.059
30 AF2 91 -4.059
30 AF2 92 -6.012
30 AF2 93 -8.453
30 AF2 94 -9.430
30 AF2 95 -8.453
30 AF2 96 -5.524
30 AF2 97 -3.571
30 AF2 98 -2.594
30 AF2 99 -3.571
30 AF2 100 -4.547
30 AF2 101 -3.571
30 AF2 102 -2.106
30 AF2 103 -0.641
30 AF2 104 -1.129
30 AF2 105 -3.082
30 AF2 106 -5.524
30 AF2 107 -5.524
30 AF2 108 -4.547
30 AF2 109 -2.594
30 AF2 110 -1.617
30 AF2 111 -1.617
30 AF2 112 -2.106
30 AF2 113 -0.641
30 AF2 114 2.289
30 AF2 115 5.219
30 AF2 116 6.683
30 AF2 117 6.195
30 AF2 118 4.730
30 AF2 119 3.754
30 AF2 120 2.777
30 AF2 121 2.289
30 AF2 122 0.824
30 AF2 123 -1.617
30 AF2 124 -3.082
30 AF2 125 -3.082
30 AF2 126 -2.106
30 AF2 127 -1.617
30 AF2 128 -2.106
30 AF2 129 -3.571
30 AF2 130 -5.035
30 AF2 131 -5.035
30 AF2 132 -4.059
30 AF2 133 -3.082
30 AF2 134 -2.594
30 AF2 135 -3.082
30 AF2 136 -3.571
30 AF2 137 -3.571
30 AF2 138 -4.059
30 AF2 139 -5.035
30 AF2 140 -6.012
30 AF2 141 -6.500
30 AF2 142 -5.524
30 AF2 143 -4.059
30 AF2 144 -2.594
30 AF2 145 -2.594
30 AF2 146 -4.547
30 AF2 147 -6.500
30 AF2 148 -7.477
30 AF2 149 -7.477
30 AF2 150 -5.524
30 AF2 151 -4.547
30 AF2 152 -3.571
30 AF2 153 -3.571
30 AF2 154 -4.059
30 AF2 155 -5.035
30 AF2 156 -5.524
30 AF2 157 -5.524
30 AF2 158 -4.059
30 AF2 159 -2.106
30 AF2 160 -0.153
30 AF2 161 1.312
30 AF2 162 1.801
30 AF2 163 2.289
30 AF2 164 3.265
30 AF2 165 5.707
30 AF2 166 9.125
30 AF2 167 11.566
30 AF2 168 11.078
30 AF2 169 8.148
30 AF2 170 4.242
30 AF2 171 0.824
30 AF2 172 -0.641
30 AF2 173 -0.153
30 AF2 174 1.312
30 AF2 175 2.777
30 AF2 176 3.265
30 AF2 177 4.730
30 AF2 178 7.172
30 AF2 179 9.613
30 AF2 180 10.590
30 AF2 181 9.125
30 AF2 182 5.219
30 AF2 183 0.824
30 AF2 184 -1.617
30 AF2 185 -0.641
30 AF2 186 1.312
30 AF2 187 2.777
30 AF2 188 2.777
30 AF2 189 1.312
30 AF2 190 -0.153
30 AF2 191 -0.641
30 AF2 192 0.336
30 AF2 193 1.801
30 AF2 194 2.777
30 AF2 195 3.265
30 AF2 196 3.754
30 AF2 197 3.754
30 AF2 198 3.754
30 AF2 199 2.777
30 AF2 200 2.289
30 AF2 201 2.289
30 AF2 202 2.777
30 AF2 203 3.754
30 AF2 204 4.730
30 AF2 205 5.707
30 AF2 206 6.683
30 AF2 207 7.660
30 AF2 208 9.125
30 AF2 209 9.613
30 AF2 210 8.636
30 AF2 211 7.172
30 AF2 212 6.195
30 AF2 213 6.683
30 AF2 214 8.148
30 AF2 215 9.613
30 AF2 216 8.636
30 AF2 217 5.219
30 AF2 218 1.801
30 AF2 219 -0.153
30 AF2 220 1.801
30 AF2 221 5.707
30 AF2 222 9.613
30 AF2 223 11.566
30 AF2 224 11.566
30 AF2 225 10.590
30 AF2 226 10.101
30 AF2 227 10.101
30 AF2 228 10.590
30 AF2 229 10.101
30 AF2 230 8.636
30 AF2 231 7.172
30 AF2 232 6.195
30 AF2 233 6.195
30 AF2 234 7.172
30 AF2 235 7.660
30 AF2 236 7.660
30 AF2 237 8.148
30 AF2 238 8.636
30 AF2 239 9.613
30 AF2 240 10.101
30 AF2 241 9.125
30 AF2 242 7.660
30 AF2 243 5.707
30 AF2 244 4.730
30 AF2 245 5.219
30 AF2 246 6.195
30 AF2 247 7.172
30 AF2 248 7.172
30 AF2 249 5.707
30 AF2 250 4.730
30 AF2 251 3.754
30 AF2 252 3.265
30 AF2 253 4.242
30 AF2 254 6.195
30 AF2 255 8.636
# FZ chan 6
30 FZ 0 3.194
30 FZ 1 2.706
30 FZ 2 1.241
30 FZ 3 -0.224
30 FZ 4 -0.712
30 FZ 5 -0.712
30 FZ 6 -0.224
30 FZ 7 -0.224
30 FZ 8 -0.712
30 FZ 9 -1.200
30 FZ 10 -0.712
30 FZ 11 0.753
30 FZ 12 2.706
30 FZ 13 4.659
30 FZ 14 6.612
30 FZ 15 7.589
30 FZ 16 7.589
30 FZ 17 7.589
30 FZ 18 7.100
30 FZ 19 6.124
30 FZ 20 5.636
30 FZ 21 4.171
30 FZ 22 3.194
30 FZ 23 2.706
30 FZ 24 1.729
30 FZ 25 1.729
30 FZ 26 1.729
30 FZ 27 2.218
30 FZ 28 2.706
30 FZ 29 3.682
30 FZ 30 3.682
30 FZ 31 2.218
30 FZ 32 -0.224
30 FZ 33 -4.130
30 FZ 34 -6.571
30 FZ 35 -8.036
30 FZ 36 -7.548
30 FZ 37 -6.083
30 FZ 38 -5.107
30 FZ 39 -5.107
30 FZ 40 -6.571
30 FZ 41 -8.036
30 FZ 42 -8.525
30 FZ 43 -7.548
30 FZ 44 -6.083
30 FZ 45 -5.107
30 FZ 46 -4.130
30 FZ 47 -3.642
30 FZ 48 -3.153
30 FZ 49 -2.665
30 FZ 50 -2.177
30 FZ 51 -3.153
30 FZ 52 -4.130
30 FZ 53 -5.107
30 FZ 54 -5.107
30 FZ 55 -3.153
30 FZ 56 0.264
30 FZ 57 3.682
30 FZ 58 5.636
30 FZ 59 6.124
30 FZ 60 5.636
30 FZ 61 4.659
30 FZ 62 3.682
30 FZ 63 3.194
30 FZ 64 3.194
30 FZ 65 3.194
30 FZ 66 2.706
30 FZ 67 1.729
30 FZ 68 1.729
30 FZ 69 1.729
30 FZ 70 3.194
30 FZ 71 4.171
30 FZ 72 3.682
30 FZ 73 2.706
30 FZ 74 1.241
30 FZ 75 0.264
30 FZ 76 0.264
30 FZ 77 0.753
30 FZ 78 0.753
30 FZ 79 -0.224
30 FZ 80 -2.665
30 FZ 81 -5.107
30 FZ 82 -6.083
30 FZ 83 -6.083
30 FZ 84 -4.618
30 FZ 85 -3.642
30 FZ 86 -2.665
30 FZ 87 -1.689
30 FZ 88 -0.712
30 FZ 89 0.753
30 FZ 90 1.729
30 FZ 91 0.753
30 FZ 92 -1.200
30 FZ 93 -3.153
30 FZ 94 -4.130
30 FZ 95 -2.665
30 FZ 96 -0.224
30 FZ 97 2.706
30 FZ 98 3.682
30 FZ 99 3.682
30 FZ 100 3.194
30 FZ 101 3.194
30 FZ 102 4.171
30 FZ 103 5.636
30 FZ 104 5.636
30 FZ 105 5.147
30 FZ 106 3.682
30 FZ 107 2.218
30 FZ 108 2.218
30 FZ 109 3.194
30 FZ 110 4.659
30 FZ 111 5.147
30 FZ 112 6.124
30 FZ 113 7.100
30 FZ 114 9.054
30 FZ 115 10.518
30 FZ 116 11.495
30 FZ 117 11.495
30 FZ 118 10.518
30 FZ 119 9.542
30 FZ 120 8.565
30 FZ 121 7.589
30 FZ 122 6.612
30 FZ 123 5.147
30 FZ 124 4.659
30 FZ 125 4.659
30 FZ 126 5.636
30 FZ 127 6.124
30 FZ 128 6.124
30 FZ 129 5.147
30 FZ 130 4.171
30 FZ 131 3.682
30 FZ 132 3.682
30 FZ 133 3.682
30 FZ 134 4.659
30 FZ 135 5.147
30 FZ 136 5.636
30 FZ 137 5.636
30 FZ 138 5.636
30 FZ 139 5.147
30 FZ 140 4.659
30 FZ 141 4.659
30 FZ 142 4.659
30 FZ 143 5.636
30 FZ 144 5.636
30 FZ 145 5.147
30 FZ 146 3.682
30 FZ 147 2.218
30 FZ 148 2.218
30 FZ 149 2.706
30 FZ 150 3.682
30 FZ 151 5.147
30 FZ 152 5.636
30 FZ 153 5.636
30 FZ 154 4.659
30 FZ 155 3.194
30 FZ 156 2.218
30 FZ 157 1.729
30 FZ 158 2.218
30 FZ 159 3.682
30 FZ 160 5.636
30 FZ 161 7.589
30 FZ 162 9.054
30 FZ 163 9.542
30 FZ 164 10.030
30 FZ 165 11.007
30 FZ 166 12.472
30 FZ 167 13.448
30 FZ 168 12.960
30 FZ 169 11.495
30 FZ 170 9.542
30 FZ 171 7.589
30 FZ 172 7.100
30 FZ 173 7.589
30 FZ 174 8.565
30 FZ 175 9.542
30 FZ 176 10.030
30 FZ 177 10.030
30 FZ 178 10.518
30 FZ 179 11.983
30 FZ 180 12.472
30 FZ 181 12.960
30 FZ 182 11.983
30 FZ 183 10.030
30 FZ 184 8.077
30 FZ 185 7.100
30 FZ 186 7.100
30 FZ 187 7.589
30 FZ 188 8.077
30 FZ 189 8.077
30 FZ 190 7.589
30 FZ 191 7.100
30 FZ 192 7.589
30 FZ 193 8.077
30 FZ 194 9.542
30 FZ 195 10.030
30 FZ 196 10.030
30 FZ 197 8.565
30 FZ 198 7.100
30 FZ 199 5.636
30 FZ 200 5.636
30 FZ 201 5.636
30 FZ 202 6.612
30 FZ 203 7.589
30 FZ 204 8.565
30 FZ 205 10.030
30 FZ 206 11.495
30 FZ 207 12.472
30 FZ 208 12.960
30 FZ 209 12.472
30 FZ 210 11.495
30 FZ 211 10.518
30 FZ 212 10.030
30 FZ 213 10.030
30 FZ 214 10.518
30 FZ 215 11.007
30 FZ 216 11.007
30 FZ 217 9.542
30 FZ 218 8.077
30 FZ 219 7.100
30 FZ 220 7.589
30 FZ 221 8.565
30 FZ 222 10.030
30 FZ 223 11.983
30 FZ 224 12.472
30 FZ 225 12.960
30 FZ 226 13.936
30 FZ 227 14.425
30 FZ 228 14.913
30 FZ 229 14.425
30 FZ 230 13.448
30 FZ 231 11.983
30 FZ 232 10.518
30 FZ 233 9.542
30 FZ 234 9.542
30 FZ 235 10.518
30 FZ 236 11.007
30 FZ 237 11.983
30 FZ 238 11.983
30 FZ 239 12.472
30 FZ 240 12.472
30 FZ 241 12.472
30 FZ 242 12.472
30 FZ 243 12.472
30 FZ 244 11.983
30 FZ 245 11.495
30 FZ 246 10.518
30 FZ 247 9.542
30 FZ 248 8.565
30 FZ 249 8.565
30 FZ 250 8.565
30 FZ 251 8.565
30 FZ 252 8.565
30 FZ 253 9.054
30 FZ 254 9.054
30 FZ 255 9.542
# F4 chan 7
30 F4 0 0.529
30 F4 1 -0.448
30 F4 2 -1.424
30 F4 3 -1.912
30 F4 4 -1.424
30 F4 5 -0.448
30 F4 6 0.529
30 F4 7 0.529
30 F4 8 0.041
30 F4 9 0.529
30 F4 10 1.994
30 F4 11 3.947
30 F4 12 4.924
30 F4 13 4.435
30 F4 14 3.947
30 F4 15 4.435
30 F4 16 5.412
30 F4 17 6.388
30 F4 18 6.877
30 F4 19 5.900
30 F4 20 3.947
30 F4 21 2.482
30 F4 22 2.482
30 F4 23 1.994
30 F4 24 0.529
30 F4 25 -1.912
30 F4 26 -3.866
30 F4 27 -3.866
30 F4 28 -0.936
30 F4 29 3.459
30 F4 30 5.900
30 F4 31 4.924
30 F4 32 0.041
30 F4 33 -6.307
30 F4 34 -10.701
30 F4 35 -11.678
30 F4 36 -9.725
30 F4 37 -7.284
30 F4 38 -5.330
30 F4 39 -5.330
30 F4 40 -5.819
30 F4 41 -5.330
30 F4 42 -3.866
30 F4 43 -1.912
30 F4 44 -0.448
30 F4 45 0.041
30 F4 46 -0.448
30 F4 47 -0.936
30 F4 48 -1.424
30 F4 49 -1.424
30 F4 50 -2.889
30 F4 51 -4.842
30 F4 52 -7.284
30 F4 53 -8.260
30 F4 54 -7.284
30 F4 55 -4.354
30 F4 56 -1.912
30 F4 57 -0.448
30 F4 58 0.041
30 F4 59 -0.448
30 F4 60 -1.912
30 F4 61 -2.889
30 F4 62 -3.377
30 F4 63 -3.377
30 F4 64 -2.401
30 F4 65 -1.912
30 F4 66 -1.424
30 F4 67 -1.912
30 F4 68 -3.377
30 F4 69 -3.866
30 F4 70 -3.866
30 F4 71 -2.401
30 F4 72 -0.448
30 F4 73 1.017
30 F4 74 0.529
30 F4 75 -0.936
30 F4 76 -2.401
30 F4 77 -3.377
30 F4 78 -4.354
30 F4 79 -4.354
30 F4 80 -5.330
30 F4 81 -6.795
30 F4 82 -8.260
30 F4 83 -9.237
30 F4 84 -10.213
30 F4 85 -10.213
30 F4 86 -8.748
30 F4 87 -6.795
30 F4 88 -3.866
30 F4 89 -1.912
30 F4 90 -1.424
30 F4 91 -2.889
30 F4 92 -4.842
30 F4 93 -6.307
30 F4 94 -5.330
30 F4 95 -3.377
30 F4 96 -1.424
30 F4 97 0.041
30 F4 98 0.529
30 F4 99 0.529
30 F4 100 1.994
30 F4 101 3.459
30 F4 102 3.947
30 F4 103 3.459
30 F4 104 1.506
30 F4 105 -0.448
30 F4 106 -1.424
30 F4 107 -0.448
30 F4 108 1.017
30 F4 109 1.994
30 F4 110 1.994
30 F4 111 1.017
30 F4 112 1.506
30 F4 113 2.970
30 F4 114 5.900
30 F4 115 8.341
30 F4 116 9.318
30 F4 117 8.341
30 F4 118 6.388
30 F4 119 4.924
30 F4 120 3.947
30 F4 121 2.970
30 F4 122 1.994
30 F4 123 0.041
30 F4 124 -1.424
30 F4 125 -1.912
30 F4 126 -0.936
30 F4 127 1.017
30 F4 128 1.994
30 F4 129 1.506
30 F4 130 0.041
30 F4 131 -1.424
30 F4 132 -2.401
30 F4 133 -2.401
30 F4 134 -1.912
30 F4 135 -0.936
30 F4 136 0.041
30 F4 137 0.041
30 F4 138 -0.448
30 F4 139 -0.936
30 F4 140 -1.424
30 F4 141 -1.424
30 F4 142 -1.424
30 F4 143 -1.424
30 F4 144 -2.401
30 F4 145 -3.377
30 F4 146 -4.354
30 F4 147 -4.842
30 F4 148 -4.842
30 F4 149 -4.354
30 F4 150 -3.377
30 F4 151 -2.401
30 F4 152 -0.936
30 F4 153 0.041
30 F4 154 0.529
30 F4 155 0.041
30 F4 156 -1.424
30 F4 157 -2.889
30 F4 158 -2.889
30 F4 159 -1.424
30 F4 160 1.017
30 F4 161 3.947
30 F4 162 4.924
30 F4 163 5.412
30 F4 164 5.900
30 F4 165 7.365
30 F4 166 9.318
30 F4 167 11.271
30 F4 168 11.759
30 F4 169 9.318
30 F4 170 6.388
30 F4 171 3.947
30 F4 172 2.970
30 F4 173 2.970
30 F4 174 2.970
30 F4 175 2.482
30 F4 176 2.482
30 F4 177 3.459
30 F4 178 5.412
30 F4 179 7.365
30 F4 180 8.341
30 F4 181 6.877
30 F4 182 3.947
30 F4 183 1.017
30 F4 184 -0.936
30 F4 185 -0.936
30 F4 186 0.041
30 F4 187 0.041
30 F4 188 -0.936
30 F4 189 -1.912
30 F4 190 -2.889
30 F4 191 -2.889
30 F4 192 -1.424
30 F4 193 -0.936
30 F4 194 -0.936
30 F4 195 -0.936
30 F4 196 0.041
30 F4 197 1.017
30 F4 198 2.482
30 F4 199 2.482
30 F4 200 1.994
30 F4 201 0.529
30 F4 202 -0.448
30 F4 203 1.017
30 F4 204 3.459
30 F4 205 6.877
30 F4 206 8.830
30 F4 207 9.318
30 F4 208 7.853
30 F4 209 5.900
30 F4 210 3.947
30 F4 211 3.459
30 F4 212 4.924
30 F4 213 7.853
30 F4 214 9.806
30 F4 215 10.783
30 F4 216 9.806
30 F4 217 7.853
30 F4 218 6.388
30 F4 219 6.388
30 F4 220 7.365
30 F4 221 9.318
30 F4 222 11.271
30 F4 223 12.248
30 F4 224 12.736
30 F4 225 12.248
30 F4 226 11.271
30 F4 227 10.295
30 F4 228 9.806
30 F4 229 9.806
30 F4 230 9.806
30 F4 231 9.318
30 F4 232 7.365
30 F4 233 5.412
30 F4 234 3.947
30 F4 235 4.435
30 F4 236 5.412
30 F4 237 7.365
30 F4 238 7.853
30 F4 239 7.853
30 F4 240 7.365
30 F4 241 6.877
30 F4 242 7.853
30 F4 243 7.853
30 F4 244 7.853
30 F4 245 6.388
30 F4 246 4.924
30 F4 247 4.435
30 F4 248 4.435
30 F4 249 4.435
30 F4 250 4.435
30 F4 251 3.947
30 F4 252 3.459
30 F4 253 4.435
30 F4 254 5.900
30 F4 255 7.853
# F3 chan 8
30 F3 0 3.398
30 F3 1 2.909
30 F3 2 0.468
30 F3 3 -1.973
30 F3 4 -3.927
30 F3 5 -4.903
30 F3 6 -5.391
30 F3 7 -5.880
30 F3 8 -5.880
30 F3 9 -5.391
30 F3 10 -4.903
30 F3 11 -3.927
30 F3 12 -1.973
30 F3 13 -0.020
30 F3 14 2.421
30 F3 15 3.886
30 F3 16 4.374
30 F3 17 3.886
30 F3 18 3.886
30 F3 19 4.374
30 F3 20 4.862
30 F3 21 4.862
30 F3 22 4.374
30 F3 23 2.421
30 F3 24 0.468
30 F3 25 -0.020
30 F3 26 0.468
30 F3 27 2.421
30 F3 28 3.398
30 F3 29 3.886
30 F3 30 3.398
30 F3 31 2.909
30 F3 32 1.933
30 F3 33 0.468
30 F3 34 -1.485
30 F3 35 -3.927
30 F3 36 -5.880
30 F3 37 -6.368
30 F3 38 -5.880
30 F3 39 -5.880
30 F3 40 -6.856
30 F3 41 -9.298
30 F3 42 -11.251
30 F3 43 -11.739
30 F3 44 -10.274
30 F3 45 -8.321
30 F3 46 -5.880
30 F3 47 -4.903
30 F3 48 -5.391
30 F3 49 -5.880
30 F3 50 -5.880
30 F3 51 -5.880
30 F3 52 -6.856
30 F3 53 -6.856
30 F3 54 -7.345
30 F3 55 -6.368
30 F3 56 -3.927
30 F3 57 -0.997
30 F3 58 1.933
30 F3 59 3.886
30 F3 60 4.862
30 F3 61 3.886
30 F3 62 3.398
30 F3 63 2.909
30 F3 64 2.421
30 F3 65 1.933
30 F3 66 1.444
30 F3 67 0.956
30 F3 68 0.956
30 F3 69 1.933
30 F3 70 2.909
30 F3 71 3.886
30 F3 72 4.374
30 F3 73 3.398
30 F3 74 1.444
30 F3 75 -0.020
30 F3 76 -0.997
30 F3 77 -0.997
30 F3 78 -0.997
30 F3 79 -1.485
30 F3 80 -2.462
30 F3 81 -3.438
30 F3 82 -3.927
30 F3 83 -3.927
30 F3 84 -3.438
30 F3 85 -3.438
30 F3 86 -2.950
30 F3 87 -1.973
30 F3 88 -0.020
30 F3 89 2.421
30 F3 90 3.398
30 F3 91 2.909
30 F3 92 -0.509
30 F3 93 -3.438
30 F3 94 -4.903
30 F3 95 -3.438
30 F3 96 -0.020
30 F3 97 3.398
30 F3 98 5.351
30 F3 99 5.839
30 F3 100 5.351
30 F3 101 5.351
30 F3 102 6.816
30 F3 103 8.769
30 F3 104 10.234
30 F3 105 9.257
30 F3 106 7.304
30 F3 107 5.839
30 F3 108 4.862
30 F3 109 5.351
30 F3 110 6.327
30 F3 111 7.792
30 F3 112 8.280
30 F3 113 7.792
30 F3 114 8.280
30 F3 115 8.280
30 F3 116 9.257
30 F3 117 9.745
30 F3 118 9.257
30 F3 119 8.769
30 F3 120 7.304
30 F3 121 4.862
30 F3 122 2.909
30 F3 123 0.956
30 F3 124 -0.020
30 F3 125 0.468
30 F3 126 1.444
30 F3 127 2.909
30 F3 128 3.398
30 F3 129 3.398
30 F3 130 2.421
30 F3 131 0.956
30 F3 132 0.468
30 F3 133 -0.020
30 F3 134 1.444
30 F3 135 2.909
30 F3 136 4.374
30 F3 137 4.862
30 F3 138 4.374
30 F3 139 3.398
30 F3 140 2.421
30 F3 141 1.933
30 F3 142 2.421
30 F3 143 3.398
30 F3 144 3.398
30 F3 145 2.421
30 F3 146 0.468
30 F3 147 -0.020
30 F3 148 0.468
30 F3 149 1.933
30 F3 150 3.398
30 F3 151 3.886
30 F3 152 3.398
30 F3 153 2.421
30 F3 154 1.933
30 F3 155 1.444
30 F3 156 0.956
30 F3 157 0.468
30 F3 158 0.468
30 F3 159 0.956
30 F3 160 2.421
30 F3 161 4.374
30 F3 162 5.839
30 F3 163 7.304
30 F3 164 8.280
30 F3 165 9.745
30 F3 166 11.698
30 F3 167 13.163
30 F3 168 12.675
30 F3 169 10.234
30 F3 170 6.327
30 F3 171 2.909
30 F3 172 1.933
30 F3 173 2.909
30 F3 174 4.862
30 F3 175 5.839
30 F3 176 6.327
30 F3 177 5.839
30 F3 178 5.839
30 F3 179 6.816
30 F3 180 8.280
30 F3 181 9.257
30 F3 182 8.769
30 F3 183 7.304
30 F3 184 5.839
30 F3 185 5.351
30 F3 186 5.839
30 F3 187 7.304
30 F3 188 7.792
30 F3 189 7.792
30 F3 190 7.304
30 F3 191 6.816
30 F3 192 7.304
30 F3 193 8.769
30 F3 194 10.234
30 F3 195 10.722
30 F3 196 10.722
30 F3 197 9.257
30 F3 198 7.304
30 F3 199 5.839
30 F3 200 5.351
30 F3 201 5.839
30 F3 202 6.327
30 F3 203 7.304
30 F3 204 8.769
30 F3 205 9.745
30 F3 206 11.210
30 F3 207 11.698
30 F3 208 12.187
30 F3 209 11.698
30 F3 210 10.722
30 F3 211 10.722
30 F3 212 10.722
30 F3 213 11.698
30 F3 214 12.187
30 F3 215 12.187
30 F3 216 10.722
30 F3 217 8.280
30 F3 218 5.839
30 F3 219 3.886
30 F3 220 3.398
30 F3 221 4.374
30 F3 222 5.351
30 F3 223 6.816
30 F3 224 8.280
30 F3 225 10.234
30 F3 226 11.698
30 F3 227 13.652
30 F3 228 14.140
30 F3 229 13.652
30 F3 230 12.187
30 F3 231 10.722
30 F3 232 9.745
30 F3 233 9.257
30 F3 234 9.745
30 F3 235 10.234
30 F3 236 10.722
30 F3 237 11.698
30 F3 238 12.187
30 F3 239 12.675
30 F3 240 12.675
30 F3 241 12.675
30 F3 242 12.187
30 F3 243 12.187
30 F3 244 11.698
30 F3 245 10.234
30 F3 246 8.280
30 F3 247 6.327
30 F3 248 4.862
30 F3 249 5.351
30 F3 250 6.816
30 F3 251 8.280
30 F3 252 8.280
30 F3 253 7.792
30 F3 254 6.816
30 F3 255 7.304
# FC6 chan 9
30 FC6 0 -1.699
30 FC6 1 -2.675
30 FC6 2 -5.117
30 FC6 3 -7.558
30 FC6 4 -8.535
30 FC6 5 -7.558
30 FC6 6 -6.093
30 FC6 7 -4.628
30 FC6 8 -4.628
30 FC6 9 -4.628
30 FC6 10 -5.117
30 FC6 11 -4.628
30 FC6 12 -4.140
30 FC6 13 -3.652
30 FC6 14 -3.164
30 FC6 15 -3.652
30 FC6 16 -3.164
30 FC6 17 -3.164
30 FC6 18 -2.675
30 FC6 19 -2.187
30 FC6 20 -2.187
30 FC6 21 -3.164
30 FC6 22 -4.140
30 FC6 23 -5.605
30 FC6 24 -7.070
30 FC6 25 -9.023
30 FC6 26 -10.000
30 FC6 27 -9.511
30 FC6 28 -8.046
30 FC6 29 -6.093
30 FC6 30 -3.652
30 FC6 31 -3.164
30 FC6 32 -4.140
30 FC6 33 -5.605
30 FC6 34 -7.070
30 FC6 35 -8.046
30 FC6 36 -8.535
30 FC6 37 -9.023
30 FC6 38 -9.023
30 FC6 39 -9.023
30 FC6 40 -9.023
30 FC6 41 -8.046
30 FC6 42 -6.093
30 FC6 43 -3.652
30 FC6 44 -2.675
30 FC6 45 -3.164
30 FC6 46 -5.117
30 FC6 47 -7.070
30 FC6 48 -8.046
30 FC6 49 -8.046
30 FC6 50 -7.558
30 FC6 51 -8.046
30 FC6 52 -9.023
30 FC6 53 -9.511
30 FC6 54 -9.511
30 FC6 55 -8.535
30 FC6 56 -7.558
30 FC6 57 -7.558
30 FC6 58 -8.535
30 FC6 59 -10.000
30 FC6 60 -10.488
30 FC6 61 -10.000
30 FC6 62 -8.535
30 FC6 63 -7.070
30 FC6 64 -6.093
30 FC6 65 -6.093
30 FC6 66 -6.093
30 FC6 67 -6.582
30 FC6 68 -7.558
30 FC6 69 -8.535
30 FC6 70 -8.535
30 FC6 71 -8.046
30 FC6 72 -5.605
30 FC6 73 -3.164
30 FC6 74 -1.211
30 FC6 75 -1.699
30 FC6 76 -3.652
30 FC6 77 -5.605
30 FC6 78 -6.582
30 FC6 79 -7.070
30 FC6 80 -6.582
30 FC6 81 -6.582
30 FC6 82 -7.558
30 FC6 83 -9.023
30 FC6 84 -10.000
30 FC6 85 -9.511
30 FC6 86 -8.535
30 FC6 87 -6.582
30 FC6 88 -5.117
30 FC6 89 -4.628
30 FC6 90 -4.628
30 FC6 91 -5.117
30 FC6 92 -6.093
30 FC6 93 -6.093
30 FC6 94 -4.628
30 FC6 95 -3.164
30 FC6 96 -1.211
30 FC6 97 -0.234
30 FC6 98 -0.722
30 FC6 99 -0.722
30 FC6 100 -0.722
30 FC6 101 0.254
30 FC6 102 0.254
30 FC6 103 -0.234
30 FC6 104 -2.187
30 FC6 105 -4.140
30 FC6 106 -4.628
30 FC6 107 -3.652
30 FC6 108 -1.699
30 FC6 109 -0.722
30 FC6 110 -1.699
30 FC6 111 -3.164
30 FC6 112 -4.140
30 FC6 113 -2.675
30 FC6 114 0.254
30 FC6 115 2.696
30 FC6 116 3.672
30 FC6 117 2.207
30 FC6 118 -0.234
30 FC6 119 -1.699
30 FC6 120 -2.675
30 FC6 121 -3.652
30 FC6 122 -4.628
30 FC6 123 -6.093
30 FC6 124 -7.070
30 FC6 125 -6.093
30 FC6 126 -4.140
30 FC6 127 -2.187
30 FC6 128 -1.211
30 FC6 129 -1.699
30 FC6 130 -2.675
30 FC6 131 -3.652
30 FC6 132 -3.164
30 FC6 133 -2.675
30 FC6 134 -2.187
30 FC6 135 -2.187
30 FC6 136 -2.187
30 FC6 137 -2.187
30 FC6 138 -2.675
30 FC6 139 -3.164
30 FC6 140 -4.140
30 FC6 141 -4.628
30 FC6 142 -5.117
30 FC6 143 -5.117
30 FC6 144 -5.117
30 FC6 145 -5.605
30 FC6 146 -6.582
30 FC6 147 -7.070
30 FC6 148 -7.558
30 FC6 149 -7.070
30 FC6 150 -6.093
30 FC6 151 -5.117
30 FC6 152 -3.652
30 FC6 153 -2.187
30 FC6 154 -1.211
30 FC6 155 -1.211
30 FC6 156 -2.187
30 FC6 157 -3.652
30 FC6 158 -4.140
30 FC6 159 -3.652
30 FC6 160 -1.699
30 FC6 161 0.254
30 FC6 162 1.719
30 FC6 163 2.207
30 FC6 164 2.207
30 FC6 165 2.696
30 FC6 166 4.161
30 FC6 167 6.114
30 FC6 168 6.114
30 FC6 169 3.672
30 FC6 170 -0.234
30 FC6 171 -4.140
30 FC6 172 -6.093
30 FC6 173 -6.093
30 FC6 174 -4.628
30 FC6 175 -3.652
30 FC6 176 -2.675
30 FC6 177 -2.187
30 FC6 178 -1.211
30 FC6 179 0.743
30 FC6 180 1.719
30 FC6 181 0.743
30 FC6 182 -1.699
30 FC6 183 -4.628
30 FC6 184 -7.558
30 FC6 185 -8.535
30 FC6 186 -9.023
30 FC6 187 -8.535
30 FC6 188 -7.558
30 FC6 189 -7.070
30 FC6 190 -6.582
30 FC6 191 -6.582
30 FC6 192 -7.070
30 FC6 193 -8.046
30 FC6 194 -8.046
30 FC6 195 -7.070
30 FC6 196 -3.652
30 FC6 197 -0.722
30 FC6 198 1.231
30 FC6 199 1.231
30 FC6 200 -0.234
30 FC6 201 -1.699
30 FC6 202 -1.699
30 FC6 203 -0.234
30 FC6 204 1.719
30 FC6 205 2.696
30 FC6 206 3.184
30 FC6 207 2.207
30 FC6 208 1.719
30 FC6 209 1.231
30 FC6 210 1.231
30 FC6 211 1.231
30 FC6 212 1.719
30 FC6 213 3.184
30 FC6 214 4.161
30 FC6 215 4.161
30 FC6 216 3.184
30 FC6 217 1.231
30 FC6 218 -0.234
30 FC6 219 0.254
30 FC6 220 2.696
30 FC6 221 5.625
30 FC6 222 7.579
30 FC6 223 8.067
30 FC6 224 7.090
30 FC6 225 5.137
30 FC6 226 3.672
30 FC6 227 3.672
30 FC6 228 4.161
30 FC6 229 3.672
30 FC6 230 2.696
30 FC6 231 0.743
30 FC6 232 -0.234
30 FC6 233 -0.234
30 FC6 234 1.231
30 FC6 235 2.696
30 FC6 236 3.184
30 FC6 237 3.184
30 FC6 238 2.696
30 FC6 239 3.184
30 FC6 240 3.184
30 FC6 241 3.672
30 FC6 242 3.184
30 FC6 243 2.207
30 FC6 244 1.231
30 FC6 245 0.743
30 FC6 246 0.743
30 FC6 247 0.743
30 FC6 248 0.254
30 FC6 249 -1.211
30 FC6 250 -2.187
30 FC6 251 -2.187
30 FC6 252 -1.211
30 FC6 253 0.743
30 FC6 254 1.719
30 FC6 255 2.207
# FC5 chan 10
30 FC5 0 2.075
30 FC5 1 3.052
30 FC5 2 1.099
30 FC5 3 -4.272
30 FC5 4 -9.644
30 FC5 5 -13.062
30 FC5 6 -14.038
30 FC5 7 -14.526
30 FC5 8 -14.526
30 FC5 9 -15.015
30 FC5 10 -13.550
30 FC5 11 -10.620
30 FC5 12 -6.714
30 FC5 13 -3.784
30 FC5 14 -2.319
30 FC5 15 -2.319
30 FC5 16 -3.296
30 FC5 17 -2.808
30 FC5 18 -1.343
30 FC5 19 -0.366
30 FC5 20 -0.366
30 FC5 21 -2.319
30 FC5 22 -5.249
30 FC5 23 -7.690
30 FC5 24 -8.667
30 FC5 25 -7.690
30 FC5 26 -5.737
30 FC5 27 -4.761
30 FC5 28 -4.272
30 FC5 29 -4.272
30 FC5 30 -3.296
30 FC5 31 -1.343
30 FC5 32 0.610
30 FC5 33 1.099
30 FC5 34 -0.854
30 FC5 35 -4.761
30 FC5 36 -10.132
30 FC5 37 -13.550
30 FC5 38 -14.038
30 FC5 39 -11.597
30 FC5 40 -9.155
30 FC5 41 -8.179
30 FC5 42 -8.179
30 FC5 43 -9.644
30 FC5 44 -10.620
30 FC5 45 -10.620
30 FC5 46 -10.620
30 FC5 47 -11.597
30 FC5 48 -12.573
30 FC5 49 -12.085
30 FC5 50 -10.620
30 FC5 51 -8.667
30 FC5 52 -7.202
30 FC5 53 -8.179
30 FC5 54 -10.620
30 FC5 55 -13.062
30 FC5 56 -13.062
30 FC5 57 -9.644
30 FC5 58 -4.272
30 FC5 59 0.122
30 FC5 60 2.563
30 FC5 61 1.099
30 FC5 62 -1.831
30 FC5 63 -4.272
30 FC5 64 -4.761
30 FC5 65 -3.784
30 FC5 66 -2.319
30 FC5 67 -0.366
30 FC5 68 0.610
30 FC5 69 2.075
30 FC5 70 3.052
30 FC5 71 4.028
30 FC5 72 4.028
30 FC5 73 3.540
30 FC5 74 2.563
30 FC5 75 2.075
30 FC5 76 1.587
30 FC5 77 1.099
30 FC5 78 -0.366
30 FC5 79 -2.319
30 FC5 80 -3.784
30 FC5 81 -3.296
30 FC5 82 -1.343
30 FC5 83 0.610
30 FC5 84 1.099
30 FC5 85 0.610
30 FC5 86 -0.366
30 FC5 87 -0.366
30 FC5 88 1.099
30 FC5 89 3.540
30 FC5 90 4.517
30 FC5 91 4.028
30 FC5 92 2.075
30 FC5 93 0.610
30 FC5 94 0.122
30 FC5 95 1.587
30 FC5 96 3.540
30 FC5 97 5.981
30 FC5 98 7.935
30 FC5 99 8.911
30 FC5 100 8.911
30 FC5 101 7.935
30 FC5 102 6.958
30 FC5 103 6.958
30 FC5 104 7.935
30 FC5 105 8.911
30 FC5 106 8.911
30 FC5 107 7.446
30 FC5 108 5.005
30 FC5 109 2.563
30 FC5 110 1.099
30 FC5 111 1.099
30 FC5 112 1.587
30 FC5 113 2.563
30 FC5 114 2.563
30 FC5 115 3.052
30 FC5 116 3.052
30 FC5 117 3.052
30 FC5 118 3.052
30 FC5 119 2.075
30 FC5 120 0.122
30 FC5 121 -1.831
30 FC5 122 -2.808
30 FC5 123 -4.761
30 FC5 124 -4.761
30 FC5 125 -3.296
30 FC5 126 -1.343
30 FC5 127 1.099
30 FC5 128 2.563
30 FC5 129 3.540
30 FC5 130 2.563
30 FC5 131 0.610
30 FC5 132 -0.854
30 FC5 133 -1.343
30 FC5 134 0.122
30 FC5 135 2.075
30 FC5 136 4.028
30 FC5 137 5.005
30 FC5 138 4.028
30 FC5 139 3.052
30 FC5 140 2.075
30 FC5 141 0.610
30 FC5 142 -0.366
30 FC5 143 -0.854
30 FC5 144 -0.854
30 FC5 145 0.610
30 FC5 146 2.563
30 FC5 147 5.005
30 FC5 148 6.470
30 FC5 149 6.958
30 FC5 150 6.470
30 FC5 151 4.517
30 FC5 152 2.563
30 FC5 153 1.587
30 FC5 154 1.587
30 FC5 155 2.075
30 FC5 156 2.563
30 FC5 157 2.563
30 FC5 158 1.587
30 FC5 159 0.122
30 FC5 160 0.610
30 FC5 161 2.075
30 FC5 162 4.517
30 FC5 163 6.958
30 FC5 164 8.911
30 FC5 165 9.399
30 FC5 166 9.399
30 FC5 167 9.888
30 FC5 168 9.888
30 FC5 169 9.399
30 FC5 170 7.446
30 FC5 171 4.028
30 FC5 172 0.610
30 FC5 173 -0.854
30 FC5 174 0.610
30 FC5 175 2.563
30 FC5 176 4.517
30 FC5 177 4.517
30 FC5 178 3.052
30 FC5 179 1.587
30 FC5 180 1.099
30 FC5 181 1.099
30 FC5 182 1.587
30 FC5 183 1.587
30 FC5 184 1.587
30 FC5 185 2.075
30 FC5 186 3.540
30 FC5 187 5.493
30 FC5 188 6.958
30 FC5 189 6.958
30 FC5 190 5.981
30 FC5 191 5.005
30 FC5 192 6.958
30 FC5 193 9.399
30 FC5 194 12.817
30 FC5 195 14.282
30 FC5 196 13.794
30 FC5 197 11.841
30 FC5 198 10.376
30 FC5 199 9.888
30 FC5 200 9.399
30 FC5 201 7.935
30 FC5 202 5.981
30 FC5 203 4.028
30 FC5 204 4.517
30 FC5 205 7.446
30 FC5 206 11.353
30 FC5 207 13.306
30 FC5 208 12.817
30 FC5 209 10.376
30 FC5 210 7.935
30 FC5 211 7.446
30 FC5 212 9.399
30 FC5 213 12.329
30 FC5 214 13.794
30 FC5 215 13.794
30 FC5 216 12.817
30 FC5 217 10.864
30 FC5 218 9.399
30 FC5 219 7.446
30 FC5 220 5.493
30 FC5 221 2.563
30 FC5 222 0.610
30 FC5 223 -0.366
30 FC5 224 1.587
30 FC5 225 5.493
30 FC5 226 9.399
30 FC5 227 12.329
30 FC5 228 13.306
30 FC5 229 12.329
30 FC5 230 10.864
30 FC5 231 9.399
30 FC5 232 9.399
30 FC5 233 9.399
30 FC5 234 9.888
30 FC5 235 10.864
30 FC5 236 13.306
30 FC5 237 15.747
30 FC5 238 18.188
30 FC5 239 19.165
30 FC5 240 18.677
30 FC5 241 17.212
30 FC5 242 16.724
30 FC5 243 17.212
30 FC5 244 17.212
30 FC5 245 15.259
30 FC5 246 11.841
30 FC5 247 6.958
30 FC5 248 4.517
30 FC5 249 4.517
30 FC5 250 5.981
30 FC5 251 7.446
30 FC5 252 6.958
30 FC5 253 5.981
30 FC5 254 5.981
30 FC5 255 7.935
# FC2 chan 11
30 FC2 0 2.197
30 FC2 1 2.197
30 FC2 2 1.709
30 FC2 3 1.709
30 FC2 4 2.197
30 FC2 5 2.686
30 FC2 6 3.174
30 FC2 7 3.174
30 FC2 8 3.174
30 FC2 9 2.686
30 FC2 10 3.174
30 FC2 11 3.662
30 FC2 12 4.639
30 FC2 13 5.127
30 FC2 14 5.615
30 FC2 15 5.615
30 FC2 16 5.127
30 FC2 17 5.127
30 FC2 18 4.639
30 FC2 19 4.639
30 FC2 20 4.150
30 FC2 21 4.150
30 FC2 22 4.150
30 FC2 23 3.174
30 FC2 24 2.686
30 FC2 25 1.709
30 FC2 26 0.732
30 FC2 27 1.221
30 FC2 28 2.197
30 FC2 29 3.662
30 FC2 30 4.150
30 FC2 31 3.174
30 FC2 32 0.732
30 FC2 33 -1.221
30 FC2 34 -3.174
30 FC2 35 -3.174
30 FC2 36 -2.197
30 FC2 37 -0.732
30 FC2 38 -0.244
30 FC2 39 -0.244
30 FC2 40 -0.732
30 FC2 41 -1.221
30 FC2 42 -0.244
30 FC2 43 1.709
30 FC2 44 2.686
30 FC2 45 3.174
30 FC2 46 3.174
30 FC2 47 2.686
30 FC2 48 2.686
30 FC2 49 2.686
30 FC2 50 2.686
30 FC2 51 0.732
30 FC2 52 -1.709
30 FC2 53 -3.174
30 FC2 54 -3.662
30 FC2 55 -1.709
30 FC2 56 0.732
30 FC2 57 3.174
30 FC2 58 3.662
30 FC2 59 3.174
30 FC2 60 2.197
30 FC2 61 0.732
30 FC2 62 0.244
30 FC2 63 -0.244
30 FC2 64 -0.244
30 FC2 65 -0.244
30 FC2 66 -0.732
30 FC2 67 -0.732
30 FC2 68 -0.244
30 FC2 69 0.244
30 FC2 70 0.732
30 FC2 71 1.221
30 FC2 72 1.221
30 FC2 73 0.732
30 FC2 74 -0.244
30 FC2 75 -0.732
30 FC2 76 -0.732
30 FC2 77 -0.244
30 FC2 78 0.244
30 FC2 79 -0.244
30 FC2 80 -2.197
30 FC2 81 -3.662
30 FC2 82 -5.127
30 FC2 83 -5.615
30 FC2 84 -5.615
30 FC2 85 -4.639
30 FC2 86 -3.174
30 FC2 87 -2.197
30 FC2 88 -1.221
30 FC2 89 -0.244
30 FC2 90 -0.244
30 FC2 91 -0.732
30 FC2 92 -2.197
30 FC2 93 -2.197
30 FC2 94 -2.197
30 FC2 95 -0.732
30 FC2 96 0.732
30 FC2 97 2.197
30 FC2 98 2.686
30 FC2 99 2.686
30 FC2 100 2.686
30 FC2 101 3.174
30 FC2 102 3.662
30 FC2 103 3.662
30 FC2 104 3.174
30 FC2 105 2.197
30 FC2 106 2.197
30 FC2 107 2.197
30 FC2 108 2.686
30 FC2 109 2.686
30 FC2 110 2.197
30 FC2 111 1.709
30 FC2 112 1.709
30 FC2 113 2.686
30 FC2 114 4.639
30 FC2 115 5.615
30 FC2 116 6.104
30 FC2 117 5.127
30 FC2 118 4.150
30 FC2 119 2.686
30 FC2 120 2.197
30 FC2 121 2.197
30 FC2 122 1.709
30 FC2 123 1.221
30 FC2 124 0.732
30 FC2 125 1.221
30 FC2 126 1.709
30 FC2 127 2.197
30 FC2 128 1.709
30 FC2 129 1.221
30 FC2 130 0.244
30 FC2 131 -0.244
30 FC2 132 -0.732
30 FC2 133 -0.244
30 FC2 134 0.244
30 FC2 135 0.732
30 FC2 136 1.221
30 FC2 137 1.221
30 FC2 138 1.221
30 FC2 139 0.732
30 FC2 140 0.732
30 FC2 141 0.244
30 FC2 142 0.732
30 FC2 143 1.221
30 FC2 144 1.221
30 FC2 145 0.732
30 FC2 146 -0.244
30 FC2 147 -1.221
30 FC2 148 -1.709
30 FC2 149 -1.221
30 FC2 150 -0.244
30 FC2 151 0.732
30 FC2 152 1.709
30 FC2 153 2.197
30 FC2 154 1.709
30 FC2 155 0.732
30 FC2 156 -0.244
30 FC2 157 -0.732
30 FC2 158 -0.732
30 FC2 159 0.732
30 FC2 160 3.174
30 FC2 161 5.127
30 FC2 162 6.104
30 FC2 163 6.104
30 FC2 164 6.104
30 FC2 165 6.104
30 FC2 166 6.592
30 FC2 167 7.080
30 FC2 168 6.592
30 FC2 169 5.615
30 FC2 170 4.639
30 FC2 171 3.662
30 FC2 172 3.662
30 FC2 173 4.639
30 FC2 174 5.127
30 FC2 175 5.127
30 FC2 176 4.639
30 FC2 177 4.150
30 FC2 178 3.662
30 FC2 179 4.150
30 FC2 180 5.127
30 FC2 181 5.615
30 FC2 182 5.127
30 FC2 183 4.150
30 FC2 184 3.174
30 FC2 185 2.686
30 FC2 186 2.197
30 FC2 187 1.709
30 FC2 188 0.732
30 FC2 189 -0.732
30 FC2 190 -2.197
30 FC2 191 -2.686
30 FC2 192 -1.221
30 FC2 193 0.244
30 FC2 194 1.709
30 FC2 195 3.174
30 FC2 196 3.662
30 FC2 197 3.662
30 FC2 198 3.174
30 FC2 199 1.709
30 FC2 200 0.244
30 FC2 201 -0.732
30 FC2 202 -0.244
30 FC2 203 1.221
30 FC2 204 2.686
30 FC2 205 4.150
30 FC2 206 5.615
30 FC2 207 6.104
30 FC2 208 5.615
30 FC2 209 5.127
30 FC2 210 4.150
30 FC2 211 3.662
30 FC2 212 2.686
30 FC2 213 2.686
30 FC2 214 3.174
30 FC2 215 3.662
30 FC2 216 4.150
30 FC2 217 3.662
30 FC2 218 4.150
30 FC2 219 4.639
30 FC2 220 5.615
30 FC2 221 7.080
30 FC2 222 7.568
30 FC2 223 7.568
30 FC2 224 7.080
30 FC2 225 6.592
30 FC2 226 6.104
30 FC2 227 6.104
30 FC2 228 6.104
30 FC2 229 6.104
30 FC2 230 5.127
30 FC2 231 4.639
30 FC2 232 4.150
30 FC2 233 3.662
30 FC2 234 4.150
30 FC2 235 4.150
30 FC2 236 4.150
30 FC2 237 4.150
30 FC2 238 4.150
30 FC2 239 3.662
30 FC2 240 3.662
30 FC2 241 4.150
30 FC2 242 4.639
30 FC2 243 5.127
30 FC2 244 5.615
30 FC2 245 6.104
30 FC2 246 5.615
30 FC2 247 4.639
30 FC2 248 3.174
30 FC2 249 1.709
30 FC2 250 1.221
30 FC2 251 1.221
30 FC2 252 2.197
30 FC2 253 3.174
30 FC2 254 3.662
30 FC2 255 4.150
# FC1 chan 12
30 FC1 0 4.395
30 FC1 1 4.395
30 FC1 2 2.930
30 FC1 3 0.977
30 FC1 4 -0.977
30 FC1 5 -1.953
30 FC1 6 -1.953
30 FC1 7 -1.953
30 FC1 8 -1.465
30 FC1 9 -1.465
30 FC1 10 -1.465
30 FC1 11 -0.977
30 FC1 12 0.488
30 FC1 13 1.953
30 FC1 14 3.906
30 FC1 15 4.883
30 FC1 16 4.883
30 FC1 17 4.395
30 FC1 18 3.418
30 FC1 19 2.930
30 FC1 20 2.930
30 FC1 21 2.930
30 FC1 22 2.930
30 FC1 23 2.441
30 FC1 24 1.953
30 FC1 25 1.465
30 FC1 26 1.953
30 FC1 27 3.418
30 FC1 28 4.883
30 FC1 29 5.371
30 FC1 30 4.883
30 FC1 31 3.906
30 FC1 32 2.441
30 FC1 33 0.977
30 FC1 34 0.000
30 FC1 35 0.000
30 FC1 36 0.000
30 FC1 37 0.488
30 FC1 38 0.488
30 FC1 39 -0.488
30 FC1 40 -1.953
30 FC1 41 -3.418
30 FC1 42 -4.395
30 FC1 43 -4.395
30 FC1 44 -3.906
30 FC1 45 -2.441
30 FC1 46 -1.465
30 FC1 47 0.000
30 FC1 48 0.000
30 FC1 49 0.000
30 FC1 50 -0.977
30 FC1 51 -1.953
30 FC1 52 -2.930
30 FC1 53 -3.418
30 FC1 54 -2.930
30 FC1 55 -1.465
30 FC1 56 0.977
30 FC1 57 3.418
30 FC1 58 4.883
30 FC1 59 5.371
30 FC1 60 5.371
30 FC1 61 4.883
30 FC1 62 3.906
30 FC1 63 3.906
30 FC1 64 2.930
30 FC1 65 2.441
30 FC1 66 1.953
30 FC1 67 1.953
30 FC1 68 2.441
30 FC1 69 2.930
30 FC1 70 3.906
30 FC1 71 3.906
30 FC1 72 3.418
30 FC1 73 1.953
30 FC1 74 0.488
30 FC1 75 -0.488
30 FC1 76 -0.488
30 FC1 77 -0.488
30 FC1 78 0.000
30 FC1 79 -0.977
30 FC1 80 -1.953
30 FC1 81 -2.930
30 FC1 82 -2.930
30 FC1 83 -1.953
30 FC1 84 -0.488
30 FC1 85 0.488
30 FC1 86 0.488
30 FC1 87 0.488
30 FC1 88 0.488
30 FC1 89 1.465
30 FC1 90 1.953
30 FC1 91 1.953
30 FC1 92 0.977
30 FC1 93 -0.488
30 FC1 94 -0.977
30 FC1 95 -0.488
30 FC1 96 1.465
30 FC1 97 3.906
30 FC1 98 5.371
30 FC1 99 6.348
30 FC1 100 5.859
30 FC1 101 5.859
30 FC1 102 5.859
30 FC1 103 6.836
30 FC1 104 7.812
30 FC1 105 7.812
30 FC1 106 6.836
30 FC1 107 5.859
30 FC1 108 5.371
30 FC1 109 4.883
30 FC1 110 5.371
30 FC1 111 5.859
30 FC1 112 5.859
30 FC1 113 5.859
30 FC1 114 6.348
30 FC1 115 6.348
30 FC1 116 6.836
30 FC1 117 6.836
30 FC1 118 6.836
30 FC1 119 6.348
30 FC1 120 5.371
30 FC1 121 4.395
30 FC1 122 2.930
30 FC1 123 1.953
30 FC1 124 1.465
30 FC1 125 0.977
30 FC1 126 1.953
30 FC1 127 2.930
30 FC1 128 3.418
30 FC1 129 3.418
30 FC1 130 2.441
30 FC1 131 1.465
30 FC1 132 0.977
30 FC1 133 1.953
30 FC1 134 2.930
30 FC1 135 4.395
30 FC1 136 5.371
30 FC1 137 5.371
30 FC1 138 4.883
30 FC1 139 3.906
30 FC1 140 3.418
30 FC1 141 2.930
30 FC1 142 2.930
30 FC1 143 3.418
30 FC1 144 3.906
30 FC1 145 3.906
30 FC1 146 3.418
30 FC1 147 2.930
30 FC1 148 2.930
30 FC1 149 3.418
30 FC1 150 3.906
30 FC1 151 4.395
30 FC1 152 4.395
30 FC1 153 3.906
30 FC1 154 2.930
30 FC1 155 1.953
30 FC1 156 1.465
30 FC1 157 0.977
30 FC1 158 0.977
30 FC1 159 1.953
30 FC1 160 3.418
30 FC1 161 4.395
30 FC1 162 5.371
30 FC1 163 6.348
30 FC1 164 6.348
30 FC1 165 6.348
30 FC1 166 5.859
30 FC1 167 6.348
30 FC1 168 6.348
30 FC1 169 5.859
30 FC1 170 5.371
30 FC1 171 3.906
30 FC1 172 2.930
30 FC1 173 2.930
30 FC1 174 2.930
30 FC1 175 3.906
30 FC1 176 4.395
30 FC1 177 4.395
30 FC1 178 4.395
30 FC1 179 4.883
30 FC1 180 5.371
30 FC1 181 5.859
30 FC1 182 5.859
30 FC1 183 4.883
30 FC1 184 3.906
30 FC1 185 3.906
30 FC1 186 3.906
30 FC1 187 4.883
30 FC1 188 6.348
30 FC1 189 6.348
30 FC1 190 6.348
30 FC1 191 5.859
30 FC1 192 6.348
30 FC1 193 7.324
30 FC1 194 8.301
30 FC1 195 8.789
30 FC1 196 7.812
30 FC1 197 6.348
30 FC1 198 4.395
30 FC1 199 3.906
30 FC1 200 3.906
30 FC1 201 4.395
30 FC1 202 5.371
30 FC1 203 5.859
30 FC1 204 6.348
30 FC1 205 6.348
30 FC1 206 6.836
30 FC1 207 6.836
30 FC1 208 6.836
30 FC1 209 6.836
30 FC1 210 6.836
30 FC1 211 6.348
30 FC1 212 6.348
30 FC1 213 6.836
30 FC1 214 6.836
30 FC1 215 6.836
30 FC1 216 6.348
30 FC1 217 5.371
30 FC1 218 4.395
30 FC1 219 3.906
30 FC1 220 2.930
30 FC1 221 2.930
30 FC1 222 2.930
30 FC1 223 3.418
30 FC1 224 4.883
30 FC1 225 6.348
30 FC1 226 7.324
30 FC1 227 8.301
30 FC1 228 8.789
30 FC1 229 8.789
30 FC1 230 8.301
30 FC1 231 7.812
30 FC1 232 6.348
30 FC1 233 5.859
30 FC1 234 5.371
30 FC1 235 5.371
30 FC1 236 6.348
30 FC1 237 7.324
30 FC1 238 7.812
30 FC1 239 7.812
30 FC1 240 7.812
30 FC1 241 7.324
30 FC1 242 7.324
30 FC1 243 7.324
30 FC1 244 7.324
30 FC1 245 6.348
30 FC1 246 5.371
30 FC1 247 3.906
30 FC1 248 2.930
30 FC1 249 2.930
30 FC1 250 3.906
30 FC1 251 4.395
30 FC1 252 4.883
30 FC1 253 4.883
30 FC1 254 4.395
30 FC1 255 4.395
# T8 chan 13
30 T8 0 -7.497
30 T8 1 -7.497
30 T8 2 -8.962
30 T8 3 -11.892
30 T8 4 -14.821
30 T8 5 -16.774
30 T8 6 -17.751
30 T8 7 -18.239
30 T8 8 -19.216
30 T8 9 -21.169
30 T8 10 -21.657
30 T8 11 -20.681
30 T8 12 -18.728
30 T8 13 -16.774
30 T8 14 -15.798
30 T8 15 -15.310
30 T8 16 -15.310
30 T8 17 -14.333
30 T8 18 -13.357
30 T8 19 -13.357
30 T8 20 -14.333
30 T8 21 -16.774
30 T8 22 -18.728
30 T8 23 -20.192
30 T8 24 -21.169
30 T8 25 -21.657
30 T8 26 -22.634
30 T8 27 -23.610
30 T8 28 -23.610
30 T8 29 -21.657
30 T8 30 -18.728
30 T8 31 -15.310
30 T8 32 -13.845
30 T8 33 -13.845
30 T8 34 -15.310
30 T8 35 -18.239
30 T8 36 -20.681
30 T8 37 -23.122
30 T8 38 -23.610
30 T8 39 -23.122
30 T8 40 -21.657
30 T8 41 -20.192
30 T8 42 -18.239
30 T8 43 -16.774
30 T8 44 -16.774
30 T8 45 -17.751
30 T8 46 -19.704
30 T8 47 -21.169
30 T8 48 -21.657
30 T8 49 -19.704
30 T8 50 -16.286
30 T8 51 -12.380
30 T8 52 -9.939
30 T8 53 -8.962
30 T8 54 -10.427
30 T8 55 -12.868
30 T8 56 -15.798
30 T8 57 -17.751
30 T8 58 -18.728
30 T8 59 -17.263
30 T8 60 -15.310
30 T8 61 -13.845
30 T8 62 -13.357
30 T8 63 -14.333
30 T8 64 -15.310
30 T8 65 -15.310
30 T8 66 -13.845
30 T8 67 -11.892
30 T8 68 -10.915
30 T8 69 -11.892
30 T8 70 -13.357
30 T8 71 -14.821
30 T8 72 -13.845
30 T8 73 -11.403
30 T8 74 -8.474
30 T8 75 -6.521
30 T8 76 -7.497
30 T8 77 -8.962
30 T8 78 -10.427
30 T8 79 -10.427
30 T8 80 -9.939
30 T8 81 -9.939
30 T8 82 -11.403
30 T8 83 -13.357
30 T8 84 -15.798
30 T8 85 -17.751
30 T8 86 -17.751
30 T8 87 -16.774
30 T8 88 -14.821
30 T8 89 -13.357
30 T8 90 -13.357
30 T8 91 -13.845
30 T8 92 -14.821
30 T8 93 -15.310
30 T8 94 -14.821
30 T8 95 -13.845
30 T8 96 -12.868
30 T8 97 -11.892
30 T8 98 -11.403
30 T8 99 -10.427
30 T8 100 -9.939
30 T8 101 -9.939
30 T8 102 -10.915
30 T8 103 -12.380
30 T8 104 -13.357
30 T8 105 -12.868
30 T8 106 -10.915
30 T8 107 -8.962
30 T8 108 -7.985
30 T8 109 -8.474
30 T8 110 -9.939
30 T8 111 -11.403
30 T8 112 -11.403
30 T8 113 -9.939
30 T8 114 -7.985
30 T8 115 -6.521
30 T8 116 -5.056
30 T8 117 -4.567
30 T8 118 -4.567
30 T8 119 -6.032
30 T8 120 -8.474
30 T8 121 -11.403
30 T8 122 -13.357
30 T8 123 -13.357
30 T8 124 -12.868
30 T8 125 -11.403
30 T8 126 -9.450
30 T8 127 -7.497
30 T8 128 -6.032
30 T8 129 -5.544
30 T8 130 -5.544
30 T8 131 -6.521
30 T8 132 -7.009
30 T8 133 -7.009
30 T8 134 -6.521
30 T8 135 -6.521
30 T8 136 -7.009
30 T8 137 -8.474
30 T8 138 -9.939
30 T8 139 -9.939
30 T8 140 -9.450
30 T8 141 -9.939
30 T8 142 -11.403
30 T8 143 -13.357
30 T8 144 -14.821
30 T8 145 -14.333
30 T8 146 -12.380
30 T8 147 -10.427
30 T8 148 -9.450
30 T8 149 -9.939
30 T8 150 -11.403
30 T8 151 -11.892
30 T8 152 -9.939
30 T8 153 -7.009
30 T8 154 -5.056
30 T8 155 -6.032
30 T8 156 -8.962
30 T8 157 -12.868
30 T8 158 -14.333
30 T8 159 -12.868
30 T8 160 -8.962
30 T8 161 -4.567
30 T8 162 -2.614
30 T8 163 -3.103
30 T8 164 -5.056
30 T8 165 -6.032
30 T8 166 -4.567
30 T8 167 -2.126
30 T8 168 -0.173
30 T8 169 -1.149
30 T8 170 -3.103
30 T8 171 -6.032
30 T8 172 -7.985
30 T8 173 -7.985
30 T8 174 -7.497
30 T8 175 -6.521
30 T8 176 -5.544
30 T8 177 -4.567
30 T8 178 -2.614
30 T8 179 -1.638
30 T8 180 -1.638
30 T8 181 -3.103
30 T8 182 -4.567
30 T8 183 -6.032
30 T8 184 -6.032
30 T8 185 -6.032
30 T8 186 -7.009
30 T8 187 -7.985
30 T8 188 -8.962
30 T8 189 -7.985
30 T8 190 -6.032
30 T8 191 -5.544
30 T8 192 -6.521
30 T8 193 -9.450
30 T8 194 -11.403
30 T8 195 -10.427
30 T8 196 -5.544
30 T8 197 0.804
30 T8 198 5.198
30 T8 199 5.198
30 T8 200 2.757
30 T8 201 -0.173
30 T8 202 -1.638
30 T8 203 -0.661
30 T8 204 0.315
30 T8 205 -0.173
30 T8 206 -2.126
30 T8 207 -4.079
30 T8 208 -5.056
30 T8 209 -4.079
30 T8 210 -1.638
30 T8 211 0.804
30 T8 212 3.245
30 T8 213 4.222
30 T8 214 3.245
30 T8 215 -0.173
30 T8 216 -5.056
30 T8 217 -8.962
30 T8 218 -10.915
30 T8 219 -9.450
30 T8 220 -6.032
30 T8 221 -2.614
30 T8 222 0.315
30 T8 223 0.804
30 T8 224 -0.173
30 T8 225 -0.661
30 T8 226 -0.661
30 T8 227 0.315
30 T8 228 1.292
30 T8 229 0.804
30 T8 230 -0.661
30 T8 231 -2.614
30 T8 232 -4.079
30 T8 233 -3.591
30 T8 234 -2.126
30 T8 235 0.804
30 T8 236 3.733
30 T8 237 5.198
30 T8 238 5.686
30 T8 239 5.198
30 T8 240 4.222
30 T8 241 3.245
30 T8 242 1.780
30 T8 243 0.315
30 T8 244 -0.173
30 T8 245 -1.149
30 T8 246 -1.149
30 T8 247 -1.638
30 T8 248 -2.614
30 T8 249 -3.591
30 T8 250 -3.591
30 T8 251 -2.614
30 T8 252 -0.173
30 T8 253 1.292
30 T8 254 2.268
30 T8 255 1.292
# T7 chan 14
30 T7 0 -6.897
30 T7 1 -2.991
30 T7 2 -3.479
30 T7 3 -8.850
30 T7 4 -16.663
30 T7 5 -23.499
30 T7 6 -25.940
30 T7 7 -24.475
30 T7 8 -21.057
30 T7 9 -17.639
30 T7 10 -15.686
30 T7 11 -15.198
30 T7 12 -13.733
30 T7 13 -11.292
30 T7 14 -7.874
30 T7 15 -5.920
30 T7 16 -5.432
30 T7 17 -7.874
30 T7 18 -12.268
30 T7 19 -16.663
30 T7 20 -20.081
30 T7 21 -22.034
30 T7 22 -21.057
30 T7 23 -18.616
30 T7 24 -16.174
30 T7 25 -14.709
30 T7 26 -15.686
30 T7 27 -17.639
30 T7 28 -18.127
30 T7 29 -15.198
30 T7 30 -10.315
30 T7 31 -5.920
30 T7 32 -4.456
30 T7 33 -7.385
30 T7 34 -12.756
30 T7 35 -18.127
30 T7 36 -21.545
30 T7 37 -21.057
30 T7 38 -19.104
30 T7 39 -17.639
30 T7 40 -17.151
30 T7 41 -18.127
30 T7 42 -18.127
30 T7 43 -16.663
30 T7 44 -13.733
30 T7 45 -12.756
30 T7 46 -14.221
30 T7 47 -18.127
30 T7 48 -22.522
30 T7 49 -24.963
30 T7 50 -23.987
30 T7 51 -20.081
30 T7 52 -15.686
30 T7 53 -12.268
30 T7 54 -11.292
30 T7 55 -11.780
30 T7 56 -12.268
30 T7 57 -12.268
30 T7 58 -11.292
30 T7 59 -10.315
30 T7 60 -9.827
30 T7 61 -9.827
30 T7 62 -9.338
30 T7 63 -8.362
30 T7 64 -7.385
30 T7 65 -6.409
30 T7 66 -4.944
30 T7 67 -4.456
30 T7 68 -2.991
30 T7 69 -1.526
30 T7 70 -0.549
30 T7 71 -0.061
30 T7 72 -0.549
30 T7 73 -0.549
30 T7 74 -1.038
30 T7 75 -1.038
30 T7 76 -2.014
30 T7 77 -4.456
30 T7 78 -6.409
30 T7 79 -7.385
30 T7 80 -6.897
30 T7 81 -5.432
30 T7 82 -3.967
30 T7 83 -3.479
30 T7 84 -4.944
30 T7 85 -6.409
30 T7 86 -8.362
30 T7 87 -8.850
30 T7 88 -8.362
30 T7 89 -7.874
30 T7 90 -6.897
30 T7 91 -5.432
30 T7 92 -3.967
30 T7 93 -2.502
30 T7 94 -1.038
30 T7 95 -1.038
30 T7 96 -1.038
30 T7 97 -1.526
30 T7 98 -1.038
30 T7 99 0.916
30 T7 100 2.380
30 T7 101 3.357
30 T7 102 2.380
30 T7 103 -0.549
30 T7 104 -3.479
30 T7 105 -4.944
30 T7 106 -4.944
30 T7 107 -3.967
30 T7 108 -3.479
30 T7 109 -4.456
30 T7 110 -7.385
30 T7 111 -11.292
30 T7 112 -14.221
30 T7 113 -15.686
30 T7 114 -13.733
30 T7 115 -10.315
30 T7 116 -5.920
30 T7 117 -3.479
30 T7 118 -3.479
30 T7 119 -5.920
30 T7 120 -8.850
30 T7 121 -11.292
30 T7 122 -10.803
30 T7 123 -8.850
30 T7 124 -6.409
30 T7 125 -4.456
30 T7 126 -3.479
30 T7 127 -3.967
30 T7 128 -4.944
30 T7 129 -5.920
30 T7 130 -6.409
30 T7 131 -5.920
30 T7 132 -4.944
30 T7 133 -2.991
30 T7 134 -1.526
30 T7 135 -0.549
30 T7 136 -1.526
30 T7 137 -3.479
30 T7 138 -4.944
30 T7 139 -6.409
30 T7 140 -6.409
30 T7 141 -6.409
30 T7 142 -5.920
30 T7 143 -4.456
30 T7 144 -2.502
30 T7 145 -0.549
30 T7 146 -0.061
30 T7 147 -0.549
30 T7 148 -2.014
30 T7 149 -1.526
30 T7 150 0.916
30 T7 151 3.845
30 T7 152 3.845
30 T7 153 0.916
30 T7 154 -5.432
30 T7 155 -9.338
30 T7 156 -9.827
30 T7 157 -5.920
30 T7 158 -1.038
30 T7 159 0.916
30 T7 160 -0.061
30 T7 161 -2.502
30 T7 162 -3.479
30 T7 163 -1.526
30 T7 164 0.916
30 T7 165 1.892
30 T7 166 0.916
30 T7 167 -0.061
30 T7 168 -0.061
30 T7 169 2.380
30 T7 170 4.333
30 T7 171 2.869
30 T7 172 -2.014
30 T7 173 -6.897
30 T7 174 -9.338
30 T7 175 -6.897
30 T7 176 -2.014
30 T7 177 1.404
30 T7 178 0.916
30 T7 179 -2.991
30 T7 180 -6.897
30 T7 181 -8.850
30 T7 182 -6.897
30 T7 183 -3.479
30 T7 184 -2.014
30 T7 185 -2.502
30 T7 186 -3.967
30 T7 187 -4.456
30 T7 188 -2.991
30 T7 189 -0.549
30 T7 190 0.916
30 T7 191 0.427
30 T7 192 -0.061
30 T7 193 0.916
30 T7 194 3.845
30 T7 195 7.263
30 T7 196 8.240
30 T7 197 6.287
30 T7 198 1.892
30 T7 199 -1.526
30 T7 200 -2.502
30 T7 201 -2.014
30 T7 202 -1.526
30 T7 203 -1.526
30 T7 204 -2.014
30 T7 205 -1.526
30 T7 206 -0.061
30 T7 207 1.404
30 T7 208 2.380
30 T7 209 2.380
30 T7 210 2.869
30 T7 211 5.310
30 T7 212 7.751
30 T7 213 8.728
30 T7 214 6.775
30 T7 215 2.869
30 T7 216 -1.526
30 T7 217 -4.944
30 T7 218 -6.897
30 T7 219 -8.850
30 T7 220 -11.292
30 T7 221 -13.733
30 T7 222 -14.709
30 T7 223 -11.780
30 T7 224 -6.409
30 T7 225 -0.549
30 T7 226 2.869
30 T7 227 1.892
30 T7 228 -0.549
30 T7 229 -2.014
30 T7 230 -0.549
30 T7 231 1.892
30 T7 232 3.357
30 T7 233 1.404
30 T7 234 -2.014
30 T7 235 -2.991
30 T7 236 0.427
30 T7 237 7.263
30 T7 238 13.123
30 T7 239 15.076
30 T7 240 12.146
30 T7 241 7.751
30 T7 242 3.845
30 T7 243 1.892
30 T7 244 0.916
30 T7 245 -0.061
30 T7 246 -1.526
30 T7 247 -2.014
30 T7 248 -2.014
30 T7 249 -2.014
30 T7 250 -2.502
30 T7 251 -4.456
30 T7 252 -5.920
30 T7 253 -4.944
30 T7 254 -1.526
30 T7 255 3.357
# CZ chan 15
30 CZ 0 -11.037
30 CZ 1 -9.084
30 CZ 2 -10.061
30 CZ 3 -14.943
30 CZ 4 -20.803
30 CZ 5 -25.197
30 CZ 6 -26.174
30 CZ 7 -25.197
30 CZ 8 -25.686
30 CZ 9 -28.127
30 CZ 10 -29.592
30 CZ 11 -28.127
30 CZ 12 -23.244
30 CZ 13 -16.897
30 CZ 14 -13.479
30 CZ 15 -14.455
30 CZ 16 -18.361
30 CZ 17 -22.268
30 CZ 18 -23.733
30 CZ 19 -23.733
30 CZ 20 -24.709
30 CZ 21 -29.104
30 CZ 22 -34.475
30 CZ 23 -37.893
30 CZ 24 -36.428
30 CZ 25 -31.057
30 CZ 26 -25.686
30 CZ 27 -23.733
30 CZ 28 -25.197
30 CZ 29 -28.127
30 CZ 30 -29.104
30 CZ 31 -27.639
30 CZ 32 -24.221
30 CZ 33 -21.779
30 CZ 34 -21.291
30 CZ 35 -22.268
30 CZ 36 -25.197
30 CZ 37 -29.104
30 CZ 38 -32.033
30 CZ 39 -34.963
30 CZ 40 -36.428
30 CZ 41 -35.940
30 CZ 42 -33.986
30 CZ 43 -32.033
30 CZ 44 -31.545
30 CZ 45 -33.010
30 CZ 46 -35.451
30 CZ 47 -37.404
30 CZ 48 -37.404
30 CZ 49 -35.940
30 CZ 50 -33.498
30 CZ 51 -30.568
30 CZ 52 -28.615
30 CZ 53 -26.662
30 CZ 54 -26.174
30 CZ 55 -26.662
30 CZ 56 -28.127
30 CZ 57 -29.104
30 CZ 58 -28.127
30 CZ 59 -24.709
30 CZ 60 -18.850
30 CZ 61 -13.967
30 CZ 62 -11.525
30 CZ 63 -12.502
30 CZ 64 -16.408
30 CZ 65 -20.315
30 CZ 66 -22.268
30 CZ 67 -21.291
30 CZ 68 -18.850
30 CZ 69 -15.920
30 CZ 70 -14.455
30 CZ 71 -13.967
30 CZ 72 -12.990
30 CZ 73 -10.549
30 CZ 74 -7.619
30 CZ 75 -4.690
30 CZ 76 -3.713
30 CZ 77 -4.690
30 CZ 78 -7.131
30 CZ 79 -10.549
30 CZ 80 -14.455
30 CZ 81 -17.873
30 CZ 82 -19.826
30 CZ 83 -19.826
30 CZ 84 -17.385
30 CZ 85 -13.479
30 CZ 86 -10.549
30 CZ 87 -9.084
30 CZ 88 -10.549
30 CZ 89 -12.990
30 CZ 90 -14.455
30 CZ 91 -15.432
30 CZ 92 -15.432
30 CZ 93 -14.943
30 CZ 94 -13.967
30 CZ 95 -12.014
30 CZ 96 -7.619
30 CZ 97 -3.225
30 CZ 98 0.193
30 CZ 99 -0.783
30 CZ 100 -5.178
30 CZ 101 -11.525
30 CZ 102 -15.432
30 CZ 103 -15.432
30 CZ 104 -12.990
30 CZ 105 -10.061
30 CZ 106 -9.084
30 CZ 107 -11.525
30 CZ 108 -14.943
30 CZ 109 -17.873
30 CZ 110 -19.338
30 CZ 111 -18.850
30 CZ 112 -16.408
30 CZ 113 -13.967
30 CZ 114 -10.061
30 CZ 115 -6.154
30 CZ 116 -2.736
30 CZ 117 -1.760
30 CZ 118 -2.248
30 CZ 119 -4.690
30 CZ 120 -7.131
30 CZ 121 -8.596
30 CZ 122 -9.084
30 CZ 123 -8.596
30 CZ 124 -7.131
30 CZ 125 -4.690
30 CZ 126 -1.760
30 CZ 127 1.658
30 CZ 128 4.100
30 CZ 129 4.100
30 CZ 130 2.146
30 CZ 131 -0.783
30 CZ 132 -3.225
30 CZ 133 -3.225
30 CZ 134 -1.272
30 CZ 135 1.658
30 CZ 136 4.100
30 CZ 137 5.076
30 CZ 138 5.076
30 CZ 139 5.564
30 CZ 140 6.053
30 CZ 141 5.076
30 CZ 142 3.123
30 CZ 143 0.682
30 CZ 144 -1.760
30 CZ 145 -1.760
30 CZ 146 -0.783
30 CZ 147 0.682
30 CZ 148 2.146
30 CZ 149 3.123
30 CZ 150 4.100
30 CZ 151 6.053
30 CZ 152 8.006
30 CZ 153 8.006
30 CZ 154 6.053
30 CZ 155 3.123
30 CZ 156 0.682
30 CZ 157 -0.783
30 CZ 158 -0.295
30 CZ 159 1.170
30 CZ 160 2.635
30 CZ 161 5.076
30 CZ 162 7.517
30 CZ 163 10.447
30 CZ 164 13.377
30 CZ 165 16.307
30 CZ 166 17.283
30 CZ 167 15.818
30 CZ 168 11.424
30 CZ 169 6.053
30 CZ 170 2.146
30 CZ 171 0.682
30 CZ 172 2.146
30 CZ 173 4.100
30 CZ 174 4.588
30 CZ 175 4.100
30 CZ 176 3.611
30 CZ 177 4.100
30 CZ 178 5.564
30 CZ 179 5.564
30 CZ 180 4.100
30 CZ 181 1.658
30 CZ 182 0.193
30 CZ 183 0.682
30 CZ 184 2.635
30 CZ 185 3.123
30 CZ 186 1.170
30 CZ 187 -2.736
30 CZ 188 -4.690
30 CZ 189 -3.713
30 CZ 190 -2.736
30 CZ 191 -3.713
30 CZ 192 -7.619
30 CZ 193 -11.037
30 CZ 194 -9.572
30 CZ 195 -2.248
30 CZ 196 7.517
30 CZ 197 11.912
30 CZ 198 8.494
30 CZ 199 -0.295
30 CZ 200 -6.154
30 CZ 201 -5.666
30 CZ 202 1.170
30 CZ 203 7.517
30 CZ 204 8.982
30 CZ 205 5.564
30 CZ 206 1.658
30 CZ 207 0.682
30 CZ 208 3.611
30 CZ 209 6.541
30 CZ 210 6.541
30 CZ 211 4.588
30 CZ 212 3.123
30 CZ 213 4.100
30 CZ 214 6.541
30 CZ 215 8.494
30 CZ 216 6.541
30 CZ 217 1.658
30 CZ 218 -4.201
30 CZ 219 -7.619
30 CZ 220 -8.108
30 CZ 221 -6.154
30 CZ 222 -3.225
30 CZ 223 -0.783
30 CZ 224 1.170
30 CZ 225 2.635
30 CZ 226 4.100
30 CZ 227 5.564
30 CZ 228 6.053
30 CZ 229 6.541
30 CZ 230 6.053
30 CZ 231 5.564
30 CZ 232 5.076
30 CZ 233 4.100
30 CZ 234 2.635
30 CZ 235 1.658
30 CZ 236 1.658
30 CZ 237 3.611
30 CZ 238 6.541
30 CZ 239 9.471
30 CZ 240 10.935
30 CZ 241 10.447
30 CZ 242 8.006
30 CZ 243 5.076
30 CZ 244 2.635
30 CZ 245 2.635
30 CZ 246 3.611
30 CZ 247 5.076
30 CZ 248 6.053
30 CZ 249 6.541
30 CZ 250 7.029
30 CZ 251 8.006
30 CZ 252 8.982
30 CZ 253 8.982
30 CZ 254 7.517
30 CZ 255 6.053
# C3 chan 16
30 C3 0 -1.068
30 C3 1 -0.580
30 C3 2 -2.045
30 C3 3 -5.463
30 C3 4 -8.881
30 C3 5 -11.322
30 C3 6 -12.787
30 C3 7 -12.787
30 C3 8 -13.275
30 C3 9 -13.275
30 C3 10 -12.787
30 C3 11 -10.834
30 C3 12 -8.392
30 C3 13 -5.463
30 C3 14 -3.021
30 C3 15 -2.045
30 C3 16 -2.045
30 C3 17 -2.045
30 C3 18 -2.045
30 C3 19 -2.045
30 C3 20 -2.045
30 C3 21 -3.510
30 C3 22 -5.463
30 C3 23 -7.416
30 C3 24 -8.881
30 C3 25 -9.369
30 C3 26 -7.416
30 C3 27 -5.463
30 C3 28 -3.998
30 C3 29 -3.510
30 C3 30 -3.510
30 C3 31 -3.021
30 C3 32 -2.045
30 C3 33 -1.068
30 C3 34 -0.580
30 C3 35 -1.556
30 C3 36 -3.998
30 C3 37 -6.439
30 C3 38 -7.904
30 C3 39 -6.927
30 C3 40 -5.951
30 C3 41 -4.974
30 C3 42 -5.951
30 C3 43 -6.927
30 C3 44 -7.416
30 C3 45 -7.904
30 C3 46 -7.416
30 C3 47 -7.416
30 C3 48 -7.416
30 C3 49 -6.927
30 C3 50 -6.439
30 C3 51 -4.974
30 C3 52 -3.998
30 C3 53 -3.998
30 C3 54 -4.974
30 C3 55 -5.951
30 C3 56 -6.439
30 C3 57 -5.951
30 C3 58 -3.998
30 C3 59 -2.045
30 C3 60 -0.580
30 C3 61 -0.092
30 C3 62 -0.092
30 C3 63 -1.068
30 C3 64 -2.045
30 C3 65 -2.045
30 C3 66 -1.556
30 C3 67 -0.092
30 C3 68 0.885
30 C3 69 1.373
30 C3 70 0.885
30 C3 71 0.397
30 C3 72 -0.092
30 C3 73 -0.580
30 C3 74 -0.580
30 C3 75 -0.580
30 C3 76 -1.068
30 C3 77 -1.556
30 C3 78 -2.045
30 C3 79 -2.045
30 C3 80 -1.556
30 C3 81 -0.580
30 C3 82 -0.092
30 C3 83 0.885
30 C3 84 1.373
30 C3 85 1.862
30 C3 86 1.373
30 C3 87 1.373
30 C3 88 0.885
30 C3 89 1.373
30 C3 90 1.862
30 C3 91 1.862
30 C3 92 1.373
30 C3 93 0.885
30 C3 94 0.885
30 C3 95 1.862
30 C3 96 3.815
30 C3 97 5.280
30 C3 98 6.256
30 C3 99 5.280
30 C3 100 4.303
30 C3 101 3.326
30 C3 102 3.326
30 C3 103 3.815
30 C3 104 4.791
30 C3 105 5.280
30 C3 106 5.280
30 C3 107 3.815
30 C3 108 2.838
30 C3 109 0.885
30 C3 110 -0.092
30 C3 111 -0.580
30 C3 112 -1.068
30 C3 113 -2.045
30 C3 114 -2.533
30 C3 115 -2.533
30 C3 116 -2.045
30 C3 117 -0.580
30 C3 118 0.397
30 C3 119 0.397
30 C3 120 -0.580
30 C3 121 -2.533
30 C3 122 -3.998
30 C3 123 -4.486
30 C3 124 -3.998
30 C3 125 -3.021
30 C3 126 -2.045
30 C3 127 -1.068
30 C3 128 -1.068
30 C3 129 -1.068
30 C3 130 -2.045
30 C3 131 -3.021
30 C3 132 -3.510
30 C3 133 -2.533
30 C3 134 -0.580
30 C3 135 0.885
30 C3 136 1.862
30 C3 137 1.862
30 C3 138 0.885
30 C3 139 -0.580
30 C3 140 -2.045
30 C3 141 -3.510
30 C3 142 -4.486
30 C3 143 -4.974
30 C3 144 -4.486
30 C3 145 -3.510
30 C3 146 -1.556
30 C3 147 -0.092
30 C3 148 1.373
30 C3 149 1.862
30 C3 150 2.350
30 C3 151 2.350
30 C3 152 0.885
30 C3 153 -0.092
30 C3 154 -1.556
30 C3 155 -2.045
30 C3 156 -2.045
30 C3 157 -1.556
30 C3 158 -2.045
30 C3 159 -3.021
30 C3 160 -4.486
30 C3 161 -5.951
30 C3 162 -5.951
30 C3 163 -4.486
30 C3 164 -2.533
30 C3 165 -0.580
30 C3 166 0.397
30 C3 167 0.885
30 C3 168 0.885
30 C3 169 0.885
30 C3 170 -0.092
30 C3 171 -0.580
30 C3 172 -1.556
30 C3 173 -2.045
30 C3 174 -2.045
30 C3 175 -1.556
30 C3 176 -1.556
30 C3 177 -1.556
30 C3 178 -3.021
30 C3 179 -3.998
30 C3 180 -4.974
30 C3 181 -4.974
30 C3 182 -3.998
30 C3 183 -3.021
30 C3 184 -2.533
30 C3 185 -1.556
30 C3 186 -0.092
30 C3 187 1.373
30 C3 188 2.838
30 C3 189 3.815
30 C3 190 3.815
30 C3 191 3.815
30 C3 192 3.815
30 C3 193 3.815
30 C3 194 4.791
30 C3 195 5.280
30 C3 196 4.791
30 C3 197 3.815
30 C3 198 2.838
30 C3 199 1.862
30 C3 200 1.862
30 C3 201 2.350
30 C3 202 3.326
30 C3 203 3.326
30 C3 204 3.326
30 C3 205 2.838
30 C3 206 2.350
30 C3 207 1.862
30 C3 208 1.373
30 C3 209 0.885
30 C3 210 0.885
30 C3 211 1.862
30 C3 212 2.838
30 C3 213 3.815
30 C3 214 4.303
30 C3 215 3.815
30 C3 216 3.326
30 C3 217 1.373
30 C3 218 -0.580
30 C3 219 -2.045
30 C3 220 -3.510
30 C3 221 -4.486
30 C3 222 -4.974
30 C3 223 -4.974
30 C3 224 -3.510
30 C3 225 -1.556
30 C3 226 -0.092
30 C3 227 1.373
30 C3 228 2.350
30 C3 229 2.838
30 C3 230 2.838
30 C3 231 2.838
30 C3 232 2.350
30 C3 233 1.862
30 C3 234 1.862
30 C3 235 2.350
30 C3 236 3.326
30 C3 237 5.280
30 C3 238 6.744
30 C3 239 7.233
30 C3 240 7.233
30 C3 241 6.256
30 C3 242 5.768
30 C3 243 5.280
30 C3 244 5.280
30 C3 245 3.815
30 C3 246 2.350
30 C3 247 0.397
30 C3 248 -1.068
30 C3 249 -1.068
30 C3 250 -0.580
30 C3 251 0.397
30 C3 252 0.885
30 C3 253 1.373
30 C3 254 1.373
30 C3 255 1.373
# C4 chan 17
30 C4 0 -3.499
30 C4 1 -3.988
30 C4 2 -3.988
30 C4 3 -3.499
30 C4 4 -3.499
30 C4 5 -3.011
30 C4 6 -3.011
30 C4 7 -3.499
30 C4 8 -4.476
30 C4 9 -5.452
30 C4 10 -5.941
30 C4 11 -5.452
30 C4 12 -4.964
30 C4 13 -4.476
30 C4 14 -4.964
30 C4 15 -5.941
30 C4 16 -6.917
30 C4 17 -6.917
30 C4 18 -6.429
30 C4 19 -5.452
30 C4 20 -3.988
30 C4 21 -2.523
30 C4 22 -1.546
30 C4 23 -2.523
30 C4 24 -4.476
30 C4 25 -6.917
30 C4 26 -9.359
30 C4 27 -10.824
30 C4 28 -10.335
30 C4 29 -9.359
30 C4 30 -7.406
30 C4 31 -5.941
30 C4 32 -5.452
30 C4 33 -5.452
30 C4 34 -5.452
30 C4 35 -6.429
30 C4 36 -6.917
30 C4 37 -7.406
30 C4 38 -7.406
30 C4 39 -7.406
30 C4 40 -6.917
30 C4 41 -5.941
30 C4 42 -4.476
30 C4 43 -2.523
30 C4 44 -1.546
30 C4 45 -2.035
30 C4 46 -3.499
30 C4 47 -4.476
30 C4 48 -5.452
30 C4 49 -5.452
30 C4 50 -4.964
30 C4 51 -4.476
30 C4 52 -3.988
30 C4 53 -3.988
30 C4 54 -3.988
30 C4 55 -4.964
30 C4 56 -5.941
30 C4 57 -6.917
30 C4 58 -7.894
30 C4 59 -8.382
30 C4 60 -7.894
30 C4 61 -6.429
30 C4 62 -5.452
30 C4 63 -3.988
30 C4 64 -3.988
30 C4 65 -3.988
30 C4 66 -4.476
30 C4 67 -4.964
30 C4 68 -5.452
30 C4 69 -6.429
30 C4 70 -6.429
30 C4 71 -5.941
30 C4 72 -4.476
30 C4 73 -3.011
30 C4 74 -2.035
30 C4 75 -2.035
30 C4 76 -3.011
30 C4 77 -3.988
30 C4 78 -4.964
30 C4 79 -4.964
30 C4 80 -4.964
30 C4 81 -5.452
30 C4 82 -6.429
30 C4 83 -7.406
30 C4 84 -7.894
30 C4 85 -7.894
30 C4 86 -6.917
30 C4 87 -5.452
30 C4 88 -4.476
30 C4 89 -3.988
30 C4 90 -4.476
30 C4 91 -4.964
30 C4 92 -4.964
30 C4 93 -4.964
30 C4 94 -3.988
30 C4 95 -3.011
30 C4 96 -2.035
30 C4 97 -2.035
30 C4 98 -2.035
30 C4 99 -2.523
30 C4 100 -3.011
30 C4 101 -2.523
30 C4 102 -2.035
30 C4 103 -1.546
30 C4 104 -1.546
30 C4 105 -1.058
30 C4 106 -0.570
30 C4 107 -0.081
30 C4 108 -0.081
30 C4 109 -0.081
30 C4 110 -1.058
30 C4 111 -1.546
30 C4 112 -1.546
30 C4 113 -0.570
30 C4 114 0.407
30 C4 115 0.895
30 C4 116 0.895
30 C4 117 -0.081
30 C4 118 -0.570
30 C4 119 -1.546
30 C4 120 -2.035
30 C4 121 -3.011
30 C4 122 -3.988
30 C4 123 -4.964
30 C4 124 -4.964
30 C4 125 -4.476
30 C4 126 -3.011
30 C4 127 -2.523
30 C4 128 -2.035
30 C4 129 -3.011
30 C4 130 -3.988
30 C4 131 -4.964
30 C4 132 -5.941
30 C4 133 -6.429
30 C4 134 -6.917
30 C4 135 -7.406
30 C4 136 -7.406
30 C4 137 -7.406
30 C4 138 -7.894
30 C4 139 -7.894
30 C4 140 -7.406
30 C4 141 -6.917
30 C4 142 -5.941
30 C4 143 -5.452
30 C4 144 -5.452
30 C4 145 -5.452
30 C4 146 -6.429
30 C4 147 -7.406
30 C4 148 -7.894
30 C4 149 -7.894
30 C4 150 -7.894
30 C4 151 -6.917
30 C4 152 -6.429
30 C4 153 -4.964
30 C4 154 -4.476
30 C4 155 -4.476
30 C4 156 -4.964
30 C4 157 -6.429
30 C4 158 -7.406
30 C4 159 -7.406
30 C4 160 -6.429
30 C4 161 -4.476
30 C4 162 -2.523
30 C4 163 -1.546
30 C4 164 -0.570
30 C4 165 -0.081
30 C4 166 -0.081
30 C4 167 0.407
30 C4 168 -0.570
30 C4 169 -2.035
30 C4 170 -3.988
30 C4 171 -5.452
30 C4 172 -5.452
30 C4 173 -4.964
30 C4 174 -3.988
30 C4 175 -3.011
30 C4 176 -3.011
30 C4 177 -3.499
30 C4 178 -3.499
30 C4 179 -3.499
30 C4 180 -3.011
30 C4 181 -3.499
30 C4 182 -3.988
30 C4 183 -4.964
30 C4 184 -5.941
30 C4 185 -6.429
30 C4 186 -6.429
30 C4 187 -6.429
30 C4 188 -6.429
30 C4 189 -5.941
30 C4 190 -5.941
30 C4 191 -6.917
30 C4 192 -7.894
30 C4 193 -9.359
30 C4 194 -8.870
30 C4 195 -6.917
30 C4 196 -3.011
30 C4 197 0.407
30 C4 198 2.360
30 C4 199 2.360
30 C4 200 0.407
30 C4 201 -1.058
30 C4 202 -1.546
30 C4 203 -1.546
30 C4 204 -1.546
30 C4 205 -1.546
30 C4 206 -2.035
30 C4 207 -2.035
30 C4 208 -1.546
30 C4 209 -1.058
30 C4 210 -0.570
30 C4 211 -1.058
30 C4 212 -2.035
30 C4 213 -2.523
30 C4 214 -2.523
30 C4 215 -2.523
30 C4 216 -3.011
30 C4 217 -3.499
30 C4 218 -3.011
30 C4 219 -1.058
30 C4 220 1.383
30 C4 221 3.337
30 C4 222 4.313
30 C4 223 3.825
30 C4 224 1.872
30 C4 225 0.407
30 C4 226 -0.081
30 C4 227 0.407
30 C4 228 0.407
30 C4 229 -0.570
30 C4 230 -2.035
30 C4 231 -3.499
30 C4 232 -3.988
30 C4 233 -3.499
30 C4 234 -2.523
30 C4 235 -1.058
30 C4 236 -0.570
30 C4 237 -0.570
30 C4 238 -0.570
30 C4 239 -0.570
30 C4 240 -0.570
30 C4 241 -0.081
30 C4 242 -0.081
30 C4 243 -0.081
30 C4 244 0.407
30 C4 245 0.895
30 C4 246 1.383
30 C4 247 0.895
30 C4 248 -0.081
30 C4 249 -2.035
30 C4 250 -3.988
30 C4 251 -4.476
30 C4 252 -4.476
30 C4 253 -3.499
30 C4 254 -2.523
30 C4 255 -2.523
# CP5 chan 18
30 CP5 0 -6.927
30 CP5 1 -6.927
30 CP5 2 -8.392
30 CP5 3 -11.810
30 CP5 4 -15.717
30 CP5 5 -18.646
30 CP5 6 -19.623
30 CP5 7 -19.623
30 CP5 8 -19.135
30 CP5 9 -18.646
30 CP5 10 -17.670
30 CP5 11 -16.205
30 CP5 12 -13.275
30 CP5 13 -11.322
30 CP5 14 -9.369
30 CP5 15 -8.392
30 CP5 16 -8.881
30 CP5 17 -9.369
30 CP5 18 -10.345
30 CP5 19 -10.834
30 CP5 20 -11.810
30 CP5 21 -13.763
30 CP5 22 -15.717
30 CP5 23 -17.670
30 CP5 24 -19.135
30 CP5 25 -19.135
30 CP5 26 -17.181
30 CP5 27 -14.740
30 CP5 28 -13.275
30 CP5 29 -11.810
30 CP5 30 -11.322
30 CP5 31 -9.857
30 CP5 32 -8.392
30 CP5 33 -7.416
30 CP5 34 -7.416
30 CP5 35 -9.857
30 CP5 36 -13.275
30 CP5 37 -16.693
30 CP5 38 -18.158
30 CP5 39 -17.670
30 CP5 40 -16.205
30 CP5 41 -14.740
30 CP5 42 -14.252
30 CP5 43 -14.252
30 CP5 44 -15.228
30 CP5 45 -15.717
30 CP5 46 -16.693
30 CP5 47 -17.181
30 CP5 48 -17.670
30 CP5 49 -17.181
30 CP5 50 -15.717
30 CP5 51 -13.763
30 CP5 52 -11.810
30 CP5 53 -10.345
30 CP5 54 -10.834
30 CP5 55 -11.322
30 CP5 56 -12.299
30 CP5 57 -12.787
30 CP5 58 -11.810
30 CP5 59 -9.857
30 CP5 60 -7.904
30 CP5 61 -5.951
30 CP5 62 -5.463
30 CP5 63 -5.951
30 CP5 64 -6.927
30 CP5 65 -6.927
30 CP5 66 -5.951
30 CP5 67 -3.998
30 CP5 68 -2.045
30 CP5 69 -1.068
30 CP5 70 -2.045
30 CP5 71 -3.021
30 CP5 72 -3.998
30 CP5 73 -3.510
30 CP5 74 -2.533
30 CP5 75 -2.533
30 CP5 76 -3.021
30 CP5 77 -3.998
30 CP5 78 -4.974
30 CP5 79 -4.486
30 CP5 80 -3.998
30 CP5 81 -3.998
30 CP5 82 -4.486
30 CP5 83 -5.463
30 CP5 84 -6.439
30 CP5 85 -7.416
30 CP5 86 -7.416
30 CP5 87 -7.416
30 CP5 88 -7.416
30 CP5 89 -7.416
30 CP5 90 -7.416
30 CP5 91 -6.927
30 CP5 92 -6.439
30 CP5 93 -5.463
30 CP5 94 -3.998
30 CP5 95 -2.533
30 CP5 96 -1.556
30 CP5 97 -0.580
30 CP5 98 -0.580
30 CP5 99 -1.068
30 CP5 100 -2.045
30 CP5 101 -3.021
30 CP5 102 -3.998
30 CP5 103 -4.974
30 CP5 104 -4.486
30 CP5 105 -3.998
30 CP5 106 -3.510
30 CP5 107 -3.998
30 CP5 108 -5.463
30 CP5 109 -7.904
30 CP5 110 -10.345
30 CP5 111 -10.834
30 CP5 112 -11.322
30 CP5 113 -11.810
30 CP5 114 -11.810
30 CP5 115 -11.810
30 CP5 116 -10.345
30 CP5 117 -8.392
30 CP5 118 -5.951
30 CP5 119 -5.951
30 CP5 120 -7.416
30 CP5 121 -10.345
30 CP5 122 -12.787
30 CP5 123 -12.787
30 CP5 124 -11.322
30 CP5 125 -9.369
30 CP5 126 -7.416
30 CP5 127 -5.951
30 CP5 128 -5.463
30 CP5 129 -5.951
30 CP5 130 -7.416
30 CP5 131 -8.881
30 CP5 132 -9.857
30 CP5 133 -9.369
30 CP5 134 -8.392
30 CP5 135 -6.439
30 CP5 136 -5.463
30 CP5 137 -5.463
30 CP5 138 -6.439
30 CP5 139 -8.392
30 CP5 140 -9.369
30 CP5 141 -10.834
30 CP5 142 -11.322
30 CP5 143 -11.810
30 CP5 144 -11.322
30 CP5 145 -10.345
30 CP5 146 -8.881
30 CP5 147 -7.416
30 CP5 148 -5.951
30 CP5 149 -4.974
30 CP5 150 -3.998
30 CP5 151 -3.510
30 CP5 152 -4.486
30 CP5 153 -5.951
30 CP5 154 -7.416
30 CP5 155 -8.392
30 CP5 156 -7.904
30 CP5 157 -6.927
30 CP5 158 -6.439
30 CP5 159 -7.416
30 CP5 160 -9.369
30 CP5 161 -11.322
30 CP5 162 -11.322
30 CP5 163 -10.345
30 CP5 164 -7.904
30 CP5 165 -4.974
30 CP5 166 -3.021
30 CP5 167 -2.533
30 CP5 168 -2.533
30 CP5 169 -3.021
30 CP5 170 -3.998
30 CP5 171 -5.951
30 CP5 172 -6.927
30 CP5 173 -7.904
30 CP5 174 -7.416
30 CP5 175 -6.439
30 CP5 176 -5.463
30 CP5 177 -5.463
30 CP5 178 -5.951
30 CP5 179 -7.416
30 CP5 180 -8.881
30 CP5 181 -9.369
30 CP5 182 -8.881
30 CP5 183 -8.392
30 CP5 184 -7.416
30 CP5 185 -6.927
30 CP5 186 -5.951
30 CP5 187 -4.974
30 CP5 188 -2.533
30 CP5 189 -1.556
30 CP5 190 -1.068
30 CP5 191 -2.045
30 CP5 192 -3.021
30 CP5 193 -3.998
30 CP5 194 -3.510
30 CP5 195 -2.533
30 CP5 196 -1.556
30 CP5 197 -1.556
30 CP5 198 -2.045
30 CP5 199 -2.533
30 CP5 200 -2.533
30 CP5 201 -2.045
30 CP5 202 -2.533
30 CP5 203 -3.510
30 CP5 204 -4.486
30 CP5 205 -5.463
30 CP5 206 -5.463
30 CP5 207 -5.463
30 CP5 208 -5.463
30 CP5 209 -5.951
30 CP5 210 -5.951
30 CP5 211 -4.486
30 CP5 212 -2.533
30 CP5 213 -0.580
30 CP5 214 0.397
30 CP5 215 -0.580
30 CP5 216 -3.021
30 CP5 217 -6.439
30 CP5 218 -9.369
30 CP5 219 -11.810
30 CP5 220 -13.763
30 CP5 221 -14.252
30 CP5 222 -13.763
30 CP5 223 -12.787
30 CP5 224 -10.834
30 CP5 225 -8.881
30 CP5 226 -6.927
30 CP5 227 -5.951
30 CP5 228 -4.974
30 CP5 229 -4.486
30 CP5 230 -3.510
30 CP5 231 -3.021
30 CP5 232 -2.533
30 CP5 233 -3.021
30 CP5 234 -3.510
30 CP5 235 -3.021
30 CP5 236 -1.556
30 CP5 237 0.885
30 CP5 238 3.326
30 CP5 239 4.303
30 CP5 240 3.815
30 CP5 241 2.350
30 CP5 242 0.885
30 CP5 243 0.397
30 CP5 244 -0.092
30 CP5 245 -1.068
30 CP5 246 -2.533
30 CP5 247 -4.486
30 CP5 248 -6.439
30 CP5 249 -6.927
30 CP5 250 -6.927
30 CP5 251 -5.951
30 CP5 252 -4.974
30 CP5 253 -3.510
30 CP5 254 -3.021
30 CP5 255 -2.533
# CP6 chan 19
30 CP6 0 -8.799
30 CP6 1 -8.311
30 CP6 2 -8.799
30 CP6 3 -9.776
30 CP6 4 -11.241
30 CP6 5 -12.217
30 CP6 6 -13.194
30 CP6 7 -14.170
30 CP6 8 -15.147
30 CP6 9 -16.612
30 CP6 10 -17.100
30 CP6 11 -16.612
30 CP6 12 -16.123
30 CP6 13 -15.635
30 CP6 14 -15.635
30 CP6 15 -15.635
30 CP6 16 -15.635
30 CP6 17 -15.147
30 CP6 18 -14.170
30 CP6 19 -13.194
30 CP6 20 -12.705
30 CP6 21 -13.194
30 CP6 22 -14.170
30 CP6 23 -15.635
30 CP6 24 -17.100
30 CP6 25 -18.077
30 CP6 26 -18.565
30 CP6 27 -18.565
30 CP6 28 -18.565
30 CP6 29 -18.077
30 CP6 30 -17.100
30 CP6 31 -15.147
30 CP6 32 -12.705
30 CP6 33 -11.241
30 CP6 34 -10.752
30 CP6 35 -12.217
30 CP6 36 -14.170
30 CP6 37 -16.123
30 CP6 38 -17.100
30 CP6 39 -16.612
30 CP6 40 -15.635
30 CP6 41 -14.170
30 CP6 42 -13.682
30 CP6 43 -13.194
30 CP6 44 -13.194
30 CP6 45 -13.682
30 CP6 46 -14.170
30 CP6 47 -15.147
30 CP6 48 -15.635
30 CP6 49 -14.659
30 CP6 50 -12.217
30 CP6 51 -8.311
30 CP6 52 -4.893
30 CP6 53 -2.452
30 CP6 54 -3.916
30 CP6 55 -7.823
30 CP6 56 -12.217
30 CP6 57 -15.635
30 CP6 58 -16.612
30 CP6 59 -15.635
30 CP6 60 -13.682
30 CP6 61 -11.241
30 CP6 62 -9.776
30 CP6 63 -8.799
30 CP6 64 -8.311
30 CP6 65 -8.311
30 CP6 66 -7.823
30 CP6 67 -8.799
30 CP6 68 -9.776
30 CP6 69 -10.752
30 CP6 70 -11.241
30 CP6 71 -9.776
30 CP6 72 -7.334
30 CP6 73 -4.405
30 CP6 74 -2.940
30 CP6 75 -2.940
30 CP6 76 -4.893
30 CP6 77 -7.334
30 CP6 78 -8.799
30 CP6 79 -8.799
30 CP6 80 -8.311
30 CP6 81 -7.823
30 CP6 82 -8.799
30 CP6 83 -9.776
30 CP6 84 -11.241
30 CP6 85 -11.729
30 CP6 86 -11.241
30 CP6 87 -10.752
30 CP6 88 -10.264
30 CP6 89 -10.264
30 CP6 90 -10.752
30 CP6 91 -10.752
30 CP6 92 -10.752
30 CP6 93 -10.752
30 CP6 94 -10.752
30 CP6 95 -10.264
30 CP6 96 -9.776
30 CP6 97 -8.799
30 CP6 98 -7.823
30 CP6 99 -7.334
30 CP6 100 -7.823
30 CP6 101 -8.799
30 CP6 102 -9.288
30 CP6 103 -8.799
30 CP6 104 -7.334
30 CP6 105 -5.381
30 CP6 106 -4.405
30 CP6 107 -3.916
30 CP6 108 -4.405
30 CP6 109 -5.381
30 CP6 110 -5.381
30 CP6 111 -4.893
30 CP6 112 -3.428
30 CP6 113 -1.963
30 CP6 114 -1.475
30 CP6 115 -1.963
30 CP6 116 -2.452
30 CP6 117 -2.940
30 CP6 118 -2.940
30 CP6 119 -3.428
30 CP6 120 -4.405
30 CP6 121 -6.358
30 CP6 122 -8.311
30 CP6 123 -9.776
30 CP6 124 -9.776
30 CP6 125 -8.799
30 CP6 126 -7.334
30 CP6 127 -5.870
30 CP6 128 -4.893
30 CP6 129 -4.893
30 CP6 130 -5.381
30 CP6 131 -7.334
30 CP6 132 -8.799
30 CP6 133 -10.264
30 CP6 134 -10.752
30 CP6 135 -11.241
30 CP6 136 -11.241
30 CP6 137 -11.729
30 CP6 138 -12.705
30 CP6 139 -12.705
30 CP6 140 -12.705
30 CP6 141 -12.705
30 CP6 142 -12.705
30 CP6 143 -12.705
30 CP6 144 -12.705
30 CP6 145 -12.705
30 CP6 146 -12.705
30 CP6 147 -12.217
30 CP6 148 -12.705
30 CP6 149 -13.194
30 CP6 150 -13.682
30 CP6 151 -13.682
30 CP6 152 -12.705
30 CP6 153 -11.729
30 CP6 154 -11.241
30 CP6 155 -11.241
30 CP6 156 -12.217
30 CP6 157 -13.194
30 CP6 158 -14.170
30 CP6 159 -14.170
30 CP6 160 -12.705
30 CP6 161 -11.241
30 CP6 162 -9.776
30 CP6 163 -8.799
30 CP6 164 -8.311
30 CP6 165 -7.334
30 CP6 166 -5.870
30 CP6 167 -4.893
30 CP6 168 -4.405
30 CP6 169 -5.381
30 CP6 170 -6.846
30 CP6 171 -8.311
30 CP6 172 -8.799
30 CP6 173 -8.799
30 CP6 174 -7.823
30 CP6 175 -6.846
30 CP6 176 -6.358
30 CP6 177 -5.870
30 CP6 178 -5.870
30 CP6 179 -5.870
30 CP6 180 -5.870
30 CP6 181 -6.846
30 CP6 182 -7.823
30 CP6 183 -8.799
30 CP6 184 -9.288
30 CP6 185 -9.776
30 CP6 186 -10.264
30 CP6 187 -9.776
30 CP6 188 -8.799
30 CP6 189 -7.334
30 CP6 190 -6.846
30 CP6 191 -7.334
30 CP6 192 -9.776
30 CP6 193 -13.194
30 CP6 194 -14.659
30 CP6 195 -13.194
30 CP6 196 -9.776
30 CP6 197 -4.893
30 CP6 198 -1.475
30 CP6 199 -0.010
30 CP6 200 -0.498
30 CP6 201 -1.475
30 CP6 202 -1.963
30 CP6 203 -2.940
30 CP6 204 -4.405
30 CP6 205 -5.870
30 CP6 206 -7.823
30 CP6 207 -9.288
30 CP6 208 -9.288
30 CP6 209 -8.311
30 CP6 210 -7.823
30 CP6 211 -6.846
30 CP6 212 -6.358
30 CP6 213 -5.870
30 CP6 214 -6.358
30 CP6 215 -6.846
30 CP6 216 -8.799
30 CP6 217 -10.264
30 CP6 218 -11.241
30 CP6 219 -10.264
30 CP6 220 -8.311
30 CP6 221 -6.358
30 CP6 222 -5.870
30 CP6 223 -6.358
30 CP6 224 -6.846
30 CP6 225 -7.334
30 CP6 226 -6.358
30 CP6 227 -4.893
30 CP6 228 -4.405
30 CP6 229 -5.381
30 CP6 230 -6.846
30 CP6 231 -8.799
30 CP6 232 -8.799
30 CP6 233 -7.823
30 CP6 234 -5.870
30 CP6 235 -4.405
30 CP6 236 -3.428
30 CP6 237 -2.452
30 CP6 238 -2.452
30 CP6 239 -1.475
30 CP6 240 -1.475
30 CP6 241 -1.475
30 CP6 242 -2.452
30 CP6 243 -3.428
30 CP6 244 -3.428
30 CP6 245 -2.452
30 CP6 246 -1.475
30 CP6 247 -0.987
30 CP6 248 -1.963
30 CP6 249 -3.916
30 CP6 250 -5.870
30 CP6 251 -6.846
30 CP6 252 -6.846
30 CP6 253 -6.846
30 CP6 254 -6.846
30 CP6 255 -6.846
# CP1 chan 20
30 CP1 0 -4.262
30 CP1 1 -4.262
30 CP1 2 -5.239
30 CP1 3 -7.192
30 CP1 4 -8.657
30 CP1 5 -10.122
30 CP1 6 -10.122
30 CP1 7 -10.122
30 CP1 8 -9.145
30 CP1 9 -8.657
30 CP1 10 -8.169
30 CP1 11 -7.680
30 CP1 12 -7.192
30 CP1 13 -6.704
30 CP1 14 -5.727
30 CP1 15 -5.239
30 CP1 16 -5.239
30 CP1 17 -5.239
30 CP1 18 -5.727
30 CP1 19 -5.727
30 CP1 20 -6.215
30 CP1 21 -7.192
30 CP1 22 -8.169
30 CP1 23 -9.145
30 CP1 24 -10.122
30 CP1 25 -10.122
30 CP1 26 -9.145
30 CP1 27 -8.169
30 CP1 28 -7.192
30 CP1 29 -7.192
30 CP1 30 -6.704
30 CP1 31 -5.727
30 CP1 32 -4.751
30 CP1 33 -3.286
30 CP1 34 -2.309
30 CP1 35 -2.309
30 CP1 36 -3.286
30 CP1 37 -4.751
30 CP1 38 -5.239
30 CP1 39 -4.751
30 CP1 40 -4.262
30 CP1 41 -4.262
30 CP1 42 -4.751
30 CP1 43 -6.215
30 CP1 44 -7.680
30 CP1 45 -8.657
30 CP1 46 -8.657
30 CP1 47 -8.657
30 CP1 48 -8.169
30 CP1 49 -7.192
30 CP1 50 -5.727
30 CP1 51 -3.774
30 CP1 52 -2.309
30 CP1 53 -1.821
30 CP1 54 -2.797
30 CP1 55 -4.262
30 CP1 56 -5.727
30 CP1 57 -6.704
30 CP1 58 -7.192
30 CP1 59 -5.727
30 CP1 60 -4.262
30 CP1 61 -2.797
30 CP1 62 -2.309
30 CP1 63 -2.309
30 CP1 64 -2.797
30 CP1 65 -2.309
30 CP1 66 -1.333
30 CP1 67 -0.356
30 CP1 68 0.132
30 CP1 69 -0.356
30 CP1 70 -0.844
30 CP1 71 -1.333
30 CP1 72 -1.333
30 CP1 73 -0.356
30 CP1 74 0.132
30 CP1 75 0.621
30 CP1 76 -0.356
30 CP1 77 -1.821
30 CP1 78 -2.309
30 CP1 79 -2.309
30 CP1 80 -1.333
30 CP1 81 -0.356
30 CP1 82 -0.356
30 CP1 83 -0.356
30 CP1 84 -1.333
30 CP1 85 -1.333
30 CP1 86 -1.333
30 CP1 87 -1.333
30 CP1 88 -1.333
30 CP1 89 -1.821
30 CP1 90 -1.821
30 CP1 91 -2.309
30 CP1 92 -2.309
30 CP1 93 -1.821
30 CP1 94 -1.333
30 CP1 95 -0.356
30 CP1 96 0.132
30 CP1 97 0.132
30 CP1 98 0.132
30 CP1 99 -0.356
30 CP1 100 -0.844
30 CP1 101 -1.821
30 CP1 102 -2.309
30 CP1 103 -1.821
30 CP1 104 -0.844
30 CP1 105 -0.356
30 CP1 106 -0.356
30 CP1 107 -0.844
30 CP1 108 -1.821
30 CP1 109 -2.309
30 CP1 110 -2.309
30 CP1 111 -2.309
30 CP1 112 -2.309
30 CP1 113 -3.286
30 CP1 114 -4.751
30 CP1 115 -5.727
30 CP1 116 -5.727
30 CP1 117 -4.751
30 CP1 118 -3.774
30 CP1 119 -2.797
30 CP1 120 -3.286
30 CP1 121 -4.262
30 CP1 122 -5.239
30 CP1 123 -5.727
30 CP1 124 -5.727
30 CP1 125 -4.751
30 CP1 126 -4.262
30 CP1 127 -4.262
30 CP1 128 -3.774
30 CP1 129 -3.774
30 CP1 130 -4.262
30 CP1 131 -4.751
30 CP1 132 -6.215
30 CP1 133 -6.704
30 CP1 134 -6.704
30 CP1 135 -6.215
30 CP1 136 -5.239
30 CP1 137 -5.239
30 CP1 138 -5.239
30 CP1 139 -5.727
30 CP1 140 -7.192
30 CP1 141 -7.680
30 CP1 142 -8.657
30 CP1 143 -8.657
30 CP1 144 -8.657
30 CP1 145 -7.680
30 CP1 146 -6.215
30 CP1 147 -4.751
30 CP1 148 -3.774
30 CP1 149 -3.286
30 CP1 150 -3.774
30 CP1 151 -4.262
30 CP1 152 -5.239
30 CP1 153 -5.727
30 CP1 154 -5.727
30 CP1 155 -5.727
30 CP1 156 -5.239
30 CP1 157 -4.751
30 CP1 158 -4.751
30 CP1 159 -6.215
30 CP1 160 -7.680
30 CP1 161 -9.145
30 CP1 162 -9.633
30 CP1 163 -9.145
30 CP1 164 -8.169
30 CP1 165 -7.192
30 CP1 166 -6.215
30 CP1 167 -5.727
30 CP1 168 -5.727
30 CP1 169 -5.239
30 CP1 170 -5.239
30 CP1 171 -5.239
30 CP1 172 -5.239
30 CP1 173 -5.239
30 CP1 174 -5.239
30 CP1 175 -4.751
30 CP1 176 -4.751
30 CP1 177 -4.262
30 CP1 178 -4.751
30 CP1 179 -5.239
30 CP1 180 -5.727
30 CP1 181 -5.727
30 CP1 182 -5.727
30 CP1 183 -5.727
30 CP1 184 -5.239
30 CP1 185 -4.751
30 CP1 186 -4.751
30 CP1 187 -3.774
30 CP1 188 -2.797
30 CP1 189 -1.821
30 CP1 190 -0.844
30 CP1 191 -0.844
30 CP1 192 -1.333
30 CP1 193 -1.821
30 CP1 194 -2.797
30 CP1 195 -3.286
30 CP1 196 -2.797
30 CP1 197 -2.309
30 CP1 198 -1.821
30 CP1 199 -0.844
30 CP1 200 -0.356
30 CP1 201 -0.356
30 CP1 202 -0.356
30 CP1 203 -1.333
30 CP1 204 -2.309
30 CP1 205 -3.286
30 CP1 206 -4.262
30 CP1 207 -4.751
30 CP1 208 -5.239
30 CP1 209 -5.727
30 CP1 210 -5.239
30 CP1 211 -4.751
30 CP1 212 -3.774
30 CP1 213 -2.797
30 CP1 214 -1.821
30 CP1 215 -2.309
30 CP1 216 -2.797
30 CP1 217 -3.774
30 CP1 218 -4.751
30 CP1 219 -5.727
30 CP1 220 -6.215
30 CP1 221 -7.192
30 CP1 222 -7.192
30 CP1 223 -7.680
30 CP1 224 -7.192
30 CP1 225 -6.704
30 CP1 226 -5.727
30 CP1 227 -4.751
30 CP1 228 -4.262
30 CP1 229 -3.286
30 CP1 230 -2.797
30 CP1 231 -2.797
30 CP1 232 -2.797
30 CP1 233 -2.797
30 CP1 234 -2.797
30 CP1 235 -3.286
30 CP1 236 -2.797
30 CP1 237 -1.821
30 CP1 238 -0.844
30 CP1 239 -0.356
30 CP1 240 0.132
30 CP1 241 -0.356
30 CP1 242 -0.844
30 CP1 243 -0.844
30 CP1 244 -1.333
30 CP1 245 -1.821
30 CP1 246 -2.309
30 CP1 247 -2.797
30 CP1 248 -3.286
30 CP1 249 -3.286
30 CP1 250 -3.286
30 CP1 251 -2.797
30 CP1 252 -2.797
30 CP1 253 -2.797
30 CP1 254 -2.797
30 CP1 255 -2.797
# CP2 chan 21
30 CP2 0 -5.442
30 CP2 1 -5.931
30 CP2 2 -5.931
30 CP2 3 -5.442
30 CP2 4 -5.442
30 CP2 5 -4.954
30 CP2 6 -4.954
30 CP2 7 -5.442
30 CP2 8 -5.931
30 CP2 9 -6.419
30 CP2 10 -6.419
30 CP2 11 -6.907
30 CP2 12 -6.907
30 CP2 13 -7.395
30 CP2 14 -8.372
30 CP2 15 -8.860
30 CP2 16 -9.349
30 CP2 17 -9.349
30 CP2 18 -8.860
30 CP2 19 -7.884
30 CP2 20 -7.395
30 CP2 21 -6.907
30 CP2 22 -6.907
30 CP2 23 -6.907
30 CP2 24 -7.395
30 CP2 25 -8.372
30 CP2 26 -8.860
30 CP2 27 -9.349
30 CP2 28 -9.837
30 CP2 29 -9.349
30 CP2 30 -9.349
30 CP2 31 -8.372
30 CP2 32 -6.907
30 CP2 33 -5.442
30 CP2 34 -4.466
30 CP2 35 -4.954
30 CP2 36 -5.442
30 CP2 37 -6.419
30 CP2 38 -6.419
30 CP2 39 -5.442
30 CP2 40 -4.466
30 CP2 41 -3.977
30 CP2 42 -3.977
30 CP2 43 -4.466
30 CP2 44 -5.442
30 CP2 45 -6.907
30 CP2 46 -6.907
30 CP2 47 -6.907
30 CP2 48 -6.419
30 CP2 49 -5.442
30 CP2 50 -3.977
30 CP2 51 -2.024
30 CP2 52 -0.559
30 CP2 53 -0.071
30 CP2 54 -0.559
30 CP2 55 -3.001
30 CP2 56 -5.931
30 CP2 57 -8.372
30 CP2 58 -9.349
30 CP2 59 -8.372
30 CP2 60 -6.907
30 CP2 61 -4.954
30 CP2 62 -3.977
30 CP2 63 -3.489
30 CP2 64 -3.489
30 CP2 65 -3.001
30 CP2 66 -3.001
30 CP2 67 -3.001
30 CP2 68 -3.489
30 CP2 69 -4.466
30 CP2 70 -4.954
30 CP2 71 -4.466
30 CP2 72 -3.489
30 CP2 73 -1.536
30 CP2 74 -0.071
30 CP2 75 -0.559
30 CP2 76 -1.536
30 CP2 77 -3.001
30 CP2 78 -3.977
30 CP2 79 -3.977
30 CP2 80 -3.001
30 CP2 81 -2.513
30 CP2 82 -3.001
30 CP2 83 -3.977
30 CP2 84 -4.954
30 CP2 85 -5.442
30 CP2 86 -4.954
30 CP2 87 -4.466
30 CP2 88 -3.977
30 CP2 89 -3.977
30 CP2 90 -3.977
30 CP2 91 -3.977
30 CP2 92 -3.489
30 CP2 93 -3.489
30 CP2 94 -3.489
30 CP2 95 -3.489
30 CP2 96 -3.977
30 CP2 97 -3.489
30 CP2 98 -3.489
30 CP2 99 -3.489
30 CP2 100 -3.977
30 CP2 101 -4.954
30 CP2 102 -4.954
30 CP2 103 -4.466
30 CP2 104 -3.001
30 CP2 105 -1.536
30 CP2 106 -0.559
30 CP2 107 -0.559
30 CP2 108 -1.536
30 CP2 109 -2.024
30 CP2 110 -2.024
30 CP2 111 -1.536
30 CP2 112 -0.559
30 CP2 113 -1.048
30 CP2 114 -2.024
30 CP2 115 -3.001
30 CP2 116 -3.489
30 CP2 117 -3.489
30 CP2 118 -2.513
30 CP2 119 -2.513
30 CP2 120 -2.513
30 CP2 121 -3.001
30 CP2 122 -3.977
30 CP2 123 -4.466
30 CP2 124 -4.466
30 CP2 125 -3.977
30 CP2 126 -3.489
30 CP2 127 -3.001
30 CP2 128 -3.001
30 CP2 129 -3.001
30 CP2 130 -3.489
30 CP2 131 -4.466
30 CP2 132 -6.419
30 CP2 133 -7.884
30 CP2 134 -9.349
30 CP2 135 -9.837
30 CP2 136 -9.837
30 CP2 137 -9.349
30 CP2 138 -9.349
30 CP2 139 -8.860
30 CP2 140 -8.372
30 CP2 141 -8.372
30 CP2 142 -8.860
30 CP2 143 -8.860
30 CP2 144 -8.860
30 CP2 145 -7.884
30 CP2 146 -7.395
30 CP2 147 -6.907
30 CP2 148 -6.907
30 CP2 149 -7.395
30 CP2 150 -8.372
30 CP2 151 -8.372
30 CP2 152 -8.860
30 CP2 153 -8.860
30 CP2 154 -8.372
30 CP2 155 -8.372
30 CP2 156 -7.884
30 CP2 157 -7.884
30 CP2 158 -7.884
30 CP2 159 -8.372
30 CP2 160 -8.372
30 CP2 161 -7.884
30 CP2 162 -7.395
30 CP2 163 -6.907
30 CP2 164 -5.931
30 CP2 165 -5.442
30 CP2 166 -4.954
30 CP2 167 -4.954
30 CP2 168 -5.442
30 CP2 169 -5.931
30 CP2 170 -6.419
30 CP2 171 -6.907
30 CP2 172 -6.419
30 CP2 173 -5.931
30 CP2 174 -5.442
30 CP2 175 -5.442
30 CP2 176 -5.442
30 CP2 177 -4.954
30 CP2 178 -4.954
30 CP2 179 -4.954
30 CP2 180 -4.954
30 CP2 181 -4.954
30 CP2 182 -5.442
30 CP2 183 -5.931
30 CP2 184 -5.931
30 CP2 185 -6.419
30 CP2 186 -6.907
30 CP2 187 -6.907
30 CP2 188 -5.931
30 CP2 189 -4.954
30 CP2 190 -3.977
30 CP2 191 -4.466
30 CP2 192 -5.442
30 CP2 193 -7.884
30 CP2 194 -8.860
30 CP2 195 -8.860
30 CP2 196 -6.419
30 CP2 197 -3.977
30 CP2 198 -1.536
30 CP2 199 -1.048
30 CP2 200 -1.536
30 CP2 201 -2.024
30 CP2 202 -3.001
30 CP2 203 -3.001
30 CP2 204 -3.489
30 CP2 205 -4.466
30 CP2 206 -5.442
30 CP2 207 -6.907
30 CP2 208 -7.395
30 CP2 209 -7.395
30 CP2 210 -7.395
30 CP2 211 -6.907
30 CP2 212 -5.931
30 CP2 213 -5.442
30 CP2 214 -4.954
30 CP2 215 -4.954
30 CP2 216 -5.442
30 CP2 217 -5.931
30 CP2 218 -6.419
30 CP2 219 -6.419
30 CP2 220 -5.442
30 CP2 221 -4.954
30 CP2 222 -4.954
30 CP2 223 -5.442
30 CP2 224 -5.442
30 CP2 225 -5.442
30 CP2 226 -4.954
30 CP2 227 -3.977
30 CP2 228 -3.489
30 CP2 229 -3.977
30 CP2 230 -4.466
30 CP2 231 -5.442
30 CP2 232 -5.442
30 CP2 233 -5.442
30 CP2 234 -5.442
30 CP2 235 -4.954
30 CP2 236 -4.466
30 CP2 237 -3.977
30 CP2 238 -3.001
30 CP2 239 -2.513
30 CP2 240 -2.024
30 CP2 241 -1.536
30 CP2 242 -2.024
30 CP2 243 -2.513
30 CP2 244 -2.513
30 CP2 245 -2.513
30 CP2 246 -2.513
30 CP2 247 -2.024
30 CP2 248 -2.024
30 CP2 249 -2.513
30 CP2 250 -3.001
30 CP2 251 -3.977
30 CP2 252 -4.466
30 CP2 253 -4.466
30 CP2 254 -4.954
30 CP2 255 -4.466
# P3 chan 22
30 P3 0 -7.406
30 P3 1 -7.894
30 P3 2 -9.359
30 P3 3 -11.800
30 P3 4 -13.753
30 P3 5 -15.218
30 P3 6 -15.218
30 P3 7 -14.730
30 P3 8 -14.242
30 P3 9 -14.730
30 P3 10 -14.730
30 P3 11 -14.242
30 P3 12 -13.265
30 P3 13 -11.312
30 P3 14 -9.847
30 P3 15 -9.359
30 P3 16 -8.870
30 P3 17 -9.359
30 P3 18 -9.847
30 P3 19 -11.312
30 P3 20 -12.288
30 P3 21 -14.730
30 P3 22 -16.683
30 P3 23 -18.148
30 P3 24 -18.636
30 P3 25 -17.660
30 P3 26 -15.706
30 P3 27 -13.265
30 P3 28 -12.288
30 P3 29 -11.800
30 P3 30 -11.312
30 P3 31 -9.847
30 P3 32 -7.406
30 P3 33 -4.964
30 P3 34 -3.988
30 P3 35 -5.452
30 P3 36 -8.870
30 P3 37 -12.288
30 P3 38 -13.265
30 P3 39 -13.265
30 P3 40 -11.800
30 P3 41 -11.312
30 P3 42 -12.288
30 P3 43 -14.730
30 P3 44 -16.683
30 P3 45 -18.148
30 P3 46 -18.636
30 P3 47 -18.636
30 P3 48 -18.148
30 P3 49 -16.195
30 P3 50 -13.753
30 P3 51 -10.824
30 P3 52 -8.870
30 P3 53 -7.894
30 P3 54 -8.382
30 P3 55 -9.847
30 P3 56 -11.312
30 P3 57 -12.288
30 P3 58 -12.288
30 P3 59 -11.312
30 P3 60 -9.359
30 P3 61 -7.894
30 P3 62 -6.917
30 P3 63 -6.429
30 P3 64 -6.429
30 P3 65 -5.941
30 P3 66 -4.476
30 P3 67 -2.035
30 P3 68 -0.570
30 P3 69 -0.570
30 P3 70 -1.546
30 P3 71 -2.523
30 P3 72 -2.523
30 P3 73 -1.058
30 P3 74 -0.081
30 P3 75 -0.081
30 P3 76 -1.546
30 P3 77 -3.499
30 P3 78 -4.476
30 P3 79 -3.988
30 P3 80 -2.523
30 P3 81 -2.035
30 P3 82 -3.011
30 P3 83 -4.964
30 P3 84 -6.429
30 P3 85 -6.917
30 P3 86 -6.429
30 P3 87 -5.452
30 P3 88 -5.452
30 P3 89 -6.429
30 P3 90 -6.917
30 P3 91 -7.406
30 P3 92 -6.429
30 P3 93 -4.964
30 P3 94 -3.499
30 P3 95 -2.523
30 P3 96 -1.546
30 P3 97 -0.570
30 P3 98 -0.570
30 P3 99 -1.058
30 P3 100 -2.035
30 P3 101 -3.988
30 P3 102 -4.964
30 P3 103 -5.452
30 P3 104 -4.476
30 P3 105 -3.011
30 P3 106 -2.523
30 P3 107 -3.499
30 P3 108 -4.964
30 P3 109 -6.429
30 P3 110 -6.429
30 P3 111 -6.429
30 P3 112 -6.429
30 P3 113 -7.406
30 P3 114 -9.359
30 P3 115 -10.824
30 P3 116 -10.335
30 P3 117 -8.382
30 P3 118 -6.429
30 P3 119 -6.429
30 P3 120 -7.894
30 P3 121 -10.335
30 P3 122 -12.288
30 P3 123 -12.288
30 P3 124 -11.312
30 P3 125 -9.359
30 P3 126 -7.894
30 P3 127 -6.917
30 P3 128 -5.941
30 P3 129 -6.429
30 P3 130 -7.406
30 P3 131 -9.359
30 P3 132 -11.312
30 P3 133 -12.288
30 P3 134 -12.288
30 P3 135 -10.824
30 P3 136 -9.359
30 P3 137 -8.870
30 P3 138 -9.359
30 P3 139 -10.824
30 P3 140 -12.288
30 P3 141 -13.753
30 P3 142 -15.218
30 P3 143 -15.706
30 P3 144 -15.218
30 P3 145 -13.265
30 P3 146 -11.800
30 P3 147 -9.847
30 P3 148 -8.382
30 P3 149 -7.894
30 P3 150 -7.894
30 P3 151 -8.382
30 P3 152 -8.870
30 P3 153 -9.847
30 P3 154 -10.335
30 P3 155 -10.335
30 P3 156 -9.359
30 P3 157 -8.870
30 P3 158 -8.382
30 P3 159 -9.847
30 P3 160 -11.800
30 P3 161 -14.242
30 P3 162 -15.218
30 P3 163 -14.730
30 P3 164 -12.288
30 P3 165 -10.335
30 P3 166 -8.382
30 P3 167 -7.406
30 P3 168 -6.917
30 P3 169 -7.406
30 P3 170 -7.894
30 P3 171 -8.382
30 P3 172 -8.382
30 P3 173 -7.894
30 P3 174 -7.406
30 P3 175 -6.917
30 P3 176 -6.917
30 P3 177 -6.917
30 P3 178 -7.406
30 P3 179 -7.894
30 P3 180 -8.382
30 P3 181 -9.359
30 P3 182 -9.359
30 P3 183 -9.847
30 P3 184 -9.847
30 P3 185 -9.359
30 P3 186 -8.382
30 P3 187 -6.429
30 P3 188 -4.964
30 P3 189 -3.499
30 P3 190 -3.499
30 P3 191 -3.988
30 P3 192 -5.452
30 P3 193 -6.917
30 P3 194 -7.406
30 P3 195 -7.406
30 P3 196 -6.429
30 P3 197 -5.452
30 P3 198 -4.476
30 P3 199 -3.988
30 P3 200 -3.499
30 P3 201 -3.499
30 P3 202 -4.476
30 P3 203 -5.941
30 P3 204 -6.917
30 P3 205 -7.894
30 P3 206 -8.870
30 P3 207 -9.847
30 P3 208 -10.824
30 P3 209 -11.312
30 P3 210 -10.824
30 P3 211 -8.870
30 P3 212 -6.917
30 P3 213 -4.964
30 P3 214 -4.476
30 P3 215 -5.452
30 P3 216 -6.917
30 P3 217 -8.870
30 P3 218 -10.335
30 P3 219 -11.800
30 P3 220 -12.777
30 P3 221 -13.265
30 P3 222 -13.753
30 P3 223 -13.753
30 P3 224 -13.265
30 P3 225 -12.288
30 P3 226 -10.824
30 P3 227 -9.359
30 P3 228 -7.894
30 P3 229 -6.429
30 P3 230 -5.452
30 P3 231 -4.964
30 P3 232 -4.476
30 P3 233 -4.964
30 P3 234 -5.452
30 P3 235 -5.452
30 P3 236 -4.964
30 P3 237 -3.499
30 P3 238 -2.035
30 P3 239 -0.570
30 P3 240 -0.081
30 P3 241 -0.570
30 P3 242 -1.058
30 P3 243 -1.546
30 P3 244 -2.035
30 P3 245 -2.035
30 P3 246 -3.011
30 P3 247 -4.476
30 P3 248 -5.941
30 P3 249 -6.917
30 P3 250 -7.406
30 P3 251 -6.429
30 P3 252 -5.941
30 P3 253 -5.452
30 P3 254 -4.964
30 P3 255 -4.476
# P4 chan 23
30 P4 0 -7.670
30 P4 1 -7.670
30 P4 2 -8.158
30 P4 3 -8.647
30 P4 4 -9.623
30 P4 5 -9.623
30 P4 6 -10.111
30 P4 7 -10.111
30 P4 8 -11.088
30 P4 9 -12.065
30 P4 10 -12.553
30 P4 11 -12.553
30 P4 12 -12.553
30 P4 13 -12.553
30 P4 14 -13.041
30 P4 15 -13.529
30 P4 16 -14.506
30 P4 17 -14.506
30 P4 18 -14.018
30 P4 19 -13.529
30 P4 20 -13.041
30 P4 21 -13.041
30 P4 22 -14.018
30 P4 23 -14.994
30 P4 24 -15.483
30 P4 25 -15.483
30 P4 26 -14.506
30 P4 27 -14.018
30 P4 28 -14.018
30 P4 29 -14.994
30 P4 30 -14.994
30 P4 31 -14.018
30 P4 32 -11.576
30 P4 33 -9.623
30 P4 34 -8.647
30 P4 35 -10.111
30 P4 36 -12.065
30 P4 37 -13.529
30 P4 38 -13.041
30 P4 39 -11.576
30 P4 40 -10.600
30 P4 41 -10.111
30 P4 42 -11.088
30 P4 43 -12.553
30 P4 44 -13.529
30 P4 45 -14.018
30 P4 46 -13.529
30 P4 47 -13.041
30 P4 48 -13.041
30 P4 49 -11.576
30 P4 50 -9.135
30 P4 51 -5.717
30 P4 52 -2.299
30 P4 53 0.142
30 P4 54 -1.322
30 P4 55 -4.740
30 P4 56 -9.623
30 P4 57 -13.041
30 P4 58 -14.018
30 P4 59 -12.553
30 P4 60 -10.600
30 P4 61 -8.647
30 P4 62 -7.182
30 P4 63 -6.694
30 P4 64 -5.717
30 P4 65 -5.229
30 P4 66 -4.252
30 P4 67 -4.252
30 P4 68 -4.740
30 P4 69 -6.205
30 P4 70 -7.182
30 P4 71 -6.694
30 P4 72 -4.252
30 P4 73 -1.322
30 P4 74 0.142
30 P4 75 0.142
30 P4 76 -2.299
30 P4 77 -5.229
30 P4 78 -6.694
30 P4 79 -6.205
30 P4 80 -4.740
30 P4 81 -3.764
30 P4 82 -4.252
30 P4 83 -6.205
30 P4 84 -8.158
30 P4 85 -9.135
30 P4 86 -8.647
30 P4 87 -7.670
30 P4 88 -7.182
30 P4 89 -7.182
30 P4 90 -7.670
30 P4 91 -7.670
30 P4 92 -7.670
30 P4 93 -7.670
30 P4 94 -7.670
30 P4 95 -7.670
30 P4 96 -7.182
30 P4 97 -6.694
30 P4 98 -5.717
30 P4 99 -5.717
30 P4 100 -6.694
30 P4 101 -8.158
30 P4 102 -8.647
30 P4 103 -8.158
30 P4 104 -6.205
30 P4 105 -4.252
30 P4 106 -2.787
30 P4 107 -2.787
30 P4 108 -4.252
30 P4 109 -5.229
30 P4 110 -4.740
30 P4 111 -3.276
30 P4 112 -1.811
30 P4 113 -1.322
30 P4 114 -2.787
30 P4 115 -4.740
30 P4 116 -6.205
30 P4 117 -6.205
30 P4 118 -5.717
30 P4 119 -5.229
30 P4 120 -5.717
30 P4 121 -7.182
30 P4 122 -9.135
30 P4 123 -10.111
30 P4 124 -10.111
30 P4 125 -9.135
30 P4 126 -7.670
30 P4 127 -6.694
30 P4 128 -5.717
30 P4 129 -5.717
30 P4 130 -6.694
30 P4 131 -8.647
30 P4 132 -11.088
30 P4 133 -13.529
30 P4 134 -14.506
30 P4 135 -14.994
30 P4 136 -14.506
30 P4 137 -14.018
30 P4 138 -13.529
30 P4 139 -13.529
30 P4 140 -13.529
30 P4 141 -14.018
30 P4 142 -14.994
30 P4 143 -14.994
30 P4 144 -14.506
30 P4 145 -13.529
30 P4 146 -12.553
30 P4 147 -12.065
30 P4 148 -12.553
30 P4 149 -13.529
30 P4 150 -14.506
30 P4 151 -14.994
30 P4 152 -14.994
30 P4 153 -14.506
30 P4 154 -14.506
30 P4 155 -14.018
30 P4 156 -14.018
30 P4 157 -14.018
30 P4 158 -14.018
30 P4 159 -14.018
30 P4 160 -13.529
30 P4 161 -12.553
30 P4 162 -12.065
30 P4 163 -11.088
30 P4 164 -10.600
30 P4 165 -9.623
30 P4 166 -9.135
30 P4 167 -8.158
30 P4 168 -8.158
30 P4 169 -8.158
30 P4 170 -9.135
30 P4 171 -9.623
30 P4 172 -9.623
30 P4 173 -9.135
30 P4 174 -8.647
30 P4 175 -8.647
30 P4 176 -8.158
30 P4 177 -8.158
30 P4 178 -8.158
30 P4 179 -8.158
30 P4 180 -8.647
30 P4 181 -9.135
30 P4 182 -9.623
30 P4 183 -10.600
30 P4 184 -11.088
30 P4 185 -11.088
30 P4 186 -12.065
30 P4 187 -11.576
30 P4 188 -10.111
30 P4 189 -8.647
30 P4 190 -7.670
30 P4 191 -8.158
30 P4 192 -10.600
30 P4 193 -13.529
30 P4 194 -14.994
30 P4 195 -14.506
30 P4 196 -11.576
30 P4 197 -7.182
30 P4 198 -4.740
30 P4 199 -3.276
30 P4 200 -3.764
30 P4 201 -4.740
30 P4 202 -5.717
30 P4 203 -6.694
30 P4 204 -7.670
30 P4 205 -9.135
30 P4 206 -10.600
30 P4 207 -12.065
30 P4 208 -13.041
30 P4 209 -13.041
30 P4 210 -12.553
30 P4 211 -12.065
30 P4 212 -10.600
30 P4 213 -9.623
30 P4 214 -9.135
30 P4 215 -9.623
30 P4 216 -11.088
30 P4 217 -13.041
30 P4 218 -13.529
30 P4 219 -13.041
30 P4 220 -12.065
30 P4 221 -11.576
30 P4 222 -11.576
30 P4 223 -12.065
30 P4 224 -12.065
30 P4 225 -11.576
30 P4 226 -10.111
30 P4 227 -8.647
30 P4 228 -8.158
30 P4 229 -8.158
30 P4 230 -9.135
30 P4 231 -9.623
30 P4 232 -9.623
30 P4 233 -9.135
30 P4 234 -8.647
30 P4 235 -8.158
30 P4 236 -8.158
30 P4 237 -7.670
30 P4 238 -5.717
30 P4 239 -4.252
30 P4 240 -3.276
30 P4 241 -3.276
30 P4 242 -3.764
30 P4 243 -4.740
30 P4 244 -5.717
30 P4 245 -5.717
30 P4 246 -5.229
30 P4 247 -5.229
30 P4 248 -5.717
30 P4 249 -6.694
30 P4 250 -7.670
30 P4 251 -8.647
30 P4 252 -9.135
30 P4 253 -9.623
30 P4 254 -9.623
30 P4 255 -9.135
# PZ chan 24
30 PZ 0 -7.741
30 PZ 1 -7.741
30 PZ 2 -8.230
30 PZ 3 -9.206
30 PZ 4 -9.694
30 PZ 5 -10.183
30 PZ 6 -9.694
30 PZ 7 -8.718
30 PZ 8 -8.230
30 PZ 9 -8.230
30 PZ 10 -8.230
30 PZ 11 -7.741
30 PZ 12 -7.741
30 PZ 13 -7.741
30 PZ 14 -8.230
30 PZ 15 -7.741
30 PZ 16 -7.741
30 PZ 17 -8.230
30 PZ 18 -8.718
30 PZ 19 -9.206
30 PZ 20 -9.694
30 PZ 21 -10.671
30 PZ 22 -11.648
30 PZ 23 -12.624
30 PZ 24 -13.112
30 PZ 25 -13.112
30 PZ 26 -11.648
30 PZ 27 -10.671
30 PZ 28 -9.694
30 PZ 29 -9.694
30 PZ 30 -9.694
30 PZ 31 -8.718
30 PZ 32 -6.276
30 PZ 33 -3.835
30 PZ 34 -2.370
30 PZ 35 -2.858
30 PZ 36 -4.323
30 PZ 37 -5.788
30 PZ 38 -6.276
30 PZ 39 -5.300
30 PZ 40 -4.323
30 PZ 41 -3.835
30 PZ 42 -5.300
30 PZ 43 -7.253
30 PZ 44 -9.694
30 PZ 45 -11.159
30 PZ 46 -10.671
30 PZ 47 -10.183
30 PZ 48 -9.206
30 PZ 49 -7.253
30 PZ 50 -5.300
30 PZ 51 -2.370
30 PZ 52 0.071
30 PZ 53 1.048
30 PZ 54 -0.417
30 PZ 55 -2.858
30 PZ 56 -6.276
30 PZ 57 -8.230
30 PZ 58 -9.206
30 PZ 59 -7.741
30 PZ 60 -6.276
30 PZ 61 -4.323
30 PZ 62 -3.835
30 PZ 63 -3.347
30 PZ 64 -3.347
30 PZ 65 -2.370
30 PZ 66 -0.905
30 PZ 67 0.559
30 PZ 68 0.559
30 PZ 69 0.071
30 PZ 70 -1.394
30 PZ 71 -1.882
30 PZ 72 -0.905
30 PZ 73 1.048
30 PZ 74 3.001
30 PZ 75 3.001
30 PZ 76 1.048
30 PZ 77 -1.882
30 PZ 78 -3.347
30 PZ 79 -3.347
30 PZ 80 -2.370
30 PZ 81 -1.394
30 PZ 82 -1.882
30 PZ 83 -2.858
30 PZ 84 -4.323
30 PZ 85 -5.300
30 PZ 86 -4.812
30 PZ 87 -3.835
30 PZ 88 -3.347
30 PZ 89 -3.347
30 PZ 90 -3.347
30 PZ 91 -3.835
30 PZ 92 -3.347
30 PZ 93 -3.347
30 PZ 94 -2.858
30 PZ 95 -1.882
30 PZ 96 -1.394
30 PZ 97 -0.417
30 PZ 98 0.559
30 PZ 99 0.071
30 PZ 100 -1.394
30 PZ 101 -2.858
30 PZ 102 -4.323
30 PZ 103 -4.812
30 PZ 104 -2.858
30 PZ 105 -1.394
30 PZ 106 0.071
30 PZ 107 0.559
30 PZ 108 -0.417
30 PZ 109 -0.905
30 PZ 110 -0.417
30 PZ 111 0.071
30 PZ 112 1.048
30 PZ 113 0.071
30 PZ 114 -1.882
30 PZ 115 -4.323
30 PZ 116 -5.788
30 PZ 117 -5.300
30 PZ 118 -3.835
30 PZ 119 -2.370
30 PZ 120 -2.858
30 PZ 121 -3.835
30 PZ 122 -5.788
30 PZ 123 -6.765
30 PZ 124 -6.276
30 PZ 125 -5.788
30 PZ 126 -4.812
30 PZ 127 -3.835
30 PZ 128 -2.858
30 PZ 129 -2.858
30 PZ 130 -3.347
30 PZ 131 -4.812
30 PZ 132 -6.765
30 PZ 133 -9.206
30 PZ 134 -10.183
30 PZ 135 -10.671
30 PZ 136 -10.183
30 PZ 137 -9.694
30 PZ 138 -8.718
30 PZ 139 -8.718
30 PZ 140 -9.206
30 PZ 141 -9.694
30 PZ 142 -10.671
30 PZ 143 -11.159
30 PZ 144 -10.671
30 PZ 145 -9.694
30 PZ 146 -8.230
30 PZ 147 -6.765
30 PZ 148 -5.788
30 PZ 149 -5.788
30 PZ 150 -5.788
30 PZ 151 -6.765
30 PZ 152 -7.741
30 PZ 153 -8.230
30 PZ 154 -8.230
30 PZ 155 -7.253
30 PZ 156 -6.276
30 PZ 157 -5.788
30 PZ 158 -5.300
30 PZ 159 -6.276
30 PZ 160 -7.253
30 PZ 161 -8.230
30 PZ 162 -8.718
30 PZ 163 -8.718
30 PZ 164 -8.230
30 PZ 165 -7.253
30 PZ 166 -5.788
30 PZ 167 -5.300
30 PZ 168 -4.812
30 PZ 169 -4.812
30 PZ 170 -4.812
30 PZ 171 -4.812
30 PZ 172 -4.323
30 PZ 173 -3.835
30 PZ 174 -3.835
30 PZ 175 -3.835
30 PZ 176 -3.347
30 PZ 177 -3.347
30 PZ 178 -2.858
30 PZ 179 -2.858
30 PZ 180 -2.858
30 PZ 181 -3.347
30 PZ 182 -3.835
30 PZ 183 -3.835
30 PZ 184 -4.812
30 PZ 185 -4.812
30 PZ 186 -4.812
30 PZ 187 -3.835
30 PZ 188 -2.858
30 PZ 189 -1.394
30 PZ 190 0.071
30 PZ 191 0.071
30 PZ 192 -1.394
30 PZ 193 -3.347
30 PZ 194 -4.812
30 PZ 195 -4.812
30 PZ 196 -3.835
30 PZ 197 -1.394
30 PZ 198 0.559
30 PZ 199 1.536
30 PZ 200 2.024
30 PZ 201 1.048
30 PZ 202 0.071
30 PZ 203 -0.905
30 PZ 204 -1.882
30 PZ 205 -2.858
30 PZ 206 -4.812
30 PZ 207 -6.765
30 PZ 208 -7.741
30 PZ 209 -8.230
30 PZ 210 -7.741
30 PZ 211 -6.276
30 PZ 212 -4.323
30 PZ 213 -2.370
30 PZ 214 -1.882
30 PZ 215 -1.882
30 PZ 216 -2.858
30 PZ 217 -3.835
30 PZ 218 -4.812
30 PZ 219 -5.300
30 PZ 220 -5.788
30 PZ 221 -6.276
30 PZ 222 -6.276
30 PZ 223 -6.765
30 PZ 224 -6.765
30 PZ 225 -6.276
30 PZ 226 -4.812
30 PZ 227 -3.347
30 PZ 228 -1.882
30 PZ 229 -0.905
30 PZ 230 -0.417
30 PZ 231 -0.417
30 PZ 232 -0.417
30 PZ 233 -0.905
30 PZ 234 -1.394
30 PZ 235 -1.882
30 PZ 236 -1.882
30 PZ 237 -0.417
30 PZ 238 1.048
30 PZ 239 3.001
30 PZ 240 3.977
30 PZ 241 3.977
30 PZ 242 3.489
30 PZ 243 3.001
30 PZ 244 2.513
30 PZ 245 2.024
30 PZ 246 2.024
30 PZ 247 2.024
30 PZ 248 1.536
30 PZ 249 1.048
30 PZ 250 1.048
30 PZ 251 1.048
30 PZ 252 0.559
30 PZ 253 0.559
30 PZ 254 -0.417
30 PZ 255 -0.417
# P8 chan 25
30 P8 0 -8.738
30 P8 1 -9.715
30 P8 2 -11.180
30 P8 3 -13.621
30 P8 4 -16.551
30 P8 5 -18.504
30 P8 6 -19.480
30 P8 7 -19.969
30 P8 8 -20.457
30 P8 9 -21.434
30 P8 10 -21.922
30 P8 11 -22.410
30 P8 12 -21.434
30 P8 13 -20.457
30 P8 14 -19.969
30 P8 15 -19.969
30 P8 16 -20.457
30 P8 17 -20.945
30 P8 18 -21.434
30 P8 19 -20.945
30 P8 20 -20.457
30 P8 21 -21.434
30 P8 22 -22.898
30 P8 23 -24.363
30 P8 24 -25.340
30 P8 25 -24.851
30 P8 26 -22.898
30 P8 27 -20.945
30 P8 28 -19.969
30 P8 29 -19.480
30 P8 30 -19.480
30 P8 31 -18.016
30 P8 32 -15.574
30 P8 33 -13.133
30 P8 34 -12.644
30 P8 35 -15.086
30 P8 36 -19.480
30 P8 37 -23.387
30 P8 38 -25.340
30 P8 39 -24.851
30 P8 40 -23.875
30 P8 41 -22.898
30 P8 42 -23.875
30 P8 43 -24.851
30 P8 44 -25.828
30 P8 45 -25.828
30 P8 46 -25.828
30 P8 47 -25.828
30 P8 48 -26.316
30 P8 49 -26.316
30 P8 50 -23.387
30 P8 51 -18.504
30 P8 52 -13.621
30 P8 53 -10.691
30 P8 54 -11.180
30 P8 55 -14.598
30 P8 56 -18.992
30 P8 57 -21.922
30 P8 58 -22.410
30 P8 59 -20.457
30 P8 60 -18.016
30 P8 61 -15.574
30 P8 62 -14.109
30 P8 63 -13.133
30 P8 64 -12.644
30 P8 65 -11.180
30 P8 66 -10.203
30 P8 67 -9.226
30 P8 68 -9.715
30 P8 69 -10.691
30 P8 70 -11.180
30 P8 71 -10.203
30 P8 72 -8.250
30 P8 73 -5.320
30 P8 74 -3.855
30 P8 75 -3.855
30 P8 76 -5.320
30 P8 77 -7.273
30 P8 78 -8.738
30 P8 79 -8.250
30 P8 80 -7.762
30 P8 81 -7.762
30 P8 82 -9.226
30 P8 83 -11.180
30 P8 84 -13.133
30 P8 85 -14.109
30 P8 86 -14.109
30 P8 87 -13.621
30 P8 88 -13.133
30 P8 89 -13.133
30 P8 90 -13.621
30 P8 91 -14.109
30 P8 92 -14.598
30 P8 93 -14.598
30 P8 94 -14.598
30 P8 95 -14.109
30 P8 96 -13.621
30 P8 97 -11.668
30 P8 98 -10.203
30 P8 99 -8.738
30 P8 100 -8.738
30 P8 101 -10.203
30 P8 102 -11.668
30 P8 103 -12.156
30 P8 104 -11.180
30 P8 105 -9.226
30 P8 106 -7.762
30 P8 107 -7.762
30 P8 108 -9.226
30 P8 109 -10.691
30 P8 110 -10.691
30 P8 111 -9.226
30 P8 112 -6.785
30 P8 113 -4.832
30 P8 114 -5.320
30 P8 115 -6.297
30 P8 116 -7.273
30 P8 117 -8.250
30 P8 118 -8.250
30 P8 119 -8.738
30 P8 120 -9.715
30 P8 121 -12.156
30 P8 122 -14.598
30 P8 123 -16.062
30 P8 124 -16.062
30 P8 125 -15.086
30 P8 126 -12.644
30 P8 127 -10.203
30 P8 128 -7.762
30 P8 129 -6.785
30 P8 130 -7.273
30 P8 131 -8.738
30 P8 132 -10.691
30 P8 133 -12.156
30 P8 134 -12.644
30 P8 135 -12.156
30 P8 136 -12.156
30 P8 137 -12.156
30 P8 138 -12.644
30 P8 139 -14.109
30 P8 140 -14.598
30 P8 141 -15.086
30 P8 142 -15.574
30 P8 143 -15.574
30 P8 144 -15.574
30 P8 145 -14.598
30 P8 146 -14.109
30 P8 147 -13.621
30 P8 148 -14.598
30 P8 149 -16.062
30 P8 150 -16.551
30 P8 151 -16.551
30 P8 152 -14.598
30 P8 153 -12.644
30 P8 154 -11.668
30 P8 155 -12.156
30 P8 156 -13.621
30 P8 157 -15.086
30 P8 158 -16.062
30 P8 159 -15.574
30 P8 160 -13.621
30 P8 161 -11.668
30 P8 162 -10.203
30 P8 163 -9.226
30 P8 164 -8.738
30 P8 165 -7.273
30 P8 166 -5.809
30 P8 167 -4.344
30 P8 168 -3.367
30 P8 169 -4.344
30 P8 170 -5.320
30 P8 171 -6.785
30 P8 172 -6.785
30 P8 173 -6.297
30 P8 174 -5.320
30 P8 175 -4.832
30 P8 176 -3.855
30 P8 177 -3.367
30 P8 178 -2.391
30 P8 179 -2.391
30 P8 180 -2.879
30 P8 181 -4.344
30 P8 182 -5.809
30 P8 183 -6.785
30 P8 184 -7.762
30 P8 185 -7.762
30 P8 186 -8.250
30 P8 187 -8.738
30 P8 188 -8.250
30 P8 189 -7.273
30 P8 190 -6.785
30 P8 191 -7.762
30 P8 192 -10.203
30 P8 193 -13.621
30 P8 194 -15.086
30 P8 195 -14.598
30 P8 196 -11.180
30 P8 197 -6.785
30 P8 198 -2.879
30 P8 199 -1.414
30 P8 200 -0.926
30 P8 201 -1.902
30 P8 202 -2.391
30 P8 203 -3.855
30 P8 204 -5.320
30 P8 205 -7.273
30 P8 206 -9.226
30 P8 207 -10.691
30 P8 208 -11.180
30 P8 209 -10.691
30 P8 210 -9.715
30 P8 211 -8.738
30 P8 212 -6.785
30 P8 213 -5.320
30 P8 214 -4.832
30 P8 215 -5.809
30 P8 216 -8.738
30 P8 217 -12.644
30 P8 218 -14.598
30 P8 219 -15.086
30 P8 220 -13.621
30 P8 221 -11.668
30 P8 222 -10.203
30 P8 223 -9.715
30 P8 224 -9.715
30 P8 225 -8.738
30 P8 226 -7.273
30 P8 227 -5.809
30 P8 228 -4.832
30 P8 229 -4.832
30 P8 230 -5.320
30 P8 231 -5.809
30 P8 232 -5.320
30 P8 233 -4.832
30 P8 234 -4.344
30 P8 235 -3.855
30 P8 236 -3.367
30 P8 237 -2.391
30 P8 238 -0.926
30 P8 239 0.051
30 P8 240 0.051
30 P8 241 -0.437
30 P8 242 -2.391
30 P8 243 -3.855
30 P8 244 -4.344
30 P8 245 -3.855
30 P8 246 -2.879
30 P8 247 -2.391
30 P8 248 -2.879
30 P8 249 -4.832
30 P8 250 -6.785
30 P8 251 -7.762
30 P8 252 -8.250
30 P8 253 -7.762
30 P8 254 -7.273
30 P8 255 -6.785
# P7 chan 26
30 P7 0 -9.318
30 P7 1 -9.806
30 P7 2 -11.759
30 P7 3 -14.689
30 P7 4 -17.619
30 P7 5 -19.084
30 P7 6 -20.060
30 P7 7 -20.060
30 P7 8 -20.060
30 P7 9 -20.549
30 P7 10 -21.037
30 P7 11 -19.572
30 P7 12 -17.619
30 P7 13 -15.666
30 P7 14 -13.713
30 P7 15 -13.224
30 P7 16 -13.713
30 P7 17 -15.177
30 P7 18 -16.154
30 P7 19 -17.131
30 P7 20 -18.595
30 P7 21 -20.549
30 P7 22 -22.990
30 P7 23 -25.920
30 P7 24 -26.896
30 P7 25 -26.408
30 P7 26 -23.966
30 P7 27 -20.549
30 P7 28 -18.595
30 P7 29 -17.619
30 P7 30 -16.642
30 P7 31 -14.689
30 P7 32 -12.248
30 P7 33 -10.295
30 P7 34 -10.783
30 P7 35 -13.713
30 P7 36 -18.107
30 P7 37 -22.502
30 P7 38 -24.943
30 P7 39 -24.455
30 P7 40 -22.990
30 P7 41 -21.525
30 P7 42 -22.013
30 P7 43 -23.966
30 P7 44 -26.896
30 P7 45 -29.826
30 P7 46 -31.779
30 P7 47 -32.756
30 P7 48 -32.267
30 P7 49 -29.826
30 P7 50 -26.408
30 P7 51 -22.990
30 P7 52 -21.037
30 P7 53 -19.572
30 P7 54 -19.084
30 P7 55 -19.084
30 P7 56 -19.084
30 P7 57 -19.084
30 P7 58 -18.595
30 P7 59 -17.131
30 P7 60 -14.689
30 P7 61 -12.736
30 P7 62 -11.271
30 P7 63 -10.783
30 P7 64 -11.271
30 P7 65 -11.759
30 P7 66 -10.295
30 P7 67 -7.365
30 P7 68 -4.435
30 P7 69 -2.482
30 P7 70 -2.970
30 P7 71 -3.947
30 P7 72 -4.924
30 P7 73 -4.435
30 P7 74 -3.459
30 P7 75 -2.970
30 P7 76 -3.947
30 P7 77 -5.412
30 P7 78 -5.900
30 P7 79 -5.412
30 P7 80 -4.435
30 P7 81 -5.412
30 P7 82 -8.341
30 P7 83 -12.248
30 P7 84 -15.666
30 P7 85 -16.642
30 P7 86 -15.666
30 P7 87 -13.713
30 P7 88 -13.224
30 P7 89 -13.713
30 P7 90 -14.689
30 P7 91 -14.201
30 P7 92 -12.736
30 P7 93 -10.295
30 P7 94 -7.365
30 P7 95 -5.900
30 P7 96 -4.924
30 P7 97 -4.435
30 P7 98 -3.459
30 P7 99 -3.459
30 P7 100 -3.947
30 P7 101 -5.900
30 P7 102 -7.853
30 P7 103 -8.341
30 P7 104 -7.853
30 P7 105 -6.388
30 P7 106 -5.412
30 P7 107 -6.388
30 P7 108 -9.318
30 P7 109 -12.736
30 P7 110 -15.177
30 P7 111 -15.177
30 P7 112 -14.689
30 P7 113 -14.689
30 P7 114 -15.666
30 P7 115 -16.642
30 P7 116 -16.154
30 P7 117 -13.713
30 P7 118 -10.783
30 P7 119 -10.295
30 P7 120 -12.248
30 P7 121 -15.666
30 P7 122 -18.595
30 P7 123 -19.084
30 P7 124 -16.642
30 P7 125 -13.224
30 P7 126 -10.295
30 P7 127 -8.341
30 P7 128 -6.877
30 P7 129 -6.877
30 P7 130 -8.341
30 P7 131 -11.271
30 P7 132 -13.713
30 P7 133 -15.666
30 P7 134 -15.666
30 P7 135 -13.224
30 P7 136 -10.783
30 P7 137 -9.806
30 P7 138 -10.295
30 P7 139 -12.248
30 P7 140 -14.201
30 P7 141 -15.177
30 P7 142 -16.154
30 P7 143 -15.666
30 P7 144 -15.177
30 P7 145 -14.201
30 P7 146 -13.713
30 P7 147 -12.736
30 P7 148 -11.759
30 P7 149 -10.783
30 P7 150 -9.318
30 P7 151 -8.341
30 P7 152 -8.830
30 P7 153 -9.806
30 P7 154 -11.271
30 P7 155 -12.248
30 P7 156 -12.248
30 P7 157 -11.759
30 P7 158 -11.759
30 P7 159 -12.248
30 P7 160 -13.713
30 P7 161 -14.689
30 P7 162 -14.201
30 P7 163 -13.224
30 P7 164 -10.295
30 P7 165 -7.365
30 P7 166 -5.412
30 P7 167 -4.435
30 P7 168 -5.412
30 P7 169 -6.877
30 P7 170 -8.830
30 P7 171 -10.295
30 P7 172 -10.295
30 P7 173 -9.318
30 P7 174 -7.853
30 P7 175 -6.388
30 P7 176 -5.900
30 P7 177 -5.412
30 P7 178 -6.388
30 P7 179 -7.365
30 P7 180 -8.341
30 P7 181 -8.830
30 P7 182 -8.830
30 P7 183 -8.830
30 P7 184 -7.853
30 P7 185 -7.365
30 P7 186 -6.388
30 P7 187 -4.924
30 P7 188 -3.947
30 P7 189 -3.459
30 P7 190 -4.435
30 P7 191 -6.388
30 P7 192 -8.341
30 P7 193 -9.806
30 P7 194 -9.318
30 P7 195 -7.853
30 P7 196 -5.900
30 P7 197 -4.435
30 P7 198 -3.459
30 P7 199 -3.459
30 P7 200 -3.947
30 P7 201 -4.435
30 P7 202 -6.388
30 P7 203 -7.853
30 P7 204 -9.318
30 P7 205 -9.806
30 P7 206 -9.806
30 P7 207 -9.318
30 P7 208 -8.830
30 P7 209 -8.341
30 P7 210 -7.365
30 P7 211 -5.900
30 P7 212 -4.435
30 P7 213 -3.459
30 P7 214 -3.947
30 P7 215 -5.900
30 P7 216 -8.341
30 P7 217 -10.783
30 P7 218 -12.736
30 P7 219 -14.689
30 P7 220 -16.154
30 P7 221 -17.131
30 P7 222 -16.642
30 P7 223 -16.154
30 P7 224 -14.689
30 P7 225 -13.713
30 P7 226 -12.248
30 P7 227 -10.295
30 P7 228 -8.341
30 P7 229 -6.877
30 P7 230 -5.412
30 P7 231 -5.412
30 P7 232 -5.412
30 P7 233 -5.412
30 P7 234 -5.412
30 P7 235 -4.435
30 P7 236 -3.459
30 P7 237 -1.994
30 P7 238 -0.529
30 P7 239 -0.041
30 P7 240 -0.529
30 P7 241 -1.017
30 P7 242 -1.506
30 P7 243 -1.994
30 P7 244 -2.482
30 P7 245 -2.970
30 P7 246 -4.435
30 P7 247 -6.388
30 P7 248 -8.341
30 P7 249 -9.318
30 P7 250 -9.318
30 P7 251 -7.365
30 P7 252 -5.900
30 P7 253 -4.435
30 P7 254 -4.435
30 P7 255 -4.435
# PO2 chan 27
30 PO2 0 -7.436
30 PO2 1 -7.924
30 PO2 2 -9.389
30 PO2 3 -10.366
30 PO2 4 -11.342
30 PO2 5 -11.342
30 PO2 6 -11.342
30 PO2 7 -10.854
30 PO2 8 -11.342
30 PO2 9 -11.831
30 PO2 10 -12.807
30 PO2 11 -12.807
30 PO2 12 -12.319
30 PO2 13 -11.831
30 PO2 14 -11.831
30 PO2 15 -12.319
30 PO2 16 -13.784
30 PO2 17 -14.760
30 PO2 18 -15.249
30 PO2 19 -15.249
30 PO2 20 -15.737
30 PO2 21 -17.202
30 PO2 22 -18.667
30 PO2 23 -20.131
30 PO2 24 -20.620
30 PO2 25 -19.643
30 PO2 26 -18.178
30 PO2 27 -16.225
30 PO2 28 -15.737
30 PO2 29 -16.713
30 PO2 30 -17.202
30 PO2 31 -16.713
30 PO2 32 -14.272
30 PO2 33 -11.831
30 PO2 34 -10.366
30 PO2 35 -11.831
30 PO2 36 -14.272
30 PO2 37 -16.225
30 PO2 38 -16.225
30 PO2 39 -14.760
30 PO2 40 -13.295
30 PO2 41 -12.807
30 PO2 42 -14.272
30 PO2 43 -16.713
30 PO2 44 -18.667
30 PO2 45 -19.155
30 PO2 46 -18.667
30 PO2 47 -17.690
30 PO2 48 -16.713
30 PO2 49 -15.737
30 PO2 50 -13.295
30 PO2 51 -9.389
30 PO2 52 -5.483
30 PO2 53 -2.553
30 PO2 54 -3.042
30 PO2 55 -5.971
30 PO2 56 -10.366
30 PO2 57 -13.295
30 PO2 58 -14.272
30 PO2 59 -12.807
30 PO2 60 -10.854
30 PO2 61 -9.389
30 PO2 62 -8.413
30 PO2 63 -7.924
30 PO2 64 -7.436
30 PO2 65 -5.971
30 PO2 66 -4.018
30 PO2 67 -2.553
30 PO2 68 -2.553
30 PO2 69 -3.530
30 PO2 70 -4.995
30 PO2 71 -4.995
30 PO2 72 -3.530
30 PO2 73 -1.088
30 PO2 74 0.865
30 PO2 75 0.865
30 PO2 76 -1.088
30 PO2 77 -4.018
30 PO2 78 -6.460
30 PO2 79 -6.460
30 PO2 80 -4.995
30 PO2 81 -4.018
30 PO2 82 -4.506
30 PO2 83 -5.971
30 PO2 84 -8.901
30 PO2 85 -9.878
30 PO2 86 -9.878
30 PO2 87 -9.389
30 PO2 88 -8.413
30 PO2 89 -7.924
30 PO2 90 -8.413
30 PO2 91 -8.901
30 PO2 92 -8.901
30 PO2 93 -8.413
30 PO2 94 -8.413
30 PO2 95 -7.924
30 PO2 96 -6.460
30 PO2 97 -4.995
30 PO2 98 -4.018
30 PO2 99 -4.018
30 PO2 100 -5.971
30 PO2 101 -7.924
30 PO2 102 -9.878
30 PO2 103 -9.878
30 PO2 104 -7.924
30 PO2 105 -5.971
30 PO2 106 -4.506
30 PO2 107 -4.995
30 PO2 108 -5.971
30 PO2 109 -6.460
30 PO2 110 -5.971
30 PO2 111 -3.530
30 PO2 112 -1.577
30 PO2 113 -1.088
30 PO2 114 -3.042
30 PO2 115 -5.971
30 PO2 116 -7.924
30 PO2 117 -8.413
30 PO2 118 -7.924
30 PO2 119 -6.948
30 PO2 120 -7.436
30 PO2 121 -9.389
30 PO2 122 -11.831
30 PO2 123 -13.295
30 PO2 124 -13.784
30 PO2 125 -12.319
30 PO2 126 -9.878
30 PO2 127 -7.924
30 PO2 128 -5.971
30 PO2 129 -4.995
30 PO2 130 -5.971
