# co2c0000338.rd
# 120 trials, 64 chans, 416 samples 368 post_stim samples
# 3.906000 msecs uV
# S2 nomatch, trial 43
# FP1 chan 0
43 FP1 0 -4.089
43 FP1 1 -3.601
43 FP1 2 -3.113
43 FP1 3 -2.625
43 FP1 4 -2.136
43 FP1 5 -1.160
43 FP1 6 -0.671
43 FP1 7 -0.671
43 FP1 8 -1.160
43 FP1 9 -0.183
43 FP1 10 0.793
43 FP1 11 3.235
43 FP1 12 5.188
43 FP1 13 5.676
43 FP1 14 4.700
43 FP1 15 3.235
43 FP1 16 2.258
43 FP1 17 1.770
43 FP1 18 1.282
43 FP1 19 1.282
43 FP1 20 0.793
43 FP1 21 0.793
43 FP1 22 0.793
43 FP1 23 1.282
43 FP1 24 2.258
43 FP1 25 2.747
43 FP1 26 3.723
43 FP1 27 4.211
43 FP1 28 4.211
43 FP1 29 4.211
43 FP1 30 4.211
43 FP1 31 3.723
43 FP1 32 3.723
43 FP1 33 3.235
43 FP1 34 2.747
43 FP1 35 2.258
43 FP1 36 0.793
43 FP1 37 -0.183
43 FP1 38 -0.671
43 FP1 39 -0.183
43 FP1 40 1.282
43 FP1 41 1.770
43 FP1 42 1.770
43 FP1 43 0.793
43 FP1 44 -1.648
43 FP1 45 -3.601
43 FP1 46 -5.066
43 FP1 47 -5.066
43 FP1 48 -4.089
43 FP1 49 -2.136
43 FP1 50 -1.160
43 FP1 51 0.305
43 FP1 52 0.305
43 FP1 53 -0.183
43 FP1 54 -1.160
43 FP1 55 -2.136
43 FP1 56 -2.136
43 FP1 57 -1.160
43 FP1 58 -0.183
43 FP1 59 0.305
43 FP1 60 -0.671
43 FP1 61 -2.625
43 FP1 62 -4.578
43 FP1 63 -6.531
43 FP1 64 -8.972
43 FP1 65 -11.902
43 FP1 66 -14.832
43 FP1 67 -17.273
43 FP1 68 -17.761
43 FP1 69 -16.785
43 FP1 70 -14.832
43 FP1 71 -11.902
43 FP1 72 -8.972
43 FP1 73 -5.554
43 FP1 74 -3.601
43 FP1 75 -2.625
43 FP1 76 -2.625
43 FP1 77 -3.113
43 FP1 78 -2.625
43 FP1 79 -1.160
43 FP1 80 0.305
43 FP1 81 1.770
43 FP1 82 1.770
43 FP1 83 1.282
43 FP1 84 0.793
43 FP1 85 0.793
43 FP1 86 0.305
43 FP1 87 -1.160
43 FP1 88 -2.625
43 FP1 89 -4.089
43 FP1 90 -4.578
43 FP1 91 -4.089
43 FP1 92 -2.625
43 FP1 93 -1.648
43 FP1 94 -0.671
43 FP1 95 1.770
43 FP1 96 4.700
43 FP1 97 6.653
43 FP1 98 6.653
43 FP1 99 4.211
43 FP1 100 -0.183
43 FP1 101 -3.113
43 FP1 102 -4.089
43 FP1 103 -3.113
43 FP1 104 -2.625
43 FP1 105 -2.136
43 FP1 106 -3.113
43 FP1 107 -3.113
43 FP1 108 -2.625
43 FP1 109 -1.160
43 FP1 110 0.793
43 FP1 111 1.770
43 FP1 112 2.258
43 FP1 113 2.747
43 FP1 114 3.235
43 FP1 115 4.700
43 FP1 116 5.676
43 FP1 117 7.629
43 FP1 118 8.606
43 FP1 119 11.047
43 FP1 120 13.000
43 FP1 121 15.442
43 FP1 122 17.395
43 FP1 123 17.883
43 FP1 124 16.907
43 FP1 125 15.442
43 FP1 126 13.977
43 FP1 127 12.024
43 FP1 128 10.559
43 FP1 129 9.094
43 FP1 130 8.118
43 FP1 131 8.118
43 FP1 132 9.583
43 FP1 133 10.559
43 FP1 134 11.536
43 FP1 135 12.024
43 FP1 136 10.559
43 FP1 137 9.583
43 FP1 138 9.094
43 FP1 139 8.606
43 FP1 140 9.583
43 FP1 141 10.559
43 FP1 142 12.024
43 FP1 143 13.489
43 FP1 144 15.442
43 FP1 145 18.372
43 FP1 146 21.790
43 FP1 147 24.719
43 FP1 148 26.672
43 FP1 149 27.161
43 FP1 150 26.672
43 FP1 151 25.208
43 FP1 152 25.696
43 FP1 153 28.137
43 FP1 154 31.555
43 FP1 155 35.461
43 FP1 156 38.391
43 FP1 157 39.856
43 FP1 158 40.344
43 FP1 159 41.809
43 FP1 160 43.274
43 FP1 161 46.692
43 FP1 162 49.622
43 FP1 163 52.063
43 FP1 164 53.528
43 FP1 165 54.016
43 FP1 166 54.504
43 FP1 167 54.993
43 FP1 168 56.458
43 FP1 169 57.922
43 FP1 170 58.411
43 FP1 171 58.411
43 FP1 172 56.946
43 FP1 173 55.481
43 FP1 174 54.016
43 FP1 175 53.040
43 FP1 176 51.575
43 FP1 177 51.086
43 FP1 178 51.086
43 FP1 179 51.575
43 FP1 180 51.575
43 FP1 181 50.598
43 FP1 182 48.645
43 FP1 183 47.180
43 FP1 184 45.715
43 FP1 185 46.204
43 FP1 186 46.692
43 FP1 187 45.715
43 FP1 188 43.762
43 FP1 189 40.833
43 FP1 190 39.368
43 FP1 191 38.879
43 FP1 192 39.856
43 FP1 193 40.833
43 FP1 194 41.321
43 FP1 195 39.856
43 FP1 196 37.903
43 FP1 197 34.485
43 FP1 198 31.555
43 FP1 199 29.602
43 FP1 200 29.114
43 FP1 201 28.625
43 FP1 202 28.137
43 FP1 203 27.649
43 FP1 204 27.649
43 FP1 205 27.649
43 FP1 206 29.114
43 FP1 207 31.067
43 FP1 208 33.508
43 FP1 209 35.950
43 FP1 210 37.903
43 FP1 211 39.856
43 FP1 212 41.321
43 FP1 213 42.786
43 FP1 214 42.786
43 FP1 215 41.809
43 FP1 216 40.344
43 FP1 217 38.879
43 FP1 218 37.415
43 FP1 219 36.438
43 FP1 220 34.973
43 FP1 221 33.508
43 FP1 222 33.020
43 FP1 223 33.508
43 FP1 224 34.973
43 FP1 225 37.415
43 FP1 226 38.391
43 FP1 227 37.415
43 FP1 228 34.973
43 FP1 229 32.532
43 FP1 230 32.532
43 FP1 231 34.485
43 FP1 232 38.391
43 FP1 233 41.321
43 FP1 234 41.809
43 FP1 235 39.856
43 FP1 236 35.950
43 FP1 237 33.020
43 FP1 238 31.555
43 FP1 239 31.067
43 FP1 240 30.090
43 FP1 241 28.625
43 FP1 242 27.649
43 FP1 243 26.672
43 FP1 244 25.696
43 FP1 245 25.208
43 FP1 246 24.231
43 FP1 247 23.743
43 FP1 248 23.743
43 FP1 249 24.231
43 FP1 250 24.719
43 FP1 251 23.254
43 FP1 252 20.813
43 FP1 253 17.883
43 FP1 254 15.930
43 FP1 255 15.930
# FP2 chan 1
43 FP2 0 -1.363
43 FP2 1 -1.851
43 FP2 2 -1.363
43 FP2 3 -0.387
43 FP2 4 0.102
43 FP2 5 0.102
43 FP2 6 -0.875
43 FP2 7 -2.340
43 FP2 8 -3.316
43 FP2 9 -3.316
43 FP2 10 -1.363
43 FP2 11 0.590
43 FP2 12 2.543
43 FP2 13 4.008
43 FP2 14 4.496
43 FP2 15 4.985
43 FP2 16 4.985
43 FP2 17 4.985
43 FP2 18 4.985
43 FP2 19 4.985
43 FP2 20 4.985
43 FP2 21 4.985
43 FP2 22 5.473
43 FP2 23 5.473
43 FP2 24 6.449
43 FP2 25 6.449
43 FP2 26 6.449
43 FP2 27 5.961
43 FP2 28 5.961
43 FP2 29 5.473
43 FP2 30 4.496
43 FP2 31 3.520
43 FP2 32 2.055
43 FP2 33 0.590
43 FP2 34 0.102
43 FP2 35 0.590
43 FP2 36 0.590
43 FP2 37 1.567
43 FP2 38 2.055
43 FP2 39 3.031
43 FP2 40 4.008
43 FP2 41 4.008
43 FP2 42 3.031
43 FP2 43 1.567
43 FP2 44 0.102
43 FP2 45 -0.875
43 FP2 46 -0.875
43 FP2 47 -0.387
43 FP2 48 0.590
43 FP2 49 1.567
43 FP2 50 2.543
43 FP2 51 3.031
43 FP2 52 3.520
43 FP2 53 3.031
43 FP2 54 2.055
43 FP2 55 1.078
43 FP2 56 1.078
43 FP2 57 1.078
43 FP2 58 1.567
43 FP2 59 2.055
43 FP2 60 1.078
43 FP2 61 -0.387
43 FP2 62 -1.851
43 FP2 63 -5.269
43 FP2 64 -8.687
43 FP2 65 -12.594
43 FP2 66 -16.012
43 FP2 67 -17.476
43 FP2 68 -17.476
43 FP2 69 -16.500
43 FP2 70 -14.547
43 FP2 71 -12.594
43 FP2 72 -10.640
43 FP2 73 -8.199
43 FP2 74 -6.734
43 FP2 75 -6.246
43 FP2 76 -6.246
43 FP2 77 -5.758
43 FP2 78 -5.269
43 FP2 79 -2.828
43 FP2 80 -0.875
43 FP2 81 1.567
43 FP2 82 3.031
43 FP2 83 3.520
43 FP2 84 4.008
43 FP2 85 3.520
43 FP2 86 2.543
43 FP2 87 0.102
43 FP2 88 -1.851
43 FP2 89 -1.851
43 FP2 90 -1.363
43 FP2 91 0.102
43 FP2 92 1.567
43 FP2 93 2.055
43 FP2 94 1.567
43 FP2 95 2.055
43 FP2 96 2.543
43 FP2 97 3.520
43 FP2 98 3.520
43 FP2 99 2.055
43 FP2 100 -0.387
43 FP2 101 -2.340
43 FP2 102 -2.828
43 FP2 103 -2.340
43 FP2 104 -1.851
43 FP2 105 -2.828
43 FP2 106 -5.269
43 FP2 107 -6.734
43 FP2 108 -6.734
43 FP2 109 -4.781
43 FP2 110 -1.363
43 FP2 111 2.055
43 FP2 112 4.008
43 FP2 113 4.496
43 FP2 114 4.985
43 FP2 115 5.473
43 FP2 116 6.449
43 FP2 117 6.938
43 FP2 118 7.426
43 FP2 119 9.379
43 FP2 120 12.797
43 FP2 121 16.215
43 FP2 122 18.656
43 FP2 123 19.145
43 FP2 124 17.192
43 FP2 125 14.262
43 FP2 126 11.820
43 FP2 127 10.356
43 FP2 128 8.891
43 FP2 129 7.426
43 FP2 130 5.961
43 FP2 131 4.985
43 FP2 132 5.473
43 FP2 133 6.449
43 FP2 134 7.914
43 FP2 135 8.891
43 FP2 136 8.891
43 FP2 137 8.891
43 FP2 138 8.891
43 FP2 139 9.379
43 FP2 140 9.379
43 FP2 141 9.379
43 FP2 142 9.379
43 FP2 143 9.379
43 FP2 144 11.332
43 FP2 145 14.262
43 FP2 146 18.168
43 FP2 147 22.563
43 FP2 148 25.492
43 FP2 149 26.957
43 FP2 150 27.445
43 FP2 151 27.934
43 FP2 152 28.910
43 FP2 153 30.375
43 FP2 154 32.817
43 FP2 155 34.770
43 FP2 156 37.211
43 FP2 157 39.653
43 FP2 158 42.582
43 FP2 159 46.000
43 FP2 160 48.930
43 FP2 161 51.860
43 FP2 162 54.301
43 FP2 163 56.254
43 FP2 164 57.231
43 FP2 165 58.695
43 FP2 166 59.672
43 FP2 167 61.137
43 FP2 168 62.113
43 FP2 169 63.578
43 FP2 170 63.578
43 FP2 171 62.602
43 FP2 172 60.160
43 FP2 173 57.719
43 FP2 174 56.254
43 FP2 175 54.789
43 FP2 176 54.301
43 FP2 177 53.813
43 FP2 178 54.301
43 FP2 179 55.278
43 FP2 180 55.766
43 FP2 181 54.301
43 FP2 182 51.860
43 FP2 183 48.930
43 FP2 184 46.488
43 FP2 185 45.024
43 FP2 186 44.535
43 FP2 187 43.070
43 FP2 188 41.606
43 FP2 189 40.141
43 FP2 190 39.653
43 FP2 191 39.653
43 FP2 192 40.629
43 FP2 193 40.141
43 FP2 194 39.653
43 FP2 195 38.676
43 FP2 196 37.699
43 FP2 197 36.235
43 FP2 198 33.793
43 FP2 199 30.863
43 FP2 200 28.422
43 FP2 201 26.957
43 FP2 202 26.957
43 FP2 203 27.445
43 FP2 204 28.422
43 FP2 205 27.934
43 FP2 206 27.445
43 FP2 207 27.445
43 FP2 208 29.399
43 FP2 209 32.328
43 FP2 210 35.746
43 FP2 211 38.188
43 FP2 212 39.164
43 FP2 213 38.676
43 FP2 214 37.211
43 FP2 215 35.746
43 FP2 216 34.281
43 FP2 217 33.793
43 FP2 218 32.817
43 FP2 219 32.817
43 FP2 220 32.328
43 FP2 221 31.840
43 FP2 222 31.352
43 FP2 223 31.352
43 FP2 224 31.840
43 FP2 225 32.817
43 FP2 226 33.793
43 FP2 227 33.305
43 FP2 228 31.352
43 FP2 229 29.399
43 FP2 230 29.399
43 FP2 231 31.352
43 FP2 232 35.258
43 FP2 233 38.676
43 FP2 234 40.141
43 FP2 235 37.699
43 FP2 236 34.281
43 FP2 237 31.840
43 FP2 238 30.375
43 FP2 239 30.375
43 FP2 240 29.399
43 FP2 241 27.934
43 FP2 242 25.981
43 FP2 243 24.028
43 FP2 244 23.539
43 FP2 245 24.028
43 FP2 246 24.516
43 FP2 247 24.028
43 FP2 248 23.539
43 FP2 249 23.051
43 FP2 250 21.586
43 FP2 251 19.145
43 FP2 252 16.215
43 FP2 253 13.774
43 FP2 254 11.820
43 FP2 255 12.309
# F7 chan 2
43 F7 0 -1.363
43 F7 1 -1.851
43 F7 2 -1.851
43 F7 3 0.102
43 F7 4 2.543
43 F7 5 4.496
43 F7 6 4.985
43 F7 7 4.496
43 F7 8 3.031
43 F7 9 1.567
43 F7 10 1.078
43 F7 11 1.567
43 F7 12 2.543
43 F7 13 3.520
43 F7 14 4.008
43 F7 15 3.031
43 F7 16 1.078
43 F7 17 -0.875
43 F7 18 -2.340
43 F7 19 -2.828
43 F7 20 -2.828
43 F7 21 -3.316
43 F7 22 -3.316
43 F7 23 -3.316
43 F7 24 -1.851
43 F7 25 0.102
43 F7 26 2.055
43 F7 27 4.008
43 F7 28 4.985
43 F7 29 5.961
43 F7 30 6.449
43 F7 31 7.426
43 F7 32 7.426
43 F7 33 6.938
43 F7 34 5.961
43 F7 35 4.985
43 F7 36 2.543
43 F7 37 1.078
43 F7 38 -0.387
43 F7 39 -0.875
43 F7 40 0.102
43 F7 41 0.590
43 F7 42 -0.387
43 F7 43 -2.340
43 F7 44 -5.758
43 F7 45 -8.687
43 F7 46 -9.664
43 F7 47 -9.176
43 F7 48 -7.222
43 F7 49 -5.269
43 F7 50 -3.316
43 F7 51 -2.828
43 F7 52 -3.805
43 F7 53 -6.246
43 F7 54 -7.711
43 F7 55 -8.687
43 F7 56 -7.222
43 F7 57 -4.781
43 F7 58 -1.851
43 F7 59 -0.875
43 F7 60 -1.363
43 F7 61 -2.828
43 F7 62 -3.316
43 F7 63 -4.293
43 F7 64 -4.781
43 F7 65 -6.246
43 F7 66 -8.687
43 F7 67 -9.664
43 F7 68 -8.687
43 F7 69 -5.758
43 F7 70 -1.363
43 F7 71 1.567
43 F7 72 3.520
43 F7 73 3.031
43 F7 74 1.567
43 F7 75 0.590
43 F7 76 -0.875
43 F7 77 -0.875
43 F7 78 0.102
43 F7 79 2.055
43 F7 80 3.031
43 F7 81 3.031
43 F7 82 2.055
43 F7 83 -0.875
43 F7 84 -3.805
43 F7 85 -5.758
43 F7 86 -7.222
43 F7 87 -7.222
43 F7 88 -6.246
43 F7 89 -4.781
43 F7 90 -4.293
43 F7 91 -3.805
43 F7 92 -4.293
43 F7 93 -4.781
43 F7 94 -4.293
43 F7 95 -1.851
43 F7 96 2.543
43 F7 97 7.426
43 F7 98 10.356
43 F7 99 9.867
43 F7 100 6.449
43 F7 101 2.055
43 F7 102 -0.387
43 F7 103 -1.363
43 F7 104 -0.387
43 F7 105 0.102
43 F7 106 0.102
43 F7 107 0.102
43 F7 108 0.590
43 F7 109 2.055
43 F7 110 3.520
43 F7 111 4.496
43 F7 112 4.496
43 F7 113 3.520
43 F7 114 3.031
43 F7 115 3.520
43 F7 116 4.496
43 F7 117 5.473
43 F7 118 7.426
43 F7 119 9.867
43 F7 120 13.774
43 F7 121 17.192
43 F7 122 19.145
43 F7 123 19.633
43 F7 124 18.656
43 F7 125 17.192
43 F7 126 15.238
43 F7 127 14.750
43 F7 128 13.774
43 F7 129 13.285
43 F7 130 13.285
43 F7 131 13.774
43 F7 132 15.238
43 F7 133 15.727
43 F7 134 15.238
43 F7 135 13.285
43 F7 136 10.844
43 F7 137 9.379
43 F7 138 9.867
43 F7 139 11.332
43 F7 140 13.774
43 F7 141 16.215
43 F7 142 17.680
43 F7 143 18.656
43 F7 144 19.145
43 F7 145 21.586
43 F7 146 24.028
43 F7 147 26.957
43 F7 148 27.934
43 F7 149 27.934
43 F7 150 26.469
43 F7 151 24.516
43 F7 152 23.051
43 F7 153 22.563
43 F7 154 23.051
43 F7 155 24.516
43 F7 156 25.981
43 F7 157 26.469
43 F7 158 25.981
43 F7 159 25.004
43 F7 160 24.028
43 F7 161 24.028
43 F7 162 25.492
43 F7 163 27.445
43 F7 164 28.422
43 F7 165 28.422
43 F7 166 27.445
43 F7 167 27.445
43 F7 168 28.422
43 F7 169 29.399
43 F7 170 29.887
43 F7 171 28.910
43 F7 172 27.445
43 F7 173 25.981
43 F7 174 25.004
43 F7 175 24.516
43 F7 176 24.028
43 F7 177 23.051
43 F7 178 22.563
43 F7 179 22.074
43 F7 180 22.074
43 F7 181 21.098
43 F7 182 20.121
43 F7 183 20.121
43 F7 184 20.610
43 F7 185 22.074
43 F7 186 22.563
43 F7 187 22.074
43 F7 188 20.610
43 F7 189 19.633
43 F7 190 20.121
43 F7 191 22.074
43 F7 192 23.539
43 F7 193 24.028
43 F7 194 22.563
43 F7 195 20.121
43 F7 196 17.680
43 F7 197 14.750
43 F7 198 11.820
43 F7 199 9.379
43 F7 200 7.914
43 F7 201 8.403
43 F7 202 10.356
43 F7 203 13.774
43 F7 204 16.703
43 F7 205 18.656
43 F7 206 19.633
43 F7 207 19.145
43 F7 208 20.610
43 F7 209 23.539
43 F7 210 26.957
43 F7 211 30.863
43 F7 212 32.328
43 F7 213 32.328
43 F7 214 31.352
43 F7 215 30.375
43 F7 216 28.910
43 F7 217 27.934
43 F7 218 25.981
43 F7 219 23.539
43 F7 220 21.586
43 F7 221 21.098
43 F7 222 21.586
43 F7 223 23.051
43 F7 224 24.028
43 F7 225 24.516
43 F7 226 24.028
43 F7 227 23.539
43 F7 228 22.563
43 F7 229 22.074
43 F7 230 22.563
43 F7 231 24.516
43 F7 232 26.957
43 F7 233 28.910
43 F7 234 29.399
43 F7 235 27.934
43 F7 236 25.492
43 F7 237 23.051
43 F7 238 21.586
43 F7 239 20.610
43 F7 240 20.610
43 F7 241 21.098
43 F7 242 20.610
43 F7 243 20.121
43 F7 244 18.656
43 F7 245 17.192
43 F7 246 16.215
43 F7 247 15.727
43 F7 248 16.703
43 F7 249 17.680
43 F7 250 18.168
43 F7 251 17.680
43 F7 252 15.727
43 F7 253 14.262
43 F7 254 13.285
43 F7 255 13.774
# F8 chan 3
43 F8 0 16.174
43 F8 1 16.174
43 F8 2 15.686
43 F8 3 14.221
43 F8 4 11.780
43 F8 5 8.362
43 F8 6 4.456
43 F8 7 1.038
43 F8 8 -0.916
43 F8 9 -1.892
43 F8 10 -1.404
43 F8 11 0.061
43 F8 12 2.014
43 F8 13 3.479
43 F8 14 4.456
43 F8 15 4.456
43 F8 16 4.456
43 F8 17 4.456
43 F8 18 4.944
43 F8 19 5.432
43 F8 20 5.920
43 F8 21 5.920
43 F8 22 5.920
43 F8 23 5.920
43 F8 24 6.409
43 F8 25 6.897
43 F8 26 7.385
43 F8 27 7.385
43 F8 28 7.874
43 F8 29 8.362
43 F8 30 7.874
43 F8 31 7.385
43 F8 32 6.897
43 F8 33 5.920
43 F8 34 5.432
43 F8 35 4.944
43 F8 36 5.432
43 F8 37 5.432
43 F8 38 6.897
43 F8 39 8.362
43 F8 40 9.338
43 F8 41 9.827
43 F8 42 9.338
43 F8 43 8.850
43 F8 44 8.362
43 F8 45 8.850
43 F8 46 9.338
43 F8 47 9.338
43 F8 48 8.850
43 F8 49 8.850
43 F8 50 9.338
43 F8 51 9.827
43 F8 52 10.803
43 F8 53 10.803
43 F8 54 9.338
43 F8 55 7.874
43 F8 56 6.409
43 F8 57 6.409
43 F8 58 6.409
43 F8 59 6.897
43 F8 60 6.897
43 F8 61 5.920
43 F8 62 4.456
43 F8 63 2.502
43 F8 64 1.038
43 F8 65 -0.916
43 F8 66 -1.892
43 F8 67 -1.892
43 F8 68 -0.427
43 F8 69 1.526
43 F8 70 2.991
43 F8 71 3.479
43 F8 72 3.479
43 F8 73 2.502
43 F8 74 2.014
43 F8 75 1.526
43 F8 76 1.038
43 F8 77 1.526
43 F8 78 2.014
43 F8 79 2.502
43 F8 80 2.991
43 F8 81 3.967
43 F8 82 4.944
43 F8 83 5.432
43 F8 84 5.432
43 F8 85 5.432
43 F8 86 4.456
43 F8 87 2.991
43 F8 88 2.502
43 F8 89 3.479
43 F8 90 6.409
43 F8 91 9.827
43 F8 92 11.292
43 F8 93 11.292
43 F8 94 10.315
43 F8 95 9.338
43 F8 96 10.803
43 F8 97 11.780
43 F8 98 12.268
43 F8 99 10.803
43 F8 100 9.338
43 F8 101 7.385
43 F8 102 6.897
43 F8 103 7.385
43 F8 104 6.897
43 F8 105 5.432
43 F8 106 2.502
43 F8 107 0.549
43 F8 108 1.038
43 F8 109 3.967
43 F8 110 6.897
43 F8 111 9.827
43 F8 112 10.315
43 F8 113 9.827
43 F8 114 8.850
43 F8 115 7.874
43 F8 116 7.385
43 F8 117 7.874
43 F8 118 10.315
43 F8 119 13.733
43 F8 120 18.616
43 F8 121 23.010
43 F8 122 24.963
43 F8 123 24.475
43 F8 124 22.034
43 F8 125 19.592
43 F8 126 17.151
43 F8 127 16.174
43 F8 128 14.709
43 F8 129 13.245
43 F8 130 11.780
43 F8 131 10.803
43 F8 132 10.803
43 F8 133 11.292
43 F8 134 12.268
43 F8 135 13.245
43 F8 136 14.709
43 F8 137 15.686
43 F8 138 16.174
43 F8 139 16.174
43 F8 140 16.174
43 F8 141 16.174
43 F8 142 16.174
43 F8 143 16.174
43 F8 144 17.151
43 F8 145 18.616
43 F8 146 20.081
43 F8 147 22.034
43 F8 148 23.499
43 F8 149 24.475
43 F8 150 24.963
43 F8 151 25.940
43 F8 152 27.405
43 F8 153 29.358
43 F8 154 30.823
43 F8 155 31.799
43 F8 156 31.799
43 F8 157 32.288
43 F8 158 33.264
43 F8 159 35.706
43 F8 160 38.147
43 F8 161 40.100
43 F8 162 40.588
43 F8 163 40.588
43 F8 164 40.588
43 F8 165 40.588
43 F8 166 41.077
43 F8 167 40.588
43 F8 168 40.100
43 F8 169 39.124
43 F8 170 38.147
43 F8 171 36.682
43 F8 172 34.729
43 F8 173 31.799
43 F8 174 29.358
43 F8 175 27.405
43 F8 176 26.917
43 F8 177 27.893
43 F8 178 28.870
43 F8 179 30.334
43 F8 180 30.334
43 F8 181 28.381
43 F8 182 25.940
43 F8 183 23.987
43 F8 184 23.010
43 F8 185 23.010
43 F8 186 23.987
43 F8 187 23.499
43 F8 188 23.499
43 F8 189 23.010
43 F8 190 22.522
43 F8 191 23.010
43 F8 192 24.475
43 F8 193 26.428
43 F8 194 27.893
43 F8 195 29.358
43 F8 196 28.870
43 F8 197 27.405
43 F8 198 24.475
43 F8 199 21.545
43 F8 200 18.616
43 F8 201 17.639
43 F8 202 17.639
43 F8 203 18.127
43 F8 204 18.616
43 F8 205 18.616
43 F8 206 18.616
43 F8 207 19.104
43 F8 208 20.569
43 F8 209 23.499
43 F8 210 26.428
43 F8 211 27.893
43 F8 212 28.870
43 F8 213 27.893
43 F8 214 26.428
43 F8 215 24.963
43 F8 216 23.499
43 F8 217 22.522
43 F8 218 21.545
43 F8 219 21.545
43 F8 220 21.057
43 F8 221 21.057
43 F8 222 20.569
43 F8 223 20.081
43 F8 224 20.569
43 F8 225 21.057
43 F8 226 21.545
43 F8 227 21.057
43 F8 228 19.104
43 F8 229 17.151
43 F8 230 17.151
43 F8 231 19.592
43 F8 232 24.475
43 F8 233 29.358
43 F8 234 31.311
43 F8 235 29.846
43 F8 236 27.405
43 F8 237 24.963
43 F8 238 24.475
43 F8 239 24.963
43 F8 240 24.963
43 F8 241 23.499
43 F8 242 22.034
43 F8 243 20.569
43 F8 244 20.569
43 F8 245 21.545
43 F8 246 23.010
43 F8 247 23.987
43 F8 248 23.010
43 F8 249 21.057
43 F8 250 18.127
43 F8 251 15.198
43 F8 252 12.756
43 F8 253 10.803
43 F8 254 9.338
43 F8 255 7.874
# AF1 chan 4
43 AF1 0 -5.788
43 AF1 1 -6.276
43 AF1 2 -5.788
43 AF1 3 -3.835
43 AF1 4 -1.882
43 AF1 5 0.071
43 AF1 6 0.071
43 AF1 7 0.071
43 AF1 8 -0.417
43 AF1 9 0.071
43 AF1 10 1.536
43 AF1 11 3.977
43 AF1 12 5.931
43 AF1 13 6.419
43 AF1 14 6.419
43 AF1 15 4.954
43 AF1 16 4.466
43 AF1 17 3.489
43 AF1 18 3.001
43 AF1 19 2.513
43 AF1 20 1.536
43 AF1 21 1.048
43 AF1 22 1.536
43 AF1 23 3.001
43 AF1 24 4.466
43 AF1 25 5.442
43 AF1 26 5.442
43 AF1 27 4.466
43 AF1 28 3.489
43 AF1 29 3.001
43 AF1 30 2.513
43 AF1 31 2.024
43 AF1 32 2.024
43 AF1 33 1.536
43 AF1 34 1.536
43 AF1 35 2.024
43 AF1 36 2.513
43 AF1 37 2.024
43 AF1 38 1.536
43 AF1 39 1.048
43 AF1 40 1.048
43 AF1 41 1.048
43 AF1 42 1.536
43 AF1 43 0.559
43 AF1 44 -0.417
43 AF1 45 -0.905
43 AF1 46 -1.394
43 AF1 47 -0.905
43 AF1 48 0.071
43 AF1 49 2.024
43 AF1 50 3.001
43 AF1 51 3.489
43 AF1 52 3.001
43 AF1 53 2.513
43 AF1 54 1.536
43 AF1 55 1.048
43 AF1 56 2.024
43 AF1 57 3.489
43 AF1 58 4.954
43 AF1 59 4.954
43 AF1 60 3.489
43 AF1 61 1.048
43 AF1 62 -1.882
43 AF1 63 -3.835
43 AF1 64 -5.788
43 AF1 65 -7.741
43 AF1 66 -9.206
43 AF1 67 -11.159
43 AF1 68 -12.624
43 AF1 69 -13.112
43 AF1 70 -12.624
43 AF1 71 -10.671
43 AF1 72 -7.741
43 AF1 73 -4.812
43 AF1 74 -2.858
43 AF1 75 -1.882
43 AF1 76 -1.882
43 AF1 77 -1.882
43 AF1 78 -0.417
43 AF1 79 2.024
43 AF1 80 3.977
43 AF1 81 5.442
43 AF1 82 5.931
43 AF1 83 5.442
43 AF1 84 5.442
43 AF1 85 5.442
43 AF1 86 4.954
43 AF1 87 3.977
43 AF1 88 2.513
43 AF1 89 1.536
43 AF1 90 1.536
43 AF1 91 2.024
43 AF1 92 3.001
43 AF1 93 3.001
43 AF1 94 3.489
43 AF1 95 3.977
43 AF1 96 5.931
43 AF1 97 7.395
43 AF1 98 7.395
43 AF1 99 5.931
43 AF1 100 3.001
43 AF1 101 0.559
43 AF1 102 -0.905
43 AF1 103 -0.905
43 AF1 104 -0.417
43 AF1 105 -1.394
43 AF1 106 -2.370
43 AF1 107 -3.835
43 AF1 108 -3.347
43 AF1 109 -1.882
43 AF1 110 0.071
43 AF1 111 1.536
43 AF1 112 2.513
43 AF1 113 3.001
43 AF1 114 3.489
43 AF1 115 4.954
43 AF1 116 5.931
43 AF1 117 6.907
43 AF1 118 7.884
43 AF1 119 9.349
43 AF1 120 11.302
43 AF1 121 13.743
43 AF1 122 15.208
43 AF1 123 15.208
43 AF1 124 14.231
43 AF1 125 11.790
43 AF1 126 10.325
43 AF1 127 9.837
43 AF1 128 9.837
43 AF1 129 9.837
43 AF1 130 9.349
43 AF1 131 8.372
43 AF1 132 7.884
43 AF1 133 7.884
43 AF1 134 7.395
43 AF1 135 6.907
43 AF1 136 5.931
43 AF1 137 5.442
43 AF1 138 5.442
43 AF1 139 6.419
43 AF1 140 8.372
43 AF1 141 9.349
43 AF1 142 10.325
43 AF1 143 10.325
43 AF1 144 10.813
43 AF1 145 12.767
43 AF1 146 15.208
43 AF1 147 17.161
43 AF1 148 19.114
43 AF1 149 19.602
43 AF1 150 18.626
43 AF1 151 18.138
43 AF1 152 17.649
43 AF1 153 18.138
43 AF1 154 19.114
43 AF1 155 20.579
43 AF1 156 22.044
43 AF1 157 23.509
43 AF1 158 24.485
43 AF1 159 25.462
43 AF1 160 25.950
43 AF1 161 26.927
43 AF1 162 28.392
43 AF1 163 30.345
43 AF1 164 31.809
43 AF1 165 32.786
43 AF1 166 33.274
43 AF1 167 34.251
43 AF1 168 35.716
43 AF1 169 37.181
43 AF1 170 37.669
43 AF1 171 37.181
43 AF1 172 35.716
43 AF1 173 34.251
43 AF1 174 33.763
43 AF1 175 32.786
43 AF1 176 32.786
43 AF1 177 32.298
43 AF1 178 32.298
43 AF1 179 32.786
43 AF1 180 33.763
43 AF1 181 33.763
43 AF1 182 33.274
43 AF1 183 31.809
43 AF1 184 30.833
43 AF1 185 30.345
43 AF1 186 30.345
43 AF1 187 30.345
43 AF1 188 30.345
43 AF1 189 29.856
43 AF1 190 29.368
43 AF1 191 28.880
43 AF1 192 28.880
43 AF1 193 27.903
43 AF1 194 27.415
43 AF1 195 26.438
43 AF1 196 24.485
43 AF1 197 22.532
43 AF1 198 20.579
43 AF1 199 18.138
43 AF1 200 16.673
43 AF1 201 16.184
43 AF1 202 17.161
43 AF1 203 18.626
43 AF1 204 20.091
43 AF1 205 20.091
43 AF1 206 19.114
43 AF1 207 18.138
43 AF1 208 19.114
43 AF1 209 21.556
43 AF1 210 25.462
43 AF1 211 28.880
43 AF1 212 31.321
43 AF1 213 31.321
43 AF1 214 29.856
43 AF1 215 28.880
43 AF1 216 27.415
43 AF1 217 27.415
43 AF1 218 26.927
43 AF1 219 26.927
43 AF1 220 26.438
43 AF1 221 26.438
43 AF1 222 25.950
43 AF1 223 26.438
43 AF1 224 27.415
43 AF1 225 28.392
43 AF1 226 28.880
43 AF1 227 28.880
43 AF1 228 27.415
43 AF1 229 26.438
43 AF1 230 26.438
43 AF1 231 27.415
43 AF1 232 28.880
43 AF1 233 30.345
43 AF1 234 30.833
43 AF1 235 29.856
43 AF1 236 27.903
43 AF1 237 25.462
43 AF1 238 23.997
43 AF1 239 23.509
43 AF1 240 23.020
43 AF1 241 22.532
43 AF1 242 22.044
43 AF1 243 21.067
43 AF1 244 20.579
43 AF1 245 20.091
43 AF1 246 20.091
43 AF1 247 20.091
43 AF1 248 20.579
43 AF1 249 20.091
43 AF1 250 19.114
43 AF1 251 16.673
43 AF1 252 13.743
43 AF1 253 11.302
43 AF1 254 10.325
43 AF1 255 10.813
# AF2 chan 5
43 AF2 0 -3.286
43 AF2 1 -4.262
43 AF2 2 -4.262
43 AF2 3 -3.774
43 AF2 4 -2.309
43 AF2 5 -1.821
43 AF2 6 -2.309
43 AF2 7 -3.286
43 AF2 8 -4.262
43 AF2 9 -3.774
43 AF2 10 -1.821
43 AF2 11 0.621
43 AF2 12 2.574
43 AF2 13 4.527
43 AF2 14 4.527
43 AF2 15 5.015
43 AF2 16 5.503
43 AF2 17 5.503
43 AF2 18 5.503
43 AF2 19 5.503
43 AF2 20 4.527
43 AF2 21 4.527
43 AF2 22 5.015
43 AF2 23 5.992
43 AF2 24 6.968
43 AF2 25 7.456
43 AF2 26 6.968
43 AF2 27 5.503
43 AF2 28 4.527
43 AF2 29 3.550
43 AF2 30 2.574
43 AF2 31 2.085
43 AF2 32 1.109
43 AF2 33 0.621
43 AF2 34 0.621
43 AF2 35 1.109
43 AF2 36 1.597
43 AF2 37 1.597
43 AF2 38 1.597
43 AF2 39 1.597
43 AF2 40 2.085
43 AF2 41 2.574
43 AF2 42 2.085
43 AF2 43 1.597
43 AF2 44 0.621
43 AF2 45 0.132
43 AF2 46 0.621
43 AF2 47 1.597
43 AF2 48 2.574
43 AF2 49 3.550
43 AF2 50 3.550
43 AF2 51 4.038
43 AF2 52 4.038
43 AF2 53 3.550
43 AF2 54 2.574
43 AF2 55 1.597
43 AF2 56 1.597
43 AF2 57 3.062
43 AF2 58 3.550
43 AF2 59 4.038
43 AF2 60 3.550
43 AF2 61 1.597
43 AF2 62 -0.844
43 AF2 63 -3.286
43 AF2 64 -5.239
43 AF2 65 -8.169
43 AF2 66 -10.122
43 AF2 67 -11.098
43 AF2 68 -12.075
43 AF2 69 -11.587
43 AF2 70 -11.098
43 AF2 71 -9.633
43 AF2 72 -8.169
43 AF2 73 -6.704
43 AF2 74 -5.239
43 AF2 75 -4.262
43 AF2 76 -4.262
43 AF2 77 -3.774
43 AF2 78 -2.309
43 AF2 79 0.132
43 AF2 80 2.574
43 AF2 81 5.015
43 AF2 82 6.480
43 AF2 83 7.456
43 AF2 84 7.456
43 AF2 85 7.456
43 AF2 86 6.480
43 AF2 87 5.503
43 AF2 88 4.527
43 AF2 89 4.038
43 AF2 90 4.527
43 AF2 91 5.992
43 AF2 92 6.968
43 AF2 93 6.480
43 AF2 94 6.480
43 AF2 95 6.480
43 AF2 96 6.968
43 AF2 97 7.456
43 AF2 98 6.480
43 AF2 99 4.527
43 AF2 100 2.085
43 AF2 101 0.621
43 AF2 102 -0.356
43 AF2 103 -0.356
43 AF2 104 -0.356
43 AF2 105 -1.333
43 AF2 106 -3.286
43 AF2 107 -4.751
43 AF2 108 -4.751
43 AF2 109 -3.286
43 AF2 110 -0.356
43 AF2 111 1.597
43 AF2 112 3.550
43 AF2 113 4.527
43 AF2 114 5.015
43 AF2 115 5.503
43 AF2 116 5.992
43 AF2 117 6.480
43 AF2 118 6.968
43 AF2 119 7.945
43 AF2 120 10.386
43 AF2 121 12.828
43 AF2 122 15.269
43 AF2 123 15.757
43 AF2 124 14.292
43 AF2 125 11.851
43 AF2 126 10.386
43 AF2 127 9.410
43 AF2 128 9.410
43 AF2 129 8.921
43 AF2 130 7.456
43 AF2 131 5.992
43 AF2 132 4.527
43 AF2 133 4.038
43 AF2 134 4.527
43 AF2 135 5.503
43 AF2 136 6.480
43 AF2 137 7.456
43 AF2 138 7.456
43 AF2 139 7.945
43 AF2 140 8.433
43 AF2 141 8.921
43 AF2 142 8.433
43 AF2 143 7.945
43 AF2 144 7.945
43 AF2 145 9.410
43 AF2 146 11.851
43 AF2 147 15.269
43 AF2 148 17.710
43 AF2 149 18.687
43 AF2 150 19.175
43 AF2 151 19.175
43 AF2 152 19.175
43 AF2 153 19.663
43 AF2 154 20.640
43 AF2 155 21.617
43 AF2 156 22.593
43 AF2 157 24.058
43 AF2 158 25.035
43 AF2 159 26.499
43 AF2 160 27.964
43 AF2 161 29.429
43 AF2 162 30.406
43 AF2 163 31.871
43 AF2 164 32.847
43 AF2 165 33.824
43 AF2 166 34.800
43 AF2 167 35.777
43 AF2 168 36.753
43 AF2 169 38.218
43 AF2 170 38.218
43 AF2 171 37.730
43 AF2 172 36.753
43 AF2 173 35.288
43 AF2 174 33.824
43 AF2 175 33.335
43 AF2 176 33.335
43 AF2 177 33.335
43 AF2 178 33.824
43 AF2 179 34.800
43 AF2 180 35.288
43 AF2 181 34.800
43 AF2 182 32.847
43 AF2 183 30.406
43 AF2 184 28.453
43 AF2 185 27.964
43 AF2 186 28.941
43 AF2 187 29.917
43 AF2 188 29.917
43 AF2 189 28.941
43 AF2 190 27.476
43 AF2 191 27.476
43 AF2 192 27.476
43 AF2 193 27.964
43 AF2 194 27.964
43 AF2 195 27.476
43 AF2 196 26.011
43 AF2 197 24.058
43 AF2 198 21.617
43 AF2 199 19.663
43 AF2 200 18.199
43 AF2 201 17.222
43 AF2 202 17.710
43 AF2 203 18.199
43 AF2 204 18.199
43 AF2 205 17.710
43 AF2 206 16.734
43 AF2 207 16.246
43 AF2 208 17.710
43 AF2 209 20.152
43 AF2 210 23.570
43 AF2 211 26.011
43 AF2 212 27.476
43 AF2 213 26.988
43 AF2 214 26.011
43 AF2 215 24.546
43 AF2 216 24.058
43 AF2 217 23.570
43 AF2 218 23.570
43 AF2 219 23.570
43 AF2 220 24.058
43 AF2 221 23.570
43 AF2 222 23.081
43 AF2 223 22.593
43 AF2 224 23.081
43 AF2 225 24.058
43 AF2 226 24.546
43 AF2 227 25.035
43 AF2 228 24.058
43 AF2 229 22.593
43 AF2 230 22.593
43 AF2 231 24.058
43 AF2 232 26.499
43 AF2 233 28.453
43 AF2 234 29.429
43 AF2 235 28.453
43 AF2 236 26.988
43 AF2 237 25.035
43 AF2 238 24.058
43 AF2 239 23.570
43 AF2 240 22.593
43 AF2 241 21.617
43 AF2 242 20.152
43 AF2 243 19.663
43 AF2 244 19.663
43 AF2 245 19.663
43 AF2 246 19.175
43 AF2 247 19.175
43 AF2 248 18.687
43 AF2 249 18.199
43 AF2 250 16.734
43 AF2 251 14.292
43 AF2 252 11.363
43 AF2 253 8.921
43 AF2 254 7.456
43 AF2 255 7.456
# FZ chan 6
43 FZ 0 -3.876
43 FZ 1 -4.852
43 FZ 2 -5.341
43 FZ 3 -4.364
43 FZ 4 -2.411
43 FZ 5 -1.434
43 FZ 6 -0.946
43 FZ 7 -1.434
43 FZ 8 -1.434
43 FZ 9 -0.946
43 FZ 10 0.031
43 FZ 11 2.472
43 FZ 12 3.937
43 FZ 13 4.913
43 FZ 14 4.913
43 FZ 15 4.425
43 FZ 16 3.937
43 FZ 17 3.937
43 FZ 18 3.937
43 FZ 19 2.960
43 FZ 20 2.472
43 FZ 21 1.495
43 FZ 22 1.495
43 FZ 23 2.960
43 FZ 24 3.937
43 FZ 25 4.913
43 FZ 26 4.425
43 FZ 27 3.448
43 FZ 28 1.984
43 FZ 29 1.007
43 FZ 30 0.031
43 FZ 31 0.031
43 FZ 32 -0.458
43 FZ 33 -0.946
43 FZ 34 -0.458
43 FZ 35 0.519
43 FZ 36 1.007
43 FZ 37 1.495
43 FZ 38 1.495
43 FZ 39 1.007
43 FZ 40 1.007
43 FZ 41 1.007
43 FZ 42 1.495
43 FZ 43 1.495
43 FZ 44 1.007
43 FZ 45 1.495
43 FZ 46 1.495
43 FZ 47 2.472
43 FZ 48 3.937
43 FZ 49 4.425
43 FZ 50 5.402
43 FZ 51 5.402
43 FZ 52 4.913
43 FZ 53 3.937
43 FZ 54 2.960
43 FZ 55 2.960
43 FZ 56 3.937
43 FZ 57 4.913
43 FZ 58 5.402
43 FZ 59 5.402
43 FZ 60 4.425
43 FZ 61 2.472
43 FZ 62 0.519
43 FZ 63 -1.434
43 FZ 64 -2.899
43 FZ 65 -3.876
43 FZ 66 -4.852
43 FZ 67 -6.317
43 FZ 68 -7.782
43 FZ 69 -9.247
43 FZ 70 -9.735
43 FZ 71 -8.759
43 FZ 72 -7.294
43 FZ 73 -4.852
43 FZ 74 -3.387
43 FZ 75 -2.411
43 FZ 76 -1.923
43 FZ 77 -1.434
43 FZ 78 0.519
43 FZ 79 2.472
43 FZ 80 4.913
43 FZ 81 6.866
43 FZ 82 8.331
43 FZ 83 9.308
43 FZ 84 10.284
43 FZ 85 10.284
43 FZ 86 10.284
43 FZ 87 9.796
43 FZ 88 8.820
43 FZ 89 7.843
43 FZ 90 7.843
43 FZ 91 7.843
43 FZ 92 7.843
43 FZ 93 7.843
43 FZ 94 6.866
43 FZ 95 6.866
43 FZ 96 6.866
43 FZ 97 6.866
43 FZ 98 5.890
43 FZ 99 3.937
43 FZ 100 1.984
43 FZ 101 0.031
43 FZ 102 -0.458
43 FZ 103 -0.946
43 FZ 104 -0.946
43 FZ 105 -1.923
43 FZ 106 -2.899
43 FZ 107 -3.876
43 FZ 108 -3.876
43 FZ 109 -3.387
43 FZ 110 -1.923
43 FZ 111 -0.946
43 FZ 112 0.031
43 FZ 113 1.007
43 FZ 114 1.984
43 FZ 115 2.960
43 FZ 116 4.425
43 FZ 117 4.913
43 FZ 118 4.913
43 FZ 119 4.913
43 FZ 120 5.890
43 FZ 121 7.355
43 FZ 122 8.820
43 FZ 123 9.308
43 FZ 124 8.820
43 FZ 125 7.843
43 FZ 126 6.866
43 FZ 127 6.866
43 FZ 128 6.378
43 FZ 129 6.866
43 FZ 130 5.890
43 FZ 131 4.425
43 FZ 132 2.960
43 FZ 133 1.495
43 FZ 134 1.007
43 FZ 135 1.007
43 FZ 136 1.984
43 FZ 137 2.472
43 FZ 138 3.448
43 FZ 139 4.425
43 FZ 140 5.402
43 FZ 141 6.378
43 FZ 142 6.378
43 FZ 143 6.378
43 FZ 144 6.378
43 FZ 145 7.355
43 FZ 146 8.820
43 FZ 147 10.284
43 FZ 148 11.261
43 FZ 149 12.238
43 FZ 150 11.749
43 FZ 151 10.773
43 FZ 152 10.773
43 FZ 153 10.773
43 FZ 154 11.749
43 FZ 155 12.238
43 FZ 156 13.214
43 FZ 157 13.702
43 FZ 158 14.191
43 FZ 159 14.191
43 FZ 160 14.679
43 FZ 161 15.167
43 FZ 162 15.656
43 FZ 163 16.632
43 FZ 164 17.609
43 FZ 165 18.585
43 FZ 166 19.562
43 FZ 167 20.538
43 FZ 168 22.003
43 FZ 169 22.980
43 FZ 170 23.468
43 FZ 171 23.468
43 FZ 172 22.980
43 FZ 173 22.491
43 FZ 174 22.003
43 FZ 175 21.515
43 FZ 176 21.027
43 FZ 177 21.027
43 FZ 178 21.027
43 FZ 179 22.491
43 FZ 180 23.468
43 FZ 181 23.468
43 FZ 182 22.491
43 FZ 183 20.538
43 FZ 184 19.562
43 FZ 185 20.050
43 FZ 186 21.515
43 FZ 187 22.980
43 FZ 188 23.956
43 FZ 189 23.468
43 FZ 190 22.003
43 FZ 191 21.515
43 FZ 192 21.027
43 FZ 193 21.027
43 FZ 194 20.538
43 FZ 195 19.562
43 FZ 196 18.097
43 FZ 197 16.144
43 FZ 198 14.679
43 FZ 199 13.702
43 FZ 200 12.726
43 FZ 201 11.749
43 FZ 202 12.238
43 FZ 203 12.238
43 FZ 204 12.238
43 FZ 205 11.749
43 FZ 206 10.284
43 FZ 207 9.308
43 FZ 208 9.796
43 FZ 209 11.749
43 FZ 210 14.191
43 FZ 211 16.632
43 FZ 212 18.097
43 FZ 213 18.097
43 FZ 214 17.609
43 FZ 215 17.120
43 FZ 216 16.632
43 FZ 217 17.120
43 FZ 218 16.632
43 FZ 219 16.632
43 FZ 220 15.656
43 FZ 221 15.656
43 FZ 222 15.167
43 FZ 223 15.656
43 FZ 224 16.144
43 FZ 225 17.120
43 FZ 226 17.609
43 FZ 227 18.097
43 FZ 228 18.097
43 FZ 229 17.120
43 FZ 230 16.632
43 FZ 231 16.632
43 FZ 232 17.609
43 FZ 233 19.073
43 FZ 234 20.050
43 FZ 235 20.050
43 FZ 236 19.073
43 FZ 237 18.097
43 FZ 238 17.120
43 FZ 239 16.632
43 FZ 240 16.144
43 FZ 241 15.656
43 FZ 242 14.679
43 FZ 243 14.191
43 FZ 244 14.191
43 FZ 245 14.191
43 FZ 246 14.679
43 FZ 247 15.167
43 FZ 248 14.679
43 FZ 249 14.191
43 FZ 250 12.726
43 FZ 251 10.773
43 FZ 252 8.820
43 FZ 253 6.866
43 FZ 254 5.402
43 FZ 255 5.402
# F4 chan 7
43 F4 0 -0.214
43 F4 1 -1.678
43 F4 2 -2.167
43 F4 3 -2.167
43 F4 4 -2.167
43 F4 5 -2.655
43 F4 6 -3.143
43 F4 7 -4.120
43 F4 8 -5.096
43 F4 9 -5.096
43 F4 10 -3.632
43 F4 11 -1.678
43 F4 12 0.763
43 F4 13 2.716
43 F4 14 4.181
43 F4 15 5.157
43 F4 16 5.157
43 F4 17 5.157
43 F4 18 5.157
43 F4 19 4.669
43 F4 20 5.157
43 F4 21 5.646
43 F4 22 6.622
43 F4 23 8.087
43 F4 24 8.575
43 F4 25 8.087
43 F4 26 7.111
43 F4 27 5.646
43 F4 28 4.669
43 F4 29 3.204
43 F4 30 2.228
43 F4 31 1.251
43 F4 32 0.763
43 F4 33 0.763
43 F4 34 0.763
43 F4 35 1.740
43 F4 36 1.740
43 F4 37 1.251
43 F4 38 0.763
43 F4 39 1.740
43 F4 40 2.716
43 F4 41 3.693
43 F4 42 3.693
43 F4 43 2.716
43 F4 44 2.716
43 F4 45 3.693
43 F4 46 4.669
43 F4 47 5.646
43 F4 48 5.646
43 F4 49 5.646
43 F4 50 5.646
43 F4 51 5.646
43 F4 52 6.134
43 F4 53 5.646
43 F4 54 4.669
43 F4 55 3.693
43 F4 56 3.204
43 F4 57 3.693
43 F4 58 4.669
43 F4 59 5.157
43 F4 60 4.669
43 F4 61 3.693
43 F4 62 2.228
43 F4 63 0.275
43 F4 64 -1.190
43 F4 65 -2.167
43 F4 66 -2.655
43 F4 67 -3.143
43 F4 68 -2.655
43 F4 69 -2.655
43 F4 70 -2.167
43 F4 71 -2.167
43 F4 72 -2.167
43 F4 73 -1.678
43 F4 74 -1.190
43 F4 75 -1.190
43 F4 76 -0.702
43 F4 77 -0.214
43 F4 78 0.763
43 F4 79 2.228
43 F4 80 4.181
43 F4 81 6.134
43 F4 82 7.599
43 F4 83 9.064
43 F4 84 9.552
43 F4 85 10.040
43 F4 86 9.552
43 F4 87 9.064
43 F4 88 8.575
43 F4 89 9.064
43 F4 90 10.040
43 F4 91 11.505
43 F4 92 12.482
43 F4 93 11.993
43 F4 94 11.505
43 F4 95 10.529
43 F4 96 10.529
43 F4 97 10.529
43 F4 98 9.552
43 F4 99 8.087
43 F4 100 5.646
43 F4 101 3.693
43 F4 102 3.204
43 F4 103 2.716
43 F4 104 2.716
43 F4 105 1.251
43 F4 106 -0.214
43 F4 107 -1.678
43 F4 108 -1.190
43 F4 109 0.275
43 F4 110 2.228
43 F4 111 4.181
43 F4 112 4.669
43 F4 113 4.181
43 F4 114 3.693
43 F4 115 3.693
43 F4 116 4.181
43 F4 117 4.181
43 F4 118 5.157
43 F4 119 6.622
43 F4 120 8.575
43 F4 121 11.017
43 F4 122 12.482
43 F4 123 12.970
43 F4 124 11.505
43 F4 125 10.040
43 F4 126 8.575
43 F4 127 9.064
43 F4 128 9.552
43 F4 129 9.552
43 F4 130 8.575
43 F4 131 6.622
43 F4 132 4.669
43 F4 133 3.693
43 F4 134 3.693
43 F4 135 4.669
43 F4 136 6.622
43 F4 137 7.599
43 F4 138 8.087
43 F4 139 8.575
43 F4 140 8.575
43 F4 141 8.087
43 F4 142 7.599
43 F4 143 7.111
43 F4 144 7.599
43 F4 145 8.087
43 F4 146 9.552
43 F4 147 11.505
43 F4 148 12.970
43 F4 149 14.435
43 F4 150 14.923
43 F4 151 15.411
43 F4 152 15.900
43 F4 153 16.388
43 F4 154 16.876
43 F4 155 16.876
43 F4 156 17.365
43 F4 157 17.853
43 F4 158 18.829
43 F4 159 19.806
43 F4 160 20.782
43 F4 161 21.271
43 F4 162 21.271
43 F4 163 22.247
43 F4 164 23.224
43 F4 165 24.689
43 F4 166 25.665
43 F4 167 26.642
43 F4 168 27.130
43 F4 169 27.130
43 F4 170 27.618
43 F4 171 27.618
43 F4 172 26.642
43 F4 173 26.154
43 F4 174 24.689
43 F4 175 24.200
43 F4 176 23.712
43 F4 177 24.200
43 F4 178 24.689
43 F4 179 25.665
43 F4 180 25.665
43 F4 181 24.689
43 F4 182 22.736
43 F4 183 21.271
43 F4 184 20.294
43 F4 185 20.782
43 F4 186 22.247
43 F4 187 23.712
43 F4 188 24.200
43 F4 189 23.224
43 F4 190 22.736
43 F4 191 22.736
43 F4 192 23.712
43 F4 193 25.177
43 F4 194 25.177
43 F4 195 24.689
43 F4 196 23.224
43 F4 197 21.759
43 F4 198 19.806
43 F4 199 17.853
43 F4 200 16.388
43 F4 201 14.923
43 F4 202 13.947
43 F4 203 13.947
43 F4 204 13.947
43 F4 205 13.458
43 F4 206 12.970
43 F4 207 11.993
43 F4 208 12.970
43 F4 209 14.435
43 F4 210 17.365
43 F4 211 20.294
43 F4 212 20.782
43 F4 213 20.294
43 F4 214 18.829
43 F4 215 17.365
43 F4 216 16.388
43 F4 217 16.388
43 F4 218 16.388
43 F4 219 16.876
43 F4 220 16.388
43 F4 221 15.900
43 F4 222 15.900
43 F4 223 15.411
43 F4 224 15.411
43 F4 225 15.900
43 F4 226 16.876
43 F4 227 17.365
43 F4 228 17.365
43 F4 229 16.876
43 F4 230 16.876
43 F4 231 17.853
43 F4 232 20.294
43 F4 233 23.224
43 F4 234 25.177
43 F4 235 24.689
43 F4 236 23.712
43 F4 237 22.247
43 F4 238 21.271
43 F4 239 20.782
43 F4 240 20.294
43 F4 241 19.806
43 F4 242 18.829
43 F4 243 17.853
43 F4 244 17.365
43 F4 245 17.365
43 F4 246 17.365
43 F4 247 16.876
43 F4 248 16.388
43 F4 249 15.411
43 F4 250 13.458
43 F4 251 11.017
43 F4 252 8.575
43 F4 253 6.134
43 F4 254 4.669
43 F4 255 4.669
# F3 chan 8
43 F3 0 -3.805
43 F3 1 -4.781
43 F3 2 -4.781
43 F3 3 -2.828
43 F3 4 -0.387
43 F3 5 2.055
43 F3 6 3.031
43 F3 7 2.543
43 F3 8 1.567
43 F3 9 1.567
43 F3 10 2.543
43 F3 11 4.985
43 F3 12 6.449
43 F3 13 6.449
43 F3 14 4.496
43 F3 15 2.543
43 F3 16 0.590
43 F3 17 0.102
43 F3 18 0.102
43 F3 19 0.102
43 F3 20 -0.387
43 F3 21 -0.875
43 F3 22 -0.875
43 F3 23 0.102
43 F3 24 1.567
43 F3 25 3.520
43 F3 26 4.496
43 F3 27 4.496
43 F3 28 4.008
43 F3 29 4.008
43 F3 30 4.008
43 F3 31 4.008
43 F3 32 4.008
43 F3 33 4.008
43 F3 34 4.008
43 F3 35 4.496
43 F3 36 4.496
43 F3 37 3.520
43 F3 38 2.543
43 F3 39 1.078
43 F3 40 0.590
43 F3 41 0.590
43 F3 42 1.567
43 F3 43 1.078
43 F3 44 0.102
43 F3 45 -0.875
43 F3 46 -1.363
43 F3 47 -0.875
43 F3 48 0.590
43 F3 49 2.543
43 F3 50 4.008
43 F3 51 4.496
43 F3 52 4.496
43 F3 53 3.031
43 F3 54 2.055
43 F3 55 2.055
43 F3 56 3.031
43 F3 57 4.985
43 F3 58 6.449
43 F3 59 6.449
43 F3 60 4.985
43 F3 61 3.031
43 F3 62 1.078
43 F3 63 0.102
43 F3 64 -0.387
43 F3 65 -0.387
43 F3 66 -1.851
43 F3 67 -3.316
43 F3 68 -4.781
43 F3 69 -5.758
43 F3 70 -5.269
43 F3 71 -3.316
43 F3 72 -0.387
43 F3 73 2.543
43 F3 74 4.008
43 F3 75 4.496
43 F3 76 4.008
43 F3 77 4.496
43 F3 78 5.473
43 F3 79 6.938
43 F3 80 7.914
43 F3 81 7.914
43 F3 82 7.426
43 F3 83 6.938
43 F3 84 6.938
43 F3 85 6.938
43 F3 86 6.938
43 F3 87 6.449
43 F3 88 5.473
43 F3 89 4.496
43 F3 90 4.496
43 F3 91 4.985
43 F3 92 5.473
43 F3 93 5.473
43 F3 94 5.961
43 F3 95 6.938
43 F3 96 8.891
43 F3 97 11.332
43 F3 98 12.309
43 F3 99 11.820
43 F3 100 9.867
43 F3 101 7.426
43 F3 102 4.985
43 F3 103 3.520
43 F3 104 3.031
43 F3 105 2.543
43 F3 106 2.543
43 F3 107 2.055
43 F3 108 2.055
43 F3 109 2.543
43 F3 110 3.520
43 F3 111 4.008
43 F3 112 4.008
43 F3 113 4.008
43 F3 114 4.496
43 F3 115 5.473
43 F3 116 6.449
43 F3 117 7.914
43 F3 118 9.379
43 F3 119 10.844
43 F3 120 12.309
43 F3 121 13.285
43 F3 122 14.750
43 F3 123 14.750
43 F3 124 14.262
43 F3 125 13.285
43 F3 126 12.309
43 F3 127 11.820
43 F3 128 12.309
43 F3 129 12.797
43 F3 130 13.285
43 F3 131 13.774
43 F3 132 13.285
43 F3 133 12.309
43 F3 134 10.844
43 F3 135 8.891
43 F3 136 7.426
43 F3 137 6.449
43 F3 138 6.938
43 F3 139 8.403
43 F3 140 10.356
43 F3 141 12.309
43 F3 142 13.285
43 F3 143 14.262
43 F3 144 14.262
43 F3 145 15.238
43 F3 146 16.215
43 F3 147 17.192
43 F3 148 18.168
43 F3 149 18.168
43 F3 150 17.192
43 F3 151 15.727
43 F3 152 14.750
43 F3 153 14.262
43 F3 154 14.750
43 F3 155 15.727
43 F3 156 16.215
43 F3 157 16.703
43 F3 158 15.727
43 F3 159 15.238
43 F3 160 15.238
43 F3 161 15.727
43 F3 162 17.192
43 F3 163 18.656
43 F3 164 19.633
43 F3 165 20.610
43 F3 166 21.098
43 F3 167 22.074
43 F3 168 23.539
43 F3 169 24.516
43 F3 170 25.004
43 F3 171 24.028
43 F3 172 22.563
43 F3 173 21.586
43 F3 174 20.610
43 F3 175 20.121
43 F3 176 20.121
43 F3 177 19.633
43 F3 178 19.633
43 F3 179 20.121
43 F3 180 20.610
43 F3 181 21.098
43 F3 182 20.610
43 F3 183 20.610
43 F3 184 20.610
43 F3 185 21.098
43 F3 186 22.074
43 F3 187 22.074
43 F3 188 22.074
43 F3 189 22.074
43 F3 190 21.586
43 F3 191 21.586
43 F3 192 21.586
43 F3 193 21.098
43 F3 194 20.121
43 F3 195 19.145
43 F3 196 17.192
43 F3 197 15.238
43 F3 198 12.797
43 F3 199 10.844
43 F3 200 9.867
43 F3 201 9.867
43 F3 202 12.309
43 F3 203 14.262
43 F3 204 15.727
43 F3 205 15.727
43 F3 206 14.750
43 F3 207 14.262
43 F3 208 14.262
43 F3 209 16.703
43 F3 210 20.121
43 F3 211 23.051
43 F3 212 24.516
43 F3 213 24.028
43 F3 214 23.051
43 F3 215 21.586
43 F3 216 21.098
43 F3 217 21.098
43 F3 218 20.610
43 F3 219 19.633
43 F3 220 18.656
43 F3 221 18.168
43 F3 222 19.145
43 F3 223 19.633
43 F3 224 20.121
43 F3 225 20.121
43 F3 226 20.121
43 F3 227 19.633
43 F3 228 19.633
43 F3 229 19.633
43 F3 230 19.633
43 F3 231 19.633
43 F3 232 20.610
43 F3 233 21.098
43 F3 234 21.586
43 F3 235 21.098
43 F3 236 20.121
43 F3 237 18.656
43 F3 238 17.680
43 F3 239 17.680
43 F3 240 17.680
43 F3 241 17.680
43 F3 242 16.703
43 F3 243 15.727
43 F3 244 14.750
43 F3 245 14.262
43 F3 246 14.750
43 F3 247 15.238
43 F3 248 15.727
43 F3 249 15.727
43 F3 250 14.750
43 F3 251 13.285
43 F3 252 10.844
43 F3 253 8.891
43 F3 254 8.403
43 F3 255 9.379
# FC6 chan 9
43 FC6 0 11.871
43 FC6 1 10.895
43 FC6 2 9.918
43 FC6 3 8.453
43 FC6 4 6.012
43 FC6 5 3.571
43 FC6 6 0.641
43 FC6 7 -1.801
43 FC6 8 -3.265
43 FC6 9 -3.754
43 FC6 10 -2.777
43 FC6 11 -0.824
43 FC6 12 0.641
43 FC6 13 2.106
43 FC6 14 2.594
43 FC6 15 3.082
43 FC6 16 3.571
43 FC6 17 3.571
43 FC6 18 4.547
43 FC6 19 5.035
43 FC6 20 5.524
43 FC6 21 6.012
43 FC6 22 6.500
43 FC6 23 7.477
43 FC6 24 7.965
43 FC6 25 8.453
43 FC6 26 8.453
43 FC6 27 7.477
43 FC6 28 6.500
43 FC6 29 5.524
43 FC6 30 5.524
43 FC6 31 5.035
43 FC6 32 4.547
43 FC6 33 4.059
43 FC6 34 3.082
43 FC6 35 2.106
43 FC6 36 1.617
43 FC6 37 1.617
43 FC6 38 2.594
43 FC6 39 4.059
43 FC6 40 6.012
43 FC6 41 6.500
43 FC6 42 6.500
43 FC6 43 6.500
43 FC6 44 6.012
43 FC6 45 6.500
43 FC6 46 6.989
43 FC6 47 7.477
43 FC6 48 6.989
43 FC6 49 6.989
43 FC6 50 6.989
43 FC6 51 6.989
43 FC6 52 7.477
43 FC6 53 7.477
43 FC6 54 6.989
43 FC6 55 6.012
43 FC6 56 4.547
43 FC6 57 3.571
43 FC6 58 3.571
43 FC6 59 4.059
43 FC6 60 4.547
43 FC6 61 5.035
43 FC6 62 5.524
43 FC6 63 5.035
43 FC6 64 5.035
43 FC6 65 4.547
43 FC6 66 4.547
43 FC6 67 5.035
43 FC6 68 6.012
43 FC6 69 7.477
43 FC6 70 8.942
43 FC6 71 9.430
43 FC6 72 8.942
43 FC6 73 7.477
43 FC6 74 5.524
43 FC6 75 4.547
43 FC6 76 3.571
43 FC6 77 3.571
43 FC6 78 4.059
43 FC6 79 4.059
43 FC6 80 4.059
43 FC6 81 4.059
43 FC6 82 4.059
43 FC6 83 5.035
43 FC6 84 5.524
43 FC6 85 5.035
43 FC6 86 3.571
43 FC6 87 2.594
43 FC6 88 2.106
43 FC6 89 3.571
43 FC6 90 5.524
43 FC6 91 7.965
43 FC6 92 9.430
43 FC6 93 9.918
43 FC6 94 9.430
43 FC6 95 9.430
43 FC6 96 9.918
43 FC6 97 10.895
43 FC6 98 11.383
43 FC6 99 10.406
43 FC6 100 8.942
43 FC6 101 7.477
43 FC6 102 6.989
43 FC6 103 6.989
43 FC6 104 6.500
43 FC6 105 5.035
43 FC6 106 3.082
43 FC6 107 2.594
43 FC6 108 3.082
43 FC6 109 4.547
43 FC6 110 6.989
43 FC6 111 8.453
43 FC6 112 8.942
43 FC6 113 6.989
43 FC6 114 5.035
43 FC6 115 3.571
43 FC6 116 3.082
43 FC6 117 3.082
43 FC6 118 5.035
43 FC6 119 7.477
43 FC6 120 10.406
43 FC6 121 12.848
43 FC6 122 13.824
43 FC6 123 13.824
43 FC6 124 12.848
43 FC6 125 12.360
43 FC6 126 11.871
43 FC6 127 11.871
43 FC6 128 12.360
43 FC6 129 11.871
43 FC6 130 11.383
43 FC6 131 10.895
43 FC6 132 11.383
43 FC6 133 12.360
43 FC6 134 12.848
43 FC6 135 13.336
43 FC6 136 13.336
43 FC6 137 13.336
43 FC6 138 13.336
43 FC6 139 13.336
43 FC6 140 13.336
43 FC6 141 13.336
43 FC6 142 13.336
43 FC6 143 12.848
43 FC6 144 12.360
43 FC6 145 12.360
43 FC6 146 13.336
43 FC6 147 14.313
43 FC6 148 15.289
43 FC6 149 15.778
43 FC6 150 16.266
43 FC6 151 16.754
43 FC6 152 17.242
43 FC6 153 18.219
43 FC6 154 19.196
43 FC6 155 19.196
43 FC6 156 19.684
43 FC6 157 19.196
43 FC6 158 19.196
43 FC6 159 20.172
43 FC6 160 21.149
43 FC6 161 21.637
43 FC6 162 22.125
43 FC6 163 22.125
43 FC6 164 22.125
43 FC6 165 22.614
43 FC6 166 22.614
43 FC6 167 22.614
43 FC6 168 22.125
43 FC6 169 22.125
43 FC6 170 21.149
43 FC6 171 20.172
43 FC6 172 18.707
43 FC6 173 17.242
43 FC6 174 15.289
43 FC6 175 13.824
43 FC6 176 12.848
43 FC6 177 12.848
43 FC6 178 13.824
43 FC6 179 14.801
43 FC6 180 15.289
43 FC6 181 14.313
43 FC6 182 13.336
43 FC6 183 11.871
43 FC6 184 11.383
43 FC6 185 12.360
43 FC6 186 13.824
43 FC6 187 15.289
43 FC6 188 15.778
43 FC6 189 15.289
43 FC6 190 14.801
43 FC6 191 14.313
43 FC6 192 16.266
43 FC6 193 18.219
43 FC6 194 20.172
43 FC6 195 21.149
43 FC6 196 21.149
43 FC6 197 19.684
43 FC6 198 17.731
43 FC6 199 15.289
43 FC6 200 13.824
43 FC6 201 12.848
43 FC6 202 12.360
43 FC6 203 12.360
43 FC6 204 12.848
43 FC6 205 12.360
43 FC6 206 11.383
43 FC6 207 11.383
43 FC6 208 11.383
43 FC6 209 13.336
43 FC6 210 15.778
43 FC6 211 18.219
43 FC6 212 19.196
43 FC6 213 18.707
43 FC6 214 17.242
43 FC6 215 16.266
43 FC6 216 14.801
43 FC6 217 13.824
43 FC6 218 13.824
43 FC6 219 13.336
43 FC6 220 13.336
43 FC6 221 13.336
43 FC6 222 12.848
43 FC6 223 12.360
43 FC6 224 11.871
43 FC6 225 12.360
43 FC6 226 12.848
43 FC6 227 12.848
43 FC6 228 12.360
43 FC6 229 10.895
43 FC6 230 10.895
43 FC6 231 12.360
43 FC6 232 15.778
43 FC6 233 19.684
43 FC6 234 22.125
43 FC6 235 22.125
43 FC6 236 20.660
43 FC6 237 18.707
43 FC6 238 17.731
43 FC6 239 17.731
43 FC6 240 17.731
43 FC6 241 17.242
43 FC6 242 16.266
43 FC6 243 15.778
43 FC6 244 15.778
43 FC6 245 16.266
43 FC6 246 16.754
43 FC6 247 16.754
43 FC6 248 15.289
43 FC6 249 13.336
43 FC6 250 10.895
43 FC6 251 8.942
43 FC6 252 7.477
43 FC6 253 6.012
43 FC6 254 5.035
43 FC6 255 4.059
# FC5 chan 10
43 FC5 0 -0.905
43 FC5 1 -0.417
43 FC5 2 1.048
43 FC5 3 2.513
43 FC5 4 4.954
43 FC5 5 5.931
43 FC5 6 6.419
43 FC5 7 5.442
43 FC5 8 3.977
43 FC5 9 3.001
43 FC5 10 3.001
43 FC5 11 3.489
43 FC5 12 3.489
43 FC5 13 3.001
43 FC5 14 1.048
43 FC5 15 -1.394
43 FC5 16 -2.858
43 FC5 17 -3.835
43 FC5 18 -2.858
43 FC5 19 -2.370
43 FC5 20 -1.882
43 FC5 21 -2.370
43 FC5 22 -2.858
43 FC5 23 -2.370
43 FC5 24 -1.394
43 FC5 25 0.559
43 FC5 26 2.513
43 FC5 27 4.466
43 FC5 28 6.419
43 FC5 29 7.395
43 FC5 30 7.884
43 FC5 31 7.884
43 FC5 32 7.395
43 FC5 33 6.907
43 FC5 34 6.419
43 FC5 35 5.931
43 FC5 36 4.466
43 FC5 37 3.001
43 FC5 38 0.559
43 FC5 39 -0.905
43 FC5 40 -1.882
43 FC5 41 -1.394
43 FC5 42 -1.394
43 FC5 43 -1.882
43 FC5 44 -2.858
43 FC5 45 -4.323
43 FC5 46 -5.300
43 FC5 47 -4.812
43 FC5 48 -3.835
43 FC5 49 -1.882
43 FC5 50 -0.417
43 FC5 51 0.071
43 FC5 52 -0.417
43 FC5 53 -1.394
43 FC5 54 -2.370
43 FC5 55 -2.858
43 FC5 56 -2.370
43 FC5 57 -0.905
43 FC5 58 0.071
43 FC5 59 0.559
43 FC5 60 0.071
43 FC5 61 -1.394
43 FC5 62 -2.370
43 FC5 63 -2.858
43 FC5 64 -2.858
43 FC5 65 -2.370
43 FC5 66 -1.882
43 FC5 67 -1.882
43 FC5 68 -0.905
43 FC5 69 0.559
43 FC5 70 2.513
43 FC5 71 4.954
43 FC5 72 6.907
43 FC5 73 7.395
43 FC5 74 6.907
43 FC5 75 5.931
43 FC5 76 4.954
43 FC5 77 4.466
43 FC5 78 3.977
43 FC5 79 3.977
43 FC5 80 3.489
43 FC5 81 2.513
43 FC5 82 0.559
43 FC5 83 -1.394
43 FC5 84 -3.347
43 FC5 85 -4.323
43 FC5 86 -5.300
43 FC5 87 -5.788
43 FC5 88 -5.788
43 FC5 89 -5.788
43 FC5 90 -5.300
43 FC5 91 -4.323
43 FC5 92 -3.347
43 FC5 93 -2.370
43 FC5 94 -0.905
43 FC5 95 1.048
43 FC5 96 3.977
43 FC5 97 7.884
43 FC5 98 10.325
43 FC5 99 11.790
43 FC5 100 10.325
43 FC5 101 8.372
43 FC5 102 5.931
43 FC5 103 3.977
43 FC5 104 3.001
43 FC5 105 2.513
43 FC5 106 2.513
43 FC5 107 3.001
43 FC5 108 3.489
43 FC5 109 4.954
43 FC5 110 5.931
43 FC5 111 5.931
43 FC5 112 5.442
43 FC5 113 3.977
43 FC5 114 3.489
43 FC5 115 3.977
43 FC5 116 4.954
43 FC5 117 6.907
43 FC5 118 8.372
43 FC5 119 10.325
43 FC5 120 12.278
43 FC5 121 13.743
43 FC5 122 14.720
43 FC5 123 14.720
43 FC5 124 14.231
43 FC5 125 13.255
43 FC5 126 12.278
43 FC5 127 12.278
43 FC5 128 12.278
43 FC5 129 12.767
43 FC5 130 13.255
43 FC5 131 13.743
43 FC5 132 14.231
43 FC5 133 14.720
43 FC5 134 14.720
43 FC5 135 13.743
43 FC5 136 12.767
43 FC5 137 11.790
43 FC5 138 10.813
43 FC5 139 11.302
43 FC5 140 12.767
43 FC5 141 14.231
43 FC5 142 15.208
43 FC5 143 16.184
43 FC5 144 17.161
43 FC5 145 17.649
43 FC5 146 18.626
43 FC5 147 20.091
43 FC5 148 20.579
43 FC5 149 20.579
43 FC5 150 19.114
43 FC5 151 16.673
43 FC5 152 15.208
43 FC5 153 14.231
43 FC5 154 14.720
43 FC5 155 14.720
43 FC5 156 14.720
43 FC5 157 13.743
43 FC5 158 11.790
43 FC5 159 10.325
43 FC5 160 9.837
43 FC5 161 10.325
43 FC5 162 11.790
43 FC5 163 12.767
43 FC5 164 12.767
43 FC5 165 12.767
43 FC5 166 12.767
43 FC5 167 12.767
43 FC5 168 12.767
43 FC5 169 13.743
43 FC5 170 13.743
43 FC5 171 13.255
43 FC5 172 12.767
43 FC5 173 11.790
43 FC5 174 11.790
43 FC5 175 10.813
43 FC5 176 10.325
43 FC5 177 8.860
43 FC5 178 7.884
43 FC5 179 7.395
43 FC5 180 7.395
43 FC5 181 7.395
43 FC5 182 7.395
43 FC5 183 7.884
43 FC5 184 7.884
43 FC5 185 8.860
43 FC5 186 9.837
43 FC5 187 9.837
43 FC5 188 9.837
43 FC5 189 10.325
43 FC5 190 12.278
43 FC5 191 13.743
43 FC5 192 14.720
43 FC5 193 14.231
43 FC5 194 12.767
43 FC5 195 10.325
43 FC5 196 7.884
43 FC5 197 5.931
43 FC5 198 3.977
43 FC5 199 2.024
43 FC5 200 1.536
43 FC5 201 2.513
43 FC5 202 4.466
43 FC5 203 7.395
43 FC5 204 9.837
43 FC5 205 11.790
43 FC5 206 12.767
43 FC5 207 13.743
43 FC5 208 15.208
43 FC5 209 17.161
43 FC5 210 19.602
43 FC5 211 21.556
43 FC5 212 22.044
43 FC5 213 21.067
43 FC5 214 19.602
43 FC5 215 19.114
43 FC5 216 18.626
43 FC5 217 18.626
43 FC5 218 17.649
43 FC5 219 15.696
43 FC5 220 13.743
43 FC5 221 12.767
43 FC5 222 12.767
43 FC5 223 13.743
43 FC5 224 14.720
43 FC5 225 15.208
43 FC5 226 14.720
43 FC5 227 14.231
43 FC5 228 13.743
43 FC5 229 13.743
43 FC5 230 14.231
43 FC5 231 15.208
43 FC5 232 16.184
43 FC5 233 16.673
43 FC5 234 17.161
43 FC5 235 16.673
43 FC5 236 16.184
43 FC5 237 15.208
43 FC5 238 14.720
43 FC5 239 14.720
43 FC5 240 15.208
43 FC5 241 15.208
43 FC5 242 13.743
43 FC5 243 12.278
43 FC5 244 10.813
43 FC5 245 9.349
43 FC5 246 9.349
43 FC5 247 9.837
43 FC5 248 11.302
43 FC5 249 11.302
43 FC5 250 11.302
43 FC5 251 9.837
43 FC5 252 8.372
43 FC5 253 8.372
43 FC5 254 8.860
43 FC5 255 9.837
# FC2 chan 11
43 FC2 0 -0.092
43 FC2 1 -1.068
43 FC2 2 -2.045
43 FC2 3 -2.533
43 FC2 4 -2.533
43 FC2 5 -2.045
43 FC2 6 -2.045
43 FC2 7 -2.045
43 FC2 8 -2.045
43 FC2 9 -2.045
43 FC2 10 -1.068
43 FC2 11 -0.092
43 FC2 12 1.373
43 FC2 13 2.350
43 FC2 14 2.838
43 FC2 15 3.326
43 FC2 16 3.326
43 FC2 17 3.326
43 FC2 18 3.326
43 FC2 19 2.838
43 FC2 20 2.350
43 FC2 21 1.862
43 FC2 22 1.862
43 FC2 23 2.350
43 FC2 24 3.326
43 FC2 25 3.815
43 FC2 26 3.326
43 FC2 27 1.862
43 FC2 28 0.885
43 FC2 29 -0.092
43 FC2 30 -0.580
43 FC2 31 -1.068
43 FC2 32 -1.068
43 FC2 33 -0.580
43 FC2 34 -0.580
43 FC2 35 -0.092
43 FC2 36 -0.092
43 FC2 37 -0.092
43 FC2 38 0.397
43 FC2 39 0.885
43 FC2 40 1.373
43 FC2 41 1.862
43 FC2 42 1.862
43 FC2 43 1.862
43 FC2 44 1.862
43 FC2 45 2.838
43 FC2 46 3.326
43 FC2 47 3.815
43 FC2 48 4.303
43 FC2 49 3.815
43 FC2 50 3.815
43 FC2 51 3.815
43 FC2 52 3.815
43 FC2 53 4.303
43 FC2 54 3.815
43 FC2 55 3.326
43 FC2 56 2.838
43 FC2 57 2.838
43 FC2 58 2.838
43 FC2 59 2.838
43 FC2 60 3.326
43 FC2 61 2.838
43 FC2 62 2.838
43 FC2 63 1.862
43 FC2 64 1.862
43 FC2 65 1.373
43 FC2 66 0.885
43 FC2 67 0.397
43 FC2 68 -0.092
43 FC2 69 -0.580
43 FC2 70 -1.068
43 FC2 71 -1.068
43 FC2 72 -1.556
43 FC2 73 -1.556
43 FC2 74 -1.068
43 FC2 75 -1.068
43 FC2 76 -1.068
43 FC2 77 -0.580
43 FC2 78 0.397
43 FC2 79 1.862
43 FC2 80 2.838
43 FC2 81 4.303
43 FC2 82 5.280
43 FC2 83 6.256
43 FC2 84 6.744
43 FC2 85 7.721
43 FC2 86 7.721
43 FC2 87 7.721
43 FC2 88 7.233
43 FC2 89 7.233
43 FC2 90 7.721
43 FC2 91 7.721
43 FC2 92 7.721
43 FC2 93 6.744
43 FC2 94 6.256
43 FC2 95 5.280
43 FC2 96 4.791
43 FC2 97 4.303
43 FC2 98 3.326
43 FC2 99 1.862
43 FC2 100 0.885
43 FC2 101 -0.092
43 FC2 102 -0.092
43 FC2 103 -0.092
43 FC2 104 -0.092
43 FC2 105 -1.068
43 FC2 106 -2.045
43 FC2 107 -2.533
43 FC2 108 -2.533
43 FC2 109 -2.045
43 FC2 110 -1.556
43 FC2 111 -1.556
43 FC2 112 -1.068
43 FC2 113 -1.068
43 FC2 114 -1.068
43 FC2 115 -1.556
43 FC2 116 -1.556
43 FC2 117 -2.045
43 FC2 118 -1.556
43 FC2 119 -1.556
43 FC2 120 -0.580
43 FC2 121 0.397
43 FC2 122 1.373
43 FC2 123 2.350
43 FC2 124 2.350
43 FC2 125 2.350
43 FC2 126 2.350
43 FC2 127 2.838
43 FC2 128 2.838
43 FC2 129 2.350
43 FC2 130 1.862
43 FC2 131 0.397
43 FC2 132 -0.580
43 FC2 133 -1.556
43 FC2 134 -1.068
43 FC2 135 -1.556
43 FC2 136 -0.580
43 FC2 137 -0.092
43 FC2 138 0.397
43 FC2 139 0.885
43 FC2 140 0.885
43 FC2 141 1.373
43 FC2 142 0.885
43 FC2 143 0.885
43 FC2 144 0.885
43 FC2 145 1.373
43 FC2 146 2.350
43 FC2 147 3.326
43 FC2 148 3.815
43 FC2 149 4.303
43 FC2 150 4.303
43 FC2 151 4.791
43 FC2 152 5.280
43 FC2 153 5.768
43 FC2 154 5.768
43 FC2 155 6.256
43 FC2 156 6.256
43 FC2 157 6.744
43 FC2 158 6.744
43 FC2 159 6.744
43 FC2 160 7.233
43 FC2 161 7.233
43 FC2 162 7.721
43 FC2 163 7.721
43 FC2 164 8.698
43 FC2 165 9.674
43 FC2 166 11.139
43 FC2 167 12.115
43 FC2 168 12.604
43 FC2 169 12.604
43 FC2 170 12.604
43 FC2 171 12.604
43 FC2 172 12.604
43 FC2 173 12.604
43 FC2 174 11.627
43 FC2 175 10.651
43 FC2 176 10.162
43 FC2 177 9.674
43 FC2 178 10.162
43 FC2 179 10.651
43 FC2 180 11.139
43 FC2 181 11.139
43 FC2 182 10.651
43 FC2 183 9.674
43 FC2 184 9.186
43 FC2 185 9.674
43 FC2 186 11.627
43 FC2 187 13.092
43 FC2 188 13.580
43 FC2 189 13.580
43 FC2 190 13.092
43 FC2 191 13.092
43 FC2 192 12.604
43 FC2 193 12.604
43 FC2 194 13.092
43 FC2 195 13.092
43 FC2 196 12.604
43 FC2 197 11.627
43 FC2 198 11.139
43 FC2 199 10.162
43 FC2 200 9.186
43 FC2 201 8.209
43 FC2 202 7.233
43 FC2 203 5.768
43 FC2 204 4.791
43 FC2 205 3.815
43 FC2 206 3.326
43 FC2 207 2.838
43 FC2 208 2.838
43 FC2 209 3.815
43 FC2 210 5.280
43 FC2 211 6.744
43 FC2 212 7.721
43 FC2 213 7.721
43 FC2 214 7.233
43 FC2 215 7.233
43 FC2 216 6.744
43 FC2 217 6.744
43 FC2 218 6.744
43 FC2 219 6.744
43 FC2 220 6.744
43 FC2 221 6.256
43 FC2 222 5.768
43 FC2 223 5.280
43 FC2 224 5.280
43 FC2 225 5.768
43 FC2 226 6.744
43 FC2 227 7.233
43 FC2 228 7.233
43 FC2 229 7.233
43 FC2 230 6.744
43 FC2 231 7.233
43 FC2 232 8.209
43 FC2 233 10.162
43 FC2 234 11.139
43 FC2 235 11.139
43 FC2 236 11.139
43 FC2 237 10.651
43 FC2 238 10.162
43 FC2 239 10.162
43 FC2 240 9.674
43 FC2 241 9.186
43 FC2 242 8.698
43 FC2 243 8.209
43 FC2 244 8.209
43 FC2 245 8.698
43 FC2 246 8.698
43 FC2 247 8.209
43 FC2 248 8.209
43 FC2 249 6.744
43 FC2 250 5.768
43 FC2 251 4.303
43 FC2 252 2.838
43 FC2 253 1.862
43 FC2 254 0.885
43 FC2 255 0.397
# FC1 chan 12
43 FC1 0 -2.950
43 FC1 1 -2.950
43 FC1 2 -2.950
43 FC1 3 -1.485
43 FC1 4 -0.020
43 FC1 5 0.956
43 FC1 6 1.933
43 FC1 7 1.444
43 FC1 8 0.956
43 FC1 9 0.956
43 FC1 10 1.444
43 FC1 11 2.421
43 FC1 12 3.398
43 FC1 13 2.909
43 FC1 14 1.933
43 FC1 15 0.956
43 FC1 16 -0.020
43 FC1 17 -0.020
43 FC1 18 -0.020
43 FC1 19 -0.509
43 FC1 20 -0.509
43 FC1 21 -0.997
43 FC1 22 -0.020
43 FC1 23 0.956
43 FC1 24 2.421
43 FC1 25 3.398
43 FC1 26 3.398
43 FC1 27 2.909
43 FC1 28 2.909
43 FC1 29 2.909
43 FC1 30 2.909
43 FC1 31 2.421
43 FC1 32 1.933
43 FC1 33 1.444
43 FC1 34 1.444
43 FC1 35 1.933
43 FC1 36 1.933
43 FC1 37 1.444
43 FC1 38 -0.020
43 FC1 39 -1.485
43 FC1 40 -1.973
43 FC1 41 -1.485
43 FC1 42 -0.020
43 FC1 43 0.468
43 FC1 44 0.956
43 FC1 45 0.956
43 FC1 46 1.444
43 FC1 47 2.421
43 FC1 48 3.398
43 FC1 49 4.374
43 FC1 50 4.862
43 FC1 51 4.374
43 FC1 52 3.886
43 FC1 53 2.909
43 FC1 54 2.909
43 FC1 55 2.909
43 FC1 56 3.398
43 FC1 57 3.886
43 FC1 58 3.398
43 FC1 59 2.909
43 FC1 60 1.933
43 FC1 61 0.468
43 FC1 62 -0.509
43 FC1 63 -0.997
43 FC1 64 -0.997
43 FC1 65 -0.997
43 FC1 66 -1.485
43 FC1 67 -1.973
43 FC1 68 -2.462
43 FC1 69 -3.438
43 FC1 70 -3.927
43 FC1 71 -2.950
43 FC1 72 -1.485
43 FC1 73 -0.020
43 FC1 74 1.444
43 FC1 75 1.933
43 FC1 76 1.933
43 FC1 77 2.421
43 FC1 78 3.398
43 FC1 79 4.862
43 FC1 80 5.351
43 FC1 81 5.351
43 FC1 82 4.862
43 FC1 83 4.862
43 FC1 84 5.351
43 FC1 85 6.327
43 FC1 86 6.327
43 FC1 87 5.839
43 FC1 88 5.351
43 FC1 89 4.862
43 FC1 90 4.374
43 FC1 91 4.862
43 FC1 92 4.374
43 FC1 93 4.374
43 FC1 94 3.886
43 FC1 95 3.886
43 FC1 96 4.374
43 FC1 97 4.862
43 FC1 98 4.862
43 FC1 99 4.862
43 FC1 100 3.886
43 FC1 101 2.909
43 FC1 102 1.444
43 FC1 103 0.468
43 FC1 104 0.468
43 FC1 105 -0.020
43 FC1 106 -0.020
43 FC1 107 -0.020
43 FC1 108 -0.020
43 FC1 109 -0.020
43 FC1 110 -0.020
43 FC1 111 -0.020
43 FC1 112 -0.020
43 FC1 113 0.468
43 FC1 114 0.956
43 FC1 115 2.421
43 FC1 116 2.909
43 FC1 117 3.886
43 FC1 118 3.886
43 FC1 119 3.886
43 FC1 120 4.374
43 FC1 121 4.862
43 FC1 122 4.862
43 FC1 123 4.862
43 FC1 124 4.374
43 FC1 125 3.886
43 FC1 126 2.909
43 FC1 127 2.909
43 FC1 128 2.909
43 FC1 129 3.886
43 FC1 130 3.886
43 FC1 131 3.886
43 FC1 132 3.398
43 FC1 133 2.421
43 FC1 134 1.444
43 FC1 135 0.956
43 FC1 136 0.468
43 FC1 137 0.956
43 FC1 138 1.444
43 FC1 139 2.421
43 FC1 140 3.398
43 FC1 141 4.374
43 FC1 142 5.351
43 FC1 143 5.351
43 FC1 144 5.839
43 FC1 145 6.327
43 FC1 146 6.816
43 FC1 147 7.304
43 FC1 148 7.304
43 FC1 149 6.816
43 FC1 150 6.327
43 FC1 151 5.351
43 FC1 152 5.351
43 FC1 153 4.862
43 FC1 154 4.862
43 FC1 155 5.351
43 FC1 156 6.327
43 FC1 157 6.327
43 FC1 158 5.839
43 FC1 159 5.351
43 FC1 160 4.862
43 FC1 161 4.374
43 FC1 162 4.862
43 FC1 163 5.839
43 FC1 164 6.327
43 FC1 165 7.304
43 FC1 166 7.792
43 FC1 167 8.769
43 FC1 168 9.745
43 FC1 169 10.722
43 FC1 170 10.722
43 FC1 171 11.210
43 FC1 172 10.234
43 FC1 173 9.745
43 FC1 174 9.257
43 FC1 175 9.257
43 FC1 176 9.257
43 FC1 177 8.769
43 FC1 178 8.769
43 FC1 179 9.257
43 FC1 180 9.257
43 FC1 181 9.745
43 FC1 182 9.257
43 FC1 183 9.257
43 FC1 184 9.257
43 FC1 185 9.745
43 FC1 186 10.722
43 FC1 187 11.210
43 FC1 188 11.698
43 FC1 189 11.698
43 FC1 190 11.698
43 FC1 191 11.698
43 FC1 192 11.210
43 FC1 193 10.722
43 FC1 194 10.234
43 FC1 195 9.257
43 FC1 196 7.792
43 FC1 197 6.327
43 FC1 198 4.862
43 FC1 199 3.886
43 FC1 200 3.886
43 FC1 201 3.886
43 FC1 202 4.374
43 FC1 203 4.862
43 FC1 204 5.351
43 FC1 205 5.351
43 FC1 206 5.351
43 FC1 207 4.862
43 FC1 208 4.862
43 FC1 209 5.351
43 FC1 210 6.816
43 FC1 211 7.792
43 FC1 212 8.769
43 FC1 213 8.769
43 FC1 214 8.280
43 FC1 215 8.769
43 FC1 216 8.769
43 FC1 217 8.769
43 FC1 218 8.280
43 FC1 219 7.304
43 FC1 220 6.327
43 FC1 221 5.839
43 FC1 222 5.839
43 FC1 223 6.327
43 FC1 224 6.816
43 FC1 225 7.304
43 FC1 226 7.304
43 FC1 227 7.304
43 FC1 228 7.304
43 FC1 229 7.792
43 FC1 230 7.304
43 FC1 231 7.304
43 FC1 232 7.792
43 FC1 233 8.280
43 FC1 234 8.280
43 FC1 235 8.280
43 FC1 236 7.792
43 FC1 237 7.792
43 FC1 238 8.280
43 FC1 239 8.280
43 FC1 240 8.769
43 FC1 241 8.280
43 FC1 242 7.792
43 FC1 243 6.327
43 FC1 244 5.839
43 FC1 245 5.351
43 FC1 246 5.839
43 FC1 247 5.839
43 FC1 248 6.327
43 FC1 249 6.816
43 FC1 250 6.327
43 FC1 251 5.351
43 FC1 252 4.374
43 FC1 253 2.909
43 FC1 254 2.421
43 FC1 255 2.909
# T8 chan 13
43 T8 0 16.774
43 T8 1 17.263
43 T8 2 18.239
43 T8 3 19.216
43 T8 4 18.239
43 T8 5 13.845
43 T8 6 5.544
43 T8 7 -1.780
43 T8 8 -5.686
43 T8 9 -5.686
43 T8 10 -3.245
43 T8 11 -2.268
43 T8 12 -2.757
43 T8 13 -3.733
43 T8 14 -3.245
43 T8 15 -0.315
43 T8 16 3.591
43 T8 17 6.032
43 T8 18 5.544
43 T8 19 4.079
43 T8 20 3.591
43 T8 21 4.079
43 T8 22 5.056
43 T8 23 6.032
43 T8 24 7.497
43 T8 25 10.427
43 T8 26 13.845
43 T8 27 16.286
43 T8 28 16.286
43 T8 29 12.868
43 T8 30 7.985
43 T8 31 4.079
43 T8 32 3.591
43 T8 33 5.056
43 T8 34 7.009
43 T8 35 7.497
43 T8 36 6.032
43 T8 37 4.079
43 T8 38 3.591
43 T8 39 4.079
43 T8 40 5.056
43 T8 41 5.056
43 T8 42 4.079
43 T8 43 2.126
43 T8 44 0.173
43 T8 45 0.173
43 T8 46 1.638
43 T8 47 2.126
43 T8 48 2.614
43 T8 49 2.126
43 T8 50 2.126
43 T8 51 2.126
43 T8 52 3.103
43 T8 53 4.567
43 T8 54 5.544
43 T8 55 5.544
43 T8 56 5.056
43 T8 57 3.103
43 T8 58 0.173
43 T8 59 -1.292
43 T8 60 -0.315
43 T8 61 1.638
43 T8 62 4.567
43 T8 63 7.009
43 T8 64 8.474
43 T8 65 8.474
43 T8 66 9.450
43 T8 67 10.915
43 T8 68 12.380
43 T8 69 13.845
43 T8 70 14.333
43 T8 71 14.821
43 T8 72 14.821
43 T8 73 14.333
43 T8 74 12.380
43 T8 75 8.474
43 T8 76 4.567
43 T8 77 3.103
43 T8 78 4.567
43 T8 79 7.985
43 T8 80 10.915
43 T8 81 10.915
43 T8 82 7.985
43 T8 83 4.079
43 T8 84 0.661
43 T8 85 -0.804
43 T8 86 -1.780
43 T8 87 -2.757
43 T8 88 -3.733
43 T8 89 -4.222
43 T8 90 -0.804
43 T8 91 4.567
43 T8 92 8.474
43 T8 93 9.939
43 T8 94 7.985
43 T8 95 5.544
43 T8 96 5.544
43 T8 97 7.497
43 T8 98 11.403
43 T8 99 13.357
43 T8 100 14.333
43 T8 101 14.821
43 T8 102 15.310
43 T8 103 15.798
43 T8 104 14.821
43 T8 105 11.403
43 T8 106 7.009
43 T8 107 4.567
43 T8 108 5.544
43 T8 109 7.985
43 T8 110 9.450
43 T8 111 9.450
43 T8 112 7.497
43 T8 113 6.521
43 T8 114 7.009
43 T8 115 8.474
43 T8 116 9.939
43 T8 117 9.939
43 T8 118 8.962
43 T8 119 9.450
43 T8 120 11.403
43 T8 121 13.357
43 T8 122 14.333
43 T8 123 13.357
43 T8 124 11.403
43 T8 125 9.450
43 T8 126 8.962
43 T8 127 11.403
43 T8 128 13.845
43 T8 129 15.798
43 T8 130 15.798
43 T8 131 13.845
43 T8 132 13.357
43 T8 133 14.333
43 T8 134 17.263
43 T8 135 19.704
43 T8 136 20.192
43 T8 137 18.239
43 T8 138 15.310
43 T8 139 13.845
43 T8 140 15.310
43 T8 141 16.774
43 T8 142 17.751
43 T8 143 16.286
43 T8 144 13.845
43 T8 145 12.868
43 T8 146 13.845
43 T8 147 15.798
43 T8 148 17.263
43 T8 149 16.286
43 T8 150 14.333
43 T8 151 12.380
43 T8 152 12.380
43 T8 153 15.310
43 T8 154 19.216
43 T8 155 22.146
43 T8 156 22.146
43 T8 157 19.704
43 T8 158 16.774
43 T8 159 15.798
43 T8 160 16.286
43 T8 161 17.751
43 T8 162 18.239
43 T8 163 17.263
43 T8 164 14.821
43 T8 165 12.868
43 T8 166 10.915
43 T8 167 9.939
43 T8 168 8.962
43 T8 169 8.474
43 T8 170 7.497
43 T8 171 7.009
43 T8 172 6.032
43 T8 173 4.567
43 T8 174 2.614
43 T8 175 0.661
43 T8 176 -0.315
43 T8 177 -0.315
43 T8 178 -0.804
43 T8 179 -1.292
43 T8 180 -1.780
43 T8 181 -0.804
43 T8 182 1.638
43 T8 183 4.079
43 T8 184 4.567
43 T8 185 4.079
43 T8 186 3.103
43 T8 187 2.614
43 T8 188 4.079
43 T8 189 5.544
43 T8 190 6.032
43 T8 191 4.079
43 T8 192 2.614
43 T8 193 4.079
43 T8 194 8.962
43 T8 195 15.310
43 T8 196 19.216
43 T8 197 17.751
43 T8 198 12.868
43 T8 199 7.497
43 T8 200 4.079
43 T8 201 5.056
43 T8 202 7.497
43 T8 203 9.450
43 T8 204 9.450
43 T8 205 8.962
43 T8 206 9.450
43 T8 207 10.915
43 T8 208 13.357
43 T8 209 14.821
43 T8 210 15.310
43 T8 211 14.821
43 T8 212 14.821
43 T8 213 14.821
43 T8 214 14.821
43 T8 215 13.357
43 T8 216 11.403
43 T8 217 9.939
43 T8 218 10.915
43 T8 219 13.357
43 T8 220 15.310
43 T8 221 14.821
43 T8 222 12.868
43 T8 223 10.427
43 T8 224 9.939
43 T8 225 11.403
43 T8 226 12.868
43 T8 227 10.427
43 T8 228 5.544
43 T8 229 1.638
43 T8 230 1.638
43 T8 231 7.497
43 T8 232 15.798
43 T8 233 22.634
43 T8 234 23.122
43 T8 235 18.728
43 T8 236 14.333
43 T8 237 12.380
43 T8 238 13.357
43 T8 239 14.821
43 T8 240 13.845
43 T8 241 10.915
43 T8 242 8.474
43 T8 243 8.962
43 T8 244 13.357
43 T8 245 18.239
43 T8 246 19.704
43 T8 247 17.263
43 T8 248 12.380
43 T8 249 7.985
43 T8 250 5.544
43 T8 251 5.544
43 T8 252 5.544
43 T8 253 4.567
43 T8 254 2.614
43 T8 255 1.149
# T7 chan 14
43 T7 0 3.835
43 T7 1 4.323
43 T7 2 5.788
43 T7 3 7.253
43 T7 4 8.718
43 T7 5 9.694
43 T7 6 9.206
43 T7 7 7.741
43 T7 8 5.788
43 T7 9 3.835
43 T7 10 2.370
43 T7 11 2.370
43 T7 12 1.882
43 T7 13 1.882
43 T7 14 -0.071
43 T7 15 -2.024
43 T7 16 -3.977
43 T7 17 -4.466
43 T7 18 -3.489
43 T7 19 -2.513
43 T7 20 -2.513
43 T7 21 -2.513
43 T7 22 -3.001
43 T7 23 -3.001
43 T7 24 -2.024
43 T7 25 -0.559
43 T7 26 1.882
43 T7 27 4.323
43 T7 28 7.253
43 T7 29 8.718
43 T7 30 9.694
43 T7 31 9.694
43 T7 32 8.718
43 T7 33 7.741
43 T7 34 6.765
43 T7 35 5.788
43 T7 36 3.835
43 T7 37 1.882
43 T7 38 -0.071
43 T7 39 -2.024
43 T7 40 -3.001
43 T7 41 -3.489
43 T7 42 -4.466
43 T7 43 -5.931
43 T7 44 -7.884
43 T7 45 -9.837
43 T7 46 -10.813
43 T7 47 -10.325
43 T7 48 -8.860
43 T7 49 -6.907
43 T7 50 -6.419
43 T7 51 -6.419
43 T7 52 -7.395
43 T7 53 -7.884
43 T7 54 -8.860
43 T7 55 -8.372
43 T7 56 -7.884
43 T7 57 -6.907
43 T7 58 -6.907
43 T7 59 -6.419
43 T7 60 -6.907
43 T7 61 -6.907
43 T7 62 -6.907
43 T7 63 -6.907
43 T7 64 -5.931
43 T7 65 -4.954
43 T7 66 -4.954
43 T7 67 -3.489
43 T7 68 -2.024
43 T7 69 1.394
43 T7 70 4.812
43 T7 71 7.253
43 T7 72 8.230
43 T7 73 7.253
43 T7 74 5.300
43 T7 75 2.858
43 T7 76 0.905
43 T7 77 -0.559
43 T7 78 -1.536
43 T7 79 -2.513
43 T7 80 -3.489
43 T7 81 -4.466
43 T7 82 -6.419
43 T7 83 -8.372
43 T7 84 -11.302
43 T7 85 -14.231
43 T7 86 -16.673
43 T7 87 -17.649
43 T7 88 -17.649
43 T7 89 -16.673
43 T7 90 -15.208
43 T7 91 -13.255
43 T7 92 -11.790
43 T7 93 -9.837
43 T7 94 -7.395
43 T7 95 -4.466
43 T7 96 -0.559
43 T7 97 3.835
43 T7 98 7.741
43 T7 99 9.694
43 T7 100 9.694
43 T7 101 7.741
43 T7 102 5.300
43 T7 103 3.835
43 T7 104 2.370
43 T7 105 2.370
43 T7 106 2.370
43 T7 107 2.370
43 T7 108 2.858
43 T7 109 3.347
43 T7 110 4.323
43 T7 111 4.323
43 T7 112 3.347
43 T7 113 2.858
43 T7 114 1.394
43 T7 115 1.394
43 T7 116 2.858
43 T7 117 4.812
43 T7 118 7.253
43 T7 119 9.694
43 T7 120 11.648
43 T7 121 13.112
43 T7 122 14.089
43 T7 123 14.089
43 T7 124 13.112
43 T7 125 12.136
43 T7 126 10.671
43 T7 127 10.183
43 T7 128 9.694
43 T7 129 9.206
43 T7 130 9.206
43 T7 131 9.694
43 T7 132 10.183
43 T7 133 11.159
43 T7 134 12.136
43 T7 135 12.136
43 T7 136 11.648
43 T7 137 11.159
43 T7 138 9.694
43 T7 139 9.694
43 T7 140 10.671
43 T7 141 11.648
43 T7 142 12.624
43 T7 143 13.601
43 T7 144 14.577
43 T7 145 16.042
43 T7 146 17.995
43 T7 147 19.460
43 T7 148 19.948
43 T7 149 19.460
43 T7 150 17.507
43 T7 151 15.554
43 T7 152 14.089
43 T7 153 13.112
43 T7 154 13.112
43 T7 155 12.624
43 T7 156 11.648
43 T7 157 10.183
43 T7 158 8.718
43 T7 159 7.253
43 T7 160 7.253
43 T7 161 7.741
43 T7 162 8.230
43 T7 163 8.718
43 T7 164 8.230
43 T7 165 6.765
43 T7 166 5.300
43 T7 167 3.835
43 T7 168 3.835
43 T7 169 4.323
43 T7 170 5.300
43 T7 171 5.788
43 T7 172 5.300
43 T7 173 3.835
43 T7 174 2.370
43 T7 175 0.905
43 T7 176 -0.559
43 T7 177 -2.024
43 T7 178 -3.001
43 T7 179 -3.489
43 T7 180 -3.977
43 T7 181 -4.954
43 T7 182 -4.954
43 T7 183 -4.954
43 T7 184 -3.977
43 T7 185 -3.001
43 T7 186 -2.024
43 T7 187 -1.048
43 T7 188 -1.048
43 T7 189 -0.071
43 T7 190 1.882
43 T7 191 4.323
43 T7 192 6.276
43 T7 193 6.276
43 T7 194 4.812
43 T7 195 2.858
43 T7 196 0.417
43 T7 197 -1.536
43 T7 198 -3.001
43 T7 199 -4.466
43 T7 200 -4.954
43 T7 201 -4.466
43 T7 202 -2.024
43 T7 203 1.394
43 T7 204 4.812
43 T7 205 6.765
43 T7 206 8.230
43 T7 207 9.694
43 T7 208 11.648
43 T7 209 14.577
43 T7 210 17.507
43 T7 211 19.460
43 T7 212 19.948
43 T7 213 18.972
43 T7 214 17.507
43 T7 215 16.530
43 T7 216 16.530
43 T7 217 16.042
43 T7 218 14.089
43 T7 219 11.648
43 T7 220 8.718
43 T7 221 7.741
43 T7 222 7.741
43 T7 223 8.718
43 T7 224 10.183
43 T7 225 11.159
43 T7 226 11.159
43 T7 227 10.671
43 T7 228 10.183
43 T7 229 9.694
43 T7 230 9.694
43 T7 231 10.671
43 T7 232 12.624
43 T7 233 13.601
43 T7 234 14.089
43 T7 235 13.112
43 T7 236 11.648
43 T7 237 10.671
43 T7 238 10.671
43 T7 239 10.671
43 T7 240 10.671
43 T7 241 10.671
43 T7 242 10.183
43 T7 243 8.718
43 T7 244 7.253
43 T7 245 6.276
43 T7 246 5.788
43 T7 247 6.276
43 T7 248 7.253
43 T7 249 8.230
43 T7 250 8.230
43 T7 251 7.741
43 T7 252 6.765
43 T7 253 6.765
43 T7 254 7.741
43 T7 255 8.718
# CZ chan 15
43 CZ 0 10.854
43 CZ 1 10.854
43 CZ 2 12.807
43 CZ 3 14.760
43 CZ 4 16.713
43 CZ 5 16.713
43 CZ 6 14.760
43 CZ 7 11.342
43 CZ 8 7.436
43 CZ 9 3.042
43 CZ 10 0.112
43 CZ 11 0.112
43 CZ 12 2.065
43 CZ 13 5.483
43 CZ 14 7.924
43 CZ 15 7.436
43 CZ 16 4.506
43 CZ 17 1.088
43 CZ 18 -1.353
43 CZ 19 -1.353
43 CZ 20 0.600
43 CZ 21 3.530
43 CZ 22 4.018
43 CZ 23 3.530
43 CZ 24 1.577
43 CZ 25 1.577
43 CZ 26 4.506
43 CZ 27 9.389
43 CZ 28 14.272
43 CZ 29 16.225
43 CZ 30 14.272
43 CZ 31 9.878
43 CZ 32 6.460
43 CZ 33 5.483
43 CZ 34 6.948
43 CZ 35 9.389
43 CZ 36 9.878
43 CZ 37 7.924
43 CZ 38 5.483
43 CZ 39 4.018
43 CZ 40 3.530
43 CZ 41 4.018
43 CZ 42 4.018
43 CZ 43 2.553
43 CZ 44 -0.376
43 CZ 45 -3.794
43 CZ 46 -6.236
43 CZ 47 -6.236
43 CZ 48 -3.794
43 CZ 49 -0.376
43 CZ 50 1.577
43 CZ 51 1.088
43 CZ 52 -2.330
43 CZ 53 -6.236
43 CZ 54 -8.189
43 CZ 55 -6.236
43 CZ 56 -3.306
43 CZ 57 -1.353
43 CZ 58 -3.794
43 CZ 59 -9.165
43 CZ 60 -13.560
43 CZ 61 -14.048
43 CZ 62 -12.095
43 CZ 63 -9.165
43 CZ 64 -9.165
43 CZ 65 -13.560
43 CZ 66 -18.931
43 CZ 67 -23.326
43 CZ 68 -23.814
43 CZ 69 -20.396
43 CZ 70 -15.513
43 CZ 71 -10.630
43 CZ 72 -7.212
43 CZ 73 -5.747
43 CZ 74 -6.724
43 CZ 75 -10.142
43 CZ 76 -13.072
43 CZ 77 -13.560
43 CZ 78 -11.607
43 CZ 79 -8.189
43 CZ 80 -6.236
43 CZ 81 -6.724
43 CZ 82 -9.654
43 CZ 83 -11.607
43 CZ 84 -10.630
43 CZ 85 -7.701
43 CZ 86 -4.283
43 CZ 87 -4.771
43 CZ 88 -7.212
43 CZ 89 -9.654
43 CZ 90 -9.654
43 CZ 91 -6.236
43 CZ 92 -3.306
43 CZ 93 -1.353
43 CZ 94 -2.330
43 CZ 95 -3.306
43 CZ 96 -2.818
43 CZ 97 -1.353
43 CZ 98 -1.841
43 CZ 99 -5.259
43 CZ 100 -11.119
43 CZ 101 -14.537
43 CZ 102 -13.072
43 CZ 103 -7.701
43 CZ 104 -2.330
43 CZ 105 -0.376
43 CZ 106 -2.818
43 CZ 107 -7.701
43 CZ 108 -10.630
43 CZ 109 -11.607
43 CZ 110 -9.654
43 CZ 111 -7.212
43 CZ 112 -5.747
43 CZ 113 -4.283
43 CZ 114 -4.283
43 CZ 115 -5.259
43 CZ 116 -6.236
43 CZ 117 -7.212
43 CZ 118 -4.771
43 CZ 119 2.065
43 CZ 120 10.854
43 CZ 121 18.667
43 CZ 122 21.596
43 CZ 123 19.643
43 CZ 124 14.760
43 CZ 125 10.366
43 CZ 126 7.924
43 CZ 127 6.460
43 CZ 128 4.018
43 CZ 129 0.600
43 CZ 130 -2.818
43 CZ 131 -5.259
43 CZ 132 -5.259
43 CZ 133 -3.306
43 CZ 134 -2.330
43 CZ 135 -2.330
43 CZ 136 -4.283
43 CZ 137 -6.236
43 CZ 138 -7.701
43 CZ 139 -8.189
43 CZ 140 -7.701
43 CZ 141 -8.189
43 CZ 142 -10.142
43 CZ 143 -12.583
43 CZ 144 -14.537
43 CZ 145 -14.048
43 CZ 146 -10.630
43 CZ 147 -6.236
43 CZ 148 -2.818
43 CZ 149 -2.330
43 CZ 150 -6.236
43 CZ 151 -12.095
43 CZ 152 -18.443
43 CZ 153 -23.326
43 CZ 154 -24.302
43 CZ 155 -22.837
43 CZ 156 -19.419
43 CZ 157 -16.978
43 CZ 158 -16.001
43 CZ 159 -17.466
43 CZ 160 -19.908
43 CZ 161 -21.861
43 CZ 162 -23.814
43 CZ 163 -25.279
43 CZ 164 -27.720
43 CZ 165 -30.650
43 CZ 166 -33.091
43 CZ 167 -33.091
43 CZ 168 -31.626
43 CZ 169 -31.626
43 CZ 170 -34.556
43 CZ 171 -39.927
43 CZ 172 -44.810
43 CZ 173 -46.763
43 CZ 174 -44.810
43 CZ 175 -40.904
43 CZ 176 -39.927
43 CZ 177 -40.415
43 CZ 178 -41.392
43 CZ 179 -39.439
43 CZ 180 -35.044
43 CZ 181 -30.650
43 CZ 182 -27.720
43 CZ 183 -27.720
43 CZ 184 -27.720
43 CZ 185 -26.744
43 CZ 186 -25.279
43 CZ 187 -23.814
43 CZ 188 -23.814
43 CZ 189 -24.302
43 CZ 190 -23.814
43 CZ 191 -20.884
43 CZ 192 -16.978
43 CZ 193 -13.560
43 CZ 194 -11.607
43 CZ 195 -12.095
43 CZ 196 -13.560
43 CZ 197 -16.001
43 CZ 198 -17.955
43 CZ 199 -19.419
43 CZ 200 -19.908
43 CZ 201 -20.396
43 CZ 202 -19.908
43 CZ 203 -19.419
43 CZ 204 -18.443
43 CZ 205 -17.466
43 CZ 206 -16.001
43 CZ 207 -14.048
43 CZ 208 -11.119
43 CZ 209 -7.701
43 CZ 210 -3.794
43 CZ 211 -0.376
43 CZ 212 3.042
43 CZ 213 4.506
43 CZ 214 4.018
43 CZ 215 2.065
43 CZ 216 -0.376
43 CZ 217 -2.330
43 CZ 218 -3.306
43 CZ 219 -2.818
43 CZ 220 -2.818
43 CZ 221 -4.283
43 CZ 222 -7.212
43 CZ 223 -9.654
43 CZ 224 -9.654
43 CZ 225 -5.747
43 CZ 226 0.112
43 CZ 227 3.042
43 CZ 228 2.065
43 CZ 229 -1.353
43 CZ 230 -3.306
43 CZ 231 -1.353
43 CZ 232 4.995
43 CZ 233 11.342
43 CZ 234 13.295
43 CZ 235 9.878
43 CZ 236 4.018
43 CZ 237 0.112
43 CZ 238 -0.376
43 CZ 239 1.577
43 CZ 240 2.553
43 CZ 241 1.577
43 CZ 242 -1.353
43 CZ 243 -3.306
43 CZ 244 -4.283
43 CZ 245 -3.794
43 CZ 246 -3.306
43 CZ 247 -2.330
43 CZ 248 -0.865
43 CZ 249 0.112
43 CZ 250 0.112
43 CZ 251 -2.330
43 CZ 252 -5.747
43 CZ 253 -9.165
43 CZ 254 -9.654
43 CZ 255 -7.212
# C3 chan 16
43 C3 0 1.699
43 C3 1 3.164
43 C3 2 5.117
43 C3 3 6.582
43 C3 4 7.558
43 C3 5 7.558
43 C3 6 6.093
43 C3 7 4.628
43 C3 8 3.164
43 C3 9 2.675
43 C3 10 2.675
43 C3 11 1.699
43 C3 12 -0.254
43 C3 13 -2.696
43 C3 14 -4.649
43 C3 15 -6.114
43 C3 16 -6.114
43 C3 17 -4.649
43 C3 18 -3.184
43 C3 19 -2.207
43 C3 20 -1.231
43 C3 21 -0.254
43 C3 22 -0.254
43 C3 23 0.234
43 C3 24 1.211
43 C3 25 2.187
43 C3 26 4.140
43 C3 27 6.093
43 C3 28 7.558
43 C3 29 8.046
43 C3 30 7.558
43 C3 31 7.070
43 C3 32 6.582
43 C3 33 6.582
43 C3 34 5.605
43 C3 35 3.652
43 C3 36 0.722
43 C3 37 -2.696
43 C3 38 -5.137
43 C3 39 -6.602
43 C3 40 -6.114
43 C3 41 -5.137
43 C3 42 -4.161
43 C3 43 -3.672
43 C3 44 -3.672
43 C3 45 -4.161
43 C3 46 -3.672
43 C3 47 -2.207
43 C3 48 -0.743
43 C3 49 0.722
43 C3 50 1.211
43 C3 51 0.234
43 C3 52 -0.254
43 C3 53 -0.743
43 C3 54 -0.254
43 C3 55 0.234
43 C3 56 0.234
43 C3 57 -0.743
43 C3 58 -1.719
43 C3 59 -3.184
43 C3 60 -4.161
43 C3 61 -5.137
43 C3 62 -4.649
43 C3 63 -3.672
43 C3 64 -2.207
43 C3 65 -0.743
43 C3 66 0.234
43 C3 67 1.699
43 C3 68 3.164
43 C3 69 5.117
43 C3 70 6.582
43 C3 71 7.558
43 C3 72 7.558
43 C3 73 7.070
43 C3 74 6.582
43 C3 75 5.117
43 C3 76 4.140
43 C3 77 2.675
43 C3 78 1.211
43 C3 79 0.234
43 C3 80 -1.231
43 C3 81 -3.184
43 C3 82 -5.137
43 C3 83 -6.602
43 C3 84 -6.602
43 C3 85 -7.090
43 C3 86 -7.090
43 C3 87 -7.579
43 C3 88 -7.579
43 C3 89 -6.602
43 C3 90 -5.625
43 C3 91 -4.161
43 C3 92 -3.184
43 C3 93 -1.719
43 C3 94 -0.254
43 C3 95 2.187
43 C3 96 5.117
43 C3 97 7.558
43 C3 98 9.511
43 C3 99 10.000
43 C3 100 8.535
43 C3 101 7.558
43 C3 102 5.605
43 C3 103 4.628
43 C3 104 3.652
43 C3 105 3.164
43 C3 106 3.652
43 C3 107 4.628
43 C3 108 5.117
43 C3 109 5.117
43 C3 110 4.140
43 C3 111 3.164
43 C3 112 2.675
43 C3 113 2.675
43 C3 114 3.164
43 C3 115 4.140
43 C3 116 4.628
43 C3 117 5.605
43 C3 118 7.070
43 C3 119 7.558
43 C3 120 7.558
43 C3 121 7.070
43 C3 122 6.582
43 C3 123 6.093
43 C3 124 4.628
43 C3 125 4.140
43 C3 126 3.164
43 C3 127 3.164
43 C3 128 4.140
43 C3 129 5.117
43 C3 130 6.582
43 C3 131 7.070
43 C3 132 7.558
43 C3 133 7.558
43 C3 134 7.558
43 C3 135 7.558
43 C3 136 7.558
43 C3 137 7.070
43 C3 138 7.070
43 C3 139 7.070
43 C3 140 7.070
43 C3 141 8.046
43 C3 142 8.046
43 C3 143 8.535
43 C3 144 9.023
43 C3 145 9.511
43 C3 146 10.000
43 C3 147 10.976
43 C3 148 11.464
43 C3 149 10.976
43 C3 150 9.511
43 C3 151 8.046
43 C3 152 7.070
43 C3 153 7.070
43 C3 154 7.070
43 C3 155 6.093
43 C3 156 5.605
43 C3 157 5.117
43 C3 158 4.140
43 C3 159 3.652
43 C3 160 4.140
43 C3 161 4.628
43 C3 162 5.117
43 C3 163 4.628
43 C3 164 3.652
43 C3 165 2.675
43 C3 166 1.699
43 C3 167 1.699
43 C3 168 2.675
43 C3 169 2.187
43 C3 170 2.187
43 C3 171 1.699
43 C3 172 1.699
43 C3 173 2.187
43 C3 174 2.187
43 C3 175 2.187
43 C3 176 1.211
43 C3 177 1.211
43 C3 178 1.211
43 C3 179 1.211
43 C3 180 0.722
43 C3 181 -0.254
43 C3 182 -0.743
43 C3 183 0.234
43 C3 184 1.211
43 C3 185 1.699
43 C3 186 1.211
43 C3 187 1.211
43 C3 188 2.675
43 C3 189 4.628
43 C3 190 6.582
43 C3 191 7.558
43 C3 192 7.070
43 C3 193 5.117
43 C3 194 3.164
43 C3 195 1.699
43 C3 196 -0.254
43 C3 197 -1.719
43 C3 198 -2.696
43 C3 199 -3.184
43 C3 200 -2.207
43 C3 201 -0.254
43 C3 202 1.699
43 C3 203 4.140
43 C3 204 5.605
43 C3 205 7.070
43 C3 206 8.046
43 C3 207 9.023
43 C3 208 10.000
43 C3 209 10.488
43 C3 210 10.976
43 C3 211 10.488
43 C3 212 9.023
43 C3 213 8.046
43 C3 214 7.558
43 C3 215 8.046
43 C3 216 7.558
43 C3 217 6.093
43 C3 218 4.628
43 C3 219 3.652
43 C3 220 3.652
43 C3 221 4.140
43 C3 222 4.628
43 C3 223 5.117
43 C3 224 5.605
43 C3 225 6.582
43 C3 226 7.070
43 C3 227 6.582
43 C3 228 5.117
43 C3 229 5.117
43 C3 230 5.117
43 C3 231 5.605
43 C3 232 5.117
43 C3 233 4.628
43 C3 234 4.140
43 C3 235 4.140
43 C3 236 4.628
43 C3 237 5.117
43 C3 238 5.117
43 C3 239 5.605
43 C3 240 5.117
43 C3 241 4.628
43 C3 242 3.164
43 C3 243 1.211
43 C3 244 -0.254
43 C3 245 -1.231
43 C3 246 -0.254
43 C3 247 1.211
43 C3 248 2.187
43 C3 249 2.675
43 C3 250 3.164
43 C3 251 3.652
43 C3 252 4.628
43 C3 253 5.605
43 C3 254 6.093
43 C3 255 5.605
# C4 chan 17
43 C4 0 4.517
43 C4 1 4.517
43 C4 2 3.540
43 C4 3 2.075
43 C4 4 0.122
43 C4 5 -1.343
43 C4 6 -0.854
43 C4 7 -0.366
43 C4 8 -0.366
43 C4 9 -0.854
43 C4 10 -1.831
43 C4 11 -1.831
43 C4 12 -1.831
43 C4 13 -0.854
43 C4 14 0.122
43 C4 15 0.122
43 C4 16 0.610
43 C4 17 1.099
43 C4 18 0.610
43 C4 19 0.610
43 C4 20 -0.366
43 C4 21 -0.366
43 C4 22 1.099
43 C4 23 2.075
43 C4 24 3.052
43 C4 25 3.052
43 C4 26 2.075
43 C4 27 2.075
43 C4 28 1.099
43 C4 29 1.099
43 C4 30 1.587
43 C4 31 2.075
43 C4 32 2.075
43 C4 33 2.075
43 C4 34 1.099
43 C4 35 0.122
43 C4 36 -0.366
43 C4 37 -0.854
43 C4 38 0.122
43 C4 39 1.099
43 C4 40 1.587
43 C4 41 1.099
43 C4 42 0.122
43 C4 43 -0.854
43 C4 44 -0.854
43 C4 45 -0.854
43 C4 46 -1.831
43 C4 47 -1.831
43 C4 48 -1.831
43 C4 49 -0.854
43 C4 50 0.122
43 C4 51 1.099
43 C4 52 2.075
43 C4 53 2.563
43 C4 54 2.563
43 C4 55 2.075
43 C4 56 1.099
43 C4 57 1.099
43 C4 58 1.099
43 C4 59 1.587
43 C4 60 2.075
43 C4 61 3.540
43 C4 62 4.517
43 C4 63 5.493
43 C4 64 5.981
43 C4 65 6.470
43 C4 66 6.470
43 C4 67 6.958
43 C4 68 8.911
43 C4 69 10.864
43 C4 70 11.353
43 C4 71 10.864
43 C4 72 8.911
43 C4 73 6.958
43 C4 74 5.493
43 C4 75 4.517
43 C4 76 3.052
43 C4 77 1.587
43 C4 78 0.122
43 C4 79 -0.854
43 C4 80 -0.854
43 C4 81 -0.854
43 C4 82 -0.366
43 C4 83 0.122
43 C4 84 0.610
43 C4 85 0.610
43 C4 86 -0.366
43 C4 87 -0.854
43 C4 88 -0.854
43 C4 89 0.122
43 C4 90 1.587
43 C4 91 2.563
43 C4 92 3.052
43 C4 93 2.563
43 C4 94 3.052
43 C4 95 4.517
43 C4 96 5.981
43 C4 97 6.470
43 C4 98 6.470
43 C4 99 5.981
43 C4 100 6.470
43 C4 101 7.446
43 C4 102 7.446
43 C4 103 6.958
43 C4 104 5.005
43 C4 105 3.052
43 C4 106 2.563
43 C4 107 3.052
43 C4 108 4.028
43 C4 109 4.517
43 C4 110 4.517
43 C4 111 3.540
43 C4 112 1.587
43 C4 113 -0.366
43 C4 114 -2.808
43 C4 115 -4.272
43 C4 116 -4.272
43 C4 117 -2.808
43 C4 118 -1.831
43 C4 119 -0.854
43 C4 120 -0.366
43 C4 121 -0.366
43 C4 122 0.610
43 C4 123 2.075
43 C4 124 3.540
43 C4 125 5.005
43 C4 126 5.981
43 C4 127 7.446
43 C4 128 7.935
43 C4 129 8.423
43 C4 130 8.911
43 C4 131 8.911
43 C4 132 9.888
43 C4 133 10.376
43 C4 134 9.888
43 C4 135 8.911
43 C4 136 7.446
43 C4 137 5.981
43 C4 138 5.981
43 C4 139 6.958
43 C4 140 7.935
43 C4 141 8.423
43 C4 142 8.423
43 C4 143 8.423
43 C4 144 8.423
43 C4 145 8.423
43 C4 146 9.399
43 C4 147 9.888
43 C4 148 9.888
43 C4 149 9.399
43 C4 150 9.399
43 C4 151 9.399
43 C4 152 9.888
43 C4 153 9.399
43 C4 154 8.911
43 C4 155 7.935
43 C4 156 6.958
43 C4 157 6.958
43 C4 158 6.958
43 C4 159 6.958
43 C4 160 7.446
43 C4 161 7.446
43 C4 162 7.446
43 C4 163 7.935
43 C4 164 8.423
43 C4 165 8.423
43 C4 166 8.911
43 C4 167 7.935
43 C4 168 7.935
43 C4 169 7.446
43 C4 170 7.446
43 C4 171 7.446
43 C4 172 6.958
43 C4 173 5.005
43 C4 174 3.540
43 C4 175 2.075
43 C4 176 0.610
43 C4 177 0.122
43 C4 178 0.122
43 C4 179 1.099
43 C4 180 1.587
43 C4 181 1.099
43 C4 182 0.610
43 C4 183 1.099
43 C4 184 1.587
43 C4 185 3.052
43 C4 186 4.517
43 C4 187 5.493
43 C4 188 5.981
43 C4 189 5.981
43 C4 190 5.981
43 C4 191 6.958
43 C4 192 8.423
43 C4 193 9.888
43 C4 194 10.864
43 C4 195 11.841
43 C4 196 11.841
43 C4 197 11.841
43 C4 198 10.864
43 C4 199 9.888
43 C4 200 8.423
43 C4 201 7.935
43 C4 202 7.446
43 C4 203 7.446
43 C4 204 6.958
43 C4 205 5.493
43 C4 206 4.517
43 C4 207 4.028
43 C4 208 4.517
43 C4 209 6.470
43 C4 210 7.446
43 C4 211 8.911
43 C4 212 8.911
43 C4 213 8.423
43 C4 214 6.958
43 C4 215 6.470
43 C4 216 5.981
43 C4 217 5.981
43 C4 218 5.981
43 C4 219 5.981
43 C4 220 5.493
43 C4 221 5.005
43 C4 222 4.028
43 C4 223 3.540
43 C4 224 3.540
43 C4 225 4.028
43 C4 226 4.517
43 C4 227 4.028
43 C4 228 2.563
43 C4 229 1.587
43 C4 230 2.075
43 C4 231 4.028
43 C4 232 6.470
43 C4 233 8.423
43 C4 234 9.399
43 C4 235 9.399
43 C4 236 8.911
43 C4 237 8.911
43 C4 238 8.911
43 C4 239 8.423
43 C4 240 7.935
43 C4 241 6.958
43 C4 242 6.958
43 C4 243 7.446
43 C4 244 7.935
43 C4 245 8.423
43 C4 246 7.935
43 C4 247 6.470
43 C4 248 5.005
43 C4 249 3.540
43 C4 250 2.563
43 C4 251 2.075
43 C4 252 2.075
43 C4 253 1.099
43 C4 254 -0.366
43 C4 255 -1.343
# CP5 chan 18
43 CP5 0 5.452
43 CP5 1 7.406
43 CP5 2 9.359
43 CP5 3 11.312
43 CP5 4 11.800
43 CP5 5 11.312
43 CP5 6 9.847
43 CP5 7 7.894
43 CP5 8 5.452
43 CP5 9 4.476
43 CP5 10 3.499
43 CP5 11 3.011
43 CP5 12 1.546
43 CP5 13 -0.895
43 CP5 14 -2.848
43 CP5 15 -3.825
43 CP5 16 -3.337
43 CP5 17 -2.360
43 CP5 18 -1.383
43 CP5 19 -0.895
43 CP5 20 -1.383
43 CP5 21 -1.872
43 CP5 22 -1.872
43 CP5 23 -1.872
43 CP5 24 -0.407
43 CP5 25 1.546
43 CP5 26 4.964
43 CP5 27 7.894
43 CP5 28 9.847
43 CP5 29 11.312
43 CP5 30 11.312
43 CP5 31 10.824
43 CP5 32 9.847
43 CP5 33 8.870
43 CP5 34 7.894
43 CP5 35 5.452
43 CP5 36 3.011
43 CP5 37 0.570
43 CP5 38 -1.383
43 CP5 39 -3.337
43 CP5 40 -4.313
43 CP5 41 -5.290
43 CP5 42 -6.266
43 CP5 43 -7.731
43 CP5 44 -8.708
43 CP5 45 -9.196
43 CP5 46 -9.196
43 CP5 47 -7.731
43 CP5 48 -6.755
43 CP5 49 -5.290
43 CP5 50 -4.801
43 CP5 51 -4.801
43 CP5 52 -5.290
43 CP5 53 -4.801
43 CP5 54 -4.313
43 CP5 55 -3.337
43 CP5 56 -2.848
43 CP5 57 -3.825
43 CP5 58 -4.801
43 CP5 59 -5.778
43 CP5 60 -6.266
43 CP5 61 -5.290
43 CP5 62 -3.337
43 CP5 63 -2.360
43 CP5 64 -1.872
43 CP5 65 -1.383
43 CP5 66 -0.895
43 CP5 67 1.058
43 CP5 68 3.988
43 CP5 69 6.917
43 CP5 70 8.870
43 CP5 71 9.359
43 CP5 72 8.382
43 CP5 73 6.917
43 CP5 74 4.964
43 CP5 75 3.499
43 CP5 76 1.058
43 CP5 77 -0.407
43 CP5 78 -1.872
43 CP5 79 -2.848
43 CP5 80 -4.313
43 CP5 81 -6.266
43 CP5 82 -9.196
43 CP5 83 -12.126
43 CP5 84 -14.079
43 CP5 85 -15.055
43 CP5 86 -16.032
43 CP5 87 -16.520
43 CP5 88 -16.032
43 CP5 89 -14.567
43 CP5 90 -12.614
43 CP5 91 -10.173
43 CP5 92 -8.219
43 CP5 93 -6.755
43 CP5 94 -4.313
43 CP5 95 -0.407
43 CP5 96 4.476
43 CP5 97 8.870
43 CP5 98 11.800
43 CP5 99 12.777
43 CP5 100 11.800
43 CP5 101 10.824
43 CP5 102 9.359
43 CP5 103 8.382
43 CP5 104 6.917
43 CP5 105 5.452
43 CP5 106 4.964
43 CP5 107 5.452
43 CP5 108 6.429
43 CP5 109 5.941
43 CP5 110 4.964
43 CP5 111 3.499
43 CP5 112 1.546
43 CP5 113 0.570
43 CP5 114 0.570
43 CP5 115 2.035
43 CP5 116 3.011
43 CP5 117 4.964
43 CP5 118 6.429
43 CP5 119 7.894
43 CP5 120 8.382
43 CP5 121 8.870
43 CP5 122 8.382
43 CP5 123 7.894
43 CP5 124 6.429
43 CP5 125 5.941
43 CP5 126 5.452
43 CP5 127 4.964
43 CP5 128 4.964
43 CP5 129 4.964
43 CP5 130 4.964
43 CP5 131 5.452
43 CP5 132 6.429
43 CP5 133 7.406
43 CP5 134 7.894
43 CP5 135 7.894
43 CP5 136 7.406
43 CP5 137 6.429
43 CP5 138 5.941
43 CP5 139 5.941
43 CP5 140 6.429
43 CP5 141 6.917
43 CP5 142 7.406
43 CP5 143 8.382
43 CP5 144 9.359
43 CP5 145 10.335
43 CP5 146 11.800
43 CP5 147 13.265
43 CP5 148 13.753
43 CP5 149 13.265
43 CP5 150 11.800
43 CP5 151 9.847
43 CP5 152 8.870
43 CP5 153 8.382
43 CP5 154 7.406
43 CP5 155 6.429
43 CP5 156 5.452
43 CP5 157 4.476
43 CP5 158 3.499
43 CP5 159 3.988
43 CP5 160 4.476
43 CP5 161 5.452
43 CP5 162 5.941
43 CP5 163 5.452
43 CP5 164 3.499
43 CP5 165 1.058
43 CP5 166 -0.895
43 CP5 167 -1.383
43 CP5 168 -1.383
43 CP5 169 -0.895
43 CP5 170 -0.895
43 CP5 171 -1.383
43 CP5 172 -1.872
43 CP5 173 -2.848
43 CP5 174 -3.825
43 CP5 175 -4.801
43 CP5 176 -5.290
43 CP5 177 -5.778
43 CP5 178 -5.290
43 CP5 179 -5.290
43 CP5 180 -6.755
43 CP5 181 -8.708
43 CP5 182 -9.684
43 CP5 183 -8.708
43 CP5 184 -7.243
43 CP5 185 -6.755
43 CP5 186 -6.755
43 CP5 187 -6.755
43 CP5 188 -5.290
43 CP5 189 -2.360
43 CP5 190 1.058
43 CP5 191 3.011
43 CP5 192 2.523
43 CP5 193 1.546
43 CP5 194 0.570
43 CP5 195 -0.895
43 CP5 196 -2.360
43 CP5 197 -3.825
43 CP5 198 -6.266
43 CP5 199 -6.755
43 CP5 200 -5.778
43 CP5 201 -3.825
43 CP5 202 -1.872
43 CP5 203 0.570
43 CP5 204 2.035
43 CP5 205 3.499
43 CP5 206 5.452
43 CP5 207 7.406
43 CP5 208 9.359
43 CP5 209 10.824
43 CP5 210 12.288
43 CP5 211 12.288
43 CP5 212 11.800
43 CP5 213 11.312
43 CP5 214 10.335
43 CP5 215 10.335
43 CP5 216 8.870
43 CP5 217 7.406
43 CP5 218 5.452
43 CP5 219 3.988
43 CP5 220 3.988
43 CP5 221 3.988
43 CP5 222 3.988
43 CP5 223 4.476
43 CP5 224 5.452
43 CP5 225 6.429
43 CP5 226 6.429
43 CP5 227 5.452
43 CP5 228 3.499
43 CP5 229 2.523
43 CP5 230 3.011
43 CP5 231 3.988
43 CP5 232 4.476
43 CP5 233 4.476
43 CP5 234 3.988
43 CP5 235 3.499
43 CP5 236 3.499
43 CP5 237 3.988
43 CP5 238 3.499
43 CP5 239 3.011
43 CP5 240 3.011
43 CP5 241 3.011
43 CP5 242 2.035
43 CP5 243 0.081
43 CP5 244 -1.383
43 CP5 245 -1.872
43 CP5 246 -0.407
43 CP5 247 1.058
43 CP5 248 2.035
43 CP5 249 2.035
43 CP5 250 2.035
43 CP5 251 3.011
43 CP5 252 4.476
43 CP5 253 6.429
43 CP5 254 6.429
43 CP5 255 5.941
# CP6 chan 19
43 CP6 0 10.600
43 CP6 1 11.088
43 CP6 2 11.088
43 CP6 3 10.111
43 CP6 4 7.670
43 CP6 5 4.740
43 CP6 6 2.299
43 CP6 7 -0.142
43 CP6 8 -2.096
43 CP6 9 -3.560
43 CP6 10 -5.025
43 CP6 11 -5.514
43 CP6 12 -6.002
43 CP6 13 -5.514
43 CP6 14 -3.560
43 CP6 15 -2.096
43 CP6 16 -0.631
43 CP6 17 0.834
43 CP6 18 1.322
43 CP6 19 1.811
43 CP6 20 2.299
43 CP6 21 3.276
43 CP6 22 4.252
43 CP6 23 6.205
43 CP6 24 7.670
43 CP6 25 9.623
43 CP6 26 10.600
43 CP6 27 10.111
43 CP6 28 10.111
43 CP6 29 10.111
43 CP6 30 9.135
43 CP6 31 8.647
43 CP6 32 7.670
43 CP6 33 5.229
43 CP6 34 2.787
43 CP6 35 -0.142
43 CP6 36 -2.096
43 CP6 37 -2.584
43 CP6 38 -2.096
43 CP6 39 -1.607
43 CP6 40 -1.607
43 CP6 41 -2.584
43 CP6 42 -4.537
43 CP6 43 -6.002
43 CP6 44 -6.978
43 CP6 45 -7.467
43 CP6 46 -7.467
43 CP6 47 -6.978
43 CP6 48 -6.002
43 CP6 49 -4.049
43 CP6 50 -2.096
43 CP6 51 -0.142
43 CP6 52 1.322
43 CP6 53 1.811
43 CP6 54 1.811
43 CP6 55 1.322
43 CP6 56 0.346
43 CP6 57 0.346
43 CP6 58 -0.142
43 CP6 59 0.346
43 CP6 60 0.834
43 CP6 61 1.811
43 CP6 62 3.764
43 CP6 63 5.229
43 CP6 64 6.205
43 CP6 65 6.694
43 CP6 66 6.694
43 CP6 67 8.647
43 CP6 68 11.576
43 CP6 69 14.994
43 CP6 70 16.459
43 CP6 71 15.971
43 CP6 72 14.506
43 CP6 73 12.065
43 CP6 74 10.111
43 CP6 75 8.647
43 CP6 76 7.182
43 CP6 77 5.717
43 CP6 78 5.229
43 CP6 79 4.740
43 CP6 80 3.764
43 CP6 81 1.811
43 CP6 82 -1.119
43 CP6 83 -3.560
43 CP6 84 -5.025
43 CP6 85 -6.002
43 CP6 86 -7.467
43 CP6 87 -8.443
43 CP6 88 -7.467
43 CP6 89 -5.514
43 CP6 90 -2.096
43 CP6 91 0.346
43 CP6 92 1.322
43 CP6 93 1.811
43 CP6 94 3.764
43 CP6 95 6.694
43 CP6 96 9.623
43 CP6 97 11.088
43 CP6 98 12.065
43 CP6 99 13.041
43 CP6 100 14.018
43 CP6 101 15.483
43 CP6 102 15.483
43 CP6 103 13.529
43 CP6 104 10.600
43 CP6 105 8.158
43 CP6 106 6.694
43 CP6 107 6.205
43 CP6 108 6.205
43 CP6 109 6.205
43 CP6 110 6.205
43 CP6 111 5.717
43 CP6 112 4.740
43 CP6 113 2.787
43 CP6 114 -0.142
43 CP6 115 -1.119
43 CP6 116 -1.119
43 CP6 117 -0.142
43 CP6 118 1.322
43 CP6 119 2.299
43 CP6 120 2.299
43 CP6 121 2.299
43 CP6 122 2.299
43 CP6 123 2.787
43 CP6 124 3.764
43 CP6 125 4.740
43 CP6 126 5.717
43 CP6 127 6.205
43 CP6 128 6.205
43 CP6 129 6.205
43 CP6 130 6.694
43 CP6 131 7.670
43 CP6 132 9.135
43 CP6 133 10.600
43 CP6 134 10.600
43 CP6 135 9.135
43 CP6 136 7.182
43 CP6 137 5.717
43 CP6 138 5.717
43 CP6 139 6.694
43 CP6 140 7.670
43 CP6 141 7.670
43 CP6 142 7.670
43 CP6 143 7.670
43 CP6 144 8.647
43 CP6 145 9.623
43 CP6 146 10.111
43 CP6 147 10.600
43 CP6 148 10.600
43 CP6 149 10.600
43 CP6 150 10.111
43 CP6 151 9.623
43 CP6 152 9.623
43 CP6 153 9.623
43 CP6 154 9.623
43 CP6 155 8.158
43 CP6 156 7.182
43 CP6 157 6.694
43 CP6 158 6.694
43 CP6 159 7.670
43 CP6 160 8.158
43 CP6 161 8.158
43 CP6 162 8.158
43 CP6 163 6.694
43 CP6 164 5.717
43 CP6 165 4.252
43 CP6 166 2.787
43 CP6 167 1.322
43 CP6 168 0.834
43 CP6 169 0.346
43 CP6 170 -0.142
43 CP6 171 -1.607
43 CP6 172 -3.072
43 CP6 173 -4.537
43 CP6 174 -6.490
43 CP6 175 -7.467
43 CP6 176 -8.443
43 CP6 177 -8.443
43 CP6 178 -8.443
43 CP6 179 -8.443
43 CP6 180 -8.443
43 CP6 181 -8.443
43 CP6 182 -7.955
43 CP6 183 -6.978
43 CP6 184 -6.002
43 CP6 185 -4.537
43 CP6 186 -3.560
43 CP6 187 -2.584
43 CP6 188 -2.584
43 CP6 189 -2.584
43 CP6 190 -2.096
43 CP6 191 -1.119
43 CP6 192 0.346
43 CP6 193 2.787
43 CP6 194 5.229
43 CP6 195 6.694
43 CP6 196 7.182
43 CP6 197 6.694
43 CP6 198 6.205
43 CP6 199 5.229
43 CP6 200 4.740
43 CP6 201 4.740
43 CP6 202 5.229
43 CP6 203 6.205
43 CP6 204 6.205
43 CP6 205 5.229
43 CP6 206 4.740
43 CP6 207 4.740
43 CP6 208 6.205
43 CP6 209 8.158
43 CP6 210 9.623
43 CP6 211 10.111
43 CP6 212 9.135
43 CP6 213 8.647
43 CP6 214 7.670
43 CP6 215 7.182
43 CP6 216 6.694
43 CP6 217 6.694
43 CP6 218 6.694
43 CP6 219 6.694
43 CP6 220 6.205
43 CP6 221 5.717
43 CP6 222 4.740
43 CP6 223 4.252
43 CP6 224 4.252
43 CP6 225 3.764
43 CP6 226 2.787
43 CP6 227 0.346
43 CP6 228 -2.096
43 CP6 229 -3.072
43 CP6 230 -1.607
43 CP6 231 1.322
43 CP6 232 5.229
43 CP6 233 7.670
43 CP6 234 7.670
43 CP6 235 7.182
43 CP6 236 6.205
43 CP6 237 5.717
43 CP6 238 5.717
43 CP6 239 5.229
43 CP6 240 4.252
43 CP6 241 3.276
43 CP6 242 3.276
43 CP6 243 3.764
43 CP6 244 5.229
43 CP6 245 6.205
43 CP6 246 6.205
43 CP6 247 4.252
43 CP6 248 2.299
43 CP6 249 -0.142
43 CP6 250 -2.096
43 CP6 251 -2.096
43 CP6 252 -1.119
43 CP6 253 -0.631
43 CP6 254 -0.631
43 CP6 255 -2.584
# CP1 chan 20
43 CP1 0 3.652
43 CP1 1 4.628
43 CP1 2 5.605
43 CP1 3 6.093
43 CP1 4 6.582
43 CP1 5 6.093
43 CP1 6 5.605
43 CP1 7 4.628
43 CP1 8 3.652
43 CP1 9 2.675
43 CP1 10 1.211
43 CP1 11 1.211
43 CP1 12 0.722
43 CP1 13 0.234
43 CP1 14 -1.231
43 CP1 15 -2.207
43 CP1 16 -2.696
43 CP1 17 -2.207
43 CP1 18 -1.231
43 CP1 19 -0.254
43 CP1 20 0.722
43 CP1 21 1.211
43 CP1 22 0.234
43 CP1 23 0.234
43 CP1 24 0.234
43 CP1 25 1.211
43 CP1 26 2.675
43 CP1 27 4.140
43 CP1 28 6.093
43 CP1 29 7.070
43 CP1 30 7.558
43 CP1 31 7.558
43 CP1 32 7.070
43 CP1 33 6.582
43 CP1 34 5.605
43 CP1 35 4.628
43 CP1 36 2.675
43 CP1 37 1.211
43 CP1 38 -0.254
43 CP1 39 -1.719
43 CP1 40 -2.696
43 CP1 41 -3.184
43 CP1 42 -3.184
43 CP1 43 -3.672
43 CP1 44 -4.161
43 CP1 45 -4.161
43 CP1 46 -4.649
43 CP1 47 -4.649
43 CP1 48 -3.672
43 CP1 49 -2.696
43 CP1 50 -1.719
43 CP1 51 -1.231
43 CP1 52 -1.719
43 CP1 53 -1.719
43 CP1 54 -1.719
43 CP1 55 -0.743
43 CP1 56 0.234
43 CP1 57 0.722
43 CP1 58 0.234
43 CP1 59 -1.231
43 CP1 60 -1.719
43 CP1 61 -2.696
43 CP1 62 -2.207
43 CP1 63 -1.231
43 CP1 64 0.234
43 CP1 65 0.722
43 CP1 66 0.722
43 CP1 67 1.699
43 CP1 68 2.675
43 CP1 69 4.628
43 CP1 70 6.093
43 CP1 71 6.582
43 CP1 72 6.582
43 CP1 73 5.605
43 CP1 74 4.628
43 CP1 75 3.652
43 CP1 76 3.164
43 CP1 77 1.699
43 CP1 78 0.234
43 CP1 79 -1.231
43 CP1 80 -2.696
43 CP1 81 -3.672
43 CP1 82 -4.649
43 CP1 83 -5.625
43 CP1 84 -6.602
43 CP1 85 -7.579
43 CP1 86 -8.067
43 CP1 87 -8.067
43 CP1 88 -7.090
43 CP1 89 -6.114
43 CP1 90 -5.137
43 CP1 91 -4.161
43 CP1 92 -2.696
43 CP1 93 -1.231
43 CP1 94 0.722
43 CP1 95 2.187
43 CP1 96 3.652
43 CP1 97 5.605
43 CP1 98 7.070
43 CP1 99 8.535
43 CP1 100 9.023
43 CP1 101 8.535
43 CP1 102 7.558
43 CP1 103 6.582
43 CP1 104 5.605
43 CP1 105 5.117
43 CP1 106 4.628
43 CP1 107 4.628
43 CP1 108 4.140
43 CP1 109 4.140
43 CP1 110 3.652
43 CP1 111 2.675
43 CP1 112 2.187
43 CP1 113 1.211
43 CP1 114 0.234
43 CP1 115 0.234
43 CP1 116 1.211
43 CP1 117 3.164
43 CP1 118 4.140
43 CP1 119 5.117
43 CP1 120 5.117
43 CP1 121 4.628
43 CP1 122 3.652
43 CP1 123 3.164
43 CP1 124 2.675
43 CP1 125 2.187
43 CP1 126 1.699
43 CP1 127 1.699
43 CP1 128 1.211
43 CP1 129 1.211
43 CP1 130 2.187
43 CP1 131 2.675
43 CP1 132 3.652
43 CP1 133 4.628
43 CP1 134 5.605
43 CP1 135 5.605
43 CP1 136 6.093
43 CP1 137 5.605
43 CP1 138 4.628
43 CP1 139 3.652
43 CP1 140 3.164
43 CP1 141 3.164
43 CP1 142 3.652
43 CP1 143 3.652
43 CP1 144 3.652
43 CP1 145 3.652
43 CP1 146 3.652
43 CP1 147 3.652
43 CP1 148 4.140
43 CP1 149 4.628
43 CP1 150 4.628
43 CP1 151 4.140
43 CP1 152 2.675
43 CP1 153 1.211
43 CP1 154 0.722
43 CP1 155 0.234
43 CP1 156 0.722
43 CP1 157 0.722
43 CP1 158 1.211
43 CP1 159 1.211
43 CP1 160 1.699
43 CP1 161 1.699
43 CP1 162 2.187
43 CP1 163 2.187
43 CP1 164 0.722
43 CP1 165 -1.231
43 CP1 166 -3.184
43 CP1 167 -5.137
43 CP1 168 -6.114
43 CP1 169 -6.602
43 CP1 170 -6.602
43 CP1 171 -6.602
43 CP1 172 -7.090
43 CP1 173 -7.579
43 CP1 174 -7.579
43 CP1 175 -7.090
43 CP1 176 -6.114
43 CP1 177 -5.137
43 CP1 178 -4.649
43 CP1 179 -4.649
43 CP1 180 -5.137
43 CP1 181 -5.137
43 CP1 182 -5.625
43 CP1 183 -5.625
43 CP1 184 -5.625
43 CP1 185 -6.114
43 CP1 186 -6.114
43 CP1 187 -6.114
43 CP1 188 -6.114
43 CP1 189 -5.625
43 CP1 190 -4.161
43 CP1 191 -3.184
43 CP1 192 -2.696
43 CP1 193 -2.696
43 CP1 194 -3.672
43 CP1 195 -4.161
43 CP1 196 -5.137
43 CP1 197 -5.137
43 CP1 198 -5.137
43 CP1 199 -4.649
43 CP1 200 -3.184
43 CP1 201 -2.207
43 CP1 202 -0.743
43 CP1 203 0.722
43 CP1 204 2.187
43 CP1 205 3.652
43 CP1 206 4.628
43 CP1 207 5.117
43 CP1 208 5.117
43 CP1 209 5.117
43 CP1 210 4.628
43 CP1 211 4.140
43 CP1 212 3.164
43 CP1 213 2.675
43 CP1 214 1.699
43 CP1 215 0.722
43 CP1 216 -0.254
43 CP1 217 -0.743
43 CP1 218 -2.207
43 CP1 219 -2.207
43 CP1 220 -2.207
43 CP1 221 -1.719
43 CP1 222 -0.743
43 CP1 223 0.234
43 CP1 224 1.211
43 CP1 225 2.187
43 CP1 226 2.187
43 CP1 227 2.187
43 CP1 228 1.211
43 CP1 229 0.234
43 CP1 230 -1.231
43 CP1 231 -1.719
43 CP1 232 -1.719
43 CP1 233 -1.719
43 CP1 234 -2.207
43 CP1 235 -1.719
43 CP1 236 -1.719
43 CP1 237 -1.719
43 CP1 238 -2.207
43 CP1 239 -2.207
43 CP1 240 -2.207
43 CP1 241 -2.696
43 CP1 242 -3.184
43 CP1 243 -3.672
43 CP1 244 -4.649
43 CP1 245 -5.625
43 CP1 246 -6.114
43 CP1 247 -5.625
43 CP1 248 -4.649
43 CP1 249 -3.672
43 CP1 250 -2.207
43 CP1 251 -0.254
43 CP1 252 1.211
43 CP1 253 3.164
43 CP1 254 4.140
43 CP1 255 4.628
# CP2 chan 21
43 CP2 0 2.777
43 CP2 1 3.265
43 CP2 2 3.754
43 CP2 3 3.265
43 CP2 4 2.777
43 CP2 5 1.801
43 CP2 6 1.312
43 CP2 7 0.824
43 CP2 8 0.824
43 CP2 9 0.824
43 CP2 10 0.336
43 CP2 11 -0.641
43 CP2 12 -1.129
43 CP2 13 -1.129
43 CP2 14 -0.641
43 CP2 15 -0.153
43 CP2 16 0.336
43 CP2 17 0.824
43 CP2 18 1.312
43 CP2 19 1.312
43 CP2 20 1.312
43 CP2 21 1.312
43 CP2 22 1.312
43 CP2 23 1.312
43 CP2 24 1.801
43 CP2 25 2.289
43 CP2 26 2.777
43 CP2 27 2.777
43 CP2 28 3.265
43 CP2 29 3.265
43 CP2 30 3.754
43 CP2 31 4.242
43 CP2 32 4.730
43 CP2 33 4.242
43 CP2 34 3.265
43 CP2 35 1.801
43 CP2 36 0.824
43 CP2 37 -0.641
43 CP2 38 -0.641
43 CP2 39 -0.641
43 CP2 40 -0.641
43 CP2 41 -1.129
43 CP2 42 -2.106
43 CP2 43 -3.082
43 CP2 44 -3.571
43 CP2 45 -4.547
43 CP2 46 -5.035
43 CP2 47 -5.524
43 CP2 48 -5.524
43 CP2 49 -5.524
43 CP2 50 -4.547
43 CP2 51 -3.082
43 CP2 52 -2.106
43 CP2 53 -0.641
43 CP2 54 -0.153
43 CP2 55 0.336
43 CP2 56 0.824
43 CP2 57 0.824
43 CP2 58 0.824
43 CP2 59 0.824
43 CP2 60 1.312
43 CP2 61 1.312
43 CP2 62 2.289
43 CP2 63 3.754
43 CP2 64 4.730
43 CP2 65 5.219
43 CP2 66 5.219
43 CP2 67 5.707
43 CP2 68 6.195
43 CP2 69 7.660
43 CP2 70 9.125
43 CP2 71 10.101
43 CP2 72 10.101
43 CP2 73 8.148
43 CP2 74 6.683
43 CP2 75 5.219
43 CP2 76 4.242
43 CP2 77 3.754
43 CP2 78 2.777
43 CP2 79 1.801
43 CP2 80 0.824
43 CP2 81 -0.153
43 CP2 82 -0.641
43 CP2 83 -1.617
43 CP2 84 -2.594
43 CP2 85 -3.571
43 CP2 86 -4.547
43 CP2 87 -4.547
43 CP2 88 -4.059
43 CP2 89 -3.082
43 CP2 90 -2.106
43 CP2 91 -0.641
43 CP2 92 0.336
43 CP2 93 1.312
43 CP2 94 2.289
43 CP2 95 3.754
43 CP2 96 5.219
43 CP2 97 6.683
43 CP2 98 8.148
43 CP2 99 8.636
43 CP2 100 9.125
43 CP2 101 9.613
43 CP2 102 9.613
43 CP2 103 10.101
43 CP2 104 9.613
43 CP2 105 8.636
43 CP2 106 7.172
43 CP2 107 5.707
43 CP2 108 5.219
43 CP2 109 5.219
43 CP2 110 5.219
43 CP2 111 4.730
43 CP2 112 3.265
43 CP2 113 1.312
43 CP2 114 -0.641
43 CP2 115 -2.106
43 CP2 116 -2.594
43 CP2 117 -1.617
43 CP2 118 -0.153
43 CP2 119 0.824
43 CP2 120 1.312
43 CP2 121 1.312
43 CP2 122 1.312
43 CP2 123 1.312
43 CP2 124 2.289
43 CP2 125 3.265
43 CP2 126 4.730
43 CP2 127 6.195
43 CP2 128 6.195
43 CP2 129 6.195
43 CP2 130 6.195
43 CP2 131 6.195
43 CP2 132 7.172
43 CP2 133 8.148
43 CP2 134 8.148
43 CP2 135 8.148
43 CP2 136 7.172
43 CP2 137 5.707
43 CP2 138 4.242
43 CP2 139 3.754
43 CP2 140 4.242
43 CP2 141 4.730
43 CP2 142 5.219
43 CP2 143 5.707
43 CP2 144 5.707
43 CP2 145 6.195
43 CP2 146 6.683
43 CP2 147 7.172
43 CP2 148 7.172
43 CP2 149 7.660
43 CP2 150 7.172
43 CP2 151 6.683
43 CP2 152 6.195
43 CP2 153 5.219
43 CP2 154 4.730
43 CP2 155 3.754
43 CP2 156 2.777
43 CP2 157 2.777
43 CP2 158 2.777
43 CP2 159 3.754
43 CP2 160 4.242
43 CP2 161 4.242
43 CP2 162 4.242
43 CP2 163 4.242
43 CP2 164 3.265
43 CP2 165 2.289
43 CP2 166 0.824
43 CP2 167 -0.641
43 CP2 168 -1.617
43 CP2 169 -1.129
43 CP2 170 -1.129
43 CP2 171 -0.641
43 CP2 172 -1.129
43 CP2 173 -1.617
43 CP2 174 -3.082
43 CP2 175 -4.059
43 CP2 176 -5.035
43 CP2 177 -5.035
43 CP2 178 -6.012
43 CP2 179 -6.012
43 CP2 180 -6.012
43 CP2 181 -6.012
43 CP2 182 -6.012
43 CP2 183 -5.524
43 CP2 184 -5.035
43 CP2 185 -4.547
43 CP2 186 -4.547
43 CP2 187 -4.547
43 CP2 188 -4.547
43 CP2 189 -4.547
43 CP2 190 -4.547
43 CP2 191 -3.571
43 CP2 192 -2.594
43 CP2 193 -0.641
43 CP2 194 0.824
43 CP2 195 2.289
43 CP2 196 3.754
43 CP2 197 4.242
43 CP2 198 4.242
43 CP2 199 4.242
43 CP2 200 4.242
43 CP2 201 4.242
43 CP2 202 4.242
43 CP2 203 4.730
43 CP2 204 4.730
43 CP2 205 5.219
43 CP2 206 4.730
43 CP2 207 4.730
43 CP2 208 4.242
43 CP2 209 4.242
43 CP2 210 4.242
43 CP2 211 5.219
43 CP2 212 5.219
43 CP2 213 4.730
43 CP2 214 4.242
43 CP2 215 2.777
43 CP2 216 2.289
43 CP2 217 2.289
43 CP2 218 3.265
43 CP2 219 4.242
43 CP2 220 4.730
43 CP2 221 4.730
43 CP2 222 4.730
43 CP2 223 4.242
43 CP2 224 3.754
43 CP2 225 3.265
43 CP2 226 2.777
43 CP2 227 1.801
43 CP2 228 0.824
43 CP2 229 -1.129
43 CP2 230 -1.617
43 CP2 231 -2.106
43 CP2 232 -1.129
43 CP2 233 0.336
43 CP2 234 1.801
43 CP2 235 2.777
43 CP2 236 3.265
43 CP2 237 2.777
43 CP2 238 2.289
43 CP2 239 1.801
43 CP2 240 1.312
43 CP2 241 1.312
43 CP2 242 1.312
43 CP2 243 1.801
43 CP2 244 2.289
43 CP2 245 2.777
43 CP2 246 3.265
43 CP2 247 3.265
43 CP2 248 2.777
43 CP2 249 1.312
43 CP2 250 0.336
43 CP2 251 0.336
43 CP2 252 0.824
43 CP2 253 1.801
43 CP2 254 2.289
43 CP2 255 1.312
# P3 chan 22
43 P3 0 8.423
43 P3 1 10.376
43 P3 2 12.329
43 P3 3 14.282
43 P3 4 14.771
43 P3 5 15.259
43 P3 6 14.282
43 P3 7 12.817
43 P3 8 10.864
43 P3 9 8.911
43 P3 10 7.446
43 P3 11 6.958
43 P3 12 5.981
43 P3 13 5.493
43 P3 14 3.540
43 P3 15 2.563
43 P3 16 1.587
43 P3 17 1.587
43 P3 18 2.563
43 P3 19 4.028
43 P3 20 5.005
43 P3 21 5.005
43 P3 22 4.028
43 P3 23 4.028
43 P3 24 5.005
43 P3 25 6.958
43 P3 26 9.888
43 P3 27 12.817
43 P3 28 15.259
43 P3 29 17.212
43 P3 30 18.677
43 P3 31 19.165
43 P3 32 18.677
43 P3 33 17.212
43 P3 34 14.282
43 P3 35 11.353
43 P3 36 7.935
43 P3 37 5.005
43 P3 38 3.540
43 P3 39 2.075
43 P3 40 0.610
43 P3 41 -1.343
43 P3 42 -3.296
43 P3 43 -4.761
43 P3 44 -5.249
43 P3 45 -5.737
43 P3 46 -5.737
43 P3 47 -5.737
43 P3 48 -4.761
43 P3 49 -3.784
43 P3 50 -2.319
43 P3 51 -0.854
43 P3 52 -0.366
43 P3 53 0.122
43 P3 54 0.610
43 P3 55 1.587
43 P3 56 3.052
43 P3 57 4.028
43 P3 58 3.052
43 P3 59 1.099
43 P3 60 -0.854
43 P3 61 -1.831
43 P3 62 -0.854
43 P3 63 1.587
43 P3 64 3.052
43 P3 65 3.052
43 P3 66 2.563
43 P3 67 2.075
43 P3 68 3.052
43 P3 69 5.493
43 P3 70 7.446
43 P3 71 9.399
43 P3 72 8.423
43 P3 73 6.958
43 P3 74 5.005
43 P3 75 3.052
43 P3 76 1.587
43 P3 77 0.122
43 P3 78 -1.343
43 P3 79 -3.296
43 P3 80 -4.761
43 P3 81 -5.737
43 P3 82 -6.714
43 P3 83 -8.179
43 P3 84 -10.132
43 P3 85 -12.085
43 P3 86 -12.573
43 P3 87 -12.085
43 P3 88 -11.108
43 P3 89 -9.644
43 P3 90 -8.179
43 P3 91 -6.226
43 P3 92 -4.761
43 P3 93 -2.808
43 P3 94 -0.366
43 P3 95 2.075
43 P3 96 5.005
43 P3 97 8.423
43 P3 98 12.329
43 P3 99 14.771
43 P3 100 15.747
43 P3 101 15.259
43 P3 102 13.306
43 P3 103 10.864
43 P3 104 9.399
43 P3 105 7.935
43 P3 106 6.470
43 P3 107 4.517
43 P3 108 3.052
43 P3 109 2.075
43 P3 110 1.587
43 P3 111 0.610
43 P3 112 -0.854
43 P3 113 -3.784
43 P3 114 -6.226
43 P3 115 -7.690
43 P3 116 -6.714
43 P3 117 -4.761
43 P3 118 -1.831
43 P3 119 -0.366
43 P3 120 0.122
43 P3 121 -0.366
43 P3 122 -0.854
43 P3 123 -0.854
43 P3 124 -0.854
43 P3 125 -0.854
43 P3 126 -1.343
43 P3 127 -1.831
43 P3 128 -2.319
43 P3 129 -3.784
43 P3 130 -4.761
43 P3 131 -4.761
43 P3 132 -4.761
43 P3 133 -4.272
43 P3 134 -2.808
43 P3 135 -1.831
43 P3 136 -1.343
43 P3 137 -1.343
43 P3 138 -2.808
43 P3 139 -3.784
43 P3 140 -4.272
43 P3 141 -4.272
43 P3 142 -3.784
43 P3 143 -2.808
43 P3 144 -1.831
43 P3 145 -0.854
43 P3 146 -0.854
43 P3 147 -0.366
43 P3 148 0.122
43 P3 149 0.610
43 P3 150 0.610
43 P3 151 1.099
43 P3 152 0.122
43 P3 153 -0.854
43 P3 154 -2.808
43 P3 155 -4.272
43 P3 156 -5.249
43 P3 157 -5.737
43 P3 158 -5.249
43 P3 159 -4.272
43 P3 160 -2.808
43 P3 161 -1.343
43 P3 162 -0.366
43 P3 163 -0.854
43 P3 164 -1.831
43 P3 165 -4.761
43 P3 166 -8.179
43 P3 167 -11.108
43 P3 168 -12.085
43 P3 169 -12.085
43 P3 170 -11.108
43 P3 171 -11.108
43 P3 172 -11.597
43 P3 173 -13.062
43 P3 174 -14.038
43 P3 175 -14.526
43 P3 176 -14.526
43 P3 177 -13.550
43 P3 178 -12.573
43 P3 179 -11.597
43 P3 180 -12.085
43 P3 181 -13.062
43 P3 182 -14.526
43 P3 183 -15.991
43 P3 184 -16.968
43 P3 185 -16.479
43 P3 186 -15.991
43 P3 187 -15.015
43 P3 188 -14.038
43 P3 189 -12.573
43 P3 190 -9.644
43 P3 191 -6.714
43 P3 192 -3.784
43 P3 193 -2.808
43 P3 194 -3.296
43 P3 195 -4.272
43 P3 196 -5.737
43 P3 197 -6.226
43 P3 198 -6.226
43 P3 199 -5.737
43 P3 200 -5.249
43 P3 201 -5.249
43 P3 202 -4.272
43 P3 203 -3.784
43 P3 204 -2.319
43 P3 205 -1.343
43 P3 206 -0.366
43 P3 207 0.610
43 P3 208 1.587
43 P3 209 3.052
43 P3 210 4.028
43 P3 211 4.517
43 P3 212 4.517
43 P3 213 4.517
43 P3 214 4.028
43 P3 215 3.052
43 P3 216 2.563
43 P3 217 1.587
43 P3 218 0.122
43 P3 219 -0.854
43 P3 220 -1.831
43 P3 221 -1.831
43 P3 222 -1.343
43 P3 223 -0.366
43 P3 224 0.122
43 P3 225 0.610
43 P3 226 0.610
43 P3 227 -0.366
43 P3 228 -1.831
43 P3 229 -3.784
43 P3 230 -5.249
43 P3 231 -5.737
43 P3 232 -5.249
43 P3 233 -3.784
43 P3 234 -2.808
43 P3 235 -2.319
43 P3 236 -2.319
43 P3 237 -3.784
43 P3 238 -4.272
43 P3 239 -4.272
43 P3 240 -4.272
43 P3 241 -4.272
43 P3 242 -4.272
43 P3 243 -4.761
43 P3 244 -5.249
43 P3 245 -6.226
43 P3 246 -5.737
43 P3 247 -5.249
43 P3 248 -4.272
43 P3 249 -3.296
43 P3 250 -2.319
43 P3 251 -1.343
43 P3 252 0.610
43 P3 253 2.563
43 P3 254 4.517
43 P3 255 5.493
# P4 chan 23
43 P4 0 10.539
43 P4 1 12.004
43 P4 2 13.468
43 P4 3 13.957
43 P4 4 12.492
43 P4 5 10.539
43 P4 6 7.609
43 P4 7 4.191
43 P4 8 0.773
43 P4 9 -2.645
43 P4 10 -5.086
43 P4 11 -6.063
43 P4 12 -6.551
43 P4 13 -6.063
43 P4 14 -5.086
43 P4 15 -3.621
43 P4 16 -2.157
43 P4 17 -0.692
43 P4 18 0.773
43 P4 19 2.238
43 P4 20 3.215
43 P4 21 4.679
43 P4 22 6.144
43 P4 23 8.586
43 P4 24 11.515
43 P4 25 13.957
43 P4 26 16.398
43 P4 27 17.375
43 P4 28 17.375
43 P4 29 16.886
43 P4 30 15.910
43 P4 31 15.422
43 P4 32 14.445
43 P4 33 11.515
43 P4 34 7.609
43 P4 35 2.726
43 P4 36 -1.668
43 P4 37 -4.598
43 P4 38 -6.063
43 P4 39 -6.063
43 P4 40 -6.063
43 P4 41 -7.039
43 P4 42 -8.993
43 P4 43 -10.457
43 P4 44 -11.434
43 P4 45 -11.922
43 P4 46 -11.922
43 P4 47 -10.457
43 P4 48 -8.993
43 P4 49 -6.551
43 P4 50 -3.621
43 P4 51 -0.692
43 P4 52 1.750
43 P4 53 2.726
43 P4 54 2.726
43 P4 55 2.726
43 P4 56 2.238
43 P4 57 2.238
43 P4 58 1.750
43 P4 59 1.261
43 P4 60 0.285
43 P4 61 -0.203
43 P4 62 0.285
43 P4 63 1.750
43 P4 64 3.703
43 P4 65 5.168
43 P4 66 5.656
43 P4 67 6.144
43 P4 68 8.097
43 P4 69 11.515
43 P4 70 14.445
43 P4 71 16.398
43 P4 72 16.398
43 P4 73 14.445
43 P4 74 12.004
43 P4 75 10.050
43 P4 76 8.586
43 P4 77 8.586
43 P4 78 8.097
43 P4 79 7.609
43 P4 80 6.144
43 P4 81 4.191
43 P4 82 1.261
43 P4 83 -2.157
43 P4 84 -4.598
43 P4 85 -6.551
43 P4 86 -8.016
43 P4 87 -8.016
43 P4 88 -7.528
43 P4 89 -5.575
43 P4 90 -3.133
43 P4 91 -0.203
43 P4 92 2.238
43 P4 93 4.191
43 P4 94 5.656
43 P4 95 7.609
43 P4 96 10.050
43 P4 97 13.468
43 P4 98 16.886
43 P4 99 19.816
43 P4 100 21.769
43 P4 101 22.746
43 P4 102 22.746
43 P4 103 21.769
43 P4 104 19.328
43 P4 105 16.398
43 P4 106 12.492
43 P4 107 9.562
43 P4 108 7.609
43 P4 109 7.121
43 P4 110 7.121
43 P4 111 6.632
43 P4 112 5.656
43 P4 113 2.726
43 P4 114 0.285
43 P4 115 -1.668
43 P4 116 -2.157
43 P4 117 -1.180
43 P4 118 0.285
43 P4 119 1.750
43 P4 120 2.238
43 P4 121 2.238
43 P4 122 1.750
43 P4 123 1.750
43 P4 124 2.238
43 P4 125 3.215
43 P4 126 3.703
43 P4 127 4.191
43 P4 128 3.703
43 P4 129 2.726
43 P4 130 2.238
43 P4 131 2.726
43 P4 132 4.191
43 P4 133 5.656
43 P4 134 6.632
43 P4 135 6.144
43 P4 136 4.191
43 P4 137 2.238
43 P4 138 1.750
43 P4 139 2.238
43 P4 140 3.703
43 P4 141 5.656
43 P4 142 6.632
43 P4 143 7.121
43 P4 144 7.121
43 P4 145 7.609
43 P4 146 8.586
43 P4 147 10.050
43 P4 148 10.539
43 P4 149 11.027
43 P4 150 10.050
43 P4 151 9.074
43 P4 152 8.097
43 P4 153 7.609
43 P4 154 6.632
43 P4 155 6.144
43 P4 156 5.656
43 P4 157 5.656
43 P4 158 5.656
43 P4 159 6.144
43 P4 160 7.121
43 P4 161 8.097
43 P4 162 8.097
43 P4 163 7.121
43 P4 164 5.168
43 P4 165 2.726
43 P4 166 -0.203
43 P4 167 -2.645
43 P4 168 -4.598
43 P4 169 -6.063
43 P4 170 -6.551
43 P4 171 -7.039
43 P4 172 -7.528
43 P4 173 -8.993
43 P4 174 -10.457
43 P4 175 -11.922
43 P4 176 -12.899
43 P4 177 -12.899
43 P4 178 -12.410
43 P4 179 -11.922
43 P4 180 -11.434
43 P4 181 -11.434
43 P4 182 -11.922
43 P4 183 -11.434
43 P4 184 -10.457
43 P4 185 -8.993
43 P4 186 -7.528
43 P4 187 -7.039
43 P4 188 -7.039
43 P4 189 -7.039
43 P4 190 -6.063
43 P4 191 -5.086
43 P4 192 -3.133
43 P4 193 -1.180
43 P4 194 0.285
43 P4 195 1.750
43 P4 196 2.238
43 P4 197 2.726
43 P4 198 2.726
43 P4 199 2.726
43 P4 200 2.238
43 P4 201 2.238
43 P4 202 2.726
43 P4 203 3.703
43 P4 204 4.191
43 P4 205 4.191
43 P4 206 3.215
43 P4 207 2.726
43 P4 208 3.215
43 P4 209 4.679
43 P4 210 7.121
43 P4 211 8.586
43 P4 212 9.074
43 P4 213 8.097
43 P4 214 7.121
43 P4 215 6.632
43 P4 216 6.632
43 P4 217 7.121
43 P4 218 7.121
43 P4 219 6.632
43 P4 220 6.144
43 P4 221 6.144
43 P4 222 5.656
43 P4 223 5.656
43 P4 224 5.168
43 P4 225 4.191
43 P4 226 2.726
43 P4 227 0.285
43 P4 228 -2.157
43 P4 229 -4.598
43 P4 230 -5.086
43 P4 231 -3.621
43 P4 232 -0.203
43 P4 233 3.703
43 P4 234 6.632
43 P4 235 7.121
43 P4 236 6.632
43 P4 237 5.168
43 P4 238 3.703
43 P4 239 3.703
43 P4 240 3.703
43 P4 241 3.215
43 P4 242 2.726
43 P4 243 2.726
43 P4 244 2.726
43 P4 245 3.215
43 P4 246 3.703
43 P4 247 3.215
43 P4 248 1.750
43 P4 249 -0.692
43 P4 250 -2.645
43 P4 251 -4.110
43 P4 252 -3.621
43 P4 253 -2.645
43 P4 254 -1.180
43 P4 255 -0.692
# PZ chan 24
43 PZ 0 5.941
43 PZ 1 8.382
43 PZ 2 9.847
43 PZ 3 9.359
43 PZ 4 8.382
43 PZ 5 7.406
43 PZ 6 7.406
43 PZ 7 6.429
43 PZ 8 5.941
43 PZ 9 4.476
43 PZ 10 3.011
43 PZ 11 1.546
43 PZ 12 0.570
43 PZ 13 0.081
43 PZ 14 -0.407
43 PZ 15 -0.407
43 PZ 16 -0.407
43 PZ 17 0.081
43 PZ 18 0.570
43 PZ 19 1.546
43 PZ 20 1.546
43 PZ 21 1.546
43 PZ 22 1.546
43 PZ 23 1.058
43 PZ 24 1.546
43 PZ 25 2.523
43 PZ 26 3.988
43 PZ 27 5.941
43 PZ 28 7.406
43 PZ 29 8.382
43 PZ 30 9.847
43 PZ 31 10.335
43 PZ 32 9.359
43 PZ 33 7.894
43 PZ 34 5.452
43 PZ 35 3.011
43 PZ 36 1.058
43 PZ 37 0.081
43 PZ 38 -0.895
43 PZ 39 -1.872
43 PZ 40 -3.337
43 PZ 41 -4.313
43 PZ 42 -5.290
43 PZ 43 -5.778
43 PZ 44 -6.755
43 PZ 45 -8.219
43 PZ 46 -8.708
43 PZ 47 -8.708
43 PZ 48 -7.243
43 PZ 49 -5.778
43 PZ 50 -3.825
43 PZ 51 -3.337
43 PZ 52 -2.848
43 PZ 53 -2.360
43 PZ 54 -0.895
43 PZ 55 0.081
43 PZ 56 1.058
43 PZ 57 1.546
43 PZ 58 0.570
43 PZ 59 -0.407
43 PZ 60 -0.895
43 PZ 61 -0.407
43 PZ 62 1.058
43 PZ 63 1.546
43 PZ 64 2.035
43 PZ 65 1.546
43 PZ 66 0.570
43 PZ 67 1.058
43 PZ 68 2.523
43 PZ 69 4.964
43 PZ 70 6.429
43 PZ 71 6.429
43 PZ 72 5.941
43 PZ 73 4.476
43 PZ 74 3.988
43 PZ 75 3.011
43 PZ 76 1.546
43 PZ 77 0.570
43 PZ 78 -0.895
43 PZ 79 -1.872
43 PZ 80 -2.848
43 PZ 81 -3.825
43 PZ 82 -5.778
43 PZ 83 -7.731
43 PZ 84 -9.196
43 PZ 85 -10.173
43 PZ 86 -10.173
43 PZ 87 -9.196
43 PZ 88 -8.708
43 PZ 89 -7.243
43 PZ 90 -5.778
43 PZ 91 -4.313
43 PZ 92 -2.848
43 PZ 93 -0.895
43 PZ 94 0.570
43 PZ 95 2.523
43 PZ 96 5.452
43 PZ 97 8.382
43 PZ 98 10.824
43 PZ 99 11.800
43 PZ 100 12.288
43 PZ 101 12.288
43 PZ 102 11.800
43 PZ 103 11.800
43 PZ 104 10.824
43 PZ 105 9.359
43 PZ 106 6.917
43 PZ 107 4.964
43 PZ 108 3.988
43 PZ 109 3.499
43 PZ 110 3.011
43 PZ 111 1.546
43 PZ 112 -0.895
43 PZ 113 -3.337
43 PZ 114 -5.290
43 PZ 115 -5.290
43 PZ 116 -4.313
43 PZ 117 -1.872
43 PZ 118 0.081
43 PZ 119 1.058
43 PZ 120 1.058
43 PZ 121 0.570
43 PZ 122 0.081
43 PZ 123 0.081
43 PZ 124 0.081
43 PZ 125 1.058
43 PZ 126 2.035
43 PZ 127 2.035
43 PZ 128 2.035
43 PZ 129 1.058
43 PZ 130 1.058
43 PZ 131 1.546
43 PZ 132 2.523
43 PZ 133 4.476
43 PZ 134 5.452
43 PZ 135 4.964
43 PZ 136 3.499
43 PZ 137 2.035
43 PZ 138 1.058
43 PZ 139 0.570
43 PZ 140 0.570
43 PZ 141 0.570
43 PZ 142 0.570
43 PZ 143 0.570
43 PZ 144 1.058
43 PZ 145 1.546
43 PZ 146 2.035
43 PZ 147 2.523
43 PZ 148 3.011
43 PZ 149 3.988
43 PZ 150 3.499
43 PZ 151 2.523
43 PZ 152 0.570
43 PZ 153 -1.383
43 PZ 154 -3.337
43 PZ 155 -4.313
43 PZ 156 -4.313
43 PZ 157 -3.825
43 PZ 158 -3.337
43 PZ 159 -2.360
43 PZ 160 -0.895
43 PZ 161 0.570
43 PZ 162 1.058
43 PZ 163 0.081
43 PZ 164 -2.360
43 PZ 165 -5.290
43 PZ 166 -8.708
43 PZ 167 -10.661
43 PZ 168 -11.637
43 PZ 169 -11.149
43 PZ 170 -11.149
43 PZ 171 -11.149
43 PZ 172 -12.126
43 PZ 173 -13.102
43 PZ 174 -13.590
43 PZ 175 -14.079
43 PZ 176 -13.590
43 PZ 177 -13.590
43 PZ 178 -13.590
43 PZ 179 -13.590
43 PZ 180 -13.590
43 PZ 181 -13.590
43 PZ 182 -13.590
43 PZ 183 -13.590
43 PZ 184 -13.590
43 PZ 185 -13.590
43 PZ 186 -13.590
43 PZ 187 -14.079
43 PZ 188 -14.079
43 PZ 189 -13.590
43 PZ 190 -12.614
43 PZ 191 -10.661
43 PZ 192 -8.708
43 PZ 193 -6.755
43 PZ 194 -5.778
43 PZ 195 -4.801
43 PZ 196 -4.313
43 PZ 197 -3.337
43 PZ 198 -2.360
43 PZ 199 -1.383
43 PZ 200 0.081
43 PZ 201 0.081
43 PZ 202 1.058
43 PZ 203 1.546
43 PZ 204 2.523
43 PZ 205 3.011
43 PZ 206 3.011
43 PZ 207 3.499
43 PZ 208 3.011
43 PZ 209 3.011
43 PZ 210 3.011
43 PZ 211 2.523
43 PZ 212 2.523
43 PZ 213 2.035
43 PZ 214 1.058
43 PZ 215 0.081
43 PZ 216 -0.407
43 PZ 217 -0.407
43 PZ 218 0.570
43 PZ 219 2.035
43 PZ 220 3.011
43 PZ 221 3.499
43 PZ 222 3.499
43 PZ 223 3.499
43 PZ 224 3.988
43 PZ 225 3.499
43 PZ 226 2.035
43 PZ 227 -0.407
43 PZ 228 -2.848
43 PZ 229 -5.290
43 PZ 230 -6.755
43 PZ 231 -7.243
43 PZ 232 -6.755
43 PZ 233 -5.778
43 PZ 234 -4.801
43 PZ 235 -3.825
43 PZ 236 -3.825
43 PZ 237 -4.313
43 PZ 238 -5.290
43 PZ 239 -5.290
43 PZ 240 -4.801
43 PZ 241 -3.825
43 PZ 242 -2.848
43 PZ 243 -2.360
43 PZ 244 -1.872
43 PZ 245 -0.895
43 PZ 246 0.081
43 PZ 247 0.081
43 PZ 248 0.081
43 PZ 249 -1.383
43 PZ 250 -1.872
43 PZ 251 -1.383
43 PZ 252 0.081
43 PZ 253 1.546
43 PZ 254 2.035
43 PZ 255 1.546
# P8 chan 25
43 P8 0 12.014
43 P8 1 13.967
43 P8 2 14.943
43 P8 3 14.455
43 P8 4 12.990
43 P8 5 10.549
43 P8 6 7.131
43 P8 7 3.713
43 P8 8 -0.193
43 P8 9 -3.611
43 P8 10 -5.564
43 P8 11 -6.541
43 P8 12 -6.053
43 P8 13 -5.564
43 P8 14 -4.588
43 P8 15 -3.611
43 P8 16 -2.146
43 P8 17 -0.682
43 P8 18 1.272
43 P8 19 2.736
43 P8 20 3.713
43 P8 21 5.178
43 P8 22 7.131
43 P8 23 9.572
43 P8 24 12.990
43 P8 25 15.920
43 P8 26 17.385
43 P8 27 18.361
43 P8 28 17.873
43 P8 29 17.873
43 P8 30 17.385
43 P8 31 16.408
43 P8 32 14.455
43 P8 33 11.037
43 P8 34 6.154
43 P8 35 0.783
43 P8 36 -3.123
43 P8 37 -4.588
43 P8 38 -5.076
43 P8 39 -5.564
43 P8 40 -6.541
43 P8 41 -8.006
43 P8 42 -9.471
43 P8 43 -10.935
43 P8 44 -11.912
43 P8 45 -12.400
43 P8 46 -11.912
43 P8 47 -10.447
43 P8 48 -8.006
43 P8 49 -5.076
43 P8 50 -1.658
43 P8 51 0.295
43 P8 52 1.760
43 P8 53 2.248
43 P8 54 2.736
43 P8 55 2.736
43 P8 56 2.736
43 P8 57 2.248
43 P8 58 1.272
43 P8 59 0.295
43 P8 60 -0.682
43 P8 61 -0.193
43 P8 62 1.272
43 P8 63 2.736
43 P8 64 4.690
43 P8 65 4.690
43 P8 66 5.666
43 P8 67 6.643
43 P8 68 9.572
43 P8 69 13.479
43 P8 70 16.408
43 P8 71 16.897
43 P8 72 15.432
43 P8 73 13.479
43 P8 74 11.037
43 P8 75 9.572
43 P8 76 8.596
43 P8 77 8.108
43 P8 78 8.108
43 P8 79 7.619
43 P8 80 6.154
43 P8 81 4.201
43 P8 82 0.783
43 P8 83 -2.635
43 P8 84 -5.076
43 P8 85 -6.541
43 P8 86 -8.006
43 P8 87 -8.006
43 P8 88 -7.517
43 P8 89 -5.076
43 P8 90 -2.146
43 P8 91 0.783
43 P8 92 3.225
43 P8 93 4.690
43 P8 94 5.666
43 P8 95 7.619
43 P8 96 11.037
43 P8 97 14.943
43 P8 98 18.361
43 P8 99 20.315
43 P8 100 21.779
43 P8 101 22.756
43 P8 102 23.244
43 P8 103 21.779
43 P8 104 18.850
43 P8 105 14.943
43 P8 106 11.037
43 P8 107 9.084
43 P8 108 8.108
43 P8 109 7.619
43 P8 110 7.619
43 P8 111 6.643
43 P8 112 4.690
43 P8 113 2.248
43 P8 114 -0.682
43 P8 115 -1.658
43 P8 116 -2.146
43 P8 117 -0.682
43 P8 118 1.272
43 P8 119 2.248
43 P8 120 2.248
43 P8 121 1.760
43 P8 122 1.272
43 P8 123 2.248
43 P8 124 3.225
43 P8 125 3.713
43 P8 126 3.713
43 P8 127 3.713
43 P8 128 2.736
43 P8 129 2.736
43 P8 130 2.248
43 P8 131 3.225
43 P8 132 4.201
43 P8 133 5.666
43 P8 134 6.643
43 P8 135 5.178
43 P8 136 3.225
43 P8 137 1.760
43 P8 138 1.760
43 P8 139 2.736
43 P8 140 4.690
43 P8 141 6.154
43 P8 142 6.643
43 P8 143 6.643
43 P8 144 7.131
43 P8 145 7.619
43 P8 146 9.084
43 P8 147 10.549
43 P8 148 10.549
43 P8 149 10.549
43 P8 150 10.061
43 P8 151 9.084
43 P8 152 8.108
43 P8 153 7.131
43 P8 154 6.154
43 P8 155 5.666
43 P8 156 5.666
43 P8 157 5.666
43 P8 158 5.666
43 P8 159 6.154
43 P8 160 6.643
43 P8 161 7.619
43 P8 162 7.131
43 P8 163 6.154
43 P8 164 3.713
43 P8 165 0.783
43 P8 166 -1.658
43 P8 167 -4.100
43 P8 168 -5.564
43 P8 169 -6.541
43 P8 170 -7.517
43 P8 171 -8.006
43 P8 172 -8.982
43 P8 173 -10.447
43 P8 174 -11.912
43 P8 175 -13.377
43 P8 176 -13.865
43 P8 177 -13.865
43 P8 178 -13.377
43 P8 179 -12.889
43 P8 180 -12.889
43 P8 181 -12.889
43 P8 182 -12.889
43 P8 183 -11.912
43 P8 184 -10.447
43 P8 185 -8.982
43 P8 186 -8.006
43 P8 187 -7.517
43 P8 188 -7.517
43 P8 189 -7.029
43 P8 190 -6.053
43 P8 191 -5.076
43 P8 192 -3.123
43 P8 193 -1.170
43 P8 194 0.295
43 P8 195 1.760
43 P8 196 2.248
43 P8 197 2.736
43 P8 198 2.248
43 P8 199 1.760
43 P8 200 1.760
43 P8 201 1.760
43 P8 202 2.736
43 P8 203 3.713
43 P8 204 3.713
43 P8 205 3.225
43 P8 206 2.248
43 P8 207 2.736
43 P8 208 4.201
43 P8 209 6.154
43 P8 210 8.108
43 P8 211 9.084
43 P8 212 8.596
43 P8 213 7.619
43 P8 214 7.131
43 P8 215 7.131
43 P8 216 7.131
43 P8 217 7.131
43 P8 218 6.643
43 P8 219 6.154
43 P8 220 6.154
43 P8 221 6.154
43 P8 222 5.666
43 P8 223 5.178
43 P8 224 4.690
43 P8 225 3.713
43 P8 226 2.248
43 P8 227 -0.682
43 P8 228 -3.123
43 P8 229 -5.076
43 P8 230 -5.076
43 P8 231 -2.146
43 P8 232 1.760
43 P8 233 5.666
43 P8 234 7.619
43 P8 235 7.131
43 P8 236 5.666
43 P8 237 4.690
43 P8 238 4.201
43 P8 239 3.713
43 P8 240 3.713
43 P8 241 3.225
43 P8 242 2.736
43 P8 243 2.736
43 P8 244 3.225
43 P8 245 3.713
43 P8 246 3.713
43 P8 247 2.736
43 P8 248 0.783
43 P8 249 -1.658
43 P8 250 -3.123
43 P8 251 -3.611
43 P8 252 -3.123
43 P8 253 -1.170
43 P8 254 -0.682
43 P8 255 -1.170
# P7 chan 26
43 P7 0 9.745
43 P7 1 10.722
43 P7 2 12.675
43 P7 3 15.116
43 P7 4 16.581
43 P7 5 16.581
43 P7 6 14.140
43 P7 7 10.234
43 P7 8 6.816
43 P7 9 5.351
43 P7 10 5.351
43 P7 11 5.351
43 P7 12 4.862
43 P7 13 3.398
43 P7 14 0.956
43 P7 15 -0.997
43 P7 16 -1.485
43 P7 17 -0.997
43 P7 18 0.468
43 P7 19 1.444
43 P7 20 1.933
43 P7 21 0.956
43 P7 22 0.468
43 P7 23 1.444
43 P7 24 3.398
43 P7 25 6.816
43 P7 26 10.234
43 P7 27 13.163
43 P7 28 15.116
43 P7 29 16.581
43 P7 30 17.069
43 P7 31 17.558
43 P7 32 16.581
43 P7 33 14.140
43 P7 34 10.722
43 P7 35 6.816
43 P7 36 3.398
43 P7 37 0.956
43 P7 38 -0.020
43 P7 39 -1.485
43 P7 40 -2.950
43 P7 41 -5.880
43 P7 42 -8.321
43 P7 43 -10.763
43 P7 44 -12.227
43 P7 45 -13.204
43 P7 46 -13.204
43 P7 47 -12.227
43 P7 48 -10.763
43 P7 49 -9.298
43 P7 50 -8.809
43 P7 51 -7.833
43 P7 52 -7.833
43 P7 53 -7.345
43 P7 54 -6.368
43 P7 55 -4.903
43 P7 56 -4.415
43 P7 57 -4.415
43 P7 58 -5.391
43 P7 59 -6.368
43 P7 60 -6.856
43 P7 61 -5.391
43 P7 62 -2.950
43 P7 63 -0.020
43 P7 64 1.444
43 P7 65 1.444
43 P7 66 0.956
43 P7 67 1.444
43 P7 68 3.886
43 P7 69 6.327
43 P7 70 8.769
43 P7 71 8.280
43 P7 72 5.839
43 P7 73 2.909
43 P7 74 -0.020
43 P7 75 -2.462
43 P7 76 -4.903
43 P7 77 -6.368
43 P7 78 -7.345
43 P7 79 -7.833
43 P7 80 -8.321
43 P7 81 -9.298
43 P7 82 -10.763
43 P7 83 -13.204
43 P7 84 -15.157
43 P7 85 -16.134
43 P7 86 -16.134
43 P7 87 -16.622
43 P7 88 -16.622
43 P7 89 -16.134
43 P7 90 -14.181
43 P7 91 -12.227
43 P7 92 -9.786
43 P7 93 -8.321
43 P7 94 -5.880
43 P7 95 -1.973
43 P7 96 2.909
43 P7 97 9.257
43 P7 98 13.652
43 P7 99 16.093
43 P7 100 16.093
43 P7 101 14.140
43 P7 102 11.698
43 P7 103 9.257
43 P7 104 6.816
43 P7 105 4.374
43 P7 106 2.421
43 P7 107 0.956
43 P7 108 0.468
43 P7 109 0.468
43 P7 110 0.956
43 P7 111 -0.509
43 P7 112 -2.462
43 P7 113 -5.391
43 P7 114 -7.345
43 P7 115 -7.833
43 P7 116 -6.856
43 P7 117 -4.903
43 P7 118 -2.462
43 P7 119 -0.509
43 P7 120 0.956
43 P7 121 1.933
43 P7 122 2.909
43 P7 123 2.909
43 P7 124 2.421
43 P7 125 1.444
43 P7 126 0.468
43 P7 127 -0.020
43 P7 128 -1.485
43 P7 129 -2.950
43 P7 130 -3.927
43 P7 131 -4.903
43 P7 132 -4.415
43 P7 133 -3.438
43 P7 134 -2.462
43 P7 135 -2.462
43 P7 136 -2.950
43 P7 137 -3.927
43 P7 138 -4.415
43 P7 139 -4.415
43 P7 140 -3.927
43 P7 141 -3.438
43 P7 142 -1.973
43 P7 143 -0.020
43 P7 144 1.933
43 P7 145 3.398
43 P7 146 3.886
43 P7 147 4.862
43 P7 148 4.862
43 P7 149 4.862
43 P7 150 3.886
43 P7 151 2.421
43 P7 152 0.956
43 P7 153 -0.509
43 P7 154 -0.997
43 P7 155 -1.485
43 P7 156 -2.462
43 P7 157 -2.950
43 P7 158 -3.438
43 P7 159 -2.950
43 P7 160 -1.973
43 P7 161 -0.997
43 P7 162 -0.509
43 P7 163 -0.997
43 P7 164 -2.950
43 P7 165 -5.391
43 P7 166 -7.833
43 P7 167 -9.786
43 P7 168 -10.763
43 P7 169 -10.763
43 P7 170 -10.274
43 P7 171 -10.274
43 P7 172 -11.251
43 P7 173 -13.204
43 P7 174 -15.157
43 P7 175 -16.622
43 P7 176 -17.598
43 P7 177 -17.110
43 P7 178 -17.598
43 P7 179 -17.598
43 P7 180 -19.063
43 P7 181 -20.528
43 P7 182 -21.993
43 P7 183 -22.481
43 P7 184 -21.993
43 P7 185 -20.528
43 P7 186 -19.063
43 P7 187 -18.575
43 P7 188 -17.110
43 P7 189 -15.157
43 P7 190 -11.251
43 P7 191 -7.833
43 P7 192 -4.903
43 P7 193 -3.927
43 P7 194 -4.903
43 P7 195 -6.368
43 P7 196 -7.345
43 P7 197 -8.321
43 P7 198 -9.298
43 P7 199 -10.274
43 P7 200 -10.763
43 P7 201 -10.274
43 P7 202 -8.809
43 P7 203 -6.856
43 P7 204 -5.880
43 P7 205 -5.391
43 P7 206 -4.903
43 P7 207 -3.438
43 P7 208 -0.997
43 P7 209 2.421
43 P7 210 4.862
43 P7 211 6.327
43 P7 212 6.816
43 P7 213 7.304
43 P7 214 7.792
43 P7 215 7.792
43 P7 216 6.816
43 P7 217 4.862
43 P7 218 1.444
43 P7 219 -0.997
43 P7 220 -2.462
43 P7 221 -3.438
43 P7 222 -3.438
43 P7 223 -2.950
43 P7 224 -1.973
43 P7 225 -1.485
43 P7 226 -1.485
43 P7 227 -2.462
43 P7 228 -3.927
43 P7 229 -5.391
43 P7 230 -5.391
43 P7 231 -3.927
43 P7 232 -1.485
43 P7 233 0.468
43 P7 234 0.956
43 P7 235 -0.020
43 P7 236 -1.485
43 P7 237 -2.462
43 P7 238 -3.438
43 P7 239 -3.927
43 P7 240 -4.415
43 P7 241 -4.415
43 P7 242 -5.880
43 P7 243 -6.856
43 P7 244 -7.833
43 P7 245 -8.321
43 P7 246 -6.856
43 P7 247 -4.903
43 P7 248 -3.438
43 P7 249 -2.950
43 P7 250 -3.438
43 P7 251 -3.438
43 P7 252 -2.462
43 P7 253 -0.509
43 P7 254 1.444
43 P7 255 1.933
# PO2 chan 27
43 PO2 0 10.671
43 PO2 1 13.112
43 PO2 2 15.066
43 PO2 3 15.066
43 PO2 4 14.089
43 PO2 5 12.624
43 PO2 6 10.671
43 PO2 7 8.230
43 PO2 8 5.788
43 PO2 9 3.835
43 PO2 10 1.882
43 PO2 11 0.905
43 PO2 12 -0.071
43 PO2 13 -0.559
43 PO2 14 -1.048
43 PO2 15 -1.536
43 PO2 16 -1.048
43 PO2 17 -0.559
43 PO2 18 0.417
43 PO2 19 0.905
43 PO2 20 1.882
43 PO2 21 2.370
43 PO2 22 3.347
43 PO2 23 5.300
43 PO2 24 7.741
43 PO2 25 10.183
43 PO2 26 13.112
43 PO2 27 14.089
43 PO2 28 14.577
43 PO2 29 15.066
43 PO2 30 15.066
43 PO2 31 15.554
43 PO2 32 14.577
43 PO2 33 11.648
43 PO2 34 6.765
43 PO2 35 2.370
43 PO2 36 -1.048
43 PO2 37 -3.001
43 PO2 38 -3.489
43 PO2 39 -4.466
43 PO2 40 -5.931
43 PO2 41 -7.884
43 PO2 42 -9.837
43 PO2 43 -10.813
43 PO2 44 -11.302
43 PO2 45 -11.790
43 PO2 46 -11.302
43 PO2 47 -10.325
43 PO2 48 -8.372
43 PO2 49 -5.442
43 PO2 50 -3.001
43 PO2 51 -0.559
43 PO2 52 0.905
43 PO2 53 1.394
43 PO2 54 1.882
43 PO2 55 2.858
43 PO2 56 3.347
43 PO2 57 3.835
43 PO2 58 2.370
43 PO2 59 0.905
43 PO2 60 -0.559
43 PO2 61 -1.048
43 PO2 62 -0.071
43 PO2 63 1.394
43 PO2 64 1.882
43 PO2 65 1.394
43 PO2 66 0.905
43 PO2 67 1.394
43 PO2 68 3.347
43 PO2 69 5.788
43 PO2 70 7.741
43 PO2 71 7.741
43 PO2 72 6.765
43 PO2 73 4.812
43 PO2 74 3.835
43 PO2 75 2.370
43 PO2 76 1.394
43 PO2 77 0.905
43 PO2 78 0.417
43 PO2 79 0.417
43 PO2 80 -0.071
43 PO2 81 -1.536
43 PO2 82 -3.977
43 PO2 83 -6.419
43 PO2 84 -7.884
43 PO2 85 -8.860
43 PO2 86 -8.860
43 PO2 87 -7.884
43 PO2 88 -7.395
43 PO2 89 -5.442
43 PO2 90 -3.489
43 PO2 91 -1.048
43 PO2 92 0.417
43 PO2 93 1.394
43 PO2 94 2.370
43 PO2 95 5.300
43 PO2 96 9.206
43 PO2 97 13.601
43 PO2 98 17.507
43 PO2 99 19.948
43 PO2 100 21.413
43 PO2 101 21.901
43 PO2 102 20.925
43 PO2 103 19.948
43 PO2 104 17.019
43 PO2 105 13.112
43 PO2 106 9.206
43 PO2 107 6.276
43 PO2 108 4.323
43 PO2 109 3.835
43 PO2 110 2.858
43 PO2 111 1.394
43 PO2 112 -0.559
43 PO2 113 -3.489
43 PO2 114 -5.931
43 PO2 115 -6.419
43 PO2 116 -5.442
43 PO2 117 -3.001
43 PO2 118 -1.048
43 PO2 119 -0.071
43 PO2 120 -0.559
43 PO2 121 -1.048
43 PO2 122 -1.536
43 PO2 123 -1.048
43 PO2 124 -0.071
43 PO2 125 0.905
43 PO2 126 1.394
43 PO2 127 1.394
43 PO2 128 0.905
43 PO2 129 -0.071
43 PO2 130 -0.559
43 PO2 131 -0.559
43 PO2 132 0.905
43 PO2 133 2.370
43 PO2 134 2.370
43 PO2 135 1.882
43 PO2 136 -0.071
43 PO2 137 -2.024
43 PO2 138 -2.513
43 PO2 139 -2.024
43 PO2 140 -1.048
43 PO2 141 -0.559
43 PO2 142 -0.071
43 PO2 143 0.417
43 PO2 144 1.882
43 PO2 145 3.347
43 PO2 146 4.323
43 PO2 147 4.812
43 PO2 148 5.788
43 PO2 149 6.276
43 PO2 150 6.276
43 PO2 151 5.300
43 PO2 152 2.858
43 PO2 153 0.905
43 PO2 154 -1.048
43 PO2 155 -2.024
43 PO2 156 -2.513
43 PO2 157 -2.024
43 PO2 158 -1.048
43 PO2 159 0.417
43 PO2 160 2.370
43 PO2 161 3.347
43 PO2 162 2.858
43 PO2 163 0.905
43 PO2 164 -2.024
43 PO2 165 -5.931
43 PO2 166 -9.837
43 PO2 167 -12.767
43 PO2 168 -14.720
43 PO2 169 -15.696
43 PO2 170 -15.696
43 PO2 171 -15.696
43 PO2 172 -16.184
43 PO2 173 -17.161
43 PO2 174 -18.138
43 PO2 175 -19.114
43 PO2 176 -19.114
43 PO2 177 -18.138
43 PO2 178 -17.161
43 PO2 179 -16.673
43 PO2 180 -16.673
43 PO2 181 -17.161
43 PO2 182 -17.649
43 PO2 183 -17.161
43 PO2 184 -17.161
43 PO2 185 -16.673
43 PO2 186 -17.161
43 PO2 187 -17.649
43 PO2 188 -17.649
43 PO2 189 -17.161
43 PO2 190 -15.208
43 PO2 191 -12.278
43 PO2 192 -9.837
43 PO2 193 -6.907
43 PO2 194 -5.442
43 PO2 195 -3.977
43 PO2 196 -3.489
43 PO2 197 -3.001
43 PO2 198 -2.513
43 PO2 199 -2.513
43 PO2 200 -2.513
43 PO2 201 -2.024
43 PO2 202 -2.024
43 PO2 203 -2.024
43 PO2 204 -1.536
43 PO2 205 -1.536
43 PO2 206 -0.559
43 PO2 207 -0.071
43 PO2 208 1.394
43 PO2 209 2.858
43 PO2 210 4.323
43 PO2 211 4.812
43 PO2 212 5.300
43 PO2 213 5.300
43 PO2 214 4.812
43 PO2 215 4.812
43 PO2 216 4.323
43 PO2 217 4.323
43 PO2 218 3.835
43 PO2 219 3.835
43 PO2 220 3.835
43 PO2 221 3.347
43 PO2 222 3.835
43 PO2 223 3.347
43 PO2 224 3.835
43 PO2 225 2.858
43 PO2 226 0.905
43 PO2 227 -2.024
43 PO2 228 -4.954
43 PO2 229 -7.395
43 PO2 230 -7.884
43 PO2 231 -5.931
43 PO2 232 -3.489
43 PO2 233 -1.048
43 PO2 234 0.905
43 PO2 235 0.417
43 PO2 236 -0.559
43 PO2 237 -1.536
43 PO2 238 -2.513
43 PO2 239 -3.001
43 PO2 240 -2.513
43 PO2 241 -2.024
43 PO2 242 -2.024
43 PO2 243 -2.024
43 PO2 244 -2.024
43 PO2 245 -1.536
43 PO2 246 -0.559
43 PO2 247 -0.071
43 PO2 248 -1.048
43 PO2 249 -2.513
43 PO2 250 -3.977
43 PO2 251 -3.489
43 PO2 252 -2.513
43 PO2 253 -1.048
43 PO2 254 -0.071
43 PO2 255 -0.559
# PO1 chan 28
43 PO1 0 7.935
43 PO1 1 9.888
43 PO1 2 12.329
43 PO1 3 14.282
43 PO1 4 15.259
43 PO1 5 14.771
43 PO1 6 13.306
43 PO1 7 11.841
43 PO1 8 9.399
43 PO1 9 7.446
43 PO1 10 5.493
43 PO1 11 4.517
43 PO1 12 3.540
43 PO1 13 3.052
43 PO1 14 1.587
43 PO1 15 0.610
43 PO1 16 -0.366
43 PO1 17 0.122
43 PO1 18 1.099
43 PO1 19 2.075
43 PO1 20 3.052
43 PO1 21 3.052
43 PO1 22 2.563
43 PO1 23 3.052
43 PO1 24 4.028
43 PO1 25 6.470
43 PO1 26 8.911
43 PO1 27 11.353
43 PO1 28 13.794
43 PO1 29 15.259
