# co3a0000456.rd
# 120 trials, 64 chans, 416 samples 368 post_stim samples
# 3.906000 msecs uV
# S2 match , trial 61
# FP1 chan 0
61 FP1 0 0.539
61 FP1 1 -1.414
61 FP1 2 -3.367
61 FP1 3 -4.344
61 FP1 4 -4.832
61 FP1 5 -4.832
61 FP1 6 -4.832
61 FP1 7 -4.344
61 FP1 8 -3.367
61 FP1 9 -1.414
61 FP1 10 0.051
61 FP1 11 0.539
61 FP1 12 -0.926
61 FP1 13 -3.855
61 FP1 14 -6.297
61 FP1 15 -6.297
61 FP1 16 -3.855
61 FP1 17 0.539
61 FP1 18 4.445
61 FP1 19 6.887
61 FP1 20 6.887
61 FP1 21 6.399
61 FP1 22 6.887
61 FP1 23 8.840
61 FP1 24 11.770
61 FP1 25 12.746
61 FP1 26 12.258
61 FP1 27 10.793
61 FP1 28 9.328
61 FP1 29 9.816
61 FP1 30 10.793
61 FP1 31 12.746
61 FP1 32 13.723
61 FP1 33 13.723
61 FP1 34 13.723
61 FP1 35 14.211
61 FP1 36 14.699
61 FP1 37 14.211
61 FP1 38 13.234
61 FP1 39 11.281
61 FP1 40 9.328
61 FP1 41 7.375
61 FP1 42 4.934
61 FP1 43 2.004
61 FP1 44 -1.414
61 FP1 45 -4.344
61 FP1 46 -4.832
61 FP1 47 -3.855
61 FP1 48 -1.902
61 FP1 49 0.051
61 FP1 50 0.539
61 FP1 51 0.539
61 FP1 52 1.027
61 FP1 53 1.027
61 FP1 54 0.051
61 FP1 55 -2.391
61 FP1 56 -5.320
61 FP1 57 -6.785
61 FP1 58 -5.320
61 FP1 59 -1.902
61 FP1 60 2.004
61 FP1 61 5.422
61 FP1 62 7.375
61 FP1 63 10.305
61 FP1 64 14.699
61 FP1 65 20.070
61 FP1 66 23.977
61 FP1 67 23.977
61 FP1 68 21.535
61 FP1 69 17.141
61 FP1 70 14.699
61 FP1 71 14.211
61 FP1 72 13.234
61 FP1 73 10.793
61 FP1 74 6.399
61 FP1 75 2.004
61 FP1 76 0.539
61 FP1 77 1.516
61 FP1 78 3.957
61 FP1 79 4.934
61 FP1 80 3.957
61 FP1 81 2.004
61 FP1 82 2.004
61 FP1 83 4.445
61 FP1 84 9.328
61 FP1 85 13.234
61 FP1 86 14.699
61 FP1 87 14.211
61 FP1 88 12.746
61 FP1 89 12.258
61 FP1 90 12.746
61 FP1 91 12.746
61 FP1 92 11.281
61 FP1 93 8.840
61 FP1 94 6.399
61 FP1 95 4.934
61 FP1 96 3.469
61 FP1 97 2.492
61 FP1 98 0.539
61 FP1 99 -0.926
61 FP1 100 -1.902
61 FP1 101 -1.414
61 FP1 102 -0.926
61 FP1 103 -1.414
61 FP1 104 -3.367
61 FP1 105 -5.809
61 FP1 106 -7.273
61 FP1 107 -7.762
61 FP1 108 -6.785
61 FP1 109 -6.785
61 FP1 110 -8.738
61 FP1 111 -10.203
61 FP1 112 -11.180
61 FP1 113 -9.226
61 FP1 114 -5.320
61 FP1 115 -1.902
61 FP1 116 0.051
61 FP1 117 -1.414
61 FP1 118 -5.320
61 FP1 119 -7.762
61 FP1 120 -8.738
61 FP1 121 -6.297
61 FP1 122 -1.414
61 FP1 123 3.957
61 FP1 124 6.887
61 FP1 125 6.399
61 FP1 126 3.957
61 FP1 127 2.492
61 FP1 128 2.492
61 FP1 129 4.934
61 FP1 130 7.863
61 FP1 131 9.328
61 FP1 132 8.840
61 FP1 133 6.399
61 FP1 134 4.445
61 FP1 135 3.469
61 FP1 136 2.492
61 FP1 137 1.027
61 FP1 138 -1.414
61 FP1 139 -3.855
61 FP1 140 -4.832
61 FP1 141 -2.879
61 FP1 142 0.539
61 FP1 143 2.981
61 FP1 144 2.492
61 FP1 145 0.051
61 FP1 146 -3.367
61 FP1 147 -5.320
61 FP1 148 -5.320
61 FP1 149 -3.367
61 FP1 150 -2.879
61 FP1 151 -4.832
61 FP1 152 -9.715
61 FP1 153 -15.574
61 FP1 154 -20.457
61 FP1 155 -22.410
61 FP1 156 -20.457
61 FP1 157 -16.062
61 FP1 158 -11.668
61 FP1 159 -8.250
61 FP1 160 -5.809
61 FP1 161 -3.367
61 FP1 162 -0.437
61 FP1 163 2.492
61 FP1 164 2.981
61 FP1 165 2.004
61 FP1 166 -0.437
61 FP1 167 -1.414
61 FP1 168 -0.437
61 FP1 169 2.981
61 FP1 170 6.399
61 FP1 171 7.375
61 FP1 172 5.910
61 FP1 173 3.957
61 FP1 174 2.492
61 FP1 175 2.981
61 FP1 176 4.934
61 FP1 177 6.399
61 FP1 178 5.910
61 FP1 179 3.957
61 FP1 180 2.492
61 FP1 181 1.027
61 FP1 182 1.516
61 FP1 183 2.004
61 FP1 184 1.516
61 FP1 185 -0.437
61 FP1 186 -1.902
61 FP1 187 -1.902
61 FP1 188 -0.437
61 FP1 189 2.492
61 FP1 190 3.957
61 FP1 191 3.469
61 FP1 192 0.539
61 FP1 193 -2.879
61 FP1 194 -5.809
61 FP1 195 -6.297
61 FP1 196 -5.320
61 FP1 197 -2.879
61 FP1 198 -0.926
61 FP1 199 0.051
61 FP1 200 0.051
61 FP1 201 -0.437
61 FP1 202 -1.902
61 FP1 203 -3.367
61 FP1 204 -4.832
61 FP1 205 -4.832
61 FP1 206 -2.879
61 FP1 207 0.051
61 FP1 208 2.981
61 FP1 209 5.910
61 FP1 210 6.399
61 FP1 211 5.910
61 FP1 212 2.981
61 FP1 213 -0.926
61 FP1 214 -4.832
61 FP1 215 -7.273
61 FP1 216 -8.250
61 FP1 217 -7.762
61 FP1 218 -7.273
61 FP1 219 -7.762
61 FP1 220 -10.691
61 FP1 221 -13.621
61 FP1 222 -15.086
61 FP1 223 -13.133
61 FP1 224 -9.226
61 FP1 225 -5.320
61 FP1 226 -3.855
61 FP1 227 -5.320
61 FP1 228 -7.273
61 FP1 229 -8.250
61 FP1 230 -7.273
61 FP1 231 -6.785
61 FP1 232 -8.250
61 FP1 233 -11.668
61 FP1 234 -15.086
61 FP1 235 -15.086
61 FP1 236 -11.180
61 FP1 237 -5.809
61 FP1 238 -2.879
61 FP1 239 -3.855
61 FP1 240 -6.785
61 FP1 241 -8.738
61 FP1 242 -6.785
61 FP1 243 -1.414
61 FP1 244 3.469
61 FP1 245 5.910
61 FP1 246 3.957
61 FP1 247 0.051
61 FP1 248 -2.879
61 FP1 249 -2.391
61 FP1 250 1.027
61 FP1 251 4.445
61 FP1 252 5.910
61 FP1 253 3.469
61 FP1 254 -1.902
61 FP1 255 -7.762
# FP2 chan 1
61 FP2 0 4.303
61 FP2 1 6.256
61 FP2 2 4.791
61 FP2 3 1.373
61 FP2 4 -1.556
61 FP2 5 -2.045
61 FP2 6 0.397
61 FP2 7 3.326
61 FP2 8 4.303
61 FP2 9 2.350
61 FP2 10 -1.556
61 FP2 11 -4.486
61 FP2 12 -4.486
61 FP2 13 -2.045
61 FP2 14 0.885
61 FP2 15 2.350
61 FP2 16 2.838
61 FP2 17 2.350
61 FP2 18 2.350
61 FP2 19 2.838
61 FP2 20 3.815
61 FP2 21 3.815
61 FP2 22 3.326
61 FP2 23 2.838
61 FP2 24 3.815
61 FP2 25 5.768
61 FP2 26 8.698
61 FP2 27 12.115
61 FP2 28 15.045
61 FP2 29 16.022
61 FP2 30 15.045
61 FP2 31 12.604
61 FP2 32 9.674
61 FP2 33 8.698
61 FP2 34 10.162
61 FP2 35 13.580
61 FP2 36 16.510
61 FP2 37 16.510
61 FP2 38 14.069
61 FP2 39 9.186
61 FP2 40 6.256
61 FP2 41 5.280
61 FP2 42 6.256
61 FP2 43 7.233
61 FP2 44 6.256
61 FP2 45 2.838
61 FP2 46 -1.068
61 FP2 47 -3.998
61 FP2 48 -4.486
61 FP2 49 -3.998
61 FP2 50 -3.510
61 FP2 51 -3.021
61 FP2 52 -2.045
61 FP2 53 -1.068
61 FP2 54 0.397
61 FP2 55 1.862
61 FP2 56 2.350
61 FP2 57 2.838
61 FP2 58 3.326
61 FP2 59 4.791
61 FP2 60 7.721
61 FP2 61 11.139
61 FP2 62 13.580
61 FP2 63 16.510
61 FP2 64 18.463
61 FP2 65 19.928
61 FP2 66 20.416
61 FP2 67 19.440
61 FP2 68 17.487
61 FP2 69 14.069
61 FP2 70 11.139
61 FP2 71 8.209
61 FP2 72 6.256
61 FP2 73 4.791
61 FP2 74 3.815
61 FP2 75 3.815
61 FP2 76 4.303
61 FP2 77 3.815
61 FP2 78 2.838
61 FP2 79 1.373
61 FP2 80 0.397
61 FP2 81 0.885
61 FP2 82 3.326
61 FP2 83 7.233
61 FP2 84 11.139
61 FP2 85 14.557
61 FP2 86 16.510
61 FP2 87 18.463
61 FP2 88 19.440
61 FP2 89 18.951
61 FP2 90 16.998
61 FP2 91 13.092
61 FP2 92 9.674
61 FP2 93 7.721
61 FP2 94 8.209
61 FP2 95 9.674
61 FP2 96 11.139
61 FP2 97 11.139
61 FP2 98 9.186
61 FP2 99 7.233
61 FP2 100 5.280
61 FP2 101 4.303
61 FP2 102 3.326
61 FP2 103 2.350
61 FP2 104 0.397
61 FP2 105 -1.556
61 FP2 106 -3.021
61 FP2 107 -3.998
61 FP2 108 -3.998
61 FP2 109 -4.486
61 FP2 110 -4.486
61 FP2 111 -4.486
61 FP2 112 -3.021
61 FP2 113 0.397
61 FP2 114 3.815
61 FP2 115 6.256
61 FP2 116 7.233
61 FP2 117 5.768
61 FP2 118 2.350
61 FP2 119 -1.068
61 FP2 120 -2.533
61 FP2 121 -2.533
61 FP2 122 0.397
61 FP2 123 4.303
61 FP2 124 8.209
61 FP2 125 9.186
61 FP2 126 8.209
61 FP2 127 6.256
61 FP2 128 4.791
61 FP2 129 5.768
61 FP2 130 8.698
61 FP2 131 11.139
61 FP2 132 13.092
61 FP2 133 13.092
61 FP2 134 12.115
61 FP2 135 9.674
61 FP2 136 6.744
61 FP2 137 3.326
61 FP2 138 0.397
61 FP2 139 -2.045
61 FP2 140 -2.533
61 FP2 141 -1.556
61 FP2 142 -0.092
61 FP2 143 0.397
61 FP2 144 -0.092
61 FP2 145 -1.068
61 FP2 146 -2.045
61 FP2 147 -2.533
61 FP2 148 -3.021
61 FP2 149 -4.486
61 FP2 150 -6.439
61 FP2 151 -8.881
61 FP2 152 -10.345
61 FP2 153 -11.322
61 FP2 154 -10.834
61 FP2 155 -9.369
61 FP2 156 -8.392
61 FP2 157 -7.416
61 FP2 158 -6.927
61 FP2 159 -5.951
61 FP2 160 -4.974
61 FP2 161 -3.021
61 FP2 162 -0.580
61 FP2 163 1.862
61 FP2 164 4.303
61 FP2 165 6.256
61 FP2 166 8.209
61 FP2 167 9.186
61 FP2 168 10.651
61 FP2 169 12.604
61 FP2 170 14.557
61 FP2 171 16.022
61 FP2 172 16.022
61 FP2 173 14.557
61 FP2 174 11.627
61 FP2 175 8.698
61 FP2 176 6.744
61 FP2 177 6.256
61 FP2 178 7.233
61 FP2 179 8.209
61 FP2 180 9.186
61 FP2 181 9.186
61 FP2 182 7.721
61 FP2 183 5.280
61 FP2 184 3.815
61 FP2 185 1.862
61 FP2 186 1.373
61 FP2 187 2.350
61 FP2 188 3.815
61 FP2 189 5.280
61 FP2 190 4.791
61 FP2 191 2.838
61 FP2 192 -0.092
61 FP2 193 -3.510
61 FP2 194 -5.463
61 FP2 195 -4.974
61 FP2 196 -3.021
61 FP2 197 -0.580
61 FP2 198 1.373
61 FP2 199 2.838
61 FP2 200 3.326
61 FP2 201 4.303
61 FP2 202 4.791
61 FP2 203 5.768
61 FP2 204 6.744
61 FP2 205 8.209
61 FP2 206 9.674
61 FP2 207 10.651
61 FP2 208 10.651
61 FP2 209 9.186
61 FP2 210 8.209
61 FP2 211 7.233
61 FP2 212 7.721
61 FP2 213 7.233
61 FP2 214 5.768
61 FP2 215 1.862
61 FP2 216 -2.533
61 FP2 217 -5.951
61 FP2 218 -6.439
61 FP2 219 -5.951
61 FP2 220 -5.463
61 FP2 221 -5.463
61 FP2 222 -5.463
61 FP2 223 -4.486
61 FP2 224 -2.045
61 FP2 225 0.885
61 FP2 226 2.350
61 FP2 227 2.350
61 FP2 228 0.885
61 FP2 229 -1.556
61 FP2 230 -4.486
61 FP2 231 -6.927
61 FP2 232 -9.369
61 FP2 233 -11.322
61 FP2 234 -11.322
61 FP2 235 -10.345
61 FP2 236 -8.392
61 FP2 237 -6.439
61 FP2 238 -6.927
61 FP2 239 -8.881
61 FP2 240 -10.345
61 FP2 241 -10.345
61 FP2 242 -6.439
61 FP2 243 -0.092
61 FP2 244 6.256
61 FP2 245 9.674
61 FP2 246 10.162
61 FP2 247 7.721
61 FP2 248 4.791
61 FP2 249 2.838
61 FP2 250 1.862
61 FP2 251 1.862
61 FP2 252 1.373
61 FP2 253 -1.068
61 FP2 254 -3.510
61 FP2 255 -5.951
# F7 chan 2
61 F7 0 15.991
61 F7 1 10.132
61 F7 2 2.808
61 F7 3 -4.517
61 F7 4 -8.911
61 F7 5 -10.376
61 F7 6 -7.935
61 F7 7 -2.563
61 F7 8 2.808
61 F7 9 7.690
61 F7 10 10.132
61 F7 11 9.644
61 F7 12 7.690
61 F7 13 3.784
61 F7 14 -0.610
61 F7 15 -4.028
61 F7 16 -4.517
61 F7 17 -1.587
61 F7 18 3.296
61 F7 19 7.690
61 F7 20 11.108
61 F7 21 12.573
61 F7 22 13.550
61 F7 23 14.038
61 F7 24 14.038
61 F7 25 13.062
61 F7 26 11.597
61 F7 27 10.132
61 F7 28 9.644
61 F7 29 11.108
61 F7 30 13.062
61 F7 31 14.526
61 F7 32 14.526
61 F7 33 13.550
61 F7 34 13.062
61 F7 35 15.015
61 F7 36 16.968
61 F7 37 17.456
61 F7 38 15.503
61 F7 39 11.108
61 F7 40 6.714
61 F7 41 3.296
61 F7 42 1.831
61 F7 43 0.854
61 F7 44 0.366
61 F7 45 -1.099
61 F7 46 -2.563
61 F7 47 -3.540
61 F7 48 -4.517
61 F7 49 -5.005
61 F7 50 -3.540
61 F7 51 -0.610
61 F7 52 2.808
61 F7 53 6.714
61 F7 54 8.179
61 F7 55 7.202
61 F7 56 3.784
61 F7 57 0.366
61 F7 58 -1.099
61 F7 59 0.366
61 F7 60 2.808
61 F7 61 3.784
61 F7 62 2.808
61 F7 63 1.343
61 F7 64 3.296
61 F7 65 11.108
61 F7 66 23.804
61 F7 67 34.546
61 F7 68 36.987
61 F7 69 29.663
61 F7 70 16.968
61 F7 71 6.714
61 F7 72 4.272
61 F7 73 8.667
61 F7 74 13.062
61 F7 75 11.108
61 F7 76 2.808
61 F7 77 -7.446
61 F7 78 -11.353
61 F7 79 -5.493
61 F7 80 7.202
61 F7 81 19.409
61 F7 82 24.292
61 F7 83 19.409
61 F7 84 7.690
61 F7 85 -3.052
61 F7 86 -5.493
61 F7 87 2.808
61 F7 88 15.991
61 F7 89 25.269
61 F7 90 24.292
61 F7 91 13.062
61 F7 92 -0.610
61 F7 93 -8.423
61 F7 94 -7.446
61 F7 95 -2.075
61 F7 96 1.343
61 F7 97 -1.099
61 F7 98 -6.470
61 F7 99 -8.911
61 F7 100 -5.981
61 F7 101 0.366
61 F7 102 4.272
61 F7 103 1.831
61 F7 104 -4.028
61 F7 105 -7.446
61 F7 106 -5.493
61 F7 107 -0.122
61 F7 108 3.296
61 F7 109 -0.122
61 F7 110 -11.353
61 F7 111 -23.071
61 F7 112 -28.442
61 F7 113 -22.583
61 F7 114 -8.911
61 F7 115 5.249
61 F7 116 11.597
61 F7 117 7.690
61 F7 118 -1.587
61 F7 119 -9.399
61 F7 120 -10.376
61 F7 121 -5.493
61 F7 122 0.366
61 F7 123 2.319
61 F7 124 -0.122
61 F7 125 -3.052
61 F7 126 -4.028
61 F7 127 -3.052
61 F7 128 -2.563
61 F7 129 -4.028
61 F7 130 -6.958
61 F7 131 -7.935
61 F7 132 -4.517
61 F7 133 -0.122
61 F7 134 -0.610
61 F7 135 -6.958
61 F7 136 -16.724
61 F7 137 -21.118
61 F7 138 -16.724
61 F7 139 -7.935
61 F7 140 -2.563
61 F7 141 -6.470
61 F7 142 -17.700
61 F7 143 -26.489
61 F7 144 -26.489
61 F7 145 -17.212
61 F7 146 -5.493
61 F7 147 0.366
61 F7 148 -2.563
61 F7 149 -9.888
61 F7 150 -15.259
61 F7 151 -16.724
61 F7 152 -17.212
61 F7 153 -20.142
61 F7 154 -26.001
61 F7 155 -31.860
61 F7 156 -32.837
61 F7 157 -26.978
61 F7 158 -17.212
61 F7 159 -7.935
61 F7 160 -3.540
61 F7 161 -4.028
61 F7 162 -6.958
61 F7 163 -9.888
61 F7 164 -9.888
61 F7 165 -7.446
61 F7 166 -4.028
61 F7 167 -2.075
61 F7 168 -2.075
61 F7 169 -3.540
61 F7 170 -5.005
61 F7 171 -5.493
61 F7 172 -5.005
61 F7 173 -3.540
61 F7 174 -3.052
61 F7 175 -2.075
61 F7 176 -1.099
61 F7 177 -0.610
61 F7 178 -1.587
61 F7 179 -5.005
61 F7 180 -10.376
61 F7 181 -15.747
61 F7 182 -19.165
61 F7 183 -21.118
61 F7 184 -19.653
61 F7 185 -16.235
61 F7 186 -9.888
61 F7 187 -2.075
61 F7 188 5.737
61 F7 189 9.644
61 F7 190 10.132
61 F7 191 6.226
61 F7 192 1.831
61 F7 193 -0.610
61 F7 194 -1.099
61 F7 195 -0.610
61 F7 196 0.854
61 F7 197 2.319
61 F7 198 3.296
61 F7 199 3.296
61 F7 200 1.831
61 F7 201 -1.587
61 F7 202 -6.958
61 F7 203 -10.376
61 F7 204 -9.888
61 F7 205 -5.981
61 F7 206 -0.122
61 F7 207 3.296
61 F7 208 2.319
61 F7 209 -3.052
61 F7 210 -7.935
61 F7 211 -10.376
61 F7 212 -9.399
61 F7 213 -7.935
61 F7 214 -8.423
61 F7 215 -11.353
61 F7 216 -13.794
61 F7 217 -14.771
61 F7 218 -14.282
61 F7 219 -15.259
61 F7 220 -18.677
61 F7 221 -22.583
61 F7 222 -23.071
61 F7 223 -16.724
61 F7 224 -6.958
61 F7 225 1.343
61 F7 226 1.831
61 F7 227 -5.005
61 F7 228 -13.306
61 F7 229 -16.724
61 F7 230 -13.794
61 F7 231 -7.446
61 F7 232 -5.005
61 F7 233 -8.911
61 F7 234 -15.747
61 F7 235 -20.142
61 F7 236 -19.165
61 F7 237 -13.306
61 F7 238 -6.958
61 F7 239 -4.517
61 F7 240 -5.981
61 F7 241 -7.935
61 F7 242 -7.935
61 F7 243 -4.028
61 F7 244 1.343
61 F7 245 3.784
61 F7 246 2.808
61 F7 247 -1.099
61 F7 248 -5.981
61 F7 249 -8.423
61 F7 250 -8.911
61 F7 251 -8.911
61 F7 252 -11.353
61 F7 253 -15.259
61 F7 254 -20.142
61 F7 255 -24.536
# F8 chan 3
61 F8 0 14.313
61 F8 1 12.848
61 F8 2 10.895
61 F8 3 9.430
61 F8 4 8.942
61 F8 5 8.453
61 F8 6 7.477
61 F8 7 5.524
61 F8 8 3.571
61 F8 9 2.594
61 F8 10 3.082
61 F8 11 3.571
61 F8 12 3.082
61 F8 13 1.617
61 F8 14 0.641
61 F8 15 1.129
61 F8 16 3.571
61 F8 17 6.500
61 F8 18 7.965
61 F8 19 6.500
61 F8 20 3.082
61 F8 21 0.641
61 F8 22 0.153
61 F8 23 2.594
61 F8 24 6.500
61 F8 25 9.918
61 F8 26 11.871
61 F8 27 12.848
61 F8 28 13.336
61 F8 29 12.848
61 F8 30 11.383
61 F8 31 8.942
61 F8 32 5.524
61 F8 33 4.547
61 F8 34 7.477
61 F8 35 12.848
61 F8 36 17.242
61 F8 37 18.219
61 F8 38 14.313
61 F8 39 9.430
61 F8 40 7.477
61 F8 41 8.942
61 F8 42 12.848
61 F8 43 13.824
61 F8 44 8.942
61 F8 45 1.617
61 F8 46 -5.219
61 F8 47 -7.660
61 F8 48 -6.195
61 F8 49 -2.777
61 F8 50 -1.801
61 F8 51 -2.777
61 F8 52 -4.730
61 F8 53 -5.707
61 F8 54 -4.730
61 F8 55 -2.777
61 F8 56 -1.312
61 F8 57 -0.824
61 F8 58 0.153
61 F8 59 2.106
61 F8 60 5.524
61 F8 61 8.453
61 F8 62 11.383
61 F8 63 13.336
61 F8 64 15.289
61 F8 65 15.778
61 F8 66 13.824
61 F8 67 10.895
61 F8 68 6.012
61 F8 69 1.617
61 F8 70 -0.824
61 F8 71 -1.312
61 F8 72 -0.336
61 F8 73 0.641
61 F8 74 1.129
61 F8 75 0.153
61 F8 76 -1.312
61 F8 77 -3.265
61 F8 78 -5.707
61 F8 79 -8.148
61 F8 80 -8.636
61 F8 81 -6.683
61 F8 82 -1.801
61 F8 83 3.571
61 F8 84 8.453
61 F8 85 11.871
61 F8 86 14.313
61 F8 87 15.289
61 F8 88 15.289
61 F8 89 13.824
61 F8 90 11.383
61 F8 91 8.942
61 F8 92 8.453
61 F8 93 9.918
61 F8 94 11.383
61 F8 95 11.383
61 F8 96 8.942
61 F8 97 4.059
61 F8 98 -0.824
61 F8 99 -3.754
61 F8 100 -3.754
61 F8 101 -1.801
61 F8 102 -0.336
61 F8 103 -0.824
61 F8 104 -3.265
61 F8 105 -6.683
61 F8 106 -9.613
61 F8 107 -10.590
61 F8 108 -10.590
61 F8 109 -10.101
61 F8 110 -8.636
61 F8 111 -7.172
61 F8 112 -5.219
61 F8 113 -2.777
61 F8 114 -0.336
61 F8 115 2.106
61 F8 116 5.035
61 F8 117 6.012
61 F8 118 4.547
61 F8 119 1.617
61 F8 120 -1.801
61 F8 121 -2.289
61 F8 122 0.641
61 F8 123 6.500
61 F8 124 10.895
61 F8 125 11.383
61 F8 126 7.965
61 F8 127 2.106
61 F8 128 -1.312
61 F8 129 -0.336
61 F8 130 5.035
61 F8 131 10.406
61 F8 132 14.801
61 F8 133 15.289
61 F8 134 12.360
61 F8 135 8.453
61 F8 136 4.547
61 F8 137 1.129
61 F8 138 -2.777
61 F8 139 -5.707
61 F8 140 -7.660
61 F8 141 -7.660
61 F8 142 -5.219
61 F8 143 -1.801
61 F8 144 1.129
61 F8 145 1.617
61 F8 146 -0.336
61 F8 147 -4.242
61 F8 148 -8.148
61 F8 149 -10.590
61 F8 150 -10.590
61 F8 151 -9.613
61 F8 152 -7.660
61 F8 153 -5.707
61 F8 154 -4.242
61 F8 155 -3.265
61 F8 156 -1.801
61 F8 157 -0.336
61 F8 158 0.641
61 F8 159 1.129
61 F8 160 0.153
61 F8 161 -0.824
61 F8 162 -0.336
61 F8 163 2.106
61 F8 164 6.012
61 F8 165 9.918
61 F8 166 12.848
61 F8 167 14.801
61 F8 168 16.266
61 F8 169 16.754
61 F8 170 15.778
61 F8 171 13.824
61 F8 172 11.871
61 F8 173 10.406
61 F8 174 10.406
61 F8 175 12.360
61 F8 176 13.824
61 F8 177 13.824
61 F8 178 11.871
61 F8 179 8.942
61 F8 180 6.500
61 F8 181 6.500
61 F8 182 7.477
61 F8 183 8.453
61 F8 184 7.477
61 F8 185 5.524
61 F8 186 4.547
61 F8 187 5.035
61 F8 188 7.477
61 F8 189 10.895
61 F8 190 12.360
61 F8 191 11.383
61 F8 192 8.453
61 F8 193 5.035
61 F8 194 2.106
61 F8 195 0.153
61 F8 196 -0.336
61 F8 197 0.153
61 F8 198 2.106
61 F8 199 6.012
61 F8 200 10.406
61 F8 201 14.801
61 F8 202 17.242
61 F8 203 18.707
61 F8 204 19.196
61 F8 205 19.684
61 F8 206 19.684
61 F8 207 18.707
61 F8 208 16.266
61 F8 209 12.360
61 F8 210 7.477
61 F8 211 3.082
61 F8 212 0.153
61 F8 213 -1.312
61 F8 214 -0.824
61 F8 215 1.129
61 F8 216 3.082
61 F8 217 4.547
61 F8 218 4.059
61 F8 219 2.594
61 F8 220 1.617
61 F8 221 2.106
61 F8 222 5.035
61 F8 223 9.430
61 F8 224 13.824
61 F8 225 16.266
61 F8 226 16.266
61 F8 227 13.824
61 F8 228 10.895
61 F8 229 7.477
61 F8 230 5.524
61 F8 231 4.059
61 F8 232 2.106
61 F8 233 -0.336
61 F8 234 -3.754
61 F8 235 -6.683
61 F8 236 -7.660
61 F8 237 -6.683
61 F8 238 -4.730
61 F8 239 -2.289
61 F8 240 -0.336
61 F8 241 2.106
61 F8 242 4.547
61 F8 243 7.477
61 F8 244 8.942
61 F8 245 8.942
61 F8 246 6.500
61 F8 247 2.594
61 F8 248 -1.312
61 F8 249 -4.242
61 F8 250 -5.707
61 F8 251 -6.683
61 F8 252 -7.172
61 F8 253 -7.660
61 F8 254 -8.148
61 F8 255 -8.148
# AF1 chan 4
61 AF1 0 -0.549
61 AF1 1 -2.014
61 AF1 2 -2.991
61 AF1 3 -3.967
61 AF1 4 -4.944
61 AF1 5 -4.944
61 AF1 6 -4.456
61 AF1 7 -2.991
61 AF1 8 -1.526
61 AF1 9 -0.549
61 AF1 10 -0.061
61 AF1 11 0.427
61 AF1 12 0.916
61 AF1 13 1.404
61 AF1 14 1.404
61 AF1 15 1.404
61 AF1 16 1.404
61 AF1 17 1.892
61 AF1 18 3.357
61 AF1 19 4.333
61 AF1 20 5.310
61 AF1 21 6.287
61 AF1 22 7.751
61 AF1 23 8.728
61 AF1 24 9.705
61 AF1 25 9.705
61 AF1 26 9.216
61 AF1 27 8.240
61 AF1 28 8.728
61 AF1 29 10.193
61 AF1 30 11.658
61 AF1 31 12.146
61 AF1 32 11.658
61 AF1 33 10.193
61 AF1 34 9.216
61 AF1 35 10.193
61 AF1 36 11.169
61 AF1 37 11.658
61 AF1 38 11.169
61 AF1 39 9.705
61 AF1 40 7.751
61 AF1 41 6.775
61 AF1 42 5.798
61 AF1 43 4.333
61 AF1 44 1.404
61 AF1 45 -1.526
61 AF1 46 -3.967
61 AF1 47 -4.456
61 AF1 48 -2.991
61 AF1 49 -1.038
61 AF1 50 0.427
61 AF1 51 0.916
61 AF1 52 0.916
61 AF1 53 0.916
61 AF1 54 -0.061
61 AF1 55 -0.549
61 AF1 56 -1.038
61 AF1 57 -0.549
61 AF1 58 0.916
61 AF1 59 3.357
61 AF1 60 6.287
61 AF1 61 8.240
61 AF1 62 9.705
61 AF1 63 11.169
61 AF1 64 13.611
61 AF1 65 16.541
61 AF1 66 18.494
61 AF1 67 18.005
61 AF1 68 16.052
61 AF1 69 13.123
61 AF1 70 11.658
61 AF1 71 11.169
61 AF1 72 11.658
61 AF1 73 11.169
61 AF1 74 9.216
61 AF1 75 6.775
61 AF1 76 3.845
61 AF1 77 2.380
61 AF1 78 1.404
61 AF1 79 0.427
61 AF1 80 -0.549
61 AF1 81 -0.549
61 AF1 82 0.427
61 AF1 83 3.357
61 AF1 84 7.263
61 AF1 85 10.681
61 AF1 86 13.123
61 AF1 87 14.587
61 AF1 88 14.587
61 AF1 89 13.123
61 AF1 90 9.705
61 AF1 91 5.798
61 AF1 92 2.380
61 AF1 93 1.404
61 AF1 94 2.380
61 AF1 95 4.333
61 AF1 96 4.333
61 AF1 97 2.380
61 AF1 98 -1.526
61 AF1 99 -4.944
61 AF1 100 -4.944
61 AF1 101 -2.991
61 AF1 102 -0.061
61 AF1 103 1.892
61 AF1 104 1.404
61 AF1 105 -0.549
61 AF1 106 -2.502
61 AF1 107 -3.479
61 AF1 108 -3.479
61 AF1 109 -3.967
61 AF1 110 -4.944
61 AF1 111 -5.920
61 AF1 112 -6.409
61 AF1 113 -4.944
61 AF1 114 -2.991
61 AF1 115 -1.038
61 AF1 116 -1.038
61 AF1 117 -2.502
61 AF1 118 -4.456
61 AF1 119 -5.920
61 AF1 120 -5.432
61 AF1 121 -3.479
61 AF1 122 -1.038
61 AF1 123 1.892
61 AF1 124 3.845
61 AF1 125 4.822
61 AF1 126 4.822
61 AF1 127 3.845
61 AF1 128 2.380
61 AF1 129 1.892
61 AF1 130 1.892
61 AF1 131 2.380
61 AF1 132 2.869
61 AF1 133 2.380
61 AF1 134 0.916
61 AF1 135 -1.038
61 AF1 136 -3.479
61 AF1 137 -4.944
61 AF1 138 -5.920
61 AF1 139 -5.432
61 AF1 140 -4.456
61 AF1 141 -3.967
61 AF1 142 -3.479
61 AF1 143 -2.991
61 AF1 144 -2.502
61 AF1 145 -2.502
61 AF1 146 -3.967
61 AF1 147 -5.920
61 AF1 148 -8.362
61 AF1 149 -10.315
61 AF1 150 -11.780
61 AF1 151 -12.756
61 AF1 152 -14.221
61 AF1 153 -16.663
61 AF1 154 -18.616
61 AF1 155 -19.592
61 AF1 156 -18.616
61 AF1 157 -15.198
61 AF1 158 -11.780
61 AF1 159 -8.850
61 AF1 160 -6.897
61 AF1 161 -6.409
61 AF1 162 -6.409
61 AF1 163 -5.920
61 AF1 164 -5.920
61 AF1 165 -5.920
61 AF1 166 -4.944
61 AF1 167 -3.967
61 AF1 168 -1.526
61 AF1 169 0.427
61 AF1 170 1.892
61 AF1 171 2.869
61 AF1 172 2.380
61 AF1 173 1.892
61 AF1 174 0.916
61 AF1 175 0.427
61 AF1 176 0.427
61 AF1 177 0.427
61 AF1 178 0.916
61 AF1 179 0.916
61 AF1 180 0.916
61 AF1 181 0.916
61 AF1 182 -0.061
61 AF1 183 -1.526
61 AF1 184 -2.991
61 AF1 185 -3.967
61 AF1 186 -4.456
61 AF1 187 -3.967
61 AF1 188 -2.502
61 AF1 189 -2.014
61 AF1 190 -2.014
61 AF1 191 -2.991
61 AF1 192 -4.944
61 AF1 193 -6.409
61 AF1 194 -6.409
61 AF1 195 -5.432
61 AF1 196 -3.967
61 AF1 197 -2.502
61 AF1 198 -2.014
61 AF1 199 -2.014
61 AF1 200 -2.502
61 AF1 201 -2.502
61 AF1 202 -2.502
61 AF1 203 -2.502
61 AF1 204 -2.991
61 AF1 205 -2.991
61 AF1 206 -2.014
61 AF1 207 -1.038
61 AF1 208 0.916
61 AF1 209 1.892
61 AF1 210 1.892
61 AF1 211 1.404
61 AF1 212 -0.061
61 AF1 213 -1.038
61 AF1 214 -2.502
61 AF1 215 -4.456
61 AF1 216 -5.920
61 AF1 217 -6.897
61 AF1 218 -6.897
61 AF1 219 -7.874
61 AF1 220 -8.850
61 AF1 221 -10.315
61 AF1 222 -10.803
61 AF1 223 -9.827
61 AF1 224 -7.385
61 AF1 225 -5.432
61 AF1 226 -4.944
61 AF1 227 -5.920
61 AF1 228 -7.874
61 AF1 229 -8.362
61 AF1 230 -7.385
61 AF1 231 -5.920
61 AF1 232 -5.432
61 AF1 233 -6.897
61 AF1 234 -9.338
61 AF1 235 -10.315
61 AF1 236 -9.827
61 AF1 237 -7.874
61 AF1 238 -6.409
61 AF1 239 -6.409
61 AF1 240 -7.385
61 AF1 241 -7.385
61 AF1 242 -5.432
61 AF1 243 -2.014
61 AF1 244 2.869
61 AF1 245 6.287
61 AF1 246 7.263
61 AF1 247 5.310
61 AF1 248 2.869
61 AF1 249 0.916
61 AF1 250 -0.549
61 AF1 251 -1.526
61 AF1 252 -2.502
61 AF1 253 -4.944
61 AF1 254 -6.897
61 AF1 255 -8.850
# AF2 chan 5
61 AF2 0 0.081
61 AF2 1 -0.407
61 AF2 2 -0.895
61 AF2 3 -2.360
61 AF2 4 -2.848
61 AF2 5 -2.848
61 AF2 6 -1.872
61 AF2 7 0.081
61 AF2 8 1.546
61 AF2 9 2.523
61 AF2 10 2.035
61 AF2 11 1.546
61 AF2 12 0.570
61 AF2 13 0.081
61 AF2 14 0.081
61 AF2 15 1.058
61 AF2 16 2.523
61 AF2 17 4.476
61 AF2 18 5.941
61 AF2 19 6.917
61 AF2 20 6.917
61 AF2 21 7.406
61 AF2 22 7.894
61 AF2 23 7.894
61 AF2 24 7.894
61 AF2 25 7.406
61 AF2 26 6.429
61 AF2 27 5.941
61 AF2 28 7.406
61 AF2 29 9.847
61 AF2 30 12.288
61 AF2 31 13.265
61 AF2 32 11.800
61 AF2 33 9.359
61 AF2 34 8.382
61 AF2 35 9.359
61 AF2 36 11.312
61 AF2 37 11.312
61 AF2 38 9.359
61 AF2 39 5.941
61 AF2 40 3.988
61 AF2 41 3.499
61 AF2 42 3.988
61 AF2 43 3.499
61 AF2 44 0.081
61 AF2 45 -4.313
61 AF2 46 -7.731
61 AF2 47 -9.196
61 AF2 48 -7.243
61 AF2 49 -4.801
61 AF2 50 -2.360
61 AF2 51 -1.383
61 AF2 52 -1.383
61 AF2 53 -1.872
61 AF2 54 -2.360
61 AF2 55 -2.360
61 AF2 56 -2.360
61 AF2 57 -1.383
61 AF2 58 0.570
61 AF2 59 3.499
61 AF2 60 5.941
61 AF2 61 7.406
61 AF2 62 7.894
61 AF2 63 8.382
61 AF2 64 9.847
61 AF2 65 11.800
61 AF2 66 13.753
61 AF2 67 14.242
61 AF2 68 12.288
61 AF2 69 10.335
61 AF2 70 8.382
61 AF2 71 7.406
61 AF2 72 6.429
61 AF2 73 4.964
61 AF2 74 2.523
61 AF2 75 0.570
61 AF2 76 0.081
61 AF2 77 0.081
61 AF2 78 0.570
61 AF2 79 0.570
61 AF2 80 -0.407
61 AF2 81 -0.895
61 AF2 82 0.081
61 AF2 83 3.011
61 AF2 84 7.406
61 AF2 85 11.312
61 AF2 86 14.242
61 AF2 87 15.218
61 AF2 88 15.706
61 AF2 89 14.730
61 AF2 90 12.288
61 AF2 91 10.335
61 AF2 92 7.894
61 AF2 93 5.941
61 AF2 94 5.941
61 AF2 95 5.941
61 AF2 96 5.941
61 AF2 97 3.499
61 AF2 98 -0.407
61 AF2 99 -3.337
61 AF2 100 -4.801
61 AF2 101 -3.825
61 AF2 102 -1.383
61 AF2 103 0.081
61 AF2 104 -0.407
61 AF2 105 -3.337
61 AF2 106 -5.778
61 AF2 107 -7.731
61 AF2 108 -7.731
61 AF2 109 -7.243
61 AF2 110 -6.755
61 AF2 111 -7.731
61 AF2 112 -8.219
61 AF2 113 -8.219
61 AF2 114 -6.755
61 AF2 115 -4.801
61 AF2 116 -3.337
61 AF2 117 -3.825
61 AF2 118 -6.266
61 AF2 119 -8.708
61 AF2 120 -10.173
61 AF2 121 -9.196
61 AF2 122 -6.755
61 AF2 123 -3.825
61 AF2 124 -1.872
61 AF2 125 -0.407
61 AF2 126 -0.407
61 AF2 127 -0.895
61 AF2 128 -1.383
61 AF2 129 -1.872
61 AF2 130 -1.383
61 AF2 131 -0.407
61 AF2 132 0.570
61 AF2 133 2.035
61 AF2 134 3.011
61 AF2 135 3.011
61 AF2 136 1.546
61 AF2 137 -0.895
61 AF2 138 -3.337
61 AF2 139 -5.778
61 AF2 140 -7.731
61 AF2 141 -9.196
61 AF2 142 -10.173
61 AF2 143 -10.661
61 AF2 144 -9.684
61 AF2 145 -8.219
61 AF2 146 -7.243
61 AF2 147 -7.731
61 AF2 148 -9.196
61 AF2 149 -11.149
61 AF2 150 -12.614
61 AF2 151 -13.102
61 AF2 152 -13.590
61 AF2 153 -15.055
61 AF2 154 -16.520
61 AF2 155 -17.985
61 AF2 156 -17.985
61 AF2 157 -17.008
61 AF2 158 -14.567
61 AF2 159 -12.614
61 AF2 160 -11.637
61 AF2 161 -11.149
61 AF2 162 -10.661
61 AF2 163 -9.684
61 AF2 164 -8.219
61 AF2 165 -6.266
61 AF2 166 -4.313
61 AF2 167 -2.360
61 AF2 168 0.081
61 AF2 169 2.523
61 AF2 170 3.988
61 AF2 171 3.988
61 AF2 172 3.988
61 AF2 173 3.499
61 AF2 174 3.011
61 AF2 175 3.011
61 AF2 176 3.011
61 AF2 177 3.011
61 AF2 178 2.523
61 AF2 179 2.523
61 AF2 180 2.035
61 AF2 181 1.546
61 AF2 182 0.570
61 AF2 183 -0.895
61 AF2 184 -2.848
61 AF2 185 -3.337
61 AF2 186 -3.337
61 AF2 187 -2.848
61 AF2 188 -1.872
61 AF2 189 -0.895
61 AF2 190 -1.383
61 AF2 191 -3.337
61 AF2 192 -6.755
61 AF2 193 -9.684
61 AF2 194 -11.149
61 AF2 195 -10.173
61 AF2 196 -7.731
61 AF2 197 -5.778
61 AF2 198 -4.801
61 AF2 199 -4.801
61 AF2 200 -4.801
61 AF2 201 -4.801
61 AF2 202 -4.313
61 AF2 203 -3.337
61 AF2 204 -2.848
61 AF2 205 -2.848
61 AF2 206 -2.848
61 AF2 207 -2.360
61 AF2 208 -1.383
61 AF2 209 -0.895
61 AF2 210 -0.895
61 AF2 211 -1.872
61 AF2 212 -3.337
61 AF2 213 -5.290
61 AF2 214 -6.755
61 AF2 215 -8.219
61 AF2 216 -8.708
61 AF2 217 -9.196
61 AF2 218 -9.196
61 AF2 219 -10.173
61 AF2 220 -10.661
61 AF2 221 -11.637
61 AF2 222 -11.637
61 AF2 223 -9.684
61 AF2 224 -7.731
61 AF2 225 -5.778
61 AF2 226 -5.290
61 AF2 227 -6.755
61 AF2 228 -8.219
61 AF2 229 -9.196
61 AF2 230 -9.684
61 AF2 231 -9.684
61 AF2 232 -9.684
61 AF2 233 -10.173
61 AF2 234 -10.173
61 AF2 235 -9.196
61 AF2 236 -7.243
61 AF2 237 -6.266
61 AF2 238 -5.778
61 AF2 239 -7.243
61 AF2 240 -8.219
61 AF2 241 -8.219
61 AF2 242 -5.778
61 AF2 243 -2.360
61 AF2 244 1.058
61 AF2 245 2.035
61 AF2 246 1.058
61 AF2 247 -0.895
61 AF2 248 -2.360
61 AF2 249 -2.360
61 AF2 250 -1.872
61 AF2 251 -1.872
61 AF2 252 -2.848
61 AF2 253 -5.290
61 AF2 254 -8.219
61 AF2 255 -9.684
# FZ chan 6
61 FZ 0 -3.540
61 FZ 1 -4.517
61 FZ 2 -5.005
61 FZ 3 -5.005
61 FZ 4 -5.005
61 FZ 5 -4.517
61 FZ 6 -4.028
61 FZ 7 -2.563
61 FZ 8 -1.587
61 FZ 9 -0.610
61 FZ 10 -0.122
61 FZ 11 -0.122
61 FZ 12 0.366
61 FZ 13 1.343
61 FZ 14 1.831
61 FZ 15 2.319
61 FZ 16 3.296
61 FZ 17 3.784
61 FZ 18 4.761
61 FZ 19 5.249
61 FZ 20 6.226
61 FZ 21 7.202
61 FZ 22 7.690
61 FZ 23 8.179
61 FZ 24 8.179
61 FZ 25 7.690
61 FZ 26 7.202
61 FZ 27 6.714
61 FZ 28 7.690
61 FZ 29 8.667
61 FZ 30 9.644
61 FZ 31 10.620
61 FZ 32 9.644
61 FZ 33 8.179
61 FZ 34 6.714
61 FZ 35 6.714
61 FZ 36 7.202
61 FZ 37 7.202
61 FZ 38 6.226
61 FZ 39 5.249
61 FZ 40 3.784
61 FZ 41 3.296
61 FZ 42 3.296
61 FZ 43 2.808
61 FZ 44 0.854
61 FZ 45 -1.587
61 FZ 46 -4.028
61 FZ 47 -5.005
61 FZ 48 -4.517
61 FZ 49 -3.052
61 FZ 50 -0.610
61 FZ 51 0.854
61 FZ 52 1.831
61 FZ 53 1.831
61 FZ 54 1.343
61 FZ 55 0.854
61 FZ 56 -0.122
61 FZ 57 -0.610
61 FZ 58 0.854
61 FZ 59 2.808
61 FZ 60 5.737
61 FZ 61 7.690
61 FZ 62 9.155
61 FZ 63 10.620
61 FZ 64 12.085
61 FZ 65 13.550
61 FZ 66 15.015
61 FZ 67 14.526
61 FZ 68 11.597
61 FZ 69 9.155
61 FZ 70 7.202
61 FZ 71 7.202
61 FZ 72 7.202
61 FZ 73 7.202
61 FZ 74 5.737
61 FZ 75 3.296
61 FZ 76 1.831
61 FZ 77 1.831
61 FZ 78 2.319
61 FZ 79 1.831
61 FZ 80 0.854
61 FZ 81 -1.099
61 FZ 82 -1.587
61 FZ 83 -0.610
61 FZ 84 1.831
61 FZ 85 5.249
61 FZ 86 7.690
61 FZ 87 9.155
61 FZ 88 9.644
61 FZ 89 9.155
61 FZ 90 7.202
61 FZ 91 4.272
61 FZ 92 0.854
61 FZ 93 -1.099
61 FZ 94 -1.099
61 FZ 95 -0.122
61 FZ 96 1.343
61 FZ 97 1.343
61 FZ 98 -0.610
61 FZ 99 -2.075
61 FZ 100 -3.052
61 FZ 101 -2.075
61 FZ 102 -0.122
61 FZ 103 1.343
61 FZ 104 1.343
61 FZ 105 0.366
61 FZ 106 -1.099
61 FZ 107 -2.075
61 FZ 108 -2.563
61 FZ 109 -3.052
61 FZ 110 -4.028
61 FZ 111 -5.005
61 FZ 112 -5.493
61 FZ 113 -5.493
61 FZ 114 -4.517
61 FZ 115 -3.540
61 FZ 116 -2.563
61 FZ 117 -2.563
61 FZ 118 -3.052
61 FZ 119 -3.540
61 FZ 120 -3.052
61 FZ 121 -1.587
61 FZ 122 -0.122
61 FZ 123 1.343
61 FZ 124 2.808
61 FZ 125 3.784
61 FZ 126 4.272
61 FZ 127 3.296
61 FZ 128 2.319
61 FZ 129 0.854
61 FZ 130 -0.122
61 FZ 131 -0.122
61 FZ 132 0.366
61 FZ 133 0.854
61 FZ 134 0.854
61 FZ 135 -0.122
61 FZ 136 -1.587
61 FZ 137 -3.052
61 FZ 138 -4.028
61 FZ 139 -4.028
61 FZ 140 -3.540
61 FZ 141 -3.052
61 FZ 142 -2.563
61 FZ 143 -2.075
61 FZ 144 -2.075
61 FZ 145 -2.075
61 FZ 146 -3.052
61 FZ 147 -4.517
61 FZ 148 -6.470
61 FZ 149 -8.423
61 FZ 150 -9.888
61 FZ 151 -10.376
61 FZ 152 -11.353
61 FZ 153 -12.817
61 FZ 154 -14.282
61 FZ 155 -14.771
61 FZ 156 -14.282
61 FZ 157 -12.329
61 FZ 158 -9.399
61 FZ 159 -7.446
61 FZ 160 -5.493
61 FZ 161 -5.005
61 FZ 162 -5.005
61 FZ 163 -5.493
61 FZ 164 -5.981
61 FZ 165 -5.981
61 FZ 166 -5.493
61 FZ 167 -4.028
61 FZ 168 -1.587
61 FZ 169 0.854
61 FZ 170 2.319
61 FZ 171 2.808
61 FZ 172 1.831
61 FZ 173 0.854
61 FZ 174 -0.122
61 FZ 175 -0.610
61 FZ 176 -0.122
61 FZ 177 0.366
61 FZ 178 0.854
61 FZ 179 1.343
61 FZ 180 1.343
61 FZ 181 1.343
61 FZ 182 1.343
61 FZ 183 1.343
61 FZ 184 -0.122
61 FZ 185 -1.099
61 FZ 186 -2.563
61 FZ 187 -3.052
61 FZ 188 -2.563
61 FZ 189 -1.099
61 FZ 190 -1.099
61 FZ 191 -1.587
61 FZ 192 -3.540
61 FZ 193 -4.517
61 FZ 194 -4.028
61 FZ 195 -2.563
61 FZ 196 -0.610
61 FZ 197 0.366
61 FZ 198 0.854
61 FZ 199 0.854
61 FZ 200 0.854
61 FZ 201 0.854
61 FZ 202 0.854
61 FZ 203 -0.122
61 FZ 204 -1.099
61 FZ 205 -2.075
61 FZ 206 -2.075
61 FZ 207 -0.610
61 FZ 208 0.366
61 FZ 209 0.854
61 FZ 210 -0.122
61 FZ 211 -0.610
61 FZ 212 -1.099
61 FZ 213 -1.099
61 FZ 214 -1.099
61 FZ 215 -1.587
61 FZ 216 -2.563
61 FZ 217 -3.052
61 FZ 218 -3.540
61 FZ 219 -3.540
61 FZ 220 -4.028
61 FZ 221 -5.005
61 FZ 222 -5.493
61 FZ 223 -5.493
61 FZ 224 -5.005
61 FZ 225 -4.517
61 FZ 226 -4.517
61 FZ 227 -5.005
61 FZ 228 -5.981
61 FZ 229 -5.981
61 FZ 230 -5.005
61 FZ 231 -3.540
61 FZ 232 -3.052
61 FZ 233 -4.028
61 FZ 234 -5.981
61 FZ 235 -6.470
61 FZ 236 -5.981
61 FZ 237 -4.028
61 FZ 238 -2.563
61 FZ 239 -1.587
61 FZ 240 -2.075
61 FZ 241 -2.563
61 FZ 242 -2.075
61 FZ 243 -0.610
61 FZ 244 2.319
61 FZ 245 3.784
61 FZ 246 4.272
61 FZ 247 3.784
61 FZ 248 1.831
61 FZ 249 0.854
61 FZ 250 0.366
61 FZ 251 -0.122
61 FZ 252 -1.099
61 FZ 253 -2.075
61 FZ 254 -3.540
61 FZ 255 -4.028
# F4 chan 7
61 F4 0 0.549
61 F4 1 -0.427
61 F4 2 0.061
61 F4 3 -0.916
61 F4 4 -0.916
61 F4 5 -1.404
61 F4 6 -0.916
61 F4 7 0.061
61 F4 8 1.038
61 F4 9 1.038
61 F4 10 0.549
61 F4 11 -1.404
61 F4 12 -2.380
61 F4 13 -2.380
61 F4 14 -1.404
61 F4 15 0.549
61 F4 16 1.038
61 F4 17 2.014
61 F4 18 2.502
61 F4 19 3.479
61 F4 20 4.944
61 F4 21 5.920
61 F4 22 6.409
61 F4 23 5.920
61 F4 24 4.944
61 F4 25 4.944
61 F4 26 6.409
61 F4 27 8.362
61 F4 28 10.803
61 F4 29 12.268
61 F4 30 13.245
61 F4 31 12.756
61 F4 32 11.292
61 F4 33 9.338
61 F4 34 8.362
61 F4 35 7.874
61 F4 36 7.874
61 F4 37 6.897
61 F4 38 5.432
61 F4 39 3.479
61 F4 40 1.526
61 F4 41 0.549
61 F4 42 -0.427
61 F4 43 -0.916
61 F4 44 -2.380
61 F4 45 -4.333
61 F4 46 -6.775
61 F4 47 -8.728
61 F4 48 -9.705
61 F4 49 -9.216
61 F4 50 -8.728
61 F4 51 -8.240
61 F4 52 -7.751
61 F4 53 -8.240
61 F4 54 -8.728
61 F4 55 -8.728
61 F4 56 -8.728
61 F4 57 -6.775
61 F4 58 -3.845
61 F4 59 -0.916
61 F4 60 1.038
61 F4 61 2.014
61 F4 62 1.526
61 F4 63 2.014
61 F4 64 2.991
61 F4 65 5.432
61 F4 66 7.385
61 F4 67 7.874
61 F4 68 5.920
61 F4 69 2.502
61 F4 70 -0.427
61 F4 71 -2.380
61 F4 72 -2.380
61 F4 73 -1.892
61 F4 74 -1.892
61 F4 75 -2.869
61 F4 76 -3.357
61 F4 77 -4.333
61 F4 78 -4.822
61 F4 79 -5.798
61 F4 80 -6.775
61 F4 81 -7.263
61 F4 82 -6.775
61 F4 83 -5.310
61 F4 84 -3.357
61 F4 85 -0.916
61 F4 86 1.526
61 F4 87 3.967
61 F4 88 5.920
61 F4 89 6.897
61 F4 90 6.409
61 F4 91 4.456
61 F4 92 2.014
61 F4 93 0.549
61 F4 94 0.549
61 F4 95 1.526
61 F4 96 2.502
61 F4 97 2.502
61 F4 98 0.061
61 F4 99 -3.357
61 F4 100 -6.287
61 F4 101 -8.240
61 F4 102 -8.240
61 F4 103 -8.240
61 F4 104 -8.728
61 F4 105 -9.705
61 F4 106 -11.169
61 F4 107 -12.146
61 F4 108 -12.634
61 F4 109 -12.146
61 F4 110 -12.146
61 F4 111 -12.634
61 F4 112 -13.123
61 F4 113 -13.611
61 F4 114 -12.634
61 F4 115 -11.169
61 F4 116 -10.193
61 F4 117 -9.705
61 F4 118 -11.169
61 F4 119 -12.146
61 F4 120 -12.634
61 F4 121 -11.658
61 F4 122 -9.216
61 F4 123 -6.287
61 F4 124 -3.357
61 F4 125 -2.380
61 F4 126 -2.380
61 F4 127 -3.357
61 F4 128 -4.822
61 F4 129 -5.798
61 F4 130 -5.798
61 F4 131 -5.310
61 F4 132 -3.845
61 F4 133 -2.869
61 F4 134 -2.380
61 F4 135 -2.380
61 F4 136 -3.845
61 F4 137 -5.798
61 F4 138 -8.240
61 F4 139 -10.193
61 F4 140 -11.169
61 F4 141 -11.658
61 F4 142 -11.658
61 F4 143 -11.658
61 F4 144 -11.169
61 F4 145 -11.169
61 F4 146 -11.169
61 F4 147 -11.658
61 F4 148 -12.146
61 F4 149 -13.611
61 F4 150 -14.587
61 F4 151 -16.052
61 F4 152 -17.029
61 F4 153 -17.517
61 F4 154 -17.029
61 F4 155 -15.564
61 F4 156 -14.099
61 F4 157 -12.146
61 F4 158 -10.681
61 F4 159 -10.193
61 F4 160 -9.705
61 F4 161 -9.216
61 F4 162 -7.751
61 F4 163 -5.798
61 F4 164 -3.845
61 F4 165 -1.892
61 F4 166 -0.916
61 F4 167 1.038
61 F4 168 2.991
61 F4 169 4.456
61 F4 170 5.432
61 F4 171 4.944
61 F4 172 3.479
61 F4 173 2.014
61 F4 174 0.549
61 F4 175 0.061
61 F4 176 0.549
61 F4 177 0.549
61 F4 178 0.061
61 F4 179 -0.916
61 F4 180 -0.916
61 F4 181 -0.427
61 F4 182 1.526
61 F4 183 2.502
61 F4 184 2.502
61 F4 185 1.526
61 F4 186 0.061
61 F4 187 -0.427
61 F4 188 1.038
61 F4 189 2.502
61 F4 190 3.479
61 F4 191 2.014
61 F4 192 -1.404
61 F4 193 -5.310
61 F4 194 -7.263
61 F4 195 -7.263
61 F4 196 -5.310
61 F4 197 -2.380
61 F4 198 0.549
61 F4 199 2.502
61 F4 200 4.456
61 F4 201 5.920
61 F4 202 7.385
61 F4 203 8.362
61 F4 204 8.850
61 F4 205 8.850
61 F4 206 8.850
61 F4 207 8.362
61 F4 208 6.897
61 F4 209 4.944
61 F4 210 2.502
61 F4 211 0.061
61 F4 212 -2.380
61 F4 213 -3.845
61 F4 214 -4.822
61 F4 215 -5.798
61 F4 216 -5.798
61 F4 217 -6.287
61 F4 218 -4.333
61 F4 219 -3.357
61 F4 220 -2.869
61 F4 221 -3.357
61 F4 222 -3.845
61 F4 223 -3.845
61 F4 224 -2.380
61 F4 225 -1.404
61 F4 226 -0.916
61 F4 227 -1.404
61 F4 228 -3.357
61 F4 229 -4.822
61 F4 230 -5.310
61 F4 231 -4.822
61 F4 232 -5.798
61 F4 233 -7.263
61 F4 234 -8.240
61 F4 235 -9.216
61 F4 236 -8.728
61 F4 237 -6.775
61 F4 238 -5.798
61 F4 239 -4.822
61 F4 240 -5.310
61 F4 241 -5.798
61 F4 242 -5.310
61 F4 243 -4.822
61 F4 244 -3.357
61 F4 245 -2.380
61 F4 246 -2.380
61 F4 247 -3.357
61 F4 248 -4.822
61 F4 249 -5.798
61 F4 250 -6.287
61 F4 251 -6.287
61 F4 252 -6.287
61 F4 253 -6.775
61 F4 254 -7.263
61 F4 255 -8.728
# F3 chan 8
61 F3 0 -12.288
61 F3 1 -12.777
61 F3 2 -13.753
61 F3 3 -14.242
61 F3 4 -14.730
61 F3 5 -14.730
61 F3 6 -15.218
61 F3 7 -15.706
61 F3 8 -16.683
61 F3 9 -16.683
61 F3 10 -16.683
61 F3 11 -15.706
61 F3 12 -14.242
61 F3 13 -12.777
61 F3 14 -10.824
61 F3 15 -9.847
61 F3 16 -9.359
61 F3 17 -9.359
61 F3 18 -9.359
61 F3 19 -8.382
61 F3 20 -6.917
61 F3 21 -4.476
61 F3 22 -1.546
61 F3 23 0.407
61 F3 24 0.895
61 F3 25 0.407
61 F3 26 -1.546
61 F3 27 -3.499
61 F3 28 -5.941
61 F3 29 -6.917
61 F3 30 -6.429
61 F3 31 -5.452
61 F3 32 -4.476
61 F3 33 -3.988
61 F3 34 -4.964
61 F3 35 -6.429
61 F3 36 -7.406
61 F3 37 -6.917
61 F3 38 -6.429
61 F3 39 -5.941
61 F3 40 -6.429
61 F3 41 -8.382
61 F3 42 -9.847
61 F3 43 -10.824
61 F3 44 -11.800
61 F3 45 -12.288
61 F3 46 -13.753
61 F3 47 -15.706
61 F3 48 -17.660
61 F3 49 -18.148
61 F3 50 -17.171
61 F3 51 -16.683
61 F3 52 -15.706
61 F3 53 -16.683
61 F3 54 -17.660
61 F3 55 -18.636
61 F3 56 -18.148
61 F3 57 -16.683
61 F3 58 -15.218
61 F3 59 -14.242
61 F3 60 -14.242
61 F3 61 -14.242
61 F3 62 -13.265
61 F3 63 -11.312
61 F3 64 -8.382
61 F3 65 -5.452
61 F3 66 -3.499
61 F3 67 -3.499
61 F3 68 -4.964
61 F3 69 -6.429
61 F3 70 -6.917
61 F3 71 -5.452
61 F3 72 -3.988
61 F3 73 -3.011
61 F3 74 -3.988
61 F3 75 -6.429
61 F3 76 -9.359
61 F3 77 -11.800
61 F3 78 -13.753
61 F3 79 -15.218
61 F3 80 -16.683
61 F3 81 -18.148
61 F3 82 -19.124
61 F3 83 -19.124
61 F3 84 -17.660
61 F3 85 -14.730
61 F3 86 -10.824
61 F3 87 -6.917
61 F3 88 -4.476
61 F3 89 -4.476
61 F3 90 -7.894
61 F3 91 -12.777
61 F3 92 -18.148
61 F3 93 -21.566
61 F3 94 -22.542
61 F3 95 -22.542
61 F3 96 -22.054
61 F3 97 -23.031
61 F3 98 -24.495
61 F3 99 -25.960
61 F3 100 -26.449
61 F3 101 -25.960
61 F3 102 -24.007
61 F3 103 -22.054
61 F3 104 -20.101
61 F3 105 -19.124
61 F3 106 -18.636
61 F3 107 -18.636
61 F3 108 -19.124
61 F3 109 -20.101
61 F3 110 -22.054
61 F3 111 -23.031
61 F3 112 -23.519
61 F3 113 -23.031
61 F3 114 -21.077
61 F3 115 -19.613
61 F3 116 -18.636
61 F3 117 -18.636
61 F3 118 -18.636
61 F3 119 -18.636
61 F3 120 -19.124
61 F3 121 -19.124
61 F3 122 -19.613
61 F3 123 -20.589
61 F3 124 -21.077
61 F3 125 -20.589
61 F3 126 -19.613
61 F3 127 -18.636
61 F3 128 -18.148
61 F3 129 -18.148
61 F3 130 -19.613
61 F3 131 -20.589
61 F3 132 -21.077
61 F3 133 -21.566
61 F3 134 -22.054
61 F3 135 -22.542
61 F3 136 -24.007
61 F3 137 -24.984
61 F3 138 -25.960
61 F3 139 -26.937
61 F3 140 -26.937
61 F3 141 -27.425
61 F3 142 -27.425
61 F3 143 -25.960
61 F3 144 -24.495
61 F3 145 -23.031
61 F3 146 -22.542
61 F3 147 -24.495
61 F3 148 -26.937
61 F3 149 -29.867
61 F3 150 -31.820
61 F3 151 -32.796
61 F3 152 -33.285
61 F3 153 -33.773
61 F3 154 -35.238
61 F3 155 -37.191
61 F3 156 -38.656
61 F3 157 -38.167
61 F3 158 -36.214
61 F3 159 -32.796
61 F3 160 -29.378
61 F3 161 -26.449
61 F3 162 -24.984
61 F3 163 -25.960
61 F3 164 -27.425
61 F3 165 -29.378
61 F3 166 -29.867
61 F3 167 -29.378
61 F3 168 -27.913
61 F3 169 -26.449
61 F3 170 -25.472
61 F3 171 -24.984
61 F3 172 -25.472
61 F3 173 -25.960
61 F3 174 -26.449
61 F3 175 -26.449
61 F3 176 -25.960
61 F3 177 -25.960
61 F3 178 -24.495
61 F3 179 -23.031
61 F3 180 -21.566
61 F3 181 -21.077
61 F3 182 -21.077
61 F3 183 -22.542
61 F3 184 -24.495
61 F3 185 -26.449
61 F3 186 -27.913
61 F3 187 -27.913
61 F3 188 -26.937
61 F3 189 -25.472
61 F3 190 -24.007
61 F3 191 -23.519
61 F3 192 -23.519
61 F3 193 -24.007
61 F3 194 -24.007
61 F3 195 -23.031
61 F3 196 -21.566
61 F3 197 -19.613
61 F3 198 -18.148
61 F3 199 -17.171
61 F3 200 -17.660
61 F3 201 -18.148
61 F3 202 -19.613
61 F3 203 -21.077
61 F3 204 -22.054
61 F3 205 -22.054
61 F3 206 -22.054
61 F3 207 -21.566
61 F3 208 -21.077
61 F3 209 -21.077
61 F3 210 -21.566
61 F3 211 -22.542
61 F3 212 -23.519
61 F3 213 -24.495
61 F3 214 -24.495
61 F3 215 -24.495
61 F3 216 -24.984
61 F3 217 -24.984
61 F3 218 -25.960
61 F3 219 -26.937
61 F3 220 -27.913
61 F3 221 -28.402
61 F3 222 -29.378
61 F3 223 -29.867
61 F3 224 -29.867
61 F3 225 -29.867
61 F3 226 -29.867
61 F3 227 -29.867
61 F3 228 -29.867
61 F3 229 -29.867
61 F3 230 -29.867
61 F3 231 -28.402
61 F3 232 -27.913
61 F3 233 -27.913
61 F3 234 -28.890
61 F3 235 -30.843
61 F3 236 -32.308
61 F3 237 -32.796
61 F3 238 -32.796
61 F3 239 -31.820
61 F3 240 -31.331
61 F3 241 -30.843
61 F3 242 -30.843
61 F3 243 -30.355
61 F3 244 -27.913
61 F3 245 -24.984
61 F3 246 -22.054
61 F3 247 -21.566
61 F3 248 -22.542
61 F3 249 -24.984
61 F3 250 -27.913
61 F3 251 -30.355
61 F3 252 -33.285
61 F3 253 -36.214
61 F3 254 -38.656
61 F3 255 -40.609
# FC6 chan 9
61 FC6 0 5.137
61 FC6 1 5.137
61 FC6 2 5.625
61 FC6 3 5.625
61 FC6 4 6.114
61 FC6 5 6.114
61 FC6 6 5.625
61 FC6 7 4.649
61 FC6 8 3.184
61 FC6 9 1.719
61 FC6 10 1.231
61 FC6 11 1.231
61 FC6 12 1.719
61 FC6 13 1.719
61 FC6 14 1.231
61 FC6 15 0.254
61 FC6 16 -0.722
61 FC6 17 -0.722
61 FC6 18 0.254
61 FC6 19 1.719
61 FC6 20 3.184
61 FC6 21 4.161
61 FC6 22 4.649
61 FC6 23 4.649
61 FC6 24 5.137
61 FC6 25 6.114
61 FC6 26 7.579
61 FC6 27 9.043
61 FC6 28 11.485
61 FC6 29 12.461
61 FC6 30 12.461
61 FC6 31 10.020
61 FC6 32 7.579
61 FC6 33 6.602
61 FC6 34 7.579
61 FC6 35 10.508
61 FC6 36 13.438
61 FC6 37 14.414
61 FC6 38 12.950
61 FC6 39 9.532
61 FC6 40 7.579
61 FC6 41 7.090
61 FC6 42 7.579
61 FC6 43 7.579
61 FC6 44 5.137
61 FC6 45 1.719
61 FC6 46 -2.187
61 FC6 47 -5.117
61 FC6 48 -5.605
61 FC6 49 -4.628
61 FC6 50 -3.652
61 FC6 51 -3.164
61 FC6 52 -3.164
61 FC6 53 -4.140
61 FC6 54 -4.628
61 FC6 55 -4.140
61 FC6 56 -1.699
61 FC6 57 1.719
61 FC6 58 6.114
61 FC6 59 9.043
61 FC6 60 10.020
61 FC6 61 9.043
61 FC6 62 7.579
61 FC6 63 7.090
61 FC6 64 8.067
61 FC6 65 9.532
61 FC6 66 10.508
61 FC6 67 8.555
61 FC6 68 5.625
61 FC6 69 2.207
61 FC6 70 0.254
61 FC6 71 -0.722
61 FC6 72 -1.211
61 FC6 73 -2.187
61 FC6 74 -2.675
61 FC6 75 -2.675
61 FC6 76 -2.187
61 FC6 77 -1.699
61 FC6 78 -1.699
61 FC6 79 -2.675
61 FC6 80 -3.652
61 FC6 81 -2.675
61 FC6 82 0.254
61 FC6 83 3.672
61 FC6 84 6.602
61 FC6 85 8.555
61 FC6 86 9.043
61 FC6 87 9.532
61 FC6 88 10.997
61 FC6 89 11.973
61 FC6 90 11.485
61 FC6 91 10.020
61 FC6 92 7.579
61 FC6 93 6.114
61 FC6 94 6.602
61 FC6 95 8.067
61 FC6 96 9.043
61 FC6 97 9.043
61 FC6 98 6.602
61 FC6 99 2.696
61 FC6 100 -1.211
61 FC6 101 -3.652
61 FC6 102 -5.117
61 FC6 103 -5.117
61 FC6 104 -5.605
61 FC6 105 -6.582
61 FC6 106 -7.070
61 FC6 107 -7.070
61 FC6 108 -6.582
61 FC6 109 -6.093
61 FC6 110 -5.605
61 FC6 111 -5.605
61 FC6 112 -5.117
61 FC6 113 -3.652
61 FC6 114 -0.234
61 FC6 115 2.696
61 FC6 116 5.137
61 FC6 117 5.625
61 FC6 118 4.161
61 FC6 119 1.719
61 FC6 120 -0.234
61 FC6 121 -0.234
61 FC6 122 1.719
61 FC6 123 4.649
61 FC6 124 8.067
61 FC6 125 9.532
61 FC6 126 9.532
61 FC6 127 8.067
61 FC6 128 6.114
61 FC6 129 5.137
61 FC6 130 6.114
61 FC6 131 8.555
61 FC6 132 10.508
61 FC6 133 11.485
61 FC6 134 10.997
61 FC6 135 8.555
61 FC6 136 5.625
61 FC6 137 2.207
61 FC6 138 -0.234
61 FC6 139 -1.699
61 FC6 140 -1.699
61 FC6 141 -1.211
61 FC6 142 -0.234
61 FC6 143 1.231
61 FC6 144 2.696
61 FC6 145 3.672
61 FC6 146 3.184
61 FC6 147 2.207
61 FC6 148 -0.234
61 FC6 149 -1.699
61 FC6 150 -2.675
61 FC6 151 -2.675
61 FC6 152 -1.211
61 FC6 153 -0.234
61 FC6 154 -0.234
61 FC6 155 -0.722
61 FC6 156 -1.211
61 FC6 157 -1.211
61 FC6 158 -0.234
61 FC6 159 1.231
61 FC6 160 2.207
61 FC6 161 2.696
61 FC6 162 3.184
61 FC6 163 4.161
61 FC6 164 6.602
61 FC6 165 8.555
61 FC6 166 10.997
61 FC6 167 12.950
61 FC6 168 13.926
61 FC6 169 13.926
61 FC6 170 12.950
61 FC6 171 10.997
61 FC6 172 8.555
61 FC6 173 7.579
61 FC6 174 7.579
61 FC6 175 9.043
61 FC6 176 10.997
61 FC6 177 11.973
61 FC6 178 11.485
61 FC6 179 10.508
61 FC6 180 9.043
61 FC6 181 9.043
61 FC6 182 9.043
61 FC6 183 9.043
61 FC6 184 8.067
61 FC6 185 6.114
61 FC6 186 4.649
61 FC6 187 5.137
61 FC6 188 7.579
61 FC6 189 10.020
61 FC6 190 11.973
61 FC6 191 11.485
61 FC6 192 9.043
61 FC6 193 6.114
61 FC6 194 4.161
61 FC6 195 3.184
61 FC6 196 3.184
61 FC6 197 4.161
61 FC6 198 5.625
61 FC6 199 8.555
61 FC6 200 12.950
61 FC6 201 17.344
61 FC6 202 19.786
61 FC6 203 19.786
61 FC6 204 17.344
61 FC6 205 13.926
61 FC6 206 11.973
61 FC6 207 10.997
61 FC6 208 10.020
61 FC6 209 8.555
61 FC6 210 6.114
61 FC6 211 4.161
61 FC6 212 2.207
61 FC6 213 1.231
61 FC6 214 1.231
61 FC6 215 1.231
61 FC6 216 2.696
61 FC6 217 5.137
61 FC6 218 7.579
61 FC6 219 9.532
61 FC6 220 9.532
61 FC6 221 9.532
61 FC6 222 9.043
61 FC6 223 10.020
61 FC6 224 11.973
61 FC6 225 13.438
61 FC6 226 12.950
61 FC6 227 10.997
61 FC6 228 7.579
61 FC6 229 5.137
61 FC6 230 3.672
61 FC6 231 2.696
61 FC6 232 1.231
61 FC6 233 -0.722
61 FC6 234 -2.675
61 FC6 235 -3.164
61 FC6 236 -1.699
61 FC6 237 0.743
61 FC6 238 3.184
61 FC6 239 4.161
61 FC6 240 3.672
61 FC6 241 3.184
61 FC6 242 3.184
61 FC6 243 4.161
61 FC6 244 4.649
61 FC6 245 4.649
61 FC6 246 2.207
61 FC6 247 -1.211
61 FC6 248 -4.140
61 FC6 249 -5.117
61 FC6 250 -4.628
61 FC6 251 -3.164
61 FC6 252 -2.187
61 FC6 253 -2.187
61 FC6 254 -3.164
61 FC6 255 -5.605
# FC5 chan 10
61 FC5 0 3.265
61 FC5 1 1.312
61 FC5 2 0.824
61 FC5 3 2.777
61 FC5 4 4.730
61 FC5 5 5.707
61 FC5 6 4.730
61 FC5 7 2.777
61 FC5 8 1.312
61 FC5 9 1.801
61 FC5 10 3.265
61 FC5 11 4.730
61 FC5 12 6.195
61 FC5 13 6.195
61 FC5 14 4.730
61 FC5 15 2.777
61 FC5 16 1.801
61 FC5 17 2.289
61 FC5 18 4.242
61 FC5 19 7.660
61 FC5 20 11.078
61 FC5 21 13.031
61 FC5 22 14.008
61 FC5 23 14.008
61 FC5 24 12.543
61 FC5 25 10.101
61 FC5 26 7.172
61 FC5 27 4.242
61 FC5 28 1.801
61 FC5 29 2.289
61 FC5 30 5.219
61 FC5 31 10.590
61 FC5 32 15.472
61 FC5 33 16.937
61 FC5 34 14.984
61 FC5 35 10.590
61 FC5 36 7.172
61 FC5 37 5.707
61 FC5 38 6.195
61 FC5 39 7.172
61 FC5 40 7.172
61 FC5 41 5.219
61 FC5 42 2.289
61 FC5 43 0.336
61 FC5 44 -1.129
61 FC5 45 -2.106
61 FC5 46 -3.082
61 FC5 47 -4.059
61 FC5 48 -4.059
61 FC5 49 -3.082
61 FC5 50 -1.129
61 FC5 51 0.336
61 FC5 52 -0.641
61 FC5 53 -3.082
61 FC5 54 -6.012
61 FC5 55 -6.989
61 FC5 56 -6.012
61 FC5 57 -3.082
61 FC5 58 -1.129
61 FC5 59 -1.129
61 FC5 60 -2.106
61 FC5 61 -1.129
61 FC5 62 2.289
61 FC5 63 8.148
61 FC5 64 13.519
61 FC5 65 14.496
61 FC5 66 11.078
61 FC5 67 5.219
61 FC5 68 2.777
61 FC5 69 5.219
61 FC5 70 12.054
61 FC5 71 18.890
61 FC5 72 21.332
61 FC5 73 17.914
61 FC5 74 11.566
61 FC5 75 6.195
61 FC5 76 3.754
61 FC5 77 3.754
61 FC5 78 4.242
61 FC5 79 2.777
61 FC5 80 0.336
61 FC5 81 -0.153
61 FC5 82 2.289
61 FC5 83 7.172
61 FC5 84 13.031
61 FC5 85 16.449
61 FC5 86 16.937
61 FC5 87 14.984
61 FC5 88 10.590
61 FC5 89 4.730
61 FC5 90 -1.129
61 FC5 91 -6.989
61 FC5 92 -9.918
61 FC5 93 -10.406
61 FC5 94 -8.453
61 FC5 95 -6.500
61 FC5 96 -6.012
61 FC5 97 -7.477
61 FC5 98 -9.918
61 FC5 99 -12.360
61 FC5 100 -12.848
61 FC5 101 -10.895
61 FC5 102 -7.477
61 FC5 103 -4.059
61 FC5 104 -1.617
61 FC5 105 -1.617
61 FC5 106 -2.594
61 FC5 107 -4.547
61 FC5 108 -6.500
61 FC5 109 -7.477
61 FC5 110 -7.965
61 FC5 111 -7.965
61 FC5 112 -7.477
61 FC5 113 -6.989
61 FC5 114 -6.012
61 FC5 115 -5.035
61 FC5 116 -4.547
61 FC5 117 -3.082
61 FC5 118 -2.106
61 FC5 119 -0.153
61 FC5 120 1.312
61 FC5 121 0.824
61 FC5 122 -1.617
61 FC5 123 -4.547
61 FC5 124 -5.035
61 FC5 125 -3.082
61 FC5 126 -0.153
61 FC5 127 1.801
61 FC5 128 0.824
61 FC5 129 -2.106
61 FC5 130 -4.547
61 FC5 131 -5.035
61 FC5 132 -3.571
61 FC5 133 -3.571
61 FC5 134 -6.989
61 FC5 135 -12.360
61 FC5 136 -17.242
61 FC5 137 -18.707
61 FC5 138 -17.242
61 FC5 139 -13.824
61 FC5 140 -11.383
61 FC5 141 -9.430
61 FC5 142 -8.453
61 FC5 143 -6.500
61 FC5 144 -5.524
61 FC5 145 -5.524
61 FC5 146 -7.477
61 FC5 147 -10.406
61 FC5 148 -12.360
61 FC5 149 -12.360
61 FC5 150 -12.360
61 FC5 151 -12.848
61 FC5 152 -14.313
61 FC5 153 -17.242
61 FC5 154 -19.196
61 FC5 155 -18.707
61 FC5 156 -17.242
61 FC5 157 -13.824
61 FC5 158 -9.918
61 FC5 159 -6.500
61 FC5 160 -5.035
61 FC5 161 -5.524
61 FC5 162 -7.965
61 FC5 163 -10.895
61 FC5 164 -12.360
61 FC5 165 -12.360
61 FC5 166 -9.918
61 FC5 167 -6.989
61 FC5 168 -4.547
61 FC5 169 -3.571
61 FC5 170 -3.082
61 FC5 171 -3.571
61 FC5 172 -4.059
61 FC5 173 -5.035
61 FC5 174 -6.989
61 FC5 175 -9.430
61 FC5 176 -11.383
61 FC5 177 -12.360
61 FC5 178 -10.895
61 FC5 179 -9.430
61 FC5 180 -8.942
61 FC5 181 -9.430
61 FC5 182 -12.360
61 FC5 183 -14.313
61 FC5 184 -15.289
61 FC5 185 -15.778
61 FC5 186 -14.313
61 FC5 187 -12.848
61 FC5 188 -10.406
61 FC5 189 -7.965
61 FC5 190 -5.035
61 FC5 191 -3.082
61 FC5 192 -1.617
61 FC5 193 -0.641
61 FC5 194 -0.153
61 FC5 195 0.824
61 FC5 196 1.801
61 FC5 197 1.801
61 FC5 198 0.336
61 FC5 199 -2.594
61 FC5 200 -5.524
61 FC5 201 -7.477
61 FC5 202 -8.942
61 FC5 203 -9.430
61 FC5 204 -9.918
61 FC5 205 -9.918
61 FC5 206 -9.430
61 FC5 207 -8.942
61 FC5 208 -8.942
61 FC5 209 -10.406
61 FC5 210 -13.824
61 FC5 211 -16.266
61 FC5 212 -17.731
61 FC5 213 -17.242
61 FC5 214 -15.778
61 FC5 215 -15.289
61 FC5 216 -16.266
61 FC5 217 -17.731
61 FC5 218 -19.196
61 FC5 219 -18.707
61 FC5 220 -17.731
61 FC5 221 -16.266
61 FC5 222 -14.801
61 FC5 223 -14.313
61 FC5 224 -13.336
61 FC5 225 -12.848
61 FC5 226 -12.848
61 FC5 227 -14.313
61 FC5 228 -17.242
61 FC5 229 -18.707
61 FC5 230 -17.731
61 FC5 231 -14.313
61 FC5 232 -9.430
61 FC5 233 -6.989
61 FC5 234 -8.453
61 FC5 235 -12.360
61 FC5 236 -16.754
61 FC5 237 -18.219
61 FC5 238 -17.242
61 FC5 239 -13.824
61 FC5 240 -11.383
61 FC5 241 -9.918
61 FC5 242 -8.942
61 FC5 243 -7.965
61 FC5 244 -5.035
61 FC5 245 -1.617
61 FC5 246 1.312
61 FC5 247 0.824
61 FC5 248 -3.571
61 FC5 249 -10.406
61 FC5 250 -16.754
61 FC5 251 -21.637
61 FC5 252 -24.567
61 FC5 253 -25.543
61 FC5 254 -26.031
61 FC5 255 -26.031
# FC2 chan 11
61 FC2 0 0.132
61 FC2 1 0.621
61 FC2 2 0.621
61 FC2 3 0.132
61 FC2 4 0.621
61 FC2 5 0.621
61 FC2 6 0.621
61 FC2 7 1.109
61 FC2 8 1.109
61 FC2 9 1.109
61 FC2 10 1.109
61 FC2 11 1.597
61 FC2 12 2.574
61 FC2 13 3.062
61 FC2 14 4.038
61 FC2 15 4.038
61 FC2 16 3.550
61 FC2 17 3.550
61 FC2 18 3.550
61 FC2 19 4.038
61 FC2 20 5.015
61 FC2 21 5.503
61 FC2 22 5.992
61 FC2 23 6.968
61 FC2 24 7.456
61 FC2 25 7.945
61 FC2 26 7.945
61 FC2 27 7.945
61 FC2 28 7.945
61 FC2 29 8.433
61 FC2 30 8.433
61 FC2 31 7.945
61 FC2 32 6.480
61 FC2 33 5.015
61 FC2 34 4.527
61 FC2 35 5.015
61 FC2 36 5.015
61 FC2 37 5.015
61 FC2 38 4.527
61 FC2 39 3.550
61 FC2 40 3.062
61 FC2 41 3.550
61 FC2 42 4.527
61 FC2 43 5.015
61 FC2 44 4.038
61 FC2 45 1.597
61 FC2 46 -0.844
61 FC2 47 -2.309
61 FC2 48 -3.774
61 FC2 49 -3.774
61 FC2 50 -3.286
61 FC2 51 -2.797
61 FC2 52 -1.333
61 FC2 53 0.132
61 FC2 54 1.109
61 FC2 55 1.597
61 FC2 56 1.597
61 FC2 57 1.109
61 FC2 58 1.597
61 FC2 59 2.085
61 FC2 60 3.550
61 FC2 61 5.015
61 FC2 62 5.503
61 FC2 63 5.992
61 FC2 64 6.480
61 FC2 65 6.968
61 FC2 66 7.456
61 FC2 67 6.480
61 FC2 68 3.550
61 FC2 69 1.109
61 FC2 70 -0.844
61 FC2 71 -1.333
61 FC2 72 -1.333
61 FC2 73 -0.844
61 FC2 74 -1.333
61 FC2 75 -1.821
61 FC2 76 -1.821
61 FC2 77 -0.844
61 FC2 78 0.132
61 FC2 79 -0.356
61 FC2 80 -1.333
61 FC2 81 -2.797
61 FC2 82 -3.774
61 FC2 83 -3.774
61 FC2 84 -2.309
61 FC2 85 -0.844
61 FC2 86 0.621
61 FC2 87 2.085
61 FC2 88 4.038
61 FC2 89 5.015
61 FC2 90 5.015
61 FC2 91 3.062
61 FC2 92 1.109
61 FC2 93 -0.844
61 FC2 94 -0.844
61 FC2 95 0.132
61 FC2 96 1.597
61 FC2 97 3.062
61 FC2 98 2.574
61 FC2 99 1.109
61 FC2 100 -0.356
61 FC2 101 -1.333
61 FC2 102 -1.821
61 FC2 103 -1.821
61 FC2 104 -1.821
61 FC2 105 -2.309
61 FC2 106 -3.286
61 FC2 107 -3.286
61 FC2 108 -3.774
61 FC2 109 -3.774
61 FC2 110 -4.751
61 FC2 111 -5.239
61 FC2 112 -6.215
61 FC2 113 -6.704
61 FC2 114 -6.704
61 FC2 115 -5.727
61 FC2 116 -4.262
61 FC2 117 -2.309
61 FC2 118 -1.333
61 FC2 119 -0.844
61 FC2 120 -1.333
61 FC2 121 -1.821
61 FC2 122 -2.309
61 FC2 123 -1.333
61 FC2 124 0.132
61 FC2 125 1.597
61 FC2 126 2.574
61 FC2 127 2.574
61 FC2 128 2.085
61 FC2 129 1.597
61 FC2 130 2.085
61 FC2 131 2.574
61 FC2 132 3.062
61 FC2 133 3.550
61 FC2 134 3.550
61 FC2 135 3.550
61 FC2 136 2.574
61 FC2 137 2.085
61 FC2 138 1.597
61 FC2 139 1.109
61 FC2 140 0.621
61 FC2 141 0.621
61 FC2 142 1.109
61 FC2 143 1.109
61 FC2 144 1.597
61 FC2 145 1.597
61 FC2 146 1.597
61 FC2 147 1.109
61 FC2 148 1.109
61 FC2 149 0.621
61 FC2 150 0.132
61 FC2 151 -0.844
61 FC2 152 -1.333
61 FC2 153 -1.821
61 FC2 154 -2.309
61 FC2 155 -2.797
61 FC2 156 -3.286
61 FC2 157 -3.286
61 FC2 158 -3.286
61 FC2 159 -2.797
61 FC2 160 -2.309
61 FC2 161 -1.821
61 FC2 162 -1.333
61 FC2 163 -1.333
61 FC2 164 -0.844
61 FC2 165 0.132
61 FC2 166 0.621
61 FC2 167 2.085
61 FC2 168 4.038
61 FC2 169 4.527
61 FC2 170 4.527
61 FC2 171 3.550
61 FC2 172 1.597
61 FC2 173 0.132
61 FC2 174 -0.356
61 FC2 175 0.132
61 FC2 176 2.085
61 FC2 177 3.062
61 FC2 178 4.038
61 FC2 179 3.550
61 FC2 180 3.550
61 FC2 181 3.550
61 FC2 182 3.550
61 FC2 183 3.550
61 FC2 184 3.062
61 FC2 185 2.574
61 FC2 186 2.085
61 FC2 187 2.085
61 FC2 188 3.062
61 FC2 189 3.550
61 FC2 190 3.550
61 FC2 191 2.574
61 FC2 192 1.109
61 FC2 193 0.132
61 FC2 194 0.621
61 FC2 195 1.109
61 FC2 196 1.597
61 FC2 197 2.085
61 FC2 198 2.574
61 FC2 199 3.062
61 FC2 200 4.038
61 FC2 201 5.015
61 FC2 202 5.015
61 FC2 203 4.527
61 FC2 204 3.550
61 FC2 205 2.574
61 FC2 206 2.574
61 FC2 207 2.574
61 FC2 208 2.574
61 FC2 209 2.085
61 FC2 210 1.597
61 FC2 211 1.597
61 FC2 212 1.597
61 FC2 213 2.085
61 FC2 214 2.085
61 FC2 215 1.597
61 FC2 216 1.597
61 FC2 217 2.085
61 FC2 218 3.550
61 FC2 219 4.527
61 FC2 220 4.527
61 FC2 221 4.038
61 FC2 222 2.574
61 FC2 223 1.597
61 FC2 224 1.597
61 FC2 225 1.597
61 FC2 226 1.597
61 FC2 227 1.109
61 FC2 228 0.132
61 FC2 229 0.132
61 FC2 230 0.132
61 FC2 231 0.621
61 FC2 232 0.132
61 FC2 233 -0.844
61 FC2 234 -1.821
61 FC2 235 -1.821
61 FC2 236 -0.844
61 FC2 237 1.109
61 FC2 238 2.574
61 FC2 239 2.574
61 FC2 240 2.574
61 FC2 241 1.597
61 FC2 242 1.597
61 FC2 243 1.597
61 FC2 244 2.085
61 FC2 245 2.085
61 FC2 246 2.085
61 FC2 247 1.597
61 FC2 248 0.621
61 FC2 249 0.132
61 FC2 250 0.132
61 FC2 251 0.621
61 FC2 252 0.621
61 FC2 253 1.109
61 FC2 254 0.621
61 FC2 255 -0.356
# FC1 chan 12
61 FC1 0 -5.920
61 FC1 1 -5.432
61 FC1 2 -4.456
61 FC1 3 -3.479
61 FC1 4 -2.991
61 FC1 5 -2.991
61 FC1 6 -3.479
61 FC1 7 -3.967
61 FC1 8 -3.479
61 FC1 9 -2.991
61 FC1 10 -1.526
61 FC1 11 -0.549
61 FC1 12 0.916
61 FC1 13 1.892
61 FC1 14 2.380
61 FC1 15 2.869
61 FC1 16 2.380
61 FC1 17 1.892
61 FC1 18 0.916
61 FC1 19 0.427
61 FC1 20 0.427
61 FC1 21 0.916
61 FC1 22 2.380
61 FC1 23 3.357
61 FC1 24 3.357
61 FC1 25 1.892
61 FC1 26 -0.061
61 FC1 27 -1.526
61 FC1 28 -2.502
61 FC1 29 -1.526
61 FC1 30 0.427
61 FC1 31 0.916
61 FC1 32 0.916
61 FC1 33 -0.061
61 FC1 34 -1.038
61 FC1 35 -0.061
61 FC1 36 1.404
61 FC1 37 2.380
61 FC1 38 1.892
61 FC1 39 0.427
61 FC1 40 -1.526
61 FC1 41 -2.991
61 FC1 42 -3.479
61 FC1 43 -3.479
61 FC1 44 -4.456
61 FC1 45 -5.920
61 FC1 46 -7.385
61 FC1 47 -7.874
61 FC1 48 -6.897
61 FC1 49 -5.432
61 FC1 50 -3.967
61 FC1 51 -2.502
61 FC1 52 -1.526
61 FC1 53 -1.526
61 FC1 54 -2.014
61 FC1 55 -2.014
61 FC1 56 -2.991
61 FC1 57 -2.991
61 FC1 58 -2.991
61 FC1 59 -1.526
61 FC1 60 0.916
61 FC1 61 2.869
61 FC1 62 4.333
61 FC1 63 5.310
61 FC1 64 6.287
61 FC1 65 7.263
61 FC1 66 8.240
61 FC1 67 8.240
61 FC1 68 7.751
61 FC1 69 6.775
61 FC1 70 5.798
61 FC1 71 5.798
61 FC1 72 5.798
61 FC1 73 4.822
61 FC1 74 2.380
61 FC1 75 -0.549
61 FC1 76 -1.526
61 FC1 77 -1.526
61 FC1 78 0.427
61 FC1 79 2.380
61 FC1 80 3.357
61 FC1 81 2.869
61 FC1 82 1.892
61 FC1 83 1.404
61 FC1 84 1.404
61 FC1 85 1.404
61 FC1 86 1.892
61 FC1 87 2.380
61 FC1 88 1.892
61 FC1 89 1.404
61 FC1 90 -0.549
61 FC1 91 -3.479
61 FC1 92 -6.409
61 FC1 93 -8.362
61 FC1 94 -8.850
61 FC1 95 -8.362
61 FC1 96 -6.897
61 FC1 97 -6.409
61 FC1 98 -5.920
61 FC1 99 -5.920
61 FC1 100 -4.944
61 FC1 101 -3.967
61 FC1 102 -2.014
61 FC1 103 -0.549
61 FC1 104 -0.061
61 FC1 105 -0.061
61 FC1 106 -0.549
61 FC1 107 -1.526
61 FC1 108 -2.991
61 FC1 109 -4.456
61 FC1 110 -5.920
61 FC1 111 -7.385
61 FC1 112 -7.385
61 FC1 113 -7.385
61 FC1 114 -5.920
61 FC1 115 -4.456
61 FC1 116 -3.479
61 FC1 117 -2.502
61 FC1 118 -2.014
61 FC1 119 -1.526
61 FC1 120 -1.526
61 FC1 121 -1.526
61 FC1 122 -1.038
61 FC1 123 -1.038
61 FC1 124 -0.549
61 FC1 125 0.427
61 FC1 126 1.404
61 FC1 127 1.892
61 FC1 128 0.916
61 FC1 129 -0.549
61 FC1 130 -2.502
61 FC1 131 -3.967
61 FC1 132 -4.456
61 FC1 133 -4.456
61 FC1 134 -4.456
61 FC1 135 -4.456
61 FC1 136 -4.456
61 FC1 137 -4.944
61 FC1 138 -4.944
61 FC1 139 -5.432
61 FC1 140 -6.409
61 FC1 141 -6.897
61 FC1 142 -5.920
61 FC1 143 -3.967
61 FC1 144 -2.014
61 FC1 145 -0.549
61 FC1 146 -1.526
61 FC1 147 -3.479
61 FC1 148 -6.409
61 FC1 149 -8.362
61 FC1 150 -9.827
61 FC1 151 -9.827
61 FC1 152 -10.315
61 FC1 153 -10.803
61 FC1 154 -11.292
61 FC1 155 -11.780
61 FC1 156 -11.292
61 FC1 157 -10.315
61 FC1 158 -9.338
61 FC1 159 -8.362
61 FC1 160 -7.385
61 FC1 161 -6.897
61 FC1 162 -6.897
61 FC1 163 -7.874
61 FC1 164 -10.315
61 FC1 165 -12.268
61 FC1 166 -12.756
61 FC1 167 -12.268
61 FC1 168 -10.315
61 FC1 169 -7.874
61 FC1 170 -5.920
61 FC1 171 -3.967
61 FC1 172 -3.479
61 FC1 173 -3.479
61 FC1 174 -3.479
61 FC1 175 -4.456
61 FC1 176 -5.432
61 FC1 177 -5.920
61 FC1 178 -6.409
61 FC1 179 -5.920
61 FC1 180 -5.920
61 FC1 181 -5.432
61 FC1 182 -5.920
61 FC1 183 -6.409
61 FC1 184 -7.385
61 FC1 185 -8.362
61 FC1 186 -9.338
61 FC1 187 -9.827
61 FC1 188 -9.338
61 FC1 189 -8.362
61 FC1 190 -6.897
61 FC1 191 -6.409
61 FC1 192 -5.920
61 FC1 193 -5.432
61 FC1 194 -3.967
61 FC1 195 -1.038
61 FC1 196 1.404
61 FC1 197 2.869
61 FC1 198 2.380
61 FC1 199 0.427
61 FC1 200 -2.502
61 FC1 201 -3.967
61 FC1 202 -4.456
61 FC1 203 -3.967
61 FC1 204 -3.479
61 FC1 205 -3.967
61 FC1 206 -3.967
61 FC1 207 -3.967
61 FC1 208 -3.967
61 FC1 209 -4.456
61 FC1 210 -4.944
61 FC1 211 -5.920
61 FC1 212 -6.409
61 FC1 213 -5.920
61 FC1 214 -5.432
61 FC1 215 -5.432
61 FC1 216 -5.432
61 FC1 217 -6.409
61 FC1 218 -6.409
61 FC1 219 -5.920
61 FC1 220 -5.432
61 FC1 221 -5.432
61 FC1 222 -5.920
61 FC1 223 -6.897
61 FC1 224 -7.385
61 FC1 225 -7.385
61 FC1 226 -5.920
61 FC1 227 -4.944
61 FC1 228 -3.967
61 FC1 229 -3.479
61 FC1 230 -2.991
61 FC1 231 -2.014
61 FC1 232 -2.502
61 FC1 233 -3.479
61 FC1 234 -4.944
61 FC1 235 -6.897
61 FC1 236 -7.874
61 FC1 237 -6.897
61 FC1 238 -5.432
61 FC1 239 -2.991
61 FC1 240 -1.526
61 FC1 241 -0.061
61 FC1 242 0.427
61 FC1 243 0.916
61 FC1 244 2.380
61 FC1 245 3.845
61 FC1 246 4.333
61 FC1 247 3.845
61 FC1 248 2.380
61 FC1 249 0.427
61 FC1 250 -1.038
61 FC1 251 -2.014
61 FC1 252 -2.014
61 FC1 253 -2.502
61 FC1 254 -2.502
61 FC1 255 -2.991
# T8 chan 13
61 T8 0 19.216
61 T8 1 18.239
61 T8 2 16.774
61 T8 3 14.821
61 T8 4 12.868
61 T8 5 10.915
61 T8 6 9.450
61 T8 7 7.497
61 T8 8 6.032
61 T8 9 4.567
61 T8 10 3.591
61 T8 11 2.614
61 T8 12 1.638
61 T8 13 0.173
61 T8 14 -1.292
61 T8 15 -3.245
61 T8 16 -4.222
61 T8 17 -3.733
61 T8 18 -2.268
61 T8 19 -0.315
61 T8 20 2.126
61 T8 21 3.591
61 T8 22 4.567
61 T8 23 5.056
61 T8 24 6.521
61 T8 25 7.985
61 T8 26 9.939
61 T8 27 10.915
61 T8 28 11.403
61 T8 29 10.915
61 T8 30 9.450
61 T8 31 7.985
61 T8 32 7.009
61 T8 33 7.497
61 T8 34 8.962
61 T8 35 12.380
61 T8 36 15.798
61 T8 37 17.263
61 T8 38 16.774
61 T8 39 14.333
61 T8 40 11.403
61 T8 41 9.450
61 T8 42 8.474
61 T8 43 6.521
61 T8 44 4.079
61 T8 45 0.661
61 T8 46 -3.245
61 T8 47 -5.686
61 T8 48 -5.686
61 T8 49 -5.198
61 T8 50 -4.710
61 T8 51 -5.198
61 T8 52 -7.151
61 T8 53 -8.616
61 T8 54 -9.104
61 T8 55 -7.640
61 T8 56 -5.198
61 T8 57 -1.292
61 T8 58 2.614
61 T8 59 6.032
61 T8 60 8.474
61 T8 61 9.450
61 T8 62 9.939
61 T8 63 9.450
61 T8 64 8.474
61 T8 65 7.985
61 T8 66 7.009
61 T8 67 6.032
61 T8 68 4.567
61 T8 69 2.614
61 T8 70 0.661
61 T8 71 -0.804
61 T8 72 -1.780
61 T8 73 -0.804
61 T8 74 0.661
61 T8 75 3.103
61 T8 76 5.056
61 T8 77 5.544
61 T8 78 5.056
61 T8 79 4.079
61 T8 80 3.103
61 T8 81 4.079
61 T8 82 6.521
61 T8 83 8.474
61 T8 84 11.403
61 T8 85 13.845
61 T8 86 15.798
61 T8 87 16.774
61 T8 88 16.774
61 T8 89 15.310
61 T8 90 12.868
61 T8 91 11.403
61 T8 92 11.403
61 T8 93 11.892
61 T8 94 12.380
61 T8 95 12.380
61 T8 96 10.427
61 T8 97 7.497
61 T8 98 4.567
61 T8 99 1.149
61 T8 100 -1.780
61 T8 101 -3.733
61 T8 102 -4.710
61 T8 103 -5.198
61 T8 104 -5.198
61 T8 105 -6.175
61 T8 106 -7.640
61 T8 107 -8.616
61 T8 108 -8.616
61 T8 109 -6.663
61 T8 110 -3.245
61 T8 111 0.173
61 T8 112 4.079
61 T8 113 7.009
61 T8 114 9.939
61 T8 115 12.380
61 T8 116 14.333
61 T8 117 14.821
61 T8 118 14.333
61 T8 119 11.892
61 T8 120 8.962
61 T8 121 7.009
61 T8 122 7.009
61 T8 123 8.474
61 T8 124 10.915
61 T8 125 12.380
61 T8 126 11.892
61 T8 127 9.939
61 T8 128 7.497
61 T8 129 6.521
61 T8 130 7.497
61 T8 131 9.450
61 T8 132 10.915
61 T8 133 10.427
61 T8 134 7.497
61 T8 135 3.103
61 T8 136 -1.292
61 T8 137 -4.222
61 T8 138 -4.710
61 T8 139 -4.222
61 T8 140 -1.780
61 T8 141 0.173
61 T8 142 1.149
61 T8 143 0.661
61 T8 144 -0.315
61 T8 145 -2.268
61 T8 146 -3.245
61 T8 147 -3.733
61 T8 148 -4.222
61 T8 149 -5.198
61 T8 150 -6.175
61 T8 151 -7.151
61 T8 152 -7.640
61 T8 153 -7.640
61 T8 154 -6.663
61 T8 155 -4.710
61 T8 156 -3.245
61 T8 157 -2.268
61 T8 158 -2.268
61 T8 159 -2.757
61 T8 160 -3.245
61 T8 161 -3.733
61 T8 162 -2.757
61 T8 163 -0.315
61 T8 164 2.614
61 T8 165 6.521
61 T8 166 9.939
61 T8 167 11.892
61 T8 168 12.380
61 T8 169 12.868
61 T8 170 12.380
61 T8 171 11.892
61 T8 172 11.892
61 T8 173 11.403
61 T8 174 10.915
61 T8 175 10.427
61 T8 176 9.939
61 T8 177 8.962
61 T8 178 7.497
61 T8 179 6.032
61 T8 180 5.544
61 T8 181 5.544
61 T8 182 6.521
61 T8 183 7.985
61 T8 184 8.474
61 T8 185 8.474
61 T8 186 7.985
61 T8 187 7.009
61 T8 188 7.009
61 T8 189 7.497
61 T8 190 8.962
61 T8 191 10.427
61 T8 192 11.403
61 T8 193 10.915
61 T8 194 9.450
61 T8 195 6.521
61 T8 196 4.079
61 T8 197 2.126
61 T8 198 2.614
61 T8 199 6.521
61 T8 200 11.403
61 T8 201 17.263
61 T8 202 20.192
61 T8 203 20.192
61 T8 204 18.239
61 T8 205 14.821
61 T8 206 11.892
61 T8 207 9.450
61 T8 208 7.009
61 T8 209 4.567
61 T8 210 2.126
61 T8 211 1.149
61 T8 212 0.661
61 T8 213 0.173
61 T8 214 -0.804
61 T8 215 -1.780
61 T8 216 -1.780
61 T8 217 -0.804
61 T8 218 2.614
61 T8 219 6.032
61 T8 220 8.962
61 T8 221 10.427
61 T8 222 12.380
61 T8 223 14.821
61 T8 224 18.728
61 T8 225 22.634
61 T8 226 24.587
61 T8 227 23.122
61 T8 228 18.728
61 T8 229 13.357
61 T8 230 8.474
61 T8 231 4.567
61 T8 232 1.638
61 T8 233 -1.292
61 T8 234 -4.710
61 T8 235 -7.151
61 T8 236 -7.640
61 T8 237 -6.663
61 T8 238 -5.198
61 T8 239 -3.245
61 T8 240 -2.757
61 T8 241 -2.757
61 T8 242 -2.268
61 T8 243 -0.315
61 T8 244 2.126
61 T8 245 4.079
61 T8 246 4.079
61 T8 247 1.638
61 T8 248 -1.780
61 T8 249 -5.198
61 T8 250 -7.151
61 T8 251 -8.128
61 T8 252 -8.616
61 T8 253 -10.569
61 T8 254 -13.011
61 T8 255 -16.429
# T7 chan 14
61 T7 0 15.422
61 T7 1 13.957
61 T7 2 11.515
61 T7 3 9.074
61 T7 4 6.632
61 T7 5 5.656
61 T7 6 6.144
61 T7 7 7.609
61 T7 8 8.586
61 T7 9 9.562
61 T7 10 8.586
61 T7 11 7.609
61 T7 12 7.121
61 T7 13 6.632
61 T7 14 6.144
61 T7 15 4.191
61 T7 16 1.750
61 T7 17 -0.692
61 T7 18 -1.668
61 T7 19 -0.203
61 T7 20 4.191
61 T7 21 8.586
61 T7 22 12.004
61 T7 23 13.468
61 T7 24 12.492
61 T7 25 10.539
61 T7 26 9.562
61 T7 27 10.050
61 T7 28 11.515
61 T7 29 13.468
61 T7 30 15.910
61 T7 31 17.863
61 T7 32 18.351
61 T7 33 17.375
61 T7 34 13.957
61 T7 35 11.027
61 T7 36 9.562
61 T7 37 10.539
61 T7 38 12.004
61 T7 39 12.980
61 T7 40 11.027
61 T7 41 6.632
61 T7 42 1.750
61 T7 43 -0.692
61 T7 44 -0.692
61 T7 45 1.261
61 T7 46 3.703
61 T7 47 4.191
61 T7 48 3.703
61 T7 49 2.238
61 T7 50 2.238
61 T7 51 3.703
61 T7 52 4.191
61 T7 53 3.215
61 T7 54 -0.692
61 T7 55 -6.063
61 T7 56 -9.969
61 T7 57 -11.434
61 T7 58 -9.481
61 T7 59 -7.039
61 T7 60 -5.086
61 T7 61 -4.598
61 T7 62 -2.645
61 T7 63 1.750
61 T7 64 7.609
61 T7 65 13.468
61 T7 66 15.422
61 T7 67 12.980
61 T7 68 9.074
61 T7 69 7.121
61 T7 70 8.586
61 T7 71 12.492
61 T7 72 16.398
61 T7 73 17.863
61 T7 74 16.886
61 T7 75 14.933
61 T7 76 12.980
61 T7 77 10.539
61 T7 78 8.097
61 T7 79 5.656
61 T7 80 4.679
61 T7 81 7.609
61 T7 82 13.468
61 T7 83 20.304
61 T7 84 24.699
61 T7 85 24.211
61 T7 86 20.304
61 T7 87 14.445
61 T7 88 10.050
61 T7 89 7.609
61 T7 90 6.632
61 T7 91 5.656
61 T7 92 2.726
61 T7 93 -0.203
61 T7 94 -2.157
61 T7 95 -3.133
61 T7 96 -1.668
61 T7 97 -0.203
61 T7 98 1.261
61 T7 99 1.750
61 T7 100 1.261
61 T7 101 0.773
61 T7 102 0.773
61 T7 103 2.238
61 T7 104 3.703
61 T7 105 5.168
61 T7 106 4.679
61 T7 107 3.215
61 T7 108 0.285
61 T7 109 -2.157
61 T7 110 -3.621
61 T7 111 -4.110
61 T7 112 -4.598
61 T7 113 -5.086
61 T7 114 -5.086
61 T7 115 -4.598
61 T7 116 -2.157
61 T7 117 1.750
61 T7 118 6.144
61 T7 119 8.586
61 T7 120 9.074
61 T7 121 6.632
61 T7 122 3.215
61 T7 123 -0.203
61 T7 124 -1.668
61 T7 125 -1.668
61 T7 126 -1.180
61 T7 127 0.285
61 T7 128 1.750
61 T7 129 2.726
61 T7 130 2.726
61 T7 131 2.238
61 T7 132 1.261
61 T7 133 -0.692
61 T7 134 -3.133
61 T7 135 -6.063
61 T7 136 -8.504
61 T7 137 -9.969
61 T7 138 -9.969
61 T7 139 -8.504
61 T7 140 -7.039
61 T7 141 -6.063
61 T7 142 -6.063
61 T7 143 -6.063
61 T7 144 -5.575
61 T7 145 -4.598
61 T7 146 -3.133
61 T7 147 -3.133
61 T7 148 -4.110
61 T7 149 -7.039
61 T7 150 -8.504
61 T7 151 -8.016
61 T7 152 -6.551
61 T7 153 -4.598
61 T7 154 -4.598
61 T7 155 -6.063
61 T7 156 -8.016
61 T7 157 -8.016
61 T7 158 -6.551
61 T7 159 -5.575
61 T7 160 -6.063
61 T7 161 -8.504
61 T7 162 -10.457
61 T7 163 -8.993
61 T7 164 -4.110
61 T7 165 1.261
61 T7 166 4.679
61 T7 167 3.215
61 T7 168 -1.180
61 T7 169 -5.575
61 T7 170 -6.551
61 T7 171 -4.110
61 T7 172 -0.203
61 T7 173 2.238
61 T7 174 1.261
61 T7 175 -1.668
61 T7 176 -6.063
61 T7 177 -8.504
61 T7 178 -8.504
61 T7 179 -8.016
61 T7 180 -8.504
61 T7 181 -10.457
61 T7 182 -12.899
61 T7 183 -13.875
61 T7 184 -13.387
61 T7 185 -11.434
61 T7 186 -8.016
61 T7 187 -4.598
61 T7 188 -1.668
61 T7 189 0.285
61 T7 190 1.750
61 T7 191 3.215
61 T7 192 4.679
61 T7 193 8.097
61 T7 194 12.004
61 T7 195 14.933
61 T7 196 15.422
61 T7 197 12.004
61 T7 198 7.121
61 T7 199 1.750
61 T7 200 -2.157
61 T7 201 -4.110
61 T7 202 -6.063
61 T7 203 -8.016
61 T7 204 -9.969
61 T7 205 -9.481
61 T7 206 -6.551
61 T7 207 -3.621
61 T7 208 -2.645
61 T7 209 -5.575
61 T7 210 -11.434
61 T7 211 -17.293
61 T7 212 -19.735
61 T7 213 -19.246
61 T7 214 -16.805
61 T7 215 -15.340
61 T7 216 -16.317
61 T7 217 -18.758
61 T7 218 -20.711
61 T7 219 -20.223
61 T7 220 -17.782
61 T7 221 -15.340
61 T7 222 -12.410
61 T7 223 -9.969
61 T7 224 -7.039
61 T7 225 -3.621
61 T7 226 -1.668
61 T7 227 -2.645
61 T7 228 -7.528
61 T7 229 -13.387
61 T7 230 -17.293
61 T7 231 -17.782
61 T7 232 -15.340
61 T7 233 -12.410
61 T7 234 -11.434
61 T7 235 -12.410
61 T7 236 -14.364
61 T7 237 -14.364
61 T7 238 -12.899
61 T7 239 -9.481
61 T7 240 -6.063
61 T7 241 -3.621
61 T7 242 -1.668
61 T7 243 -1.180
61 T7 244 -1.180
61 T7 245 -1.668
61 T7 246 -2.645
61 T7 247 -4.598
61 T7 248 -7.528
61 T7 249 -10.946
61 T7 250 -13.875
61 T7 251 -15.828
61 T7 252 -17.293
61 T7 253 -18.270
61 T7 254 -20.711
61 T7 255 -24.129
# CZ chan 15
61 CZ 0 14.211
61 CZ 1 12.746
61 CZ 2 11.281
61 CZ 3 9.328
61 CZ 4 6.887
61 CZ 5 4.445
61 CZ 6 1.516
61 CZ 7 -0.437
61 CZ 8 -2.391
61 CZ 9 -2.879
61 CZ 10 -2.879
61 CZ 11 -2.391
61 CZ 12 -2.879
61 CZ 13 -4.344
61 CZ 14 -6.297
61 CZ 15 -6.785
61 CZ 16 -5.809
61 CZ 17 -3.367
61 CZ 18 -0.926
61 CZ 19 0.539
61 CZ 20 0.539
61 CZ 21 0.051
61 CZ 22 0.051
61 CZ 23 0.539
61 CZ 24 0.539
61 CZ 25 -0.926
61 CZ 26 -1.902
61 CZ 27 -2.391
61 CZ 28 0.051
61 CZ 29 3.469
61 CZ 30 5.910
61 CZ 31 5.422
61 CZ 32 2.004
61 CZ 33 -1.414
61 CZ 34 -0.437
61 CZ 35 5.422
61 CZ 36 12.746
61 CZ 37 16.652
61 CZ 38 13.723
61 CZ 39 5.910
61 CZ 40 -2.391
61 CZ 41 -5.809
61 CZ 42 -4.344
61 CZ 43 -1.414
61 CZ 44 -0.926
61 CZ 45 -5.320
61 CZ 46 -11.668
61 CZ 47 -17.039
61 CZ 48 -17.527
61 CZ 49 -14.109
61 CZ 50 -10.203
61 CZ 51 -7.273
61 CZ 52 -7.273
61 CZ 53 -8.250
61 CZ 54 -9.715
61 CZ 55 -10.691
61 CZ 56 -11.668
61 CZ 57 -12.156
61 CZ 58 -11.668
61 CZ 59 -8.738
61 CZ 60 -3.855
61 CZ 61 2.004
61 CZ 62 6.399
61 CZ 63 9.328
61 CZ 64 11.281
61 CZ 65 12.258
61 CZ 66 13.234
61 CZ 67 13.234
61 CZ 68 12.258
61 CZ 69 10.305
61 CZ 70 8.352
61 CZ 71 7.375
61 CZ 72 8.840
61 CZ 73 10.793
61 CZ 74 12.746
61 CZ 75 12.746
61 CZ 76 10.793
61 CZ 77 8.352
61 CZ 78 6.399
61 CZ 79 5.910
61 CZ 80 6.399
61 CZ 81 7.375
61 CZ 82 8.352
61 CZ 83 9.328
61 CZ 84 10.793
61 CZ 85 13.234
61 CZ 86 17.141
61 CZ 87 20.070
61 CZ 88 21.535
61 CZ 89 21.047
61 CZ 90 18.117
61 CZ 91 15.188
61 CZ 92 13.723
61 CZ 93 14.699
61 CZ 94 16.652
61 CZ 95 18.606
61 CZ 96 19.094
61 CZ 97 16.652
61 CZ 98 12.746
61 CZ 99 9.328
61 CZ 100 6.399
61 CZ 101 5.910
61 CZ 102 6.887
61 CZ 103 7.375
61 CZ 104 6.399
61 CZ 105 3.957
61 CZ 106 1.027
61 CZ 107 -1.414
61 CZ 108 -1.902
61 CZ 109 -1.902
61 CZ 110 -1.414
61 CZ 111 -0.437
61 CZ 112 1.027
61 CZ 113 3.957
61 CZ 114 7.375
61 CZ 115 10.305
61 CZ 116 11.281
61 CZ 117 8.840
61 CZ 118 4.445
61 CZ 119 0.051
61 CZ 120 -2.879
61 CZ 121 -2.879
61 CZ 122 0.051
61 CZ 123 4.445
61 CZ 124 7.375
61 CZ 125 7.375
61 CZ 126 4.445
61 CZ 127 1.027
61 CZ 128 -0.437
61 CZ 129 1.516
61 CZ 130 5.910
61 CZ 131 10.793
61 CZ 132 12.258
61 CZ 133 10.305
61 CZ 134 5.422
61 CZ 135 0.539
61 CZ 136 -2.879
61 CZ 137 -3.855
61 CZ 138 -3.367
61 CZ 139 -2.879
61 CZ 140 -2.879
61 CZ 141 -4.344
61 CZ 142 -5.320
61 CZ 143 -5.809
61 CZ 144 -7.273
61 CZ 145 -8.250
61 CZ 146 -10.691
61 CZ 147 -13.621
61 CZ 148 -14.598
61 CZ 149 -15.086
61 CZ 150 -13.133
61 CZ 151 -11.180
61 CZ 152 -10.691
61 CZ 153 -11.668
61 CZ 154 -13.133
61 CZ 155 -12.644
61 CZ 156 -10.691
61 CZ 157 -6.785
61 CZ 158 -2.879
61 CZ 159 -1.902
61 CZ 160 -2.879
61 CZ 161 -4.832
61 CZ 162 -5.320
61 CZ 163 -3.367
61 CZ 164 0.051
61 CZ 165 3.469
61 CZ 166 6.887
61 CZ 167 8.352
61 CZ 168 8.840
61 CZ 169 8.352
61 CZ 170 7.863
61 CZ 171 8.352
61 CZ 172 9.328
61 CZ 173 11.281
61 CZ 174 12.746
61 CZ 175 13.234
61 CZ 176 12.258
61 CZ 177 10.793
61 CZ 178 8.840
61 CZ 179 7.863
61 CZ 180 7.863
61 CZ 181 8.840
61 CZ 182 9.816
61 CZ 183 10.793
61 CZ 184 11.770
61 CZ 185 12.258
61 CZ 186 12.258
61 CZ 187 12.746
61 CZ 188 14.211
61 CZ 189 16.652
61 CZ 190 18.606
61 CZ 191 19.582
61 CZ 192 18.606
61 CZ 193 15.188
61 CZ 194 10.305
61 CZ 195 4.445
61 CZ 196 0.051
61 CZ 197 -2.391
61 CZ 198 -1.902
61 CZ 199 0.051
61 CZ 200 2.004
61 CZ 201 3.957
61 CZ 202 3.957
61 CZ 203 3.957
61 CZ 204 4.445
61 CZ 205 5.910
61 CZ 206 9.328
61 CZ 207 12.746
61 CZ 208 15.676
61 CZ 209 17.629
61 CZ 210 16.652
61 CZ 211 14.211
61 CZ 212 9.816
61 CZ 213 5.422
61 CZ 214 2.004
61 CZ 215 0.539
61 CZ 216 0.539
61 CZ 217 0.539
61 CZ 218 -0.437
61 CZ 219 -1.902
61 CZ 220 -3.367
61 CZ 221 -2.879
61 CZ 222 0.539
61 CZ 223 5.422
61 CZ 224 11.281
61 CZ 225 14.211
61 CZ 226 14.211
61 CZ 227 11.281
61 CZ 228 7.375
61 CZ 229 4.445
61 CZ 230 2.492
61 CZ 231 0.539
61 CZ 232 -2.391
61 CZ 233 -6.297
61 CZ 234 -9.226
61 CZ 235 -10.203
61 CZ 236 -9.715
61 CZ 237 -8.738
61 CZ 238 -9.226
61 CZ 239 -10.203
61 CZ 240 -11.180
61 CZ 241 -9.226
61 CZ 242 -4.832
61 CZ 243 1.027
61 CZ 244 5.422
61 CZ 245 7.375
61 CZ 246 6.887
61 CZ 247 4.934
61 CZ 248 3.469
61 CZ 249 2.981
61 CZ 250 2.004
61 CZ 251 0.051
61 CZ 252 -2.391
61 CZ 253 -4.344
61 CZ 254 -6.297
61 CZ 255 -7.762
# C3 chan 16
61 C3 0 5.839
61 C3 1 3.886
61 C3 2 3.398
61 C3 3 3.886
61 C3 4 4.862
61 C3 5 5.839
61 C3 6 5.839
61 C3 7 4.862
61 C3 8 4.374
61 C3 9 3.886
61 C3 10 4.374
61 C3 11 4.862
61 C3 12 5.839
61 C3 13 6.327
61 C3 14 6.327
61 C3 15 5.839
61 C3 16 3.886
61 C3 17 2.421
61 C3 18 1.444
61 C3 19 1.444
61 C3 20 2.421
61 C3 21 3.886
61 C3 22 4.374
61 C3 23 4.374
61 C3 24 3.398
61 C3 25 2.909
61 C3 26 2.421
61 C3 27 2.909
61 C3 28 3.886
61 C3 29 6.327
61 C3 30 9.257
61 C3 31 12.675
61 C3 32 14.140
61 C3 33 13.163
61 C3 34 9.257
61 C3 35 5.351
61 C3 36 2.909
61 C3 37 3.398
61 C3 38 6.816
61 C3 39 10.234
61 C3 40 11.698
61 C3 41 10.234
61 C3 42 7.304
61 C3 43 4.862
61 C3 44 3.398
61 C3 45 2.421
61 C3 46 0.956
61 C3 47 -0.020
61 C3 48 -0.509
61 C3 49 1.444
61 C3 50 5.351
61 C3 51 9.257
61 C3 52 10.722
61 C3 53 8.769
61 C3 54 4.862
61 C3 55 0.956
61 C3 56 -1.973
61 C3 57 -2.462
61 C3 58 -0.509
61 C3 59 0.956
61 C3 60 2.909
61 C3 61 3.398
61 C3 62 3.886
61 C3 63 4.862
61 C3 64 6.327
61 C3 65 7.792
61 C3 66 8.769
61 C3 67 8.769
61 C3 68 9.745
61 C3 69 11.210
61 C3 70 13.163
61 C3 71 14.628
61 C3 72 15.605
61 C3 73 14.628
61 C3 74 12.675
61 C3 75 10.234
61 C3 76 8.280
61 C3 77 7.304
61 C3 78 7.304
61 C3 79 7.304
61 C3 80 7.304
61 C3 81 7.792
61 C3 82 9.257
61 C3 83 10.234
61 C3 84 11.698
61 C3 85 12.187
61 C3 86 11.698
61 C3 87 11.210
61 C3 88 9.745
61 C3 89 7.792
61 C3 90 5.839
61 C3 91 3.398
61 C3 92 1.933
61 C3 93 -0.020
61 C3 94 -0.509
61 C3 95 -0.509
61 C3 96 0.956
61 C3 97 2.421
61 C3 98 3.398
61 C3 99 3.398
61 C3 100 2.909
61 C3 101 2.909
61 C3 102 3.398
61 C3 103 4.862
61 C3 104 6.816
61 C3 105 6.816
61 C3 106 4.862
61 C3 107 2.421
61 C3 108 0.468
61 C3 109 -0.509
61 C3 110 0.468
61 C3 111 1.933
61 C3 112 2.909
61 C3 113 2.909
61 C3 114 3.398
61 C3 115 3.886
61 C3 116 4.862
61 C3 117 5.351
61 C3 118 4.862
61 C3 119 3.398
61 C3 120 0.956
61 C3 121 -1.485
61 C3 122 -2.950
61 C3 123 -3.438
61 C3 124 -2.462
61 C3 125 -0.509
61 C3 126 1.444
61 C3 127 1.933
61 C3 128 0.956
61 C3 129 -0.509
61 C3 130 -1.485
61 C3 131 -1.485
61 C3 132 -0.509
61 C3 133 -0.020
61 C3 134 -0.509
61 C3 135 -1.973
61 C3 136 -3.927
61 C3 137 -5.391
61 C3 138 -5.880
61 C3 139 -5.391
61 C3 140 -4.415
61 C3 141 -3.927
61 C3 142 -2.462
61 C3 143 -0.997
61 C3 144 0.468
61 C3 145 1.444
61 C3 146 1.444
61 C3 147 0.468
61 C3 148 -0.997
61 C3 149 -2.950
61 C3 150 -3.927
61 C3 151 -4.903
61 C3 152 -4.415
61 C3 153 -3.927
61 C3 154 -3.927
61 C3 155 -3.927
61 C3 156 -3.927
61 C3 157 -3.438
61 C3 158 -1.973
61 C3 159 -0.509
61 C3 160 -0.020
61 C3 161 -0.509
61 C3 162 -1.973
61 C3 163 -2.950
61 C3 164 -3.927
61 C3 165 -2.950
61 C3 166 -1.485
61 C3 167 -0.509
61 C3 168 -0.509
61 C3 169 -1.485
61 C3 170 -1.973
61 C3 171 -1.973
61 C3 172 -0.997
61 C3 173 -0.020
61 C3 174 0.468
61 C3 175 -0.020
61 C3 176 -0.997
61 C3 177 -2.462
61 C3 178 -2.950
61 C3 179 -2.950
61 C3 180 -3.438
61 C3 181 -4.903
61 C3 182 -6.856
61 C3 183 -8.321
61 C3 184 -8.321
61 C3 185 -6.856
61 C3 186 -5.391
61 C3 187 -3.927
61 C3 188 -2.950
61 C3 189 -2.462
61 C3 190 -0.997
61 C3 191 0.956
61 C3 192 2.909
61 C3 193 4.862
61 C3 194 7.304
61 C3 195 8.769
61 C3 196 9.745
61 C3 197 9.257
61 C3 198 7.304
61 C3 199 4.374
61 C3 200 0.956
61 C3 201 -0.509
61 C3 202 -0.997
61 C3 203 -0.509
61 C3 204 -0.020
61 C3 205 -0.020
61 C3 206 -0.509
61 C3 207 -1.485
61 C3 208 -2.462
61 C3 209 -3.438
61 C3 210 -4.903
61 C3 211 -5.880
61 C3 212 -6.856
61 C3 213 -6.856
61 C3 214 -6.368
61 C3 215 -5.880
61 C3 216 -6.368
61 C3 217 -8.321
61 C3 218 -9.786
61 C3 219 -10.763
61 C3 220 -10.274
61 C3 221 -8.809
61 C3 222 -8.321
61 C3 223 -7.345
61 C3 224 -6.856
61 C3 225 -5.391
61 C3 226 -3.927
61 C3 227 -3.438
61 C3 228 -4.415
61 C3 229 -6.368
61 C3 230 -7.833
61 C3 231 -7.833
61 C3 232 -6.368
61 C3 233 -4.903
61 C3 234 -4.903
61 C3 235 -6.368
61 C3 236 -8.321
61 C3 237 -9.298
61 C3 238 -8.321
61 C3 239 -6.368
61 C3 240 -4.415
61 C3 241 -3.438
61 C3 242 -3.927
61 C3 243 -3.927
61 C3 244 -2.462
61 C3 245 -0.509
61 C3 246 0.956
61 C3 247 0.956
61 C3 248 -0.509
61 C3 249 -2.950
61 C3 250 -5.880
61 C3 251 -8.321
61 C3 252 -9.786
61 C3 253 -10.763
61 C3 254 -11.251
61 C3 255 -11.739
# C4 chan 17
61 C4 0 6.500
61 C4 1 7.477
61 C4 2 7.965
61 C4 3 7.965
61 C4 4 6.989
61 C4 5 5.035
61 C4 6 3.571
61 C4 7 2.106
61 C4 8 1.129
61 C4 9 1.129
61 C4 10 2.106
61 C4 11 2.594
61 C4 12 2.594
61 C4 13 1.617
61 C4 14 -0.824
61 C4 15 -2.777
61 C4 16 -5.219
61 C4 17 -6.195
61 C4 18 -6.195
61 C4 19 -4.730
61 C4 20 -2.289
61 C4 21 0.641
61 C4 22 3.082
61 C4 23 5.035
61 C4 24 6.012
61 C4 25 6.012
61 C4 26 6.012
61 C4 27 6.012
61 C4 28 6.012
61 C4 29 5.524
61 C4 30 5.035
61 C4 31 4.059
61 C4 32 3.571
61 C4 33 3.571
61 C4 34 4.547
61 C4 35 6.500
61 C4 36 7.965
61 C4 37 8.942
61 C4 38 7.965
61 C4 39 6.500
61 C4 40 5.035
61 C4 41 5.035
61 C4 42 5.035
61 C4 43 5.524
61 C4 44 5.524
61 C4 45 4.547
61 C4 46 3.082
61 C4 47 1.617
61 C4 48 0.153
61 C4 49 -1.312
61 C4 50 -3.265
61 C4 51 -5.707
61 C4 52 -7.660
61 C4 53 -8.148
61 C4 54 -6.683
61 C4 55 -3.754
61 C4 56 -0.824
61 C4 57 3.082
61 C4 58 5.035
61 C4 59 6.500
61 C4 60 6.989
61 C4 61 6.500
61 C4 62 5.035
61 C4 63 3.571
61 C4 64 2.594
61 C4 65 1.617
61 C4 66 1.129
61 C4 67 0.641
61 C4 68 -0.824
61 C4 69 -1.312
61 C4 70 -1.801
61 C4 71 -0.824
61 C4 72 0.641
61 C4 73 2.594
61 C4 74 4.059
61 C4 75 4.059
61 C4 76 3.571
61 C4 77 3.082
61 C4 78 2.106
61 C4 79 1.129
61 C4 80 0.153
61 C4 81 -0.336
61 C4 82 0.153
61 C4 83 1.617
61 C4 84 3.082
61 C4 85 4.547
61 C4 86 6.012
61 C4 87 6.989
61 C4 88 7.477
61 C4 89 7.477
61 C4 90 6.500
61 C4 91 4.547
61 C4 92 3.082
61 C4 93 1.617
61 C4 94 2.106
61 C4 95 3.082
61 C4 96 4.547
61 C4 97 6.012
61 C4 98 5.035
61 C4 99 3.082
61 C4 100 0.153
61 C4 101 -1.801
61 C4 102 -2.289
61 C4 103 -1.801
61 C4 104 -1.312
61 C4 105 -1.312
61 C4 106 -1.801
61 C4 107 -2.289
61 C4 108 -2.289
61 C4 109 -1.312
61 C4 110 -0.336
61 C4 111 0.153
61 C4 112 0.153
61 C4 113 0.153
61 C4 114 0.641
61 C4 115 2.106
61 C4 116 4.547
61 C4 117 6.012
61 C4 118 6.012
61 C4 119 5.035
61 C4 120 3.571
61 C4 121 2.594
61 C4 122 2.594
61 C4 123 4.059
61 C4 124 5.524
61 C4 125 6.989
61 C4 126 7.965
61 C4 127 8.453
61 C4 128 7.965
61 C4 129 7.965
61 C4 130 7.477
61 C4 131 7.477
61 C4 132 7.965
61 C4 133 8.453
61 C4 134 8.453
61 C4 135 7.965
61 C4 136 6.500
61 C4 137 4.547
61 C4 138 3.082
61 C4 139 2.594
61 C4 140 3.082
61 C4 141 4.547
61 C4 142 5.524
61 C4 143 5.524
61 C4 144 5.035
61 C4 145 4.059
61 C4 146 3.082
61 C4 147 3.082
61 C4 148 3.082
61 C4 149 3.082
61 C4 150 3.082
61 C4 151 3.082
61 C4 152 3.571
61 C4 153 5.035
61 C4 154 6.500
61 C4 155 6.989
61 C4 156 6.012
61 C4 157 3.571
61 C4 158 1.617
61 C4 159 0.641
61 C4 160 0.641
61 C4 161 2.106
61 C4 162 3.571
61 C4 163 5.035
61 C4 164 6.012
61 C4 165 6.989
61 C4 166 6.989
61 C4 167 7.965
61 C4 168 8.453
61 C4 169 8.453
61 C4 170 7.965
61 C4 171 6.500
61 C4 172 5.035
61 C4 173 5.035
61 C4 174 5.524
61 C4 175 6.989
61 C4 176 7.965
61 C4 177 7.965
61 C4 178 6.989
61 C4 179 6.012
61 C4 180 6.500
61 C4 181 6.989
61 C4 182 7.965
61 C4 183 8.453
61 C4 184 8.453
61 C4 185 8.453
61 C4 186 8.942
61 C4 187 9.430
61 C4 188 9.918
61 C4 189 9.918
61 C4 190 9.918
61 C4 191 8.942
61 C4 192 7.965
61 C4 193 7.477
61 C4 194 6.989
61 C4 195 6.012
61 C4 196 5.524
61 C4 197 5.524
61 C4 198 6.500
61 C4 199 7.965
61 C4 200 8.942
61 C4 201 10.406
61 C4 202 10.406
61 C4 203 9.430
61 C4 204 7.965
61 C4 205 6.989
61 C4 206 6.500
61 C4 207 6.012
61 C4 208 5.524
61 C4 209 5.035
61 C4 210 5.035
61 C4 211 6.500
61 C4 212 7.477
61 C4 213 8.453
61 C4 214 7.965
61 C4 215 6.989
61 C4 216 6.500
61 C4 217 7.965
61 C4 218 9.918
61 C4 219 12.360
61 C4 220 12.848
61 C4 221 11.871
61 C4 222 10.406
61 C4 223 8.942
61 C4 224 8.942
61 C4 225 9.430
61 C4 226 9.918
61 C4 227 8.942
61 C4 228 7.477
61 C4 229 6.012
61 C4 230 5.035
61 C4 231 5.035
61 C4 232 4.547
61 C4 233 3.571
61 C4 234 2.106
61 C4 235 0.641
61 C4 236 1.129
61 C4 237 2.594
61 C4 238 4.059
61 C4 239 4.547
61 C4 240 4.059
61 C4 241 3.571
61 C4 242 3.082
61 C4 243 3.571
61 C4 244 4.547
61 C4 245 4.059
61 C4 246 3.571
61 C4 247 1.617
61 C4 248 0.153
61 C4 249 -0.336
61 C4 250 0.153
61 C4 251 0.641
61 C4 252 1.129
61 C4 253 1.129
61 C4 254 0.641
61 C4 255 -0.336
# CP5 chan 18
61 CP5 0 11.943
61 CP5 1 9.989
61 CP5 2 8.525
61 CP5 3 8.036
61 CP5 4 8.036
61 CP5 5 8.036
61 CP5 6 7.548
61 CP5 7 6.571
61 CP5 8 5.595
61 CP5 9 5.595
61 CP5 10 5.595
61 CP5 11 5.595
61 CP5 12 5.595
61 CP5 13 4.618
61 CP5 14 3.153
61 CP5 15 2.177
61 CP5 16 0.712
61 CP5 17 0.224
61 CP5 18 -0.753
61 CP5 19 -0.753
61 CP5 20 -1.241
61 CP5 21 -0.753
61 CP5 22 0.224
61 CP5 23 1.200
61 CP5 24 2.665
61 CP5 25 3.642
61 CP5 26 4.130
61 CP5 27 4.130
61 CP5 28 5.107
61 CP5 29 7.060
61 CP5 30 10.966
61 CP5 31 14.384
61 CP5 32 16.825
61 CP5 33 15.361
61 CP5 34 10.966
61 CP5 35 5.595
61 CP5 36 2.177
61 CP5 37 2.177
61 CP5 38 5.595
61 CP5 39 9.501
61 CP5 40 10.966
61 CP5 41 9.989
61 CP5 42 7.060
61 CP5 43 4.618
61 CP5 44 2.177
61 CP5 45 -0.264
61 CP5 46 -2.218
61 CP5 47 -4.659
61 CP5 48 -4.659
61 CP5 49 -2.706
61 CP5 50 1.200
61 CP5 51 5.595
61 CP5 52 7.548
61 CP5 53 6.083
61 CP5 54 2.177
61 CP5 55 -2.706
61 CP5 56 -6.124
61 CP5 57 -7.589
61 CP5 58 -7.589
61 CP5 59 -7.100
61 CP5 60 -6.612
61 CP5 61 -6.612
61 CP5 62 -5.636
61 CP5 63 -3.682
61 CP5 64 -0.264
61 CP5 65 4.130
61 CP5 66 7.548
61 CP5 67 9.989
61 CP5 68 11.454
61 CP5 69 12.431
61 CP5 70 13.896
61 CP5 71 15.361
61 CP5 72 16.825
61 CP5 73 17.802
61 CP5 74 18.290
61 CP5 75 17.314
61 CP5 76 15.849
61 CP5 77 14.384
61 CP5 78 13.407
61 CP5 79 12.919
61 CP5 80 12.919
61 CP5 81 13.896
61 CP5 82 14.872
61 CP5 83 15.849
61 CP5 84 16.337
61 CP5 85 16.825
61 CP5 86 16.337
61 CP5 87 15.361
61 CP5 88 13.407
61 CP5 89 10.966
61 CP5 90 7.548
61 CP5 91 4.618
61 CP5 92 2.177
61 CP5 93 0.224
61 CP5 94 -0.264
61 CP5 95 0.224
61 CP5 96 0.712
61 CP5 97 1.200
61 CP5 98 1.200
61 CP5 99 0.712
61 CP5 100 0.712
61 CP5 101 1.200
61 CP5 102 2.665
61 CP5 103 4.618
61 CP5 104 6.083
61 CP5 105 6.083
61 CP5 106 4.618
61 CP5 107 2.177
61 CP5 108 1.200
61 CP5 109 1.200
61 CP5 110 2.177
61 CP5 111 3.642
61 CP5 112 4.618
61 CP5 113 5.107
61 CP5 114 5.595
61 CP5 115 6.083
61 CP5 116 6.571
61 CP5 117 6.571
61 CP5 118 5.595
61 CP5 119 4.130
61 CP5 120 1.689
61 CP5 121 -0.264
61 CP5 122 -1.729
61 CP5 123 -2.218
61 CP5 124 -1.241
61 CP5 125 1.200
61 CP5 126 3.153
61 CP5 127 3.642
61 CP5 128 3.153
61 CP5 129 2.177
61 CP5 130 1.689
61 CP5 131 2.665
61 CP5 132 4.130
61 CP5 133 5.107
61 CP5 134 4.618
61 CP5 135 2.177
61 CP5 136 -1.241
61 CP5 137 -3.682
61 CP5 138 -4.659
61 CP5 139 -4.171
61 CP5 140 -3.194
61 CP5 141 -1.729
61 CP5 142 -0.753
61 CP5 143 0.224
61 CP5 144 1.200
61 CP5 145 1.689
61 CP5 146 1.200
61 CP5 147 0.712
61 CP5 148 -0.753
61 CP5 149 -1.241
61 CP5 150 -1.241
61 CP5 151 -0.753
61 CP5 152 -0.264
61 CP5 153 0.224
61 CP5 154 0.712
61 CP5 155 0.712
61 CP5 156 1.200
61 CP5 157 2.665
61 CP5 158 3.153
61 CP5 159 3.642
61 CP5 160 2.177
61 CP5 161 0.712
61 CP5 162 -0.264
61 CP5 163 -0.264
61 CP5 164 0.224
61 CP5 165 1.689
61 CP5 166 2.177
61 CP5 167 2.177
61 CP5 168 1.689
61 CP5 169 0.224
61 CP5 170 0.224
61 CP5 171 1.200
61 CP5 172 3.642
61 CP5 173 6.083
61 CP5 174 6.571
61 CP5 175 5.595
61 CP5 176 2.665
61 CP5 177 -0.264
61 CP5 178 -2.218
61 CP5 179 -2.706
61 CP5 180 -2.706
61 CP5 181 -4.171
61 CP5 182 -6.124
61 CP5 183 -8.077
61 CP5 184 -8.077
61 CP5 185 -7.100
61 CP5 186 -4.659
61 CP5 187 -3.194
61 CP5 188 -1.729
61 CP5 189 0.224
61 CP5 190 3.153
61 CP5 191 7.060
61 CP5 192 11.454
61 CP5 193 14.872
61 CP5 194 17.314
61 CP5 195 18.290
61 CP5 196 18.290
61 CP5 197 16.337
61 CP5 198 12.919
61 CP5 199 8.525
61 CP5 200 4.130
61 CP5 201 1.200
61 CP5 202 -0.264
61 CP5 203 -0.264
61 CP5 204 0.224
61 CP5 205 -0.264
61 CP5 206 -1.241
61 CP5 207 -2.706
61 CP5 208 -4.659
61 CP5 209 -4.659
61 CP5 210 -5.147
61 CP5 211 -5.147
61 CP5 212 -5.636
61 CP5 213 -7.100
61 CP5 214 -8.565
61 CP5 215 -9.542
61 CP5 216 -10.518
61 CP5 217 -11.495
61 CP5 218 -12.472
61 CP5 219 -13.448
61 CP5 220 -13.936
61 CP5 221 -12.960
61 CP5 222 -11.007
61 CP5 223 -8.565
61 CP5 224 -6.124
61 CP5 225 -3.194
61 CP5 226 -1.729
61 CP5 227 -1.729
61 CP5 228 -3.682
61 CP5 229 -7.100
61 CP5 230 -10.030
61 CP5 231 -11.007
61 CP5 232 -9.542
61 CP5 233 -7.589
61 CP5 234 -6.124
61 CP5 235 -6.612
61 CP5 236 -8.565
61 CP5 237 -10.030
61 CP5 238 -10.030
61 CP5 239 -8.077
61 CP5 240 -5.147
61 CP5 241 -3.194
61 CP5 242 -2.218
61 CP5 243 -1.729
61 CP5 244 -1.241
61 CP5 245 0.224
61 CP5 246 1.200
61 CP5 247 1.200
61 CP5 248 -1.241
61 CP5 249 -5.636
61 CP5 250 -9.542
61 CP5 251 -13.448
61 CP5 252 -15.889
61 CP5 253 -17.354
61 CP5 254 -18.819
61 CP5 255 -20.284
# CP6 chan 19
61 CP6 0 15.289
61 CP6 1 16.266
61 CP6 2 16.266
61 CP6 3 15.289
61 CP6 4 12.848
61 CP6 5 9.918
61 CP6 6 6.012
61 CP6 7 2.594
61 CP6 8 0.153
61 CP6 9 -0.824
61 CP6 10 -1.312
61 CP6 11 -2.289
61 CP6 12 -2.777
61 CP6 13 -3.754
61 CP6 14 -5.219
61 CP6 15 -6.683
61 CP6 16 -7.660
61 CP6 17 -9.125
61 CP6 18 -8.636
61 CP6 19 -7.660
61 CP6 20 -5.707
61 CP6 21 -2.777
61 CP6 22 0.641
61 CP6 23 3.082
61 CP6 24 4.059
61 CP6 25 4.547
61 CP6 26 4.547
61 CP6 27 4.059
61 CP6 28 3.571
61 CP6 29 2.594
61 CP6 30 1.617
61 CP6 31 0.641
61 CP6 32 1.129
61 CP6 33 2.594
61 CP6 34 5.524
61 CP6 35 8.453
61 CP6 36 10.406
61 CP6 37 10.895
61 CP6 38 9.918
61 CP6 39 7.965
61 CP6 40 6.500
61 CP6 41 5.035
61 CP6 42 4.059
61 CP6 43 3.082
61 CP6 44 1.617
61 CP6 45 -0.824
61 CP6 46 -2.777
61 CP6 47 -3.754
61 CP6 48 -3.754
61 CP6 49 -3.265
61 CP6 50 -3.265
61 CP6 51 -4.730
61 CP6 52 -6.683
61 CP6 53 -8.148
61 CP6 54 -8.148
61 CP6 55 -5.707
61 CP6 56 -1.312
61 CP6 57 3.082
61 CP6 58 6.989
61 CP6 59 9.430
61 CP6 60 9.918
61 CP6 61 8.453
61 CP6 62 5.035
61 CP6 63 1.129
61 CP6 64 -3.265
61 CP6 65 -6.195
61 CP6 66 -8.148
61 CP6 67 -7.660
61 CP6 68 -6.683
61 CP6 69 -5.219
61 CP6 70 -4.730
61 CP6 71 -4.730
61 CP6 72 -3.754
61 CP6 73 -0.824
61 CP6 74 3.571
61 CP6 75 7.965
61 CP6 76 11.871
61 CP6 77 13.336
61 CP6 78 12.848
61 CP6 79 11.871
61 CP6 80 11.871
61 CP6 81 12.848
61 CP6 82 13.824
61 CP6 83 14.313
61 CP6 84 13.824
61 CP6 85 12.848
61 CP6 86 12.848
61 CP6 87 12.360
61 CP6 88 11.383
61 CP6 89 9.430
61 CP6 90 6.012
61 CP6 91 3.082
61 CP6 92 1.129
61 CP6 93 0.153
61 CP6 94 0.153
61 CP6 95 0.641
61 CP6 96 0.153
61 CP6 97 -0.336
61 CP6 98 -2.289
61 CP6 99 -4.730
61 CP6 100 -6.683
61 CP6 101 -7.660
61 CP6 102 -7.172
61 CP6 103 -5.219
61 CP6 104 -3.754
61 CP6 105 -3.265
61 CP6 106 -3.754
61 CP6 107 -3.754
61 CP6 108 -3.265
61 CP6 109 -1.312
61 CP6 110 0.641
61 CP6 111 3.082
61 CP6 112 4.059
61 CP6 113 5.524
61 CP6 114 7.477
61 CP6 115 9.918
61 CP6 116 11.871
61 CP6 117 12.360
61 CP6 118 10.895
61 CP6 119 7.965
61 CP6 120 5.524
61 CP6 121 3.571
61 CP6 122 4.059
61 CP6 123 6.012
61 CP6 124 8.453
61 CP6 125 10.895
61 CP6 126 12.360
61 CP6 127 11.871
61 CP6 128 10.895
61 CP6 129 9.918
61 CP6 130 9.430
61 CP6 131 9.430
61 CP6 132 9.918
61 CP6 133 9.430
61 CP6 134 8.453
61 CP6 135 6.500
61 CP6 136 4.059
61 CP6 137 1.617
61 CP6 138 0.641
61 CP6 139 1.129
61 CP6 140 3.571
61 CP6 141 6.500
61 CP6 142 8.942
61 CP6 143 9.430
61 CP6 144 8.453
61 CP6 145 6.500
61 CP6 146 4.059
61 CP6 147 2.594
61 CP6 148 2.106
61 CP6 149 2.106
61 CP6 150 1.617
61 CP6 151 1.617
61 CP6 152 2.594
61 CP6 153 3.571
61 CP6 154 5.524
61 CP6 155 6.500
61 CP6 156 6.012
61 CP6 157 4.547
61 CP6 158 3.082
61 CP6 159 2.106
61 CP6 160 2.106
61 CP6 161 3.082
61 CP6 162 4.547
61 CP6 163 7.477
61 CP6 164 10.406
61 CP6 165 12.848
61 CP6 166 14.801
61 CP6 167 16.266
61 CP6 168 16.266
61 CP6 169 15.778
61 CP6 170 15.289
61 CP6 171 14.313
61 CP6 172 13.824
61 CP6 173 13.336
61 CP6 174 12.848
61 CP6 175 12.360
61 CP6 176 11.383
61 CP6 177 10.406
61 CP6 178 9.918
61 CP6 179 9.430
61 CP6 180 9.430
61 CP6 181 9.918
61 CP6 182 9.918
61 CP6 183 9.918
61 CP6 184 9.918
61 CP6 185 9.918
61 CP6 186 9.918
61 CP6 187 10.406
61 CP6 188 10.895
61 CP6 189 12.360
61 CP6 190 13.824
61 CP6 191 16.266
61 CP6 192 17.731
61 CP6 193 18.219
61 CP6 194 16.754
61 CP6 195 14.313
61 CP6 196 12.360
61 CP6 197 10.895
61 CP6 198 11.871
61 CP6 199 13.336
61 CP6 200 15.289
61 CP6 201 17.242
61 CP6 202 17.731
61 CP6 203 17.731
61 CP6 204 17.242
61 CP6 205 16.754
61 CP6 206 15.289
61 CP6 207 12.848
61 CP6 208 10.406
61 CP6 209 7.965
61 CP6 210 6.500
61 CP6 211 6.012
61 CP6 212 6.012
61 CP6 213 6.012
61 CP6 214 5.035
61 CP6 215 3.571
61 CP6 216 3.082
61 CP6 217 4.547
61 CP6 218 6.989
61 CP6 219 10.406
61 CP6 220 12.848
61 CP6 221 13.824
61 CP6 222 14.313
61 CP6 223 15.778
61 CP6 224 17.731
61 CP6 225 20.660
61 CP6 226 22.125
61 CP6 227 21.149
61 CP6 228 18.219
61 CP6 229 13.824
61 CP6 230 9.430
61 CP6 231 6.500
61 CP6 232 4.059
61 CP6 233 2.594
61 CP6 234 1.617
61 CP6 235 1.129
61 CP6 236 1.617
61 CP6 237 3.082
61 CP6 238 4.547
61 CP6 239 5.524
61 CP6 240 6.012
61 CP6 241 6.989
61 CP6 242 8.453
61 CP6 243 10.895
61 CP6 244 13.336
61 CP6 245 14.801
61 CP6 246 14.313
61 CP6 247 11.871
61 CP6 248 8.942
61 CP6 249 6.500
61 CP6 250 5.035
61 CP6 251 4.059
61 CP6 252 2.594
61 CP6 253 0.641
61 CP6 254 -2.777
61 CP6 255 -6.195
# CP1 chan 20
61 CP1 0 7.680
61 CP1 1 6.704
61 CP1 2 6.704
61 CP1 3 6.704
61 CP1 4 7.192
61 CP1 5 7.192
61 CP1 6 6.215
61 CP1 7 4.262
61 CP1 8 3.286
61 CP1 9 2.309
61 CP1 10 2.309
61 CP1 11 2.309
61 CP1 12 2.797
61 CP1 13 2.309
61 CP1 14 1.821
61 CP1 15 0.844
61 CP1 16 -0.621
61 CP1 17 -2.085
61 CP1 18 -3.062
61 CP1 19 -3.550
61 CP1 20 -3.062
61 CP1 21 -1.597
61 CP1 22 -0.621
61 CP1 23 0.356
61 CP1 24 0.844
61 CP1 25 1.333
61 CP1 26 1.333
61 CP1 27 1.333
61 CP1 28 1.821
61 CP1 29 2.309
61 CP1 30 3.774
61 CP1 31 5.239
61 CP1 32 6.215
61 CP1 33 6.215
61 CP1 34 4.262
61 CP1 35 1.821
61 CP1 36 0.356
61 CP1 37 1.333
61 CP1 38 3.774
61 CP1 39 6.215
61 CP1 40 7.192
61 CP1 41 6.215
61 CP1 42 5.239
61 CP1 43 3.774
61 CP1 44 3.286
61 CP1 45 2.309
61 CP1 46 0.844
61 CP1 47 -0.132
61 CP1 48 0.356
61 CP1 49 2.309
61 CP1 50 5.239
61 CP1 51 7.680
61 CP1 52 7.680
61 CP1 53 5.239
61 CP1 54 1.333
61 CP1 55 -2.085
61 CP1 56 -4.038
61 CP1 57 -4.038
61 CP1 58 -3.062
61 CP1 59 -1.597
61 CP1 60 -0.621
61 CP1 61 -0.132
61 CP1 62 -0.621
61 CP1 63 -1.109
61 CP1 64 -1.597
61 CP1 65 -0.621
61 CP1 66 1.333
61 CP1 67 4.262
61 CP1 68 7.192
61 CP1 69 9.145
61 CP1 70 10.122
61 CP1 71 10.610
61 CP1 72 10.610
61 CP1 73 10.610
61 CP1 74 10.610
61 CP1 75 10.610
61 CP1 76 10.122
61 CP1 77 9.145
61 CP1 78 7.680
61 CP1 79 6.704
61 CP1 80 6.704
61 CP1 81 7.192
61 CP1 82 8.169
61 CP1 83 9.145
61 CP1 84 9.633
61 CP1 85 10.122
61 CP1 86 10.122
61 CP1 87 9.145
61 CP1 88 8.657
61 CP1 89 7.680
61 CP1 90 6.704
61 CP1 91 6.215
61 CP1 92 5.239
61 CP1 93 4.751
61 CP1 94 4.262
61 CP1 95 5.239
61 CP1 96 6.215
61 CP1 97 7.680
61 CP1 98 8.657
61 CP1 99 8.657
61 CP1 100 7.680
61 CP1 101 7.192
61 CP1 102 7.192
61 CP1 103 8.169
61 CP1 104 8.657
61 CP1 105 8.169
61 CP1 106 7.192
61 CP1 107 6.215
61 CP1 108 5.239
61 CP1 109 6.215
61 CP1 110 7.192
61 CP1 111 9.145
61 CP1 112 9.633
61 CP1 113 9.633
61 CP1 114 9.633
61 CP1 115 9.633
61 CP1 116 9.633
61 CP1 117 9.145
61 CP1 118 8.169
61 CP1 119 6.215
61 CP1 120 4.262
61 CP1 121 2.797
61 CP1 122 1.821
61 CP1 123 2.309
61 CP1 124 3.774
61 CP1 125 5.239
61 CP1 126 6.215
61 CP1 127 6.215
61 CP1 128 4.751
61 CP1 129 3.774
61 CP1 130 3.286
61 CP1 131 4.262
61 CP1 132 5.727
61 CP1 133 7.192
61 CP1 134 8.169
61 CP1 135 7.680
61 CP1 136 6.704
61 CP1 137 5.239
61 CP1 138 4.262
61 CP1 139 3.286
61 CP1 140 3.286
61 CP1 141 3.286
61 CP1 142 4.262
61 CP1 143 4.751
61 CP1 144 4.751
61 CP1 145 4.262
61 CP1 146 3.774
61 CP1 147 3.286
61 CP1 148 2.309
61 CP1 149 1.821
61 CP1 150 1.821
61 CP1 151 2.797
61 CP1 152 4.262
61 CP1 153 5.239
61 CP1 154 5.727
61 CP1 155 5.239
61 CP1 156 4.751
61 CP1 157 4.262
61 CP1 158 4.262
61 CP1 159 5.239
61 CP1 160 5.727
61 CP1 161 5.727
61 CP1 162 5.727
61 CP1 163 5.239
61 CP1 164 5.239
61 CP1 165 6.215
61 CP1 166 6.704
61 CP1 167 6.704
61 CP1 168 6.215
61 CP1 169 5.727
61 CP1 170 5.239
61 CP1 171 6.215
61 CP1 172 7.680
61 CP1 173 9.145
61 CP1 174 10.122
61 CP1 175 9.633
61 CP1 176 8.169
61 CP1 177 6.215
61 CP1 178 4.751
61 CP1 179 3.286
61 CP1 180 2.797
61 CP1 181 2.309
61 CP1 182 2.309
61 CP1 183 2.309
61 CP1 184 2.797
61 CP1 185 3.774
61 CP1 186 3.774
61 CP1 187 3.286
61 CP1 188 1.821
61 CP1 189 1.333
61 CP1 190 2.309
61 CP1 191 4.751
61 CP1 192 7.680
61 CP1 193 10.610
61 CP1 194 12.563
61 CP1 195 13.540
61 CP1 196 13.540
61 CP1 197 12.563
61 CP1 198 10.122
61 CP1 199 7.192
61 CP1 200 4.751
61 CP1 201 3.774
61 CP1 202 4.751
61 CP1 203 6.215
61 CP1 204 7.192
61 CP1 205 6.704
61 CP1 206 5.239
61 CP1 207 2.797
61 CP1 208 2.309
61 CP1 209 3.286
61 CP1 210 4.751
61 CP1 211 5.727
61 CP1 212 5.727
61 CP1 213 4.751
61 CP1 214 3.286
61 CP1 215 2.309
61 CP1 216 1.333
61 CP1 217 -0.132
61 CP1 218 -1.109
61 CP1 219 -2.085
61 CP1 220 -2.574
61 CP1 221 -3.062
61 CP1 222 -3.062
61 CP1 223 -2.574
61 CP1 224 -1.109
61 CP1 225 0.844
61 CP1 226 2.797
61 CP1 227 4.262
61 CP1 228 3.286
61 CP1 229 1.333
61 CP1 230 -0.621
61 CP1 231 -0.621
61 CP1 232 0.356
61 CP1 233 2.309
61 CP1 234 2.797
61 CP1 235 1.821
61 CP1 236 -0.132
61 CP1 237 -0.621
61 CP1 238 -0.621
61 CP1 239 0.356
61 CP1 240 1.333
61 CP1 241 1.821
61 CP1 242 1.821
61 CP1 243 2.309
61 CP1 244 3.286
61 CP1 245 4.751
61 CP1 246 6.215
61 CP1 247 6.704
61 CP1 248 6.215
61 CP1 249 4.751
61 CP1 250 2.309
61 CP1 251 0.844
61 CP1 252 -0.621
61 CP1 253 -1.597
61 CP1 254 -1.597
61 CP1 255 -1.597
# CP2 chan 21
61 CP2 0 10.630
61 CP2 1 11.607
61 CP2 2 12.095
61 CP2 3 12.095
61 CP2 4 10.630
61 CP2 5 8.677
61 CP2 6 6.236
61 CP2 7 3.794
61 CP2 8 2.818
61 CP2 9 2.330
61 CP2 10 2.330
61 CP2 11 1.841
61 CP2 12 1.353
61 CP2 13 -0.600
61 CP2 14 -2.065
61 CP2 15 -4.018
61 CP2 16 -5.971
61 CP2 17 -6.948
61 CP2 18 -6.948
61 CP2 19 -5.971
61 CP2 20 -3.530
61 CP2 21 -1.088
61 CP2 22 1.353
61 CP2 23 3.306
61 CP2 24 4.283
61 CP2 25 4.771
61 CP2 26 3.794
61 CP2 27 2.818
61 CP2 28 0.865
61 CP2 29 -0.600
61 CP2 30 -1.577
61 CP2 31 -0.600
61 CP2 32 1.353
61 CP2 33 3.306
61 CP2 34 4.283
61 CP2 35 4.771
61 CP2 36 4.283
61 CP2 37 4.283
61 CP2 38 4.283
61 CP2 39 4.283
61 CP2 40 4.283
61 CP2 41 4.283
61 CP2 42 4.771
61 CP2 43 5.747
61 CP2 44 6.236
61 CP2 45 6.236
61 CP2 46 5.747
61 CP2 47 4.771
61 CP2 48 4.283
61 CP2 49 4.283
61 CP2 50 4.283
61 CP2 51 3.306
61 CP2 52 1.353
61 CP2 53 -0.112
61 CP2 54 -1.088
61 CP2 55 -0.600
61 CP2 56 0.865
61 CP2 57 2.818
61 CP2 58 4.283
61 CP2 59 5.259
61 CP2 60 5.747
61 CP2 61 5.259
61 CP2 62 3.306
61 CP2 63 0.376
61 CP2 64 -3.042
61 CP2 65 -4.995
61 CP2 66 -5.483
61 CP2 67 -3.530
61 CP2 68 -0.112
61 CP2 69 3.306
61 CP2 70 5.259
61 CP2 71 6.236
61 CP2 72 6.724
61 CP2 73 7.212
61 CP2 74 9.165
61 CP2 75 10.630
61 CP2 76 11.119
61 CP2 77 11.119
61 CP2 78 9.654
61 CP2 79 8.677
61 CP2 80 8.189
61 CP2 81 9.165
61 CP2 82 9.654
61 CP2 83 10.142
61 CP2 84 10.142
61 CP2 85 10.630
61 CP2 86 10.630
61 CP2 87 11.119
61 CP2 88 11.119
61 CP2 89 11.119
61 CP2 90 10.142
61 CP2 91 9.165
61 CP2 92 7.701
61 CP2 93 7.212
61 CP2 94 7.701
61 CP2 95 9.165
61 CP2 96 11.119
61 CP2 97 12.583
61 CP2 98 13.072
61 CP2 99 11.607
61 CP2 100 10.142
61 CP2 101 8.677
61 CP2 102 9.165
61 CP2 103 10.142
61 CP2 104 11.119
61 CP2 105 11.119
61 CP2 106 10.630
61 CP2 107 10.142
61 CP2 108 9.654
61 CP2 109 10.142
61 CP2 110 10.630
61 CP2 111 10.630
61 CP2 112 10.630
61 CP2 113 11.119
61 CP2 114 12.095
61 CP2 115 13.072
61 CP2 116 14.048
61 CP2 117 14.048
61 CP2 118 13.072
61 CP2 119 11.607
61 CP2 120 10.142
61 CP2 121 9.165
61 CP2 122 8.677
61 CP2 123 9.165
61 CP2 124 10.142
61 CP2 125 11.607
61 CP2 126 12.583
61 CP2 127 12.583
61 CP2 128 11.607
61 CP2 129 11.119
61 CP2 130 11.119
61 CP2 131 11.119
61 CP2 132 12.583
61 CP2 133 14.048
61 CP2 134 15.025
61 CP2 135 15.513
61 CP2 136 14.537
61 CP2 137 12.583
61 CP2 138 10.142
61 CP2 139 8.677
61 CP2 140 8.677
61 CP2 141 9.654
61 CP2 142 11.119
61 CP2 143 12.095
61 CP2 144 11.119
61 CP2 145 10.142
61 CP2 146 8.677
61 CP2 147 7.701
61 CP2 148 7.212
61 CP2 149 7.701
61 CP2 150 8.189
61 CP2 151 9.654
61 CP2 152 11.607
61 CP2 153 13.072
61 CP2 154 13.560
61 CP2 155 12.583
61 CP2 156 10.142
61 CP2 157 7.701
61 CP2 158 6.236
61 CP2 159 6.236
61 CP2 160 6.724
61 CP2 161 8.189
61 CP2 162 9.654
61 CP2 163 10.630
61 CP2 164 11.607
61 CP2 165 12.583
61 CP2 166 13.072
61 CP2 167 13.072
61 CP2 168 13.072
61 CP2 169 13.072
61 CP2 170 13.560
61 CP2 171 14.048
61 CP2 172 14.537
61 CP2 173 15.025
61 CP2 174 15.025
61 CP2 175 15.025
61 CP2 176 14.048
61 CP2 177 12.583
61 CP2 178 11.607
61 CP2 179 10.630
61 CP2 180 10.630
61 CP2 181 10.630
61 CP2 182 10.630
61 CP2 183 11.119
61 CP2 184 11.607
61 CP2 185 12.095
61 CP2 186 12.095
61 CP2 187 10.630
61 CP2 188 9.654
61 CP2 189 8.189
61 CP2 190 8.677
61 CP2 191 10.142
61 CP2 192 12.095
61 CP2 193 13.072
61 CP2 194 13.560
61 CP2 195 13.560
61 CP2 196 13.072
61 CP2 197 12.583
61 CP2 198 12.583
61 CP2 199 12.095
61 CP2 200 12.095
61 CP2 201 12.095
61 CP2 202 12.583
61 CP2 203 13.560
61 CP2 204 14.048
61 CP2 205 13.560
61 CP2 206 12.583
61 CP2 207 11.607
61 CP2 208 11.607
61 CP2 209 12.095
61 CP2 210 13.560
61 CP2 211 14.537
61 CP2 212 15.025
61 CP2 213 14.537
61 CP2 214 13.560
61 CP2 215 12.095
61 CP2 216 11.119
61 CP2 217 10.142
61 CP2 218 10.142
61 CP2 219 9.654
61 CP2 220 9.165
61 CP2 221 8.677
61 CP2 222 8.189
61 CP2 223 7.701
61 CP2 224 8.677
61 CP2 225 10.142
61 CP2 226 11.607
61 CP2 227 12.583
61 CP2 228 11.119
61 CP2 229 9.165
61 CP2 230 6.724
61 CP2 231 6.236
61 CP2 232 6.724
61 CP2 233 7.701
61 CP2 234 9.165
61 CP2 235 9.654
61 CP2 236 9.654
61 CP2 237 9.165
61 CP2 238 9.165
61 CP2 239 9.165
61 CP2 240 9.165
61 CP2 241 9.654
61 CP2 242 9.654
61 CP2 243 10.630
61 CP2 244 11.607
61 CP2 245 12.583
61 CP2 246 13.072
61 CP2 247 13.560
61 CP2 248 12.583
61 CP2 249 11.607
61 CP2 250 11.119
61 CP2 251 10.630
61 CP2 252 10.142
61 CP2 253 9.654
61 CP2 254 8.677
61 CP2 255 8.189
# P3 chan 22
61 P3 0 13.123
61 P3 1 11.658
61 P3 2 11.169
61 P3 3 11.169
61 P3 4 11.169
61 P3 5 10.193
61 P3 6 8.728
61 P3 7 7.263
61 P3 8 5.798
61 P3 9 4.822
61 P3 10 4.822
61 P3 11 3.845
61 P3 12 2.869
61 P3 13 0.916
61 P3 14 -0.549
61 P3 15 -2.014
61 P3 16 -2.991
61 P3 17 -3.967
61 P3 18 -4.456
61 P3 19 -4.944
61 P3 20 -4.456
61 P3 21 -3.479
61 P3 22 -1.526
61 P3 23 0.427
61 P3 24 2.380
61 P3 25 3.845
61 P3 26 4.333
61 P3 27 4.822
61 P3 28 4.822
61 P3 29 5.798
61 P3 30 7.751
61 P3 31 9.705
61 P3 32 11.169
61 P3 33 10.681
61 P3 34 8.240
61 P3 35 5.310
61 P3 36 3.357
61 P3 37 3.357
61 P3 38 4.333
61 P3 39 5.310
61 P3 40 5.310
61 P3 41 3.357
61 P3 42 1.892
61 P3 43 0.427
61 P3 44 -1.526
61 P3 45 -3.479
61 P3 46 -5.920
61 P3 47 -7.385
61 P3 48 -6.409
61 P3 49 -2.991
61 P3 50 1.404
61 P3 51 4.333
61 P3 52 4.333
61 P3 53 1.404
61 P3 54 -2.991
61 P3 55 -6.409
61 P3 56 -8.850
61 P3 57 -9.338
61 P3 58 -8.362
61 P3 59 -6.897
61 P3 60 -5.920
61 P3 61 -5.432
61 P3 62 -5.432
61 P3 63 -5.920
61 P3 64 -5.920
61 P3 65 -4.456
61 P3 66 -1.038
61 P3 67 2.869
61 P3 68 6.775
61 P3 69 9.705
61 P3 70 10.681
61 P3 71 11.658
61 P3 72 12.634
61 P3 73 14.099
61 P3 74 15.564
61 P3 75 16.052
61 P3 76 15.076
61 P3 77 13.123
61 P3 78 11.169
61 P3 79 9.705
61 P3 80 9.705
61 P3 81 10.193
61 P3 82 11.169
61 P3 83 12.146
61 P3 84 13.123
61 P3 85 13.611
61 P3 86 13.611
61 P3 87 12.634
61 P3 88 10.193
61 P3 89 7.751
61 P3 90 5.310
61 P3 91 3.357
61 P3 92 1.892
61 P3 93 1.404
61 P3 94 0.916
61 P3 95 0.916
61 P3 96 1.404
61 P3 97 2.380
61 P3 98 2.380
61 P3 99 2.380
61 P3 100 2.380
61 P3 101 2.869
61 P3 102 5.310
61 P3 103 7.263
61 P3 104 9.705
61 P3 105 10.193
61 P3 106 9.216
61 P3 107 8.240
61 P3 108 8.240
61 P3 109 9.705
61 P3 110 11.169
61 P3 111 13.123
61 P3 112 14.587
61 P3 113 15.076
61 P3 114 15.564
61 P3 115 16.052
61 P3 116 15.564
61 P3 117 14.587
61 P3 118 12.146
61 P3 119 8.728
61 P3 120 5.310
61 P3 121 3.357
61 P3 122 2.380
61 P3 123 3.845
61 P3 124 6.287
61 P3 125 8.728
61 P3 126 10.193
61 P3 127 9.705
61 P3 128 8.728
61 P3 129 7.751
61 P3 130 7.751
61 P3 131 9.705
61 P3 132 12.146
61 P3 133 13.611
61 P3 134 13.123
61 P3 135 11.658
61 P3 136 8.728
61 P3 137 5.798
61 P3 138 3.845
61 P3 139 3.357
61 P3 140 3.357
61 P3 141 4.333
61 P3 142 4.822
61 P3 143 4.822
61 P3 144 4.822
61 P3 145 4.822
61 P3 146 3.845
61 P3 147 2.869
61 P3 148 1.892
61 P3 149 0.916
61 P3 150 0.916
61 P3 151 1.892
61 P3 152 3.845
61 P3 153 5.798
61 P3 154 6.775
61 P3 155 6.775
61 P3 156 6.287
61 P3 157 6.287
61 P3 158 7.263
61 P3 159 7.263
61 P3 160 7.751
61 P3 161 7.263
61 P3 162 6.775
61 P3 163 7.751
61 P3 164 8.728
61 P3 165 10.193
61 P3 166 10.193
61 P3 167 9.705
61 P3 168 8.240
61 P3 169 6.775
61 P3 170 6.775
61 P3 171 8.240
61 P3 172 10.681
61 P3 173 12.634
61 P3 174 13.611
61 P3 175 13.123
61 P3 176 10.681
61 P3 177 7.263
61 P3 178 4.333
61 P3 179 1.892
61 P3 180 0.916
61 P3 181 -0.061
61 P3 182 -0.061
61 P3 183 0.427
61 P3 184 0.916
61 P3 185 1.404
61 P3 186 1.404
61 P3 187 0.916
61 P3 188 1.404
61 P3 189 3.357
61 P3 190 7.263
61 P3 191 13.123
61 P3 192 18.005
61 P3 193 21.912
61 P3 194 23.865
61 P3 195 24.353
61 P3 196 23.376
61 P3 197 20.935
61 P3 198 17.029
61 P3 199 12.634
61 P3 200 8.240
61 P3 201 5.310
61 P3 202 4.822
61 P3 203 6.287
61 P3 204 6.775
61 P3 205 6.287
61 P3 206 3.845
61 P3 207 0.916
61 P3 208 -0.549
61 P3 209 0.427
61 P3 210 2.380
61 P3 211 4.333
61 P3 212 4.333
61 P3 213 3.357
61 P3 214 0.916
61 P3 215 -0.549
61 P3 216 -1.526
61 P3 217 -2.502
61 P3 218 -3.479
61 P3 219 -5.432
61 P3 220 -6.409
61 P3 221 -7.385
61 P3 222 -6.897
61 P3 223 -5.432
61 P3 224 -2.991
61 P3 225 -0.549
61 P3 226 1.404
61 P3 227 2.380
61 P3 228 1.404
61 P3 229 -0.549
61 P3 230 -2.991
61 P3 231 -3.967
61 P3 232 -2.991
61 P3 233 -0.549
61 P3 234 1.404
61 P3 235 1.892
61 P3 236 1.404
61 P3 237 0.916
61 P3 238 0.427
61 P3 239 1.404
61 P3 240 1.404
61 P3 241 1.892
61 P3 242 2.380
61 P3 243 3.357
61 P3 244 5.310
61 P3 245 7.751
61 P3 246 10.193
61 P3 247 10.681
61 P3 248 9.216
61 P3 249 5.798
61 P3 250 1.404
61 P3 251 -2.502
61 P3 252 -5.432
61 P3 253 -7.385
61 P3 254 -9.338
61 P3 255 -10.315
# P4 chan 23
61 P4 0 15.737
61 P4 1 16.713
61 P4 2 17.202
61 P4 3 16.225
61 P4 4 13.295
61 P4 5 9.878
61 P4 6 5.971
61 P4 7 2.553
61 P4 8 0.112
61 P4 9 -1.353
61 P4 10 -2.818
61 P4 11 -3.794
61 P4 12 -5.259
61 P4 13 -6.724
61 P4 14 -8.677
61 P4 15 -10.142
61 P4 16 -12.095
61 P4 17 -12.583
61 P4 18 -11.607
61 P4 19 -9.165
61 P4 20 -4.771
61 P4 21 -0.865
61 P4 22 2.553
61 P4 23 4.506
61 P4 24 4.995
61 P4 25 4.506
61 P4 26 3.530
61 P4 27 2.553
61 P4 28 1.088
61 P4 29 -0.376
61 P4 30 -1.353
61 P4 31 -1.353
61 P4 32 -0.865
61 P4 33 0.600
61 P4 34 2.065
61 P4 35 3.530
61 P4 36 4.018
61 P4 37 4.506
61 P4 38 3.530
61 P4 39 2.553
61 P4 40 1.577
61 P4 41 1.088
61 P4 42 0.600
61 P4 43 0.112
61 P4 44 -1.353
61 P4 45 -2.818
61 P4 46 -4.283
61 P4 47 -4.283
61 P4 48 -2.818
61 P4 49 -1.353
61 P4 50 -0.376
61 P4 51 -1.353
61 P4 52 -3.306
61 P4 53 -5.259
61 P4 54 -5.259
61 P4 55 -4.283
61 P4 56 -1.353
61 P4 57 1.577
61 P4 58 4.506
61 P4 59 5.483
61 P4 60 5.971
61 P4 61 4.995
61 P4 62 2.553
61 P4 63 -1.353
61 P4 64 -5.747
61 P4 65 -9.165
61 P4 66 -10.630
61 P4 67 -8.677
61 P4 68 -5.259
61 P4 69 -2.330
61 P4 70 -0.376
61 P4 71 0.112
61 P4 72 1.088
61 P4 73 3.530
61 P4 74 8.413
61 P4 75 12.319
61 P4 76 15.249
61 P4 77 15.249
61 P4 78 14.272
61 P4 79 13.295
61 P4 80 13.295
61 P4 81 14.760
61 P4 82 14.760
61 P4 83 14.272
61 P4 84 12.807
61 P4 85 11.831
61 P4 86 11.342
61 P4 87 10.854
61 P4 88 9.389
61 P4 89 6.948
61 P4 90 4.018
61 P4 91 2.065
61 P4 92 1.088
61 P4 93 1.088
61 P4 94 1.577
61 P4 95 2.065
61 P4 96 3.042
61 P4 97 3.530
61 P4 98 3.042
61 P4 99 1.577
61 P4 100 -0.376
61 P4 101 -0.376
61 P4 102 0.600
61 P4 103 3.042
61 P4 104 4.995
61 P4 105 5.971
61 P4 106 5.483
61 P4 107 4.995
61 P4 108 5.483
61 P4 109 6.460
61 P4 110 8.413
61 P4 111 9.389
61 P4 112 10.854
61 P4 113 11.831
61 P4 114 13.784
61 P4 115 15.249
61 P4 116 16.225
61 P4 117 14.760
61 P4 118 11.831
61 P4 119 8.901
61 P4 120 6.460
61 P4 121 5.483
61 P4 122 5.483
61 P4 123 6.460
61 P4 124 7.924
61 P4 125 9.389
61 P4 126 10.366
61 P4 127 10.854
61 P4 128 10.366
61 P4 129 9.878
61 P4 130 9.389
61 P4 131 9.878
61 P4 132 10.854
61 P4 133 10.854
61 P4 134 10.854
61 P4 135 9.878
61 P4 136 7.924
61 P4 137 5.483
61 P4 138 3.530
61 P4 139 3.530
61 P4 140 4.995
61 P4 141 7.436
61 P4 142 9.878
61 P4 143 10.854
61 P4 144 9.389
61 P4 145 7.436
61 P4 146 4.995
61 P4 147 3.530
61 P4 148 3.530
61 P4 149 3.042
61 P4 150 3.042
61 P4 151 3.530
61 P4 152 5.483
61 P4 153 6.948
61 P4 154 7.924
61 P4 155 7.436
61 P4 156 4.995
61 P4 157 2.553
61 P4 158 0.600
61 P4 159 -0.376
61 P4 160 -0.376
61 P4 161 0.600
61 P4 162 2.553
61 P4 163 5.483
61 P4 164 8.901
61 P4 165 12.319
61 P4 166 14.272
61 P4 167 15.249
61 P4 168 15.249
61 P4 169 14.760
61 P4 170 14.272
61 P4 171 14.760
61 P4 172 14.760
61 P4 173 14.760
61 P4 174 14.760
61 P4 175 13.784
61 P4 176 12.319
61 P4 177 10.366
61 P4 178 8.901
61 P4 179 7.436
61 P4 180 6.948
61 P4 181 6.948
61 P4 182 7.436
61 P4 183 7.924
61 P4 184 8.413
61 P4 185 8.901
61 P4 186 8.413
61 P4 187 7.924
61 P4 188 7.924
61 P4 189 8.901
61 P4 190 11.342
61 P4 191 14.760
61 P4 192 17.690
61 P4 193 19.155
61 P4 194 19.155
61 P4 195 18.178
61 P4 196 17.202
61 P4 197 16.225
61 P4 198 15.737
61 P4 199 14.760
61 P4 200 13.295
61 P4 201 12.319
61 P4 202 11.831
61 P4 203 12.319
61 P4 204 12.807
61 P4 205 13.295
61 P4 206 12.319
61 P4 207 10.854
61 P4 208 9.389
61 P4 209 9.389
61 P4 210 10.366
61 P4 211 11.831
61 P4 212 12.319
61 P4 213 11.831
61 P4 214 10.366
61 P4 215 8.413
61 P4 216 6.948
61 P4 217 6.460
61 P4 218 7.436
61 P4 219 8.413
61 P4 220 9.389
61 P4 221 9.389
61 P4 222 8.901
61 P4 223 9.389
61 P4 224 10.854
61 P4 225 12.807
61 P4 226 14.272
61 P4 227 14.272
61 P4 228 11.831
61 P4 229 8.413
61 P4 230 5.483
61 P4 231 3.530
61 P4 232 3.530
61 P4 233 4.018
61 P4 234 4.995
61 P4 235 4.995
61 P4 236 5.483
61 P4 237 5.483
61 P4 238 5.971
61 P4 239 6.460
61 P4 240 6.948
61 P4 241 7.436
61 P4 242 9.389
61 P4 243 11.831
61 P4 244 14.760
61 P4 245 17.202
61 P4 246 17.690
61 P4 247 17.202
61 P4 248 15.249
61 P4 249 13.295
61 P4 250 11.342
61 P4 251 8.901
61 P4 252 6.460
61 P4 253 3.042
61 P4 254 0.112
61 P4 255 -2.818
# PZ chan 24
61 PZ 0 13.774
61 PZ 1 13.774
61 PZ 2 13.774
61 PZ 3 13.285
61 PZ 4 12.797
61 PZ 5 11.332
61 PZ 6 8.891
61 PZ 7 6.449
61 PZ 8 4.496
61 PZ 9 3.031
61 PZ 10 2.055
61 PZ 11 1.567
61 PZ 12 0.590
61 PZ 13 -0.875
61 PZ 14 -2.828
61 PZ 15 -4.781
61 PZ 16 -7.222
61 PZ 17 -8.687
61 PZ 18 -9.176
61 PZ 19 -8.199
61 PZ 20 -6.246
61 PZ 21 -3.316
61 PZ 22 0.102
61 PZ 23 2.543
61 PZ 24 4.008
61 PZ 25 4.985
61 PZ 26 4.496
61 PZ 27 3.031
61 PZ 28 1.567
61 PZ 29 0.590
61 PZ 30 0.590
61 PZ 31 1.567
61 PZ 32 3.031
61 PZ 33 4.496
61 PZ 34 4.496
61 PZ 35 4.008
61 PZ 36 3.520
61 PZ 37 3.520
61 PZ 38 4.496
61 PZ 39 4.496
61 PZ 40 4.008
61 PZ 41 3.031
61 PZ 42 2.055
61 PZ 43 2.055
61 PZ 44 1.567
61 PZ 45 1.567
61 PZ 46 1.078
61 PZ 47 0.590
61 PZ 48 1.567
61 PZ 49 3.031
61 PZ 50 4.985
61 PZ 51 5.961
61 PZ 52 4.496
61 PZ 53 1.567
61 PZ 54 -1.363
61 PZ 55 -3.805
61 PZ 56 -3.805
61 PZ 57 -2.340
61 PZ 58 -0.387
61 PZ 59 1.078
61 PZ 60 2.055
61 PZ 61 2.055
61 PZ 62 1.078
61 PZ 63 -0.875
61 PZ 64 -3.316
61 PZ 65 -4.293
61 PZ 66 -3.805
61 PZ 67 -0.875
61 PZ 68 4.008
61 PZ 69 8.403
61 PZ 70 10.356
61 PZ 71 11.332
61 PZ 72 10.844
61 PZ 73 10.844
61 PZ 74 12.309
61 PZ 75 14.262
61 PZ 76 15.727
61 PZ 77 15.238
61 PZ 78 13.774
61 PZ 79 11.820
61 PZ 80 11.332
61 PZ 81 11.332
61 PZ 82 12.797
61 PZ 83 13.774
61 PZ 84 13.774
61 PZ 85 13.285
61 PZ 86 12.797
61 PZ 87 12.309
61 PZ 88 11.820
61 PZ 89 11.332
61 PZ 90 10.356
61 PZ 91 9.867
61 PZ 92 8.403
61 PZ 93 7.914
61 PZ 94 7.914
61 PZ 95 8.891
61 PZ 96 10.356
61 PZ 97 12.309
61 PZ 98 12.797
61 PZ 99 12.309
61 PZ 100 11.332
61 PZ 101 10.356
61 PZ 102 11.332
61 PZ 103 12.309
61 PZ 104 14.262
61 PZ 105 14.262
61 PZ 106 13.774
61 PZ 107 13.285
61 PZ 108 12.309
61 PZ 109 13.285
61 PZ 110 14.750
61 PZ 111 16.215
61 PZ 112 17.192
61 PZ 113 18.168
61 PZ 114 19.145
61 PZ 115 19.145
61 PZ 116 19.145
61 PZ 117 17.680
61 PZ 118 15.727
61 PZ 119 13.285
61 PZ 120 10.844
61 PZ 121 9.379
61 PZ 122 8.891
61 PZ 123 9.867
61 PZ 124 11.332
61 PZ 125 12.309
61 PZ 126 13.285
61 PZ 127 12.797
61 PZ 128 11.820
61 PZ 129 10.844
61 PZ 130 10.844
61 PZ 131 11.820
61 PZ 132 13.774
61 PZ 133 16.215
61 PZ 134 17.680
61 PZ 135 17.680
61 PZ 136 15.238
61 PZ 137 12.309
61 PZ 138 9.379
61 PZ 139 7.914
61 PZ 140 7.914
61 PZ 141 9.867
61 PZ 142 11.332
61 PZ 143 12.309
61 PZ 144 11.332
61 PZ 145 9.379
61 PZ 146 7.426
61 PZ 147 5.961
61 PZ 148 5.473
61 PZ 149 5.961
61 PZ 150 6.938
61 PZ 151 7.914
61 PZ 152 10.356
61 PZ 153 11.820
61 PZ 154 12.797
61 PZ 155 12.309
61 PZ 156 10.356
61 PZ 157 8.891
61 PZ 158 7.426
61 PZ 159 6.938
61 PZ 160 7.426
61 PZ 161 8.403
61 PZ 162 9.379
61 PZ 163 10.356
61 PZ 164 11.820
61 PZ 165 13.774
61 PZ 166 15.238
61 PZ 167 16.215
61 PZ 168 16.215
61 PZ 169 15.727
61 PZ 170 15.727
61 PZ 171 16.215
61 PZ 172 17.680
61 PZ 173 19.145
61 PZ 174 20.121
61 PZ 175 19.633
61 PZ 176 17.680
61 PZ 177 14.750
61 PZ 178 12.309
61 PZ 179 10.356
61 PZ 180 9.379
61 PZ 181 8.891
61 PZ 182 8.891
61 PZ 183 9.867
61 PZ 184 10.356
61 PZ 185 10.844
61 PZ 186 9.867
61 PZ 187 8.403
61 PZ 188 7.426
61 PZ 189 7.426
61 PZ 190 9.379
61 PZ 191 13.285
61 PZ 192 16.703
61 PZ 193 19.633
61 PZ 194 21.098
61 PZ 195 21.586
61 PZ 196 21.098
61 PZ 197 19.633
61 PZ 198 17.680
61 PZ 199 14.750
61 PZ 200 12.309
61 PZ 201 10.356
61 PZ 202 10.356
61 PZ 203 11.820
61 PZ 204 12.797
61 PZ 205 13.285
61 PZ 206 12.309
61 PZ 207 10.844
61 PZ 208 10.844
61 PZ 209 12.309
61 PZ 210 14.750
61 PZ 211 16.703
61 PZ 212 17.192
61 PZ 213 16.215
61 PZ 214 14.262
61 PZ 215 12.309
61 PZ 216 10.844
61 PZ 217 9.379
61 PZ 218 8.403
61 PZ 219 7.426
61 PZ 220 5.961
61 PZ 221 4.496
61 PZ 222 3.520
61 PZ 223 3.520
61 PZ 224 4.496
61 PZ 225 6.449
61 PZ 226 8.403
61 PZ 227 9.867
61 PZ 228 8.403
61 PZ 229 6.449
61 PZ 230 4.008
61 PZ 231 3.031
61 PZ 232 4.008
61 PZ 233 5.961
61 PZ 234 8.403
61 PZ 235 9.867
61 PZ 236 10.356
61 PZ 237 9.867
61 PZ 238 9.867
61 PZ 239 9.379
61 PZ 240 9.379
61 PZ 241 9.379
61 PZ 242 9.867
61 PZ 243 11.332
61 PZ 244 12.797
61 PZ 245 14.750
61 PZ 246 16.215
61 PZ 247 16.703
61 PZ 248 15.727
61 PZ 249 13.774
61 PZ 250 11.820
61 PZ 251 9.379
61 PZ 252 7.914
61 PZ 253 6.449
61 PZ 254 4.985
61 PZ 255 4.008
# P8 chan 25
61 P8 0 18.341
61 P8 1 19.318
61 P8 2 18.829
61 P8 3 16.388
61 P8 4 12.482
61 P8 5 8.087
61 P8 6 4.181
61 P8 7 1.251
61 P8 8 -0.214
61 P8 9 -1.678
61 P8 10 -2.655
61 P8 11 -3.143
61 P8 12 -3.632
61 P8 13 -4.120
61 P8 14 -4.120
61 P8 15 -4.608
61 P8 16 -5.585
61 P8 17 -6.073
61 P8 18 -5.585
61 P8 19 -3.632
61 P8 20 0.275
61 P8 21 3.693
61 P8 22 7.111
61 P8 23 8.575
61 P8 24 8.087
61 P8 25 7.111
61 P8 26 5.646
61 P8 27 4.669
61 P8 28 3.693
61 P8 29 2.716
61 P8 30 1.740
61 P8 31 1.740
61 P8 32 1.740
61 P8 33 3.204
61 P8 34 5.646
61 P8 35 8.575
61 P8 36 11.505
61 P8 37 12.970
61 P8 38 12.482
61 P8 39 10.529
61 P8 40 7.599
61 P8 41 3.693
61 P8 42 0.763
61 P8 43 -2.167
61 P8 44 -5.096
61 P8 45 -9.003
61 P8 46 -12.421
61 P8 47 -13.885
61 P8 48 -12.909
61 P8 49 -10.956
61 P8 50 -8.514
61 P8 51 -8.026
61 P8 52 -9.491
61 P8 53 -11.932
61 P8 54 -12.421
61 P8 55 -9.979
61 P8 56 -6.073
61 P8 57 -0.214
61 P8 58 4.181
61 P8 59 7.111
61 P8 60 9.064
61 P8 61 10.529
61 P8 62 11.017
61 P8 63 9.552
61 P8 64 7.111
61 P8 65 3.693
61 P8 66 0.763
61 P8 67 -1.190
61 P8 68 -1.190
61 P8 69 -2.167
61 P8 70 -3.632
61 P8 71 -5.585
61 P8 72 -7.050
61 P8 73 -5.096
61 P8 74 0.275
61 P8 75 6.622
61 P8 76 11.505
61 P8 77 13.947
61 P8 78 13.458
61 P8 79 12.482
61 P8 80 13.458
61 P8 81 15.411
61 P8 82 17.365
61 P8 83 17.853
61 P8 84 17.365
61 P8 85 16.876
61 P8 86 16.876
61 P8 87 16.876
61 P8 88 15.411
61 P8 89 11.993
61 P8 90 8.087
61 P8 91 5.157
61 P8 92 4.669
61 P8 93 5.157
61 P8 94 5.646
61 P8 95 4.669
61 P8 96 2.716
61 P8 97 -0.214
61 P8 98 -2.655
61 P8 99 -4.608
61 P8 100 -5.585
61 P8 101 -6.073
61 P8 102 -5.096
61 P8 103 -3.143
61 P8 104 -1.190
61 P8 105 -0.702
61 P8 106 -0.702
61 P8 107 -1.190
61 P8 108 -0.702
61 P8 109 1.251
61 P8 110 4.181
61 P8 111 6.622
61 P8 112 9.064
61 P8 113 11.017
61 P8 114 13.458
61 P8 115 15.411
61 P8 116 16.876
61 P8 117 16.388
61 P8 118 13.458
61 P8 119 9.064
61 P8 120 5.157
61 P8 121 2.716
61 P8 122 1.740
61 P8 123 2.716
61 P8 124 4.181
61 P8 125 5.646
61 P8 126 6.622
61 P8 127 7.111
61 P8 128 6.622
61 P8 129 6.134
61 P8 130 5.646
61 P8 131 5.157
61 P8 132 5.157
61 P8 133 4.669
61 P8 134 3.693
61 P8 135 1.251
61 P8 136 -1.190
61 P8 137 -4.120
61 P8 138 -5.096
61 P8 139 -4.608
61 P8 140 -1.678
61 P8 141 2.228
61 P8 142 5.646
61 P8 143 6.622
61 P8 144 5.157
61 P8 145 2.228
61 P8 146 -0.702
61 P8 147 -2.167
61 P8 148 -2.655
61 P8 149 -3.143
61 P8 150 -4.120
61 P8 151 -5.585
61 P8 152 -6.561
61 P8 153 -6.073
61 P8 154 -4.120
61 P8 155 -2.167
61 P8 156 -0.702
61 P8 157 -0.214
61 P8 158 -0.214
61 P8 159 -0.214
61 P8 160 -0.214
61 P8 161 0.763
61 P8 162 2.716
61 P8 163 5.157
61 P8 164 8.575
61 P8 165 11.505
61 P8 166 13.947
61 P8 167 15.411
61 P8 168 15.411
61 P8 169 14.435
61 P8 170 12.970
61 P8 171 12.970
61 P8 172 13.458
61 P8 173 13.947
61 P8 174 14.435
61 P8 175 13.947
61 P8 176 12.970
61 P8 177 10.529
61 P8 178 8.575
61 P8 179 6.622
61 P8 180 6.134
61 P8 181 6.134
61 P8 182 6.622
61 P8 183 6.622
61 P8 184 6.622
61 P8 185 6.622
61 P8 186 6.622
61 P8 187 6.622
61 P8 188 7.599
61 P8 189 11.017
61 P8 190 15.411
61 P8 191 19.806
61 P8 192 22.736
61 P8 193 24.200
61 P8 194 22.247
61 P8 195 19.318
61 P8 196 16.876
61 P8 197 14.923
61 P8 198 14.923
61 P8 199 15.411
61 P8 200 15.900
61 P8 201 16.388
61 P8 202 15.900
61 P8 203 15.411
61 P8 204 14.923
61 P8 205 14.435
61 P8 206 12.970
61 P8 207 11.017
61 P8 208 8.575
61 P8 209 6.134
61 P8 210 4.669
61 P8 211 4.181
61 P8 212 4.181
61 P8 213 4.181
61 P8 214 3.693
61 P8 215 2.228
61 P8 216 1.251
61 P8 217 1.251
61 P8 218 2.716
61 P8 219 5.646
61 P8 220 8.087
61 P8 221 11.017
61 P8 222 14.435
61 P8 223 17.365
61 P8 224 20.782
61 P8 225 23.712
61 P8 226 25.177
61 P8 227 24.689
61 P8 228 21.271
61 P8 229 16.876
61 P8 230 11.993
61 P8 231 8.575
61 P8 232 6.134
61 P8 233 4.669
61 P8 234 3.693
61 P8 235 3.204
61 P8 236 2.228
61 P8 237 1.740
61 P8 238 1.251
61 P8 239 1.251
61 P8 240 1.740
61 P8 241 3.204
61 P8 242 5.646
61 P8 243 9.064
61 P8 244 12.970
61 P8 245 15.900
61 P8 246 16.876
61 P8 247 15.411
61 P8 248 12.482
61 P8 249 9.552
61 P8 250 6.622
61 P8 251 4.181
61 P8 252 1.251
61 P8 253 -2.655
61 P8 254 -7.050
61 P8 255 -11.932
# P7 chan 26
61 P7 0 17.253
61 P7 1 15.788
61 P7 2 13.835
61 P7 3 11.882
61 P7 4 10.905
61 P7 5 10.417
61 P7 6 9.440
61 P7 7 7.975
61 P7 8 6.510
61 P7 9 5.534
61 P7 10 5.534
61 P7 11 6.022
61 P7 12 6.510
61 P7 13 5.046
61 P7 14 2.604
61 P7 15 0.163
61 P7 16 -1.790
61 P7 17 -1.302
61 P7 18 -0.326
61 P7 19 1.139
61 P7 20 1.628
61 P7 21 1.628
61 P7 22 2.116
61 P7 23 3.581
61 P7 24 5.534
61 P7 25 6.999
61 P7 26 7.975
61 P7 27 7.975
61 P7 28 7.975
61 P7 29 8.952
61 P7 30 12.370
61 P7 31 15.788
61 P7 32 18.229
61 P7 33 17.741
61 P7 34 15.299
61 P7 35 12.858
61 P7 36 10.905
61 P7 37 10.905
61 P7 38 12.370
61 P7 39 13.346
61 P7 40 13.346
61 P7 41 10.905
61 P7 42 7.975
61 P7 43 4.557
61 P7 44 0.651
61 P7 45 -2.767
61 P7 46 -6.185
61 P7 47 -8.626
61 P7 48 -8.138
61 P7 49 -5.208
61 P7 50 -0.814
61 P7 51 1.628
61 P7 52 2.116
61 P7 53 -0.326
61 P7 54 -3.743
61 P7 55 -7.161
61 P7 56 -9.115
61 P7 57 -9.603
61 P7 58 -8.626
61 P7 59 -6.673
61 P7 60 -4.232
61 P7 61 -2.279
61 P7 62 -0.814
61 P7 63 0.163
61 P7 64 1.139
61 P7 65 3.092
61 P7 66 5.534
61 P7 67 7.975
61 P7 68 9.928
61 P7 69 11.393
61 P7 70 11.393
61 P7 71 11.393
61 P7 72 11.393
61 P7 73 13.346
61 P7 74 15.299
61 P7 75 17.253
61 P7 76 18.229
61 P7 77 17.741
61 P7 78 16.764
61 P7 79 15.788
61 P7 80 15.788
61 P7 81 16.764
61 P7 82 18.229
61 P7 83 20.182
61 P7 84 21.647
61 P7 85 22.624
61 P7 86 22.624
61 P7 87 21.647
61 P7 88 18.717
61 P7 89 15.299
61 P7 90 10.905
61 P7 91 6.999
61 P7 92 4.557
61 P7 93 3.581
61 P7 94 3.581
61 P7 95 4.069
61 P7 96 4.557
61 P7 97 4.557
61 P7 98 4.069
61 P7 99 3.092
61 P7 100 3.092
61 P7 101 3.581
61 P7 102 5.534
61 P7 103 7.487
61 P7 104 8.952
61 P7 105 8.952
61 P7 106 8.464
61 P7 107 7.975
61 P7 108 7.975
61 P7 109 9.440
61 P7 110 11.393
61 P7 111 12.858
61 P7 112 13.346
61 P7 113 13.346
61 P7 114 13.346
61 P7 115 13.346
61 P7 116 13.835
61 P7 117 13.835
61 P7 118 12.370
61 P7 119 9.440
61 P7 120 6.510
61 P7 121 4.557
61 P7 122 4.069
61 P7 123 4.557
61 P7 124 6.022
61 P7 125 7.487
61 P7 126 8.952
61 P7 127 8.952
61 P7 128 8.464
61 P7 129 7.487
61 P7 130 7.487
61 P7 131 8.464
61 P7 132 10.417
61 P7 133 11.393
61 P7 134 10.905
61 P7 135 8.464
61 P7 136 4.557
61 P7 137 1.139
61 P7 138 -1.302
61 P7 139 -1.302
61 P7 140 -0.814
61 P7 141 0.163
61 P7 142 0.651
61 P7 143 0.651
61 P7 144 -0.326
61 P7 145 -0.814
61 P7 146 -1.790
61 P7 147 -2.279
61 P7 148 -2.279
61 P7 149 -1.790
61 P7 150 -1.302
61 P7 151 -0.814
61 P7 152 -0.326
61 P7 153 -0.326
61 P7 154 -0.326
61 P7 155 0.163
61 P7 156 0.651
61 P7 157 2.116
61 P7 158 2.604
61 P7 159 2.604
61 P7 160 2.116
61 P7 161 1.628
61 P7 162 1.628
61 P7 163 2.604
61 P7 164 4.069
61 P7 165 5.046
61 P7 166 5.534
61 P7 167 5.534
61 P7 168 4.557
61 P7 169 3.581
61 P7 170 3.092
61 P7 171 3.092
61 P7 172 5.046
61 P7 173 7.487
61 P7 174 8.952
61 P7 175 8.952
61 P7 176 6.510
61 P7 177 3.092
61 P7 178 -0.326
61 P7 179 -1.790
61 P7 180 -1.790
61 P7 181 -1.302
61 P7 182 -1.790
61 P7 183 -2.767
61 P7 184 -4.232
61 P7 185 -5.208
61 P7 186 -5.208
61 P7 187 -3.743
61 P7 188 -1.302
61 P7 189 3.092
61 P7 190 8.464
61 P7 191 14.323
61 P7 192 20.182
61 P7 193 24.577
61 P7 194 27.018
61 P7 195 28.483
61 P7 196 27.995
61 P7 197 25.065
61 P7 198 20.671
61 P7 199 14.323
61 P7 200 8.464
61 P7 201 3.581
61 P7 202 1.628
61 P7 203 1.628
61 P7 204 2.604
61 P7 205 3.092
61 P7 206 2.116
61 P7 207 -0.814
61 P7 208 -3.255
61 P7 209 -4.232
61 P7 210 -3.255
61 P7 211 -2.279
61 P7 212 -2.279
61 P7 213 -3.743
61 P7 214 -5.208
61 P7 215 -6.185
61 P7 216 -6.185
61 P7 217 -5.697
61 P7 218 -5.697
61 P7 219 -6.673
61 P7 220 -8.138
61 P7 221 -8.626
61 P7 222 -7.161
61 P7 223 -4.232
61 P7 224 -0.326
61 P7 225 3.092
61 P7 226 5.046
61 P7 227 5.534
61 P7 228 3.581
61 P7 229 0.651
61 P7 230 -2.767
61 P7 231 -5.697
61 P7 232 -6.673
61 P7 233 -5.697
61 P7 234 -3.743
61 P7 235 -2.767
61 P7 236 -2.279
61 P7 237 -3.255
61 P7 238 -4.232
61 P7 239 -4.232
61 P7 240 -3.255
61 P7 241 -1.790
61 P7 242 0.163
61 P7 243 1.628
61 P7 244 4.069
61 P7 245 6.510
61 P7 246 7.975
61 P7 247 8.464
61 P7 248 6.510
61 P7 249 3.092
61 P7 250 -1.790
61 P7 251 -6.673
61 P7 252 -10.091
61 P7 253 -12.533
61 P7 254 -14.486
61 P7 255 -16.439
# PO2 chan 27
61 PO2 0 17.375
61 PO2 1 18.351
61 PO2 2 18.351
61 PO2 3 17.375
61 PO2 4 15.422
61 PO2 5 12.004
61 PO2 6 8.586
61 PO2 7 5.656
61 PO2 8 3.215
61 PO2 9 1.261
61 PO2 10 -0.203
61 PO2 11 -1.668
61 PO2 12 -2.645
61 PO2 13 -4.598
61 PO2 14 -6.063
61 PO2 15 -8.016
61 PO2 16 -9.969
61 PO2 17 -10.946
61 PO2 18 -10.457
61 PO2 19 -8.016
61 PO2 20 -4.110
61 PO2 21 1.261
61 PO2 22 5.168
61 PO2 23 8.097
61 PO2 24 9.074
61 PO2 25 8.586
61 PO2 26 7.121
61 PO2 27 5.656
61 PO2 28 4.191
61 PO2 29 3.215
61 PO2 30 2.726
61 PO2 31 2.238
61 PO2 32 2.238
61 PO2 33 3.215
61 PO2 34 4.191
61 PO2 35 5.656
61 PO2 36 6.144
61 PO2 37 6.632
61 PO2 38 5.656
61 PO2 39 3.703
61 PO2 40 1.750
61 PO2 41 0.773
61 PO2 42 -0.203
61 PO2 43 -0.692
61 PO2 44 -2.645
61 PO2 45 -5.086
61 PO2 46 -7.528
61 PO2 47 -8.504
61 PO2 48 -7.039
61 PO2 49 -3.133
61 PO2 50 -0.203
61 PO2 51 0.773
61 PO2 52 -1.180
61 PO2 53 -4.110
61 PO2 54 -6.063
61 PO2 55 -6.063
61 PO2 56 -4.110
61 PO2 57 -1.180
61 PO2 58 1.750
61 PO2 59 4.191
61 PO2 60 5.656
61 PO2 61 6.632
61 PO2 62 5.168
61 PO2 63 3.215
61 PO2 64 -0.203
61 PO2 65 -2.157
61 PO2 66 -2.157
61 PO2 67 1.261
61 PO2 68 5.656
61 PO2 69 9.074
61 PO2 70 9.562
61 PO2 71 7.609
61 PO2 72 5.168
61 PO2 73 5.656
61 PO2 74 8.586
61 PO2 75 12.980
61 PO2 76 16.398
61 PO2 77 16.886
61 PO2 78 15.910
61 PO2 79 13.957
61 PO2 80 13.468
61 PO2 81 14.445
61 PO2 82 15.910
61 PO2 83 16.398
61 PO2 84 16.398
61 PO2 85 15.910
61 PO2 86 15.422
61 PO2 87 13.957
61 PO2 88 12.980
61 PO2 89 11.027
61 PO2 90 9.074
61 PO2 91 7.609
61 PO2 92 7.121
61 PO2 93 7.121
61 PO2 94 7.609
61 PO2 95 8.586
61 PO2 96 9.074
61 PO2 97 9.074
61 PO2 98 8.097
61 PO2 99 6.632
61 PO2 100 5.168
61 PO2 101 4.679
61 PO2 102 5.656
61 PO2 103 8.097
61 PO2 104 10.539
61 PO2 105 11.515
61 PO2 106 11.515
61 PO2 107 10.539
61 PO2 108 10.539
61 PO2 109 11.515
61 PO2 110 12.980
61 PO2 111 14.933
61 PO2 112 16.398
61 PO2 113 17.375
61 PO2 114 19.328
61 PO2 115 20.793
61 PO2 116 21.281
61 PO2 117 20.304
61 PO2 118 17.375
61 PO2 119 14.445
61 PO2 120 11.515
61 PO2 121 10.050
61 PO2 122 9.562
61 PO2 123 10.050
61 PO2 124 11.515
61 PO2 125 12.980
61 PO2 126 14.445
61 PO2 127 15.422
61 PO2 128 15.422
61 PO2 129 15.422
61 PO2 130 15.422
61 PO2 131 15.910
61 PO2 132 16.886
61 PO2 133 17.375
61 PO2 134 16.886
61 PO2 135 14.445
61 PO2 136 11.027
61 PO2 137 7.121
61 PO2 138 5.168
61 PO2 139 5.168
61 PO2 140 7.121
61 PO2 141 10.050
61 PO2 142 12.492
61 PO2 143 12.980
61 PO2 144 11.515
61 PO2 145 9.074
61 PO2 146 5.656
61 PO2 147 3.703
61 PO2 148 2.238
61 PO2 149 2.238
61 PO2 150 2.238
61 PO2 151 2.726
61 PO2 152 4.191
61 PO2 153 5.168
61 PO2 154 5.656
61 PO2 155 6.144
61 PO2 156 5.656
61 PO2 157 5.168
61 PO2 158 4.679
61 PO2 159 4.191
61 PO2 160 3.703
61 PO2 161 3.215
61 PO2 162 4.679
61 PO2 163 7.121
61 PO2 164 11.515
61 PO2 165 15.910
61 PO2 166 19.328
61 PO2 167 19.816
61 PO2 168 19.328
61 PO2 169 17.863
61 PO2 170 17.375
61 PO2 171 18.351
61 PO2 172 19.816
61 PO2 173 21.281
61 PO2 174 21.769
61 PO2 175 20.793
61 PO2 176 17.863
61 PO2 177 14.933
61 PO2 178 12.004
61 PO2 179 11.027
61 PO2 180 10.539
61 PO2 181 10.050
61 PO2 182 10.539
61 PO2 183 11.027
61 PO2 184 12.004
61 PO2 185 12.492
61 PO2 186 12.004
61 PO2 187 11.027
61 PO2 188 10.539
61 PO2 189 12.004
61 PO2 190 15.422
61 PO2 191 20.793
61 PO2 192 25.187
61 PO2 193 28.117
61 PO2 194 29.093
61 PO2 195 28.117
61 PO2 196 26.652
61 PO2 197 24.699
61 PO2 198 22.746
61 PO2 199 19.328
61 PO2 200 15.910
61 PO2 201 13.468
61 PO2 202 12.492
61 PO2 203 12.980
61 PO2 204 13.957
61 PO2 205 14.445
61 PO2 206 13.957
61 PO2 207 12.492
61 PO2 208 12.492
61 PO2 209 13.468
61 PO2 210 15.910
61 PO2 211 17.863
61 PO2 212 18.840
61 PO2 213 17.863
61 PO2 214 15.910
61 PO2 215 13.957
61 PO2 216 12.004
61 PO2 217 11.027
61 PO2 218 10.050
61 PO2 219 9.562
61 PO2 220 8.586
61 PO2 221 8.586
61 PO2 222 8.586
61 PO2 223 9.562
61 PO2 224 11.515
61 PO2 225 13.468
61 PO2 226 15.422
61 PO2 227 16.398
61 PO2 228 15.422
61 PO2 229 12.492
61 PO2 230 10.050
61 PO2 231 8.097
61 PO2 232 8.097
61 PO2 233 9.074
61 PO2 234 11.027
61 PO2 235 12.004
61 PO2 236 12.980
61 PO2 237 13.468
61 PO2 238 12.492
61 PO2 239 11.515
61 PO2 240 10.539
61 PO2 241 10.050
61 PO2 242 11.027
61 PO2 243 13.468
61 PO2 244 16.886
61 PO2 245 20.793
61 PO2 246 22.746
61 PO2 247 22.746
61 PO2 248 20.304
61 PO2 249 17.375
61 PO2 250 14.445
61 PO2 251 12.004
61 PO2 252 10.050
