# co2c0000383.rd
# 120 trials, 64 chans, 416 samples 368 post_stim samples
# 3.906000 msecs uV
# S1 obj , trial 106
# FP1 chan 0
106 FP1 0 8.942
106 FP1 1 9.430
106 FP1 2 8.942
106 FP1 3 6.012
106 FP1 4 2.594
106 FP1 5 -0.336
106 FP1 6 -1.312
106 FP1 7 -0.336
106 FP1 8 1.617
106 FP1 9 3.571
106 FP1 10 4.059
106 FP1 11 3.571
106 FP1 12 1.129
106 FP1 13 -2.289
106 FP1 14 -6.195
106 FP1 15 -8.636
106 FP1 16 -9.613
106 FP1 17 -7.660
106 FP1 18 -5.219
106 FP1 19 -3.754
106 FP1 20 -3.754
106 FP1 21 -5.707
106 FP1 22 -8.148
106 FP1 23 -9.125
106 FP1 24 -8.148
106 FP1 25 -5.707
106 FP1 26 -2.289
106 FP1 27 0.641
106 FP1 28 2.594
106 FP1 29 3.082
106 FP1 30 3.082
106 FP1 31 3.082
106 FP1 32 2.106
106 FP1 33 2.106
106 FP1 34 1.617
106 FP1 35 1.617
106 FP1 36 1.617
106 FP1 37 1.617
106 FP1 38 0.641
106 FP1 39 -0.824
106 FP1 40 -2.777
106 FP1 41 -5.707
106 FP1 42 -7.660
106 FP1 43 -9.125
106 FP1 44 -9.613
106 FP1 45 -10.101
106 FP1 46 -11.566
106 FP1 47 -13.031
106 FP1 48 -14.008
106 FP1 49 -13.519
106 FP1 50 -11.566
106 FP1 51 -9.125
106 FP1 52 -6.683
106 FP1 53 -5.219
106 FP1 54 -3.754
106 FP1 55 -3.265
106 FP1 56 -1.801
106 FP1 57 -0.824
106 FP1 58 -0.336
106 FP1 59 -0.336
106 FP1 60 -0.336
106 FP1 61 0.153
106 FP1 62 0.641
106 FP1 63 0.641
106 FP1 64 -1.312
106 FP1 65 -4.730
106 FP1 66 -8.636
106 FP1 67 -11.566
106 FP1 68 -12.543
106 FP1 69 -12.054
106 FP1 70 -10.590
106 FP1 71 -9.613
106 FP1 72 -9.125
106 FP1 73 -7.660
106 FP1 74 -5.707
106 FP1 75 -2.289
106 FP1 76 -0.336
106 FP1 77 0.153
106 FP1 78 -2.289
106 FP1 79 -6.683
106 FP1 80 -10.590
106 FP1 81 -12.543
106 FP1 82 -12.543
106 FP1 83 -12.543
106 FP1 84 -12.543
106 FP1 85 -14.496
106 FP1 86 -16.937
106 FP1 87 -17.914
106 FP1 88 -16.937
106 FP1 89 -14.984
106 FP1 90 -13.031
106 FP1 91 -13.031
106 FP1 92 -13.519
106 FP1 93 -15.472
106 FP1 94 -16.449
106 FP1 95 -17.426
106 FP1 96 -17.426
106 FP1 97 -17.914
106 FP1 98 -17.914
106 FP1 99 -18.402
106 FP1 100 -19.379
106 FP1 101 -18.402
106 FP1 102 -16.449
106 FP1 103 -13.031
106 FP1 104 -9.125
106 FP1 105 -6.683
106 FP1 106 -6.195
106 FP1 107 -7.660
106 FP1 108 -10.590
106 FP1 109 -13.031
106 FP1 110 -14.984
106 FP1 111 -15.961
106 FP1 112 -16.937
106 FP1 113 -18.402
106 FP1 114 -19.379
106 FP1 115 -19.867
106 FP1 116 -18.890
106 FP1 117 -16.449
106 FP1 118 -14.008
106 FP1 119 -12.054
106 FP1 120 -11.078
106 FP1 121 -11.078
106 FP1 122 -12.543
106 FP1 123 -14.496
106 FP1 124 -15.961
106 FP1 125 -16.937
106 FP1 126 -16.449
106 FP1 127 -14.496
106 FP1 128 -11.566
106 FP1 129 -8.636
106 FP1 130 -5.707
106 FP1 131 -3.265
106 FP1 132 -1.312
106 FP1 133 0.641
106 FP1 134 0.641
106 FP1 135 -0.336
106 FP1 136 -3.265
106 FP1 137 -7.172
106 FP1 138 -10.590
106 FP1 139 -13.031
106 FP1 140 -14.008
106 FP1 141 -14.496
106 FP1 142 -14.984
106 FP1 143 -15.472
106 FP1 144 -14.496
106 FP1 145 -11.566
106 FP1 146 -6.683
106 FP1 147 -2.289
106 FP1 148 -0.824
106 FP1 149 -2.289
106 FP1 150 -7.172
106 FP1 151 -11.566
106 FP1 152 -14.496
106 FP1 153 -14.496
106 FP1 154 -13.031
106 FP1 155 -13.031
106 FP1 156 -14.008
106 FP1 157 -15.961
106 FP1 158 -16.937
106 FP1 159 -15.961
106 FP1 160 -14.008
106 FP1 161 -12.054
106 FP1 162 -12.054
106 FP1 163 -13.519
106 FP1 164 -15.472
106 FP1 165 -16.937
106 FP1 166 -16.937
106 FP1 167 -15.961
106 FP1 168 -14.008
106 FP1 169 -12.054
106 FP1 170 -9.125
106 FP1 171 -7.172
106 FP1 172 -5.707
106 FP1 173 -5.219
106 FP1 174 -5.707
106 FP1 175 -6.195
106 FP1 176 -6.683
106 FP1 177 -8.148
106 FP1 178 -10.101
106 FP1 179 -12.543
106 FP1 180 -14.496
106 FP1 181 -14.496
106 FP1 182 -13.519
106 FP1 183 -11.566
106 FP1 184 -10.101
106 FP1 185 -10.101
106 FP1 186 -10.101
106 FP1 187 -10.101
106 FP1 188 -8.148
106 FP1 189 -5.707
106 FP1 190 -3.754
106 FP1 191 -3.265
106 FP1 192 -4.730
106 FP1 193 -7.172
106 FP1 194 -7.660
106 FP1 195 -6.195
106 FP1 196 -3.754
106 FP1 197 -1.312
106 FP1 198 0.153
106 FP1 199 -0.336
106 FP1 200 -0.824
106 FP1 201 -1.312
106 FP1 202 -0.824
106 FP1 203 0.153
106 FP1 204 0.153
106 FP1 205 -0.336
106 FP1 206 -1.312
106 FP1 207 -0.824
106 FP1 208 0.153
106 FP1 209 2.594
106 FP1 210 5.035
106 FP1 211 6.500
106 FP1 212 6.012
106 FP1 213 4.059
106 FP1 214 1.129
106 FP1 215 -0.824
106 FP1 216 -2.289
106 FP1 217 -3.265
106 FP1 218 -4.242
106 FP1 219 -5.707
106 FP1 220 -6.195
106 FP1 221 -5.219
106 FP1 222 -2.777
106 FP1 223 0.153
106 FP1 224 2.594
106 FP1 225 3.082
106 FP1 226 1.617
106 FP1 227 0.153
106 FP1 228 -0.336
106 FP1 229 1.617
106 FP1 230 5.524
106 FP1 231 8.453
106 FP1 232 9.430
106 FP1 233 7.965
106 FP1 234 5.524
106 FP1 235 3.082
106 FP1 236 1.617
106 FP1 237 1.617
106 FP1 238 2.106
106 FP1 239 2.106
106 FP1 240 2.106
106 FP1 241 2.594
106 FP1 242 4.059
106 FP1 243 6.012
106 FP1 244 8.942
106 FP1 245 10.895
106 FP1 246 12.360
106 FP1 247 12.360
106 FP1 248 11.383
106 FP1 249 9.430
106 FP1 250 6.989
106 FP1 251 5.035
106 FP1 252 3.571
106 FP1 253 4.059
106 FP1 254 5.035
106 FP1 255 6.989
# FP2 chan 1
106 FP2 0 8.189
106 FP2 1 7.701
106 FP2 2 7.212
106 FP2 3 5.747
106 FP2 4 4.771
106 FP2 5 3.794
106 FP2 6 2.818
106 FP2 7 1.841
106 FP2 8 2.330
106 FP2 9 2.818
106 FP2 10 3.306
106 FP2 11 2.818
106 FP2 12 0.376
106 FP2 13 -3.530
106 FP2 14 -7.924
106 FP2 15 -10.854
106 FP2 16 -11.831
106 FP2 17 -9.878
106 FP2 18 -7.924
106 FP2 19 -6.460
106 FP2 20 -6.948
106 FP2 21 -9.389
106 FP2 22 -10.854
106 FP2 23 -11.342
106 FP2 24 -9.389
106 FP2 25 -6.460
106 FP2 26 -3.042
106 FP2 27 -1.088
106 FP2 28 0.376
106 FP2 29 0.376
106 FP2 30 -0.600
106 FP2 31 -1.088
106 FP2 32 -1.577
106 FP2 33 -0.600
106 FP2 34 0.376
106 FP2 35 1.841
106 FP2 36 2.330
106 FP2 37 1.841
106 FP2 38 0.865
106 FP2 39 -1.088
106 FP2 40 -2.553
106 FP2 41 -4.506
106 FP2 42 -5.971
106 FP2 43 -8.413
106 FP2 44 -10.366
106 FP2 45 -12.319
106 FP2 46 -13.784
106 FP2 47 -14.760
106 FP2 48 -14.760
106 FP2 49 -14.272
106 FP2 50 -13.295
106 FP2 51 -11.342
106 FP2 52 -9.389
106 FP2 53 -7.436
106 FP2 54 -5.971
106 FP2 55 -5.483
106 FP2 56 -4.995
106 FP2 57 -5.483
106 FP2 58 -6.460
106 FP2 59 -6.948
106 FP2 60 -7.436
106 FP2 61 -7.436
106 FP2 62 -7.436
106 FP2 63 -7.436
106 FP2 64 -8.413
106 FP2 65 -10.366
106 FP2 66 -12.807
106 FP2 67 -14.760
106 FP2 68 -16.225
106 FP2 69 -17.202
106 FP2 70 -18.178
106 FP2 71 -18.667
106 FP2 72 -19.155
106 FP2 73 -19.155
106 FP2 74 -17.690
106 FP2 75 -15.249
106 FP2 76 -12.807
106 FP2 77 -11.831
106 FP2 78 -12.807
106 FP2 79 -14.760
106 FP2 80 -17.202
106 FP2 81 -18.178
106 FP2 82 -17.690
106 FP2 83 -17.202
106 FP2 84 -17.202
106 FP2 85 -17.690
106 FP2 86 -19.643
106 FP2 87 -20.620
106 FP2 88 -20.620
106 FP2 89 -19.155
106 FP2 90 -17.202
106 FP2 91 -16.225
106 FP2 92 -16.713
106 FP2 93 -18.178
106 FP2 94 -19.643
106 FP2 95 -20.620
106 FP2 96 -20.620
106 FP2 97 -20.131
106 FP2 98 -20.620
106 FP2 99 -21.596
106 FP2 100 -22.085
106 FP2 101 -22.085
106 FP2 102 -20.620
106 FP2 103 -18.178
106 FP2 104 -16.225
106 FP2 105 -14.272
106 FP2 106 -12.807
106 FP2 107 -11.831
106 FP2 108 -11.831
106 FP2 109 -12.807
106 FP2 110 -14.272
106 FP2 111 -16.225
106 FP2 112 -18.667
106 FP2 113 -21.108
106 FP2 114 -22.573
106 FP2 115 -23.061
106 FP2 116 -21.596
106 FP2 117 -19.643
106 FP2 118 -17.690
106 FP2 119 -16.225
106 FP2 120 -15.249
106 FP2 121 -14.760
106 FP2 122 -14.760
106 FP2 123 -14.760
106 FP2 124 -15.737
106 FP2 125 -16.713
106 FP2 126 -17.202
106 FP2 127 -17.202
106 FP2 128 -16.225
106 FP2 129 -14.272
106 FP2 130 -11.831
106 FP2 131 -9.389
106 FP2 132 -7.436
106 FP2 133 -6.460
106 FP2 134 -5.971
106 FP2 135 -6.460
106 FP2 136 -7.924
106 FP2 137 -10.854
106 FP2 138 -14.272
106 FP2 139 -16.713
106 FP2 140 -18.178
106 FP2 141 -18.178
106 FP2 142 -18.667
106 FP2 143 -18.667
106 FP2 144 -17.690
106 FP2 145 -15.737
106 FP2 146 -11.342
106 FP2 147 -6.460
106 FP2 148 -3.530
106 FP2 149 -4.018
106 FP2 150 -7.924
106 FP2 151 -13.295
106 FP2 152 -17.202
106 FP2 153 -17.690
106 FP2 154 -15.737
106 FP2 155 -13.784
106 FP2 156 -13.295
106 FP2 157 -14.760
106 FP2 158 -16.225
106 FP2 159 -16.713
106 FP2 160 -15.737
106 FP2 161 -14.272
106 FP2 162 -13.295
106 FP2 163 -13.784
106 FP2 164 -15.249
106 FP2 165 -16.713
106 FP2 166 -17.690
106 FP2 167 -17.202
106 FP2 168 -15.249
106 FP2 169 -11.831
106 FP2 170 -8.413
106 FP2 171 -5.971
106 FP2 172 -4.995
106 FP2 173 -5.483
106 FP2 174 -6.460
106 FP2 175 -6.948
106 FP2 176 -6.948
106 FP2 177 -8.413
106 FP2 178 -11.342
106 FP2 179 -14.760
106 FP2 180 -17.690
106 FP2 181 -17.690
106 FP2 182 -16.225
106 FP2 183 -14.272
106 FP2 184 -13.784
106 FP2 185 -14.272
106 FP2 186 -16.225
106 FP2 187 -16.713
106 FP2 188 -15.737
106 FP2 189 -13.784
106 FP2 190 -12.319
106 FP2 191 -12.807
106 FP2 192 -14.272
106 FP2 193 -15.249
106 FP2 194 -15.737
106 FP2 195 -14.272
106 FP2 196 -13.295
106 FP2 197 -11.831
106 FP2 198 -11.342
106 FP2 199 -10.854
106 FP2 200 -9.878
106 FP2 201 -9.389
106 FP2 202 -9.389
106 FP2 203 -9.878
106 FP2 204 -10.854
106 FP2 205 -11.342
106 FP2 206 -11.342
106 FP2 207 -10.366
106 FP2 208 -8.901
106 FP2 209 -7.924
106 FP2 210 -6.948
106 FP2 211 -6.460
106 FP2 212 -6.460
106 FP2 213 -6.948
106 FP2 214 -7.924
106 FP2 215 -9.389
106 FP2 216 -11.342
106 FP2 217 -12.807
106 FP2 218 -12.807
106 FP2 219 -12.319
106 FP2 220 -10.366
106 FP2 221 -8.413
106 FP2 222 -6.460
106 FP2 223 -5.971
106 FP2 224 -6.460
106 FP2 225 -7.436
106 FP2 226 -9.389
106 FP2 227 -10.366
106 FP2 228 -9.389
106 FP2 229 -7.924
106 FP2 230 -5.971
106 FP2 231 -4.506
106 FP2 232 -4.506
106 FP2 233 -4.995
106 FP2 234 -5.971
106 FP2 235 -6.460
106 FP2 236 -6.460
106 FP2 237 -6.460
106 FP2 238 -6.460
106 FP2 239 -6.460
106 FP2 240 -5.971
106 FP2 241 -4.506
106 FP2 242 -3.530
106 FP2 243 -2.553
106 FP2 244 -1.577
106 FP2 245 -1.577
106 FP2 246 -0.600
106 FP2 247 0.376
106 FP2 248 -0.112
106 FP2 249 -2.065
106 FP2 250 -5.483
106 FP2 251 -8.901
106 FP2 252 -9.878
106 FP2 253 -8.413
106 FP2 254 -5.971
106 FP2 255 -3.530
# F7 chan 2
106 F7 0 13.397
106 F7 1 13.885
106 F7 2 13.885
106 F7 3 13.885
106 F7 4 13.397
106 F7 5 12.909
106 F7 6 11.444
106 F7 7 10.956
106 F7 8 11.444
106 F7 9 12.909
106 F7 10 14.862
106 F7 11 15.350
106 F7 12 13.397
106 F7 13 9.979
106 F7 14 7.538
106 F7 15 7.050
106 F7 16 9.491
106 F7 17 12.421
106 F7 18 13.885
106 F7 19 12.909
106 F7 20 9.491
106 F7 21 6.561
106 F7 22 5.585
106 F7 23 7.050
106 F7 24 8.514
106 F7 25 10.468
106 F7 26 10.956
106 F7 27 12.421
106 F7 28 13.885
106 F7 29 16.815
106 F7 30 19.257
106 F7 31 21.698
106 F7 32 22.675
106 F7 33 23.163
106 F7 34 22.675
106 F7 35 21.210
106 F7 36 19.257
106 F7 37 17.303
106 F7 38 15.350
106 F7 39 13.885
106 F7 40 12.909
106 F7 41 10.956
106 F7 42 8.514
106 F7 43 5.096
106 F7 44 1.678
106 F7 45 -0.275
106 F7 46 -1.251
106 F7 47 -1.740
106 F7 48 -2.716
106 F7 49 -4.669
106 F7 50 -7.111
106 F7 51 -8.087
106 F7 52 -7.599
106 F7 53 -4.669
106 F7 54 -0.763
106 F7 55 2.655
106 F7 56 5.096
106 F7 57 6.561
106 F7 58 7.050
106 F7 59 7.538
106 F7 60 6.561
106 F7 61 6.073
106 F7 62 4.608
106 F7 63 2.167
106 F7 64 -0.275
106 F7 65 -3.693
106 F7 66 -6.622
106 F7 67 -9.552
106 F7 68 -11.505
106 F7 69 -12.482
106 F7 70 -12.482
106 F7 71 -11.505
106 F7 72 -10.040
106 F7 73 -7.111
106 F7 74 -4.181
106 F7 75 -0.275
106 F7 76 2.167
106 F7 77 3.143
106 F7 78 2.655
106 F7 79 0.702
106 F7 80 -0.763
106 F7 81 -1.251
106 F7 82 -1.251
106 F7 83 -2.228
106 F7 84 -4.181
106 F7 85 -7.111
106 F7 86 -8.087
106 F7 87 -7.599
106 F7 88 -5.157
106 F7 89 -2.228
106 F7 90 -0.275
106 F7 91 0.214
106 F7 92 -1.251
106 F7 93 -3.693
106 F7 94 -5.646
106 F7 95 -6.134
106 F7 96 -4.669
106 F7 97 -2.228
106 F7 98 -0.763
106 F7 99 -0.275
106 F7 100 -0.763
106 F7 101 -0.763
106 F7 102 -0.275
106 F7 103 1.678
106 F7 104 3.632
106 F7 105 5.096
106 F7 106 5.585
106 F7 107 5.096
106 F7 108 5.585
106 F7 109 5.585
106 F7 110 4.120
106 F7 111 1.190
106 F7 112 -3.693
106 F7 113 -8.087
106 F7 114 -9.552
106 F7 115 -7.599
106 F7 116 -3.204
106 F7 117 1.190
106 F7 118 3.143
106 F7 119 3.143
106 F7 120 1.190
106 F7 121 -0.763
106 F7 122 -1.740
106 F7 123 -2.228
106 F7 124 -2.716
106 F7 125 -2.716
106 F7 126 -2.228
106 F7 127 0.214
106 F7 128 4.120
106 F7 129 8.514
106 F7 130 11.444
106 F7 131 11.444
106 F7 132 9.979
106 F7 133 7.538
106 F7 134 5.096
106 F7 135 2.655
106 F7 136 -0.275
106 F7 137 -3.204
106 F7 138 -5.646
106 F7 139 -6.622
106 F7 140 -5.157
106 F7 141 -3.204
106 F7 142 -2.716
106 F7 143 -4.669
106 F7 144 -7.111
106 F7 145 -8.575
106 F7 146 -6.622
106 F7 147 -2.228
106 F7 148 1.678
106 F7 149 2.167
106 F7 150 -0.275
106 F7 151 -4.669
106 F7 152 -8.087
106 F7 153 -8.575
106 F7 154 -7.599
106 F7 155 -7.599
106 F7 156 -10.040
106 F7 157 -13.947
106 F7 158 -17.365
106 F7 159 -18.341
106 F7 160 -17.365
106 F7 161 -14.923
106 F7 162 -12.482
106 F7 163 -11.993
106 F7 164 -12.482
106 F7 165 -12.970
106 F7 166 -13.947
106 F7 167 -14.435
106 F7 168 -14.435
106 F7 169 -13.947
106 F7 170 -12.482
106 F7 171 -10.040
106 F7 172 -8.087
106 F7 173 -7.111
106 F7 174 -7.599
106 F7 175 -10.529
106 F7 176 -14.435
106 F7 177 -18.341
106 F7 178 -20.782
106 F7 179 -20.294
106 F7 180 -17.853
106 F7 181 -15.411
106 F7 182 -12.970
106 F7 183 -11.505
106 F7 184 -11.017
106 F7 185 -11.017
106 F7 186 -10.529
106 F7 187 -10.040
106 F7 188 -10.040
106 F7 189 -10.040
106 F7 190 -11.993
106 F7 191 -14.435
106 F7 192 -17.853
106 F7 193 -19.318
106 F7 194 -19.806
106 F7 195 -17.853
106 F7 196 -14.923
106 F7 197 -11.993
106 F7 198 -9.064
106 F7 199 -7.599
106 F7 200 -6.622
106 F7 201 -6.622
106 F7 202 -8.087
106 F7 203 -10.040
106 F7 204 -11.993
106 F7 205 -13.947
106 F7 206 -14.923
106 F7 207 -14.435
106 F7 208 -11.505
106 F7 209 -6.622
106 F7 210 -2.228
106 F7 211 0.702
106 F7 212 -0.275
106 F7 213 -3.204
106 F7 214 -7.111
106 F7 215 -10.040
106 F7 216 -11.017
106 F7 217 -10.040
106 F7 218 -8.575
106 F7 219 -7.599
106 F7 220 -6.622
106 F7 221 -6.134
106 F7 222 -5.646
106 F7 223 -4.669
106 F7 224 -3.204
106 F7 225 -2.228
106 F7 226 -1.251
106 F7 227 0.214
106 F7 228 2.655
106 F7 229 3.632
106 F7 230 4.120
106 F7 231 2.655
106 F7 232 0.214
106 F7 233 -2.716
106 F7 234 -4.181
106 F7 235 -4.669
106 F7 236 -4.669
106 F7 237 -3.693
106 F7 238 -2.716
106 F7 239 -1.251
106 F7 240 -0.275
106 F7 241 1.678
106 F7 242 2.655
106 F7 243 3.143
106 F7 244 4.120
106 F7 245 5.096
106 F7 246 7.050
106 F7 247 8.026
106 F7 248 7.538
106 F7 249 5.585
106 F7 250 2.167
106 F7 251 -0.275
106 F7 252 -1.740
106 F7 253 -1.251
106 F7 254 -0.763
106 F7 255 -0.763
# F8 chan 3
106 F8 0 1.526
106 F8 1 2.502
106 F8 2 3.967
106 F8 3 3.967
106 F8 4 2.014
106 F8 5 -0.916
106 F8 6 -3.357
106 F8 7 -3.845
106 F8 8 -3.845
106 F8 9 -3.845
106 F8 10 -4.333
106 F8 11 -5.798
106 F8 12 -7.751
106 F8 13 -10.681
106 F8 14 -13.123
106 F8 15 -16.052
106 F8 16 -18.005
106 F8 17 -18.494
106 F8 18 -18.005
106 F8 19 -16.541
106 F8 20 -16.052
106 F8 21 -17.517
106 F8 22 -20.447
106 F8 23 -23.376
106 F8 24 -23.865
106 F8 25 -21.912
106 F8 26 -17.517
106 F8 27 -13.611
106 F8 28 -11.658
106 F8 29 -12.146
106 F8 30 -14.587
106 F8 31 -17.029
106 F8 32 -18.005
106 F8 33 -17.517
106 F8 34 -17.517
106 F8 35 -18.005
106 F8 36 -20.447
106 F8 37 -22.400
106 F8 38 -22.888
106 F8 39 -22.400
106 F8 40 -21.423
106 F8 41 -22.400
106 F8 42 -25.330
106 F8 43 -28.259
106 F8 44 -30.212
106 F8 45 -30.212
106 F8 46 -28.259
106 F8 47 -27.283
106 F8 48 -27.283
106 F8 49 -27.771
106 F8 50 -27.283
106 F8 51 -25.330
106 F8 52 -22.888
106 F8 53 -21.912
106 F8 54 -22.400
106 F8 55 -24.841
106 F8 56 -26.794
106 F8 57 -28.259
106 F8 58 -29.236
106 F8 59 -28.748
106 F8 60 -29.236
106 F8 61 -28.748
106 F8 62 -27.771
106 F8 63 -26.794
106 F8 64 -27.283
106 F8 65 -30.212
106 F8 66 -34.119
106 F8 67 -38.025
106 F8 68 -39.001
106 F8 69 -38.513
106 F8 70 -37.537
106 F8 71 -38.025
106 F8 72 -40.955
106 F8 73 -43.884
106 F8 74 -44.861
106 F8 75 -42.908
106 F8 76 -39.978
106 F8 77 -37.537
106 F8 78 -37.048
106 F8 79 -36.560
106 F8 80 -35.095
106 F8 81 -33.142
106 F8 82 -30.701
106 F8 83 -29.724
106 F8 84 -30.701
106 F8 85 -33.630
106 F8 86 -36.560
106 F8 87 -37.537
106 F8 88 -37.048
106 F8 89 -36.072
106 F8 90 -35.583
106 F8 91 -36.072
106 F8 92 -36.560
106 F8 93 -36.072
106 F8 94 -34.119
106 F8 95 -30.212
106 F8 96 -27.283
106 F8 97 -24.841
106 F8 98 -23.865
106 F8 99 -24.353
106 F8 100 -25.818
106 F8 101 -26.306
106 F8 102 -25.818
106 F8 103 -24.353
106 F8 104 -21.912
106 F8 105 -19.958
106 F8 106 -17.517
106 F8 107 -16.541
106 F8 108 -16.541
106 F8 109 -17.517
106 F8 110 -19.470
106 F8 111 -21.423
106 F8 112 -23.865
106 F8 113 -27.283
106 F8 114 -30.701
106 F8 115 -33.142
106 F8 116 -33.630
106 F8 117 -32.654
106 F8 118 -31.189
106 F8 119 -29.724
106 F8 120 -29.236
106 F8 121 -30.212
106 F8 122 -30.701
106 F8 123 -30.701
106 F8 124 -29.724
106 F8 125 -28.748
106 F8 126 -28.259
106 F8 127 -28.259
106 F8 128 -29.236
106 F8 129 -30.701
106 F8 130 -31.189
106 F8 131 -32.166
106 F8 132 -31.677
106 F8 133 -31.189
106 F8 134 -29.236
106 F8 135 -27.283
106 F8 136 -25.330
106 F8 137 -25.330
106 F8 138 -28.259
106 F8 139 -31.677
106 F8 140 -35.095
106 F8 141 -37.048
106 F8 142 -37.537
106 F8 143 -35.583
106 F8 144 -32.166
106 F8 145 -28.259
106 F8 146 -23.376
106 F8 147 -18.005
106 F8 148 -15.076
106 F8 149 -15.076
106 F8 150 -18.982
106 F8 151 -25.330
106 F8 152 -30.701
106 F8 153 -34.119
106 F8 154 -34.607
106 F8 155 -32.654
106 F8 156 -29.724
106 F8 157 -26.794
106 F8 158 -24.353
106 F8 159 -23.376
106 F8 160 -22.888
106 F8 161 -24.353
106 F8 162 -27.283
106 F8 163 -30.212
106 F8 164 -33.142
106 F8 165 -34.607
106 F8 166 -33.630
106 F8 167 -31.677
106 F8 168 -28.259
106 F8 169 -24.353
106 F8 170 -19.958
106 F8 171 -15.564
106 F8 172 -12.634
106 F8 173 -12.146
106 F8 174 -14.587
106 F8 175 -18.494
106 F8 176 -22.400
106 F8 177 -23.865
106 F8 178 -22.400
106 F8 179 -19.958
106 F8 180 -18.005
106 F8 181 -18.494
106 F8 182 -20.935
106 F8 183 -22.888
106 F8 184 -24.353
106 F8 185 -23.865
106 F8 186 -23.376
106 F8 187 -24.353
106 F8 188 -25.818
106 F8 189 -26.794
106 F8 190 -27.283
106 F8 191 -26.794
106 F8 192 -25.818
106 F8 193 -25.818
106 F8 194 -25.330
106 F8 195 -24.353
106 F8 196 -22.888
106 F8 197 -21.423
106 F8 198 -21.423
106 F8 199 -23.376
106 F8 200 -25.330
106 F8 201 -26.794
106 F8 202 -27.771
106 F8 203 -28.259
106 F8 204 -28.748
106 F8 205 -29.724
106 F8 206 -30.212
106 F8 207 -30.212
106 F8 208 -29.236
106 F8 209 -28.259
106 F8 210 -28.259
106 F8 211 -28.259
106 F8 212 -29.724
106 F8 213 -30.701
106 F8 214 -32.166
106 F8 215 -33.142
106 F8 216 -32.654
106 F8 217 -30.212
106 F8 218 -27.771
106 F8 219 -24.353
106 F8 220 -22.888
106 F8 221 -22.888
106 F8 222 -23.376
106 F8 223 -24.353
106 F8 224 -25.330
106 F8 225 -25.818
106 F8 226 -25.818
106 F8 227 -25.330
106 F8 228 -23.376
106 F8 229 -20.447
106 F8 230 -17.029
106 F8 231 -16.052
106 F8 232 -18.005
106 F8 233 -22.400
106 F8 234 -27.283
106 F8 235 -29.724
106 F8 236 -30.701
106 F8 237 -30.212
106 F8 238 -31.189
106 F8 239 -32.166
106 F8 240 -32.654
106 F8 241 -31.677
106 F8 242 -29.724
106 F8 243 -27.771
106 F8 244 -27.283
106 F8 245 -28.259
106 F8 246 -29.236
106 F8 247 -30.212
106 F8 248 -31.677
106 F8 249 -34.607
106 F8 250 -38.025
106 F8 251 -40.466
106 F8 252 -40.466
106 F8 253 -37.537
106 F8 254 -33.142
106 F8 255 -29.724
# AF1 chan 4
106 AF1 0 8.799
106 AF1 1 8.799
106 AF1 2 7.823
106 AF1 3 6.358
106 AF1 4 4.405
106 AF1 5 2.940
106 AF1 6 1.475
106 AF1 7 1.475
106 AF1 8 2.452
106 AF1 9 3.916
106 AF1 10 4.893
106 AF1 11 3.916
106 AF1 12 1.963
106 AF1 13 -0.966
106 AF1 14 -3.408
106 AF1 15 -4.873
106 AF1 16 -4.384
106 AF1 17 -2.920
106 AF1 18 -1.455
106 AF1 19 -1.455
106 AF1 20 -1.943
106 AF1 21 -3.408
106 AF1 22 -5.361
106 AF1 23 -5.849
106 AF1 24 -5.849
106 AF1 25 -3.896
106 AF1 26 -0.966
106 AF1 27 2.452
106 AF1 28 4.405
106 AF1 29 5.381
106 AF1 30 4.893
106 AF1 31 4.405
106 AF1 32 4.405
106 AF1 33 4.893
106 AF1 34 5.870
106 AF1 35 6.358
106 AF1 36 6.358
106 AF1 37 5.870
106 AF1 38 5.381
106 AF1 39 4.893
106 AF1 40 4.893
106 AF1 41 4.405
106 AF1 42 2.940
106 AF1 43 0.987
106 AF1 44 -0.478
106 AF1 45 -1.943
106 AF1 46 -2.920
106 AF1 47 -3.896
106 AF1 48 -4.873
106 AF1 49 -5.361
106 AF1 50 -5.361
106 AF1 51 -4.384
106 AF1 52 -2.431
106 AF1 53 -0.478
106 AF1 54 0.987
106 AF1 55 2.940
106 AF1 56 3.916
106 AF1 57 4.893
106 AF1 58 4.893
106 AF1 59 4.893
106 AF1 60 4.893
106 AF1 61 4.405
106 AF1 62 2.940
106 AF1 63 1.475
106 AF1 64 -0.478
106 AF1 65 -2.920
106 AF1 66 -4.873
106 AF1 67 -6.337
106 AF1 68 -6.826
106 AF1 69 -6.337
106 AF1 70 -5.849
106 AF1 71 -5.361
106 AF1 72 -5.361
106 AF1 73 -4.384
106 AF1 74 -2.920
106 AF1 75 -0.966
106 AF1 76 0.010
106 AF1 77 0.010
106 AF1 78 -1.455
106 AF1 79 -3.408
106 AF1 80 -5.361
106 AF1 81 -6.337
106 AF1 82 -6.337
106 AF1 83 -6.337
106 AF1 84 -6.826
106 AF1 85 -8.291
106 AF1 86 -9.267
106 AF1 87 -10.244
106 AF1 88 -10.244
106 AF1 89 -8.779
106 AF1 90 -7.802
106 AF1 91 -7.314
106 AF1 92 -7.314
106 AF1 93 -8.291
106 AF1 94 -9.267
106 AF1 95 -10.244
106 AF1 96 -10.244
106 AF1 97 -9.267
106 AF1 98 -8.779
106 AF1 99 -8.779
106 AF1 100 -8.779
106 AF1 101 -8.779
106 AF1 102 -8.291
106 AF1 103 -6.826
106 AF1 104 -4.873
106 AF1 105 -3.408
106 AF1 106 -2.920
106 AF1 107 -3.408
106 AF1 108 -4.384
106 AF1 109 -6.337
106 AF1 110 -7.802
106 AF1 111 -8.779
106 AF1 112 -10.244
106 AF1 113 -11.220
106 AF1 114 -12.197
106 AF1 115 -12.197
106 AF1 116 -11.220
106 AF1 117 -9.267
106 AF1 118 -7.314
106 AF1 119 -6.337
106 AF1 120 -5.361
106 AF1 121 -4.873
106 AF1 122 -5.361
106 AF1 123 -5.849
106 AF1 124 -7.314
106 AF1 125 -9.267
106 AF1 126 -9.755
106 AF1 127 -9.267
106 AF1 128 -7.314
106 AF1 129 -5.361
106 AF1 130 -3.408
106 AF1 131 -2.431
106 AF1 132 -1.943
106 AF1 133 -1.455
106 AF1 134 -1.455
106 AF1 135 -2.431
106 AF1 136 -4.873
106 AF1 137 -8.291
106 AF1 138 -11.220
106 AF1 139 -12.197
106 AF1 140 -11.709
106 AF1 141 -10.244
106 AF1 142 -8.779
106 AF1 143 -8.291
106 AF1 144 -7.802
106 AF1 145 -6.337
106 AF1 146 -3.896
106 AF1 147 -0.966
106 AF1 148 0.498
106 AF1 149 0.010
106 AF1 150 -3.408
106 AF1 151 -6.337
106 AF1 152 -8.291
106 AF1 153 -7.314
106 AF1 154 -5.849
106 AF1 155 -4.384
106 AF1 156 -5.361
106 AF1 157 -6.826
106 AF1 158 -8.291
106 AF1 159 -9.267
106 AF1 160 -8.779
106 AF1 161 -7.802
106 AF1 162 -6.826
106 AF1 163 -6.337
106 AF1 164 -6.337
106 AF1 165 -6.826
106 AF1 166 -7.314
106 AF1 167 -8.291
106 AF1 168 -8.291
106 AF1 169 -7.314
106 AF1 170 -5.361
106 AF1 171 -2.431
106 AF1 172 -0.478
106 AF1 173 -0.478
106 AF1 174 -1.455
106 AF1 175 -3.408
106 AF1 176 -5.361
106 AF1 177 -6.337
106 AF1 178 -7.314
106 AF1 179 -8.291
106 AF1 180 -8.779
106 AF1 181 -8.779
106 AF1 182 -7.802
106 AF1 183 -7.314
106 AF1 184 -6.826
106 AF1 185 -6.826
106 AF1 186 -6.826
106 AF1 187 -5.849
106 AF1 188 -4.384
106 AF1 189 -3.408
106 AF1 190 -2.920
106 AF1 191 -3.408
106 AF1 192 -5.361
106 AF1 193 -6.337
106 AF1 194 -6.826
106 AF1 195 -5.361
106 AF1 196 -3.896
106 AF1 197 -2.431
106 AF1 198 -1.455
106 AF1 199 -1.455
106 AF1 200 -0.966
106 AF1 201 -0.966
106 AF1 202 -0.966
106 AF1 203 -1.455
106 AF1 204 -2.431
106 AF1 205 -3.896
106 AF1 206 -4.873
106 AF1 207 -4.384
106 AF1 208 -2.920
106 AF1 209 -0.478
106 AF1 210 1.963
106 AF1 211 3.428
106 AF1 212 3.428
106 AF1 213 2.452
106 AF1 214 0.498
106 AF1 215 -1.455
106 AF1 216 -3.408
106 AF1 217 -5.361
106 AF1 218 -6.337
106 AF1 219 -6.337
106 AF1 220 -5.361
106 AF1 221 -4.384
106 AF1 222 -2.431
106 AF1 223 -0.966
106 AF1 224 -0.478
106 AF1 225 -0.966
106 AF1 226 -1.943
106 AF1 227 -2.920
106 AF1 228 -3.408
106 AF1 229 -3.408
106 AF1 230 -2.431
106 AF1 231 -1.943
106 AF1 232 -1.455
106 AF1 233 -1.455
106 AF1 234 -1.455
106 AF1 235 -1.943
106 AF1 236 -2.431
106 AF1 237 -2.920
106 AF1 238 -3.408
106 AF1 239 -3.896
106 AF1 240 -3.408
106 AF1 241 -2.920
106 AF1 242 -2.431
106 AF1 243 -1.943
106 AF1 244 -0.478
106 AF1 245 0.987
106 AF1 246 2.940
106 AF1 247 4.405
106 AF1 248 4.405
106 AF1 249 2.452
106 AF1 250 0.010
106 AF1 251 -1.943
106 AF1 252 -2.920
106 AF1 253 -2.431
106 AF1 254 -1.455
106 AF1 255 -0.478
# AF2 chan 5
106 AF2 0 7.558
106 AF2 1 7.558
106 AF2 2 7.558
106 AF2 3 6.582
106 AF2 4 4.628
106 AF2 5 3.164
106 AF2 6 1.699
106 AF2 7 1.211
106 AF2 8 1.699
106 AF2 9 2.675
106 AF2 10 3.164
106 AF2 11 2.675
106 AF2 12 0.722
106 AF2 13 -2.207
106 AF2 14 -4.649
106 AF2 15 -6.114
106 AF2 16 -6.602
106 AF2 17 -6.114
106 AF2 18 -5.137
106 AF2 19 -5.625
106 AF2 20 -6.602
106 AF2 21 -8.067
106 AF2 22 -9.532
106 AF2 23 -10.508
106 AF2 24 -10.508
106 AF2 25 -9.532
106 AF2 26 -7.090
106 AF2 27 -4.161
106 AF2 28 -1.719
106 AF2 29 -1.231
106 AF2 30 -1.719
106 AF2 31 -2.696
106 AF2 32 -3.184
106 AF2 33 -3.184
106 AF2 34 -2.696
106 AF2 35 -2.207
106 AF2 36 -2.207
106 AF2 37 -3.672
106 AF2 38 -4.649
106 AF2 39 -5.137
106 AF2 40 -6.114
106 AF2 41 -6.602
106 AF2 42 -7.579
106 AF2 43 -9.043
106 AF2 44 -10.020
106 AF2 45 -10.508
106 AF2 46 -10.508
106 AF2 47 -10.997
106 AF2 48 -11.485
106 AF2 49 -11.973
106 AF2 50 -11.485
106 AF2 51 -10.020
106 AF2 52 -8.555
106 AF2 53 -6.602
106 AF2 54 -5.137
106 AF2 55 -3.672
106 AF2 56 -2.696
106 AF2 57 -2.207
106 AF2 58 -2.207
106 AF2 59 -2.696
106 AF2 60 -3.184
106 AF2 61 -3.184
106 AF2 62 -3.184
106 AF2 63 -3.184
106 AF2 64 -5.137
106 AF2 65 -7.090
106 AF2 66 -10.020
106 AF2 67 -11.485
106 AF2 68 -11.973
106 AF2 69 -11.485
106 AF2 70 -11.485
106 AF2 71 -11.973
106 AF2 72 -12.461
106 AF2 73 -11.973
106 AF2 74 -10.508
106 AF2 75 -9.043
106 AF2 76 -7.579
106 AF2 77 -8.067
106 AF2 78 -9.532
106 AF2 79 -11.485
106 AF2 80 -12.461
106 AF2 81 -11.973
106 AF2 82 -10.508
106 AF2 83 -9.043
106 AF2 84 -9.043
106 AF2 85 -10.020
106 AF2 86 -11.485
106 AF2 87 -12.461
106 AF2 88 -11.973
106 AF2 89 -10.997
106 AF2 90 -10.020
106 AF2 91 -10.020
106 AF2 92 -10.508
106 AF2 93 -11.973
106 AF2 94 -12.461
106 AF2 95 -12.950
106 AF2 96 -12.461
106 AF2 97 -11.973
106 AF2 98 -11.485
106 AF2 99 -10.997
106 AF2 100 -10.997
106 AF2 101 -10.020
106 AF2 102 -9.043
106 AF2 103 -7.579
106 AF2 104 -5.625
106 AF2 105 -4.649
106 AF2 106 -3.672
106 AF2 107 -3.672
106 AF2 108 -4.649
106 AF2 109 -6.114
106 AF2 110 -7.090
106 AF2 111 -7.579
106 AF2 112 -9.043
106 AF2 113 -10.997
106 AF2 114 -12.950
106 AF2 115 -14.414
106 AF2 116 -13.926
106 AF2 117 -12.461
106 AF2 118 -10.508
106 AF2 119 -8.555
106 AF2 120 -7.579
106 AF2 121 -7.090
106 AF2 122 -7.090
106 AF2 123 -7.579
106 AF2 124 -8.067
106 AF2 125 -8.555
106 AF2 126 -9.532
106 AF2 127 -9.532
106 AF2 128 -8.067
106 AF2 129 -6.602
106 AF2 130 -5.137
106 AF2 131 -3.184
106 AF2 132 -2.207
106 AF2 133 -1.719
106 AF2 134 -1.231
106 AF2 135 -1.719
106 AF2 136 -3.184
106 AF2 137 -6.114
106 AF2 138 -9.043
106 AF2 139 -10.997
106 AF2 140 -11.485
106 AF2 141 -10.997
106 AF2 142 -10.020
106 AF2 143 -9.532
106 AF2 144 -8.555
106 AF2 145 -6.602
106 AF2 146 -3.672
106 AF2 147 -0.254
106 AF2 148 1.211
106 AF2 149 -0.743
106 AF2 150 -4.161
106 AF2 151 -8.067
106 AF2 152 -10.508
106 AF2 153 -10.020
106 AF2 154 -8.067
106 AF2 155 -6.602
106 AF2 156 -6.602
106 AF2 157 -7.579
106 AF2 158 -8.555
106 AF2 159 -8.555
106 AF2 160 -7.090
106 AF2 161 -6.114
106 AF2 162 -5.625
106 AF2 163 -6.114
106 AF2 164 -7.090
106 AF2 165 -8.067
106 AF2 166 -8.067
106 AF2 167 -7.090
106 AF2 168 -6.114
106 AF2 169 -4.161
106 AF2 170 -2.207
106 AF2 171 -0.254
106 AF2 172 0.722
106 AF2 173 0.722
106 AF2 174 0.234
106 AF2 175 -1.231
106 AF2 176 -2.696
106 AF2 177 -4.161
106 AF2 178 -6.114
106 AF2 179 -7.579
106 AF2 180 -8.067
106 AF2 181 -7.579
106 AF2 182 -6.602
106 AF2 183 -5.625
106 AF2 184 -5.137
106 AF2 185 -5.137
106 AF2 186 -5.625
106 AF2 187 -5.137
106 AF2 188 -4.161
106 AF2 189 -2.696
106 AF2 190 -1.719
106 AF2 191 -2.207
106 AF2 192 -3.672
106 AF2 193 -5.137
106 AF2 194 -5.625
106 AF2 195 -5.137
106 AF2 196 -3.184
106 AF2 197 -1.231
106 AF2 198 -0.254
106 AF2 199 -0.254
106 AF2 200 -0.254
106 AF2 201 -1.231
106 AF2 202 -1.719
106 AF2 203 -2.696
106 AF2 204 -4.161
106 AF2 205 -5.625
106 AF2 206 -5.625
106 AF2 207 -4.649
106 AF2 208 -2.207
106 AF2 209 0.234
106 AF2 210 1.699
106 AF2 211 2.187
106 AF2 212 1.699
106 AF2 213 0.722
106 AF2 214 -0.254
106 AF2 215 -1.231
106 AF2 216 -2.207
106 AF2 217 -3.184
106 AF2 218 -3.672
106 AF2 219 -3.184
106 AF2 220 -2.207
106 AF2 221 -0.254
106 AF2 222 0.722
106 AF2 223 1.699
106 AF2 224 1.699
106 AF2 225 0.722
106 AF2 226 -0.254
106 AF2 227 -1.231
106 AF2 228 -2.207
106 AF2 229 -1.719
106 AF2 230 -1.231
106 AF2 231 -0.743
106 AF2 232 -0.254
106 AF2 233 -0.743
106 AF2 234 -1.231
106 AF2 235 -1.719
106 AF2 236 -1.719
106 AF2 237 -1.719
106 AF2 238 -1.719
106 AF2 239 -1.231
106 AF2 240 -1.719
106 AF2 241 -1.231
106 AF2 242 -1.231
106 AF2 243 -1.231
106 AF2 244 -0.254
106 AF2 245 0.722
106 AF2 246 1.699
106 AF2 247 1.699
106 AF2 248 0.722
106 AF2 249 -1.719
106 AF2 250 -4.649
106 AF2 251 -7.090
106 AF2 252 -7.090
106 AF2 253 -6.114
106 AF2 254 -3.672
106 AF2 255 -1.719
# FZ chan 6
106 FZ 0 7.233
106 FZ 1 7.233
106 FZ 2 5.768
106 FZ 3 3.326
106 FZ 4 1.373
106 FZ 5 -0.092
106 FZ 6 -0.092
106 FZ 7 0.397
106 FZ 8 1.862
106 FZ 9 2.838
106 FZ 10 3.815
106 FZ 11 3.326
106 FZ 12 1.862
106 FZ 13 -0.580
106 FZ 14 -2.533
106 FZ 15 -3.998
106 FZ 16 -4.486
106 FZ 17 -3.510
106 FZ 18 -2.533
106 FZ 19 -2.045
106 FZ 20 -2.533
106 FZ 21 -3.510
106 FZ 22 -4.974
106 FZ 23 -5.951
106 FZ 24 -5.951
106 FZ 25 -5.463
106 FZ 26 -3.998
106 FZ 27 -2.045
106 FZ 28 -0.580
106 FZ 29 0.885
106 FZ 30 0.885
106 FZ 31 0.397
106 FZ 32 -0.092
106 FZ 33 -0.580
106 FZ 34 -1.068
106 FZ 35 -1.068
106 FZ 36 -1.068
106 FZ 37 -1.556
106 FZ 38 -1.556
106 FZ 39 -1.556
106 FZ 40 -1.556
106 FZ 41 -2.045
106 FZ 42 -3.021
106 FZ 43 -4.486
106 FZ 44 -4.974
106 FZ 45 -5.463
106 FZ 46 -5.951
106 FZ 47 -6.439
106 FZ 48 -7.416
106 FZ 49 -8.392
106 FZ 50 -8.392
106 FZ 51 -7.416
106 FZ 52 -5.463
106 FZ 53 -3.998
106 FZ 54 -1.556
106 FZ 55 -0.092
106 FZ 56 1.373
106 FZ 57 2.350
106 FZ 58 1.862
106 FZ 59 0.885
106 FZ 60 -0.092
106 FZ 61 -0.580
106 FZ 62 -1.068
106 FZ 63 -2.045
106 FZ 64 -3.021
106 FZ 65 -4.974
106 FZ 66 -6.927
106 FZ 67 -7.904
106 FZ 68 -7.904
106 FZ 69 -6.927
106 FZ 70 -6.439
106 FZ 71 -6.439
106 FZ 72 -6.927
106 FZ 73 -6.927
106 FZ 74 -6.439
106 FZ 75 -4.974
106 FZ 76 -3.998
106 FZ 77 -3.510
106 FZ 78 -4.486
106 FZ 79 -5.463
106 FZ 80 -5.951
106 FZ 81 -6.439
106 FZ 82 -5.951
106 FZ 83 -5.951
106 FZ 84 -6.439
106 FZ 85 -7.416
106 FZ 86 -8.392
106 FZ 87 -8.881
106 FZ 88 -9.369
106 FZ 89 -9.857
106 FZ 90 -9.369
106 FZ 91 -9.857
106 FZ 92 -9.369
106 FZ 93 -9.369
106 FZ 94 -9.369
106 FZ 95 -8.881
106 FZ 96 -8.392
106 FZ 97 -7.416
106 FZ 98 -6.439
106 FZ 99 -5.463
106 FZ 100 -4.974
106 FZ 101 -4.974
106 FZ 102 -4.974
106 FZ 103 -4.486
106 FZ 104 -3.510
106 FZ 105 -2.045
106 FZ 106 -0.580
106 FZ 107 -0.580
106 FZ 108 -1.556
106 FZ 109 -2.533
106 FZ 110 -3.998
106 FZ 111 -4.486
106 FZ 112 -5.463
106 FZ 113 -6.439
106 FZ 114 -7.416
106 FZ 115 -8.392
106 FZ 116 -8.392
106 FZ 117 -7.416
106 FZ 118 -5.951
106 FZ 119 -4.974
106 FZ 120 -4.486
106 FZ 121 -4.974
106 FZ 122 -5.463
106 FZ 123 -5.951
106 FZ 124 -6.927
106 FZ 125 -7.904
106 FZ 126 -8.392
106 FZ 127 -7.904
106 FZ 128 -6.927
106 FZ 129 -5.463
106 FZ 130 -3.998
106 FZ 131 -3.021
106 FZ 132 -2.533
106 FZ 133 -2.045
106 FZ 134 -1.068
106 FZ 135 -0.580
106 FZ 136 -0.580
106 FZ 137 -2.533
106 FZ 138 -4.486
106 FZ 139 -5.951
106 FZ 140 -5.951
106 FZ 141 -4.486
106 FZ 142 -3.021
106 FZ 143 -2.533
106 FZ 144 -2.045
106 FZ 145 -1.556
106 FZ 146 -0.092
106 FZ 147 1.373
106 FZ 148 2.838
106 FZ 149 1.862
106 FZ 150 -0.092
106 FZ 151 -2.533
106 FZ 152 -4.486
106 FZ 153 -4.486
106 FZ 154 -3.021
106 FZ 155 -1.068
106 FZ 156 -1.068
106 FZ 157 -1.556
106 FZ 158 -3.021
106 FZ 159 -3.510
106 FZ 160 -3.510
106 FZ 161 -2.045
106 FZ 162 -1.068
106 FZ 163 -1.068
106 FZ 164 -1.068
106 FZ 165 -1.556
106 FZ 166 -2.045
106 FZ 167 -2.045
106 FZ 168 -1.556
106 FZ 169 -0.580
106 FZ 170 0.397
106 FZ 171 1.373
106 FZ 172 2.350
106 FZ 173 2.838
106 FZ 174 1.862
106 FZ 175 0.397
106 FZ 176 -1.068
106 FZ 177 -2.533
106 FZ 178 -3.510
106 FZ 179 -3.998
106 FZ 180 -3.510
106 FZ 181 -3.510
106 FZ 182 -3.021
106 FZ 183 -2.533
106 FZ 184 -2.533
106 FZ 185 -2.533
106 FZ 186 -2.533
106 FZ 187 -1.556
106 FZ 188 -0.580
106 FZ 189 0.397
106 FZ 190 1.373
106 FZ 191 1.862
106 FZ 192 0.885
106 FZ 193 -0.092
106 FZ 194 -0.580
106 FZ 195 -0.092
106 FZ 196 0.397
106 FZ 197 1.862
106 FZ 198 2.838
106 FZ 199 3.326
106 FZ 200 3.326
106 FZ 201 2.838
106 FZ 202 2.350
106 FZ 203 0.397
106 FZ 204 -0.580
106 FZ 205 -2.533
106 FZ 206 -3.998
106 FZ 207 -3.510
106 FZ 208 -2.045
106 FZ 209 0.397
106 FZ 210 2.838
106 FZ 211 4.303
106 FZ 212 4.791
106 FZ 213 3.815
106 FZ 214 2.350
106 FZ 215 0.885
106 FZ 216 -0.580
106 FZ 217 -2.045
106 FZ 218 -2.533
106 FZ 219 -2.533
106 FZ 220 -1.556
106 FZ 221 -0.580
106 FZ 222 0.885
106 FZ 223 2.350
106 FZ 224 2.350
106 FZ 225 2.350
106 FZ 226 1.373
106 FZ 227 0.397
106 FZ 228 0.397
106 FZ 229 -0.092
106 FZ 230 -0.092
106 FZ 231 -0.580
106 FZ 232 -0.092
106 FZ 233 -0.092
106 FZ 234 0.397
106 FZ 235 0.397
106 FZ 236 -0.092
106 FZ 237 -1.068
106 FZ 238 -2.045
106 FZ 239 -2.533
106 FZ 240 -3.021
106 FZ 241 -2.533
106 FZ 242 -1.556
106 FZ 243 -1.068
106 FZ 244 -0.580
106 FZ 245 -0.092
106 FZ 246 0.397
106 FZ 247 1.373
106 FZ 248 1.373
106 FZ 249 0.397
106 FZ 250 -1.556
106 FZ 251 -3.021
106 FZ 252 -3.510
106 FZ 253 -3.510
106 FZ 254 -2.533
106 FZ 255 -1.556
# F4 chan 7
106 F4 0 5.147
106 F4 1 6.124
106 F4 2 6.612
106 F4 3 6.124
106 F4 4 4.659
106 F4 5 3.194
106 F4 6 2.218
106 F4 7 2.218
106 F4 8 3.682
106 F4 9 4.659
106 F4 10 4.659
106 F4 11 3.194
106 F4 12 0.753
106 F4 13 -2.177
106 F4 14 -4.618
106 F4 15 -5.107
106 F4 16 -5.107
106 F4 17 -4.618
106 F4 18 -4.130
106 F4 19 -4.618
106 F4 20 -6.083
106 F4 21 -7.060
106 F4 22 -8.525
106 F4 23 -9.501
106 F4 24 -9.501
106 F4 25 -9.013
106 F4 26 -7.060
106 F4 27 -5.107
106 F4 28 -3.153
106 F4 29 -2.665
106 F4 30 -3.153
106 F4 31 -5.107
106 F4 32 -6.083
106 F4 33 -6.571
106 F4 34 -6.571
106 F4 35 -6.571
106 F4 36 -7.548
106 F4 37 -9.501
106 F4 38 -9.989
106 F4 39 -9.989
106 F4 40 -9.013
106 F4 41 -8.525
106 F4 42 -9.013
106 F4 43 -10.478
106 F4 44 -11.454
106 F4 45 -11.454
106 F4 46 -11.454
106 F4 47 -11.454
106 F4 48 -11.943
106 F4 49 -11.943
106 F4 50 -11.454
106 F4 51 -9.501
106 F4 52 -6.571
106 F4 53 -4.618
106 F4 54 -3.153
106 F4 55 -2.665
106 F4 56 -2.177
106 F4 57 -1.689
106 F4 58 -2.177
106 F4 59 -2.665
106 F4 60 -3.153
106 F4 61 -3.642
106 F4 62 -4.130
106 F4 63 -4.618
106 F4 64 -5.107
106 F4 65 -6.083
106 F4 66 -7.060
106 F4 67 -8.036
106 F4 68 -8.036
106 F4 69 -8.036
106 F4 70 -8.036
106 F4 71 -8.525
106 F4 72 -9.013
106 F4 73 -9.501
106 F4 74 -9.013
106 F4 75 -8.525
106 F4 76 -8.525
106 F4 77 -9.989
106 F4 78 -11.454
106 F4 79 -12.431
106 F4 80 -11.943
106 F4 81 -9.989
106 F4 82 -7.060
106 F4 83 -5.595
106 F4 84 -5.107
106 F4 85 -5.595
106 F4 86 -6.571
106 F4 87 -6.571
106 F4 88 -7.060
106 F4 89 -7.060
106 F4 90 -8.036
106 F4 91 -9.013
106 F4 92 -10.478
106 F4 93 -10.966
106 F4 94 -10.966
106 F4 95 -10.478
106 F4 96 -9.989
106 F4 97 -9.989
106 F4 98 -9.013
106 F4 99 -7.060
106 F4 100 -4.618
106 F4 101 -3.153
106 F4 102 -3.153
106 F4 103 -3.153
106 F4 104 -3.153
106 F4 105 -2.665
106 F4 106 -1.200
106 F4 107 -0.712
106 F4 108 -1.200
106 F4 109 -2.665
106 F4 110 -3.642
106 F4 111 -4.618
106 F4 112 -5.107
106 F4 113 -5.595
106 F4 114 -7.060
106 F4 115 -8.036
106 F4 116 -8.525
106 F4 117 -7.548
106 F4 118 -6.083
106 F4 119 -5.595
106 F4 120 -6.083
106 F4 121 -6.571
106 F4 122 -7.548
106 F4 123 -7.548
106 F4 124 -7.060
106 F4 125 -7.060
106 F4 126 -6.571
106 F4 127 -6.571
106 F4 128 -6.571
106 F4 129 -5.107
106 F4 130 -4.130
106 F4 131 -2.665
106 F4 132 -2.177
106 F4 133 -1.689
106 F4 134 -1.200
106 F4 135 -1.689
106 F4 136 -2.177
106 F4 137 -4.130
106 F4 138 -5.595
106 F4 139 -6.571
106 F4 140 -7.060
106 F4 141 -7.060
106 F4 142 -7.060
106 F4 143 -6.083
106 F4 144 -5.107
106 F4 145 -3.642
106 F4 146 -1.200
106 F4 147 0.753
106 F4 148 1.241
106 F4 149 -0.224
106 F4 150 -2.665
106 F4 151 -6.083
106 F4 152 -8.036
106 F4 153 -8.525
106 F4 154 -7.060
106 F4 155 -5.595
106 F4 156 -4.618
106 F4 157 -4.618
106 F4 158 -5.107
106 F4 159 -5.107
106 F4 160 -4.618
106 F4 161 -4.130
106 F4 162 -3.153
106 F4 163 -3.153
106 F4 164 -3.642
106 F4 165 -4.618
106 F4 166 -5.107
106 F4 167 -4.130
106 F4 168 -2.177
106 F4 169 -0.224
106 F4 170 1.729
106 F4 171 2.706
106 F4 172 2.706
106 F4 173 2.218
106 F4 174 1.241
106 F4 175 0.264
106 F4 176 -1.200
106 F4 177 -2.665
106 F4 178 -4.130
106 F4 179 -5.595
106 F4 180 -5.595
106 F4 181 -4.618
106 F4 182 -3.153
106 F4 183 -1.689
106 F4 184 -1.200
106 F4 185 -1.689
106 F4 186 -2.177
106 F4 187 -2.177
106 F4 188 -1.200
106 F4 189 -0.712
106 F4 190 -0.224
106 F4 191 -0.224
106 F4 192 -0.712
106 F4 193 -1.689
106 F4 194 -2.177
106 F4 195 -2.177
106 F4 196 -1.200
106 F4 197 0.264
106 F4 198 1.241
106 F4 199 2.218
106 F4 200 1.729
106 F4 201 1.241
106 F4 202 -0.224
106 F4 203 -2.177
106 F4 204 -3.642
106 F4 205 -5.107
106 F4 206 -6.083
106 F4 207 -5.595
106 F4 208 -3.153
106 F4 209 -0.224
106 F4 210 2.218
106 F4 211 3.682
106 F4 212 3.194
106 F4 213 1.729
106 F4 214 -0.712
106 F4 215 -2.177
106 F4 216 -3.642
106 F4 217 -4.130
106 F4 218 -3.642
106 F4 219 -2.665
106 F4 220 -0.712
106 F4 221 1.241
106 F4 222 3.194
106 F4 223 4.171
106 F4 224 3.194
106 F4 225 1.729
106 F4 226 -0.224
106 F4 227 -0.712
106 F4 228 -1.200
106 F4 229 -0.712
106 F4 230 -0.224
106 F4 231 0.264
106 F4 232 0.753
106 F4 233 0.753
106 F4 234 0.753
106 F4 235 0.264
106 F4 236 -0.224
106 F4 237 -0.224
106 F4 238 -0.224
106 F4 239 0.264
106 F4 240 -0.224
106 F4 241 -1.200
106 F4 242 -2.665
106 F4 243 -3.153
106 F4 244 -2.665
106 F4 245 -1.200
106 F4 246 0.264
106 F4 247 0.753
106 F4 248 -0.712
106 F4 249 -3.153
106 F4 250 -6.083
106 F4 251 -7.548
106 F4 252 -8.036
106 F4 253 -7.060
106 F4 254 -5.595
106 F4 255 -4.130
# F3 chan 8
106 F3 0 14.272
106 F3 1 13.295
106 F3 2 11.342
106 F3 3 9.389
106 F3 4 7.924
106 F3 5 6.948
106 F3 6 5.971
106 F3 7 5.971
106 F3 8 5.971
106 F3 9 6.460
106 F3 10 6.948
106 F3 11 6.948
106 F3 12 5.971
106 F3 13 4.018
106 F3 14 2.553
106 F3 15 1.577
106 F3 16 1.577
106 F3 17 1.577
106 F3 18 1.577
106 F3 19 -0.376
106 F3 20 -2.330
106 F3 21 -3.794
106 F3 22 -5.259
106 F3 23 -4.771
106 F3 24 -2.818
106 F3 25 -0.865
106 F3 26 1.088
106 F3 27 3.042
106 F3 28 4.018
106 F3 29 4.506
106 F3 30 4.506
106 F3 31 4.995
106 F3 32 4.995
106 F3 33 4.995
106 F3 34 5.483
106 F3 35 5.971
106 F3 36 6.460
106 F3 37 6.948
106 F3 38 7.436
106 F3 39 7.436
106 F3 40 6.948
106 F3 41 5.971
106 F3 42 4.995
106 F3 43 3.530
106 F3 44 2.065
106 F3 45 0.600
106 F3 46 -1.353
106 F3 47 -3.306
106 F3 48 -4.283
106 F3 49 -4.771
106 F3 50 -4.771
106 F3 51 -4.283
106 F3 52 -3.306
106 F3 53 -2.330
106 F3 54 -0.865
106 F3 55 1.577
106 F3 56 3.530
106 F3 57 4.506
106 F3 58 4.018
106 F3 59 3.530
106 F3 60 2.553
106 F3 61 1.577
106 F3 62 1.088
106 F3 63 -0.376
106 F3 64 -2.818
106 F3 65 -5.747
106 F3 66 -8.189
106 F3 67 -8.189
106 F3 68 -7.212
106 F3 69 -5.259
106 F3 70 -4.283
106 F3 71 -3.794
106 F3 72 -3.794
106 F3 73 -3.794
106 F3 74 -3.794
106 F3 75 -2.818
106 F3 76 -2.818
106 F3 77 -2.818
106 F3 78 -3.306
106 F3 79 -3.306
106 F3 80 -3.306
106 F3 81 -3.306
106 F3 82 -3.794
106 F3 83 -4.771
106 F3 84 -6.724
106 F3 85 -9.165
106 F3 86 -10.630
106 F3 87 -11.607
106 F3 88 -11.119
106 F3 89 -9.654
106 F3 90 -8.677
106 F3 91 -8.189
106 F3 92 -8.677
106 F3 93 -9.654
106 F3 94 -10.630
106 F3 95 -10.630
106 F3 96 -9.654
106 F3 97 -7.701
106 F3 98 -5.747
106 F3 99 -4.771
106 F3 100 -4.771
106 F3 101 -5.747
106 F3 102 -6.236
106 F3 103 -6.724
106 F3 104 -4.771
106 F3 105 -3.306
106 F3 106 -2.330
106 F3 107 -2.330
106 F3 108 -2.818
106 F3 109 -4.283
106 F3 110 -5.259
106 F3 111 -5.747
106 F3 112 -6.236
106 F3 113 -6.724
106 F3 114 -8.189
106 F3 115 -9.165
106 F3 116 -9.165
106 F3 117 -8.189
106 F3 118 -6.724
106 F3 119 -5.259
106 F3 120 -4.283
106 F3 121 -4.283
106 F3 122 -4.771
106 F3 123 -5.259
106 F3 124 -6.236
106 F3 125 -6.724
106 F3 126 -6.724
106 F3 127 -6.236
106 F3 128 -4.771
106 F3 129 -3.794
106 F3 130 -3.306
106 F3 131 -3.306
106 F3 132 -4.283
106 F3 133 -5.259
106 F3 134 -6.236
106 F3 135 -7.212
106 F3 136 -8.677
106 F3 137 -9.654
106 F3 138 -10.630
106 F3 139 -9.654
106 F3 140 -8.189
106 F3 141 -5.747
106 F3 142 -4.771
106 F3 143 -4.771
106 F3 144 -5.259
106 F3 145 -5.259
106 F3 146 -3.306
106 F3 147 0.112
106 F3 148 2.553
106 F3 149 2.553
106 F3 150 0.112
106 F3 151 -3.306
106 F3 152 -5.259
106 F3 153 -4.771
106 F3 154 -3.306
106 F3 155 -1.841
106 F3 156 -2.818
106 F3 157 -5.259
106 F3 158 -7.701
106 F3 159 -9.165
106 F3 160 -8.189
106 F3 161 -6.236
106 F3 162 -3.794
106 F3 163 -2.818
106 F3 164 -3.306
106 F3 165 -4.283
106 F3 166 -5.747
106 F3 167 -6.724
106 F3 168 -7.701
106 F3 169 -7.701
106 F3 170 -6.724
106 F3 171 -4.771
106 F3 172 -3.306
106 F3 173 -2.818
106 F3 174 -3.306
106 F3 175 -5.259
106 F3 176 -6.724
106 F3 177 -8.189
106 F3 178 -9.165
106 F3 179 -9.165
106 F3 180 -9.654
106 F3 181 -9.654
106 F3 182 -9.654
106 F3 183 -9.165
106 F3 184 -9.165
106 F3 185 -8.677
106 F3 186 -6.724
106 F3 187 -5.259
106 F3 188 -2.818
106 F3 189 -1.841
106 F3 190 -1.353
106 F3 191 -2.330
106 F3 192 -3.794
106 F3 193 -4.771
106 F3 194 -4.283
106 F3 195 -3.306
106 F3 196 -2.330
106 F3 197 -1.841
106 F3 198 -2.330
106 F3 199 -2.818
106 F3 200 -1.841
106 F3 201 -0.376
106 F3 202 1.577
106 F3 203 2.065
106 F3 204 1.088
106 F3 205 -1.353
106 F3 206 -3.794
106 F3 207 -4.771
106 F3 208 -3.794
106 F3 209 -1.353
106 F3 210 1.577
106 F3 211 4.506
106 F3 212 5.971
106 F3 213 5.483
106 F3 214 3.530
106 F3 215 1.088
106 F3 216 -1.353
106 F3 217 -3.306
106 F3 218 -4.283
106 F3 219 -4.283
106 F3 220 -4.771
106 F3 221 -5.259
106 F3 222 -5.747
106 F3 223 -5.259
106 F3 224 -4.283
106 F3 225 -2.818
106 F3 226 -2.330
106 F3 227 -2.330
106 F3 228 -3.306
106 F3 229 -3.794
106 F3 230 -3.794
106 F3 231 -3.306
106 F3 232 -2.330
106 F3 233 -2.330
106 F3 234 -2.330
106 F3 235 -2.818
106 F3 236 -3.306
106 F3 237 -4.283
106 F3 238 -4.771
106 F3 239 -4.771
106 F3 240 -3.794
106 F3 241 -2.330
106 F3 242 -0.865
106 F3 243 0.112
106 F3 244 1.088
106 F3 245 2.065
106 F3 246 3.042
106 F3 247 4.018
106 F3 248 4.018
106 F3 249 3.042
106 F3 250 1.577
106 F3 251 0.112
106 F3 252 -0.865
106 F3 253 -1.353
106 F3 254 -2.818
106 F3 255 -4.283
# FC6 chan 9
106 FC6 0 0.407
106 FC6 1 1.872
106 FC6 2 4.313
106 FC6 3 6.266
106 FC6 4 5.290
106 FC6 5 2.848
106 FC6 6 0.407
106 FC6 7 0.895
106 FC6 8 2.848
106 FC6 9 5.778
106 FC6 10 5.778
106 FC6 11 2.848
106 FC6 12 -3.011
106 FC6 13 -9.359
106 FC6 14 -13.265
106 FC6 15 -13.753
106 FC6 16 -11.800
106 FC6 17 -8.870
106 FC6 18 -6.917
106 FC6 19 -6.917
106 FC6 20 -7.406
106 FC6 21 -7.406
106 FC6 22 -7.406
106 FC6 23 -7.894
106 FC6 24 -9.359
106 FC6 25 -11.312
106 FC6 26 -11.312
106 FC6 27 -8.382
106 FC6 28 -3.988
106 FC6 29 -0.570
106 FC6 30 -1.058
106 FC6 31 -3.988
106 FC6 32 -6.917
106 FC6 33 -7.406
106 FC6 34 -4.964
106 FC6 35 -2.523
106 FC6 36 -2.523
106 FC6 37 -5.941
106 FC6 38 -10.824
106 FC6 39 -14.242
106 FC6 40 -15.218
106 FC6 41 -13.753
106 FC6 42 -12.288
106 FC6 43 -11.312
106 FC6 44 -11.312
106 FC6 45 -11.312
106 FC6 46 -11.312
106 FC6 47 -10.824
106 FC6 48 -9.847
106 FC6 49 -8.870
106 FC6 50 -7.406
106 FC6 51 -6.429
106 FC6 52 -6.917
106 FC6 53 -7.894
106 FC6 54 -9.359
106 FC6 55 -10.335
106 FC6 56 -10.335
106 FC6 57 -9.359
106 FC6 58 -7.894
106 FC6 59 -5.941
106 FC6 60 -3.988
106 FC6 61 -3.011
106 FC6 62 -2.523
106 FC6 63 -3.988
106 FC6 64 -6.917
106 FC6 65 -10.335
106 FC6 66 -12.777
106 FC6 67 -12.777
106 FC6 68 -11.800
106 FC6 69 -11.312
106 FC6 70 -13.265
106 FC6 71 -15.218
106 FC6 72 -16.195
106 FC6 73 -13.753
106 FC6 74 -9.847
106 FC6 75 -6.917
106 FC6 76 -7.406
106 FC6 77 -10.335
106 FC6 78 -13.265
106 FC6 79 -14.242
106 FC6 80 -12.288
106 FC6 81 -8.382
106 FC6 82 -5.941
106 FC6 83 -5.452
106 FC6 84 -6.917
106 FC6 85 -7.406
106 FC6 86 -5.941
106 FC6 87 -3.988
106 FC6 88 -3.011
106 FC6 89 -4.476
106 FC6 90 -8.382
106 FC6 91 -11.800
106 FC6 92 -13.753
106 FC6 93 -13.265
106 FC6 94 -12.777
106 FC6 95 -12.777
106 FC6 96 -14.730
106 FC6 97 -16.195
106 FC6 98 -15.706
106 FC6 99 -12.777
106 FC6 100 -9.359
106 FC6 101 -8.870
106 FC6 102 -10.824
106 FC6 103 -13.753
106 FC6 104 -14.730
106 FC6 105 -11.312
106 FC6 106 -4.964
106 FC6 107 0.895
106 FC6 108 2.360
106 FC6 109 -0.081
106 FC6 110 -3.499
106 FC6 111 -5.452
106 FC6 112 -5.452
106 FC6 113 -5.452
106 FC6 114 -7.894
106 FC6 115 -12.288
106 FC6 116 -16.195
106 FC6 117 -17.171
106 FC6 118 -14.242
106 FC6 119 -9.847
106 FC6 120 -6.917
106 FC6 121 -6.917
106 FC6 122 -8.870
106 FC6 123 -9.847
106 FC6 124 -8.382
106 FC6 125 -4.964
106 FC6 126 -3.011
106 FC6 127 -3.988
106 FC6 128 -8.870
106 FC6 129 -13.753
106 FC6 130 -15.706
106 FC6 131 -14.242
106 FC6 132 -9.847
106 FC6 133 -5.941
106 FC6 134 -4.964
106 FC6 135 -5.941
106 FC6 136 -8.382
106 FC6 137 -8.870
106 FC6 138 -8.382
106 FC6 139 -8.382
106 FC6 140 -9.847
106 FC6 141 -12.777
106 FC6 142 -14.730
106 FC6 143 -14.242
106 FC6 144 -10.335
106 FC6 145 -5.452
106 FC6 146 -1.546
106 FC6 147 -0.570
106 FC6 148 -1.546
106 FC6 149 -2.035
106 FC6 150 -3.011
106 FC6 151 -4.964
106 FC6 152 -8.870
106 FC6 153 -13.753
106 FC6 154 -17.660
106 FC6 155 -17.660
106 FC6 156 -13.753
106 FC6 157 -8.382
106 FC6 158 -5.452
106 FC6 159 -5.452
106 FC6 160 -7.894
106 FC6 161 -8.870
106 FC6 162 -7.894
106 FC6 163 -5.941
106 FC6 164 -5.452
106 FC6 165 -6.917
106 FC6 166 -10.335
106 FC6 167 -11.312
106 FC6 168 -8.870
106 FC6 169 -3.499
106 FC6 170 1.872
106 FC6 171 4.801
106 FC6 172 4.801
106 FC6 173 2.848
106 FC6 174 1.872
106 FC6 175 2.360
106 FC6 176 2.848
106 FC6 177 1.383
106 FC6 178 -1.546
106 FC6 179 -4.964
106 FC6 180 -5.941
106 FC6 181 -4.964
106 FC6 182 -2.035
106 FC6 183 0.407
106 FC6 184 0.895
106 FC6 185 -0.570
106 FC6 186 -2.523
106 FC6 187 -3.988
106 FC6 188 -3.499
106 FC6 189 -3.011
106 FC6 190 -2.035
106 FC6 191 -2.035
106 FC6 192 -2.523
106 FC6 193 -3.988
106 FC6 194 -4.476
106 FC6 195 -4.476
106 FC6 196 -3.499
106 FC6 197 -2.035
106 FC6 198 -1.546
106 FC6 199 -1.058
106 FC6 200 -0.570
106 FC6 201 -0.570
106 FC6 202 -1.058
106 FC6 203 -3.011
106 FC6 204 -5.452
106 FC6 205 -8.382
106 FC6 206 -9.359
106 FC6 207 -7.894
106 FC6 208 -4.964
106 FC6 209 -2.035
106 FC6 210 -1.058
106 FC6 211 -2.035
106 FC6 212 -3.988
106 FC6 213 -4.964
106 FC6 214 -5.452
106 FC6 215 -4.964
106 FC6 216 -5.452
106 FC6 217 -6.429
106 FC6 218 -7.406
106 FC6 219 -6.917
106 FC6 220 -4.476
106 FC6 221 -1.058
106 FC6 222 2.360
106 FC6 223 4.313
106 FC6 224 3.825
106 FC6 225 1.872
106 FC6 226 -0.081
106 FC6 227 -1.058
106 FC6 228 -1.058
106 FC6 229 -0.570
106 FC6 230 -0.081
106 FC6 231 -0.570
106 FC6 232 -0.570
106 FC6 233 -0.081
106 FC6 234 0.407
106 FC6 235 0.895
106 FC6 236 1.383
106 FC6 237 1.383
106 FC6 238 0.895
106 FC6 239 0.895
106 FC6 240 -0.081
106 FC6 241 -1.058
106 FC6 242 -2.035
106 FC6 243 -3.011
106 FC6 244 -2.523
106 FC6 245 -0.570
106 FC6 246 1.872
106 FC6 247 2.848
106 FC6 248 2.360
106 FC6 249 -1.058
106 FC6 250 -4.476
106 FC6 251 -7.406
106 FC6 252 -8.382
106 FC6 253 -6.917
106 FC6 254 -4.964
106 FC6 255 -2.035
# FC5 chan 10
106 FC5 0 16.317
106 FC5 1 13.387
106 FC5 2 8.504
106 FC5 3 5.575
106 FC5 4 5.086
106 FC5 5 6.063
106 FC5 6 5.575
106 FC5 7 4.110
106 FC5 8 3.133
106 FC5 9 2.645
106 FC5 10 4.110
106 FC5 11 5.086
106 FC5 12 5.575
106 FC5 13 5.575
106 FC5 14 6.063
106 FC5 15 7.528
106 FC5 16 8.504
106 FC5 17 7.528
106 FC5 18 4.110
106 FC5 19 0.203
106 FC5 20 -1.750
106 FC5 21 -0.773
106 FC5 22 1.668
106 FC5 23 4.110
106 FC5 24 6.063
106 FC5 25 7.039
106 FC5 26 8.504
106 FC5 27 11.434
106 FC5 28 13.875
106 FC5 29 15.340
106 FC5 30 13.875
106 FC5 31 10.946
106 FC5 32 8.504
106 FC5 33 8.016
106 FC5 34 9.481
106 FC5 35 12.410
106 FC5 36 15.340
106 FC5 37 16.805
106 FC5 38 16.805
106 FC5 39 15.828
106 FC5 40 14.852
106 FC5 41 13.387
106 FC5 42 12.410
106 FC5 43 10.457
106 FC5 44 6.551
106 FC5 45 2.157
106 FC5 46 -2.238
106 FC5 47 -6.144
106 FC5 48 -6.632
106 FC5 49 -4.191
106 FC5 50 -0.285
106 FC5 51 4.110
106 FC5 52 6.551
106 FC5 53 7.528
106 FC5 54 8.016
106 FC5 55 8.504
106 FC5 56 8.993
106 FC5 57 8.504
106 FC5 58 6.063
106 FC5 59 2.645
106 FC5 60 0.692
106 FC5 61 1.180
106 FC5 62 2.645
106 FC5 63 3.133
106 FC5 64 0.692
106 FC5 65 -4.679
106 FC5 66 -9.074
106 FC5 67 -11.027
106 FC5 68 -9.074
106 FC5 69 -5.656
106 FC5 70 -3.215
106 FC5 71 -3.215
106 FC5 72 -4.679
106 FC5 73 -6.144
106 FC5 74 -7.121
106 FC5 75 -7.121
106 FC5 76 -4.679
106 FC5 77 -1.261
106 FC5 78 2.157
106 FC5 79 4.598
106 FC5 80 4.598
106 FC5 81 0.692
106 FC5 82 -4.191
106 FC5 83 -8.097
106 FC5 84 -9.074
106 FC5 85 -6.632
106 FC5 86 -4.191
106 FC5 87 -4.191
106 FC5 88 -7.121
106 FC5 89 -11.515
106 FC5 90 -13.957
106 FC5 91 -12.980
106 FC5 92 -10.050
106 FC5 93 -8.097
106 FC5 94 -8.097
106 FC5 95 -9.074
106 FC5 96 -8.097
106 FC5 97 -3.703
106 FC5 98 3.133
106 FC5 99 7.039
106 FC5 100 5.086
106 FC5 101 -1.750
106 FC5 102 -9.074
106 FC5 103 -12.492
106 FC5 104 -10.539
106 FC5 105 -6.144
106 FC5 106 -4.191
106 FC5 107 -5.656
106 FC5 108 -9.074
106 FC5 109 -10.539
106 FC5 110 -8.097
106 FC5 111 -3.215
106 FC5 112 0.203
106 FC5 113 -0.285
106 FC5 114 -4.191
106 FC5 115 -7.609
106 FC5 116 -7.609
106 FC5 117 -4.191
106 FC5 118 0.203
106 FC5 119 2.645
106 FC5 120 2.157
106 FC5 121 -0.285
106 FC5 122 -1.750
106 FC5 123 -2.238
106 FC5 124 -2.238
106 FC5 125 -1.750
106 FC5 126 -1.750
106 FC5 127 -1.261
106 FC5 128 -0.285
106 FC5 129 1.180
106 FC5 130 1.668
106 FC5 131 0.203
106 FC5 132 -2.238
106 FC5 133 -5.656
106 FC5 134 -7.609
106 FC5 135 -8.097
106 FC5 136 -5.656
106 FC5 137 -2.238
106 FC5 138 -0.285
106 FC5 139 0.203
106 FC5 140 -1.261
106 FC5 141 -2.726
106 FC5 142 -3.703
106 FC5 143 -4.679
106 FC5 144 -6.144
106 FC5 145 -6.144
106 FC5 146 -5.168
106 FC5 147 -1.750
106 FC5 148 1.668
106 FC5 149 2.645
106 FC5 150 -0.285
106 FC5 151 -4.679
106 FC5 152 -7.609
106 FC5 153 -7.121
106 FC5 154 -3.703
106 FC5 155 -1.750
106 FC5 156 -3.215
106 FC5 157 -6.144
106 FC5 158 -9.074
106 FC5 159 -10.539
106 FC5 160 -10.050
106 FC5 161 -10.050
106 FC5 162 -11.027
106 FC5 163 -12.004
106 FC5 164 -11.515
106 FC5 165 -9.074
106 FC5 166 -6.632
106 FC5 167 -6.144
106 FC5 168 -8.586
106 FC5 169 -11.515
106 FC5 170 -11.515
106 FC5 171 -8.097
106 FC5 172 -3.215
106 FC5 173 -1.261
106 FC5 174 -2.726
106 FC5 175 -6.144
106 FC5 176 -8.586
106 FC5 177 -7.609
106 FC5 178 -5.168
106 FC5 179 -4.191
106 FC5 180 -5.656
106 FC5 181 -8.586
106 FC5 182 -10.539
106 FC5 183 -10.050
106 FC5 184 -7.609
106 FC5 185 -4.191
106 FC5 186 -1.261
106 FC5 187 0.692
106 FC5 188 2.645
106 FC5 189 3.621
106 FC5 190 1.668
106 FC5 191 -3.215
106 FC5 192 -9.074
106 FC5 193 -12.980
106 FC5 194 -11.027
106 FC5 195 -5.168
106 FC5 196 1.180
106 FC5 197 3.621
106 FC5 198 0.692
106 FC5 199 -3.703
106 FC5 200 -5.168
106 FC5 201 -2.726
106 FC5 202 3.621
106 FC5 203 8.504
106 FC5 204 9.481
106 FC5 205 5.086
106 FC5 206 -2.238
106 FC5 207 -8.586
106 FC5 208 -10.539
106 FC5 209 -7.609
106 FC5 210 -1.261
106 FC5 211 5.086
106 FC5 212 8.504
106 FC5 213 8.504
106 FC5 214 6.063
106 FC5 215 4.110
106 FC5 216 4.110
106 FC5 217 5.575
106 FC5 218 6.063
106 FC5 219 3.133
106 FC5 220 -1.750
106 FC5 221 -7.121
106 FC5 222 -9.074
106 FC5 223 -8.097
106 FC5 224 -4.679
106 FC5 225 -1.261
106 FC5 226 1.180
106 FC5 227 3.621
106 FC5 228 5.575
106 FC5 229 7.039
106 FC5 230 7.039
106 FC5 231 4.598
106 FC5 232 1.668
106 FC5 233 0.203
106 FC5 234 1.668
106 FC5 235 4.598
106 FC5 236 6.063
106 FC5 237 3.621
106 FC5 238 -0.773
106 FC5 239 -4.191
106 FC5 240 -3.215
106 FC5 241 1.180
106 FC5 242 5.086
106 FC5 243 5.575
106 FC5 244 2.645
106 FC5 245 -0.285
106 FC5 246 0.692
106 FC5 247 5.086
106 FC5 248 9.481
106 FC5 249 11.434
106 FC5 250 9.969
106 FC5 251 6.551
106 FC5 252 5.575
106 FC5 253 6.063
106 FC5 254 7.528
106 FC5 255 6.551
# FC2 chan 11
106 FC2 0 3.286
106 FC2 1 4.262
106 FC2 2 4.262
106 FC2 3 3.286
106 FC2 4 2.309
106 FC2 5 0.844
106 FC2 6 -0.132
106 FC2 7 -0.132
106 FC2 8 0.844
106 FC2 9 1.333
106 FC2 10 2.309
106 FC2 11 1.821
106 FC2 12 0.356
106 FC2 13 -1.597
106 FC2 14 -3.550
106 FC2 15 -4.527
106 FC2 16 -4.527
106 FC2 17 -3.550
106 FC2 18 -2.574
106 FC2 19 -2.085
106 FC2 20 -2.574
106 FC2 21 -3.062
106 FC2 22 -3.550
106 FC2 23 -4.527
106 FC2 24 -4.527
106 FC2 25 -4.527
106 FC2 26 -4.038
106 FC2 27 -2.574
106 FC2 28 -1.597
106 FC2 29 -0.621
106 FC2 30 -1.109
106 FC2 31 -2.574
106 FC2 32 -4.038
106 FC2 33 -5.015
106 FC2 34 -5.015
106 FC2 35 -5.992
106 FC2 36 -6.480
106 FC2 37 -6.480
106 FC2 38 -6.968
106 FC2 39 -6.480
106 FC2 40 -5.992
106 FC2 41 -5.015
106 FC2 42 -5.015
106 FC2 43 -5.503
106 FC2 44 -5.503
106 FC2 45 -5.992
106 FC2 46 -5.503
106 FC2 47 -5.503
106 FC2 48 -5.503
106 FC2 49 -5.503
106 FC2 50 -5.503
106 FC2 51 -4.527
106 FC2 52 -3.062
106 FC2 53 -1.597
106 FC2 54 -0.621
106 FC2 55 0.356
106 FC2 56 0.356
106 FC2 57 0.356
106 FC2 58 -0.132
106 FC2 59 -0.132
106 FC2 60 -0.621
106 FC2 61 -0.621
106 FC2 62 -0.621
106 FC2 63 -1.109
106 FC2 64 -1.597
106 FC2 65 -2.085
106 FC2 66 -2.085
106 FC2 67 -2.085
106 FC2 68 -1.597
106 FC2 69 -1.597
106 FC2 70 -2.085
106 FC2 71 -3.062
106 FC2 72 -4.038
106 FC2 73 -4.038
106 FC2 74 -3.062
106 FC2 75 -2.085
106 FC2 76 -1.597
106 FC2 77 -2.085
106 FC2 78 -3.062
106 FC2 79 -3.550
106 FC2 80 -3.550
106 FC2 81 -2.085
106 FC2 82 -0.621
106 FC2 83 0.844
106 FC2 84 1.333
106 FC2 85 0.844
106 FC2 86 0.356
106 FC2 87 -0.132
106 FC2 88 -0.621
106 FC2 89 -1.109
106 FC2 90 -1.597
106 FC2 91 -2.574
106 FC2 92 -3.062
106 FC2 93 -3.550
106 FC2 94 -3.550
106 FC2 95 -3.550
106 FC2 96 -4.038
106 FC2 97 -3.550
106 FC2 98 -3.062
106 FC2 99 -1.597
106 FC2 100 -0.132
106 FC2 101 1.333
106 FC2 102 1.333
106 FC2 103 0.844
106 FC2 104 0.844
106 FC2 105 1.333
106 FC2 106 2.797
106 FC2 107 3.774
106 FC2 108 4.751
106 FC2 109 4.262
106 FC2 110 3.286
106 FC2 111 2.797
106 FC2 112 2.309
106 FC2 113 1.821
106 FC2 114 0.356
106 FC2 115 -0.621
106 FC2 116 -0.621
106 FC2 117 -0.621
106 FC2 118 -0.621
106 FC2 119 -0.132
106 FC2 120 -0.621
106 FC2 121 -1.109
106 FC2 122 -1.597
106 FC2 123 -1.109
106 FC2 124 -0.132
106 FC2 125 0.844
106 FC2 126 1.333
106 FC2 127 1.333
106 FC2 128 1.333
106 FC2 129 1.333
106 FC2 130 1.333
106 FC2 131 1.333
106 FC2 132 1.821
106 FC2 133 2.309
106 FC2 134 2.797
106 FC2 135 3.286
106 FC2 136 2.797
106 FC2 137 1.333
106 FC2 138 0.356
106 FC2 139 -0.621
106 FC2 140 -1.109
106 FC2 141 -0.621
106 FC2 142 -0.132
106 FC2 143 0.356
106 FC2 144 0.356
106 FC2 145 0.844
106 FC2 146 2.309
106 FC2 147 3.286
106 FC2 148 4.262
106 FC2 149 4.262
106 FC2 150 2.797
106 FC2 151 1.333
106 FC2 152 -0.132
106 FC2 153 -0.621
106 FC2 154 -0.132
106 FC2 155 0.844
106 FC2 156 1.821
106 FC2 157 2.797
106 FC2 158 2.797
106 FC2 159 2.797
106 FC2 160 2.797
106 FC2 161 2.309
106 FC2 162 1.821
106 FC2 163 1.821
106 FC2 164 2.309
106 FC2 165 2.797
106 FC2 166 3.774
106 FC2 167 4.262
106 FC2 168 4.262
106 FC2 169 4.751
106 FC2 170 5.239
106 FC2 171 5.727
106 FC2 172 6.704
106 FC2 173 7.192
106 FC2 174 6.704
106 FC2 175 5.239
106 FC2 176 4.262
106 FC2 177 2.797
106 FC2 178 2.797
106 FC2 179 2.797
106 FC2 180 2.309
106 FC2 181 1.821
106 FC2 182 1.333
106 FC2 183 0.844
106 FC2 184 1.333
106 FC2 185 1.333
106 FC2 186 2.309
106 FC2 187 1.821
106 FC2 188 1.333
106 FC2 189 1.333
106 FC2 190 2.309
106 FC2 191 3.774
106 FC2 192 4.751
106 FC2 193 5.239
106 FC2 194 5.239
106 FC2 195 5.239
106 FC2 196 5.239
106 FC2 197 6.215
106 FC2 198 6.215
106 FC2 199 6.215
106 FC2 200 5.727
106 FC2 201 5.239
106 FC2 202 4.262
106 FC2 203 3.286
106 FC2 204 2.309
106 FC2 205 1.333
106 FC2 206 1.333
106 FC2 207 1.821
106 FC2 208 3.286
106 FC2 209 5.239
106 FC2 210 6.704
106 FC2 211 7.192
106 FC2 212 7.192
106 FC2 213 6.704
106 FC2 214 5.727
106 FC2 215 4.751
106 FC2 216 4.262
106 FC2 217 3.774
106 FC2 218 3.774
106 FC2 219 4.751
106 FC2 220 6.215
106 FC2 221 7.680
106 FC2 222 8.657
106 FC2 223 8.657
106 FC2 224 8.169
106 FC2 225 7.192
106 FC2 226 6.215
106 FC2 227 6.215
106 FC2 228 5.727
106 FC2 229 5.239
106 FC2 230 5.239
106 FC2 231 5.239
106 FC2 232 5.727
106 FC2 233 6.215
106 FC2 234 7.192
106 FC2 235 7.192
106 FC2 236 6.704
106 FC2 237 5.239
106 FC2 238 3.774
106 FC2 239 2.797
106 FC2 240 2.309
106 FC2 241 2.309
106 FC2 242 3.286
106 FC2 243 4.262
106 FC2 244 4.751
106 FC2 245 5.239
106 FC2 246 6.215
106 FC2 247 6.704
106 FC2 248 7.192
106 FC2 249 7.192
106 FC2 250 6.215
106 FC2 251 4.751
106 FC2 252 3.774
106 FC2 253 2.797
106 FC2 254 3.286
106 FC2 255 4.751
# FC1 chan 12
106 FC1 0 6.704
106 FC1 1 5.727
106 FC1 2 4.262
106 FC1 3 2.797
106 FC1 4 2.309
106 FC1 5 2.309
106 FC1 6 2.309
106 FC1 7 2.309
106 FC1 8 1.821
106 FC1 9 1.333
106 FC1 10 1.821
106 FC1 11 2.309
106 FC1 12 2.797
106 FC1 13 2.309
106 FC1 14 1.333
106 FC1 15 0.356
106 FC1 16 -0.621
106 FC1 17 -1.109
106 FC1 18 -1.109
106 FC1 19 -1.109
106 FC1 20 -1.109
106 FC1 21 -1.109
106 FC1 22 -1.597
106 FC1 23 -2.085
106 FC1 24 -2.085
106 FC1 25 -2.085
106 FC1 26 -1.597
106 FC1 27 -0.621
106 FC1 28 0.356
106 FC1 29 1.333
106 FC1 30 1.821
106 FC1 31 1.333
106 FC1 32 0.844
106 FC1 33 0.844
106 FC1 34 0.844
106 FC1 35 1.333
106 FC1 36 1.821
106 FC1 37 2.309
106 FC1 38 1.821
106 FC1 39 1.821
106 FC1 40 0.844
106 FC1 41 0.356
106 FC1 42 0.356
106 FC1 43 0.356
106 FC1 44 -0.132
106 FC1 45 -0.621
106 FC1 46 -2.085
106 FC1 47 -3.550
106 FC1 48 -4.527
106 FC1 49 -5.015
106 FC1 50 -5.015
106 FC1 51 -4.038
106 FC1 52 -3.062
106 FC1 53 -2.085
106 FC1 54 -1.109
106 FC1 55 0.356
106 FC1 56 1.821
106 FC1 57 1.821
106 FC1 58 1.821
106 FC1 59 0.844
106 FC1 60 -0.132
106 FC1 61 -1.109
106 FC1 62 -1.109
106 FC1 63 -1.597
106 FC1 64 -2.085
106 FC1 65 -3.550
106 FC1 66 -5.015
106 FC1 67 -5.992
106 FC1 68 -5.992
106 FC1 69 -5.992
106 FC1 70 -5.503
106 FC1 71 -5.015
106 FC1 72 -5.503
106 FC1 73 -5.992
106 FC1 74 -5.992
106 FC1 75 -5.992
106 FC1 76 -5.503
106 FC1 77 -4.527
106 FC1 78 -3.550
106 FC1 79 -3.550
106 FC1 80 -4.038
106 FC1 81 -5.015
106 FC1 82 -5.992
106 FC1 83 -6.968
106 FC1 84 -7.945
106 FC1 85 -8.921
106 FC1 86 -9.410
106 FC1 87 -9.898
106 FC1 88 -10.386
106 FC1 89 -10.386
106 FC1 90 -10.386
106 FC1 91 -9.410
106 FC1 92 -8.921
106 FC1 93 -7.456
106 FC1 94 -6.968
106 FC1 95 -5.992
106 FC1 96 -5.015
106 FC1 97 -4.527
106 FC1 98 -4.038
106 FC1 99 -4.038
106 FC1 100 -4.527
106 FC1 101 -5.503
106 FC1 102 -5.992
106 FC1 103 -6.480
106 FC1 104 -6.480
106 FC1 105 -5.992
106 FC1 106 -5.015
106 FC1 107 -5.015
106 FC1 108 -5.015
106 FC1 109 -5.503
106 FC1 110 -5.503
106 FC1 111 -5.015
106 FC1 112 -5.015
106 FC1 113 -5.015
106 FC1 114 -5.503
106 FC1 115 -6.480
106 FC1 116 -6.480
106 FC1 117 -5.992
106 FC1 118 -5.015
106 FC1 119 -4.038
106 FC1 120 -3.550
106 FC1 121 -4.038
106 FC1 122 -5.015
106 FC1 123 -5.503
106 FC1 124 -5.992
106 FC1 125 -5.992
106 FC1 126 -5.992
106 FC1 127 -5.992
106 FC1 128 -5.503
106 FC1 129 -5.015
106 FC1 130 -4.527
106 FC1 131 -4.527
106 FC1 132 -5.015
106 FC1 133 -5.503
106 FC1 134 -5.992
106 FC1 135 -6.480
106 FC1 136 -5.992
106 FC1 137 -5.992
106 FC1 138 -5.992
106 FC1 139 -5.503
106 FC1 140 -5.503
106 FC1 141 -4.527
106 FC1 142 -4.038
106 FC1 143 -3.062
106 FC1 144 -2.085
106 FC1 145 -2.085
106 FC1 146 -1.109
106 FC1 147 -0.621
106 FC1 148 -0.132
106 FC1 149 0.356
106 FC1 150 -1.109
106 FC1 151 -2.574
106 FC1 152 -4.527
106 FC1 153 -5.015
106 FC1 154 -4.038
106 FC1 155 -3.062
106 FC1 156 -3.062
106 FC1 157 -3.062
106 FC1 158 -3.550
106 FC1 159 -4.038
106 FC1 160 -4.038
106 FC1 161 -3.550
106 FC1 162 -3.550
106 FC1 163 -4.038
106 FC1 164 -4.038
106 FC1 165 -4.527
106 FC1 166 -4.527
106 FC1 167 -4.527
106 FC1 168 -5.015
106 FC1 169 -5.015
106 FC1 170 -4.527
106 FC1 171 -3.550
106 FC1 172 -3.062
106 FC1 173 -3.062
106 FC1 174 -4.038
106 FC1 175 -5.503
106 FC1 176 -6.968
106 FC1 177 -7.456
106 FC1 178 -6.968
106 FC1 179 -5.992
106 FC1 180 -5.503
106 FC1 181 -5.503
106 FC1 182 -5.503
106 FC1 183 -5.015
106 FC1 184 -5.015
106 FC1 185 -4.527
106 FC1 186 -4.038
106 FC1 187 -3.550
106 FC1 188 -2.574
106 FC1 189 -1.109
106 FC1 190 -0.621
106 FC1 191 -0.621
106 FC1 192 -1.597
106 FC1 193 -3.550
106 FC1 194 -4.527
106 FC1 195 -4.527
106 FC1 196 -3.550
106 FC1 197 -2.085
106 FC1 198 -1.109
106 FC1 199 -0.621
106 FC1 200 -0.621
106 FC1 201 -0.621
106 FC1 202 -0.132
106 FC1 203 -0.132
106 FC1 204 -0.621
106 FC1 205 -1.597
106 FC1 206 -3.062
106 FC1 207 -4.038
106 FC1 208 -4.038
106 FC1 209 -2.574
106 FC1 210 -1.109
106 FC1 211 0.844
106 FC1 212 1.333
106 FC1 213 1.333
106 FC1 214 0.844
106 FC1 215 -0.132
106 FC1 216 -0.621
106 FC1 217 -1.597
106 FC1 218 -2.085
106 FC1 219 -2.574
106 FC1 220 -2.574
106 FC1 221 -2.085
106 FC1 222 -2.085
106 FC1 223 -1.597
106 FC1 224 -2.085
106 FC1 225 -2.085
106 FC1 226 -2.085
106 FC1 227 -2.085
106 FC1 228 -2.085
106 FC1 229 -2.085
106 FC1 230 -2.085
106 FC1 231 -2.085
106 FC1 232 -2.085
106 FC1 233 -1.109
106 FC1 234 -0.621
106 FC1 235 -0.132
106 FC1 236 -1.109
106 FC1 237 -3.062
106 FC1 238 -5.015
106 FC1 239 -5.992
106 FC1 240 -5.503
106 FC1 241 -4.527
106 FC1 242 -3.062
106 FC1 243 -2.574
106 FC1 244 -2.574
106 FC1 245 -2.085
106 FC1 246 -0.621
106 FC1 247 0.844
106 FC1 248 1.333
106 FC1 249 0.844
106 FC1 250 -0.132
106 FC1 251 -1.597
106 FC1 252 -2.085
106 FC1 253 -2.085
106 FC1 254 -1.597
106 FC1 255 -1.109
# T8 chan 13
106 T8 0 -3.123
106 T8 1 -4.100
106 T8 2 -4.100
106 T8 3 -2.146
106 T8 4 -0.193
106 T8 5 0.783
106 T8 6 -0.193
106 T8 7 -1.658
106 T8 8 -2.635
106 T8 9 -2.146
106 T8 10 -0.193
106 T8 11 0.295
106 T8 12 -2.146
106 T8 13 -7.517
106 T8 14 -13.377
106 T8 15 -17.283
106 T8 16 -18.260
106 T8 17 -15.330
106 T8 18 -11.424
106 T8 19 -8.494
106 T8 20 -7.029
106 T8 21 -7.029
106 T8 22 -7.517
106 T8 23 -7.517
106 T8 24 -6.053
106 T8 25 -4.588
106 T8 26 -3.123
106 T8 27 -1.658
106 T8 28 -1.170
106 T8 29 -1.658
106 T8 30 -2.635
106 T8 31 -4.100
106 T8 32 -5.076
106 T8 33 -6.053
106 T8 34 -6.541
106 T8 35 -8.982
106 T8 36 -12.889
106 T8 37 -16.795
106 T8 38 -19.725
106 T8 39 -19.725
106 T8 40 -18.260
106 T8 41 -15.330
106 T8 42 -13.865
106 T8 43 -14.353
106 T8 44 -16.307
106 T8 45 -18.748
106 T8 46 -20.213
106 T8 47 -20.213
106 T8 48 -19.725
106 T8 49 -18.260
106 T8 50 -16.307
106 T8 51 -14.353
106 T8 52 -13.377
106 T8 53 -13.865
106 T8 54 -16.307
106 T8 55 -19.236
106 T8 56 -22.166
106 T8 57 -22.654
106 T8 58 -20.213
106 T8 59 -16.307
106 T8 60 -12.889
106 T8 61 -9.959
106 T8 62 -8.494
106 T8 63 -8.006
106 T8 64 -7.517
106 T8 65 -8.494
106 T8 66 -10.447
106 T8 67 -13.865
106 T8 68 -16.795
106 T8 69 -18.748
106 T8 70 -17.771
106 T8 71 -15.818
106 T8 72 -13.377
106 T8 73 -11.912
106 T8 74 -10.935
106 T8 75 -10.935
106 T8 76 -9.959
106 T8 77 -8.982
106 T8 78 -8.006
106 T8 79 -8.006
106 T8 80 -8.006
106 T8 81 -8.494
106 T8 82 -8.006
106 T8 83 -7.517
106 T8 84 -7.517
106 T8 85 -8.006
106 T8 86 -8.982
106 T8 87 -8.982
106 T8 88 -7.517
106 T8 89 -5.076
106 T8 90 -3.611
106 T8 91 -4.100
106 T8 92 -7.029
106 T8 93 -11.912
106 T8 94 -17.283
106 T8 95 -21.678
106 T8 96 -24.607
106 T8 97 -25.584
106 T8 98 -24.607
106 T8 99 -22.654
106 T8 100 -19.725
106 T8 101 -16.307
106 T8 102 -13.377
106 T8 103 -11.424
106 T8 104 -10.447
106 T8 105 -9.959
106 T8 106 -8.982
106 T8 107 -8.006
106 T8 108 -7.029
106 T8 109 -7.517
106 T8 110 -8.982
106 T8 111 -10.935
106 T8 112 -12.889
106 T8 113 -14.842
106 T8 114 -16.307
106 T8 115 -16.795
106 T8 116 -17.283
106 T8 117 -17.283
106 T8 118 -16.795
106 T8 119 -15.330
106 T8 120 -13.377
106 T8 121 -10.935
106 T8 122 -8.494
106 T8 123 -6.541
106 T8 124 -6.053
106 T8 125 -6.541
106 T8 126 -8.006
106 T8 127 -9.471
106 T8 128 -10.935
106 T8 129 -11.424
106 T8 130 -10.935
106 T8 131 -10.447
106 T8 132 -9.959
106 T8 133 -9.471
106 T8 134 -9.959
106 T8 135 -11.912
106 T8 136 -13.865
106 T8 137 -14.842
106 T8 138 -14.842
106 T8 139 -13.865
106 T8 140 -12.400
106 T8 141 -12.400
106 T8 142 -13.865
106 T8 143 -14.842
106 T8 144 -14.842
106 T8 145 -12.889
106 T8 146 -9.959
106 T8 147 -7.517
106 T8 148 -7.029
106 T8 149 -8.494
106 T8 150 -10.935
106 T8 151 -12.400
106 T8 152 -12.889
106 T8 153 -12.889
106 T8 154 -12.889
106 T8 155 -13.377
106 T8 156 -14.842
106 T8 157 -15.330
106 T8 158 -15.818
106 T8 159 -15.818
106 T8 160 -15.818
106 T8 161 -16.795
106 T8 162 -17.771
106 T8 163 -17.771
106 T8 164 -16.795
106 T8 165 -15.330
106 T8 166 -12.889
106 T8 167 -10.935
106 T8 168 -8.982
106 T8 169 -6.541
106 T8 170 -4.588
106 T8 171 -3.123
106 T8 172 -3.123
106 T8 173 -4.100
106 T8 174 -4.588
106 T8 175 -3.611
106 T8 176 -2.635
106 T8 177 -2.146
106 T8 178 -2.146
106 T8 179 -3.611
106 T8 180 -5.076
106 T8 181 -7.029
106 T8 182 -8.494
106 T8 183 -8.494
106 T8 184 -8.006
106 T8 185 -6.541
106 T8 186 -6.053
106 T8 187 -6.053
106 T8 188 -7.029
106 T8 189 -7.517
106 T8 190 -7.517
106 T8 191 -6.541
106 T8 192 -5.564
106 T8 193 -5.076
106 T8 194 -5.076
106 T8 195 -6.053
106 T8 196 -7.517
106 T8 197 -8.494
106 T8 198 -8.982
106 T8 199 -8.982
106 T8 200 -8.494
106 T8 201 -8.494
106 T8 202 -8.006
106 T8 203 -7.517
106 T8 204 -6.541
106 T8 205 -6.053
106 T8 206 -5.076
106 T8 207 -4.100
106 T8 208 -4.100
106 T8 209 -5.076
106 T8 210 -6.541
106 T8 211 -8.494
106 T8 212 -10.935
106 T8 213 -11.424
106 T8 214 -10.935
106 T8 215 -9.471
106 T8 216 -7.517
106 T8 217 -6.541
106 T8 218 -7.029
106 T8 219 -8.006
106 T8 220 -8.982
106 T8 221 -8.494
106 T8 222 -7.029
106 T8 223 -5.076
106 T8 224 -3.611
106 T8 225 -3.123
106 T8 226 -3.611
106 T8 227 -4.100
106 T8 228 -4.100
106 T8 229 -3.123
106 T8 230 -3.123
106 T8 231 -4.100
106 T8 232 -7.029
106 T8 233 -9.471
106 T8 234 -11.424
106 T8 235 -11.424
106 T8 236 -10.447
106 T8 237 -8.494
106 T8 238 -7.517
106 T8 239 -6.541
106 T8 240 -6.053
106 T8 241 -5.564
106 T8 242 -5.076
106 T8 243 -5.564
106 T8 244 -6.541
106 T8 245 -7.029
106 T8 246 -7.517
106 T8 247 -7.517
106 T8 248 -8.006
106 T8 249 -8.982
106 T8 250 -10.935
106 T8 251 -11.912
106 T8 252 -10.935
106 T8 253 -8.494
106 T8 254 -5.076
106 T8 255 -1.658
# T7 chan 14
106 T7 0 2.635
106 T7 1 9.471
106 T7 2 15.330
106 T7 3 15.818
106 T7 4 11.424
106 T7 5 5.564
106 T7 6 1.658
106 T7 7 2.635
106 T7 8 7.029
106 T7 9 11.912
106 T7 10 14.842
106 T7 11 13.865
106 T7 12 9.471
106 T7 13 4.100
106 T7 14 -0.295
106 T7 15 -1.760
106 T7 16 0.193
106 T7 17 4.100
106 T7 18 8.494
106 T7 19 10.447
106 T7 20 8.982
106 T7 21 5.564
106 T7 22 2.146
106 T7 23 1.170
106 T7 24 3.611
106 T7 25 8.494
106 T7 26 13.377
106 T7 27 15.818
106 T7 28 14.353
106 T7 29 11.424
106 T7 30 9.959
106 T7 31 12.400
106 T7 32 17.771
106 T7 33 23.142
106 T7 34 24.607
106 T7 35 22.166
106 T7 36 17.283
106 T7 37 13.865
106 T7 38 13.377
106 T7 39 14.353
106 T7 40 15.330
106 T7 41 12.400
106 T7 42 7.517
106 T7 43 2.635
106 T7 44 1.658
106 T7 45 5.076
106 T7 46 11.424
106 T7 47 16.307
106 T7 48 17.283
106 T7 49 15.818
106 T7 50 12.889
106 T7 51 10.447
106 T7 52 9.471
106 T7 53 8.982
106 T7 54 7.517
106 T7 55 7.517
106 T7 56 8.982
106 T7 57 12.400
106 T7 58 15.818
106 T7 59 17.771
106 T7 60 17.283
106 T7 61 15.330
106 T7 62 12.400
106 T7 63 10.447
106 T7 64 8.006
106 T7 65 5.076
106 T7 66 1.658
106 T7 67 -0.783
106 T7 68 -1.760
106 T7 69 -1.272
106 T7 70 -0.783
106 T7 71 -0.295
106 T7 72 1.170
106 T7 73 5.564
106 T7 74 12.400
106 T7 75 19.236
106 T7 76 22.166
106 T7 77 18.748
106 T7 78 10.447
106 T7 79 3.611
106 T7 80 1.170
106 T7 81 4.588
106 T7 82 9.959
106 T7 83 13.865
106 T7 84 12.889
106 T7 85 8.982
106 T7 86 4.588
106 T7 87 3.123
106 T7 88 4.588
106 T7 89 7.517
106 T7 90 9.471
106 T7 91 10.447
106 T7 92 10.447
106 T7 93 10.935
106 T7 94 12.400
106 T7 95 13.865
106 T7 96 14.353
106 T7 97 12.889
106 T7 98 10.935
106 T7 99 8.982
106 T7 100 8.494
106 T7 101 9.959
106 T7 102 11.912
106 T7 103 13.377
106 T7 104 13.865
106 T7 105 14.353
106 T7 106 14.842
106 T7 107 15.330
106 T7 108 14.353
106 T7 109 9.959
106 T7 110 3.123
106 T7 111 -2.736
106 T7 112 -5.178
106 T7 113 -1.760
106 T7 114 6.053
106 T7 115 14.842
106 T7 116 20.213
106 T7 117 22.166
106 T7 118 20.701
106 T7 119 17.771
106 T7 120 15.818
106 T7 121 15.330
106 T7 122 14.842
106 T7 123 13.377
106 T7 124 9.959
106 T7 125 6.053
106 T7 126 3.611
106 T7 127 4.588
106 T7 128 8.494
106 T7 129 13.865
106 T7 130 18.260
106 T7 131 20.213
106 T7 132 20.701
106 T7 133 20.701
106 T7 134 21.678
106 T7 135 20.701
106 T7 136 17.283
106 T7 137 10.447
106 T7 138 4.588
106 T7 139 1.658
106 T7 140 2.635
106 T7 141 5.564
106 T7 142 7.029
106 T7 143 5.564
106 T7 144 3.611
106 T7 145 4.588
106 T7 146 9.471
106 T7 147 16.307
106 T7 148 20.701
106 T7 149 20.701
106 T7 150 17.283
106 T7 151 12.400
106 T7 152 9.471
106 T7 153 8.494
106 T7 154 7.517
106 T7 155 5.564
106 T7 156 2.635
106 T7 157 0.682
106 T7 158 0.682
106 T7 159 2.635
106 T7 160 5.564
106 T7 161 8.006
106 T7 162 8.982
106 T7 163 9.471
106 T7 164 8.494
106 T7 165 7.029
106 T7 166 5.564
106 T7 167 4.100
106 T7 168 2.635
106 T7 169 2.635
106 T7 170 2.146
106 T7 171 2.635
106 T7 172 3.611
106 T7 173 6.053
106 T7 174 9.471
106 T7 175 11.424
106 T7 176 10.935
106 T7 177 8.494
106 T7 178 5.564
106 T7 179 4.588
106 T7 180 7.029
106 T7 181 10.935
106 T7 182 13.377
106 T7 183 12.400
106 T7 184 9.471
106 T7 185 6.541
106 T7 186 6.053
106 T7 187 8.006
106 T7 188 10.447
106 T7 189 10.447
106 T7 190 8.494
106 T7 191 7.029
106 T7 192 8.494
106 T7 193 11.912
106 T7 194 15.818
106 T7 195 17.771
106 T7 196 17.283
106 T7 197 15.330
106 T7 198 14.842
106 T7 199 15.818
106 T7 200 16.307
106 T7 201 14.842
106 T7 202 11.424
106 T7 203 8.006
106 T7 204 7.029
106 T7 205 10.447
106 T7 206 15.818
106 T7 207 21.189
106 T7 208 24.119
106 T7 209 24.607
106 T7 210 23.631
106 T7 211 22.654
106 T7 212 22.166
106 T7 213 22.654
106 T7 214 22.166
106 T7 215 21.189
106 T7 216 18.748
106 T7 217 16.307
106 T7 218 13.865
106 T7 219 11.912
106 T7 220 10.447
106 T7 221 10.447
106 T7 222 11.912
106 T7 223 15.330
106 T7 224 19.725
106 T7 225 23.142
106 T7 226 24.119
106 T7 227 22.166
106 T7 228 19.236
106 T7 229 17.283
106 T7 230 18.260
106 T7 231 20.701
106 T7 232 23.631
106 T7 233 23.631
106 T7 234 21.678
106 T7 235 18.260
106 T7 236 16.307
106 T7 237 16.795
106 T7 238 18.748
106 T7 239 20.701
106 T7 240 20.701
106 T7 241 19.236
106 T7 242 18.260
106 T7 243 18.260
106 T7 244 20.213
106 T7 245 22.166
106 T7 246 23.142
106 T7 247 22.654
106 T7 248 22.166
106 T7 249 21.678
106 T7 250 22.166
106 T7 251 22.166
106 T7 252 21.678
106 T7 253 20.213
106 T7 254 19.236
106 T7 255 20.701
# CZ chan 15
106 CZ 0 5.758
106 CZ 1 2.828
106 CZ 2 1.363
106 CZ 3 1.363
106 CZ 4 1.851
106 CZ 5 1.851
106 CZ 6 1.363
106 CZ 7 0.387
106 CZ 8 0.875
106 CZ 9 1.851
106 CZ 10 1.363
106 CZ 11 -0.102
106 CZ 12 -4.496
106 CZ 13 -9.867
106 CZ 14 -14.262
106 CZ 15 -16.215
106 CZ 16 -15.238
106 CZ 17 -12.309
106 CZ 18 -9.379
106 CZ 19 -6.938
106 CZ 20 -5.961
106 CZ 21 -5.473
106 CZ 22 -5.473
106 CZ 23 -5.473
106 CZ 24 -4.985
106 CZ 25 -3.520
106 CZ 26 -1.078
106 CZ 27 1.851
106 CZ 28 4.293
106 CZ 29 5.269
106 CZ 30 6.246
106 CZ 31 7.222
106 CZ 32 8.687
106 CZ 33 9.664
106 CZ 34 10.152
106 CZ 35 9.664
106 CZ 36 7.222
106 CZ 37 4.293
106 CZ 38 0.387
106 CZ 39 -3.031
106 CZ 40 -6.449
106 CZ 41 -8.891
106 CZ 42 -10.844
106 CZ 43 -12.309
106 CZ 44 -13.774
106 CZ 45 -15.727
106 CZ 46 -19.633
106 CZ 47 -24.028
106 CZ 48 -27.445
106 CZ 49 -29.399
106 CZ 50 -28.910
106 CZ 51 -27.934
106 CZ 52 -25.492
106 CZ 53 -22.563
106 CZ 54 -20.121
106 CZ 55 -17.192
106 CZ 56 -14.750
106 CZ 57 -13.285
106 CZ 58 -12.797
106 CZ 59 -13.285
106 CZ 60 -14.262
106 CZ 61 -14.750
106 CZ 62 -15.727
106 CZ 63 -16.703
106 CZ 64 -17.680
106 CZ 65 -19.145
106 CZ 66 -21.098
106 CZ 67 -23.051
106 CZ 68 -24.516
106 CZ 69 -25.981
106 CZ 70 -26.469
106 CZ 71 -25.981
106 CZ 72 -25.004
106 CZ 73 -22.563
106 CZ 74 -19.145
106 CZ 75 -15.238
106 CZ 76 -12.309
106 CZ 77 -11.332
106 CZ 78 -13.774
106 CZ 79 -19.145
106 CZ 80 -25.492
106 CZ 81 -29.399
106 CZ 82 -29.887
106 CZ 83 -27.934
106 CZ 84 -25.492
106 CZ 85 -25.492
106 CZ 86 -27.934
106 CZ 87 -30.863
106 CZ 88 -31.352
106 CZ 89 -28.910
106 CZ 90 -24.516
106 CZ 91 -21.098
106 CZ 92 -21.098
106 CZ 93 -24.516
106 CZ 94 -29.399
106 CZ 95 -32.328
106 CZ 96 -32.328
106 CZ 97 -29.399
106 CZ 98 -26.957
106 CZ 99 -25.981
106 CZ 100 -27.445
106 CZ 101 -27.934
106 CZ 102 -27.445
106 CZ 103 -24.516
106 CZ 104 -21.098
106 CZ 105 -18.656
106 CZ 106 -18.656
106 CZ 107 -20.121
106 CZ 108 -21.586
106 CZ 109 -23.051
106 CZ 110 -23.539
106 CZ 111 -24.516
106 CZ 112 -25.981
106 CZ 113 -27.445
106 CZ 114 -27.445
106 CZ 115 -26.957
106 CZ 116 -25.981
106 CZ 117 -24.516
106 CZ 118 -23.539
106 CZ 119 -22.563
106 CZ 120 -22.074
106 CZ 121 -22.074
106 CZ 122 -22.563
106 CZ 123 -23.539
106 CZ 124 -24.028
106 CZ 125 -24.028
106 CZ 126 -22.074
106 CZ 127 -19.145
106 CZ 128 -16.703
106 CZ 129 -14.750
106 CZ 130 -12.797
106 CZ 131 -10.844
106 CZ 132 -7.914
106 CZ 133 -5.473
106 CZ 134 -4.496
106 CZ 135 -4.985
106 CZ 136 -7.426
106 CZ 137 -10.356
106 CZ 138 -13.774
106 CZ 139 -16.215
106 CZ 140 -19.145
106 CZ 141 -23.051
106 CZ 142 -26.469
106 CZ 143 -28.910
106 CZ 144 -27.934
106 CZ 145 -23.539
106 CZ 146 -16.703
106 CZ 147 -9.379
106 CZ 148 -4.496
106 CZ 149 -4.496
106 CZ 150 -8.403
106 CZ 151 -14.750
106 CZ 152 -19.145
106 CZ 153 -21.586
106 CZ 154 -22.074
106 CZ 155 -21.098
106 CZ 156 -21.098
106 CZ 157 -22.563
106 CZ 158 -24.516
106 CZ 159 -25.981
106 CZ 160 -25.492
106 CZ 161 -25.004
106 CZ 162 -23.539
106 CZ 163 -24.028
106 CZ 164 -26.957
106 CZ 165 -30.863
106 CZ 166 -33.793
106 CZ 167 -32.817
106 CZ 168 -26.957
106 CZ 169 -17.680
106 CZ 170 -8.891
106 CZ 171 -4.496
106 CZ 172 -4.985
106 CZ 173 -8.403
106 CZ 174 -11.332
106 CZ 175 -11.820
106 CZ 176 -10.844
106 CZ 177 -10.844
106 CZ 178 -13.285
106 CZ 179 -16.215
106 CZ 180 -18.656
106 CZ 181 -17.192
106 CZ 182 -14.262
106 CZ 183 -10.844
106 CZ 184 -9.867
106 CZ 185 -10.356
106 CZ 186 -11.332
106 CZ 187 -11.332
106 CZ 188 -9.867
106 CZ 189 -8.891
106 CZ 190 -9.379
106 CZ 191 -10.844
106 CZ 192 -12.309
106 CZ 193 -12.797
106 CZ 194 -11.332
106 CZ 195 -9.379
106 CZ 196 -7.426
106 CZ 197 -6.449
106 CZ 198 -6.449
106 CZ 199 -5.961
106 CZ 200 -5.961
106 CZ 201 -6.449
106 CZ 202 -7.426
106 CZ 203 -8.891
106 CZ 204 -9.867
106 CZ 205 -9.379
106 CZ 206 -7.914
106 CZ 207 -5.961
106 CZ 208 -3.520
106 CZ 209 -2.543
106 CZ 210 -2.055
106 CZ 211 -2.543
106 CZ 212 -3.031
106 CZ 213 -3.520
106 CZ 214 -4.985
106 CZ 215 -6.449
106 CZ 216 -8.403
106 CZ 217 -9.867
106 CZ 218 -10.356
106 CZ 219 -10.844
106 CZ 220 -10.844
106 CZ 221 -10.356
106 CZ 222 -8.891
106 CZ 223 -7.426
106 CZ 224 -5.473
106 CZ 225 -4.496
106 CZ 226 -4.496
106 CZ 227 -4.985
106 CZ 228 -4.496
106 CZ 229 -3.031
106 CZ 230 -0.590
106 CZ 231 0.875
106 CZ 232 0.875
106 CZ 233 -1.078
106 CZ 234 -4.008
106 CZ 235 -5.473
106 CZ 236 -5.473
106 CZ 237 -4.008
106 CZ 238 -3.031
106 CZ 239 -2.055
106 CZ 240 -2.055
106 CZ 241 -1.567
106 CZ 242 -0.102
106 CZ 243 1.851
106 CZ 244 4.781
106 CZ 245 6.246
106 CZ 246 6.734
106 CZ 247 5.758
106 CZ 248 2.340
106 CZ 249 -2.543
106 CZ 250 -9.379
106 CZ 251 -15.238
106 CZ 252 -17.680
106 CZ 253 -16.215
106 CZ 254 -10.844
106 CZ 255 -4.985
# C3 chan 16
106 C3 0 6.612
106 C3 1 5.147
106 C3 2 4.171
106 C3 3 3.682
106 C3 4 5.147
106 C3 5 6.612
106 C3 6 7.589
106 C3 7 7.100
106 C3 8 4.659
106 C3 9 2.706
106 C3 10 0.753
106 C3 11 0.753
106 C3 12 1.729
106 C3 13 3.194
106 C3 14 4.171
106 C3 15 3.682
106 C3 16 1.729
106 C3 17 -0.224
106 C3 18 -2.177
106 C3 19 -2.177
106 C3 20 -1.689
106 C3 21 0.264
106 C3 22 1.241
106 C3 23 1.241
106 C3 24 0.264
106 C3 25 -1.200
106 C3 26 -2.177
106 C3 27 -1.689
106 C3 28 -0.224
106 C3 29 1.729
106 C3 30 2.706
106 C3 31 3.194
106 C3 32 3.194
106 C3 33 3.682
106 C3 34 4.659
106 C3 35 6.124
106 C3 36 7.589
106 C3 37 7.100
106 C3 38 5.636
106 C3 39 3.194
106 C3 40 1.729
106 C3 41 1.729
106 C3 42 3.194
106 C3 43 4.659
106 C3 44 6.124
106 C3 45 6.124
106 C3 46 4.659
106 C3 47 4.171
106 C3 48 4.171
106 C3 49 4.171
106 C3 50 4.659
106 C3 51 4.171
106 C3 52 2.706
106 C3 53 1.241
106 C3 54 0.264
106 C3 55 0.753
106 C3 56 1.241
106 C3 57 2.218
106 C3 58 1.729
106 C3 59 1.241
106 C3 60 1.729
106 C3 61 1.729
106 C3 62 2.706
106 C3 63 3.194
106 C3 64 2.706
106 C3 65 0.753
106 C3 66 -2.177
106 C3 67 -5.107
106 C3 68 -7.060
106 C3 69 -7.060
106 C3 70 -5.107
106 C3 71 -2.177
106 C3 72 0.264
106 C3 73 0.753
106 C3 74 -0.224
106 C3 75 -1.200
106 C3 76 -1.200
106 C3 77 0.264
106 C3 78 2.706
106 C3 79 3.682
106 C3 80 3.194
106 C3 81 0.753
106 C3 82 -1.689
106 C3 83 -3.153
106 C3 84 -3.153
106 C3 85 -3.153
106 C3 86 -3.642
106 C3 87 -4.618
106 C3 88 -5.107
106 C3 89 -5.595
106 C3 90 -4.618
106 C3 91 -3.153
106 C3 92 -1.689
106 C3 93 -1.200
106 C3 94 -1.200
106 C3 95 -0.712
106 C3 96 -0.224
106 C3 97 0.753
106 C3 98 1.729
106 C3 99 2.218
106 C3 100 0.753
106 C3 101 -0.712
106 C3 102 -2.177
106 C3 103 -2.665
106 C3 104 -2.177
106 C3 105 -1.200
106 C3 106 -0.712
106 C3 107 -1.200
106 C3 108 -1.689
106 C3 109 -2.177
106 C3 110 -0.712
106 C3 111 1.729
106 C3 112 3.682
106 C3 113 4.659
106 C3 114 4.171
106 C3 115 2.218
106 C3 116 0.753
106 C3 117 0.264
106 C3 118 1.241
106 C3 119 3.194
106 C3 120 4.659
106 C3 121 4.659
106 C3 122 3.682
106 C3 123 2.218
106 C3 124 1.729
106 C3 125 1.241
106 C3 126 1.241
106 C3 127 1.241
106 C3 128 0.753
106 C3 129 0.264
106 C3 130 -0.712
106 C3 131 -1.689
106 C3 132 -3.153
106 C3 133 -5.107
106 C3 134 -7.060
106 C3 135 -8.525
106 C3 136 -7.060
106 C3 137 -4.618
106 C3 138 -2.177
106 C3 139 -1.200
106 C3 140 -1.689
106 C3 141 -2.177
106 C3 142 -2.177
106 C3 143 -0.712
106 C3 144 1.241
106 C3 145 2.706
106 C3 146 3.194
106 C3 147 2.706
106 C3 148 2.218
106 C3 149 1.241
106 C3 150 -0.224
106 C3 151 -1.689
106 C3 152 -3.153
106 C3 153 -4.130
106 C3 154 -4.130
106 C3 155 -3.153
106 C3 156 -3.153
106 C3 157 -3.153
106 C3 158 -3.153
106 C3 159 -3.153
106 C3 160 -2.665
106 C3 161 -2.177
106 C3 162 -2.177
106 C3 163 -3.642
106 C3 164 -4.618
106 C3 165 -5.107
106 C3 166 -5.107
106 C3 167 -5.107
106 C3 168 -5.595
106 C3 169 -6.083
106 C3 170 -6.083
106 C3 171 -5.107
106 C3 172 -4.130
106 C3 173 -3.642
106 C3 174 -4.130
106 C3 175 -6.083
106 C3 176 -7.060
106 C3 177 -7.060
106 C3 178 -7.060
106 C3 179 -6.571
106 C3 180 -7.060
106 C3 181 -6.571
106 C3 182 -6.083
106 C3 183 -4.618
106 C3 184 -3.642
106 C3 185 -3.153
106 C3 186 -2.177
106 C3 187 -1.200
106 C3 188 0.753
106 C3 189 2.218
106 C3 190 2.706
106 C3 191 0.753
106 C3 192 -2.665
106 C3 193 -6.083
106 C3 194 -7.548
106 C3 195 -6.571
106 C3 196 -4.130
106 C3 197 -2.177
106 C3 198 -2.177
106 C3 199 -2.177
106 C3 200 -2.177
106 C3 201 -1.200
106 C3 202 1.241
106 C3 203 3.682
106 C3 204 4.171
106 C3 205 2.706
106 C3 206 0.264
106 C3 207 -2.177
106 C3 208 -3.642
106 C3 209 -3.153
106 C3 210 -1.200
106 C3 211 0.264
106 C3 212 1.729
106 C3 213 2.706
106 C3 214 3.194
106 C3 215 3.194
106 C3 216 2.706
106 C3 217 1.729
106 C3 218 0.753
106 C3 219 -0.712
106 C3 220 -0.712
106 C3 221 -0.712
106 C3 222 -0.712
106 C3 223 -1.200
106 C3 224 -2.665
106 C3 225 -4.130
106 C3 226 -4.618
106 C3 227 -4.130
106 C3 228 -2.177
106 C3 229 -0.224
106 C3 230 0.264
106 C3 231 0.264
106 C3 232 -0.224
106 C3 233 0.264
106 C3 234 1.241
106 C3 235 1.241
106 C3 236 -0.712
106 C3 237 -4.130
106 C3 238 -7.060
106 C3 239 -8.525
106 C3 240 -8.525
106 C3 241 -6.571
106 C3 242 -5.595
106 C3 243 -5.595
106 C3 244 -6.083
106 C3 245 -5.595
106 C3 246 -3.153
106 C3 247 -0.712
106 C3 248 1.241
106 C3 249 0.753
106 C3 250 -0.712
106 C3 251 -2.177
106 C3 252 -2.177
106 C3 253 -0.712
106 C3 254 0.264
106 C3 255 -0.224
# C4 chan 17
106 C4 0 -0.142
106 C4 1 0.834
106 C4 2 1.811
106 C4 3 2.787
106 C4 4 2.787
106 C4 5 2.787
106 C4 6 1.811
106 C4 7 1.811
106 C4 8 1.811
106 C4 9 2.299
106 C4 10 2.787
106 C4 11 1.811
106 C4 12 -0.142
106 C4 13 -2.584
106 C4 14 -5.514
106 C4 15 -6.978
106 C4 16 -6.490
106 C4 17 -5.514
106 C4 18 -4.049
106 C4 19 -3.560
106 C4 20 -3.560
106 C4 21 -4.537
106 C4 22 -5.025
106 C4 23 -6.002
106 C4 24 -6.978
106 C4 25 -7.467
106 C4 26 -6.978
106 C4 27 -5.514
106 C4 28 -4.537
106 C4 29 -3.560
106 C4 30 -3.560
106 C4 31 -4.049
106 C4 32 -5.025
106 C4 33 -5.514
106 C4 34 -5.514
106 C4 35 -5.514
106 C4 36 -6.978
106 C4 37 -8.443
106 C4 38 -10.885
106 C4 39 -11.861
106 C4 40 -10.885
106 C4 41 -8.931
106 C4 42 -6.978
106 C4 43 -6.002
106 C4 44 -6.978
106 C4 45 -8.443
106 C4 46 -9.420
106 C4 47 -9.420
106 C4 48 -8.443
106 C4 49 -6.978
106 C4 50 -6.002
106 C4 51 -5.025
106 C4 52 -4.537
106 C4 53 -4.049
106 C4 54 -4.537
106 C4 55 -4.537
106 C4 56 -5.514
106 C4 57 -6.002
106 C4 58 -6.490
106 C4 59 -6.002
106 C4 60 -4.049
106 C4 61 -2.096
106 C4 62 -0.631
106 C4 63 -0.142
106 C4 64 -0.142
106 C4 65 -0.631
106 C4 66 -0.631
106 C4 67 -0.631
106 C4 68 -0.631
106 C4 69 -1.119
106 C4 70 -2.096
106 C4 71 -3.072
106 C4 72 -3.072
106 C4 73 -1.607
106 C4 74 0.346
106 C4 75 1.811
106 C4 76 2.299
106 C4 77 1.811
106 C4 78 1.322
106 C4 79 0.834
106 C4 80 1.322
106 C4 81 2.299
106 C4 82 3.276
106 C4 83 3.764
106 C4 84 4.252
106 C4 85 4.740
106 C4 86 5.717
106 C4 87 6.694
106 C4 88 6.694
106 C4 89 6.694
106 C4 90 5.229
106 C4 91 4.740
106 C4 92 3.764
106 C4 93 2.787
106 C4 94 0.834
106 C4 95 -1.119
106 C4 96 -4.049
106 C4 97 -5.514
106 C4 98 -5.514
106 C4 99 -4.049
106 C4 100 -1.607
106 C4 101 -0.142
106 C4 102 -0.631
106 C4 103 -1.607
106 C4 104 -1.607
106 C4 105 0.346
106 C4 106 3.276
106 C4 107 5.717
106 C4 108 6.694
106 C4 109 6.205
106 C4 110 4.740
106 C4 111 4.252
106 C4 112 4.252
106 C4 113 5.229
106 C4 114 5.229
106 C4 115 4.740
106 C4 116 4.252
106 C4 117 4.252
106 C4 118 4.740
106 C4 119 5.717
106 C4 120 5.717
106 C4 121 5.717
106 C4 122 5.717
106 C4 123 6.205
106 C4 124 7.182
106 C4 125 8.647
106 C4 126 8.647
106 C4 127 7.670
106 C4 128 5.717
106 C4 129 4.740
106 C4 130 4.740
106 C4 131 6.205
106 C4 132 7.670
106 C4 133 8.647
106 C4 134 8.647
106 C4 135 8.158
106 C4 136 7.182
106 C4 137 6.694
106 C4 138 6.205
106 C4 139 6.694
106 C4 140 6.694
106 C4 141 5.717
106 C4 142 4.252
106 C4 143 2.787
106 C4 144 2.787
106 C4 145 3.764
106 C4 146 5.229
106 C4 147 7.182
106 C4 148 7.670
106 C4 149 7.670
106 C4 150 6.205
106 C4 151 4.252
106 C4 152 2.787
106 C4 153 2.299
106 C4 154 1.811
106 C4 155 1.811
106 C4 156 2.299
106 C4 157 3.276
106 C4 158 4.252
106 C4 159 4.740
106 C4 160 5.229
106 C4 161 5.229
106 C4 162 5.229
106 C4 163 5.229
106 C4 164 5.717
106 C4 165 6.205
106 C4 166 5.717
106 C4 167 5.717
106 C4 168 5.717
106 C4 169 6.694
106 C4 170 8.647
106 C4 171 10.111
106 C4 172 11.576
106 C4 173 12.065
106 C4 174 12.065
106 C4 175 12.065
106 C4 176 12.065
106 C4 177 12.553
106 C4 178 12.553
106 C4 179 12.553
106 C4 180 11.576
106 C4 181 10.600
106 C4 182 10.111
106 C4 183 10.111
106 C4 184 9.623
106 C4 185 9.135
106 C4 186 8.647
106 C4 187 7.182
106 C4 188 6.694
106 C4 189 6.694
106 C4 190 6.694
106 C4 191 7.670
106 C4 192 8.158
106 C4 193 8.647
106 C4 194 9.135
106 C4 195 9.623
106 C4 196 10.111
106 C4 197 10.111
106 C4 198 9.623
106 C4 199 8.647
106 C4 200 8.158
106 C4 201 7.670
106 C4 202 7.670
106 C4 203 7.182
106 C4 204 6.694
106 C4 205 6.205
106 C4 206 5.717
106 C4 207 6.694
106 C4 208 7.670
106 C4 209 8.647
106 C4 210 8.647
106 C4 211 7.670
106 C4 212 5.717
106 C4 213 4.252
106 C4 214 3.276
106 C4 215 2.787
106 C4 216 3.276
106 C4 217 4.252
106 C4 218 5.717
106 C4 219 7.182
106 C4 220 8.158
106 C4 221 8.647
106 C4 222 9.135
106 C4 223 9.135
106 C4 224 8.647
106 C4 225 9.135
106 C4 226 8.647
106 C4 227 7.670
106 C4 228 7.670
106 C4 229 7.182
106 C4 230 7.182
106 C4 231 7.670
106 C4 232 7.670
106 C4 233 7.670
106 C4 234 7.670
106 C4 235 7.670
106 C4 236 7.670
106 C4 237 8.158
106 C4 238 8.647
106 C4 239 8.647
106 C4 240 8.647
106 C4 241 8.647
106 C4 242 8.647
106 C4 243 8.647
106 C4 244 8.647
106 C4 245 8.647
106 C4 246 8.647
106 C4 247 8.647
106 C4 248 8.158
106 C4 249 7.182
106 C4 250 5.717
106 C4 251 4.252
106 C4 252 3.276
106 C4 253 2.787
106 C4 254 3.764
106 C4 255 5.717
# CP5 chan 18
106 CP5 0 3.011
106 CP5 1 3.988
106 CP5 2 5.941
106 CP5 3 8.382
106 CP5 4 9.847
106 CP5 5 10.335
106 CP5 6 10.824
106 CP5 7 10.335
106 CP5 8 8.870
106 CP5 9 6.917
106 CP5 10 3.988
106 CP5 11 1.546
106 CP5 12 0.570
106 CP5 13 0.570
106 CP5 14 1.058
106 CP5 15 0.570
106 CP5 16 0.570
106 CP5 17 0.081
106 CP5 18 0.081
106 CP5 19 1.058
106 CP5 20 2.523
106 CP5 21 3.988
106 CP5 22 4.476
106 CP5 23 3.988
106 CP5 24 2.523
106 CP5 25 1.546
106 CP5 26 0.570
106 CP5 27 1.058
106 CP5 28 2.035
106 CP5 29 3.988
106 CP5 30 5.452
106 CP5 31 6.917
106 CP5 32 7.894
106 CP5 33 8.870
106 CP5 34 10.335
106 CP5 35 11.312
106 CP5 36 10.824
106 CP5 37 9.359
106 CP5 38 6.917
106 CP5 39 4.476
106 CP5 40 2.523
106 CP5 41 2.523
106 CP5 42 3.011
106 CP5 43 3.499
106 CP5 44 4.476
106 CP5 45 5.941
106 CP5 46 7.894
106 CP5 47 10.824
106 CP5 48 13.753
106 CP5 49 15.218
106 CP5 50 13.753
106 CP5 51 9.847
106 CP5 52 4.476
106 CP5 53 0.081
106 CP5 54 -2.360
106 CP5 55 -2.360
106 CP5 56 -1.383
106 CP5 57 -0.407
106 CP5 58 -0.407
106 CP5 59 0.081
106 CP5 60 1.058
106 CP5 61 3.011
106 CP5 62 5.452
106 CP5 63 6.917
106 CP5 64 6.429
106 CP5 65 3.011
106 CP5 66 -2.360
106 CP5 67 -8.219
106 CP5 68 -12.614
106 CP5 69 -13.102
106 CP5 70 -10.173
106 CP5 71 -5.290
106 CP5 72 -0.407
106 CP5 73 3.011
106 CP5 74 3.499
106 CP5 75 3.499
106 CP5 76 3.988
106 CP5 77 4.964
106 CP5 78 5.941
106 CP5 79 5.452
106 CP5 80 3.011
106 CP5 81 0.081
106 CP5 82 -2.360
106 CP5 83 -3.337
106 CP5 84 -3.337
106 CP5 85 -2.848
106 CP5 86 -2.360
106 CP5 87 -0.895
106 CP5 88 1.058
106 CP5 89 3.988
106 CP5 90 5.941
106 CP5 91 7.406
106 CP5 92 7.894
106 CP5 93 7.406
106 CP5 94 6.917
106 CP5 95 6.429
106 CP5 96 5.941
106 CP5 97 5.452
106 CP5 98 4.476
106 CP5 99 3.011
106 CP5 100 1.546
106 CP5 101 -0.407
106 CP5 102 -0.895
106 CP5 103 0.081
106 CP5 104 2.523
106 CP5 105 4.476
106 CP5 106 5.452
106 CP5 107 4.476
106 CP5 108 1.546
106 CP5 109 -1.383
106 CP5 110 -2.360
106 CP5 111 -0.895
106 CP5 112 2.035
106 CP5 113 5.452
106 CP5 114 6.917
106 CP5 115 6.917
106 CP5 116 5.452
106 CP5 117 3.988
106 CP5 118 3.988
106 CP5 119 5.941
106 CP5 120 7.894
106 CP5 121 8.870
106 CP5 122 7.894
106 CP5 123 4.964
106 CP5 124 1.546
106 CP5 125 -0.895
106 CP5 126 -1.383
106 CP5 127 -0.407
106 CP5 128 1.546
106 CP5 129 3.499
106 CP5 130 3.988
106 CP5 131 3.011
106 CP5 132 1.058
106 CP5 133 -0.895
106 CP5 134 -1.872
106 CP5 135 -1.872
106 CP5 136 -1.872
106 CP5 137 -2.360
106 CP5 138 -3.337
106 CP5 139 -4.313
106 CP5 140 -5.290
106 CP5 141 -4.801
106 CP5 142 -4.801
106 CP5 143 -4.313
106 CP5 144 -4.313
106 CP5 145 -2.848
106 CP5 146 -0.895
106 CP5 147 1.546
106 CP5 148 2.523
106 CP5 149 1.058
106 CP5 150 -2.848
106 CP5 151 -7.243
106 CP5 152 -9.196
106 CP5 153 -9.196
106 CP5 154 -7.731
106 CP5 155 -6.755
106 CP5 156 -7.243
106 CP5 157 -8.219
106 CP5 158 -8.219
106 CP5 159 -7.243
106 CP5 160 -5.290
106 CP5 161 -3.825
106 CP5 162 -3.337
106 CP5 163 -4.801
106 CP5 164 -7.243
106 CP5 165 -9.684
106 CP5 166 -11.149
106 CP5 167 -12.126
106 CP5 168 -12.126
106 CP5 169 -12.126
106 CP5 170 -11.149
106 CP5 171 -9.684
106 CP5 172 -8.708
106 CP5 173 -8.219
106 CP5 174 -8.219
106 CP5 175 -7.731
106 CP5 176 -6.755
106 CP5 177 -5.290
106 CP5 178 -4.801
106 CP5 179 -5.290
106 CP5 180 -6.755
106 CP5 181 -8.219
106 CP5 182 -8.219
106 CP5 183 -6.755
106 CP5 184 -4.801
106 CP5 185 -2.848
106 CP5 186 -1.872
106 CP5 187 -0.895
106 CP5 188 -0.407
106 CP5 189 0.081
106 CP5 190 0.570
106 CP5 191 0.081
106 CP5 192 -1.383
106 CP5 193 -3.337
106 CP5 194 -5.290
106 CP5 195 -5.778
106 CP5 196 -5.290
106 CP5 197 -3.337
106 CP5 198 -1.872
106 CP5 199 -1.383
106 CP5 200 -1.383
106 CP5 201 -1.383
106 CP5 202 -0.407
106 CP5 203 1.546
106 CP5 204 3.499
106 CP5 205 4.476
106 CP5 206 4.476
106 CP5 207 3.499
106 CP5 208 2.035
106 CP5 209 0.570
106 CP5 210 -0.407
106 CP5 211 -0.407
106 CP5 212 0.081
106 CP5 213 1.546
106 CP5 214 3.011
106 CP5 215 3.499
106 CP5 216 3.011
106 CP5 217 1.058
106 CP5 218 -0.895
106 CP5 219 -2.360
106 CP5 220 -2.360
106 CP5 221 -1.383
106 CP5 222 -0.895
106 CP5 223 -0.407
106 CP5 224 -0.895
106 CP5 225 -2.360
106 CP5 226 -4.313
106 CP5 227 -5.290
106 CP5 228 -5.290
106 CP5 229 -3.825
106 CP5 230 -1.383
106 CP5 231 1.058
106 CP5 232 2.523
106 CP5 233 3.011
106 CP5 234 2.035
106 CP5 235 -0.407
106 CP5 236 -3.337
106 CP5 237 -6.755
106 CP5 238 -9.196
106 CP5 239 -9.196
106 CP5 240 -8.708
106 CP5 241 -7.243
106 CP5 242 -6.266
106 CP5 243 -6.266
106 CP5 244 -5.290
106 CP5 245 -3.825
106 CP5 246 -0.895
106 CP5 247 2.035
106 CP5 248 3.499
106 CP5 249 3.499
106 CP5 250 1.546
106 CP5 251 0.081
106 CP5 252 0.081
106 CP5 253 2.035
106 CP5 254 3.499
106 CP5 255 3.011
# CP6 chan 19
106 CP6 0 -3.754
106 CP6 1 -3.754
106 CP6 2 -3.265
106 CP6 3 -1.801
106 CP6 4 -0.824
106 CP6 5 -0.336
106 CP6 6 -0.336
106 CP6 7 -0.824
106 CP6 8 -1.312
106 CP6 9 -1.312
106 CP6 10 -1.312
106 CP6 11 -2.289
106 CP6 12 -4.242
106 CP6 13 -7.660
106 CP6 14 -11.566
106 CP6 15 -13.519
106 CP6 16 -14.496
106 CP6 17 -12.054
106 CP6 18 -9.613
106 CP6 19 -6.683
106 CP6 20 -4.730
106 CP6 21 -3.754
106 CP6 22 -3.265
106 CP6 23 -3.754
106 CP6 24 -4.242
106 CP6 25 -4.242
106 CP6 26 -4.242
106 CP6 27 -3.265
106 CP6 28 -2.289
106 CP6 29 -1.312
106 CP6 30 -1.801
106 CP6 31 -3.265
106 CP6 32 -4.242
106 CP6 33 -5.219
106 CP6 34 -5.707
106 CP6 35 -6.683
106 CP6 36 -8.148
106 CP6 37 -10.590
106 CP6 38 -12.543
106 CP6 39 -13.519
106 CP6 40 -12.543
106 CP6 41 -11.566
106 CP6 42 -10.101
106 CP6 43 -10.101
106 CP6 44 -11.078
106 CP6 45 -12.054
106 CP6 46 -12.543
106 CP6 47 -11.566
106 CP6 48 -9.613
106 CP6 49 -8.148
106 CP6 50 -7.172
106 CP6 51 -7.660
106 CP6 52 -8.148
106 CP6 53 -9.613
106 CP6 54 -11.078
106 CP6 55 -12.054
106 CP6 56 -13.519
106 CP6 57 -14.008
106 CP6 58 -13.031
106 CP6 59 -10.590
106 CP6 60 -7.172
106 CP6 61 -3.754
106 CP6 62 -1.801
106 CP6 63 -0.824
106 CP6 64 -0.824
106 CP6 65 -1.312
106 CP6 66 -2.289
106 CP6 67 -3.754
106 CP6 68 -5.707
106 CP6 69 -7.172
106 CP6 70 -7.660
106 CP6 71 -6.195
106 CP6 72 -3.754
106 CP6 73 -0.336
106 CP6 74 2.594
106 CP6 75 4.059
106 CP6 76 5.035
106 CP6 77 4.547
106 CP6 78 4.059
106 CP6 79 2.594
106 CP6 80 1.129
106 CP6 81 -0.824
106 CP6 82 -2.289
106 CP6 83 -2.777
106 CP6 84 -2.777
106 CP6 85 -1.312
106 CP6 86 0.153
106 CP6 87 2.106
106 CP6 88 4.059
106 CP6 89 6.012
106 CP6 90 7.477
106 CP6 91 8.453
106 CP6 92 7.477
106 CP6 93 4.059
106 CP6 94 -0.824
106 CP6 95 -6.195
106 CP6 96 -10.590
106 CP6 97 -12.054
106 CP6 98 -11.566
106 CP6 99 -9.125
106 CP6 100 -7.660
106 CP6 101 -7.172
106 CP6 102 -7.172
106 CP6 103 -7.172
106 CP6 104 -6.683
106 CP6 105 -5.707
106 CP6 106 -4.242
106 CP6 107 -3.754
106 CP6 108 -3.754
106 CP6 109 -4.242
106 CP6 110 -5.707
106 CP6 111 -6.195
106 CP6 112 -7.172
106 CP6 113 -7.660
106 CP6 114 -7.660
106 CP6 115 -6.683
106 CP6 116 -5.219
106 CP6 117 -3.754
106 CP6 118 -2.289
106 CP6 119 -0.824
106 CP6 120 -0.336
106 CP6 121 0.153
106 CP6 122 1.129
106 CP6 123 2.106
106 CP6 124 2.594
106 CP6 125 2.594
106 CP6 126 1.129
106 CP6 127 -0.824
106 CP6 128 -3.265
106 CP6 129 -4.730
106 CP6 130 -4.730
106 CP6 131 -3.754
106 CP6 132 -2.777
106 CP6 133 -1.312
106 CP6 134 -0.824
106 CP6 135 -1.312
106 CP6 136 -1.801
106 CP6 137 -2.777
106 CP6 138 -3.265
106 CP6 139 -3.265
106 CP6 140 -2.777
106 CP6 141 -2.777
106 CP6 142 -4.242
106 CP6 143 -5.707
106 CP6 144 -6.683
106 CP6 145 -6.683
106 CP6 146 -5.219
106 CP6 147 -4.242
106 CP6 148 -3.754
106 CP6 149 -4.730
106 CP6 150 -6.683
106 CP6 151 -8.636
106 CP6 152 -10.101
106 CP6 153 -11.078
106 CP6 154 -11.566
106 CP6 155 -11.566
106 CP6 156 -11.566
106 CP6 157 -10.590
106 CP6 158 -9.613
106 CP6 159 -8.636
106 CP6 160 -8.148
106 CP6 161 -8.148
106 CP6 162 -8.148
106 CP6 163 -8.148
106 CP6 164 -7.660
106 CP6 165 -7.660
106 CP6 166 -7.660
106 CP6 167 -6.683
106 CP6 168 -6.195
106 CP6 169 -4.242
106 CP6 170 -1.801
106 CP6 171 0.153
106 CP6 172 2.106
106 CP6 173 3.571
106 CP6 174 4.547
106 CP6 175 5.524
106 CP6 176 6.012
106 CP6 177 6.012
106 CP6 178 5.524
106 CP6 179 4.547
106 CP6 180 3.571
106 CP6 181 3.082
106 CP6 182 3.082
106 CP6 183 3.571
106 CP6 184 3.571
106 CP6 185 3.082
106 CP6 186 1.617
106 CP6 187 0.153
106 CP6 188 0.153
106 CP6 189 0.153
106 CP6 190 1.129
106 CP6 191 2.106
106 CP6 192 2.106
106 CP6 193 2.106
106 CP6 194 1.617
106 CP6 195 0.641
106 CP6 196 -0.336
106 CP6 197 -1.801
106 CP6 198 -3.754
106 CP6 199 -4.730
106 CP6 200 -4.730
106 CP6 201 -3.265
106 CP6 202 -1.801
106 CP6 203 0.153
106 CP6 204 1.617
106 CP6 205 2.106
106 CP6 206 3.082
106 CP6 207 3.082
106 CP6 208 2.594
106 CP6 209 1.617
106 CP6 210 -1.312
106 CP6 211 -3.754
106 CP6 212 -6.683
106 CP6 213 -7.660
106 CP6 214 -7.660
106 CP6 215 -6.195
106 CP6 216 -4.730
106 CP6 217 -3.754
106 CP6 218 -2.777
106 CP6 219 -2.777
106 CP6 220 -2.777
106 CP6 221 -2.777
106 CP6 222 -3.265
106 CP6 223 -2.777
106 CP6 224 -2.777
106 CP6 225 -2.777
106 CP6 226 -3.265
106 CP6 227 -3.754
106 CP6 228 -4.242
106 CP6 229 -4.242
106 CP6 230 -4.242
106 CP6 231 -3.754
106 CP6 232 -3.754
106 CP6 233 -4.730
106 CP6 234 -6.195
106 CP6 235 -7.660
106 CP6 236 -8.636
106 CP6 237 -8.148
106 CP6 238 -6.195
106 CP6 239 -3.754
106 CP6 240 -2.289
106 CP6 241 -1.312
106 CP6 242 -1.801
106 CP6 243 -2.777
106 CP6 244 -4.242
106 CP6 245 -5.219
106 CP6 246 -5.707
106 CP6 247 -6.195
106 CP6 248 -6.683
106 CP6 249 -6.683
106 CP6 250 -7.172
106 CP6 251 -7.660
106 CP6 252 -8.148
106 CP6 253 -7.660
106 CP6 254 -5.707
106 CP6 255 -2.289
# CP1 chan 20
106 CP1 0 0.885
106 CP1 1 1.373
106 CP1 2 2.350
106 CP1 3 4.303
106 CP1 4 6.256
106 CP1 5 7.233
106 CP1 6 7.721
106 CP1 7 7.233
106 CP1 8 6.256
106 CP1 9 5.280
106 CP1 10 4.303
106 CP1 11 3.326
106 CP1 12 2.838
106 CP1 13 2.350
106 CP1 14 1.373
106 CP1 15 0.397
106 CP1 16 -1.068
106 CP1 17 -2.045
106 CP1 18 -1.556
106 CP1 19 -1.068
106 CP1 20 0.397
106 CP1 21 1.862
106 CP1 22 2.350
106 CP1 23 2.350
106 CP1 24 1.862
106 CP1 25 1.373
106 CP1 26 1.373
106 CP1 27 0.885
106 CP1 28 0.885
106 CP1 29 0.397
106 CP1 30 0.397
106 CP1 31 0.397
106 CP1 32 0.397
106 CP1 33 1.373
106 CP1 34 2.350
106 CP1 35 2.838
106 CP1 36 3.326
106 CP1 37 3.326
106 CP1 38 3.326
106 CP1 39 2.838
106 CP1 40 2.838
106 CP1 41 2.350
106 CP1 42 2.350
106 CP1 43 2.838
106 CP1 44 2.838
106 CP1 45 2.838
106 CP1 46 2.838
106 CP1 47 3.326
106 CP1 48 4.303
106 CP1 49 4.791
106 CP1 50 5.280
106 CP1 51 4.791
106 CP1 52 3.326
106 CP1 53 1.373
106 CP1 54 -0.580
106 CP1 55 -1.556
106 CP1 56 -2.045
106 CP1 57 -1.556
106 CP1 58 -1.068
106 CP1 59 -0.092
106 CP1 60 0.397
106 CP1 61 0.885
106 CP1 62 0.885
106 CP1 63 0.885
106 CP1 64 0.885
106 CP1 65 0.397
106 CP1 66 -0.580
106 CP1 67 -2.045
106 CP1 68 -3.510
106 CP1 69 -3.998
106 CP1 70 -3.021
106 CP1 71 -0.580
106 CP1 72 1.373
106 CP1 73 2.350
106 CP1 74 2.350
106 CP1 75 1.862
106 CP1 76 1.373
106 CP1 77 1.862
106 CP1 78 2.350
106 CP1 79 2.350
106 CP1 80 1.862
106 CP1 81 -0.092
106 CP1 82 -1.068
106 CP1 83 -2.045
106 CP1 84 -2.045
106 CP1 85 -1.556
106 CP1 86 -1.068
106 CP1 87 -0.580
106 CP1 88 0.397
106 CP1 89 0.885
106 CP1 90 1.862
106 CP1 91 1.862
106 CP1 92 1.862
106 CP1 93 0.885
106 CP1 94 0.397
106 CP1 95 -0.580
106 CP1 96 -1.556
106 CP1 97 -1.556
106 CP1 98 -1.068
106 CP1 99 -0.580
106 CP1 100 -0.092
106 CP1 101 -0.092
106 CP1 102 -0.092
106 CP1 103 -0.092
106 CP1 104 -0.092
106 CP1 105 0.397
106 CP1 106 0.885
106 CP1 107 1.373
106 CP1 108 1.373
106 CP1 109 1.862
106 CP1 110 2.350
106 CP1 111 2.838
106 CP1 112 3.326
106 CP1 113 3.815
106 CP1 114 3.815
106 CP1 115 4.303
106 CP1 116 4.303
106 CP1 117 4.791
106 CP1 118 4.791
106 CP1 119 5.280
106 CP1 120 5.768
106 CP1 121 6.256
106 CP1 122 7.233
106 CP1 123 7.233
106 CP1 124 6.744
106 CP1 125 5.280
106 CP1 126 3.326
106 CP1 127 2.350
106 CP1 128 2.350
106 CP1 129 2.838
106 CP1 130 4.303
106 CP1 131 4.791
106 CP1 132 4.303
106 CP1 133 3.326
106 CP1 134 1.862
106 CP1 135 0.885
106 CP1 136 0.885
106 CP1 137 1.862
106 CP1 138 2.838
106 CP1 139 3.815
106 CP1 140 4.303
106 CP1 141 4.303
106 CP1 142 3.815
106 CP1 143 4.303
106 CP1 144 4.303
106 CP1 145 5.280
106 CP1 146 5.280
106 CP1 147 5.280
106 CP1 148 4.791
106 CP1 149 3.815
106 CP1 150 3.815
106 CP1 151 3.326
106 CP1 152 3.326
106 CP1 153 2.838
106 CP1 154 2.350
106 CP1 155 1.862
106 CP1 156 1.373
106 CP1 157 1.373
106 CP1 158 1.862
106 CP1 159 2.838
106 CP1 160 4.303
106 CP1 161 5.280
106 CP1 162 5.768
106 CP1 163 5.768
106 CP1 164 4.791
106 CP1 165 3.326
106 CP1 166 2.350
106 CP1 167 1.373
106 CP1 168 0.397
106 CP1 169 0.397
106 CP1 170 0.397
106 CP1 171 0.885
106 CP1 172 1.373
106 CP1 173 1.862
106 CP1 174 1.862
106 CP1 175 1.862
106 CP1 176 2.350
106 CP1 177 3.326
106 CP1 178 3.815
106 CP1 179 3.815
106 CP1 180 3.326
106 CP1 181 3.815
106 CP1 182 4.303
106 CP1 183 5.280
106 CP1 184 5.280
106 CP1 185 5.280
106 CP1 186 5.280
106 CP1 187 4.791
106 CP1 188 4.791
106 CP1 189 5.280
106 CP1 190 5.280
106 CP1 191 4.303
106 CP1 192 3.326
106 CP1 193 2.838
106 CP1 194 2.838
106 CP1 195 3.815
106 CP1 196 4.303
106 CP1 197 4.303
106 CP1 198 4.303
106 CP1 199 4.303
106 CP1 200 4.303
106 CP1 201 5.768
106 CP1 202 7.233
106 CP1 203 8.209
106 CP1 204 8.698
106 CP1 205 8.698
106 CP1 206 8.698
106 CP1 207 8.209
106 CP1 208 7.721
106 CP1 209 7.233
106 CP1 210 7.233
106 CP1 211 7.233
106 CP1 212 8.209
106 CP1 213 9.186
106 CP1 214 10.162
106 CP1 215 11.139
106 CP1 216 11.139
106 CP1 217 11.139
106 CP1 218 10.651
106 CP1 219 9.674
106 CP1 220 9.186
106 CP1 221 8.209
106 CP1 222 7.721
106 CP1 223 7.233
106 CP1 224 6.744
106 CP1 225 7.233
106 CP1 226 7.233
106 CP1 227 7.721
106 CP1 228 7.721
106 CP1 229 7.721
106 CP1 230 7.721
106 CP1 231 8.209
106 CP1 232 9.186
106 CP1 233 10.162
106 CP1 234 10.162
106 CP1 235 9.674
106 CP1 236 7.721
106 CP1 237 5.768
106 CP1 238 4.791
106 CP1 239 5.280
106 CP1 240 6.256
106 CP1 241 7.721
106 CP1 242 7.721
106 CP1 243 7.233
106 CP1 244 6.256
106 CP1 245 6.744
106 CP1 246 8.209
106 CP1 247 9.674
106 CP1 248 10.162
106 CP1 249 9.674
106 CP1 250 9.186
106 CP1 251 9.186
106 CP1 252 9.674
106 CP1 253 11.139
106 CP1 254 11.627
106 CP1 255 11.139
# CP2 chan 21
106 CP2 0 -3.062
106 CP2 1 -3.062
106 CP2 2 -2.574
106 CP2 3 -1.597
106 CP2 4 -0.621
106 CP2 5 -0.132
106 CP2 6 -0.132
106 CP2 7 0.356
106 CP2 8 0.356
106 CP2 9 0.356
106 CP2 10 -0.132
106 CP2 11 -0.621
106 CP2 12 -1.597
106 CP2 13 -2.574
106 CP2 14 -3.550
106 CP2 15 -3.550
106 CP2 16 -3.550
106 CP2 17 -2.574
106 CP2 18 -1.597
106 CP2 19 -0.621
106 CP2 20 -0.132
106 CP2 21 -0.621
106 CP2 22 -1.109
106 CP2 23 -2.085
106 CP2 24 -2.085
106 CP2 25 -2.085
106 CP2 26 -2.085
106 CP2 27 -1.597
106 CP2 28 -1.597
106 CP2 29 -2.574
106 CP2 30 -3.550
106 CP2 31 -3.550
106 CP2 32 -3.550
106 CP2 33 -3.062
106 CP2 34 -2.574
106 CP2 35 -2.574
106 CP2 36 -3.062
106 CP2 37 -3.550
106 CP2 38 -4.038
106 CP2 39 -3.550
106 CP2 40 -2.574
106 CP2 41 -1.597
106 CP2 42 -1.109
106 CP2 43 -1.109
106 CP2 44 -2.085
106 CP2 45 -3.550
106 CP2 46 -4.038
106 CP2 47 -3.550
106 CP2 48 -2.574
106 CP2 49 -2.085
106 CP2 50 -1.597
106 CP2 51 -2.085
106 CP2 52 -2.574
106 CP2 53 -3.062
106 CP2 54 -4.038
106 CP2 55 -5.015
106 CP2 56 -5.992
106 CP2 57 -5.992
106 CP2 58 -5.015
106 CP2 59 -3.550
106 CP2 60 -1.597
106 CP2 61 -0.132
106 CP2 62 0.844
106 CP2 63 0.844
106 CP2 64 1.333
106 CP2 65 1.821
106 CP2 66 1.821
106 CP2 67 1.821
106 CP2 68 1.333
106 CP2 69 0.844
106 CP2 70 1.333
106 CP2 71 2.309
106 CP2 72 3.286
106 CP2 73 4.262
106 CP2 74 4.262
106 CP2 75 4.262
106 CP2 76 3.774
106 CP2 77 3.774
106 CP2 78 4.262
106 CP2 79 4.262
106 CP2 80 4.262
106 CP2 81 3.774
106 CP2 82 3.774
106 CP2 83 4.262
106 CP2 84 4.751
106 CP2 85 5.239
106 CP2 86 5.727
106 CP2 87 5.727
106 CP2 88 6.215
106 CP2 89 7.192
106 CP2 90 8.169
106 CP2 91 8.169
106 CP2 92 7.680
106 CP2 93 5.727
106 CP2 94 3.286
106 CP2 95 1.333
106 CP2 96 -0.621
106 CP2 97 -1.597
106 CP2 98 -1.109
106 CP2 99 -0.132
106 CP2 100 0.356
106 CP2 101 0.356
106 CP2 102 -0.132
106 CP2 103 -0.621
106 CP2 104 -0.621
106 CP2 105 -0.132
106 CP2 106 1.333
106 CP2 107 2.309
106 CP2 108 2.797
106 CP2 109 2.797
106 CP2 110 2.309
106 CP2 111 1.821
106 CP2 112 1.821
106 CP2 113 2.309
106 CP2 114 2.797
106 CP2 115 3.774
106 CP2 116 5.239
106 CP2 117 5.727
106 CP2 118 5.727
106 CP2 119 5.727
106 CP2 120 5.727
106 CP2 121 5.727
106 CP2 122 6.704
106 CP2 123 7.680
106 CP2 124 7.680
106 CP2 125 7.192
106 CP2 126 5.239
106 CP2 127 4.262
106 CP2 128 3.286
106 CP2 129 4.262
106 CP2 130 5.239
106 CP2 131 6.215
106 CP2 132 6.704
106 CP2 133 6.704
106 CP2 134 6.704
106 CP2 135 6.704
106 CP2 136 6.215
106 CP2 137 6.215
106 CP2 138 6.215
106 CP2 139 5.727
106 CP2 140 5.239
106 CP2 141 4.262
106 CP2 142 2.797
106 CP2 143 1.821
106 CP2 144 0.844
106 CP2 145 0.844
106 CP2 146 0.844
106 CP2 147 1.333
106 CP2 148 1.333
106 CP2 149 1.333
106 CP2 150 0.844
106 CP2 151 0.356
106 CP2 152 -0.621
106 CP2 153 -1.597
106 CP2 154 -1.597
106 CP2 155 -1.109
106 CP2 156 -0.132
106 CP2 157 0.356
106 CP2 158 0.356
106 CP2 159 0.356
106 CP2 160 0.356
106 CP2 161 0.844
106 CP2 162 1.821
106 CP2 163 2.797
106 CP2 164 3.286
106 CP2 165 2.797
106 CP2 166 2.309
106 CP2 167 1.821
106 CP2 168 1.821
106 CP2 169 2.309
106 CP2 170 2.309
106 CP2 171 3.286
106 CP2 172 4.262
106 CP2 173 5.727
106 CP2 174 7.192
106 CP2 175 7.680
106 CP2 176 7.680
106 CP2 177 6.704
106 CP2 178 5.727
106 CP2 179 4.751
106 CP2 180 4.262
106 CP2 181 3.774
106 CP2 182 3.774
106 CP2 183 4.262
106 CP2 184 4.751
106 CP2 185 5.239
106 CP2 186 5.239
106 CP2 187 5.239
106 CP2 188 4.751
106 CP2 189 4.751
106 CP2 190 4.751
106 CP2 191 5.239
106 CP2 192 5.239
106 CP2 193 4.751
106 CP2 194 4.751
106 CP2 195 4.751
106 CP2 196 4.751
106 CP2 197 3.774
106 CP2 198 2.797
106 CP2 199 2.309
106 CP2 200 2.309
106 CP2 201 2.797
106 CP2 202 3.774
106 CP2 203 4.262
106 CP2 204 4.751
106 CP2 205 4.751
106 CP2 206 4.751
106 CP2 207 5.239
106 CP2 208 4.751
106 CP2 209 3.774
106 CP2 210 2.797
106 CP2 211 1.333
106 CP2 212 0.844
106 CP2 213 0.844
106 CP2 214 1.333
106 CP2 215 1.821
106 CP2 216 2.309
106 CP2 217 3.286
106 CP2 218 3.774
106 CP2 219 3.286
106 CP2 220 2.797
106 CP2 221 1.821
106 CP2 222 0.844
106 CP2 223 0.356
106 CP2 224 0.356
106 CP2 225 1.333
106 CP2 226 1.821
106 CP2 227 1.821
106 CP2 228 1.333
106 CP2 229 0.844
106 CP2 230 0.844
106 CP2 231 1.333
106 CP2 232 1.821
106 CP2 233 1.333
106 CP2 234 0.356
106 CP2 235 -0.621
106 CP2 236 -1.597
106 CP2 237 -1.597
106 CP2 238 -0.621
106 CP2 239 0.356
106 CP2 240 1.333
106 CP2 241 1.821
106 CP2 242 1.333
106 CP2 243 0.356
106 CP2 244 -0.132
106 CP2 245 -0.621
106 CP2 246 -1.109
106 CP2 247 -0.621
106 CP2 248 -0.621
106 CP2 249 -0.621
106 CP2 250 -1.109
106 CP2 251 -1.597
106 CP2 252 -2.574
106 CP2 253 -2.574
106 CP2 254 -2.085
106 CP2 255 -0.621
# P3 chan 22
106 P3 0 1.862
106 P3 1 2.838
106 P3 2 4.791
106 P3 3 6.256
106 P3 4 8.209
106 P3 5 9.674
106 P3 6 11.139
106 P3 7 10.651
106 P3 8 9.186
106 P3 9 6.256
106 P3 10 3.815
106 P3 11 1.862
106 P3 12 1.373
106 P3 13 0.397
106 P3 14 -0.092
106 P3 15 -0.580
106 P3 16 -2.045
106 P3 17 -2.045
106 P3 18 -1.068
106 P3 19 1.373
106 P3 20 3.815
106 P3 21 5.280
106 P3 22 5.280
106 P3 23 5.280
106 P3 24 5.768
106 P3 25 6.256
106 P3 26 6.744
106 P3 27 6.744
106 P3 28 5.280
106 P3 29 3.815
106 P3 30 2.350
106 P3 31 1.862
106 P3 32 2.350
106 P3 33 4.303
106 P3 34 5.768
106 P3 35 6.256
106 P3 36 6.744
106 P3 37 6.744
106 P3 38 6.256
106 P3 39 5.768
106 P3 40 4.791
106 P3 41 3.815
106 P3 42 2.838
106 P3 43 1.862
106 P3 44 1.862
106 P3 45 3.815
106 P3 46 6.744
106 P3 47 10.651
106 P3 48 13.580
106 P3 49 14.557
106 P3 50 13.580
106 P3 51 11.139
106 P3 52 7.721
106 P3 53 3.815
106 P3 54 -0.092
106 P3 55 -3.021
106 P3 56 -4.486
106 P3 57 -3.510
106 P3 58 -1.068
106 P3 59 1.373
106 P3 60 3.815
106 P3 61 5.280
106 P3 62 6.256
106 P3 63 6.744
106 P3 64 6.744
106 P3 65 4.791
106 P3 66 1.373
106 P3 67 -3.021
106 P3 68 -5.951
106 P3 69 -4.974
106 P3 70 -1.556
106 P3 71 3.326
106 P3 72 6.744
106 P3 73 8.209
106 P3 74 7.721
106 P3 75 7.233
106 P3 76 7.233
106 P3 77 6.744
106 P3 78 5.768
106 P3 79 4.303
106 P3 80 1.862
106 P3 81 0.397
106 P3 82 -0.092
106 P3 83 -0.092
106 P3 84 0.885
106 P3 85 1.862
106 P3 86 3.326
106 P3 87 5.280
106 P3 88 6.744
106 P3 89 8.209
106 P3 90 8.698
106 P3 91 9.186
106 P3 92 9.674
106 P3 93 10.162
106 P3 94 9.674
106 P3 95 8.209
106 P3 96 6.256
106 P3 97 4.791
106 P3 98 3.326
106 P3 99 2.350
106 P3 100 0.885
106 P3 101 -0.580
106 P3 102 -2.045
106 P3 103 -1.556
106 P3 104 0.397
106 P3 105 1.862
106 P3 106 3.326
106 P3 107 3.326
106 P3 108 1.862
106 P3 109 0.397
106 P3 110 0.397
106 P3 111 1.373
106 P3 112 3.326
106 P3 113 5.768
106 P3 114 7.721
106 P3 115 9.186
106 P3 116 8.698
106 P3 117 7.721
106 P3 118 6.744
106 P3 119 6.256
106 P3 120 7.721
106 P3 121 9.674
106 P3 122 10.651
106 P3 123 9.186
106 P3 124 6.256
106 P3 125 2.838
106 P3 126 0.397
106 P3 127 -0.092
106 P3 128 1.373
106 P3 129 3.815
106 P3 130 5.768
106 P3 131 6.256
106 P3 132 5.768
106 P3 133 4.791
106 P3 134 3.815
106 P3 135 2.838
106 P3 136 2.350
106 P3 137 1.862
106 P3 138 1.862
106 P3 139 0.885
106 P3 140 -0.092
106 P3 141 -1.068
106 P3 142 -2.045
106 P3 143 -2.533
106 P3 144 -2.045
106 P3 145 -0.580
106 P3 146 1.373
106 P3 147 1.862
106 P3 148 1.862
106 P3 149 0.397
106 P3 150 -1.068
106 P3 151 -2.045
106 P3 152 -2.533
106 P3 153 -3.510
106 P3 154 -4.974
106 P3 155 -6.439
106 P3 156 -7.904
106 P3 157 -7.416
106 P3 158 -5.463
106 P3 159 -3.021
106 P3 160 -1.068
106 P3 161 -0.092
106 P3 162 -0.580
106 P3 163 -2.045
106 P3 164 -3.998
106 P3 165 -4.974
106 P3 166 -5.951
106 P3 167 -6.439
106 P3 168 -6.439
106 P3 169 -6.439
106 P3 170 -6.439
106 P3 171 -5.951
106 P3 172 -5.463
106 P3 173 -4.974
106 P3 174 -3.998
106 P3 175 -3.510
106 P3 176 -2.533
106 P3 177 -2.045
106 P3 178 -2.045
106 P3 179 -2.045
106 P3 180 -2.533
106 P3 181 -2.533
106 P3 182 -3.021
106 P3 183 -3.510
106 P3 184 -3.998
106 P3 185 -3.998
106 P3 186 -2.533
106 P3 187 -1.068
106 P3 188 -0.092
106 P3 189 -0.092
106 P3 190 -1.556
106 P3 191 -3.021
106 P3 192 -4.486
106 P3 193 -4.486
106 P3 194 -3.998
106 P3 195 -3.510
106 P3 196 -3.021
106 P3 197 -3.510
106 P3 198 -3.510
106 P3 199 -3.021
106 P3 200 -2.045
106 P3 201 -1.068
106 P3 202 -0.580
106 P3 203 -0.092
106 P3 204 0.885
106 P3 205 2.350
106 P3 206 3.815
106 P3 207 3.815
106 P3 208 1.862
106 P3 209 -0.092
106 P3 210 -2.045
106 P3 211 -2.533
106 P3 212 -1.068
106 P3 213 0.885
106 P3 214 2.838
106 P3 215 2.838
106 P3 216 1.373
106 P3 217 -0.092
106 P3 218 -1.068
106 P3 219 -2.045
106 P3 220 -3.021
106 P3 221 -3.998
106 P3 222 -4.974
106 P3 223 -4.486
106 P3 224 -3.021
106 P3 225 -1.556
106 P3 226 -1.068
106 P3 227 -2.045
106 P3 228 -3.021
106 P3 229 -3.510
106 P3 230 -2.045
106 P3 231 -0.092
106 P3 232 1.862
106 P3 233 1.862
106 P3 234 -1.068
106 P3 235 -3.998
106 P3 236 -6.927
106 P3 237 -8.392
106 P3 238 -8.392
106 P3 239 -7.904
106 P3 240 -6.927
106 P3 241 -5.951
106 P3 242 -5.463
106 P3 243 -5.463
106 P3 244 -5.463
106 P3 245 -5.951
106 P3 246 -5.463
106 P3 247 -3.998
106 P3 248 -2.533
106 P3 249 -1.068
106 P3 250 -0.092
106 P3 251 0.885
106 P3 252 0.885
106 P3 253 0.885
106 P3 254 -0.092
106 P3 255 -1.556
# P4 chan 23
106 P4 0 -6.022
106 P4 1 -4.557
106 P4 2 -3.092
106 P4 3 -1.139
106 P4 4 -0.163
106 P4 5 0.326
106 P4 6 0.326
106 P4 7 0.326
106 P4 8 0.326
106 P4 9 -0.163
106 P4 10 -1.139
106 P4 11 -3.092
106 P4 12 -6.022
106 P4 13 -8.464
106 P4 14 -9.928
106 P4 15 -9.928
106 P4 16 -8.952
106 P4 17 -6.510
106 P4 18 -3.581
106 P4 19 -0.163
106 P4 20 2.279
106 P4 21 4.232
106 P4 22 4.720
106 P4 23 4.232
106 P4 24 3.743
106 P4 25 3.255
106 P4 26 3.743
106 P4 27 3.743
106 P4 28 2.767
106 P4 29 0.814
106 P4 30 -1.628
106 P4 31 -2.604
106 P4 32 -2.116
106 P4 33 -1.139
106 P4 34 -0.163
106 P4 35 -0.163
106 P4 36 -0.651
106 P4 37 -1.628
106 P4 38 -2.604
106 P4 39 -2.116
106 P4 40 -1.628
106 P4 41 -1.628
106 P4 42 -2.116
106 P4 43 -3.581
106 P4 44 -4.557
106 P4 45 -5.046
106 P4 46 -3.581
106 P4 47 -1.628
106 P4 48 0.814
106 P4 49 2.279
106 P4 50 2.279
106 P4 51 0.814
106 P4 52 -1.139
106 P4 53 -3.092
106 P4 54 -4.557
106 P4 55 -6.022
106 P4 56 -6.999
106 P4 57 -6.510
106 P4 58 -5.046
106 P4 59 -2.604
106 P4 60 1.302
106 P4 61 4.232
106 P4 62 5.697
106 P4 63 5.697
106 P4 64 5.697
106 P4 65 5.208
106 P4 66 4.232
106 P4 67 3.743
106 P4 68 2.767
106 P4 69 2.767
106 P4 70 4.232
106 P4 71 7.161
106 P4 72 10.091
106 P4 73 12.533
106 P4 74 13.509
106 P4 75 13.509
106 P4 76 12.533
106 P4 77 11.556
106 P4 78 10.091
106 P4 79 9.115
106 P4 80 7.161
106 P4 81 5.697
106 P4 82 4.720
106 P4 83 4.720
106 P4 84 5.208
106 P4 85 6.673
106 P4 86 8.138
106 P4 87 10.091
106 P4 88 12.533
106 P4 89 14.974
106 P4 90 17.904
106 P4 91 18.880
106 P4 92 17.904
106 P4 93 13.997
106 P4 94 8.626
106 P4 95 3.255
106 P4 96 -0.163
106 P4 97 -1.628
106 P4 98 -0.651
106 P4 99 0.326
106 P4 100 0.814
106 P4 101 -0.163
106 P4 102 -0.651
106 P4 103 -0.651
106 P4 104 0.326
106 P4 105 1.302
106 P4 106 2.279
106 P4 107 2.279
106 P4 108 2.279
106 P4 109 1.790
106 P4 110 1.302
106 P4 111 0.814
106 P4 112 0.814
106 P4 113 1.302
106 P4 114 1.790
106 P4 115 3.743
106 P4 116 6.185
106 P4 117 7.650
106 P4 118 8.626
106 P4 119 9.115
106 P4 120 8.626
106 P4 121 8.626
106 P4 122 9.115
106 P4 123 10.091
106 P4 124 9.603
106 P4 125 7.650
106 P4 126 5.208
106 P4 127 2.767
106 P4 128 1.790
106 P4 129 1.790
106 P4 130 3.255
106 P4 131 4.232
106 P4 132 5.697
106 P4 133 6.185
106 P4 134 6.185
106 P4 135 4.720
106 P4 136 3.255
106 P4 137 1.790
106 P4 138 1.790
106 P4 139 2.279
106 P4 140 3.255
106 P4 141 3.255
106 P4 142 2.279
106 P4 143 0.814
106 P4 144 -0.163
106 P4 145 -0.163
106 P4 146 0.326
106 P4 147 1.302
106 P4 148 1.302
106 P4 149 0.326
106 P4 150 -0.651
106 P4 151 -2.116
106 P4 152 -4.069
106 P4 153 -5.534
106 P4 154 -6.510
106 P4 155 -6.510
106 P4 156 -6.510
106 P4 157 -6.022
106 P4 158 -5.046
106 P4 159 -4.557
106 P4 160 -4.069
106 P4 161 -3.581
106 P4 162 -3.581
106 P4 163 -3.581
106 P4 164 -4.069
106 P4 165 -4.069
106 P4 166 -4.069
106 P4 167 -3.092
106 P4 168 -2.116
106 P4 169 -0.651
106 P4 170 0.814
106 P4 171 2.767
106 P4 172 4.232
106 P4 173 5.697
106 P4 174 7.161
106 P4 175 7.650
106 P4 176 7.650
106 P4 177 7.161
106 P4 178 7.161
106 P4 179 6.673
106 P4 180 6.185
106 P4 181 5.208
106 P4 182 4.232
106 P4 183 3.743
106 P4 184 3.743
106 P4 185 3.743
106 P4 186 4.232
106 P4 187 4.232
106 P4 188 4.720
106 P4 189 5.208
106 P4 190 6.185
106 P4 191 6.185
106 P4 192 6.185
106 P4 193 6.185
106 P4 194 5.697
106 P4 195 5.208
106 P4 196 4.232
106 P4 197 2.767
106 P4 198 0.326
106 P4 199 -1.628
106 P4 200 -1.628
106 P4 201 -0.651
106 P4 202 1.790
106 P4 203 4.232
106 P4 204 6.185
106 P4 205 7.161
106 P4 206 7.650
106 P4 207 7.650
106 P4 208 5.697
106 P4 209 2.767
106 P4 210 -0.651
106 P4 211 -3.581
106 P4 212 -5.534
106 P4 213 -5.046
106 P4 214 -4.069
106 P4 215 -2.604
106 P4 216 -0.651
106 P4 217 1.302
106 P4 218 3.255
106 P4 219 3.743
106 P4 220 2.767
106 P4 221 0.814
106 P4 222 -1.139
106 P4 223 -2.116
106 P4 224 -1.628
106 P4 225 0.326
106 P4 226 1.302
106 P4 227 1.302
106 P4 228 0.326
106 P4 229 -0.163
106 P4 230 -0.163
106 P4 231 0.814
106 P4 232 1.790
106 P4 233 0.814
106 P4 234 -1.139
106 P4 235 -4.557
106 P4 236 -6.022
106 P4 237 -5.534
106 P4 238 -3.092
106 P4 239 -0.163
106 P4 240 1.302
106 P4 241 2.279
106 P4 242 1.790
106 P4 243 0.814
106 P4 244 -0.163
106 P4 245 -1.139
106 P4 246 -2.116
106 P4 247 -3.092
106 P4 248 -3.092
106 P4 249 -3.581
106 P4 250 -3.092
106 P4 251 -3.092
106 P4 252 -4.069
106 P4 253 -3.581
106 P4 254 -2.604
106 P4 255 0.814
# PZ chan 24
106 PZ 0 -4.801
106 PZ 1 -3.825
106 PZ 2 -1.872
106 PZ 3 0.081
106 PZ 4 1.546
106 PZ 5 2.523
106 PZ 6 3.499
106 PZ 7 3.499
106 PZ 8 3.499
106 PZ 9 3.011
106 PZ 10 2.035
106 PZ 11 0.570
106 PZ 12 -0.895
106 PZ 13 -2.360
106 PZ 14 -3.337
106 PZ 15 -4.313
106 PZ 16 -4.801
106 PZ 17 -3.825
106 PZ 18 -1.872
106 PZ 19 0.570
106 PZ 20 2.523
106 PZ 21 3.988
106 PZ 22 3.988
106 PZ 23 3.499
106 PZ 24 3.499
106 PZ 25 3.988
106 PZ 26 4.476
106 PZ 27 4.964
106 PZ 28 4.476
106 PZ 29 2.523
106 PZ 30 1.058
106 PZ 31 0.081
106 PZ 32 0.570
106 PZ 33 2.035
106 PZ 34 3.988
106 PZ 35 5.452
106 PZ 36 5.941
106 PZ 37 5.941
106 PZ 38 5.941
106 PZ 39 5.941
106 PZ 40 6.429
106 PZ 41 5.941
106 PZ 42 5.941
106 PZ 43 4.964
106 PZ 44 3.988
106 PZ 45 3.988
106 PZ 46 5.452
106 PZ 47 7.406
106 PZ 48 9.359
106 PZ 49 10.335
106 PZ 50 9.847
106 PZ 51 7.894
106 PZ 52 5.452
106 PZ 53 2.523
106 PZ 54 -0.407
106 PZ 55 -2.848
106 PZ 56 -4.313
106 PZ 57 -3.825
106 PZ 58 -2.360
106 PZ 59 0.081
106 PZ 60 2.523
106 PZ 61 4.476
106 PZ 62 5.452
106 PZ 63 5.941
106 PZ 64 5.941
106 PZ 65 5.452
106 PZ 66 4.476
106 PZ 67 3.011
106 PZ 68 2.035
106 PZ 69 2.523
106 PZ 70 4.964
106 PZ 71 7.894
106 PZ 72 11.312
106 PZ 73 12.777
106 PZ 74 13.265
106 PZ 75 12.288
106 PZ 76 11.312
106 PZ 77 9.847
106 PZ 78 8.870
106 PZ 79 7.894
106 PZ 80 6.429
106 PZ 81 4.476
106 PZ 82 3.499
106 PZ 83 3.011
106 PZ 84 3.011
106 PZ 85 4.476
106 PZ 86 5.941
106 PZ 87 7.894
106 PZ 88 8.870
106 PZ 89 9.359
106 PZ 90 10.335
106 PZ 91 10.824
106 PZ 92 10.824
106 PZ 93 8.870
106 PZ 94 6.429
106 PZ 95 3.499
106 PZ 96 0.570
106 PZ 97 -0.895
106 PZ 98 -0.895
106 PZ 99 0.081
106 PZ 100 0.081
106 PZ 101 0.081
106 PZ 102 0.081
106 PZ 103 -0.407
106 PZ 104 0.081
106 PZ 105 1.058
106 PZ 106 2.035
106 PZ 107 2.035
106 PZ 108 1.546
106 PZ 109 1.058
106 PZ 110 0.570
106 PZ 111 0.570
106 PZ 112 1.546
106 PZ 113 2.523
106 PZ 114 4.476
106 PZ 115 6.429
106 PZ 116 8.382
106 PZ 117 8.870
106 PZ 118 8.870
106 PZ 119 8.382
106 PZ 120 8.870
106 PZ 121 9.847
106 PZ 122 10.824
106 PZ 123 11.800
106 PZ 124 10.335
106 PZ 125 7.894
106 PZ 126 4.964
106 PZ 127 3.011
106 PZ 128 2.035
106 PZ 129 3.988
106 PZ 130 5.452
106 PZ 131 6.917
106 PZ 132 7.406
106 PZ 133 6.917
106 PZ 134 6.429
106 PZ 135 5.941
106 PZ 136 5.452
106 PZ 137 4.964
106 PZ 138 5.452
106 PZ 139 5.452
106 PZ 140 5.452
106 PZ 141 4.964
106 PZ 142 3.988
106 PZ 143 3.011
106 PZ 144 2.523
106 PZ 145 3.011
106 PZ 146 3.499
106 PZ 147 3.988
106 PZ 148 4.476
106 PZ 149 3.988
106 PZ 150 3.011
106 PZ 151 2.035
106 PZ 152 1.546
106 PZ 153 0.570
106 PZ 154 -0.407
106 PZ 155 -1.383
106 PZ 156 -1.872
106 PZ 157 -1.872
106 PZ 158 -1.383
106 PZ 159 -0.407
106 PZ 160 0.570
106 PZ 161 1.058
106 PZ 162 1.058
106 PZ 163 1.058
106 PZ 164 1.058
106 PZ 165 1.058
106 PZ 166 1.058
106 PZ 167 1.058
106 PZ 168 0.570
106 PZ 169 0.570
106 PZ 170 0.570
106 PZ 171 1.058
106 PZ 172 2.035
106 PZ 173 3.499
106 PZ 174 4.476
106 PZ 175 4.476
106 PZ 176 4.476
106 PZ 177 4.476
106 PZ 178 3.988
106 PZ 179 4.476
106 PZ 180 4.964
106 PZ 181 5.452
106 PZ 182 5.452
106 PZ 183 4.964
106 PZ 184 4.964
106 PZ 185 5.452
106 PZ 186 6.429
106 PZ 187 7.406
106 PZ 188 8.382
106 PZ 189 8.382
106 PZ 190 7.406
106 PZ 191 6.429
106 PZ 192 5.452
106 PZ 193 4.964
106 PZ 194 5.452
106 PZ 195 5.452
106 PZ 196 4.964
106 PZ 197 3.988
106 PZ 198 3.011
106 PZ 199 2.035
106 PZ 200 2.035
106 PZ 201 3.011
106 PZ 202 3.988
106 PZ 203 4.476
106 PZ 204 5.452
106 PZ 205 5.941
106 PZ 206 6.917
106 PZ 207 6.429
106 PZ 208 5.452
106 PZ 209 3.499
106 PZ 210 2.035
106 PZ 211 1.546
106 PZ 212 2.035
106 PZ 213 3.011
106 PZ 214 3.988
106 PZ 215 3.988
106 PZ 216 3.988
106 PZ 217 3.988
106 PZ 218 3.988
106 PZ 219 3.499
106 PZ 220 2.523
106 PZ 221 1.058
106 PZ 222 -0.895
106 PZ 223 -1.872
106 PZ 224 -0.895
106 PZ 225 1.058
106 PZ 226 3.011
106 PZ 227 3.499
106 PZ 228 2.523
106 PZ 229 1.546
106 PZ 230 1.058
106 PZ 231 2.523
106 PZ 232 4.476
106 PZ 233 4.964
106 PZ 234 3.499
106 PZ 235 0.570
106 PZ 236 -1.872
106 PZ 237 -2.848
106 PZ 238 -1.872
106 PZ 239 0.081
106 PZ 240 2.035
106 PZ 241 2.523
106 PZ 242 2.035
106 PZ 243 0.570
106 PZ 244 -0.895
106 PZ 245 -1.383
106 PZ 246 -1.872
106 PZ 247 -1.872
106 PZ 248 -1.383
106 PZ 249 -0.407
106 PZ 250 0.081
106 PZ 251 1.058
106 PZ 252 1.546
106 PZ 253 1.546
106 PZ 254 1.058
106 PZ 255 1.058
# P8 chan 25
106 P8 0 -2.340
106 P8 1 -1.363
106 P8 2 0.590
106 P8 3 3.520
106 P8 4 5.961
106 P8 5 6.449
106 P8 6 6.449
106 P8 7 4.985
106 P8 8 3.031
106 P8 9 1.078
106 P8 10 -0.387
106 P8 11 -2.828
106 P8 12 -5.758
106 P8 13 -9.664
106 P8 14 -13.082
106 P8 15 -15.035
106 P8 16 -15.523
106 P8 17 -14.058
106 P8 18 -10.152
106 P8 19 -5.758
106 P8 20 -0.875
106 P8 21 3.520
106 P8 22 5.961
106 P8 23 6.938
106 P8 24 6.938
106 P8 25 6.449
106 P8 26 6.938
106 P8 27 7.426
106 P8 28 7.426
106 P8 29 6.938
106 P8 30 6.449
106 P8 31 5.961
106 P8 32 6.449
106 P8 33 6.938
106 P8 34 6.938
106 P8 35 5.961
106 P8 36 4.496
106 P8 37 2.055
106 P8 38 0.590
106 P8 39 -0.387
106 P8 40 -0.387
106 P8 41 0.102
106 P8 42 -0.387
106 P8 43 -1.363
106 P8 44 -2.828
106 P8 45 -4.293
106 P8 46 -4.781
106 P8 47 -3.805
106 P8 48 -1.851
106 P8 49 -0.387
106 P8 50 0.590
106 P8 51 -0.387
106 P8 52 -2.828
106 P8 53 -5.269
106 P8 54 -7.222
106 P8 55 -8.199
106 P8 56 -8.199
106 P8 57 -7.711
106 P8 58 -6.246
106 P8 59 -3.805
106 P8 60 -0.387
106 P8 61 3.031
106 P8 62 5.473
106 P8 63 6.449
106 P8 64 6.938
106 P8 65 6.449
106 P8 66 5.473
106 P8 67 4.008
106 P8 68 2.543
106 P8 69 1.078
106 P8 70 1.567
106 P8 71 4.008
106 P8 72 8.403
106 P8 73 12.797
106 P8 74 16.215
106 P8 75 17.192
106 P8 76 16.703
106 P8 77 15.238
106 P8 78 13.285
106 P8 79 10.356
106 P8 80 7.426
106 P8 81 4.985
106 P8 82 3.520
106 P8 83 3.031
106 P8 84 3.520
106 P8 85 4.985
106 P8 86 5.473
106 P8 87 7.426
106 P8 88 9.867
106 P8 89 13.285
106 P8 90 17.192
106 P8 91 18.656
106 P8 92 17.192
106 P8 93 12.309
106 P8 94 4.985
106 P8 95 -1.851
106 P8 96 -6.734
106 P8 97 -7.711
106 P8 98 -6.734
106 P8 99 -4.781
106 P8 100 -3.805
106 P8 101 -3.316
106 P8 102 -3.316
106 P8 103 -2.828
106 P8 104 -1.363
106 P8 105 0.590
106 P8 106 2.055
106 P8 107 2.543
106 P8 108 1.567
106 P8 109 0.590
106 P8 110 -0.387
106 P8 111 -1.363
106 P8 112 -2.340
106 P8 113 -3.316
106 P8 114 -4.293
106 P8 115 -4.781
106 P8 116 -3.316
106 P8 117 -0.387
106 P8 118 2.543
106 P8 119 4.496
106 P8 120 4.985
106 P8 121 4.008
106 P8 122 3.520
106 P8 123 3.520
106 P8 124 3.520
106 P8 125 2.543
106 P8 126 0.590
106 P8 127 -1.851
106 P8 128 -4.293
106 P8 129 -5.269
106 P8 130 -5.269
106 P8 131 -3.805
106 P8 132 -2.340
106 P8 133 -1.363
106 P8 134 -0.875
106 P8 135 -1.363
106 P8 136 -2.828
106 P8 137 -4.293
106 P8 138 -4.781
106 P8 139 -4.781
106 P8 140 -4.293
106 P8 141 -3.805
106 P8 142 -4.293
106 P8 143 -6.246
106 P8 144 -8.199
106 P8 145 -9.176
106 P8 146 -9.176
106 P8 147 -8.199
106 P8 148 -6.734
106 P8 149 -5.758
106 P8 150 -6.246
106 P8 151 -7.711
106 P8 152 -10.640
106 P8 153 -13.570
106 P8 154 -16.012
106 P8 155 -16.988
106 P8 156 -16.988
106 P8 157 -16.012
106 P8 158 -14.547
106 P8 159 -13.570
106 P8 160 -12.594
106 P8 161 -12.594
106 P8 162 -12.105
106 P8 163 -12.594
106 P8 164 -13.082
106 P8 165 -13.082
106 P8 166 -13.082
106 P8 167 -11.617
106 P8 168 -10.152
106 P8 169 -7.222
106 P8 170 -5.758
106 P8 171 -4.293
106 P8 172 -3.805
106 P8 173 -3.316
106 P8 174 -2.828
106 P8 175 -1.851
106 P8 176 -0.387
106 P8 177 0.590
106 P8 178 1.567
106 P8 179 0.590
106 P8 180 -0.875
106 P8 181 -2.828
106 P8 182 -4.293
106 P8 183 -3.805
106 P8 184 -2.828
106 P8 185 -2.340
106 P8 186 -2.828
106 P8 187 -3.805
106 P8 188 -4.781
106 P8 189 -3.805
106 P8 190 -1.363
106 P8 191 2.055
106 P8 192 3.520
106 P8 193 3.031
106 P8 194 1.078
106 P8 195 -2.340
106 P8 196 -4.293
106 P8 197 -5.758
106 P8 198 -6.734
106 P8 199 -7.711
106 P8 200 -8.199
106 P8 201 -7.711
106 P8 202 -5.269
106 P8 203 -1.851
106 P8 204 1.567
106 P8 205 4.008
106 P8 206 5.473
106 P8 207 4.985
106 P8 208 3.031
106 P8 209 -0.387
106 P8 210 -4.781
106 P8 211 -9.176
106 P8 212 -13.082
106 P8 213 -15.523
106 P8 214 -15.035
106 P8 215 -13.570
106 P8 216 -10.640
106 P8 217 -7.711
106 P8 218 -4.781
106 P8 219 -3.316
106 P8 220 -2.340
106 P8 221 -3.805
106 P8 222 -5.269
106 P8 223 -7.222
106 P8 224 -8.199
106 P8 225 -8.199
106 P8 226 -8.199
106 P8 227 -8.199
106 P8 228 -8.687
106 P8 229 -9.176
106 P8 230 -8.687
106 P8 231 -7.711
106 P8 232 -6.246
106 P8 233 -7.222
106 P8 234 -10.152
106 P8 235 -14.058
106 P8 236 -16.988
106 P8 237 -16.012
106 P8 238 -11.617
106 P8 239 -5.758
106 P8 240 -1.363
106 P8 241 0.102
106 P8 242 0.102
106 P8 243 -0.875
106 P8 244 -1.851
106 P8 245 -2.340
106 P8 246 -2.828
106 P8 247 -4.293
106 P8 248 -5.758
106 P8 249 -5.758
106 P8 250 -5.269
106 P8 251 -4.293
106 P8 252 -4.293
106 P8 253 -4.293
106 P8 254 -3.805
106 P8 255 -0.875
# P7 chan 26
106 P7 0 2.289
106 P7 1 3.754
106 P7 2 5.707
106 P7 3 8.148
106 P7 4 10.101
106 P7 5 10.590
106 P7 6 10.590
106 P7 7 9.613
106 P7 8 7.660
106 P7 9 5.707
106 P7 10 3.754
106 P7 11 1.801
106 P7 12 0.336
106 P7 13 -0.641
106 P7 14 -2.106
106 P7 15 -3.082
106 P7 16 -3.082
106 P7 17 -2.594
106 P7 18 -0.641
106 P7 19 1.801
106 P7 20 3.754
106 P7 21 5.219
106 P7 22 6.195
106 P7 23 7.660
106 P7 24 9.613
106 P7 25 11.078
106 P7 26 11.566
106 P7 27 9.613
106 P7 28 5.707
106 P7 29 2.289
106 P7 30 1.801
106 P7 31 4.242
106 P7 32 8.148
106 P7 33 10.590
106 P7 34 10.590
106 P7 35 8.636
106 P7 36 7.172
106 P7 37 6.683
106 P7 38 7.660
106 P7 39 8.636
106 P7 40 6.683
106 P7 41 3.754
106 P7 42 -0.153
106 P7 43 -2.594
106 P7 44 -2.106
106 P7 45 0.336
106 P7 46 4.730
