# co2c0000383.rd
# 120 trials, 64 chans, 416 samples 368 post_stim samples
# 3.906000 msecs uV
# S1 obj , trial 112
# FP1 chan 0
112 FP1 0 -2.716
112 FP1 1 -1.251
112 FP1 2 0.702
112 FP1 3 2.167
112 FP1 4 2.655
112 FP1 5 2.167
112 FP1 6 2.167
112 FP1 7 3.143
112 FP1 8 3.632
112 FP1 9 4.120
112 FP1 10 3.632
112 FP1 11 3.632
112 FP1 12 3.143
112 FP1 13 4.120
112 FP1 14 4.608
112 FP1 15 3.632
112 FP1 16 0.702
112 FP1 17 -2.228
112 FP1 18 -5.157
112 FP1 19 -5.646
112 FP1 20 -5.157
112 FP1 21 -4.669
112 FP1 22 -4.181
112 FP1 23 -4.181
112 FP1 24 -4.669
112 FP1 25 -4.669
112 FP1 26 -4.669
112 FP1 27 -5.157
112 FP1 28 -6.622
112 FP1 29 -8.087
112 FP1 30 -10.529
112 FP1 31 -11.993
112 FP1 32 -12.482
112 FP1 33 -11.993
112 FP1 34 -10.529
112 FP1 35 -9.064
112 FP1 36 -6.622
112 FP1 37 -4.181
112 FP1 38 -2.228
112 FP1 39 -0.275
112 FP1 40 0.214
112 FP1 41 -0.275
112 FP1 42 -0.275
112 FP1 43 -0.275
112 FP1 44 0.214
112 FP1 45 0.214
112 FP1 46 -0.275
112 FP1 47 -0.275
112 FP1 48 -0.275
112 FP1 49 0.702
112 FP1 50 1.190
112 FP1 51 0.214
112 FP1 52 -2.228
112 FP1 53 -5.157
112 FP1 54 -6.622
112 FP1 55 -6.134
112 FP1 56 -4.181
112 FP1 57 -2.228
112 FP1 58 -1.251
112 FP1 59 -1.740
112 FP1 60 -2.716
112 FP1 61 -3.204
112 FP1 62 -2.716
112 FP1 63 -2.716
112 FP1 64 -2.228
112 FP1 65 -3.204
112 FP1 66 -5.157
112 FP1 67 -6.134
112 FP1 68 -7.111
112 FP1 69 -5.646
112 FP1 70 -3.693
112 FP1 71 -1.740
112 FP1 72 -0.275
112 FP1 73 1.190
112 FP1 74 2.167
112 FP1 75 2.167
112 FP1 76 1.190
112 FP1 77 0.214
112 FP1 78 -0.275
112 FP1 79 -0.275
112 FP1 80 0.702
112 FP1 81 2.655
112 FP1 82 3.632
112 FP1 83 5.096
112 FP1 84 6.073
112 FP1 85 7.538
112 FP1 86 9.003
112 FP1 87 9.979
112 FP1 88 10.468
112 FP1 89 10.468
112 FP1 90 9.979
112 FP1 91 9.003
112 FP1 92 7.538
112 FP1 93 6.561
112 FP1 94 5.096
112 FP1 95 4.120
112 FP1 96 4.120
112 FP1 97 4.608
112 FP1 98 5.585
112 FP1 99 5.585
112 FP1 100 5.585
112 FP1 101 5.096
112 FP1 102 5.585
112 FP1 103 6.561
112 FP1 104 7.538
112 FP1 105 8.514
112 FP1 106 8.026
112 FP1 107 6.561
112 FP1 108 6.073
112 FP1 109 6.561
112 FP1 110 8.514
112 FP1 111 9.979
112 FP1 112 10.468
112 FP1 113 9.003
112 FP1 114 6.073
112 FP1 115 3.143
112 FP1 116 0.702
112 FP1 117 0.214
112 FP1 118 -0.275
112 FP1 119 -0.275
112 FP1 120 -1.251
112 FP1 121 -1.251
112 FP1 122 -1.251
112 FP1 123 -0.275
112 FP1 124 0.702
112 FP1 125 1.678
112 FP1 126 1.678
112 FP1 127 1.678
112 FP1 128 2.655
112 FP1 129 5.096
112 FP1 130 7.538
112 FP1 131 9.979
112 FP1 132 11.932
112 FP1 133 11.932
112 FP1 134 10.468
112 FP1 135 8.514
112 FP1 136 7.050
112 FP1 137 6.073
112 FP1 138 4.608
112 FP1 139 2.655
112 FP1 140 0.214
112 FP1 141 -1.740
112 FP1 142 -4.181
112 FP1 143 -5.646
112 FP1 144 -6.622
112 FP1 145 -6.622
112 FP1 146 -4.669
112 FP1 147 -0.275
112 FP1 148 6.073
112 FP1 149 11.444
112 FP1 150 14.374
112 FP1 151 13.397
112 FP1 152 8.514
112 FP1 153 2.167
112 FP1 154 -1.251
112 FP1 155 -1.251
112 FP1 156 1.190
112 FP1 157 4.608
112 FP1 158 7.050
112 FP1 159 8.514
112 FP1 160 9.491
112 FP1 161 10.956
112 FP1 162 13.397
112 FP1 163 15.839
112 FP1 164 17.303
112 FP1 165 16.327
112 FP1 166 14.374
112 FP1 167 11.444
112 FP1 168 9.491
112 FP1 169 8.514
112 FP1 170 8.514
112 FP1 171 8.514
112 FP1 172 9.003
112 FP1 173 9.003
112 FP1 174 9.491
112 FP1 175 9.979
112 FP1 176 10.468
112 FP1 177 10.468
112 FP1 178 10.468
112 FP1 179 9.491
112 FP1 180 8.026
112 FP1 181 7.050
112 FP1 182 6.073
112 FP1 183 5.585
112 FP1 184 5.096
112 FP1 185 5.096
112 FP1 186 5.585
112 FP1 187 5.096
112 FP1 188 3.143
112 FP1 189 -1.251
112 FP1 190 -6.622
112 FP1 191 -11.505
112 FP1 192 -14.435
112 FP1 193 -14.923
112 FP1 194 -14.435
112 FP1 195 -12.970
112 FP1 196 -11.505
112 FP1 197 -10.040
112 FP1 198 -7.599
112 FP1 199 -4.669
112 FP1 200 -2.228
112 FP1 201 -0.763
112 FP1 202 -1.251
112 FP1 203 -1.251
112 FP1 204 -0.763
112 FP1 205 0.702
112 FP1 206 2.167
112 FP1 207 2.167
112 FP1 208 2.167
112 FP1 209 1.190
112 FP1 210 0.702
112 FP1 211 1.678
112 FP1 212 3.143
112 FP1 213 4.120
112 FP1 214 4.608
112 FP1 215 4.120
112 FP1 216 4.120
112 FP1 217 4.608
112 FP1 218 6.073
112 FP1 219 7.538
112 FP1 220 8.514
112 FP1 221 9.003
112 FP1 222 9.979
112 FP1 223 11.932
112 FP1 224 14.862
112 FP1 225 17.792
112 FP1 226 18.768
112 FP1 227 17.792
112 FP1 228 14.374
112 FP1 229 10.468
112 FP1 230 7.538
112 FP1 231 6.073
112 FP1 232 6.561
112 FP1 233 6.561
112 FP1 234 6.073
112 FP1 235 5.585
112 FP1 236 5.096
112 FP1 237 4.608
112 FP1 238 4.608
112 FP1 239 3.632
112 FP1 240 1.678
112 FP1 241 -0.763
112 FP1 242 -2.716
112 FP1 243 -3.693
112 FP1 244 -3.693
112 FP1 245 -3.693
112 FP1 246 -5.157
112 FP1 247 -5.646
112 FP1 248 -5.646
112 FP1 249 -4.181
112 FP1 250 -2.228
112 FP1 251 -1.251
112 FP1 252 -1.251
112 FP1 253 -2.716
112 FP1 254 -4.181
112 FP1 255 -5.157
# FP2 chan 1
112 FP2 0 2.197
112 FP2 1 5.127
112 FP2 2 8.057
112 FP2 3 10.010
112 FP2 4 10.498
112 FP2 5 10.498
112 FP2 6 10.498
112 FP2 7 10.986
112 FP2 8 11.475
112 FP2 9 11.475
112 FP2 10 10.498
112 FP2 11 10.010
112 FP2 12 10.010
112 FP2 13 10.498
112 FP2 14 11.475
112 FP2 15 11.475
112 FP2 16 11.475
112 FP2 17 10.986
112 FP2 18 10.010
112 FP2 19 8.545
112 FP2 20 7.080
112 FP2 21 5.615
112 FP2 22 4.150
112 FP2 23 3.174
112 FP2 24 2.686
112 FP2 25 2.686
112 FP2 26 2.686
112 FP2 27 2.686
112 FP2 28 3.662
112 FP2 29 4.639
112 FP2 30 5.127
112 FP2 31 5.127
112 FP2 32 5.615
112 FP2 33 5.615
112 FP2 34 6.592
112 FP2 35 8.057
112 FP2 36 9.521
112 FP2 37 11.475
112 FP2 38 12.451
112 FP2 39 13.916
112 FP2 40 15.381
112 FP2 41 15.869
112 FP2 42 15.381
112 FP2 43 14.404
112 FP2 44 12.939
112 FP2 45 12.451
112 FP2 46 12.451
112 FP2 47 14.404
112 FP2 48 15.381
112 FP2 49 16.357
112 FP2 50 14.893
112 FP2 51 13.428
112 FP2 52 11.475
112 FP2 53 10.498
112 FP2 54 10.498
112 FP2 55 12.451
112 FP2 56 14.893
112 FP2 57 17.334
112 FP2 58 18.799
112 FP2 59 18.799
112 FP2 60 17.334
112 FP2 61 15.869
112 FP2 62 14.893
112 FP2 63 14.893
112 FP2 64 15.869
112 FP2 65 17.334
112 FP2 66 18.311
112 FP2 67 18.799
112 FP2 68 18.311
112 FP2 69 18.311
112 FP2 70 18.799
112 FP2 71 20.264
112 FP2 72 22.217
112 FP2 73 24.170
112 FP2 74 24.170
112 FP2 75 23.682
112 FP2 76 22.705
112 FP2 77 22.217
112 FP2 78 22.217
112 FP2 79 23.682
112 FP2 80 24.170
112 FP2 81 24.658
112 FP2 82 24.658
112 FP2 83 25.146
112 FP2 84 26.123
112 FP2 85 27.100
112 FP2 86 27.100
112 FP2 87 26.123
112 FP2 88 24.170
112 FP2 89 23.193
112 FP2 90 22.705
112 FP2 91 23.193
112 FP2 92 22.705
112 FP2 93 20.752
112 FP2 94 18.311
112 FP2 95 16.846
112 FP2 96 17.334
112 FP2 97 19.287
112 FP2 98 20.752
112 FP2 99 21.240
112 FP2 100 20.264
112 FP2 101 19.287
112 FP2 102 20.264
112 FP2 103 22.705
112 FP2 104 25.146
112 FP2 105 25.146
112 FP2 106 22.217
112 FP2 107 18.311
112 FP2 108 15.381
112 FP2 109 14.893
112 FP2 110 16.846
112 FP2 111 18.799
112 FP2 112 19.287
112 FP2 113 17.822
112 FP2 114 16.357
112 FP2 115 16.357
112 FP2 116 17.334
112 FP2 117 18.799
112 FP2 118 18.799
112 FP2 119 16.846
112 FP2 120 13.916
112 FP2 121 11.475
112 FP2 122 10.986
112 FP2 123 12.451
112 FP2 124 14.404
112 FP2 125 16.357
112 FP2 126 17.822
112 FP2 127 19.287
112 FP2 128 21.240
112 FP2 129 24.170
112 FP2 130 26.611
112 FP2 131 28.564
112 FP2 132 29.053
112 FP2 133 29.053
112 FP2 134 28.564
112 FP2 135 28.564
112 FP2 136 28.076
112 FP2 137 27.588
112 FP2 138 26.611
112 FP2 139 24.658
112 FP2 140 22.217
112 FP2 141 18.799
112 FP2 142 16.357
112 FP2 143 14.893
112 FP2 144 14.893
112 FP2 145 16.846
112 FP2 146 19.287
112 FP2 147 22.217
112 FP2 148 25.146
112 FP2 149 27.588
112 FP2 150 29.053
112 FP2 151 29.053
112 FP2 152 27.100
112 FP2 153 22.705
112 FP2 154 19.775
112 FP2 155 17.334
112 FP2 156 18.311
112 FP2 157 21.240
112 FP2 158 25.146
112 FP2 159 27.588
112 FP2 160 29.053
112 FP2 161 29.053
112 FP2 162 29.053
112 FP2 163 30.029
112 FP2 164 31.006
112 FP2 165 31.982
112 FP2 166 31.494
112 FP2 167 31.006
112 FP2 168 28.564
112 FP2 169 27.588
112 FP2 170 27.588
112 FP2 171 28.076
112 FP2 172 29.053
112 FP2 173 30.029
112 FP2 174 30.518
112 FP2 175 30.518
112 FP2 176 30.518
112 FP2 177 30.029
112 FP2 178 29.053
112 FP2 179 28.076
112 FP2 180 26.611
112 FP2 181 25.146
112 FP2 182 24.658
112 FP2 183 24.170
112 FP2 184 23.193
112 FP2 185 22.217
112 FP2 186 21.240
112 FP2 187 20.752
112 FP2 188 19.287
112 FP2 189 16.357
112 FP2 190 13.428
112 FP2 191 10.498
112 FP2 192 9.521
112 FP2 193 10.010
112 FP2 194 12.451
112 FP2 195 14.893
112 FP2 196 17.334
112 FP2 197 18.311
112 FP2 198 19.287
112 FP2 199 19.775
112 FP2 200 19.775
112 FP2 201 20.264
112 FP2 202 20.752
112 FP2 203 22.217
112 FP2 204 23.682
112 FP2 205 25.146
112 FP2 206 26.123
112 FP2 207 26.611
112 FP2 208 26.123
112 FP2 209 25.635
112 FP2 210 24.170
112 FP2 211 23.682
112 FP2 212 22.705
112 FP2 213 21.729
112 FP2 214 22.217
112 FP2 215 23.193
112 FP2 216 25.146
112 FP2 217 27.100
112 FP2 218 29.053
112 FP2 219 30.518
112 FP2 220 31.982
112 FP2 221 32.959
112 FP2 222 34.424
112 FP2 223 35.889
112 FP2 224 36.865
112 FP2 225 37.354
112 FP2 226 37.354
112 FP2 227 35.889
112 FP2 228 33.936
112 FP2 229 31.494
112 FP2 230 29.541
112 FP2 231 28.564
112 FP2 232 28.564
112 FP2 233 29.053
112 FP2 234 30.029
112 FP2 235 30.518
112 FP2 236 30.518
112 FP2 237 30.029
112 FP2 238 30.029
112 FP2 239 29.541
112 FP2 240 29.541
112 FP2 241 29.053
112 FP2 242 28.076
112 FP2 243 27.100
112 FP2 244 25.146
112 FP2 245 23.682
112 FP2 246 22.705
112 FP2 247 22.217
112 FP2 248 21.729
112 FP2 249 21.729
112 FP2 250 21.729
112 FP2 251 21.240
112 FP2 252 20.752
112 FP2 253 19.775
112 FP2 254 19.775
112 FP2 255 20.264
# F7 chan 2
112 F7 0 3.560
112 F7 1 8.443
112 F7 2 13.326
112 F7 3 14.791
112 F7 4 12.838
112 F7 5 9.908
112 F7 6 8.443
112 F7 7 10.396
112 F7 8 13.814
112 F7 9 17.721
112 F7 10 20.162
112 F7 11 20.650
112 F7 12 20.650
112 F7 13 20.162
112 F7 14 19.185
112 F7 15 18.209
112 F7 16 16.744
112 F7 17 14.791
112 F7 18 12.838
112 F7 19 11.861
112 F7 20 11.373
112 F7 21 11.373
112 F7 22 10.885
112 F7 23 10.396
112 F7 24 8.931
112 F7 25 6.978
112 F7 26 4.537
112 F7 27 1.607
112 F7 28 -0.346
112 F7 29 -0.834
112 F7 30 -0.834
112 F7 31 0.631
112 F7 32 2.096
112 F7 33 3.560
112 F7 34 4.537
112 F7 35 5.025
112 F7 36 6.002
112 F7 37 6.490
112 F7 38 7.467
112 F7 39 8.443
112 F7 40 9.420
112 F7 41 10.396
112 F7 42 9.908
112 F7 43 8.443
112 F7 44 6.002
112 F7 45 4.049
112 F7 46 3.072
112 F7 47 3.560
112 F7 48 5.025
112 F7 49 7.467
112 F7 50 9.908
112 F7 51 12.838
112 F7 52 15.279
112 F7 53 15.767
112 F7 54 14.791
112 F7 55 12.349
112 F7 56 10.885
112 F7 57 11.373
112 F7 58 14.303
112 F7 59 17.721
112 F7 60 20.162
112 F7 61 19.185
112 F7 62 16.256
112 F7 63 13.814
112 F7 64 12.838
112 F7 65 13.814
112 F7 66 16.256
112 F7 67 17.721
112 F7 68 17.721
112 F7 69 18.209
112 F7 70 19.674
112 F7 71 23.580
112 F7 72 28.463
112 F7 73 31.392
112 F7 74 30.904
112 F7 75 27.974
112 F7 76 24.556
112 F7 77 23.092
112 F7 78 24.556
112 F7 79 26.021
112 F7 80 25.533
112 F7 81 23.092
112 F7 82 21.139
112 F7 83 22.115
112 F7 84 26.510
112 F7 85 32.857
112 F7 86 36.764
112 F7 87 36.275
112 F7 88 33.346
112 F7 89 30.416
112 F7 90 30.416
112 F7 91 31.881
112 F7 92 32.857
112 F7 93 30.904
112 F7 94 26.998
112 F7 95 23.580
112 F7 96 24.068
112 F7 97 27.974
112 F7 98 31.392
112 F7 99 31.881
112 F7 100 27.974
112 F7 101 23.092
112 F7 102 20.650
112 F7 103 22.115
112 F7 104 26.021
112 F7 105 28.951
112 F7 106 28.951
112 F7 107 27.974
112 F7 108 27.486
112 F7 109 29.439
112 F7 110 32.857
112 F7 111 34.810
112 F7 112 33.834
112 F7 113 29.928
112 F7 114 26.021
112 F7 115 24.068
112 F7 116 24.556
112 F7 117 26.998
112 F7 118 27.974
112 F7 119 26.510
112 F7 120 23.580
112 F7 121 21.139
112 F7 122 20.650
112 F7 123 20.162
112 F7 124 19.674
112 F7 125 18.697
112 F7 126 18.209
112 F7 127 20.162
112 F7 128 24.556
112 F7 129 28.951
112 F7 130 31.392
112 F7 131 29.928
112 F7 132 26.510
112 F7 133 24.068
112 F7 134 24.556
112 F7 135 27.486
112 F7 136 29.928
112 F7 137 29.439
112 F7 138 25.045
112 F7 139 18.697
112 F7 140 13.326
112 F7 141 9.908
112 F7 142 8.443
112 F7 143 6.978
112 F7 144 6.002
112 F7 145 6.978
112 F7 146 10.396
112 F7 147 16.256
112 F7 148 23.092
112 F7 149 27.486
112 F7 150 28.951
112 F7 151 26.510
112 F7 152 23.092
112 F7 153 19.674
112 F7 154 16.744
112 F7 155 13.326
112 F7 156 11.373
112 F7 157 10.885
112 F7 158 13.326
112 F7 159 17.721
112 F7 160 23.092
112 F7 161 27.486
112 F7 162 29.439
112 F7 163 30.416
112 F7 164 31.392
112 F7 165 31.881
112 F7 166 32.369
112 F7 167 30.904
112 F7 168 28.951
112 F7 169 26.021
112 F7 170 25.533
112 F7 171 26.998
112 F7 172 29.439
112 F7 173 31.392
112 F7 174 31.392
112 F7 175 30.416
112 F7 176 28.463
112 F7 177 27.486
112 F7 178 26.998
112 F7 179 26.998
112 F7 180 27.486
112 F7 181 28.463
112 F7 182 30.416
112 F7 183 31.881
112 F7 184 31.392
112 F7 185 28.463
112 F7 186 23.580
112 F7 187 18.697
112 F7 188 16.256
112 F7 189 16.256
112 F7 190 16.256
112 F7 191 15.279
112 F7 192 12.349
112 F7 193 8.443
112 F7 194 5.025
112 F7 195 2.584
112 F7 196 2.584
112 F7 197 3.560
112 F7 198 5.514
112 F7 199 6.978
112 F7 200 8.443
112 F7 201 9.908
112 F7 202 10.885
112 F7 203 11.373
112 F7 204 11.861
112 F7 205 12.349
112 F7 206 12.838
112 F7 207 13.814
112 F7 208 16.256
112 F7 209 18.209
112 F7 210 20.162
112 F7 211 21.139
112 F7 212 21.139
112 F7 213 21.139
112 F7 214 22.115
112 F7 215 24.068
112 F7 216 24.556
112 F7 217 22.603
112 F7 218 18.697
112 F7 219 15.767
112 F7 220 16.256
112 F7 221 21.139
112 F7 222 27.974
112 F7 223 32.369
112 F7 224 33.834
112 F7 225 31.881
112 F7 226 29.439
112 F7 227 27.486
112 F7 228 26.021
112 F7 229 25.533
112 F7 230 25.045
112 F7 231 26.998
112 F7 232 29.928
112 F7 233 33.834
112 F7 234 37.252
112 F7 235 38.228
112 F7 236 36.275
112 F7 237 33.346
112 F7 238 31.392
112 F7 239 29.439
112 F7 240 26.998
112 F7 241 23.580
112 F7 242 20.162
112 F7 243 17.232
112 F7 244 17.232
112 F7 245 19.185
112 F7 246 22.603
112 F7 247 26.021
112 F7 248 27.974
112 F7 249 29.928
112 F7 250 30.416
112 F7 251 29.439
112 F7 252 27.486
112 F7 253 24.556
112 F7 254 22.603
112 F7 255 23.580
# F8 chan 3
112 F8 0 -3.906
112 F8 1 -4.395
112 F8 2 -4.395
112 F8 3 -2.441
112 F8 4 0.977
112 F8 5 4.883
112 F8 6 7.812
112 F8 7 8.789
112 F8 8 7.812
112 F8 9 5.371
112 F8 10 2.441
112 F8 11 0.000
112 F8 12 -1.953
112 F8 13 -2.930
112 F8 14 -3.418
112 F8 15 -4.395
112 F8 16 -5.371
112 F8 17 -7.324
112 F8 18 -8.301
112 F8 19 -9.277
112 F8 20 -9.766
112 F8 21 -11.230
112 F8 22 -14.160
112 F8 23 -17.090
112 F8 24 -20.020
112 F8 25 -20.996
112 F8 26 -20.508
112 F8 27 -18.066
112 F8 28 -16.602
112 F8 29 -17.090
112 F8 30 -19.531
112 F8 31 -21.973
112 F8 32 -22.949
112 F8 33 -20.996
112 F8 34 -18.066
112 F8 35 -14.648
112 F8 36 -13.184
112 F8 37 -13.184
112 F8 38 -13.672
112 F8 39 -13.672
112 F8 40 -12.207
112 F8 41 -11.719
112 F8 42 -13.184
112 F8 43 -15.625
112 F8 44 -18.066
112 F8 45 -18.066
112 F8 46 -15.137
112 F8 47 -11.230
112 F8 48 -8.789
112 F8 49 -8.789
112 F8 50 -10.742
112 F8 51 -14.160
112 F8 52 -16.602
112 F8 53 -17.578
112 F8 54 -17.090
112 F8 55 -14.648
112 F8 56 -11.230
112 F8 57 -7.324
112 F8 58 -4.395
112 F8 59 -3.418
112 F8 60 -5.371
112 F8 61 -8.301
112 F8 62 -10.254
112 F8 63 -10.254
112 F8 64 -8.789
112 F8 65 -7.324
112 F8 66 -6.836
112 F8 67 -6.836
112 F8 68 -7.812
112 F8 69 -6.836
112 F8 70 -4.883
112 F8 71 -1.953
112 F8 72 0.000
112 F8 73 0.488
112 F8 74 -1.465
112 F8 75 -4.395
112 F8 76 -6.836
112 F8 77 -7.324
112 F8 78 -6.348
112 F8 79 -4.883
112 F8 80 -3.418
112 F8 81 -3.418
112 F8 82 -4.395
112 F8 83 -4.883
112 F8 84 -5.371
112 F8 85 -5.859
112 F8 86 -6.836
112 F8 87 -8.301
112 F8 88 -10.254
112 F8 89 -11.719
112 F8 90 -12.695
112 F8 91 -12.695
112 F8 92 -13.672
112 F8 93 -15.137
112 F8 94 -16.602
112 F8 95 -16.602
112 F8 96 -15.137
112 F8 97 -11.719
112 F8 98 -7.812
112 F8 99 -5.371
112 F8 100 -3.906
112 F8 101 -3.418
112 F8 102 -1.953
112 F8 103 0.488
112 F8 104 1.465
112 F8 105 0.000
112 F8 106 -3.418
112 F8 107 -7.812
112 F8 108 -10.742
112 F8 109 -9.766
112 F8 110 -6.836
112 F8 111 -2.930
112 F8 112 -0.977
112 F8 113 -1.953
112 F8 114 -4.395
112 F8 115 -6.348
112 F8 116 -5.371
112 F8 117 -1.953
112 F8 118 1.953
112 F8 119 4.395
112 F8 120 3.906
112 F8 121 1.465
112 F8 122 -1.953
112 F8 123 -4.395
112 F8 124 -4.883
112 F8 125 -4.395
112 F8 126 -2.441
112 F8 127 0.488
112 F8 128 3.906
112 F8 129 7.324
112 F8 130 10.254
112 F8 131 10.742
112 F8 132 7.812
112 F8 133 2.441
112 F8 134 -2.930
112 F8 135 -5.859
112 F8 136 -3.418
112 F8 137 1.953
112 F8 138 7.812
112 F8 139 10.254
112 F8 140 7.812
112 F8 141 1.953
112 F8 142 -4.395
112 F8 143 -9.766
112 F8 144 -12.695
112 F8 145 -14.160
112 F8 146 -14.648
112 F8 147 -12.695
112 F8 148 -8.301
112 F8 149 -1.465
112 F8 150 5.371
112 F8 151 8.789
112 F8 152 7.324
112 F8 153 2.441
112 F8 154 -2.441
112 F8 155 -4.883
112 F8 156 -3.418
112 F8 157 0.488
112 F8 158 4.395
112 F8 159 6.348
112 F8 160 5.371
112 F8 161 1.465
112 F8 162 -2.441
112 F8 163 -5.859
112 F8 164 -7.812
112 F8 165 -7.812
112 F8 166 -5.859
112 F8 167 -2.930
112 F8 168 0.000
112 F8 169 1.465
112 F8 170 0.977
112 F8 171 -0.488
112 F8 172 -1.953
112 F8 173 -0.977
112 F8 174 1.465
112 F8 175 4.395
112 F8 176 4.395
112 F8 177 1.465
112 F8 178 -3.418
112 F8 179 -7.324
112 F8 180 -9.277
112 F8 181 -9.277
112 F8 182 -8.789
112 F8 183 -10.254
112 F8 184 -12.695
112 F8 185 -15.625
112 F8 186 -17.090
112 F8 187 -15.625
112 F8 188 -14.160
112 F8 189 -13.672
112 F8 190 -14.648
112 F8 191 -17.090
112 F8 192 -18.555
112 F8 193 -18.555
112 F8 194 -16.113
112 F8 195 -13.184
112 F8 196 -10.742
112 F8 197 -10.254
112 F8 198 -10.742
112 F8 199 -10.742
112 F8 200 -10.254
112 F8 201 -9.277
112 F8 202 -7.812
112 F8 203 -5.859
112 F8 204 -4.883
112 F8 205 -3.418
112 F8 206 -2.930
112 F8 207 -3.906
112 F8 208 -5.371
112 F8 209 -7.324
112 F8 210 -8.301
112 F8 211 -8.789
112 F8 212 -7.812
112 F8 213 -7.324
112 F8 214 -7.324
112 F8 215 -8.301
112 F8 216 -9.277
112 F8 217 -9.766
112 F8 218 -9.766
112 F8 219 -9.766
112 F8 220 -8.301
112 F8 221 -4.883
112 F8 222 0.488
112 F8 223 7.324
112 F8 224 13.672
112 F8 225 16.602
112 F8 226 13.672
112 F8 227 6.348
112 F8 228 -1.465
112 F8 229 -6.836
112 F8 230 -7.812
112 F8 231 -5.859
112 F8 232 -4.395
112 F8 233 -4.395
112 F8 234 -5.859
112 F8 235 -7.324
112 F8 236 -6.836
112 F8 237 -4.395
112 F8 238 -1.465
112 F8 239 0.977
112 F8 240 2.930
112 F8 241 3.906
112 F8 242 3.906
112 F8 243 2.441
112 F8 244 -0.488
112 F8 245 -4.883
112 F8 246 -8.301
112 F8 247 -9.277
112 F8 248 -8.301
112 F8 249 -6.836
112 F8 250 -6.836
112 F8 251 -9.277
112 F8 252 -12.207
112 F8 253 -13.672
112 F8 254 -13.184
112 F8 255 -10.742
# AF1 chan 4
112 AF1 0 -1.322
112 AF1 1 0.631
112 AF1 2 3.072
112 AF1 3 5.025
112 AF1 4 5.514
112 AF1 5 5.514
112 AF1 6 5.514
112 AF1 7 5.514
112 AF1 8 6.002
112 AF1 9 6.002
112 AF1 10 5.514
112 AF1 11 5.025
112 AF1 12 4.049
112 AF1 13 3.560
112 AF1 14 3.560
112 AF1 15 3.072
112 AF1 16 2.584
112 AF1 17 1.607
112 AF1 18 -0.346
112 AF1 19 -1.811
112 AF1 20 -2.787
112 AF1 21 -2.787
112 AF1 22 -2.299
112 AF1 23 -1.322
112 AF1 24 -1.322
112 AF1 25 -2.299
112 AF1 26 -3.276
112 AF1 27 -4.252
112 AF1 28 -4.740
112 AF1 29 -4.740
112 AF1 30 -4.740
112 AF1 31 -4.740
112 AF1 32 -5.229
112 AF1 33 -4.740
112 AF1 34 -3.764
112 AF1 35 -2.787
112 AF1 36 -1.811
112 AF1 37 -1.322
112 AF1 38 -0.834
112 AF1 39 -0.346
112 AF1 40 0.142
112 AF1 41 1.119
112 AF1 42 1.119
112 AF1 43 1.607
112 AF1 44 1.119
112 AF1 45 1.119
112 AF1 46 2.096
112 AF1 47 3.560
112 AF1 48 5.025
112 AF1 49 6.002
112 AF1 50 5.025
112 AF1 51 3.560
112 AF1 52 1.607
112 AF1 53 1.119
112 AF1 54 1.119
112 AF1 55 1.607
112 AF1 56 3.072
112 AF1 57 4.537
112 AF1 58 6.002
112 AF1 59 6.002
112 AF1 60 5.514
112 AF1 61 3.560
112 AF1 62 1.607
112 AF1 63 0.631
112 AF1 64 0.631
112 AF1 65 1.119
112 AF1 66 2.096
112 AF1 67 2.096
112 AF1 68 2.096
112 AF1 69 2.096
112 AF1 70 2.584
112 AF1 71 3.560
112 AF1 72 5.025
112 AF1 73 5.514
112 AF1 74 6.002
112 AF1 75 6.002
112 AF1 76 6.490
112 AF1 77 6.978
112 AF1 78 7.955
112 AF1 79 8.931
112 AF1 80 8.931
112 AF1 81 8.931
112 AF1 82 8.931
112 AF1 83 9.420
112 AF1 84 10.885
112 AF1 85 12.349
112 AF1 86 13.326
112 AF1 87 12.838
112 AF1 88 11.373
112 AF1 89 9.908
112 AF1 90 9.420
112 AF1 91 8.931
112 AF1 92 8.931
112 AF1 93 8.443
112 AF1 94 6.978
112 AF1 95 6.490
112 AF1 96 6.490
112 AF1 97 6.978
112 AF1 98 6.978
112 AF1 99 6.002
112 AF1 100 4.537
112 AF1 101 3.072
112 AF1 102 3.072
112 AF1 103 5.025
112 AF1 104 6.978
112 AF1 105 8.931
112 AF1 106 8.931
112 AF1 107 8.443
112 AF1 108 8.443
112 AF1 109 9.420
112 AF1 110 10.885
112 AF1 111 11.861
112 AF1 112 10.885
112 AF1 113 7.955
112 AF1 114 4.537
112 AF1 115 1.607
112 AF1 116 0.631
112 AF1 117 1.607
112 AF1 118 2.096
112 AF1 119 2.096
112 AF1 120 0.631
112 AF1 121 -0.834
112 AF1 122 -2.299
112 AF1 123 -2.787
112 AF1 124 -3.276
112 AF1 125 -3.764
112 AF1 126 -3.276
112 AF1 127 -2.787
112 AF1 128 -0.346
112 AF1 129 2.584
112 AF1 130 5.025
112 AF1 131 6.978
112 AF1 132 6.978
112 AF1 133 6.490
112 AF1 134 5.514
112 AF1 135 5.025
112 AF1 136 4.537
112 AF1 137 3.072
112 AF1 138 1.119
112 AF1 139 -1.322
112 AF1 140 -4.740
112 AF1 141 -8.158
112 AF1 142 -10.111
112 AF1 143 -10.600
112 AF1 144 -9.623
112 AF1 145 -7.182
112 AF1 146 -4.740
112 AF1 147 -2.299
112 AF1 148 -0.834
112 AF1 149 0.631
112 AF1 150 2.096
112 AF1 151 2.584
112 AF1 152 2.096
112 AF1 153 0.142
112 AF1 154 -2.299
112 AF1 155 -4.252
112 AF1 156 -4.252
112 AF1 157 -2.787
112 AF1 158 -0.346
112 AF1 159 2.096
112 AF1 160 3.560
112 AF1 161 5.025
112 AF1 162 6.002
112 AF1 163 7.467
112 AF1 164 8.931
112 AF1 165 10.396
112 AF1 166 10.396
112 AF1 167 8.931
112 AF1 168 6.978
112 AF1 169 5.025
112 AF1 170 3.560
112 AF1 171 2.096
112 AF1 172 1.119
112 AF1 173 0.631
112 AF1 174 0.631
112 AF1 175 0.142
112 AF1 176 0.142
112 AF1 177 -0.834
112 AF1 178 -0.834
112 AF1 179 -0.834
112 AF1 180 -0.346
112 AF1 181 1.607
112 AF1 182 2.584
112 AF1 183 2.584
112 AF1 184 2.096
112 AF1 185 0.631
112 AF1 186 0.142
112 AF1 187 -0.834
112 AF1 188 -1.811
112 AF1 189 -3.764
112 AF1 190 -8.158
112 AF1 191 -12.553
112 AF1 192 -15.971
112 AF1 193 -17.436
112 AF1 194 -16.459
112 AF1 195 -14.018
112 AF1 196 -11.088
112 AF1 197 -9.135
112 AF1 198 -7.182
112 AF1 199 -6.205
112 AF1 200 -5.229
112 AF1 201 -4.252
112 AF1 202 -3.276
112 AF1 203 -1.811
112 AF1 204 -0.346
112 AF1 205 0.631
112 AF1 206 0.631
112 AF1 207 -0.346
112 AF1 208 -1.322
112 AF1 209 -1.322
112 AF1 210 -1.322
112 AF1 211 -0.346
112 AF1 212 0.142
112 AF1 213 0.142
112 AF1 214 0.142
112 AF1 215 0.142
112 AF1 216 0.142
112 AF1 217 0.142
112 AF1 218 0.142
112 AF1 219 0.631
112 AF1 220 1.119
112 AF1 221 1.607
112 AF1 222 2.584
112 AF1 223 3.560
112 AF1 224 4.537
112 AF1 225 4.537
112 AF1 226 5.025
112 AF1 227 4.537
112 AF1 228 3.560
112 AF1 229 2.584
112 AF1 230 1.119
112 AF1 231 0.142
112 AF1 232 0.142
112 AF1 233 0.631
112 AF1 234 2.584
112 AF1 235 4.049
112 AF1 236 4.049
112 AF1 237 3.072
112 AF1 238 0.631
112 AF1 239 -1.811
112 AF1 240 -3.764
112 AF1 241 -4.740
112 AF1 242 -6.205
112 AF1 243 -6.694
112 AF1 244 -7.182
112 AF1 245 -7.670
112 AF1 246 -7.670
112 AF1 247 -6.694
112 AF1 248 -4.740
112 AF1 249 -2.787
112 AF1 250 -1.811
112 AF1 251 -2.787
112 AF1 252 -4.252
112 AF1 253 -6.205
112 AF1 254 -7.182
112 AF1 255 -7.182
# AF2 chan 5
112 AF2 0 -1.780
112 AF2 1 -0.315
112 AF2 2 1.638
112 AF2 3 4.079
112 AF2 4 5.544
112 AF2 5 6.521
112 AF2 6 7.009
112 AF2 7 7.009
112 AF2 8 6.521
112 AF2 9 6.032
112 AF2 10 5.056
112 AF2 11 3.591
112 AF2 12 3.103
112 AF2 13 2.614
112 AF2 14 2.614
112 AF2 15 2.614
112 AF2 16 2.126
112 AF2 17 1.149
112 AF2 18 0.173
112 AF2 19 -0.804
112 AF2 20 -1.780
112 AF2 21 -1.780
112 AF2 22 -1.780
112 AF2 23 -1.292
112 AF2 24 -1.292
112 AF2 25 -1.292
112 AF2 26 -1.780
112 AF2 27 -2.268
112 AF2 28 -1.780
112 AF2 29 -1.780
112 AF2 30 -1.780
112 AF2 31 -1.780
112 AF2 32 -1.292
112 AF2 33 -0.804
112 AF2 34 0.173
112 AF2 35 2.126
112 AF2 36 3.591
112 AF2 37 4.567
112 AF2 38 4.567
112 AF2 39 4.079
112 AF2 40 3.591
112 AF2 41 3.591
112 AF2 42 3.103
112 AF2 43 2.614
112 AF2 44 2.126
112 AF2 45 2.614
112 AF2 46 4.079
112 AF2 47 6.032
112 AF2 48 7.497
112 AF2 49 7.497
112 AF2 50 6.521
112 AF2 51 5.056
112 AF2 52 3.591
112 AF2 53 2.614
112 AF2 54 2.614
112 AF2 55 3.103
112 AF2 56 4.567
112 AF2 57 6.521
112 AF2 58 7.985
112 AF2 59 8.962
112 AF2 60 8.474
112 AF2 61 7.497
112 AF2 62 6.032
112 AF2 63 5.544
112 AF2 64 5.056
112 AF2 65 4.567
112 AF2 66 4.567
112 AF2 67 4.079
112 AF2 68 4.079
112 AF2 69 4.567
112 AF2 70 6.032
112 AF2 71 7.009
112 AF2 72 7.497
112 AF2 73 7.985
112 AF2 74 7.985
112 AF2 75 8.474
112 AF2 76 8.962
112 AF2 77 9.939
112 AF2 78 10.915
112 AF2 79 10.915
112 AF2 80 10.427
112 AF2 81 10.427
112 AF2 82 10.427
112 AF2 83 10.427
112 AF2 84 10.427
112 AF2 85 10.427
112 AF2 86 9.939
112 AF2 87 9.450
112 AF2 88 8.474
112 AF2 89 7.497
112 AF2 90 7.009
112 AF2 91 6.032
112 AF2 92 4.567
112 AF2 93 2.614
112 AF2 94 1.149
112 AF2 95 0.661
112 AF2 96 1.638
112 AF2 97 3.103
112 AF2 98 4.079
112 AF2 99 4.079
112 AF2 100 3.103
112 AF2 101 2.614
112 AF2 102 2.614
112 AF2 103 4.567
112 AF2 104 6.521
112 AF2 105 7.009
112 AF2 106 6.521
112 AF2 107 5.056
112 AF2 108 4.567
112 AF2 109 5.544
112 AF2 110 7.497
112 AF2 111 7.985
112 AF2 112 7.497
112 AF2 113 4.567
112 AF2 114 2.126
112 AF2 115 1.149
112 AF2 116 1.149
112 AF2 117 2.126
112 AF2 118 3.103
112 AF2 119 2.614
112 AF2 120 0.173
112 AF2 121 -1.780
112 AF2 122 -2.757
112 AF2 123 -2.757
112 AF2 124 -2.268
112 AF2 125 -1.292
112 AF2 126 -0.804
112 AF2 127 -0.315
112 AF2 128 0.661
112 AF2 129 2.614
112 AF2 130 5.544
112 AF2 131 7.497
112 AF2 132 7.985
112 AF2 133 7.009
112 AF2 134 5.544
112 AF2 135 3.591
112 AF2 136 2.614
112 AF2 137 1.638
112 AF2 138 0.173
112 AF2 139 -1.780
112 AF2 140 -4.222
112 AF2 141 -7.151
112 AF2 142 -10.081
112 AF2 143 -11.058
112 AF2 144 -10.569
112 AF2 145 -9.104
112 AF2 146 -6.663
112 AF2 147 -4.222
112 AF2 148 -1.780
112 AF2 149 0.661
112 AF2 150 3.591
112 AF2 151 5.056
112 AF2 152 4.567
112 AF2 153 2.126
112 AF2 154 -0.804
112 AF2 155 -3.245
112 AF2 156 -3.733
112 AF2 157 -2.757
112 AF2 158 -0.804
112 AF2 159 0.661
112 AF2 160 0.661
112 AF2 161 0.661
112 AF2 162 1.149
112 AF2 163 2.126
112 AF2 164 4.079
112 AF2 165 5.544
112 AF2 166 6.032
112 AF2 167 5.544
112 AF2 168 4.079
112 AF2 169 2.614
112 AF2 170 1.638
112 AF2 171 1.149
112 AF2 172 0.661
112 AF2 173 0.173
112 AF2 174 0.173
112 AF2 175 0.661
112 AF2 176 0.173
112 AF2 177 -0.804
112 AF2 178 -1.780
112 AF2 179 -2.757
112 AF2 180 -3.245
112 AF2 181 -3.245
112 AF2 182 -3.245
112 AF2 183 -3.245
112 AF2 184 -3.733
112 AF2 185 -3.733
112 AF2 186 -3.733
112 AF2 187 -4.222
112 AF2 188 -5.198
112 AF2 189 -7.640
112 AF2 190 -11.058
112 AF2 191 -14.476
112 AF2 192 -16.429
112 AF2 193 -16.429
112 AF2 194 -15.452
112 AF2 195 -13.499
112 AF2 196 -11.546
112 AF2 197 -9.104
112 AF2 198 -7.151
112 AF2 199 -5.686
112 AF2 200 -4.222
112 AF2 201 -3.245
112 AF2 202 -1.780
112 AF2 203 -0.315
112 AF2 204 1.149
112 AF2 205 2.614
112 AF2 206 2.614
112 AF2 207 1.638
112 AF2 208 -0.315
112 AF2 209 -1.292
112 AF2 210 -1.292
112 AF2 211 -0.804
112 AF2 212 -0.315
112 AF2 213 0.173
112 AF2 214 0.173
112 AF2 215 0.661
112 AF2 216 1.149
112 AF2 217 2.614
112 AF2 218 4.079
112 AF2 219 5.056
112 AF2 220 5.544
112 AF2 221 5.544
112 AF2 222 5.544
112 AF2 223 5.544
112 AF2 224 7.009
112 AF2 225 7.985
112 AF2 226 8.474
112 AF2 227 7.497
112 AF2 228 5.544
112 AF2 229 3.591
112 AF2 230 1.638
112 AF2 231 0.661
112 AF2 232 0.173
112 AF2 233 0.661
112 AF2 234 2.126
112 AF2 235 3.591
112 AF2 236 4.567
112 AF2 237 4.567
112 AF2 238 3.591
112 AF2 239 2.126
112 AF2 240 0.661
112 AF2 241 -0.315
112 AF2 242 -1.292
112 AF2 243 -1.780
112 AF2 244 -2.757
112 AF2 245 -3.733
112 AF2 246 -4.710
112 AF2 247 -4.710
112 AF2 248 -3.733
112 AF2 249 -3.245
112 AF2 250 -2.757
112 AF2 251 -3.733
112 AF2 252 -4.710
112 AF2 253 -6.175
112 AF2 254 -7.151
112 AF2 255 -6.663
# FZ chan 6
112 FZ 0 -4.374
112 FZ 1 -2.421
112 FZ 2 -0.468
112 FZ 3 1.973
112 FZ 4 3.438
112 FZ 5 4.415
112 FZ 6 4.903
112 FZ 7 5.391
112 FZ 8 4.903
112 FZ 9 4.903
112 FZ 10 3.927
112 FZ 11 2.950
112 FZ 12 1.485
112 FZ 13 0.020
112 FZ 14 -0.468
112 FZ 15 -0.468
112 FZ 16 0.020
112 FZ 17 0.020
112 FZ 18 -0.956
112 FZ 19 -1.933
112 FZ 20 -3.398
112 FZ 21 -3.398
112 FZ 22 -2.909
112 FZ 23 -1.933
112 FZ 24 -1.444
112 FZ 25 -1.444
112 FZ 26 -1.933
112 FZ 27 -2.421
112 FZ 28 -2.421
112 FZ 29 -2.909
112 FZ 30 -2.909
112 FZ 31 -3.398
112 FZ 32 -3.886
112 FZ 33 -3.886
112 FZ 34 -2.909
112 FZ 35 -1.444
112 FZ 36 0.020
112 FZ 37 0.020
112 FZ 38 0.020
112 FZ 39 0.020
112 FZ 40 0.020
112 FZ 41 0.509
112 FZ 42 0.997
112 FZ 43 0.997
112 FZ 44 0.997
112 FZ 45 1.973
112 FZ 46 3.438
112 FZ 47 5.880
112 FZ 48 7.345
112 FZ 49 7.345
112 FZ 50 6.368
112 FZ 51 4.415
112 FZ 52 2.950
112 FZ 53 2.462
112 FZ 54 2.462
112 FZ 55 3.438
112 FZ 56 4.903
112 FZ 57 6.368
112 FZ 58 6.856
112 FZ 59 6.856
112 FZ 60 5.880
112 FZ 61 4.415
112 FZ 62 2.462
112 FZ 63 1.973
112 FZ 64 0.997
112 FZ 65 0.997
112 FZ 66 1.485
112 FZ 67 1.485
112 FZ 68 1.973
112 FZ 69 2.462
112 FZ 70 3.438
112 FZ 71 3.927
112 FZ 72 4.415
112 FZ 73 4.903
112 FZ 74 4.903
112 FZ 75 5.391
112 FZ 76 6.368
112 FZ 77 7.345
112 FZ 78 8.321
112 FZ 79 8.809
112 FZ 80 8.809
112 FZ 81 8.321
112 FZ 82 7.833
112 FZ 83 7.833
112 FZ 84 8.321
112 FZ 85 8.809
112 FZ 86 9.298
112 FZ 87 8.321
112 FZ 88 6.856
112 FZ 89 5.391
112 FZ 90 4.415
112 FZ 91 3.927
112 FZ 92 3.438
112 FZ 93 2.462
112 FZ 94 1.973
112 FZ 95 1.485
112 FZ 96 1.973
112 FZ 97 2.462
112 FZ 98 2.462
112 FZ 99 0.997
112 FZ 100 -0.468
112 FZ 101 -1.933
112 FZ 102 -1.933
112 FZ 103 -0.468
112 FZ 104 1.485
112 FZ 105 3.438
112 FZ 106 3.927
112 FZ 107 3.438
112 FZ 108 3.438
112 FZ 109 4.415
112 FZ 110 5.391
112 FZ 111 5.880
112 FZ 112 5.391
112 FZ 113 2.950
112 FZ 114 0.509
112 FZ 115 -1.444
112 FZ 116 -1.933
112 FZ 117 -0.956
112 FZ 118 0.020
112 FZ 119 0.020
112 FZ 120 -0.468
112 FZ 121 -1.933
112 FZ 122 -3.398
112 FZ 123 -3.886
112 FZ 124 -4.374
112 FZ 125 -4.862
112 FZ 126 -4.862
112 FZ 127 -4.374
112 FZ 128 -3.886
112 FZ 129 -1.933
112 FZ 130 0.020
112 FZ 131 1.973
112 FZ 132 2.950
112 FZ 133 2.950
112 FZ 134 1.973
112 FZ 135 0.509
112 FZ 136 -0.956
112 FZ 137 -1.933
112 FZ 138 -2.909
112 FZ 139 -4.862
112 FZ 140 -6.816
112 FZ 141 -9.257
112 FZ 142 -10.234
112 FZ 143 -10.722
112 FZ 144 -9.745
112 FZ 145 -8.280
112 FZ 146 -6.327
112 FZ 147 -4.374
112 FZ 148 -1.933
112 FZ 149 0.509
112 FZ 150 2.950
112 FZ 151 4.415
112 FZ 152 4.415
112 FZ 153 2.950
112 FZ 154 0.997
112 FZ 155 -0.956
112 FZ 156 -1.444
112 FZ 157 -0.956
112 FZ 158 0.020
112 FZ 159 0.509
112 FZ 160 1.485
112 FZ 161 2.462
112 FZ 162 4.415
112 FZ 163 6.368
112 FZ 164 8.809
112 FZ 165 9.786
112 FZ 166 9.786
112 FZ 167 8.809
112 FZ 168 6.856
112 FZ 169 4.903
112 FZ 170 2.462
112 FZ 171 0.509
112 FZ 172 -1.444
112 FZ 173 -2.909
112 FZ 174 -3.886
112 FZ 175 -3.886
112 FZ 176 -4.374
112 FZ 177 -4.374
112 FZ 178 -4.374
112 FZ 179 -3.398
112 FZ 180 -1.444
112 FZ 181 0.509
112 FZ 182 1.973
112 FZ 183 2.462
112 FZ 184 1.485
112 FZ 185 0.020
112 FZ 186 -1.444
112 FZ 187 -1.933
112 FZ 188 -3.398
112 FZ 189 -5.351
112 FZ 190 -8.769
112 FZ 191 -12.675
112 FZ 192 -15.116
112 FZ 193 -15.605
112 FZ 194 -14.628
112 FZ 195 -12.675
112 FZ 196 -10.234
112 FZ 197 -8.280
112 FZ 198 -6.327
112 FZ 199 -4.862
112 FZ 200 -3.886
112 FZ 201 -1.933
112 FZ 202 -0.956
112 FZ 203 0.509
112 FZ 204 1.973
112 FZ 205 2.462
112 FZ 206 2.950
112 FZ 207 2.462
112 FZ 208 0.997
112 FZ 209 -1.444
112 FZ 210 -2.421
112 FZ 211 -2.909
112 FZ 212 -1.933
112 FZ 213 -0.956
112 FZ 214 0.020
112 FZ 215 0.509
112 FZ 216 0.997
112 FZ 217 1.485
112 FZ 218 1.973
112 FZ 219 2.462
112 FZ 220 1.973
112 FZ 221 0.997
112 FZ 222 -0.468
112 FZ 223 -0.956
112 FZ 224 -0.956
112 FZ 225 0.509
112 FZ 226 1.485
112 FZ 227 1.973
112 FZ 228 1.973
112 FZ 229 1.485
112 FZ 230 0.509
112 FZ 231 -0.468
112 FZ 232 -0.468
112 FZ 233 0.020
112 FZ 234 0.020
112 FZ 235 0.997
112 FZ 236 0.997
112 FZ 237 0.509
112 FZ 238 -0.956
112 FZ 239 -2.909
112 FZ 240 -5.351
112 FZ 241 -6.816
112 FZ 242 -7.792
112 FZ 243 -7.792
112 FZ 244 -7.792
112 FZ 245 -7.304
112 FZ 246 -6.816
112 FZ 247 -5.839
112 FZ 248 -3.886
112 FZ 249 -2.909
112 FZ 250 -1.933
112 FZ 251 -2.421
112 FZ 252 -3.886
112 FZ 253 -6.327
112 FZ 254 -7.792
112 FZ 255 -8.280
# F4 chan 7
112 F4 0 0.132
112 F4 1 2.085
112 F4 2 3.550
112 F4 3 5.015
112 F4 4 5.992
112 F4 5 5.992
112 F4 6 6.480
112 F4 7 6.480
112 F4 8 5.992
112 F4 9 5.015
112 F4 10 4.038
112 F4 11 2.574
112 F4 12 1.597
112 F4 13 1.109
112 F4 14 1.597
112 F4 15 2.085
112 F4 16 1.597
112 F4 17 1.109
112 F4 18 0.132
112 F4 19 -0.844
112 F4 20 -1.333
112 F4 21 -0.844
112 F4 22 -0.356
112 F4 23 0.132
112 F4 24 0.132
112 F4 25 0.132
112 F4 26 0.132
112 F4 27 0.621
112 F4 28 0.621
112 F4 29 1.109
112 F4 30 0.621
112 F4 31 0.621
112 F4 32 1.109
112 F4 33 2.574
112 F4 34 4.038
112 F4 35 5.503
112 F4 36 5.503
112 F4 37 5.503
112 F4 38 5.015
112 F4 39 4.527
112 F4 40 5.015
112 F4 41 4.527
112 F4 42 4.038
112 F4 43 3.550
112 F4 44 3.550
112 F4 45 4.527
112 F4 46 6.968
112 F4 47 9.410
112 F4 48 10.386
112 F4 49 9.898
112 F4 50 8.433
112 F4 51 6.480
112 F4 52 5.503
112 F4 53 5.015
112 F4 54 5.015
112 F4 55 5.992
112 F4 56 6.480
112 F4 57 7.945
112 F4 58 9.410
112 F4 59 10.386
112 F4 60 10.386
112 F4 61 9.410
112 F4 62 7.945
112 F4 63 6.968
112 F4 64 5.992
112 F4 65 5.503
112 F4 66 4.527
112 F4 67 4.038
112 F4 68 4.527
112 F4 69 5.503
112 F4 70 7.456
112 F4 71 8.921
112 F4 72 8.921
112 F4 73 7.945
112 F4 74 7.456
112 F4 75 7.456
112 F4 76 8.921
112 F4 77 9.898
112 F4 78 9.898
112 F4 79 9.898
112 F4 80 9.898
112 F4 81 9.898
112 F4 82 9.898
112 F4 83 9.898
112 F4 84 8.921
112 F4 85 7.945
112 F4 86 6.968
112 F4 87 5.992
112 F4 88 5.503
112 F4 89 4.527
112 F4 90 3.550
112 F4 91 1.597
112 F4 92 -0.356
112 F4 93 -1.821
112 F4 94 -2.309
112 F4 95 -1.333
112 F4 96 -0.356
112 F4 97 1.109
112 F4 98 1.597
112 F4 99 1.597
112 F4 100 1.109
112 F4 101 1.109
112 F4 102 2.085
112 F4 103 3.550
112 F4 104 4.527
112 F4 105 5.015
112 F4 106 4.038
112 F4 107 3.062
112 F4 108 3.062
112 F4 109 3.550
112 F4 110 4.038
112 F4 111 4.038
112 F4 112 2.574
112 F4 113 0.621
112 F4 114 -0.844
112 F4 115 -1.821
112 F4 116 -0.844
112 F4 117 0.132
112 F4 118 1.109
112 F4 119 1.109
112 F4 120 0.132
112 F4 121 -0.356
112 F4 122 -1.333
112 F4 123 -1.333
112 F4 124 -1.333
112 F4 125 -0.844
112 F4 126 -0.844
112 F4 127 -0.844
112 F4 128 -0.844
112 F4 129 -0.356
112 F4 130 1.109
112 F4 131 3.062
112 F4 132 4.527
112 F4 133 4.527
112 F4 134 3.550
112 F4 135 2.085
112 F4 136 1.109
112 F4 137 1.109
112 F4 138 1.109
112 F4 139 0.132
112 F4 140 -1.821
112 F4 141 -5.239
112 F4 142 -8.657
112 F4 143 -10.610
112 F4 144 -11.587
112 F4 145 -11.098
112 F4 146 -10.122
112 F4 147 -8.657
112 F4 148 -5.239
112 F4 149 -0.844
112 F4 150 4.038
112 F4 151 7.456
112 F4 152 8.433
112 F4 153 6.480
112 F4 154 3.062
112 F4 155 -0.356
112 F4 156 -1.821
112 F4 157 -2.309
112 F4 158 -2.797
112 F4 159 -3.286
112 F4 160 -5.239
112 F4 161 -6.215
112 F4 162 -5.727
112 F4 163 -3.774
112 F4 164 -1.333
112 F4 165 0.621
112 F4 166 2.085
112 F4 167 2.085
112 F4 168 2.085
112 F4 169 1.109
112 F4 170 0.621
112 F4 171 -0.844
112 F4 172 -1.821
112 F4 173 -2.309
112 F4 174 -2.797
112 F4 175 -2.797
112 F4 176 -3.774
112 F4 177 -5.239
112 F4 178 -7.192
112 F4 179 -8.657
112 F4 180 -8.657
112 F4 181 -8.657
112 F4 182 -7.192
112 F4 183 -6.704
112 F4 184 -6.704
112 F4 185 -6.704
112 F4 186 -6.215
112 F4 187 -5.727
112 F4 188 -6.215
112 F4 189 -8.169
112 F4 190 -10.610
112 F4 191 -13.051
112 F4 192 -15.004
112 F4 193 -15.004
112 F4 194 -13.540
112 F4 195 -11.587
112 F4 196 -9.145
112 F4 197 -6.704
112 F4 198 -4.751
112 F4 199 -2.797
112 F4 200 -1.821
112 F4 201 -0.844
112 F4 202 -0.844
112 F4 203 1.109
112 F4 204 3.062
112 F4 205 4.527
112 F4 206 5.503
112 F4 207 4.527
112 F4 208 2.085
112 F4 209 -0.844
112 F4 210 -3.286
112 F4 211 -4.751
112 F4 212 -5.239
112 F4 213 -4.751
112 F4 214 -4.262
112 F4 215 -3.286
112 F4 216 -2.309
112 F4 217 -0.844
112 F4 218 1.597
112 F4 219 3.550
112 F4 220 4.038
112 F4 221 4.038
112 F4 222 3.550
112 F4 223 4.038
112 F4 224 5.015
112 F4 225 5.992
112 F4 226 6.480
112 F4 227 5.015
112 F4 228 2.085
112 F4 229 -0.356
112 F4 230 -2.309
112 F4 231 -3.286
112 F4 232 -3.286
112 F4 233 -2.309
112 F4 234 -1.333
112 F4 235 0.132
112 F4 236 2.085
112 F4 237 3.062
112 F4 238 3.062
112 F4 239 3.062
112 F4 240 1.597
112 F4 241 0.132
112 F4 242 -0.844
112 F4 243 -1.821
112 F4 244 -3.286
112 F4 245 -4.262
112 F4 246 -5.239
112 F4 247 -5.239
112 F4 248 -5.727
112 F4 249 -5.239
112 F4 250 -4.751
112 F4 251 -5.239
112 F4 252 -5.727
112 F4 253 -6.215
112 F4 254 -6.215
112 F4 255 -5.727
# F3 chan 8
112 F3 0 -0.498
112 F3 1 2.431
112 F3 2 5.849
112 F3 3 8.291
112 F3 4 8.779
112 F3 5 7.802
112 F3 6 5.849
112 F3 7 4.873
112 F3 8 4.873
112 F3 9 6.337
112 F3 10 7.802
112 F3 11 7.802
112 F3 12 6.826
112 F3 13 5.361
112 F3 14 4.873
112 F3 15 4.384
112 F3 16 4.384
112 F3 17 2.920
112 F3 18 0.966
112 F3 19 -1.475
112 F3 20 -1.963
112 F3 21 -0.498
112 F3 22 1.455
112 F3 23 2.431
112 F3 24 1.943
112 F3 25 0.478
112 F3 26 -1.475
112 F3 27 -2.452
112 F3 28 -2.940
112 F3 29 -3.428
112 F3 30 -4.405
112 F3 31 -5.870
112 F3 32 -5.870
112 F3 33 -3.916
112 F3 34 -1.475
112 F3 35 0.478
112 F3 36 1.455
112 F3 37 1.455
112 F3 38 0.478
112 F3 39 -0.498
112 F3 40 -0.010
112 F3 41 0.966
112 F3 42 2.431
112 F3 43 3.408
112 F3 44 3.408
112 F3 45 3.408
112 F3 46 3.896
112 F3 47 5.361
112 F3 48 6.826
112 F3 49 7.802
112 F3 50 6.826
112 F3 51 4.873
112 F3 52 2.431
112 F3 53 0.478
112 F3 54 0.478
112 F3 55 1.943
112 F3 56 4.384
112 F3 57 6.337
112 F3 58 8.291
112 F3 59 8.291
112 F3 60 8.291
112 F3 61 7.314
112 F3 62 5.849
112 F3 63 5.361
112 F3 64 4.384
112 F3 65 4.384
112 F3 66 5.361
112 F3 67 6.337
112 F3 68 7.314
112 F3 69 7.802
112 F3 70 7.314
112 F3 71 6.826
112 F3 72 7.314
112 F3 73 8.779
112 F3 74 9.755
112 F3 75 10.732
112 F3 76 10.244
112 F3 77 9.267
112 F3 78 8.291
112 F3 79 9.267
112 F3 80 10.244
112 F3 81 11.220
112 F3 82 12.197
112 F3 83 12.197
112 F3 84 13.173
112 F3 85 14.150
112 F3 86 15.127
112 F3 87 15.127
112 F3 88 13.662
112 F3 89 11.220
112 F3 90 9.755
112 F3 91 8.779
112 F3 92 8.779
112 F3 93 9.267
112 F3 94 9.755
112 F3 95 9.267
112 F3 96 8.291
112 F3 97 8.291
112 F3 98 6.826
112 F3 99 4.384
112 F3 100 1.455
112 F3 101 -0.987
112 F3 102 -2.940
112 F3 103 -1.963
112 F3 104 -0.498
112 F3 105 2.431
112 F3 106 3.896
112 F3 107 4.873
112 F3 108 6.337
112 F3 109 8.291
112 F3 110 10.244
112 F3 111 11.709
112 F3 112 10.732
112 F3 113 7.802
112 F3 114 3.408
112 F3 115 -0.498
112 F3 116 -2.940
112 F3 117 -2.940
112 F3 118 -2.452
112 F3 119 -1.963
112 F3 120 -2.452
112 F3 121 -3.916
112 F3 122 -5.381
112 F3 123 -5.870
112 F3 124 -6.358
112 F3 125 -7.823
112 F3 126 -8.799
112 F3 127 -9.288
112 F3 128 -7.823
112 F3 129 -4.893
112 F3 130 -1.475
112 F3 131 0.966
112 F3 132 1.455
112 F3 133 0.966
112 F3 134 0.966
112 F3 135 2.431
112 F3 136 3.408
112 F3 137 3.408
112 F3 138 0.478
112 F3 139 -3.428
112 F3 140 -7.823
112 F3 141 -10.264
112 F3 142 -11.241
112 F3 143 -10.264
112 F3 144 -7.823
112 F3 145 -6.358
112 F3 146 -4.405
112 F3 147 -2.940
112 F3 148 -1.963
112 F3 149 -0.987
112 F3 150 -0.498
112 F3 151 0.478
112 F3 152 0.478
112 F3 153 0.966
112 F3 154 1.455
112 F3 155 1.455
112 F3 156 0.966
112 F3 157 0.478
112 F3 158 -0.010
112 F3 159 -0.498
112 F3 160 0.478
112 F3 161 1.943
112 F3 162 3.896
112 F3 163 5.849
112 F3 164 7.802
112 F3 165 8.779
112 F3 166 9.755
112 F3 167 9.755
112 F3 168 8.779
112 F3 169 7.314
112 F3 170 5.849
112 F3 171 4.384
112 F3 172 2.920
112 F3 173 1.943
112 F3 174 0.478
112 F3 175 -0.498
112 F3 176 -2.940
112 F3 177 -3.916
112 F3 178 -4.405
112 F3 179 -2.940
112 F3 180 -0.010
112 F3 181 3.896
112 F3 182 6.337
112 F3 183 6.826
112 F3 184 5.849
112 F3 185 4.384
112 F3 186 3.408
112 F3 187 3.408
112 F3 188 2.920
112 F3 189 0.966
112 F3 190 -1.963
112 F3 191 -5.870
112 F3 192 -9.288
112 F3 193 -10.264
112 F3 194 -8.799
112 F3 195 -6.846
112 F3 196 -4.405
112 F3 197 -2.452
112 F3 198 -1.475
112 F3 199 -1.475
112 F3 200 -1.475
112 F3 201 -1.475
112 F3 202 -1.475
112 F3 203 -0.498
112 F3 204 -0.010
112 F3 205 0.966
112 F3 206 1.943
112 F3 207 2.920
112 F3 208 4.384
112 F3 209 5.361
112 F3 210 6.826
112 F3 211 7.802
112 F3 212 8.291
112 F3 213 7.802
112 F3 214 7.314
112 F3 215 6.337
112 F3 216 5.849
112 F3 217 5.361
112 F3 218 4.384
112 F3 219 4.384
112 F3 220 4.873
112 F3 221 5.849
112 F3 222 6.337
112 F3 223 6.337
112 F3 224 6.337
112 F3 225 5.849
112 F3 226 5.849
112 F3 227 5.849
112 F3 228 6.826
112 F3 229 6.826
112 F3 230 6.337
112 F3 231 5.849
112 F3 232 5.361
112 F3 233 6.337
112 F3 234 8.291
112 F3 235 10.732
112 F3 236 11.709
112 F3 237 10.244
112 F3 238 7.314
112 F3 239 3.896
112 F3 240 1.455
112 F3 241 0.478
112 F3 242 0.478
112 F3 243 0.966
112 F3 244 0.966
112 F3 245 -0.498
112 F3 246 -1.475
112 F3 247 -1.475
112 F3 248 -0.010
112 F3 249 2.431
112 F3 250 4.873
112 F3 251 5.849
112 F3 252 5.361
112 F3 253 2.431
112 F3 254 -0.010
112 F3 255 -1.475
# FC6 chan 9
112 FC6 0 -2.177
112 FC6 1 2.218
112 FC6 2 7.100
112 FC6 3 9.054
112 FC6 4 8.077
112 FC6 5 5.636
112 FC6 6 4.659
112 FC6 7 5.636
112 FC6 8 7.589
112 FC6 9 7.589
112 FC6 10 4.659
112 FC6 11 0.753
112 FC6 12 -0.224
112 FC6 13 1.729
112 FC6 14 5.636
112 FC6 15 7.100
112 FC6 16 4.659
112 FC6 17 -0.224
112 FC6 18 -3.642
112 FC6 19 -4.130
112 FC6 20 -2.665
112 FC6 21 -1.200
112 FC6 22 -2.665
112 FC6 23 -5.107
112 FC6 24 -6.083
112 FC6 25 -5.107
112 FC6 26 -2.177
112 FC6 27 -0.224
112 FC6 28 -0.224
112 FC6 29 -1.689
112 FC6 30 -2.177
112 FC6 31 -0.224
112 FC6 32 2.706
112 FC6 33 5.147
112 FC6 34 5.147
112 FC6 35 4.659
112 FC6 36 4.659
112 FC6 37 6.612
112 FC6 38 9.542
112 FC6 39 11.983
112 FC6 40 11.495
112 FC6 41 9.542
112 FC6 42 7.100
112 FC6 43 5.636
112 FC6 44 6.612
112 FC6 45 8.077
112 FC6 46 9.054
112 FC6 47 9.542
112 FC6 48 9.054
112 FC6 49 8.565
112 FC6 50 9.542
112 FC6 51 10.518
112 FC6 52 11.007
112 FC6 53 10.518
112 FC6 54 8.565
112 FC6 55 7.100
112 FC6 56 7.100
112 FC6 57 9.054
112 FC6 58 11.495
112 FC6 59 12.960
112 FC6 60 13.448
112 FC6 61 12.960
112 FC6 62 12.472
112 FC6 63 12.472
112 FC6 64 11.983
112 FC6 65 11.007
112 FC6 66 8.565
112 FC6 67 7.100
112 FC6 68 7.589
112 FC6 69 9.542
112 FC6 70 12.472
112 FC6 71 14.425
112 FC6 72 14.425
112 FC6 73 13.448
112 FC6 74 13.448
112 FC6 75 14.913
112 FC6 76 16.378
112 FC6 77 15.889
112 FC6 78 13.448
112 FC6 79 10.030
112 FC6 80 7.589
112 FC6 81 7.100
112 FC6 82 8.565
112 FC6 83 10.030
112 FC6 84 10.030
112 FC6 85 9.054
112 FC6 86 7.589
112 FC6 87 7.100
112 FC6 88 7.589
112 FC6 89 8.077
112 FC6 90 6.612
112 FC6 91 3.682
112 FC6 92 -1.200
112 FC6 93 -5.107
112 FC6 94 -5.107
112 FC6 95 -2.177
112 FC6 96 3.682
112 FC6 97 8.565
112 FC6 98 10.518
112 FC6 99 9.054
112 FC6 100 7.100
112 FC6 101 5.147
112 FC6 102 4.659
112 FC6 103 5.147
112 FC6 104 5.147
112 FC6 105 4.171
112 FC6 106 3.682
112 FC6 107 3.682
112 FC6 108 5.636
112 FC6 109 7.100
112 FC6 110 7.589
112 FC6 111 6.612
112 FC6 112 4.659
112 FC6 113 2.706
112 FC6 114 0.753
112 FC6 115 -1.200
112 FC6 116 -2.177
112 FC6 117 -2.177
112 FC6 118 -0.224
112 FC6 119 2.706
112 FC6 120 5.147
112 FC6 121 7.100
112 FC6 122 7.100
112 FC6 123 6.612
112 FC6 124 7.100
112 FC6 125 8.077
112 FC6 126 9.542
112 FC6 127 9.542
112 FC6 128 7.100
112 FC6 129 4.171
112 FC6 130 3.194
112 FC6 131 5.147
112 FC6 132 8.077
112 FC6 133 10.030
112 FC6 134 10.030
112 FC6 135 8.565
112 FC6 136 8.565
112 FC6 137 10.030
112 FC6 138 11.495
112 FC6 139 11.495
112 FC6 140 8.565
112 FC6 141 4.171
112 FC6 142 1.241
112 FC6 143 1.241
112 FC6 144 2.218
112 FC6 145 2.218
112 FC6 146 -0.224
112 FC6 147 -3.153
112 FC6 148 -4.618
112 FC6 149 -1.200
112 FC6 150 5.636
112 FC6 151 12.472
112 FC6 152 15.889
112 FC6 153 15.401
112 FC6 154 11.983
112 FC6 155 8.077
112 FC6 156 5.636
112 FC6 157 5.147
112 FC6 158 5.147
112 FC6 159 4.659
112 FC6 160 4.171
112 FC6 161 3.682
112 FC6 162 3.682
112 FC6 163 3.682
112 FC6 164 3.682
112 FC6 165 2.706
112 FC6 166 1.729
112 FC6 167 1.729
112 FC6 168 2.706
112 FC6 169 3.682
112 FC6 170 5.147
112 FC6 171 6.124
112 FC6 172 8.077
112 FC6 173 10.518
112 FC6 174 12.960
112 FC6 175 14.425
112 FC6 176 12.960
112 FC6 177 9.542
112 FC6 178 4.659
112 FC6 179 0.753
112 FC6 180 -2.177
112 FC6 181 -3.642
112 FC6 182 -3.642
112 FC6 183 -4.130
112 FC6 184 -4.618
112 FC6 185 -6.083
112 FC6 186 -6.571
112 FC6 187 -6.571
112 FC6 188 -4.130
112 FC6 189 -2.177
112 FC6 190 -1.689
112 FC6 191 -3.153
112 FC6 192 -5.107
112 FC6 193 -4.618
112 FC6 194 -1.689
112 FC6 195 3.682
112 FC6 196 8.565
112 FC6 197 10.518
112 FC6 198 9.542
112 FC6 199 7.100
112 FC6 200 4.659
112 FC6 201 3.194
112 FC6 202 3.194
112 FC6 203 3.682
112 FC6 204 4.659
112 FC6 205 6.612
112 FC6 206 9.054
112 FC6 207 10.518
112 FC6 208 9.054
112 FC6 209 4.659
112 FC6 210 0.264
112 FC6 211 -2.177
112 FC6 212 -0.712
112 FC6 213 2.218
112 FC6 214 4.659
112 FC6 215 4.171
112 FC6 216 2.706
112 FC6 217 3.682
112 FC6 218 7.589
112 FC6 219 13.448
112 FC6 220 17.843
112 FC6 221 18.819
112 FC6 222 17.843
112 FC6 223 17.354
112 FC6 224 17.843
112 FC6 225 19.796
112 FC6 226 20.772
112 FC6 227 18.819
112 FC6 228 14.913
112 FC6 229 10.518
112 FC6 230 6.124
112 FC6 231 3.194
112 FC6 232 1.729
112 FC6 233 0.753
112 FC6 234 1.241
112 FC6 235 2.706
112 FC6 236 5.147
112 FC6 237 8.077
112 FC6 238 11.007
112 FC6 239 14.425
112 FC6 240 16.378
112 FC6 241 17.354
112 FC6 242 16.378
112 FC6 243 12.960
112 FC6 244 9.054
112 FC6 245 5.636
112 FC6 246 2.706
112 FC6 247 0.264
112 FC6 248 -1.689
112 FC6 249 -3.642
112 FC6 250 -4.130
112 FC6 251 -3.153
112 FC6 252 -1.200
112 FC6 253 1.241
112 FC6 254 2.218
112 FC6 255 1.241
# FC5 chan 10
112 FC5 0 -7.985
112 FC5 1 1.292
112 FC5 2 13.011
112 FC5 3 20.335
112 FC5 4 17.893
112 FC5 5 7.640
112 FC5 6 -3.591
112 FC5 7 -7.985
112 FC5 8 -3.591
112 FC5 9 6.663
112 FC5 10 14.964
112 FC5 11 15.940
112 FC5 12 11.058
112 FC5 13 6.663
112 FC5 14 7.151
112 FC5 15 12.034
112 FC5 16 14.476
112 FC5 17 11.058
112 FC5 18 2.268
112 FC5 19 -5.544
112 FC5 20 -6.032
112 FC5 21 0.804
112 FC5 22 8.128
112 FC5 23 9.593
112 FC5 24 4.222
112 FC5 25 -4.079
112 FC5 26 -8.962
112 FC5 27 -9.450
112 FC5 28 -7.985
112 FC5 29 -7.497
112 FC5 30 -8.474
112 FC5 31 -8.474
112 FC5 32 -4.567
112 FC5 33 2.268
112 FC5 34 7.640
112 FC5 35 8.128
112 FC5 36 3.733
112 FC5 37 -3.103
112 FC5 38 -8.474
112 FC5 39 -10.915
112 FC5 40 -9.939
112 FC5 41 -6.521
112 FC5 42 -2.126
112 FC5 43 1.292
112 FC5 44 2.757
112 FC5 45 2.268
112 FC5 46 1.292
112 FC5 47 1.292
112 FC5 48 2.757
112 FC5 49 4.710
112 FC5 50 4.222
112 FC5 51 1.780
112 FC5 52 -2.126
112 FC5 53 -4.567
112 FC5 54 -4.567
112 FC5 55 -3.591
112 FC5 56 -1.638
112 FC5 57 -0.661
112 FC5 58 0.804
112 FC5 59 2.757
112 FC5 60 5.686
112 FC5 61 7.640
112 FC5 62 6.175
112 FC5 63 2.268
112 FC5 64 -2.126
112 FC5 65 -3.103
112 FC5 66 0.315
112 FC5 67 4.710
112 FC5 68 5.686
112 FC5 69 1.292
112 FC5 70 -4.567
112 FC5 71 -6.032
112 FC5 72 0.315
112 FC5 73 11.058
112 FC5 74 17.893
112 FC5 75 16.917
112 FC5 76 8.128
112 FC5 77 -1.149
112 FC5 78 -3.591
112 FC5 79 0.804
112 FC5 80 7.151
112 FC5 81 10.081
112 FC5 82 8.616
112 FC5 83 6.175
112 FC5 84 9.104
112 FC5 85 15.940
112 FC5 86 23.265
112 FC5 87 25.218
112 FC5 88 19.358
112 FC5 89 10.081
112 FC5 90 2.757
112 FC5 91 1.780
112 FC5 92 5.198
112 FC5 93 10.081
112 FC5 94 13.499
112 FC5 95 14.476
112 FC5 96 15.452
112 FC5 97 17.405
112 FC5 98 19.358
112 FC5 99 17.405
112 FC5 100 10.569
112 FC5 101 -0.173
112 FC5 102 -8.474
112 FC5 103 -8.962
112 FC5 104 -1.149
112 FC5 105 11.058
112 FC5 106 19.847
112 FC5 107 21.800
112 FC5 108 18.382
112 FC5 109 14.964
112 FC5 110 15.452
112 FC5 111 19.847
112 FC5 112 23.265
112 FC5 113 20.823
112 FC5 114 12.522
112 FC5 115 2.757
112 FC5 116 -2.126
112 FC5 117 0.315
112 FC5 118 6.175
112 FC5 119 11.058
112 FC5 120 11.058
112 FC5 121 7.151
112 FC5 122 3.245
112 FC5 123 1.780
112 FC5 124 1.780
112 FC5 125 1.780
112 FC5 126 -0.173
112 FC5 127 -1.638
112 FC5 128 -0.661
112 FC5 129 3.245
112 FC5 130 7.151
112 FC5 131 7.640
112 FC5 132 5.686
112 FC5 133 3.733
112 FC5 134 5.198
112 FC5 135 10.081
112 FC5 136 14.964
112 FC5 137 14.476
112 FC5 138 8.616
112 FC5 139 1.292
112 FC5 140 -2.614
112 FC5 141 -1.638
112 FC5 142 1.292
112 FC5 143 1.292
112 FC5 144 -1.638
112 FC5 145 -4.567
112 FC5 146 -3.591
112 FC5 147 1.780
112 FC5 148 7.640
112 FC5 149 9.104
112 FC5 150 5.198
112 FC5 151 -0.173
112 FC5 152 -1.638
112 FC5 153 3.245
112 FC5 154 10.081
112 FC5 155 13.011
112 FC5 156 8.616
112 FC5 157 -0.173
112 FC5 158 -6.032
112 FC5 159 -4.079
112 FC5 160 5.686
112 FC5 161 16.429
112 FC5 162 21.311
112 FC5 163 18.870
112 FC5 164 13.987
112 FC5 165 13.011
112 FC5 166 17.405
112 FC5 167 24.241
112 FC5 168 26.683
112 FC5 169 21.800
112 FC5 170 13.011
112 FC5 171 6.663
112 FC5 172 6.175
112 FC5 173 11.546
112 FC5 174 16.917
112 FC5 175 17.405
112 FC5 176 12.522
112 FC5 177 6.175
112 FC5 178 2.757
112 FC5 179 5.198
112 FC5 180 12.034
112 FC5 181 18.870
112 FC5 182 21.800
112 FC5 183 19.847
112 FC5 184 14.964
112 FC5 185 10.569
112 FC5 186 9.593
112 FC5 187 11.546
112 FC5 188 13.499
112 FC5 189 12.034
112 FC5 190 5.198
112 FC5 191 -3.591
112 FC5 192 -9.939
112 FC5 193 -9.939
112 FC5 194 -4.567
112 FC5 195 2.268
112 FC5 196 5.198
112 FC5 197 2.757
112 FC5 198 -3.591
112 FC5 199 -8.474
112 FC5 200 -9.450
112 FC5 201 -6.521
112 FC5 202 -2.614
112 FC5 203 -1.149
112 FC5 204 -1.638
112 FC5 205 -3.103
112 FC5 206 -2.126
112 FC5 207 2.268
112 FC5 208 7.640
112 FC5 209 12.522
112 FC5 210 14.476
112 FC5 211 13.011
112 FC5 212 10.081
112 FC5 213 6.663
112 FC5 214 4.222
112 FC5 215 3.245
112 FC5 216 3.245
112 FC5 217 3.733
112 FC5 218 5.198
112 FC5 219 7.151
112 FC5 220 9.104
112 FC5 221 10.081
112 FC5 222 10.569
112 FC5 223 9.104
112 FC5 224 7.640
112 FC5 225 7.151
112 FC5 226 8.616
112 FC5 227 12.034
112 FC5 228 15.940
112 FC5 229 16.917
112 FC5 230 14.476
112 FC5 231 10.081
112 FC5 232 6.175
112 FC5 233 5.686
112 FC5 234 8.616
112 FC5 235 13.011
112 FC5 236 15.940
112 FC5 237 15.452
112 FC5 238 10.569
112 FC5 239 5.198
112 FC5 240 1.292
112 FC5 241 0.315
112 FC5 242 2.268
112 FC5 243 5.198
112 FC5 244 6.663
112 FC5 245 5.686
112 FC5 246 2.268
112 FC5 247 -1.149
112 FC5 248 -1.638
112 FC5 249 1.780
112 FC5 250 8.616
112 FC5 251 13.987
112 FC5 252 14.964
112 FC5 253 9.593
112 FC5 254 1.292
112 FC5 255 -3.591
# FC2 chan 11
112 FC2 0 -1.058
112 FC2 1 -0.081
112 FC2 2 1.383
112 FC2 3 2.360
112 FC2 4 2.848
112 FC2 5 3.825
112 FC2 6 4.313
112 FC2 7 5.290
112 FC2 8 5.290
112 FC2 9 4.801
112 FC2 10 3.825
112 FC2 11 2.360
112 FC2 12 1.383
112 FC2 13 0.895
112 FC2 14 0.895
112 FC2 15 1.383
112 FC2 16 1.383
112 FC2 17 1.383
112 FC2 18 1.383
112 FC2 19 1.383
112 FC2 20 0.895
112 FC2 21 0.895
112 FC2 22 0.407
112 FC2 23 0.407
112 FC2 24 0.895
112 FC2 25 1.872
112 FC2 26 2.848
112 FC2 27 3.337
112 FC2 28 3.337
112 FC2 29 3.337
112 FC2 30 2.360
112 FC2 31 2.360
112 FC2 32 2.848
112 FC2 33 3.337
112 FC2 34 3.825
112 FC2 35 3.337
112 FC2 36 2.360
112 FC2 37 1.383
112 FC2 38 1.383
112 FC2 39 1.872
112 FC2 40 2.360
112 FC2 41 2.848
112 FC2 42 2.360
112 FC2 43 1.872
112 FC2 44 2.360
112 FC2 45 3.825
112 FC2 46 5.778
112 FC2 47 7.243
112 FC2 48 7.731
112 FC2 49 7.243
112 FC2 50 5.778
112 FC2 51 5.290
112 FC2 52 5.290
112 FC2 53 6.266
112 FC2 54 7.243
112 FC2 55 7.731
112 FC2 56 8.219
112 FC2 57 8.708
112 FC2 58 8.708
112 FC2 59 9.196
112 FC2 60 8.708
112 FC2 61 8.219
112 FC2 62 7.243
112 FC2 63 6.266
112 FC2 64 5.290
112 FC2 65 4.313
112 FC2 66 3.337
112 FC2 67 2.848
112 FC2 68 2.848
112 FC2 69 3.337
112 FC2 70 4.801
112 FC2 71 5.290
112 FC2 72 5.290
112 FC2 73 4.801
112 FC2 74 4.313
112 FC2 75 4.313
112 FC2 76 4.801
112 FC2 77 5.290
112 FC2 78 5.778
112 FC2 79 6.266
112 FC2 80 6.755
112 FC2 81 6.266
112 FC2 82 6.266
112 FC2 83 5.778
112 FC2 84 5.778
112 FC2 85 5.290
112 FC2 86 4.801
112 FC2 87 3.825
112 FC2 88 2.848
112 FC2 89 1.872
112 FC2 90 0.895
112 FC2 91 0.407
112 FC2 92 -0.081
112 FC2 93 -0.570
112 FC2 94 -0.081
112 FC2 95 0.407
112 FC2 96 0.895
112 FC2 97 1.872
112 FC2 98 1.872
112 FC2 99 1.383
112 FC2 100 0.895
112 FC2 101 -0.081
112 FC2 102 -0.081
112 FC2 103 0.407
112 FC2 104 0.895
112 FC2 105 1.383
112 FC2 106 1.383
112 FC2 107 1.383
112 FC2 108 1.383
112 FC2 109 2.360
112 FC2 110 2.848
112 FC2 111 2.360
112 FC2 112 1.872
112 FC2 113 0.407
112 FC2 114 -0.570
112 FC2 115 -1.058
112 FC2 116 -0.570
112 FC2 117 0.407
112 FC2 118 0.895
112 FC2 119 1.383
112 FC2 120 1.383
112 FC2 121 1.383
112 FC2 122 1.383
112 FC2 123 1.383
112 FC2 124 1.383
112 FC2 125 1.872
112 FC2 126 1.383
112 FC2 127 1.383
112 FC2 128 1.383
112 FC2 129 1.383
112 FC2 130 1.872
112 FC2 131 2.360
112 FC2 132 3.825
112 FC2 133 4.313
112 FC2 134 4.313
112 FC2 135 3.337
112 FC2 136 2.848
112 FC2 137 2.360
112 FC2 138 1.872
112 FC2 139 0.407
112 FC2 140 -1.058
112 FC2 141 -3.011
112 FC2 142 -4.964
112 FC2 143 -5.452
112 FC2 144 -5.452
112 FC2 145 -4.476
112 FC2 146 -3.988
112 FC2 147 -3.499
112 FC2 148 -2.035
112 FC2 149 0.407
112 FC2 150 3.825
112 FC2 151 6.266
112 FC2 152 7.243
112 FC2 153 6.266
112 FC2 154 4.313
112 FC2 155 2.360
112 FC2 156 1.383
112 FC2 157 1.383
112 FC2 158 0.895
112 FC2 159 0.407
112 FC2 160 -1.058
112 FC2 161 -1.546
112 FC2 162 -1.546
112 FC2 163 -0.570
112 FC2 164 0.895
112 FC2 165 1.383
112 FC2 166 1.383
112 FC2 167 1.383
112 FC2 168 1.383
112 FC2 169 1.383
112 FC2 170 0.895
112 FC2 171 -0.081
112 FC2 172 -1.058
112 FC2 173 -2.035
112 FC2 174 -2.523
112 FC2 175 -2.523
112 FC2 176 -2.035
112 FC2 177 -2.035
112 FC2 178 -2.035
112 FC2 179 -1.546
112 FC2 180 -0.570
112 FC2 181 0.407
112 FC2 182 1.383
112 FC2 183 0.895
112 FC2 184 -0.570
112 FC2 185 -2.035
112 FC2 186 -3.499
112 FC2 187 -3.499
112 FC2 188 -3.988
112 FC2 189 -4.964
112 FC2 190 -6.429
112 FC2 191 -8.382
112 FC2 192 -9.847
112 FC2 193 -10.335
112 FC2 194 -9.359
112 FC2 195 -7.406
112 FC2 196 -4.964
112 FC2 197 -2.523
112 FC2 198 -0.081
112 FC2 199 1.872
112 FC2 200 2.848
112 FC2 201 2.848
112 FC2 202 2.360
112 FC2 203 2.360
112 FC2 204 2.848
112 FC2 205 3.825
112 FC2 206 4.801
112 FC2 207 3.825
112 FC2 208 1.872
112 FC2 209 -1.058
112 FC2 210 -3.499
112 FC2 211 -3.988
112 FC2 212 -3.499
112 FC2 213 -2.035
112 FC2 214 -1.546
112 FC2 215 -1.058
112 FC2 216 -0.570
112 FC2 217 0.895
112 FC2 218 2.360
112 FC2 219 4.313
112 FC2 220 4.313
112 FC2 221 4.313
112 FC2 222 3.337
112 FC2 223 2.848
112 FC2 224 3.825
112 FC2 225 4.801
112 FC2 226 5.290
112 FC2 227 4.313
112 FC2 228 2.360
112 FC2 229 0.895
112 FC2 230 -0.081
112 FC2 231 -0.081
112 FC2 232 -0.081
112 FC2 233 -0.081
112 FC2 234 -0.570
112 FC2 235 -0.081
112 FC2 236 0.895
112 FC2 237 1.872
112 FC2 238 2.848
112 FC2 239 2.360
112 FC2 240 1.383
112 FC2 241 -0.081
112 FC2 242 -1.546
112 FC2 243 -2.523
112 FC2 244 -2.035
112 FC2 245 -1.546
112 FC2 246 -1.058
112 FC2 247 -0.081
112 FC2 248 0.407
112 FC2 249 0.407
112 FC2 250 -0.081
112 FC2 251 -0.570
112 FC2 252 -1.058
112 FC2 253 -1.546
112 FC2 254 -2.035
112 FC2 255 -2.035
# FC1 chan 12
112 FC1 0 -2.614
112 FC1 1 -1.638
112 FC1 2 0.315
112 FC1 3 1.292
112 FC1 4 2.268
112 FC1 5 2.268
112 FC1 6 2.268
112 FC1 7 2.757
112 FC1 8 4.222
112 FC1 9 5.686
112 FC1 10 6.663
112 FC1 11 6.175
112 FC1 12 5.198
112 FC1 13 3.733
112 FC1 14 3.733
112 FC1 15 4.222
112 FC1 16 4.222
112 FC1 17 3.245
112 FC1 18 1.780
112 FC1 19 0.315
112 FC1 20 -0.661
112 FC1 21 0.804
112 FC1 22 1.780
112 FC1 23 2.268
112 FC1 24 1.292
112 FC1 25 -0.173
112 FC1 26 -1.638
112 FC1 27 -2.126
112 FC1 28 -2.126
112 FC1 29 -1.638
112 FC1 30 -1.638
112 FC1 31 -1.638
112 FC1 32 -2.126
112 FC1 33 -1.638
112 FC1 34 -1.149
112 FC1 35 -0.661
112 FC1 36 -1.149
112 FC1 37 -1.638
112 FC1 38 -2.614
112 FC1 39 -3.103
112 FC1 40 -2.614
112 FC1 41 -2.126
112 FC1 42 -1.638
112 FC1 43 -1.149
112 FC1 44 -1.149
112 FC1 45 -1.638
112 FC1 46 -1.149
112 FC1 47 -0.173
112 FC1 48 0.804
112 FC1 49 0.315
112 FC1 50 -0.661
112 FC1 51 -1.638
112 FC1 52 -2.614
112 FC1 53 -2.126
112 FC1 54 -1.638
112 FC1 55 -0.661
112 FC1 56 0.804
112 FC1 57 1.292
112 FC1 58 1.292
112 FC1 59 1.780
112 FC1 60 1.780
112 FC1 61 1.780
112 FC1 62 0.804
112 FC1 63 -0.173
112 FC1 64 -1.638
112 FC1 65 -1.638
112 FC1 66 -1.149
112 FC1 67 -0.173
112 FC1 68 0.804
112 FC1 69 0.804
112 FC1 70 0.804
112 FC1 71 0.315
112 FC1 72 0.804
112 FC1 73 2.268
112 FC1 74 3.733
112 FC1 75 4.222
112 FC1 76 3.245
112 FC1 77 1.292
112 FC1 78 0.315
112 FC1 79 0.315
112 FC1 80 0.804
112 FC1 81 1.292
112 FC1 82 1.292
112 FC1 83 1.292
112 FC1 84 2.268
112 FC1 85 4.222
112 FC1 86 6.663
112 FC1 87 7.640
112 FC1 88 7.151
112 FC1 89 4.222
112 FC1 90 1.292
112 FC1 91 -0.661
112 FC1 92 -1.149
112 FC1 93 -0.661
112 FC1 94 0.315
112 FC1 95 0.315
112 FC1 96 -0.173
112 FC1 97 -0.661
112 FC1 98 -1.149
112 FC1 99 -1.638
112 FC1 100 -2.614
112 FC1 101 -3.591
112 FC1 102 -5.056
112 FC1 103 -5.056
112 FC1 104 -4.079
112 FC1 105 -2.126
112 FC1 106 -0.173
112 FC1 107 1.780
112 FC1 108 2.268
112 FC1 109 2.757
112 FC1 110 3.733
112 FC1 111 4.710
112 FC1 112 5.198
112 FC1 113 4.222
112 FC1 114 2.757
112 FC1 115 0.315
112 FC1 116 -1.638
112 FC1 117 -2.126
112 FC1 118 -1.638
112 FC1 119 -0.661
112 FC1 120 -1.149
112 FC1 121 -2.126
112 FC1 122 -3.591
112 FC1 123 -4.567
112 FC1 124 -5.056
112 FC1 125 -5.056
112 FC1 126 -5.544
112 FC1 127 -5.544
112 FC1 128 -5.544
112 FC1 129 -4.079
112 FC1 130 -2.126
112 FC1 131 -0.173
112 FC1 132 1.292
112 FC1 133 1.292
112 FC1 134 0.315
112 FC1 135 0.315
112 FC1 136 0.804
112 FC1 137 0.804
112 FC1 138 0.315
112 FC1 139 -1.638
112 FC1 140 -3.591
112 FC1 141 -5.544
112 FC1 142 -6.521
112 FC1 143 -6.032
112 FC1 144 -5.544
112 FC1 145 -4.567
112 FC1 146 -3.103
112 FC1 147 -1.149
112 FC1 148 0.315
112 FC1 149 1.292
112 FC1 150 2.268
112 FC1 151 1.780
112 FC1 152 1.292
112 FC1 153 0.315
112 FC1 154 0.315
112 FC1 155 0.315
112 FC1 156 0.315
112 FC1 157 0.315
112 FC1 158 -0.173
112 FC1 159 -0.661
112 FC1 160 -0.173
112 FC1 161 1.292
112 FC1 162 3.245
112 FC1 163 5.198
112 FC1 164 6.663
112 FC1 165 8.128
112 FC1 166 8.616
112 FC1 167 8.616
112 FC1 168 7.640
112 FC1 169 6.175
112 FC1 170 4.222
112 FC1 171 1.780
112 FC1 172 -0.661
112 FC1 173 -2.126
112 FC1 174 -3.591
112 FC1 175 -4.567
112 FC1 176 -5.544
112 FC1 177 -6.032
112 FC1 178 -5.544
112 FC1 179 -3.591
112 FC1 180 -0.661
112 FC1 181 2.757
112 FC1 182 5.198
112 FC1 183 6.175
112 FC1 184 5.686
112 FC1 185 4.222
112 FC1 186 2.757
112 FC1 187 1.780
112 FC1 188 0.804
112 FC1 189 0.315
112 FC1 190 -1.638
112 FC1 191 -4.079
112 FC1 192 -6.521
112 FC1 193 -7.985
112 FC1 194 -7.985
112 FC1 195 -7.009
112 FC1 196 -6.032
112 FC1 197 -5.056
112 FC1 198 -5.056
112 FC1 199 -5.056
112 FC1 200 -4.567
112 FC1 201 -3.103
112 FC1 202 -1.638
112 FC1 203 -0.173
112 FC1 204 1.292
112 FC1 205 1.780
112 FC1 206 1.292
112 FC1 207 1.292
112 FC1 208 0.804
112 FC1 209 0.804
112 FC1 210 0.804
112 FC1 211 1.292
112 FC1 212 1.292
112 FC1 213 1.292
112 FC1 214 0.804
112 FC1 215 0.804
112 FC1 216 0.315
112 FC1 217 0.315
112 FC1 218 0.315
112 FC1 219 -0.173
112 FC1 220 -1.149
112 FC1 221 -2.126
112 FC1 222 -2.614
112 FC1 223 -3.103
112 FC1 224 -3.591
112 FC1 225 -3.103
112 FC1 226 -2.126
112 FC1 227 -1.149
112 FC1 228 0.315
112 FC1 229 0.804
112 FC1 230 0.315
112 FC1 231 -0.661
112 FC1 232 -2.126
112 FC1 233 -1.638
112 FC1 234 -0.661
112 FC1 235 1.292
112 FC1 236 2.268
112 FC1 237 1.780
112 FC1 238 -0.661
112 FC1 239 -3.591
112 FC1 240 -5.544
112 FC1 241 -6.521
112 FC1 242 -7.009
112 FC1 243 -6.521
112 FC1 244 -6.521
112 FC1 245 -6.521
112 FC1 246 -6.521
112 FC1 247 -5.544
112 FC1 248 -3.591
112 FC1 249 -2.126
112 FC1 250 -1.149
112 FC1 251 -1.149
112 FC1 252 -1.638
112 FC1 253 -2.614
112 FC1 254 -3.591
112 FC1 255 -4.567
# T8 chan 13
112 T8 0 -13.112
112 T8 1 -13.112
112 T8 2 -10.671
112 T8 3 -6.765
112 T8 4 -2.858
112 T8 5 0.071
112 T8 6 1.536
112 T8 7 1.536
112 T8 8 1.048
112 T8 9 0.071
112 T8 10 -0.905
112 T8 11 -2.370
112 T8 12 -3.835
112 T8 13 -5.300
112 T8 14 -5.788
112 T8 15 -5.788
112 T8 16 -6.276
112 T8 17 -6.276
112 T8 18 -6.765
112 T8 19 -7.253
112 T8 20 -7.253
112 T8 21 -8.230
112 T8 22 -9.694
112 T8 23 -12.624
112 T8 24 -14.577
112 T8 25 -15.554
112 T8 26 -14.089
112 T8 27 -11.159
112 T8 28 -8.230
112 T8 29 -5.788
112 T8 30 -3.835
112 T8 31 -1.394
112 T8 32 0.559
112 T8 33 3.001
112 T8 34 4.954
112 T8 35 5.931
112 T8 36 5.931
112 T8 37 5.442
112 T8 38 4.954
112 T8 39 5.442
112 T8 40 6.419
112 T8 41 6.907
112 T8 42 7.395
112 T8 43 7.395
112 T8 44 7.395
112 T8 45 7.884
112 T8 46 7.395
112 T8 47 5.931
112 T8 48 3.489
112 T8 49 0.559
112 T8 50 -1.882
112 T8 51 -2.858
112 T8 52 -2.370
112 T8 53 -1.394
112 T8 54 -0.417
112 T8 55 1.048
112 T8 56 3.001
112 T8 57 5.442
112 T8 58 6.907
112 T8 59 7.395
112 T8 60 6.419
112 T8 61 3.977
112 T8 62 2.024
112 T8 63 1.536
112 T8 64 2.513
112 T8 65 4.954
112 T8 66 6.907
112 T8 67 7.884
112 T8 68 8.372
112 T8 69 8.372
112 T8 70 8.860
112 T8 71 9.349
112 T8 72 9.349
112 T8 73 8.372
112 T8 74 6.419
112 T8 75 5.442
112 T8 76 5.442
112 T8 77 6.907
112 T8 78 7.884
112 T8 79 7.884
112 T8 80 5.442
112 T8 81 2.513
112 T8 82 0.559
112 T8 83 0.071
112 T8 84 1.536
112 T8 85 3.001
112 T8 86 3.489
112 T8 87 2.513
112 T8 88 1.048
112 T8 89 1.536
112 T8 90 3.001
112 T8 91 4.954
112 T8 92 4.954
112 T8 93 3.489
112 T8 94 0.559
112 T8 95 -0.905
112 T8 96 0.559
112 T8 97 3.001
112 T8 98 5.931
112 T8 99 6.907
112 T8 100 5.442
112 T8 101 3.489
112 T8 102 2.024
112 T8 103 2.024
112 T8 104 2.513
112 T8 105 2.024
112 T8 106 0.559
112 T8 107 -0.905
112 T8 108 -1.882
112 T8 109 -0.905
112 T8 110 1.048
112 T8 111 2.024
112 T8 112 2.024
112 T8 113 -0.417
112 T8 114 -2.370
112 T8 115 -3.347
112 T8 116 -3.347
112 T8 117 -0.905
112 T8 118 1.536
112 T8 119 3.489
112 T8 120 4.466
112 T8 121 4.466
112 T8 122 4.466
112 T8 123 3.977
112 T8 124 3.489
112 T8 125 3.977
112 T8 126 4.954
112 T8 127 5.442
112 T8 128 6.419
112 T8 129 5.931
112 T8 130 4.954
112 T8 131 3.001
112 T8 132 1.048
112 T8 133 -0.417
112 T8 134 -0.417
112 T8 135 1.048
112 T8 136 3.489
112 T8 137 5.442
112 T8 138 7.395
112 T8 139 7.395
112 T8 140 5.931
112 T8 141 3.489
112 T8 142 0.559
112 T8 143 -2.858
112 T8 144 -6.276
112 T8 145 -8.718
112 T8 146 -10.183
112 T8 147 -10.183
112 T8 148 -8.230
112 T8 149 -3.835
112 T8 150 0.559
112 T8 151 3.001
112 T8 152 3.001
112 T8 153 1.048
112 T8 154 -0.905
112 T8 155 -1.394
112 T8 156 1.048
112 T8 157 3.977
112 T8 158 6.419
112 T8 159 6.419
112 T8 160 3.977
112 T8 161 1.536
112 T8 162 -0.417
112 T8 163 -0.417
112 T8 164 -0.905
112 T8 165 -2.370
112 T8 166 -5.300
112 T8 167 -8.230
112 T8 168 -9.206
112 T8 169 -7.741
112 T8 170 -3.835
112 T8 171 0.071
112 T8 172 3.001
112 T8 173 3.977
112 T8 174 4.466
112 T8 175 5.442
112 T8 176 6.419
112 T8 177 7.395
112 T8 178 6.419
112 T8 179 3.489
112 T8 180 -0.905
112 T8 181 -6.276
112 T8 182 -12.136
112 T8 183 -17.019
112 T8 184 -20.925
112 T8 185 -22.878
112 T8 186 -22.390
112 T8 187 -20.437
112 T8 188 -17.995
112 T8 189 -15.554
112 T8 190 -14.089
112 T8 191 -12.624
112 T8 192 -11.648
112 T8 193 -9.694
112 T8 194 -7.741
112 T8 195 -5.300
112 T8 196 -3.835
112 T8 197 -2.858
112 T8 198 -1.882
112 T8 199 -2.370
112 T8 200 -3.835
112 T8 201 -5.788
112 T8 202 -7.741
112 T8 203 -8.230
112 T8 204 -6.765
112 T8 205 -3.835
112 T8 206 -0.905
112 T8 207 0.071
112 T8 208 -0.905
112 T8 209 -3.347
112 T8 210 -4.323
112 T8 211 -3.835
112 T8 212 -1.882
112 T8 213 0.071
112 T8 214 0.559
112 T8 215 0.071
112 T8 216 -1.394
112 T8 217 -1.394
112 T8 218 1.048
112 T8 219 5.442
112 T8 220 9.837
112 T8 221 13.743
112 T8 222 16.673
112 T8 223 18.138
112 T8 224 19.602
112 T8 225 20.579
112 T8 226 20.579
112 T8 227 18.626
112 T8 228 14.720
112 T8 229 9.349
112 T8 230 4.954
112 T8 231 1.536
112 T8 232 0.559
112 T8 233 -0.417
112 T8 234 -0.905
112 T8 235 -1.882
112 T8 236 -1.882
112 T8 237 0.071
112 T8 238 3.977
112 T8 239 8.860
112 T8 240 12.278
112 T8 241 14.231
112 T8 242 14.231
112 T8 243 12.278
112 T8 244 9.837
112 T8 245 6.907
112 T8 246 3.977
112 T8 247 0.071
112 T8 248 -3.347
112 T8 249 -5.788
112 T8 250 -6.276
112 T8 251 -5.788
112 T8 252 -4.812
112 T8 253 -4.323
112 T8 254 -4.812
112 T8 255 -4.812
# T7 chan 14
112 T7 0 -3.571
112 T7 1 -1.129
112 T7 2 -0.153
112 T7 3 -1.617
112 T7 4 -2.594
112 T7 5 -2.106
112 T7 6 0.824
112 T7 7 4.730
112 T7 8 6.683
112 T7 9 7.660
112 T7 10 7.660
112 T7 11 9.125
112 T7 12 11.566
112 T7 13 12.543
112 T7 14 10.590
112 T7 15 5.707
112 T7 16 1.312
112 T7 17 -0.153
112 T7 18 1.801
112 T7 19 4.242
112 T7 20 3.265
112 T7 21 -0.641
112 T7 22 -6.012
112 T7 23 -8.942
112 T7 24 -9.430
112 T7 25 -8.453
112 T7 26 -7.965
112 T7 27 -9.918
112 T7 28 -11.383
112 T7 29 -11.383
112 T7 30 -8.942
112 T7 31 -5.524
112 T7 32 -4.059
112 T7 33 -4.547
112 T7 34 -6.989
112 T7 35 -7.477
112 T7 36 -5.524
112 T7 37 -1.129
112 T7 38 2.289
112 T7 39 4.242
112 T7 40 3.265
112 T7 41 1.312
112 T7 42 -0.153
112 T7 43 -0.641
112 T7 44 -1.129
112 T7 45 -2.594
112 T7 46 -5.524
112 T7 47 -7.965
112 T7 48 -8.942
112 T7 49 -6.500
112 T7 50 -2.106
112 T7 51 2.289
112 T7 52 4.242
112 T7 53 2.777
112 T7 54 0.336
112 T7 55 -1.617
112 T7 56 -1.129
112 T7 57 0.336
112 T7 58 1.801
112 T7 59 0.824
112 T7 60 -0.641
112 T7 61 -1.617
112 T7 62 0.824
112 T7 63 5.707
112 T7 64 9.613
112 T7 65 9.125
112 T7 66 5.219
112 T7 67 0.336
112 T7 68 0.336
112 T7 69 6.683
112 T7 70 15.472
112 T7 71 20.355
112 T7 72 16.449
112 T7 73 6.195
112 T7 74 -3.571
112 T7 75 -6.012
112 T7 76 -0.153
112 T7 77 9.125
112 T7 78 14.984
112 T7 79 14.008
112 T7 80 9.125
112 T7 81 4.730
112 T7 82 6.195
112 T7 83 11.566
112 T7 84 16.449
112 T7 85 16.449
112 T7 86 11.566
112 T7 87 6.683
112 T7 88 5.707
112 T7 89 12.054
112 T7 90 21.332
112 T7 91 27.679
112 T7 92 26.703
112 T7 93 18.890
112 T7 94 8.148
112 T7 95 1.801
112 T7 96 2.289
112 T7 97 6.195
112 T7 98 10.101
112 T7 99 9.613
112 T7 100 7.172
112 T7 101 6.195
112 T7 102 9.613
112 T7 103 16.449
112 T7 104 21.820
112 T7 105 22.308
112 T7 106 17.914
112 T7 107 13.031
112 T7 108 11.566
112 T7 109 15.472
112 T7 110 20.355
112 T7 111 21.820
112 T7 112 18.890
112 T7 113 14.496
112 T7 114 13.031
112 T7 115 16.449
112 T7 116 22.797
112 T7 117 26.215
112 T7 118 23.285
112 T7 119 14.984
112 T7 120 6.683
112 T7 121 2.777
112 T7 122 4.242
112 T7 123 6.683
112 T7 124 7.172
112 T7 125 4.242
112 T7 126 0.824
112 T7 127 -0.153
112 T7 128 3.265
112 T7 129 9.125
112 T7 130 14.496
112 T7 131 16.937
112 T7 132 16.937
112 T7 133 14.984
112 T7 134 13.031
112 T7 135 10.101
112 T7 136 7.172
112 T7 137 3.754
112 T7 138 1.312
112 T7 139 0.336
112 T7 140 1.801
112 T7 141 5.219
112 T7 142 8.148
112 T7 143 10.101
112 T7 144 9.125
112 T7 145 7.172
112 T7 146 4.242
112 T7 147 2.777
112 T7 148 3.754
112 T7 149 6.683
112 T7 150 10.101
112 T7 151 11.078
112 T7 152 8.636
112 T7 153 4.242
112 T7 154 0.336
112 T7 155 -0.641
112 T7 156 2.777
112 T7 157 10.101
112 T7 158 16.449
112 T7 159 19.867
112 T7 160 19.867
112 T7 161 18.402
112 T7 162 17.914
112 T7 163 19.867
112 T7 164 21.820
112 T7 165 22.797
112 T7 166 20.844
112 T7 167 16.937
112 T7 168 14.984
112 T7 169 15.961
112 T7 170 20.355
112 T7 171 24.750
112 T7 172 26.215
112 T7 173 23.773
112 T7 174 18.890
112 T7 175 14.496
112 T7 176 12.543
112 T7 177 14.008
112 T7 178 15.961
112 T7 179 17.426
112 T7 180 17.426
112 T7 181 15.472
112 T7 182 13.031
112 T7 183 11.566
112 T7 184 12.054
112 T7 185 13.031
112 T7 186 14.496
112 T7 187 13.519
112 T7 188 11.078
112 T7 189 7.660
112 T7 190 4.730
112 T7 191 3.265
112 T7 192 3.265
112 T7 193 1.801
112 T7 194 -2.106
112 T7 195 -7.965
112 T7 196 -12.360
112 T7 197 -12.848
112 T7 198 -9.430
112 T7 199 -5.035
112 T7 200 -4.059
112 T7 201 -6.989
112 T7 202 -10.895
112 T7 203 -11.383
112 T7 204 -6.989
112 T7 205 0.336
112 T7 206 5.219
112 T7 207 5.219
112 T7 208 1.801
112 T7 209 -1.129
112 T7 210 0.336
112 T7 211 6.195
112 T7 212 12.054
112 T7 213 15.472
112 T7 214 15.472
112 T7 215 14.008
112 T7 216 14.496
112 T7 217 15.472
112 T7 218 16.449
112 T7 219 14.008
112 T7 220 9.125
112 T7 221 4.730
112 T7 222 5.707
112 T7 223 11.566
112 T7 224 19.867
112 T7 225 25.726
112 T7 226 24.750
112 T7 227 17.426
112 T7 228 9.125
112 T7 229 5.707
112 T7 230 9.613
112 T7 231 18.402
112 T7 232 25.726
112 T7 233 27.679
112 T7 234 23.285
112 T7 235 15.961
112 T7 236 10.101
112 T7 237 7.660
112 T7 238 9.613
112 T7 239 12.054
112 T7 240 14.008
112 T7 241 13.519
112 T7 242 11.078
112 T7 243 8.148
112 T7 244 5.219
112 T7 245 3.265
112 T7 246 2.289
112 T7 247 4.242
112 T7 248 8.148
112 T7 249 13.031
112 T7 250 15.961
112 T7 251 15.961
112 T7 252 13.031
112 T7 253 9.125
112 T7 254 6.683
112 T7 255 6.195
# CZ chan 15
112 CZ 0 -8.453
112 CZ 1 -5.524
112 CZ 2 -3.082
112 CZ 3 -1.617
112 CZ 4 -1.617
112 CZ 5 -1.617
112 CZ 6 -1.617
112 CZ 7 -1.129
112 CZ 8 -0.641
112 CZ 9 -0.153
112 CZ 10 -0.153
112 CZ 11 -0.153
112 CZ 12 0.824
112 CZ 13 1.312
112 CZ 14 1.801
112 CZ 15 1.312
112 CZ 16 0.336
112 CZ 17 -0.153
112 CZ 18 -0.153
112 CZ 19 0.824
112 CZ 20 0.336
112 CZ 21 -1.617
112 CZ 22 -5.524
112 CZ 23 -9.430
112 CZ 24 -12.360
112 CZ 25 -13.824
112 CZ 26 -13.824
112 CZ 27 -13.336
112 CZ 28 -12.848
112 CZ 29 -11.383
112 CZ 30 -9.918
112 CZ 31 -7.477
112 CZ 32 -4.547
112 CZ 33 -2.594
112 CZ 34 -0.641
112 CZ 35 -0.153
112 CZ 36 -0.153
112 CZ 37 -0.153
112 CZ 38 0.824
112 CZ 39 2.289
112 CZ 40 4.242
112 CZ 41 6.195
112 CZ 42 6.683
112 CZ 43 6.195
112 CZ 44 5.219
112 CZ 45 4.730
112 CZ 46 4.730
112 CZ 47 4.730
112 CZ 48 4.242
112 CZ 49 1.801
112 CZ 50 -2.106
112 CZ 51 -6.989
112 CZ 52 -11.383
112 CZ 53 -14.313
112 CZ 54 -14.801
112 CZ 55 -12.360
112 CZ 56 -7.965
112 CZ 57 -2.594
112 CZ 58 1.801
112 CZ 59 4.730
112 CZ 60 5.707
112 CZ 61 5.219
112 CZ 62 4.730
112 CZ 63 5.219
112 CZ 64 6.683
112 CZ 65 7.172
112 CZ 66 6.195
112 CZ 67 4.242
112 CZ 68 2.289
112 CZ 69 2.777
112 CZ 70 6.683
112 CZ 71 11.566
112 CZ 72 15.961
112 CZ 73 16.937
112 CZ 74 14.496
112 CZ 75 11.078
112 CZ 76 9.125
112 CZ 77 10.101
112 CZ 78 12.543
112 CZ 79 14.496
112 CZ 80 14.496
112 CZ 81 12.543
112 CZ 82 11.078
112 CZ 83 11.566
112 CZ 84 14.496
112 CZ 85 17.426
112 CZ 86 18.402
112 CZ 87 16.937
112 CZ 88 14.496
112 CZ 89 14.008
112 CZ 90 15.472
112 CZ 91 18.402
112 CZ 92 19.867
112 CZ 93 18.402
112 CZ 94 14.008
112 CZ 95 9.613
112 CZ 96 7.660
112 CZ 97 8.636
112 CZ 98 11.078
112 CZ 99 13.031
112 CZ 100 14.008
112 CZ 101 14.008
112 CZ 102 14.984
112 CZ 103 16.937
112 CZ 104 18.402
112 CZ 105 18.402
112 CZ 106 16.449
112 CZ 107 13.519
112 CZ 108 11.078
112 CZ 109 11.078
112 CZ 110 13.519
112 CZ 111 16.449
112 CZ 112 17.914
112 CZ 113 18.402
112 CZ 114 17.426
112 CZ 115 15.961
112 CZ 116 14.496
112 CZ 117 13.519
112 CZ 118 12.054
112 CZ 119 10.590
112 CZ 120 8.636
112 CZ 121 7.172
112 CZ 122 6.683
112 CZ 123 7.660
112 CZ 124 10.101
112 CZ 125 12.543
112 CZ 126 14.496
112 CZ 127 15.472
112 CZ 128 15.472
112 CZ 129 15.961
112 CZ 130 16.937
112 CZ 131 19.379
112 CZ 132 21.332
112 CZ 133 21.820
112 CZ 134 20.355
112 CZ 135 16.937
112 CZ 136 14.008
112 CZ 137 12.543
112 CZ 138 12.543
112 CZ 139 13.031
112 CZ 140 12.054
112 CZ 141 9.125
112 CZ 142 5.219
112 CZ 143 2.289
112 CZ 144 1.312
112 CZ 145 1.801
112 CZ 146 4.242
112 CZ 147 7.172
112 CZ 148 9.613
112 CZ 149 11.566
112 CZ 150 12.054
112 CZ 151 11.078
112 CZ 152 8.148
112 CZ 153 5.219
112 CZ 154 2.777
112 CZ 155 2.289
112 CZ 156 4.242
112 CZ 157 7.660
112 CZ 158 11.078
112 CZ 159 13.031
112 CZ 160 14.984
112 CZ 161 17.426
112 CZ 162 20.355
112 CZ 163 22.797
112 CZ 164 23.773
112 CZ 165 22.797
112 CZ 166 20.355
112 CZ 167 17.914
112 CZ 168 17.426
112 CZ 169 18.402
112 CZ 170 19.379
112 CZ 171 19.867
112 CZ 172 19.379
112 CZ 173 18.890
112 CZ 174 18.890
112 CZ 175 20.844
112 CZ 176 24.261
112 CZ 177 26.703
112 CZ 178 27.191
112 CZ 179 26.215
112 CZ 180 23.285
112 CZ 181 20.355
112 CZ 182 18.402
112 CZ 183 16.449
112 CZ 184 14.496
112 CZ 185 12.054
112 CZ 186 9.125
112 CZ 187 6.195
112 CZ 188 3.265
112 CZ 189 0.336
112 CZ 190 -2.106
112 CZ 191 -4.059
112 CZ 192 -6.012
112 CZ 193 -7.965
112 CZ 194 -9.430
112 CZ 195 -9.430
112 CZ 196 -7.477
112 CZ 197 -4.059
112 CZ 198 -0.153
112 CZ 199 1.312
112 CZ 200 -0.153
112 CZ 201 -3.082
112 CZ 202 -6.012
112 CZ 203 -6.012
112 CZ 204 -4.059
112 CZ 205 -1.129
112 CZ 206 1.312
112 CZ 207 2.289
112 CZ 208 2.777
112 CZ 209 2.777
112 CZ 210 3.265
112 CZ 211 2.777
112 CZ 212 2.289
112 CZ 213 1.312
112 CZ 214 0.824
112 CZ 215 2.777
112 CZ 216 4.242
112 CZ 217 5.707
112 CZ 218 5.707
112 CZ 219 5.707
112 CZ 220 7.660
112 CZ 221 12.054
112 CZ 222 17.914
112 CZ 223 23.285
112 CZ 224 25.238
112 CZ 225 23.285
112 CZ 226 19.379
112 CZ 227 14.984
112 CZ 228 12.054
112 CZ 229 11.566
112 CZ 230 13.031
112 CZ 231 14.008
112 CZ 232 13.519
112 CZ 233 11.566
112 CZ 234 8.636
112 CZ 235 6.195
112 CZ 236 4.730
112 CZ 237 4.242
112 CZ 238 5.219
112 CZ 239 6.195
112 CZ 240 7.172
112 CZ 241 6.683
112 CZ 242 5.219
112 CZ 243 2.289
112 CZ 244 -0.153
112 CZ 245 -1.129
112 CZ 246 -0.153
112 CZ 247 1.312
112 CZ 248 2.289
112 CZ 249 1.801
112 CZ 250 -1.617
112 CZ 251 -6.012
112 CZ 252 -10.895
112 CZ 253 -13.824
112 CZ 254 -13.824
112 CZ 255 -12.360
# C3 chan 16
112 C3 0 -4.751
112 C3 1 -5.239
112 C3 2 -4.262
112 C3 3 -2.309
112 C3 4 -0.356
112 C3 5 1.109
112 C3 6 1.597
112 C3 7 1.597
112 C3 8 2.574
112 C3 9 3.550
112 C3 10 5.015
112 C3 11 5.503
112 C3 12 5.992
112 C3 13 5.992
112 C3 14 6.480
112 C3 15 6.480
112 C3 16 5.015
112 C3 17 2.574
112 C3 18 0.132
112 C3 19 -1.333
112 C3 20 -0.844
112 C3 21 0.621
112 C3 22 1.597
112 C3 23 0.621
112 C3 24 -2.309
112 C3 25 -5.727
112 C3 26 -8.169
112 C3 27 -8.657
112 C3 28 -7.680
112 C3 29 -6.704
112 C3 30 -6.215
112 C3 31 -5.727
112 C3 32 -5.239
112 C3 33 -3.774
112 C3 34 -2.309
112 C3 35 -1.333
112 C3 36 -1.821
112 C3 37 -3.774
112 C3 38 -5.239
112 C3 39 -6.215
112 C3 40 -5.239
112 C3 41 -4.262
112 C3 42 -2.309
112 C3 43 -1.333
112 C3 44 -1.333
112 C3 45 -2.309
112 C3 46 -3.286
112 C3 47 -4.262
112 C3 48 -4.751
112 C3 49 -4.262
112 C3 50 -4.751
112 C3 51 -4.751
112 C3 52 -4.751
112 C3 53 -4.262
112 C3 54 -3.774
112 C3 55 -4.262
112 C3 56 -5.239
112 C3 57 -5.727
112 C3 58 -5.727
112 C3 59 -3.286
112 C3 60 0.132
112 C3 61 3.062
112 C3 62 3.062
112 C3 63 0.132
112 C3 64 -2.797
112 C3 65 -4.262
112 C3 66 -2.309
112 C3 67 0.132
112 C3 68 2.085
112 C3 69 0.621
112 C3 70 -1.821
112 C3 71 -3.286
112 C3 72 -1.333
112 C3 73 2.574
112 C3 74 5.503
112 C3 75 4.527
112 C3 76 -0.356
112 C3 77 -5.239
112 C3 78 -8.169
112 C3 79 -6.704
112 C3 80 -3.286
112 C3 81 -0.844
112 C3 82 0.132
112 C3 83 -0.844
112 C3 84 -0.356
112 C3 85 2.574
112 C3 86 6.968
112 C3 87 9.898
112 C3 88 9.898
112 C3 89 5.992
112 C3 90 0.621
112 C3 91 -2.797
112 C3 92 -2.309
112 C3 93 0.132
112 C3 94 3.062
112 C3 95 4.038
112 C3 96 2.085
112 C3 97 0.132
112 C3 98 -1.333
112 C3 99 -0.844
112 C3 100 0.132
112 C3 101 0.132
112 C3 102 -1.333
112 C3 103 -3.286
112 C3 104 -3.774
112 C3 105 -1.821
112 C3 106 1.597
112 C3 107 4.527
112 C3 108 5.992
112 C3 109 5.992
112 C3 110 5.015
112 C3 111 5.015
112 C3 112 5.992
112 C3 113 7.456
112 C3 114 6.968
112 C3 115 5.015
112 C3 116 2.574
112 C3 117 1.109
112 C3 118 1.109
112 C3 119 2.085
112 C3 120 2.085
112 C3 121 0.132
112 C3 122 -2.797
112 C3 123 -5.239
112 C3 124 -5.727
112 C3 125 -4.751
112 C3 126 -4.262
112 C3 127 -4.262
112 C3 128 -5.239
112 C3 129 -5.239
112 C3 130 -4.262
112 C3 131 -1.821
112 C3 132 -0.356
112 C3 133 0.621
112 C3 134 0.621
112 C3 135 1.109
112 C3 136 1.109
112 C3 137 1.109
112 C3 138 1.109
112 C3 139 0.621
112 C3 140 -0.844
112 C3 141 -1.333
112 C3 142 -2.309
112 C3 143 -3.286
112 C3 144 -3.774
112 C3 145 -4.262
112 C3 146 -3.286
112 C3 147 -1.333
112 C3 148 0.621
112 C3 149 1.597
112 C3 150 0.132
112 C3 151 -1.821
112 C3 152 -2.797
112 C3 153 -2.309
112 C3 154 -0.356
112 C3 155 1.109
112 C3 156 1.109
112 C3 157 0.132
112 C3 158 -1.333
112 C3 159 -1.333
112 C3 160 0.132
112 C3 161 3.062
112 C3 162 5.503
112 C3 163 6.968
112 C3 164 7.456
112 C3 165 8.433
112 C3 166 9.898
112 C3 167 10.874
112 C3 168 10.874
112 C3 169 9.898
112 C3 170 7.456
112 C3 171 4.527
112 C3 172 2.085
112 C3 173 0.132
112 C3 174 -1.821
112 C3 175 -3.774
112 C3 176 -5.727
112 C3 177 -6.215
112 C3 178 -5.239
112 C3 179 -2.797
112 C3 180 1.109
112 C3 181 4.527
112 C3 182 7.456
112 C3 183 8.921
112 C3 184 8.921
112 C3 185 7.945
112 C3 186 5.992
112 C3 187 4.527
112 C3 188 3.550
112 C3 189 3.062
112 C3 190 1.597
112 C3 191 0.132
112 C3 192 -2.309
112 C3 193 -4.751
112 C3 194 -5.727
112 C3 195 -5.727
112 C3 196 -5.239
112 C3 197 -5.727
112 C3 198 -7.680
112 C3 199 -9.633
112 C3 200 -10.610
112 C3 201 -9.633
112 C3 202 -7.192
112 C3 203 -5.239
112 C3 204 -4.751
112 C3 205 -5.239
112 C3 206 -6.215
112 C3 207 -5.727
112 C3 208 -3.286
112 C3 209 0.132
112 C3 210 2.574
112 C3 211 3.062
112 C3 212 2.574
112 C3 213 1.597
112 C3 214 1.597
112 C3 215 2.574
112 C3 216 3.062
112 C3 217 2.574
112 C3 218 1.109
112 C3 219 -0.356
112 C3 220 -1.821
112 C3 221 -1.333
112 C3 222 -0.844
112 C3 223 -1.333
112 C3 224 -2.309
112 C3 225 -3.774
112 C3 226 -3.286
112 C3 227 -1.333
112 C3 228 2.085
112 C3 229 4.038
112 C3 230 3.062
112 C3 231 -0.356
112 C3 232 -3.286
112 C3 233 -3.774
112 C3 234 -0.844
112 C3 235 3.062
112 C3 236 5.992
112 C3 237 5.503
112 C3 238 2.574
112 C3 239 -0.356
112 C3 240 -1.821
112 C3 241 -1.821
112 C3 242 -1.821
112 C3 243 -2.797
112 C3 244 -4.262
112 C3 245 -6.215
112 C3 246 -6.704
112 C3 247 -5.727
112 C3 248 -4.751
112 C3 249 -4.751
112 C3 250 -4.751
112 C3 251 -4.751
112 C3 252 -4.262
112 C3 253 -3.774
112 C3 254 -3.774
112 C3 255 -4.751
# C4 chan 17
112 C4 0 -3.906
112 C4 1 -2.441
112 C4 2 -0.488
112 C4 3 0.977
112 C4 4 1.465
112 C4 5 1.465
112 C4 6 1.465
112 C4 7 1.465
112 C4 8 1.953
112 C4 9 1.953
112 C4 10 0.488
112 C4 11 -1.465
112 C4 12 -2.930
112 C4 13 -2.930
112 C4 14 -0.977
112 C4 15 0.488
112 C4 16 1.953
112 C4 17 1.465
112 C4 18 0.488
112 C4 19 0.000
112 C4 20 -0.488
112 C4 21 -0.488
112 C4 22 -0.977
112 C4 23 -2.441
112 C4 24 -3.418
112 C4 25 -3.418
112 C4 26 -2.441
112 C4 27 -1.465
112 C4 28 -0.488
112 C4 29 -0.488
112 C4 30 -0.488
112 C4 31 0.000
112 C4 32 1.465
112 C4 33 2.930
112 C4 34 3.906
112 C4 35 3.906
112 C4 36 2.930
112 C4 37 2.930
112 C4 38 2.930
112 C4 39 3.906
112 C4 40 4.395
112 C4 41 4.395
112 C4 42 3.906
112 C4 43 3.418
112 C4 44 3.418
112 C4 45 3.906
112 C4 46 3.418
112 C4 47 2.441
112 C4 48 0.977
112 C4 49 0.488
112 C4 50 0.977
112 C4 51 2.441
112 C4 52 4.395
112 C4 53 5.859
112 C4 54 6.348
112 C4 55 6.348
112 C4 56 6.348
112 C4 57 7.324
112 C4 58 8.301
112 C4 59 8.789
112 C4 60 8.301
112 C4 61 7.324
112 C4 62 6.348
112 C4 63 5.859
112 C4 64 5.859
112 C4 65 5.371
112 C4 66 4.395
112 C4 67 2.930
112 C4 68 2.441
112 C4 69 2.441
112 C4 70 3.906
112 C4 71 4.883
112 C4 72 4.883
112 C4 73 4.395
112 C4 74 3.906
112 C4 75 3.906
112 C4 76 4.395
112 C4 77 5.371
112 C4 78 5.371
112 C4 79 4.395
112 C4 80 3.418
112 C4 81 1.953
112 C4 82 0.977
112 C4 83 -0.488
112 C4 84 -0.977
112 C4 85 -1.465
112 C4 86 -1.465
112 C4 87 -0.977
112 C4 88 -0.977
112 C4 89 -0.977
112 C4 90 -0.977
112 C4 91 -0.977
112 C4 92 -0.977
112 C4 93 -1.953
112 C4 94 -2.441
112 C4 95 -2.441
112 C4 96 -1.465
112 C4 97 -0.488
112 C4 98 1.465
112 C4 99 1.953
112 C4 100 1.953
112 C4 101 0.977
112 C4 102 0.488
112 C4 103 -0.488
112 C4 104 -0.977
112 C4 105 -1.953
112 C4 106 -3.418
112 C4 107 -4.395
112 C4 108 -4.395
112 C4 109 -3.906
112 C4 110 -3.906
112 C4 111 -3.906
112 C4 112 -4.883
112 C4 113 -6.348
112 C4 114 -7.324
112 C4 115 -7.812
112 C4 116 -7.812
112 C4 117 -6.836
112 C4 118 -5.859
112 C4 119 -4.395
112 C4 120 -2.441
112 C4 121 0.000
112 C4 122 1.465
112 C4 123 2.441
112 C4 124 2.441
112 C4 125 2.441
112 C4 126 2.441
112 C4 127 2.930
112 C4 128 2.441
112 C4 129 0.977
112 C4 130 -0.488
112 C4 131 -2.441
112 C4 132 -2.441
112 C4 133 -1.465
112 C4 134 -0.488
112 C4 135 1.465
112 C4 136 2.441
112 C4 137 3.418
112 C4 138 4.395
112 C4 139 4.395
112 C4 140 3.906
112 C4 141 2.441
112 C4 142 0.488
112 C4 143 -0.977
112 C4 144 -2.441
112 C4 145 -3.418
112 C4 146 -5.371
112 C4 147 -6.836
112 C4 148 -6.836
112 C4 149 -4.883
112 C4 150 -1.953
112 C4 151 1.465
112 C4 152 3.418
112 C4 153 2.930
112 C4 154 1.465
112 C4 155 -0.488
112 C4 156 -0.977
112 C4 157 -0.977
112 C4 158 -0.977
112 C4 159 -0.977
112 C4 160 -1.465
112 C4 161 -3.418
112 C4 162 -5.371
112 C4 163 -7.324
112 C4 164 -8.789
112 C4 165 -10.254
112 C4 166 -10.742
112 C4 167 -11.230
112 C4 168 -10.742
112 C4 169 -9.277
112 C4 170 -7.812
112 C4 171 -5.371
112 C4 172 -2.441
112 C4 173 0.000
112 C4 174 1.953
112 C4 175 3.418
112 C4 176 3.418
112 C4 177 2.441
112 C4 178 0.488
112 C4 179 -2.441
112 C4 180 -6.348
112 C4 181 -9.277
112 C4 182 -11.719
112 C4 183 -13.672
112 C4 184 -14.648
112 C4 185 -15.137
112 C4 186 -15.137
112 C4 187 -14.648
112 C4 188 -13.672
112 C4 189 -12.207
112 C4 190 -11.719
112 C4 191 -11.230
112 C4 192 -10.742
112 C4 193 -8.789
112 C4 194 -6.348
112 C4 195 -3.906
112 C4 196 -1.953
112 C4 197 -0.977
112 C4 198 0.000
112 C4 199 0.000
112 C4 200 0.000
112 C4 201 -0.488
112 C4 202 -1.953
112 C4 203 -3.906
112 C4 204 -5.371
112 C4 205 -5.371
112 C4 206 -4.883
112 C4 207 -4.883
112 C4 208 -5.859
112 C4 209 -8.789
112 C4 210 -12.207
112 C4 211 -14.160
112 C4 212 -14.648
112 C4 213 -14.160
112 C4 214 -12.207
112 C4 215 -11.230
112 C4 216 -9.277
112 C4 217 -7.324
112 C4 218 -3.906
112 C4 219 -0.977
112 C4 220 0.977
112 C4 221 1.465
112 C4 222 0.488
112 C4 223 0.000
112 C4 224 0.488
112 C4 225 0.977
112 C4 226 0.977
112 C4 227 -0.977
112 C4 228 -3.906
112 C4 229 -7.324
112 C4 230 -10.742
112 C4 231 -13.184
112 C4 232 -14.160
112 C4 233 -14.160
112 C4 234 -13.672
112 C4 235 -12.207
112 C4 236 -9.766
112 C4 237 -6.836
112 C4 238 -3.418
112 C4 239 -1.465
112 C4 240 0.000
112 C4 241 0.488
112 C4 242 0.488
112 C4 243 0.977
112 C4 244 0.488
112 C4 245 0.000
112 C4 246 -1.953
112 C4 247 -3.906
112 C4 248 -6.836
112 C4 249 -9.277
112 C4 250 -10.254
112 C4 251 -9.766
112 C4 252 -9.277
112 C4 253 -8.789
112 C4 254 -9.277
112 C4 255 -10.742
# CP5 chan 18
112 CP5 0 -10.406
112 CP5 1 -12.360
112 CP5 2 -12.848
112 CP5 3 -11.871
112 CP5 4 -9.430
112 CP5 5 -6.500
112 CP5 6 -3.571
112 CP5 7 -1.617
112 CP5 8 -1.129
112 CP5 9 -0.153
112 CP5 10 1.801
112 CP5 11 3.754
112 CP5 12 6.195
112 CP5 13 7.172
112 CP5 14 6.195
112 CP5 15 3.754
112 CP5 16 1.312
112 CP5 17 -0.641
112 CP5 18 -1.617
112 CP5 19 -2.594
112 CP5 20 -3.082
112 CP5 21 -4.547
112 CP5 22 -6.500
112 CP5 23 -8.453
112 CP5 24 -10.406
112 CP5 25 -12.848
112 CP5 26 -14.313
112 CP5 27 -15.778
112 CP5 28 -15.778
112 CP5 29 -14.313
112 CP5 30 -12.360
112 CP5 31 -9.918
112 CP5 32 -7.477
112 CP5 33 -5.524
112 CP5 34 -3.571
112 CP5 35 -1.617
112 CP5 36 -0.153
112 CP5 37 0.824
112 CP5 38 0.336
112 CP5 39 -0.153
112 CP5 40 -0.641
112 CP5 41 -0.641
112 CP5 42 -0.641
112 CP5 43 -1.617
112 CP5 44 -2.594
112 CP5 45 -4.059
112 CP5 46 -5.524
112 CP5 47 -6.989
112 CP5 48 -7.477
112 CP5 49 -6.500
112 CP5 50 -4.547
112 CP5 51 -1.617
112 CP5 52 1.312
112 CP5 53 2.777
112 CP5 54 3.265
112 CP5 55 1.312
112 CP5 56 -2.594
112 CP5 57 -6.012
112 CP5 58 -6.500
112 CP5 59 -4.059
112 CP5 60 0.824
112 CP5 61 5.707
112 CP5 62 7.660
112 CP5 63 6.195
112 CP5 64 3.754
112 CP5 65 2.289
112 CP5 66 3.265
112 CP5 67 6.195
112 CP5 68 8.148
112 CP5 69 6.683
112 CP5 70 3.754
112 CP5 71 0.824
112 CP5 72 0.336
112 CP5 73 2.289
112 CP5 74 4.242
112 CP5 75 4.730
112 CP5 76 1.801
112 CP5 77 -1.617
112 CP5 78 -3.571
112 CP5 79 -2.594
112 CP5 80 1.312
112 CP5 81 4.242
112 CP5 82 5.219
112 CP5 83 3.265
112 CP5 84 1.801
112 CP5 85 3.754
112 CP5 86 8.148
112 CP5 87 12.543
112 CP5 88 14.496
112 CP5 89 12.543
112 CP5 90 8.148
112 CP5 91 4.730
112 CP5 92 4.242
112 CP5 93 6.195
112 CP5 94 7.660
112 CP5 95 6.195
112 CP5 96 2.777
112 CP5 97 -0.641
112 CP5 98 -1.129
112 CP5 99 1.312
112 CP5 100 5.707
112 CP5 101 7.660
112 CP5 102 7.172
112 CP5 103 5.707
112 CP5 104 4.242
112 CP5 105 6.195
112 CP5 106 10.101
112 CP5 107 13.519
112 CP5 108 14.008
112 CP5 109 11.566
112 CP5 110 9.125
112 CP5 111 8.636
112 CP5 112 11.566
112 CP5 113 14.984
112 CP5 114 16.937
112 CP5 115 14.496
112 CP5 116 11.566
112 CP5 117 8.636
112 CP5 118 7.660
112 CP5 119 8.148
112 CP5 120 7.172
112 CP5 121 4.242
112 CP5 122 -0.153
112 CP5 123 -3.571
112 CP5 124 -3.571
112 CP5 125 -2.106
112 CP5 126 -0.153
112 CP5 127 -0.153
112 CP5 128 -1.617
112 CP5 129 -2.106
112 CP5 130 -1.129
112 CP5 131 1.801
112 CP5 132 3.754
112 CP5 133 3.754
112 CP5 134 1.312
112 CP5 135 -0.153
112 CP5 136 0.336
112 CP5 137 2.289
112 CP5 138 4.242
112 CP5 139 4.242
112 CP5 140 2.777
112 CP5 141 1.312
112 CP5 142 1.312
112 CP5 143 2.777
112 CP5 144 4.242
112 CP5 145 3.754
112 CP5 146 1.801
112 CP5 147 -0.153
112 CP5 148 0.336
112 CP5 149 2.777
112 CP5 150 4.730
112 CP5 151 5.219
112 CP5 152 3.265
112 CP5 153 0.336
112 CP5 154 -0.641
112 CP5 155 0.336
112 CP5 156 3.265
112 CP5 157 5.707
112 CP5 158 6.195
112 CP5 159 6.683
112 CP5 160 7.660
112 CP5 161 10.590
112 CP5 162 14.008
112 CP5 163 16.937
112 CP5 164 17.426
112 CP5 165 16.449
112 CP5 166 14.984
112 CP5 167 13.519
112 CP5 168 14.008
112 CP5 169 13.519
112 CP5 170 13.031
112 CP5 171 12.543
112 CP5 172 12.543
112 CP5 173 13.031
112 CP5 174 13.031
112 CP5 175 12.054
112 CP5 176 9.613
112 CP5 177 6.683
112 CP5 178 4.730
112 CP5 179 4.730
112 CP5 180 5.707
112 CP5 181 7.172
112 CP5 182 8.148
112 CP5 183 9.125
112 CP5 184 9.125
112 CP5 185 9.613
112 CP5 186 9.125
112 CP5 187 9.125
112 CP5 188 8.636
112 CP5 189 7.660
112 CP5 190 5.707
112 CP5 191 2.777
112 CP5 192 -0.641
112 CP5 193 -4.059
112 CP5 194 -6.500
112 CP5 195 -6.989
112 CP5 196 -6.989
112 CP5 197 -6.989
112 CP5 198 -7.965
112 CP5 199 -9.430
112 CP5 200 -10.406
112 CP5 201 -10.895
112 CP5 202 -11.383
112 CP5 203 -12.360
112 CP5 204 -12.848
112 CP5 205 -12.360
112 CP5 206 -10.406
112 CP5 207 -6.500
112 CP5 208 -2.106
112 CP5 209 1.801
112 CP5 210 4.242
112 CP5 211 4.730
112 CP5 212 5.219
112 CP5 213 5.707
112 CP5 214 6.683
112 CP5 215 6.195
112 CP5 216 4.730
112 CP5 217 2.777
112 CP5 218 0.824
112 CP5 219 0.336
112 CP5 220 0.824
112 CP5 221 2.289
112 CP5 222 3.265
112 CP5 223 3.754
112 CP5 224 4.242
112 CP5 225 5.219
112 CP5 226 6.195
112 CP5 227 7.172
112 CP5 228 6.683
112 CP5 229 4.242
112 CP5 230 0.336
112 CP5 231 -2.106
112 CP5 232 -3.082
112 CP5 233 -2.106
112 CP5 234 -0.153
112 CP5 235 0.824
112 CP5 236 1.312
112 CP5 237 0.824
112 CP5 238 1.801
112 CP5 239 3.265
112 CP5 240 5.219
112 CP5 241 5.707
112 CP5 242 4.730
112 CP5 243 2.777
112 CP5 244 -0.641
112 CP5 245 -3.082
112 CP5 246 -6.012
112 CP5 247 -7.477
112 CP5 248 -8.453
112 CP5 249 -8.453
112 CP5 250 -7.477
112 CP5 251 -6.012
112 CP5 252 -4.547
112 CP5 253 -5.035
112 CP5 254 -6.500
112 CP5 255 -8.453
# CP6 chan 19
112 CP6 0 -11.688
112 CP6 1 -10.712
112 CP6 2 -9.247
112 CP6 3 -7.294
112 CP6 4 -5.341
112 CP6 5 -4.364
112 CP6 6 -3.876
112 CP6 7 -2.899
112 CP6 8 -2.411
112 CP6 9 -2.411
112 CP6 10 -3.876
112 CP6 11 -5.829
112 CP6 12 -7.782
112 CP6 13 -7.782
112 CP6 14 -6.317
112 CP6 15 -4.364
112 CP6 16 -3.876
112 CP6 17 -4.852
112 CP6 18 -6.805
112 CP6 19 -7.782
112 CP6 20 -7.782
112 CP6 21 -7.782
112 CP6 22 -9.247
112 CP6 23 -11.200
112 CP6 24 -13.153
112 CP6 25 -14.130
112 CP6 26 -12.665
112 CP6 27 -10.712
112 CP6 28 -7.782
112 CP6 29 -5.341
112 CP6 30 -3.876
112 CP6 31 -1.923
112 CP6 32 1.007
112 CP6 33 3.937
112 CP6 34 5.890
112 CP6 35 6.378
112 CP6 36 5.890
112 CP6 37 5.402
112 CP6 38 5.890
112 CP6 39 6.866
112 CP6 40 7.355
112 CP6 41 7.355
112 CP6 42 6.378
112 CP6 43 5.402
112 CP6 44 4.913
112 CP6 45 3.937
112 CP6 46 1.984
112 CP6 47 -0.458
112 CP6 48 -2.899
112 CP6 49 -4.364
112 CP6 50 -3.876
112 CP6 51 -1.923
112 CP6 52 0.519
112 CP6 53 2.472
112 CP6 54 2.960
112 CP6 55 2.960
112 CP6 56 3.448
112 CP6 57 4.425
112 CP6 58 4.913
112 CP6 59 4.425
112 CP6 60 2.472
112 CP6 61 1.007
112 CP6 62 0.519
112 CP6 63 1.007
112 CP6 64 2.472
112 CP6 65 2.960
112 CP6 66 2.960
112 CP6 67 2.472
112 CP6 68 2.472
112 CP6 69 2.960
112 CP6 70 4.425
112 CP6 71 4.425
112 CP6 72 2.960
112 CP6 73 1.007
112 CP6 74 -0.458
112 CP6 75 -0.458
112 CP6 76 1.495
112 CP6 77 3.448
112 CP6 78 3.937
112 CP6 79 2.472
112 CP6 80 0.519
112 CP6 81 -2.411
112 CP6 82 -3.876
112 CP6 83 -4.364
112 CP6 84 -3.876
112 CP6 85 -3.876
112 CP6 86 -4.364
112 CP6 87 -5.829
112 CP6 88 -6.317
112 CP6 89 -5.829
112 CP6 90 -4.364
112 CP6 91 -2.411
112 CP6 92 -1.434
112 CP6 93 -2.411
112 CP6 94 -3.387
112 CP6 95 -3.876
112 CP6 96 -2.899
112 CP6 97 -0.458
112 CP6 98 2.472
112 CP6 99 3.448
112 CP6 100 2.960
112 CP6 101 1.007
112 CP6 102 -0.946
112 CP6 103 -2.411
112 CP6 104 -3.387
112 CP6 105 -4.852
112 CP6 106 -6.317
112 CP6 107 -7.782
112 CP6 108 -8.270
112 CP6 109 -7.782
112 CP6 110 -6.317
112 CP6 111 -5.829
112 CP6 112 -5.829
112 CP6 113 -6.317
112 CP6 114 -7.294
112 CP6 115 -7.782
112 CP6 116 -6.805
112 CP6 117 -5.341
112 CP6 118 -2.899
112 CP6 119 -0.946
112 CP6 120 1.007
112 CP6 121 2.472
112 CP6 122 3.448
112 CP6 123 4.425
112 CP6 124 4.913
112 CP6 125 4.913
112 CP6 126 5.402
112 CP6 127 4.425
112 CP6 128 3.937
112 CP6 129 1.984
112 CP6 130 -0.458
112 CP6 131 -2.899
112 CP6 132 -4.852
112 CP6 133 -5.341
112 CP6 134 -4.852
112 CP6 135 -2.411
112 CP6 136 0.031
112 CP6 137 2.472
112 CP6 138 3.448
112 CP6 139 2.960
112 CP6 140 1.495
112 CP6 141 -0.458
112 CP6 142 -2.411
112 CP6 143 -3.876
112 CP6 144 -5.341
112 CP6 145 -6.805
112 CP6 146 -8.759
112 CP6 147 -10.223
112 CP6 148 -10.223
112 CP6 149 -8.759
112 CP6 150 -6.317
112 CP6 151 -4.364
112 CP6 152 -2.899
112 CP6 153 -3.876
112 CP6 154 -4.852
112 CP6 155 -5.341
112 CP6 156 -4.852
112 CP6 157 -2.899
112 CP6 158 -1.434
112 CP6 159 -0.946
112 CP6 160 -1.434
112 CP6 161 -3.387
112 CP6 162 -4.852
112 CP6 163 -6.805
112 CP6 164 -8.759
112 CP6 165 -11.688
112 CP6 166 -14.618
112 CP6 167 -17.548
112 CP6 168 -19.012
112 CP6 169 -18.524
112 CP6 170 -15.594
112 CP6 171 -10.712
112 CP6 172 -5.829
112 CP6 173 -1.434
112 CP6 174 1.495
112 CP6 175 2.960
112 CP6 176 3.448
112 CP6 177 2.960
112 CP6 178 1.495
112 CP6 179 -1.434
112 CP6 180 -6.317
112 CP6 181 -11.200
112 CP6 182 -16.083
112 CP6 183 -19.989
112 CP6 184 -22.430
112 CP6 185 -23.407
112 CP6 186 -23.407
112 CP6 187 -23.407
112 CP6 188 -23.407
112 CP6 189 -22.919
112 CP6 190 -21.942
112 CP6 191 -19.501
112 CP6 192 -16.083
112 CP6 193 -11.688
112 CP6 194 -8.270
112 CP6 195 -5.829
112 CP6 196 -4.852
112 CP6 197 -4.852
112 CP6 198 -5.829
112 CP6 199 -6.805
112 CP6 200 -8.270
112 CP6 201 -9.735
112 CP6 202 -12.177
112 CP6 203 -14.130
112 CP6 204 -16.571
112 CP6 205 -17.059
112 CP6 206 -17.059
112 CP6 207 -16.571
112 CP6 208 -16.571
112 CP6 209 -17.059
112 CP6 210 -18.524
112 CP6 211 -19.012
112 CP6 212 -19.012
112 CP6 213 -19.501
112 CP6 214 -19.501
112 CP6 215 -19.012
112 CP6 216 -18.524
112 CP6 217 -16.083
112 CP6 218 -12.177
112 CP6 219 -7.782
112 CP6 220 -2.899
112 CP6 221 0.519
112 CP6 222 3.448
112 CP6 223 4.425
112 CP6 224 4.913
112 CP6 225 4.913
112 CP6 226 4.425
112 CP6 227 2.472
112 CP6 228 -1.434
112 CP6 229 -5.341
112 CP6 230 -10.712
112 CP6 231 -15.594
112 CP6 232 -19.012
112 CP6 233 -21.454
112 CP6 234 -21.942
112 CP6 235 -20.966
112 CP6 236 -18.036
112 CP6 237 -14.130
112 CP6 238 -8.759
112 CP6 239 -3.876
112 CP6 240 0.031
112 CP6 241 1.984
112 CP6 242 2.472
112 CP6 243 1.495
112 CP6 244 0.519
112 CP6 245 -0.946
112 CP6 246 -3.387
112 CP6 247 -5.829
112 CP6 248 -9.247
112 CP6 249 -11.200
112 CP6 250 -12.177
112 CP6 251 -12.177
112 CP6 252 -12.177
112 CP6 253 -13.153
112 CP6 254 -14.618
112 CP6 255 -16.571
# CP1 chan 20
112 CP1 0 -1.343
112 CP1 1 -2.808
112 CP1 2 -4.272
112 CP1 3 -4.761
112 CP1 4 -4.272
112 CP1 5 -2.808
112 CP1 6 -1.343
112 CP1 7 -0.854
112 CP1 8 -0.366
112 CP1 9 -0.366
112 CP1 10 0.610
112 CP1 11 2.075
112 CP1 12 4.517
112 CP1 13 5.493
112 CP1 14 5.493
112 CP1 15 4.517
112 CP1 16 2.563
112 CP1 17 1.587
112 CP1 18 1.099
112 CP1 19 2.075
112 CP1 20 2.563
112 CP1 21 3.052
112 CP1 22 2.075
112 CP1 23 1.099
112 CP1 24 -0.854
112 CP1 25 -2.319
112 CP1 26 -4.272
112 CP1 27 -5.737
112 CP1 28 -5.737
112 CP1 29 -5.249
112 CP1 30 -4.272
112 CP1 31 -3.296
112 CP1 32 -2.319
112 CP1 33 -2.319
112 CP1 34 -1.831
112 CP1 35 -1.343
112 CP1 36 -0.366
112 CP1 37 0.610
112 CP1 38 1.099
112 CP1 39 1.587
112 CP1 40 2.075
112 CP1 41 2.563
112 CP1 42 3.540
112 CP1 43 4.028
112 CP1 44 4.028
112 CP1 45 3.052
112 CP1 46 1.587
112 CP1 47 0.610
112 CP1 48 1.099
112 CP1 49 1.587
112 CP1 50 2.563
112 CP1 51 3.052
112 CP1 52 3.052
112 CP1 53 2.563
112 CP1 54 1.587
112 CP1 55 -0.854
112 CP1 56 -2.808
112 CP1 57 -4.272
112 CP1 58 -3.784
112 CP1 59 -1.831
112 CP1 60 1.099
112 CP1 61 3.052
112 CP1 62 3.540
112 CP1 63 2.563
112 CP1 64 0.610
112 CP1 65 0.122
112 CP1 66 1.587
112 CP1 67 3.540
112 CP1 68 4.517
112 CP1 69 4.517
112 CP1 70 3.540
112 CP1 71 2.075
112 CP1 72 2.075
112 CP1 73 3.052
112 CP1 74 3.540
112 CP1 75 2.563
112 CP1 76 1.099
112 CP1 77 -0.854
112 CP1 78 -1.831
112 CP1 79 -1.343
112 CP1 80 -0.366
112 CP1 81 0.610
112 CP1 82 1.099
112 CP1 83 1.099
112 CP1 84 2.075
112 CP1 85 3.540
112 CP1 86 5.981
112 CP1 87 7.446
112 CP1 88 7.446
112 CP1 89 6.470
112 CP1 90 5.005
112 CP1 91 4.028
112 CP1 92 4.028
112 CP1 93 4.517
112 CP1 94 5.005
112 CP1 95 4.517
112 CP1 96 3.540
112 CP1 97 3.052
112 CP1 98 3.052
112 CP1 99 3.540
112 CP1 100 4.028
112 CP1 101 4.028
112 CP1 102 3.540
112 CP1 103 3.540
112 CP1 104 4.517
112 CP1 105 5.981
112 CP1 106 7.446
112 CP1 107 7.935
112 CP1 108 7.935
112 CP1 109 7.935
112 CP1 110 7.935
112 CP1 111 8.423
112 CP1 112 8.911
112 CP1 113 9.888
112 CP1 114 9.888
112 CP1 115 9.399
112 CP1 116 8.911
112 CP1 117 8.423
112 CP1 118 7.935
112 CP1 119 6.958
112 CP1 120 5.493
112 CP1 121 4.028
112 CP1 122 2.075
112 CP1 123 1.099
112 CP1 124 0.610
112 CP1 125 0.610
112 CP1 126 1.099
112 CP1 127 1.099
112 CP1 128 1.099
112 CP1 129 2.563
112 CP1 130 4.028
112 CP1 131 5.493
112 CP1 132 5.981
112 CP1 133 5.981
112 CP1 134 5.493
112 CP1 135 5.981
112 CP1 136 6.958
112 CP1 137 7.935
112 CP1 138 8.423
112 CP1 139 7.935
112 CP1 140 7.446
112 CP1 141 6.958
112 CP1 142 7.935
112 CP1 143 8.423
112 CP1 144 8.423
112 CP1 145 7.446
112 CP1 146 5.981
112 CP1 147 5.493
112 CP1 148 5.981
112 CP1 149 6.958
112 CP1 150 7.446
112 CP1 151 6.470
112 CP1 152 5.493
112 CP1 153 4.028
112 CP1 154 4.028
112 CP1 155 5.005
112 CP1 156 6.470
112 CP1 157 7.935
112 CP1 158 8.911
112 CP1 159 9.888
112 CP1 160 10.376
112 CP1 161 11.353
112 CP1 162 11.353
112 CP1 163 10.864
112 CP1 164 10.864
112 CP1 165 10.376
112 CP1 166 10.864
112 CP1 167 11.841
112 CP1 168 12.329
112 CP1 169 12.817
112 CP1 170 12.329
112 CP1 171 12.329
112 CP1 172 11.841
112 CP1 173 11.841
112 CP1 174 11.841
112 CP1 175 11.353
112 CP1 176 9.888
112 CP1 177 8.911
112 CP1 178 8.423
112 CP1 179 8.423
112 CP1 180 8.911
112 CP1 181 9.399
112 CP1 182 10.376
112 CP1 183 10.376
112 CP1 184 10.376
112 CP1 185 10.376
112 CP1 186 10.864
112 CP1 187 11.353
112 CP1 188 11.841
112 CP1 189 12.329
112 CP1 190 12.329
112 CP1 191 11.353
112 CP1 192 9.888
112 CP1 193 8.911
112 CP1 194 6.958
112 CP1 195 5.493
112 CP1 196 3.540
112 CP1 197 1.099
112 CP1 198 -0.854
112 CP1 199 -2.319
112 CP1 200 -2.808
112 CP1 201 -2.319
112 CP1 202 -1.343
112 CP1 203 -0.854
112 CP1 204 -1.343
112 CP1 205 -0.854
112 CP1 206 -0.854
112 CP1 207 0.122
112 CP1 208 1.099
112 CP1 209 2.075
112 CP1 210 3.540
112 CP1 211 5.005
112 CP1 212 6.470
112 CP1 213 6.958
112 CP1 214 6.958
112 CP1 215 6.958
112 CP1 216 5.981
112 CP1 217 5.493
112 CP1 218 5.005
112 CP1 219 4.517
112 CP1 220 4.517
112 CP1 221 4.517
112 CP1 222 5.005
112 CP1 223 5.005
112 CP1 224 5.493
112 CP1 225 5.493
112 CP1 226 5.981
112 CP1 227 5.981
112 CP1 228 5.981
112 CP1 229 5.493
112 CP1 230 4.028
112 CP1 231 3.052
112 CP1 232 2.075
112 CP1 233 2.563
112 CP1 234 3.052
112 CP1 235 4.517
112 CP1 236 4.517
112 CP1 237 4.028
112 CP1 238 3.540
112 CP1 239 4.517
112 CP1 240 5.981
112 CP1 241 7.935
112 CP1 242 9.399
112 CP1 243 9.888
112 CP1 244 8.911
112 CP1 245 7.935
112 CP1 246 6.470
112 CP1 247 5.005
112 CP1 248 3.540
112 CP1 249 1.587
112 CP1 250 0.122
112 CP1 251 -0.366
112 CP1 252 0.122
112 CP1 253 1.587
112 CP1 254 2.075
112 CP1 255 1.099
# CP2 chan 21
112 CP2 0 -3.530
112 CP2 1 -4.018
112 CP2 2 -4.506
112 CP2 3 -4.506
112 CP2 4 -4.506
112 CP2 5 -4.018
112 CP2 6 -4.018
112 CP2 7 -3.530
112 CP2 8 -3.530
112 CP2 9 -3.530
112 CP2 10 -4.506
112 CP2 11 -5.483
112 CP2 12 -5.483
112 CP2 13 -4.506
112 CP2 14 -3.042
112 CP2 15 -1.577
112 CP2 16 -1.088
112 CP2 17 -1.577
112 CP2 18 -2.553
112 CP2 19 -3.042
112 CP2 20 -3.042
112 CP2 21 -2.553
112 CP2 22 -2.553
112 CP2 23 -2.553
112 CP2 24 -3.042
112 CP2 25 -4.018
112 CP2 26 -4.506
112 CP2 27 -4.506
112 CP2 28 -4.018
112 CP2 29 -3.530
112 CP2 30 -3.530
112 CP2 31 -3.042
112 CP2 32 -3.042
112 CP2 33 -2.553
112 CP2 34 -2.553
112 CP2 35 -1.577
112 CP2 36 -0.600
112 CP2 37 0.865
112 CP2 38 1.353
112 CP2 39 1.353
112 CP2 40 1.353
112 CP2 41 0.865
112 CP2 42 0.376
112 CP2 43 0.865
112 CP2 44 0.865
112 CP2 45 0.865
112 CP2 46 -0.112
112 CP2 47 -1.088
112 CP2 48 -2.065
112 CP2 49 -2.553
112 CP2 50 -2.065
112 CP2 51 -1.088
112 CP2 52 -0.112
112 CP2 53 0.376
112 CP2 54 0.376
112 CP2 55 -1.088
112 CP2 56 -2.065
112 CP2 57 -3.042
112 CP2 58 -3.530
112 CP2 59 -3.530
112 CP2 60 -3.530
112 CP2 61 -3.530
112 CP2 62 -3.530
112 CP2 63 -3.530
112 CP2 64 -4.018
112 CP2 65 -4.018
112 CP2 66 -4.506
112 CP2 67 -4.506
112 CP2 68 -4.506
112 CP2 69 -4.506
112 CP2 70 -4.018
112 CP2 71 -3.530
112 CP2 72 -3.530
112 CP2 73 -4.018
112 CP2 74 -4.506
112 CP2 75 -4.018
112 CP2 76 -4.018
112 CP2 77 -3.042
112 CP2 78 -2.553
112 CP2 79 -2.553
112 CP2 80 -3.530
112 CP2 81 -4.995
112 CP2 82 -5.483
112 CP2 83 -5.971
112 CP2 84 -5.483
112 CP2 85 -5.483
112 CP2 86 -5.971
112 CP2 87 -6.948
112 CP2 88 -7.924
112 CP2 89 -8.413
112 CP2 90 -7.436
112 CP2 91 -5.971
112 CP2 92 -4.018
112 CP2 93 -3.530
112 CP2 94 -3.042
112 CP2 95 -3.530
112 CP2 96 -3.042
112 CP2 97 -2.065
112 CP2 98 -1.088
112 CP2 99 -0.600
112 CP2 100 -0.600
112 CP2 101 -1.088
112 CP2 102 -1.577
112 CP2 103 -2.065
112 CP2 104 -2.065
112 CP2 105 -2.553
112 CP2 106 -3.530
112 CP2 107 -4.506
112 CP2 108 -5.483
112 CP2 109 -5.971
112 CP2 110 -5.971
112 CP2 111 -6.460
112 CP2 112 -6.460
112 CP2 113 -5.971
112 CP2 114 -5.483
112 CP2 115 -4.018
112 CP2 116 -3.042
112 CP2 117 -2.553
112 CP2 118 -2.065
112 CP2 119 -2.553
112 CP2 120 -2.065
112 CP2 121 -1.088
112 CP2 122 0.376
112 CP2 123 0.865
112 CP2 124 0.865
112 CP2 125 0.376
112 CP2 126 -0.112
112 CP2 127 0.376
112 CP2 128 0.865
112 CP2 129 1.353
112 CP2 130 1.353
112 CP2 131 0.376
112 CP2 132 -0.112
112 CP2 133 -1.088
112 CP2 134 -1.088
112 CP2 135 -0.600
112 CP2 136 -0.112
112 CP2 137 0.865
112 CP2 138 1.841
112 CP2 139 2.818
112 CP2 140 3.306
112 CP2 141 2.818
112 CP2 142 2.818
112 CP2 143 2.818
112 CP2 144 2.330
112 CP2 145 1.353
112 CP2 146 -0.600
112 CP2 147 -3.042
112 CP2 148 -4.506
112 CP2 149 -4.506
112 CP2 150 -3.042
112 CP2 151 -1.088
112 CP2 152 0.376
112 CP2 153 0.376
112 CP2 154 -0.112
112 CP2 155 -1.088
112 CP2 156 -1.577
112 CP2 157 -1.577
112 CP2 158 -1.577
112 CP2 159 -1.577
112 CP2 160 -2.553
112 CP2 161 -3.042
112 CP2 162 -3.530
112 CP2 163 -4.506
112 CP2 164 -5.483
112 CP2 165 -6.460
112 CP2 166 -7.924
112 CP2 167 -8.901
112 CP2 168 -8.413
112 CP2 169 -6.948
112 CP2 170 -4.506
112 CP2 171 -2.065
112 CP2 172 0.376
112 CP2 173 2.818
112 CP2 174 4.771
112 CP2 175 5.747
112 CP2 176 6.236
112 CP2 177 6.236
112 CP2 178 4.771
112 CP2 179 3.306
112 CP2 180 0.865
112 CP2 181 -2.065
112 CP2 182 -4.506
112 CP2 183 -6.948
112 CP2 184 -7.924
112 CP2 185 -7.924
112 CP2 186 -7.436
112 CP2 187 -6.460
112 CP2 188 -5.971
112 CP2 189 -5.483
112 CP2 190 -4.995
112 CP2 191 -4.506
112 CP2 192 -2.553
112 CP2 193 -1.088
112 CP2 194 0.865
112 CP2 195 1.353
112 CP2 196 1.353
112 CP2 197 0.865
112 CP2 198 0.865
112 CP2 199 0.865
112 CP2 200 0.865
112 CP2 201 -0.600
112 CP2 202 -3.042
112 CP2 203 -5.483
112 CP2 204 -6.948
112 CP2 205 -7.436
112 CP2 206 -6.948
112 CP2 207 -6.948
112 CP2 208 -7.436
112 CP2 209 -8.413
112 CP2 210 -8.413
112 CP2 211 -7.924
112 CP2 212 -6.948
112 CP2 213 -5.483
112 CP2 214 -5.483
112 CP2 215 -5.483
112 CP2 216 -4.506
112 CP2 217 -3.530
112 CP2 218 -2.553
112 CP2 219 -1.088
112 CP2 220 -0.600
112 CP2 221 -0.112
112 CP2 222 0.376
112 CP2 223 0.376
112 CP2 224 0.865
112 CP2 225 0.865
112 CP2 226 -0.112
112 CP2 227 -0.600
112 CP2 228 -1.577
112 CP2 229 -3.042
112 CP2 230 -4.506
112 CP2 231 -5.971
112 CP2 232 -8.413
112 CP2 233 -9.878
112 CP2 234 -10.366
112 CP2 235 -9.878
112 CP2 236 -8.413
112 CP2 237 -5.971
112 CP2 238 -3.530
112 CP2 239 -1.088
112 CP2 240 0.376
112 CP2 241 1.841
112 CP2 242 2.818
112 CP2 243 3.794
112 CP2 244 4.283
112 CP2 245 3.794
112 CP2 246 1.841
112 CP2 247 -0.600
112 CP2 248 -2.553
112 CP2 249 -4.506
112 CP2 250 -4.506
112 CP2 251 -4.018
112 CP2 252 -3.042
112 CP2 253 -3.530
112 CP2 254 -4.506
112 CP2 255 -5.971
# P3 chan 22
112 P3 0 -12.380
112 P3 1 -14.821
112 P3 2 -16.286
112 P3 3 -16.286
112 P3 4 -14.333
112 P3 5 -10.915
112 P3 6 -7.985
112 P3 7 -6.032
112 P3 8 -5.056
112 P3 9 -4.567
112 P3 10 -2.614
112 P3 11 0.315
112 P3 12 3.733
112 P3 13 6.175
112 P3 14 6.663
112 P3 15 5.686
112 P3 16 4.222
112 P3 17 2.268
112 P3 18 0.804
112 P3 19 -1.149
112 P3 20 -3.103
112 P3 21 -5.544
112 P3 22 -7.497
112 P3 23 -8.474
112 P3 24 -9.450
112 P3 25 -11.403
112 P3 26 -14.333
112 P3 27 -16.774
112 P3 28 -17.751
112 P3 29 -16.286
112 P3 30 -13.845
112 P3 31 -10.915
112 P3 32 -9.450
112 P3 33 -7.985
112 P3 34 -6.032
112 P3 35 -3.103
112 P3 36 0.804
112 P3 37 3.733
112 P3 38 5.198
112 P3 39 5.198
112 P3 40 3.733
112 P3 41 2.757
112 P3 42 3.245
112 P3 43 4.222
112 P3 44 3.733
112 P3 45 1.780
112 P3 46 -1.638
112 P3 47 -4.567
112 P3 48 -6.521
112 P3 49 -6.032
112 P3 50 -3.103
112 P3 51 0.804
112 P3 52 4.222
112 P3 53 6.175
112 P3 54 6.175
112 P3 55 2.757
112 P3 56 -0.661
112 P3 57 -4.079
112 P3 58 -4.079
112 P3 59 -1.638
112 P3 60 2.757
112 P3 61 7.151
112 P3 62 8.616
112 P3 63 8.128
112 P3 64 6.175
112 P3 65 5.686
112 P3 66 6.663
112 P3 67 8.128
112 P3 68 8.616
112 P3 69 7.640
112 P3 70 6.175
112 P3 71 4.710
112 P3 72 3.733
112 P3 73 2.757
112 P3 74 1.780
112 P3 75 -0.173
112 P3 76 -1.638
112 P3 77 -2.126
112 P3 78 -1.638
112 P3 79 -1.149
112 P3 80 -1.149
112 P3 81 -1.149
112 P3 82 -1.149
112 P3 83 -0.661
112 P3 84 1.292
112 P3 85 4.222
112 P3 86 7.151
112 P3 87 9.593
112 P3 88 10.569
112 P3 89 11.058
112 P3 90 10.569
112 P3 91 10.081
112 P3 92 9.104
112 P3 93 8.128
112 P3 94 6.175
112 P3 95 4.222
112 P3 96 2.268
112 P3 97 1.292
112 P3 98 2.268
112 P3 99 4.222
112 P3 100 6.175
112 P3 101 7.151
112 P3 102 6.663
112 P3 103 5.686
112 P3 104 5.198
112 P3 105 6.663
112 P3 106 8.616
112 P3 107 10.081
112 P3 108 10.081
112 P3 109 8.128
112 P3 110 6.663
112 P3 111 7.151
112 P3 112 9.593
112 P3 113 13.011
112 P3 114 14.964
112 P3 115 15.452
112 P3 116 13.987
112 P3 117 12.522
112 P3 118 10.569
112 P3 119 9.104
112 P3 120 6.663
112 P3 121 3.733
112 P3 122 0.804
112 P3 123 -1.638
112 P3 124 -2.614
112 P3 125 -2.614
112 P3 126 -2.614
112 P3 127 -2.126
112 P3 128 -1.638
112 P3 129 -0.661
112 P3 130 0.804
112 P3 131 1.780
112 P3 132 1.780
112 P3 133 1.780
112 P3 134 1.780
112 P3 135 2.268
112 P3 136 4.222
112 P3 137 5.198
112 P3 138 6.663
112 P3 139 6.663
112 P3 140 6.663
112 P3 141 6.663
112 P3 142 7.640
112 P3 143 7.640
112 P3 144 7.151
112 P3 145 5.686
112 P3 146 4.710
112 P3 147 4.222
112 P3 148 4.222
112 P3 149 5.198
112 P3 150 5.198
112 P3 151 4.222
112 P3 152 2.268
112 P3 153 0.804
112 P3 154 0.315
112 P3 155 1.292
112 P3 156 2.757
112 P3 157 4.222
112 P3 158 6.175
112 P3 159 7.640
112 P3 160 9.104
112 P3 161 10.569
112 P3 162 11.058
112 P3 163 11.058
112 P3 164 11.546
112 P3 165 11.058
112 P3 166 10.569
112 P3 167 9.593
112 P3 168 8.128
112 P3 169 6.663
112 P3 170 7.151
112 P3 171 7.640
112 P3 172 9.104
112 P3 173 10.569
112 P3 174 10.569
112 P3 175 9.104
112 P3 176 7.640
112 P3 177 7.151
112 P3 178 7.151
112 P3 179 7.151
112 P3 180 6.663
112 P3 181 5.198
112 P3 182 4.222
112 P3 183 3.733
112 P3 184 4.710
112 P3 185 6.175
112 P3 186 7.151
112 P3 187 7.151
112 P3 188 6.663
112 P3 189 7.151
112 P3 190 7.640
112 P3 191 8.128
112 P3 192 8.128
112 P3 193 6.175
112 P3 194 2.757
112 P3 195 -1.149
112 P3 196 -4.567
112 P3 197 -7.009
112 P3 198 -8.474
112 P3 199 -9.939
112 P3 200 -10.915
112 P3 201 -11.892
112 P3 202 -12.380
112 P3 203 -12.380
112 P3 204 -12.380
112 P3 205 -10.427
112 P3 206 -8.962
112 P3 207 -6.521
112 P3 208 -4.079
112 P3 209 -1.638
112 P3 210 -0.173
112 P3 211 0.315
112 P3 212 -0.173
112 P3 213 -0.661
112 P3 214 -0.661
112 P3 215 -0.173
112 P3 216 0.804
112 P3 217 1.780
112 P3 218 2.268
112 P3 219 2.268
112 P3 220 1.780
112 P3 221 2.268
112 P3 222 2.757
112 P3 223 3.245
112 P3 224 3.733
112 P3 225 3.733
112 P3 226 3.733
112 P3 227 3.245
112 P3 228 1.292
112 P3 229 -1.638
112 P3 230 -6.032
112 P3 231 -8.962
112 P3 232 -9.939
112 P3 233 -7.985
112 P3 234 -4.079
112 P3 235 -1.638
112 P3 236 -0.661
112 P3 237 -1.638
112 P3 238 -1.638
112 P3 239 -0.173
112 P3 240 2.757
112 P3 241 5.198
112 P3 242 5.686
112 P3 243 3.733
112 P3 244 -0.173
112 P3 245 -4.079
112 P3 246 -7.009
112 P3 247 -8.962
112 P3 248 -10.427
112 P3 249 -11.403
112 P3 250 -11.892
112 P3 251 -12.380
112 P3 252 -12.868
112 P3 253 -13.845
112 P3 254 -15.310
112 P3 255 -17.263
# P4 chan 23
112 P4 0 -7.416
112 P4 1 -8.392
112 P4 2 -8.881
112 P4 3 -9.369
112 P4 4 -8.881
112 P4 5 -7.904
112 P4 6 -6.439
112 P4 7 -5.463
112 P4 8 -5.951
112 P4 9 -6.439
112 P4 10 -8.392
112 P4 11 -9.857
112 P4 12 -9.857
112 P4 13 -8.392
112 P4 14 -5.951
112 P4 15 -3.998
112 P4 16 -3.021
112 P4 17 -3.998
112 P4 18 -4.974
112 P4 19 -5.951
112 P4 20 -5.951
112 P4 21 -5.951
112 P4 22 -6.927
112 P4 23 -7.904
112 P4 24 -9.369
112 P4 25 -10.345
112 P4 26 -9.857
112 P4 27 -9.369
112 P4 28 -7.416
112 P4 29 -6.439
112 P4 30 -5.463
112 P4 31 -4.486
112 P4 32 -3.510
112 P4 33 -2.045
112 P4 34 -0.580
112 P4 35 0.397
112 P4 36 0.885
112 P4 37 1.373
112 P4 38 1.373
112 P4 39 1.373
112 P4 40 1.373
112 P4 41 0.885
112 P4 42 0.885
112 P4 43 1.373
112 P4 44 0.885
112 P4 45 -0.092
112 P4 46 -2.533
112 P4 47 -4.974
112 P4 48 -7.416
112 P4 49 -7.904
112 P4 50 -6.927
112 P4 51 -4.486
112 P4 52 -2.533
112 P4 53 -1.068
112 P4 54 -0.580
112 P4 55 -1.068
112 P4 56 -1.556
112 P4 57 -1.556
112 P4 58 -2.045
112 P4 59 -3.021
112 P4 60 -3.998
112 P4 61 -4.486
112 P4 62 -3.998
112 P4 63 -3.510
112 P4 64 -2.533
112 P4 65 -2.533
112 P4 66 -2.533
112 P4 67 -2.533
112 P4 68 -2.533
112 P4 69 -2.045
112 P4 70 -1.556
112 P4 71 -1.068
112 P4 72 -1.556
112 P4 73 -3.021
112 P4 74 -4.486
112 P4 75 -5.463
112 P4 76 -5.463
112 P4 77 -4.974
112 P4 78 -4.486
112 P4 79 -4.974
112 P4 80 -6.439
112 P4 81 -8.392
112 P4 82 -9.857
112 P4 83 -10.345
112 P4 84 -8.881
112 P4 85 -8.392
112 P4 86 -8.881
112 P4 87 -10.345
112 P4 88 -11.322
112 P4 89 -10.834
112 P4 90 -8.392
112 P4 91 -4.974
112 P4 92 -3.510
112 P4 93 -3.021
112 P4 94 -3.998
112 P4 95 -4.486
112 P4 96 -3.510
112 P4 97 -2.045
112 P4 98 -0.092
112 P4 99 0.397
112 P4 100 -0.092
112 P4 101 -1.068
112 P4 102 -2.045
112 P4 103 -3.510
112 P4 104 -4.974
112 P4 105 -6.439
112 P4 106 -8.881
112 P4 107 -10.345
112 P4 108 -11.322
112 P4 109 -11.322
112 P4 110 -10.345
112 P4 111 -9.857
112 P4 112 -9.369
112 P4 113 -8.881
112 P4 114 -7.904
112 P4 115 -6.439
112 P4 116 -5.463
112 P4 117 -4.486
112 P4 118 -3.998
112 P4 119 -3.998
112 P4 120 -3.510
112 P4 121 -2.533
112 P4 122 -1.556
112 P4 123 -0.580
112 P4 124 -0.092
112 P4 125 -0.092
112 P4 126 0.397
112 P4 127 0.885
112 P4 128 0.885
112 P4 129 -0.092
112 P4 130 -2.533
112 P4 131 -4.974
112 P4 132 -6.927
112 P4 133 -6.927
112 P4 134 -5.463
112 P4 135 -3.021
112 P4 136 -0.580
112 P4 137 1.862
112 P4 138 3.326
112 P4 139 3.326
112 P4 140 2.350
112 P4 141 1.373
112 P4 142 0.885
112 P4 143 0.885
112 P4 144 0.397
112 P4 145 -1.068
112 P4 146 -4.486
112 P4 147 -7.416
112 P4 148 -8.392
112 P4 149 -7.416
112 P4 150 -4.974
112 P4 151 -3.021
112 P4 152 -3.021
112 P4 153 -4.486
112 P4 154 -6.439
112 P4 155 -6.439
112 P4 156 -5.463
112 P4 157 -3.998
112 P4 158 -3.021
112 P4 159 -2.533
112 P4 160 -3.021
112 P4 161 -3.510
112 P4 162 -4.486
112 P4 163 -5.463
112 P4 164 -7.416
112 P4 165 -10.345
112 P4 166 -13.275
112 P4 167 -15.228
112 P4 168 -15.717
112 P4 169 -14.740
112 P4 170 -11.810
112 P4 171 -7.416
112 P4 172 -3.021
112 P4 173 0.397
112 P4 174 3.326
112 P4 175 4.791
112 P4 176 5.768
112 P4 177 5.768
112 P4 178 4.791
112 P4 179 1.862
112 P4 180 -2.533
112 P4 181 -7.416
112 P4 182 -12.299
112 P4 183 -15.717
112 P4 184 -16.693
112 P4 185 -16.693
112 P4 186 -16.205
112 P4 187 -16.205
112 P4 188 -17.181
112 P4 189 -17.670
112 P4 190 -16.693
112 P4 191 -14.252
112 P4 192 -10.345
112 P4 193 -6.439
112 P4 194 -3.998
112 P4 195 -3.510
112 P4 196 -4.486
112 P4 197 -5.463
112 P4 198 -6.439
112 P4 199 -7.416
112 P4 200 -8.392
112 P4 201 -10.834
112 P4 202 -13.763
112 P4 203 -16.205
112 P4 204 -17.670
112 P4 205 -18.158
112 P4 206 -18.646
112 P4 207 -18.646
112 P4 208 -19.135
112 P4 209 -19.623
112 P4 210 -18.646
112 P4 211 -16.693
112 P4 212 -14.740
112 P4 213 -12.787
112 P4 214 -11.810
112 P4 215 -11.322
112 P4 216 -11.322
112 P4 217 -10.834
112 P4 218 -9.369
112 P4 219 -6.927
112 P4 220 -4.486
112 P4 221 -2.045
112 P4 222 -0.580
112 P4 223 -0.092
112 P4 224 -0.092
112 P4 225 -0.580
112 P4 226 -1.556
112 P4 227 -2.533
112 P4 228 -4.486
112 P4 229 -7.904
112 P4 230 -11.810
112 P4 231 -16.205
112 P4 232 -19.135
112 P4 233 -21.088
112 P4 234 -21.576
112 P4 235 -21.088
112 P4 236 -18.646
112 P4 237 -14.740
112 P4 238 -9.857
112 P4 239 -4.486
112 P4 240 -0.580
112 P4 241 1.373
112 P4 242 2.350
112 P4 243 2.350
112 P4 244 1.373
112 P4 245 -0.580
112 P4 246 -3.510
112 P4 247 -7.416
112 P4 248 -10.834
112 P4 249 -11.810
112 P4 250 -10.345
112 P4 251 -7.904
112 P4 252 -5.951
112 P4 253 -6.439
112 P4 254 -8.881
112 P4 255 -12.787
# PZ chan 24
112 PZ 0 -0.743
112 PZ 1 -3.672
112 PZ 2 -6.602
112 PZ 3 -7.579
112 PZ 4 -7.579
112 PZ 5 -6.114
112 PZ 6 -4.649
112 PZ 7 -3.184
112 PZ 8 -3.184
112 PZ 9 -3.672
112 PZ 10 -4.649
112 PZ 11 -4.649
112 PZ 12 -4.161
112 PZ 13 -2.696
112 PZ 14 -0.743
112 PZ 15 1.211
112 PZ 16 2.187
112 PZ 17 2.187
112 PZ 18 1.211
112 PZ 19 0.234
112 PZ 20 -0.743
112 PZ 21 -1.719
112 PZ 22 -2.207
112 PZ 23 -3.184
112 PZ 24 -4.649
112 PZ 25 -6.602
112 PZ 26 -9.043
112 PZ 27 -10.996
112 PZ 28 -11.485
112 PZ 29 -10.996
112 PZ 30 -10.996
112 PZ 31 -10.508
112 PZ 32 -10.508
112 PZ 33 -10.508
112 PZ 34 -9.043
112 PZ 35 -6.602
112 PZ 36 -3.672
112 PZ 37 -1.231
112 PZ 38 0.234
112 PZ 39 0.234
112 PZ 40 -0.254
112 PZ 41 -0.743
112 PZ 42 0.234
112 PZ 43 1.699
112 PZ 44 2.675
112 PZ 45 2.675
112 PZ 46 0.722
112 PZ 47 -1.719
112 PZ 48 -4.161
112 PZ 49 -5.137
112 PZ 50 -4.161
112 PZ 51 -2.207
112 PZ 52 -0.254
112 PZ 53 0.234
112 PZ 54 -0.743
112 PZ 55 -3.184
112 PZ 56 -5.625
112 PZ 57 -8.067
112 PZ 58 -9.043
112 PZ 59 -8.555
112 PZ 60 -8.067
112 PZ 61 -7.090
112 PZ 62 -6.602
112 PZ 63 -6.602
112 PZ 64 -6.602
112 PZ 65 -6.602
112 PZ 66 -5.625
112 PZ 67 -5.137
112 PZ 68 -4.161
112 PZ 69 -3.672
112 PZ 70 -3.672
112 PZ 71 -3.672
112 PZ 72 -4.649
112 PZ 73 -6.114
112 PZ 74 -7.579
112 PZ 75 -8.555
112 PZ 76 -8.555
112 PZ 77 -8.555
112 PZ 78 -8.067
112 PZ 79 -7.579
112 PZ 80 -8.067
112 PZ 81 -9.043
112 PZ 82 -10.020
112 PZ 83 -10.508
112 PZ 84 -10.020
112 PZ 85 -9.532
112 PZ 86 -8.067
112 PZ 87 -8.067
112 PZ 88 -7.579
112 PZ 89 -6.602
112 PZ 90 -5.137
112 PZ 91 -3.184
112 PZ 92 -1.231
112 PZ 93 -0.743
112 PZ 94 -1.719
112 PZ 95 -2.696
112 PZ 96 -4.161
112 PZ 97 -4.649
112 PZ 98 -4.161
112 PZ 99 -3.184
112 PZ 100 -2.696
112 PZ 101 -2.696
112 PZ 102 -3.672
112 PZ 103 -4.161
112 PZ 104 -4.161
112 PZ 105 -4.161
112 PZ 106 -4.161
112 PZ 107 -4.649
112 PZ 108 -5.137
112 PZ 109 -5.625
112 PZ 110 -5.625
112 PZ 111 -4.649
112 PZ 112 -3.184
112 PZ 113 -1.231
112 PZ 114 0.722
112 PZ 115 2.187
112 PZ 116 2.675
112 PZ 117 2.675
112 PZ 118 2.187
112 PZ 119 0.722
112 PZ 120 -0.743
112 PZ 121 -1.719
112 PZ 122 -2.207
112 PZ 123 -2.696
112 PZ 124 -2.696
112 PZ 125 -2.696
112 PZ 126 -1.719
112 PZ 127 -0.254
112 PZ 128 1.211
112 PZ 129 2.675
112 PZ 130 3.164
112 PZ 131 2.187
112 PZ 132 0.722
112 PZ 133 0.234
112 PZ 134 0.234
112 PZ 135 1.699
112 PZ 136 4.140
112 PZ 137 6.093
112 PZ 138 6.582
112 PZ 139 6.093
112 PZ 140 5.117
112 PZ 141 5.117
112 PZ 142 6.093
112 PZ 143 7.070
112 PZ 144 7.558
112 PZ 145 6.582
112 PZ 146 4.629
112 PZ 147 2.187
112 PZ 148 0.722
112 PZ 149 1.211
112 PZ 150 2.187
112 PZ 151 3.164
112 PZ 152 3.164
112 PZ 153 2.187
112 PZ 154 0.234
112 PZ 155 -0.743
112 PZ 156 -0.254
112 PZ 157 0.234
112 PZ 158 1.699
112 PZ 159 2.675
112 PZ 160 3.164
112 PZ 161 3.164
112 PZ 162 3.164
112 PZ 163 2.675
112 PZ 164 2.675
112 PZ 165 2.675
112 PZ 166 2.187
112 PZ 167 0.722
112 PZ 168 0.234
112 PZ 169 -0.254
112 PZ 170 1.211
112 PZ 171 3.652
112 PZ 172 7.070
112 PZ 173 10.000
112 PZ 174 11.464
112 PZ 175 11.953
112 PZ 176 10.976
112 PZ 177 10.000
112 PZ 178 9.023
112 PZ 179 7.070
112 PZ 180 4.629
112 PZ 181 2.187
112 PZ 182 -0.254
112 PZ 183 -1.719
112 PZ 184 -1.231
112 PZ 185 -0.254
112 PZ 186 1.211
112 PZ 187 2.675
112 PZ 188 3.164
112 PZ 189 3.652
112 PZ 190 3.164
112 PZ 191 4.140
112 PZ 192 4.629
112 PZ 193 5.117
112 PZ 194 4.629
112 PZ 195 3.164
112 PZ 196 1.211
112 PZ 197 -1.231
112 PZ 198 -3.184
112 PZ 199 -4.649
112 PZ 200 -5.625
112 PZ 201 -6.114
112 PZ 202 -7.090
112 PZ 203 -8.067
112 PZ 204 -8.555
112 PZ 205 -8.555
112 PZ 206 -8.067
112 PZ 207 -7.579
112 PZ 208 -6.602
112 PZ 209 -6.114
112 PZ 210 -4.649
112 PZ 211 -3.672
112 PZ 212 -1.231
112 PZ 213 0.722
112 PZ 214 2.187
112 PZ 215 3.652
112 PZ 216 4.629
112 PZ 217 5.117
112 PZ 218 4.629
112 PZ 219 4.140
112 PZ 220 4.140
112 PZ 221 5.117
112 PZ 222 6.093
112 PZ 223 6.582
112 PZ 224 6.582
112 PZ 225 6.093
112 PZ 226 5.605
112 PZ 227 4.629
112 PZ 228 3.164
112 PZ 229 0.722
112 PZ 230 -2.207
112 PZ 231 -4.649
112 PZ 232 -7.090
112 PZ 233 -7.090
112 PZ 234 -6.114
112 PZ 235 -4.649
112 PZ 236 -3.184
112 PZ 237 -2.207
112 PZ 238 -0.254
112 PZ 239 2.675
112 PZ 240 6.093
112 PZ 241 8.535
112 PZ 242 10.000
112 PZ 243 9.511
112 PZ 244 7.558
112 PZ 245 5.117
112 PZ 246 2.675
112 PZ 247 -0.254
112 PZ 248 -2.696
112 PZ 249 -4.649
112 PZ 250 -4.649
112 PZ 251 -3.672
112 PZ 252 -1.719
112 PZ 253 -0.743
112 PZ 254 -2.207
112 PZ 255 -4.649
# P8 chan 25
112 P8 0 -18.087
112 P8 1 -18.575
112 P8 2 -17.110
112 P8 3 -15.157
112 P8 4 -12.716
112 P8 5 -10.274
112 P8 6 -9.298
112 P8 7 -7.833
112 P8 8 -6.856
112 P8 9 -5.880
112 P8 10 -5.880
112 P8 11 -6.368
112 P8 12 -7.833
112 P8 13 -8.321
112 P8 14 -7.833
112 P8 15 -6.856
112 P8 16 -6.368
112 P8 17 -7.345
112 P8 18 -9.298
112 P8 19 -11.251
112 P8 20 -12.716
112 P8 21 -13.204
112 P8 22 -14.669
112 P8 23 -16.622
112 P8 24 -19.063
112 P8 25 -19.552
112 P8 26 -17.598
112 P8 27 -13.692
112 P8 28 -8.321
112 P8 29 -4.415
112 P8 30 -1.485
112 P8 31 0.956
112 P8 32 3.886
112 P8 33 7.792
112 P8 34 11.210
112 P8 35 13.652
112 P8 36 13.652
112 P8 37 13.163
112 P8 38 12.675
112 P8 39 13.163
112 P8 40 13.163
112 P8 41 13.163
112 P8 42 11.698
112 P8 43 9.257
112 P8 44 6.327
112 P8 45 2.909
112 P8 46 -0.509
112 P8 47 -4.415
112 P8 48 -7.833
112 P8 49 -10.274
112 P8 50 -10.274
112 P8 51 -8.321
112 P8 52 -5.391
112 P8 53 -1.973
112 P8 54 -0.020
112 P8 55 2.421
112 P8 56 4.374
112 P8 57 5.839
112 P8 58 7.304
112 P8 59 6.816
112 P8 60 4.862
112 P8 61 2.909
112 P8 62 1.933
112 P8 63 2.909
112 P8 64 4.862
112 P8 65 6.816
112 P8 66 8.280
112 P8 67 9.257
112 P8 68 9.745
112 P8 69 10.722
112 P8 70 11.210
112 P8 71 10.722
112 P8 72 9.257
112 P8 73 6.816
112 P8 74 4.862
112 P8 75 3.886
112 P8 76 4.374
112 P8 77 5.839
112 P8 78 6.816
112 P8 79 5.351
112 P8 80 2.421
112 P8 81 -1.485
112 P8 82 -3.927
112 P8 83 -3.927
112 P8 84 -2.462
112 P8 85 -0.509
112 P8 86 -0.020
112 P8 87 -0.997
112 P8 88 -2.950
112 P8 89 -2.950
112 P8 90 -1.973
112 P8 91 0.956
112 P8 92 2.909
112 P8 93 3.886
112 P8 94 3.398
112 P8 95 2.421
112 P8 96 1.933
112 P8 97 2.909
112 P8 98 4.862
112 P8 99 6.327
112 P8 100 6.816
112 P8 101 5.839
112 P8 102 4.862
112 P8 103 3.886
112 P8 104 1.933
112 P8 105 -0.020
112 P8 106 -2.462
112 P8 107 -4.415
112 P8 108 -5.880
112 P8 109 -5.391
112 P8 110 -3.927
112 P8 111 -2.950
112 P8 112 -2.462
112 P8 113 -2.462
112 P8 114 -2.462
112 P8 115 -1.973
112 P8 116 -0.020
112 P8 117 0.468
112 P8 118 0.468
112 P8 119 -0.020
112 P8 120 -1.485
112 P8 121 -1.973
112 P8 122 -1.973
112 P8 123 -1.973
112 P8 124 -0.997
112 P8 125 -0.020
112 P8 126 1.444
112 P8 127 2.909
112 P8 128 3.398
112 P8 129 2.421
112 P8 130 -0.997
112 P8 131 -4.415
112 P8 132 -7.345
112 P8 133 -7.833
112 P8 134 -6.856
112 P8 135 -4.415
112 P8 136 -1.973
112 P8 137 -0.509
112 P8 138 -0.020
112 P8 139 -0.509
112 P8 140 -2.462
112 P8 141 -4.903
112 P8 142 -6.856
112 P8 143 -8.321
112 P8 144 -8.809
112 P8 145 -9.298
112 P8 146 -10.274
112 P8 147 -11.739
112 P8 148 -12.227
112 P8 149 -10.763
112 P8 150 -8.321
112 P8 151 -6.368
112 P8 152 -6.368
112 P8 153 -8.321
112 P8 154 -9.786
112 P8 155 -9.786
112 P8 156 -7.833
112 P8 157 -4.903
112 P8 158 -2.950
112 P8 159 -1.973
112 P8 160 -2.462
112 P8 161 -2.462
112 P8 162 -2.462
112 P8 163 -2.462
112 P8 164 -2.950
112 P8 165 -5.391
112 P8 166 -9.298
112 P8 167 -13.692
112 P8 168 -15.645
112 P8 169 -15.645
112 P8 170 -13.204
112 P8 171 -9.298
112 P8 172 -4.903
112 P8 173 -1.485
112 P8 174 0.956
112 P8 175 2.421
112 P8 176 3.886
112 P8 177 4.862
112 P8 178 4.374
112 P8 179 2.421
112 P8 180 -1.973
112 P8 181 -7.833
112 P8 182 -13.692
112 P8 183 -18.087
112 P8 184 -19.552
112 P8 185 -19.552
112 P8 186 -19.552
112 P8 187 -21.016
112 P8 188 -23.946
112 P8 189 -26.388
112 P8 190 -26.876
112 P8 191 -23.946
112 P8 192 -19.063
112 P8 193 -13.692
112 P8 194 -9.786
112 P8 195 -8.809
112 P8 196 -9.786
112 P8 197 -11.739
112 P8 198 -13.692
112 P8 199 -14.669
112 P8 200 -16.134
112 P8 201 -16.622
112 P8 202 -17.598
112 P8 203 -17.598
112 P8 204 -17.598
112 P8 205 -16.622
112 P8 206 -16.134
112 P8 207 -15.645
112 P8 208 -15.645
112 P8 209 -16.134
112 P8 210 -16.134
112 P8 211 -15.645
112 P8 212 -14.669
112 P8 213 -13.692
112 P8 214 -12.716
112 P8 215 -12.716
112 P8 216 -13.204
112 P8 217 -13.692
112 P8 218 -12.716
112 P8 219 -10.274
112 P8 220 -5.880
112 P8 221 -1.485
112 P8 222 2.421
112 P8 223 4.862
112 P8 224 5.839
112 P8 225 6.327
112 P8 226 6.327
112 P8 227 5.839
112 P8 228 3.398
112 P8 229 -0.509
112 P8 230 -5.880
112 P8 231 -11.739
112 P8 232 -16.134
112 P8 233 -20.040
112 P8 234 -22.970
112 P8 235 -24.923
112 P8 236 -25.411
112 P8 237 -23.458
112 P8 238 -19.063
112 P8 239 -13.692
112 P8 240 -8.321
112 P8 241 -4.903
112 P8 242 -2.950
112 P8 243 -1.973
112 P8 244 -1.973
112 P8 245 -2.950
112 P8 246 -5.391
112 P8 247 -8.809
112 P8 248 -11.739
112 P8 249 -13.204
112 P8 250 -12.716
112 P8 251 -11.251
112 P8 252 -10.763
112 P8 253 -12.716
112 P8 254 -15.645
112 P8 255 -19.063
# P7 chan 26
112 P7 0 -16.947
112 P7 1 -17.436
112 P7 2 -17.436
112 P7 3 -15.971
112 P7 4 -12.553
112 P7 5 -8.158
112 P7 6 -5.717
112 P7 7 -5.717
112 P7 8 -7.670
112 P7 9 -9.623
112 P7 10 -8.158
112 P7 11 -2.787
112 P7 12 4.049
112 P7 13 8.443
112 P7 14 9.420
112 P7 15 6.490
112 P7 16 3.560
112 P7 17 2.096
112 P7 18 1.119
112 P7 19 -0.834
112 P7 20 -4.740
112 P7 21 -10.111
112 P7 22 -15.483
112 P7 23 -17.924
112 P7 24 -17.924
112 P7 25 -17.924
112 P7 26 -17.924
112 P7 27 -18.901
112 P7 28 -18.901
112 P7 29 -16.459
112 P7 30 -11.088
112 P7 31 -5.229
112 P7 32 -2.299
112 P7 33 -1.811
112 P7 34 -2.787
112 P7 35 -3.276
112 P7 36 -1.811
112 P7 37 1.607
112 P7 38 4.049
112 P7 39 3.560
112 P7 40 0.142
112 P7 41 -2.787
112 P7 42 -3.764
112 P7 43 -2.299
112 P7 44 -0.346
112 P7 45 -1.322
112 P7 46 -5.717
112 P7 47 -12.065
112 P7 48 -16.459
112 P7 49 -14.994
112 P7 50 -7.670
112 P7 51 2.096
112 P7 52 9.908
112 P7 53 12.838
112 P7 54 11.373
112 P7 55 6.490
112 P7 56 1.607
112 P7 57 -1.811
112 P7 58 -3.276
112 P7 59 -2.299
112 P7 60 -0.834
112 P7 61 2.096
112 P7 62 6.002
112 P7 63 8.931
112 P7 64 10.396
112 P7 65 9.420
112 P7 66 7.467
112 P7 67 6.002
112 P7 68 5.514
112 P7 69 6.978
112 P7 70 8.443
112 P7 71 7.955
112 P7 72 5.514
112 P7 73 1.607
112 P7 74 -2.299
112 P7 75 -3.764
112 P7 76 -3.276
112 P7 77 -1.322
112 P7 78 -0.346
112 P7 79 0.142
112 P7 80 -1.322
112 P7 81 -2.299
112 P7 82 -2.299
112 P7 83 -0.346
112 P7 84 3.072
112 P7 85 6.490
112 P7 86 8.931
112 P7 87 10.396
112 P7 88 10.885
112 P7 89 11.373
112 P7 90 11.373
112 P7 91 10.885
112 P7 92 9.420
112 P7 93 6.978
112 P7 94 4.049
112 P7 95 1.119
112 P7 96 -0.834
112 P7 97 -0.834
112 P7 98 0.631
112 P7 99 4.049
112 P7 100 6.978
112 P7 101 9.908
112 P7 102 10.885
112 P7 103 10.885
112 P7 104 9.908
112 P7 105 9.908
112 P7 106 10.885
112 P7 107 12.838
112 P7 108 13.814
112 P7 109 14.303
112 P7 110 13.814
112 P7 111 13.326
112 P7 112 13.814
112 P7 113 14.791
112 P7 114 15.767
112 P7 115 16.256
112 P7 116 15.767
