# co2a0000427.rd
# 120 trials, 64 chans, 416 samples 368 post_stim samples
# 3.906000 msecs uV
# S1 obj , trial 34
# FP1 chan 0
34 FP1 0 -6.673
34 FP1 1 -6.673
34 FP1 2 -4.232
34 FP1 3 -0.326
34 FP1 4 3.581
34 FP1 5 6.510
34 FP1 6 6.510
34 FP1 7 6.022
34 FP1 8 4.069
34 FP1 9 3.092
34 FP1 10 1.139
34 FP1 11 -0.326
34 FP1 12 -1.790
34 FP1 13 -3.743
34 FP1 14 -5.208
34 FP1 15 -5.697
34 FP1 16 -6.673
34 FP1 17 -7.161
34 FP1 18 -7.650
34 FP1 19 -7.161
34 FP1 20 -5.697
34 FP1 21 -2.767
34 FP1 22 -0.326
34 FP1 23 0.163
34 FP1 24 -1.790
34 FP1 25 -5.208
34 FP1 26 -8.626
34 FP1 27 -11.556
34 FP1 28 -12.044
34 FP1 29 -10.091
34 FP1 30 -6.673
34 FP1 31 -1.302
34 FP1 32 4.069
34 FP1 33 8.464
34 FP1 34 10.905
34 FP1 35 9.928
34 FP1 36 6.510
34 FP1 37 2.604
34 FP1 38 -0.326
34 FP1 39 -0.326
34 FP1 40 2.604
34 FP1 41 7.975
34 FP1 42 12.370
34 FP1 43 13.835
34 FP1 44 11.393
34 FP1 45 6.510
34 FP1 46 1.628
34 FP1 47 -1.302
34 FP1 48 -1.790
34 FP1 49 -0.326
34 FP1 50 1.628
34 FP1 51 3.581
34 FP1 52 4.557
34 FP1 53 4.069
34 FP1 54 2.604
34 FP1 55 1.139
34 FP1 56 -0.326
34 FP1 57 -1.302
34 FP1 58 -1.790
34 FP1 59 -0.814
34 FP1 60 0.651
34 FP1 61 2.604
34 FP1 62 4.069
34 FP1 63 4.069
34 FP1 64 2.604
34 FP1 65 0.163
34 FP1 66 -1.790
34 FP1 67 -2.767
34 FP1 68 -2.767
34 FP1 69 -1.790
34 FP1 70 -1.302
34 FP1 71 -1.302
34 FP1 72 -2.279
34 FP1 73 -3.255
34 FP1 74 -2.767
34 FP1 75 -1.790
34 FP1 76 -0.326
34 FP1 77 0.651
34 FP1 78 0.163
34 FP1 79 -1.302
34 FP1 80 -2.279
34 FP1 81 -2.767
34 FP1 82 -2.767
34 FP1 83 -2.767
34 FP1 84 -2.279
34 FP1 85 -1.790
34 FP1 86 -1.790
34 FP1 87 -1.790
34 FP1 88 -1.790
34 FP1 89 -1.790
34 FP1 90 -1.790
34 FP1 91 -1.790
34 FP1 92 -1.790
34 FP1 93 -2.279
34 FP1 94 -3.255
34 FP1 95 -4.720
34 FP1 96 -5.697
34 FP1 97 -5.208
34 FP1 98 -3.743
34 FP1 99 -0.814
34 FP1 100 1.139
34 FP1 101 1.628
34 FP1 102 -0.326
34 FP1 103 -3.743
34 FP1 104 -6.185
34 FP1 105 -7.161
34 FP1 106 -5.208
34 FP1 107 -1.790
34 FP1 108 1.139
34 FP1 109 2.116
34 FP1 110 0.163
34 FP1 111 -3.255
34 FP1 112 -7.161
34 FP1 113 -8.626
34 FP1 114 -7.650
34 FP1 115 -3.743
34 FP1 116 0.651
34 FP1 117 3.581
34 FP1 118 4.557
34 FP1 119 3.092
34 FP1 120 0.651
34 FP1 121 -1.302
34 FP1 122 -1.790
34 FP1 123 -0.814
34 FP1 124 0.651
34 FP1 125 2.604
34 FP1 126 3.581
34 FP1 127 4.069
34 FP1 128 4.069
34 FP1 129 3.092
34 FP1 130 1.628
34 FP1 131 0.163
34 FP1 132 -0.814
34 FP1 133 -0.814
34 FP1 134 -0.326
34 FP1 135 0.651
34 FP1 136 2.116
34 FP1 137 3.581
34 FP1 138 4.557
34 FP1 139 6.022
34 FP1 140 6.999
34 FP1 141 8.464
34 FP1 142 9.440
34 FP1 143 9.928
34 FP1 144 9.928
34 FP1 145 9.440
34 FP1 146 9.440
34 FP1 147 8.952
34 FP1 148 8.464
34 FP1 149 8.952
34 FP1 150 9.928
34 FP1 151 10.905
34 FP1 152 10.905
34 FP1 153 9.928
34 FP1 154 7.975
34 FP1 155 6.022
34 FP1 156 5.534
34 FP1 157 6.999
34 FP1 158 9.928
34 FP1 159 13.346
34 FP1 160 15.299
34 FP1 161 16.276
34 FP1 162 15.788
34 FP1 163 15.299
34 FP1 164 14.811
34 FP1 165 13.835
34 FP1 166 12.858
34 FP1 167 10.905
34 FP1 168 8.464
34 FP1 169 6.022
34 FP1 170 4.069
34 FP1 171 2.604
34 FP1 172 2.604
34 FP1 173 2.604
34 FP1 174 3.092
34 FP1 175 2.604
34 FP1 176 2.604
34 FP1 177 2.116
34 FP1 178 2.116
34 FP1 179 2.116
34 FP1 180 2.604
34 FP1 181 2.604
34 FP1 182 2.116
34 FP1 183 1.628
34 FP1 184 1.628
34 FP1 185 2.116
34 FP1 186 3.092
34 FP1 187 4.557
34 FP1 188 6.022
34 FP1 189 5.534
34 FP1 190 4.557
34 FP1 191 2.116
34 FP1 192 0.651
34 FP1 193 -0.814
34 FP1 194 -1.302
34 FP1 195 -1.302
34 FP1 196 -1.302
34 FP1 197 -1.790
34 FP1 198 -2.279
34 FP1 199 -2.767
34 FP1 200 -2.279
34 FP1 201 -1.302
34 FP1 202 -0.326
34 FP1 203 0.163
34 FP1 204 1.139
34 FP1 205 2.116
34 FP1 206 3.581
34 FP1 207 5.534
34 FP1 208 7.487
34 FP1 209 7.975
34 FP1 210 6.999
34 FP1 211 5.534
34 FP1 212 3.581
34 FP1 213 2.116
34 FP1 214 1.628
34 FP1 215 1.628
34 FP1 216 1.628
34 FP1 217 2.604
34 FP1 218 3.092
34 FP1 219 3.581
34 FP1 220 3.581
34 FP1 221 4.069
34 FP1 222 4.557
34 FP1 223 5.046
34 FP1 224 6.022
34 FP1 225 6.999
34 FP1 226 8.464
34 FP1 227 8.952
34 FP1 228 8.952
34 FP1 229 8.464
34 FP1 230 8.464
34 FP1 231 9.440
34 FP1 232 11.393
34 FP1 233 12.858
34 FP1 234 14.323
34 FP1 235 13.835
34 FP1 236 11.393
34 FP1 237 9.440
34 FP1 238 7.487
34 FP1 239 7.487
34 FP1 240 8.952
34 FP1 241 10.905
34 FP1 242 12.858
34 FP1 243 13.346
34 FP1 244 12.370
34 FP1 245 10.905
34 FP1 246 8.952
34 FP1 247 7.487
34 FP1 248 6.999
34 FP1 249 7.487
34 FP1 250 8.464
34 FP1 251 9.440
34 FP1 252 9.440
34 FP1 253 8.464
34 FP1 254 7.975
34 FP1 255 6.999
# FP2 chan 1
34 FP2 0 -10.030
34 FP2 1 -9.542
34 FP2 2 -6.612
34 FP2 3 -1.241
34 FP2 4 3.642
34 FP2 5 6.571
34 FP2 6 7.060
34 FP2 7 4.618
34 FP2 8 1.689
34 FP2 9 -0.264
34 FP2 10 -1.729
34 FP2 11 -2.218
34 FP2 12 -2.218
34 FP2 13 -2.218
34 FP2 14 -3.194
34 FP2 15 -4.659
34 FP2 16 -7.100
34 FP2 17 -9.542
34 FP2 18 -10.518
34 FP2 19 -8.565
34 FP2 20 -4.659
34 FP2 21 0.224
34 FP2 22 4.130
34 FP2 23 5.595
34 FP2 24 3.642
34 FP2 25 -0.753
34 FP2 26 -6.124
34 FP2 27 -10.518
34 FP2 28 -12.472
34 FP2 29 -12.472
34 FP2 30 -9.054
34 FP2 31 -3.194
34 FP2 32 4.130
34 FP2 33 9.501
34 FP2 34 12.431
34 FP2 35 11.454
34 FP2 36 6.571
34 FP2 37 1.200
34 FP2 38 -2.706
34 FP2 39 -2.706
34 FP2 40 0.224
34 FP2 41 5.595
34 FP2 42 9.501
34 FP2 43 10.966
34 FP2 44 8.525
34 FP2 45 3.642
34 FP2 46 -1.729
34 FP2 47 -4.659
34 FP2 48 -4.659
34 FP2 49 -2.706
34 FP2 50 0.224
34 FP2 51 1.689
34 FP2 52 2.177
34 FP2 53 1.689
34 FP2 54 0.224
34 FP2 55 -0.264
34 FP2 56 -0.753
34 FP2 57 -1.241
34 FP2 58 -1.729
34 FP2 59 -2.218
34 FP2 60 -1.729
34 FP2 61 -1.729
34 FP2 62 -1.729
34 FP2 63 -2.218
34 FP2 64 -3.194
34 FP2 65 -4.171
34 FP2 66 -5.636
34 FP2 67 -6.612
34 FP2 68 -7.589
34 FP2 69 -9.054
34 FP2 70 -10.030
34 FP2 71 -9.542
34 FP2 72 -9.054
34 FP2 73 -8.077
34 FP2 74 -7.589
34 FP2 75 -8.077
34 FP2 76 -8.077
34 FP2 77 -7.589
34 FP2 78 -7.100
34 FP2 79 -6.124
34 FP2 80 -5.636
34 FP2 81 -6.612
34 FP2 82 -7.100
34 FP2 83 -7.100
34 FP2 84 -6.612
34 FP2 85 -5.636
34 FP2 86 -4.171
34 FP2 87 -4.659
34 FP2 88 -6.124
34 FP2 89 -8.077
34 FP2 90 -9.054
34 FP2 91 -9.054
34 FP2 92 -7.589
34 FP2 93 -6.124
34 FP2 94 -5.636
34 FP2 95 -6.612
34 FP2 96 -8.565
34 FP2 97 -10.518
34 FP2 98 -9.054
34 FP2 99 -6.124
34 FP2 100 -3.194
34 FP2 101 -1.729
34 FP2 102 -2.218
34 FP2 103 -5.636
34 FP2 104 -10.030
34 FP2 105 -12.960
34 FP2 106 -12.960
34 FP2 107 -9.542
34 FP2 108 -4.659
34 FP2 109 -0.264
34 FP2 110 2.177
34 FP2 111 1.200
34 FP2 112 -2.706
34 FP2 113 -6.612
34 FP2 114 -9.054
34 FP2 115 -8.077
34 FP2 116 -4.659
34 FP2 117 0.224
34 FP2 118 3.642
34 FP2 119 4.618
34 FP2 120 3.642
34 FP2 121 1.200
34 FP2 122 -0.264
34 FP2 123 -0.753
34 FP2 124 0.224
34 FP2 125 2.177
34 FP2 126 3.642
34 FP2 127 5.107
34 FP2 128 6.083
34 FP2 129 6.571
34 FP2 130 6.083
34 FP2 131 4.130
34 FP2 132 2.177
34 FP2 133 1.200
34 FP2 134 1.200
34 FP2 135 2.665
34 FP2 136 4.618
34 FP2 137 6.083
34 FP2 138 7.060
34 FP2 139 8.036
34 FP2 140 9.013
34 FP2 141 10.478
34 FP2 142 10.966
34 FP2 143 10.966
34 FP2 144 9.501
34 FP2 145 8.036
34 FP2 146 7.548
34 FP2 147 8.036
34 FP2 148 9.013
34 FP2 149 9.501
34 FP2 150 9.989
34 FP2 151 10.478
34 FP2 152 10.966
34 FP2 153 10.966
34 FP2 154 10.966
34 FP2 155 10.478
34 FP2 156 9.989
34 FP2 157 10.478
34 FP2 158 10.478
34 FP2 159 11.454
34 FP2 160 11.454
34 FP2 161 11.454
34 FP2 162 10.478
34 FP2 163 9.989
34 FP2 164 9.501
34 FP2 165 9.989
34 FP2 166 10.478
34 FP2 167 10.478
34 FP2 168 9.501
34 FP2 169 8.036
34 FP2 170 6.571
34 FP2 171 5.107
34 FP2 172 4.130
34 FP2 173 3.153
34 FP2 174 2.665
34 FP2 175 2.665
34 FP2 176 3.153
34 FP2 177 3.642
34 FP2 178 4.130
34 FP2 179 4.130
34 FP2 180 3.642
34 FP2 181 2.177
34 FP2 182 1.200
34 FP2 183 1.200
34 FP2 184 0.712
34 FP2 185 0.712
34 FP2 186 0.712
34 FP2 187 0.224
34 FP2 188 0.224
34 FP2 189 0.712
34 FP2 190 0.712
34 FP2 191 0.224
34 FP2 192 -1.241
34 FP2 193 -3.194
34 FP2 194 -4.659
34 FP2 195 -5.636
34 FP2 196 -5.147
34 FP2 197 -5.147
34 FP2 198 -5.636
34 FP2 199 -6.612
34 FP2 200 -7.100
34 FP2 201 -7.100
34 FP2 202 -6.124
34 FP2 203 -4.171
34 FP2 204 -2.218
34 FP2 205 -0.753
34 FP2 206 0.224
34 FP2 207 0.712
34 FP2 208 1.200
34 FP2 209 1.689
34 FP2 210 1.200
34 FP2 211 0.224
34 FP2 212 -1.241
34 FP2 213 -2.706
34 FP2 214 -2.218
34 FP2 215 -1.241
34 FP2 216 0.712
34 FP2 217 2.177
34 FP2 218 3.153
34 FP2 219 2.177
34 FP2 220 1.200
34 FP2 221 0.712
34 FP2 222 0.712
34 FP2 223 1.689
34 FP2 224 3.153
34 FP2 225 4.130
34 FP2 226 5.107
34 FP2 227 5.595
34 FP2 228 5.107
34 FP2 229 5.107
34 FP2 230 5.595
34 FP2 231 6.571
34 FP2 232 8.036
34 FP2 233 8.525
34 FP2 234 8.525
34 FP2 235 6.571
34 FP2 236 4.618
34 FP2 237 3.642
34 FP2 238 3.153
34 FP2 239 3.642
34 FP2 240 4.618
34 FP2 241 5.107
34 FP2 242 6.083
34 FP2 243 6.083
34 FP2 244 6.571
34 FP2 245 6.571
34 FP2 246 5.107
34 FP2 247 3.153
34 FP2 248 1.200
34 FP2 249 0.224
34 FP2 250 0.712
34 FP2 251 1.689
34 FP2 252 2.665
34 FP2 253 2.177
34 FP2 254 1.200
34 FP2 255 0.712
# F7 chan 2
34 F7 0 -2.899
34 F7 1 -1.923
34 F7 2 -0.946
34 F7 3 0.031
34 F7 4 0.519
34 F7 5 0.031
34 F7 6 -0.458
34 F7 7 -0.458
34 F7 8 1.007
34 F7 9 2.960
34 F7 10 3.937
34 F7 11 2.472
34 F7 12 -1.923
34 F7 13 -7.782
34 F7 14 -13.153
34 F7 15 -16.083
34 F7 16 -16.571
34 F7 17 -15.106
34 F7 18 -12.177
34 F7 19 -9.247
34 F7 20 -6.317
34 F7 21 -4.852
34 F7 22 -4.852
34 F7 23 -6.317
34 F7 24 -9.735
34 F7 25 -13.153
34 F7 26 -15.594
34 F7 27 -15.594
34 F7 28 -12.665
34 F7 29 -7.782
34 F7 30 -1.923
34 F7 31 2.960
34 F7 32 4.913
34 F7 33 4.913
34 F7 34 3.937
34 F7 35 2.472
34 F7 36 0.519
34 F7 37 -0.946
34 F7 38 -0.946
34 F7 39 -0.458
34 F7 40 1.984
34 F7 41 5.402
34 F7 42 7.843
34 F7 43 8.820
34 F7 44 6.378
34 F7 45 2.472
34 F7 46 -1.923
34 F7 47 -4.364
34 F7 48 -5.341
34 F7 49 -4.364
34 F7 50 -2.899
34 F7 51 -1.923
34 F7 52 -1.923
34 F7 53 -3.387
34 F7 54 -5.829
34 F7 55 -7.782
34 F7 56 -9.735
34 F7 57 -9.735
34 F7 58 -7.782
34 F7 59 -5.341
34 F7 60 -2.899
34 F7 61 -1.434
34 F7 62 -1.434
34 F7 63 -2.899
34 F7 64 -3.876
34 F7 65 -4.852
34 F7 66 -5.341
34 F7 67 -5.341
34 F7 68 -5.341
34 F7 69 -5.829
34 F7 70 -6.317
34 F7 71 -6.317
34 F7 72 -6.805
34 F7 73 -7.294
34 F7 74 -7.782
34 F7 75 -8.270
34 F7 76 -8.270
34 F7 77 -7.294
34 F7 78 -6.805
34 F7 79 -6.317
34 F7 80 -6.317
34 F7 81 -6.805
34 F7 82 -7.782
34 F7 83 -8.270
34 F7 84 -8.270
34 F7 85 -8.270
34 F7 86 -8.270
34 F7 87 -8.270
34 F7 88 -8.759
34 F7 89 -9.247
34 F7 90 -9.735
34 F7 91 -10.223
34 F7 92 -10.223
34 F7 93 -10.223
34 F7 94 -9.735
34 F7 95 -7.782
34 F7 96 -5.829
34 F7 97 -4.364
34 F7 98 -3.387
34 F7 99 -4.364
34 F7 100 -6.805
34 F7 101 -8.759
34 F7 102 -9.247
34 F7 103 -7.294
34 F7 104 -3.876
34 F7 105 0.031
34 F7 106 2.960
34 F7 107 3.448
34 F7 108 1.984
34 F7 109 -0.946
34 F7 110 -3.876
34 F7 111 -6.317
34 F7 112 -7.294
34 F7 113 -5.829
34 F7 114 -2.899
34 F7 115 0.519
34 F7 116 3.448
34 F7 117 4.913
34 F7 118 4.913
34 F7 119 3.937
34 F7 120 3.448
34 F7 121 3.937
34 F7 122 4.913
34 F7 123 5.890
34 F7 124 6.378
34 F7 125 6.866
34 F7 126 6.378
34 F7 127 6.378
34 F7 128 6.378
34 F7 129 5.890
34 F7 130 4.913
34 F7 131 2.960
34 F7 132 1.495
34 F7 133 1.007
34 F7 134 1.495
34 F7 135 2.960
34 F7 136 4.913
34 F7 137 6.378
34 F7 138 6.866
34 F7 139 6.378
34 F7 140 5.890
34 F7 141 6.378
34 F7 142 7.355
34 F7 143 9.308
34 F7 144 11.749
34 F7 145 13.702
34 F7 146 14.679
34 F7 147 14.679
34 F7 148 13.702
34 F7 149 12.238
34 F7 150 10.284
34 F7 151 8.820
34 F7 152 7.355
34 F7 153 6.866
34 F7 154 6.866
34 F7 155 8.820
34 F7 156 11.749
34 F7 157 15.167
34 F7 158 18.585
34 F7 159 21.027
34 F7 160 21.515
34 F7 161 21.027
34 F7 162 19.562
34 F7 163 19.073
34 F7 164 18.585
34 F7 165 17.609
34 F7 166 16.144
34 F7 167 13.214
34 F7 168 9.796
34 F7 169 7.355
34 F7 170 5.890
34 F7 171 5.402
34 F7 172 5.402
34 F7 173 5.402
34 F7 174 5.402
34 F7 175 4.913
34 F7 176 4.913
34 F7 177 5.402
34 F7 178 6.378
34 F7 179 7.355
34 F7 180 8.331
34 F7 181 9.796
34 F7 182 10.773
34 F7 183 11.261
34 F7 184 11.261
34 F7 185 11.261
34 F7 186 11.749
34 F7 187 12.238
34 F7 188 13.214
34 F7 189 13.702
34 F7 190 12.726
34 F7 191 11.261
34 F7 192 8.820
34 F7 193 6.378
34 F7 194 4.913
34 F7 195 3.448
34 F7 196 2.960
34 F7 197 2.960
34 F7 198 3.937
34 F7 199 5.890
34 F7 200 7.355
34 F7 201 8.331
34 F7 202 7.843
34 F7 203 6.378
34 F7 204 4.913
34 F7 205 4.425
34 F7 206 4.913
34 F7 207 6.378
34 F7 208 7.355
34 F7 209 7.355
34 F7 210 6.378
34 F7 211 4.913
34 F7 212 4.425
34 F7 213 4.913
34 F7 214 5.402
34 F7 215 5.402
34 F7 216 5.402
34 F7 217 4.913
34 F7 218 4.425
34 F7 219 4.425
34 F7 220 4.425
34 F7 221 4.425
34 F7 222 4.913
34 F7 223 4.913
34 F7 224 5.890
34 F7 225 7.843
34 F7 226 9.796
34 F7 227 10.773
34 F7 228 11.749
34 F7 229 11.261
34 F7 230 10.773
34 F7 231 10.773
34 F7 232 11.261
34 F7 233 12.726
34 F7 234 13.214
34 F7 235 12.238
34 F7 236 10.284
34 F7 237 6.866
34 F7 238 3.937
34 F7 239 1.984
34 F7 240 1.007
34 F7 241 1.984
34 F7 242 3.448
34 F7 243 3.448
34 F7 244 2.472
34 F7 245 0.519
34 F7 246 -1.923
34 F7 247 -2.899
34 F7 248 -2.899
34 F7 249 -1.434
34 F7 250 0.031
34 F7 251 0.519
34 F7 252 0.031
34 F7 253 -1.434
34 F7 254 -1.923
34 F7 255 -1.434
# F8 chan 3
34 F8 0 -5.035
34 F8 1 -4.059
34 F8 2 -2.594
34 F8 3 0.824
34 F8 4 4.730
34 F8 5 9.125
34 F8 6 12.054
34 F8 7 13.031
34 F8 8 11.566
34 F8 9 8.636
34 F8 10 5.219
34 F8 11 2.777
34 F8 12 1.801
34 F8 13 1.312
34 F8 14 0.824
34 F8 15 -0.641
34 F8 16 -2.594
34 F8 17 -3.082
34 F8 18 -1.617
34 F8 19 1.312
34 F8 20 4.730
34 F8 21 7.172
34 F8 22 8.148
34 F8 23 6.683
34 F8 24 4.730
34 F8 25 2.289
34 F8 26 -0.153
34 F8 27 -2.594
34 F8 28 -4.059
34 F8 29 -3.082
34 F8 30 -0.641
34 F8 31 2.289
34 F8 32 5.219
34 F8 33 5.707
34 F8 34 6.195
34 F8 35 6.195
34 F8 36 6.683
34 F8 37 7.172
34 F8 38 6.195
34 F8 39 5.219
34 F8 40 3.265
34 F8 41 2.289
34 F8 42 1.801
34 F8 43 1.801
34 F8 44 0.336
34 F8 45 -3.082
34 F8 46 -6.500
34 F8 47 -8.453
34 F8 48 -6.989
34 F8 49 -4.059
34 F8 50 -0.153
34 F8 51 1.801
34 F8 52 0.824
34 F8 53 -0.641
34 F8 54 -1.617
34 F8 55 -1.617
34 F8 56 -0.153
34 F8 57 1.312
34 F8 58 1.312
34 F8 59 0.336
34 F8 60 -0.641
34 F8 61 -1.129
34 F8 62 -1.129
34 F8 63 -1.617
34 F8 64 -2.594
34 F8 65 -3.571
34 F8 66 -5.524
34 F8 67 -6.500
34 F8 68 -7.965
34 F8 69 -8.942
34 F8 70 -9.918
34 F8 71 -9.918
34 F8 72 -8.942
34 F8 73 -7.965
34 F8 74 -6.500
34 F8 75 -6.500
34 F8 76 -6.500
34 F8 77 -6.500
34 F8 78 -6.012
34 F8 79 -4.547
34 F8 80 -3.082
34 F8 81 -1.617
34 F8 82 -1.129
34 F8 83 -1.129
34 F8 84 -0.641
34 F8 85 -0.153
34 F8 86 0.336
34 F8 87 -0.153
34 F8 88 -2.106
34 F8 89 -4.059
34 F8 90 -6.012
34 F8 91 -6.012
34 F8 92 -3.571
34 F8 93 -0.153
34 F8 94 1.801
34 F8 95 0.824
34 F8 96 -2.106
34 F8 97 -6.012
34 F8 98 -7.477
34 F8 99 -6.989
34 F8 100 -4.547
34 F8 101 -2.594
34 F8 102 -2.594
34 F8 103 -5.524
34 F8 104 -9.918
34 F8 105 -12.848
34 F8 106 -14.313
34 F8 107 -12.360
34 F8 108 -8.453
34 F8 109 -4.059
34 F8 110 -1.617
34 F8 111 -1.617
34 F8 112 -3.571
34 F8 113 -6.989
34 F8 114 -8.942
34 F8 115 -8.453
34 F8 116 -5.524
34 F8 117 -1.617
34 F8 118 1.312
34 F8 119 1.801
34 F8 120 -0.153
34 F8 121 -3.082
34 F8 122 -5.524
34 F8 123 -6.500
34 F8 124 -6.500
34 F8 125 -5.524
34 F8 126 -4.059
34 F8 127 -2.106
34 F8 128 0.336
34 F8 129 2.289
34 F8 130 2.777
34 F8 131 0.824
34 F8 132 -2.106
34 F8 133 -4.547
34 F8 134 -5.035
34 F8 135 -2.594
34 F8 136 -0.153
34 F8 137 1.801
34 F8 138 1.801
34 F8 139 1.312
34 F8 140 1.312
34 F8 141 2.289
34 F8 142 2.777
34 F8 143 2.289
34 F8 144 0.336
34 F8 145 -2.594
34 F8 146 -3.571
34 F8 147 -3.571
34 F8 148 -3.082
34 F8 149 -2.106
34 F8 150 -1.129
34 F8 151 0.336
34 F8 152 3.265
34 F8 153 6.195
34 F8 154 8.636
34 F8 155 9.125
34 F8 156 8.148
34 F8 157 6.195
34 F8 158 3.754
34 F8 159 2.289
34 F8 160 0.336
34 F8 161 -0.641
34 F8 162 -1.129
34 F8 163 -0.153
34 F8 164 1.801
34 F8 165 4.242
34 F8 166 5.219
34 F8 167 5.219
34 F8 168 4.242
34 F8 169 3.265
34 F8 170 2.289
34 F8 171 1.801
34 F8 172 1.312
34 F8 173 0.336
34 F8 174 0.336
34 F8 175 1.312
34 F8 176 3.265
34 F8 177 5.707
34 F8 178 7.172
34 F8 179 7.660
34 F8 180 6.683
34 F8 181 4.730
34 F8 182 3.265
34 F8 183 2.777
34 F8 184 3.265
34 F8 185 3.754
34 F8 186 4.730
34 F8 187 5.219
34 F8 188 4.730
34 F8 189 4.242
34 F8 190 3.754
34 F8 191 3.265
34 F8 192 3.265
34 F8 193 2.777
34 F8 194 2.777
34 F8 195 2.777
34 F8 196 3.265
34 F8 197 2.777
34 F8 198 1.801
34 F8 199 0.336
34 F8 200 -1.129
34 F8 201 -1.617
34 F8 202 -0.641
34 F8 203 0.336
34 F8 204 2.289
34 F8 205 3.754
34 F8 206 5.219
34 F8 207 6.195
34 F8 208 6.683
34 F8 209 6.683
34 F8 210 6.195
34 F8 211 4.242
34 F8 212 2.289
34 F8 213 1.312
34 F8 214 0.336
34 F8 215 0.336
34 F8 216 1.801
34 F8 217 3.265
34 F8 218 4.242
34 F8 219 4.242
34 F8 220 3.754
34 F8 221 2.777
34 F8 222 2.777
34 F8 223 3.265
34 F8 224 5.707
34 F8 225 7.660
34 F8 226 9.613
34 F8 227 11.078
34 F8 228 11.078
34 F8 229 11.566
34 F8 230 10.590
34 F8 231 10.101
34 F8 232 9.613
34 F8 233 9.125
34 F8 234 9.125
34 F8 235 10.101
34 F8 236 11.566
34 F8 237 12.543
34 F8 238 13.031
34 F8 239 12.054
34 F8 240 10.590
34 F8 241 9.613
34 F8 242 9.125
34 F8 243 9.125
34 F8 244 9.125
34 F8 245 7.660
34 F8 246 6.195
34 F8 247 5.219
34 F8 248 5.219
34 F8 249 6.195
34 F8 250 6.683
34 F8 251 6.195
34 F8 252 4.730
34 F8 253 2.777
34 F8 254 1.312
34 F8 255 1.312
# AF1 chan 4
34 AF1 0 -6.551
34 AF1 1 -7.039
34 AF1 2 -4.598
34 AF1 3 -0.692
34 AF1 4 3.703
34 AF1 5 6.144
34 AF1 6 6.144
34 AF1 7 4.191
34 AF1 8 1.750
34 AF1 9 -1.180
34 AF1 10 -3.133
34 AF1 11 -4.110
34 AF1 12 -3.621
34 AF1 13 -3.133
34 AF1 14 -2.157
34 AF1 15 -2.645
34 AF1 16 -3.621
34 AF1 17 -5.575
34 AF1 18 -6.551
34 AF1 19 -6.551
34 AF1 20 -4.110
34 AF1 21 -1.668
34 AF1 22 0.285
34 AF1 23 0.773
34 AF1 24 -1.180
34 AF1 25 -4.110
34 AF1 26 -6.551
34 AF1 27 -8.016
34 AF1 28 -8.504
34 AF1 29 -7.039
34 AF1 30 -4.110
34 AF1 31 -0.203
34 AF1 32 4.191
34 AF1 33 8.586
34 AF1 34 10.050
34 AF1 35 9.562
34 AF1 36 6.144
34 AF1 37 2.238
34 AF1 38 -0.203
34 AF1 39 0.285
34 AF1 40 2.726
34 AF1 41 6.144
34 AF1 42 8.097
34 AF1 43 8.097
34 AF1 44 5.168
34 AF1 45 1.261
34 AF1 46 -2.157
34 AF1 47 -4.110
34 AF1 48 -4.110
34 AF1 49 -2.157
34 AF1 50 -0.203
34 AF1 51 2.238
34 AF1 52 3.703
34 AF1 53 4.191
34 AF1 54 3.703
34 AF1 55 2.238
34 AF1 56 0.285
34 AF1 57 -0.692
34 AF1 58 -0.692
34 AF1 59 0.773
34 AF1 60 2.238
34 AF1 61 4.191
34 AF1 62 4.679
34 AF1 63 3.703
34 AF1 64 1.750
34 AF1 65 0.285
34 AF1 66 -0.692
34 AF1 67 -0.692
34 AF1 68 -0.203
34 AF1 69 0.285
34 AF1 70 -0.692
34 AF1 71 -1.180
34 AF1 72 -2.645
34 AF1 73 -3.133
34 AF1 74 -2.645
34 AF1 75 -2.157
34 AF1 76 -1.180
34 AF1 77 -1.180
34 AF1 78 -2.157
34 AF1 79 -3.133
34 AF1 80 -3.133
34 AF1 81 -2.157
34 AF1 82 -0.692
34 AF1 83 0.285
34 AF1 84 0.285
34 AF1 85 -0.203
34 AF1 86 -1.668
34 AF1 87 -2.157
34 AF1 88 -2.157
34 AF1 89 -1.180
34 AF1 90 -0.203
34 AF1 91 0.285
34 AF1 92 -0.203
34 AF1 93 -1.668
34 AF1 94 -3.133
34 AF1 95 -4.598
34 AF1 96 -4.598
34 AF1 97 -3.133
34 AF1 98 -0.692
34 AF1 99 2.238
34 AF1 100 3.215
34 AF1 101 1.750
34 AF1 102 -1.180
34 AF1 103 -4.598
34 AF1 104 -7.039
34 AF1 105 -7.039
34 AF1 106 -4.598
34 AF1 107 -1.668
34 AF1 108 0.773
34 AF1 109 1.261
34 AF1 110 0.285
34 AF1 111 -1.668
34 AF1 112 -3.621
34 AF1 113 -5.086
34 AF1 114 -4.598
34 AF1 115 -2.157
34 AF1 116 0.773
34 AF1 117 3.703
34 AF1 118 4.191
34 AF1 119 3.215
34 AF1 120 1.261
34 AF1 121 -0.203
34 AF1 122 -0.692
34 AF1 123 -0.692
34 AF1 124 0.285
34 AF1 125 1.750
34 AF1 126 2.726
34 AF1 127 3.703
34 AF1 128 4.191
34 AF1 129 3.703
34 AF1 130 1.750
34 AF1 131 -0.203
34 AF1 132 -2.157
34 AF1 133 -3.133
34 AF1 134 -2.157
34 AF1 135 -0.203
34 AF1 136 1.750
34 AF1 137 3.215
34 AF1 138 4.191
34 AF1 139 5.168
34 AF1 140 5.656
34 AF1 141 6.144
34 AF1 142 5.656
34 AF1 143 5.168
34 AF1 144 4.191
34 AF1 145 3.703
34 AF1 146 4.191
34 AF1 147 5.168
34 AF1 148 6.632
34 AF1 149 7.609
34 AF1 150 8.097
34 AF1 151 8.097
34 AF1 152 7.121
34 AF1 153 5.168
34 AF1 154 3.703
34 AF1 155 2.726
34 AF1 156 2.238
34 AF1 157 3.215
34 AF1 158 5.656
34 AF1 159 8.097
34 AF1 160 10.050
34 AF1 161 10.539
34 AF1 162 10.539
34 AF1 163 10.050
34 AF1 164 8.097
34 AF1 165 6.632
34 AF1 166 5.168
34 AF1 167 3.703
34 AF1 168 2.238
34 AF1 169 1.750
34 AF1 170 1.261
34 AF1 171 1.261
34 AF1 172 1.750
34 AF1 173 1.750
34 AF1 174 1.261
34 AF1 175 0.773
34 AF1 176 1.261
34 AF1 177 1.750
34 AF1 178 2.726
34 AF1 179 3.703
34 AF1 180 3.703
34 AF1 181 3.703
34 AF1 182 2.726
34 AF1 183 2.238
34 AF1 184 2.238
34 AF1 185 2.726
34 AF1 186 3.215
34 AF1 187 3.703
34 AF1 188 3.703
34 AF1 189 3.215
34 AF1 190 2.238
34 AF1 191 0.773
34 AF1 192 -1.180
34 AF1 193 -3.133
34 AF1 194 -5.086
34 AF1 195 -6.063
34 AF1 196 -6.551
34 AF1 197 -6.551
34 AF1 198 -6.551
34 AF1 199 -6.551
34 AF1 200 -7.039
34 AF1 201 -7.039
34 AF1 202 -7.528
34 AF1 203 -7.039
34 AF1 204 -6.063
34 AF1 205 -4.598
34 AF1 206 -2.645
34 AF1 207 -1.180
34 AF1 208 -0.692
34 AF1 209 -0.692
34 AF1 210 -1.668
34 AF1 211 -2.645
34 AF1 212 -3.621
34 AF1 213 -3.621
34 AF1 214 -3.133
34 AF1 215 -2.645
34 AF1 216 -2.157
34 AF1 217 -1.668
34 AF1 218 -1.668
34 AF1 219 -2.157
34 AF1 220 -2.157
34 AF1 221 -1.668
34 AF1 222 -0.692
34 AF1 223 0.285
34 AF1 224 0.773
34 AF1 225 1.261
34 AF1 226 1.261
34 AF1 227 0.773
34 AF1 228 0.773
34 AF1 229 0.773
34 AF1 230 0.773
34 AF1 231 1.750
34 AF1 232 3.215
34 AF1 233 4.191
34 AF1 234 4.191
34 AF1 235 2.726
34 AF1 236 0.773
34 AF1 237 -1.180
34 AF1 238 -1.180
34 AF1 239 -0.692
34 AF1 240 0.773
34 AF1 241 1.750
34 AF1 242 2.238
34 AF1 243 2.238
34 AF1 244 1.750
34 AF1 245 1.261
34 AF1 246 -0.203
34 AF1 247 -1.668
34 AF1 248 -3.133
34 AF1 249 -2.645
34 AF1 250 -1.668
34 AF1 251 0.773
34 AF1 252 2.726
34 AF1 253 3.215
34 AF1 254 3.215
34 AF1 255 2.238
# AF2 chan 5
34 AF2 0 -7.212
34 AF2 1 -7.212
34 AF2 2 -4.771
34 AF2 3 0.112
34 AF2 4 4.506
34 AF2 5 7.924
34 AF2 6 8.413
34 AF2 7 5.971
34 AF2 8 2.553
34 AF2 9 -0.865
34 AF2 10 -3.306
34 AF2 11 -3.794
34 AF2 12 -2.818
34 AF2 13 -0.865
34 AF2 14 0.600
34 AF2 15 0.112
34 AF2 16 -1.841
34 AF2 17 -4.771
34 AF2 18 -6.724
34 AF2 19 -6.236
34 AF2 20 -3.306
34 AF2 21 1.088
34 AF2 22 4.018
34 AF2 23 4.995
34 AF2 24 3.530
34 AF2 25 -0.376
34 AF2 26 -4.283
34 AF2 27 -7.212
34 AF2 28 -8.677
34 AF2 29 -7.212
34 AF2 30 -4.283
34 AF2 31 0.600
34 AF2 32 5.483
34 AF2 33 9.878
34 AF2 34 12.319
34 AF2 35 11.342
34 AF2 36 8.413
34 AF2 37 4.506
34 AF2 38 2.065
34 AF2 39 2.065
34 AF2 40 4.506
34 AF2 41 7.924
34 AF2 42 10.366
34 AF2 43 10.366
34 AF2 44 6.948
34 AF2 45 2.065
34 AF2 46 -1.841
34 AF2 47 -3.306
34 AF2 48 -2.330
34 AF2 49 0.600
34 AF2 50 3.530
34 AF2 51 5.971
34 AF2 52 7.436
34 AF2 53 7.436
34 AF2 54 6.948
34 AF2 55 5.971
34 AF2 56 4.995
34 AF2 57 4.018
34 AF2 58 4.018
34 AF2 59 4.995
34 AF2 60 5.483
34 AF2 61 6.948
34 AF2 62 7.436
34 AF2 63 6.948
34 AF2 64 5.971
34 AF2 65 4.506
34 AF2 66 3.530
34 AF2 67 3.530
34 AF2 68 3.530
34 AF2 69 3.042
34 AF2 70 2.065
34 AF2 71 1.088
34 AF2 72 1.088
34 AF2 73 1.088
34 AF2 74 1.577
34 AF2 75 2.065
34 AF2 76 2.553
34 AF2 77 2.553
34 AF2 78 2.553
34 AF2 79 2.553
34 AF2 80 3.530
34 AF2 81 4.506
34 AF2 82 4.995
34 AF2 83 4.995
34 AF2 84 4.995
34 AF2 85 4.995
34 AF2 86 4.506
34 AF2 87 4.018
34 AF2 88 4.018
34 AF2 89 4.018
34 AF2 90 4.506
34 AF2 91 5.483
34 AF2 92 5.971
34 AF2 93 5.483
34 AF2 94 4.018
34 AF2 95 1.577
34 AF2 96 -0.376
34 AF2 97 -0.865
34 AF2 98 1.088
34 AF2 99 4.506
34 AF2 100 7.924
34 AF2 101 8.901
34 AF2 102 6.460
34 AF2 103 2.065
34 AF2 104 -3.306
34 AF2 105 -6.236
34 AF2 106 -6.724
34 AF2 107 -3.306
34 AF2 108 1.088
34 AF2 109 5.971
34 AF2 110 8.901
34 AF2 111 8.901
34 AF2 112 6.460
34 AF2 113 3.042
34 AF2 114 1.088
34 AF2 115 1.088
34 AF2 116 3.042
34 AF2 117 5.971
34 AF2 118 7.436
34 AF2 119 8.413
34 AF2 120 6.948
34 AF2 121 5.483
34 AF2 122 4.506
34 AF2 123 4.018
34 AF2 124 4.018
34 AF2 125 4.995
34 AF2 126 5.971
34 AF2 127 7.436
34 AF2 128 8.413
34 AF2 129 8.413
34 AF2 130 7.436
34 AF2 131 5.971
34 AF2 132 4.506
34 AF2 133 4.018
34 AF2 134 4.506
34 AF2 135 5.971
34 AF2 136 7.436
34 AF2 137 8.413
34 AF2 138 9.389
34 AF2 139 10.366
34 AF2 140 11.342
34 AF2 141 12.807
34 AF2 142 13.295
34 AF2 143 11.831
34 AF2 144 10.366
34 AF2 145 8.413
34 AF2 146 7.924
34 AF2 147 8.901
34 AF2 148 10.366
34 AF2 149 11.831
34 AF2 150 11.831
34 AF2 151 11.831
34 AF2 152 11.342
34 AF2 153 10.854
34 AF2 154 10.854
34 AF2 155 9.878
34 AF2 156 9.878
34 AF2 157 9.878
34 AF2 158 10.366
34 AF2 159 11.342
34 AF2 160 11.831
34 AF2 161 12.319
34 AF2 162 11.831
34 AF2 163 10.854
34 AF2 164 9.878
34 AF2 165 8.901
34 AF2 166 8.413
34 AF2 167 7.436
34 AF2 168 7.436
34 AF2 169 7.436
34 AF2 170 6.948
34 AF2 171 6.460
34 AF2 172 5.971
34 AF2 173 5.483
34 AF2 174 4.995
34 AF2 175 4.995
34 AF2 176 5.483
34 AF2 177 6.460
34 AF2 178 7.436
34 AF2 179 7.924
34 AF2 180 7.924
34 AF2 181 6.948
34 AF2 182 5.971
34 AF2 183 5.483
34 AF2 184 5.483
34 AF2 185 5.971
34 AF2 186 6.948
34 AF2 187 7.924
34 AF2 188 7.924
34 AF2 189 7.924
34 AF2 190 6.948
34 AF2 191 5.483
34 AF2 192 3.042
34 AF2 193 1.577
34 AF2 194 0.112
34 AF2 195 -0.376
34 AF2 196 -0.376
34 AF2 197 -0.376
34 AF2 198 -0.865
34 AF2 199 -1.841
34 AF2 200 -2.818
34 AF2 201 -2.818
34 AF2 202 -1.841
34 AF2 203 -0.376
34 AF2 204 1.088
34 AF2 205 2.553
34 AF2 206 3.530
34 AF2 207 4.506
34 AF2 208 4.995
34 AF2 209 4.506
34 AF2 210 4.018
34 AF2 211 3.042
34 AF2 212 1.577
34 AF2 213 0.600
34 AF2 214 0.600
34 AF2 215 1.088
34 AF2 216 2.553
34 AF2 217 3.042
34 AF2 218 3.530
34 AF2 219 3.530
34 AF2 220 3.530
34 AF2 221 3.530
34 AF2 222 4.018
34 AF2 223 4.506
34 AF2 224 4.995
34 AF2 225 4.995
34 AF2 226 5.483
34 AF2 227 5.483
34 AF2 228 5.483
34 AF2 229 5.971
34 AF2 230 6.460
34 AF2 231 7.436
34 AF2 232 8.413
34 AF2 233 8.901
34 AF2 234 8.901
34 AF2 235 7.924
34 AF2 236 6.460
34 AF2 237 5.971
34 AF2 238 5.483
34 AF2 239 5.971
34 AF2 240 6.460
34 AF2 241 7.436
34 AF2 242 7.924
34 AF2 243 7.924
34 AF2 244 8.413
34 AF2 245 7.436
34 AF2 246 5.971
34 AF2 247 4.995
34 AF2 248 3.530
34 AF2 249 3.530
34 AF2 250 4.506
34 AF2 251 6.460
34 AF2 252 7.436
34 AF2 253 8.413
34 AF2 254 7.924
34 AF2 255 6.948
# FZ chan 6
34 FZ 0 -5.564
34 FZ 1 -6.541
34 FZ 2 -4.100
34 FZ 3 -0.193
34 FZ 4 3.713
34 FZ 5 6.154
34 FZ 6 6.154
34 FZ 7 4.201
34 FZ 8 1.272
34 FZ 9 -1.658
34 FZ 10 -3.611
34 FZ 11 -4.100
34 FZ 12 -3.611
34 FZ 13 -1.658
34 FZ 14 0.295
34 FZ 15 0.783
34 FZ 16 -0.193
34 FZ 17 -2.146
34 FZ 18 -4.100
34 FZ 19 -5.076
34 FZ 20 -4.100
34 FZ 21 -2.146
34 FZ 22 -0.193
34 FZ 23 0.783
34 FZ 24 -0.193
34 FZ 25 -2.146
34 FZ 26 -4.100
34 FZ 27 -5.564
34 FZ 28 -6.053
34 FZ 29 -4.588
34 FZ 30 -2.635
34 FZ 31 0.783
34 FZ 32 4.201
34 FZ 33 7.131
34 FZ 34 8.596
34 FZ 35 8.596
34 FZ 36 6.643
34 FZ 37 4.201
34 FZ 38 2.248
34 FZ 39 2.736
34 FZ 40 4.201
34 FZ 41 6.154
34 FZ 42 7.131
34 FZ 43 6.643
34 FZ 44 4.201
34 FZ 45 1.272
34 FZ 46 -1.658
34 FZ 47 -2.635
34 FZ 48 -1.658
34 FZ 49 0.295
34 FZ 50 1.760
34 FZ 51 3.713
34 FZ 52 5.178
34 FZ 53 5.666
34 FZ 54 5.178
34 FZ 55 4.201
34 FZ 56 3.225
34 FZ 57 2.248
34 FZ 58 2.248
34 FZ 59 3.225
34 FZ 60 5.178
34 FZ 61 6.643
34 FZ 62 7.619
34 FZ 63 7.131
34 FZ 64 6.154
34 FZ 65 4.690
34 FZ 66 3.713
34 FZ 67 3.713
34 FZ 68 4.201
34 FZ 69 4.201
34 FZ 70 3.225
34 FZ 71 2.248
34 FZ 72 1.272
34 FZ 73 0.783
34 FZ 74 1.272
34 FZ 75 1.760
34 FZ 76 2.248
34 FZ 77 1.760
34 FZ 78 1.272
34 FZ 79 1.272
34 FZ 80 1.760
34 FZ 81 3.225
34 FZ 82 4.201
34 FZ 83 4.690
34 FZ 84 4.201
34 FZ 85 3.713
34 FZ 86 2.736
34 FZ 87 1.760
34 FZ 88 2.248
34 FZ 89 3.225
34 FZ 90 4.690
34 FZ 91 5.666
34 FZ 92 5.666
34 FZ 93 4.201
34 FZ 94 2.248
34 FZ 95 -0.193
34 FZ 96 -1.658
34 FZ 97 -0.682
34 FZ 98 1.760
34 FZ 99 4.690
34 FZ 100 6.643
34 FZ 101 6.643
34 FZ 102 3.713
34 FZ 103 -0.193
34 FZ 104 -3.611
34 FZ 105 -5.076
34 FZ 106 -4.100
34 FZ 107 -1.658
34 FZ 108 1.760
34 FZ 109 4.201
34 FZ 110 5.178
34 FZ 111 4.201
34 FZ 112 2.248
34 FZ 113 0.295
34 FZ 114 -0.193
34 FZ 115 0.295
34 FZ 116 2.248
34 FZ 117 4.690
34 FZ 118 6.154
34 FZ 119 6.154
34 FZ 120 4.690
34 FZ 121 3.713
34 FZ 122 3.225
34 FZ 123 2.736
34 FZ 124 3.225
34 FZ 125 3.713
34 FZ 126 4.201
34 FZ 127 5.178
34 FZ 128 5.666
34 FZ 129 5.666
34 FZ 130 4.690
34 FZ 131 3.225
34 FZ 132 1.760
34 FZ 133 1.272
34 FZ 134 1.760
34 FZ 135 2.248
34 FZ 136 3.225
34 FZ 137 4.201
34 FZ 138 5.178
34 FZ 139 6.154
34 FZ 140 7.131
34 FZ 141 7.619
34 FZ 142 7.619
34 FZ 143 6.643
34 FZ 144 5.178
34 FZ 145 3.713
34 FZ 146 3.225
34 FZ 147 3.713
34 FZ 148 5.178
34 FZ 149 6.154
34 FZ 150 6.643
34 FZ 151 6.154
34 FZ 152 5.666
34 FZ 153 4.201
34 FZ 154 3.225
34 FZ 155 2.248
34 FZ 156 1.760
34 FZ 157 1.760
34 FZ 158 2.736
34 FZ 159 4.201
34 FZ 160 6.154
34 FZ 161 6.643
34 FZ 162 6.643
34 FZ 163 5.666
34 FZ 164 4.690
34 FZ 165 3.225
34 FZ 166 2.248
34 FZ 167 1.272
34 FZ 168 1.272
34 FZ 169 1.272
34 FZ 170 1.760
34 FZ 171 1.760
34 FZ 172 2.248
34 FZ 173 2.248
34 FZ 174 1.760
34 FZ 175 1.760
34 FZ 176 1.760
34 FZ 177 2.248
34 FZ 178 2.736
34 FZ 179 3.225
34 FZ 180 3.225
34 FZ 181 3.225
34 FZ 182 2.248
34 FZ 183 2.248
34 FZ 184 2.248
34 FZ 185 2.736
34 FZ 186 3.713
34 FZ 187 4.201
34 FZ 188 4.201
34 FZ 189 4.690
34 FZ 190 3.225
34 FZ 191 1.760
34 FZ 192 -0.193
34 FZ 193 -2.146
34 FZ 194 -3.611
34 FZ 195 -4.100
34 FZ 196 -4.588
34 FZ 197 -4.588
34 FZ 198 -4.588
34 FZ 199 -5.076
34 FZ 200 -5.564
34 FZ 201 -6.053
34 FZ 202 -5.564
34 FZ 203 -5.076
34 FZ 204 -4.100
34 FZ 205 -3.123
34 FZ 206 -2.146
34 FZ 207 -1.170
34 FZ 208 -0.682
34 FZ 209 -0.193
34 FZ 210 -0.682
34 FZ 211 -1.170
34 FZ 212 -2.146
34 FZ 213 -2.635
34 FZ 214 -2.146
34 FZ 215 -1.658
34 FZ 216 -1.170
34 FZ 217 -1.170
34 FZ 218 -1.170
34 FZ 219 -0.682
34 FZ 220 -0.682
34 FZ 221 0.295
34 FZ 222 1.272
34 FZ 223 1.272
34 FZ 224 1.272
34 FZ 225 1.272
34 FZ 226 1.272
34 FZ 227 0.783
34 FZ 228 0.295
34 FZ 229 0.295
34 FZ 230 0.783
34 FZ 231 1.760
34 FZ 232 3.225
34 FZ 233 4.201
34 FZ 234 3.713
34 FZ 235 2.248
34 FZ 236 0.295
34 FZ 237 -0.682
34 FZ 238 -0.682
34 FZ 239 0.295
34 FZ 240 1.760
34 FZ 241 2.736
34 FZ 242 3.713
34 FZ 243 4.201
34 FZ 244 3.713
34 FZ 245 2.736
34 FZ 246 1.272
34 FZ 247 -0.682
34 FZ 248 -2.146
34 FZ 249 -1.658
34 FZ 250 0.295
34 FZ 251 2.736
34 FZ 252 5.178
34 FZ 253 6.154
34 FZ 254 6.154
34 FZ 255 5.666
# F4 chan 7
34 F4 0 -5.920
34 F4 1 -5.432
34 F4 2 -2.991
34 F4 3 0.427
34 F4 4 3.845
34 F4 5 5.798
34 F4 6 5.798
34 F4 7 3.845
34 F4 8 0.916
34 F4 9 -1.526
34 F4 10 -3.479
34 F4 11 -3.479
34 F4 12 -2.502
34 F4 13 -0.549
34 F4 14 0.916
34 F4 15 0.916
34 F4 16 -0.549
34 F4 17 -2.014
34 F4 18 -2.991
34 F4 19 -1.526
34 F4 20 0.916
34 F4 21 3.845
34 F4 22 4.822
34 F4 23 4.333
34 F4 24 1.892
34 F4 25 -1.526
34 F4 26 -3.967
34 F4 27 -4.944
34 F4 28 -4.944
34 F4 29 -2.991
34 F4 30 -0.061
34 F4 31 2.869
34 F4 32 6.287
34 F4 33 8.240
34 F4 34 8.728
34 F4 35 8.240
34 F4 36 6.775
34 F4 37 5.310
34 F4 38 4.822
34 F4 39 5.310
34 F4 40 7.263
34 F4 41 8.728
34 F4 42 9.216
34 F4 43 6.775
34 F4 44 3.357
34 F4 45 -1.038
34 F4 46 -3.967
34 F4 47 -3.967
34 F4 48 -2.014
34 F4 49 1.404
34 F4 50 4.822
34 F4 51 6.775
34 F4 52 7.263
34 F4 53 7.751
34 F4 54 7.751
34 F4 55 7.263
34 F4 56 6.775
34 F4 57 6.287
34 F4 58 5.798
34 F4 59 4.822
34 F4 60 4.822
34 F4 61 5.310
34 F4 62 6.287
34 F4 63 6.287
34 F4 64 6.287
34 F4 65 5.798
34 F4 66 5.310
34 F4 67 4.333
34 F4 68 2.869
34 F4 69 1.892
34 F4 70 0.427
34 F4 71 -0.061
34 F4 72 -0.061
34 F4 73 0.916
34 F4 74 1.892
34 F4 75 2.869
34 F4 76 3.357
34 F4 77 3.357
34 F4 78 2.869
34 F4 79 3.357
34 F4 80 4.333
34 F4 81 5.798
34 F4 82 6.775
34 F4 83 6.775
34 F4 84 6.287
34 F4 85 5.798
34 F4 86 4.822
34 F4 87 4.333
34 F4 88 3.845
34 F4 89 4.333
34 F4 90 4.822
34 F4 91 6.287
34 F4 92 7.263
34 F4 93 7.263
34 F4 94 5.798
34 F4 95 2.380
34 F4 96 -1.526
34 F4 97 -3.479
34 F4 98 -2.502
34 F4 99 1.404
34 F4 100 5.798
34 F4 101 8.728
34 F4 102 7.751
34 F4 103 3.357
34 F4 104 -2.502
34 F4 105 -6.897
34 F4 106 -8.850
34 F4 107 -6.409
34 F4 108 -1.038
34 F4 109 3.845
34 F4 110 7.751
34 F4 111 8.728
34 F4 112 7.263
34 F4 113 4.822
34 F4 114 2.869
34 F4 115 2.380
34 F4 116 3.845
34 F4 117 5.310
34 F4 118 5.798
34 F4 119 4.333
34 F4 120 2.380
34 F4 121 0.427
34 F4 122 -0.549
34 F4 123 -0.549
34 F4 124 0.916
34 F4 125 2.380
34 F4 126 3.845
34 F4 127 5.310
34 F4 128 6.287
34 F4 129 6.287
34 F4 130 6.287
34 F4 131 5.310
34 F4 132 4.333
34 F4 133 4.333
34 F4 134 4.822
34 F4 135 6.287
34 F4 136 7.751
34 F4 137 8.240
34 F4 138 8.240
34 F4 139 8.240
34 F4 140 9.216
34 F4 141 10.681
34 F4 142 11.169
34 F4 143 10.193
34 F4 144 7.751
34 F4 145 5.310
34 F4 146 3.845
34 F4 147 3.845
34 F4 148 5.310
34 F4 149 6.775
34 F4 150 7.263
34 F4 151 7.263
34 F4 152 7.263
34 F4 153 7.263
34 F4 154 6.775
34 F4 155 6.775
34 F4 156 5.798
34 F4 157 5.310
34 F4 158 4.822
34 F4 159 4.822
34 F4 160 4.822
34 F4 161 4.822
34 F4 162 4.822
34 F4 163 4.822
34 F4 164 4.822
34 F4 165 4.822
34 F4 166 4.822
34 F4 167 4.822
34 F4 168 4.822
34 F4 169 5.310
34 F4 170 4.822
34 F4 171 4.333
34 F4 172 3.357
34 F4 173 2.380
34 F4 174 1.892
34 F4 175 1.892
34 F4 176 2.380
34 F4 177 3.845
34 F4 178 5.310
34 F4 179 6.287
34 F4 180 6.287
34 F4 181 5.798
34 F4 182 4.822
34 F4 183 3.357
34 F4 184 2.869
34 F4 185 2.869
34 F4 186 3.845
34 F4 187 4.822
34 F4 188 5.798
34 F4 189 5.798
34 F4 190 5.798
34 F4 191 4.333
34 F4 192 2.380
34 F4 193 0.916
34 F4 194 0.427
34 F4 195 0.427
34 F4 196 0.427
34 F4 197 0.427
34 F4 198 -0.061
34 F4 199 -0.549
34 F4 200 -1.526
34 F4 201 -1.038
34 F4 202 -0.549
34 F4 203 0.427
34 F4 204 1.404
34 F4 205 1.404
34 F4 206 2.380
34 F4 207 2.869
34 F4 208 3.357
34 F4 209 3.845
34 F4 210 3.357
34 F4 211 1.892
34 F4 212 0.427
34 F4 213 -0.549
34 F4 214 -1.038
34 F4 215 -0.549
34 F4 216 0.916
34 F4 217 1.404
34 F4 218 1.892
34 F4 219 2.380
34 F4 220 2.380
34 F4 221 3.357
34 F4 222 3.357
34 F4 223 3.357
34 F4 224 3.845
34 F4 225 3.845
34 F4 226 3.845
34 F4 227 4.333
34 F4 228 4.822
34 F4 229 5.310
34 F4 230 6.287
34 F4 231 7.263
34 F4 232 7.751
34 F4 233 7.751
34 F4 234 7.263
34 F4 235 6.287
34 F4 236 5.798
34 F4 237 5.310
34 F4 238 5.798
34 F4 239 6.287
34 F4 240 6.775
34 F4 241 6.775
34 F4 242 6.775
34 F4 243 6.775
34 F4 244 6.775
34 F4 245 5.798
34 F4 246 4.333
34 F4 247 3.357
34 F4 248 2.869
34 F4 249 3.845
34 F4 250 5.310
34 F4 251 6.775
34 F4 252 6.775
34 F4 253 5.798
34 F4 254 4.822
34 F4 255 4.333
# F3 chan 8
34 F3 0 -5.208
34 F3 1 -4.720
34 F3 2 -2.279
34 F3 3 0.651
34 F3 4 3.092
34 F3 5 3.092
34 F3 6 2.116
34 F3 7 0.163
34 F3 8 -0.814
34 F3 9 -0.814
34 F3 10 -1.302
34 F3 11 -1.790
34 F3 12 -2.279
34 F3 13 -2.767
34 F3 14 -3.255
34 F3 15 -3.255
34 F3 16 -3.743
34 F3 17 -3.743
34 F3 18 -4.720
34 F3 19 -4.720
34 F3 20 -4.232
34 F3 21 -3.255
34 F3 22 -2.767
34 F3 23 -3.743
34 F3 24 -4.720
34 F3 25 -6.185
34 F3 26 -7.161
34 F3 27 -7.650
34 F3 28 -6.185
34 F3 29 -4.232
34 F3 30 -1.790
34 F3 31 0.651
34 F3 32 3.092
34 F3 33 5.046
34 F3 34 6.022
34 F3 35 5.046
34 F3 36 4.069
34 F3 37 2.116
34 F3 38 0.651
34 F3 39 0.651
34 F3 40 1.628
34 F3 41 4.069
34 F3 42 5.534
34 F3 43 6.022
34 F3 44 4.069
34 F3 45 1.628
34 F3 46 -1.302
34 F3 47 -2.767
34 F3 48 -3.255
34 F3 49 -2.279
34 F3 50 -1.302
34 F3 51 0.163
34 F3 52 1.628
34 F3 53 1.628
34 F3 54 0.651
34 F3 55 -1.302
34 F3 56 -3.255
34 F3 57 -4.232
34 F3 58 -3.743
34 F3 59 -1.790
34 F3 60 0.651
34 F3 61 2.604
34 F3 62 2.604
34 F3 63 1.139
34 F3 64 -0.326
34 F3 65 -1.790
34 F3 66 -1.790
34 F3 67 -0.814
34 F3 68 -0.326
34 F3 69 -0.326
34 F3 70 -0.814
34 F3 71 -2.279
34 F3 72 -3.255
34 F3 73 -3.255
34 F3 74 -2.767
34 F3 75 -2.279
34 F3 76 -1.790
34 F3 77 -1.790
34 F3 78 -2.767
34 F3 79 -3.255
34 F3 80 -2.767
34 F3 81 -2.279
34 F3 82 -1.302
34 F3 83 -0.814
34 F3 84 -1.790
34 F3 85 -2.767
34 F3 86 -4.232
34 F3 87 -3.743
34 F3 88 -2.767
34 F3 89 -0.814
34 F3 90 0.163
34 F3 91 0.163
34 F3 92 -1.302
34 F3 93 -3.743
34 F3 94 -5.208
34 F3 95 -5.697
34 F3 96 -4.232
34 F3 97 -1.790
34 F3 98 0.163
34 F3 99 1.139
34 F3 100 0.651
34 F3 101 -1.790
34 F3 102 -4.720
34 F3 103 -6.185
34 F3 104 -5.697
34 F3 105 -3.743
34 F3 106 -0.814
34 F3 107 1.139
34 F3 108 1.628
34 F3 109 0.163
34 F3 110 -2.767
34 F3 111 -6.185
34 F3 112 -7.650
34 F3 113 -7.650
34 F3 114 -5.208
34 F3 115 -1.302
34 F3 116 3.092
34 F3 117 6.022
34 F3 118 6.510
34 F3 119 5.534
34 F3 120 3.581
34 F3 121 1.139
34 F3 122 0.163
34 F3 123 -0.326
34 F3 124 0.163
34 F3 125 0.651
34 F3 126 1.139
34 F3 127 2.116
34 F3 128 2.604
34 F3 129 2.604
34 F3 130 0.651
34 F3 131 -1.302
34 F3 132 -3.255
34 F3 133 -3.743
34 F3 134 -3.743
34 F3 135 -1.790
34 F3 136 0.163
34 F3 137 2.116
34 F3 138 3.581
34 F3 139 4.069
34 F3 140 4.557
34 F3 141 4.069
34 F3 142 3.581
34 F3 143 2.604
34 F3 144 2.116
34 F3 145 1.628
34 F3 146 1.628
34 F3 147 2.604
34 F3 148 3.581
34 F3 149 4.069
34 F3 150 5.046
34 F3 151 4.557
34 F3 152 3.581
34 F3 153 2.116
34 F3 154 1.139
34 F3 155 0.651
34 F3 156 0.651
34 F3 157 2.116
34 F3 158 4.069
34 F3 159 6.022
34 F3 160 7.975
34 F3 161 8.464
34 F3 162 7.975
34 F3 163 6.510
34 F3 164 4.557
34 F3 165 3.092
34 F3 166 1.139
34 F3 167 0.163
34 F3 168 -0.814
34 F3 169 -1.302
34 F3 170 -1.302
34 F3 171 -1.302
34 F3 172 -0.326
34 F3 173 -0.326
34 F3 174 0.163
34 F3 175 0.163
34 F3 176 0.163
34 F3 177 1.139
34 F3 178 1.628
34 F3 179 2.116
34 F3 180 2.116
34 F3 181 1.628
34 F3 182 1.139
34 F3 183 0.651
34 F3 184 0.163
34 F3 185 0.651
34 F3 186 1.139
34 F3 187 1.628
34 F3 188 1.628
34 F3 189 1.628
34 F3 190 1.139
34 F3 191 -0.326
34 F3 192 -1.790
34 F3 193 -4.232
34 F3 194 -5.697
34 F3 195 -7.161
34 F3 196 -7.650
34 F3 197 -7.650
34 F3 198 -7.650
34 F3 199 -7.650
34 F3 200 -8.138
34 F3 201 -8.138
34 F3 202 -8.138
34 F3 203 -8.138
34 F3 204 -7.650
34 F3 205 -6.673
34 F3 206 -5.208
34 F3 207 -3.743
34 F3 208 -2.767
34 F3 209 -2.767
34 F3 210 -3.743
34 F3 211 -4.232
34 F3 212 -4.720
34 F3 213 -4.232
34 F3 214 -3.255
34 F3 215 -2.767
34 F3 216 -2.767
34 F3 217 -3.743
34 F3 218 -4.720
34 F3 219 -4.720
34 F3 220 -3.743
34 F3 221 -2.767
34 F3 222 -1.790
34 F3 223 -0.814
34 F3 224 -0.326
34 F3 225 -0.326
34 F3 226 -0.814
34 F3 227 -1.302
34 F3 228 -1.790
34 F3 229 -1.790
34 F3 230 -1.790
34 F3 231 -0.326
34 F3 232 0.651
34 F3 233 1.139
34 F3 234 0.163
34 F3 235 -1.790
34 F3 236 -3.743
34 F3 237 -4.720
34 F3 238 -4.232
34 F3 239 -2.767
34 F3 240 -1.302
34 F3 241 -0.326
34 F3 242 0.163
34 F3 243 -0.814
34 F3 244 -1.302
34 F3 245 -2.767
34 F3 246 -4.232
34 F3 247 -6.185
34 F3 248 -6.673
34 F3 249 -6.673
34 F3 250 -4.720
34 F3 251 -1.790
34 F3 252 0.163
34 F3 253 1.628
34 F3 254 1.628
34 F3 255 1.139
# FC6 chan 9
34 FC6 0 -5.778
34 FC6 1 -6.755
34 FC6 2 -6.755
34 FC6 3 -4.801
34 FC6 4 -2.360
34 FC6 5 0.081
34 FC6 6 1.058
34 FC6 7 1.058
34 FC6 8 0.570
34 FC6 9 -0.407
34 FC6 10 -1.872
34 FC6 11 -3.337
34 FC6 12 -4.313
34 FC6 13 -5.290
34 FC6 14 -5.290
34 FC6 15 -5.290
34 FC6 16 -4.313
34 FC6 17 -3.825
34 FC6 18 -2.848
34 FC6 19 -0.895
34 FC6 20 0.570
34 FC6 21 1.546
34 FC6 22 1.058
34 FC6 23 -1.383
34 FC6 24 -4.313
34 FC6 25 -6.266
34 FC6 26 -6.755
34 FC6 27 -5.290
34 FC6 28 -3.337
34 FC6 29 -1.872
34 FC6 30 -0.407
34 FC6 31 0.570
34 FC6 32 0.570
34 FC6 33 1.058
34 FC6 34 1.546
34 FC6 35 2.523
34 FC6 36 3.499
34 FC6 37 4.476
34 FC6 38 4.964
34 FC6 39 4.476
34 FC6 40 3.011
34 FC6 41 1.546
34 FC6 42 -0.407
34 FC6 43 -2.360
34 FC6 44 -3.825
34 FC6 45 -5.778
34 FC6 46 -7.243
34 FC6 47 -7.731
34 FC6 48 -6.755
34 FC6 49 -3.825
34 FC6 50 -0.895
34 FC6 51 2.035
34 FC6 52 3.988
34 FC6 53 3.988
34 FC6 54 3.011
34 FC6 55 2.523
34 FC6 56 2.523
34 FC6 57 3.011
34 FC6 58 3.499
34 FC6 59 3.499
34 FC6 60 2.035
34 FC6 61 0.570
34 FC6 62 0.570
34 FC6 63 1.546
34 FC6 64 3.011
34 FC6 65 3.499
34 FC6 66 2.035
34 FC6 67 -1.383
34 FC6 68 -4.313
34 FC6 69 -5.778
34 FC6 70 -5.290
34 FC6 71 -3.337
34 FC6 72 -2.360
34 FC6 73 -2.360
34 FC6 74 -3.825
34 FC6 75 -4.801
34 FC6 76 -4.313
34 FC6 77 -3.337
34 FC6 78 -1.383
34 FC6 79 0.081
34 FC6 80 0.570
34 FC6 81 0.570
34 FC6 82 0.081
34 FC6 83 0.570
34 FC6 84 1.058
34 FC6 85 1.546
34 FC6 86 1.058
34 FC6 87 -0.407
34 FC6 88 -1.872
34 FC6 89 -2.360
34 FC6 90 -0.895
34 FC6 91 1.058
34 FC6 92 3.499
34 FC6 93 4.476
34 FC6 94 3.499
34 FC6 95 0.570
34 FC6 96 -3.337
34 FC6 97 -6.755
34 FC6 98 -7.731
34 FC6 99 -5.778
34 FC6 100 -1.872
34 FC6 101 1.058
34 FC6 102 2.035
34 FC6 103 -0.407
34 FC6 104 -5.290
34 FC6 105 -9.684
34 FC6 106 -11.637
34 FC6 107 -10.173
34 FC6 108 -6.266
34 FC6 109 -1.383
34 FC6 110 2.523
34 FC6 111 3.011
34 FC6 112 1.546
34 FC6 113 -1.872
34 FC6 114 -4.801
34 FC6 115 -5.778
34 FC6 116 -4.313
34 FC6 117 -1.872
34 FC6 118 0.081
34 FC6 119 -0.407
34 FC6 120 -2.360
34 FC6 121 -5.778
34 FC6 122 -7.731
34 FC6 123 -7.731
34 FC6 124 -6.266
34 FC6 125 -4.801
34 FC6 126 -3.337
34 FC6 127 -3.337
34 FC6 128 -3.337
34 FC6 129 -3.337
34 FC6 130 -3.337
34 FC6 131 -3.337
34 FC6 132 -2.848
34 FC6 133 -1.383
34 FC6 134 -0.407
34 FC6 135 0.570
34 FC6 136 1.058
34 FC6 137 0.570
34 FC6 138 0.570
34 FC6 139 1.058
34 FC6 140 2.035
34 FC6 141 3.011
34 FC6 142 3.011
34 FC6 143 1.546
34 FC6 144 -0.407
34 FC6 145 -2.360
34 FC6 146 -3.337
34 FC6 147 -3.337
34 FC6 148 -3.337
34 FC6 149 -2.848
34 FC6 150 -2.360
34 FC6 151 -0.895
34 FC6 152 0.570
34 FC6 153 1.058
34 FC6 154 1.546
34 FC6 155 0.570
34 FC6 156 -0.407
34 FC6 157 -1.383
34 FC6 158 -2.360
34 FC6 159 -3.825
34 FC6 160 -5.290
34 FC6 161 -6.266
34 FC6 162 -6.266
34 FC6 163 -4.801
34 FC6 164 -2.360
34 FC6 165 0.570
34 FC6 166 2.035
34 FC6 167 2.523
34 FC6 168 2.035
34 FC6 169 1.546
34 FC6 170 0.081
34 FC6 171 -1.383
34 FC6 172 -2.848
34 FC6 173 -5.290
34 FC6 174 -6.266
34 FC6 175 -6.755
34 FC6 176 -5.290
34 FC6 177 -2.848
34 FC6 178 -0.407
34 FC6 179 1.058
34 FC6 180 1.058
34 FC6 181 0.081
34 FC6 182 -2.360
34 FC6 183 -3.825
34 FC6 184 -5.290
34 FC6 185 -5.290
34 FC6 186 -4.313
34 FC6 187 -3.337
34 FC6 188 -2.360
34 FC6 189 -1.872
34 FC6 190 -2.360
34 FC6 191 -1.872
34 FC6 192 -1.872
34 FC6 193 -1.383
34 FC6 194 -0.895
34 FC6 195 -0.895
34 FC6 196 -0.895
34 FC6 197 -1.872
34 FC6 198 -2.848
34 FC6 199 -3.825
34 FC6 200 -4.313
34 FC6 201 -4.313
34 FC6 202 -3.825
34 FC6 203 -3.337
34 FC6 204 -3.825
34 FC6 205 -4.801
34 FC6 206 -5.290
34 FC6 207 -5.778
34 FC6 208 -5.778
34 FC6 209 -4.801
34 FC6 210 -4.801
34 FC6 211 -5.778
34 FC6 212 -7.243
34 FC6 213 -8.708
34 FC6 214 -8.708
34 FC6 215 -8.708
34 FC6 216 -7.731
34 FC6 217 -6.755
34 FC6 218 -6.266
34 FC6 219 -5.778
34 FC6 220 -4.801
34 FC6 221 -3.825
34 FC6 222 -3.825
34 FC6 223 -4.313
34 FC6 224 -4.313
34 FC6 225 -3.825
34 FC6 226 -2.848
34 FC6 227 -1.383
34 FC6 228 0.081
34 FC6 229 0.570
34 FC6 230 0.570
34 FC6 231 0.081
34 FC6 232 0.081
34 FC6 233 0.081
34 FC6 234 0.570
34 FC6 235 0.570
34 FC6 236 0.570
34 FC6 237 0.570
34 FC6 238 0.081
34 FC6 239 0.081
34 FC6 240 0.081
34 FC6 241 0.081
34 FC6 242 -0.407
34 FC6 243 -1.383
34 FC6 244 -2.360
34 FC6 245 -3.337
34 FC6 246 -4.801
34 FC6 247 -4.801
34 FC6 248 -4.313
34 FC6 249 -3.337
34 FC6 250 -2.848
34 FC6 251 -3.337
34 FC6 252 -4.313
34 FC6 253 -6.266
34 FC6 254 -7.243
34 FC6 255 -7.243
# FC5 chan 10
34 FC5 0 0.071
34 FC5 1 0.559
34 FC5 2 1.048
34 FC5 3 1.536
34 FC5 4 1.048
34 FC5 5 0.071
34 FC5 6 -0.417
34 FC5 7 0.559
34 FC5 8 3.001
34 FC5 9 5.931
34 FC5 10 7.884
34 FC5 11 6.907
34 FC5 12 3.489
34 FC5 13 -0.905
34 FC5 14 -4.323
34 FC5 15 -5.300
34 FC5 16 -4.812
34 FC5 17 -2.858
34 FC5 18 -1.394
34 FC5 19 -0.905
34 FC5 20 -0.905
34 FC5 21 -1.394
34 FC5 22 -2.858
34 FC5 23 -3.835
34 FC5 24 -5.300
34 FC5 25 -6.276
34 FC5 26 -6.765
34 FC5 27 -5.788
34 FC5 28 -3.835
34 FC5 29 -1.394
34 FC5 30 1.536
34 FC5 31 3.977
34 FC5 32 5.442
34 FC5 33 6.419
34 FC5 34 6.907
34 FC5 35 6.907
34 FC5 36 6.419
34 FC5 37 4.954
34 FC5 38 3.977
34 FC5 39 3.977
34 FC5 40 4.466
34 FC5 41 6.419
34 FC5 42 8.372
34 FC5 43 8.860
34 FC5 44 8.372
34 FC5 45 5.931
34 FC5 46 3.001
34 FC5 47 1.048
34 FC5 48 0.071
34 FC5 49 -0.417
34 FC5 50 0.071
34 FC5 51 0.071
34 FC5 52 0.071
34 FC5 53 -0.417
34 FC5 54 -0.905
34 FC5 55 -2.370
34 FC5 56 -3.835
34 FC5 57 -3.835
34 FC5 58 -3.347
34 FC5 59 -1.394
34 FC5 60 0.559
34 FC5 61 2.024
34 FC5 62 2.513
34 FC5 63 2.024
34 FC5 64 1.048
34 FC5 65 0.559
34 FC5 66 0.559
34 FC5 67 1.048
34 FC5 68 1.536
34 FC5 69 2.513
34 FC5 70 3.001
34 FC5 71 2.513
34 FC5 72 2.513
34 FC5 73 2.024
34 FC5 74 2.024
34 FC5 75 1.536
34 FC5 76 1.536
34 FC5 77 1.048
34 FC5 78 0.071
34 FC5 79 0.071
34 FC5 80 0.559
34 FC5 81 1.048
34 FC5 82 2.024
34 FC5 83 1.536
34 FC5 84 1.048
34 FC5 85 0.559
34 FC5 86 0.559
34 FC5 87 1.536
34 FC5 88 2.513
34 FC5 89 3.001
34 FC5 90 2.513
34 FC5 91 1.048
34 FC5 92 0.071
34 FC5 93 0.071
34 FC5 94 1.048
34 FC5 95 3.001
34 FC5 96 4.954
34 FC5 97 5.931
34 FC5 98 5.442
34 FC5 99 3.489
34 FC5 100 0.559
34 FC5 101 -1.882
34 FC5 102 -2.370
34 FC5 103 -0.905
34 FC5 104 2.024
34 FC5 105 4.954
34 FC5 106 6.419
34 FC5 107 6.419
34 FC5 108 4.466
34 FC5 109 1.536
34 FC5 110 -0.905
34 FC5 111 -3.347
34 FC5 112 -4.812
34 FC5 113 -4.812
34 FC5 114 -3.347
34 FC5 115 -0.905
34 FC5 116 1.048
34 FC5 117 3.001
34 FC5 118 3.001
34 FC5 119 2.513
34 FC5 120 1.536
34 FC5 121 1.048
34 FC5 122 1.048
34 FC5 123 1.048
34 FC5 124 1.536
34 FC5 125 2.024
34 FC5 126 3.001
34 FC5 127 3.977
34 FC5 128 4.954
34 FC5 129 4.954
34 FC5 130 3.977
34 FC5 131 1.536
34 FC5 132 -0.417
34 FC5 133 -2.370
34 FC5 134 -2.858
34 FC5 135 -2.858
34 FC5 136 -1.882
34 FC5 137 -1.394
34 FC5 138 -0.905
34 FC5 139 -0.905
34 FC5 140 -0.905
34 FC5 141 -0.905
34 FC5 142 -0.417
34 FC5 143 0.559
34 FC5 144 1.536
34 FC5 145 2.024
34 FC5 146 2.024
34 FC5 147 2.024
34 FC5 148 1.048
34 FC5 149 0.071
34 FC5 150 -0.417
34 FC5 151 -0.417
34 FC5 152 -0.417
34 FC5 153 -0.417
34 FC5 154 0.559
34 FC5 155 2.024
34 FC5 156 4.466
34 FC5 157 7.395
34 FC5 158 9.837
34 FC5 159 10.813
34 FC5 160 10.813
34 FC5 161 9.837
34 FC5 162 8.372
34 FC5 163 6.419
34 FC5 164 4.954
34 FC5 165 3.489
34 FC5 166 2.024
34 FC5 167 -0.417
34 FC5 168 -2.370
34 FC5 169 -3.835
34 FC5 170 -4.323
34 FC5 171 -3.347
34 FC5 172 -2.858
34 FC5 173 -1.882
34 FC5 174 -1.882
34 FC5 175 -2.858
34 FC5 176 -3.347
34 FC5 177 -2.370
34 FC5 178 -0.905
34 FC5 179 0.559
34 FC5 180 1.536
34 FC5 181 1.536
34 FC5 182 0.559
34 FC5 183 -0.417
34 FC5 184 -0.417
34 FC5 185 0.071
34 FC5 186 1.048
34 FC5 187 2.024
34 FC5 188 2.513
34 FC5 189 2.024
34 FC5 190 1.048
34 FC5 191 -0.417
34 FC5 192 -1.394
34 FC5 193 -2.858
34 FC5 194 -4.323
34 FC5 195 -5.300
34 FC5 196 -5.300
34 FC5 197 -4.812
34 FC5 198 -4.323
34 FC5 199 -2.858
34 FC5 200 -1.394
34 FC5 201 -0.905
34 FC5 202 -0.905
34 FC5 203 -1.394
34 FC5 204 -1.882
34 FC5 205 -2.370
34 FC5 206 -1.882
34 FC5 207 -0.905
34 FC5 208 -0.417
34 FC5 209 0.071
34 FC5 210 0.071
34 FC5 211 0.559
34 FC5 212 0.559
34 FC5 213 0.559
34 FC5 214 0.071
34 FC5 215 -0.905
34 FC5 216 -1.882
34 FC5 217 -2.858
34 FC5 218 -2.858
34 FC5 219 -1.882
34 FC5 220 -0.905
34 FC5 221 0.071
34 FC5 222 0.559
34 FC5 223 0.559
34 FC5 224 0.559
34 FC5 225 1.048
34 FC5 226 2.024
34 FC5 227 3.001
34 FC5 228 3.977
34 FC5 229 3.977
34 FC5 230 4.466
34 FC5 231 4.954
34 FC5 232 5.931
34 FC5 233 6.907
34 FC5 234 6.907
34 FC5 235 5.442
34 FC5 236 3.001
34 FC5 237 1.048
34 FC5 238 -0.417
34 FC5 239 -0.417
34 FC5 240 0.559
34 FC5 241 2.024
34 FC5 242 2.513
34 FC5 243 2.024
34 FC5 244 1.048
34 FC5 245 -0.905
34 FC5 246 -2.370
34 FC5 247 -2.858
34 FC5 248 -2.370
34 FC5 249 -1.394
34 FC5 250 0.071
34 FC5 251 1.048
34 FC5 252 2.024
34 FC5 253 2.513
34 FC5 254 3.001
34 FC5 255 3.001
# FC2 chan 11
34 FC2 0 -4.740
34 FC2 1 -4.252
34 FC2 2 -2.787
34 FC2 3 -0.346
34 FC2 4 1.607
34 FC2 5 2.584
34 FC2 6 2.096
34 FC2 7 0.631
34 FC2 8 -1.322
34 FC2 9 -2.787
34 FC2 10 -4.252
34 FC2 11 -4.252
34 FC2 12 -2.787
34 FC2 13 -1.322
34 FC2 14 0.631
34 FC2 15 1.119
34 FC2 16 0.631
34 FC2 17 -0.834
34 FC2 18 -1.322
34 FC2 19 -1.322
34 FC2 20 -0.346
34 FC2 21 0.631
34 FC2 22 1.119
34 FC2 23 0.631
34 FC2 24 -0.346
34 FC2 25 -1.322
34 FC2 26 -1.811
34 FC2 27 -1.322
34 FC2 28 -0.346
34 FC2 29 0.631
34 FC2 30 2.096
34 FC2 31 3.072
34 FC2 32 4.049
34 FC2 33 4.049
34 FC2 34 4.049
34 FC2 35 3.072
34 FC2 36 2.584
34 FC2 37 2.584
34 FC2 38 3.072
34 FC2 39 3.560
34 FC2 40 4.049
34 FC2 41 4.049
34 FC2 42 3.560
34 FC2 43 2.584
34 FC2 44 0.631
34 FC2 45 -1.322
34 FC2 46 -2.299
34 FC2 47 -1.811
34 FC2 48 -0.834
34 FC2 49 1.119
34 FC2 50 2.584
34 FC2 51 3.560
34 FC2 52 4.049
34 FC2 53 4.049
34 FC2 54 4.049
34 FC2 55 4.049
34 FC2 56 4.049
34 FC2 57 4.049
34 FC2 58 3.560
34 FC2 59 3.560
34 FC2 60 3.560
34 FC2 61 4.049
34 FC2 62 4.537
34 FC2 63 4.537
34 FC2 64 4.537
34 FC2 65 4.537
34 FC2 66 4.049
34 FC2 67 3.072
34 FC2 68 2.584
34 FC2 69 1.607
34 FC2 70 1.119
34 FC2 71 0.631
34 FC2 72 0.631
34 FC2 73 0.631
34 FC2 74 1.119
34 FC2 75 1.119
34 FC2 76 1.607
34 FC2 77 2.096
34 FC2 78 2.096
34 FC2 79 2.584
34 FC2 80 3.072
34 FC2 81 3.560
34 FC2 82 4.049
34 FC2 83 4.537
34 FC2 84 4.537
34 FC2 85 4.537
34 FC2 86 3.560
34 FC2 87 3.072
34 FC2 88 2.584
34 FC2 89 3.072
34 FC2 90 4.049
34 FC2 91 5.025
34 FC2 92 5.514
34 FC2 93 5.025
34 FC2 94 3.560
34 FC2 95 1.607
34 FC2 96 0.142
34 FC2 97 -0.834
34 FC2 98 0.142
34 FC2 99 2.096
34 FC2 100 4.049
34 FC2 101 5.514
34 FC2 102 5.025
34 FC2 103 3.072
34 FC2 104 -0.346
34 FC2 105 -2.787
34 FC2 106 -3.764
34 FC2 107 -1.811
34 FC2 108 0.142
34 FC2 109 3.072
34 FC2 110 4.537
34 FC2 111 5.025
34 FC2 112 4.537
34 FC2 113 3.560
34 FC2 114 3.072
34 FC2 115 2.584
34 FC2 116 2.584
34 FC2 117 3.072
34 FC2 118 3.560
34 FC2 119 3.072
34 FC2 120 3.072
34 FC2 121 2.096
34 FC2 122 2.096
34 FC2 123 2.096
34 FC2 124 2.096
34 FC2 125 2.096
34 FC2 126 2.096
34 FC2 127 2.096
34 FC2 128 2.584
34 FC2 129 2.584
34 FC2 130 3.072
34 FC2 131 3.560
34 FC2 132 4.049
34 FC2 133 4.049
34 FC2 134 3.560
34 FC2 135 3.560
34 FC2 136 3.560
34 FC2 137 3.072
34 FC2 138 3.560
34 FC2 139 4.049
34 FC2 140 5.025
34 FC2 141 5.514
34 FC2 142 6.002
34 FC2 143 5.514
34 FC2 144 4.049
34 FC2 145 3.072
34 FC2 146 2.096
34 FC2 147 2.096
34 FC2 148 2.584
34 FC2 149 3.560
34 FC2 150 4.049
34 FC2 151 4.049
34 FC2 152 4.049
34 FC2 153 3.560
34 FC2 154 3.072
34 FC2 155 2.584
34 FC2 156 1.607
34 FC2 157 0.631
34 FC2 158 0.631
34 FC2 159 1.119
34 FC2 160 1.607
34 FC2 161 3.072
34 FC2 162 3.560
34 FC2 163 3.560
34 FC2 164 3.072
34 FC2 165 2.584
34 FC2 166 2.584
34 FC2 167 2.584
34 FC2 168 3.072
34 FC2 169 3.072
34 FC2 170 3.072
34 FC2 171 2.584
34 FC2 172 2.096
34 FC2 173 1.607
34 FC2 174 1.119
34 FC2 175 1.119
34 FC2 176 1.119
34 FC2 177 1.607
34 FC2 178 2.096
34 FC2 179 2.096
34 FC2 180 2.584
34 FC2 181 2.584
34 FC2 182 2.096
34 FC2 183 1.607
34 FC2 184 1.607
34 FC2 185 1.607
34 FC2 186 2.096
34 FC2 187 3.072
34 FC2 188 3.072
34 FC2 189 3.072
34 FC2 190 2.584
34 FC2 191 2.096
34 FC2 192 1.119
34 FC2 193 0.142
34 FC2 194 -0.346
34 FC2 195 -0.834
34 FC2 196 -0.346
34 FC2 197 -0.346
34 FC2 198 -0.346
34 FC2 199 -0.346
34 FC2 200 -1.322
34 FC2 201 -1.322
34 FC2 202 -1.322
34 FC2 203 -0.834
34 FC2 204 -0.346
34 FC2 205 0.142
34 FC2 206 0.142
34 FC2 207 0.631
34 FC2 208 1.119
34 FC2 209 1.607
34 FC2 210 1.607
34 FC2 211 1.119
34 FC2 212 0.142
34 FC2 213 -0.346
34 FC2 214 -0.346
34 FC2 215 0.142
34 FC2 216 0.631
34 FC2 217 1.119
34 FC2 218 1.119
34 FC2 219 1.119
34 FC2 220 1.607
34 FC2 221 2.096
34 FC2 222 2.584
34 FC2 223 3.072
34 FC2 224 2.584
34 FC2 225 2.096
34 FC2 226 1.607
34 FC2 227 1.607
34 FC2 228 1.607
34 FC2 229 2.096
34 FC2 230 2.584
34 FC2 231 3.072
34 FC2 232 3.560
34 FC2 233 4.049
34 FC2 234 4.049
34 FC2 235 3.560
34 FC2 236 3.072
34 FC2 237 3.072
34 FC2 238 3.072
34 FC2 239 3.560
34 FC2 240 3.560
34 FC2 241 4.049
34 FC2 242 4.049
34 FC2 243 3.560
34 FC2 244 3.560
34 FC2 245 3.072
34 FC2 246 2.584
34 FC2 247 2.096
34 FC2 248 2.096
34 FC2 249 3.072
34 FC2 250 4.049
34 FC2 251 5.025
34 FC2 252 5.025
34 FC2 253 4.537
34 FC2 254 4.537
34 FC2 255 4.049
# FC1 chan 12
34 FC1 0 -1.801
34 FC1 1 -1.801
34 FC1 2 -0.336
34 FC1 3 0.641
34 FC1 4 1.617
34 FC1 5 1.617
34 FC1 6 1.129
34 FC1 7 -0.336
34 FC1 8 -0.824
34 FC1 9 -1.801
34 FC1 10 -2.289
34 FC1 11 -2.289
34 FC1 12 -2.289
34 FC1 13 -1.801
34 FC1 14 -0.824
34 FC1 15 0.153
34 FC1 16 0.153
34 FC1 17 -0.336
34 FC1 18 -1.312
34 FC1 19 -2.777
34 FC1 20 -3.265
34 FC1 21 -2.777
34 FC1 22 -2.289
34 FC1 23 -1.801
34 FC1 24 -1.801
34 FC1 25 -2.289
34 FC1 26 -2.777
34 FC1 27 -2.777
34 FC1 28 -2.777
34 FC1 29 -2.289
34 FC1 30 -1.312
34 FC1 31 -0.336
34 FC1 32 1.617
34 FC1 33 3.571
34 FC1 34 5.035
34 FC1 35 5.524
34 FC1 36 5.524
34 FC1 37 4.059
34 FC1 38 3.082
34 FC1 39 2.106
34 FC1 40 2.594
34 FC1 41 4.059
34 FC1 42 5.035
34 FC1 43 6.012
34 FC1 44 5.524
34 FC1 45 4.059
34 FC1 46 3.082
34 FC1 47 1.617
34 FC1 48 1.129
34 FC1 49 1.129
34 FC1 50 1.617
34 FC1 51 2.106
34 FC1 52 3.082
34 FC1 53 3.082
34 FC1 54 2.594
34 FC1 55 1.617
34 FC1 56 1.129
34 FC1 57 0.641
34 FC1 58 0.641
34 FC1 59 2.106
34 FC1 60 3.571
34 FC1 61 5.035
34 FC1 62 5.524
34 FC1 63 5.035
34 FC1 64 4.059
34 FC1 65 3.082
34 FC1 66 2.594
34 FC1 67 3.571
34 FC1 68 4.547
34 FC1 69 4.547
34 FC1 70 4.547
34 FC1 71 3.571
34 FC1 72 2.594
34 FC1 73 2.106
34 FC1 74 2.594
34 FC1 75 3.082
34 FC1 76 3.082
34 FC1 77 3.082
34 FC1 78 2.106
34 FC1 79 2.106
34 FC1 80 2.594
34 FC1 81 3.571
34 FC1 82 4.547
34 FC1 83 5.035
34 FC1 84 4.059
34 FC1 85 3.082
34 FC1 86 2.594
34 FC1 87 2.594
34 FC1 88 4.547
34 FC1 89 6.500
34 FC1 90 7.477
34 FC1 91 7.477
34 FC1 92 6.012
34 FC1 93 4.547
34 FC1 94 3.082
34 FC1 95 3.082
34 FC1 96 3.571
34 FC1 97 5.035
34 FC1 98 6.500
34 FC1 99 7.477
34 FC1 100 6.989
34 FC1 101 5.524
34 FC1 102 4.059
34 FC1 103 2.594
34 FC1 104 2.594
34 FC1 105 3.571
34 FC1 106 4.547
34 FC1 107 6.012
34 FC1 108 6.012
34 FC1 109 5.524
34 FC1 110 4.059
34 FC1 111 3.082
34 FC1 112 2.106
34 FC1 113 2.106
34 FC1 114 2.594
34 FC1 115 4.547
34 FC1 116 6.500
34 FC1 117 7.965
34 FC1 118 8.942
34 FC1 119 8.453
34 FC1 120 7.477
34 FC1 121 6.012
34 FC1 122 5.524
34 FC1 123 5.035
34 FC1 124 5.035
34 FC1 125 5.524
34 FC1 126 6.012
34 FC1 127 6.989
34 FC1 128 7.477
34 FC1 129 6.989
34 FC1 130 6.012
34 FC1 131 5.035
34 FC1 132 3.082
34 FC1 133 1.617
34 FC1 134 1.617
34 FC1 135 1.617
34 FC1 136 3.082
34 FC1 137 4.059
34 FC1 138 4.547
34 FC1 139 5.035
34 FC1 140 5.035
34 FC1 141 4.547
34 FC1 142 4.547
34 FC1 143 4.547
34 FC1 144 4.547
34 FC1 145 4.547
34 FC1 146 5.035
34 FC1 147 5.524
34 FC1 148 5.524
34 FC1 149 6.012
34 FC1 150 6.500
34 FC1 151 6.012
34 FC1 152 6.012
34 FC1 153 5.524
34 FC1 154 4.547
34 FC1 155 4.547
34 FC1 156 4.059
34 FC1 157 4.547
34 FC1 158 5.524
34 FC1 159 6.500
34 FC1 160 6.989
34 FC1 161 7.477
34 FC1 162 7.477
34 FC1 163 6.500
34 FC1 164 5.035
34 FC1 165 3.571
34 FC1 166 3.082
34 FC1 167 2.594
34 FC1 168 2.594
34 FC1 169 3.082
34 FC1 170 3.571
34 FC1 171 4.059
34 FC1 172 4.059
34 FC1 173 4.547
34 FC1 174 4.547
34 FC1 175 4.547
34 FC1 176 5.524
34 FC1 177 5.035
34 FC1 178 5.524
34 FC1 179 5.524
34 FC1 180 5.524
34 FC1 181 5.524
34 FC1 182 4.547
34 FC1 183 4.059
34 FC1 184 4.059
34 FC1 185 4.059
34 FC1 186 4.547
34 FC1 187 5.035
34 FC1 188 5.524
34 FC1 189 5.524
34 FC1 190 5.035
34 FC1 191 4.059
34 FC1 192 2.594
34 FC1 193 1.129
34 FC1 194 0.641
34 FC1 195 -0.336
34 FC1 196 -0.336
34 FC1 197 -0.336
34 FC1 198 -0.336
34 FC1 199 -0.336
34 FC1 200 -0.336
34 FC1 201 -0.336
34 FC1 202 -0.336
34 FC1 203 -0.336
34 FC1 204 -0.336
34 FC1 205 -0.336
34 FC1 206 0.641
34 FC1 207 1.617
34 FC1 208 2.594
34 FC1 209 3.082
34 FC1 210 2.594
34 FC1 211 2.594
34 FC1 212 2.594
34 FC1 213 2.594
34 FC1 214 3.082
34 FC1 215 3.571
34 FC1 216 3.571
34 FC1 217 3.082
34 FC1 218 2.594
34 FC1 219 2.594
34 FC1 220 3.082
34 FC1 221 4.059
34 FC1 222 4.547
34 FC1 223 5.035
34 FC1 224 5.035
34 FC1 225 4.547
34 FC1 226 4.059
34 FC1 227 3.082
34 FC1 228 2.106
34 FC1 229 2.106
34 FC1 230 2.594
34 FC1 231 4.059
34 FC1 232 5.524
34 FC1 233 6.989
34 FC1 234 6.989
34 FC1 235 5.035
34 FC1 236 3.571
34 FC1 237 2.106
34 FC1 238 1.617
34 FC1 239 2.594
34 FC1 240 3.571
34 FC1 241 5.035
34 FC1 242 6.012
34 FC1 243 6.500
34 FC1 244 6.500
34 FC1 245 6.012
34 FC1 246 4.547
34 FC1 247 2.594
34 FC1 248 1.129
34 FC1 249 1.129
34 FC1 250 2.106
34 FC1 251 4.059
34 FC1 252 6.500
34 FC1 253 7.965
34 FC1 254 8.453
34 FC1 255 8.453
# T8 chan 13
34 T8 0 -2.808
34 T8 1 -3.784
34 T8 2 -4.272
34 T8 3 -2.319
34 T8 4 1.587
34 T8 5 5.493
34 T8 6 9.399
34 T8 7 10.376
34 T8 8 9.399
34 T8 9 7.446
34 T8 10 5.493
34 T8 11 4.028
34 T8 12 2.563
34 T8 13 1.099
34 T8 14 -1.343
34 T8 15 -4.272
34 T8 16 -6.714
34 T8 17 -6.714
34 T8 18 -4.761
34 T8 19 -1.831
34 T8 20 1.099
34 T8 21 2.075
34 T8 22 1.099
34 T8 23 -0.854
34 T8 24 -2.808
34 T8 25 -3.784
34 T8 26 -3.784
34 T8 27 -2.808
34 T8 28 -1.343
34 T8 29 0.122
34 T8 30 2.075
34 T8 31 2.563
34 T8 32 3.052
34 T8 33 2.563
34 T8 34 2.075
34 T8 35 2.075
34 T8 36 2.075
34 T8 37 2.563
34 T8 38 2.563
34 T8 39 1.587
34 T8 40 0.122
34 T8 41 -1.831
34 T8 42 -3.296
34 T8 43 -4.761
34 T8 44 -6.714
34 T8 45 -8.667
34 T8 46 -10.132
34 T8 47 -10.132
34 T8 48 -8.179
34 T8 49 -4.761
34 T8 50 -1.831
34 T8 51 -0.366
34 T8 52 -0.366
34 T8 53 -1.831
34 T8 54 -1.831
34 T8 55 -0.854
34 T8 56 0.122
34 T8 57 2.075
34 T8 58 1.587
34 T8 59 -0.366
34 T8 60 -2.808
34 T8 61 -4.272
34 T8 62 -3.784
34 T8 63 -2.319
34 T8 64 -1.343
34 T8 65 -0.854
34 T8 66 -1.831
34 T8 67 -3.296
34 T8 68 -4.761
34 T8 69 -6.226
34 T8 70 -7.202
34 T8 71 -7.202
34 T8 72 -6.714
34 T8 73 -5.737
34 T8 74 -5.737
34 T8 75 -5.249
34 T8 76 -4.761
34 T8 77 -4.272
34 T8 78 -3.296
34 T8 79 -1.831
34 T8 80 -1.343
34 T8 81 -1.831
34 T8 82 -3.784
34 T8 83 -4.761
34 T8 84 -4.761
34 T8 85 -3.296
34 T8 86 -0.854
34 T8 87 0.122
34 T8 88 -0.366
34 T8 89 -2.319
34 T8 90 -4.272
34 T8 91 -4.272
34 T8 92 -2.319
34 T8 93 0.610
34 T8 94 3.052
34 T8 95 3.052
34 T8 96 0.610
34 T8 97 -2.808
34 T8 98 -5.737
34 T8 99 -6.714
34 T8 100 -5.737
34 T8 101 -2.808
34 T8 102 0.122
34 T8 103 1.099
34 T8 104 0.122
34 T8 105 -2.319
34 T8 106 -5.249
34 T8 107 -7.202
34 T8 108 -6.714
34 T8 109 -4.272
34 T8 110 -1.831
34 T8 111 -0.366
34 T8 112 -0.366
34 T8 113 -2.808
34 T8 114 -4.761
34 T8 115 -5.737
34 T8 116 -4.761
34 T8 117 -1.831
34 T8 118 0.610
34 T8 119 1.587
34 T8 120 0.610
34 T8 121 -1.831
34 T8 122 -3.296
34 T8 123 -3.784
34 T8 124 -3.296
34 T8 125 -3.296
34 T8 126 -3.784
34 T8 127 -4.272
34 T8 128 -4.272
34 T8 129 -3.296
34 T8 130 -1.831
34 T8 131 -1.343
34 T8 132 -0.854
34 T8 133 -0.854
34 T8 134 -0.366
34 T8 135 1.587
34 T8 136 3.052
34 T8 137 3.052
34 T8 138 2.075
34 T8 139 -0.366
34 T8 140 -1.831
34 T8 141 -2.319
34 T8 142 -1.831
34 T8 143 -1.343
34 T8 144 -1.831
34 T8 145 -3.784
34 T8 146 -5.737
34 T8 147 -7.690
34 T8 148 -8.179
34 T8 149 -7.690
34 T8 150 -5.737
34 T8 151 -2.808
34 T8 152 0.122
34 T8 153 3.052
34 T8 154 3.540
34 T8 155 3.540
34 T8 156 2.563
34 T8 157 1.587
34 T8 158 1.099
34 T8 159 0.122
34 T8 160 -0.854
34 T8 161 -2.319
34 T8 162 -3.296
34 T8 163 -2.808
34 T8 164 -0.854
34 T8 165 1.587
34 T8 166 4.028
34 T8 167 5.493
34 T8 168 5.493
34 T8 169 5.005
34 T8 170 4.028
34 T8 171 2.075
34 T8 172 0.122
34 T8 173 -2.319
34 T8 174 -4.272
34 T8 175 -4.761
34 T8 176 -3.296
34 T8 177 -0.854
34 T8 178 1.099
34 T8 179 2.075
34 T8 180 2.563
34 T8 181 1.587
34 T8 182 0.122
34 T8 183 -0.854
34 T8 184 -2.319
34 T8 185 -3.296
34 T8 186 -3.296
34 T8 187 -2.808
34 T8 188 -1.831
34 T8 189 -0.366
34 T8 190 1.587
34 T8 191 3.540
34 T8 192 5.493
34 T8 193 7.446
34 T8 194 8.911
34 T8 195 8.911
34 T8 196 7.446
34 T8 197 5.493
34 T8 198 3.540
34 T8 199 3.052
34 T8 200 3.052
34 T8 201 4.028
34 T8 202 4.028
34 T8 203 4.028
34 T8 204 3.540
34 T8 205 3.540
34 T8 206 4.028
34 T8 207 4.517
34 T8 208 4.517
34 T8 209 3.540
34 T8 210 2.075
34 T8 211 1.099
34 T8 212 0.122
34 T8 213 -0.854
34 T8 214 -1.831
34 T8 215 -3.296
34 T8 216 -4.272
34 T8 217 -3.784
34 T8 218 -1.831
34 T8 219 0.122
34 T8 220 2.563
34 T8 221 3.052
34 T8 222 3.052
34 T8 223 2.563
34 T8 224 2.563
34 T8 225 3.052
34 T8 226 4.028
34 T8 227 5.493
34 T8 228 6.958
34 T8 229 7.935
34 T8 230 9.399
34 T8 231 9.888
34 T8 232 9.399
34 T8 233 7.935
34 T8 234 6.470
34 T8 235 5.493
34 T8 236 5.981
34 T8 237 5.981
34 T8 238 4.517
34 T8 239 2.075
34 T8 240 -0.854
34 T8 241 -2.808
34 T8 242 -2.808
34 T8 243 -1.831
34 T8 244 -0.854
34 T8 245 -0.854
34 T8 246 -2.319
34 T8 247 -3.296
34 T8 248 -3.784
34 T8 249 -2.319
34 T8 250 -0.854
34 T8 251 -0.366
34 T8 252 -1.831
34 T8 253 -3.784
34 T8 254 -4.761
34 T8 255 -4.272
# T7 chan 14
34 T7 0 4.272
34 T7 1 4.272
34 T7 2 3.296
34 T7 3 2.808
34 T7 4 2.808
34 T7 5 3.296
34 T7 6 4.272
34 T7 7 6.226
34 T7 8 8.179
34 T7 9 9.644
34 T7 10 9.644
34 T7 11 7.690
34 T7 12 3.784
34 T7 13 -0.610
34 T7 14 -4.028
34 T7 15 -5.981
34 T7 16 -6.470
34 T7 17 -5.493
34 T7 18 -4.517
34 T7 19 -4.028
34 T7 20 -4.028
34 T7 21 -3.540
34 T7 22 -3.052
34 T7 23 -2.563
34 T7 24 -2.563
34 T7 25 -3.540
34 T7 26 -4.517
34 T7 27 -4.517
34 T7 28 -3.052
34 T7 29 -0.610
34 T7 30 2.319
34 T7 31 5.249
34 T7 32 6.714
34 T7 33 7.690
34 T7 34 8.179
34 T7 35 7.690
34 T7 36 7.202
34 T7 37 5.737
34 T7 38 4.272
34 T7 39 2.808
34 T7 40 2.808
34 T7 41 4.272
34 T7 42 6.714
34 T7 43 8.667
34 T7 44 8.667
34 T7 45 7.202
34 T7 46 4.761
34 T7 47 1.831
34 T7 48 -0.610
34 T7 49 -2.563
34 T7 50 -4.028
34 T7 51 -4.028
34 T7 52 -4.028
34 T7 53 -4.028
34 T7 54 -3.540
34 T7 55 -4.517
34 T7 56 -5.981
34 T7 57 -6.958
34 T7 58 -6.958
34 T7 59 -5.981
34 T7 60 -4.028
34 T7 61 -2.075
34 T7 62 -0.610
34 T7 63 0.366
34 T7 64 -0.122
34 T7 65 -0.610
34 T7 66 -1.099
34 T7 67 -0.610
34 T7 68 -0.122
34 T7 69 0.366
34 T7 70 0.854
34 T7 71 0.854
34 T7 72 0.854
34 T7 73 0.366
34 T7 74 0.366
34 T7 75 0.854
34 T7 76 1.343
34 T7 77 0.854
34 T7 78 -0.122
34 T7 79 -1.587
34 T7 80 -2.563
34 T7 81 -3.540
34 T7 82 -3.540
34 T7 83 -3.540
34 T7 84 -3.540
34 T7 85 -3.052
34 T7 86 -3.052
34 T7 87 -2.075
34 T7 88 -1.587
34 T7 89 -2.075
34 T7 90 -3.540
34 T7 91 -4.517
34 T7 92 -5.005
34 T7 93 -3.540
34 T7 94 -0.610
34 T7 95 1.831
34 T7 96 3.784
34 T7 97 4.272
34 T7 98 3.296
34 T7 99 0.854
34 T7 100 -0.610
34 T7 101 -1.099
34 T7 102 -0.610
34 T7 103 1.343
34 T7 104 3.296
34 T7 105 5.249
34 T7 106 5.737
34 T7 107 5.249
34 T7 108 3.784
34 T7 109 1.343
34 T7 110 -0.122
34 T7 111 -1.587
34 T7 112 -2.563
34 T7 113 -3.540
34 T7 114 -4.517
34 T7 115 -4.517
34 T7 116 -4.028
34 T7 117 -2.563
34 T7 118 -1.099
34 T7 119 -0.122
34 T7 120 0.366
34 T7 121 0.366
34 T7 122 -0.610
34 T7 123 -1.099
34 T7 124 -0.610
34 T7 125 0.366
34 T7 126 1.831
34 T7 127 3.784
34 T7 128 5.737
34 T7 129 6.714
34 T7 130 6.226
34 T7 131 3.784
34 T7 132 0.854
34 T7 133 -2.075
34 T7 134 -4.517
34 T7 135 -5.981
34 T7 136 -6.470
34 T7 137 -6.470
34 T7 138 -5.981
34 T7 139 -5.493
34 T7 140 -4.517
34 T7 141 -2.563
34 T7 142 -0.610
34 T7 143 2.319
34 T7 144 3.784
34 T7 145 3.784
34 T7 146 1.831
34 T7 147 -0.610
34 T7 148 -3.540
34 T7 149 -5.493
34 T7 150 -6.470
34 T7 151 -6.470
34 T7 152 -5.005
34 T7 153 -3.052
34 T7 154 -0.122
34 T7 155 3.296
34 T7 156 6.714
34 T7 157 10.132
34 T7 158 12.573
34 T7 159 14.038
34 T7 160 14.038
34 T7 161 13.062
34 T7 162 11.597
34 T7 163 9.644
34 T7 164 7.690
34 T7 165 6.226
34 T7 166 4.272
34 T7 167 2.319
34 T7 168 0.366
34 T7 169 -1.099
34 T7 170 -2.563
34 T7 171 -3.540
34 T7 172 -4.028
34 T7 173 -4.517
34 T7 174 -4.517
34 T7 175 -5.005
34 T7 176 -5.005
34 T7 177 -4.517
34 T7 178 -4.028
34 T7 179 -2.563
34 T7 180 -1.099
34 T7 181 -0.610
34 T7 182 -0.610
34 T7 183 -2.075
34 T7 184 -2.563
34 T7 185 -2.075
34 T7 186 -0.610
34 T7 187 1.831
34 T7 188 3.296
34 T7 189 3.784
34 T7 190 3.784
34 T7 191 3.296
34 T7 192 3.296
34 T7 193 2.808
34 T7 194 2.319
34 T7 195 0.854
34 T7 196 -0.122
34 T7 197 -0.610
34 T7 198 -0.122
34 T7 199 1.343
34 T7 200 3.784
34 T7 201 5.737
34 T7 202 6.226
34 T7 203 5.737
34 T7 204 4.272
34 T7 205 3.296
34 T7 206 2.319
34 T7 207 1.343
34 T7 208 0.854
34 T7 209 0.366
34 T7 210 0.366
34 T7 211 0.854
34 T7 212 1.343
34 T7 213 1.831
34 T7 214 0.854
34 T7 215 -1.099
34 T7 216 -3.052
34 T7 217 -3.540
34 T7 218 -2.563
34 T7 219 -0.122
34 T7 220 1.831
34 T7 221 2.319
34 T7 222 1.343
34 T7 223 -0.610
34 T7 224 -1.099
34 T7 225 -0.122
34 T7 226 2.808
34 T7 227 6.714
34 T7 228 9.155
34 T7 229 9.644
34 T7 230 8.667
34 T7 231 7.690
34 T7 232 8.179
34 T7 233 9.155
34 T7 234 10.620
34 T7 235 10.132
34 T7 236 7.202
34 T7 237 3.296
34 T7 238 -1.099
34 T7 239 -3.540
34 T7 240 -4.028
34 T7 241 -2.075
34 T7 242 -0.610
34 T7 243 -0.122
34 T7 244 -1.587
34 T7 245 -4.028
34 T7 246 -6.470
34 T7 247 -7.446
34 T7 248 -6.958
34 T7 249 -5.005
34 T7 250 -2.563
34 T7 251 -0.122
34 T7 252 1.343
34 T7 253 2.319
34 T7 254 2.808
34 T7 255 3.296
# CZ chan 15
34 CZ 0 -6.042
34 CZ 1 -6.042
34 CZ 2 -3.601
34 CZ 3 1.282
34 CZ 4 7.141
34 CZ 5 11.536
34 CZ 6 13.977
34 CZ 7 14.465
34 CZ 8 13.000
34 CZ 9 11.536
34 CZ 10 9.094
34 CZ 11 6.653
34 CZ 12 3.235
34 CZ 13 0.305
34 CZ 14 -3.113
34 CZ 15 -5.554
34 CZ 16 -7.507
34 CZ 17 -8.484
34 CZ 18 -7.996
34 CZ 19 -7.019
34 CZ 20 -4.578
34 CZ 21 -2.136
34 CZ 22 0.305
34 CZ 23 0.793
34 CZ 24 0.793
34 CZ 25 -0.671
34 CZ 26 -2.136
34 CZ 27 -3.601
34 CZ 28 -3.601
34 CZ 29 -1.160
34 CZ 30 2.747
34 CZ 31 7.629
34 CZ 32 12.024
34 CZ 33 14.465
34 CZ 34 15.442
34 CZ 35 13.977
34 CZ 36 12.512
34 CZ 37 10.559
34 CZ 38 8.606
34 CZ 39 7.629
34 CZ 40 8.606
34 CZ 41 10.559
34 CZ 42 13.489
34 CZ 43 13.977
34 CZ 44 12.024
34 CZ 45 6.165
34 CZ 46 -0.671
34 CZ 47 -5.554
34 CZ 48 -6.531
34 CZ 49 -3.601
34 CZ 50 1.282
34 CZ 51 4.700
34 CZ 52 5.676
34 CZ 53 3.723
34 CZ 54 1.770
34 CZ 55 0.793
34 CZ 56 1.282
34 CZ 57 2.258
34 CZ 58 2.747
34 CZ 59 2.258
34 CZ 60 0.793
34 CZ 61 0.305
34 CZ 62 0.793
34 CZ 63 2.258
34 CZ 64 4.211
34 CZ 65 4.700
34 CZ 66 4.211
34 CZ 67 3.235
34 CZ 68 1.770
34 CZ 69 0.793
34 CZ 70 0.305
34 CZ 71 0.305
34 CZ 72 1.282
34 CZ 73 2.258
34 CZ 74 3.235
34 CZ 75 4.211
34 CZ 76 4.700
34 CZ 77 5.188
34 CZ 78 5.188
34 CZ 79 5.188
34 CZ 80 5.188
34 CZ 81 4.211
34 CZ 82 3.723
34 CZ 83 3.235
34 CZ 84 4.211
34 CZ 85 6.653
34 CZ 86 9.094
34 CZ 87 10.559
34 CZ 88 9.094
34 CZ 89 6.653
34 CZ 90 3.723
34 CZ 91 2.258
34 CZ 92 3.723
34 CZ 93 7.629
34 CZ 94 11.536
34 CZ 95 13.977
34 CZ 96 13.977
34 CZ 97 13.000
34 CZ 98 11.047
34 CZ 99 10.559
34 CZ 100 11.047
34 CZ 101 13.000
34 CZ 102 13.977
34 CZ 103 13.977
34 CZ 104 12.512
34 CZ 105 11.047
34 CZ 106 10.071
34 CZ 107 10.559
34 CZ 108 12.024
34 CZ 109 13.000
34 CZ 110 13.489
34 CZ 111 12.512
34 CZ 112 11.047
34 CZ 113 9.094
34 CZ 114 9.583
34 CZ 115 12.024
34 CZ 116 15.442
34 CZ 117 19.348
34 CZ 118 21.790
34 CZ 119 22.278
34 CZ 120 21.790
34 CZ 121 20.813
34 CZ 122 20.325
34 CZ 123 19.836
34 CZ 124 20.325
34 CZ 125 21.301
34 CZ 126 22.766
34 CZ 127 24.231
34 CZ 128 26.184
34 CZ 129 27.649
34 CZ 130 27.161
34 CZ 131 25.208
34 CZ 132 22.766
34 CZ 133 20.325
34 CZ 134 19.348
34 CZ 135 19.836
34 CZ 136 20.813
34 CZ 137 21.790
34 CZ 138 21.790
34 CZ 139 20.813
34 CZ 140 20.813
34 CZ 141 22.278
34 CZ 142 25.208
34 CZ 143 29.602
34 CZ 144 33.020
34 CZ 145 33.997
34 CZ 146 33.020
34 CZ 147 30.579
34 CZ 148 28.625
34 CZ 149 28.137
34 CZ 150 29.114
34 CZ 151 31.067
34 CZ 152 33.020
34 CZ 153 34.485
34 CZ 154 35.461
34 CZ 155 36.438
34 CZ 156 37.903
34 CZ 157 39.856
34 CZ 158 41.321
34 CZ 159 41.321
34 CZ 160 40.833
34 CZ 161 40.833
34 CZ 162 41.809
34 CZ 163 44.250
34 CZ 164 46.692
34 CZ 165 48.157
34 CZ 166 47.668
34 CZ 167 44.739
34 CZ 168 41.321
34 CZ 169 37.415
34 CZ 170 33.997
34 CZ 171 30.579
34 CZ 172 28.137
34 CZ 173 25.696
34 CZ 174 24.231
34 CZ 175 23.743
34 CZ 176 24.231
34 CZ 177 26.184
34 CZ 178 27.649
34 CZ 179 29.602
34 CZ 180 30.090
34 CZ 181 29.114
34 CZ 182 28.137
34 CZ 183 26.672
34 CZ 184 26.184
34 CZ 185 26.672
34 CZ 186 27.649
34 CZ 187 29.114
34 CZ 188 30.579
34 CZ 189 31.555
34 CZ 190 31.555
34 CZ 191 31.067
34 CZ 192 31.067
34 CZ 193 31.555
34 CZ 194 32.043
34 CZ 195 32.532
34 CZ 196 32.043
34 CZ 197 31.555
34 CZ 198 31.555
34 CZ 199 32.532
34 CZ 200 34.485
34 CZ 201 35.950
34 CZ 202 36.438
34 CZ 203 36.438
34 CZ 204 36.438
34 CZ 205 36.438
34 CZ 206 37.415
34 CZ 207 38.879
34 CZ 208 39.856
34 CZ 209 39.368
34 CZ 210 38.391
34 CZ 211 36.926
34 CZ 212 35.950
34 CZ 213 35.461
34 CZ 214 34.973
34 CZ 215 34.485
34 CZ 216 34.485
34 CZ 217 34.485
34 CZ 218 35.461
34 CZ 219 36.438
34 CZ 220 36.438
34 CZ 221 35.461
34 CZ 222 33.997
34 CZ 223 33.997
34 CZ 224 35.461
34 CZ 225 38.879
34 CZ 226 42.786
34 CZ 227 45.227
34 CZ 228 46.204
34 CZ 229 45.715
34 CZ 230 44.250
34 CZ 231 44.739
34 CZ 232 46.692
34 CZ 233 49.622
34 CZ 234 51.575
34 CZ 235 52.063
34 CZ 236 50.598
34 CZ 237 47.668
34 CZ 238 44.739
34 CZ 239 42.297
34 CZ 240 41.809
34 CZ 241 42.786
34 CZ 242 44.739
34 CZ 243 45.715
34 CZ 244 44.739
34 CZ 245 42.297
34 CZ 246 38.879
34 CZ 247 36.438
34 CZ 248 34.973
34 CZ 249 35.461
34 CZ 250 36.438
34 CZ 251 36.926
34 CZ 252 35.950
34 CZ 253 33.508
34 CZ 254 30.579
34 CZ 255 27.649
# C3 chan 16
34 C3 0 1.068
34 C3 1 0.092
34 C3 2 -1.373
34 C3 3 -2.350
34 C3 4 -3.326
34 C3 5 -4.303
34 C3 6 -3.815
34 C3 7 -2.350
34 C3 8 -0.397
34 C3 9 2.045
34 C3 10 4.486
34 C3 11 4.974
34 C3 12 3.510
34 C3 13 1.068
34 C3 14 -0.397
34 C3 15 -0.397
34 C3 16 1.068
34 C3 17 2.533
34 C3 18 2.533
34 C3 19 1.556
34 C3 20 -0.397
34 C3 21 -1.862
34 C3 22 -2.350
34 C3 23 -1.862
34 C3 24 -0.397
34 C3 25 0.092
34 C3 26 0.580
34 C3 27 0.092
34 C3 28 -0.885
34 C3 29 -1.373
34 C3 30 -1.373
34 C3 31 -0.885
34 C3 32 0.092
34 C3 33 1.556
34 C3 34 3.021
34 C3 35 3.998
34 C3 36 4.486
34 C3 37 3.998
34 C3 38 2.533
34 C3 39 1.556
34 C3 40 1.068
34 C3 41 1.556
34 C3 42 3.021
34 C3 43 4.486
34 C3 44 4.974
34 C3 45 4.486
34 C3 46 3.021
34 C3 47 1.556
34 C3 48 0.092
34 C3 49 -0.885
34 C3 50 -0.885
34 C3 51 -1.373
34 C3 52 -1.373
34 C3 53 -0.885
34 C3 54 -1.373
34 C3 55 -1.862
34 C3 56 -2.838
34 C3 57 -3.326
34 C3 58 -3.326
34 C3 59 -1.862
34 C3 60 -0.885
34 C3 61 1.068
34 C3 62 1.556
34 C3 63 1.556
34 C3 64 1.556
34 C3 65 1.068
34 C3 66 1.556
34 C3 67 2.533
34 C3 68 3.510
34 C3 69 3.998
34 C3 70 3.998
34 C3 71 3.998
34 C3 72 3.510
34 C3 73 3.510
34 C3 74 3.998
34 C3 75 3.510
34 C3 76 3.021
34 C3 77 2.533
34 C3 78 2.045
34 C3 79 1.556
34 C3 80 2.045
34 C3 81 3.021
34 C3 82 3.021
34 C3 83 3.021
34 C3 84 2.045
34 C3 85 1.068
34 C3 86 1.068
34 C3 87 1.556
34 C3 88 2.533
34 C3 89 3.021
34 C3 90 2.533
34 C3 91 2.533
34 C3 92 2.045
34 C3 93 2.045
34 C3 94 3.510
34 C3 95 4.974
34 C3 96 6.439
34 C3 97 5.951
34 C3 98 4.486
34 C3 99 2.533
34 C3 100 0.580
34 C3 101 -0.885
34 C3 102 0.092
34 C3 103 2.045
34 C3 104 4.486
34 C3 105 6.439
34 C3 106 6.927
34 C3 107 5.951
34 C3 108 3.510
34 C3 109 1.068
34 C3 110 -0.885
34 C3 111 -0.885
34 C3 112 -0.885
34 C3 113 0.092
34 C3 114 1.068
34 C3 115 2.045
34 C3 116 2.045
34 C3 117 2.045
34 C3 118 1.556
34 C3 119 0.580
34 C3 120 0.092
34 C3 121 -0.397
34 C3 122 0.092
34 C3 123 0.580
34 C3 124 1.556
34 C3 125 2.533
34 C3 126 3.510
34 C3 127 3.998
34 C3 128 4.486
34 C3 129 3.998
34 C3 130 3.021
34 C3 131 1.068
34 C3 132 -0.885
34 C3 133 -1.862
34 C3 134 -2.838
34 C3 135 -3.326
34 C3 136 -3.326
34 C3 137 -2.838
34 C3 138 -2.838
34 C3 139 -2.350
34 C3 140 -2.350
34 C3 141 -1.862
34 C3 142 -1.373
34 C3 143 -0.885
34 C3 144 0.092
34 C3 145 0.580
34 C3 146 0.580
34 C3 147 0.092
34 C3 148 -0.397
34 C3 149 -0.885
34 C3 150 -0.397
34 C3 151 0.092
34 C3 152 0.580
34 C3 153 1.556
34 C3 154 2.045
34 C3 155 3.021
34 C3 156 3.998
34 C3 157 5.463
34 C3 158 6.439
34 C3 159 6.927
34 C3 160 6.439
34 C3 161 4.974
34 C3 162 3.021
34 C3 163 1.556
34 C3 164 0.092
34 C3 165 -0.885
34 C3 166 -1.373
34 C3 167 -1.862
34 C3 168 -2.350
34 C3 169 -2.350
34 C3 170 -2.350
34 C3 171 -1.862
34 C3 172 -0.885
34 C3 173 -0.397
34 C3 174 0.580
34 C3 175 0.580
34 C3 176 0.092
34 C3 177 0.580
34 C3 178 0.580
34 C3 179 1.068
34 C3 180 1.068
34 C3 181 1.068
34 C3 182 0.580
34 C3 183 -0.397
34 C3 184 -0.885
34 C3 185 -0.885
34 C3 186 0.092
34 C3 187 0.580
34 C3 188 1.068
34 C3 189 1.556
34 C3 190 1.068
34 C3 191 0.580
34 C3 192 -0.397
34 C3 193 -1.373
34 C3 194 -1.862
34 C3 195 -2.350
34 C3 196 -2.350
34 C3 197 -1.862
34 C3 198 -0.885
34 C3 199 0.092
34 C3 200 1.068
34 C3 201 2.045
34 C3 202 2.533
34 C3 203 2.045
34 C3 204 1.556
34 C3 205 1.068
34 C3 206 1.068
34 C3 207 1.556
34 C3 208 1.556
34 C3 209 2.533
34 C3 210 3.021
34 C3 211 4.486
34 C3 212 5.463
34 C3 213 5.463
34 C3 214 4.486
34 C3 215 2.533
34 C3 216 0.092
34 C3 217 -1.373
34 C3 218 -1.373
34 C3 219 -0.397
34 C3 220 1.068
34 C3 221 2.533
34 C3 222 2.533
34 C3 223 2.045
34 C3 224 1.068
34 C3 225 0.580
34 C3 226 1.068
34 C3 227 2.045
34 C3 228 3.510
34 C3 229 3.998
34 C3 230 4.974
34 C3 231 5.951
34 C3 232 6.927
34 C3 233 7.904
34 C3 234 7.904
34 C3 235 6.439
34 C3 236 4.486
34 C3 237 2.533
34 C3 238 1.068
34 C3 239 1.068
34 C3 240 1.556
34 C3 241 2.533
34 C3 242 3.510
34 C3 243 3.510
34 C3 244 3.510
34 C3 245 2.533
34 C3 246 1.556
34 C3 247 0.580
34 C3 248 0.092
34 C3 249 0.580
34 C3 250 1.068
34 C3 251 1.556
34 C3 252 2.045
34 C3 253 3.510
34 C3 254 4.486
34 C3 255 4.974
# C4 chan 17
34 C4 0 -4.883
34 C4 1 -4.883
34 C4 2 -4.395
34 C4 3 -4.395
34 C4 4 -4.395
34 C4 5 -3.906
34 C4 6 -2.930
34 C4 7 -1.953
34 C4 8 -1.465
34 C4 9 -0.977
34 C4 10 -1.465
34 C4 11 -2.441
34 C4 12 -2.930
34 C4 13 -2.930
34 C4 14 -1.953
34 C4 15 -1.465
34 C4 16 -0.488
34 C4 17 0.000
34 C4 18 0.488
34 C4 19 1.465
34 C4 20 2.441
34 C4 21 3.418
34 C4 22 2.930
34 C4 23 1.953
34 C4 24 0.000
34 C4 25 -0.977
34 C4 26 -1.465
34 C4 27 -0.488
34 C4 28 0.000
34 C4 29 0.977
34 C4 30 0.488
34 C4 31 -0.977
34 C4 32 -2.441
34 C4 33 -4.395
34 C4 34 -5.859
34 C4 35 -5.859
34 C4 36 -4.883
34 C4 37 -2.930
34 C4 38 -1.465
34 C4 39 -0.488
34 C4 40 -0.977
34 C4 41 -1.953
34 C4 42 -3.906
34 C4 43 -5.371
34 C4 44 -5.371
34 C4 45 -5.371
34 C4 46 -4.395
34 C4 47 -3.418
34 C4 48 -2.441
34 C4 49 -1.465
34 C4 50 -0.977
34 C4 51 -0.488
34 C4 52 0.488
34 C4 53 1.465
34 C4 54 2.441
34 C4 55 2.930
34 C4 56 2.930
34 C4 57 2.441
34 C4 58 1.953
34 C4 59 0.977
34 C4 60 0.488
34 C4 61 0.000
34 C4 62 0.488
34 C4 63 0.977
34 C4 64 1.953
34 C4 65 1.465
34 C4 66 0.488
34 C4 67 -1.465
34 C4 68 -3.418
34 C4 69 -4.395
34 C4 70 -4.395
34 C4 71 -3.418
34 C4 72 -2.441
34 C4 73 -1.953
34 C4 74 -1.953
34 C4 75 -1.953
34 C4 76 -1.465
34 C4 77 0.000
34 C4 78 0.977
34 C4 79 1.953
34 C4 80 2.441
34 C4 81 1.953
34 C4 82 1.953
34 C4 83 1.953
34 C4 84 2.441
34 C4 85 1.953
34 C4 86 0.977
34 C4 87 0.000
34 C4 88 -1.465
34 C4 89 -1.465
34 C4 90 -0.977
34 C4 91 0.488
34 C4 92 1.465
34 C4 93 1.953
34 C4 94 1.465
34 C4 95 0.488
34 C4 96 -1.465
34 C4 97 -2.930
34 C4 98 -3.906
34 C4 99 -2.930
34 C4 100 -0.977
34 C4 101 1.465
34 C4 102 2.930
34 C4 103 2.441
34 C4 104 0.977
34 C4 105 -1.465
34 C4 106 -2.441
34 C4 107 -1.953
34 C4 108 -0.488
34 C4 109 1.953
34 C4 110 3.418
34 C4 111 4.395
34 C4 112 3.906
34 C4 113 2.930
34 C4 114 1.465
34 C4 115 0.000
34 C4 116 0.000
34 C4 117 0.488
34 C4 118 0.977
34 C4 119 1.465
34 C4 120 1.465
34 C4 121 0.977
34 C4 122 0.488
34 C4 123 0.000
34 C4 124 -0.488
34 C4 125 -0.977
34 C4 126 -1.465
34 C4 127 -2.441
34 C4 128 -3.418
34 C4 129 -2.930
34 C4 130 -1.465
34 C4 131 0.977
34 C4 132 3.418
34 C4 133 5.371
34 C4 134 5.371
34 C4 135 4.883
34 C4 136 3.418
34 C4 137 1.953
34 C4 138 1.465
34 C4 139 1.465
34 C4 140 1.465
34 C4 141 2.441
34 C4 142 2.930
34 C4 143 2.441
34 C4 144 1.953
34 C4 145 0.977
34 C4 146 -0.488
34 C4 147 -1.465
34 C4 148 -1.953
34 C4 149 -1.953
34 C4 150 -0.977
34 C4 151 0.000
34 C4 152 1.465
34 C4 153 1.953
34 C4 154 1.465
34 C4 155 0.000
34 C4 156 -2.441
34 C4 157 -3.906
34 C4 158 -4.883
34 C4 159 -4.395
34 C4 160 -3.418
34 C4 161 -1.953
34 C4 162 -0.488
34 C4 163 0.488
34 C4 164 1.953
34 C4 165 2.930
34 C4 166 4.395
34 C4 167 5.859
34 C4 168 5.859
34 C4 169 4.883
34 C4 170 2.930
34 C4 171 1.465
34 C4 172 -0.488
34 C4 173 -1.465
34 C4 174 -2.441
34 C4 175 -2.930
34 C4 176 -2.930
34 C4 177 -2.441
34 C4 178 -1.953
34 C4 179 -1.465
34 C4 180 -0.977
34 C4 181 -0.977
34 C4 182 -0.977
34 C4 183 -1.465
34 C4 184 -2.441
34 C4 185 -2.441
34 C4 186 -1.953
34 C4 187 -1.465
34 C4 188 -0.977
34 C4 189 -0.488
34 C4 190 0.000
34 C4 191 0.000
34 C4 192 0.488
34 C4 193 0.488
34 C4 194 0.977
34 C4 195 1.953
34 C4 196 2.441
34 C4 197 2.441
34 C4 198 1.465
34 C4 199 0.977
34 C4 200 0.000
34 C4 201 0.000
34 C4 202 0.488
34 C4 203 0.000
34 C4 204 0.000
34 C4 205 -0.977
34 C4 206 -0.977
34 C4 207 -0.977
34 C4 208 0.000
34 C4 209 0.977
34 C4 210 0.977
34 C4 211 0.977
34 C4 212 -0.488
34 C4 213 -1.465
34 C4 214 -2.441
34 C4 215 -3.418
34 C4 216 -2.930
34 C4 217 -1.953
34 C4 218 -0.977
34 C4 219 0.000
34 C4 220 0.488
34 C4 221 0.488
34 C4 222 0.488
34 C4 223 -0.488
34 C4 224 -1.465
34 C4 225 -1.953
34 C4 226 -1.465
34 C4 227 -0.488
34 C4 228 0.488
34 C4 229 0.977
34 C4 230 0.488
34 C4 231 0.000
34 C4 232 -0.488
34 C4 233 0.000
34 C4 234 0.488
34 C4 235 1.953
34 C4 236 2.930
34 C4 237 3.418
34 C4 238 3.418
34 C4 239 2.930
34 C4 240 2.441
34 C4 241 1.953
34 C4 242 0.977
34 C4 243 0.000
34 C4 244 -0.977
34 C4 245 -1.953
34 C4 246 -1.465
34 C4 247 -0.488
34 C4 248 0.488
34 C4 249 0.977
34 C4 250 0.977
34 C4 251 -0.977
34 C4 252 -2.441
34 C4 253 -3.906
34 C4 254 -3.906
34 C4 255 -2.930
# CP5 chan 18
34 CP5 0 1.129
34 CP5 1 0.153
34 CP5 2 -2.289
34 CP5 3 -4.242
34 CP5 4 -5.219
34 CP5 5 -5.219
34 CP5 6 -3.265
34 CP5 7 -0.824
34 CP5 8 2.594
34 CP5 9 5.035
34 CP5 10 6.500
34 CP5 11 5.524
34 CP5 12 2.594
34 CP5 13 -0.824
34 CP5 14 -3.754
34 CP5 15 -4.730
34 CP5 16 -3.265
34 CP5 17 -2.289
34 CP5 18 -1.801
34 CP5 19 -2.777
34 CP5 20 -4.730
34 CP5 21 -6.195
34 CP5 22 -7.172
34 CP5 23 -6.683
34 CP5 24 -5.219
34 CP5 25 -3.754
34 CP5 26 -2.777
34 CP5 27 -1.801
34 CP5 28 -1.801
34 CP5 29 -1.312
34 CP5 30 -1.312
34 CP5 31 -0.824
34 CP5 32 -0.336
34 CP5 33 0.153
34 CP5 34 1.129
34 CP5 35 1.617
34 CP5 36 1.617
34 CP5 37 1.129
34 CP5 38 -0.824
34 CP5 39 -2.777
34 CP5 40 -4.242
34 CP5 41 -4.730
34 CP5 42 -3.265
34 CP5 43 -0.824
34 CP5 44 2.106
34 CP5 45 4.059
34 CP5 46 4.547
34 CP5 47 3.082
34 CP5 48 0.153
34 CP5 49 -2.777
34 CP5 50 -5.707
34 CP5 51 -6.683
34 CP5 52 -6.683
34 CP5 53 -5.707
34 CP5 54 -5.219
34 CP5 55 -5.707
34 CP5 56 -7.172
34 CP5 57 -8.148
34 CP5 58 -8.148
34 CP5 59 -7.172
34 CP5 60 -5.707
34 CP5 61 -3.754
34 CP5 62 -2.289
34 CP5 63 -1.312
34 CP5 64 -1.312
34 CP5 65 -0.824
34 CP5 66 -0.336
34 CP5 67 -0.336
34 CP5 68 0.153
34 CP5 69 0.153
34 CP5 70 0.153
34 CP5 71 -0.336
34 CP5 72 -0.336
34 CP5 73 -0.824
34 CP5 74 -0.824
34 CP5 75 -0.824
34 CP5 76 -1.312
34 CP5 77 -2.289
34 CP5 78 -2.777
34 CP5 79 -3.265
34 CP5 80 -3.265
34 CP5 81 -3.265
34 CP5 82 -3.265
34 CP5 83 -3.754
34 CP5 84 -3.754
34 CP5 85 -4.242
34 CP5 86 -3.754
34 CP5 87 -2.777
34 CP5 88 -2.289
34 CP5 89 -2.289
34 CP5 90 -3.265
34 CP5 91 -4.242
34 CP5 92 -4.730
34 CP5 93 -3.265
34 CP5 94 -0.824
34 CP5 95 1.617
34 CP5 96 2.594
34 CP5 97 2.106
34 CP5 98 0.153
34 CP5 99 -1.801
34 CP5 100 -3.754
34 CP5 101 -4.242
34 CP5 102 -2.777
34 CP5 103 0.641
34 CP5 104 4.059
34 CP5 105 6.989
34 CP5 106 6.989
34 CP5 107 6.012
34 CP5 108 4.059
34 CP5 109 1.617
34 CP5 110 0.153
34 CP5 111 -0.336
34 CP5 112 -0.336
34 CP5 113 -0.336
34 CP5 114 -0.336
34 CP5 115 -0.824
34 CP5 116 -1.801
34 CP5 117 -2.777
34 CP5 118 -3.265
34 CP5 119 -3.754
34 CP5 120 -3.265
34 CP5 121 -2.289
34 CP5 122 -0.824
34 CP5 123 0.153
34 CP5 124 1.129
34 CP5 125 2.106
34 CP5 126 2.594
34 CP5 127 4.059
34 CP5 128 4.059
34 CP5 129 4.059
34 CP5 130 3.082
34 CP5 131 0.641
34 CP5 132 -1.312
34 CP5 133 -2.777
34 CP5 134 -4.242
34 CP5 135 -5.219
34 CP5 136 -5.707
34 CP5 137 -6.683
34 CP5 138 -6.683
34 CP5 139 -6.195
34 CP5 140 -4.730
34 CP5 141 -3.754
34 CP5 142 -2.289
34 CP5 143 -1.801
34 CP5 144 -2.289
34 CP5 145 -2.777
34 CP5 146 -3.754
34 CP5 147 -4.730
34 CP5 148 -5.219
34 CP5 149 -5.219
34 CP5 150 -4.730
34 CP5 151 -3.754
34 CP5 152 -1.801
34 CP5 153 -0.336
34 CP5 154 1.129
34 CP5 155 3.082
34 CP5 156 5.035
34 CP5 157 7.965
34 CP5 158 9.918
34 CP5 159 10.406
34 CP5 160 8.942
34 CP5 161 5.524
34 CP5 162 2.106
34 CP5 163 -0.336
34 CP5 164 -1.801
34 CP5 165 -2.289
34 CP5 166 -2.289
34 CP5 167 -1.801
34 CP5 168 -1.801
34 CP5 169 -2.289
34 CP5 170 -2.777
34 CP5 171 -3.754
34 CP5 172 -3.754
34 CP5 173 -3.265
34 CP5 174 -2.777
34 CP5 175 -1.801
34 CP5 176 -1.312
34 CP5 177 -1.312
34 CP5 178 -1.312
34 CP5 179 -1.312
34 CP5 180 -0.824
34 CP5 181 -1.801
34 CP5 182 -3.265
34 CP5 183 -5.219
34 CP5 184 -6.195
34 CP5 185 -6.195
34 CP5 186 -5.707
34 CP5 187 -4.730
34 CP5 188 -4.242
34 CP5 189 -4.730
34 CP5 190 -4.730
34 CP5 191 -4.242
34 CP5 192 -3.754
34 CP5 193 -2.777
34 CP5 194 -2.777
34 CP5 195 -3.265
34 CP5 196 -3.754
34 CP5 197 -3.754
34 CP5 198 -1.801
34 CP5 199 0.641
34 CP5 200 3.082
34 CP5 201 5.035
34 CP5 202 5.524
34 CP5 203 4.547
34 CP5 204 4.059
34 CP5 205 3.082
34 CP5 206 2.106
34 CP5 207 2.106
34 CP5 208 2.106
34 CP5 209 2.594
34 CP5 210 3.082
34 CP5 211 4.059
34 CP5 212 4.547
34 CP5 213 3.571
34 CP5 214 1.129
34 CP5 215 -2.289
34 CP5 216 -5.219
34 CP5 217 -6.683
34 CP5 218 -5.707
34 CP5 219 -3.754
34 CP5 220 -1.801
34 CP5 221 -0.824
34 CP5 222 -2.777
34 CP5 223 -5.707
34 CP5 224 -7.660
34 CP5 225 -7.660
34 CP5 226 -4.730
34 CP5 227 -0.824
34 CP5 228 3.082
34 CP5 229 5.035
34 CP5 230 6.012
34 CP5 231 6.012
34 CP5 232 7.477
34 CP5 233 9.430
34 CP5 234 9.918
34 CP5 235 8.942
34 CP5 236 6.500
34 CP5 237 3.571
34 CP5 238 1.129
34 CP5 239 0.153
34 CP5 240 0.153
34 CP5 241 1.129
34 CP5 242 1.129
34 CP5 243 1.129
34 CP5 244 1.129
34 CP5 245 1.129
34 CP5 246 1.129
34 CP5 247 1.129
34 CP5 248 1.129
34 CP5 249 1.617
34 CP5 250 2.106
34 CP5 251 3.082
34 CP5 252 4.059
34 CP5 253 5.524
34 CP5 254 7.477
34 CP5 255 9.430
# CP6 chan 19
34 CP6 0 -3.021
34 CP6 1 -3.021
34 CP6 2 -3.510
34 CP6 3 -3.998
34 CP6 4 -3.510
34 CP6 5 -2.533
34 CP6 6 -1.068
34 CP6 7 1.373
34 CP6 8 3.815
34 CP6 9 5.280
34 CP6 10 6.256
34 CP6 11 5.280
34 CP6 12 3.326
34 CP6 13 0.397
34 CP6 14 -1.556
34 CP6 15 -2.533
34 CP6 16 -2.045
34 CP6 17 -1.068
34 CP6 18 -0.092
34 CP6 19 1.373
34 CP6 20 1.862
34 CP6 21 2.838
34 CP6 22 2.350
34 CP6 23 1.373
34 CP6 24 -0.092
34 CP6 25 -1.556
34 CP6 26 -2.045
34 CP6 27 -0.580
34 CP6 28 0.885
34 CP6 29 1.862
34 CP6 30 1.373
34 CP6 31 -0.580
34 CP6 32 -3.510
34 CP6 33 -5.951
34 CP6 34 -6.439
34 CP6 35 -5.951
34 CP6 36 -4.486
34 CP6 37 -3.021
34 CP6 38 -2.533
34 CP6 39 -3.021
34 CP6 40 -4.486
34 CP6 41 -6.927
34 CP6 42 -8.392
34 CP6 43 -9.857
34 CP6 44 -9.857
34 CP6 45 -9.369
34 CP6 46 -7.904
34 CP6 47 -5.951
34 CP6 48 -4.974
34 CP6 49 -3.998
34 CP6 50 -3.510
34 CP6 51 -2.533
34 CP6 52 -1.556
34 CP6 53 -1.068
34 CP6 54 -0.092
34 CP6 55 0.397
34 CP6 56 0.885
34 CP6 57 0.885
34 CP6 58 0.885
34 CP6 59 0.397
34 CP6 60 -0.580
34 CP6 61 -1.556
34 CP6 62 -1.068
34 CP6 63 -0.580
34 CP6 64 0.397
34 CP6 65 -0.092
34 CP6 66 -2.045
34 CP6 67 -3.998
34 CP6 68 -5.951
34 CP6 69 -6.439
34 CP6 70 -4.974
34 CP6 71 -3.021
34 CP6 72 -1.556
34 CP6 73 -1.556
34 CP6 74 -2.533
34 CP6 75 -2.533
34 CP6 76 -2.045
34 CP6 77 -0.580
34 CP6 78 0.885
34 CP6 79 1.862
34 CP6 80 1.373
34 CP6 81 -0.092
34 CP6 82 -0.092
34 CP6 83 0.397
34 CP6 84 1.373
34 CP6 85 1.862
34 CP6 86 1.862
34 CP6 87 0.885
34 CP6 88 -0.580
34 CP6 89 -1.556
34 CP6 90 -1.556
34 CP6 91 -1.068
34 CP6 92 0.397
34 CP6 93 1.862
34 CP6 94 2.350
34 CP6 95 2.350
34 CP6 96 0.885
34 CP6 97 -1.556
34 CP6 98 -3.510
34 CP6 99 -3.998
34 CP6 100 -3.021
34 CP6 101 -0.580
34 CP6 102 0.885
34 CP6 103 1.373
34 CP6 104 0.397
34 CP6 105 -1.556
34 CP6 106 -3.021
34 CP6 107 -3.021
34 CP6 108 -1.556
34 CP6 109 -0.092
34 CP6 110 0.397
34 CP6 111 -0.580
34 CP6 112 -2.045
34 CP6 113 -3.998
34 CP6 114 -5.463
34 CP6 115 -5.951
34 CP6 116 -4.974
34 CP6 117 -3.021
34 CP6 118 -0.580
34 CP6 119 0.885
34 CP6 120 0.397
34 CP6 121 -1.068
34 CP6 122 -3.998
34 CP6 123 -5.951
34 CP6 124 -7.416
34 CP6 125 -8.392
34 CP6 126 -7.904
34 CP6 127 -7.904
34 CP6 128 -7.416
34 CP6 129 -6.439
34 CP6 130 -4.486
34 CP6 131 -2.045
34 CP6 132 1.373
34 CP6 133 3.815
34 CP6 134 4.791
34 CP6 135 4.791
34 CP6 136 2.838
34 CP6 137 0.397
34 CP6 138 -1.068
34 CP6 139 -2.045
34 CP6 140 -2.533
34 CP6 141 -2.533
34 CP6 142 -2.045
34 CP6 143 -2.045
34 CP6 144 -2.045
34 CP6 145 -1.556
34 CP6 146 -2.045
34 CP6 147 -3.510
34 CP6 148 -4.974
34 CP6 149 -5.951
34 CP6 150 -5.463
34 CP6 151 -3.998
34 CP6 152 -1.556
34 CP6 153 -0.580
34 CP6 154 -1.068
34 CP6 155 -2.533
34 CP6 156 -4.974
34 CP6 157 -5.951
34 CP6 158 -5.951
34 CP6 159 -5.463
34 CP6 160 -4.974
34 CP6 161 -4.974
34 CP6 162 -3.998
34 CP6 163 -2.533
34 CP6 164 0.397
34 CP6 165 3.326
34 CP6 166 5.768
34 CP6 167 6.744
34 CP6 168 6.256
34 CP6 169 4.303
34 CP6 170 2.350
34 CP6 171 0.397
34 CP6 172 -1.556
34 CP6 173 -3.021
34 CP6 174 -3.998
34 CP6 175 -3.998
34 CP6 176 -3.998
34 CP6 177 -3.510
34 CP6 178 -2.533
34 CP6 179 -2.045
34 CP6 180 -2.045
34 CP6 181 -1.556
34 CP6 182 -2.045
34 CP6 183 -3.021
34 CP6 184 -3.510
34 CP6 185 -3.998
34 CP6 186 -3.998
34 CP6 187 -3.510
34 CP6 188 -2.045
34 CP6 189 -0.580
34 CP6 190 0.885
34 CP6 191 2.350
34 CP6 192 2.350
34 CP6 193 2.838
34 CP6 194 4.303
34 CP6 195 5.280
34 CP6 196 5.768
34 CP6 197 5.768
34 CP6 198 4.791
34 CP6 199 3.815
34 CP6 200 2.838
34 CP6 201 3.326
34 CP6 202 3.326
34 CP6 203 3.326
34 CP6 204 2.838
34 CP6 205 1.862
34 CP6 206 0.885
34 CP6 207 0.885
34 CP6 208 1.373
34 CP6 209 2.350
34 CP6 210 2.350
34 CP6 211 2.350
34 CP6 212 0.885
34 CP6 213 -1.068
34 CP6 214 -3.021
34 CP6 215 -4.486
34 CP6 216 -4.486
34 CP6 217 -3.510
34 CP6 218 -2.045
34 CP6 219 -0.092
34 CP6 220 1.862
34 CP6 221 2.350
34 CP6 222 1.862
34 CP6 223 0.397
34 CP6 224 -0.580
34 CP6 225 -1.068
34 CP6 226 0.397
34 CP6 227 1.862
34 CP6 228 3.815
34 CP6 229 5.280
34 CP6 230 4.791
34 CP6 231 3.815
34 CP6 232 3.326
34 CP6 233 2.838
34 CP6 234 3.815
34 CP6 235 4.303
34 CP6 236 4.791
34 CP6 237 4.303
34 CP6 238 2.350
34 CP6 239 0.397
34 CP6 240 -1.556
34 CP6 241 -2.045
34 CP6 242 -1.556
34 CP6 243 -2.045
34 CP6 244 -3.021
34 CP6 245 -3.998
34 CP6 246 -4.486
34 CP6 247 -3.021
34 CP6 248 -1.556
34 CP6 249 -0.580
34 CP6 250 -0.580
34 CP6 251 -2.045
34 CP6 252 -3.510
34 CP6 253 -3.998
34 CP6 254 -3.021
34 CP6 255 -1.556
# CP1 chan 20
34 CP1 0 1.709
34 CP1 1 0.244
34 CP1 2 -1.221
34 CP1 3 -2.197
34 CP1 4 -2.686
34 CP1 5 -2.197
34 CP1 6 -0.732
34 CP1 7 0.732
34 CP1 8 2.197
34 CP1 9 4.150
34 CP1 10 5.127
34 CP1 11 4.639
34 CP1 12 3.174
34 CP1 13 1.221
34 CP1 14 -0.244
34 CP1 15 -0.732
34 CP1 16 0.244
34 CP1 17 1.709
34 CP1 18 2.197
34 CP1 19 1.709
34 CP1 20 0.244
34 CP1 21 -0.732
34 CP1 22 -1.221
34 CP1 23 -0.732
34 CP1 24 0.732
34 CP1 25 2.197
34 CP1 26 2.686
34 CP1 27 2.686
34 CP1 28 1.709
34 CP1 29 0.732
34 CP1 30 -0.244
34 CP1 31 -1.221
34 CP1 32 -1.709
34 CP1 33 -1.221
34 CP1 34 -0.244
34 CP1 35 0.732
34 CP1 36 1.709
34 CP1 37 1.221
34 CP1 38 0.244
34 CP1 39 -0.732
34 CP1 40 -1.709
34 CP1 41 -1.221
34 CP1 42 0.244
34 CP1 43 2.197
34 CP1 44 3.662
34 CP1 45 4.150
34 CP1 46 3.662
34 CP1 47 2.686
34 CP1 48 1.221
34 CP1 49 0.244
34 CP1 50 -0.244
34 CP1 51 -0.732
34 CP1 52 -0.732
34 CP1 53 -0.732
34 CP1 54 -0.244
34 CP1 55 -0.732
34 CP1 56 -1.221
34 CP1 57 -1.221
34 CP1 58 -1.221
34 CP1 59 -0.244
34 CP1 60 -0.244
34 CP1 61 0.732
34 CP1 62 1.221
34 CP1 63 1.709
34 CP1 64 1.709
34 CP1 65 2.197
34 CP1 66 2.686
34 CP1 67 2.686
34 CP1 68 2.686
34 CP1 69 2.686
34 CP1 70 2.686
34 CP1 71 2.686
34 CP1 72 3.174
34 CP1 73 3.662
34 CP1 74 4.150
34 CP1 75 4.150
34 CP1 76 3.662
34 CP1 77 3.662
34 CP1 78 3.662
34 CP1 79 3.662
34 CP1 80 3.174
34 CP1 81 3.174
34 CP1 82 2.686
34 CP1 83 1.709
34 CP1 84 1.709
34 CP1 85 2.197
34 CP1 86 2.686
34 CP1 87 3.174
34 CP1 88 3.174
34 CP1 89 2.197
34 CP1 90 1.221
34 CP1 91 0.732
34 CP1 92 1.221
34 CP1 93 2.686
34 CP1 94 4.150
34 CP1 95 6.104
34 CP1 96 6.104
34 CP1 97 5.615
34 CP1 98 4.150
34 CP1 99 2.197
34 CP1 100 1.221
34 CP1 101 1.709
34 CP1 102 2.686
34 CP1 103 4.639
34 CP1 104 6.104
34 CP1 105 6.104
34 CP1 106 5.127
34 CP1 107 3.174
34 CP1 108 1.709
34 CP1 109 0.732
34 CP1 110 1.221
34 CP1 111 2.197
34 CP1 112 3.174
34 CP1 113 2.686
34 CP1 114 2.197
34 CP1 115 0.732
34 CP1 116 -0.244
34 CP1 117 -1.221
34 CP1 118 -1.221
34 CP1 119 -1.221
34 CP1 120 -0.732
34 CP1 121 -0.244
34 CP1 122 0.732
34 CP1 123 1.221
34 CP1 124 1.221
34 CP1 125 1.709
34 CP1 126 1.221
34 CP1 127 0.732
34 CP1 128 0.732
34 CP1 129 0.244
34 CP1 130 -0.244
34 CP1 131 -1.221
34 CP1 132 -2.197
34 CP1 133 -2.197
34 CP1 134 -2.686
34 CP1 135 -2.686
34 CP1 136 -2.197
34 CP1 137 -2.197
34 CP1 138 -2.197
34 CP1 139 -2.197
34 CP1 140 -2.686
34 CP1 141 -2.686
34 CP1 142 -1.709
34 CP1 143 -1.221
34 CP1 144 -0.732
34 CP1 145 -0.732
34 CP1 146 -0.732
34 CP1 147 -1.221
34 CP1 148 -1.709
34 CP1 149 -2.197
34 CP1 150 -1.709
34 CP1 151 -1.221
34 CP1 152 -0.732
34 CP1 153 -0.244
34 CP1 154 0.732
34 CP1 155 1.709
34 CP1 156 2.197
34 CP1 157 2.686
34 CP1 158 2.686
34 CP1 159 2.197
34 CP1 160 1.221
34 CP1 161 0.732
34 CP1 162 -0.244
34 CP1 163 -0.732
34 CP1 164 -0.732
34 CP1 165 -0.732
34 CP1 166 -0.244
34 CP1 167 0.244
34 CP1 168 0.244
34 CP1 169 0.244
34 CP1 170 -0.244
34 CP1 171 -0.732
34 CP1 172 -0.732
34 CP1 173 -0.732
34 CP1 174 -0.244
34 CP1 175 -0.244
34 CP1 176 -0.244
34 CP1 177 -0.244
34 CP1 178 -0.244
34 CP1 179 0.244
34 CP1 180 0.244
34 CP1 181 0.244
34 CP1 182 -0.244
34 CP1 183 -0.732
34 CP1 184 -1.221
34 CP1 185 -1.221
34 CP1 186 -1.221
34 CP1 187 -0.732
34 CP1 188 -0.244
34 CP1 189 -0.244
34 CP1 190 -0.244
34 CP1 191 0.244
34 CP1 192 0.732
34 CP1 193 0.732
34 CP1 194 1.221
34 CP1 195 1.221
34 CP1 196 1.709
34 CP1 197 2.686
34 CP1 198 3.174
34 CP1 199 3.662
34 CP1 200 4.150
34 CP1 201 4.150
34 CP1 202 3.662
34 CP1 203 3.662
34 CP1 204 3.662
34 CP1 205 3.662
34 CP1 206 3.174
34 CP1 207 2.686
34 CP1 208 2.197
34 CP1 209 2.686
34 CP1 210 3.174
34 CP1 211 4.150
34 CP1 212 4.639
34 CP1 213 4.639
34 CP1 214 3.662
34 CP1 215 2.197
34 CP1 216 1.221
34 CP1 217 0.732
34 CP1 218 1.221
34 CP1 219 2.686
34 CP1 220 3.174
34 CP1 221 3.174
34 CP1 222 1.709
34 CP1 223 0.244
34 CP1 224 -0.244
34 CP1 225 -0.244
34 CP1 226 0.732
34 CP1 227 2.686
34 CP1 228 3.662
34 CP1 229 4.150
34 CP1 230 4.639
34 CP1 231 4.639
34 CP1 232 4.639
34 CP1 233 5.127
34 CP1 234 5.127
34 CP1 235 4.639
34 CP1 236 3.662
34 CP1 237 2.686
34 CP1 238 1.709
34 CP1 239 1.221
34 CP1 240 0.732
34 CP1 241 1.221
34 CP1 242 2.197
34 CP1 243 2.686
34 CP1 244 3.174
34 CP1 245 3.174
34 CP1 246 2.686
34 CP1 247 2.686
34 CP1 248 2.197
34 CP1 249 2.197
34 CP1 250 2.197
34 CP1 251 1.709
34 CP1 252 1.221
34 CP1 253 1.709
34 CP1 254 2.686
34 CP1 255 4.150
# CP2 chan 21
34 CP2 0 -1.149
34 CP2 1 -2.126
34 CP2 2 -3.103
34 CP2 3 -4.079
34 CP2 4 -4.567
34 CP2 5 -3.591
34 CP2 6 -1.638
34 CP2 7 -0.173
34 CP2 8 0.804
34 CP2 9 1.780
34 CP2 10 1.780
34 CP2 11 1.292
34 CP2 12 0.315
34 CP2 13 -0.661
34 CP2 14 -1.638
34 CP2 15 -2.126
34 CP2 16 -1.638
34 CP2 17 -0.661
34 CP2 18 0.804
34 CP2 19 1.780
34 CP2 20 2.268
34 CP2 21 1.780
34 CP2 22 1.780
34 CP2 23 1.292
34 CP2 24 1.780
34 CP2 25 1.780
34 CP2 26 1.780
34 CP2 27 2.268
34 CP2 28 1.780
34 CP2 29 1.292
34 CP2 30 0.804
34 CP2 31 -0.661
34 CP2 32 -2.614
34 CP2 33 -4.079
34 CP2 34 -4.567
34 CP2 35 -4.079
34 CP2 36 -2.614
34 CP2 37 -1.638
34 CP2 38 -1.638
34 CP2 39 -2.614
34 CP2 40 -3.591
34 CP2 41 -4.567
34 CP2 42 -4.079
34 CP2 43 -3.103
34 CP2 44 -2.126
34 CP2 45 -1.149
34 CP2 46 -1.149
34 CP2 47 -0.661
34 CP2 48 -0.661
34 CP2 49 -0.173
34 CP2 50 -0.173
34 CP2 51 0.315
34 CP2 52 0.315
34 CP2 53 0.804
34 CP2 54 1.292
34 CP2 55 2.268
34 CP2 56 2.757
34 CP2 57 2.757
34 CP2 58 1.780
34 CP2 59 0.804
34 CP2 60 0.315
34 CP2 61 0.315
34 CP2 62 1.292
34 CP2 63 2.268
34 CP2 64 3.245
34 CP2 65 3.245
34 CP2 66 2.268
34 CP2 67 0.804
34 CP2 68 -0.661
34 CP2 69 -0.661
34 CP2 70 -0.173
34 CP2 71 0.804
34 CP2 72 1.780
34 CP2 73 1.292
34 CP2 74 1.292
34 CP2 75 0.804
34 CP2 76 1.292
34 CP2 77 2.268
34 CP2 78 3.245
34 CP2 79 4.222
34 CP2 80 4.222
34 CP2 81 3.245
34 CP2 82 2.757
34 CP2 83 2.757
34 CP2 84 2.757
34 CP2 85 3.733
34 CP2 86 3.733
34 CP2 87 3.245
34 CP2 88 2.268
34 CP2 89 1.780
34 CP2 90 0.804
34 CP2 91 0.804
34 CP2 92 1.292
34 CP2 93 2.268
34 CP2 94 3.245
34 CP2 95 3.245
34 CP2 96 3.245
34 CP2 97 2.268
34 CP2 98 0.804
34 CP2 99 0.315
34 CP2 100 0.804
34 CP2 101 1.780
34 CP2 102 3.245
34 CP2 103 4.222
34 CP2 104 4.222
34 CP2 105 3.733
34 CP2 106 2.757
34 CP2 107 2.757
34 CP2 108 2.757
34 CP2 109 2.757
34 CP2 110 3.245
34 CP2 111 3.245
34 CP2 112 3.245
34 CP2 113 2.757
34 CP2 114 1.780
34 CP2 115 1.292
34 CP2 116 0.804
34 CP2 117 1.292
34 CP2 118 1.780
34 CP2 119 2.757
34 CP2 120 3.245
34 CP2 121 2.757
34 CP2 122 2.268
34 CP2 123 1.292
34 CP2 124 0.315
34 CP2 125 -0.661
34 CP2 126 -1.638
34 CP2 127 -2.614
34 CP2 128 -2.614
34 CP2 129 -2.126
34 CP2 130 -0.661
34 CP2 131 1.292
34 CP2 132 2.757
34 CP2 133 4.222
34 CP2 134 4.710
34 CP2 135 4.222
34 CP2 136 3.733
34 CP2 137 2.757
34 CP2 138 1.292
34 CP2 139 1.292
34 CP2 140 1.292
34 CP2 141 1.780
34 CP2 142 2.757
34 CP2 143 3.245
34 CP2 144 2.757
34 CP2 145 2.268
34 CP2 146 1.292
34 CP2 147 0.315
34 CP2 148 -0.173
34 CP2 149 -0.661
34 CP2 150 -0.661
34 CP2 151 0.315
34 CP2 152 0.804
34 CP2 153 0.804
34 CP2 154 0.804
34 CP2 155 -0.173
34 CP2 156 -1.149
34 CP2 157 -1.638
34 CP2 158 -1.638
34 CP2 159 -1.149
34 CP2 160 -0.661
34 CP2 161 0.315
34 CP2 162 0.804
34 CP2 163 1.780
34 CP2 164 3.245
34 CP2 165 4.710
34 CP2 166 6.175
34 CP2 167 7.151
34 CP2 168 7.151
34 CP2 169 6.175
34 CP2 170 4.710
34 CP2 171 3.245
34 CP2 172 2.268
34 CP2 173 1.292
34 CP2 174 0.315
34 CP2 175 -0.661
34 CP2 176 -0.661
34 CP2 177 -0.661
34 CP2 178 0.315
34 CP2 179 0.804
34 CP2 180 0.804
34 CP2 181 0.804
34 CP2 182 0.804
34 CP2 183 0.804
34 CP2 184 0.804
34 CP2 185 0.804
34 CP2 186 0.804
34 CP2 187 0.804
34 CP2 188 1.292
34 CP2 189 1.780
34 CP2 190 2.268
34 CP2 191 2.757
34 CP2 192 3.245
34 CP2 193 4.222
34 CP2 194 5.198
34 CP2 195 6.663
34 CP2 196 7.151
34 CP2 197 7.151
34 CP2 198 6.175
34 CP2 199 5.686
34 CP2 200 5.198
34 CP2 201 5.198
34 CP2 202 5.198
34 CP2 203 4.710
34 CP2 204 4.222
34 CP2 205 3.245
34 CP2 206 3.245
34 CP2 207 2.757
34 CP2 208 3.245
34 CP2 209 3.733
34 CP2 210 4.222
34 CP2 211 4.222
34 CP2 212 4.222
34 CP2 213 3.245
34 CP2 214 2.757
34 CP2 215 2.268
34 CP2 216 1.780
34 CP2 217 2.268
34 CP2 218 3.245
34 CP2 219 4.710
34 CP2 220 5.198
34 CP2 221 4.710
34 CP2 222 3.245
34 CP2 223 1.780
34 CP2 224 0.804
34 CP2 225 0.804
34 CP2 226 1.292
34 CP2 227 2.757
34 CP2 228 3.733
34 CP2 229 4.222
34 CP2 230 3.733
34 CP2 231 2.757
34 CP2 232 2.268
34 CP2 233 2.268
34 CP2 234 3.245
34 CP2 235 4.710
34 CP2 236 5.686
34 CP2 237 5.686
34 CP2 238 5.198
34 CP2 239 4.222
34 CP2 240 3.245
34 CP2 241 3.245
34 CP2 242 3.245
34 CP2 243 3.733
34 CP2 244 4.222
34 CP2 245 4.222
34 CP2 246 4.222
34 CP2 247 4.222
34 CP2 248 4.222
34 CP2 249 3.733
34 CP2 250 2.757
34 CP2 251 1.780
34 CP2 252 0.804
34 CP2 253 0.315
34 CP2 254 1.292
34 CP2 255 2.757
# P3 chan 22
34 P3 0 -0.793
34 P3 1 -1.282
34 P3 2 -2.258
34 P3 3 -2.747
34 P3 4 -2.258
34 P3 5 -0.793
34 P3 6 0.671
34 P3 7 2.625
34 P3 8 4.089
34 P3 9 5.554
34 P3 10 7.019
34 P3 11 6.531
34 P3 12 4.089
34 P3 13 0.671
34 P3 14 -2.258
34 P3 15 -2.747
34 P3 16 -2.258
34 P3 17 -0.793
34 P3 18 0.671
34 P3 19 0.183
34 P3 20 -0.793
34 P3 21 -1.770
34 P3 22 -2.258
34 P3 23 -1.770
34 P3 24 -0.305
34 P3 25 1.160
34 P3 26 2.136
34 P3 27 2.625
34 P3 28 2.625
34 P3 29 2.136
34 P3 30 1.160
34 P3 31 -0.305
34 P3 32 -1.770
34 P3 33 -2.258
34 P3 34 -2.258
34 P3 35 -0.793
34 P3 36 -0.305
34 P3 37 -0.793
34 P3 38 -2.258
34 P3 39 -4.700
34 P3 40 -6.165
34 P3 41 -5.676
34 P3 42 -3.235
34 P3 43 0.183
34 P3 44 3.113
34 P3 45 5.066
34 P3 46 4.578
34 P3 47 3.113
34 P3 48 1.160
34 P3 49 -1.282
34 P3 50 -3.235
34 P3 51 -4.211
34 P3 52 -3.723
34 P3 53 -3.235
34 P3 54 -2.258
34 P3 55 -1.770
34 P3 56 -1.770
34 P3 57 -2.258
34 P3 58 -2.258
34 P3 59 -1.282
34 P3 60 -0.305
34 P3 61 1.648
34 P3 62 3.113
34 P3 63 3.601
34 P3 64 4.089
34 P3 65 4.089
34 P3 66 3.601
34 P3 67 3.601
34 P3 68 3.113
34 P3 69 3.113
34 P3 70 2.625
34 P3 71 3.113
34 P3 72 3.601
34 P3 73 4.089
34 P3 74 4.578
34 P3 75 5.066
34 P3 76 5.554
34 P3 77 5.554
34 P3 78 5.066
34 P3 79 5.066
34 P3 80 5.066
34 P3 81 5.066
34 P3 82 4.089
34 P3 83 3.113
34 P3 84 2.136
34 P3 85 2.136
34 P3 86 3.113
34 P3 87 4.578
34 P3 88 4.578
34 P3 89 4.089
34 P3 90 3.113
34 P3 91 2.136
34 P3 92 3.113
34 P3 93 5.554
34 P3 94 7.996
34 P3 95 9.949
34 P3 96 10.437
34 P3 97 8.972
34 P3 98 7.019
34 P3 99 5.066
34 P3 100 4.089
34 P3 101 4.578
34 P3 102 6.042
34 P3 103 7.996
34 P3 104 9.460
34 P3 105 9.460
34 P3 106 8.484
34 P3 107 7.019
34 P3 108 5.066
34 P3 109 5.066
34 P3 110 5.554
34 P3 111 7.019
34 P3 112 7.996
34 P3 113 7.507
34 P3 114 6.042
34 P3 115 3.601
34 P3 116 1.648
34 P3 117 0.183
34 P3 118 -0.305
34 P3 119 0.183
34 P3 120 1.160
34 P3 121 3.113
34 P3 122 4.578
34 P3 123 5.066
34 P3 124 4.578
34 P3 125 4.578
34 P3 126 4.089
34 P3 127 4.089
34 P3 128 4.089
34 P3 129 4.089
34 P3 130 3.113
34 P3 131 1.648
34 P3 132 0.671
34 P3 133 0.183
34 P3 134 -0.305
34 P3 135 -0.305
34 P3 136 -0.305
34 P3 137 -0.305
34 P3 138 -0.305
34 P3 139 -0.305
34 P3 140 0.183
34 P3 141 0.671
34 P3 142 1.648
34 P3 143 2.625
34 P3 144 3.113
34 P3 145 2.625
34 P3 146 1.160
34 P3 147 -0.305
34 P3 148 -1.770
34 P3 149 -1.770
34 P3 150 -0.793
34 P3 151 0.183
34 P3 152 1.648
34 P3 153 3.113
34 P3 154 4.578
34 P3 155 6.531
34 P3 156 7.996
34 P3 157 9.460
34 P3 158 9.949
34 P3 159 9.460
34 P3 160 7.996
34 P3 161 6.042
34 P3 162 4.089
34 P3 163 2.625
34 P3 164 2.136
34 P3 165 2.625
34 P3 166 3.113
34 P3 167 4.089
34 P3 168 4.089
34 P3 169 3.601
34 P3 170 1.648
34 P3 171 0.671
34 P3 172 0.183
34 P3 173 0.671
34 P3 174 1.648
34 P3 175 1.648
34 P3 176 1.160
34 P3 177 0.671
34 P3 178 0.183
34 P3 179 0.671
34 P3 180 1.160
34 P3 181 0.671
34 P3 182 -0.305
34 P3 183 -2.258
34 P3 184 -2.747
34 P3 185 -2.258
34 P3 186 -1.770
34 P3 187 -0.793
34 P3 188 -0.305
34 P3 189 -0.305
34 P3 190 0.183
34 P3 191 1.160
34 P3 192 2.136
34 P3 193 2.625
34 P3 194 3.113
34 P3 195 3.113
34 P3 196 4.089
34 P3 197 5.554
34 P3 198 7.019
34 P3 199 8.484
34 P3 200 8.484
34 P3 201 8.972
34 P3 202 8.972
34 P3 203 8.972
34 P3 204 9.460
34 P3 205 8.972
34 P3 206 7.996
34 P3 207 7.019
34 P3 208 6.531
34 P3 209 7.019
34 P3 210 7.996
34 P3 211 9.460
34 P3 212 9.460
34 P3 213 7.996
34 P3 214 5.554
34 P3 215 2.625
34 P3 216 0.671
34 P3 217 0.183
34 P3 218 1.648
34 P3 219 4.089
34 P3 220 5.554
34 P3 221 4.578
34 P3 222 1.648
34 P3 223 -1.770
34 P3 224 -3.235
34 P3 225 -2.258
34 P3 226 1.160
34 P3 227 5.554
34 P3 228 7.996
34 P3 229 9.460
34 P3 230 8.972
34 P3 231 8.972
34 P3 232 9.460
34 P3 233 10.437
34 P3 234 10.437
34 P3 235 8.972
34 P3 236 7.019
34 P3 237 5.066
34 P3 238 3.113
34 P3 239 2.625
34 P3 240 2.625
34 P3 241 3.113
34 P3 242 3.113
34 P3 243 3.113
34 P3 244 2.625
34 P3 245 1.648
34 P3 246 0.671
34 P3 247 0.671
34 P3 248 0.671
34 P3 249 0.671
34 P3 250 1.160
34 P3 251 0.671
34 P3 252 0.671
34 P3 253 1.648
34 P3 254 4.089
34 P3 255 7.019
# P4 chan 23
34 P4 0 -2.380
34 P4 1 -2.869
34 P4 2 -3.845
34 P4 3 -4.333
34 P4 4 -3.845
34 P4 5 -2.380
34 P4 6 -0.427
34 P4 7 2.014
34 P4 8 4.456
34 P4 9 5.920
34 P4 10 5.920
34 P4 11 5.432
34 P4 12 3.479
34 P4 13 1.038
34 P4 14 -1.404
34 P4 15 -2.380
34 P4 16 -1.892
34 P4 17 -0.916
34 P4 18 0.549
34 P4 19 2.014
34 P4 20 2.502
34 P4 21 2.991
34 P4 22 2.014
34 P4 23 1.526
34 P4 24 1.038
34 P4 25 1.038
34 P4 26 1.038
34 P4 27 1.526
34 P4 28 2.014
34 P4 29 2.014
34 P4 30 1.038
34 P4 31 -0.916
34 P4 32 -3.845
34 P4 33 -5.798
34 P4 34 -6.287
34 P4 35 -5.798
34 P4 36 -4.822
34 P4 37 -4.333
34 P4 38 -4.822
34 P4 39 -6.775
34 P4 40 -8.728
34 P4 41 -9.705
34 P4 42 -9.705
34 P4 43 -8.240
34 P4 44 -6.287
34 P4 45 -4.822
34 P4 46 -3.357
34 P4 47 -2.380
34 P4 48 -1.892
34 P4 49 -1.892
34 P4 50 -1.892
34 P4 51 -1.892
34 P4 52 -1.892
34 P4 53 -0.916
34 P4 54 0.061
34 P4 55 1.038
34 P4 56 2.014
34 P4 57 2.014
34 P4 58 1.038
34 P4 59 0.549
34 P4 60 0.061
34 P4 61 0.549
34 P4 62 1.526
34 P4 63 2.502
34 P4 64 2.991
34 P4 65 2.014
34 P4 66 0.061
34 P4 67 -1.892
34 P4 68 -3.357
34 P4 69 -2.869
34 P4 70 -1.892
34 P4 71 0.061
34 P4 72 1.038
34 P4 73 0.549
34 P4 74 0.061
34 P4 75 0.061
34 P4 76 0.549
34 P4 77 2.014
34 P4 78 3.479
34 P4 79 3.967
34 P4 80 3.479
34 P4 81 2.014
34 P4 82 1.038
34 P4 83 1.038
34 P4 84 1.526
34 P4 85 2.991
34 P4 86 3.479
34 P4 87 2.991
34 P4 88 2.014
34 P4 89 0.549
34 P4 90 -0.427
34 P4 91 -0.916
34 P4 92 -0.427
34 P4 93 1.038
34 P4 94 2.502
34 P4 95 2.991
34 P4 96 2.014
34 P4 97 0.549
34 P4 98 -1.404
34 P4 99 -1.892
34 P4 100 -0.916
34 P4 101 1.038
34 P4 102 2.991
34 P4 103 4.456
34 P4 104 3.967
34 P4 105 3.479
34 P4 106 2.502
34 P4 107 1.526
34 P4 108 1.526
34 P4 109 2.014
34 P4 110 2.014
34 P4 111 2.014
34 P4 112 1.038
34 P4 113 -0.427
34 P4 114 -1.404
34 P4 115 -2.380
34 P4 116 -1.892
34 P4 117 -0.916
34 P4 118 0.549
34 P4 119 1.526
34 P4 120 1.526
34 P4 121 0.549
34 P4 122 -0.916
34 P4 123 -2.380
34 P4 124 -3.845
34 P4 125 -5.310
34 P4 126 -6.287
34 P4 127 -6.775
34 P4 128 -5.798
34 P4 129 -3.845
34 P4 130 -1.892
34 P4 131 0.549
34 P4 132 2.502
34 P4 133 3.967
34 P4 134 3.967
34 P4 135 3.967
34 P4 136 2.502
34 P4 137 1.038
34 P4 138 0.061
34 P4 139 -0.427
34 P4 140 0.061
34 P4 141 0.549
34 P4 142 1.038
34 P4 143 1.038
34 P4 144 1.038
34 P4 145 0.549
34 P4 146 0.061
34 P4 147 -1.404
34 P4 148 -2.380
34 P4 149 -3.845
34 P4 150 -3.357
34 P4 151 -2.380
34 P4 152 -0.916
34 P4 153 -0.427
34 P4 154 -0.427
34 P4 155 -0.916
34 P4 156 -1.892
34 P4 157 -2.380
34 P4 158 -1.892
34 P4 159 -1.892
34 P4 160 -1.892
34 P4 161 -1.892
34 P4 162 -0.916
34 P4 163 1.038
34 P4 164 3.479
34 P4 165 5.920
34 P4 166 8.362
34 P4 167 8.850
34 P4 168 8.362
34 P4 169 7.385
34 P4 170 5.432
34 P4 171 2.991
34 P4 172 0.549
34 P4 173 -1.404
34 P4 174 -2.869
34 P4 175 -3.357
34 P4 176 -2.869
34 P4 177 -2.380
34 P4 178 -1.892
34 P4 179 -1.892
34 P4 180 -2.380
34 P4 181 -2.380
34 P4 182 -2.869
34 P4 183 -3.357
34 P4 184 -3.357
34 P4 185 -3.845
34 P4 186 -3.357
34 P4 187 -2.380
34 P4 188 -1.404
34 P4 189 -0.916
34 P4 190 0.061
34 P4 191 0.549
34 P4 192 1.526
34 P4 193 3.479
34 P4 194 5.432
34 P4 195 7.385
34 P4 196 7.874
34 P4 197 7.874
34 P4 198 7.385
34 P4 199 6.897
34 P4 200 6.897
34 P4 201 6.409
34 P4 202 5.920
34 P4 203 4.944
34 P4 204 3.967
34 P4 205 2.502
34 P4 206 2.502
34 P4 207 2.502
34 P4 208 2.991
34 P4 209 2.991
34 P4 210 3.479
34 P4 211 2.991
34 P4 212 2.502
34 P4 213 1.526
34 P4 214 0.061
34 P4 215 -0.916
34 P4 216 -0.916
34 P4 217 0.061
34 P4 218 1.526
34 P4 219 3.479
34 P4 220 3.967
34 P4 221 2.991
34 P4 222 1.526
34 P4 223 -0.916
34 P4 224 -1.892
34 P4 225 -2.380
34 P4 226 -0.916
34 P4 227 1.526
34 P4 228 3.479
34 P4 229 4.456
34 P4 230 4.456
34 P4 231 2.991
34 P4 232 1.526
34 P4 233 1.038
34 P4 234 2.014
34 P4 235 3.479
34 P4 236 3.967
34 P4 237 3.967
34 P4 238 1.526
34 P4 239 -0.427
34 P4 240 -1.892
34 P4 241 -1.404
34 P4 242 -0.427
34 P4 243 0.061
34 P4 244 0.061
34 P4 245 -0.916
34 P4 246 -1.892
34 P4 247 -1.404
34 P4 248 -0.427
34 P4 249 0.061
34 P4 250 -0.916
34 P4 251 -2.380
34 P4 252 -3.845
34 P4 253 -3.357
34 P4 254 -1.404
34 P4 255 1.038
# PZ chan 24
34 PZ 0 0.875
34 PZ 1 0.387
34 PZ 2 -1.078
34 PZ 3 -1.567
34 PZ 4 -0.590
34 PZ 5 0.875
34 PZ 6 2.828
34 PZ 7 4.781
34 PZ 8 5.758
34 PZ 9 6.734
34 PZ 10 7.222
34 PZ 11 7.222
34 PZ 12 5.269
34 PZ 13 2.828
34 PZ 14 0.387
34 PZ 15 -1.567
34 PZ 16 -1.567
34 PZ 17 -0.590
34 PZ 18 0.387
34 PZ 19 0.875
34 PZ 20 0.875
34 PZ 21 0.387
34 PZ 22 -0.102
34 PZ 23 0.387
34 PZ 24 0.875
34 PZ 25 1.363
34 PZ 26 1.851
34 PZ 27 2.340
34 PZ 28 2.340
34 PZ 29 1.851
34 PZ 30 1.363
34 PZ 31 0.387
34 PZ 32 -1.078
34 PZ 33 -2.055
34 PZ 34 -2.055
34 PZ 35 -1.567
34 PZ 36 -0.590
34 PZ 37 -0.590
34 PZ 38 -1.078
34 PZ 39 -3.031
34 PZ 40 -4.496
34 PZ 41 -4.985
34 PZ 42 -3.520
34 PZ 43 -1.078
34 PZ 44 1.851
34 PZ 45 3.316
34 PZ 46 3.805
34 PZ 47 3.316
34 PZ 48 1.851
34 PZ 49 0.875
34 PZ 50 -0.590
34 PZ 51 -1.567
34 PZ 52 -1.567
34 PZ 53 -1.567
34 PZ 54 -0.590
34 PZ 55 0.387
34 PZ 56 0.387
34 PZ 57 0.387
34 PZ 58 0.387
34 PZ 59 -0.102
34 PZ 60 -0.102
34 PZ 61 0.875
34 PZ 62 2.340
34 PZ 63 3.316
34 PZ 64 3.805
34 PZ 65 3.316
34 PZ 66 1.851
34 PZ 67 0.875
34 PZ 68 -0.102
34 PZ 69 -0.102
34 PZ 70 0.875
34 PZ 71 1.851
34 PZ 72 2.340
34 PZ 73 2.828
34 PZ 74 2.828
34 PZ 75 2.828
34 PZ 76 3.316
34 PZ 77 4.293
34 PZ 78 4.781
34 PZ 79 5.269
34 PZ 80 4.781
34 PZ 81 3.805
34 PZ 82 2.340
34 PZ 83 1.363
34 PZ 84 1.363
34 PZ 85 1.851
34 PZ 86 3.316
34 PZ 87 3.805
34 PZ 88 3.316
34 PZ 89 1.851
34 PZ 90 0.387
34 PZ 91 -0.102
34 PZ 92 0.875
34 PZ 93 2.828
34 PZ 94 5.269
34 PZ 95 6.734
34 PZ 96 6.734
34 PZ 97 4.781
34 PZ 98 2.828
34 PZ 99 1.363
34 PZ 100 0.875
34 PZ 101 1.851
34 PZ 102 4.293
34 PZ 103 6.246
34 PZ 104 6.734
34 PZ 105 6.246
34 PZ 106 4.293
34 PZ 107 2.828
34 PZ 108 1.851
34 PZ 109 1.851
34 PZ 110 2.828
34 PZ 111 3.805
34 PZ 112 4.293
34 PZ 113 3.316
34 PZ 114 1.851
34 PZ 115 0.387
34 PZ 116 -1.078
34 PZ 117 -1.567
34 PZ 118 -1.078
34 PZ 119 -0.102
34 PZ 120 0.875
34 PZ 121 1.363
34 PZ 122 1.363
34 PZ 123 1.363
34 PZ 124 0.875
34 PZ 125 0.387
34 PZ 126 -0.102
34 PZ 127 -0.590
34 PZ 128 -1.078
34 PZ 129 -1.567
34 PZ 130 -1.567
34 PZ 131 -1.078
34 PZ 132 -0.590
34 PZ 133 0.387
34 PZ 134 0.387
34 PZ 135 0.387
34 PZ 136 0.387
34 PZ 137 0.387
34 PZ 138 -0.102
34 PZ 139 -0.102
34 PZ 140 -0.102
34 PZ 141 0.387
34 PZ 142 0.875
34 PZ 143 0.875
34 PZ 144 0.875
34 PZ 145 0.875
34 PZ 146 -0.102
34 PZ 147 -1.078
34 PZ 148 -2.055
34 PZ 149 -2.543
34 PZ 150 -2.543
34 PZ 151 -2.055
34 PZ 152 -0.590
34 PZ 153 0.387
34 PZ 154 0.875
34 PZ 155 1.363
34 PZ 156 2.340
34 PZ 157 2.828
34 PZ 158 2.828
34 PZ 159 2.828
34 PZ 160 2.828
34 PZ 161 2.340
34 PZ 162 1.851
34 PZ 163 1.851
34 PZ 164 2.828
34 PZ 165 3.805
34 PZ 166 4.781
34 PZ 167 5.758
34 PZ 168 5.758
34 PZ 169 4.781
34 PZ 170 3.316
34 PZ 171 1.851
34 PZ 172 0.387
34 PZ 173 -0.102
34 PZ 174 -0.102
34 PZ 175 -0.102
34 PZ 176 -0.102
34 PZ 177 0.387
34 PZ 178 -0.102
34 PZ 179 -0.102
34 PZ 180 0.387
34 PZ 181 0.387
34 PZ 182 -0.102
34 PZ 183 -0.590
34 PZ 184 -1.078
34 PZ 185 -1.078
34 PZ 186 -1.567
34 PZ 187 -1.567
34 PZ 188 -1.078
34 PZ 189 -0.590
34 PZ 190 -0.102
34 PZ 191 0.875
34 PZ 192 1.851
34 PZ 193 2.828
34 PZ 194 3.805
34 PZ 195 4.781
34 PZ 196 5.758
34 PZ 197 7.222
34 PZ 198 7.711
34 PZ 199 7.711
34 PZ 200 7.711
34 PZ 201 6.734
34 PZ 202 6.246
34 PZ 203 5.758
34 PZ 204 5.269
34 PZ 205 4.781
34 PZ 206 4.293
34 PZ 207 3.805
34 PZ 208 3.805
34 PZ 209 4.293
34 PZ 210 4.781
34 PZ 211 5.758
34 PZ 212 5.269
34 PZ 213 5.269
34 PZ 214 4.293
34 PZ 215 2.340
34 PZ 216 1.851
34 PZ 217 1.851
34 PZ 218 2.828
34 PZ 219 4.293
34 PZ 220 4.781
34 PZ 221 4.293
34 PZ 222 2.340
34 PZ 223 -0.102
34 PZ 224 -1.567
34 PZ 225 -1.567
34 PZ 226 0.875
34 PZ 227 3.316
34 PZ 228 5.269
34 PZ 229 6.246
34 PZ 230 5.758
34 PZ 231 5.269
34 PZ 232 4.781
34 PZ 233 4.781
34 PZ 234 5.269
34 PZ 235 5.758
34 PZ 236 5.758
34 PZ 237 4.781
34 PZ 238 3.316
34 PZ 239 1.851
34 PZ 240 0.875
34 PZ 241 1.363
34 PZ 242 2.340
34 PZ 243 3.316
34 PZ 244 4.293
34 PZ 245 3.805
34 PZ 246 2.828
34 PZ 247 2.340
34 PZ 248 1.851
34 PZ 249 1.851
34 PZ 250 1.363
34 PZ 251 0.875
34 PZ 252 0.875
34 PZ 253 1.363
34 PZ 254 2.828
34 PZ 255 5.269
# P8 chan 25
34 P8 0 -4.801
34 P8 1 -4.313
34 P8 2 -4.313
34 P8 3 -3.825
34 P8 4 -2.360
34 P8 5 -0.895
34 P8 6 1.058
34 P8 7 3.011
34 P8 8 4.964
34 P8 9 6.429
34 P8 10 7.406
34 P8 11 6.917
34 P8 12 5.452
34 P8 13 2.523
34 P8 14 0.081
34 P8 15 -2.360
34 P8 16 -3.337
34 P8 17 -2.848
34 P8 18 -0.895
34 P8 19 1.546
34 P8 20 3.499
34 P8 21 4.476
34 P8 22 4.964
34 P8 23 4.476
34 P8 24 3.988
34 P8 25 3.011
34 P8 26 2.523
34 P8 27 2.035
34 P8 28 2.035
34 P8 29 2.523
34 P8 30 2.523
34 P8 31 2.035
34 P8 32 0.570
34 P8 33 -1.872
34 P8 34 -4.801
34 P8 35 -6.266
34 P8 36 -6.755
34 P8 37 -6.266
34 P8 38 -6.266
34 P8 39 -7.243
34 P8 40 -8.708
34 P8 41 -9.684
34 P8 42 -10.661
34 P8 43 -10.173
34 P8 44 -9.196
34 P8 45 -8.219
34 P8 46 -7.243
34 P8 47 -5.778
34 P8 48 -3.825
34 P8 49 -2.848
34 P8 50 -2.848
34 P8 51 -3.825
34 P8 52 -5.290
34 P8 53 -6.755
34 P8 54 -6.266
34 P8 55 -4.801
34 P8 56 -2.360
34 P8 57 -0.407
34 P8 58 0.081
34 P8 59 -0.895
34 P8 60 -1.872
34 P8 61 -2.360
34 P8 62 -1.872
34 P8 63 -0.895
34 P8 64 -0.407
34 P8 65 -1.383
34 P8 66 -2.360
34 P8 67 -3.337
34 P8 68 -3.825
34 P8 69 -3.337
34 P8 70 -1.872
34 P8 71 -0.407
34 P8 72 0.570
34 P8 73 0.570
34 P8 74 0.570
34 P8 75 0.570
34 P8 76 0.081
34 P8 77 0.081
34 P8 78 0.081
34 P8 79 0.081
34 P8 80 -0.407
34 P8 81 -1.872
34 P8 82 -2.360
34 P8 83 -2.360
34 P8 84 -0.895
34 P8 85 1.058
34 P8 86 3.011
34 P8 87 3.988
34 P8 88 3.011
34 P8 89 0.570
34 P8 90 -1.383
34 P8 91 -2.848
34 P8 92 -2.360
34 P8 93 -0.895
34 P8 94 1.058
34 P8 95 1.546
34 P8 96 -0.407
34 P8 97 -3.337
34 P8 98 -6.266
34 P8 99 -7.243
34 P8 100 -5.778
34 P8 101 -2.360
34 P8 102 1.546
34 P8 103 3.499
34 P8 104 3.011
34 P8 105 1.058
34 P8 106 -0.895
34 P8 107 -2.360
34 P8 108 -1.383
34 P8 109 0.081
34 P8 110 1.546
34 P8 111 1.058
34 P8 112 -0.407
34 P8 113 -2.848
34 P8 114 -4.313
34 P8 115 -5.290
34 P8 116 -5.290
34 P8 117 -4.313
34 P8 118 -3.337
34 P8 119 -1.872
34 P8 120 -0.407
34 P8 121 -0.407
34 P8 122 -1.383
34 P8 123 -3.337
34 P8 124 -5.290
34 P8 125 -5.778
34 P8 126 -4.801
34 P8 127 -1.872
34 P8 128 0.570
34 P8 129 2.035
34 P8 130 2.523
34 P8 131 2.523
34 P8 132 3.011
34 P8 133 3.988
34 P8 134 4.964
34 P8 135 4.964
34 P8 136 3.988
34 P8 137 2.035
34 P8 138 0.570
34 P8 139 0.081
34 P8 140 0.570
34 P8 141 1.058
34 P8 142 1.058
34 P8 143 0.081
34 P8 144 -0.895
34 P8 145 -1.872
34 P8 146 -2.848
34 P8 147 -3.825
34 P8 148 -4.801
34 P8 149 -5.778
34 P8 150 -5.290
34 P8 151 -3.825
34 P8 152 -1.872
34 P8 153 0.570
34 P8 154 1.546
34 P8 155 1.546
34 P8 156 1.058
34 P8 157 1.058
34 P8 158 2.035
34 P8 159 2.523
34 P8 160 2.035
34 P8 161 1.546
34 P8 162 1.546
34 P8 163 2.523
34 P8 164 4.964
34 P8 165 7.894
34 P8 166 9.359
34 P8 167 9.359
34 P8 168 7.894
34 P8 169 6.429
34 P8 170 4.964
34 P8 171 3.499
34 P8 172 1.546
34 P8 173 -0.407
34 P8 174 -2.848
34 P8 175 -4.313
34 P8 176 -4.313
34 P8 177 -2.360
34 P8 178 -0.407
34 P8 179 1.058
34 P8 180 1.546
34 P8 181 0.081
34 P8 182 -1.383
34 P8 183 -2.848
34 P8 184 -3.825
34 P8 185 -4.313
34 P8 186 -3.825
34 P8 187 -3.337
34 P8 188 -2.360
34 P8 189 -1.383
34 P8 190 0.570
34 P8 191 2.523
34 P8 192 4.476
34 P8 193 6.429
34 P8 194 8.382
34 P8 195 8.870
34 P8 196 8.870
34 P8 197 8.382
34 P8 198 7.406
34 P8 199 7.406
34 P8 200 6.917
34 P8 201 6.917
34 P8 202 6.429
34 P8 203 6.429
34 P8 204 5.941
34 P8 205 4.476
34 P8 206 3.499
34 P8 207 3.011
34 P8 208 2.523
34 P8 209 2.035
34 P8 210 2.035
34 P8 211 1.058
34 P8 212 -0.895
34 P8 213 -2.848
34 P8 214 -4.801
34 P8 215 -6.755
34 P8 216 -6.755
34 P8 217 -5.290
34 P8 218 -3.825
34 P8 219 -1.383
34 P8 220 -0.407
34 P8 221 0.570
34 P8 222 -0.407
34 P8 223 -1.872
34 P8 224 -3.337
34 P8 225 -3.337
34 P8 226 -1.872
34 P8 227 0.570
34 P8 228 3.011
34 P8 229 4.476
34 P8 230 4.476
34 P8 231 3.499
34 P8 232 3.011
34 P8 233 2.523
34 P8 234 3.988
34 P8 235 5.452
34 P8 236 6.429
34 P8 237 4.964
34 P8 238 1.546
34 P8 239 -2.360
34 P8 240 -5.778
34 P8 241 -6.266
34 P8 242 -4.801
34 P8 243 -2.848
34 P8 244 -1.872
34 P8 245 -3.337
34 P8 246 -6.266
34 P8 247 -8.219
34 P8 248 -8.708
34 P8 249 -6.755
34 P8 250 -5.290
34 P8 251 -3.825
34 P8 252 -3.337
34 P8 253 -2.848
34 P8 254 -1.872
34 P8 255 -0.407
# P7 chan 26
34 P7 0 -0.509
34 P7 1 -0.997
34 P7 2 -1.485
34 P7 3 -0.509
34 P7 4 1.444
34 P7 5 2.909
34 P7 6 4.862
34 P7 7 5.839
34 P7 8 7.304
34 P7 9 8.280
34 P7 10 8.769
34 P7 11 8.280
34 P7 12 5.351
34 P7 13 1.444
34 P7 14 -2.950
34 P7 15 -5.391
34 P7 16 -6.368
34 P7 17 -5.880
34 P7 18 -5.391
34 P7 19 -4.415
34 P7 20 -3.927
34 P7 21 -3.927
34 P7 22 -3.438
34 P7 23 -2.462
34 P7 24 -0.997
34 P7 25 -0.020
34 P7 26 1.444
34 P7 27 2.909
34 P7 28 4.862
34 P7 29 6.816
34 P7 30 6.816
34 P7 31 5.839
34 P7 32 3.398
34 P7 33 1.444
34 P7 34 -0.020
34 P7 35 -0.020
34 P7 36 -0.020
34 P7 37 -0.509
34 P7 38 -2.950
34 P7 39 -5.391
34 P7 40 -6.856
34 P7 41 -6.856
34 P7 42 -3.927
34 P7 43 0.468
34 P7 44 4.862
34 P7 45 7.792
34 P7 46 8.769
34 P7 47 7.304
34 P7 48 4.374
34 P7 49 -0.020
34 P7 50 -3.927
34 P7 51 -6.856
34 P7 52 -6.856
34 P7 53 -5.880
34 P7 54 -3.438
34 P7 55 -1.973
34 P7 56 -2.462
34 P7 57 -3.927
34 P7 58 -4.903
34 P7 59 -4.415
34 P7 60 -2.462
34 P7 61 0.468
34 P7 62 2.421
34 P7 63 3.398
34 P7 64 3.398
34 P7 65 2.909
34 P7 66 2.909
34 P7 67 2.909
34 P7 68 2.909
34 P7 69 2.909
34 P7 70 2.909
34 P7 71 2.421
34 P7 72 1.933
34 P7 73 1.933
34 P7 74 1.933
34 P7 75 2.909
34 P7 76 3.398
34 P7 77 3.398
34 P7 78 2.909
34 P7 79 1.933
34 P7 80 0.468
34 P7 81 -0.997
34 P7 82 -1.485
34 P7 83 -1.485
34 P7 84 -1.485
34 P7 85 -0.509
34 P7 86 0.468
34 P7 87 0.956
34 P7 88 1.933
34 P7 89 1.444
34 P7 90 0.956
34 P7 91 0.956
34 P7 92 1.933
34 P7 93 3.886
34 P7 94 6.327
34 P7 95 8.280
34 P7 96 8.769
34 P7 97 7.792
34 P7 98 5.839
34 P7 99 4.374
34 P7 100 3.398
34 P7 101 3.886
34 P7 102 4.862
34 P7 103 5.839
34 P7 104 6.816
34 P7 105 6.816
34 P7 106 5.351
34 P7 107 4.862
34 P7 108 3.886
34 P7 109 3.886
34 P7 110 3.886
34 P7 111 3.886
34 P7 112 3.398
34 P7 113 2.421
34 P7 114 0.956
34 P7 115 -0.997
34 P7 116 -1.973
34 P7 117 -2.462
34 P7 118 -1.485
34 P7 119 -0.509
34 P7 120 0.956
34 P7 121 1.933
34 P7 122 1.933
34 P7 123 1.933
34 P7 124 1.444
34 P7 125 0.956
34 P7 126 0.956
34 P7 127 1.444
34 P7 128 1.933
34 P7 129 2.421
34 P7 130 2.909
34 P7 131 1.933
34 P7 132 0.468
34 P7 133 -0.997
34 P7 134 -2.950
34 P7 135 -3.927
34 P7 136 -3.927
34 P7 137 -3.438
34 P7 138 -2.950
34 P7 139 -2.950
34 P7 140 -3.438
34 P7 141 -3.438
34 P7 142 -2.462
34 P7 143 -0.997
34 P7 144 -0.020
34 P7 145 -0.020
34 P7 146 -2.462
34 P7 147 -5.391
34 P7 148 -7.833
34 P7 149 -8.809
34 P7 150 -7.345
34 P7 151 -5.391
34 P7 152 -2.950
34 P7 153 -0.509
34 P7 154 1.933
34 P7 155 4.374
34 P7 156 7.304
34 P7 157 9.745
34 P7 158 11.210
34 P7 159 11.210
34 P7 160 10.722
34 P7 161 8.769
34 P7 162 7.304
34 P7 163 5.839
34 P7 164 4.862
34 P7 165 4.862
34 P7 166 4.862
34 P7 167 4.862
34 P7 168 4.374
34 P7 169 1.933
34 P7 170 -0.997
34 P7 171 -3.927
34 P7 172 -4.903
34 P7 173 -4.415
34 P7 174 -2.462
34 P7 175 -1.973
34 P7 176 -2.462
34 P7 177 -3.438
34 P7 178 -3.927
34 P7 179 -3.927
34 P7 180 -2.950
34 P7 181 -2.950
34 P7 182 -4.415
34 P7 183 -6.856
34 P7 184 -8.321
34 P7 185 -7.345
34 P7 186 -4.903
34 P7 187 -1.973
34 P7 188 -0.509
34 P7 189 -0.997
34 P7 190 -1.485
34 P7 191 -1.485
34 P7 192 -0.020
34 P7 193 1.933
34 P7 194 2.421
34 P7 195 2.421
34 P7 196 1.933
34 P7 197 2.421
34 P7 198 4.374
34 P7 199 7.304
34 P7 200 8.769
34 P7 201 9.745
34 P7 202 9.257
34 P7 203 8.769
34 P7 204 9.745
34 P7 205 10.722
34 P7 206 10.722
34 P7 207 9.745
34 P7 208 7.792
34 P7 209 6.327
34 P7 210 5.839
34 P7 211 6.816
34 P7 212 7.304
34 P7 213 6.327
34 P7 214 2.909
34 P7 215 -0.997
34 P7 216 -4.415
34 P7 217 -4.903
34 P7 218 -2.462
34 P7 219 1.444
34 P7 220 3.886
34 P7 221 3.398
34 P7 222 -0.020
34 P7 223 -4.903
34 P7 224 -7.833
34 P7 225 -6.856
34 P7 226 -1.485
34 P7 227 5.351
34 P7 228 9.745
34 P7 229 11.210
34 P7 230 9.745
34 P7 231 7.792
34 P7 232 8.280
34 P7 233 10.234
34 P7 234 12.187
34 P7 235 12.187
34 P7 236 9.257
34 P7 237 4.862
34 P7 238 0.956
34 P7 239 -0.997
34 P7 240 -0.509
34 P7 241 1.444
34 P7 242 1.933
34 P7 243 1.444
34 P7 244 -0.997
34 P7 245 -3.438
34 P7 246 -4.903
34 P7 247 -4.903
34 P7 248 -3.927
34 P7 249 -2.950
34 P7 250 -1.973
34 P7 251 -0.997
34 P7 252 0.956
34 P7 253 3.398
34 P7 254 7.304
34 P7 255 10.234
# PO2 chan 27
34 PO2 0 -1.882
34 PO2 1 -1.882
34 PO2 2 -1.882
34 PO2 3 -0.905
34 PO2 4 1.048
34 PO2 5 3.001
34 PO2 6 5.442
34 PO2 7 7.395
34 PO2 8 8.372
34 PO2 9 8.860
34 PO2 10 8.372
34 PO2 11 7.884
34 PO2 12 5.931
34 PO2 13 3.489
34 PO2 14 0.559
34 PO2 15 -1.394
34 PO2 16 -2.370
34 PO2 17 -2.858
34 PO2 18 -2.370
34 PO2 19 -1.394
34 PO2 20 -0.417
34 PO2 21 0.071
34 PO2 22 0.071
34 PO2 23 0.559
34 PO2 24 0.559
34 PO2 25 0.559
34 PO2 26 1.048
34 PO2 27 2.024
34 PO2 28 2.513
34 PO2 29 2.513
34 PO2 30 1.536
34 PO2 31 0.071
34 PO2 32 -1.394
34 PO2 33 -3.347
34 PO2 34 -4.812
34 PO2 35 -4.812
34 PO2 36 -4.812
34 PO2 37 -4.812
34 PO2 38 -6.276
34 PO2 39 -8.230
34 PO2 40 -10.183
34 PO2 41 -10.671
34 PO2 42 -9.694
34 PO2 43 -6.765
34 PO2 44 -3.347
34 PO2 45 -0.417
34 PO2 46 1.048
34 PO2 47 1.536
34 PO2 48 1.048
34 PO2 49 -0.417
34 PO2 50 -1.882
34 PO2 51 -2.858
34 PO2 52 -3.347
34 PO2 53 -2.858
34 PO2 54 -1.882
34 PO2 55 -0.417
34 PO2 56 0.559
34 PO2 57 1.048
34 PO2 58 1.536
34 PO2 59 1.048
34 PO2 60 1.048
34 PO2 61 1.536
34 PO2 62 2.513
34 PO2 63 3.001
34 PO2 64 3.489
34 PO2 65 2.513
34 PO2 66 0.559
34 PO2 67 -1.394
34 PO2 68 -2.858
34 PO2 69 -2.858
34 PO2 70 -1.882
34 PO2 71 -0.417
34 PO2 72 0.071
34 PO2 73 0.071
34 PO2 74 0.071
34 PO2 75 0.559
34 PO2 76 1.536
34 PO2 77 3.489
34 PO2 78 4.954
34 PO2 79 5.442
34 PO2 80 4.466
34 PO2 81 2.513
34 PO2 82 0.559
34 PO2 83 -0.417
34 PO2 84 0.071
34 PO2 85 1.048
34 PO2 86 2.513
34 PO2 87 3.001
34 PO2 88 2.024
34 PO2 89 0.071
34 PO2 90 -1.394
34 PO2 91 -1.882
34 PO2 92 -0.417
34 PO2 93 2.024
34 PO2 94 3.977
34 PO2 95 4.954
34 PO2 96 4.466
34 PO2 97 2.513
34 PO2 98 0.071
34 PO2 99 -0.417
34 PO2 100 0.559
34 PO2 101 3.001
34 PO2 102 5.442
34 PO2 103 6.907
34 PO2 104 6.907
34 PO2 105 5.442
34 PO2 106 3.001
34 PO2 107 1.536
34 PO2 108 1.048
34 PO2 109 2.024
34 PO2 110 3.489
34 PO2 111 3.977
34 PO2 112 3.489
34 PO2 113 1.536
34 PO2 114 -0.417
34 PO2 115 -1.882
34 PO2 116 -2.858
34 PO2 117 -1.882
34 PO2 118 -0.905
34 PO2 119 1.048
34 PO2 120 2.024
34 PO2 121 2.024
34 PO2 122 1.536
34 PO2 123 0.559
34 PO2 124 -0.417
34 PO2 125 -0.905
34 PO2 126 -1.394
34 PO2 127 -1.394
34 PO2 128 -0.905
34 PO2 129 -0.905
34 PO2 130 0.071
34 PO2 131 0.071
34 PO2 132 1.048
34 PO2 133 2.024
34 PO2 134 3.001
34 PO2 135 3.001
34 PO2 136 3.001
34 PO2 137 2.024
34 PO2 138 1.048
34 PO2 139 0.559
34 PO2 140 0.559
34 PO2 141 1.048
34 PO2 142 1.536
34 PO2 143 1.536
34 PO2 144 1.048
34 PO2 145 0.071
34 PO2 146 -0.905
34 PO2 147 -1.882
34 PO2 148 -2.858
34 PO2 149 -2.858
34 PO2 150 -2.858
34 PO2 151 -1.394
34 PO2 152 0.071
34 PO2 153 1.536
34 PO2 154 2.513
34 PO2 155 3.489
34 PO2 156 3.977
34 PO2 157 4.466
34 PO2 158 4.954
34 PO2 159 5.442
34 PO2 160 4.954
34 PO2 161 4.466
34 PO2 162 3.977
34 PO2 163 4.466
34 PO2 164 5.931
34 PO2 165 7.395
34 PO2 166 8.860
34 PO2 167 9.837
34 PO2 168 9.837
34 PO2 169 8.372
34 PO2 170 6.419
34 PO2 171 3.977
34 PO2 172 2.024
34 PO2 173 0.071
34 PO2 174 -0.905
34 PO2 175 -1.394
34 PO2 176 -0.905
34 PO2 177 0.071
34 PO2 178 0.071
34 PO2 179 0.559
34 PO2 180 0.559
34 PO2 181 0.071
34 PO2 182 -0.905
34 PO2 183 -1.882
34 PO2 184 -2.370
34 PO2 185 -2.370
34 PO2 186 -1.882
34 PO2 187 -1.394
34 PO2 188 -0.905
34 PO2 189 0.071
34 PO2 190 0.559
34 PO2 191 1.536
34 PO2 192 3.489
34 PO2 193 4.954
34 PO2 194 6.907
34 PO2 195 8.372
34 PO2 196 9.349
34 PO2 197 9.837
34 PO2 198 10.325
34 PO2 199 10.325
34 PO2 200 10.325
34 PO2 201 9.349
34 PO2 202 8.372
34 PO2 203 6.907
34 PO2 204 5.931
34 PO2 205 5.442
34 PO2 206 5.442
34 PO2 207 5.442
34 PO2 208 5.442
34 PO2 209 5.931
34 PO2 210 5.931
34 PO2 211 5.931
34 PO2 212 5.442
34 PO2 213 3.977
34 PO2 214 2.024
34 PO2 215 0.071
34 PO2 216 -0.417
34 PO2 217 0.559
34 PO2 218 2.513
34 PO2 219 3.977
34 PO2 220 3.977
34 PO2 221 3.489
34 PO2 222 1.048
34 PO2 223 -1.882
34 PO2 224 -3.347
34 PO2 225 -3.347
34 PO2 226 -1.394
34 PO2 227 2.024
34 PO2 228 4.954
34 PO2 229 6.419
34 PO2 230 6.419
34 PO2 231 4.954
34 PO2 232 3.489
34 PO2 233 3.001
34 PO2 234 3.977
34 PO2 235 4.954
34 PO2 236 5.442
34 PO2 237 3.977
34 PO2 238 1.536
34 PO2 239 -1.394
34 PO2 240 -2.858
34 PO2 241 -1.882
34 PO2 242 0.071
34 PO2 243 1.536
34 PO2 244 1.536
34 PO2 245 -0.417
34 PO2 246 -2.370
34 PO2 247 -3.835
34 PO2 248 -3.347
34 PO2 249 -2.370
34 PO2 250 -1.394
34 PO2 251 -1.882
34 PO2 252 -2.370
34 PO2 253 -1.394
34 PO2 254 1.048
34 PO2 255 4.466
# PO1 chan 28
34 PO1 0 -0.448
34 PO1 1 -0.936
34 PO1 2 -0.448
34 PO1 3 0.529
34 PO1 4 2.970
34 PO1 5 5.412
34 PO1 6 6.877
34 PO1 7 7.853
34 PO1 8 8.830
34 PO1 9 9.318
34 PO1 10 9.806
34 PO1 11 9.318
34 PO1 12 7.365
34 PO1 13 3.459
34 PO1 14 0.041
34 PO1 15 -2.401
34 PO1 16 -2.401
34 PO1 17 -1.424
34 PO1 18 -0.936
34 PO1 19 -0.448
34 PO1 20 -0.448
34 PO1 21 -0.448
34 PO1 22 0.041
34 PO1 23 1.017
34 PO1 24 1.994
34 PO1 25 2.482
34 PO1 26 2.970
34 PO1 27 3.459
34 PO1 28 3.459
34 PO1 29 3.947
34 PO1 30 3.947
34 PO1 31 2.482
34 PO1 32 1.017
34 PO1 33 -0.448
34 PO1 34 -1.424
34 PO1 35 -1.912
34 PO1 36 -0.936
34 PO1 37 -0.936
34 PO1 38 -1.912
34 PO1 39 -3.866
34 PO1 40 -5.330
34 PO1 41 -5.330
34 PO1 42 -3.377
34 PO1 43 0.041
34 PO1 44 3.947
34 PO1 45 6.877
34 PO1 46 7.365
34 PO1 47 6.388
34 PO1 48 4.435
34 PO1 49 1.994
34 PO1 50 -0.448
34 PO1 51 -1.912
34 PO1 52 -2.401
34 PO1 53 -1.424
34 PO1 54 -0.448
34 PO1 55 1.017
34 PO1 56 1.506
34 PO1 57 1.994
34 PO1 58 1.994
34 PO1 59 2.482
34 PO1 60 3.459
34 PO1 61 4.924
34 PO1 62 6.388
34 PO1 63 7.365
34 PO1 64 7.365
34 PO1 65 6.877
34 PO1 66 5.412
34 PO1 67 3.947
34 PO1 68 2.970
34 PO1 69 3.459
34 PO1 70 3.459
34 PO1 71 3.947
34 PO1 72 4.435
34 PO1 73 4.435
34 PO1 74 4.435
34 PO1 75 5.412
34 PO1 76 6.388
34 PO1 77 7.853
34 PO1 78 8.830
34 PO1 79 8.830
34 PO1 80 7.365
34 PO1 81 5.900
34 PO1 82 4.924
34 PO1 83 3.459
34 PO1 84 3.947
34 PO1 85 4.924
34 PO1 86 5.900
34 PO1 87 6.388
34 PO1 88 6.388
34 PO1 89 5.412
34 PO1 90 4.435
34 PO1 91 3.947
34 PO1 92 5.412
