# co2a0000388.rd
# 120 trials, 64 chans, 416 samples 368 post_stim samples
# 3.906000 msecs uV
# S2 match , trial 47
# FP1 chan 0
47 FP1 0 2.116
47 FP1 1 -1.302
47 FP1 2 -5.208
47 FP1 3 -7.650
47 FP1 4 -8.626
47 FP1 5 -9.115
47 FP1 6 -10.579
47 FP1 7 -14.486
47 FP1 8 -17.904
47 FP1 9 -18.880
47 FP1 10 -14.974
47 FP1 11 -9.115
47 FP1 12 -3.743
47 FP1 13 -1.790
47 FP1 14 -3.255
47 FP1 15 -5.208
47 FP1 16 -5.208
47 FP1 17 -2.279
47 FP1 18 1.628
47 FP1 19 3.581
47 FP1 20 3.581
47 FP1 21 3.092
47 FP1 22 4.557
47 FP1 23 8.464
47 FP1 24 13.346
47 FP1 25 15.788
47 FP1 26 14.811
47 FP1 27 10.905
47 FP1 28 6.510
47 FP1 29 3.581
47 FP1 30 4.069
47 FP1 31 5.046
47 FP1 32 6.022
47 FP1 33 5.046
47 FP1 34 1.139
47 FP1 35 -4.720
47 FP1 36 -11.068
47 FP1 37 -15.462
47 FP1 38 -15.462
47 FP1 39 -12.533
47 FP1 40 -8.138
47 FP1 41 -5.697
47 FP1 42 -5.208
47 FP1 43 -7.161
47 FP1 44 -8.626
47 FP1 45 -7.650
47 FP1 46 -4.232
47 FP1 47 -0.814
47 FP1 48 1.628
47 FP1 49 1.628
47 FP1 50 1.139
47 FP1 51 1.628
47 FP1 52 3.092
47 FP1 53 5.046
47 FP1 54 6.510
47 FP1 55 5.534
47 FP1 56 2.604
47 FP1 57 -0.326
47 FP1 58 -1.790
47 FP1 59 -0.326
47 FP1 60 2.116
47 FP1 61 4.069
47 FP1 62 3.581
47 FP1 63 1.139
47 FP1 64 -2.767
47 FP1 65 -5.697
47 FP1 66 -6.673
47 FP1 67 -7.161
47 FP1 68 -6.673
47 FP1 69 -6.185
47 FP1 70 -6.185
47 FP1 71 -6.185
47 FP1 72 -6.185
47 FP1 73 -6.185
47 FP1 74 -7.161
47 FP1 75 -7.161
47 FP1 76 -7.650
47 FP1 77 -7.650
47 FP1 78 -7.161
47 FP1 79 -7.161
47 FP1 80 -8.138
47 FP1 81 -9.603
47 FP1 82 -10.579
47 FP1 83 -11.068
47 FP1 84 -11.556
47 FP1 85 -11.556
47 FP1 86 -11.556
47 FP1 87 -9.115
47 FP1 88 -4.720
47 FP1 89 1.139
47 FP1 90 4.557
47 FP1 91 4.557
47 FP1 92 0.163
47 FP1 93 -5.208
47 FP1 94 -9.115
47 FP1 95 -9.603
47 FP1 96 -7.650
47 FP1 97 -6.673
47 FP1 98 -7.161
47 FP1 99 -9.115
47 FP1 100 -11.556
47 FP1 101 -12.044
47 FP1 102 -11.068
47 FP1 103 -10.091
47 FP1 104 -10.579
47 FP1 105 -12.044
47 FP1 106 -14.486
47 FP1 107 -16.439
47 FP1 108 -17.415
47 FP1 109 -17.904
47 FP1 110 -16.927
47 FP1 111 -13.997
47 FP1 112 -10.091
47 FP1 113 -6.185
47 FP1 114 -4.232
47 FP1 115 -4.720
47 FP1 116 -7.650
47 FP1 117 -9.603
47 FP1 118 -9.115
47 FP1 119 -6.673
47 FP1 120 -3.743
47 FP1 121 -2.767
47 FP1 122 -4.720
47 FP1 123 -7.650
47 FP1 124 -11.068
47 FP1 125 -13.021
47 FP1 126 -13.509
47 FP1 127 -13.021
47 FP1 128 -12.533
47 FP1 129 -12.044
47 FP1 130 -11.068
47 FP1 131 -10.091
47 FP1 132 -10.579
47 FP1 133 -12.533
47 FP1 134 -15.951
47 FP1 135 -17.904
47 FP1 136 -17.415
47 FP1 137 -13.997
47 FP1 138 -9.115
47 FP1 139 -5.697
47 FP1 140 -6.185
47 FP1 141 -10.091
47 FP1 142 -14.486
47 FP1 143 -16.439
47 FP1 144 -14.974
47 FP1 145 -11.556
47 FP1 146 -9.115
47 FP1 147 -8.626
47 FP1 148 -10.091
47 FP1 149 -11.556
47 FP1 150 -11.068
47 FP1 151 -9.115
47 FP1 152 -7.161
47 FP1 153 -6.673
47 FP1 154 -7.650
47 FP1 155 -9.603
47 FP1 156 -11.556
47 FP1 157 -13.021
47 FP1 158 -13.997
47 FP1 159 -13.509
47 FP1 160 -11.556
47 FP1 161 -7.161
47 FP1 162 -3.743
47 FP1 163 -3.255
47 FP1 164 -6.185
47 FP1 165 -11.068
47 FP1 166 -14.486
47 FP1 167 -14.974
47 FP1 168 -13.509
47 FP1 169 -12.533
47 FP1 170 -12.533
47 FP1 171 -13.997
47 FP1 172 -14.486
47 FP1 173 -13.997
47 FP1 174 -12.533
47 FP1 175 -11.556
47 FP1 176 -12.533
47 FP1 177 -13.997
47 FP1 178 -14.974
47 FP1 179 -14.486
47 FP1 180 -12.044
47 FP1 181 -9.115
47 FP1 182 -7.650
47 FP1 183 -8.626
47 FP1 184 -10.579
47 FP1 185 -12.044
47 FP1 186 -12.533
47 FP1 187 -12.044
47 FP1 188 -10.579
47 FP1 189 -9.603
47 FP1 190 -9.115
47 FP1 191 -10.091
47 FP1 192 -10.579
47 FP1 193 -10.091
47 FP1 194 -10.091
47 FP1 195 -11.068
47 FP1 196 -13.997
47 FP1 197 -18.392
47 FP1 198 -21.322
47 FP1 199 -21.810
47 FP1 200 -19.857
47 FP1 201 -15.951
47 FP1 202 -12.533
47 FP1 203 -10.579
47 FP1 204 -10.091
47 FP1 205 -10.579
47 FP1 206 -12.044
47 FP1 207 -13.997
47 FP1 208 -15.951
47 FP1 209 -18.392
47 FP1 210 -19.368
47 FP1 211 -18.880
47 FP1 212 -14.974
47 FP1 213 -8.626
47 FP1 214 -2.279
47 FP1 215 1.628
47 FP1 216 1.628
47 FP1 217 -2.279
47 FP1 218 -6.673
47 FP1 219 -9.115
47 FP1 220 -8.138
47 FP1 221 -4.720
47 FP1 222 -1.302
47 FP1 223 -0.326
47 FP1 224 -1.302
47 FP1 225 -2.767
47 FP1 226 -3.743
47 FP1 227 -3.743
47 FP1 228 -3.255
47 FP1 229 -2.279
47 FP1 230 -2.767
47 FP1 231 -4.720
47 FP1 232 -8.138
47 FP1 233 -13.021
47 FP1 234 -17.415
47 FP1 235 -19.368
47 FP1 236 -17.904
47 FP1 237 -12.533
47 FP1 238 -5.208
47 FP1 239 0.163
47 FP1 240 1.139
47 FP1 241 -1.790
47 FP1 242 -6.673
47 FP1 243 -11.068
47 FP1 244 -13.509
47 FP1 245 -13.509
47 FP1 246 -11.068
47 FP1 247 -7.650
47 FP1 248 -3.743
47 FP1 249 -0.326
47 FP1 250 1.139
47 FP1 251 -0.326
47 FP1 252 -4.232
47 FP1 253 -8.138
47 FP1 254 -10.579
47 FP1 255 -10.091
# FP2 chan 1
47 FP2 0 6.042
47 FP2 1 3.601
47 FP2 2 -0.793
47 FP2 3 -4.700
47 FP2 4 -8.606
47 FP2 5 -11.047
47 FP2 6 -12.024
47 FP2 7 -12.512
47 FP2 8 -11.536
47 FP2 9 -10.071
47 FP2 10 -9.094
47 FP2 11 -8.118
47 FP2 12 -7.141
47 FP2 13 -5.188
47 FP2 14 -2.747
47 FP2 15 -0.305
47 FP2 16 1.160
47 FP2 17 1.160
47 FP2 18 0.671
47 FP2 19 0.183
47 FP2 20 0.671
47 FP2 21 2.625
47 FP2 22 5.554
47 FP2 23 9.949
47 FP2 24 14.343
47 FP2 25 17.761
47 FP2 26 18.738
47 FP2 27 17.273
47 FP2 28 12.878
47 FP2 29 7.996
47 FP2 30 4.578
47 FP2 31 2.625
47 FP2 32 1.160
47 FP2 33 -2.258
47 FP2 34 -7.141
47 FP2 35 -11.536
47 FP2 36 -13.977
47 FP2 37 -12.512
47 FP2 38 -9.094
47 FP2 39 -6.165
47 FP2 40 -7.141
47 FP2 41 -11.047
47 FP2 42 -15.442
47 FP2 43 -18.372
47 FP2 44 -17.395
47 FP2 45 -13.977
47 FP2 46 -10.071
47 FP2 47 -6.653
47 FP2 48 -4.700
47 FP2 49 -4.700
47 FP2 50 -4.700
47 FP2 51 -4.700
47 FP2 52 -3.723
47 FP2 53 -2.258
47 FP2 54 -1.770
47 FP2 55 -2.747
47 FP2 56 -5.188
47 FP2 57 -9.094
47 FP2 58 -11.047
47 FP2 59 -11.047
47 FP2 60 -9.094
47 FP2 61 -7.141
47 FP2 62 -6.653
47 FP2 63 -8.606
47 FP2 64 -12.512
47 FP2 65 -16.418
47 FP2 66 -18.860
47 FP2 67 -18.860
47 FP2 68 -18.372
47 FP2 69 -17.395
47 FP2 70 -17.395
47 FP2 71 -17.883
47 FP2 72 -19.348
47 FP2 73 -20.813
47 FP2 74 -22.766
47 FP2 75 -24.719
47 FP2 76 -24.719
47 FP2 77 -23.743
47 FP2 78 -22.278
47 FP2 79 -20.325
47 FP2 80 -18.860
47 FP2 81 -17.883
47 FP2 82 -16.907
47 FP2 83 -16.418
47 FP2 84 -16.907
47 FP2 85 -17.883
47 FP2 86 -18.372
47 FP2 87 -17.395
47 FP2 88 -14.954
47 FP2 89 -12.024
47 FP2 90 -10.559
47 FP2 91 -11.536
47 FP2 92 -13.977
47 FP2 93 -15.930
47 FP2 94 -16.418
47 FP2 95 -15.442
47 FP2 96 -15.442
47 FP2 97 -17.395
47 FP2 98 -20.813
47 FP2 99 -24.231
47 FP2 100 -25.696
47 FP2 101 -25.696
47 FP2 102 -24.719
47 FP2 103 -23.743
47 FP2 104 -22.766
47 FP2 105 -21.301
47 FP2 106 -19.348
47 FP2 107 -18.860
47 FP2 108 -20.325
47 FP2 109 -23.254
47 FP2 110 -26.184
47 FP2 111 -26.184
47 FP2 112 -22.766
47 FP2 113 -17.883
47 FP2 114 -13.977
47 FP2 115 -12.512
47 FP2 116 -13.000
47 FP2 117 -13.489
47 FP2 118 -12.512
47 FP2 119 -11.047
47 FP2 120 -9.583
47 FP2 121 -9.583
47 FP2 122 -11.536
47 FP2 123 -14.465
47 FP2 124 -15.930
47 FP2 125 -15.930
47 FP2 126 -15.442
47 FP2 127 -15.442
47 FP2 128 -17.395
47 FP2 129 -19.348
47 FP2 130 -20.813
47 FP2 131 -21.301
47 FP2 132 -21.301
47 FP2 133 -21.790
47 FP2 134 -23.254
47 FP2 135 -24.719
47 FP2 136 -24.231
47 FP2 137 -21.790
47 FP2 138 -18.860
47 FP2 139 -16.907
47 FP2 140 -18.372
47 FP2 141 -20.813
47 FP2 142 -22.766
47 FP2 143 -21.790
47 FP2 144 -18.860
47 FP2 145 -14.954
47 FP2 146 -12.024
47 FP2 147 -11.047
47 FP2 148 -10.559
47 FP2 149 -9.094
47 FP2 150 -6.653
47 FP2 151 -4.700
47 FP2 152 -4.700
47 FP2 153 -7.141
47 FP2 154 -10.559
47 FP2 155 -12.512
47 FP2 156 -13.489
47 FP2 157 -13.977
47 FP2 158 -13.977
47 FP2 159 -15.442
47 FP2 160 -16.418
47 FP2 161 -16.907
47 FP2 162 -16.418
47 FP2 163 -15.930
47 FP2 164 -15.930
47 FP2 165 -15.930
47 FP2 166 -16.907
47 FP2 167 -19.348
47 FP2 168 -23.254
47 FP2 169 -27.161
47 FP2 170 -30.579
47 FP2 171 -30.090
47 FP2 172 -26.184
47 FP2 173 -20.325
47 FP2 174 -14.954
47 FP2 175 -13.489
47 FP2 176 -14.954
47 FP2 177 -18.860
47 FP2 178 -20.813
47 FP2 179 -19.348
47 FP2 180 -14.954
47 FP2 181 -11.047
47 FP2 182 -9.094
47 FP2 183 -9.583
47 FP2 184 -12.024
47 FP2 185 -14.954
47 FP2 186 -17.395
47 FP2 187 -18.372
47 FP2 188 -19.348
47 FP2 189 -20.325
47 FP2 190 -20.813
47 FP2 191 -21.301
47 FP2 192 -20.813
47 FP2 193 -20.325
47 FP2 194 -20.325
47 FP2 195 -21.301
47 FP2 196 -23.743
47 FP2 197 -27.649
47 FP2 198 -30.579
47 FP2 199 -32.043
47 FP2 200 -31.067
47 FP2 201 -27.649
47 FP2 202 -24.231
47 FP2 203 -22.278
47 FP2 204 -23.743
47 FP2 205 -26.672
47 FP2 206 -29.602
47 FP2 207 -31.067
47 FP2 208 -30.090
47 FP2 209 -27.649
47 FP2 210 -25.208
47 FP2 211 -22.766
47 FP2 212 -18.860
47 FP2 213 -14.954
47 FP2 214 -11.536
47 FP2 215 -10.071
47 FP2 216 -11.536
47 FP2 217 -14.954
47 FP2 218 -16.907
47 FP2 219 -15.930
47 FP2 220 -12.512
47 FP2 221 -8.606
47 FP2 222 -6.653
47 FP2 223 -7.629
47 FP2 224 -10.071
47 FP2 225 -12.024
47 FP2 226 -12.024
47 FP2 227 -10.071
47 FP2 228 -8.606
47 FP2 229 -8.118
47 FP2 230 -9.094
47 FP2 231 -12.024
47 FP2 232 -14.954
47 FP2 233 -18.372
47 FP2 234 -20.813
47 FP2 235 -22.766
47 FP2 236 -22.766
47 FP2 237 -20.813
47 FP2 238 -17.883
47 FP2 239 -14.954
47 FP2 240 -13.489
47 FP2 241 -14.954
47 FP2 242 -17.883
47 FP2 243 -21.790
47 FP2 244 -24.231
47 FP2 245 -23.254
47 FP2 246 -20.325
47 FP2 247 -15.442
47 FP2 248 -11.047
47 FP2 249 -7.629
47 FP2 250 -6.653
47 FP2 251 -8.118
47 FP2 252 -11.047
47 FP2 253 -13.977
47 FP2 254 -14.465
47 FP2 255 -13.000
# F7 chan 2
47 F7 0 2.635
47 F7 1 -0.295
47 F7 2 -2.248
47 F7 3 -3.225
47 F7 4 -2.736
47 F7 5 -1.760
47 F7 6 -1.760
47 F7 7 -2.736
47 F7 8 -4.690
47 F7 9 -6.643
47 F7 10 -6.643
47 F7 11 -4.690
47 F7 12 -2.736
47 F7 13 -0.783
47 F7 14 -0.295
47 F7 15 0.193
47 F7 16 1.658
47 F7 17 4.100
47 F7 18 7.517
47 F7 19 8.494
47 F7 20 7.517
47 F7 21 4.100
47 F7 22 2.146
47 F7 23 2.635
47 F7 24 6.541
47 F7 25 10.447
47 F7 26 12.889
47 F7 27 12.400
47 F7 28 9.959
47 F7 29 7.517
47 F7 30 7.517
47 F7 31 8.494
47 F7 32 8.494
47 F7 33 5.564
47 F7 34 -0.295
47 F7 35 -7.619
47 F7 36 -13.479
47 F7 37 -15.432
47 F7 38 -13.967
47 F7 39 -10.061
47 F7 40 -6.643
47 F7 41 -5.178
47 F7 42 -5.666
47 F7 43 -6.643
47 F7 44 -6.643
47 F7 45 -5.178
47 F7 46 -2.248
47 F7 47 1.170
47 F7 48 2.146
47 F7 49 1.658
47 F7 50 0.193
47 F7 51 -0.295
47 F7 52 0.682
47 F7 53 2.146
47 F7 54 3.123
47 F7 55 2.146
47 F7 56 -0.295
47 F7 57 -3.225
47 F7 58 -4.690
47 F7 59 -4.201
47 F7 60 -3.713
47 F7 61 -3.225
47 F7 62 -3.225
47 F7 63 -4.201
47 F7 64 -5.666
47 F7 65 -7.619
47 F7 66 -10.549
47 F7 67 -13.967
47 F7 68 -16.897
47 F7 69 -17.873
47 F7 70 -16.408
47 F7 71 -13.479
47 F7 72 -11.037
47 F7 73 -9.572
47 F7 74 -9.572
47 F7 75 -10.061
47 F7 76 -10.549
47 F7 77 -10.549
47 F7 78 -11.037
47 F7 79 -12.014
47 F7 80 -12.990
47 F7 81 -13.479
47 F7 82 -13.479
47 F7 83 -13.479
47 F7 84 -12.990
47 F7 85 -12.502
47 F7 86 -12.014
47 F7 87 -10.549
47 F7 88 -9.084
47 F7 89 -8.108
47 F7 90 -8.108
47 F7 91 -9.572
47 F7 92 -11.037
47 F7 93 -12.014
47 F7 94 -12.014
47 F7 95 -12.014
47 F7 96 -12.502
47 F7 97 -12.502
47 F7 98 -12.502
47 F7 99 -12.014
47 F7 100 -12.014
47 F7 101 -12.502
47 F7 102 -13.479
47 F7 103 -14.943
47 F7 104 -15.432
47 F7 105 -15.920
47 F7 106 -15.432
47 F7 107 -14.943
47 F7 108 -14.455
47 F7 109 -13.967
47 F7 110 -13.479
47 F7 111 -12.014
47 F7 112 -10.061
47 F7 113 -8.108
47 F7 114 -6.154
47 F7 115 -4.690
47 F7 116 -4.201
47 F7 117 -4.201
47 F7 118 -4.690
47 F7 119 -4.690
47 F7 120 -4.690
47 F7 121 -5.666
47 F7 122 -6.154
47 F7 123 -7.131
47 F7 124 -8.108
47 F7 125 -8.596
47 F7 126 -9.084
47 F7 127 -10.061
47 F7 128 -12.014
47 F7 129 -13.967
47 F7 130 -14.455
47 F7 131 -14.455
47 F7 132 -13.479
47 F7 133 -12.990
47 F7 134 -13.967
47 F7 135 -15.920
47 F7 136 -17.385
47 F7 137 -17.873
47 F7 138 -17.385
47 F7 139 -16.897
47 F7 140 -17.385
47 F7 141 -18.361
47 F7 142 -18.361
47 F7 143 -17.873
47 F7 144 -15.920
47 F7 145 -14.943
47 F7 146 -15.432
47 F7 147 -16.897
47 F7 148 -17.385
47 F7 149 -15.920
47 F7 150 -12.014
47 F7 151 -7.131
47 F7 152 -4.201
47 F7 153 -4.201
47 F7 154 -7.131
47 F7 155 -11.037
47 F7 156 -14.455
47 F7 157 -14.943
47 F7 158 -12.990
47 F7 159 -9.572
47 F7 160 -7.131
47 F7 161 -6.643
47 F7 162 -8.108
47 F7 163 -10.061
47 F7 164 -11.525
47 F7 165 -12.014
47 F7 166 -11.525
47 F7 167 -11.037
47 F7 168 -11.525
47 F7 169 -11.525
47 F7 170 -11.525
47 F7 171 -10.061
47 F7 172 -8.596
47 F7 173 -7.619
47 F7 174 -7.619
47 F7 175 -8.596
47 F7 176 -10.061
47 F7 177 -10.061
47 F7 178 -9.572
47 F7 179 -8.108
47 F7 180 -7.131
47 F7 181 -6.154
47 F7 182 -5.666
47 F7 183 -5.666
47 F7 184 -6.154
47 F7 185 -7.131
47 F7 186 -8.596
47 F7 187 -9.572
47 F7 188 -8.596
47 F7 189 -6.643
47 F7 190 -4.690
47 F7 191 -4.690
47 F7 192 -5.666
47 F7 193 -8.108
47 F7 194 -10.061
47 F7 195 -11.037
47 F7 196 -11.037
47 F7 197 -10.061
47 F7 198 -8.596
47 F7 199 -7.131
47 F7 200 -5.178
47 F7 201 -3.713
47 F7 202 -3.713
47 F7 203 -5.178
47 F7 204 -8.108
47 F7 205 -11.037
47 F7 206 -12.014
47 F7 207 -11.037
47 F7 208 -9.572
47 F7 209 -8.108
47 F7 210 -7.619
47 F7 211 -8.108
47 F7 212 -9.084
47 F7 213 -9.084
47 F7 214 -7.619
47 F7 215 -5.666
47 F7 216 -3.225
47 F7 217 -1.272
47 F7 218 -0.295
47 F7 219 0.193
47 F7 220 0.682
47 F7 221 1.170
47 F7 222 1.170
47 F7 223 0.193
47 F7 224 -0.783
47 F7 225 -3.225
47 F7 226 -5.178
47 F7 227 -6.154
47 F7 228 -5.178
47 F7 229 -2.736
47 F7 230 -0.295
47 F7 231 -0.295
47 F7 232 -3.713
47 F7 233 -9.572
47 F7 234 -14.943
47 F7 235 -17.385
47 F7 236 -14.943
47 F7 237 -9.084
47 F7 238 -2.248
47 F7 239 2.146
47 F7 240 3.611
47 F7 241 1.658
47 F7 242 -2.248
47 F7 243 -6.154
47 F7 244 -9.084
47 F7 245 -9.572
47 F7 246 -8.108
47 F7 247 -4.201
47 F7 248 -0.295
47 F7 249 2.635
47 F7 250 2.635
47 F7 251 -0.783
47 F7 252 -5.666
47 F7 253 -10.549
47 F7 254 -12.502
47 F7 255 -11.037
# F8 chan 3
47 F8 0 3.886
47 F8 1 1.933
47 F8 2 -0.020
47 F8 3 -2.462
47 F8 4 -4.903
47 F8 5 -6.368
47 F8 6 -8.321
47 F8 7 -9.786
47 F8 8 -11.251
47 F8 9 -12.227
47 F8 10 -11.739
47 F8 11 -9.298
47 F8 12 -6.368
47 F8 13 -3.927
47 F8 14 -2.462
47 F8 15 -1.973
47 F8 16 -1.485
47 F8 17 -0.020
47 F8 18 1.444
47 F8 19 2.909
47 F8 20 2.909
47 F8 21 3.398
47 F8 22 3.398
47 F8 23 5.351
47 F8 24 7.792
47 F8 25 10.722
47 F8 26 12.675
47 F8 27 12.187
47 F8 28 10.722
47 F8 29 9.257
47 F8 30 9.257
47 F8 31 8.769
47 F8 32 7.304
47 F8 33 3.398
47 F8 34 -1.973
47 F8 35 -5.880
47 F8 36 -7.345
47 F8 37 -5.391
47 F8 38 -2.462
47 F8 39 -0.997
47 F8 40 -1.973
47 F8 41 -4.903
47 F8 42 -7.833
47 F8 43 -9.786
47 F8 44 -11.251
47 F8 45 -10.763
47 F8 46 -9.786
47 F8 47 -7.345
47 F8 48 -2.950
47 F8 49 0.956
47 F8 50 2.909
47 F8 51 1.933
47 F8 52 -0.020
47 F8 53 -1.973
47 F8 54 -2.462
47 F8 55 -2.462
47 F8 56 -3.438
47 F8 57 -5.880
47 F8 58 -8.809
47 F8 59 -10.274
47 F8 60 -8.809
47 F8 61 -4.903
47 F8 62 -2.950
47 F8 63 -3.927
47 F8 64 -8.321
47 F8 65 -13.204
47 F8 66 -15.157
47 F8 67 -13.692
47 F8 68 -9.298
47 F8 69 -5.391
47 F8 70 -4.415
47 F8 71 -6.368
47 F8 72 -10.274
47 F8 73 -13.204
47 F8 74 -14.181
47 F8 75 -13.204
47 F8 76 -12.227
47 F8 77 -11.739
47 F8 78 -11.251
47 F8 79 -10.763
47 F8 80 -10.274
47 F8 81 -10.274
47 F8 82 -11.251
47 F8 83 -13.204
47 F8 84 -13.692
47 F8 85 -12.227
47 F8 86 -9.298
47 F8 87 -5.880
47 F8 88 -4.415
47 F8 89 -4.903
47 F8 90 -6.856
47 F8 91 -8.321
47 F8 92 -8.321
47 F8 93 -7.833
47 F8 94 -7.345
47 F8 95 -7.345
47 F8 96 -8.321
47 F8 97 -8.809
47 F8 98 -8.321
47 F8 99 -7.345
47 F8 100 -7.833
47 F8 101 -9.298
47 F8 102 -11.739
47 F8 103 -13.204
47 F8 104 -12.716
47 F8 105 -10.274
47 F8 106 -7.345
47 F8 107 -5.880
47 F8 108 -6.368
47 F8 109 -7.833
47 F8 110 -9.786
47 F8 111 -9.786
47 F8 112 -8.809
47 F8 113 -7.345
47 F8 114 -6.856
47 F8 115 -7.833
47 F8 116 -8.321
47 F8 117 -6.856
47 F8 118 -3.438
47 F8 119 0.468
47 F8 120 1.933
47 F8 121 0.956
47 F8 122 -1.485
47 F8 123 -3.438
47 F8 124 -5.880
47 F8 125 -7.345
47 F8 126 -8.809
47 F8 127 -9.786
47 F8 128 -10.274
47 F8 129 -10.274
47 F8 130 -9.786
47 F8 131 -10.274
47 F8 132 -12.227
47 F8 133 -15.645
47 F8 134 -19.063
47 F8 135 -21.016
47 F8 136 -21.505
47 F8 137 -21.016
47 F8 138 -20.528
47 F8 139 -21.016
47 F8 140 -21.016
47 F8 141 -20.040
47 F8 142 -17.110
47 F8 143 -14.181
47 F8 144 -12.227
47 F8 145 -11.251
47 F8 146 -11.251
47 F8 147 -11.251
47 F8 148 -10.274
47 F8 149 -9.786
47 F8 150 -9.298
47 F8 151 -10.274
47 F8 152 -10.763
47 F8 153 -10.274
47 F8 154 -8.809
47 F8 155 -7.345
47 F8 156 -6.368
47 F8 157 -6.856
47 F8 158 -6.856
47 F8 159 -6.856
47 F8 160 -6.856
47 F8 161 -7.345
47 F8 162 -8.321
47 F8 163 -9.298
47 F8 164 -9.298
47 F8 165 -8.321
47 F8 166 -7.345
47 F8 167 -8.321
47 F8 168 -11.251
47 F8 169 -15.157
47 F8 170 -17.110
47 F8 171 -16.622
47 F8 172 -13.204
47 F8 173 -9.298
47 F8 174 -7.833
47 F8 175 -8.809
47 F8 176 -10.763
47 F8 177 -10.763
47 F8 178 -8.321
47 F8 179 -3.438
47 F8 180 -0.020
47 F8 181 0.468
47 F8 182 -1.973
47 F8 183 -3.927
47 F8 184 -4.415
47 F8 185 -2.462
47 F8 186 -0.020
47 F8 187 -0.509
47 F8 188 -4.415
47 F8 189 -9.298
47 F8 190 -12.227
47 F8 191 -11.251
47 F8 192 -8.321
47 F8 193 -4.415
47 F8 194 -3.438
47 F8 195 -5.391
47 F8 196 -8.321
47 F8 197 -11.739
47 F8 198 -14.669
47 F8 199 -16.622
47 F8 200 -18.575
47 F8 201 -19.552
47 F8 202 -17.598
47 F8 203 -13.692
47 F8 204 -9.298
47 F8 205 -6.856
47 F8 206 -7.833
47 F8 207 -11.251
47 F8 208 -14.669
47 F8 209 -15.157
47 F8 210 -12.227
47 F8 211 -8.321
47 F8 212 -5.391
47 F8 213 -4.415
47 F8 214 -5.391
47 F8 215 -7.345
47 F8 216 -8.809
47 F8 217 -9.298
47 F8 218 -8.809
47 F8 219 -6.368
47 F8 220 -2.950
47 F8 221 -0.020
47 F8 222 1.444
47 F8 223 0.468
47 F8 224 -1.485
47 F8 225 -4.903
47 F8 226 -7.833
47 F8 227 -9.298
47 F8 228 -9.298
47 F8 229 -7.833
47 F8 230 -5.880
47 F8 231 -4.903
47 F8 232 -5.391
47 F8 233 -6.368
47 F8 234 -7.833
47 F8 235 -8.809
47 F8 236 -8.809
47 F8 237 -8.321
47 F8 238 -7.833
47 F8 239 -7.345
47 F8 240 -6.368
47 F8 241 -5.880
47 F8 242 -5.880
47 F8 243 -6.368
47 F8 244 -7.345
47 F8 245 -8.321
47 F8 246 -8.809
47 F8 247 -8.321
47 F8 248 -7.345
47 F8 249 -4.903
47 F8 250 -1.485
47 F8 251 0.956
47 F8 252 0.956
47 F8 253 -1.485
47 F8 254 -5.391
47 F8 255 -8.321
# AF1 chan 4
47 AF1 0 1.373
47 AF1 1 -3.021
47 AF1 2 -5.951
47 AF1 3 -7.416
47 AF1 4 -7.904
47 AF1 5 -8.392
47 AF1 6 -9.369
47 AF1 7 -10.345
47 AF1 8 -11.322
47 AF1 9 -11.322
47 AF1 10 -10.834
47 AF1 11 -10.345
47 AF1 12 -9.857
47 AF1 13 -9.857
47 AF1 14 -8.392
47 AF1 15 -5.463
47 AF1 16 -2.045
47 AF1 17 0.397
47 AF1 18 1.373
47 AF1 19 1.373
47 AF1 20 0.397
47 AF1 21 1.373
47 AF1 22 3.815
47 AF1 23 7.233
47 AF1 24 11.139
47 AF1 25 13.580
47 AF1 26 13.580
47 AF1 27 12.604
47 AF1 28 10.651
47 AF1 29 9.674
47 AF1 30 9.674
47 AF1 31 9.186
47 AF1 32 7.721
47 AF1 33 4.791
47 AF1 34 0.397
47 AF1 35 -4.486
47 AF1 36 -7.904
47 AF1 37 -9.369
47 AF1 38 -8.392
47 AF1 39 -6.439
47 AF1 40 -3.998
47 AF1 41 -3.021
47 AF1 42 -3.510
47 AF1 43 -4.974
47 AF1 44 -5.463
47 AF1 45 -4.486
47 AF1 46 -2.045
47 AF1 47 0.885
47 AF1 48 3.326
47 AF1 49 4.791
47 AF1 50 4.791
47 AF1 51 4.791
47 AF1 52 5.280
47 AF1 53 6.256
47 AF1 54 6.744
47 AF1 55 5.768
47 AF1 56 3.815
47 AF1 57 1.862
47 AF1 58 -0.092
47 AF1 59 -0.092
47 AF1 60 0.397
47 AF1 61 1.862
47 AF1 62 2.838
47 AF1 63 1.862
47 AF1 64 0.397
47 AF1 65 -1.556
47 AF1 66 -3.998
47 AF1 67 -5.951
47 AF1 68 -6.927
47 AF1 69 -7.416
47 AF1 70 -6.927
47 AF1 71 -6.927
47 AF1 72 -6.927
47 AF1 73 -7.416
47 AF1 74 -8.392
47 AF1 75 -8.392
47 AF1 76 -8.392
47 AF1 77 -8.392
47 AF1 78 -8.392
47 AF1 79 -8.392
47 AF1 80 -8.392
47 AF1 81 -7.904
47 AF1 82 -7.416
47 AF1 83 -6.927
47 AF1 84 -5.951
47 AF1 85 -6.439
47 AF1 86 -5.951
47 AF1 87 -5.951
47 AF1 88 -5.463
47 AF1 89 -3.998
47 AF1 90 -3.021
47 AF1 91 -2.533
47 AF1 92 -3.510
47 AF1 93 -4.974
47 AF1 94 -6.927
47 AF1 95 -7.904
47 AF1 96 -8.392
47 AF1 97 -8.392
47 AF1 98 -8.392
47 AF1 99 -9.369
47 AF1 100 -10.345
47 AF1 101 -11.322
47 AF1 102 -11.322
47 AF1 103 -10.834
47 AF1 104 -11.322
47 AF1 105 -12.299
47 AF1 106 -14.252
47 AF1 107 -16.205
47 AF1 108 -16.693
47 AF1 109 -16.205
47 AF1 110 -14.252
47 AF1 111 -12.299
47 AF1 112 -11.322
47 AF1 113 -10.834
47 AF1 114 -10.834
47 AF1 115 -10.345
47 AF1 116 -9.369
47 AF1 117 -7.904
47 AF1 118 -5.951
47 AF1 119 -4.974
47 AF1 120 -4.974
47 AF1 121 -6.439
47 AF1 122 -7.904
47 AF1 123 -9.369
47 AF1 124 -11.322
47 AF1 125 -11.810
47 AF1 126 -12.299
47 AF1 127 -12.299
47 AF1 128 -12.299
47 AF1 129 -12.299
47 AF1 130 -12.299
47 AF1 131 -12.787
47 AF1 132 -13.275
47 AF1 133 -14.252
47 AF1 134 -14.252
47 AF1 135 -13.275
47 AF1 136 -12.299
47 AF1 137 -11.322
47 AF1 138 -11.322
47 AF1 139 -12.299
47 AF1 140 -13.275
47 AF1 141 -13.763
47 AF1 142 -13.763
47 AF1 143 -12.299
47 AF1 144 -10.345
47 AF1 145 -8.392
47 AF1 146 -6.439
47 AF1 147 -4.974
47 AF1 148 -4.486
47 AF1 149 -4.974
47 AF1 150 -5.951
47 AF1 151 -5.951
47 AF1 152 -5.951
47 AF1 153 -4.974
47 AF1 154 -4.486
47 AF1 155 -4.974
47 AF1 156 -6.927
47 AF1 157 -9.369
47 AF1 158 -11.810
47 AF1 159 -12.299
47 AF1 160 -11.810
47 AF1 161 -10.834
47 AF1 162 -9.369
47 AF1 163 -9.369
47 AF1 164 -9.369
47 AF1 165 -9.857
47 AF1 166 -10.834
47 AF1 167 -11.810
47 AF1 168 -13.275
47 AF1 169 -14.740
47 AF1 170 -15.228
47 AF1 171 -14.740
47 AF1 172 -13.275
47 AF1 173 -11.322
47 AF1 174 -10.345
47 AF1 175 -10.834
47 AF1 176 -12.787
47 AF1 177 -14.252
47 AF1 178 -14.252
47 AF1 179 -13.275
47 AF1 180 -10.834
47 AF1 181 -9.369
47 AF1 182 -7.904
47 AF1 183 -7.416
47 AF1 184 -7.416
47 AF1 185 -7.904
47 AF1 186 -9.857
47 AF1 187 -12.299
47 AF1 188 -14.740
47 AF1 189 -15.717
47 AF1 190 -14.740
47 AF1 191 -11.810
47 AF1 192 -9.369
47 AF1 193 -8.392
47 AF1 194 -9.369
47 AF1 195 -12.299
47 AF1 196 -15.717
47 AF1 197 -18.158
47 AF1 198 -18.646
47 AF1 199 -17.181
47 AF1 200 -15.228
47 AF1 201 -11.810
47 AF1 202 -9.369
47 AF1 203 -7.416
47 AF1 204 -7.416
47 AF1 205 -8.392
47 AF1 206 -10.834
47 AF1 207 -13.763
47 AF1 208 -15.717
47 AF1 209 -16.205
47 AF1 210 -15.228
47 AF1 211 -13.275
47 AF1 212 -10.834
47 AF1 213 -8.392
47 AF1 214 -6.927
47 AF1 215 -6.439
47 AF1 216 -6.439
47 AF1 217 -7.416
47 AF1 218 -8.392
47 AF1 219 -8.881
47 AF1 220 -8.392
47 AF1 221 -7.416
47 AF1 222 -5.463
47 AF1 223 -3.510
47 AF1 224 -3.021
47 AF1 225 -3.021
47 AF1 226 -3.021
47 AF1 227 -3.510
47 AF1 228 -3.510
47 AF1 229 -3.510
47 AF1 230 -3.998
47 AF1 231 -5.463
47 AF1 232 -7.416
47 AF1 233 -10.345
47 AF1 234 -12.787
47 AF1 235 -14.252
47 AF1 236 -13.275
47 AF1 237 -10.834
47 AF1 238 -7.416
47 AF1 239 -5.463
47 AF1 240 -4.486
47 AF1 241 -4.974
47 AF1 242 -6.439
47 AF1 243 -8.392
47 AF1 244 -11.322
47 AF1 245 -13.275
47 AF1 246 -13.275
47 AF1 247 -11.322
47 AF1 248 -7.416
47 AF1 249 -3.510
47 AF1 250 -1.556
47 AF1 251 -2.533
47 AF1 252 -5.463
47 AF1 253 -8.881
47 AF1 254 -11.322
47 AF1 255 -11.322
# AF2 chan 5
47 AF2 0 4.924
47 AF2 1 0.529
47 AF2 2 -2.401
47 AF2 3 -4.354
47 AF2 4 -5.330
47 AF2 5 -5.330
47 AF2 6 -5.819
47 AF2 7 -6.307
47 AF2 8 -7.284
47 AF2 9 -7.284
47 AF2 10 -7.284
47 AF2 11 -6.795
47 AF2 12 -5.819
47 AF2 13 -5.330
47 AF2 14 -4.354
47 AF2 15 -3.377
47 AF2 16 -1.424
47 AF2 17 0.041
47 AF2 18 1.994
47 AF2 19 2.970
47 AF2 20 3.947
47 AF2 21 5.412
47 AF2 22 7.853
47 AF2 23 10.783
47 AF2 24 14.201
47 AF2 25 15.666
47 AF2 26 15.177
47 AF2 27 13.224
47 AF2 28 10.783
47 AF2 29 9.318
47 AF2 30 8.341
47 AF2 31 7.365
47 AF2 32 5.412
47 AF2 33 2.482
47 AF2 34 -0.936
47 AF2 35 -4.354
47 AF2 36 -6.307
47 AF2 37 -6.795
47 AF2 38 -5.819
47 AF2 39 -3.866
47 AF2 40 -2.889
47 AF2 41 -2.889
47 AF2 42 -4.354
47 AF2 43 -5.819
47 AF2 44 -6.307
47 AF2 45 -5.330
47 AF2 46 -2.889
47 AF2 47 0.041
47 AF2 48 1.994
47 AF2 49 2.482
47 AF2 50 2.482
47 AF2 51 2.482
47 AF2 52 2.970
47 AF2 53 3.947
47 AF2 54 4.924
47 AF2 55 4.435
47 AF2 56 2.970
47 AF2 57 0.529
47 AF2 58 -0.936
47 AF2 59 -0.448
47 AF2 60 0.529
47 AF2 61 2.482
47 AF2 62 2.970
47 AF2 63 2.970
47 AF2 64 1.994
47 AF2 65 0.529
47 AF2 66 -0.936
47 AF2 67 -1.912
47 AF2 68 -2.889
47 AF2 69 -3.377
47 AF2 70 -4.354
47 AF2 71 -5.330
47 AF2 72 -7.284
47 AF2 73 -8.748
47 AF2 74 -10.213
47 AF2 75 -10.213
47 AF2 76 -9.237
47 AF2 77 -8.260
47 AF2 78 -7.284
47 AF2 79 -8.260
47 AF2 80 -9.237
47 AF2 81 -10.213
47 AF2 82 -10.701
47 AF2 83 -9.237
47 AF2 84 -8.260
47 AF2 85 -7.772
47 AF2 86 -6.795
47 AF2 87 -5.819
47 AF2 88 -4.354
47 AF2 89 -2.401
47 AF2 90 -0.448
47 AF2 91 0.041
47 AF2 92 -0.936
47 AF2 93 -2.889
47 AF2 94 -4.842
47 AF2 95 -5.819
47 AF2 96 -5.819
47 AF2 97 -5.819
47 AF2 98 -5.819
47 AF2 99 -6.307
47 AF2 100 -6.795
47 AF2 101 -7.284
47 AF2 102 -6.795
47 AF2 103 -6.307
47 AF2 104 -6.795
47 AF2 105 -7.772
47 AF2 106 -9.237
47 AF2 107 -10.701
47 AF2 108 -11.190
47 AF2 109 -10.701
47 AF2 110 -10.701
47 AF2 111 -10.213
47 AF2 112 -10.213
47 AF2 113 -10.213
47 AF2 114 -9.725
47 AF2 115 -8.260
47 AF2 116 -7.284
47 AF2 117 -5.819
47 AF2 118 -4.842
47 AF2 119 -2.889
47 AF2 120 -2.401
47 AF2 121 -2.889
47 AF2 122 -4.842
47 AF2 123 -6.795
47 AF2 124 -8.260
47 AF2 125 -9.237
47 AF2 126 -9.725
47 AF2 127 -9.725
47 AF2 128 -9.725
47 AF2 129 -9.237
47 AF2 130 -8.748
47 AF2 131 -8.260
47 AF2 132 -7.772
47 AF2 133 -7.772
47 AF2 134 -8.260
47 AF2 135 -9.237
47 AF2 136 -9.725
47 AF2 137 -9.237
47 AF2 138 -9.237
47 AF2 139 -9.237
47 AF2 140 -9.725
47 AF2 141 -10.213
47 AF2 142 -10.213
47 AF2 143 -9.237
47 AF2 144 -7.284
47 AF2 145 -5.330
47 AF2 146 -2.889
47 AF2 147 -1.424
47 AF2 148 -0.448
47 AF2 149 -0.936
47 AF2 150 -1.424
47 AF2 151 -1.912
47 AF2 152 -1.912
47 AF2 153 -0.936
47 AF2 154 0.529
47 AF2 155 1.506
47 AF2 156 0.529
47 AF2 157 -2.401
47 AF2 158 -6.307
47 AF2 159 -9.237
47 AF2 160 -10.701
47 AF2 161 -9.725
47 AF2 162 -7.284
47 AF2 163 -4.842
47 AF2 164 -3.377
47 AF2 165 -3.377
47 AF2 166 -5.330
47 AF2 167 -7.284
47 AF2 168 -9.725
47 AF2 169 -11.190
47 AF2 170 -11.678
47 AF2 171 -10.701
47 AF2 172 -8.748
47 AF2 173 -7.284
47 AF2 174 -5.819
47 AF2 175 -5.819
47 AF2 176 -6.795
47 AF2 177 -8.260
47 AF2 178 -9.237
47 AF2 179 -9.237
47 AF2 180 -7.772
47 AF2 181 -6.307
47 AF2 182 -4.354
47 AF2 183 -2.401
47 AF2 184 -1.424
47 AF2 185 -0.936
47 AF2 186 -2.401
47 AF2 187 -4.842
47 AF2 188 -7.284
47 AF2 189 -8.748
47 AF2 190 -8.748
47 AF2 191 -7.284
47 AF2 192 -5.330
47 AF2 193 -3.866
47 AF2 194 -4.354
47 AF2 195 -6.795
47 AF2 196 -10.213
47 AF2 197 -13.143
47 AF2 198 -14.119
47 AF2 199 -14.119
47 AF2 200 -12.655
47 AF2 201 -9.725
47 AF2 202 -7.284
47 AF2 203 -5.330
47 AF2 204 -4.842
47 AF2 205 -6.307
47 AF2 206 -8.260
47 AF2 207 -10.213
47 AF2 208 -11.190
47 AF2 209 -10.701
47 AF2 210 -9.237
47 AF2 211 -6.795
47 AF2 212 -4.354
47 AF2 213 -1.912
47 AF2 214 -0.936
47 AF2 215 -1.424
47 AF2 216 -2.401
47 AF2 217 -3.377
47 AF2 218 -2.889
47 AF2 219 -0.936
47 AF2 220 1.017
47 AF2 221 2.970
47 AF2 222 4.435
47 AF2 223 4.435
47 AF2 224 4.435
47 AF2 225 4.435
47 AF2 226 3.947
47 AF2 227 3.947
47 AF2 228 2.970
47 AF2 229 1.017
47 AF2 230 -0.448
47 AF2 231 -1.424
47 AF2 232 -1.424
47 AF2 233 -2.401
47 AF2 234 -3.866
47 AF2 235 -5.330
47 AF2 236 -5.330
47 AF2 237 -4.354
47 AF2 238 -2.401
47 AF2 239 -0.936
47 AF2 240 -0.936
47 AF2 241 -2.401
47 AF2 242 -3.866
47 AF2 243 -5.819
47 AF2 244 -6.795
47 AF2 245 -7.772
47 AF2 246 -7.772
47 AF2 247 -6.307
47 AF2 248 -3.377
47 AF2 249 -0.448
47 AF2 250 1.506
47 AF2 251 0.529
47 AF2 252 -1.912
47 AF2 253 -5.330
47 AF2 254 -7.284
47 AF2 255 -6.795
# FZ chan 6
47 FZ 0 3.825
47 FZ 1 0.895
47 FZ 2 -1.546
47 FZ 3 -2.523
47 FZ 4 -2.523
47 FZ 5 -2.523
47 FZ 6 -2.035
47 FZ 7 -2.523
47 FZ 8 -3.011
47 FZ 9 -3.499
47 FZ 10 -3.499
47 FZ 11 -2.523
47 FZ 12 -1.546
47 FZ 13 -0.081
47 FZ 14 1.383
47 FZ 15 2.848
47 FZ 16 4.313
47 FZ 17 5.290
47 FZ 18 5.778
47 FZ 19 4.801
47 FZ 20 4.313
47 FZ 21 3.825
47 FZ 22 4.801
47 FZ 23 6.266
47 FZ 24 7.243
47 FZ 25 7.731
47 FZ 26 7.731
47 FZ 27 7.243
47 FZ 28 7.243
47 FZ 29 7.731
47 FZ 30 7.731
47 FZ 31 7.243
47 FZ 32 5.778
47 FZ 33 3.825
47 FZ 34 1.872
47 FZ 35 -0.570
47 FZ 36 -2.035
47 FZ 37 -3.011
47 FZ 38 -3.011
47 FZ 39 -3.011
47 FZ 40 -2.523
47 FZ 41 -3.011
47 FZ 42 -4.476
47 FZ 43 -5.941
47 FZ 44 -6.429
47 FZ 45 -5.452
47 FZ 46 -3.011
47 FZ 47 -0.081
47 FZ 48 1.383
47 FZ 49 1.872
47 FZ 50 0.895
47 FZ 51 -0.081
47 FZ 52 -0.570
47 FZ 53 0.407
47 FZ 54 0.895
47 FZ 55 1.383
47 FZ 56 1.383
47 FZ 57 0.407
47 FZ 58 -0.570
47 FZ 59 -0.570
47 FZ 60 -0.570
47 FZ 61 -0.081
47 FZ 62 0.895
47 FZ 63 1.383
47 FZ 64 0.895
47 FZ 65 -0.081
47 FZ 66 -2.035
47 FZ 67 -3.988
47 FZ 68 -4.964
47 FZ 69 -4.964
47 FZ 70 -4.964
47 FZ 71 -4.964
47 FZ 72 -5.941
47 FZ 73 -7.406
47 FZ 74 -8.382
47 FZ 75 -7.894
47 FZ 76 -6.917
47 FZ 77 -5.452
47 FZ 78 -3.988
47 FZ 79 -4.476
47 FZ 80 -4.964
47 FZ 81 -4.964
47 FZ 82 -4.476
47 FZ 83 -3.499
47 FZ 84 -3.011
47 FZ 85 -3.011
47 FZ 86 -3.499
47 FZ 87 -3.988
47 FZ 88 -3.499
47 FZ 89 -2.035
47 FZ 90 -0.081
47 FZ 91 0.895
47 FZ 92 0.895
47 FZ 93 -0.570
47 FZ 94 -2.523
47 FZ 95 -3.988
47 FZ 96 -4.476
47 FZ 97 -3.988
47 FZ 98 -4.476
47 FZ 99 -4.964
47 FZ 100 -5.452
47 FZ 101 -6.429
47 FZ 102 -6.917
47 FZ 103 -7.406
47 FZ 104 -7.406
47 FZ 105 -7.894
47 FZ 106 -7.894
47 FZ 107 -7.894
47 FZ 108 -7.894
47 FZ 109 -7.406
47 FZ 110 -7.406
47 FZ 111 -6.917
47 FZ 112 -7.406
47 FZ 113 -6.917
47 FZ 114 -6.917
47 FZ 115 -6.429
47 FZ 116 -6.429
47 FZ 117 -5.452
47 FZ 118 -4.964
47 FZ 119 -4.476
47 FZ 120 -4.476
47 FZ 121 -6.429
47 FZ 122 -9.359
47 FZ 123 -11.800
47 FZ 124 -14.242
47 FZ 125 -15.218
47 FZ 126 -14.730
47 FZ 127 -14.242
47 FZ 128 -13.753
47 FZ 129 -12.777
47 FZ 130 -12.777
47 FZ 131 -12.777
47 FZ 132 -13.753
47 FZ 133 -14.730
47 FZ 134 -15.218
47 FZ 135 -15.218
47 FZ 136 -14.730
47 FZ 137 -14.242
47 FZ 138 -14.730
47 FZ 139 -16.195
47 FZ 140 -18.148
47 FZ 141 -18.636
47 FZ 142 -18.148
47 FZ 143 -16.195
47 FZ 144 -14.242
47 FZ 145 -12.288
47 FZ 146 -11.312
47 FZ 147 -10.824
47 FZ 148 -10.824
47 FZ 149 -10.335
47 FZ 150 -9.847
47 FZ 151 -9.359
47 FZ 152 -9.359
47 FZ 153 -8.870
47 FZ 154 -8.870
47 FZ 155 -9.359
47 FZ 156 -10.335
47 FZ 157 -12.777
47 FZ 158 -15.218
47 FZ 159 -17.171
47 FZ 160 -18.148
47 FZ 161 -17.171
47 FZ 162 -15.218
47 FZ 163 -13.753
47 FZ 164 -13.265
47 FZ 165 -13.265
47 FZ 166 -14.242
47 FZ 167 -15.218
47 FZ 168 -15.706
47 FZ 169 -15.706
47 FZ 170 -15.706
47 FZ 171 -15.706
47 FZ 172 -15.218
47 FZ 173 -14.730
47 FZ 174 -14.730
47 FZ 175 -15.218
47 FZ 176 -16.195
47 FZ 177 -17.171
47 FZ 178 -17.171
47 FZ 179 -16.195
47 FZ 180 -15.218
47 FZ 181 -14.730
47 FZ 182 -14.242
47 FZ 183 -13.753
47 FZ 184 -13.265
47 FZ 185 -13.265
47 FZ 186 -12.777
47 FZ 187 -13.265
47 FZ 188 -13.753
47 FZ 189 -14.242
47 FZ 190 -13.753
47 FZ 191 -12.777
47 FZ 192 -10.824
47 FZ 193 -9.847
47 FZ 194 -10.335
47 FZ 195 -11.800
47 FZ 196 -14.242
47 FZ 197 -16.195
47 FZ 198 -17.171
47 FZ 199 -16.195
47 FZ 200 -13.753
47 FZ 201 -10.335
47 FZ 202 -6.917
47 FZ 203 -5.452
47 FZ 204 -4.964
47 FZ 205 -6.917
47 FZ 206 -9.359
47 FZ 207 -12.288
47 FZ 208 -13.753
47 FZ 209 -13.753
47 FZ 210 -12.777
47 FZ 211 -11.312
47 FZ 212 -9.359
47 FZ 213 -8.870
47 FZ 214 -8.870
47 FZ 215 -9.359
47 FZ 216 -9.359
47 FZ 217 -8.382
47 FZ 218 -7.406
47 FZ 219 -5.941
47 FZ 220 -4.476
47 FZ 221 -3.499
47 FZ 222 -2.523
47 FZ 223 -1.546
47 FZ 224 -0.081
47 FZ 225 -0.081
47 FZ 226 -0.570
47 FZ 227 -1.546
47 FZ 228 -2.523
47 FZ 229 -3.499
47 FZ 230 -3.988
47 FZ 231 -3.988
47 FZ 232 -3.988
47 FZ 233 -5.452
47 FZ 234 -6.429
47 FZ 235 -7.894
47 FZ 236 -8.870
47 FZ 237 -8.382
47 FZ 238 -7.894
47 FZ 239 -7.894
47 FZ 240 -7.894
47 FZ 241 -7.894
47 FZ 242 -7.894
47 FZ 243 -8.870
47 FZ 244 -9.847
47 FZ 245 -10.824
47 FZ 246 -11.312
47 FZ 247 -10.335
47 FZ 248 -7.894
47 FZ 249 -5.941
47 FZ 250 -4.476
47 FZ 251 -4.964
47 FZ 252 -6.917
47 FZ 253 -8.870
47 FZ 254 -10.335
47 FZ 255 -9.847
# F4 chan 7
47 F4 0 2.279
47 F4 1 -1.139
47 F4 2 -2.604
47 F4 3 -3.092
47 F4 4 -4.069
47 F4 5 -5.046
47 F4 6 -6.022
47 F4 7 -7.487
47 F4 8 -6.999
47 F4 9 -6.510
47 F4 10 -5.046
47 F4 11 -4.069
47 F4 12 -4.069
47 F4 13 -4.557
47 F4 14 -5.534
47 F4 15 -5.534
47 F4 16 -5.046
47 F4 17 -3.092
47 F4 18 -2.116
47 F4 19 -0.651
47 F4 20 0.326
47 F4 21 0.814
47 F4 22 2.767
47 F4 23 4.720
47 F4 24 7.161
47 F4 25 8.626
47 F4 26 9.115
47 F4 27 8.138
47 F4 28 6.673
47 F4 29 4.720
47 F4 30 3.255
47 F4 31 2.279
47 F4 32 0.814
47 F4 33 -1.139
47 F4 34 -3.092
47 F4 35 -5.046
47 F4 36 -6.510
47 F4 37 -6.510
47 F4 38 -5.534
47 F4 39 -4.557
47 F4 40 -4.557
47 F4 41 -6.022
47 F4 42 -8.464
47 F4 43 -10.417
47 F4 44 -11.393
47 F4 45 -10.417
47 F4 46 -7.975
47 F4 47 -5.046
47 F4 48 -3.581
47 F4 49 -4.069
47 F4 50 -4.069
47 F4 51 -4.557
47 F4 52 -3.092
47 F4 53 -1.139
47 F4 54 -0.163
47 F4 55 -0.163
47 F4 56 -2.604
47 F4 57 -5.534
47 F4 58 -6.999
47 F4 59 -6.999
47 F4 60 -4.069
47 F4 61 -1.628
47 F4 62 0.326
47 F4 63 -0.163
47 F4 64 -2.116
47 F4 65 -4.069
47 F4 66 -5.046
47 F4 67 -5.534
47 F4 68 -6.022
47 F4 69 -6.510
47 F4 70 -7.975
47 F4 71 -9.928
47 F4 72 -10.905
47 F4 73 -10.905
47 F4 74 -10.905
47 F4 75 -10.417
47 F4 76 -10.417
47 F4 77 -10.417
47 F4 78 -10.417
47 F4 79 -10.417
47 F4 80 -10.417
47 F4 81 -9.928
47 F4 82 -9.928
47 F4 83 -9.928
47 F4 84 -9.440
47 F4 85 -8.952
47 F4 86 -7.487
47 F4 87 -6.022
47 F4 88 -5.046
47 F4 89 -4.069
47 F4 90 -4.069
47 F4 91 -4.069
47 F4 92 -4.557
47 F4 93 -4.557
47 F4 94 -4.557
47 F4 95 -4.557
47 F4 96 -5.046
47 F4 97 -5.534
47 F4 98 -6.022
47 F4 99 -6.999
47 F4 100 -7.487
47 F4 101 -7.487
47 F4 102 -6.510
47 F4 103 -6.510
47 F4 104 -6.510
47 F4 105 -6.999
47 F4 106 -7.975
47 F4 107 -8.952
47 F4 108 -8.952
47 F4 109 -8.952
47 F4 110 -8.952
47 F4 111 -8.952
47 F4 112 -9.440
47 F4 113 -9.928
47 F4 114 -9.928
47 F4 115 -9.928
47 F4 116 -8.464
47 F4 117 -6.510
47 F4 118 -4.069
47 F4 119 -1.628
47 F4 120 -0.651
47 F4 121 -1.139
47 F4 122 -3.581
47 F4 123 -6.510
47 F4 124 -8.952
47 F4 125 -9.928
47 F4 126 -9.928
47 F4 127 -8.952
47 F4 128 -8.464
47 F4 129 -8.464
47 F4 130 -8.952
47 F4 131 -9.440
47 F4 132 -9.928
47 F4 133 -10.417
47 F4 134 -11.393
47 F4 135 -11.882
47 F4 136 -12.370
47 F4 137 -11.882
47 F4 138 -11.393
47 F4 139 -10.905
47 F4 140 -11.393
47 F4 141 -11.882
47 F4 142 -12.370
47 F4 143 -11.882
47 F4 144 -9.928
47 F4 145 -7.975
47 F4 146 -6.022
47 F4 147 -4.069
47 F4 148 -3.092
47 F4 149 -3.092
47 F4 150 -4.069
47 F4 151 -4.557
47 F4 152 -4.069
47 F4 153 -3.581
47 F4 154 -2.116
47 F4 155 -1.628
47 F4 156 -2.604
47 F4 157 -4.557
47 F4 158 -7.487
47 F4 159 -9.928
47 F4 160 -10.905
47 F4 161 -9.928
47 F4 162 -6.999
47 F4 163 -4.557
47 F4 164 -3.092
47 F4 165 -4.069
47 F4 166 -6.510
47 F4 167 -8.952
47 F4 168 -11.393
47 F4 169 -12.370
47 F4 170 -12.370
47 F4 171 -11.393
47 F4 172 -10.417
47 F4 173 -8.952
47 F4 174 -7.975
47 F4 175 -7.975
47 F4 176 -7.487
47 F4 177 -7.975
47 F4 178 -7.975
47 F4 179 -7.487
47 F4 180 -6.999
47 F4 181 -6.999
47 F4 182 -6.022
47 F4 183 -5.534
47 F4 184 -4.557
47 F4 185 -3.581
47 F4 186 -4.069
47 F4 187 -5.534
47 F4 188 -8.464
47 F4 189 -10.417
47 F4 190 -10.905
47 F4 191 -9.440
47 F4 192 -6.999
47 F4 193 -4.557
47 F4 194 -5.046
47 F4 195 -6.999
47 F4 196 -10.417
47 F4 197 -12.858
47 F4 198 -14.323
47 F4 199 -13.346
47 F4 200 -11.882
47 F4 201 -9.928
47 F4 202 -8.952
47 F4 203 -8.464
47 F4 204 -8.952
47 F4 205 -9.928
47 F4 206 -10.905
47 F4 207 -11.882
47 F4 208 -12.370
47 F4 209 -12.370
47 F4 210 -10.905
47 F4 211 -8.952
47 F4 212 -6.510
47 F4 213 -4.557
47 F4 214 -4.069
47 F4 215 -4.069
47 F4 216 -4.557
47 F4 217 -5.046
47 F4 218 -4.557
47 F4 219 -3.581
47 F4 220 -3.092
47 F4 221 -2.604
47 F4 222 -2.604
47 F4 223 -2.116
47 F4 224 -1.628
47 F4 225 -0.163
47 F4 226 -0.163
47 F4 227 -1.139
47 F4 228 -3.092
47 F4 229 -5.046
47 F4 230 -5.534
47 F4 231 -5.046
47 F4 232 -4.069
47 F4 233 -4.069
47 F4 234 -5.534
47 F4 235 -7.975
47 F4 236 -9.440
47 F4 237 -9.440
47 F4 238 -7.487
47 F4 239 -6.510
47 F4 240 -6.022
47 F4 241 -6.510
47 F4 242 -7.975
47 F4 243 -8.952
47 F4 244 -9.928
47 F4 245 -9.928
47 F4 246 -9.928
47 F4 247 -8.464
47 F4 248 -6.999
47 F4 249 -5.046
47 F4 250 -3.581
47 F4 251 -4.069
47 F4 252 -6.022
47 F4 253 -7.975
47 F4 254 -8.464
47 F4 255 -7.975
# F3 chan 8
47 F3 0 2.055
47 F3 1 -1.851
47 F3 2 -3.805
47 F3 3 -4.293
47 F3 4 -4.293
47 F3 5 -4.293
47 F3 6 -4.781
47 F3 7 -5.269
47 F3 8 -5.758
47 F3 9 -5.758
47 F3 10 -4.781
47 F3 11 -4.781
47 F3 12 -4.293
47 F3 13 -3.805
47 F3 14 -2.828
47 F3 15 -1.363
47 F3 16 0.590
47 F3 17 2.543
47 F3 18 3.031
47 F3 19 3.520
47 F3 20 3.031
47 F3 21 3.031
47 F3 22 4.008
47 F3 23 5.961
47 F3 24 8.403
47 F3 25 10.356
47 F3 26 11.332
47 F3 27 11.332
47 F3 28 10.356
47 F3 29 9.379
47 F3 30 8.403
47 F3 31 6.938
47 F3 32 5.473
47 F3 33 2.543
47 F3 34 -0.875
47 F3 35 -3.805
47 F3 36 -6.734
47 F3 37 -7.711
47 F3 38 -7.711
47 F3 39 -6.246
47 F3 40 -5.269
47 F3 41 -4.781
47 F3 42 -5.758
47 F3 43 -6.246
47 F3 44 -6.734
47 F3 45 -5.758
47 F3 46 -3.316
47 F3 47 0.102
47 F3 48 2.055
47 F3 49 3.031
47 F3 50 2.543
47 F3 51 1.567
47 F3 52 1.567
47 F3 53 3.031
47 F3 54 4.008
47 F3 55 4.008
47 F3 56 3.031
47 F3 57 1.078
47 F3 58 -0.387
47 F3 59 -0.387
47 F3 60 0.590
47 F3 61 2.055
47 F3 62 2.543
47 F3 63 2.543
47 F3 64 0.590
47 F3 65 -1.363
47 F3 66 -3.316
47 F3 67 -4.781
47 F3 68 -5.269
47 F3 69 -5.758
47 F3 70 -5.269
47 F3 71 -5.269
47 F3 72 -5.269
47 F3 73 -4.781
47 F3 74 -5.269
47 F3 75 -5.758
47 F3 76 -6.246
47 F3 77 -6.246
47 F3 78 -6.246
47 F3 79 -6.734
47 F3 80 -6.246
47 F3 81 -6.246
47 F3 82 -5.758
47 F3 83 -4.293
47 F3 84 -2.828
47 F3 85 -2.340
47 F3 86 -2.340
47 F3 87 -2.340
47 F3 88 -2.340
47 F3 89 -1.851
47 F3 90 -0.875
47 F3 91 -0.387
47 F3 92 -0.387
47 F3 93 -0.875
47 F3 94 -2.340
47 F3 95 -2.828
47 F3 96 -2.340
47 F3 97 -1.851
47 F3 98 -1.851
47 F3 99 -2.340
47 F3 100 -3.316
47 F3 101 -4.293
47 F3 102 -4.781
47 F3 103 -5.269
47 F3 104 -5.758
47 F3 105 -6.734
47 F3 106 -7.711
47 F3 107 -8.199
47 F3 108 -8.199
47 F3 109 -7.711
47 F3 110 -7.222
47 F3 111 -6.246
47 F3 112 -6.246
47 F3 113 -5.758
47 F3 114 -5.269
47 F3 115 -4.781
47 F3 116 -4.293
47 F3 117 -3.805
47 F3 118 -3.805
47 F3 119 -3.805
47 F3 120 -3.805
47 F3 121 -3.805
47 F3 122 -4.293
47 F3 123 -5.269
47 F3 124 -7.222
47 F3 125 -8.199
47 F3 126 -9.176
47 F3 127 -8.199
47 F3 128 -7.222
47 F3 129 -6.246
47 F3 130 -6.734
47 F3 131 -7.711
47 F3 132 -9.176
47 F3 133 -9.664
47 F3 134 -9.176
47 F3 135 -7.711
47 F3 136 -6.734
47 F3 137 -6.246
47 F3 138 -6.734
47 F3 139 -7.711
47 F3 140 -8.199
47 F3 141 -8.199
47 F3 142 -7.222
47 F3 143 -6.246
47 F3 144 -4.781
47 F3 145 -3.316
47 F3 146 -2.340
47 F3 147 -1.363
47 F3 148 -0.875
47 F3 149 -1.363
47 F3 150 -2.340
47 F3 151 -2.340
47 F3 152 -2.340
47 F3 153 -2.340
47 F3 154 -2.340
47 F3 155 -3.316
47 F3 156 -5.269
47 F3 157 -7.222
47 F3 158 -8.199
47 F3 159 -8.199
47 F3 160 -6.246
47 F3 161 -4.781
47 F3 162 -3.805
47 F3 163 -4.293
47 F3 164 -5.269
47 F3 165 -6.734
47 F3 166 -7.222
47 F3 167 -7.222
47 F3 168 -7.711
47 F3 169 -8.199
47 F3 170 -8.199
47 F3 171 -7.711
47 F3 172 -6.246
47 F3 173 -5.269
47 F3 174 -5.269
47 F3 175 -6.246
47 F3 176 -7.711
47 F3 177 -8.687
47 F3 178 -8.687
47 F3 179 -7.711
47 F3 180 -5.758
47 F3 181 -4.293
47 F3 182 -3.316
47 F3 183 -3.316
47 F3 184 -4.293
47 F3 185 -5.269
47 F3 186 -7.222
47 F3 187 -9.176
47 F3 188 -10.152
47 F3 189 -9.176
47 F3 190 -7.711
47 F3 191 -5.269
47 F3 192 -3.805
47 F3 193 -4.293
47 F3 194 -6.246
47 F3 195 -8.687
47 F3 196 -11.129
47 F3 197 -12.105
47 F3 198 -11.617
47 F3 199 -9.664
47 F3 200 -7.222
47 F3 201 -4.293
47 F3 202 -1.851
47 F3 203 -0.875
47 F3 204 -1.363
47 F3 205 -3.316
47 F3 206 -5.269
47 F3 207 -6.734
47 F3 208 -7.711
47 F3 209 -7.222
47 F3 210 -6.246
47 F3 211 -4.781
47 F3 212 -3.316
47 F3 213 -2.340
47 F3 214 -0.875
47 F3 215 0.590
47 F3 216 1.078
47 F3 217 1.078
47 F3 218 0.590
47 F3 219 0.590
47 F3 220 0.590
47 F3 221 1.078
47 F3 222 2.055
47 F3 223 2.543
47 F3 224 2.543
47 F3 225 1.567
47 F3 226 1.078
47 F3 227 1.078
47 F3 228 2.055
47 F3 229 3.031
47 F3 230 3.031
47 F3 231 1.567
47 F3 232 -0.875
47 F3 233 -4.293
47 F3 234 -6.734
47 F3 235 -7.711
47 F3 236 -6.246
47 F3 237 -3.805
47 F3 238 -0.875
47 F3 239 1.567
47 F3 240 2.543
47 F3 241 2.055
47 F3 242 -0.387
47 F3 243 -2.828
47 F3 244 -5.269
47 F3 245 -6.246
47 F3 246 -5.758
47 F3 247 -3.316
47 F3 248 -0.387
47 F3 249 2.055
47 F3 250 3.031
47 F3 251 2.055
47 F3 252 0.102
47 F3 253 -2.828
47 F3 254 -4.293
47 F3 255 -4.293
# FC6 chan 9
47 FC6 0 0.254
47 FC6 1 -0.722
47 FC6 2 -1.699
47 FC6 3 -2.675
47 FC6 4 -2.675
47 FC6 5 -3.164
47 FC6 6 -4.140
47 FC6 7 -4.628
47 FC6 8 -5.117
47 FC6 9 -4.140
47 FC6 10 -2.675
47 FC6 11 -1.211
47 FC6 12 -0.722
47 FC6 13 -1.699
47 FC6 14 -3.164
47 FC6 15 -3.652
47 FC6 16 -3.164
47 FC6 17 -1.211
47 FC6 18 0.743
47 FC6 19 2.696
47 FC6 20 2.696
47 FC6 21 2.696
47 FC6 22 3.184
47 FC6 23 4.161
47 FC6 24 6.114
47 FC6 25 7.579
47 FC6 26 8.555
47 FC6 27 8.067
47 FC6 28 7.579
47 FC6 29 6.602
47 FC6 30 6.114
47 FC6 31 5.625
47 FC6 32 4.161
47 FC6 33 2.696
47 FC6 34 1.719
47 FC6 35 0.743
47 FC6 36 0.254
47 FC6 37 -0.234
47 FC6 38 -0.234
47 FC6 39 -0.234
47 FC6 40 -0.722
47 FC6 41 -1.211
47 FC6 42 -2.675
47 FC6 43 -3.652
47 FC6 44 -4.628
47 FC6 45 -4.628
47 FC6 46 -4.628
47 FC6 47 -5.117
47 FC6 48 -5.605
47 FC6 49 -6.093
47 FC6 50 -6.093
47 FC6 51 -6.093
47 FC6 52 -5.117
47 FC6 53 -4.140
47 FC6 54 -3.164
47 FC6 55 -3.164
47 FC6 56 -4.140
47 FC6 57 -6.093
47 FC6 58 -7.070
47 FC6 59 -7.070
47 FC6 60 -6.093
47 FC6 61 -3.164
47 FC6 62 -1.211
47 FC6 63 -0.722
47 FC6 64 -2.187
47 FC6 65 -4.140
47 FC6 66 -5.117
47 FC6 67 -5.605
47 FC6 68 -4.628
47 FC6 69 -3.652
47 FC6 70 -4.140
47 FC6 71 -5.117
47 FC6 72 -6.093
47 FC6 73 -6.582
47 FC6 74 -5.605
47 FC6 75 -5.117
47 FC6 76 -5.117
47 FC6 77 -6.093
47 FC6 78 -7.070
47 FC6 79 -7.558
47 FC6 80 -7.070
47 FC6 81 -6.093
47 FC6 82 -5.117
47 FC6 83 -4.628
47 FC6 84 -3.652
47 FC6 85 -3.652
47 FC6 86 -3.164
47 FC6 87 -3.164
47 FC6 88 -2.675
47 FC6 89 -2.187
47 FC6 90 -2.187
47 FC6 91 -1.699
47 FC6 92 -1.699
47 FC6 93 -1.699
47 FC6 94 -1.211
47 FC6 95 -0.722
47 FC6 96 -0.234
47 FC6 97 -0.234
47 FC6 98 -0.234
47 FC6 99 -1.211
47 FC6 100 -2.187
47 FC6 101 -2.675
47 FC6 102 -2.187
47 FC6 103 -1.699
47 FC6 104 -1.211
47 FC6 105 -0.722
47 FC6 106 -1.211
47 FC6 107 -1.699
47 FC6 108 -1.699
47 FC6 109 -1.211
47 FC6 110 -0.234
47 FC6 111 0.254
47 FC6 112 -0.234
47 FC6 113 -0.722
47 FC6 114 -0.722
47 FC6 115 -0.234
47 FC6 116 0.743
47 FC6 117 2.207
47 FC6 118 4.161
47 FC6 119 6.114
47 FC6 120 6.602
47 FC6 121 5.625
47 FC6 122 3.184
47 FC6 123 1.231
47 FC6 124 0.254
47 FC6 125 -0.234
47 FC6 126 -0.234
47 FC6 127 -0.722
47 FC6 128 -1.211
47 FC6 129 -1.699
47 FC6 130 -2.187
47 FC6 131 -2.675
47 FC6 132 -3.164
47 FC6 133 -4.140
47 FC6 134 -6.093
47 FC6 135 -7.558
47 FC6 136 -7.558
47 FC6 137 -6.093
47 FC6 138 -4.628
47 FC6 139 -3.652
47 FC6 140 -4.628
47 FC6 141 -6.582
47 FC6 142 -8.535
47 FC6 143 -8.535
47 FC6 144 -7.070
47 FC6 145 -4.140
47 FC6 146 -1.699
47 FC6 147 -0.234
47 FC6 148 0.254
47 FC6 149 -0.722
47 FC6 150 -1.211
47 FC6 151 -1.211
47 FC6 152 -0.722
47 FC6 153 0.254
47 FC6 154 1.719
47 FC6 155 2.696
47 FC6 156 2.207
47 FC6 157 0.743
47 FC6 158 -1.211
47 FC6 159 -3.652
47 FC6 160 -4.628
47 FC6 161 -4.628
47 FC6 162 -3.164
47 FC6 163 -1.211
47 FC6 164 -0.234
47 FC6 165 -0.234
47 FC6 166 -1.211
47 FC6 167 -2.187
47 FC6 168 -3.164
47 FC6 169 -4.140
47 FC6 170 -4.628
47 FC6 171 -5.117
47 FC6 172 -4.628
47 FC6 173 -3.652
47 FC6 174 -2.675
47 FC6 175 -1.699
47 FC6 176 -0.722
47 FC6 177 -0.722
47 FC6 178 -0.234
47 FC6 179 -0.234
47 FC6 180 0.254
47 FC6 181 0.254
47 FC6 182 0.743
47 FC6 183 1.231
47 FC6 184 2.207
47 FC6 185 2.696
47 FC6 186 3.184
47 FC6 187 1.719
47 FC6 188 -0.722
47 FC6 189 -3.164
47 FC6 190 -4.628
47 FC6 191 -4.628
47 FC6 192 -3.164
47 FC6 193 -1.211
47 FC6 194 -0.722
47 FC6 195 -1.211
47 FC6 196 -2.675
47 FC6 197 -4.628
47 FC6 198 -6.093
47 FC6 199 -6.582
47 FC6 200 -6.582
47 FC6 201 -5.605
47 FC6 202 -5.117
47 FC6 203 -5.117
47 FC6 204 -5.605
47 FC6 205 -7.070
47 FC6 206 -7.558
47 FC6 207 -7.070
47 FC6 208 -5.117
47 FC6 209 -3.164
47 FC6 210 -1.211
47 FC6 211 -0.234
47 FC6 212 0.743
47 FC6 213 1.719
47 FC6 214 3.184
47 FC6 215 3.672
47 FC6 216 4.161
47 FC6 217 3.184
47 FC6 218 2.696
47 FC6 219 3.184
47 FC6 220 4.161
47 FC6 221 5.137
47 FC6 222 5.625
47 FC6 223 5.137
47 FC6 224 4.161
47 FC6 225 2.696
47 FC6 226 1.231
47 FC6 227 -0.722
47 FC6 228 -2.187
47 FC6 229 -2.675
47 FC6 230 -1.699
47 FC6 231 0.254
47 FC6 232 2.207
47 FC6 233 3.184
47 FC6 234 2.207
47 FC6 235 0.743
47 FC6 236 0.254
47 FC6 237 0.743
47 FC6 238 2.207
47 FC6 239 3.672
47 FC6 240 4.161
47 FC6 241 3.672
47 FC6 242 3.672
47 FC6 243 2.696
47 FC6 244 2.207
47 FC6 245 1.231
47 FC6 246 0.743
47 FC6 247 0.254
47 FC6 248 1.231
47 FC6 249 2.207
47 FC6 250 3.672
47 FC6 251 3.672
47 FC6 252 2.207
47 FC6 253 -0.234
47 FC6 254 -1.211
47 FC6 255 -1.211
# FC5 chan 10
47 FC5 0 -2.024
47 FC5 1 -3.489
47 FC5 2 -3.977
47 FC5 3 -3.489
47 FC5 4 -3.977
47 FC5 5 -4.954
47 FC5 6 -6.419
47 FC5 7 -7.395
47 FC5 8 -7.884
47 FC5 9 -7.884
47 FC5 10 -7.395
47 FC5 11 -6.907
47 FC5 12 -5.931
47 FC5 13 -4.954
47 FC5 14 -3.489
47 FC5 15 -2.513
47 FC5 16 -1.048
47 FC5 17 -0.071
47 FC5 18 0.905
47 FC5 19 0.417
47 FC5 20 -0.071
47 FC5 21 -1.048
47 FC5 22 -1.536
47 FC5 23 -1.048
47 FC5 24 0.905
47 FC5 25 3.835
47 FC5 26 5.788
47 FC5 27 6.276
47 FC5 28 5.788
47 FC5 29 4.323
47 FC5 30 2.858
47 FC5 31 0.905
47 FC5 32 -1.536
47 FC5 33 -3.977
47 FC5 34 -6.907
47 FC5 35 -9.349
47 FC5 36 -10.813
47 FC5 37 -11.302
47 FC5 38 -10.813
47 FC5 39 -10.325
47 FC5 40 -9.349
47 FC5 41 -8.860
47 FC5 42 -8.372
47 FC5 43 -7.884
47 FC5 44 -6.907
47 FC5 45 -4.954
47 FC5 46 -3.001
47 FC5 47 -1.048
47 FC5 48 -0.559
47 FC5 49 -1.536
47 FC5 50 -3.489
47 FC5 51 -4.954
47 FC5 52 -4.954
47 FC5 53 -3.489
47 FC5 54 -1.536
47 FC5 55 -0.559
47 FC5 56 -2.024
47 FC5 57 -3.977
47 FC5 58 -5.442
47 FC5 59 -5.442
47 FC5 60 -3.977
47 FC5 61 -2.513
47 FC5 62 -2.024
47 FC5 63 -3.977
47 FC5 64 -6.419
47 FC5 65 -8.860
47 FC5 66 -10.813
47 FC5 67 -11.790
47 FC5 68 -11.790
47 FC5 69 -11.790
47 FC5 70 -11.790
47 FC5 71 -11.302
47 FC5 72 -9.837
47 FC5 73 -8.372
47 FC5 74 -6.907
47 FC5 75 -6.907
47 FC5 76 -6.907
47 FC5 77 -7.884
47 FC5 78 -8.372
47 FC5 79 -8.860
47 FC5 80 -8.860
47 FC5 81 -8.372
47 FC5 82 -7.395
47 FC5 83 -6.419
47 FC5 84 -5.442
47 FC5 85 -5.931
47 FC5 86 -7.395
47 FC5 87 -8.860
47 FC5 88 -9.837
47 FC5 89 -9.349
47 FC5 90 -7.884
47 FC5 91 -6.419
47 FC5 92 -6.419
47 FC5 93 -7.395
47 FC5 94 -8.860
47 FC5 95 -9.349
47 FC5 96 -9.349
47 FC5 97 -7.884
47 FC5 98 -7.395
47 FC5 99 -7.395
47 FC5 100 -8.860
47 FC5 101 -10.325
47 FC5 102 -11.790
47 FC5 103 -12.278
47 FC5 104 -12.767
47 FC5 105 -12.767
47 FC5 106 -13.255
47 FC5 107 -13.255
47 FC5 108 -12.767
47 FC5 109 -11.790
47 FC5 110 -11.790
47 FC5 111 -11.302
47 FC5 112 -11.302
47 FC5 113 -10.325
47 FC5 114 -8.860
47 FC5 115 -6.907
47 FC5 116 -5.442
47 FC5 117 -5.931
47 FC5 118 -7.395
47 FC5 119 -8.372
47 FC5 120 -8.372
47 FC5 121 -7.884
47 FC5 122 -7.884
47 FC5 123 -8.372
47 FC5 124 -10.325
47 FC5 125 -11.790
47 FC5 126 -12.767
47 FC5 127 -12.278
47 FC5 128 -11.790
47 FC5 129 -11.790
47 FC5 130 -12.767
47 FC5 131 -13.743
47 FC5 132 -14.720
47 FC5 133 -14.720
47 FC5 134 -13.743
47 FC5 135 -13.255
47 FC5 136 -13.255
47 FC5 137 -14.231
47 FC5 138 -14.720
47 FC5 139 -15.696
47 FC5 140 -15.696
47 FC5 141 -15.208
47 FC5 142 -15.208
47 FC5 143 -14.720
47 FC5 144 -14.231
47 FC5 145 -13.255
47 FC5 146 -12.278
47 FC5 147 -10.813
47 FC5 148 -10.813
47 FC5 149 -10.813
47 FC5 150 -10.813
47 FC5 151 -10.813
47 FC5 152 -10.813
47 FC5 153 -10.325
47 FC5 154 -10.813
47 FC5 155 -12.278
47 FC5 156 -13.255
47 FC5 157 -14.720
47 FC5 158 -14.720
47 FC5 159 -13.255
47 FC5 160 -11.302
47 FC5 161 -10.325
47 FC5 162 -9.837
47 FC5 163 -10.813
47 FC5 164 -11.790
47 FC5 165 -12.278
47 FC5 166 -11.302
47 FC5 167 -10.325
47 FC5 168 -9.349
47 FC5 169 -9.349
47 FC5 170 -9.837
47 FC5 171 -9.349
47 FC5 172 -8.860
47 FC5 173 -7.884
47 FC5 174 -7.395
47 FC5 175 -7.884
47 FC5 176 -8.372
47 FC5 177 -9.349
47 FC5 178 -9.349
47 FC5 179 -8.860
47 FC5 180 -7.884
47 FC5 181 -7.884
47 FC5 182 -7.395
47 FC5 183 -6.419
47 FC5 184 -5.931
47 FC5 185 -5.931
47 FC5 186 -5.931
47 FC5 187 -6.907
47 FC5 188 -7.884
47 FC5 189 -7.884
47 FC5 190 -7.395
47 FC5 191 -7.395
47 FC5 192 -7.884
47 FC5 193 -9.349
47 FC5 194 -11.302
47 FC5 195 -12.278
47 FC5 196 -12.767
47 FC5 197 -11.790
47 FC5 198 -10.813
47 FC5 199 -9.837
47 FC5 200 -7.884
47 FC5 201 -6.419
47 FC5 202 -5.442
47 FC5 203 -4.954
47 FC5 204 -5.931
47 FC5 205 -7.395
47 FC5 206 -8.860
47 FC5 207 -9.837
47 FC5 208 -9.349
47 FC5 209 -8.372
47 FC5 210 -7.395
47 FC5 211 -6.907
47 FC5 212 -7.395
47 FC5 213 -8.372
47 FC5 214 -8.860
47 FC5 215 -8.372
47 FC5 216 -7.395
47 FC5 217 -6.907
47 FC5 218 -6.419
47 FC5 219 -5.931
47 FC5 220 -4.954
47 FC5 221 -3.489
47 FC5 222 -2.513
47 FC5 223 -2.513
47 FC5 224 -3.977
47 FC5 225 -5.442
47 FC5 226 -5.931
47 FC5 227 -5.931
47 FC5 228 -3.977
47 FC5 229 -2.513
47 FC5 230 -2.024
47 FC5 231 -3.489
47 FC5 232 -5.931
47 FC5 233 -8.372
47 FC5 234 -10.325
47 FC5 235 -11.302
47 FC5 236 -10.325
47 FC5 237 -8.860
47 FC5 238 -6.419
47 FC5 239 -3.977
47 FC5 240 -2.513
47 FC5 241 -2.024
47 FC5 242 -3.001
47 FC5 243 -4.954
47 FC5 244 -7.884
47 FC5 245 -9.349
47 FC5 246 -8.860
47 FC5 247 -6.907
47 FC5 248 -4.466
47 FC5 249 -2.513
47 FC5 250 -2.024
47 FC5 251 -3.001
47 FC5 252 -4.954
47 FC5 253 -6.907
47 FC5 254 -8.372
47 FC5 255 -8.372
# FC2 chan 11
47 FC2 0 0.773
47 FC2 1 -0.203
47 FC2 2 -0.692
47 FC2 3 -0.692
47 FC2 4 -1.180
47 FC2 5 -1.668
47 FC2 6 -2.645
47 FC2 7 -3.621
47 FC2 8 -3.621
47 FC2 9 -3.621
47 FC2 10 -3.621
47 FC2 11 -3.621
47 FC2 12 -3.621
47 FC2 13 -4.110
47 FC2 14 -4.598
47 FC2 15 -5.086
47 FC2 16 -4.598
47 FC2 17 -4.110
47 FC2 18 -3.621
47 FC2 19 -3.621
47 FC2 20 -4.110
47 FC2 21 -4.110
47 FC2 22 -3.621
47 FC2 23 -2.645
47 FC2 24 -2.157
47 FC2 25 -1.180
47 FC2 26 -1.180
47 FC2 27 -1.180
47 FC2 28 -1.668
47 FC2 29 -2.157
47 FC2 30 -3.133
47 FC2 31 -3.621
47 FC2 32 -4.598
47 FC2 33 -5.575
47 FC2 34 -7.039
47 FC2 35 -7.528
47 FC2 36 -7.528
47 FC2 37 -7.528
47 FC2 38 -7.039
47 FC2 39 -6.551
47 FC2 40 -7.039
47 FC2 41 -7.528
47 FC2 42 -8.016
47 FC2 43 -8.504
47 FC2 44 -8.504
47 FC2 45 -7.528
47 FC2 46 -7.039
47 FC2 47 -6.063
47 FC2 48 -6.063
47 FC2 49 -6.063
47 FC2 50 -6.551
47 FC2 51 -6.551
47 FC2 52 -6.063
47 FC2 53 -5.086
47 FC2 54 -4.110
47 FC2 55 -4.110
47 FC2 56 -4.598
47 FC2 57 -5.086
47 FC2 58 -5.575
47 FC2 59 -5.086
47 FC2 60 -4.110
47 FC2 61 -3.133
47 FC2 62 -2.645
47 FC2 63 -2.157
47 FC2 64 -2.157
47 FC2 65 -2.645
47 FC2 66 -3.133
47 FC2 67 -4.110
47 FC2 68 -4.598
47 FC2 69 -5.575
47 FC2 70 -6.551
47 FC2 71 -7.039
47 FC2 72 -7.528
47 FC2 73 -7.528
47 FC2 74 -7.528
47 FC2 75 -8.016
47 FC2 76 -8.016
47 FC2 77 -8.504
47 FC2 78 -8.504
47 FC2 79 -8.016
47 FC2 80 -7.528
47 FC2 81 -7.528
47 FC2 82 -7.039
47 FC2 83 -6.551
47 FC2 84 -5.575
47 FC2 85 -5.086
47 FC2 86 -4.598
47 FC2 87 -4.598
47 FC2 88 -4.598
47 FC2 89 -4.598
47 FC2 90 -4.598
47 FC2 91 -4.598
47 FC2 92 -5.086
47 FC2 93 -5.575
47 FC2 94 -5.575
47 FC2 95 -5.575
47 FC2 96 -5.575
47 FC2 97 -5.086
47 FC2 98 -5.086
47 FC2 99 -5.086
47 FC2 100 -5.575
47 FC2 101 -5.575
47 FC2 102 -5.575
47 FC2 103 -5.575
47 FC2 104 -5.575
47 FC2 105 -5.575
47 FC2 106 -6.063
47 FC2 107 -6.551
47 FC2 108 -7.039
47 FC2 109 -7.039
47 FC2 110 -6.551
47 FC2 111 -6.551
47 FC2 112 -7.039
47 FC2 113 -7.528
47 FC2 114 -7.528
47 FC2 115 -7.039
47 FC2 116 -6.063
47 FC2 117 -5.575
47 FC2 118 -4.598
47 FC2 119 -4.110
47 FC2 120 -4.110
47 FC2 121 -4.110
47 FC2 122 -4.598
47 FC2 123 -5.575
47 FC2 124 -6.551
47 FC2 125 -7.528
47 FC2 126 -7.528
47 FC2 127 -7.039
47 FC2 128 -7.039
47 FC2 129 -7.039
47 FC2 130 -7.039
47 FC2 131 -7.528
47 FC2 132 -8.016
47 FC2 133 -8.504
47 FC2 134 -8.504
47 FC2 135 -8.993
47 FC2 136 -8.504
47 FC2 137 -8.016
47 FC2 138 -7.528
47 FC2 139 -7.039
47 FC2 140 -7.039
47 FC2 141 -7.528
47 FC2 142 -8.016
47 FC2 143 -8.016
47 FC2 144 -7.528
47 FC2 145 -6.551
47 FC2 146 -5.575
47 FC2 147 -4.598
47 FC2 148 -4.598
47 FC2 149 -4.598
47 FC2 150 -5.086
47 FC2 151 -5.086
47 FC2 152 -5.086
47 FC2 153 -4.598
47 FC2 154 -4.110
47 FC2 155 -3.621
47 FC2 156 -4.110
47 FC2 157 -5.575
47 FC2 158 -7.039
47 FC2 159 -8.016
47 FC2 160 -8.504
47 FC2 161 -8.016
47 FC2 162 -6.551
47 FC2 163 -5.086
47 FC2 164 -4.598
47 FC2 165 -5.086
47 FC2 166 -6.063
47 FC2 167 -7.039
47 FC2 168 -7.528
47 FC2 169 -7.528
47 FC2 170 -7.528
47 FC2 171 -7.528
47 FC2 172 -7.528
47 FC2 173 -8.016
47 FC2 174 -7.528
47 FC2 175 -8.016
47 FC2 176 -8.504
47 FC2 177 -8.993
47 FC2 178 -8.993
47 FC2 179 -8.993
47 FC2 180 -8.504
47 FC2 181 -8.504
47 FC2 182 -8.016
47 FC2 183 -8.016
47 FC2 184 -7.528
47 FC2 185 -7.528
47 FC2 186 -7.528
47 FC2 187 -8.504
47 FC2 188 -9.969
47 FC2 189 -10.457
47 FC2 190 -10.946
47 FC2 191 -10.457
47 FC2 192 -9.481
47 FC2 193 -8.504
47 FC2 194 -8.016
47 FC2 195 -8.504
47 FC2 196 -9.969
47 FC2 197 -11.434
47 FC2 198 -11.922
47 FC2 199 -11.922
47 FC2 200 -10.946
47 FC2 201 -9.969
47 FC2 202 -8.993
47 FC2 203 -8.504
47 FC2 204 -8.504
47 FC2 205 -8.993
47 FC2 206 -9.481
47 FC2 207 -9.969
47 FC2 208 -9.969
47 FC2 209 -9.481
47 FC2 210 -8.993
47 FC2 211 -8.504
47 FC2 212 -7.528
47 FC2 213 -6.551
47 FC2 214 -6.063
47 FC2 215 -6.063
47 FC2 216 -6.063
47 FC2 217 -6.551
47 FC2 218 -6.063
47 FC2 219 -5.575
47 FC2 220 -4.598
47 FC2 221 -4.110
47 FC2 222 -3.621
47 FC2 223 -3.621
47 FC2 224 -3.621
47 FC2 225 -3.133
47 FC2 226 -2.645
47 FC2 227 -3.133
47 FC2 228 -3.621
47 FC2 229 -4.598
47 FC2 230 -5.086
47 FC2 231 -6.063
47 FC2 232 -6.063
47 FC2 233 -6.551
47 FC2 234 -7.039
47 FC2 235 -7.528
47 FC2 236 -7.528
47 FC2 237 -7.528
47 FC2 238 -6.551
47 FC2 239 -6.063
47 FC2 240 -6.063
47 FC2 241 -6.551
47 FC2 242 -7.039
47 FC2 243 -8.016
47 FC2 244 -8.504
47 FC2 245 -8.504
47 FC2 246 -8.016
47 FC2 247 -7.528
47 FC2 248 -6.551
47 FC2 249 -5.575
47 FC2 250 -5.086
47 FC2 251 -5.086
47 FC2 252 -5.086
47 FC2 253 -5.575
47 FC2 254 -5.575
47 FC2 255 -5.575
# FC1 chan 12
47 FC1 0 -0.956
47 FC1 1 -4.374
47 FC1 2 -6.816
47 FC1 3 -7.792
47 FC1 4 -7.792
47 FC1 5 -7.792
47 FC1 6 -7.792
47 FC1 7 -8.769
47 FC1 8 -9.745
47 FC1 9 -9.745
47 FC1 10 -9.257
47 FC1 11 -9.257
47 FC1 12 -8.769
47 FC1 13 -9.257
47 FC1 14 -8.769
47 FC1 15 -7.792
47 FC1 16 -6.327
47 FC1 17 -4.862
47 FC1 18 -4.374
47 FC1 19 -4.862
47 FC1 20 -6.327
47 FC1 21 -7.792
47 FC1 22 -7.792
47 FC1 23 -6.816
47 FC1 24 -4.374
47 FC1 25 -2.909
47 FC1 26 -2.421
47 FC1 27 -2.909
47 FC1 28 -3.398
47 FC1 29 -3.886
47 FC1 30 -3.886
47 FC1 31 -3.886
47 FC1 32 -3.886
47 FC1 33 -4.374
47 FC1 34 -5.351
47 FC1 35 -5.839
47 FC1 36 -6.327
47 FC1 37 -6.327
47 FC1 38 -6.327
47 FC1 39 -5.351
47 FC1 40 -4.374
47 FC1 41 -4.374
47 FC1 42 -4.374
47 FC1 43 -4.374
47 FC1 44 -4.862
47 FC1 45 -4.374
47 FC1 46 -3.398
47 FC1 47 -2.421
47 FC1 48 -1.933
47 FC1 49 -0.956
47 FC1 50 -0.468
47 FC1 51 -0.468
47 FC1 52 0.020
47 FC1 53 0.020
47 FC1 54 0.509
47 FC1 55 0.020
47 FC1 56 -0.468
47 FC1 57 -0.956
47 FC1 58 -1.444
47 FC1 59 -1.444
47 FC1 60 -1.444
47 FC1 61 -1.444
47 FC1 62 -0.956
47 FC1 63 -0.956
47 FC1 64 -1.933
47 FC1 65 -3.398
47 FC1 66 -4.862
47 FC1 67 -6.327
47 FC1 68 -6.816
47 FC1 69 -6.816
47 FC1 70 -7.304
47 FC1 71 -7.792
47 FC1 72 -8.769
47 FC1 73 -10.234
47 FC1 74 -10.722
47 FC1 75 -10.722
47 FC1 76 -9.745
47 FC1 77 -9.745
47 FC1 78 -10.234
47 FC1 79 -11.210
47 FC1 80 -12.187
47 FC1 81 -12.675
47 FC1 82 -13.163
47 FC1 83 -12.675
47 FC1 84 -12.187
47 FC1 85 -11.698
47 FC1 86 -11.210
47 FC1 87 -11.210
47 FC1 88 -11.698
47 FC1 89 -11.698
47 FC1 90 -10.722
47 FC1 91 -10.234
47 FC1 92 -8.769
47 FC1 93 -7.792
47 FC1 94 -7.304
47 FC1 95 -7.304
47 FC1 96 -7.792
47 FC1 97 -8.769
47 FC1 98 -9.257
47 FC1 99 -9.745
47 FC1 100 -9.745
47 FC1 101 -9.745
47 FC1 102 -9.745
47 FC1 103 -10.234
47 FC1 104 -11.210
47 FC1 105 -12.187
47 FC1 106 -12.675
47 FC1 107 -12.675
47 FC1 108 -12.187
47 FC1 109 -11.210
47 FC1 110 -10.234
47 FC1 111 -9.745
47 FC1 112 -10.234
47 FC1 113 -10.722
47 FC1 114 -10.722
47 FC1 115 -10.722
47 FC1 116 -9.745
47 FC1 117 -8.280
47 FC1 118 -7.304
47 FC1 119 -6.816
47 FC1 120 -6.327
47 FC1 121 -6.816
47 FC1 122 -7.304
47 FC1 123 -8.769
47 FC1 124 -10.722
47 FC1 125 -12.187
47 FC1 126 -12.675
47 FC1 127 -12.187
47 FC1 128 -10.234
47 FC1 129 -8.280
47 FC1 130 -7.304
47 FC1 131 -7.792
47 FC1 132 -8.769
47 FC1 133 -9.745
47 FC1 134 -10.234
47 FC1 135 -9.745
47 FC1 136 -7.792
47 FC1 137 -5.839
47 FC1 138 -4.374
47 FC1 139 -3.398
47 FC1 140 -3.886
47 FC1 141 -4.862
47 FC1 142 -5.351
47 FC1 143 -5.351
47 FC1 144 -4.374
47 FC1 145 -1.933
47 FC1 146 0.509
47 FC1 147 1.973
47 FC1 148 1.973
47 FC1 149 0.997
47 FC1 150 -0.956
47 FC1 151 -1.933
47 FC1 152 -2.421
47 FC1 153 -2.421
47 FC1 154 -2.421
47 FC1 155 -1.933
47 FC1 156 -2.421
47 FC1 157 -2.909
47 FC1 158 -2.909
47 FC1 159 -2.421
47 FC1 160 -1.444
47 FC1 161 -0.468
47 FC1 162 0.509
47 FC1 163 0.020
47 FC1 164 -0.956
47 FC1 165 -1.933
47 FC1 166 -2.421
47 FC1 167 -2.909
47 FC1 168 -3.886
47 FC1 169 -4.862
47 FC1 170 -6.327
47 FC1 171 -6.816
47 FC1 172 -5.839
47 FC1 173 -4.374
47 FC1 174 -3.398
47 FC1 175 -2.909
47 FC1 176 -3.886
47 FC1 177 -4.862
47 FC1 178 -4.862
47 FC1 179 -3.886
47 FC1 180 -2.421
47 FC1 181 -1.933
47 FC1 182 -1.933
47 FC1 183 -2.909
47 FC1 184 -3.886
47 FC1 185 -4.374
47 FC1 186 -4.374
47 FC1 187 -4.374
47 FC1 188 -4.374
47 FC1 189 -4.862
47 FC1 190 -4.374
47 FC1 191 -3.398
47 FC1 192 -1.444
47 FC1 193 0.509
47 FC1 194 1.485
47 FC1 195 1.973
47 FC1 196 1.973
47 FC1 197 2.950
47 FC1 198 3.927
47 FC1 199 5.391
47 FC1 200 6.856
47 FC1 201 8.321
47 FC1 202 9.786
47 FC1 203 10.763
47 FC1 204 11.251
47 FC1 205 10.274
47 FC1 206 8.321
47 FC1 207 6.856
47 FC1 208 5.391
47 FC1 209 5.391
47 FC1 210 5.880
47 FC1 211 6.368
47 FC1 212 6.368
47 FC1 213 6.368
47 FC1 214 5.880
47 FC1 215 5.880
47 FC1 216 5.880
47 FC1 217 5.391
47 FC1 218 4.903
47 FC1 219 3.927
47 FC1 220 2.950
47 FC1 221 1.973
47 FC1 222 0.997
47 FC1 223 0.997
47 FC1 224 0.509
47 FC1 225 0.020
47 FC1 226 -0.956
47 FC1 227 -0.956
47 FC1 228 -0.956
47 FC1 229 -0.956
47 FC1 230 -0.956
47 FC1 231 -1.933
47 FC1 232 -3.398
47 FC1 233 -4.862
47 FC1 234 -5.351
47 FC1 235 -5.351
47 FC1 236 -4.862
47 FC1 237 -3.886
47 FC1 238 -2.909
47 FC1 239 -2.421
47 FC1 240 -2.421
47 FC1 241 -2.421
47 FC1 242 -2.421
47 FC1 243 -3.398
47 FC1 244 -3.886
47 FC1 245 -4.862
47 FC1 246 -4.862
47 FC1 247 -4.374
47 FC1 248 -3.398
47 FC1 249 -2.421
47 FC1 250 -1.933
47 FC1 251 -2.909
47 FC1 252 -4.374
47 FC1 253 -5.839
47 FC1 254 -7.304
47 FC1 255 -8.280
# T8 chan 13
47 T8 0 1.129
47 T8 1 0.641
47 T8 2 0.641
47 T8 3 1.129
47 T8 4 1.129
47 T8 5 0.153
47 T8 6 -2.289
47 T8 7 -5.219
47 T8 8 -7.172
47 T8 9 -7.660
47 T8 10 -6.195
47 T8 11 -3.754
47 T8 12 -2.289
47 T8 13 -2.289
47 T8 14 -3.754
47 T8 15 -4.242
47 T8 16 -3.265
47 T8 17 -0.824
47 T8 18 1.617
47 T8 19 3.082
47 T8 20 3.082
47 T8 21 2.106
47 T8 22 2.106
47 T8 23 3.082
47 T8 24 5.035
47 T8 25 7.477
47 T8 26 7.965
47 T8 27 7.965
47 T8 28 6.989
47 T8 29 6.012
47 T8 30 6.012
47 T8 31 6.012
47 T8 32 6.012
47 T8 33 5.035
47 T8 34 3.571
47 T8 35 2.594
47 T8 36 1.129
47 T8 37 0.641
47 T8 38 0.153
47 T8 39 0.153
47 T8 40 -0.336
47 T8 41 -0.824
47 T8 42 -0.824
47 T8 43 -0.336
47 T8 44 -0.824
47 T8 45 -1.312
47 T8 46 -2.289
47 T8 47 -4.242
47 T8 48 -5.219
47 T8 49 -5.219
47 T8 50 -5.219
47 T8 51 -4.730
47 T8 52 -4.730
47 T8 53 -5.219
47 T8 54 -5.707
47 T8 55 -6.683
47 T8 56 -7.660
47 T8 57 -9.613
47 T8 58 -11.078
47 T8 59 -12.054
47 T8 60 -11.566
47 T8 61 -10.101
47 T8 62 -8.148
47 T8 63 -7.660
47 T8 64 -8.148
47 T8 65 -9.613
47 T8 66 -11.566
47 T8 67 -12.054
47 T8 68 -11.566
47 T8 69 -9.613
47 T8 70 -7.660
47 T8 71 -6.195
47 T8 72 -6.195
47 T8 73 -6.195
47 T8 74 -6.683
47 T8 75 -7.172
47 T8 76 -7.172
47 T8 77 -7.172
47 T8 78 -7.660
47 T8 79 -7.660
47 T8 80 -7.660
47 T8 81 -7.172
47 T8 82 -6.683
47 T8 83 -6.195
47 T8 84 -6.683
47 T8 85 -7.660
47 T8 86 -8.636
47 T8 87 -9.125
47 T8 88 -9.613
47 T8 89 -9.613
47 T8 90 -9.125
47 T8 91 -8.636
47 T8 92 -8.148
47 T8 93 -7.660
47 T8 94 -7.172
47 T8 95 -7.172
47 T8 96 -6.195
47 T8 97 -6.195
47 T8 98 -5.707
47 T8 99 -6.195
47 T8 100 -7.172
47 T8 101 -8.636
47 T8 102 -9.613
47 T8 103 -9.613
47 T8 104 -8.636
47 T8 105 -7.660
47 T8 106 -6.683
47 T8 107 -7.172
47 T8 108 -7.660
47 T8 109 -7.660
47 T8 110 -6.683
47 T8 111 -5.219
47 T8 112 -3.754
47 T8 113 -2.777
47 T8 114 -2.289
47 T8 115 -2.289
47 T8 116 -1.801
47 T8 117 -0.824
47 T8 118 0.641
47 T8 119 1.129
47 T8 120 0.153
47 T8 121 -0.824
47 T8 122 -1.801
47 T8 123 -2.289
47 T8 124 -2.289
47 T8 125 -2.289
47 T8 126 -2.777
47 T8 127 -4.242
47 T8 128 -5.707
47 T8 129 -6.683
47 T8 130 -7.660
47 T8 131 -9.125
47 T8 132 -11.078
47 T8 133 -13.519
47 T8 134 -15.472
47 T8 135 -16.449
47 T8 136 -15.961
47 T8 137 -15.472
47 T8 138 -14.496
47 T8 139 -15.472
47 T8 140 -16.449
47 T8 141 -16.937
47 T8 142 -16.449
47 T8 143 -14.984
47 T8 144 -12.543
47 T8 145 -10.590
47 T8 146 -8.636
47 T8 147 -8.148
47 T8 148 -8.148
47 T8 149 -9.125
47 T8 150 -10.590
47 T8 151 -11.566
47 T8 152 -12.054
47 T8 153 -10.590
47 T8 154 -9.125
47 T8 155 -7.172
47 T8 156 -5.707
47 T8 157 -5.707
47 T8 158 -6.195
47 T8 159 -6.683
47 T8 160 -6.683
47 T8 161 -6.683
47 T8 162 -7.172
47 T8 163 -8.148
47 T8 164 -9.125
47 T8 165 -9.613
47 T8 166 -9.125
47 T8 167 -7.660
47 T8 168 -7.172
47 T8 169 -7.172
47 T8 170 -8.148
47 T8 171 -9.125
47 T8 172 -10.590
47 T8 173 -11.078
47 T8 174 -10.101
47 T8 175 -9.125
47 T8 176 -7.172
47 T8 177 -4.730
47 T8 178 -2.777
47 T8 179 -1.801
47 T8 180 -1.801
47 T8 181 -2.777
47 T8 182 -3.265
47 T8 183 -2.289
47 T8 184 -0.336
47 T8 185 0.641
47 T8 186 0.641
47 T8 187 -1.312
47 T8 188 -3.754
47 T8 189 -6.195
47 T8 190 -7.172
47 T8 191 -7.172
47 T8 192 -6.683
47 T8 193 -6.683
47 T8 194 -6.195
47 T8 195 -6.683
47 T8 196 -6.683
47 T8 197 -7.172
47 T8 198 -7.172
47 T8 199 -7.172
47 T8 200 -7.660
47 T8 201 -7.660
47 T8 202 -8.148
47 T8 203 -8.636
47 T8 204 -9.613
47 T8 205 -10.590
47 T8 206 -10.590
47 T8 207 -9.613
47 T8 208 -7.660
47 T8 209 -5.707
47 T8 210 -4.730
47 T8 211 -4.730
47 T8 212 -4.730
47 T8 213 -4.242
47 T8 214 -3.265
47 T8 215 -1.801
47 T8 216 -1.801
47 T8 217 -2.777
47 T8 218 -4.242
47 T8 219 -5.707
47 T8 220 -6.195
47 T8 221 -5.219
47 T8 222 -4.242
47 T8 223 -3.265
47 T8 224 -2.777
47 T8 225 -3.265
47 T8 226 -4.730
47 T8 227 -7.172
47 T8 228 -9.125
47 T8 229 -10.101
47 T8 230 -8.636
47 T8 231 -6.195
47 T8 232 -3.754
47 T8 233 -2.777
47 T8 234 -4.242
47 T8 235 -6.195
47 T8 236 -6.683
47 T8 237 -5.707
47 T8 238 -3.265
47 T8 239 -1.312
47 T8 240 -0.824
47 T8 241 -1.801
47 T8 242 -2.777
47 T8 243 -3.754
47 T8 244 -4.242
47 T8 245 -4.730
47 T8 246 -5.707
47 T8 247 -6.683
47 T8 248 -6.195
47 T8 249 -4.242
47 T8 250 -1.801
47 T8 251 -1.312
47 T8 252 -2.289
47 T8 253 -5.219
47 T8 254 -7.172
47 T8 255 -7.660
# T7 chan 14
47 T7 0 6.002
47 T7 1 4.049
47 T7 2 2.584
47 T7 3 2.096
47 T7 4 2.096
47 T7 5 3.072
47 T7 6 3.560
47 T7 7 3.072
47 T7 8 2.096
47 T7 9 1.119
47 T7 10 1.119
47 T7 11 1.119
47 T7 12 1.119
47 T7 13 1.119
47 T7 14 1.119
47 T7 15 3.072
47 T7 16 6.490
47 T7 17 9.908
47 T7 18 12.349
47 T7 19 11.861
47 T7 20 8.931
47 T7 21 5.514
47 T7 22 3.560
47 T7 23 4.049
47 T7 24 6.490
47 T7 25 10.396
47 T7 26 13.814
47 T7 27 15.767
47 T7 28 15.767
47 T7 29 14.303
47 T7 30 11.861
47 T7 31 8.931
47 T7 32 6.490
47 T7 33 3.560
47 T7 34 0.631
47 T7 35 -2.787
47 T7 36 -6.694
47 T7 37 -8.647
47 T7 38 -9.135
47 T7 39 -6.694
47 T7 40 -3.276
47 T7 41 0.142
47 T7 42 2.584
47 T7 43 3.560
47 T7 44 3.560
47 T7 45 4.049
47 T7 46 5.025
47 T7 47 6.490
47 T7 48 7.467
47 T7 49 6.978
47 T7 50 5.025
47 T7 51 3.560
47 T7 52 3.072
47 T7 53 4.049
47 T7 54 6.002
47 T7 55 6.978
47 T7 56 6.490
47 T7 57 4.049
47 T7 58 1.119
47 T7 59 -0.346
47 T7 60 -0.346
47 T7 61 0.142
47 T7 62 0.142
47 T7 63 -0.834
47 T7 64 -3.276
47 T7 65 -5.717
47 T7 66 -7.670
47 T7 67 -8.647
47 T7 68 -8.647
47 T7 69 -9.135
47 T7 70 -9.135
47 T7 71 -8.158
47 T7 72 -6.694
47 T7 73 -4.252
47 T7 74 -2.299
47 T7 75 -0.834
47 T7 76 0.142
47 T7 77 0.631
47 T7 78 1.119
47 T7 79 1.607
47 T7 80 1.607
47 T7 81 1.607
47 T7 82 1.119
47 T7 83 1.119
47 T7 84 1.607
47 T7 85 1.119
47 T7 86 0.142
47 T7 87 -2.787
47 T7 88 -5.717
47 T7 89 -7.182
47 T7 90 -6.205
47 T7 91 -2.787
47 T7 92 -0.346
47 T7 93 0.142
47 T7 94 -2.299
47 T7 95 -5.229
47 T7 96 -7.182
47 T7 97 -6.205
47 T7 98 -3.276
47 T7 99 -0.346
47 T7 100 1.119
47 T7 101 0.142
47 T7 102 -2.299
47 T7 103 -4.740
47 T7 104 -7.670
47 T7 105 -9.623
47 T7 106 -12.065
47 T7 107 -12.553
47 T7 108 -12.065
47 T7 109 -11.088
47 T7 110 -9.623
47 T7 111 -9.135
47 T7 112 -9.135
47 T7 113 -8.158
47 T7 114 -5.717
47 T7 115 -3.276
47 T7 116 -2.299
47 T7 117 -3.764
47 T7 118 -6.205
47 T7 119 -8.647
47 T7 120 -8.647
47 T7 121 -7.182
47 T7 122 -5.717
47 T7 123 -5.229
47 T7 124 -6.694
47 T7 125 -8.647
47 T7 126 -9.135
47 T7 127 -9.623
47 T7 128 -9.623
47 T7 129 -11.088
47 T7 130 -13.529
47 T7 131 -16.947
47 T7 132 -19.877
47 T7 133 -20.854
47 T7 134 -21.342
47 T7 135 -20.365
47 T7 136 -20.365
47 T7 137 -20.365
47 T7 138 -20.854
47 T7 139 -21.830
47 T7 140 -22.319
47 T7 141 -22.319
47 T7 142 -23.295
47 T7 143 -23.783
47 T7 144 -24.272
47 T7 145 -23.783
47 T7 146 -22.319
47 T7 147 -20.365
47 T7 148 -17.924
47 T7 149 -16.947
47 T7 150 -16.947
47 T7 151 -17.924
47 T7 152 -17.924
47 T7 153 -17.924
47 T7 154 -16.947
47 T7 155 -16.947
47 T7 156 -17.436
47 T7 157 -17.924
47 T7 158 -17.436
47 T7 159 -15.971
47 T7 160 -13.529
47 T7 161 -12.553
47 T7 162 -12.553
47 T7 163 -13.529
47 T7 164 -14.018
47 T7 165 -13.529
47 T7 166 -11.576
47 T7 167 -9.623
47 T7 168 -8.158
47 T7 169 -7.670
47 T7 170 -7.670
47 T7 171 -7.182
47 T7 172 -6.205
47 T7 173 -5.229
47 T7 174 -4.740
47 T7 175 -6.205
47 T7 176 -8.158
47 T7 177 -9.135
47 T7 178 -8.158
47 T7 179 -6.205
47 T7 180 -4.740
47 T7 181 -4.252
47 T7 182 -4.740
47 T7 183 -5.229
47 T7 184 -5.229
47 T7 185 -4.740
47 T7 186 -3.764
47 T7 187 -4.740
47 T7 188 -5.229
47 T7 189 -6.205
47 T7 190 -6.694
47 T7 191 -7.182
47 T7 192 -7.670
47 T7 193 -9.135
47 T7 194 -10.111
47 T7 195 -10.111
47 T7 196 -9.135
47 T7 197 -7.182
47 T7 198 -5.717
47 T7 199 -5.229
47 T7 200 -5.229
47 T7 201 -5.229
47 T7 202 -4.740
47 T7 203 -4.252
47 T7 204 -4.252
47 T7 205 -5.229
47 T7 206 -6.694
47 T7 207 -9.135
47 T7 208 -10.600
47 T7 209 -11.576
47 T7 210 -12.553
47 T7 211 -12.553
47 T7 212 -11.576
47 T7 213 -10.111
47 T7 214 -8.158
47 T7 215 -7.182
47 T7 216 -6.694
47 T7 217 -6.694
47 T7 218 -6.694
47 T7 219 -5.717
47 T7 220 -4.740
47 T7 221 -3.764
47 T7 222 -3.764
47 T7 223 -4.252
47 T7 224 -5.717
47 T7 225 -7.182
47 T7 226 -9.135
47 T7 227 -10.600
47 T7 228 -11.088
47 T7 229 -10.600
47 T7 230 -9.623
47 T7 231 -9.623
47 T7 232 -10.600
47 T7 233 -12.065
47 T7 234 -13.041
47 T7 235 -13.529
47 T7 236 -12.553
47 T7 237 -10.111
47 T7 238 -7.182
47 T7 239 -5.229
47 T7 240 -4.252
47 T7 241 -3.764
47 T7 242 -4.740
47 T7 243 -6.694
47 T7 244 -8.647
47 T7 245 -10.600
47 T7 246 -11.088
47 T7 247 -10.111
47 T7 248 -8.647
47 T7 249 -7.182
47 T7 250 -6.694
47 T7 251 -7.670
47 T7 252 -8.647
47 T7 253 -9.135
47 T7 254 -9.623
47 T7 255 -9.135
# CZ chan 15
47 CZ 0 6.388
47 CZ 1 2.970
47 CZ 2 1.506
47 CZ 3 1.017
47 CZ 4 1.994
47 CZ 5 1.994
47 CZ 6 0.529
47 CZ 7 -1.912
47 CZ 8 -3.866
47 CZ 9 -2.889
47 CZ 10 0.529
47 CZ 11 4.924
47 CZ 12 6.877
47 CZ 13 5.900
47 CZ 14 3.459
47 CZ 15 1.994
47 CZ 16 3.459
47 CZ 17 7.853
47 CZ 18 11.759
47 CZ 19 14.201
47 CZ 20 13.713
47 CZ 21 12.248
47 CZ 22 11.759
47 CZ 23 14.689
47 CZ 24 19.572
47 CZ 25 24.455
47 CZ 26 27.384
47 CZ 27 27.873
47 CZ 28 25.920
47 CZ 29 22.502
47 CZ 30 19.572
47 CZ 31 17.619
47 CZ 32 16.642
47 CZ 33 16.642
47 CZ 34 16.154
47 CZ 35 14.689
47 CZ 36 12.248
47 CZ 37 9.318
47 CZ 38 6.877
47 CZ 39 6.877
47 CZ 40 8.830
47 CZ 41 11.271
47 CZ 42 13.713
47 CZ 43 14.689
47 CZ 44 14.689
47 CZ 45 14.201
47 CZ 46 15.177
47 CZ 47 16.642
47 CZ 48 18.107
47 CZ 49 18.107
47 CZ 50 17.619
47 CZ 51 17.131
47 CZ 52 16.642
47 CZ 53 16.642
47 CZ 54 15.177
47 CZ 55 12.248
47 CZ 56 7.853
47 CZ 57 3.947
47 CZ 58 1.506
47 CZ 59 1.994
47 CZ 60 2.970
47 CZ 61 3.459
47 CZ 62 1.994
47 CZ 63 -1.912
47 CZ 64 -6.307
47 CZ 65 -9.725
47 CZ 66 -11.678
47 CZ 67 -11.678
47 CZ 68 -10.213
47 CZ 69 -8.260
47 CZ 70 -6.307
47 CZ 71 -4.842
47 CZ 72 -4.354
47 CZ 73 -4.354
47 CZ 74 -3.866
47 CZ 75 -2.401
47 CZ 76 -1.424
47 CZ 77 -0.936
47 CZ 78 -2.401
47 CZ 79 -5.330
47 CZ 80 -8.260
47 CZ 81 -9.237
47 CZ 82 -8.260
47 CZ 83 -6.307
47 CZ 84 -3.866
47 CZ 85 -3.377
47 CZ 86 -4.842
47 CZ 87 -7.284
47 CZ 88 -8.748
47 CZ 89 -8.748
47 CZ 90 -6.795
47 CZ 91 -5.330
47 CZ 92 -4.354
47 CZ 93 -4.842
47 CZ 94 -5.330
47 CZ 95 -5.330
47 CZ 96 -4.842
47 CZ 97 -3.866
47 CZ 98 -3.866
47 CZ 99 -4.842
47 CZ 100 -6.307
47 CZ 101 -6.795
47 CZ 102 -5.330
47 CZ 103 -3.377
47 CZ 104 -1.912
47 CZ 105 -2.401
47 CZ 106 -3.866
47 CZ 107 -5.330
47 CZ 108 -4.842
47 CZ 109 -2.401
47 CZ 110 0.041
47 CZ 111 2.482
47 CZ 112 3.459
47 CZ 113 3.459
47 CZ 114 2.482
47 CZ 115 2.970
47 CZ 116 4.435
47 CZ 117 5.900
47 CZ 118 8.341
47 CZ 119 9.806
47 CZ 120 10.295
47 CZ 121 9.318
47 CZ 122 6.877
47 CZ 123 3.947
47 CZ 124 1.506
47 CZ 125 1.017
47 CZ 126 2.482
47 CZ 127 4.435
47 CZ 128 5.412
47 CZ 129 4.924
47 CZ 130 2.482
47 CZ 131 -1.912
47 CZ 132 -5.819
47 CZ 133 -9.237
47 CZ 134 -10.701
47 CZ 135 -10.701
47 CZ 136 -9.725
47 CZ 137 -8.748
47 CZ 138 -9.237
47 CZ 139 -11.678
47 CZ 140 -15.584
47 CZ 141 -18.514
47 CZ 142 -18.514
47 CZ 143 -16.073
47 CZ 144 -10.701
47 CZ 145 -6.307
47 CZ 146 -4.354
47 CZ 147 -5.330
47 CZ 148 -8.748
47 CZ 149 -11.190
47 CZ 150 -11.190
47 CZ 151 -10.701
47 CZ 152 -8.748
47 CZ 153 -7.772
47 CZ 154 -8.260
47 CZ 155 -9.237
47 CZ 156 -9.237
47 CZ 157 -7.284
47 CZ 158 -3.866
47 CZ 159 -0.936
47 CZ 160 1.017
47 CZ 161 0.041
47 CZ 162 -2.889
47 CZ 163 -5.819
47 CZ 164 -6.795
47 CZ 165 -5.330
47 CZ 166 -1.424
47 CZ 167 1.994
47 CZ 168 3.947
47 CZ 169 2.970
47 CZ 170 -0.936
47 CZ 171 -5.819
47 CZ 172 -8.748
47 CZ 173 -9.725
47 CZ 174 -8.260
47 CZ 175 -4.842
47 CZ 176 -0.448
47 CZ 177 4.435
47 CZ 178 8.341
47 CZ 179 10.295
47 CZ 180 10.295
47 CZ 181 8.830
47 CZ 182 6.877
47 CZ 183 6.388
47 CZ 184 7.365
47 CZ 185 9.806
47 CZ 186 11.759
47 CZ 187 12.248
47 CZ 188 10.783
47 CZ 189 8.830
47 CZ 190 6.388
47 CZ 191 5.412
47 CZ 192 4.924
47 CZ 193 5.412
47 CZ 194 6.877
47 CZ 195 7.853
47 CZ 196 8.341
47 CZ 197 8.341
47 CZ 198 6.877
47 CZ 199 4.435
47 CZ 200 1.994
47 CZ 201 0.041
47 CZ 202 -0.448
47 CZ 203 -0.448
47 CZ 204 0.529
47 CZ 205 1.994
47 CZ 206 1.506
47 CZ 207 0.529
47 CZ 208 -1.912
47 CZ 209 -4.842
47 CZ 210 -6.795
47 CZ 211 -6.795
47 CZ 212 -4.354
47 CZ 213 0.529
47 CZ 214 4.924
47 CZ 215 7.853
47 CZ 216 7.365
47 CZ 217 3.947
47 CZ 218 0.529
47 CZ 219 -1.424
47 CZ 220 0.041
47 CZ 221 2.482
47 CZ 222 3.947
47 CZ 223 3.947
47 CZ 224 2.970
47 CZ 225 1.506
47 CZ 226 0.041
47 CZ 227 -1.912
47 CZ 228 -4.842
47 CZ 229 -7.772
47 CZ 230 -8.748
47 CZ 231 -7.772
47 CZ 232 -3.866
47 CZ 233 -0.448
47 CZ 234 0.529
47 CZ 235 -1.424
47 CZ 236 -5.330
47 CZ 237 -7.772
47 CZ 238 -6.795
47 CZ 239 -2.889
47 CZ 240 2.482
47 CZ 241 6.388
47 CZ 242 7.365
47 CZ 243 5.412
47 CZ 244 1.506
47 CZ 245 -2.401
47 CZ 246 -4.842
47 CZ 247 -4.354
47 CZ 248 -1.912
47 CZ 249 1.994
47 CZ 250 5.412
47 CZ 251 6.877
47 CZ 252 5.900
47 CZ 253 4.435
47 CZ 254 3.947
47 CZ 255 4.924
# C3 chan 16
47 C3 0 -0.834
47 C3 1 -1.811
47 C3 2 -2.787
47 C3 3 -3.764
47 C3 4 -4.740
47 C3 5 -5.229
47 C3 6 -5.717
47 C3 7 -5.717
47 C3 8 -5.229
47 C3 9 -4.252
47 C3 10 -3.764
47 C3 11 -3.276
47 C3 12 -3.276
47 C3 13 -3.276
47 C3 14 -2.299
47 C3 15 -0.834
47 C3 16 0.631
47 C3 17 1.607
47 C3 18 2.096
47 C3 19 1.119
47 C3 20 0.142
47 C3 21 -1.322
47 C3 22 -1.811
47 C3 23 -1.322
47 C3 24 -1.322
47 C3 25 -0.834
47 C3 26 0.142
47 C3 27 0.631
47 C3 28 0.142
47 C3 29 -0.346
47 C3 30 -1.322
47 C3 31 -2.787
47 C3 32 -3.764
47 C3 33 -4.252
47 C3 34 -4.252
47 C3 35 -4.740
47 C3 36 -5.717
47 C3 37 -7.182
47 C3 38 -8.158
47 C3 39 -8.158
47 C3 40 -8.158
47 C3 41 -8.158
47 C3 42 -7.670
47 C3 43 -7.670
47 C3 44 -7.182
47 C3 45 -5.229
47 C3 46 -3.276
47 C3 47 -1.322
47 C3 48 -0.834
47 C3 49 -1.322
47 C3 50 -2.299
47 C3 51 -3.276
47 C3 52 -2.787
47 C3 53 -1.811
47 C3 54 -0.346
47 C3 55 0.631
47 C3 56 0.631
47 C3 57 0.142
47 C3 58 -0.346
47 C3 59 -0.346
47 C3 60 -0.346
47 C3 61 -0.834
47 C3 62 -1.811
47 C3 63 -2.787
47 C3 64 -3.276
47 C3 65 -3.764
47 C3 66 -3.276
47 C3 67 -3.276
47 C3 68 -3.764
47 C3 69 -4.252
47 C3 70 -4.252
47 C3 71 -3.764
47 C3 72 -2.299
47 C3 73 -1.322
47 C3 74 -0.346
47 C3 75 -0.346
47 C3 76 -0.834
47 C3 77 -1.811
47 C3 78 -2.299
47 C3 79 -2.299
47 C3 80 -2.299
47 C3 81 -1.811
47 C3 82 -1.322
47 C3 83 -1.322
47 C3 84 -1.811
47 C3 85 -2.787
47 C3 86 -4.252
47 C3 87 -4.740
47 C3 88 -4.252
47 C3 89 -3.764
47 C3 90 -3.276
47 C3 91 -2.299
47 C3 92 -2.787
47 C3 93 -2.787
47 C3 94 -2.787
47 C3 95 -2.787
47 C3 96 -2.299
47 C3 97 -1.322
47 C3 98 -0.346
47 C3 99 1.119
47 C3 100 2.096
47 C3 101 2.584
47 C3 102 2.584
47 C3 103 1.607
47 C3 104 0.142
47 C3 105 -0.346
47 C3 106 -0.834
47 C3 107 -0.346
47 C3 108 -0.346
47 C3 109 -1.322
47 C3 110 -2.787
47 C3 111 -3.764
47 C3 112 -4.740
47 C3 113 -4.252
47 C3 114 -3.276
47 C3 115 -1.322
47 C3 116 -0.834
47 C3 117 -1.322
47 C3 118 -2.299
47 C3 119 -3.276
47 C3 120 -3.764
47 C3 121 -3.276
47 C3 122 -2.299
47 C3 123 -1.811
47 C3 124 -1.322
47 C3 125 -1.811
47 C3 126 -1.811
47 C3 127 -1.811
47 C3 128 -1.322
47 C3 129 -1.322
47 C3 130 -1.811
47 C3 131 -2.787
47 C3 132 -3.276
47 C3 133 -3.276
47 C3 134 -1.811
47 C3 135 -0.346
47 C3 136 0.142
47 C3 137 -0.346
47 C3 138 -1.322
47 C3 139 -2.299
47 C3 140 -2.299
47 C3 141 -1.322
47 C3 142 -0.834
47 C3 143 -0.346
47 C3 144 -0.834
47 C3 145 -1.322
47 C3 146 -1.811
47 C3 147 -1.322
47 C3 148 -0.834
47 C3 149 0.142
47 C3 150 0.142
47 C3 151 0.142
47 C3 152 -0.834
47 C3 153 -1.322
47 C3 154 -2.787
47 C3 155 -3.276
47 C3 156 -3.764
47 C3 157 -4.252
47 C3 158 -3.276
47 C3 159 -2.299
47 C3 160 -1.322
47 C3 161 -0.834
47 C3 162 -0.834
47 C3 163 -0.834
47 C3 164 -0.834
47 C3 165 0.142
47 C3 166 0.631
47 C3 167 1.119
47 C3 168 1.119
47 C3 169 1.119
47 C3 170 1.607
47 C3 171 2.584
47 C3 172 4.049
47 C3 173 4.537
47 C3 174 4.537
47 C3 175 4.049
47 C3 176 3.560
47 C3 177 3.560
47 C3 178 3.072
47 C3 179 2.096
47 C3 180 0.631
47 C3 181 -0.834
47 C3 182 -0.834
47 C3 183 0.142
47 C3 184 1.119
47 C3 185 1.119
47 C3 186 -0.834
47 C3 187 -2.299
47 C3 188 -3.764
47 C3 189 -4.252
47 C3 190 -3.276
47 C3 191 -2.299
47 C3 192 -2.299
47 C3 193 -2.299
47 C3 194 -2.299
47 C3 195 -1.811
47 C3 196 -0.346
47 C3 197 0.631
47 C3 198 0.631
47 C3 199 0.142
47 C3 200 -0.346
47 C3 201 -0.834
47 C3 202 -0.834
47 C3 203 0.142
47 C3 204 0.631
47 C3 205 1.119
47 C3 206 1.119
47 C3 207 1.119
47 C3 208 0.631
47 C3 209 0.631
47 C3 210 0.631
47 C3 211 0.631
47 C3 212 1.119
47 C3 213 1.119
47 C3 214 1.119
47 C3 215 1.119
47 C3 216 1.607
47 C3 217 2.584
47 C3 218 3.560
47 C3 219 4.537
47 C3 220 5.514
47 C3 221 5.025
47 C3 222 5.025
47 C3 223 4.537
47 C3 224 4.049
47 C3 225 4.049
47 C3 226 3.560
47 C3 227 4.049
47 C3 228 4.049
47 C3 229 5.025
47 C3 230 5.514
47 C3 231 4.537
47 C3 232 3.072
47 C3 233 1.607
47 C3 234 0.142
47 C3 235 0.142
47 C3 236 0.631
47 C3 237 1.607
47 C3 238 2.096
47 C3 239 1.607
47 C3 240 1.119
47 C3 241 1.119
47 C3 242 1.119
47 C3 243 1.119
47 C3 244 1.119
47 C3 245 0.631
47 C3 246 0.142
47 C3 247 0.631
47 C3 248 0.631
47 C3 249 0.631
47 C3 250 0.142
47 C3 251 -1.322
47 C3 252 -2.299
47 C3 253 -3.276
47 C3 254 -3.764
47 C3 255 -3.276
# C4 chan 17
47 C4 0 -0.397
47 C4 1 -0.397
47 C4 2 0.092
47 C4 3 0.580
47 C4 4 1.068
47 C4 5 0.580
47 C4 6 0.092
47 C4 7 -0.885
47 C4 8 -1.373
47 C4 9 -0.885
47 C4 10 -0.397
47 C4 11 0.580
47 C4 12 0.580
47 C4 13 -0.397
47 C4 14 -1.862
47 C4 15 -2.838
47 C4 16 -2.838
47 C4 17 -2.350
47 C4 18 -1.862
47 C4 19 -2.350
47 C4 20 -3.326
47 C4 21 -4.303
47 C4 22 -4.791
47 C4 23 -4.303
47 C4 24 -3.326
47 C4 25 -2.838
47 C4 26 -2.838
47 C4 27 -2.838
47 C4 28 -3.326
47 C4 29 -2.838
47 C4 30 -2.350
47 C4 31 -1.862
47 C4 32 -1.862
47 C4 33 -1.862
47 C4 34 -2.350
47 C4 35 -2.350
47 C4 36 -1.862
47 C4 37 -1.862
47 C4 38 -1.862
47 C4 39 -1.862
47 C4 40 -2.350
47 C4 41 -2.838
47 C4 42 -3.326
47 C4 43 -3.326
47 C4 44 -3.815
47 C4 45 -4.303
47 C4 46 -4.791
47 C4 47 -6.256
47 C4 48 -6.744
47 C4 49 -7.721
47 C4 50 -8.209
47 C4 51 -7.721
47 C4 52 -7.233
47 C4 53 -6.744
47 C4 54 -6.256
47 C4 55 -6.256
47 C4 56 -6.256
47 C4 57 -6.744
47 C4 58 -6.744
47 C4 59 -6.256
47 C4 60 -5.768
47 C4 61 -4.791
47 C4 62 -3.815
47 C4 63 -3.326
47 C4 64 -3.326
47 C4 65 -3.815
47 C4 66 -4.791
47 C4 67 -4.791
47 C4 68 -4.791
47 C4 69 -4.791
47 C4 70 -4.303
47 C4 71 -4.303
47 C4 72 -4.791
47 C4 73 -4.791
47 C4 74 -4.791
47 C4 75 -4.791
47 C4 76 -4.791
47 C4 77 -4.791
47 C4 78 -5.280
47 C4 79 -5.768
47 C4 80 -6.256
47 C4 81 -5.768
47 C4 82 -5.280
47 C4 83 -4.791
47 C4 84 -4.303
47 C4 85 -4.303
47 C4 86 -4.303
47 C4 87 -4.303
47 C4 88 -3.815
47 C4 89 -3.815
47 C4 90 -3.326
47 C4 91 -3.326
47 C4 92 -3.815
47 C4 93 -3.815
47 C4 94 -3.326
47 C4 95 -3.326
47 C4 96 -2.838
47 C4 97 -2.350
47 C4 98 -2.350
47 C4 99 -2.838
47 C4 100 -3.815
47 C4 101 -4.303
47 C4 102 -3.815
47 C4 103 -3.326
47 C4 104 -2.838
47 C4 105 -2.350
47 C4 106 -2.350
47 C4 107 -2.350
47 C4 108 -2.350
47 C4 109 -2.838
47 C4 110 -2.350
47 C4 111 -2.350
47 C4 112 -2.838
47 C4 113 -2.838
47 C4 114 -3.326
47 C4 115 -3.815
47 C4 116 -3.815
47 C4 117 -3.326
47 C4 118 -2.350
47 C4 119 -1.373
47 C4 120 -1.373
47 C4 121 -1.373
47 C4 122 -1.862
47 C4 123 -2.350
47 C4 124 -2.350
47 C4 125 -2.350
47 C4 126 -1.862
47 C4 127 -2.350
47 C4 128 -2.838
47 C4 129 -3.326
47 C4 130 -3.815
47 C4 131 -4.791
47 C4 132 -5.280
47 C4 133 -5.768
47 C4 134 -6.744
47 C4 135 -6.744
47 C4 136 -6.256
47 C4 137 -5.280
47 C4 138 -4.791
47 C4 139 -5.280
47 C4 140 -6.256
47 C4 141 -6.744
47 C4 142 -7.233
47 C4 143 -6.744
47 C4 144 -6.256
47 C4 145 -5.280
47 C4 146 -4.791
47 C4 147 -4.303
47 C4 148 -4.303
47 C4 149 -4.303
47 C4 150 -4.303
47 C4 151 -4.791
47 C4 152 -4.791
47 C4 153 -4.791
47 C4 154 -3.815
47 C4 155 -2.838
47 C4 156 -1.862
47 C4 157 -1.862
47 C4 158 -2.350
47 C4 159 -3.815
47 C4 160 -4.791
47 C4 161 -4.791
47 C4 162 -4.303
47 C4 163 -3.815
47 C4 164 -3.326
47 C4 165 -3.326
47 C4 166 -3.326
47 C4 167 -3.326
47 C4 168 -3.326
47 C4 169 -3.815
47 C4 170 -3.815
47 C4 171 -4.303
47 C4 172 -4.791
47 C4 173 -5.280
47 C4 174 -5.280
47 C4 175 -4.791
47 C4 176 -4.791
47 C4 177 -4.303
47 C4 178 -3.815
47 C4 179 -3.326
47 C4 180 -3.326
47 C4 181 -3.815
47 C4 182 -4.303
47 C4 183 -4.303
47 C4 184 -3.815
47 C4 185 -2.838
47 C4 186 -2.350
47 C4 187 -2.350
47 C4 188 -3.326
47 C4 189 -4.303
47 C4 190 -4.791
47 C4 191 -4.791
47 C4 192 -4.791
47 C4 193 -4.303
47 C4 194 -4.303
47 C4 195 -4.791
47 C4 196 -4.791
47 C4 197 -5.280
47 C4 198 -5.768
47 C4 199 -5.768
47 C4 200 -5.768
47 C4 201 -5.768
47 C4 202 -5.768
47 C4 203 -6.256
47 C4 204 -6.744
47 C4 205 -7.721
47 C4 206 -7.721
47 C4 207 -7.721
47 C4 208 -7.233
47 C4 209 -6.744
47 C4 210 -5.768
47 C4 211 -5.280
47 C4 212 -4.791
47 C4 213 -4.303
47 C4 214 -3.326
47 C4 215 -2.838
47 C4 216 -2.350
47 C4 217 -2.838
47 C4 218 -2.838
47 C4 219 -3.326
47 C4 220 -3.326
47 C4 221 -3.326
47 C4 222 -2.838
47 C4 223 -2.350
47 C4 224 -1.862
47 C4 225 -1.373
47 C4 226 -1.373
47 C4 227 -2.350
47 C4 228 -2.838
47 C4 229 -3.815
47 C4 230 -3.815
47 C4 231 -3.326
47 C4 232 -2.350
47 C4 233 -2.350
47 C4 234 -2.838
47 C4 235 -3.326
47 C4 236 -3.326
47 C4 237 -2.838
47 C4 238 -1.862
47 C4 239 -1.373
47 C4 240 -1.862
47 C4 241 -2.838
47 C4 242 -3.815
47 C4 243 -3.815
47 C4 244 -3.815
47 C4 245 -3.815
47 C4 246 -3.815
47 C4 247 -4.303
47 C4 248 -4.791
47 C4 249 -4.303
47 C4 250 -3.326
47 C4 251 -2.838
47 C4 252 -3.815
47 C4 253 -4.303
47 C4 254 -4.791
47 C4 255 -5.768
# CP5 chan 18
47 CP5 0 -1.434
47 CP5 1 -1.923
47 CP5 2 -2.411
47 CP5 3 -2.411
47 CP5 4 -2.411
47 CP5 5 -2.899
47 CP5 6 -2.899
47 CP5 7 -4.364
47 CP5 8 -5.829
47 CP5 9 -7.294
47 CP5 10 -7.782
47 CP5 11 -8.270
47 CP5 12 -7.782
47 CP5 13 -7.782
47 CP5 14 -6.805
47 CP5 15 -4.852
47 CP5 16 -1.923
47 CP5 17 1.007
47 CP5 18 2.960
47 CP5 19 3.448
47 CP5 20 1.984
47 CP5 21 -0.458
47 CP5 22 -2.411
47 CP5 23 -2.411
47 CP5 24 -0.946
47 CP5 25 1.495
47 CP5 26 3.937
47 CP5 27 4.425
47 CP5 28 3.937
47 CP5 29 2.472
47 CP5 30 1.007
47 CP5 31 0.031
47 CP5 32 -0.946
47 CP5 33 -2.411
47 CP5 34 -3.876
47 CP5 35 -5.341
47 CP5 36 -6.317
47 CP5 37 -6.805
47 CP5 38 -7.782
47 CP5 39 -8.270
47 CP5 40 -8.759
47 CP5 41 -9.735
47 CP5 42 -10.223
47 CP5 43 -10.223
47 CP5 44 -9.247
47 CP5 45 -7.782
47 CP5 46 -5.829
47 CP5 47 -3.387
47 CP5 48 -2.411
47 CP5 49 -2.899
47 CP5 50 -4.364
47 CP5 51 -5.829
47 CP5 52 -6.805
47 CP5 53 -5.829
47 CP5 54 -4.364
47 CP5 55 -3.387
47 CP5 56 -3.876
47 CP5 57 -5.341
47 CP5 58 -7.294
47 CP5 59 -8.759
47 CP5 60 -8.270
47 CP5 61 -6.805
47 CP5 62 -5.341
47 CP5 63 -4.364
47 CP5 64 -4.364
47 CP5 65 -5.341
47 CP5 66 -6.317
47 CP5 67 -7.782
47 CP5 68 -8.270
47 CP5 69 -7.294
47 CP5 70 -4.852
47 CP5 71 -1.923
47 CP5 72 1.007
47 CP5 73 2.960
47 CP5 74 3.448
47 CP5 75 3.448
47 CP5 76 2.472
47 CP5 77 1.984
47 CP5 78 1.495
47 CP5 79 0.519
47 CP5 80 0.031
47 CP5 81 -0.458
47 CP5 82 -0.458
47 CP5 83 -0.458
47 CP5 84 -0.946
47 CP5 85 -1.923
47 CP5 86 -3.387
47 CP5 87 -5.341
47 CP5 88 -7.294
47 CP5 89 -8.270
47 CP5 90 -8.759
47 CP5 91 -8.759
47 CP5 92 -9.247
47 CP5 93 -9.735
47 CP5 94 -10.712
47 CP5 95 -10.712
47 CP5 96 -10.223
47 CP5 97 -8.270
47 CP5 98 -6.805
47 CP5 99 -5.341
47 CP5 100 -5.829
47 CP5 101 -6.317
47 CP5 102 -6.317
47 CP5 103 -5.341
47 CP5 104 -4.364
47 CP5 105 -3.876
47 CP5 106 -4.364
47 CP5 107 -5.829
47 CP5 108 -7.294
47 CP5 109 -8.759
47 CP5 110 -8.759
47 CP5 111 -8.759
47 CP5 112 -8.759
47 CP5 113 -8.270
47 CP5 114 -7.782
47 CP5 115 -6.317
47 CP5 116 -5.341
47 CP5 117 -5.829
47 CP5 118 -7.294
47 CP5 119 -9.735
47 CP5 120 -11.200
47 CP5 121 -11.200
47 CP5 122 -9.735
47 CP5 123 -8.270
47 CP5 124 -7.294
47 CP5 125 -8.270
47 CP5 126 -9.735
47 CP5 127 -11.200
47 CP5 128 -11.688
47 CP5 129 -10.712
47 CP5 130 -8.759
47 CP5 131 -7.782
47 CP5 132 -7.782
47 CP5 133 -8.759
47 CP5 134 -9.735
47 CP5 135 -10.223
47 CP5 136 -10.223
47 CP5 137 -10.712
47 CP5 138 -11.688
47 CP5 139 -12.665
47 CP5 140 -12.665
47 CP5 141 -12.665
47 CP5 142 -12.665
47 CP5 143 -13.153
47 CP5 144 -14.618
47 CP5 145 -16.571
47 CP5 146 -18.036
47 CP5 147 -18.036
47 CP5 148 -17.548
47 CP5 149 -16.083
47 CP5 150 -15.106
47 CP5 151 -14.618
47 CP5 152 -14.130
47 CP5 153 -14.618
47 CP5 154 -14.618
47 CP5 155 -14.618
47 CP5 156 -14.130
47 CP5 157 -13.641
47 CP5 158 -13.153
47 CP5 159 -13.153
47 CP5 160 -13.641
47 CP5 161 -13.641
47 CP5 162 -14.130
47 CP5 163 -14.130
47 CP5 164 -14.618
47 CP5 165 -15.106
47 CP5 166 -16.083
47 CP5 167 -16.571
47 CP5 168 -15.594
47 CP5 169 -13.641
47 CP5 170 -11.200
47 CP5 171 -8.759
47 CP5 172 -7.294
47 CP5 173 -6.317
47 CP5 174 -6.317
47 CP5 175 -6.805
47 CP5 176 -7.294
47 CP5 177 -8.270
47 CP5 178 -9.735
47 CP5 179 -10.712
47 CP5 180 -11.200
47 CP5 181 -11.688
47 CP5 182 -11.200
47 CP5 183 -11.688
47 CP5 184 -12.665
47 CP5 185 -13.153
47 CP5 186 -13.641
47 CP5 187 -12.177
47 CP5 188 -10.712
47 CP5 189 -8.759
47 CP5 190 -8.759
47 CP5 191 -10.712
47 CP5 192 -13.641
47 CP5 193 -15.106
47 CP5 194 -15.106
47 CP5 195 -12.665
47 CP5 196 -9.735
47 CP5 197 -7.294
47 CP5 198 -5.829
47 CP5 199 -5.829
47 CP5 200 -6.805
47 CP5 201 -8.759
47 CP5 202 -10.712
47 CP5 203 -12.665
47 CP5 204 -13.153
47 CP5 205 -13.153
47 CP5 206 -12.177
47 CP5 207 -10.223
47 CP5 208 -8.759
47 CP5 209 -6.805
47 CP5 210 -5.829
47 CP5 211 -5.829
47 CP5 212 -7.294
47 CP5 213 -9.735
47 CP5 214 -11.688
47 CP5 215 -12.665
47 CP5 216 -11.688
47 CP5 217 -10.223
47 CP5 218 -8.759
47 CP5 219 -8.270
47 CP5 220 -8.270
47 CP5 221 -8.270
47 CP5 222 -6.805
47 CP5 223 -4.364
47 CP5 224 -1.923
47 CP5 225 -0.946
47 CP5 226 -1.434
47 CP5 227 -2.411
47 CP5 228 -2.899
47 CP5 229 -3.387
47 CP5 230 -3.387
47 CP5 231 -3.876
47 CP5 232 -4.852
47 CP5 233 -5.341
47 CP5 234 -4.852
47 CP5 235 -3.387
47 CP5 236 -1.923
47 CP5 237 -1.434
47 CP5 238 -2.411
47 CP5 239 -4.364
47 CP5 240 -6.317
47 CP5 241 -6.805
47 CP5 242 -6.805
47 CP5 243 -6.805
47 CP5 244 -6.805
47 CP5 245 -7.294
47 CP5 246 -7.782
47 CP5 247 -6.805
47 CP5 248 -5.341
47 CP5 249 -4.364
47 CP5 250 -3.387
47 CP5 251 -3.876
47 CP5 252 -5.341
47 CP5 253 -6.805
47 CP5 254 -8.270
47 CP5 255 -8.270
# CP6 chan 19
47 CP6 0 -1.943
47 CP6 1 -1.943
47 CP6 2 -0.966
47 CP6 3 -0.966
47 CP6 4 -0.478
47 CP6 5 -0.966
47 CP6 6 -1.943
47 CP6 7 -2.431
47 CP6 8 -2.431
47 CP6 9 -1.943
47 CP6 10 -0.478
47 CP6 11 0.987
47 CP6 12 1.963
47 CP6 13 0.987
47 CP6 14 0.010
47 CP6 15 -0.966
47 CP6 16 -0.966
47 CP6 17 0.010
47 CP6 18 1.475
47 CP6 19 1.963
47 CP6 20 0.987
47 CP6 21 -0.966
47 CP6 22 -2.431
47 CP6 23 -2.920
47 CP6 24 -2.431
47 CP6 25 -1.455
47 CP6 26 -0.966
47 CP6 27 -0.966
47 CP6 28 -0.966
47 CP6 29 -0.966
47 CP6 30 0.010
47 CP6 31 0.987
47 CP6 32 1.963
47 CP6 33 1.475
47 CP6 34 0.987
47 CP6 35 0.010
47 CP6 36 -0.478
47 CP6 37 -0.478
47 CP6 38 -0.966
47 CP6 39 -0.966
47 CP6 40 -1.455
47 CP6 41 -1.943
47 CP6 42 -1.455
47 CP6 43 -0.478
47 CP6 44 -0.478
47 CP6 45 -0.966
47 CP6 46 -2.920
47 CP6 47 -4.873
47 CP6 48 -6.826
47 CP6 49 -7.314
47 CP6 50 -7.802
47 CP6 51 -7.314
47 CP6 52 -7.314
47 CP6 53 -7.314
47 CP6 54 -7.802
47 CP6 55 -7.802
47 CP6 56 -8.291
47 CP6 57 -8.779
47 CP6 58 -9.267
47 CP6 59 -9.267
47 CP6 60 -8.779
47 CP6 61 -7.314
47 CP6 62 -6.337
47 CP6 63 -5.849
47 CP6 64 -5.849
47 CP6 65 -6.826
47 CP6 66 -7.314
47 CP6 67 -7.314
47 CP6 68 -6.826
47 CP6 69 -5.849
47 CP6 70 -4.873
47 CP6 71 -4.384
47 CP6 72 -3.896
47 CP6 73 -3.408
47 CP6 74 -2.920
47 CP6 75 -2.431
47 CP6 76 -2.920
47 CP6 77 -3.408
47 CP6 78 -4.873
47 CP6 79 -5.361
47 CP6 80 -5.849
47 CP6 81 -5.361
47 CP6 82 -4.873
47 CP6 83 -4.873
47 CP6 84 -5.361
47 CP6 85 -6.337
47 CP6 86 -7.314
47 CP6 87 -8.291
47 CP6 88 -8.779
47 CP6 89 -8.779
47 CP6 90 -8.291
47 CP6 91 -7.802
47 CP6 92 -7.802
47 CP6 93 -7.802
47 CP6 94 -7.802
47 CP6 95 -6.826
47 CP6 96 -5.849
47 CP6 97 -5.361
47 CP6 98 -4.873
47 CP6 99 -4.873
47 CP6 100 -5.361
47 CP6 101 -5.849
47 CP6 102 -5.361
47 CP6 103 -5.361
47 CP6 104 -4.873
47 CP6 105 -3.896
47 CP6 106 -3.408
47 CP6 107 -2.920
47 CP6 108 -2.431
47 CP6 109 -1.943
47 CP6 110 -1.455
47 CP6 111 -0.966
47 CP6 112 -0.478
47 CP6 113 -0.478
47 CP6 114 -0.478
47 CP6 115 -1.455
47 CP6 116 -1.943
47 CP6 117 -2.431
47 CP6 118 -2.431
47 CP6 119 -1.943
47 CP6 120 -2.431
47 CP6 121 -2.431
47 CP6 122 -2.920
47 CP6 123 -2.920
47 CP6 124 -2.431
47 CP6 125 -1.943
47 CP6 126 -1.455
47 CP6 127 -1.943
47 CP6 128 -2.431
47 CP6 129 -3.408
47 CP6 130 -3.896
47 CP6 131 -4.384
47 CP6 132 -4.873
47 CP6 133 -5.849
47 CP6 134 -6.826
47 CP6 135 -7.802
47 CP6 136 -8.291
47 CP6 137 -8.291
47 CP6 138 -8.779
47 CP6 139 -8.779
47 CP6 140 -9.755
47 CP6 141 -10.244
47 CP6 142 -10.732
47 CP6 143 -10.244
47 CP6 144 -9.755
47 CP6 145 -9.267
47 CP6 146 -8.779
47 CP6 147 -8.779
47 CP6 148 -9.267
47 CP6 149 -9.267
47 CP6 150 -9.755
47 CP6 151 -10.244
47 CP6 152 -10.244
47 CP6 153 -9.755
47 CP6 154 -8.779
47 CP6 155 -7.314
47 CP6 156 -5.849
47 CP6 157 -5.361
47 CP6 158 -4.873
47 CP6 159 -4.873
47 CP6 160 -4.873
47 CP6 161 -4.873
47 CP6 162 -4.873
47 CP6 163 -5.361
47 CP6 164 -5.361
47 CP6 165 -5.361
47 CP6 166 -4.873
47 CP6 167 -4.384
47 CP6 168 -3.896
47 CP6 169 -3.896
47 CP6 170 -4.384
47 CP6 171 -4.873
47 CP6 172 -5.361
47 CP6 173 -5.361
47 CP6 174 -4.873
47 CP6 175 -4.384
47 CP6 176 -3.896
47 CP6 177 -3.408
47 CP6 178 -2.920
47 CP6 179 -2.920
47 CP6 180 -3.896
47 CP6 181 -4.873
47 CP6 182 -4.873
47 CP6 183 -4.873
47 CP6 184 -3.896
47 CP6 185 -2.920
47 CP6 186 -1.943
47 CP6 187 -1.943
47 CP6 188 -1.943
47 CP6 189 -2.920
47 CP6 190 -3.896
47 CP6 191 -4.384
47 CP6 192 -4.873
47 CP6 193 -4.873
47 CP6 194 -5.361
47 CP6 195 -5.361
47 CP6 196 -5.361
47 CP6 197 -5.361
47 CP6 198 -4.873
47 CP6 199 -4.873
47 CP6 200 -4.873
47 CP6 201 -5.361
47 CP6 202 -6.337
47 CP6 203 -7.802
47 CP6 204 -9.267
47 CP6 205 -10.732
47 CP6 206 -10.732
47 CP6 207 -10.244
47 CP6 208 -9.267
47 CP6 209 -7.802
47 CP6 210 -6.826
47 CP6 211 -6.826
47 CP6 212 -6.826
47 CP6 213 -6.337
47 CP6 214 -5.361
47 CP6 215 -4.384
47 CP6 216 -4.384
47 CP6 217 -4.873
47 CP6 218 -6.337
47 CP6 219 -7.802
47 CP6 220 -7.802
47 CP6 221 -7.314
47 CP6 222 -5.849
47 CP6 223 -4.384
47 CP6 224 -2.920
47 CP6 225 -2.431
47 CP6 226 -2.920
47 CP6 227 -3.896
47 CP6 228 -5.849
47 CP6 229 -7.314
47 CP6 230 -7.314
47 CP6 231 -6.337
47 CP6 232 -4.873
47 CP6 233 -4.384
47 CP6 234 -4.873
47 CP6 235 -5.361
47 CP6 236 -5.361
47 CP6 237 -4.384
47 CP6 238 -3.408
47 CP6 239 -2.431
47 CP6 240 -2.431
47 CP6 241 -3.408
47 CP6 242 -4.384
47 CP6 243 -4.384
47 CP6 244 -3.896
47 CP6 245 -3.896
47 CP6 246 -3.896
47 CP6 247 -4.873
47 CP6 248 -5.361
47 CP6 249 -5.849
47 CP6 250 -5.361
47 CP6 251 -5.361
47 CP6 252 -6.337
47 CP6 253 -7.802
47 CP6 254 -9.267
47 CP6 255 -10.244
# CP1 chan 20
47 CP1 0 1.038
47 CP1 1 0.061
47 CP1 2 -1.404
47 CP1 3 -1.892
47 CP1 4 -1.404
47 CP1 5 -0.916
47 CP1 6 -0.916
47 CP1 7 -1.404
47 CP1 8 -1.892
47 CP1 9 -1.404
47 CP1 10 -0.427
47 CP1 11 0.549
47 CP1 12 0.549
47 CP1 13 -0.427
47 CP1 14 -1.404
47 CP1 15 -1.404
47 CP1 16 -0.427
47 CP1 17 1.526
47 CP1 18 2.502
47 CP1 19 2.502
47 CP1 20 1.038
47 CP1 21 -0.916
47 CP1 22 -1.892
47 CP1 23 -1.892
47 CP1 24 -1.404
47 CP1 25 -0.427
47 CP1 26 0.061
47 CP1 27 -0.916
47 CP1 28 -1.892
47 CP1 29 -3.357
47 CP1 30 -4.333
47 CP1 31 -3.845
47 CP1 32 -3.357
47 CP1 33 -2.869
47 CP1 34 -2.380
47 CP1 35 -2.380
47 CP1 36 -2.869
47 CP1 37 -2.869
47 CP1 38 -3.357
47 CP1 39 -3.357
47 CP1 40 -3.357
47 CP1 41 -4.333
47 CP1 42 -5.310
47 CP1 43 -5.798
47 CP1 44 -4.822
47 CP1 45 -3.357
47 CP1 46 -1.404
47 CP1 47 0.061
47 CP1 48 1.526
47 CP1 49 1.038
47 CP1 50 0.061
47 CP1 51 -1.404
47 CP1 52 -1.892
47 CP1 53 -1.404
47 CP1 54 -0.427
47 CP1 55 0.549
47 CP1 56 0.549
47 CP1 57 -0.427
47 CP1 58 -1.892
47 CP1 59 -2.380
47 CP1 60 -2.380
47 CP1 61 -2.380
47 CP1 62 -1.892
47 CP1 63 -2.380
47 CP1 64 -2.380
47 CP1 65 -2.869
47 CP1 66 -2.869
47 CP1 67 -2.380
47 CP1 68 -2.380
47 CP1 69 -2.380
47 CP1 70 -1.892
47 CP1 71 -0.427
47 CP1 72 0.549
47 CP1 73 2.014
47 CP1 74 2.014
47 CP1 75 1.526
47 CP1 76 0.549
47 CP1 77 -0.916
47 CP1 78 -1.892
47 CP1 79 -2.380
47 CP1 80 -2.380
47 CP1 81 -2.380
47 CP1 82 -2.380
47 CP1 83 -2.869
47 CP1 84 -3.357
47 CP1 85 -4.333
47 CP1 86 -4.822
47 CP1 87 -5.310
47 CP1 88 -6.287
47 CP1 89 -7.263
47 CP1 90 -7.751
47 CP1 91 -7.751
47 CP1 92 -6.775
47 CP1 93 -5.798
47 CP1 94 -4.822
47 CP1 95 -4.333
47 CP1 96 -4.333
47 CP1 97 -4.822
47 CP1 98 -4.822
47 CP1 99 -4.333
47 CP1 100 -3.845
47 CP1 101 -3.845
47 CP1 102 -3.845
47 CP1 103 -4.822
47 CP1 104 -5.310
47 CP1 105 -5.310
47 CP1 106 -4.822
47 CP1 107 -4.333
47 CP1 108 -4.333
47 CP1 109 -4.333
47 CP1 110 -4.822
47 CP1 111 -4.822
47 CP1 112 -4.822
47 CP1 113 -4.333
47 CP1 114 -4.822
47 CP1 115 -5.310
47 CP1 116 -6.287
47 CP1 117 -6.287
47 CP1 118 -6.775
47 CP1 119 -6.287
47 CP1 120 -6.287
47 CP1 121 -6.287
47 CP1 122 -5.798
47 CP1 123 -5.310
47 CP1 124 -4.333
47 CP1 125 -4.333
47 CP1 126 -3.845
47 CP1 127 -3.357
47 CP1 128 -3.357
47 CP1 129 -2.380
47 CP1 130 -1.404
47 CP1 131 -0.916
47 CP1 132 -1.404
47 CP1 133 -1.892
47 CP1 134 -2.380
47 CP1 135 -2.869
47 CP1 136 -2.869
47 CP1 137 -3.357
47 CP1 138 -3.357
47 CP1 139 -3.845
47 CP1 140 -3.357
47 CP1 141 -3.357
47 CP1 142 -2.869
47 CP1 143 -2.380
47 CP1 144 -2.869
47 CP1 145 -3.357
47 CP1 146 -3.357
47 CP1 147 -3.357
47 CP1 148 -2.869
47 CP1 149 -1.892
47 CP1 150 -1.404
47 CP1 151 -1.404
47 CP1 152 -2.380
47 CP1 153 -3.357
47 CP1 154 -3.845
47 CP1 155 -3.845
47 CP1 156 -3.357
47 CP1 157 -2.869
47 CP1 158 -2.380
47 CP1 159 -2.380
47 CP1 160 -3.357
47 CP1 161 -4.822
47 CP1 162 -5.310
47 CP1 163 -5.310
47 CP1 164 -4.333
47 CP1 165 -3.845
47 CP1 166 -3.357
47 CP1 167 -3.357
47 CP1 168 -3.357
47 CP1 169 -2.869
47 CP1 170 -1.892
47 CP1 171 -0.916
47 CP1 172 0.549
47 CP1 173 1.526
47 CP1 174 2.014
47 CP1 175 2.502
47 CP1 176 2.502
47 CP1 177 2.014
47 CP1 178 0.549
47 CP1 179 -0.916
47 CP1 180 -1.404
47 CP1 181 -1.404
47 CP1 182 -0.427
47 CP1 183 -0.427
47 CP1 184 -0.916
47 CP1 185 -2.380
47 CP1 186 -3.357
47 CP1 187 -3.845
47 CP1 188 -3.357
47 CP1 189 -2.380
47 CP1 190 -1.404
47 CP1 191 -1.892
47 CP1 192 -2.380
47 CP1 193 -3.357
47 CP1 194 -2.869
47 CP1 195 -1.892
47 CP1 196 -0.916
47 CP1 197 -0.427
47 CP1 198 0.061
47 CP1 199 0.061
47 CP1 200 0.061
47 CP1 201 0.061
47 CP1 202 -0.427
47 CP1 203 -1.404
47 CP1 204 -2.380
47 CP1 205 -2.380
47 CP1 206 -1.404
47 CP1 207 0.061
47 CP1 208 1.526
47 CP1 209 2.991
47 CP1 210 2.991
47 CP1 211 2.014
47 CP1 212 1.038
47 CP1 213 0.549
47 CP1 214 0.061
47 CP1 215 0.549
47 CP1 216 0.549
47 CP1 217 0.549
47 CP1 218 -0.427
47 CP1 219 -1.404
47 CP1 220 -2.380
47 CP1 221 -2.869
47 CP1 222 -1.892
47 CP1 223 -0.916
47 CP1 224 0.549
47 CP1 225 0.549
47 CP1 226 0.061
47 CP1 227 -1.404
47 CP1 228 -2.869
47 CP1 229 -3.357
47 CP1 230 -2.869
47 CP1 231 -2.380
47 CP1 232 -1.892
47 CP1 233 -1.404
47 CP1 234 -0.916
47 CP1 235 -0.427
47 CP1 236 0.549
47 CP1 237 0.549
47 CP1 238 -0.427
47 CP1 239 -1.404
47 CP1 240 -2.869
47 CP1 241 -2.380
47 CP1 242 -1.404
47 CP1 243 0.061
47 CP1 244 1.526
47 CP1 245 2.014
47 CP1 246 2.014
47 CP1 247 1.526
47 CP1 248 1.526
47 CP1 249 1.038
47 CP1 250 0.549
47 CP1 251 -0.427
47 CP1 252 -1.892
47 CP1 253 -3.357
47 CP1 254 -4.822
47 CP1 255 -5.310
# CP2 chan 21
47 CP2 0 -4.720
47 CP2 1 -3.743
47 CP2 2 -2.767
47 CP2 3 -2.279
47 CP2 4 -1.302
47 CP2 5 -0.326
47 CP2 6 -0.326
47 CP2 7 0.163
47 CP2 8 0.651
47 CP2 9 0.651
47 CP2 10 1.139
47 CP2 11 1.628
47 CP2 12 2.116
47 CP2 13 1.628
47 CP2 14 0.651
47 CP2 15 -0.326
47 CP2 16 -0.814
47 CP2 17 -1.302
47 CP2 18 -1.790
47 CP2 19 -2.767
47 CP2 20 -4.232
47 CP2 21 -5.697
47 CP2 22 -6.673
47 CP2 23 -6.673
47 CP2 24 -6.185
47 CP2 25 -6.185
47 CP2 26 -6.185
47 CP2 27 -6.673
47 CP2 28 -7.161
47 CP2 29 -7.650
47 CP2 30 -6.673
47 CP2 31 -4.720
47 CP2 32 -3.743
47 CP2 33 -2.767
47 CP2 34 -1.790
47 CP2 35 -1.790
47 CP2 36 -1.302
47 CP2 37 -0.814
47 CP2 38 -0.326
47 CP2 39 -0.326
47 CP2 40 -0.814
47 CP2 41 -1.302
47 CP2 42 -1.302
47 CP2 43 -0.814
47 CP2 44 -0.814
47 CP2 45 -0.326
47 CP2 46 -0.814
47 CP2 47 -1.790
47 CP2 48 -3.255
47 CP2 49 -4.232
47 CP2 50 -4.720
47 CP2 51 -4.720
47 CP2 52 -4.720
47 CP2 53 -4.232
47 CP2 54 -4.232
47 CP2 55 -4.232
47 CP2 56 -4.232
47 CP2 57 -4.232
47 CP2 58 -4.720
47 CP2 59 -4.720
47 CP2 60 -4.232
47 CP2 61 -4.232
47 CP2 62 -3.743
47 CP2 63 -3.255
47 CP2 64 -3.255
47 CP2 65 -3.255
47 CP2 66 -3.255
47 CP2 67 -3.255
47 CP2 68 -3.255
47 CP2 69 -2.767
47 CP2 70 -2.279
47 CP2 71 -2.279
47 CP2 72 -1.790
47 CP2 73 -1.790
47 CP2 74 -1.302
47 CP2 75 -1.302
47 CP2 76 -1.790
47 CP2 77 -2.279
47 CP2 78 -2.767
47 CP2 79 -3.743
47 CP2 80 -3.743
47 CP2 81 -4.232
47 CP2 82 -4.232
47 CP2 83 -4.232
47 CP2 84 -4.232
47 CP2 85 -5.208
47 CP2 86 -5.697
47 CP2 87 -6.185
47 CP2 88 -6.673
47 CP2 89 -6.673
47 CP2 90 -6.185
47 CP2 91 -6.185
47 CP2 92 -6.185
47 CP2 93 -6.185
47 CP2 94 -5.697
47 CP2 95 -5.208
47 CP2 96 -4.232
47 CP2 97 -3.743
47 CP2 98 -3.743
47 CP2 99 -3.743
47 CP2 100 -4.232
47 CP2 101 -4.232
47 CP2 102 -3.743
47 CP2 103 -3.255
47 CP2 104 -2.279
47 CP2 105 -1.790
47 CP2 106 -2.279
47 CP2 107 -2.767
47 CP2 108 -3.255
47 CP2 109 -3.255
47 CP2 110 -3.255
47 CP2 111 -2.767
47 CP2 112 -2.279
47 CP2 113 -2.279
47 CP2 114 -2.279
47 CP2 115 -3.255
47 CP2 116 -4.720
47 CP2 117 -5.697
47 CP2 118 -6.185
47 CP2 119 -6.185
47 CP2 120 -6.185
47 CP2 121 -5.208
47 CP2 122 -4.720
47 CP2 123 -4.232
47 CP2 124 -3.743
47 CP2 125 -3.255
47 CP2 126 -2.767
47 CP2 127 -2.767
47 CP2 128 -2.279
47 CP2 129 -2.279
47 CP2 130 -1.790
47 CP2 131 -2.279
47 CP2 132 -2.279
47 CP2 133 -2.279
47 CP2 134 -2.767
47 CP2 135 -3.255
47 CP2 136 -3.255
47 CP2 137 -3.743
47 CP2 138 -4.232
47 CP2 139 -4.232
47 CP2 140 -3.743
47 CP2 141 -3.743
47 CP2 142 -3.743
47 CP2 143 -4.232
47 CP2 144 -5.208
47 CP2 145 -6.185
47 CP2 146 -6.673
47 CP2 147 -6.673
47 CP2 148 -6.673
47 CP2 149 -6.673
47 CP2 150 -5.697
47 CP2 151 -5.697
47 CP2 152 -5.697
47 CP2 153 -5.208
47 CP2 154 -5.208
47 CP2 155 -4.720
47 CP2 156 -3.743
47 CP2 157 -3.255
47 CP2 158 -3.255
47 CP2 159 -3.255
47 CP2 160 -3.743
47 CP2 161 -3.255
47 CP2 162 -2.767
47 CP2 163 -2.279
47 CP2 164 -2.279
47 CP2 165 -2.279
47 CP2 166 -2.279
47 CP2 167 -2.279
47 CP2 168 -2.279
47 CP2 169 -1.790
47 CP2 170 -1.302
47 CP2 171 -1.302
47 CP2 172 -1.790
47 CP2 173 -2.279
47 CP2 174 -2.279
47 CP2 175 -2.279
47 CP2 176 -1.790
47 CP2 177 -0.814
47 CP2 178 -1.302
47 CP2 179 -1.790
47 CP2 180 -2.767
47 CP2 181 -4.232
47 CP2 182 -4.232
47 CP2 183 -4.232
47 CP2 184 -4.232
47 CP2 185 -3.743
47 CP2 186 -3.255
47 CP2 187 -2.767
47 CP2 188 -2.279
47 CP2 189 -2.279
47 CP2 190 -2.767
47 CP2 191 -3.743
47 CP2 192 -4.720
47 CP2 193 -5.208
47 CP2 194 -5.208
47 CP2 195 -4.720
47 CP2 196 -3.743
47 CP2 197 -2.767
47 CP2 198 -2.767
47 CP2 199 -2.767
47 CP2 200 -3.255
47 CP2 201 -4.232
47 CP2 202 -4.720
47 CP2 203 -5.697
47 CP2 204 -6.185
47 CP2 205 -6.185
47 CP2 206 -6.673
47 CP2 207 -6.185
47 CP2 208 -5.697
47 CP2 209 -4.232
47 CP2 210 -3.743
47 CP2 211 -3.743
47 CP2 212 -4.232
47 CP2 213 -4.720
47 CP2 214 -4.720
47 CP2 215 -4.232
47 CP2 216 -3.743
47 CP2 217 -3.743
47 CP2 218 -4.232
47 CP2 219 -5.208
47 CP2 220 -5.697
47 CP2 221 -5.697
47 CP2 222 -5.208
47 CP2 223 -4.232
47 CP2 224 -3.255
47 CP2 225 -2.767
47 CP2 226 -2.767
47 CP2 227 -3.255
47 CP2 228 -4.232
47 CP2 229 -4.720
47 CP2 230 -5.208
47 CP2 231 -5.208
47 CP2 232 -5.208
47 CP2 233 -5.208
47 CP2 234 -5.697
47 CP2 235 -5.697
47 CP2 236 -5.208
47 CP2 237 -4.232
47 CP2 238 -3.743
47 CP2 239 -3.743
47 CP2 240 -4.232
47 CP2 241 -4.720
47 CP2 242 -5.208
47 CP2 243 -5.208
47 CP2 244 -4.232
47 CP2 245 -3.743
47 CP2 246 -3.255
47 CP2 247 -4.232
47 CP2 248 -5.208
47 CP2 249 -6.185
47 CP2 250 -6.185
47 CP2 251 -5.208
47 CP2 252 -5.208
47 CP2 253 -5.208
47 CP2 254 -5.697
47 CP2 255 -6.673
# P3 chan 22
47 P3 0 3.245
47 P3 1 1.780
47 P3 2 0.315
47 P3 3 -0.661
47 P3 4 -0.173
47 P3 5 0.315
47 P3 6 0.804
47 P3 7 -0.173
47 P3 8 -2.614
47 P3 9 -4.567
47 P3 10 -6.032
47 P3 11 -6.521
47 P3 12 -6.521
47 P3 13 -7.009
47 P3 14 -7.497
47 P3 15 -7.009
47 P3 16 -6.032
47 P3 17 -4.079
47 P3 18 -3.103
47 P3 19 -3.103
47 P3 20 -5.056
47 P3 21 -7.497
47 P3 22 -8.474
47 P3 23 -7.497
47 P3 24 -5.544
47 P3 25 -2.614
47 P3 26 -1.149
47 P3 27 -1.638
47 P3 28 -3.103
47 P3 29 -5.544
47 P3 30 -7.009
47 P3 31 -7.985
47 P3 32 -7.985
47 P3 33 -7.497
47 P3 34 -7.985
47 P3 35 -8.962
47 P3 36 -9.939
47 P3 37 -11.892
47 P3 38 -13.845
47 P3 39 -15.310
47 P3 40 -16.286
47 P3 41 -16.774
47 P3 42 -16.774
47 P3 43 -16.286
47 P3 44 -15.798
47 P3 45 -14.821
47 P3 46 -12.868
47 P3 47 -10.915
47 P3 48 -9.939
47 P3 49 -10.915
47 P3 50 -13.357
47 P3 51 -15.798
47 P3 52 -16.774
47 P3 53 -14.821
47 P3 54 -10.915
47 P3 55 -7.985
47 P3 56 -6.521
47 P3 57 -7.497
47 P3 58 -8.474
47 P3 59 -8.962
47 P3 60 -8.962
47 P3 61 -8.474
47 P3 62 -9.450
47 P3 63 -10.427
47 P3 64 -11.403
47 P3 65 -10.915
47 P3 66 -9.939
47 P3 67 -9.450
47 P3 68 -9.939
47 P3 69 -10.427
47 P3 70 -9.939
47 P3 71 -7.985
47 P3 72 -5.056
47 P3 73 -3.103
47 P3 74 -1.638
47 P3 75 -2.614
47 P3 76 -4.079
47 P3 77 -5.544
47 P3 78 -6.521
47 P3 79 -6.032
47 P3 80 -5.544
47 P3 81 -4.079
47 P3 82 -2.126
47 P3 83 -1.149
47 P3 84 -2.126
47 P3 85 -4.567
47 P3 86 -8.474
47 P3 87 -11.892
47 P3 88 -13.357
47 P3 89 -13.845
47 P3 90 -13.357
47 P3 91 -12.868
47 P3 92 -13.357
47 P3 93 -13.845
47 P3 94 -14.333
47 P3 95 -14.821
47 P3 96 -14.821
47 P3 97 -14.821
47 P3 98 -14.333
47 P3 99 -12.380
47 P3 100 -9.939
47 P3 101 -7.985
47 P3 102 -7.009
47 P3 103 -7.009
47 P3 104 -8.474
47 P3 105 -9.450
47 P3 106 -9.939
47 P3 107 -8.962
47 P3 108 -7.985
47 P3 109 -7.985
47 P3 110 -8.962
47 P3 111 -9.939
47 P3 112 -10.427
47 P3 113 -9.450
47 P3 114 -7.985
47 P3 115 -7.009
47 P3 116 -7.009
47 P3 117 -8.962
47 P3 118 -11.403
47 P3 119 -12.868
47 P3 120 -12.868
47 P3 121 -10.915
47 P3 122 -8.474
47 P3 123 -6.032
47 P3 124 -5.056
47 P3 125 -5.544
47 P3 126 -6.521
47 P3 127 -6.521
47 P3 128 -5.544
47 P3 129 -3.591
47 P3 130 -1.149
47 P3 131 -0.173
47 P3 132 0.315
47 P3 133 -0.173
47 P3 134 -0.661
47 P3 135 -0.661
47 P3 136 -1.149
47 P3 137 -1.149
47 P3 138 -1.638
47 P3 139 -1.638
47 P3 140 -1.149
47 P3 141 -1.149
47 P3 142 -1.638
47 P3 143 -3.103
47 P3 144 -5.544
47 P3 145 -7.985
47 P3 146 -8.474
47 P3 147 -7.985
47 P3 148 -6.521
47 P3 149 -5.056
47 P3 150 -3.591
47 P3 151 -2.614
47 P3 152 -2.614
47 P3 153 -3.103
47 P3 154 -4.567
47 P3 155 -5.544
47 P3 156 -5.056
47 P3 157 -3.591
47 P3 158 -1.638
47 P3 159 -0.661
47 P3 160 -1.149
47 P3 161 -3.103
47 P3 162 -5.056
47 P3 163 -6.032
47 P3 164 -6.521
47 P3 165 -6.521
47 P3 166 -7.009
47 P3 167 -7.009
47 P3 168 -6.521
47 P3 169 -4.567
47 P3 170 -1.149
47 P3 171 1.292
47 P3 172 1.780
47 P3 173 1.780
47 P3 174 0.804
47 P3 175 1.292
47 P3 176 2.268
47 P3 177 3.245
47 P3 178 2.757
47 P3 179 0.804
47 P3 180 -1.149
47 P3 181 -1.149
47 P3 182 -0.661
47 P3 183 0.315
47 P3 184 0.315
47 P3 185 -0.661
47 P3 186 -1.149
47 P3 187 -0.661
47 P3 188 1.780
47 P3 189 4.222
47 P3 190 3.733
47 P3 191 0.804
47 P3 192 -3.103
47 P3 193 -6.032
47 P3 194 -6.032
47 P3 195 -3.591
47 P3 196 -0.661
47 P3 197 0.804
47 P3 198 0.315
47 P3 199 -1.149
47 P3 200 -2.126
47 P3 201 -2.614
47 P3 202 -2.126
47 P3 203 -1.638
47 P3 204 -1.149
47 P3 205 -1.149
47 P3 206 -0.661
47 P3 207 -0.173
47 P3 208 0.804
47 P3 209 1.292
47 P3 210 0.804
47 P3 211 -1.149
47 P3 212 -3.591
47 P3 213 -6.032
47 P3 214 -7.985
47 P3 215 -7.985
47 P3 216 -7.009
47 P3 217 -6.521
47 P3 218 -7.497
47 P3 219 -8.962
47 P3 220 -10.427
47 P3 221 -10.427
47 P3 222 -8.474
47 P3 223 -5.056
47 P3 224 -2.614
47 P3 225 -2.126
47 P3 226 -3.591
47 P3 227 -5.544
47 P3 228 -6.032
47 P3 229 -6.032
47 P3 230 -5.544
47 P3 231 -6.032
47 P3 232 -6.521
47 P3 233 -6.032
47 P3 234 -4.567
47 P3 235 -2.126
47 P3 236 -0.173
47 P3 237 -0.661
47 P3 238 -3.591
47 P3 239 -7.009
47 P3 240 -8.962
47 P3 241 -8.962
47 P3 242 -7.497
47 P3 243 -5.544
47 P3 244 -4.567
47 P3 245 -4.079
47 P3 246 -4.567
47 P3 247 -5.056
47 P3 248 -5.056
47 P3 249 -5.056
47 P3 250 -4.079
47 P3 251 -4.079
47 P3 252 -4.079
47 P3 253 -5.056
47 P3 254 -6.521
47 P3 255 -8.474
# P4 chan 23
47 P4 0 -5.676
47 P4 1 -5.188
47 P4 2 -3.723
47 P4 3 -2.747
47 P4 4 -1.770
47 P4 5 -1.770
47 P4 6 -1.770
47 P4 7 -1.282
47 P4 8 0.183
47 P4 9 2.625
47 P4 10 5.066
47 P4 11 7.019
47 P4 12 7.019
47 P4 13 5.066
47 P4 14 3.113
47 P4 15 1.160
47 P4 16 1.160
47 P4 17 2.136
47 P4 18 3.601
47 P4 19 3.113
47 P4 20 0.671
47 P4 21 -2.747
47 P4 22 -6.165
47 P4 23 -7.629
47 P4 24 -7.629
47 P4 25 -6.653
47 P4 26 -6.165
47 P4 27 -5.676
47 P4 28 -5.676
47 P4 29 -4.700
47 P4 30 -2.258
47 P4 31 0.183
47 P4 32 2.136
47 P4 33 2.625
47 P4 34 2.625
47 P4 35 1.648
47 P4 36 0.671
47 P4 37 0.183
47 P4 38 -0.793
47 P4 39 -0.793
47 P4 40 -1.770
47 P4 41 -1.770
47 P4 42 -1.282
47 P4 43 -0.793
47 P4 44 0.183
47 P4 45 0.671
47 P4 46 0.183
47 P4 47 -1.282
47 P4 48 -2.258
47 P4 49 -3.723
47 P4 50 -4.211
47 P4 51 -4.211
47 P4 52 -3.723
47 P4 53 -3.723
47 P4 54 -3.723
47 P4 55 -4.211
47 P4 56 -5.676
47 P4 57 -6.165
47 P4 58 -6.653
47 P4 59 -6.165
47 P4 60 -5.188
47 P4 61 -3.723
47 P4 62 -2.747
47 P4 63 -1.770
47 P4 64 -0.793
47 P4 65 -0.305
47 P4 66 0.183
47 P4 67 0.183
47 P4 68 0.183
47 P4 69 -0.793
47 P4 70 -0.793
47 P4 71 0.183
47 P4 72 1.160
47 P4 73 1.648
47 P4 74 0.671
47 P4 75 -1.770
47 P4 76 -5.188
47 P4 77 -6.653
47 P4 78 -7.629
47 P4 79 -6.653
47 P4 80 -5.676
47 P4 81 -5.676
47 P4 82 -5.676
47 P4 83 -6.653
47 P4 84 -8.118
47 P4 85 -9.583
47 P4 86 -10.559
47 P4 87 -12.024
47 P4 88 -12.512
47 P4 89 -12.024
47 P4 90 -11.536
47 P4 91 -10.559
47 P4 92 -10.071
47 P4 93 -10.071
47 P4 94 -9.583
47 P4 95 -8.606
47 P4 96 -7.629
47 P4 97 -6.653
47 P4 98 -6.165
47 P4 99 -5.676
47 P4 100 -5.188
47 P4 101 -4.211
47 P4 102 -3.723
47 P4 103 -3.723
47 P4 104 -4.211
47 P4 105 -4.700
47 P4 106 -4.700
47 P4 107 -4.211
47 P4 108 -3.235
47 P4 109 -2.747
47 P4 110 -2.747
47 P4 111 -2.747
47 P4 112 -3.235
47 P4 113 -2.747
47 P4 114 -2.258
47 P4 115 -2.258
47 P4 116 -3.235
47 P4 117 -5.188
47 P4 118 -7.141
47 P4 119 -8.118
47 P4 120 -8.606
47 P4 121 -7.141
47 P4 122 -5.676
47 P4 123 -3.723
47 P4 124 -2.747
47 P4 125 -1.770
47 P4 126 -1.770
47 P4 127 -1.282
47 P4 128 -1.282
47 P4 129 -0.305
47 P4 130 -0.305
47 P4 131 -0.793
47 P4 132 -1.282
47 P4 133 -1.770
47 P4 134 -1.770
47 P4 135 -1.282
47 P4 136 -1.770
47 P4 137 -2.258
47 P4 138 -3.723
47 P4 139 -5.188
47 P4 140 -5.676
47 P4 141 -6.165
47 P4 142 -5.676
47 P4 143 -5.676
47 P4 144 -5.676
47 P4 145 -5.676
47 P4 146 -4.211
47 P4 147 -3.235
47 P4 148 -1.770
47 P4 149 -1.282
47 P4 150 -1.770
47 P4 151 -2.747
47 P4 152 -3.235
47 P4 153 -2.747
47 P4 154 -2.258
47 P4 155 -1.770
47 P4 156 -1.770
47 P4 157 -1.770
47 P4 158 -1.282
47 P4 159 -0.305
47 P4 160 1.160
47 P4 161 2.136
47 P4 162 2.136
47 P4 163 1.160
47 P4 164 -0.305
47 P4 165 -1.770
47 P4 166 -2.258
47 P4 167 -1.770
47 P4 168 -1.282
47 P4 169 -0.305
47 P4 170 0.183
47 P4 171 0.671
47 P4 172 1.160
47 P4 173 1.160
47 P4 174 1.648
47 P4 175 1.160
47 P4 176 1.160
47 P4 177 1.160
47 P4 178 1.160
47 P4 179 0.671
47 P4 180 0.183
47 P4 181 -0.793
47 P4 182 -0.793
47 P4 183 -1.282
47 P4 184 -1.282
47 P4 185 -0.305
47 P4 186 0.671
47 P4 187 2.136
47 P4 188 3.601
47 P4 189 5.066
47 P4 190 5.066
47 P4 191 3.601
47 P4 192 1.160
47 P4 193 -0.793
47 P4 194 -2.258
47 P4 195 -2.747
47 P4 196 -2.258
47 P4 197 -0.793
47 P4 198 -0.305
47 P4 199 0.183
47 P4 200 -0.305
47 P4 201 -1.282
47 P4 202 -3.723
47 P4 203 -6.653
47 P4 204 -9.583
47 P4 205 -11.047
47 P4 206 -10.071
47 P4 207 -7.629
47 P4 208 -3.723
47 P4 209 -0.305
47 P4 210 1.648
47 P4 211 1.648
47 P4 212 0.671
47 P4 213 0.183
47 P4 214 0.183
47 P4 215 -0.305
47 P4 216 -1.770
47 P4 217 -4.700
47 P4 218 -7.141
47 P4 219 -8.118
47 P4 220 -6.653
47 P4 221 -3.235
47 P4 222 -0.793
47 P4 223 0.671
47 P4 224 -0.305
47 P4 225 -1.770
47 P4 226 -2.747
47 P4 227 -3.723
47 P4 228 -3.723
47 P4 229 -4.700
47 P4 230 -5.676
47 P4 231 -6.653
47 P4 232 -6.653
47 P4 233 -6.653
47 P4 234 -6.165
47 P4 235 -5.676
47 P4 236 -5.188
47 P4 237 -5.188
47 P4 238 -4.211
47 P4 239 -2.747
47 P4 240 -1.770
47 P4 241 -0.305
47 P4 242 0.671
47 P4 243 2.136
47 P4 244 2.625
47 P4 245 2.625
47 P4 246 1.160
47 P4 247 -0.793
47 P4 248 -2.258
47 P4 249 -2.258
47 P4 250 -1.770
47 P4 251 -1.282
47 P4 252 -1.770
47 P4 253 -3.235
47 P4 254 -5.188
47 P4 255 -6.653
# PZ chan 24
47 PZ 0 -2.431
47 PZ 1 -1.455
47 PZ 2 -1.943
47 PZ 3 -2.431
47 PZ 4 -2.431
47 PZ 5 -1.455
47 PZ 6 0.498
47 PZ 7 1.475
47 PZ 8 2.452
47 PZ 9 1.963
47 PZ 10 1.963
47 PZ 11 2.452
47 PZ 12 3.428
47 PZ 13 4.405
47 PZ 14 4.405
47 PZ 15 4.405
47 PZ 16 4.405
47 PZ 17 4.893
47 PZ 18 4.893
47 PZ 19 4.405
47 PZ 20 2.452
47 PZ 21 0.010
47 PZ 22 -2.431
47 PZ 23 -3.896
47 PZ 24 -3.408
47 PZ 25 -2.920
47 PZ 26 -3.408
47 PZ 27 -4.873
47 PZ 28 -6.337
47 PZ 29 -7.314
47 PZ 30 -6.337
47 PZ 31 -4.873
47 PZ 32 -2.920
47 PZ 33 -0.966
47 PZ 34 -0.478
47 PZ 35 0.498
47 PZ 36 0.987
47 PZ 37 1.475
47 PZ 38 2.452
47 PZ 39 2.452
47 PZ 40 2.452
47 PZ 41 2.452
47 PZ 42 2.452
47 PZ 43 2.940
47 PZ 44 3.428
47 PZ 45 3.916
47 PZ 46 3.916
47 PZ 47 3.916
47 PZ 48 2.940
47 PZ 49 1.963
47 PZ 50 0.498
47 PZ 51 -0.478
47 PZ 52 -1.455
47 PZ 53 -2.431
47 PZ 54 -2.431
47 PZ 55 -2.431
47 PZ 56 -2.431
47 PZ 57 -1.943
47 PZ 58 -1.943
47 PZ 59 -1.943
47 PZ 60 -1.455
47 PZ 61 -1.455
47 PZ 62 -0.966
47 PZ 63 -0.966
47 PZ 64 -1.455
47 PZ 65 -0.966
47 PZ 66 -0.966
47 PZ 67 -0.966
47 PZ 68 -0.966
47 PZ 69 -0.478
47 PZ 70 0.010
47 PZ 71 0.498
47 PZ 72 1.475
47 PZ 73 2.452
47 PZ 74 2.940
47 PZ 75 3.428
47 PZ 76 3.428
47 PZ 77 3.428
47 PZ 78 2.940
47 PZ 79 2.452
47 PZ 80 1.963
47 PZ 81 1.963
47 PZ 82 2.452
47 PZ 83 1.963
47 PZ 84 0.987
47 PZ 85 -0.966
47 PZ 86 -3.408
47 PZ 87 -5.849
47 PZ 88 -6.826
47 PZ 89 -6.826
47 PZ 90 -6.337
47 PZ 91 -5.849
47 PZ 92 -6.337
47 PZ 93 -6.337
47 PZ 94 -6.337
47 PZ 95 -5.361
47 PZ 96 -4.873
47 PZ 97 -3.896
47 PZ 98 -3.408
47 PZ 99 -2.431
47 PZ 100 -1.455
47 PZ 101 0.010
47 PZ 102 1.475
47 PZ 103 2.452
47 PZ 104 3.428
47 PZ 105 3.428
47 PZ 106 2.940
47 PZ 107 2.940
47 PZ 108 2.940
47 PZ 109 2.452
47 PZ 110 2.452
47 PZ 111 1.963
47 PZ 112 1.963
47 PZ 113 1.963
47 PZ 114 1.475
47 PZ 115 0.498
47 PZ 116 -0.966
47 PZ 117 -2.920
47 PZ 118 -4.384
47 PZ 119 -4.873
47 PZ 120 -3.896
47 PZ 121 -2.920
47 PZ 122 -1.455
47 PZ 123 0.010
47 PZ 124 0.987
47 PZ 125 1.475
47 PZ 126 1.475
47 PZ 127 1.963
47 PZ 128 1.963
47 PZ 129 2.452
47 PZ 130 2.940
47 PZ 131 3.428
47 PZ 132 3.428
47 PZ 133 3.428
47 PZ 134 2.452
47 PZ 135 1.475
47 PZ 136 0.498
47 PZ 137 -0.478
47 PZ 138 0.010
47 PZ 139 0.010
47 PZ 140 0.498
47 PZ 141 0.010
47 PZ 142 -1.455
47 PZ 143 -2.920
47 PZ 144 -4.384
47 PZ 145 -5.361
47 PZ 146 -6.337
47 PZ 147 -7.314
47 PZ 148 -7.802
47 PZ 149 -7.802
47 PZ 150 -7.314
47 PZ 151 -6.337
47 PZ 152 -4.873
47 PZ 153 -4.384
47 PZ 154 -4.384
47 PZ 155 -4.384
47 PZ 156 -4.384
47 PZ 157 -3.408
47 PZ 158 -2.431
47 PZ 159 -1.943
47 PZ 160 -1.943
47 PZ 161 -2.431
47 PZ 162 -2.920
47 PZ 163 -2.920
47 PZ 164 -2.431
47 PZ 165 -2.431
47 PZ 166 -2.431
47 PZ 167 -2.431
47 PZ 168 -2.920
47 PZ 169 -2.431
47 PZ 170 -1.455
47 PZ 171 -0.478
47 PZ 172 0.010
47 PZ 173 0.010
47 PZ 174 0.010
47 PZ 175 0.010
47 PZ 176 0.010
47 PZ 177 0.010
47 PZ 178 -1.455
47 PZ 179 -2.431
47 PZ 180 -3.408
47 PZ 181 -2.920
47 PZ 182 -2.431
47 PZ 183 -2.431
47 PZ 184 -2.431
47 PZ 185 -3.896
47 PZ 186 -3.896
47 PZ 187 -2.920
47 PZ 188 -1.455
47 PZ 189 0.498
47 PZ 190 0.987
47 PZ 191 0.010
47 PZ 192 -1.943
47 PZ 193 -3.896
47 PZ 194 -4.384
47 PZ 195 -3.896
47 PZ 196 -2.920
47 PZ 197 -1.943
47 PZ 198 -1.455
47 PZ 199 -0.478
47 PZ 200 0.498
47 PZ 201 0.498
47 PZ 202 -0.478
47 PZ 203 -2.431
47 PZ 204 -4.384
47 PZ 205 -5.361
47 PZ 206 -4.384
47 PZ 207 -1.943
47 PZ 208 0.010
47 PZ 209 1.475
47 PZ 210 1.475
47 PZ 211 0.498
47 PZ 212 -0.478
47 PZ 213 -1.455
47 PZ 214 -1.943
47 PZ 215 -1.943
47 PZ 216 -1.455
47 PZ 217 -1.943
47 PZ 218 -2.920
47 PZ 219 -4.384
47 PZ 220 -4.384
47 PZ 221 -3.896
47 PZ 222 -2.431
47 PZ 223 -0.478
47 PZ 224 0.987
47 PZ 225 0.987
47 PZ 226 0.987
47 PZ 227 0.010
47 PZ 228 -0.478
47 PZ 229 -0.966
47 PZ 230 -0.966
47 PZ 231 -0.478
47 PZ 232 -0.478
47 PZ 233 0.010
47 PZ 234 0.498
47 PZ 235 1.475
47 PZ 236 2.452
47 PZ 237 2.452
47 PZ 238 1.475
47 PZ 239 0.010
47 PZ 240 -0.966
47 PZ 241 -1.455
47 PZ 242 -0.966
47 PZ 243 0.498
47 PZ 244 1.963
47 PZ 245 1.963
47 PZ 246 1.963
47 PZ 247 1.475
47 PZ 248 1.475
47 PZ 249 2.452
47 PZ 250 3.428
47 PZ 251 3.916
47 PZ 252 3.428
47 PZ 253 1.475
47 PZ 254 -0.966
47 PZ 255 -2.920
# P8 chan 25
47 P8 0 -5.310
47 P8 1 -3.357
47 P8 2 -0.916
47 P8 3 0.549
47 P8 4 2.014
47 P8 5 2.502
47 P8 6 2.014
47 P8 7 1.526
47 P8 8 1.526
47 P8 9 2.991
47 P8 10 4.944
47 P8 11 7.385
47 P8 12 9.338
47 P8 13 8.850
47 P8 14 7.385
47 P8 15 5.432
47 P8 16 4.456
47 P8 17 4.944
47 P8 18 6.409
47 P8 19 7.385
47 P8 20 7.874
47 P8 21 6.897
47 P8 22 5.432
47 P8 23 3.967
47 P8 24 2.991
47 P8 25 2.502
47 P8 26 2.502
47 P8 27 2.014
47 P8 28 2.502
47 P8 29 2.502
47 P8 30 3.967
47 P8 31 4.944
47 P8 32 4.944
47 P8 33 4.944
47 P8 34 4.456
47 P8 35 3.479
47 P8 36 2.991
47 P8 37 2.502
47 P8 38 1.526
47 P8 39 1.038
47 P8 40 0.549
47 P8 41 0.549
47 P8 42 1.526
47 P8 43 3.479
47 P8 44 4.456
47 P8 45 4.456
47 P8 46 2.502
47 P8 47 -0.427
47 P8 48 -2.869
47 P8 49 -3.845
47 P8 50 -3.845
47 P8 51 -2.380
47 P8 52 -2.380
47 P8 53 -3.845
47 P8 54 -5.798
47 P8 55 -7.751
47 P8 56 -9.216
47 P8 57 -9.216
47 P8 58 -9.705
47 P8 59 -9.216
47 P8 60 -8.728
47 P8 61 -7.751
47 P8 62 -6.775
47 P8 63 -5.798
47 P8 64 -6.287
47 P8 65 -6.287
47 P8 66 -7.263
47 P8 67 -7.263
47 P8 68 -6.287
47 P8 69 -4.822
47 P8 70 -2.869
47 P8 71 -1.404
47 P8 72 0.061
47 P8 73 2.014
47 P8 74 3.479
47 P8 75 3.967
47 P8 76 3.479
47 P8 77 2.014
47 P8 78 0.061
47 P8 79 -2.380
47 P8 80 -3.357
47 P8 81 -4.333
47 P8 82 -4.333
47 P8 83 -4.333
47 P8 84 -5.310
47 P8 85 -6.775
47 P8 86 -8.240
47 P8 87 -9.216
47 P8 88 -9.216
47 P8 89 -9.216
47 P8 90 -8.728
47 P8 91 -8.728
47 P8 92 -9.705
47 P8 93 -9.705
47 P8 94 -9.705
47 P8 95 -8.240
47 P8 96 -6.775
47 P8 97 -5.310
47 P8 98 -5.310
47 P8 99 -6.287
47 P8 100 -7.263
47 P8 101 -7.751
47 P8 102 -7.263
47 P8 103 -6.287
47 P8 104 -4.333
47 P8 105 -2.869
47 P8 106 -0.916
47 P8 107 0.061
47 P8 108 1.038
47 P8 109 1.526
47 P8 110 1.526
47 P8 111 1.526
47 P8 112 2.014
47 P8 113 2.991
47 P8 114 2.991
47 P8 115 2.991
47 P8 116 2.502
47 P8 117 2.014
47 P8 118 1.526
47 P8 119 2.014
47 P8 120 2.502
47 P8 121 2.991
47 P8 122 2.991
47 P8 123 2.502
47 P8 124 2.991
47 P8 125 3.479
47 P8 126 4.456
47 P8 127 4.456
47 P8 128 2.991
47 P8 129 0.549
47 P8 130 -0.916
47 P8 131 -1.404
47 P8 132 -0.916
47 P8 133 -0.427
47 P8 134 -0.916
47 P8 135 -1.404
47 P8 136 -2.380
47 P8 137 -3.357
47 P8 138 -3.845
47 P8 139 -4.333
47 P8 140 -4.822
47 P8 141 -5.798
47 P8 142 -6.775
47 P8 143 -7.263
47 P8 144 -7.263
47 P8 145 -6.775
47 P8 146 -6.287
47 P8 147 -5.798
47 P8 148 -5.798
47 P8 149 -6.775
47 P8 150 -7.263
47 P8 151 -8.728
47 P8 152 -9.216
47 P8 153 -8.240
47 P8 154 -5.798
47 P8 155 -3.845
47 P8 156 -1.892
47 P8 157 -1.404
47 P8 158 -1.404
47 P8 159 -0.916
47 P8 160 0.061
47 P8 161 0.549
47 P8 162 0.549
47 P8 163 -0.427
47 P8 164 -1.404
47 P8 165 -1.404
47 P8 166 -0.427
47 P8 167 0.549
47 P8 168 1.038
47 P8 169 1.526
47 P8 170 1.526
47 P8 171 1.526
47 P8 172 2.502
47 P8 173 2.991
47 P8 174 3.479
47 P8 175 3.479
47 P8 176 3.479
47 P8 177 2.991
47 P8 178 2.991
47 P8 179 2.991
47 P8 180 2.502
47 P8 181 2.014
47 P8 182 1.526
47 P8 183 2.014
47 P8 184 2.991
47 P8 185 4.944
47 P8 186 6.409
47 P8 187 7.385
47 P8 188 6.897
47 P8 189 5.432
47 P8 190 3.479
47 P8 191 1.526
47 P8 192 0.061
47 P8 193 -0.916
47 P8 194 -1.404
47 P8 195 -1.404
47 P8 196 -0.916
47 P8 197 0.061
47 P8 198 1.038
47 P8 199 2.014
47 P8 200 2.502
47 P8 201 1.526
47 P8 202 -0.427
47 P8 203 -2.380
47 P8 204 -4.822
47 P8 205 -6.287
47 P8 206 -7.263
47 P8 207 -7.263
47 P8 208 -7.263
47 P8 209 -6.775
47 P8 210 -6.287
47 P8 211 -5.310
47 P8 212 -4.333
47 P8 213 -3.845
47 P8 214 -2.869
47 P8 215 -1.892
47 P8 216 -1.404
47 P8 217 -1.404
47 P8 218 -2.380
47 P8 219 -3.357
47 P8 220 -3.845
47 P8 221 -3.845
47 P8 222 -3.845
47 P8 223 -2.869
47 P8 224 -1.892
47 P8 225 -1.404
47 P8 226 -1.404
47 P8 227 -2.380
47 P8 228 -4.333
47 P8 229 -5.798
47 P8 230 -6.287
47 P8 231 -5.310
47 P8 232 -4.333
47 P8 233 -3.357
47 P8 234 -3.357
47 P8 235 -3.845
47 P8 236 -4.333
47 P8 237 -3.357
47 P8 238 -1.892
47 P8 239 -0.916
47 P8 240 -0.427
47 P8 241 -1.404
47 P8 242 -1.892
47 P8 243 -1.892
47 P8 244 -0.916
47 P8 245 0.061
47 P8 246 0.549
47 P8 247 0.061
47 P8 248 -0.427
47 P8 249 -0.427
47 P8 250 0.549
47 P8 251 0.549
47 P8 252 -0.427
47 P8 253 -1.892
47 P8 254 -4.333
47 P8 255 -6.775
# P7 chan 26
47 P7 0 1.526
47 P7 1 3.479
47 P7 2 3.967
47 P7 3 3.479
47 P7 4 2.502
47 P7 5 2.014
47 P7 6 1.526
47 P7 7 0.549
47 P7 8 -1.404
47 P7 9 -3.845
47 P7 10 -6.287
47 P7 11 -7.263
47 P7 12 -6.775
47 P7 13 -4.822
47 P7 14 -2.869
47 P7 15 -0.427
47 P7 16 2.014
47 P7 17 4.944
47 P7 18 6.409
47 P7 19 6.897
47 P7 20 5.432
47 P7 21 2.502
47 P7 22 0.549
47 P7 23 0.061
47 P7 24 2.502
47 P7 25 6.409
47 P7 26 10.315
47 P7 27 11.780
47 P7 28 9.338
47 P7 29 5.920
47 P7 30 2.991
47 P7 31 2.014
47 P7 32 2.014
47 P7 33 2.502
47 P7 34 2.014
47 P7 35 0.549
47 P7 36 -2.380
47 P7 37 -4.822
47 P7 38 -5.798
47 P7 39 -5.798
47 P7 40 -4.822
47 P7 41 -4.333
47 P7 42 -3.845
47 P7 43 -4.333
47 P7 44 -4.333
47 P7 45 -2.869
47 P7 46 -0.916
47 P7 47 1.526
47 P7 48 3.479
47 P7 49 2.502
47 P7 50 -0.427
47 P7 51 -3.845
47 P7 52 -5.798
47 P7 53 -4.822
47 P7 54 -1.892
47 P7 55 0.061
47 P7 56 0.549
47 P7 57 -1.892
47 P7 58 -4.822
47 P7 59 -7.263
47 P7 60 -8.240
47 P7 61 -9.216
47 P7 62 -10.193
47 P7 63 -12.146
47 P7 64 -13.611
47 P7 65 -13.611
47 P7 66 -12.634
47 P7 67 -11.658
47 P7 68 -10.681
47 P7 69 -10.681
47 P7 70 -10.193
47 P7 71 -8.728
47 P7 72 -5.798
47 P7 73 -2.869
47 P7 74 -0.916
47 P7 75 0.061
47 P7 76 -0.427
47 P7 77 -1.404
47 P7 78 -2.869
47 P7 79 -3.845
47 P7 80 -4.822
47 P7 81 -4.822
47 P7 82 -3.845
47 P7 83 -2.869
47 P7 84 -3.357
47 P7 85 -5.310
47 P7 86 -8.728
47 P7 87 -12.634
47 P7 88 -15.564
47 P7 89 -16.052
47 P7 90 -15.076
47 P7 91 -13.123
47 P7 92 -12.146
47 P7 93 -12.634
47 P7 94 -14.587
47 P7 95 -16.052
47 P7 96 -16.541
47 P7 97 -15.076
47 P7 98 -12.634
47 P7 99 -9.705
47 P7 100 -7.751
47 P7 101 -6.287
47 P7 102 -5.798
47 P7 103 -6.287
47 P7 104 -7.263
47 P7 105 -7.751
47 P7 106 -8.240
47 P7 107 -7.751
47 P7 108 -6.775
47 P7 109 -6.287
47 P7 110 -6.775
47 P7 111 -7.751
47 P7 112 -8.728
47 P7 113 -7.751
47 P7 114 -6.287
47 P7 115 -3.845
47 P7 116 -2.869
47 P7 117 -4.822
47 P7 118 -7.751
47 P7 119 -10.681
47 P7 120 -12.146
47 P7 121 -10.193
47 P7 122 -7.263
47 P7 123 -4.822
47 P7 124 -3.845
47 P7 125 -4.822
47 P7 126 -7.263
47 P7 127 -9.216
47 P7 128 -9.705
47 P7 129 -9.216
47 P7 130 -8.728
47 P7 131 -8.240
47 P7 132 -8.240
47 P7 133 -8.240
47 P7 134 -8.240
47 P7 135 -8.728
47 P7 136 -9.216
47 P7 137 -10.193
47 P7 138 -10.681
47 P7 139 -10.193
47 P7 140 -8.728
47 P7 141 -7.751
47 P7 142 -7.751
47 P7 143 -10.193
47 P7 144 -13.611
47 P7 145 -17.029
47 P7 146 -18.982
47 P7 147 -18.494
47 P7 148 -17.029
47 P7 149 -15.076
47 P7 150 -14.099
47 P7 151 -13.611
47 P7 152 -13.611
47 P7 153 -13.123
47 P7 154 -12.634
47 P7 155 -11.658
47 P7 156 -10.681
47 P7 157 -9.705
47 P7 158 -8.240
47 P7 159 -6.775
47 P7 160 -6.287
47 P7 161 -7.263
47 P7 162 -8.240
47 P7 163 -9.216
47 P7 164 -9.705
47 P7 165 -10.193
47 P7 166 -10.193
47 P7 167 -10.193
47 P7 168 -8.728
47 P7 169 -6.287
47 P7 170 -1.892
47 P7 171 1.526
47 P7 172 4.456
47 P7 173 4.944
47 P7 174 3.967
47 P7 175 2.991
47 P7 176 1.526
47 P7 177 0.549
47 P7 178 -0.916
47 P7 179 -3.357
47 P7 180 -4.822
47 P7 181 -5.310
47 P7 182 -4.333
47 P7 183 -2.869
47 P7 184 -2.869
47 P7 185 -3.845
47 P7 186 -4.822
47 P7 187 -3.845
47 P7 188 -1.404
47 P7 189 2.014
47 P7 190 3.479
47 P7 191 1.038
47 P7 192 -2.869
47 P7 193 -5.798
47 P7 194 -5.798
47 P7 195 -2.869
47 P7 196 1.038
47 P7 197 3.479
47 P7 198 3.479
47 P7 199 1.526
47 P7 200 -0.427
47 P7 201 -1.404
47 P7 202 -2.380
47 P7 203 -2.869
47 P7 204 -3.357
47 P7 205 -3.845
47 P7 206 -3.845
47 P7 207 -3.845
47 P7 208 -2.869
47 P7 209 -2.380
47 P7 210 -2.380
47 P7 211 -2.869
47 P7 212 -3.845
47 P7 213 -4.333
47 P7 214 -5.310
47 P7 215 -5.798
47 P7 216 -5.798
47 P7 217 -5.798
47 P7 218 -6.287
47 P7 219 -7.263
47 P7 220 -7.263
47 P7 221 -5.798
47 P7 222 -3.357
47 P7 223 -0.916
47 P7 224 0.549
47 P7 225 0.061
47 P7 226 -1.892
47 P7 227 -3.845
47 P7 228 -4.822
47 P7 229 -5.310
47 P7 230 -5.310
47 P7 231 -5.310
47 P7 232 -5.310
47 P7 233 -3.845
47 P7 234 -1.892
47 P7 235 0.549
47 P7 236 1.526
47 P7 237 0.549
47 P7 238 -2.380
47 P7 239 -4.822
47 P7 240 -5.798
47 P7 241 -3.845
47 P7 242 -0.916
47 P7 243 1.038
47 P7 244 1.526
47 P7 245 1.038
47 P7 246 0.061
47 P7 247 0.061
47 P7 248 0.061
47 P7 249 1.038
47 P7 250 1.526
47 P7 251 1.526
47 P7 252 0.549
47 P7 253 -1.404
47 P7 254 -4.333
47 P7 255 -7.751
# PO2 chan 27
47 PO2 0 -0.519
47 PO2 1 1.434
47 PO2 2 2.411
47 PO2 3 2.411
47 PO2 4 1.434
47 PO2 5 0.458
47 PO2 6 -0.031
47 PO2 7 1.434
47 PO2 8 3.387
47 PO2 9 5.341
47 PO2 10 6.317
47 PO2 11 6.317
47 PO2 12 4.364
47 PO2 13 1.923
47 PO2 14 0.458
47 PO2 15 0.946
47 PO2 16 1.923
47 PO2 17 3.387
47 PO2 18 3.387
47 PO2 19 2.411
47 PO2 20 0.458
47 PO2 21 -0.519
47 PO2 22 -0.031
47 PO2 23 1.923
47 PO2 24 4.364
47 PO2 25 5.829
47 PO2 26 5.341
47 PO2 27 3.876
47 PO2 28 2.899
47 PO2 29 2.411
47 PO2 30 2.899
47 PO2 31 3.876
47 PO2 32 4.364
47 PO2 33 3.876
47 PO2 34 3.387
47 PO2 35 2.411
47 PO2 36 1.434
47 PO2 37 0.946
47 PO2 38 0.946
47 PO2 39 1.434
47 PO2 40 1.923
47 PO2 41 3.387
47 PO2 42 4.364
47 PO2 43 5.341
47 PO2 44 6.317
47 PO2 45 6.805
47 PO2 46 6.317
47 PO2 47 5.341
47 PO2 48 3.876
47 PO2 49 2.411
47 PO2 50 0.946
47 PO2 51 -0.031
47 PO2 52 -0.519
47 PO2 53 -0.031
47 PO2 54 0.946
47 PO2 55 1.923
47 PO2 56 1.434
47 PO2 57 0.458
47 PO2 58 -1.007
47 PO2 59 -1.984
47 PO2 60 -2.472
47 PO2 61 -1.495
47 PO2 62 -1.495
47 PO2 63 -1.495
47 PO2 64 -1.495
47 PO2 65 -1.984
47 PO2 66 -1.495
47 PO2 67 -1.495
47 PO2 68 -1.007
47 PO2 69 -1.007
47 PO2 70 -0.519
47 PO2 71 0.458
47 PO2 72 1.923
47 PO2 73 3.876
47 PO2 74 4.852
47 PO2 75 4.852
47 PO2 76 3.876
47 PO2 77 2.411
47 PO2 78 1.923
47 PO2 79 1.923
47 PO2 80 2.411
47 PO2 81 2.899
47 PO2 82 3.387
47 PO2 83 2.411
47 PO2 84 1.434
47 PO2 85 -0.519
47 PO2 86 -2.960
47 PO2 87 -4.425
47 PO2 88 -5.402
47 PO2 89 -5.402
47 PO2 90 -4.425
47 PO2 91 -3.937
47 PO2 92 -3.937
47 PO2 93 -4.425
47 PO2 94 -4.425
47 PO2 95 -3.937
47 PO2 96 -2.472
47 PO2 97 -1.495
47 PO2 98 -1.007
47 PO2 99 -1.495
47 PO2 100 -1.495
47 PO2 101 -1.495
47 PO2 102 -1.007
47 PO2 103 -0.519
47 PO2 104 0.458
47 PO2 105 0.946
47 PO2 106 1.923
47 PO2 107 2.411
47 PO2 108 2.899
47 PO2 109 3.387
47 PO2 110 4.852
47 PO2 111 5.829
47 PO2 112 6.805
47 PO2 113 6.805
47 PO2 114 6.805
47 PO2 115 5.829
47 PO2 116 4.852
47 PO2 117 3.876
47 PO2 118 2.899
47 PO2 119 2.411
47 PO2 120 1.923
