# co2a0000417.rd
# 120 trials, 64 chans, 416 samples 368 post_stim samples
# 3.906000 msecs uV
# S1 obj , trial 116
# FP1 chan 0
116 FP1 0 -0.722
116 FP1 1 -1.699
116 FP1 2 -2.187
116 FP1 3 -2.187
116 FP1 4 -2.187
116 FP1 5 -2.187
116 FP1 6 -2.675
116 FP1 7 -3.164
116 FP1 8 -3.652
116 FP1 9 -4.140
116 FP1 10 -4.628
116 FP1 11 -6.093
116 FP1 12 -7.070
116 FP1 13 -7.558
116 FP1 14 -7.070
116 FP1 15 -5.605
116 FP1 16 -2.675
116 FP1 17 -0.722
116 FP1 18 1.231
116 FP1 19 1.231
116 FP1 20 0.254
116 FP1 21 -0.722
116 FP1 22 -0.722
116 FP1 23 -0.234
116 FP1 24 0.254
116 FP1 25 -0.234
116 FP1 26 -1.699
116 FP1 27 -3.164
116 FP1 28 -4.628
116 FP1 29 -5.117
116 FP1 30 -5.117
116 FP1 31 -5.605
116 FP1 32 -6.093
116 FP1 33 -6.582
116 FP1 34 -7.070
116 FP1 35 -8.535
116 FP1 36 -9.511
116 FP1 37 -10.000
116 FP1 38 -9.511
116 FP1 39 -8.046
116 FP1 40 -6.582
116 FP1 41 -4.628
116 FP1 42 -3.652
116 FP1 43 -3.164
116 FP1 44 -3.164
116 FP1 45 -3.164
116 FP1 46 -2.675
116 FP1 47 -1.699
116 FP1 48 -2.187
116 FP1 49 -2.675
116 FP1 50 -3.652
116 FP1 51 -3.652
116 FP1 52 -2.675
116 FP1 53 -1.211
116 FP1 54 -0.234
116 FP1 55 -1.211
116 FP1 56 -3.652
116 FP1 57 -6.582
116 FP1 58 -9.511
116 FP1 59 -11.953
116 FP1 60 -13.418
116 FP1 61 -13.418
116 FP1 62 -12.929
116 FP1 63 -11.464
116 FP1 64 -10.488
116 FP1 65 -10.000
116 FP1 66 -11.953
116 FP1 67 -14.394
116 FP1 68 -16.836
116 FP1 69 -17.812
116 FP1 70 -17.324
116 FP1 71 -16.347
116 FP1 72 -14.882
116 FP1 73 -13.418
116 FP1 74 -12.441
116 FP1 75 -10.976
116 FP1 76 -8.535
116 FP1 77 -6.582
116 FP1 78 -4.628
116 FP1 79 -4.140
116 FP1 80 -3.652
116 FP1 81 -3.652
116 FP1 82 -3.164
116 FP1 83 -2.675
116 FP1 84 -2.187
116 FP1 85 -2.675
116 FP1 86 -4.140
116 FP1 87 -6.582
116 FP1 88 -9.023
116 FP1 89 -10.488
116 FP1 90 -10.976
116 FP1 91 -10.976
116 FP1 92 -10.976
116 FP1 93 -11.464
116 FP1 94 -11.953
116 FP1 95 -11.464
116 FP1 96 -10.488
116 FP1 97 -7.558
116 FP1 98 -6.093
116 FP1 99 -6.093
116 FP1 100 -7.070
116 FP1 101 -8.535
116 FP1 102 -9.511
116 FP1 103 -10.000
116 FP1 104 -9.511
116 FP1 105 -9.511
116 FP1 106 -10.000
116 FP1 107 -9.511
116 FP1 108 -8.046
116 FP1 109 -6.093
116 FP1 110 -4.628
116 FP1 111 -4.140
116 FP1 112 -5.605
116 FP1 113 -7.558
116 FP1 114 -8.535
116 FP1 115 -8.046
116 FP1 116 -6.582
116 FP1 117 -6.093
116 FP1 118 -7.070
116 FP1 119 -9.511
116 FP1 120 -12.441
116 FP1 121 -13.906
116 FP1 122 -12.929
116 FP1 123 -10.976
116 FP1 124 -8.535
116 FP1 125 -7.070
116 FP1 126 -4.628
116 FP1 127 -2.675
116 FP1 128 -0.234
116 FP1 129 0.743
116 FP1 130 0.254
116 FP1 131 -1.211
116 FP1 132 -2.675
116 FP1 133 -3.164
116 FP1 134 -1.699
116 FP1 135 0.254
116 FP1 136 1.719
116 FP1 137 1.719
116 FP1 138 0.254
116 FP1 139 -1.211
116 FP1 140 -3.164
116 FP1 141 -4.628
116 FP1 142 -5.117
116 FP1 143 -6.093
116 FP1 144 -6.582
116 FP1 145 -7.070
116 FP1 146 -6.582
116 FP1 147 -5.605
116 FP1 148 -5.117
116 FP1 149 -5.117
116 FP1 150 -5.605
116 FP1 151 -6.093
116 FP1 152 -6.582
116 FP1 153 -7.070
116 FP1 154 -7.070
116 FP1 155 -7.070
116 FP1 156 -7.070
116 FP1 157 -7.558
116 FP1 158 -8.046
116 FP1 159 -8.535
116 FP1 160 -9.511
116 FP1 161 -10.000
116 FP1 162 -10.976
116 FP1 163 -11.953
116 FP1 164 -11.953
116 FP1 165 -11.953
116 FP1 166 -12.441
116 FP1 167 -12.929
116 FP1 168 -14.882
116 FP1 169 -17.324
116 FP1 170 -18.789
116 FP1 171 -18.789
116 FP1 172 -17.812
116 FP1 173 -16.347
116 FP1 174 -14.882
116 FP1 175 -13.906
116 FP1 176 -13.418
116 FP1 177 -14.394
116 FP1 178 -15.859
116 FP1 179 -16.836
116 FP1 180 -17.324
116 FP1 181 -16.836
116 FP1 182 -16.347
116 FP1 183 -16.347
116 FP1 184 -16.347
116 FP1 185 -16.836
116 FP1 186 -17.324
116 FP1 187 -16.347
116 FP1 188 -13.906
116 FP1 189 -11.953
116 FP1 190 -10.976
116 FP1 191 -11.953
116 FP1 192 -12.929
116 FP1 193 -13.906
116 FP1 194 -13.418
116 FP1 195 -12.441
116 FP1 196 -11.464
116 FP1 197 -10.488
116 FP1 198 -10.000
116 FP1 199 -10.000
116 FP1 200 -9.511
116 FP1 201 -9.511
116 FP1 202 -9.511
116 FP1 203 -9.511
116 FP1 204 -9.023
116 FP1 205 -8.046
116 FP1 206 -6.582
116 FP1 207 -4.140
116 FP1 208 -2.187
116 FP1 209 -1.211
116 FP1 210 -1.211
116 FP1 211 -2.675
116 FP1 212 -4.140
116 FP1 213 -5.605
116 FP1 214 -6.582
116 FP1 215 -7.558
116 FP1 216 -8.046
116 FP1 217 -8.535
116 FP1 218 -9.023
116 FP1 219 -9.023
116 FP1 220 -8.046
116 FP1 221 -6.582
116 FP1 222 -5.605
116 FP1 223 -5.605
116 FP1 224 -6.582
116 FP1 225 -8.046
116 FP1 226 -9.023
116 FP1 227 -9.023
116 FP1 228 -8.046
116 FP1 229 -6.582
116 FP1 230 -6.093
116 FP1 231 -7.558
116 FP1 232 -9.511
116 FP1 233 -10.976
116 FP1 234 -10.000
116 FP1 235 -5.605
116 FP1 236 -0.234
116 FP1 237 4.649
116 FP1 238 6.602
116 FP1 239 5.137
116 FP1 240 2.696
116 FP1 241 0.254
116 FP1 242 -0.722
116 FP1 243 -0.722
116 FP1 244 -1.211
116 FP1 245 -1.699
116 FP1 246 -2.675
116 FP1 247 -2.675
116 FP1 248 -2.187
116 FP1 249 -0.722
116 FP1 250 -0.234
116 FP1 251 0.254
116 FP1 252 -1.211
116 FP1 253 -2.675
116 FP1 254 -4.140
116 FP1 255 -5.605
# FP2 chan 1
116 FP2 0 -0.682
116 FP2 1 -1.658
116 FP2 2 -2.146
116 FP2 3 -2.146
116 FP2 4 -1.658
116 FP2 5 -1.658
116 FP2 6 -2.635
116 FP2 7 -4.100
116 FP2 8 -6.053
116 FP2 9 -7.517
116 FP2 10 -7.029
116 FP2 11 -7.029
116 FP2 12 -6.541
116 FP2 13 -7.029
116 FP2 14 -7.517
116 FP2 15 -6.541
116 FP2 16 -4.588
116 FP2 17 -2.146
116 FP2 18 0.295
116 FP2 19 1.760
116 FP2 20 1.272
116 FP2 21 0.295
116 FP2 22 -0.682
116 FP2 23 -0.682
116 FP2 24 -0.193
116 FP2 25 0.295
116 FP2 26 -1.170
116 FP2 27 -2.635
116 FP2 28 -4.588
116 FP2 29 -5.564
116 FP2 30 -5.564
116 FP2 31 -6.053
116 FP2 32 -6.541
116 FP2 33 -7.517
116 FP2 34 -8.006
116 FP2 35 -7.517
116 FP2 36 -7.517
116 FP2 37 -7.517
116 FP2 38 -8.494
116 FP2 39 -9.471
116 FP2 40 -9.471
116 FP2 41 -8.494
116 FP2 42 -7.029
116 FP2 43 -5.564
116 FP2 44 -5.076
116 FP2 45 -4.588
116 FP2 46 -4.588
116 FP2 47 -4.588
116 FP2 48 -4.588
116 FP2 49 -4.588
116 FP2 50 -5.564
116 FP2 51 -5.076
116 FP2 52 -4.588
116 FP2 53 -3.123
116 FP2 54 -1.658
116 FP2 55 -1.170
116 FP2 56 -2.635
116 FP2 57 -6.053
116 FP2 58 -10.447
116 FP2 59 -14.353
116 FP2 60 -15.818
116 FP2 61 -14.353
116 FP2 62 -11.424
116 FP2 63 -8.006
116 FP2 64 -6.053
116 FP2 65 -6.541
116 FP2 66 -9.959
116 FP2 67 -14.353
116 FP2 68 -17.771
116 FP2 69 -19.725
116 FP2 70 -19.236
116 FP2 71 -16.795
116 FP2 72 -13.377
116 FP2 73 -9.959
116 FP2 74 -7.517
116 FP2 75 -6.541
116 FP2 76 -7.029
116 FP2 77 -8.006
116 FP2 78 -7.517
116 FP2 79 -6.053
116 FP2 80 -3.611
116 FP2 81 -1.658
116 FP2 82 -1.658
116 FP2 83 -3.123
116 FP2 84 -5.564
116 FP2 85 -8.006
116 FP2 86 -9.471
116 FP2 87 -10.447
116 FP2 88 -10.935
116 FP2 89 -11.912
116 FP2 90 -11.912
116 FP2 91 -12.400
116 FP2 92 -13.377
116 FP2 93 -12.889
116 FP2 94 -13.865
116 FP2 95 -14.353
116 FP2 96 -14.353
116 FP2 97 -13.377
116 FP2 98 -12.400
116 FP2 99 -11.912
116 FP2 100 -11.912
116 FP2 101 -12.400
116 FP2 102 -12.889
116 FP2 103 -13.377
116 FP2 104 -13.377
116 FP2 105 -12.889
116 FP2 106 -12.400
116 FP2 107 -11.424
116 FP2 108 -9.959
116 FP2 109 -8.006
116 FP2 110 -6.541
116 FP2 111 -7.029
116 FP2 112 -8.982
116 FP2 113 -11.424
116 FP2 114 -13.377
116 FP2 115 -12.889
116 FP2 116 -10.935
116 FP2 117 -8.982
116 FP2 118 -8.982
116 FP2 119 -11.424
116 FP2 120 -15.330
116 FP2 121 -18.260
116 FP2 122 -18.260
116 FP2 123 -16.307
116 FP2 124 -11.912
116 FP2 125 -8.494
116 FP2 126 -5.564
116 FP2 127 -4.100
116 FP2 128 -4.100
116 FP2 129 -5.076
116 FP2 130 -6.541
116 FP2 131 -8.006
116 FP2 132 -8.982
116 FP2 133 -8.494
116 FP2 134 -6.053
116 FP2 135 -4.100
116 FP2 136 -2.146
116 FP2 137 -2.635
116 FP2 138 -4.100
116 FP2 139 -6.053
116 FP2 140 -7.517
116 FP2 141 -8.494
116 FP2 142 -8.982
116 FP2 143 -9.959
116 FP2 144 -10.935
116 FP2 145 -11.912
116 FP2 146 -11.912
116 FP2 147 -10.447
116 FP2 148 -9.471
116 FP2 149 -9.959
116 FP2 150 -11.424
116 FP2 151 -13.377
116 FP2 152 -14.842
116 FP2 153 -13.865
116 FP2 154 -12.400
116 FP2 155 -10.447
116 FP2 156 -9.471
116 FP2 157 -9.959
116 FP2 158 -11.424
116 FP2 159 -13.377
116 FP2 160 -14.842
116 FP2 161 -15.818
116 FP2 162 -16.795
116 FP2 163 -16.795
116 FP2 164 -16.307
116 FP2 165 -15.818
116 FP2 166 -15.818
116 FP2 167 -17.283
116 FP2 168 -19.725
116 FP2 169 -22.166
116 FP2 170 -23.142
116 FP2 171 -22.166
116 FP2 172 -20.213
116 FP2 173 -19.236
116 FP2 174 -19.236
116 FP2 175 -20.213
116 FP2 176 -22.166
116 FP2 177 -23.142
116 FP2 178 -22.654
116 FP2 179 -21.189
116 FP2 180 -19.725
116 FP2 181 -18.260
116 FP2 182 -18.260
116 FP2 183 -19.236
116 FP2 184 -21.189
116 FP2 185 -23.142
116 FP2 186 -24.607
116 FP2 187 -24.607
116 FP2 188 -24.119
116 FP2 189 -22.654
116 FP2 190 -21.189
116 FP2 191 -20.701
116 FP2 192 -20.213
116 FP2 193 -20.213
116 FP2 194 -20.701
116 FP2 195 -21.189
116 FP2 196 -21.678
116 FP2 197 -21.189
116 FP2 198 -20.213
116 FP2 199 -19.725
116 FP2 200 -19.725
116 FP2 201 -20.701
116 FP2 202 -22.166
116 FP2 203 -22.166
116 FP2 204 -20.701
116 FP2 205 -17.283
116 FP2 206 -14.353
116 FP2 207 -12.889
116 FP2 208 -12.889
116 FP2 209 -13.865
116 FP2 210 -15.330
116 FP2 211 -14.842
116 FP2 212 -14.353
116 FP2 213 -14.353
116 FP2 214 -15.330
116 FP2 215 -16.795
116 FP2 216 -18.260
116 FP2 217 -19.236
116 FP2 218 -19.725
116 FP2 219 -19.725
116 FP2 220 -19.236
116 FP2 221 -17.771
116 FP2 222 -16.307
116 FP2 223 -14.842
116 FP2 224 -15.330
116 FP2 225 -16.307
116 FP2 226 -17.771
116 FP2 227 -18.260
116 FP2 228 -16.307
116 FP2 229 -14.353
116 FP2 230 -12.889
116 FP2 231 -13.865
116 FP2 232 -16.307
116 FP2 233 -18.748
116 FP2 234 -18.260
116 FP2 235 -15.330
116 FP2 236 -9.471
116 FP2 237 -4.588
116 FP2 238 -2.635
116 FP2 239 -3.611
116 FP2 240 -7.029
116 FP2 241 -10.447
116 FP2 242 -12.889
116 FP2 243 -13.377
116 FP2 244 -13.865
116 FP2 245 -14.353
116 FP2 246 -15.330
116 FP2 247 -15.818
116 FP2 248 -15.330
116 FP2 249 -14.353
116 FP2 250 -13.377
116 FP2 251 -12.400
116 FP2 252 -12.889
116 FP2 253 -13.865
116 FP2 254 -15.818
116 FP2 255 -17.283
# F7 chan 2
116 F7 0 1.607
116 F7 1 0.631
116 F7 2 -3.276
116 F7 3 -7.670
116 F7 4 -9.135
116 F7 5 -8.158
116 F7 6 -6.205
116 F7 7 -7.182
116 F7 8 -10.600
116 F7 9 -13.529
116 F7 10 -14.018
116 F7 11 -10.600
116 F7 12 -5.229
116 F7 13 -1.322
116 F7 14 -0.346
116 F7 15 -0.834
116 F7 16 -1.322
116 F7 17 -0.346
116 F7 18 0.631
116 F7 19 0.142
116 F7 20 -1.322
116 F7 21 -3.276
116 F7 22 -3.276
116 F7 23 -1.811
116 F7 24 -0.346
116 F7 25 0.142
116 F7 26 -1.322
116 F7 27 -3.276
116 F7 28 -4.740
116 F7 29 -4.740
116 F7 30 -4.252
116 F7 31 -4.740
116 F7 32 -7.670
116 F7 33 -10.600
116 F7 34 -13.041
116 F7 35 -12.065
116 F7 36 -7.670
116 F7 37 -1.322
116 F7 38 3.072
116 F7 39 3.072
116 F7 40 -1.322
116 F7 41 -8.158
116 F7 42 -12.553
116 F7 43 -12.553
116 F7 44 -7.670
116 F7 45 -0.834
116 F7 46 4.049
116 F7 47 4.537
116 F7 48 0.631
116 F7 49 -4.740
116 F7 50 -8.647
116 F7 51 -11.088
116 F7 52 -11.088
116 F7 53 -9.135
116 F7 54 -5.229
116 F7 55 0.142
116 F7 56 4.537
116 F7 57 6.002
116 F7 58 2.584
116 F7 59 -4.252
116 F7 60 -11.576
116 F7 61 -14.994
116 F7 62 -13.041
116 F7 63 -8.647
116 F7 64 -4.740
116 F7 65 -5.229
116 F7 66 -8.647
116 F7 67 -13.041
116 F7 68 -14.994
116 F7 69 -14.506
116 F7 70 -14.506
116 F7 71 -15.483
116 F7 72 -19.389
116 F7 73 -21.830
116 F7 74 -20.365
116 F7 75 -13.529
116 F7 76 -3.764
116 F7 77 4.537
116 F7 78 8.931
116 F7 79 8.443
116 F7 80 5.514
116 F7 81 3.072
116 F7 82 1.607
116 F7 83 1.607
116 F7 84 0.631
116 F7 85 -0.834
116 F7 86 -3.276
116 F7 87 -4.740
116 F7 88 -5.229
116 F7 89 -4.740
116 F7 90 -3.764
116 F7 91 -2.787
116 F7 92 -3.276
116 F7 93 -3.764
116 F7 94 -3.276
116 F7 95 -0.346
116 F7 96 5.025
116 F7 97 10.396
116 F7 98 10.885
116 F7 99 5.514
116 F7 100 -3.764
116 F7 101 -12.065
116 F7 102 -14.506
116 F7 103 -11.088
116 F7 104 -4.740
116 F7 105 0.631
116 F7 106 1.607
116 F7 107 -0.834
116 F7 108 -3.764
116 F7 109 -4.740
116 F7 110 -3.276
116 F7 111 0.142
116 F7 112 3.072
116 F7 113 5.025
116 F7 114 5.514
116 F7 115 4.537
116 F7 116 1.119
116 F7 117 -3.276
116 F7 118 -6.205
116 F7 119 -6.694
116 F7 120 -2.787
116 F7 121 2.096
116 F7 122 4.049
116 F7 123 1.607
116 F7 124 -3.276
116 F7 125 -6.694
116 F7 126 -4.252
116 F7 127 2.096
116 F7 128 7.467
116 F7 129 7.955
116 F7 130 3.560
116 F7 131 -2.299
116 F7 132 -4.740
116 F7 133 -1.811
116 F7 134 4.537
116 F7 135 9.420
116 F7 136 9.908
116 F7 137 6.978
116 F7 138 2.096
116 F7 139 -0.834
116 F7 140 -1.811
116 F7 141 -0.346
116 F7 142 2.096
116 F7 143 4.049
116 F7 144 3.560
116 F7 145 1.607
116 F7 146 0.142
116 F7 147 -0.346
116 F7 148 0.631
116 F7 149 0.631
116 F7 150 -1.322
116 F7 151 -4.252
116 F7 152 -5.717
116 F7 153 -3.276
116 F7 154 2.096
116 F7 155 7.955
116 F7 156 9.420
116 F7 157 5.514
116 F7 158 -0.834
116 F7 159 -4.740
116 F7 160 -4.740
116 F7 161 -1.811
116 F7 162 -0.346
116 F7 163 -1.811
116 F7 164 -6.694
116 F7 165 -10.111
116 F7 166 -11.088
116 F7 167 -9.623
116 F7 168 -7.670
116 F7 169 -8.158
116 F7 170 -11.088
116 F7 171 -14.018
116 F7 172 -14.018
116 F7 173 -9.135
116 F7 174 -1.811
116 F7 175 3.072
116 F7 176 3.072
116 F7 177 -3.276
116 F7 178 -11.576
116 F7 179 -16.459
116 F7 180 -14.994
116 F7 181 -9.623
116 F7 182 -4.740
116 F7 183 -4.740
116 F7 184 -10.111
116 F7 185 -16.459
116 F7 186 -19.389
116 F7 187 -16.459
116 F7 188 -10.600
116 F7 189 -5.229
116 F7 190 -3.764
116 F7 191 -6.694
116 F7 192 -11.576
116 F7 193 -14.994
116 F7 194 -14.994
116 F7 195 -11.576
116 F7 196 -7.182
116 F7 197 -3.276
116 F7 198 -1.322
116 F7 199 -0.834
116 F7 200 -1.811
116 F7 201 -3.764
116 F7 202 -6.205
116 F7 203 -8.158
116 F7 204 -8.158
116 F7 205 -6.694
116 F7 206 -3.764
116 F7 207 -0.346
116 F7 208 1.607
116 F7 209 1.607
116 F7 210 0.631
116 F7 211 -1.322
116 F7 212 -2.299
116 F7 213 -3.276
116 F7 214 -5.229
116 F7 215 -8.647
116 F7 216 -13.041
116 F7 217 -15.971
116 F7 218 -15.483
116 F7 219 -11.576
116 F7 220 -5.229
116 F7 221 0.631
116 F7 222 2.584
116 F7 223 0.631
116 F7 224 -3.276
116 F7 225 -7.670
116 F7 226 -10.111
116 F7 227 -11.576
116 F7 228 -12.065
116 F7 229 -11.576
116 F7 230 -10.600
116 F7 231 -7.670
116 F7 232 -4.740
116 F7 233 -2.299
116 F7 234 -2.299
116 F7 235 -3.764
116 F7 236 -5.229
116 F7 237 -4.740
116 F7 238 -1.811
116 F7 239 1.119
116 F7 240 1.607
116 F7 241 -0.834
116 F7 242 -5.229
116 F7 243 -7.182
116 F7 244 -5.229
116 F7 245 0.142
116 F7 246 5.025
116 F7 247 6.978
116 F7 248 4.537
116 F7 249 -1.322
116 F7 250 -6.694
116 F7 251 -9.135
116 F7 252 -7.182
116 F7 253 -3.276
116 F7 254 0.142
116 F7 255 2.096
# F8 chan 3
116 F8 0 -2.686
116 F8 1 -4.150
116 F8 2 -4.639
116 F8 3 -2.686
116 F8 4 0.732
116 F8 5 2.686
116 F8 6 1.221
116 F8 7 -1.709
116 F8 8 -4.150
116 F8 9 -4.639
116 F8 10 -3.174
116 F8 11 -4.150
116 F8 12 -8.545
116 F8 13 -14.404
116 F8 14 -17.334
116 F8 15 -14.893
116 F8 16 -7.080
116 F8 17 1.709
116 F8 18 5.615
116 F8 19 2.197
116 F8 20 -5.615
116 F8 21 -13.428
116 F8 22 -14.893
116 F8 23 -9.521
116 F8 24 -1.221
116 F8 25 4.150
116 F8 26 2.686
116 F8 27 -3.174
116 F8 28 -9.033
116 F8 29 -11.475
116 F8 30 -10.010
116 F8 31 -6.592
116 F8 32 -4.150
116 F8 33 -3.174
116 F8 34 -3.662
116 F8 35 -4.150
116 F8 36 -5.127
116 F8 37 -6.104
116 F8 38 -7.568
116 F8 39 -9.033
116 F8 40 -9.521
116 F8 41 -9.521
116 F8 42 -9.033
116 F8 43 -8.057
116 F8 44 -5.615
116 F8 45 -2.686
116 F8 46 -0.732
116 F8 47 -2.686
116 F8 48 -7.080
116 F8 49 -10.986
116 F8 50 -10.498
116 F8 51 -5.127
116 F8 52 3.174
116 F8 53 9.521
116 F8 54 10.010
116 F8 55 6.104
116 F8 56 0.732
116 F8 57 -3.174
116 F8 58 -6.104
116 F8 59 -9.521
116 F8 60 -14.404
116 F8 61 -17.822
116 F8 62 -16.357
116 F8 63 -9.033
116 F8 64 0.244
116 F8 65 5.615
116 F8 66 2.197
116 F8 67 -7.568
116 F8 68 -17.822
116 F8 69 -20.752
116 F8 70 -15.869
116 F8 71 -6.592
116 F8 72 0.732
116 F8 73 1.709
116 F8 74 -1.709
116 F8 75 -5.615
116 F8 76 -5.615
116 F8 77 -1.709
116 F8 78 2.686
116 F8 79 4.150
116 F8 80 2.197
116 F8 81 -0.244
116 F8 82 -0.244
116 F8 83 4.639
116 F8 84 10.498
116 F8 85 12.939
116 F8 86 8.545
116 F8 87 -1.221
116 F8 88 -10.010
116 F8 89 -13.916
116 F8 90 -10.986
116 F8 91 -6.104
116 F8 92 -3.174
116 F8 93 -5.127
116 F8 94 -8.545
116 F8 95 -9.033
116 F8 96 -5.615
116 F8 97 -0.732
116 F8 98 1.221
116 F8 99 -2.197
116 F8 100 -8.057
116 F8 101 -11.475
116 F8 102 -10.498
116 F8 103 -7.080
116 F8 104 -5.615
116 F8 105 -8.057
116 F8 106 -10.986
116 F8 107 -9.521
116 F8 108 -1.221
116 F8 109 9.521
116 F8 110 15.381
116 F8 111 10.498
116 F8 112 -1.221
116 F8 113 -10.986
116 F8 114 -11.963
116 F8 115 -3.662
116 F8 116 7.568
116 F8 117 12.451
116 F8 118 8.545
116 F8 119 -1.709
116 F8 120 -11.963
116 F8 121 -16.357
116 F8 122 -15.381
116 F8 123 -10.986
116 F8 124 -5.127
116 F8 125 1.709
116 F8 126 8.057
116 F8 127 12.451
116 F8 128 12.451
116 F8 129 7.568
116 F8 130 0.732
116 F8 131 -3.174
116 F8 132 -3.174
116 F8 133 -0.244
116 F8 134 2.686
116 F8 135 2.686
116 F8 136 1.709
116 F8 137 0.732
116 F8 138 2.197
116 F8 139 5.615
116 F8 140 7.568
116 F8 141 6.104
116 F8 142 1.709
116 F8 143 -4.150
116 F8 144 -6.592
116 F8 145 -5.127
116 F8 146 -0.244
116 F8 147 5.127
116 F8 148 6.592
116 F8 149 3.662
116 F8 150 -1.709
116 F8 151 -6.592
116 F8 152 -8.545
116 F8 153 -7.568
116 F8 154 -5.615
116 F8 155 -4.150
116 F8 156 -3.174
116 F8 157 -1.709
116 F8 158 2.686
116 F8 159 7.568
116 F8 160 10.498
116 F8 161 9.033
116 F8 162 3.174
116 F8 163 -4.150
116 F8 164 -9.521
116 F8 165 -10.498
116 F8 166 -8.545
116 F8 167 -6.592
116 F8 168 -7.080
116 F8 169 -9.033
116 F8 170 -10.498
116 F8 171 -10.498
116 F8 172 -9.033
116 F8 173 -7.568
116 F8 174 -6.592
116 F8 175 -5.127
116 F8 176 -3.662
116 F8 177 -2.686
116 F8 178 -3.174
116 F8 179 -4.150
116 F8 180 -5.127
116 F8 181 -5.615
116 F8 182 -5.615
116 F8 183 -7.080
116 F8 184 -10.986
116 F8 185 -15.381
116 F8 186 -18.311
116 F8 187 -17.822
116 F8 188 -14.893
116 F8 189 -10.986
116 F8 190 -7.568
116 F8 191 -5.127
116 F8 192 -3.174
116 F8 193 -2.197
116 F8 194 -3.174
116 F8 195 -5.615
116 F8 196 -9.033
116 F8 197 -11.963
116 F8 198 -12.451
116 F8 199 -10.986
116 F8 200 -9.521
116 F8 201 -10.010
116 F8 202 -10.986
116 F8 203 -11.475
116 F8 204 -9.033
116 F8 205 -4.150
116 F8 206 0.244
116 F8 207 2.197
116 F8 208 1.221
116 F8 209 0.244
116 F8 210 1.709
116 F8 211 5.615
116 F8 212 7.568
116 F8 213 5.615
116 F8 214 -1.221
116 F8 215 -9.521
116 F8 216 -13.916
116 F8 217 -11.963
116 F8 218 -5.615
116 F8 219 -0.244
116 F8 220 0.244
116 F8 221 -4.150
116 F8 222 -10.010
116 F8 223 -11.963
116 F8 224 -9.521
116 F8 225 -3.662
116 F8 226 1.221
116 F8 227 1.709
116 F8 228 -0.732
116 F8 229 -4.639
116 F8 230 -6.592
116 F8 231 -6.104
116 F8 232 -3.662
116 F8 233 -0.244
116 F8 234 1.221
116 F8 235 1.221
116 F8 236 -0.244
116 F8 237 -1.221
116 F8 238 -0.732
116 F8 239 1.709
116 F8 240 3.662
116 F8 241 2.197
116 F8 242 -2.197
116 F8 243 -8.545
116 F8 244 -11.963
116 F8 245 -12.451
116 F8 246 -10.498
116 F8 247 -8.545
116 F8 248 -7.568
116 F8 249 -7.568
116 F8 250 -5.127
116 F8 251 -1.221
116 F8 252 2.686
116 F8 253 3.662
116 F8 254 -0.732
116 F8 255 -7.080
# AF1 chan 4
116 AF1 0 -0.468
116 AF1 1 -0.468
116 AF1 2 -0.468
116 AF1 3 0.020
116 AF1 4 0.509
116 AF1 5 0.997
116 AF1 6 0.509
116 AF1 7 0.997
116 AF1 8 0.997
116 AF1 9 0.997
116 AF1 10 0.020
116 AF1 11 -0.956
116 AF1 12 -2.421
116 AF1 13 -3.886
116 AF1 14 -3.886
116 AF1 15 -2.421
116 AF1 16 -0.956
116 AF1 17 0.997
116 AF1 18 1.973
116 AF1 19 1.973
116 AF1 20 1.973
116 AF1 21 1.485
116 AF1 22 1.973
116 AF1 23 1.973
116 AF1 24 1.973
116 AF1 25 0.997
116 AF1 26 0.020
116 AF1 27 -0.956
116 AF1 28 -1.933
116 AF1 29 -1.933
116 AF1 30 -1.444
116 AF1 31 -0.956
116 AF1 32 -0.956
116 AF1 33 -1.444
116 AF1 34 -2.421
116 AF1 35 -3.398
116 AF1 36 -4.374
116 AF1 37 -4.862
116 AF1 38 -4.862
116 AF1 39 -4.374
116 AF1 40 -2.909
116 AF1 41 -1.444
116 AF1 42 0.020
116 AF1 43 0.509
116 AF1 44 0.509
116 AF1 45 0.509
116 AF1 46 0.509
116 AF1 47 0.509
116 AF1 48 0.020
116 AF1 49 -0.468
116 AF1 50 -0.956
116 AF1 51 -0.956
116 AF1 52 0.020
116 AF1 53 0.997
116 AF1 54 1.485
116 AF1 55 1.485
116 AF1 56 -0.468
116 AF1 57 -3.886
116 AF1 58 -6.327
116 AF1 59 -7.792
116 AF1 60 -7.792
116 AF1 61 -7.304
116 AF1 62 -6.816
116 AF1 63 -7.304
116 AF1 64 -7.304
116 AF1 65 -7.304
116 AF1 66 -7.792
116 AF1 67 -7.304
116 AF1 68 -7.792
116 AF1 69 -8.280
116 AF1 70 -8.769
116 AF1 71 -9.745
116 AF1 72 -9.257
116 AF1 73 -7.304
116 AF1 74 -5.839
116 AF1 75 -3.886
116 AF1 76 -2.421
116 AF1 77 -1.933
116 AF1 78 -1.444
116 AF1 79 -0.468
116 AF1 80 0.509
116 AF1 81 0.997
116 AF1 82 1.485
116 AF1 83 1.485
116 AF1 84 0.997
116 AF1 85 0.509
116 AF1 86 0.020
116 AF1 87 -0.468
116 AF1 88 -1.444
116 AF1 89 -2.421
116 AF1 90 -2.909
116 AF1 91 -3.398
116 AF1 92 -2.909
116 AF1 93 -2.909
116 AF1 94 -3.398
116 AF1 95 -3.886
116 AF1 96 -3.886
116 AF1 97 -2.909
116 AF1 98 -1.444
116 AF1 99 0.020
116 AF1 100 -0.468
116 AF1 101 -1.444
116 AF1 102 -3.886
116 AF1 103 -4.862
116 AF1 104 -5.351
116 AF1 105 -3.886
116 AF1 106 -2.421
116 AF1 107 -1.933
116 AF1 108 -1.444
116 AF1 109 -1.444
116 AF1 110 -1.933
116 AF1 111 -1.933
116 AF1 112 -2.421
116 AF1 113 -2.909
116 AF1 114 -2.909
116 AF1 115 -2.421
116 AF1 116 -1.933
116 AF1 117 -1.444
116 AF1 118 -1.933
116 AF1 119 -3.886
116 AF1 120 -5.839
116 AF1 121 -6.327
116 AF1 122 -5.839
116 AF1 123 -4.374
116 AF1 124 -2.421
116 AF1 125 -0.468
116 AF1 126 1.485
116 AF1 127 2.950
116 AF1 128 4.415
116 AF1 129 4.903
116 AF1 130 4.903
116 AF1 131 3.927
116 AF1 132 3.438
116 AF1 133 2.950
116 AF1 134 2.950
116 AF1 135 2.462
116 AF1 136 1.973
116 AF1 137 1.485
116 AF1 138 1.485
116 AF1 139 1.485
116 AF1 140 0.020
116 AF1 141 -2.421
116 AF1 142 -4.862
116 AF1 143 -5.839
116 AF1 144 -5.839
116 AF1 145 -4.374
116 AF1 146 -2.421
116 AF1 147 -1.933
116 AF1 148 -1.933
116 AF1 149 -2.421
116 AF1 150 -3.398
116 AF1 151 -2.909
116 AF1 152 -3.398
116 AF1 153 -3.886
116 AF1 154 -4.862
116 AF1 155 -5.351
116 AF1 156 -4.862
116 AF1 157 -3.886
116 AF1 158 -2.909
116 AF1 159 -2.421
116 AF1 160 -3.398
116 AF1 161 -4.862
116 AF1 162 -5.839
116 AF1 163 -6.816
116 AF1 164 -6.327
116 AF1 165 -6.327
116 AF1 166 -6.816
116 AF1 167 -8.280
116 AF1 168 -10.722
116 AF1 169 -12.675
116 AF1 170 -13.652
116 AF1 171 -13.652
116 AF1 172 -12.187
116 AF1 173 -11.698
116 AF1 174 -11.210
116 AF1 175 -11.698
116 AF1 176 -12.187
116 AF1 177 -12.187
116 AF1 178 -11.698
116 AF1 179 -11.698
116 AF1 180 -11.698
116 AF1 181 -12.187
116 AF1 182 -12.675
116 AF1 183 -13.163
116 AF1 184 -13.163
116 AF1 185 -13.163
116 AF1 186 -13.163
116 AF1 187 -13.163
116 AF1 188 -12.675
116 AF1 189 -11.698
116 AF1 190 -11.698
116 AF1 191 -12.187
116 AF1 192 -13.163
116 AF1 193 -13.652
116 AF1 194 -13.163
116 AF1 195 -12.675
116 AF1 196 -12.187
116 AF1 197 -11.698
116 AF1 198 -11.698
116 AF1 199 -11.210
116 AF1 200 -10.234
116 AF1 201 -9.745
116 AF1 202 -9.257
116 AF1 203 -9.745
116 AF1 204 -10.234
116 AF1 205 -9.745
116 AF1 206 -9.257
116 AF1 207 -8.280
116 AF1 208 -7.304
116 AF1 209 -7.304
116 AF1 210 -7.304
116 AF1 211 -7.792
116 AF1 212 -8.280
116 AF1 213 -8.280
116 AF1 214 -9.257
116 AF1 215 -9.745
116 AF1 216 -10.722
116 AF1 217 -11.210
116 AF1 218 -11.210
116 AF1 219 -11.210
116 AF1 220 -10.722
116 AF1 221 -10.722
116 AF1 222 -10.234
116 AF1 223 -10.234
116 AF1 224 -10.722
116 AF1 225 -11.698
116 AF1 226 -12.675
116 AF1 227 -13.163
116 AF1 228 -14.140
116 AF1 229 -13.652
116 AF1 230 -13.652
116 AF1 231 -13.652
116 AF1 232 -14.140
116 AF1 233 -14.628
116 AF1 234 -14.628
116 AF1 235 -12.675
116 AF1 236 -9.257
116 AF1 237 -6.327
116 AF1 238 -4.374
116 AF1 239 -4.862
116 AF1 240 -5.839
116 AF1 241 -7.304
116 AF1 242 -8.280
116 AF1 243 -8.280
116 AF1 244 -8.769
116 AF1 245 -9.257
116 AF1 246 -10.234
116 AF1 247 -10.234
116 AF1 248 -9.257
116 AF1 249 -8.280
116 AF1 250 -7.792
116 AF1 251 -7.792
116 AF1 252 -8.769
116 AF1 253 -9.257
116 AF1 254 -9.745
116 AF1 255 -10.234
# AF2 chan 5
116 AF2 0 -0.824
116 AF2 1 -1.312
116 AF2 2 -0.824
116 AF2 3 -0.336
116 AF2 4 0.641
116 AF2 5 0.641
116 AF2 6 -0.824
116 AF2 7 -1.801
116 AF2 8 -2.777
116 AF2 9 -3.265
116 AF2 10 -3.265
116 AF2 11 -3.265
116 AF2 12 -3.265
116 AF2 13 -3.265
116 AF2 14 -2.777
116 AF2 15 -2.777
116 AF2 16 -2.289
116 AF2 17 -2.289
116 AF2 18 -1.312
116 AF2 19 0.153
116 AF2 20 1.129
116 AF2 21 1.617
116 AF2 22 1.617
116 AF2 23 0.641
116 AF2 24 -0.336
116 AF2 25 -1.312
116 AF2 26 -1.801
116 AF2 27 -2.289
116 AF2 28 -2.777
116 AF2 29 -2.777
116 AF2 30 -3.265
116 AF2 31 -4.242
116 AF2 32 -5.219
116 AF2 33 -5.707
116 AF2 34 -6.195
116 AF2 35 -5.707
116 AF2 36 -5.707
116 AF2 37 -5.707
116 AF2 38 -5.707
116 AF2 39 -5.707
116 AF2 40 -5.219
116 AF2 41 -3.754
116 AF2 42 -2.289
116 AF2 43 -1.801
116 AF2 44 -1.801
116 AF2 45 -1.801
116 AF2 46 -2.289
116 AF2 47 -1.312
116 AF2 48 -1.312
116 AF2 49 -1.312
116 AF2 50 -1.801
116 AF2 51 -2.777
116 AF2 52 -3.265
116 AF2 53 -2.289
116 AF2 54 -1.801
116 AF2 55 -1.801
116 AF2 56 -3.265
116 AF2 57 -6.683
116 AF2 58 -10.101
116 AF2 59 -12.543
116 AF2 60 -13.031
116 AF2 61 -11.566
116 AF2 62 -10.101
116 AF2 63 -9.125
116 AF2 64 -9.125
116 AF2 65 -9.613
116 AF2 66 -10.101
116 AF2 67 -11.078
116 AF2 68 -12.054
116 AF2 69 -13.519
116 AF2 70 -14.496
116 AF2 71 -14.008
116 AF2 72 -12.543
116 AF2 73 -9.613
116 AF2 74 -6.683
116 AF2 75 -5.219
116 AF2 76 -5.707
116 AF2 77 -6.683
116 AF2 78 -6.683
116 AF2 79 -5.707
116 AF2 80 -3.265
116 AF2 81 -1.801
116 AF2 82 -1.312
116 AF2 83 -2.777
116 AF2 84 -5.219
116 AF2 85 -6.683
116 AF2 86 -7.172
116 AF2 87 -7.172
116 AF2 88 -7.172
116 AF2 89 -7.172
116 AF2 90 -8.148
116 AF2 91 -9.125
116 AF2 92 -9.613
116 AF2 93 -9.613
116 AF2 94 -10.101
116 AF2 95 -10.590
116 AF2 96 -10.590
116 AF2 97 -10.101
116 AF2 98 -9.125
116 AF2 99 -8.148
116 AF2 100 -7.660
116 AF2 101 -7.660
116 AF2 102 -9.125
116 AF2 103 -9.613
116 AF2 104 -10.101
116 AF2 105 -9.125
116 AF2 106 -8.636
116 AF2 107 -9.125
116 AF2 108 -8.636
116 AF2 109 -8.636
116 AF2 110 -7.660
116 AF2 111 -7.172
116 AF2 112 -6.683
116 AF2 113 -7.172
116 AF2 114 -7.660
116 AF2 115 -8.148
116 AF2 116 -7.660
116 AF2 117 -7.172
116 AF2 118 -7.660
116 AF2 119 -9.125
116 AF2 120 -11.566
116 AF2 121 -13.519
116 AF2 122 -12.543
116 AF2 123 -10.101
116 AF2 124 -7.172
116 AF2 125 -4.730
116 AF2 126 -4.242
116 AF2 127 -4.242
116 AF2 128 -3.754
116 AF2 129 -3.754
116 AF2 130 -3.265
116 AF2 131 -3.754
116 AF2 132 -4.242
116 AF2 133 -4.730
116 AF2 134 -4.242
116 AF2 135 -3.265
116 AF2 136 -2.289
116 AF2 137 -2.289
116 AF2 138 -3.754
116 AF2 139 -5.707
116 AF2 140 -7.660
116 AF2 141 -8.636
116 AF2 142 -9.125
116 AF2 143 -9.613
116 AF2 144 -9.613
116 AF2 145 -9.613
116 AF2 146 -9.125
116 AF2 147 -8.636
116 AF2 148 -8.636
116 AF2 149 -9.613
116 AF2 150 -11.078
116 AF2 151 -12.543
116 AF2 152 -12.543
116 AF2 153 -11.566
116 AF2 154 -10.101
116 AF2 155 -9.125
116 AF2 156 -8.636
116 AF2 157 -8.148
116 AF2 158 -8.636
116 AF2 159 -9.613
116 AF2 160 -10.590
116 AF2 161 -12.543
116 AF2 162 -14.008
116 AF2 163 -14.496
116 AF2 164 -13.519
116 AF2 165 -12.054
116 AF2 166 -11.566
116 AF2 167 -12.054
116 AF2 168 -14.496
116 AF2 169 -16.449
116 AF2 170 -17.914
116 AF2 171 -18.402
116 AF2 172 -17.914
116 AF2 173 -17.426
116 AF2 174 -17.426
116 AF2 175 -17.426
116 AF2 176 -17.914
116 AF2 177 -17.914
116 AF2 178 -16.937
116 AF2 179 -16.449
116 AF2 180 -15.961
116 AF2 181 -16.449
116 AF2 182 -16.937
116 AF2 183 -17.914
116 AF2 184 -18.890
116 AF2 185 -18.890
116 AF2 186 -18.402
116 AF2 187 -17.914
116 AF2 188 -16.937
116 AF2 189 -16.449
116 AF2 190 -16.449
116 AF2 191 -16.937
116 AF2 192 -17.914
116 AF2 193 -18.402
116 AF2 194 -18.402
116 AF2 195 -17.914
116 AF2 196 -17.914
116 AF2 197 -17.914
116 AF2 198 -17.914
116 AF2 199 -16.937
116 AF2 200 -16.449
116 AF2 201 -16.449
116 AF2 202 -16.937
116 AF2 203 -16.937
116 AF2 204 -16.449
116 AF2 205 -14.984
116 AF2 206 -13.031
116 AF2 207 -12.054
116 AF2 208 -12.543
116 AF2 209 -13.519
116 AF2 210 -14.496
116 AF2 211 -14.008
116 AF2 212 -13.519
116 AF2 213 -13.031
116 AF2 214 -13.519
116 AF2 215 -14.496
116 AF2 216 -15.961
116 AF2 217 -17.426
116 AF2 218 -18.402
116 AF2 219 -18.890
116 AF2 220 -18.890
116 AF2 221 -17.914
116 AF2 222 -16.449
116 AF2 223 -14.984
116 AF2 224 -14.496
116 AF2 225 -14.984
116 AF2 226 -15.961
116 AF2 227 -16.937
116 AF2 228 -16.449
116 AF2 229 -15.472
116 AF2 230 -14.984
116 AF2 231 -14.984
116 AF2 232 -15.961
116 AF2 233 -16.937
116 AF2 234 -16.937
116 AF2 235 -14.496
116 AF2 236 -11.078
116 AF2 237 -8.636
116 AF2 238 -7.660
116 AF2 239 -9.125
116 AF2 240 -11.078
116 AF2 241 -13.031
116 AF2 242 -14.008
116 AF2 243 -14.008
116 AF2 244 -14.008
116 AF2 245 -14.008
116 AF2 246 -14.496
116 AF2 247 -14.984
116 AF2 248 -14.984
116 AF2 249 -14.008
116 AF2 250 -12.543
116 AF2 251 -11.566
116 AF2 252 -11.078
116 AF2 253 -12.054
116 AF2 254 -13.519
116 AF2 255 -14.984
# FZ chan 6
116 FZ 0 0.732
116 FZ 1 0.732
116 FZ 2 1.221
116 FZ 3 1.709
116 FZ 4 2.197
116 FZ 5 1.709
116 FZ 6 1.709
116 FZ 7 1.709
116 FZ 8 1.709
116 FZ 9 1.709
116 FZ 10 1.221
116 FZ 11 0.244
116 FZ 12 -1.221
116 FZ 13 -1.709
116 FZ 14 -1.221
116 FZ 15 -0.732
116 FZ 16 -0.244
116 FZ 17 0.732
116 FZ 18 0.732
116 FZ 19 1.709
116 FZ 20 2.686
116 FZ 21 3.662
116 FZ 22 3.662
116 FZ 23 3.174
116 FZ 24 1.709
116 FZ 25 0.244
116 FZ 26 -0.732
116 FZ 27 -1.221
116 FZ 28 -1.221
116 FZ 29 -0.732
116 FZ 30 -0.244
116 FZ 31 -0.244
116 FZ 32 -0.244
116 FZ 33 -0.244
116 FZ 34 -0.732
116 FZ 35 -0.732
116 FZ 36 -1.221
116 FZ 37 -1.221
116 FZ 38 -1.221
116 FZ 39 -0.732
116 FZ 40 0.244
116 FZ 41 1.709
116 FZ 42 3.174
116 FZ 43 4.150
116 FZ 44 4.150
116 FZ 45 3.174
116 FZ 46 2.686
116 FZ 47 2.686
116 FZ 48 2.686
116 FZ 49 2.686
116 FZ 50 2.686
116 FZ 51 2.197
116 FZ 52 2.197
116 FZ 53 2.197
116 FZ 54 2.686
116 FZ 55 2.686
116 FZ 56 1.221
116 FZ 57 -1.221
116 FZ 58 -3.174
116 FZ 59 -4.639
116 FZ 60 -4.639
116 FZ 61 -3.662
116 FZ 62 -3.662
116 FZ 63 -4.150
116 FZ 64 -4.639
116 FZ 65 -4.150
116 FZ 66 -3.174
116 FZ 67 -2.197
116 FZ 68 -1.709
116 FZ 69 -2.197
116 FZ 70 -4.150
116 FZ 71 -5.615
116 FZ 72 -5.127
116 FZ 73 -2.686
116 FZ 74 0.244
116 FZ 75 2.686
116 FZ 76 3.662
116 FZ 77 3.174
116 FZ 78 2.686
116 FZ 79 2.197
116 FZ 80 3.174
116 FZ 81 4.150
116 FZ 82 4.150
116 FZ 83 3.662
116 FZ 84 2.197
116 FZ 85 1.709
116 FZ 86 1.221
116 FZ 87 1.709
116 FZ 88 1.709
116 FZ 89 1.221
116 FZ 90 -0.244
116 FZ 91 -1.221
116 FZ 92 -1.221
116 FZ 93 -0.732
116 FZ 94 -0.732
116 FZ 95 -0.732
116 FZ 96 -1.221
116 FZ 97 -0.732
116 FZ 98 0.244
116 FZ 99 1.709
116 FZ 100 2.197
116 FZ 101 1.709
116 FZ 102 0.244
116 FZ 103 -1.221
116 FZ 104 -1.221
116 FZ 105 -0.732
116 FZ 106 0.732
116 FZ 107 1.221
116 FZ 108 1.221
116 FZ 109 0.244
116 FZ 110 0.244
116 FZ 111 1.221
116 FZ 112 1.709
116 FZ 113 2.686
116 FZ 114 2.197
116 FZ 115 1.709
116 FZ 116 1.221
116 FZ 117 0.244
116 FZ 118 -0.244
116 FZ 119 -1.221
116 FZ 120 -2.197
116 FZ 121 -2.686
116 FZ 122 -2.197
116 FZ 123 -0.732
116 FZ 124 1.709
116 FZ 125 3.662
116 FZ 126 5.127
116 FZ 127 5.615
116 FZ 128 5.615
116 FZ 129 6.104
116 FZ 130 7.080
116 FZ 131 7.568
116 FZ 132 7.080
116 FZ 133 6.592
116 FZ 134 5.615
116 FZ 135 5.615
116 FZ 136 6.104
116 FZ 137 6.104
116 FZ 138 6.104
116 FZ 139 5.127
116 FZ 140 3.174
116 FZ 141 0.732
116 FZ 142 -1.221
116 FZ 143 -1.709
116 FZ 144 -1.221
116 FZ 145 0.732
116 FZ 146 2.197
116 FZ 147 2.686
116 FZ 148 2.197
116 FZ 149 1.221
116 FZ 150 0.244
116 FZ 151 0.244
116 FZ 152 0.732
116 FZ 153 1.221
116 FZ 154 1.221
116 FZ 155 1.221
116 FZ 156 1.709
116 FZ 157 2.197
116 FZ 158 3.174
116 FZ 159 2.686
116 FZ 160 1.709
116 FZ 161 -0.244
116 FZ 162 -1.709
116 FZ 163 -2.197
116 FZ 164 -1.221
116 FZ 165 -0.244
116 FZ 166 0.244
116 FZ 167 -0.732
116 FZ 168 -2.686
116 FZ 169 -4.639
116 FZ 170 -5.615
116 FZ 171 -5.615
116 FZ 172 -5.615
116 FZ 173 -5.615
116 FZ 174 -5.615
116 FZ 175 -6.104
116 FZ 176 -6.104
116 FZ 177 -6.104
116 FZ 178 -5.127
116 FZ 179 -5.127
116 FZ 180 -5.127
116 FZ 181 -6.104
116 FZ 182 -6.592
116 FZ 183 -6.592
116 FZ 184 -6.104
116 FZ 185 -5.615
116 FZ 186 -5.127
116 FZ 187 -4.639
116 FZ 188 -4.639
116 FZ 189 -4.150
116 FZ 190 -4.150
116 FZ 191 -4.639
116 FZ 192 -4.639
116 FZ 193 -4.639
116 FZ 194 -4.639
116 FZ 195 -4.150
116 FZ 196 -4.150
116 FZ 197 -3.662
116 FZ 198 -3.662
116 FZ 199 -3.174
116 FZ 200 -2.197
116 FZ 201 -1.709
116 FZ 202 -1.709
116 FZ 203 -2.686
116 FZ 204 -3.174
116 FZ 205 -3.174
116 FZ 206 -2.686
116 FZ 207 -1.709
116 FZ 208 -1.221
116 FZ 209 -1.709
116 FZ 210 -2.197
116 FZ 211 -2.197
116 FZ 212 -1.709
116 FZ 213 -1.709
116 FZ 214 -1.709
116 FZ 215 -2.197
116 FZ 216 -3.174
116 FZ 217 -4.639
116 FZ 218 -5.615
116 FZ 219 -6.104
116 FZ 220 -5.615
116 FZ 221 -5.127
116 FZ 222 -4.150
116 FZ 223 -3.174
116 FZ 224 -3.174
116 FZ 225 -3.662
116 FZ 226 -4.150
116 FZ 227 -5.127
116 FZ 228 -5.615
116 FZ 229 -5.127
116 FZ 230 -4.150
116 FZ 231 -3.662
116 FZ 232 -3.662
116 FZ 233 -4.150
116 FZ 234 -4.150
116 FZ 235 -3.662
116 FZ 236 -2.197
116 FZ 237 -0.732
116 FZ 238 0.244
116 FZ 239 -0.244
116 FZ 240 -1.221
116 FZ 241 -2.197
116 FZ 242 -2.686
116 FZ 243 -2.686
116 FZ 244 -2.686
116 FZ 245 -3.174
116 FZ 246 -3.662
116 FZ 247 -4.150
116 FZ 248 -3.662
116 FZ 249 -2.686
116 FZ 250 -1.709
116 FZ 251 -0.732
116 FZ 252 -0.732
116 FZ 253 -1.221
116 FZ 254 -1.709
116 FZ 255 -2.197
# F4 chan 7
116 F4 0 1.394
116 F4 1 2.370
116 F4 2 3.835
116 F4 3 4.323
116 F4 4 3.347
116 F4 5 1.394
116 F4 6 -0.559
116 F4 7 -1.048
116 F4 8 -1.048
116 F4 9 -0.559
116 F4 10 -1.536
116 F4 11 -2.024
116 F4 12 -2.024
116 F4 13 -1.536
116 F4 14 -0.559
116 F4 15 -0.559
116 F4 16 -1.536
116 F4 17 -2.513
116 F4 18 -2.024
116 F4 19 0.417
116 F4 20 3.835
116 F4 21 6.276
116 F4 22 5.788
116 F4 23 2.858
116 F4 24 -0.559
116 F4 25 -3.001
116 F4 26 -2.513
116 F4 27 0.417
116 F4 28 2.858
116 F4 29 4.323
116 F4 30 2.858
116 F4 31 -0.559
116 F4 32 -3.977
116 F4 33 -6.419
116 F4 34 -6.907
116 F4 35 -5.442
116 F4 36 -3.001
116 F4 37 -1.536
116 F4 38 -1.536
116 F4 39 -2.024
116 F4 40 -3.001
116 F4 41 -2.513
116 F4 42 -1.048
116 F4 43 0.905
116 F4 44 1.882
116 F4 45 1.882
116 F4 46 1.882
116 F4 47 2.370
116 F4 48 3.347
116 F4 49 4.323
116 F4 50 3.835
116 F4 51 2.370
116 F4 52 0.417
116 F4 53 -1.048
116 F4 54 -0.559
116 F4 55 0.905
116 F4 56 1.394
116 F4 57 -0.071
116 F4 58 -2.513
116 F4 59 -4.954
116 F4 60 -5.442
116 F4 61 -4.466
116 F4 62 -2.513
116 F4 63 -2.024
116 F4 64 -2.513
116 F4 65 -3.001
116 F4 66 -3.001
116 F4 67 -2.024
116 F4 68 -1.536
116 F4 69 -3.001
116 F4 70 -5.931
116 F4 71 -8.372
116 F4 72 -7.884
116 F4 73 -3.489
116 F4 74 1.882
116 F4 75 6.276
116 F4 76 6.765
116 F4 77 4.323
116 F4 78 1.394
116 F4 79 0.905
116 F4 80 3.347
116 F4 81 6.276
116 F4 82 7.253
116 F4 83 4.323
116 F4 84 -0.559
116 F4 85 -3.977
116 F4 86 -4.466
116 F4 87 -2.024
116 F4 88 0.417
116 F4 89 0.905
116 F4 90 -1.048
116 F4 91 -3.489
116 F4 92 -4.954
116 F4 93 -3.977
116 F4 94 -3.489
116 F4 95 -4.466
116 F4 96 -6.419
116 F4 97 -7.884
116 F4 98 -7.884
116 F4 99 -5.442
116 F4 100 -3.001
116 F4 101 -2.024
116 F4 102 -3.489
116 F4 103 -5.442
116 F4 104 -5.931
116 F4 105 -4.466
116 F4 106 -2.513
116 F4 107 -1.536
116 F4 108 -3.489
116 F4 109 -6.419
116 F4 110 -7.395
116 F4 111 -4.954
116 F4 112 -1.048
116 F4 113 2.370
116 F4 114 2.370
116 F4 115 0.417
116 F4 116 -1.536
116 F4 117 -3.001
116 F4 118 -3.001
116 F4 119 -3.977
116 F4 120 -4.954
116 F4 121 -5.442
116 F4 122 -4.466
116 F4 123 -1.536
116 F4 124 0.905
116 F4 125 0.905
116 F4 126 -0.559
116 F4 127 -2.513
116 F4 128 -2.024
116 F4 129 0.417
116 F4 130 2.858
116 F4 131 3.347
116 F4 132 0.905
116 F4 133 -2.024
116 F4 134 -2.024
116 F4 135 1.394
116 F4 136 5.788
116 F4 137 6.765
116 F4 138 4.323
116 F4 139 -1.048
116 F4 140 -4.954
116 F4 141 -5.931
116 F4 142 -3.977
116 F4 143 -1.048
116 F4 144 0.905
116 F4 145 0.417
116 F4 146 -1.048
116 F4 147 -3.001
116 F4 148 -4.954
116 F4 149 -6.907
116 F4 150 -7.884
116 F4 151 -6.907
116 F4 152 -4.466
116 F4 153 -1.048
116 F4 154 1.882
116 F4 155 3.347
116 F4 156 3.347
116 F4 157 2.858
116 F4 158 0.905
116 F4 159 -1.536
116 F4 160 -4.954
116 F4 161 -7.884
116 F4 162 -8.860
116 F4 163 -7.884
116 F4 164 -5.442
116 F4 165 -2.513
116 F4 166 -0.559
116 F4 167 -1.048
116 F4 168 -3.001
116 F4 169 -5.442
116 F4 170 -7.395
116 F4 171 -8.860
116 F4 172 -8.860
116 F4 173 -8.860
116 F4 174 -9.349
116 F4 175 -10.325
116 F4 176 -11.302
116 F4 177 -11.302
116 F4 178 -9.837
116 F4 179 -7.395
116 F4 180 -5.442
116 F4 181 -4.954
116 F4 182 -6.907
116 F4 183 -8.860
116 F4 184 -10.325
116 F4 185 -10.325
116 F4 186 -8.372
116 F4 187 -6.419
116 F4 188 -4.954
116 F4 189 -5.442
116 F4 190 -6.419
116 F4 191 -7.884
116 F4 192 -8.860
116 F4 193 -9.349
116 F4 194 -9.349
116 F4 195 -10.325
116 F4 196 -10.813
116 F4 197 -11.302
116 F4 198 -10.813
116 F4 199 -9.349
116 F4 200 -7.884
116 F4 201 -6.419
116 F4 202 -6.907
116 F4 203 -6.907
116 F4 204 -7.395
116 F4 205 -5.931
116 F4 206 -3.489
116 F4 207 -1.536
116 F4 208 -2.024
116 F4 209 -3.489
116 F4 210 -4.954
116 F4 211 -5.931
116 F4 212 -5.442
116 F4 213 -4.954
116 F4 214 -4.466
116 F4 215 -5.442
116 F4 216 -6.419
116 F4 217 -8.372
116 F4 218 -10.325
116 F4 219 -12.767
116 F4 220 -13.743
116 F4 221 -12.767
116 F4 222 -9.837
116 F4 223 -5.931
116 F4 224 -3.489
116 F4 225 -3.489
116 F4 226 -4.954
116 F4 227 -6.419
116 F4 228 -6.907
116 F4 229 -6.419
116 F4 230 -5.931
116 F4 231 -6.907
116 F4 232 -8.860
116 F4 233 -9.837
116 F4 234 -8.860
116 F4 235 -6.419
116 F4 236 -3.489
116 F4 237 -2.024
116 F4 238 -2.513
116 F4 239 -4.954
116 F4 240 -7.884
116 F4 241 -9.837
116 F4 242 -9.837
116 F4 243 -8.860
116 F4 244 -7.395
116 F4 245 -7.884
116 F4 246 -9.349
116 F4 247 -11.302
116 F4 248 -12.278
116 F4 249 -10.813
116 F4 250 -8.372
116 F4 251 -5.442
116 F4 252 -3.489
116 F4 253 -4.466
116 F4 254 -6.419
116 F4 255 -8.860
# F3 chan 8
116 F3 0 -3.845
116 F3 1 -4.822
116 F3 2 -3.845
116 F3 3 -2.869
116 F3 4 -1.892
116 F3 5 -1.404
116 F3 6 -0.916
116 F3 7 -0.916
116 F3 8 -0.427
116 F3 9 -1.404
116 F3 10 -2.869
116 F3 11 -5.310
116 F3 12 -7.751
116 F3 13 -8.728
116 F3 14 -9.216
116 F3 15 -9.705
116 F3 16 -9.705
116 F3 17 -9.216
116 F3 18 -8.240
116 F3 19 -6.287
116 F3 20 -4.333
116 F3 21 -2.869
116 F3 22 -1.892
116 F3 23 -2.380
116 F3 24 -2.869
116 F3 25 -3.845
116 F3 26 -4.822
116 F3 27 -5.310
116 F3 28 -5.798
116 F3 29 -5.798
116 F3 30 -5.798
116 F3 31 -4.822
116 F3 32 -3.845
116 F3 33 -2.869
116 F3 34 -2.869
116 F3 35 -3.357
116 F3 36 -5.310
116 F3 37 -7.263
116 F3 38 -9.216
116 F3 39 -9.705
116 F3 40 -8.240
116 F3 41 -6.287
116 F3 42 -4.333
116 F3 43 -3.845
116 F3 44 -4.822
116 F3 45 -5.798
116 F3 46 -7.263
116 F3 47 -8.240
116 F3 48 -8.728
116 F3 49 -8.728
116 F3 50 -8.240
116 F3 51 -7.263
116 F3 52 -5.798
116 F3 53 -4.822
116 F3 54 -4.822
116 F3 55 -6.775
116 F3 56 -9.705
116 F3 57 -13.123
116 F3 58 -14.587
116 F3 59 -14.587
116 F3 60 -13.123
116 F3 61 -12.146
116 F3 62 -12.634
116 F3 63 -14.587
116 F3 64 -16.541
116 F3 65 -17.517
116 F3 66 -16.052
116 F3 67 -14.587
116 F3 68 -13.123
116 F3 69 -13.611
116 F3 70 -15.076
116 F3 71 -17.029
116 F3 72 -17.517
116 F3 73 -16.541
116 F3 74 -14.099
116 F3 75 -12.146
116 F3 76 -11.169
116 F3 77 -12.146
116 F3 78 -12.634
116 F3 79 -12.634
116 F3 80 -11.658
116 F3 81 -9.705
116 F3 82 -8.240
116 F3 83 -7.751
116 F3 84 -8.728
116 F3 85 -9.705
116 F3 86 -10.193
116 F3 87 -10.193
116 F3 88 -11.169
116 F3 89 -12.146
116 F3 90 -13.611
116 F3 91 -14.587
116 F3 92 -13.611
116 F3 93 -12.634
116 F3 94 -11.658
116 F3 95 -12.634
116 F3 96 -13.611
116 F3 97 -14.099
116 F3 98 -12.634
116 F3 99 -10.193
116 F3 100 -8.728
116 F3 101 -9.705
116 F3 102 -12.634
116 F3 103 -15.076
116 F3 104 -15.564
116 F3 105 -14.099
116 F3 106 -11.169
116 F3 107 -9.705
116 F3 108 -9.705
116 F3 109 -10.681
116 F3 110 -11.658
116 F3 111 -12.634
116 F3 112 -13.123
116 F3 113 -13.123
116 F3 114 -13.611
116 F3 115 -13.611
116 F3 116 -14.099
116 F3 117 -15.076
116 F3 118 -16.541
116 F3 119 -18.005
116 F3 120 -18.494
116 F3 121 -18.005
116 F3 122 -16.541
116 F3 123 -15.564
116 F3 124 -15.076
116 F3 125 -14.587
116 F3 126 -13.611
116 F3 127 -11.169
116 F3 128 -8.728
116 F3 129 -6.287
116 F3 130 -4.822
116 F3 131 -4.333
116 F3 132 -4.333
116 F3 133 -5.798
116 F3 134 -8.240
116 F3 135 -11.169
116 F3 136 -13.611
116 F3 137 -13.123
116 F3 138 -10.681
116 F3 139 -7.751
116 F3 140 -7.751
116 F3 141 -11.169
116 F3 142 -16.541
116 F3 143 -19.958
116 F3 144 -18.982
116 F3 145 -14.587
116 F3 146 -9.216
116 F3 147 -7.263
116 F3 148 -8.728
116 F3 149 -11.169
116 F3 150 -12.634
116 F3 151 -11.658
116 F3 152 -10.681
116 F3 153 -11.658
116 F3 154 -14.587
116 F3 155 -17.517
116 F3 156 -17.517
116 F3 157 -14.587
116 F3 158 -10.681
116 F3 159 -8.728
116 F3 160 -9.705
116 F3 161 -13.611
116 F3 162 -16.541
116 F3 163 -17.029
116 F3 164 -15.076
116 F3 165 -12.634
116 F3 166 -11.658
116 F3 167 -13.611
116 F3 168 -17.029
116 F3 169 -19.958
116 F3 170 -21.423
116 F3 171 -20.935
116 F3 172 -19.470
116 F3 173 -18.982
116 F3 174 -19.470
116 F3 175 -19.958
116 F3 176 -20.447
116 F3 177 -19.470
116 F3 178 -18.494
116 F3 179 -17.517
116 F3 180 -17.517
116 F3 181 -17.517
116 F3 182 -17.029
116 F3 183 -16.541
116 F3 184 -16.052
116 F3 185 -15.564
116 F3 186 -15.564
116 F3 187 -15.564
116 F3 188 -15.564
116 F3 189 -16.052
116 F3 190 -17.029
116 F3 191 -18.494
116 F3 192 -19.470
116 F3 193 -20.447
116 F3 194 -20.447
116 F3 195 -20.447
116 F3 196 -20.935
116 F3 197 -21.423
116 F3 198 -22.400
116 F3 199 -21.912
116 F3 200 -19.470
116 F3 201 -17.029
116 F3 202 -15.076
116 F3 203 -15.076
116 F3 204 -16.541
116 F3 205 -18.005
116 F3 206 -18.494
116 F3 207 -17.517
116 F3 208 -16.541
116 F3 209 -16.052
116 F3 210 -16.052
116 F3 211 -17.029
116 F3 212 -17.517
116 F3 213 -18.005
116 F3 214 -18.494
116 F3 215 -18.982
116 F3 216 -19.958
116 F3 217 -19.958
116 F3 218 -19.470
116 F3 219 -18.982
116 F3 220 -18.494
116 F3 221 -18.982
116 F3 222 -19.958
116 F3 223 -20.935
116 F3 224 -21.912
116 F3 225 -21.423
116 F3 226 -21.423
116 F3 227 -22.400
116 F3 228 -22.888
116 F3 229 -23.376
116 F3 230 -23.376
116 F3 231 -22.888
116 F3 232 -22.888
116 F3 233 -23.376
116 F3 234 -23.376
116 F3 235 -22.888
116 F3 236 -20.447
116 F3 237 -18.005
116 F3 238 -16.541
116 F3 239 -17.029
116 F3 240 -18.494
116 F3 241 -19.470
116 F3 242 -19.470
116 F3 243 -18.494
116 F3 244 -18.494
116 F3 245 -19.958
116 F3 246 -20.935
116 F3 247 -21.423
116 F3 248 -20.447
116 F3 249 -19.470
116 F3 250 -18.982
116 F3 251 -18.982
116 F3 252 -19.470
116 F3 253 -18.982
116 F3 254 -18.982
116 F3 255 -18.982
# FC6 chan 9
116 FC6 0 6.866
116 FC6 1 8.331
116 FC6 2 7.355
116 FC6 3 3.448
116 FC6 4 -0.458
116 FC6 5 -2.899
116 FC6 6 -2.899
116 FC6 7 -1.434
116 FC6 8 -1.434
116 FC6 9 -4.364
116 FC6 10 -7.294
116 FC6 11 -6.805
116 FC6 12 -1.923
116 FC6 13 4.425
116 FC6 14 6.866
116 FC6 15 2.472
116 FC6 16 -8.759
116 FC6 17 -20.966
116 FC6 18 -25.360
116 FC6 19 -18.036
116 FC6 20 -3.387
116 FC6 21 9.796
116 FC6 22 12.238
116 FC6 23 3.448
116 FC6 24 -9.247
116 FC6 25 -16.083
116 FC6 26 -12.665
116 FC6 27 -1.923
116 FC6 28 8.331
116 FC6 29 11.749
116 FC6 30 8.331
116 FC6 31 1.495
116 FC6 32 -4.852
116 FC6 33 -10.712
116 FC6 34 -15.106
116 FC6 35 -17.548
116 FC6 36 -17.059
116 FC6 37 -12.665
116 FC6 38 -5.829
116 FC6 39 0.031
116 FC6 40 0.031
116 FC6 41 -3.876
116 FC6 42 -9.247
116 FC6 43 -11.688
116 FC6 44 -9.735
116 FC6 45 -5.341
116 FC6 46 0.031
116 FC6 47 5.890
116 FC6 48 10.284
116 FC6 49 11.749
116 FC6 50 7.843
116 FC6 51 -1.434
116 FC6 52 -12.665
116 FC6 53 -18.524
116 FC6 54 -16.571
116 FC6 55 -7.782
116 FC6 56 0.031
116 FC6 57 0.519
116 FC6 58 -5.341
116 FC6 59 -12.177
116 FC6 60 -12.177
116 FC6 61 -4.852
116 FC6 62 3.937
116 FC6 63 6.378
116 FC6 64 0.031
116 FC6 65 -10.223
116 FC6 66 -16.571
116 FC6 67 -15.594
116 FC6 68 -9.735
116 FC6 69 -5.829
116 FC6 70 -8.759
116 FC6 71 -16.083
116 FC6 72 -19.989
116 FC6 73 -14.130
116 FC6 74 -0.458
116 FC6 75 13.702
116 FC6 76 17.609
116 FC6 77 9.308
116 FC6 78 -4.852
116 FC6 79 -13.641
116 FC6 80 -11.688
116 FC6 81 -1.434
116 FC6 82 6.378
116 FC6 83 3.937
116 FC6 84 -6.805
116 FC6 85 -17.548
116 FC6 86 -18.524
116 FC6 87 -8.759
116 FC6 88 3.448
116 FC6 89 9.796
116 FC6 90 5.890
116 FC6 91 -3.876
116 FC6 92 -10.712
116 FC6 93 -12.177
116 FC6 94 -11.200
116 FC6 95 -12.177
116 FC6 96 -16.571
116 FC6 97 -20.477
116 FC6 98 -18.036
116 FC6 99 -10.712
116 FC6 100 -2.899
116 FC6 101 -0.458
116 FC6 102 -4.364
116 FC6 103 -8.270
116 FC6 104 -7.294
116 FC6 105 -0.946
116 FC6 106 2.472
116 FC6 107 -3.387
116 FC6 108 -17.548
116 FC6 109 -28.778
116 FC6 110 -27.313
116 FC6 111 -12.177
116 FC6 112 6.378
116 FC6 113 16.632
116 FC6 114 12.238
116 FC6 115 -0.458
116 FC6 116 -9.735
116 FC6 117 -10.712
116 FC6 118 -6.805
116 FC6 119 -4.364
116 FC6 120 -6.805
116 FC6 121 -10.223
116 FC6 122 -8.759
116 FC6 123 -1.923
116 FC6 124 3.448
116 FC6 125 1.007
116 FC6 126 -7.782
116 FC6 127 -14.618
116 FC6 128 -12.665
116 FC6 129 -3.387
116 FC6 130 2.960
116 FC6 131 -0.458
116 FC6 132 -11.200
116 FC6 133 -19.012
116 FC6 134 -14.130
116 FC6 135 1.007
116 FC6 136 14.191
116 FC6 137 14.191
116 FC6 138 1.495
116 FC6 139 -13.641
116 FC6 140 -19.501
116 FC6 141 -12.177
116 FC6 142 0.519
116 FC6 143 7.843
116 FC6 144 4.913
116 FC6 145 -4.852
116 FC6 146 -15.106
116 FC6 147 -20.966
116 FC6 148 -21.454
116 FC6 149 -19.012
116 FC6 150 -15.106
116 FC6 151 -10.223
116 FC6 152 -3.876
116 FC6 153 1.984
116 FC6 154 5.890
116 FC6 155 7.355
116 FC6 156 6.866
116 FC6 157 4.425
116 FC6 158 -0.458
116 FC6 159 -7.782
116 FC6 160 -16.083
116 FC6 161 -22.430
116 FC6 162 -23.407
116 FC6 163 -18.524
116 FC6 164 -10.223
116 FC6 165 -2.411
116 FC6 166 1.984
116 FC6 167 1.984
116 FC6 168 -1.923
116 FC6 169 -7.294
116 FC6 170 -10.712
116 FC6 171 -11.688
116 FC6 172 -10.712
116 FC6 173 -11.688
116 FC6 174 -16.083
116 FC6 175 -22.430
116 FC6 176 -26.337
116 FC6 177 -22.919
116 FC6 178 -13.641
116 FC6 179 -3.876
116 FC6 180 -0.458
116 FC6 181 -5.341
116 FC6 182 -14.130
116 FC6 183 -19.501
116 FC6 184 -17.059
116 FC6 185 -8.759
116 FC6 186 -0.458
116 FC6 187 3.937
116 FC6 188 3.448
116 FC6 189 0.031
116 FC6 190 -5.341
116 FC6 191 -12.177
116 FC6 192 -19.501
116 FC6 193 -25.848
116 FC6 194 -29.266
116 FC6 195 -27.313
116 FC6 196 -22.430
116 FC6 197 -17.059
116 FC6 198 -14.130
116 FC6 199 -13.153
116 FC6 200 -12.665
116 FC6 201 -11.688
116 FC6 202 -8.759
116 FC6 203 -5.829
116 FC6 204 -3.387
116 FC6 205 -1.923
116 FC6 206 -1.923
116 FC6 207 -5.341
116 FC6 208 -10.712
116 FC6 209 -16.083
116 FC6 210 -18.036
116 FC6 211 -15.594
116 FC6 212 -9.247
116 FC6 213 -3.387
116 FC6 214 -0.946
116 FC6 215 -2.899
116 FC6 216 -7.782
116 FC6 217 -15.106
116 FC6 218 -21.454
116 FC6 219 -25.848
116 FC6 220 -27.313
116 FC6 221 -23.407
116 FC6 222 -15.106
116 FC6 223 -6.317
116 FC6 224 -0.458
116 FC6 225 0.519
116 FC6 226 -2.899
116 FC6 227 -8.270
116 FC6 228 -12.177
116 FC6 229 -15.594
116 FC6 230 -18.036
116 FC6 231 -19.989
116 FC6 232 -20.966
116 FC6 233 -18.524
116 FC6 234 -14.130
116 FC6 235 -8.759
116 FC6 236 -4.852
116 FC6 237 -3.876
116 FC6 238 -6.805
116 FC6 239 -11.688
116 FC6 240 -15.594
116 FC6 241 -17.059
116 FC6 242 -15.106
116 FC6 243 -10.712
116 FC6 244 -8.270
116 FC6 245 -8.759
116 FC6 246 -13.641
116 FC6 247 -19.501
116 FC6 248 -23.407
116 FC6 249 -23.895
116 FC6 250 -21.942
116 FC6 251 -19.012
116 FC6 252 -16.571
116 FC6 253 -15.106
116 FC6 254 -13.641
116 FC6 255 -12.665
# FC5 chan 10
116 FC5 0 -8.046
116 FC5 1 -5.605
116 FC5 2 -2.675
116 FC5 3 -2.187
116 FC5 4 -4.140
116 FC5 5 -5.117
116 FC5 6 -2.675
116 FC5 7 2.696
116 FC5 8 8.067
116 FC5 9 8.555
116 FC5 10 4.649
116 FC5 11 -1.211
116 FC5 12 -5.117
116 FC5 13 -7.558
116 FC5 14 -10.000
116 FC5 15 -13.906
116 FC5 16 -17.324
116 FC5 17 -17.324
116 FC5 18 -11.953
116 FC5 19 -4.140
116 FC5 20 2.207
116 FC5 21 2.207
116 FC5 22 -1.699
116 FC5 23 -6.093
116 FC5 24 -6.582
116 FC5 25 -3.164
116 FC5 26 0.254
116 FC5 27 1.231
116 FC5 28 -0.722
116 FC5 29 -4.140
116 FC5 30 -5.117
116 FC5 31 -3.652
116 FC5 32 1.231
116 FC5 33 5.625
116 FC5 34 8.555
116 FC5 35 7.090
116 FC5 36 2.207
116 FC5 37 -5.605
116 FC5 38 -13.418
116 FC5 39 -18.300
116 FC5 40 -17.324
116 FC5 41 -10.488
116 FC5 42 -2.187
116 FC5 43 3.672
116 FC5 44 3.184
116 FC5 45 -3.164
116 FC5 46 -10.976
116 FC5 47 -16.347
116 FC5 48 -16.836
116 FC5 49 -12.441
116 FC5 50 -6.093
116 FC5 51 -0.722
116 FC5 52 2.207
116 FC5 53 2.696
116 FC5 54 0.743
116 FC5 55 -2.187
116 FC5 56 -5.605
116 FC5 57 -8.046
116 FC5 58 -8.535
116 FC5 59 -6.093
116 FC5 60 -2.675
116 FC5 61 -1.699
116 FC5 62 -4.140
116 FC5 63 -10.488
116 FC5 64 -16.836
116 FC5 65 -18.789
116 FC5 66 -15.371
116 FC5 67 -8.535
116 FC5 68 -2.675
116 FC5 69 -1.211
116 FC5 70 -4.140
116 FC5 71 -8.535
116 FC5 72 -11.464
116 FC5 73 -10.488
116 FC5 74 -6.582
116 FC5 75 -2.675
116 FC5 76 -2.187
116 FC5 77 -4.628
116 FC5 78 -9.511
116 FC5 79 -12.929
116 FC5 80 -12.441
116 FC5 81 -8.535
116 FC5 82 -3.164
116 FC5 83 -0.234
116 FC5 84 -0.234
116 FC5 85 -2.187
116 FC5 86 -3.652
116 FC5 87 -2.187
116 FC5 88 0.254
116 FC5 89 1.719
116 FC5 90 1.231
116 FC5 91 -1.211
116 FC5 92 -2.187
116 FC5 93 -1.699
116 FC5 94 -2.675
116 FC5 95 -6.093
116 FC5 96 -11.953
116 FC5 97 -15.859
116 FC5 98 -13.418
116 FC5 99 -6.093
116 FC5 100 0.254
116 FC5 101 1.231
116 FC5 102 -4.628
116 FC5 103 -11.464
116 FC5 104 -13.906
116 FC5 105 -9.023
116 FC5 106 0.254
116 FC5 107 7.579
116 FC5 108 9.043
116 FC5 109 3.672
116 FC5 110 -5.605
116 FC5 111 -12.929
116 FC5 112 -15.859
116 FC5 113 -12.441
116 FC5 114 -4.628
116 FC5 115 3.184
116 FC5 116 6.114
116 FC5 117 3.184
116 FC5 118 -2.187
116 FC5 119 -7.070
116 FC5 120 -8.535
116 FC5 121 -7.070
116 FC5 122 -5.117
116 FC5 123 -3.164
116 FC5 124 -2.675
116 FC5 125 -3.164
116 FC5 126 -4.628
116 FC5 127 -6.582
116 FC5 128 -7.070
116 FC5 129 -4.628
116 FC5 130 2.207
116 FC5 131 11.485
116 FC5 132 16.856
116 FC5 133 12.950
116 FC5 134 -0.234
116 FC5 135 -15.859
116 FC5 136 -22.695
116 FC5 137 -14.882
116 FC5 138 3.184
116 FC5 139 18.321
116 FC5 140 19.786
116 FC5 141 5.137
116 FC5 142 -14.394
116 FC5 143 -25.136
116 FC5 144 -19.277
116 FC5 145 -3.164
116 FC5 146 10.997
116 FC5 147 13.926
116 FC5 148 6.602
116 FC5 149 -2.187
116 FC5 150 -4.628
116 FC5 151 -1.211
116 FC5 152 2.207
116 FC5 153 -0.722
116 FC5 154 -8.535
116 FC5 155 -14.394
116 FC5 156 -11.953
116 FC5 157 -2.187
116 FC5 158 8.067
116 FC5 159 10.997
116 FC5 160 4.649
116 FC5 161 -7.070
116 FC5 162 -14.394
116 FC5 163 -12.929
116 FC5 164 -4.140
116 FC5 165 4.649
116 FC5 166 7.579
116 FC5 167 3.672
116 FC5 168 -4.628
116 FC5 169 -11.953
116 FC5 170 -13.906
116 FC5 171 -10.976
116 FC5 172 -6.582
116 FC5 173 -4.628
116 FC5 174 -5.605
116 FC5 175 -9.023
116 FC5 176 -10.976
116 FC5 177 -10.488
116 FC5 178 -7.558
116 FC5 179 -5.605
116 FC5 180 -4.628
116 FC5 181 -6.093
116 FC5 182 -7.558
116 FC5 183 -6.582
116 FC5 184 -4.140
116 FC5 185 -0.722
116 FC5 186 0.743
116 FC5 187 -0.234
116 FC5 188 -4.140
116 FC5 189 -8.046
116 FC5 190 -10.000
116 FC5 191 -10.000
116 FC5 192 -7.070
116 FC5 193 -3.164
116 FC5 194 -0.722
116 FC5 195 -2.187
116 FC5 196 -8.046
116 FC5 197 -15.859
116 FC5 198 -20.742
116 FC5 199 -18.789
116 FC5 200 -9.023
116 FC5 201 3.184
116 FC5 202 10.508
116 FC5 203 8.555
116 FC5 204 0.743
116 FC5 205 -7.070
116 FC5 206 -9.023
116 FC5 207 -6.093
116 FC5 208 -1.211
116 FC5 209 0.254
116 FC5 210 -2.675
116 FC5 211 -6.582
116 FC5 212 -7.558
116 FC5 213 -5.117
116 FC5 214 -1.699
116 FC5 215 0.254
116 FC5 216 -0.234
116 FC5 217 -1.211
116 FC5 218 0.254
116 FC5 219 2.696
116 FC5 220 3.184
116 FC5 221 0.254
116 FC5 222 -5.117
116 FC5 223 -8.535
116 FC5 224 -7.070
116 FC5 225 -3.652
116 FC5 226 -1.699
116 FC5 227 -4.140
116 FC5 228 -9.023
116 FC5 229 -10.976
116 FC5 230 -9.023
116 FC5 231 -5.605
116 FC5 232 -5.605
116 FC5 233 -10.488
116 FC5 234 -16.347
116 FC5 235 -17.324
116 FC5 236 -10.488
116 FC5 237 -1.211
116 FC5 238 4.649
116 FC5 239 3.184
116 FC5 240 -1.699
116 FC5 241 -4.140
116 FC5 242 -1.211
116 FC5 243 3.672
116 FC5 244 4.649
116 FC5 245 -0.234
116 FC5 246 -8.046
116 FC5 247 -12.441
116 FC5 248 -10.976
116 FC5 249 -5.605
116 FC5 250 -1.699
116 FC5 251 -1.699
116 FC5 252 -3.164
116 FC5 253 -3.652
116 FC5 254 -2.675
116 FC5 255 -2.675
# FC2 chan 11
116 FC2 0 0.773
116 FC2 1 2.238
116 FC2 2 3.215
116 FC2 3 3.215
116 FC2 4 2.238
116 FC2 5 0.773
116 FC2 6 -1.180
116 FC2 7 -1.668
116 FC2 8 -2.157
116 FC2 9 -2.157
116 FC2 10 -2.157
116 FC2 11 -2.645
116 FC2 12 -2.157
116 FC2 13 -1.180
116 FC2 14 -0.692
116 FC2 15 -0.692
116 FC2 16 -1.668
116 FC2 17 -2.157
116 FC2 18 -2.157
116 FC2 19 -1.180
116 FC2 20 0.773
116 FC2 21 1.750
116 FC2 22 1.750
116 FC2 23 0.285
116 FC2 24 -1.668
116 FC2 25 -2.645
116 FC2 26 -2.645
116 FC2 27 -2.157
116 FC2 28 -1.668
116 FC2 29 -1.668
116 FC2 30 -2.157
116 FC2 31 -2.645
116 FC2 32 -3.133
116 FC2 33 -3.133
116 FC2 34 -3.133
116 FC2 35 -3.133
116 FC2 36 -3.133
116 FC2 37 -3.133
116 FC2 38 -3.133
116 FC2 39 -3.133
116 FC2 40 -2.645
116 FC2 41 -2.157
116 FC2 42 -1.668
116 FC2 43 -1.180
116 FC2 44 -1.180
116 FC2 45 -0.692
116 FC2 46 -0.692
116 FC2 47 -0.203
116 FC2 48 0.285
116 FC2 49 0.285
116 FC2 50 -0.203
116 FC2 51 -1.180
116 FC2 52 -2.157
116 FC2 53 -2.645
116 FC2 54 -2.645
116 FC2 55 -2.157
116 FC2 56 -2.157
116 FC2 57 -3.133
116 FC2 58 -4.110
116 FC2 59 -4.598
116 FC2 60 -4.598
116 FC2 61 -4.598
116 FC2 62 -4.110
116 FC2 63 -4.110
116 FC2 64 -4.598
116 FC2 65 -4.110
116 FC2 66 -3.621
116 FC2 67 -2.157
116 FC2 68 -1.668
116 FC2 69 -2.645
116 FC2 70 -4.598
116 FC2 71 -6.063
116 FC2 72 -6.063
116 FC2 73 -4.598
116 FC2 74 -2.157
116 FC2 75 0.285
116 FC2 76 0.773
116 FC2 77 -0.203
116 FC2 78 -1.668
116 FC2 79 -2.157
116 FC2 80 -1.668
116 FC2 81 -0.692
116 FC2 82 -0.692
116 FC2 83 -1.668
116 FC2 84 -3.621
116 FC2 85 -4.598
116 FC2 86 -4.110
116 FC2 87 -2.645
116 FC2 88 -1.180
116 FC2 89 -1.180
116 FC2 90 -2.645
116 FC2 91 -4.598
116 FC2 92 -5.575
116 FC2 93 -5.086
116 FC2 94 -5.086
116 FC2 95 -5.086
116 FC2 96 -5.575
116 FC2 97 -6.063
116 FC2 98 -6.063
116 FC2 99 -5.086
116 FC2 100 -4.110
116 FC2 101 -4.110
116 FC2 102 -4.598
116 FC2 103 -5.575
116 FC2 104 -5.575
116 FC2 105 -4.598
116 FC2 106 -3.621
116 FC2 107 -4.598
116 FC2 108 -6.063
116 FC2 109 -7.528
116 FC2 110 -7.039
116 FC2 111 -5.086
116 FC2 112 -2.157
116 FC2 113 -0.203
116 FC2 114 -0.692
116 FC2 115 -2.157
116 FC2 116 -3.621
116 FC2 117 -4.598
116 FC2 118 -4.110
116 FC2 119 -4.598
116 FC2 120 -5.086
116 FC2 121 -5.575
116 FC2 122 -5.086
116 FC2 123 -3.621
116 FC2 124 -2.645
116 FC2 125 -2.157
116 FC2 126 -2.645
116 FC2 127 -3.133
116 FC2 128 -3.133
116 FC2 129 -1.668
116 FC2 130 -0.203
116 FC2 131 -0.203
116 FC2 132 -1.668
116 FC2 133 -3.133
116 FC2 134 -3.133
116 FC2 135 -2.157
116 FC2 136 -0.692
116 FC2 137 -1.180
116 FC2 138 -3.133
116 FC2 139 -6.063
116 FC2 140 -7.528
116 FC2 141 -7.528
116 FC2 142 -6.063
116 FC2 143 -5.086
116 FC2 144 -4.110
116 FC2 145 -4.598
116 FC2 146 -5.575
116 FC2 147 -7.039
116 FC2 148 -8.016
116 FC2 149 -8.504
116 FC2 150 -8.504
116 FC2 151 -8.016
116 FC2 152 -7.039
116 FC2 153 -6.551
116 FC2 154 -5.575
116 FC2 155 -5.086
116 FC2 156 -4.598
116 FC2 157 -4.598
116 FC2 158 -5.086
116 FC2 159 -6.063
116 FC2 160 -7.528
116 FC2 161 -8.993
116 FC2 162 -9.481
116 FC2 163 -8.993
116 FC2 164 -8.016
116 FC2 165 -7.039
116 FC2 166 -6.551
116 FC2 167 -7.039
116 FC2 168 -7.528
116 FC2 169 -8.504
116 FC2 170 -9.969
116 FC2 171 -10.457
116 FC2 172 -10.946
116 FC2 173 -10.946
116 FC2 174 -10.946
116 FC2 175 -10.946
116 FC2 176 -11.434
116 FC2 177 -11.434
116 FC2 178 -10.946
116 FC2 179 -9.969
116 FC2 180 -8.993
116 FC2 181 -8.993
116 FC2 182 -9.969
116 FC2 183 -10.457
116 FC2 184 -10.946
116 FC2 185 -9.969
116 FC2 186 -9.481
116 FC2 187 -8.993
116 FC2 188 -9.481
116 FC2 189 -9.481
116 FC2 190 -9.969
116 FC2 191 -9.969
116 FC2 192 -10.457
116 FC2 193 -10.946
116 FC2 194 -10.946
116 FC2 195 -10.946
116 FC2 196 -10.946
116 FC2 197 -10.457
116 FC2 198 -10.457
116 FC2 199 -9.969
116 FC2 200 -8.993
116 FC2 201 -8.993
116 FC2 202 -8.993
116 FC2 203 -8.993
116 FC2 204 -9.481
116 FC2 205 -8.993
116 FC2 206 -8.504
116 FC2 207 -8.016
116 FC2 208 -8.504
116 FC2 209 -8.993
116 FC2 210 -9.481
116 FC2 211 -9.481
116 FC2 212 -8.504
116 FC2 213 -7.528
116 FC2 214 -7.528
116 FC2 215 -8.504
116 FC2 216 -9.969
116 FC2 217 -11.922
116 FC2 218 -13.875
116 FC2 219 -14.852
116 FC2 220 -14.852
116 FC2 221 -14.364
116 FC2 222 -12.899
116 FC2 223 -11.434
116 FC2 224 -9.969
116 FC2 225 -9.481
116 FC2 226 -9.969
116 FC2 227 -11.434
116 FC2 228 -12.410
116 FC2 229 -12.410
116 FC2 230 -12.410
116 FC2 231 -11.922
116 FC2 232 -11.434
116 FC2 233 -11.434
116 FC2 234 -10.946
116 FC2 235 -10.457
116 FC2 236 -9.481
116 FC2 237 -8.993
116 FC2 238 -9.481
116 FC2 239 -10.457
116 FC2 240 -11.922
116 FC2 241 -12.899
116 FC2 242 -12.899
116 FC2 243 -11.922
116 FC2 244 -10.946
116 FC2 245 -10.457
116 FC2 246 -10.946
116 FC2 247 -11.922
116 FC2 248 -12.899
116 FC2 249 -12.899
116 FC2 250 -12.410
116 FC2 251 -11.922
116 FC2 252 -11.922
116 FC2 253 -11.922
116 FC2 254 -11.922
116 FC2 255 -12.410
# FC1 chan 12
116 FC1 0 0.407
116 FC1 1 0.407
116 FC1 2 0.407
116 FC1 3 0.895
116 FC1 4 0.407
116 FC1 5 0.895
116 FC1 6 0.895
116 FC1 7 2.360
116 FC1 8 2.848
116 FC1 9 3.337
116 FC1 10 2.848
116 FC1 11 0.895
116 FC1 12 -1.058
116 FC1 13 -3.011
116 FC1 14 -3.988
116 FC1 15 -4.476
116 FC1 16 -4.476
116 FC1 17 -3.499
116 FC1 18 -2.035
116 FC1 19 -0.570
116 FC1 20 0.407
116 FC1 21 0.895
116 FC1 22 0.407
116 FC1 23 -0.081
116 FC1 24 -0.570
116 FC1 25 -0.570
116 FC1 26 -0.570
116 FC1 27 -0.570
116 FC1 28 -1.058
116 FC1 29 -1.546
116 FC1 30 -1.546
116 FC1 31 -1.058
116 FC1 32 -0.081
116 FC1 33 0.407
116 FC1 34 0.407
116 FC1 35 -0.081
116 FC1 36 -1.546
116 FC1 37 -3.011
116 FC1 38 -3.499
116 FC1 39 -3.011
116 FC1 40 -2.035
116 FC1 41 -0.570
116 FC1 42 0.895
116 FC1 43 1.383
116 FC1 44 0.407
116 FC1 45 -1.058
116 FC1 46 -2.523
116 FC1 47 -3.011
116 FC1 48 -3.011
116 FC1 49 -3.011
116 FC1 50 -2.523
116 FC1 51 -2.523
116 FC1 52 -2.035
116 FC1 53 -1.546
116 FC1 54 -1.546
116 FC1 55 -1.546
116 FC1 56 -2.523
116 FC1 57 -3.988
116 FC1 58 -4.964
116 FC1 59 -5.452
116 FC1 60 -5.452
116 FC1 61 -5.452
116 FC1 62 -5.941
116 FC1 63 -6.917
116 FC1 64 -7.894
116 FC1 65 -7.894
116 FC1 66 -6.429
116 FC1 67 -4.476
116 FC1 68 -3.011
116 FC1 69 -3.499
116 FC1 70 -3.988
116 FC1 71 -5.452
116 FC1 72 -5.941
116 FC1 73 -5.452
116 FC1 74 -4.964
116 FC1 75 -3.499
116 FC1 76 -3.011
116 FC1 77 -2.523
116 FC1 78 -2.523
116 FC1 79 -2.523
116 FC1 80 -2.035
116 FC1 81 -1.546
116 FC1 82 -1.546
116 FC1 83 -1.546
116 FC1 84 -2.035
116 FC1 85 -2.523
116 FC1 86 -2.523
116 FC1 87 -2.523
116 FC1 88 -1.546
116 FC1 89 -1.546
116 FC1 90 -1.546
116 FC1 91 -2.035
116 FC1 92 -2.523
116 FC1 93 -3.011
116 FC1 94 -3.499
116 FC1 95 -4.476
116 FC1 96 -5.452
116 FC1 97 -5.452
116 FC1 98 -4.476
116 FC1 99 -3.011
116 FC1 100 -1.546
116 FC1 101 -2.035
116 FC1 102 -3.011
116 FC1 103 -4.476
116 FC1 104 -4.476
116 FC1 105 -3.499
116 FC1 106 -2.035
116 FC1 107 -1.058
116 FC1 108 -1.546
116 FC1 109 -3.011
116 FC1 110 -4.476
116 FC1 111 -4.964
116 FC1 112 -4.476
116 FC1 113 -3.988
116 FC1 114 -3.988
116 FC1 115 -3.499
116 FC1 116 -3.499
116 FC1 117 -3.988
116 FC1 118 -3.988
116 FC1 119 -4.476
116 FC1 120 -4.964
116 FC1 121 -5.452
116 FC1 122 -5.452
116 FC1 123 -5.452
116 FC1 124 -3.988
116 FC1 125 -3.011
116 FC1 126 -1.546
116 FC1 127 -1.058
116 FC1 128 -0.570
116 FC1 129 -0.081
116 FC1 130 0.895
116 FC1 131 2.360
116 FC1 132 2.848
116 FC1 133 2.360
116 FC1 134 0.407
116 FC1 135 -2.035
116 FC1 136 -3.988
116 FC1 137 -3.499
116 FC1 138 -1.058
116 FC1 139 0.895
116 FC1 140 0.407
116 FC1 141 -1.546
116 FC1 142 -5.452
116 FC1 143 -7.894
116 FC1 144 -7.894
116 FC1 145 -5.452
116 FC1 146 -3.011
116 FC1 147 -2.035
116 FC1 148 -2.523
116 FC1 149 -3.499
116 FC1 150 -3.988
116 FC1 151 -3.499
116 FC1 152 -2.523
116 FC1 153 -2.523
116 FC1 154 -3.988
116 FC1 155 -5.452
116 FC1 156 -5.452
116 FC1 157 -3.988
116 FC1 158 -2.035
116 FC1 159 -0.570
116 FC1 160 -0.570
116 FC1 161 -2.523
116 FC1 162 -4.964
116 FC1 163 -5.941
116 FC1 164 -5.452
116 FC1 165 -3.988
116 FC1 166 -3.499
116 FC1 167 -3.499
116 FC1 168 -5.452
116 FC1 169 -7.406
116 FC1 170 -8.870
116 FC1 171 -9.359
116 FC1 172 -8.870
116 FC1 173 -8.870
116 FC1 174 -9.359
116 FC1 175 -9.359
116 FC1 176 -9.359
116 FC1 177 -8.870
116 FC1 178 -7.894
116 FC1 179 -7.406
116 FC1 180 -7.406
116 FC1 181 -8.382
116 FC1 182 -8.870
116 FC1 183 -8.870
116 FC1 184 -7.894
116 FC1 185 -7.406
116 FC1 186 -6.917
116 FC1 187 -6.917
116 FC1 188 -7.406
116 FC1 189 -7.894
116 FC1 190 -8.382
116 FC1 191 -8.870
116 FC1 192 -8.870
116 FC1 193 -8.870
116 FC1 194 -7.894
116 FC1 195 -7.406
116 FC1 196 -7.406
116 FC1 197 -8.870
116 FC1 198 -9.847
116 FC1 199 -10.335
116 FC1 200 -9.359
116 FC1 201 -6.917
116 FC1 202 -5.452
116 FC1 203 -5.452
116 FC1 204 -6.917
116 FC1 205 -8.382
116 FC1 206 -9.359
116 FC1 207 -8.870
116 FC1 208 -8.382
116 FC1 209 -7.894
116 FC1 210 -7.406
116 FC1 211 -7.894
116 FC1 212 -7.894
116 FC1 213 -7.894
116 FC1 214 -7.406
116 FC1 215 -7.406
116 FC1 216 -7.894
116 FC1 217 -8.382
116 FC1 218 -8.382
116 FC1 219 -7.894
116 FC1 220 -7.406
116 FC1 221 -7.406
116 FC1 222 -8.382
116 FC1 223 -8.870
116 FC1 224 -9.359
116 FC1 225 -9.359
116 FC1 226 -9.359
116 FC1 227 -9.847
116 FC1 228 -10.335
116 FC1 229 -11.312
116 FC1 230 -10.824
116 FC1 231 -10.335
116 FC1 232 -9.847
116 FC1 233 -9.847
116 FC1 234 -10.335
116 FC1 235 -10.335
116 FC1 236 -9.359
116 FC1 237 -7.894
116 FC1 238 -6.917
116 FC1 239 -6.917
116 FC1 240 -7.406
116 FC1 241 -8.382
116 FC1 242 -8.382
116 FC1 243 -7.894
116 FC1 244 -7.406
116 FC1 245 -7.406
116 FC1 246 -8.382
116 FC1 247 -9.847
116 FC1 248 -10.335
116 FC1 249 -9.359
116 FC1 250 -7.894
116 FC1 251 -6.917
116 FC1 252 -6.429
116 FC1 253 -6.429
116 FC1 254 -6.917
116 FC1 255 -7.406
# T8 chan 13
116 T8 0 -3.530
116 T8 1 -0.600
116 T8 2 -1.088
116 T8 3 -4.506
116 T8 4 -9.389
116 T8 5 -11.342
116 T8 6 -9.389
116 T8 7 -4.018
116 T8 8 0.376
116 T8 9 0.376
116 T8 10 -5.483
116 T8 11 -14.760
116 T8 12 -21.596
116 T8 13 -22.573
116 T8 14 -17.202
116 T8 15 -9.878
116 T8 16 -4.995
116 T8 17 -4.018
116 T8 18 -6.948
116 T8 19 -9.389
116 T8 20 -8.901
116 T8 21 -5.971
116 T8 22 -1.577
116 T8 23 1.353
116 T8 24 0.376
116 T8 25 -3.042
116 T8 26 -7.436
116 T8 27 -10.854
116 T8 28 -11.342
116 T8 29 -9.389
116 T8 30 -6.948
116 T8 31 -4.995
116 T8 32 -5.483
116 T8 33 -7.924
116 T8 34 -10.854
116 T8 35 -11.831
116 T8 36 -10.854
116 T8 37 -8.413
116 T8 38 -6.460
116 T8 39 -6.460
116 T8 40 -7.924
116 T8 41 -8.901
116 T8 42 -8.901
116 T8 43 -8.901
116 T8 44 -9.389
116 T8 45 -9.878
116 T8 46 -10.366
116 T8 47 -9.389
116 T8 48 -6.948
116 T8 49 -4.995
116 T8 50 -3.530
116 T8 51 -3.042
116 T8 52 -3.042
116 T8 53 -1.577
116 T8 54 -0.112
116 T8 55 0.376
116 T8 56 -1.088
116 T8 57 -4.995
116 T8 58 -9.389
116 T8 59 -12.319
116 T8 60 -12.319
116 T8 61 -11.342
116 T8 62 -9.389
116 T8 63 -7.924
116 T8 64 -5.971
116 T8 65 -4.995
116 T8 66 -4.995
116 T8 67 -6.948
116 T8 68 -11.342
116 T8 69 -16.225
116 T8 70 -18.178
116 T8 71 -16.713
116 T8 72 -11.342
116 T8 73 -5.483
116 T8 74 -2.065
116 T8 75 -2.553
116 T8 76 -5.971
116 T8 77 -9.389
116 T8 78 -8.901
116 T8 79 -4.018
116 T8 80 2.818
116 T8 81 7.701
116 T8 82 7.701
116 T8 83 3.306
116 T8 84 -2.553
116 T8 85 -6.460
116 T8 86 -7.436
116 T8 87 -7.436
116 T8 88 -7.924
116 T8 89 -10.366
116 T8 90 -12.807
116 T8 91 -13.295
116 T8 92 -11.831
116 T8 93 -10.854
116 T8 94 -11.342
116 T8 95 -14.272
116 T8 96 -16.713
116 T8 97 -16.225
116 T8 98 -11.831
116 T8 99 -6.460
116 T8 100 -3.042
116 T8 101 -4.018
116 T8 102 -7.924
116 T8 103 -12.807
116 T8 104 -15.249
116 T8 105 -14.272
116 T8 106 -12.319
116 T8 107 -9.389
116 T8 108 -5.483
116 T8 109 -1.577
116 T8 110 1.353
116 T8 111 1.841
116 T8 112 -0.600
116 T8 113 -5.483
116 T8 114 -9.389
116 T8 115 -9.878
116 T8 116 -7.436
116 T8 117 -3.530
116 T8 118 -2.065
116 T8 119 -3.530
116 T8 120 -7.924
116 T8 121 -11.342
116 T8 122 -11.831
116 T8 123 -8.901
116 T8 124 -4.506
116 T8 125 -2.065
116 T8 126 -2.553
116 T8 127 -4.995
116 T8 128 -7.924
116 T8 129 -8.413
116 T8 130 -5.971
116 T8 131 -2.553
116 T8 132 -0.600
116 T8 133 -3.042
116 T8 134 -7.436
116 T8 135 -11.342
116 T8 136 -10.854
116 T8 137 -6.460
116 T8 138 -1.088
116 T8 139 1.841
116 T8 140 -0.112
116 T8 141 -4.995
116 T8 142 -9.389
116 T8 143 -10.854
116 T8 144 -9.389
116 T8 145 -7.436
116 T8 146 -6.948
116 T8 147 -8.901
116 T8 148 -11.831
116 T8 149 -13.784
116 T8 150 -13.295
116 T8 151 -9.878
116 T8 152 -5.971
116 T8 153 -3.042
116 T8 154 -3.530
116 T8 155 -6.948
116 T8 156 -10.854
116 T8 157 -13.295
116 T8 158 -12.319
116 T8 159 -8.901
116 T8 160 -5.971
116 T8 161 -5.971
116 T8 162 -8.413
116 T8 163 -10.854
116 T8 164 -10.854
116 T8 165 -8.413
116 T8 166 -5.483
116 T8 167 -6.460
116 T8 168 -11.342
116 T8 169 -16.713
116 T8 170 -20.131
116 T8 171 -19.643
116 T8 172 -16.225
116 T8 173 -12.807
116 T8 174 -11.342
116 T8 175 -11.342
116 T8 176 -10.854
116 T8 177 -10.366
116 T8 178 -9.878
116 T8 179 -10.854
116 T8 180 -12.319
116 T8 181 -13.784
116 T8 182 -13.784
116 T8 183 -12.807
116 T8 184 -13.295
116 T8 185 -14.760
116 T8 186 -17.202
116 T8 187 -18.667
116 T8 188 -18.178
116 T8 189 -16.713
116 T8 190 -15.249
116 T8 191 -14.272
116 T8 192 -14.272
116 T8 193 -13.295
116 T8 194 -11.342
116 T8 195 -10.366
116 T8 196 -11.342
116 T8 197 -15.249
116 T8 198 -19.155
116 T8 199 -22.085
116 T8 200 -21.596
116 T8 201 -19.155
116 T8 202 -17.202
116 T8 203 -17.202
116 T8 204 -18.667
116 T8 205 -19.643
116 T8 206 -19.155
116 T8 207 -15.737
116 T8 208 -10.366
116 T8 209 -4.506
116 T8 210 -0.112
116 T8 211 1.353
116 T8 212 -0.600
116 T8 213 -5.483
116 T8 214 -10.854
116 T8 215 -15.249
116 T8 216 -17.690
116 T8 217 -18.667
116 T8 218 -19.155
116 T8 219 -19.643
116 T8 220 -21.108
116 T8 221 -22.085
116 T8 222 -21.596
116 T8 223 -18.667
116 T8 224 -15.249
116 T8 225 -12.319
116 T8 226 -13.295
116 T8 227 -15.737
116 T8 228 -19.155
116 T8 229 -21.108
116 T8 230 -19.643
116 T8 231 -15.737
116 T8 232 -11.342
116 T8 233 -7.436
116 T8 234 -6.460
116 T8 235 -7.924
116 T8 236 -11.831
116 T8 237 -16.225
116 T8 238 -20.131
116 T8 239 -21.108
116 T8 240 -20.131
116 T8 241 -17.202
116 T8 242 -15.249
116 T8 243 -13.784
116 T8 244 -15.249
116 T8 245 -17.690
116 T8 246 -20.131
116 T8 247 -22.085
116 T8 248 -22.085
116 T8 249 -19.643
116 T8 250 -16.713
116 T8 251 -14.272
116 T8 252 -14.272
116 T8 253 -16.225
116 T8 254 -19.155
116 T8 255 -20.620
# T7 chan 14
116 T7 0 -0.285
116 T7 1 -0.285
116 T7 2 -2.238
116 T7 3 -5.168
116 T7 4 -7.121
116 T7 5 -7.609
116 T7 6 -6.632
116 T7 7 -5.656
116 T7 8 -6.144
116 T7 9 -7.609
116 T7 10 -8.097
116 T7 11 -7.609
116 T7 12 -5.168
116 T7 13 -2.238
116 T7 14 -1.261
116 T7 15 -1.750
116 T7 16 -3.215
116 T7 17 -5.168
116 T7 18 -5.168
116 T7 19 -4.191
116 T7 20 -2.726
116 T7 21 -2.238
116 T7 22 -2.726
116 T7 23 -4.191
116 T7 24 -5.168
116 T7 25 -5.168
116 T7 26 -4.191
116 T7 27 -3.215
116 T7 28 -2.726
116 T7 29 -2.726
116 T7 30 -3.215
116 T7 31 -3.703
116 T7 32 -4.191
116 T7 33 -4.679
116 T7 34 -5.656
116 T7 35 -5.656
116 T7 36 -5.168
116 T7 37 -3.703
116 T7 38 -2.238
116 T7 39 -2.238
116 T7 40 -4.191
116 T7 41 -8.097
116 T7 42 -11.027
116 T7 43 -12.004
116 T7 44 -10.050
116 T7 45 -5.656
116 T7 46 -3.215
116 T7 47 -3.215
116 T7 48 -5.656
116 T7 49 -8.586
116 T7 50 -10.050
116 T7 51 -9.074
116 T7 52 -7.121
116 T7 53 -5.656
116 T7 54 -5.656
116 T7 55 -7.121
116 T7 56 -8.097
116 T7 57 -7.121
116 T7 58 -5.656
116 T7 59 -5.168
116 T7 60 -5.656
116 T7 61 -7.121
116 T7 62 -8.097
116 T7 63 -7.609
116 T7 64 -6.144
116 T7 65 -4.679
116 T7 66 -4.191
116 T7 67 -6.144
116 T7 68 -9.074
116 T7 69 -11.515
116 T7 70 -12.004
116 T7 71 -10.539
116 T7 72 -8.586
116 T7 73 -7.121
116 T7 74 -7.609
116 T7 75 -9.562
116 T7 76 -11.027
116 T7 77 -11.027
116 T7 78 -8.097
116 T7 79 -3.215
116 T7 80 1.180
116 T7 81 3.133
116 T7 82 1.180
116 T7 83 -1.261
116 T7 84 -3.703
116 T7 85 -4.191
116 T7 86 -2.238
116 T7 87 -1.750
116 T7 88 -2.726
116 T7 89 -6.144
116 T7 90 -9.562
116 T7 91 -11.027
116 T7 92 -9.562
116 T7 93 -6.144
116 T7 94 -3.215
116 T7 95 -0.773
116 T7 96 0.203
116 T7 97 -0.285
116 T7 98 -1.261
116 T7 99 -3.215
116 T7 100 -5.656
116 T7 101 -7.609
116 T7 102 -9.074
116 T7 103 -9.074
116 T7 104 -9.074
116 T7 105 -9.562
116 T7 106 -9.562
116 T7 107 -8.586
116 T7 108 -6.144
116 T7 109 -3.215
116 T7 110 -1.261
116 T7 111 -0.773
116 T7 112 -2.238
116 T7 113 -3.703
116 T7 114 -3.703
116 T7 115 -2.726
116 T7 116 -1.261
116 T7 117 -0.773
116 T7 118 -1.750
116 T7 119 -2.238
116 T7 120 -1.750
116 T7 121 -0.773
116 T7 122 -0.773
116 T7 123 -2.238
116 T7 124 -5.168
116 T7 125 -7.121
116 T7 126 -6.632
116 T7 127 -3.703
116 T7 128 -1.261
116 T7 129 -0.773
116 T7 130 -2.726
116 T7 131 -5.656
116 T7 132 -6.632
116 T7 133 -5.656
116 T7 134 -2.726
116 T7 135 -0.285
116 T7 136 0.203
116 T7 137 -1.261
116 T7 138 -3.703
116 T7 139 -4.679
116 T7 140 -4.191
116 T7 141 -2.726
116 T7 142 -0.285
116 T7 143 0.203
116 T7 144 -1.261
116 T7 145 -3.215
116 T7 146 -5.168
116 T7 147 -5.168
116 T7 148 -3.215
116 T7 149 -0.285
116 T7 150 1.180
116 T7 151 0.203
116 T7 152 -2.726
116 T7 153 -5.168
116 T7 154 -5.656
116 T7 155 -3.703
116 T7 156 -1.261
116 T7 157 -0.773
116 T7 158 -2.238
116 T7 159 -5.168
116 T7 160 -6.632
116 T7 161 -6.632
116 T7 162 -6.144
116 T7 163 -5.656
116 T7 164 -6.144
116 T7 165 -6.632
116 T7 166 -6.632
116 T7 167 -6.144
116 T7 168 -5.656
116 T7 169 -5.656
116 T7 170 -6.632
116 T7 171 -8.097
116 T7 172 -7.121
116 T7 173 -4.679
116 T7 174 -1.750
116 T7 175 -0.285
116 T7 176 -1.261
116 T7 177 -3.703
116 T7 178 -6.144
116 T7 179 -6.632
116 T7 180 -5.168
116 T7 181 -3.215
116 T7 182 -2.238
116 T7 183 -3.703
116 T7 184 -6.632
116 T7 185 -10.050
116 T7 186 -11.515
116 T7 187 -11.515
116 T7 188 -10.539
116 T7 189 -9.562
116 T7 190 -9.562
116 T7 191 -10.539
116 T7 192 -12.004
116 T7 193 -12.492
116 T7 194 -12.004
116 T7 195 -11.515
116 T7 196 -10.539
116 T7 197 -8.586
116 T7 198 -6.632
116 T7 199 -5.168
116 T7 200 -4.191
116 T7 201 -4.191
116 T7 202 -4.679
116 T7 203 -5.168
116 T7 204 -4.191
116 T7 205 -2.726
116 T7 206 -0.285
116 T7 207 0.203
116 T7 208 -0.285
116 T7 209 -2.238
116 T7 210 -4.191
116 T7 211 -6.632
116 T7 212 -7.609
116 T7 213 -7.609
116 T7 214 -7.121
116 T7 215 -7.121
116 T7 216 -7.121
116 T7 217 -8.097
116 T7 218 -8.097
116 T7 219 -7.609
116 T7 220 -5.168
116 T7 221 -2.238
116 T7 222 -0.773
116 T7 223 -1.261
116 T7 224 -4.679
116 T7 225 -10.050
116 T7 226 -14.933
116 T7 227 -16.398
116 T7 228 -14.933
116 T7 229 -11.515
116 T7 230 -7.121
116 T7 231 -4.191
116 T7 232 -3.703
116 T7 233 -4.679
116 T7 234 -6.632
116 T7 235 -8.097
116 T7 236 -9.562
116 T7 237 -10.050
116 T7 238 -9.562
116 T7 239 -8.097
116 T7 240 -6.632
116 T7 241 -5.656
116 T7 242 -6.144
116 T7 243 -7.609
116 T7 244 -9.562
116 T7 245 -11.027
116 T7 246 -10.050
116 T7 247 -8.097
116 T7 248 -6.632
116 T7 249 -6.144
116 T7 250 -6.632
116 T7 251 -6.632
116 T7 252 -6.144
116 T7 253 -4.679
116 T7 254 -4.191
116 T7 255 -5.168
# CZ chan 15
116 CZ 0 -3.296
116 CZ 1 -6.226
116 CZ 2 -8.667
116 CZ 3 -7.690
116 CZ 4 -5.249
116 CZ 5 -2.808
116 CZ 6 -2.319
116 CZ 7 -4.761
116 CZ 8 -10.132
116 CZ 9 -15.015
116 CZ 10 -17.944
116 CZ 11 -18.921
116 CZ 12 -18.433
116 CZ 13 -17.944
116 CZ 14 -15.991
116 CZ 15 -13.550
116 CZ 16 -9.644
116 CZ 17 -5.737
116 CZ 18 -3.784
116 CZ 19 -4.761
116 CZ 20 -7.690
116 CZ 21 -11.597
116 CZ 22 -13.062
116 CZ 23 -12.085
116 CZ 24 -9.155
116 CZ 25 -6.714
116 CZ 26 -5.737
116 CZ 27 -7.202
116 CZ 28 -10.132
116 CZ 29 -11.597
116 CZ 30 -11.597
116 CZ 31 -10.132
116 CZ 32 -8.667
116 CZ 33 -8.667
116 CZ 34 -10.620
116 CZ 35 -12.573
116 CZ 36 -13.062
116 CZ 37 -12.573
116 CZ 38 -11.597
116 CZ 39 -11.597
116 CZ 40 -12.573
116 CZ 41 -13.550
116 CZ 42 -13.062
116 CZ 43 -10.620
116 CZ 44 -8.179
116 CZ 45 -7.202
116 CZ 46 -9.155
116 CZ 47 -12.085
116 CZ 48 -14.038
116 CZ 49 -12.573
116 CZ 50 -7.690
116 CZ 51 -2.808
116 CZ 52 0.610
116 CZ 53 -0.366
116 CZ 54 -4.272
116 CZ 55 -8.667
116 CZ 56 -12.573
116 CZ 57 -15.015
116 CZ 58 -17.456
116 CZ 59 -19.897
116 CZ 60 -21.362
116 CZ 61 -20.386
116 CZ 62 -16.479
116 CZ 63 -12.085
116 CZ 64 -8.667
116 CZ 65 -9.155
116 CZ 66 -13.062
116 CZ 67 -18.921
116 CZ 68 -23.315
116 CZ 69 -24.780
116 CZ 70 -22.827
116 CZ 71 -19.409
116 CZ 72 -16.968
116 CZ 73 -15.015
116 CZ 74 -14.526
116 CZ 75 -14.038
116 CZ 76 -12.573
116 CZ 77 -10.620
116 CZ 78 -7.690
116 CZ 79 -4.272
116 CZ 80 -2.319
116 CZ 81 -0.854
116 CZ 82 -1.831
116 CZ 83 -2.808
116 CZ 84 -3.784
116 CZ 85 -4.272
116 CZ 86 -5.249
116 CZ 87 -7.202
116 CZ 88 -9.644
116 CZ 89 -11.597
116 CZ 90 -12.573
116 CZ 91 -13.550
116 CZ 92 -14.526
116 CZ 93 -16.479
116 CZ 94 -17.456
116 CZ 95 -15.503
116 CZ 96 -11.597
116 CZ 97 -6.714
116 CZ 98 -4.761
116 CZ 99 -6.714
116 CZ 100 -10.620
116 CZ 101 -13.062
116 CZ 102 -12.573
116 CZ 103 -10.132
116 CZ 104 -9.155
116 CZ 105 -10.132
116 CZ 106 -12.085
116 CZ 107 -11.597
116 CZ 108 -7.202
116 CZ 109 -1.831
116 CZ 110 1.099
116 CZ 111 -0.854
116 CZ 112 -5.737
116 CZ 113 -9.155
116 CZ 114 -8.179
116 CZ 115 -3.296
116 CZ 116 2.075
116 CZ 117 3.540
116 CZ 118 0.610
116 CZ 119 -4.272
116 CZ 120 -8.179
116 CZ 121 -9.155
116 CZ 122 -7.690
116 CZ 123 -5.737
116 CZ 124 -3.296
116 CZ 125 -0.854
116 CZ 126 3.052
116 CZ 127 5.493
116 CZ 128 6.470
116 CZ 129 4.028
116 CZ 130 -0.854
116 CZ 131 -5.249
116 CZ 132 -6.226
116 CZ 133 -3.296
116 CZ 134 2.563
116 CZ 135 7.446
116 CZ 136 9.399
116 CZ 137 7.446
116 CZ 138 3.540
116 CZ 139 0.122
116 CZ 140 -0.854
116 CZ 141 0.610
116 CZ 142 3.052
116 CZ 143 4.517
116 CZ 144 3.052
116 CZ 145 -1.343
116 CZ 146 -6.226
116 CZ 147 -8.179
116 CZ 148 -6.226
116 CZ 149 -2.319
116 CZ 150 0.610
116 CZ 151 0.610
116 CZ 152 -2.319
116 CZ 153 -6.714
116 CZ 154 -9.155
116 CZ 155 -9.155
116 CZ 156 -7.690
116 CZ 157 -6.714
116 CZ 158 -6.714
116 CZ 159 -6.714
116 CZ 160 -7.202
116 CZ 161 -7.690
116 CZ 162 -7.690
116 CZ 163 -9.155
116 CZ 164 -11.108
116 CZ 165 -13.550
116 CZ 166 -15.503
116 CZ 167 -17.456
116 CZ 168 -18.921
116 CZ 169 -18.921
116 CZ 170 -17.456
116 CZ 171 -15.015
116 CZ 172 -12.085
116 CZ 173 -11.108
116 CZ 174 -11.108
116 CZ 175 -13.062
116 CZ 176 -15.015
116 CZ 177 -17.456
116 CZ 178 -19.409
116 CZ 179 -21.362
116 CZ 180 -21.851
116 CZ 181 -22.339
116 CZ 182 -21.851
116 CZ 183 -21.362
116 CZ 184 -22.339
116 CZ 185 -24.292
116 CZ 186 -26.245
116 CZ 187 -25.757
116 CZ 188 -23.315
116 CZ 189 -18.921
116 CZ 190 -14.526
116 CZ 191 -12.573
116 CZ 192 -13.062
116 CZ 193 -15.015
116 CZ 194 -17.456
116 CZ 195 -18.433
116 CZ 196 -17.944
116 CZ 197 -17.456
116 CZ 198 -17.456
116 CZ 199 -18.921
116 CZ 200 -20.386
116 CZ 201 -20.386
116 CZ 202 -18.921
116 CZ 203 -15.991
116 CZ 204 -13.550
116 CZ 205 -11.597
116 CZ 206 -10.132
116 CZ 207 -8.667
116 CZ 208 -4.761
116 CZ 209 -0.854
116 CZ 210 2.075
116 CZ 211 0.610
116 CZ 212 -4.761
116 CZ 213 -11.597
116 CZ 214 -16.479
116 CZ 215 -17.456
116 CZ 216 -15.503
116 CZ 217 -12.085
116 CZ 218 -10.620
116 CZ 219 -11.108
116 CZ 220 -12.085
116 CZ 221 -12.085
116 CZ 222 -11.108
116 CZ 223 -10.132
116 CZ 224 -11.108
116 CZ 225 -13.550
116 CZ 226 -15.503
116 CZ 227 -15.503
116 CZ 228 -13.062
116 CZ 229 -9.644
116 CZ 230 -8.179
116 CZ 231 -10.132
116 CZ 232 -14.038
116 CZ 233 -17.456
116 CZ 234 -18.433
116 CZ 235 -16.479
116 CZ 236 -13.062
116 CZ 237 -10.620
116 CZ 238 -9.644
116 CZ 239 -9.644
116 CZ 240 -9.644
116 CZ 241 -9.644
116 CZ 242 -9.644
116 CZ 243 -11.597
116 CZ 244 -14.038
116 CZ 245 -16.968
116 CZ 246 -17.944
116 CZ 247 -16.479
116 CZ 248 -14.038
116 CZ 249 -11.108
116 CZ 250 -9.155
116 CZ 251 -9.155
116 CZ 252 -9.644
116 CZ 253 -11.597
116 CZ 254 -14.526
116 CZ 255 -16.968
# C3 chan 16
116 C3 0 -1.444
116 C3 1 -0.468
116 C3 2 -0.956
116 C3 3 -1.933
116 C3 4 -2.909
116 C3 5 -3.398
116 C3 6 -2.421
116 C3 7 0.020
116 C3 8 2.462
116 C3 9 3.927
116 C3 10 3.927
116 C3 11 2.950
116 C3 12 0.997
116 C3 13 -0.956
116 C3 14 -3.398
116 C3 15 -4.862
116 C3 16 -5.839
116 C3 17 -5.351
116 C3 18 -3.398
116 C3 19 -2.421
116 C3 20 -2.421
116 C3 21 -3.398
116 C3 22 -4.374
116 C3 23 -4.862
116 C3 24 -3.398
116 C3 25 -1.933
116 C3 26 -0.468
116 C3 27 0.020
116 C3 28 0.020
116 C3 29 -0.468
116 C3 30 0.020
116 C3 31 0.509
116 C3 32 1.485
116 C3 33 1.973
116 C3 34 2.462
116 C3 35 2.462
116 C3 36 1.485
116 C3 37 0.020
116 C3 38 -1.933
116 C3 39 -2.909
116 C3 40 -2.909
116 C3 41 -1.933
116 C3 42 -0.956
116 C3 43 -1.444
116 C3 44 -2.421
116 C3 45 -4.862
116 C3 46 -6.816
116 C3 47 -7.792
116 C3 48 -7.304
116 C3 49 -6.816
116 C3 50 -5.839
116 C3 51 -4.862
116 C3 52 -3.886
116 C3 53 -2.909
116 C3 54 -2.421
116 C3 55 -1.444
116 C3 56 -0.956
116 C3 57 -0.468
116 C3 58 -0.956
116 C3 59 -1.444
116 C3 60 -1.933
116 C3 61 -2.421
116 C3 62 -1.933
116 C3 63 -1.933
116 C3 64 -1.933
116 C3 65 -2.421
116 C3 66 -2.421
116 C3 67 -2.421
116 C3 68 -2.421
116 C3 69 -1.933
116 C3 70 -1.933
116 C3 71 -2.909
116 C3 72 -3.886
116 C3 73 -5.351
116 C3 74 -4.862
116 C3 75 -3.398
116 C3 76 -1.444
116 C3 77 -0.468
116 C3 78 -1.444
116 C3 79 -2.909
116 C3 80 -3.886
116 C3 81 -3.398
116 C3 82 -1.444
116 C3 83 0.509
116 C3 84 0.997
116 C3 85 0.020
116 C3 86 -0.956
116 C3 87 -1.933
116 C3 88 -0.956
116 C3 89 0.509
116 C3 90 1.973
116 C3 91 2.950
116 C3 92 2.462
116 C3 93 1.973
116 C3 94 0.997
116 C3 95 0.020
116 C3 96 -1.444
116 C3 97 -2.421
116 C3 98 -2.421
116 C3 99 -1.444
116 C3 100 -0.956
116 C3 101 -1.444
116 C3 102 -2.421
116 C3 103 -3.398
116 C3 104 -2.909
116 C3 105 -0.956
116 C3 106 1.485
116 C3 107 3.438
116 C3 108 2.950
116 C3 109 1.485
116 C3 110 -0.956
116 C3 111 -2.909
116 C3 112 -4.374
116 C3 113 -4.374
116 C3 114 -3.398
116 C3 115 -1.933
116 C3 116 -0.468
116 C3 117 0.509
116 C3 118 1.485
116 C3 119 2.462
116 C3 120 2.462
116 C3 121 1.973
116 C3 122 0.509
116 C3 123 -0.956
116 C3 124 -1.444
116 C3 125 0.020
116 C3 126 1.973
116 C3 127 2.950
116 C3 128 2.462
116 C3 129 1.485
116 C3 130 0.509
116 C3 131 1.485
116 C3 132 2.950
116 C3 133 2.950
116 C3 134 0.509
116 C3 135 -3.886
116 C3 136 -6.816
116 C3 137 -5.839
116 C3 138 -1.933
116 C3 139 2.462
116 C3 140 4.903
116 C3 141 3.438
116 C3 142 -0.468
116 C3 143 -3.398
116 C3 144 -2.909
116 C3 145 0.020
116 C3 146 2.462
116 C3 147 2.950
116 C3 148 1.485
116 C3 149 -0.956
116 C3 150 -1.444
116 C3 151 -0.956
116 C3 152 0.020
116 C3 153 -0.468
116 C3 154 -1.933
116 C3 155 -3.886
116 C3 156 -3.886
116 C3 157 -2.421
116 C3 158 0.509
116 C3 159 1.973
116 C3 160 1.973
116 C3 161 0.509
116 C3 162 -1.933
116 C3 163 -2.909
116 C3 164 -3.398
116 C3 165 -2.421
116 C3 166 -1.933
116 C3 167 -1.933
116 C3 168 -2.421
116 C3 169 -2.421
116 C3 170 -2.421
116 C3 171 -1.933
116 C3 172 -1.933
116 C3 173 -1.933
116 C3 174 -1.933
116 C3 175 -1.444
116 C3 176 -0.468
116 C3 177 0.509
116 C3 178 0.997
116 C3 179 0.020
116 C3 180 -1.444
116 C3 181 -2.909
116 C3 182 -2.421
116 C3 183 -1.444
116 C3 184 0.020
116 C3 185 0.509
116 C3 186 -0.468
116 C3 187 -2.909
116 C3 188 -4.862
116 C3 189 -5.351
116 C3 190 -4.862
116 C3 191 -3.398
116 C3 192 -2.909
116 C3 193 -1.933
116 C3 194 -1.444
116 C3 195 -1.444
116 C3 196 -1.933
116 C3 197 -3.398
116 C3 198 -4.862
116 C3 199 -4.862
116 C3 200 -2.421
116 C3 201 0.997
116 C3 202 3.927
116 C3 203 3.927
116 C3 204 0.509
116 C3 205 -2.909
116 C3 206 -5.351
116 C3 207 -5.351
116 C3 208 -3.398
116 C3 209 -1.444
116 C3 210 -1.444
116 C3 211 -2.421
116 C3 212 -3.886
116 C3 213 -3.886
116 C3 214 -3.398
116 C3 215 -2.421
116 C3 216 -1.933
116 C3 217 -2.421
116 C3 218 -2.421
116 C3 219 -1.444
116 C3 220 0.020
116 C3 221 -0.468
116 C3 222 -2.421
116 C3 223 -4.374
116 C3 224 -5.839
116 C3 225 -6.327
116 C3 226 -5.839
116 C3 227 -6.327
116 C3 228 -7.304
116 C3 229 -8.280
116 C3 230 -7.792
116 C3 231 -5.839
116 C3 232 -3.886
116 C3 233 -3.886
116 C3 234 -5.351
116 C3 235 -7.792
116 C3 236 -8.280
116 C3 237 -7.304
116 C3 238 -5.351
116 C3 239 -3.886
116 C3 240 -3.886
116 C3 241 -4.374
116 C3 242 -4.374
116 C3 243 -3.398
116 C3 244 -2.421
116 C3 245 -2.421
116 C3 246 -3.886
116 C3 247 -5.839
116 C3 248 -7.304
116 C3 249 -7.792
116 C3 250 -6.816
116 C3 251 -5.351
116 C3 252 -3.886
116 C3 253 -2.909
116 C3 254 -2.421
116 C3 255 -2.421
# C4 chan 17
116 C4 0 3.947
116 C4 1 3.947
116 C4 2 3.459
116 C4 3 2.482
116 C4 4 1.017
116 C4 5 0.041
116 C4 6 -1.424
116 C4 7 -1.912
116 C4 8 -3.377
116 C4 9 -4.354
116 C4 10 -5.330
116 C4 11 -4.842
116 C4 12 -3.377
116 C4 13 -1.424
116 C4 14 -0.448
116 C4 15 0.041
116 C4 16 -0.936
116 C4 17 -2.401
116 C4 18 -2.889
116 C4 19 -1.912
116 C4 20 -0.448
116 C4 21 1.017
116 C4 22 1.017
116 C4 23 0.041
116 C4 24 -1.912
116 C4 25 -2.889
116 C4 26 -3.377
116 C4 27 -2.401
116 C4 28 -1.912
116 C4 29 -2.401
116 C4 30 -3.377
116 C4 31 -4.354
116 C4 32 -5.330
116 C4 33 -4.842
116 C4 34 -4.354
116 C4 35 -3.866
116 C4 36 -3.377
116 C4 37 -2.401
116 C4 38 -1.912
116 C4 39 -1.424
116 C4 40 -1.912
116 C4 41 -2.889
116 C4 42 -4.354
116 C4 43 -5.819
116 C4 44 -5.819
116 C4 45 -4.842
116 C4 46 -2.889
116 C4 47 -1.424
116 C4 48 0.041
116 C4 49 0.529
116 C4 50 0.529
116 C4 51 -0.448
116 C4 52 -1.424
116 C4 53 -1.424
116 C4 54 -1.424
116 C4 55 -1.424
116 C4 56 -1.424
116 C4 57 -1.912
116 C4 58 -2.401
116 C4 59 -2.889
116 C4 60 -3.377
116 C4 61 -3.377
116 C4 62 -3.377
116 C4 63 -2.889
116 C4 64 -2.401
116 C4 65 -1.912
116 C4 66 -1.424
116 C4 67 -0.936
116 C4 68 -0.936
116 C4 69 -1.424
116 C4 70 -1.912
116 C4 71 -2.889
116 C4 72 -3.866
116 C4 73 -3.377
116 C4 74 -2.889
116 C4 75 -0.936
116 C4 76 0.529
116 C4 77 0.529
116 C4 78 -0.936
116 C4 79 -1.912
116 C4 80 -1.912
116 C4 81 -0.936
116 C4 82 0.041
116 C4 83 0.529
116 C4 84 -0.448
116 C4 85 -1.912
116 C4 86 -2.401
116 C4 87 -1.424
116 C4 88 0.529
116 C4 89 0.529
116 C4 90 -1.424
116 C4 91 -4.354
116 C4 92 -6.795
116 C4 93 -7.772
116 C4 94 -6.795
116 C4 95 -4.842
116 C4 96 -3.866
116 C4 97 -3.377
116 C4 98 -4.354
116 C4 99 -5.819
116 C4 100 -6.307
116 C4 101 -6.795
116 C4 102 -6.307
116 C4 103 -5.330
116 C4 104 -3.866
116 C4 105 -3.377
116 C4 106 -3.866
116 C4 107 -5.819
116 C4 108 -8.260
116 C4 109 -9.237
116 C4 110 -7.772
116 C4 111 -4.354
116 C4 112 0.041
116 C4 113 2.970
116 C4 114 2.970
116 C4 115 1.017
116 C4 116 -0.448
116 C4 117 -0.448
116 C4 118 0.529
116 C4 119 0.529
116 C4 120 0.041
116 C4 121 -0.936
116 C4 122 -1.912
116 C4 123 -2.401
116 C4 124 -2.889
116 C4 125 -4.354
116 C4 126 -5.819
116 C4 127 -6.307
116 C4 128 -4.842
116 C4 129 -1.912
116 C4 130 -0.448
116 C4 131 -0.448
116 C4 132 -2.889
116 C4 133 -5.330
116 C4 134 -4.842
116 C4 135 -1.912
116 C4 136 1.017
116 C4 137 1.506
116 C4 138 -1.424
116 C4 139 -5.330
116 C4 140 -6.795
116 C4 141 -5.330
116 C4 142 -1.912
116 C4 143 0.529
116 C4 144 0.041
116 C4 145 -2.889
116 C4 146 -6.795
116 C4 147 -9.237
116 C4 148 -9.725
116 C4 149 -8.260
116 C4 150 -6.795
116 C4 151 -5.330
116 C4 152 -3.866
116 C4 153 -2.401
116 C4 154 -0.448
116 C4 155 1.017
116 C4 156 1.017
116 C4 157 0.041
116 C4 158 -2.401
116 C4 159 -4.842
116 C4 160 -5.819
116 C4 161 -5.330
116 C4 162 -4.354
116 C4 163 -3.377
116 C4 164 -2.889
116 C4 165 -2.889
116 C4 166 -2.889
116 C4 167 -2.401
116 C4 168 -2.401
116 C4 169 -2.889
116 C4 170 -3.866
116 C4 171 -5.330
116 C4 172 -5.819
116 C4 173 -5.330
116 C4 174 -5.330
116 C4 175 -4.842
116 C4 176 -5.330
116 C4 177 -5.819
116 C4 178 -5.819
116 C4 179 -4.842
116 C4 180 -3.377
116 C4 181 -3.377
116 C4 182 -3.866
116 C4 183 -5.330
116 C4 184 -6.307
116 C4 185 -6.795
116 C4 186 -6.307
116 C4 187 -6.307
116 C4 188 -6.795
116 C4 189 -6.795
116 C4 190 -7.284
116 C4 191 -7.284
116 C4 192 -7.284
116 C4 193 -8.260
116 C4 194 -9.725
116 C4 195 -10.701
116 C4 196 -11.190
116 C4 197 -11.190
116 C4 198 -10.213
116 C4 199 -9.237
116 C4 200 -8.748
116 C4 201 -8.260
116 C4 202 -8.748
116 C4 203 -8.260
116 C4 204 -7.772
116 C4 205 -6.307
116 C4 206 -4.354
116 C4 207 -3.866
116 C4 208 -4.354
116 C4 209 -6.307
116 C4 210 -7.284
116 C4 211 -7.772
116 C4 212 -7.284
116 C4 213 -7.284
116 C4 214 -8.260
116 C4 215 -10.213
116 C4 216 -12.655
116 C4 217 -15.096
116 C4 218 -16.561
116 C4 219 -17.537
116 C4 220 -18.026
116 C4 221 -17.537
116 C4 222 -16.561
116 C4 223 -15.096
116 C4 224 -12.655
116 C4 225 -11.190
116 C4 226 -10.701
116 C4 227 -11.190
116 C4 228 -12.166
116 C4 229 -13.143
116 C4 230 -13.143
116 C4 231 -13.631
116 C4 232 -13.631
116 C4 233 -14.119
116 C4 234 -14.119
116 C4 235 -14.119
116 C4 236 -14.119
116 C4 237 -13.631
116 C4 238 -13.631
116 C4 239 -14.119
116 C4 240 -14.119
116 C4 241 -14.119
116 C4 242 -14.608
116 C4 243 -14.608
116 C4 244 -14.608
116 C4 245 -15.096
116 C4 246 -15.096
116 C4 247 -15.584
116 C4 248 -16.561
116 C4 249 -17.049
116 C4 250 -17.537
116 C4 251 -18.026
116 C4 252 -18.514
116 C4 253 -18.026
116 C4 254 -18.026
116 C4 255 -17.049
# CP5 chan 18
116 CP5 0 -3.337
116 CP5 1 -1.872
116 CP5 2 -1.383
116 CP5 3 -2.848
116 CP5 4 -4.801
116 CP5 5 -4.801
116 CP5 6 -3.337
116 CP5 7 -1.383
116 CP5 8 0.570
116 CP5 9 1.546
116 CP5 10 2.035
116 CP5 11 2.523
116 CP5 12 2.523
116 CP5 13 2.035
116 CP5 14 1.058
116 CP5 15 0.081
116 CP5 16 -0.895
116 CP5 17 -1.383
116 CP5 18 -2.360
116 CP5 19 -3.337
116 CP5 20 -4.801
116 CP5 21 -6.266
116 CP5 22 -6.266
116 CP5 23 -5.290
116 CP5 24 -3.825
116 CP5 25 -2.848
116 CP5 26 -2.848
116 CP5 27 -3.337
116 CP5 28 -4.313
116 CP5 29 -3.825
116 CP5 30 -3.337
116 CP5 31 -2.848
116 CP5 32 -2.360
116 CP5 33 -1.872
116 CP5 34 -1.872
116 CP5 35 -1.383
116 CP5 36 -0.895
116 CP5 37 -0.407
116 CP5 38 -0.895
116 CP5 39 -1.872
116 CP5 40 -3.337
116 CP5 41 -4.801
116 CP5 42 -6.755
116 CP5 43 -8.219
116 CP5 44 -10.173
116 CP5 45 -11.149
116 CP5 46 -11.149
116 CP5 47 -10.661
116 CP5 48 -9.684
116 CP5 49 -9.684
116 CP5 50 -9.684
116 CP5 51 -9.684
116 CP5 52 -9.196
116 CP5 53 -8.219
116 CP5 54 -7.243
116 CP5 55 -6.266
116 CP5 56 -5.290
116 CP5 57 -4.313
116 CP5 58 -3.825
116 CP5 59 -3.825
116 CP5 60 -4.313
116 CP5 61 -4.801
116 CP5 62 -5.290
116 CP5 63 -4.313
116 CP5 64 -2.848
116 CP5 65 -0.895
116 CP5 66 0.081
116 CP5 67 -0.407
116 CP5 68 -1.383
116 CP5 69 -2.848
116 CP5 70 -3.825
116 CP5 71 -4.313
116 CP5 72 -4.801
116 CP5 73 -5.290
116 CP5 74 -5.290
116 CP5 75 -4.801
116 CP5 76 -3.825
116 CP5 77 -3.337
116 CP5 78 -2.360
116 CP5 79 -2.848
116 CP5 80 -3.337
116 CP5 81 -2.360
116 CP5 82 -0.895
116 CP5 83 1.546
116 CP5 84 3.011
116 CP5 85 3.988
116 CP5 86 3.011
116 CP5 87 1.546
116 CP5 88 0.570
116 CP5 89 -0.407
116 CP5 90 0.081
116 CP5 91 0.570
116 CP5 92 0.081
116 CP5 93 0.570
116 CP5 94 0.081
116 CP5 95 0.081
116 CP5 96 -0.407
116 CP5 97 -0.895
116 CP5 98 -1.872
116 CP5 99 -2.848
116 CP5 100 -2.848
116 CP5 101 -3.337
116 CP5 102 -3.337
116 CP5 103 -3.337
116 CP5 104 -3.825
116 CP5 105 -3.825
116 CP5 106 -3.825
116 CP5 107 -3.337
116 CP5 108 -1.872
116 CP5 109 -0.407
116 CP5 110 1.058
116 CP5 111 1.546
116 CP5 112 1.058
116 CP5 113 0.570
116 CP5 114 0.081
116 CP5 115 0.081
116 CP5 116 2.035
116 CP5 117 3.988
116 CP5 118 5.452
116 CP5 119 5.941
116 CP5 120 4.964
116 CP5 121 2.523
116 CP5 122 0.081
116 CP5 123 -1.872
116 CP5 124 -2.848
116 CP5 125 -1.383
116 CP5 126 1.546
116 CP5 127 3.499
116 CP5 128 3.499
116 CP5 129 1.058
116 CP5 130 -2.848
116 CP5 131 -4.801
116 CP5 132 -4.801
116 CP5 133 -3.337
116 CP5 134 -1.383
116 CP5 135 -0.895
116 CP5 136 -1.383
116 CP5 137 -2.360
116 CP5 138 -2.360
116 CP5 139 -0.407
116 CP5 140 1.058
116 CP5 141 2.523
116 CP5 142 3.011
116 CP5 143 3.011
116 CP5 144 3.011
116 CP5 145 3.011
116 CP5 146 3.011
116 CP5 147 2.523
116 CP5 148 1.546
116 CP5 149 1.058
116 CP5 150 1.058
116 CP5 151 1.058
116 CP5 152 1.546
116 CP5 153 1.058
116 CP5 154 1.058
116 CP5 155 1.546
116 CP5 156 2.523
116 CP5 157 3.988
116 CP5 158 4.476
116 CP5 159 3.988
116 CP5 160 2.035
116 CP5 161 0.570
116 CP5 162 -0.407
116 CP5 163 -0.407
116 CP5 164 -0.407
116 CP5 165 -1.383
116 CP5 166 -2.360
116 CP5 167 -3.825
116 CP5 168 -3.825
116 CP5 169 -2.360
116 CP5 170 -0.407
116 CP5 171 1.058
116 CP5 172 2.523
116 CP5 173 3.499
116 CP5 174 3.988
116 CP5 175 4.964
116 CP5 176 6.429
116 CP5 177 6.917
116 CP5 178 6.429
116 CP5 179 4.964
116 CP5 180 3.499
116 CP5 181 3.011
116 CP5 182 3.499
116 CP5 183 4.964
116 CP5 184 5.452
116 CP5 185 4.476
116 CP5 186 2.035
116 CP5 187 -0.895
116 CP5 188 -2.848
116 CP5 189 -3.337
116 CP5 190 -2.360
116 CP5 191 -0.407
116 CP5 192 1.058
116 CP5 193 2.035
116 CP5 194 2.035
116 CP5 195 1.546
116 CP5 196 0.570
116 CP5 197 -0.407
116 CP5 198 -0.407
116 CP5 199 0.570
116 CP5 200 3.011
116 CP5 201 5.452
116 CP5 202 6.917
116 CP5 203 6.917
116 CP5 204 4.964
116 CP5 205 1.546
116 CP5 206 -0.895
116 CP5 207 -1.383
116 CP5 208 0.081
116 CP5 209 2.523
116 CP5 210 3.988
116 CP5 211 3.988
116 CP5 212 2.523
116 CP5 213 1.546
116 CP5 214 1.058
116 CP5 215 2.035
116 CP5 216 2.523
116 CP5 217 3.011
116 CP5 218 3.011
116 CP5 219 2.035
116 CP5 220 2.035
116 CP5 221 2.035
116 CP5 222 1.546
116 CP5 223 0.570
116 CP5 224 -1.383
116 CP5 225 -3.337
116 CP5 226 -5.290
116 CP5 227 -6.755
116 CP5 228 -7.243
116 CP5 229 -7.243
116 CP5 230 -5.778
116 CP5 231 -3.337
116 CP5 232 -1.383
116 CP5 233 0.081
116 CP5 234 -0.407
116 CP5 235 -1.383
116 CP5 236 -2.360
116 CP5 237 -2.360
116 CP5 238 -1.383
116 CP5 239 -0.407
116 CP5 240 1.058
116 CP5 241 1.546
116 CP5 242 1.546
116 CP5 243 1.058
116 CP5 244 0.570
116 CP5 245 0.570
116 CP5 246 0.081
116 CP5 247 0.081
116 CP5 248 -0.407
116 CP5 249 -0.407
116 CP5 250 0.081
116 CP5 251 0.570
116 CP5 252 1.058
116 CP5 253 2.035
116 CP5 254 2.035
116 CP5 255 1.058
# CP6 chan 19
116 CP6 0 1.546
116 CP6 1 1.546
116 CP6 2 1.058
116 CP6 3 -0.407
116 CP6 4 -1.383
116 CP6 5 -2.848
116 CP6 6 -4.801
116 CP6 7 -7.243
116 CP6 8 -9.196
116 CP6 9 -10.173
116 CP6 10 -8.708
116 CP6 11 -7.243
116 CP6 12 -5.290
116 CP6 13 -4.313
116 CP6 14 -3.337
116 CP6 15 -2.360
116 CP6 16 -0.895
116 CP6 17 0.081
116 CP6 18 0.081
116 CP6 19 -0.407
116 CP6 20 -1.383
116 CP6 21 -2.360
116 CP6 22 -2.848
116 CP6 23 -2.360
116 CP6 24 -1.383
116 CP6 25 -0.407
116 CP6 26 -0.895
116 CP6 27 -1.872
116 CP6 28 -3.825
116 CP6 29 -5.778
116 CP6 30 -7.243
116 CP6 31 -7.243
116 CP6 32 -6.755
116 CP6 33 -5.290
116 CP6 34 -4.801
116 CP6 35 -4.801
116 CP6 36 -4.801
116 CP6 37 -5.290
116 CP6 38 -5.290
116 CP6 39 -5.290
116 CP6 40 -6.266
116 CP6 41 -7.731
116 CP6 42 -9.684
116 CP6 43 -10.661
116 CP6 44 -10.173
116 CP6 45 -8.219
116 CP6 46 -5.778
116 CP6 47 -3.825
116 CP6 48 -3.337
116 CP6 49 -2.848
116 CP6 50 -1.872
116 CP6 51 0.081
116 CP6 52 2.523
116 CP6 53 3.499
116 CP6 54 3.011
116 CP6 55 -0.407
116 CP6 56 -2.360
116 CP6 57 -3.825
116 CP6 58 -3.825
116 CP6 59 -3.825
116 CP6 60 -4.313
116 CP6 61 -6.755
116 CP6 62 -8.219
116 CP6 63 -7.731
116 CP6 64 -5.778
116 CP6 65 -3.337
116 CP6 66 -2.360
116 CP6 67 -3.337
116 CP6 68 -5.290
116 CP6 69 -6.266
116 CP6 70 -5.778
116 CP6 71 -4.313
116 CP6 72 -2.360
116 CP6 73 -0.895
116 CP6 74 -1.383
116 CP6 75 -1.383
116 CP6 76 -1.872
116 CP6 77 -1.872
116 CP6 78 -1.872
116 CP6 79 -1.872
116 CP6 80 -0.895
116 CP6 81 -0.407
116 CP6 82 0.570
116 CP6 83 1.058
116 CP6 84 1.058
116 CP6 85 0.570
116 CP6 86 -0.407
116 CP6 87 -1.383
116 CP6 88 -2.360
116 CP6 89 -3.337
116 CP6 90 -4.313
116 CP6 91 -6.266
116 CP6 92 -7.243
116 CP6 93 -8.219
116 CP6 94 -7.731
116 CP6 95 -5.778
116 CP6 96 -3.337
116 CP6 97 -2.848
116 CP6 98 -3.337
116 CP6 99 -5.778
116 CP6 100 -8.219
116 CP6 101 -8.708
116 CP6 102 -7.243
116 CP6 103 -4.313
116 CP6 104 -1.872
116 CP6 105 -1.383
116 CP6 106 -2.360
116 CP6 107 -4.313
116 CP6 108 -4.801
116 CP6 109 -3.825
116 CP6 110 -1.383
116 CP6 111 1.546
116 CP6 112 3.011
116 CP6 113 2.523
116 CP6 114 1.546
116 CP6 115 0.570
116 CP6 116 0.570
116 CP6 117 0.570
116 CP6 118 1.058
116 CP6 119 0.570
116 CP6 120 -0.895
116 CP6 121 -2.360
116 CP6 122 -2.848
116 CP6 123 -3.825
116 CP6 124 -5.290
116 CP6 125 -7.243
116 CP6 126 -8.219
116 CP6 127 -7.731
116 CP6 128 -5.290
116 CP6 129 -2.360
116 CP6 130 -1.383
116 CP6 131 -2.848
116 CP6 132 -5.778
116 CP6 133 -7.731
116 CP6 134 -7.243
116 CP6 135 -4.801
116 CP6 136 -2.360
116 CP6 137 -1.872
116 CP6 138 -2.848
116 CP6 139 -4.313
116 CP6 140 -4.801
116 CP6 141 -3.825
116 CP6 142 -1.872
116 CP6 143 -1.383
116 CP6 144 -2.848
116 CP6 145 -5.778
116 CP6 146 -8.708
116 CP6 147 -10.173
116 CP6 148 -9.684
116 CP6 149 -8.219
116 CP6 150 -6.755
116 CP6 151 -6.266
116 CP6 152 -5.778
116 CP6 153 -5.290
116 CP6 154 -3.825
116 CP6 155 -2.360
116 CP6 156 -1.872
116 CP6 157 -2.848
116 CP6 158 -5.290
116 CP6 159 -6.755
116 CP6 160 -7.243
116 CP6 161 -5.290
116 CP6 162 -2.848
116 CP6 163 -0.895
116 CP6 164 -0.407
116 CP6 165 -1.383
116 CP6 166 -2.360
116 CP6 167 -2.848
116 CP6 168 -2.848
116 CP6 169 -2.360
116 CP6 170 -2.360
116 CP6 171 -2.848
116 CP6 172 -3.337
116 CP6 173 -2.848
116 CP6 174 -1.383
116 CP6 175 -0.895
116 CP6 176 -1.383
116 CP6 177 -3.337
116 CP6 178 -4.801
116 CP6 179 -5.290
116 CP6 180 -4.313
116 CP6 181 -2.848
116 CP6 182 -1.383
116 CP6 183 -1.872
116 CP6 184 -3.337
116 CP6 185 -5.290
116 CP6 186 -6.266
116 CP6 187 -6.755
116 CP6 188 -6.266
116 CP6 189 -6.266
116 CP6 190 -6.266
116 CP6 191 -6.266
116 CP6 192 -6.755
116 CP6 193 -7.243
116 CP6 194 -7.731
116 CP6 195 -8.708
116 CP6 196 -9.684
116 CP6 197 -10.173
116 CP6 198 -9.684
116 CP6 199 -9.684
116 CP6 200 -9.196
116 CP6 201 -9.196
116 CP6 202 -9.196
116 CP6 203 -8.219
116 CP6 204 -6.266
116 CP6 205 -3.825
116 CP6 206 -1.872
116 CP6 207 -1.383
116 CP6 208 -2.360
116 CP6 209 -3.337
116 CP6 210 -3.825
116 CP6 211 -2.848
116 CP6 212 -1.383
116 CP6 213 -1.383
116 CP6 214 -3.337
116 CP6 215 -6.266
116 CP6 216 -9.196
116 CP6 217 -10.661
116 CP6 218 -11.149
116 CP6 219 -10.661
116 CP6 220 -10.173
116 CP6 221 -10.661
116 CP6 222 -10.661
116 CP6 223 -10.661
116 CP6 224 -10.173
116 CP6 225 -9.196
116 CP6 226 -9.196
116 CP6 227 -9.196
116 CP6 228 -8.708
116 CP6 229 -8.219
116 CP6 230 -7.243
116 CP6 231 -6.755
116 CP6 232 -6.755
116 CP6 233 -7.731
116 CP6 234 -9.196
116 CP6 235 -10.173
116 CP6 236 -10.173
116 CP6 237 -9.196
116 CP6 238 -8.219
116 CP6 239 -7.243
116 CP6 240 -6.266
116 CP6 241 -6.266
116 CP6 242 -7.243
116 CP6 243 -9.196
116 CP6 244 -11.149
116 CP6 245 -12.614
116 CP6 246 -13.102
116 CP6 247 -12.614
116 CP6 248 -11.637
116 CP6 249 -11.149
116 CP6 250 -11.149
116 CP6 251 -11.149
116 CP6 252 -11.637
116 CP6 253 -12.126
116 CP6 254 -12.126
116 CP6 255 -11.637
# CP1 chan 20
116 CP1 0 -0.031
116 CP1 1 -0.031
116 CP1 2 -0.519
116 CP1 3 -1.984
116 CP1 4 -2.960
116 CP1 5 -2.472
116 CP1 6 -1.984
116 CP1 7 -1.007
116 CP1 8 -0.519
116 CP1 9 -0.031
116 CP1 10 0.458
116 CP1 11 0.458
116 CP1 12 0.458
116 CP1 13 -0.519
116 CP1 14 -0.519
116 CP1 15 -1.007
116 CP1 16 -1.007
116 CP1 17 -0.519
116 CP1 18 -1.007
116 CP1 19 -2.472
116 CP1 20 -4.425
116 CP1 21 -5.890
116 CP1 22 -6.378
116 CP1 23 -5.890
116 CP1 24 -4.913
116 CP1 25 -3.937
116 CP1 26 -2.960
116 CP1 27 -2.960
116 CP1 28 -2.472
116 CP1 29 -1.984
116 CP1 30 -1.984
116 CP1 31 -1.984
116 CP1 32 -1.984
116 CP1 33 -1.495
116 CP1 34 -1.007
116 CP1 35 -0.031
116 CP1 36 -0.031
116 CP1 37 -0.519
116 CP1 38 -1.495
116 CP1 39 -2.472
116 CP1 40 -2.960
116 CP1 41 -3.937
116 CP1 42 -4.425
116 CP1 43 -5.890
116 CP1 44 -6.866
116 CP1 45 -7.355
116 CP1 46 -7.355
116 CP1 47 -6.866
116 CP1 48 -6.378
116 CP1 49 -6.378
116 CP1 50 -6.378
116 CP1 51 -6.378
116 CP1 52 -5.890
116 CP1 53 -5.402
116 CP1 54 -4.425
116 CP1 55 -3.448
116 CP1 56 -2.960
116 CP1 57 -1.984
116 CP1 58 -1.007
116 CP1 59 -0.519
116 CP1 60 -1.007
116 CP1 61 -2.472
116 CP1 62 -2.960
116 CP1 63 -2.960
116 CP1 64 -1.984
116 CP1 65 -0.519
116 CP1 66 -0.031
116 CP1 67 -0.519
116 CP1 68 -1.495
116 CP1 69 -1.984
116 CP1 70 -2.472
116 CP1 71 -2.472
116 CP1 72 -2.960
116 CP1 73 -3.937
116 CP1 74 -4.913
116 CP1 75 -5.402
116 CP1 76 -5.402
116 CP1 77 -5.402
116 CP1 78 -5.402
116 CP1 79 -6.378
116 CP1 80 -6.378
116 CP1 81 -5.890
116 CP1 82 -4.425
116 CP1 83 -2.960
116 CP1 84 -1.984
116 CP1 85 -1.984
116 CP1 86 -2.960
116 CP1 87 -3.448
116 CP1 88 -3.448
116 CP1 89 -2.960
116 CP1 90 -2.472
116 CP1 91 -2.472
116 CP1 92 -2.472
116 CP1 93 -2.960
116 CP1 94 -3.448
116 CP1 95 -4.425
116 CP1 96 -4.913
116 CP1 97 -5.402
116 CP1 98 -5.402
116 CP1 99 -6.378
116 CP1 100 -6.866
116 CP1 101 -7.355
116 CP1 102 -7.843
116 CP1 103 -7.843
116 CP1 104 -7.355
116 CP1 105 -7.355
116 CP1 106 -6.866
116 CP1 107 -6.378
116 CP1 108 -5.890
116 CP1 109 -4.913
116 CP1 110 -3.937
116 CP1 111 -2.960
116 CP1 112 -2.472
116 CP1 113 -2.960
116 CP1 114 -3.448
116 CP1 115 -3.937
116 CP1 116 -3.448
116 CP1 117 -2.472
116 CP1 118 -1.007
116 CP1 119 -0.031
116 CP1 120 -0.031
116 CP1 121 -0.519
116 CP1 122 -1.495
116 CP1 123 -2.472
116 CP1 124 -3.448
116 CP1 125 -4.425
116 CP1 126 -4.425
116 CP1 127 -4.425
116 CP1 128 -4.425
116 CP1 129 -4.425
116 CP1 130 -4.913
116 CP1 131 -5.402
116 CP1 132 -5.890
116 CP1 133 -6.378
116 CP1 134 -7.355
116 CP1 135 -8.331
116 CP1 136 -8.820
116 CP1 137 -8.331
116 CP1 138 -6.866
116 CP1 139 -5.402
116 CP1 140 -4.425
116 CP1 141 -3.937
116 CP1 142 -3.937
116 CP1 143 -3.937
116 CP1 144 -3.937
116 CP1 145 -3.448
116 CP1 146 -2.960
116 CP1 147 -2.960
116 CP1 148 -3.448
116 CP1 149 -2.960
116 CP1 150 -2.960
116 CP1 151 -2.472
116 CP1 152 -2.960
116 CP1 153 -3.448
116 CP1 154 -4.425
116 CP1 155 -4.913
116 CP1 156 -5.402
116 CP1 157 -5.402
116 CP1 158 -5.402
116 CP1 159 -4.425
116 CP1 160 -4.425
116 CP1 161 -3.937
116 CP1 162 -3.937
116 CP1 163 -4.425
116 CP1 164 -4.913
116 CP1 165 -4.913
116 CP1 166 -4.425
116 CP1 167 -3.937
116 CP1 168 -2.960
116 CP1 169 -2.472
116 CP1 170 -1.984
116 CP1 171 -2.472
116 CP1 172 -2.472
116 CP1 173 -2.960
116 CP1 174 -2.472
116 CP1 175 -1.984
116 CP1 176 -1.007
116 CP1 177 -0.519
116 CP1 178 -1.007
116 CP1 179 -1.984
116 CP1 180 -2.472
116 CP1 181 -2.472
116 CP1 182 -1.984
116 CP1 183 -1.007
116 CP1 184 -0.519
116 CP1 185 -1.495
116 CP1 186 -2.960
116 CP1 187 -4.425
116 CP1 188 -5.402
116 CP1 189 -5.890
116 CP1 190 -5.402
116 CP1 191 -4.913
116 CP1 192 -4.425
116 CP1 193 -4.425
116 CP1 194 -3.937
116 CP1 195 -3.937
116 CP1 196 -4.425
116 CP1 197 -4.913
116 CP1 198 -5.402
116 CP1 199 -5.890
116 CP1 200 -5.402
116 CP1 201 -3.937
116 CP1 202 -2.960
116 CP1 203 -2.472
116 CP1 204 -3.448
116 CP1 205 -4.913
116 CP1 206 -5.890
116 CP1 207 -5.402
116 CP1 208 -4.425
116 CP1 209 -2.960
116 CP1 210 -2.472
116 CP1 211 -2.472
116 CP1 212 -2.960
116 CP1 213 -3.448
116 CP1 214 -3.937
116 CP1 215 -4.425
116 CP1 216 -4.913
116 CP1 217 -4.913
116 CP1 218 -4.913
116 CP1 219 -4.425
116 CP1 220 -3.937
116 CP1 221 -4.425
116 CP1 222 -4.913
116 CP1 223 -5.890
116 CP1 224 -7.355
116 CP1 225 -8.331
116 CP1 226 -9.308
116 CP1 227 -9.796
116 CP1 228 -9.796
116 CP1 229 -9.308
116 CP1 230 -8.820
116 CP1 231 -7.355
116 CP1 232 -6.378
116 CP1 233 -6.378
116 CP1 234 -7.355
116 CP1 235 -8.331
116 CP1 236 -9.308
116 CP1 237 -9.796
116 CP1 238 -9.308
116 CP1 239 -8.331
116 CP1 240 -7.843
116 CP1 241 -7.355
116 CP1 242 -6.866
116 CP1 243 -6.866
116 CP1 244 -6.866
116 CP1 245 -7.355
116 CP1 246 -8.331
116 CP1 247 -8.820
116 CP1 248 -9.308
116 CP1 249 -8.820
116 CP1 250 -8.331
116 CP1 251 -7.843
116 CP1 252 -7.355
116 CP1 253 -6.866
116 CP1 254 -6.866
116 CP1 255 -7.355
# CP2 chan 21
116 CP2 0 0.570
116 CP2 1 1.058
116 CP2 2 0.081
116 CP2 3 -1.383
116 CP2 4 -2.360
116 CP2 5 -3.337
116 CP2 6 -3.825
116 CP2 7 -4.313
116 CP2 8 -4.313
116 CP2 9 -4.313
116 CP2 10 -3.825
116 CP2 11 -3.337
116 CP2 12 -2.360
116 CP2 13 -1.872
116 CP2 14 -0.895
116 CP2 15 -0.407
116 CP2 16 -0.407
116 CP2 17 -0.407
116 CP2 18 -0.895
116 CP2 19 -1.383
116 CP2 20 -2.360
116 CP2 21 -3.337
116 CP2 22 -3.337
116 CP2 23 -3.825
116 CP2 24 -3.825
116 CP2 25 -3.337
116 CP2 26 -3.825
116 CP2 27 -4.313
116 CP2 28 -4.313
116 CP2 29 -4.801
116 CP2 30 -4.801
116 CP2 31 -4.801
116 CP2 32 -4.313
116 CP2 33 -3.825
116 CP2 34 -3.337
116 CP2 35 -2.848
116 CP2 36 -2.360
116 CP2 37 -2.360
116 CP2 38 -1.872
116 CP2 39 -2.360
116 CP2 40 -3.337
116 CP2 41 -4.801
116 CP2 42 -6.266
116 CP2 43 -6.755
116 CP2 44 -6.755
116 CP2 45 -6.755
116 CP2 46 -6.266
116 CP2 47 -5.290
116 CP2 48 -5.290
116 CP2 49 -5.290
116 CP2 50 -4.801
116 CP2 51 -4.801
116 CP2 52 -4.313
116 CP2 53 -3.825
116 CP2 54 -4.313
116 CP2 55 -3.825
116 CP2 56 -3.825
116 CP2 57 -2.360
116 CP2 58 -1.383
116 CP2 59 -0.895
116 CP2 60 -1.383
116 CP2 61 -2.360
116 CP2 62 -3.337
116 CP2 63 -3.825
116 CP2 64 -2.360
116 CP2 65 -0.895
116 CP2 66 0.570
116 CP2 67 0.081
116 CP2 68 -0.895
116 CP2 69 -1.383
116 CP2 70 -2.848
116 CP2 71 -3.337
116 CP2 72 -3.337
116 CP2 73 -3.337
116 CP2 74 -3.825
116 CP2 75 -3.825
116 CP2 76 -3.825
116 CP2 77 -4.313
116 CP2 78 -5.290
116 CP2 79 -6.266
116 CP2 80 -6.266
116 CP2 81 -5.778
116 CP2 82 -4.313
116 CP2 83 -3.337
116 CP2 84 -2.360
116 CP2 85 -2.848
116 CP2 86 -3.337
116 CP2 87 -3.825
116 CP2 88 -3.825
116 CP2 89 -4.313
116 CP2 90 -4.313
116 CP2 91 -4.801
116 CP2 92 -5.290
116 CP2 93 -5.290
116 CP2 94 -5.290
116 CP2 95 -5.290
116 CP2 96 -5.290
116 CP2 97 -5.290
116 CP2 98 -6.266
116 CP2 99 -6.755
116 CP2 100 -7.243
116 CP2 101 -7.243
116 CP2 102 -7.243
116 CP2 103 -6.755
116 CP2 104 -6.755
116 CP2 105 -6.755
116 CP2 106 -7.243
116 CP2 107 -8.219
116 CP2 108 -8.219
116 CP2 109 -7.243
116 CP2 110 -5.778
116 CP2 111 -3.337
116 CP2 112 -2.360
116 CP2 113 -2.360
116 CP2 114 -3.337
116 CP2 115 -3.825
116 CP2 116 -3.825
116 CP2 117 -2.848
116 CP2 118 -2.360
116 CP2 119 -1.872
116 CP2 120 -3.337
116 CP2 121 -3.825
116 CP2 122 -4.313
116 CP2 123 -4.801
116 CP2 124 -5.778
116 CP2 125 -7.243
116 CP2 126 -8.219
116 CP2 127 -8.708
116 CP2 128 -7.731
116 CP2 129 -6.755
116 CP2 130 -6.266
116 CP2 131 -7.243
116 CP2 132 -8.708
116 CP2 133 -10.173
116 CP2 134 -10.173
116 CP2 135 -9.196
116 CP2 136 -8.219
116 CP2 137 -8.219
116 CP2 138 -8.219
116 CP2 139 -8.219
116 CP2 140 -7.731
116 CP2 141 -6.266
116 CP2 142 -4.801
116 CP2 143 -3.825
116 CP2 144 -4.313
116 CP2 145 -5.778
116 CP2 146 -7.243
116 CP2 147 -8.219
116 CP2 148 -8.219
116 CP2 149 -7.731
116 CP2 150 -7.243
116 CP2 151 -6.266
116 CP2 152 -5.778
116 CP2 153 -5.290
116 CP2 154 -4.801
116 CP2 155 -4.801
116 CP2 156 -5.778
116 CP2 157 -6.755
116 CP2 158 -7.731
116 CP2 159 -7.731
116 CP2 160 -7.243
116 CP2 161 -5.778
116 CP2 162 -4.801
116 CP2 163 -4.801
116 CP2 164 -5.290
116 CP2 165 -5.290
116 CP2 166 -5.290
116 CP2 167 -4.801
116 CP2 168 -3.825
116 CP2 169 -3.337
116 CP2 170 -3.337
116 CP2 171 -3.825
116 CP2 172 -4.313
116 CP2 173 -5.290
116 CP2 174 -5.290
116 CP2 175 -4.801
116 CP2 176 -4.313
116 CP2 177 -4.313
116 CP2 178 -4.313
116 CP2 179 -4.801
116 CP2 180 -4.801
116 CP2 181 -5.290
116 CP2 182 -4.801
116 CP2 183 -4.801
116 CP2 184 -5.290
116 CP2 185 -5.778
116 CP2 186 -6.755
116 CP2 187 -8.219
116 CP2 188 -9.196
116 CP2 189 -9.684
116 CP2 190 -8.708
116 CP2 191 -8.219
116 CP2 192 -7.731
116 CP2 193 -8.219
116 CP2 194 -8.708
116 CP2 195 -9.684
116 CP2 196 -10.173
116 CP2 197 -10.173
116 CP2 198 -10.173
116 CP2 199 -10.661
116 CP2 200 -10.661
116 CP2 201 -11.149
116 CP2 202 -10.661
116 CP2 203 -10.173
116 CP2 204 -9.196
116 CP2 205 -8.708
116 CP2 206 -8.219
116 CP2 207 -8.219
116 CP2 208 -8.219
116 CP2 209 -7.731
116 CP2 210 -6.266
116 CP2 211 -5.290
116 CP2 212 -5.290
116 CP2 213 -5.290
116 CP2 214 -6.755
116 CP2 215 -8.219
116 CP2 216 -10.173
116 CP2 217 -11.149
116 CP2 218 -11.637
116 CP2 219 -12.614
116 CP2 220 -13.102
116 CP2 221 -13.102
116 CP2 222 -13.102
116 CP2 223 -12.614
116 CP2 224 -12.126
116 CP2 225 -12.126
116 CP2 226 -12.614
116 CP2 227 -13.102
116 CP2 228 -13.102
116 CP2 229 -13.102
116 CP2 230 -13.102
116 CP2 231 -12.614
116 CP2 232 -12.126
116 CP2 233 -12.126
116 CP2 234 -12.126
116 CP2 235 -13.102
116 CP2 236 -14.079
116 CP2 237 -14.567
116 CP2 238 -14.567
116 CP2 239 -14.079
116 CP2 240 -13.102
116 CP2 241 -13.102
116 CP2 242 -13.102
116 CP2 243 -13.590
116 CP2 244 -14.567
116 CP2 245 -15.055
116 CP2 246 -15.544
116 CP2 247 -15.544
116 CP2 248 -16.032
116 CP2 249 -16.032
116 CP2 250 -16.520
116 CP2 251 -16.520
116 CP2 252 -16.520
116 CP2 253 -17.008
116 CP2 254 -17.008
116 CP2 255 -17.008
# P3 chan 22
116 P3 0 -2.655
116 P3 1 -2.167
116 P3 2 -3.143
116 P3 3 -5.585
116 P3 4 -6.561
116 P3 5 -6.561
116 P3 6 -5.096
116 P3 7 -3.632
116 P3 8 -3.143
116 P3 9 -2.655
116 P3 10 -2.655
116 P3 11 -3.143
116 P3 12 -3.143
116 P3 13 -3.143
116 P3 14 -3.143
116 P3 15 -2.167
116 P3 16 -1.678
116 P3 17 -1.190
116 P3 18 -2.655
116 P3 19 -4.608
116 P3 20 -7.050
116 P3 21 -9.491
116 P3 22 -9.979
116 P3 23 -9.491
116 P3 24 -8.514
116 P3 25 -7.538
116 P3 26 -7.050
116 P3 27 -6.561
116 P3 28 -6.561
116 P3 29 -6.561
116 P3 30 -6.073
116 P3 31 -6.561
116 P3 32 -6.561
116 P3 33 -6.561
116 P3 34 -6.561
116 P3 35 -6.073
116 P3 36 -6.073
116 P3 37 -6.073
116 P3 38 -6.561
116 P3 39 -7.538
116 P3 40 -9.491
116 P3 41 -10.956
116 P3 42 -12.909
116 P3 43 -14.374
116 P3 44 -15.350
116 P3 45 -14.862
116 P3 46 -14.374
116 P3 47 -13.885
116 P3 48 -13.397
116 P3 49 -13.397
116 P3 50 -12.909
116 P3 51 -11.932
116 P3 52 -10.468
116 P3 53 -9.491
116 P3 54 -9.979
116 P3 55 -10.468
116 P3 56 -10.468
116 P3 57 -9.491
116 P3 58 -8.026
116 P3 59 -7.538
116 P3 60 -7.538
116 P3 61 -8.514
116 P3 62 -9.003
116 P3 63 -8.026
116 P3 64 -6.073
116 P3 65 -4.120
116 P3 66 -4.120
116 P3 67 -5.585
116 P3 68 -7.538
116 P3 69 -9.003
116 P3 70 -9.003
116 P3 71 -8.514
116 P3 72 -8.026
116 P3 73 -8.514
116 P3 74 -9.979
116 P3 75 -11.444
116 P3 76 -12.421
116 P3 77 -13.397
116 P3 78 -13.397
116 P3 79 -13.397
116 P3 80 -12.909
116 P3 81 -11.444
116 P3 82 -9.491
116 P3 83 -8.026
116 P3 84 -7.538
116 P3 85 -7.538
116 P3 86 -8.026
116 P3 87 -9.003
116 P3 88 -9.491
116 P3 89 -9.979
116 P3 90 -9.979
116 P3 91 -9.491
116 P3 92 -9.491
116 P3 93 -9.491
116 P3 94 -9.491
116 P3 95 -9.003
116 P3 96 -9.003
116 P3 97 -9.003
116 P3 98 -9.979
116 P3 99 -10.956
116 P3 100 -11.932
116 P3 101 -12.421
116 P3 102 -12.909
116 P3 103 -12.909
116 P3 104 -13.397
116 P3 105 -14.374
116 P3 106 -15.350
116 P3 107 -15.350
116 P3 108 -14.374
116 P3 109 -12.909
116 P3 110 -11.444
116 P3 111 -9.979
116 P3 112 -9.979
116 P3 113 -10.468
116 P3 114 -11.444
116 P3 115 -11.932
116 P3 116 -10.956
116 P3 117 -9.491
116 P3 118 -8.026
116 P3 119 -7.050
116 P3 120 -7.050
116 P3 121 -8.026
116 P3 122 -9.979
116 P3 123 -11.932
116 P3 124 -13.885
116 P3 125 -14.374
116 P3 126 -14.374
116 P3 127 -13.885
116 P3 128 -13.397
116 P3 129 -13.885
116 P3 130 -15.350
116 P3 131 -16.327
116 P3 132 -17.303
116 P3 133 -17.303
116 P3 134 -17.303
116 P3 135 -18.280
116 P3 136 -18.280
116 P3 137 -17.792
116 P3 138 -16.327
116 P3 139 -14.374
116 P3 140 -12.421
116 P3 141 -10.956
116 P3 142 -9.979
116 P3 143 -9.491
116 P3 144 -9.979
116 P3 145 -10.468
116 P3 146 -10.468
116 P3 147 -10.956
116 P3 148 -9.979
116 P3 149 -9.003
116 P3 150 -8.514
116 P3 151 -8.514
116 P3 152 -9.491
116 P3 153 -9.979
116 P3 154 -10.468
116 P3 155 -10.956
116 P3 156 -11.444
116 P3 157 -11.932
116 P3 158 -12.909
116 P3 159 -13.397
116 P3 160 -12.909
116 P3 161 -12.421
116 P3 162 -12.421
116 P3 163 -12.421
116 P3 164 -12.909
116 P3 165 -12.909
116 P3 166 -12.421
116 P3 167 -11.444
116 P3 168 -10.956
116 P3 169 -9.491
116 P3 170 -9.003
116 P3 171 -8.026
116 P3 172 -7.538
116 P3 173 -7.050
116 P3 174 -6.073
116 P3 175 -5.096
116 P3 176 -4.608
116 P3 177 -4.608
116 P3 178 -5.585
116 P3 179 -7.050
116 P3 180 -7.050
116 P3 181 -6.561
116 P3 182 -5.585
116 P3 183 -4.120
116 P3 184 -4.608
116 P3 185 -6.073
116 P3 186 -8.514
116 P3 187 -10.468
116 P3 188 -11.932
116 P3 189 -12.421
116 P3 190 -12.421
116 P3 191 -12.421
116 P3 192 -12.421
116 P3 193 -12.909
116 P3 194 -12.909
116 P3 195 -12.421
116 P3 196 -12.421
116 P3 197 -12.421
116 P3 198 -12.421
116 P3 199 -12.421
116 P3 200 -11.932
116 P3 201 -10.956
116 P3 202 -9.979
116 P3 203 -9.979
116 P3 204 -10.956
116 P3 205 -11.444
116 P3 206 -12.421
116 P3 207 -11.932
116 P3 208 -10.468
116 P3 209 -9.003
116 P3 210 -8.514
116 P3 211 -8.514
116 P3 212 -9.979
116 P3 213 -10.956
116 P3 214 -11.932
116 P3 215 -11.444
116 P3 216 -10.956
116 P3 217 -10.468
116 P3 218 -10.468
116 P3 219 -10.468
116 P3 220 -10.468
116 P3 221 -10.956
116 P3 222 -11.444
116 P3 223 -12.909
116 P3 224 -14.862
116 P3 225 -17.303
116 P3 226 -19.257
116 P3 227 -20.233
116 P3 228 -19.745
116 P3 229 -17.792
116 P3 230 -16.327
116 P3 231 -14.374
116 P3 232 -13.885
116 P3 233 -13.885
116 P3 234 -14.862
116 P3 235 -16.327
116 P3 236 -17.792
116 P3 237 -17.792
116 P3 238 -17.303
116 P3 239 -15.350
116 P3 240 -12.909
116 P3 241 -11.444
116 P3 242 -11.444
116 P3 243 -11.932
116 P3 244 -13.397
116 P3 245 -14.374
116 P3 246 -14.374
116 P3 247 -14.374
116 P3 248 -14.862
116 P3 249 -14.374
116 P3 250 -14.374
116 P3 251 -13.885
116 P3 252 -13.397
116 P3 253 -13.397
116 P3 254 -13.397
116 P3 255 -13.885
# P4 chan 23
116 P4 0 1.465
116 P4 1 0.977
116 P4 2 -0.488
116 P4 3 -2.441
116 P4 4 -3.418
116 P4 5 -3.906
116 P4 6 -4.883
116 P4 7 -6.348
116 P4 8 -7.324
116 P4 9 -7.812
116 P4 10 -6.836
116 P4 11 -5.859
116 P4 12 -4.395
116 P4 13 -3.418
116 P4 14 -1.953
116 P4 15 -0.977
116 P4 16 0.488
116 P4 17 1.465
116 P4 18 0.977
116 P4 19 -0.977
116 P4 20 -2.930
116 P4 21 -3.906
116 P4 22 -3.906
116 P4 23 -3.906
116 P4 24 -2.930
116 P4 25 -2.930
116 P4 26 -3.418
116 P4 27 -3.418
116 P4 28 -4.395
116 P4 29 -5.371
116 P4 30 -6.348
116 P4 31 -7.324
116 P4 32 -7.324
116 P4 33 -7.324
116 P4 34 -6.836
116 P4 35 -6.836
116 P4 36 -6.348
116 P4 37 -5.859
116 P4 38 -5.859
116 P4 39 -6.348
116 P4 40 -7.812
116 P4 41 -9.766
116 P4 42 -11.719
116 P4 43 -13.184
116 P4 44 -12.695
116 P4 45 -10.742
116 P4 46 -8.789
116 P4 47 -7.324
116 P4 48 -7.324
116 P4 49 -7.324
116 P4 50 -6.836
116 P4 51 -4.883
116 P4 52 -3.418
116 P4 53 -2.441
116 P4 54 -2.930
116 P4 55 -3.418
116 P4 56 -3.906
116 P4 57 -3.418
116 P4 58 -2.441
116 P4 59 -2.441
116 P4 60 -3.906
116 P4 61 -5.859
116 P4 62 -6.836
116 P4 63 -6.348
116 P4 64 -4.395
116 P4 65 -2.930
116 P4 66 -2.930
116 P4 67 -4.395
116 P4 68 -6.348
116 P4 69 -7.324
116 P4 70 -6.836
116 P4 71 -5.859
116 P4 72 -4.883
116 P4 73 -3.906
116 P4 74 -4.395
116 P4 75 -4.883
116 P4 76 -4.883
116 P4 77 -5.371
116 P4 78 -5.371
116 P4 79 -5.859
116 P4 80 -5.859
116 P4 81 -4.883
116 P4 82 -4.395
116 P4 83 -3.906
116 P4 84 -3.906
116 P4 85 -4.395
116 P4 86 -5.371
116 P4 87 -6.348
116 P4 88 -6.836
116 P4 89 -7.324
116 P4 90 -7.812
116 P4 91 -8.789
116 P4 92 -9.766
116 P4 93 -9.766
116 P4 94 -9.277
116 P4 95 -7.812
116 P4 96 -6.348
116 P4 97 -5.859
116 P4 98 -7.324
116 P4 99 -8.789
116 P4 100 -9.766
116 P4 101 -9.277
116 P4 102 -7.324
116 P4 103 -5.859
116 P4 104 -5.859
116 P4 105 -6.836
116 P4 106 -8.301
116 P4 107 -8.789
116 P4 108 -7.812
116 P4 109 -5.371
116 P4 110 -3.418
116 P4 111 -1.953
116 P4 112 -1.953
116 P4 113 -3.418
116 P4 114 -4.395
116 P4 115 -4.883
116 P4 116 -4.883
116 P4 117 -4.395
116 P4 118 -3.906
116 P4 119 -3.906
116 P4 120 -4.883
116 P4 121 -5.371
116 P4 122 -6.348
116 P4 123 -8.301
116 P4 124 -10.742
116 P4 125 -12.695
116 P4 126 -13.184
116 P4 127 -12.207
116 P4 128 -9.766
116 P4 129 -8.301
116 P4 130 -8.301
116 P4 131 -10.254
116 P4 132 -12.207
116 P4 133 -13.672
116 P4 134 -12.695
116 P4 135 -11.230
116 P4 136 -9.766
116 P4 137 -9.766
116 P4 138 -10.742
116 P4 139 -11.719
116 P4 140 -11.719
116 P4 141 -9.766
116 P4 142 -7.812
116 P4 143 -6.836
116 P4 144 -7.812
116 P4 145 -10.254
116 P4 146 -13.184
116 P4 147 -14.160
116 P4 148 -13.672
116 P4 149 -12.207
116 P4 150 -10.742
116 P4 151 -10.254
116 P4 152 -9.766
116 P4 153 -9.277
116 P4 154 -8.301
116 P4 155 -8.301
116 P4 156 -9.277
116 P4 157 -10.742
116 P4 158 -12.207
116 P4 159 -12.207
116 P4 160 -11.230
116 P4 161 -8.789
116 P4 162 -7.324
116 P4 163 -6.836
116 P4 164 -7.812
116 P4 165 -8.789
116 P4 166 -9.277
116 P4 167 -8.789
116 P4 168 -7.324
116 P4 169 -5.859
116 P4 170 -4.883
116 P4 171 -4.883
116 P4 172 -4.883
116 P4 173 -5.371
116 P4 174 -5.371
116 P4 175 -4.883
116 P4 176 -4.883
116 P4 177 -5.371
116 P4 178 -6.348
116 P4 179 -6.836
116 P4 180 -7.324
116 P4 181 -6.836
116 P4 182 -5.859
116 P4 183 -5.371
116 P4 184 -5.859
116 P4 185 -7.324
116 P4 186 -8.789
116 P4 187 -10.742
116 P4 188 -11.719
116 P4 189 -11.719
116 P4 190 -11.719
116 P4 191 -11.230
116 P4 192 -10.742
116 P4 193 -11.230
116 P4 194 -12.207
116 P4 195 -13.184
116 P4 196 -13.672
116 P4 197 -13.672
116 P4 198 -13.672
116 P4 199 -14.160
116 P4 200 -14.648
116 P4 201 -15.625
116 P4 202 -15.625
116 P4 203 -14.648
116 P4 204 -12.695
116 P4 205 -11.230
116 P4 206 -10.742
116 P4 207 -10.742
116 P4 208 -11.230
116 P4 209 -10.742
116 P4 210 -9.277
116 P4 211 -8.301
116 P4 212 -8.301
116 P4 213 -9.277
116 P4 214 -11.230
116 P4 215 -13.672
116 P4 216 -14.648
116 P4 217 -15.625
116 P4 218 -16.113
116 P4 219 -16.602
116 P4 220 -16.602
116 P4 221 -17.090
116 P4 222 -16.602
116 P4 223 -16.602
116 P4 224 -16.602
116 P4 225 -16.602
116 P4 226 -16.602
116 P4 227 -15.625
116 P4 228 -14.648
116 P4 229 -13.672
116 P4 230 -12.695
116 P4 231 -12.695
116 P4 232 -12.695
116 P4 233 -12.695
116 P4 234 -13.672
116 P4 235 -14.648
116 P4 236 -16.113
116 P4 237 -16.602
116 P4 238 -15.625
116 P4 239 -14.160
116 P4 240 -12.695
116 P4 241 -12.207
116 P4 242 -12.695
116 P4 243 -14.648
116 P4 244 -16.113
116 P4 245 -17.090
116 P4 246 -17.578
116 P4 247 -17.578
116 P4 248 -17.578
116 P4 249 -17.578
116 P4 250 -17.578
116 P4 251 -17.578
116 P4 252 -18.066
116 P4 253 -18.555
116 P4 254 -19.043
116 P4 255 -18.555
# PZ chan 24
116 PZ 0 -0.631
116 PZ 1 -0.142
116 PZ 2 -1.119
116 PZ 3 -3.072
116 PZ 4 -4.537
116 PZ 5 -5.025
116 PZ 6 -5.514
116 PZ 7 -4.537
116 PZ 8 -4.537
116 PZ 9 -4.537
116 PZ 10 -4.537
116 PZ 11 -4.049
116 PZ 12 -3.560
116 PZ 13 -2.584
116 PZ 14 -2.096
116 PZ 15 -1.119
116 PZ 16 -0.142
116 PZ 17 0.346
116 PZ 18 -0.142
116 PZ 19 -2.096
116 PZ 20 -4.537
116 PZ 21 -6.978
116 PZ 22 -7.955
116 PZ 23 -7.955
116 PZ 24 -6.978
116 PZ 25 -6.002
116 PZ 26 -5.514
116 PZ 27 -5.514
116 PZ 28 -6.002
116 PZ 29 -6.490
116 PZ 30 -6.490
116 PZ 31 -6.002
116 PZ 32 -6.002
116 PZ 33 -6.002
116 PZ 34 -6.002
116 PZ 35 -5.514
116 PZ 36 -5.025
116 PZ 37 -4.537
116 PZ 38 -4.537
116 PZ 39 -5.514
116 PZ 40 -6.978
116 PZ 41 -8.443
116 PZ 42 -9.908
116 PZ 43 -10.885
116 PZ 44 -10.885
116 PZ 45 -10.396
116 PZ 46 -9.420
116 PZ 47 -8.931
116 PZ 48 -8.443
116 PZ 49 -8.443
116 PZ 50 -8.443
116 PZ 51 -7.955
116 PZ 52 -7.467
116 PZ 53 -6.490
116 PZ 54 -6.490
116 PZ 55 -6.002
116 PZ 56 -5.514
116 PZ 57 -4.537
116 PZ 58 -3.560
116 PZ 59 -3.560
116 PZ 60 -3.560
116 PZ 61 -5.025
116 PZ 62 -6.002
116 PZ 63 -6.002
116 PZ 64 -4.537
116 PZ 65 -3.072
116 PZ 66 -2.584
116 PZ 67 -2.584
116 PZ 68 -4.049
116 PZ 69 -5.514
116 PZ 70 -6.002
116 PZ 71 -6.002
116 PZ 72 -6.002
116 PZ 73 -5.514
116 PZ 74 -6.002
116 PZ 75 -6.978
116 PZ 76 -7.955
116 PZ 77 -7.955
116 PZ 78 -8.931
116 PZ 79 -8.931
116 PZ 80 -8.931
116 PZ 81 -8.931
116 PZ 82 -7.467
116 PZ 83 -6.002
116 PZ 84 -5.025
116 PZ 85 -4.537
116 PZ 86 -5.025
116 PZ 87 -6.002
116 PZ 88 -6.490
116 PZ 89 -6.490
116 PZ 90 -6.490
116 PZ 91 -6.002
116 PZ 92 -6.002
116 PZ 93 -6.490
116 PZ 94 -6.490
116 PZ 95 -6.490
116 PZ 96 -6.002
116 PZ 97 -6.002
116 PZ 98 -6.490
116 PZ 99 -7.467
116 PZ 100 -8.931
116 PZ 101 -9.420
116 PZ 102 -9.420
116 PZ 103 -8.931
116 PZ 104 -8.931
116 PZ 105 -9.420
116 PZ 106 -10.396
116 PZ 107 -10.885
116 PZ 108 -10.885
116 PZ 109 -8.931
116 PZ 110 -6.978
116 PZ 111 -5.025
116 PZ 112 -4.537
116 PZ 113 -5.025
116 PZ 114 -6.002
116 PZ 115 -6.490
116 PZ 116 -6.490
116 PZ 117 -6.002
116 PZ 118 -5.025
116 PZ 119 -4.537
116 PZ 120 -4.537
116 PZ 121 -5.025
116 PZ 122 -6.002
116 PZ 123 -7.467
116 PZ 124 -8.931
116 PZ 125 -10.396
116 PZ 126 -11.373
116 PZ 127 -11.373
116 PZ 128 -10.885
116 PZ 129 -10.396
116 PZ 130 -10.885
116 PZ 131 -11.861
116 PZ 132 -12.838
116 PZ 133 -13.814
116 PZ 134 -13.326
116 PZ 135 -12.838
116 PZ 136 -11.861
116 PZ 137 -11.861
116 PZ 138 -11.861
116 PZ 139 -11.861
116 PZ 140 -10.885
116 PZ 141 -9.420
116 PZ 142 -7.955
116 PZ 143 -6.490
116 PZ 144 -6.490
116 PZ 145 -7.955
116 PZ 146 -8.931
116 PZ 147 -9.420
116 PZ 148 -8.443
116 PZ 149 -7.467
116 PZ 150 -6.490
116 PZ 151 -6.002
116 PZ 152 -6.490
116 PZ 153 -6.978
116 PZ 154 -7.467
116 PZ 155 -7.955
116 PZ 156 -8.443
116 PZ 157 -9.420
116 PZ 158 -10.885
116 PZ 159 -11.373
116 PZ 160 -10.885
116 PZ 161 -9.420
116 PZ 162 -7.955
116 PZ 163 -7.955
116 PZ 164 -8.443
116 PZ 165 -8.931
116 PZ 166 -8.931
116 PZ 167 -8.443
116 PZ 168 -6.490
116 PZ 169 -5.514
116 PZ 170 -4.537
116 PZ 171 -4.537
116 PZ 172 -5.025
116 PZ 173 -5.025
116 PZ 174 -4.537
116 PZ 175 -3.560
116 PZ 176 -3.072
116 PZ 177 -3.560
116 PZ 178 -4.537
116 PZ 179 -5.514
116 PZ 180 -6.002
116 PZ 181 -5.514
116 PZ 182 -4.537
116 PZ 183 -3.560
116 PZ 184 -3.072
116 PZ 185 -4.537
116 PZ 186 -6.490
116 PZ 187 -8.443
116 PZ 188 -9.908
116 PZ 189 -10.396
116 PZ 190 -9.908
116 PZ 191 -9.908
116 PZ 192 -9.908
116 PZ 193 -9.908
116 PZ 194 -10.396
116 PZ 195 -11.373
116 PZ 196 -11.861
116 PZ 197 -12.349
116 PZ 198 -12.349
116 PZ 199 -12.349
116 PZ 200 -12.349
116 PZ 201 -12.349
116 PZ 202 -11.861
116 PZ 203 -11.373
116 PZ 204 -10.885
116 PZ 205 -10.885
116 PZ 206 -11.373
116 PZ 207 -11.373
116 PZ 208 -10.396
116 PZ 209 -8.931
116 PZ 210 -7.467
116 PZ 211 -6.490
116 PZ 212 -6.978
116 PZ 213 -8.443
116 PZ 214 -9.908
116 PZ 215 -10.885
116 PZ 216 -11.373
116 PZ 217 -11.373
116 PZ 218 -11.861
116 PZ 219 -11.861
116 PZ 220 -12.349
116 PZ 221 -12.349
116 PZ 222 -12.349
116 PZ 223 -12.838
116 PZ 224 -13.814
116 PZ 225 -15.279
116 PZ 226 -16.744
116 PZ 227 -17.232
116 PZ 228 -16.744
116 PZ 229 -16.256
116 PZ 230 -15.279
116 PZ 231 -14.791
116 PZ 232 -14.303
116 PZ 233 -14.303
116 PZ 234 -15.279
116 PZ 235 -16.256
116 PZ 236 -17.232
116 PZ 237 -18.209
116 PZ 238 -17.721
116 PZ 239 -16.744
116 PZ 240 -14.791
116 PZ 241 -13.326
116 PZ 242 -12.838
116 PZ 243 -13.814
116 PZ 244 -15.279
116 PZ 245 -15.767
116 PZ 246 -16.744
116 PZ 247 -16.744
116 PZ 248 -16.744
116 PZ 249 -16.744
116 PZ 250 -16.256
116 PZ 251 -16.256
116 PZ 252 -15.767
116 PZ 253 -15.767
116 PZ 254 -16.256
116 PZ 255 -16.744
# P8 chan 25
116 P8 0 -2.197
116 P8 1 -1.709
116 P8 2 -2.197
116 P8 3 -4.150
116 P8 4 -5.615
116 P8 5 -7.568
116 P8 6 -10.010
116 P8 7 -12.451
116 P8 8 -13.916
116 P8 9 -14.893
116 P8 10 -14.404
116 P8 11 -13.428
116 P8 12 -11.963
116 P8 13 -10.986
116 P8 14 -10.010
116 P8 15 -8.545
116 P8 16 -6.592
116 P8 17 -4.639
116 P8 18 -3.662
116 P8 19 -4.150
116 P8 20 -5.127
116 P8 21 -5.615
116 P8 22 -5.127
116 P8 23 -3.662
116 P8 24 -2.197
116 P8 25 -1.709
116 P8 26 -2.686
116 P8 27 -4.150
116 P8 28 -6.592
116 P8 29 -8.545
116 P8 30 -10.010
116 P8 31 -10.986
116 P8 32 -11.963
116 P8 33 -12.451
116 P8 34 -12.939
116 P8 35 -13.428
116 P8 36 -13.428
116 P8 37 -13.428
116 P8 38 -13.428
116 P8 39 -13.428
116 P8 40 -13.916
116 P8 41 -14.893
116 P8 42 -16.357
116 P8 43 -17.822
116 P8 44 -17.334
116 P8 45 -15.869
116 P8 46 -14.404
116 P8 47 -12.939
116 P8 48 -12.451
116 P8 49 -12.451
116 P8 50 -10.986
116 P8 51 -8.057
116 P8 52 -4.639
116 P8 53 -1.709
116 P8 54 -1.709
116 P8 55 -2.686
116 P8 56 -4.639
116 P8 57 -5.615
116 P8 58 -6.592
116 P8 59 -7.568
116 P8 60 -9.521
116 P8 61 -12.451
116 P8 62 -14.404
116 P8 63 -14.404
116 P8 64 -11.963
116 P8 65 -9.033
116 P8 66 -8.057
116 P8 67 -10.010
116 P8 68 -13.428
116 P8 69 -16.357
116 P8 70 -16.846
116 P8 71 -14.404
116 P8 72 -11.963
116 P8 73 -9.521
116 P8 74 -9.521
116 P8 75 -10.010
116 P8 76 -10.498
116 P8 77 -9.521
116 P8 78 -8.057
116 P8 79 -6.104
116 P8 80 -4.150
116 P8 81 -3.662
116 P8 82 -3.174
116 P8 83 -3.662
116 P8 84 -4.150
116 P8 85 -5.127
116 P8 86 -6.592
116 P8 87 -8.545
116 P8 88 -10.986
116 P8 89 -12.939
116 P8 90 -13.916
116 P8 91 -15.381
116 P8 92 -15.869
116 P8 93 -16.357
116 P8 94 -15.381
116 P8 95 -13.428
116 P8 96 -11.475
116 P8 97 -10.498
116 P8 98 -10.986
116 P8 99 -12.939
116 P8 100 -14.893
116 P8 101 -15.381
116 P8 102 -13.428
116 P8 103 -10.986
116 P8 104 -10.010
116 P8 105 -10.010
116 P8 106 -11.475
116 P8 107 -12.451
116 P8 108 -11.475
116 P8 109 -9.033
116 P8 110 -6.104
116 P8 111 -4.639
116 P8 112 -5.127
116 P8 113 -7.080
116 P8 114 -9.033
116 P8 115 -9.033
116 P8 116 -9.033
116 P8 117 -8.545
116 P8 118 -9.521
116 P8 119 -10.498
116 P8 120 -12.451
116 P8 121 -13.428
116 P8 122 -13.916
116 P8 123 -14.404
116 P8 124 -15.381
116 P8 125 -16.846
116 P8 126 -17.334
116 P8 127 -16.357
116 P8 128 -14.404
116 P8 129 -12.451
116 P8 130 -12.451
116 P8 131 -14.404
116 P8 132 -16.846
116 P8 133 -18.799
116 P8 134 -18.799
116 P8 135 -17.334
116 P8 136 -14.893
116 P8 137 -13.916
116 P8 138 -14.404
116 P8 139 -14.893
116 P8 140 -14.893
116 P8 141 -13.428
116 P8 142 -11.475
116 P8 143 -10.986
116 P8 144 -12.451
116 P8 145 -16.357
116 P8 146 -19.287
116 P8 147 -20.752
116 P8 148 -19.287
116 P8 149 -16.846
116 P8 150 -14.893
116 P8 151 -14.404
116 P8 152 -14.893
116 P8 153 -14.893
116 P8 154 -13.428
116 P8 155 -12.451
116 P8 156 -12.451
116 P8 157 -13.428
116 P8 158 -14.893
116 P8 159 -15.869
116 P8 160 -15.381
116 P8 161 -13.916
116 P8 162 -12.939
116 P8 163 -13.428
116 P8 164 -14.893
116 P8 165 -15.869
116 P8 166 -16.357
116 P8 167 -15.869
116 P8 168 -15.381
116 P8 169 -15.381
116 P8 170 -15.869
116 P8 171 -15.869
116 P8 172 -15.381
116 P8 173 -14.404
116 P8 174 -12.939
116 P8 175 -11.963
116 P8 176 -12.451
