# co2a0000417.rd
# 120 trials, 64 chans, 416 samples 368 post_stim samples
# 3.906000 msecs uV
# S2 nomatch, trial 7
# FP1 chan 0
7 FP1 0 0.448
7 FP1 1 -1.017
7 FP1 2 -1.506
7 FP1 3 -1.506
7 FP1 4 -1.017
7 FP1 5 -0.529
7 FP1 6 -0.041
7 FP1 7 0.936
7 FP1 8 1.424
7 FP1 9 2.401
7 FP1 10 2.889
7 FP1 11 3.377
7 FP1 12 2.401
7 FP1 13 1.912
7 FP1 14 1.912
7 FP1 15 1.912
7 FP1 16 3.866
7 FP1 17 4.354
7 FP1 18 4.842
7 FP1 19 4.354
7 FP1 20 3.866
7 FP1 21 4.354
7 FP1 22 3.866
7 FP1 23 2.401
7 FP1 24 -0.529
7 FP1 25 -2.970
7 FP1 26 -4.924
7 FP1 27 -4.435
7 FP1 28 -3.459
7 FP1 29 -2.970
7 FP1 30 -3.947
7 FP1 31 -4.924
7 FP1 32 -5.900
7 FP1 33 -5.412
7 FP1 34 -4.924
7 FP1 35 -4.435
7 FP1 36 -4.924
7 FP1 37 -4.924
7 FP1 38 -4.435
7 FP1 39 -1.994
7 FP1 40 0.936
7 FP1 41 1.912
7 FP1 42 1.424
7 FP1 43 -0.529
7 FP1 44 -1.994
7 FP1 45 -1.994
7 FP1 46 -0.529
7 FP1 47 -0.041
7 FP1 48 -1.017
7 FP1 49 -2.482
7 FP1 50 -3.459
7 FP1 51 -1.994
7 FP1 52 0.448
7 FP1 53 1.424
7 FP1 54 0.448
7 FP1 55 -2.482
7 FP1 56 -5.412
7 FP1 57 -6.388
7 FP1 58 -5.412
7 FP1 59 -3.947
7 FP1 60 -4.924
7 FP1 61 -7.365
7 FP1 62 -10.295
7 FP1 63 -13.224
7 FP1 64 -13.713
7 FP1 65 -12.736
7 FP1 66 -12.248
7 FP1 67 -13.224
7 FP1 68 -14.689
7 FP1 69 -15.177
7 FP1 70 -13.713
7 FP1 71 -10.295
7 FP1 72 -6.877
7 FP1 73 -4.435
7 FP1 74 -4.435
7 FP1 75 -4.924
7 FP1 76 -4.924
7 FP1 77 -3.459
7 FP1 78 -0.041
7 FP1 79 2.889
7 FP1 80 3.866
7 FP1 81 2.889
7 FP1 82 -0.041
7 FP1 83 -1.994
7 FP1 84 -3.459
7 FP1 85 -3.947
7 FP1 86 -3.947
7 FP1 87 -4.924
7 FP1 88 -5.900
7 FP1 89 -7.365
7 FP1 90 -8.341
7 FP1 91 -8.830
7 FP1 92 -8.830
7 FP1 93 -7.853
7 FP1 94 -6.877
7 FP1 95 -5.412
7 FP1 96 -4.435
7 FP1 97 -3.947
7 FP1 98 -3.947
7 FP1 99 -3.459
7 FP1 100 -2.970
7 FP1 101 -2.482
7 FP1 102 -1.994
7 FP1 103 -1.506
7 FP1 104 -1.506
7 FP1 105 -1.506
7 FP1 106 -0.529
7 FP1 107 0.448
7 FP1 108 0.936
7 FP1 109 0.936
7 FP1 110 -0.041
7 FP1 111 -1.017
7 FP1 112 -1.994
7 FP1 113 -1.994
7 FP1 114 -1.994
7 FP1 115 -1.994
7 FP1 116 -1.994
7 FP1 117 -1.994
7 FP1 118 -1.994
7 FP1 119 -1.994
7 FP1 120 -3.459
7 FP1 121 -4.924
7 FP1 122 -5.900
7 FP1 123 -5.900
7 FP1 124 -4.435
7 FP1 125 -2.970
7 FP1 126 -2.970
7 FP1 127 -5.412
7 FP1 128 -9.318
7 FP1 129 -12.736
7 FP1 130 -14.689
7 FP1 131 -14.201
7 FP1 132 -12.736
7 FP1 133 -12.248
7 FP1 134 -12.248
7 FP1 135 -13.224
7 FP1 136 -13.224
7 FP1 137 -12.736
7 FP1 138 -11.759
7 FP1 139 -11.271
7 FP1 140 -10.783
7 FP1 141 -10.295
7 FP1 142 -9.806
7 FP1 143 -9.806
7 FP1 144 -10.295
7 FP1 145 -12.248
7 FP1 146 -14.201
7 FP1 147 -15.666
7 FP1 148 -16.154
7 FP1 149 -15.177
7 FP1 150 -14.201
7 FP1 151 -13.713
7 FP1 152 -14.201
7 FP1 153 -14.689
7 FP1 154 -14.689
7 FP1 155 -14.689
7 FP1 156 -14.689
7 FP1 157 -15.177
7 FP1 158 -15.666
7 FP1 159 -16.154
7 FP1 160 -15.666
7 FP1 161 -14.689
7 FP1 162 -13.224
7 FP1 163 -11.759
7 FP1 164 -9.806
7 FP1 165 -8.341
7 FP1 166 -6.877
7 FP1 167 -5.900
7 FP1 168 -6.388
7 FP1 169 -7.365
7 FP1 170 -8.341
7 FP1 171 -8.341
7 FP1 172 -7.853
7 FP1 173 -5.900
7 FP1 174 -4.924
7 FP1 175 -4.435
7 FP1 176 -4.924
7 FP1 177 -6.388
7 FP1 178 -7.365
7 FP1 179 -7.365
7 FP1 180 -6.388
7 FP1 181 -4.924
7 FP1 182 -3.459
7 FP1 183 -2.970
7 FP1 184 -2.482
7 FP1 185 -2.482
7 FP1 186 -2.482
7 FP1 187 -1.994
7 FP1 188 -1.506
7 FP1 189 -1.506
7 FP1 190 -1.994
7 FP1 191 -3.459
7 FP1 192 -5.412
7 FP1 193 -7.365
7 FP1 194 -8.830
7 FP1 195 -8.830
7 FP1 196 -7.853
7 FP1 197 -6.388
7 FP1 198 -4.924
7 FP1 199 -3.947
7 FP1 200 -3.459
7 FP1 201 -3.459
7 FP1 202 -3.947
7 FP1 203 -4.435
7 FP1 204 -4.924
7 FP1 205 -5.412
7 FP1 206 -5.900
7 FP1 207 -6.877
7 FP1 208 -7.365
7 FP1 209 -6.877
7 FP1 210 -4.924
7 FP1 211 -2.482
7 FP1 212 -0.529
7 FP1 213 -0.041
7 FP1 214 -1.994
7 FP1 215 -5.412
7 FP1 216 -8.830
7 FP1 217 -10.295
7 FP1 218 -9.806
7 FP1 219 -7.365
7 FP1 220 -4.924
7 FP1 221 -3.459
7 FP1 222 -3.947
7 FP1 223 -5.900
7 FP1 224 -7.853
7 FP1 225 -9.318
7 FP1 226 -8.341
7 FP1 227 -6.877
7 FP1 228 -5.412
7 FP1 229 -4.924
7 FP1 230 -4.435
7 FP1 231 -3.947
7 FP1 232 -2.482
7 FP1 233 -0.529
7 FP1 234 0.936
7 FP1 235 0.936
7 FP1 236 -0.041
7 FP1 237 -1.506
7 FP1 238 -3.459
7 FP1 239 -4.435
7 FP1 240 -4.924
7 FP1 241 -5.412
7 FP1 242 -5.412
7 FP1 243 -5.412
7 FP1 244 -5.412
7 FP1 245 -5.412
7 FP1 246 -5.900
7 FP1 247 -6.388
7 FP1 248 -7.853
7 FP1 249 -9.318
7 FP1 250 -10.783
7 FP1 251 -10.783
7 FP1 252 -9.806
7 FP1 253 -8.341
7 FP1 254 -6.877
7 FP1 255 -7.365
# FP2 chan 1
7 FP2 0 -0.488
7 FP2 1 -3.418
7 FP2 2 -5.859
7 FP2 3 -7.324
7 FP2 4 -6.348
7 FP2 5 -4.395
7 FP2 6 -2.930
7 FP2 7 -2.441
7 FP2 8 -1.953
7 FP2 9 -1.465
7 FP2 10 -0.977
7 FP2 11 -0.488
7 FP2 12 -0.488
7 FP2 13 -0.977
7 FP2 14 -0.977
7 FP2 15 -0.977
7 FP2 16 -0.977
7 FP2 17 -0.488
7 FP2 18 -0.977
7 FP2 19 -0.977
7 FP2 20 0.000
7 FP2 21 1.465
7 FP2 22 2.441
7 FP2 23 1.953
7 FP2 24 -0.977
7 FP2 25 -4.395
7 FP2 26 -5.859
7 FP2 27 -5.371
7 FP2 28 -3.418
7 FP2 29 -1.465
7 FP2 30 -1.953
7 FP2 31 -3.418
7 FP2 32 -5.371
7 FP2 33 -6.836
7 FP2 34 -6.836
7 FP2 35 -6.836
7 FP2 36 -6.836
7 FP2 37 -6.348
7 FP2 38 -4.395
7 FP2 39 -1.953
7 FP2 40 0.000
7 FP2 41 0.488
7 FP2 42 -0.488
7 FP2 43 -1.953
7 FP2 44 -2.441
7 FP2 45 -0.977
7 FP2 46 0.488
7 FP2 47 0.488
7 FP2 48 -1.465
7 FP2 49 -3.418
7 FP2 50 -3.418
7 FP2 51 -0.977
7 FP2 52 1.953
7 FP2 53 2.930
7 FP2 54 0.977
7 FP2 55 -2.441
7 FP2 56 -4.883
7 FP2 57 -5.371
7 FP2 58 -3.906
7 FP2 59 -3.418
7 FP2 60 -6.348
7 FP2 61 -10.742
7 FP2 62 -15.137
7 FP2 63 -17.578
7 FP2 64 -17.090
7 FP2 65 -16.113
7 FP2 66 -15.137
7 FP2 67 -16.113
7 FP2 68 -16.602
7 FP2 69 -16.113
7 FP2 70 -13.184
7 FP2 71 -9.766
7 FP2 72 -6.348
7 FP2 73 -4.395
7 FP2 74 -4.395
7 FP2 75 -3.906
7 FP2 76 -3.418
7 FP2 77 -1.953
7 FP2 78 0.000
7 FP2 79 0.977
7 FP2 80 1.953
7 FP2 81 2.441
7 FP2 82 2.441
7 FP2 83 1.465
7 FP2 84 -0.977
7 FP2 85 -3.418
7 FP2 86 -5.371
7 FP2 87 -5.859
7 FP2 88 -4.883
7 FP2 89 -4.395
7 FP2 90 -5.371
7 FP2 91 -7.324
7 FP2 92 -9.277
7 FP2 93 -10.742
7 FP2 94 -10.254
7 FP2 95 -8.301
7 FP2 96 -6.836
7 FP2 97 -7.324
7 FP2 98 -8.301
7 FP2 99 -9.766
7 FP2 100 -9.766
7 FP2 101 -8.789
7 FP2 102 -6.836
7 FP2 103 -4.883
7 FP2 104 -3.906
7 FP2 105 -3.906
7 FP2 106 -3.906
7 FP2 107 -4.395
7 FP2 108 -4.395
7 FP2 109 -3.906
7 FP2 110 -3.906
7 FP2 111 -3.906
7 FP2 112 -4.395
7 FP2 113 -4.883
7 FP2 114 -5.371
7 FP2 115 -4.883
7 FP2 116 -4.395
7 FP2 117 -2.930
7 FP2 118 -2.930
7 FP2 119 -3.418
7 FP2 120 -5.371
7 FP2 121 -7.324
7 FP2 122 -7.812
7 FP2 123 -6.836
7 FP2 124 -4.395
7 FP2 125 -2.441
7 FP2 126 -2.930
7 FP2 127 -6.348
7 FP2 128 -10.742
7 FP2 129 -14.160
7 FP2 130 -16.113
7 FP2 131 -15.137
7 FP2 132 -14.160
7 FP2 133 -13.184
7 FP2 134 -13.184
7 FP2 135 -13.184
7 FP2 136 -13.184
7 FP2 137 -12.695
7 FP2 138 -12.207
7 FP2 139 -12.207
7 FP2 140 -12.207
7 FP2 141 -13.184
7 FP2 142 -14.648
7 FP2 143 -15.137
7 FP2 144 -16.113
7 FP2 145 -16.113
7 FP2 146 -16.113
7 FP2 147 -15.625
7 FP2 148 -15.625
7 FP2 149 -16.602
7 FP2 150 -17.090
7 FP2 151 -17.578
7 FP2 152 -17.090
7 FP2 153 -16.113
7 FP2 154 -14.648
7 FP2 155 -14.160
7 FP2 156 -14.648
7 FP2 157 -15.625
7 FP2 158 -16.113
7 FP2 159 -16.113
7 FP2 160 -15.137
7 FP2 161 -13.672
7 FP2 162 -12.695
7 FP2 163 -11.230
7 FP2 164 -9.766
7 FP2 165 -7.812
7 FP2 166 -6.836
7 FP2 167 -5.859
7 FP2 168 -6.348
7 FP2 169 -6.836
7 FP2 170 -7.812
7 FP2 171 -8.301
7 FP2 172 -8.789
7 FP2 173 -8.789
7 FP2 174 -8.301
7 FP2 175 -8.301
7 FP2 176 -8.301
7 FP2 177 -9.277
7 FP2 178 -9.766
7 FP2 179 -10.254
7 FP2 180 -8.789
7 FP2 181 -6.836
7 FP2 182 -4.395
7 FP2 183 -2.441
7 FP2 184 -1.953
7 FP2 185 -2.441
7 FP2 186 -2.930
7 FP2 187 -2.930
7 FP2 188 -1.953
7 FP2 189 -0.977
7 FP2 190 -0.488
7 FP2 191 -1.465
7 FP2 192 -3.906
7 FP2 193 -6.836
7 FP2 194 -10.254
7 FP2 195 -11.230
7 FP2 196 -10.254
7 FP2 197 -7.812
7 FP2 198 -5.371
7 FP2 199 -3.418
7 FP2 200 -3.418
7 FP2 201 -4.883
7 FP2 202 -6.836
7 FP2 203 -8.301
7 FP2 204 -9.277
7 FP2 205 -8.789
7 FP2 206 -7.812
7 FP2 207 -7.812
7 FP2 208 -7.324
7 FP2 209 -6.348
7 FP2 210 -5.371
7 FP2 211 -3.906
7 FP2 212 -2.930
7 FP2 213 -3.418
7 FP2 214 -4.883
7 FP2 215 -7.324
7 FP2 216 -9.277
7 FP2 217 -9.766
7 FP2 218 -8.789
7 FP2 219 -7.324
7 FP2 220 -5.371
7 FP2 221 -4.395
7 FP2 222 -4.883
7 FP2 223 -6.836
7 FP2 224 -9.277
7 FP2 225 -11.719
7 FP2 226 -12.207
7 FP2 227 -10.742
7 FP2 228 -7.812
7 FP2 229 -5.371
7 FP2 230 -4.395
7 FP2 231 -3.906
7 FP2 232 -4.883
7 FP2 233 -4.883
7 FP2 234 -3.906
7 FP2 235 -2.441
7 FP2 236 -1.465
7 FP2 237 -2.441
7 FP2 238 -4.395
7 FP2 239 -6.348
7 FP2 240 -7.812
7 FP2 241 -8.301
7 FP2 242 -8.301
7 FP2 243 -8.301
7 FP2 244 -8.789
7 FP2 245 -10.254
7 FP2 246 -11.230
7 FP2 247 -12.207
7 FP2 248 -12.695
7 FP2 249 -12.695
7 FP2 250 -12.695
7 FP2 251 -12.695
7 FP2 252 -12.695
7 FP2 253 -12.207
7 FP2 254 -11.230
7 FP2 255 -11.230
# F7 chan 2
7 F7 0 5.168
7 F7 1 1.261
7 F7 2 -3.621
7 F7 3 -6.551
7 F7 4 -4.598
7 F7 5 -1.668
7 F7 6 1.750
7 F7 7 3.215
7 F7 8 3.703
7 F7 9 5.168
7 F7 10 6.144
7 F7 11 6.144
7 F7 12 5.168
7 F7 13 3.703
7 F7 14 3.703
7 F7 15 6.632
7 F7 16 10.539
7 F7 17 12.492
7 F7 18 10.050
7 F7 19 4.679
7 F7 20 0.285
7 F7 21 -1.180
7 F7 22 1.261
7 F7 23 4.191
7 F7 24 3.703
7 F7 25 -0.203
7 F7 26 -5.086
7 F7 27 -8.504
7 F7 28 -8.993
7 F7 29 -6.551
7 F7 30 -5.575
7 F7 31 -5.086
7 F7 32 -5.575
7 F7 33 -5.086
7 F7 34 -3.133
7 F7 35 -1.668
7 F7 36 -2.157
7 F7 37 -4.110
7 F7 38 -6.063
7 F7 39 -6.063
7 F7 40 -2.645
7 F7 41 2.238
7 F7 42 5.168
7 F7 43 4.679
7 F7 44 1.261
7 F7 45 -2.645
7 F7 46 -4.598
7 F7 47 -4.110
7 F7 48 -3.133
7 F7 49 -2.157
7 F7 50 -2.157
7 F7 51 -2.645
7 F7 52 -4.110
7 F7 53 -6.063
7 F7 54 -8.016
7 F7 55 -9.481
7 F7 56 -8.993
7 F7 57 -8.016
7 F7 58 -7.039
7 F7 59 -7.528
7 F7 60 -10.457
7 F7 61 -13.875
7 F7 62 -16.317
7 F7 63 -15.828
7 F7 64 -14.364
7 F7 65 -13.875
7 F7 66 -15.340
7 F7 67 -17.782
7 F7 68 -19.246
7 F7 69 -17.293
7 F7 70 -12.410
7 F7 71 -7.528
7 F7 72 -6.063
7 F7 73 -8.993
7 F7 74 -14.364
7 F7 75 -17.782
7 F7 76 -15.828
7 F7 77 -8.993
7 F7 78 -0.692
7 F7 79 4.191
7 F7 80 3.703
7 F7 81 -2.157
7 F7 82 -8.016
7 F7 83 -11.434
7 F7 84 -11.922
7 F7 85 -9.969
7 F7 86 -8.993
7 F7 87 -9.969
7 F7 88 -11.434
7 F7 89 -11.922
7 F7 90 -11.922
7 F7 91 -10.946
7 F7 92 -9.969
7 F7 93 -8.504
7 F7 94 -6.551
7 F7 95 -4.110
7 F7 96 -2.157
7 F7 97 -1.668
7 F7 98 -2.645
7 F7 99 -3.133
7 F7 100 -2.645
7 F7 101 -1.668
7 F7 102 -1.668
7 F7 103 -4.110
7 F7 104 -8.016
7 F7 105 -10.946
7 F7 106 -10.457
7 F7 107 -6.551
7 F7 108 -2.157
7 F7 109 0.285
7 F7 110 -1.180
7 F7 111 -3.621
7 F7 112 -6.063
7 F7 113 -5.086
7 F7 114 -2.157
7 F7 115 2.726
7 F7 116 6.144
7 F7 117 7.609
7 F7 118 6.632
7 F7 119 2.726
7 F7 120 -2.157
7 F7 121 -7.528
7 F7 122 -10.946
7 F7 123 -11.434
7 F7 124 -9.481
7 F7 125 -6.551
7 F7 126 -5.575
7 F7 127 -7.039
7 F7 128 -9.969
7 F7 129 -13.387
7 F7 130 -14.852
7 F7 131 -14.364
7 F7 132 -13.387
7 F7 133 -13.875
7 F7 134 -15.340
7 F7 135 -16.805
7 F7 136 -17.293
7 F7 137 -16.317
7 F7 138 -14.852
7 F7 139 -13.875
7 F7 140 -13.875
7 F7 141 -13.875
7 F7 142 -12.899
7 F7 143 -10.946
7 F7 144 -10.457
7 F7 145 -11.922
7 F7 146 -15.340
7 F7 147 -17.782
7 F7 148 -17.782
7 F7 149 -13.875
7 F7 150 -9.481
7 F7 151 -7.528
7 F7 152 -9.969
7 F7 153 -14.852
7 F7 154 -18.758
7 F7 155 -18.758
7 F7 156 -15.340
7 F7 157 -11.922
7 F7 158 -11.434
7 F7 159 -14.364
7 F7 160 -17.782
7 F7 161 -18.758
7 F7 162 -16.317
7 F7 163 -11.922
7 F7 164 -8.016
7 F7 165 -6.063
7 F7 166 -5.575
7 F7 167 -6.551
7 F7 168 -7.528
7 F7 169 -8.504
7 F7 170 -8.504
7 F7 171 -7.528
7 F7 172 -4.598
7 F7 173 -2.157
7 F7 174 -0.692
7 F7 175 -1.668
7 F7 176 -5.086
7 F7 177 -8.504
7 F7 178 -10.457
7 F7 179 -10.457
7 F7 180 -8.016
7 F7 181 -5.575
7 F7 182 -4.110
7 F7 183 -3.621
7 F7 184 -4.110
7 F7 185 -3.621
7 F7 186 -2.645
7 F7 187 -0.203
7 F7 188 2.238
7 F7 189 2.726
7 F7 190 0.773
7 F7 191 -3.621
7 F7 192 -9.481
7 F7 193 -13.387
7 F7 194 -14.364
7 F7 195 -11.434
7 F7 196 -7.528
7 F7 197 -4.598
7 F7 198 -4.110
7 F7 199 -5.575
7 F7 200 -7.039
7 F7 201 -7.528
7 F7 202 -7.039
7 F7 203 -6.551
7 F7 204 -7.039
7 F7 205 -9.481
7 F7 206 -11.922
7 F7 207 -13.875
7 F7 208 -14.364
7 F7 209 -13.387
7 F7 210 -11.434
7 F7 211 -8.016
7 F7 212 -4.598
7 F7 213 -2.157
7 F7 214 -2.157
7 F7 215 -6.063
7 F7 216 -11.434
7 F7 217 -15.340
7 F7 218 -14.364
7 F7 219 -8.504
7 F7 220 -2.645
7 F7 221 -1.668
7 F7 222 -7.039
7 F7 223 -15.828
7 F7 224 -21.200
7 F7 225 -18.758
7 F7 226 -10.457
7 F7 227 -2.157
7 F7 228 0.773
7 F7 229 -2.645
7 F7 230 -8.993
7 F7 231 -12.410
7 F7 232 -10.457
7 F7 233 -5.086
7 F7 234 -0.203
7 F7 235 1.750
7 F7 236 0.773
7 F7 237 -1.180
7 F7 238 -3.133
7 F7 239 -5.086
7 F7 240 -7.039
7 F7 241 -8.504
7 F7 242 -8.504
7 F7 243 -6.063
7 F7 244 -3.621
7 F7 245 -2.157
7 F7 246 -2.645
7 F7 247 -4.598
7 F7 248 -7.528
7 F7 249 -9.481
7 F7 250 -11.922
7 F7 251 -14.364
7 F7 252 -15.828
7 F7 253 -15.340
7 F7 254 -12.899
7 F7 255 -10.946
# F8 chan 3
7 F8 0 6.480
7 F8 1 0.621
7 F8 2 -6.215
7 F8 3 -7.680
7 F8 4 -2.309
7 F8 5 4.038
7 F8 6 5.503
7 F8 7 0.621
7 F8 8 -6.704
7 F8 9 -9.633
7 F8 10 -5.727
7 F8 11 2.085
7 F8 12 7.456
7 F8 13 7.945
7 F8 14 3.550
7 F8 15 -1.821
7 F8 16 -5.239
7 F8 17 -5.239
7 F8 18 -2.797
7 F8 19 1.109
7 F8 20 4.038
7 F8 21 5.992
7 F8 22 5.992
7 F8 23 3.550
7 F8 24 -0.356
7 F8 25 -4.262
7 F8 26 -4.751
7 F8 27 -2.797
7 F8 28 0.132
7 F8 29 1.597
7 F8 30 0.621
7 F8 31 -2.797
7 F8 32 -6.704
7 F8 33 -8.169
7 F8 34 -5.727
7 F8 35 -1.333
7 F8 36 3.550
7 F8 37 6.968
7 F8 38 6.968
7 F8 39 4.527
7 F8 40 1.109
7 F8 41 -0.356
7 F8 42 0.132
7 F8 43 3.550
7 F8 44 6.968
7 F8 45 7.456
7 F8 46 3.550
7 F8 47 -3.286
7 F8 48 -7.680
7 F8 49 -6.704
7 F8 50 0.621
7 F8 51 8.921
7 F8 52 12.828
7 F8 53 9.410
7 F8 54 3.550
7 F8 55 0.621
7 F8 56 4.038
7 F8 57 9.898
7 F8 58 10.386
7 F8 59 0.621
7 F8 60 -15.004
7 F8 61 -27.700
7 F8 62 -29.653
7 F8 63 -20.376
7 F8 64 -8.169
7 F8 65 -1.821
7 F8 66 -5.239
7 F8 67 -15.493
7 F8 68 -23.794
7 F8 69 -23.305
7 F8 70 -14.516
7 F8 71 -2.797
7 F8 72 5.015
7 F8 73 7.945
7 F8 74 6.968
7 F8 75 5.015
7 F8 76 4.527
7 F8 77 4.038
7 F8 78 3.062
7 F8 79 2.574
7 F8 80 3.550
7 F8 81 6.968
7 F8 82 10.874
7 F8 83 11.851
7 F8 84 7.945
7 F8 85 1.109
7 F8 86 -3.774
7 F8 87 -4.262
7 F8 88 0.621
7 F8 89 5.992
7 F8 90 7.945
7 F8 91 5.015
7 F8 92 -1.333
7 F8 93 -6.704
7 F8 94 -8.169
7 F8 95 -5.727
7 F8 96 -1.821
7 F8 97 1.109
7 F8 98 0.132
7 F8 99 -3.774
7 F8 100 -8.169
7 F8 101 -10.610
7 F8 102 -9.145
7 F8 103 -3.286
7 F8 104 3.062
7 F8 105 5.992
7 F8 106 4.038
7 F8 107 -0.356
7 F8 108 -3.774
7 F8 109 -3.774
7 F8 110 -1.333
7 F8 111 1.109
7 F8 112 2.085
7 F8 113 1.109
7 F8 114 1.597
7 F8 115 4.038
7 F8 116 8.921
7 F8 117 12.339
7 F8 118 11.363
7 F8 119 5.503
7 F8 120 -3.774
7 F8 121 -11.098
7 F8 122 -12.075
7 F8 123 -5.727
7 F8 124 4.038
7 F8 125 10.874
7 F8 126 9.898
7 F8 127 1.109
7 F8 128 -10.610
7 F8 129 -17.934
7 F8 130 -18.422
7 F8 131 -14.028
7 F8 132 -9.633
7 F8 133 -6.704
7 F8 134 -6.215
7 F8 135 -5.727
7 F8 136 -3.774
7 F8 137 -1.821
7 F8 138 -0.844
7 F8 139 -1.821
7 F8 140 -4.262
7 F8 141 -6.215
7 F8 142 -6.704
7 F8 143 -6.704
7 F8 144 -5.727
7 F8 145 -5.239
7 F8 146 -4.751
7 F8 147 -4.751
7 F8 148 -5.727
7 F8 149 -8.169
7 F8 150 -11.098
7 F8 151 -10.610
7 F8 152 -7.192
7 F8 153 -2.797
7 F8 154 -0.844
7 F8 155 -3.774
7 F8 156 -10.122
7 F8 157 -15.493
7 F8 158 -15.981
7 F8 159 -13.051
7 F8 160 -9.145
7 F8 161 -8.169
7 F8 162 -10.122
7 F8 163 -12.075
7 F8 164 -11.098
7 F8 165 -6.704
7 F8 166 -0.356
7 F8 167 4.038
7 F8 168 3.550
7 F8 169 -0.356
7 F8 170 -4.751
7 F8 171 -6.704
7 F8 172 -4.751
7 F8 173 -0.844
7 F8 174 3.062
7 F8 175 4.527
7 F8 176 4.038
7 F8 177 2.085
7 F8 178 1.109
7 F8 179 0.132
7 F8 180 -1.333
7 F8 181 -2.797
7 F8 182 -2.309
7 F8 183 1.597
7 F8 184 7.456
7 F8 185 12.339
7 F8 186 11.363
7 F8 187 4.527
7 F8 188 -4.262
7 F8 189 -8.169
7 F8 190 -3.286
7 F8 191 5.503
7 F8 192 12.339
7 F8 193 10.874
7 F8 194 3.062
7 F8 195 -5.727
7 F8 196 -9.633
7 F8 197 -6.704
7 F8 198 0.132
7 F8 199 5.503
7 F8 200 6.480
7 F8 201 4.038
7 F8 202 1.109
7 F8 203 -1.333
7 F8 204 -4.262
7 F8 205 -7.192
7 F8 206 -9.633
7 F8 207 -8.657
7 F8 208 -3.774
7 F8 209 3.062
7 F8 210 8.921
7 F8 211 8.433
7 F8 212 2.574
7 F8 213 -6.215
7 F8 214 -13.051
7 F8 215 -14.516
7 F8 216 -11.098
7 F8 217 -5.727
7 F8 218 -0.844
7 F8 219 3.062
7 F8 220 5.992
7 F8 221 7.945
7 F8 222 8.921
7 F8 223 7.456
7 F8 224 3.550
7 F8 225 -2.797
7 F8 226 -9.633
7 F8 227 -12.075
7 F8 228 -9.145
7 F8 229 -2.797
7 F8 230 4.038
7 F8 231 6.968
7 F8 232 5.503
7 F8 233 1.597
7 F8 234 -0.844
7 F8 235 -1.333
7 F8 236 -0.844
7 F8 237 -0.844
7 F8 238 -1.821
7 F8 239 -2.309
7 F8 240 0.621
7 F8 241 6.480
7 F8 242 12.339
7 F8 243 14.781
7 F8 244 11.851
7 F8 245 4.038
7 F8 246 -3.774
7 F8 247 -8.657
7 F8 248 -8.657
7 F8 249 -5.239
7 F8 250 -2.309
7 F8 251 -1.821
7 F8 252 -3.774
7 F8 253 -6.215
7 F8 254 -8.169
7 F8 255 -7.680
# AF1 chan 4
7 AF1 0 -3.052
7 AF1 1 -4.028
7 AF1 2 -4.028
7 AF1 3 -3.052
7 AF1 4 -2.075
7 AF1 5 -1.587
7 AF1 6 -1.587
7 AF1 7 -1.587
7 AF1 8 -1.587
7 AF1 9 -1.099
7 AF1 10 -1.099
7 AF1 11 -1.099
7 AF1 12 -1.099
7 AF1 13 -1.099
7 AF1 14 -1.099
7 AF1 15 -0.610
7 AF1 16 -0.610
7 AF1 17 -0.122
7 AF1 18 -0.610
7 AF1 19 -0.610
7 AF1 20 -1.099
7 AF1 21 -0.610
7 AF1 22 -1.099
7 AF1 23 -2.075
7 AF1 24 -4.028
7 AF1 25 -5.981
7 AF1 26 -6.470
7 AF1 27 -5.981
7 AF1 28 -4.517
7 AF1 29 -4.028
7 AF1 30 -4.517
7 AF1 31 -5.493
7 AF1 32 -5.493
7 AF1 33 -4.517
7 AF1 34 -3.052
7 AF1 35 -3.540
7 AF1 36 -4.517
7 AF1 37 -5.493
7 AF1 38 -5.005
7 AF1 39 -3.052
7 AF1 40 -1.099
7 AF1 41 0.366
7 AF1 42 -0.610
7 AF1 43 -3.052
7 AF1 44 -4.517
7 AF1 45 -4.517
7 AF1 46 -2.563
7 AF1 47 -1.587
7 AF1 48 -2.075
7 AF1 49 -3.540
7 AF1 50 -5.005
7 AF1 51 -4.517
7 AF1 52 -2.563
7 AF1 53 -0.610
7 AF1 54 -1.099
7 AF1 55 -2.563
7 AF1 56 -4.517
7 AF1 57 -5.005
7 AF1 58 -4.517
7 AF1 59 -3.052
7 AF1 60 -3.540
7 AF1 61 -5.493
7 AF1 62 -7.935
7 AF1 63 -9.399
7 AF1 64 -8.911
7 AF1 65 -7.935
7 AF1 66 -7.446
7 AF1 67 -7.935
7 AF1 68 -8.911
7 AF1 69 -9.888
7 AF1 70 -9.399
7 AF1 71 -7.935
7 AF1 72 -5.493
7 AF1 73 -4.028
7 AF1 74 -3.540
7 AF1 75 -4.028
7 AF1 76 -4.517
7 AF1 77 -3.540
7 AF1 78 -2.075
7 AF1 79 -0.122
7 AF1 80 0.366
7 AF1 81 0.366
7 AF1 82 -0.610
7 AF1 83 -1.099
7 AF1 84 -1.099
7 AF1 85 -1.587
7 AF1 86 -2.075
7 AF1 87 -3.540
7 AF1 88 -5.493
7 AF1 89 -7.446
7 AF1 90 -8.423
7 AF1 91 -7.935
7 AF1 92 -6.958
7 AF1 93 -5.493
7 AF1 94 -4.028
7 AF1 95 -2.563
7 AF1 96 -2.075
7 AF1 97 -1.587
7 AF1 98 -2.075
7 AF1 99 -2.075
7 AF1 100 -2.075
7 AF1 101 -1.099
7 AF1 102 0.366
7 AF1 103 1.343
7 AF1 104 1.831
7 AF1 105 1.831
7 AF1 106 1.343
7 AF1 107 1.343
7 AF1 108 1.343
7 AF1 109 1.831
7 AF1 110 1.831
7 AF1 111 2.319
7 AF1 112 1.831
7 AF1 113 1.831
7 AF1 114 1.343
7 AF1 115 1.343
7 AF1 116 1.343
7 AF1 117 1.831
7 AF1 118 2.319
7 AF1 119 1.831
7 AF1 120 0.366
7 AF1 121 -1.587
7 AF1 122 -2.563
7 AF1 123 -2.075
7 AF1 124 -0.122
7 AF1 125 1.831
7 AF1 126 2.319
7 AF1 127 0.854
7 AF1 128 -3.052
7 AF1 129 -5.981
7 AF1 130 -7.446
7 AF1 131 -6.470
7 AF1 132 -5.005
7 AF1 133 -4.028
7 AF1 134 -4.028
7 AF1 135 -4.028
7 AF1 136 -4.517
7 AF1 137 -4.517
7 AF1 138 -4.028
7 AF1 139 -4.028
7 AF1 140 -4.028
7 AF1 141 -4.517
7 AF1 142 -4.517
7 AF1 143 -4.517
7 AF1 144 -4.028
7 AF1 145 -4.517
7 AF1 146 -5.005
7 AF1 147 -6.470
7 AF1 148 -7.446
7 AF1 149 -8.423
7 AF1 150 -8.423
7 AF1 151 -7.446
7 AF1 152 -6.470
7 AF1 153 -5.005
7 AF1 154 -4.517
7 AF1 155 -5.005
7 AF1 156 -5.981
7 AF1 157 -6.958
7 AF1 158 -6.958
7 AF1 159 -5.981
7 AF1 160 -4.028
7 AF1 161 -2.563
7 AF1 162 -1.099
7 AF1 163 -1.099
7 AF1 164 -1.099
7 AF1 165 -0.610
7 AF1 166 -0.122
7 AF1 167 0.854
7 AF1 168 0.854
7 AF1 169 0.854
7 AF1 170 0.366
7 AF1 171 -0.122
7 AF1 172 0.366
7 AF1 173 1.343
7 AF1 174 2.319
7 AF1 175 3.296
7 AF1 176 3.296
7 AF1 177 2.808
7 AF1 178 1.831
7 AF1 179 1.831
7 AF1 180 2.808
7 AF1 181 4.272
7 AF1 182 5.737
7 AF1 183 6.714
7 AF1 184 6.714
7 AF1 185 6.714
7 AF1 186 6.714
7 AF1 187 7.202
7 AF1 188 7.690
7 AF1 189 7.202
7 AF1 190 6.226
7 AF1 191 4.761
7 AF1 192 3.784
7 AF1 193 2.319
7 AF1 194 1.831
7 AF1 195 1.343
7 AF1 196 1.343
7 AF1 197 2.319
7 AF1 198 3.296
7 AF1 199 4.272
7 AF1 200 4.761
7 AF1 201 4.272
7 AF1 202 3.784
7 AF1 203 3.296
7 AF1 204 3.296
7 AF1 205 3.784
7 AF1 206 3.784
7 AF1 207 3.296
7 AF1 208 2.319
7 AF1 209 1.831
7 AF1 210 2.808
7 AF1 211 4.761
7 AF1 212 7.202
7 AF1 213 8.667
7 AF1 214 7.690
7 AF1 215 5.249
7 AF1 216 2.808
7 AF1 217 1.831
7 AF1 218 1.831
7 AF1 219 2.808
7 AF1 220 3.296
7 AF1 221 3.784
7 AF1 222 4.272
7 AF1 223 4.272
7 AF1 224 4.761
7 AF1 225 3.784
7 AF1 226 3.296
7 AF1 227 2.319
7 AF1 228 2.319
7 AF1 229 3.296
7 AF1 230 4.761
7 AF1 231 6.714
7 AF1 232 8.667
7 AF1 233 9.644
7 AF1 234 10.132
7 AF1 235 10.620
7 AF1 236 9.644
7 AF1 237 8.667
7 AF1 238 6.714
7 AF1 239 5.737
7 AF1 240 5.249
7 AF1 241 5.737
7 AF1 242 5.737
7 AF1 243 5.249
7 AF1 244 4.761
7 AF1 245 4.272
7 AF1 246 4.272
7 AF1 247 4.272
7 AF1 248 4.761
7 AF1 249 4.272
7 AF1 250 3.296
7 AF1 251 2.319
7 AF1 252 2.319
7 AF1 253 3.296
7 AF1 254 4.272
7 AF1 255 4.761
# AF2 chan 5
7 AF2 0 -0.763
7 AF2 1 -2.716
7 AF2 2 -3.204
7 AF2 3 -2.716
7 AF2 4 -1.740
7 AF2 5 -0.763
7 AF2 6 -0.275
7 AF2 7 -0.275
7 AF2 8 -0.275
7 AF2 9 -0.275
7 AF2 10 0.214
7 AF2 11 0.214
7 AF2 12 0.702
7 AF2 13 0.214
7 AF2 14 0.214
7 AF2 15 0.214
7 AF2 16 0.214
7 AF2 17 -0.275
7 AF2 18 -0.763
7 AF2 19 -1.251
7 AF2 20 -0.763
7 AF2 21 0.702
7 AF2 22 1.190
7 AF2 23 0.702
7 AF2 24 -1.251
7 AF2 25 -3.693
7 AF2 26 -5.157
7 AF2 27 -4.669
7 AF2 28 -2.716
7 AF2 29 -1.251
7 AF2 30 -0.763
7 AF2 31 -1.740
7 AF2 32 -3.204
7 AF2 33 -4.181
7 AF2 34 -4.669
7 AF2 35 -5.157
7 AF2 36 -5.646
7 AF2 37 -5.157
7 AF2 38 -3.693
7 AF2 39 -1.740
7 AF2 40 -0.763
7 AF2 41 -0.763
7 AF2 42 -2.228
7 AF2 43 -3.693
7 AF2 44 -3.204
7 AF2 45 -2.228
7 AF2 46 -0.763
7 AF2 47 -0.763
7 AF2 48 -2.716
7 AF2 49 -4.181
7 AF2 50 -4.669
7 AF2 51 -2.716
7 AF2 52 -0.275
7 AF2 53 1.190
7 AF2 54 0.702
7 AF2 55 -1.251
7 AF2 56 -2.716
7 AF2 57 -3.204
7 AF2 58 -3.204
7 AF2 59 -3.693
7 AF2 60 -5.646
7 AF2 61 -8.575
7 AF2 62 -10.529
7 AF2 63 -11.505
7 AF2 64 -10.529
7 AF2 65 -10.040
7 AF2 66 -10.040
7 AF2 67 -10.529
7 AF2 68 -11.505
7 AF2 69 -10.529
7 AF2 70 -8.575
7 AF2 71 -6.622
7 AF2 72 -4.669
7 AF2 73 -3.693
7 AF2 74 -3.204
7 AF2 75 -2.716
7 AF2 76 -2.228
7 AF2 77 -1.740
7 AF2 78 -1.251
7 AF2 79 -1.251
7 AF2 80 -0.763
7 AF2 81 -0.275
7 AF2 82 0.702
7 AF2 83 1.190
7 AF2 84 -0.275
7 AF2 85 -2.716
7 AF2 86 -4.181
7 AF2 87 -4.669
7 AF2 88 -4.181
7 AF2 89 -3.693
7 AF2 90 -4.181
7 AF2 91 -5.646
7 AF2 92 -7.111
7 AF2 93 -8.087
7 AF2 94 -6.622
7 AF2 95 -4.669
7 AF2 96 -2.716
7 AF2 97 -1.740
7 AF2 98 -2.228
7 AF2 99 -3.693
7 AF2 100 -4.181
7 AF2 101 -3.693
7 AF2 102 -2.228
7 AF2 103 -0.275
7 AF2 104 0.702
7 AF2 105 1.190
7 AF2 106 0.702
7 AF2 107 0.214
7 AF2 108 0.214
7 AF2 109 1.190
7 AF2 110 1.678
7 AF2 111 2.167
7 AF2 112 1.190
7 AF2 113 -0.275
7 AF2 114 -1.740
7 AF2 115 -2.716
7 AF2 116 -2.716
7 AF2 117 -2.228
7 AF2 118 -2.228
7 AF2 119 -2.716
7 AF2 120 -3.693
7 AF2 121 -4.181
7 AF2 122 -3.693
7 AF2 123 -2.228
7 AF2 124 0.214
7 AF2 125 1.678
7 AF2 126 0.702
7 AF2 127 -2.228
7 AF2 128 -6.134
7 AF2 129 -9.064
7 AF2 130 -9.552
7 AF2 131 -8.087
7 AF2 132 -6.622
7 AF2 133 -6.134
7 AF2 134 -7.111
7 AF2 135 -7.599
7 AF2 136 -8.087
7 AF2 137 -7.599
7 AF2 138 -6.622
7 AF2 139 -6.134
7 AF2 140 -6.622
7 AF2 141 -7.599
7 AF2 142 -8.575
7 AF2 143 -9.064
7 AF2 144 -9.552
7 AF2 145 -9.552
7 AF2 146 -10.529
7 AF2 147 -11.505
7 AF2 148 -11.993
7 AF2 149 -12.482
7 AF2 150 -12.482
7 AF2 151 -11.993
7 AF2 152 -10.529
7 AF2 153 -9.552
7 AF2 154 -9.064
7 AF2 155 -8.575
7 AF2 156 -9.552
7 AF2 157 -10.040
7 AF2 158 -10.529
7 AF2 159 -10.529
7 AF2 160 -9.552
7 AF2 161 -8.575
7 AF2 162 -7.599
7 AF2 163 -7.111
7 AF2 164 -6.622
7 AF2 165 -6.134
7 AF2 166 -6.134
7 AF2 167 -5.646
7 AF2 168 -5.157
7 AF2 169 -5.157
7 AF2 170 -4.669
7 AF2 171 -4.669
7 AF2 172 -5.157
7 AF2 173 -5.157
7 AF2 174 -5.157
7 AF2 175 -4.669
7 AF2 176 -4.181
7 AF2 177 -4.181
7 AF2 178 -4.669
7 AF2 179 -5.157
7 AF2 180 -4.669
7 AF2 181 -3.204
7 AF2 182 -0.763
7 AF2 183 0.702
7 AF2 184 1.190
7 AF2 185 0.214
7 AF2 186 -0.275
7 AF2 187 -0.275
7 AF2 188 0.702
7 AF2 189 1.678
7 AF2 190 2.167
7 AF2 191 0.702
7 AF2 192 -1.251
7 AF2 193 -3.693
7 AF2 194 -5.157
7 AF2 195 -6.134
7 AF2 196 -5.646
7 AF2 197 -3.693
7 AF2 198 -1.740
7 AF2 199 -0.275
7 AF2 200 0.214
7 AF2 201 -1.251
7 AF2 202 -2.716
7 AF2 203 -3.693
7 AF2 204 -4.181
7 AF2 205 -2.716
7 AF2 206 -1.251
7 AF2 207 -0.763
7 AF2 208 -0.763
7 AF2 209 -1.251
7 AF2 210 -1.251
7 AF2 211 -0.275
7 AF2 212 0.702
7 AF2 213 0.702
7 AF2 214 0.214
7 AF2 215 -0.763
7 AF2 216 -2.716
7 AF2 217 -3.693
7 AF2 218 -3.693
7 AF2 219 -2.716
7 AF2 220 -1.251
7 AF2 221 0.214
7 AF2 222 0.214
7 AF2 223 -0.763
7 AF2 224 -2.716
7 AF2 225 -5.157
7 AF2 226 -7.111
7 AF2 227 -6.622
7 AF2 228 -5.157
7 AF2 229 -2.716
7 AF2 230 -1.251
7 AF2 231 -0.763
7 AF2 232 -1.251
7 AF2 233 -1.740
7 AF2 234 -1.251
7 AF2 235 -0.763
7 AF2 236 0.214
7 AF2 237 0.214
7 AF2 238 -0.763
7 AF2 239 -2.228
7 AF2 240 -3.204
7 AF2 241 -4.181
7 AF2 242 -4.181
7 AF2 243 -4.669
7 AF2 244 -5.646
7 AF2 245 -6.622
7 AF2 246 -6.622
7 AF2 247 -6.622
7 AF2 248 -6.134
7 AF2 249 -5.646
7 AF2 250 -4.669
7 AF2 251 -4.669
7 AF2 252 -4.669
7 AF2 253 -4.669
7 AF2 254 -4.669
7 AF2 255 -4.669
# FZ chan 6
7 FZ 0 -1.546
7 FZ 1 -2.523
7 FZ 2 -2.523
7 FZ 3 -2.523
7 FZ 4 -2.035
7 FZ 5 -1.546
7 FZ 6 -1.546
7 FZ 7 -1.546
7 FZ 8 -1.546
7 FZ 9 -1.546
7 FZ 10 -1.058
7 FZ 11 -1.058
7 FZ 12 -0.570
7 FZ 13 -0.570
7 FZ 14 -0.081
7 FZ 15 -0.081
7 FZ 16 0.407
7 FZ 17 -0.081
7 FZ 18 -0.081
7 FZ 19 -0.570
7 FZ 20 -1.058
7 FZ 21 -1.546
7 FZ 22 -2.035
7 FZ 23 -2.523
7 FZ 24 -3.499
7 FZ 25 -3.988
7 FZ 26 -4.476
7 FZ 27 -3.988
7 FZ 28 -3.499
7 FZ 29 -3.011
7 FZ 30 -3.011
7 FZ 31 -3.011
7 FZ 32 -3.011
7 FZ 33 -3.499
7 FZ 34 -4.476
7 FZ 35 -5.452
7 FZ 36 -5.941
7 FZ 37 -5.452
7 FZ 38 -3.988
7 FZ 39 -2.523
7 FZ 40 -1.058
7 FZ 41 -1.546
7 FZ 42 -3.011
7 FZ 43 -4.964
7 FZ 44 -5.452
7 FZ 45 -4.476
7 FZ 46 -3.011
7 FZ 47 -2.523
7 FZ 48 -3.988
7 FZ 49 -5.941
7 FZ 50 -7.894
7 FZ 51 -7.406
7 FZ 52 -5.452
7 FZ 53 -3.499
7 FZ 54 -2.523
7 FZ 55 -3.011
7 FZ 56 -4.964
7 FZ 57 -5.941
7 FZ 58 -6.429
7 FZ 59 -5.941
7 FZ 60 -5.941
7 FZ 61 -6.917
7 FZ 62 -8.382
7 FZ 63 -9.847
7 FZ 64 -10.335
7 FZ 65 -10.335
7 FZ 66 -9.359
7 FZ 67 -8.870
7 FZ 68 -8.870
7 FZ 69 -9.359
7 FZ 70 -9.359
7 FZ 71 -9.359
7 FZ 72 -8.382
7 FZ 73 -7.894
7 FZ 74 -7.406
7 FZ 75 -6.917
7 FZ 76 -6.429
7 FZ 77 -5.941
7 FZ 78 -5.452
7 FZ 79 -4.964
7 FZ 80 -4.476
7 FZ 81 -3.988
7 FZ 82 -3.499
7 FZ 83 -3.988
7 FZ 84 -3.988
7 FZ 85 -4.964
7 FZ 86 -5.941
7 FZ 87 -6.429
7 FZ 88 -7.406
7 FZ 89 -7.894
7 FZ 90 -8.870
7 FZ 91 -9.359
7 FZ 92 -9.359
7 FZ 93 -8.870
7 FZ 94 -7.894
7 FZ 95 -6.917
7 FZ 96 -5.452
7 FZ 97 -5.452
7 FZ 98 -5.941
7 FZ 99 -5.941
7 FZ 100 -6.429
7 FZ 101 -5.941
7 FZ 102 -5.452
7 FZ 103 -4.476
7 FZ 104 -3.499
7 FZ 105 -3.499
7 FZ 106 -3.499
7 FZ 107 -3.988
7 FZ 108 -3.988
7 FZ 109 -3.988
7 FZ 110 -3.988
7 FZ 111 -3.988
7 FZ 112 -4.964
7 FZ 113 -6.429
7 FZ 114 -7.406
7 FZ 115 -7.406
7 FZ 116 -7.406
7 FZ 117 -7.406
7 FZ 118 -7.894
7 FZ 119 -7.894
7 FZ 120 -8.382
7 FZ 121 -8.870
7 FZ 122 -8.382
7 FZ 123 -7.406
7 FZ 124 -5.941
7 FZ 125 -4.964
7 FZ 126 -5.452
7 FZ 127 -6.917
7 FZ 128 -9.359
7 FZ 129 -11.312
7 FZ 130 -12.777
7 FZ 131 -12.777
7 FZ 132 -12.288
7 FZ 133 -11.800
7 FZ 134 -11.800
7 FZ 135 -12.288
7 FZ 136 -12.288
7 FZ 137 -12.288
7 FZ 138 -11.800
7 FZ 139 -11.800
7 FZ 140 -11.800
7 FZ 141 -12.288
7 FZ 142 -12.288
7 FZ 143 -12.288
7 FZ 144 -12.288
7 FZ 145 -12.777
7 FZ 146 -13.265
7 FZ 147 -14.242
7 FZ 148 -15.706
7 FZ 149 -16.683
7 FZ 150 -16.195
7 FZ 151 -15.706
7 FZ 152 -14.242
7 FZ 153 -12.777
7 FZ 154 -12.288
7 FZ 155 -12.777
7 FZ 156 -13.753
7 FZ 157 -15.218
7 FZ 158 -15.218
7 FZ 159 -14.730
7 FZ 160 -13.753
7 FZ 161 -12.288
7 FZ 162 -11.800
7 FZ 163 -11.800
7 FZ 164 -12.288
7 FZ 165 -12.777
7 FZ 166 -13.265
7 FZ 167 -12.288
7 FZ 168 -11.800
7 FZ 169 -11.312
7 FZ 170 -10.824
7 FZ 171 -11.312
7 FZ 172 -11.800
7 FZ 173 -12.288
7 FZ 174 -11.800
7 FZ 175 -11.312
7 FZ 176 -10.824
7 FZ 177 -10.824
7 FZ 178 -10.824
7 FZ 179 -10.824
7 FZ 180 -10.335
7 FZ 181 -9.359
7 FZ 182 -8.382
7 FZ 183 -7.406
7 FZ 184 -7.406
7 FZ 185 -7.894
7 FZ 186 -7.894
7 FZ 187 -7.894
7 FZ 188 -7.894
7 FZ 189 -7.894
7 FZ 190 -8.382
7 FZ 191 -8.870
7 FZ 192 -9.847
7 FZ 193 -10.335
7 FZ 194 -11.312
7 FZ 195 -11.800
7 FZ 196 -12.288
7 FZ 197 -12.777
7 FZ 198 -11.800
7 FZ 199 -10.824
7 FZ 200 -10.335
7 FZ 201 -10.824
7 FZ 202 -11.800
7 FZ 203 -12.288
7 FZ 204 -12.288
7 FZ 205 -11.312
7 FZ 206 -10.335
7 FZ 207 -9.847
7 FZ 208 -9.847
7 FZ 209 -10.335
7 FZ 210 -10.335
7 FZ 211 -9.847
7 FZ 212 -9.359
7 FZ 213 -8.382
7 FZ 214 -8.870
7 FZ 215 -9.847
7 FZ 216 -11.312
7 FZ 217 -12.777
7 FZ 218 -13.265
7 FZ 219 -13.265
7 FZ 220 -12.288
7 FZ 221 -11.312
7 FZ 222 -10.335
7 FZ 223 -10.824
7 FZ 224 -11.312
7 FZ 225 -13.753
7 FZ 226 -15.706
7 FZ 227 -17.171
7 FZ 228 -17.171
7 FZ 229 -16.195
7 FZ 230 -15.218
7 FZ 231 -13.753
7 FZ 232 -13.265
7 FZ 233 -12.288
7 FZ 234 -11.312
7 FZ 235 -10.824
7 FZ 236 -10.335
7 FZ 237 -10.824
7 FZ 238 -12.288
7 FZ 239 -13.753
7 FZ 240 -14.730
7 FZ 241 -15.218
7 FZ 242 -15.706
7 FZ 243 -15.706
7 FZ 244 -16.195
7 FZ 245 -16.195
7 FZ 246 -16.195
7 FZ 247 -15.706
7 FZ 248 -15.218
7 FZ 249 -15.218
7 FZ 250 -15.218
7 FZ 251 -15.706
7 FZ 252 -15.218
7 FZ 253 -15.218
7 FZ 254 -15.218
7 FZ 255 -14.730
# F4 chan 7
7 F4 0 -1.872
7 F4 1 -2.848
7 F4 2 -3.825
7 F4 3 -3.337
7 F4 4 -2.848
7 F4 5 -1.383
7 F4 6 -0.895
7 F4 7 -0.895
7 F4 8 -1.872
7 F4 9 -2.848
7 F4 10 -2.848
7 F4 11 -2.360
7 F4 12 -0.895
7 F4 13 0.570
7 F4 14 1.058
7 F4 15 1.058
7 F4 16 -0.407
7 F4 17 -1.872
7 F4 18 -3.337
7 F4 19 -3.825
7 F4 20 -2.360
7 F4 21 0.570
7 F4 22 3.011
7 F4 23 3.499
7 F4 24 1.058
7 F4 25 -2.360
7 F4 26 -4.801
7 F4 27 -4.313
7 F4 28 -1.872
7 F4 29 1.058
7 F4 30 2.035
7 F4 31 1.058
7 F4 32 -1.872
7 F4 33 -4.801
7 F4 34 -6.266
7 F4 35 -6.266
7 F4 36 -4.313
7 F4 37 -0.895
7 F4 38 2.035
7 F4 39 3.011
7 F4 40 1.546
7 F4 41 -1.872
7 F4 42 -4.313
7 F4 43 -4.801
7 F4 44 -2.360
7 F4 45 0.570
7 F4 46 2.523
7 F4 47 2.523
7 F4 48 0.570
7 F4 49 -1.383
7 F4 50 -2.360
7 F4 51 -1.872
7 F4 52 -0.407
7 F4 53 0.081
7 F4 54 0.081
7 F4 55 0.570
7 F4 56 0.570
7 F4 57 0.081
7 F4 58 -2.360
7 F4 59 -5.778
7 F4 60 -9.684
7 F4 61 -12.126
7 F4 62 -11.637
7 F4 63 -9.684
7 F4 64 -8.219
7 F4 65 -8.708
7 F4 66 -10.173
7 F4 67 -10.661
7 F4 68 -10.173
7 F4 69 -8.219
7 F4 70 -5.778
7 F4 71 -4.313
7 F4 72 -4.313
7 F4 73 -3.337
7 F4 74 -0.895
7 F4 75 2.035
7 F4 76 4.476
7 F4 77 4.476
7 F4 78 2.523
7 F4 79 0.081
7 F4 80 0.081
7 F4 81 2.035
7 F4 82 3.499
7 F4 83 3.499
7 F4 84 1.058
7 F4 85 -2.848
7 F4 86 -4.313
7 F4 87 -3.337
7 F4 88 -0.895
7 F4 89 0.570
7 F4 90 -0.407
7 F4 91 -3.337
7 F4 92 -5.778
7 F4 93 -5.778
7 F4 94 -3.825
7 F4 95 -0.407
7 F4 96 1.058
7 F4 97 0.081
7 F4 98 -3.337
7 F4 99 -7.243
7 F4 100 -8.708
7 F4 101 -7.243
7 F4 102 -3.825
7 F4 103 -0.407
7 F4 104 1.546
7 F4 105 0.570
7 F4 106 -1.383
7 F4 107 -1.872
7 F4 108 -0.407
7 F4 109 2.523
7 F4 110 5.452
7 F4 111 5.452
7 F4 112 3.499
7 F4 113 0.081
7 F4 114 -2.360
7 F4 115 -2.848
7 F4 116 -1.383
7 F4 117 -0.407
7 F4 118 -0.407
7 F4 119 -1.872
7 F4 120 -3.825
7 F4 121 -3.825
7 F4 122 -2.360
7 F4 123 0.570
7 F4 124 3.011
7 F4 125 3.499
7 F4 126 1.546
7 F4 127 -1.872
7 F4 128 -4.801
7 F4 129 -6.266
7 F4 130 -5.778
7 F4 131 -3.825
7 F4 132 -2.848
7 F4 133 -2.848
7 F4 134 -3.825
7 F4 135 -5.778
7 F4 136 -7.243
7 F4 137 -7.731
7 F4 138 -6.755
7 F4 139 -5.778
7 F4 140 -4.313
7 F4 141 -4.313
7 F4 142 -5.290
7 F4 143 -5.778
7 F4 144 -6.266
7 F4 145 -5.778
7 F4 146 -4.801
7 F4 147 -3.825
7 F4 148 -3.825
7 F4 149 -4.801
7 F4 150 -6.755
7 F4 151 -7.731
7 F4 152 -8.708
7 F4 153 -8.708
7 F4 154 -8.219
7 F4 155 -7.731
7 F4 156 -7.731
7 F4 157 -8.708
7 F4 158 -9.196
7 F4 159 -9.196
7 F4 160 -8.219
7 F4 161 -6.266
7 F4 162 -4.313
7 F4 163 -2.360
7 F4 164 -1.872
7 F4 165 -2.848
7 F4 166 -4.801
7 F4 167 -6.755
7 F4 168 -7.243
7 F4 169 -6.266
7 F4 170 -4.313
7 F4 171 -2.848
7 F4 172 -1.872
7 F4 173 -1.872
7 F4 174 -2.360
7 F4 175 -2.360
7 F4 176 -2.848
7 F4 177 -3.337
7 F4 178 -3.825
7 F4 179 -3.825
7 F4 180 -2.848
7 F4 181 -0.895
7 F4 182 0.570
7 F4 183 1.058
7 F4 184 -0.895
7 F4 185 -2.848
7 F4 186 -3.825
7 F4 187 -2.848
7 F4 188 0.081
7 F4 189 3.011
7 F4 190 4.964
7 F4 191 3.988
7 F4 192 1.546
7 F4 193 -1.383
7 F4 194 -4.313
7 F4 195 -5.778
7 F4 196 -5.290
7 F4 197 -3.337
7 F4 198 -0.407
7 F4 199 0.570
7 F4 200 -0.407
7 F4 201 -2.848
7 F4 202 -4.801
7 F4 203 -5.290
7 F4 204 -3.825
7 F4 205 -1.383
7 F4 206 0.081
7 F4 207 0.081
7 F4 208 -0.407
7 F4 209 -0.895
7 F4 210 -1.383
7 F4 211 -1.383
7 F4 212 -1.872
7 F4 213 -2.360
7 F4 214 -1.872
7 F4 215 -1.383
7 F4 216 -0.895
7 F4 217 -1.383
7 F4 218 -3.337
7 F4 219 -4.801
7 F4 220 -4.313
7 F4 221 -1.872
7 F4 222 1.546
7 F4 223 3.011
7 F4 224 1.546
7 F4 225 -2.848
7 F4 226 -6.755
7 F4 227 -8.708
7 F4 228 -7.243
7 F4 229 -4.313
7 F4 230 -1.872
7 F4 231 -1.872
7 F4 232 -3.825
7 F4 233 -5.778
7 F4 234 -5.778
7 F4 235 -3.825
7 F4 236 -0.895
7 F4 237 1.058
7 F4 238 0.570
7 F4 239 -0.895
7 F4 240 -2.848
7 F4 241 -4.313
7 F4 242 -4.801
7 F4 243 -4.801
7 F4 244 -5.778
7 F4 245 -6.755
7 F4 246 -7.731
7 F4 247 -7.243
7 F4 248 -5.778
7 F4 249 -3.825
7 F4 250 -2.360
7 F4 251 -2.360
7 F4 252 -4.313
7 F4 253 -6.266
7 F4 254 -7.243
7 F4 255 -6.755
# F3 chan 8
7 F3 0 -1.801
7 F3 1 -1.801
7 F3 2 -1.312
7 F3 3 -0.336
7 F3 4 0.641
7 F3 5 0.641
7 F3 6 0.153
7 F3 7 -0.336
7 F3 8 -0.336
7 F3 9 -0.824
7 F3 10 -0.824
7 F3 11 -0.824
7 F3 12 -0.336
7 F3 13 0.641
7 F3 14 1.617
7 F3 15 1.617
7 F3 16 1.617
7 F3 17 1.617
7 F3 18 2.106
7 F3 19 2.594
7 F3 20 2.594
7 F3 21 1.617
7 F3 22 0.153
7 F3 23 -2.289
7 F3 24 -4.242
7 F3 25 -5.219
7 F3 26 -4.730
7 F3 27 -3.754
7 F3 28 -3.265
7 F3 29 -4.242
7 F3 30 -5.707
7 F3 31 -6.683
7 F3 32 -5.707
7 F3 33 -3.754
7 F3 34 -2.289
7 F3 35 -2.777
7 F3 36 -4.730
7 F3 37 -6.683
7 F3 38 -6.195
7 F3 39 -3.754
7 F3 40 -0.336
7 F3 41 1.617
7 F3 42 0.641
7 F3 43 -3.265
7 F3 44 -5.707
7 F3 45 -5.707
7 F3 46 -3.265
7 F3 47 -0.336
7 F3 48 -0.336
7 F3 49 -2.777
7 F3 50 -5.707
7 F3 51 -6.683
7 F3 52 -4.242
7 F3 53 -0.824
7 F3 54 0.641
7 F3 55 -0.336
7 F3 56 -3.265
7 F3 57 -5.219
7 F3 58 -5.707
7 F3 59 -4.242
7 F3 60 -3.265
7 F3 61 -4.730
7 F3 62 -7.172
7 F3 63 -10.101
7 F3 64 -10.101
7 F3 65 -8.636
7 F3 66 -6.683
7 F3 67 -5.219
7 F3 68 -5.707
7 F3 69 -7.172
7 F3 70 -9.125
7 F3 71 -10.101
7 F3 72 -10.101
7 F3 73 -9.613
7 F3 74 -8.636
7 F3 75 -7.660
7 F3 76 -6.195
7 F3 77 -4.730
7 F3 78 -3.265
7 F3 79 -2.777
7 F3 80 -2.777
7 F3 81 -3.754
7 F3 82 -4.730
7 F3 83 -4.242
7 F3 84 -2.777
7 F3 85 -1.312
7 F3 86 -1.312
7 F3 87 -3.265
7 F3 88 -6.195
7 F3 89 -9.125
7 F3 90 -10.590
7 F3 91 -9.613
7 F3 92 -7.660
7 F3 93 -5.707
7 F3 94 -5.707
7 F3 95 -6.195
7 F3 96 -6.195
7 F3 97 -6.195
7 F3 98 -4.730
7 F3 99 -4.242
7 F3 100 -3.754
7 F3 101 -3.754
7 F3 102 -3.754
7 F3 103 -3.754
7 F3 104 -3.265
7 F3 105 -3.265
7 F3 106 -3.265
7 F3 107 -3.754
7 F3 108 -4.242
7 F3 109 -4.730
7 F3 110 -4.730
7 F3 111 -4.242
7 F3 112 -3.754
7 F3 113 -3.754
7 F3 114 -4.242
7 F3 115 -4.730
7 F3 116 -5.219
7 F3 117 -4.730
7 F3 118 -4.730
7 F3 119 -5.219
7 F3 120 -6.195
7 F3 121 -7.172
7 F3 122 -7.660
7 F3 123 -7.172
7 F3 124 -6.195
7 F3 125 -4.730
7 F3 126 -5.219
7 F3 127 -7.660
7 F3 128 -10.590
7 F3 129 -13.519
7 F3 130 -14.984
7 F3 131 -14.984
7 F3 132 -14.008
7 F3 133 -13.519
7 F3 134 -13.519
7 F3 135 -13.031
7 F3 136 -12.054
7 F3 137 -11.078
7 F3 138 -9.613
7 F3 139 -10.101
7 F3 140 -10.590
7 F3 141 -11.566
7 F3 142 -11.078
7 F3 143 -10.101
7 F3 144 -8.636
7 F3 145 -7.660
7 F3 146 -9.125
7 F3 147 -12.543
7 F3 148 -15.961
7 F3 149 -18.890
7 F3 150 -19.379
7 F3 151 -17.914
7 F3 152 -14.496
7 F3 153 -11.566
7 F3 154 -10.101
7 F3 155 -11.078
7 F3 156 -13.519
7 F3 157 -14.496
7 F3 158 -14.008
7 F3 159 -11.078
7 F3 160 -8.148
7 F3 161 -6.195
7 F3 162 -7.172
7 F3 163 -9.613
7 F3 164 -11.566
7 F3 165 -11.566
7 F3 166 -10.101
7 F3 167 -8.148
7 F3 168 -7.172
7 F3 169 -7.172
7 F3 170 -8.636
7 F3 171 -10.590
7 F3 172 -10.590
7 F3 173 -10.101
7 F3 174 -8.148
7 F3 175 -6.683
7 F3 176 -5.707
7 F3 177 -5.707
7 F3 178 -5.707
7 F3 179 -5.219
7 F3 180 -4.242
7 F3 181 -3.265
7 F3 182 -2.777
7 F3 183 -2.777
7 F3 184 -3.265
7 F3 185 -4.242
7 F3 186 -4.730
7 F3 187 -4.730
7 F3 188 -5.219
7 F3 189 -5.707
7 F3 190 -7.172
7 F3 191 -8.636
7 F3 192 -9.125
7 F3 193 -8.636
7 F3 194 -8.148
7 F3 195 -8.148
7 F3 196 -8.636
7 F3 197 -9.613
7 F3 198 -10.101
7 F3 199 -10.101
7 F3 200 -10.101
7 F3 201 -10.101
7 F3 202 -10.590
7 F3 203 -10.101
7 F3 204 -9.125
7 F3 205 -7.660
7 F3 206 -7.172
7 F3 207 -8.636
7 F3 208 -10.590
7 F3 209 -12.543
7 F3 210 -12.543
7 F3 211 -10.101
7 F3 212 -8.148
7 F3 213 -7.172
7 F3 214 -8.148
7 F3 215 -11.078
7 F3 216 -12.543
7 F3 217 -12.054
7 F3 218 -11.078
7 F3 219 -10.101
7 F3 220 -11.078
7 F3 221 -12.054
7 F3 222 -12.543
7 F3 223 -11.566
7 F3 224 -10.101
7 F3 225 -10.590
7 F3 226 -13.031
7 F3 227 -15.961
7 F3 228 -16.937
7 F3 229 -15.961
7 F3 230 -12.543
7 F3 231 -9.125
7 F3 232 -7.172
7 F3 233 -6.683
7 F3 234 -6.683
7 F3 235 -7.172
7 F3 236 -8.636
7 F3 237 -10.101
7 F3 238 -11.078
7 F3 239 -11.078
7 F3 240 -10.101
7 F3 241 -8.148
7 F3 242 -7.172
7 F3 243 -7.660
7 F3 244 -9.613
7 F3 245 -11.566
7 F3 246 -12.054
7 F3 247 -11.566
7 F3 248 -11.078
7 F3 249 -12.054
7 F3 250 -14.008
7 F3 251 -15.961
7 F3 252 -16.449
7 F3 253 -15.472
7 F3 254 -13.519
7 F3 255 -13.031
# FC6 chan 9
7 FC6 0 -9.949
7 FC6 1 -4.578
7 FC6 2 0.305
7 FC6 3 2.258
7 FC6 4 1.770
7 FC6 5 1.770
7 FC6 6 3.235
7 FC6 7 3.723
7 FC6 8 1.770
7 FC6 9 -1.648
7 FC6 10 -5.066
7 FC6 11 -5.554
7 FC6 12 -3.113
7 FC6 13 -0.671
7 FC6 14 -0.183
7 FC6 15 -1.160
7 FC6 16 -3.113
7 FC6 17 -3.601
7 FC6 18 -2.625
7 FC6 19 -1.648
7 FC6 20 0.305
7 FC6 21 2.747
7 FC6 22 5.676
7 FC6 23 6.653
7 FC6 24 3.723
7 FC6 25 -3.601
7 FC6 26 -11.414
7 FC6 27 -14.832
7 FC6 28 -11.414
7 FC6 29 -2.625
7 FC6 30 6.165
7 FC6 31 9.583
7 FC6 32 5.676
7 FC6 33 -3.113
7 FC6 34 -9.949
7 FC6 35 -10.925
7 FC6 36 -4.089
7 FC6 37 6.165
7 FC6 38 13.489
7 FC6 39 13.977
7 FC6 40 5.676
7 FC6 41 -6.042
7 FC6 42 -14.832
7 FC6 43 -16.296
7 FC6 44 -10.925
7 FC6 45 -2.625
7 FC6 46 4.700
7 FC6 47 7.629
7 FC6 48 6.165
7 FC6 49 2.258
7 FC6 50 -1.160
7 FC6 51 -2.136
7 FC6 52 -0.183
7 FC6 53 3.235
7 FC6 54 6.653
7 FC6 55 6.653
7 FC6 56 2.258
7 FC6 57 -5.554
7 FC6 58 -13.855
7 FC6 59 -19.226
7 FC6 60 -18.738
7 FC6 61 -14.343
7 FC6 62 -9.949
7 FC6 63 -8.972
7 FC6 64 -12.390
7 FC6 65 -16.785
7 FC6 66 -18.250
7 FC6 67 -13.367
7 FC6 68 -6.042
7 FC6 69 -1.160
7 FC6 70 -3.113
7 FC6 71 -9.949
7 FC6 72 -16.785
7 FC6 73 -16.296
7 FC6 74 -6.042
7 FC6 75 8.118
7 FC6 76 16.907
7 FC6 77 14.954
7 FC6 78 4.211
7 FC6 79 -6.531
7 FC6 80 -9.460
7 FC6 81 -3.113
7 FC6 82 6.165
7 FC6 83 10.559
7 FC6 84 6.653
7 FC6 85 -1.648
7 FC6 86 -7.507
7 FC6 87 -9.949
7 FC6 88 -8.972
7 FC6 89 -9.460
7 FC6 90 -11.414
7 FC6 91 -11.902
7 FC6 92 -8.484
7 FC6 93 -2.136
7 FC6 94 4.211
7 FC6 95 7.629
7 FC6 96 5.188
7 FC6 97 -1.160
7 FC6 98 -8.484
7 FC6 99 -14.832
7 FC6 100 -17.273
7 FC6 101 -15.808
7 FC6 102 -12.390
7 FC6 103 -8.484
7 FC6 104 -7.507
7 FC6 105 -9.949
7 FC6 106 -12.390
7 FC6 107 -11.414
7 FC6 108 -6.042
7 FC6 109 0.793
7 FC6 110 6.165
7 FC6 111 7.141
7 FC6 112 3.723
7 FC6 113 0.793
7 FC6 114 -1.160
7 FC6 115 -1.648
7 FC6 116 -3.601
7 FC6 117 -7.996
7 FC6 118 -13.855
7 FC6 119 -16.296
7 FC6 120 -12.878
7 FC6 121 -4.578
7 FC6 122 3.235
7 FC6 123 6.165
7 FC6 124 2.747
7 FC6 125 -3.113
7 FC6 126 -7.996
7 FC6 127 -8.972
7 FC6 128 -7.996
7 FC6 129 -6.531
7 FC6 130 -5.066
7 FC6 131 -2.625
7 FC6 132 0.793
7 FC6 133 2.747
7 FC6 134 -0.183
7 FC6 135 -8.972
7 FC6 136 -19.226
7 FC6 137 -25.085
7 FC6 138 -22.156
7 FC6 139 -13.367
7 FC6 140 -4.578
7 FC6 141 -1.648
7 FC6 142 -5.066
7 FC6 143 -9.460
7 FC6 144 -10.437
7 FC6 145 -6.531
7 FC6 146 -0.183
7 FC6 147 4.211
7 FC6 148 5.188
7 FC6 149 1.770
7 FC6 150 -4.578
7 FC6 151 -12.878
7 FC6 152 -20.203
7 FC6 153 -24.597
7 FC6 154 -23.621
7 FC6 155 -18.250
7 FC6 156 -11.902
7 FC6 157 -8.484
7 FC6 158 -8.972
7 FC6 159 -11.414
7 FC6 160 -12.390
7 FC6 161 -9.460
7 FC6 162 -3.601
7 FC6 163 1.282
7 FC6 164 1.770
7 FC6 165 -4.089
7 FC6 166 -14.832
7 FC6 167 -24.109
7 FC6 168 -26.550
7 FC6 169 -19.714
7 FC6 170 -7.019
7 FC6 171 4.211
7 FC6 172 9.094
7 FC6 173 6.165
7 FC6 174 -0.183
7 FC6 175 -5.066
7 FC6 176 -6.042
7 FC6 177 -4.089
7 FC6 178 -1.160
7 FC6 179 0.793
7 FC6 180 1.770
7 FC6 181 0.793
7 FC6 182 -2.625
7 FC6 183 -8.484
7 FC6 184 -15.320
7 FC6 185 -17.761
7 FC6 186 -14.343
7 FC6 187 -4.578
7 FC6 188 5.676
7 FC6 189 11.536
7 FC6 190 11.536
7 FC6 191 8.118
7 FC6 192 4.211
7 FC6 193 0.305
7 FC6 194 -4.578
7 FC6 195 -10.437
7 FC6 196 -15.320
7 FC6 197 -15.320
7 FC6 198 -9.949
7 FC6 199 -4.089
7 FC6 200 -2.136
7 FC6 201 -6.042
7 FC6 202 -11.414
7 FC6 203 -12.878
7 FC6 204 -7.507
7 FC6 205 2.258
7 FC6 206 9.094
7 FC6 207 9.583
7 FC6 208 2.747
7 FC6 209 -7.019
7 FC6 210 -15.808
7 FC6 211 -20.203
7 FC6 212 -17.761
7 FC6 213 -9.949
7 FC6 214 -0.671
7 FC6 215 6.165
7 FC6 216 5.676
7 FC6 217 -1.648
7 FC6 218 -10.925
7 FC6 219 -16.296
7 FC6 220 -13.367
7 FC6 221 -4.089
7 FC6 222 6.165
7 FC6 223 11.047
7 FC6 224 8.606
7 FC6 225 0.305
7 FC6 226 -8.484
7 FC6 227 -13.367
7 FC6 228 -13.367
7 FC6 229 -9.460
7 FC6 230 -5.066
7 FC6 231 -2.625
7 FC6 232 -4.089
7 FC6 233 -7.507
7 FC6 234 -10.437
7 FC6 235 -8.972
7 FC6 236 -4.089
7 FC6 237 2.258
7 FC6 238 5.676
7 FC6 239 5.188
7 FC6 240 1.282
7 FC6 241 -3.113
7 FC6 242 -5.066
7 FC6 243 -4.578
7 FC6 244 -4.578
7 FC6 245 -7.019
7 FC6 246 -11.902
7 FC6 247 -14.343
7 FC6 248 -11.902
7 FC6 249 -4.578
7 FC6 250 1.770
7 FC6 251 2.258
7 FC6 252 -5.554
7 FC6 253 -15.808
7 FC6 254 -21.179
7 FC6 255 -16.785
# FC5 chan 10
7 FC5 0 -3.682
7 FC5 1 -1.729
7 FC5 2 3.153
7 FC5 3 6.083
7 FC5 4 7.060
7 FC5 5 6.571
7 FC5 6 6.571
7 FC5 7 7.548
7 FC5 8 6.571
7 FC5 9 3.153
7 FC5 10 -2.218
7 FC5 11 -6.124
7 FC5 12 -5.147
7 FC5 13 -1.241
7 FC5 14 1.689
7 FC5 15 1.200
7 FC5 16 -0.753
7 FC5 17 -0.753
7 FC5 18 2.665
7 FC5 19 7.548
7 FC5 20 9.013
7 FC5 21 5.107
7 FC5 22 -2.218
7 FC5 23 -7.100
7 FC5 24 -7.100
7 FC5 25 -2.706
7 FC5 26 1.689
7 FC5 27 0.712
7 FC5 28 -5.147
7 FC5 29 -11.007
7 FC5 30 -12.472
7 FC5 31 -7.100
7 FC5 32 2.177
7 FC5 33 8.525
7 FC5 34 8.525
7 FC5 35 1.689
7 FC5 36 -7.589
7 FC5 37 -13.448
7 FC5 38 -12.472
7 FC5 39 -6.124
7 FC5 40 1.689
7 FC5 41 6.083
7 FC5 42 4.618
7 FC5 43 0.224
7 FC5 44 -4.659
7 FC5 45 -4.659
7 FC5 46 -0.264
7 FC5 47 3.642
7 FC5 48 2.665
7 FC5 49 -3.194
7 FC5 50 -11.495
7 FC5 51 -14.425
7 FC5 52 -10.030
7 FC5 53 -1.729
7 FC5 54 3.642
7 FC5 55 2.177
7 FC5 56 -4.171
7 FC5 57 -9.054
7 FC5 58 -8.077
7 FC5 59 -1.729
7 FC5 60 4.130
7 FC5 61 4.618
7 FC5 62 -1.729
7 FC5 63 -11.007
7 FC5 64 -17.354
7 FC5 65 -17.354
7 FC5 66 -11.495
7 FC5 67 -5.147
7 FC5 68 -2.706
7 FC5 69 -5.147
7 FC5 70 -11.495
7 FC5 71 -16.378
7 FC5 72 -17.354
7 FC5 73 -14.913
7 FC5 74 -10.518
7 FC5 75 -6.612
7 FC5 76 -3.682
7 FC5 77 -1.729
7 FC5 78 -0.264
7 FC5 79 0.712
7 FC5 80 0.224
7 FC5 81 -0.753
7 FC5 82 -0.753
7 FC5 83 1.200
7 FC5 84 4.130
7 FC5 85 6.083
7 FC5 86 4.130
7 FC5 87 -2.218
7 FC5 88 -10.518
7 FC5 89 -15.401
7 FC5 90 -14.425
7 FC5 91 -9.542
7 FC5 92 -4.659
7 FC5 93 -3.194
7 FC5 94 -6.124
7 FC5 95 -9.542
7 FC5 96 -9.542
7 FC5 97 -6.612
7 FC5 98 -2.218
7 FC5 99 -0.264
7 FC5 100 -1.241
7 FC5 101 -2.218
7 FC5 102 -1.241
7 FC5 103 1.689
7 FC5 104 3.642
7 FC5 105 3.153
7 FC5 106 0.712
7 FC5 107 -1.729
7 FC5 108 -2.218
7 FC5 109 -0.264
7 FC5 110 1.200
7 FC5 111 0.712
7 FC5 112 -2.218
7 FC5 113 -5.147
7 FC5 114 -6.124
7 FC5 115 -5.147
7 FC5 116 -3.194
7 FC5 117 -2.218
7 FC5 118 -2.706
7 FC5 119 -3.194
7 FC5 120 -2.218
7 FC5 121 0.712
7 FC5 122 2.665
7 FC5 123 3.153
7 FC5 124 0.224
7 FC5 125 -3.682
7 FC5 126 -7.589
7 FC5 127 -10.030
7 FC5 128 -11.007
7 FC5 129 -11.007
7 FC5 130 -10.030
7 FC5 131 -10.030
7 FC5 132 -10.518
7 FC5 133 -11.007
7 FC5 134 -11.007
7 FC5 135 -9.542
7 FC5 136 -6.612
7 FC5 137 -4.171
7 FC5 138 -3.194
7 FC5 139 -4.659
7 FC5 140 -8.077
7 FC5 141 -9.054
7 FC5 142 -8.077
7 FC5 143 -3.682
7 FC5 144 0.712
7 FC5 145 3.153
7 FC5 146 1.689
7 FC5 147 -3.194
7 FC5 148 -9.542
7 FC5 149 -14.425
7 FC5 150 -15.889
7 FC5 151 -14.425
7 FC5 152 -10.518
7 FC5 153 -7.100
7 FC5 154 -6.124
7 FC5 155 -9.054
7 FC5 156 -13.936
7 FC5 157 -17.354
7 FC5 158 -15.889
7 FC5 159 -8.565
7 FC5 160 -0.264
7 FC5 161 4.130
7 FC5 162 2.177
7 FC5 163 -5.147
7 FC5 164 -11.495
7 FC5 165 -11.983
7 FC5 166 -6.124
7 FC5 167 1.689
7 FC5 168 5.595
7 FC5 169 3.642
7 FC5 170 -3.194
7 FC5 171 -10.518
7 FC5 172 -14.913
7 FC5 173 -14.425
7 FC5 174 -10.518
7 FC5 175 -4.659
7 FC5 176 0.224
7 FC5 177 2.665
7 FC5 178 3.642
7 FC5 179 2.665
7 FC5 180 1.689
7 FC5 181 0.712
7 FC5 182 -0.753
7 FC5 183 -1.729
7 FC5 184 -2.218
7 FC5 185 -2.218
7 FC5 186 -1.729
7 FC5 187 -2.218
7 FC5 188 -4.171
7 FC5 189 -6.612
7 FC5 190 -8.077
7 FC5 191 -6.612
7 FC5 192 -2.218
7 FC5 193 3.153
7 FC5 194 6.571
7 FC5 195 6.083
7 FC5 196 1.200
7 FC5 197 -5.636
7 FC5 198 -11.983
7 FC5 199 -14.913
7 FC5 200 -13.448
7 FC5 201 -9.054
7 FC5 202 -3.194
7 FC5 203 1.200
7 FC5 204 2.177
7 FC5 205 0.712
7 FC5 206 -2.218
7 FC5 207 -5.147
7 FC5 208 -7.100
7 FC5 209 -7.100
7 FC5 210 -5.636
7 FC5 211 -3.682
7 FC5 212 -3.682
7 FC5 213 -7.100
7 FC5 214 -11.007
7 FC5 215 -13.448
7 FC5 216 -11.983
7 FC5 217 -6.612
7 FC5 218 -2.218
7 FC5 219 -1.729
7 FC5 220 -5.147
7 FC5 221 -8.077
7 FC5 222 -7.100
7 FC5 223 -2.218
7 FC5 224 1.689
7 FC5 225 -1.241
7 FC5 226 -10.030
7 FC5 227 -18.819
7 FC5 228 -20.772
7 FC5 229 -12.960
7 FC5 230 -1.241
7 FC5 231 6.571
7 FC5 232 7.548
7 FC5 233 2.665
7 FC5 234 -2.218
7 FC5 235 -4.171
7 FC5 236 -5.147
7 FC5 237 -7.100
7 FC5 238 -11.007
7 FC5 239 -12.472
7 FC5 240 -9.054
7 FC5 241 -1.241
7 FC5 242 5.107
7 FC5 243 6.571
7 FC5 244 2.177
7 FC5 245 -4.171
7 FC5 246 -7.589
7 FC5 247 -6.124
7 FC5 248 -3.682
7 FC5 249 -2.706
7 FC5 250 -6.124
7 FC5 251 -10.518
7 FC5 252 -13.448
7 FC5 253 -12.472
7 FC5 254 -8.565
7 FC5 255 -6.124
# FC2 chan 11
7 FC2 0 -1.699
7 FC2 1 -1.699
7 FC2 2 -1.699
7 FC2 3 -1.699
7 FC2 4 -1.699
7 FC2 5 -1.699
7 FC2 6 -1.699
7 FC2 7 -1.211
7 FC2 8 -1.211
7 FC2 9 -1.211
7 FC2 10 -1.699
7 FC2 11 -1.699
7 FC2 12 -1.211
7 FC2 13 -0.234
7 FC2 14 -0.234
7 FC2 15 -0.234
7 FC2 16 -0.234
7 FC2 17 -0.722
7 FC2 18 -1.211
7 FC2 19 -1.699
7 FC2 20 -1.699
7 FC2 21 -0.722
7 FC2 22 0.254
7 FC2 23 1.231
7 FC2 24 1.231
7 FC2 25 0.254
7 FC2 26 -0.722
7 FC2 27 -1.211
7 FC2 28 -0.722
7 FC2 29 0.743
7 FC2 30 1.719
7 FC2 31 2.207
7 FC2 32 1.719
7 FC2 33 0.254
7 FC2 34 -1.211
7 FC2 35 -1.699
7 FC2 36 -1.699
7 FC2 37 -1.211
7 FC2 38 -0.234
7 FC2 39 0.254
7 FC2 40 0.254
7 FC2 41 -0.722
7 FC2 42 -1.699
7 FC2 43 -2.675
7 FC2 44 -2.187
7 FC2 45 -0.722
7 FC2 46 0.743
7 FC2 47 1.231
7 FC2 48 0.743
7 FC2 49 -0.722
7 FC2 50 -1.211
7 FC2 51 -1.699
7 FC2 52 -0.722
7 FC2 53 -0.234
7 FC2 54 0.254
7 FC2 55 0.254
7 FC2 56 -0.234
7 FC2 57 -0.722
7 FC2 58 -1.699
7 FC2 59 -2.187
7 FC2 60 -2.675
7 FC2 61 -3.652
7 FC2 62 -4.140
7 FC2 63 -4.628
7 FC2 64 -4.140
7 FC2 65 -4.140
7 FC2 66 -3.164
7 FC2 67 -2.675
7 FC2 68 -2.187
7 FC2 69 -2.187
7 FC2 70 -2.187
7 FC2 71 -2.675
7 FC2 72 -2.675
7 FC2 73 -2.187
7 FC2 74 -1.211
7 FC2 75 -0.722
7 FC2 76 0.254
7 FC2 77 0.254
7 FC2 78 -0.234
7 FC2 79 0.254
7 FC2 80 0.743
7 FC2 81 1.719
7 FC2 82 2.207
7 FC2 83 2.207
7 FC2 84 0.743
7 FC2 85 -0.722
7 FC2 86 -1.699
7 FC2 87 -1.699
7 FC2 88 -1.211
7 FC2 89 -1.211
7 FC2 90 -1.211
7 FC2 91 -2.187
7 FC2 92 -2.675
7 FC2 93 -2.675
7 FC2 94 -2.675
7 FC2 95 -2.187
7 FC2 96 -1.699
7 FC2 97 -1.699
7 FC2 98 -2.675
7 FC2 99 -3.164
7 FC2 100 -3.652
7 FC2 101 -2.675
7 FC2 102 -1.699
7 FC2 103 -0.234
7 FC2 104 0.254
7 FC2 105 0.254
7 FC2 106 0.254
7 FC2 107 0.254
7 FC2 108 1.231
7 FC2 109 2.207
7 FC2 110 3.184
7 FC2 111 2.696
7 FC2 112 1.231
7 FC2 113 -0.722
7 FC2 114 -2.187
7 FC2 115 -2.187
7 FC2 116 -2.187
7 FC2 117 -1.699
7 FC2 118 -2.187
7 FC2 119 -3.164
7 FC2 120 -3.652
7 FC2 121 -2.675
7 FC2 122 -1.211
7 FC2 123 0.254
7 FC2 124 1.231
7 FC2 125 1.231
7 FC2 126 0.743
7 FC2 127 -0.234
7 FC2 128 -0.722
7 FC2 129 -1.699
7 FC2 130 -2.187
7 FC2 131 -2.187
7 FC2 132 -2.187
7 FC2 133 -2.187
7 FC2 134 -2.187
7 FC2 135 -2.675
7 FC2 136 -3.652
7 FC2 137 -3.652
7 FC2 138 -3.652
7 FC2 139 -2.675
7 FC2 140 -2.675
7 FC2 141 -3.164
7 FC2 142 -4.140
7 FC2 143 -5.117
7 FC2 144 -5.117
7 FC2 145 -4.628
7 FC2 146 -3.652
7 FC2 147 -3.164
7 FC2 148 -3.164
7 FC2 149 -3.652
7 FC2 150 -4.140
7 FC2 151 -4.628
7 FC2 152 -4.628
7 FC2 153 -4.140
7 FC2 154 -4.140
7 FC2 155 -3.652
7 FC2 156 -3.652
7 FC2 157 -3.652
7 FC2 158 -4.628
7 FC2 159 -5.117
7 FC2 160 -5.117
7 FC2 161 -4.140
7 FC2 162 -3.164
7 FC2 163 -2.675
7 FC2 164 -2.187
7 FC2 165 -2.675
7 FC2 166 -3.652
7 FC2 167 -4.628
7 FC2 168 -4.628
7 FC2 169 -3.652
7 FC2 170 -2.675
7 FC2 171 -1.699
7 FC2 172 -1.211
7 FC2 173 -1.211
7 FC2 174 -1.699
7 FC2 175 -1.211
7 FC2 176 -0.722
7 FC2 177 -0.722
7 FC2 178 -0.722
7 FC2 179 -1.211
7 FC2 180 -0.722
7 FC2 181 -0.234
7 FC2 182 0.743
7 FC2 183 1.231
7 FC2 184 0.743
7 FC2 185 -0.234
7 FC2 186 -1.211
7 FC2 187 -1.699
7 FC2 188 -0.722
7 FC2 189 0.743
7 FC2 190 1.719
7 FC2 191 2.207
7 FC2 192 1.719
7 FC2 193 0.254
7 FC2 194 -1.211
7 FC2 195 -2.675
7 FC2 196 -3.652
7 FC2 197 -3.652
7 FC2 198 -2.187
7 FC2 199 -0.722
7 FC2 200 -0.234
7 FC2 201 -0.722
7 FC2 202 -1.699
7 FC2 203 -2.675
7 FC2 204 -1.699
7 FC2 205 -0.722
7 FC2 206 0.743
7 FC2 207 1.719
7 FC2 208 1.231
7 FC2 209 0.743
7 FC2 210 -0.234
7 FC2 211 -1.211
7 FC2 212 -1.699
7 FC2 213 -1.211
7 FC2 214 -0.722
7 FC2 215 -0.234
7 FC2 216 -0.722
7 FC2 217 -1.699
7 FC2 218 -2.675
7 FC2 219 -3.652
7 FC2 220 -3.652
7 FC2 221 -2.187
7 FC2 222 -0.722
7 FC2 223 -0.722
7 FC2 224 -1.211
7 FC2 225 -2.675
7 FC2 226 -4.628
7 FC2 227 -5.605
7 FC2 228 -5.605
7 FC2 229 -4.628
7 FC2 230 -4.140
7 FC2 231 -4.140
7 FC2 232 -4.140
7 FC2 233 -4.140
7 FC2 234 -3.652
7 FC2 235 -1.699
7 FC2 236 -0.722
7 FC2 237 0.254
7 FC2 238 -0.234
7 FC2 239 -1.211
7 FC2 240 -2.187
7 FC2 241 -3.164
7 FC2 242 -4.140
7 FC2 243 -4.628
7 FC2 244 -5.605
7 FC2 245 -5.605
7 FC2 246 -5.117
7 FC2 247 -3.652
7 FC2 248 -2.675
7 FC2 249 -1.211
7 FC2 250 -0.722
7 FC2 251 -1.211
7 FC2 252 -2.675
7 FC2 253 -3.652
7 FC2 254 -3.652
7 FC2 255 -3.164
# FC1 chan 12
7 FC1 0 -0.946
7 FC1 1 -1.434
7 FC1 2 -0.458
7 FC1 3 0.031
7 FC1 4 1.007
7 FC1 5 0.519
7 FC1 6 0.519
7 FC1 7 0.031
7 FC1 8 0.031
7 FC1 9 0.031
7 FC1 10 0.031
7 FC1 11 0.519
7 FC1 12 1.007
7 FC1 13 1.495
7 FC1 14 1.984
7 FC1 15 1.984
7 FC1 16 1.984
7 FC1 17 1.495
7 FC1 18 1.984
7 FC1 19 1.984
7 FC1 20 1.495
7 FC1 21 1.007
7 FC1 22 -0.458
7 FC1 23 -0.946
7 FC1 24 -1.434
7 FC1 25 -1.923
7 FC1 26 -1.923
7 FC1 27 -1.923
7 FC1 28 -1.923
7 FC1 29 -2.411
7 FC1 30 -2.411
7 FC1 31 -1.923
7 FC1 32 -1.434
7 FC1 33 -1.434
7 FC1 34 -1.434
7 FC1 35 -1.923
7 FC1 36 -2.899
7 FC1 37 -3.387
7 FC1 38 -2.899
7 FC1 39 -1.434
7 FC1 40 0.031
7 FC1 41 1.007
7 FC1 42 0.519
7 FC1 43 -0.458
7 FC1 44 -1.923
7 FC1 45 -1.923
7 FC1 46 -0.946
7 FC1 47 0.031
7 FC1 48 -0.458
7 FC1 49 -2.411
7 FC1 50 -4.364
7 FC1 51 -4.852
7 FC1 52 -3.876
7 FC1 53 -1.923
7 FC1 54 0.031
7 FC1 55 0.031
7 FC1 56 -0.946
7 FC1 57 -2.411
7 FC1 58 -1.923
7 FC1 59 0.031
7 FC1 60 1.495
7 FC1 61 2.472
7 FC1 62 1.495
7 FC1 63 -0.458
7 FC1 64 -1.434
7 FC1 65 -1.434
7 FC1 66 -0.458
7 FC1 67 0.519
7 FC1 68 0.519
7 FC1 69 -0.458
7 FC1 70 -1.923
7 FC1 71 -3.876
7 FC1 72 -4.364
7 FC1 73 -3.876
7 FC1 74 -2.899
7 FC1 75 -2.411
7 FC1 76 -1.923
7 FC1 77 -1.434
7 FC1 78 -0.458
7 FC1 79 0.519
7 FC1 80 1.495
7 FC1 81 1.984
7 FC1 82 1.984
7 FC1 83 2.472
7 FC1 84 2.960
7 FC1 85 3.448
7 FC1 86 3.448
7 FC1 87 2.472
7 FC1 88 1.007
7 FC1 89 -0.946
7 FC1 90 -1.923
7 FC1 91 -1.434
7 FC1 92 -0.458
7 FC1 93 0.519
7 FC1 94 0.519
7 FC1 95 0.519
7 FC1 96 0.519
7 FC1 97 0.519
7 FC1 98 1.007
7 FC1 99 1.007
7 FC1 100 1.007
7 FC1 101 1.495
7 FC1 102 1.984
7 FC1 103 3.448
7 FC1 104 4.425
7 FC1 105 4.425
7 FC1 106 4.425
7 FC1 107 3.937
7 FC1 108 3.937
7 FC1 109 3.937
7 FC1 110 3.937
7 FC1 111 3.448
7 FC1 112 2.472
7 FC1 113 1.495
7 FC1 114 1.007
7 FC1 115 0.519
7 FC1 116 0.519
7 FC1 117 1.007
7 FC1 118 0.519
7 FC1 119 -0.458
7 FC1 120 -0.458
7 FC1 121 0.031
7 FC1 122 0.519
7 FC1 123 1.984
7 FC1 124 2.472
7 FC1 125 2.472
7 FC1 126 1.495
7 FC1 127 0.031
7 FC1 128 -0.946
7 FC1 129 -1.923
7 FC1 130 -1.923
7 FC1 131 -1.923
7 FC1 132 -1.923
7 FC1 133 -1.434
7 FC1 134 -1.434
7 FC1 135 -0.946
7 FC1 136 -0.946
7 FC1 137 -0.458
7 FC1 138 -0.458
7 FC1 139 -0.458
7 FC1 140 -0.458
7 FC1 141 -0.458
7 FC1 142 -0.458
7 FC1 143 0.519
7 FC1 144 1.007
7 FC1 145 1.495
7 FC1 146 1.495
7 FC1 147 0.519
7 FC1 148 -0.946
7 FC1 149 -1.923
7 FC1 150 -2.411
7 FC1 151 -1.923
7 FC1 152 -0.458
7 FC1 153 1.495
7 FC1 154 1.984
7 FC1 155 1.495
7 FC1 156 0.031
7 FC1 157 -0.946
7 FC1 158 -1.434
7 FC1 159 -0.458
7 FC1 160 1.495
7 FC1 161 2.960
7 FC1 162 2.960
7 FC1 163 1.984
7 FC1 164 1.007
7 FC1 165 0.519
7 FC1 166 1.495
7 FC1 167 2.960
7 FC1 168 3.937
7 FC1 169 4.425
7 FC1 170 3.937
7 FC1 171 2.472
7 FC1 172 1.495
7 FC1 173 0.519
7 FC1 174 1.007
7 FC1 175 1.495
7 FC1 176 2.472
7 FC1 177 3.448
7 FC1 178 3.937
7 FC1 179 4.425
7 FC1 180 4.425
7 FC1 181 3.937
7 FC1 182 3.937
7 FC1 183 3.448
7 FC1 184 3.448
7 FC1 185 3.448
7 FC1 186 3.448
7 FC1 187 3.448
7 FC1 188 2.960
7 FC1 189 2.472
7 FC1 190 1.984
7 FC1 191 1.984
7 FC1 192 2.472
7 FC1 193 2.960
7 FC1 194 2.960
7 FC1 195 2.472
7 FC1 196 1.495
7 FC1 197 0.031
7 FC1 198 -0.946
7 FC1 199 -0.458
7 FC1 200 0.519
7 FC1 201 1.984
7 FC1 202 2.960
7 FC1 203 3.448
7 FC1 204 3.937
7 FC1 205 4.425
7 FC1 206 4.425
7 FC1 207 4.425
7 FC1 208 3.448
7 FC1 209 1.984
7 FC1 210 1.984
7 FC1 211 1.984
7 FC1 212 3.448
7 FC1 213 3.937
7 FC1 214 3.448
7 FC1 215 3.448
7 FC1 216 2.472
7 FC1 217 1.984
7 FC1 218 2.472
7 FC1 219 2.472
7 FC1 220 1.984
7 FC1 221 1.984
7 FC1 222 1.984
7 FC1 223 2.472
7 FC1 224 2.960
7 FC1 225 2.472
7 FC1 226 0.031
7 FC1 227 -1.923
7 FC1 228 -3.387
7 FC1 229 -3.387
7 FC1 230 -1.434
7 FC1 231 1.007
7 FC1 232 2.960
7 FC1 233 3.448
7 FC1 234 3.448
7 FC1 235 3.448
7 FC1 236 2.960
7 FC1 237 2.472
7 FC1 238 1.495
7 FC1 239 0.031
7 FC1 240 -0.458
7 FC1 241 0.031
7 FC1 242 0.519
7 FC1 243 0.519
7 FC1 244 0.519
7 FC1 245 0.031
7 FC1 246 0.031
7 FC1 247 0.519
7 FC1 248 0.519
7 FC1 249 0.519
7 FC1 250 0.031
7 FC1 251 -0.458
7 FC1 252 -0.458
7 FC1 253 0.519
7 FC1 254 1.495
7 FC1 255 2.472
# T8 chan 13
7 T8 0 3.774
7 T8 1 3.774
7 T8 2 2.797
7 T8 3 1.821
7 T8 4 1.821
7 T8 5 2.309
7 T8 6 1.821
7 T8 7 0.356
7 T8 8 -2.085
7 T8 9 -4.038
7 T8 10 -4.038
7 T8 11 -2.574
7 T8 12 -1.597
7 T8 13 -0.621
7 T8 14 -0.132
7 T8 15 0.844
7 T8 16 2.797
7 T8 17 3.774
7 T8 18 3.774
7 T8 19 1.821
7 T8 20 -0.621
7 T8 21 -2.574
7 T8 22 -2.085
7 T8 23 -1.109
7 T8 24 0.356
7 T8 25 0.356
7 T8 26 -0.621
7 T8 27 -1.109
7 T8 28 -0.621
7 T8 29 -0.621
7 T8 30 -2.085
7 T8 31 -4.527
7 T8 32 -6.480
7 T8 33 -5.992
7 T8 34 -2.085
7 T8 35 3.286
7 T8 36 7.680
7 T8 37 7.192
7 T8 38 2.309
7 T8 39 -4.038
7 T8 40 -8.433
7 T8 41 -7.945
7 T8 42 -3.062
7 T8 43 2.797
7 T8 44 6.215
7 T8 45 5.239
7 T8 46 0.356
7 T8 47 -5.015
7 T8 48 -8.433
7 T8 49 -7.945
7 T8 50 -4.038
7 T8 51 1.821
7 T8 52 6.215
7 T8 53 7.192
7 T8 54 3.774
7 T8 55 -1.109
7 T8 56 -5.015
7 T8 57 -6.968
7 T8 58 -6.968
7 T8 59 -6.480
7 T8 60 -7.945
7 T8 61 -10.874
7 T8 62 -14.781
7 T8 63 -18.199
7 T8 64 -19.175
7 T8 65 -18.687
7 T8 66 -19.175
7 T8 67 -20.152
7 T8 68 -21.128
7 T8 69 -19.663
7 T8 70 -14.292
7 T8 71 -5.992
7 T8 72 0.844
7 T8 73 3.286
7 T8 74 1.333
7 T8 75 -2.574
7 T8 76 -4.527
7 T8 77 -2.574
7 T8 78 1.821
7 T8 79 5.727
7 T8 80 5.727
7 T8 81 2.797
7 T8 82 -0.621
7 T8 83 -3.550
7 T8 84 -5.015
7 T8 85 -5.992
7 T8 86 -8.921
7 T8 87 -12.339
7 T8 88 -15.269
7 T8 89 -15.757
7 T8 90 -13.804
7 T8 91 -9.410
7 T8 92 -5.992
7 T8 93 -4.038
7 T8 94 -5.015
7 T8 95 -7.456
7 T8 96 -10.386
7 T8 97 -12.828
7 T8 98 -14.781
7 T8 99 -15.269
7 T8 100 -15.757
7 T8 101 -15.269
7 T8 102 -15.269
7 T8 103 -14.292
7 T8 104 -12.828
7 T8 105 -10.874
7 T8 106 -9.898
7 T8 107 -10.386
7 T8 108 -11.851
7 T8 109 -13.316
7 T8 110 -13.316
7 T8 111 -10.386
7 T8 112 -6.480
7 T8 113 -3.062
7 T8 114 -2.085
7 T8 115 -4.038
7 T8 116 -6.968
7 T8 117 -8.921
7 T8 118 -8.433
7 T8 119 -7.456
7 T8 120 -6.480
7 T8 121 -6.480
7 T8 122 -7.945
7 T8 123 -8.921
7 T8 124 -9.410
7 T8 125 -9.410
7 T8 126 -9.410
7 T8 127 -10.874
7 T8 128 -12.339
7 T8 129 -14.292
7 T8 130 -15.757
7 T8 131 -16.734
7 T8 132 -16.734
7 T8 133 -15.757
7 T8 134 -13.316
7 T8 135 -9.410
7 T8 136 -5.992
7 T8 137 -5.503
7 T8 138 -8.433
7 T8 139 -12.339
7 T8 140 -14.781
7 T8 141 -13.804
7 T8 142 -10.874
7 T8 143 -7.945
7 T8 144 -7.945
7 T8 145 -11.363
7 T8 146 -15.757
7 T8 147 -18.199
7 T8 148 -17.222
7 T8 149 -14.781
7 T8 150 -12.828
7 T8 151 -11.851
7 T8 152 -11.851
7 T8 153 -12.339
7 T8 154 -11.851
7 T8 155 -11.363
7 T8 156 -12.339
7 T8 157 -14.292
7 T8 158 -16.734
7 T8 159 -19.175
7 T8 160 -19.663
7 T8 161 -19.175
7 T8 162 -18.687
7 T8 163 -17.710
7 T8 164 -15.757
7 T8 165 -13.316
7 T8 166 -9.898
7 T8 167 -7.945
7 T8 168 -7.456
7 T8 169 -8.921
7 T8 170 -10.874
7 T8 171 -11.851
7 T8 172 -10.874
7 T8 173 -8.921
7 T8 174 -6.968
7 T8 175 -5.503
7 T8 176 -5.015
7 T8 177 -5.503
7 T8 178 -6.480
7 T8 179 -7.945
7 T8 180 -9.410
7 T8 181 -11.363
7 T8 182 -11.851
7 T8 183 -10.874
7 T8 184 -8.921
7 T8 185 -6.480
7 T8 186 -4.038
7 T8 187 -2.085
7 T8 188 -2.085
7 T8 189 -3.550
7 T8 190 -6.968
7 T8 191 -11.363
7 T8 192 -13.804
7 T8 193 -13.804
7 T8 194 -12.339
7 T8 195 -9.898
7 T8 196 -8.921
7 T8 197 -10.874
7 T8 198 -14.292
7 T8 199 -16.246
7 T8 200 -14.781
7 T8 201 -10.386
7 T8 202 -5.992
7 T8 203 -4.527
7 T8 204 -7.456
7 T8 205 -12.828
7 T8 206 -17.222
7 T8 207 -18.199
7 T8 208 -15.757
7 T8 209 -11.851
7 T8 210 -9.410
7 T8 211 -9.410
7 T8 212 -11.363
7 T8 213 -12.339
7 T8 214 -11.851
7 T8 215 -10.874
7 T8 216 -10.874
7 T8 217 -12.339
7 T8 218 -15.269
7 T8 219 -15.757
7 T8 220 -13.804
7 T8 221 -10.386
7 T8 222 -7.456
7 T8 223 -7.945
7 T8 224 -10.386
7 T8 225 -13.804
7 T8 226 -14.292
7 T8 227 -11.851
7 T8 228 -7.945
7 T8 229 -5.503
7 T8 230 -5.503
7 T8 231 -8.433
7 T8 232 -11.363
7 T8 233 -11.851
7 T8 234 -9.898
7 T8 235 -8.433
7 T8 236 -8.433
7 T8 237 -10.386
7 T8 238 -12.828
7 T8 239 -13.316
7 T8 240 -11.363
7 T8 241 -7.456
7 T8 242 -4.527
7 T8 243 -4.038
7 T8 244 -5.992
7 T8 245 -7.945
7 T8 246 -9.410
7 T8 247 -10.386
7 T8 248 -11.363
7 T8 249 -13.804
7 T8 250 -16.734
7 T8 251 -19.175
7 T8 252 -18.687
7 T8 253 -16.246
7 T8 254 -13.316
7 T8 255 -12.828
# T7 chan 14
7 T7 0 -1.302
7 T7 1 0.651
7 T7 2 1.628
7 T7 3 1.628
7 T7 4 2.116
7 T7 5 2.604
7 T7 6 3.581
7 T7 7 5.046
7 T7 8 5.534
7 T7 9 5.534
7 T7 10 5.046
7 T7 11 4.069
7 T7 12 3.092
7 T7 13 3.092
7 T7 14 3.581
7 T7 15 4.557
7 T7 16 5.046
7 T7 17 5.046
7 T7 18 4.069
7 T7 19 3.092
7 T7 20 2.604
7 T7 21 2.604
7 T7 22 3.092
7 T7 23 2.604
7 T7 24 0.651
7 T7 25 -2.279
7 T7 26 -4.720
7 T7 27 -5.697
7 T7 28 -5.697
7 T7 29 -4.720
7 T7 30 -4.232
7 T7 31 -5.208
7 T7 32 -5.697
7 T7 33 -5.208
7 T7 34 -3.255
7 T7 35 -0.814
7 T7 36 1.139
7 T7 37 0.651
7 T7 38 -0.814
7 T7 39 -1.790
7 T7 40 -2.279
7 T7 41 -1.790
7 T7 42 -0.814
7 T7 43 -1.302
7 T7 44 -2.279
7 T7 45 -3.743
7 T7 46 -4.720
7 T7 47 -5.208
7 T7 48 -5.208
7 T7 49 -5.208
7 T7 50 -4.720
7 T7 51 -3.743
7 T7 52 -3.255
7 T7 53 -3.255
7 T7 54 -4.232
7 T7 55 -5.697
7 T7 56 -7.161
7 T7 57 -7.650
7 T7 58 -7.650
7 T7 59 -7.161
7 T7 60 -7.650
7 T7 61 -9.115
7 T7 62 -10.579
7 T7 63 -12.044
7 T7 64 -12.044
7 T7 65 -12.044
7 T7 66 -12.533
7 T7 67 -13.021
7 T7 68 -13.997
7 T7 69 -13.509
7 T7 70 -12.044
7 T7 71 -9.603
7 T7 72 -7.161
7 T7 73 -5.697
7 T7 74 -5.697
7 T7 75 -5.697
7 T7 76 -5.208
7 T7 77 -3.255
7 T7 78 -1.302
7 T7 79 -0.326
7 T7 80 -0.814
7 T7 81 -2.767
7 T7 82 -4.720
7 T7 83 -6.673
7 T7 84 -7.650
7 T7 85 -8.626
7 T7 86 -10.579
7 T7 87 -12.044
7 T7 88 -13.021
7 T7 89 -12.044
7 T7 90 -9.603
7 T7 91 -6.185
7 T7 92 -4.720
7 T7 93 -5.208
7 T7 94 -6.185
7 T7 95 -7.161
7 T7 96 -7.161
7 T7 97 -5.208
7 T7 98 -2.767
7 T7 99 -0.326
7 T7 100 0.651
7 T7 101 1.139
7 T7 102 -0.814
7 T7 103 -3.743
7 T7 104 -7.650
7 T7 105 -10.579
7 T7 106 -12.044
7 T7 107 -11.556
7 T7 108 -9.115
7 T7 109 -6.185
7 T7 110 -3.743
7 T7 111 -2.279
7 T7 112 -1.302
7 T7 113 0.163
7 T7 114 0.651
7 T7 115 0.651
7 T7 116 0.163
7 T7 117 -0.326
7 T7 118 -0.814
7 T7 119 -1.302
7 T7 120 -1.790
7 T7 121 -2.767
7 T7 122 -4.232
7 T7 123 -5.208
7 T7 124 -5.697
7 T7 125 -5.208
7 T7 126 -4.720
7 T7 127 -6.185
7 T7 128 -9.115
7 T7 129 -13.021
7 T7 130 -15.462
7 T7 131 -15.462
7 T7 132 -13.509
7 T7 133 -11.068
7 T7 134 -10.091
7 T7 135 -11.068
7 T7 136 -12.044
7 T7 137 -12.044
7 T7 138 -10.091
7 T7 139 -7.650
7 T7 140 -6.185
7 T7 141 -6.673
7 T7 142 -8.138
7 T7 143 -8.626
7 T7 144 -8.138
7 T7 145 -7.161
7 T7 146 -6.185
7 T7 147 -6.673
7 T7 148 -8.138
7 T7 149 -9.115
7 T7 150 -9.115
7 T7 151 -8.626
7 T7 152 -7.650
7 T7 153 -8.138
7 T7 154 -9.115
7 T7 155 -10.579
7 T7 156 -12.044
7 T7 157 -12.533
7 T7 158 -11.556
7 T7 159 -11.068
7 T7 160 -10.579
7 T7 161 -10.091
7 T7 162 -9.603
7 T7 163 -8.138
7 T7 164 -6.673
7 T7 165 -5.208
7 T7 166 -4.232
7 T7 167 -3.743
7 T7 168 -4.232
7 T7 169 -4.720
7 T7 170 -4.720
7 T7 171 -3.743
7 T7 172 -2.767
7 T7 173 -1.790
7 T7 174 -1.302
7 T7 175 -1.302
7 T7 176 -2.279
7 T7 177 -3.255
7 T7 178 -3.255
7 T7 179 -3.255
7 T7 180 -2.767
7 T7 181 -2.767
7 T7 182 -4.720
7 T7 183 -6.673
7 T7 184 -7.650
7 T7 185 -6.673
7 T7 186 -5.208
7 T7 187 -3.255
7 T7 188 -2.279
7 T7 189 -2.279
7 T7 190 -3.255
7 T7 191 -4.720
7 T7 192 -6.185
7 T7 193 -7.650
7 T7 194 -8.138
7 T7 195 -7.650
7 T7 196 -6.185
7 T7 197 -4.232
7 T7 198 -3.255
7 T7 199 -4.720
7 T7 200 -6.673
7 T7 201 -9.115
7 T7 202 -9.115
7 T7 203 -7.650
7 T7 204 -5.697
7 T7 205 -5.697
7 T7 206 -7.650
7 T7 207 -11.556
7 T7 208 -14.486
7 T7 209 -14.974
7 T7 210 -12.533
7 T7 211 -9.115
7 T7 212 -5.208
7 T7 213 -3.255
7 T7 214 -3.743
7 T7 215 -6.185
7 T7 216 -9.115
7 T7 217 -10.579
7 T7 218 -11.068
7 T7 219 -10.091
7 T7 220 -9.603
7 T7 221 -10.091
7 T7 222 -12.044
7 T7 223 -13.997
7 T7 224 -14.486
7 T7 225 -12.533
7 T7 226 -9.603
7 T7 227 -7.161
7 T7 228 -6.185
7 T7 229 -6.185
7 T7 230 -5.208
7 T7 231 -3.255
7 T7 232 -0.814
7 T7 233 -0.326
7 T7 234 -2.279
7 T7 235 -5.697
7 T7 236 -8.626
7 T7 237 -9.115
7 T7 238 -7.650
7 T7 239 -6.185
7 T7 240 -6.185
7 T7 241 -7.650
7 T7 242 -8.626
7 T7 243 -8.626
7 T7 244 -6.185
7 T7 245 -3.743
7 T7 246 -2.767
7 T7 247 -3.255
7 T7 248 -5.697
7 T7 249 -7.650
7 T7 250 -9.603
7 T7 251 -11.556
7 T7 252 -12.533
7 T7 253 -12.533
7 T7 254 -12.044
7 T7 255 -12.533
# CZ chan 15
7 CZ 0 6.378
7 CZ 1 4.425
7 CZ 2 3.448
7 CZ 3 4.425
7 CZ 4 4.913
7 CZ 5 5.890
7 CZ 6 5.890
7 CZ 7 6.378
7 CZ 8 6.866
7 CZ 9 7.843
7 CZ 10 6.866
7 CZ 11 4.425
7 CZ 12 1.495
7 CZ 13 -0.946
7 CZ 14 0.031
7 CZ 15 2.472
7 CZ 16 5.890
7 CZ 17 7.355
7 CZ 18 6.866
7 CZ 19 6.378
7 CZ 20 7.355
7 CZ 21 9.796
7 CZ 22 11.749
7 CZ 23 11.749
7 CZ 24 8.331
7 CZ 25 2.960
7 CZ 26 -0.458
7 CZ 27 -0.946
7 CZ 28 1.007
7 CZ 29 2.960
7 CZ 30 2.472
7 CZ 31 0.519
7 CZ 32 -2.899
7 CZ 33 -4.364
7 CZ 34 -2.411
7 CZ 35 1.007
7 CZ 36 3.937
7 CZ 37 4.913
7 CZ 38 2.960
7 CZ 39 0.031
7 CZ 40 -1.923
7 CZ 41 -1.923
7 CZ 42 0.031
7 CZ 43 2.472
7 CZ 44 4.913
7 CZ 45 5.402
7 CZ 46 4.425
7 CZ 47 2.472
7 CZ 48 0.519
7 CZ 49 0.031
7 CZ 50 1.007
7 CZ 51 3.448
7 CZ 52 4.913
7 CZ 53 4.425
7 CZ 54 1.495
7 CZ 55 -1.923
7 CZ 56 -4.852
7 CZ 57 -5.829
7 CZ 58 -5.829
7 CZ 59 -5.829
7 CZ 60 -7.782
7 CZ 61 -12.177
7 CZ 62 -17.548
7 CZ 63 -21.454
7 CZ 64 -23.407
7 CZ 65 -23.407
7 CZ 66 -22.919
7 CZ 67 -23.407
7 CZ 68 -23.895
7 CZ 69 -23.407
7 CZ 70 -20.966
7 CZ 71 -16.571
7 CZ 72 -11.688
7 CZ 73 -8.270
7 CZ 74 -7.294
7 CZ 75 -7.782
7 CZ 76 -7.294
7 CZ 77 -4.364
7 CZ 78 0.031
7 CZ 79 4.425
7 CZ 80 6.866
7 CZ 81 5.890
7 CZ 82 1.984
7 CZ 83 -1.434
7 CZ 84 -4.364
7 CZ 85 -6.805
7 CZ 86 -8.270
7 CZ 87 -9.735
7 CZ 88 -11.200
7 CZ 89 -11.688
7 CZ 90 -11.200
7 CZ 91 -10.712
7 CZ 92 -10.712
7 CZ 93 -11.200
7 CZ 94 -11.200
7 CZ 95 -11.200
7 CZ 96 -10.712
7 CZ 97 -10.712
7 CZ 98 -11.200
7 CZ 99 -12.177
7 CZ 100 -13.153
7 CZ 101 -12.665
7 CZ 102 -11.200
7 CZ 103 -8.270
7 CZ 104 -5.829
7 CZ 105 -3.876
7 CZ 106 -3.387
7 CZ 107 -3.876
7 CZ 108 -4.364
7 CZ 109 -4.852
7 CZ 110 -4.364
7 CZ 111 -3.387
7 CZ 112 -2.411
7 CZ 113 -0.946
7 CZ 114 -0.946
7 CZ 115 -1.923
7 CZ 116 -3.876
7 CZ 117 -4.852
7 CZ 118 -4.852
7 CZ 119 -4.364
7 CZ 120 -4.364
7 CZ 121 -6.317
7 CZ 122 -9.247
7 CZ 123 -10.712
7 CZ 124 -10.712
7 CZ 125 -8.270
7 CZ 126 -6.805
7 CZ 127 -7.782
7 CZ 128 -12.177
7 CZ 129 -18.524
7 CZ 130 -21.942
7 CZ 131 -22.430
7 CZ 132 -19.989
7 CZ 133 -16.571
7 CZ 134 -14.618
7 CZ 135 -14.618
7 CZ 136 -16.571
7 CZ 137 -18.524
7 CZ 138 -19.501
7 CZ 139 -19.501
7 CZ 140 -18.036
7 CZ 141 -16.083
7 CZ 142 -15.106
7 CZ 143 -15.594
7 CZ 144 -17.548
7 CZ 145 -21.454
7 CZ 146 -25.360
7 CZ 147 -26.825
7 CZ 148 -25.848
7 CZ 149 -22.430
7 CZ 150 -19.501
7 CZ 151 -17.548
7 CZ 152 -18.524
7 CZ 153 -20.966
7 CZ 154 -23.407
7 CZ 155 -23.895
7 CZ 156 -23.407
7 CZ 157 -23.407
7 CZ 158 -22.919
7 CZ 159 -23.895
7 CZ 160 -24.384
7 CZ 161 -24.384
7 CZ 162 -23.895
7 CZ 163 -21.942
7 CZ 164 -19.501
7 CZ 165 -17.059
7 CZ 166 -15.106
7 CZ 167 -14.130
7 CZ 168 -14.130
7 CZ 169 -14.618
7 CZ 170 -15.106
7 CZ 171 -14.130
7 CZ 172 -12.177
7 CZ 173 -9.735
7 CZ 174 -8.759
7 CZ 175 -8.759
7 CZ 176 -10.223
7 CZ 177 -11.200
7 CZ 178 -11.200
7 CZ 179 -10.712
7 CZ 180 -9.735
7 CZ 181 -9.247
7 CZ 182 -8.759
7 CZ 183 -7.782
7 CZ 184 -6.317
7 CZ 185 -4.852
7 CZ 186 -4.364
7 CZ 187 -4.364
7 CZ 188 -5.341
7 CZ 189 -6.317
7 CZ 190 -7.782
7 CZ 191 -9.247
7 CZ 192 -11.200
7 CZ 193 -13.641
7 CZ 194 -14.618
7 CZ 195 -14.130
7 CZ 196 -12.665
7 CZ 197 -10.712
7 CZ 198 -10.223
7 CZ 199 -10.712
7 CZ 200 -11.200
7 CZ 201 -11.688
7 CZ 202 -11.688
7 CZ 203 -12.177
7 CZ 204 -13.641
7 CZ 205 -16.083
7 CZ 206 -17.548
7 CZ 207 -18.036
7 CZ 208 -16.571
7 CZ 209 -13.641
7 CZ 210 -11.200
7 CZ 211 -9.247
7 CZ 212 -9.247
7 CZ 213 -10.223
7 CZ 214 -12.665
7 CZ 215 -15.594
7 CZ 216 -17.548
7 CZ 217 -18.524
7 CZ 218 -17.548
7 CZ 219 -15.106
7 CZ 220 -12.177
7 CZ 221 -11.688
7 CZ 222 -14.130
7 CZ 223 -18.524
7 CZ 224 -21.942
7 CZ 225 -20.966
7 CZ 226 -15.594
7 CZ 227 -8.759
7 CZ 228 -2.899
7 CZ 229 -1.434
7 CZ 230 -2.899
7 CZ 231 -4.852
7 CZ 232 -4.852
7 CZ 233 -2.899
7 CZ 234 -0.458
7 CZ 235 -0.458
7 CZ 236 -2.899
7 CZ 237 -6.317
7 CZ 238 -8.759
7 CZ 239 -8.759
7 CZ 240 -7.294
7 CZ 241 -4.852
7 CZ 242 -3.876
7 CZ 243 -3.876
7 CZ 244 -3.387
7 CZ 245 -2.899
7 CZ 246 -1.923
7 CZ 247 -2.899
7 CZ 248 -6.317
7 CZ 249 -11.200
7 CZ 250 -16.571
7 CZ 251 -19.012
7 CZ 252 -17.548
7 CZ 253 -13.641
7 CZ 254 -10.712
7 CZ 255 -10.712
# C3 chan 16
7 C3 0 -2.777
7 C3 1 -1.801
7 C3 2 0.153
7 C3 3 1.129
7 C3 4 1.617
7 C3 5 1.129
7 C3 6 0.641
7 C3 7 1.129
7 C3 8 2.106
7 C3 9 3.082
7 C3 10 2.106
7 C3 11 1.129
7 C3 12 0.153
7 C3 13 -0.336
7 C3 14 0.641
7 C3 15 1.617
7 C3 16 2.594
7 C3 17 3.571
7 C3 18 4.059
7 C3 19 4.547
7 C3 20 3.571
7 C3 21 1.617
7 C3 22 -0.336
7 C3 23 -1.801
7 C3 24 -1.801
7 C3 25 -1.312
7 C3 26 -1.801
7 C3 27 -3.265
7 C3 28 -4.730
7 C3 29 -5.219
7 C3 30 -4.730
7 C3 31 -2.777
7 C3 32 -0.336
7 C3 33 1.129
7 C3 34 1.129
7 C3 35 0.153
7 C3 36 -1.312
7 C3 37 -2.289
7 C3 38 -3.265
7 C3 39 -2.289
7 C3 40 -1.312
7 C3 41 0.153
7 C3 42 0.641
7 C3 43 0.153
7 C3 44 -0.336
7 C3 45 -1.801
7 C3 46 -1.801
7 C3 47 -2.289
7 C3 48 -2.777
7 C3 49 -4.242
7 C3 50 -6.683
7 C3 51 -7.660
7 C3 52 -7.172
7 C3 53 -4.730
7 C3 54 -2.289
7 C3 55 -1.801
7 C3 56 -3.265
7 C3 57 -4.242
7 C3 58 -4.730
7 C3 59 -2.777
7 C3 60 -0.336
7 C3 61 1.129
7 C3 62 0.153
7 C3 63 -2.289
7 C3 64 -4.242
7 C3 65 -4.242
7 C3 66 -2.289
7 C3 67 -0.824
7 C3 68 -0.824
7 C3 69 -2.777
7 C3 70 -5.707
7 C3 71 -8.148
7 C3 72 -8.636
7 C3 73 -7.172
7 C3 74 -5.219
7 C3 75 -4.242
7 C3 76 -3.265
7 C3 77 -2.777
7 C3 78 -2.289
7 C3 79 -1.801
7 C3 80 -2.289
7 C3 81 -3.265
7 C3 82 -4.242
7 C3 83 -3.754
7 C3 84 -2.777
7 C3 85 -1.801
7 C3 86 -1.801
7 C3 87 -3.754
7 C3 88 -6.683
7 C3 89 -9.125
7 C3 90 -9.125
7 C3 91 -7.660
7 C3 92 -6.195
7 C3 93 -5.219
7 C3 94 -5.219
7 C3 95 -5.707
7 C3 96 -5.219
7 C3 97 -3.754
7 C3 98 -2.289
7 C3 99 -1.312
7 C3 100 -1.312
7 C3 101 -1.801
7 C3 102 -2.289
7 C3 103 -2.777
7 C3 104 -2.777
7 C3 105 -3.265
7 C3 106 -3.754
7 C3 107 -3.754
7 C3 108 -2.777
7 C3 109 -2.289
7 C3 110 -2.777
7 C3 111 -4.730
7 C3 112 -6.195
7 C3 113 -6.683
7 C3 114 -5.219
7 C3 115 -2.289
7 C3 116 -0.336
7 C3 117 0.153
7 C3 118 -0.824
7 C3 119 -2.289
7 C3 120 -2.289
7 C3 121 -1.801
7 C3 122 -0.824
7 C3 123 -1.312
7 C3 124 -3.265
7 C3 125 -4.730
7 C3 126 -5.707
7 C3 127 -5.707
7 C3 128 -4.730
7 C3 129 -4.730
7 C3 130 -5.707
7 C3 131 -7.172
7 C3 132 -8.148
7 C3 133 -7.660
7 C3 134 -6.683
7 C3 135 -4.730
7 C3 136 -2.777
7 C3 137 -1.801
7 C3 138 -1.312
7 C3 139 -1.312
7 C3 140 -1.801
7 C3 141 -1.801
7 C3 142 -1.312
7 C3 143 -0.336
7 C3 144 0.641
7 C3 145 1.129
7 C3 146 1.129
7 C3 147 -0.336
7 C3 148 -2.289
7 C3 149 -3.754
7 C3 150 -4.730
7 C3 151 -4.242
7 C3 152 -2.777
7 C3 153 -1.312
7 C3 154 -1.312
7 C3 155 -1.801
7 C3 156 -3.754
7 C3 157 -4.730
7 C3 158 -4.242
7 C3 159 -2.289
7 C3 160 0.641
7 C3 161 2.106
7 C3 162 1.617
7 C3 163 -0.336
7 C3 164 -2.777
7 C3 165 -3.265
7 C3 166 -1.312
7 C3 167 1.617
7 C3 168 3.571
7 C3 169 3.571
7 C3 170 0.641
7 C3 171 -2.289
7 C3 172 -4.242
7 C3 173 -4.242
7 C3 174 -2.777
7 C3 175 -0.336
7 C3 176 0.641
7 C3 177 1.617
7 C3 178 1.617
7 C3 179 1.617
7 C3 180 1.129
7 C3 181 -0.336
7 C3 182 -1.801
7 C3 183 -3.265
7 C3 184 -4.242
7 C3 185 -3.265
7 C3 186 -1.801
7 C3 187 -1.312
7 C3 188 -1.801
7 C3 189 -4.242
7 C3 190 -6.195
7 C3 191 -7.172
7 C3 192 -5.707
7 C3 193 -2.289
7 C3 194 0.153
7 C3 195 1.129
7 C3 196 -0.336
7 C3 197 -3.265
7 C3 198 -6.195
7 C3 199 -7.172
7 C3 200 -6.683
7 C3 201 -5.219
7 C3 202 -2.777
7 C3 203 -1.801
7 C3 204 -1.312
7 C3 205 -2.289
7 C3 206 -3.265
7 C3 207 -4.242
7 C3 208 -5.219
7 C3 209 -5.707
7 C3 210 -5.707
7 C3 211 -5.707
7 C3 212 -5.219
7 C3 213 -5.707
7 C3 214 -6.195
7 C3 215 -6.683
7 C3 216 -6.195
7 C3 217 -5.219
7 C3 218 -3.754
7 C3 219 -3.265
7 C3 220 -3.754
7 C3 221 -5.219
7 C3 222 -5.707
7 C3 223 -5.219
7 C3 224 -4.242
7 C3 225 -4.242
7 C3 226 -4.730
7 C3 227 -5.707
7 C3 228 -7.172
7 C3 229 -6.683
7 C3 230 -5.219
7 C3 231 -4.242
7 C3 232 -3.265
7 C3 233 -2.777
7 C3 234 -2.777
7 C3 235 -2.777
7 C3 236 -3.265
7 C3 237 -4.242
7 C3 238 -5.219
7 C3 239 -6.195
7 C3 240 -6.195
7 C3 241 -4.730
7 C3 242 -2.777
7 C3 243 -1.312
7 C3 244 -0.824
7 C3 245 -0.824
7 C3 246 -2.289
7 C3 247 -2.777
7 C3 248 -3.754
7 C3 249 -3.754
7 C3 250 -4.242
7 C3 251 -4.730
7 C3 252 -4.242
7 C3 253 -4.242
7 C3 254 -4.730
7 C3 255 -5.219
# C4 chan 17
7 C4 0 -1.241
7 C4 1 -0.264
7 C4 2 0.224
7 C4 3 -0.264
7 C4 4 -0.753
7 C4 5 -0.753
7 C4 6 0.224
7 C4 7 0.712
7 C4 8 0.712
7 C4 9 -0.264
7 C4 10 -0.753
7 C4 11 -1.241
7 C4 12 -1.729
7 C4 13 -1.241
7 C4 14 -1.729
7 C4 15 -2.218
7 C4 16 -2.218
7 C4 17 -2.218
7 C4 18 -1.729
7 C4 19 -1.241
7 C4 20 -0.264
7 C4 21 0.712
7 C4 22 2.177
7 C4 23 4.618
7 C4 24 6.571
7 C4 25 6.083
7 C4 26 4.618
7 C4 27 1.689
7 C4 28 -0.753
7 C4 29 -0.753
7 C4 30 0.224
7 C4 31 2.177
7 C4 32 2.665
7 C4 33 1.200
7 C4 34 -0.753
7 C4 35 -2.218
7 C4 36 -1.241
7 C4 37 1.200
7 C4 38 4.130
7 C4 39 5.107
7 C4 40 3.642
7 C4 41 1.200
7 C4 42 -0.264
7 C4 43 -1.241
7 C4 44 -0.264
7 C4 45 0.712
7 C4 46 0.712
7 C4 47 0.712
7 C4 48 0.712
7 C4 49 0.712
7 C4 50 1.200
7 C4 51 1.200
7 C4 52 0.712
7 C4 53 0.224
7 C4 54 0.224
7 C4 55 0.712
7 C4 56 0.712
7 C4 57 0.224
7 C4 58 -0.753
7 C4 59 -2.218
7 C4 60 -3.194
7 C4 61 -3.194
7 C4 62 -3.682
7 C4 63 -3.682
7 C4 64 -3.194
7 C4 65 -3.194
7 C4 66 -2.218
7 C4 67 -0.753
7 C4 68 0.224
7 C4 69 1.200
7 C4 70 1.200
7 C4 71 1.200
7 C4 72 1.200
7 C4 73 1.689
7 C4 74 3.153
7 C4 75 5.595
7 C4 76 7.548
7 C4 77 8.525
7 C4 78 8.036
7 C4 79 6.571
7 C4 80 5.595
7 C4 81 5.595
7 C4 82 6.571
7 C4 83 6.571
7 C4 84 5.107
7 C4 85 2.177
7 C4 86 -0.753
7 C4 87 -2.218
7 C4 88 -2.218
7 C4 89 -0.753
7 C4 90 -0.264
7 C4 91 -0.264
7 C4 92 -1.241
7 C4 93 -2.218
7 C4 94 -3.194
7 C4 95 -3.194
7 C4 96 -2.706
7 C4 97 -2.218
7 C4 98 -2.706
7 C4 99 -3.682
7 C4 100 -4.171
7 C4 101 -4.171
7 C4 102 -2.706
7 C4 103 -0.753
7 C4 104 0.224
7 C4 105 0.224
7 C4 106 -0.753
7 C4 107 -1.729
7 C4 108 -1.241
7 C4 109 -0.264
7 C4 110 1.200
7 C4 111 1.689
7 C4 112 0.224
7 C4 113 -0.753
7 C4 114 -1.241
7 C4 115 -0.264
7 C4 116 1.200
7 C4 117 2.177
7 C4 118 1.689
7 C4 119 0.224
7 C4 120 -1.241
7 C4 121 -0.753
7 C4 122 0.224
7 C4 123 1.200
7 C4 124 1.200
7 C4 125 0.712
7 C4 126 0.224
7 C4 127 0.224
7 C4 128 0.712
7 C4 129 0.224
7 C4 130 -0.753
7 C4 131 -2.218
7 C4 132 -3.194
7 C4 133 -2.706
7 C4 134 -2.218
7 C4 135 -2.218
7 C4 136 -2.706
7 C4 137 -3.194
7 C4 138 -3.194
7 C4 139 -2.218
7 C4 140 -0.753
7 C4 141 -0.264
7 C4 142 0.224
7 C4 143 -0.753
7 C4 144 -0.753
7 C4 145 -0.264
7 C4 146 0.712
7 C4 147 1.689
7 C4 148 2.177
7 C4 149 1.689
7 C4 150 0.712
7 C4 151 -0.264
7 C4 152 -1.729
7 C4 153 -2.706
7 C4 154 -3.682
7 C4 155 -3.682
7 C4 156 -2.218
7 C4 157 -1.241
7 C4 158 -0.753
7 C4 159 -1.729
7 C4 160 -2.218
7 C4 161 -3.194
7 C4 162 -2.218
7 C4 163 -0.753
7 C4 164 1.200
7 C4 165 1.689
7 C4 166 0.712
7 C4 167 -1.729
7 C4 168 -2.706
7 C4 169 -1.729
7 C4 170 0.712
7 C4 171 3.642
7 C4 172 5.595
7 C4 173 6.083
7 C4 174 5.107
7 C4 175 4.130
7 C4 176 3.642
7 C4 177 3.153
7 C4 178 3.153
7 C4 179 2.177
7 C4 180 1.689
7 C4 181 1.689
7 C4 182 2.177
7 C4 183 3.153
7 C4 184 2.665
7 C4 185 2.665
7 C4 186 1.689
7 C4 187 1.689
7 C4 188 3.153
7 C4 189 4.130
7 C4 190 5.595
7 C4 191 6.083
7 C4 192 5.595
7 C4 193 4.618
7 C4 194 2.665
7 C4 195 0.712
7 C4 196 -0.753
7 C4 197 -1.241
7 C4 198 0.712
7 C4 199 2.665
7 C4 200 4.130
7 C4 201 3.642
7 C4 202 2.177
7 C4 203 0.224
7 C4 204 -0.753
7 C4 205 0.712
7 C4 206 3.153
7 C4 207 5.107
7 C4 208 5.595
7 C4 209 4.130
7 C4 210 2.665
7 C4 211 0.712
7 C4 212 0.712
7 C4 213 1.689
7 C4 214 3.153
7 C4 215 4.130
7 C4 216 4.618
7 C4 217 4.130
7 C4 218 3.153
7 C4 219 3.153
7 C4 220 4.618
7 C4 221 5.595
7 C4 222 6.571
7 C4 223 6.083
7 C4 224 4.618
7 C4 225 3.642
7 C4 226 3.642
7 C4 227 4.618
7 C4 228 5.107
7 C4 229 5.107
7 C4 230 4.618
7 C4 231 3.642
7 C4 232 3.153
7 C4 233 3.642
7 C4 234 4.618
7 C4 235 5.107
7 C4 236 5.107
7 C4 237 5.107
7 C4 238 5.107
7 C4 239 5.107
7 C4 240 5.595
7 C4 241 5.595
7 C4 242 5.107
7 C4 243 4.618
7 C4 244 4.130
7 C4 245 4.618
7 C4 246 5.595
7 C4 247 7.548
7 C4 248 9.013
7 C4 249 9.501
7 C4 250 9.989
7 C4 251 9.013
7 C4 252 7.548
7 C4 253 5.107
7 C4 254 3.642
7 C4 255 4.130
# CP5 chan 18
7 CP5 0 -2.991
7 CP5 1 -1.526
7 CP5 2 0.916
7 CP5 3 1.892
7 CP5 4 2.380
7 CP5 5 2.380
7 CP5 6 2.869
7 CP5 7 4.333
7 CP5 8 5.798
7 CP5 9 6.775
7 CP5 10 6.287
7 CP5 11 4.822
7 CP5 12 2.869
7 CP5 13 1.404
7 CP5 14 1.404
7 CP5 15 2.380
7 CP5 16 3.845
7 CP5 17 5.310
7 CP5 18 6.287
7 CP5 19 6.775
7 CP5 20 7.263
7 CP5 21 6.287
7 CP5 22 5.310
7 CP5 23 3.845
7 CP5 24 2.869
7 CP5 25 1.404
7 CP5 26 -0.061
7 CP5 27 -1.526
7 CP5 28 -2.502
7 CP5 29 -2.991
7 CP5 30 -2.502
7 CP5 31 -2.502
7 CP5 32 -2.014
7 CP5 33 -2.014
7 CP5 34 -0.549
7 CP5 35 1.892
7 CP5 36 3.845
7 CP5 37 4.333
7 CP5 38 3.845
7 CP5 39 2.869
7 CP5 40 2.869
7 CP5 41 3.845
7 CP5 42 5.798
7 CP5 43 6.775
7 CP5 44 6.287
7 CP5 45 4.333
7 CP5 46 2.869
7 CP5 47 2.380
7 CP5 48 1.892
7 CP5 49 1.892
7 CP5 50 1.404
7 CP5 51 0.916
7 CP5 52 0.916
7 CP5 53 0.916
7 CP5 54 1.404
7 CP5 55 0.916
7 CP5 56 0.427
7 CP5 57 0.427
7 CP5 58 1.892
7 CP5 59 3.845
7 CP5 60 5.798
7 CP5 61 6.287
7 CP5 62 4.822
7 CP5 63 2.380
7 CP5 64 0.916
7 CP5 65 1.404
7 CP5 66 2.869
7 CP5 67 4.333
7 CP5 68 3.845
7 CP5 69 2.869
7 CP5 70 0.916
7 CP5 71 0.916
7 CP5 72 2.380
7 CP5 73 4.822
7 CP5 74 7.263
7 CP5 75 8.728
7 CP5 76 10.193
7 CP5 77 11.169
7 CP5 78 12.146
7 CP5 79 12.146
7 CP5 80 10.681
7 CP5 81 7.751
7 CP5 82 5.798
7 CP5 83 4.333
7 CP5 84 4.822
7 CP5 85 5.310
7 CP5 86 5.310
7 CP5 87 3.845
7 CP5 88 1.404
7 CP5 89 -0.061
7 CP5 90 -0.061
7 CP5 91 1.404
7 CP5 92 3.845
7 CP5 93 5.798
7 CP5 94 6.775
7 CP5 95 7.263
7 CP5 96 7.751
7 CP5 97 9.705
7 CP5 98 12.634
7 CP5 99 15.564
7 CP5 100 17.517
7 CP5 101 18.005
7 CP5 102 15.564
7 CP5 103 11.658
7 CP5 104 7.751
7 CP5 105 4.822
7 CP5 106 4.333
7 CP5 107 5.310
7 CP5 108 7.263
7 CP5 109 7.751
7 CP5 110 6.287
7 CP5 111 5.310
7 CP5 112 4.333
7 CP5 113 5.310
7 CP5 114 8.240
7 CP5 115 11.169
7 CP5 116 12.634
7 CP5 117 13.123
7 CP5 118 12.634
7 CP5 119 12.634
7 CP5 120 13.123
7 CP5 121 13.611
7 CP5 122 13.123
7 CP5 123 11.169
7 CP5 124 8.728
7 CP5 125 7.751
7 CP5 126 8.240
7 CP5 127 9.216
7 CP5 128 9.705
7 CP5 129 8.728
7 CP5 130 6.287
7 CP5 131 4.333
7 CP5 132 3.845
7 CP5 133 4.822
7 CP5 134 7.263
7 CP5 135 9.705
7 CP5 136 11.658
7 CP5 137 13.611
7 CP5 138 14.587
7 CP5 139 15.564
7 CP5 140 15.564
7 CP5 141 15.076
7 CP5 142 14.099
7 CP5 143 13.611
7 CP5 144 13.123
7 CP5 145 13.611
7 CP5 146 14.099
7 CP5 147 14.099
7 CP5 148 14.099
7 CP5 149 13.123
7 CP5 150 12.634
7 CP5 151 12.634
7 CP5 152 13.123
7 CP5 153 13.611
7 CP5 154 14.099
7 CP5 155 14.099
7 CP5 156 13.611
7 CP5 157 12.634
7 CP5 158 13.123
7 CP5 159 13.611
7 CP5 160 15.076
7 CP5 161 15.564
7 CP5 162 15.564
7 CP5 163 15.076
7 CP5 164 14.099
7 CP5 165 15.076
7 CP5 166 17.029
7 CP5 167 19.470
7 CP5 168 20.935
7 CP5 169 20.447
7 CP5 170 18.005
7 CP5 171 15.076
7 CP5 172 13.123
7 CP5 173 13.123
7 CP5 174 15.076
7 CP5 175 17.029
7 CP5 176 18.494
7 CP5 177 18.982
7 CP5 178 18.982
7 CP5 179 18.982
7 CP5 180 18.982
7 CP5 181 18.494
7 CP5 182 17.517
7 CP5 183 16.541
7 CP5 184 15.564
7 CP5 185 16.052
7 CP5 186 16.541
7 CP5 187 16.541
7 CP5 188 15.564
7 CP5 189 14.099
7 CP5 190 12.634
7 CP5 191 12.146
7 CP5 192 14.099
7 CP5 193 16.052
7 CP5 194 18.005
7 CP5 195 18.982
7 CP5 196 18.005
7 CP5 197 16.541
7 CP5 198 15.076
7 CP5 199 13.123
7 CP5 200 12.634
7 CP5 201 12.634
7 CP5 202 13.611
7 CP5 203 15.076
7 CP5 204 16.052
7 CP5 205 15.564
7 CP5 206 14.099
7 CP5 207 12.146
7 CP5 208 10.193
7 CP5 209 9.216
7 CP5 210 9.705
7 CP5 211 10.681
7 CP5 212 11.658
7 CP5 213 12.634
7 CP5 214 12.634
7 CP5 215 13.123
7 CP5 216 13.611
7 CP5 217 14.587
7 CP5 218 15.076
7 CP5 219 15.564
7 CP5 220 15.564
7 CP5 221 15.076
7 CP5 222 14.587
7 CP5 223 13.123
7 CP5 224 13.123
7 CP5 225 15.076
7 CP5 226 17.517
7 CP5 227 19.958
7 CP5 228 21.912
7 CP5 229 21.912
7 CP5 230 22.400
7 CP5 231 22.400
7 CP5 232 22.888
7 CP5 233 23.865
7 CP5 234 23.865
7 CP5 235 22.400
7 CP5 236 19.958
7 CP5 237 18.494
7 CP5 238 18.005
7 CP5 239 18.982
7 CP5 240 20.447
7 CP5 241 21.423
7 CP5 242 22.400
7 CP5 243 23.376
7 CP5 244 24.841
7 CP5 245 26.306
7 CP5 246 26.306
7 CP5 247 25.330
7 CP5 248 23.376
7 CP5 249 21.912
7 CP5 250 20.935
7 CP5 251 20.935
7 CP5 252 21.423
7 CP5 253 21.423
7 CP5 254 20.447
7 CP5 255 18.494
# CP6 chan 19
7 CP6 0 0.234
7 CP6 1 1.211
7 CP6 2 0.722
7 CP6 3 -0.743
7 CP6 4 -1.719
7 CP6 5 -2.207
7 CP6 6 -1.719
7 CP6 7 -0.254
7 CP6 8 0.234
7 CP6 9 0.722
7 CP6 10 0.234
7 CP6 11 -0.254
7 CP6 12 -0.743
7 CP6 13 -1.719
7 CP6 14 -2.696
7 CP6 15 -4.649
7 CP6 16 -5.137
7 CP6 17 -4.649
7 CP6 18 -3.184
7 CP6 19 -1.719
7 CP6 20 -0.743
7 CP6 21 0.722
7 CP6 22 1.699
7 CP6 23 3.164
7 CP6 24 4.140
7 CP6 25 4.628
7 CP6 26 4.140
7 CP6 27 1.699
7 CP6 28 -0.743
7 CP6 29 -2.207
7 CP6 30 -2.696
7 CP6 31 -1.719
7 CP6 32 -0.743
7 CP6 33 -0.743
7 CP6 34 -0.743
7 CP6 35 -0.743
7 CP6 36 -0.743
7 CP6 37 -0.254
7 CP6 38 0.234
7 CP6 39 0.234
7 CP6 40 0.234
7 CP6 41 0.234
7 CP6 42 0.234
7 CP6 43 0.234
7 CP6 44 0.234
7 CP6 45 -1.231
7 CP6 46 -2.207
7 CP6 47 -2.696
7 CP6 48 -2.207
7 CP6 49 -1.231
7 CP6 50 -0.254
7 CP6 51 0.234
7 CP6 52 -0.743
7 CP6 53 -2.207
7 CP6 54 -2.696
7 CP6 55 -2.696
7 CP6 56 -2.207
7 CP6 57 -1.719
7 CP6 58 -2.207
7 CP6 59 -3.184
7 CP6 60 -5.625
7 CP6 61 -7.579
7 CP6 62 -8.555
7 CP6 63 -9.043
7 CP6 64 -8.555
7 CP6 65 -7.090
7 CP6 66 -5.625
7 CP6 67 -4.649
7 CP6 68 -4.161
7 CP6 69 -3.672
7 CP6 70 -2.696
7 CP6 71 -2.207
7 CP6 72 -1.231
7 CP6 73 0.234
7 CP6 74 1.211
7 CP6 75 2.675
7 CP6 76 4.140
7 CP6 77 5.605
7 CP6 78 6.093
7 CP6 79 5.605
7 CP6 80 4.628
7 CP6 81 3.164
7 CP6 82 2.187
7 CP6 83 0.234
7 CP6 84 -2.207
7 CP6 85 -5.625
7 CP6 86 -9.043
7 CP6 87 -10.997
7 CP6 88 -11.485
7 CP6 89 -10.020
7 CP6 90 -8.555
7 CP6 91 -7.579
7 CP6 92 -7.579
7 CP6 93 -8.555
7 CP6 94 -9.532
7 CP6 95 -9.043
7 CP6 96 -8.555
7 CP6 97 -7.579
7 CP6 98 -7.579
7 CP6 99 -8.067
7 CP6 100 -8.555
7 CP6 101 -9.532
7 CP6 102 -9.043
7 CP6 103 -8.067
7 CP6 104 -7.090
7 CP6 105 -6.114
7 CP6 106 -5.625
7 CP6 107 -6.602
7 CP6 108 -7.579
7 CP6 109 -9.043
7 CP6 110 -9.532
7 CP6 111 -9.532
7 CP6 112 -8.555
7 CP6 113 -7.090
7 CP6 114 -5.137
7 CP6 115 -4.161
7 CP6 116 -3.672
7 CP6 117 -3.672
7 CP6 118 -3.672
7 CP6 119 -3.672
7 CP6 120 -3.184
7 CP6 121 -3.184
7 CP6 122 -3.184
7 CP6 123 -3.184
7 CP6 124 -3.184
7 CP6 125 -2.696
7 CP6 126 -2.207
7 CP6 127 -2.696
7 CP6 128 -4.161
7 CP6 129 -5.625
7 CP6 130 -7.090
7 CP6 131 -8.067
7 CP6 132 -7.579
7 CP6 133 -6.114
7 CP6 134 -4.649
7 CP6 135 -3.672
7 CP6 136 -3.672
7 CP6 137 -4.649
7 CP6 138 -5.625
7 CP6 139 -6.602
7 CP6 140 -6.114
7 CP6 141 -4.649
7 CP6 142 -3.184
7 CP6 143 -2.207
7 CP6 144 -2.696
7 CP6 145 -3.672
7 CP6 146 -5.137
7 CP6 147 -6.114
7 CP6 148 -6.114
7 CP6 149 -5.625
7 CP6 150 -3.672
7 CP6 151 -3.184
7 CP6 152 -4.161
7 CP6 153 -6.602
7 CP6 154 -9.043
7 CP6 155 -10.508
7 CP6 156 -10.020
7 CP6 157 -8.555
7 CP6 158 -7.579
7 CP6 159 -8.067
7 CP6 160 -9.532
7 CP6 161 -10.997
7 CP6 162 -10.997
7 CP6 163 -9.043
7 CP6 164 -6.114
7 CP6 165 -4.161
7 CP6 166 -3.672
7 CP6 167 -4.649
7 CP6 168 -5.625
7 CP6 169 -5.625
7 CP6 170 -3.672
7 CP6 171 -1.231
7 CP6 172 0.722
7 CP6 173 0.722
7 CP6 174 -0.254
7 CP6 175 -1.719
7 CP6 176 -3.672
7 CP6 177 -4.161
7 CP6 178 -4.649
7 CP6 179 -5.137
7 CP6 180 -5.625
7 CP6 181 -7.090
7 CP6 182 -8.067
7 CP6 183 -8.555
7 CP6 184 -8.555
7 CP6 185 -7.579
7 CP6 186 -6.602
7 CP6 187 -5.625
7 CP6 188 -5.137
7 CP6 189 -4.649
7 CP6 190 -4.161
7 CP6 191 -4.161
7 CP6 192 -4.161
7 CP6 193 -5.625
7 CP6 194 -8.067
7 CP6 195 -10.020
7 CP6 196 -11.485
7 CP6 197 -11.485
7 CP6 198 -9.532
7 CP6 199 -7.090
7 CP6 200 -5.137
7 CP6 201 -4.649
7 CP6 202 -6.114
7 CP6 203 -8.555
7 CP6 204 -10.020
7 CP6 205 -10.020
7 CP6 206 -8.555
7 CP6 207 -7.090
7 CP6 208 -5.625
7 CP6 209 -5.625
7 CP6 210 -6.602
7 CP6 211 -7.579
7 CP6 212 -8.555
7 CP6 213 -9.532
7 CP6 214 -9.532
7 CP6 215 -9.043
7 CP6 216 -8.067
7 CP6 217 -7.090
7 CP6 218 -6.114
7 CP6 219 -5.625
7 CP6 220 -6.114
7 CP6 221 -6.602
7 CP6 222 -7.579
7 CP6 223 -8.067
7 CP6 224 -8.555
7 CP6 225 -6.602
7 CP6 226 -4.649
7 CP6 227 -2.207
7 CP6 228 -1.231
7 CP6 229 -1.719
7 CP6 230 -2.696
7 CP6 231 -3.672
7 CP6 232 -4.161
7 CP6 233 -5.137
7 CP6 234 -6.114
7 CP6 235 -7.579
7 CP6 236 -9.043
7 CP6 237 -9.532
7 CP6 238 -9.043
7 CP6 239 -7.090
7 CP6 240 -5.625
7 CP6 241 -5.137
7 CP6 242 -5.137
7 CP6 243 -4.649
7 CP6 244 -4.161
7 CP6 245 -2.696
7 CP6 246 -1.719
7 CP6 247 -1.231
7 CP6 248 -1.719
7 CP6 249 -2.696
7 CP6 250 -4.161
7 CP6 251 -4.649
7 CP6 252 -5.137
7 CP6 253 -6.114
7 CP6 254 -6.602
7 CP6 255 -6.602
# CP1 chan 20
7 CP1 0 -2.207
7 CP1 1 -1.231
7 CP1 2 -0.254
7 CP1 3 -0.254
7 CP1 4 -0.743
7 CP1 5 -0.743
7 CP1 6 -0.743
7 CP1 7 0.234
7 CP1 8 0.722
7 CP1 9 1.211
7 CP1 10 1.211
7 CP1 11 0.722
7 CP1 12 0.234
7 CP1 13 0.234
7 CP1 14 0.722
7 CP1 15 0.722
7 CP1 16 1.211
7 CP1 17 1.211
7 CP1 18 1.211
7 CP1 19 1.211
7 CP1 20 0.234
7 CP1 21 -0.254
7 CP1 22 0.234
7 CP1 23 0.722
7 CP1 24 0.722
7 CP1 25 0.234
7 CP1 26 -1.231
7 CP1 27 -3.184
7 CP1 28 -4.161
7 CP1 29 -4.161
7 CP1 30 -2.696
7 CP1 31 -1.719
7 CP1 32 -0.743
7 CP1 33 -0.743
7 CP1 34 -1.231
7 CP1 35 -1.231
7 CP1 36 -1.231
7 CP1 37 -1.719
7 CP1 38 -1.719
7 CP1 39 -2.207
7 CP1 40 -2.207
7 CP1 41 -1.719
7 CP1 42 -0.743
7 CP1 43 -0.743
7 CP1 44 -1.231
7 CP1 45 -2.696
7 CP1 46 -3.184
7 CP1 47 -4.161
7 CP1 48 -4.649
7 CP1 49 -5.625
7 CP1 50 -6.114
7 CP1 51 -5.625
7 CP1 52 -4.649
7 CP1 53 -3.184
7 CP1 54 -2.696
7 CP1 55 -2.696
7 CP1 56 -3.672
7 CP1 57 -3.672
7 CP1 58 -2.207
7 CP1 59 -0.254
7 CP1 60 1.211
7 CP1 61 1.211
7 CP1 62 -0.254
7 CP1 63 -1.719
7 CP1 64 -2.696
7 CP1 65 -2.207
7 CP1 66 -1.719
7 CP1 67 -1.231
7 CP1 68 -2.207
7 CP1 69 -3.672
7 CP1 70 -4.649
7 CP1 71 -4.161
7 CP1 72 -2.696
7 CP1 73 -1.231
7 CP1 74 -0.743
7 CP1 75 -0.743
7 CP1 76 -1.719
7 CP1 77 -1.719
7 CP1 78 -1.719
7 CP1 79 -1.231
7 CP1 80 -1.719
7 CP1 81 -2.696
7 CP1 82 -3.672
7 CP1 83 -4.161
7 CP1 84 -4.161
7 CP1 85 -3.672
7 CP1 86 -4.161
7 CP1 87 -5.625
7 CP1 88 -7.090
7 CP1 89 -7.579
7 CP1 90 -7.090
7 CP1 91 -5.625
7 CP1 92 -5.137
7 CP1 93 -5.137
7 CP1 94 -6.114
7 CP1 95 -6.114
7 CP1 96 -5.137
7 CP1 97 -3.672
7 CP1 98 -2.696
7 CP1 99 -1.719
7 CP1 100 -1.231
7 CP1 101 -1.719
7 CP1 102 -2.207
7 CP1 103 -3.184
7 CP1 104 -4.161
7 CP1 105 -5.137
7 CP1 106 -5.625
7 CP1 107 -6.114
7 CP1 108 -6.114
7 CP1 109 -5.625
7 CP1 110 -5.625
7 CP1 111 -6.114
7 CP1 112 -5.625
7 CP1 113 -5.137
7 CP1 114 -3.672
7 CP1 115 -2.696
7 CP1 116 -2.207
7 CP1 117 -2.207
7 CP1 118 -2.207
7 CP1 119 -2.207
7 CP1 120 -1.719
7 CP1 121 -1.231
7 CP1 122 -1.719
7 CP1 123 -2.696
7 CP1 124 -4.161
7 CP1 125 -4.649
7 CP1 126 -4.161
7 CP1 127 -3.672
7 CP1 128 -3.184
7 CP1 129 -3.672
7 CP1 130 -4.649
7 CP1 131 -5.625
7 CP1 132 -5.137
7 CP1 133 -4.161
7 CP1 134 -3.184
7 CP1 135 -2.207
7 CP1 136 -2.207
7 CP1 137 -2.207
7 CP1 138 -2.207
7 CP1 139 -1.719
7 CP1 140 -1.719
7 CP1 141 -1.231
7 CP1 142 -0.743
7 CP1 143 -0.743
7 CP1 144 -0.254
7 CP1 145 -0.743
7 CP1 146 -0.743
7 CP1 147 -1.231
7 CP1 148 -1.719
7 CP1 149 -2.696
7 CP1 150 -2.696
7 CP1 151 -2.696
7 CP1 152 -2.207
7 CP1 153 -2.207
7 CP1 154 -1.719
7 CP1 155 -2.207
7 CP1 156 -2.207
7 CP1 157 -1.719
7 CP1 158 -1.719
7 CP1 159 -1.231
7 CP1 160 -1.231
7 CP1 161 -1.231
7 CP1 162 -1.719
7 CP1 163 -2.207
7 CP1 164 -2.696
7 CP1 165 -1.719
7 CP1 166 -0.254
7 CP1 167 1.211
7 CP1 168 1.211
7 CP1 169 0.234
7 CP1 170 -1.231
7 CP1 171 -2.696
7 CP1 172 -3.184
7 CP1 173 -3.184
7 CP1 174 -2.207
7 CP1 175 -1.231
7 CP1 176 -0.743
7 CP1 177 -0.743
7 CP1 178 -0.254
7 CP1 179 -0.254
7 CP1 180 -0.743
7 CP1 181 -2.207
7 CP1 182 -3.672
7 CP1 183 -4.649
7 CP1 184 -5.625
7 CP1 185 -5.137
7 CP1 186 -4.649
7 CP1 187 -4.161
7 CP1 188 -4.649
7 CP1 189 -5.625
7 CP1 190 -6.602
7 CP1 191 -7.090
7 CP1 192 -6.602
7 CP1 193 -6.114
7 CP1 194 -4.649
7 CP1 195 -4.161
7 CP1 196 -4.161
7 CP1 197 -4.649
7 CP1 198 -5.625
7 CP1 199 -6.602
7 CP1 200 -6.114
7 CP1 201 -5.625
7 CP1 202 -4.161
7 CP1 203 -2.696
7 CP1 204 -2.207
7 CP1 205 -2.696
7 CP1 206 -3.672
7 CP1 207 -4.649
7 CP1 208 -5.625
7 CP1 209 -6.114
7 CP1 210 -5.625
7 CP1 211 -5.137
7 CP1 212 -4.649
7 CP1 213 -4.649
7 CP1 214 -5.137
7 CP1 215 -5.625
7 CP1 216 -5.137
7 CP1 217 -4.161
7 CP1 218 -3.672
7 CP1 219 -3.672
7 CP1 220 -4.649
7 CP1 221 -5.625
7 CP1 222 -6.114
7 CP1 223 -6.114
7 CP1 224 -5.625
7 CP1 225 -4.649
7 CP1 226 -4.161
7 CP1 227 -3.672
7 CP1 228 -3.184
7 CP1 229 -3.184
7 CP1 230 -3.672
7 CP1 231 -3.184
7 CP1 232 -3.672
7 CP1 233 -3.672
7 CP1 234 -4.161
7 CP1 235 -4.649
7 CP1 236 -5.137
7 CP1 237 -5.625
7 CP1 238 -5.625
7 CP1 239 -5.625
7 CP1 240 -6.114
7 CP1 241 -5.625
7 CP1 242 -5.625
7 CP1 243 -5.137
7 CP1 244 -4.161
7 CP1 245 -3.184
7 CP1 246 -2.696
7 CP1 247 -2.696
7 CP1 248 -3.184
7 CP1 249 -3.672
7 CP1 250 -3.672
7 CP1 251 -4.161
7 CP1 252 -3.672
7 CP1 253 -4.161
7 CP1 254 -4.161
7 CP1 255 -5.137
# CP2 chan 21
7 CP2 0 -1.465
7 CP2 1 -0.977
7 CP2 2 -0.977
7 CP2 3 -1.465
7 CP2 4 -1.953
7 CP2 5 -1.953
7 CP2 6 -0.977
7 CP2 7 -0.488
7 CP2 8 0.000
7 CP2 9 0.488
7 CP2 10 0.000
7 CP2 11 -0.488
7 CP2 12 -0.488
7 CP2 13 -0.488
7 CP2 14 -0.488
7 CP2 15 -0.488
7 CP2 16 -0.977
7 CP2 17 -1.465
7 CP2 18 -1.465
7 CP2 19 -1.465
7 CP2 20 -1.953
7 CP2 21 -1.465
7 CP2 22 0.000
7 CP2 23 1.465
7 CP2 24 2.930
7 CP2 25 2.930
7 CP2 26 1.953
7 CP2 27 0.000
7 CP2 28 -0.977
7 CP2 29 -0.977
7 CP2 30 -0.977
7 CP2 31 -0.488
7 CP2 32 -0.977
7 CP2 33 -1.465
7 CP2 34 -1.465
7 CP2 35 -0.977
7 CP2 36 -0.488
7 CP2 37 0.000
7 CP2 38 0.000
7 CP2 39 -0.488
7 CP2 40 -0.977
7 CP2 41 -0.977
7 CP2 42 -0.488
7 CP2 43 -0.977
7 CP2 44 -1.465
7 CP2 45 -2.441
7 CP2 46 -3.418
7 CP2 47 -3.906
7 CP2 48 -3.418
7 CP2 49 -2.930
7 CP2 50 -2.441
7 CP2 51 -1.953
7 CP2 52 -1.953
7 CP2 53 -1.465
7 CP2 54 -0.977
7 CP2 55 -0.977
7 CP2 56 -0.977
7 CP2 57 -0.977
7 CP2 58 -0.488
7 CP2 59 -0.488
7 CP2 60 -0.488
7 CP2 61 -0.488
7 CP2 62 -1.465
7 CP2 63 -1.953
7 CP2 64 -1.953
7 CP2 65 -1.465
7 CP2 66 -0.488
7 CP2 67 0.000
7 CP2 68 -0.488
7 CP2 69 -0.977
7 CP2 70 -0.488
7 CP2 71 0.488
7 CP2 72 1.953
7 CP2 73 3.418
7 CP2 74 3.906
7 CP2 75 3.906
7 CP2 76 3.906
7 CP2 77 3.906
7 CP2 78 3.906
7 CP2 79 3.906
7 CP2 80 2.930
7 CP2 81 1.953
7 CP2 82 1.465
7 CP2 83 0.000
7 CP2 84 -0.977
7 CP2 85 -2.441
7 CP2 86 -3.906
7 CP2 87 -4.883
7 CP2 88 -4.883
7 CP2 89 -4.883
7 CP2 90 -4.395
7 CP2 91 -3.906
7 CP2 92 -4.395
7 CP2 93 -4.883
7 CP2 94 -5.371
7 CP2 95 -5.859
7 CP2 96 -5.371
7 CP2 97 -4.883
7 CP2 98 -4.395
7 CP2 99 -3.906
7 CP2 100 -3.418
7 CP2 101 -2.930
7 CP2 102 -2.441
7 CP2 103 -2.930
7 CP2 104 -2.930
7 CP2 105 -3.418
7 CP2 106 -3.906
7 CP2 107 -4.883
7 CP2 108 -5.371
7 CP2 109 -5.859
7 CP2 110 -5.859
7 CP2 111 -5.371
7 CP2 112 -4.395
7 CP2 113 -3.418
7 CP2 114 -1.953
7 CP2 115 -1.465
7 CP2 116 -0.977
7 CP2 117 -0.977
7 CP2 118 -1.465
7 CP2 119 -1.465
7 CP2 120 -0.977
7 CP2 121 -0.488
7 CP2 122 -0.977
7 CP2 123 -0.977
7 CP2 124 -0.977
7 CP2 125 -0.488
7 CP2 126 0.488
7 CP2 127 0.977
7 CP2 128 0.977
7 CP2 129 0.000
7 CP2 130 -0.977
7 CP2 131 -1.953
7 CP2 132 -1.465
7 CP2 133 -0.977
7 CP2 134 -0.488
7 CP2 135 -0.488
7 CP2 136 -0.488
7 CP2 137 -1.465
7 CP2 138 -1.465
7 CP2 139 -0.977
7 CP2 140 0.000
7 CP2 141 0.977
7 CP2 142 0.488
7 CP2 143 0.488
7 CP2 144 0.488
7 CP2 145 0.000
7 CP2 146 0.000
7 CP2 147 0.000
7 CP2 148 0.000
7 CP2 149 0.000
7 CP2 150 0.000
7 CP2 151 -0.488
7 CP2 152 -0.977
7 CP2 153 -0.977
7 CP2 154 -0.977
7 CP2 155 -0.488
7 CP2 156 -0.488
7 CP2 157 0.000
7 CP2 158 -0.488
7 CP2 159 -1.465
7 CP2 160 -2.930
7 CP2 161 -3.906
7 CP2 162 -3.418
7 CP2 163 -2.930
7 CP2 164 -1.465
7 CP2 165 -0.488
7 CP2 166 0.000
7 CP2 167 0.000
7 CP2 168 -0.488
7 CP2 169 -0.977
7 CP2 170 -0.488
7 CP2 171 0.000
7 CP2 172 0.977
7 CP2 173 1.953
7 CP2 174 1.953
7 CP2 175 1.465
7 CP2 176 0.488
7 CP2 177 0.488
7 CP2 178 0.000
7 CP2 179 0.000
7 CP2 180 0.000
7 CP2 181 -0.488
7 CP2 182 -1.465
7 CP2 183 -2.441
7 CP2 184 -2.930
7 CP2 185 -2.930
7 CP2 186 -2.441
7 CP2 187 -2.441
7 CP2 188 -1.953
7 CP2 189 -1.465
7 CP2 190 -0.977
7 CP2 191 -1.465
7 CP2 192 -1.465
7 CP2 193 -1.953
7 CP2 194 -2.441
7 CP2 195 -2.930
7 CP2 196 -3.418
7 CP2 197 -2.930
7 CP2 198 -2.441
7 CP2 199 -2.441
7 CP2 200 -1.953
7 CP2 201 -1.953
7 CP2 202 -1.953
7 CP2 203 -1.953
7 CP2 204 -2.441
7 CP2 205 -2.441
7 CP2 206 -1.953
7 CP2 207 -1.953
7 CP2 208 -1.465
7 CP2 209 -1.953
7 CP2 210 -1.465
7 CP2 211 -1.953
7 CP2 212 -2.441
7 CP2 213 -2.930
7 CP2 214 -2.930
7 CP2 215 -2.930
7 CP2 216 -2.441
7 CP2 217 -1.953
7 CP2 218 -1.953
7 CP2 219 -1.953
7 CP2 220 -2.441
7 CP2 221 -2.441
7 CP2 222 -2.930
7 CP2 223 -2.930
7 CP2 224 -2.441
7 CP2 225 -1.465
7 CP2 226 -0.488
7 CP2 227 0.488
7 CP2 228 0.977
7 CP2 229 0.488
7 CP2 230 -0.488
7 CP2 231 -1.465
7 CP2 232 -2.441
7 CP2 233 -2.930
7 CP2 234 -3.418
7 CP2 235 -3.906
7 CP2 236 -4.395
7 CP2 237 -4.395
7 CP2 238 -3.906
7 CP2 239 -3.418
7 CP2 240 -3.418
7 CP2 241 -3.418
7 CP2 242 -2.930
7 CP2 243 -2.930
7 CP2 244 -1.953
7 CP2 245 -0.977
7 CP2 246 0.000
7 CP2 247 0.000
7 CP2 248 0.488
7 CP2 249 0.000
7 CP2 250 0.000
7 CP2 251 -0.488
7 CP2 252 -0.977
7 CP2 253 -1.953
7 CP2 254 -2.441
7 CP2 255 -2.930
# P3 chan 22
7 P3 0 -3.906
7 P3 1 -2.441
7 P3 2 -1.465
7 P3 3 -1.465
7 P3 4 -1.465
7 P3 5 -1.465
7 P3 6 -0.977
7 P3 7 0.977
7 P3 8 2.441
7 P3 9 3.418
7 P3 10 2.930
7 P3 11 1.953
7 P3 12 0.977
7 P3 13 0.977
7 P3 14 0.977
7 P3 15 1.953
7 P3 16 2.441
7 P3 17 2.930
7 P3 18 2.441
7 P3 19 1.953
7 P3 20 0.977
7 P3 21 0.488
7 P3 22 0.488
7 P3 23 0.977
7 P3 24 1.465
7 P3 25 0.000
7 P3 26 -1.953
7 P3 27 -3.906
7 P3 28 -5.371
7 P3 29 -5.859
7 P3 30 -5.859
7 P3 31 -5.859
7 P3 32 -6.348
7 P3 33 -5.859
7 P3 34 -4.883
7 P3 35 -3.418
7 P3 36 -2.441
7 P3 37 -2.930
7 P3 38 -4.395
7 P3 39 -5.859
7 P3 40 -5.859
7 P3 41 -4.395
7 P3 42 -2.441
7 P3 43 -1.953
7 P3 44 -2.441
7 P3 45 -4.883
7 P3 46 -7.324
7 P3 47 -8.789
7 P3 48 -9.277
7 P3 49 -8.789
7 P3 50 -7.812
7 P3 51 -7.324
7 P3 52 -6.348
7 P3 53 -5.859
7 P3 54 -5.859
7 P3 55 -6.348
7 P3 56 -6.348
7 P3 57 -6.348
7 P3 58 -5.371
7 P3 59 -4.395
7 P3 60 -3.418
7 P3 61 -3.418
7 P3 62 -4.395
7 P3 63 -5.371
7 P3 64 -5.859
7 P3 65 -5.859
7 P3 66 -5.371
7 P3 67 -5.859
7 P3 68 -7.324
7 P3 69 -8.789
7 P3 70 -8.301
7 P3 71 -6.348
7 P3 72 -3.418
7 P3 73 -1.465
7 P3 74 -0.977
7 P3 75 -2.441
7 P3 76 -3.906
7 P3 77 -4.395
7 P3 78 -3.906
7 P3 79 -3.906
7 P3 80 -4.883
7 P3 81 -6.836
7 P3 82 -9.277
7 P3 83 -10.254
7 P3 84 -11.230
7 P3 85 -11.719
7 P3 86 -12.695
7 P3 87 -14.160
7 P3 88 -15.137
7 P3 89 -15.137
7 P3 90 -14.160
7 P3 91 -13.184
7 P3 92 -12.207
7 P3 93 -12.207
7 P3 94 -11.230
7 P3 95 -10.254
7 P3 96 -8.301
7 P3 97 -6.836
7 P3 98 -4.883
7 P3 99 -3.418
7 P3 100 -2.930
7 P3 101 -3.418
7 P3 102 -5.371
7 P3 103 -8.301
7 P3 104 -11.719
7 P3 105 -14.160
7 P3 106 -14.648
7 P3 107 -14.160
7 P3 108 -13.672
7 P3 109 -13.184
7 P3 110 -13.672
7 P3 111 -12.695
7 P3 112 -11.230
7 P3 113 -8.301
7 P3 114 -5.859
7 P3 115 -4.395
7 P3 116 -4.395
7 P3 117 -4.883
7 P3 118 -5.371
7 P3 119 -4.883
7 P3 120 -4.395
7 P3 121 -4.395
7 P3 122 -5.859
7 P3 123 -7.324
7 P3 124 -8.789
7 P3 125 -9.277
7 P3 126 -8.301
7 P3 127 -8.301
7 P3 128 -8.301
7 P3 129 -9.766
7 P3 130 -11.230
7 P3 131 -11.230
7 P3 132 -9.766
7 P3 133 -7.812
7 P3 134 -6.348
7 P3 135 -5.371
7 P3 136 -5.371
7 P3 137 -4.883
7 P3 138 -4.395
7 P3 139 -4.395
7 P3 140 -3.906
7 P3 141 -3.906
7 P3 142 -3.418
7 P3 143 -3.418
7 P3 144 -2.930
7 P3 145 -3.418
7 P3 146 -3.906
7 P3 147 -4.883
7 P3 148 -4.883
7 P3 149 -4.395
7 P3 150 -3.906
7 P3 151 -2.930
7 P3 152 -3.418
7 P3 153 -4.395
7 P3 154 -5.371
7 P3 155 -6.348
7 P3 156 -6.348
7 P3 157 -5.859
7 P3 158 -5.371
7 P3 159 -5.371
7 P3 160 -5.371
7 P3 161 -5.859
7 P3 162 -5.859
7 P3 163 -5.371
7 P3 164 -4.395
7 P3 165 -2.930
7 P3 166 -1.465
7 P3 167 -0.488
7 P3 168 -0.488
7 P3 169 -1.953
7 P3 170 -4.395
7 P3 171 -6.348
7 P3 172 -6.836
7 P3 173 -5.859
7 P3 174 -4.395
7 P3 175 -3.906
7 P3 176 -3.418
7 P3 177 -3.906
7 P3 178 -3.906
7 P3 179 -3.906
7 P3 180 -4.883
7 P3 181 -6.348
7 P3 182 -8.301
7 P3 183 -9.766
7 P3 184 -10.742
7 P3 185 -10.254
7 P3 186 -9.277
7 P3 187 -9.277
7 P3 188 -9.766
7 P3 189 -10.742
7 P3 190 -11.230
7 P3 191 -10.742
7 P3 192 -9.766
7 P3 193 -8.301
7 P3 194 -6.836
7 P3 195 -5.859
7 P3 196 -5.371
7 P3 197 -6.348
7 P3 198 -8.301
7 P3 199 -9.766
7 P3 200 -10.742
7 P3 201 -9.766
7 P3 202 -7.812
7 P3 203 -5.371
7 P3 204 -4.395
7 P3 205 -5.371
7 P3 206 -8.301
7 P3 207 -10.742
7 P3 208 -12.207
7 P3 209 -12.207
7 P3 210 -11.230
7 P3 211 -10.254
7 P3 212 -10.254
7 P3 213 -10.742
7 P3 214 -11.230
7 P3 215 -10.742
7 P3 216 -9.766
7 P3 217 -8.301
7 P3 218 -7.812
7 P3 219 -8.789
7 P3 220 -10.254
7 P3 221 -12.207
7 P3 222 -13.184
7 P3 223 -12.695
7 P3 224 -11.230
7 P3 225 -8.789
7 P3 226 -6.348
7 P3 227 -5.371
7 P3 228 -4.883
7 P3 229 -4.883
7 P3 230 -5.371
7 P3 231 -5.859
7 P3 232 -6.348
7 P3 233 -7.324
7 P3 234 -8.789
7 P3 235 -10.742
7 P3 236 -12.207
7 P3 237 -12.695
7 P3 238 -12.207
7 P3 239 -12.207
7 P3 240 -11.719
7 P3 241 -11.230
7 P3 242 -10.254
7 P3 243 -9.277
7 P3 244 -7.324
7 P3 245 -5.859
7 P3 246 -5.371
7 P3 247 -5.859
7 P3 248 -6.836
7 P3 249 -7.812
7 P3 250 -8.301
7 P3 251 -9.277
7 P3 252 -10.254
7 P3 253 -11.719
7 P3 254 -12.207
7 P3 255 -13.672
# P4 chan 23
7 P4 0 -1.638
7 P4 1 -1.149
7 P4 2 -1.638
7 P4 3 -2.126
7 P4 4 -2.126
7 P4 5 -1.149
7 P4 6 -0.173
7 P4 7 0.804
7 P4 8 1.292
7 P4 9 1.292
7 P4 10 0.804
7 P4 11 0.804
7 P4 12 0.804
7 P4 13 0.804
7 P4 14 -0.173
7 P4 15 -1.149
7 P4 16 -1.638
7 P4 17 -1.149
7 P4 18 -1.149
7 P4 19 -1.149
7 P4 20 -0.661
7 P4 21 -0.661
7 P4 22 0.804
7 P4 23 2.757
7 P4 24 4.222
7 P4 25 4.222
7 P4 26 3.245
7 P4 27 0.804
7 P4 28 -1.149
7 P4 29 -2.614
7 P4 30 -2.614
7 P4 31 -2.614
7 P4 32 -3.103
7 P4 33 -3.103
7 P4 34 -2.126
7 P4 35 -1.149
7 P4 36 0.315
7 P4 37 0.804
7 P4 38 0.804
7 P4 39 -0.173
7 P4 40 -0.661
7 P4 41 -0.661
7 P4 42 -0.173
7 P4 43 -0.173
7 P4 44 -1.149
7 P4 45 -3.103
7 P4 46 -5.056
7 P4 47 -6.032
7 P4 48 -6.032
7 P4 49 -5.056
7 P4 50 -4.079
7 P4 51 -3.103
7 P4 52 -3.103
7 P4 53 -3.591
7 P4 54 -3.591
7 P4 55 -3.591
7 P4 56 -3.103
7 P4 57 -2.614
7 P4 58 -2.614
7 P4 59 -2.614
7 P4 60 -3.103
7 P4 61 -4.079
7 P4 62 -5.056
7 P4 63 -6.521
7 P4 64 -6.521
7 P4 65 -5.544
7 P4 66 -4.567
7 P4 67 -3.591
7 P4 68 -4.079
7 P4 69 -3.591
7 P4 70 -3.103
7 P4 71 -0.661
7 P4 72 2.268
7 P4 73 4.222
7 P4 74 5.198
7 P4 75 4.222
7 P4 76 3.245
7 P4 77 3.733
7 P4 78 4.710
7 P4 79 5.198
7 P4 80 4.710
7 P4 81 2.268
7 P4 82 -0.173
7 P4 83 -3.103
7 P4 84 -5.056
7 P4 85 -7.009
7 P4 86 -8.474
7 P4 87 -9.939
7 P4 88 -10.915
7 P4 89 -11.403
7 P4 90 -10.915
7 P4 91 -9.939
7 P4 92 -9.939
7 P4 93 -10.427
7 P4 94 -11.403
7 P4 95 -11.892
7 P4 96 -11.403
7 P4 97 -10.915
7 P4 98 -8.962
7 P4 99 -7.497
7 P4 100 -7.009
7 P4 101 -7.009
7 P4 102 -7.985
7 P4 103 -8.474
7 P4 104 -9.450
7 P4 105 -9.450
7 P4 106 -9.939
7 P4 107 -10.915
7 P4 108 -11.892
7 P4 109 -12.380
7 P4 110 -12.380
7 P4 111 -10.915
7 P4 112 -8.962
7 P4 113 -6.521
7 P4 114 -5.056
7 P4 115 -4.567
7 P4 116 -4.079
7 P4 117 -3.591
7 P4 118 -2.614
7 P4 119 -2.126
7 P4 120 -2.614
7 P4 121 -3.103
7 P4 122 -4.079
7 P4 123 -4.567
7 P4 124 -4.567
7 P4 125 -4.079
7 P4 126 -3.591
7 P4 127 -3.591
7 P4 128 -4.567
7 P4 129 -5.544
7 P4 130 -6.521
7 P4 131 -7.009
7 P4 132 -6.521
7 P4 133 -5.056
7 P4 134 -3.103
7 P4 135 -1.638
7 P4 136 -1.638
7 P4 137 -2.614
7 P4 138 -3.591
7 P4 139 -4.079
7 P4 140 -3.591
7 P4 141 -2.614
7 P4 142 -1.638
7 P4 143 -1.149
7 P4 144 -2.126
7 P4 145 -2.614
7 P4 146 -3.591
7 P4 147 -3.591
7 P4 148 -3.103
7 P4 149 -2.614
7 P4 150 -2.126
7 P4 151 -2.126
7 P4 152 -2.614
7 P4 153 -3.103
7 P4 154 -4.079
7 P4 155 -4.567
7 P4 156 -4.567
7 P4 157 -4.567
7 P4 158 -5.056
7 P4 159 -7.009
7 P4 160 -8.962
7 P4 161 -10.427
7 P4 162 -10.427
7 P4 163 -8.474
7 P4 164 -5.056
7 P4 165 -2.126
7 P4 166 -1.149
7 P4 167 -1.149
7 P4 168 -2.126
7 P4 169 -3.103
7 P4 170 -2.614
7 P4 171 -2.126
7 P4 172 -1.149
7 P4 173 -0.661
7 P4 174 -1.149
7 P4 175 -1.638
7 P4 176 -2.614
7 P4 177 -2.614
7 P4 178 -2.614
7 P4 179 -3.103
7 P4 180 -3.591
7 P4 181 -5.544
7 P4 182 -7.497
7 P4 183 -8.962
7 P4 184 -9.450
7 P4 185 -9.450
7 P4 186 -7.985
7 P4 187 -6.521
7 P4 188 -6.032
7 P4 189 -5.056
7 P4 190 -4.567
7 P4 191 -4.567
7 P4 192 -4.567
7 P4 193 -5.544
7 P4 194 -7.009
7 P4 195 -7.497
7 P4 196 -7.497
7 P4 197 -6.032
7 P4 198 -4.567
7 P4 199 -4.567
7 P4 200 -5.056
7 P4 201 -5.544
7 P4 202 -5.544
7 P4 203 -5.544
7 P4 204 -5.056
7 P4 205 -5.544
7 P4 206 -6.032
7 P4 207 -6.521
7 P4 208 -6.521
7 P4 209 -5.544
7 P4 210 -4.567
7 P4 211 -4.567
7 P4 212 -6.032
7 P4 213 -7.497
7 P4 214 -8.474
7 P4 215 -7.497
7 P4 216 -6.521
7 P4 217 -5.056
7 P4 218 -5.056
7 P4 219 -5.056
7 P4 220 -6.032
7 P4 221 -6.521
7 P4 222 -7.497
7 P4 223 -7.497
7 P4 224 -7.009
7 P4 225 -5.544
7 P4 226 -3.103
7 P4 227 -0.661
7 P4 228 0.804
7 P4 229 0.804
7 P4 230 -0.661
7 P4 231 -2.614
7 P4 232 -3.591
7 P4 233 -4.567
7 P4 234 -5.544
7 P4 235 -7.497
7 P4 236 -8.962
7 P4 237 -9.450
7 P4 238 -9.450
7 P4 239 -7.985
7 P4 240 -6.521
7 P4 241 -5.544
7 P4 242 -4.567
7 P4 243 -3.103
7 P4 244 -1.638
7 P4 245 -0.173
7 P4 246 -0.661
7 P4 247 -1.149
7 P4 248 -2.614
7 P4 249 -3.591
7 P4 250 -4.567
7 P4 251 -5.056
7 P4 252 -5.544
7 P4 253 -7.009
7 P4 254 -7.497
7 P4 255 -7.497
# PZ chan 24
7 PZ 0 -2.991
7 PZ 1 -1.526
7 PZ 2 -1.038
7 PZ 3 -1.526
7 PZ 4 -1.526
7 PZ 5 -1.526
7 PZ 6 -1.038
7 PZ 7 -0.061
7 PZ 8 0.916
7 PZ 9 1.404
7 PZ 10 0.916
7 PZ 11 0.427
7 PZ 12 0.427
7 PZ 13 0.427
7 PZ 14 0.427
7 PZ 15 -0.061
7 PZ 16 -0.549
7 PZ 17 -1.038
7 PZ 18 -1.526
7 PZ 19 -1.526
7 PZ 20 -1.038
7 PZ 21 -0.549
7 PZ 22 0.427
7 PZ 23 1.404
7 PZ 24 1.892
7 PZ 25 1.404
7 PZ 26 -0.061
7 PZ 27 -1.526
7 PZ 28 -2.991
7 PZ 29 -3.479
7 PZ 30 -3.479
7 PZ 31 -3.479
7 PZ 32 -3.479
7 PZ 33 -3.479
7 PZ 34 -2.991
7 PZ 35 -2.502
7 PZ 36 -2.014
7 PZ 37 -1.526
7 PZ 38 -2.014
7 PZ 39 -2.991
7 PZ 40 -3.479
7 PZ 41 -2.991
7 PZ 42 -2.014
7 PZ 43 -1.526
7 PZ 44 -2.014
7 PZ 45 -3.967
7 PZ 46 -5.920
7 PZ 47 -7.385
7 PZ 48 -7.874
7 PZ 49 -7.385
7 PZ 50 -6.409
7 PZ 51 -5.432
7 PZ 52 -3.967
7 PZ 53 -3.967
7 PZ 54 -3.967
7 PZ 55 -4.456
7 PZ 56 -4.944
7 PZ 57 -4.944
7 PZ 58 -4.456
7 PZ 59 -3.479
7 PZ 60 -2.991
7 PZ 61 -3.479
7 PZ 62 -4.456
7 PZ 63 -5.432
7 PZ 64 -5.920
7 PZ 65 -5.432
7 PZ 66 -4.456
7 PZ 67 -3.967
7 PZ 68 -3.967
7 PZ 69 -4.456
7 PZ 70 -3.967
7 PZ 71 -2.991
7 PZ 72 -0.549
7 PZ 73 1.404
7 PZ 74 1.892
7 PZ 75 0.916
7 PZ 76 -0.061
7 PZ 77 -1.526
7 PZ 78 -1.038
7 PZ 79 -1.038
7 PZ 80 -1.038
7 PZ 81 -2.502
7 PZ 82 -4.456
7 PZ 83 -6.409
7 PZ 84 -7.385
7 PZ 85 -8.362
7 PZ 86 -8.850
7 PZ 87 -9.827
7 PZ 88 -10.803
7 PZ 89 -11.292
7 PZ 90 -11.292
7 PZ 91 -10.315
7 PZ 92 -9.827
7 PZ 93 -9.827
7 PZ 94 -9.827
7 PZ 95 -10.315
7 PZ 96 -9.827
7 PZ 97 -8.362
7 PZ 98 -6.409
7 PZ 99 -5.432
7 PZ 100 -4.456
7 PZ 101 -4.944
7 PZ 102 -5.920
7 PZ 103 -6.897
7 PZ 104 -8.362
7 PZ 105 -9.827
7 PZ 106 -10.315
7 PZ 107 -11.780
7 PZ 108 -12.268
7 PZ 109 -12.268
7 PZ 110 -11.780
7 PZ 111 -10.803
7 PZ 112 -9.338
7 PZ 113 -6.897
7 PZ 114 -5.432
7 PZ 115 -4.944
7 PZ 116 -5.432
7 PZ 117 -5.920
7 PZ 118 -5.920
7 PZ 119 -5.432
7 PZ 120 -4.944
7 PZ 121 -4.456
7 PZ 122 -4.944
7 PZ 123 -5.920
7 PZ 124 -6.897
7 PZ 125 -6.897
7 PZ 126 -5.920
7 PZ 127 -4.944
7 PZ 128 -4.944
7 PZ 129 -4.944
7 PZ 130 -5.920
7 PZ 131 -6.409
7 PZ 132 -6.409
7 PZ 133 -5.432
7 PZ 134 -4.456
7 PZ 135 -3.479
7 PZ 136 -2.991
7 PZ 137 -3.479
7 PZ 138 -3.967
7 PZ 139 -3.967
7 PZ 140 -3.967
7 PZ 141 -3.479
7 PZ 142 -2.991
7 PZ 143 -2.991
7 PZ 144 -3.479
7 PZ 145 -3.967
7 PZ 146 -4.456
7 PZ 147 -4.944
7 PZ 148 -5.432
7 PZ 149 -5.432
7 PZ 150 -4.944
7 PZ 151 -4.456
7 PZ 152 -4.456
7 PZ 153 -4.456
7 PZ 154 -4.944
7 PZ 155 -4.944
7 PZ 156 -4.944
7 PZ 157 -4.944
7 PZ 158 -4.944
7 PZ 159 -5.920
7 PZ 160 -6.897
7 PZ 161 -7.874
7 PZ 162 -8.362
7 PZ 163 -7.874
7 PZ 164 -6.409
7 PZ 165 -4.456
7 PZ 166 -3.479
7 PZ 167 -2.991
7 PZ 168 -3.479
7 PZ 169 -4.456
7 PZ 170 -4.944
7 PZ 171 -4.944
7 PZ 172 -4.456
7 PZ 173 -3.967
7 PZ 174 -2.991
7 PZ 175 -2.991
7 PZ 176 -3.967
7 PZ 177 -4.456
7 PZ 178 -4.944
7 PZ 179 -5.432
7 PZ 180 -5.920
7 PZ 181 -7.385
7 PZ 182 -8.850
7 PZ 183 -10.315
7 PZ 184 -11.292
7 PZ 185 -11.292
7 PZ 186 -10.803
7 PZ 187 -10.315
7 PZ 188 -10.315
7 PZ 189 -10.315
7 PZ 190 -9.827
7 PZ 191 -9.827
7 PZ 192 -9.827
7 PZ 193 -9.338
7 PZ 194 -9.338
7 PZ 195 -9.338
7 PZ 196 -8.850
7 PZ 197 -8.850
7 PZ 198 -8.850
7 PZ 199 -9.827
7 PZ 200 -10.315
7 PZ 201 -10.315
7 PZ 202 -9.338
7 PZ 203 -7.874
7 PZ 204 -7.874
7 PZ 205 -7.874
7 PZ 206 -8.850
7 PZ 207 -9.827
7 PZ 208 -9.827
7 PZ 209 -9.827
7 PZ 210 -8.850
7 PZ 211 -8.362
7 PZ 212 -8.850
7 PZ 213 -9.338
7 PZ 214 -10.315
7 PZ 215 -10.803
7 PZ 216 -10.315
7 PZ 217 -9.338
7 PZ 218 -8.850
7 PZ 219 -9.338
7 PZ 220 -10.315
7 PZ 221 -11.292
7 PZ 222 -11.780
7 PZ 223 -11.292
7 PZ 224 -9.827
7 PZ 225 -7.874
7 PZ 226 -5.920
7 PZ 227 -3.967
7 PZ 228 -2.991
7 PZ 229 -2.991
7 PZ 230 -3.967
7 PZ 231 -4.944
7 PZ 232 -6.409
7 PZ 233 -7.385
7 PZ 234 -8.850
7 PZ 235 -9.827
7 PZ 236 -10.803
7 PZ 237 -11.292
7 PZ 238 -11.292
7 PZ 239 -10.315
7 PZ 240 -9.827
7 PZ 241 -9.338
7 PZ 242 -8.850
7 PZ 243 -7.874
7 PZ 244 -6.897
7 PZ 245 -5.920
7 PZ 246 -4.944
7 PZ 247 -4.456
7 PZ 248 -4.944
7 PZ 249 -4.944
7 PZ 250 -5.432
7 PZ 251 -5.432
7 PZ 252 -5.920
7 PZ 253 -6.897
7 PZ 254 -8.362
7 PZ 255 -9.827
# P8 chan 25
7 P8 0 2.747
7 P8 1 2.258
7 P8 2 1.770
7 P8 3 1.282
7 P8 4 0.793
7 P8 5 0.305
7 P8 6 -0.183
7 P8 7 -1.160
7 P8 8 -1.648
7 P8 9 -1.648
7 P8 10 -1.648
7 P8 11 -2.625
7 P8 12 -4.089
7 P8 13 -5.066
7 P8 14 -6.042
7 P8 15 -6.531
7 P8 16 -6.531
7 P8 17 -5.554
7 P8 18 -4.578
7 P8 19 -4.089
7 P8 20 -3.113
7 P8 21 -1.648
7 P8 22 -0.183
7 P8 23 0.305
7 P8 24 0.793
7 P8 25 0.793
7 P8 26 -0.183
7 P8 27 -0.671
7 P8 28 -1.160
7 P8 29 -2.136
7 P8 30 -3.113
7 P8 31 -4.578
7 P8 32 -5.554
7 P8 33 -5.554
7 P8 34 -4.089
7 P8 35 -2.625
7 P8 36 -1.160
7 P8 37 -0.671
7 P8 38 -1.160
7 P8 39 -2.136
7 P8 40 -2.625
7 P8 41 -2.625
7 P8 42 -1.160
7 P8 43 -0.671
7 P8 44 -0.671
7 P8 45 -2.136
7 P8 46 -4.089
7 P8 47 -5.554
7 P8 48 -6.042
7 P8 49 -5.066
7 P8 50 -3.601
7 P8 51 -1.648
7 P8 52 -0.671
7 P8 53 -1.160
7 P8 54 -2.625
7 P8 55 -4.089
7 P8 56 -5.066
7 P8 57 -5.066
7 P8 58 -4.578
7 P8 59 -4.578
7 P8 60 -5.554
7 P8 61 -7.507
7 P8 62 -9.949
7 P8 63 -12.390
7 P8 64 -13.367
7 P8 65 -13.367
7 P8 66 -12.878
7 P8 67 -11.902
7 P8 68 -11.902
7 P8 69 -11.414
7 P8 70 -9.460
7 P8 71 -6.042
7 P8 72 -3.113
7 P8 73 -0.183
7 P8 74 0.305
7 P8 75 -0.183
7 P8 76 -0.671
7 P8 77 -0.183
7 P8 78 1.282
7 P8 79 2.747
7 P8 80 2.747
7 P8 81 0.793
7 P8 82 -2.625
7 P8 83 -6.531
7 P8 84 -9.460
7 P8 85 -12.878
7 P8 86 -15.320
7 P8 87 -17.761
7 P8 88 -18.250
7 P8 89 -18.250
7 P8 90 -17.273
7 P8 91 -15.808
7 P8 92 -15.320
7 P8 93 -15.320
7 P8 94 -15.808
7 P8 95 -15.808
7 P8 96 -15.808
7 P8 97 -14.832
7 P8 98 -14.343
7 P8 99 -13.855
7 P8 100 -13.855
7 P8 101 -13.855
7 P8 102 -13.855
7 P8 103 -13.855
7 P8 104 -13.855
7 P8 105 -13.367
7 P8 106 -13.367
7 P8 107 -13.855
7 P8 108 -14.832
7 P8 109 -15.808
7 P8 110 -16.785
7 P8 111 -15.320
7 P8 112 -13.367
7 P8 113 -10.437
7 P8 114 -7.996
7 P8 115 -7.019
7 P8 116 -7.019
7 P8 117 -7.996
7 P8 118 -7.996
7 P8 119 -7.507
7 P8 120 -7.507
7 P8 121 -7.507
7 P8 122 -8.484
7 P8 123 -9.460
7 P8 124 -9.460
7 P8 125 -8.484
7 P8 126 -7.507
7 P8 127 -7.507
7 P8 128 -8.484
7 P8 129 -9.949
7 P8 130 -11.902
7 P8 131 -12.878
7 P8 132 -12.878
7 P8 133 -11.414
7 P8 134 -9.949
7 P8 135 -8.484
7 P8 136 -7.507
7 P8 137 -7.019
7 P8 138 -7.507
7 P8 139 -8.484
7 P8 140 -8.972
7 P8 141 -8.484
7 P8 142 -7.019
7 P8 143 -6.042
7 P8 144 -6.042
7 P8 145 -7.019
7 P8 146 -8.484
7 P8 147 -9.949
7 P8 148 -9.460
7 P8 149 -7.996
7 P8 150 -6.042
7 P8 151 -5.554
7 P8 152 -6.042
7 P8 153 -8.972
7 P8 154 -11.902
7 P8 155 -13.855
7 P8 156 -14.343
7 P8 157 -13.855
7 P8 158 -13.367
7 P8 159 -14.343
7 P8 160 -16.296
7 P8 161 -17.761
7 P8 162 -17.761
7 P8 163 -15.808
7 P8 164 -11.902
7 P8 165 -7.996
7 P8 166 -5.554
7 P8 167 -4.578
7 P8 168 -5.066
7 P8 169 -5.554
7 P8 170 -5.554
7 P8 171 -5.066
7 P8 172 -3.601
7 P8 173 -3.113
7 P8 174 -3.601
7 P8 175 -5.066
7 P8 176 -6.531
7 P8 177 -7.996
7 P8 178 -8.484
7 P8 179 -8.972
7 P8 180 -9.949
7 P8 181 -11.902
7 P8 182 -13.367
7 P8 183 -13.367
7 P8 184 -11.414
7 P8 185 -9.460
7 P8 186 -7.019
7 P8 187 -6.042
7 P8 188 -6.531
7 P8 189 -7.507
7 P8 190 -7.507
7 P8 191 -7.996
7 P8 192 -7.996
7 P8 193 -9.460
7 P8 194 -11.414
7 P8 195 -12.878
7 P8 196 -13.367
7 P8 197 -12.390
7 P8 198 -11.414
7 P8 199 -10.437
7 P8 200 -9.949
7 P8 201 -9.949
7 P8 202 -10.437
7 P8 203 -10.925
7 P8 204 -11.902
7 P8 205 -12.878
7 P8 206 -13.855
7 P8 207 -13.855
7 P8 208 -12.390
7 P8 209 -10.437
7 P8 210 -8.484
7 P8 211 -8.484
7 P8 212 -10.437
7 P8 213 -13.367
7 P8 214 -14.832
7 P8 215 -14.832
7 P8 216 -12.878
7 P8 217 -10.437
7 P8 218 -8.972
7 P8 219 -8.972
7 P8 220 -9.949
7 P8 221 -11.902
7 P8 222 -12.878
7 P8 223 -13.855
7 P8 224 -12.878
7 P8 225 -10.925
7 P8 226 -7.996
7 P8 227 -4.578
7 P8 228 -2.136
7 P8 229 -1.160
7 P8 230 -2.136
7 P8 231 -4.089
7 P8 232 -5.554
7 P8 233 -7.019
7 P8 234 -8.484
7 P8 235 -10.437
7 P8 236 -12.878
7 P8 237 -14.343
7 P8 238 -14.343
7 P8 239 -12.878
7 P8 240 -9.949
7 P8 241 -7.996
7 P8 242 -6.531
7 P8 243 -5.554
7 P8 244 -4.578
7 P8 245 -3.601
7 P8 246 -3.113
7 P8 247 -3.601
7 P8 248 -5.066
7 P8 249 -7.996
7 P8 250 -9.949
7 P8 251 -11.414
7 P8 252 -11.414
7 P8 253 -10.925
7 P8 254 -11.414
7 P8 255 -12.390
# P7 chan 26
7 P7 0 0.732
7 P7 1 1.709
7 P7 2 2.686
7 P7 3 2.686
7 P7 4 2.197
7 P7 5 2.197
7 P7 6 2.686
7 P7 7 3.174
7 P7 8 4.150
7 P7 9 4.639
7 P7 10 4.150
7 P7 11 3.662
7 P7 12 2.686
7 P7 13 2.197
7 P7 14 2.197
7 P7 15 2.686
7 P7 16 3.174
7 P7 17 4.150
7 P7 18 4.639
7 P7 19 4.639
7 P7 20 4.639
7 P7 21 4.150
7 P7 22 4.150
7 P7 23 4.150
7 P7 24 3.662
7 P7 25 2.197
7 P7 26 0.244
7 P7 27 -1.221
7 P7 28 -2.686
7 P7 29 -2.686
7 P7 30 -3.174
7 P7 31 -3.662
7 P7 32 -3.662
7 P7 33 -4.150
7 P7 34 -3.174
7 P7 35 -2.686
7 P7 36 -1.709
7 P7 37 -2.197
7 P7 38 -3.174
7 P7 39 -4.150
7 P7 40 -4.639
7 P7 41 -3.662
7 P7 42 -2.197
7 P7 43 -0.732
7 P7 44 -0.732
7 P7 45 -2.686
7 P7 46 -5.127
7 P7 47 -7.080
7 P7 48 -7.080
7 P7 49 -6.104
7 P7 50 -4.150
7 P7 51 -3.174
7 P7 52 -2.686
7 P7 53 -3.662
7 P7 54 -4.150
7 P7 55 -4.639
7 P7 56 -3.662
7 P7 57 -2.686
7 P7 58 -1.709
7 P7 59 -1.221
7 P7 60 -1.709
7 P7 61 -2.686
7 P7 62 -4.150
7 P7 63 -5.127
7 P7 64 -5.615
7 P7 65 -5.615
7 P7 66 -4.639
7 P7 67 -4.639
7 P7 68 -5.127
7 P7 69 -6.104
7 P7 70 -6.104
7 P7 71 -4.150
7 P7 72 -1.221
7 P7 73 1.221
7 P7 74 3.174
7 P7 75 3.174
7 P7 76 2.686
7 P7 77 1.709
7 P7 78 1.221
7 P7 79 0.732
7 P7 80 -0.732
7 P7 81 -3.174
7 P7 82 -5.615
7 P7 83 -7.568
7 P7 84 -8.545
7 P7 85 -9.521
7 P7 86 -10.498
7 P7 87 -11.963
7 P7 88 -12.451
7 P7 89 -11.963
7 P7 90 -10.986
7 P7 91 -9.521
7 P7 92 -8.057
7 P7 93 -7.568
7 P7 94 -6.592
7 P7 95 -5.615
7 P7 96 -3.174
7 P7 97 -0.732
7 P7 98 2.197
7 P7 99 4.639
7 P7 100 6.104
7 P7 101 5.615
7 P7 102 2.686
7 P7 103 -2.197
7 P7 104 -7.568
7 P7 105 -10.986
7 P7 106 -12.451
7 P7 107 -11.475
7 P7 108 -9.521
7 P7 109 -7.568
7 P7 110 -6.104
7 P7 111 -4.639
7 P7 112 -2.686
7 P7 113 -0.732
7 P7 114 1.221
7 P7 115 2.686
7 P7 116 3.174
7 P7 117 3.174
7 P7 118 3.174
7 P7 119 3.174
7 P7 120 2.686
7 P7 121 0.732
7 P7 122 -2.686
7 P7 123 -5.127
7 P7 124 -6.592
7 P7 125 -6.592
7 P7 126 -5.127
7 P7 127 -4.639
7 P7 128 -6.592
7 P7 129 -9.521
7 P7 130 -11.963
7 P7 131 -12.451
7 P7 132 -10.498
7 P7 133 -7.080
7 P7 134 -4.150
7 P7 135 -2.686
7 P7 136 -1.709
7 P7 137 -1.221
7 P7 138 -0.244
7 P7 139 0.244
7 P7 140 0.732
7 P7 141 0.244
7 P7 142 -0.244
7 P7 143 -0.732
7 P7 144 -1.221
7 P7 145 -1.221
7 P7 146 -1.221
7 P7 147 -1.221
7 P7 148 -0.732
7 P7 149 -0.244
7 P7 150 -0.244
7 P7 151 -0.732
7 P7 152 -2.197
7 P7 153 -3.662
7 P7 154 -5.615
7 P7 155 -6.592
7 P7 156 -6.104
7 P7 157 -5.615
7 P7 158 -4.639
7 P7 159 -4.639
7 P7 160 -4.150
7 P7 161 -4.639
7 P7 162 -4.639
7 P7 163 -3.662
7 P7 164 -2.686
7 P7 165 -0.244
7 P7 166 1.709
7 P7 167 3.662
7 P7 168 3.662
7 P7 169 2.197
7 P7 170 -0.732
7 P7 171 -3.174
7 P7 172 -4.150
7 P7 173 -2.686
7 P7 174 -0.244
7 P7 175 1.709
7 P7 176 1.709
7 P7 177 1.221
7 P7 178 -0.244
7 P7 179 -2.197
7 P7 180 -3.174
7 P7 181 -4.150
7 P7 182 -5.127
7 P7 183 -6.104
7 P7 184 -6.104
7 P7 185 -5.615
7 P7 186 -4.639
7 P7 187 -4.639
7 P7 188 -5.127
7 P7 189 -6.104
7 P7 190 -7.080
7 P7 191 -8.057
7 P7 192 -8.057
7 P7 193 -7.080
7 P7 194 -5.615
7 P7 195 -4.150
7 P7 196 -2.686
7 P7 197 -2.197
7 P7 198 -2.686
7 P7 199 -3.662
7 P7 200 -4.639
7 P7 201 -4.639
7 P7 202 -3.662
7 P7 203 -2.197
7 P7 204 -1.221
7 P7 205 -2.197
7 P7 206 -5.127
7 P7 207 -8.545
7 P7 208 -10.986
7 P7 209 -11.475
7 P7 210 -10.010
7 P7 211 -7.568
7 P7 212 -6.592
7 P7 213 -6.592
7 P7 214 -7.568
7 P7 215 -8.057
7 P7 216 -7.080
7 P7 217 -5.615
7 P7 218 -4.639
7 P7 219 -5.127
7 P7 220 -6.592
7 P7 221 -9.521
7 P7 222 -11.963
7 P7 223 -11.963
7 P7 224 -10.010
7 P7 225 -6.592
7 P7 226 -2.686
7 P7 227 0.244
7 P7 228 0.244
7 P7 229 0.244
7 P7 230 -0.244
7 P7 231 -0.244
7 P7 232 0.732
7 P7 233 1.221
7 P7 234 -0.244
7 P7 235 -3.662
7 P7 236 -7.080
7 P7 237 -9.033
7 P7 238 -9.033
7 P7 239 -7.568
7 P7 240 -5.615
7 P7 241 -4.150
7 P7 242 -2.686
7 P7 243 -1.709
7 P7 244 -0.732
7 P7 245 0.244
7 P7 246 0.732
7 P7 247 -0.244
7 P7 248 -1.709
7 P7 249 -3.174
7 P7 250 -4.150
7 P7 251 -5.127
7 P7 252 -6.104
7 P7 253 -7.080
7 P7 254 -8.057
7 P7 255 -10.010
# PO2 chan 27
7 PO2 0 0.946
7 PO2 1 0.946
7 PO2 2 0.946
7 PO2 3 0.458
7 PO2 4 -0.031
7 PO2 5 0.458
7 PO2 6 1.434
7 PO2 7 2.411
7 PO2 8 2.899
7 PO2 9 3.387
7 PO2 10 3.876
7 PO2 11 3.876
7 PO2 12 3.387
7 PO2 13 2.899
7 PO2 14 2.411
7 PO2 15 2.411
7 PO2 16 1.923
7 PO2 17 1.923
7 PO2 18 2.411
7 PO2 19 2.899
7 PO2 20 2.899
7 PO2 21 3.387
7 PO2 22 3.876
7 PO2 23 4.852
7 PO2 24 5.341
7 PO2 25 5.341
7 PO2 26 4.852
7 PO2 27 3.387
7 PO2 28 2.411
7 PO2 29 0.946
7 PO2 30 -0.519
7 PO2 31 -1.984
7 PO2 32 -2.960
7 PO2 33 -2.960
7 PO2 34 -1.984
7 PO2 35 -0.519
7 PO2 36 0.946
7 PO2 37 0.946
7 PO2 38 -0.031
7 PO2 39 -1.495
7 PO2 40 -1.984
7 PO2 41 -1.007
7 PO2 42 -0.031
7 PO2 43 0.946
7 PO2 44 0.458
7 PO2 45 -1.495
7 PO2 46 -3.448
7 PO2 47 -5.402
7 PO2 48 -5.402
7 PO2 49 -4.425
7 PO2 50 -2.960
7 PO2 51 -1.495
7 PO2 52 -0.519
7 PO2 53 -0.519
7 PO2 54 -0.519
7 PO2 55 -1.007
7 PO2 56 -1.495
7 PO2 57 -1.007
7 PO2 58 -0.519
7 PO2 59 -0.031
7 PO2 60 -0.519
7 PO2 61 -1.007
7 PO2 62 -2.472
7 PO2 63 -3.937
7 PO2 64 -4.425
7 PO2 65 -4.425
7 PO2 66 -3.937
7 PO2 67 -3.448
7 PO2 68 -2.960
7 PO2 69 -2.472
7 PO2 70 -1.007
7 PO2 71 1.923
7 PO2 72 4.364
7 PO2 73 6.805
7 PO2 74 7.294
7 PO2 75 5.829
7 PO2 76 4.852
7 PO2 77 3.876
7 PO2 78 4.364
7 PO2 79 5.341
7 PO2 80 4.852
7 PO2 81 3.387
7 PO2 82 0.458
7 PO2 83 -2.472
7 PO2 84 -4.913
7 PO2 85 -7.355
7 PO2 86 -9.308
7 PO2 87 -10.773
7 PO2 88 -11.749
7 PO2 89 -11.749
7 PO2 90 -11.261
7 PO2 91 -10.773
7 PO2 92 -10.284
7 PO2 93 -10.773
7 PO2 94 -11.261
7 PO2 95 -11.261
7 PO2 96 -10.284
7 PO2 97 -8.331
7 PO2 98 -5.890
7 PO2 99 -3.937
7 PO2 100 -2.960
7 PO2 101 -2.472
7 PO2 102 -3.448
7 PO2 103 -4.913
7 PO2 104 -6.866
7 PO2 105 -8.331
7 PO2 106 -8.331
7 PO2 107 -8.820
7 PO2 108 -9.308
7 PO2 109 -9.796
7 PO2 110 -9.796
7 PO2 111 -8.820
7 PO2 112 -6.378
7 PO2 113 -3.448
7 PO2 114 -1.007
7 PO2 115 -0.519
7 PO2 116 -1.007
7 PO2 117 -1.007
7 PO2 118 -0.519
7 PO2 119 0.458
7 PO2 120 1.434
7 PO2 121 1.923
7 PO2 122 0.458
7 PO2 123 -1.007
7 PO2 124 -2.472
7 PO2 125 -1.984
7 PO2 126 -1.007
7 PO2 127 -0.031
7 PO2 128 -0.031
7 PO2 129 -0.519
7 PO2 130 -1.495
7 PO2 131 -1.495
7 PO2 132 -1.007
7 PO2 133 0.458
7 PO2 134 1.923
7 PO2 135 2.899
7 PO2 136 3.387
7 PO2 137 2.899
7 PO2 138 1.923
7 PO2 139 1.434
7 PO2 140 0.946
7 PO2 141 0.946
7 PO2 142 1.434
7 PO2 143 1.923
7 PO2 144 1.923
7 PO2 145 1.434
7 PO2 146 0.458
7 PO2 147 -0.031
7 PO2 148 0.458
7 PO2 149 1.923
7 PO2 150 3.876
7 PO2 151 4.852
7 PO2 152 4.852
7 PO2 153 3.876
7 PO2 154 3.387
7 PO2 155 2.899
7 PO2 156 3.387
7 PO2 157 2.899
7 PO2 158 1.923
7 PO2 159 -0.519
7 PO2 160 -2.472
7 PO2 161 -3.937
7 PO2 162 -3.937
7 PO2 163 -1.495
7 PO2 164 1.434
7 PO2 165 4.852
7 PO2 166 7.294
7 PO2 167 8.270
7 PO2 168 7.782
7 PO2 169 6.805
7 PO2 170 6.317
7 PO2 171 6.317
7 PO2 172 7.782
7 PO2 173 8.759
7 PO2 174 9.247
7 PO2 175 8.270
7 PO2 176 6.805
7 PO2 177 5.829
7 PO2 178 5.341
7 PO2 179 5.341
7 PO2 180 3.876
7 PO2 181 1.434
7 PO2 182 -1.495
7 PO2 183 -3.448
7 PO2 184 -3.448
7 PO2 185 -2.472
7 PO2 186 -0.519
7 PO2 187 0.946
7 PO2 188 0.946
7 PO2 189 -0.031
7 PO2 190 -0.519
7 PO2 191 -0.519
7 PO2 192 0.458
7 PO2 193 0.458
7 PO2 194 0.458
7 PO2 195 0.458
7 PO2 196 0.458
7 PO2 197 0.458
7 PO2 198 0.946
7 PO2 199 0.458
7 PO2 200 0.458
7 PO2 201 0.458
7 PO2 202 0.458
7 PO2 203 0.946
7 PO2 204 1.434
7 PO2 205 0.946
7 PO2 206 -0.031
7 PO2 207 -1.007
7 PO2 208 -0.519
7 PO2 209 0.458
7 PO2 210 2.411
7 PO2 211 3.387
7 PO2 212 2.899
7 PO2 213 0.946
7 PO2 214 -1.007
7 PO2 215 -1.495
7 PO2 216 -0.519
7 PO2 217 0.946
7 PO2 218 1.434
7 PO2 219 0.946
7 PO2 220 -1.007
7 PO2 221 -2.960
7 PO2 222 -3.448
7 PO2 223 -2.960
7 PO2 224 -1.007
7 PO2 225 2.411
7 PO2 226 5.829
7 PO2 227 8.759
7 PO2 228 10.712
7 PO2 229 11.688
7 PO2 230 11.200
7 PO2 231 10.223
7 PO2 232 8.759
7 PO2 233 7.294
7 PO2 234 4.852
7 PO2 235 1.923
7 PO2 236 -0.519
7 PO2 237 -1.495
7 PO2 238 -1.007
7 PO2 239 0.946
7 PO2 240 3.387
7 PO2 241 5.829
7 PO2 242 7.782
7 PO2 243 9.247
7 PO2 244 11.200
7 PO2 245 12.177
7 PO2 246 13.153
7 PO2 247 13.153
7 PO2 248 11.688
7 PO2 249 10.223
7 PO2 250 8.270
7 PO2 251 6.805
7 PO2 252 5.341
7 PO2 253 4.364
7 PO2 254 3.387
7 PO2 255 2.411
# PO1 chan 28
7 PO1 0 -1.485
7 PO1 1 -0.509
7 PO1 2 -0.020
7 PO1 3 -0.020
7 PO1 4 -0.509
7 PO1 5 -0.509
7 PO1 6 -0.020
7 PO1 7 1.444
7 PO1 8 2.421
7 PO1 9 2.909
7 PO1 10 2.909
7 PO1 11 2.421
7 PO1 12 2.421
7 PO1 13 1.933
7 PO1 14 2.421
7 PO1 15 2.421
7 PO1 16 1.933
7 PO1 17 1.933
7 PO1 18 1.444
7 PO1 19 1.444
7 PO1 20 1.444
7 PO1 21 2.421
7 PO1 22 3.398
7 PO1 23 4.862
7 PO1 24 5.839
7 PO1 25 5.351
7 PO1 26 3.886
7 PO1 27 1.933
7 PO1 28 -0.020
7 PO1 29 -0.997
7 PO1 30 -1.973
7 PO1 31 -2.462
7 PO1 32 -2.950
7 PO1 33 -2.950
7 PO1 34 -1.973
7 PO1 35 -0.997
7 PO1 36 -0.509
7 PO1 37 -0.509
7 PO1 38 -1.485
7 PO1 39 -2.462
7 PO1 40 -2.462
7 PO1 41 -0.997
7 PO1 42 0.468
7 PO1 43 1.933
7 PO1 44 1.444
7 PO1 45 -0.509
7 PO1 46 -3.438
7 PO1 47 -5.391
7 PO1 48 -6.368
7 PO1 49 -5.391
7 PO1 50 -4.415
7 PO1 51 -2.950
7 PO1 52 -1.485
7 PO1 53 -0.997
7 PO1 54 -0.997
7 PO1 55 -1.485
7 PO1 56 -1.485
7 PO1 57 -0.997
7 PO1 58 -0.020
7 PO1 59 0.468
7 PO1 60 0.956
7 PO1 61 0.468
7 PO1 62 -0.997
7 PO1 63 -2.462
7 PO1 64 -2.950
7 PO1 65 -2.462
7 PO1 66 -1.485
7 PO1 67 -1.485
7 PO1 68 -1.485
7 PO1 69 -1.973
7 PO1 70 -1.485
7 PO1 71 0.956
7 PO1 72 3.886
7 PO1 73 6.327
7 PO1 74 6.327
7 PO1 75 4.374
7 PO1 76 2.421
7 PO1 77 1.444
7 PO1 78 2.421
7 PO1 79 3.398
7 PO1 80 3.398
7 PO1 81 0.956
7 PO1 82 -2.462
7 PO1 83 -4.903
7 PO1 84 -6.856
7 PO1 85 -7.833
7 PO1 86 -8.809
7 PO1 87 -10.274
7 PO1 88 -11.251
7 PO1 89 -11.739
7 PO1 90 -10.763
7 PO1 91 -9.786
7 PO1 92 -8.809
7 PO1 93 -8.809
7 PO1 94 -8.809
7 PO1 95 -8.321
7 PO1 96 -6.856
7 PO1 97 -3.927
7 PO1 98 -0.997
7 PO1 99 0.956
7 PO1 100 2.421
7 PO1 101 1.444
7 PO1 102 -0.997
7 PO1 103 -3.927
7 PO1 104 -6.856
7 PO1 105 -9.298
7 PO1 106 -9.786
7 PO1 107 -9.786
7 PO1 108 -9.298
7 PO1 109 -9.298
7 PO1 110 -8.809
7 PO1 111 -7.345
7 PO1 112 -5.391
7 PO1 113 -2.462
7 PO1 114 -0.020
7 PO1 115 0.468
7 PO1 116 -0.509
7 PO1 117 -1.485
7 PO1 118 -1.485
7 PO1 119 -0.509
7 PO1 120 0.468
7 PO1 121 0.468
7 PO1 122 -0.997
7 PO1 123 -3.438
7 PO1 124 -4.903
7 PO1 125 -5.391
7 PO1 126 -3.927
7 PO1 127 -3.438
7 PO1 128 -2.950
7 PO1 129 -3.438
7 PO1 130 -3.927
7 PO1 131 -3.927
7 PO1 132 -3.438
7 PO1 133 -1.973
7 PO1 134 -0.509
7 PO1 135 0.468
7 PO1 136 0.956
7 PO1 137 0.956
7 PO1 138 0.956
7 PO1 139 0.468
7 PO1 140 0.956
7 PO1 141 0.468
7 PO1 142 0.468
7 PO1 143 0.468
7 PO1 144 -0.020
7 PO1 145 -0.997
7 PO1 146 -1.485
7 PO1 147 -1.485
7 PO1 148 -1.485
7 PO1 149 -0.020
7 PO1 150 0.956
7 PO1 151 0.956
7 PO1 152 -0.020
7 PO1 153 -0.509
7 PO1 154 -0.997
7 PO1 155 -1.485
7 PO1 156 -1.485
7 PO1 157 -1.485
7 PO1 158 -1.485
7 PO1 159 -2.462
7 PO1 160 -2.950
7 PO1 161 -3.927
7 PO1 162 -3.927
7 PO1 163 -2.950
7 PO1 164 -0.997
7 PO1 165 1.444
7 PO1 166 2.909
7 PO1 167 3.886
7 PO1 168 2.909
7 PO1 169 0.956
7 PO1 170 -0.997
7 PO1 171 -2.462
7 PO1 172 -1.973
7 PO1 173 -0.997
7 PO1 174 -0.020
7 PO1 175 0.956
7 PO1 176 0.956
7 PO1 177 0.468
7 PO1 178 0.468
7 PO1 179 -0.509
7 PO1 180 -1.485
7 PO1 181 -3.927
7 PO1 182 -6.856
7 PO1 183 -8.321
7 PO1 184 -8.809
7 PO1 185 -7.833
7 PO1 186 -6.856
7 PO1 187 -6.368
7 PO1 188 -6.856
7 PO1 189 -7.345
7 PO1 190 -8.321
7 PO1 191 -7.833
7 PO1 192 -7.345
7 PO1 193 -6.368
7 PO1 194 -5.391
7 PO1 195 -4.415
7 PO1 196 -3.927
7 PO1 197 -3.927
7 PO1 198 -4.903
7 PO1 199 -5.880
7 PO1 200 -6.368
7 PO1 201 -5.880
7 PO1 202 -3.927
7 PO1 203 -2.462
7 PO1 204 -1.973
7 PO1 205 -2.950
7 PO1 206 -5.880
7 PO1 207 -8.321
7 PO1 208 -9.298
7 PO1 209 -8.809
7 PO1 210 -7.345
7 PO1 211 -6.368
7 PO1 212 -6.856
7 PO1 213 -7.833
7 PO1 214 -8.809
7 PO1 215 -8.809
7 PO1 216 -7.833
7 PO1 217 -6.368
7 PO1 218 -6.368
7 PO1 219 -7.833
7 PO1 220 -9.786
7 PO1 221 -11.739
7 PO1 222 -12.227
7 PO1 223 -10.763
7 PO1 224 -8.321
7 PO1 225 -4.903
7 PO1 226 -1.485
7 PO1 227 0.956
7 PO1 228 1.933
7 PO1 229 1.444
7 PO1 230 0.468
7 PO1 231 -0.509
7 PO1 232 -0.997
7 PO1 233 -2.462
7 PO1 234 -4.903
7 PO1 235 -7.833
7 PO1 236 -10.763
7 PO1 237 -11.739
7 PO1 238 -11.739
7 PO1 239 -10.274
7 PO1 240 -8.809
7 PO1 241 -7.345
7 PO1 242 -5.880
7 PO1 243 -3.927
7 PO1 244 -1.973
7 PO1 245 -0.509
7 PO1 246 0.468
7 PO1 247 -0.020
7 PO1 248 -0.997
7 PO1 249 -1.485
7 PO1 250 -2.462
7 PO1 251 -3.438
7 PO1 252 -4.903
7 PO1 253 -6.856
7 PO1 254 -8.321
7 PO1 255 -9.298
# O2 chan 29
7 O2 0 2.645
7 O2 1 2.645
7 O2 2 2.157
7 O2 3 1.180
7 O2 4 0.203
7 O2 5 0.203
7 O2 6 0.203
7 O2 7 0.692
7 O2 8 1.180
7 O2 9 1.668
7 O2 10 1.180
7 O2 11 0.692
7 O2 12 0.203
7 O2 13 -0.285
7 O2 14 -0.285
7 O2 15 0.203
7 O2 16 0.203
7 O2 17 0.692
7 O2 18 0.692
7 O2 19 1.180
7 O2 20 1.668
7 O2 21 2.157
7 O2 22 2.645
7 O2 23 2.645
7 O2 24 2.645
7 O2 25 2.645
7 O2 26 2.157
7 O2 27 2.157
7 O2 28 1.180
7 O2 29 0.203
7 O2 30 -2.238
7 O2 31 -4.191
7 O2 32 -5.656
7 O2 33 -6.144
7 O2 34 -4.679
7 O2 35 -3.215
7 O2 36 -2.238
7 O2 37 -2.726
7 O2 38 -4.191
7 O2 39 -5.656
7 O2 40 -5.656
7 O2 41 -4.191
7 O2 42 -2.238
7 O2 43 -1.261
7 O2 44 -1.261
7 O2 45 -3.215
7 O2 46 -5.656
7 O2 47 -7.609
7 O2 48 -8.097
7 O2 49 -7.121
7 O2 50 -5.168
7 O2 51 -2.726
7 O2 52 -2.238
7 O2 53 -2.238
7 O2 54 -2.238
7 O2 55 -3.215
7 O2 56 -3.215
7 O2 57 -3.215
7 O2 58 -2.726
7 O2 59 -2.726
7 O2 60 -3.215
7 O2 61 -5.168
