# co2a0000392.rd
# 120 trials, 64 chans, 416 samples 368 post_stim samples
# 3.906000 msecs uV
# S1 obj , trial 82
# FP1 chan 0
82 FP1 0 -32.908
82 FP1 1 -31.932
82 FP1 2 -30.955
82 FP1 3 -29.978
82 FP1 4 -29.002
82 FP1 5 -28.025
82 FP1 6 -26.560
82 FP1 7 -25.584
82 FP1 8 -24.607
82 FP1 9 -24.607
82 FP1 10 -24.607
82 FP1 11 -26.072
82 FP1 12 -27.537
82 FP1 13 -29.978
82 FP1 14 -32.420
82 FP1 15 -34.373
82 FP1 16 -36.326
82 FP1 17 -37.303
82 FP1 18 -37.791
82 FP1 19 -38.767
82 FP1 20 -40.232
82 FP1 21 -41.209
82 FP1 22 -41.209
82 FP1 23 -39.744
82 FP1 24 -36.326
82 FP1 25 -32.420
82 FP1 26 -29.002
82 FP1 27 -26.560
82 FP1 28 -25.096
82 FP1 29 -24.607
82 FP1 30 -24.119
82 FP1 31 -24.119
82 FP1 32 -25.096
82 FP1 33 -26.560
82 FP1 34 -28.514
82 FP1 35 -29.978
82 FP1 36 -31.443
82 FP1 37 -31.932
82 FP1 38 -32.908
82 FP1 39 -33.885
82 FP1 40 -35.350
82 FP1 41 -35.838
82 FP1 42 -35.350
82 FP1 43 -34.373
82 FP1 44 -32.908
82 FP1 45 -30.955
82 FP1 46 -29.978
82 FP1 47 -29.978
82 FP1 48 -29.490
82 FP1 49 -29.490
82 FP1 50 -29.002
82 FP1 51 -28.514
82 FP1 52 -27.537
82 FP1 53 -26.560
82 FP1 54 -25.584
82 FP1 55 -24.607
82 FP1 56 -24.119
82 FP1 57 -24.607
82 FP1 58 -25.584
82 FP1 59 -27.537
82 FP1 60 -29.490
82 FP1 61 -30.467
82 FP1 62 -30.955
82 FP1 63 -30.467
82 FP1 64 -30.467
82 FP1 65 -29.978
82 FP1 66 -29.978
82 FP1 67 -29.490
82 FP1 68 -28.514
82 FP1 69 -27.049
82 FP1 70 -25.584
82 FP1 71 -25.096
82 FP1 72 -25.096
82 FP1 73 -26.560
82 FP1 74 -28.514
82 FP1 75 -29.490
82 FP1 76 -29.978
82 FP1 77 -29.490
82 FP1 78 -28.514
82 FP1 79 -27.537
82 FP1 80 -27.537
82 FP1 81 -28.025
82 FP1 82 -29.002
82 FP1 83 -30.467
82 FP1 84 -31.932
82 FP1 85 -32.420
82 FP1 86 -33.885
82 FP1 87 -34.861
82 FP1 88 -35.838
82 FP1 89 -37.303
82 FP1 90 -37.791
82 FP1 91 -38.767
82 FP1 92 -39.256
82 FP1 93 -38.767
82 FP1 94 -37.791
82 FP1 95 -36.326
82 FP1 96 -34.373
82 FP1 97 -31.932
82 FP1 98 -29.490
82 FP1 99 -27.537
82 FP1 100 -26.560
82 FP1 101 -26.560
82 FP1 102 -28.025
82 FP1 103 -30.955
82 FP1 104 -34.373
82 FP1 105 -36.814
82 FP1 106 -38.767
82 FP1 107 -39.744
82 FP1 108 -40.232
82 FP1 109 -40.232
82 FP1 110 -40.232
82 FP1 111 -39.744
82 FP1 112 -38.279
82 FP1 113 -36.814
82 FP1 114 -35.350
82 FP1 115 -34.861
82 FP1 116 -34.861
82 FP1 117 -35.350
82 FP1 118 -35.838
82 FP1 119 -36.326
82 FP1 120 -36.814
82 FP1 121 -37.791
82 FP1 122 -38.767
82 FP1 123 -39.256
82 FP1 124 -39.256
82 FP1 125 -38.279
82 FP1 126 -38.279
82 FP1 127 -38.279
82 FP1 128 -39.744
82 FP1 129 -40.232
82 FP1 130 -41.209
82 FP1 131 -41.209
82 FP1 132 -40.721
82 FP1 133 -39.744
82 FP1 134 -39.256
82 FP1 135 -39.256
82 FP1 136 -39.256
82 FP1 137 -38.767
82 FP1 138 -38.279
82 FP1 139 -36.814
82 FP1 140 -35.838
82 FP1 141 -35.350
82 FP1 142 -35.350
82 FP1 143 -35.838
82 FP1 144 -35.838
82 FP1 145 -35.838
82 FP1 146 -35.838
82 FP1 147 -36.326
82 FP1 148 -37.303
82 FP1 149 -38.279
82 FP1 150 -39.744
82 FP1 151 -39.744
82 FP1 152 -38.767
82 FP1 153 -36.326
82 FP1 154 -33.396
82 FP1 155 -30.955
82 FP1 156 -29.002
82 FP1 157 -28.025
82 FP1 158 -27.537
82 FP1 159 -26.560
82 FP1 160 -26.072
82 FP1 161 -25.584
82 FP1 162 -25.584
82 FP1 163 -26.560
82 FP1 164 -27.537
82 FP1 165 -28.025
82 FP1 166 -27.537
82 FP1 167 -26.560
82 FP1 168 -26.072
82 FP1 169 -26.560
82 FP1 170 -28.025
82 FP1 171 -29.490
82 FP1 172 -30.467
82 FP1 173 -30.467
82 FP1 174 -29.002
82 FP1 175 -28.025
82 FP1 176 -27.049
82 FP1 177 -27.537
82 FP1 178 -27.049
82 FP1 179 -26.560
82 FP1 180 -25.584
82 FP1 181 -24.607
82 FP1 182 -24.119
82 FP1 183 -24.607
82 FP1 184 -26.560
82 FP1 185 -28.514
82 FP1 186 -29.978
82 FP1 187 -31.932
82 FP1 188 -32.908
82 FP1 189 -33.396
82 FP1 190 -33.396
82 FP1 191 -32.908
82 FP1 192 -32.908
82 FP1 193 -33.885
82 FP1 194 -35.350
82 FP1 195 -37.303
82 FP1 196 -37.791
82 FP1 197 -37.303
82 FP1 198 -34.373
82 FP1 199 -31.443
82 FP1 200 -29.490
82 FP1 201 -28.514
82 FP1 202 -28.514
82 FP1 203 -29.490
82 FP1 204 -30.955
82 FP1 205 -31.932
82 FP1 206 -32.908
82 FP1 207 -33.885
82 FP1 208 -34.373
82 FP1 209 -35.838
82 FP1 210 -36.326
82 FP1 211 -36.326
82 FP1 212 -36.326
82 FP1 213 -34.861
82 FP1 214 -33.396
82 FP1 215 -32.420
82 FP1 216 -32.420
82 FP1 217 -32.908
82 FP1 218 -34.373
82 FP1 219 -35.838
82 FP1 220 -36.326
82 FP1 221 -35.350
82 FP1 222 -34.373
82 FP1 223 -32.908
82 FP1 224 -31.932
82 FP1 225 -30.467
82 FP1 226 -29.490
82 FP1 227 -28.025
82 FP1 228 -27.049
82 FP1 229 -26.072
82 FP1 230 -25.584
82 FP1 231 -26.072
82 FP1 232 -26.072
82 FP1 233 -26.560
82 FP1 234 -26.072
82 FP1 235 -24.607
82 FP1 236 -21.678
82 FP1 237 -18.748
82 FP1 238 -15.330
82 FP1 239 -12.400
82 FP1 240 -10.447
82 FP1 241 -8.982
82 FP1 242 -8.006
82 FP1 243 -6.541
82 FP1 244 -3.611
82 FP1 245 0.295
82 FP1 246 5.178
82 FP1 247 9.572
82 FP1 248 12.502
82 FP1 249 14.455
82 FP1 250 14.943
82 FP1 251 15.432
82 FP1 252 14.943
82 FP1 253 14.943
82 FP1 254 14.455
82 FP1 255 12.990
# FP2 chan 1
82 FP2 0 -25.248
82 FP2 1 -24.760
82 FP2 2 -24.760
82 FP2 3 -24.760
82 FP2 4 -24.272
82 FP2 5 -23.783
82 FP2 6 -23.783
82 FP2 7 -24.272
82 FP2 8 -25.248
82 FP2 9 -25.248
82 FP2 10 -25.248
82 FP2 11 -23.783
82 FP2 12 -23.295
82 FP2 13 -23.295
82 FP2 14 -24.272
82 FP2 15 -26.225
82 FP2 16 -28.178
82 FP2 17 -30.131
82 FP2 18 -32.084
82 FP2 19 -34.037
82 FP2 20 -35.502
82 FP2 21 -36.967
82 FP2 22 -36.967
82 FP2 23 -35.990
82 FP2 24 -33.061
82 FP2 25 -29.154
82 FP2 26 -25.736
82 FP2 27 -22.807
82 FP2 28 -20.854
82 FP2 29 -19.877
82 FP2 30 -18.901
82 FP2 31 -18.412
82 FP2 32 -18.412
82 FP2 33 -19.389
82 FP2 34 -22.319
82 FP2 35 -24.760
82 FP2 36 -26.713
82 FP2 37 -28.178
82 FP2 38 -29.154
82 FP2 39 -30.131
82 FP2 40 -31.108
82 FP2 41 -32.084
82 FP2 42 -32.572
82 FP2 43 -31.596
82 FP2 44 -29.643
82 FP2 45 -27.201
82 FP2 46 -25.248
82 FP2 47 -24.272
82 FP2 48 -23.783
82 FP2 49 -23.783
82 FP2 50 -23.783
82 FP2 51 -23.783
82 FP2 52 -23.295
82 FP2 53 -22.807
82 FP2 54 -21.830
82 FP2 55 -21.342
82 FP2 56 -21.342
82 FP2 57 -21.830
82 FP2 58 -23.295
82 FP2 59 -24.272
82 FP2 60 -25.248
82 FP2 61 -24.272
82 FP2 62 -23.295
82 FP2 63 -21.830
82 FP2 64 -20.365
82 FP2 65 -19.877
82 FP2 66 -19.877
82 FP2 67 -20.854
82 FP2 68 -21.342
82 FP2 69 -22.319
82 FP2 70 -23.783
82 FP2 71 -24.272
82 FP2 72 -25.736
82 FP2 73 -27.201
82 FP2 74 -28.178
82 FP2 75 -28.666
82 FP2 76 -28.666
82 FP2 77 -27.201
82 FP2 78 -26.225
82 FP2 79 -24.760
82 FP2 80 -24.272
82 FP2 81 -24.272
82 FP2 82 -24.760
82 FP2 83 -25.736
82 FP2 84 -26.713
82 FP2 85 -27.690
82 FP2 86 -29.643
82 FP2 87 -31.596
82 FP2 88 -33.061
82 FP2 89 -35.014
82 FP2 90 -35.990
82 FP2 91 -35.990
82 FP2 92 -35.990
82 FP2 93 -34.526
82 FP2 94 -33.061
82 FP2 95 -30.619
82 FP2 96 -28.178
82 FP2 97 -26.225
82 FP2 98 -23.783
82 FP2 99 -22.807
82 FP2 100 -21.830
82 FP2 101 -22.319
82 FP2 102 -24.272
82 FP2 103 -27.201
82 FP2 104 -30.131
82 FP2 105 -33.549
82 FP2 106 -35.990
82 FP2 107 -37.455
82 FP2 108 -37.455
82 FP2 109 -36.967
82 FP2 110 -35.990
82 FP2 111 -34.037
82 FP2 112 -32.084
82 FP2 113 -30.131
82 FP2 114 -29.154
82 FP2 115 -29.154
82 FP2 116 -30.131
82 FP2 117 -31.596
82 FP2 118 -33.061
82 FP2 119 -34.037
82 FP2 120 -35.502
82 FP2 121 -36.967
82 FP2 122 -37.455
82 FP2 123 -36.967
82 FP2 124 -35.502
82 FP2 125 -33.549
82 FP2 126 -32.572
82 FP2 127 -32.084
82 FP2 128 -32.572
82 FP2 129 -34.037
82 FP2 130 -35.502
82 FP2 131 -36.967
82 FP2 132 -37.944
82 FP2 133 -38.432
82 FP2 134 -38.432
82 FP2 135 -38.432
82 FP2 136 -37.944
82 FP2 137 -37.944
82 FP2 138 -36.967
82 FP2 139 -35.990
82 FP2 140 -35.014
82 FP2 141 -33.549
82 FP2 142 -32.572
82 FP2 143 -32.084
82 FP2 144 -31.596
82 FP2 145 -31.596
82 FP2 146 -31.596
82 FP2 147 -31.596
82 FP2 148 -32.084
82 FP2 149 -33.549
82 FP2 150 -35.014
82 FP2 151 -35.502
82 FP2 152 -35.014
82 FP2 153 -33.549
82 FP2 154 -31.108
82 FP2 155 -29.154
82 FP2 156 -27.201
82 FP2 157 -26.713
82 FP2 158 -25.736
82 FP2 159 -25.248
82 FP2 160 -24.760
82 FP2 161 -24.760
82 FP2 162 -25.248
82 FP2 163 -26.225
82 FP2 164 -27.201
82 FP2 165 -27.201
82 FP2 166 -27.201
82 FP2 167 -26.225
82 FP2 168 -25.736
82 FP2 169 -25.736
82 FP2 170 -26.225
82 FP2 171 -27.201
82 FP2 172 -27.690
82 FP2 173 -27.690
82 FP2 174 -27.690
82 FP2 175 -28.178
82 FP2 176 -29.154
82 FP2 177 -29.643
82 FP2 178 -29.643
82 FP2 179 -28.178
82 FP2 180 -26.713
82 FP2 181 -25.248
82 FP2 182 -25.248
82 FP2 183 -25.736
82 FP2 184 -26.713
82 FP2 185 -28.178
82 FP2 186 -29.643
82 FP2 187 -31.108
82 FP2 188 -33.061
82 FP2 189 -34.037
82 FP2 190 -34.526
82 FP2 191 -33.549
82 FP2 192 -32.084
82 FP2 193 -31.108
82 FP2 194 -32.084
82 FP2 195 -33.549
82 FP2 196 -35.014
82 FP2 197 -35.014
82 FP2 198 -33.061
82 FP2 199 -31.108
82 FP2 200 -29.154
82 FP2 201 -28.178
82 FP2 202 -29.154
82 FP2 203 -30.131
82 FP2 204 -32.084
82 FP2 205 -32.572
82 FP2 206 -33.061
82 FP2 207 -33.061
82 FP2 208 -33.061
82 FP2 209 -33.549
82 FP2 210 -33.549
82 FP2 211 -34.037
82 FP2 212 -34.526
82 FP2 213 -34.037
82 FP2 214 -33.549
82 FP2 215 -32.572
82 FP2 216 -32.084
82 FP2 217 -32.572
82 FP2 218 -34.037
82 FP2 219 -35.990
82 FP2 220 -37.455
82 FP2 221 -37.944
82 FP2 222 -37.455
82 FP2 223 -35.990
82 FP2 224 -34.526
82 FP2 225 -33.061
82 FP2 226 -31.596
82 FP2 227 -29.643
82 FP2 228 -28.178
82 FP2 229 -26.713
82 FP2 230 -26.225
82 FP2 231 -26.225
82 FP2 232 -26.225
82 FP2 233 -26.225
82 FP2 234 -25.248
82 FP2 235 -22.807
82 FP2 236 -19.389
82 FP2 237 -15.971
82 FP2 238 -13.041
82 FP2 239 -10.600
82 FP2 240 -9.623
82 FP2 241 -8.647
82 FP2 242 -6.694
82 FP2 243 -3.276
82 FP2 244 1.119
82 FP2 245 6.002
82 FP2 246 11.373
82 FP2 247 15.279
82 FP2 248 18.209
82 FP2 249 20.162
82 FP2 250 20.650
82 FP2 251 20.650
82 FP2 252 20.650
82 FP2 253 20.650
82 FP2 254 20.162
82 FP2 255 19.674
# F7 chan 2
82 F7 0 -24.984
82 F7 1 -22.542
82 F7 2 -20.101
82 F7 3 -18.148
82 F7 4 -17.171
82 F7 5 -16.195
82 F7 6 -14.730
82 F7 7 -11.800
82 F7 8 -7.894
82 F7 9 -4.964
82 F7 10 -4.964
82 F7 11 -7.406
82 F7 12 -12.288
82 F7 13 -19.124
82 F7 14 -25.472
82 F7 15 -29.867
82 F7 16 -32.796
82 F7 17 -33.285
82 F7 18 -33.285
82 F7 19 -32.796
82 F7 20 -31.820
82 F7 21 -30.843
82 F7 22 -28.890
82 F7 23 -24.984
82 F7 24 -21.077
82 F7 25 -16.683
82 F7 26 -14.730
82 F7 27 -13.265
82 F7 28 -13.753
82 F7 29 -14.730
82 F7 30 -16.195
82 F7 31 -18.636
82 F7 32 -20.589
82 F7 33 -22.542
82 F7 34 -23.031
82 F7 35 -22.054
82 F7 36 -19.613
82 F7 37 -18.148
82 F7 38 -16.683
82 F7 39 -17.171
82 F7 40 -18.636
82 F7 41 -19.613
82 F7 42 -20.101
82 F7 43 -20.101
82 F7 44 -20.589
82 F7 45 -20.589
82 F7 46 -21.077
82 F7 47 -21.566
82 F7 48 -21.077
82 F7 49 -19.613
82 F7 50 -18.148
82 F7 51 -15.706
82 F7 52 -14.242
82 F7 53 -12.777
82 F7 54 -12.288
82 F7 55 -11.800
82 F7 56 -11.800
82 F7 57 -12.777
82 F7 58 -14.242
82 F7 59 -16.195
82 F7 60 -19.124
82 F7 61 -21.566
82 F7 62 -23.031
82 F7 63 -22.542
82 F7 64 -21.566
82 F7 65 -19.613
82 F7 66 -18.636
82 F7 67 -18.148
82 F7 68 -17.660
82 F7 69 -17.171
82 F7 70 -15.706
82 F7 71 -13.265
82 F7 72 -11.800
82 F7 73 -11.800
82 F7 74 -13.265
82 F7 75 -14.730
82 F7 76 -16.195
82 F7 77 -15.218
82 F7 78 -14.242
82 F7 79 -14.242
82 F7 80 -15.218
82 F7 81 -17.660
82 F7 82 -20.589
82 F7 83 -22.054
82 F7 84 -22.542
82 F7 85 -22.054
82 F7 86 -22.054
82 F7 87 -22.542
82 F7 88 -23.031
82 F7 89 -23.519
82 F7 90 -24.007
82 F7 91 -24.984
82 F7 92 -25.472
82 F7 93 -25.960
82 F7 94 -25.472
82 F7 95 -24.007
82 F7 96 -22.054
82 F7 97 -19.613
82 F7 98 -17.171
82 F7 99 -15.218
82 F7 100 -13.753
82 F7 101 -13.265
82 F7 102 -13.753
82 F7 103 -16.195
82 F7 104 -19.124
82 F7 105 -22.054
82 F7 106 -24.007
82 F7 107 -24.495
82 F7 108 -24.007
82 F7 109 -23.519
82 F7 110 -23.031
82 F7 111 -23.031
82 F7 112 -21.566
82 F7 113 -20.589
82 F7 114 -18.636
82 F7 115 -17.171
82 F7 116 -16.683
82 F7 117 -16.683
82 F7 118 -16.683
82 F7 119 -17.171
82 F7 120 -18.148
82 F7 121 -19.613
82 F7 122 -21.566
82 F7 123 -23.031
82 F7 124 -23.519
82 F7 125 -23.519
82 F7 126 -23.519
82 F7 127 -24.007
82 F7 128 -25.472
82 F7 129 -26.937
82 F7 130 -26.937
82 F7 131 -25.472
82 F7 132 -23.031
82 F7 133 -21.077
82 F7 134 -20.101
82 F7 135 -21.077
82 F7 136 -22.542
82 F7 137 -22.542
82 F7 138 -21.566
82 F7 139 -19.613
82 F7 140 -18.148
82 F7 141 -16.683
82 F7 142 -17.171
82 F7 143 -18.148
82 F7 144 -19.613
82 F7 145 -20.589
82 F7 146 -21.566
82 F7 147 -22.054
82 F7 148 -22.054
82 F7 149 -21.566
82 F7 150 -21.077
82 F7 151 -21.077
82 F7 152 -20.101
82 F7 153 -18.636
82 F7 154 -16.683
82 F7 155 -14.730
82 F7 156 -13.265
82 F7 157 -12.777
82 F7 158 -12.777
82 F7 159 -12.777
82 F7 160 -12.288
82 F7 161 -10.824
82 F7 162 -10.335
82 F7 163 -10.335
82 F7 164 -11.312
82 F7 165 -12.288
82 F7 166 -12.777
82 F7 167 -12.288
82 F7 168 -11.312
82 F7 169 -11.800
82 F7 170 -12.777
82 F7 171 -14.242
82 F7 172 -14.730
82 F7 173 -14.242
82 F7 174 -11.800
82 F7 175 -9.359
82 F7 176 -6.917
82 F7 177 -5.941
82 F7 178 -5.452
82 F7 179 -4.964
82 F7 180 -4.476
82 F7 181 -4.476
82 F7 182 -3.988
82 F7 183 -4.964
82 F7 184 -6.429
82 F7 185 -7.894
82 F7 186 -9.359
82 F7 187 -10.335
82 F7 188 -11.800
82 F7 189 -12.777
82 F7 190 -13.753
82 F7 191 -15.218
82 F7 192 -16.683
82 F7 193 -19.124
82 F7 194 -20.101
82 F7 195 -20.589
82 F7 196 -19.124
82 F7 197 -16.195
82 F7 198 -12.288
82 F7 199 -9.359
82 F7 200 -7.406
82 F7 201 -6.917
82 F7 202 -7.406
82 F7 203 -8.382
82 F7 204 -9.359
82 F7 205 -10.335
82 F7 206 -10.824
82 F7 207 -11.312
82 F7 208 -11.800
82 F7 209 -12.777
82 F7 210 -14.242
82 F7 211 -15.706
82 F7 212 -16.195
82 F7 213 -15.218
82 F7 214 -13.265
82 F7 215 -11.800
82 F7 216 -11.312
82 F7 217 -12.288
82 F7 218 -14.242
82 F7 219 -14.730
82 F7 220 -14.242
82 F7 221 -13.265
82 F7 222 -11.800
82 F7 223 -11.800
82 F7 224 -12.288
82 F7 225 -12.777
82 F7 226 -12.777
82 F7 227 -12.288
82 F7 228 -11.800
82 F7 229 -11.800
82 F7 230 -11.312
82 F7 231 -11.800
82 F7 232 -12.288
82 F7 233 -12.777
82 F7 234 -13.753
82 F7 235 -13.753
82 F7 236 -12.777
82 F7 237 -10.335
82 F7 238 -6.917
82 F7 239 -4.476
82 F7 240 -3.499
82 F7 241 -3.499
82 F7 242 -4.476
82 F7 243 -4.964
82 F7 244 -4.476
82 F7 245 -2.035
82 F7 246 0.895
82 F7 247 3.825
82 F7 248 6.266
82 F7 249 8.219
82 F7 250 8.708
82 F7 251 8.219
82 F7 252 7.731
82 F7 253 7.731
82 F7 254 7.243
82 F7 255 6.755
# F8 chan 3
82 F8 0 -8.891
82 F8 1 -8.403
82 F8 2 -7.914
82 F8 3 -7.426
82 F8 4 -6.449
82 F8 5 -5.473
82 F8 6 -5.473
82 F8 7 -7.426
82 F8 8 -9.867
82 F8 9 -11.820
82 F8 10 -12.309
82 F8 11 -11.332
82 F8 12 -10.356
82 F8 13 -9.867
82 F8 14 -10.356
82 F8 15 -11.332
82 F8 16 -12.797
82 F8 17 -13.774
82 F8 18 -14.750
82 F8 19 -16.703
82 F8 20 -19.145
82 F8 21 -21.586
82 F8 22 -23.051
82 F8 23 -22.074
82 F8 24 -19.145
82 F8 25 -15.727
82 F8 26 -12.797
82 F8 27 -11.332
82 F8 28 -11.332
82 F8 29 -10.356
82 F8 30 -9.379
82 F8 31 -7.426
82 F8 32 -7.914
82 F8 33 -9.867
82 F8 34 -13.285
82 F8 35 -15.727
82 F8 36 -15.727
82 F8 37 -14.750
82 F8 38 -13.774
82 F8 39 -14.750
82 F8 40 -17.192
82 F8 41 -20.121
82 F8 42 -21.098
82 F8 43 -20.121
82 F8 44 -17.680
82 F8 45 -15.238
82 F8 46 -13.285
82 F8 47 -12.309
82 F8 48 -10.844
82 F8 49 -8.891
82 F8 50 -7.426
82 F8 51 -6.938
82 F8 52 -7.914
82 F8 53 -9.379
82 F8 54 -10.844
82 F8 55 -11.820
82 F8 56 -12.797
82 F8 57 -14.750
82 F8 58 -16.215
82 F8 59 -17.192
82 F8 60 -17.192
82 F8 61 -15.238
82 F8 62 -11.332
82 F8 63 -6.938
82 F8 64 -3.520
82 F8 65 -1.567
82 F8 66 -0.102
82 F8 67 -0.590
82 F8 68 -3.031
82 F8 69 -6.449
82 F8 70 -11.820
82 F8 71 -17.192
82 F8 72 -21.586
82 F8 73 -23.539
82 F8 74 -24.028
82 F8 75 -22.563
82 F8 76 -20.610
82 F8 77 -19.633
82 F8 78 -18.656
82 F8 79 -17.192
82 F8 80 -14.750
82 F8 81 -12.309
82 F8 82 -10.844
82 F8 83 -11.332
82 F8 84 -12.797
82 F8 85 -15.238
82 F8 86 -17.192
82 F8 87 -17.680
82 F8 88 -18.656
82 F8 89 -19.633
82 F8 90 -21.586
82 F8 91 -23.051
82 F8 92 -22.074
82 F8 93 -19.145
82 F8 94 -14.750
82 F8 95 -11.332
82 F8 96 -9.379
82 F8 97 -8.891
82 F8 98 -9.379
82 F8 99 -9.867
82 F8 100 -9.867
82 F8 101 -9.867
82 F8 102 -10.356
82 F8 103 -10.844
82 F8 104 -11.332
82 F8 105 -11.332
82 F8 106 -12.309
82 F8 107 -14.262
82 F8 108 -17.192
82 F8 109 -19.633
82 F8 110 -20.121
82 F8 111 -18.168
82 F8 112 -15.727
82 F8 113 -14.262
82 F8 114 -13.774
82 F8 115 -15.238
82 F8 116 -17.192
82 F8 117 -19.145
82 F8 118 -19.633
82 F8 119 -20.121
82 F8 120 -20.121
82 F8 121 -20.121
82 F8 122 -19.633
82 F8 123 -18.656
82 F8 124 -17.680
82 F8 125 -16.215
82 F8 126 -15.727
82 F8 127 -15.727
82 F8 128 -16.215
82 F8 129 -17.192
82 F8 130 -17.680
82 F8 131 -18.656
82 F8 132 -19.633
82 F8 133 -20.121
82 F8 134 -20.610
82 F8 135 -21.586
82 F8 136 -21.586
82 F8 137 -20.610
82 F8 138 -19.145
82 F8 139 -16.703
82 F8 140 -15.238
82 F8 141 -15.238
82 F8 142 -15.727
82 F8 143 -16.215
82 F8 144 -15.238
82 F8 145 -13.285
82 F8 146 -11.332
82 F8 147 -10.356
82 F8 148 -10.844
82 F8 149 -12.309
82 F8 150 -14.262
82 F8 151 -16.215
82 F8 152 -17.680
82 F8 153 -18.168
82 F8 154 -17.680
82 F8 155 -15.238
82 F8 156 -11.820
82 F8 157 -8.891
82 F8 158 -7.914
82 F8 159 -8.403
82 F8 160 -9.867
82 F8 161 -11.820
82 F8 162 -12.797
82 F8 163 -13.285
82 F8 164 -13.774
82 F8 165 -13.285
82 F8 166 -12.309
82 F8 167 -10.844
82 F8 168 -9.867
82 F8 169 -9.379
82 F8 170 -9.379
82 F8 171 -9.867
82 F8 172 -9.867
82 F8 173 -9.379
82 F8 174 -9.379
82 F8 175 -10.356
82 F8 176 -12.309
82 F8 177 -12.797
82 F8 178 -12.309
82 F8 179 -9.379
82 F8 180 -5.961
82 F8 181 -3.520
82 F8 182 -3.031
82 F8 183 -3.520
82 F8 184 -4.496
82 F8 185 -4.496
82 F8 186 -4.008
82 F8 187 -4.008
82 F8 188 -4.985
82 F8 189 -6.938
82 F8 190 -8.403
82 F8 191 -8.403
82 F8 192 -6.938
82 F8 193 -5.961
82 F8 194 -6.449
82 F8 195 -8.403
82 F8 196 -10.844
82 F8 197 -11.820
82 F8 198 -10.844
82 F8 199 -8.891
82 F8 200 -7.426
82 F8 201 -6.938
82 F8 202 -7.914
82 F8 203 -9.867
82 F8 204 -11.820
82 F8 205 -14.262
82 F8 206 -15.727
82 F8 207 -15.727
82 F8 208 -14.750
82 F8 209 -12.309
82 F8 210 -10.356
82 F8 211 -10.356
82 F8 212 -11.820
82 F8 213 -13.774
82 F8 214 -15.727
82 F8 215 -16.215
82 F8 216 -16.215
82 F8 217 -15.238
82 F8 218 -15.727
82 F8 219 -16.703
82 F8 220 -18.656
82 F8 221 -19.633
82 F8 222 -20.610
82 F8 223 -21.586
82 F8 224 -21.586
82 F8 225 -20.121
82 F8 226 -18.168
82 F8 227 -15.238
82 F8 228 -12.309
82 F8 229 -10.356
82 F8 230 -10.356
82 F8 231 -10.844
82 F8 232 -11.820
82 F8 233 -12.309
82 F8 234 -11.332
82 F8 235 -8.891
82 F8 236 -5.961
82 F8 237 -3.520
82 F8 238 -3.031
82 F8 239 -4.008
82 F8 240 -6.449
82 F8 241 -7.914
82 F8 242 -7.914
82 F8 243 -4.985
82 F8 244 -0.590
82 F8 245 3.805
82 F8 246 6.246
82 F8 247 6.246
82 F8 248 5.758
82 F8 249 5.758
82 F8 250 6.734
82 F8 251 8.199
82 F8 252 9.176
82 F8 253 9.176
82 F8 254 9.176
82 F8 255 10.152
# AF1 chan 4
82 AF1 0 -27.700
82 AF1 1 -26.235
82 AF1 2 -25.258
82 AF1 3 -23.794
82 AF1 4 -22.817
82 AF1 5 -21.352
82 AF1 6 -19.399
82 AF1 7 -17.934
82 AF1 8 -15.981
82 AF1 9 -15.004
82 AF1 10 -15.004
82 AF1 11 -16.469
82 AF1 12 -18.422
82 AF1 13 -20.864
82 AF1 14 -24.282
82 AF1 15 -26.235
82 AF1 16 -27.700
82 AF1 17 -27.700
82 AF1 18 -28.188
82 AF1 19 -27.700
82 AF1 20 -28.676
82 AF1 21 -29.653
82 AF1 22 -30.141
82 AF1 23 -29.653
82 AF1 24 -27.212
82 AF1 25 -23.794
82 AF1 26 -20.864
82 AF1 27 -18.911
82 AF1 28 -18.422
82 AF1 29 -17.934
82 AF1 30 -17.934
82 AF1 31 -18.422
82 AF1 32 -19.399
82 AF1 33 -20.864
82 AF1 34 -21.840
82 AF1 35 -22.817
82 AF1 36 -23.305
82 AF1 37 -23.305
82 AF1 38 -23.794
82 AF1 39 -24.282
82 AF1 40 -25.747
82 AF1 41 -26.235
82 AF1 42 -25.747
82 AF1 43 -24.282
82 AF1 44 -22.817
82 AF1 45 -21.840
82 AF1 46 -20.864
82 AF1 47 -20.376
82 AF1 48 -19.887
82 AF1 49 -19.399
82 AF1 50 -19.399
82 AF1 51 -19.399
82 AF1 52 -18.422
82 AF1 53 -16.958
82 AF1 54 -15.004
82 AF1 55 -13.051
82 AF1 56 -12.075
82 AF1 57 -13.051
82 AF1 58 -15.004
82 AF1 59 -17.446
82 AF1 60 -19.399
82 AF1 61 -20.376
82 AF1 62 -20.376
82 AF1 63 -19.887
82 AF1 64 -19.887
82 AF1 65 -20.376
82 AF1 66 -20.376
82 AF1 67 -19.887
82 AF1 68 -18.911
82 AF1 69 -16.958
82 AF1 70 -15.004
82 AF1 71 -13.540
82 AF1 72 -13.540
82 AF1 73 -14.028
82 AF1 74 -15.981
82 AF1 75 -17.934
82 AF1 76 -18.911
82 AF1 77 -19.399
82 AF1 78 -18.911
82 AF1 79 -17.934
82 AF1 80 -16.958
82 AF1 81 -16.958
82 AF1 82 -17.934
82 AF1 83 -19.399
82 AF1 84 -20.376
82 AF1 85 -21.352
82 AF1 86 -21.352
82 AF1 87 -21.840
82 AF1 88 -22.817
82 AF1 89 -23.794
82 AF1 90 -25.258
82 AF1 91 -26.235
82 AF1 92 -26.723
82 AF1 93 -26.235
82 AF1 94 -26.235
82 AF1 95 -25.258
82 AF1 96 -23.794
82 AF1 97 -22.329
82 AF1 98 -21.352
82 AF1 99 -19.887
82 AF1 100 -19.399
82 AF1 101 -19.887
82 AF1 102 -21.352
82 AF1 103 -23.305
82 AF1 104 -24.770
82 AF1 105 -25.258
82 AF1 106 -24.770
82 AF1 107 -24.282
82 AF1 108 -23.794
82 AF1 109 -23.794
82 AF1 110 -23.794
82 AF1 111 -22.817
82 AF1 112 -21.840
82 AF1 113 -20.376
82 AF1 114 -19.399
82 AF1 115 -19.399
82 AF1 116 -19.887
82 AF1 117 -20.864
82 AF1 118 -21.840
82 AF1 119 -21.840
82 AF1 120 -22.817
82 AF1 121 -23.794
82 AF1 122 -24.770
82 AF1 123 -25.258
82 AF1 124 -24.770
82 AF1 125 -24.282
82 AF1 126 -23.794
82 AF1 127 -24.770
82 AF1 128 -25.747
82 AF1 129 -26.723
82 AF1 130 -26.235
82 AF1 131 -25.258
82 AF1 132 -24.282
82 AF1 133 -23.305
82 AF1 134 -23.794
82 AF1 135 -24.282
82 AF1 136 -25.258
82 AF1 137 -25.258
82 AF1 138 -25.258
82 AF1 139 -24.770
82 AF1 140 -23.794
82 AF1 141 -23.305
82 AF1 142 -22.817
82 AF1 143 -21.840
82 AF1 144 -21.352
82 AF1 145 -21.352
82 AF1 146 -21.840
82 AF1 147 -22.817
82 AF1 148 -24.282
82 AF1 149 -25.258
82 AF1 150 -25.747
82 AF1 151 -25.747
82 AF1 152 -25.258
82 AF1 153 -23.794
82 AF1 154 -21.840
82 AF1 155 -19.887
82 AF1 156 -17.934
82 AF1 157 -16.958
82 AF1 158 -16.469
82 AF1 159 -16.469
82 AF1 160 -15.981
82 AF1 161 -15.981
82 AF1 162 -16.469
82 AF1 163 -16.958
82 AF1 164 -17.446
82 AF1 165 -16.958
82 AF1 166 -15.981
82 AF1 167 -14.516
82 AF1 168 -13.540
82 AF1 169 -14.028
82 AF1 170 -15.981
82 AF1 171 -17.934
82 AF1 172 -18.422
82 AF1 173 -18.422
82 AF1 174 -17.934
82 AF1 175 -16.958
82 AF1 176 -16.958
82 AF1 177 -16.469
82 AF1 178 -15.981
82 AF1 179 -15.004
82 AF1 180 -13.051
82 AF1 181 -11.587
82 AF1 182 -11.098
82 AF1 183 -12.075
82 AF1 184 -13.540
82 AF1 185 -15.493
82 AF1 186 -16.958
82 AF1 187 -18.422
82 AF1 188 -19.887
82 AF1 189 -20.376
82 AF1 190 -20.376
82 AF1 191 -20.376
82 AF1 192 -19.887
82 AF1 193 -20.864
82 AF1 194 -21.840
82 AF1 195 -23.305
82 AF1 196 -23.794
82 AF1 197 -23.305
82 AF1 198 -21.352
82 AF1 199 -18.911
82 AF1 200 -16.958
82 AF1 201 -16.469
82 AF1 202 -15.981
82 AF1 203 -16.469
82 AF1 204 -17.446
82 AF1 205 -17.934
82 AF1 206 -18.911
82 AF1 207 -19.887
82 AF1 208 -21.352
82 AF1 209 -22.329
82 AF1 210 -22.817
82 AF1 211 -23.305
82 AF1 212 -22.329
82 AF1 213 -20.864
82 AF1 214 -18.911
82 AF1 215 -17.446
82 AF1 216 -16.958
82 AF1 217 -17.934
82 AF1 218 -19.399
82 AF1 219 -20.864
82 AF1 220 -21.352
82 AF1 221 -20.376
82 AF1 222 -18.911
82 AF1 223 -16.958
82 AF1 224 -15.981
82 AF1 225 -15.004
82 AF1 226 -14.028
82 AF1 227 -13.540
82 AF1 228 -12.563
82 AF1 229 -12.075
82 AF1 230 -12.075
82 AF1 231 -12.075
82 AF1 232 -13.051
82 AF1 233 -13.540
82 AF1 234 -13.051
82 AF1 235 -12.075
82 AF1 236 -10.122
82 AF1 237 -7.680
82 AF1 238 -5.239
82 AF1 239 -3.286
82 AF1 240 -2.309
82 AF1 241 -2.797
82 AF1 242 -3.774
82 AF1 243 -4.262
82 AF1 244 -3.774
82 AF1 245 -2.309
82 AF1 246 -0.356
82 AF1 247 2.085
82 AF1 248 4.038
82 AF1 249 5.015
82 AF1 250 5.992
82 AF1 251 5.992
82 AF1 252 5.992
82 AF1 253 5.992
82 AF1 254 5.992
82 AF1 255 5.503
# AF2 chan 5
82 AF2 0 -18.850
82 AF2 1 -18.361
82 AF2 2 -18.361
82 AF2 3 -17.385
82 AF2 4 -16.408
82 AF2 5 -15.920
82 AF2 6 -15.432
82 AF2 7 -15.920
82 AF2 8 -16.408
82 AF2 9 -16.897
82 AF2 10 -16.897
82 AF2 11 -16.408
82 AF2 12 -15.920
82 AF2 13 -15.920
82 AF2 14 -15.920
82 AF2 15 -16.408
82 AF2 16 -17.873
82 AF2 17 -19.338
82 AF2 18 -20.803
82 AF2 19 -22.756
82 AF2 20 -25.197
82 AF2 21 -27.150
82 AF2 22 -28.615
82 AF2 23 -28.127
82 AF2 24 -26.174
82 AF2 25 -23.733
82 AF2 26 -20.315
82 AF2 27 -17.873
82 AF2 28 -16.408
82 AF2 29 -14.943
82 AF2 30 -13.967
82 AF2 31 -12.990
82 AF2 32 -12.990
82 AF2 33 -14.455
82 AF2 34 -15.920
82 AF2 35 -18.361
82 AF2 36 -20.315
82 AF2 37 -22.268
82 AF2 38 -22.756
82 AF2 39 -23.244
82 AF2 40 -23.733
82 AF2 41 -24.221
82 AF2 42 -24.221
82 AF2 43 -23.244
82 AF2 44 -21.779
82 AF2 45 -19.826
82 AF2 46 -17.873
82 AF2 47 -16.408
82 AF2 48 -16.408
82 AF2 49 -15.920
82 AF2 50 -16.408
82 AF2 51 -16.408
82 AF2 52 -15.920
82 AF2 53 -15.432
82 AF2 54 -14.455
82 AF2 55 -13.967
82 AF2 56 -13.967
82 AF2 57 -14.455
82 AF2 58 -15.920
82 AF2 59 -17.385
82 AF2 60 -17.873
82 AF2 61 -16.897
82 AF2 62 -15.920
82 AF2 63 -13.967
82 AF2 64 -12.990
82 AF2 65 -12.990
82 AF2 66 -13.479
82 AF2 67 -13.967
82 AF2 68 -14.455
82 AF2 69 -14.943
82 AF2 70 -15.920
82 AF2 71 -16.408
82 AF2 72 -17.385
82 AF2 73 -18.361
82 AF2 74 -18.361
82 AF2 75 -18.361
82 AF2 76 -17.873
82 AF2 77 -17.385
82 AF2 78 -16.897
82 AF2 79 -15.920
82 AF2 80 -14.943
82 AF2 81 -14.455
82 AF2 82 -14.455
82 AF2 83 -14.943
82 AF2 84 -16.408
82 AF2 85 -18.850
82 AF2 86 -20.803
82 AF2 87 -22.756
82 AF2 88 -24.221
82 AF2 89 -25.197
82 AF2 90 -26.174
82 AF2 91 -27.150
82 AF2 92 -26.662
82 AF2 93 -25.197
82 AF2 94 -23.733
82 AF2 95 -21.779
82 AF2 96 -20.315
82 AF2 97 -19.338
82 AF2 98 -18.850
82 AF2 99 -18.850
82 AF2 100 -18.361
82 AF2 101 -18.850
82 AF2 102 -19.338
82 AF2 103 -20.803
82 AF2 104 -22.268
82 AF2 105 -23.733
82 AF2 106 -24.709
82 AF2 107 -24.709
82 AF2 108 -24.221
82 AF2 109 -23.244
82 AF2 110 -22.268
82 AF2 111 -20.803
82 AF2 112 -19.826
82 AF2 113 -19.338
82 AF2 114 -18.850
82 AF2 115 -19.338
82 AF2 116 -20.315
82 AF2 117 -21.291
82 AF2 118 -22.268
82 AF2 119 -23.733
82 AF2 120 -25.197
82 AF2 121 -26.662
82 AF2 122 -27.150
82 AF2 123 -26.174
82 AF2 124 -24.709
82 AF2 125 -22.756
82 AF2 126 -21.291
82 AF2 127 -20.315
82 AF2 128 -20.803
82 AF2 129 -21.779
82 AF2 130 -22.756
82 AF2 131 -23.733
82 AF2 132 -24.221
82 AF2 133 -25.197
82 AF2 134 -26.174
82 AF2 135 -27.150
82 AF2 136 -27.150
82 AF2 137 -27.150
82 AF2 138 -26.174
82 AF2 139 -25.197
82 AF2 140 -24.221
82 AF2 141 -23.244
82 AF2 142 -22.268
82 AF2 143 -21.779
82 AF2 144 -21.291
82 AF2 145 -20.315
82 AF2 146 -19.826
82 AF2 147 -20.315
82 AF2 148 -21.291
82 AF2 149 -22.268
82 AF2 150 -23.244
82 AF2 151 -23.733
82 AF2 152 -22.756
82 AF2 153 -21.291
82 AF2 154 -19.338
82 AF2 155 -17.385
82 AF2 156 -15.920
82 AF2 157 -14.943
82 AF2 158 -13.967
82 AF2 159 -13.479
82 AF2 160 -13.479
82 AF2 161 -13.967
82 AF2 162 -14.455
82 AF2 163 -15.432
82 AF2 164 -15.920
82 AF2 165 -15.920
82 AF2 166 -14.943
82 AF2 167 -13.967
82 AF2 168 -13.479
82 AF2 169 -13.967
82 AF2 170 -14.943
82 AF2 171 -15.920
82 AF2 172 -16.408
82 AF2 173 -16.408
82 AF2 174 -16.408
82 AF2 175 -15.920
82 AF2 176 -16.408
82 AF2 177 -17.385
82 AF2 178 -17.873
82 AF2 179 -17.385
82 AF2 180 -16.897
82 AF2 181 -16.408
82 AF2 182 -15.920
82 AF2 183 -15.920
82 AF2 184 -15.920
82 AF2 185 -16.408
82 AF2 186 -17.385
82 AF2 187 -18.850
82 AF2 188 -20.315
82 AF2 189 -21.779
82 AF2 190 -22.268
82 AF2 191 -21.779
82 AF2 192 -20.315
82 AF2 193 -18.850
82 AF2 194 -18.850
82 AF2 195 -19.826
82 AF2 196 -20.803
82 AF2 197 -21.779
82 AF2 198 -21.779
82 AF2 199 -20.315
82 AF2 200 -18.361
82 AF2 201 -17.385
82 AF2 202 -16.408
82 AF2 203 -16.897
82 AF2 204 -17.873
82 AF2 205 -18.361
82 AF2 206 -18.850
82 AF2 207 -19.338
82 AF2 208 -19.826
82 AF2 209 -20.315
82 AF2 210 -20.315
82 AF2 211 -20.803
82 AF2 212 -20.315
82 AF2 213 -19.338
82 AF2 214 -17.873
82 AF2 215 -16.897
82 AF2 216 -17.385
82 AF2 217 -18.361
82 AF2 218 -19.826
82 AF2 219 -20.803
82 AF2 220 -21.291
82 AF2 221 -20.803
82 AF2 222 -19.826
82 AF2 223 -18.361
82 AF2 224 -17.385
82 AF2 225 -16.408
82 AF2 226 -14.943
82 AF2 227 -13.967
82 AF2 228 -12.990
82 AF2 229 -12.014
82 AF2 230 -12.014
82 AF2 231 -12.990
82 AF2 232 -13.967
82 AF2 233 -14.455
82 AF2 234 -13.967
82 AF2 235 -12.502
82 AF2 236 -10.549
82 AF2 237 -8.108
82 AF2 238 -5.666
82 AF2 239 -5.178
82 AF2 240 -4.690
82 AF2 241 -5.666
82 AF2 242 -6.154
82 AF2 243 -5.666
82 AF2 244 -3.713
82 AF2 245 -1.272
82 AF2 246 1.658
82 AF2 247 3.611
82 AF2 248 5.076
82 AF2 249 5.564
82 AF2 250 6.053
82 AF2 251 6.541
82 AF2 252 7.029
82 AF2 253 7.517
82 AF2 254 8.006
82 AF2 255 8.006
# FZ chan 6
82 FZ 0 -18.646
82 FZ 1 -17.670
82 FZ 2 -16.205
82 FZ 3 -15.228
82 FZ 4 -13.763
82 FZ 5 -12.299
82 FZ 6 -11.322
82 FZ 7 -10.834
82 FZ 8 -9.857
82 FZ 9 -9.857
82 FZ 10 -9.857
82 FZ 11 -10.345
82 FZ 12 -11.322
82 FZ 13 -12.299
82 FZ 14 -13.275
82 FZ 15 -14.252
82 FZ 16 -15.717
82 FZ 17 -16.693
82 FZ 18 -17.670
82 FZ 19 -19.135
82 FZ 20 -20.599
82 FZ 21 -21.576
82 FZ 22 -22.552
82 FZ 23 -22.552
82 FZ 24 -21.088
82 FZ 25 -19.623
82 FZ 26 -17.181
82 FZ 27 -15.717
82 FZ 28 -14.252
82 FZ 29 -13.275
82 FZ 30 -12.787
82 FZ 31 -11.810
82 FZ 32 -11.810
82 FZ 33 -11.810
82 FZ 34 -12.787
82 FZ 35 -14.252
82 FZ 36 -15.228
82 FZ 37 -16.693
82 FZ 38 -17.181
82 FZ 39 -17.670
82 FZ 40 -17.670
82 FZ 41 -17.181
82 FZ 42 -17.181
82 FZ 43 -16.205
82 FZ 44 -15.228
82 FZ 45 -13.763
82 FZ 46 -11.810
82 FZ 47 -10.834
82 FZ 48 -9.857
82 FZ 49 -9.857
82 FZ 50 -9.857
82 FZ 51 -9.857
82 FZ 52 -9.369
82 FZ 53 -7.904
82 FZ 54 -6.927
82 FZ 55 -5.463
82 FZ 56 -5.463
82 FZ 57 -6.439
82 FZ 58 -7.904
82 FZ 59 -9.857
82 FZ 60 -11.322
82 FZ 61 -11.322
82 FZ 62 -10.345
82 FZ 63 -9.857
82 FZ 64 -9.369
82 FZ 65 -9.857
82 FZ 66 -9.857
82 FZ 67 -9.857
82 FZ 68 -9.857
82 FZ 69 -9.369
82 FZ 70 -9.369
82 FZ 71 -9.369
82 FZ 72 -9.369
82 FZ 73 -9.857
82 FZ 74 -9.857
82 FZ 75 -10.345
82 FZ 76 -10.834
82 FZ 77 -10.834
82 FZ 78 -10.345
82 FZ 79 -9.857
82 FZ 80 -8.881
82 FZ 81 -8.881
82 FZ 82 -8.881
82 FZ 83 -9.857
82 FZ 84 -10.834
82 FZ 85 -12.299
82 FZ 86 -13.763
82 FZ 87 -15.228
82 FZ 88 -16.693
82 FZ 89 -18.158
82 FZ 90 -19.135
82 FZ 91 -20.111
82 FZ 92 -19.135
82 FZ 93 -18.158
82 FZ 94 -17.181
82 FZ 95 -16.205
82 FZ 96 -15.717
82 FZ 97 -14.740
82 FZ 98 -14.252
82 FZ 99 -13.275
82 FZ 100 -12.787
82 FZ 101 -12.787
82 FZ 102 -13.763
82 FZ 103 -14.740
82 FZ 104 -16.205
82 FZ 105 -16.693
82 FZ 106 -16.693
82 FZ 107 -16.693
82 FZ 108 -16.205
82 FZ 109 -15.717
82 FZ 110 -15.717
82 FZ 111 -15.717
82 FZ 112 -15.717
82 FZ 113 -14.740
82 FZ 114 -14.740
82 FZ 115 -14.252
82 FZ 116 -13.763
82 FZ 117 -14.252
82 FZ 118 -14.740
82 FZ 119 -15.228
82 FZ 120 -15.717
82 FZ 121 -16.693
82 FZ 122 -17.181
82 FZ 123 -17.670
82 FZ 124 -17.181
82 FZ 125 -16.205
82 FZ 126 -15.717
82 FZ 127 -15.228
82 FZ 128 -15.717
82 FZ 129 -15.717
82 FZ 130 -16.205
82 FZ 131 -17.181
82 FZ 132 -17.181
82 FZ 133 -17.181
82 FZ 134 -17.181
82 FZ 135 -17.670
82 FZ 136 -17.670
82 FZ 137 -17.670
82 FZ 138 -18.158
82 FZ 139 -18.158
82 FZ 140 -18.158
82 FZ 141 -17.670
82 FZ 142 -17.181
82 FZ 143 -16.205
82 FZ 144 -15.228
82 FZ 145 -14.252
82 FZ 146 -14.252
82 FZ 147 -14.740
82 FZ 148 -16.205
82 FZ 149 -17.670
82 FZ 150 -18.646
82 FZ 151 -18.646
82 FZ 152 -17.670
82 FZ 153 -16.205
82 FZ 154 -14.740
82 FZ 155 -12.787
82 FZ 156 -11.810
82 FZ 157 -11.322
82 FZ 158 -10.834
82 FZ 159 -9.857
82 FZ 160 -9.857
82 FZ 161 -9.857
82 FZ 162 -10.345
82 FZ 163 -11.322
82 FZ 164 -11.810
82 FZ 165 -11.810
82 FZ 166 -11.322
82 FZ 167 -10.834
82 FZ 168 -10.345
82 FZ 169 -10.345
82 FZ 170 -11.322
82 FZ 171 -11.810
82 FZ 172 -11.810
82 FZ 173 -11.810
82 FZ 174 -11.322
82 FZ 175 -11.322
82 FZ 176 -11.810
82 FZ 177 -12.299
82 FZ 178 -12.299
82 FZ 179 -11.810
82 FZ 180 -10.834
82 FZ 181 -10.834
82 FZ 182 -10.834
82 FZ 183 -11.322
82 FZ 184 -11.810
82 FZ 185 -12.787
82 FZ 186 -13.275
82 FZ 187 -14.740
82 FZ 188 -15.717
82 FZ 189 -16.693
82 FZ 190 -17.181
82 FZ 191 -16.205
82 FZ 192 -15.228
82 FZ 193 -13.763
82 FZ 194 -13.763
82 FZ 195 -14.252
82 FZ 196 -15.228
82 FZ 197 -16.205
82 FZ 198 -16.693
82 FZ 199 -16.205
82 FZ 200 -15.228
82 FZ 201 -14.252
82 FZ 202 -13.275
82 FZ 203 -12.299
82 FZ 204 -12.299
82 FZ 205 -12.787
82 FZ 206 -13.763
82 FZ 207 -14.252
82 FZ 208 -15.717
82 FZ 209 -16.205
82 FZ 210 -17.181
82 FZ 211 -17.181
82 FZ 212 -16.205
82 FZ 213 -14.740
82 FZ 214 -12.787
82 FZ 215 -11.322
82 FZ 216 -11.810
82 FZ 217 -13.275
82 FZ 218 -14.740
82 FZ 219 -15.717
82 FZ 220 -16.205
82 FZ 221 -15.228
82 FZ 222 -13.763
82 FZ 223 -11.810
82 FZ 224 -10.834
82 FZ 225 -9.857
82 FZ 226 -9.369
82 FZ 227 -8.881
82 FZ 228 -8.881
82 FZ 229 -9.369
82 FZ 230 -9.369
82 FZ 231 -9.857
82 FZ 232 -9.857
82 FZ 233 -9.857
82 FZ 234 -9.857
82 FZ 235 -9.369
82 FZ 236 -7.904
82 FZ 237 -5.951
82 FZ 238 -4.486
82 FZ 239 -3.021
82 FZ 240 -3.021
82 FZ 241 -3.998
82 FZ 242 -4.974
82 FZ 243 -5.951
82 FZ 244 -5.463
82 FZ 245 -3.998
82 FZ 246 -2.045
82 FZ 247 -0.580
82 FZ 248 -0.092
82 FZ 249 0.397
82 FZ 250 0.885
82 FZ 251 0.885
82 FZ 252 1.373
82 FZ 253 2.350
82 FZ 254 2.350
82 FZ 255 2.350
# F4 chan 7
82 F4 0 -11.505
82 F4 1 -11.505
82 F4 2 -11.505
82 F4 3 -11.505
82 F4 4 -10.529
82 F4 5 -10.040
82 F4 6 -10.040
82 F4 7 -11.017
82 F4 8 -12.482
82 F4 9 -12.970
82 F4 10 -12.482
82 F4 11 -11.505
82 F4 12 -10.040
82 F4 13 -9.552
82 F4 14 -9.552
82 F4 15 -10.040
82 F4 16 -10.529
82 F4 17 -10.529
82 F4 18 -11.993
82 F4 19 -13.458
82 F4 20 -16.388
82 F4 21 -19.318
82 F4 22 -21.271
82 F4 23 -21.271
82 F4 24 -19.806
82 F4 25 -16.876
82 F4 26 -14.435
82 F4 27 -12.482
82 F4 28 -11.017
82 F4 29 -10.040
82 F4 30 -8.575
82 F4 31 -7.111
82 F4 32 -6.622
82 F4 33 -7.111
82 F4 34 -9.064
82 F4 35 -11.017
82 F4 36 -12.482
82 F4 37 -13.947
82 F4 38 -14.435
82 F4 39 -15.411
82 F4 40 -16.388
82 F4 41 -16.876
82 F4 42 -16.876
82 F4 43 -15.900
82 F4 44 -14.435
82 F4 45 -12.482
82 F4 46 -11.017
82 F4 47 -10.040
82 F4 48 -9.552
82 F4 49 -9.064
82 F4 50 -9.064
82 F4 51 -8.087
82 F4 52 -8.087
82 F4 53 -8.087
82 F4 54 -7.599
82 F4 55 -7.111
82 F4 56 -7.599
82 F4 57 -8.087
82 F4 58 -10.040
82 F4 59 -11.505
82 F4 60 -11.505
82 F4 61 -10.040
82 F4 62 -7.599
82 F4 63 -6.134
82 F4 64 -5.157
82 F4 65 -5.646
82 F4 66 -6.134
82 F4 67 -6.622
82 F4 68 -6.622
82 F4 69 -7.111
82 F4 70 -8.575
82 F4 71 -10.040
82 F4 72 -11.505
82 F4 73 -11.993
82 F4 74 -11.505
82 F4 75 -11.505
82 F4 76 -11.017
82 F4 77 -11.505
82 F4 78 -11.993
82 F4 79 -11.993
82 F4 80 -10.529
82 F4 81 -8.575
82 F4 82 -7.111
82 F4 83 -7.599
82 F4 84 -9.064
82 F4 85 -11.017
82 F4 86 -12.970
82 F4 87 -14.435
82 F4 88 -15.411
82 F4 89 -16.388
82 F4 90 -16.876
82 F4 91 -17.365
82 F4 92 -16.876
82 F4 93 -15.900
82 F4 94 -13.947
82 F4 95 -12.482
82 F4 96 -11.993
82 F4 97 -12.482
82 F4 98 -12.970
82 F4 99 -12.970
82 F4 100 -12.970
82 F4 101 -12.482
82 F4 102 -11.993
82 F4 103 -12.482
82 F4 104 -12.970
82 F4 105 -13.947
82 F4 106 -14.435
82 F4 107 -14.923
82 F4 108 -14.923
82 F4 109 -14.435
82 F4 110 -13.458
82 F4 111 -12.482
82 F4 112 -11.505
82 F4 113 -11.017
82 F4 114 -11.505
82 F4 115 -12.482
82 F4 116 -13.458
82 F4 117 -14.435
82 F4 118 -14.923
82 F4 119 -16.388
82 F4 120 -17.853
82 F4 121 -19.318
82 F4 122 -19.318
82 F4 123 -18.341
82 F4 124 -15.900
82 F4 125 -13.458
82 F4 126 -11.993
82 F4 127 -11.505
82 F4 128 -12.482
82 F4 129 -12.482
82 F4 130 -12.970
82 F4 131 -13.458
82 F4 132 -14.435
82 F4 133 -15.411
82 F4 134 -16.388
82 F4 135 -17.365
82 F4 136 -17.365
82 F4 137 -16.876
82 F4 138 -16.388
82 F4 139 -16.388
82 F4 140 -15.900
82 F4 141 -15.411
82 F4 142 -14.923
82 F4 143 -13.458
82 F4 144 -12.482
82 F4 145 -11.505
82 F4 146 -11.505
82 F4 147 -11.993
82 F4 148 -12.482
82 F4 149 -13.458
82 F4 150 -13.947
82 F4 151 -14.435
82 F4 152 -14.435
82 F4 153 -13.458
82 F4 154 -12.482
82 F4 155 -11.017
82 F4 156 -10.040
82 F4 157 -9.064
82 F4 158 -8.575
82 F4 159 -8.087
82 F4 160 -8.575
82 F4 161 -9.552
82 F4 162 -10.529
82 F4 163 -11.017
82 F4 164 -11.017
82 F4 165 -10.040
82 F4 166 -9.064
82 F4 167 -8.087
82 F4 168 -8.087
82 F4 169 -8.575
82 F4 170 -9.064
82 F4 171 -9.552
82 F4 172 -9.064
82 F4 173 -8.575
82 F4 174 -8.575
82 F4 175 -9.064
82 F4 176 -10.040
82 F4 177 -11.017
82 F4 178 -11.017
82 F4 179 -11.017
82 F4 180 -10.529
82 F4 181 -11.017
82 F4 182 -10.529
82 F4 183 -10.529
82 F4 184 -9.552
82 F4 185 -9.064
82 F4 186 -9.064
82 F4 187 -10.529
82 F4 188 -11.993
82 F4 189 -13.947
82 F4 190 -14.435
82 F4 191 -13.947
82 F4 192 -11.993
82 F4 193 -11.017
82 F4 194 -11.505
82 F4 195 -12.482
82 F4 196 -13.458
82 F4 197 -13.458
82 F4 198 -13.458
82 F4 199 -12.482
82 F4 200 -11.505
82 F4 201 -11.017
82 F4 202 -11.017
82 F4 203 -11.017
82 F4 204 -11.505
82 F4 205 -11.993
82 F4 206 -11.993
82 F4 207 -12.482
82 F4 208 -12.482
82 F4 209 -11.993
82 F4 210 -12.482
82 F4 211 -12.970
82 F4 212 -12.970
82 F4 213 -12.482
82 F4 214 -11.505
82 F4 215 -10.529
82 F4 216 -11.017
82 F4 217 -11.993
82 F4 218 -13.458
82 F4 219 -14.435
82 F4 220 -14.923
82 F4 221 -14.435
82 F4 222 -12.970
82 F4 223 -12.482
82 F4 224 -11.993
82 F4 225 -11.505
82 F4 226 -10.529
82 F4 227 -9.552
82 F4 228 -8.087
82 F4 229 -7.111
82 F4 230 -7.599
82 F4 231 -8.575
82 F4 232 -9.552
82 F4 233 -9.552
82 F4 234 -9.064
82 F4 235 -7.599
82 F4 236 -5.646
82 F4 237 -4.669
82 F4 238 -3.693
82 F4 239 -4.181
82 F4 240 -4.669
82 F4 241 -5.646
82 F4 242 -5.646
82 F4 243 -4.669
82 F4 244 -3.204
82 F4 245 -1.740
82 F4 246 0.214
82 F4 247 1.190
82 F4 248 2.167
82 F4 249 2.655
82 F4 250 3.143
82 F4 251 3.143
82 F4 252 3.632
82 F4 253 4.608
82 F4 254 5.096
82 F4 255 6.073
# F3 chan 8
82 F3 0 -22.461
82 F3 1 -20.508
82 F3 2 -18.555
82 F3 3 -16.113
82 F3 4 -14.160
82 F3 5 -12.207
82 F3 6 -10.254
82 F3 7 -8.301
82 F3 8 -6.836
82 F3 9 -5.859
82 F3 10 -5.371
82 F3 11 -6.836
82 F3 12 -8.789
82 F3 13 -12.207
82 F3 14 -15.137
82 F3 15 -18.066
82 F3 16 -19.043
82 F3 17 -19.531
82 F3 18 -19.043
82 F3 19 -18.555
82 F3 20 -18.555
82 F3 21 -19.043
82 F3 22 -19.043
82 F3 23 -18.555
82 F3 24 -17.090
82 F3 25 -14.648
82 F3 26 -12.695
82 F3 27 -11.230
82 F3 28 -10.742
82 F3 29 -10.742
82 F3 30 -11.230
82 F3 31 -11.230
82 F3 32 -11.719
82 F3 33 -11.719
82 F3 34 -11.719
82 F3 35 -11.719
82 F3 36 -11.230
82 F3 37 -11.230
82 F3 38 -11.230
82 F3 39 -12.207
82 F3 40 -13.184
82 F3 41 -13.672
82 F3 42 -13.672
82 F3 43 -13.184
82 F3 44 -12.695
82 F3 45 -12.207
82 F3 46 -11.719
82 F3 47 -11.230
82 F3 48 -10.254
82 F3 49 -9.766
82 F3 50 -9.277
82 F3 51 -8.301
82 F3 52 -7.324
82 F3 53 -5.859
82 F3 54 -3.906
82 F3 55 -2.930
82 F3 56 -2.441
82 F3 57 -2.930
82 F3 58 -5.371
82 F3 59 -7.812
82 F3 60 -9.766
82 F3 61 -11.230
82 F3 62 -12.207
82 F3 63 -12.207
82 F3 64 -12.207
82 F3 65 -12.207
82 F3 66 -12.207
82 F3 67 -11.719
82 F3 68 -10.742
82 F3 69 -9.277
82 F3 70 -6.836
82 F3 71 -4.395
82 F3 72 -3.418
82 F3 73 -3.906
82 F3 74 -5.859
82 F3 75 -7.324
82 F3 76 -8.301
82 F3 77 -7.812
82 F3 78 -6.348
82 F3 79 -5.859
82 F3 80 -5.859
82 F3 81 -6.836
82 F3 82 -8.301
82 F3 83 -9.766
82 F3 84 -10.254
82 F3 85 -10.254
82 F3 86 -10.254
82 F3 87 -10.254
82 F3 88 -11.230
82 F3 89 -12.207
82 F3 90 -13.184
82 F3 91 -13.672
82 F3 92 -14.648
82 F3 93 -14.648
82 F3 94 -14.648
82 F3 95 -14.160
82 F3 96 -13.672
82 F3 97 -13.184
82 F3 98 -12.695
82 F3 99 -12.207
82 F3 100 -12.207
82 F3 101 -12.695
82 F3 102 -13.672
82 F3 103 -15.137
82 F3 104 -16.113
82 F3 105 -16.113
82 F3 106 -15.625
82 F3 107 -14.160
82 F3 108 -13.184
82 F3 109 -12.695
82 F3 110 -12.207
82 F3 111 -11.719
82 F3 112 -11.230
82 F3 113 -10.254
82 F3 114 -9.766
82 F3 115 -9.277
82 F3 116 -9.766
82 F3 117 -10.254
82 F3 118 -10.742
82 F3 119 -11.230
82 F3 120 -11.719
82 F3 121 -12.207
82 F3 122 -13.184
82 F3 123 -13.672
82 F3 124 -13.184
82 F3 125 -12.695
82 F3 126 -12.207
82 F3 127 -12.695
82 F3 128 -14.160
82 F3 129 -15.625
82 F3 130 -16.602
82 F3 131 -16.113
82 F3 132 -14.648
82 F3 133 -13.184
82 F3 134 -13.184
82 F3 135 -13.184
82 F3 136 -13.672
82 F3 137 -14.160
82 F3 138 -13.672
82 F3 139 -13.184
82 F3 140 -13.184
82 F3 141 -13.184
82 F3 142 -13.184
82 F3 143 -13.184
82 F3 144 -13.184
82 F3 145 -12.695
82 F3 146 -12.207
82 F3 147 -11.719
82 F3 148 -11.719
82 F3 149 -12.207
82 F3 150 -12.695
82 F3 151 -12.695
82 F3 152 -13.184
82 F3 153 -12.207
82 F3 154 -10.742
82 F3 155 -8.789
82 F3 156 -7.812
82 F3 157 -7.324
82 F3 158 -7.324
82 F3 159 -6.836
82 F3 160 -6.348
82 F3 161 -5.859
82 F3 162 -6.348
82 F3 163 -6.836
82 F3 164 -7.812
82 F3 165 -7.812
82 F3 166 -7.324
82 F3 167 -6.348
82 F3 168 -5.859
82 F3 169 -6.348
82 F3 170 -7.812
82 F3 171 -8.789
82 F3 172 -8.789
82 F3 173 -8.789
82 F3 174 -7.324
82 F3 175 -6.348
82 F3 176 -5.371
82 F3 177 -4.883
82 F3 178 -4.883
82 F3 179 -4.883
82 F3 180 -4.395
82 F3 181 -4.883
82 F3 182 -5.371
82 F3 183 -6.348
82 F3 184 -7.812
82 F3 185 -9.277
82 F3 186 -10.254
82 F3 187 -11.230
82 F3 188 -11.719
82 F3 189 -11.719
82 F3 190 -11.719
82 F3 191 -11.719
82 F3 192 -11.719
82 F3 193 -12.207
82 F3 194 -12.695
82 F3 195 -13.184
82 F3 196 -13.672
82 F3 197 -13.184
82 F3 198 -11.719
82 F3 199 -10.254
82 F3 200 -9.277
82 F3 201 -8.789
82 F3 202 -8.301
82 F3 203 -8.789
82 F3 204 -9.277
82 F3 205 -9.766
82 F3 206 -10.254
82 F3 207 -10.254
82 F3 208 -10.742
82 F3 209 -11.719
82 F3 210 -12.695
82 F3 211 -13.184
82 F3 212 -13.184
82 F3 213 -12.207
82 F3 214 -10.254
82 F3 215 -9.277
82 F3 216 -9.277
82 F3 217 -9.766
82 F3 218 -11.230
82 F3 219 -11.230
82 F3 220 -11.230
82 F3 221 -9.766
82 F3 222 -8.789
82 F3 223 -7.812
82 F3 224 -7.324
82 F3 225 -7.812
82 F3 226 -7.812
82 F3 227 -7.324
82 F3 228 -7.812
82 F3 229 -7.812
82 F3 230 -7.812
82 F3 231 -8.301
82 F3 232 -9.277
82 F3 233 -9.277
82 F3 234 -9.766
82 F3 235 -9.277
82 F3 236 -8.789
82 F3 237 -6.836
82 F3 238 -4.395
82 F3 239 -2.930
82 F3 240 -1.953
82 F3 241 -2.441
82 F3 242 -3.418
82 F3 243 -4.395
82 F3 244 -4.883
82 F3 245 -3.418
82 F3 246 -1.465
82 F3 247 0.488
82 F3 248 1.465
82 F3 249 2.441
82 F3 250 2.441
82 F3 251 1.953
82 F3 252 2.441
82 F3 253 2.441
82 F3 254 1.953
82 F3 255 1.465
# FC6 chan 9
82 FC6 0 -2.858
82 FC6 1 -3.347
82 FC6 2 -2.858
82 FC6 3 -2.370
82 FC6 4 -1.394
82 FC6 5 -0.417
82 FC6 6 -0.905
82 FC6 7 -2.858
82 FC6 8 -4.323
82 FC6 9 -5.788
82 FC6 10 -6.276
82 FC6 11 -5.300
82 FC6 12 -4.323
82 FC6 13 -3.347
82 FC6 14 -3.347
82 FC6 15 -3.347
82 FC6 16 -3.835
82 FC6 17 -3.835
82 FC6 18 -4.812
82 FC6 19 -6.276
82 FC6 20 -8.718
82 FC6 21 -11.159
82 FC6 22 -12.624
82 FC6 23 -12.624
82 FC6 24 -11.159
82 FC6 25 -8.718
82 FC6 26 -6.765
82 FC6 27 -5.300
82 FC6 28 -5.300
82 FC6 29 -4.812
82 FC6 30 -4.812
82 FC6 31 -4.323
82 FC6 32 -3.835
82 FC6 33 -3.835
82 FC6 34 -4.323
82 FC6 35 -5.300
82 FC6 36 -5.788
82 FC6 37 -6.765
82 FC6 38 -7.253
82 FC6 39 -8.230
82 FC6 40 -9.206
82 FC6 41 -10.183
82 FC6 42 -10.671
82 FC6 43 -9.694
82 FC6 44 -8.718
82 FC6 45 -7.741
82 FC6 46 -7.253
82 FC6 47 -6.765
82 FC6 48 -5.788
82 FC6 49 -4.812
82 FC6 50 -3.835
82 FC6 51 -2.858
82 FC6 52 -3.347
82 FC6 53 -3.835
82 FC6 54 -4.812
82 FC6 55 -5.300
82 FC6 56 -6.276
82 FC6 57 -7.253
82 FC6 58 -8.230
82 FC6 59 -9.206
82 FC6 60 -9.206
82 FC6 61 -7.741
82 FC6 62 -5.300
82 FC6 63 -2.370
82 FC6 64 -0.417
82 FC6 65 0.559
82 FC6 66 0.559
82 FC6 67 0.071
82 FC6 68 -0.905
82 FC6 69 -2.858
82 FC6 70 -5.300
82 FC6 71 -8.230
82 FC6 72 -10.183
82 FC6 73 -11.159
82 FC6 74 -10.671
82 FC6 75 -9.206
82 FC6 76 -9.206
82 FC6 77 -10.183
82 FC6 78 -11.159
82 FC6 79 -11.159
82 FC6 80 -10.183
82 FC6 81 -7.741
82 FC6 82 -5.300
82 FC6 83 -4.323
82 FC6 84 -4.812
82 FC6 85 -6.276
82 FC6 86 -7.741
82 FC6 87 -8.230
82 FC6 88 -8.230
82 FC6 89 -8.718
82 FC6 90 -9.694
82 FC6 91 -10.671
82 FC6 92 -10.671
82 FC6 93 -9.206
82 FC6 94 -7.253
82 FC6 95 -5.300
82 FC6 96 -4.812
82 FC6 97 -5.788
82 FC6 98 -7.253
82 FC6 99 -8.230
82 FC6 100 -8.230
82 FC6 101 -7.253
82 FC6 102 -5.788
82 FC6 103 -4.812
82 FC6 104 -4.812
82 FC6 105 -5.300
82 FC6 106 -6.765
82 FC6 107 -8.230
82 FC6 108 -9.206
82 FC6 109 -10.183
82 FC6 110 -10.183
82 FC6 111 -9.694
82 FC6 112 -8.718
82 FC6 113 -8.230
82 FC6 114 -7.741
82 FC6 115 -8.718
82 FC6 116 -9.694
82 FC6 117 -10.671
82 FC6 118 -10.671
82 FC6 119 -11.159
82 FC6 120 -12.136
82 FC6 121 -12.624
82 FC6 122 -12.136
82 FC6 123 -10.671
82 FC6 124 -8.718
82 FC6 125 -6.765
82 FC6 126 -5.788
82 FC6 127 -5.788
82 FC6 128 -6.276
82 FC6 129 -6.765
82 FC6 130 -6.765
82 FC6 131 -6.765
82 FC6 132 -7.253
82 FC6 133 -8.230
82 FC6 134 -9.694
82 FC6 135 -10.671
82 FC6 136 -11.159
82 FC6 137 -10.183
82 FC6 138 -9.206
82 FC6 139 -8.230
82 FC6 140 -8.230
82 FC6 141 -8.718
82 FC6 142 -9.206
82 FC6 143 -9.206
82 FC6 144 -8.230
82 FC6 145 -7.253
82 FC6 146 -6.276
82 FC6 147 -6.276
82 FC6 148 -6.765
82 FC6 149 -7.741
82 FC6 150 -8.230
82 FC6 151 -8.230
82 FC6 152 -8.230
82 FC6 153 -8.230
82 FC6 154 -8.718
82 FC6 155 -8.718
82 FC6 156 -7.741
82 FC6 157 -6.276
82 FC6 158 -5.300
82 FC6 159 -4.812
82 FC6 160 -5.300
82 FC6 161 -6.276
82 FC6 162 -7.741
82 FC6 163 -8.230
82 FC6 164 -8.718
82 FC6 165 -8.230
82 FC6 166 -7.741
82 FC6 167 -6.765
82 FC6 168 -5.788
82 FC6 169 -5.300
82 FC6 170 -4.812
82 FC6 171 -4.812
82 FC6 172 -4.323
82 FC6 173 -4.323
82 FC6 174 -4.323
82 FC6 175 -4.812
82 FC6 176 -4.812
82 FC6 177 -5.788
82 FC6 178 -6.276
82 FC6 179 -6.276
82 FC6 180 -5.788
82 FC6 181 -4.812
82 FC6 182 -3.347
82 FC6 183 -2.858
82 FC6 184 -2.858
82 FC6 185 -2.858
82 FC6 186 -2.858
82 FC6 187 -2.858
82 FC6 188 -3.347
82 FC6 189 -3.835
82 FC6 190 -4.812
82 FC6 191 -5.300
82 FC6 192 -5.300
82 FC6 193 -5.300
82 FC6 194 -4.812
82 FC6 195 -5.300
82 FC6 196 -6.276
82 FC6 197 -6.765
82 FC6 198 -6.765
82 FC6 199 -6.276
82 FC6 200 -5.300
82 FC6 201 -5.300
82 FC6 202 -6.276
82 FC6 203 -7.253
82 FC6 204 -8.718
82 FC6 205 -8.718
82 FC6 206 -8.230
82 FC6 207 -7.741
82 FC6 208 -7.253
82 FC6 209 -7.253
82 FC6 210 -7.253
82 FC6 211 -7.253
82 FC6 212 -7.253
82 FC6 213 -7.741
82 FC6 214 -8.718
82 FC6 215 -9.694
82 FC6 216 -10.671
82 FC6 217 -10.671
82 FC6 218 -10.671
82 FC6 219 -10.183
82 FC6 220 -10.671
82 FC6 221 -11.648
82 FC6 222 -13.112
82 FC6 223 -13.601
82 FC6 224 -13.601
82 FC6 225 -12.624
82 FC6 226 -10.671
82 FC6 227 -8.718
82 FC6 228 -7.253
82 FC6 229 -5.788
82 FC6 230 -5.788
82 FC6 231 -6.765
82 FC6 232 -8.230
82 FC6 233 -8.718
82 FC6 234 -8.718
82 FC6 235 -7.253
82 FC6 236 -5.788
82 FC6 237 -4.323
82 FC6 238 -4.812
82 FC6 239 -5.788
82 FC6 240 -7.741
82 FC6 241 -9.206
82 FC6 242 -8.718
82 FC6 243 -7.253
82 FC6 244 -4.812
82 FC6 245 -2.858
82 FC6 246 -1.394
82 FC6 247 -1.882
82 FC6 248 -2.370
82 FC6 249 -2.858
82 FC6 250 -2.858
82 FC6 251 -2.370
82 FC6 252 -1.882
82 FC6 253 -0.905
82 FC6 254 -0.417
82 FC6 255 0.559
# FC5 chan 10
82 FC5 0 -16.541
82 FC5 1 -15.076
82 FC5 2 -12.634
82 FC5 3 -9.705
82 FC5 4 -7.751
82 FC5 5 -5.310
82 FC5 6 -3.357
82 FC5 7 -1.404
82 FC5 8 0.549
82 FC5 9 2.014
82 FC5 10 2.014
82 FC5 11 0.061
82 FC5 12 -3.357
82 FC5 13 -7.751
82 FC5 14 -12.634
82 FC5 15 -16.052
82 FC5 16 -18.005
82 FC5 17 -18.494
82 FC5 18 -18.494
82 FC5 19 -18.494
82 FC5 20 -18.494
82 FC5 21 -18.005
82 FC5 22 -17.029
82 FC5 23 -15.564
82 FC5 24 -13.123
82 FC5 25 -10.681
82 FC5 26 -8.728
82 FC5 27 -8.240
82 FC5 28 -8.240
82 FC5 29 -8.728
82 FC5 30 -9.216
82 FC5 31 -9.705
82 FC5 32 -10.681
82 FC5 33 -11.658
82 FC5 34 -11.658
82 FC5 35 -11.169
82 FC5 36 -10.681
82 FC5 37 -9.705
82 FC5 38 -9.705
82 FC5 39 -10.193
82 FC5 40 -10.681
82 FC5 41 -11.658
82 FC5 42 -12.146
82 FC5 43 -11.658
82 FC5 44 -11.658
82 FC5 45 -11.658
82 FC5 46 -11.658
82 FC5 47 -11.658
82 FC5 48 -10.681
82 FC5 49 -9.705
82 FC5 50 -8.728
82 FC5 51 -7.751
82 FC5 52 -6.775
82 FC5 53 -6.287
82 FC5 54 -5.798
82 FC5 55 -6.287
82 FC5 56 -6.775
82 FC5 57 -7.263
82 FC5 58 -8.240
82 FC5 59 -9.705
82 FC5 60 -11.169
82 FC5 61 -12.634
82 FC5 62 -13.611
82 FC5 63 -13.611
82 FC5 64 -12.634
82 FC5 65 -11.658
82 FC5 66 -10.681
82 FC5 67 -10.193
82 FC5 68 -10.193
82 FC5 69 -9.705
82 FC5 70 -8.240
82 FC5 71 -6.775
82 FC5 72 -5.310
82 FC5 73 -5.310
82 FC5 74 -6.287
82 FC5 75 -7.263
82 FC5 76 -7.751
82 FC5 77 -6.775
82 FC5 78 -5.798
82 FC5 79 -4.822
82 FC5 80 -5.310
82 FC5 81 -6.775
82 FC5 82 -8.728
82 FC5 83 -10.193
82 FC5 84 -10.681
82 FC5 85 -10.681
82 FC5 86 -10.193
82 FC5 87 -10.193
82 FC5 88 -10.681
82 FC5 89 -11.169
82 FC5 90 -11.658
82 FC5 91 -11.658
82 FC5 92 -12.146
82 FC5 93 -11.658
82 FC5 94 -12.146
82 FC5 95 -11.169
82 FC5 96 -10.681
82 FC5 97 -10.193
82 FC5 98 -9.216
82 FC5 99 -8.728
82 FC5 100 -7.751
82 FC5 101 -8.240
82 FC5 102 -8.728
82 FC5 103 -10.681
82 FC5 104 -12.146
82 FC5 105 -13.611
82 FC5 106 -14.099
82 FC5 107 -13.611
82 FC5 108 -12.634
82 FC5 109 -11.658
82 FC5 110 -10.681
82 FC5 111 -9.216
82 FC5 112 -8.728
82 FC5 113 -7.751
82 FC5 114 -7.751
82 FC5 115 -7.263
82 FC5 116 -7.263
82 FC5 117 -7.751
82 FC5 118 -7.751
82 FC5 119 -7.751
82 FC5 120 -8.240
82 FC5 121 -9.216
82 FC5 122 -10.681
82 FC5 123 -12.146
82 FC5 124 -12.634
82 FC5 125 -12.634
82 FC5 126 -12.634
82 FC5 127 -13.123
82 FC5 128 -13.611
82 FC5 129 -14.099
82 FC5 130 -14.099
82 FC5 131 -12.634
82 FC5 132 -11.169
82 FC5 133 -10.193
82 FC5 134 -9.705
82 FC5 135 -10.193
82 FC5 136 -11.169
82 FC5 137 -11.658
82 FC5 138 -10.681
82 FC5 139 -9.705
82 FC5 140 -8.728
82 FC5 141 -8.240
82 FC5 142 -8.728
82 FC5 143 -9.705
82 FC5 144 -10.681
82 FC5 145 -11.658
82 FC5 146 -11.658
82 FC5 147 -11.658
82 FC5 148 -10.681
82 FC5 149 -10.193
82 FC5 150 -9.216
82 FC5 151 -9.216
82 FC5 152 -9.216
82 FC5 153 -9.216
82 FC5 154 -8.240
82 FC5 155 -6.775
82 FC5 156 -5.798
82 FC5 157 -5.798
82 FC5 158 -5.798
82 FC5 159 -5.798
82 FC5 160 -5.798
82 FC5 161 -4.822
82 FC5 162 -3.845
82 FC5 163 -3.845
82 FC5 164 -4.333
82 FC5 165 -4.333
82 FC5 166 -4.822
82 FC5 167 -4.333
82 FC5 168 -3.845
82 FC5 169 -4.333
82 FC5 170 -4.822
82 FC5 171 -5.798
82 FC5 172 -5.798
82 FC5 173 -4.822
82 FC5 174 -2.869
82 FC5 175 -0.916
82 FC5 176 0.549
82 FC5 177 1.038
82 FC5 178 1.038
82 FC5 179 1.038
82 FC5 180 1.038
82 FC5 181 1.526
82 FC5 182 1.526
82 FC5 183 1.038
82 FC5 184 0.061
82 FC5 185 -1.404
82 FC5 186 -2.380
82 FC5 187 -3.357
82 FC5 188 -4.333
82 FC5 189 -4.333
82 FC5 190 -4.822
82 FC5 191 -5.310
82 FC5 192 -6.287
82 FC5 193 -7.751
82 FC5 194 -8.728
82 FC5 195 -9.216
82 FC5 196 -8.728
82 FC5 197 -7.263
82 FC5 198 -5.310
82 FC5 199 -3.357
82 FC5 200 -2.380
82 FC5 201 -1.892
82 FC5 202 -1.892
82 FC5 203 -2.869
82 FC5 204 -3.357
82 FC5 205 -3.357
82 FC5 206 -3.357
82 FC5 207 -3.357
82 FC5 208 -3.357
82 FC5 209 -4.333
82 FC5 210 -5.798
82 FC5 211 -7.263
82 FC5 212 -8.240
82 FC5 213 -7.751
82 FC5 214 -6.775
82 FC5 215 -5.798
82 FC5 216 -5.798
82 FC5 217 -6.287
82 FC5 218 -6.775
82 FC5 219 -7.263
82 FC5 220 -6.287
82 FC5 221 -4.822
82 FC5 222 -3.845
82 FC5 223 -3.357
82 FC5 224 -3.357
82 FC5 225 -3.845
82 FC5 226 -4.822
82 FC5 227 -4.822
82 FC5 228 -4.822
82 FC5 229 -4.333
82 FC5 230 -4.333
82 FC5 231 -4.333
82 FC5 232 -4.822
82 FC5 233 -5.798
82 FC5 234 -7.263
82 FC5 235 -7.751
82 FC5 236 -7.263
82 FC5 237 -6.287
82 FC5 238 -4.333
82 FC5 239 -2.869
82 FC5 240 -1.892
82 FC5 241 -1.892
82 FC5 242 -2.869
82 FC5 243 -3.357
82 FC5 244 -3.357
82 FC5 245 -2.380
82 FC5 246 -0.916
82 FC5 247 1.038
82 FC5 248 2.502
82 FC5 249 2.991
82 FC5 250 2.991
82 FC5 251 2.014
82 FC5 252 1.038
82 FC5 253 0.549
82 FC5 254 0.061
82 FC5 255 -0.427
# FC2 chan 11
82 FC2 0 -6.337
82 FC2 1 -6.337
82 FC2 2 -6.826
82 FC2 3 -6.337
82 FC2 4 -5.849
82 FC2 5 -5.849
82 FC2 6 -5.849
82 FC2 7 -6.826
82 FC2 8 -6.826
82 FC2 9 -7.314
82 FC2 10 -7.314
82 FC2 11 -6.826
82 FC2 12 -5.849
82 FC2 13 -5.361
82 FC2 14 -4.873
82 FC2 15 -4.873
82 FC2 16 -5.361
82 FC2 17 -5.849
82 FC2 18 -6.826
82 FC2 19 -7.802
82 FC2 20 -9.267
82 FC2 21 -10.732
82 FC2 22 -11.709
82 FC2 23 -12.685
82 FC2 24 -12.197
82 FC2 25 -11.220
82 FC2 26 -10.244
82 FC2 27 -9.267
82 FC2 28 -8.291
82 FC2 29 -7.314
82 FC2 30 -6.826
82 FC2 31 -5.849
82 FC2 32 -5.849
82 FC2 33 -5.849
82 FC2 34 -5.849
82 FC2 35 -6.826
82 FC2 36 -7.802
82 FC2 37 -8.291
82 FC2 38 -8.779
82 FC2 39 -9.755
82 FC2 40 -9.755
82 FC2 41 -9.755
82 FC2 42 -9.755
82 FC2 43 -9.267
82 FC2 44 -8.291
82 FC2 45 -7.802
82 FC2 46 -7.314
82 FC2 47 -6.826
82 FC2 48 -6.337
82 FC2 49 -5.849
82 FC2 50 -5.361
82 FC2 51 -4.873
82 FC2 52 -4.873
82 FC2 53 -4.384
82 FC2 54 -3.896
82 FC2 55 -3.896
82 FC2 56 -3.896
82 FC2 57 -4.873
82 FC2 58 -5.849
82 FC2 59 -6.826
82 FC2 60 -6.826
82 FC2 61 -5.849
82 FC2 62 -4.873
82 FC2 63 -3.896
82 FC2 64 -3.896
82 FC2 65 -3.896
82 FC2 66 -3.896
82 FC2 67 -3.896
82 FC2 68 -4.384
82 FC2 69 -4.384
82 FC2 70 -5.361
82 FC2 71 -5.849
82 FC2 72 -6.337
82 FC2 73 -6.337
82 FC2 74 -5.849
82 FC2 75 -5.849
82 FC2 76 -5.849
82 FC2 77 -6.826
82 FC2 78 -7.314
82 FC2 79 -7.314
82 FC2 80 -6.826
82 FC2 81 -5.849
82 FC2 82 -5.361
82 FC2 83 -4.873
82 FC2 84 -5.361
82 FC2 85 -6.337
82 FC2 86 -7.314
82 FC2 87 -8.291
82 FC2 88 -8.779
82 FC2 89 -9.267
82 FC2 90 -9.755
82 FC2 91 -10.244
82 FC2 92 -9.755
82 FC2 93 -9.267
82 FC2 94 -8.779
82 FC2 95 -7.802
82 FC2 96 -7.802
82 FC2 97 -7.802
82 FC2 98 -7.802
82 FC2 99 -7.802
82 FC2 100 -7.314
82 FC2 101 -6.826
82 FC2 102 -6.337
82 FC2 103 -6.337
82 FC2 104 -6.826
82 FC2 105 -6.826
82 FC2 106 -7.314
82 FC2 107 -7.314
82 FC2 108 -7.314
82 FC2 109 -7.314
82 FC2 110 -7.802
82 FC2 111 -7.314
82 FC2 112 -7.314
82 FC2 113 -7.314
82 FC2 114 -6.826
82 FC2 115 -7.314
82 FC2 116 -7.314
82 FC2 117 -7.802
82 FC2 118 -7.802
82 FC2 119 -8.291
82 FC2 120 -8.291
82 FC2 121 -8.779
82 FC2 122 -8.779
82 FC2 123 -8.779
82 FC2 124 -7.802
82 FC2 125 -6.826
82 FC2 126 -5.849
82 FC2 127 -5.361
82 FC2 128 -5.361
82 FC2 129 -5.361
82 FC2 130 -5.849
82 FC2 131 -6.337
82 FC2 132 -6.826
82 FC2 133 -6.826
82 FC2 134 -7.314
82 FC2 135 -7.802
82 FC2 136 -7.802
82 FC2 137 -7.802
82 FC2 138 -8.291
82 FC2 139 -8.291
82 FC2 140 -8.291
82 FC2 141 -7.802
82 FC2 142 -7.314
82 FC2 143 -7.314
82 FC2 144 -6.337
82 FC2 145 -5.849
82 FC2 146 -5.849
82 FC2 147 -5.849
82 FC2 148 -6.337
82 FC2 149 -7.314
82 FC2 150 -7.802
82 FC2 151 -7.802
82 FC2 152 -7.314
82 FC2 153 -6.337
82 FC2 154 -5.849
82 FC2 155 -5.849
82 FC2 156 -5.361
82 FC2 157 -4.873
82 FC2 158 -4.384
82 FC2 159 -4.384
82 FC2 160 -4.384
82 FC2 161 -4.873
82 FC2 162 -5.361
82 FC2 163 -5.849
82 FC2 164 -5.849
82 FC2 165 -5.849
82 FC2 166 -4.873
82 FC2 167 -4.384
82 FC2 168 -3.896
82 FC2 169 -4.384
82 FC2 170 -4.384
82 FC2 171 -4.384
82 FC2 172 -3.896
82 FC2 173 -3.896
82 FC2 174 -3.896
82 FC2 175 -4.384
82 FC2 176 -4.873
82 FC2 177 -5.361
82 FC2 178 -5.361
82 FC2 179 -5.361
82 FC2 180 -4.873
82 FC2 181 -4.873
82 FC2 182 -4.873
82 FC2 183 -4.873
82 FC2 184 -4.873
82 FC2 185 -4.873
82 FC2 186 -4.873
82 FC2 187 -4.873
82 FC2 188 -5.361
82 FC2 189 -6.337
82 FC2 190 -7.314
82 FC2 191 -7.314
82 FC2 192 -6.826
82 FC2 193 -5.361
82 FC2 194 -4.873
82 FC2 195 -4.873
82 FC2 196 -5.361
82 FC2 197 -5.849
82 FC2 198 -6.826
82 FC2 199 -6.826
82 FC2 200 -6.826
82 FC2 201 -6.337
82 FC2 202 -5.849
82 FC2 203 -5.849
82 FC2 204 -5.849
82 FC2 205 -5.361
82 FC2 206 -5.849
82 FC2 207 -5.849
82 FC2 208 -6.337
82 FC2 209 -6.337
82 FC2 210 -6.826
82 FC2 211 -6.826
82 FC2 212 -6.337
82 FC2 213 -5.849
82 FC2 214 -5.361
82 FC2 215 -5.361
82 FC2 216 -5.361
82 FC2 217 -5.849
82 FC2 218 -6.337
82 FC2 219 -6.337
82 FC2 220 -6.826
82 FC2 221 -6.826
82 FC2 222 -6.826
82 FC2 223 -6.337
82 FC2 224 -5.361
82 FC2 225 -4.384
82 FC2 226 -3.896
82 FC2 227 -3.408
82 FC2 228 -3.408
82 FC2 229 -3.408
82 FC2 230 -3.896
82 FC2 231 -3.896
82 FC2 232 -4.384
82 FC2 233 -4.384
82 FC2 234 -3.896
82 FC2 235 -2.920
82 FC2 236 -2.431
82 FC2 237 -1.455
82 FC2 238 -1.455
82 FC2 239 -1.455
82 FC2 240 -1.455
82 FC2 241 -2.431
82 FC2 242 -2.431
82 FC2 243 -2.431
82 FC2 244 -1.455
82 FC2 245 -0.478
82 FC2 246 0.010
82 FC2 247 0.498
82 FC2 248 0.498
82 FC2 249 0.987
82 FC2 250 0.987
82 FC2 251 0.987
82 FC2 252 1.963
82 FC2 253 1.963
82 FC2 254 2.452
82 FC2 255 2.940
# FC1 chan 12
82 FC1 0 -12.085
82 FC1 1 -11.108
82 FC1 2 -10.132
82 FC1 3 -8.667
82 FC1 4 -7.202
82 FC1 5 -6.226
82 FC1 6 -5.249
82 FC1 7 -4.272
82 FC1 8 -3.296
82 FC1 9 -2.808
82 FC1 10 -2.808
82 FC1 11 -3.296
82 FC1 12 -4.272
82 FC1 13 -5.737
82 FC1 14 -7.202
82 FC1 15 -8.667
82 FC1 16 -9.644
82 FC1 17 -10.132
82 FC1 18 -10.620
82 FC1 19 -11.108
82 FC1 20 -11.597
82 FC1 21 -12.085
82 FC1 22 -12.085
82 FC1 23 -11.597
82 FC1 24 -11.108
82 FC1 25 -10.620
82 FC1 26 -9.644
82 FC1 27 -8.667
82 FC1 28 -8.179
82 FC1 29 -7.690
82 FC1 30 -7.202
82 FC1 31 -7.202
82 FC1 32 -7.202
82 FC1 33 -6.714
82 FC1 34 -7.202
82 FC1 35 -7.690
82 FC1 36 -8.179
82 FC1 37 -8.667
82 FC1 38 -9.155
82 FC1 39 -9.644
82 FC1 40 -9.644
82 FC1 41 -9.644
82 FC1 42 -9.644
82 FC1 43 -9.155
82 FC1 44 -8.667
82 FC1 45 -8.667
82 FC1 46 -7.690
82 FC1 47 -6.714
82 FC1 48 -6.226
82 FC1 49 -5.249
82 FC1 50 -5.249
82 FC1 51 -4.761
82 FC1 52 -4.272
82 FC1 53 -3.784
82 FC1 54 -3.296
82 FC1 55 -3.296
82 FC1 56 -3.296
82 FC1 57 -3.784
82 FC1 58 -4.761
82 FC1 59 -5.737
82 FC1 60 -6.714
82 FC1 61 -7.202
82 FC1 62 -7.202
82 FC1 63 -7.202
82 FC1 64 -7.202
82 FC1 65 -7.202
82 FC1 66 -7.202
82 FC1 67 -7.202
82 FC1 68 -6.714
82 FC1 69 -6.226
82 FC1 70 -5.249
82 FC1 71 -4.761
82 FC1 72 -4.272
82 FC1 73 -4.272
82 FC1 74 -4.761
82 FC1 75 -5.249
82 FC1 76 -5.249
82 FC1 77 -5.249
82 FC1 78 -4.761
82 FC1 79 -4.272
82 FC1 80 -4.272
82 FC1 81 -4.761
82 FC1 82 -5.249
82 FC1 83 -6.226
82 FC1 84 -6.714
82 FC1 85 -6.714
82 FC1 86 -7.202
82 FC1 87 -7.690
82 FC1 88 -8.179
82 FC1 89 -9.155
82 FC1 90 -9.644
82 FC1 91 -10.132
82 FC1 92 -9.644
82 FC1 93 -9.644
82 FC1 94 -9.155
82 FC1 95 -8.667
82 FC1 96 -8.667
82 FC1 97 -8.667
82 FC1 98 -8.179
82 FC1 99 -7.690
82 FC1 100 -7.690
82 FC1 101 -7.690
82 FC1 102 -8.179
82 FC1 103 -9.155
82 FC1 104 -9.644
82 FC1 105 -10.132
82 FC1 106 -9.644
82 FC1 107 -8.667
82 FC1 108 -8.667
82 FC1 109 -8.179
82 FC1 110 -8.179
82 FC1 111 -7.690
82 FC1 112 -7.690
82 FC1 113 -7.202
82 FC1 114 -6.714
82 FC1 115 -6.714
82 FC1 116 -6.714
82 FC1 117 -6.714
82 FC1 118 -6.714
82 FC1 119 -6.714
82 FC1 120 -7.202
82 FC1 121 -7.690
82 FC1 122 -8.667
82 FC1 123 -9.155
82 FC1 124 -9.644
82 FC1 125 -9.155
82 FC1 126 -8.667
82 FC1 127 -8.667
82 FC1 128 -8.667
82 FC1 129 -9.155
82 FC1 130 -9.644
82 FC1 131 -9.644
82 FC1 132 -9.155
82 FC1 133 -8.667
82 FC1 134 -8.179
82 FC1 135 -8.667
82 FC1 136 -8.667
82 FC1 137 -9.155
82 FC1 138 -9.155
82 FC1 139 -9.155
82 FC1 140 -8.667
82 FC1 141 -8.667
82 FC1 142 -9.155
82 FC1 143 -9.155
82 FC1 144 -9.155
82 FC1 145 -8.667
82 FC1 146 -8.667
82 FC1 147 -8.179
82 FC1 148 -8.179
82 FC1 149 -8.179
82 FC1 150 -8.179
82 FC1 151 -8.179
82 FC1 152 -8.179
82 FC1 153 -7.690
82 FC1 154 -6.714
82 FC1 155 -6.714
82 FC1 156 -6.226
82 FC1 157 -5.737
82 FC1 158 -5.249
82 FC1 159 -4.761
82 FC1 160 -4.272
82 FC1 161 -3.784
82 FC1 162 -3.296
82 FC1 163 -3.784
82 FC1 164 -4.761
82 FC1 165 -4.761
82 FC1 166 -4.761
82 FC1 167 -4.761
82 FC1 168 -4.761
82 FC1 169 -5.249
82 FC1 170 -5.737
82 FC1 171 -5.737
82 FC1 172 -5.249
82 FC1 173 -4.761
82 FC1 174 -3.784
82 FC1 175 -3.296
82 FC1 176 -3.296
82 FC1 177 -3.296
82 FC1 178 -3.296
82 FC1 179 -2.808
82 FC1 180 -2.808
82 FC1 181 -2.808
82 FC1 182 -3.296
82 FC1 183 -3.784
82 FC1 184 -4.272
82 FC1 185 -4.761
82 FC1 186 -5.249
82 FC1 187 -5.737
82 FC1 188 -6.226
82 FC1 189 -6.714
82 FC1 190 -7.202
82 FC1 191 -7.202
82 FC1 192 -6.714
82 FC1 193 -6.714
82 FC1 194 -6.714
82 FC1 195 -6.714
82 FC1 196 -6.714
82 FC1 197 -6.714
82 FC1 198 -6.714
82 FC1 199 -6.714
82 FC1 200 -6.226
82 FC1 201 -5.737
82 FC1 202 -5.737
82 FC1 203 -5.249
82 FC1 204 -5.249
82 FC1 205 -4.761
82 FC1 206 -4.761
82 FC1 207 -4.761
82 FC1 208 -5.737
82 FC1 209 -6.714
82 FC1 210 -7.202
82 FC1 211 -7.690
82 FC1 212 -7.690
82 FC1 213 -6.714
82 FC1 214 -5.249
82 FC1 215 -4.272
82 FC1 216 -4.761
82 FC1 217 -5.249
82 FC1 218 -6.226
82 FC1 219 -6.226
82 FC1 220 -6.226
82 FC1 221 -5.737
82 FC1 222 -4.272
82 FC1 223 -3.296
82 FC1 224 -2.808
82 FC1 225 -2.319
82 FC1 226 -2.319
82 FC1 227 -2.808
82 FC1 228 -3.296
82 FC1 229 -3.784
82 FC1 230 -3.784
82 FC1 231 -4.272
82 FC1 232 -3.784
82 FC1 233 -3.784
82 FC1 234 -4.272
82 FC1 235 -4.761
82 FC1 236 -4.272
82 FC1 237 -3.296
82 FC1 238 -1.831
82 FC1 239 -0.366
82 FC1 240 0.122
82 FC1 241 0.122
82 FC1 242 -0.854
82 FC1 243 -1.343
82 FC1 244 -1.343
82 FC1 245 -0.854
82 FC1 246 0.122
82 FC1 247 1.099
82 FC1 248 1.099
82 FC1 249 1.099
82 FC1 250 1.099
82 FC1 251 1.099
82 FC1 252 1.587
82 FC1 253 1.587
82 FC1 254 1.587
82 FC1 255 1.099
# T8 chan 13
82 T8 0 1.180
82 T8 1 3.621
82 T8 2 6.551
82 T8 3 8.993
82 T8 4 10.946
82 T8 5 11.434
82 T8 6 10.457
82 T8 7 8.993
82 T8 8 6.551
82 T8 9 4.598
82 T8 10 2.645
82 T8 11 1.668
82 T8 12 0.692
82 T8 13 -0.773
82 T8 14 -2.238
82 T8 15 -3.703
82 T8 16 -4.191
82 T8 17 -4.191
82 T8 18 -4.679
82 T8 19 -4.679
82 T8 20 -5.656
82 T8 21 -6.632
82 T8 22 -7.121
82 T8 23 -6.144
82 T8 24 -3.215
82 T8 25 -0.773
82 T8 26 1.668
82 T8 27 2.157
82 T8 28 1.180
82 T8 29 -0.773
82 T8 30 -1.750
82 T8 31 -2.238
82 T8 32 -2.238
82 T8 33 -2.726
82 T8 34 -2.726
82 T8 35 -3.215
82 T8 36 -3.703
82 T8 37 -3.703
82 T8 38 -3.215
82 T8 39 -2.726
82 T8 40 -2.726
82 T8 41 -2.726
82 T8 42 -2.726
82 T8 43 -3.215
82 T8 44 -3.703
82 T8 45 -4.191
82 T8 46 -4.191
82 T8 47 -3.215
82 T8 48 -1.750
82 T8 49 -0.773
82 T8 50 0.203
82 T8 51 0.203
82 T8 52 0.203
82 T8 53 -0.773
82 T8 54 -1.261
82 T8 55 -2.238
82 T8 56 -3.703
82 T8 57 -4.679
82 T8 58 -6.144
82 T8 59 -6.144
82 T8 60 -4.679
82 T8 61 -2.726
82 T8 62 -0.285
82 T8 63 2.157
82 T8 64 4.598
82 T8 65 6.063
82 T8 66 7.039
82 T8 67 7.039
82 T8 68 6.063
82 T8 69 3.133
82 T8 70 -0.285
82 T8 71 -3.703
82 T8 72 -5.656
82 T8 73 -6.632
82 T8 74 -6.632
82 T8 75 -6.632
82 T8 76 -7.121
82 T8 77 -7.121
82 T8 78 -6.632
82 T8 79 -4.679
82 T8 80 -2.726
82 T8 81 -0.773
82 T8 82 0.203
82 T8 83 0.203
82 T8 84 -0.285
82 T8 85 -0.773
82 T8 86 -1.261
82 T8 87 -1.261
82 T8 88 -1.261
82 T8 89 -1.750
82 T8 90 -2.238
82 T8 91 -2.726
82 T8 92 -1.750
82 T8 93 0.203
82 T8 94 1.668
82 T8 95 3.621
82 T8 96 4.598
82 T8 97 4.598
82 T8 98 5.086
82 T8 99 6.063
82 T8 100 7.039
82 T8 101 8.016
82 T8 102 8.504
82 T8 103 7.528
82 T8 104 5.575
82 T8 105 3.133
82 T8 106 0.692
82 T8 107 -1.261
82 T8 108 -3.215
82 T8 109 -4.679
82 T8 110 -5.656
82 T8 111 -6.144
82 T8 112 -5.168
82 T8 113 -3.703
82 T8 114 -1.750
82 T8 115 -0.773
82 T8 116 -0.285
82 T8 117 -0.285
82 T8 118 -0.285
82 T8 119 -0.285
82 T8 120 -0.285
82 T8 121 0.203
82 T8 122 0.692
82 T8 123 1.668
82 T8 124 2.157
82 T8 125 2.157
82 T8 126 1.180
82 T8 127 -0.285
82 T8 128 -1.261
82 T8 129 -2.238
82 T8 130 -2.238
82 T8 131 -1.750
82 T8 132 -2.238
82 T8 133 -2.726
82 T8 134 -3.215
82 T8 135 -3.215
82 T8 136 -2.238
82 T8 137 -0.773
82 T8 138 0.692
82 T8 139 1.668
82 T8 140 2.157
82 T8 141 2.157
82 T8 142 1.668
82 T8 143 0.692
82 T8 144 -0.285
82 T8 145 -0.773
82 T8 146 -1.261
82 T8 147 -1.261
82 T8 148 -0.773
82 T8 149 -0.773
82 T8 150 -0.773
82 T8 151 -1.750
82 T8 152 -3.215
82 T8 153 -4.191
82 T8 154 -4.679
82 T8 155 -3.703
82 T8 156 -2.238
82 T8 157 -0.773
82 T8 158 -0.285
82 T8 159 0.203
82 T8 160 0.692
82 T8 161 0.203
82 T8 162 0.203
82 T8 163 0.203
82 T8 164 0.203
82 T8 165 -0.773
82 T8 166 -0.773
82 T8 167 -0.773
82 T8 168 -0.285
82 T8 169 0.692
82 T8 170 1.668
82 T8 171 1.668
82 T8 172 1.668
82 T8 173 1.668
82 T8 174 2.645
82 T8 175 3.621
82 T8 176 4.598
82 T8 177 4.598
82 T8 178 4.598
82 T8 179 5.086
82 T8 180 6.551
82 T8 181 8.504
82 T8 182 10.946
82 T8 183 11.434
82 T8 184 10.457
82 T8 185 8.504
82 T8 186 7.528
82 T8 187 7.039
82 T8 188 7.528
82 T8 189 7.528
82 T8 190 7.528
82 T8 191 6.551
82 T8 192 6.063
82 T8 193 5.086
82 T8 194 4.598
82 T8 195 4.110
82 T8 196 3.621
82 T8 197 3.133
82 T8 198 3.621
82 T8 199 4.110
82 T8 200 4.598
82 T8 201 4.598
82 T8 202 4.110
82 T8 203 3.133
82 T8 204 2.645
82 T8 205 2.645
82 T8 206 2.645
82 T8 207 2.645
82 T8 208 2.157
82 T8 209 2.157
82 T8 210 2.645
82 T8 211 3.133
82 T8 212 3.621
82 T8 213 2.645
82 T8 214 0.692
82 T8 215 -0.773
82 T8 216 -2.238
82 T8 217 -2.726
82 T8 218 -2.726
82 T8 219 -2.726
82 T8 220 -4.191
82 T8 221 -6.144
82 T8 222 -7.609
82 T8 223 -8.586
82 T8 224 -8.097
82 T8 225 -6.632
82 T8 226 -3.703
82 T8 227 -1.261
82 T8 228 1.668
82 T8 229 3.133
82 T8 230 3.621
82 T8 231 2.645
82 T8 232 1.180
82 T8 233 0.692
82 T8 234 0.692
82 T8 235 2.157
82 T8 236 3.133
82 T8 237 3.621
82 T8 238 2.157
82 T8 239 0.203
82 T8 240 -1.750
82 T8 241 -3.215
82 T8 242 -3.215
82 T8 243 -2.238
82 T8 244 -0.773
82 T8 245 1.180
82 T8 246 2.157
82 T8 247 2.645
82 T8 248 2.645
82 T8 249 1.668
82 T8 250 0.692
82 T8 251 -0.285
82 T8 252 -0.773
82 T8 253 -0.773
82 T8 254 0.692
82 T8 255 2.645
# T7 chan 14
82 T7 0 -6.419
82 T7 1 -3.977
82 T7 2 -1.048
82 T7 3 1.882
82 T7 4 5.300
82 T7 5 8.230
82 T7 6 10.183
82 T7 7 11.648
82 T7 8 12.624
82 T7 9 13.112
82 T7 10 12.624
82 T7 11 10.183
82 T7 12 5.788
82 T7 13 -0.071
82 T7 14 -6.419
82 T7 15 -11.790
82 T7 16 -14.231
82 T7 17 -14.720
82 T7 18 -14.720
82 T7 19 -13.743
82 T7 20 -13.743
82 T7 21 -12.767
82 T7 22 -10.813
82 T7 23 -7.395
82 T7 24 -3.977
82 T7 25 -2.024
82 T7 26 -1.048
82 T7 27 -1.536
82 T7 28 -1.536
82 T7 29 -1.048
82 T7 30 -1.048
82 T7 31 -1.048
82 T7 32 -3.001
82 T7 33 -5.442
82 T7 34 -7.395
82 T7 35 -7.884
82 T7 36 -6.907
82 T7 37 -5.931
82 T7 38 -5.442
82 T7 39 -5.442
82 T7 40 -5.442
82 T7 41 -5.442
82 T7 42 -4.466
82 T7 43 -3.489
82 T7 44 -2.513
82 T7 45 -2.513
82 T7 46 -2.513
82 T7 47 -2.513
82 T7 48 -2.024
82 T7 49 -1.536
82 T7 50 -1.536
82 T7 51 -1.536
82 T7 52 -2.024
82 T7 53 -3.489
82 T7 54 -5.442
82 T7 55 -6.907
82 T7 56 -7.884
82 T7 57 -8.372
82 T7 58 -8.860
82 T7 59 -9.349
82 T7 60 -9.837
82 T7 61 -9.837
82 T7 62 -8.860
82 T7 63 -6.907
82 T7 64 -4.466
82 T7 65 -3.001
82 T7 66 -2.513
82 T7 67 -2.513
82 T7 68 -3.001
82 T7 69 -3.001
82 T7 70 -3.001
82 T7 71 -2.024
82 T7 72 -2.513
82 T7 73 -3.489
82 T7 74 -4.954
82 T7 75 -5.442
82 T7 76 -5.442
82 T7 77 -4.466
82 T7 78 -3.001
82 T7 79 -1.536
82 T7 80 -0.559
82 T7 81 -0.071
82 T7 82 -1.048
82 T7 83 -1.536
82 T7 84 -2.513
82 T7 85 -3.489
82 T7 86 -3.977
82 T7 87 -3.977
82 T7 88 -3.489
82 T7 89 -3.489
82 T7 90 -3.489
82 T7 91 -3.489
82 T7 92 -3.489
82 T7 93 -2.024
82 T7 94 -0.559
82 T7 95 0.905
82 T7 96 1.882
82 T7 97 1.882
82 T7 98 2.370
82 T7 99 2.370
82 T7 100 2.858
82 T7 101 2.370
82 T7 102 1.394
82 T7 103 -0.559
82 T7 104 -3.489
82 T7 105 -5.931
82 T7 106 -7.395
82 T7 107 -7.884
82 T7 108 -7.884
82 T7 109 -6.907
82 T7 110 -5.442
82 T7 111 -3.977
82 T7 112 -2.513
82 T7 113 -1.048
82 T7 114 -0.071
82 T7 115 0.417
82 T7 116 0.417
82 T7 117 0.417
82 T7 118 0.417
82 T7 119 0.905
82 T7 120 1.394
82 T7 121 0.905
82 T7 122 -1.048
82 T7 123 -3.489
82 T7 124 -5.931
82 T7 125 -7.884
82 T7 126 -8.372
82 T7 127 -8.372
82 T7 128 -8.372
82 T7 129 -8.860
82 T7 130 -8.860
82 T7 131 -7.884
82 T7 132 -6.419
82 T7 133 -4.954
82 T7 134 -4.466
82 T7 135 -4.954
82 T7 136 -5.442
82 T7 137 -5.931
82 T7 138 -4.954
82 T7 139 -3.001
82 T7 140 -1.048
82 T7 141 -0.559
82 T7 142 -1.048
82 T7 143 -2.513
82 T7 144 -3.489
82 T7 145 -4.954
82 T7 146 -5.931
82 T7 147 -6.907
82 T7 148 -7.395
82 T7 149 -7.395
82 T7 150 -6.907
82 T7 151 -6.419
82 T7 152 -5.931
82 T7 153 -5.931
82 T7 154 -5.442
82 T7 155 -4.466
82 T7 156 -3.489
82 T7 157 -2.024
82 T7 158 -2.024
82 T7 159 -1.536
82 T7 160 -1.536
82 T7 161 -1.048
82 T7 162 -0.559
82 T7 163 0.417
82 T7 164 0.905
82 T7 165 1.394
82 T7 166 1.394
82 T7 167 1.394
82 T7 168 1.394
82 T7 169 0.905
82 T7 170 0.905
82 T7 171 0.905
82 T7 172 1.882
82 T7 173 3.347
82 T7 174 5.300
82 T7 175 6.765
82 T7 176 8.230
82 T7 177 8.718
82 T7 178 9.206
82 T7 179 9.694
82 T7 180 9.694
82 T7 181 10.671
82 T7 182 11.159
82 T7 183 11.648
82 T7 184 10.671
82 T7 185 9.694
82 T7 186 7.741
82 T7 187 6.276
82 T7 188 5.300
82 T7 189 4.812
82 T7 190 4.323
82 T7 191 3.347
82 T7 192 1.394
82 T7 193 -0.559
82 T7 194 -2.024
82 T7 195 -2.513
82 T7 196 -1.536
82 T7 197 0.417
82 T7 198 2.858
82 T7 199 5.300
82 T7 200 6.765
82 T7 201 8.230
82 T7 202 8.230
82 T7 203 7.741
82 T7 204 7.253
82 T7 205 6.276
82 T7 206 6.276
82 T7 207 6.276
82 T7 208 5.788
82 T7 209 5.300
82 T7 210 3.835
82 T7 211 1.882
82 T7 212 0.417
82 T7 213 -0.559
82 T7 214 -0.559
82 T7 215 -0.071
82 T7 216 -0.071
82 T7 217 -1.048
82 T7 218 -2.024
82 T7 219 -2.513
82 T7 220 -2.024
82 T7 221 -1.536
82 T7 222 -0.559
82 T7 223 -0.559
82 T7 224 -1.536
82 T7 225 -2.513
82 T7 226 -3.489
82 T7 227 -3.489
82 T7 228 -3.001
82 T7 229 -2.024
82 T7 230 -1.048
82 T7 231 -0.559
82 T7 232 -0.559
82 T7 233 -2.024
82 T7 234 -3.489
82 T7 235 -4.954
82 T7 236 -5.931
82 T7 237 -5.931
82 T7 238 -5.442
82 T7 239 -4.466
82 T7 240 -4.466
82 T7 241 -4.466
82 T7 242 -5.442
82 T7 243 -5.442
82 T7 244 -4.954
82 T7 245 -3.489
82 T7 246 -2.024
82 T7 247 -0.071
82 T7 248 0.417
82 T7 249 -0.071
82 T7 250 -2.024
82 T7 251 -3.977
82 T7 252 -5.442
82 T7 253 -5.442
82 T7 254 -4.954
82 T7 255 -4.466
# CZ chan 15
82 CZ 0 8.575
82 CZ 1 11.017
82 CZ 2 14.435
82 CZ 3 18.341
82 CZ 4 21.759
82 CZ 5 25.177
82 CZ 6 26.642
82 CZ 7 27.130
82 CZ 8 26.642
82 CZ 9 25.177
82 CZ 10 23.224
82 CZ 11 20.294
82 CZ 12 15.900
82 CZ 13 11.017
82 CZ 14 6.134
82 CZ 15 2.228
82 CZ 16 -0.214
82 CZ 17 -1.190
82 CZ 18 -1.678
82 CZ 19 -2.655
82 CZ 20 -3.143
82 CZ 21 -2.655
82 CZ 22 -0.214
82 CZ 23 3.204
82 CZ 24 7.599
82 CZ 25 10.040
82 CZ 26 11.993
82 CZ 27 12.970
82 CZ 28 14.435
82 CZ 29 15.900
82 CZ 30 17.365
82 CZ 31 16.388
82 CZ 32 14.435
82 CZ 33 11.017
82 CZ 34 8.575
82 CZ 35 7.111
82 CZ 36 6.622
82 CZ 37 5.646
82 CZ 38 5.646
82 CZ 39 5.646
82 CZ 40 6.622
82 CZ 41 8.087
82 CZ 42 10.040
82 CZ 43 11.017
82 CZ 44 11.505
82 CZ 45 11.993
82 CZ 46 12.970
82 CZ 47 13.458
82 CZ 48 13.947
82 CZ 49 13.458
82 CZ 50 11.993
82 CZ 51 11.505
82 CZ 52 11.017
82 CZ 53 11.505
82 CZ 54 11.993
82 CZ 55 12.970
82 CZ 56 13.458
82 CZ 57 13.458
82 CZ 58 12.970
82 CZ 59 11.505
82 CZ 60 10.529
82 CZ 61 10.529
82 CZ 62 12.482
82 CZ 63 15.411
82 CZ 64 19.318
82 CZ 65 22.736
82 CZ 66 25.665
82 CZ 67 26.642
82 CZ 68 27.130
82 CZ 69 26.642
82 CZ 70 25.177
82 CZ 71 24.200
82 CZ 72 22.247
82 CZ 73 19.806
82 CZ 74 16.876
82 CZ 75 16.388
82 CZ 76 16.388
82 CZ 77 18.341
82 CZ 78 20.294
82 CZ 79 20.782
82 CZ 80 19.806
82 CZ 81 18.341
82 CZ 82 17.365
82 CZ 83 16.876
82 CZ 84 16.876
82 CZ 85 16.388
82 CZ 86 15.900
82 CZ 87 14.923
82 CZ 88 14.435
82 CZ 89 14.435
82 CZ 90 14.435
82 CZ 91 13.947
82 CZ 92 13.458
82 CZ 93 14.435
82 CZ 94 17.365
82 CZ 95 22.247
82 CZ 96 27.618
82 CZ 97 32.501
82 CZ 98 35.919
82 CZ 99 38.361
82 CZ 100 39.337
82 CZ 101 39.337
82 CZ 102 37.872
82 CZ 103 33.478
82 CZ 104 27.130
82 CZ 105 20.782
82 CZ 106 14.923
82 CZ 107 11.017
82 CZ 108 8.087
82 CZ 109 6.134
82 CZ 110 4.181
82 CZ 111 3.204
82 CZ 112 4.181
82 CZ 113 7.599
82 CZ 114 11.993
82 CZ 115 14.923
82 CZ 116 15.900
82 CZ 117 15.900
82 CZ 118 15.900
82 CZ 119 16.876
82 CZ 120 19.318
82 CZ 121 21.271
82 CZ 122 21.271
82 CZ 123 19.806
82 CZ 124 16.388
82 CZ 125 12.482
82 CZ 126 9.552
82 CZ 127 7.599
82 CZ 128 7.111
82 CZ 129 7.111
82 CZ 130 6.622
82 CZ 131 6.134
82 CZ 132 6.134
82 CZ 133 6.134
82 CZ 134 7.111
82 CZ 135 9.552
82 CZ 136 11.505
82 CZ 137 12.482
82 CZ 138 12.970
82 CZ 139 12.970
82 CZ 140 12.970
82 CZ 141 13.458
82 CZ 142 13.947
82 CZ 143 13.947
82 CZ 144 13.458
82 CZ 145 12.970
82 CZ 146 12.482
82 CZ 147 11.993
82 CZ 148 11.505
82 CZ 149 10.529
82 CZ 150 9.552
82 CZ 151 8.087
82 CZ 152 7.599
82 CZ 153 8.575
82 CZ 154 11.017
82 CZ 155 13.947
82 CZ 156 15.900
82 CZ 157 17.365
82 CZ 158 17.853
82 CZ 159 17.853
82 CZ 160 18.829
82 CZ 161 20.294
82 CZ 162 20.782
82 CZ 163 20.782
82 CZ 164 20.782
82 CZ 165 20.294
82 CZ 166 20.294
82 CZ 167 21.271
82 CZ 168 22.247
82 CZ 169 22.247
82 CZ 170 21.271
82 CZ 171 19.806
82 CZ 172 18.829
82 CZ 173 19.318
82 CZ 174 20.782
82 CZ 175 22.736
82 CZ 176 24.689
82 CZ 177 26.154
82 CZ 178 28.107
82 CZ 179 30.060
82 CZ 180 32.013
82 CZ 181 33.966
82 CZ 182 34.943
82 CZ 183 35.919
82 CZ 184 35.919
82 CZ 185 35.431
82 CZ 186 34.943
82 CZ 187 33.478
82 CZ 188 32.013
82 CZ 189 30.548
82 CZ 190 29.572
82 CZ 191 28.595
82 CZ 192 27.618
82 CZ 193 24.689
82 CZ 194 21.271
82 CZ 195 18.341
82 CZ 196 18.341
82 CZ 197 21.271
82 CZ 198 26.154
82 CZ 199 30.060
82 CZ 200 32.013
82 CZ 201 31.036
82 CZ 202 28.595
82 CZ 203 27.130
82 CZ 204 27.618
82 CZ 205 28.595
82 CZ 206 28.595
82 CZ 207 27.618
82 CZ 208 25.177
82 CZ 209 24.200
82 CZ 210 24.689
82 CZ 211 26.154
82 CZ 212 26.642
82 CZ 213 26.154
82 CZ 214 23.712
82 CZ 215 20.782
82 CZ 216 18.829
82 CZ 217 17.365
82 CZ 218 16.388
82 CZ 219 13.947
82 CZ 220 10.040
82 CZ 221 6.134
82 CZ 222 4.669
82 CZ 223 5.157
82 CZ 224 6.622
82 CZ 225 9.064
82 CZ 226 9.552
82 CZ 227 9.552
82 CZ 228 10.529
82 CZ 229 12.970
82 CZ 230 15.900
82 CZ 231 17.853
82 CZ 232 17.365
82 CZ 233 13.458
82 CZ 234 8.575
82 CZ 235 6.134
82 CZ 236 5.646
82 CZ 237 7.599
82 CZ 238 9.064
82 CZ 239 7.599
82 CZ 240 3.693
82 CZ 241 -1.678
82 CZ 242 -4.608
82 CZ 243 -6.073
82 CZ 244 -5.585
82 CZ 245 -5.585
82 CZ 246 -7.050
82 CZ 247 -10.468
82 CZ 248 -14.374
82 CZ 249 -18.280
82 CZ 250 -20.721
82 CZ 251 -21.698
82 CZ 252 -20.721
82 CZ 253 -18.768
82 CZ 254 -15.839
82 CZ 255 -12.909
# C3 chan 16
82 C3 0 -6.755
82 C3 1 -6.266
82 C3 2 -4.801
82 C3 3 -3.825
82 C3 4 -1.872
82 C3 5 -0.407
82 C3 6 1.058
82 C3 7 2.523
82 C3 8 3.499
82 C3 9 4.476
82 C3 10 4.476
82 C3 11 3.988
82 C3 12 2.035
82 C3 13 0.081
82 C3 14 -2.360
82 C3 15 -4.801
82 C3 16 -6.266
82 C3 17 -6.755
82 C3 18 -7.243
82 C3 19 -7.731
82 C3 20 -7.243
82 C3 21 -7.243
82 C3 22 -6.266
82 C3 23 -5.778
82 C3 24 -4.801
82 C3 25 -3.825
82 C3 26 -2.848
82 C3 27 -2.360
82 C3 28 -2.360
82 C3 29 -2.360
82 C3 30 -2.848
82 C3 31 -3.337
82 C3 32 -3.337
82 C3 33 -3.825
82 C3 34 -3.825
82 C3 35 -4.313
82 C3 36 -4.313
82 C3 37 -4.313
82 C3 38 -4.801
82 C3 39 -5.290
82 C3 40 -5.778
82 C3 41 -5.778
82 C3 42 -6.266
82 C3 43 -5.778
82 C3 44 -5.778
82 C3 45 -5.778
82 C3 46 -5.290
82 C3 47 -4.801
82 C3 48 -3.825
82 C3 49 -3.337
82 C3 50 -3.337
82 C3 51 -3.337
82 C3 52 -3.825
82 C3 53 -4.313
82 C3 54 -4.801
82 C3 55 -5.290
82 C3 56 -5.290
82 C3 57 -5.290
82 C3 58 -5.290
82 C3 59 -5.290
82 C3 60 -5.778
82 C3 61 -6.755
82 C3 62 -6.755
82 C3 63 -6.755
82 C3 64 -6.755
82 C3 65 -6.266
82 C3 66 -5.778
82 C3 67 -5.778
82 C3 68 -5.778
82 C3 69 -5.778
82 C3 70 -4.801
82 C3 71 -4.313
82 C3 72 -3.825
82 C3 73 -3.825
82 C3 74 -4.801
82 C3 75 -5.290
82 C3 76 -4.801
82 C3 77 -3.337
82 C3 78 -1.383
82 C3 79 -0.407
82 C3 80 -0.895
82 C3 81 -1.872
82 C3 82 -3.337
82 C3 83 -4.313
82 C3 84 -4.313
82 C3 85 -4.313
82 C3 86 -3.825
82 C3 87 -3.337
82 C3 88 -3.337
82 C3 89 -2.360
82 C3 90 -2.360
82 C3 91 -1.872
82 C3 92 -1.383
82 C3 93 -1.872
82 C3 94 -2.360
82 C3 95 -2.848
82 C3 96 -3.337
82 C3 97 -3.825
82 C3 98 -3.825
82 C3 99 -3.825
82 C3 100 -3.825
82 C3 101 -4.313
82 C3 102 -5.290
82 C3 103 -6.266
82 C3 104 -7.243
82 C3 105 -7.731
82 C3 106 -7.731
82 C3 107 -7.243
82 C3 108 -6.266
82 C3 109 -5.290
82 C3 110 -3.825
82 C3 111 -2.360
82 C3 112 -1.383
82 C3 113 -0.895
82 C3 114 -0.895
82 C3 115 -0.895
82 C3 116 -1.383
82 C3 117 -1.383
82 C3 118 -1.872
82 C3 119 -1.872
82 C3 120 -2.848
82 C3 121 -3.825
82 C3 122 -4.801
82 C3 123 -5.778
82 C3 124 -5.778
82 C3 125 -5.778
82 C3 126 -5.290
82 C3 127 -5.290
82 C3 128 -5.778
82 C3 129 -5.778
82 C3 130 -5.778
82 C3 131 -5.290
82 C3 132 -4.801
82 C3 133 -4.313
82 C3 134 -4.313
82 C3 135 -4.801
82 C3 136 -4.801
82 C3 137 -4.801
82 C3 138 -3.825
82 C3 139 -3.337
82 C3 140 -2.360
82 C3 141 -1.872
82 C3 142 -2.360
82 C3 143 -3.337
82 C3 144 -3.825
82 C3 145 -4.801
82 C3 146 -5.290
82 C3 147 -4.801
82 C3 148 -3.825
82 C3 149 -2.360
82 C3 150 -1.383
82 C3 151 -1.383
82 C3 152 -1.872
82 C3 153 -2.360
82 C3 154 -2.848
82 C3 155 -2.848
82 C3 156 -2.360
82 C3 157 -2.360
82 C3 158 -2.360
82 C3 159 -1.872
82 C3 160 -1.383
82 C3 161 -0.895
82 C3 162 0.081
82 C3 163 0.570
82 C3 164 0.570
82 C3 165 0.081
82 C3 166 0.081
82 C3 167 0.081
82 C3 168 0.081
82 C3 169 -0.407
82 C3 170 -0.895
82 C3 171 -0.895
82 C3 172 -0.407
82 C3 173 0.570
82 C3 174 1.546
82 C3 175 2.523
82 C3 176 3.011
82 C3 177 3.011
82 C3 178 3.011
82 C3 179 3.011
82 C3 180 3.011
82 C3 181 3.011
82 C3 182 3.011
82 C3 183 3.011
82 C3 184 2.523
82 C3 185 1.546
82 C3 186 1.058
82 C3 187 0.570
82 C3 188 0.081
82 C3 189 0.081
82 C3 190 0.570
82 C3 191 0.081
82 C3 192 -0.407
82 C3 193 -0.895
82 C3 194 -1.872
82 C3 195 -2.360
82 C3 196 -1.872
82 C3 197 -1.383
82 C3 198 -0.407
82 C3 199 0.570
82 C3 200 1.058
82 C3 201 1.058
82 C3 202 0.570
82 C3 203 0.081
82 C3 204 0.570
82 C3 205 0.570
82 C3 206 1.546
82 C3 207 1.546
82 C3 208 1.546
82 C3 209 1.058
82 C3 210 0.081
82 C3 211 -0.895
82 C3 212 -1.383
82 C3 213 -1.383
82 C3 214 -1.383
82 C3 215 -0.895
82 C3 216 -1.383
82 C3 217 -1.383
82 C3 218 -1.383
82 C3 219 -1.383
82 C3 220 -0.895
82 C3 221 0.081
82 C3 222 0.570
82 C3 223 1.058
82 C3 224 1.058
82 C3 225 0.570
82 C3 226 0.570
82 C3 227 -0.407
82 C3 228 -0.407
82 C3 229 -0.407
82 C3 230 0.081
82 C3 231 -0.407
82 C3 232 -0.407
82 C3 233 -0.895
82 C3 234 -1.872
82 C3 235 -2.360
82 C3 236 -2.848
82 C3 237 -2.848
82 C3 238 -2.360
82 C3 239 -1.383
82 C3 240 -0.895
82 C3 241 -0.407
82 C3 242 -0.407
82 C3 243 -0.407
82 C3 244 -0.895
82 C3 245 -0.407
82 C3 246 0.081
82 C3 247 0.570
82 C3 248 1.058
82 C3 249 1.546
82 C3 250 1.058
82 C3 251 0.081
82 C3 252 -0.895
82 C3 253 -1.383
82 C3 254 -1.383
82 C3 255 -2.360
# C4 chan 17
82 C4 0 1.546
82 C4 1 1.058
82 C4 2 0.570
82 C4 3 0.570
82 C4 4 0.570
82 C4 5 0.081
82 C4 6 -0.895
82 C4 7 -2.848
82 C4 8 -3.337
82 C4 9 -3.337
82 C4 10 -3.337
82 C4 11 -2.360
82 C4 12 -1.383
82 C4 13 -0.895
82 C4 14 -0.407
82 C4 15 0.081
82 C4 16 0.081
82 C4 17 0.570
82 C4 18 0.081
82 C4 19 -0.895
82 C4 20 -2.360
82 C4 21 -3.825
82 C4 22 -4.313
82 C4 23 -4.801
82 C4 24 -4.313
82 C4 25 -3.825
82 C4 26 -3.337
82 C4 27 -2.848
82 C4 28 -2.360
82 C4 29 -2.360
82 C4 30 -2.848
82 C4 31 -2.848
82 C4 32 -2.848
82 C4 33 -2.360
82 C4 34 -1.383
82 C4 35 -1.383
82 C4 36 -1.383
82 C4 37 -2.360
82 C4 38 -2.848
82 C4 39 -3.337
82 C4 40 -3.825
82 C4 41 -3.825
82 C4 42 -4.313
82 C4 43 -4.801
82 C4 44 -5.290
82 C4 45 -5.290
82 C4 46 -4.801
82 C4 47 -4.313
82 C4 48 -3.825
82 C4 49 -2.848
82 C4 50 -2.848
82 C4 51 -3.337
82 C4 52 -3.337
82 C4 53 -3.337
82 C4 54 -3.825
82 C4 55 -4.313
82 C4 56 -5.290
82 C4 57 -5.778
82 C4 58 -6.266
82 C4 59 -6.266
82 C4 60 -5.778
82 C4 61 -4.313
82 C4 62 -3.337
82 C4 63 -2.848
82 C4 64 -2.360
82 C4 65 -1.872
82 C4 66 -1.383
82 C4 67 -1.872
82 C4 68 -2.360
82 C4 69 -3.337
82 C4 70 -4.313
82 C4 71 -4.801
82 C4 72 -4.801
82 C4 73 -5.290
82 C4 74 -4.801
82 C4 75 -4.801
82 C4 76 -5.290
82 C4 77 -5.778
82 C4 78 -6.755
82 C4 79 -6.755
82 C4 80 -5.778
82 C4 81 -4.801
82 C4 82 -3.825
82 C4 83 -3.337
82 C4 84 -3.337
82 C4 85 -3.337
82 C4 86 -3.825
82 C4 87 -3.825
82 C4 88 -3.825
82 C4 89 -3.337
82 C4 90 -3.825
82 C4 91 -3.825
82 C4 92 -4.313
82 C4 93 -4.313
82 C4 94 -3.825
82 C4 95 -2.848
82 C4 96 -3.337
82 C4 97 -3.825
82 C4 98 -4.313
82 C4 99 -4.801
82 C4 100 -4.801
82 C4 101 -3.825
82 C4 102 -2.848
82 C4 103 -1.872
82 C4 104 -1.383
82 C4 105 -1.383
82 C4 106 -2.360
82 C4 107 -2.848
82 C4 108 -3.337
82 C4 109 -3.825
82 C4 110 -3.825
82 C4 111 -3.337
82 C4 112 -2.848
82 C4 113 -2.848
82 C4 114 -2.848
82 C4 115 -3.337
82 C4 116 -3.825
82 C4 117 -4.313
82 C4 118 -4.801
82 C4 119 -4.801
82 C4 120 -5.290
82 C4 121 -5.290
82 C4 122 -5.290
82 C4 123 -4.313
82 C4 124 -3.337
82 C4 125 -2.360
82 C4 126 -1.872
82 C4 127 -1.872
82 C4 128 -1.872
82 C4 129 -1.383
82 C4 130 -1.383
82 C4 131 -1.383
82 C4 132 -1.872
82 C4 133 -2.360
82 C4 134 -3.337
82 C4 135 -3.825
82 C4 136 -3.825
82 C4 137 -3.825
82 C4 138 -3.825
82 C4 139 -3.337
82 C4 140 -2.848
82 C4 141 -2.360
82 C4 142 -2.360
82 C4 143 -2.848
82 C4 144 -2.848
82 C4 145 -2.848
82 C4 146 -2.360
82 C4 147 -1.872
82 C4 148 -1.383
82 C4 149 -1.872
82 C4 150 -2.360
82 C4 151 -2.360
82 C4 152 -2.848
82 C4 153 -3.337
82 C4 154 -3.337
82 C4 155 -3.825
82 C4 156 -3.825
82 C4 157 -3.337
82 C4 158 -3.337
82 C4 159 -2.848
82 C4 160 -2.848
82 C4 161 -3.337
82 C4 162 -3.825
82 C4 163 -3.825
82 C4 164 -3.825
82 C4 165 -3.337
82 C4 166 -2.848
82 C4 167 -2.360
82 C4 168 -1.383
82 C4 169 -1.383
82 C4 170 -0.407
82 C4 171 -0.895
82 C4 172 -0.895
82 C4 173 -1.383
82 C4 174 -1.872
82 C4 175 -1.872
82 C4 176 -2.360
82 C4 177 -2.360
82 C4 178 -2.848
82 C4 179 -2.848
82 C4 180 -2.848
82 C4 181 -1.872
82 C4 182 -0.895
82 C4 183 -0.407
82 C4 184 -0.407
82 C4 185 -0.407
82 C4 186 -0.407
82 C4 187 -0.407
82 C4 188 0.081
82 C4 189 0.081
82 C4 190 0.081
82 C4 191 0.081
82 C4 192 -0.407
82 C4 193 -0.407
82 C4 194 0.081
82 C4 195 -0.407
82 C4 196 -0.895
82 C4 197 -1.872
82 C4 198 -2.360
82 C4 199 -2.848
82 C4 200 -2.360
82 C4 201 -1.872
82 C4 202 -1.383
82 C4 203 -1.872
82 C4 204 -2.360
82 C4 205 -2.360
82 C4 206 -2.848
82 C4 207 -2.360
82 C4 208 -2.360
82 C4 209 -1.383
82 C4 210 -0.407
82 C4 211 -0.407
82 C4 212 -0.895
82 C4 213 -1.383
82 C4 214 -2.848
82 C4 215 -3.825
82 C4 216 -3.825
82 C4 217 -3.337
82 C4 218 -2.848
82 C4 219 -2.848
82 C4 220 -2.848
82 C4 221 -3.825
82 C4 222 -4.313
82 C4 223 -4.801
82 C4 224 -4.801
82 C4 225 -4.313
82 C4 226 -3.337
82 C4 227 -2.360
82 C4 228 -0.895
82 C4 229 -0.407
82 C4 230 -0.407
82 C4 231 -0.895
82 C4 232 -2.360
82 C4 233 -2.360
82 C4 234 -2.360
82 C4 235 -1.383
82 C4 236 -0.407
82 C4 237 -0.407
82 C4 238 -0.895
82 C4 239 -2.360
82 C4 240 -3.825
82 C4 241 -4.313
82 C4 242 -4.313
82 C4 243 -3.337
82 C4 244 -2.360
82 C4 245 -1.383
82 C4 246 -0.895
82 C4 247 -0.895
82 C4 248 -0.895
82 C4 249 -1.383
82 C4 250 -1.383
82 C4 251 -1.383
82 C4 252 -1.383
82 C4 253 -0.895
82 C4 254 -0.407
82 C4 255 0.081
# CP5 chan 18
82 CP5 0 -0.854
82 CP5 1 1.587
82 CP5 2 4.028
82 CP5 3 6.470
82 CP5 4 9.399
82 CP5 5 11.841
82 CP5 6 13.794
82 CP5 7 14.771
82 CP5 8 15.747
82 CP5 9 16.235
82 CP5 10 14.771
82 CP5 11 12.329
82 CP5 12 8.423
82 CP5 13 3.540
82 CP5 14 -1.343
82 CP5 15 -4.761
82 CP5 16 -7.202
82 CP5 17 -8.179
82 CP5 18 -8.179
82 CP5 19 -7.690
82 CP5 20 -6.226
82 CP5 21 -4.272
82 CP5 22 -1.831
82 CP5 23 1.099
82 CP5 24 3.540
82 CP5 25 5.493
82 CP5 26 5.981
82 CP5 27 5.981
82 CP5 28 5.493
82 CP5 29 4.028
82 CP5 30 3.052
82 CP5 31 1.587
82 CP5 32 0.122
82 CP5 33 -1.343
82 CP5 34 -1.831
82 CP5 35 -1.831
82 CP5 36 -1.343
82 CP5 37 -1.343
82 CP5 38 -1.343
82 CP5 39 -1.343
82 CP5 40 -1.343
82 CP5 41 -0.854
82 CP5 42 -0.366
82 CP5 43 0.122
82 CP5 44 0.122
82 CP5 45 0.122
82 CP5 46 0.610
82 CP5 47 0.610
82 CP5 48 1.099
82 CP5 49 1.099
82 CP5 50 0.610
82 CP5 51 -0.366
82 CP5 52 -1.343
82 CP5 53 -2.319
82 CP5 54 -3.784
82 CP5 55 -4.761
82 CP5 56 -5.737
82 CP5 57 -6.226
82 CP5 58 -5.737
82 CP5 59 -5.737
82 CP5 60 -5.249
82 CP5 61 -5.249
82 CP5 62 -5.737
82 CP5 63 -5.737
82 CP5 64 -5.249
82 CP5 65 -4.272
82 CP5 66 -3.296
82 CP5 67 -2.808
82 CP5 68 -2.808
82 CP5 69 -2.319
82 CP5 70 -1.343
82 CP5 71 -0.854
82 CP5 72 -0.366
82 CP5 73 -1.343
82 CP5 74 -2.808
82 CP5 75 -3.296
82 CP5 76 -3.296
82 CP5 77 -1.831
82 CP5 78 0.122
82 CP5 79 1.099
82 CP5 80 1.587
82 CP5 81 0.610
82 CP5 82 0.122
82 CP5 83 -0.366
82 CP5 84 -0.854
82 CP5 85 -0.854
82 CP5 86 -0.366
82 CP5 87 -0.366
82 CP5 88 0.610
82 CP5 89 1.099
82 CP5 90 1.587
82 CP5 91 2.563
82 CP5 92 3.052
82 CP5 93 3.540
82 CP5 94 4.028
82 CP5 95 4.028
82 CP5 96 4.028
82 CP5 97 4.028
82 CP5 98 4.028
82 CP5 99 3.540
82 CP5 100 3.540
82 CP5 101 3.052
82 CP5 102 2.075
82 CP5 103 0.122
82 CP5 104 -1.831
82 CP5 105 -3.784
82 CP5 106 -4.761
82 CP5 107 -5.249
82 CP5 108 -4.761
82 CP5 109 -3.784
82 CP5 110 -2.319
82 CP5 111 -0.854
82 CP5 112 0.610
82 CP5 113 2.075
82 CP5 114 2.563
82 CP5 115 3.052
82 CP5 116 2.563
82 CP5 117 2.563
82 CP5 118 3.052
82 CP5 119 3.052
82 CP5 120 3.052
82 CP5 121 2.563
82 CP5 122 2.075
82 CP5 123 0.610
82 CP5 124 -0.366
82 CP5 125 -0.854
82 CP5 126 -1.831
82 CP5 127 -2.319
82 CP5 128 -2.808
82 CP5 129 -3.296
82 CP5 130 -3.296
82 CP5 131 -2.319
82 CP5 132 -1.343
82 CP5 133 -0.854
82 CP5 134 -0.854
82 CP5 135 -1.343
82 CP5 136 -1.831
82 CP5 137 -0.854
82 CP5 138 0.610
82 CP5 139 2.075
82 CP5 140 4.028
82 CP5 141 4.517
82 CP5 142 4.517
82 CP5 143 3.540
82 CP5 144 2.075
82 CP5 145 0.610
82 CP5 146 -0.854
82 CP5 147 -1.343
82 CP5 148 -0.854
82 CP5 149 0.610
82 CP5 150 1.587
82 CP5 151 1.587
82 CP5 152 0.610
82 CP5 153 -0.366
82 CP5 154 -0.854
82 CP5 155 -0.854
82 CP5 156 0.122
82 CP5 157 0.610
82 CP5 158 0.610
82 CP5 159 1.099
82 CP5 160 1.099
82 CP5 161 2.075
82 CP5 162 3.052
82 CP5 163 4.028
82 CP5 164 4.517
82 CP5 165 4.517
82 CP5 166 4.028
82 CP5 167 4.028
82 CP5 168 3.540
82 CP5 169 3.540
82 CP5 170 3.540
82 CP5 171 4.028
82 CP5 172 5.005
82 CP5 173 5.981
82 CP5 174 6.958
82 CP5 175 8.423
82 CP5 176 8.911
82 CP5 177 9.399
82 CP5 178 9.399
82 CP5 179 8.911
82 CP5 180 9.399
82 CP5 181 9.399
82 CP5 182 9.888
82 CP5 183 9.888
82 CP5 184 9.399
82 CP5 185 7.935
82 CP5 186 6.470
82 CP5 187 5.981
82 CP5 188 5.493
82 CP5 189 5.981
82 CP5 190 5.981
82 CP5 191 5.981
82 CP5 192 5.005
82 CP5 193 3.540
82 CP5 194 2.563
82 CP5 195 2.075
82 CP5 196 3.052
82 CP5 197 4.517
82 CP5 198 6.470
82 CP5 199 7.935
82 CP5 200 8.911
82 CP5 201 8.911
82 CP5 202 8.423
82 CP5 203 7.935
82 CP5 204 7.935
82 CP5 205 8.423
82 CP5 206 8.423
82 CP5 207 8.911
82 CP5 208 8.423
82 CP5 209 7.446
82 CP5 210 6.470
82 CP5 211 5.493
82 CP5 212 5.005
82 CP5 213 4.517
82 CP5 214 4.517
82 CP5 215 4.028
82 CP5 216 3.540
82 CP5 217 3.540
82 CP5 218 3.052
82 CP5 219 3.540
82 CP5 220 4.517
82 CP5 221 5.493
82 CP5 222 6.470
82 CP5 223 6.470
82 CP5 224 6.470
82 CP5 225 5.493
82 CP5 226 5.005
82 CP5 227 4.028
82 CP5 228 4.028
82 CP5 229 4.028
82 CP5 230 4.517
82 CP5 231 5.005
82 CP5 232 4.517
82 CP5 233 4.028
82 CP5 234 3.052
82 CP5 235 2.075
82 CP5 236 1.099
82 CP5 237 0.610
82 CP5 238 0.610
82 CP5 239 0.610
82 CP5 240 0.610
82 CP5 241 1.099
82 CP5 242 1.099
82 CP5 243 1.587
82 CP5 244 2.075
82 CP5 245 2.563
82 CP5 246 3.052
82 CP5 247 4.028
82 CP5 248 4.028
82 CP5 249 3.540
82 CP5 250 2.075
82 CP5 251 0.122
82 CP5 252 -1.343
82 CP5 253 -2.319
82 CP5 254 -2.319
82 CP5 255 -2.319
# CP6 chan 19
82 CP6 0 6.053
82 CP6 1 7.517
82 CP6 2 8.982
82 CP6 3 10.447
82 CP6 4 11.424
82 CP6 5 12.400
82 CP6 6 11.912
82 CP6 7 10.447
82 CP6 8 8.006
82 CP6 9 6.053
82 CP6 10 3.611
82 CP6 11 2.146
82 CP6 12 0.193
82 CP6 13 -0.783
82 CP6 14 -1.760
82 CP6 15 -2.248
82 CP6 16 -1.760
82 CP6 17 -0.783
82 CP6 18 0.682
82 CP6 19 1.658
82 CP6 20 1.658
82 CP6 21 2.146
82 CP6 22 2.635
82 CP6 23 3.611
82 CP6 24 5.076
82 CP6 25 7.029
82 CP6 26 7.517
82 CP6 27 6.541
82 CP6 28 5.076
82 CP6 29 2.635
82 CP6 30 0.193
82 CP6 31 -1.760
82 CP6 32 -2.248
82 CP6 33 -2.248
82 CP6 34 -1.272
82 CP6 35 -0.295
82 CP6 36 0.682
82 CP6 37 1.170
82 CP6 38 1.170
82 CP6 39 1.658
82 CP6 40 1.658
82 CP6 41 2.146
82 CP6 42 1.658
82 CP6 43 0.682
82 CP6 44 -0.783
82 CP6 45 -1.760
82 CP6 46 -1.760
82 CP6 47 -1.760
82 CP6 48 -1.272
82 CP6 49 -0.295
82 CP6 50 -0.783
82 CP6 51 -0.783
82 CP6 52 -0.783
82 CP6 53 -1.760
82 CP6 54 -2.248
82 CP6 55 -3.225
82 CP6 56 -4.690
82 CP6 57 -6.154
82 CP6 58 -7.131
82 CP6 59 -6.643
82 CP6 60 -5.666
82 CP6 61 -4.201
82 CP6 62 -2.736
82 CP6 63 -1.760
82 CP6 64 -0.783
82 CP6 65 0.193
82 CP6 66 0.682
82 CP6 67 1.170
82 CP6 68 0.193
82 CP6 69 -0.783
82 CP6 70 -1.760
82 CP6 71 -2.736
82 CP6 72 -3.225
82 CP6 73 -3.225
82 CP6 74 -3.225
82 CP6 75 -3.225
82 CP6 76 -3.225
82 CP6 77 -3.225
82 CP6 78 -3.225
82 CP6 79 -2.736
82 CP6 80 -1.760
82 CP6 81 -1.272
82 CP6 82 -0.783
82 CP6 83 -0.295
82 CP6 84 -0.295
82 CP6 85 -0.783
82 CP6 86 -0.783
82 CP6 87 -0.783
82 CP6 88 -0.783
82 CP6 89 0.193
82 CP6 90 1.170
82 CP6 91 1.170
82 CP6 92 1.170
82 CP6 93 1.658
82 CP6 94 2.146
82 CP6 95 2.635
82 CP6 96 3.123
82 CP6 97 3.611
82 CP6 98 3.123
82 CP6 99 2.635
82 CP6 100 2.146
82 CP6 101 2.635
82 CP6 102 3.123
82 CP6 103 3.611
82 CP6 104 3.123
82 CP6 105 2.146
82 CP6 106 0.682
82 CP6 107 -1.760
82 CP6 108 -3.225
82 CP6 109 -4.201
82 CP6 110 -3.713
82 CP6 111 -3.225
82 CP6 112 -2.248
82 CP6 113 -1.272
82 CP6 114 -0.295
82 CP6 115 -0.295
82 CP6 116 0.682
82 CP6 117 1.170
82 CP6 118 1.658
82 CP6 119 1.658
82 CP6 120 2.146
82 CP6 121 2.146
82 CP6 122 2.635
82 CP6 123 2.635
82 CP6 124 3.123
82 CP6 125 2.635
82 CP6 126 1.658
82 CP6 127 0.682
82 CP6 128 -0.295
82 CP6 129 0.193
82 CP6 130 0.682
82 CP6 131 1.170
82 CP6 132 1.170
82 CP6 133 0.682
82 CP6 134 0.193
82 CP6 135 0.682
82 CP6 136 1.170
82 CP6 137 2.635
82 CP6 138 4.100
82 CP6 139 5.076
82 CP6 140 5.564
82 CP6 141 5.076
82 CP6 142 4.588
82 CP6 143 3.611
82 CP6 144 3.123
82 CP6 145 2.635
82 CP6 146 2.635
82 CP6 147 2.146
82 CP6 148 2.146
82 CP6 149 1.658
82 CP6 150 1.170
82 CP6 151 1.170
82 CP6 152 0.682
82 CP6 153 -0.783
82 CP6 154 -1.760
82 CP6 155 -2.248
82 CP6 156 -2.248
82 CP6 157 -1.272
82 CP6 158 -0.295
82 CP6 159 0.193
82 CP6 160 -0.295
82 CP6 161 -0.295
82 CP6 162 -0.783
82 CP6 163 -0.295
82 CP6 164 0.193
82 CP6 165 0.682
82 CP6 166 0.193
82 CP6 167 0.193
82 CP6 168 0.682
82 CP6 169 1.170
82 CP6 170 1.658
82 CP6 171 2.146
82 CP6 172 2.635
82 CP6 173 1.658
82 CP6 174 1.170
82 CP6 175 1.170
82 CP6 176 2.146
82 CP6 177 2.635
82 CP6 178 3.123
82 CP6 179 3.611
82 CP6 180 4.100
82 CP6 181 5.076
82 CP6 182 6.541
82 CP6 183 7.517
82 CP6 184 8.006
82 CP6 185 7.029
82 CP6 186 6.053
82 CP6 187 5.564
82 CP6 188 5.564
82 CP6 189 6.053
82 CP6 190 6.541
82 CP6 191 6.541
82 CP6 192 6.053
82 CP6 193 5.564
82 CP6 194 5.076
82 CP6 195 5.076
82 CP6 196 4.588
82 CP6 197 4.100
82 CP6 198 3.611
82 CP6 199 3.123
82 CP6 200 3.611
82 CP6 201 3.611
82 CP6 202 3.611
82 CP6 203 3.611
82 CP6 204 3.123
82 CP6 205 3.123
82 CP6 206 3.123
82 CP6 207 3.611
82 CP6 208 4.100
82 CP6 209 5.076
82 CP6 210 6.053
82 CP6 211 6.053
82 CP6 212 6.053
82 CP6 213 4.588
82 CP6 214 3.123
82 CP6 215 1.658
82 CP6 216 1.170
82 CP6 217 1.170
82 CP6 218 1.658
82 CP6 219 1.658
82 CP6 220 1.170
82 CP6 221 -0.295
82 CP6 222 -1.760
82 CP6 223 -2.248
82 CP6 224 -2.248
82 CP6 225 -1.272
82 CP6 226 0.193
82 CP6 227 2.146
82 CP6 228 3.611
82 CP6 229 4.588
82 CP6 230 4.588
82 CP6 231 4.100
82 CP6 232 3.123
82 CP6 233 2.146
82 CP6 234 2.146
82 CP6 235 3.123
82 CP6 236 3.123
82 CP6 237 3.123
82 CP6 238 1.658
82 CP6 239 -0.295
82 CP6 240 -1.272
82 CP6 241 -1.760
82 CP6 242 -0.783
82 CP6 243 -0.295
82 CP6 244 1.170
82 CP6 245 1.170
82 CP6 246 1.170
82 CP6 247 0.682
82 CP6 248 0.193
82 CP6 249 -0.295
82 CP6 250 -1.272
82 CP6 251 -2.248
82 CP6 252 -2.248
82 CP6 253 -2.248
82 CP6 254 -1.760
82 CP6 255 -0.295
# CP1 chan 20
82 CP1 0 1.994
82 CP1 1 2.970
82 CP1 2 4.435
82 CP1 3 5.412
82 CP1 4 6.388
82 CP1 5 7.365
82 CP1 6 7.853
82 CP1 7 8.341
82 CP1 8 8.341
82 CP1 9 8.341
82 CP1 10 7.365
82 CP1 11 6.388
82 CP1 12 4.435
82 CP1 13 2.970
82 CP1 14 1.017
82 CP1 15 0.041
82 CP1 16 -0.936
82 CP1 17 -1.424
82 CP1 18 -0.936
82 CP1 19 -0.448
82 CP1 20 0.041
82 CP1 21 1.994
82 CP1 22 3.459
82 CP1 23 4.924
82 CP1 24 6.388
82 CP1 25 6.388
82 CP1 26 6.388
82 CP1 27 5.900
82 CP1 28 5.412
82 CP1 29 3.947
82 CP1 30 2.970
82 CP1 31 1.017
82 CP1 32 0.529
82 CP1 33 0.529
82 CP1 34 0.529
82 CP1 35 1.017
82 CP1 36 1.506
82 CP1 37 1.506
82 CP1 38 1.506
82 CP1 39 1.506
82 CP1 40 1.994
82 CP1 41 1.994
82 CP1 42 1.994
82 CP1 43 1.506
82 CP1 44 1.017
82 CP1 45 0.529
82 CP1 46 0.529
82 CP1 47 1.017
82 CP1 48 1.017
82 CP1 49 1.017
82 CP1 50 0.529
82 CP1 51 -0.448
82 CP1 52 -1.424
82 CP1 53 -2.401
82 CP1 54 -2.889
82 CP1 55 -3.377
82 CP1 56 -3.377
82 CP1 57 -2.401
82 CP1 58 -1.424
82 CP1 59 -0.448
82 CP1 60 -0.448
82 CP1 61 -0.936
82 CP1 62 -1.424
82 CP1 63 -1.912
82 CP1 64 -2.401
82 CP1 65 -1.912
82 CP1 66 -1.424
82 CP1 67 -1.424
82 CP1 68 -0.936
82 CP1 69 -0.448
82 CP1 70 0.041
82 CP1 71 0.529
82 CP1 72 0.529
82 CP1 73 -0.448
82 CP1 74 -1.424
82 CP1 75 -1.912
82 CP1 76 -1.912
82 CP1 77 -0.936
82 CP1 78 0.041
82 CP1 79 0.529
82 CP1 80 1.017
82 CP1 81 1.017
82 CP1 82 0.529
82 CP1 83 0.529
82 CP1 84 0.529
82 CP1 85 0.529
82 CP1 86 1.017
82 CP1 87 1.994
82 CP1 88 2.482
82 CP1 89 3.459
82 CP1 90 4.435
82 CP1 91 4.924
82 CP1 92 4.924
82 CP1 93 5.412
82 CP1 94 4.924
82 CP1 95 4.435
82 CP1 96 4.435
82 CP1 97 3.947
82 CP1 98 3.459
82 CP1 99 2.970
82 CP1 100 2.482
82 CP1 101 1.506
82 CP1 102 1.017
82 CP1 103 0.041
82 CP1 104 -0.448
82 CP1 105 -1.424
82 CP1 106 -1.912
82 CP1 107 -1.912
82 CP1 108 -1.424
82 CP1 109 -0.448
82 CP1 110 0.529
82 CP1 111 1.506
82 CP1 112 2.482
82 CP1 113 2.482
82 CP1 114 2.482
82 CP1 115 2.482
82 CP1 116 2.482
82 CP1 117 1.994
82 CP1 118 1.994
82 CP1 119 1.994
82 CP1 120 1.994
82 CP1 121 1.994
82 CP1 122 1.994
82 CP1 123 1.994
82 CP1 124 1.994
82 CP1 125 1.994
82 CP1 126 1.017
82 CP1 127 0.529
82 CP1 128 0.529
82 CP1 129 0.529
82 CP1 130 0.529
82 CP1 131 1.017
82 CP1 132 1.017
82 CP1 133 1.506
82 CP1 134 1.017
82 CP1 135 1.017
82 CP1 136 1.017
82 CP1 137 1.506
82 CP1 138 1.994
82 CP1 139 2.970
82 CP1 140 3.947
82 CP1 141 3.947
82 CP1 142 3.947
82 CP1 143 2.970
82 CP1 144 2.482
82 CP1 145 1.506
82 CP1 146 1.017
82 CP1 147 1.506
82 CP1 148 2.482
82 CP1 149 2.970
82 CP1 150 3.459
82 CP1 151 2.970
82 CP1 152 1.994
82 CP1 153 1.017
82 CP1 154 0.529
82 CP1 155 0.529
82 CP1 156 0.529
82 CP1 157 0.041
82 CP1 158 0.041
82 CP1 159 0.041
82 CP1 160 0.529
82 CP1 161 1.017
82 CP1 162 1.994
82 CP1 163 2.482
82 CP1 164 2.970
82 CP1 165 3.459
82 CP1 166 3.459
82 CP1 167 2.970
82 CP1 168 2.482
82 CP1 169 1.994
82 CP1 170 1.506
82 CP1 171 1.994
82 CP1 172 1.994
82 CP1 173 2.482
82 CP1 174 2.970
82 CP1 175 3.459
82 CP1 176 3.459
82 CP1 177 3.459
82 CP1 178 3.459
82 CP1 179 3.459
82 CP1 180 3.947
82 CP1 181 3.947
82 CP1 182 4.435
82 CP1 183 3.947
82 CP1 184 3.947
82 CP1 185 3.459
82 CP1 186 2.970
82 CP1 187 2.970
82 CP1 188 2.970
82 CP1 189 3.459
82 CP1 190 3.947
82 CP1 191 3.947
82 CP1 192 3.947
82 CP1 193 3.459
82 CP1 194 2.482
82 CP1 195 1.994
82 CP1 196 1.994
82 CP1 197 2.482
82 CP1 198 3.459
82 CP1 199 4.435
82 CP1 200 4.435
82 CP1 201 4.435
82 CP1 202 3.947
82 CP1 203 3.459
82 CP1 204 3.947
82 CP1 205 4.435
82 CP1 206 4.924
82 CP1 207 4.924
82 CP1 208 4.924
82 CP1 209 4.924
82 CP1 210 4.924
82 CP1 211 4.924
82 CP1 212 4.924
82 CP1 213 3.947
82 CP1 214 3.459
82 CP1 215 2.482
82 CP1 216 1.994
82 CP1 217 2.482
82 CP1 218 2.482
82 CP1 219 2.970
82 CP1 220 3.459
82 CP1 221 3.459
82 CP1 222 3.947
82 CP1 223 3.459
82 CP1 224 3.947
82 CP1 225 3.459
82 CP1 226 2.482
82 CP1 227 1.994
82 CP1 228 1.994
82 CP1 229 1.994
82 CP1 230 1.994
82 CP1 231 2.482
82 CP1 232 2.482
82 CP1 233 2.482
82 CP1 234 1.994
82 CP1 235 1.506
82 CP1 236 1.017
82 CP1 237 1.017
82 CP1 238 0.529
82 CP1 239 0.041
82 CP1 240 -0.448
82 CP1 241 0.041
82 CP1 242 0.529
82 CP1 243 1.017
82 CP1 244 1.017
82 CP1 245 1.506
82 CP1 246 1.506
82 CP1 247 1.017
82 CP1 248 1.017
82 CP1 249 1.017
82 CP1 250 1.017
82 CP1 251 0.041
82 CP1 252 -0.448
82 CP1 253 -1.424
82 CP1 254 -1.424
82 CP1 255 -1.912
# CP2 chan 21
82 CP2 0 6.165
82 CP2 1 6.653
82 CP2 2 7.141
82 CP2 3 7.629
82 CP2 4 7.629
82 CP2 5 7.141
82 CP2 6 6.165
82 CP2 7 5.188
82 CP2 8 4.211
82 CP2 9 3.723
82 CP2 10 2.747
82 CP2 11 2.258
82 CP2 12 0.793
82 CP2 13 0.305
82 CP2 14 -0.183
82 CP2 15 -0.183
82 CP2 16 0.793
82 CP2 17 2.258
82 CP2 18 2.747
82 CP2 19 3.235
82 CP2 20 3.235
82 CP2 21 3.723
82 CP2 22 4.211
82 CP2 23 4.700
82 CP2 24 5.676
82 CP2 25 6.165
82 CP2 26 5.676
82 CP2 27 5.188
82 CP2 28 4.211
82 CP2 29 2.747
82 CP2 30 0.793
82 CP2 31 -0.183
82 CP2 32 -1.160
82 CP2 33 -1.160
82 CP2 34 -0.183
82 CP2 35 0.793
82 CP2 36 1.770
82 CP2 37 2.258
82 CP2 38 2.258
82 CP2 39 2.747
82 CP2 40 2.747
82 CP2 41 3.235
82 CP2 42 2.747
82 CP2 43 1.770
82 CP2 44 0.793
82 CP2 45 -0.183
82 CP2 46 -0.183
82 CP2 47 -0.671
82 CP2 48 -0.183
82 CP2 49 -0.183
82 CP2 50 -0.671
82 CP2 51 -1.160
82 CP2 52 -2.136
82 CP2 53 -2.625
82 CP2 54 -3.113
82 CP2 55 -3.601
82 CP2 56 -3.601
82 CP2 57 -3.601
82 CP2 58 -3.113
82 CP2 59 -3.113
82 CP2 60 -2.136
82 CP2 61 -1.648
82 CP2 62 -1.648
82 CP2 63 -1.160
82 CP2 64 -1.160
82 CP2 65 -0.671
82 CP2 66 -0.671
82 CP2 67 -0.671
82 CP2 68 -0.671
82 CP2 69 -0.671
82 CP2 70 -0.671
82 CP2 71 -0.183
82 CP2 72 -0.183
82 CP2 73 -0.183
82 CP2 74 -0.671
82 CP2 75 -1.160
82 CP2 76 -1.648
82 CP2 77 -1.648
82 CP2 78 -1.648
82 CP2 79 -1.648
82 CP2 80 -1.160
82 CP2 81 -1.160
82 CP2 82 -1.160
82 CP2 83 -0.671
82 CP2 84 -0.671
82 CP2 85 -0.671
82 CP2 86 -0.183
82 CP2 87 0.305
82 CP2 88 0.793
82 CP2 89 1.282
82 CP2 90 1.770
82 CP2 91 2.258
82 CP2 92 2.747
82 CP2 93 2.747
82 CP2 94 2.747
82 CP2 95 2.747
82 CP2 96 3.235
82 CP2 97 3.235
82 CP2 98 2.747
82 CP2 99 2.747
82 CP2 100 2.258
82 CP2 101 2.258
82 CP2 102 2.258
82 CP2 103 2.747
82 CP2 104 2.747
82 CP2 105 2.258
82 CP2 106 1.770
82 CP2 107 0.793
82 CP2 108 -0.183
82 CP2 109 -0.183
82 CP2 110 -0.183
82 CP2 111 0.305
82 CP2 112 0.305
82 CP2 113 0.305
82 CP2 114 0.305
82 CP2 115 0.305
82 CP2 116 0.305
82 CP2 117 0.305
82 CP2 118 0.305
82 CP2 119 0.305
82 CP2 120 0.305
82 CP2 121 0.793
82 CP2 122 1.770
82 CP2 123 2.258
82 CP2 124 2.747
82 CP2 125 2.258
82 CP2 126 1.770
82 CP2 127 1.282
82 CP2 128 1.282
82 CP2 129 1.770
82 CP2 130 2.258
82 CP2 131 2.258
82 CP2 132 2.258
82 CP2 133 1.770
82 CP2 134 0.793
82 CP2 135 0.793
82 CP2 136 1.282
82 CP2 137 1.770
82 CP2 138 2.258
82 CP2 139 2.747
82 CP2 140 3.235
82 CP2 141 3.235
82 CP2 142 3.235
82 CP2 143 2.258
82 CP2 144 1.770
82 CP2 145 1.282
82 CP2 146 1.282
82 CP2 147 0.793
82 CP2 148 1.282
82 CP2 149 1.282
82 CP2 150 1.282
82 CP2 151 0.793
82 CP2 152 0.305
82 CP2 153 -0.183
82 CP2 154 -0.671
82 CP2 155 -1.160
82 CP2 156 -1.648
82 CP2 157 -1.160
82 CP2 158 -1.160
82 CP2 159 -1.160
82 CP2 160 -1.648
82 CP2 161 -1.648
82 CP2 162 -1.160
82 CP2 163 -0.671
82 CP2 164 0.305
82 CP2 165 0.305
82 CP2 166 0.305
82 CP2 167 -0.183
82 CP2 168 -0.183
82 CP2 169 -0.183
82 CP2 170 -0.183
82 CP2 171 -0.183
82 CP2 172 -0.183
82 CP2 173 -0.671
82 CP2 174 -0.671
82 CP2 175 -1.160
82 CP2 176 -1.160
82 CP2 177 -0.671
82 CP2 178 -0.183
82 CP2 179 -0.183
82 CP2 180 0.305
82 CP2 181 0.793
82 CP2 182 1.282
82 CP2 183 1.770
82 CP2 184 1.770
82 CP2 185 1.282
82 CP2 186 1.282
82 CP2 187 0.793
82 CP2 188 0.793
82 CP2 189 1.770
82 CP2 190 1.770
82 CP2 191 2.258
82 CP2 192 2.258
82 CP2 193 2.747
82 CP2 194 2.747
82 CP2 195 2.258
82 CP2 196 1.770
82 CP2 197 1.282
82 CP2 198 0.793
82 CP2 199 1.282
82 CP2 200 1.282
82 CP2 201 1.770
82 CP2 202 1.282
82 CP2 203 1.282
82 CP2 204 1.770
82 CP2 205 1.770
82 CP2 206 1.770
82 CP2 207 2.258
82 CP2 208 2.258
82 CP2 209 2.747
82 CP2 210 3.723
82 CP2 211 3.723
82 CP2 212 3.723
82 CP2 213 2.747
82 CP2 214 1.770
82 CP2 215 0.793
82 CP2 216 0.305
82 CP2 217 0.793
82 CP2 218 1.282
82 CP2 219 1.282
82 CP2 220 1.282
82 CP2 221 0.305
82 CP2 222 -0.183
82 CP2 223 -0.671
82 CP2 224 -1.160
82 CP2 225 -1.160
82 CP2 226 -0.671
82 CP2 227 -0.671
82 CP2 228 -0.183
82 CP2 229 0.305
82 CP2 230 0.793
82 CP2 231 0.793
82 CP2 232 0.305
82 CP2 233 0.305
82 CP2 234 0.305
82 CP2 235 0.305
82 CP2 236 0.793
82 CP2 237 0.305
82 CP2 238 -0.671
82 CP2 239 -1.160
82 CP2 240 -1.648
82 CP2 241 -2.136
82 CP2 242 -1.648
82 CP2 243 -1.160
82 CP2 244 -0.671
82 CP2 245 -0.671
82 CP2 246 -0.671
82 CP2 247 -1.160
82 CP2 248 -1.648
82 CP2 249 -1.648
82 CP2 250 -1.648
82 CP2 251 -2.136
82 CP2 252 -2.625
82 CP2 253 -2.625
82 CP2 254 -2.625
82 CP2 255 -2.136
# P3 chan 22
82 P3 0 7.568
82 P3 1 10.010
82 P3 2 12.939
82 P3 3 14.893
82 P3 4 16.846
82 P3 5 17.822
82 P3 6 18.799
82 P3 7 18.799
82 P3 8 18.311
82 P3 9 17.334
82 P3 10 15.381
82 P3 11 11.963
82 P3 12 8.057
82 P3 13 4.150
82 P3 14 0.244
82 P3 15 -2.197
82 P3 16 -4.150
82 P3 17 -4.639
82 P3 18 -3.662
82 P3 19 -2.197
82 P3 20 0.244
82 P3 21 3.662
82 P3 22 7.568
82 P3 23 10.986
82 P3 24 13.916
82 P3 25 15.381
82 P3 26 15.381
82 P3 27 13.916
82 P3 28 11.963
82 P3 29 9.033
82 P3 30 6.592
82 P3 31 4.150
82 P3 32 2.197
82 P3 33 1.709
82 P3 34 1.709
82 P3 35 2.197
82 P3 36 2.686
82 P3 37 3.662
82 P3 38 4.150
82 P3 39 4.639
82 P3 40 4.639
82 P3 41 4.639
82 P3 42 4.639
82 P3 43 4.150
82 P3 44 4.150
82 P3 45 4.150
82 P3 46 4.150
82 P3 47 4.150
82 P3 48 4.639
82 P3 49 4.150
82 P3 50 3.662
82 P3 51 2.197
82 P3 52 1.221
82 P3 53 -0.244
82 P3 54 -1.709
82 P3 55 -2.686
82 P3 56 -3.174
82 P3 57 -2.686
82 P3 58 -1.709
82 P3 59 -1.221
82 P3 60 -0.732
82 P3 61 -1.221
82 P3 62 -2.197
82 P3 63 -2.197
82 P3 64 -2.197
82 P3 65 -1.709
82 P3 66 -0.732
82 P3 67 -0.244
82 P3 68 0.732
82 P3 69 2.197
82 P3 70 4.150
82 P3 71 5.127
82 P3 72 5.127
82 P3 73 3.662
82 P3 74 1.709
82 P3 75 0.244
82 P3 76 -0.732
82 P3 77 0.244
82 P3 78 1.221
82 P3 79 2.686
82 P3 80 3.662
82 P3 81 3.662
82 P3 82 3.662
82 P3 83 3.662
82 P3 84 4.150
82 P3 85 4.150
82 P3 86 4.150
82 P3 87 4.150
82 P3 88 4.639
82 P3 89 5.615
82 P3 90 6.592
82 P3 91 8.057
82 P3 92 9.033
82 P3 93 9.521
82 P3 94 10.010
82 P3 95 10.010
82 P3 96 10.010
82 P3 97 10.498
82 P3 98 10.498
82 P3 99 10.498
82 P3 100 10.010
82 P3 101 9.033
82 P3 102 8.057
82 P3 103 6.104
82 P3 104 4.150
82 P3 105 2.686
82 P3 106 0.732
82 P3 107 0.244
82 P3 108 -0.244
82 P3 109 0.244
82 P3 110 1.221
82 P3 111 2.197
82 P3 112 3.174
82 P3 113 4.150
82 P3 114 4.639
82 P3 115 4.639
82 P3 116 4.150
82 P3 117 4.150
82 P3 118 4.639
82 P3 119 5.127
82 P3 120 5.615
82 P3 121 6.104
82 P3 122 6.592
82 P3 123 6.592
82 P3 124 6.104
82 P3 125 5.127
82 P3 126 4.150
82 P3 127 3.662
82 P3 128 3.174
82 P3 129 3.174
82 P3 130 3.174
82 P3 131 3.662
82 P3 132 3.662
82 P3 133 3.174
82 P3 134 3.174
82 P3 135 3.174
82 P3 136 3.662
82 P3 137 4.150
82 P3 138 5.615
82 P3 139 7.080
82 P3 140 8.057
82 P3 141 9.033
82 P3 142 8.545
82 P3 143 7.568
82 P3 144 6.104
82 P3 145 4.150
82 P3 146 3.174
82 P3 147 3.174
82 P3 148 4.150
82 P3 149 5.615
82 P3 150 6.104
82 P3 151 6.104
82 P3 152 4.150
82 P3 153 2.686
82 P3 154 1.709
82 P3 155 1.709
82 P3 156 1.709
82 P3 157 2.686
82 P3 158 2.686
82 P3 159 2.686
82 P3 160 2.686
82 P3 161 3.174
82 P3 162 4.150
82 P3 163 5.127
82 P3 164 5.615
82 P3 165 6.104
82 P3 166 5.615
82 P3 167 5.127
82 P3 168 4.639
82 P3 169 4.150
82 P3 170 4.639
82 P3 171 4.639
82 P3 172 5.127
82 P3 173 6.104
82 P3 174 6.592
82 P3 175 7.568
82 P3 176 8.057
82 P3 177 8.545
82 P3 178 9.033
82 P3 179 8.545
82 P3 180 8.545
82 P3 181 8.545
82 P3 182 8.545
82 P3 183 9.033
82 P3 184 8.545
82 P3 185 8.057
82 P3 186 6.592
82 P3 187 6.104
82 P3 188 6.104
82 P3 189 7.080
82 P3 190 7.568
82 P3 191 8.057
82 P3 192 7.080
82 P3 193 6.104
82 P3 194 4.639
82 P3 195 4.639
82 P3 196 5.615
82 P3 197 7.080
82 P3 198 9.033
82 P3 199 10.010
82 P3 200 10.498
82 P3 201 10.010
82 P3 202 9.521
82 P3 203 9.521
82 P3 204 9.521
82 P3 205 10.010
82 P3 206 10.010
82 P3 207 10.010
82 P3 208 10.010
82 P3 209 9.521
82 P3 210 9.521
82 P3 211 9.033
82 P3 212 9.033
82 P3 213 8.545
82 P3 214 7.568
82 P3 215 7.080
82 P3 216 6.104
82 P3 217 6.104
82 P3 218 6.104
82 P3 219 6.592
82 P3 220 7.568
82 P3 221 8.057
82 P3 222 8.545
82 P3 223 8.545
82 P3 224 8.057
82 P3 225 7.080
82 P3 226 6.592
82 P3 227 5.615
82 P3 228 5.127
82 P3 229 5.127
82 P3 230 5.615
82 P3 231 6.104
82 P3 232 6.104
82 P3 233 6.104
82 P3 234 5.615
82 P3 235 5.127
82 P3 236 4.639
82 P3 237 3.662
82 P3 238 2.197
82 P3 239 1.709
82 P3 240 1.709
82 P3 241 1.709
82 P3 242 2.686
82 P3 243 3.662
82 P3 244 4.150
82 P3 245 4.639
82 P3 246 4.639
82 P3 247 4.639
82 P3 248 4.639
82 P3 249 4.150
82 P3 250 2.686
82 P3 251 1.221
82 P3 252 -0.244
82 P3 253 -1.221
82 P3 254 -1.709
82 P3 255 -1.709
# P4 chan 23
82 P4 0 9.430
82 P4 1 11.871
82 P4 2 14.313
82 P4 3 16.266
82 P4 4 17.731
82 P4 5 17.731
82 P4 6 16.754
82 P4 7 14.801
82 P4 8 12.848
82 P4 9 9.918
82 P4 10 7.477
82 P4 11 5.035
82 P4 12 2.106
82 P4 13 -0.336
82 P4 14 -1.312
82 P4 15 -0.336
82 P4 16 1.617
82 P4 17 4.547
82 P4 18 6.500
82 P4 19 8.942
82 P4 20 10.406
82 P4 21 11.871
82 P4 22 13.824
82 P4 23 15.778
82 P4 24 17.731
82 P4 25 18.707
82 P4 26 18.707
82 P4 27 17.242
82 P4 28 14.313
82 P4 29 10.406
82 P4 30 6.012
82 P4 31 2.594
82 P4 32 0.641
82 P4 33 1.129
82 P4 34 3.571
82 P4 35 6.012
82 P4 36 7.965
82 P4 37 8.942
82 P4 38 9.918
82 P4 39 10.406
82 P4 40 11.383
82 P4 41 12.360
82 P4 42 12.360
82 P4 43 10.895
82 P4 44 8.942
82 P4 45 7.477
82 P4 46 6.989
82 P4 47 7.477
82 P4 48 7.965
82 P4 49 8.453
82 P4 50 7.965
82 P4 51 6.989
82 P4 52 6.012
82 P4 53 4.547
82 P4 54 3.082
82 P4 55 1.129
82 P4 56 0.153
82 P4 57 -0.824
82 P4 58 -1.312
82 P4 59 -0.824
82 P4 60 0.153
82 P4 61 1.129
82 P4 62 2.106
82 P4 63 3.082
82 P4 64 4.059
82 P4 65 5.035
82 P4 66 6.012
82 P4 67 6.012
82 P4 68 6.012
82 P4 69 6.012
82 P4 70 6.012
82 P4 71 6.012
82 P4 72 6.500
82 P4 73 6.500
82 P4 74 5.524
82 P4 75 5.035
82 P4 76 5.035
82 P4 77 5.035
82 P4 78 6.012
82 P4 79 6.989
82 P4 80 7.477
82 P4 81 6.989
82 P4 82 6.500
82 P4 83 6.012
82 P4 84 5.524
82 P4 85 5.524
82 P4 86 5.524
82 P4 87 6.012
82 P4 88 6.500
82 P4 89 6.989
82 P4 90 7.965
82 P4 91 8.942
82 P4 92 9.430
82 P4 93 9.430
82 P4 94 9.430
82 P4 95 9.918
82 P4 96 10.895
82 P4 97 11.871
82 P4 98 12.360
82 P4 99 12.360
82 P4 100 11.383
82 P4 101 10.406
82 P4 102 9.918
82 P4 103 9.430
82 P4 104 9.430
82 P4 105 7.965
82 P4 106 6.012
82 P4 107 3.571
82 P4 108 1.617
82 P4 109 0.641
82 P4 110 1.129
82 P4 111 2.106
82 P4 112 3.571
82 P4 113 4.059
82 P4 114 4.059
82 P4 115 4.059
82 P4 116 4.059
82 P4 117 4.547
82 P4 118 4.547
82 P4 119 5.035
82 P4 120 5.524
82 P4 121 6.500
82 P4 122 7.477
82 P4 123 8.453
82 P4 124 8.453
82 P4 125 6.989
82 P4 126 6.012
82 P4 127 4.547
82 P4 128 4.059
82 P4 129 4.547
82 P4 130 5.035
82 P4 131 5.035
82 P4 132 5.035
82 P4 133 4.547
82 P4 134 4.059
82 P4 135 4.547
82 P4 136 5.524
82 P4 137 6.989
82 P4 138 7.965
82 P4 139 8.942
82 P4 140 8.942
82 P4 141 8.453
82 P4 142 7.477
82 P4 143 6.500
82 P4 144 5.524
82 P4 145 4.547
82 P4 146 4.547
82 P4 147 4.547
82 P4 148 4.547
82 P4 149 4.547
82 P4 150 4.059
82 P4 151 3.571
82 P4 152 2.106
82 P4 153 1.129
82 P4 154 0.153
82 P4 155 -0.336
82 P4 156 -0.824
82 P4 157 -0.336
82 P4 158 -0.336
82 P4 159 -0.336
82 P4 160 -0.336
82 P4 161 0.153
82 P4 162 1.129
82 P4 163 2.106
82 P4 164 3.571
82 P4 165 3.571
82 P4 166 2.594
82 P4 167 1.617
82 P4 168 0.641
82 P4 169 0.641
82 P4 170 0.641
82 P4 171 1.129
82 P4 172 0.641
82 P4 173 0.153
82 P4 174 0.153
82 P4 175 0.153
82 P4 176 0.641
82 P4 177 1.617
82 P4 178 2.106
82 P4 179 3.571
82 P4 180 4.059
82 P4 181 5.035
82 P4 182 6.012
82 P4 183 6.989
82 P4 184 6.500
82 P4 185 5.524
82 P4 186 5.035
82 P4 187 4.547
82 P4 188 4.547
82 P4 189 5.035
82 P4 190 5.524
82 P4 191 6.012
82 P4 192 5.524
82 P4 193 5.035
82 P4 194 4.547
82 P4 195 4.059
82 P4 196 4.059
82 P4 197 4.059
82 P4 198 4.059
82 P4 199 3.571
82 P4 200 3.571
82 P4 201 3.571
82 P4 202 3.571
82 P4 203 4.059
82 P4 204 4.547
82 P4 205 4.547
82 P4 206 4.547
82 P4 207 5.035
82 P4 208 6.012
82 P4 209 7.477
82 P4 210 8.942
82 P4 211 9.430
82 P4 212 8.942
82 P4 213 6.500
82 P4 214 5.035
82 P4 215 3.571
82 P4 216 3.571
82 P4 217 4.059
82 P4 218 3.571
82 P4 219 3.571
82 P4 220 2.106
82 P4 221 1.129
82 P4 222 0.641
82 P4 223 -0.336
82 P4 224 -0.824
82 P4 225 -0.824
82 P4 226 -0.336
82 P4 227 0.153
82 P4 228 1.617
82 P4 229 2.594
82 P4 230 3.082
82 P4 231 3.082
82 P4 232 2.106
82 P4 233 2.106
82 P4 234 2.594
82 P4 235 3.571
82 P4 236 3.571
82 P4 237 2.594
82 P4 238 0.641
82 P4 239 -1.312
82 P4 240 -1.801
82 P4 241 -1.312
82 P4 242 -0.336
82 P4 243 0.641
82 P4 244 0.641
82 P4 245 0.641
82 P4 246 -0.336
82 P4 247 -0.824
82 P4 248 -1.801
82 P4 249 -2.777
82 P4 250 -4.242
82 P4 251 -4.730
82 P4 252 -5.219
82 P4 253 -4.730
82 P4 254 -3.754
82 P4 255 -3.265
# PZ chan 24
82 PZ 0 11.525
82 PZ 1 12.990
82 PZ 2 14.943
82 PZ 3 16.408
82 PZ 4 16.897
82 PZ 5 17.385
82 PZ 6 16.408
82 PZ 7 15.432
82 PZ 8 14.455
82 PZ 9 12.502
82 PZ 10 10.549
82 PZ 11 7.619
82 PZ 12 4.690
82 PZ 13 2.248
82 PZ 14 -0.193
82 PZ 15 -1.170
82 PZ 16 -1.658
82 PZ 17 -0.193
82 PZ 18 0.783
82 PZ 19 2.248
82 PZ 20 4.201
82 PZ 21 6.643
82 PZ 22 9.084
82 PZ 23 11.525
82 PZ 24 13.479
82 PZ 25 14.455
82 PZ 26 14.455
82 PZ 27 12.990
82 PZ 28 11.037
82 PZ 29 8.108
82 PZ 30 5.178
82 PZ 31 2.736
82 PZ 32 0.783
82 PZ 33 0.783
82 PZ 34 1.272
82 PZ 35 3.225
82 PZ 36 4.690
82 PZ 37 5.666
82 PZ 38 6.154
82 PZ 39 6.643
82 PZ 40 7.131
82 PZ 41 7.131
82 PZ 42 7.131
82 PZ 43 6.154
82 PZ 44 5.178
82 PZ 45 4.690
82 PZ 46 4.690
82 PZ 47 4.690
82 PZ 48 5.178
82 PZ 49 4.690
82 PZ 50 3.713
82 PZ 51 2.736
82 PZ 52 1.760
82 PZ 53 0.783
82 PZ 54 -0.193
82 PZ 55 -1.170
82 PZ 56 -1.658
82 PZ 57 -1.658
82 PZ 58 -1.170
82 PZ 59 -0.193
82 PZ 60 0.295
82 PZ 61 0.295
82 PZ 62 -0.193
82 PZ 63 -0.193
82 PZ 64 -0.682
82 PZ 65 -0.193
82 PZ 66 0.295
82 PZ 67 0.783
82 PZ 68 1.760
82 PZ 69 2.736
82 PZ 70 4.201
82 PZ 71 5.178
82 PZ 72 5.666
82 PZ 73 4.690
82 PZ 74 3.225
82 PZ 75 1.760
82 PZ 76 0.783
82 PZ 77 0.783
82 PZ 78 1.760
82 PZ 79 2.248
82 PZ 80 2.736
82 PZ 81 3.225
82 PZ 82 3.225
82 PZ 83 3.713
82 PZ 84 3.713
82 PZ 85 4.201
82 PZ 86 4.201
82 PZ 87 4.690
82 PZ 88 4.690
82 PZ 89 5.666
82 PZ 90 6.154
82 PZ 91 7.619
82 PZ 92 8.108
82 PZ 93 8.596
82 PZ 94 9.084
82 PZ 95 9.572
82 PZ 96 10.549
82 PZ 97 11.037
82 PZ 98 11.525
82 PZ 99 12.014
82 PZ 100 11.525
82 PZ 101 10.549
82 PZ 102 10.061
82 PZ 103 8.596
82 PZ 104 7.619
82 PZ 105 6.154
82 PZ 106 4.690
82 PZ 107 3.225
82 PZ 108 2.248
82 PZ 109 2.248
82 PZ 110 3.225
82 PZ 111 3.713
82 PZ 112 4.690
82 PZ 113 4.690
82 PZ 114 4.690
82 PZ 115 4.690
82 PZ 116 4.690
82 PZ 117 4.690
82 PZ 118 4.690
82 PZ 119 5.178
82 PZ 120 5.666
82 PZ 121 7.131
82 PZ 122 8.596
82 PZ 123 9.084
82 PZ 124 9.572
82 PZ 125 8.596
82 PZ 126 7.619
82 PZ 127 6.643
82 PZ 128 6.154
82 PZ 129 6.154
82 PZ 130 6.643
82 PZ 131 6.643
82 PZ 132 6.154
82 PZ 133 5.666
82 PZ 134 5.666
82 PZ 135 6.154
82 PZ 136 6.643
82 PZ 137 7.619
82 PZ 138 8.596
82 PZ 139 9.572
82 PZ 140 10.061
82 PZ 141 10.549
82 PZ 142 10.061
82 PZ 143 9.084
82 PZ 144 8.108
82 PZ 145 6.643
82 PZ 146 6.154
82 PZ 147 5.666
82 PZ 148 6.154
82 PZ 149 6.643
82 PZ 150 6.643
82 PZ 151 6.154
82 PZ 152 5.666
82 PZ 153 4.201
82 PZ 154 3.225
82 PZ 155 2.736
82 PZ 156 3.225
82 PZ 157 3.225
82 PZ 158 3.713
82 PZ 159 3.713
82 PZ 160 3.713
82 PZ 161 3.713
82 PZ 162 4.201
82 PZ 163 5.178
82 PZ 164 6.643
82 PZ 165 6.643
82 PZ 166 6.643
82 PZ 167 5.666
82 PZ 168 4.690
82 PZ 169 3.713
82 PZ 170 3.713
82 PZ 171 3.713
82 PZ 172 4.201
82 PZ 173 3.713
82 PZ 174 3.713
82 PZ 175 4.201
82 PZ 176 4.690
82 PZ 177 5.666
82 PZ 178 6.643
82 PZ 179 7.131
82 PZ 180 7.619
82 PZ 181 7.619
82 PZ 182 8.108
82 PZ 183 8.108
82 PZ 184 8.596
82 PZ 185 8.108
82 PZ 186 7.131
82 PZ 187 6.643
82 PZ 188 6.643
82 PZ 189 7.131
82 PZ 190 7.619
82 PZ 191 8.108
82 PZ 192 8.596
82 PZ 193 8.108
82 PZ 194 7.619
82 PZ 195 7.619
82 PZ 196 7.619
82 PZ 197 7.619
82 PZ 198 8.596
82 PZ 199 9.084
82 PZ 200 9.084
82 PZ 201 9.084
82 PZ 202 9.084
82 PZ 203 9.084
82 PZ 204 9.084
82 PZ 205 9.572
82 PZ 206 10.061
82 PZ 207 10.549
82 PZ 208 10.549
82 PZ 209 11.037
82 PZ 210 11.525
82 PZ 211 12.014
82 PZ 212 12.014
82 PZ 213 10.549
82 PZ 214 9.084
82 PZ 215 7.619
82 PZ 216 7.131
82 PZ 217 7.131
82 PZ 218 7.619
82 PZ 219 8.596
82 PZ 220 9.084
82 PZ 221 9.084
82 PZ 222 8.596
82 PZ 223 8.108
82 PZ 224 7.619
82 PZ 225 6.643
82 PZ 226 6.154
82 PZ 227 5.666
82 PZ 228 5.666
82 PZ 229 6.154
82 PZ 230 6.154
82 PZ 231 6.154
82 PZ 232 6.643
82 PZ 233 6.643
82 PZ 234 6.643
82 PZ 235 7.131
82 PZ 236 6.643
82 PZ 237 6.154
82 PZ 238 5.178
82 PZ 239 4.201
82 PZ 240 3.713
82 PZ 241 3.713
82 PZ 242 4.201
82 PZ 243 4.690
82 PZ 244 5.666
82 PZ 245 6.154
82 PZ 246 6.154
82 PZ 247 6.154
82 PZ 248 5.666
82 PZ 249 5.666
82 PZ 250 5.178
82 PZ 251 4.201
82 PZ 252 3.713
82 PZ 253 2.736
82 PZ 254 2.248
82 PZ 255 2.248
# P8 chan 25
82 P8 0 12.604
82 P8 1 15.533
82 P8 2 17.975
82 P8 3 20.416
82 P8 4 21.393
82 P8 5 22.369
82 P8 6 22.369
82 P8 7 21.393
82 P8 8 19.928
82 P8 9 16.998
82 P8 10 13.092
82 P8 11 8.698
82 P8 12 4.303
82 P8 13 1.373
82 P8 14 -0.580
82 P8 15 -0.580
82 P8 16 0.885
82 P8 17 3.326
82 P8 18 6.256
82 P8 19 8.698
82 P8 20 10.162
82 P8 21 11.627
82 P8 22 13.092
82 P8 23 15.045
82 P8 24 16.998
82 P8 25 18.463
82 P8 26 18.951
82 P8 27 17.975
82 P8 28 15.045
82 P8 29 10.162
82 P8 30 5.768
82 P8 31 1.862
82 P8 32 0.885
82 P8 33 1.862
82 P8 34 4.303
82 P8 35 6.744
82 P8 36 9.186
82 P8 37 10.162
82 P8 38 10.162
82 P8 39 10.651
82 P8 40 11.139
82 P8 41 11.139
82 P8 42 9.674
82 P8 43 8.209
82 P8 44 6.744
82 P8 45 6.256
82 P8 46 6.744
82 P8 47 7.233
82 P8 48 7.721
82 P8 49 6.744
82 P8 50 5.768
82 P8 51 5.280
82 P8 52 4.791
82 P8 53 4.791
82 P8 54 4.303
82 P8 55 2.838
82 P8 56 0.397
82 P8 57 -2.045
82 P8 58 -3.998
82 P8 59 -3.998
82 P8 60 -3.021
82 P8 61 -1.556
82 P8 62 -0.092
82 P8 63 0.885
82 P8 64 2.350
82 P8 65 3.815
82 P8 66 4.791
82 P8 67 5.768
82 P8 68 5.768
82 P8 69 5.280
82 P8 70 4.791
82 P8 71 3.815
82 P8 72 3.326
82 P8 73 2.838
82 P8 74 2.838
82 P8 75 2.350
82 P8 76 2.350
82 P8 77 2.838
82 P8 78 2.838
82 P8 79 3.815
82 P8 80 4.303
82 P8 81 4.791
82 P8 82 4.791
82 P8 83 5.280
82 P8 84 5.280
82 P8 85 4.791
82 P8 86 3.326
82 P8 87 1.862
82 P8 88 0.885
82 P8 89 1.373
82 P8 90 2.838
82 P8 91 4.791
82 P8 92 6.256
82 P8 93 7.233
82 P8 94 8.209
82 P8 95 9.186
82 P8 96 11.139
82 P8 97 12.604
82 P8 98 14.069
82 P8 99 14.069
82 P8 100 14.557
82 P8 101 14.557
82 P8 102 14.557
82 P8 103 14.069
82 P8 104 12.604
82 P8 105 9.674
82 P8 106 5.280
82 P8 107 0.885
82 P8 108 -2.045
82 P8 109 -3.998
82 P8 110 -3.998
82 P8 111 -3.021
82 P8 112 -1.556
82 P8 113 0.397
82 P8 114 1.862
82 P8 115 3.815
82 P8 116 4.791
82 P8 117 6.256
82 P8 118 7.233
82 P8 119 8.209
82 P8 120 9.674
82 P8 121 11.627
82 P8 122 13.092
82 P8 123 13.580
82 P8 124 12.604
82 P8 125 11.139
82 P8 126 9.186
82 P8 127 7.233
82 P8 128 6.256
82 P8 129 5.768
82 P8 130 6.256
82 P8 131 6.256
82 P8 132 6.744
82 P8 133 6.744
82 P8 134 7.233
82 P8 135 7.721
82 P8 136 8.698
82 P8 137 10.162
82 P8 138 12.115
82 P8 139 14.069
82 P8 140 15.045
82 P8 141 15.533
82 P8 142 14.557
82 P8 143 12.604
82 P8 144 11.139
82 P8 145 9.186
82 P8 146 8.209
82 P8 147 7.721
82 P8 148 6.744
82 P8 149 6.256
82 P8 150 6.256
82 P8 151 5.768
82 P8 152 5.280
82 P8 153 4.303
82 P8 154 2.838
82 P8 155 1.862
82 P8 156 1.862
82 P8 157 2.350
82 P8 158 3.326
82 P8 159 4.303
82 P8 160 4.303
82 P8 161 4.791
82 P8 162 4.791
82 P8 163 5.768
82 P8 164 6.744
82 P8 165 6.744
82 P8 166 5.280
82 P8 167 3.815
82 P8 168 3.326
82 P8 169 3.815
82 P8 170 5.280
82 P8 171 6.256
82 P8 172 6.256
82 P8 173 5.768
82 P8 174 5.280
82 P8 175 5.768
82 P8 176 6.256
82 P8 177 7.233
82 P8 178 8.209
82 P8 179 9.186
82 P8 180 11.139
82 P8 181 13.580
82 P8 182 16.022
82 P8 183 16.998
82 P8 184 16.510
82 P8 185 15.045
82 P8 186 12.604
82 P8 187 11.139
82 P8 188 10.162
82 P8 189 10.651
82 P8 190 11.139
82 P8 191 12.115
82 P8 192 12.115
82 P8 193 11.627
82 P8 194 11.139
82 P8 195 10.162
82 P8 196 9.186
82 P8 197 8.209
82 P8 198 8.209
82 P8 199 8.698
82 P8 200 9.674
82 P8 201 11.139
82 P8 202 11.627
82 P8 203 12.115
82 P8 204 11.627
82 P8 205 10.162
82 P8 206 9.674
82 P8 207 9.186
82 P8 208 9.674
82 P8 209 11.139
82 P8 210 12.604
82 P8 211 14.069
82 P8 212 13.580
82 P8 213 12.604
82 P8 214 11.139
82 P8 215 9.186
82 P8 216 8.698
82 P8 217 8.698
82 P8 218 8.698
82 P8 219 7.721
82 P8 220 5.768
82 P8 221 3.815
82 P8 222 1.862
82 P8 223 1.373
82 P8 224 1.862
82 P8 225 3.326
82 P8 226 5.280
82 P8 227 7.233
82 P8 228 9.186
82 P8 229 10.651
82 P8 230 11.139
82 P8 231 10.162
82 P8 232 8.698
82 P8 233 8.209
82 P8 234 8.209
82 P8 235 8.698
82 P8 236 9.674
82 P8 237 8.698
82 P8 238 6.744
82 P8 239 4.303
82 P8 240 2.350
82 P8 241 1.862
82 P8 242 2.838
82 P8 243 3.815
82 P8 244 4.791
82 P8 245 4.791
82 P8 246 4.791
82 P8 247 4.303
82 P8 248 3.815
82 P8 249 2.838
82 P8 250 1.373
82 P8 251 -1.068
82 P8 252 -2.533
82 P8 253 -3.021
82 P8 254 -1.556
82 P8 255 0.885
# P7 chan 26
82 P7 0 6.632
82 P7 1 10.050
82 P7 2 12.980
82 P7 3 16.398
82 P7 4 18.840
82 P7 5 21.281
82 P7 6 23.722
82 P7 7 25.187
82 P7 8 25.675
82 P7 9 24.699
82 P7 10 21.769
82 P7 11 17.375
82 P7 12 12.492
82 P7 13 7.609
82 P7 14 2.238
82 P7 15 -2.157
82 P7 16 -5.086
82 P7 17 -7.039
82 P7 18 -7.039
82 P7 19 -5.086
82 P7 20 -2.645
82 P7 21 0.773
82 P7 22 4.679
82 P7 23 9.074
82 P7 24 12.004
82 P7 25 14.933
82 P7 26 15.422
82 P7 27 14.445
82 P7 28 12.004
82 P7 29 9.562
82 P7 30 7.121
82 P7 31 4.679
82 P7 32 3.215
82 P7 33 1.750
82 P7 34 1.261
82 P7 35 0.773
82 P7 36 0.773
82 P7 37 1.261
82 P7 38 1.750
82 P7 39 2.238
82 P7 40 2.726
82 P7 41 3.215
82 P7 42 3.215
82 P7 43 3.703
82 P7 44 4.191
82 P7 45 4.679
82 P7 46 4.679
82 P7 47 4.679
82 P7 48 4.679
82 P7 49 4.191
82 P7 50 3.215
82 P7 51 1.750
82 P7 52 0.285
82 P7 53 -2.157
82 P7 54 -3.621
82 P7 55 -5.575
82 P7 56 -6.551
82 P7 57 -7.039
82 P7 58 -7.039
82 P7 59 -6.551
82 P7 60 -6.551
82 P7 61 -6.063
82 P7 62 -5.575
82 P7 63 -4.598
82 P7 64 -3.621
82 P7 65 -2.157
82 P7 66 -1.180
82 P7 67 -0.203
82 P7 68 0.285
82 P7 69 0.773
82 P7 70 1.750
82 P7 71 2.238
82 P7 72 1.750
82 P7 73 0.773
82 P7 74 -1.180
82 P7 75 -2.645
82 P7 76 -3.621
82 P7 77 -3.621
82 P7 78 -2.157
82 P7 79 -0.692
82 P7 80 0.773
82 P7 81 1.750
82 P7 82 1.750
82 P7 83 1.261
82 P7 84 0.773
82 P7 85 0.285
82 P7 86 0.285
82 P7 87 0.285
82 P7 88 0.773
82 P7 89 1.261
82 P7 90 1.261
82 P7 91 2.238
82 P7 92 3.215
82 P7 93 5.168
82 P7 94 6.632
82 P7 95 8.097
82 P7 96 8.586
82 P7 97 9.074
82 P7 98 10.050
82 P7 99 10.050
82 P7 100 10.050
82 P7 101 9.562
82 P7 102 8.097
82 P7 103 5.168
82 P7 104 2.726
82 P7 105 0.285
82 P7 106 -2.157
82 P7 107 -3.133
82 P7 108 -4.598
82 P7 109 -5.086
82 P7 110 -4.598
82 P7 111 -3.621
82 P7 112 -1.668
82 P7 113 0.285
82 P7 114 2.238
82 P7 115 2.726
82 P7 116 3.215
82 P7 117 4.191
82 P7 118 4.679
82 P7 119 6.144
82 P7 120 7.121
82 P7 121 7.609
82 P7 122 6.632
82 P7 123 5.656
82 P7 124 4.191
82 P7 125 2.726
82 P7 126 1.750
82 P7 127 0.773
82 P7 128 0.285
82 P7 129 0.285
82 P7 130 0.285
82 P7 131 1.261
82 P7 132 1.750
82 P7 133 2.238
82 P7 134 1.750
82 P7 135 1.750
82 P7 136 2.238
82 P7 137 3.703
82 P7 138 5.656
82 P7 139 7.609
82 P7 140 9.074
82 P7 141 9.562
82 P7 142 9.562
82 P7 143 8.097
82 P7 144 6.144
82 P7 145 4.191
82 P7 146 1.750
82 P7 147 0.773
82 P7 148 0.773
82 P7 149 2.238
82 P7 150 3.215
82 P7 151 3.703
82 P7 152 2.238
82 P7 153 0.773
82 P7 154 -0.203
82 P7 155 -0.203
82 P7 156 0.285
82 P7 157 1.261
82 P7 158 1.750
82 P7 159 1.750
82 P7 160 1.750
82 P7 161 2.238
82 P7 162 3.703
82 P7 163 4.679
82 P7 164 5.168
82 P7 165 4.679
82 P7 166 4.679
82 P7 167 4.191
82 P7 168 4.191
82 P7 169 4.679
82 P7 170 4.679
82 P7 171 4.679
82 P7 172 5.168
82 P7 173 6.144
82 P7 174 7.609
82 P7 175 9.074
82 P7 176 11.027
82 P7 177 12.004
82 P7 178 12.492
82 P7 179 12.004
82 P7 180 12.004
82 P7 181 12.492
82 P7 182 12.980
82 P7 183 12.980
82 P7 184 12.492
82 P7 185 11.027
82 P7 186 9.074
82 P7 187 7.609
82 P7 188 7.121
82 P7 189 8.097
82 P7 190 9.074
82 P7 191 9.074
82 P7 192 7.609
82 P7 193 5.656
82 P7 194 3.703
82 P7 195 3.215
82 P7 196 4.679
82 P7 197 6.632
82 P7 198 9.074
82 P7 199 11.027
82 P7 200 12.004
82 P7 201 12.492
82 P7 202 12.492
82 P7 203 12.980
82 P7 204 12.980
82 P7 205 12.492
82 P7 206 12.004
82 P7 207 11.515
82 P7 208 11.027
82 P7 209 10.539
82 P7 210 10.539
82 P7 211 10.539
82 P7 212 10.050
82 P7 213 9.074
82 P7 214 8.097
82 P7 215 7.121
82 P7 216 6.144
82 P7 217 5.656
82 P7 218 6.144
82 P7 219 7.121
82 P7 220 8.097
82 P7 221 8.586
82 P7 222 9.562
82 P7 223 9.562
82 P7 224 9.074
82 P7 225 8.097
82 P7 226 7.121
82 P7 227 5.656
82 P7 228 5.656
82 P7 229 5.656
82 P7 230 5.656
82 P7 231 6.144
82 P7 232 6.144
82 P7 233 5.656
82 P7 234 5.168
82 P7 235 4.191
82 P7 236 3.215
82 P7 237 2.238
82 P7 238 1.261
82 P7 239 0.773
82 P7 240 0.285
82 P7 241 0.285
82 P7 242 0.773
82 P7 243 1.261
82 P7 244 1.750
82 P7 245 2.726
82 P7 246 3.703
82 P7 247 4.679
82 P7 248 4.679
82 P7 249 3.703
82 P7 250 1.750
82 P7 251 -1.180
82 P7 252 -3.133
82 P7 253 -4.110
82 P7 254 -4.110
82 P7 255 -3.133
# PO2 chan 27
82 PO2 0 8.057
82 PO2 1 9.033
82 PO2 2 10.498
82 PO2 3 11.475
82 PO2 4 12.939
82 PO2 5 13.916
82 PO2 6 13.428
82 PO2 7 12.451
82 PO2 8 10.498
82 PO2 9 7.568
82 PO2 10 5.615
82 PO2 11 2.686
82 PO2 12 0.244
82 PO2 13 -1.709
82 PO2 14 -3.174
82 PO2 15 -3.174
82 PO2 16 -1.709
82 PO2 17 -0.244
82 PO2 18 1.221
82 PO2 19 2.197
82 PO2 20 3.174
82 PO2 21 4.639
82 PO2 22 6.592
82 PO2 23 9.521
82 PO2 24 11.475
82 PO2 25 12.451
82 PO2 26 12.451
82 PO2 27 10.986
82 PO2 28 9.033
82 PO2 29 6.592
82 PO2 30 4.150
82 PO2 31 1.221
82 PO2 32 -0.244
82 PO2 33 -1.221
82 PO2 34 -0.732
82 PO2 35 0.732
82 PO2 36 2.197
82 PO2 37 3.662
82 PO2 38 4.150
82 PO2 39 4.639
82 PO2 40 5.615
82 PO2 41 5.615
82 PO2 42 5.615
82 PO2 43 5.127
82 PO2 44 4.639
82 PO2 45 3.662
82 PO2 46 3.662
82 PO2 47 4.150
82 PO2 48 4.639
82 PO2 49 5.127
82 PO2 50 5.615
82 PO2 51 5.127
82 PO2 52 4.150
82 PO2 53 2.686
82 PO2 54 0.732
82 PO2 55 -1.221
82 PO2 56 -3.174
82 PO2 57 -4.639
82 PO2 58 -5.127
82 PO2 59 -5.127
82 PO2 60 -4.639
82 PO2 61 -3.662
82 PO2 62 -2.686
82 PO2 63 -1.221
82 PO2 64 -0.244
82 PO2 65 1.221
82 PO2 66 2.197
82 PO2 67 2.686
82 PO2 68 2.686
82 PO2 69 2.197
82 PO2 70 2.686
82 PO2 71 2.686
82 PO2 72 3.174
82 PO2 73 2.686
82 PO2 74 2.197
82 PO2 75 1.709
82 PO2 76 1.221
82 PO2 77 2.197
82 PO2 78 3.174
82 PO2 79 4.150
82 PO2 80 5.127
82 PO2 81 5.127
82 PO2 82 4.639
82 PO2 83 4.150
82 PO2 84 3.662
82 PO2 85 3.174
82 PO2 86 3.174
82 PO2 87 2.686
82 PO2 88 2.686
82 PO2 89 3.662
82 PO2 90 5.127
82 PO2 91 6.592
82 PO2 92 7.568
82 PO2 93 8.545
82 PO2 94 9.033
82 PO2 95 10.010
82 PO2 96 10.986
82 PO2 97 11.963
82 PO2 98 12.451
82 PO2 99 12.939
82 PO2 100 12.939
82 PO2 101 12.451
82 PO2 102 11.963
82 PO2 103 11.475
82 PO2 104 10.010
82 PO2 105 8.545
82 PO2 106 6.104
82 PO2 107 4.150
82 PO2 108 2.686
82 PO2 109 1.709
82 PO2 110 1.709
82 PO2 111 2.197
82 PO2 112 2.686
82 PO2 113 3.174
82 PO2 114 4.150
82 PO2 115 5.127
82 PO2 116 6.104
82 PO2 117 6.592
82 PO2 118 7.080
