# co2c0000397.rd
# 120 trials, 64 chans, 416 samples 368 post_stim samples
# 3.906000 msecs uV
# S2 match , trial 27
# FP1 chan 0
27 FP1 0 5.076
27 FP1 1 5.564
27 FP1 2 6.053
27 FP1 3 7.029
27 FP1 4 8.494
27 FP1 5 9.471
27 FP1 6 9.959
27 FP1 7 9.471
27 FP1 8 9.471
27 FP1 9 9.471
27 FP1 10 10.935
27 FP1 11 11.912
27 FP1 12 12.889
27 FP1 13 12.889
27 FP1 14 11.912
27 FP1 15 10.935
27 FP1 16 11.424
27 FP1 17 12.889
27 FP1 18 14.353
27 FP1 19 14.842
27 FP1 20 14.353
27 FP1 21 13.377
27 FP1 22 12.889
27 FP1 23 12.889
27 FP1 24 13.865
27 FP1 25 13.865
27 FP1 26 13.377
27 FP1 27 11.424
27 FP1 28 10.447
27 FP1 29 10.447
27 FP1 30 12.400
27 FP1 31 14.842
27 FP1 32 16.795
27 FP1 33 17.283
27 FP1 34 15.330
27 FP1 35 13.377
27 FP1 36 11.424
27 FP1 37 10.447
27 FP1 38 10.447
27 FP1 39 9.959
27 FP1 40 8.982
27 FP1 41 7.517
27 FP1 42 6.053
27 FP1 43 5.564
27 FP1 44 6.541
27 FP1 45 8.494
27 FP1 46 10.935
27 FP1 47 12.400
27 FP1 48 12.889
27 FP1 49 11.424
27 FP1 50 9.959
27 FP1 51 8.494
27 FP1 52 7.517
27 FP1 53 7.029
27 FP1 54 5.564
27 FP1 55 3.123
27 FP1 56 0.193
27 FP1 57 -1.760
27 FP1 58 -2.248
27 FP1 59 -1.760
27 FP1 60 -1.760
27 FP1 61 -2.736
27 FP1 62 -5.178
27 FP1 63 -8.108
27 FP1 64 -9.572
27 FP1 65 -10.061
27 FP1 66 -8.596
27 FP1 67 -7.131
27 FP1 68 -6.154
27 FP1 69 -7.131
27 FP1 70 -8.596
27 FP1 71 -10.061
27 FP1 72 -11.037
27 FP1 73 -11.037
27 FP1 74 -10.549
27 FP1 75 -10.549
27 FP1 76 -10.549
27 FP1 77 -11.037
27 FP1 78 -11.525
27 FP1 79 -11.037
27 FP1 80 -10.549
27 FP1 81 -9.572
27 FP1 82 -9.572
27 FP1 83 -10.061
27 FP1 84 -10.061
27 FP1 85 -10.549
27 FP1 86 -10.061
27 FP1 87 -9.572
27 FP1 88 -9.084
27 FP1 89 -8.108
27 FP1 90 -7.619
27 FP1 91 -7.131
27 FP1 92 -6.154
27 FP1 93 -5.178
27 FP1 94 -3.713
27 FP1 95 -2.248
27 FP1 96 -1.760
27 FP1 97 -2.248
27 FP1 98 -2.248
27 FP1 99 -2.736
27 FP1 100 -2.736
27 FP1 101 -2.248
27 FP1 102 -1.272
27 FP1 103 -0.295
27 FP1 104 1.170
27 FP1 105 2.635
27 FP1 106 4.100
27 FP1 107 4.100
27 FP1 108 3.123
27 FP1 109 1.658
27 FP1 110 0.682
27 FP1 111 0.682
27 FP1 112 0.682
27 FP1 113 0.682
27 FP1 114 0.193
27 FP1 115 -1.272
27 FP1 116 -2.248
27 FP1 117 -4.201
27 FP1 118 -6.154
27 FP1 119 -8.108
27 FP1 120 -9.572
27 FP1 121 -10.061
27 FP1 122 -9.084
27 FP1 123 -7.619
27 FP1 124 -6.643
27 FP1 125 -6.154
27 FP1 126 -5.666
27 FP1 127 -5.178
27 FP1 128 -3.713
27 FP1 129 -2.736
27 FP1 130 -2.248
27 FP1 131 -1.760
27 FP1 132 -1.272
27 FP1 133 -0.295
27 FP1 134 1.170
27 FP1 135 2.635
27 FP1 136 3.611
27 FP1 137 4.100
27 FP1 138 5.076
27 FP1 139 6.541
27 FP1 140 10.447
27 FP1 141 14.842
27 FP1 142 19.236
27 FP1 143 21.189
27 FP1 144 21.678
27 FP1 145 20.701
27 FP1 146 19.236
27 FP1 147 18.260
27 FP1 148 18.748
27 FP1 149 19.725
27 FP1 150 22.166
27 FP1 151 24.119
27 FP1 152 26.072
27 FP1 153 27.049
27 FP1 154 26.560
27 FP1 155 25.096
27 FP1 156 23.142
27 FP1 157 21.678
27 FP1 158 20.701
27 FP1 159 19.725
27 FP1 160 18.748
27 FP1 161 15.818
27 FP1 162 12.400
27 FP1 163 8.982
27 FP1 164 7.029
27 FP1 165 7.517
27 FP1 166 8.982
27 FP1 167 10.935
27 FP1 168 11.424
27 FP1 169 10.447
27 FP1 170 8.006
27 FP1 171 6.541
27 FP1 172 7.029
27 FP1 173 9.471
27 FP1 174 13.377
27 FP1 175 15.330
27 FP1 176 15.330
27 FP1 177 12.889
27 FP1 178 9.471
27 FP1 179 6.541
27 FP1 180 4.588
27 FP1 181 4.588
27 FP1 182 6.053
27 FP1 183 7.517
27 FP1 184 8.982
27 FP1 185 9.959
27 FP1 186 8.982
27 FP1 187 8.006
27 FP1 188 6.053
27 FP1 189 5.076
27 FP1 190 4.588
27 FP1 191 5.076
27 FP1 192 5.076
27 FP1 193 5.076
27 FP1 194 4.100
27 FP1 195 3.611
27 FP1 196 3.611
27 FP1 197 4.588
27 FP1 198 5.564
27 FP1 199 6.053
27 FP1 200 5.564
27 FP1 201 5.076
27 FP1 202 5.076
27 FP1 203 6.541
27 FP1 204 9.471
27 FP1 205 12.400
27 FP1 206 13.865
27 FP1 207 13.377
27 FP1 208 11.424
27 FP1 209 8.494
27 FP1 210 6.541
27 FP1 211 5.076
27 FP1 212 4.100
27 FP1 213 2.635
27 FP1 214 1.658
27 FP1 215 0.682
27 FP1 216 0.682
27 FP1 217 1.170
27 FP1 218 2.146
27 FP1 219 3.123
27 FP1 220 3.611
27 FP1 221 3.611
27 FP1 222 3.611
27 FP1 223 2.635
27 FP1 224 1.658
27 FP1 225 1.170
27 FP1 226 1.170
27 FP1 227 1.658
27 FP1 228 2.635
27 FP1 229 4.588
27 FP1 230 5.564
27 FP1 231 7.029
27 FP1 232 8.006
27 FP1 233 9.471
27 FP1 234 10.935
27 FP1 235 12.889
27 FP1 236 15.330
27 FP1 237 16.307
27 FP1 238 15.818
27 FP1 239 14.842
27 FP1 240 13.377
27 FP1 241 12.400
27 FP1 242 12.400
27 FP1 243 12.889
27 FP1 244 12.889
27 FP1 245 12.400
27 FP1 246 10.935
27 FP1 247 9.471
27 FP1 248 8.982
27 FP1 249 8.982
27 FP1 250 8.494
27 FP1 251 7.517
27 FP1 252 6.541
27 FP1 253 5.564
27 FP1 254 5.076
27 FP1 255 5.564
# FP2 chan 1
27 FP2 0 5.920
27 FP2 1 5.920
27 FP2 2 5.432
27 FP2 3 6.409
27 FP2 4 8.362
27 FP2 5 10.315
27 FP2 6 11.292
27 FP2 7 9.827
27 FP2 8 8.850
27 FP2 9 9.338
27 FP2 10 11.292
27 FP2 11 13.733
27 FP2 12 15.198
27 FP2 13 14.221
27 FP2 14 11.292
27 FP2 15 9.338
27 FP2 16 9.338
27 FP2 17 11.780
27 FP2 18 14.221
27 FP2 19 15.198
27 FP2 20 14.709
27 FP2 21 12.756
27 FP2 22 11.780
27 FP2 23 11.780
27 FP2 24 13.245
27 FP2 25 13.733
27 FP2 26 12.756
27 FP2 27 11.292
27 FP2 28 9.827
27 FP2 29 9.827
27 FP2 30 12.268
27 FP2 31 14.221
27 FP2 32 15.686
27 FP2 33 15.686
27 FP2 34 14.709
27 FP2 35 13.245
27 FP2 36 12.268
27 FP2 37 12.268
27 FP2 38 11.780
27 FP2 39 11.292
27 FP2 40 9.827
27 FP2 41 8.362
27 FP2 42 7.874
27 FP2 43 7.385
27 FP2 44 8.362
27 FP2 45 8.850
27 FP2 46 9.827
27 FP2 47 10.315
27 FP2 48 10.803
27 FP2 49 10.315
27 FP2 50 9.338
27 FP2 51 8.362
27 FP2 52 6.897
27 FP2 53 4.944
27 FP2 54 2.502
27 FP2 55 0.061
27 FP2 56 -2.380
27 FP2 57 -3.357
27 FP2 58 -3.357
27 FP2 59 -2.380
27 FP2 60 -2.380
27 FP2 61 -3.357
27 FP2 62 -6.287
27 FP2 63 -8.240
27 FP2 64 -9.216
27 FP2 65 -8.240
27 FP2 66 -6.287
27 FP2 67 -4.822
27 FP2 68 -4.333
27 FP2 69 -6.287
27 FP2 70 -8.728
27 FP2 71 -10.681
27 FP2 72 -11.658
27 FP2 73 -10.681
27 FP2 74 -9.705
27 FP2 75 -9.705
27 FP2 76 -10.681
27 FP2 77 -12.146
27 FP2 78 -13.123
27 FP2 79 -13.611
27 FP2 80 -13.611
27 FP2 81 -12.634
27 FP2 82 -11.658
27 FP2 83 -11.658
27 FP2 84 -11.169
27 FP2 85 -11.169
27 FP2 86 -11.169
27 FP2 87 -10.681
27 FP2 88 -10.193
27 FP2 89 -9.216
27 FP2 90 -8.240
27 FP2 91 -7.751
27 FP2 92 -6.287
27 FP2 93 -4.822
27 FP2 94 -2.869
27 FP2 95 -1.404
27 FP2 96 -0.916
27 FP2 97 -1.404
27 FP2 98 -2.380
27 FP2 99 -2.380
27 FP2 100 -1.892
27 FP2 101 -0.916
27 FP2 102 0.061
27 FP2 103 1.038
27 FP2 104 2.502
27 FP2 105 3.967
27 FP2 106 5.432
27 FP2 107 5.432
27 FP2 108 4.456
27 FP2 109 2.502
27 FP2 110 0.549
27 FP2 111 -0.427
27 FP2 112 -0.916
27 FP2 113 -1.404
27 FP2 114 -1.892
27 FP2 115 -3.357
27 FP2 116 -4.822
27 FP2 117 -6.775
27 FP2 118 -8.240
27 FP2 119 -10.193
27 FP2 120 -11.169
27 FP2 121 -11.169
27 FP2 122 -10.193
27 FP2 123 -8.240
27 FP2 124 -7.263
27 FP2 125 -6.287
27 FP2 126 -5.798
27 FP2 127 -4.822
27 FP2 128 -3.845
27 FP2 129 -3.357
27 FP2 130 -2.380
27 FP2 131 -1.892
27 FP2 132 -0.916
27 FP2 133 0.549
27 FP2 134 2.502
27 FP2 135 3.967
27 FP2 136 4.456
27 FP2 137 4.456
27 FP2 138 4.944
27 FP2 139 6.897
27 FP2 140 10.315
27 FP2 141 15.198
27 FP2 142 20.081
27 FP2 143 23.987
27 FP2 144 25.940
27 FP2 145 24.963
27 FP2 146 23.987
27 FP2 147 22.034
27 FP2 148 22.034
27 FP2 149 22.522
27 FP2 150 24.475
27 FP2 151 26.917
27 FP2 152 28.870
27 FP2 153 29.358
27 FP2 154 27.405
27 FP2 155 24.963
27 FP2 156 21.545
27 FP2 157 19.592
27 FP2 158 19.592
27 FP2 159 20.081
27 FP2 160 20.081
27 FP2 161 18.127
27 FP2 162 14.221
27 FP2 163 9.827
27 FP2 164 6.897
27 FP2 165 6.409
27 FP2 166 7.874
27 FP2 167 10.315
27 FP2 168 11.292
27 FP2 169 10.803
27 FP2 170 9.338
27 FP2 171 8.362
27 FP2 172 9.338
27 FP2 173 12.268
27 FP2 174 16.174
27 FP2 175 18.127
27 FP2 176 18.127
27 FP2 177 15.686
27 FP2 178 12.268
27 FP2 179 8.362
27 FP2 180 6.409
27 FP2 181 5.920
27 FP2 182 6.897
27 FP2 183 8.362
27 FP2 184 9.827
27 FP2 185 10.315
27 FP2 186 10.315
27 FP2 187 9.338
27 FP2 188 8.362
27 FP2 189 7.385
27 FP2 190 7.874
27 FP2 191 8.362
27 FP2 192 9.338
27 FP2 193 8.850
27 FP2 194 7.874
27 FP2 195 6.897
27 FP2 196 5.920
27 FP2 197 5.920
27 FP2 198 6.409
27 FP2 199 6.897
27 FP2 200 6.409
27 FP2 201 6.409
27 FP2 202 6.409
27 FP2 203 8.362
27 FP2 204 11.292
27 FP2 205 14.709
27 FP2 206 16.174
27 FP2 207 15.198
27 FP2 208 12.268
27 FP2 209 8.850
27 FP2 210 5.920
27 FP2 211 4.944
27 FP2 212 4.944
27 FP2 213 4.944
27 FP2 214 4.944
27 FP2 215 4.456
27 FP2 216 3.967
27 FP2 217 3.479
27 FP2 218 3.967
27 FP2 219 3.967
27 FP2 220 3.479
27 FP2 221 3.479
27 FP2 222 3.479
27 FP2 223 3.479
27 FP2 224 3.479
27 FP2 225 3.479
27 FP2 226 3.479
27 FP2 227 3.479
27 FP2 228 3.967
27 FP2 229 4.456
27 FP2 230 5.920
27 FP2 231 7.385
27 FP2 232 8.850
27 FP2 233 10.315
27 FP2 234 11.292
27 FP2 235 12.756
27 FP2 236 14.221
27 FP2 237 15.198
27 FP2 238 14.709
27 FP2 239 13.733
27 FP2 240 11.780
27 FP2 241 9.827
27 FP2 242 9.338
27 FP2 243 9.338
27 FP2 244 9.338
27 FP2 245 9.338
27 FP2 246 8.850
27 FP2 247 8.362
27 FP2 248 8.850
27 FP2 249 9.338
27 FP2 250 9.338
27 FP2 251 7.385
27 FP2 252 4.944
27 FP2 253 2.502
27 FP2 254 2.502
27 FP2 255 3.967
# F7 chan 2
27 F7 0 4.934
27 F7 1 5.422
27 F7 2 5.910
27 F7 3 6.887
27 F7 4 8.352
27 F7 5 9.816
27 F7 6 10.793
27 F7 7 11.770
27 F7 8 12.258
27 F7 9 12.258
27 F7 10 11.281
27 F7 11 10.305
27 F7 12 8.840
27 F7 13 8.840
27 F7 14 10.305
27 F7 15 12.258
27 F7 16 13.723
27 F7 17 13.723
27 F7 18 12.258
27 F7 19 10.305
27 F7 20 8.840
27 F7 21 8.840
27 F7 22 10.305
27 F7 23 12.258
27 F7 24 13.234
27 F7 25 12.746
27 F7 26 10.305
27 F7 27 7.863
27 F7 28 5.910
27 F7 29 5.422
27 F7 30 6.399
27 F7 31 9.328
27 F7 32 11.281
27 F7 33 12.746
27 F7 34 11.770
27 F7 35 10.793
27 F7 36 9.328
27 F7 37 8.352
27 F7 38 8.352
27 F7 39 7.863
27 F7 40 7.375
27 F7 41 5.910
27 F7 42 3.957
27 F7 43 3.469
27 F7 44 3.957
27 F7 45 6.399
27 F7 46 8.352
27 F7 47 9.816
27 F7 48 9.328
27 F7 49 7.375
27 F7 50 5.422
27 F7 51 3.957
27 F7 52 2.492
27 F7 53 1.516
27 F7 54 -0.437
27 F7 55 -1.902
27 F7 56 -3.367
27 F7 57 -4.344
27 F7 58 -3.367
27 F7 59 -2.879
27 F7 60 -2.391
27 F7 61 -2.879
27 F7 62 -4.344
27 F7 63 -6.297
27 F7 64 -8.738
27 F7 65 -9.715
27 F7 66 -9.715
27 F7 67 -8.738
27 F7 68 -7.762
27 F7 69 -6.785
27 F7 70 -6.785
27 F7 71 -7.762
27 F7 72 -8.738
27 F7 73 -9.226
27 F7 74 -9.226
27 F7 75 -8.250
27 F7 76 -7.762
27 F7 77 -7.762
27 F7 78 -7.762
27 F7 79 -7.273
27 F7 80 -6.297
27 F7 81 -5.809
27 F7 82 -4.832
27 F7 83 -4.832
27 F7 84 -5.320
27 F7 85 -5.809
27 F7 86 -6.297
27 F7 87 -5.809
27 F7 88 -5.320
27 F7 89 -4.344
27 F7 90 -4.344
27 F7 91 -3.855
27 F7 92 -3.367
27 F7 93 -2.879
27 F7 94 -1.902
27 F7 95 -0.437
27 F7 96 0.051
27 F7 97 -0.437
27 F7 98 -1.414
27 F7 99 -2.879
27 F7 100 -2.879
27 F7 101 -1.414
27 F7 102 0.539
27 F7 103 2.004
27 F7 104 2.981
27 F7 105 2.492
27 F7 106 2.004
27 F7 107 1.516
27 F7 108 1.516
27 F7 109 2.004
27 F7 110 2.492
27 F7 111 2.981
27 F7 112 2.981
27 F7 113 3.469
27 F7 114 2.981
27 F7 115 2.981
27 F7 116 2.004
27 F7 117 0.539
27 F7 118 -0.926
27 F7 119 -2.879
27 F7 120 -3.367
27 F7 121 -2.879
27 F7 122 -1.902
27 F7 123 -0.926
27 F7 124 -1.902
27 F7 125 -2.879
27 F7 126 -3.855
27 F7 127 -3.855
27 F7 128 -2.391
27 F7 129 -0.437
27 F7 130 0.051
27 F7 131 -0.437
27 F7 132 -0.926
27 F7 133 -0.926
27 F7 134 1.027
27 F7 135 2.981
27 F7 136 4.445
27 F7 137 4.934
27 F7 138 5.422
27 F7 139 7.375
27 F7 140 9.816
27 F7 141 13.234
27 F7 142 15.676
27 F7 143 16.652
27 F7 144 16.164
27 F7 145 15.188
27 F7 146 14.211
27 F7 147 12.746
27 F7 148 12.258
27 F7 149 12.258
27 F7 150 12.746
27 F7 151 14.211
27 F7 152 15.676
27 F7 153 17.141
27 F7 154 16.652
27 F7 155 15.188
27 F7 156 13.723
27 F7 157 12.746
27 F7 158 12.746
27 F7 159 12.258
27 F7 160 11.281
27 F7 161 8.352
27 F7 162 5.910
27 F7 163 4.445
27 F7 164 4.445
27 F7 165 5.422
27 F7 166 6.887
27 F7 167 7.375
27 F7 168 6.399
27 F7 169 4.445
27 F7 170 2.492
27 F7 171 1.516
27 F7 172 2.492
27 F7 173 4.934
27 F7 174 8.352
27 F7 175 10.793
27 F7 176 10.793
27 F7 177 9.816
27 F7 178 6.887
27 F7 179 4.445
27 F7 180 2.981
27 F7 181 2.492
27 F7 182 3.469
27 F7 183 4.445
27 F7 184 5.422
27 F7 185 5.422
27 F7 186 4.934
27 F7 187 3.957
27 F7 188 2.981
27 F7 189 2.004
27 F7 190 1.516
27 F7 191 1.516
27 F7 192 0.539
27 F7 193 0.051
27 F7 194 -0.926
27 F7 195 -1.414
27 F7 196 -0.926
27 F7 197 0.051
27 F7 198 1.027
27 F7 199 1.027
27 F7 200 0.539
27 F7 201 0.539
27 F7 202 1.027
27 F7 203 2.492
27 F7 204 5.422
27 F7 205 8.840
27 F7 206 11.281
27 F7 207 13.234
27 F7 208 13.234
27 F7 209 11.770
27 F7 210 9.328
27 F7 211 6.399
27 F7 212 4.445
27 F7 213 2.981
27 F7 214 2.492
27 F7 215 2.492
27 F7 216 2.981
27 F7 217 3.957
27 F7 218 4.934
27 F7 219 6.399
27 F7 220 7.863
27 F7 221 8.840
27 F7 222 8.840
27 F7 223 7.375
27 F7 224 4.934
27 F7 225 2.492
27 F7 226 1.027
27 F7 227 1.027
27 F7 228 2.492
27 F7 229 3.957
27 F7 230 3.957
27 F7 231 3.957
27 F7 232 3.957
27 F7 233 5.422
27 F7 234 8.840
27 F7 235 12.746
27 F7 236 16.164
27 F7 237 17.629
27 F7 238 16.164
27 F7 239 13.234
27 F7 240 10.793
27 F7 241 9.328
27 F7 242 10.305
27 F7 243 12.258
27 F7 244 13.723
27 F7 245 13.723
27 F7 246 12.258
27 F7 247 9.328
27 F7 248 7.375
27 F7 249 5.422
27 F7 250 4.934
27 F7 251 4.445
27 F7 252 3.957
27 F7 253 2.492
27 F7 254 2.004
27 F7 255 1.516
# F8 chan 3
27 F8 0 6.846
27 F8 1 6.358
27 F8 2 6.358
27 F8 3 8.311
27 F8 4 10.752
27 F8 5 12.217
27 F8 6 11.729
27 F8 7 9.288
27 F8 8 6.358
27 F8 9 5.870
27 F8 10 8.311
27 F8 11 11.729
27 F8 12 14.170
27 F8 13 14.170
27 F8 14 11.729
27 F8 15 8.799
27 F8 16 8.311
27 F8 17 10.264
27 F8 18 12.705
27 F8 19 13.682
27 F8 20 12.705
27 F8 21 10.752
27 F8 22 10.264
27 F8 23 11.729
27 F8 24 13.682
27 F8 25 15.147
27 F8 26 14.170
27 F8 27 11.729
27 F8 28 9.288
27 F8 29 8.799
27 F8 30 10.264
27 F8 31 12.217
27 F8 32 13.682
27 F8 33 13.194
27 F8 34 12.217
27 F8 35 12.217
27 F8 36 13.194
27 F8 37 13.194
27 F8 38 11.729
27 F8 39 8.799
27 F8 40 6.358
27 F8 41 4.405
27 F8 42 4.893
27 F8 43 6.358
27 F8 44 7.334
27 F8 45 7.334
27 F8 46 6.358
27 F8 47 6.358
27 F8 48 6.846
27 F8 49 6.846
27 F8 50 6.358
27 F8 51 4.893
27 F8 52 2.452
27 F8 53 0.498
27 F8 54 -0.966
27 F8 55 -2.431
27 F8 56 -3.896
27 F8 57 -5.361
27 F8 58 -5.849
27 F8 59 -5.361
27 F8 60 -3.896
27 F8 61 -3.408
27 F8 62 -3.896
27 F8 63 -4.873
27 F8 64 -5.849
27 F8 65 -5.849
27 F8 66 -4.873
27 F8 67 -3.408
27 F8 68 -2.431
27 F8 69 -2.431
27 F8 70 -2.431
27 F8 71 -3.408
27 F8 72 -4.384
27 F8 73 -4.384
27 F8 74 -3.896
27 F8 75 -3.408
27 F8 76 -2.920
27 F8 77 -2.431
27 F8 78 -2.920
27 F8 79 -2.920
27 F8 80 -2.431
27 F8 81 -1.455
27 F8 82 -0.478
27 F8 83 0.010
27 F8 84 -0.478
27 F8 85 -1.455
27 F8 86 -2.431
27 F8 87 -1.455
27 F8 88 -0.478
27 F8 89 0.987
27 F8 90 0.987
27 F8 91 0.987
27 F8 92 0.498
27 F8 93 0.987
27 F8 94 1.963
27 F8 95 3.428
27 F8 96 3.428
27 F8 97 2.452
27 F8 98 1.475
27 F8 99 0.987
27 F8 100 1.963
27 F8 101 3.428
27 F8 102 4.893
27 F8 103 5.870
27 F8 104 7.334
27 F8 105 8.799
27 F8 106 10.264
27 F8 107 10.264
27 F8 108 9.288
27 F8 109 7.334
27 F8 110 5.381
27 F8 111 3.916
27 F8 112 3.428
27 F8 113 3.428
27 F8 114 3.428
27 F8 115 2.940
27 F8 116 0.987
27 F8 117 -0.966
27 F8 118 -3.408
27 F8 119 -5.361
27 F8 120 -6.337
27 F8 121 -5.849
27 F8 122 -4.873
27 F8 123 -3.408
27 F8 124 -2.431
27 F8 125 -2.431
27 F8 126 -2.431
27 F8 127 -1.943
27 F8 128 -1.455
27 F8 129 -0.478
27 F8 130 0.498
27 F8 131 1.963
27 F8 132 2.940
27 F8 133 4.405
27 F8 134 6.358
27 F8 135 6.358
27 F8 136 5.381
27 F8 137 3.428
27 F8 138 2.452
27 F8 139 2.452
27 F8 140 4.893
27 F8 141 8.799
27 F8 142 12.217
27 F8 143 15.147
27 F8 144 16.123
27 F8 145 16.123
27 F8 146 14.659
27 F8 147 12.705
27 F8 148 11.241
27 F8 149 10.264
27 F8 150 11.241
27 F8 151 13.194
27 F8 152 15.635
27 F8 153 16.612
27 F8 154 15.635
27 F8 155 13.194
27 F8 156 10.752
27 F8 157 9.288
27 F8 158 9.288
27 F8 159 10.752
27 F8 160 11.729
27 F8 161 11.241
27 F8 162 9.776
27 F8 163 7.334
27 F8 164 5.870
27 F8 165 5.870
27 F8 166 7.334
27 F8 167 8.311
27 F8 168 9.776
27 F8 169 9.776
27 F8 170 9.288
27 F8 171 9.776
27 F8 172 11.241
27 F8 173 14.170
27 F8 174 17.100
27 F8 175 18.077
27 F8 176 17.100
27 F8 177 14.659
27 F8 178 11.241
27 F8 179 8.799
27 F8 180 7.823
27 F8 181 8.799
27 F8 182 10.264
27 F8 183 11.241
27 F8 184 11.729
27 F8 185 11.241
27 F8 186 10.264
27 F8 187 9.288
27 F8 188 8.799
27 F8 189 9.288
27 F8 190 9.776
27 F8 191 10.264
27 F8 192 9.776
27 F8 193 8.311
27 F8 194 7.334
27 F8 195 6.846
27 F8 196 7.334
27 F8 197 8.311
27 F8 198 9.288
27 F8 199 8.799
27 F8 200 8.311
27 F8 201 7.823
27 F8 202 8.311
27 F8 203 10.264
27 F8 204 12.705
27 F8 205 14.170
27 F8 206 13.682
27 F8 207 11.241
27 F8 208 8.799
27 F8 209 6.846
27 F8 210 5.870
27 F8 211 6.358
27 F8 212 6.846
27 F8 213 7.334
27 F8 214 8.311
27 F8 215 8.799
27 F8 216 9.288
27 F8 217 9.288
27 F8 218 8.799
27 F8 219 7.823
27 F8 220 6.846
27 F8 221 6.358
27 F8 222 5.870
27 F8 223 5.381
27 F8 224 5.381
27 F8 225 5.870
27 F8 226 6.846
27 F8 227 7.823
27 F8 228 8.799
27 F8 229 9.288
27 F8 230 9.288
27 F8 231 9.776
27 F8 232 10.264
27 F8 233 10.752
27 F8 234 11.241
27 F8 235 11.241
27 F8 236 11.729
27 F8 237 12.217
27 F8 238 13.194
27 F8 239 12.217
27 F8 240 9.776
27 F8 241 5.870
27 F8 242 2.452
27 F8 243 0.498
27 F8 244 0.498
27 F8 245 2.452
27 F8 246 3.916
27 F8 247 5.381
27 F8 248 5.381
27 F8 249 5.381
27 F8 250 4.405
27 F8 251 3.428
27 F8 252 1.475
27 F8 253 -1.455
27 F8 254 -2.920
27 F8 255 -2.920
# AF1 chan 4
27 AF1 0 3.021
27 AF1 1 3.510
27 AF1 2 4.486
27 AF1 3 5.463
27 AF1 4 6.927
27 AF1 5 7.416
27 AF1 6 7.416
27 AF1 7 7.416
27 AF1 8 7.416
27 AF1 9 7.416
27 AF1 10 8.392
27 AF1 11 8.881
27 AF1 12 9.369
27 AF1 13 9.369
27 AF1 14 8.881
27 AF1 15 8.392
27 AF1 16 8.392
27 AF1 17 9.369
27 AF1 18 10.345
27 AF1 19 10.345
27 AF1 20 10.345
27 AF1 21 9.369
27 AF1 22 9.369
27 AF1 23 10.345
27 AF1 24 11.322
27 AF1 25 11.322
27 AF1 26 10.834
27 AF1 27 9.369
27 AF1 28 7.416
27 AF1 29 8.392
27 AF1 30 9.857
27 AF1 31 12.299
27 AF1 32 14.252
27 AF1 33 14.252
27 AF1 34 12.787
27 AF1 35 11.322
27 AF1 36 10.345
27 AF1 37 9.857
27 AF1 38 9.369
27 AF1 39 8.881
27 AF1 40 7.416
27 AF1 41 5.463
27 AF1 42 3.998
27 AF1 43 3.998
27 AF1 44 5.463
27 AF1 45 7.416
27 AF1 46 8.881
27 AF1 47 9.369
27 AF1 48 8.881
27 AF1 49 7.904
27 AF1 50 6.927
27 AF1 51 6.439
27 AF1 52 5.463
27 AF1 53 4.974
27 AF1 54 3.021
27 AF1 55 0.580
27 AF1 56 -1.862
27 AF1 57 -3.815
27 AF1 58 -4.791
27 AF1 59 -4.791
27 AF1 60 -5.280
27 AF1 61 -6.744
27 AF1 62 -8.698
27 AF1 63 -10.651
27 AF1 64 -11.627
27 AF1 65 -11.627
27 AF1 66 -11.139
27 AF1 67 -10.162
27 AF1 68 -10.162
27 AF1 69 -10.651
27 AF1 70 -11.139
27 AF1 71 -12.115
27 AF1 72 -12.115
27 AF1 73 -12.115
27 AF1 74 -12.604
27 AF1 75 -13.092
27 AF1 76 -13.580
27 AF1 77 -14.069
27 AF1 78 -14.069
27 AF1 79 -13.092
27 AF1 80 -12.115
27 AF1 81 -11.627
27 AF1 82 -11.139
27 AF1 83 -11.139
27 AF1 84 -11.139
27 AF1 85 -11.139
27 AF1 86 -11.627
27 AF1 87 -11.627
27 AF1 88 -11.139
27 AF1 89 -10.651
27 AF1 90 -10.162
27 AF1 91 -9.186
27 AF1 92 -8.209
27 AF1 93 -7.233
27 AF1 94 -6.256
27 AF1 95 -5.768
27 AF1 96 -5.280
27 AF1 97 -5.280
27 AF1 98 -5.280
27 AF1 99 -5.280
27 AF1 100 -4.791
27 AF1 101 -4.303
27 AF1 102 -3.326
27 AF1 103 -2.350
27 AF1 104 -0.885
27 AF1 105 0.580
27 AF1 106 1.068
27 AF1 107 0.580
27 AF1 108 -0.397
27 AF1 109 -1.373
27 AF1 110 -2.350
27 AF1 111 -2.350
27 AF1 112 -1.373
27 AF1 113 -1.373
27 AF1 114 -1.862
27 AF1 115 -2.838
27 AF1 116 -4.791
27 AF1 117 -6.744
27 AF1 118 -8.698
27 AF1 119 -10.651
27 AF1 120 -12.115
27 AF1 121 -12.115
27 AF1 122 -11.139
27 AF1 123 -9.674
27 AF1 124 -9.186
27 AF1 125 -8.698
27 AF1 126 -8.698
27 AF1 127 -8.209
27 AF1 128 -6.256
27 AF1 129 -5.280
27 AF1 130 -3.815
27 AF1 131 -3.326
27 AF1 132 -3.815
27 AF1 133 -4.303
27 AF1 134 -3.815
27 AF1 135 -3.815
27 AF1 136 -4.303
27 AF1 137 -4.791
27 AF1 138 -4.791
27 AF1 139 -4.303
27 AF1 140 -1.862
27 AF1 141 1.556
27 AF1 142 4.974
27 AF1 143 6.927
27 AF1 144 7.416
27 AF1 145 6.439
27 AF1 146 5.463
27 AF1 147 4.486
27 AF1 148 4.486
27 AF1 149 5.951
27 AF1 150 7.416
27 AF1 151 10.345
27 AF1 152 12.299
27 AF1 153 13.763
27 AF1 154 13.763
27 AF1 155 12.299
27 AF1 156 11.322
27 AF1 157 10.345
27 AF1 158 10.345
27 AF1 159 10.345
27 AF1 160 9.369
27 AF1 161 6.927
27 AF1 162 3.510
27 AF1 163 0.580
27 AF1 164 -0.397
27 AF1 165 0.580
27 AF1 166 3.021
27 AF1 167 4.486
27 AF1 168 4.974
27 AF1 169 3.021
27 AF1 170 1.068
27 AF1 171 -0.397
27 AF1 172 0.580
27 AF1 173 3.021
27 AF1 174 5.951
27 AF1 175 7.416
27 AF1 176 7.416
27 AF1 177 5.951
27 AF1 178 3.998
27 AF1 179 1.556
27 AF1 180 0.580
27 AF1 181 0.580
27 AF1 182 2.045
27 AF1 183 3.510
27 AF1 184 5.463
27 AF1 185 5.951
27 AF1 186 5.463
27 AF1 187 4.486
27 AF1 188 3.510
27 AF1 189 2.533
27 AF1 190 2.533
27 AF1 191 2.533
27 AF1 192 2.533
27 AF1 193 2.045
27 AF1 194 1.068
27 AF1 195 0.580
27 AF1 196 0.580
27 AF1 197 1.556
27 AF1 198 3.021
27 AF1 199 3.998
27 AF1 200 4.486
27 AF1 201 4.486
27 AF1 202 5.463
27 AF1 203 7.416
27 AF1 204 10.345
27 AF1 205 12.787
27 AF1 206 13.763
27 AF1 207 12.787
27 AF1 208 10.345
27 AF1 209 7.416
27 AF1 210 5.463
27 AF1 211 3.510
27 AF1 212 2.533
27 AF1 213 0.580
27 AF1 214 -0.885
27 AF1 215 -2.350
27 AF1 216 -2.838
27 AF1 217 -2.350
27 AF1 218 -0.885
27 AF1 219 0.580
27 AF1 220 1.068
27 AF1 221 1.068
27 AF1 222 1.068
27 AF1 223 0.580
27 AF1 224 0.580
27 AF1 225 0.092
27 AF1 226 0.580
27 AF1 227 1.068
27 AF1 228 2.045
27 AF1 229 3.510
27 AF1 230 4.974
27 AF1 231 5.951
27 AF1 232 6.927
27 AF1 233 7.416
27 AF1 234 8.392
27 AF1 235 9.857
27 AF1 236 11.810
27 AF1 237 12.787
27 AF1 238 13.275
27 AF1 239 12.787
27 AF1 240 11.810
27 AF1 241 11.322
27 AF1 242 10.834
27 AF1 243 10.345
27 AF1 244 10.345
27 AF1 245 9.369
27 AF1 246 8.392
27 AF1 247 7.904
27 AF1 248 7.416
27 AF1 249 7.416
27 AF1 250 6.927
27 AF1 251 5.463
27 AF1 252 4.486
27 AF1 253 3.021
27 AF1 254 3.021
27 AF1 255 3.510
# AF2 chan 5
27 AF2 0 2.055
27 AF2 1 2.055
27 AF2 2 2.543
27 AF2 3 3.031
27 AF2 4 4.496
27 AF2 5 5.961
27 AF2 6 6.449
27 AF2 7 6.449
27 AF2 8 5.961
27 AF2 9 5.961
27 AF2 10 6.449
27 AF2 11 7.426
27 AF2 12 8.891
27 AF2 13 8.891
27 AF2 14 8.403
27 AF2 15 6.938
27 AF2 16 6.449
27 AF2 17 6.938
27 AF2 18 8.403
27 AF2 19 9.379
27 AF2 20 9.379
27 AF2 21 8.891
27 AF2 22 8.403
27 AF2 23 8.403
27 AF2 24 9.379
27 AF2 25 9.867
27 AF2 26 9.379
27 AF2 27 7.426
27 AF2 28 5.961
27 AF2 29 5.473
27 AF2 30 6.449
27 AF2 31 8.891
27 AF2 32 10.356
27 AF2 33 10.844
27 AF2 34 10.356
27 AF2 35 8.891
27 AF2 36 7.914
27 AF2 37 7.426
27 AF2 38 6.449
27 AF2 39 5.473
27 AF2 40 3.520
27 AF2 41 2.543
27 AF2 42 2.055
27 AF2 43 3.031
27 AF2 44 4.008
27 AF2 45 4.985
27 AF2 46 4.985
27 AF2 47 4.985
27 AF2 48 4.496
27 AF2 49 4.496
27 AF2 50 4.008
27 AF2 51 3.520
27 AF2 52 3.031
27 AF2 53 1.078
27 AF2 54 -0.387
27 AF2 55 -2.828
27 AF2 56 -5.758
27 AF2 57 -7.222
27 AF2 58 -7.711
27 AF2 59 -7.222
27 AF2 60 -6.734
27 AF2 61 -7.222
27 AF2 62 -8.687
27 AF2 63 -10.152
27 AF2 64 -11.617
27 AF2 65 -11.617
27 AF2 66 -10.640
27 AF2 67 -9.664
27 AF2 68 -9.664
27 AF2 69 -10.152
27 AF2 70 -11.617
27 AF2 71 -13.082
27 AF2 72 -13.570
27 AF2 73 -13.570
27 AF2 74 -13.570
27 AF2 75 -13.570
27 AF2 76 -14.058
27 AF2 77 -15.523
27 AF2 78 -16.012
27 AF2 79 -16.012
27 AF2 80 -15.523
27 AF2 81 -14.547
27 AF2 82 -13.570
27 AF2 83 -13.082
27 AF2 84 -12.594
27 AF2 85 -12.594
27 AF2 86 -13.082
27 AF2 87 -13.082
27 AF2 88 -12.594
27 AF2 89 -12.105
27 AF2 90 -11.129
27 AF2 91 -10.152
27 AF2 92 -8.687
27 AF2 93 -7.222
27 AF2 94 -6.246
27 AF2 95 -5.758
27 AF2 96 -5.269
27 AF2 97 -5.269
27 AF2 98 -5.269
27 AF2 99 -4.781
27 AF2 100 -4.293
27 AF2 101 -3.805
27 AF2 102 -2.828
27 AF2 103 -1.851
27 AF2 104 -0.387
27 AF2 105 1.567
27 AF2 106 2.055
27 AF2 107 1.567
27 AF2 108 0.102
27 AF2 109 -2.340
27 AF2 110 -3.316
27 AF2 111 -3.805
27 AF2 112 -3.316
27 AF2 113 -3.805
27 AF2 114 -4.293
27 AF2 115 -6.246
27 AF2 116 -8.199
27 AF2 117 -9.664
27 AF2 118 -11.617
27 AF2 119 -13.082
27 AF2 120 -14.547
27 AF2 121 -14.547
27 AF2 122 -13.570
27 AF2 123 -12.105
27 AF2 124 -11.129
27 AF2 125 -10.640
27 AF2 126 -10.640
27 AF2 127 -10.640
27 AF2 128 -9.664
27 AF2 129 -8.199
27 AF2 130 -7.222
27 AF2 131 -6.734
27 AF2 132 -6.734
27 AF2 133 -6.246
27 AF2 134 -5.758
27 AF2 135 -5.269
27 AF2 136 -5.269
27 AF2 137 -5.758
27 AF2 138 -5.758
27 AF2 139 -5.269
27 AF2 140 -3.316
27 AF2 141 -0.387
27 AF2 142 2.543
27 AF2 143 4.496
27 AF2 144 5.473
27 AF2 145 4.985
27 AF2 146 4.496
27 AF2 147 3.520
27 AF2 148 3.031
27 AF2 149 3.520
27 AF2 150 4.985
27 AF2 151 7.426
27 AF2 152 9.379
27 AF2 153 9.867
27 AF2 154 9.379
27 AF2 155 7.426
27 AF2 156 4.985
27 AF2 157 4.496
27 AF2 158 4.985
27 AF2 159 5.473
27 AF2 160 4.985
27 AF2 161 2.543
27 AF2 162 -0.387
27 AF2 163 -3.316
27 AF2 164 -4.293
27 AF2 165 -3.316
27 AF2 166 -1.363
27 AF2 167 0.102
27 AF2 168 0.102
27 AF2 169 -1.363
27 AF2 170 -2.828
27 AF2 171 -3.316
27 AF2 172 -1.851
27 AF2 173 1.078
27 AF2 174 4.496
27 AF2 175 6.449
27 AF2 176 6.449
27 AF2 177 4.985
27 AF2 178 2.543
27 AF2 179 0.102
27 AF2 180 -1.363
27 AF2 181 -1.851
27 AF2 182 -0.387
27 AF2 183 1.078
27 AF2 184 3.031
27 AF2 185 4.008
27 AF2 186 4.008
27 AF2 187 3.031
27 AF2 188 2.055
27 AF2 189 1.567
27 AF2 190 1.567
27 AF2 191 1.567
27 AF2 192 1.567
27 AF2 193 0.590
27 AF2 194 -0.387
27 AF2 195 -1.363
27 AF2 196 -1.851
27 AF2 197 -0.875
27 AF2 198 0.102
27 AF2 199 0.590
27 AF2 200 0.590
27 AF2 201 0.590
27 AF2 202 1.078
27 AF2 203 3.031
27 AF2 204 5.961
27 AF2 205 7.914
27 AF2 206 8.891
27 AF2 207 7.426
27 AF2 208 4.985
27 AF2 209 2.055
27 AF2 210 0.102
27 AF2 211 -0.875
27 AF2 212 -1.363
27 AF2 213 -2.340
27 AF2 214 -3.316
27 AF2 215 -4.293
27 AF2 216 -4.781
27 AF2 217 -4.781
27 AF2 218 -4.781
27 AF2 219 -4.781
27 AF2 220 -4.781
27 AF2 221 -5.269
27 AF2 222 -5.758
27 AF2 223 -5.758
27 AF2 224 -5.758
27 AF2 225 -5.758
27 AF2 226 -5.269
27 AF2 227 -4.293
27 AF2 228 -2.828
27 AF2 229 -0.875
27 AF2 230 0.590
27 AF2 231 1.567
27 AF2 232 1.567
27 AF2 233 1.567
27 AF2 234 2.055
27 AF2 235 3.520
27 AF2 236 4.985
27 AF2 237 6.449
27 AF2 238 6.938
27 AF2 239 5.961
27 AF2 240 4.985
27 AF2 241 3.520
27 AF2 242 3.031
27 AF2 243 2.543
27 AF2 244 2.543
27 AF2 245 2.543
27 AF2 246 2.055
27 AF2 247 2.543
27 AF2 248 2.543
27 AF2 249 3.031
27 AF2 250 3.031
27 AF2 251 1.567
27 AF2 252 -0.387
27 AF2 253 -2.340
27 AF2 254 -2.828
27 AF2 255 -1.851
# FZ chan 6
27 FZ 0 0.417
27 FZ 1 0.417
27 FZ 2 0.905
27 FZ 3 1.394
27 FZ 4 1.394
27 FZ 5 1.882
27 FZ 6 1.394
27 FZ 7 1.394
27 FZ 8 1.394
27 FZ 9 2.370
27 FZ 10 3.347
27 FZ 11 3.835
27 FZ 12 3.835
27 FZ 13 3.835
27 FZ 14 3.347
27 FZ 15 3.347
27 FZ 16 3.347
27 FZ 17 3.835
27 FZ 18 4.323
27 FZ 19 4.323
27 FZ 20 4.323
27 FZ 21 4.323
27 FZ 22 4.812
27 FZ 23 5.788
27 FZ 24 6.765
27 FZ 25 6.765
27 FZ 26 6.276
27 FZ 27 5.300
27 FZ 28 4.323
27 FZ 29 3.835
27 FZ 30 4.812
27 FZ 31 6.276
27 FZ 32 7.253
27 FZ 33 7.253
27 FZ 34 6.276
27 FZ 35 5.788
27 FZ 36 5.300
27 FZ 37 5.300
27 FZ 38 4.812
27 FZ 39 3.835
27 FZ 40 2.370
27 FZ 41 1.394
27 FZ 42 0.417
27 FZ 43 0.905
27 FZ 44 1.394
27 FZ 45 1.882
27 FZ 46 1.394
27 FZ 47 0.417
27 FZ 48 -0.071
27 FZ 49 0.417
27 FZ 50 0.417
27 FZ 51 0.417
27 FZ 52 0.417
27 FZ 53 -0.559
27 FZ 54 -2.024
27 FZ 55 -3.489
27 FZ 56 -4.466
27 FZ 57 -5.931
27 FZ 58 -6.419
27 FZ 59 -6.419
27 FZ 60 -6.419
27 FZ 61 -7.395
27 FZ 62 -8.860
27 FZ 63 -10.325
27 FZ 64 -11.302
27 FZ 65 -11.302
27 FZ 66 -10.813
27 FZ 67 -10.325
27 FZ 68 -9.837
27 FZ 69 -9.837
27 FZ 70 -10.325
27 FZ 71 -10.325
27 FZ 72 -10.325
27 FZ 73 -9.837
27 FZ 74 -10.325
27 FZ 75 -10.813
27 FZ 76 -11.302
27 FZ 77 -11.302
27 FZ 78 -10.813
27 FZ 79 -9.349
27 FZ 80 -7.884
27 FZ 81 -6.907
27 FZ 82 -6.419
27 FZ 83 -6.419
27 FZ 84 -6.907
27 FZ 85 -6.907
27 FZ 86 -6.907
27 FZ 87 -6.907
27 FZ 88 -6.907
27 FZ 89 -6.907
27 FZ 90 -6.419
27 FZ 91 -5.931
27 FZ 92 -5.442
27 FZ 93 -4.954
27 FZ 94 -4.466
27 FZ 95 -4.466
27 FZ 96 -3.977
27 FZ 97 -3.977
27 FZ 98 -3.489
27 FZ 99 -3.489
27 FZ 100 -3.489
27 FZ 101 -3.489
27 FZ 102 -3.489
27 FZ 103 -3.001
27 FZ 104 -2.513
27 FZ 105 -1.536
27 FZ 106 -1.048
27 FZ 107 -1.536
27 FZ 108 -3.001
27 FZ 109 -4.466
27 FZ 110 -5.442
27 FZ 111 -4.954
27 FZ 112 -3.977
27 FZ 113 -3.001
27 FZ 114 -3.001
27 FZ 115 -3.977
27 FZ 116 -5.442
27 FZ 117 -6.907
27 FZ 118 -8.372
27 FZ 119 -10.325
27 FZ 120 -10.813
27 FZ 121 -11.302
27 FZ 122 -10.813
27 FZ 123 -9.837
27 FZ 124 -8.860
27 FZ 125 -8.372
27 FZ 126 -8.372
27 FZ 127 -7.884
27 FZ 128 -6.907
27 FZ 129 -5.931
27 FZ 130 -4.954
27 FZ 131 -4.954
27 FZ 132 -4.954
27 FZ 133 -5.442
27 FZ 134 -5.931
27 FZ 135 -6.419
27 FZ 136 -7.395
27 FZ 137 -8.372
27 FZ 138 -9.349
27 FZ 139 -8.860
27 FZ 140 -7.395
27 FZ 141 -4.954
27 FZ 142 -2.513
27 FZ 143 -1.536
27 FZ 144 -1.536
27 FZ 145 -3.001
27 FZ 146 -3.489
27 FZ 147 -3.977
27 FZ 148 -3.489
27 FZ 149 -2.513
27 FZ 150 -1.048
27 FZ 151 1.394
27 FZ 152 3.835
27 FZ 153 5.300
27 FZ 154 5.788
27 FZ 155 4.323
27 FZ 156 2.858
27 FZ 157 1.882
27 FZ 158 1.882
27 FZ 159 2.370
27 FZ 160 2.370
27 FZ 161 0.417
27 FZ 162 -2.024
27 FZ 163 -4.466
27 FZ 164 -4.954
27 FZ 165 -3.489
27 FZ 166 -1.048
27 FZ 167 0.417
27 FZ 168 0.417
27 FZ 169 -1.536
27 FZ 170 -3.001
27 FZ 171 -3.489
27 FZ 172 -2.024
27 FZ 173 0.417
27 FZ 174 1.882
27 FZ 175 2.858
27 FZ 176 2.858
27 FZ 177 2.370
27 FZ 178 1.882
27 FZ 179 1.882
27 FZ 180 1.394
27 FZ 181 0.905
27 FZ 182 0.905
27 FZ 183 1.882
27 FZ 184 3.347
27 FZ 185 4.812
27 FZ 186 5.300
27 FZ 187 4.323
27 FZ 188 2.858
27 FZ 189 0.905
27 FZ 190 0.417
27 FZ 191 0.905
27 FZ 192 1.394
27 FZ 193 1.394
27 FZ 194 0.417
27 FZ 195 -0.559
27 FZ 196 -0.559
27 FZ 197 0.417
27 FZ 198 1.394
27 FZ 199 2.370
27 FZ 200 2.858
27 FZ 201 3.347
27 FZ 202 3.835
27 FZ 203 5.300
27 FZ 204 7.253
27 FZ 205 9.206
27 FZ 206 9.206
27 FZ 207 8.230
27 FZ 208 5.788
27 FZ 209 3.835
27 FZ 210 1.882
27 FZ 211 0.417
27 FZ 212 -1.048
27 FZ 213 -3.001
27 FZ 214 -4.466
27 FZ 215 -5.931
27 FZ 216 -5.931
27 FZ 217 -4.954
27 FZ 218 -3.489
27 FZ 219 -3.001
27 FZ 220 -2.513
27 FZ 221 -3.489
27 FZ 222 -3.489
27 FZ 223 -3.489
27 FZ 224 -2.513
27 FZ 225 -2.513
27 FZ 226 -2.024
27 FZ 227 -1.536
27 FZ 228 -1.048
27 FZ 229 -0.071
27 FZ 230 1.394
27 FZ 231 1.882
27 FZ 232 1.882
27 FZ 233 0.905
27 FZ 234 0.417
27 FZ 235 0.905
27 FZ 236 1.882
27 FZ 237 3.347
27 FZ 238 4.812
27 FZ 239 5.300
27 FZ 240 5.300
27 FZ 241 4.812
27 FZ 242 4.323
27 FZ 243 4.323
27 FZ 244 3.835
27 FZ 245 3.347
27 FZ 246 2.370
27 FZ 247 1.882
27 FZ 248 1.882
27 FZ 249 1.882
27 FZ 250 1.394
27 FZ 251 0.905
27 FZ 252 -0.071
27 FZ 253 -0.559
27 FZ 254 -0.559
27 FZ 255 -0.071
# F4 chan 7
27 F4 0 -0.254
27 F4 1 -0.254
27 F4 2 0.234
27 F4 3 1.211
27 F4 4 2.187
27 F4 5 3.164
27 F4 6 3.652
27 F4 7 2.675
27 F4 8 2.187
27 F4 9 1.699
27 F4 10 2.675
27 F4 11 3.652
27 F4 12 4.628
27 F4 13 5.117
27 F4 14 4.140
27 F4 15 3.164
27 F4 16 3.164
27 F4 17 4.140
27 F4 18 4.628
27 F4 19 5.117
27 F4 20 5.117
27 F4 21 4.140
27 F4 22 3.652
27 F4 23 4.140
27 F4 24 5.117
27 F4 25 5.605
27 F4 26 5.117
27 F4 27 4.140
27 F4 28 2.675
27 F4 29 2.187
27 F4 30 3.164
27 F4 31 4.628
27 F4 32 5.605
27 F4 33 6.093
27 F4 34 5.605
27 F4 35 5.117
27 F4 36 5.117
27 F4 37 4.628
27 F4 38 3.652
27 F4 39 1.699
27 F4 40 0.234
27 F4 41 0.234
27 F4 42 0.722
27 F4 43 2.187
27 F4 44 2.187
27 F4 45 1.699
27 F4 46 0.234
27 F4 47 -1.231
27 F4 48 -1.231
27 F4 49 -0.743
27 F4 50 -0.254
27 F4 51 -0.254
27 F4 52 -1.231
27 F4 53 -2.696
27 F4 54 -4.161
27 F4 55 -6.114
27 F4 56 -7.579
27 F4 57 -8.555
27 F4 58 -8.555
27 F4 59 -8.067
27 F4 60 -7.090
27 F4 61 -6.602
27 F4 62 -7.090
27 F4 63 -8.067
27 F4 64 -8.555
27 F4 65 -9.043
27 F4 66 -8.555
27 F4 67 -8.067
27 F4 68 -7.579
27 F4 69 -7.579
27 F4 70 -8.067
27 F4 71 -8.067
27 F4 72 -8.555
27 F4 73 -8.555
27 F4 74 -8.555
27 F4 75 -8.555
27 F4 76 -8.555
27 F4 77 -9.043
27 F4 78 -9.043
27 F4 79 -9.043
27 F4 80 -8.555
27 F4 81 -7.579
27 F4 82 -6.602
27 F4 83 -6.602
27 F4 84 -6.602
27 F4 85 -7.090
27 F4 86 -7.579
27 F4 87 -7.090
27 F4 88 -6.602
27 F4 89 -5.625
27 F4 90 -5.137
27 F4 91 -4.649
27 F4 92 -4.161
27 F4 93 -3.184
27 F4 94 -2.207
27 F4 95 -1.719
27 F4 96 -1.719
27 F4 97 -2.696
27 F4 98 -3.184
27 F4 99 -3.184
27 F4 100 -2.696
27 F4 101 -1.719
27 F4 102 -0.743
27 F4 103 -0.254
27 F4 104 1.211
27 F4 105 2.675
27 F4 106 3.164
27 F4 107 3.164
27 F4 108 1.699
27 F4 109 0.234
27 F4 110 -1.231
27 F4 111 -1.719
27 F4 112 -1.231
27 F4 113 -1.231
27 F4 114 -1.719
27 F4 115 -2.696
27 F4 116 -4.161
27 F4 117 -5.625
27 F4 118 -7.090
27 F4 119 -8.555
27 F4 120 -9.532
27 F4 121 -9.532
27 F4 122 -9.043
27 F4 123 -8.067
27 F4 124 -7.579
27 F4 125 -7.090
27 F4 126 -7.090
27 F4 127 -6.114
27 F4 128 -5.137
27 F4 129 -4.161
27 F4 130 -3.184
27 F4 131 -3.184
27 F4 132 -3.184
27 F4 133 -2.696
27 F4 134 -3.184
27 F4 135 -3.184
27 F4 136 -4.161
27 F4 137 -5.625
27 F4 138 -6.114
27 F4 139 -6.114
27 F4 140 -4.649
27 F4 141 -2.207
27 F4 142 0.234
27 F4 143 1.211
27 F4 144 1.699
27 F4 145 1.211
27 F4 146 0.722
27 F4 147 -0.254
27 F4 148 -0.743
27 F4 149 -0.743
27 F4 150 0.234
27 F4 151 2.187
27 F4 152 4.140
27 F4 153 5.117
27 F4 154 4.628
27 F4 155 3.164
27 F4 156 1.211
27 F4 157 0.722
27 F4 158 1.211
27 F4 159 2.675
27 F4 160 2.675
27 F4 161 1.211
27 F4 162 -1.231
27 F4 163 -4.161
27 F4 164 -4.649
27 F4 165 -4.161
27 F4 166 -2.207
27 F4 167 -1.231
27 F4 168 -1.231
27 F4 169 -1.719
27 F4 170 -2.696
27 F4 171 -2.696
27 F4 172 -0.743
27 F4 173 1.211
27 F4 174 3.652
27 F4 175 5.117
27 F4 176 5.117
27 F4 177 4.140
27 F4 178 2.187
27 F4 179 0.234
27 F4 180 -0.743
27 F4 181 -1.231
27 F4 182 -0.254
27 F4 183 0.722
27 F4 184 2.187
27 F4 185 3.164
27 F4 186 3.164
27 F4 187 2.187
27 F4 188 1.699
27 F4 189 1.211
27 F4 190 1.699
27 F4 191 1.699
27 F4 192 1.211
27 F4 193 0.234
27 F4 194 -1.719
27 F4 195 -2.696
27 F4 196 -2.696
27 F4 197 -2.207
27 F4 198 -1.719
27 F4 199 -1.231
27 F4 200 -1.231
27 F4 201 -1.231
27 F4 202 -0.254
27 F4 203 1.699
27 F4 204 3.652
27 F4 205 5.117
27 F4 206 4.628
27 F4 207 2.675
27 F4 208 0.234
27 F4 209 -1.719
27 F4 210 -2.696
27 F4 211 -3.184
27 F4 212 -3.184
27 F4 213 -3.672
27 F4 214 -4.649
27 F4 215 -5.137
27 F4 216 -4.649
27 F4 217 -4.649
27 F4 218 -5.137
27 F4 219 -5.625
27 F4 220 -6.602
27 F4 221 -7.090
27 F4 222 -7.090
27 F4 223 -7.090
27 F4 224 -6.602
27 F4 225 -6.114
27 F4 226 -5.137
27 F4 227 -3.672
27 F4 228 -2.696
27 F4 229 -1.231
27 F4 230 -0.254
27 F4 231 0.234
27 F4 232 -0.254
27 F4 233 -1.231
27 F4 234 -1.719
27 F4 235 -2.207
27 F4 236 -1.231
27 F4 237 -0.254
27 F4 238 0.722
27 F4 239 0.234
27 F4 240 -0.743
27 F4 241 -2.207
27 F4 242 -3.672
27 F4 243 -4.649
27 F4 244 -4.161
27 F4 245 -3.184
27 F4 246 -2.207
27 F4 247 -0.743
27 F4 248 -0.254
27 F4 249 -0.254
27 F4 250 -0.743
27 F4 251 -2.696
27 F4 252 -5.137
27 F4 253 -7.090
27 F4 254 -8.067
27 F4 255 -7.090
# F3 chan 8
27 F3 0 2.787
27 F3 1 2.299
27 F3 2 2.299
27 F3 3 2.299
27 F3 4 2.299
27 F3 5 2.299
27 F3 6 2.787
27 F3 7 3.276
27 F3 8 4.252
27 F3 9 4.740
27 F3 10 5.229
27 F3 11 5.229
27 F3 12 5.717
27 F3 13 6.205
27 F3 14 7.182
27 F3 15 7.670
27 F3 16 8.158
27 F3 17 8.158
27 F3 18 7.670
27 F3 19 6.694
27 F3 20 6.205
27 F3 21 6.205
27 F3 22 6.694
27 F3 23 7.670
27 F3 24 8.158
27 F3 25 7.670
27 F3 26 6.205
27 F3 27 4.740
27 F3 28 4.252
27 F3 29 4.740
27 F3 30 6.694
27 F3 31 8.647
27 F3 32 10.111
27 F3 33 10.111
27 F3 34 8.647
27 F3 35 7.182
27 F3 36 5.717
27 F3 37 5.229
27 F3 38 4.252
27 F3 39 3.276
27 F3 40 1.811
27 F3 41 0.834
27 F3 42 0.346
27 F3 43 0.834
27 F3 44 1.811
27 F3 45 3.764
27 F3 46 4.252
27 F3 47 3.764
27 F3 48 2.787
27 F3 49 1.322
27 F3 50 0.834
27 F3 51 0.834
27 F3 52 0.834
27 F3 53 0.346
27 F3 54 -0.631
27 F3 55 -2.584
27 F3 56 -4.049
27 F3 57 -5.025
27 F3 58 -5.514
27 F3 59 -6.002
27 F3 60 -6.490
27 F3 61 -7.955
27 F3 62 -9.420
27 F3 63 -10.885
27 F3 64 -12.349
27 F3 65 -12.838
27 F3 66 -12.838
27 F3 67 -12.349
27 F3 68 -11.861
27 F3 69 -11.861
27 F3 70 -12.349
27 F3 71 -13.326
27 F3 72 -13.814
27 F3 73 -14.303
27 F3 74 -14.303
27 F3 75 -14.791
27 F3 76 -14.303
27 F3 77 -13.814
27 F3 78 -13.326
27 F3 79 -12.349
27 F3 80 -11.373
27 F3 81 -9.908
27 F3 82 -9.420
27 F3 83 -9.420
27 F3 84 -9.420
27 F3 85 -9.908
27 F3 86 -10.885
27 F3 87 -10.885
27 F3 88 -10.885
27 F3 89 -10.396
27 F3 90 -9.908
27 F3 91 -9.420
27 F3 92 -9.420
27 F3 93 -8.931
27 F3 94 -8.931
27 F3 95 -8.443
27 F3 96 -7.955
27 F3 97 -7.467
27 F3 98 -7.955
27 F3 99 -7.955
27 F3 100 -7.955
27 F3 101 -7.955
27 F3 102 -6.978
27 F3 103 -6.002
27 F3 104 -4.537
27 F3 105 -4.049
27 F3 106 -4.049
27 F3 107 -4.049
27 F3 108 -4.049
27 F3 109 -3.560
27 F3 110 -3.072
27 F3 111 -3.072
27 F3 112 -3.072
27 F3 113 -3.072
27 F3 114 -3.072
27 F3 115 -3.560
27 F3 116 -4.537
27 F3 117 -5.514
27 F3 118 -6.978
27 F3 119 -8.931
27 F3 120 -9.908
27 F3 121 -10.396
27 F3 122 -9.908
27 F3 123 -8.931
27 F3 124 -9.420
27 F3 125 -9.420
27 F3 126 -9.420
27 F3 127 -8.931
27 F3 128 -7.467
27 F3 129 -6.002
27 F3 130 -4.537
27 F3 131 -4.049
27 F3 132 -4.049
27 F3 133 -3.560
27 F3 134 -3.560
27 F3 135 -3.560
27 F3 136 -4.049
27 F3 137 -5.025
27 F3 138 -5.514
27 F3 139 -5.025
27 F3 140 -3.072
27 F3 141 -0.631
27 F3 142 1.322
27 F3 143 2.299
27 F3 144 2.299
27 F3 145 1.811
27 F3 146 1.322
27 F3 147 0.346
27 F3 148 0.346
27 F3 149 0.346
27 F3 150 1.811
27 F3 151 4.252
27 F3 152 6.205
27 F3 153 7.670
27 F3 154 7.670
27 F3 155 6.694
27 F3 156 5.717
27 F3 157 5.717
27 F3 158 6.205
27 F3 159 5.717
27 F3 160 4.740
27 F3 161 1.811
27 F3 162 -1.607
27 F3 163 -3.560
27 F3 164 -4.049
27 F3 165 -3.072
27 F3 166 -1.607
27 F3 167 -0.142
27 F3 168 -0.631
27 F3 169 -2.096
27 F3 170 -3.560
27 F3 171 -4.537
27 F3 172 -3.560
27 F3 173 -1.607
27 F3 174 0.834
27 F3 175 2.787
27 F3 176 3.276
27 F3 177 2.787
27 F3 178 0.834
27 F3 179 -0.631
27 F3 180 -1.607
27 F3 181 -0.631
27 F3 182 -0.142
27 F3 183 1.811
27 F3 184 2.787
27 F3 185 3.764
27 F3 186 2.787
27 F3 187 0.834
27 F3 188 -0.142
27 F3 189 -1.119
27 F3 190 -1.119
27 F3 191 -1.119
27 F3 192 -1.119
27 F3 193 -2.096
27 F3 194 -3.560
27 F3 195 -4.049
27 F3 196 -4.049
27 F3 197 -3.560
27 F3 198 -2.584
27 F3 199 -2.096
27 F3 200 -1.607
27 F3 201 -1.607
27 F3 202 -0.631
27 F3 203 1.811
27 F3 204 4.740
27 F3 205 7.182
27 F3 206 8.647
27 F3 207 8.158
27 F3 208 6.205
27 F3 209 3.276
27 F3 210 0.346
27 F3 211 -1.607
27 F3 212 -2.584
27 F3 213 -4.049
27 F3 214 -5.025
27 F3 215 -6.002
27 F3 216 -6.002
27 F3 217 -5.514
27 F3 218 -4.537
27 F3 219 -2.584
27 F3 220 -0.631
27 F3 221 0.346
27 F3 222 0.346
27 F3 223 -0.631
27 F3 224 -1.607
27 F3 225 -2.584
27 F3 226 -2.584
27 F3 227 -2.096
27 F3 228 -1.119
27 F3 229 -0.142
27 F3 230 0.834
27 F3 231 0.834
27 F3 232 0.834
27 F3 233 1.322
27 F3 234 2.787
27 F3 235 4.252
27 F3 236 5.717
27 F3 237 6.694
27 F3 238 6.694
27 F3 239 5.717
27 F3 240 5.229
27 F3 241 4.740
27 F3 242 4.740
27 F3 243 5.717
27 F3 244 5.717
27 F3 245 5.229
27 F3 246 3.764
27 F3 247 2.299
27 F3 248 1.322
27 F3 249 0.834
27 F3 250 0.346
27 F3 251 -0.631
27 F3 252 -1.119
27 F3 253 -2.096
27 F3 254 -1.607
27 F3 255 -0.631
# FC6 chan 9
27 FC6 0 1.251
27 FC6 1 1.740
27 FC6 2 2.716
27 FC6 3 3.693
27 FC6 4 4.669
27 FC6 5 5.157
27 FC6 6 3.693
27 FC6 7 1.251
27 FC6 8 -0.702
27 FC6 9 -0.214
27 FC6 10 1.740
27 FC6 11 5.157
27 FC6 12 8.087
27 FC6 13 8.575
27 FC6 14 7.111
27 FC6 15 4.669
27 FC6 16 3.204
27 FC6 17 4.181
27 FC6 18 5.646
27 FC6 19 6.134
27 FC6 20 5.646
27 FC6 21 3.693
27 FC6 22 2.228
27 FC6 23 1.740
27 FC6 24 2.716
27 FC6 25 3.693
27 FC6 26 3.693
27 FC6 27 2.716
27 FC6 28 1.251
27 FC6 29 1.251
27 FC6 30 2.228
27 FC6 31 3.693
27 FC6 32 4.669
27 FC6 33 4.669
27 FC6 34 4.181
27 FC6 35 3.693
27 FC6 36 3.693
27 FC6 37 4.181
27 FC6 38 3.204
27 FC6 39 1.740
27 FC6 40 -0.214
27 FC6 41 -0.702
27 FC6 42 0.275
27 FC6 43 1.740
27 FC6 44 1.740
27 FC6 45 1.251
27 FC6 46 -0.214
27 FC6 47 -1.678
27 FC6 48 -2.167
27 FC6 49 -2.167
27 FC6 50 -2.655
27 FC6 51 -4.120
27 FC6 52 -5.096
27 FC6 53 -6.073
27 FC6 54 -6.073
27 FC6 55 -6.561
27 FC6 56 -7.050
27 FC6 57 -8.514
27 FC6 58 -9.491
27 FC6 59 -9.491
27 FC6 60 -9.003
27 FC6 61 -8.026
27 FC6 62 -8.026
27 FC6 63 -8.514
27 FC6 64 -9.491
27 FC6 65 -9.003
27 FC6 66 -8.514
27 FC6 67 -7.050
27 FC6 68 -6.073
27 FC6 69 -5.585
27 FC6 70 -5.585
27 FC6 71 -6.561
27 FC6 72 -7.538
27 FC6 73 -7.538
27 FC6 74 -7.538
27 FC6 75 -7.050
27 FC6 76 -6.073
27 FC6 77 -6.073
27 FC6 78 -6.073
27 FC6 79 -6.073
27 FC6 80 -5.585
27 FC6 81 -5.096
27 FC6 82 -4.608
27 FC6 83 -5.096
27 FC6 84 -5.585
27 FC6 85 -6.561
27 FC6 86 -6.561
27 FC6 87 -6.073
27 FC6 88 -4.608
27 FC6 89 -3.632
27 FC6 90 -3.632
27 FC6 91 -4.608
27 FC6 92 -5.096
27 FC6 93 -5.096
27 FC6 94 -4.608
27 FC6 95 -3.632
27 FC6 96 -3.632
27 FC6 97 -4.120
27 FC6 98 -4.608
27 FC6 99 -5.096
27 FC6 100 -4.608
27 FC6 101 -4.120
27 FC6 102 -3.632
27 FC6 103 -3.143
27 FC6 104 -2.167
27 FC6 105 -0.702
27 FC6 106 0.275
27 FC6 107 0.763
27 FC6 108 -0.214
27 FC6 109 -1.678
27 FC6 110 -2.655
27 FC6 111 -3.143
27 FC6 112 -3.143
27 FC6 113 -2.167
27 FC6 114 -2.167
27 FC6 115 -3.143
27 FC6 116 -4.608
27 FC6 117 -6.561
27 FC6 118 -9.003
27 FC6 119 -9.979
27 FC6 120 -9.979
27 FC6 121 -9.491
27 FC6 122 -8.026
27 FC6 123 -7.538
27 FC6 124 -7.538
27 FC6 125 -7.538
27 FC6 126 -7.538
27 FC6 127 -7.050
27 FC6 128 -6.073
27 FC6 129 -4.608
27 FC6 130 -3.632
27 FC6 131 -3.143
27 FC6 132 -3.143
27 FC6 133 -2.655
27 FC6 134 -2.167
27 FC6 135 -2.167
27 FC6 136 -3.143
27 FC6 137 -4.120
27 FC6 138 -5.096
27 FC6 139 -4.608
27 FC6 140 -3.632
27 FC6 141 -1.190
27 FC6 142 0.763
27 FC6 143 2.228
27 FC6 144 2.716
27 FC6 145 2.716
27 FC6 146 1.740
27 FC6 147 -0.214
27 FC6 148 -1.678
27 FC6 149 -2.655
27 FC6 150 -1.678
27 FC6 151 0.275
27 FC6 152 2.716
27 FC6 153 4.181
27 FC6 154 3.693
27 FC6 155 1.740
27 FC6 156 -0.702
27 FC6 157 -2.167
27 FC6 158 -1.678
27 FC6 159 -0.214
27 FC6 160 1.251
27 FC6 161 1.740
27 FC6 162 1.251
27 FC6 163 0.275
27 FC6 164 -1.678
27 FC6 165 -2.167
27 FC6 166 -1.678
27 FC6 167 -0.214
27 FC6 168 1.251
27 FC6 169 2.716
27 FC6 170 2.716
27 FC6 171 2.228
27 FC6 172 1.740
27 FC6 173 1.740
27 FC6 174 2.716
27 FC6 175 3.693
27 FC6 176 4.181
27 FC6 177 2.716
27 FC6 178 -0.214
27 FC6 179 -3.143
27 FC6 180 -5.096
27 FC6 181 -5.585
27 FC6 182 -4.608
27 FC6 183 -3.632
27 FC6 184 -3.143
27 FC6 185 -3.632
27 FC6 186 -4.120
27 FC6 187 -4.120
27 FC6 188 -2.655
27 FC6 189 -1.190
27 FC6 190 0.763
27 FC6 191 1.740
27 FC6 192 0.763
27 FC6 193 -0.702
27 FC6 194 -1.678
27 FC6 195 -2.167
27 FC6 196 -1.678
27 FC6 197 -0.702
27 FC6 198 0.275
27 FC6 199 0.763
27 FC6 200 0.275
27 FC6 201 0.275
27 FC6 202 1.251
27 FC6 203 2.716
27 FC6 204 3.693
27 FC6 205 3.693
27 FC6 206 1.740
27 FC6 207 -1.190
27 FC6 208 -3.143
27 FC6 209 -3.632
27 FC6 210 -4.120
27 FC6 211 -4.120
27 FC6 212 -4.608
27 FC6 213 -4.608
27 FC6 214 -4.120
27 FC6 215 -3.143
27 FC6 216 -2.167
27 FC6 217 -2.167
27 FC6 218 -3.143
27 FC6 219 -4.608
27 FC6 220 -6.073
27 FC6 221 -6.561
27 FC6 222 -6.073
27 FC6 223 -5.096
27 FC6 224 -4.608
27 FC6 225 -3.632
27 FC6 226 -3.143
27 FC6 227 -2.167
27 FC6 228 -1.190
27 FC6 229 -1.190
27 FC6 230 -1.678
27 FC6 231 -1.678
27 FC6 232 -2.167
27 FC6 233 -2.167
27 FC6 234 -3.143
27 FC6 235 -3.632
27 FC6 236 -4.120
27 FC6 237 -3.632
27 FC6 238 -2.655
27 FC6 239 -2.655
27 FC6 240 -4.608
27 FC6 241 -7.050
27 FC6 242 -9.979
27 FC6 243 -11.444
27 FC6 244 -10.468
27 FC6 245 -9.003
27 FC6 246 -7.050
27 FC6 247 -5.585
27 FC6 248 -5.096
27 FC6 249 -5.096
27 FC6 250 -6.073
27 FC6 251 -7.538
27 FC6 252 -9.979
27 FC6 253 -12.421
27 FC6 254 -13.885
27 FC6 255 -14.374
# FC5 chan 10
27 FC5 0 4.567
27 FC5 1 4.079
27 FC5 2 4.079
27 FC5 3 4.567
27 FC5 4 5.544
27 FC5 5 6.521
27 FC5 6 7.009
27 FC5 7 7.985
27 FC5 8 7.985
27 FC5 9 8.474
27 FC5 10 7.985
27 FC5 11 7.009
27 FC5 12 6.032
27 FC5 13 6.032
27 FC5 14 7.009
27 FC5 15 8.474
27 FC5 16 9.450
27 FC5 17 8.474
27 FC5 18 6.032
27 FC5 19 3.591
27 FC5 20 2.614
27 FC5 21 3.103
27 FC5 22 4.567
27 FC5 23 6.521
27 FC5 24 7.009
27 FC5 25 6.032
27 FC5 26 4.079
27 FC5 27 2.614
27 FC5 28 2.126
27 FC5 29 2.614
27 FC5 30 4.567
27 FC5 31 6.032
27 FC5 32 7.497
27 FC5 33 7.497
27 FC5 34 7.009
27 FC5 35 6.032
27 FC5 36 5.056
27 FC5 37 4.079
27 FC5 38 3.591
27 FC5 39 2.614
27 FC5 40 1.638
27 FC5 41 0.173
27 FC5 42 -0.804
27 FC5 43 -1.292
27 FC5 44 -0.804
27 FC5 45 0.661
27 FC5 46 2.614
27 FC5 47 3.103
27 FC5 48 2.614
27 FC5 49 1.638
27 FC5 50 0.661
27 FC5 51 0.173
27 FC5 52 -0.315
27 FC5 53 -1.292
27 FC5 54 -2.268
27 FC5 55 -3.733
27 FC5 56 -4.222
27 FC5 57 -4.710
27 FC5 58 -4.710
27 FC5 59 -4.710
27 FC5 60 -5.198
27 FC5 61 -5.686
27 FC5 62 -7.151
27 FC5 63 -8.128
27 FC5 64 -9.104
27 FC5 65 -10.081
27 FC5 66 -9.593
27 FC5 67 -8.616
27 FC5 68 -7.151
27 FC5 69 -6.663
27 FC5 70 -6.663
27 FC5 71 -7.640
27 FC5 72 -8.616
27 FC5 73 -9.104
27 FC5 74 -9.593
27 FC5 75 -9.593
27 FC5 76 -9.593
27 FC5 77 -9.104
27 FC5 78 -8.616
27 FC5 79 -7.640
27 FC5 80 -7.151
27 FC5 81 -7.151
27 FC5 82 -7.151
27 FC5 83 -7.151
27 FC5 84 -7.640
27 FC5 85 -8.616
27 FC5 86 -9.104
27 FC5 87 -10.081
27 FC5 88 -11.058
27 FC5 89 -10.569
27 FC5 90 -10.081
27 FC5 91 -9.104
27 FC5 92 -8.616
27 FC5 93 -7.640
27 FC5 94 -7.151
27 FC5 95 -7.151
27 FC5 96 -7.151
27 FC5 97 -8.616
27 FC5 98 -9.593
27 FC5 99 -10.569
27 FC5 100 -10.569
27 FC5 101 -9.593
27 FC5 102 -8.128
27 FC5 103 -7.151
27 FC5 104 -6.175
27 FC5 105 -5.198
27 FC5 106 -4.710
27 FC5 107 -4.710
27 FC5 108 -5.686
27 FC5 109 -5.686
27 FC5 110 -5.686
27 FC5 111 -4.710
27 FC5 112 -3.245
27 FC5 113 -2.757
27 FC5 114 -3.245
27 FC5 115 -3.733
27 FC5 116 -4.710
27 FC5 117 -5.686
27 FC5 118 -6.663
27 FC5 119 -7.151
27 FC5 120 -8.128
27 FC5 121 -9.104
27 FC5 122 -9.104
27 FC5 123 -9.104
27 FC5 124 -10.081
27 FC5 125 -10.569
27 FC5 126 -11.546
27 FC5 127 -11.546
27 FC5 128 -11.058
27 FC5 129 -10.081
27 FC5 130 -9.593
27 FC5 131 -9.593
27 FC5 132 -9.593
27 FC5 133 -9.104
27 FC5 134 -8.128
27 FC5 135 -6.663
27 FC5 136 -5.686
27 FC5 137 -5.686
27 FC5 138 -5.198
27 FC5 139 -3.733
27 FC5 140 -1.780
27 FC5 141 0.661
27 FC5 142 2.126
27 FC5 143 2.126
27 FC5 144 1.149
27 FC5 145 -0.804
27 FC5 146 -2.268
27 FC5 147 -3.245
27 FC5 148 -3.245
27 FC5 149 -2.757
27 FC5 150 -0.804
27 FC5 151 1.149
27 FC5 152 3.103
27 FC5 153 4.079
27 FC5 154 3.103
27 FC5 155 1.638
27 FC5 156 0.661
27 FC5 157 0.661
27 FC5 158 0.661
27 FC5 159 0.173
27 FC5 160 -0.804
27 FC5 161 -2.268
27 FC5 162 -4.222
27 FC5 163 -5.198
27 FC5 164 -5.198
27 FC5 165 -4.710
27 FC5 166 -3.733
27 FC5 167 -3.733
27 FC5 168 -4.222
27 FC5 169 -5.198
27 FC5 170 -5.686
27 FC5 171 -5.686
27 FC5 172 -4.710
27 FC5 173 -3.245
27 FC5 174 -1.292
27 FC5 175 0.173
27 FC5 176 1.149
27 FC5 177 0.661
27 FC5 178 -0.804
27 FC5 179 -2.268
27 FC5 180 -3.245
27 FC5 181 -3.733
27 FC5 182 -2.757
27 FC5 183 -1.292
27 FC5 184 -0.315
27 FC5 185 0.173
27 FC5 186 -0.315
27 FC5 187 -1.292
27 FC5 188 -2.268
27 FC5 189 -2.757
27 FC5 190 -2.757
27 FC5 191 -2.757
27 FC5 192 -3.245
27 FC5 193 -3.733
27 FC5 194 -3.733
27 FC5 195 -3.245
27 FC5 196 -2.268
27 FC5 197 -1.780
27 FC5 198 -1.292
27 FC5 199 -1.292
27 FC5 200 -1.780
27 FC5 201 -1.292
27 FC5 202 0.173
27 FC5 203 1.638
27 FC5 204 3.591
27 FC5 205 5.544
27 FC5 206 7.497
27 FC5 207 8.474
27 FC5 208 7.985
27 FC5 209 6.521
27 FC5 210 3.591
27 FC5 211 1.638
27 FC5 212 0.661
27 FC5 213 -0.315
27 FC5 214 -0.804
27 FC5 215 -1.292
27 FC5 216 -2.268
27 FC5 217 -1.780
27 FC5 218 0.173
27 FC5 219 2.126
27 FC5 220 4.567
27 FC5 221 5.544
27 FC5 222 5.544
27 FC5 223 5.056
27 FC5 224 4.079
27 FC5 225 2.614
27 FC5 226 1.149
27 FC5 227 0.173
27 FC5 228 -1.292
27 FC5 229 -1.292
27 FC5 230 -1.292
27 FC5 231 -0.315
27 FC5 232 1.149
27 FC5 233 2.126
27 FC5 234 4.079
27 FC5 235 6.032
27 FC5 236 7.985
27 FC5 237 8.474
27 FC5 238 7.497
27 FC5 239 6.032
27 FC5 240 4.079
27 FC5 241 3.591
27 FC5 242 4.567
27 FC5 243 6.521
27 FC5 244 7.985
27 FC5 245 8.474
27 FC5 246 7.497
27 FC5 247 6.521
27 FC5 248 5.056
27 FC5 249 3.591
27 FC5 250 2.126
27 FC5 251 0.173
27 FC5 252 -1.292
27 FC5 253 -1.780
27 FC5 254 -1.292
27 FC5 255 -0.804
# FC2 chan 11
27 FC2 0 -1.119
27 FC2 1 -1.119
27 FC2 2 -0.142
27 FC2 3 0.346
27 FC2 4 1.322
27 FC2 5 1.322
27 FC2 6 1.322
27 FC2 7 0.346
27 FC2 8 -0.142
27 FC2 9 -0.142
27 FC2 10 0.346
27 FC2 11 1.322
27 FC2 12 2.299
27 FC2 13 2.299
27 FC2 14 1.322
27 FC2 15 0.346
27 FC2 16 0.346
27 FC2 17 0.346
27 FC2 18 0.834
27 FC2 19 1.322
27 FC2 20 1.322
27 FC2 21 0.346
27 FC2 22 0.346
27 FC2 23 0.346
27 FC2 24 1.322
27 FC2 25 2.299
27 FC2 26 1.811
27 FC2 27 0.834
27 FC2 28 -0.142
27 FC2 29 -1.119
27 FC2 30 -1.119
27 FC2 31 -0.142
27 FC2 32 0.346
27 FC2 33 0.834
27 FC2 34 0.834
27 FC2 35 0.346
27 FC2 36 0.346
27 FC2 37 0.346
27 FC2 38 0.346
27 FC2 39 -0.631
27 FC2 40 -1.119
27 FC2 41 -1.607
27 FC2 42 -1.119
27 FC2 43 -1.119
27 FC2 44 -1.119
27 FC2 45 -1.607
27 FC2 46 -2.584
27 FC2 47 -2.584
27 FC2 48 -2.584
27 FC2 49 -2.096
27 FC2 50 -2.096
27 FC2 51 -2.096
27 FC2 52 -3.072
27 FC2 53 -3.560
27 FC2 54 -4.049
27 FC2 55 -5.025
27 FC2 56 -5.514
27 FC2 57 -6.490
27 FC2 58 -6.490
27 FC2 59 -6.978
27 FC2 60 -6.490
27 FC2 61 -6.490
27 FC2 62 -6.978
27 FC2 63 -7.467
27 FC2 64 -7.955
27 FC2 65 -7.955
27 FC2 66 -6.978
27 FC2 67 -6.490
27 FC2 68 -5.514
27 FC2 69 -6.002
27 FC2 70 -6.002
27 FC2 71 -6.490
27 FC2 72 -6.002
27 FC2 73 -5.514
27 FC2 74 -5.025
27 FC2 75 -5.514
27 FC2 76 -6.002
27 FC2 77 -6.490
27 FC2 78 -6.490
27 FC2 79 -6.002
27 FC2 80 -5.025
27 FC2 81 -4.537
27 FC2 82 -4.049
27 FC2 83 -4.049
27 FC2 84 -3.560
27 FC2 85 -3.560
27 FC2 86 -3.560
27 FC2 87 -3.560
27 FC2 88 -3.560
27 FC2 89 -3.560
27 FC2 90 -3.560
27 FC2 91 -3.560
27 FC2 92 -3.072
27 FC2 93 -3.072
27 FC2 94 -3.072
27 FC2 95 -3.072
27 FC2 96 -3.560
27 FC2 97 -4.049
27 FC2 98 -4.049
27 FC2 99 -4.049
27 FC2 100 -3.560
27 FC2 101 -3.560
27 FC2 102 -3.072
27 FC2 103 -2.584
27 FC2 104 -2.096
27 FC2 105 -1.607
27 FC2 106 -1.607
27 FC2 107 -1.607
27 FC2 108 -2.096
27 FC2 109 -3.072
27 FC2 110 -3.072
27 FC2 111 -3.072
27 FC2 112 -2.584
27 FC2 113 -1.607
27 FC2 114 -1.607
27 FC2 115 -2.096
27 FC2 116 -3.072
27 FC2 117 -4.049
27 FC2 118 -5.025
27 FC2 119 -6.002
27 FC2 120 -6.002
27 FC2 121 -5.514
27 FC2 122 -4.537
27 FC2 123 -4.049
27 FC2 124 -4.049
27 FC2 125 -4.049
27 FC2 126 -4.049
27 FC2 127 -4.049
27 FC2 128 -3.072
27 FC2 129 -2.584
27 FC2 130 -1.607
27 FC2 131 -1.607
27 FC2 132 -2.096
27 FC2 133 -2.096
27 FC2 134 -2.096
27 FC2 135 -2.096
27 FC2 136 -3.072
27 FC2 137 -4.049
27 FC2 138 -5.025
27 FC2 139 -5.025
27 FC2 140 -4.049
27 FC2 141 -2.584
27 FC2 142 -1.607
27 FC2 143 -0.631
27 FC2 144 -0.631
27 FC2 145 -0.631
27 FC2 146 -0.631
27 FC2 147 -1.119
27 FC2 148 -1.119
27 FC2 149 -1.119
27 FC2 150 -0.142
27 FC2 151 1.322
27 FC2 152 2.787
27 FC2 153 3.764
27 FC2 154 3.276
27 FC2 155 2.299
27 FC2 156 1.322
27 FC2 157 0.346
27 FC2 158 1.322
27 FC2 159 2.299
27 FC2 160 2.787
27 FC2 161 2.299
27 FC2 162 0.346
27 FC2 163 -1.607
27 FC2 164 -2.584
27 FC2 165 -1.607
27 FC2 166 -0.631
27 FC2 167 0.346
27 FC2 168 0.346
27 FC2 169 -0.142
27 FC2 170 -0.631
27 FC2 171 -0.142
27 FC2 172 0.834
27 FC2 173 1.811
27 FC2 174 2.299
27 FC2 175 2.299
27 FC2 176 2.299
27 FC2 177 1.811
27 FC2 178 1.322
27 FC2 179 1.322
27 FC2 180 0.834
27 FC2 181 0.346
27 FC2 182 -0.142
27 FC2 183 0.834
27 FC2 184 1.811
27 FC2 185 2.787
27 FC2 186 2.787
27 FC2 187 2.299
27 FC2 188 1.811
27 FC2 189 0.834
27 FC2 190 0.346
27 FC2 191 0.346
27 FC2 192 0.346
27 FC2 193 -0.631
27 FC2 194 -1.607
27 FC2 195 -2.584
27 FC2 196 -2.584
27 FC2 197 -1.607
27 FC2 198 -0.631
27 FC2 199 -0.142
27 FC2 200 -0.142
27 FC2 201 0.346
27 FC2 202 0.834
27 FC2 203 1.811
27 FC2 204 2.787
27 FC2 205 3.276
27 FC2 206 2.787
27 FC2 207 1.322
27 FC2 208 0.346
27 FC2 209 -1.119
27 FC2 210 -1.607
27 FC2 211 -2.096
27 FC2 212 -2.584
27 FC2 213 -3.072
27 FC2 214 -3.072
27 FC2 215 -3.072
27 FC2 216 -2.584
27 FC2 217 -2.096
27 FC2 218 -2.584
27 FC2 219 -3.560
27 FC2 220 -4.537
27 FC2 221 -5.025
27 FC2 222 -5.025
27 FC2 223 -4.537
27 FC2 224 -4.049
27 FC2 225 -4.049
27 FC2 226 -3.560
27 FC2 227 -3.560
27 FC2 228 -3.072
27 FC2 229 -2.096
27 FC2 230 -1.607
27 FC2 231 -1.119
27 FC2 232 -1.119
27 FC2 233 -2.096
27 FC2 234 -2.584
27 FC2 235 -3.072
27 FC2 236 -2.584
27 FC2 237 -2.096
27 FC2 238 -1.607
27 FC2 239 -1.607
27 FC2 240 -1.607
27 FC2 241 -2.584
27 FC2 242 -3.072
27 FC2 243 -3.072
27 FC2 244 -3.072
27 FC2 245 -3.072
27 FC2 246 -3.560
27 FC2 247 -3.560
27 FC2 248 -3.560
27 FC2 249 -3.560
27 FC2 250 -4.049
27 FC2 251 -4.537
27 FC2 252 -5.025
27 FC2 253 -6.002
27 FC2 254 -6.978
27 FC2 255 -7.467
# FC1 chan 12
27 FC1 0 1.180
27 FC1 1 1.180
27 FC1 2 1.668
27 FC1 3 2.645
27 FC1 4 3.133
27 FC1 5 3.133
27 FC1 6 2.645
27 FC1 7 2.157
27 FC1 8 2.157
27 FC1 9 2.157
27 FC1 10 2.157
27 FC1 11 2.645
27 FC1 12 2.645
27 FC1 13 2.645
27 FC1 14 2.645
27 FC1 15 2.645
27 FC1 16 2.157
27 FC1 17 1.668
27 FC1 18 1.180
27 FC1 19 0.692
27 FC1 20 0.692
27 FC1 21 0.692
27 FC1 22 0.692
27 FC1 23 0.692
27 FC1 24 1.180
27 FC1 25 1.668
27 FC1 26 1.668
27 FC1 27 2.157
27 FC1 28 2.157
27 FC1 29 2.645
27 FC1 30 3.133
27 FC1 31 3.133
27 FC1 32 3.621
27 FC1 33 3.621
27 FC1 34 3.133
27 FC1 35 2.645
27 FC1 36 2.157
27 FC1 37 1.668
27 FC1 38 0.692
27 FC1 39 -0.285
27 FC1 40 -1.261
27 FC1 41 -1.750
27 FC1 42 -2.238
27 FC1 43 -2.238
27 FC1 44 -1.750
27 FC1 45 -1.261
27 FC1 46 -1.261
27 FC1 47 -1.750
27 FC1 48 -1.750
27 FC1 49 -2.726
27 FC1 50 -2.726
27 FC1 51 -2.726
27 FC1 52 -2.238
27 FC1 53 -2.726
27 FC1 54 -2.726
27 FC1 55 -3.215
27 FC1 56 -3.703
27 FC1 57 -4.191
27 FC1 58 -4.191
27 FC1 59 -4.679
27 FC1 60 -5.168
27 FC1 61 -5.168
27 FC1 62 -5.656
27 FC1 63 -6.144
27 FC1 64 -6.632
27 FC1 65 -7.121
27 FC1 66 -7.121
27 FC1 67 -7.609
27 FC1 68 -7.121
27 FC1 69 -7.121
27 FC1 70 -7.609
27 FC1 71 -7.609
27 FC1 72 -7.609
27 FC1 73 -7.121
27 FC1 74 -6.632
27 FC1 75 -6.632
27 FC1 76 -7.121
27 FC1 77 -7.121
27 FC1 78 -7.121
27 FC1 79 -6.144
27 FC1 80 -4.679
27 FC1 81 -3.703
27 FC1 82 -3.215
27 FC1 83 -3.703
27 FC1 84 -4.191
27 FC1 85 -4.679
27 FC1 86 -4.191
27 FC1 87 -4.191
27 FC1 88 -4.191
27 FC1 89 -4.679
27 FC1 90 -5.168
27 FC1 91 -5.656
27 FC1 92 -5.656
27 FC1 93 -5.656
27 FC1 94 -5.656
27 FC1 95 -5.656
27 FC1 96 -5.656
27 FC1 97 -6.144
27 FC1 98 -6.144
27 FC1 99 -6.144
27 FC1 100 -5.656
27 FC1 101 -6.144
27 FC1 102 -6.144
27 FC1 103 -5.656
27 FC1 104 -5.168
27 FC1 105 -4.679
27 FC1 106 -4.191
27 FC1 107 -4.679
27 FC1 108 -5.168
27 FC1 109 -5.656
27 FC1 110 -6.144
27 FC1 111 -6.144
27 FC1 112 -6.144
27 FC1 113 -5.656
27 FC1 114 -4.679
27 FC1 115 -4.679
27 FC1 116 -4.679
27 FC1 117 -5.168
27 FC1 118 -6.144
27 FC1 119 -7.121
27 FC1 120 -7.609
27 FC1 121 -7.609
27 FC1 122 -7.121
27 FC1 123 -6.632
27 FC1 124 -6.632
27 FC1 125 -7.121
27 FC1 126 -7.121
27 FC1 127 -7.121
27 FC1 128 -6.632
27 FC1 129 -5.656
27 FC1 130 -5.168
27 FC1 131 -5.168
27 FC1 132 -6.144
27 FC1 133 -7.121
27 FC1 134 -7.121
27 FC1 135 -7.121
27 FC1 136 -7.121
27 FC1 137 -7.609
27 FC1 138 -7.609
27 FC1 139 -6.632
27 FC1 140 -5.656
27 FC1 141 -4.191
27 FC1 142 -2.726
27 FC1 143 -2.726
27 FC1 144 -3.215
27 FC1 145 -3.703
27 FC1 146 -3.703
27 FC1 147 -3.703
27 FC1 148 -3.215
27 FC1 149 -2.726
27 FC1 150 -2.238
27 FC1 151 -0.773
27 FC1 152 0.692
27 FC1 153 1.668
27 FC1 154 1.668
27 FC1 155 1.180
27 FC1 156 0.203
27 FC1 157 -0.285
27 FC1 158 -0.285
27 FC1 159 0.203
27 FC1 160 0.203
27 FC1 161 -1.261
27 FC1 162 -3.215
27 FC1 163 -4.679
27 FC1 164 -5.168
27 FC1 165 -4.191
27 FC1 166 -2.726
27 FC1 167 -1.750
27 FC1 168 -2.238
27 FC1 169 -3.215
27 FC1 170 -4.679
27 FC1 171 -4.191
27 FC1 172 -3.703
27 FC1 173 -2.238
27 FC1 174 -0.773
27 FC1 175 -0.285
27 FC1 176 -0.285
27 FC1 177 0.203
27 FC1 178 0.692
27 FC1 179 0.692
27 FC1 180 0.692
27 FC1 181 0.203
27 FC1 182 0.203
27 FC1 183 1.180
27 FC1 184 2.157
27 FC1 185 3.133
27 FC1 186 3.133
27 FC1 187 2.157
27 FC1 188 0.692
27 FC1 189 -0.773
27 FC1 190 -1.261
27 FC1 191 -1.750
27 FC1 192 -1.261
27 FC1 193 -1.261
27 FC1 194 -1.261
27 FC1 195 -1.261
27 FC1 196 -0.773
27 FC1 197 -0.285
27 FC1 198 0.203
27 FC1 199 1.180
27 FC1 200 1.180
27 FC1 201 1.668
27 FC1 202 2.157
27 FC1 203 3.621
27 FC1 204 5.086
27 FC1 205 6.063
27 FC1 206 6.551
27 FC1 207 6.063
27 FC1 208 5.086
27 FC1 209 4.110
27 FC1 210 2.157
27 FC1 211 0.692
27 FC1 212 -0.773
27 FC1 213 -2.726
27 FC1 214 -3.215
27 FC1 215 -4.191
27 FC1 216 -3.703
27 FC1 217 -2.726
27 FC1 218 -1.750
27 FC1 219 -0.773
27 FC1 220 -0.773
27 FC1 221 -0.773
27 FC1 222 -0.773
27 FC1 223 0.203
27 FC1 224 0.203
27 FC1 225 0.203
27 FC1 226 -0.285
27 FC1 227 -0.773
27 FC1 228 -1.261
27 FC1 229 -0.285
27 FC1 230 0.692
27 FC1 231 1.668
27 FC1 232 1.668
27 FC1 233 1.668
27 FC1 234 1.180
27 FC1 235 1.180
27 FC1 236 1.668
27 FC1 237 2.157
27 FC1 238 2.645
27 FC1 239 2.157
27 FC1 240 2.157
27 FC1 241 2.157
27 FC1 242 3.133
27 FC1 243 3.133
27 FC1 244 3.621
27 FC1 245 2.645
27 FC1 246 1.180
27 FC1 247 0.203
27 FC1 248 -0.773
27 FC1 249 -0.773
27 FC1 250 -1.261
27 FC1 251 -1.750
27 FC1 252 -2.238
27 FC1 253 -3.215
27 FC1 254 -3.215
27 FC1 255 -2.726
# T8 chan 13
27 T8 0 4.883
27 T8 1 4.395
27 T8 2 5.371
27 T8 3 6.348
27 T8 4 7.324
27 T8 5 7.812
27 T8 6 6.348
27 T8 7 4.395
27 T8 8 2.930
27 T8 9 2.930
27 T8 10 4.883
27 T8 11 7.812
27 T8 12 9.766
27 T8 13 9.766
27 T8 14 8.789
27 T8 15 7.324
27 T8 16 6.836
27 T8 17 7.324
27 T8 18 7.812
27 T8 19 6.836
27 T8 20 5.859
27 T8 21 4.395
27 T8 22 3.906
27 T8 23 4.395
27 T8 24 5.371
27 T8 25 5.859
27 T8 26 4.883
27 T8 27 3.418
27 T8 28 1.953
27 T8 29 1.953
27 T8 30 3.418
27 T8 31 5.371
27 T8 32 6.836
27 T8 33 7.324
27 T8 34 6.836
27 T8 35 5.859
27 T8 36 4.395
27 T8 37 2.930
27 T8 38 1.465
27 T8 39 0.488
27 T8 40 0.977
27 T8 41 1.953
27 T8 42 2.441
27 T8 43 1.953
27 T8 44 0.488
27 T8 45 -0.488
27 T8 46 -0.488
27 T8 47 0.488
27 T8 48 2.441
27 T8 49 2.441
27 T8 50 0.977
27 T8 51 -1.465
27 T8 52 -3.418
27 T8 53 -3.418
27 T8 54 -2.441
27 T8 55 -2.441
27 T8 56 -3.418
27 T8 57 -5.371
27 T8 58 -7.324
27 T8 59 -7.812
27 T8 60 -6.836
27 T8 61 -5.371
27 T8 62 -4.883
27 T8 63 -4.395
27 T8 64 -4.395
27 T8 65 -3.418
27 T8 66 -2.441
27 T8 67 -1.465
27 T8 68 -1.465
27 T8 69 -1.465
27 T8 70 -1.953
27 T8 71 -1.465
27 T8 72 -0.488
27 T8 73 0.977
27 T8 74 0.977
27 T8 75 0.488
27 T8 76 -0.488
27 T8 77 -0.488
27 T8 78 0.000
27 T8 79 0.977
27 T8 80 1.953
27 T8 81 1.465
27 T8 82 0.488
27 T8 83 -0.488
27 T8 84 -1.465
27 T8 85 -1.465
27 T8 86 -0.977
27 T8 87 -0.488
27 T8 88 0.000
27 T8 89 0.488
27 T8 90 0.488
27 T8 91 0.488
27 T8 92 0.488
27 T8 93 0.488
27 T8 94 1.465
27 T8 95 1.953
27 T8 96 2.930
27 T8 97 3.418
27 T8 98 2.930
27 T8 99 2.441
27 T8 100 1.953
27 T8 101 2.441
27 T8 102 2.930
27 T8 103 3.906
27 T8 104 4.395
27 T8 105 5.371
27 T8 106 5.371
27 T8 107 4.395
27 T8 108 3.906
27 T8 109 2.930
27 T8 110 2.930
27 T8 111 3.418
27 T8 112 4.395
27 T8 113 5.371
27 T8 114 4.883
27 T8 115 3.906
27 T8 116 2.441
27 T8 117 0.488
27 T8 118 -0.488
27 T8 119 -1.465
27 T8 120 -2.441
27 T8 121 -2.930
27 T8 122 -2.441
27 T8 123 -0.977
27 T8 124 0.000
27 T8 125 0.000
27 T8 126 -0.488
27 T8 127 -1.465
27 T8 128 -1.953
27 T8 129 -0.488
27 T8 130 1.953
27 T8 131 3.418
27 T8 132 4.395
27 T8 133 5.371
27 T8 134 6.348
27 T8 135 6.348
27 T8 136 5.859
27 T8 137 4.883
27 T8 138 2.441
27 T8 139 1.465
27 T8 140 1.465
27 T8 141 2.930
27 T8 142 5.371
27 T8 143 7.324
27 T8 144 7.324
27 T8 145 5.859
27 T8 146 4.395
27 T8 147 2.441
27 T8 148 1.465
27 T8 149 0.488
27 T8 150 0.000
27 T8 151 0.000
27 T8 152 0.977
27 T8 153 2.441
27 T8 154 2.930
27 T8 155 3.418
27 T8 156 2.930
27 T8 157 2.930
27 T8 158 3.418
27 T8 159 3.906
27 T8 160 4.883
27 T8 161 4.883
27 T8 162 3.906
27 T8 163 3.418
27 T8 164 3.418
27 T8 165 3.906
27 T8 166 5.371
27 T8 167 5.859
27 T8 168 6.348
27 T8 169 5.859
27 T8 170 5.859
27 T8 171 6.348
27 T8 172 7.324
27 T8 173 8.789
27 T8 174 9.766
27 T8 175 9.277
27 T8 176 7.324
27 T8 177 4.883
27 T8 178 1.953
27 T8 179 -0.488
27 T8 180 -1.953
27 T8 181 -2.930
27 T8 182 -2.930
27 T8 183 -2.441
27 T8 184 -1.465
27 T8 185 -0.488
27 T8 186 0.488
27 T8 187 1.465
27 T8 188 1.953
27 T8 189 3.418
27 T8 190 5.371
27 T8 191 7.324
27 T8 192 8.789
27 T8 193 9.277
27 T8 194 8.301
27 T8 195 6.836
27 T8 196 6.836
27 T8 197 8.301
27 T8 198 10.742
27 T8 199 12.695
27 T8 200 13.184
27 T8 201 11.230
27 T8 202 8.789
27 T8 203 7.812
27 T8 204 7.812
27 T8 205 8.301
27 T8 206 8.301
27 T8 207 7.324
27 T8 208 5.371
27 T8 209 3.418
27 T8 210 2.441
27 T8 211 3.418
27 T8 212 4.395
27 T8 213 6.348
27 T8 214 8.301
27 T8 215 9.766
27 T8 216 11.230
27 T8 217 12.207
27 T8 218 11.719
27 T8 219 11.230
27 T8 220 10.254
27 T8 221 9.766
27 T8 222 9.766
27 T8 223 9.766
27 T8 224 9.766
27 T8 225 9.766
27 T8 226 10.254
27 T8 227 11.719
27 T8 228 13.184
27 T8 229 13.672
27 T8 230 13.184
27 T8 231 12.695
27 T8 232 11.719
27 T8 233 11.719
27 T8 234 12.207
27 T8 235 11.230
27 T8 236 9.766
27 T8 237 7.812
27 T8 238 5.859
27 T8 239 4.395
27 T8 240 3.418
27 T8 241 2.441
27 T8 242 1.465
27 T8 243 0.977
27 T8 244 0.977
27 T8 245 1.953
27 T8 246 2.930
27 T8 247 3.906
27 T8 248 4.395
27 T8 249 4.395
27 T8 250 4.395
27 T8 251 3.418
27 T8 252 2.441
27 T8 253 1.953
27 T8 254 0.488
27 T8 255 0.488
# T7 chan 14
27 T7 0 7.253
27 T7 1 7.253
27 T7 2 7.741
27 T7 3 8.230
27 T7 4 9.694
27 T7 5 10.671
27 T7 6 11.159
27 T7 7 11.648
27 T7 8 11.648
27 T7 9 11.648
27 T7 10 11.159
27 T7 11 11.159
27 T7 12 10.671
27 T7 13 9.694
27 T7 14 9.694
27 T7 15 9.694
27 T7 16 10.183
27 T7 17 9.694
27 T7 18 8.718
27 T7 19 6.276
27 T7 20 4.323
27 T7 21 3.347
27 T7 22 3.835
27 T7 23 4.323
27 T7 24 4.323
27 T7 25 3.835
27 T7 26 2.370
27 T7 27 1.394
27 T7 28 1.394
27 T7 29 2.858
27 T7 30 4.812
27 T7 31 6.765
27 T7 32 8.230
27 T7 33 8.718
27 T7 34 7.741
27 T7 35 6.276
27 T7 36 4.323
27 T7 37 1.882
27 T7 38 -0.071
27 T7 39 -0.559
27 T7 40 -0.559
27 T7 41 -0.071
27 T7 42 -0.559
27 T7 43 -1.536
27 T7 44 -2.513
27 T7 45 -2.024
27 T7 46 -0.071
27 T7 47 2.858
27 T7 48 4.812
27 T7 49 5.300
27 T7 50 3.835
27 T7 51 2.370
27 T7 52 1.394
27 T7 53 0.905
27 T7 54 0.905
27 T7 55 -0.559
27 T7 56 -2.024
27 T7 57 -3.489
27 T7 58 -3.489
27 T7 59 -3.489
27 T7 60 -2.513
27 T7 61 -3.001
27 T7 62 -3.489
27 T7 63 -3.977
27 T7 64 -3.977
27 T7 65 -3.489
27 T7 66 -2.513
27 T7 67 -2.513
27 T7 68 -2.513
27 T7 69 -2.513
27 T7 70 -2.513
27 T7 71 -2.024
27 T7 72 -2.024
27 T7 73 -2.513
27 T7 74 -3.001
27 T7 75 -3.977
27 T7 76 -4.466
27 T7 77 -4.466
27 T7 78 -3.977
27 T7 79 -3.489
27 T7 80 -3.489
27 T7 81 -3.977
27 T7 82 -4.466
27 T7 83 -4.954
27 T7 84 -4.954
27 T7 85 -5.442
27 T7 86 -5.442
27 T7 87 -5.931
27 T7 88 -6.419
27 T7 89 -6.419
27 T7 90 -6.907
27 T7 91 -6.907
27 T7 92 -6.419
27 T7 93 -5.931
27 T7 94 -4.466
27 T7 95 -3.001
27 T7 96 -2.024
27 T7 97 -3.001
27 T7 98 -5.442
27 T7 99 -7.395
27 T7 100 -7.884
27 T7 101 -7.395
27 T7 102 -5.931
27 T7 103 -4.466
27 T7 104 -3.977
27 T7 105 -3.977
27 T7 106 -3.489
27 T7 107 -2.513
27 T7 108 -1.536
27 T7 109 -1.048
27 T7 110 -2.513
27 T7 111 -3.977
27 T7 112 -4.954
27 T7 113 -4.466
27 T7 114 -3.489
27 T7 115 -3.001
27 T7 116 -3.489
27 T7 117 -4.466
27 T7 118 -5.442
27 T7 119 -5.442
27 T7 120 -5.442
27 T7 121 -5.442
27 T7 122 -6.419
27 T7 123 -8.372
27 T7 124 -10.325
27 T7 125 -12.278
27 T7 126 -13.255
27 T7 127 -13.743
27 T7 128 -13.743
27 T7 129 -13.743
27 T7 130 -13.255
27 T7 131 -12.278
27 T7 132 -11.302
27 T7 133 -10.325
27 T7 134 -9.349
27 T7 135 -8.372
27 T7 136 -7.884
27 T7 137 -7.395
27 T7 138 -6.419
27 T7 139 -5.442
27 T7 140 -3.977
27 T7 141 -2.513
27 T7 142 -1.536
27 T7 143 -1.536
27 T7 144 -2.513
27 T7 145 -4.466
27 T7 146 -6.907
27 T7 147 -8.860
27 T7 148 -9.837
27 T7 149 -9.349
27 T7 150 -7.884
27 T7 151 -6.419
27 T7 152 -4.954
27 T7 153 -4.466
27 T7 154 -3.977
27 T7 155 -3.977
27 T7 156 -3.489
27 T7 157 -3.489
27 T7 158 -4.466
27 T7 159 -5.931
27 T7 160 -7.884
27 T7 161 -10.325
27 T7 162 -11.790
27 T7 163 -12.767
27 T7 164 -12.278
27 T7 165 -11.302
27 T7 166 -9.349
27 T7 167 -7.395
27 T7 168 -6.907
27 T7 169 -6.907
27 T7 170 -6.907
27 T7 171 -7.395
27 T7 172 -6.907
27 T7 173 -5.931
27 T7 174 -4.466
27 T7 175 -3.489
27 T7 176 -3.489
27 T7 177 -4.466
27 T7 178 -6.419
27 T7 179 -7.395
27 T7 180 -7.884
27 T7 181 -7.884
27 T7 182 -7.884
27 T7 183 -7.884
27 T7 184 -7.884
27 T7 185 -8.372
27 T7 186 -8.860
27 T7 187 -9.349
27 T7 188 -9.349
27 T7 189 -8.372
27 T7 190 -6.907
27 T7 191 -4.466
27 T7 192 -3.001
27 T7 193 -2.024
27 T7 194 -2.024
27 T7 195 -2.024
27 T7 196 -1.536
27 T7 197 -0.559
27 T7 198 -0.071
27 T7 199 -0.071
27 T7 200 -1.048
27 T7 201 -1.536
27 T7 202 -1.048
27 T7 203 1.394
27 T7 204 5.300
27 T7 205 9.206
27 T7 206 11.648
27 T7 207 11.648
27 T7 208 9.694
27 T7 209 6.765
27 T7 210 3.835
27 T7 211 2.370
27 T7 212 2.370
27 T7 213 3.347
27 T7 214 4.812
27 T7 215 5.788
27 T7 216 5.788
27 T7 217 5.788
27 T7 218 6.765
27 T7 219 8.718
27 T7 220 11.159
27 T7 221 12.624
27 T7 222 12.136
27 T7 223 9.694
27 T7 224 7.741
27 T7 225 6.276
27 T7 226 6.276
27 T7 227 6.765
27 T7 228 6.276
27 T7 229 5.300
27 T7 230 3.347
27 T7 231 2.370
27 T7 232 1.882
27 T7 233 2.858
27 T7 234 5.300
27 T7 235 7.253
27 T7 236 8.718
27 T7 237 9.206
27 T7 238 9.206
27 T7 239 7.741
27 T7 240 6.276
27 T7 241 4.812
27 T7 242 4.323
27 T7 243 5.300
27 T7 244 6.765
27 T7 245 7.253
27 T7 246 6.276
27 T7 247 4.812
27 T7 248 3.347
27 T7 249 2.858
27 T7 250 3.835
27 T7 251 4.812
27 T7 252 3.835
27 T7 253 1.882
27 T7 254 -0.559
27 T7 255 -2.024
# CZ chan 15
27 CZ 0 13.255
27 CZ 1 12.767
27 CZ 2 14.231
27 CZ 3 18.626
27 CZ 4 24.485
27 CZ 5 27.903
27 CZ 6 27.415
27 CZ 7 23.509
27 CZ 8 19.114
27 CZ 9 17.161
27 CZ 10 17.649
27 CZ 11 19.602
27 CZ 12 21.067
27 CZ 13 22.044
27 CZ 14 21.556
27 CZ 15 22.044
27 CZ 16 23.509
27 CZ 17 24.485
27 CZ 18 24.485
27 CZ 19 23.020
27 CZ 20 21.067
27 CZ 21 19.602
27 CZ 22 19.114
27 CZ 23 18.138
27 CZ 24 16.184
27 CZ 25 14.231
27 CZ 26 12.278
27 CZ 27 11.302
27 CZ 28 12.767
27 CZ 29 15.696
27 CZ 30 19.114
27 CZ 31 22.044
27 CZ 32 23.020
27 CZ 33 22.532
27 CZ 34 21.067
27 CZ 35 19.602
27 CZ 36 19.114
27 CZ 37 18.626
27 CZ 38 19.114
27 CZ 39 18.138
27 CZ 40 16.673
27 CZ 41 14.231
27 CZ 42 11.302
27 CZ 43 9.837
27 CZ 44 11.302
27 CZ 45 14.720
27 CZ 46 19.602
27 CZ 47 22.532
27 CZ 48 23.509
27 CZ 49 22.044
27 CZ 50 19.114
27 CZ 51 16.673
27 CZ 52 15.208
27 CZ 53 15.208
27 CZ 54 14.720
27 CZ 55 13.743
27 CZ 56 12.278
27 CZ 57 10.813
27 CZ 58 10.325
27 CZ 59 9.837
27 CZ 60 9.349
27 CZ 61 7.884
27 CZ 62 5.931
27 CZ 63 5.442
27 CZ 64 6.419
27 CZ 65 9.349
27 CZ 66 11.790
27 CZ 67 12.767
27 CZ 68 11.302
27 CZ 69 9.349
27 CZ 70 6.907
27 CZ 71 5.931
27 CZ 72 5.931
27 CZ 73 6.907
27 CZ 74 7.884
27 CZ 75 8.372
27 CZ 76 8.860
27 CZ 77 8.860
27 CZ 78 8.860
27 CZ 79 8.372
27 CZ 80 6.907
27 CZ 81 5.931
27 CZ 82 5.442
27 CZ 83 4.954
27 CZ 84 4.954
27 CZ 85 4.954
27 CZ 86 4.466
27 CZ 87 4.466
27 CZ 88 4.954
27 CZ 89 5.442
27 CZ 90 6.907
27 CZ 91 7.395
27 CZ 92 7.395
27 CZ 93 6.907
27 CZ 94 5.931
27 CZ 95 5.442
27 CZ 96 5.442
27 CZ 97 5.442
27 CZ 98 4.954
27 CZ 99 3.977
27 CZ 100 2.513
27 CZ 101 1.536
27 CZ 102 0.559
27 CZ 103 1.048
27 CZ 104 2.024
27 CZ 105 2.513
27 CZ 106 2.513
27 CZ 107 2.024
27 CZ 108 1.048
27 CZ 109 1.536
27 CZ 110 3.001
27 CZ 111 6.419
27 CZ 112 8.372
27 CZ 113 8.372
27 CZ 114 5.442
27 CZ 115 1.048
27 CZ 116 -3.347
27 CZ 117 -5.300
27 CZ 118 -4.323
27 CZ 119 -1.394
27 CZ 120 0.559
27 CZ 121 2.024
27 CZ 122 0.559
27 CZ 123 -1.394
27 CZ 124 -3.347
27 CZ 125 -4.323
27 CZ 126 -4.812
27 CZ 127 -4.323
27 CZ 128 -3.347
27 CZ 129 -2.858
27 CZ 130 -2.370
27 CZ 131 -2.370
27 CZ 132 -2.370
27 CZ 133 -1.882
27 CZ 134 -1.394
27 CZ 135 -1.882
27 CZ 136 -3.347
27 CZ 137 -6.765
27 CZ 138 -10.183
27 CZ 139 -12.624
27 CZ 140 -13.601
27 CZ 141 -13.112
27 CZ 142 -12.624
27 CZ 143 -14.089
27 CZ 144 -17.507
27 CZ 145 -22.878
27 CZ 146 -28.249
27 CZ 147 -32.155
27 CZ 148 -33.620
27 CZ 149 -32.644
27 CZ 150 -30.202
27 CZ 151 -26.784
27 CZ 152 -23.855
27 CZ 153 -22.390
27 CZ 154 -22.390
27 CZ 155 -23.855
27 CZ 156 -27.273
27 CZ 157 -30.691
27 CZ 158 -34.108
27 CZ 159 -36.550
27 CZ 160 -38.503
27 CZ 161 -40.456
27 CZ 162 -41.921
27 CZ 163 -41.433
27 CZ 164 -38.015
27 CZ 165 -32.644
27 CZ 166 -27.273
27 CZ 167 -22.878
27 CZ 168 -22.390
27 CZ 169 -23.855
27 CZ 170 -24.343
27 CZ 171 -21.901
27 CZ 172 -16.042
27 CZ 173 -8.230
27 CZ 174 -1.394
27 CZ 175 1.048
27 CZ 176 -0.417
27 CZ 177 -3.835
27 CZ 178 -7.741
27 CZ 179 -9.206
27 CZ 180 -9.206
27 CZ 181 -9.206
27 CZ 182 -8.718
27 CZ 183 -8.718
27 CZ 184 -8.230
27 CZ 185 -6.765
27 CZ 186 -5.788
27 CZ 187 -5.788
27 CZ 188 -6.276
27 CZ 189 -7.253
27 CZ 190 -6.276
27 CZ 191 -4.323
27 CZ 192 -1.394
27 CZ 193 1.536
27 CZ 194 3.001
27 CZ 195 4.954
27 CZ 196 6.907
27 CZ 197 8.860
27 CZ 198 9.349
27 CZ 199 6.907
27 CZ 200 2.024
27 CZ 201 -3.347
27 CZ 202 -5.788
27 CZ 203 -4.812
27 CZ 204 0.559
27 CZ 205 6.419
27 CZ 206 10.325
27 CZ 207 11.302
27 CZ 208 10.325
27 CZ 209 8.372
27 CZ 210 6.907
27 CZ 211 5.931
27 CZ 212 5.442
27 CZ 213 5.442
27 CZ 214 6.419
27 CZ 215 8.860
27 CZ 216 12.278
27 CZ 217 16.184
27 CZ 218 18.138
27 CZ 219 18.138
27 CZ 220 16.673
27 CZ 221 14.231
27 CZ 222 12.767
27 CZ 223 11.302
27 CZ 224 9.837
27 CZ 225 7.884
27 CZ 226 6.907
27 CZ 227 6.419
27 CZ 228 6.907
27 CZ 229 8.372
27 CZ 230 7.884
27 CZ 231 7.395
27 CZ 232 6.907
27 CZ 233 7.884
27 CZ 234 11.302
27 CZ 235 16.673
27 CZ 236 20.091
27 CZ 237 21.067
27 CZ 238 18.138
27 CZ 239 13.743
27 CZ 240 9.349
27 CZ 241 7.395
27 CZ 242 7.395
27 CZ 243 7.884
27 CZ 244 6.907
27 CZ 245 3.489
27 CZ 246 -0.417
27 CZ 247 -3.347
27 CZ 248 -4.323
27 CZ 249 -2.370
27 CZ 250 0.071
27 CZ 251 0.559
27 CZ 252 -0.905
27 CZ 253 -3.347
27 CZ 254 -5.788
27 CZ 255 -5.788
# C3 chan 16
27 C3 0 3.031
27 C3 1 3.520
27 C3 2 4.008
27 C3 3 4.008
27 C3 4 4.496
27 C3 5 4.008
27 C3 6 4.496
27 C3 7 4.496
27 C3 8 4.985
27 C3 9 4.985
27 C3 10 4.985
27 C3 11 4.985
27 C3 12 4.985
27 C3 13 4.985
27 C3 14 5.961
27 C3 15 6.449
27 C3 16 6.449
27 C3 17 5.473
27 C3 18 3.520
27 C3 19 1.078
27 C3 20 0.102
27 C3 21 0.102
27 C3 22 1.567
27 C3 23 3.031
27 C3 24 3.520
27 C3 25 3.031
27 C3 26 2.055
27 C3 27 2.055
27 C3 28 2.543
27 C3 29 3.520
27 C3 30 4.008
27 C3 31 4.985
27 C3 32 5.473
27 C3 33 5.961
27 C3 34 6.449
27 C3 35 5.961
27 C3 36 5.961
27 C3 37 4.496
27 C3 38 3.520
27 C3 39 3.520
27 C3 40 3.520
27 C3 41 3.520
27 C3 42 3.520
27 C3 43 3.031
27 C3 44 3.520
27 C3 45 4.008
27 C3 46 5.473
27 C3 47 6.938
27 C3 48 7.426
27 C3 49 7.426
27 C3 50 6.938
27 C3 51 6.449
27 C3 52 5.961
27 C3 53 5.961
27 C3 54 5.473
27 C3 55 4.985
27 C3 56 4.496
27 C3 57 4.008
27 C3 58 3.520
27 C3 59 3.520
27 C3 60 3.520
27 C3 61 3.520
27 C3 62 3.031
27 C3 63 3.031
27 C3 64 2.543
27 C3 65 2.543
27 C3 66 3.031
27 C3 67 4.008
27 C3 68 4.496
27 C3 69 5.473
27 C3 70 5.473
27 C3 71 4.985
27 C3 72 4.496
27 C3 73 4.008
27 C3 74 3.520
27 C3 75 3.031
27 C3 76 2.543
27 C3 77 3.031
27 C3 78 4.008
27 C3 79 4.496
27 C3 80 4.985
27 C3 81 4.985
27 C3 82 4.985
27 C3 83 4.496
27 C3 84 4.496
27 C3 85 4.496
27 C3 86 4.985
27 C3 87 4.985
27 C3 88 4.985
27 C3 89 4.985
27 C3 90 4.496
27 C3 91 4.496
27 C3 92 4.985
27 C3 93 4.985
27 C3 94 5.473
27 C3 95 5.473
27 C3 96 4.985
27 C3 97 4.496
27 C3 98 3.520
27 C3 99 3.031
27 C3 100 3.031
27 C3 101 3.520
27 C3 102 4.008
27 C3 103 4.496
27 C3 104 4.496
27 C3 105 4.985
27 C3 106 5.473
27 C3 107 5.961
27 C3 108 6.449
27 C3 109 6.449
27 C3 110 6.449
27 C3 111 6.449
27 C3 112 6.449
27 C3 113 7.426
27 C3 114 7.914
27 C3 115 8.403
27 C3 116 8.403
27 C3 117 7.426
27 C3 118 6.938
27 C3 119 6.449
27 C3 120 5.961
27 C3 121 5.473
27 C3 122 4.985
27 C3 123 4.985
27 C3 124 4.496
27 C3 125 4.008
27 C3 126 3.520
27 C3 127 3.031
27 C3 128 3.031
27 C3 129 3.031
27 C3 130 3.520
27 C3 131 4.008
27 C3 132 4.496
27 C3 133 5.473
27 C3 134 6.449
27 C3 135 6.938
27 C3 136 7.426
27 C3 137 7.426
27 C3 138 7.426
27 C3 139 7.914
27 C3 140 8.891
27 C3 141 9.379
27 C3 142 9.867
27 C3 143 9.867
27 C3 144 8.891
27 C3 145 7.914
27 C3 146 6.449
27 C3 147 4.985
27 C3 148 4.496
27 C3 149 4.985
27 C3 150 6.449
27 C3 151 7.914
27 C3 152 8.891
27 C3 153 9.379
27 C3 154 8.891
27 C3 155 8.891
27 C3 156 8.891
27 C3 157 8.403
27 C3 158 8.403
27 C3 159 7.914
27 C3 160 6.938
27 C3 161 5.473
27 C3 162 4.496
27 C3 163 4.496
27 C3 164 4.496
27 C3 165 4.985
27 C3 166 5.473
27 C3 167 4.985
27 C3 168 4.985
27 C3 169 4.496
27 C3 170 4.496
27 C3 171 4.496
27 C3 172 4.985
27 C3 173 5.961
27 C3 174 6.938
27 C3 175 7.914
27 C3 176 8.891
27 C3 177 9.379
27 C3 178 8.891
27 C3 179 8.891
27 C3 180 8.891
27 C3 181 9.379
27 C3 182 10.356
27 C3 183 12.309
27 C3 184 13.285
27 C3 185 13.285
27 C3 186 12.309
27 C3 187 11.332
27 C3 188 10.356
27 C3 189 9.867
27 C3 190 9.867
27 C3 191 10.356
27 C3 192 9.867
27 C3 193 9.867
27 C3 194 9.867
27 C3 195 10.356
27 C3 196 10.356
27 C3 197 10.844
27 C3 198 10.356
27 C3 199 9.867
27 C3 200 9.867
27 C3 201 9.867
27 C3 202 9.867
27 C3 203 11.332
27 C3 204 12.797
27 C3 205 14.262
27 C3 206 15.727
27 C3 207 16.215
27 C3 208 15.727
27 C3 209 14.262
27 C3 210 12.309
27 C3 211 10.844
27 C3 212 10.356
27 C3 213 9.867
27 C3 214 10.356
27 C3 215 9.867
27 C3 216 9.867
27 C3 217 9.867
27 C3 218 10.844
27 C3 219 12.309
27 C3 220 13.285
27 C3 221 14.750
27 C3 222 14.750
27 C3 223 15.238
27 C3 224 15.238
27 C3 225 15.238
27 C3 226 14.750
27 C3 227 13.774
27 C3 228 12.309
27 C3 229 11.332
27 C3 230 10.844
27 C3 231 11.332
27 C3 232 11.820
27 C3 233 12.309
27 C3 234 13.285
27 C3 235 14.262
27 C3 236 15.238
27 C3 237 15.727
27 C3 238 15.238
27 C3 239 14.750
27 C3 240 13.774
27 C3 241 13.285
27 C3 242 13.285
27 C3 243 14.262
27 C3 244 15.238
27 C3 245 16.215
27 C3 246 15.727
27 C3 247 15.238
27 C3 248 14.750
27 C3 249 13.774
27 C3 250 13.285
27 C3 251 12.797
27 C3 252 12.309
27 C3 253 11.332
27 C3 254 10.356
27 C3 255 9.867
# C4 chan 17
27 C4 0 -0.153
27 C4 1 -0.153
27 C4 2 -0.641
27 C4 3 -0.641
27 C4 4 -0.153
27 C4 5 -0.641
27 C4 6 -1.617
27 C4 7 -2.594
27 C4 8 -4.059
27 C4 9 -3.571
27 C4 10 -2.106
27 C4 11 -0.153
27 C4 12 1.312
27 C4 13 1.801
27 C4 14 0.824
27 C4 15 -0.153
27 C4 16 -0.641
27 C4 17 -0.153
27 C4 18 0.336
27 C4 19 0.336
27 C4 20 -0.641
27 C4 21 -1.617
27 C4 22 -3.082
27 C4 23 -2.594
27 C4 24 -2.106
27 C4 25 -1.129
27 C4 26 -1.617
27 C4 27 -2.594
27 C4 28 -3.571
27 C4 29 -4.059
27 C4 30 -3.571
27 C4 31 -2.106
27 C4 32 -1.129
27 C4 33 -0.641
27 C4 34 -0.153
27 C4 35 -0.153
27 C4 36 -0.641
27 C4 37 -1.129
27 C4 38 -2.106
27 C4 39 -2.106
27 C4 40 -2.106
27 C4 41 -1.129
27 C4 42 -0.641
27 C4 43 -0.153
27 C4 44 -1.129
27 C4 45 -2.594
27 C4 46 -3.571
27 C4 47 -4.059
27 C4 48 -3.571
27 C4 49 -3.082
27 C4 50 -4.059
27 C4 51 -5.035
27 C4 52 -6.012
27 C4 53 -5.524
27 C4 54 -4.547
27 C4 55 -4.059
27 C4 56 -4.059
27 C4 57 -5.524
27 C4 58 -6.500
27 C4 59 -6.500
27 C4 60 -5.524
27 C4 61 -4.059
27 C4 62 -3.571
27 C4 63 -3.571
27 C4 64 -4.059
27 C4 65 -4.059
27 C4 66 -3.571
27 C4 67 -2.594
27 C4 68 -2.106
27 C4 69 -2.594
27 C4 70 -2.594
27 C4 71 -2.594
27 C4 72 -2.106
27 C4 73 -1.617
27 C4 74 -1.129
27 C4 75 -1.129
27 C4 76 -1.617
27 C4 77 -2.106
27 C4 78 -2.594
27 C4 79 -2.594
27 C4 80 -3.082
27 C4 81 -3.571
27 C4 82 -3.571
27 C4 83 -3.571
27 C4 84 -3.082
27 C4 85 -2.594
27 C4 86 -2.106
27 C4 87 -2.106
27 C4 88 -1.617
27 C4 89 -1.129
27 C4 90 -0.641
27 C4 91 -0.641
27 C4 92 -1.129
27 C4 93 -1.617
27 C4 94 -1.617
27 C4 95 -1.617
27 C4 96 -1.129
27 C4 97 -1.129
27 C4 98 -1.129
27 C4 99 -1.617
27 C4 100 -2.106
27 C4 101 -2.106
27 C4 102 -2.106
27 C4 103 -1.617
27 C4 104 -1.129
27 C4 105 -1.129
27 C4 106 -0.641
27 C4 107 -0.641
27 C4 108 -1.129
27 C4 109 -1.129
27 C4 110 -1.129
27 C4 111 -1.129
27 C4 112 -1.129
27 C4 113 -1.129
27 C4 114 -1.129
27 C4 115 -1.617
27 C4 116 -2.594
27 C4 117 -3.571
27 C4 118 -5.035
27 C4 119 -6.012
27 C4 120 -6.500
27 C4 121 -6.500
27 C4 122 -5.524
27 C4 123 -5.035
27 C4 124 -4.547
27 C4 125 -4.547
27 C4 126 -4.059
27 C4 127 -4.059
27 C4 128 -3.082
27 C4 129 -2.106
27 C4 130 -2.106
27 C4 131 -1.617
27 C4 132 -2.106
27 C4 133 -1.617
27 C4 134 -1.129
27 C4 135 -1.129
27 C4 136 -1.129
27 C4 137 -2.106
27 C4 138 -3.571
27 C4 139 -4.547
27 C4 140 -5.035
27 C4 141 -4.059
27 C4 142 -3.082
27 C4 143 -2.106
27 C4 144 -1.617
27 C4 145 -1.617
27 C4 146 -2.106
27 C4 147 -3.082
27 C4 148 -4.059
27 C4 149 -4.059
27 C4 150 -3.571
27 C4 151 -3.082
27 C4 152 -2.106
27 C4 153 -1.617
27 C4 154 -2.594
27 C4 155 -3.082
27 C4 156 -4.059
27 C4 157 -4.059
27 C4 158 -3.082
27 C4 159 -1.617
27 C4 160 -0.153
27 C4 161 0.336
27 C4 162 0.824
27 C4 163 0.824
27 C4 164 0.824
27 C4 165 0.824
27 C4 166 0.824
27 C4 167 0.824
27 C4 168 0.824
27 C4 169 0.824
27 C4 170 0.336
27 C4 171 0.336
27 C4 172 -0.153
27 C4 173 -0.153
27 C4 174 -0.153
27 C4 175 -0.641
27 C4 176 -1.129
27 C4 177 -2.594
27 C4 178 -4.547
27 C4 179 -6.989
27 C4 180 -8.453
27 C4 181 -8.942
27 C4 182 -8.453
27 C4 183 -7.477
27 C4 184 -6.989
27 C4 185 -6.989
27 C4 186 -6.989
27 C4 187 -6.989
27 C4 188 -6.500
27 C4 189 -5.524
27 C4 190 -4.059
27 C4 191 -3.571
27 C4 192 -3.571
27 C4 193 -4.059
27 C4 194 -5.035
27 C4 195 -5.524
27 C4 196 -5.524
27 C4 197 -4.547
27 C4 198 -3.082
27 C4 199 -2.106
27 C4 200 -2.106
27 C4 201 -2.106
27 C4 202 -3.571
27 C4 203 -4.059
27 C4 204 -4.547
27 C4 205 -5.035
27 C4 206 -5.524
27 C4 207 -6.500
27 C4 208 -7.477
27 C4 209 -7.965
27 C4 210 -8.453
27 C4 211 -7.965
27 C4 212 -7.477
27 C4 213 -6.500
27 C4 214 -5.035
27 C4 215 -3.571
27 C4 216 -2.594
27 C4 217 -3.082
27 C4 218 -4.547
27 C4 219 -6.500
27 C4 220 -8.453
27 C4 221 -8.942
27 C4 222 -8.942
27 C4 223 -7.965
27 C4 224 -7.477
27 C4 225 -6.500
27 C4 226 -6.500
27 C4 227 -6.012
27 C4 228 -5.035
27 C4 229 -5.035
27 C4 230 -5.035
27 C4 231 -6.012
27 C4 232 -6.500
27 C4 233 -7.477
27 C4 234 -7.965
27 C4 235 -7.965
27 C4 236 -8.453
27 C4 237 -8.942
27 C4 238 -8.942
27 C4 239 -8.942
27 C4 240 -8.942
27 C4 241 -9.430
27 C4 242 -9.918
27 C4 243 -10.406
27 C4 244 -9.918
27 C4 245 -8.453
27 C4 246 -7.477
27 C4 247 -6.500
27 C4 248 -6.012
27 C4 249 -6.989
27 C4 250 -6.989
27 C4 251 -7.965
27 C4 252 -8.453
27 C4 253 -9.430
27 C4 254 -10.895
27 C4 255 -12.360
# CP5 chan 18
27 CP5 0 6.704
27 CP5 1 6.704
27 CP5 2 6.704
27 CP5 3 6.215
27 CP5 4 6.215
27 CP5 5 7.192
27 CP5 6 7.680
27 CP5 7 8.169
27 CP5 8 8.169
27 CP5 9 8.657
27 CP5 10 8.657
27 CP5 11 8.169
27 CP5 12 7.192
27 CP5 13 6.704
27 CP5 14 6.704
27 CP5 15 7.192
27 CP5 16 6.704
27 CP5 17 6.215
27 CP5 18 3.774
27 CP5 19 1.333
27 CP5 20 -0.621
27 CP5 21 -0.621
27 CP5 22 0.356
27 CP5 23 1.333
27 CP5 24 1.333
27 CP5 25 -0.621
27 CP5 26 -2.574
27 CP5 27 -3.550
27 CP5 28 -3.062
27 CP5 29 -2.085
27 CP5 30 -1.109
27 CP5 31 -0.132
27 CP5 32 0.356
27 CP5 33 0.356
27 CP5 34 0.844
27 CP5 35 0.356
27 CP5 36 -1.109
27 CP5 37 -3.550
27 CP5 38 -5.015
27 CP5 39 -5.015
27 CP5 40 -4.038
27 CP5 41 -3.550
27 CP5 42 -4.527
27 CP5 43 -6.480
27 CP5 44 -7.456
27 CP5 45 -6.480
27 CP5 46 -3.550
27 CP5 47 -0.132
27 CP5 48 2.309
27 CP5 49 2.309
27 CP5 50 1.333
27 CP5 51 0.844
27 CP5 52 0.356
27 CP5 53 0.356
27 CP5 54 0.356
27 CP5 55 -0.132
27 CP5 56 -0.132
27 CP5 57 -0.132
27 CP5 58 1.333
27 CP5 59 2.309
27 CP5 60 2.797
27 CP5 61 2.797
27 CP5 62 2.797
27 CP5 63 2.797
27 CP5 64 4.262
27 CP5 65 5.727
27 CP5 66 6.704
27 CP5 67 6.704
27 CP5 68 6.215
27 CP5 69 5.727
27 CP5 70 5.239
27 CP5 71 5.239
27 CP5 72 5.239
27 CP5 73 4.751
27 CP5 74 3.774
27 CP5 75 2.797
27 CP5 76 2.309
27 CP5 77 2.797
27 CP5 78 3.774
27 CP5 79 4.262
27 CP5 80 3.774
27 CP5 81 2.309
27 CP5 82 0.844
27 CP5 83 0.356
27 CP5 84 -0.132
27 CP5 85 0.356
27 CP5 86 0.356
27 CP5 87 0.356
27 CP5 88 -0.132
27 CP5 89 -0.132
27 CP5 90 -0.132
27 CP5 91 0.356
27 CP5 92 0.844
27 CP5 93 1.821
27 CP5 94 2.309
27 CP5 95 2.797
27 CP5 96 3.286
27 CP5 97 2.797
27 CP5 98 1.333
27 CP5 99 -0.621
27 CP5 100 -2.085
27 CP5 101 -3.062
27 CP5 102 -2.574
27 CP5 103 -2.085
27 CP5 104 -1.597
27 CP5 105 -1.109
27 CP5 106 -0.621
27 CP5 107 -0.132
27 CP5 108 -0.132
27 CP5 109 0.356
27 CP5 110 -0.132
27 CP5 111 -1.597
27 CP5 112 -2.574
27 CP5 113 -2.574
27 CP5 114 -2.085
27 CP5 115 -1.109
27 CP5 116 -1.109
27 CP5 117 -0.621
27 CP5 118 -0.621
27 CP5 119 -0.132
27 CP5 120 -0.132
27 CP5 121 -0.132
27 CP5 122 -1.109
27 CP5 123 -2.085
27 CP5 124 -3.550
27 CP5 125 -4.527
27 CP5 126 -5.015
27 CP5 127 -5.503
27 CP5 128 -5.503
27 CP5 129 -5.992
27 CP5 130 -5.992
27 CP5 131 -5.503
27 CP5 132 -5.015
27 CP5 133 -4.527
27 CP5 134 -4.038
27 CP5 135 -4.038
27 CP5 136 -3.550
27 CP5 137 -2.574
27 CP5 138 -1.597
27 CP5 139 -0.621
27 CP5 140 -0.132
27 CP5 141 -0.132
27 CP5 142 -1.109
27 CP5 143 -2.085
27 CP5 144 -4.038
27 CP5 145 -6.480
27 CP5 146 -9.898
27 CP5 147 -11.363
27 CP5 148 -11.851
27 CP5 149 -10.386
27 CP5 150 -8.433
27 CP5 151 -6.968
27 CP5 152 -6.968
27 CP5 153 -7.456
27 CP5 154 -7.456
27 CP5 155 -6.968
27 CP5 156 -5.992
27 CP5 157 -5.992
27 CP5 158 -6.968
27 CP5 159 -8.433
27 CP5 160 -9.898
27 CP5 161 -10.386
27 CP5 162 -9.898
27 CP5 163 -8.921
27 CP5 164 -8.433
27 CP5 165 -8.921
27 CP5 166 -9.410
27 CP5 167 -9.410
27 CP5 168 -8.433
27 CP5 169 -7.456
27 CP5 170 -6.968
27 CP5 171 -7.945
27 CP5 172 -8.921
27 CP5 173 -9.898
27 CP5 174 -8.921
27 CP5 175 -7.456
27 CP5 176 -5.992
27 CP5 177 -5.503
27 CP5 178 -6.480
27 CP5 179 -7.945
27 CP5 180 -8.433
27 CP5 181 -7.945
27 CP5 182 -6.480
27 CP5 183 -5.015
27 CP5 184 -5.015
27 CP5 185 -6.480
27 CP5 186 -7.456
27 CP5 187 -7.945
27 CP5 188 -6.968
27 CP5 189 -5.015
27 CP5 190 -3.550
27 CP5 191 -2.085
27 CP5 192 -1.597
27 CP5 193 -1.109
27 CP5 194 -0.132
27 CP5 195 1.333
27 CP5 196 1.821
27 CP5 197 1.821
27 CP5 198 0.844
27 CP5 199 -0.132
27 CP5 200 -0.621
27 CP5 201 -1.109
27 CP5 202 -1.109
27 CP5 203 -0.621
27 CP5 204 -0.132
27 CP5 205 1.821
27 CP5 206 3.774
27 CP5 207 4.262
27 CP5 208 3.774
27 CP5 209 0.844
27 CP5 210 -3.062
27 CP5 211 -5.503
27 CP5 212 -5.503
27 CP5 213 -3.550
27 CP5 214 -1.597
27 CP5 215 -1.109
27 CP5 216 -2.085
27 CP5 217 -4.038
27 CP5 218 -4.038
27 CP5 219 -2.085
27 CP5 220 1.333
27 CP5 221 4.262
27 CP5 222 5.727
27 CP5 223 5.239
27 CP5 224 3.774
27 CP5 225 3.286
27 CP5 226 3.286
27 CP5 227 2.797
27 CP5 228 1.333
27 CP5 229 -0.621
27 CP5 230 -3.062
27 CP5 231 -4.038
27 CP5 232 -4.038
27 CP5 233 -3.062
27 CP5 234 -1.597
27 CP5 235 -1.109
27 CP5 236 -1.109
27 CP5 237 -1.597
27 CP5 238 -2.574
27 CP5 239 -3.062
27 CP5 240 -4.038
27 CP5 241 -4.527
27 CP5 242 -5.503
27 CP5 243 -5.015
27 CP5 244 -4.527
27 CP5 245 -3.062
27 CP5 246 -2.574
27 CP5 247 -2.574
27 CP5 248 -3.062
27 CP5 249 -4.038
27 CP5 250 -5.015
27 CP5 251 -5.992
27 CP5 252 -6.968
27 CP5 253 -8.433
27 CP5 254 -9.898
27 CP5 255 -10.386
# CP6 chan 19
27 CP6 0 2.228
27 CP6 1 1.740
27 CP6 2 1.251
27 CP6 3 0.763
27 CP6 4 0.763
27 CP6 5 0.275
27 CP6 6 -0.702
27 CP6 7 -1.678
27 CP6 8 -2.655
27 CP6 9 -2.655
27 CP6 10 -1.190
27 CP6 11 0.275
27 CP6 12 1.740
27 CP6 13 2.228
27 CP6 14 1.740
27 CP6 15 1.740
27 CP6 16 2.228
27 CP6 17 3.693
27 CP6 18 5.157
27 CP6 19 4.669
27 CP6 20 2.716
27 CP6 21 0.763
27 CP6 22 -0.214
27 CP6 23 -0.214
27 CP6 24 0.763
27 CP6 25 1.740
27 CP6 26 1.251
27 CP6 27 -0.214
27 CP6 28 -1.678
27 CP6 29 -2.167
27 CP6 30 -1.190
27 CP6 31 0.763
27 CP6 32 2.228
27 CP6 33 3.693
27 CP6 34 3.693
27 CP6 35 3.204
27 CP6 36 1.740
27 CP6 37 -0.214
27 CP6 38 -0.702
27 CP6 39 -0.214
27 CP6 40 1.251
27 CP6 41 3.204
27 CP6 42 3.693
27 CP6 43 2.228
27 CP6 44 -0.214
27 CP6 45 -1.678
27 CP6 46 -1.190
27 CP6 47 0.763
27 CP6 48 2.716
27 CP6 49 2.716
27 CP6 50 1.251
27 CP6 51 -0.214
27 CP6 52 -1.190
27 CP6 53 -0.702
27 CP6 54 0.763
27 CP6 55 1.740
27 CP6 56 0.275
27 CP6 57 -1.190
27 CP6 58 -2.655
27 CP6 59 -2.167
27 CP6 60 -0.214
27 CP6 61 1.740
27 CP6 62 3.204
27 CP6 63 4.669
27 CP6 64 5.646
27 CP6 65 6.622
27 CP6 66 7.599
27 CP6 67 7.111
27 CP6 68 6.134
27 CP6 69 5.157
27 CP6 70 5.157
27 CP6 71 6.134
27 CP6 72 7.599
27 CP6 73 8.575
27 CP6 74 8.575
27 CP6 75 7.111
27 CP6 76 5.646
27 CP6 77 4.669
27 CP6 78 4.181
27 CP6 79 4.181
27 CP6 80 3.204
27 CP6 81 2.716
27 CP6 82 2.716
27 CP6 83 2.716
27 CP6 84 3.204
27 CP6 85 3.204
27 CP6 86 2.716
27 CP6 87 2.228
27 CP6 88 1.740
27 CP6 89 2.228
27 CP6 90 3.693
27 CP6 91 4.181
27 CP6 92 4.669
27 CP6 93 4.669
27 CP6 94 5.157
27 CP6 95 5.646
27 CP6 96 7.111
27 CP6 97 7.599
27 CP6 98 7.111
27 CP6 99 6.134
27 CP6 100 5.646
27 CP6 101 6.134
27 CP6 102 6.622
27 CP6 103 7.111
27 CP6 104 7.599
27 CP6 105 6.622
27 CP6 106 5.646
27 CP6 107 5.157
27 CP6 108 4.669
27 CP6 109 5.646
27 CP6 110 6.134
27 CP6 111 6.622
27 CP6 112 6.622
27 CP6 113 5.646
27 CP6 114 4.669
27 CP6 115 3.204
27 CP6 116 2.716
27 CP6 117 2.716
27 CP6 118 2.228
27 CP6 119 1.251
27 CP6 120 0.275
27 CP6 121 -0.214
27 CP6 122 0.763
27 CP6 123 1.740
27 CP6 124 2.228
27 CP6 125 2.228
27 CP6 126 1.740
27 CP6 127 1.251
27 CP6 128 1.251
27 CP6 129 2.228
27 CP6 130 2.716
27 CP6 131 2.716
27 CP6 132 2.228
27 CP6 133 2.716
27 CP6 134 4.181
27 CP6 135 5.646
27 CP6 136 6.134
27 CP6 137 4.669
27 CP6 138 2.716
27 CP6 139 0.275
27 CP6 140 -1.190
27 CP6 141 -1.190
27 CP6 142 -0.702
27 CP6 143 0.275
27 CP6 144 0.275
27 CP6 145 -0.702
27 CP6 146 -1.678
27 CP6 147 -2.655
27 CP6 148 -4.120
27 CP6 149 -4.608
27 CP6 150 -5.585
27 CP6 151 -6.073
27 CP6 152 -6.073
27 CP6 153 -6.073
27 CP6 154 -6.561
27 CP6 155 -7.538
27 CP6 156 -7.538
27 CP6 157 -7.538
27 CP6 158 -7.050
27 CP6 159 -6.073
27 CP6 160 -5.096
27 CP6 161 -4.608
27 CP6 162 -3.632
27 CP6 163 -2.167
27 CP6 164 -0.702
27 CP6 165 0.275
27 CP6 166 0.763
27 CP6 167 0.763
27 CP6 168 0.763
27 CP6 169 0.763
27 CP6 170 1.251
27 CP6 171 1.251
27 CP6 172 1.251
27 CP6 173 0.275
27 CP6 174 -0.214
27 CP6 175 -1.190
27 CP6 176 -2.167
27 CP6 177 -4.120
27 CP6 178 -6.561
27 CP6 179 -9.003
27 CP6 180 -10.468
27 CP6 181 -10.956
27 CP6 182 -10.468
27 CP6 183 -9.979
27 CP6 184 -9.979
27 CP6 185 -9.979
27 CP6 186 -10.956
27 CP6 187 -10.468
27 CP6 188 -9.979
27 CP6 189 -8.026
27 CP6 190 -5.585
27 CP6 191 -3.143
27 CP6 192 -0.702
27 CP6 193 0.275
27 CP6 194 0.275
27 CP6 195 -0.214
27 CP6 196 0.275
27 CP6 197 1.251
27 CP6 198 3.204
27 CP6 199 4.669
27 CP6 200 4.669
27 CP6 201 2.716
27 CP6 202 -0.702
27 CP6 203 -4.120
27 CP6 204 -6.073
27 CP6 205 -7.050
27 CP6 206 -7.538
27 CP6 207 -8.514
27 CP6 208 -9.979
27 CP6 209 -11.444
27 CP6 210 -11.932
27 CP6 211 -11.444
27 CP6 212 -9.491
27 CP6 213 -7.050
27 CP6 214 -4.120
27 CP6 215 -1.190
27 CP6 216 0.275
27 CP6 217 0.763
27 CP6 218 -0.214
27 CP6 219 -2.167
27 CP6 220 -4.120
27 CP6 221 -5.585
27 CP6 222 -5.096
27 CP6 223 -4.608
27 CP6 224 -4.120
27 CP6 225 -4.120
27 CP6 226 -4.120
27 CP6 227 -4.120
27 CP6 228 -3.632
27 CP6 229 -3.632
27 CP6 230 -4.608
27 CP6 231 -6.073
27 CP6 232 -6.561
27 CP6 233 -7.050
27 CP6 234 -7.050
27 CP6 235 -8.026
27 CP6 236 -9.491
27 CP6 237 -11.444
27 CP6 238 -11.932
27 CP6 239 -10.956
27 CP6 240 -9.491
27 CP6 241 -8.514
27 CP6 242 -8.026
27 CP6 243 -8.026
27 CP6 244 -7.050
27 CP6 245 -6.073
27 CP6 246 -4.608
27 CP6 247 -4.608
27 CP6 248 -5.585
27 CP6 249 -6.561
27 CP6 250 -7.050
27 CP6 251 -6.561
27 CP6 252 -5.096
27 CP6 253 -4.608
27 CP6 254 -5.585
27 CP6 255 -7.050
# CP1 chan 20
27 CP1 0 1.180
27 CP1 1 0.692
27 CP1 2 -0.285
27 CP1 3 -1.261
27 CP1 4 -1.750
27 CP1 5 -1.261
27 CP1 6 -0.285
27 CP1 7 0.203
27 CP1 8 0.692
27 CP1 9 0.692
27 CP1 10 0.692
27 CP1 11 0.203
27 CP1 12 0.203
27 CP1 13 -0.285
27 CP1 14 -0.285
27 CP1 15 0.203
27 CP1 16 0.692
27 CP1 17 1.180
27 CP1 18 0.692
27 CP1 19 -0.285
27 CP1 20 -1.750
27 CP1 21 -2.238
27 CP1 22 -1.750
27 CP1 23 -0.773
27 CP1 24 0.203
27 CP1 25 0.692
27 CP1 26 0.203
27 CP1 27 0.203
27 CP1 28 -0.285
27 CP1 29 -0.773
27 CP1 30 -0.773
27 CP1 31 -0.773
27 CP1 32 -0.773
27 CP1 33 -0.285
27 CP1 34 0.203
27 CP1 35 0.203
27 CP1 36 -0.285
27 CP1 37 -0.773
27 CP1 38 -0.773
27 CP1 39 -0.285
27 CP1 40 0.203
27 CP1 41 0.203
27 CP1 42 -0.285
27 CP1 43 -1.750
27 CP1 44 -2.238
27 CP1 45 -1.750
27 CP1 46 -0.773
27 CP1 47 0.692
27 CP1 48 1.180
27 CP1 49 1.180
27 CP1 50 0.692
27 CP1 51 0.203
27 CP1 52 -0.285
27 CP1 53 0.203
27 CP1 54 0.692
27 CP1 55 1.668
27 CP1 56 3.133
27 CP1 57 4.110
27 CP1 58 4.598
27 CP1 59 4.598
27 CP1 60 4.598
27 CP1 61 5.086
27 CP1 62 5.575
27 CP1 63 6.551
27 CP1 64 7.039
27 CP1 65 8.016
27 CP1 66 8.016
27 CP1 67 7.528
27 CP1 68 7.039
27 CP1 69 6.551
27 CP1 70 5.575
27 CP1 71 5.575
27 CP1 72 5.575
27 CP1 73 5.086
27 CP1 74 5.086
27 CP1 75 5.086
27 CP1 76 4.598
27 CP1 77 4.598
27 CP1 78 4.598
27 CP1 79 4.598
27 CP1 80 4.110
27 CP1 81 4.110
27 CP1 82 3.621
27 CP1 83 3.133
27 CP1 84 3.133
27 CP1 85 3.621
27 CP1 86 4.110
27 CP1 87 4.110
27 CP1 88 4.598
27 CP1 89 5.086
27 CP1 90 5.575
27 CP1 91 6.063
27 CP1 92 7.039
27 CP1 93 7.528
27 CP1 94 8.016
27 CP1 95 8.016
27 CP1 96 7.528
27 CP1 97 7.528
27 CP1 98 6.063
27 CP1 99 5.086
27 CP1 100 4.110
27 CP1 101 3.621
27 CP1 102 3.621
27 CP1 103 4.110
27 CP1 104 4.110
27 CP1 105 4.598
27 CP1 106 5.086
27 CP1 107 5.575
27 CP1 108 6.063
27 CP1 109 6.551
27 CP1 110 6.063
27 CP1 111 5.086
27 CP1 112 4.110
27 CP1 113 4.110
27 CP1 114 4.110
27 CP1 115 4.110
27 CP1 116 5.086
27 CP1 117 5.575
27 CP1 118 5.086
27 CP1 119 5.575
27 CP1 120 6.063
27 CP1 121 6.063
27 CP1 122 5.575
27 CP1 123 5.086
27 CP1 124 4.598
27 CP1 125 4.110
27 CP1 126 4.598
27 CP1 127 5.086
27 CP1 128 5.575
27 CP1 129 5.575
27 CP1 130 5.575
27 CP1 131 5.086
27 CP1 132 5.086
27 CP1 133 5.086
27 CP1 134 5.575
27 CP1 135 6.063
27 CP1 136 7.039
27 CP1 137 7.528
27 CP1 138 7.528
27 CP1 139 7.039
27 CP1 140 6.063
27 CP1 141 5.086
27 CP1 142 4.110
27 CP1 143 3.621
27 CP1 144 2.157
27 CP1 145 1.180
27 CP1 146 0.203
27 CP1 147 0.203
27 CP1 148 0.692
27 CP1 149 1.668
27 CP1 150 1.668
27 CP1 151 1.180
27 CP1 152 -0.285
27 CP1 153 -1.261
27 CP1 154 -1.750
27 CP1 155 -1.750
27 CP1 156 -0.773
27 CP1 157 0.203
27 CP1 158 0.692
27 CP1 159 0.203
27 CP1 160 -0.285
27 CP1 161 -0.285
27 CP1 162 -0.285
27 CP1 163 0.203
27 CP1 164 1.180
27 CP1 165 1.668
27 CP1 166 0.692
27 CP1 167 -0.285
27 CP1 168 -1.261
27 CP1 169 -0.773
27 CP1 170 -0.773
27 CP1 171 -0.773
27 CP1 172 -1.261
27 CP1 173 -2.726
27 CP1 174 -3.703
27 CP1 175 -3.215
27 CP1 176 -1.750
27 CP1 177 -0.773
27 CP1 178 -0.773
27 CP1 179 -1.750
27 CP1 180 -2.238
27 CP1 181 -1.750
27 CP1 182 -0.773
27 CP1 183 0.203
27 CP1 184 0.203
27 CP1 185 -0.773
27 CP1 186 -2.726
27 CP1 187 -3.215
27 CP1 188 -2.726
27 CP1 189 -1.750
27 CP1 190 -0.773
27 CP1 191 0.203
27 CP1 192 1.180
27 CP1 193 2.157
27 CP1 194 2.645
27 CP1 195 3.133
27 CP1 196 2.645
27 CP1 197 2.157
27 CP1 198 1.180
27 CP1 199 0.692
27 CP1 200 0.203
27 CP1 201 0.203
27 CP1 202 -0.285
27 CP1 203 -0.773
27 CP1 204 -1.261
27 CP1 205 -0.285
27 CP1 206 1.180
27 CP1 207 2.157
27 CP1 208 2.645
27 CP1 209 2.157
27 CP1 210 1.180
27 CP1 211 1.180
27 CP1 212 2.157
27 CP1 213 4.110
27 CP1 214 5.575
27 CP1 215 5.575
27 CP1 216 4.110
27 CP1 217 2.645
27 CP1 218 1.180
27 CP1 219 1.668
27 CP1 220 2.645
27 CP1 221 4.110
27 CP1 222 4.110
27 CP1 223 3.621
27 CP1 224 3.621
27 CP1 225 2.645
27 CP1 226 3.133
27 CP1 227 3.133
27 CP1 228 3.621
27 CP1 229 3.133
27 CP1 230 2.645
27 CP1 231 1.668
27 CP1 232 1.668
27 CP1 233 1.180
27 CP1 234 0.692
27 CP1 235 0.203
27 CP1 236 -0.773
27 CP1 237 -1.261
27 CP1 238 -0.773
27 CP1 239 -0.285
27 CP1 240 0.203
27 CP1 241 0.203
27 CP1 242 -0.773
27 CP1 243 -2.726
27 CP1 244 -3.215
27 CP1 245 -2.238
27 CP1 246 -0.773
27 CP1 247 0.203
27 CP1 248 0.203
27 CP1 249 0.203
27 CP1 250 0.203
27 CP1 251 0.692
27 CP1 252 1.668
27 CP1 253 2.157
27 CP1 254 1.180
27 CP1 255 -0.285
# CP2 chan 21
27 CP2 0 1.261
27 CP2 1 1.261
27 CP2 2 0.285
27 CP2 3 -0.692
27 CP2 4 -1.668
27 CP2 5 -2.157
27 CP2 6 -2.157
27 CP2 7 -2.645
27 CP2 8 -2.645
27 CP2 9 -3.133
27 CP2 10 -2.645
27 CP2 11 -2.157
27 CP2 12 -1.180
27 CP2 13 -0.692
27 CP2 14 -0.692
27 CP2 15 -0.692
27 CP2 16 -0.203
27 CP2 17 1.261
27 CP2 18 1.750
27 CP2 19 1.261
27 CP2 20 0.285
27 CP2 21 -1.180
27 CP2 22 -1.668
27 CP2 23 -1.668
27 CP2 24 -0.692
27 CP2 25 -0.203
27 CP2 26 -0.692
27 CP2 27 -1.668
27 CP2 28 -2.645
27 CP2 29 -3.133
27 CP2 30 -3.133
27 CP2 31 -2.645
27 CP2 32 -1.668
27 CP2 33 -0.692
27 CP2 34 -0.692
27 CP2 35 -0.203
27 CP2 36 -0.692
27 CP2 37 -1.180
27 CP2 38 -0.692
27 CP2 39 0.285
27 CP2 40 1.750
27 CP2 41 3.215
27 CP2 42 3.215
27 CP2 43 2.238
27 CP2 44 0.285
27 CP2 45 -0.692
27 CP2 46 -0.692
27 CP2 47 0.285
27 CP2 48 1.750
27 CP2 49 1.261
27 CP2 50 0.285
27 CP2 51 -1.180
27 CP2 52 -1.668
27 CP2 53 -1.180
27 CP2 54 0.285
27 CP2 55 1.750
27 CP2 56 2.238
27 CP2 57 2.726
27 CP2 58 2.726
27 CP2 59 3.703
27 CP2 60 4.679
27 CP2 61 6.632
27 CP2 62 7.609
27 CP2 63 8.586
27 CP2 64 9.074
27 CP2 65 9.074
27 CP2 66 9.562
27 CP2 67 9.562
27 CP2 68 9.074
27 CP2 69 9.074
27 CP2 70 9.074
27 CP2 71 9.074
27 CP2 72 9.074
27 CP2 73 9.074
27 CP2 74 8.586
27 CP2 75 8.097
27 CP2 76 7.609
27 CP2 77 7.121
27 CP2 78 6.632
27 CP2 79 5.168
27 CP2 80 4.679
27 CP2 81 3.703
27 CP2 82 3.703
27 CP2 83 4.191
27 CP2 84 5.168
27 CP2 85 5.168
27 CP2 86 5.656
27 CP2 87 5.656
27 CP2 88 6.144
27 CP2 89 7.121
27 CP2 90 7.609
27 CP2 91 7.609
27 CP2 92 7.609
27 CP2 93 7.609
27 CP2 94 8.097
27 CP2 95 8.586
27 CP2 96 9.074
27 CP2 97 9.074
27 CP2 98 9.074
27 CP2 99 8.586
27 CP2 100 8.586
27 CP2 101 8.097
27 CP2 102 8.097
27 CP2 103 8.097
27 CP2 104 7.609
27 CP2 105 7.121
27 CP2 106 6.632
27 CP2 107 7.121
27 CP2 108 7.609
27 CP2 109 8.097
27 CP2 110 8.586
27 CP2 111 7.609
27 CP2 112 6.632
27 CP2 113 5.656
27 CP2 114 5.168
27 CP2 115 4.679
27 CP2 116 4.679
27 CP2 117 4.679
27 CP2 118 5.656
27 CP2 119 6.144
27 CP2 120 6.144
27 CP2 121 5.656
27 CP2 122 5.656
27 CP2 123 5.168
27 CP2 124 5.168
27 CP2 125 5.656
27 CP2 126 6.632
27 CP2 127 7.121
27 CP2 128 7.121
27 CP2 129 6.632
27 CP2 130 6.144
27 CP2 131 6.144
27 CP2 132 6.632
27 CP2 133 7.609
27 CP2 134 8.097
27 CP2 135 8.586
27 CP2 136 9.074
27 CP2 137 8.586
27 CP2 138 7.609
27 CP2 139 6.144
27 CP2 140 4.679
27 CP2 141 3.215
27 CP2 142 2.726
27 CP2 143 2.726
27 CP2 144 2.726
27 CP2 145 2.726
27 CP2 146 2.238
27 CP2 147 1.750
27 CP2 148 1.261
27 CP2 149 1.261
27 CP2 150 0.773
27 CP2 151 0.285
27 CP2 152 -1.180
27 CP2 153 -2.157
27 CP2 154 -3.133
27 CP2 155 -3.133
27 CP2 156 -2.157
27 CP2 157 -1.180
27 CP2 158 -0.203
27 CP2 159 1.261
27 CP2 160 1.750
27 CP2 161 3.703
27 CP2 162 5.168
27 CP2 163 6.144
27 CP2 164 6.632
27 CP2 165 6.144
27 CP2 166 5.656
27 CP2 167 5.168
27 CP2 168 5.168
27 CP2 169 5.656
27 CP2 170 5.168
27 CP2 171 4.679
27 CP2 172 3.215
27 CP2 173 2.238
27 CP2 174 1.750
27 CP2 175 1.750
27 CP2 176 1.750
27 CP2 177 1.750
27 CP2 178 0.773
27 CP2 179 -0.203
27 CP2 180 -1.180
27 CP2 181 -1.180
27 CP2 182 -1.180
27 CP2 183 -1.668
27 CP2 184 -1.668
27 CP2 185 -2.645
27 CP2 186 -3.133
27 CP2 187 -3.621
27 CP2 188 -3.133
27 CP2 189 -2.157
27 CP2 190 -1.180
27 CP2 191 0.773
27 CP2 192 1.750
27 CP2 193 3.215
27 CP2 194 3.215
27 CP2 195 2.726
27 CP2 196 2.238
27 CP2 197 1.750
27 CP2 198 2.726
27 CP2 199 2.726
27 CP2 200 2.726
27 CP2 201 1.750
27 CP2 202 -0.203
27 CP2 203 -2.645
27 CP2 204 -4.598
27 CP2 205 -5.575
27 CP2 206 -6.063
27 CP2 207 -6.063
27 CP2 208 -5.575
27 CP2 209 -4.598
27 CP2 210 -3.621
27 CP2 211 -2.157
27 CP2 212 -0.692
27 CP2 213 1.261
27 CP2 214 2.726
27 CP2 215 3.703
27 CP2 216 3.703
27 CP2 217 2.238
27 CP2 218 0.285
27 CP2 219 -1.180
27 CP2 220 -2.157
27 CP2 221 -2.157
27 CP2 222 -1.668
27 CP2 223 -1.668
27 CP2 224 -2.157
27 CP2 225 -2.645
27 CP2 226 -2.645
27 CP2 227 -2.645
27 CP2 228 -2.157
27 CP2 229 -2.157
27 CP2 230 -2.645
27 CP2 231 -3.133
27 CP2 232 -3.621
27 CP2 233 -4.598
27 CP2 234 -5.086
27 CP2 235 -6.063
27 CP2 236 -7.039
27 CP2 237 -7.528
27 CP2 238 -7.528
27 CP2 239 -6.551
27 CP2 240 -6.063
27 CP2 241 -5.575
27 CP2 242 -5.575
27 CP2 243 -6.063
27 CP2 244 -5.086
27 CP2 245 -3.621
27 CP2 246 -2.645
27 CP2 247 -2.157
27 CP2 248 -3.133
27 CP2 249 -4.110
27 CP2 250 -4.110
27 CP2 251 -3.133
27 CP2 252 -2.157
27 CP2 253 -1.668
27 CP2 254 -2.645
27 CP2 255 -4.110
# P3 chan 22
27 P3 0 9.816
27 P3 1 8.840
27 P3 2 6.399
27 P3 3 3.469
27 P3 4 2.004
27 P3 5 1.516
27 P3 6 2.492
27 P3 7 3.469
27 P3 8 4.445
27 P3 9 4.934
27 P3 10 4.934
27 P3 11 4.934
27 P3 12 4.445
27 P3 13 3.957
27 P3 14 3.957
27 P3 15 4.934
27 P3 16 5.422
27 P3 17 4.934
27 P3 18 2.981
27 P3 19 0.539
27 P3 20 -0.437
27 P3 21 0.051
27 P3 22 2.004
27 P3 23 3.469
27 P3 24 2.981
27 P3 25 1.516
27 P3 26 0.051
27 P3 27 0.539
27 P3 28 1.516
27 P3 29 2.492
27 P3 30 2.492
27 P3 31 2.004
27 P3 32 1.516
27 P3 33 2.981
27 P3 34 4.445
27 P3 35 4.934
27 P3 36 2.981
27 P3 37 1.027
27 P3 38 0.539
27 P3 39 2.004
27 P3 40 4.445
27 P3 41 5.422
27 P3 42 2.981
27 P3 43 -1.414
27 P3 44 -3.367
27 P3 45 -2.391
27 P3 46 2.004
27 P3 47 5.910
27 P3 48 8.352
27 P3 49 8.352
27 P3 50 7.375
27 P3 51 6.887
27 P3 52 6.399
27 P3 53 6.887
27 P3 54 6.887
27 P3 55 7.863
27 P3 56 8.840
27 P3 57 10.793
27 P3 58 12.258
27 P3 59 13.234
27 P3 60 13.234
27 P3 61 13.723
27 P3 62 15.188
27 P3 63 17.629
27 P3 64 20.070
27 P3 65 21.047
27 P3 66 21.047
27 P3 67 19.582
27 P3 68 18.117
27 P3 69 17.141
27 P3 70 17.141
27 P3 71 16.652
27 P3 72 15.676
27 P3 73 13.234
27 P3 74 10.305
27 P3 75 8.352
27 P3 76 8.840
27 P3 77 10.793
27 P3 78 12.258
27 P3 79 12.258
27 P3 80 10.793
27 P3 81 8.352
27 P3 82 7.375
27 P3 83 8.352
27 P3 84 9.328
27 P3 85 10.305
27 P3 86 9.328
27 P3 87 7.863
27 P3 88 6.399
27 P3 89 4.934
27 P3 90 4.934
27 P3 91 6.399
27 P3 92 8.352
27 P3 93 10.305
27 P3 94 11.770
27 P3 95 12.258
27 P3 96 12.258
27 P3 97 11.281
27 P3 98 9.816
27 P3 99 7.863
27 P3 100 7.375
27 P3 101 7.375
27 P3 102 7.863
27 P3 103 7.863
27 P3 104 6.887
27 P3 105 4.934
27 P3 106 3.469
27 P3 107 3.469
27 P3 108 4.445
27 P3 109 5.910
27 P3 110 5.422
27 P3 111 3.957
27 P3 112 2.004
27 P3 113 1.027
27 P3 114 1.516
27 P3 115 2.492
27 P3 116 2.981
27 P3 117 3.957
27 P3 118 4.934
27 P3 119 6.399
27 P3 120 7.375
27 P3 121 7.375
27 P3 122 6.887
27 P3 123 5.422
27 P3 124 4.445
27 P3 125 4.445
27 P3 126 4.445
27 P3 127 4.445
27 P3 128 4.445
27 P3 129 4.934
27 P3 130 5.910
27 P3 131 6.887
27 P3 132 7.375
27 P3 133 7.375
27 P3 134 6.399
27 P3 135 5.910
27 P3 136 6.399
27 P3 137 7.863
27 P3 138 9.328
27 P3 139 9.816
27 P3 140 8.840
27 P3 141 6.887
27 P3 142 4.445
27 P3 143 2.492
27 P3 144 -0.437
27 P3 145 -3.367
27 P3 146 -6.785
27 P3 147 -9.226
27 P3 148 -8.250
27 P3 149 -6.297
27 P3 150 -4.832
27 P3 151 -5.320
27 P3 152 -7.762
27 P3 153 -10.203
27 P3 154 -10.691
27 P3 155 -8.250
27 P3 156 -5.809
27 P3 157 -4.832
27 P3 158 -5.809
27 P3 159 -7.273
27 P3 160 -8.250
27 P3 161 -6.785
27 P3 162 -3.855
27 P3 163 -2.391
27 P3 164 -3.367
27 P3 165 -5.809
27 P3 166 -8.738
27 P3 167 -10.203
27 P3 168 -8.738
27 P3 169 -5.809
27 P3 170 -3.367
27 P3 171 -3.855
27 P3 172 -6.297
27 P3 173 -9.715
27 P3 174 -10.691
27 P3 175 -9.715
27 P3 176 -7.762
27 P3 177 -6.297
27 P3 178 -6.785
27 P3 179 -8.738
27 P3 180 -9.715
27 P3 181 -9.226
27 P3 182 -8.250
27 P3 183 -8.250
27 P3 184 -10.203
27 P3 185 -13.621
27 P3 186 -15.574
27 P3 187 -14.598
27 P3 188 -10.691
27 P3 189 -5.809
27 P3 190 -2.391
27 P3 191 -0.437
27 P3 192 -0.437
27 P3 193 -0.437
27 P3 194 1.027
27 P3 195 2.492
27 P3 196 2.981
27 P3 197 1.516
27 P3 198 -0.926
27 P3 199 -3.855
27 P3 200 -5.809
27 P3 201 -7.273
27 P3 202 -7.762
27 P3 203 -8.738
27 P3 204 -9.226
27 P3 205 -8.250
27 P3 206 -6.297
27 P3 207 -3.855
27 P3 208 -2.879
27 P3 209 -3.367
27 P3 210 -5.320
27 P3 211 -5.809
27 P3 212 -4.832
27 P3 213 -2.391
27 P3 214 -0.926
27 P3 215 -1.902
27 P3 216 -4.832
27 P3 217 -8.250
27 P3 218 -9.226
27 P3 219 -7.273
27 P3 220 -3.367
27 P3 221 0.051
27 P3 222 1.516
27 P3 223 1.027
27 P3 224 0.539
27 P3 225 0.051
27 P3 226 0.051
27 P3 227 0.539
27 P3 228 0.051
27 P3 229 -1.414
27 P3 230 -2.879
27 P3 231 -3.855
27 P3 232 -4.832
27 P3 233 -5.809
27 P3 234 -6.785
27 P3 235 -9.226
27 P3 236 -10.691
27 P3 237 -11.180
27 P3 238 -10.203
27 P3 239 -7.273
27 P3 240 -5.809
27 P3 241 -5.320
27 P3 242 -6.785
27 P3 243 -8.738
27 P3 244 -9.226
27 P3 245 -7.762
27 P3 246 -5.809
27 P3 247 -4.832
27 P3 248 -6.297
27 P3 249 -7.762
27 P3 250 -8.250
27 P3 251 -6.785
27 P3 252 -4.832
27 P3 253 -3.855
27 P3 254 -4.832
27 P3 255 -7.273
# P4 chan 23
27 P4 0 6.236
27 P4 1 5.747
27 P4 2 4.771
27 P4 3 2.818
27 P4 4 1.353
27 P4 5 0.865
27 P4 6 0.376
27 P4 7 -0.112
27 P4 8 -1.088
27 P4 9 -1.088
27 P4 10 -0.112
27 P4 11 1.353
27 P4 12 2.818
27 P4 13 2.818
27 P4 14 2.818
27 P4 15 3.306
27 P4 16 4.771
27 P4 17 6.724
27 P4 18 8.189
27 P4 19 7.212
27 P4 20 5.259
27 P4 21 2.818
27 P4 22 1.841
27 P4 23 1.841
27 P4 24 2.818
27 P4 25 3.306
27 P4 26 2.330
27 P4 27 1.353
27 P4 28 0.865
27 P4 29 0.865
27 P4 30 1.841
27 P4 31 2.818
27 P4 32 4.283
27 P4 33 5.259
27 P4 34 5.747
27 P4 35 6.724
27 P4 36 6.236
27 P4 37 5.747
27 P4 38 6.236
27 P4 39 7.701
27 P4 40 10.142
27 P4 41 12.095
27 P4 42 11.607
27 P4 43 8.677
27 P4 44 5.747
27 P4 45 4.771
27 P4 46 6.236
27 P4 47 8.677
27 P4 48 11.119
27 P4 49 11.119
27 P4 50 9.165
27 P4 51 7.212
27 P4 52 6.236
27 P4 53 8.189
27 P4 54 10.630
27 P4 55 12.095
27 P4 56 12.095
27 P4 57 11.607
27 P4 58 11.119
27 P4 59 12.583
27 P4 60 15.025
27 P4 61 17.955
27 P4 62 20.396
27 P4 63 22.837
27 P4 64 23.326
27 P4 65 23.814
27 P4 66 23.326
27 P4 67 21.372
27 P4 68 19.419
27 P4 69 18.443
27 P4 70 18.443
27 P4 71 19.419
27 P4 72 20.396
27 P4 73 20.396
27 P4 74 19.419
27 P4 75 18.443
27 P4 76 16.978
27 P4 77 16.001
27 P4 78 14.537
27 P4 79 12.583
27 P4 80 9.654
27 P4 81 8.677
27 P4 82 8.677
27 P4 83 10.142
27 P4 84 11.607
27 P4 85 11.119
27 P4 86 10.142
27 P4 87 8.677
27 P4 88 8.677
27 P4 89 10.142
27 P4 90 11.607
27 P4 91 13.072
27 P4 92 13.560
27 P4 93 13.072
27 P4 94 13.560
27 P4 95 14.537
27 P4 96 15.513
27 P4 97 15.513
27 P4 98 15.025
27 P4 99 14.048
27 P4 100 13.072
27 P4 101 12.583
27 P4 102 13.072
27 P4 103 12.583
27 P4 104 10.630
27 P4 105 8.677
27 P4 106 7.701
27 P4 107 7.701
27 P4 108 9.654
27 P4 109 11.607
27 P4 110 12.095
27 P4 111 11.119
27 P4 112 9.165
27 P4 113 6.724
27 P4 114 5.259
27 P4 115 4.771
27 P4 116 4.771
27 P4 117 5.259
27 P4 118 6.724
27 P4 119 7.701
27 P4 120 8.189
27 P4 121 7.701
27 P4 122 7.701
27 P4 123 7.701
27 P4 124 8.189
27 P4 125 9.654
27 P4 126 10.630
27 P4 127 10.630
27 P4 128 10.630
27 P4 129 9.654
27 P4 130 8.677
27 P4 131 8.677
27 P4 132 9.165
27 P4 133 10.630
27 P4 134 12.583
27 P4 135 13.560
27 P4 136 13.560
27 P4 137 12.095
27 P4 138 10.142
27 P4 139 7.701
27 P4 140 5.747
27 P4 141 4.771
27 P4 142 4.283
27 P4 143 3.794
27 P4 144 3.306
27 P4 145 2.818
27 P4 146 2.818
27 P4 147 2.330
27 P4 148 1.841
27 P4 149 0.865
27 P4 150 -1.088
27 P4 151 -3.530
27 P4 152 -6.948
27 P4 153 -9.878
27 P4 154 -11.342
27 P4 155 -11.342
27 P4 156 -9.389
27 P4 157 -7.436
27 P4 158 -4.995
27 P4 159 -3.530
27 P4 160 -2.065
27 P4 161 0.376
27 P4 162 3.306
27 P4 163 5.747
27 P4 164 6.724
27 P4 165 5.747
27 P4 166 3.306
27 P4 167 1.353
27 P4 168 0.865
27 P4 169 1.841
27 P4 170 1.841
27 P4 171 0.865
27 P4 172 -1.577
27 P4 173 -4.018
27 P4 174 -4.506
27 P4 175 -4.018
27 P4 176 -3.042
27 P4 177 -3.042
27 P4 178 -4.995
27 P4 179 -6.460
27 P4 180 -7.436
27 P4 181 -6.948
27 P4 182 -6.948
27 P4 183 -7.436
27 P4 184 -9.389
27 P4 185 -11.831
27 P4 186 -13.295
27 P4 187 -13.295
27 P4 188 -11.831
27 P4 189 -8.901
27 P4 190 -5.483
27 P4 191 -2.065
27 P4 192 0.865
27 P4 193 2.330
27 P4 194 2.818
27 P4 195 2.818
27 P4 196 3.306
27 P4 197 3.794
27 P4 198 5.747
27 P4 199 6.724
27 P4 200 5.747
27 P4 201 3.306
27 P4 202 -1.088
27 P4 203 -5.971
27 P4 204 -10.854
27 P4 205 -14.272
27 P4 206 -16.713
27 P4 207 -17.202
27 P4 208 -16.225
27 P4 209 -14.272
27 P4 210 -11.342
27 P4 211 -7.924
27 P4 212 -4.018
27 P4 213 -0.112
27 P4 214 2.818
27 P4 215 4.771
27 P4 216 4.771
27 P4 217 2.818
27 P4 218 -0.600
27 P4 219 -4.018
27 P4 220 -5.971
27 P4 221 -6.460
27 P4 222 -6.460
27 P4 223 -5.971
27 P4 224 -5.971
27 P4 225 -5.971
27 P4 226 -4.995
27 P4 227 -4.018
27 P4 228 -3.042
27 P4 229 -3.042
27 P4 230 -4.506
27 P4 231 -5.971
27 P4 232 -6.948
27 P4 233 -8.413
27 P4 234 -10.854
27 P4 235 -13.784
27 P4 236 -16.713
27 P4 237 -17.690
27 P4 238 -16.713
27 P4 239 -13.784
27 P4 240 -10.366
27 P4 241 -8.901
27 P4 242 -8.413
27 P4 243 -7.924
27 P4 244 -6.460
27 P4 245 -4.506
27 P4 246 -3.042
27 P4 247 -3.530
27 P4 248 -5.483
27 P4 249 -6.948
27 P4 250 -5.971
27 P4 251 -3.530
27 P4 252 -0.600
27 P4 253 0.865
27 P4 254 -0.600
27 P4 255 -3.530
# PZ chan 24
27 PZ 0 6.368
27 PZ 1 5.880
27 PZ 2 4.415
27 PZ 3 1.973
27 PZ 4 0.509
27 PZ 5 0.020
27 PZ 6 0.020
27 PZ 7 0.997
27 PZ 8 0.997
27 PZ 9 0.997
27 PZ 10 0.509
27 PZ 11 0.020
27 PZ 12 -0.468
27 PZ 13 -0.468
27 PZ 14 0.020
27 PZ 15 0.509
27 PZ 16 1.485
27 PZ 17 1.973
27 PZ 18 1.973
27 PZ 19 0.509
27 PZ 20 -0.956
27 PZ 21 -1.933
27 PZ 22 -2.421
27 PZ 23 -1.933
27 PZ 24 -1.444
27 PZ 25 -1.444
27 PZ 26 -1.444
27 PZ 27 -1.444
27 PZ 28 -1.444
27 PZ 29 -1.444
27 PZ 30 -1.444
27 PZ 31 -1.933
27 PZ 32 -1.933
27 PZ 33 -1.444
27 PZ 34 0.020
27 PZ 35 0.020
27 PZ 36 0.020
27 PZ 37 -0.468
27 PZ 38 0.020
27 PZ 39 1.485
27 PZ 40 3.438
27 PZ 41 4.415
27 PZ 42 3.927
27 PZ 43 1.973
27 PZ 44 0.020
27 PZ 45 0.020
27 PZ 46 1.973
27 PZ 47 3.927
27 PZ 48 5.391
27 PZ 49 4.903
27 PZ 50 3.438
27 PZ 51 1.973
27 PZ 52 1.973
27 PZ 53 2.462
27 PZ 54 3.927
27 PZ 55 5.391
27 PZ 56 6.856
27 PZ 57 7.833
27 PZ 58 8.809
27 PZ 59 9.298
27 PZ 60 9.786
27 PZ 61 11.251
27 PZ 62 12.716
27 PZ 63 15.157
27 PZ 64 17.110
27 PZ 65 18.087
27 PZ 66 17.598
27 PZ 67 16.622
27 PZ 68 14.669
27 PZ 69 13.204
27 PZ 70 12.716
27 PZ 71 13.204
27 PZ 72 13.204
27 PZ 73 13.204
27 PZ 74 12.227
27 PZ 75 10.763
27 PZ 76 9.786
27 PZ 77 9.298
27 PZ 78 8.809
27 PZ 79 7.833
27 PZ 80 6.368
27 PZ 81 4.903
27 PZ 82 4.903
27 PZ 83 5.391
27 PZ 84 6.368
27 PZ 85 6.856
27 PZ 86 6.368
27 PZ 87 4.903
27 PZ 88 4.415
27 PZ 89 4.903
27 PZ 90 6.368
27 PZ 91 7.345
27 PZ 92 8.809
27 PZ 93 9.298
27 PZ 94 10.274
27 PZ 95 11.251
27 PZ 96 13.204
27 PZ 97 13.204
27 PZ 98 12.716
27 PZ 99 11.739
27 PZ 100 10.274
27 PZ 101 9.298
27 PZ 102 9.298
27 PZ 103 9.786
27 PZ 104 8.809
27 PZ 105 7.345
27 PZ 106 5.391
27 PZ 107 4.903
27 PZ 108 5.880
27 PZ 109 7.345
27 PZ 110 8.321
27 PZ 111 7.345
27 PZ 112 5.391
27 PZ 113 3.438
27 PZ 114 2.950
27 PZ 115 2.462
27 PZ 116 2.950
27 PZ 117 3.927
27 PZ 118 4.903
27 PZ 119 5.880
27 PZ 120 6.856
27 PZ 121 6.856
27 PZ 122 6.368
27 PZ 123 5.880
27 PZ 124 5.391
27 PZ 125 5.880
27 PZ 126 6.856
27 PZ 127 6.856
27 PZ 128 7.345
27 PZ 129 6.856
27 PZ 130 6.368
27 PZ 131 6.856
27 PZ 132 7.345
27 PZ 133 8.321
27 PZ 134 9.298
27 PZ 135 9.786
27 PZ 136 10.274
27 PZ 137 10.763
27 PZ 138 10.274
27 PZ 139 9.786
27 PZ 140 8.321
27 PZ 141 6.368
27 PZ 142 3.927
27 PZ 143 1.973
27 PZ 144 0.020
27 PZ 145 -1.444
27 PZ 146 -2.421
27 PZ 147 -3.398
27 PZ 148 -2.909
27 PZ 149 -2.421
27 PZ 150 -3.398
27 PZ 151 -5.351
27 PZ 152 -8.769
27 PZ 153 -11.698
27 PZ 154 -12.675
27 PZ 155 -11.698
27 PZ 156 -8.769
27 PZ 157 -6.816
27 PZ 158 -5.839
27 PZ 159 -5.839
27 PZ 160 -5.351
27 PZ 161 -3.398
27 PZ 162 -0.956
27 PZ 163 1.485
27 PZ 164 1.973
27 PZ 165 0.997
27 PZ 166 -1.444
27 PZ 167 -2.421
27 PZ 168 -2.421
27 PZ 169 -0.956
27 PZ 170 0.020
27 PZ 171 0.020
27 PZ 172 -2.421
27 PZ 173 -4.862
27 PZ 174 -6.327
27 PZ 175 -5.839
27 PZ 176 -3.886
27 PZ 177 -1.933
27 PZ 178 -1.933
27 PZ 179 -3.398
27 PZ 180 -3.886
27 PZ 181 -3.886
27 PZ 182 -3.398
27 PZ 183 -3.398
27 PZ 184 -4.862
27 PZ 185 -7.304
27 PZ 186 -9.745
27 PZ 187 -10.234
27 PZ 188 -8.280
27 PZ 189 -5.839
27 PZ 190 -2.421
27 PZ 191 -0.468
27 PZ 192 0.997
27 PZ 193 1.973
27 PZ 194 3.438
27 PZ 195 4.415
27 PZ 196 4.415
27 PZ 197 3.927
27 PZ 198 2.950
27 PZ 199 0.997
27 PZ 200 -0.956
27 PZ 201 -2.909
27 PZ 202 -5.351
27 PZ 203 -7.792
27 PZ 204 -9.745
27 PZ 205 -11.210
27 PZ 206 -10.722
27 PZ 207 -8.769
27 PZ 208 -7.304
27 PZ 209 -5.839
27 PZ 210 -4.862
27 PZ 211 -3.398
27 PZ 212 -0.956
27 PZ 213 1.485
27 PZ 214 3.438
27 PZ 215 2.950
27 PZ 216 0.997
27 PZ 217 -2.909
27 PZ 218 -5.839
27 PZ 219 -6.816
27 PZ 220 -6.327
27 PZ 221 -5.351
27 PZ 222 -4.862
27 PZ 223 -4.862
27 PZ 224 -5.839
27 PZ 225 -5.839
27 PZ 226 -5.351
27 PZ 227 -4.862
27 PZ 228 -3.886
27 PZ 229 -4.374
27 PZ 230 -5.351
27 PZ 231 -6.327
27 PZ 232 -7.304
27 PZ 233 -7.792
27 PZ 234 -9.257
27 PZ 235 -10.722
27 PZ 236 -12.675
27 PZ 237 -13.652
27 PZ 238 -13.652
27 PZ 239 -12.187
27 PZ 240 -11.210
27 PZ 241 -10.722
27 PZ 242 -11.210
27 PZ 243 -12.675
27 PZ 244 -12.675
27 PZ 245 -11.698
27 PZ 246 -9.745
27 PZ 247 -8.280
27 PZ 248 -8.769
27 PZ 249 -9.745
27 PZ 250 -9.745
27 PZ 251 -7.792
27 PZ 252 -5.351
27 PZ 253 -3.398
27 PZ 254 -3.886
27 PZ 255 -6.816
# P8 chan 25
27 P8 0 8.341
27 P8 1 8.341
27 P8 2 8.830
27 P8 3 8.830
27 P8 4 8.341
27 P8 5 7.853
27 P8 6 6.388
27 P8 7 5.412
27 P8 8 4.924
27 P8 9 5.900
27 P8 10 8.341
27 P8 11 10.295
27 P8 12 11.271
27 P8 13 10.295
27 P8 14 8.341
27 P8 15 7.853
27 P8 16 8.341
27 P8 17 11.271
27 P8 18 14.201
27 P8 19 14.689
27 P8 20 12.736
27 P8 21 9.318
27 P8 22 6.877
27 P8 23 6.877
27 P8 24 8.830
27 P8 25 10.295
27 P8 26 9.806
27 P8 27 7.853
27 P8 28 5.412
27 P8 29 4.435
27 P8 30 5.900
27 P8 31 9.318
27 P8 32 12.248
27 P8 33 13.713
27 P8 34 13.713
27 P8 35 12.248
27 P8 36 9.806
27 P8 37 7.853
27 P8 38 7.365
27 P8 39 8.830
27 P8 40 11.759
27 P8 41 14.201
27 P8 42 13.224
27 P8 43 9.318
27 P8 44 4.435
27 P8 45 1.017
27 P8 46 1.994
27 P8 47 6.877
27 P8 48 11.759
27 P8 49 13.224
27 P8 50 10.783
27 P8 51 6.388
27 P8 52 4.435
27 P8 53 5.900
27 P8 54 9.318
27 P8 55 10.783
27 P8 56 9.806
27 P8 57 6.877
27 P8 58 5.412
27 P8 59 6.388
27 P8 60 10.295
27 P8 61 14.201
27 P8 62 17.131
27 P8 63 18.107
27 P8 64 19.084
27 P8 65 20.060
27 P8 66 21.037
27 P8 67 20.549
27 P8 68 19.084
27 P8 69 16.642
27 P8 70 15.177
27 P8 71 16.154
27 P8 72 18.595
27 P8 73 20.060
27 P8 74 20.549
27 P8 75 19.084
27 P8 76 17.131
27 P8 77 15.666
27 P8 78 14.689
27 P8 79 14.201
27 P8 80 12.248
27 P8 81 10.295
27 P8 82 8.830
27 P8 83 8.341
27 P8 84 8.341
27 P8 85 8.341
27 P8 86 7.853
27 P8 87 6.877
27 P8 88 6.388
27 P8 89 6.877
27 P8 90 7.853
27 P8 91 8.341
27 P8 92 7.853
27 P8 93 7.365
27 P8 94 7.365
27 P8 95 8.830
27 P8 96 10.295
27 P8 97 10.783
27 P8 98 9.318
27 P8 99 7.853
27 P8 100 6.388
27 P8 101 7.365
27 P8 102 9.318
27 P8 103 11.271
27 P8 104 11.759
27 P8 105 10.783
27 P8 106 9.806
27 P8 107 9.806
27 P8 108 10.783
27 P8 109 13.224
27 P8 110 15.177
27 P8 111 16.154
27 P8 112 15.177
27 P8 113 13.224
27 P8 114 11.271
27 P8 115 9.318
27 P8 116 8.830
27 P8 117 8.830
27 P8 118 9.806
27 P8 119 10.295
27 P8 120 9.806
27 P8 121 9.318
27 P8 122 8.341
27 P8 123 8.341
27 P8 124 7.853
27 P8 125 7.853
27 P8 126 6.877
27 P8 127 6.877
27 P8 128 6.877
27 P8 129 7.365
27 P8 130 7.853
27 P8 131 7.853
27 P8 132 7.853
27 P8 133 8.341
27 P8 134 9.806
27 P8 135 11.271
27 P8 136 11.271
27 P8 137 9.318
27 P8 138 5.412
27 P8 139 1.506
27 P8 140 -0.936
27 P8 141 -0.448
27 P8 142 0.529
27 P8 143 1.506
27 P8 144 0.529
27 P8 145 -0.936
27 P8 146 -2.889
27 P8 147 -4.354
27 P8 148 -5.330
27 P8 149 -6.307
27 P8 150 -6.795
27 P8 151 -7.772
27 P8 152 -8.260
27 P8 153 -8.260
27 P8 154 -7.772
27 P8 155 -6.795
27 P8 156 -6.795
27 P8 157 -7.772
27 P8 158 -9.725
27 P8 159 -11.678
27 P8 160 -13.143
27 P8 161 -13.631
27 P8 162 -12.166
27 P8 163 -9.725
27 P8 164 -6.795
27 P8 165 -3.866
27 P8 166 -2.401
27 P8 167 -1.424
27 P8 168 -0.448
27 P8 169 0.529
27 P8 170 1.017
27 P8 171 1.017
27 P8 172 1.017
27 P8 173 1.506
27 P8 174 2.482
27 P8 175 2.482
27 P8 176 1.506
27 P8 177 -1.912
27 P8 178 -5.819
27 P8 179 -9.725
27 P8 180 -11.678
27 P8 181 -12.166
27 P8 182 -10.701
27 P8 183 -9.725
27 P8 184 -9.237
27 P8 185 -8.748
27 P8 186 -9.237
27 P8 187 -9.237
27 P8 188 -8.260
27 P8 189 -6.307
27 P8 190 -3.377
27 P8 191 0.529
27 P8 192 4.435
27 P8 193 7.853
27 P8 194 9.318
27 P8 195 9.806
27 P8 196 10.295
27 P8 197 12.248
27 P8 198 14.689
27 P8 199 16.154
27 P8 200 16.154
27 P8 201 12.248
27 P8 202 7.365
27 P8 203 2.970
27 P8 204 0.529
27 P8 205 0.041
27 P8 206 -0.448
27 P8 207 -2.889
27 P8 208 -8.260
27 P8 209 -12.655
27 P8 210 -15.096
27 P8 211 -14.608
27 P8 212 -10.701
27 P8 213 -5.819
27 P8 214 -1.424
27 P8 215 2.482
27 P8 216 5.412
27 P8 217 6.388
27 P8 218 6.388
27 P8 219 5.412
27 P8 220 4.435
27 P8 221 3.947
27 P8 222 5.412
27 P8 223 6.388
27 P8 224 7.365
27 P8 225 6.388
27 P8 226 5.412
27 P8 227 3.459
27 P8 228 2.482
27 P8 229 1.506
27 P8 230 0.041
27 P8 231 -0.936
27 P8 232 -1.424
27 P8 233 -0.448
27 P8 234 0.529
27 P8 235 1.017
27 P8 236 -0.448
27 P8 237 -2.401
27 P8 238 -3.866
27 P8 239 -4.354
27 P8 240 -3.377
27 P8 241 -2.401
27 P8 242 -1.912
27 P8 243 -1.424
27 P8 244 -0.936
27 P8 245 -0.448
27 P8 246 -0.448
27 P8 247 -1.912
27 P8 248 -4.354
27 P8 249 -7.284
27 P8 250 -7.284
27 P8 251 -5.819
27 P8 252 -2.889
27 P8 253 -0.936
27 P8 254 -1.912
27 P8 255 -4.354
# P7 chan 26
27 P7 0 13.550
27 P7 1 12.573
27 P7 2 10.620
27 P7 3 9.155
27 P7 4 8.667
27 P7 5 9.644
27 P7 6 11.597
27 P7 7 13.062
27 P7 8 13.550
27 P7 9 13.062
27 P7 10 11.597
27 P7 11 10.620
27 P7 12 10.132
27 P7 13 10.620
27 P7 14 11.597
27 P7 15 12.085
27 P7 16 11.597
27 P7 17 9.644
27 P7 18 6.226
27 P7 19 3.296
27 P7 20 2.319
27 P7 21 3.784
27 P7 22 6.714
27 P7 23 8.667
27 P7 24 8.667
27 P7 25 7.202
27 P7 26 5.737
27 P7 27 4.761
27 P7 28 5.249
27 P7 29 5.737
27 P7 30 5.737
27 P7 31 6.226
27 P7 32 7.690
27 P7 33 10.620
27 P7 34 12.573
27 P7 35 12.085
27 P7 36 8.667
27 P7 37 4.272
27 P7 38 1.831
27 P7 39 2.319
27 P7 40 4.761
27 P7 41 4.761
27 P7 42 1.343
27 P7 43 -4.517
27 P7 44 -8.911
27 P7 45 -7.935
27 P7 46 -2.563
27 P7 47 4.761
27 P7 48 9.155
27 P7 49 10.132
27 P7 50 8.179
27 P7 51 6.714
27 P7 52 6.714
27 P7 53 7.690
27 P7 54 8.179
27 P7 55 8.667
27 P7 56 8.179
27 P7 57 8.667
27 P7 58 10.620
27 P7 59 12.085
27 P7 60 13.550
27 P7 61 14.526
27 P7 62 15.503
27 P7 63 16.968
27 P7 64 18.921
27 P7 65 19.897
27 P7 66 19.897
27 P7 67 18.921
27 P7 68 17.456
27 P7 69 16.479
27 P7 70 16.479
27 P7 71 16.479
27 P7 72 15.503
27 P7 73 12.573
27 P7 74 8.667
27 P7 75 5.737
27 P7 76 4.761
27 P7 77 6.226
27 P7 78 7.690
27 P7 79 8.179
27 P7 80 6.714
27 P7 81 4.761
27 P7 82 2.808
27 P7 83 2.808
27 P7 84 4.272
27 P7 85 5.737
27 P7 86 6.226
27 P7 87 5.249
27 P7 88 3.296
27 P7 89 1.343
27 P7 90 -0.122
27 P7 91 -0.122
27 P7 92 0.366
27 P7 93 2.319
27 P7 94 4.761
27 P7 95 6.226
27 P7 96 6.714
27 P7 97 5.249
27 P7 98 2.319
27 P7 99 -0.122
27 P7 100 -1.587
27 P7 101 -1.099
27 P7 102 0.366
27 P7 103 1.831
27 P7 104 2.319
27 P7 105 2.319
27 P7 106 1.831
27 P7 107 2.808
27 P7 108 3.296
27 P7 109 3.296
27 P7 110 0.854
27 P7 111 -1.587
27 P7 112 -3.540
27 P7 113 -3.052
27 P7 114 -1.587
27 P7 115 0.854
27 P7 116 2.319
27 P7 117 2.808
27 P7 118 3.296
27 P7 119 3.784
27 P7 120 4.761
27 P7 121 3.784
27 P7 122 0.854
27 P7 123 -2.563
27 P7 124 -5.493
27 P7 125 -7.446
27 P7 126 -6.958
27 P7 127 -6.470
27 P7 128 -5.981
27 P7 129 -6.470
27 P7 130 -6.470
27 P7 131 -5.981
27 P7 132 -5.493
27 P7 133 -5.005
27 P7 134 -5.493
27 P7 135 -5.981
27 P7 136 -5.981
27 P7 137 -4.517
27 P7 138 -2.075
27 P7 139 -0.610
27 P7 140 -0.122
27 P7 141 -0.610
27 P7 142 -2.075
27 P7 143 -3.540
27 P7 144 -5.493
27 P7 145 -9.399
27 P7 146 -14.771
27 P7 147 -18.677
27 P7 148 -20.630
27 P7 149 -18.677
27 P7 150 -15.747
27 P7 151 -14.282
27 P7 152 -15.259
27 P7 153 -17.700
27 P7 154 -19.165
27 P7 155 -17.700
27 P7 156 -15.259
27 P7 157 -14.282
27 P7 158 -15.747
27 P7 159 -18.677
27 P7 160 -20.630
27 P7 161 -20.142
27 P7 162 -17.212
27 P7 163 -14.282
27 P7 164 -13.306
27 P7 165 -14.771
27 P7 166 -16.235
27 P7 167 -16.724
27 P7 168 -14.771
27 P7 169 -12.817
27 P7 170 -11.841
27 P7 171 -12.817
27 P7 172 -14.771
27 P7 173 -16.235
27 P7 174 -15.747
27 P7 175 -13.794
27 P7 176 -12.329
27 P7 177 -12.329
27 P7 178 -14.282
27 P7 179 -16.235
27 P7 180 -17.700
27 P7 181 -17.700
27 P7 182 -16.724
27 P7 183 -16.235
27 P7 184 -17.212
27 P7 185 -18.677
27 P7 186 -19.165
27 P7 187 -17.212
27 P7 188 -12.817
27 P7 189 -8.423
27 P7 190 -5.005
27 P7 191 -3.052
27 P7 192 -1.587
27 P7 193 0.366
27 P7 194 3.296
27 P7 195 6.714
27 P7 196 8.667
27 P7 197 8.667
27 P7 198 7.690
27 P7 199 5.249
27 P7 200 3.784
27 P7 201 1.831
27 P7 202 -0.610
27 P7 203 -2.563
27 P7 204 -3.540
27 P7 205 -2.075
27 P7 206 0.854
27 P7 207 3.784
27 P7 208 3.296
27 P7 209 -0.122
27 P7 210 -4.517
27 P7 211 -6.470
27 P7 212 -5.493
27 P7 213 -1.099
27 P7 214 2.319
27 P7 215 1.831
27 P7 216 -1.587
27 P7 217 -5.493
27 P7 218 -6.470
27 P7 219 -3.052
27 P7 220 2.808
27 P7 221 8.179
27 P7 222 11.108
27 P7 223 10.620
27 P7 224 9.155
27 P7 225 8.179
27 P7 226 8.179
27 P7 227 8.667
27 P7 228 8.179
27 P7 229 6.226
27 P7 230 2.808
27 P7 231 0.366
27 P7 232 -0.610
27 P7 233 -1.099
27 P7 234 -1.099
27 P7 235 -1.587
27 P7 236 -3.540
27 P7 237 -5.493
27 P7 238 -6.470
27 P7 239 -6.958
27 P7 240 -6.958
27 P7 241 -6.470
27 P7 242 -6.470
27 P7 243 -5.981
27 P7 244 -4.517
27 P7 245 -2.075
27 P7 246 -0.610
27 P7 247 -0.610
27 P7 248 -2.075
27 P7 249 -3.540
27 P7 250 -4.517
27 P7 251 -4.517
27 P7 252 -4.517
27 P7 253 -5.981
27 P7 254 -8.911
27 P7 255 -10.864
# PO2 chan 27
27 PO2 0 14.303
27 PO2 1 14.791
27 PO2 2 11.373
27 PO2 3 7.467
27 PO2 4 5.025
27 PO2 5 4.049
27 PO2 6 5.025
27 PO2 7 5.514
27 PO2 8 5.514
27 PO2 9 5.514
27 PO2 10 6.490
27 PO2 11 6.978
27 PO2 12 7.955
27 PO2 13 7.467
27 PO2 14 6.490
27 PO2 15 6.490
27 PO2 16 7.955
27 PO2 17 9.908
27 PO2 18 10.885
27 PO2 19 9.908
27 PO2 20 6.978
27 PO2 21 4.049
27 PO2 22 3.560
27 PO2 23 5.025
27 PO2 24 6.002
27 PO2 25 5.514
27 PO2 26 3.072
27 PO2 27 0.142
27 PO2 28 -0.346
27 PO2 29 2.096
27 PO2 30 6.002
27 PO2 31 9.420
27 PO2 32 11.861
27 PO2 33 12.349
27 PO2 34 11.861
27 PO2 35 10.885
27 PO2 36 10.396
27 PO2 37 10.396
27 PO2 38 11.861
27 PO2 39 13.814
27 PO2 40 15.279
27 PO2 41 14.303
27 PO2 42 11.373
27 PO2 43 7.955
27 PO2 44 6.002
27 PO2 45 6.978
27 PO2 46 11.373
27 PO2 47 15.279
27 PO2 48 17.721
27 PO2 49 17.721
27 PO2 50 15.279
27 PO2 51 13.326
27 PO2 52 11.861
27 PO2 53 12.838
27 PO2 54 14.303
27 PO2 55 16.256
27 PO2 56 17.721
27 PO2 57 18.209
27 PO2 58 17.721
27 PO2 59 16.744
27 PO2 60 16.744
27 PO2 61 18.209
27 PO2 62 21.139
27 PO2 63 24.556
27 PO2 64 27.974
27 PO2 65 29.928
27 PO2 66 29.439
27 PO2 67 26.510
27 PO2 68 22.603
27 PO2 69 20.162
27 PO2 70 19.185
27 PO2 71 20.162
27 PO2 72 22.115
27 PO2 73 22.603
27 PO2 74 22.115
27 PO2 75 20.650
27 PO2 76 19.185
27 PO2 77 18.697
27 PO2 78 17.232
27 PO2 79 14.791
27 PO2 80 11.861
27 PO2 81 9.908
27 PO2 82 9.908
27 PO2 83 12.349
27 PO2 84 15.279
27 PO2 85 15.767
27 PO2 86 14.303
27 PO2 87 11.373
27 PO2 88 9.420
27 PO2 89 9.908
27 PO2 90 11.861
27 PO2 91 13.814
27 PO2 92 14.791
27 PO2 93 15.279
27 PO2 94 15.279
27 PO2 95 15.767
27 PO2 96 17.721
27 PO2 97 18.697
27 PO2 98 18.209
27 PO2 99 16.744
27 PO2 100 15.767
27 PO2 101 16.256
27 PO2 102 17.721
27 PO2 103 17.721
27 PO2 104 15.767
27 PO2 105 11.861
27 PO2 106 8.443
27 PO2 107 7.955
27 PO2 108 10.885
27 PO2 109 14.303
27 PO2 110 15.767
27 PO2 111 13.814
27 PO2 112 9.420
27 PO2 113 5.514
27 PO2 114 3.072
27 PO2 115 2.584
27 PO2 116 3.560
27 PO2 117 5.514
27 PO2 118 7.955
27 PO2 119 10.396
27 PO2 120 12.349
27 PO2 121 12.838
27 PO2 122 11.861
27 PO2 123 10.885
27 PO2 124 10.885
27 PO2 125 12.838
27 PO2 126 15.279
27 PO2 127 16.256
27 PO2 128 15.279
27 PO2 129 13.814
27 PO2 130 12.349
27 PO2 131 11.861
27 PO2 132 13.326
27 PO2 133 14.303
27 PO2 134 15.279
27 PO2 135 15.767
27 PO2 136 15.767
27 PO2 137 15.767
27 PO2 138 15.767
27 PO2 139 15.279
27 PO2 140 13.814
27 PO2 141 11.861
27 PO2 142 9.420
27 PO2 143 6.978
27 PO2 144 5.514
27 PO2 145 3.560
27 PO2 146 2.584
27 PO2 147 3.072
27 PO2 148 3.560
27 PO2 149 4.049
27 PO2 150 1.607
27 PO2 151 -2.787
27 PO2 152 -8.647
27 PO2 153 -13.529
27 PO2 154 -14.506
27 PO2 155 -11.576
27 PO2 156 -6.694
27 PO2 157 -3.276
27 PO2 158 -1.811
27 PO2 159 -2.299
27 PO2 160 -2.299
27 PO2 161 0.142
27 PO2 162 4.537
27 PO2 163 8.931
27 PO2 164 10.396
27 PO2 165 7.955
27 PO2 166 3.072
27 PO2 167 0.142
27 PO2 168 0.142
27 PO2 169 3.072
27 PO2 170 6.002
27 PO2 171 5.025
27 PO2 172 0.631
27 PO2 173 -4.252
27 PO2 174 -6.205
27 PO2 175 -4.252
27 PO2 176 0.142
27 PO2 177 3.072
27 PO2 178 2.584
27 PO2 179 0.142
27 PO2 180 -1.811
27 PO2 181 -1.322
27 PO2 182 0.142
27 PO2 183 1.607
27 PO2 184 -0.346
27 PO2 185 -4.252
27 PO2 186 -7.182
27 PO2 187 -7.670
27 PO2 188 -4.252
27 PO2 189 1.119
27 PO2 190 6.978
27 PO2 191 10.885
27 PO2 192 13.326
27 PO2 193 15.279
27 PO2 194 16.744
27 PO2 195 18.697
27 PO2 196 19.185
27 PO2 197 18.697
27 PO2 198 17.232
27 PO2 199 14.791
27 PO2 200 12.349
27 PO2 201 9.908
27 PO2 202 6.978
27 PO2 203 4.049
27 PO2 204 1.607
27 PO2 205 0.142
27 PO2 206 -0.346
27 PO2 207 0.631
27 PO2 208 2.096
27 PO2 209 3.560
27 PO2 210 5.514
27 PO2 211 7.467
27 PO2 212 10.885
27 PO2 213 13.814
27 PO2 214 15.279
27 PO2 215 14.303
27 PO2 216 10.885
27 PO2 217 6.978
27 PO2 218 3.072
27 PO2 219 2.096
27 PO2 220 3.072
27 PO2 221 5.025
27 PO2 222 6.002
27 PO2 223 5.514
27 PO2 224 5.025
27 PO2 225 3.560
27 PO2 226 3.560
27 PO2 227 3.560
27 PO2 228 4.049
27 PO2 229 4.049
27 PO2 230 4.049
27 PO2 231 4.049
27 PO2 232 4.049
27 PO2 233 3.560
27 PO2 234 2.096
27 PO2 235 -0.834
27 PO2 236 -4.252
27 PO2 237 -6.694
27 PO2 238 -7.182
27 PO2 239 -5.717
27 PO2 240 -3.764
27 PO2 241 -3.276
27 PO2 242 -3.764
27 PO2 243 -4.740
27 PO2 244 -4.252
27 PO2 245 -2.299
27 PO2 246 0.142
27 PO2 247 0.142
27 PO2 248 -1.322
27 PO2 249 -2.787
27 PO2 250 -2.787
27 PO2 251 -0.346
27 PO2 252 3.560
27 PO2 253 5.514
27 PO2 254 4.049
27 PO2 255 0.631
# PO1 chan 28
27 PO1 0 16.195
27 PO1 1 15.706
27 PO1 2 12.288
27 PO1 3 8.382
27 PO1 4 5.941
27 PO1 5 5.452
27 PO1 6 6.429
27 PO1 7 7.406
27 PO1 8 7.406
27 PO1 9 7.406
27 PO1 10 7.894
27 PO1 11 8.382
27 PO1 12 8.382
27 PO1 13 7.406
27 PO1 14 6.917
27 PO1 15 7.894
27 PO1 16 8.870
27 PO1 17 8.382
27 PO1 18 6.429
