# co3a0000448.rd
# 120 trials, 64 chans, 416 samples 368 post_stim samples
# 3.906000 msecs uV
# S1 obj , trial 38
# FP1 chan 0
38 FP1 0 7.355
38 FP1 1 7.843
38 FP1 2 4.913
38 FP1 3 1.007
38 FP1 4 0.519
38 FP1 5 4.425
38 FP1 6 11.261
38 FP1 7 16.144
38 FP1 8 15.656
38 FP1 9 9.796
38 FP1 10 2.472
38 FP1 11 -1.434
38 FP1 12 -1.434
38 FP1 13 1.984
38 FP1 14 4.913
38 FP1 15 5.890
38 FP1 16 5.402
38 FP1 17 4.425
38 FP1 18 3.448
38 FP1 19 2.960
38 FP1 20 2.472
38 FP1 21 1.495
38 FP1 22 0.031
38 FP1 23 -1.923
38 FP1 24 -3.876
38 FP1 25 -4.364
38 FP1 26 -3.387
38 FP1 27 -0.946
38 FP1 28 1.495
38 FP1 29 1.007
38 FP1 30 -2.411
38 FP1 31 -6.805
38 FP1 32 -8.270
38 FP1 33 -3.876
38 FP1 34 4.425
38 FP1 35 12.726
38 FP1 36 16.144
38 FP1 37 12.726
38 FP1 38 4.425
38 FP1 39 -2.899
38 FP1 40 -5.341
38 FP1 41 -4.364
38 FP1 42 -1.923
38 FP1 43 -2.899
38 FP1 44 -5.829
38 FP1 45 -8.270
38 FP1 46 -7.782
38 FP1 47 -2.899
38 FP1 48 2.472
38 FP1 49 3.937
38 FP1 50 1.007
38 FP1 51 -3.876
38 FP1 52 -5.829
38 FP1 53 -2.411
38 FP1 54 3.937
38 FP1 55 8.820
38 FP1 56 8.331
38 FP1 57 2.960
38 FP1 58 -2.899
38 FP1 59 -5.341
38 FP1 60 -3.876
38 FP1 61 -0.946
38 FP1 62 1.007
38 FP1 63 0.031
38 FP1 64 -2.899
38 FP1 65 -4.852
38 FP1 66 -5.341
38 FP1 67 -4.364
38 FP1 68 -3.876
38 FP1 69 -4.364
38 FP1 70 -5.341
38 FP1 71 -4.852
38 FP1 72 -2.899
38 FP1 73 0.031
38 FP1 74 2.472
38 FP1 75 3.937
38 FP1 76 4.425
38 FP1 77 5.890
38 FP1 78 7.843
38 FP1 79 8.820
38 FP1 80 8.331
38 FP1 81 6.378
38 FP1 82 3.937
38 FP1 83 2.472
38 FP1 84 3.448
38 FP1 85 5.402
38 FP1 86 5.402
38 FP1 87 2.960
38 FP1 88 -0.946
38 FP1 89 -2.411
38 FP1 90 0.031
38 FP1 91 5.402
38 FP1 92 9.308
38 FP1 93 9.308
38 FP1 94 4.425
38 FP1 95 -2.411
38 FP1 96 -5.341
38 FP1 97 -2.411
38 FP1 98 3.937
38 FP1 99 8.820
38 FP1 100 8.820
38 FP1 101 3.937
38 FP1 102 -2.411
38 FP1 103 -6.317
38 FP1 104 -6.805
38 FP1 105 -4.852
38 FP1 106 -1.923
38 FP1 107 0.519
38 FP1 108 2.960
38 FP1 109 3.937
38 FP1 110 4.425
38 FP1 111 3.448
38 FP1 112 1.984
38 FP1 113 1.495
38 FP1 114 1.495
38 FP1 115 -0.946
38 FP1 116 -3.876
38 FP1 117 -6.805
38 FP1 118 -5.829
38 FP1 119 0.031
38 FP1 120 9.308
38 FP1 121 16.632
38 FP1 122 18.097
38 FP1 123 12.726
38 FP1 124 4.913
38 FP1 125 -1.434
38 FP1 126 -3.387
38 FP1 127 -1.923
38 FP1 128 -0.458
38 FP1 129 0.519
38 FP1 130 0.519
38 FP1 131 1.007
38 FP1 132 1.495
38 FP1 133 1.495
38 FP1 134 0.519
38 FP1 135 -1.434
38 FP1 136 -2.411
38 FP1 137 -2.899
38 FP1 138 -3.387
38 FP1 139 -4.852
38 FP1 140 -6.317
38 FP1 141 -7.294
38 FP1 142 -5.829
38 FP1 143 -3.876
38 FP1 144 -1.923
38 FP1 145 -1.923
38 FP1 146 -1.923
38 FP1 147 0.031
38 FP1 148 4.913
38 FP1 149 11.261
38 FP1 150 14.679
38 FP1 151 11.749
38 FP1 152 3.937
38 FP1 153 -3.876
38 FP1 154 -7.294
38 FP1 155 -4.364
38 FP1 156 1.495
38 FP1 157 5.890
38 FP1 158 4.913
38 FP1 159 0.519
38 FP1 160 -3.387
38 FP1 161 -2.899
38 FP1 162 1.495
38 FP1 163 8.331
38 FP1 164 13.702
38 FP1 165 16.632
38 FP1 166 17.609
38 FP1 167 17.120
38 FP1 168 16.632
38 FP1 169 17.120
38 FP1 170 16.632
38 FP1 171 15.167
38 FP1 172 10.284
38 FP1 173 2.960
38 FP1 174 -4.852
38 FP1 175 -10.223
38 FP1 176 -10.712
38 FP1 177 -6.805
38 FP1 178 -1.434
38 FP1 179 1.007
38 FP1 180 -1.923
38 FP1 181 -6.317
38 FP1 182 -8.270
38 FP1 183 -4.852
38 FP1 184 2.960
38 FP1 185 9.796
38 FP1 186 11.261
38 FP1 187 7.843
38 FP1 188 3.448
38 FP1 189 2.472
38 FP1 190 5.402
38 FP1 191 9.796
38 FP1 192 12.726
38 FP1 193 11.261
38 FP1 194 8.820
38 FP1 195 5.402
38 FP1 196 2.960
38 FP1 197 0.031
38 FP1 198 -3.876
38 FP1 199 -5.829
38 FP1 200 -3.876
38 FP1 201 1.007
38 FP1 202 7.355
38 FP1 203 10.284
38 FP1 204 9.308
38 FP1 205 5.890
38 FP1 206 3.448
38 FP1 207 5.402
38 FP1 208 8.820
38 FP1 209 9.796
38 FP1 210 5.402
38 FP1 211 -3.387
38 FP1 212 -11.688
38 FP1 213 -16.083
38 FP1 214 -15.594
38 FP1 215 -14.130
38 FP1 216 -13.153
38 FP1 217 -14.130
38 FP1 218 -13.641
38 FP1 219 -8.759
38 FP1 220 0.519
38 FP1 221 9.796
38 FP1 222 13.702
38 FP1 223 10.773
38 FP1 224 2.472
38 FP1 225 -6.805
38 FP1 226 -12.177
38 FP1 227 -12.665
38 FP1 228 -9.735
38 FP1 229 -6.805
38 FP1 230 -5.829
38 FP1 231 -6.805
38 FP1 232 -8.759
38 FP1 233 -9.247
38 FP1 234 -7.294
38 FP1 235 -2.899
38 FP1 236 4.425
38 FP1 237 10.284
38 FP1 238 13.702
38 FP1 239 11.749
38 FP1 240 6.866
38 FP1 241 2.472
38 FP1 242 1.984
38 FP1 243 6.378
38 FP1 244 11.749
38 FP1 245 13.702
38 FP1 246 10.284
38 FP1 247 4.913
38 FP1 248 0.519
38 FP1 249 0.031
38 FP1 250 2.472
38 FP1 251 5.402
38 FP1 252 6.866
38 FP1 253 6.866
38 FP1 254 7.355
38 FP1 255 7.843
# FP2 chan 1
38 FP2 0 4.883
38 FP2 1 5.371
38 FP2 2 4.883
38 FP2 3 4.395
38 FP2 4 4.395
38 FP2 5 5.371
38 FP2 6 7.812
38 FP2 7 10.254
38 FP2 8 12.207
38 FP2 9 12.695
38 FP2 10 11.719
38 FP2 11 10.254
38 FP2 12 8.301
38 FP2 13 7.324
38 FP2 14 5.859
38 FP2 15 4.395
38 FP2 16 2.930
38 FP2 17 2.441
38 FP2 18 3.418
38 FP2 19 5.859
38 FP2 20 7.812
38 FP2 21 8.301
38 FP2 22 6.348
38 FP2 23 1.953
38 FP2 24 -1.953
38 FP2 25 -4.395
38 FP2 26 -3.906
38 FP2 27 -1.465
38 FP2 28 0.488
38 FP2 29 2.441
38 FP2 30 2.441
38 FP2 31 2.441
38 FP2 32 3.418
38 FP2 33 4.395
38 FP2 34 5.859
38 FP2 35 7.324
38 FP2 36 7.324
38 FP2 37 6.836
38 FP2 38 4.883
38 FP2 39 2.441
38 FP2 40 0.000
38 FP2 41 -1.953
38 FP2 42 -2.930
38 FP2 43 -2.441
38 FP2 44 -0.488
38 FP2 45 1.953
38 FP2 46 3.418
38 FP2 47 3.418
38 FP2 48 1.953
38 FP2 49 0.488
38 FP2 50 -0.488
38 FP2 51 -0.488
38 FP2 52 0.000
38 FP2 53 0.977
38 FP2 54 1.465
38 FP2 55 1.953
38 FP2 56 2.930
38 FP2 57 5.371
38 FP2 58 8.301
38 FP2 59 9.766
38 FP2 60 7.812
38 FP2 61 2.441
38 FP2 62 -3.906
38 FP2 63 -8.301
38 FP2 64 -9.277
38 FP2 65 -6.348
38 FP2 66 -2.441
38 FP2 67 0.488
38 FP2 68 1.953
38 FP2 69 0.977
38 FP2 70 -0.488
38 FP2 71 -1.953
38 FP2 72 -3.418
38 FP2 73 -3.906
38 FP2 74 -3.906
38 FP2 75 -2.441
38 FP2 76 0.000
38 FP2 77 3.906
38 FP2 78 5.859
38 FP2 79 6.348
38 FP2 80 5.859
38 FP2 81 4.883
38 FP2 82 3.906
38 FP2 83 3.906
38 FP2 84 2.930
38 FP2 85 1.465
38 FP2 86 0.488
38 FP2 87 1.465
38 FP2 88 3.906
38 FP2 89 5.859
38 FP2 90 5.371
38 FP2 91 2.441
38 FP2 92 -1.953
38 FP2 93 -4.883
38 FP2 94 -4.883
38 FP2 95 -2.441
38 FP2 96 0.488
38 FP2 97 2.930
38 FP2 98 3.418
38 FP2 99 3.418
38 FP2 100 1.953
38 FP2 101 0.977
38 FP2 102 -0.488
38 FP2 103 -2.441
38 FP2 104 -4.395
38 FP2 105 -5.371
38 FP2 106 -5.371
38 FP2 107 -3.906
38 FP2 108 -0.488
38 FP2 109 2.930
38 FP2 110 5.859
38 FP2 111 6.348
38 FP2 112 4.883
38 FP2 113 1.465
38 FP2 114 -2.441
38 FP2 115 -5.371
38 FP2 116 -6.836
38 FP2 117 -5.859
38 FP2 118 -3.418
38 FP2 119 0.488
38 FP2 120 3.906
38 FP2 121 6.836
38 FP2 122 8.301
38 FP2 123 8.301
38 FP2 124 6.836
38 FP2 125 5.371
38 FP2 126 3.906
38 FP2 127 3.418
38 FP2 128 3.418
38 FP2 129 3.418
38 FP2 130 2.930
38 FP2 131 2.930
38 FP2 132 2.441
38 FP2 133 1.465
38 FP2 134 -0.977
38 FP2 135 -3.906
38 FP2 136 -6.348
38 FP2 137 -7.812
38 FP2 138 -6.836
38 FP2 139 -5.371
38 FP2 140 -4.395
38 FP2 141 -3.906
38 FP2 142 -3.418
38 FP2 143 -2.441
38 FP2 144 0.488
38 FP2 145 3.418
38 FP2 146 6.348
38 FP2 147 7.812
38 FP2 148 7.324
38 FP2 149 6.348
38 FP2 150 4.395
38 FP2 151 2.930
38 FP2 152 0.977
38 FP2 153 -0.488
38 FP2 154 -1.953
38 FP2 155 -2.441
38 FP2 156 -1.465
38 FP2 157 0.000
38 FP2 158 1.465
38 FP2 159 1.953
38 FP2 160 2.441
38 FP2 161 3.418
38 FP2 162 5.859
38 FP2 163 8.301
38 FP2 164 8.789
38 FP2 165 6.836
38 FP2 166 3.418
38 FP2 167 2.441
38 FP2 168 3.906
38 FP2 169 7.812
38 FP2 170 11.230
38 FP2 171 12.207
38 FP2 172 10.254
38 FP2 173 5.859
38 FP2 174 1.465
38 FP2 175 -1.953
38 FP2 176 -4.883
38 FP2 177 -6.836
38 FP2 178 -8.301
38 FP2 179 -8.301
38 FP2 180 -7.812
38 FP2 181 -7.324
38 FP2 182 -6.348
38 FP2 183 -5.859
38 FP2 184 -5.371
38 FP2 185 -3.906
38 FP2 186 -2.441
38 FP2 187 -0.488
38 FP2 188 1.465
38 FP2 189 3.418
38 FP2 190 4.883
38 FP2 191 6.348
38 FP2 192 7.812
38 FP2 193 8.301
38 FP2 194 7.812
38 FP2 195 5.371
38 FP2 196 2.441
38 FP2 197 -1.465
38 FP2 198 -3.906
38 FP2 199 -5.371
38 FP2 200 -4.883
38 FP2 201 -3.418
38 FP2 202 0.000
38 FP2 203 3.418
38 FP2 204 6.836
38 FP2 205 8.789
38 FP2 206 9.277
38 FP2 207 7.324
38 FP2 208 3.418
38 FP2 209 -0.977
38 FP2 210 -5.859
38 FP2 211 -9.766
38 FP2 212 -12.695
38 FP2 213 -13.672
38 FP2 214 -14.160
38 FP2 215 -13.184
38 FP2 216 -11.230
38 FP2 217 -8.301
38 FP2 218 -4.883
38 FP2 219 -1.465
38 FP2 220 1.465
38 FP2 221 2.930
38 FP2 222 1.953
38 FP2 223 -0.977
38 FP2 224 -4.395
38 FP2 225 -7.812
38 FP2 226 -9.277
38 FP2 227 -8.789
38 FP2 228 -7.324
38 FP2 229 -5.859
38 FP2 230 -5.371
38 FP2 231 -4.883
38 FP2 232 -4.883
38 FP2 233 -3.906
38 FP2 234 -3.418
38 FP2 235 -2.930
38 FP2 236 -2.930
38 FP2 237 -1.953
38 FP2 238 -0.488
38 FP2 239 1.465
38 FP2 240 3.418
38 FP2 241 5.371
38 FP2 242 6.836
38 FP2 243 7.324
38 FP2 244 7.324
38 FP2 245 6.836
38 FP2 246 5.859
38 FP2 247 4.883
38 FP2 248 3.418
38 FP2 249 1.953
38 FP2 250 0.000
38 FP2 251 -2.441
38 FP2 252 -2.930
38 FP2 253 -1.465
38 FP2 254 1.465
38 FP2 255 3.906
# F7 chan 2
38 F7 0 -1.343
38 F7 1 -2.319
38 F7 2 -1.831
38 F7 3 0.610
38 F7 4 3.540
38 F7 5 6.958
38 F7 6 8.423
38 F7 7 7.446
38 F7 8 5.493
38 F7 9 3.540
38 F7 10 2.563
38 F7 11 4.028
38 F7 12 5.981
38 F7 13 6.958
38 F7 14 6.470
38 F7 15 4.517
38 F7 16 3.540
38 F7 17 4.028
38 F7 18 5.493
38 F7 19 6.470
38 F7 20 5.981
38 F7 21 2.563
38 F7 22 -0.854
38 F7 23 -3.296
38 F7 24 -3.784
38 F7 25 -2.319
38 F7 26 -0.366
38 F7 27 0.610
38 F7 28 0.610
38 F7 29 0.610
38 F7 30 0.122
38 F7 31 0.122
38 F7 32 -0.366
38 F7 33 -1.343
38 F7 34 -2.808
38 F7 35 -3.784
38 F7 36 -3.784
38 F7 37 -2.808
38 F7 38 -2.319
38 F7 39 -2.808
38 F7 40 -4.761
38 F7 41 -7.202
38 F7 42 -9.644
38 F7 43 -10.620
38 F7 44 -10.132
38 F7 45 -8.667
38 F7 46 -6.714
38 F7 47 -4.272
38 F7 48 -2.319
38 F7 49 -0.854
38 F7 50 -0.854
38 F7 51 -2.808
38 F7 52 -4.761
38 F7 53 -6.226
38 F7 54 -5.249
38 F7 55 -3.296
38 F7 56 -1.343
38 F7 57 -0.854
38 F7 58 -2.808
38 F7 59 -6.226
38 F7 60 -8.667
38 F7 61 -10.132
38 F7 62 -10.620
38 F7 63 -10.620
38 F7 64 -11.108
38 F7 65 -12.085
38 F7 66 -12.085
38 F7 67 -9.644
38 F7 68 -6.714
38 F7 69 -4.272
38 F7 70 -3.296
38 F7 71 -3.784
38 F7 72 -4.761
38 F7 73 -4.272
38 F7 74 -2.319
38 F7 75 0.122
38 F7 76 0.610
38 F7 77 -0.366
38 F7 78 -2.319
38 F7 79 -3.296
38 F7 80 -2.319
38 F7 81 0.610
38 F7 82 2.563
38 F7 83 4.028
38 F7 84 4.028
38 F7 85 4.028
38 F7 86 4.028
38 F7 87 4.517
38 F7 88 4.028
38 F7 89 2.075
38 F7 90 0.122
38 F7 91 -1.343
38 F7 92 -1.343
38 F7 93 -0.366
38 F7 94 0.610
38 F7 95 0.610
38 F7 96 -0.366
38 F7 97 -1.343
38 F7 98 -2.319
38 F7 99 -2.808
38 F7 100 -2.808
38 F7 101 -2.808
38 F7 102 -3.296
38 F7 103 -4.761
38 F7 104 -6.226
38 F7 105 -7.202
38 F7 106 -6.714
38 F7 107 -4.761
38 F7 108 -2.319
38 F7 109 0.610
38 F7 110 2.563
38 F7 111 3.540
38 F7 112 3.052
38 F7 113 1.587
38 F7 114 -0.854
38 F7 115 -3.296
38 F7 116 -5.249
38 F7 117 -5.249
38 F7 118 -3.296
38 F7 119 -0.854
38 F7 120 2.075
38 F7 121 3.540
38 F7 122 3.052
38 F7 123 1.099
38 F7 124 -1.343
38 F7 125 -2.808
38 F7 126 -3.296
38 F7 127 -2.808
38 F7 128 -1.831
38 F7 129 -1.343
38 F7 130 -1.831
38 F7 131 -3.784
38 F7 132 -6.226
38 F7 133 -7.690
38 F7 134 -7.202
38 F7 135 -4.761
38 F7 136 -1.831
38 F7 137 0.610
38 F7 138 1.099
38 F7 139 -0.854
38 F7 140 -3.784
38 F7 141 -6.714
38 F7 142 -7.202
38 F7 143 -6.226
38 F7 144 -3.784
38 F7 145 -1.343
38 F7 146 0.610
38 F7 147 1.587
38 F7 148 1.099
38 F7 149 -0.366
38 F7 150 -1.831
38 F7 151 -3.296
38 F7 152 -3.784
38 F7 153 -4.272
38 F7 154 -4.272
38 F7 155 -4.272
38 F7 156 -4.272
38 F7 157 -4.272
38 F7 158 -3.784
38 F7 159 -2.319
38 F7 160 -0.366
38 F7 161 1.099
38 F7 162 2.563
38 F7 163 3.540
38 F7 164 5.493
38 F7 165 7.446
38 F7 166 8.911
38 F7 167 10.376
38 F7 168 11.353
38 F7 169 10.864
38 F7 170 9.399
38 F7 171 6.470
38 F7 172 1.587
38 F7 173 -4.761
38 F7 174 -12.085
38 F7 175 -17.456
38 F7 176 -19.897
38 F7 177 -18.433
38 F7 178 -15.015
38 F7 179 -11.597
38 F7 180 -8.667
38 F7 181 -7.202
38 F7 182 -5.737
38 F7 183 -3.296
38 F7 184 -0.366
38 F7 185 2.563
38 F7 186 5.493
38 F7 187 7.935
38 F7 188 10.376
38 F7 189 12.329
38 F7 190 14.282
38 F7 191 14.282
38 F7 192 11.841
38 F7 193 7.446
38 F7 194 2.075
38 F7 195 -2.808
38 F7 196 -6.226
38 F7 197 -7.202
38 F7 198 -7.202
38 F7 199 -6.226
38 F7 200 -4.761
38 F7 201 -3.296
38 F7 202 -2.808
38 F7 203 -1.831
38 F7 204 -0.366
38 F7 205 1.099
38 F7 206 2.563
38 F7 207 2.075
38 F7 208 -0.366
38 F7 209 -4.272
38 F7 210 -9.155
38 F7 211 -13.062
38 F7 212 -15.991
38 F7 213 -16.968
38 F7 214 -15.991
38 F7 215 -13.062
38 F7 216 -9.155
38 F7 217 -5.249
38 F7 218 -2.808
38 F7 219 -1.831
38 F7 220 -1.831
38 F7 221 -2.808
38 F7 222 -2.808
38 F7 223 -2.808
38 F7 224 -3.296
38 F7 225 -4.272
38 F7 226 -6.714
38 F7 227 -9.644
38 F7 228 -11.597
38 F7 229 -11.597
38 F7 230 -10.132
38 F7 231 -7.690
38 F7 232 -5.249
38 F7 233 -2.808
38 F7 234 -1.831
38 F7 235 -0.854
38 F7 236 -0.366
38 F7 237 -1.343
38 F7 238 -2.319
38 F7 239 -2.808
38 F7 240 -0.854
38 F7 241 3.052
38 F7 242 7.446
38 F7 243 9.399
38 F7 244 7.935
38 F7 245 3.540
38 F7 246 -2.319
38 F7 247 -6.226
38 F7 248 -7.202
38 F7 249 -5.737
38 F7 250 -3.296
38 F7 251 -1.831
38 F7 252 -1.343
38 F7 253 -1.343
38 F7 254 -0.854
38 F7 255 -0.366
# F8 chan 3
38 F8 0 -2.930
38 F8 1 -0.488
38 F8 2 0.977
38 F8 3 2.441
38 F8 4 4.395
38 F8 5 6.836
38 F8 6 8.301
38 F8 7 8.301
38 F8 8 6.836
38 F8 9 5.371
38 F8 10 5.371
38 F8 11 7.324
38 F8 12 10.254
38 F8 13 11.719
38 F8 14 10.254
38 F8 15 5.859
38 F8 16 0.977
38 F8 17 -1.953
38 F8 18 -1.465
38 F8 19 0.977
38 F8 20 2.930
38 F8 21 1.953
38 F8 22 -0.488
38 F8 23 -3.418
38 F8 24 -4.395
38 F8 25 -3.418
38 F8 26 -1.465
38 F8 27 -0.488
38 F8 28 -1.465
38 F8 29 -3.906
38 F8 30 -5.371
38 F8 31 -4.883
38 F8 32 -2.441
38 F8 33 0.977
38 F8 34 2.930
38 F8 35 3.418
38 F8 36 2.441
38 F8 37 0.977
38 F8 38 0.000
38 F8 39 -0.488
38 F8 40 0.000
38 F8 41 0.488
38 F8 42 0.977
38 F8 43 0.488
38 F8 44 -0.977
38 F8 45 -2.930
38 F8 46 -4.883
38 F8 47 -5.371
38 F8 48 -4.395
38 F8 49 -1.953
38 F8 50 -0.488
38 F8 51 0.488
38 F8 52 -0.977
38 F8 53 -2.441
38 F8 54 -2.930
38 F8 55 -2.441
38 F8 56 0.000
38 F8 57 2.441
38 F8 58 3.906
38 F8 59 3.906
38 F8 60 3.418
38 F8 61 1.953
38 F8 62 0.000
38 F8 63 -2.441
38 F8 64 -5.371
38 F8 65 -7.812
38 F8 66 -8.301
38 F8 67 -6.348
38 F8 68 -2.930
38 F8 69 -0.488
38 F8 70 -0.488
38 F8 71 -2.930
38 F8 72 -7.324
38 F8 73 -10.254
38 F8 74 -10.254
38 F8 75 -7.324
38 F8 76 -2.441
38 F8 77 2.441
38 F8 78 4.883
38 F8 79 5.859
38 F8 80 5.371
38 F8 81 4.395
38 F8 82 3.418
38 F8 83 2.441
38 F8 84 2.441
38 F8 85 1.953
38 F8 86 2.441
38 F8 87 2.930
38 F8 88 3.418
38 F8 89 2.930
38 F8 90 2.441
38 F8 91 2.441
38 F8 92 2.441
38 F8 93 2.441
38 F8 94 2.441
38 F8 95 0.977
38 F8 96 -0.488
38 F8 97 -1.465
38 F8 98 -0.977
38 F8 99 0.977
38 F8 100 2.930
38 F8 101 4.395
38 F8 102 3.906
38 F8 103 2.441
38 F8 104 0.977
38 F8 105 0.488
38 F8 106 0.000
38 F8 107 0.000
38 F8 108 0.488
38 F8 109 1.953
38 F8 110 4.395
38 F8 111 7.324
38 F8 112 8.301
38 F8 113 6.348
38 F8 114 0.977
38 F8 115 -3.418
38 F8 116 -4.395
38 F8 117 -0.977
38 F8 118 4.395
38 F8 119 7.812
38 F8 120 6.836
38 F8 121 3.418
38 F8 122 0.488
38 F8 123 0.488
38 F8 124 2.441
38 F8 125 4.395
38 F8 126 4.883
38 F8 127 3.906
38 F8 128 3.906
38 F8 129 6.836
38 F8 130 10.742
38 F8 131 12.207
38 F8 132 10.254
38 F8 133 4.883
38 F8 134 -1.465
38 F8 135 -6.348
38 F8 136 -8.789
38 F8 137 -9.766
38 F8 138 -11.230
38 F8 139 -11.230
38 F8 140 -9.277
38 F8 141 -3.906
38 F8 142 3.418
38 F8 143 9.277
38 F8 144 12.695
38 F8 145 12.695
38 F8 146 10.742
38 F8 147 7.812
38 F8 148 5.859
38 F8 149 4.395
38 F8 150 3.418
38 F8 151 2.930
38 F8 152 1.953
38 F8 153 0.977
38 F8 154 -0.488
38 F8 155 -1.465
38 F8 156 -1.465
38 F8 157 0.977
38 F8 158 4.395
38 F8 159 8.301
38 F8 160 10.742
38 F8 161 10.254
38 F8 162 8.301
38 F8 163 5.859
38 F8 164 3.906
38 F8 165 2.930
38 F8 166 1.953
38 F8 167 0.488
38 F8 168 -0.977
38 F8 169 -0.977
38 F8 170 1.465
38 F8 171 5.859
38 F8 172 9.277
38 F8 173 9.277
38 F8 174 5.371
38 F8 175 -0.977
38 F8 176 -5.859
38 F8 177 -6.836
38 F8 178 -5.859
38 F8 179 -4.395
38 F8 180 -4.883
38 F8 181 -6.348
38 F8 182 -7.324
38 F8 183 -6.836
38 F8 184 -5.371
38 F8 185 -4.883
38 F8 186 -5.859
38 F8 187 -7.324
38 F8 188 -6.836
38 F8 189 -2.930
38 F8 190 3.906
38 F8 191 10.254
38 F8 192 13.184
38 F8 193 11.719
38 F8 194 6.348
38 F8 195 0.000
38 F8 196 -5.371
38 F8 197 -7.324
38 F8 198 -6.836
38 F8 199 -4.395
38 F8 200 -1.953
38 F8 201 0.488
38 F8 202 1.953
38 F8 203 3.418
38 F8 204 4.883
38 F8 205 5.859
38 F8 206 6.348
38 F8 207 5.371
38 F8 208 3.418
38 F8 209 0.977
38 F8 210 -1.465
38 F8 211 -4.395
38 F8 212 -6.348
38 F8 213 -8.301
38 F8 214 -9.277
38 F8 215 -8.789
38 F8 216 -6.836
38 F8 217 -4.395
38 F8 218 -1.953
38 F8 219 0.488
38 F8 220 1.953
38 F8 221 2.930
38 F8 222 2.930
38 F8 223 1.465
38 F8 224 -0.977
38 F8 225 -3.906
38 F8 226 -5.859
38 F8 227 -6.348
38 F8 228 -4.883
38 F8 229 -2.930
38 F8 230 -1.465
38 F8 231 0.000
38 F8 232 0.977
38 F8 233 1.953
38 F8 234 2.930
38 F8 235 3.906
38 F8 236 4.883
38 F8 237 4.883
38 F8 238 4.395
38 F8 239 3.906
38 F8 240 3.418
38 F8 241 3.906
38 F8 242 4.883
38 F8 243 6.348
38 F8 244 7.324
38 F8 245 7.812
38 F8 246 6.348
38 F8 247 4.395
38 F8 248 2.930
38 F8 249 2.441
38 F8 250 2.930
38 F8 251 4.395
38 F8 252 4.883
38 F8 253 3.906
38 F8 254 1.465
38 F8 255 -0.488
# AF1 chan 4
38 AF1 0 2.472
38 AF1 1 2.960
38 AF1 2 3.448
38 AF1 3 4.425
38 AF1 4 4.913
38 AF1 5 5.890
38 AF1 6 5.890
38 AF1 7 5.890
38 AF1 8 5.402
38 AF1 9 4.425
38 AF1 10 3.448
38 AF1 11 2.960
38 AF1 12 2.472
38 AF1 13 1.984
38 AF1 14 1.007
38 AF1 15 1.007
38 AF1 16 1.007
38 AF1 17 1.495
38 AF1 18 1.495
38 AF1 19 1.007
38 AF1 20 0.031
38 AF1 21 -1.434
38 AF1 22 -2.899
38 AF1 23 -4.852
38 AF1 24 -5.829
38 AF1 25 -5.341
38 AF1 26 -3.876
38 AF1 27 -1.923
38 AF1 28 -0.458
38 AF1 29 0.519
38 AF1 30 0.031
38 AF1 31 -0.946
38 AF1 32 -1.923
38 AF1 33 -1.434
38 AF1 34 -0.946
38 AF1 35 0.031
38 AF1 36 0.031
38 AF1 37 0.031
38 AF1 38 -0.946
38 AF1 39 -1.923
38 AF1 40 -2.899
38 AF1 41 -3.876
38 AF1 42 -4.852
38 AF1 43 -5.829
38 AF1 44 -5.829
38 AF1 45 -4.852
38 AF1 46 -3.876
38 AF1 47 -3.387
38 AF1 48 -3.387
38 AF1 49 -3.387
38 AF1 50 -3.387
38 AF1 51 -1.923
38 AF1 52 -0.946
38 AF1 53 0.031
38 AF1 54 0.519
38 AF1 55 0.519
38 AF1 56 0.519
38 AF1 57 0.519
38 AF1 58 0.519
38 AF1 59 0.031
38 AF1 60 -1.923
38 AF1 61 -4.364
38 AF1 62 -7.294
38 AF1 63 -9.735
38 AF1 64 -10.223
38 AF1 65 -9.735
38 AF1 66 -7.294
38 AF1 67 -5.829
38 AF1 68 -3.876
38 AF1 69 -2.899
38 AF1 70 -2.899
38 AF1 71 -3.387
38 AF1 72 -3.876
38 AF1 73 -4.364
38 AF1 74 -3.876
38 AF1 75 -2.411
38 AF1 76 0.031
38 AF1 77 1.984
38 AF1 78 3.448
38 AF1 79 3.448
38 AF1 80 3.448
38 AF1 81 2.960
38 AF1 82 2.472
38 AF1 83 2.472
38 AF1 84 2.472
38 AF1 85 2.960
38 AF1 86 3.448
38 AF1 87 4.425
38 AF1 88 4.913
38 AF1 89 4.425
38 AF1 90 2.960
38 AF1 91 1.007
38 AF1 92 -1.434
38 AF1 93 -2.411
38 AF1 94 -2.411
38 AF1 95 -1.434
38 AF1 96 0.031
38 AF1 97 1.495
38 AF1 98 2.472
38 AF1 99 2.960
38 AF1 100 2.960
38 AF1 101 2.960
38 AF1 102 1.495
38 AF1 103 -0.458
38 AF1 104 -1.923
38 AF1 105 -2.899
38 AF1 106 -2.411
38 AF1 107 -0.946
38 AF1 108 1.495
38 AF1 109 3.448
38 AF1 110 5.402
38 AF1 111 5.402
38 AF1 112 4.425
38 AF1 113 2.960
38 AF1 114 0.519
38 AF1 115 -1.434
38 AF1 116 -1.923
38 AF1 117 -1.434
38 AF1 118 0.031
38 AF1 119 1.984
38 AF1 120 4.425
38 AF1 121 5.402
38 AF1 122 6.866
38 AF1 123 7.843
38 AF1 124 8.331
38 AF1 125 8.331
38 AF1 126 7.843
38 AF1 127 6.378
38 AF1 128 5.402
38 AF1 129 4.913
38 AF1 130 4.913
38 AF1 131 4.913
38 AF1 132 3.937
38 AF1 133 2.960
38 AF1 134 1.007
38 AF1 135 0.031
38 AF1 136 -0.458
38 AF1 137 -0.458
38 AF1 138 -0.458
38 AF1 139 -0.946
38 AF1 140 -0.458
38 AF1 141 -0.458
38 AF1 142 0.519
38 AF1 143 1.495
38 AF1 144 2.472
38 AF1 145 2.960
38 AF1 146 4.425
38 AF1 147 4.913
38 AF1 148 5.890
38 AF1 149 6.866
38 AF1 150 6.378
38 AF1 151 5.890
38 AF1 152 4.913
38 AF1 153 4.425
38 AF1 154 4.425
38 AF1 155 3.937
38 AF1 156 3.937
38 AF1 157 3.448
38 AF1 158 2.960
38 AF1 159 2.960
38 AF1 160 3.448
38 AF1 161 4.425
38 AF1 162 5.890
38 AF1 163 6.866
38 AF1 164 7.843
38 AF1 165 8.820
38 AF1 166 10.284
38 AF1 167 12.726
38 AF1 168 15.656
38 AF1 169 17.609
38 AF1 170 18.585
38 AF1 171 16.144
38 AF1 172 12.238
38 AF1 173 6.866
38 AF1 174 1.495
38 AF1 175 -2.411
38 AF1 176 -4.364
38 AF1 177 -4.852
38 AF1 178 -3.876
38 AF1 179 -3.387
38 AF1 180 -2.899
38 AF1 181 -3.387
38 AF1 182 -2.899
38 AF1 183 -1.923
38 AF1 184 0.519
38 AF1 185 3.448
38 AF1 186 5.890
38 AF1 187 7.843
38 AF1 188 9.308
38 AF1 189 10.284
38 AF1 190 10.284
38 AF1 191 9.796
38 AF1 192 8.331
38 AF1 193 5.890
38 AF1 194 3.448
38 AF1 195 1.495
38 AF1 196 0.519
38 AF1 197 0.031
38 AF1 198 0.519
38 AF1 199 1.495
38 AF1 200 2.472
38 AF1 201 4.425
38 AF1 202 5.890
38 AF1 203 8.331
38 AF1 204 10.284
38 AF1 205 11.261
38 AF1 206 10.773
38 AF1 207 8.820
38 AF1 208 5.402
38 AF1 209 1.495
38 AF1 210 -2.411
38 AF1 211 -5.829
38 AF1 212 -8.759
38 AF1 213 -10.712
38 AF1 214 -11.688
38 AF1 215 -11.688
38 AF1 216 -9.735
38 AF1 217 -6.805
38 AF1 218 -3.387
38 AF1 219 0.031
38 AF1 220 2.472
38 AF1 221 3.448
38 AF1 222 1.984
38 AF1 223 -0.458
38 AF1 224 -3.876
38 AF1 225 -7.294
38 AF1 226 -9.735
38 AF1 227 -10.712
38 AF1 228 -10.223
38 AF1 229 -8.759
38 AF1 230 -6.317
38 AF1 231 -3.876
38 AF1 232 -1.434
38 AF1 233 1.007
38 AF1 234 1.984
38 AF1 235 2.472
38 AF1 236 2.472
38 AF1 237 1.984
38 AF1 238 1.984
38 AF1 239 2.472
38 AF1 240 3.937
38 AF1 241 5.890
38 AF1 242 7.843
38 AF1 243 9.308
38 AF1 244 9.796
38 AF1 245 9.796
38 AF1 246 8.331
38 AF1 247 6.866
38 AF1 248 4.913
38 AF1 249 2.960
38 AF1 250 1.495
38 AF1 251 0.519
38 AF1 252 0.519
38 AF1 253 1.495
38 AF1 254 3.937
38 AF1 255 5.890
# AF2 chan 5
38 AF2 0 5.351
38 AF2 1 5.839
38 AF2 2 5.839
38 AF2 3 6.327
38 AF2 4 6.816
38 AF2 5 8.280
38 AF2 6 8.769
38 AF2 7 9.257
38 AF2 8 8.769
38 AF2 9 7.304
38 AF2 10 6.816
38 AF2 11 6.327
38 AF2 12 6.816
38 AF2 13 6.816
38 AF2 14 6.816
38 AF2 15 6.327
38 AF2 16 5.839
38 AF2 17 5.351
38 AF2 18 5.839
38 AF2 19 5.839
38 AF2 20 5.351
38 AF2 21 3.886
38 AF2 22 2.421
38 AF2 23 0.468
38 AF2 24 -0.020
38 AF2 25 -0.020
38 AF2 26 0.956
38 AF2 27 2.421
38 AF2 28 2.909
38 AF2 29 3.886
38 AF2 30 4.374
38 AF2 31 4.374
38 AF2 32 4.862
38 AF2 33 5.351
38 AF2 34 5.839
38 AF2 35 6.816
38 AF2 36 7.304
38 AF2 37 6.816
38 AF2 38 6.327
38 AF2 39 5.839
38 AF2 40 5.351
38 AF2 41 4.862
38 AF2 42 4.374
38 AF2 43 4.374
38 AF2 44 3.886
38 AF2 45 4.374
38 AF2 46 4.862
38 AF2 47 5.351
38 AF2 48 5.839
38 AF2 49 5.839
38 AF2 50 5.839
38 AF2 51 6.327
38 AF2 52 7.304
38 AF2 53 8.280
38 AF2 54 9.257
38 AF2 55 9.257
38 AF2 56 8.769
38 AF2 57 8.769
38 AF2 58 8.769
38 AF2 59 8.769
38 AF2 60 7.792
38 AF2 61 5.839
38 AF2 62 3.398
38 AF2 63 0.956
38 AF2 64 0.468
38 AF2 65 0.956
38 AF2 66 2.909
38 AF2 67 4.862
38 AF2 68 5.839
38 AF2 69 5.351
38 AF2 70 5.351
38 AF2 71 4.374
38 AF2 72 3.886
38 AF2 73 3.398
38 AF2 74 3.886
38 AF2 75 4.862
38 AF2 76 6.327
38 AF2 77 8.280
38 AF2 78 10.234
38 AF2 79 11.210
38 AF2 80 10.722
38 AF2 81 9.257
38 AF2 82 8.280
38 AF2 83 6.816
38 AF2 84 6.327
38 AF2 85 6.816
38 AF2 86 7.304
38 AF2 87 7.792
38 AF2 88 7.792
38 AF2 89 6.816
38 AF2 90 5.351
38 AF2 91 4.374
38 AF2 92 3.398
38 AF2 93 2.909
38 AF2 94 2.909
38 AF2 95 2.909
38 AF2 96 3.398
38 AF2 97 4.374
38 AF2 98 5.351
38 AF2 99 5.839
38 AF2 100 6.327
38 AF2 101 5.839
38 AF2 102 4.374
38 AF2 103 2.421
38 AF2 104 0.956
38 AF2 105 0.468
38 AF2 106 0.956
38 AF2 107 2.421
38 AF2 108 3.886
38 AF2 109 5.351
38 AF2 110 6.327
38 AF2 111 6.327
38 AF2 112 5.351
38 AF2 113 3.886
38 AF2 114 1.444
38 AF2 115 -0.997
38 AF2 116 -2.462
38 AF2 117 -2.462
38 AF2 118 -1.485
38 AF2 119 0.468
38 AF2 120 1.933
38 AF2 121 3.398
38 AF2 122 4.862
38 AF2 123 6.327
38 AF2 124 7.792
38 AF2 125 8.769
38 AF2 126 8.280
38 AF2 127 6.816
38 AF2 128 5.839
38 AF2 129 5.351
38 AF2 130 5.351
38 AF2 131 5.839
38 AF2 132 5.351
38 AF2 133 3.886
38 AF2 134 1.444
38 AF2 135 -0.997
38 AF2 136 -1.973
38 AF2 137 -2.462
38 AF2 138 -2.950
38 AF2 139 -2.950
38 AF2 140 -2.950
38 AF2 141 -1.973
38 AF2 142 -0.020
38 AF2 143 2.421
38 AF2 144 4.862
38 AF2 145 6.327
38 AF2 146 7.304
38 AF2 147 6.816
38 AF2 148 5.839
38 AF2 149 4.862
38 AF2 150 3.398
38 AF2 151 2.421
38 AF2 152 1.933
38 AF2 153 1.933
38 AF2 154 1.933
38 AF2 155 1.933
38 AF2 156 1.444
38 AF2 157 1.444
38 AF2 158 0.956
38 AF2 159 0.956
38 AF2 160 1.933
38 AF2 161 2.909
38 AF2 162 3.398
38 AF2 163 2.909
38 AF2 164 2.421
38 AF2 165 1.933
38 AF2 166 2.421
38 AF2 167 4.374
38 AF2 168 6.816
38 AF2 169 10.234
38 AF2 170 12.675
38 AF2 171 13.163
38 AF2 172 10.722
38 AF2 173 7.304
38 AF2 174 2.421
38 AF2 175 -1.485
38 AF2 176 -3.927
38 AF2 177 -5.391
38 AF2 178 -6.368
38 AF2 179 -6.856
38 AF2 180 -7.345
38 AF2 181 -8.321
38 AF2 182 -8.321
38 AF2 183 -6.856
38 AF2 184 -5.391
38 AF2 185 -2.950
38 AF2 186 -0.509
38 AF2 187 1.444
38 AF2 188 3.398
38 AF2 189 5.351
38 AF2 190 6.327
38 AF2 191 6.816
38 AF2 192 6.327
38 AF2 193 4.862
38 AF2 194 2.421
38 AF2 195 0.468
38 AF2 196 -0.509
38 AF2 197 -0.997
38 AF2 198 -0.997
38 AF2 199 -0.997
38 AF2 200 -0.509
38 AF2 201 0.956
38 AF2 202 3.398
38 AF2 203 5.351
38 AF2 204 7.304
38 AF2 205 8.769
38 AF2 206 8.769
38 AF2 207 7.304
38 AF2 208 4.862
38 AF2 209 1.444
38 AF2 210 -2.462
38 AF2 211 -6.368
38 AF2 212 -9.298
38 AF2 213 -11.251
38 AF2 214 -10.763
38 AF2 215 -9.298
38 AF2 216 -6.368
38 AF2 217 -2.950
38 AF2 218 -0.020
38 AF2 219 2.421
38 AF2 220 3.398
38 AF2 221 3.398
38 AF2 222 1.933
38 AF2 223 -0.509
38 AF2 224 -2.950
38 AF2 225 -5.391
38 AF2 226 -6.856
38 AF2 227 -6.856
38 AF2 228 -6.368
38 AF2 229 -4.903
38 AF2 230 -2.462
38 AF2 231 -0.509
38 AF2 232 1.444
38 AF2 233 2.421
38 AF2 234 3.398
38 AF2 235 3.398
38 AF2 236 3.398
38 AF2 237 2.909
38 AF2 238 3.886
38 AF2 239 4.374
38 AF2 240 5.839
38 AF2 241 7.304
38 AF2 242 8.769
38 AF2 243 10.234
38 AF2 244 11.210
38 AF2 245 10.722
38 AF2 246 9.257
38 AF2 247 7.304
38 AF2 248 5.351
38 AF2 249 3.398
38 AF2 250 2.421
38 AF2 251 1.444
38 AF2 252 1.933
38 AF2 253 3.398
38 AF2 254 5.351
38 AF2 255 6.816
# FZ chan 6
38 FZ 0 2.228
38 FZ 1 2.228
38 FZ 2 2.228
38 FZ 3 3.204
38 FZ 4 4.181
38 FZ 5 4.669
38 FZ 6 4.181
38 FZ 7 3.693
38 FZ 8 3.204
38 FZ 9 2.228
38 FZ 10 1.740
38 FZ 11 1.251
38 FZ 12 0.763
38 FZ 13 0.763
38 FZ 14 1.251
38 FZ 15 1.251
38 FZ 16 1.740
38 FZ 17 2.228
38 FZ 18 1.740
38 FZ 19 1.251
38 FZ 20 -0.214
38 FZ 21 -1.678
38 FZ 22 -2.655
38 FZ 23 -3.632
38 FZ 24 -3.632
38 FZ 25 -3.143
38 FZ 26 -2.655
38 FZ 27 -1.190
38 FZ 28 -0.702
38 FZ 29 -0.702
38 FZ 30 -0.702
38 FZ 31 -1.678
38 FZ 32 -1.678
38 FZ 33 -2.167
38 FZ 34 -1.678
38 FZ 35 -1.190
38 FZ 36 -1.190
38 FZ 37 -1.190
38 FZ 38 -1.190
38 FZ 39 -1.678
38 FZ 40 -2.167
38 FZ 41 -3.143
38 FZ 42 -4.120
38 FZ 43 -4.608
38 FZ 44 -4.608
38 FZ 45 -3.632
38 FZ 46 -2.655
38 FZ 47 -2.167
38 FZ 48 -2.167
38 FZ 49 -2.655
38 FZ 50 -3.143
38 FZ 51 -2.167
38 FZ 52 -1.190
38 FZ 53 -0.214
38 FZ 54 0.763
38 FZ 55 0.275
38 FZ 56 -0.214
38 FZ 57 -0.702
38 FZ 58 -0.702
38 FZ 59 -1.190
38 FZ 60 -2.167
38 FZ 61 -3.632
38 FZ 62 -5.096
38 FZ 63 -7.050
38 FZ 64 -7.538
38 FZ 65 -7.538
38 FZ 66 -6.561
38 FZ 67 -5.096
38 FZ 68 -4.120
38 FZ 69 -3.143
38 FZ 70 -2.655
38 FZ 71 -2.655
38 FZ 72 -2.655
38 FZ 73 -3.143
38 FZ 74 -2.655
38 FZ 75 -1.190
38 FZ 76 0.275
38 FZ 77 1.740
38 FZ 78 2.228
38 FZ 79 2.716
38 FZ 80 2.716
38 FZ 81 2.716
38 FZ 82 2.716
38 FZ 83 2.716
38 FZ 84 2.716
38 FZ 85 2.228
38 FZ 86 2.716
38 FZ 87 3.693
38 FZ 88 3.693
38 FZ 89 3.693
38 FZ 90 2.716
38 FZ 91 1.251
38 FZ 92 0.275
38 FZ 93 -0.214
38 FZ 94 0.275
38 FZ 95 0.763
38 FZ 96 1.740
38 FZ 97 2.228
38 FZ 98 2.716
38 FZ 99 3.204
38 FZ 100 3.693
38 FZ 101 3.204
38 FZ 102 1.740
38 FZ 103 0.275
38 FZ 104 -1.190
38 FZ 105 -2.167
38 FZ 106 -1.678
38 FZ 107 -0.214
38 FZ 108 1.251
38 FZ 109 2.716
38 FZ 110 3.693
38 FZ 111 4.669
38 FZ 112 4.669
38 FZ 113 3.693
38 FZ 114 2.228
38 FZ 115 0.275
38 FZ 116 -1.678
38 FZ 117 -2.167
38 FZ 118 -1.678
38 FZ 119 -0.214
38 FZ 120 1.740
38 FZ 121 4.181
38 FZ 122 6.134
38 FZ 123 7.111
38 FZ 124 8.087
38 FZ 125 8.575
38 FZ 126 7.599
38 FZ 127 7.111
38 FZ 128 6.622
38 FZ 129 6.134
38 FZ 130 5.646
38 FZ 131 5.646
38 FZ 132 5.157
38 FZ 133 4.181
38 FZ 134 2.716
38 FZ 135 1.740
38 FZ 136 0.763
38 FZ 137 0.763
38 FZ 138 0.275
38 FZ 139 0.275
38 FZ 140 0.763
38 FZ 141 0.763
38 FZ 142 1.740
38 FZ 143 2.228
38 FZ 144 2.716
38 FZ 145 3.204
38 FZ 146 3.693
38 FZ 147 4.181
38 FZ 148 4.669
38 FZ 149 5.646
38 FZ 150 5.646
38 FZ 151 5.646
38 FZ 152 5.646
38 FZ 153 5.157
38 FZ 154 4.669
38 FZ 155 4.181
38 FZ 156 3.204
38 FZ 157 2.716
38 FZ 158 1.740
38 FZ 159 1.740
38 FZ 160 1.740
38 FZ 161 2.228
38 FZ 162 2.716
38 FZ 163 2.716
38 FZ 164 3.204
38 FZ 165 3.693
38 FZ 166 5.646
38 FZ 167 8.087
38 FZ 168 11.017
38 FZ 169 13.458
38 FZ 170 13.947
38 FZ 171 11.993
38 FZ 172 9.064
38 FZ 173 5.157
38 FZ 174 1.251
38 FZ 175 -1.678
38 FZ 176 -3.632
38 FZ 177 -4.120
38 FZ 178 -4.608
38 FZ 179 -4.608
38 FZ 180 -4.608
38 FZ 181 -4.120
38 FZ 182 -4.608
38 FZ 183 -4.608
38 FZ 184 -2.655
38 FZ 185 -0.214
38 FZ 186 2.716
38 FZ 187 5.157
38 FZ 188 7.111
38 FZ 189 7.111
38 FZ 190 6.622
38 FZ 191 5.157
38 FZ 192 3.693
38 FZ 193 1.740
38 FZ 194 0.275
38 FZ 195 -1.190
38 FZ 196 -2.167
38 FZ 197 -2.167
38 FZ 198 -1.678
38 FZ 199 -0.702
38 FZ 200 0.763
38 FZ 201 2.228
38 FZ 202 4.181
38 FZ 203 5.646
38 FZ 204 6.622
38 FZ 205 7.111
38 FZ 206 6.622
38 FZ 207 5.157
38 FZ 208 2.716
38 FZ 209 -0.702
38 FZ 210 -3.632
38 FZ 211 -6.561
38 FZ 212 -8.514
38 FZ 213 -9.979
38 FZ 214 -9.979
38 FZ 215 -9.491
38 FZ 216 -8.026
38 FZ 217 -5.585
38 FZ 218 -3.143
38 FZ 219 -1.190
38 FZ 220 0.275
38 FZ 221 0.763
38 FZ 222 -0.214
38 FZ 223 -2.167
38 FZ 224 -5.096
38 FZ 225 -8.026
38 FZ 226 -9.491
38 FZ 227 -10.468
38 FZ 228 -9.979
38 FZ 229 -8.026
38 FZ 230 -6.073
38 FZ 231 -3.632
38 FZ 232 -2.167
38 FZ 233 -0.702
38 FZ 234 0.275
38 FZ 235 0.763
38 FZ 236 0.275
38 FZ 237 -0.214
38 FZ 238 -0.214
38 FZ 239 0.763
38 FZ 240 2.228
38 FZ 241 3.204
38 FZ 242 4.669
38 FZ 243 5.646
38 FZ 244 5.157
38 FZ 245 4.669
38 FZ 246 3.693
38 FZ 247 2.228
38 FZ 248 0.763
38 FZ 249 -0.702
38 FZ 250 -2.655
38 FZ 251 -3.632
38 FZ 252 -3.632
38 FZ 253 -2.655
38 FZ 254 -0.702
38 FZ 255 1.740
# F4 chan 7
38 F4 0 -0.264
38 F4 1 0.712
38 F4 2 2.665
38 F4 3 4.130
38 F4 4 5.107
38 F4 5 5.107
38 F4 6 5.107
38 F4 7 5.107
38 F4 8 4.130
38 F4 9 3.153
38 F4 10 2.665
38 F4 11 2.665
38 F4 12 3.153
38 F4 13 4.130
38 F4 14 4.618
38 F4 15 5.107
38 F4 16 4.130
38 F4 17 3.642
38 F4 18 2.177
38 F4 19 1.200
38 F4 20 -0.264
38 F4 21 -1.241
38 F4 22 -2.706
38 F4 23 -3.194
38 F4 24 -3.682
38 F4 25 -2.706
38 F4 26 -1.729
38 F4 27 -0.264
38 F4 28 0.224
38 F4 29 0.224
38 F4 30 -0.753
38 F4 31 -1.729
38 F4 32 -1.729
38 F4 33 -1.241
38 F4 34 0.224
38 F4 35 1.689
38 F4 36 1.689
38 F4 37 1.200
38 F4 38 0.224
38 F4 39 -0.264
38 F4 40 -0.264
38 F4 41 -0.264
38 F4 42 -0.264
38 F4 43 -0.753
38 F4 44 -1.241
38 F4 45 -1.241
38 F4 46 -1.241
38 F4 47 -0.753
38 F4 48 -1.241
38 F4 49 -1.241
38 F4 50 -1.241
38 F4 51 -0.753
38 F4 52 0.224
38 F4 53 0.712
38 F4 54 1.200
38 F4 55 0.712
38 F4 56 0.224
38 F4 57 0.224
38 F4 58 0.712
38 F4 59 1.200
38 F4 60 1.200
38 F4 61 -0.264
38 F4 62 -1.729
38 F4 63 -3.682
38 F4 64 -4.659
38 F4 65 -4.659
38 F4 66 -4.171
38 F4 67 -3.194
38 F4 68 -2.706
38 F4 69 -2.218
38 F4 70 -2.706
38 F4 71 -3.194
38 F4 72 -3.194
38 F4 73 -3.194
38 F4 74 -2.218
38 F4 75 -0.264
38 F4 76 2.177
38 F4 77 4.130
38 F4 78 5.595
38 F4 79 6.083
38 F4 80 5.107
38 F4 81 3.153
38 F4 82 1.689
38 F4 83 1.200
38 F4 84 1.200
38 F4 85 2.177
38 F4 86 3.153
38 F4 87 4.130
38 F4 88 4.130
38 F4 89 4.130
38 F4 90 3.642
38 F4 91 2.665
38 F4 92 1.689
38 F4 93 0.712
38 F4 94 0.712
38 F4 95 0.712
38 F4 96 1.200
38 F4 97 2.177
38 F4 98 2.665
38 F4 99 3.642
38 F4 100 4.130
38 F4 101 4.618
38 F4 102 4.130
38 F4 103 2.665
38 F4 104 1.200
38 F4 105 -0.264
38 F4 106 -0.264
38 F4 107 0.712
38 F4 108 2.177
38 F4 109 3.642
38 F4 110 4.130
38 F4 111 4.618
38 F4 112 4.130
38 F4 113 3.153
38 F4 114 2.177
38 F4 115 1.200
38 F4 116 0.224
38 F4 117 -0.753
38 F4 118 -0.264
38 F4 119 0.224
38 F4 120 1.200
38 F4 121 2.177
38 F4 122 3.642
38 F4 123 5.107
38 F4 124 6.571
38 F4 125 7.548
38 F4 126 7.548
38 F4 127 7.060
38 F4 128 6.571
38 F4 129 6.571
38 F4 130 7.548
38 F4 131 8.036
38 F4 132 7.060
38 F4 133 5.107
38 F4 134 2.665
38 F4 135 0.712
38 F4 136 -0.264
38 F4 137 -0.753
38 F4 138 -1.729
38 F4 139 -2.218
38 F4 140 -2.706
38 F4 141 -1.241
38 F4 142 0.712
38 F4 143 3.642
38 F4 144 6.571
38 F4 145 8.525
38 F4 146 9.501
38 F4 147 9.501
38 F4 148 8.036
38 F4 149 6.571
38 F4 150 5.107
38 F4 151 3.642
38 F4 152 3.153
38 F4 153 3.153
38 F4 154 4.130
38 F4 155 4.618
38 F4 156 5.107
38 F4 157 5.107
38 F4 158 5.107
38 F4 159 5.107
38 F4 160 5.595
38 F4 161 5.595
38 F4 162 4.618
38 F4 163 2.665
38 F4 164 0.712
38 F4 165 0.224
38 F4 166 0.712
38 F4 167 3.153
38 F4 168 5.595
38 F4 169 8.525
38 F4 170 10.478
38 F4 171 11.943
38 F4 172 11.454
38 F4 173 9.501
38 F4 174 6.083
38 F4 175 2.177
38 F4 176 -0.753
38 F4 177 -2.706
38 F4 178 -2.706
38 F4 179 -3.194
38 F4 180 -4.171
38 F4 181 -5.147
38 F4 182 -6.612
38 F4 183 -7.100
38 F4 184 -6.124
38 F4 185 -4.171
38 F4 186 -2.218
38 F4 187 -0.264
38 F4 188 1.200
38 F4 189 3.153
38 F4 190 5.107
38 F4 191 6.083
38 F4 192 6.083
38 F4 193 5.107
38 F4 194 3.153
38 F4 195 1.200
38 F4 196 -0.264
38 F4 197 -0.264
38 F4 198 -0.753
38 F4 199 -0.753
38 F4 200 -0.264
38 F4 201 0.712
38 F4 202 2.177
38 F4 203 4.130
38 F4 204 5.595
38 F4 205 6.571
38 F4 206 6.083
38 F4 207 5.107
38 F4 208 3.153
38 F4 209 1.200
38 F4 210 -0.753
38 F4 211 -3.194
38 F4 212 -5.636
38 F4 213 -7.589
38 F4 214 -8.077
38 F4 215 -7.100
38 F4 216 -5.147
38 F4 217 -2.218
38 F4 218 -0.264
38 F4 219 1.200
38 F4 220 1.200
38 F4 221 1.200
38 F4 222 0.224
38 F4 223 -1.729
38 F4 224 -4.171
38 F4 225 -6.124
38 F4 226 -7.100
38 F4 227 -7.100
38 F4 228 -6.124
38 F4 229 -4.659
38 F4 230 -2.706
38 F4 231 -1.241
38 F4 232 0.712
38 F4 233 2.177
38 F4 234 3.153
38 F4 235 3.153
38 F4 236 2.665
38 F4 237 1.200
38 F4 238 0.224
38 F4 239 0.224
38 F4 240 1.689
38 F4 241 3.153
38 F4 242 5.107
38 F4 243 6.571
38 F4 244 7.060
38 F4 245 7.060
38 F4 246 5.595
38 F4 247 4.130
38 F4 248 1.689
38 F4 249 0.224
38 F4 250 -1.241
38 F4 251 -1.729
38 F4 252 -0.753
38 F4 253 1.200
38 F4 254 3.153
38 F4 255 4.618
# F3 chan 8
38 F3 0 3.591
38 F3 1 3.591
38 F3 2 4.079
38 F3 3 5.056
38 F3 4 5.056
38 F3 5 5.544
38 F3 6 5.056
38 F3 7 5.056
38 F3 8 4.567
38 F3 9 4.079
38 F3 10 4.079
38 F3 11 3.591
38 F3 12 2.614
38 F3 13 1.638
38 F3 14 0.661
38 F3 15 0.661
38 F3 16 1.149
38 F3 17 1.638
38 F3 18 2.614
38 F3 19 2.126
38 F3 20 0.661
38 F3 21 -1.292
38 F3 22 -3.245
38 F3 23 -4.710
38 F3 24 -4.710
38 F3 25 -3.733
38 F3 26 -1.780
38 F3 27 -0.315
38 F3 28 0.661
38 F3 29 0.661
38 F3 30 -0.315
38 F3 31 -1.292
38 F3 32 -2.268
38 F3 33 -1.780
38 F3 34 -1.780
38 F3 35 -1.292
38 F3 36 -1.292
38 F3 37 -1.292
38 F3 38 -1.780
38 F3 39 -2.268
38 F3 40 -3.245
38 F3 41 -4.710
38 F3 42 -6.175
38 F3 43 -7.151
38 F3 44 -7.151
38 F3 45 -6.663
38 F3 46 -5.686
38 F3 47 -4.710
38 F3 48 -4.222
38 F3 49 -3.245
38 F3 50 -2.757
38 F3 51 -2.268
38 F3 52 -1.292
38 F3 53 -0.804
38 F3 54 -0.315
38 F3 55 -0.315
38 F3 56 -0.315
38 F3 57 -0.315
38 F3 58 -0.315
38 F3 59 -1.292
38 F3 60 -2.757
38 F3 61 -5.198
38 F3 62 -7.151
38 F3 63 -8.616
38 F3 64 -8.616
38 F3 65 -8.128
38 F3 66 -6.663
38 F3 67 -4.710
38 F3 68 -2.757
38 F3 69 -1.292
38 F3 70 -0.315
38 F3 71 0.173
38 F3 72 -0.315
38 F3 73 -0.315
38 F3 74 -0.315
38 F3 75 0.661
38 F3 76 1.638
38 F3 77 2.614
38 F3 78 2.614
38 F3 79 3.103
38 F3 80 3.591
38 F3 81 4.567
38 F3 82 6.032
38 F3 83 6.521
38 F3 84 6.521
38 F3 85 6.521
38 F3 86 6.521
38 F3 87 7.009
38 F3 88 6.521
38 F3 89 5.544
38 F3 90 3.591
38 F3 91 2.126
38 F3 92 1.149
38 F3 93 1.149
38 F3 94 2.614
38 F3 95 3.591
38 F3 96 3.591
38 F3 97 3.591
38 F3 98 3.591
38 F3 99 3.591
38 F3 100 4.079
38 F3 101 3.591
38 F3 102 2.614
38 F3 103 1.149
38 F3 104 -0.315
38 F3 105 -0.804
38 F3 106 0.173
38 F3 107 2.126
38 F3 108 4.567
38 F3 109 6.521
38 F3 110 7.497
38 F3 111 8.474
38 F3 112 7.985
38 F3 113 7.009
38 F3 114 5.056
38 F3 115 3.103
38 F3 116 1.638
38 F3 117 1.638
38 F3 118 2.614
38 F3 119 3.591
38 F3 120 5.056
38 F3 121 6.521
38 F3 122 7.009
38 F3 123 7.985
38 F3 124 8.474
38 F3 125 8.474
38 F3 126 7.985
38 F3 127 7.009
38 F3 128 6.521
38 F3 129 6.032
38 F3 130 6.032
38 F3 131 6.032
38 F3 132 5.544
38 F3 133 4.567
38 F3 134 3.103
38 F3 135 1.638
38 F3 136 1.638
38 F3 137 2.126
38 F3 138 3.103
38 F3 139 3.591
38 F3 140 3.591
38 F3 141 3.591
38 F3 142 3.591
38 F3 143 3.591
38 F3 144 3.591
38 F3 145 3.591
38 F3 146 4.079
38 F3 147 4.567
38 F3 148 5.544
38 F3 149 6.521
38 F3 150 7.009
38 F3 151 7.009
38 F3 152 7.009
38 F3 153 6.032
38 F3 154 5.056
38 F3 155 4.079
38 F3 156 3.103
38 F3 157 1.638
38 F3 158 0.661
38 F3 159 1.638
38 F3 160 2.614
38 F3 161 4.567
38 F3 162 6.521
38 F3 163 7.985
38 F3 164 8.962
38 F3 165 10.427
38 F3 166 11.892
38 F3 167 13.845
38 F3 168 15.798
38 F3 169 17.263
38 F3 170 17.263
38 F3 171 14.333
38 F3 172 10.427
38 F3 173 5.544
38 F3 174 1.149
38 F3 175 -2.268
38 F3 176 -4.222
38 F3 177 -4.222
38 F3 178 -3.733
38 F3 179 -3.245
38 F3 180 -2.757
38 F3 181 -2.268
38 F3 182 -1.780
38 F3 183 -0.315
38 F3 184 2.126
38 F3 185 5.056
38 F3 186 8.474
38 F3 187 10.427
38 F3 188 11.403
38 F3 189 11.403
38 F3 190 10.427
38 F3 191 9.450
38 F3 192 7.497
38 F3 193 5.544
38 F3 194 3.103
38 F3 195 0.661
38 F3 196 -0.804
38 F3 197 -1.292
38 F3 198 -1.292
38 F3 199 -0.315
38 F3 200 1.149
38 F3 201 2.614
38 F3 202 4.567
38 F3 203 6.521
38 F3 204 8.474
38 F3 205 9.939
38 F3 206 9.939
38 F3 207 7.985
38 F3 208 4.567
38 F3 209 0.173
38 F3 210 -3.245
38 F3 211 -6.175
38 F3 212 -8.128
38 F3 213 -9.104
38 F3 214 -9.104
38 F3 215 -9.104
38 F3 216 -8.128
38 F3 217 -6.175
38 F3 218 -3.245
38 F3 219 -0.804
38 F3 220 1.149
38 F3 221 1.149
38 F3 222 -0.315
38 F3 223 -2.268
38 F3 224 -4.710
38 F3 225 -7.151
38 F3 226 -8.616
38 F3 227 -9.104
38 F3 228 -9.104
38 F3 229 -8.128
38 F3 230 -6.175
38 F3 231 -3.733
38 F3 232 -1.292
38 F3 233 0.661
38 F3 234 1.149
38 F3 235 1.638
38 F3 236 1.149
38 F3 237 0.173
38 F3 238 -0.315
38 F3 239 0.173
38 F3 240 1.638
38 F3 241 4.079
38 F3 242 6.032
38 F3 243 7.009
38 F3 244 7.497
38 F3 245 6.521
38 F3 246 5.544
38 F3 247 3.591
38 F3 248 1.638
38 F3 249 -0.315
38 F3 250 -1.780
38 F3 251 -2.757
38 F3 252 -2.757
38 F3 253 -1.292
38 F3 254 0.661
38 F3 255 2.614
# FC6 chan 9
38 FC6 0 -2.991
38 FC6 1 -1.526
38 FC6 2 1.404
38 FC6 3 3.845
38 FC6 4 4.822
38 FC6 5 5.798
38 FC6 6 6.287
38 FC6 7 6.775
38 FC6 8 6.775
38 FC6 9 6.775
38 FC6 10 5.798
38 FC6 11 5.310
38 FC6 12 5.310
38 FC6 13 5.798
38 FC6 14 6.287
38 FC6 15 5.798
38 FC6 16 5.310
38 FC6 17 3.845
38 FC6 18 2.869
38 FC6 19 1.892
38 FC6 20 1.404
38 FC6 21 0.427
38 FC6 22 -0.549
38 FC6 23 -2.014
38 FC6 24 -2.014
38 FC6 25 -1.038
38 FC6 26 0.427
38 FC6 27 1.892
38 FC6 28 1.892
38 FC6 29 0.916
38 FC6 30 -0.061
38 FC6 31 -1.038
38 FC6 32 -0.061
38 FC6 33 1.892
38 FC6 34 3.357
38 FC6 35 3.845
38 FC6 36 3.357
38 FC6 37 2.869
38 FC6 38 1.892
38 FC6 39 1.892
38 FC6 40 2.380
38 FC6 41 2.869
38 FC6 42 2.869
38 FC6 43 2.380
38 FC6 44 1.892
38 FC6 45 1.404
38 FC6 46 1.404
38 FC6 47 0.916
38 FC6 48 0.427
38 FC6 49 0.427
38 FC6 50 0.427
38 FC6 51 1.404
38 FC6 52 1.404
38 FC6 53 1.892
38 FC6 54 1.892
38 FC6 55 1.404
38 FC6 56 1.892
38 FC6 57 2.869
38 FC6 58 4.333
38 FC6 59 5.310
38 FC6 60 5.310
38 FC6 61 4.333
38 FC6 62 2.869
38 FC6 63 1.404
38 FC6 64 -0.061
38 FC6 65 -1.038
38 FC6 66 -1.526
38 FC6 67 -2.014
38 FC6 68 -2.014
38 FC6 69 -2.014
38 FC6 70 -2.014
38 FC6 71 -2.502
38 FC6 72 -2.991
38 FC6 73 -3.479
38 FC6 74 -2.502
38 FC6 75 -1.038
38 FC6 76 1.404
38 FC6 77 3.357
38 FC6 78 4.822
38 FC6 79 4.822
38 FC6 80 3.845
38 FC6 81 2.869
38 FC6 82 1.892
38 FC6 83 1.404
38 FC6 84 1.404
38 FC6 85 2.380
38 FC6 86 3.357
38 FC6 87 3.845
38 FC6 88 4.333
38 FC6 89 3.845
38 FC6 90 2.869
38 FC6 91 1.892
38 FC6 92 0.916
38 FC6 93 0.427
38 FC6 94 0.427
38 FC6 95 0.916
38 FC6 96 0.916
38 FC6 97 0.916
38 FC6 98 0.916
38 FC6 99 0.916
38 FC6 100 1.892
38 FC6 101 2.380
38 FC6 102 1.892
38 FC6 103 0.916
38 FC6 104 -1.038
38 FC6 105 -2.014
38 FC6 106 -1.526
38 FC6 107 0.427
38 FC6 108 2.380
38 FC6 109 3.357
38 FC6 110 3.845
38 FC6 111 3.845
38 FC6 112 3.845
38 FC6 113 3.357
38 FC6 114 2.869
38 FC6 115 1.892
38 FC6 116 0.916
38 FC6 117 -0.061
38 FC6 118 -0.061
38 FC6 119 0.427
38 FC6 120 0.916
38 FC6 121 0.916
38 FC6 122 1.404
38 FC6 123 1.892
38 FC6 124 2.869
38 FC6 125 3.845
38 FC6 126 3.845
38 FC6 127 3.845
38 FC6 128 2.869
38 FC6 129 2.869
38 FC6 130 2.869
38 FC6 131 3.845
38 FC6 132 3.845
38 FC6 133 2.380
38 FC6 134 0.427
38 FC6 135 -2.014
38 FC6 136 -3.479
38 FC6 137 -4.456
38 FC6 138 -4.944
38 FC6 139 -5.920
38 FC6 140 -5.920
38 FC6 141 -5.432
38 FC6 142 -2.991
38 FC6 143 0.427
38 FC6 144 3.845
38 FC6 145 6.287
38 FC6 146 6.287
38 FC6 147 5.310
38 FC6 148 3.357
38 FC6 149 1.404
38 FC6 150 -0.061
38 FC6 151 -1.526
38 FC6 152 -2.014
38 FC6 153 -2.502
38 FC6 154 -2.014
38 FC6 155 -1.038
38 FC6 156 -0.061
38 FC6 157 1.892
38 FC6 158 3.357
38 FC6 159 4.333
38 FC6 160 5.310
38 FC6 161 5.310
38 FC6 162 4.333
38 FC6 163 2.380
38 FC6 164 -0.549
38 FC6 165 -2.991
38 FC6 166 -4.944
38 FC6 167 -4.944
38 FC6 168 -3.967
38 FC6 169 -2.014
38 FC6 170 0.916
38 FC6 171 3.357
38 FC6 172 4.822
38 FC6 173 3.845
38 FC6 174 1.892
38 FC6 175 -1.038
38 FC6 176 -3.479
38 FC6 177 -4.456
38 FC6 178 -4.944
38 FC6 179 -5.432
38 FC6 180 -6.409
38 FC6 181 -7.385
38 FC6 182 -8.850
38 FC6 183 -9.338
38 FC6 184 -9.338
38 FC6 185 -8.850
38 FC6 186 -8.850
38 FC6 187 -8.850
38 FC6 188 -8.362
38 FC6 189 -6.897
38 FC6 190 -3.967
38 FC6 191 -0.549
38 FC6 192 1.404
38 FC6 193 2.380
38 FC6 194 1.404
38 FC6 195 -0.061
38 FC6 196 -1.038
38 FC6 197 -1.526
38 FC6 198 -2.014
38 FC6 199 -2.991
38 FC6 200 -3.967
38 FC6 201 -4.944
38 FC6 202 -4.456
38 FC6 203 -3.479
38 FC6 204 -1.526
38 FC6 205 -0.549
38 FC6 206 -0.061
38 FC6 207 -0.549
38 FC6 208 -1.038
38 FC6 209 -1.038
38 FC6 210 -1.526
38 FC6 211 -2.502
38 FC6 212 -3.967
38 FC6 213 -5.432
38 FC6 214 -5.920
38 FC6 215 -5.432
38 FC6 216 -4.456
38 FC6 217 -3.479
38 FC6 218 -3.479
38 FC6 219 -3.967
38 FC6 220 -4.456
38 FC6 221 -4.456
38 FC6 222 -4.456
38 FC6 223 -5.432
38 FC6 224 -6.897
38 FC6 225 -7.874
38 FC6 226 -8.362
38 FC6 227 -7.874
38 FC6 228 -6.897
38 FC6 229 -4.944
38 FC6 230 -3.479
38 FC6 231 -2.014
38 FC6 232 -0.549
38 FC6 233 0.916
38 FC6 234 1.892
38 FC6 235 1.892
38 FC6 236 0.427
38 FC6 237 -1.526
38 FC6 238 -2.991
38 FC6 239 -3.967
38 FC6 240 -3.479
38 FC6 241 -2.014
38 FC6 242 -1.038
38 FC6 243 -0.061
38 FC6 244 -0.061
38 FC6 245 0.427
38 FC6 246 0.427
38 FC6 247 -0.061
38 FC6 248 -1.038
38 FC6 249 -2.502
38 FC6 250 -3.479
38 FC6 251 -3.479
38 FC6 252 -2.502
38 FC6 253 -0.549
38 FC6 254 0.916
38 FC6 255 0.427
# FC5 chan 10
38 FC5 0 2.675
38 FC5 1 3.164
38 FC5 2 2.675
38 FC5 3 2.675
38 FC5 4 2.187
38 FC5 5 2.187
38 FC5 6 2.187
38 FC5 7 2.675
38 FC5 8 3.164
38 FC5 9 3.652
38 FC5 10 4.140
38 FC5 11 4.140
38 FC5 12 3.652
38 FC5 13 2.675
38 FC5 14 2.187
38 FC5 15 2.187
38 FC5 16 3.164
38 FC5 17 3.652
38 FC5 18 3.652
38 FC5 19 3.164
38 FC5 20 1.211
38 FC5 21 -1.231
38 FC5 22 -2.696
38 FC5 23 -3.184
38 FC5 24 -2.696
38 FC5 25 -1.231
38 FC5 26 -0.254
38 FC5 27 0.722
38 FC5 28 0.722
38 FC5 29 0.722
38 FC5 30 0.234
38 FC5 31 0.234
38 FC5 32 0.722
38 FC5 33 1.211
38 FC5 34 0.722
38 FC5 35 0.234
38 FC5 36 -0.254
38 FC5 37 -0.743
38 FC5 38 -1.231
38 FC5 39 -1.231
38 FC5 40 -2.207
38 FC5 41 -3.672
38 FC5 42 -5.137
38 FC5 43 -6.602
38 FC5 44 -7.090
38 FC5 45 -7.090
38 FC5 46 -5.625
38 FC5 47 -4.649
38 FC5 48 -4.161
38 FC5 49 -3.672
38 FC5 50 -3.184
38 FC5 51 -2.207
38 FC5 52 -1.719
38 FC5 53 -1.231
38 FC5 54 -0.743
38 FC5 55 -0.254
38 FC5 56 0.234
38 FC5 57 0.722
38 FC5 58 0.722
38 FC5 59 -0.254
38 FC5 60 -2.207
38 FC5 61 -4.161
38 FC5 62 -5.137
38 FC5 63 -5.137
38 FC5 64 -4.649
38 FC5 65 -3.672
38 FC5 66 -2.696
38 FC5 67 -1.231
38 FC5 68 0.234
38 FC5 69 2.187
38 FC5 70 3.164
38 FC5 71 3.164
38 FC5 72 2.675
38 FC5 73 2.187
38 FC5 74 2.187
38 FC5 75 2.675
38 FC5 76 2.187
38 FC5 77 1.699
38 FC5 78 0.722
38 FC5 79 -0.254
38 FC5 80 0.234
38 FC5 81 2.187
38 FC5 82 4.628
38 FC5 83 6.582
38 FC5 84 7.558
38 FC5 85 7.070
38 FC5 86 6.093
38 FC5 87 5.117
38 FC5 88 5.117
38 FC5 89 4.628
38 FC5 90 4.140
38 FC5 91 3.164
38 FC5 92 1.699
38 FC5 93 1.699
38 FC5 94 2.187
38 FC5 95 3.164
38 FC5 96 3.164
38 FC5 97 2.187
38 FC5 98 0.722
38 FC5 99 -0.743
38 FC5 100 -1.231
38 FC5 101 -1.231
38 FC5 102 -1.231
38 FC5 103 -1.719
38 FC5 104 -2.696
38 FC5 105 -2.696
38 FC5 106 -1.231
38 FC5 107 1.699
38 FC5 108 4.140
38 FC5 109 6.093
38 FC5 110 7.070
38 FC5 111 7.070
38 FC5 112 6.582
38 FC5 113 5.605
38 FC5 114 4.140
38 FC5 115 3.164
38 FC5 116 2.187
38 FC5 117 1.699
38 FC5 118 2.187
38 FC5 119 2.675
38 FC5 120 3.164
38 FC5 121 3.652
38 FC5 122 3.652
38 FC5 123 3.652
38 FC5 124 3.164
38 FC5 125 2.187
38 FC5 126 0.722
38 FC5 127 -1.231
38 FC5 128 -2.207
38 FC5 129 -2.207
38 FC5 130 -1.231
38 FC5 131 -0.254
38 FC5 132 0.234
38 FC5 133 -0.254
38 FC5 134 -0.743
38 FC5 135 -0.743
38 FC5 136 0.234
38 FC5 137 1.699
38 FC5 138 2.187
38 FC5 139 1.699
38 FC5 140 0.722
38 FC5 141 -0.254
38 FC5 142 -0.254
38 FC5 143 0.722
38 FC5 144 1.699
38 FC5 145 2.187
38 FC5 146 2.187
38 FC5 147 2.187
38 FC5 148 2.187
38 FC5 149 3.164
38 FC5 150 3.164
38 FC5 151 2.187
38 FC5 152 0.234
38 FC5 153 -2.207
38 FC5 154 -3.672
38 FC5 155 -3.672
38 FC5 156 -2.696
38 FC5 157 -1.719
38 FC5 158 -0.743
38 FC5 159 0.234
38 FC5 160 1.211
38 FC5 161 3.164
38 FC5 162 5.605
38 FC5 163 8.046
38 FC5 164 9.511
38 FC5 165 10.488
38 FC5 166 10.976
38 FC5 167 11.953
38 FC5 168 12.929
38 FC5 169 12.929
38 FC5 170 11.953
38 FC5 171 9.511
38 FC5 172 5.605
38 FC5 173 1.699
38 FC5 174 -2.207
38 FC5 175 -5.625
38 FC5 176 -7.579
38 FC5 177 -9.043
38 FC5 178 -9.043
38 FC5 179 -8.067
38 FC5 180 -6.114
38 FC5 181 -4.161
38 FC5 182 -1.719
38 FC5 183 1.211
38 FC5 184 3.652
38 FC5 185 6.582
38 FC5 186 9.023
38 FC5 187 10.488
38 FC5 188 11.464
38 FC5 189 10.976
38 FC5 190 10.000
38 FC5 191 8.535
38 FC5 192 6.093
38 FC5 193 3.652
38 FC5 194 1.211
38 FC5 195 -0.743
38 FC5 196 -2.207
38 FC5 197 -2.696
38 FC5 198 -2.207
38 FC5 199 -1.231
38 FC5 200 -0.743
38 FC5 201 -0.743
38 FC5 202 -0.254
38 FC5 203 0.234
38 FC5 204 1.211
38 FC5 205 2.187
38 FC5 206 2.187
38 FC5 207 1.211
38 FC5 208 -1.231
38 FC5 209 -3.672
38 FC5 210 -5.137
38 FC5 211 -5.137
38 FC5 212 -4.649
38 FC5 213 -4.161
38 FC5 214 -4.161
38 FC5 215 -4.649
38 FC5 216 -5.137
38 FC5 217 -3.672
38 FC5 218 -2.696
38 FC5 219 -1.231
38 FC5 220 -0.254
38 FC5 221 -0.743
38 FC5 222 -2.207
38 FC5 223 -3.184
38 FC5 224 -3.672
38 FC5 225 -4.161
38 FC5 226 -3.672
38 FC5 227 -3.672
38 FC5 228 -3.184
38 FC5 229 -2.696
38 FC5 230 -1.231
38 FC5 231 0.234
38 FC5 232 0.722
38 FC5 233 0.234
38 FC5 234 -1.231
38 FC5 235 -2.696
38 FC5 236 -3.672
38 FC5 237 -3.672
38 FC5 238 -2.696
38 FC5 239 -1.231
38 FC5 240 1.211
38 FC5 241 3.652
38 FC5 242 5.117
38 FC5 243 6.582
38 FC5 244 6.093
38 FC5 245 5.117
38 FC5 246 3.164
38 FC5 247 1.699
38 FC5 248 0.722
38 FC5 249 0.234
38 FC5 250 0.234
38 FC5 251 0.234
38 FC5 252 0.722
38 FC5 253 1.211
38 FC5 254 2.675
38 FC5 255 4.628
# FC2 chan 11
38 FC2 0 0.102
38 FC2 1 0.102
38 FC2 2 1.078
38 FC2 3 2.055
38 FC2 4 2.055
38 FC2 5 2.055
38 FC2 6 2.055
38 FC2 7 2.055
38 FC2 8 2.055
38 FC2 9 2.055
38 FC2 10 2.055
38 FC2 11 1.567
38 FC2 12 1.567
38 FC2 13 2.055
38 FC2 14 2.543
38 FC2 15 3.031
38 FC2 16 3.031
38 FC2 17 2.543
38 FC2 18 2.055
38 FC2 19 1.078
38 FC2 20 0.590
38 FC2 21 0.102
38 FC2 22 -0.387
38 FC2 23 -0.875
38 FC2 24 -1.363
38 FC2 25 -1.363
38 FC2 26 -0.875
38 FC2 27 -0.387
38 FC2 28 0.102
38 FC2 29 0.590
38 FC2 30 0.590
38 FC2 31 0.102
38 FC2 32 -0.387
38 FC2 33 -0.387
38 FC2 34 0.102
38 FC2 35 0.590
38 FC2 36 1.078
38 FC2 37 1.078
38 FC2 38 0.590
38 FC2 39 0.590
38 FC2 40 1.078
38 FC2 41 1.078
38 FC2 42 0.590
38 FC2 43 0.590
38 FC2 44 0.102
38 FC2 45 0.590
38 FC2 46 1.078
38 FC2 47 1.078
38 FC2 48 1.078
38 FC2 49 0.590
38 FC2 50 0.102
38 FC2 51 0.590
38 FC2 52 1.567
38 FC2 53 2.055
38 FC2 54 2.055
38 FC2 55 1.567
38 FC2 56 1.078
38 FC2 57 0.590
38 FC2 58 1.078
38 FC2 59 1.078
38 FC2 60 1.567
38 FC2 61 0.590
38 FC2 62 -0.387
38 FC2 63 -1.851
38 FC2 64 -1.851
38 FC2 65 -1.851
38 FC2 66 -1.363
38 FC2 67 -1.363
38 FC2 68 -1.363
38 FC2 69 -1.851
38 FC2 70 -1.363
38 FC2 71 -1.363
38 FC2 72 -0.875
38 FC2 73 -0.875
38 FC2 74 -0.875
38 FC2 75 -0.387
38 FC2 76 0.102
38 FC2 77 1.567
38 FC2 78 2.543
38 FC2 79 3.031
38 FC2 80 2.543
38 FC2 81 2.055
38 FC2 82 1.567
38 FC2 83 1.078
38 FC2 84 1.567
38 FC2 85 2.055
38 FC2 86 2.055
38 FC2 87 2.055
38 FC2 88 2.055
38 FC2 89 1.567
38 FC2 90 1.567
38 FC2 91 1.078
38 FC2 92 0.590
38 FC2 93 0.102
38 FC2 94 0.102
38 FC2 95 0.590
38 FC2 96 1.078
38 FC2 97 1.567
38 FC2 98 2.055
38 FC2 99 1.567
38 FC2 100 1.567
38 FC2 101 1.078
38 FC2 102 0.590
38 FC2 103 0.102
38 FC2 104 -0.875
38 FC2 105 -1.363
38 FC2 106 -1.363
38 FC2 107 -0.875
38 FC2 108 0.102
38 FC2 109 0.590
38 FC2 110 1.078
38 FC2 111 1.567
38 FC2 112 2.055
38 FC2 113 2.055
38 FC2 114 1.567
38 FC2 115 0.590
38 FC2 116 -0.875
38 FC2 117 -1.851
38 FC2 118 -1.851
38 FC2 119 -1.363
38 FC2 120 -0.387
38 FC2 121 0.102
38 FC2 122 0.590
38 FC2 123 1.567
38 FC2 124 2.543
38 FC2 125 3.520
38 FC2 126 4.008
38 FC2 127 3.520
38 FC2 128 3.031
38 FC2 129 3.031
38 FC2 130 3.031
38 FC2 131 3.520
38 FC2 132 3.520
38 FC2 133 2.543
38 FC2 134 1.078
38 FC2 135 -0.387
38 FC2 136 -1.363
38 FC2 137 -1.851
38 FC2 138 -1.851
38 FC2 139 -1.851
38 FC2 140 -1.363
38 FC2 141 -0.875
38 FC2 142 -0.387
38 FC2 143 1.078
38 FC2 144 1.567
38 FC2 145 2.055
38 FC2 146 2.055
38 FC2 147 2.055
38 FC2 148 1.567
38 FC2 149 2.055
38 FC2 150 2.055
38 FC2 151 2.543
38 FC2 152 2.543
38 FC2 153 2.055
38 FC2 154 2.543
38 FC2 155 2.543
38 FC2 156 2.543
38 FC2 157 2.055
38 FC2 158 1.567
38 FC2 159 1.078
38 FC2 160 1.078
38 FC2 161 0.590
38 FC2 162 0.102
38 FC2 163 -0.875
38 FC2 164 -1.363
38 FC2 165 -1.363
38 FC2 166 -0.875
38 FC2 167 0.590
38 FC2 168 2.543
38 FC2 169 4.008
38 FC2 170 5.473
38 FC2 171 6.449
38 FC2 172 5.961
38 FC2 173 4.496
38 FC2 174 2.543
38 FC2 175 0.590
38 FC2 176 -1.363
38 FC2 177 -2.828
38 FC2 178 -3.316
38 FC2 179 -3.316
38 FC2 180 -3.805
38 FC2 181 -4.781
38 FC2 182 -5.269
38 FC2 183 -5.758
38 FC2 184 -5.269
38 FC2 185 -3.805
38 FC2 186 -2.828
38 FC2 187 -1.363
38 FC2 188 -0.875
38 FC2 189 -0.387
38 FC2 190 -0.387
38 FC2 191 0.102
38 FC2 192 0.102
38 FC2 193 0.590
38 FC2 194 0.590
38 FC2 195 0.590
38 FC2 196 0.102
38 FC2 197 -0.387
38 FC2 198 -0.387
38 FC2 199 -0.875
38 FC2 200 -0.875
38 FC2 201 -0.387
38 FC2 202 -0.387
38 FC2 203 0.102
38 FC2 204 1.078
38 FC2 205 1.078
38 FC2 206 0.590
38 FC2 207 0.102
38 FC2 208 -0.387
38 FC2 209 -0.875
38 FC2 210 -1.363
38 FC2 211 -2.340
38 FC2 212 -3.316
38 FC2 213 -3.805
38 FC2 214 -3.805
38 FC2 215 -3.805
38 FC2 216 -2.828
38 FC2 217 -1.851
38 FC2 218 -1.363
38 FC2 219 -0.875
38 FC2 220 -1.363
38 FC2 221 -1.363
38 FC2 222 -1.851
38 FC2 223 -2.828
38 FC2 224 -3.805
38 FC2 225 -5.269
38 FC2 226 -6.246
38 FC2 227 -6.246
38 FC2 228 -5.269
38 FC2 229 -4.293
38 FC2 230 -2.828
38 FC2 231 -1.851
38 FC2 232 -0.387
38 FC2 233 0.102
38 FC2 234 0.590
38 FC2 235 0.590
38 FC2 236 0.102
38 FC2 237 -0.875
38 FC2 238 -0.875
38 FC2 239 -0.875
38 FC2 240 -0.387
38 FC2 241 0.102
38 FC2 242 0.590
38 FC2 243 0.590
38 FC2 244 0.590
38 FC2 245 1.078
38 FC2 246 1.078
38 FC2 247 0.590
38 FC2 248 -0.387
38 FC2 249 -1.363
38 FC2 250 -1.851
38 FC2 251 -2.340
38 FC2 252 -1.851
38 FC2 253 -0.875
38 FC2 254 0.102
38 FC2 255 1.078
# FC1 chan 12
38 FC1 0 1.862
38 FC1 1 1.862
38 FC1 2 1.862
38 FC1 3 2.350
38 FC1 4 2.350
38 FC1 5 2.350
38 FC1 6 1.862
38 FC1 7 1.373
38 FC1 8 1.373
38 FC1 9 1.373
38 FC1 10 1.373
38 FC1 11 0.885
38 FC1 12 0.885
38 FC1 13 0.885
38 FC1 14 0.885
38 FC1 15 1.373
38 FC1 16 1.373
38 FC1 17 1.862
38 FC1 18 1.862
38 FC1 19 1.373
38 FC1 20 0.885
38 FC1 21 0.397
38 FC1 22 -0.580
38 FC1 23 -0.580
38 FC1 24 -1.068
38 FC1 25 -1.068
38 FC1 26 -0.580
38 FC1 27 -0.092
38 FC1 28 0.397
38 FC1 29 0.397
38 FC1 30 0.397
38 FC1 31 -0.092
38 FC1 32 -0.580
38 FC1 33 -1.068
38 FC1 34 -1.068
38 FC1 35 -0.580
38 FC1 36 -0.092
38 FC1 37 0.885
38 FC1 38 0.885
38 FC1 39 0.397
38 FC1 40 -0.092
38 FC1 41 -1.068
38 FC1 42 -1.556
38 FC1 43 -2.045
38 FC1 44 -2.045
38 FC1 45 -1.556
38 FC1 46 -0.580
38 FC1 47 -0.092
38 FC1 48 -0.580
38 FC1 49 -0.580
38 FC1 50 -0.580
38 FC1 51 -0.580
38 FC1 52 -0.092
38 FC1 53 0.885
38 FC1 54 1.373
38 FC1 55 1.373
38 FC1 56 0.885
38 FC1 57 0.397
38 FC1 58 -0.092
38 FC1 59 -0.580
38 FC1 60 -1.556
38 FC1 61 -2.045
38 FC1 62 -3.021
38 FC1 63 -3.510
38 FC1 64 -3.021
38 FC1 65 -3.021
38 FC1 66 -2.533
38 FC1 67 -2.045
38 FC1 68 -1.068
38 FC1 69 -0.580
38 FC1 70 0.397
38 FC1 71 0.885
38 FC1 72 1.373
38 FC1 73 0.885
38 FC1 74 0.397
38 FC1 75 0.397
38 FC1 76 0.397
38 FC1 77 0.885
38 FC1 78 0.885
38 FC1 79 0.885
38 FC1 80 1.373
38 FC1 81 1.373
38 FC1 82 2.350
38 FC1 83 3.326
38 FC1 84 3.815
38 FC1 85 4.303
38 FC1 86 3.815
38 FC1 87 3.326
38 FC1 88 2.838
38 FC1 89 1.862
38 FC1 90 0.885
38 FC1 91 0.397
38 FC1 92 -0.580
38 FC1 93 -0.580
38 FC1 94 -0.092
38 FC1 95 0.885
38 FC1 96 1.373
38 FC1 97 0.885
38 FC1 98 0.885
38 FC1 99 0.397
38 FC1 100 0.397
38 FC1 101 0.397
38 FC1 102 -0.092
38 FC1 103 -0.580
38 FC1 104 -1.556
38 FC1 105 -2.045
38 FC1 106 -1.556
38 FC1 107 -0.580
38 FC1 108 0.885
38 FC1 109 1.862
38 FC1 110 2.838
38 FC1 111 3.326
38 FC1 112 3.326
38 FC1 113 2.838
38 FC1 114 1.862
38 FC1 115 0.397
38 FC1 116 -1.068
38 FC1 117 -2.533
38 FC1 118 -2.533
38 FC1 119 -2.045
38 FC1 120 -0.580
38 FC1 121 0.397
38 FC1 122 1.862
38 FC1 123 2.350
38 FC1 124 2.838
38 FC1 125 3.326
38 FC1 126 2.838
38 FC1 127 2.838
38 FC1 128 2.350
38 FC1 129 2.350
38 FC1 130 2.350
38 FC1 131 2.350
38 FC1 132 1.862
38 FC1 133 1.373
38 FC1 134 0.885
38 FC1 135 0.397
38 FC1 136 -0.092
38 FC1 137 -0.092
38 FC1 138 -0.092
38 FC1 139 -0.092
38 FC1 140 -0.092
38 FC1 141 -0.092
38 FC1 142 -0.092
38 FC1 143 -0.092
38 FC1 144 0.397
38 FC1 145 0.885
38 FC1 146 0.885
38 FC1 147 0.885
38 FC1 148 1.862
38 FC1 149 2.350
38 FC1 150 3.326
38 FC1 151 3.326
38 FC1 152 3.326
38 FC1 153 2.350
38 FC1 154 1.373
38 FC1 155 0.397
38 FC1 156 -0.092
38 FC1 157 -0.580
38 FC1 158 -0.580
38 FC1 159 -0.580
38 FC1 160 -0.580
38 FC1 161 -0.092
38 FC1 162 0.885
38 FC1 163 1.373
38 FC1 164 2.838
38 FC1 165 3.815
38 FC1 166 5.280
38 FC1 167 6.744
38 FC1 168 7.721
38 FC1 169 8.209
38 FC1 170 7.721
38 FC1 171 6.744
38 FC1 172 4.791
38 FC1 173 2.838
38 FC1 174 0.397
38 FC1 175 -1.556
38 FC1 176 -2.533
38 FC1 177 -3.998
38 FC1 178 -4.486
38 FC1 179 -4.486
38 FC1 180 -4.486
38 FC1 181 -3.510
38 FC1 182 -3.021
38 FC1 183 -2.045
38 FC1 184 -0.580
38 FC1 185 1.862
38 FC1 186 4.303
38 FC1 187 5.768
38 FC1 188 6.744
38 FC1 189 6.256
38 FC1 190 4.791
38 FC1 191 3.326
38 FC1 192 1.862
38 FC1 193 0.397
38 FC1 194 -1.068
38 FC1 195 -2.045
38 FC1 196 -3.021
38 FC1 197 -2.533
38 FC1 198 -2.045
38 FC1 199 -0.580
38 FC1 200 0.885
38 FC1 201 1.862
38 FC1 202 2.350
38 FC1 203 2.838
38 FC1 204 3.326
38 FC1 205 3.326
38 FC1 206 3.326
38 FC1 207 2.350
38 FC1 208 0.397
38 FC1 209 -1.556
38 FC1 210 -3.021
38 FC1 211 -4.486
38 FC1 212 -4.974
38 FC1 213 -4.974
38 FC1 214 -5.463
38 FC1 215 -5.463
38 FC1 216 -4.974
38 FC1 217 -3.998
38 FC1 218 -3.021
38 FC1 219 -1.556
38 FC1 220 -0.580
38 FC1 221 0.397
38 FC1 222 -0.092
38 FC1 223 -1.068
38 FC1 224 -2.533
38 FC1 225 -4.486
38 FC1 226 -5.951
38 FC1 227 -6.439
38 FC1 228 -5.951
38 FC1 229 -4.486
38 FC1 230 -3.021
38 FC1 231 -1.556
38 FC1 232 -0.580
38 FC1 233 -0.092
38 FC1 234 0.397
38 FC1 235 -0.092
38 FC1 236 -1.068
38 FC1 237 -1.068
38 FC1 238 -1.556
38 FC1 239 -0.580
38 FC1 240 0.397
38 FC1 241 1.862
38 FC1 242 2.838
38 FC1 243 3.815
38 FC1 244 3.815
38 FC1 245 3.326
38 FC1 246 2.350
38 FC1 247 1.373
38 FC1 248 -0.092
38 FC1 249 -1.556
38 FC1 250 -3.021
38 FC1 251 -3.998
38 FC1 252 -3.510
38 FC1 253 -2.533
38 FC1 254 -0.580
38 FC1 255 1.373
# T8 chan 13
38 T8 0 -6.042
38 T8 1 -4.578
38 T8 2 -2.136
38 T8 3 0.305
38 T8 4 2.747
38 T8 5 4.700
38 T8 6 7.141
38 T8 7 9.094
38 T8 8 10.559
38 T8 9 11.047
38 T8 10 10.559
38 T8 11 9.583
38 T8 12 8.606
38 T8 13 8.606
38 T8 14 9.094
38 T8 15 9.094
38 T8 16 8.606
38 T8 17 6.165
38 T8 18 3.723
38 T8 19 2.258
38 T8 20 1.282
38 T8 21 1.282
38 T8 22 0.793
38 T8 23 -0.183
38 T8 24 -1.160
38 T8 25 -1.160
38 T8 26 -0.183
38 T8 27 1.282
38 T8 28 1.770
38 T8 29 1.282
38 T8 30 0.305
38 T8 31 -0.183
38 T8 32 0.793
38 T8 33 3.235
38 T8 34 5.676
38 T8 35 6.653
38 T8 36 6.165
38 T8 37 4.700
38 T8 38 3.235
38 T8 39 2.747
38 T8 40 3.235
38 T8 41 4.700
38 T8 42 4.700
38 T8 43 4.211
38 T8 44 3.235
38 T8 45 1.770
38 T8 46 0.305
38 T8 47 -0.671
38 T8 48 -1.648
38 T8 49 -2.136
38 T8 50 -2.625
38 T8 51 -3.113
38 T8 52 -3.113
38 T8 53 -3.601
38 T8 54 -3.113
38 T8 55 -2.625
38 T8 56 -1.160
38 T8 57 0.793
38 T8 58 3.235
38 T8 59 5.188
38 T8 60 6.165
38 T8 61 6.165
38 T8 62 5.188
38 T8 63 3.235
38 T8 64 0.793
38 T8 65 -0.671
38 T8 66 -1.160
38 T8 67 -0.183
38 T8 68 -0.183
38 T8 69 -0.671
38 T8 70 -2.136
38 T8 71 -4.089
38 T8 72 -5.066
38 T8 73 -5.554
38 T8 74 -4.578
38 T8 75 -2.625
38 T8 76 -1.160
38 T8 77 -0.183
38 T8 78 1.282
38 T8 79 2.258
38 T8 80 3.235
38 T8 81 3.723
38 T8 82 3.235
38 T8 83 2.258
38 T8 84 0.793
38 T8 85 0.793
38 T8 86 1.282
38 T8 87 2.258
38 T8 88 2.747
38 T8 89 3.235
38 T8 90 2.747
38 T8 91 2.747
38 T8 92 3.235
38 T8 93 3.235
38 T8 94 3.235
38 T8 95 2.747
38 T8 96 1.770
38 T8 97 -0.183
38 T8 98 -1.160
38 T8 99 -2.136
38 T8 100 -2.625
38 T8 101 -2.625
38 T8 102 -2.625
38 T8 103 -2.625
38 T8 104 -1.648
38 T8 105 -0.183
38 T8 106 1.282
38 T8 107 2.747
38 T8 108 3.723
38 T8 109 4.700
38 T8 110 5.676
38 T8 111 6.165
38 T8 112 6.165
38 T8 113 4.700
38 T8 114 2.747
38 T8 115 1.770
38 T8 116 1.770
38 T8 117 2.747
38 T8 118 3.723
38 T8 119 4.211
38 T8 120 2.747
38 T8 121 1.282
38 T8 122 0.305
38 T8 123 0.305
38 T8 124 1.282
38 T8 125 2.258
38 T8 126 1.770
38 T8 127 0.305
38 T8 128 -0.183
38 T8 129 -0.183
38 T8 130 1.282
38 T8 131 2.747
38 T8 132 3.235
38 T8 133 1.770
38 T8 134 -0.671
38 T8 135 -3.113
38 T8 136 -4.578
38 T8 137 -4.578
38 T8 138 -4.578
38 T8 139 -4.578
38 T8 140 -4.089
38 T8 141 -3.113
38 T8 142 -1.160
38 T8 143 1.282
38 T8 144 2.747
38 T8 145 3.723
38 T8 146 3.235
38 T8 147 2.258
38 T8 148 1.282
38 T8 149 0.305
38 T8 150 -1.648
38 T8 151 -3.601
38 T8 152 -5.554
38 T8 153 -7.507
38 T8 154 -7.507
38 T8 155 -5.554
38 T8 156 -2.136
38 T8 157 2.258
38 T8 158 6.165
38 T8 159 8.606
38 T8 160 9.583
38 T8 161 9.583
38 T8 162 8.606
38 T8 163 7.141
38 T8 164 5.676
38 T8 165 2.747
38 T8 166 -1.160
38 T8 167 -5.554
38 T8 168 -8.484
38 T8 169 -9.949
38 T8 170 -8.484
38 T8 171 -5.554
38 T8 172 -3.113
38 T8 173 -1.160
38 T8 174 -1.648
38 T8 175 -2.625
38 T8 176 -3.601
38 T8 177 -3.601
38 T8 178 -2.625
38 T8 179 -2.136
38 T8 180 -2.136
38 T8 181 -2.625
38 T8 182 -4.089
38 T8 183 -5.554
38 T8 184 -7.019
38 T8 185 -8.972
38 T8 186 -11.902
38 T8 187 -14.832
38 T8 188 -15.808
38 T8 189 -14.832
38 T8 190 -11.414
38 T8 191 -7.507
38 T8 192 -4.578
38 T8 193 -3.113
38 T8 194 -2.625
38 T8 195 -2.136
38 T8 196 -2.136
38 T8 197 -1.648
38 T8 198 -2.625
38 T8 199 -3.601
38 T8 200 -4.578
38 T8 201 -4.578
38 T8 202 -3.601
38 T8 203 -2.136
38 T8 204 -1.648
38 T8 205 -2.136
38 T8 206 -3.113
38 T8 207 -3.113
38 T8 208 -2.136
38 T8 209 -1.160
38 T8 210 -0.671
38 T8 211 -1.648
38 T8 212 -3.113
38 T8 213 -5.066
38 T8 214 -5.554
38 T8 215 -5.066
38 T8 216 -4.578
38 T8 217 -4.578
38 T8 218 -5.554
38 T8 219 -7.019
38 T8 220 -7.996
38 T8 221 -8.484
38 T8 222 -8.484
38 T8 223 -8.484
38 T8 224 -8.972
38 T8 225 -9.460
38 T8 226 -9.949
38 T8 227 -8.972
38 T8 228 -7.507
38 T8 229 -6.042
38 T8 230 -5.066
38 T8 231 -4.089
38 T8 232 -3.113
38 T8 233 -1.648
38 T8 234 -0.671
38 T8 235 -0.183
38 T8 236 -0.183
38 T8 237 -1.160
38 T8 238 -2.625
38 T8 239 -4.089
38 T8 240 -4.578
38 T8 241 -4.578
38 T8 242 -4.089
38 T8 243 -2.625
38 T8 244 -1.648
38 T8 245 -1.160
38 T8 246 -1.160
38 T8 247 -2.136
38 T8 248 -3.113
38 T8 249 -4.089
38 T8 250 -4.089
38 T8 251 -4.089
38 T8 252 -2.625
38 T8 253 -1.648
38 T8 254 -0.671
38 T8 255 -1.160
# T7 chan 14
38 T7 0 0.651
38 T7 1 1.139
38 T7 2 1.139
38 T7 3 1.628
38 T7 4 1.628
38 T7 5 1.628
38 T7 6 2.604
38 T7 7 3.581
38 T7 8 5.046
38 T7 9 6.510
38 T7 10 7.975
38 T7 11 7.975
38 T7 12 6.999
38 T7 13 5.534
38 T7 14 4.557
38 T7 15 5.046
38 T7 16 6.022
38 T7 17 6.999
38 T7 18 6.999
38 T7 19 5.534
38 T7 20 3.092
38 T7 21 1.139
38 T7 22 0.163
38 T7 23 0.163
38 T7 24 -0.326
38 T7 25 -0.326
38 T7 26 -0.326
38 T7 27 0.163
38 T7 28 2.116
38 T7 29 4.557
38 T7 30 5.046
38 T7 31 4.069
38 T7 32 1.628
38 T7 33 -0.326
38 T7 34 -0.326
38 T7 35 1.139
38 T7 36 3.092
38 T7 37 3.092
38 T7 38 1.628
38 T7 39 -1.302
38 T7 40 -4.232
38 T7 41 -5.697
38 T7 42 -5.697
38 T7 43 -5.697
38 T7 44 -6.185
38 T7 45 -7.650
38 T7 46 -8.138
38 T7 47 -8.138
38 T7 48 -6.673
38 T7 49 -5.208
38 T7 50 -3.743
38 T7 51 -3.255
38 T7 52 -3.255
38 T7 53 -3.743
38 T7 54 -3.255
38 T7 55 -2.279
38 T7 56 -1.302
38 T7 57 -1.302
38 T7 58 -1.790
38 T7 59 -3.255
38 T7 60 -4.232
38 T7 61 -5.208
38 T7 62 -5.208
38 T7 63 -5.208
38 T7 64 -5.208
38 T7 65 -4.232
38 T7 66 -2.279
38 T7 67 0.651
38 T7 68 3.092
38 T7 69 5.046
38 T7 70 5.046
38 T7 71 4.557
38 T7 72 3.581
38 T7 73 2.604
38 T7 74 2.116
38 T7 75 1.628
38 T7 76 0.651
38 T7 77 -0.814
38 T7 78 -1.302
38 T7 79 -0.814
38 T7 80 0.163
38 T7 81 1.628
38 T7 82 3.092
38 T7 83 3.581
38 T7 84 4.069
38 T7 85 4.557
38 T7 86 5.534
38 T7 87 6.510
38 T7 88 6.999
38 T7 89 6.022
38 T7 90 4.557
38 T7 91 3.581
38 T7 92 3.581
38 T7 93 4.069
38 T7 94 5.046
38 T7 95 4.557
38 T7 96 3.581
38 T7 97 1.139
38 T7 98 -0.814
38 T7 99 -2.767
38 T7 100 -4.232
38 T7 101 -5.208
38 T7 102 -5.697
38 T7 103 -5.697
38 T7 104 -5.208
38 T7 105 -3.255
38 T7 106 -1.302
38 T7 107 1.139
38 T7 108 2.604
38 T7 109 3.581
38 T7 110 4.557
38 T7 111 5.046
38 T7 112 4.557
38 T7 113 4.069
38 T7 114 3.581
38 T7 115 2.604
38 T7 116 2.604
38 T7 117 2.604
38 T7 118 2.604
38 T7 119 3.092
38 T7 120 3.581
38 T7 121 4.069
38 T7 122 3.581
38 T7 123 2.604
38 T7 124 0.163
38 T7 125 -2.767
38 T7 126 -6.185
38 T7 127 -8.626
38 T7 128 -9.603
38 T7 129 -10.091
38 T7 130 -9.603
38 T7 131 -8.626
38 T7 132 -7.650
38 T7 133 -6.673
38 T7 134 -4.720
38 T7 135 -1.790
38 T7 136 0.651
38 T7 137 1.628
38 T7 138 1.139
38 T7 139 -0.326
38 T7 140 -2.279
38 T7 141 -3.255
38 T7 142 -2.279
38 T7 143 -0.326
38 T7 144 2.116
38 T7 145 3.092
38 T7 146 3.581
38 T7 147 3.092
38 T7 148 1.628
38 T7 149 1.139
38 T7 150 -0.326
38 T7 151 -2.279
38 T7 152 -5.208
38 T7 153 -8.138
38 T7 154 -10.091
38 T7 155 -11.556
38 T7 156 -10.579
38 T7 157 -8.138
38 T7 158 -4.720
38 T7 159 -1.790
38 T7 160 1.139
38 T7 161 3.092
38 T7 162 4.557
38 T7 163 6.022
38 T7 164 7.975
38 T7 165 9.440
38 T7 166 10.905
38 T7 167 10.905
38 T7 168 9.928
38 T7 169 8.464
38 T7 170 6.510
38 T7 171 4.557
38 T7 172 1.628
38 T7 173 -1.790
38 T7 174 -6.185
38 T7 175 -11.068
38 T7 176 -15.462
38 T7 177 -17.904
38 T7 178 -17.415
38 T7 179 -14.974
38 T7 180 -11.068
38 T7 181 -6.673
38 T7 182 -3.743
38 T7 183 -1.790
38 T7 184 -0.326
38 T7 185 1.628
38 T7 186 3.581
38 T7 187 5.534
38 T7 188 6.999
38 T7 189 6.999
38 T7 190 6.510
38 T7 191 5.046
38 T7 192 3.581
38 T7 193 1.628
38 T7 194 -0.814
38 T7 195 -4.232
38 T7 196 -7.650
38 T7 197 -9.115
38 T7 198 -9.603
38 T7 199 -8.626
38 T7 200 -8.138
38 T7 201 -8.138
38 T7 202 -8.138
38 T7 203 -8.626
38 T7 204 -8.626
38 T7 205 -7.650
38 T7 206 -7.650
38 T7 207 -8.626
38 T7 208 -10.091
38 T7 209 -12.044
38 T7 210 -12.044
38 T7 211 -10.579
38 T7 212 -8.138
38 T7 213 -5.697
38 T7 214 -4.720
38 T7 215 -4.720
38 T7 216 -4.720
38 T7 217 -3.743
38 T7 218 -2.279
38 T7 219 -1.302
38 T7 220 -1.302
38 T7 221 -3.255
38 T7 222 -6.673
38 T7 223 -8.138
38 T7 224 -8.626
38 T7 225 -7.650
38 T7 226 -4.720
38 T7 227 -2.279
38 T7 228 -1.302
38 T7 229 -0.814
38 T7 230 -1.302
38 T7 231 -2.279
38 T7 232 -3.255
38 T7 233 -4.720
38 T7 234 -6.185
38 T7 235 -8.138
38 T7 236 -9.603
38 T7 237 -10.579
38 T7 238 -10.091
38 T7 239 -8.626
38 T7 240 -5.697
38 T7 241 -2.279
38 T7 242 0.651
38 T7 243 2.116
38 T7 244 1.139
38 T7 245 -1.302
38 T7 246 -3.255
38 T7 247 -4.232
38 T7 248 -4.232
38 T7 249 -3.255
38 T7 250 -2.767
38 T7 251 -2.279
38 T7 252 -2.279
38 T7 253 -0.814
38 T7 254 1.628
38 T7 255 4.069
# CZ chan 15
38 CZ 0 -2.268
38 CZ 1 -1.292
38 CZ 2 -0.804
38 CZ 3 -0.804
38 CZ 4 0.661
38 CZ 5 2.614
38 CZ 6 6.032
38 CZ 7 8.474
38 CZ 8 9.939
38 CZ 9 9.939
38 CZ 10 10.427
38 CZ 11 11.403
38 CZ 12 12.380
38 CZ 13 12.868
38 CZ 14 12.380
38 CZ 15 10.427
38 CZ 16 7.497
38 CZ 17 5.544
38 CZ 18 3.591
38 CZ 19 2.126
38 CZ 20 0.661
38 CZ 21 -1.292
38 CZ 22 -2.757
38 CZ 23 -4.710
38 CZ 24 -5.686
38 CZ 25 -5.686
38 CZ 26 -4.222
38 CZ 27 -1.780
38 CZ 28 0.173
38 CZ 29 2.126
38 CZ 30 4.079
38 CZ 31 5.544
38 CZ 32 7.009
38 CZ 33 7.985
38 CZ 34 7.985
38 CZ 35 7.009
38 CZ 36 5.544
38 CZ 37 4.079
38 CZ 38 3.103
38 CZ 39 2.126
38 CZ 40 1.638
38 CZ 41 1.149
38 CZ 42 0.173
38 CZ 43 -0.804
38 CZ 44 -2.757
38 CZ 45 -4.710
38 CZ 46 -6.663
38 CZ 47 -8.128
38 CZ 48 -9.593
38 CZ 49 -9.593
38 CZ 50 -8.616
38 CZ 51 -7.151
38 CZ 52 -5.686
38 CZ 53 -4.222
38 CZ 54 -3.733
38 CZ 55 -3.733
38 CZ 56 -3.733
38 CZ 57 -3.245
38 CZ 58 -2.268
38 CZ 59 -1.292
38 CZ 60 -0.804
38 CZ 61 -1.780
38 CZ 62 -3.245
38 CZ 63 -5.198
38 CZ 64 -6.175
38 CZ 65 -6.175
38 CZ 66 -4.710
38 CZ 67 -3.733
38 CZ 68 -2.757
38 CZ 69 -2.268
38 CZ 70 -2.268
38 CZ 71 -3.245
38 CZ 72 -5.198
38 CZ 73 -8.128
38 CZ 74 -10.569
38 CZ 75 -10.569
38 CZ 76 -7.640
38 CZ 77 -2.757
38 CZ 78 1.638
38 CZ 79 3.591
38 CZ 80 1.638
38 CZ 81 -0.804
38 CZ 82 -2.757
38 CZ 83 -1.780
38 CZ 84 0.661
38 CZ 85 2.614
38 CZ 86 3.103
38 CZ 87 1.638
38 CZ 88 -1.292
38 CZ 89 -3.733
38 CZ 90 -5.198
38 CZ 91 -6.175
38 CZ 92 -6.175
38 CZ 93 -5.198
38 CZ 94 -4.222
38 CZ 95 -3.733
38 CZ 96 -3.733
38 CZ 97 -4.222
38 CZ 98 -4.710
38 CZ 99 -5.198
38 CZ 100 -4.710
38 CZ 101 -3.245
38 CZ 102 -2.268
38 CZ 103 -2.757
38 CZ 104 -4.222
38 CZ 105 -6.175
38 CZ 106 -6.175
38 CZ 107 -4.222
38 CZ 108 -1.292
38 CZ 109 1.638
38 CZ 110 2.614
38 CZ 111 0.173
38 CZ 112 -3.733
38 CZ 113 -8.128
38 CZ 114 -10.569
38 CZ 115 -10.569
38 CZ 116 -9.593
38 CZ 117 -6.663
38 CZ 118 -4.222
38 CZ 119 -1.292
38 CZ 120 0.661
38 CZ 121 2.126
38 CZ 122 3.103
38 CZ 123 3.103
38 CZ 124 2.126
38 CZ 125 1.149
38 CZ 126 -0.804
38 CZ 127 -3.245
38 CZ 128 -6.175
38 CZ 129 -8.616
38 CZ 130 -10.569
38 CZ 131 -12.034
38 CZ 132 -12.522
38 CZ 133 -13.499
38 CZ 134 -14.476
38 CZ 135 -14.964
38 CZ 136 -15.452
38 CZ 137 -14.964
38 CZ 138 -14.964
38 CZ 139 -14.964
38 CZ 140 -14.964
38 CZ 141 -14.476
38 CZ 142 -13.011
38 CZ 143 -11.058
38 CZ 144 -8.128
38 CZ 145 -5.686
38 CZ 146 -3.245
38 CZ 147 -1.292
38 CZ 148 0.661
38 CZ 149 1.149
38 CZ 150 0.173
38 CZ 151 -3.245
38 CZ 152 -7.640
38 CZ 153 -11.546
38 CZ 154 -13.987
38 CZ 155 -14.476
38 CZ 156 -13.011
38 CZ 157 -10.569
38 CZ 158 -8.128
38 CZ 159 -5.686
38 CZ 160 -2.757
38 CZ 161 0.173
38 CZ 162 3.103
38 CZ 163 5.544
38 CZ 164 7.497
38 CZ 165 8.474
38 CZ 166 7.985
38 CZ 167 6.521
38 CZ 168 4.567
38 CZ 169 1.149
38 CZ 170 -1.780
38 CZ 171 -4.710
38 CZ 172 -7.640
38 CZ 173 -11.058
38 CZ 174 -14.476
38 CZ 175 -17.893
38 CZ 176 -19.358
38 CZ 177 -17.893
38 CZ 178 -14.964
38 CZ 179 -11.058
38 CZ 180 -7.640
38 CZ 181 -5.198
38 CZ 182 -2.757
38 CZ 183 0.173
38 CZ 184 2.126
38 CZ 185 1.638
38 CZ 186 -1.292
38 CZ 187 -6.175
38 CZ 188 -8.128
38 CZ 189 -6.663
38 CZ 190 -1.780
38 CZ 191 3.103
38 CZ 192 5.056
38 CZ 193 3.103
38 CZ 194 -0.804
38 CZ 195 -3.245
38 CZ 196 -3.245
38 CZ 197 -2.757
38 CZ 198 -3.733
38 CZ 199 -6.663
38 CZ 200 -10.081
38 CZ 201 -10.569
38 CZ 202 -8.128
38 CZ 203 -3.733
38 CZ 204 -0.315
38 CZ 205 0.173
38 CZ 206 -2.268
38 CZ 207 -4.710
38 CZ 208 -6.175
38 CZ 209 -5.686
38 CZ 210 -5.198
38 CZ 211 -6.175
38 CZ 212 -8.128
38 CZ 213 -10.081
38 CZ 214 -10.569
38 CZ 215 -10.081
38 CZ 216 -8.128
38 CZ 217 -6.663
38 CZ 218 -5.198
38 CZ 219 -3.733
38 CZ 220 -2.268
38 CZ 221 -1.292
38 CZ 222 -1.292
38 CZ 223 -1.780
38 CZ 224 -3.245
38 CZ 225 -4.222
38 CZ 226 -4.710
38 CZ 227 -5.198
38 CZ 228 -5.686
38 CZ 229 -6.175
38 CZ 230 -6.175
38 CZ 231 -5.198
38 CZ 232 -2.757
38 CZ 233 0.661
38 CZ 234 2.614
38 CZ 235 3.103
38 CZ 236 1.149
38 CZ 237 -1.292
38 CZ 238 -2.757
38 CZ 239 -2.268
38 CZ 240 0.173
38 CZ 241 3.591
38 CZ 242 6.032
38 CZ 243 7.497
38 CZ 244 7.009
38 CZ 245 6.032
38 CZ 246 5.056
38 CZ 247 4.079
38 CZ 248 2.614
38 CZ 249 1.149
38 CZ 250 0.661
38 CZ 251 0.173
38 CZ 252 1.149
38 CZ 253 1.638
38 CZ 254 2.614
38 CZ 255 1.638
# C3 chan 16
38 C3 0 1.444
38 C3 1 0.956
38 C3 2 0.468
38 C3 3 0.468
38 C3 4 -0.020
38 C3 5 -0.509
38 C3 6 -0.509
38 C3 7 -0.509
38 C3 8 -0.020
38 C3 9 0.468
38 C3 10 0.468
38 C3 11 0.956
38 C3 12 1.444
38 C3 13 1.444
38 C3 14 1.444
38 C3 15 1.933
38 C3 16 1.933
38 C3 17 2.421
38 C3 18 2.421
38 C3 19 2.421
38 C3 20 2.421
38 C3 21 1.933
38 C3 22 1.933
38 C3 23 1.444
38 C3 24 0.956
38 C3 25 0.956
38 C3 26 0.956
38 C3 27 0.956
38 C3 28 0.956
38 C3 29 1.444
38 C3 30 1.444
38 C3 31 0.956
38 C3 32 0.468
38 C3 33 -0.020
38 C3 34 -0.509
38 C3 35 -0.020
38 C3 36 0.468
38 C3 37 0.468
38 C3 38 0.468
38 C3 39 -0.020
38 C3 40 -1.485
38 C3 41 -2.462
38 C3 42 -2.950
38 C3 43 -2.950
38 C3 44 -2.950
38 C3 45 -3.438
38 C3 46 -3.438
38 C3 47 -3.438
38 C3 48 -3.438
38 C3 49 -2.950
38 C3 50 -2.462
38 C3 51 -1.973
38 C3 52 -1.485
38 C3 53 -1.485
38 C3 54 -1.485
38 C3 55 -0.997
38 C3 56 -0.997
38 C3 57 -0.509
38 C3 58 -0.997
38 C3 59 -1.485
38 C3 60 -2.462
38 C3 61 -2.462
38 C3 62 -1.485
38 C3 63 -0.997
38 C3 64 0.468
38 C3 65 0.956
38 C3 66 0.956
38 C3 67 1.444
38 C3 68 1.933
38 C3 69 2.909
38 C3 70 3.398
38 C3 71 3.886
38 C3 72 3.398
38 C3 73 2.909
38 C3 74 1.933
38 C3 75 0.956
38 C3 76 -0.020
38 C3 77 -0.509
38 C3 78 -0.997
38 C3 79 -0.509
38 C3 80 0.956
38 C3 81 2.421
38 C3 82 3.886
38 C3 83 5.351
38 C3 84 5.839
38 C3 85 5.351
38 C3 86 4.862
38 C3 87 3.398
38 C3 88 2.421
38 C3 89 1.933
38 C3 90 1.444
38 C3 91 1.444
38 C3 92 1.444
38 C3 93 1.444
38 C3 94 1.444
38 C3 95 0.956
38 C3 96 0.468
38 C3 97 -0.020
38 C3 98 -0.509
38 C3 99 -0.997
38 C3 100 -0.509
38 C3 101 -0.509
38 C3 102 -0.020
38 C3 103 0.468
38 C3 104 0.468
38 C3 105 0.956
38 C3 106 1.444
38 C3 107 2.421
38 C3 108 3.398
38 C3 109 3.886
38 C3 110 3.886
38 C3 111 3.886
38 C3 112 4.374
38 C3 113 4.374
38 C3 114 3.886
38 C3 115 3.398
38 C3 116 1.933
38 C3 117 0.956
38 C3 118 0.468
38 C3 119 0.468
38 C3 120 0.956
38 C3 121 1.444
38 C3 122 1.933
38 C3 123 2.421
38 C3 124 1.933
38 C3 125 1.444
38 C3 126 0.956
38 C3 127 0.468
38 C3 128 -0.020
38 C3 129 0.468
38 C3 130 0.468
38 C3 131 0.956
38 C3 132 1.444
38 C3 133 0.956
38 C3 134 0.956
38 C3 135 0.468
38 C3 136 0.956
38 C3 137 1.933
38 C3 138 1.933
38 C3 139 2.421
38 C3 140 1.444
38 C3 141 0.468
38 C3 142 -0.020
38 C3 143 -0.509
38 C3 144 -0.020
38 C3 145 0.468
38 C3 146 1.444
38 C3 147 1.933
38 C3 148 1.933
38 C3 149 2.421
38 C3 150 1.933
38 C3 151 1.444
38 C3 152 0.468
38 C3 153 -0.997
38 C3 154 -2.462
38 C3 155 -2.950
38 C3 156 -2.462
38 C3 157 -0.997
38 C3 158 0.468
38 C3 159 1.444
38 C3 160 2.421
38 C3 161 3.398
38 C3 162 3.886
38 C3 163 5.839
38 C3 164 6.816
38 C3 165 7.304
38 C3 166 7.792
38 C3 167 7.304
38 C3 168 6.816
38 C3 169 5.839
38 C3 170 5.351
38 C3 171 4.374
38 C3 172 3.398
38 C3 173 2.421
38 C3 174 0.956
38 C3 175 -0.020
38 C3 176 -1.485
38 C3 177 -3.438
38 C3 178 -4.415
38 C3 179 -4.415
38 C3 180 -2.950
38 C3 181 -1.485
38 C3 182 0.956
38 C3 183 2.909
38 C3 184 4.862
38 C3 185 6.816
38 C3 186 8.280
38 C3 187 9.257
38 C3 188 8.769
38 C3 189 7.792
38 C3 190 6.327
38 C3 191 4.374
38 C3 192 2.421
38 C3 193 0.468
38 C3 194 -0.997
38 C3 195 -1.485
38 C3 196 -1.973
38 C3 197 -1.485
38 C3 198 -0.997
38 C3 199 0.468
38 C3 200 0.956
38 C3 201 0.956
38 C3 202 -0.020
38 C3 203 -0.997
38 C3 204 -0.997
38 C3 205 -1.485
38 C3 206 -1.973
38 C3 207 -2.950
38 C3 208 -3.927
38 C3 209 -3.927
38 C3 210 -2.950
38 C3 211 -1.485
38 C3 212 -0.509
38 C3 213 -0.020
38 C3 214 -0.509
38 C3 215 -0.997
38 C3 216 -1.973
38 C3 217 -2.462
38 C3 218 -2.462
38 C3 219 -2.462
38 C3 220 -2.950
38 C3 221 -3.438
38 C3 222 -4.415
38 C3 223 -4.415
38 C3 224 -3.438
38 C3 225 -2.462
38 C3 226 -0.997
38 C3 227 -0.020
38 C3 228 0.468
38 C3 229 0.956
38 C3 230 1.444
38 C3 231 1.444
38 C3 232 1.444
38 C3 233 -0.020
38 C3 234 -1.485
38 C3 235 -3.927
38 C3 236 -5.391
38 C3 237 -5.880
38 C3 238 -5.391
38 C3 239 -3.438
38 C3 240 -0.997
38 C3 241 0.956
38 C3 242 2.421
38 C3 243 3.886
38 C3 244 3.886
38 C3 245 2.909
38 C3 246 1.933
38 C3 247 0.468
38 C3 248 -0.509
38 C3 249 -0.997
38 C3 250 -1.485
38 C3 251 -1.973
38 C3 252 -1.485
38 C3 253 -0.997
38 C3 254 -0.509
38 C3 255 0.956
# C4 chan 17
38 C4 0 -2.981
38 C4 1 -2.004
38 C4 2 -0.539
38 C4 3 0.437
38 C4 4 1.414
38 C4 5 1.902
38 C4 6 2.391
38 C4 7 3.367
38 C4 8 4.344
38 C4 9 4.344
38 C4 10 4.344
38 C4 11 3.855
38 C4 12 3.367
38 C4 13 3.367
38 C4 14 3.855
38 C4 15 4.344
38 C4 16 3.855
38 C4 17 2.879
38 C4 18 2.391
38 C4 19 1.902
38 C4 20 1.414
38 C4 21 0.926
38 C4 22 0.437
38 C4 23 -0.539
38 C4 24 -1.027
38 C4 25 -1.027
38 C4 26 -1.027
38 C4 27 -0.539
38 C4 28 -0.051
38 C4 29 0.437
38 C4 30 0.926
38 C4 31 0.926
38 C4 32 1.414
38 C4 33 1.902
38 C4 34 2.391
38 C4 35 2.879
38 C4 36 2.391
38 C4 37 1.414
38 C4 38 0.437
38 C4 39 -0.051
38 C4 40 -0.051
38 C4 41 0.437
38 C4 42 1.902
38 C4 43 2.391
38 C4 44 2.879
38 C4 45 2.879
38 C4 46 1.902
38 C4 47 0.926
38 C4 48 -0.051
38 C4 49 -1.027
38 C4 50 -1.516
38 C4 51 -1.027
38 C4 52 -1.027
38 C4 53 -1.027
38 C4 54 -1.516
38 C4 55 -2.004
38 C4 56 -2.004
38 C4 57 -1.027
38 C4 58 0.437
38 C4 59 1.902
38 C4 60 3.367
38 C4 61 3.367
38 C4 62 2.879
38 C4 63 2.391
38 C4 64 1.414
38 C4 65 0.926
38 C4 66 0.437
38 C4 67 -0.051
38 C4 68 -0.539
38 C4 69 -1.027
38 C4 70 -1.516
38 C4 71 -2.004
38 C4 72 -2.004
38 C4 73 -2.981
38 C4 74 -2.492
38 C4 75 -2.004
38 C4 76 -1.516
38 C4 77 -0.539
38 C4 78 0.926
38 C4 79 1.902
38 C4 80 1.902
38 C4 81 1.902
38 C4 82 0.926
38 C4 83 0.437
38 C4 84 0.437
38 C4 85 0.437
38 C4 86 0.437
38 C4 87 0.437
38 C4 88 0.437
38 C4 89 0.437
38 C4 90 0.926
38 C4 91 1.414
38 C4 92 1.414
38 C4 93 1.414
38 C4 94 1.414
38 C4 95 0.926
38 C4 96 -0.051
38 C4 97 -0.539
38 C4 98 -1.027
38 C4 99 -1.027
38 C4 100 -1.027
38 C4 101 -0.051
38 C4 102 -0.051
38 C4 103 -0.051
38 C4 104 -0.539
38 C4 105 -0.539
38 C4 106 -0.539
38 C4 107 -0.051
38 C4 108 0.437
38 C4 109 0.926
38 C4 110 1.414
38 C4 111 2.391
38 C4 112 2.879
38 C4 113 3.367
38 C4 114 3.367
38 C4 115 2.879
38 C4 116 2.391
38 C4 117 1.902
38 C4 118 1.414
38 C4 119 0.437
38 C4 120 -0.051
38 C4 121 -0.539
38 C4 122 -1.027
38 C4 123 -0.051
38 C4 124 1.414
38 C4 125 2.879
38 C4 126 2.879
38 C4 127 1.902
38 C4 128 0.926
38 C4 129 0.437
38 C4 130 0.437
38 C4 131 0.926
38 C4 132 1.414
38 C4 133 0.437
38 C4 134 -1.027
38 C4 135 -2.492
38 C4 136 -3.469
38 C4 137 -3.469
38 C4 138 -2.981
38 C4 139 -2.004
38 C4 140 -1.516
38 C4 141 -1.027
38 C4 142 -0.539
38 C4 143 -0.539
38 C4 144 -0.051
38 C4 145 0.437
38 C4 146 0.437
38 C4 147 -0.051
38 C4 148 -1.027
38 C4 149 -2.004
38 C4 150 -2.981
38 C4 151 -3.957
38 C4 152 -3.957
38 C4 153 -3.469
38 C4 154 -2.492
38 C4 155 -1.027
38 C4 156 0.437
38 C4 157 2.391
38 C4 158 3.855
38 C4 159 4.344
38 C4 160 3.855
38 C4 161 3.367
38 C4 162 1.902
38 C4 163 -0.051
38 C4 164 -2.004
38 C4 165 -4.934
38 C4 166 -6.887
38 C4 167 -8.840
38 C4 168 -8.840
38 C4 169 -7.863
38 C4 170 -4.934
38 C4 171 -2.004
38 C4 172 0.437
38 C4 173 1.902
38 C4 174 2.391
38 C4 175 1.902
38 C4 176 1.414
38 C4 177 0.437
38 C4 178 -0.539
38 C4 179 -1.516
38 C4 180 -2.981
38 C4 181 -4.934
38 C4 182 -6.887
38 C4 183 -8.840
38 C4 184 -10.305
38 C4 185 -11.281
38 C4 186 -11.770
38 C4 187 -12.746
38 C4 188 -12.258
38 C4 189 -11.281
38 C4 190 -9.328
38 C4 191 -6.399
38 C4 192 -2.492
38 C4 193 0.926
38 C4 194 3.855
38 C4 195 4.832
38 C4 196 4.832
38 C4 197 3.367
38 C4 198 0.926
38 C4 199 -2.004
38 C4 200 -3.957
38 C4 201 -5.910
38 C4 202 -6.887
38 C4 203 -7.375
38 C4 204 -7.863
38 C4 205 -7.863
38 C4 206 -7.863
38 C4 207 -5.910
38 C4 208 -3.469
38 C4 209 -0.539
38 C4 210 1.902
38 C4 211 2.879
38 C4 212 2.879
38 C4 213 1.902
38 C4 214 0.437
38 C4 215 -0.051
38 C4 216 -0.539
38 C4 217 -1.516
38 C4 218 -2.981
38 C4 219 -4.445
38 C4 220 -5.422
38 C4 221 -5.910
38 C4 222 -6.399
38 C4 223 -6.399
38 C4 224 -6.399
38 C4 225 -5.910
38 C4 226 -5.422
38 C4 227 -4.934
38 C4 228 -3.957
38 C4 229 -3.469
38 C4 230 -2.981
38 C4 231 -2.492
38 C4 232 -2.004
38 C4 233 -0.539
38 C4 234 -0.051
38 C4 235 -0.051
38 C4 236 -0.539
38 C4 237 -2.004
38 C4 238 -3.469
38 C4 239 -4.445
38 C4 240 -5.422
38 C4 241 -5.422
38 C4 242 -5.910
38 C4 243 -5.910
38 C4 244 -5.422
38 C4 245 -4.445
38 C4 246 -2.981
38 C4 247 -2.004
38 C4 248 -2.004
38 C4 249 -1.516
38 C4 250 -1.516
38 C4 251 -1.027
38 C4 252 -0.539
38 C4 253 -0.051
38 C4 254 -0.539
38 C4 255 -1.027
# CP5 chan 18
38 CP5 0 1.841
38 CP5 1 1.353
38 CP5 2 0.865
38 CP5 3 0.376
38 CP5 4 -0.600
38 CP5 5 -1.088
38 CP5 6 -0.600
38 CP5 7 -0.600
38 CP5 8 0.376
38 CP5 9 1.841
38 CP5 10 3.306
38 CP5 11 4.283
38 CP5 12 5.259
38 CP5 13 5.259
38 CP5 14 5.259
38 CP5 15 4.771
38 CP5 16 4.283
38 CP5 17 3.794
38 CP5 18 3.306
38 CP5 19 2.818
38 CP5 20 2.330
38 CP5 21 2.330
38 CP5 22 2.818
38 CP5 23 2.818
38 CP5 24 3.306
38 CP5 25 3.306
38 CP5 26 2.818
38 CP5 27 2.818
38 CP5 28 3.306
38 CP5 29 3.794
38 CP5 30 3.794
38 CP5 31 2.818
38 CP5 32 1.841
38 CP5 33 0.376
38 CP5 34 -0.112
38 CP5 35 -0.600
38 CP5 36 -0.600
38 CP5 37 -0.600
38 CP5 38 -0.600
38 CP5 39 -1.577
38 CP5 40 -2.553
38 CP5 41 -4.018
38 CP5 42 -4.506
38 CP5 43 -4.506
38 CP5 44 -4.506
38 CP5 45 -4.995
38 CP5 46 -5.483
38 CP5 47 -5.971
38 CP5 48 -5.971
38 CP5 49 -5.971
38 CP5 50 -5.971
38 CP5 51 -5.971
38 CP5 52 -5.971
38 CP5 53 -5.971
38 CP5 54 -5.483
38 CP5 55 -4.995
38 CP5 56 -4.506
38 CP5 57 -4.018
38 CP5 58 -4.018
38 CP5 59 -4.506
38 CP5 60 -4.018
38 CP5 61 -3.530
38 CP5 62 -2.065
38 CP5 63 -0.112
38 CP5 64 1.353
38 CP5 65 2.330
38 CP5 66 2.818
38 CP5 67 3.306
38 CP5 68 3.306
38 CP5 69 3.794
38 CP5 70 3.794
38 CP5 71 3.306
38 CP5 72 2.818
38 CP5 73 1.353
38 CP5 74 0.376
38 CP5 75 -0.112
38 CP5 76 -0.600
38 CP5 77 -1.088
38 CP5 78 -1.088
38 CP5 79 -0.600
38 CP5 80 0.376
38 CP5 81 1.841
38 CP5 82 3.306
38 CP5 83 3.794
38 CP5 84 4.283
38 CP5 85 4.283
38 CP5 86 3.306
38 CP5 87 2.330
38 CP5 88 1.353
38 CP5 89 0.865
38 CP5 90 0.376
38 CP5 91 0.376
38 CP5 92 0.865
38 CP5 93 0.865
38 CP5 94 0.376
38 CP5 95 -0.600
38 CP5 96 -1.577
38 CP5 97 -3.042
38 CP5 98 -3.530
38 CP5 99 -4.506
38 CP5 100 -4.506
38 CP5 101 -4.018
38 CP5 102 -3.530
38 CP5 103 -3.042
38 CP5 104 -2.065
38 CP5 105 -1.088
38 CP5 106 -0.112
38 CP5 107 1.353
38 CP5 108 1.841
38 CP5 109 2.330
38 CP5 110 2.330
38 CP5 111 1.841
38 CP5 112 1.353
38 CP5 113 0.865
38 CP5 114 0.376
38 CP5 115 0.376
38 CP5 116 -0.112
38 CP5 117 -0.112
38 CP5 118 -0.112
38 CP5 119 0.376
38 CP5 120 0.865
38 CP5 121 0.865
38 CP5 122 0.865
38 CP5 123 0.376
38 CP5 124 -0.600
38 CP5 125 -1.577
38 CP5 126 -3.530
38 CP5 127 -4.995
38 CP5 128 -6.948
38 CP5 129 -7.924
38 CP5 130 -7.924
38 CP5 131 -6.948
38 CP5 132 -5.483
38 CP5 133 -4.506
38 CP5 134 -3.530
38 CP5 135 -2.065
38 CP5 136 -1.088
38 CP5 137 0.376
38 CP5 138 1.353
38 CP5 139 1.353
38 CP5 140 -0.112
38 CP5 141 -2.065
38 CP5 142 -3.530
38 CP5 143 -4.018
38 CP5 144 -3.530
38 CP5 145 -2.553
38 CP5 146 -1.577
38 CP5 147 -0.600
38 CP5 148 -0.600
38 CP5 149 -0.600
38 CP5 150 -1.088
38 CP5 151 -3.042
38 CP5 152 -4.995
38 CP5 153 -7.436
38 CP5 154 -8.413
38 CP5 155 -8.413
38 CP5 156 -6.948
38 CP5 157 -4.995
38 CP5 158 -3.530
38 CP5 159 -1.577
38 CP5 160 -0.600
38 CP5 161 1.353
38 CP5 162 3.306
38 CP5 163 5.259
38 CP5 164 6.236
38 CP5 165 6.724
38 CP5 166 5.747
38 CP5 167 4.283
38 CP5 168 2.330
38 CP5 169 -0.112
38 CP5 170 -1.088
38 CP5 171 -2.553
38 CP5 172 -3.530
38 CP5 173 -3.530
38 CP5 174 -4.506
38 CP5 175 -5.483
38 CP5 176 -6.948
38 CP5 177 -8.413
38 CP5 178 -8.901
38 CP5 179 -7.924
38 CP5 180 -5.483
38 CP5 181 -3.042
38 CP5 182 -0.600
38 CP5 183 1.841
38 CP5 184 2.818
38 CP5 185 3.794
38 CP5 186 4.283
38 CP5 187 3.794
38 CP5 188 3.306
38 CP5 189 2.330
38 CP5 190 0.865
38 CP5 191 -0.600
38 CP5 192 -1.577
38 CP5 193 -2.553
38 CP5 194 -3.530
38 CP5 195 -4.018
38 CP5 196 -4.995
38 CP5 197 -5.483
38 CP5 198 -5.483
38 CP5 199 -4.995
38 CP5 200 -4.995
38 CP5 201 -5.483
38 CP5 202 -5.971
38 CP5 203 -6.948
38 CP5 204 -7.436
38 CP5 205 -7.924
38 CP5 206 -8.413
38 CP5 207 -8.413
38 CP5 208 -8.413
38 CP5 209 -8.413
38 CP5 210 -7.436
38 CP5 211 -5.971
38 CP5 212 -4.018
38 CP5 213 -3.042
38 CP5 214 -2.553
38 CP5 215 -3.042
38 CP5 216 -3.530
38 CP5 217 -3.530
38 CP5 218 -3.530
38 CP5 219 -4.018
38 CP5 220 -4.506
38 CP5 221 -6.460
38 CP5 222 -8.413
38 CP5 223 -9.389
38 CP5 224 -8.413
38 CP5 225 -5.971
38 CP5 226 -2.553
38 CP5 227 -0.600
38 CP5 228 0.376
38 CP5 229 0.865
38 CP5 230 0.376
38 CP5 231 -0.112
38 CP5 232 -1.088
38 CP5 233 -2.553
38 CP5 234 -4.995
38 CP5 235 -7.924
38 CP5 236 -10.366
38 CP5 237 -11.342
38 CP5 238 -10.366
38 CP5 239 -8.901
38 CP5 240 -6.460
38 CP5 241 -4.506
38 CP5 242 -3.530
38 CP5 243 -2.065
38 CP5 244 -2.065
38 CP5 245 -2.065
38 CP5 246 -3.042
38 CP5 247 -4.018
38 CP5 248 -4.995
38 CP5 249 -4.995
38 CP5 250 -4.018
38 CP5 251 -3.042
38 CP5 252 -1.577
38 CP5 253 -1.088
38 CP5 254 -1.088
38 CP5 255 -0.600
# CP6 chan 19
38 CP6 0 -7.497
38 CP6 1 -7.009
38 CP6 2 -5.544
38 CP6 3 -4.079
38 CP6 4 -3.591
38 CP6 5 -2.126
38 CP6 6 -1.149
38 CP6 7 1.292
38 CP6 8 3.245
38 CP6 9 5.198
38 CP6 10 5.686
38 CP6 11 5.686
38 CP6 12 5.198
38 CP6 13 4.222
38 CP6 14 3.245
38 CP6 15 2.268
38 CP6 16 0.804
38 CP6 17 -0.661
38 CP6 18 -2.126
38 CP6 19 -3.103
38 CP6 20 -4.079
38 CP6 21 -5.056
38 CP6 22 -5.544
38 CP6 23 -5.056
38 CP6 24 -4.079
38 CP6 25 -3.591
38 CP6 26 -3.103
38 CP6 27 -2.614
38 CP6 28 -3.103
38 CP6 29 -3.103
38 CP6 30 -3.103
38 CP6 31 -2.614
38 CP6 32 -1.149
38 CP6 33 -0.661
38 CP6 34 0.315
38 CP6 35 0.315
38 CP6 36 -0.661
38 CP6 37 -2.126
38 CP6 38 -3.591
38 CP6 39 -4.079
38 CP6 40 -4.079
38 CP6 41 -2.614
38 CP6 42 -1.638
38 CP6 43 -1.638
38 CP6 44 -2.614
38 CP6 45 -4.567
38 CP6 46 -6.032
38 CP6 47 -7.009
38 CP6 48 -7.497
38 CP6 49 -7.985
38 CP6 50 -8.962
38 CP6 51 -10.427
38 CP6 52 -10.915
38 CP6 53 -10.915
38 CP6 54 -10.427
38 CP6 55 -9.450
38 CP6 56 -8.474
38 CP6 57 -7.009
38 CP6 58 -5.056
38 CP6 59 -2.614
38 CP6 60 -1.149
38 CP6 61 -0.173
38 CP6 62 -0.173
38 CP6 63 -1.638
38 CP6 64 -3.103
38 CP6 65 -3.591
38 CP6 66 -3.103
38 CP6 67 -2.614
38 CP6 68 -3.103
38 CP6 69 -4.079
38 CP6 70 -5.544
38 CP6 71 -7.009
38 CP6 72 -7.985
38 CP6 73 -7.985
38 CP6 74 -7.497
38 CP6 75 -6.521
38 CP6 76 -5.544
38 CP6 77 -4.079
38 CP6 78 -2.126
38 CP6 79 -0.661
38 CP6 80 0.804
38 CP6 81 1.780
38 CP6 82 1.780
38 CP6 83 1.292
38 CP6 84 0.804
38 CP6 85 -0.173
38 CP6 86 -0.661
38 CP6 87 -1.149
38 CP6 88 -0.173
38 CP6 89 1.292
38 CP6 90 2.268
38 CP6 91 3.733
38 CP6 92 4.222
38 CP6 93 4.222
38 CP6 94 3.733
38 CP6 95 2.757
38 CP6 96 1.292
38 CP6 97 0.315
38 CP6 98 -0.173
38 CP6 99 -0.173
38 CP6 100 0.804
38 CP6 101 1.780
38 CP6 102 2.757
38 CP6 103 3.245
38 CP6 104 3.733
38 CP6 105 4.222
38 CP6 106 5.198
38 CP6 107 5.686
38 CP6 108 6.175
38 CP6 109 5.686
38 CP6 110 5.198
38 CP6 111 5.198
38 CP6 112 5.686
38 CP6 113 5.686
38 CP6 114 5.686
38 CP6 115 5.686
38 CP6 116 5.686
38 CP6 117 5.686
38 CP6 118 5.686
38 CP6 119 5.198
38 CP6 120 4.222
38 CP6 121 3.733
38 CP6 122 3.245
38 CP6 123 3.733
38 CP6 124 4.222
38 CP6 125 5.198
38 CP6 126 4.710
38 CP6 127 3.733
38 CP6 128 2.268
38 CP6 129 1.292
38 CP6 130 1.292
38 CP6 131 2.268
38 CP6 132 3.733
38 CP6 133 4.222
38 CP6 134 4.222
38 CP6 135 3.733
38 CP6 136 3.245
38 CP6 137 2.757
38 CP6 138 2.757
38 CP6 139 3.245
38 CP6 140 3.733
38 CP6 141 4.222
38 CP6 142 4.222
38 CP6 143 4.222
38 CP6 144 4.710
38 CP6 145 4.710
38 CP6 146 4.710
38 CP6 147 4.222
38 CP6 148 3.245
38 CP6 149 1.292
38 CP6 150 -1.149
38 CP6 151 -2.614
38 CP6 152 -3.591
38 CP6 153 -3.591
38 CP6 154 -2.614
38 CP6 155 -0.173
38 CP6 156 3.245
38 CP6 157 6.175
38 CP6 158 8.616
38 CP6 159 9.593
38 CP6 160 9.593
38 CP6 161 8.616
38 CP6 162 8.128
38 CP6 163 6.663
38 CP6 164 5.198
38 CP6 165 2.757
38 CP6 166 -0.661
38 CP6 167 -4.079
38 CP6 168 -7.497
38 CP6 169 -8.962
38 CP6 170 -8.962
38 CP6 171 -6.521
38 CP6 172 -2.614
38 CP6 173 1.292
38 CP6 174 4.222
38 CP6 175 6.175
38 CP6 176 6.175
38 CP6 177 5.198
38 CP6 178 4.222
38 CP6 179 3.245
38 CP6 180 2.268
38 CP6 181 0.804
38 CP6 182 -1.149
38 CP6 183 -3.103
38 CP6 184 -5.544
38 CP6 185 -7.497
38 CP6 186 -9.450
38 CP6 187 -11.403
38 CP6 188 -12.868
38 CP6 189 -13.357
38 CP6 190 -12.380
38 CP6 191 -8.962
38 CP6 192 -4.567
38 CP6 193 0.804
38 CP6 194 4.710
38 CP6 195 7.640
38 CP6 196 8.616
38 CP6 197 8.128
38 CP6 198 6.175
38 CP6 199 3.733
38 CP6 200 0.804
38 CP6 201 -1.149
38 CP6 202 -2.614
38 CP6 203 -3.591
38 CP6 204 -4.567
38 CP6 205 -5.056
38 CP6 206 -5.544
38 CP6 207 -3.591
38 CP6 208 -1.149
38 CP6 209 1.780
38 CP6 210 3.733
38 CP6 211 4.222
38 CP6 212 3.245
38 CP6 213 2.757
38 CP6 214 2.757
38 CP6 215 3.733
38 CP6 216 3.733
38 CP6 217 3.245
38 CP6 218 0.804
38 CP6 219 -2.126
38 CP6 220 -5.056
38 CP6 221 -6.521
38 CP6 222 -7.009
38 CP6 223 -7.497
38 CP6 224 -7.009
38 CP6 225 -6.032
38 CP6 226 -5.056
38 CP6 227 -3.591
38 CP6 228 -2.126
38 CP6 229 -1.149
38 CP6 230 -1.149
38 CP6 231 -1.638
38 CP6 232 -2.126
38 CP6 233 -1.638
38 CP6 234 -1.149
38 CP6 235 -0.661
38 CP6 236 -0.661
38 CP6 237 -1.149
38 CP6 238 -2.614
38 CP6 239 -4.079
38 CP6 240 -5.544
38 CP6 241 -6.032
38 CP6 242 -7.009
38 CP6 243 -7.009
38 CP6 244 -6.521
38 CP6 245 -6.032
38 CP6 246 -5.544
38 CP6 247 -4.567
38 CP6 248 -4.079
38 CP6 249 -3.591
38 CP6 250 -3.103
38 CP6 251 -3.103
38 CP6 252 -2.614
38 CP6 253 -2.614
38 CP6 254 -2.614
38 CP6 255 -3.591
# CP1 chan 20
38 CP1 0 -1.139
38 CP1 1 -1.628
38 CP1 2 -1.628
38 CP1 3 -2.116
38 CP1 4 -2.604
38 CP1 5 -3.092
38 CP1 6 -2.604
38 CP1 7 -2.116
38 CP1 8 -1.139
38 CP1 9 -0.651
38 CP1 10 -0.163
38 CP1 11 0.326
38 CP1 12 0.326
38 CP1 13 1.302
38 CP1 14 1.302
38 CP1 15 1.302
38 CP1 16 1.302
38 CP1 17 1.302
38 CP1 18 1.302
38 CP1 19 1.790
38 CP1 20 2.279
38 CP1 21 2.767
38 CP1 22 3.743
38 CP1 23 3.255
38 CP1 24 2.279
38 CP1 25 0.814
38 CP1 26 -0.651
38 CP1 27 -1.139
38 CP1 28 -1.139
38 CP1 29 -0.651
38 CP1 30 0.326
38 CP1 31 0.326
38 CP1 32 0.326
38 CP1 33 -1.139
38 CP1 34 -1.628
38 CP1 35 -1.628
38 CP1 36 -1.139
38 CP1 37 -0.163
38 CP1 38 -0.163
38 CP1 39 -0.651
38 CP1 40 -1.628
38 CP1 41 -2.604
38 CP1 42 -2.116
38 CP1 43 -1.628
38 CP1 44 -1.139
38 CP1 45 -1.139
38 CP1 46 -1.628
38 CP1 47 -2.116
38 CP1 48 -3.092
38 CP1 49 -3.581
38 CP1 50 -3.581
38 CP1 51 -4.069
38 CP1 52 -4.069
38 CP1 53 -4.557
38 CP1 54 -4.557
38 CP1 55 -4.557
38 CP1 56 -5.046
38 CP1 57 -4.557
38 CP1 58 -4.069
38 CP1 59 -3.092
38 CP1 60 -1.628
38 CP1 61 -0.163
38 CP1 62 0.814
38 CP1 63 1.790
38 CP1 64 1.790
38 CP1 65 1.790
38 CP1 66 1.790
38 CP1 67 0.814
38 CP1 68 0.326
38 CP1 69 0.814
38 CP1 70 1.302
38 CP1 71 1.790
38 CP1 72 2.279
38 CP1 73 1.302
38 CP1 74 0.326
38 CP1 75 -0.651
38 CP1 76 -1.628
38 CP1 77 -2.116
38 CP1 78 -1.628
38 CP1 79 -1.139
38 CP1 80 -0.163
38 CP1 81 0.326
38 CP1 82 0.326
38 CP1 83 0.814
38 CP1 84 1.302
38 CP1 85 0.814
38 CP1 86 0.326
38 CP1 87 -0.651
38 CP1 88 -0.651
38 CP1 89 -0.651
38 CP1 90 0.326
38 CP1 91 0.326
38 CP1 92 0.326
38 CP1 93 0.326
38 CP1 94 -0.651
38 CP1 95 -1.628
38 CP1 96 -2.116
38 CP1 97 -2.116
38 CP1 98 -2.116
38 CP1 99 -1.139
38 CP1 100 -0.163
38 CP1 101 0.326
38 CP1 102 0.814
38 CP1 103 0.814
38 CP1 104 0.814
38 CP1 105 0.326
38 CP1 106 0.326
38 CP1 107 0.326
38 CP1 108 0.326
38 CP1 109 0.326
38 CP1 110 0.326
38 CP1 111 0.326
38 CP1 112 0.814
38 CP1 113 1.790
38 CP1 114 2.279
38 CP1 115 2.279
38 CP1 116 1.302
38 CP1 117 0.814
38 CP1 118 0.814
38 CP1 119 0.814
38 CP1 120 0.814
38 CP1 121 0.814
38 CP1 122 0.814
38 CP1 123 0.814
38 CP1 124 0.814
38 CP1 125 0.814
38 CP1 126 0.814
38 CP1 127 0.326
38 CP1 128 -0.651
38 CP1 129 -1.139
38 CP1 130 -1.628
38 CP1 131 -0.651
38 CP1 132 0.326
38 CP1 133 1.302
38 CP1 134 1.790
38 CP1 135 2.279
38 CP1 136 2.279
38 CP1 137 2.767
38 CP1 138 3.255
38 CP1 139 3.743
38 CP1 140 3.255
38 CP1 141 0.814
38 CP1 142 0.326
38 CP1 143 -1.139
38 CP1 144 -1.628
38 CP1 145 -1.628
38 CP1 146 -0.651
38 CP1 147 -0.163
38 CP1 148 0.814
38 CP1 149 1.302
38 CP1 150 1.790
38 CP1 151 1.790
38 CP1 152 1.302
38 CP1 153 0.814
38 CP1 154 -0.163
38 CP1 155 -0.651
38 CP1 156 -1.139
38 CP1 157 -0.651
38 CP1 158 -0.651
38 CP1 159 -0.163
38 CP1 160 -0.163
38 CP1 161 0.326
38 CP1 162 1.790
38 CP1 163 2.767
38 CP1 164 4.232
38 CP1 165 4.720
38 CP1 166 3.743
38 CP1 167 1.790
38 CP1 168 -0.163
38 CP1 169 -2.116
38 CP1 170 -3.092
38 CP1 171 -3.092
38 CP1 172 -1.628
38 CP1 173 0.326
38 CP1 174 1.790
38 CP1 175 3.255
38 CP1 176 3.255
38 CP1 177 3.255
38 CP1 178 2.767
38 CP1 179 2.767
38 CP1 180 2.767
38 CP1 181 3.255
38 CP1 182 3.255
38 CP1 183 2.767
38 CP1 184 3.255
38 CP1 185 3.255
38 CP1 186 2.767
38 CP1 187 2.279
38 CP1 188 0.814
38 CP1 189 -0.163
38 CP1 190 -1.139
38 CP1 191 -1.139
38 CP1 192 0.326
38 CP1 193 1.302
38 CP1 194 2.279
38 CP1 195 2.767
38 CP1 196 2.767
38 CP1 197 2.279
38 CP1 198 1.790
38 CP1 199 1.302
38 CP1 200 0.814
38 CP1 201 -0.651
38 CP1 202 -1.628
38 CP1 203 -2.604
38 CP1 204 -2.116
38 CP1 205 -2.116
38 CP1 206 -1.628
38 CP1 207 -0.651
38 CP1 208 -0.163
38 CP1 209 0.814
38 CP1 210 1.302
38 CP1 211 2.767
38 CP1 212 2.767
38 CP1 213 2.767
38 CP1 214 1.302
38 CP1 215 0.326
38 CP1 216 0.326
38 CP1 217 -0.163
38 CP1 218 -0.651
38 CP1 219 -1.139
38 CP1 220 -2.116
38 CP1 221 -2.604
38 CP1 222 -2.116
38 CP1 223 -1.139
38 CP1 224 0.326
38 CP1 225 1.302
38 CP1 226 2.279
38 CP1 227 1.790
38 CP1 228 1.790
38 CP1 229 1.302
38 CP1 230 0.814
38 CP1 231 0.326
38 CP1 232 0.326
38 CP1 233 -0.163
38 CP1 234 -0.163
38 CP1 235 -0.163
38 CP1 236 -0.651
38 CP1 237 -0.651
38 CP1 238 -1.139
38 CP1 239 -2.116
38 CP1 240 -2.604
38 CP1 241 -3.581
38 CP1 242 -3.581
38 CP1 243 -3.092
38 CP1 244 -2.116
38 CP1 245 -1.139
38 CP1 246 -0.163
38 CP1 247 0.326
38 CP1 248 0.326
38 CP1 249 0.326
38 CP1 250 0.326
38 CP1 251 0.326
38 CP1 252 -0.163
38 CP1 253 -0.651
38 CP1 254 -1.139
38 CP1 255 -1.628
# CP2 chan 21
38 CP2 0 -2.838
38 CP2 1 -2.838
38 CP2 2 -2.838
38 CP2 3 -2.838
38 CP2 4 -3.326
38 CP2 5 -2.838
38 CP2 6 -2.350
38 CP2 7 -1.373
38 CP2 8 -0.397
38 CP2 9 0.092
38 CP2 10 0.580
38 CP2 11 0.580
38 CP2 12 1.068
38 CP2 13 2.045
38 CP2 14 2.533
38 CP2 15 3.021
38 CP2 16 2.533
38 CP2 17 2.045
38 CP2 18 1.556
38 CP2 19 1.068
38 CP2 20 1.556
38 CP2 21 2.045
38 CP2 22 2.533
38 CP2 23 2.045
38 CP2 24 1.068
38 CP2 25 -0.397
38 CP2 26 -1.373
38 CP2 27 -1.373
38 CP2 28 -1.373
38 CP2 29 -0.397
38 CP2 30 -0.397
38 CP2 31 -0.397
38 CP2 32 -0.397
38 CP2 33 -0.885
38 CP2 34 -0.885
38 CP2 35 -0.397
38 CP2 36 -0.397
38 CP2 37 -0.397
38 CP2 38 -1.373
38 CP2 39 -1.862
38 CP2 40 -1.373
38 CP2 41 -1.373
38 CP2 42 -0.397
38 CP2 43 0.580
38 CP2 44 1.068
38 CP2 45 0.580
38 CP2 46 0.092
38 CP2 47 -1.373
38 CP2 48 -2.350
38 CP2 49 -3.326
38 CP2 50 -3.815
38 CP2 51 -4.303
38 CP2 52 -3.815
38 CP2 53 -4.303
38 CP2 54 -4.303
38 CP2 55 -4.791
38 CP2 56 -5.280
38 CP2 57 -4.791
38 CP2 58 -3.326
38 CP2 59 -1.373
38 CP2 60 0.092
38 CP2 61 1.068
38 CP2 62 1.556
38 CP2 63 1.556
38 CP2 64 1.556
38 CP2 65 2.045
38 CP2 66 1.556
38 CP2 67 1.068
38 CP2 68 0.092
38 CP2 69 -0.397
38 CP2 70 -0.885
38 CP2 71 -0.885
38 CP2 72 -0.397
38 CP2 73 -1.373
38 CP2 74 -1.862
38 CP2 75 -2.838
38 CP2 76 -2.838
38 CP2 77 -2.350
38 CP2 78 -0.885
38 CP2 79 0.092
38 CP2 80 0.580
38 CP2 81 0.092
38 CP2 82 -0.397
38 CP2 83 -0.885
38 CP2 84 -0.885
38 CP2 85 -1.373
38 CP2 86 -1.862
38 CP2 87 -2.350
38 CP2 88 -1.862
38 CP2 89 -1.373
38 CP2 90 -0.397
38 CP2 91 0.092
38 CP2 92 0.092
38 CP2 93 -0.397
38 CP2 94 -0.885
38 CP2 95 -1.862
38 CP2 96 -2.838
38 CP2 97 -3.326
38 CP2 98 -3.326
38 CP2 99 -2.350
38 CP2 100 -1.862
38 CP2 101 -0.885
38 CP2 102 -0.397
38 CP2 103 -0.397
38 CP2 104 -0.885
38 CP2 105 -1.373
38 CP2 106 -1.862
38 CP2 107 -1.862
38 CP2 108 -1.862
38 CP2 109 -2.350
38 CP2 110 -2.350
38 CP2 111 -2.350
38 CP2 112 -1.373
38 CP2 113 0.092
38 CP2 114 0.580
38 CP2 115 1.068
38 CP2 116 1.068
38 CP2 117 0.580
38 CP2 118 0.092
38 CP2 119 -0.397
38 CP2 120 -0.885
38 CP2 121 -1.373
38 CP2 122 -1.373
38 CP2 123 -1.373
38 CP2 124 -0.885
38 CP2 125 -0.885
38 CP2 126 -1.373
38 CP2 127 -2.350
38 CP2 128 -3.326
38 CP2 129 -3.815
38 CP2 130 -3.815
38 CP2 131 -2.838
38 CP2 132 -2.350
38 CP2 133 -1.862
38 CP2 134 -1.862
38 CP2 135 -1.862
38 CP2 136 -1.862
38 CP2 137 -0.885
38 CP2 138 0.092
38 CP2 139 0.580
38 CP2 140 0.580
38 CP2 141 -0.885
38 CP2 142 -1.862
38 CP2 143 -3.326
38 CP2 144 -3.815
38 CP2 145 -3.815
38 CP2 146 -3.326
38 CP2 147 -2.838
38 CP2 148 -2.838
38 CP2 149 -2.838
38 CP2 150 -2.350
38 CP2 151 -2.350
38 CP2 152 -2.350
38 CP2 153 -2.350
38 CP2 154 -2.838
38 CP2 155 -2.838
38 CP2 156 -2.350
38 CP2 157 -1.862
38 CP2 158 -1.373
38 CP2 159 -1.373
38 CP2 160 -1.373
38 CP2 161 -1.373
38 CP2 162 -0.397
38 CP2 163 0.092
38 CP2 164 0.580
38 CP2 165 -0.397
38 CP2 166 -1.862
38 CP2 167 -4.303
38 CP2 168 -6.744
38 CP2 169 -8.209
38 CP2 170 -8.209
38 CP2 171 -7.233
38 CP2 172 -4.791
38 CP2 173 -1.862
38 CP2 174 1.068
38 CP2 175 2.533
38 CP2 176 3.021
38 CP2 177 2.533
38 CP2 178 2.045
38 CP2 179 1.556
38 CP2 180 1.068
38 CP2 181 0.092
38 CP2 182 -1.373
38 CP2 183 -3.326
38 CP2 184 -4.791
38 CP2 185 -6.256
38 CP2 186 -7.233
38 CP2 187 -7.721
38 CP2 188 -8.698
38 CP2 189 -9.186
38 CP2 190 -8.209
38 CP2 191 -6.744
38 CP2 192 -3.326
38 CP2 193 -0.397
38 CP2 194 2.533
38 CP2 195 3.510
38 CP2 196 3.510
38 CP2 197 2.533
38 CP2 198 0.580
38 CP2 199 -1.373
38 CP2 200 -3.326
38 CP2 201 -4.791
38 CP2 202 -5.768
38 CP2 203 -6.256
38 CP2 204 -6.256
38 CP2 205 -6.256
38 CP2 206 -5.280
38 CP2 207 -4.303
38 CP2 208 -2.350
38 CP2 209 -0.397
38 CP2 210 1.556
38 CP2 211 2.533
38 CP2 212 3.021
38 CP2 213 2.045
38 CP2 214 1.556
38 CP2 215 0.580
38 CP2 216 0.092
38 CP2 217 -0.397
38 CP2 218 -1.373
38 CP2 219 -2.350
38 CP2 220 -3.326
38 CP2 221 -3.326
38 CP2 222 -3.326
38 CP2 223 -2.838
38 CP2 224 -2.350
38 CP2 225 -1.862
38 CP2 226 -1.373
38 CP2 227 -1.373
38 CP2 228 -0.885
38 CP2 229 -1.373
38 CP2 230 -1.373
38 CP2 231 -1.862
38 CP2 232 -2.350
38 CP2 233 -2.350
38 CP2 234 -2.350
38 CP2 235 -1.862
38 CP2 236 -1.373
38 CP2 237 -1.862
38 CP2 238 -2.350
38 CP2 239 -3.815
38 CP2 240 -5.280
38 CP2 241 -6.744
38 CP2 242 -7.721
38 CP2 243 -7.233
38 CP2 244 -6.256
38 CP2 245 -4.303
38 CP2 246 -2.838
38 CP2 247 -2.350
38 CP2 248 -1.862
38 CP2 249 -1.373
38 CP2 250 -0.397
38 CP2 251 -0.397
38 CP2 252 0.092
38 CP2 253 -0.397
38 CP2 254 -1.373
38 CP2 255 -1.862
# P3 chan 22
38 P3 0 -2.401
38 P3 1 -1.912
38 P3 2 -2.401
38 P3 3 -2.889
38 P3 4 -3.866
38 P3 5 -4.354
38 P3 6 -3.866
38 P3 7 -2.889
38 P3 8 -1.912
38 P3 9 -0.936
38 P3 10 0.529
38 P3 11 1.994
38 P3 12 2.970
38 P3 13 3.459
38 P3 14 2.970
38 P3 15 1.994
38 P3 16 1.017
38 P3 17 0.041
38 P3 18 0.041
38 P3 19 0.041
38 P3 20 1.017
38 P3 21 1.506
38 P3 22 2.482
38 P3 23 2.970
38 P3 24 2.970
38 P3 25 2.482
38 P3 26 1.994
38 P3 27 1.506
38 P3 28 1.994
38 P3 29 2.482
38 P3 30 2.482
38 P3 31 1.994
38 P3 32 1.017
38 P3 33 -0.448
38 P3 34 -1.424
38 P3 35 -1.912
38 P3 36 -1.912
38 P3 37 -1.912
38 P3 38 -2.401
38 P3 39 -3.866
38 P3 40 -4.842
38 P3 41 -5.819
38 P3 42 -5.330
38 P3 43 -4.842
38 P3 44 -4.354
38 P3 45 -4.842
38 P3 46 -6.307
38 P3 47 -8.748
38 P3 48 -10.701
38 P3 49 -12.166
38 P3 50 -12.166
38 P3 51 -11.678
38 P3 52 -11.678
38 P3 53 -11.678
38 P3 54 -12.166
38 P3 55 -12.655
38 P3 56 -13.143
38 P3 57 -13.143
38 P3 58 -12.166
38 P3 59 -10.701
38 P3 60 -8.748
38 P3 61 -5.819
38 P3 62 -3.377
38 P3 63 -1.912
38 P3 64 -0.936
38 P3 65 -1.424
38 P3 66 -2.401
38 P3 67 -2.401
38 P3 68 -2.401
38 P3 69 -1.912
38 P3 70 -1.912
38 P3 71 -1.912
38 P3 72 -2.889
38 P3 73 -3.866
38 P3 74 -4.354
38 P3 75 -4.842
38 P3 76 -4.842
38 P3 77 -4.354
38 P3 78 -3.866
38 P3 79 -2.889
38 P3 80 -1.912
38 P3 81 -0.936
38 P3 82 -0.448
38 P3 83 0.041
38 P3 84 -0.448
38 P3 85 -0.936
38 P3 86 -1.912
38 P3 87 -2.889
38 P3 88 -3.377
38 P3 89 -3.866
38 P3 90 -3.866
38 P3 91 -3.377
38 P3 92 -2.889
38 P3 93 -2.401
38 P3 94 -2.401
38 P3 95 -3.377
38 P3 96 -4.354
38 P3 97 -4.842
38 P3 98 -4.842
38 P3 99 -3.866
38 P3 100 -3.377
38 P3 101 -2.889
38 P3 102 -2.889
38 P3 103 -2.889
38 P3 104 -2.889
38 P3 105 -2.401
38 P3 106 -1.912
38 P3 107 -1.424
38 P3 108 -1.424
38 P3 109 -1.912
38 P3 110 -1.912
38 P3 111 -1.912
38 P3 112 -1.912
38 P3 113 -1.912
38 P3 114 -1.912
38 P3 115 -2.401
38 P3 116 -2.889
38 P3 117 -2.889
38 P3 118 -2.401
38 P3 119 -1.424
38 P3 120 -0.448
38 P3 121 0.041
38 P3 122 0.041
38 P3 123 0.041
38 P3 124 -0.448
38 P3 125 -0.936
38 P3 126 -1.912
38 P3 127 -2.889
38 P3 128 -3.866
38 P3 129 -4.354
38 P3 130 -3.866
38 P3 131 -2.889
38 P3 132 -1.912
38 P3 133 -0.448
38 P3 134 0.529
38 P3 135 1.506
38 P3 136 2.482
38 P3 137 3.459
38 P3 138 4.435
38 P3 139 3.947
38 P3 140 1.994
38 P3 141 -0.936
38 P3 142 -3.866
38 P3 143 -5.819
38 P3 144 -6.307
38 P3 145 -5.819
38 P3 146 -4.354
38 P3 147 -1.912
38 P3 148 0.041
38 P3 149 1.994
38 P3 150 2.482
38 P3 151 1.994
38 P3 152 1.017
38 P3 153 -0.936
38 P3 154 -2.401
38 P3 155 -2.889
38 P3 156 -2.889
38 P3 157 -2.401
38 P3 158 -1.912
38 P3 159 -1.424
38 P3 160 -0.936
38 P3 161 1.017
38 P3 162 3.459
38 P3 163 5.900
38 P3 164 7.853
38 P3 165 8.341
38 P3 166 7.365
38 P3 167 4.924
38 P3 168 1.506
38 P3 169 -1.424
38 P3 170 -3.866
38 P3 171 -4.354
38 P3 172 -3.377
38 P3 173 -0.936
38 P3 174 1.017
38 P3 175 1.506
38 P3 176 1.017
38 P3 177 -0.448
38 P3 178 -0.936
38 P3 179 -0.448
38 P3 180 1.017
38 P3 181 2.482
38 P3 182 3.459
38 P3 183 3.947
38 P3 184 3.947
38 P3 185 3.947
38 P3 186 3.459
38 P3 187 1.994
38 P3 188 0.529
38 P3 189 -1.424
38 P3 190 -2.401
38 P3 191 -2.401
38 P3 192 -1.424
38 P3 193 0.041
38 P3 194 1.506
38 P3 195 1.994
38 P3 196 1.506
38 P3 197 1.017
38 P3 198 -0.448
38 P3 199 -1.912
38 P3 200 -3.866
38 P3 201 -4.842
38 P3 202 -5.819
38 P3 203 -6.307
38 P3 204 -5.819
38 P3 205 -5.819
38 P3 206 -5.819
38 P3 207 -5.330
38 P3 208 -4.354
38 P3 209 -2.889
38 P3 210 -0.936
38 P3 211 1.506
38 P3 212 3.459
38 P3 213 3.947
38 P3 214 3.947
38 P3 215 3.459
38 P3 216 2.970
38 P3 217 2.970
38 P3 218 3.459
38 P3 219 2.970
38 P3 220 1.506
38 P3 221 0.041
38 P3 222 -1.424
38 P3 223 -1.424
38 P3 224 0.041
38 P3 225 2.482
38 P3 226 5.412
38 P3 227 6.877
38 P3 228 7.853
38 P3 229 7.365
38 P3 230 6.877
38 P3 231 5.900
38 P3 232 4.924
38 P3 233 2.970
38 P3 234 1.017
38 P3 235 -0.936
38 P3 236 -2.889
38 P3 237 -3.377
38 P3 238 -3.377
38 P3 239 -3.377
38 P3 240 -3.377
38 P3 241 -3.377
38 P3 242 -2.889
38 P3 243 -1.912
38 P3 244 -0.936
38 P3 245 0.529
38 P3 246 1.017
38 P3 247 0.041
38 P3 248 -0.448
38 P3 249 -0.936
38 P3 250 -0.448
38 P3 251 -0.448
38 P3 252 0.041
38 P3 253 -0.448
38 P3 254 -1.424
38 P3 255 -2.401
# P4 chan 23
38 P4 0 -3.733
38 P4 1 -3.733
38 P4 2 -3.245
38 P4 3 -3.245
38 P4 4 -3.245
38 P4 5 -2.757
38 P4 6 -1.292
38 P4 7 0.173
38 P4 8 1.638
38 P4 9 3.591
38 P4 10 4.567
38 P4 11 5.056
38 P4 12 6.032
38 P4 13 7.009
38 P4 14 7.009
38 P4 15 6.521
38 P4 16 5.544
38 P4 17 4.567
38 P4 18 3.591
38 P4 19 3.103
38 P4 20 3.591
38 P4 21 4.079
38 P4 22 4.079
38 P4 23 4.567
38 P4 24 3.591
38 P4 25 2.614
38 P4 26 1.638
38 P4 27 1.149
38 P4 28 1.149
38 P4 29 1.638
38 P4 30 2.126
38 P4 31 2.126
38 P4 32 2.126
38 P4 33 2.126
38 P4 34 2.126
38 P4 35 2.126
38 P4 36 1.149
38 P4 37 0.661
38 P4 38 -0.804
38 P4 39 -1.780
38 P4 40 -1.780
38 P4 41 -0.804
38 P4 42 0.661
38 P4 43 1.149
38 P4 44 1.149
38 P4 45 -0.315
38 P4 46 -2.268
38 P4 47 -4.222
38 P4 48 -5.686
38 P4 49 -6.175
38 P4 50 -6.175
38 P4 51 -6.175
38 P4 52 -6.175
38 P4 53 -6.663
38 P4 54 -7.640
38 P4 55 -7.640
38 P4 56 -7.151
38 P4 57 -5.686
38 P4 58 -3.245
38 P4 59 -0.804
38 P4 60 1.638
38 P4 61 3.103
38 P4 62 3.103
38 P4 63 3.103
38 P4 64 2.614
38 P4 65 2.614
38 P4 66 2.126
38 P4 67 2.126
38 P4 68 1.149
38 P4 69 0.173
38 P4 70 -1.292
38 P4 71 -1.780
38 P4 72 -2.268
38 P4 73 -2.268
38 P4 74 -2.757
38 P4 75 -3.245
38 P4 76 -3.245
38 P4 77 -1.780
38 P4 78 0.173
38 P4 79 2.126
38 P4 80 3.591
38 P4 81 3.591
38 P4 82 2.614
38 P4 83 1.149
38 P4 84 0.661
38 P4 85 0.173
38 P4 86 -0.315
38 P4 87 -0.315
38 P4 88 -0.315
38 P4 89 0.173
38 P4 90 1.149
38 P4 91 2.614
38 P4 92 3.103
38 P4 93 2.614
38 P4 94 1.149
38 P4 95 -0.804
38 P4 96 -2.268
38 P4 97 -3.245
38 P4 98 -2.757
38 P4 99 -2.268
38 P4 100 -0.804
38 P4 101 0.661
38 P4 102 1.149
38 P4 103 1.638
38 P4 104 2.126
38 P4 105 2.614
38 P4 106 2.614
38 P4 107 2.614
38 P4 108 1.638
38 P4 109 0.661
38 P4 110 0.661
38 P4 111 0.661
38 P4 112 1.149
38 P4 113 2.126
38 P4 114 2.614
38 P4 115 2.614
38 P4 116 2.614
38 P4 117 3.103
38 P4 118 3.103
38 P4 119 2.614
38 P4 120 1.638
38 P4 121 0.661
38 P4 122 0.661
38 P4 123 0.661
38 P4 124 1.149
38 P4 125 0.173
38 P4 126 -1.292
38 P4 127 -2.757
38 P4 128 -3.733
38 P4 129 -3.733
38 P4 130 -2.757
38 P4 131 -1.780
38 P4 132 -0.804
38 P4 133 -0.315
38 P4 134 -0.315
38 P4 135 0.173
38 P4 136 0.661
38 P4 137 1.149
38 P4 138 1.638
38 P4 139 2.126
38 P4 140 1.149
38 P4 141 0.173
38 P4 142 -1.292
38 P4 143 -2.268
38 P4 144 -2.268
38 P4 145 -1.780
38 P4 146 -0.804
38 P4 147 -0.315
38 P4 148 0.173
38 P4 149 0.173
38 P4 150 -0.315
38 P4 151 -0.804
38 P4 152 -1.292
38 P4 153 -2.268
38 P4 154 -1.780
38 P4 155 -1.292
38 P4 156 0.173
38 P4 157 1.149
38 P4 158 2.126
38 P4 159 2.614
38 P4 160 3.103
38 P4 161 4.079
38 P4 162 5.056
38 P4 163 6.521
38 P4 164 6.521
38 P4 165 4.567
38 P4 166 1.638
38 P4 167 -2.757
38 P4 168 -6.663
38 P4 169 -10.081
38 P4 170 -11.058
38 P4 171 -9.593
38 P4 172 -5.686
38 P4 173 -1.292
38 P4 174 2.614
38 P4 175 5.056
38 P4 176 6.032
38 P4 177 6.032
38 P4 178 6.032
38 P4 179 5.544
38 P4 180 5.056
38 P4 181 4.079
38 P4 182 2.126
38 P4 183 0.173
38 P4 184 -2.268
38 P4 185 -4.222
38 P4 186 -6.175
38 P4 187 -8.616
38 P4 188 -11.058
38 P4 189 -12.522
38 P4 190 -12.034
38 P4 191 -9.593
38 P4 192 -5.686
38 P4 193 -0.804
38 P4 194 3.103
38 P4 195 5.544
38 P4 196 6.032
38 P4 197 5.544
38 P4 198 3.591
38 P4 199 1.149
38 P4 200 -0.804
38 P4 201 -2.757
38 P4 202 -3.733
38 P4 203 -4.222
38 P4 204 -4.710
38 P4 205 -4.222
38 P4 206 -3.733
38 P4 207 -2.268
38 P4 208 -0.315
38 P4 209 1.638
38 P4 210 3.103
38 P4 211 4.079
38 P4 212 4.079
38 P4 213 4.079
38 P4 214 4.079
38 P4 215 4.079
38 P4 216 4.079
38 P4 217 3.591
38 P4 218 2.614
38 P4 219 1.149
38 P4 220 -0.804
38 P4 221 -1.780
38 P4 222 -3.245
38 P4 223 -3.245
38 P4 224 -2.268
38 P4 225 -0.804
38 P4 226 0.661
38 P4 227 1.638
38 P4 228 2.126
38 P4 229 1.638
38 P4 230 1.149
38 P4 231 0.661
38 P4 232 0.173
38 P4 233 -0.315
38 P4 234 -0.804
38 P4 235 -0.315
38 P4 236 -0.315
38 P4 237 -0.315
38 P4 238 -0.315
38 P4 239 -0.804
38 P4 240 -1.780
38 P4 241 -3.245
38 P4 242 -4.222
38 P4 243 -4.222
38 P4 244 -3.733
38 P4 245 -2.757
38 P4 246 -1.292
38 P4 247 -0.804
38 P4 248 0.173
38 P4 249 1.149
38 P4 250 2.614
38 P4 251 4.079
38 P4 252 4.079
38 P4 253 3.103
38 P4 254 1.638
38 P4 255 0.173
# PZ chan 24
38 PZ 0 -1.780
38 PZ 1 -2.268
38 PZ 2 -2.757
38 PZ 3 -3.733
38 PZ 4 -4.222
38 PZ 5 -4.710
38 PZ 6 -4.222
38 PZ 7 -3.245
38 PZ 8 -1.780
38 PZ 9 -0.804
38 PZ 10 -0.315
38 PZ 11 0.173
38 PZ 12 0.661
38 PZ 13 1.638
38 PZ 14 2.614
38 PZ 15 3.103
38 PZ 16 3.103
38 PZ 17 2.614
38 PZ 18 2.614
38 PZ 19 2.614
38 PZ 20 4.079
38 PZ 21 5.056
38 PZ 22 6.032
38 PZ 23 6.032
38 PZ 24 4.567
38 PZ 25 2.614
38 PZ 26 0.661
38 PZ 27 -0.315
38 PZ 28 -0.804
38 PZ 29 0.173
38 PZ 30 0.661
38 PZ 31 1.149
38 PZ 32 0.661
38 PZ 33 0.661
38 PZ 34 0.173
38 PZ 35 0.173
38 PZ 36 0.661
38 PZ 37 0.173
38 PZ 38 -0.315
38 PZ 39 -0.804
38 PZ 40 -1.780
38 PZ 41 -1.780
38 PZ 42 -0.804
38 PZ 43 -0.315
38 PZ 44 0.173
38 PZ 45 -0.315
38 PZ 46 -1.780
38 PZ 47 -3.245
38 PZ 48 -4.710
38 PZ 49 -5.686
38 PZ 50 -5.686
38 PZ 51 -5.686
38 PZ 52 -5.686
38 PZ 53 -6.175
38 PZ 54 -7.151
38 PZ 55 -7.640
38 PZ 56 -7.640
38 PZ 57 -7.151
38 PZ 58 -5.198
38 PZ 59 -3.245
38 PZ 60 -1.292
38 PZ 61 1.149
38 PZ 62 2.614
38 PZ 63 3.591
38 PZ 64 4.079
38 PZ 65 4.079
38 PZ 66 3.591
38 PZ 67 3.103
38 PZ 68 2.126
38 PZ 69 1.149
38 PZ 70 1.149
38 PZ 71 1.149
38 PZ 72 0.661
38 PZ 73 0.173
38 PZ 74 -1.292
38 PZ 75 -2.757
38 PZ 76 -3.733
38 PZ 77 -3.245
38 PZ 78 -1.780
38 PZ 79 -0.315
38 PZ 80 0.661
38 PZ 81 1.149
38 PZ 82 0.661
38 PZ 83 -0.315
38 PZ 84 -1.292
38 PZ 85 -1.780
38 PZ 86 -2.268
38 PZ 87 -2.757
38 PZ 88 -2.757
38 PZ 89 -2.268
38 PZ 90 -1.292
38 PZ 91 0.173
38 PZ 92 -0.315
38 PZ 93 -1.292
38 PZ 94 -2.757
38 PZ 95 -3.733
38 PZ 96 -4.710
38 PZ 97 -5.198
38 PZ 98 -4.710
38 PZ 99 -3.733
38 PZ 100 -2.268
38 PZ 101 -1.292
38 PZ 102 -0.804
38 PZ 103 -0.315
38 PZ 104 -0.315
38 PZ 105 -0.804
38 PZ 106 -0.804
38 PZ 107 -1.292
38 PZ 108 -1.780
38 PZ 109 -2.757
38 PZ 110 -3.245
38 PZ 111 -3.245
38 PZ 112 -2.757
38 PZ 113 -2.268
38 PZ 114 -1.292
38 PZ 115 -0.315
38 PZ 116 0.173
38 PZ 117 0.173
38 PZ 118 0.173
38 PZ 119 0.661
38 PZ 120 0.173
38 PZ 121 -0.315
38 PZ 122 -0.804
38 PZ 123 -1.780
38 PZ 124 -2.757
38 PZ 125 -3.245
38 PZ 126 -3.733
38 PZ 127 -4.710
38 PZ 128 -5.686
38 PZ 129 -6.663
38 PZ 130 -6.663
38 PZ 131 -5.686
38 PZ 132 -4.222
38 PZ 133 -2.757
38 PZ 134 -1.780
38 PZ 135 -0.804
38 PZ 136 0.173
38 PZ 137 0.661
38 PZ 138 1.638
38 PZ 139 1.638
38 PZ 140 0.661
38 PZ 141 -1.292
38 PZ 142 -3.733
38 PZ 143 -5.686
38 PZ 144 -6.663
38 PZ 145 -6.175
38 PZ 146 -4.710
38 PZ 147 -3.733
38 PZ 148 -2.757
38 PZ 149 -2.268
38 PZ 150 -1.780
38 PZ 151 -1.780
38 PZ 152 -2.268
38 PZ 153 -2.757
38 PZ 154 -3.733
38 PZ 155 -4.710
38 PZ 156 -4.710
38 PZ 157 -4.710
38 PZ 158 -3.733
38 PZ 159 -3.245
38 PZ 160 -2.757
38 PZ 161 -1.292
38 PZ 162 0.661
38 PZ 163 2.614
38 PZ 164 4.079
38 PZ 165 4.079
38 PZ 166 2.126
38 PZ 167 -1.292
38 PZ 168 -5.686
38 PZ 169 -9.104
38 PZ 170 -11.058
38 PZ 171 -10.569
38 PZ 172 -8.128
38 PZ 173 -4.710
38 PZ 174 -0.804
38 PZ 175 1.638
38 PZ 176 2.614
38 PZ 177 2.614
38 PZ 178 2.126
38 PZ 179 2.126
38 PZ 180 2.614
38 PZ 181 2.614
38 PZ 182 2.126
38 PZ 183 1.149
38 PZ 184 0.173
38 PZ 185 -1.292
38 PZ 186 -3.245
38 PZ 187 -5.198
38 PZ 188 -6.663
38 PZ 189 -8.616
38 PZ 190 -9.104
38 PZ 191 -8.128
38 PZ 192 -5.686
38 PZ 193 -2.268
38 PZ 194 0.173
38 PZ 195 1.149
38 PZ 196 1.149
38 PZ 197 0.173
38 PZ 198 -1.292
38 PZ 199 -2.268
38 PZ 200 -3.733
38 PZ 201 -4.710
38 PZ 202 -5.686
38 PZ 203 -5.686
38 PZ 204 -5.686
38 PZ 205 -5.198
38 PZ 206 -4.710
38 PZ 207 -3.733
38 PZ 208 -2.757
38 PZ 209 -1.292
38 PZ 210 0.661
38 PZ 211 2.126
38 PZ 212 2.614
38 PZ 213 2.126
38 PZ 214 1.638
38 PZ 215 0.661
38 PZ 216 0.661
38 PZ 217 0.661
38 PZ 218 0.173
38 PZ 219 -0.804
38 PZ 220 -2.268
38 PZ 221 -3.245
38 PZ 222 -3.245
38 PZ 223 -3.245
38 PZ 224 -1.780
38 PZ 225 -0.804
38 PZ 226 0.173
38 PZ 227 0.661
38 PZ 228 0.661
38 PZ 229 0.661
38 PZ 230 0.173
38 PZ 231 -0.804
38 PZ 232 -1.292
38 PZ 233 -2.268
38 PZ 234 -2.757
38 PZ 235 -2.757
38 PZ 236 -3.245
38 PZ 237 -3.245
38 PZ 238 -3.245
38 PZ 239 -4.222
38 PZ 240 -5.686
38 PZ 241 -7.151
38 PZ 242 -7.640
38 PZ 243 -7.640
38 PZ 244 -6.175
38 PZ 245 -4.222
38 PZ 246 -2.757
38 PZ 247 -1.292
38 PZ 248 -0.804
38 PZ 249 -0.315
38 PZ 250 0.173
38 PZ 251 0.173
38 PZ 252 -0.315
38 PZ 253 -1.292
38 PZ 254 -2.757
38 PZ 255 -3.733
# P8 chan 25
38 P8 0 -8.687
38 P8 1 -8.199
38 P8 2 -6.734
38 P8 3 -4.781
38 P8 4 -3.316
38 P8 5 -1.363
38 P8 6 0.590
38 P8 7 3.031
38 P8 8 5.961
38 P8 9 8.403
38 P8 10 10.356
38 P8 11 11.332
38 P8 12 11.820
38 P8 13 11.332
38 P8 14 10.356
38 P8 15 8.891
38 P8 16 6.938
38 P8 17 4.496
38 P8 18 2.543
38 P8 19 0.590
38 P8 20 -0.387
38 P8 21 0.102
38 P8 22 1.078
38 P8 23 2.543
38 P8 24 3.520
38 P8 25 3.031
38 P8 26 2.055
38 P8 27 1.567
38 P8 28 1.567
38 P8 29 1.567
38 P8 30 1.567
38 P8 31 0.590
38 P8 32 -0.387
38 P8 33 -0.875
38 P8 34 0.102
38 P8 35 1.567
38 P8 36 1.567
38 P8 37 0.102
38 P8 38 -2.828
38 P8 39 -4.781
38 P8 40 -5.269
38 P8 41 -3.805
38 P8 42 -0.875
38 P8 43 0.590
38 P8 44 -0.387
38 P8 45 -3.316
38 P8 46 -7.222
38 P8 47 -10.152
38 P8 48 -11.129
38 P8 49 -11.129
38 P8 50 -11.617
38 P8 51 -12.594
38 P8 52 -13.570
38 P8 53 -13.082
38 P8 54 -12.594
38 P8 55 -11.129
38 P8 56 -8.687
38 P8 57 -6.734
38 P8 58 -5.269
38 P8 59 -4.293
38 P8 60 -2.340
38 P8 61 -1.363
38 P8 62 0.102
38 P8 63 0.590
38 P8 64 0.102
38 P8 65 -0.387
38 P8 66 -1.363
38 P8 67 -1.851
38 P8 68 -2.828
38 P8 69 -4.293
38 P8 70 -5.269
38 P8 71 -6.734
38 P8 72 -7.222
38 P8 73 -7.711
38 P8 74 -7.222
38 P8 75 -6.734
38 P8 76 -5.758
38 P8 77 -4.781
38 P8 78 -2.828
38 P8 79 -0.875
38 P8 80 0.590
38 P8 81 1.078
38 P8 82 1.078
38 P8 83 0.102
38 P8 84 -1.363
38 P8 85 -2.340
38 P8 86 -2.828
38 P8 87 -2.828
38 P8 88 -1.851
38 P8 89 -0.387
38 P8 90 0.590
38 P8 91 1.078
38 P8 92 1.078
38 P8 93 0.102
38 P8 94 -0.875
38 P8 95 -2.828
38 P8 96 -4.293
38 P8 97 -6.246
38 P8 98 -7.222
38 P8 99 -6.734
38 P8 100 -6.246
38 P8 101 -4.781
38 P8 102 -3.316
38 P8 103 -1.851
38 P8 104 -0.387
38 P8 105 0.590
38 P8 106 1.567
38 P8 107 2.055
38 P8 108 1.567
38 P8 109 1.078
38 P8 110 0.590
38 P8 111 1.078
38 P8 112 0.590
38 P8 113 0.590
38 P8 114 0.102
38 P8 115 -0.387
38 P8 116 -0.387
38 P8 117 0.590
38 P8 118 1.078
38 P8 119 1.078
38 P8 120 0.102
38 P8 121 -1.363
38 P8 122 -1.851
38 P8 123 -1.851
38 P8 124 -0.875
38 P8 125 -1.363
38 P8 126 -2.828
38 P8 127 -5.269
38 P8 128 -7.222
38 P8 129 -8.199
38 P8 130 -7.222
38 P8 131 -5.269
38 P8 132 -3.316
38 P8 133 -2.340
38 P8 134 -1.851
38 P8 135 -1.851
38 P8 136 -1.851
38 P8 137 -1.851
38 P8 138 -2.340
38 P8 139 -3.805
38 P8 140 -4.781
38 P8 141 -5.269
38 P8 142 -5.269
38 P8 143 -4.293
38 P8 144 -3.316
38 P8 145 -2.828
38 P8 146 -2.828
38 P8 147 -1.851
38 P8 148 -0.875
38 P8 149 0.102
38 P8 150 -0.387
38 P8 151 -2.340
38 P8 152 -5.269
38 P8 153 -8.199
38 P8 154 -9.176
38 P8 155 -8.687
38 P8 156 -5.758
38 P8 157 -2.340
38 P8 158 0.590
38 P8 159 2.543
38 P8 160 3.520
38 P8 161 4.496
38 P8 162 5.473
38 P8 163 6.449
38 P8 164 6.449
38 P8 165 4.985
38 P8 166 1.567
38 P8 167 -3.316
38 P8 168 -9.176
38 P8 169 -14.058
38 P8 170 -16.988
38 P8 171 -16.988
38 P8 172 -13.082
38 P8 173 -8.687
38 P8 174 -4.293
38 P8 175 -1.851
38 P8 176 -1.363
38 P8 177 -0.875
38 P8 178 0.102
38 P8 179 1.567
38 P8 180 3.031
38 P8 181 3.520
38 P8 182 2.543
38 P8 183 -0.387
38 P8 184 -2.828
38 P8 185 -6.246
38 P8 186 -10.640
38 P8 187 -16.012
38 P8 188 -20.406
38 P8 189 -23.336
38 P8 190 -22.847
38 P8 191 -19.918
38 P8 192 -15.035
38 P8 193 -10.640
38 P8 194 -6.734
38 P8 195 -4.293
38 P8 196 -2.828
38 P8 197 -2.340
38 P8 198 -2.340
38 P8 199 -3.316
38 P8 200 -4.293
38 P8 201 -5.269
38 P8 202 -5.758
38 P8 203 -6.246
38 P8 204 -7.222
38 P8 205 -7.222
38 P8 206 -7.711
38 P8 207 -7.222
38 P8 208 -6.734
38 P8 209 -6.246
38 P8 210 -6.246
38 P8 211 -6.734
38 P8 212 -6.734
38 P8 213 -6.246
38 P8 214 -5.269
38 P8 215 -4.293
38 P8 216 -3.805
38 P8 217 -4.293
38 P8 218 -5.269
38 P8 219 -7.222
38 P8 220 -9.176
38 P8 221 -10.640
38 P8 222 -12.594
38 P8 223 -14.058
38 P8 224 -14.547
38 P8 225 -13.570
38 P8 226 -11.617
38 P8 227 -9.664
38 P8 228 -8.199
38 P8 229 -8.199
38 P8 230 -8.687
38 P8 231 -9.664
38 P8 232 -10.640
38 P8 233 -10.152
38 P8 234 -9.664
38 P8 235 -9.176
38 P8 236 -9.176
38 P8 237 -9.664
38 P8 238 -10.640
38 P8 239 -12.105
38 P8 240 -13.082
38 P8 241 -13.570
38 P8 242 -14.058
38 P8 243 -14.547
38 P8 244 -14.547
38 P8 245 -14.547
38 P8 246 -14.058
38 P8 247 -13.082
38 P8 248 -12.594
38 P8 249 -11.617
38 P8 250 -10.640
38 P8 251 -9.176
38 P8 252 -8.199
38 P8 253 -8.199
38 P8 254 -9.664
38 P8 255 -11.617
# P7 chan 26
38 P7 0 0.356
38 P7 1 0.356
38 P7 2 -0.621
38 P7 3 -2.574
38 P7 4 -4.038
38 P7 5 -4.527
38 P7 6 -3.550
38 P7 7 -1.597
38 P7 8 0.844
38 P7 9 2.797
38 P7 10 4.262
38 P7 11 5.239
38 P7 12 6.704
38 P7 13 7.192
38 P7 14 7.680
38 P7 15 7.680
38 P7 16 6.704
38 P7 17 5.239
38 P7 18 3.286
38 P7 19 1.821
38 P7 20 1.333
38 P7 21 1.821
38 P7 22 2.309
38 P7 23 3.286
38 P7 24 3.774
38 P7 25 3.774
38 P7 26 3.286
38 P7 27 3.774
38 P7 28 3.774
38 P7 29 4.262
38 P7 30 4.262
38 P7 31 3.286
38 P7 32 1.333
38 P7 33 -1.597
38 P7 34 -4.038
38 P7 35 -5.992
38 P7 36 -6.968
38 P7 37 -6.968
38 P7 38 -7.456
38 P7 39 -7.945
38 P7 40 -8.921
38 P7 41 -9.410
38 P7 42 -8.921
38 P7 43 -7.945
38 P7 44 -7.945
38 P7 45 -8.921
38 P7 46 -11.363
38 P7 47 -14.292
38 P7 48 -16.734
38 P7 49 -18.199
38 P7 50 -18.687
38 P7 51 -19.175
38 P7 52 -19.663
38 P7 53 -19.663
38 P7 54 -18.687
38 P7 55 -16.734
38 P7 56 -14.781
38 P7 57 -13.316
38 P7 58 -13.316
38 P7 59 -13.316
38 P7 60 -12.828
38 P7 61 -10.874
38 P7 62 -8.433
38 P7 63 -5.503
38 P7 64 -3.550
38 P7 65 -2.574
38 P7 66 -2.085
38 P7 67 -2.085
38 P7 68 -1.597
38 P7 69 -1.597
38 P7 70 -1.597
38 P7 71 -2.085
38 P7 72 -3.062
38 P7 73 -4.527
38 P7 74 -5.992
38 P7 75 -7.456
38 P7 76 -8.433
38 P7 77 -8.433
38 P7 78 -7.945
38 P7 79 -6.480
38 P7 80 -4.527
38 P7 81 -3.062
38 P7 82 -2.574
38 P7 83 -2.085
38 P7 84 -1.597
38 P7 85 -1.597
38 P7 86 -2.574
38 P7 87 -4.038
38 P7 88 -5.503
38 P7 89 -6.480
38 P7 90 -5.992
38 P7 91 -5.015
38 P7 92 -4.038
38 P7 93 -4.527
38 P7 94 -5.503
38 P7 95 -6.968
38 P7 96 -8.433
38 P7 97 -8.433
38 P7 98 -8.433
38 P7 99 -7.945
38 P7 100 -8.433
38 P7 101 -8.921
38 P7 102 -8.921
38 P7 103 -8.433
38 P7 104 -7.456
38 P7 105 -5.992
38 P7 106 -5.015
38 P7 107 -4.527
38 P7 108 -4.038
38 P7 109 -4.038
38 P7 110 -4.038
38 P7 111 -4.038
38 P7 112 -4.038
38 P7 113 -4.038
38 P7 114 -4.527
38 P7 115 -5.015
38 P7 116 -5.503
38 P7 117 -5.503
38 P7 118 -4.527
38 P7 119 -3.550
38 P7 120 -2.574
38 P7 121 -1.597
38 P7 122 -1.109
38 P7 123 -1.109
38 P7 124 -2.085
38 P7 125 -4.038
38 P7 126 -7.456
38 P7 127 -10.874
38 P7 128 -13.804
38 P7 129 -15.269
38 P7 130 -15.757
38 P7 131 -14.781
38 P7 132 -12.828
38 P7 133 -10.874
38 P7 134 -9.410
38 P7 135 -6.968
38 P7 136 -5.503
38 P7 137 -4.038
38 P7 138 -3.062
38 P7 139 -2.574
38 P7 140 -3.550
38 P7 141 -5.015
38 P7 142 -6.968
38 P7 143 -8.433
38 P7 144 -8.433
38 P7 145 -7.456
38 P7 146 -5.992
38 P7 147 -4.038
38 P7 148 -3.062
38 P7 149 -2.574
38 P7 150 -3.062
38 P7 151 -4.527
38 P7 152 -6.480
38 P7 153 -7.945
38 P7 154 -9.898
38 P7 155 -10.874
38 P7 156 -10.874
38 P7 157 -10.386
38 P7 158 -9.410
38 P7 159 -8.433
38 P7 160 -6.968
38 P7 161 -5.503
38 P7 162 -3.062
38 P7 163 -0.621
38 P7 164 1.333
38 P7 165 2.309
38 P7 166 1.821
38 P7 167 -0.132
38 P7 168 -3.062
38 P7 169 -5.992
38 P7 170 -7.945
38 P7 171 -8.921
38 P7 172 -9.410
38 P7 173 -9.898
38 P7 174 -10.874
38 P7 175 -11.851
38 P7 176 -13.804
38 P7 177 -14.781
38 P7 178 -15.269
38 P7 179 -14.292
38 P7 180 -11.851
38 P7 181 -9.410
38 P7 182 -7.456
38 P7 183 -6.480
38 P7 184 -6.480
38 P7 185 -6.480
38 P7 186 -7.456
38 P7 187 -8.433
38 P7 188 -9.410
38 P7 189 -10.386
38 P7 190 -10.874
38 P7 191 -10.386
38 P7 192 -9.410
38 P7 193 -8.433
38 P7 194 -8.433
38 P7 195 -8.921
38 P7 196 -9.898
38 P7 197 -10.874
38 P7 198 -12.339
38 P7 199 -12.828
38 P7 200 -12.828
38 P7 201 -13.316
38 P7 202 -14.292
38 P7 203 -14.781
38 P7 204 -15.269
38 P7 205 -15.757
38 P7 206 -15.269
38 P7 207 -15.269
38 P7 208 -14.781
38 P7 209 -14.292
38 P7 210 -13.804
38 P7 211 -13.316
38 P7 212 -12.339
38 P7 213 -11.851
38 P7 214 -11.363
38 P7 215 -10.874
38 P7 216 -10.386
38 P7 217 -9.898
38 P7 218 -8.921
38 P7 219 -8.921
38 P7 220 -9.898
38 P7 221 -12.339
38 P7 222 -15.269
38 P7 223 -17.222
38 P7 224 -17.222
38 P7 225 -16.246
38 P7 226 -13.804
38 P7 227 -12.339
38 P7 228 -10.874
38 P7 229 -10.874
38 P7 230 -10.874
38 P7 231 -10.874
38 P7 232 -11.363
38 P7 233 -12.828
38 P7 234 -14.781
38 P7 235 -17.710
38 P7 236 -20.640
38 P7 237 -22.105
38 P7 238 -22.593
38 P7 239 -22.105
38 P7 240 -21.128
38 P7 241 -19.663
38 P7 242 -17.710
38 P7 243 -16.246
38 P7 244 -15.269
38 P7 245 -15.269
38 P7 246 -16.246
38 P7 247 -17.222
38 P7 248 -17.222
38 P7 249 -16.246
38 P7 250 -14.292
38 P7 251 -12.828
38 P7 252 -11.851
38 P7 253 -11.851
38 P7 254 -12.828
38 P7 255 -12.828
# PO2 chan 27
38 PO2 0 -1.272
38 PO2 1 -0.783
38 PO2 2 -1.272
38 PO2 3 -2.248
38 PO2 4 -3.713
38 PO2 5 -4.201
38 PO2 6 -3.713
38 PO2 7 -2.248
38 PO2 8 -0.783
38 PO2 9 0.682
38 PO2 10 2.146
38 PO2 11 3.611
38 PO2 12 5.076
38 PO2 13 6.053
38 PO2 14 7.029
38 PO2 15 6.541
38 PO2 16 5.564
38 PO2 17 4.588
38 PO2 18 4.100
38 PO2 19 4.100
38 PO2 20 4.588
38 PO2 21 5.564
38 PO2 22 6.541
38 PO2 23 6.541
38 PO2 24 6.053
38 PO2 25 4.100
38 PO2 26 1.658
38 PO2 27 -0.783
38 PO2 28 -2.248
38 PO2 29 -2.736
38 PO2 30 -1.760
38 PO2 31 -0.783
38 PO2 32 0.193
38 PO2 33 0.682
38 PO2 34 0.193
38 PO2 35 -0.295
38 PO2 36 -1.272
38 PO2 37 -2.736
38 PO2 38 -4.201
38 PO2 39 -5.666
38 PO2 40 -6.154
38 PO2 41 -5.666
38 PO2 42 -4.201
38 PO2 43 -2.736
38 PO2 44 -2.248
38 PO2 45 -3.225
38 PO2 46 -5.666
38 PO2 47 -8.107
38 PO2 48 -10.549
38 PO2 49 -11.037
38 PO2 50 -10.549
38 PO2 51 -9.572
38 PO2 52 -9.572
38 PO2 53 -10.061
38 PO2 54 -11.525
38 PO2 55 -12.502
38 PO2 56 -12.502
38 PO2 57 -11.525
38 PO2 58 -9.572
38 PO2 59 -7.131
38 PO2 60 -4.690
38 PO2 61 -2.736
38 PO2 62 -1.272
38 PO2 63 -0.783
38 PO2 64 -0.783
38 PO2 65 -1.760
38 PO2 66 -2.736
38 PO2 67 -3.713
38 PO2 68 -4.690
38 PO2 69 -5.178
38 PO2 70 -6.154
38 PO2 71 -7.131
38 PO2 72 -8.596
38 PO2 73 -10.549
38 PO2 74 -11.525
38 PO2 75 -12.014
38 PO2 76 -12.014
38 PO2 77 -10.549
38 PO2 78 -8.596
38 PO2 79 -7.131
38 PO2 80 -5.666
38 PO2 81 -6.154
38 PO2 82 -7.131
38 PO2 83 -8.107
38 PO2 84 -8.596
38 PO2 85 -9.572
38 PO2 86 -10.061
38 PO2 87 -11.037
38 PO2 88 -11.525
38 PO2 89 -11.525
38 PO2 90 -10.549
38 PO2 91 -9.084
38 PO2 92 -8.596
38 PO2 93 -9.084
38 PO2 94 -11.037
38 PO2 95 -12.990
38 PO2 96 -14.943
38 PO2 97 -15.920
38 PO2 98 -15.432
38 PO2 99 -13.967
38 PO2 100 -12.502
38 PO2 101 -11.037
38 PO2 102 -10.061
38 PO2 103 -9.572
38 PO2 104 -9.084
38 PO2 105 -8.107
38 PO2 106 -7.619
38 PO2 107 -7.619
38 PO2 108 -8.107
38 PO2 109 -9.572
38 PO2 110 -11.525
38 PO2 111 -12.502
38 PO2 112 -12.990
38 PO2 113 -12.990
38 PO2 114 -12.502
38 PO2 115 -11.525
38 PO2 116 -10.549
38 PO2 117 -9.572
38 PO2 118 -9.572
38 PO2 119 -9.572
38 PO2 120 -10.549
38 PO2 121 -11.525
38 PO2 122 -11.525
38 PO2 123 -12.014
38 PO2 124 -12.990
38 PO2 125 -14.455
38 PO2 126 -15.920
38 PO2 127 -18.361
38 PO2 128 -19.826
38 PO2 129 -19.826
38 PO2 130 -18.850
38 PO2 131 -17.385
38 PO2 132 -15.920
38 PO2 133 -14.943
38 PO2 134 -13.967
38 PO2 135 -13.479
38 PO2 136 -12.502
38 PO2 137 -11.525
38 PO2 138 -10.549
38 PO2 139 -10.549
38 PO2 140 -12.014
38 PO2 141 -13.967
38 PO2 142 -16.408
38 PO2 143 -17.873
38 PO2 144 -18.361
38 PO2 145 -17.873
38 PO2 146 -15.920
38 PO2 147 -13.967
38 PO2 148 -12.014
38 PO2 149 -10.549
38 PO2 150 -11.037
38 PO2 151 -12.014
38 PO2 152 -12.990
38 PO2 153 -14.455
38 PO2 154 -15.432
38 PO2 155 -15.432
38 PO2 156 -14.455
38 PO2 157 -12.990
38 PO2 158 -12.014
38 PO2 159 -10.549
38 PO2 160 -9.572
38 PO2 161 -8.107
38 PO2 162 -6.643
38 PO2 163 -4.690
38 PO2 164 -3.225
38 PO2 165 -3.225
38 PO2 166 -5.178
38 PO2 167 -8.596
38 PO2 168 -13.967
38 PO2 169 -18.361
38 PO2 170 -21.291
38 PO2 171 -21.291
38 PO2 172 -18.850
38 PO2 173 -14.943
38 PO2 174 -10.061
38 PO2 175 -6.643
38 PO2 176 -4.690
38 PO2 177 -4.201
38 PO2 178 -4.690
38 PO2 179 -4.690
38 PO2 180 -3.713
38 PO2 181 -3.225
38 PO2 182 -3.225
38 PO2 183 -4.690
38 PO2 184 -7.131
38 PO2 185 -9.572
38 PO2 186 -12.502
38 PO2 187 -15.920
38 PO2 188 -18.361
38 PO2 189 -20.315
38 PO2 190 -20.803
38 PO2 191 -19.338
38 PO2 192 -15.920
38 PO2 193 -11.525
38 PO2 194 -7.619
38 PO2 195 -5.666
38 PO2 196 -5.666
38 PO2 197 -7.131
38 PO2 198 -10.061
38 PO2 199 -12.502
38 PO2 200 -14.455
38 PO2 201 -15.920
38 PO2 202 -16.408
38 PO2 203 -16.408
38 PO2 204 -16.408
38 PO2 205 -15.432
38 PO2 206 -14.943
38 PO2 207 -13.479
38 PO2 208 -12.502
38 PO2 209 -10.549
38 PO2 210 -9.572
38 PO2 211 -9.084
38 PO2 212 -9.084
38 PO2 213 -9.572
38 PO2 214 -9.084
38 PO2 215 -8.596
38 PO2 216 -7.131
38 PO2 217 -6.643
38 PO2 218 -6.643
38 PO2 219 -7.131
38 PO2 220 -8.596
38 PO2 221 -10.549
38 PO2 222 -11.525
38 PO2 223 -12.502
38 PO2 224 -12.014
38 PO2 225 -10.549
38 PO2 226 -8.596
38 PO2 227 -6.643
38 PO2 228 -5.666
38 PO2 229 -5.666
38 PO2 230 -7.131
38 PO2 231 -9.084
38 PO2 232 -11.037
38 PO2 233 -12.502
38 PO2 234 -13.967
38 PO2 235 -14.455
38 PO2 236 -14.455
38 PO2 237 -14.455
38 PO2 238 -13.967
38 PO2 239 -13.967
38 PO2 240 -14.943
38 PO2 241 -15.920
38 PO2 242 -16.897
38 PO2 243 -17.873
38 PO2 244 -17.385
38 PO2 245 -16.408
38 PO2 246 -15.432
38 PO2 247 -13.479
38 PO2 248 -12.014
38 PO2 249 -10.549
38 PO2 250 -9.084
38 PO2 251 -8.596
38 PO2 252 -8.596
38 PO2 253 -10.549
38 PO2 254 -12.990
38 PO2 255 -14.943
# PO1 chan 28
38 PO1 0 0.834
38 PO1 1 0.834
38 PO1 2 -0.142
38 PO1 3 -1.607
38 PO1 4 -3.072
38 PO1 5 -3.560
38 PO1 6 -3.072
38 PO1 7 -1.607
38 PO1 8 -0.142
38 PO1 9 0.834
38 PO1 10 2.299
38 PO1 11 3.764
38 PO1 12 4.740
38 PO1 13 5.229
38 PO1 14 5.229
38 PO1 15 5.229
38 PO1 16 4.252
