# co3a0000457.rd
# 120 trials, 64 chans, 416 samples 368 post_stim samples
# 3.906000 msecs uV
# S2 match , trial 27
# FP1 chan 0
27 FP1 0 -13.652
27 FP1 1 -9.257
27 FP1 2 -6.327
27 FP1 3 -4.862
27 FP1 4 -2.909
27 FP1 5 -0.956
27 FP1 6 0.509
27 FP1 7 2.462
27 FP1 8 4.903
27 FP1 9 8.809
27 FP1 10 13.692
27 FP1 11 16.134
27 FP1 12 14.181
27 FP1 13 7.345
27 FP1 14 -1.444
27 FP1 15 -7.304
27 FP1 16 -6.816
27 FP1 17 -2.909
27 FP1 18 0.997
27 FP1 19 1.485
27 FP1 20 -1.444
27 FP1 21 -4.862
27 FP1 22 -7.792
27 FP1 23 -9.745
27 FP1 24 -13.652
27 FP1 25 -19.999
27 FP1 26 -26.835
27 FP1 27 -30.253
27 FP1 28 -27.323
27 FP1 29 -20.487
27 FP1 30 -13.163
27 FP1 31 -11.210
27 FP1 32 -14.628
27 FP1 33 -20.976
27 FP1 34 -23.905
27 FP1 35 -21.952
27 FP1 36 -17.069
27 FP1 37 -12.675
27 FP1 38 -11.698
27 FP1 39 -13.652
27 FP1 40 -15.116
27 FP1 41 -14.140
27 FP1 42 -10.234
27 FP1 43 -5.839
27 FP1 44 -3.398
27 FP1 45 -1.933
27 FP1 46 -0.468
27 FP1 47 2.950
27 FP1 48 7.833
27 FP1 49 12.716
27 FP1 50 15.157
27 FP1 51 15.157
27 FP1 52 13.692
27 FP1 53 9.786
27 FP1 54 5.391
27 FP1 55 -0.468
27 FP1 56 -6.816
27 FP1 57 -13.163
27 FP1 58 -18.534
27 FP1 59 -22.441
27 FP1 60 -25.859
27 FP1 61 -30.741
27 FP1 62 -37.089
27 FP1 63 -42.460
27 FP1 64 -43.437
27 FP1 65 -39.530
27 FP1 66 -31.230
27 FP1 67 -22.929
27 FP1 68 -17.558
27 FP1 69 -16.093
27 FP1 70 -15.605
27 FP1 71 -14.140
27 FP1 72 -12.675
27 FP1 73 -11.210
27 FP1 74 -11.698
27 FP1 75 -12.675
27 FP1 76 -11.698
27 FP1 77 -8.280
27 FP1 78 -3.398
27 FP1 79 -0.468
27 FP1 80 -2.909
27 FP1 81 -9.745
27 FP1 82 -18.046
27 FP1 83 -24.394
27 FP1 84 -25.859
27 FP1 85 -23.905
27 FP1 86 -20.487
27 FP1 87 -17.558
27 FP1 88 -16.581
27 FP1 89 -17.558
27 FP1 90 -19.999
27 FP1 91 -21.952
27 FP1 92 -19.999
27 FP1 93 -13.163
27 FP1 94 -3.398
27 FP1 95 7.345
27 FP1 96 12.716
27 FP1 97 11.739
27 FP1 98 4.415
27 FP1 99 -3.886
27 FP1 100 -10.722
27 FP1 101 -13.652
27 FP1 102 -13.652
27 FP1 103 -11.210
27 FP1 104 -7.792
27 FP1 105 -3.886
27 FP1 106 0.020
27 FP1 107 2.462
27 FP1 108 2.950
27 FP1 109 1.973
27 FP1 110 0.020
27 FP1 111 -0.956
27 FP1 112 -0.956
27 FP1 113 0.509
27 FP1 114 3.927
27 FP1 115 7.833
27 FP1 116 13.204
27 FP1 117 18.087
27 FP1 118 21.505
27 FP1 119 22.970
27 FP1 120 22.970
27 FP1 121 22.481
27 FP1 122 24.923
27 FP1 123 27.852
27 FP1 124 29.806
27 FP1 125 27.852
27 FP1 126 21.505
27 FP1 127 12.227
27 FP1 128 1.973
27 FP1 129 -7.304
27 FP1 130 -14.140
27 FP1 131 -18.046
27 FP1 132 -18.534
27 FP1 133 -15.605
27 FP1 134 -10.234
27 FP1 135 -3.398
27 FP1 136 2.950
27 FP1 137 7.833
27 FP1 138 9.298
27 FP1 139 8.809
27 FP1 140 7.345
27 FP1 141 6.368
27 FP1 142 7.345
27 FP1 143 10.763
27 FP1 144 16.134
27 FP1 145 21.505
27 FP1 146 25.411
27 FP1 147 26.388
27 FP1 148 23.946
27 FP1 149 19.552
27 FP1 150 13.204
27 FP1 151 6.856
27 FP1 152 1.485
27 FP1 153 -2.421
27 FP1 154 -3.886
27 FP1 155 -2.909
27 FP1 156 0.997
27 FP1 157 6.368
27 FP1 158 10.763
27 FP1 159 12.716
27 FP1 160 11.739
27 FP1 161 7.345
27 FP1 162 1.485
27 FP1 163 -3.398
27 FP1 164 -5.351
27 FP1 165 -5.839
27 FP1 166 -5.351
27 FP1 167 -4.374
27 FP1 168 -3.886
27 FP1 169 -2.421
27 FP1 170 1.485
27 FP1 171 8.321
27 FP1 172 15.157
27 FP1 173 20.528
27 FP1 174 24.434
27 FP1 175 27.364
27 FP1 176 30.782
27 FP1 177 35.665
27 FP1 178 40.059
27 FP1 179 42.013
27 FP1 180 40.059
27 FP1 181 32.735
27 FP1 182 21.993
27 FP1 183 11.251
27 FP1 184 3.438
27 FP1 185 -1.444
27 FP1 186 -5.351
27 FP1 187 -10.722
27 FP1 188 -16.093
27 FP1 189 -19.999
27 FP1 190 -20.487
27 FP1 191 -16.581
27 FP1 192 -11.210
27 FP1 193 -8.280
27 FP1 194 -9.257
27 FP1 195 -13.652
27 FP1 196 -18.534
27 FP1 197 -20.976
27 FP1 198 -19.023
27 FP1 199 -13.163
27 FP1 200 -3.886
27 FP1 201 7.345
27 FP1 202 19.063
27 FP1 203 29.317
27 FP1 204 36.641
27 FP1 205 39.083
27 FP1 206 37.618
27 FP1 207 33.712
27 FP1 208 28.341
27 FP1 209 22.970
27 FP1 210 16.622
27 FP1 211 9.786
27 FP1 212 1.973
27 FP1 213 -5.351
27 FP1 214 -9.745
27 FP1 215 -12.187
27 FP1 216 -10.722
27 FP1 217 -5.839
27 FP1 218 1.973
27 FP1 219 11.251
27 FP1 220 20.040
27 FP1 221 26.876
27 FP1 222 29.806
27 FP1 223 27.364
27 FP1 224 20.528
27 FP1 225 11.251
27 FP1 226 2.950
27 FP1 227 -1.933
27 FP1 228 -1.933
27 FP1 229 1.485
27 FP1 230 4.415
27 FP1 231 3.927
27 FP1 232 0.997
27 FP1 233 -2.909
27 FP1 234 -2.909
27 FP1 235 1.485
27 FP1 236 8.809
27 FP1 237 15.645
27 FP1 238 20.040
27 FP1 239 21.505
27 FP1 240 22.481
27 FP1 241 23.946
27 FP1 242 27.364
27 FP1 243 31.270
27 FP1 244 34.200
27 FP1 245 34.688
27 FP1 246 33.712
27 FP1 247 30.294
27 FP1 248 25.411
27 FP1 249 20.528
27 FP1 250 16.134
27 FP1 251 13.204
27 FP1 252 10.763
27 FP1 253 8.809
27 FP1 254 6.368
27 FP1 255 4.903
# FP2 chan 1
27 FP2 0 -26.815
27 FP2 1 -26.815
27 FP2 2 -21.932
27 FP2 3 -12.166
27 FP2 4 -1.912
27 FP2 5 3.459
27 FP2 6 1.506
27 FP2 7 -2.889
27 FP2 8 -4.842
27 FP2 9 -0.448
27 FP2 10 7.853
27 FP2 11 14.689
27 FP2 12 15.177
27 FP2 13 8.830
27 FP2 14 0.041
27 FP2 15 -7.772
27 FP2 16 -11.678
27 FP2 17 -13.631
27 FP2 18 -13.143
27 FP2 19 -12.166
27 FP2 20 -9.725
27 FP2 21 -6.795
27 FP2 22 -5.819
27 FP2 23 -7.284
27 FP2 24 -11.678
27 FP2 25 -15.096
27 FP2 26 -17.049
27 FP2 27 -18.026
27 FP2 28 -19.491
27 FP2 29 -24.862
27 FP2 30 -31.209
27 FP2 31 -36.092
27 FP2 32 -36.580
27 FP2 33 -32.674
27 FP2 34 -27.303
27 FP2 35 -23.885
27 FP2 36 -24.373
27 FP2 37 -28.280
27 FP2 38 -33.162
27 FP2 39 -36.580
27 FP2 40 -37.557
27 FP2 41 -35.116
27 FP2 42 -29.256
27 FP2 43 -21.444
27 FP2 44 -13.143
27 FP2 45 -6.307
27 FP2 46 -2.401
27 FP2 47 -1.424
27 FP2 48 -1.912
27 FP2 49 -1.912
27 FP2 50 -1.424
27 FP2 51 0.529
27 FP2 52 1.994
27 FP2 53 0.529
27 FP2 54 -3.377
27 FP2 55 -9.725
27 FP2 56 -14.608
27 FP2 57 -17.049
27 FP2 58 -16.073
27 FP2 59 -14.608
27 FP2 60 -16.073
27 FP2 61 -22.909
27 FP2 62 -33.162
27 FP2 63 -42.440
27 FP2 64 -48.299
27 FP2 65 -49.276
27 FP2 66 -46.834
27 FP2 67 -43.416
27 FP2 68 -40.487
27 FP2 69 -36.580
27 FP2 70 -30.721
27 FP2 71 -24.373
27 FP2 72 -19.491
27 FP2 73 -19.002
27 FP2 74 -22.909
27 FP2 75 -28.768
27 FP2 76 -31.209
27 FP2 77 -27.791
27 FP2 78 -19.491
27 FP2 79 -12.655
27 FP2 80 -12.166
27 FP2 81 -20.467
27 FP2 82 -34.139
27 FP2 83 -45.369
27 FP2 84 -47.811
27 FP2 85 -41.463
27 FP2 86 -31.698
27 FP2 87 -25.350
27 FP2 88 -26.815
27 FP2 89 -35.604
27 FP2 90 -45.369
27 FP2 91 -50.252
27 FP2 92 -46.834
27 FP2 93 -35.604
27 FP2 94 -21.444
27 FP2 95 -7.284
27 FP2 96 2.482
27 FP2 97 5.412
27 FP2 98 1.506
27 FP2 99 -7.284
27 FP2 100 -18.514
27 FP2 101 -26.815
27 FP2 102 -28.768
27 FP2 103 -23.397
27 FP2 104 -14.119
27 FP2 105 -3.377
27 FP2 106 5.412
27 FP2 107 11.271
27 FP2 108 16.154
27 FP2 109 21.037
27 FP2 110 24.455
27 FP2 111 26.408
27 FP2 112 25.920
27 FP2 113 25.920
27 FP2 114 28.361
27 FP2 115 32.756
27 FP2 116 36.662
27 FP2 117 38.615
27 FP2 118 38.127
27 FP2 119 38.127
27 FP2 120 42.033
27 FP2 121 49.845
27 FP2 122 58.634
27 FP2 123 63.517
27 FP2 124 62.052
27 FP2 125 56.193
27 FP2 126 47.892
27 FP2 127 39.591
27 FP2 128 32.267
27 FP2 129 24.455
27 FP2 130 18.107
27 FP2 131 14.689
27 FP2 132 17.131
27 FP2 133 23.966
27 FP2 134 30.802
27 FP2 135 34.709
27 FP2 136 34.220
27 FP2 137 31.291
27 FP2 138 28.849
27 FP2 139 27.873
27 FP2 140 27.384
27 FP2 141 26.896
27 FP2 142 25.920
27 FP2 143 26.408
27 FP2 144 30.802
27 FP2 145 38.127
27 FP2 146 45.939
27 FP2 147 50.334
27 FP2 148 49.845
27 FP2 149 44.474
27 FP2 150 36.662
27 FP2 151 29.338
27 FP2 152 22.990
27 FP2 153 17.619
27 FP2 154 12.736
27 FP2 155 8.830
27 FP2 156 7.853
27 FP2 157 10.295
27 FP2 158 14.689
27 FP2 159 18.107
27 FP2 160 17.131
27 FP2 161 10.295
27 FP2 162 0.529
27 FP2 163 -8.260
27 FP2 164 -11.678
27 FP2 165 -10.701
27 FP2 166 -6.307
27 FP2 167 -2.401
27 FP2 168 -0.936
27 FP2 169 0.041
27 FP2 170 3.459
27 FP2 171 11.271
27 FP2 172 22.502
27 FP2 173 33.244
27 FP2 174 42.521
27 FP2 175 48.869
27 FP2 176 52.775
27 FP2 177 55.216
27 FP2 178 55.216
27 FP2 179 51.799
27 FP2 180 44.963
27 FP2 181 36.662
27 FP2 182 28.361
27 FP2 183 22.502
27 FP2 184 18.595
27 FP2 185 15.666
27 FP2 186 12.248
27 FP2 187 8.830
27 FP2 188 5.900
27 FP2 189 4.924
27 FP2 190 7.365
27 FP2 191 11.271
27 FP2 192 16.154
27 FP2 193 19.084
27 FP2 194 20.060
27 FP2 195 19.084
27 FP2 196 17.619
27 FP2 197 16.642
27 FP2 198 16.642
27 FP2 199 17.619
27 FP2 200 19.084
27 FP2 201 21.525
27 FP2 202 24.943
27 FP2 203 29.338
27 FP2 204 33.732
27 FP2 205 36.174
27 FP2 206 34.709
27 FP2 207 29.338
27 FP2 208 22.990
27 FP2 209 16.642
27 FP2 210 13.713
27 FP2 211 11.759
27 FP2 212 9.318
27 FP2 213 5.900
27 FP2 214 1.994
27 FP2 215 1.017
27 FP2 216 4.435
27 FP2 217 11.759
27 FP2 218 20.060
27 FP2 219 26.408
27 FP2 220 29.826
27 FP2 221 32.267
27 FP2 222 35.685
27 FP2 223 38.615
27 FP2 224 38.127
27 FP2 225 31.291
27 FP2 226 20.060
27 FP2 227 9.806
27 FP2 228 6.388
27 FP2 229 11.759
27 FP2 230 21.037
27 FP2 231 28.849
27 FP2 232 30.802
27 FP2 233 26.896
27 FP2 234 21.525
27 FP2 235 17.131
27 FP2 236 17.131
27 FP2 237 20.060
27 FP2 238 24.455
27 FP2 239 28.361
27 FP2 240 31.779
27 FP2 241 35.685
27 FP2 242 39.591
27 FP2 243 43.986
27 FP2 244 46.916
27 FP2 245 47.404
27 FP2 246 44.474
27 FP2 247 39.103
27 FP2 248 33.732
27 FP2 249 31.291
27 FP2 250 31.291
27 FP2 251 32.267
27 FP2 252 32.267
27 FP2 253 29.338
27 FP2 254 23.966
27 FP2 255 19.572
# F7 chan 2
27 F7 0 -9.450
27 F7 1 0.804
27 F7 2 9.593
27 F7 3 12.522
27 F7 4 10.569
27 F7 5 7.151
27 F7 6 5.198
27 F7 7 7.151
27 F7 8 10.569
27 F7 9 11.058
27 F7 10 7.640
27 F7 11 1.292
27 F7 12 -5.056
27 F7 13 -8.474
27 F7 14 -9.450
27 F7 15 -8.474
27 F7 16 -8.474
27 F7 17 -8.474
27 F7 18 -7.497
27 F7 19 -5.056
27 F7 20 -2.126
27 F7 21 -0.661
27 F7 22 -0.173
27 F7 23 -0.661
27 F7 24 0.315
27 F7 25 3.733
27 F7 26 7.640
27 F7 27 10.569
27 F7 28 9.593
27 F7 29 4.710
27 F7 30 -1.638
27 F7 31 -7.985
27 F7 32 -11.403
27 F7 33 -12.380
27 F7 34 -11.892
27 F7 35 -10.915
27 F7 36 -8.962
27 F7 37 -7.497
27 F7 38 -5.544
27 F7 39 -6.032
27 F7 40 -8.962
27 F7 41 -12.380
27 F7 42 -13.845
27 F7 43 -11.403
27 F7 44 -6.521
27 F7 45 -1.638
27 F7 46 0.315
27 F7 47 -0.661
27 F7 48 -1.149
27 F7 49 1.780
27 F7 50 9.593
27 F7 51 18.382
27 F7 52 22.776
27 F7 53 17.893
27 F7 54 6.175
27 F7 55 -8.474
27 F7 56 -19.216
27 F7 57 -23.610
27 F7 58 -23.122
27 F7 59 -21.657
27 F7 60 -22.146
27 F7 61 -25.075
27 F7 62 -27.028
27 F7 63 -27.517
27 F7 64 -25.564
27 F7 65 -23.610
27 F7 66 -23.122
27 F7 67 -24.587
27 F7 68 -25.075
27 F7 69 -22.146
27 F7 70 -16.286
27 F7 71 -9.939
27 F7 72 -7.009
27 F7 73 -7.497
27 F7 74 -8.962
27 F7 75 -7.985
27 F7 76 -2.126
27 F7 77 5.686
27 F7 78 12.522
27 F7 79 13.987
27 F7 80 10.569
27 F7 81 3.733
27 F7 82 -4.079
27 F7 83 -11.892
27 F7 84 -19.216
27 F7 85 -24.587
27 F7 86 -28.005
27 F7 87 -27.028
27 F7 88 -22.146
27 F7 89 -14.821
27 F7 90 -7.985
27 F7 91 -1.638
27 F7 92 2.268
27 F7 93 5.198
27 F7 94 7.151
27 F7 95 8.128
27 F7 96 7.640
27 F7 97 7.640
27 F7 98 7.151
27 F7 99 7.640
27 F7 100 7.640
27 F7 101 7.151
27 F7 102 5.686
27 F7 103 3.733
27 F7 104 2.757
27 F7 105 2.757
27 F7 106 3.245
27 F7 107 1.780
27 F7 108 -1.638
27 F7 109 -7.985
27 F7 110 -13.357
27 F7 111 -15.798
27 F7 112 -13.845
27 F7 113 -7.985
27 F7 114 -0.173
27 F7 115 6.663
27 F7 116 11.546
27 F7 117 13.987
27 F7 118 15.452
27 F7 119 14.964
27 F7 120 13.011
27 F7 121 9.104
27 F7 122 5.686
27 F7 123 5.686
27 F7 124 9.104
27 F7 125 13.987
27 F7 126 18.382
27 F7 127 18.870
27 F7 128 14.476
27 F7 129 7.151
27 F7 130 -0.173
27 F7 131 -5.544
27 F7 132 -6.521
27 F7 133 -5.544
27 F7 134 -4.079
27 F7 135 -4.567
27 F7 136 -5.544
27 F7 137 -6.032
27 F7 138 -4.567
27 F7 139 -1.638
27 F7 140 1.292
27 F7 141 3.245
27 F7 142 4.222
27 F7 143 5.686
27 F7 144 9.593
27 F7 145 15.940
27 F7 146 22.288
27 F7 147 24.729
27 F7 148 21.800
27 F7 149 14.476
27 F7 150 5.198
27 F7 151 -2.614
27 F7 152 -6.521
27 F7 153 -6.032
27 F7 154 -0.661
27 F7 155 7.151
27 F7 156 15.452
27 F7 157 20.823
27 F7 158 20.335
27 F7 159 15.452
27 F7 160 7.640
27 F7 161 -0.173
27 F7 162 -5.056
27 F7 163 -7.985
27 F7 164 -9.450
27 F7 165 -9.450
27 F7 166 -7.497
27 F7 167 -2.614
27 F7 168 3.733
27 F7 169 8.616
27 F7 170 11.058
27 F7 171 9.593
27 F7 172 7.151
27 F7 173 6.663
27 F7 174 10.569
27 F7 175 19.358
27 F7 176 31.077
27 F7 177 41.331
27 F7 178 47.679
27 F7 179 49.143
27 F7 180 45.726
27 F7 181 38.890
27 F7 182 30.589
27 F7 183 20.823
27 F7 184 10.569
27 F7 185 -0.661
27 F7 186 -12.380
27 F7 187 -22.634
27 F7 188 -29.470
27 F7 189 -30.935
27 F7 190 -27.028
27 F7 191 -17.751
27 F7 192 -7.009
27 F7 193 3.245
27 F7 194 8.616
27 F7 195 6.175
27 F7 196 -2.614
27 F7 197 -14.333
27 F7 198 -22.634
27 F7 199 -22.146
27 F7 200 -13.845
27 F7 201 -1.638
27 F7 202 10.569
27 F7 203 18.870
27 F7 204 23.265
27 F7 205 25.706
27 F7 206 26.683
27 F7 207 25.706
27 F7 208 21.311
27 F7 209 14.476
27 F7 210 7.640
27 F7 211 3.245
27 F7 212 1.780
27 F7 213 0.315
27 F7 214 -2.614
27 F7 215 -7.985
27 F7 216 -11.892
27 F7 217 -10.915
27 F7 218 -3.103
27 F7 219 7.640
27 F7 220 19.358
27 F7 221 26.683
27 F7 222 28.147
27 F7 223 23.265
27 F7 224 14.964
27 F7 225 4.710
27 F7 226 -5.056
27 F7 227 -11.403
27 F7 228 -13.845
27 F7 229 -11.892
27 F7 230 -7.497
27 F7 231 -2.614
27 F7 232 1.292
27 F7 233 4.222
27 F7 234 6.175
27 F7 235 7.151
27 F7 236 7.151
27 F7 237 6.663
27 F7 238 5.686
27 F7 239 6.175
27 F7 240 9.104
27 F7 241 15.452
27 F7 242 23.265
27 F7 243 29.612
27 F7 244 32.542
27 F7 245 31.077
27 F7 246 27.659
27 F7 247 24.241
27 F7 248 21.311
27 F7 249 20.335
27 F7 250 20.335
27 F7 251 20.335
27 F7 252 20.335
27 F7 253 19.358
27 F7 254 17.893
27 F7 255 13.987
# F8 chan 3
27 F8 0 -11.230
27 F8 1 -6.348
27 F8 2 1.953
27 F8 3 9.766
27 F8 4 15.137
27 F8 5 15.625
27 F8 6 12.695
27 F8 7 9.766
27 F8 8 9.277
27 F8 9 11.230
27 F8 10 13.672
27 F8 11 13.672
27 F8 12 10.742
27 F8 13 4.395
27 F8 14 -2.930
27 F8 15 -8.789
27 F8 16 -11.230
27 F8 17 -9.766
27 F8 18 -5.371
27 F8 19 0.488
27 F8 20 4.883
27 F8 21 7.324
27 F8 22 7.324
27 F8 23 6.348
27 F8 24 4.883
27 F8 25 2.930
27 F8 26 0.977
27 F8 27 -1.465
27 F8 28 -3.418
27 F8 29 -4.883
27 F8 30 -6.348
27 F8 31 -7.324
27 F8 32 -8.789
27 F8 33 -9.766
27 F8 34 -9.277
27 F8 35 -7.812
27 F8 36 -6.348
27 F8 37 -7.324
27 F8 38 -11.719
27 F8 39 -18.066
27 F8 40 -22.461
27 F8 41 -21.973
27 F8 42 -16.602
27 F8 43 -9.277
27 F8 44 -3.906
27 F8 45 -1.953
27 F8 46 -1.953
27 F8 47 -0.977
27 F8 48 2.930
27 F8 49 8.789
27 F8 50 14.160
27 F8 51 16.113
27 F8 52 14.648
27 F8 53 10.742
27 F8 54 5.859
27 F8 55 0.488
27 F8 56 -3.906
27 F8 57 -6.836
27 F8 58 -9.766
27 F8 59 -12.207
27 F8 60 -15.625
27 F8 61 -20.996
27 F8 62 -26.855
27 F8 63 -30.762
27 F8 64 -30.273
27 F8 65 -25.879
27 F8 66 -20.020
27 F8 67 -16.113
27 F8 68 -17.090
27 F8 69 -20.996
27 F8 70 -25.391
27 F8 71 -26.855
27 F8 72 -23.438
27 F8 73 -16.602
27 F8 74 -7.324
27 F8 75 1.953
27 F8 76 9.766
27 F8 77 14.160
27 F8 78 13.672
27 F8 79 7.324
27 F8 80 -2.930
27 F8 81 -14.648
27 F8 82 -22.461
27 F8 83 -24.902
27 F8 84 -20.508
27 F8 85 -13.184
27 F8 86 -5.859
27 F8 87 -1.953
27 F8 88 -4.395
27 F8 89 -11.719
27 F8 90 -21.973
27 F8 91 -30.762
27 F8 92 -35.156
27 F8 93 -31.738
27 F8 94 -22.461
27 F8 95 -9.766
27 F8 96 1.465
27 F8 97 6.836
27 F8 98 5.859
27 F8 99 0.000
27 F8 100 -6.348
27 F8 101 -11.719
27 F8 102 -13.184
27 F8 103 -11.719
27 F8 104 -7.812
27 F8 105 -2.441
27 F8 106 2.930
27 F8 107 6.348
27 F8 108 8.301
27 F8 109 8.301
27 F8 110 7.324
27 F8 111 5.859
27 F8 112 4.883
27 F8 113 5.371
27 F8 114 7.324
27 F8 115 8.301
27 F8 116 8.789
27 F8 117 6.836
27 F8 118 4.395
27 F8 119 2.930
27 F8 120 4.883
27 F8 121 9.766
27 F8 122 16.602
27 F8 123 21.973
27 F8 124 22.949
27 F8 125 19.043
27 F8 126 11.230
27 F8 127 1.953
27 F8 128 -5.371
27 F8 129 -9.277
27 F8 130 -7.812
27 F8 131 -2.441
27 F8 132 5.371
27 F8 133 13.672
27 F8 134 19.531
27 F8 135 20.996
27 F8 136 17.578
27 F8 137 11.230
27 F8 138 4.395
27 F8 139 0.488
27 F8 140 0.000
27 F8 141 2.930
27 F8 142 6.836
27 F8 143 10.742
27 F8 144 12.695
27 F8 145 14.160
27 F8 146 14.160
27 F8 147 13.184
27 F8 148 12.207
27 F8 149 10.254
27 F8 150 7.324
27 F8 151 4.883
27 F8 152 3.906
27 F8 153 3.418
27 F8 154 3.906
27 F8 155 4.395
27 F8 156 4.883
27 F8 157 5.371
27 F8 158 6.836
27 F8 159 8.301
27 F8 160 9.277
27 F8 161 6.836
27 F8 162 1.953
27 F8 163 -4.883
27 F8 164 -11.230
27 F8 165 -14.648
27 F8 166 -14.160
27 F8 167 -9.766
27 F8 168 -2.930
27 F8 169 3.418
27 F8 170 10.254
27 F8 171 16.602
27 F8 172 21.973
27 F8 173 26.367
27 F8 174 28.320
27 F8 175 28.809
27 F8 176 28.809
27 F8 177 28.320
27 F8 178 28.320
27 F8 179 27.832
27 F8 180 25.391
27 F8 181 21.484
27 F8 182 15.137
27 F8 183 8.301
27 F8 184 1.953
27 F8 185 -2.441
27 F8 186 -4.395
27 F8 187 -3.906
27 F8 188 -1.465
27 F8 189 1.465
27 F8 190 4.883
27 F8 191 7.324
27 F8 192 6.348
27 F8 193 2.930
27 F8 194 -1.953
27 F8 195 -6.348
27 F8 196 -6.836
27 F8 197 -2.441
27 F8 198 6.348
27 F8 199 16.113
27 F8 200 23.926
27 F8 201 28.809
27 F8 202 30.762
27 F8 203 31.738
27 F8 204 30.273
27 F8 205 25.879
27 F8 206 18.066
27 F8 207 7.812
27 F8 208 -3.418
27 F8 209 -10.742
27 F8 210 -13.184
27 F8 211 -10.742
27 F8 212 -5.371
27 F8 213 0.000
27 F8 214 3.906
27 F8 215 6.348
27 F8 216 7.324
27 F8 217 9.277
27 F8 218 12.695
27 F8 219 17.578
27 F8 220 22.949
27 F8 221 26.855
27 F8 222 28.320
27 F8 223 25.879
27 F8 224 20.508
27 F8 225 13.672
27 F8 226 8.789
27 F8 227 7.812
27 F8 228 10.742
27 F8 229 15.625
27 F8 230 19.531
27 F8 231 19.043
27 F8 232 15.137
27 F8 233 10.254
27 F8 234 6.836
27 F8 235 7.812
27 F8 236 10.742
27 F8 237 13.672
27 F8 238 14.160
27 F8 239 13.184
27 F8 240 11.719
27 F8 241 12.695
27 F8 242 15.625
27 F8 243 19.043
27 F8 244 20.508
27 F8 245 18.555
27 F8 246 14.160
27 F8 247 9.277
27 F8 248 6.836
27 F8 249 7.812
27 F8 250 12.207
27 F8 251 18.066
27 F8 252 23.438
27 F8 253 24.902
27 F8 254 23.438
27 F8 255 19.043
# AF1 chan 4
27 AF1 0 -15.137
27 AF1 1 -10.742
27 AF1 2 -6.348
27 AF1 3 -2.441
27 AF1 4 0.977
27 AF1 5 3.906
27 AF1 6 5.371
27 AF1 7 6.836
27 AF1 8 8.301
27 AF1 9 9.766
27 AF1 10 10.742
27 AF1 11 9.766
27 AF1 12 6.836
27 AF1 13 1.953
27 AF1 14 -2.441
27 AF1 15 -3.906
27 AF1 16 -1.953
27 AF1 17 1.465
27 AF1 18 3.906
27 AF1 19 3.906
27 AF1 20 1.953
27 AF1 21 -1.465
27 AF1 22 -4.883
27 AF1 23 -8.301
27 AF1 24 -12.207
27 AF1 25 -16.113
27 AF1 26 -20.508
27 AF1 27 -22.949
27 AF1 28 -22.949
27 AF1 29 -20.020
27 AF1 30 -16.602
27 AF1 31 -15.137
27 AF1 32 -16.113
27 AF1 33 -18.555
27 AF1 34 -20.508
27 AF1 35 -19.531
27 AF1 36 -15.137
27 AF1 37 -9.766
27 AF1 38 -4.883
27 AF1 39 -0.977
27 AF1 40 0.977
27 AF1 41 1.465
27 AF1 42 1.953
27 AF1 43 2.441
27 AF1 44 3.418
27 AF1 45 3.906
27 AF1 46 4.883
27 AF1 47 6.836
27 AF1 48 11.230
27 AF1 49 16.113
27 AF1 50 21.973
27 AF1 51 25.879
27 AF1 52 26.367
27 AF1 53 23.438
27 AF1 54 17.090
27 AF1 55 8.301
27 AF1 56 -0.977
27 AF1 57 -8.789
27 AF1 58 -15.137
27 AF1 59 -20.020
27 AF1 60 -23.438
27 AF1 61 -26.367
27 AF1 62 -27.832
27 AF1 63 -27.832
27 AF1 64 -25.879
27 AF1 65 -22.949
27 AF1 66 -20.020
27 AF1 67 -17.578
27 AF1 68 -15.625
27 AF1 69 -14.160
27 AF1 70 -11.719
27 AF1 71 -8.789
27 AF1 72 -6.348
27 AF1 73 -5.371
27 AF1 74 -6.348
27 AF1 75 -8.301
27 AF1 76 -9.277
27 AF1 77 -8.301
27 AF1 78 -5.371
27 AF1 79 -2.441
27 AF1 80 -1.465
27 AF1 81 -2.930
27 AF1 82 -5.371
27 AF1 83 -7.324
27 AF1 84 -7.324
27 AF1 85 -5.859
27 AF1 86 -3.906
27 AF1 87 -3.418
27 AF1 88 -5.859
27 AF1 89 -9.766
27 AF1 90 -13.184
27 AF1 91 -14.160
27 AF1 92 -11.230
27 AF1 93 -5.859
27 AF1 94 1.465
27 AF1 95 7.812
27 AF1 96 11.719
27 AF1 97 12.207
27 AF1 98 9.277
27 AF1 99 3.418
27 AF1 100 -1.953
27 AF1 101 -6.348
27 AF1 102 -8.301
27 AF1 103 -7.812
27 AF1 104 -5.859
27 AF1 105 -4.883
27 AF1 106 -4.395
27 AF1 107 -4.883
27 AF1 108 -6.348
27 AF1 109 -7.324
27 AF1 110 -7.812
27 AF1 111 -7.812
27 AF1 112 -7.324
27 AF1 113 -6.836
27 AF1 114 -4.395
27 AF1 115 -0.488
27 AF1 116 3.906
27 AF1 117 8.301
27 AF1 118 11.719
27 AF1 119 12.695
27 AF1 120 11.719
27 AF1 121 10.254
27 AF1 122 9.277
27 AF1 123 9.277
27 AF1 124 10.254
27 AF1 125 9.277
27 AF1 126 6.836
27 AF1 127 1.953
27 AF1 128 -4.883
27 AF1 129 -11.719
27 AF1 130 -18.066
27 AF1 131 -21.973
27 AF1 132 -23.438
27 AF1 133 -22.461
27 AF1 134 -19.531
27 AF1 135 -15.625
27 AF1 136 -11.719
27 AF1 137 -8.301
27 AF1 138 -6.348
27 AF1 139 -3.906
27 AF1 140 -1.465
27 AF1 141 2.930
27 AF1 142 7.812
27 AF1 143 12.207
27 AF1 144 16.602
27 AF1 145 18.066
27 AF1 146 17.578
27 AF1 147 15.137
27 AF1 148 11.719
27 AF1 149 7.812
27 AF1 150 2.930
27 AF1 151 -1.953
27 AF1 152 -6.836
27 AF1 153 -10.742
27 AF1 154 -12.207
27 AF1 155 -10.742
27 AF1 156 -6.348
27 AF1 157 -0.977
27 AF1 158 3.418
27 AF1 159 5.371
27 AF1 160 4.395
27 AF1 161 1.465
27 AF1 162 -2.441
27 AF1 163 -4.883
27 AF1 164 -6.348
27 AF1 165 -7.812
27 AF1 166 -9.766
27 AF1 167 -12.207
27 AF1 168 -12.695
27 AF1 169 -10.742
27 AF1 170 -5.859
27 AF1 171 1.465
27 AF1 172 8.301
27 AF1 173 14.160
27 AF1 174 18.066
27 AF1 175 21.973
27 AF1 176 26.367
27 AF1 177 31.738
27 AF1 178 35.645
27 AF1 179 35.156
27 AF1 180 29.297
27 AF1 181 20.508
27 AF1 182 10.254
27 AF1 183 1.953
27 AF1 184 -3.418
27 AF1 185 -7.324
27 AF1 186 -11.230
27 AF1 187 -16.113
27 AF1 188 -21.484
27 AF1 189 -25.879
27 AF1 190 -28.809
27 AF1 191 -29.785
27 AF1 192 -29.785
27 AF1 193 -29.785
27 AF1 194 -30.273
27 AF1 195 -31.250
27 AF1 196 -30.273
27 AF1 197 -26.367
27 AF1 198 -20.020
27 AF1 199 -10.742
27 AF1 200 -0.488
27 AF1 201 9.277
27 AF1 202 17.578
27 AF1 203 24.902
27 AF1 204 29.785
27 AF1 205 32.227
27 AF1 206 32.227
27 AF1 207 30.273
27 AF1 208 26.367
27 AF1 209 20.996
27 AF1 210 13.184
27 AF1 211 4.395
27 AF1 212 -5.859
27 AF1 213 -15.625
27 AF1 214 -21.973
27 AF1 215 -23.926
27 AF1 216 -19.043
27 AF1 217 -9.277
27 AF1 218 2.930
27 AF1 219 14.160
27 AF1 220 22.461
27 AF1 221 25.879
27 AF1 222 24.414
27 AF1 223 19.531
27 AF1 224 11.230
27 AF1 225 2.930
27 AF1 226 -3.906
27 AF1 227 -7.324
27 AF1 228 -7.324
27 AF1 229 -5.859
27 AF1 230 -5.371
27 AF1 231 -6.836
27 AF1 232 -10.742
27 AF1 233 -13.672
27 AF1 234 -13.672
27 AF1 235 -9.766
27 AF1 236 -2.441
27 AF1 237 5.371
27 AF1 238 12.695
27 AF1 239 17.578
27 AF1 240 20.996
27 AF1 241 23.438
27 AF1 242 25.879
27 AF1 243 27.832
27 AF1 244 28.809
27 AF1 245 26.855
27 AF1 246 22.461
27 AF1 247 16.602
27 AF1 248 10.742
27 AF1 249 5.371
27 AF1 250 1.953
27 AF1 251 0.000
27 AF1 252 -0.488
27 AF1 253 -0.488
27 AF1 254 0.488
27 AF1 255 1.953
# AF2 chan 5
27 AF2 0 -22.013
27 AF2 1 -17.131
27 AF2 2 -10.295
27 AF2 3 -2.970
27 AF2 4 2.889
27 AF2 5 6.307
27 AF2 6 6.795
27 AF2 7 4.842
27 AF2 8 3.377
27 AF2 9 3.377
27 AF2 10 3.866
27 AF2 11 4.354
27 AF2 12 3.377
27 AF2 13 0.936
27 AF2 14 -2.482
27 AF2 15 -4.924
27 AF2 16 -5.412
27 AF2 17 -3.947
27 AF2 18 -1.506
27 AF2 19 0.448
27 AF2 20 0.448
27 AF2 21 -1.017
27 AF2 22 -4.435
27 AF2 23 -8.830
27 AF2 24 -13.713
27 AF2 25 -19.572
27 AF2 26 -24.455
27 AF2 27 -28.361
27 AF2 28 -29.826
27 AF2 29 -28.849
27 AF2 30 -25.920
27 AF2 31 -23.478
27 AF2 32 -22.013
27 AF2 33 -22.502
27 AF2 34 -22.502
27 AF2 35 -21.525
27 AF2 36 -18.595
27 AF2 37 -14.201
27 AF2 38 -10.295
27 AF2 39 -7.365
27 AF2 40 -5.412
27 AF2 41 -3.947
27 AF2 42 -2.482
27 AF2 43 -0.041
27 AF2 44 1.424
27 AF2 45 2.401
27 AF2 46 2.889
27 AF2 47 3.377
27 AF2 48 5.819
27 AF2 49 9.725
27 AF2 50 14.608
27 AF2 51 18.514
27 AF2 52 20.467
27 AF2 53 18.514
27 AF2 54 13.143
27 AF2 55 5.819
27 AF2 56 -2.970
27 AF2 57 -9.806
27 AF2 58 -15.666
27 AF2 59 -19.572
27 AF2 60 -22.502
27 AF2 61 -24.943
27 AF2 62 -27.384
27 AF2 63 -28.361
27 AF2 64 -26.896
27 AF2 65 -23.478
27 AF2 66 -19.572
27 AF2 67 -16.154
27 AF2 68 -15.177
27 AF2 69 -15.666
27 AF2 70 -16.642
27 AF2 71 -17.131
27 AF2 72 -16.642
27 AF2 73 -15.177
27 AF2 74 -12.736
27 AF2 75 -10.295
27 AF2 76 -6.877
27 AF2 77 -3.459
27 AF2 78 -1.017
27 AF2 79 -0.041
27 AF2 80 -2.482
27 AF2 81 -6.877
27 AF2 82 -11.271
27 AF2 83 -12.736
27 AF2 84 -10.295
27 AF2 85 -5.900
27 AF2 86 -2.970
27 AF2 87 -2.970
27 AF2 88 -7.853
27 AF2 89 -15.666
27 AF2 90 -22.502
27 AF2 91 -26.896
27 AF2 92 -26.896
27 AF2 93 -22.013
27 AF2 94 -14.201
27 AF2 95 -5.412
27 AF2 96 1.912
27 AF2 97 5.330
27 AF2 98 4.354
27 AF2 99 -0.529
27 AF2 100 -6.388
27 AF2 101 -11.271
27 AF2 102 -13.224
27 AF2 103 -12.248
27 AF2 104 -10.295
27 AF2 105 -8.341
27 AF2 106 -7.365
27 AF2 107 -7.365
27 AF2 108 -6.877
27 AF2 109 -5.412
27 AF2 110 -3.459
27 AF2 111 -1.506
27 AF2 112 -0.529
27 AF2 113 -0.041
27 AF2 114 0.448
27 AF2 115 2.401
27 AF2 116 4.354
27 AF2 117 6.795
27 AF2 118 7.772
27 AF2 119 8.260
27 AF2 120 8.748
27 AF2 121 10.213
27 AF2 122 12.166
27 AF2 123 13.631
27 AF2 124 13.631
27 AF2 125 10.701
27 AF2 126 5.330
27 AF2 127 -1.506
27 AF2 128 -7.853
27 AF2 129 -12.736
27 AF2 130 -15.177
27 AF2 131 -15.177
27 AF2 132 -12.736
27 AF2 133 -8.341
27 AF2 134 -3.947
27 AF2 135 0.448
27 AF2 136 2.401
27 AF2 137 2.889
27 AF2 138 1.912
27 AF2 139 1.424
27 AF2 140 2.889
27 AF2 141 6.307
27 AF2 142 10.701
27 AF2 143 14.119
27 AF2 144 16.073
27 AF2 145 15.584
27 AF2 146 14.608
27 AF2 147 13.631
27 AF2 148 13.631
27 AF2 149 13.143
27 AF2 150 12.166
27 AF2 151 9.725
27 AF2 152 6.307
27 AF2 153 2.401
27 AF2 154 -0.529
27 AF2 155 -1.506
27 AF2 156 -0.529
27 AF2 157 1.912
27 AF2 158 4.842
27 AF2 159 7.284
27 AF2 160 7.284
27 AF2 161 4.842
27 AF2 162 1.912
27 AF2 163 -1.506
27 AF2 164 -4.435
27 AF2 165 -6.877
27 AF2 166 -8.341
27 AF2 167 -8.830
27 AF2 168 -7.365
27 AF2 169 -2.970
27 AF2 170 4.354
27 AF2 171 14.119
27 AF2 172 22.909
27 AF2 173 29.744
27 AF2 174 32.674
27 AF2 175 32.674
27 AF2 176 31.209
27 AF2 177 30.233
27 AF2 178 28.768
27 AF2 179 26.815
27 AF2 180 21.932
27 AF2 181 14.608
27 AF2 182 6.307
27 AF2 183 -1.506
27 AF2 184 -6.877
27 AF2 185 -8.830
27 AF2 186 -10.295
27 AF2 187 -10.295
27 AF2 188 -11.271
27 AF2 189 -13.224
27 AF2 190 -14.689
27 AF2 191 -15.666
27 AF2 192 -16.154
27 AF2 193 -16.642
27 AF2 194 -17.131
27 AF2 195 -17.131
27 AF2 196 -14.201
27 AF2 197 -8.341
27 AF2 198 0.448
27 AF2 199 9.237
27 AF2 200 17.049
27 AF2 201 22.909
27 AF2 202 26.326
27 AF2 203 29.256
27 AF2 204 31.698
27 AF2 205 32.186
27 AF2 206 29.744
27 AF2 207 23.885
27 AF2 208 15.096
27 AF2 209 4.842
27 AF2 210 -4.435
27 AF2 211 -13.224
27 AF2 212 -19.084
27 AF2 213 -22.013
27 AF2 214 -21.037
27 AF2 215 -16.154
27 AF2 216 -8.341
27 AF2 217 0.936
27 AF2 218 10.213
27 AF2 219 17.049
27 AF2 220 21.444
27 AF2 221 23.397
27 AF2 222 22.420
27 AF2 223 19.002
27 AF2 224 12.655
27 AF2 225 5.819
27 AF2 226 0.448
27 AF2 227 -1.017
27 AF2 228 0.936
27 AF2 229 4.354
27 AF2 230 7.284
27 AF2 231 6.795
27 AF2 232 4.842
27 AF2 233 2.401
27 AF2 234 3.377
27 AF2 235 7.772
27 AF2 236 13.631
27 AF2 237 19.002
27 AF2 238 21.932
27 AF2 239 21.932
27 AF2 240 20.955
27 AF2 241 21.932
27 AF2 242 23.885
27 AF2 243 26.326
27 AF2 244 26.815
27 AF2 245 23.397
27 AF2 246 16.561
27 AF2 247 8.260
27 AF2 248 1.424
27 AF2 249 -2.482
27 AF2 250 -2.970
27 AF2 251 -1.994
27 AF2 252 0.448
27 AF2 253 2.401
27 AF2 254 4.354
27 AF2 255 6.307
# FZ chan 6
27 FZ 0 -11.444
27 FZ 1 -6.073
27 FZ 2 -1.190
27 FZ 3 3.693
27 FZ 4 7.111
27 FZ 5 9.552
27 FZ 6 10.040
27 FZ 7 9.552
27 FZ 8 8.087
27 FZ 9 6.622
27 FZ 10 5.646
27 FZ 11 4.669
27 FZ 12 1.740
27 FZ 13 -2.167
27 FZ 14 -6.073
27 FZ 15 -7.050
27 FZ 16 -5.096
27 FZ 17 -1.190
27 FZ 18 2.716
27 FZ 19 4.669
27 FZ 20 4.181
27 FZ 21 2.228
27 FZ 22 -0.214
27 FZ 23 -2.655
27 FZ 24 -6.073
27 FZ 25 -10.468
27 FZ 26 -15.350
27 FZ 27 -19.745
27 FZ 28 -21.210
27 FZ 29 -19.745
27 FZ 30 -16.815
27 FZ 31 -14.374
27 FZ 32 -13.885
27 FZ 33 -15.350
27 FZ 34 -16.327
27 FZ 35 -15.350
27 FZ 36 -12.421
27 FZ 37 -7.538
27 FZ 38 -2.655
27 FZ 39 0.763
27 FZ 40 2.716
27 FZ 41 3.693
27 FZ 42 4.181
27 FZ 43 4.669
27 FZ 44 5.646
27 FZ 45 6.134
27 FZ 46 6.134
27 FZ 47 7.111
27 FZ 48 9.552
27 FZ 49 13.458
27 FZ 50 17.853
27 FZ 51 21.759
27 FZ 52 24.200
27 FZ 53 22.736
27 FZ 54 17.853
27 FZ 55 10.529
27 FZ 56 1.740
27 FZ 57 -6.073
27 FZ 58 -12.909
27 FZ 59 -17.303
27 FZ 60 -20.233
27 FZ 61 -21.210
27 FZ 62 -20.721
27 FZ 63 -19.745
27 FZ 64 -17.792
27 FZ 65 -15.839
27 FZ 66 -15.350
27 FZ 67 -14.862
27 FZ 68 -14.862
27 FZ 69 -14.374
27 FZ 70 -12.421
27 FZ 71 -9.491
27 FZ 72 -7.050
27 FZ 73 -5.585
27 FZ 74 -5.585
27 FZ 75 -6.561
27 FZ 76 -7.538
27 FZ 77 -6.561
27 FZ 78 -4.120
27 FZ 79 -1.678
27 FZ 80 -0.702
27 FZ 81 -2.167
27 FZ 82 -4.608
27 FZ 83 -6.073
27 FZ 84 -5.585
27 FZ 85 -4.120
27 FZ 86 -2.655
27 FZ 87 -3.143
27 FZ 88 -5.585
27 FZ 89 -9.979
27 FZ 90 -13.885
27 FZ 91 -15.839
27 FZ 92 -15.350
27 FZ 93 -12.421
27 FZ 94 -8.514
27 FZ 95 -3.143
27 FZ 96 1.740
27 FZ 97 5.157
27 FZ 98 5.646
27 FZ 99 3.204
27 FZ 100 -1.190
27 FZ 101 -5.585
27 FZ 102 -8.026
27 FZ 103 -9.003
27 FZ 104 -9.003
27 FZ 105 -9.003
27 FZ 106 -9.491
27 FZ 107 -10.468
27 FZ 108 -10.956
27 FZ 109 -10.468
27 FZ 110 -8.514
27 FZ 111 -7.538
27 FZ 112 -8.026
27 FZ 113 -8.514
27 FZ 114 -8.514
27 FZ 115 -6.073
27 FZ 116 -1.678
27 FZ 117 2.716
27 FZ 118 5.646
27 FZ 119 5.646
27 FZ 120 3.693
27 FZ 121 0.763
27 FZ 122 -1.190
27 FZ 123 -2.167
27 FZ 124 -1.678
27 FZ 125 -2.167
27 FZ 126 -3.143
27 FZ 127 -5.585
27 FZ 128 -8.514
27 FZ 129 -11.932
27 FZ 130 -15.350
27 FZ 131 -17.792
27 FZ 132 -19.257
27 FZ 133 -18.768
27 FZ 134 -17.303
27 FZ 135 -15.350
27 FZ 136 -13.397
27 FZ 137 -11.444
27 FZ 138 -9.003
27 FZ 139 -6.561
27 FZ 140 -2.167
27 FZ 141 2.228
27 FZ 142 7.111
27 FZ 143 11.017
27 FZ 144 13.458
27 FZ 145 13.947
27 FZ 146 12.970
27 FZ 147 11.993
27 FZ 148 10.529
27 FZ 149 8.575
27 FZ 150 6.134
27 FZ 151 3.204
27 FZ 152 -1.190
27 FZ 153 -5.585
27 FZ 154 -9.491
27 FZ 155 -10.956
27 FZ 156 -9.979
27 FZ 157 -6.561
27 FZ 158 -2.655
27 FZ 159 0.763
27 FZ 160 1.251
27 FZ 161 -0.214
27 FZ 162 -2.655
27 FZ 163 -4.608
27 FZ 164 -7.050
27 FZ 165 -8.514
27 FZ 166 -10.468
27 FZ 167 -12.421
27 FZ 168 -12.421
27 FZ 169 -9.491
27 FZ 170 -2.655
27 FZ 171 6.134
27 FZ 172 13.947
27 FZ 173 19.318
27 FZ 174 21.271
27 FZ 175 21.759
27 FZ 176 21.759
27 FZ 177 22.247
27 FZ 178 22.736
27 FZ 179 20.782
27 FZ 180 15.900
27 FZ 181 8.575
27 FZ 182 0.763
27 FZ 183 -4.608
27 FZ 184 -8.026
27 FZ 185 -9.491
27 FZ 186 -10.468
27 FZ 187 -12.421
27 FZ 188 -14.862
27 FZ 189 -17.303
27 FZ 190 -18.768
27 FZ 191 -19.257
27 FZ 192 -19.745
27 FZ 193 -20.233
27 FZ 194 -21.210
27 FZ 195 -21.210
27 FZ 196 -19.745
27 FZ 197 -15.350
27 FZ 198 -9.003
27 FZ 199 -1.190
27 FZ 200 5.157
27 FZ 201 10.529
27 FZ 202 14.923
27 FZ 203 19.318
27 FZ 204 23.224
27 FZ 205 25.665
27 FZ 206 26.154
27 FZ 207 23.224
27 FZ 208 17.853
27 FZ 209 11.017
27 FZ 210 3.204
27 FZ 211 -4.120
27 FZ 212 -10.956
27 FZ 213 -16.327
27 FZ 214 -18.768
27 FZ 215 -17.303
27 FZ 216 -12.421
27 FZ 217 -4.120
27 FZ 218 4.181
27 FZ 219 11.505
27 FZ 220 15.900
27 FZ 221 17.365
27 FZ 222 16.388
27 FZ 223 12.482
27 FZ 224 7.599
27 FZ 225 1.740
27 FZ 226 -2.167
27 FZ 227 -4.120
27 FZ 228 -3.632
27 FZ 229 -2.167
27 FZ 230 -1.678
27 FZ 231 -2.655
27 FZ 232 -5.096
27 FZ 233 -7.050
27 FZ 234 -6.073
27 FZ 235 -2.655
27 FZ 236 2.716
27 FZ 237 8.575
27 FZ 238 12.970
27 FZ 239 15.411
27 FZ 240 16.388
27 FZ 241 16.876
27 FZ 242 17.365
27 FZ 243 17.853
27 FZ 244 16.876
27 FZ 245 14.435
27 FZ 246 10.040
27 FZ 247 5.157
27 FZ 248 -0.214
27 FZ 249 -4.120
27 FZ 250 -5.585
27 FZ 251 -5.096
27 FZ 252 -2.655
27 FZ 253 0.275
27 FZ 254 3.204
27 FZ 255 5.646
# F4 chan 7
27 F4 0 -14.618
27 F4 1 -9.735
27 F4 2 -2.899
27 F4 3 4.425
27 F4 4 10.284
27 F4 5 12.726
27 F4 6 11.261
27 F4 7 7.355
27 F4 8 3.937
27 F4 9 2.472
27 F4 10 2.960
27 F4 11 3.937
27 F4 12 3.448
27 F4 13 1.007
27 F4 14 -3.387
27 F4 15 -6.317
27 F4 16 -7.294
27 F4 17 -5.341
27 F4 18 -1.923
27 F4 19 1.007
27 F4 20 2.960
27 F4 21 2.960
27 F4 22 2.472
27 F4 23 0.519
27 F4 24 -2.411
27 F4 25 -6.805
27 F4 26 -11.688
27 F4 27 -15.594
27 F4 28 -17.548
27 F4 29 -17.548
27 F4 30 -16.083
27 F4 31 -14.618
27 F4 32 -13.641
27 F4 33 -12.665
27 F4 34 -11.688
27 F4 35 -9.247
27 F4 36 -6.805
27 F4 37 -4.852
27 F4 38 -5.341
27 F4 39 -6.805
27 F4 40 -7.782
27 F4 41 -6.805
27 F4 42 -4.364
27 F4 43 -0.946
27 F4 44 0.519
27 F4 45 0.519
27 F4 46 0.031
27 F4 47 0.519
27 F4 48 3.937
27 F4 49 8.820
27 F4 50 14.679
27 F4 51 19.073
27 F4 52 20.050
27 F4 53 18.097
27 F4 54 13.214
27 F4 55 6.866
27 F4 56 0.519
27 F4 57 -3.876
27 F4 58 -7.782
27 F4 59 -10.712
27 F4 60 -13.641
27 F4 61 -16.571
27 F4 62 -19.989
27 F4 63 -20.966
27 F4 64 -19.989
27 F4 65 -16.083
27 F4 66 -11.200
27 F4 67 -8.759
27 F4 68 -9.735
27 F4 69 -13.641
27 F4 70 -17.548
27 F4 71 -19.989
27 F4 72 -18.524
27 F4 73 -14.618
27 F4 74 -8.759
27 F4 75 -3.387
27 F4 76 1.007
27 F4 77 3.937
27 F4 78 3.937
27 F4 79 2.472
27 F4 80 -1.923
27 F4 81 -7.294
27 F4 82 -10.223
27 F4 83 -10.712
27 F4 84 -7.294
27 F4 85 -2.899
27 F4 86 0.031
27 F4 87 -0.946
27 F4 88 -6.317
27 F4 89 -14.130
27 F4 90 -21.454
27 F4 91 -25.360
27 F4 92 -25.360
27 F4 93 -21.942
27 F4 94 -16.083
27 F4 95 -9.247
27 F4 96 -2.899
27 F4 97 1.007
27 F4 98 1.984
27 F4 99 0.031
27 F4 100 -4.364
27 F4 101 -8.270
27 F4 102 -10.712
27 F4 103 -11.688
27 F4 104 -10.223
27 F4 105 -8.759
27 F4 106 -7.782
27 F4 107 -7.294
27 F4 108 -7.294
27 F4 109 -6.317
27 F4 110 -5.341
27 F4 111 -3.876
27 F4 112 -2.899
27 F4 113 -2.411
27 F4 114 -2.411
27 F4 115 -1.923
27 F4 116 -0.946
27 F4 117 -0.458
27 F4 118 -0.458
27 F4 119 0.031
27 F4 120 0.519
27 F4 121 2.472
27 F4 122 5.402
27 F4 123 6.378
27 F4 124 5.890
27 F4 125 1.984
27 F4 126 -3.387
27 F4 127 -8.759
27 F4 128 -12.665
27 F4 129 -14.130
27 F4 130 -13.641
27 F4 131 -11.688
27 F4 132 -9.247
27 F4 133 -6.317
27 F4 134 -3.387
27 F4 135 -1.434
27 F4 136 0.031
27 F4 137 0.031
27 F4 138 -0.458
27 F4 139 -0.458
27 F4 140 1.495
27 F4 141 3.937
27 F4 142 6.866
27 F4 143 7.843
27 F4 144 7.355
27 F4 145 5.402
27 F4 146 3.937
27 F4 147 2.960
27 F4 148 3.448
27 F4 149 4.425
27 F4 150 3.937
27 F4 151 2.472
27 F4 152 0.519
27 F4 153 -1.923
27 F4 154 -3.387
27 F4 155 -3.387
27 F4 156 -1.923
27 F4 157 0.519
27 F4 158 2.960
27 F4 159 3.937
27 F4 160 3.937
27 F4 161 1.984
27 F4 162 -1.923
27 F4 163 -5.829
27 F4 164 -9.735
27 F4 165 -12.177
27 F4 166 -13.153
27 F4 167 -12.177
27 F4 168 -9.247
27 F4 169 -4.364
27 F4 170 2.472
27 F4 171 10.284
27 F4 172 17.609
27 F4 173 22.491
27 F4 174 24.445
27 F4 175 23.956
27 F4 176 22.491
27 F4 177 20.538
27 F4 178 19.073
27 F4 179 17.120
27 F4 180 13.702
27 F4 181 8.331
27 F4 182 1.984
27 F4 183 -3.876
27 F4 184 -8.759
27 F4 185 -11.200
27 F4 186 -12.177
27 F4 187 -12.665
27 F4 188 -12.665
27 F4 189 -11.688
27 F4 190 -10.712
27 F4 191 -9.247
27 F4 192 -9.247
27 F4 193 -11.200
27 F4 194 -14.130
27 F4 195 -15.594
27 F4 196 -14.130
27 F4 197 -8.270
27 F4 198 1.007
27 F4 199 10.284
27 F4 200 17.609
27 F4 201 22.003
27 F4 202 23.956
27 F4 203 24.933
27 F4 204 24.445
27 F4 205 22.491
27 F4 206 17.609
27 F4 207 10.284
27 F4 208 0.519
27 F4 209 -9.247
27 F4 210 -17.059
27 F4 211 -20.966
27 F4 212 -21.942
27 F4 213 -19.501
27 F4 214 -15.106
27 F4 215 -9.247
27 F4 216 -2.411
27 F4 217 3.448
27 F4 218 8.331
27 F4 219 12.726
27 F4 220 15.656
27 F4 221 17.120
27 F4 222 16.144
27 F4 223 12.238
27 F4 224 5.402
27 F4 225 -0.946
27 F4 226 -5.341
27 F4 227 -5.829
27 F4 228 -2.899
27 F4 229 1.984
27 F4 230 5.402
27 F4 231 5.890
27 F4 232 3.937
27 F4 233 1.495
27 F4 234 1.495
27 F4 235 4.425
27 F4 236 9.308
27 F4 237 13.702
27 F4 238 15.167
27 F4 239 13.214
27 F4 240 10.773
27 F4 241 9.796
27 F4 242 10.773
27 F4 243 13.214
27 F4 244 13.214
27 F4 245 9.796
27 F4 246 2.960
27 F4 247 -4.852
27 F4 248 -10.712
27 F4 249 -12.665
27 F4 250 -11.200
27 F4 251 -7.294
27 F4 252 -3.876
27 F4 253 -1.923
27 F4 254 -0.458
27 F4 255 -0.458
# F3 chan 8
27 F3 0 -8.636
27 F3 1 -3.265
27 F3 2 1.617
27 F3 3 5.035
27 F3 4 6.989
27 F3 5 8.453
27 F3 6 9.430
27 F3 7 10.895
27 F3 8 11.871
27 F3 9 11.871
27 F3 10 9.918
27 F3 11 6.500
27 F3 12 0.641
27 F3 13 -4.730
27 F3 14 -8.636
27 F3 15 -8.636
27 F3 16 -5.707
27 F3 17 -1.312
27 F3 18 2.594
27 F3 19 4.059
27 F3 20 3.082
27 F3 21 0.641
27 F3 22 -1.312
27 F3 23 -2.777
27 F3 24 -3.265
27 F3 25 -3.754
27 F3 26 -4.730
27 F3 27 -6.683
27 F3 28 -8.148
27 F3 29 -8.636
27 F3 30 -9.125
27 F3 31 -10.101
27 F3 32 -11.566
27 F3 33 -13.519
27 F3 34 -14.984
27 F3 35 -13.519
27 F3 36 -9.613
27 F3 37 -4.730
27 F3 38 -0.824
27 F3 39 1.617
27 F3 40 2.106
27 F3 41 1.617
27 F3 42 0.641
27 F3 43 0.641
27 F3 44 1.129
27 F3 45 2.106
27 F3 46 4.059
27 F3 47 7.477
27 F3 48 11.383
27 F3 49 15.778
27 F3 50 20.172
27 F3 51 23.102
27 F3 52 24.078
27 F3 53 21.149
27 F3 54 15.289
27 F3 55 6.989
27 F3 56 -1.801
27 F3 57 -10.590
27 F3 58 -16.449
27 F3 59 -20.355
27 F3 60 -21.820
27 F3 61 -21.820
27 F3 62 -20.355
27 F3 63 -18.402
27 F3 64 -16.937
27 F3 65 -15.472
27 F3 66 -14.984
27 F3 67 -14.496
27 F3 68 -13.519
27 F3 69 -12.054
27 F3 70 -8.636
27 F3 71 -5.707
27 F3 72 -3.265
27 F3 73 -3.265
27 F3 74 -5.707
27 F3 75 -8.148
27 F3 76 -10.101
27 F3 77 -9.125
27 F3 78 -5.707
27 F3 79 -0.824
27 F3 80 3.082
27 F3 81 4.059
27 F3 82 2.106
27 F3 83 -0.824
27 F3 84 -3.754
27 F3 85 -5.219
27 F3 86 -5.707
27 F3 87 -5.707
27 F3 88 -6.195
27 F3 89 -7.172
27 F3 90 -8.148
27 F3 91 -7.660
27 F3 92 -5.219
27 F3 93 -1.312
27 F3 94 3.082
27 F3 95 6.989
27 F3 96 9.918
27 F3 97 11.383
27 F3 98 10.406
27 F3 99 7.965
27 F3 100 4.059
27 F3 101 0.641
27 F3 102 -1.312
27 F3 103 -2.289
27 F3 104 -2.289
27 F3 105 -2.289
27 F3 106 -3.265
27 F3 107 -5.219
27 F3 108 -7.172
27 F3 109 -9.125
27 F3 110 -10.590
27 F3 111 -11.566
27 F3 112 -11.566
27 F3 113 -10.101
27 F3 114 -6.683
27 F3 115 -1.801
27 F3 116 3.571
27 F3 117 8.453
27 F3 118 11.383
27 F3 119 11.383
27 F3 120 8.942
27 F3 121 5.035
27 F3 122 2.106
27 F3 123 1.129
27 F3 124 2.106
27 F3 125 4.547
27 F3 126 6.012
27 F3 127 5.035
27 F3 128 1.617
27 F3 129 -4.242
27 F3 130 -10.101
27 F3 131 -14.496
27 F3 132 -16.937
27 F3 133 -16.937
27 F3 134 -16.449
27 F3 135 -15.472
27 F3 136 -14.008
27 F3 137 -12.543
27 F3 138 -10.590
27 F3 139 -7.660
27 F3 140 -4.242
27 F3 141 0.641
27 F3 142 6.012
27 F3 143 11.383
27 F3 144 15.778
27 F3 145 18.707
27 F3 146 18.707
27 F3 147 16.266
27 F3 148 11.871
27 F3 149 6.500
27 F3 150 0.641
27 F3 151 -5.219
27 F3 152 -9.125
27 F3 153 -11.566
27 F3 154 -10.590
27 F3 155 -7.172
27 F3 156 -1.312
27 F3 157 4.547
27 F3 158 8.453
27 F3 159 9.430
27 F3 160 7.477
27 F3 161 4.059
27 F3 162 0.641
27 F3 163 -1.801
27 F3 164 -3.265
27 F3 165 -4.730
27 F3 166 -6.195
27 F3 167 -8.148
27 F3 168 -10.101
27 F3 169 -10.101
27 F3 170 -8.148
27 F3 171 -4.242
27 F3 172 -0.824
27 F3 173 3.082
27 F3 174 7.477
27 F3 175 13.824
27 F3 176 22.125
27 F3 177 30.914
27 F3 178 36.774
27 F3 179 37.262
27 F3 180 31.403
27 F3 181 22.125
27 F3 182 11.871
27 F3 183 4.059
27 F3 184 -1.312
27 F3 185 -6.195
27 F3 186 -11.566
27 F3 187 -17.426
27 F3 188 -22.797
27 F3 189 -25.726
27 F3 190 -25.726
27 F3 191 -23.773
27 F3 192 -20.844
27 F3 193 -20.355
27 F3 194 -20.844
27 F3 195 -23.773
27 F3 196 -26.215
27 F3 197 -27.191
27 F3 198 -25.238
27 F3 199 -18.890
27 F3 200 -10.101
27 F3 201 0.641
27 F3 202 10.406
27 F3 203 18.219
27 F3 204 22.614
27 F3 205 25.055
27 F3 206 25.055
27 F3 207 24.567
27 F3 208 23.102
27 F3 209 20.172
27 F3 210 15.778
27 F3 211 8.942
27 F3 212 0.153
27 F3 213 -9.125
27 F3 214 -16.449
27 F3 215 -19.867
27 F3 216 -18.890
27 F3 217 -13.031
27 F3 218 -4.730
27 F3 219 4.547
27 F3 220 11.871
27 F3 221 16.266
27 F3 222 16.266
27 F3 223 12.848
27 F3 224 7.477
27 F3 225 2.106
27 F3 226 -2.289
27 F3 227 -5.219
27 F3 228 -6.195
27 F3 229 -6.683
27 F3 230 -7.660
27 F3 231 -9.613
27 F3 232 -11.566
27 F3 233 -12.543
27 F3 234 -11.566
27 F3 235 -9.613
27 F3 236 -5.707
27 F3 237 -1.312
27 F3 238 3.082
27 F3 239 7.477
27 F3 240 12.360
27 F3 241 17.242
27 F3 242 21.149
27 F3 243 23.590
27 F3 244 23.590
27 F3 245 21.637
27 F3 246 18.219
27 F3 247 13.824
27 F3 248 9.918
27 F3 249 6.500
27 F3 250 3.082
27 F3 251 0.153
27 F3 252 -1.801
27 F3 253 -2.289
27 F3 254 -1.312
27 F3 255 1.617
# FC6 chan 9
27 FC6 0 -4.903
27 FC6 1 -1.973
27 FC6 2 3.886
27 FC6 3 10.722
27 FC6 4 15.605
27 FC6 5 18.046
27 FC6 6 16.581
27 FC6 7 13.163
27 FC6 8 9.257
27 FC6 9 6.327
27 FC6 10 4.862
27 FC6 11 4.374
27 FC6 12 3.398
27 FC6 13 0.468
27 FC6 14 -3.927
27 FC6 15 -8.321
27 FC6 16 -11.251
27 FC6 17 -11.251
27 FC6 18 -8.321
27 FC6 19 -3.927
27 FC6 20 0.956
27 FC6 21 5.351
27 FC6 22 8.280
27 FC6 23 10.234
27 FC6 24 10.722
27 FC6 25 9.745
27 FC6 26 6.816
27 FC6 27 3.398
27 FC6 28 0.468
27 FC6 29 -0.997
27 FC6 30 -1.973
27 FC6 31 -1.973
27 FC6 32 -2.462
27 FC6 33 -3.438
27 FC6 34 -4.415
27 FC6 35 -4.903
27 FC6 36 -4.903
27 FC6 37 -5.391
27 FC6 38 -8.321
27 FC6 39 -11.739
27 FC6 40 -15.645
27 FC6 41 -17.110
27 FC6 42 -15.645
27 FC6 43 -12.227
27 FC6 44 -9.298
27 FC6 45 -7.345
27 FC6 46 -5.880
27 FC6 47 -3.927
27 FC6 48 0.468
27 FC6 49 6.327
27 FC6 50 12.187
27 FC6 51 15.116
27 FC6 52 15.116
27 FC6 53 13.163
27 FC6 54 9.745
27 FC6 55 7.304
27 FC6 56 4.862
27 FC6 57 2.909
27 FC6 58 0.468
27 FC6 59 -2.950
27 FC6 60 -7.833
27 FC6 61 -13.204
27 FC6 62 -17.598
27 FC6 63 -21.016
27 FC6 64 -21.505
27 FC6 65 -19.063
27 FC6 66 -15.645
27 FC6 67 -13.204
27 FC6 68 -13.204
27 FC6 69 -15.645
27 FC6 70 -18.087
27 FC6 71 -18.087
27 FC6 72 -15.157
27 FC6 73 -9.298
27 FC6 74 -1.973
27 FC6 75 5.351
27 FC6 76 11.210
27 FC6 77 14.140
27 FC6 78 13.652
27 FC6 79 9.745
27 FC6 80 3.398
27 FC6 81 -3.927
27 FC6 82 -9.298
27 FC6 83 -11.251
27 FC6 84 -9.786
27 FC6 85 -5.880
27 FC6 86 -2.950
27 FC6 87 -2.462
27 FC6 88 -5.880
27 FC6 89 -11.251
27 FC6 90 -17.598
27 FC6 91 -21.993
27 FC6 92 -22.970
27 FC6 93 -20.528
27 FC6 94 -14.181
27 FC6 95 -6.856
27 FC6 96 -0.020
27 FC6 97 3.886
27 FC6 98 4.374
27 FC6 99 1.444
27 FC6 100 -2.950
27 FC6 101 -6.856
27 FC6 102 -8.321
27 FC6 103 -7.345
27 FC6 104 -4.415
27 FC6 105 -0.509
27 FC6 106 2.421
27 FC6 107 3.398
27 FC6 108 3.398
27 FC6 109 2.421
27 FC6 110 1.444
27 FC6 111 1.444
27 FC6 112 1.933
27 FC6 113 2.421
27 FC6 114 3.398
27 FC6 115 3.398
27 FC6 116 2.909
27 FC6 117 2.421
27 FC6 118 1.444
27 FC6 119 1.444
27 FC6 120 3.398
27 FC6 121 6.816
27 FC6 122 10.722
27 FC6 123 13.163
27 FC6 124 12.187
27 FC6 125 7.304
27 FC6 126 0.956
27 FC6 127 -5.391
27 FC6 128 -8.809
27 FC6 129 -9.298
27 FC6 130 -6.368
27 FC6 131 -1.485
27 FC6 132 3.398
27 FC6 133 7.792
27 FC6 134 10.722
27 FC6 135 11.210
27 FC6 136 9.745
27 FC6 137 6.816
27 FC6 138 3.886
27 FC6 139 1.933
27 FC6 140 2.421
27 FC6 141 3.398
27 FC6 142 5.351
27 FC6 143 5.839
27 FC6 144 5.351
27 FC6 145 5.351
27 FC6 146 5.839
27 FC6 147 7.304
27 FC6 148 8.769
27 FC6 149 8.769
27 FC6 150 6.327
27 FC6 151 3.398
27 FC6 152 -0.020
27 FC6 153 -1.485
27 FC6 154 -0.997
27 FC6 155 0.468
27 FC6 156 1.933
27 FC6 157 3.398
27 FC6 158 4.374
27 FC6 159 5.351
27 FC6 160 5.351
27 FC6 161 3.398
27 FC6 162 -0.509
27 FC6 163 -6.368
27 FC6 164 -12.227
27 FC6 165 -14.669
27 FC6 166 -13.692
27 FC6 167 -8.321
27 FC6 168 -1.485
27 FC6 169 4.862
27 FC6 170 10.234
27 FC6 171 13.652
27 FC6 172 16.581
27 FC6 173 19.511
27 FC6 174 21.464
27 FC6 175 21.952
27 FC6 176 21.464
27 FC6 177 19.999
27 FC6 178 19.999
27 FC6 179 19.999
27 FC6 180 19.999
27 FC6 181 18.046
27 FC6 182 14.140
27 FC6 183 7.792
27 FC6 184 1.444
27 FC6 185 -2.950
27 FC6 186 -4.415
27 FC6 187 -3.927
27 FC6 188 -1.973
27 FC6 189 0.468
27 FC6 190 2.421
27 FC6 191 3.398
27 FC6 192 2.909
27 FC6 193 -0.020
27 FC6 194 -3.438
27 FC6 195 -6.368
27 FC6 196 -6.368
27 FC6 197 -2.950
27 FC6 198 3.886
27 FC6 199 11.210
27 FC6 200 17.069
27 FC6 201 19.999
27 FC6 202 20.976
27 FC6 203 21.464
27 FC6 204 21.464
27 FC6 205 19.511
27 FC6 206 15.116
27 FC6 207 8.280
27 FC6 208 0.468
27 FC6 209 -5.391
27 FC6 210 -8.321
27 FC6 211 -6.368
27 FC6 212 -2.950
27 FC6 213 0.956
27 FC6 214 3.398
27 FC6 215 3.886
27 FC6 216 2.909
27 FC6 217 3.398
27 FC6 218 5.351
27 FC6 219 9.745
27 FC6 220 15.605
27 FC6 221 20.487
27 FC6 222 22.441
27 FC6 223 20.976
27 FC6 224 16.093
27 FC6 225 9.257
27 FC6 226 3.886
27 FC6 227 1.933
27 FC6 228 3.886
27 FC6 229 8.280
27 FC6 230 12.187
27 FC6 231 13.652
27 FC6 232 11.210
27 FC6 233 7.792
27 FC6 234 5.351
27 FC6 235 5.351
27 FC6 236 8.280
27 FC6 237 11.210
27 FC6 238 11.698
27 FC6 239 9.745
27 FC6 240 6.816
27 FC6 241 4.374
27 FC6 242 4.374
27 FC6 243 6.327
27 FC6 244 8.769
27 FC6 245 8.280
27 FC6 246 5.839
27 FC6 247 2.421
27 FC6 248 -0.020
27 FC6 249 0.468
27 FC6 250 4.374
27 FC6 251 8.769
27 FC6 252 12.675
27 FC6 253 13.652
27 FC6 254 12.187
27 FC6 255 8.769
# FC5 chan 10
27 FC5 0 -6.246
27 FC5 1 -0.875
27 FC5 2 4.985
27 FC5 3 9.867
27 FC5 4 12.797
27 FC5 5 13.285
27 FC5 6 12.797
27 FC5 7 12.309
27 FC5 8 11.820
27 FC5 9 10.844
27 FC5 10 7.426
27 FC5 11 2.055
27 FC5 12 -5.269
27 FC5 13 -12.594
27 FC5 14 -17.965
27 FC5 15 -19.430
27 FC5 16 -16.988
27 FC5 17 -11.129
27 FC5 18 -4.781
27 FC5 19 0.102
27 FC5 20 2.543
27 FC5 21 4.008
27 FC5 22 5.961
27 FC5 23 8.403
27 FC5 24 12.309
27 FC5 25 15.727
27 FC5 26 16.215
27 FC5 27 14.262
27 FC5 28 9.379
27 FC5 29 4.496
27 FC5 30 -0.387
27 FC5 31 -3.805
27 FC5 32 -7.222
27 FC5 33 -9.664
27 FC5 34 -10.640
27 FC5 35 -9.664
27 FC5 36 -6.734
27 FC5 37 -3.805
27 FC5 38 -1.363
27 FC5 39 -0.875
27 FC5 40 -2.828
27 FC5 41 -4.781
27 FC5 42 -6.246
27 FC5 43 -5.269
27 FC5 44 -3.805
27 FC5 45 -1.851
27 FC5 46 0.102
27 FC5 47 1.567
27 FC5 48 4.008
27 FC5 49 6.938
27 FC5 50 10.356
27 FC5 51 13.285
27 FC5 52 14.750
27 FC5 53 13.285
27 FC5 54 9.379
27 FC5 55 3.031
27 FC5 56 -3.805
27 FC5 57 -10.152
27 FC5 58 -14.547
27 FC5 59 -16.988
27 FC5 60 -17.965
27 FC5 61 -17.965
27 FC5 62 -17.476
27 FC5 63 -16.988
27 FC5 64 -16.988
27 FC5 65 -16.988
27 FC5 66 -16.988
27 FC5 67 -16.500
27 FC5 68 -15.523
27 FC5 69 -12.594
27 FC5 70 -9.664
27 FC5 71 -6.734
27 FC5 72 -5.758
27 FC5 73 -6.734
27 FC5 74 -8.199
27 FC5 75 -8.687
27 FC5 76 -6.246
27 FC5 77 -1.851
27 FC5 78 3.520
27 FC5 79 8.403
27 FC5 80 8.891
27 FC5 81 5.961
27 FC5 82 -0.387
27 FC5 83 -8.199
27 FC5 84 -15.035
27 FC5 85 -18.941
27 FC5 86 -19.918
27 FC5 87 -17.476
27 FC5 88 -15.035
27 FC5 89 -12.105
27 FC5 90 -11.129
27 FC5 91 -9.664
27 FC5 92 -8.687
27 FC5 93 -5.758
27 FC5 94 -1.363
27 FC5 95 3.031
27 FC5 96 6.449
27 FC5 97 7.426
27 FC5 98 7.914
27 FC5 99 6.938
27 FC5 100 6.449
27 FC5 101 6.449
27 FC5 102 6.449
27 FC5 103 5.473
27 FC5 104 3.520
27 FC5 105 1.567
27 FC5 106 0.102
27 FC5 107 -2.340
27 FC5 108 -4.293
27 FC5 109 -7.711
27 FC5 110 -11.129
27 FC5 111 -14.058
27 FC5 112 -15.035
27 FC5 113 -13.570
27 FC5 114 -9.664
27 FC5 115 -4.293
27 FC5 116 1.567
27 FC5 117 6.449
27 FC5 118 9.379
27 FC5 119 9.867
27 FC5 120 8.403
27 FC5 121 5.473
27 FC5 122 3.031
27 FC5 123 3.031
27 FC5 124 4.496
27 FC5 125 7.426
27 FC5 126 9.867
27 FC5 127 9.379
27 FC5 128 6.449
27 FC5 129 1.078
27 FC5 130 -3.316
27 FC5 131 -6.246
27 FC5 132 -6.246
27 FC5 133 -5.269
27 FC5 134 -3.805
27 FC5 135 -3.316
27 FC5 136 -3.316
27 FC5 137 -3.805
27 FC5 138 -4.781
27 FC5 139 -5.758
27 FC5 140 -5.269
27 FC5 141 -3.805
27 FC5 142 -0.387
27 FC5 143 4.496
27 FC5 144 10.356
27 FC5 145 15.727
27 FC5 146 18.168
27 FC5 147 17.680
27 FC5 148 13.285
27 FC5 149 7.426
27 FC5 150 1.078
27 FC5 151 -3.805
27 FC5 152 -5.269
27 FC5 153 -3.805
27 FC5 154 0.102
27 FC5 155 4.985
27 FC5 156 8.891
27 FC5 157 10.844
27 FC5 158 10.356
27 FC5 159 7.914
27 FC5 160 4.985
27 FC5 161 2.543
27 FC5 162 0.590
27 FC5 163 -0.875
27 FC5 164 -1.851
27 FC5 165 -3.805
27 FC5 166 -4.781
27 FC5 167 -4.293
27 FC5 168 -3.316
27 FC5 169 -1.851
27 FC5 170 -0.387
27 FC5 171 0.102
27 FC5 172 0.590
27 FC5 173 2.055
27 FC5 174 5.473
27 FC5 175 11.332
27 FC5 176 19.145
27 FC5 177 26.957
27 FC5 178 32.817
27 FC5 179 34.281
27 FC5 180 31.352
27 FC5 181 25.004
27 FC5 182 17.680
27 FC5 183 11.332
27 FC5 184 5.961
27 FC5 185 0.102
27 FC5 186 -5.758
27 FC5 187 -13.082
27 FC5 188 -18.453
27 FC5 189 -20.406
27 FC5 190 -17.965
27 FC5 191 -11.617
27 FC5 192 -4.781
27 FC5 193 0.590
27 FC5 194 1.567
27 FC5 195 -1.851
27 FC5 196 -8.199
27 FC5 197 -14.547
27 FC5 198 -17.965
27 FC5 199 -16.988
27 FC5 200 -11.129
27 FC5 201 -2.828
27 FC5 202 5.473
27 FC5 203 11.820
27 FC5 204 15.238
27 FC5 205 15.727
27 FC5 206 14.750
27 FC5 207 12.309
27 FC5 208 9.867
27 FC5 209 7.914
27 FC5 210 5.961
27 FC5 211 4.496
27 FC5 212 3.031
27 FC5 213 0.590
27 FC5 214 -2.828
27 FC5 215 -6.734
27 FC5 216 -10.640
27 FC5 217 -11.129
27 FC5 218 -8.199
27 FC5 219 -1.851
27 FC5 220 5.961
27 FC5 221 11.820
27 FC5 222 14.262
27 FC5 223 12.309
27 FC5 224 7.914
27 FC5 225 3.031
27 FC5 226 -0.875
27 FC5 227 -3.805
27 FC5 228 -5.269
27 FC5 229 -6.246
27 FC5 230 -6.246
27 FC5 231 -5.269
27 FC5 232 -2.828
27 FC5 233 0.102
27 FC5 234 1.567
27 FC5 235 0.590
27 FC5 236 -2.828
27 FC5 237 -6.734
27 FC5 238 -9.176
27 FC5 239 -7.222
27 FC5 240 -0.875
27 FC5 241 7.426
27 FC5 242 15.727
27 FC5 243 21.098
27 FC5 244 23.539
27 FC5 245 22.563
27 FC5 246 21.098
27 FC5 247 19.145
27 FC5 248 18.168
27 FC5 249 16.703
27 FC5 250 14.750
27 FC5 251 11.820
27 FC5 252 7.914
27 FC5 253 4.985
27 FC5 254 2.543
27 FC5 255 1.567
# FC2 chan 11
27 FC2 0 -5.341
27 FC2 1 -3.387
27 FC2 2 0.031
27 FC2 3 4.425
27 FC2 4 8.820
27 FC2 5 11.749
27 FC2 6 12.238
27 FC2 7 9.796
27 FC2 8 5.402
27 FC2 9 1.495
27 FC2 10 -1.434
27 FC2 11 -1.923
27 FC2 12 -1.434
27 FC2 13 -1.434
27 FC2 14 -2.411
27 FC2 15 -3.387
27 FC2 16 -3.876
27 FC2 17 -2.899
27 FC2 18 -0.946
27 FC2 19 1.007
27 FC2 20 2.960
27 FC2 21 4.425
27 FC2 22 4.913
27 FC2 23 5.402
27 FC2 24 4.425
27 FC2 25 1.495
27 FC2 26 -2.899
27 FC2 27 -7.294
27 FC2 28 -10.712
27 FC2 29 -11.688
27 FC2 30 -10.223
27 FC2 31 -7.294
27 FC2 32 -4.364
27 FC2 33 -2.899
27 FC2 34 -2.899
27 FC2 35 -2.899
27 FC2 36 -2.899
27 FC2 37 -2.899
27 FC2 38 -2.899
27 FC2 39 -2.899
27 FC2 40 -3.387
27 FC2 41 -3.387
27 FC2 42 -3.387
27 FC2 43 -2.899
27 FC2 44 -3.387
27 FC2 45 -3.876
27 FC2 46 -3.876
27 FC2 47 -2.411
27 FC2 48 0.519
27 FC2 49 4.913
27 FC2 50 9.308
27 FC2 51 12.238
27 FC2 52 13.214
27 FC2 53 12.238
27 FC2 54 9.796
27 FC2 55 7.355
27 FC2 56 3.937
27 FC2 57 0.519
27 FC2 58 -2.899
27 FC2 59 -5.341
27 FC2 60 -7.782
27 FC2 61 -8.759
27 FC2 62 -8.759
27 FC2 63 -8.759
27 FC2 64 -8.270
27 FC2 65 -7.294
27 FC2 66 -5.829
27 FC2 67 -5.341
27 FC2 68 -5.341
27 FC2 69 -6.317
27 FC2 70 -7.294
27 FC2 71 -7.294
27 FC2 72 -6.317
27 FC2 73 -4.364
27 FC2 74 -1.434
27 FC2 75 1.007
27 FC2 76 2.472
27 FC2 77 2.960
27 FC2 78 1.984
27 FC2 79 0.031
27 FC2 80 -2.899
27 FC2 81 -5.829
27 FC2 82 -7.294
27 FC2 83 -7.294
27 FC2 84 -4.852
27 FC2 85 -2.411
27 FC2 86 -0.946
27 FC2 87 -1.434
27 FC2 88 -4.364
27 FC2 89 -7.294
27 FC2 90 -10.223
27 FC2 91 -11.688
27 FC2 92 -11.688
27 FC2 93 -10.712
27 FC2 94 -8.759
27 FC2 95 -6.317
27 FC2 96 -3.876
27 FC2 97 -1.434
27 FC2 98 -0.458
27 FC2 99 -0.946
27 FC2 100 -2.899
27 FC2 101 -4.852
27 FC2 102 -6.805
27 FC2 103 -7.294
27 FC2 104 -6.805
27 FC2 105 -5.829
27 FC2 106 -5.341
27 FC2 107 -5.341
27 FC2 108 -4.852
27 FC2 109 -4.852
27 FC2 110 -4.364
27 FC2 111 -3.387
27 FC2 112 -2.411
27 FC2 113 -2.411
27 FC2 114 -2.411
27 FC2 115 -1.923
27 FC2 116 -1.434
27 FC2 117 -0.946
27 FC2 118 0.031
27 FC2 119 0.031
27 FC2 120 0.031
27 FC2 121 0.519
27 FC2 122 1.007
27 FC2 123 1.495
27 FC2 124 0.519
27 FC2 125 -0.946
27 FC2 126 -3.876
27 FC2 127 -5.829
27 FC2 128 -7.294
27 FC2 129 -6.805
27 FC2 130 -5.829
27 FC2 131 -4.364
27 FC2 132 -2.899
27 FC2 133 -2.411
27 FC2 134 -1.923
27 FC2 135 -1.923
27 FC2 136 -1.923
27 FC2 137 -1.434
27 FC2 138 -0.458
27 FC2 139 1.007
27 FC2 140 2.960
27 FC2 141 5.402
27 FC2 142 6.866
27 FC2 143 6.866
27 FC2 144 5.402
27 FC2 145 3.448
27 FC2 146 1.984
27 FC2 147 1.984
27 FC2 148 2.472
27 FC2 149 2.960
27 FC2 150 2.472
27 FC2 151 1.495
27 FC2 152 -0.946
27 FC2 153 -3.387
27 FC2 154 -4.852
27 FC2 155 -4.852
27 FC2 156 -3.387
27 FC2 157 -0.458
27 FC2 158 1.984
27 FC2 159 3.448
27 FC2 160 3.937
27 FC2 161 2.472
27 FC2 162 -0.458
27 FC2 163 -3.387
27 FC2 164 -6.805
27 FC2 165 -8.759
27 FC2 166 -8.759
27 FC2 167 -7.294
27 FC2 168 -4.364
27 FC2 169 -0.458
27 FC2 170 3.937
27 FC2 171 8.820
27 FC2 172 12.726
27 FC2 173 14.679
27 FC2 174 15.167
27 FC2 175 14.679
27 FC2 176 13.702
27 FC2 177 12.726
27 FC2 178 12.238
27 FC2 179 12.238
27 FC2 180 10.284
27 FC2 181 7.843
27 FC2 182 4.425
27 FC2 183 1.007
27 FC2 184 -1.923
27 FC2 185 -2.411
27 FC2 186 -2.899
27 FC2 187 -2.411
27 FC2 188 -2.411
27 FC2 189 -1.923
27 FC2 190 -1.923
27 FC2 191 -1.923
27 FC2 192 -2.899
27 FC2 193 -5.341
27 FC2 194 -7.782
27 FC2 195 -9.735
27 FC2 196 -8.759
27 FC2 197 -4.852
27 FC2 198 1.007
27 FC2 199 6.378
27 FC2 200 9.796
27 FC2 201 11.261
27 FC2 202 11.261
27 FC2 203 11.261
27 FC2 204 12.238
27 FC2 205 13.214
27 FC2 206 12.726
27 FC2 207 10.284
27 FC2 208 5.890
27 FC2 209 1.007
27 FC2 210 -2.899
27 FC2 211 -4.852
27 FC2 212 -5.341
27 FC2 213 -3.876
27 FC2 214 -1.923
27 FC2 215 0.519
27 FC2 216 2.472
27 FC2 217 4.425
27 FC2 218 6.378
27 FC2 219 7.843
27 FC2 220 9.308
27 FC2 221 10.284
27 FC2 222 10.284
27 FC2 223 8.331
27 FC2 224 4.425
27 FC2 225 0.031
27 FC2 226 -3.876
27 FC2 227 -5.829
27 FC2 228 -5.341
27 FC2 229 -3.387
27 FC2 230 0.031
27 FC2 231 1.495
27 FC2 232 2.472
27 FC2 233 2.960
27 FC2 234 3.448
27 FC2 235 5.402
27 FC2 236 8.331
27 FC2 237 11.261
27 FC2 238 12.726
27 FC2 239 12.726
27 FC2 240 10.284
27 FC2 241 8.331
27 FC2 242 6.866
27 FC2 243 5.890
27 FC2 244 4.913
27 FC2 245 2.960
27 FC2 246 0.031
27 FC2 247 -3.876
27 FC2 248 -6.805
27 FC2 249 -7.782
27 FC2 250 -5.829
27 FC2 251 -2.411
27 FC2 252 0.519
27 FC2 253 2.472
27 FC2 254 2.472
27 FC2 255 0.519
# FC1 chan 12
27 FC1 0 -2.462
27 FC1 1 1.933
27 FC1 2 5.839
27 FC1 3 8.280
27 FC1 4 9.745
27 FC1 5 10.722
27 FC1 6 11.210
27 FC1 7 10.722
27 FC1 8 9.745
27 FC1 9 8.280
27 FC1 10 5.351
27 FC1 11 1.933
27 FC1 12 -2.950
27 FC1 13 -6.856
27 FC1 14 -9.786
27 FC1 15 -9.298
27 FC1 16 -6.368
27 FC1 17 -1.485
27 FC1 18 2.909
27 FC1 19 6.327
27 FC1 20 6.816
27 FC1 21 6.816
27 FC1 22 5.839
27 FC1 23 5.351
27 FC1 24 5.351
27 FC1 25 4.862
27 FC1 26 3.398
27 FC1 27 1.444
27 FC1 28 -0.997
27 FC1 29 -2.462
27 FC1 30 -4.415
27 FC1 31 -5.880
27 FC1 32 -6.856
27 FC1 33 -7.833
27 FC1 34 -7.833
27 FC1 35 -5.880
27 FC1 36 -2.462
27 FC1 37 0.956
27 FC1 38 3.886
27 FC1 39 5.351
27 FC1 40 5.839
27 FC1 41 5.839
27 FC1 42 5.839
27 FC1 43 6.327
27 FC1 44 6.816
27 FC1 45 7.304
27 FC1 46 7.792
27 FC1 47 8.769
27 FC1 48 9.745
27 FC1 49 10.722
27 FC1 50 12.675
27 FC1 51 14.628
27 FC1 52 16.093
27 FC1 53 16.093
27 FC1 54 14.140
27 FC1 55 9.745
27 FC1 56 3.398
27 FC1 57 -2.950
27 FC1 58 -7.833
27 FC1 59 -10.274
27 FC1 60 -10.763
27 FC1 61 -9.786
27 FC1 62 -8.321
27 FC1 63 -6.856
27 FC1 64 -6.368
27 FC1 65 -5.880
27 FC1 66 -5.880
27 FC1 67 -5.880
27 FC1 68 -5.391
27 FC1 69 -3.438
27 FC1 70 -1.485
27 FC1 71 0.468
27 FC1 72 0.956
27 FC1 73 0.468
27 FC1 74 -1.485
27 FC1 75 -3.927
27 FC1 76 -4.903
27 FC1 77 -3.927
27 FC1 78 -1.485
27 FC1 79 2.421
27 FC1 80 4.862
27 FC1 81 5.351
27 FC1 82 3.886
27 FC1 83 1.444
27 FC1 84 -0.997
27 FC1 85 -1.485
27 FC1 86 -0.997
27 FC1 87 0.468
27 FC1 88 0.956
27 FC1 89 0.956
27 FC1 90 -0.509
27 FC1 91 -1.485
27 FC1 92 -2.462
27 FC1 93 -2.462
27 FC1 94 -0.997
27 FC1 95 1.444
27 FC1 96 4.374
27 FC1 97 7.304
27 FC1 98 8.280
27 FC1 99 7.792
27 FC1 100 5.839
27 FC1 101 3.398
27 FC1 102 1.933
27 FC1 103 0.468
27 FC1 104 -0.020
27 FC1 105 -0.509
27 FC1 106 -1.485
27 FC1 107 -3.438
27 FC1 108 -4.415
27 FC1 109 -4.903
27 FC1 110 -4.903
27 FC1 111 -4.415
27 FC1 112 -4.415
27 FC1 113 -3.927
27 FC1 114 -3.438
27 FC1 115 -1.485
27 FC1 116 1.933
27 FC1 117 5.839
27 FC1 118 8.280
27 FC1 119 8.769
27 FC1 120 7.304
27 FC1 121 4.374
27 FC1 122 0.956
27 FC1 123 -0.997
27 FC1 124 -1.485
27 FC1 125 -0.020
27 FC1 126 1.444
27 FC1 127 2.421
27 FC1 128 1.444
27 FC1 129 -0.509
27 FC1 130 -2.950
27 FC1 131 -5.391
27 FC1 132 -6.368
27 FC1 133 -6.856
27 FC1 134 -6.368
27 FC1 135 -6.368
27 FC1 136 -5.880
27 FC1 137 -5.391
27 FC1 138 -4.903
27 FC1 139 -3.927
27 FC1 140 -2.462
27 FC1 141 -0.020
27 FC1 142 3.398
27 FC1 143 7.792
27 FC1 144 11.698
27 FC1 145 14.628
27 FC1 146 15.116
27 FC1 147 14.140
27 FC1 148 11.210
27 FC1 149 7.792
27 FC1 150 4.374
27 FC1 151 1.444
27 FC1 152 -0.997
27 FC1 153 -2.462
27 FC1 154 -2.950
27 FC1 155 -1.973
27 FC1 156 0.468
27 FC1 157 2.909
27 FC1 158 4.862
27 FC1 159 5.351
27 FC1 160 4.862
27 FC1 161 3.398
27 FC1 162 3.398
27 FC1 163 2.909
27 FC1 164 2.421
27 FC1 165 0.468
27 FC1 166 -2.462
27 FC1 167 -5.391
27 FC1 168 -7.345
27 FC1 169 -6.368
27 FC1 170 -3.927
27 FC1 171 -0.509
27 FC1 172 3.398
27 FC1 173 6.816
27 FC1 174 9.257
27 FC1 175 12.675
27 FC1 176 16.093
27 FC1 177 19.023
27 FC1 178 20.487
27 FC1 179 18.534
27 FC1 180 14.628
27 FC1 181 9.257
27 FC1 182 4.862
27 FC1 183 1.933
27 FC1 184 -0.020
27 FC1 185 -1.485
27 FC1 186 -3.438
27 FC1 187 -5.880
27 FC1 188 -8.321
27 FC1 189 -9.786
27 FC1 190 -9.298
27 FC1 191 -8.321
27 FC1 192 -6.856
27 FC1 193 -5.880
27 FC1 194 -5.391
27 FC1 195 -6.368
27 FC1 196 -7.833
27 FC1 197 -9.298
27 FC1 198 -9.298
27 FC1 199 -7.345
27 FC1 200 -3.438
27 FC1 201 1.933
27 FC1 202 6.816
27 FC1 203 10.722
27 FC1 204 13.163
27 FC1 205 14.140
27 FC1 206 14.140
27 FC1 207 14.140
27 FC1 208 13.652
27 FC1 209 12.187
27 FC1 210 9.745
27 FC1 211 6.327
27 FC1 212 2.421
27 FC1 213 -2.462
27 FC1 214 -6.856
27 FC1 215 -9.298
27 FC1 216 -9.786
27 FC1 217 -7.833
27 FC1 218 -3.438
27 FC1 219 1.444
27 FC1 220 5.351
27 FC1 221 8.280
27 FC1 222 9.257
27 FC1 223 9.257
27 FC1 224 8.280
27 FC1 225 7.304
27 FC1 226 6.816
27 FC1 227 5.839
27 FC1 228 4.374
27 FC1 229 2.421
27 FC1 230 -0.020
27 FC1 231 -1.485
27 FC1 232 -2.462
27 FC1 233 -2.950
27 FC1 234 -2.950
27 FC1 235 -2.462
27 FC1 236 -1.973
27 FC1 237 -0.509
27 FC1 238 1.444
27 FC1 239 4.374
27 FC1 240 7.792
27 FC1 241 10.722
27 FC1 242 12.675
27 FC1 243 13.163
27 FC1 244 12.675
27 FC1 245 11.698
27 FC1 246 10.722
27 FC1 247 10.234
27 FC1 248 9.745
27 FC1 249 8.280
27 FC1 250 6.816
27 FC1 251 4.862
27 FC1 252 3.398
27 FC1 253 2.909
27 FC1 254 3.886
27 FC1 255 5.839
# T8 chan 13
27 T8 0 -3.774
27 T8 1 -2.309
27 T8 2 2.085
27 T8 3 7.456
27 T8 4 11.363
27 T8 5 11.851
27 T8 6 8.433
27 T8 7 5.015
27 T8 8 4.038
27 T8 9 5.503
27 T8 10 7.456
27 T8 11 7.456
27 T8 12 4.038
27 T8 13 -1.333
27 T8 14 -7.192
27 T8 15 -11.098
27 T8 16 -12.563
27 T8 17 -12.075
27 T8 18 -9.633
27 T8 19 -5.239
27 T8 20 0.621
27 T8 21 7.945
27 T8 22 14.292
27 T8 23 18.199
27 T8 24 19.663
27 T8 25 18.199
27 T8 26 15.269
27 T8 27 13.316
27 T8 28 11.363
27 T8 29 9.410
27 T8 30 7.945
27 T8 31 5.503
27 T8 32 2.085
27 T8 33 -2.309
27 T8 34 -6.704
27 T8 35 -9.633
27 T8 36 -11.098
27 T8 37 -12.075
27 T8 38 -13.540
27 T8 39 -15.493
27 T8 40 -18.911
27 T8 41 -21.352
27 T8 42 -21.840
27 T8 43 -20.376
27 T8 44 -17.446
27 T8 45 -14.028
27 T8 46 -9.145
27 T8 47 -2.797
27 T8 48 4.527
27 T8 49 12.828
27 T8 50 18.687
27 T8 51 21.128
27 T8 52 20.152
27 T8 53 17.710
27 T8 54 14.292
27 T8 55 10.874
27 T8 56 7.945
27 T8 57 4.527
27 T8 58 1.109
27 T8 59 -3.286
27 T8 60 -8.169
27 T8 61 -14.028
27 T8 62 -20.376
27 T8 63 -25.747
27 T8 64 -27.700
27 T8 65 -26.723
27 T8 66 -23.305
27 T8 67 -20.864
27 T8 68 -19.887
27 T8 69 -20.376
27 T8 70 -19.887
27 T8 71 -16.958
27 T8 72 -11.098
27 T8 73 -3.774
27 T8 74 2.085
27 T8 75 5.992
27 T8 76 6.968
27 T8 77 7.456
27 T8 78 7.456
27 T8 79 6.480
27 T8 80 4.527
27 T8 81 0.621
27 T8 82 -3.286
27 T8 83 -7.192
27 T8 84 -10.122
27 T8 85 -11.587
27 T8 86 -11.098
27 T8 87 -9.633
27 T8 88 -9.145
27 T8 89 -11.098
27 T8 90 -14.516
27 T8 91 -18.911
27 T8 92 -21.840
27 T8 93 -19.887
27 T8 94 -14.028
27 T8 95 -5.727
27 T8 96 1.109
27 T8 97 5.015
27 T8 98 4.527
27 T8 99 1.109
27 T8 100 -2.797
27 T8 101 -5.727
27 T8 102 -7.680
27 T8 103 -7.192
27 T8 104 -5.239
27 T8 105 -1.821
27 T8 106 2.085
27 T8 107 4.527
27 T8 108 5.015
27 T8 109 3.550
27 T8 110 0.621
27 T8 111 -1.333
27 T8 112 -1.333
27 T8 113 0.132
27 T8 114 2.574
27 T8 115 3.550
27 T8 116 3.550
27 T8 117 3.062
27 T8 118 3.062
27 T8 119 4.038
27 T8 120 6.480
27 T8 121 8.433
27 T8 122 9.898
27 T8 123 9.410
27 T8 124 7.456
27 T8 125 4.038
27 T8 126 0.621
27 T8 127 -1.333
27 T8 128 -2.309
27 T8 129 -1.821
27 T8 130 0.132
27 T8 131 3.062
27 T8 132 6.480
27 T8 133 9.898
27 T8 134 12.828
27 T8 135 13.316
27 T8 136 11.851
27 T8 137 7.945
27 T8 138 4.038
27 T8 139 1.597
27 T8 140 1.597
27 T8 141 3.062
27 T8 142 5.503
27 T8 143 7.945
27 T8 144 10.386
27 T8 145 12.339
27 T8 146 14.292
27 T8 147 16.246
27 T8 148 16.734
27 T8 149 15.269
27 T8 150 12.828
27 T8 151 9.410
27 T8 152 6.968
27 T8 153 5.503
27 T8 154 5.503
27 T8 155 5.503
27 T8 156 5.015
27 T8 157 4.527
27 T8 158 5.015
27 T8 159 5.992
27 T8 160 6.968
27 T8 161 5.992
27 T8 162 1.109
27 T8 163 -5.727
27 T8 164 -12.563
27 T8 165 -15.004
27 T8 166 -11.587
27 T8 167 -3.286
27 T8 168 5.503
27 T8 169 13.316
27 T8 170 17.710
27 T8 171 20.152
27 T8 172 22.105
27 T8 173 24.058
27 T8 174 25.523
27 T8 175 26.011
27 T8 176 25.523
27 T8 177 26.499
27 T8 178 27.964
27 T8 179 29.917
27 T8 180 30.894
27 T8 181 28.941
27 T8 182 24.058
27 T8 183 16.734
27 T8 184 10.874
27 T8 185 6.968
27 T8 186 5.992
27 T8 187 6.968
27 T8 188 8.921
27 T8 189 10.874
27 T8 190 12.339
27 T8 191 12.339
27 T8 192 10.874
27 T8 193 8.433
27 T8 194 5.015
27 T8 195 2.085
27 T8 196 1.597
27 T8 197 4.038
27 T8 198 7.945
27 T8 199 12.828
27 T8 200 17.222
27 T8 201 21.617
27 T8 202 26.011
27 T8 203 30.406
27 T8 204 33.335
27 T8 205 33.335
27 T8 206 30.406
27 T8 207 25.035
27 T8 208 17.710
27 T8 209 12.339
27 T8 210 9.898
27 T8 211 11.363
27 T8 212 14.781
27 T8 213 18.199
27 T8 214 19.663
27 T8 215 18.687
27 T8 216 15.757
27 T8 217 13.804
27 T8 218 14.781
27 T8 219 20.152
27 T8 220 28.453
27 T8 221 36.753
27 T8 222 42.124
27 T8 223 41.636
27 T8 224 36.753
27 T8 225 29.429
27 T8 226 23.570
27 T8 227 21.617
27 T8 228 24.058
27 T8 229 28.453
27 T8 230 32.359
27 T8 231 32.359
27 T8 232 28.453
27 T8 233 22.105
27 T8 234 16.734
27 T8 235 14.781
27 T8 236 17.710
27 T8 237 23.570
27 T8 238 27.964
27 T8 239 27.964
27 T8 240 25.035
27 T8 241 22.105
27 T8 242 22.105
27 T8 243 26.988
27 T8 244 32.847
27 T8 245 36.753
27 T8 246 35.777
27 T8 247 31.871
27 T8 248 28.453
27 T8 249 28.453
27 T8 250 32.359
27 T8 251 37.730
27 T8 252 40.171
27 T8 253 39.195
27 T8 254 35.288
27 T8 255 31.382
# T7 chan 14
27 T7 0 -4.567
27 T7 1 0.315
27 T7 2 7.151
27 T7 3 13.499
27 T7 4 16.917
27 T7 5 15.940
27 T7 6 12.034
27 T7 7 7.640
27 T7 8 4.222
27 T7 9 2.757
27 T7 10 0.315
27 T7 11 -3.591
27 T7 12 -9.939
27 T7 13 -17.263
27 T7 14 -22.146
27 T7 15 -23.122
27 T7 16 -19.704
27 T7 17 -13.845
27 T7 18 -7.497
27 T7 19 -2.126
27 T7 20 2.757
27 T7 21 8.128
27 T7 22 12.522
27 T7 23 17.893
27 T7 24 21.311
27 T7 25 23.265
27 T7 26 22.288
27 T7 27 18.870
27 T7 28 13.987
27 T7 29 7.640
27 T7 30 1.780
27 T7 31 -3.103
27 T7 32 -6.521
27 T7 33 -8.474
27 T7 34 -8.962
27 T7 35 -8.474
27 T7 36 -7.009
27 T7 37 -5.544
27 T7 38 -4.567
27 T7 39 -5.056
27 T7 40 -6.521
27 T7 41 -8.474
27 T7 42 -10.427
27 T7 43 -9.939
27 T7 44 -7.497
27 T7 45 -3.591
27 T7 46 0.315
27 T7 47 4.222
27 T7 48 6.663
27 T7 49 8.616
27 T7 50 9.593
27 T7 51 10.569
27 T7 52 10.569
27 T7 53 7.640
27 T7 54 2.757
27 T7 55 -3.103
27 T7 56 -9.450
27 T7 57 -14.333
27 T7 58 -16.774
27 T7 59 -17.751
27 T7 60 -18.728
27 T7 61 -20.192
27 T7 62 -22.634
27 T7 63 -25.075
27 T7 64 -26.052
27 T7 65 -26.052
27 T7 66 -24.587
27 T7 67 -22.146
27 T7 68 -19.216
27 T7 69 -14.821
27 T7 70 -9.450
27 T7 71 -4.567
27 T7 72 -1.149
27 T7 73 -1.149
27 T7 74 -3.103
27 T7 75 -6.032
27 T7 76 -6.521
27 T7 77 -4.567
27 T7 78 -1.149
27 T7 79 1.292
27 T7 80 0.315
27 T7 81 -5.056
27 T7 82 -13.357
27 T7 83 -21.657
27 T7 84 -28.005
27 T7 85 -30.935
27 T7 86 -29.958
27 T7 87 -26.052
27 T7 88 -20.681
27 T7 89 -15.798
27 T7 90 -12.380
27 T7 91 -10.915
27 T7 92 -9.450
27 T7 93 -6.521
27 T7 94 -2.126
27 T7 95 3.245
27 T7 96 8.128
27 T7 97 10.569
27 T7 98 11.058
27 T7 99 10.081
27 T7 100 8.128
27 T7 101 7.151
27 T7 102 6.175
27 T7 103 4.710
27 T7 104 3.245
27 T7 105 2.268
27 T7 106 1.292
27 T7 107 -1.149
27 T7 108 -5.056
27 T7 109 -10.427
27 T7 110 -15.798
27 T7 111 -19.216
27 T7 112 -19.704
27 T7 113 -16.286
27 T7 114 -10.915
27 T7 115 -5.056
27 T7 116 0.315
27 T7 117 3.733
27 T7 118 5.686
27 T7 119 6.663
27 T7 120 6.663
27 T7 121 6.663
27 T7 122 6.663
27 T7 123 7.640
27 T7 124 9.593
27 T7 125 11.058
27 T7 126 11.546
27 T7 127 10.569
27 T7 128 8.128
27 T7 129 5.198
27 T7 130 2.757
27 T7 131 1.780
27 T7 132 2.268
27 T7 133 3.245
27 T7 134 4.710
27 T7 135 5.198
27 T7 136 4.710
27 T7 137 2.757
27 T7 138 0.315
27 T7 139 -2.614
27 T7 140 -4.079
27 T7 141 -4.079
27 T7 142 -1.638
27 T7 143 3.245
27 T7 144 9.104
27 T7 145 14.964
27 T7 146 17.893
27 T7 147 17.405
27 T7 148 13.499
27 T7 149 7.151
27 T7 150 0.315
27 T7 151 -4.079
27 T7 152 -6.032
27 T7 153 -4.567
27 T7 154 -1.638
27 T7 155 2.757
27 T7 156 6.175
27 T7 157 7.640
27 T7 158 7.640
27 T7 159 6.175
27 T7 160 4.710
27 T7 161 2.757
27 T7 162 1.780
27 T7 163 0.804
27 T7 164 0.315
27 T7 165 0.315
27 T7 166 1.292
27 T7 167 3.733
27 T7 168 7.640
27 T7 169 11.058
27 T7 170 12.034
27 T7 171 11.058
27 T7 172 8.616
27 T7 173 6.663
27 T7 174 6.663
27 T7 175 9.593
27 T7 176 14.476
27 T7 177 19.358
27 T7 178 22.776
27 T7 179 23.753
27 T7 180 21.800
27 T7 181 18.870
27 T7 182 14.964
27 T7 183 11.058
27 T7 184 7.151
27 T7 185 3.733
27 T7 186 0.315
27 T7 187 -3.103
27 T7 188 -5.056
27 T7 189 -5.056
27 T7 190 -1.638
27 T7 191 3.733
27 T7 192 9.593
27 T7 193 13.499
27 T7 194 13.011
27 T7 195 9.104
27 T7 196 2.757
27 T7 197 -3.591
27 T7 198 -7.985
27 T7 199 -8.962
27 T7 200 -5.544
27 T7 201 0.804
27 T7 202 9.104
27 T7 203 16.429
27 T7 204 21.800
27 T7 205 22.288
27 T7 206 18.870
27 T7 207 13.011
27 T7 208 7.151
27 T7 209 2.757
27 T7 210 1.292
27 T7 211 2.757
27 T7 212 5.198
27 T7 213 6.663
27 T7 214 6.663
27 T7 215 4.710
27 T7 216 1.780
27 T7 217 0.804
27 T7 218 2.757
27 T7 219 8.616
27 T7 220 15.452
27 T7 221 20.823
27 T7 222 22.288
27 T7 223 19.358
27 T7 224 13.011
27 T7 225 6.175
27 T7 226 0.315
27 T7 227 -3.103
27 T7 228 -4.079
27 T7 229 -3.591
27 T7 230 -2.614
27 T7 231 -0.661
27 T7 232 1.292
27 T7 233 2.268
27 T7 234 2.757
27 T7 235 1.780
27 T7 236 -0.173
27 T7 237 -2.126
27 T7 238 -2.126
27 T7 239 1.292
27 T7 240 8.616
27 T7 241 17.893
27 T7 242 27.659
27 T7 243 34.983
27 T7 244 39.378
27 T7 245 39.866
27 T7 246 38.401
27 T7 247 35.960
27 T7 248 34.007
27 T7 249 32.542
27 T7 250 31.077
27 T7 251 28.636
27 T7 252 24.729
27 T7 253 19.847
27 T7 254 13.987
27 T7 255 7.640
# CZ chan 15
27 CZ 0 -11.932
27 CZ 1 -4.608
27 CZ 2 1.740
27 CZ 3 6.622
27 CZ 4 6.622
27 CZ 5 3.204
27 CZ 6 -0.214
27 CZ 7 -1.190
27 CZ 8 2.228
27 CZ 9 7.599
27 CZ 10 10.529
27 CZ 11 8.087
27 CZ 12 1.251
27 CZ 13 -6.561
27 CZ 14 -12.421
27 CZ 15 -14.862
27 CZ 16 -14.862
27 CZ 17 -13.885
27 CZ 18 -13.397
27 CZ 19 -11.932
27 CZ 20 -8.514
27 CZ 21 -2.655
27 CZ 22 3.693
27 CZ 23 7.599
27 CZ 24 8.087
27 CZ 25 4.181
27 CZ 26 -2.167
27 CZ 27 -8.514
27 CZ 28 -12.421
27 CZ 29 -13.885
27 CZ 30 -13.885
27 CZ 31 -13.885
27 CZ 32 -14.374
27 CZ 33 -15.350
27 CZ 34 -15.839
27 CZ 35 -16.327
27 CZ 36 -17.303
27 CZ 37 -19.745
27 CZ 38 -23.651
27 CZ 39 -28.046
27 CZ 40 -29.999
27 CZ 41 -27.557
27 CZ 42 -20.721
27 CZ 43 -13.397
27 CZ 44 -8.514
27 CZ 45 -8.514
27 CZ 46 -10.468
27 CZ 47 -11.444
27 CZ 48 -8.026
27 CZ 49 -2.167
27 CZ 50 3.204
27 CZ 51 4.181
27 CZ 52 -0.214
27 CZ 53 -7.538
27 CZ 54 -13.397
27 CZ 55 -15.839
27 CZ 56 -16.327
27 CZ 57 -17.792
27 CZ 58 -21.698
27 CZ 59 -28.046
27 CZ 60 -34.393
27 CZ 61 -39.276
27 CZ 62 -43.182
27 CZ 63 -47.089
27 CZ 64 -50.995
27 CZ 65 -53.436
27 CZ 66 -53.436
27 CZ 67 -49.530
27 CZ 68 -43.671
27 CZ 69 -36.835
27 CZ 70 -31.464
27 CZ 71 -27.557
27 CZ 72 -25.604
27 CZ 73 -25.604
27 CZ 74 -26.581
27 CZ 75 -26.581
27 CZ 76 -26.093
27 CZ 77 -24.139
27 CZ 78 -21.698
27 CZ 79 -20.721
27 CZ 80 -23.651
27 CZ 81 -29.999
27 CZ 82 -37.811
27 CZ 83 -44.647
27 CZ 84 -47.577
27 CZ 85 -48.065
27 CZ 86 -47.577
27 CZ 87 -48.553
27 CZ 88 -50.018
27 CZ 89 -50.995
27 CZ 90 -50.018
27 CZ 91 -47.089
27 CZ 92 -42.694
27 CZ 93 -38.300
27 CZ 94 -34.393
27 CZ 95 -29.022
27 CZ 96 -23.651
27 CZ 97 -18.280
27 CZ 98 -17.303
27 CZ 99 -20.721
27 CZ 100 -29.022
27 CZ 101 -38.300
27 CZ 102 -44.159
27 CZ 103 -45.624
27 CZ 104 -43.182
27 CZ 105 -39.764
27 CZ 106 -39.276
27 CZ 107 -42.694
27 CZ 108 -47.089
27 CZ 109 -50.018
27 CZ 110 -49.042
27 CZ 111 -45.624
27 CZ 112 -41.718
27 CZ 113 -37.811
27 CZ 114 -35.370
27 CZ 115 -31.952
27 CZ 116 -28.534
27 CZ 117 -27.069
27 CZ 118 -29.022
27 CZ 119 -32.440
27 CZ 120 -34.882
27 CZ 121 -32.440
27 CZ 122 -24.139
27 CZ 123 -14.374
27 CZ 124 -9.491
27 CZ 125 -14.862
27 CZ 126 -27.557
27 CZ 127 -41.718
27 CZ 128 -50.018
27 CZ 129 -50.018
27 CZ 130 -44.159
27 CZ 131 -37.811
27 CZ 132 -35.370
27 CZ 133 -36.346
27 CZ 134 -38.300
27 CZ 135 -37.811
27 CZ 136 -34.393
27 CZ 137 -30.975
27 CZ 138 -30.487
27 CZ 139 -33.417
27 CZ 140 -39.276
27 CZ 141 -44.159
27 CZ 142 -45.135
27 CZ 143 -41.229
27 CZ 144 -34.393
27 CZ 145 -26.581
27 CZ 146 -20.721
27 CZ 147 -18.280
27 CZ 148 -19.745
27 CZ 149 -23.651
27 CZ 150 -28.534
27 CZ 151 -31.952
27 CZ 152 -34.393
27 CZ 153 -35.370
27 CZ 154 -35.370
27 CZ 155 -36.835
27 CZ 156 -38.788
27 CZ 157 -41.229
27 CZ 158 -43.182
27 CZ 159 -42.694
27 CZ 160 -42.206
27 CZ 161 -42.694
27 CZ 162 -47.089
27 CZ 163 -54.901
27 CZ 164 -64.178
27 CZ 165 -70.526
27 CZ 166 -70.038
27 CZ 167 -63.690
27 CZ 168 -53.436
27 CZ 169 -43.671
27 CZ 170 -38.300
27 CZ 171 -35.858
27 CZ 172 -35.370
27 CZ 173 -33.905
27 CZ 174 -29.999
27 CZ 175 -24.139
27 CZ 176 -17.792
27 CZ 177 -11.932
27 CZ 178 -8.514
27 CZ 179 -9.003
27 CZ 180 -13.397
27 CZ 181 -20.233
27 CZ 182 -28.046
27 CZ 183 -34.882
27 CZ 184 -41.229
27 CZ 185 -46.112
27 CZ 186 -50.507
27 CZ 187 -52.948
27 CZ 188 -52.460
27 CZ 189 -50.018
27 CZ 190 -46.112
27 CZ 191 -43.182
27 CZ 192 -42.694
27 CZ 193 -45.135
27 CZ 194 -48.065
27 CZ 195 -51.483
27 CZ 196 -53.436
27 CZ 197 -54.901
27 CZ 198 -56.366
27 CZ 199 -56.366
27 CZ 200 -55.878
27 CZ 201 -52.460
27 CZ 202 -46.600
27 CZ 203 -38.788
27 CZ 204 -31.464
27 CZ 205 -25.604
27 CZ 206 -24.139
27 CZ 207 -28.046
27 CZ 208 -36.835
27 CZ 209 -46.600
27 CZ 210 -53.436
27 CZ 211 -54.413
27 CZ 212 -50.995
27 CZ 213 -47.089
27 CZ 214 -47.089
27 CZ 215 -52.460
27 CZ 216 -58.807
27 CZ 217 -61.737
27 CZ 218 -59.296
27 CZ 219 -51.971
27 CZ 220 -43.671
27 CZ 221 -36.835
27 CZ 222 -32.928
27 CZ 223 -32.440
27 CZ 224 -35.370
27 CZ 225 -42.694
27 CZ 226 -53.925
27 CZ 227 -65.643
27 CZ 228 -72.479
27 CZ 229 -70.526
27 CZ 230 -60.272
27 CZ 231 -49.042
27 CZ 232 -43.671
27 CZ 233 -47.577
27 CZ 234 -58.319
27 CZ 235 -69.061
27 CZ 236 -73.456
27 CZ 237 -70.526
27 CZ 238 -62.714
27 CZ 239 -55.389
27 CZ 240 -49.530
27 CZ 241 -44.159
27 CZ 242 -36.835
27 CZ 243 -28.046
27 CZ 244 -20.721
27 CZ 245 -20.233
27 CZ 246 -26.581
27 CZ 247 -36.835
27 CZ 248 -45.135
27 CZ 249 -47.089
27 CZ 250 -43.182
27 CZ 251 -37.323
27 CZ 252 -33.905
27 CZ 253 -34.882
27 CZ 254 -39.764
27 CZ 255 -45.135
# C3 chan 16
27 C3 0 -7.192
27 C3 1 -3.286
27 C3 2 1.597
27 C3 3 6.968
27 C3 4 10.386
27 C3 5 11.851
27 C3 6 10.874
27 C3 7 9.898
27 C3 8 8.921
27 C3 9 6.968
27 C3 10 4.038
27 C3 11 -0.356
27 C3 12 -6.215
27 C3 13 -12.075
27 C3 14 -15.981
27 C3 15 -16.469
27 C3 16 -14.028
27 C3 17 -9.145
27 C3 18 -4.262
27 C3 19 -0.356
27 C3 20 2.085
27 C3 21 3.550
27 C3 22 5.015
27 C3 23 7.456
27 C3 24 10.874
27 C3 25 13.804
27 C3 26 14.781
27 C3 27 13.804
27 C3 28 11.363
27 C3 29 7.456
27 C3 30 3.062
27 C3 31 0.132
27 C3 32 -1.821
27 C3 33 -2.309
27 C3 34 -1.821
27 C3 35 -0.356
27 C3 36 1.109
27 C3 37 2.574
27 C3 38 3.550
27 C3 39 3.550
27 C3 40 3.062
27 C3 41 1.597
27 C3 42 0.621
27 C3 43 -0.844
27 C3 44 -1.333
27 C3 45 -1.333
27 C3 46 -0.844
27 C3 47 -0.356
27 C3 48 0.132
27 C3 49 1.109
27 C3 50 2.574
27 C3 51 4.038
27 C3 52 5.503
27 C3 53 5.503
27 C3 54 4.527
27 C3 55 1.597
27 C3 56 -0.844
27 C3 57 -3.286
27 C3 58 -4.262
27 C3 59 -4.262
27 C3 60 -4.751
27 C3 61 -5.239
27 C3 62 -6.215
27 C3 63 -6.704
27 C3 64 -6.704
27 C3 65 -5.239
27 C3 66 -3.774
27 C3 67 -2.309
27 C3 68 -1.333
27 C3 69 -0.356
27 C3 70 -0.356
27 C3 71 -0.844
27 C3 72 -1.821
27 C3 73 -3.774
27 C3 74 -5.239
27 C3 75 -5.727
27 C3 76 -3.774
27 C3 77 -0.356
27 C3 78 3.550
27 C3 79 6.968
27 C3 80 7.456
27 C3 81 5.992
27 C3 82 2.574
27 C3 83 -1.821
27 C3 84 -5.239
27 C3 85 -7.192
27 C3 86 -6.215
27 C3 87 -4.262
27 C3 88 -1.821
27 C3 89 -1.333
27 C3 90 -2.309
27 C3 91 -3.774
27 C3 92 -4.751
27 C3 93 -4.262
27 C3 94 -0.844
27 C3 95 2.574
27 C3 96 5.503
27 C3 97 7.456
27 C3 98 8.433
27 C3 99 8.433
27 C3 100 8.921
27 C3 101 8.921
27 C3 102 8.921
27 C3 103 7.945
27 C3 104 6.480
27 C3 105 5.015
27 C3 106 4.038
27 C3 107 3.062
27 C3 108 1.597
27 C3 109 -0.356
27 C3 110 -2.309
27 C3 111 -4.262
27 C3 112 -5.239
27 C3 113 -4.751
27 C3 114 -3.286
27 C3 115 -0.844
27 C3 116 1.597
27 C3 117 4.038
27 C3 118 5.503
27 C3 119 6.480
27 C3 120 6.968
27 C3 121 6.968
27 C3 122 6.480
27 C3 123 7.456
27 C3 124 8.433
27 C3 125 9.898
27 C3 126 10.386
27 C3 127 9.898
27 C3 128 8.433
27 C3 129 5.503
27 C3 130 3.062
27 C3 131 1.597
27 C3 132 1.597
27 C3 133 2.574
27 C3 134 3.550
27 C3 135 4.038
27 C3 136 4.038
27 C3 137 3.062
27 C3 138 1.597
27 C3 139 -0.356
27 C3 140 -1.333
27 C3 141 -1.333
27 C3 142 0.621
27 C3 143 4.527
27 C3 144 9.410
27 C3 145 13.804
27 C3 146 15.757
27 C3 147 14.292
27 C3 148 10.874
27 C3 149 6.480
27 C3 150 2.574
27 C3 151 0.621
27 C3 152 1.597
27 C3 153 4.527
27 C3 154 7.456
27 C3 155 9.898
27 C3 156 10.386
27 C3 157 8.433
27 C3 158 5.992
27 C3 159 4.038
27 C3 160 4.038
27 C3 161 5.015
27 C3 162 7.456
27 C3 163 8.921
27 C3 164 8.921
27 C3 165 6.968
27 C3 166 4.038
27 C3 167 2.085
27 C3 168 1.109
27 C3 169 0.621
27 C3 170 0.132
27 C3 171 -0.356
27 C3 172 -0.844
27 C3 173 0.132
27 C3 174 2.574
27 C3 175 6.968
27 C3 176 10.874
27 C3 177 14.292
27 C3 178 14.781
27 C3 179 13.316
27 C3 180 10.386
27 C3 181 8.433
27 C3 182 7.456
27 C3 183 7.945
27 C3 184 7.945
27 C3 185 5.992
27 C3 186 2.085
27 C3 187 -2.309
27 C3 188 -6.215
27 C3 189 -7.192
27 C3 190 -5.239
27 C3 191 -1.821
27 C3 192 2.085
27 C3 193 5.015
27 C3 194 6.480
27 C3 195 5.503
27 C3 196 2.574
27 C3 197 -0.844
27 C3 198 -3.286
27 C3 199 -4.262
27 C3 200 -1.821
27 C3 201 2.085
27 C3 202 6.480
27 C3 203 9.410
27 C3 204 9.898
27 C3 205 8.921
27 C3 206 6.480
27 C3 207 4.527
27 C3 208 3.550
27 C3 209 3.550
27 C3 210 4.038
27 C3 211 5.503
27 C3 212 6.480
27 C3 213 5.992
27 C3 214 3.550
27 C3 215 -1.333
27 C3 216 -7.192
27 C3 217 -11.587
27 C3 218 -12.075
27 C3 219 -8.657
27 C3 220 -3.286
27 C3 221 2.085
27 C3 222 4.527
27 C3 223 4.038
27 C3 224 2.085
27 C3 225 0.132
27 C3 226 -0.356
27 C3 227 0.132
27 C3 228 0.621
27 C3 229 0.621
27 C3 230 0.132
27 C3 231 0.621
27 C3 232 2.085
27 C3 233 3.550
27 C3 234 4.038
27 C3 235 3.062
27 C3 236 -0.356
27 C3 237 -3.286
27 C3 238 -5.239
27 C3 239 -3.774
27 C3 240 1.109
27 C3 241 7.456
27 C3 242 13.316
27 C3 243 17.222
27 C3 244 18.199
27 C3 245 16.246
27 C3 246 13.804
27 C3 247 11.851
27 C3 248 10.874
27 C3 249 10.386
27 C3 250 9.410
27 C3 251 6.480
27 C3 252 2.574
27 C3 253 -1.821
27 C3 254 -5.239
27 C3 255 -7.680
# C4 chan 17
27 C4 0 -5.107
27 C4 1 -5.595
27 C4 2 -3.153
27 C4 3 1.729
27 C4 4 6.612
27 C4 5 10.030
27 C4 6 10.518
27 C4 7 7.589
27 C4 8 3.194
27 C4 9 -1.200
27 C4 10 -3.642
27 C4 11 -4.130
27 C4 12 -3.642
27 C4 13 -3.153
27 C4 14 -3.642
27 C4 15 -5.107
27 C4 16 -6.571
27 C4 17 -7.060
27 C4 18 -6.083
27 C4 19 -4.130
27 C4 20 -0.712
27 C4 21 2.706
27 C4 22 6.124
27 C4 23 8.565
27 C4 24 9.054
27 C4 25 7.589
27 C4 26 4.659
27 C4 27 0.753
27 C4 28 -2.177
27 C4 29 -3.153
27 C4 30 -2.665
27 C4 31 -1.689
27 C4 32 -1.200
27 C4 33 -1.689
27 C4 34 -2.665
27 C4 35 -4.618
27 C4 36 -6.083
27 C4 37 -7.548
27 C4 38 -9.013
27 C4 39 -11.454
27 C4 40 -13.896
27 C4 41 -15.849
27 C4 42 -16.337
27 C4 43 -16.337
27 C4 44 -15.361
27 C4 45 -13.407
27 C4 46 -10.966
27 C4 47 -7.548
27 C4 48 -3.153
27 C4 49 1.241
27 C4 50 4.659
27 C4 51 6.124
27 C4 52 5.636
27 C4 53 4.171
27 C4 54 3.194
27 C4 55 2.706
27 C4 56 2.706
27 C4 57 2.218
27 C4 58 0.753
27 C4 59 -2.177
27 C4 60 -5.107
27 C4 61 -8.525
27 C4 62 -10.966
27 C4 63 -12.431
27 C4 64 -12.431
27 C4 65 -10.966
27 C4 66 -9.013
27 C4 67 -7.060
27 C4 68 -7.060
27 C4 69 -8.036
27 C4 70 -9.013
27 C4 71 -9.013
27 C4 72 -7.548
27 C4 73 -3.642
27 C4 74 0.753
27 C4 75 4.659
27 C4 76 7.100
27 C4 77 7.100
27 C4 78 4.659
27 C4 79 0.264
27 C4 80 -4.130
27 C4 81 -7.548
27 C4 82 -9.013
27 C4 83 -8.525
27 C4 84 -7.060
27 C4 85 -5.595
27 C4 86 -6.083
27 C4 87 -7.548
27 C4 88 -9.989
27 C4 89 -12.431
27 C4 90 -13.896
27 C4 91 -13.896
27 C4 92 -12.431
27 C4 93 -9.989
27 C4 94 -6.571
27 C4 95 -3.153
27 C4 96 -1.200
27 C4 97 -1.200
27 C4 98 -2.665
27 C4 99 -5.595
27 C4 100 -7.548
27 C4 101 -8.525
27 C4 102 -8.036
27 C4 103 -5.595
27 C4 104 -2.665
27 C4 105 -0.224
27 C4 106 1.729
27 C4 107 2.218
27 C4 108 1.729
27 C4 109 0.264
27 C4 110 -0.712
27 C4 111 -0.712
27 C4 112 0.264
27 C4 113 1.729
27 C4 114 2.706
27 C4 115 2.706
27 C4 116 1.241
27 C4 117 -0.712
27 C4 118 -2.177
27 C4 119 -2.665
27 C4 120 -2.177
27 C4 121 0.264
27 C4 122 3.194
27 C4 123 4.659
27 C4 124 4.171
27 C4 125 0.753
27 C4 126 -3.642
27 C4 127 -7.060
27 C4 128 -7.548
27 C4 129 -4.618
27 C4 130 -0.712
27 C4 131 3.682
27 C4 132 6.612
27 C4 133 7.100
27 C4 134 6.612
27 C4 135 5.147
27 C4 136 3.682
27 C4 137 2.706
27 C4 138 2.218
27 C4 139 2.706
27 C4 140 3.682
27 C4 141 4.659
27 C4 142 4.171
27 C4 143 2.706
27 C4 144 -0.712
27 C4 145 -3.642
27 C4 146 -5.107
27 C4 147 -4.130
27 C4 148 -2.665
27 C4 149 -1.689
27 C4 150 -1.689
27 C4 151 -3.153
27 C4 152 -5.107
27 C4 153 -5.595
27 C4 154 -5.107
27 C4 155 -3.642
27 C4 156 -2.177
27 C4 157 -0.224
27 C4 158 2.706
27 C4 159 5.636
27 C4 160 7.589
27 C4 161 6.612
27 C4 162 2.218
27 C4 163 -3.642
27 C4 164 -9.501
27 C4 165 -11.943
27 C4 166 -9.989
27 C4 167 -5.107
27 C4 168 0.753
27 C4 169 5.636
27 C4 170 8.077
27 C4 171 9.542
27 C4 172 10.030
27 C4 173 9.542
27 C4 174 9.054
27 C4 175 8.077
27 C4 176 6.124
27 C4 177 5.636
27 C4 178 6.612
27 C4 179 8.565
27 C4 180 10.030
27 C4 181 10.030
27 C4 182 7.589
27 C4 183 3.682
27 C4 184 0.264
27 C4 185 -0.712
27 C4 186 0.264
27 C4 187 1.729
27 C4 188 3.682
27 C4 189 4.659
27 C4 190 4.659
27 C4 191 4.659
27 C4 192 3.194
27 C4 193 0.753
27 C4 194 -2.177
27 C4 195 -4.618
27 C4 196 -5.595
27 C4 197 -3.642
27 C4 198 0.753
27 C4 199 4.659
27 C4 200 6.612
27 C4 201 7.100
27 C4 202 7.589
27 C4 203 8.565
27 C4 204 10.030
27 C4 205 10.518
27 C4 206 9.542
27 C4 207 6.124
27 C4 208 1.241
27 C4 209 -2.665
27 C4 210 -4.618
27 C4 211 -4.618
27 C4 212 -2.665
27 C4 213 -0.712
27 C4 214 0.753
27 C4 215 1.729
27 C4 216 1.729
27 C4 217 1.729
27 C4 218 2.218
27 C4 219 3.194
27 C4 220 5.147
27 C4 221 7.589
27 C4 222 9.054
27 C4 223 8.565
27 C4 224 5.636
27 C4 225 1.241
27 C4 226 -2.665
27 C4 227 -4.130
27 C4 228 -2.177
27 C4 229 1.241
27 C4 230 5.636
27 C4 231 8.565
27 C4 232 9.054
27 C4 233 8.565
27 C4 234 8.077
27 C4 235 8.077
27 C4 236 9.054
27 C4 237 10.030
27 C4 238 9.542
27 C4 239 7.100
27 C4 240 2.706
27 C4 241 -1.689
27 C4 242 -4.618
27 C4 243 -5.595
27 C4 244 -5.595
27 C4 245 -6.083
27 C4 246 -7.548
27 C4 247 -9.501
27 C4 248 -11.454
27 C4 249 -11.454
27 C4 250 -9.501
27 C4 251 -7.060
27 C4 252 -5.107
27 C4 253 -5.107
27 C4 254 -7.548
27 C4 255 -9.989
# CP5 chan 18
27 CP5 0 -6.266
27 CP5 1 -3.337
27 CP5 2 3.011
27 CP5 3 8.870
27 CP5 4 13.265
27 CP5 5 13.265
27 CP5 6 10.824
27 CP5 7 6.917
27 CP5 8 3.988
27 CP5 9 1.058
27 CP5 10 -1.383
27 CP5 11 -5.290
27 CP5 12 -10.661
27 CP5 13 -16.520
27 CP5 14 -20.426
27 CP5 15 -20.915
27 CP5 16 -18.473
27 CP5 17 -13.590
27 CP5 18 -8.219
27 CP5 19 -2.848
27 CP5 20 0.570
27 CP5 21 4.476
27 CP5 22 7.894
27 CP5 23 12.288
27 CP5 24 17.171
27 CP5 25 20.589
27 CP5 26 22.054
27 CP5 27 20.589
27 CP5 28 16.683
27 CP5 29 11.312
27 CP5 30 5.941
27 CP5 31 1.546
27 CP5 32 -0.895
27 CP5 33 -1.872
27 CP5 34 -1.872
27 CP5 35 -1.383
27 CP5 36 -0.895
27 CP5 37 -0.895
27 CP5 38 -0.407
27 CP5 39 -0.895
27 CP5 40 -2.360
27 CP5 41 -4.313
27 CP5 42 -6.755
27 CP5 43 -7.243
27 CP5 44 -6.755
27 CP5 45 -4.313
27 CP5 46 -1.383
27 CP5 47 1.546
27 CP5 48 3.988
27 CP5 49 5.941
27 CP5 50 7.406
27 CP5 51 8.382
27 CP5 52 8.382
27 CP5 53 6.917
27 CP5 54 3.499
27 CP5 55 -0.407
27 CP5 56 -3.825
27 CP5 57 -5.778
27 CP5 58 -6.755
27 CP5 59 -7.243
27 CP5 60 -7.731
27 CP5 61 -9.684
27 CP5 62 -12.614
27 CP5 63 -14.567
27 CP5 64 -14.567
27 CP5 65 -13.102
27 CP5 66 -10.661
27 CP5 67 -8.219
27 CP5 68 -5.778
27 CP5 69 -2.848
27 CP5 70 0.081
27 CP5 71 2.523
27 CP5 72 3.011
27 CP5 73 2.035
27 CP5 74 0.081
27 CP5 75 -1.872
27 CP5 76 -1.383
27 CP5 77 0.570
27 CP5 78 3.011
27 CP5 79 3.499
27 CP5 80 2.035
27 CP5 81 -1.872
27 CP5 82 -7.243
27 CP5 83 -13.102
27 CP5 84 -17.008
27 CP5 85 -18.962
27 CP5 86 -17.497
27 CP5 87 -14.079
27 CP5 88 -9.196
27 CP5 89 -5.778
27 CP5 90 -4.801
27 CP5 91 -5.290
27 CP5 92 -5.778
27 CP5 93 -4.313
27 CP5 94 0.081
27 CP5 95 4.964
27 CP5 96 9.359
27 CP5 97 11.312
27 CP5 98 11.312
27 CP5 99 10.335
27 CP5 100 10.335
27 CP5 101 10.335
27 CP5 102 10.335
27 CP5 103 9.847
27 CP5 104 9.847
27 CP5 105 9.847
27 CP5 106 8.870
27 CP5 107 6.917
27 CP5 108 3.011
27 CP5 109 -3.337
27 CP5 110 -9.684
27 CP5 111 -14.079
27 CP5 112 -15.544
27 CP5 113 -13.590
27 CP5 114 -9.684
27 CP5 115 -6.266
27 CP5 116 -2.848
27 CP5 117 -0.407
27 CP5 118 1.546
27 CP5 119 3.499
27 CP5 120 5.941
27 CP5 121 7.894
27 CP5 122 9.847
27 CP5 123 11.800
27 CP5 124 13.265
27 CP5 125 14.242
27 CP5 126 14.730
27 CP5 127 13.753
27 CP5 128 11.800
27 CP5 129 9.359
27 CP5 130 7.406
27 CP5 131 5.941
27 CP5 132 5.941
27 CP5 133 6.429
27 CP5 134 7.406
27 CP5 135 7.406
27 CP5 136 6.917
27 CP5 137 5.452
27 CP5 138 3.499
27 CP5 139 1.546
27 CP5 140 1.058
27 CP5 141 1.546
27 CP5 142 3.988
27 CP5 143 8.382
27 CP5 144 13.265
27 CP5 145 17.171
27 CP5 146 18.636
27 CP5 147 17.171
27 CP5 148 12.288
27 CP5 149 6.429
27 CP5 150 0.570
27 CP5 151 -3.337
27 CP5 152 -3.825
27 CP5 153 -2.360
27 CP5 154 0.570
27 CP5 155 3.499
27 CP5 156 4.964
27 CP5 157 4.476
27 CP5 158 3.988
27 CP5 159 3.499
27 CP5 160 3.988
27 CP5 161 4.964
27 CP5 162 5.941
27 CP5 163 5.941
27 CP5 164 4.964
27 CP5 165 4.964
27 CP5 166 5.941
27 CP5 167 7.894
27 CP5 168 9.847
27 CP5 169 11.312
27 CP5 170 10.824
27 CP5 171 8.382
27 CP5 172 5.941
27 CP5 173 3.988
27 CP5 174 3.988
27 CP5 175 6.429
27 CP5 176 8.870
27 CP5 177 11.312
27 CP5 178 11.800
27 CP5 179 9.847
27 CP5 180 7.406
27 CP5 181 5.452
27 CP5 182 4.476
27 CP5 183 4.476
27 CP5 184 4.964
27 CP5 185 4.964
27 CP5 186 3.011
27 CP5 187 0.570
27 CP5 188 -1.383
27 CP5 189 -0.895
27 CP5 190 2.035
27 CP5 191 6.429
27 CP5 192 10.335
27 CP5 193 12.288
27 CP5 194 12.288
27 CP5 195 9.847
27 CP5 196 5.941
27 CP5 197 1.058
27 CP5 198 -2.360
27 CP5 199 -3.825
27 CP5 200 -2.360
27 CP5 201 2.523
27 CP5 202 8.870
27 CP5 203 14.730
27 CP5 204 17.171
27 CP5 205 15.706
27 CP5 206 11.312
27 CP5 207 5.452
27 CP5 208 0.570
27 CP5 209 -1.383
27 CP5 210 -0.895
27 CP5 211 2.035
27 CP5 212 5.941
27 CP5 213 9.359
27 CP5 214 9.847
27 CP5 215 6.429
27 CP5 216 1.546
27 CP5 217 -2.848
27 CP5 218 -4.801
27 CP5 219 -3.337
27 CP5 220 0.570
27 CP5 221 4.964
27 CP5 222 6.429
27 CP5 223 5.452
27 CP5 224 2.035
27 CP5 225 -0.895
27 CP5 226 -2.360
27 CP5 227 -2.360
27 CP5 228 -1.383
27 CP5 229 -0.407
27 CP5 230 0.081
27 CP5 231 0.081
27 CP5 232 0.570
27 CP5 233 0.570
27 CP5 234 0.570
27 CP5 235 0.081
27 CP5 236 -0.895
27 CP5 237 -2.360
27 CP5 238 -1.872
27 CP5 239 1.546
27 CP5 240 7.406
27 CP5 241 16.195
27 CP5 242 24.984
27 CP5 243 31.331
27 CP5 244 33.285
27 CP5 245 31.820
27 CP5 246 28.402
27 CP5 247 24.984
27 CP5 248 22.542
27 CP5 249 21.077
27 CP5 250 19.613
27 CP5 251 17.171
27 CP5 252 13.265
27 CP5 253 8.870
27 CP5 254 4.476
27 CP5 255 -0.407
# CP6 chan 19
27 CP6 0 -5.636
27 CP6 1 -4.171
27 CP6 2 0.712
27 CP6 3 6.083
27 CP6 4 10.966
27 CP6 5 12.431
27 CP6 6 9.989
27 CP6 7 6.083
27 CP6 8 1.200
27 CP6 9 -1.729
27 CP6 10 -3.194
27 CP6 11 -3.682
27 CP6 12 -4.659
27 CP6 13 -6.612
27 CP6 14 -9.054
27 CP6 15 -11.495
27 CP6 16 -12.472
27 CP6 17 -12.472
27 CP6 18 -10.030
27 CP6 19 -6.124
27 CP6 20 -0.753
27 CP6 21 4.618
27 CP6 22 9.989
27 CP6 23 13.407
27 CP6 24 15.361
27 CP6 25 14.872
27 CP6 26 12.431
27 CP6 27 10.478
27 CP6 28 8.036
27 CP6 29 6.571
27 CP6 30 5.107
27 CP6 31 3.153
27 CP6 32 -0.264
27 CP6 33 -4.659
27 CP6 34 -9.542
27 CP6 35 -13.448
27 CP6 36 -15.889
27 CP6 37 -17.354
27 CP6 38 -18.331
27 CP6 39 -19.796
27 CP6 40 -21.749
27 CP6 41 -23.214
27 CP6 42 -23.702
27 CP6 43 -22.237
27 CP6 44 -19.796
27 CP6 45 -16.378
27 CP6 46 -11.983
27 CP6 47 -7.100
27 CP6 48 -1.729
27 CP6 49 4.130
27 CP6 50 8.525
27 CP6 51 10.478
27 CP6 52 9.501
27 CP6 53 6.571
27 CP6 54 3.153
27 CP6 55 1.200
27 CP6 56 -0.264
27 CP6 57 -1.241
27 CP6 58 -2.706
27 CP6 59 -5.636
27 CP6 60 -9.542
27 CP6 61 -14.425
27 CP6 62 -18.331
27 CP6 63 -20.772
27 CP6 64 -20.772
27 CP6 65 -19.307
27 CP6 66 -16.866
27 CP6 67 -14.913
27 CP6 68 -13.936
27 CP6 69 -12.960
27 CP6 70 -11.007
27 CP6 71 -7.589
27 CP6 72 -2.218
27 CP6 73 2.665
27 CP6 74 6.571
27 CP6 75 9.013
27 CP6 76 9.501
27 CP6 77 8.525
27 CP6 78 6.571
27 CP6 79 3.153
27 CP6 80 -1.241
27 CP6 81 -5.147
27 CP6 82 -8.565
27 CP6 83 -10.518
27 CP6 84 -11.495
27 CP6 85 -11.983
27 CP6 86 -12.472
27 CP6 87 -12.960
27 CP6 88 -13.936
27 CP6 89 -14.913
27 CP6 90 -16.378
27 CP6 91 -17.354
27 CP6 92 -17.354
27 CP6 93 -14.425
27 CP6 94 -9.542
27 CP6 95 -3.682
27 CP6 96 0.712
27 CP6 97 2.177
27 CP6 98 0.712
27 CP6 99 -2.218
27 CP6 100 -5.147
27 CP6 101 -7.100
27 CP6 102 -7.100
27 CP6 103 -5.636
27 CP6 104 -2.706
27 CP6 105 1.200
27 CP6 106 4.618
27 CP6 107 6.571
27 CP6 108 5.595
27 CP6 109 2.177
27 CP6 110 -1.241
27 CP6 111 -3.682
27 CP6 112 -3.682
27 CP6 113 -1.241
27 CP6 114 1.689
27 CP6 115 3.642
27 CP6 116 3.642
27 CP6 117 2.665
27 CP6 118 1.689
27 CP6 119 1.200
27 CP6 120 2.177
27 CP6 121 4.130
27 CP6 122 5.595
27 CP6 123 5.595
27 CP6 124 3.153
27 CP6 125 -0.753
27 CP6 126 -5.147
27 CP6 127 -8.077
27 CP6 128 -8.077
27 CP6 129 -5.147
27 CP6 130 0.224
27 CP6 131 5.595
27 CP6 132 9.013
27 CP6 133 9.989
27 CP6 134 9.501
27 CP6 135 7.548
27 CP6 136 5.107
27 CP6 137 2.665
27 CP6 138 0.712
27 CP6 139 -0.264
27 CP6 140 0.224
27 CP6 141 1.200
27 CP6 142 1.689
27 CP6 143 1.200
27 CP6 144 0.712
27 CP6 145 -0.753
27 CP6 146 -0.753
27 CP6 147 0.224
27 CP6 148 1.200
27 CP6 149 1.200
27 CP6 150 -0.264
27 CP6 151 -2.706
27 CP6 152 -5.147
27 CP6 153 -6.124
27 CP6 154 -5.636
27 CP6 155 -4.659
27 CP6 156 -4.171
27 CP6 157 -3.682
27 CP6 158 -2.218
27 CP6 159 -0.753
27 CP6 160 -0.264
27 CP6 161 -1.729
27 CP6 162 -6.124
27 CP6 163 -11.983
27 CP6 164 -17.354
27 CP6 165 -18.331
27 CP6 166 -14.913
27 CP6 167 -8.077
27 CP6 168 -0.753
27 CP6 169 5.595
27 CP6 170 8.525
27 CP6 171 9.989
27 CP6 172 10.478
27 CP6 173 10.966
27 CP6 174 9.989
27 CP6 175 8.525
27 CP6 176 6.571
27 CP6 177 5.107
27 CP6 178 6.083
27 CP6 179 8.036
27 CP6 180 9.989
27 CP6 181 9.989
27 CP6 182 6.571
27 CP6 183 1.689
27 CP6 184 -3.194
27 CP6 185 -6.124
27 CP6 186 -5.636
27 CP6 187 -3.682
27 CP6 188 -0.264
27 CP6 189 2.177
27 CP6 190 3.642
27 CP6 191 4.130
27 CP6 192 4.130
27 CP6 193 2.177
27 CP6 194 -0.753
27 CP6 195 -3.682
27 CP6 196 -6.124
27 CP6 197 -6.124
27 CP6 198 -4.659
27 CP6 199 -2.218
27 CP6 200 -0.264
27 CP6 201 2.665
27 CP6 202 6.083
27 CP6 203 10.478
27 CP6 204 14.872
27 CP6 205 16.825
27 CP6 206 14.872
27 CP6 207 9.989
27 CP6 208 3.642
27 CP6 209 -1.241
27 CP6 210 -2.706
27 CP6 211 -1.729
27 CP6 212 0.224
27 CP6 213 2.177
27 CP6 214 1.689
27 CP6 215 -1.241
27 CP6 216 -5.147
27 CP6 217 -7.589
27 CP6 218 -7.100
27 CP6 219 -3.194
27 CP6 220 3.153
27 CP6 221 9.501
27 CP6 222 13.896
27 CP6 223 14.384
27 CP6 224 10.966
27 CP6 225 5.595
27 CP6 226 1.689
27 CP6 227 0.712
27 CP6 228 3.642
27 CP6 229 8.036
27 CP6 230 12.431
27 CP6 231 13.407
27 CP6 232 11.943
27 CP6 233 8.525
27 CP6 234 5.107
27 CP6 235 4.130
27 CP6 236 4.130
27 CP6 237 5.107
27 CP6 238 4.618
27 CP6 239 3.153
27 CP6 240 1.200
27 CP6 241 0.224
27 CP6 242 0.712
27 CP6 243 2.177
27 CP6 244 4.618
27 CP6 245 4.618
27 CP6 246 3.153
27 CP6 247 0.224
27 CP6 248 -2.218
27 CP6 249 -4.171
27 CP6 250 -4.171
27 CP6 251 -3.194
27 CP6 252 -3.194
27 CP6 253 -4.171
27 CP6 254 -5.636
27 CP6 255 -7.100
# CP1 chan 20
27 CP1 0 -5.859
27 CP1 1 -5.371
27 CP1 2 -2.930
27 CP1 3 0.488
27 CP1 4 2.930
27 CP1 5 2.930
27 CP1 6 1.953
27 CP1 7 0.977
27 CP1 8 0.977
27 CP1 9 1.465
27 CP1 10 1.953
27 CP1 11 0.488
27 CP1 12 -2.441
27 CP1 13 -5.859
27 CP1 14 -8.301
27 CP1 15 -9.277
27 CP1 16 -8.789
27 CP1 17 -7.324
27 CP1 18 -6.836
27 CP1 19 -5.859
27 CP1 20 -5.371
27 CP1 21 -4.883
27 CP1 22 -3.418
27 CP1 23 -0.977
27 CP1 24 1.953
27 CP1 25 4.883
27 CP1 26 7.812
27 CP1 27 9.277
27 CP1 28 9.766
27 CP1 29 8.789
27 CP1 30 7.812
27 CP1 31 5.859
27 CP1 32 5.371
27 CP1 33 5.371
27 CP1 34 5.859
27 CP1 35 6.348
27 CP1 36 5.859
27 CP1 37 4.883
27 CP1 38 3.418
27 CP1 39 1.953
27 CP1 40 0.488
27 CP1 41 -0.977
27 CP1 42 -2.441
27 CP1 43 -4.395
27 CP1 44 -5.371
27 CP1 45 -6.836
27 CP1 46 -6.836
27 CP1 47 -6.836
27 CP1 48 -6.348
27 CP1 49 -5.371
27 CP1 50 -4.883
27 CP1 51 -4.395
27 CP1 52 -4.395
27 CP1 53 -4.395
27 CP1 54 -5.371
27 CP1 55 -5.859
27 CP1 56 -5.371
27 CP1 57 -3.418
27 CP1 58 -0.977
27 CP1 59 1.465
27 CP1 60 2.441
27 CP1 61 1.953
27 CP1 62 0.488
27 CP1 63 -1.465
27 CP1 64 -1.953
27 CP1 65 -1.465
27 CP1 66 -0.488
27 CP1 67 0.488
27 CP1 68 0.977
27 CP1 69 0.977
27 CP1 70 0.488
27 CP1 71 0.000
27 CP1 72 -0.977
27 CP1 73 -1.953
27 CP1 74 -2.441
27 CP1 75 -2.930
27 CP1 76 -2.441
27 CP1 77 -0.488
27 CP1 78 1.465
27 CP1 79 2.930
27 CP1 80 3.906
27 CP1 81 3.906
27 CP1 82 2.930
27 CP1 83 1.465
27 CP1 84 -0.977
27 CP1 85 -2.930
27 CP1 86 -3.418
27 CP1 87 -3.418
27 CP1 88 -1.953
27 CP1 89 -1.465
27 CP1 90 -1.465
27 CP1 91 -2.930
27 CP1 92 -3.418
27 CP1 93 -3.418
27 CP1 94 -1.953
27 CP1 95 0.977
27 CP1 96 2.441
27 CP1 97 3.906
27 CP1 98 3.906
27 CP1 99 3.906
27 CP1 100 4.395
27 CP1 101 5.371
27 CP1 102 5.859
27 CP1 103 6.348
27 CP1 104 6.348
27 CP1 105 6.348
27 CP1 106 5.859
27 CP1 107 5.371
27 CP1 108 4.395
27 CP1 109 2.441
27 CP1 110 0.000
27 CP1 111 -1.953
27 CP1 112 -2.441
27 CP1 113 -2.441
27 CP1 114 -1.465
27 CP1 115 -0.977
27 CP1 116 -0.977
27 CP1 117 -1.953
27 CP1 118 -2.441
27 CP1 119 -1.953
27 CP1 120 -0.488
27 CP1 121 1.465
27 CP1 122 3.906
27 CP1 123 5.859
27 CP1 124 6.836
27 CP1 125 7.324
27 CP1 126 6.836
27 CP1 127 5.859
27 CP1 128 5.371
27 CP1 129 5.371
27 CP1 130 4.883
27 CP1 131 4.883
27 CP1 132 5.371
27 CP1 133 5.371
27 CP1 134 5.859
27 CP1 135 6.836
27 CP1 136 6.836
27 CP1 137 6.836
27 CP1 138 5.859
27 CP1 139 4.395
27 CP1 140 2.441
27 CP1 141 0.488
27 CP1 142 -0.488
27 CP1 143 -0.488
27 CP1 144 0.488
27 CP1 145 1.953
27 CP1 146 3.418
27 CP1 147 3.418
27 CP1 148 2.441
27 CP1 149 0.977
27 CP1 150 -0.488
27 CP1 151 0.000
27 CP1 152 1.465
27 CP1 153 3.418
27 CP1 154 5.371
27 CP1 155 5.859
27 CP1 156 4.395
27 CP1 157 2.441
27 CP1 158 0.488
27 CP1 159 0.488
27 CP1 160 1.465
27 CP1 161 3.418
27 CP1 162 5.859
27 CP1 163 6.836
27 CP1 164 6.348
27 CP1 165 5.371
27 CP1 166 4.883
27 CP1 167 4.883
27 CP1 168 4.883
27 CP1 169 3.906
27 CP1 170 1.953
27 CP1 171 -0.488
27 CP1 172 -2.930
27 CP1 173 -4.395
27 CP1 174 -4.395
27 CP1 175 -2.930
27 CP1 176 -1.465
27 CP1 177 -0.977
27 CP1 178 -1.953
27 CP1 179 -3.418
27 CP1 180 -4.395
27 CP1 181 -4.883
27 CP1 182 -3.906
27 CP1 183 -2.441
27 CP1 184 -0.977
27 CP1 185 -0.977
27 CP1 186 -0.977
27 CP1 187 -1.465
27 CP1 188 -0.977
27 CP1 189 0.488
27 CP1 190 2.441
27 CP1 191 5.371
27 CP1 192 7.324
27 CP1 193 9.277
27 CP1 194 10.254
27 CP1 195 10.254
27 CP1 196 8.789
27 CP1 197 5.371
27 CP1 198 1.465
27 CP1 199 -2.441
27 CP1 200 -4.395
27 CP1 201 -3.906
27 CP1 202 -1.953
27 CP1 203 0.000
27 CP1 204 0.000
27 CP1 205 -1.953
27 CP1 206 -4.395
27 CP1 207 -6.836
27 CP1 208 -7.812
27 CP1 209 -6.348
27 CP1 210 -3.418
27 CP1 211 0.977
27 CP1 212 4.883
27 CP1 213 7.324
27 CP1 214 6.836
27 CP1 215 3.906
27 CP1 216 -0.977
27 CP1 217 -5.371
27 CP1 218 -8.301
27 CP1 219 -8.301
27 CP1 220 -5.859
27 CP1 221 -3.418
27 CP1 222 -2.441
27 CP1 223 -2.930
27 CP1 224 -5.371
27 CP1 225 -6.836
27 CP1 226 -7.324
27 CP1 227 -6.348
27 CP1 228 -4.395
27 CP1 229 -3.418
27 CP1 230 -2.441
27 CP1 231 -1.953
27 CP1 232 -0.977
27 CP1 233 0.977
27 CP1 234 2.441
27 CP1 235 2.930
27 CP1 236 2.441
27 CP1 237 0.000
27 CP1 238 -2.441
27 CP1 239 -3.418
27 CP1 240 -1.953
27 CP1 241 0.977
27 CP1 242 4.883
27 CP1 243 7.812
27 CP1 244 8.789
27 CP1 245 7.812
27 CP1 246 5.371
27 CP1 247 3.418
27 CP1 248 1.953
27 CP1 249 0.977
27 CP1 250 -0.488
27 CP1 251 -2.930
27 CP1 252 -6.836
27 CP1 253 -10.254
27 CP1 254 -13.184
27 CP1 255 -14.648
# CP2 chan 21
27 CP2 0 -3.560
27 CP2 1 -6.490
27 CP2 2 -6.978
27 CP2 3 -5.025
27 CP2 4 -2.584
27 CP2 5 -1.119
27 CP2 6 -1.607
27 CP2 7 -3.560
27 CP2 8 -6.002
27 CP2 9 -7.955
27 CP2 10 -8.443
27 CP2 11 -7.467
27 CP2 12 -5.514
27 CP2 13 -3.072
27 CP2 14 -1.119
27 CP2 15 -0.142
27 CP2 16 -1.119
27 CP2 17 -2.584
27 CP2 18 -3.560
27 CP2 19 -4.049
27 CP2 20 -3.072
27 CP2 21 -1.119
27 CP2 22 0.834
27 CP2 23 2.299
27 CP2 24 2.787
27 CP2 25 2.787
27 CP2 26 2.299
27 CP2 27 1.811
27 CP2 28 2.299
27 CP2 29 2.787
27 CP2 30 3.276
27 CP2 31 2.787
27 CP2 32 2.299
27 CP2 33 0.834
27 CP2 34 -1.119
27 CP2 35 -3.072
27 CP2 36 -4.537
27 CP2 37 -6.002
27 CP2 38 -6.978
27 CP2 39 -8.443
27 CP2 40 -10.396
27 CP2 41 -11.861
27 CP2 42 -12.349
27 CP2 43 -12.349
27 CP2 44 -11.373
27 CP2 45 -9.908
27 CP2 46 -7.467
27 CP2 47 -4.537
27 CP2 48 -2.096
27 CP2 49 0.346
27 CP2 50 0.834
27 CP2 51 0.346
27 CP2 52 -1.607
27 CP2 53 -4.049
27 CP2 54 -5.514
27 CP2 55 -5.025
27 CP2 56 -3.072
27 CP2 57 -0.142
27 CP2 58 2.299
27 CP2 59 2.787
27 CP2 60 1.322
27 CP2 61 -1.119
27 CP2 62 -3.072
27 CP2 63 -3.560
27 CP2 64 -2.584
27 CP2 65 -0.631
27 CP2 66 0.834
27 CP2 67 1.322
27 CP2 68 0.834
27 CP2 69 -0.142
27 CP2 70 -0.631
27 CP2 71 0.834
27 CP2 72 2.299
27 CP2 73 5.229
27 CP2 74 7.182
27 CP2 75 8.647
27 CP2 76 8.647
27 CP2 77 7.182
27 CP2 78 4.740
27 CP2 79 1.322
27 CP2 80 -0.631
27 CP2 81 -1.119
27 CP2 82 -0.631
27 CP2 83 -0.142
27 CP2 84 -0.631
27 CP2 85 -2.096
27 CP2 86 -4.537
27 CP2 87 -6.490
27 CP2 88 -6.978
27 CP2 89 -6.978
27 CP2 90 -6.002
27 CP2 91 -4.537
27 CP2 92 -3.072
27 CP2 93 -0.631
27 CP2 94 1.322
27 CP2 95 2.787
27 CP2 96 2.299
27 CP2 97 0.346
27 CP2 98 -2.584
27 CP2 99 -5.025
27 CP2 100 -6.002
27 CP2 101 -4.537
27 CP2 102 -2.096
27 CP2 103 0.834
27 CP2 104 3.764
27 CP2 105 6.694
27 CP2 106 8.647
27 CP2 107 8.647
27 CP2 108 7.670
27 CP2 109 5.229
27 CP2 110 3.276
27 CP2 111 2.787
27 CP2 112 3.276
27 CP2 113 4.740
27 CP2 114 5.229
27 CP2 115 4.252
27 CP2 116 2.299
27 CP2 117 -1.119
27 CP2 118 -4.049
27 CP2 119 -6.002
27 CP2 120 -6.002
27 CP2 121 -4.537
27 CP2 122 -1.607
27 CP2 123 0.834
27 CP2 124 2.787
27 CP2 125 2.299
27 CP2 126 0.346
27 CP2 127 -1.607
27 CP2 128 -1.607
27 CP2 129 0.834
27 CP2 130 4.740
27 CP2 131 9.135
27 CP2 132 11.576
27 CP2 133 11.576
27 CP2 134 10.111
27 CP2 135 7.670
27 CP2 136 5.717
27 CP2 137 4.740
27 CP2 138 4.740
27 CP2 139 4.740
27 CP2 140 5.229
27 CP2 141 4.740
27 CP2 142 2.787
27 CP2 143 -0.142
27 CP2 144 -4.049
27 CP2 145 -7.467
27 CP2 146 -9.908
27 CP2 147 -10.396
27 CP2 148 -9.420
27 CP2 149 -8.443
27 CP2 150 -7.467
27 CP2 151 -6.490
27 CP2 152 -6.002
27 CP2 153 -4.537
27 CP2 154 -4.049
27 CP2 155 -3.560
27 CP2 156 -3.560
27 CP2 157 -3.072
27 CP2 158 -1.607
27 CP2 159 1.811
27 CP2 160 4.740
27 CP2 161 6.205
27 CP2 162 4.252
27 CP2 163 0.346
27 CP2 164 -3.560
27 CP2 165 -5.025
27 CP2 166 -3.072
27 CP2 167 0.834
27 CP2 168 4.252
27 CP2 169 5.717
27 CP2 170 4.740
27 CP2 171 2.299
27 CP2 172 -0.631
27 CP2 173 -3.072
27 CP2 174 -6.002
27 CP2 175 -8.931
27 CP2 176 -10.885
27 CP2 177 -11.861
27 CP2 178 -10.885
27 CP2 179 -7.955
27 CP2 180 -4.537
27 CP2 181 -1.607
27 CP2 182 -1.119
27 CP2 183 -1.607
27 CP2 184 -2.584
27 CP2 185 -1.607
27 CP2 186 0.834
27 CP2 187 3.764
27 CP2 188 6.694
27 CP2 189 8.158
27 CP2 190 8.647
27 CP2 191 8.158
27 CP2 192 7.182
27 CP2 193 6.205
27 CP2 194 3.764
27 CP2 195 1.322
27 CP2 196 -1.119
27 CP2 197 -2.584
27 CP2 198 -3.560
27 CP2 199 -4.049
27 CP2 200 -5.514
27 CP2 201 -5.514
27 CP2 202 -5.025
27 CP2 203 -3.072
27 CP2 204 -0.631
27 CP2 205 1.322
27 CP2 206 0.834
27 CP2 207 -1.607
27 CP2 208 -4.049
27 CP2 209 -5.514
27 CP2 210 -5.025
27 CP2 211 -3.072
27 CP2 212 -1.119
27 CP2 213 -0.142
27 CP2 214 -0.142
27 CP2 215 -1.607
27 CP2 216 -3.072
27 CP2 217 -4.537
27 CP2 218 -5.514
27 CP2 219 -6.002
27 CP2 220 -5.025
27 CP2 221 -3.560
27 CP2 222 -2.096
27 CP2 223 -2.096
27 CP2 224 -3.072
27 CP2 225 -5.025
27 CP2 226 -7.467
27 CP2 227 -8.931
27 CP2 228 -7.955
27 CP2 229 -5.025
27 CP2 230 -2.096
27 CP2 231 0.346
27 CP2 232 1.322
27 CP2 233 2.299
27 CP2 234 2.787
27 CP2 235 4.252
27 CP2 236 5.717
27 CP2 237 6.205
27 CP2 238 6.205
27 CP2 239 4.252
27 CP2 240 1.811
27 CP2 241 -1.119
27 CP2 242 -4.049
27 CP2 243 -6.002
27 CP2 244 -8.443
27 CP2 245 -9.908
27 CP2 246 -11.861
27 CP2 247 -14.303
27 CP2 248 -16.256
27 CP2 249 -18.209
27 CP2 250 -19.185
27 CP2 251 -20.162
27 CP2 252 -20.650
27 CP2 253 -21.139
27 CP2 254 -21.627
27 CP2 255 -21.627
# P3 chan 22
27 P3 0 -9.349
27 P3 1 -8.372
27 P3 2 -3.489
27 P3 3 2.858
27 P3 4 8.230
27 P3 5 10.183
27 P3 6 8.718
27 P3 7 5.788
27 P3 8 2.858
27 P3 9 0.417
27 P3 10 -2.024
27 P3 11 -5.442
27 P3 12 -9.837
27 P3 13 -14.231
27 P3 14 -18.138
27 P3 15 -19.114
27 P3 16 -18.138
27 P3 17 -14.720
27 P3 18 -11.302
27 P3 19 -8.372
27 P3 20 -5.931
27 P3 21 -3.977
27 P3 22 -1.048
27 P3 23 3.347
27 P3 24 8.230
27 P3 25 13.112
27 P3 26 16.042
27 P3 27 17.019
27 P3 28 15.554
27 P3 29 12.624
27 P3 30 8.718
27 P3 31 5.300
27 P3 32 2.370
27 P3 33 0.417
27 P3 34 -0.559
27 P3 35 -2.024
27 P3 36 -3.001
27 P3 37 -4.466
27 P3 38 -5.442
27 P3 39 -6.907
27 P3 40 -8.372
27 P3 41 -9.837
27 P3 42 -11.790
27 P3 43 -12.767
27 P3 44 -12.767
27 P3 45 -11.302
27 P3 46 -8.860
27 P3 47 -5.931
27 P3 48 -2.513
27 P3 49 0.905
27 P3 50 3.835
27 P3 51 5.300
27 P3 52 5.300
27 P3 53 2.858
27 P3 54 -1.048
27 P3 55 -4.954
27 P3 56 -7.395
27 P3 57 -6.907
27 P3 58 -4.954
27 P3 59 -3.489
27 P3 60 -3.977
27 P3 61 -6.419
27 P3 62 -10.325
27 P3 63 -13.255
27 P3 64 -13.743
27 P3 65 -11.790
27 P3 66 -9.349
27 P3 67 -6.907
27 P3 68 -5.442
27 P3 69 -3.977
27 P3 70 -2.513
27 P3 71 -0.559
27 P3 72 0.905
27 P3 73 0.905
27 P3 74 -0.071
27 P3 75 -1.048
27 P3 76 -1.536
27 P3 77 -0.559
27 P3 78 0.417
27 P3 79 0.417
27 P3 80 -1.048
27 P3 81 -3.977
27 P3 82 -7.395
27 P3 83 -11.302
27 P3 84 -14.720
27 P3 85 -17.649
27 P3 86 -18.138
27 P3 87 -17.649
27 P3 88 -15.208
27 P3 89 -12.767
27 P3 90 -12.278
27 P3 91 -12.767
27 P3 92 -13.743
27 P3 93 -12.767
27 P3 94 -8.860
27 P3 95 -3.977
27 P3 96 0.905
27 P3 97 3.347
27 P3 98 3.835
27 P3 99 3.347
27 P3 100 2.370
27 P3 101 2.370
27 P3 102 2.858
27 P3 103 4.323
27 P3 104 5.788
27 P3 105 7.253
27 P3 106 8.230
27 P3 107 7.253
27 P3 108 3.835
27 P3 109 -2.024
27 P3 110 -8.372
27 P3 111 -13.255
27 P3 112 -15.208
27 P3 113 -14.231
27 P3 114 -12.278
27 P3 115 -10.325
27 P3 116 -9.837
27 P3 117 -10.325
27 P3 118 -10.325
27 P3 119 -9.349
27 P3 120 -5.931
27 P3 121 -2.024
27 P3 122 1.882
27 P3 123 4.812
27 P3 124 5.788
27 P3 125 5.788
27 P3 126 5.300
27 P3 127 4.323
27 P3 128 4.323
27 P3 129 3.835
27 P3 130 3.835
27 P3 131 3.835
27 P3 132 3.835
27 P3 133 4.812
27 P3 134 5.300
27 P3 135 5.788
27 P3 136 5.300
27 P3 137 4.323
27 P3 138 2.858
27 P3 139 1.394
27 P3 140 0.905
27 P3 141 0.905
27 P3 142 1.882
27 P3 143 3.347
27 P3 144 5.300
27 P3 145 6.765
27 P3 146 6.765
27 P3 147 5.300
27 P3 148 2.370
27 P3 149 -1.536
27 P3 150 -4.466
27 P3 151 -5.931
27 P3 152 -5.931
27 P3 153 -4.466
27 P3 154 -3.489
27 P3 155 -3.489
27 P3 156 -4.466
27 P3 157 -5.442
27 P3 158 -5.442
27 P3 159 -3.977
27 P3 160 -1.536
27 P3 161 -0.071
27 P3 162 -0.559
27 P3 163 -2.024
27 P3 164 -4.466
27 P3 165 -4.954
27 P3 166 -3.489
27 P3 167 -0.559
27 P3 168 1.882
27 P3 169 2.858
27 P3 170 1.882
27 P3 171 -0.559
27 P3 172 -3.489
27 P3 173 -5.442
27 P3 174 -6.419
27 P3 175 -5.442
27 P3 176 -4.466
27 P3 177 -3.489
27 P3 178 -3.489
27 P3 179 -3.977
27 P3 180 -5.931
27 P3 181 -7.395
27 P3 182 -8.372
27 P3 183 -8.372
27 P3 184 -7.884
27 P3 185 -6.907
27 P3 186 -6.419
27 P3 187 -4.954
27 P3 188 -3.489
27 P3 189 -0.559
27 P3 190 2.858
27 P3 191 6.276
27 P3 192 8.230
27 P3 193 8.718
27 P3 194 8.718
27 P3 195 6.765
27 P3 196 2.858
27 P3 197 -2.513
27 P3 198 -7.884
27 P3 199 -12.767
27 P3 200 -14.720
27 P3 201 -12.278
27 P3 202 -6.907
27 P3 203 -0.559
27 P3 204 2.858
27 P3 205 2.858
27 P3 206 -0.559
27 P3 207 -5.931
27 P3 208 -10.325
27 P3 209 -11.790
27 P3 210 -9.349
27 P3 211 -3.977
27 P3 212 1.882
27 P3 213 7.253
27 P3 214 8.718
27 P3 215 5.788
27 P3 216 -1.048
27 P3 217 -7.884
27 P3 218 -12.767
27 P3 219 -13.743
27 P3 220 -11.790
27 P3 221 -8.372
27 P3 222 -6.419
27 P3 223 -6.419
27 P3 224 -8.372
27 P3 225 -11.302
27 P3 226 -12.278
27 P3 227 -12.278
27 P3 228 -11.302
27 P3 229 -10.325
27 P3 230 -9.837
27 P3 231 -9.349
27 P3 232 -8.372
27 P3 233 -6.907
27 P3 234 -4.954
27 P3 235 -3.001
27 P3 236 -2.513
27 P3 237 -2.513
27 P3 238 -3.489
27 P3 239 -2.513
27 P3 240 0.905
27 P3 241 6.765
27 P3 242 13.112
27 P3 243 17.995
27 P3 244 19.460
27 P3 245 16.530
27 P3 246 11.648
27 P3 247 6.276
27 P3 248 2.858
27 P3 249 0.417
27 P3 250 -1.536
27 P3 251 -3.977
27 P3 252 -6.907
27 P3 253 -10.325
27 P3 254 -12.767
27 P3 255 -14.231
# P4 chan 23
27 P4 0 -9.257
27 P4 1 -9.745
27 P4 2 -6.816
27 P4 3 -1.933
27 P4 4 2.462
27 P4 5 3.438
27 P4 6 0.997
27 P4 7 -2.909
27 P4 8 -6.816
27 P4 9 -8.280
27 P4 10 -9.257
27 P4 11 -9.745
27 P4 12 -9.745
27 P4 13 -10.234
27 P4 14 -10.722
27 P4 15 -10.722
27 P4 16 -10.234
27 P4 17 -9.257
27 P4 18 -8.280
27 P4 19 -6.327
27 P4 20 -3.398
27 P4 21 0.997
27 P4 22 4.903
27 P4 23 8.809
27 P4 24 10.274
27 P4 25 10.274
27 P4 26 9.786
27 P4 27 9.786
27 P4 28 10.274
27 P4 29 11.251
27 P4 30 10.763
27 P4 31 8.809
27 P4 32 5.391
27 P4 33 0.509
27 P4 34 -5.351
27 P4 35 -9.745
27 P4 36 -12.675
27 P4 37 -14.140
27 P4 38 -14.628
27 P4 39 -15.605
27 P4 40 -17.069
27 P4 41 -19.023
27 P4 42 -20.487
27 P4 43 -19.999
27 P4 44 -17.558
27 P4 45 -13.652
27 P4 46 -9.257
27 P4 47 -4.374
27 P4 48 0.020
27 P4 49 3.438
27 P4 50 6.368
27 P4 51 7.833
27 P4 52 6.856
27 P4 53 3.927
27 P4 54 0.020
27 P4 55 -2.909
27 P4 56 -3.886
27 P4 57 -2.909
27 P4 58 -0.956
27 P4 59 -0.468
27 P4 60 -1.933
27 P4 61 -5.839
27 P4 62 -10.234
27 P4 63 -12.675
27 P4 64 -12.675
27 P4 65 -10.234
27 P4 66 -7.792
27 P4 67 -6.816
27 P4 68 -6.816
27 P4 69 -6.816
27 P4 70 -4.862
27 P4 71 -0.468
27 P4 72 4.903
27 P4 73 9.298
27 P4 74 11.251
27 P4 75 11.251
27 P4 76 9.298
27 P4 77 6.368
27 P4 78 3.927
27 P4 79 1.485
27 P4 80 -0.956
27 P4 81 -2.909
27 P4 82 -4.862
27 P4 83 -7.792
27 P4 84 -9.745
27 P4 85 -12.187
27 P4 86 -13.652
27 P4 87 -14.140
27 P4 88 -13.652
27 P4 89 -12.675
27 P4 90 -11.698
27 P4 91 -10.722
27 P4 92 -8.769
27 P4 93 -5.839
27 P4 94 -1.933
27 P4 95 1.485
27 P4 96 3.438
27 P4 97 2.462
27 P4 98 0.020
27 P4 99 -3.398
27 P4 100 -5.839
27 P4 101 -6.816
27 P4 102 -6.327
27 P4 103 -4.374
27 P4 104 -0.956
27 P4 105 2.950
27 P4 106 6.856
27 P4 107 9.298
27 P4 108 8.321
27 P4 109 5.391
27 P4 110 0.997
27 P4 111 -2.421
27 P4 112 -2.421
27 P4 113 -0.468
27 P4 114 2.462
27 P4 115 4.415
27 P4 116 4.415
27 P4 117 2.462
27 P4 118 0.509
27 P4 119 -0.956
27 P4 120 -0.956
27 P4 121 0.020
27 P4 122 0.509
27 P4 123 0.509
27 P4 124 -1.444
27 P4 125 -4.374
27 P4 126 -7.304
27 P4 127 -8.769
27 P4 128 -7.792
27 P4 129 -3.886
27 P4 130 1.485
27 P4 131 7.345
27 P4 132 10.763
27 P4 133 11.739
27 P4 134 9.786
27 P4 135 6.856
27 P4 136 4.415
27 P4 137 2.950
27 P4 138 1.973
27 P4 139 1.973
27 P4 140 1.973
27 P4 141 1.485
27 P4 142 0.997
27 P4 143 -0.468
27 P4 144 -1.933
27 P4 145 -3.398
27 P4 146 -3.886
27 P4 147 -3.886
27 P4 148 -3.886
27 P4 149 -4.374
27 P4 150 -5.839
27 P4 151 -7.304
27 P4 152 -9.257
27 P4 153 -9.745
27 P4 154 -10.234
27 P4 155 -10.234
27 P4 156 -11.210
27 P4 157 -11.698
27 P4 158 -11.210
27 P4 159 -9.257
27 P4 160 -7.792
27 P4 161 -8.280
27 P4 162 -11.698
27 P4 163 -17.069
27 P4 164 -21.952
27 P4 165 -22.929
27 P4 166 -19.023
27 P4 167 -11.698
27 P4 168 -4.374
27 P4 169 -0.468
27 P4 170 0.509
27 P4 171 -0.956
27 P4 172 -2.421
27 P4 173 -3.886
27 P4 174 -5.351
27 P4 175 -7.792
27 P4 176 -11.210
27 P4 177 -13.652
27 P4 178 -13.652
27 P4 179 -11.210
27 P4 180 -8.280
27 P4 181 -6.816
27 P4 182 -7.792
27 P4 183 -10.722
27 P4 184 -14.140
27 P4 185 -15.116
27 P4 186 -12.675
27 P4 187 -8.769
27 P4 188 -3.886
27 P4 189 -0.468
27 P4 190 1.485
27 P4 191 2.950
27 P4 192 2.462
27 P4 193 1.485
27 P4 194 -0.956
27 P4 195 -4.862
27 P4 196 -8.280
27 P4 197 -11.698
27 P4 198 -14.140
27 P4 199 -15.605
27 P4 200 -15.605
27 P4 201 -13.163
27 P4 202 -8.769
27 P4 203 -2.909
27 P4 204 1.973
27 P4 205 4.415
27 P4 206 2.950
27 P4 207 -1.444
27 P4 208 -6.327
27 P4 209 -9.257
27 P4 210 -9.257
27 P4 211 -6.816
27 P4 212 -4.374
27 P4 213 -2.909
27 P4 214 -4.374
27 P4 215 -7.792
27 P4 216 -12.187
27 P4 217 -15.605
27 P4 218 -16.581
27 P4 219 -14.140
27 P4 220 -8.769
27 P4 221 -2.909
27 P4 222 0.020
27 P4 223 0.020
27 P4 224 -3.886
27 P4 225 -9.257
27 P4 226 -13.163
27 P4 227 -14.140
27 P4 228 -11.698
27 P4 229 -7.792
27 P4 230 -3.886
27 P4 231 -2.421
27 P4 232 -2.421
27 P4 233 -2.909
27 P4 234 -2.909
27 P4 235 -1.933
27 P4 236 0.509
27 P4 237 2.950
27 P4 238 4.903
27 P4 239 5.880
27 P4 240 5.880
27 P4 241 5.880
27 P4 242 4.903
27 P4 243 4.415
27 P4 244 3.438
27 P4 245 0.997
27 P4 246 -2.909
27 P4 247 -8.280
27 P4 248 -13.652
27 P4 249 -18.046
27 P4 250 -21.464
27 P4 251 -22.441
27 P4 252 -22.929
27 P4 253 -22.929
27 P4 254 -22.441
27 P4 255 -20.976
# PZ chan 24
27 PZ 0 -5.809
27 PZ 1 -7.273
27 PZ 2 -5.809
27 PZ 3 -1.902
27 PZ 4 1.027
27 PZ 5 2.492
27 PZ 6 1.027
27 PZ 7 -0.926
27 PZ 8 -3.367
27 PZ 9 -4.832
27 PZ 10 -5.809
27 PZ 11 -6.785
27 PZ 12 -7.762
27 PZ 13 -8.738
27 PZ 14 -9.715
27 PZ 15 -9.715
27 PZ 16 -9.226
27 PZ 17 -7.762
27 PZ 18 -6.785
27 PZ 19 -5.809
27 PZ 20 -4.344
27 PZ 21 -2.879
27 PZ 22 -0.437
27 PZ 23 2.492
27 PZ 24 4.934
27 PZ 25 6.887
27 PZ 26 8.352
27 PZ 27 8.840
27 PZ 28 9.816
27 PZ 29 9.816
27 PZ 30 9.328
27 PZ 31 7.863
27 PZ 32 5.910
27 PZ 33 3.957
27 PZ 34 1.516
27 PZ 35 -0.437
27 PZ 36 -1.902
27 PZ 37 -3.855
27 PZ 38 -5.809
27 PZ 39 -7.762
27 PZ 40 -9.715
27 PZ 41 -11.668
27 PZ 42 -13.621
27 PZ 43 -14.109
27 PZ 44 -13.621
27 PZ 45 -11.668
27 PZ 46 -8.738
27 PZ 47 -6.297
27 PZ 48 -2.879
27 PZ 49 0.051
27 PZ 50 2.492
27 PZ 51 3.469
27 PZ 52 2.981
27 PZ 53 0.051
27 PZ 54 -3.855
27 PZ 55 -6.785
27 PZ 56 -7.762
27 PZ 57 -5.809
27 PZ 58 -2.879
27 PZ 59 0.051
27 PZ 60 0.539
27 PZ 61 -1.414
27 PZ 62 -3.855
27 PZ 63 -5.809
27 PZ 64 -6.297
27 PZ 65 -5.320
27 PZ 66 -3.855
27 PZ 67 -3.855
27 PZ 68 -4.344
27 PZ 69 -4.832
27 PZ 70 -3.855
27 PZ 71 -1.414
27 PZ 72 2.004
27 PZ 73 4.445
27 PZ 74 5.422
27 PZ 75 5.422
27 PZ 76 4.934
27 PZ 77 3.469
27 PZ 78 2.981
27 PZ 79 2.981
27 PZ 80 2.492
27 PZ 81 2.004
27 PZ 82 1.027
27 PZ 83 -0.437
27 PZ 84 -3.855
27 PZ 85 -7.273
27 PZ 86 -10.203
27 PZ 87 -12.156
27 PZ 88 -12.156
27 PZ 89 -10.691
27 PZ 90 -9.226
27 PZ 91 -7.273
27 PZ 92 -5.320
27 PZ 93 -2.391
27 PZ 94 1.027
27 PZ 95 3.469
27 PZ 96 4.934
27 PZ 97 3.957
27 PZ 98 2.004
27 PZ 99 0.051
27 PZ 100 -1.414
27 PZ 101 -1.902
27 PZ 102 -1.414
27 PZ 103 0.051
27 PZ 104 2.004
27 PZ 105 4.445
27 PZ 106 7.375
27 PZ 107 8.840
27 PZ 108 8.352
27 PZ 109 6.399
27 PZ 110 2.981
27 PZ 111 0.539
27 PZ 112 0.051
27 PZ 113 1.027
27 PZ 114 2.004
27 PZ 115 2.004
27 PZ 116 0.051
27 PZ 117 -2.879
27 PZ 118 -5.320
27 PZ 119 -6.297
27 PZ 120 -4.344
27 PZ 121 -1.414
27 PZ 122 2.492
27 PZ 123 5.910
27 PZ 124 6.887
27 PZ 125 5.910
27 PZ 126 4.445
27 PZ 127 2.492
27 PZ 128 2.004
27 PZ 129 3.469
27 PZ 130 6.399
27 PZ 131 8.840
27 PZ 132 10.793
27 PZ 133 11.281
27 PZ 134 11.281
27 PZ 135 10.793
27 PZ 136 10.305
27 PZ 137 9.816
27 PZ 138 10.305
27 PZ 139 9.816
27 PZ 140 8.840
27 PZ 141 6.887
27 PZ 142 4.934
27 PZ 143 2.004
27 PZ 144 0.051
27 PZ 145 -0.926
27 PZ 146 -1.414
27 PZ 147 -1.414
27 PZ 148 -1.902
27 PZ 149 -2.391
27 PZ 150 -2.879
27 PZ 151 -2.879
27 PZ 152 -0.926
27 PZ 153 1.027
27 PZ 154 2.981
27 PZ 155 3.957
27 PZ 156 2.981
27 PZ 157 2.004
27 PZ 158 2.004
27 PZ 159 3.469
27 PZ 160 4.934
27 PZ 161 5.910
27 PZ 162 2.981
27 PZ 163 -1.414
27 PZ 164 -5.809
27 PZ 165 -7.273
27 PZ 166 -4.832
27 PZ 167 0.051
27 PZ 168 4.445
27 PZ 169 6.399
27 PZ 170 4.445
27 PZ 171 0.539
27 PZ 172 -3.367
27 PZ 173 -6.297
27 PZ 174 -7.273
27 PZ 175 -7.762
27 PZ 176 -8.250
27 PZ 177 -8.738
27 PZ 178 -8.250
27 PZ 179 -6.785
27 PZ 180 -5.320
27 PZ 181 -3.855
27 PZ 182 -4.344
27 PZ 183 -6.297
27 PZ 184 -8.250
27 PZ 185 -8.250
27 PZ 186 -5.320
27 PZ 187 0.051
27 PZ 188 5.422
27 PZ 189 9.328
27 PZ 190 11.281
27 PZ 191 11.770
27 PZ 192 11.281
27 PZ 193 10.793
27 PZ 194 10.793
27 PZ 195 9.328
27 PZ 196 6.887
27 PZ 197 2.004
27 PZ 198 -3.855
27 PZ 199 -9.715
27 PZ 200 -13.133
27 PZ 201 -13.133
27 PZ 202 -8.738
27 PZ 203 -3.367
27 PZ 204 1.027
27 PZ 205 2.492
27 PZ 206 0.051
27 PZ 207 -4.344
27 PZ 208 -8.738
27 PZ 209 -10.203
27 PZ 210 -8.738
27 PZ 211 -3.855
27 PZ 212 2.492
27 PZ 213 7.375
27 PZ 214 9.816
27 PZ 215 8.352
27 PZ 216 3.957
27 PZ 217 -0.926
27 PZ 218 -4.832
27 PZ 219 -5.809
27 PZ 220 -4.344
27 PZ 221 -1.414
27 PZ 222 0.539
27 PZ 223 0.051
27 PZ 224 -2.879
27 PZ 225 -7.762
27 PZ 226 -12.156
27 PZ 227 -14.109
27 PZ 228 -14.109
27 PZ 229 -12.156
27 PZ 230 -10.203
27 PZ 231 -8.738
27 PZ 232 -7.762
27 PZ 233 -6.785
27 PZ 234 -4.832
27 PZ 235 -1.414
27 PZ 236 1.516
27 PZ 237 4.445
27 PZ 238 5.422
27 PZ 239 6.399
27 PZ 240 6.399
27 PZ 241 7.863
27 PZ 242 8.840
27 PZ 243 9.816
27 PZ 244 9.816
27 PZ 245 7.863
27 PZ 246 4.934
27 PZ 247 1.027
27 PZ 248 -2.879
27 PZ 249 -6.785
27 PZ 250 -10.691
27 PZ 251 -14.598
27 PZ 252 -18.504
27 PZ 253 -20.945
27 PZ 254 -21.434
27 PZ 255 -19.480
# P8 chan 25
27 P8 0 -12.868
27 P8 1 -9.450
27 P8 2 -2.126
27 P8 3 5.686
27 P8 4 11.058
27 P8 5 11.546
27 P8 6 7.151
27 P8 7 1.292
27 P8 8 -3.591
27 P8 9 -5.056
27 P8 10 -4.567
27 P8 11 -4.079
27 P8 12 -5.544
27 P8 13 -9.450
27 P8 14 -13.357
27 P8 15 -16.286
27 P8 16 -16.286
27 P8 17 -13.845
27 P8 18 -8.962
27 P8 19 -3.103
27 P8 20 3.245
27 P8 21 9.593
27 P8 22 14.964
27 P8 23 18.382
27 P8 24 20.335
27 P8 25 20.335
27 P8 26 18.870
27 P8 27 16.917
27 P8 28 14.964
27 P8 29 12.522
27 P8 30 9.593
27 P8 31 5.686
27 P8 32 -0.173
27 P8 33 -7.009
27 P8 34 -13.845
27 P8 35 -19.704
27 P8 36 -22.634
27 P8 37 -23.122
27 P8 38 -23.122
27 P8 39 -23.610
27 P8 40 -24.587
27 P8 41 -27.028
27 P8 42 -28.982
27 P8 43 -28.493
27 P8 44 -26.052
27 P8 45 -21.657
27 P8 46 -16.774
27 P8 47 -11.403
27 P8 48 -5.544
27 P8 49 0.315
27 P8 50 6.175
27 P8 51 9.593
27 P8 52 9.593
27 P8 53 7.151
27 P8 54 2.757
27 P8 55 -1.638
27 P8 56 -4.567
27 P8 57 -6.032
27 P8 58 -7.497
27 P8 59 -10.427
27 P8 60 -14.333
27 P8 61 -18.728
27 P8 62 -23.122
27 P8 63 -25.564
27 P8 64 -25.564
27 P8 65 -24.099
27 P8 66 -22.146
27 P8 67 -20.681
27 P8 68 -20.192
27 P8 69 -18.239
27 P8 70 -14.821
27 P8 71 -9.450
27 P8 72 -3.591
27 P8 73 -0.173
27 P8 74 0.315
27 P8 75 -1.149
27 P8 76 -3.591
27 P8 77 -5.544
27 P8 78 -5.544
27 P8 79 -6.521
27 P8 80 -8.474
27 P8 81 -11.403
27 P8 82 -16.286
27 P8 83 -20.681
27 P8 84 -24.099
27 P8 85 -25.564
27 P8 86 -26.052
27 P8 87 -25.075
27 P8 88 -24.099
27 P8 89 -23.122
27 P8 90 -22.634
27 P8 91 -23.122
27 P8 92 -24.099
27 P8 93 -22.146
27 P8 94 -17.751
27 P8 95 -11.403
27 P8 96 -5.056
27 P8 97 -1.149
27 P8 98 -0.173
27 P8 99 -1.638
27 P8 100 -5.056
27 P8 101 -7.985
27 P8 102 -9.450
27 P8 103 -9.939
27 P8 104 -8.474
27 P8 105 -5.544
27 P8 106 -1.638
27 P8 107 0.804
27 P8 108 0.315
27 P8 109 -2.614
27 P8 110 -7.497
27 P8 111 -11.403
27 P8 112 -12.380
27 P8 113 -9.939
27 P8 114 -5.544
27 P8 115 -0.661
27 P8 116 1.780
27 P8 117 2.757
27 P8 118 2.757
27 P8 119 2.757
27 P8 120 3.733
27 P8 121 5.686
27 P8 122 7.151
27 P8 123 7.151
27 P8 124 5.198
27 P8 125 1.292
27 P8 126 -2.126
27 P8 127 -4.567
27 P8 128 -4.567
27 P8 129 -2.614
27 P8 130 0.804
27 P8 131 5.198
27 P8 132 8.616
27 P8 133 10.569
27 P8 134 11.058
27 P8 135 9.104
27 P8 136 6.175
27 P8 137 2.757
27 P8 138 -0.661
27 P8 139 -2.614
27 P8 140 -2.614
27 P8 141 -1.638
27 P8 142 -0.661
27 P8 143 1.292
27 P8 144 2.757
27 P8 145 3.733
27 P8 146 5.198
27 P8 147 6.175
27 P8 148 6.175
27 P8 149 5.198
27 P8 150 2.757
27 P8 151 -0.661
27 P8 152 -3.103
27 P8 153 -4.567
27 P8 154 -4.567
27 P8 155 -3.591
27 P8 156 -3.103
27 P8 157 -3.103
27 P8 158 -3.591
27 P8 159 -3.591
27 P8 160 -5.056
27 P8 161 -8.474
27 P8 162 -14.333
27 P8 163 -20.681
27 P8 164 -26.052
27 P8 165 -28.005
27 P8 166 -23.610
27 P8 167 -16.286
27 P8 168 -7.497
27 P8 169 -0.173
27 P8 170 4.222
27 P8 171 6.175
27 P8 172 7.640
27 P8 173 8.616
27 P8 174 9.593
27 P8 175 9.104
27 P8 176 8.128
27 P8 177 6.663
27 P8 178 6.663
27 P8 179 7.640
27 P8 180 8.128
27 P8 181 7.151
27 P8 182 3.733
27 P8 183 -1.638
27 P8 184 -7.009
27 P8 185 -10.427
27 P8 186 -10.427
27 P8 187 -7.985
27 P8 188 -4.079
27 P8 189 -0.661
27 P8 190 2.268
27 P8 191 4.222
27 P8 192 4.710
27 P8 193 3.733
27 P8 194 0.804
27 P8 195 -3.103
27 P8 196 -6.521
27 P8 197 -9.450
27 P8 198 -10.915
27 P8 199 -10.427
27 P8 200 -7.497
27 P8 201 -3.103
27 P8 202 2.757
27 P8 203 9.104
27 P8 204 13.987
27 P8 205 15.940
27 P8 206 13.499
27 P8 207 8.128
27 P8 208 1.292
27 P8 209 -4.079
27 P8 210 -6.521
27 P8 211 -4.567
27 P8 212 -1.149
27 P8 213 2.757
27 P8 214 3.245
27 P8 215 0.804
27 P8 216 -3.103
27 P8 217 -6.521
27 P8 218 -6.032
27 P8 219 -1.149
27 P8 220 7.151
27 P8 221 15.452
27 P8 222 20.335
27 P8 223 19.847
27 P8 224 14.476
27 P8 225 7.640
27 P8 226 2.268
27 P8 227 0.315
27 P8 228 1.780
27 P8 229 4.710
27 P8 230 6.663
27 P8 231 5.686
27 P8 232 1.292
27 P8 233 -4.079
27 P8 234 -8.474
27 P8 235 -9.939
27 P8 236 -8.962
27 P8 237 -6.521
27 P8 238 -3.591
27 P8 239 -0.661
27 P8 240 2.268
27 P8 241 6.663
27 P8 242 11.546
27 P8 243 16.429
27 P8 244 19.847
27 P8 245 19.847
27 P8 246 16.917
27 P8 247 12.522
27 P8 248 7.640
27 P8 249 3.733
27 P8 250 1.780
27 P8 251 1.292
27 P8 252 1.292
27 P8 253 1.292
27 P8 254 0.804
27 P8 255 1.292
# P7 chan 26
27 P7 0 -9.328
27 P7 1 -5.910
27 P7 2 1.902
27 P7 3 10.203
27 P7 4 16.551
27 P7 5 18.016
27 P7 6 14.109
27 P7 7 8.250
27 P7 8 1.414
27 P7 9 -3.469
27 P7 10 -7.375
27 P7 11 -11.281
27 P7 12 -16.164
27 P7 13 -21.047
27 P7 14 -24.953
27 P7 15 -25.930
27 P7 16 -23.488
27 P7 17 -18.117
27 P7 18 -9.816
27 P7 19 -2.492
27 P7 20 3.367
27 P7 21 7.273
27 P7 22 10.203
27 P7 23 13.621
27 P7 24 18.016
27 P7 25 21.434
27 P7 26 22.410
27 P7 27 20.457
27 P7 28 14.598
27 P7 29 7.762
27 P7 30 0.926
27 P7 31 -4.445
27 P7 32 -7.863
27 P7 33 -9.816
27 P7 34 -11.281
27 P7 35 -11.770
27 P7 36 -11.770
27 P7 37 -11.281
27 P7 38 -11.281
27 P7 39 -11.770
27 P7 40 -13.234
27 P7 41 -16.652
27 P7 42 -19.094
27 P7 43 -20.070
27 P7 44 -18.117
27 P7 45 -14.699
27 P7 46 -10.305
27 P7 47 -6.399
27 P7 48 -2.981
27 P7 49 0.437
27 P7 50 3.855
27 P7 51 5.809
27 P7 52 6.297
27 P7 53 3.367
27 P7 54 -1.516
27 P7 55 -6.887
27 P7 56 -10.793
27 P7 57 -12.746
27 P7 58 -13.234
27 P7 59 -13.723
27 P7 60 -16.164
27 P7 61 -20.070
27 P7 62 -24.953
27 P7 63 -27.883
27 P7 64 -28.371
27 P7 65 -26.418
27 P7 66 -22.512
27 P7 67 -19.582
27 P7 68 -17.141
27 P7 69 -14.211
27 P7 70 -11.281
27 P7 71 -7.863
27 P7 72 -4.445
27 P7 73 -3.957
27 P7 74 -5.422
27 P7 75 -7.863
27 P7 76 -9.816
27 P7 77 -10.305
27 P7 78 -9.328
27 P7 79 -9.328
27 P7 80 -11.281
27 P7 81 -15.676
27 P7 82 -22.024
27 P7 83 -27.883
27 P7 84 -32.766
27 P7 85 -35.207
27 P7 86 -33.742
27 P7 87 -29.836
27 P7 88 -24.465
27 P7 89 -20.070
27 P7 90 -17.629
27 P7 91 -17.141
27 P7 92 -17.141
27 P7 93 -15.188
27 P7 94 -10.305
27 P7 95 -3.469
27 P7 96 1.902
27 P7 97 3.855
27 P7 98 2.879
27 P7 99 0.437
27 P7 100 -1.516
27 P7 101 -2.004
27 P7 102 -1.516
27 P7 103 -0.539
27 P7 104 0.926
27 P7 105 1.902
27 P7 106 2.879
27 P7 107 1.414
27 P7 108 -3.469
27 P7 109 -11.281
27 P7 110 -20.070
27 P7 111 -26.906
27 P7 112 -27.883
27 P7 113 -24.953
27 P7 114 -19.094
27 P7 115 -14.211
27 P7 116 -11.281
27 P7 117 -9.816
27 P7 118 -8.352
27 P7 119 -5.910
27 P7 120 -2.004
27 P7 121 1.414
27 P7 122 4.344
27 P7 123 6.297
27 P7 124 7.273
27 P7 125 8.738
27 P7 126 9.226
27 P7 127 9.715
27 P7 128 9.715
27 P7 129 8.250
27 P7 130 6.785
27 P7 131 5.320
27 P7 132 4.344
27 P7 133 4.832
27 P7 134 4.832
27 P7 135 4.344
27 P7 136 3.367
27 P7 137 1.414
27 P7 138 -0.539
27 P7 139 -2.004
27 P7 140 -2.492
27 P7 141 -2.004
27 P7 142 0.437
27 P7 143 3.855
27 P7 144 8.250
27 P7 145 11.668
27 P7 146 13.133
27 P7 147 11.180
27 P7 148 6.785
27 P7 149 1.414
27 P7 150 -3.957
27 P7 151 -7.375
27 P7 152 -8.352
27 P7 153 -7.863
27 P7 154 -6.399
27 P7 155 -5.422
27 P7 156 -4.445
27 P7 157 -4.445
27 P7 158 -3.469
27 P7 159 -2.981
27 P7 160 -2.492
27 P7 161 -2.492
27 P7 162 -3.957
27 P7 163 -6.399
27 P7 164 -7.863
27 P7 165 -7.863
27 P7 166 -4.445
27 P7 167 0.926
27 P7 168 6.297
27 P7 169 9.715
27 P7 170 11.180
27 P7 171 10.203
27 P7 172 8.250
27 P7 173 6.785
27 P7 174 5.809
27 P7 175 5.809
27 P7 176 5.809
27 P7 177 4.832
27 P7 178 3.855
27 P7 179 1.414
27 P7 180 -1.516
27 P7 181 -3.957
27 P7 182 -5.910
27 P7 183 -6.887
27 P7 184 -6.887
27 P7 185 -6.887
27 P7 186 -6.887
27 P7 187 -6.399
27 P7 188 -4.445
27 P7 189 -1.027
27 P7 190 4.344
27 P7 191 10.203
27 P7 192 14.598
27 P7 193 16.551
27 P7 194 15.574
27 P7 195 12.156
27 P7 196 6.297
27 P7 197 -0.051
27 P7 198 -5.422
27 P7 199 -9.328
27 P7 200 -8.840
27 P7 201 -4.445
27 P7 202 2.879
27 P7 203 9.715
27 P7 204 13.621
27 P7 205 12.156
27 P7 206 5.809
27 P7 207 -3.957
27 P7 208 -13.234
27 P7 209 -18.606
27 P7 210 -18.606
27 P7 211 -13.723
27 P7 212 -5.910
27 P7 213 1.414
27 P7 214 5.809
27 P7 215 7.273
27 P7 216 5.809
27 P7 217 3.855
27 P7 218 4.344
27 P7 219 6.785
27 P7 220 11.180
27 P7 221 14.598
27 P7 222 15.086
27 P7 223 12.644
27 P7 224 7.273
27 P7 225 1.414
27 P7 226 -2.981
27 P7 227 -5.910
27 P7 228 -7.375
27 P7 229 -8.352
27 P7 230 -9.816
27 P7 231 -11.770
27 P7 232 -14.699
27 P7 233 -18.117
27 P7 234 -21.047
27 P7 235 -23.000
27 P7 236 -23.000
27 P7 237 -21.535
27 P7 238 -17.629
27 P7 239 -10.305
27 P7 240 -1.027
27 P7 241 10.203
27 P7 242 20.945
27 P7 243 29.246
27 P7 244 33.152
27 P7 245 33.152
27 P7 246 30.711
27 P7 247 27.293
27 P7 248 24.363
27 P7 249 22.898
27 P7 250 21.922
27 P7 251 20.457
27 P7 252 18.016
27 P7 253 14.598
27 P7 254 11.668
27 P7 255 9.226
# PO2 chan 27
27 PO2 0 -1.953
27 PO2 1 0.488
27 PO2 2 5.371
27 PO2 3 10.742
27 PO2 4 13.672
27 PO2 5 13.672
27 PO2 6 10.254
27 PO2 7 5.859
27 PO2 8 1.953
27 PO2 9 -0.977
27 PO2 10 -2.441
27 PO2 11 -2.930
27 PO2 12 -2.930
27 PO2 13 -2.441
27 PO2 14 -2.441
27 PO2 15 -2.441
27 PO2 16 -2.930
27 PO2 17 -2.930
27 PO2 18 -1.465
27 PO2 19 2.441
27 PO2 20 7.812
27 PO2 21 14.648
27 PO2 22 20.508
27 PO2 23 24.414
27 PO2 24 25.391
27 PO2 25 24.414
27 PO2 26 22.949
27 PO2 27 21.484
27 PO2 28 20.996
27 PO2 29 21.973
27 PO2 30 22.461
27 PO2 31 21.484
27 PO2 32 17.578
27 PO2 33 10.254
27 PO2 34 1.465
27 PO2 35 -7.324
27 PO2 36 -12.695
27 PO2 37 -13.184
27 PO2 38 -10.742
27 PO2 39 -6.836
27 PO2 40 -5.371
27 PO2 41 -6.836
27 PO2 42 -9.766
27 PO2 43 -12.207
27 PO2 44 -12.207
27 PO2 45 -9.277
27 PO2 46 -4.395
27 PO2 47 0.977
27 PO2 48 6.348
27 PO2 49 10.742
27 PO2 50 14.160
27 PO2 51 15.625
27 PO2 52 14.160
27 PO2 53 11.230
27 PO2 54 6.836
27 PO2 55 2.441
27 PO2 56 -0.977
27 PO2 57 -3.418
27 PO2 58 -4.395
27 PO2 59 -3.906
27 PO2 60 -3.906
27 PO2 61 -5.371
27 PO2 62 -8.789
27 PO2 63 -14.160
27 PO2 64 -19.043
27 PO2 65 -21.973
27 PO2 66 -21.484
27 PO2 67 -18.555
27 PO2 68 -15.137
27 PO2 69 -11.719
27 PO2 70 -7.324
27 PO2 71 -1.465
27 PO2 72 5.371
27 PO2 73 10.742
27 PO2 74 13.672
27 PO2 75 12.207
27 PO2 76 8.301
27 PO2 77 4.395
27 PO2 78 2.930
27 PO2 79 2.441
27 PO2 80 1.465
27 PO2 81 -0.977
27 PO2 82 -5.371
27 PO2 83 -9.766
27 PO2 84 -12.695
27 PO2 85 -13.184
27 PO2 86 -12.695
27 PO2 87 -11.719
27 PO2 88 -10.254
27 PO2 89 -9.277
27 PO2 90 -8.789
27 PO2 91 -9.277
27 PO2 92 -9.277
27 PO2 93 -7.812
27 PO2 94 -4.883
27 PO2 95 -0.977
27 PO2 96 0.977
27 PO2 97 0.000
27 PO2 98 -3.906
27 PO2 99 -7.324
27 PO2 100 -8.789
27 PO2 101 -6.836
27 PO2 102 -3.418
27 PO2 103 -0.488
27 PO2 104 1.465
27 PO2 105 2.930
27 PO2 106 5.859
27 PO2 107 9.277
27 PO2 108 11.719
27 PO2 109 8.789
27 PO2 110 1.953
27 PO2 111 -6.836
27 PO2 112 -12.207
27 PO2 113 -10.742
27 PO2 114 -4.883
27 PO2 115 1.465
27 PO2 116 3.906
27 PO2 117 0.977
27 PO2 118 -4.883
27 PO2 119 -9.766
27 PO2 120 -9.766
27 PO2 121 -6.348
27 PO2 122 -2.441
27 PO2 123 -0.488
27 PO2 124 -2.930
27 PO2 125 -7.324
27 PO2 126 -10.742
27 PO2 127 -12.207
27 PO2 128 -10.254
27 PO2 129 -5.371
27 PO2 130 -0.488
27 PO2 131 3.418
27 PO2 132 5.371
27 PO2 133 5.371
27 PO2 134 3.906
27 PO2 135 1.953
27 PO2 136 0.488
27 PO2 137 0.000
27 PO2 138 -0.488
27 PO2 139 -1.465
27 PO2 140 -1.953
27 PO2 141 -1.953
27 PO2 142 -1.953
27 PO2 143 -0.977
27 PO2 144 0.488
27 PO2 145 1.465
27 PO2 146 1.465
27 PO2 147 0.000
27 PO2 148 -1.953
27 PO2 149 -5.371
27 PO2 150 -8.789
27 PO2 151 -10.254
27 PO2 152 -9.766
27 PO2 153 -7.812
27 PO2 154 -5.859
27 PO2 155 -5.371
27 PO2 156 -6.836
27 PO2 157 -8.301
27 PO2 158 -6.836
27 PO2 159 -3.418
27 PO2 160 0.000
27 PO2 161 -0.977
27 PO2 162 -6.836
27 PO2 163 -16.113
27 PO2 164 -23.926
27 PO2 165 -25.879
