# co2a0000417.rd
# 120 trials, 64 chans, 416 samples 368 post_stim samples
# 3.906000 msecs uV
# S2 nomatch, trial 111
# FP1 chan 0
111 FP1 0 2.502
111 FP1 1 3.967
111 FP1 2 4.456
111 FP1 3 3.967
111 FP1 4 2.991
111 FP1 5 3.479
111 FP1 6 5.920
111 FP1 7 9.338
111 FP1 8 12.268
111 FP1 9 12.756
111 FP1 10 11.780
111 FP1 11 9.827
111 FP1 12 8.850
111 FP1 13 9.338
111 FP1 14 9.827
111 FP1 15 10.315
111 FP1 16 10.803
111 FP1 17 10.803
111 FP1 18 11.292
111 FP1 19 11.292
111 FP1 20 10.803
111 FP1 21 9.338
111 FP1 22 6.897
111 FP1 23 4.944
111 FP1 24 3.967
111 FP1 25 3.479
111 FP1 26 3.479
111 FP1 27 3.479
111 FP1 28 2.991
111 FP1 29 3.479
111 FP1 30 3.967
111 FP1 31 4.944
111 FP1 32 5.920
111 FP1 33 6.897
111 FP1 34 8.362
111 FP1 35 10.803
111 FP1 36 12.268
111 FP1 37 12.756
111 FP1 38 10.803
111 FP1 39 7.385
111 FP1 40 4.456
111 FP1 41 2.991
111 FP1 42 3.479
111 FP1 43 4.944
111 FP1 44 5.920
111 FP1 45 6.897
111 FP1 46 6.897
111 FP1 47 8.362
111 FP1 48 9.827
111 FP1 49 10.803
111 FP1 50 10.803
111 FP1 51 9.827
111 FP1 52 8.362
111 FP1 53 8.850
111 FP1 54 10.315
111 FP1 55 12.756
111 FP1 56 13.733
111 FP1 57 12.756
111 FP1 58 10.315
111 FP1 59 7.874
111 FP1 60 7.385
111 FP1 61 7.874
111 FP1 62 8.850
111 FP1 63 8.850
111 FP1 64 7.874
111 FP1 65 5.920
111 FP1 66 4.944
111 FP1 67 4.944
111 FP1 68 5.920
111 FP1 69 6.409
111 FP1 70 6.897
111 FP1 71 6.409
111 FP1 72 6.897
111 FP1 73 7.874
111 FP1 74 9.338
111 FP1 75 10.315
111 FP1 76 10.803
111 FP1 77 9.338
111 FP1 78 7.385
111 FP1 79 6.409
111 FP1 80 5.432
111 FP1 81 5.920
111 FP1 82 5.920
111 FP1 83 6.409
111 FP1 84 5.920
111 FP1 85 5.432
111 FP1 86 3.967
111 FP1 87 2.502
111 FP1 88 1.038
111 FP1 89 -0.916
111 FP1 90 -1.404
111 FP1 91 -1.404
111 FP1 92 -0.427
111 FP1 93 1.038
111 FP1 94 2.502
111 FP1 95 3.479
111 FP1 96 2.991
111 FP1 97 2.014
111 FP1 98 1.038
111 FP1 99 -0.427
111 FP1 100 -0.427
111 FP1 101 0.549
111 FP1 102 2.502
111 FP1 103 4.944
111 FP1 104 6.897
111 FP1 105 7.874
111 FP1 106 7.874
111 FP1 107 7.874
111 FP1 108 7.385
111 FP1 109 6.897
111 FP1 110 5.432
111 FP1 111 4.456
111 FP1 112 4.456
111 FP1 113 6.409
111 FP1 114 10.315
111 FP1 115 13.733
111 FP1 116 15.686
111 FP1 117 14.709
111 FP1 118 11.780
111 FP1 119 8.850
111 FP1 120 7.874
111 FP1 121 9.338
111 FP1 122 11.292
111 FP1 123 13.245
111 FP1 124 13.733
111 FP1 125 12.756
111 FP1 126 11.780
111 FP1 127 11.292
111 FP1 128 10.315
111 FP1 129 8.850
111 FP1 130 6.897
111 FP1 131 5.432
111 FP1 132 3.967
111 FP1 133 4.456
111 FP1 134 5.920
111 FP1 135 8.362
111 FP1 136 10.803
111 FP1 137 13.245
111 FP1 138 15.198
111 FP1 139 16.174
111 FP1 140 16.174
111 FP1 141 14.709
111 FP1 142 13.245
111 FP1 143 12.268
111 FP1 144 11.780
111 FP1 145 13.245
111 FP1 146 15.686
111 FP1 147 18.127
111 FP1 148 19.104
111 FP1 149 18.616
111 FP1 150 16.663
111 FP1 151 14.709
111 FP1 152 13.733
111 FP1 153 13.733
111 FP1 154 14.709
111 FP1 155 14.221
111 FP1 156 12.756
111 FP1 157 10.315
111 FP1 158 8.850
111 FP1 159 9.827
111 FP1 160 12.756
111 FP1 161 15.198
111 FP1 162 15.686
111 FP1 163 13.733
111 FP1 164 10.803
111 FP1 165 8.850
111 FP1 166 9.338
111 FP1 167 11.292
111 FP1 168 12.756
111 FP1 169 13.245
111 FP1 170 11.780
111 FP1 171 10.315
111 FP1 172 10.315
111 FP1 173 11.292
111 FP1 174 12.756
111 FP1 175 13.245
111 FP1 176 11.780
111 FP1 177 8.850
111 FP1 178 6.897
111 FP1 179 6.897
111 FP1 180 8.850
111 FP1 181 11.780
111 FP1 182 14.709
111 FP1 183 15.686
111 FP1 184 15.686
111 FP1 185 16.663
111 FP1 186 18.127
111 FP1 187 20.569
111 FP1 188 22.522
111 FP1 189 23.499
111 FP1 190 23.010
111 FP1 191 22.522
111 FP1 192 22.522
111 FP1 193 23.499
111 FP1 194 24.475
111 FP1 195 25.452
111 FP1 196 25.940
111 FP1 197 26.428
111 FP1 198 27.893
111 FP1 199 30.334
111 FP1 200 33.264
111 FP1 201 35.706
111 FP1 202 37.659
111 FP1 203 38.635
111 FP1 204 41.077
111 FP1 205 45.959
111 FP1 206 54.260
111 FP1 207 66.467
111 FP1 208 80.627
111 FP1 209 95.276
111 FP1 210 108.459
111 FP1 211 119.690
111 FP1 212 128.479
111 FP1 213 135.803
111 FP1 214 140.686
111 FP1 215 143.616
111 FP1 216 145.569
111 FP1 217 146.545
111 FP1 218 148.010
111 FP1 219 149.475
111 FP1 220 149.475
111 FP1 221 147.034
111 FP1 222 141.174
111 FP1 223 133.850
111 FP1 224 127.014
111 FP1 225 123.596
111 FP1 226 124.084
111 FP1 227 125.549
111 FP1 228 125.061
111 FP1 229 120.667
111 FP1 230 114.807
111 FP1 231 108.459
111 FP1 232 104.553
111 FP1 233 102.112
111 FP1 234 100.159
111 FP1 235 98.206
111 FP1 236 95.764
111 FP1 237 93.811
111 FP1 238 92.346
111 FP1 239 90.881
111 FP1 240 88.928
111 FP1 241 86.487
111 FP1 242 84.534
111 FP1 243 85.022
111 FP1 244 86.487
111 FP1 245 88.440
111 FP1 246 88.440
111 FP1 247 85.999
111 FP1 248 82.092
111 FP1 249 78.674
111 FP1 250 77.209
111 FP1 251 77.209
111 FP1 252 78.674
111 FP1 253 79.651
111 FP1 254 80.139
111 FP1 255 79.651
# FP2 chan 1
111 FP2 0 3.377
111 FP2 1 5.819
111 FP2 2 6.307
111 FP2 3 4.842
111 FP2 4 2.889
111 FP2 5 2.889
111 FP2 6 4.842
111 FP2 7 8.260
111 FP2 8 10.701
111 FP2 9 10.701
111 FP2 10 10.213
111 FP2 11 9.237
111 FP2 12 10.701
111 FP2 13 12.166
111 FP2 14 13.143
111 FP2 15 12.655
111 FP2 16 10.701
111 FP2 17 9.725
111 FP2 18 9.237
111 FP2 19 9.725
111 FP2 20 9.725
111 FP2 21 8.748
111 FP2 22 6.307
111 FP2 23 4.354
111 FP2 24 3.866
111 FP2 25 3.866
111 FP2 26 3.866
111 FP2 27 3.377
111 FP2 28 2.401
111 FP2 29 1.912
111 FP2 30 2.401
111 FP2 31 3.377
111 FP2 32 4.354
111 FP2 33 5.330
111 FP2 34 6.795
111 FP2 35 8.260
111 FP2 36 9.725
111 FP2 37 11.190
111 FP2 38 10.213
111 FP2 39 7.772
111 FP2 40 4.354
111 FP2 41 1.912
111 FP2 42 1.424
111 FP2 43 1.912
111 FP2 44 3.377
111 FP2 45 4.842
111 FP2 46 5.819
111 FP2 47 6.795
111 FP2 48 8.260
111 FP2 49 9.725
111 FP2 50 9.725
111 FP2 51 8.748
111 FP2 52 7.772
111 FP2 53 7.772
111 FP2 54 9.237
111 FP2 55 12.166
111 FP2 56 13.631
111 FP2 57 13.143
111 FP2 58 11.190
111 FP2 59 8.748
111 FP2 60 7.284
111 FP2 61 5.819
111 FP2 62 5.819
111 FP2 63 5.330
111 FP2 64 4.842
111 FP2 65 4.842
111 FP2 66 4.842
111 FP2 67 4.842
111 FP2 68 5.330
111 FP2 69 5.819
111 FP2 70 5.819
111 FP2 71 6.307
111 FP2 72 6.795
111 FP2 73 8.260
111 FP2 74 9.725
111 FP2 75 11.190
111 FP2 76 12.166
111 FP2 77 11.190
111 FP2 78 9.237
111 FP2 79 6.795
111 FP2 80 6.307
111 FP2 81 7.284
111 FP2 82 9.237
111 FP2 83 10.213
111 FP2 84 8.748
111 FP2 85 5.819
111 FP2 86 2.401
111 FP2 87 0.448
111 FP2 88 -0.041
111 FP2 89 -0.041
111 FP2 90 -0.041
111 FP2 91 -0.041
111 FP2 92 0.448
111 FP2 93 1.424
111 FP2 94 2.401
111 FP2 95 3.377
111 FP2 96 2.889
111 FP2 97 0.448
111 FP2 98 -1.506
111 FP2 99 -2.482
111 FP2 100 -1.506
111 FP2 101 1.424
111 FP2 102 4.354
111 FP2 103 5.819
111 FP2 104 6.307
111 FP2 105 6.795
111 FP2 106 7.284
111 FP2 107 8.260
111 FP2 108 9.237
111 FP2 109 8.748
111 FP2 110 8.260
111 FP2 111 7.284
111 FP2 112 7.284
111 FP2 113 9.237
111 FP2 114 12.166
111 FP2 115 14.608
111 FP2 116 15.096
111 FP2 117 12.655
111 FP2 118 9.725
111 FP2 119 6.795
111 FP2 120 6.307
111 FP2 121 8.260
111 FP2 122 11.678
111 FP2 123 14.119
111 FP2 124 14.608
111 FP2 125 13.631
111 FP2 126 12.166
111 FP2 127 11.190
111 FP2 128 10.701
111 FP2 129 10.213
111 FP2 130 8.748
111 FP2 131 7.284
111 FP2 132 5.330
111 FP2 133 4.842
111 FP2 134 6.307
111 FP2 135 9.237
111 FP2 136 13.631
111 FP2 137 17.049
111 FP2 138 19.979
111 FP2 139 21.932
111 FP2 140 21.932
111 FP2 141 19.979
111 FP2 142 17.049
111 FP2 143 14.119
111 FP2 144 12.655
111 FP2 145 13.631
111 FP2 146 16.561
111 FP2 147 19.979
111 FP2 148 22.909
111 FP2 149 22.909
111 FP2 150 20.467
111 FP2 151 17.537
111 FP2 152 14.608
111 FP2 153 14.119
111 FP2 154 15.096
111 FP2 155 16.073
111 FP2 156 16.073
111 FP2 157 15.096
111 FP2 158 13.631
111 FP2 159 13.631
111 FP2 160 14.608
111 FP2 161 16.561
111 FP2 162 18.514
111 FP2 163 18.026
111 FP2 164 16.073
111 FP2 165 14.119
111 FP2 166 13.143
111 FP2 167 13.631
111 FP2 168 14.119
111 FP2 169 14.119
111 FP2 170 13.631
111 FP2 171 12.166
111 FP2 172 11.678
111 FP2 173 11.678
111 FP2 174 12.655
111 FP2 175 12.655
111 FP2 176 12.166
111 FP2 177 10.701
111 FP2 178 10.213
111 FP2 179 10.701
111 FP2 180 12.166
111 FP2 181 14.608
111 FP2 182 16.561
111 FP2 183 18.026
111 FP2 184 18.026
111 FP2 185 18.514
111 FP2 186 19.491
111 FP2 187 20.955
111 FP2 188 22.420
111 FP2 189 23.397
111 FP2 190 24.373
111 FP2 191 25.350
111 FP2 192 26.815
111 FP2 193 27.791
111 FP2 194 28.768
111 FP2 195 29.256
111 FP2 196 30.233
111 FP2 197 31.698
111 FP2 198 32.674
111 FP2 199 34.139
111 FP2 200 35.116
111 FP2 201 37.069
111 FP2 202 39.022
111 FP2 203 41.951
111 FP2 204 45.858
111 FP2 205 51.717
111 FP2 206 60.506
111 FP2 207 71.737
111 FP2 208 85.409
111 FP2 209 99.569
111 FP2 210 111.776
111 FP2 211 122.030
111 FP2 212 129.842
111 FP2 213 134.725
111 FP2 214 137.655
111 FP2 215 139.608
111 FP2 216 141.073
111 FP2 217 142.049
111 FP2 218 143.514
111 FP2 219 145.467
111 FP2 220 146.444
111 FP2 221 145.467
111 FP2 222 141.073
111 FP2 223 133.260
111 FP2 224 125.448
111 FP2 225 120.076
111 FP2 226 118.123
111 FP2 227 119.100
111 FP2 228 120.076
111 FP2 229 118.612
111 FP2 230 115.194
111 FP2 231 110.799
111 FP2 232 107.381
111 FP2 233 104.451
111 FP2 234 102.498
111 FP2 235 100.057
111 FP2 236 97.127
111 FP2 237 95.174
111 FP2 238 93.709
111 FP2 239 92.733
111 FP2 240 91.268
111 FP2 241 89.315
111 FP2 242 87.850
111 FP2 243 87.850
111 FP2 244 89.803
111 FP2 245 90.780
111 FP2 246 90.780
111 FP2 247 88.338
111 FP2 248 84.920
111 FP2 249 81.991
111 FP2 250 81.502
111 FP2 251 82.479
111 FP2 252 83.944
111 FP2 253 84.432
111 FP2 254 83.455
111 FP2 255 81.502
# F7 chan 2
111 F7 0 13.957
111 F7 1 7.121
111 F7 2 -4.110
111 F7 3 -12.899
111 F7 4 -13.387
111 F7 5 -4.598
111 F7 6 7.121
111 F7 7 15.422
111 F7 8 16.886
111 F7 9 12.004
111 F7 10 5.656
111 F7 11 2.238
111 F7 12 2.726
111 F7 13 5.656
111 F7 14 8.097
111 F7 15 9.074
111 F7 16 8.586
111 F7 17 7.121
111 F7 18 5.656
111 F7 19 3.215
111 F7 20 0.285
111 F7 21 -0.203
111 F7 22 3.703
111 F7 23 10.539
111 F7 24 16.398
111 F7 25 15.422
111 F7 26 6.144
111 F7 27 -5.086
111 F7 28 -10.946
111 F7 29 -8.016
111 F7 30 0.285
111 F7 31 7.609
111 F7 32 9.562
111 F7 33 7.609
111 F7 34 6.632
111 F7 35 8.097
111 F7 36 9.562
111 F7 37 7.609
111 F7 38 1.750
111 F7 39 -3.133
111 F7 40 -1.180
111 F7 41 7.609
111 F7 42 17.375
111 F7 43 20.793
111 F7 44 15.910
111 F7 45 7.609
111 F7 46 3.703
111 F7 47 6.632
111 F7 48 12.004
111 F7 49 13.468
111 F7 50 7.609
111 F7 51 -1.668
111 F7 52 -6.551
111 F7 53 -2.645
111 F7 54 8.586
111 F7 55 20.793
111 F7 56 27.140
111 F7 57 24.211
111 F7 58 15.422
111 F7 59 6.632
111 F7 60 2.238
111 F7 61 3.703
111 F7 62 7.609
111 F7 63 10.539
111 F7 64 10.050
111 F7 65 7.609
111 F7 66 5.168
111 F7 67 5.168
111 F7 68 7.121
111 F7 69 8.586
111 F7 70 8.586
111 F7 71 8.586
111 F7 72 9.074
111 F7 73 12.492
111 F7 74 16.398
111 F7 75 18.840
111 F7 76 18.351
111 F7 77 13.957
111 F7 78 8.097
111 F7 79 3.215
111 F7 80 0.285
111 F7 81 -0.203
111 F7 82 1.261
111 F7 83 2.238
111 F7 84 3.215
111 F7 85 3.215
111 F7 86 2.238
111 F7 87 1.750
111 F7 88 2.726
111 F7 89 4.679
111 F7 90 8.097
111 F7 91 10.539
111 F7 92 10.050
111 F7 93 6.632
111 F7 94 3.215
111 F7 95 1.261
111 F7 96 1.261
111 F7 97 1.750
111 F7 98 1.261
111 F7 99 -1.180
111 F7 100 -2.645
111 F7 101 -1.668
111 F7 102 1.750
111 F7 103 5.168
111 F7 104 7.121
111 F7 105 6.632
111 F7 106 6.144
111 F7 107 6.632
111 F7 108 9.074
111 F7 109 12.004
111 F7 110 12.980
111 F7 111 12.492
111 F7 112 11.515
111 F7 113 11.515
111 F7 114 12.492
111 F7 115 12.004
111 F7 116 8.097
111 F7 117 3.703
111 F7 118 1.261
111 F7 119 4.191
111 F7 120 12.004
111 F7 121 19.816
111 F7 122 23.234
111 F7 123 18.840
111 F7 124 12.004
111 F7 125 6.632
111 F7 126 8.586
111 F7 127 15.422
111 F7 128 20.304
111 F7 129 19.816
111 F7 130 14.933
111 F7 131 9.562
111 F7 132 7.609
111 F7 133 9.562
111 F7 134 11.515
111 F7 135 11.515
111 F7 136 10.050
111 F7 137 8.586
111 F7 138 10.050
111 F7 139 13.468
111 F7 140 17.863
111 F7 141 20.304
111 F7 142 20.304
111 F7 143 17.375
111 F7 144 13.957
111 F7 145 11.515
111 F7 146 12.492
111 F7 147 15.910
111 F7 148 20.304
111 F7 149 22.257
111 F7 150 20.304
111 F7 151 17.375
111 F7 152 16.398
111 F7 153 19.328
111 F7 154 23.234
111 F7 155 23.722
111 F7 156 19.328
111 F7 157 11.027
111 F7 158 6.144
111 F7 159 8.097
111 F7 160 14.445
111 F7 161 20.793
111 F7 162 20.793
111 F7 163 13.957
111 F7 164 5.168
111 F7 165 0.773
111 F7 166 3.703
111 F7 167 12.004
111 F7 168 19.328
111 F7 169 21.281
111 F7 170 17.375
111 F7 171 11.027
111 F7 172 6.632
111 F7 173 5.656
111 F7 174 6.632
111 F7 175 6.144
111 F7 176 4.191
111 F7 177 1.750
111 F7 178 2.238
111 F7 179 7.609
111 F7 180 15.422
111 F7 181 21.281
111 F7 182 20.304
111 F7 183 13.468
111 F7 184 5.656
111 F7 185 3.215
111 F7 186 9.562
111 F7 187 21.281
111 F7 188 32.511
111 F7 189 34.953
111 F7 190 28.605
111 F7 191 17.863
111 F7 192 11.027
111 F7 193 11.027
111 F7 194 15.910
111 F7 195 20.304
111 F7 196 20.793
111 F7 197 18.351
111 F7 198 17.375
111 F7 199 20.793
111 F7 200 27.140
111 F7 201 32.023
111 F7 202 31.535
111 F7 203 25.675
111 F7 204 19.328
111 F7 205 17.375
111 F7 206 21.769
111 F7 207 32.023
111 F7 208 43.742
111 F7 209 53.019
111 F7 210 55.949
111 F7 211 54.972
111 F7 212 51.554
111 F7 213 50.578
111 F7 214 53.019
111 F7 215 58.390
111 F7 216 63.761
111 F7 217 66.691
111 F7 218 65.226
111 F7 219 60.832
111 F7 220 55.461
111 F7 221 50.090
111 F7 222 45.207
111 F7 223 42.277
111 F7 224 42.765
111 F7 225 47.160
111 F7 226 54.484
111 F7 227 60.343
111 F7 228 60.343
111 F7 229 53.507
111 F7 230 42.277
111 F7 231 32.023
111 F7 232 27.629
111 F7 233 29.582
111 F7 234 34.465
111 F7 235 38.371
111 F7 236 39.836
111 F7 237 38.859
111 F7 238 36.418
111 F7 239 33.000
111 F7 240 28.605
111 F7 241 24.211
111 F7 242 22.746
111 F7 243 25.675
111 F7 244 32.023
111 F7 245 37.394
111 F7 246 37.882
111 F7 247 33.000
111 F7 248 26.164
111 F7 249 22.257
111 F7 250 23.234
111 F7 251 27.629
111 F7 252 33.976
111 F7 253 38.859
111 F7 254 41.300
111 F7 255 40.812
# F8 chan 3
111 F8 0 14.465
111 F8 1 16.907
111 F8 2 10.559
111 F8 3 -0.183
111 F8 4 -5.554
111 F8 5 -2.136
111 F8 6 7.629
111 F8 7 17.395
111 F8 8 19.348
111 F8 9 14.954
111 F8 10 8.118
111 F8 11 4.211
111 F8 12 5.188
111 F8 13 8.118
111 F8 14 10.071
111 F8 15 11.047
111 F8 16 12.512
111 F8 17 15.442
111 F8 18 18.372
111 F8 19 19.348
111 F8 20 16.907
111 F8 21 12.512
111 F8 22 9.094
111 F8 23 8.118
111 F8 24 9.583
111 F8 25 11.047
111 F8 26 10.559
111 F8 27 7.629
111 F8 28 4.211
111 F8 29 1.282
111 F8 30 0.305
111 F8 31 1.770
111 F8 32 5.676
111 F8 33 10.559
111 F8 34 14.954
111 F8 35 16.907
111 F8 36 15.442
111 F8 37 11.536
111 F8 38 7.141
111 F8 39 3.235
111 F8 40 -0.183
111 F8 41 -2.136
111 F8 42 -1.648
111 F8 43 1.282
111 F8 44 6.653
111 F8 45 11.047
111 F8 46 11.047
111 F8 47 8.118
111 F8 48 3.723
111 F8 49 2.747
111 F8 50 6.653
111 F8 51 13.000
111 F8 52 17.395
111 F8 53 18.372
111 F8 54 15.442
111 F8 55 13.489
111 F8 56 13.000
111 F8 57 14.465
111 F8 58 14.465
111 F8 59 11.047
111 F8 60 5.676
111 F8 61 0.305
111 F8 62 -1.648
111 F8 63 -0.183
111 F8 64 3.723
111 F8 65 8.118
111 F8 66 11.047
111 F8 67 13.000
111 F8 68 13.489
111 F8 69 13.489
111 F8 70 11.047
111 F8 71 6.653
111 F8 72 2.258
111 F8 73 0.305
111 F8 74 3.723
111 F8 75 10.071
111 F8 76 15.442
111 F8 77 14.954
111 F8 78 9.094
111 F8 79 2.258
111 F8 80 0.793
111 F8 81 6.165
111 F8 82 14.954
111 F8 83 19.348
111 F8 84 15.442
111 F8 85 5.676
111 F8 86 -4.578
111 F8 87 -7.996
111 F8 88 -4.089
111 F8 89 1.770
111 F8 90 4.700
111 F8 91 2.747
111 F8 92 -1.648
111 F8 93 -3.601
111 F8 94 -0.671
111 F8 95 5.188
111 F8 96 9.583
111 F8 97 9.583
111 F8 98 6.165
111 F8 99 2.747
111 F8 100 2.258
111 F8 101 3.723
111 F8 102 5.676
111 F8 103 6.165
111 F8 104 5.676
111 F8 105 6.653
111 F8 106 10.071
111 F8 107 14.465
111 F8 108 16.907
111 F8 109 16.907
111 F8 110 13.977
111 F8 111 10.071
111 F8 112 6.653
111 F8 113 5.188
111 F8 114 4.700
111 F8 115 6.165
111 F8 116 8.606
111 F8 117 10.559
111 F8 118 11.047
111 F8 119 9.094
111 F8 120 7.141
111 F8 121 7.141
111 F8 122 10.071
111 F8 123 14.954
111 F8 124 18.372
111 F8 125 17.883
111 F8 126 14.954
111 F8 127 12.024
111 F8 128 11.047
111 F8 129 11.536
111 F8 130 12.512
111 F8 131 12.024
111 F8 132 10.071
111 F8 133 8.118
111 F8 134 8.118
111 F8 135 10.559
111 F8 136 14.954
111 F8 137 19.836
111 F8 138 23.743
111 F8 139 25.208
111 F8 140 23.254
111 F8 141 19.348
111 F8 142 14.465
111 F8 143 11.047
111 F8 144 11.536
111 F8 145 15.442
111 F8 146 20.813
111 F8 147 24.719
111 F8 148 24.231
111 F8 149 19.836
111 F8 150 13.977
111 F8 151 11.047
111 F8 152 13.000
111 F8 153 19.348
111 F8 154 26.184
111 F8 155 29.114
111 F8 156 27.649
111 F8 157 23.254
111 F8 158 19.836
111 F8 159 19.348
111 F8 160 21.790
111 F8 161 24.231
111 F8 162 23.254
111 F8 163 20.325
111 F8 164 16.418
111 F8 165 14.465
111 F8 166 16.418
111 F8 167 19.836
111 F8 168 22.278
111 F8 169 21.790
111 F8 170 17.883
111 F8 171 12.512
111 F8 172 8.118
111 F8 173 6.653
111 F8 174 7.629
111 F8 175 9.583
111 F8 176 11.536
111 F8 177 13.489
111 F8 178 15.442
111 F8 179 18.372
111 F8 180 20.325
111 F8 181 20.813
111 F8 182 17.883
111 F8 183 13.489
111 F8 184 11.536
111 F8 185 13.977
111 F8 186 19.836
111 F8 187 25.208
111 F8 188 26.184
111 F8 189 24.719
111 F8 190 23.254
111 F8 191 26.184
111 F8 192 32.532
111 F8 193 36.926
111 F8 194 34.973
111 F8 195 26.672
111 F8 196 17.395
111 F8 197 12.512
111 F8 198 13.489
111 F8 199 17.883
111 F8 200 22.278
111 F8 201 22.766
111 F8 202 21.301
111 F8 203 20.813
111 F8 204 23.254
111 F8 205 29.114
111 F8 206 34.973
111 F8 207 39.856
111 F8 208 41.321
111 F8 209 42.786
111 F8 210 46.692
111 F8 211 53.040
111 F8 212 60.364
111 F8 213 64.270
111 F8 214 63.782
111 F8 215 59.875
111 F8 216 55.481
111 F8 217 54.504
111 F8 218 55.969
111 F8 219 58.899
111 F8 220 59.387
111 F8 221 56.458
111 F8 222 51.575
111 F8 223 47.180
111 F8 224 46.204
111 F8 225 48.645
111 F8 226 51.575
111 F8 227 54.016
111 F8 228 53.040
111 F8 229 49.622
111 F8 230 45.227
111 F8 231 40.833
111 F8 232 38.391
111 F8 233 38.879
111 F8 234 41.809
111 F8 235 47.180
111 F8 236 51.086
111 F8 237 51.575
111 F8 238 49.133
111 F8 239 44.739
111 F8 240 42.786
111 F8 241 43.762
111 F8 242 46.692
111 F8 243 49.133
111 F8 244 48.157
111 F8 245 44.739
111 F8 246 40.344
111 F8 247 37.903
111 F8 248 37.415
111 F8 249 38.879
111 F8 250 40.833
111 F8 251 43.274
111 F8 252 45.227
111 F8 253 45.715
111 F8 254 43.762
111 F8 255 41.321
# AF1 chan 4
111 AF1 0 0.427
111 AF1 1 1.892
111 AF1 2 3.357
111 AF1 3 3.845
111 AF1 4 3.845
111 AF1 5 3.845
111 AF1 6 4.333
111 AF1 7 5.310
111 AF1 8 5.798
111 AF1 9 6.287
111 AF1 10 5.798
111 AF1 11 6.775
111 AF1 12 7.263
111 AF1 13 8.728
111 AF1 14 9.705
111 AF1 15 9.216
111 AF1 16 8.240
111 AF1 17 7.751
111 AF1 18 7.751
111 AF1 19 9.216
111 AF1 20 9.705
111 AF1 21 9.216
111 AF1 22 7.751
111 AF1 23 5.310
111 AF1 24 3.845
111 AF1 25 2.380
111 AF1 26 1.892
111 AF1 27 2.380
111 AF1 28 2.380
111 AF1 29 3.357
111 AF1 30 4.333
111 AF1 31 5.310
111 AF1 32 6.287
111 AF1 33 7.263
111 AF1 34 8.240
111 AF1 35 9.705
111 AF1 36 11.169
111 AF1 37 11.658
111 AF1 38 10.193
111 AF1 39 7.751
111 AF1 40 5.310
111 AF1 41 3.845
111 AF1 42 3.845
111 AF1 43 5.310
111 AF1 44 7.263
111 AF1 45 8.728
111 AF1 46 9.216
111 AF1 47 9.705
111 AF1 48 9.216
111 AF1 49 8.728
111 AF1 50 8.728
111 AF1 51 8.728
111 AF1 52 8.728
111 AF1 53 9.705
111 AF1 54 10.193
111 AF1 55 10.193
111 AF1 56 9.216
111 AF1 57 7.263
111 AF1 58 5.310
111 AF1 59 4.822
111 AF1 60 5.798
111 AF1 61 7.263
111 AF1 62 7.751
111 AF1 63 7.263
111 AF1 64 5.310
111 AF1 65 4.333
111 AF1 66 3.845
111 AF1 67 4.822
111 AF1 68 5.798
111 AF1 69 6.287
111 AF1 70 6.287
111 AF1 71 5.798
111 AF1 72 6.287
111 AF1 73 6.775
111 AF1 74 7.263
111 AF1 75 8.240
111 AF1 76 8.728
111 AF1 77 8.728
111 AF1 78 7.751
111 AF1 79 6.775
111 AF1 80 6.287
111 AF1 81 5.798
111 AF1 82 6.287
111 AF1 83 7.263
111 AF1 84 7.263
111 AF1 85 6.287
111 AF1 86 4.822
111 AF1 87 2.869
111 AF1 88 0.916
111 AF1 89 -1.038
111 AF1 90 -1.038
111 AF1 91 -0.549
111 AF1 92 0.916
111 AF1 93 1.404
111 AF1 94 1.892
111 AF1 95 1.404
111 AF1 96 0.916
111 AF1 97 0.427
111 AF1 98 0.427
111 AF1 99 0.427
111 AF1 100 0.427
111 AF1 101 0.916
111 AF1 102 2.380
111 AF1 103 3.845
111 AF1 104 4.822
111 AF1 105 4.822
111 AF1 106 4.822
111 AF1 107 4.333
111 AF1 108 4.333
111 AF1 109 4.822
111 AF1 110 4.822
111 AF1 111 3.845
111 AF1 112 3.845
111 AF1 113 3.845
111 AF1 114 5.798
111 AF1 115 8.240
111 AF1 116 9.705
111 AF1 117 9.216
111 AF1 118 7.263
111 AF1 119 4.822
111 AF1 120 3.357
111 AF1 121 3.845
111 AF1 122 5.310
111 AF1 123 6.775
111 AF1 124 7.263
111 AF1 125 7.263
111 AF1 126 6.287
111 AF1 127 4.822
111 AF1 128 3.845
111 AF1 129 2.869
111 AF1 130 2.380
111 AF1 131 2.380
111 AF1 132 1.892
111 AF1 133 1.892
111 AF1 134 2.380
111 AF1 135 3.845
111 AF1 136 5.798
111 AF1 137 8.240
111 AF1 138 9.705
111 AF1 139 10.681
111 AF1 140 10.681
111 AF1 141 9.216
111 AF1 142 7.263
111 AF1 143 5.310
111 AF1 144 3.845
111 AF1 145 3.845
111 AF1 146 4.333
111 AF1 147 5.798
111 AF1 148 7.263
111 AF1 149 8.728
111 AF1 150 8.728
111 AF1 151 8.240
111 AF1 152 7.263
111 AF1 153 6.287
111 AF1 154 5.310
111 AF1 155 4.822
111 AF1 156 3.845
111 AF1 157 3.357
111 AF1 158 2.869
111 AF1 159 3.357
111 AF1 160 4.822
111 AF1 161 6.775
111 AF1 162 8.240
111 AF1 163 8.728
111 AF1 164 7.751
111 AF1 165 7.263
111 AF1 166 7.263
111 AF1 167 7.263
111 AF1 168 7.263
111 AF1 169 6.287
111 AF1 170 4.333
111 AF1 171 2.869
111 AF1 172 2.869
111 AF1 173 4.333
111 AF1 174 6.287
111 AF1 175 7.263
111 AF1 176 6.287
111 AF1 177 3.357
111 AF1 178 0.916
111 AF1 179 -0.061
111 AF1 180 1.892
111 AF1 181 4.822
111 AF1 182 8.240
111 AF1 183 10.681
111 AF1 184 11.658
111 AF1 185 11.169
111 AF1 186 10.681
111 AF1 187 9.705
111 AF1 188 9.216
111 AF1 189 9.216
111 AF1 190 9.705
111 AF1 191 10.681
111 AF1 192 11.169
111 AF1 193 11.658
111 AF1 194 11.658
111 AF1 195 11.658
111 AF1 196 12.146
111 AF1 197 13.123
111 AF1 198 14.587
111 AF1 199 16.541
111 AF1 200 17.517
111 AF1 201 18.494
111 AF1 202 19.470
111 AF1 203 19.470
111 AF1 204 19.958
111 AF1 205 20.447
111 AF1 206 23.865
111 AF1 207 29.724
111 AF1 208 38.025
111 AF1 209 47.791
111 AF1 210 55.603
111 AF1 211 61.462
111 AF1 212 65.369
111 AF1 213 67.322
111 AF1 214 68.787
111 AF1 215 70.251
111 AF1 216 71.716
111 AF1 217 73.181
111 AF1 218 74.646
111 AF1 219 76.111
111 AF1 220 76.599
111 AF1 221 75.134
111 AF1 222 72.205
111 AF1 223 67.810
111 AF1 224 63.904
111 AF1 225 61.462
111 AF1 226 61.462
111 AF1 227 61.951
111 AF1 228 61.462
111 AF1 229 60.486
111 AF1 230 58.533
111 AF1 231 56.580
111 AF1 232 55.115
111 AF1 233 52.673
111 AF1 234 50.232
111 AF1 235 47.791
111 AF1 236 45.349
111 AF1 237 43.884
111 AF1 238 42.419
111 AF1 239 41.443
111 AF1 240 40.466
111 AF1 241 39.490
111 AF1 242 39.978
111 AF1 243 41.443
111 AF1 244 43.884
111 AF1 245 45.349
111 AF1 246 44.861
111 AF1 247 42.908
111 AF1 248 40.466
111 AF1 249 38.513
111 AF1 250 37.537
111 AF1 251 37.537
111 AF1 252 38.025
111 AF1 253 38.025
111 AF1 254 37.048
111 AF1 255 35.583
# AF2 chan 5
111 AF2 0 0.885
111 AF2 1 2.350
111 AF2 2 2.838
111 AF2 3 2.350
111 AF2 4 1.862
111 AF2 5 2.350
111 AF2 6 4.303
111 AF2 7 5.768
111 AF2 8 7.233
111 AF2 9 7.721
111 AF2 10 7.721
111 AF2 11 7.721
111 AF2 12 8.209
111 AF2 13 9.674
111 AF2 14 10.162
111 AF2 15 9.674
111 AF2 16 8.698
111 AF2 17 8.209
111 AF2 18 8.209
111 AF2 19 8.209
111 AF2 20 8.698
111 AF2 21 8.209
111 AF2 22 7.233
111 AF2 23 6.256
111 AF2 24 5.768
111 AF2 25 5.280
111 AF2 26 4.303
111 AF2 27 3.326
111 AF2 28 2.350
111 AF2 29 2.350
111 AF2 30 3.326
111 AF2 31 4.791
111 AF2 32 5.768
111 AF2 33 5.768
111 AF2 34 6.744
111 AF2 35 7.721
111 AF2 36 9.674
111 AF2 37 10.651
111 AF2 38 10.162
111 AF2 39 7.721
111 AF2 40 4.791
111 AF2 41 2.350
111 AF2 42 1.862
111 AF2 43 2.838
111 AF2 44 4.303
111 AF2 45 5.280
111 AF2 46 4.791
111 AF2 47 4.791
111 AF2 48 5.768
111 AF2 49 6.744
111 AF2 50 7.233
111 AF2 51 7.721
111 AF2 52 7.721
111 AF2 53 8.698
111 AF2 54 9.674
111 AF2 55 10.651
111 AF2 56 10.651
111 AF2 57 9.186
111 AF2 58 7.233
111 AF2 59 5.768
111 AF2 60 5.280
111 AF2 61 5.280
111 AF2 62 5.280
111 AF2 63 4.791
111 AF2 64 4.303
111 AF2 65 3.815
111 AF2 66 3.815
111 AF2 67 5.280
111 AF2 68 6.744
111 AF2 69 6.744
111 AF2 70 6.744
111 AF2 71 6.256
111 AF2 72 5.280
111 AF2 73 5.768
111 AF2 74 6.744
111 AF2 75 8.698
111 AF2 76 9.674
111 AF2 77 9.674
111 AF2 78 8.209
111 AF2 79 6.744
111 AF2 80 5.768
111 AF2 81 6.256
111 AF2 82 6.744
111 AF2 83 7.721
111 AF2 84 7.233
111 AF2 85 5.768
111 AF2 86 4.303
111 AF2 87 2.838
111 AF2 88 1.862
111 AF2 89 0.885
111 AF2 90 0.885
111 AF2 91 1.373
111 AF2 92 1.862
111 AF2 93 3.815
111 AF2 94 5.280
111 AF2 95 5.280
111 AF2 96 4.791
111 AF2 97 3.815
111 AF2 98 2.838
111 AF2 99 2.838
111 AF2 100 3.326
111 AF2 101 4.791
111 AF2 102 5.768
111 AF2 103 6.256
111 AF2 104 5.768
111 AF2 105 5.768
111 AF2 106 6.744
111 AF2 107 8.209
111 AF2 108 9.674
111 AF2 109 10.651
111 AF2 110 10.162
111 AF2 111 9.186
111 AF2 112 8.209
111 AF2 113 8.698
111 AF2 114 10.162
111 AF2 115 12.115
111 AF2 116 13.580
111 AF2 117 13.092
111 AF2 118 11.627
111 AF2 119 9.674
111 AF2 120 8.209
111 AF2 121 8.698
111 AF2 122 9.674
111 AF2 123 10.651
111 AF2 124 11.627
111 AF2 125 12.115
111 AF2 126 11.627
111 AF2 127 10.651
111 AF2 128 9.674
111 AF2 129 8.209
111 AF2 130 6.744
111 AF2 131 5.280
111 AF2 132 4.303
111 AF2 133 4.303
111 AF2 134 5.280
111 AF2 135 8.209
111 AF2 136 11.139
111 AF2 137 14.069
111 AF2 138 16.510
111 AF2 139 17.487
111 AF2 140 16.998
111 AF2 141 15.533
111 AF2 142 13.580
111 AF2 143 11.627
111 AF2 144 9.674
111 AF2 145 9.674
111 AF2 146 10.651
111 AF2 147 13.092
111 AF2 148 15.533
111 AF2 149 16.510
111 AF2 150 16.022
111 AF2 151 14.557
111 AF2 152 12.604
111 AF2 153 11.627
111 AF2 154 11.139
111 AF2 155 11.627
111 AF2 156 11.627
111 AF2 157 12.115
111 AF2 158 12.115
111 AF2 159 12.604
111 AF2 160 13.580
111 AF2 161 15.533
111 AF2 162 16.998
111 AF2 163 17.975
111 AF2 164 17.975
111 AF2 165 17.487
111 AF2 166 16.998
111 AF2 167 16.998
111 AF2 168 16.022
111 AF2 169 14.069
111 AF2 170 11.627
111 AF2 171 10.162
111 AF2 172 9.674
111 AF2 173 10.651
111 AF2 174 12.115
111 AF2 175 12.604
111 AF2 176 11.627
111 AF2 177 10.162
111 AF2 178 8.698
111 AF2 179 9.186
111 AF2 180 10.651
111 AF2 181 13.092
111 AF2 182 15.533
111 AF2 183 16.998
111 AF2 184 17.975
111 AF2 185 17.975
111 AF2 186 17.487
111 AF2 187 17.487
111 AF2 188 16.998
111 AF2 189 16.998
111 AF2 190 17.975
111 AF2 191 18.951
111 AF2 192 19.928
111 AF2 193 20.416
111 AF2 194 20.905
111 AF2 195 21.393
111 AF2 196 22.369
111 AF2 197 22.858
111 AF2 198 23.346
111 AF2 199 23.346
111 AF2 200 23.346
111 AF2 201 24.323
111 AF2 202 25.787
111 AF2 203 27.252
111 AF2 204 28.717
111 AF2 205 30.670
111 AF2 206 33.600
111 AF2 207 38.971
111 AF2 208 46.783
111 AF2 209 56.061
111 AF2 210 64.362
111 AF2 211 69.733
111 AF2 212 73.151
111 AF2 213 75.104
111 AF2 214 76.080
111 AF2 215 77.545
111 AF2 216 79.498
111 AF2 217 80.963
111 AF2 218 81.451
111 AF2 219 82.428
111 AF2 220 82.916
111 AF2 221 82.428
111 AF2 222 80.475
111 AF2 223 77.057
111 AF2 224 72.662
111 AF2 225 68.756
111 AF2 226 67.780
111 AF2 227 68.756
111 AF2 228 70.221
111 AF2 229 70.221
111 AF2 230 68.756
111 AF2 231 65.826
111 AF2 232 62.897
111 AF2 233 60.455
111 AF2 234 58.502
111 AF2 235 56.549
111 AF2 236 54.596
111 AF2 237 53.131
111 AF2 238 52.643
111 AF2 239 52.155
111 AF2 240 52.155
111 AF2 241 51.666
111 AF2 242 51.666
111 AF2 243 52.155
111 AF2 244 53.131
111 AF2 245 53.619
111 AF2 246 53.131
111 AF2 247 51.666
111 AF2 248 49.713
111 AF2 249 47.760
111 AF2 250 47.272
111 AF2 251 47.272
111 AF2 252 48.248
111 AF2 253 47.760
111 AF2 254 46.783
111 AF2 255 44.830
# FZ chan 6
111 FZ 0 -1.831
111 FZ 1 -1.343
111 FZ 2 -0.366
111 FZ 3 0.610
111 FZ 4 1.099
111 FZ 5 0.610
111 FZ 6 0.610
111 FZ 7 1.099
111 FZ 8 1.587
111 FZ 9 2.563
111 FZ 10 3.540
111 FZ 11 4.028
111 FZ 12 4.517
111 FZ 13 5.005
111 FZ 14 5.493
111 FZ 15 5.005
111 FZ 16 4.517
111 FZ 17 3.540
111 FZ 18 3.540
111 FZ 19 4.028
111 FZ 20 5.493
111 FZ 21 6.470
111 FZ 22 6.470
111 FZ 23 5.005
111 FZ 24 3.052
111 FZ 25 1.099
111 FZ 26 -0.366
111 FZ 27 -0.366
111 FZ 28 -0.366
111 FZ 29 0.610
111 FZ 30 1.587
111 FZ 31 2.563
111 FZ 32 3.540
111 FZ 33 4.028
111 FZ 34 5.005
111 FZ 35 5.981
111 FZ 36 7.446
111 FZ 37 8.911
111 FZ 38 9.888
111 FZ 39 8.911
111 FZ 40 6.958
111 FZ 41 4.028
111 FZ 42 3.052
111 FZ 43 2.563
111 FZ 44 4.028
111 FZ 45 5.493
111 FZ 46 5.981
111 FZ 47 6.470
111 FZ 48 6.470
111 FZ 49 6.958
111 FZ 50 7.446
111 FZ 51 7.935
111 FZ 52 8.423
111 FZ 53 8.911
111 FZ 54 8.911
111 FZ 55 8.423
111 FZ 56 7.446
111 FZ 57 5.981
111 FZ 58 4.517
111 FZ 59 4.028
111 FZ 60 4.028
111 FZ 61 4.517
111 FZ 62 4.517
111 FZ 63 4.517
111 FZ 64 4.028
111 FZ 65 4.028
111 FZ 66 4.517
111 FZ 67 5.005
111 FZ 68 5.493
111 FZ 69 5.005
111 FZ 70 5.005
111 FZ 71 4.517
111 FZ 72 4.517
111 FZ 73 5.005
111 FZ 74 5.493
111 FZ 75 6.958
111 FZ 76 8.423
111 FZ 77 9.399
111 FZ 78 9.399
111 FZ 79 8.423
111 FZ 80 7.446
111 FZ 81 6.470
111 FZ 82 6.958
111 FZ 83 7.446
111 FZ 84 8.423
111 FZ 85 8.423
111 FZ 86 7.446
111 FZ 87 5.981
111 FZ 88 4.028
111 FZ 89 2.563
111 FZ 90 2.075
111 FZ 91 2.563
111 FZ 92 3.540
111 FZ 93 4.517
111 FZ 94 5.005
111 FZ 95 5.005
111 FZ 96 5.005
111 FZ 97 4.517
111 FZ 98 4.517
111 FZ 99 5.005
111 FZ 100 5.981
111 FZ 101 6.470
111 FZ 102 7.446
111 FZ 103 7.935
111 FZ 104 7.935
111 FZ 105 7.935
111 FZ 106 6.958
111 FZ 107 6.958
111 FZ 108 7.446
111 FZ 109 8.911
111 FZ 110 9.888
111 FZ 111 9.888
111 FZ 112 9.888
111 FZ 113 9.399
111 FZ 114 9.888
111 FZ 115 11.353
111 FZ 116 12.329
111 FZ 117 13.306
111 FZ 118 13.306
111 FZ 119 11.841
111 FZ 120 10.864
111 FZ 121 9.888
111 FZ 122 9.888
111 FZ 123 10.864
111 FZ 124 11.353
111 FZ 125 11.841
111 FZ 126 11.353
111 FZ 127 10.376
111 FZ 128 9.399
111 FZ 129 8.423
111 FZ 130 7.935
111 FZ 131 7.446
111 FZ 132 6.470
111 FZ 133 5.981
111 FZ 134 6.470
111 FZ 135 7.935
111 FZ 136 9.888
111 FZ 137 11.841
111 FZ 138 13.306
111 FZ 139 14.282
111 FZ 140 13.794
111 FZ 141 12.817
111 FZ 142 11.353
111 FZ 143 9.399
111 FZ 144 7.446
111 FZ 145 5.981
111 FZ 146 5.493
111 FZ 147 6.470
111 FZ 148 7.935
111 FZ 149 9.888
111 FZ 150 11.353
111 FZ 151 12.329
111 FZ 152 11.841
111 FZ 153 10.864
111 FZ 154 9.399
111 FZ 155 8.423
111 FZ 156 7.935
111 FZ 157 7.935
111 FZ 158 7.935
111 FZ 159 8.423
111 FZ 160 9.399
111 FZ 161 10.376
111 FZ 162 11.841
111 FZ 163 13.794
111 FZ 164 14.771
111 FZ 165 14.771
111 FZ 166 14.771
111 FZ 167 13.794
111 FZ 168 12.817
111 FZ 169 11.353
111 FZ 170 10.376
111 FZ 171 9.888
111 FZ 172 10.376
111 FZ 173 10.864
111 FZ 174 11.841
111 FZ 175 12.329
111 FZ 176 11.841
111 FZ 177 10.376
111 FZ 178 8.423
111 FZ 179 7.935
111 FZ 180 8.423
111 FZ 181 10.864
111 FZ 182 13.306
111 FZ 183 15.747
111 FZ 184 16.235
111 FZ 185 15.259
111 FZ 186 13.794
111 FZ 187 11.353
111 FZ 188 10.376
111 FZ 189 10.864
111 FZ 190 12.329
111 FZ 191 14.771
111 FZ 192 15.259
111 FZ 193 15.259
111 FZ 194 14.771
111 FZ 195 14.282
111 FZ 196 14.282
111 FZ 197 14.771
111 FZ 198 15.259
111 FZ 199 15.259
111 FZ 200 15.259
111 FZ 201 16.235
111 FZ 202 17.212
111 FZ 203 17.700
111 FZ 204 17.700
111 FZ 205 17.700
111 FZ 206 18.188
111 FZ 207 20.630
111 FZ 208 25.513
111 FZ 209 31.372
111 FZ 210 36.255
111 FZ 211 39.185
111 FZ 212 40.649
111 FZ 213 41.138
111 FZ 214 42.114
111 FZ 215 43.579
111 FZ 216 45.044
111 FZ 217 46.509
111 FZ 218 47.485
111 FZ 219 47.974
111 FZ 220 48.950
111 FZ 221 49.438
111 FZ 222 48.462
111 FZ 223 46.509
111 FZ 224 43.091
111 FZ 225 40.649
111 FZ 226 39.185
111 FZ 227 39.673
111 FZ 228 41.138
111 FZ 229 42.114
111 FZ 230 42.114
111 FZ 231 41.138
111 FZ 232 39.673
111 FZ 233 37.720
111 FZ 234 35.767
111 FZ 235 34.302
111 FZ 236 32.837
111 FZ 237 32.349
111 FZ 238 31.860
111 FZ 239 31.372
111 FZ 240 30.884
111 FZ 241 30.884
111 FZ 242 30.884
111 FZ 243 31.372
111 FZ 244 32.349
111 FZ 245 32.837
111 FZ 246 33.325
111 FZ 247 32.349
111 FZ 248 30.884
111 FZ 249 29.907
111 FZ 250 29.419
111 FZ 251 29.419
111 FZ 252 29.907
111 FZ 253 29.419
111 FZ 254 28.442
111 FZ 255 26.978
# F4 chan 7
111 F4 0 -1.444
111 F4 1 -0.956
111 F4 2 -0.468
111 F4 3 0.020
111 F4 4 0.020
111 F4 5 0.509
111 F4 6 1.485
111 F4 7 2.950
111 F4 8 4.415
111 F4 9 5.391
111 F4 10 6.368
111 F4 11 6.368
111 F4 12 6.368
111 F4 13 6.368
111 F4 14 7.345
111 F4 15 8.321
111 F4 16 8.809
111 F4 17 7.833
111 F4 18 4.903
111 F4 19 2.462
111 F4 20 1.485
111 F4 21 2.950
111 F4 22 6.368
111 F4 23 9.298
111 F4 24 9.786
111 F4 25 7.345
111 F4 26 3.927
111 F4 27 0.997
111 F4 28 0.509
111 F4 29 2.462
111 F4 30 5.391
111 F4 31 6.368
111 F4 32 4.903
111 F4 33 2.950
111 F4 34 1.485
111 F4 35 1.973
111 F4 36 4.415
111 F4 37 7.345
111 F4 38 8.321
111 F4 39 7.833
111 F4 40 5.880
111 F4 41 3.438
111 F4 42 1.973
111 F4 43 1.485
111 F4 44 1.973
111 F4 45 2.462
111 F4 46 2.462
111 F4 47 2.950
111 F4 48 3.438
111 F4 49 3.438
111 F4 50 3.438
111 F4 51 3.438
111 F4 52 4.903
111 F4 53 7.833
111 F4 54 9.786
111 F4 55 10.763
111 F4 56 9.786
111 F4 57 7.345
111 F4 58 5.391
111 F4 59 4.903
111 F4 60 5.391
111 F4 61 5.880
111 F4 62 5.391
111 F4 63 3.927
111 F4 64 2.462
111 F4 65 1.485
111 F4 66 1.485
111 F4 67 2.462
111 F4 68 3.438
111 F4 69 3.927
111 F4 70 4.415
111 F4 71 4.903
111 F4 72 4.903
111 F4 73 5.391
111 F4 74 5.880
111 F4 75 7.345
111 F4 76 8.321
111 F4 77 8.809
111 F4 78 8.321
111 F4 79 6.856
111 F4 80 6.368
111 F4 81 5.880
111 F4 82 5.880
111 F4 83 5.880
111 F4 84 4.903
111 F4 85 3.438
111 F4 86 1.973
111 F4 87 0.997
111 F4 88 0.020
111 F4 89 0.509
111 F4 90 1.485
111 F4 91 2.950
111 F4 92 3.927
111 F4 93 4.903
111 F4 94 3.927
111 F4 95 2.950
111 F4 96 0.997
111 F4 97 0.020
111 F4 98 0.020
111 F4 99 1.485
111 F4 100 3.438
111 F4 101 4.903
111 F4 102 5.391
111 F4 103 4.903
111 F4 104 3.927
111 F4 105 2.950
111 F4 106 2.950
111 F4 107 4.903
111 F4 108 7.833
111 F4 109 10.274
111 F4 110 11.739
111 F4 111 11.251
111 F4 112 9.298
111 F4 113 6.856
111 F4 114 5.391
111 F4 115 5.391
111 F4 116 6.856
111 F4 117 8.321
111 F4 118 9.298
111 F4 119 8.809
111 F4 120 7.345
111 F4 121 5.391
111 F4 122 3.927
111 F4 123 3.927
111 F4 124 4.903
111 F4 125 6.856
111 F4 126 8.809
111 F4 127 10.274
111 F4 128 9.786
111 F4 129 7.345
111 F4 130 3.927
111 F4 131 0.997
111 F4 132 -0.468
111 F4 133 0.997
111 F4 134 4.903
111 F4 135 9.298
111 F4 136 12.227
111 F4 137 13.204
111 F4 138 13.692
111 F4 139 13.692
111 F4 140 13.692
111 F4 141 13.692
111 F4 142 12.227
111 F4 143 9.786
111 F4 144 6.368
111 F4 145 4.415
111 F4 146 4.415
111 F4 147 6.368
111 F4 148 9.298
111 F4 149 11.251
111 F4 150 11.251
111 F4 151 10.274
111 F4 152 7.833
111 F4 153 5.880
111 F4 154 5.391
111 F4 155 6.368
111 F4 156 8.321
111 F4 157 10.274
111 F4 158 11.739
111 F4 159 11.251
111 F4 160 9.786
111 F4 161 8.809
111 F4 162 9.786
111 F4 163 11.739
111 F4 164 14.669
111 F4 165 16.134
111 F4 166 15.645
111 F4 167 13.692
111 F4 168 10.763
111 F4 169 8.321
111 F4 170 5.880
111 F4 171 4.903
111 F4 172 4.903
111 F4 173 5.391
111 F4 174 5.880
111 F4 175 5.880
111 F4 176 6.368
111 F4 177 6.368
111 F4 178 5.880
111 F4 179 4.903
111 F4 180 4.903
111 F4 181 6.368
111 F4 182 9.298
111 F4 183 12.227
111 F4 184 13.692
111 F4 185 12.227
111 F4 186 8.809
111 F4 187 5.880
111 F4 188 5.880
111 F4 189 8.809
111 F4 190 12.716
111 F4 191 15.157
111 F4 192 14.669
111 F4 193 11.739
111 F4 194 9.786
111 F4 195 9.786
111 F4 196 11.739
111 F4 197 13.204
111 F4 198 11.739
111 F4 199 9.298
111 F4 200 7.345
111 F4 201 8.809
111 F4 202 12.227
111 F4 203 15.645
111 F4 204 17.110
111 F4 205 16.622
111 F4 206 17.110
111 F4 207 20.528
111 F4 208 27.364
111 F4 209 35.177
111 F4 210 41.036
111 F4 211 42.989
111 F4 212 42.501
111 F4 213 42.501
111 F4 214 44.942
111 F4 215 48.848
111 F4 216 51.778
111 F4 217 51.778
111 F4 218 49.337
111 F4 219 47.384
111 F4 220 46.895
111 F4 221 48.848
111 F4 222 50.313
111 F4 223 48.848
111 F4 224 43.477
111 F4 225 37.130
111 F4 226 33.712
111 F4 227 34.200
111 F4 228 38.595
111 F4 229 42.501
111 F4 230 44.454
111 F4 231 42.501
111 F4 232 39.571
111 F4 233 36.153
111 F4 234 34.200
111 F4 235 32.735
111 F4 236 31.270
111 F4 237 30.294
111 F4 238 30.782
111 F4 239 31.759
111 F4 240 32.735
111 F4 241 33.223
111 F4 242 32.247
111 F4 243 31.759
111 F4 244 31.759
111 F4 245 32.247
111 F4 246 32.735
111 F4 247 32.247
111 F4 248 30.782
111 F4 249 29.806
111 F4 250 29.806
111 F4 251 30.294
111 F4 252 30.294
111 F4 253 29.317
111 F4 254 27.364
111 F4 255 25.899
# F3 chan 8
111 F3 0 -5.514
111 F3 1 -4.537
111 F3 2 -1.607
111 F3 3 1.322
111 F3 4 2.787
111 F3 5 2.787
111 F3 6 1.322
111 F3 7 -0.142
111 F3 8 -1.119
111 F3 9 -1.119
111 F3 10 0.346
111 F3 11 2.299
111 F3 12 4.252
111 F3 13 4.740
111 F3 14 3.764
111 F3 15 1.811
111 F3 16 -0.631
111 F3 17 -2.096
111 F3 18 -1.607
111 F3 19 0.834
111 F3 20 4.252
111 F3 21 5.229
111 F3 22 2.787
111 F3 23 -2.096
111 F3 24 -7.467
111 F3 25 -10.396
111 F3 26 -10.885
111 F3 27 -8.443
111 F3 28 -5.514
111 F3 29 -3.560
111 F3 30 -2.584
111 F3 31 -1.607
111 F3 32 -0.142
111 F3 33 1.322
111 F3 34 2.299
111 F3 35 2.787
111 F3 36 2.787
111 F3 37 2.787
111 F3 38 3.276
111 F3 39 1.811
111 F3 40 -1.119
111 F3 41 -5.514
111 F3 42 -8.443
111 F3 43 -8.443
111 F3 44 -5.025
111 F3 45 -1.119
111 F3 46 1.322
111 F3 47 0.834
111 F3 48 -0.631
111 F3 49 -2.096
111 F3 50 -1.119
111 F3 51 1.322
111 F3 52 3.764
111 F3 53 4.740
111 F3 54 2.787
111 F3 55 -1.119
111 F3 56 -5.514
111 F3 57 -9.908
111 F3 58 -12.349
111 F3 59 -10.885
111 F3 60 -7.467
111 F3 61 -4.049
111 F3 62 -2.584
111 F3 63 -4.049
111 F3 64 -6.978
111 F3 65 -9.420
111 F3 66 -9.420
111 F3 67 -7.955
111 F3 68 -6.002
111 F3 69 -5.025
111 F3 70 -6.490
111 F3 71 -8.443
111 F3 72 -10.885
111 F3 73 -12.349
111 F3 74 -12.838
111 F3 75 -12.349
111 F3 76 -10.885
111 F3 77 -9.420
111 F3 78 -7.467
111 F3 79 -6.978
111 F3 80 -7.467
111 F3 81 -7.955
111 F3 82 -8.443
111 F3 83 -7.955
111 F3 84 -7.467
111 F3 85 -7.467
111 F3 86 -8.931
111 F3 87 -11.861
111 F3 88 -14.303
111 F3 89 -15.767
111 F3 90 -15.279
111 F3 91 -14.303
111 F3 92 -13.814
111 F3 93 -14.303
111 F3 94 -15.767
111 F3 95 -16.744
111 F3 96 -16.256
111 F3 97 -14.791
111 F3 98 -13.326
111 F3 99 -13.326
111 F3 100 -14.303
111 F3 101 -14.303
111 F3 102 -12.838
111 F3 103 -10.396
111 F3 104 -7.955
111 F3 105 -7.955
111 F3 106 -9.420
111 F3 107 -11.373
111 F3 108 -11.861
111 F3 109 -11.861
111 F3 110 -10.885
111 F3 111 -11.373
111 F3 112 -12.838
111 F3 113 -14.303
111 F3 114 -14.791
111 F3 115 -12.838
111 F3 116 -10.396
111 F3 117 -8.931
111 F3 118 -8.931
111 F3 119 -10.885
111 F3 120 -13.326
111 F3 121 -14.791
111 F3 122 -13.814
111 F3 123 -10.885
111 F3 124 -8.443
111 F3 125 -6.978
111 F3 126 -8.443
111 F3 127 -11.373
111 F3 128 -13.326
111 F3 129 -13.814
111 F3 130 -11.861
111 F3 131 -9.908
111 F3 132 -9.420
111 F3 133 -10.885
111 F3 134 -12.838
111 F3 135 -13.326
111 F3 136 -11.373
111 F3 137 -8.931
111 F3 138 -7.467
111 F3 139 -7.467
111 F3 140 -9.420
111 F3 141 -11.373
111 F3 142 -13.326
111 F3 143 -13.814
111 F3 144 -13.326
111 F3 145 -13.326
111 F3 146 -13.326
111 F3 147 -13.326
111 F3 148 -11.861
111 F3 149 -10.396
111 F3 150 -8.443
111 F3 151 -6.978
111 F3 152 -6.490
111 F3 153 -7.467
111 F3 154 -8.931
111 F3 155 -10.396
111 F3 156 -11.373
111 F3 157 -12.349
111 F3 158 -12.838
111 F3 159 -13.326
111 F3 160 -13.814
111 F3 161 -12.838
111 F3 162 -11.373
111 F3 163 -10.396
111 F3 164 -9.908
111 F3 165 -9.908
111 F3 166 -10.396
111 F3 167 -10.885
111 F3 168 -12.838
111 F3 169 -15.279
111 F3 170 -18.209
111 F3 171 -19.185
111 F3 172 -18.209
111 F3 173 -15.279
111 F3 174 -12.349
111 F3 175 -11.373
111 F3 176 -12.838
111 F3 177 -16.256
111 F3 178 -18.209
111 F3 179 -18.697
111 F3 180 -17.232
111 F3 181 -13.814
111 F3 182 -10.885
111 F3 183 -8.443
111 F3 184 -7.467
111 F3 185 -8.443
111 F3 186 -10.885
111 F3 187 -14.791
111 F3 188 -18.209
111 F3 189 -19.185
111 F3 190 -17.232
111 F3 191 -13.326
111 F3 192 -9.908
111 F3 193 -9.420
111 F3 194 -11.861
111 F3 195 -14.303
111 F3 196 -14.303
111 F3 197 -11.861
111 F3 198 -7.955
111 F3 199 -5.514
111 F3 200 -4.537
111 F3 201 -5.025
111 F3 202 -5.514
111 F3 203 -5.514
111 F3 204 -6.002
111 F3 205 -6.978
111 F3 206 -7.955
111 F3 207 -6.490
111 F3 208 -2.584
111 F3 209 4.252
111 F3 210 10.600
111 F3 211 14.506
111 F3 212 16.947
111 F3 213 17.924
111 F3 214 19.389
111 F3 215 20.854
111 F3 216 22.807
111 F3 217 23.295
111 F3 218 23.783
111 F3 219 23.295
111 F3 220 23.295
111 F3 221 22.807
111 F3 222 22.319
111 F3 223 20.854
111 F3 224 18.901
111 F3 225 16.459
111 F3 226 14.018
111 F3 227 11.576
111 F3 228 10.600
111 F3 229 11.088
111 F3 230 13.041
111 F3 231 14.994
111 F3 232 15.971
111 F3 233 14.994
111 F3 234 12.065
111 F3 235 9.135
111 F3 236 6.694
111 F3 237 6.205
111 F3 238 5.229
111 F3 239 4.740
111 F3 240 3.764
111 F3 241 3.276
111 F3 242 3.764
111 F3 243 5.229
111 F3 244 6.694
111 F3 245 7.670
111 F3 246 7.182
111 F3 247 6.205
111 F3 248 4.740
111 F3 249 2.299
111 F3 250 -0.142
111 F3 251 -2.096
111 F3 252 -3.072
111 F3 253 -2.584
111 F3 254 -2.096
111 F3 255 -2.584
# FC6 chan 9
111 FC6 0 -10.976
111 FC6 1 -12.929
111 FC6 2 -7.558
111 FC6 3 3.184
111 FC6 4 12.461
111 FC6 5 14.414
111 FC6 6 9.532
111 FC6 7 2.696
111 FC6 8 0.743
111 FC6 9 6.114
111 FC6 10 14.414
111 FC6 11 19.297
111 FC6 12 18.321
111 FC6 13 15.391
111 FC6 14 14.414
111 FC6 15 17.344
111 FC6 16 18.321
111 FC6 17 12.461
111 FC6 18 -0.722
111 FC6 19 -12.929
111 FC6 20 -14.394
111 FC6 21 -3.652
111 FC6 22 14.414
111 FC6 23 27.110
111 FC6 24 27.598
111 FC6 25 17.344
111 FC6 26 6.114
111 FC6 27 0.743
111 FC6 28 3.184
111 FC6 29 9.532
111 FC6 30 13.438
111 FC6 31 10.997
111 FC6 32 3.184
111 FC6 33 -6.093
111 FC6 34 -10.488
111 FC6 35 -8.046
111 FC6 36 0.743
111 FC6 37 10.508
111 FC6 38 16.368
111 FC6 39 17.344
111 FC6 40 14.903
111 FC6 41 11.973
111 FC6 42 10.997
111 FC6 43 9.532
111 FC6 44 6.602
111 FC6 45 1.719
111 FC6 46 -2.675
111 FC6 47 -6.093
111 FC6 48 -7.070
111 FC6 49 -6.582
111 FC6 50 -5.117
111 FC6 51 -1.699
111 FC6 52 4.161
111 FC6 53 11.485
111 FC6 54 17.344
111 FC6 55 19.297
111 FC6 56 18.809
111 FC6 57 16.368
111 FC6 58 15.391
111 FC6 59 14.414
111 FC6 60 12.950
111 FC6 61 9.532
111 FC6 62 5.137
111 FC6 63 1.231
111 FC6 64 -0.234
111 FC6 65 -0.234
111 FC6 66 -0.234
111 FC6 67 -0.234
111 FC6 68 0.743
111 FC6 69 3.672
111 FC6 70 7.579
111 FC6 71 11.485
111 FC6 72 13.438
111 FC6 73 10.997
111 FC6 74 6.114
111 FC6 75 2.207
111 FC6 76 1.231
111 FC6 77 4.649
111 FC6 78 10.020
111 FC6 79 13.926
111 FC6 80 13.926
111 FC6 81 10.020
111 FC6 82 4.649
111 FC6 83 1.719
111 FC6 84 2.207
111 FC6 85 4.649
111 FC6 86 6.114
111 FC6 87 3.672
111 FC6 88 -0.722
111 FC6 89 -5.117
111 FC6 90 -5.605
111 FC6 91 -1.211
111 FC6 92 6.114
111 FC6 93 11.485
111 FC6 94 11.485
111 FC6 95 6.114
111 FC6 96 -0.722
111 FC6 97 -5.117
111 FC6 98 -4.140
111 FC6 99 1.231
111 FC6 100 8.067
111 FC6 101 13.438
111 FC6 102 15.391
111 FC6 103 12.461
111 FC6 104 6.114
111 FC6 105 -1.699
111 FC6 106 -7.070
111 FC6 107 -7.070
111 FC6 108 -1.211
111 FC6 109 9.532
111 FC6 110 18.809
111 FC6 111 23.204
111 FC6 112 19.297
111 FC6 113 10.508
111 FC6 114 2.207
111 FC6 115 -0.722
111 FC6 116 3.184
111 FC6 117 11.973
111 FC6 118 20.274
111 FC6 119 23.692
111 FC6 120 20.762
111 FC6 121 12.950
111 FC6 122 4.161
111 FC6 123 -2.187
111 FC6 124 -3.652
111 FC6 125 0.254
111 FC6 126 8.067
111 FC6 127 15.391
111 FC6 128 17.832
111 FC6 129 12.950
111 FC6 130 3.672
111 FC6 131 -5.605
111 FC6 132 -8.046
111 FC6 133 -0.722
111 FC6 134 11.973
111 FC6 135 23.204
111 FC6 136 26.133
111 FC6 137 20.274
111 FC6 138 10.508
111 FC6 139 4.161
111 FC6 140 4.649
111 FC6 141 10.997
111 FC6 142 17.344
111 FC6 143 19.297
111 FC6 144 15.391
111 FC6 145 9.532
111 FC6 146 6.602
111 FC6 147 8.067
111 FC6 148 14.903
111 FC6 149 21.739
111 FC6 150 25.157
111 FC6 151 22.227
111 FC6 152 12.950
111 FC6 153 2.207
111 FC6 154 -3.164
111 FC6 155 0.743
111 FC6 156 12.950
111 FC6 157 25.645
111 FC6 158 29.551
111 FC6 159 22.227
111 FC6 160 9.532
111 FC6 161 1.719
111 FC6 162 5.625
111 FC6 163 17.832
111 FC6 164 30.528
111 FC6 165 33.946
111 FC6 166 26.622
111 FC6 167 13.438
111 FC6 168 0.743
111 FC6 169 -5.605
111 FC6 170 -5.117
111 FC6 171 0.254
111 FC6 172 6.602
111 FC6 173 12.461
111 FC6 174 15.391
111 FC6 175 16.856
111 FC6 176 15.879
111 FC6 177 12.950
111 FC6 178 9.043
111 FC6 179 6.114
111 FC6 180 6.114
111 FC6 181 10.997
111 FC6 182 19.297
111 FC6 183 27.598
111 FC6 184 29.063
111 FC6 185 21.250
111 FC6 186 8.067
111 FC6 187 -2.187
111 FC6 188 -0.722
111 FC6 189 11.485
111 FC6 190 24.180
111 FC6 191 28.086
111 FC6 192 19.786
111 FC6 193 6.602
111 FC6 194 -0.234
111 FC6 195 4.649
111 FC6 196 16.368
111 FC6 197 24.668
111 FC6 198 23.204
111 FC6 199 13.438
111 FC6 200 3.672
111 FC6 201 0.743
111 FC6 202 3.672
111 FC6 203 9.043
111 FC6 204 11.485
111 FC6 205 10.997
111 FC6 206 10.508
111 FC6 207 14.414
111 FC6 208 21.739
111 FC6 209 28.086
111 FC6 210 29.063
111 FC6 211 24.180
111 FC6 212 18.321
111 FC6 213 16.856
111 FC6 214 23.204
111 FC6 215 32.969
111 FC6 216 39.805
111 FC6 217 37.364
111 FC6 218 25.645
111 FC6 219 11.973
111 FC6 220 4.649
111 FC6 221 8.067
111 FC6 222 18.321
111 FC6 223 27.110
111 FC6 224 27.110
111 FC6 225 18.321
111 FC6 226 8.067
111 FC6 227 4.649
111 FC6 228 11.485
111 FC6 229 24.668
111 FC6 230 35.899
111 FC6 231 38.829
111 FC6 232 31.993
111 FC6 233 19.786
111 FC6 234 8.067
111 FC6 235 2.207
111 FC6 236 3.672
111 FC6 237 11.973
111 FC6 238 22.227
111 FC6 239 28.575
111 FC6 240 28.575
111 FC6 241 22.715
111 FC6 242 16.368
111 FC6 243 13.926
111 FC6 244 16.856
111 FC6 245 22.227
111 FC6 246 25.157
111 FC6 247 25.645
111 FC6 248 24.180
111 FC6 249 23.204
111 FC6 250 22.715
111 FC6 251 20.762
111 FC6 252 17.344
111 FC6 253 13.438
111 FC6 254 13.438
111 FC6 255 18.809
# FC5 chan 10
111 FC5 0 -18.575
111 FC5 1 -13.204
111 FC5 2 -0.020
111 FC5 3 13.163
111 FC5 4 18.046
111 FC5 5 12.187
111 FC5 6 1.933
111 FC5 7 -6.368
111 FC5 8 -6.856
111 FC5 9 -1.485
111 FC5 10 5.839
111 FC5 11 11.698
111 FC5 12 15.605
111 FC5 13 18.046
111 FC5 14 18.534
111 FC5 15 13.163
111 FC5 16 1.933
111 FC5 17 -11.739
111 FC5 18 -17.598
111 FC5 19 -10.274
111 FC5 20 7.304
111 FC5 21 23.417
111 FC5 22 25.859
111 FC5 23 13.652
111 FC5 24 -4.903
111 FC5 25 -16.134
111 FC5 26 -13.692
111 FC5 27 -3.438
111 FC5 28 4.862
111 FC5 29 5.351
111 FC5 30 1.444
111 FC5 31 0.468
111 FC5 32 5.839
111 FC5 33 12.675
111 FC5 34 14.628
111 FC5 35 8.769
111 FC5 36 1.444
111 FC5 37 -0.997
111 FC5 38 4.374
111 FC5 39 9.745
111 FC5 40 8.280
111 FC5 41 -2.462
111 FC5 42 -14.181
111 FC5 43 -17.598
111 FC5 44 -8.809
111 FC5 45 4.862
111 FC5 46 13.652
111 FC5 47 12.675
111 FC5 48 6.327
111 FC5 49 2.909
111 FC5 50 8.280
111 FC5 51 18.046
111 FC5 52 23.905
111 FC5 53 19.999
111 FC5 54 7.304
111 FC5 55 -6.856
111 FC5 56 -16.134
111 FC5 57 -17.110
111 FC5 58 -11.739
111 FC5 59 -4.903
111 FC5 60 0.956
111 FC5 61 3.886
111 FC5 62 5.351
111 FC5 63 5.351
111 FC5 64 4.862
111 FC5 65 3.886
111 FC5 66 4.374
111 FC5 67 8.280
111 FC5 68 15.116
111 FC5 69 22.929
111 FC5 70 25.859
111 FC5 71 20.976
111 FC5 72 6.816
111 FC5 73 -9.786
111 FC5 74 -21.505
111 FC5 75 -21.505
111 FC5 76 -11.251
111 FC5 77 1.933
111 FC5 78 9.745
111 FC5 79 9.257
111 FC5 80 4.862
111 FC5 81 2.421
111 FC5 82 5.351
111 FC5 83 10.234
111 FC5 84 13.163
111 FC5 85 11.210
111 FC5 86 6.327
111 FC5 87 2.421
111 FC5 88 0.468
111 FC5 89 -0.020
111 FC5 90 -2.462
111 FC5 91 -6.856
111 FC5 92 -10.274
111 FC5 93 -10.763
111 FC5 94 -7.345
111 FC5 95 -2.462
111 FC5 96 0.468
111 FC5 97 1.444
111 FC5 98 -0.020
111 FC5 99 -1.485
111 FC5 100 -1.485
111 FC5 101 -0.020
111 FC5 102 1.933
111 FC5 103 4.374
111 FC5 104 6.327
111 FC5 105 7.304
111 FC5 106 8.280
111 FC5 107 8.769
111 FC5 108 10.234
111 FC5 109 12.187
111 FC5 110 12.187
111 FC5 111 8.280
111 FC5 112 -0.020
111 FC5 113 -9.786
111 FC5 114 -15.157
111 FC5 115 -12.716
111 FC5 116 -3.927
111 FC5 117 5.839
111 FC5 118 11.698
111 FC5 119 10.234
111 FC5 120 4.374
111 FC5 121 0.468
111 FC5 122 1.933
111 FC5 123 8.769
111 FC5 124 14.628
111 FC5 125 14.628
111 FC5 126 8.769
111 FC5 127 1.933
111 FC5 128 -0.020
111 FC5 129 4.374
111 FC5 130 11.210
111 FC5 131 14.140
111 FC5 132 10.722
111 FC5 133 4.374
111 FC5 134 0.956
111 FC5 135 2.909
111 FC5 136 7.304
111 FC5 137 10.234
111 FC5 138 8.769
111 FC5 139 3.886
111 FC5 140 -1.485
111 FC5 141 -4.415
111 FC5 142 -3.927
111 FC5 143 -0.509
111 FC5 144 4.862
111 FC5 145 8.769
111 FC5 146 10.234
111 FC5 147 7.304
111 FC5 148 2.909
111 FC5 149 1.444
111 FC5 150 5.351
111 FC5 151 12.675
111 FC5 152 18.534
111 FC5 153 18.534
111 FC5 154 14.140
111 FC5 155 9.745
111 FC5 156 9.257
111 FC5 157 10.234
111 FC5 158 9.257
111 FC5 159 4.374
111 FC5 160 -1.485
111 FC5 161 -3.438
111 FC5 162 1.444
111 FC5 163 9.745
111 FC5 164 15.605
111 FC5 165 13.652
111 FC5 166 4.862
111 FC5 167 -5.391
111 FC5 168 -10.274
111 FC5 169 -8.321
111 FC5 170 -3.438
111 FC5 171 0.956
111 FC5 172 2.421
111 FC5 173 2.421
111 FC5 174 4.374
111 FC5 175 8.280
111 FC5 176 11.210
111 FC5 177 10.234
111 FC5 178 4.862
111 FC5 179 -1.485
111 FC5 180 -3.927
111 FC5 181 0.956
111 FC5 182 12.187
111 FC5 183 22.929
111 FC5 184 27.323
111 FC5 185 21.952
111 FC5 186 8.769
111 FC5 187 -4.415
111 FC5 188 -10.763
111 FC5 189 -5.880
111 FC5 190 7.304
111 FC5 191 19.999
111 FC5 192 23.905
111 FC5 193 16.093
111 FC5 194 2.909
111 FC5 195 -6.368
111 FC5 196 -5.391
111 FC5 197 3.398
111 FC5 198 12.675
111 FC5 199 16.581
111 FC5 200 13.163
111 FC5 201 9.745
111 FC5 202 10.234
111 FC5 203 14.628
111 FC5 204 16.581
111 FC5 205 13.163
111 FC5 206 4.374
111 FC5 207 -1.485
111 FC5 208 -0.997
111 FC5 209 5.839
111 FC5 210 14.628
111 FC5 211 19.023
111 FC5 212 18.534
111 FC5 213 16.093
111 FC5 214 15.116
111 FC5 215 16.581
111 FC5 216 17.558
111 FC5 217 16.581
111 FC5 218 13.652
111 FC5 219 10.234
111 FC5 220 9.745
111 FC5 221 12.675
111 FC5 222 17.069
111 FC5 223 19.999
111 FC5 224 18.534
111 FC5 225 11.210
111 FC5 226 0.956
111 FC5 227 -7.345
111 FC5 228 -8.321
111 FC5 229 -0.020
111 FC5 230 13.652
111 FC5 231 25.859
111 FC5 232 29.277
111 FC5 233 22.929
111 FC5 234 11.698
111 FC5 235 1.933
111 FC5 236 -1.485
111 FC5 237 0.468
111 FC5 238 4.374
111 FC5 239 6.816
111 FC5 240 6.327
111 FC5 241 4.374
111 FC5 242 2.421
111 FC5 243 2.909
111 FC5 244 4.862
111 FC5 245 7.792
111 FC5 246 9.745
111 FC5 247 11.210
111 FC5 248 10.722
111 FC5 249 10.722
111 FC5 250 10.722
111 FC5 251 11.698
111 FC5 252 13.652
111 FC5 253 14.140
111 FC5 254 12.187
111 FC5 255 7.792
# FC2 chan 11
111 FC2 0 -1.862
111 FC2 1 -1.373
111 FC2 2 -0.397
111 FC2 3 0.092
111 FC2 4 0.580
111 FC2 5 0.092
111 FC2 6 0.092
111 FC2 7 0.580
111 FC2 8 1.068
111 FC2 9 1.556
111 FC2 10 1.556
111 FC2 11 1.556
111 FC2 12 1.068
111 FC2 13 1.556
111 FC2 14 2.045
111 FC2 15 3.021
111 FC2 16 3.510
111 FC2 17 3.021
111 FC2 18 2.045
111 FC2 19 1.556
111 FC2 20 1.068
111 FC2 21 2.045
111 FC2 22 3.510
111 FC2 23 3.998
111 FC2 24 3.510
111 FC2 25 2.533
111 FC2 26 1.068
111 FC2 27 1.068
111 FC2 28 1.556
111 FC2 29 2.533
111 FC2 30 3.021
111 FC2 31 3.021
111 FC2 32 1.556
111 FC2 33 1.068
111 FC2 34 1.068
111 FC2 35 1.556
111 FC2 36 3.021
111 FC2 37 4.486
111 FC2 38 4.974
111 FC2 39 3.510
111 FC2 40 2.045
111 FC2 41 0.580
111 FC2 42 0.580
111 FC2 43 0.580
111 FC2 44 0.580
111 FC2 45 0.092
111 FC2 46 -0.397
111 FC2 47 -0.397
111 FC2 48 0.092
111 FC2 49 1.068
111 FC2 50 1.556
111 FC2 51 1.556
111 FC2 52 1.556
111 FC2 53 1.556
111 FC2 54 2.045
111 FC2 55 2.045
111 FC2 56 2.045
111 FC2 57 1.556
111 FC2 58 1.068
111 FC2 59 1.068
111 FC2 60 1.068
111 FC2 61 1.068
111 FC2 62 0.580
111 FC2 63 0.092
111 FC2 64 -0.397
111 FC2 65 -0.397
111 FC2 66 -0.397
111 FC2 67 0.092
111 FC2 68 0.580
111 FC2 69 1.068
111 FC2 70 1.068
111 FC2 71 1.068
111 FC2 72 1.556
111 FC2 73 2.045
111 FC2 74 2.533
111 FC2 75 3.021
111 FC2 76 3.021
111 FC2 77 3.021
111 FC2 78 2.533
111 FC2 79 2.045
111 FC2 80 1.556
111 FC2 81 2.045
111 FC2 82 2.045
111 FC2 83 2.533
111 FC2 84 2.533
111 FC2 85 2.045
111 FC2 86 2.045
111 FC2 87 1.556
111 FC2 88 1.068
111 FC2 89 1.068
111 FC2 90 1.068
111 FC2 91 2.045
111 FC2 92 2.533
111 FC2 93 2.533
111 FC2 94 2.045
111 FC2 95 1.068
111 FC2 96 0.580
111 FC2 97 -0.397
111 FC2 98 0.092
111 FC2 99 0.580
111 FC2 100 1.556
111 FC2 101 2.045
111 FC2 102 2.045
111 FC2 103 1.556
111 FC2 104 1.068
111 FC2 105 0.092
111 FC2 106 0.580
111 FC2 107 1.556
111 FC2 108 3.021
111 FC2 109 4.974
111 FC2 110 5.951
111 FC2 111 5.951
111 FC2 112 5.463
111 FC2 113 3.998
111 FC2 114 3.021
111 FC2 115 2.533
111 FC2 116 3.021
111 FC2 117 3.998
111 FC2 118 3.998
111 FC2 119 3.998
111 FC2 120 3.021
111 FC2 121 2.045
111 FC2 122 1.068
111 FC2 123 0.580
111 FC2 124 0.092
111 FC2 125 1.068
111 FC2 126 1.556
111 FC2 127 2.533
111 FC2 128 2.533
111 FC2 129 2.533
111 FC2 130 1.556
111 FC2 131 0.092
111 FC2 132 -0.397
111 FC2 133 -0.397
111 FC2 134 0.580
111 FC2 135 2.045
111 FC2 136 3.510
111 FC2 137 4.486
111 FC2 138 4.486
111 FC2 139 4.486
111 FC2 140 4.486
111 FC2 141 4.486
111 FC2 142 3.510
111 FC2 143 2.533
111 FC2 144 0.580
111 FC2 145 -1.373
111 FC2 146 -1.862
111 FC2 147 -1.373
111 FC2 148 0.092
111 FC2 149 2.045
111 FC2 150 3.510
111 FC2 151 3.510
111 FC2 152 2.045
111 FC2 153 0.092
111 FC2 154 -0.885
111 FC2 155 -0.397
111 FC2 156 1.556
111 FC2 157 3.510
111 FC2 158 4.974
111 FC2 159 4.486
111 FC2 160 3.510
111 FC2 161 3.021
111 FC2 162 3.510
111 FC2 163 5.951
111 FC2 164 7.904
111 FC2 165 8.881
111 FC2 166 7.904
111 FC2 167 6.927
111 FC2 168 4.974
111 FC2 169 3.998
111 FC2 170 3.021
111 FC2 171 2.533
111 FC2 172 2.533
111 FC2 173 2.533
111 FC2 174 3.021
111 FC2 175 3.510
111 FC2 176 3.510
111 FC2 177 3.021
111 FC2 178 2.045
111 FC2 179 0.580
111 FC2 180 0.580
111 FC2 181 1.556
111 FC2 182 3.510
111 FC2 183 5.463
111 FC2 184 5.951
111 FC2 185 4.486
111 FC2 186 1.556
111 FC2 187 -0.397
111 FC2 188 -0.397
111 FC2 189 1.556
111 FC2 190 3.998
111 FC2 191 5.463
111 FC2 192 5.463
111 FC2 193 3.510
111 FC2 194 2.533
111 FC2 195 2.533
111 FC2 196 3.510
111 FC2 197 3.510
111 FC2 198 2.533
111 FC2 199 1.068
111 FC2 200 0.580
111 FC2 201 1.068
111 FC2 202 2.533
111 FC2 203 3.510
111 FC2 204 3.510
111 FC2 205 3.510
111 FC2 206 3.510
111 FC2 207 4.486
111 FC2 208 6.927
111 FC2 209 9.857
111 FC2 210 11.810
111 FC2 211 12.299
111 FC2 212 12.787
111 FC2 213 13.275
111 FC2 214 14.252
111 FC2 215 15.717
111 FC2 216 16.693
111 FC2 217 17.181
111 FC2 218 16.693
111 FC2 219 16.693
111 FC2 220 16.693
111 FC2 221 17.181
111 FC2 222 17.181
111 FC2 223 16.205
111 FC2 224 13.763
111 FC2 225 11.810
111 FC2 226 10.834
111 FC2 227 11.810
111 FC2 228 14.252
111 FC2 229 15.717
111 FC2 230 16.205
111 FC2 231 15.228
111 FC2 232 13.275
111 FC2 233 11.810
111 FC2 234 10.834
111 FC2 235 10.834
111 FC2 236 10.345
111 FC2 237 10.345
111 FC2 238 10.834
111 FC2 239 11.322
111 FC2 240 12.299
111 FC2 241 12.299
111 FC2 242 12.299
111 FC2 243 11.322
111 FC2 244 10.834
111 FC2 245 10.345
111 FC2 246 10.345
111 FC2 247 10.345
111 FC2 248 10.345
111 FC2 249 10.345
111 FC2 250 10.345
111 FC2 251 9.857
111 FC2 252 9.369
111 FC2 253 8.392
111 FC2 254 7.416
111 FC2 255 6.927
# FC1 chan 12
111 FC1 0 -3.133
111 FC1 1 -2.645
111 FC1 2 -1.180
111 FC1 3 0.773
111 FC1 4 1.750
111 FC1 5 0.773
111 FC1 6 -0.692
111 FC1 7 -1.668
111 FC1 8 -1.668
111 FC1 9 -0.692
111 FC1 10 0.773
111 FC1 11 1.750
111 FC1 12 2.726
111 FC1 13 3.215
111 FC1 14 2.726
111 FC1 15 2.238
111 FC1 16 0.773
111 FC1 17 -0.203
111 FC1 18 -0.203
111 FC1 19 1.261
111 FC1 20 3.703
111 FC1 21 5.656
111 FC1 22 6.144
111 FC1 23 4.679
111 FC1 24 1.261
111 FC1 25 -1.180
111 FC1 26 -2.157
111 FC1 27 -1.180
111 FC1 28 0.285
111 FC1 29 1.261
111 FC1 30 1.261
111 FC1 31 1.261
111 FC1 32 1.750
111 FC1 33 2.726
111 FC1 34 3.703
111 FC1 35 4.191
111 FC1 36 4.191
111 FC1 37 4.679
111 FC1 38 5.168
111 FC1 39 5.656
111 FC1 40 4.679
111 FC1 41 2.726
111 FC1 42 0.773
111 FC1 43 0.285
111 FC1 44 1.261
111 FC1 45 2.726
111 FC1 46 4.191
111 FC1 47 5.168
111 FC1 48 5.168
111 FC1 49 5.168
111 FC1 50 5.656
111 FC1 51 6.632
111 FC1 52 7.121
111 FC1 53 7.121
111 FC1 54 5.656
111 FC1 55 3.703
111 FC1 56 1.261
111 FC1 57 -0.692
111 FC1 58 -1.180
111 FC1 59 -0.692
111 FC1 60 0.285
111 FC1 61 2.238
111 FC1 62 3.703
111 FC1 63 3.703
111 FC1 64 2.726
111 FC1 65 1.750
111 FC1 66 1.750
111 FC1 67 2.726
111 FC1 68 4.191
111 FC1 69 5.168
111 FC1 70 5.168
111 FC1 71 4.191
111 FC1 72 2.726
111 FC1 73 1.261
111 FC1 74 0.773
111 FC1 75 1.750
111 FC1 76 3.215
111 FC1 77 4.679
111 FC1 78 5.656
111 FC1 79 5.656
111 FC1 80 4.679
111 FC1 81 3.703
111 FC1 82 3.703
111 FC1 83 4.679
111 FC1 84 5.656
111 FC1 85 6.144
111 FC1 86 5.656
111 FC1 87 4.191
111 FC1 88 2.726
111 FC1 89 2.238
111 FC1 90 2.238
111 FC1 91 2.726
111 FC1 92 3.215
111 FC1 93 3.703
111 FC1 94 3.703
111 FC1 95 4.191
111 FC1 96 4.679
111 FC1 97 5.168
111 FC1 98 5.656
111 FC1 99 5.656
111 FC1 100 5.656
111 FC1 101 6.144
111 FC1 102 6.632
111 FC1 103 7.609
111 FC1 104 8.097
111 FC1 105 8.097
111 FC1 106 7.609
111 FC1 107 7.609
111 FC1 108 7.609
111 FC1 109 7.609
111 FC1 110 7.609
111 FC1 111 7.121
111 FC1 112 6.144
111 FC1 113 5.168
111 FC1 114 5.656
111 FC1 115 7.121
111 FC1 116 9.074
111 FC1 117 10.539
111 FC1 118 11.027
111 FC1 119 10.050
111 FC1 120 8.586
111 FC1 121 8.097
111 FC1 122 8.097
111 FC1 123 9.562
111 FC1 124 11.027
111 FC1 125 11.027
111 FC1 126 10.050
111 FC1 127 8.586
111 FC1 128 7.609
111 FC1 129 8.097
111 FC1 130 9.562
111 FC1 131 10.539
111 FC1 132 9.562
111 FC1 133 8.586
111 FC1 134 7.609
111 FC1 135 7.609
111 FC1 136 9.074
111 FC1 137 11.027
111 FC1 138 11.515
111 FC1 139 12.004
111 FC1 140 10.539
111 FC1 141 9.562
111 FC1 142 8.097
111 FC1 143 7.609
111 FC1 144 6.632
111 FC1 145 6.144
111 FC1 146 5.656
111 FC1 147 5.656
111 FC1 148 6.144
111 FC1 149 7.609
111 FC1 150 10.050
111 FC1 151 11.515
111 FC1 152 12.004
111 FC1 153 11.027
111 FC1 154 9.562
111 FC1 155 8.586
111 FC1 156 8.097
111 FC1 157 8.586
111 FC1 158 8.586
111 FC1 159 9.074
111 FC1 160 9.562
111 FC1 161 10.050
111 FC1 162 11.027
111 FC1 163 12.004
111 FC1 164 12.980
111 FC1 165 12.980
111 FC1 166 12.492
111 FC1 167 11.515
111 FC1 168 10.539
111 FC1 169 10.050
111 FC1 170 9.074
111 FC1 171 8.586
111 FC1 172 8.586
111 FC1 173 9.562
111 FC1 174 10.539
111 FC1 175 11.515
111 FC1 176 11.027
111 FC1 177 10.050
111 FC1 178 8.097
111 FC1 179 6.632
111 FC1 180 6.632
111 FC1 181 8.586
111 FC1 182 11.515
111 FC1 183 13.957
111 FC1 184 14.445
111 FC1 185 12.980
111 FC1 186 10.539
111 FC1 187 7.609
111 FC1 188 6.632
111 FC1 189 6.632
111 FC1 190 8.097
111 FC1 191 10.050
111 FC1 192 10.539
111 FC1 193 10.539
111 FC1 194 9.562
111 FC1 195 9.074
111 FC1 196 9.562
111 FC1 197 11.515
111 FC1 198 12.492
111 FC1 199 13.468
111 FC1 200 13.957
111 FC1 201 13.957
111 FC1 202 13.468
111 FC1 203 13.468
111 FC1 204 13.468
111 FC1 205 12.492
111 FC1 206 12.004
111 FC1 207 12.492
111 FC1 208 13.957
111 FC1 209 15.910
111 FC1 210 18.351
111 FC1 211 20.304
111 FC1 212 21.769
111 FC1 213 22.746
111 FC1 214 23.722
111 FC1 215 24.699
111 FC1 216 25.187
111 FC1 217 25.675
111 FC1 218 26.164
111 FC1 219 26.164
111 FC1 220 26.652
111 FC1 221 26.652
111 FC1 222 26.652
111 FC1 223 25.675
111 FC1 224 24.211
111 FC1 225 22.746
111 FC1 226 21.281
111 FC1 227 20.793
111 FC1 228 21.281
111 FC1 229 22.257
111 FC1 230 23.722
111 FC1 231 24.211
111 FC1 232 24.211
111 FC1 233 22.746
111 FC1 234 21.281
111 FC1 235 20.304
111 FC1 236 19.328
111 FC1 237 18.840
111 FC1 238 18.840
111 FC1 239 18.351
111 FC1 240 18.840
111 FC1 241 18.351
111 FC1 242 18.840
111 FC1 243 18.840
111 FC1 244 18.840
111 FC1 245 19.328
111 FC1 246 19.816
111 FC1 247 19.816
111 FC1 248 19.816
111 FC1 249 19.328
111 FC1 250 17.863
111 FC1 251 16.886
111 FC1 252 16.398
111 FC1 253 16.398
111 FC1 254 16.398
111 FC1 255 15.910
# T8 chan 13
111 T8 0 12.950
111 T8 1 13.926
111 T8 2 9.043
111 T8 3 1.231
111 T8 4 -4.140
111 T8 5 -3.652
111 T8 6 2.207
111 T8 7 10.020
111 T8 8 16.368
111 T8 9 18.809
111 T8 10 17.344
111 T8 11 12.950
111 T8 12 8.555
111 T8 13 5.137
111 T8 14 3.672
111 T8 15 4.649
111 T8 16 7.090
111 T8 17 10.508
111 T8 18 12.950
111 T8 19 14.903
111 T8 20 14.903
111 T8 21 12.950
111 T8 22 10.020
111 T8 23 6.602
111 T8 24 4.649
111 T8 25 3.672
111 T8 26 3.672
111 T8 27 3.672
111 T8 28 1.719
111 T8 29 -1.211
111 T8 30 -2.675
111 T8 31 -1.211
111 T8 32 4.161
111 T8 33 10.508
111 T8 34 15.391
111 T8 35 15.879
111 T8 36 12.461
111 T8 37 6.602
111 T8 38 1.719
111 T8 39 -0.722
111 T8 40 -1.211
111 T8 41 -1.211
111 T8 42 -1.699
111 T8 43 -3.652
111 T8 44 -5.117
111 T8 45 -6.093
111 T8 46 -6.093
111 T8 47 -5.117
111 T8 48 -4.629
111 T8 49 -4.140
111 T8 50 -3.652
111 T8 51 -2.187
111 T8 52 1.231
111 T8 53 6.602
111 T8 54 12.950
111 T8 55 16.856
111 T8 56 16.368
111 T8 57 11.485
111 T8 58 6.114
111 T8 59 2.207
111 T8 60 2.207
111 T8 61 4.161
111 T8 62 6.114
111 T8 63 4.649
111 T8 64 0.743
111 T8 65 -2.675
111 T8 66 -3.652
111 T8 67 -1.699
111 T8 68 0.254
111 T8 69 0.254
111 T8 70 -1.211
111 T8 71 -1.699
111 T8 72 1.719
111 T8 73 8.555
111 T8 74 15.391
111 T8 75 17.344
111 T8 76 12.461
111 T8 77 2.696
111 T8 78 -5.605
111 T8 79 -8.046
111 T8 80 -4.629
111 T8 81 0.743
111 T8 82 3.672
111 T8 83 2.207
111 T8 84 -2.675
111 T8 85 -7.558
111 T8 86 -10.000
111 T8 87 -10.000
111 T8 88 -9.023
111 T8 89 -7.558
111 T8 90 -5.605
111 T8 91 -3.652
111 T8 92 -1.699
111 T8 93 -1.211
111 T8 94 -2.675
111 T8 95 -4.629
111 T8 96 -7.070
111 T8 97 -8.046
111 T8 98 -7.070
111 T8 99 -6.093
111 T8 100 -4.629
111 T8 101 -3.652
111 T8 102 -3.164
111 T8 103 -1.699
111 T8 104 0.254
111 T8 105 2.207
111 T8 106 4.161
111 T8 107 4.649
111 T8 108 4.649
111 T8 109 3.184
111 T8 110 1.719
111 T8 111 0.254
111 T8 112 -1.211
111 T8 113 -1.699
111 T8 114 -1.211
111 T8 115 0.743
111 T8 116 2.696
111 T8 117 4.649
111 T8 118 6.114
111 T8 119 6.114
111 T8 120 5.625
111 T8 121 4.161
111 T8 122 2.696
111 T8 123 2.207
111 T8 124 2.696
111 T8 125 4.161
111 T8 126 5.625
111 T8 127 6.114
111 T8 128 5.137
111 T8 129 2.696
111 T8 130 -0.234
111 T8 131 -2.187
111 T8 132 -3.652
111 T8 133 -4.140
111 T8 134 -4.140
111 T8 135 -2.675
111 T8 136 0.743
111 T8 137 6.114
111 T8 138 11.485
111 T8 139 14.414
111 T8 140 13.926
111 T8 141 9.043
111 T8 142 3.184
111 T8 143 -0.234
111 T8 144 0.743
111 T8 145 6.602
111 T8 146 13.926
111 T8 147 18.321
111 T8 148 17.344
111 T8 149 10.996
111 T8 150 2.696
111 T8 151 -2.187
111 T8 152 -1.699
111 T8 153 4.161
111 T8 154 11.973
111 T8 155 17.344
111 T8 156 18.321
111 T8 157 14.903
111 T8 158 10.508
111 T8 159 8.555
111 T8 160 9.532
111 T8 161 12.461
111 T8 162 14.414
111 T8 163 12.950
111 T8 164 8.067
111 T8 165 2.207
111 T8 166 -1.211
111 T8 167 -0.722
111 T8 168 2.207
111 T8 169 4.649
111 T8 170 4.649
111 T8 171 2.696
111 T8 172 0.743
111 T8 173 0.743
111 T8 174 2.696
111 T8 175 4.649
111 T8 176 4.161
111 T8 177 1.719
111 T8 178 0.743
111 T8 179 2.696
111 T8 180 7.090
111 T8 181 10.996
111 T8 182 10.996
111 T8 183 7.090
111 T8 184 2.207
111 T8 185 0.254
111 T8 186 2.696
111 T8 187 7.579
111 T8 188 10.996
111 T8 189 10.996
111 T8 190 9.532
111 T8 191 9.532
111 T8 192 12.461
111 T8 193 16.368
111 T8 194 17.344
111 T8 195 12.461
111 T8 196 4.161
111 T8 197 -3.652
111 T8 198 -6.093
111 T8 199 -3.164
111 T8 200 1.719
111 T8 201 3.672
111 T8 202 2.207
111 T8 203 -1.699
111 T8 204 -4.140
111 T8 205 -4.140
111 T8 206 -1.699
111 T8 207 -0.234
111 T8 208 0.254
111 T8 209 -0.234
111 T8 210 -0.234
111 T8 211 -0.722
111 T8 212 -2.675
111 T8 213 -6.093
111 T8 214 -10.000
111 T8 215 -12.929
111 T8 216 -12.929
111 T8 217 -11.953
111 T8 218 -12.929
111 T8 219 -16.347
111 T8 220 -21.718
111 T8 221 -25.136
111 T8 222 -25.625
111 T8 223 -22.207
111 T8 224 -17.324
111 T8 225 -12.929
111 T8 226 -10.488
111 T8 227 -10.000
111 T8 228 -11.464
111 T8 229 -13.418
111 T8 230 -15.859
111 T8 231 -16.836
111 T8 232 -13.906
111 T8 233 -8.046
111 T8 234 -1.699
111 T8 235 1.719
111 T8 236 0.743
111 T8 237 -3.652
111 T8 238 -7.070
111 T8 239 -7.070
111 T8 240 -3.652
111 T8 241 0.254
111 T8 242 1.231
111 T8 243 -1.211
111 T8 244 -4.629
111 T8 245 -7.070
111 T8 246 -7.558
111 T8 247 -6.582
111 T8 248 -6.582
111 T8 249 -7.070
111 T8 250 -5.605
111 T8 251 -2.675
111 T8 252 2.696
111 T8 253 6.602
111 T8 254 7.090
111 T8 255 4.649
# T7 chan 14
111 T7 0 6.826
111 T7 1 5.849
111 T7 2 3.408
111 T7 3 1.455
111 T7 4 0.966
111 T7 5 2.920
111 T7 6 4.873
111 T7 7 6.337
111 T7 8 5.849
111 T7 9 4.384
111 T7 10 3.408
111 T7 11 3.896
111 T7 12 4.873
111 T7 13 6.826
111 T7 14 6.826
111 T7 15 6.337
111 T7 16 4.873
111 T7 17 5.361
111 T7 18 6.826
111 T7 19 8.291
111 T7 20 8.291
111 T7 21 5.849
111 T7 22 2.431
111 T7 23 -0.010
111 T7 24 -0.498
111 T7 25 0.966
111 T7 26 1.943
111 T7 27 2.431
111 T7 28 1.455
111 T7 29 0.478
111 T7 30 -0.010
111 T7 31 0.478
111 T7 32 0.478
111 T7 33 -0.010
111 T7 34 -0.010
111 T7 35 -0.010
111 T7 36 0.478
111 T7 37 0.478
111 T7 38 -0.498
111 T7 39 -1.963
111 T7 40 -2.452
111 T7 41 -0.987
111 T7 42 1.455
111 T7 43 3.896
111 T7 44 4.384
111 T7 45 3.408
111 T7 46 1.943
111 T7 47 1.455
111 T7 48 1.455
111 T7 49 0.478
111 T7 50 -0.987
111 T7 51 -2.940
111 T7 52 -3.916
111 T7 53 -3.428
111 T7 54 -1.475
111 T7 55 0.966
111 T7 56 1.943
111 T7 57 1.455
111 T7 58 -0.010
111 T7 59 -1.475
111 T7 60 -0.987
111 T7 61 1.455
111 T7 62 4.873
111 T7 63 6.826
111 T7 64 7.314
111 T7 65 5.849
111 T7 66 3.896
111 T7 67 2.920
111 T7 68 2.431
111 T7 69 2.431
111 T7 70 2.431
111 T7 71 1.455
111 T7 72 0.966
111 T7 73 2.431
111 T7 74 4.873
111 T7 75 7.314
111 T7 76 6.826
111 T7 77 3.896
111 T7 78 -0.987
111 T7 79 -4.893
111 T7 80 -5.870
111 T7 81 -4.893
111 T7 82 -2.940
111 T7 83 -1.475
111 T7 84 -0.498
111 T7 85 1.455
111 T7 86 3.408
111 T7 87 4.873
111 T7 88 4.873
111 T7 89 2.431
111 T7 90 -0.010
111 T7 91 -1.963
111 T7 92 -2.452
111 T7 93 -2.940
111 T7 94 -4.405
111 T7 95 -6.358
111 T7 96 -7.823
111 T7 97 -6.846
111 T7 98 -3.428
111 T7 99 1.455
111 T7 100 3.896
111 T7 101 3.408
111 T7 102 0.966
111 T7 103 -0.498
111 T7 104 0.478
111 T7 105 3.896
111 T7 106 6.337
111 T7 107 5.849
111 T7 108 2.431
111 T7 109 -1.475
111 T7 110 -3.428
111 T7 111 -1.963
111 T7 112 1.455
111 T7 113 4.873
111 T7 114 6.337
111 T7 115 5.361
111 T7 116 1.943
111 T7 117 -0.498
111 T7 118 -1.963
111 T7 119 -1.963
111 T7 120 0.478
111 T7 121 3.896
111 T7 122 6.826
111 T7 123 8.779
111 T7 124 8.779
111 T7 125 6.826
111 T7 126 4.384
111 T7 127 3.408
111 T7 128 4.384
111 T7 129 5.849
111 T7 130 7.314
111 T7 131 7.802
111 T7 132 7.802
111 T7 133 6.826
111 T7 134 5.849
111 T7 135 4.873
111 T7 136 3.896
111 T7 137 2.431
111 T7 138 1.455
111 T7 139 0.966
111 T7 140 1.455
111 T7 141 2.920
111 T7 142 3.896
111 T7 143 4.873
111 T7 144 5.361
111 T7 145 6.337
111 T7 146 9.267
111 T7 147 12.197
111 T7 148 14.638
111 T7 149 15.127
111 T7 150 13.173
111 T7 151 10.244
111 T7 152 8.291
111 T7 153 9.267
111 T7 154 11.220
111 T7 155 13.173
111 T7 156 12.685
111 T7 157 10.732
111 T7 158 9.267
111 T7 159 10.244
111 T7 160 12.685
111 T7 161 14.638
111 T7 162 12.685
111 T7 163 6.826
111 T7 164 -0.498
111 T7 165 -5.870
111 T7 166 -6.358
111 T7 167 -2.940
111 T7 168 1.943
111 T7 169 5.849
111 T7 170 6.337
111 T7 171 4.873
111 T7 172 2.920
111 T7 173 1.943
111 T7 174 1.943
111 T7 175 1.943
111 T7 176 1.943
111 T7 177 1.943
111 T7 178 3.408
111 T7 179 6.337
111 T7 180 9.755
111 T7 181 11.709
111 T7 182 11.220
111 T7 183 8.779
111 T7 184 6.337
111 T7 185 5.849
111 T7 186 8.779
111 T7 187 13.173
111 T7 188 16.103
111 T7 189 17.080
111 T7 190 15.127
111 T7 191 12.685
111 T7 192 11.709
111 T7 193 11.220
111 T7 194 10.732
111 T7 195 9.267
111 T7 196 6.337
111 T7 197 3.896
111 T7 198 3.896
111 T7 199 5.849
111 T7 200 8.291
111 T7 201 9.267
111 T7 202 7.802
111 T7 203 4.873
111 T7 204 2.431
111 T7 205 1.455
111 T7 206 1.455
111 T7 207 1.943
111 T7 208 2.431
111 T7 209 2.920
111 T7 210 3.408
111 T7 211 3.408
111 T7 212 1.455
111 T7 213 -1.475
111 T7 214 -5.870
111 T7 215 -9.288
111 T7 216 -11.729
111 T7 217 -12.705
111 T7 218 -13.682
111 T7 219 -15.147
111 T7 220 -17.100
111 T7 221 -19.053
111 T7 222 -20.518
111 T7 223 -20.030
111 T7 224 -17.100
111 T7 225 -11.729
111 T7 226 -5.381
111 T7 227 0.478
111 T7 228 2.431
111 T7 229 0.478
111 T7 230 -4.405
111 T7 231 -8.311
111 T7 232 -9.776
111 T7 233 -7.823
111 T7 234 -4.405
111 T7 235 -1.963
111 T7 236 -2.452
111 T7 237 -4.893
111 T7 238 -8.311
111 T7 239 -10.752
111 T7 240 -11.241
111 T7 241 -10.264
111 T7 242 -8.799
111 T7 243 -7.334
111 T7 244 -5.870
111 T7 245 -4.405
111 T7 246 -2.452
111 T7 247 -0.987
111 T7 248 -0.010
111 T7 249 -0.010
111 T7 250 -0.010
111 T7 251 -0.010
111 T7 252 0.478
111 T7 253 1.943
111 T7 254 3.896
111 T7 255 6.337
# CZ chan 15
111 CZ 0 11.261
111 CZ 1 13.214
111 CZ 2 15.167
111 CZ 3 15.656
111 CZ 4 15.656
111 CZ 5 16.144
111 CZ 6 17.120
111 CZ 7 19.073
111 CZ 8 20.538
111 CZ 9 20.538
111 CZ 10 19.073
111 CZ 11 18.097
111 CZ 12 17.120
111 CZ 13 17.120
111 CZ 14 17.120
111 CZ 15 16.632
111 CZ 16 15.167
111 CZ 17 14.679
111 CZ 18 15.656
111 CZ 19 18.097
111 CZ 20 19.073
111 CZ 21 17.609
111 CZ 22 13.702
111 CZ 23 9.308
111 CZ 24 6.378
111 CZ 25 5.402
111 CZ 26 6.378
111 CZ 27 8.331
111 CZ 28 10.284
111 CZ 29 12.726
111 CZ 30 14.679
111 CZ 31 15.656
111 CZ 32 14.679
111 CZ 33 11.749
111 CZ 34 9.796
111 CZ 35 10.773
111 CZ 36 14.679
111 CZ 37 20.050
111 CZ 38 23.468
111 CZ 39 21.515
111 CZ 40 15.167
111 CZ 41 7.355
111 CZ 42 2.472
111 CZ 43 2.960
111 CZ 44 7.843
111 CZ 45 14.191
111 CZ 46 18.097
111 CZ 47 18.585
111 CZ 48 17.120
111 CZ 49 14.679
111 CZ 50 12.238
111 CZ 51 10.284
111 CZ 52 9.308
111 CZ 53 9.308
111 CZ 54 12.238
111 CZ 55 16.632
111 CZ 56 21.027
111 CZ 57 23.468
111 CZ 58 22.491
111 CZ 59 19.562
111 CZ 60 16.632
111 CZ 61 15.656
111 CZ 62 17.120
111 CZ 63 19.073
111 CZ 64 20.538
111 CZ 65 19.562
111 CZ 66 17.609
111 CZ 67 15.167
111 CZ 68 12.726
111 CZ 69 11.261
111 CZ 70 10.284
111 CZ 71 11.261
111 CZ 72 13.214
111 CZ 73 15.656
111 CZ 74 17.120
111 CZ 75 16.632
111 CZ 76 14.679
111 CZ 77 12.238
111 CZ 78 10.284
111 CZ 79 9.796
111 CZ 80 10.284
111 CZ 81 10.773
111 CZ 82 10.284
111 CZ 83 8.820
111 CZ 84 6.378
111 CZ 85 4.425
111 CZ 86 2.960
111 CZ 87 1.984
111 CZ 88 1.007
111 CZ 89 -0.458
111 CZ 90 -2.411
111 CZ 91 -3.387
111 CZ 92 -3.387
111 CZ 93 -1.923
111 CZ 94 1.495
111 CZ 95 5.402
111 CZ 96 7.843
111 CZ 97 8.820
111 CZ 98 8.331
111 CZ 99 6.378
111 CZ 100 4.425
111 CZ 101 4.425
111 CZ 102 5.890
111 CZ 103 9.308
111 CZ 104 13.214
111 CZ 105 17.120
111 CZ 106 20.050
111 CZ 107 21.027
111 CZ 108 20.050
111 CZ 109 18.097
111 CZ 110 16.144
111 CZ 111 16.144
111 CZ 112 18.097
111 CZ 113 21.027
111 CZ 114 22.980
111 CZ 115 23.468
111 CZ 116 21.027
111 CZ 117 18.097
111 CZ 118 15.167
111 CZ 119 15.167
111 CZ 120 16.632
111 CZ 121 20.050
111 CZ 122 23.468
111 CZ 123 25.909
111 CZ 124 27.374
111 CZ 125 27.374
111 CZ 126 26.398
111 CZ 127 23.468
111 CZ 128 20.050
111 CZ 129 15.656
111 CZ 130 12.726
111 CZ 131 12.238
111 CZ 132 14.191
111 CZ 133 17.120
111 CZ 134 19.073
111 CZ 135 20.050
111 CZ 136 21.027
111 CZ 137 23.468
111 CZ 138 26.886
111 CZ 139 28.351
111 CZ 140 26.886
111 CZ 141 22.003
111 CZ 142 17.120
111 CZ 143 16.632
111 CZ 144 22.003
111 CZ 145 30.792
111 CZ 146 40.070
111 CZ 147 43.488
111 CZ 148 41.046
111 CZ 149 35.187
111 CZ 150 29.327
111 CZ 151 25.909
111 CZ 152 25.909
111 CZ 153 27.374
111 CZ 154 27.863
111 CZ 155 26.886
111 CZ 156 24.933
111 CZ 157 23.956
111 CZ 158 25.421
111 CZ 159 26.886
111 CZ 160 28.839
111 CZ 161 28.351
111 CZ 162 25.909
111 CZ 163 21.515
111 CZ 164 17.120
111 CZ 165 12.726
111 CZ 166 11.261
111 CZ 167 12.238
111 CZ 168 15.656
111 CZ 169 20.538
111 CZ 170 23.468
111 CZ 171 23.468
111 CZ 172 21.027
111 CZ 173 17.120
111 CZ 174 14.191
111 CZ 175 13.214
111 CZ 176 14.679
111 CZ 177 16.632
111 CZ 178 18.585
111 CZ 179 19.562
111 CZ 180 21.515
111 CZ 181 23.468
111 CZ 182 25.421
111 CZ 183 25.421
111 CZ 184 22.980
111 CZ 185 20.538
111 CZ 186 20.050
111 CZ 187 22.491
111 CZ 188 26.886
111 CZ 189 30.792
111 CZ 190 31.281
111 CZ 191 28.351
111 CZ 192 25.421
111 CZ 193 25.421
111 CZ 194 27.374
111 CZ 195 29.816
111 CZ 196 29.327
111 CZ 197 24.933
111 CZ 198 18.097
111 CZ 199 12.238
111 CZ 200 7.355
111 CZ 201 4.913
111 CZ 202 2.472
111 CZ 203 -0.946
111 CZ 204 -4.852
111 CZ 205 -7.294
111 CZ 206 -8.270
111 CZ 207 -8.270
111 CZ 208 -8.759
111 CZ 209 -12.177
111 CZ 210 -18.036
111 CZ 211 -24.384
111 CZ 212 -30.731
111 CZ 213 -35.126
111 CZ 214 -39.520
111 CZ 215 -45.380
111 CZ 216 -52.216
111 CZ 217 -59.052
111 CZ 218 -63.446
111 CZ 219 -63.446
111 CZ 220 -60.028
111 CZ 221 -56.122
111 CZ 222 -53.192
111 CZ 223 -52.704
111 CZ 224 -52.216
111 CZ 225 -49.286
111 CZ 226 -43.427
111 CZ 227 -36.102
111 CZ 228 -31.219
111 CZ 229 -30.243
111 CZ 230 -32.196
111 CZ 231 -33.661
111 CZ 232 -32.684
111 CZ 233 -29.266
111 CZ 234 -26.825
111 CZ 235 -26.825
111 CZ 236 -28.290
111 CZ 237 -29.266
111 CZ 238 -26.825
111 CZ 239 -21.942
111 CZ 240 -18.036
111 CZ 241 -17.548
111 CZ 242 -20.966
111 CZ 243 -24.384
111 CZ 244 -24.384
111 CZ 245 -19.501
111 CZ 246 -13.641
111 CZ 247 -9.247
111 CZ 248 -9.247
111 CZ 249 -11.688
111 CZ 250 -13.641
111 CZ 251 -13.153
111 CZ 252 -10.223
111 CZ 253 -6.805
111 CZ 254 -5.341
111 CZ 255 -5.829
# C3 chan 16
111 C3 0 -3.642
111 C3 1 -3.153
111 C3 2 -1.200
111 C3 3 0.753
111 C3 4 1.729
111 C3 5 0.753
111 C3 6 -2.177
111 C3 7 -4.130
111 C3 8 -3.642
111 C3 9 -1.689
111 C3 10 1.241
111 C3 11 3.194
111 C3 12 4.171
111 C3 13 4.171
111 C3 14 3.682
111 C3 15 2.218
111 C3 16 -0.224
111 C3 17 -3.153
111 C3 18 -4.618
111 C3 19 -3.642
111 C3 20 -0.224
111 C3 21 3.194
111 C3 22 4.659
111 C3 23 3.194
111 C3 24 0.264
111 C3 25 -1.200
111 C3 26 -0.712
111 C3 27 0.753
111 C3 28 1.241
111 C3 29 0.264
111 C3 30 -1.200
111 C3 31 -1.200
111 C3 32 0.264
111 C3 33 1.241
111 C3 34 1.241
111 C3 35 -1.200
111 C3 36 -3.642
111 C3 37 -4.618
111 C3 38 -2.665
111 C3 39 -0.224
111 C3 40 1.729
111 C3 41 0.753
111 C3 42 -1.200
111 C3 43 -2.177
111 C3 44 -0.712
111 C3 45 1.729
111 C3 46 3.194
111 C3 47 3.682
111 C3 48 3.194
111 C3 49 2.706
111 C3 50 2.706
111 C3 51 2.706
111 C3 52 2.218
111 C3 53 0.753
111 C3 54 -1.200
111 C3 55 -2.665
111 C3 56 -3.153
111 C3 57 -3.153
111 C3 58 -3.153
111 C3 59 -2.665
111 C3 60 -0.224
111 C3 61 2.706
111 C3 62 5.636
111 C3 63 7.100
111 C3 64 6.124
111 C3 65 4.171
111 C3 66 2.218
111 C3 67 1.729
111 C3 68 2.706
111 C3 69 4.659
111 C3 70 5.147
111 C3 71 4.171
111 C3 72 2.218
111 C3 73 -0.224
111 C3 74 -0.712
111 C3 75 0.264
111 C3 76 2.706
111 C3 77 4.659
111 C3 78 5.636
111 C3 79 5.147
111 C3 80 3.682
111 C3 81 3.682
111 C3 82 4.659
111 C3 83 5.636
111 C3 84 5.636
111 C3 85 4.659
111 C3 86 2.706
111 C3 87 1.241
111 C3 88 1.729
111 C3 89 3.194
111 C3 90 4.171
111 C3 91 3.682
111 C3 92 3.194
111 C3 93 2.218
111 C3 94 2.706
111 C3 95 4.171
111 C3 96 5.636
111 C3 97 7.100
111 C3 98 7.100
111 C3 99 6.612
111 C3 100 5.636
111 C3 101 4.659
111 C3 102 4.659
111 C3 103 5.147
111 C3 104 5.636
111 C3 105 6.612
111 C3 106 6.612
111 C3 107 6.612
111 C3 108 6.124
111 C3 109 5.147
111 C3 110 4.171
111 C3 111 3.682
111 C3 112 2.706
111 C3 113 1.729
111 C3 114 1.241
111 C3 115 1.241
111 C3 116 1.729
111 C3 117 3.194
111 C3 118 4.659
111 C3 119 5.147
111 C3 120 5.147
111 C3 121 4.659
111 C3 122 4.659
111 C3 123 5.636
111 C3 124 6.612
111 C3 125 6.612
111 C3 126 5.636
111 C3 127 4.659
111 C3 128 4.659
111 C3 129 6.124
111 C3 130 8.565
111 C3 131 9.054
111 C3 132 8.077
111 C3 133 6.124
111 C3 134 4.659
111 C3 135 4.659
111 C3 136 5.636
111 C3 137 6.124
111 C3 138 5.147
111 C3 139 3.194
111 C3 140 1.241
111 C3 141 1.241
111 C3 142 3.194
111 C3 143 5.636
111 C3 144 7.100
111 C3 145 7.589
111 C3 146 6.612
111 C3 147 5.147
111 C3 148 5.636
111 C3 149 8.077
111 C3 150 10.518
111 C3 151 12.472
111 C3 152 12.472
111 C3 153 10.518
111 C3 154 9.054
111 C3 155 8.077
111 C3 156 8.565
111 C3 157 9.542
111 C3 158 9.542
111 C3 159 9.054
111 C3 160 8.077
111 C3 161 7.589
111 C3 162 8.077
111 C3 163 9.054
111 C3 164 9.054
111 C3 165 8.565
111 C3 166 7.589
111 C3 167 6.612
111 C3 168 6.612
111 C3 169 7.100
111 C3 170 7.589
111 C3 171 7.589
111 C3 172 6.612
111 C3 173 6.612
111 C3 174 7.100
111 C3 175 8.565
111 C3 176 10.030
111 C3 177 10.518
111 C3 178 9.054
111 C3 179 7.589
111 C3 180 7.100
111 C3 181 8.565
111 C3 182 11.495
111 C3 183 13.936
111 C3 184 14.425
111 C3 185 12.472
111 C3 186 10.518
111 C3 187 9.542
111 C3 188 10.030
111 C3 189 11.495
111 C3 190 12.960
111 C3 191 13.448
111 C3 192 11.495
111 C3 193 9.542
111 C3 194 7.100
111 C3 195 6.124
111 C3 196 6.612
111 C3 197 8.565
111 C3 198 10.518
111 C3 199 12.472
111 C3 200 12.472
111 C3 201 12.472
111 C3 202 11.495
111 C3 203 10.518
111 C3 204 10.030
111 C3 205 9.542
111 C3 206 9.054
111 C3 207 8.565
111 C3 208 8.077
111 C3 209 7.100
111 C3 210 6.612
111 C3 211 6.124
111 C3 212 6.612
111 C3 213 8.077
111 C3 214 9.054
111 C3 215 9.542
111 C3 216 8.565
111 C3 217 7.589
111 C3 218 6.124
111 C3 219 6.124
111 C3 220 6.124
111 C3 221 7.100
111 C3 222 7.100
111 C3 223 7.100
111 C3 224 6.612
111 C3 225 5.636
111 C3 226 4.659
111 C3 227 3.682
111 C3 228 4.171
111 C3 229 5.636
111 C3 230 8.565
111 C3 231 10.518
111 C3 232 11.007
111 C3 233 10.030
111 C3 234 8.565
111 C3 235 7.589
111 C3 236 8.077
111 C3 237 8.565
111 C3 238 9.054
111 C3 239 9.054
111 C3 240 8.077
111 C3 241 7.100
111 C3 242 7.100
111 C3 243 7.100
111 C3 244 8.077
111 C3 245 9.542
111 C3 246 10.518
111 C3 247 11.495
111 C3 248 11.495
111 C3 249 11.007
111 C3 250 10.518
111 C3 251 10.030
111 C3 252 10.518
111 C3 253 11.983
111 C3 254 12.472
111 C3 255 11.983
# C4 chan 17
111 C4 0 -0.926
111 C4 1 0.051
111 C4 2 1.027
111 C4 3 2.004
111 C4 4 2.492
111 C4 5 2.492
111 C4 6 2.492
111 C4 7 2.004
111 C4 8 2.004
111 C4 9 2.004
111 C4 10 1.516
111 C4 11 1.027
111 C4 12 0.539
111 C4 13 0.051
111 C4 14 1.027
111 C4 15 2.492
111 C4 16 3.469
111 C4 17 3.469
111 C4 18 2.492
111 C4 19 1.027
111 C4 20 0.051
111 C4 21 0.051
111 C4 22 1.027
111 C4 23 2.004
111 C4 24 2.004
111 C4 25 2.004
111 C4 26 1.027
111 C4 27 1.027
111 C4 28 1.027
111 C4 29 1.516
111 C4 30 2.004
111 C4 31 1.516
111 C4 32 0.051
111 C4 33 -1.902
111 C4 34 -2.879
111 C4 35 -1.902
111 C4 36 -0.437
111 C4 37 1.516
111 C4 38 1.516
111 C4 39 1.027
111 C4 40 0.051
111 C4 41 -0.437
111 C4 42 -0.926
111 C4 43 -0.926
111 C4 44 -2.391
111 C4 45 -3.855
111 C4 46 -5.809
111 C4 47 -5.320
111 C4 48 -4.344
111 C4 49 -2.879
111 C4 50 -2.391
111 C4 51 -2.879
111 C4 52 -3.367
111 C4 53 -4.344
111 C4 54 -3.855
111 C4 55 -2.879
111 C4 56 -0.926
111 C4 57 1.027
111 C4 58 2.492
111 C4 59 2.492
111 C4 60 1.516
111 C4 61 -0.437
111 C4 62 -1.414
111 C4 63 -1.414
111 C4 64 -0.926
111 C4 65 0.051
111 C4 66 0.051
111 C4 67 0.051
111 C4 68 0.051
111 C4 69 -0.437
111 C4 70 0.051
111 C4 71 0.051
111 C4 72 -0.437
111 C4 73 -0.437
111 C4 74 -0.926
111 C4 75 -0.926
111 C4 76 -0.926
111 C4 77 -1.414
111 C4 78 -1.414
111 C4 79 -2.391
111 C4 80 -2.879
111 C4 81 -2.879
111 C4 82 -3.367
111 C4 83 -3.367
111 C4 84 -3.855
111 C4 85 -3.855
111 C4 86 -3.367
111 C4 87 -2.391
111 C4 88 -1.414
111 C4 89 -0.926
111 C4 90 -1.414
111 C4 91 -2.391
111 C4 92 -3.367
111 C4 93 -3.855
111 C4 94 -4.344
111 C4 95 -5.809
111 C4 96 -7.273
111 C4 97 -8.738
111 C4 98 -9.226
111 C4 99 -8.738
111 C4 100 -7.273
111 C4 101 -6.297
111 C4 102 -6.785
111 C4 103 -7.762
111 C4 104 -8.738
111 C4 105 -8.250
111 C4 106 -6.785
111 C4 107 -4.832
111 C4 108 -1.902
111 C4 109 0.051
111 C4 110 1.516
111 C4 111 2.004
111 C4 112 0.539
111 C4 113 -1.414
111 C4 114 -4.344
111 C4 115 -5.809
111 C4 116 -6.785
111 C4 117 -5.809
111 C4 118 -4.344
111 C4 119 -3.855
111 C4 120 -4.344
111 C4 121 -5.809
111 C4 122 -7.273
111 C4 123 -8.738
111 C4 124 -8.738
111 C4 125 -7.762
111 C4 126 -5.809
111 C4 127 -3.855
111 C4 128 -2.879
111 C4 129 -4.344
111 C4 130 -6.297
111 C4 131 -7.762
111 C4 132 -8.250
111 C4 133 -6.297
111 C4 134 -3.855
111 C4 135 -1.902
111 C4 136 -1.414
111 C4 137 -2.879
111 C4 138 -4.344
111 C4 139 -5.320
111 C4 140 -5.809
111 C4 141 -5.320
111 C4 142 -4.832
111 C4 143 -4.832
111 C4 144 -4.832
111 C4 145 -4.832
111 C4 146 -3.855
111 C4 147 -2.391
111 C4 148 -0.926
111 C4 149 -0.926
111 C4 150 -0.926
111 C4 151 -1.902
111 C4 152 -2.879
111 C4 153 -3.367
111 C4 154 -2.879
111 C4 155 -1.902
111 C4 156 -0.437
111 C4 157 1.027
111 C4 158 1.516
111 C4 159 0.539
111 C4 160 -1.902
111 C4 161 -3.855
111 C4 162 -4.832
111 C4 163 -3.855
111 C4 164 -2.879
111 C4 165 -1.902
111 C4 166 -1.414
111 C4 167 -2.391
111 C4 168 -3.855
111 C4 169 -5.320
111 C4 170 -6.297
111 C4 171 -6.297
111 C4 172 -5.320
111 C4 173 -3.855
111 C4 174 -2.879
111 C4 175 -2.391
111 C4 176 -2.391
111 C4 177 -3.367
111 C4 178 -3.367
111 C4 179 -4.344
111 C4 180 -4.832
111 C4 181 -4.832
111 C4 182 -3.855
111 C4 183 -3.367
111 C4 184 -3.367
111 C4 185 -4.832
111 C4 186 -6.785
111 C4 187 -7.762
111 C4 188 -8.250
111 C4 189 -6.297
111 C4 190 -3.855
111 C4 191 -1.902
111 C4 192 -1.902
111 C4 193 -3.367
111 C4 194 -4.832
111 C4 195 -5.809
111 C4 196 -6.297
111 C4 197 -6.785
111 C4 198 -8.738
111 C4 199 -10.691
111 C4 200 -12.156
111 C4 201 -11.668
111 C4 202 -9.715
111 C4 203 -7.762
111 C4 204 -6.297
111 C4 205 -5.809
111 C4 206 -6.785
111 C4 207 -7.762
111 C4 208 -8.250
111 C4 209 -8.250
111 C4 210 -7.762
111 C4 211 -7.762
111 C4 212 -7.273
111 C4 213 -7.273
111 C4 214 -6.785
111 C4 215 -6.785
111 C4 216 -6.785
111 C4 217 -7.273
111 C4 218 -8.738
111 C4 219 -9.715
111 C4 220 -10.691
111 C4 221 -10.203
111 C4 222 -9.715
111 C4 223 -9.715
111 C4 224 -10.691
111 C4 225 -12.644
111 C4 226 -14.109
111 C4 227 -13.133
111 C4 228 -10.691
111 C4 229 -7.762
111 C4 230 -6.297
111 C4 231 -6.785
111 C4 232 -9.226
111 C4 233 -10.691
111 C4 234 -10.691
111 C4 235 -10.203
111 C4 236 -8.738
111 C4 237 -7.762
111 C4 238 -6.785
111 C4 239 -5.809
111 C4 240 -4.344
111 C4 241 -3.855
111 C4 242 -4.344
111 C4 243 -6.297
111 C4 244 -8.738
111 C4 245 -10.691
111 C4 246 -10.691
111 C4 247 -9.226
111 C4 248 -6.785
111 C4 249 -4.832
111 C4 250 -4.832
111 C4 251 -6.785
111 C4 252 -8.738
111 C4 253 -10.691
111 C4 254 -10.691
111 C4 255 -9.715
# CP5 chan 18
111 CP5 0 1.994
111 CP5 1 1.506
111 CP5 2 1.506
111 CP5 3 2.970
111 CP5 4 4.435
111 CP5 5 4.924
111 CP5 6 3.947
111 CP5 7 1.994
111 CP5 8 0.041
111 CP5 9 -0.448
111 CP5 10 0.529
111 CP5 11 2.482
111 CP5 12 4.435
111 CP5 13 5.900
111 CP5 14 6.388
111 CP5 15 5.900
111 CP5 16 4.924
111 CP5 17 4.435
111 CP5 18 4.435
111 CP5 19 4.435
111 CP5 20 4.924
111 CP5 21 4.435
111 CP5 22 3.947
111 CP5 23 2.482
111 CP5 24 1.994
111 CP5 25 2.970
111 CP5 26 3.947
111 CP5 27 4.435
111 CP5 28 3.947
111 CP5 29 1.994
111 CP5 30 1.017
111 CP5 31 0.529
111 CP5 32 1.017
111 CP5 33 1.506
111 CP5 34 0.041
111 CP5 35 -2.401
111 CP5 36 -4.842
111 CP5 37 -5.819
111 CP5 38 -5.330
111 CP5 39 -3.866
111 CP5 40 -2.401
111 CP5 41 -1.424
111 CP5 42 -0.936
111 CP5 43 0.041
111 CP5 44 0.529
111 CP5 45 1.506
111 CP5 46 1.506
111 CP5 47 1.506
111 CP5 48 1.506
111 CP5 49 0.529
111 CP5 50 0.041
111 CP5 51 -2.401
111 CP5 52 -4.842
111 CP5 53 -6.307
111 CP5 54 -6.795
111 CP5 55 -4.842
111 CP5 56 -2.401
111 CP5 57 -0.936
111 CP5 58 -0.936
111 CP5 59 -1.424
111 CP5 60 -0.448
111 CP5 61 2.482
111 CP5 62 6.877
111 CP5 63 10.783
111 CP5 64 12.248
111 CP5 65 10.783
111 CP5 66 7.365
111 CP5 67 4.924
111 CP5 68 3.947
111 CP5 69 3.947
111 CP5 70 4.435
111 CP5 71 4.924
111 CP5 72 4.435
111 CP5 73 4.924
111 CP5 74 4.924
111 CP5 75 6.388
111 CP5 76 6.388
111 CP5 77 6.388
111 CP5 78 4.924
111 CP5 79 3.947
111 CP5 80 2.970
111 CP5 81 3.947
111 CP5 82 5.412
111 CP5 83 6.388
111 CP5 84 6.877
111 CP5 85 5.900
111 CP5 86 4.435
111 CP5 87 4.435
111 CP5 88 4.924
111 CP5 89 6.388
111 CP5 90 6.877
111 CP5 91 5.412
111 CP5 92 2.970
111 CP5 93 0.529
111 CP5 94 -0.936
111 CP5 95 0.041
111 CP5 96 2.482
111 CP5 97 5.412
111 CP5 98 8.341
111 CP5 99 9.318
111 CP5 100 8.830
111 CP5 101 7.853
111 CP5 102 5.412
111 CP5 103 4.435
111 CP5 104 4.924
111 CP5 105 6.877
111 CP5 106 8.830
111 CP5 107 9.806
111 CP5 108 9.318
111 CP5 109 6.877
111 CP5 110 4.924
111 CP5 111 3.947
111 CP5 112 4.435
111 CP5 113 5.412
111 CP5 114 5.900
111 CP5 115 5.412
111 CP5 116 4.435
111 CP5 117 3.459
111 CP5 118 3.459
111 CP5 119 3.947
111 CP5 120 4.435
111 CP5 121 5.412
111 CP5 122 6.877
111 CP5 123 8.341
111 CP5 124 9.806
111 CP5 125 10.295
111 CP5 126 10.783
111 CP5 127 10.295
111 CP5 128 11.271
111 CP5 129 12.736
111 CP5 130 14.201
111 CP5 131 14.689
111 CP5 132 13.713
111 CP5 133 12.248
111 CP5 134 10.783
111 CP5 135 10.783
111 CP5 136 10.783
111 CP5 137 10.783
111 CP5 138 9.318
111 CP5 139 6.877
111 CP5 140 5.412
111 CP5 141 5.900
111 CP5 142 8.830
111 CP5 143 12.248
111 CP5 144 14.689
111 CP5 145 14.201
111 CP5 146 12.248
111 CP5 147 11.271
111 CP5 148 12.248
111 CP5 149 14.689
111 CP5 150 16.642
111 CP5 151 16.642
111 CP5 152 14.689
111 CP5 153 12.736
111 CP5 154 11.759
111 CP5 155 13.224
111 CP5 156 15.177
111 CP5 157 16.154
111 CP5 158 15.666
111 CP5 159 15.177
111 CP5 160 14.689
111 CP5 161 15.177
111 CP5 162 16.154
111 CP5 163 15.177
111 CP5 164 13.224
111 CP5 165 11.271
111 CP5 166 9.806
111 CP5 167 10.295
111 CP5 168 11.759
111 CP5 169 13.713
111 CP5 170 14.201
111 CP5 171 13.224
111 CP5 172 10.783
111 CP5 173 8.830
111 CP5 174 8.341
111 CP5 175 8.830
111 CP5 176 10.295
111 CP5 177 11.759
111 CP5 178 12.248
111 CP5 179 12.736
111 CP5 180 13.713
111 CP5 181 15.177
111 CP5 182 17.131
111 CP5 183 18.595
111 CP5 184 18.595
111 CP5 185 17.619
111 CP5 186 17.619
111 CP5 187 19.084
111 CP5 188 21.525
111 CP5 189 23.478
111 CP5 190 23.478
111 CP5 191 21.525
111 CP5 192 19.084
111 CP5 193 17.619
111 CP5 194 17.619
111 CP5 195 19.084
111 CP5 196 19.572
111 CP5 197 19.084
111 CP5 198 17.619
111 CP5 199 17.131
111 CP5 200 16.642
111 CP5 201 16.642
111 CP5 202 15.666
111 CP5 203 14.689
111 CP5 204 13.713
111 CP5 205 13.224
111 CP5 206 13.713
111 CP5 207 14.201
111 CP5 208 12.736
111 CP5 209 10.295
111 CP5 210 5.900
111 CP5 211 2.970
111 CP5 212 1.994
111 CP5 213 2.482
111 CP5 214 3.459
111 CP5 215 2.482
111 CP5 216 0.529
111 CP5 217 -2.401
111 CP5 218 -4.354
111 CP5 219 -4.842
111 CP5 220 -3.377
111 CP5 221 -1.912
111 CP5 222 -1.424
111 CP5 223 -1.424
111 CP5 224 -1.424
111 CP5 225 -0.936
111 CP5 226 0.529
111 CP5 227 1.506
111 CP5 228 2.970
111 CP5 229 3.459
111 CP5 230 3.947
111 CP5 231 3.947
111 CP5 232 3.947
111 CP5 233 3.947
111 CP5 234 4.435
111 CP5 235 4.924
111 CP5 236 5.900
111 CP5 237 6.877
111 CP5 238 6.388
111 CP5 239 5.412
111 CP5 240 3.947
111 CP5 241 2.970
111 CP5 242 2.970
111 CP5 243 4.435
111 CP5 244 5.900
111 CP5 245 7.365
111 CP5 246 7.365
111 CP5 247 7.365
111 CP5 248 7.365
111 CP5 249 8.341
111 CP5 250 8.830
111 CP5 251 9.318
111 CP5 252 9.806
111 CP5 253 10.295
111 CP5 254 11.759
111 CP5 255 12.736
# CP6 chan 19
111 CP6 0 4.374
111 CP6 1 6.327
111 CP6 2 6.327
111 CP6 3 5.351
111 CP6 4 4.374
111 CP6 5 4.862
111 CP6 6 6.327
111 CP6 7 8.769
111 CP6 8 10.234
111 CP6 9 8.769
111 CP6 10 5.351
111 CP6 11 2.421
111 CP6 12 0.956
111 CP6 13 1.933
111 CP6 14 3.886
111 CP6 15 5.839
111 CP6 16 6.816
111 CP6 17 6.816
111 CP6 18 6.816
111 CP6 19 5.839
111 CP6 20 4.862
111 CP6 21 3.886
111 CP6 22 2.421
111 CP6 23 1.444
111 CP6 24 2.421
111 CP6 25 3.886
111 CP6 26 5.839
111 CP6 27 7.304
111 CP6 28 6.816
111 CP6 29 5.839
111 CP6 30 4.374
111 CP6 31 2.909
111 CP6 32 1.933
111 CP6 33 1.444
111 CP6 34 1.444
111 CP6 35 1.933
111 CP6 36 1.933
111 CP6 37 1.444
111 CP6 38 -0.020
111 CP6 39 -1.973
111 CP6 40 -2.462
111 CP6 41 -1.485
111 CP6 42 -0.020
111 CP6 43 -0.020
111 CP6 44 -0.997
111 CP6 45 -2.950
111 CP6 46 -4.415
111 CP6 47 -4.415
111 CP6 48 -2.950
111 CP6 49 -1.485
111 CP6 50 -0.020
111 CP6 51 -0.509
111 CP6 52 -0.997
111 CP6 53 -1.973
111 CP6 54 -1.973
111 CP6 55 -0.509
111 CP6 56 1.933
111 CP6 57 5.351
111 CP6 58 8.280
111 CP6 59 9.257
111 CP6 60 8.280
111 CP6 61 6.327
111 CP6 62 4.862
111 CP6 63 3.886
111 CP6 64 4.862
111 CP6 65 5.839
111 CP6 66 6.327
111 CP6 67 6.327
111 CP6 68 5.839
111 CP6 69 5.839
111 CP6 70 6.816
111 CP6 71 7.792
111 CP6 72 7.792
111 CP6 73 7.304
111 CP6 74 4.862
111 CP6 75 3.398
111 CP6 76 1.933
111 CP6 77 1.444
111 CP6 78 1.444
111 CP6 79 1.933
111 CP6 80 1.933
111 CP6 81 1.933
111 CP6 82 1.444
111 CP6 83 0.956
111 CP6 84 0.468
111 CP6 85 -0.020
111 CP6 86 0.468
111 CP6 87 1.933
111 CP6 88 3.398
111 CP6 89 4.374
111 CP6 90 4.374
111 CP6 91 2.909
111 CP6 92 1.444
111 CP6 93 0.468
111 CP6 94 -0.509
111 CP6 95 -1.973
111 CP6 96 -2.950
111 CP6 97 -4.415
111 CP6 98 -4.415
111 CP6 99 -2.950
111 CP6 100 -0.997
111 CP6 101 0.468
111 CP6 102 -0.020
111 CP6 103 -1.973
111 CP6 104 -3.438
111 CP6 105 -2.950
111 CP6 106 -0.509
111 CP6 107 2.909
111 CP6 108 5.839
111 CP6 109 6.816
111 CP6 110 6.816
111 CP6 111 6.327
111 CP6 112 5.351
111 CP6 113 5.351
111 CP6 114 4.862
111 CP6 115 4.374
111 CP6 116 3.398
111 CP6 117 2.421
111 CP6 118 1.933
111 CP6 119 1.444
111 CP6 120 0.956
111 CP6 121 -0.020
111 CP6 122 -0.020
111 CP6 123 -0.020
111 CP6 124 0.956
111 CP6 125 1.933
111 CP6 126 3.398
111 CP6 127 4.374
111 CP6 128 4.862
111 CP6 129 4.374
111 CP6 130 3.398
111 CP6 131 2.421
111 CP6 132 1.933
111 CP6 133 2.909
111 CP6 134 4.374
111 CP6 135 5.351
111 CP6 136 6.327
111 CP6 137 6.327
111 CP6 138 5.351
111 CP6 139 4.374
111 CP6 140 2.909
111 CP6 141 1.933
111 CP6 142 1.444
111 CP6 143 2.421
111 CP6 144 5.839
111 CP6 145 9.257
111 CP6 146 13.163
111 CP6 147 14.628
111 CP6 148 13.652
111 CP6 149 10.234
111 CP6 150 6.327
111 CP6 151 3.886
111 CP6 152 3.886
111 CP6 153 7.304
111 CP6 154 11.698
111 CP6 155 14.628
111 CP6 156 15.605
111 CP6 157 14.628
111 CP6 158 13.163
111 CP6 159 11.698
111 CP6 160 9.745
111 CP6 161 8.280
111 CP6 162 5.839
111 CP6 163 3.398
111 CP6 164 1.933
111 CP6 165 2.421
111 CP6 166 3.886
111 CP6 167 5.351
111 CP6 168 5.839
111 CP6 169 5.351
111 CP6 170 5.351
111 CP6 171 5.351
111 CP6 172 6.327
111 CP6 173 7.304
111 CP6 174 7.792
111 CP6 175 6.816
111 CP6 176 6.327
111 CP6 177 6.327
111 CP6 178 7.304
111 CP6 179 9.257
111 CP6 180 9.745
111 CP6 181 9.257
111 CP6 182 7.304
111 CP6 183 4.862
111 CP6 184 3.886
111 CP6 185 3.886
111 CP6 186 4.862
111 CP6 187 6.816
111 CP6 188 8.280
111 CP6 189 8.769
111 CP6 190 8.769
111 CP6 191 8.769
111 CP6 192 8.769
111 CP6 193 8.769
111 CP6 194 8.769
111 CP6 195 7.792
111 CP6 196 5.839
111 CP6 197 2.909
111 CP6 198 0.956
111 CP6 199 -0.509
111 CP6 200 -0.997
111 CP6 201 -0.020
111 CP6 202 0.956
111 CP6 203 1.933
111 CP6 204 3.398
111 CP6 205 4.862
111 CP6 206 5.351
111 CP6 207 4.374
111 CP6 208 1.933
111 CP6 209 -0.997
111 CP6 210 -3.438
111 CP6 211 -4.903
111 CP6 212 -5.391
111 CP6 213 -5.880
111 CP6 214 -6.856
111 CP6 215 -9.786
111 CP6 216 -12.227
111 CP6 217 -14.669
111 CP6 218 -16.622
111 CP6 219 -17.598
111 CP6 220 -18.575
111 CP6 221 -18.575
111 CP6 222 -18.575
111 CP6 223 -18.087
111 CP6 224 -16.134
111 CP6 225 -13.204
111 CP6 226 -10.274
111 CP6 227 -7.345
111 CP6 228 -5.391
111 CP6 229 -4.903
111 CP6 230 -5.880
111 CP6 231 -7.345
111 CP6 232 -8.321
111 CP6 233 -7.833
111 CP6 234 -5.880
111 CP6 235 -3.927
111 CP6 236 -1.973
111 CP6 237 -1.485
111 CP6 238 -0.997
111 CP6 239 -0.020
111 CP6 240 0.956
111 CP6 241 1.444
111 CP6 242 0.956
111 CP6 243 -0.997
111 CP6 244 -2.950
111 CP6 245 -3.927
111 CP6 246 -2.950
111 CP6 247 -0.509
111 CP6 248 1.933
111 CP6 249 3.398
111 CP6 250 3.886
111 CP6 251 2.909
111 CP6 252 2.421
111 CP6 253 1.444
111 CP6 254 0.956
111 CP6 255 1.444
# CP1 chan 20
111 CP1 0 1.780
111 CP1 1 1.780
111 CP1 2 2.268
111 CP1 3 1.780
111 CP1 4 0.315
111 CP1 5 -1.149
111 CP1 6 -2.614
111 CP1 7 -3.103
111 CP1 8 -2.614
111 CP1 9 -2.614
111 CP1 10 -2.614
111 CP1 11 -2.614
111 CP1 12 -2.614
111 CP1 13 -2.126
111 CP1 14 -1.638
111 CP1 15 -1.149
111 CP1 16 -0.661
111 CP1 17 -1.149
111 CP1 18 -1.149
111 CP1 19 -0.661
111 CP1 20 -0.173
111 CP1 21 0.315
111 CP1 22 0.315
111 CP1 23 -0.173
111 CP1 24 -0.661
111 CP1 25 -0.173
111 CP1 26 0.804
111 CP1 27 1.292
111 CP1 28 0.315
111 CP1 29 -0.661
111 CP1 30 -1.638
111 CP1 31 -2.126
111 CP1 32 -1.638
111 CP1 33 -1.638
111 CP1 34 -2.614
111 CP1 35 -4.079
111 CP1 36 -5.056
111 CP1 37 -6.032
111 CP1 38 -5.056
111 CP1 39 -4.079
111 CP1 40 -3.103
111 CP1 41 -2.126
111 CP1 42 -1.638
111 CP1 43 -1.638
111 CP1 44 -1.149
111 CP1 45 -1.149
111 CP1 46 -1.149
111 CP1 47 -1.149
111 CP1 48 -1.638
111 CP1 49 -2.126
111 CP1 50 -2.614
111 CP1 51 -3.591
111 CP1 52 -4.079
111 CP1 53 -5.056
111 CP1 54 -5.544
111 CP1 55 -5.056
111 CP1 56 -3.591
111 CP1 57 -2.126
111 CP1 58 -1.638
111 CP1 59 -0.661
111 CP1 60 -0.173
111 CP1 61 1.292
111 CP1 62 2.268
111 CP1 63 3.245
111 CP1 64 3.245
111 CP1 65 2.757
111 CP1 66 1.780
111 CP1 67 1.292
111 CP1 68 1.292
111 CP1 69 0.804
111 CP1 70 0.804
111 CP1 71 0.804
111 CP1 72 0.315
111 CP1 73 -0.173
111 CP1 74 -0.173
111 CP1 75 0.804
111 CP1 76 1.292
111 CP1 77 1.780
111 CP1 78 1.780
111 CP1 79 1.292
111 CP1 80 0.315
111 CP1 81 -0.173
111 CP1 82 -0.173
111 CP1 83 0.315
111 CP1 84 1.292
111 CP1 85 1.292
111 CP1 86 1.292
111 CP1 87 0.804
111 CP1 88 0.804
111 CP1 89 1.780
111 CP1 90 2.757
111 CP1 91 2.757
111 CP1 92 2.268
111 CP1 93 1.780
111 CP1 94 0.804
111 CP1 95 1.292
111 CP1 96 2.268
111 CP1 97 3.245
111 CP1 98 4.222
111 CP1 99 4.222
111 CP1 100 3.733
111 CP1 101 2.757
111 CP1 102 1.780
111 CP1 103 1.780
111 CP1 104 1.780
111 CP1 105 2.268
111 CP1 106 2.757
111 CP1 107 2.268
111 CP1 108 1.780
111 CP1 109 0.804
111 CP1 110 -0.173
111 CP1 111 -1.149
111 CP1 112 -1.149
111 CP1 113 -0.661
111 CP1 114 -0.173
111 CP1 115 -0.173
111 CP1 116 -0.173
111 CP1 117 -1.149
111 CP1 118 -1.149
111 CP1 119 -0.661
111 CP1 120 -0.173
111 CP1 121 0.804
111 CP1 122 1.292
111 CP1 123 1.780
111 CP1 124 1.780
111 CP1 125 1.292
111 CP1 126 1.292
111 CP1 127 1.292
111 CP1 128 2.268
111 CP1 129 3.733
111 CP1 130 5.198
111 CP1 131 5.198
111 CP1 132 4.710
111 CP1 133 3.245
111 CP1 134 2.268
111 CP1 135 1.780
111 CP1 136 1.292
111 CP1 137 0.315
111 CP1 138 -0.173
111 CP1 139 -1.149
111 CP1 140 -1.638
111 CP1 141 -0.661
111 CP1 142 0.315
111 CP1 143 1.780
111 CP1 144 2.757
111 CP1 145 2.757
111 CP1 146 3.733
111 CP1 147 4.710
111 CP1 148 5.686
111 CP1 149 6.663
111 CP1 150 6.663
111 CP1 151 6.175
111 CP1 152 4.222
111 CP1 153 3.245
111 CP1 154 3.245
111 CP1 155 4.222
111 CP1 156 5.198
111 CP1 157 5.686
111 CP1 158 5.198
111 CP1 159 5.198
111 CP1 160 5.198
111 CP1 161 5.198
111 CP1 162 5.686
111 CP1 163 5.198
111 CP1 164 4.222
111 CP1 165 3.245
111 CP1 166 2.757
111 CP1 167 3.245
111 CP1 168 3.733
111 CP1 169 5.198
111 CP1 170 5.686
111 CP1 171 5.686
111 CP1 172 5.198
111 CP1 173 5.198
111 CP1 174 4.710
111 CP1 175 4.710
111 CP1 176 4.710
111 CP1 177 4.222
111 CP1 178 3.245
111 CP1 179 3.245
111 CP1 180 3.733
111 CP1 181 5.198
111 CP1 182 6.175
111 CP1 183 6.175
111 CP1 184 5.686
111 CP1 185 4.710
111 CP1 186 4.222
111 CP1 187 5.198
111 CP1 188 6.663
111 CP1 189 8.128
111 CP1 190 8.616
111 CP1 191 7.640
111 CP1 192 7.151
111 CP1 193 6.663
111 CP1 194 6.663
111 CP1 195 6.663
111 CP1 196 6.663
111 CP1 197 6.175
111 CP1 198 5.686
111 CP1 199 5.686
111 CP1 200 6.175
111 CP1 201 6.175
111 CP1 202 5.686
111 CP1 203 4.222
111 CP1 204 3.245
111 CP1 205 2.268
111 CP1 206 1.780
111 CP1 207 1.292
111 CP1 208 -0.173
111 CP1 209 -1.638
111 CP1 210 -3.103
111 CP1 211 -3.591
111 CP1 212 -3.103
111 CP1 213 -3.103
111 CP1 214 -3.591
111 CP1 215 -4.567
111 CP1 216 -5.544
111 CP1 217 -6.032
111 CP1 218 -6.032
111 CP1 219 -6.032
111 CP1 220 -6.521
111 CP1 221 -6.521
111 CP1 222 -6.032
111 CP1 223 -5.544
111 CP1 224 -4.079
111 CP1 225 -3.591
111 CP1 226 -3.591
111 CP1 227 -3.591
111 CP1 228 -3.103
111 CP1 229 -2.126
111 CP1 230 -1.149
111 CP1 231 -1.149
111 CP1 232 -1.149
111 CP1 233 -1.638
111 CP1 234 -1.638
111 CP1 235 -0.173
111 CP1 236 0.804
111 CP1 237 1.292
111 CP1 238 1.292
111 CP1 239 0.804
111 CP1 240 0.315
111 CP1 241 -0.173
111 CP1 242 0.315
111 CP1 243 0.315
111 CP1 244 0.804
111 CP1 245 0.804
111 CP1 246 1.292
111 CP1 247 1.780
111 CP1 248 1.780
111 CP1 249 1.780
111 CP1 250 1.292
111 CP1 251 1.292
111 CP1 252 1.780
111 CP1 253 2.757
111 CP1 254 4.222
111 CP1 255 5.198
# CP2 chan 21
111 CP2 0 3.347
111 CP2 1 3.835
111 CP2 2 3.835
111 CP2 3 2.370
111 CP2 4 0.905
111 CP2 5 -0.071
111 CP2 6 -0.071
111 CP2 7 0.417
111 CP2 8 0.417
111 CP2 9 0.417
111 CP2 10 -1.048
111 CP2 11 -2.513
111 CP2 12 -3.489
111 CP2 13 -3.001
111 CP2 14 -1.536
111 CP2 15 -0.071
111 CP2 16 1.394
111 CP2 17 2.370
111 CP2 18 2.858
111 CP2 19 2.370
111 CP2 20 0.905
111 CP2 21 -0.559
111 CP2 22 -1.048
111 CP2 23 -1.536
111 CP2 24 -0.559
111 CP2 25 0.417
111 CP2 26 1.394
111 CP2 27 1.882
111 CP2 28 1.394
111 CP2 29 0.905
111 CP2 30 0.905
111 CP2 31 0.417
111 CP2 32 -0.071
111 CP2 33 -0.559
111 CP2 34 -0.559
111 CP2 35 -0.559
111 CP2 36 -0.559
111 CP2 37 -0.559
111 CP2 38 -1.536
111 CP2 39 -2.513
111 CP2 40 -2.513
111 CP2 41 -2.513
111 CP2 42 -1.536
111 CP2 43 -1.536
111 CP2 44 -2.024
111 CP2 45 -3.001
111 CP2 46 -3.977
111 CP2 47 -3.977
111 CP2 48 -3.977
111 CP2 49 -3.489
111 CP2 50 -3.489
111 CP2 51 -4.466
111 CP2 52 -4.466
111 CP2 53 -4.466
111 CP2 54 -3.489
111 CP2 55 -2.024
111 CP2 56 -0.071
111 CP2 57 1.882
111 CP2 58 2.858
111 CP2 59 3.347
111 CP2 60 2.858
111 CP2 61 1.882
111 CP2 62 1.882
111 CP2 63 1.882
111 CP2 64 2.370
111 CP2 65 3.347
111 CP2 66 3.347
111 CP2 67 3.347
111 CP2 68 2.858
111 CP2 69 1.882
111 CP2 70 1.882
111 CP2 71 1.882
111 CP2 72 2.370
111 CP2 73 2.370
111 CP2 74 2.370
111 CP2 75 2.370
111 CP2 76 1.394
111 CP2 77 0.905
111 CP2 78 -0.071
111 CP2 79 -0.559
111 CP2 80 -1.048
111 CP2 81 -1.536
111 CP2 82 -2.024
111 CP2 83 -1.536
111 CP2 84 -1.536
111 CP2 85 -0.559
111 CP2 86 0.905
111 CP2 87 1.882
111 CP2 88 2.858
111 CP2 89 3.347
111 CP2 90 2.858
111 CP2 91 1.882
111 CP2 92 0.905
111 CP2 93 -0.071
111 CP2 94 -1.048
111 CP2 95 -1.536
111 CP2 96 -1.536
111 CP2 97 -1.536
111 CP2 98 -1.048
111 CP2 99 -0.559
111 CP2 100 -0.071
111 CP2 101 -0.559
111 CP2 102 -1.536
111 CP2 103 -2.513
111 CP2 104 -3.001
111 CP2 105 -2.024
111 CP2 106 -1.048
111 CP2 107 0.417
111 CP2 108 1.394
111 CP2 109 1.882
111 CP2 110 1.882
111 CP2 111 1.882
111 CP2 112 1.882
111 CP2 113 2.370
111 CP2 114 1.394
111 CP2 115 0.905
111 CP2 116 0.417
111 CP2 117 -0.559
111 CP2 118 -1.048
111 CP2 119 -1.048
111 CP2 120 -0.559
111 CP2 121 -0.559
111 CP2 122 -0.071
111 CP2 123 -0.559
111 CP2 124 -1.048
111 CP2 125 -1.048
111 CP2 126 -0.559
111 CP2 127 0.417
111 CP2 128 0.905
111 CP2 129 0.905
111 CP2 130 0.905
111 CP2 131 0.905
111 CP2 132 0.905
111 CP2 133 1.394
111 CP2 134 1.394
111 CP2 135 1.394
111 CP2 136 0.417
111 CP2 137 -0.071
111 CP2 138 -0.559
111 CP2 139 -0.559
111 CP2 140 -0.559
111 CP2 141 -0.559
111 CP2 142 -0.559
111 CP2 143 -0.559
111 CP2 144 0.417
111 CP2 145 1.394
111 CP2 146 3.347
111 CP2 147 4.323
111 CP2 148 5.300
111 CP2 149 5.300
111 CP2 150 4.323
111 CP2 151 3.347
111 CP2 152 2.370
111 CP2 153 2.370
111 CP2 154 3.347
111 CP2 155 4.812
111 CP2 156 5.788
111 CP2 157 6.276
111 CP2 158 5.300
111 CP2 159 4.323
111 CP2 160 3.347
111 CP2 161 2.858
111 CP2 162 2.370
111 CP2 163 1.882
111 CP2 164 1.394
111 CP2 165 1.394
111 CP2 166 1.882
111 CP2 167 1.882
111 CP2 168 1.882
111 CP2 169 2.370
111 CP2 170 2.858
111 CP2 171 3.347
111 CP2 172 3.835
111 CP2 173 3.835
111 CP2 174 3.835
111 CP2 175 3.347
111 CP2 176 2.370
111 CP2 177 2.370
111 CP2 178 1.882
111 CP2 179 1.882
111 CP2 180 1.394
111 CP2 181 1.394
111 CP2 182 0.905
111 CP2 183 0.417
111 CP2 184 -0.071
111 CP2 185 -0.559
111 CP2 186 -0.559
111 CP2 187 0.417
111 CP2 188 1.394
111 CP2 189 2.858
111 CP2 190 3.347
111 CP2 191 3.347
111 CP2 192 2.858
111 CP2 193 2.370
111 CP2 194 2.370
111 CP2 195 2.370
111 CP2 196 1.394
111 CP2 197 0.417
111 CP2 198 -1.048
111 CP2 199 -1.536
111 CP2 200 -1.536
111 CP2 201 -1.536
111 CP2 202 -1.536
111 CP2 203 -2.024
111 CP2 204 -2.024
111 CP2 205 -2.513
111 CP2 206 -2.513
111 CP2 207 -3.001
111 CP2 208 -4.466
111 CP2 209 -5.931
111 CP2 210 -6.907
111 CP2 211 -7.395
111 CP2 212 -7.395
111 CP2 213 -7.395
111 CP2 214 -7.884
111 CP2 215 -8.372
111 CP2 216 -8.860
111 CP2 217 -9.349
111 CP2 218 -10.325
111 CP2 219 -10.813
111 CP2 220 -11.790
111 CP2 221 -11.790
111 CP2 222 -11.302
111 CP2 223 -10.325
111 CP2 224 -9.349
111 CP2 225 -8.860
111 CP2 226 -8.372
111 CP2 227 -7.395
111 CP2 228 -6.419
111 CP2 229 -5.931
111 CP2 230 -5.931
111 CP2 231 -6.419
111 CP2 232 -6.419
111 CP2 233 -5.931
111 CP2 234 -4.466
111 CP2 235 -3.001
111 CP2 236 -2.024
111 CP2 237 -2.024
111 CP2 238 -2.024
111 CP2 239 -1.536
111 CP2 240 -1.048
111 CP2 241 -0.559
111 CP2 242 -0.559
111 CP2 243 -1.536
111 CP2 244 -3.001
111 CP2 245 -3.489
111 CP2 246 -3.001
111 CP2 247 -1.536
111 CP2 248 -0.559
111 CP2 249 -0.071
111 CP2 250 -0.559
111 CP2 251 -0.559
111 CP2 252 -0.559
111 CP2 253 -0.071
111 CP2 254 0.417
111 CP2 255 1.394
# P3 chan 22
111 P3 0 4.405
111 P3 1 4.405
111 P3 2 3.916
111 P3 3 1.963
111 P3 4 0.498
111 P3 5 -0.966
111 P3 6 -2.431
111 P3 7 -2.920
111 P3 8 -3.408
111 P3 9 -3.408
111 P3 10 -4.384
111 P3 11 -5.361
111 P3 12 -5.361
111 P3 13 -5.361
111 P3 14 -4.384
111 P3 15 -3.408
111 P3 16 -2.920
111 P3 17 -1.943
111 P3 18 -1.455
111 P3 19 -0.966
111 P3 20 -1.943
111 P3 21 -3.896
111 P3 22 -5.361
111 P3 23 -5.849
111 P3 24 -4.384
111 P3 25 -1.943
111 P3 26 -0.478
111 P3 27 -0.478
111 P3 28 -1.943
111 P3 29 -3.896
111 P3 30 -5.849
111 P3 31 -6.337
111 P3 32 -6.337
111 P3 33 -6.826
111 P3 34 -7.314
111 P3 35 -8.779
111 P3 36 -10.244
111 P3 37 -11.709
111 P3 38 -12.197
111 P3 39 -11.709
111 P3 40 -10.732
111 P3 41 -9.755
111 P3 42 -8.291
111 P3 43 -7.314
111 P3 44 -6.826
111 P3 45 -7.314
111 P3 46 -7.802
111 P3 47 -8.291
111 P3 48 -8.779
111 P3 49 -9.755
111 P3 50 -10.732
111 P3 51 -12.197
111 P3 52 -13.662
111 P3 53 -13.662
111 P3 54 -12.685
111 P3 55 -10.732
111 P3 56 -8.291
111 P3 57 -5.849
111 P3 58 -4.873
111 P3 59 -3.896
111 P3 60 -2.431
111 P3 61 -0.966
111 P3 62 0.498
111 P3 63 1.963
111 P3 64 2.452
111 P3 65 2.452
111 P3 66 1.475
111 P3 67 0.498
111 P3 68 -0.966
111 P3 69 -2.431
111 P3 70 -3.408
111 P3 71 -3.896
111 P3 72 -3.408
111 P3 73 -2.920
111 P3 74 -2.431
111 P3 75 -2.431
111 P3 76 -3.408
111 P3 77 -3.896
111 P3 78 -4.873
111 P3 79 -5.849
111 P3 80 -6.337
111 P3 81 -6.826
111 P3 82 -6.337
111 P3 83 -5.361
111 P3 84 -3.896
111 P3 85 -2.920
111 P3 86 -2.431
111 P3 87 -2.431
111 P3 88 -1.943
111 P3 89 -1.455
111 P3 90 -0.966
111 P3 91 -1.455
111 P3 92 -2.920
111 P3 93 -4.873
111 P3 94 -5.849
111 P3 95 -5.849
111 P3 96 -5.361
111 P3 97 -3.408
111 P3 98 -1.943
111 P3 99 -0.478
111 P3 100 0.010
111 P3 101 -0.478
111 P3 102 -0.966
111 P3 103 -1.943
111 P3 104 -1.943
111 P3 105 -1.455
111 P3 106 -0.478
111 P3 107 -0.478
111 P3 108 -1.455
111 P3 109 -2.920
111 P3 110 -4.873
111 P3 111 -6.337
111 P3 112 -6.337
111 P3 113 -5.849
111 P3 114 -5.849
111 P3 115 -6.337
111 P3 116 -7.314
111 P3 117 -8.779
111 P3 118 -9.267
111 P3 119 -8.779
111 P3 120 -7.314
111 P3 121 -5.849
111 P3 122 -4.873
111 P3 123 -4.384
111 P3 124 -4.873
111 P3 125 -4.873
111 P3 126 -4.384
111 P3 127 -3.408
111 P3 128 -1.455
111 P3 129 0.010
111 P3 130 0.987
111 P3 131 1.475
111 P3 132 1.475
111 P3 133 0.987
111 P3 134 0.498
111 P3 135 -0.966
111 P3 136 -2.431
111 P3 137 -4.384
111 P3 138 -5.849
111 P3 139 -6.826
111 P3 140 -6.826
111 P3 141 -5.849
111 P3 142 -3.896
111 P3 143 -1.455
111 P3 144 0.010
111 P3 145 0.987
111 P3 146 0.987
111 P3 147 1.475
111 P3 148 1.963
111 P3 149 2.940
111 P3 150 2.452
111 P3 151 0.987
111 P3 152 -0.966
111 P3 153 -2.431
111 P3 154 -2.431
111 P3 155 -0.966
111 P3 156 0.498
111 P3 157 1.475
111 P3 158 1.475
111 P3 159 1.475
111 P3 160 1.475
111 P3 161 0.987
111 P3 162 0.498
111 P3 163 -1.455
111 P3 164 -3.408
111 P3 165 -4.873
111 P3 166 -5.361
111 P3 167 -4.384
111 P3 168 -2.431
111 P3 169 -0.478
111 P3 170 0.498
111 P3 171 0.498
111 P3 172 0.010
111 P3 173 -1.455
111 P3 174 -2.431
111 P3 175 -2.920
111 P3 176 -2.920
111 P3 177 -2.920
111 P3 178 -2.920
111 P3 179 -2.431
111 P3 180 -1.455
111 P3 181 -0.478
111 P3 182 0.010
111 P3 183 -0.966
111 P3 184 -2.431
111 P3 185 -2.431
111 P3 186 -0.478
111 P3 187 2.940
111 P3 188 6.358
111 P3 189 8.311
111 P3 190 7.334
111 P3 191 5.381
111 P3 192 3.916
111 P3 193 2.940
111 P3 194 3.428
111 P3 195 2.940
111 P3 196 1.963
111 P3 197 0.498
111 P3 198 0.010
111 P3 199 0.010
111 P3 200 0.498
111 P3 201 0.010
111 P3 202 -0.966
111 P3 203 -3.408
111 P3 204 -5.361
111 P3 205 -6.826
111 P3 206 -7.314
111 P3 207 -8.291
111 P3 208 -10.244
111 P3 209 -12.685
111 P3 210 -14.638
111 P3 211 -16.103
111 P3 212 -17.080
111 P3 213 -18.056
111 P3 214 -19.521
111 P3 215 -21.474
111 P3 216 -22.939
111 P3 217 -23.916
111 P3 218 -24.404
111 P3 219 -24.892
111 P3 220 -26.357
111 P3 221 -26.357
111 P3 222 -25.380
111 P3 223 -23.427
111 P3 224 -21.474
111 P3 225 -19.033
111 P3 226 -17.080
111 P3 227 -15.615
111 P3 228 -14.638
111 P3 229 -13.662
111 P3 230 -13.662
111 P3 231 -14.150
111 P3 232 -14.638
111 P3 233 -14.150
111 P3 234 -12.685
111 P3 235 -10.732
111 P3 236 -9.267
111 P3 237 -8.779
111 P3 238 -8.779
111 P3 239 -9.755
111 P3 240 -9.755
111 P3 241 -9.755
111 P3 242 -9.267
111 P3 243 -9.267
111 P3 244 -9.267
111 P3 245 -8.779
111 P3 246 -7.802
111 P3 247 -6.826
111 P3 248 -6.337
111 P3 249 -6.337
111 P3 250 -6.337
111 P3 251 -6.826
111 P3 252 -5.849
111 P3 253 -3.896
111 P3 254 -1.455
111 P3 255 0.010
# P4 chan 23
111 P4 0 6.490
111 P4 1 7.955
111 P4 2 6.978
111 P4 3 4.537
111 P4 4 2.096
111 P4 5 2.096
111 P4 6 4.049
111 P4 7 6.002
111 P4 8 6.002
111 P4 9 4.537
111 P4 10 1.607
111 P4 11 -0.834
111 P4 12 -1.322
111 P4 13 -0.346
111 P4 14 1.607
111 P4 15 3.560
111 P4 16 4.537
111 P4 17 5.514
111 P4 18 5.514
111 P4 19 4.537
111 P4 20 2.584
111 P4 21 0.631
111 P4 22 -0.346
111 P4 23 -0.346
111 P4 24 1.607
111 P4 25 3.560
111 P4 26 4.537
111 P4 27 4.537
111 P4 28 4.049
111 P4 29 3.072
111 P4 30 2.584
111 P4 31 2.096
111 P4 32 1.119
111 P4 33 0.631
111 P4 34 0.142
111 P4 35 -0.346
111 P4 36 -0.834
111 P4 37 -2.299
111 P4 38 -4.252
111 P4 39 -5.229
111 P4 40 -5.229
111 P4 41 -4.252
111 P4 42 -3.276
111 P4 43 -3.764
111 P4 44 -5.229
111 P4 45 -6.694
111 P4 46 -7.670
111 P4 47 -7.670
111 P4 48 -7.182
111 P4 49 -7.670
111 P4 50 -8.158
111 P4 51 -8.647
111 P4 52 -8.158
111 P4 53 -7.182
111 P4 54 -5.229
111 P4 55 -2.787
111 P4 56 0.142
111 P4 57 3.072
111 P4 58 5.025
111 P4 59 6.002
111 P4 60 5.514
111 P4 61 4.537
111 P4 62 4.537
111 P4 63 5.025
111 P4 64 6.002
111 P4 65 6.490
111 P4 66 6.490
111 P4 67 5.025
111 P4 68 3.560
111 P4 69 3.072
111 P4 70 4.049
111 P4 71 6.002
111 P4 72 6.978
111 P4 73 6.490
111 P4 74 4.537
111 P4 75 2.584
111 P4 76 1.119
111 P4 77 0.142
111 P4 78 -0.346
111 P4 79 -1.322
111 P4 80 -1.322
111 P4 81 -2.299
111 P4 82 -2.299
111 P4 83 -1.811
111 P4 84 -0.834
111 P4 85 0.631
111 P4 86 1.607
111 P4 87 3.072
111 P4 88 4.049
111 P4 89 4.537
111 P4 90 3.560
111 P4 91 1.607
111 P4 92 -0.346
111 P4 93 -2.299
111 P4 94 -3.276
111 P4 95 -4.252
111 P4 96 -4.740
111 P4 97 -4.740
111 P4 98 -3.764
111 P4 99 -2.787
111 P4 100 -2.299
111 P4 101 -1.811
111 P4 102 -3.276
111 P4 103 -5.229
111 P4 104 -6.205
111 P4 105 -5.717
111 P4 106 -3.764
111 P4 107 -0.834
111 P4 108 1.607
111 P4 109 2.096
111 P4 110 2.096
111 P4 111 1.607
111 P4 112 1.119
111 P4 113 1.119
111 P4 114 0.631
111 P4 115 0.142
111 P4 116 -1.322
111 P4 117 -3.276
111 P4 118 -3.764
111 P4 119 -3.764
111 P4 120 -3.276
111 P4 121 -2.787
111 P4 122 -3.276
111 P4 123 -3.764
111 P4 124 -3.764
111 P4 125 -3.276
111 P4 126 -1.811
111 P4 127 -0.346
111 P4 128 0.631
111 P4 129 0.142
111 P4 130 0.142
111 P4 131 -0.346
111 P4 132 0.142
111 P4 133 1.119
111 P4 134 1.119
111 P4 135 0.631
111 P4 136 0.142
111 P4 137 -0.834
111 P4 138 -0.834
111 P4 139 -0.834
111 P4 140 -1.322
111 P4 141 -1.811
111 P4 142 -2.299
111 P4 143 -1.322
111 P4 144 1.119
111 P4 145 4.537
111 P4 146 8.443
111 P4 147 10.396
111 P4 148 10.885
111 P4 149 8.931
111 P4 150 6.002
111 P4 151 3.560
111 P4 152 3.072
111 P4 153 5.025
111 P4 154 7.955
111 P4 155 9.908
111 P4 156 9.908
111 P4 157 8.931
111 P4 158 6.978
111 P4 159 5.514
111 P4 160 4.537
111 P4 161 3.560
111 P4 162 2.096
111 P4 163 0.142
111 P4 164 -0.834
111 P4 165 -0.346
111 P4 166 1.119
111 P4 167 2.584
111 P4 168 3.560
111 P4 169 3.560
111 P4 170 4.537
111 P4 171 5.514
111 P4 172 6.490
111 P4 173 6.490
111 P4 174 5.514
111 P4 175 4.049
111 P4 176 3.072
111 P4 177 3.560
111 P4 178 4.537
111 P4 179 5.514
111 P4 180 6.002
111 P4 181 5.514
111 P4 182 3.560
111 P4 183 1.607
111 P4 184 0.631
111 P4 185 0.142
111 P4 186 1.607
111 P4 187 4.049
111 P4 188 6.002
111 P4 189 6.978
111 P4 190 6.978
111 P4 191 6.490
111 P4 192 6.002
111 P4 193 6.002
111 P4 194 5.514
111 P4 195 5.025
111 P4 196 3.560
111 P4 197 1.607
111 P4 198 0.631
111 P4 199 0.631
111 P4 200 1.119
111 P4 201 1.119
111 P4 202 0.631
111 P4 203 0.142
111 P4 204 0.142
111 P4 205 1.119
111 P4 206 1.607
111 P4 207 0.631
111 P4 208 -2.299
111 P4 209 -5.717
111 P4 210 -9.135
111 P4 211 -10.111
111 P4 212 -11.088
111 P4 213 -12.553
111 P4 214 -14.994
111 P4 215 -17.924
111 P4 216 -19.877
111 P4 217 -21.342
111 P4 218 -21.830
111 P4 219 -22.319
111 P4 220 -23.295
111 P4 221 -23.783
111 P4 222 -23.295
111 P4 223 -22.319
111 P4 224 -20.365
111 P4 225 -17.924
111 P4 226 -15.971
111 P4 227 -14.018
111 P4 228 -12.553
111 P4 229 -12.065
111 P4 230 -13.041
111 P4 231 -14.018
111 P4 232 -14.018
111 P4 233 -12.553
111 P4 234 -10.111
111 P4 235 -7.182
111 P4 236 -5.717
111 P4 237 -5.229
111 P4 238 -5.229
111 P4 239 -4.740
111 P4 240 -4.252
111 P4 241 -4.252
111 P4 242 -4.740
111 P4 243 -6.205
111 P4 244 -7.182
111 P4 245 -7.182
111 P4 246 -6.205
111 P4 247 -4.740
111 P4 248 -3.764
111 P4 249 -3.276
111 P4 250 -2.787
111 P4 251 -1.811
111 P4 252 -0.346
111 P4 253 1.119
111 P4 254 2.096
111 P4 255 2.584
# PZ chan 24
111 PZ 0 4.496
111 PZ 1 5.473
111 PZ 2 4.985
111 PZ 3 2.543
111 PZ 4 0.102
111 PZ 5 -1.851
111 PZ 6 -2.340
111 PZ 7 -1.363
111 PZ 8 -0.875
111 PZ 9 -0.875
111 PZ 10 -2.340
111 PZ 11 -4.293
111 PZ 12 -5.269
111 PZ 13 -4.781
111 PZ 14 -3.316
111 PZ 15 -1.363
111 PZ 16 0.102
111 PZ 17 1.567
111 PZ 18 2.055
111 PZ 19 2.055
111 PZ 20 0.590
111 PZ 21 -0.875
111 PZ 22 -1.851
111 PZ 23 -2.340
111 PZ 24 -1.363
111 PZ 25 0.590
111 PZ 26 2.055
111 PZ 27 2.543
111 PZ 28 2.055
111 PZ 29 1.078
111 PZ 30 0.102
111 PZ 31 -0.387
111 PZ 32 -0.875
111 PZ 33 -1.363
111 PZ 34 -1.851
111 PZ 35 -2.340
111 PZ 36 -3.805
111 PZ 37 -4.781
111 PZ 38 -5.758
111 PZ 39 -6.734
111 PZ 40 -6.246
111 PZ 41 -5.758
111 PZ 42 -4.293
111 PZ 43 -3.805
111 PZ 44 -3.805
111 PZ 45 -4.293
111 PZ 46 -5.269
111 PZ 47 -5.758
111 PZ 48 -6.246
111 PZ 49 -7.222
111 PZ 50 -7.711
111 PZ 51 -8.199
111 PZ 52 -8.687
111 PZ 53 -8.199
111 PZ 54 -7.222
111 PZ 55 -5.269
111 PZ 56 -3.316
111 PZ 57 -0.875
111 PZ 58 0.590
111 PZ 59 1.567
111 PZ 60 2.543
111 PZ 61 3.031
111 PZ 62 3.520
111 PZ 63 4.008
111 PZ 64 4.496
111 PZ 65 4.985
111 PZ 66 4.985
111 PZ 67 4.008
111 PZ 68 2.543
111 PZ 69 1.567
111 PZ 70 1.078
111 PZ 71 1.567
111 PZ 72 2.055
111 PZ 73 2.543
111 PZ 74 2.055
111 PZ 75 1.567
111 PZ 76 0.102
111 PZ 77 -0.875
111 PZ 78 -1.363
111 PZ 79 -1.363
111 PZ 80 -1.851
111 PZ 81 -2.340
111 PZ 82 -2.340
111 PZ 83 -2.340
111 PZ 84 -1.363
111 PZ 85 -0.387
111 PZ 86 0.590
111 PZ 87 1.567
111 PZ 88 2.055
111 PZ 89 2.055
111 PZ 90 2.055
111 PZ 91 2.055
111 PZ 92 1.078
111 PZ 93 -0.387
111 PZ 94 -1.851
111 PZ 95 -2.828
111 PZ 96 -2.340
111 PZ 97 -1.851
111 PZ 98 -0.387
111 PZ 99 -0.387
111 PZ 100 0.102
111 PZ 101 -0.387
111 PZ 102 -1.363
111 PZ 103 -1.363
111 PZ 104 -1.851
111 PZ 105 -1.363
111 PZ 106 -0.387
111 PZ 107 0.102
111 PZ 108 0.102
111 PZ 109 -0.387
111 PZ 110 -0.387
111 PZ 111 -1.363
111 PZ 112 -1.363
111 PZ 113 -0.875
111 PZ 114 -0.875
111 PZ 115 -0.875
111 PZ 116 -1.363
111 PZ 117 -1.851
111 PZ 118 -2.828
111 PZ 119 -2.828
111 PZ 120 -2.340
111 PZ 121 -1.363
111 PZ 122 -0.387
111 PZ 123 -0.387
111 PZ 124 -1.363
111 PZ 125 -1.363
111 PZ 126 -0.875
111 PZ 127 0.102
111 PZ 128 1.078
111 PZ 129 2.055
111 PZ 130 2.543
111 PZ 131 2.055
111 PZ 132 2.055
111 PZ 133 2.055
111 PZ 134 2.055
111 PZ 135 1.567
111 PZ 136 0.590
111 PZ 137 0.102
111 PZ 138 -0.875
111 PZ 139 -1.363
111 PZ 140 -1.363
111 PZ 141 -1.363
111 PZ 142 -0.875
111 PZ 143 0.590
111 PZ 144 2.055
111 PZ 145 4.008
111 PZ 146 5.961
111 PZ 147 7.914
111 PZ 148 8.403
111 PZ 149 8.403
111 PZ 150 6.938
111 PZ 151 4.985
111 PZ 152 3.031
111 PZ 153 2.543
111 PZ 154 2.543
111 PZ 155 3.520
111 PZ 156 4.496
111 PZ 157 4.985
111 PZ 158 4.496
111 PZ 159 3.520
111 PZ 160 3.031
111 PZ 161 3.031
111 PZ 162 2.543
111 PZ 163 2.543
111 PZ 164 1.567
111 PZ 165 1.078
111 PZ 166 1.078
111 PZ 167 1.078
111 PZ 168 2.055
111 PZ 169 3.031
111 PZ 170 4.496
111 PZ 171 5.473
111 PZ 172 5.473
111 PZ 173 4.985
111 PZ 174 4.496
111 PZ 175 3.031
111 PZ 176 2.543
111 PZ 177 2.543
111 PZ 178 2.055
111 PZ 179 2.543
111 PZ 180 2.055
111 PZ 181 2.543
111 PZ 182 2.055
111 PZ 183 1.567
111 PZ 184 0.590
111 PZ 185 0.590
111 PZ 186 1.078
111 PZ 187 3.031
111 PZ 188 4.985
111 PZ 189 6.449
111 PZ 190 6.449
111 PZ 191 5.473
111 PZ 192 4.985
111 PZ 193 4.496
111 PZ 194 4.985
111 PZ 195 4.985
111 PZ 196 4.496
111 PZ 197 3.031
111 PZ 198 2.055
111 PZ 199 1.567
111 PZ 200 1.078
111 PZ 201 0.590
111 PZ 202 0.102
111 PZ 203 -1.363
111 PZ 204 -1.851
111 PZ 205 -2.828
111 PZ 206 -2.828
111 PZ 207 -3.805
111 PZ 208 -5.758
111 PZ 209 -8.199
111 PZ 210 -10.640
111 PZ 211 -12.105
111 PZ 212 -13.082
111 PZ 213 -13.570
111 PZ 214 -15.035
111 PZ 215 -16.500
111 PZ 216 -17.965
111 PZ 217 -18.941
111 PZ 218 -19.430
111 PZ 219 -19.430
111 PZ 220 -19.918
111 PZ 221 -20.406
111 PZ 222 -20.406
111 PZ 223 -20.406
111 PZ 224 -18.941
111 PZ 225 -16.988
111 PZ 226 -15.523
111 PZ 227 -14.547
111 PZ 228 -14.058
111 PZ 229 -13.570
111 PZ 230 -14.058
111 PZ 231 -14.547
111 PZ 232 -14.547
111 PZ 233 -13.570
111 PZ 234 -12.105
111 PZ 235 -10.152
111 PZ 236 -8.687
111 PZ 237 -8.199
111 PZ 238 -7.711
111 PZ 239 -7.711
111 PZ 240 -8.199
111 PZ 241 -8.199
111 PZ 242 -9.176
111 PZ 243 -9.664
111 PZ 244 -9.664
111 PZ 245 -9.664
111 PZ 246 -9.176
111 PZ 247 -8.687
111 PZ 248 -8.199
111 PZ 249 -8.199
111 PZ 250 -8.199
111 PZ 251 -8.687
111 PZ 252 -7.711
111 PZ 253 -6.246
111 PZ 254 -4.293
111 PZ 255 -2.828
# P8 chan 25
111 P8 0 5.758
111 P8 1 8.687
111 P8 2 8.687
111 P8 3 6.246
111 P8 4 3.316
111 P8 5 3.316
111 P8 6 5.758
111 P8 7 9.664
111 P8 8 12.105
111 P8 9 11.129
111 P8 10 7.711
111 P8 11 3.805
111 P8 12 1.363
111 P8 13 0.875
111 P8 14 2.340
111 P8 15 4.293
111 P8 16 5.758
111 P8 17 7.711
111 P8 18 8.199
111 P8 19 7.711
111 P8 20 5.269
111 P8 21 2.340
111 P8 22 -0.590
111 P8 23 -1.078
111 P8 24 -0.102
111 P8 25 2.340
111 P8 26 4.293
111 P8 27 4.781
111 P8 28 4.293
111 P8 29 3.316
111 P8 30 2.340
111 P8 31 1.363
111 P8 32 0.387
111 P8 33 0.387
111 P8 34 0.387
111 P8 35 -0.102
111 P8 36 -1.078
111 P8 37 -3.520
111 P8 38 -7.426
111 P8 39 -10.356
111 P8 40 -12.309
111 P8 41 -11.820
111 P8 42 -10.356
111 P8 43 -10.356
111 P8 44 -11.332
111 P8 45 -13.285
111 P8 46 -14.750
111 P8 47 -14.262
111 P8 48 -13.774
111 P8 49 -13.285
111 P8 50 -13.285
111 P8 51 -13.285
111 P8 52 -12.797
111 P8 53 -10.356
111 P8 54 -6.938
111 P8 55 -3.031
111 P8 56 0.387
111 P8 57 2.340
111 P8 58 3.316
111 P8 59 3.805
111 P8 60 3.316
111 P8 61 2.340
111 P8 62 1.363
111 P8 63 0.875
111 P8 64 0.387
111 P8 65 0.875
111 P8 66 0.875
111 P8 67 0.387
111 P8 68 -0.590
111 P8 69 -1.567
111 P8 70 -1.078
111 P8 71 0.875
111 P8 72 3.316
111 P8 73 4.781
111 P8 74 3.805
111 P8 75 0.875
111 P8 76 -3.520
111 P8 77 -6.938
111 P8 78 -8.891
111 P8 79 -8.891
111 P8 80 -8.403
111 P8 81 -8.403
111 P8 82 -8.403
111 P8 83 -8.891
111 P8 84 -8.891
111 P8 85 -7.914
111 P8 86 -6.938
111 P8 87 -5.961
111 P8 88 -5.473
111 P8 89 -4.985
111 P8 90 -4.985
111 P8 91 -4.985
111 P8 92 -6.449
111 P8 93 -7.914
111 P8 94 -10.356
111 P8 95 -12.797
111 P8 96 -14.262
111 P8 97 -14.262
111 P8 98 -13.285
111 P8 99 -11.332
111 P8 100 -9.379
111 P8 101 -7.914
111 P8 102 -8.403
111 P8 103 -9.379
111 P8 104 -10.356
111 P8 105 -9.867
111 P8 106 -7.914
111 P8 107 -5.473
111 P8 108 -3.031
111 P8 109 -2.543
111 P8 110 -3.031
111 P8 111 -4.496
111 P8 112 -5.473
111 P8 113 -5.473
111 P8 114 -4.496
111 P8 115 -4.008
111 P8 116 -4.496
111 P8 117 -5.473
111 P8 118 -6.938
111 P8 119 -7.426
111 P8 120 -6.938
111 P8 121 -5.473
111 P8 122 -4.985
111 P8 123 -4.985
111 P8 124 -5.473
111 P8 125 -5.473
111 P8 126 -4.985
111 P8 127 -4.008
111 P8 128 -3.520
111 P8 129 -4.008
111 P8 130 -5.473
111 P8 131 -6.449
111 P8 132 -6.938
111 P8 133 -6.449
111 P8 134 -5.473
111 P8 135 -4.985
111 P8 136 -4.496
111 P8 137 -4.008
111 P8 138 -3.520
111 P8 139 -3.031
111 P8 140 -4.008
111 P8 141 -5.473
111 P8 142 -6.449
111 P8 143 -4.496
111 P8 144 0.387
111 P8 145 7.711
111 P8 146 16.012
111 P8 147 20.406
111 P8 148 18.453
111 P8 149 10.152
111 P8 150 -1.567
111 P8 151 -9.867
111 P8 152 -10.844
111 P8 153 -4.496
111 P8 154 5.269
111 P8 155 11.617
111 P8 156 12.105
111 P8 157 7.711
111 P8 158 2.828
111 P8 159 1.363
111 P8 160 1.851
111 P8 161 2.828
111 P8 162 0.875
111 P8 163 -3.031
111 P8 164 -6.449
111 P8 165 -6.938
111 P8 166 -4.985
111 P8 167 -2.055
111 P8 168 -0.102
111 P8 169 -0.102
111 P8 170 -0.590
111 P8 171 -0.590
111 P8 172 0.387
111 P8 173 0.875
111 P8 174 -0.102
111 P8 175 -2.543
111 P8 176 -4.496
111 P8 177 -4.985
111 P8 178 -3.031
111 P8 179 0.387
111 P8 180 2.828
111 P8 181 3.316
111 P8 182 1.363
111 P8 183 -1.078
111 P8 184 -3.031
111 P8 185 -3.520
111 P8 186 -1.078
111 P8 187 1.851
111 P8 188 4.293
111 P8 189 5.269
111 P8 190 4.293
111 P8 191 2.828
111 P8 192 1.851
111 P8 193 2.340
111 P8 194 2.828
111 P8 195 1.851
111 P8 196 -1.078
111 P8 197 -4.496
111 P8 198 -7.426
111 P8 199 -7.914
111 P8 200 -7.426
111 P8 201 -5.961
111 P8 202 -5.961
111 P8 203 -6.449
111 P8 204 -6.449
111 P8 205 -5.961
111 P8 206 -4.985
111 P8 207 -4.496
111 P8 208 -6.449
111 P8 209 -9.867
111 P8 210 -13.774
111 P8 211 -16.215
111 P8 212 -18.168
111 P8 213 -20.121
111 P8 214 -23.051
111 P8 215 -27.445
111 P8 216 -32.328
111 P8 217 -36.235
111 P8 218 -39.164
111 P8 219 -40.629
111 P8 220 -41.606
111 P8 221 -42.094
111 P8 222 -42.094
111 P8 223 -40.141
111 P8 224 -36.235
111 P8 225 -31.840
111 P8 226 -26.957
111 P8 227 -23.539
111 P8 228 -21.586
111 P8 229 -21.586
111 P8 230 -23.051
111 P8 231 -24.516
111 P8 232 -25.004
111 P8 233 -23.539
111 P8 234 -21.098
111 P8 235 -18.656
111 P8 236 -17.192
111 P8 237 -16.703
111 P8 238 -16.703
111 P8 239 -16.703
111 P8 240 -15.727
111 P8 241 -15.727
111 P8 242 -15.238
111 P8 243 -16.215
111 P8 244 -16.215
111 P8 245 -16.215
111 P8 246 -15.238
111 P8 247 -14.262
111 P8 248 -13.285
111 P8 249 -12.797
111 P8 250 -12.309
111 P8 251 -10.844
111 P8 252 -8.891
111 P8 253 -7.426
111 P8 254 -6.449
111 P8 255 -5.961
# P7 chan 26
111 P7 0 6.114
111 P7 1 7.090
111 P7 2 6.602
111 P7 3 5.137
111 P7 4 3.672
111 P7 5 2.696
111 P7 6 2.696
111 P7 7 3.184
111 P7 8 3.672
111 P7 9 3.184
111 P7 10 2.207
111 P7 11 1.231
111 P7 12 0.743
111 P7 13 0.743
111 P7 14 1.231
111 P7 15 2.207
111 P7 16 3.184
111 P7 17 4.649
111 P7 18 5.625
111 P7 19 6.114
111 P7 20 4.649
111 P7 21 1.231
111 P7 22 -1.699
111 P7 23 -4.140
111 P7 24 -3.164
111 P7 25 -0.722
111 P7 26 1.719
111 P7 27 2.696
111 P7 28 1.231
111 P7 29 -1.211
111 P7 30 -3.164
111 P7 31 -3.652
111 P7 32 -3.652
111 P7 33 -3.164
111 P7 34 -3.164
111 P7 35 -4.628
111 P7 36 -6.582
111 P7 37 -9.023
111 P7 38 -10.488
111 P7 39 -10.976
111 P7 40 -10.000
111 P7 41 -9.023
111 P7 42 -7.558
111 P7 43 -7.070
111 P7 44 -7.070
111 P7 45 -7.070
111 P7 46 -7.558
111 P7 47 -7.558
111 P7 48 -8.046
111 P7 49 -9.023
111 P7 50 -10.488
111 P7 51 -11.953
111 P7 52 -12.929
111 P7 53 -12.929
111 P7 54 -11.464
111 P7 55 -9.023
111 P7 56 -6.093
111 P7 57 -3.652
111 P7 58 -2.187
111 P7 59 -1.211
111 P7 60 -0.722
111 P7 61 0.743
111 P7 62 2.696
111 P7 63 5.137
111 P7 64 6.602
111 P7 65 7.090
111 P7 66 6.114
111 P7 67 4.161
111 P7 68 1.231
111 P7 69 -1.211
111 P7 70 -2.187
111 P7 71 -2.187
111 P7 72 -1.211
111 P7 73 -0.234
111 P7 74 0.254
111 P7 75 0.254
111 P7 76 -0.234
111 P7 77 -1.211
111 P7 78 -2.675
111 P7 79 -4.628
111 P7 80 -6.093
111 P7 81 -7.070
111 P7 82 -6.582
111 P7 83 -5.117
111 P7 84 -3.164
111 P7 85 -0.722
111 P7 86 0.743
111 P7 87 1.719
111 P7 88 1.719
111 P7 89 1.719
111 P7 90 1.231
111 P7 91 -0.234
111 P7 92 -2.675
111 P7 93 -5.605
111 P7 94 -8.046
111 P7 95 -9.023
111 P7 96 -8.046
111 P7 97 -6.093
111 P7 98 -3.164
111 P7 99 -1.211
111 P7 100 -0.234
111 P7 101 -0.722
111 P7 102 -1.699
111 P7 103 -2.187
111 P7 104 -1.699
111 P7 105 -0.234
111 P7 106 1.231
111 P7 107 1.719
111 P7 108 0.254
111 P7 109 -2.675
111 P7 110 -4.628
111 P7 111 -6.093
111 P7 112 -5.605
111 P7 113 -4.140
111 P7 114 -2.675
111 P7 115 -3.164
111 P7 116 -4.140
111 P7 117 -5.605
111 P7 118 -6.582
111 P7 119 -6.582
111 P7 120 -4.628
111 P7 121 -3.164
111 P7 122 -1.699
111 P7 123 -0.722
