# co2a0000384.rd
# 120 trials, 64 chans, 416 samples 368 post_stim samples
# 3.906000 msecs uV
# S1 obj , trial 88
# FP1 chan 0
88 FP1 0 -1.567
88 FP1 1 -6.449
88 FP1 2 -9.379
88 FP1 3 -10.356
88 FP1 4 -11.332
88 FP1 5 -12.309
88 FP1 6 -13.285
88 FP1 7 -12.797
88 FP1 8 -9.379
88 FP1 9 -4.008
88 FP1 10 -0.102
88 FP1 11 -0.102
88 FP1 12 -2.543
88 FP1 13 -4.985
88 FP1 14 -3.520
88 FP1 15 2.340
88 FP1 16 9.664
88 FP1 17 15.035
88 FP1 18 16.988
88 FP1 19 16.012
88 FP1 20 13.570
88 FP1 21 11.129
88 FP1 22 8.687
88 FP1 23 5.269
88 FP1 24 2.340
88 FP1 25 0.387
88 FP1 26 0.387
88 FP1 27 0.875
88 FP1 28 0.875
88 FP1 29 -0.590
88 FP1 30 -3.520
88 FP1 31 -6.449
88 FP1 32 -8.403
88 FP1 33 -8.891
88 FP1 34 -7.914
88 FP1 35 -5.961
88 FP1 36 -2.543
88 FP1 37 1.363
88 FP1 38 4.293
88 FP1 39 5.758
88 FP1 40 6.734
88 FP1 41 7.222
88 FP1 42 8.199
88 FP1 43 10.640
88 FP1 44 13.570
88 FP1 45 16.012
88 FP1 46 17.476
88 FP1 47 18.453
88 FP1 48 18.453
88 FP1 49 19.430
88 FP1 50 21.383
88 FP1 51 24.312
88 FP1 52 27.242
88 FP1 53 28.707
88 FP1 54 26.754
88 FP1 55 20.894
88 FP1 56 13.082
88 FP1 57 4.781
88 FP1 58 -2.055
88 FP1 59 -5.473
88 FP1 60 -6.938
88 FP1 61 -7.426
88 FP1 62 -8.403
88 FP1 63 -8.891
88 FP1 64 -8.403
88 FP1 65 -5.473
88 FP1 66 -1.078
88 FP1 67 2.828
88 FP1 68 4.293
88 FP1 69 2.340
88 FP1 70 -1.567
88 FP1 71 -4.496
88 FP1 72 -4.496
88 FP1 73 -2.055
88 FP1 74 1.363
88 FP1 75 4.293
88 FP1 76 6.734
88 FP1 77 9.176
88 FP1 78 11.617
88 FP1 79 13.082
88 FP1 80 13.082
88 FP1 81 11.129
88 FP1 82 8.199
88 FP1 83 5.758
88 FP1 84 5.269
88 FP1 85 5.269
88 FP1 86 4.293
88 FP1 87 1.363
88 FP1 88 -2.543
88 FP1 89 -5.961
88 FP1 90 -6.449
88 FP1 91 -5.473
88 FP1 92 -4.008
88 FP1 93 -3.520
88 FP1 94 -4.008
88 FP1 95 -3.031
88 FP1 96 -1.078
88 FP1 97 1.363
88 FP1 98 1.851
88 FP1 99 0.875
88 FP1 100 -1.567
88 FP1 101 -2.543
88 FP1 102 -1.567
88 FP1 103 0.875
88 FP1 104 2.828
88 FP1 105 3.805
88 FP1 106 4.293
88 FP1 107 5.758
88 FP1 108 9.176
88 FP1 109 11.617
88 FP1 110 11.617
88 FP1 111 9.176
88 FP1 112 6.734
88 FP1 113 5.758
88 FP1 114 7.222
88 FP1 115 8.687
88 FP1 116 7.222
88 FP1 117 2.340
88 FP1 118 -4.496
88 FP1 119 -10.356
88 FP1 120 -12.309
88 FP1 121 -11.332
88 FP1 122 -7.914
88 FP1 123 -4.496
88 FP1 124 -1.078
88 FP1 125 0.875
88 FP1 126 2.828
88 FP1 127 3.805
88 FP1 128 3.805
88 FP1 129 4.293
88 FP1 130 6.246
88 FP1 131 8.687
88 FP1 132 10.640
88 FP1 133 10.640
88 FP1 134 9.176
88 FP1 135 8.199
88 FP1 136 7.711
88 FP1 137 8.199
88 FP1 138 7.711
88 FP1 139 5.269
88 FP1 140 0.387
88 FP1 141 -3.031
88 FP1 142 -3.520
88 FP1 143 -1.078
88 FP1 144 2.340
88 FP1 145 2.828
88 FP1 146 0.387
88 FP1 147 -3.520
88 FP1 148 -6.449
88 FP1 149 -6.449
88 FP1 150 -5.961
88 FP1 151 -5.473
88 FP1 152 -5.961
88 FP1 153 -4.985
88 FP1 154 -0.590
88 FP1 155 5.758
88 FP1 156 11.129
88 FP1 157 12.105
88 FP1 158 9.664
88 FP1 159 5.758
88 FP1 160 4.293
88 FP1 161 7.222
88 FP1 162 12.594
88 FP1 163 17.476
88 FP1 164 17.965
88 FP1 165 14.058
88 FP1 166 7.711
88 FP1 167 2.828
88 FP1 168 0.387
88 FP1 169 0.875
88 FP1 170 2.340
88 FP1 171 1.363
88 FP1 172 -0.102
88 FP1 173 -2.543
88 FP1 174 -3.520
88 FP1 175 -3.031
88 FP1 176 -2.543
88 FP1 177 -3.520
88 FP1 178 -4.985
88 FP1 179 -5.473
88 FP1 180 -5.473
88 FP1 181 -4.496
88 FP1 182 -3.520
88 FP1 183 -1.567
88 FP1 184 1.851
88 FP1 185 6.734
88 FP1 186 12.105
88 FP1 187 15.523
88 FP1 188 16.500
88 FP1 189 15.523
88 FP1 190 16.012
88 FP1 191 17.965
88 FP1 192 20.406
88 FP1 193 20.894
88 FP1 194 16.012
88 FP1 195 8.687
88 FP1 196 1.363
88 FP1 197 -3.031
88 FP1 198 -3.520
88 FP1 199 -2.055
88 FP1 200 -0.590
88 FP1 201 -1.078
88 FP1 202 -3.520
88 FP1 203 -6.938
88 FP1 204 -10.356
88 FP1 205 -13.774
88 FP1 206 -15.238
88 FP1 207 -15.238
88 FP1 208 -13.285
88 FP1 209 -10.844
88 FP1 210 -8.403
88 FP1 211 -6.938
88 FP1 212 -6.938
88 FP1 213 -6.938
88 FP1 214 -6.938
88 FP1 215 -6.449
88 FP1 216 -5.473
88 FP1 217 -4.496
88 FP1 218 -4.496
88 FP1 219 -4.496
88 FP1 220 -4.496
88 FP1 221 -4.496
88 FP1 222 -3.031
88 FP1 223 -1.567
88 FP1 224 -0.102
88 FP1 225 0.875
88 FP1 226 1.363
88 FP1 227 1.363
88 FP1 228 0.387
88 FP1 229 -0.590
88 FP1 230 -2.543
88 FP1 231 -3.520
88 FP1 232 -4.496
88 FP1 233 -5.473
88 FP1 234 -7.426
88 FP1 235 -10.356
88 FP1 236 -13.285
88 FP1 237 -14.750
88 FP1 238 -14.262
88 FP1 239 -12.309
88 FP1 240 -9.867
88 FP1 241 -7.426
88 FP1 242 -4.008
88 FP1 243 -0.590
88 FP1 244 3.316
88 FP1 245 5.758
88 FP1 246 6.246
88 FP1 247 5.269
88 FP1 248 3.805
88 FP1 249 3.805
88 FP1 250 5.758
88 FP1 251 9.176
88 FP1 252 12.105
88 FP1 253 12.594
88 FP1 254 11.617
88 FP1 255 9.664
# FP2 chan 1
88 FP2 0 -2.696
88 FP2 1 -4.649
88 FP2 2 -5.625
88 FP2 3 -6.602
88 FP2 4 -8.555
88 FP2 5 -10.508
88 FP2 6 -12.461
88 FP2 7 -12.461
88 FP2 8 -10.508
88 FP2 9 -7.579
88 FP2 10 -5.137
88 FP2 11 -3.184
88 FP2 12 -1.719
88 FP2 13 0.722
88 FP2 14 4.628
88 FP2 15 8.535
88 FP2 16 12.441
88 FP2 17 15.371
88 FP2 18 16.836
88 FP2 19 17.812
88 FP2 20 17.812
88 FP2 21 16.347
88 FP2 22 13.906
88 FP2 23 11.464
88 FP2 24 9.511
88 FP2 25 9.023
88 FP2 26 9.511
88 FP2 27 9.511
88 FP2 28 8.046
88 FP2 29 3.652
88 FP2 30 -0.743
88 FP2 31 -3.672
88 FP2 32 -3.672
88 FP2 33 -1.231
88 FP2 34 2.675
88 FP2 35 5.605
88 FP2 36 7.070
88 FP2 37 6.582
88 FP2 38 6.093
88 FP2 39 6.093
88 FP2 40 7.070
88 FP2 41 8.046
88 FP2 42 9.023
88 FP2 43 10.488
88 FP2 44 12.929
88 FP2 45 15.371
88 FP2 46 18.300
88 FP2 47 20.742
88 FP2 48 21.718
88 FP2 49 22.207
88 FP2 50 24.160
88 FP2 51 27.578
88 FP2 52 30.507
88 FP2 53 31.484
88 FP2 54 28.066
88 FP2 55 21.718
88 FP2 56 13.906
88 FP2 57 7.558
88 FP2 58 3.652
88 FP2 59 1.211
88 FP2 60 -1.231
88 FP2 61 -4.161
88 FP2 62 -6.114
88 FP2 63 -7.090
88 FP2 64 -5.625
88 FP2 65 -2.207
88 FP2 66 0.722
88 FP2 67 2.675
88 FP2 68 3.164
88 FP2 69 1.699
88 FP2 70 0.234
88 FP2 71 -0.254
88 FP2 72 -0.254
88 FP2 73 0.722
88 FP2 74 2.675
88 FP2 75 4.628
88 FP2 76 6.582
88 FP2 77 8.046
88 FP2 78 9.511
88 FP2 79 10.976
88 FP2 80 12.929
88 FP2 81 14.882
88 FP2 82 15.859
88 FP2 83 14.882
88 FP2 84 11.953
88 FP2 85 7.070
88 FP2 86 2.675
88 FP2 87 -0.254
88 FP2 88 -1.719
88 FP2 89 -1.231
88 FP2 90 -0.743
88 FP2 91 -0.254
88 FP2 92 0.234
88 FP2 93 1.211
88 FP2 94 2.675
88 FP2 95 4.140
88 FP2 96 4.628
88 FP2 97 4.140
88 FP2 98 2.675
88 FP2 99 0.234
88 FP2 100 -1.719
88 FP2 101 -2.696
88 FP2 102 -0.743
88 FP2 103 2.187
88 FP2 104 6.582
88 FP2 105 9.511
88 FP2 106 10.488
88 FP2 107 10.000
88 FP2 108 10.000
88 FP2 109 11.464
88 FP2 110 14.394
88 FP2 111 16.836
88 FP2 112 17.812
88 FP2 113 15.371
88 FP2 114 10.488
88 FP2 115 5.605
88 FP2 116 1.699
88 FP2 117 -0.254
88 FP2 118 -1.719
88 FP2 119 -2.696
88 FP2 120 -3.672
88 FP2 121 -3.672
88 FP2 122 -2.696
88 FP2 123 -0.254
88 FP2 124 1.699
88 FP2 125 2.675
88 FP2 126 2.675
88 FP2 127 3.164
88 FP2 128 4.628
88 FP2 129 8.046
88 FP2 130 11.953
88 FP2 131 14.394
88 FP2 132 14.394
88 FP2 133 12.929
88 FP2 134 10.000
88 FP2 135 7.070
88 FP2 136 5.117
88 FP2 137 2.675
88 FP2 138 0.234
88 FP2 139 -1.719
88 FP2 140 -3.672
88 FP2 141 -4.161
88 FP2 142 -4.161
88 FP2 143 -4.161
88 FP2 144 -4.649
88 FP2 145 -5.625
88 FP2 146 -7.090
88 FP2 147 -7.579
88 FP2 148 -7.579
88 FP2 149 -8.067
88 FP2 150 -8.067
88 FP2 151 -8.067
88 FP2 152 -6.114
88 FP2 153 -2.696
88 FP2 154 2.675
88 FP2 155 8.046
88 FP2 156 10.976
88 FP2 157 10.488
88 FP2 158 8.046
88 FP2 159 5.605
88 FP2 160 5.605
88 FP2 161 8.535
88 FP2 162 12.929
88 FP2 163 16.347
88 FP2 164 16.347
88 FP2 165 12.929
88 FP2 166 7.070
88 FP2 167 1.211
88 FP2 168 -2.207
88 FP2 169 -3.672
88 FP2 170 -2.696
88 FP2 171 -1.231
88 FP2 172 0.722
88 FP2 173 1.211
88 FP2 174 -0.743
88 FP2 175 -3.184
88 FP2 176 -6.602
88 FP2 177 -8.555
88 FP2 178 -8.067
88 FP2 179 -6.114
88 FP2 180 -3.184
88 FP2 181 -1.231
88 FP2 182 -0.743
88 FP2 183 -0.254
88 FP2 184 1.699
88 FP2 185 4.628
88 FP2 186 8.046
88 FP2 187 10.488
88 FP2 188 11.953
88 FP2 189 12.929
88 FP2 190 14.394
88 FP2 191 16.836
88 FP2 192 18.300
88 FP2 193 18.300
88 FP2 194 14.882
88 FP2 195 10.000
88 FP2 196 4.140
88 FP2 197 -1.719
88 FP2 198 -5.137
88 FP2 199 -7.090
88 FP2 200 -7.579
88 FP2 201 -7.579
88 FP2 202 -7.579
88 FP2 203 -8.067
88 FP2 204 -9.532
88 FP2 205 -10.997
88 FP2 206 -10.997
88 FP2 207 -10.020
88 FP2 208 -8.067
88 FP2 209 -6.602
88 FP2 210 -6.114
88 FP2 211 -6.114
88 FP2 212 -6.602
88 FP2 213 -6.602
88 FP2 214 -6.114
88 FP2 215 -5.137
88 FP2 216 -4.649
88 FP2 217 -4.161
88 FP2 218 -5.137
88 FP2 219 -6.114
88 FP2 220 -6.602
88 FP2 221 -7.090
88 FP2 222 -6.114
88 FP2 223 -4.161
88 FP2 224 -2.207
88 FP2 225 -0.743
88 FP2 226 -0.743
88 FP2 227 -0.743
88 FP2 228 -1.231
88 FP2 229 -2.207
88 FP2 230 -3.672
88 FP2 231 -6.602
88 FP2 232 -9.532
88 FP2 233 -11.973
88 FP2 234 -11.973
88 FP2 235 -10.508
88 FP2 236 -8.067
88 FP2 237 -6.602
88 FP2 238 -6.114
88 FP2 239 -7.090
88 FP2 240 -8.067
88 FP2 241 -9.532
88 FP2 242 -10.020
88 FP2 243 -9.532
88 FP2 244 -8.555
88 FP2 245 -5.137
88 FP2 246 -1.719
88 FP2 247 1.211
88 FP2 248 2.675
88 FP2 249 2.187
88 FP2 250 1.211
88 FP2 251 1.699
88 FP2 252 3.652
88 FP2 253 6.093
88 FP2 254 8.046
88 FP2 255 8.535
# F7 chan 2
88 F7 0 -8.555
88 F7 1 -8.555
88 F7 2 -9.043
88 F7 3 -10.508
88 F7 4 -13.438
88 F7 5 -15.391
88 F7 6 -14.414
88 F7 7 -10.020
88 F7 8 -3.672
88 F7 9 0.234
88 F7 10 1.211
88 F7 11 -0.743
88 F7 12 -1.719
88 F7 13 -0.743
88 F7 14 1.211
88 F7 15 3.164
88 F7 16 2.675
88 F7 17 1.699
88 F7 18 1.699
88 F7 19 3.164
88 F7 20 4.628
88 F7 21 4.140
88 F7 22 2.187
88 F7 23 0.234
88 F7 24 0.722
88 F7 25 3.652
88 F7 26 6.582
88 F7 27 6.093
88 F7 28 1.211
88 F7 29 -6.602
88 F7 30 -12.461
88 F7 31 -14.414
88 F7 32 -12.461
88 F7 33 -8.555
88 F7 34 -5.137
88 F7 35 -3.184
88 F7 36 -3.184
88 F7 37 -3.672
88 F7 38 -4.649
88 F7 39 -5.625
88 F7 40 -6.114
88 F7 41 -5.137
88 F7 42 -2.207
88 F7 43 1.699
88 F7 44 6.093
88 F7 45 9.023
88 F7 46 10.976
88 F7 47 12.929
88 F7 48 14.882
88 F7 49 16.836
88 F7 50 18.300
88 F7 51 18.300
88 F7 52 16.836
88 F7 53 14.882
88 F7 54 13.418
88 F7 55 11.464
88 F7 56 8.535
88 F7 57 4.628
88 F7 58 -0.743
88 F7 59 -6.114
88 F7 60 -9.043
88 F7 61 -10.508
88 F7 62 -10.997
88 F7 63 -10.508
88 F7 64 -10.508
88 F7 65 -10.508
88 F7 66 -10.020
88 F7 67 -8.555
88 F7 68 -7.090
88 F7 69 -5.625
88 F7 70 -4.161
88 F7 71 -3.184
88 F7 72 -1.719
88 F7 73 0.234
88 F7 74 2.675
88 F7 75 5.117
88 F7 76 7.558
88 F7 77 8.535
88 F7 78 9.023
88 F7 79 9.511
88 F7 80 10.488
88 F7 81 11.953
88 F7 82 12.441
88 F7 83 11.953
88 F7 84 9.511
88 F7 85 6.093
88 F7 86 1.699
88 F7 87 -1.719
88 F7 88 -3.672
88 F7 89 -5.625
88 F7 90 -6.602
88 F7 91 -8.067
88 F7 92 -9.043
88 F7 93 -9.532
88 F7 94 -9.043
88 F7 95 -6.114
88 F7 96 -2.207
88 F7 97 1.699
88 F7 98 5.117
88 F7 99 6.582
88 F7 100 5.605
88 F7 101 4.628
88 F7 102 4.628
88 F7 103 5.117
88 F7 104 6.582
88 F7 105 6.582
88 F7 106 5.117
88 F7 107 2.187
88 F7 108 -0.254
88 F7 109 -0.743
88 F7 110 1.699
88 F7 111 5.605
88 F7 112 8.535
88 F7 113 10.000
88 F7 114 9.023
88 F7 115 7.070
88 F7 116 4.628
88 F7 117 2.187
88 F7 118 0.234
88 F7 119 -1.231
88 F7 120 -1.719
88 F7 121 -1.719
88 F7 122 -0.254
88 F7 123 1.211
88 F7 124 1.211
88 F7 125 0.722
88 F7 126 0.234
88 F7 127 0.722
88 F7 128 1.699
88 F7 129 4.140
88 F7 130 5.605
88 F7 131 6.582
88 F7 132 6.582
88 F7 133 6.093
88 F7 134 5.605
88 F7 135 5.605
88 F7 136 4.628
88 F7 137 4.628
88 F7 138 4.140
88 F7 139 4.140
88 F7 140 5.605
88 F7 141 8.046
88 F7 142 10.488
88 F7 143 11.464
88 F7 144 9.511
88 F7 145 5.605
88 F7 146 0.722
88 F7 147 -3.672
88 F7 148 -5.625
88 F7 149 -5.137
88 F7 150 -2.696
88 F7 151 0.234
88 F7 152 2.187
88 F7 153 3.164
88 F7 154 3.164
88 F7 155 2.187
88 F7 156 0.722
88 F7 157 -0.743
88 F7 158 -1.719
88 F7 159 -1.719
88 F7 160 0.234
88 F7 161 4.628
88 F7 162 9.511
88 F7 163 12.929
88 F7 164 13.906
88 F7 165 11.953
88 F7 166 8.046
88 F7 167 5.117
88 F7 168 3.164
88 F7 169 2.675
88 F7 170 3.164
88 F7 171 4.628
88 F7 172 5.605
88 F7 173 7.558
88 F7 174 8.046
88 F7 175 8.046
88 F7 176 6.582
88 F7 177 4.628
88 F7 178 1.699
88 F7 179 -0.254
88 F7 180 -2.207
88 F7 181 -3.184
88 F7 182 -3.672
88 F7 183 -2.696
88 F7 184 -0.743
88 F7 185 2.187
88 F7 186 6.093
88 F7 187 9.023
88 F7 188 11.953
88 F7 189 14.394
88 F7 190 16.836
88 F7 191 19.277
88 F7 192 20.253
88 F7 193 19.277
88 F7 194 15.859
88 F7 195 11.464
88 F7 196 7.070
88 F7 197 4.140
88 F7 198 2.675
88 F7 199 3.164
88 F7 200 3.652
88 F7 201 4.140
88 F7 202 2.675
88 F7 203 -0.743
88 F7 204 -5.625
88 F7 205 -10.020
88 F7 206 -11.973
88 F7 207 -11.973
88 F7 208 -10.020
88 F7 209 -9.043
88 F7 210 -10.020
88 F7 211 -11.973
88 F7 212 -13.438
88 F7 213 -13.438
88 F7 214 -10.997
88 F7 215 -8.067
88 F7 216 -6.114
88 F7 217 -6.114
88 F7 218 -6.114
88 F7 219 -6.114
88 F7 220 -5.137
88 F7 221 -2.696
88 F7 222 -0.254
88 F7 223 1.211
88 F7 224 2.187
88 F7 225 2.187
88 F7 226 2.187
88 F7 227 2.187
88 F7 228 1.699
88 F7 229 -0.254
88 F7 230 -3.184
88 F7 231 -6.602
88 F7 232 -9.532
88 F7 233 -11.973
88 F7 234 -13.926
88 F7 235 -16.368
88 F7 236 -17.832
88 F7 237 -17.344
88 F7 238 -15.391
88 F7 239 -12.950
88 F7 240 -11.485
88 F7 241 -11.485
88 F7 242 -11.485
88 F7 243 -9.043
88 F7 244 -3.184
88 F7 245 4.140
88 F7 246 11.464
88 F7 247 15.371
88 F7 248 14.882
88 F7 249 11.953
88 F7 250 8.535
88 F7 251 7.558
88 F7 252 9.511
88 F7 253 11.953
88 F7 254 13.906
88 F7 255 13.418
# F8 chan 3
88 F8 0 -2.350
88 F8 1 -4.303
88 F8 2 -5.768
88 F8 3 -6.256
88 F8 4 -7.233
88 F8 5 -8.698
88 F8 6 -10.162
88 F8 7 -11.139
88 F8 8 -11.627
88 F8 9 -10.162
88 F8 10 -8.209
88 F8 11 -6.256
88 F8 12 -4.303
88 F8 13 -2.838
88 F8 14 -1.373
88 F8 15 0.092
88 F8 16 2.533
88 F8 17 5.463
88 F8 18 7.416
88 F8 19 8.392
88 F8 20 7.904
88 F8 21 5.951
88 F8 22 3.510
88 F8 23 2.045
88 F8 24 2.045
88 F8 25 2.533
88 F8 26 3.510
88 F8 27 3.510
88 F8 28 1.556
88 F8 29 -0.885
88 F8 30 -3.815
88 F8 31 -5.768
88 F8 32 -5.768
88 F8 33 -4.791
88 F8 34 -2.350
88 F8 35 0.092
88 F8 36 1.068
88 F8 37 0.580
88 F8 38 -0.397
88 F8 39 -1.862
88 F8 40 -1.862
88 F8 41 -1.373
88 F8 42 0.092
88 F8 43 1.556
88 F8 44 2.533
88 F8 45 3.021
88 F8 46 3.510
88 F8 47 3.021
88 F8 48 3.998
88 F8 49 5.463
88 F8 50 8.881
88 F8 51 13.275
88 F8 52 17.181
88 F8 53 18.158
88 F8 54 14.740
88 F8 55 8.392
88 F8 56 1.068
88 F8 57 -5.280
88 F8 58 -8.209
88 F8 59 -8.698
88 F8 60 -7.721
88 F8 61 -7.721
88 F8 62 -8.209
88 F8 63 -9.674
88 F8 64 -10.162
88 F8 65 -9.674
88 F8 66 -8.209
88 F8 67 -6.744
88 F8 68 -6.256
88 F8 69 -6.256
88 F8 70 -6.256
88 F8 71 -6.256
88 F8 72 -5.768
88 F8 73 -5.768
88 F8 74 -5.768
88 F8 75 -5.768
88 F8 76 -4.303
88 F8 77 -1.862
88 F8 78 0.580
88 F8 79 3.510
88 F8 80 5.463
88 F8 81 6.439
88 F8 82 5.951
88 F8 83 4.486
88 F8 84 2.045
88 F8 85 -0.397
88 F8 86 -2.350
88 F8 87 -4.303
88 F8 88 -6.256
88 F8 89 -7.721
88 F8 90 -9.674
88 F8 91 -11.627
88 F8 92 -12.115
88 F8 93 -11.139
88 F8 94 -8.698
88 F8 95 -6.256
88 F8 96 -4.303
88 F8 97 -4.303
88 F8 98 -5.280
88 F8 99 -6.744
88 F8 100 -8.209
88 F8 101 -8.698
88 F8 102 -7.721
88 F8 103 -5.768
88 F8 104 -2.838
88 F8 105 -0.397
88 F8 106 1.068
88 F8 107 2.045
88 F8 108 2.045
88 F8 109 2.533
88 F8 110 3.021
88 F8 111 3.510
88 F8 112 3.510
88 F8 113 2.533
88 F8 114 0.092
88 F8 115 -2.350
88 F8 116 -4.303
88 F8 117 -5.280
88 F8 118 -6.256
88 F8 119 -6.744
88 F8 120 -6.744
88 F8 121 -5.768
88 F8 122 -4.303
88 F8 123 -2.838
88 F8 124 -1.862
88 F8 125 -1.862
88 F8 126 -2.350
88 F8 127 -1.373
88 F8 128 0.092
88 F8 129 2.533
88 F8 130 4.974
88 F8 131 5.951
88 F8 132 5.463
88 F8 133 3.021
88 F8 134 -0.397
88 F8 135 -4.303
88 F8 136 -7.721
88 F8 137 -10.651
88 F8 138 -11.627
88 F8 139 -11.139
88 F8 140 -9.674
88 F8 141 -8.209
88 F8 142 -7.721
88 F8 143 -8.209
88 F8 144 -9.186
88 F8 145 -10.651
88 F8 146 -11.627
88 F8 147 -12.115
88 F8 148 -11.627
88 F8 149 -10.162
88 F8 150 -9.186
88 F8 151 -8.209
88 F8 152 -7.721
88 F8 153 -6.256
88 F8 154 -3.815
88 F8 155 -0.397
88 F8 156 3.510
88 F8 157 5.951
88 F8 158 6.927
88 F8 159 6.439
88 F8 160 5.463
88 F8 161 4.974
88 F8 162 5.463
88 F8 163 6.439
88 F8 164 6.439
88 F8 165 4.974
88 F8 166 2.045
88 F8 167 -1.373
88 F8 168 -4.303
88 F8 169 -5.280
88 F8 170 -3.815
88 F8 171 -1.373
88 F8 172 0.580
88 F8 173 2.045
88 F8 174 1.068
88 F8 175 -1.862
88 F8 176 -5.280
88 F8 177 -8.698
88 F8 178 -10.651
88 F8 179 -10.162
88 F8 180 -7.721
88 F8 181 -5.280
88 F8 182 -1.862
88 F8 183 0.092
88 F8 184 1.068
88 F8 185 1.068
88 F8 186 1.068
88 F8 187 2.045
88 F8 188 3.998
88 F8 189 6.439
88 F8 190 8.881
88 F8 191 11.322
88 F8 192 11.810
88 F8 193 10.345
88 F8 194 6.927
88 F8 195 2.045
88 F8 196 -2.838
88 F8 197 -6.256
88 F8 198 -7.233
88 F8 199 -6.744
88 F8 200 -5.768
88 F8 201 -6.744
88 F8 202 -9.674
88 F8 203 -13.092
88 F8 204 -15.533
88 F8 205 -15.045
88 F8 206 -12.115
88 F8 207 -8.209
88 F8 208 -5.768
88 F8 209 -5.768
88 F8 210 -7.233
88 F8 211 -9.674
88 F8 212 -11.139
88 F8 213 -10.651
88 F8 214 -8.698
88 F8 215 -6.256
88 F8 216 -4.791
88 F8 217 -4.791
88 F8 218 -6.256
88 F8 219 -9.186
88 F8 220 -11.627
88 F8 221 -12.115
88 F8 222 -10.651
88 F8 223 -7.721
88 F8 224 -5.280
88 F8 225 -4.303
88 F8 226 -4.303
88 F8 227 -5.280
88 F8 228 -5.280
88 F8 229 -4.791
88 F8 230 -3.815
88 F8 231 -4.303
88 F8 232 -5.768
88 F8 233 -7.721
88 F8 234 -9.186
88 F8 235 -9.186
88 F8 236 -8.698
88 F8 237 -8.209
88 F8 238 -8.209
88 F8 239 -9.674
88 F8 240 -10.162
88 F8 241 -10.651
88 F8 242 -11.139
88 F8 243 -10.651
88 F8 244 -10.651
88 F8 245 -9.674
88 F8 246 -8.209
88 F8 247 -6.256
88 F8 248 -5.280
88 F8 249 -4.791
88 F8 250 -5.280
88 F8 251 -5.280
88 F8 252 -4.303
88 F8 253 -2.350
88 F8 254 1.068
88 F8 255 4.486
# AF1 chan 4
88 AF1 0 -3.428
88 AF1 1 -2.452
88 AF1 2 -1.475
88 AF1 3 -1.963
88 AF1 4 -3.428
88 AF1 5 -5.870
88 AF1 6 -7.823
88 AF1 7 -7.823
88 AF1 8 -6.846
88 AF1 9 -4.405
88 AF1 10 -2.452
88 AF1 11 0.478
88 AF1 12 3.408
88 AF1 13 6.337
88 AF1 14 8.779
88 AF1 15 10.244
88 AF1 16 11.220
88 AF1 17 11.709
88 AF1 18 11.709
88 AF1 19 11.220
88 AF1 20 9.755
88 AF1 21 7.314
88 AF1 22 4.873
88 AF1 23 3.408
88 AF1 24 2.920
88 AF1 25 2.920
88 AF1 26 2.920
88 AF1 27 1.943
88 AF1 28 -0.498
88 AF1 29 -3.916
88 AF1 30 -7.334
88 AF1 31 -9.288
88 AF1 32 -8.311
88 AF1 33 -5.381
88 AF1 34 -0.987
88 AF1 35 3.408
88 AF1 36 5.361
88 AF1 37 4.873
88 AF1 38 3.408
88 AF1 39 1.943
88 AF1 40 1.943
88 AF1 41 3.896
88 AF1 42 6.826
88 AF1 43 9.755
88 AF1 44 12.685
88 AF1 45 13.662
88 AF1 46 14.638
88 AF1 47 15.615
88 AF1 48 17.568
88 AF1 49 20.498
88 AF1 50 23.916
88 AF1 51 26.357
88 AF1 52 26.845
88 AF1 53 24.404
88 AF1 54 19.033
88 AF1 55 13.173
88 AF1 56 7.802
88 AF1 57 3.408
88 AF1 58 -0.010
88 AF1 59 -2.940
88 AF1 60 -5.381
88 AF1 61 -7.334
88 AF1 62 -8.311
88 AF1 63 -7.823
88 AF1 64 -6.358
88 AF1 65 -4.893
88 AF1 66 -3.916
88 AF1 67 -3.428
88 AF1 68 -2.940
88 AF1 69 -2.940
88 AF1 70 -1.963
88 AF1 71 -0.987
88 AF1 72 0.478
88 AF1 73 1.943
88 AF1 74 4.384
88 AF1 75 5.849
88 AF1 76 6.337
88 AF1 77 5.849
88 AF1 78 5.849
88 AF1 79 7.314
88 AF1 80 10.244
88 AF1 81 13.662
88 AF1 82 15.615
88 AF1 83 14.638
88 AF1 84 11.220
88 AF1 85 6.337
88 AF1 86 1.943
88 AF1 87 -0.987
88 AF1 88 -2.452
88 AF1 89 -3.428
88 AF1 90 -4.405
88 AF1 91 -4.893
88 AF1 92 -4.893
88 AF1 93 -4.405
88 AF1 94 -2.940
88 AF1 95 -1.475
88 AF1 96 -0.498
88 AF1 97 0.478
88 AF1 98 0.966
88 AF1 99 1.455
88 AF1 100 0.966
88 AF1 101 0.478
88 AF1 102 0.478
88 AF1 103 0.966
88 AF1 104 2.431
88 AF1 105 4.873
88 AF1 106 6.826
88 AF1 107 7.314
88 AF1 108 6.826
88 AF1 109 5.849
88 AF1 110 6.337
88 AF1 111 7.314
88 AF1 112 8.779
88 AF1 113 9.267
88 AF1 114 8.291
88 AF1 115 6.337
88 AF1 116 3.896
88 AF1 117 2.431
88 AF1 118 1.455
88 AF1 119 0.478
88 AF1 120 -0.987
88 AF1 121 -1.963
88 AF1 122 -2.452
88 AF1 123 -0.987
88 AF1 124 -0.010
88 AF1 125 0.478
88 AF1 126 -0.498
88 AF1 127 -1.475
88 AF1 128 -0.987
88 AF1 129 1.943
88 AF1 130 6.826
88 AF1 131 11.220
88 AF1 132 14.150
88 AF1 133 13.173
88 AF1 134 11.709
88 AF1 135 9.755
88 AF1 136 8.291
88 AF1 137 7.802
88 AF1 138 6.337
88 AF1 139 4.873
88 AF1 140 2.920
88 AF1 141 2.431
88 AF1 142 2.920
88 AF1 143 3.896
88 AF1 144 4.384
88 AF1 145 3.896
88 AF1 146 1.943
88 AF1 147 -0.010
88 AF1 148 -1.963
88 AF1 149 -3.428
88 AF1 150 -3.916
88 AF1 151 -3.428
88 AF1 152 -1.963
88 AF1 153 0.966
88 AF1 154 3.896
88 AF1 155 6.826
88 AF1 156 7.802
88 AF1 157 7.314
88 AF1 158 6.337
88 AF1 159 5.849
88 AF1 160 6.826
88 AF1 161 9.755
88 AF1 162 14.150
88 AF1 163 17.568
88 AF1 164 18.545
88 AF1 165 16.103
88 AF1 166 11.709
88 AF1 167 6.826
88 AF1 168 3.408
88 AF1 169 1.943
88 AF1 170 1.943
88 AF1 171 2.920
88 AF1 172 3.896
88 AF1 173 3.408
88 AF1 174 1.943
88 AF1 175 0.478
88 AF1 176 -0.010
88 AF1 177 -0.010
88 AF1 178 1.455
88 AF1 179 2.920
88 AF1 180 2.920
88 AF1 181 1.943
88 AF1 182 0.478
88 AF1 183 -0.010
88 AF1 184 1.455
88 AF1 185 4.873
88 AF1 186 8.779
88 AF1 187 11.220
88 AF1 188 13.173
88 AF1 189 14.150
88 AF1 190 15.615
88 AF1 191 17.568
88 AF1 192 19.033
88 AF1 193 18.056
88 AF1 194 14.638
88 AF1 195 9.755
88 AF1 196 5.361
88 AF1 197 2.431
88 AF1 198 1.455
88 AF1 199 1.943
88 AF1 200 1.943
88 AF1 201 1.943
88 AF1 202 0.478
88 AF1 203 -1.475
88 AF1 204 -3.916
88 AF1 205 -5.381
88 AF1 206 -5.870
88 AF1 207 -5.870
88 AF1 208 -4.893
88 AF1 209 -3.916
88 AF1 210 -2.452
88 AF1 211 -1.475
88 AF1 212 -1.475
88 AF1 213 -1.475
88 AF1 214 -0.987
88 AF1 215 -0.498
88 AF1 216 0.478
88 AF1 217 1.455
88 AF1 218 1.455
88 AF1 219 0.966
88 AF1 220 -0.010
88 AF1 221 -0.498
88 AF1 222 -0.498
88 AF1 223 0.966
88 AF1 224 3.896
88 AF1 225 6.826
88 AF1 226 8.779
88 AF1 227 9.755
88 AF1 228 9.267
88 AF1 229 7.314
88 AF1 230 4.384
88 AF1 231 0.966
88 AF1 232 -1.963
88 AF1 233 -3.428
88 AF1 234 -3.916
88 AF1 235 -3.428
88 AF1 236 -2.452
88 AF1 237 -2.452
88 AF1 238 -2.452
88 AF1 239 -2.452
88 AF1 240 -2.452
88 AF1 241 -2.452
88 AF1 242 -1.475
88 AF1 243 -0.987
88 AF1 244 0.478
88 AF1 245 2.920
88 AF1 246 6.337
88 AF1 247 9.267
88 AF1 248 10.732
88 AF1 249 10.732
88 AF1 250 9.267
88 AF1 251 8.291
88 AF1 252 8.291
88 AF1 253 9.267
88 AF1 254 11.220
88 AF1 255 12.197
# AF2 chan 5
88 AF2 0 -0.702
88 AF2 1 -0.702
88 AF2 2 -1.190
88 AF2 3 -1.678
88 AF2 4 -3.143
88 AF2 5 -5.585
88 AF2 6 -8.026
88 AF2 7 -9.491
88 AF2 8 -9.491
88 AF2 9 -7.538
88 AF2 10 -4.608
88 AF2 11 -1.190
88 AF2 12 1.740
88 AF2 13 3.693
88 AF2 14 5.646
88 AF2 15 7.111
88 AF2 16 8.575
88 AF2 17 10.529
88 AF2 18 11.993
88 AF2 19 12.970
88 AF2 20 12.482
88 AF2 21 11.017
88 AF2 22 8.575
88 AF2 23 5.646
88 AF2 24 3.693
88 AF2 25 3.204
88 AF2 26 3.204
88 AF2 27 3.204
88 AF2 28 1.740
88 AF2 29 -0.214
88 AF2 30 -3.143
88 AF2 31 -4.608
88 AF2 32 -4.608
88 AF2 33 -3.632
88 AF2 34 -1.678
88 AF2 35 1.251
88 AF2 36 3.204
88 AF2 37 3.693
88 AF2 38 3.693
88 AF2 39 3.204
88 AF2 40 3.204
88 AF2 41 4.181
88 AF2 42 5.646
88 AF2 43 7.599
88 AF2 44 9.064
88 AF2 45 10.529
88 AF2 46 11.993
88 AF2 47 12.970
88 AF2 48 14.435
88 AF2 49 16.876
88 AF2 50 19.806
88 AF2 51 22.736
88 AF2 52 24.200
88 AF2 53 23.712
88 AF2 54 20.782
88 AF2 55 14.923
88 AF2 56 8.575
88 AF2 57 2.716
88 AF2 58 -1.678
88 AF2 59 -4.120
88 AF2 60 -5.585
88 AF2 61 -7.538
88 AF2 62 -8.514
88 AF2 63 -8.514
88 AF2 64 -7.050
88 AF2 65 -5.096
88 AF2 66 -3.143
88 AF2 67 -2.167
88 AF2 68 -3.143
88 AF2 69 -4.120
88 AF2 70 -5.096
88 AF2 71 -5.096
88 AF2 72 -4.120
88 AF2 73 -2.167
88 AF2 74 -0.214
88 AF2 75 1.251
88 AF2 76 2.228
88 AF2 77 3.693
88 AF2 78 4.669
88 AF2 79 6.622
88 AF2 80 8.575
88 AF2 81 9.552
88 AF2 82 10.529
88 AF2 83 9.552
88 AF2 84 7.599
88 AF2 85 4.181
88 AF2 86 1.251
88 AF2 87 -1.678
88 AF2 88 -3.143
88 AF2 89 -4.120
88 AF2 90 -4.608
88 AF2 91 -4.608
88 AF2 92 -4.608
88 AF2 93 -4.120
88 AF2 94 -3.632
88 AF2 95 -2.167
88 AF2 96 -1.190
88 AF2 97 -0.702
88 AF2 98 -1.190
88 AF2 99 -2.167
88 AF2 100 -3.143
88 AF2 101 -3.632
88 AF2 102 -3.143
88 AF2 103 -1.678
88 AF2 104 0.763
88 AF2 105 2.716
88 AF2 106 4.181
88 AF2 107 4.669
88 AF2 108 5.646
88 AF2 109 6.622
88 AF2 110 8.087
88 AF2 111 9.064
88 AF2 112 9.064
88 AF2 113 8.087
88 AF2 114 6.134
88 AF2 115 4.181
88 AF2 116 2.228
88 AF2 117 0.275
88 AF2 118 -1.190
88 AF2 119 -3.143
88 AF2 120 -3.632
88 AF2 121 -3.632
88 AF2 122 -2.655
88 AF2 123 -1.190
88 AF2 124 -0.214
88 AF2 125 -0.702
88 AF2 126 -1.190
88 AF2 127 -1.190
88 AF2 128 0.275
88 AF2 129 3.693
88 AF2 130 7.111
88 AF2 131 10.529
88 AF2 132 11.993
88 AF2 133 11.017
88 AF2 134 9.552
88 AF2 135 7.111
88 AF2 136 4.669
88 AF2 137 2.228
88 AF2 138 -0.214
88 AF2 139 -1.678
88 AF2 140 -3.143
88 AF2 141 -3.143
88 AF2 142 -2.655
88 AF2 143 -1.678
88 AF2 144 -1.678
88 AF2 145 -2.167
88 AF2 146 -3.632
88 AF2 147 -5.096
88 AF2 148 -6.561
88 AF2 149 -7.050
88 AF2 150 -6.561
88 AF2 151 -5.096
88 AF2 152 -3.143
88 AF2 153 0.275
88 AF2 154 3.693
88 AF2 155 6.134
88 AF2 156 7.599
88 AF2 157 7.599
88 AF2 158 7.111
88 AF2 159 6.622
88 AF2 160 7.111
88 AF2 161 9.064
88 AF2 162 11.505
88 AF2 163 13.458
88 AF2 164 13.458
88 AF2 165 11.505
88 AF2 166 7.599
88 AF2 167 3.204
88 AF2 168 -0.214
88 AF2 169 -1.190
88 AF2 170 -0.214
88 AF2 171 1.251
88 AF2 172 2.716
88 AF2 173 2.716
88 AF2 174 1.251
88 AF2 175 -1.190
88 AF2 176 -3.143
88 AF2 177 -4.120
88 AF2 178 -3.632
88 AF2 179 -1.678
88 AF2 180 0.275
88 AF2 181 1.251
88 AF2 182 1.740
88 AF2 183 1.740
88 AF2 184 2.716
88 AF2 185 4.669
88 AF2 186 6.622
88 AF2 187 8.575
88 AF2 188 9.552
88 AF2 189 10.040
88 AF2 190 11.505
88 AF2 191 12.970
88 AF2 192 14.435
88 AF2 193 14.923
88 AF2 194 12.970
88 AF2 195 9.064
88 AF2 196 4.181
88 AF2 197 0.275
88 AF2 198 -1.678
88 AF2 199 -2.655
88 AF2 200 -2.655
88 AF2 201 -3.143
88 AF2 202 -4.120
88 AF2 203 -5.585
88 AF2 204 -6.073
88 AF2 205 -5.585
88 AF2 206 -4.120
88 AF2 207 -2.655
88 AF2 208 -0.702
88 AF2 209 0.275
88 AF2 210 0.763
88 AF2 211 -0.214
88 AF2 212 -0.702
88 AF2 213 -1.678
88 AF2 214 -1.190
88 AF2 215 -1.190
88 AF2 216 -0.214
88 AF2 217 0.275
88 AF2 218 -0.702
88 AF2 219 -2.167
88 AF2 220 -3.632
88 AF2 221 -4.608
88 AF2 222 -4.120
88 AF2 223 -2.167
88 AF2 224 -0.214
88 AF2 225 2.716
88 AF2 226 4.181
88 AF2 227 5.646
88 AF2 228 5.646
88 AF2 229 5.157
88 AF2 230 4.181
88 AF2 231 2.228
88 AF2 232 -0.214
88 AF2 233 -1.678
88 AF2 234 -3.143
88 AF2 235 -3.143
88 AF2 236 -3.632
88 AF2 237 -3.632
88 AF2 238 -4.120
88 AF2 239 -4.120
88 AF2 240 -3.632
88 AF2 241 -3.632
88 AF2 242 -3.143
88 AF2 243 -3.632
88 AF2 244 -3.632
88 AF2 245 -3.143
88 AF2 246 -1.678
88 AF2 247 0.763
88 AF2 248 2.228
88 AF2 249 3.204
88 AF2 250 3.204
88 AF2 251 3.204
88 AF2 252 3.204
88 AF2 253 4.669
88 AF2 254 6.134
88 AF2 255 7.599
# FZ chan 6
88 FZ 0 -0.102
88 FZ 1 0.387
88 FZ 2 0.875
88 FZ 3 0.387
88 FZ 4 -1.078
88 FZ 5 -3.031
88 FZ 6 -4.985
88 FZ 7 -5.961
88 FZ 8 -5.961
88 FZ 9 -4.008
88 FZ 10 -1.078
88 FZ 11 2.340
88 FZ 12 4.781
88 FZ 13 6.246
88 FZ 14 6.734
88 FZ 15 7.222
88 FZ 16 7.711
88 FZ 17 8.687
88 FZ 18 9.664
88 FZ 19 10.152
88 FZ 20 9.664
88 FZ 21 7.711
88 FZ 22 5.758
88 FZ 23 3.316
88 FZ 24 1.851
88 FZ 25 0.387
88 FZ 26 -0.590
88 FZ 27 -1.567
88 FZ 28 -2.543
88 FZ 29 -4.008
88 FZ 30 -5.473
88 FZ 31 -6.449
88 FZ 32 -5.961
88 FZ 33 -4.985
88 FZ 34 -2.543
88 FZ 35 0.387
88 FZ 36 2.340
88 FZ 37 3.316
88 FZ 38 2.828
88 FZ 39 2.340
88 FZ 40 2.340
88 FZ 41 2.828
88 FZ 42 4.293
88 FZ 43 6.246
88 FZ 44 7.711
88 FZ 45 9.176
88 FZ 46 10.640
88 FZ 47 12.105
88 FZ 48 14.058
88 FZ 49 16.012
88 FZ 50 17.965
88 FZ 51 19.430
88 FZ 52 19.918
88 FZ 53 18.453
88 FZ 54 15.035
88 FZ 55 9.664
88 FZ 56 3.805
88 FZ 57 -0.590
88 FZ 58 -3.520
88 FZ 59 -5.473
88 FZ 60 -6.449
88 FZ 61 -7.426
88 FZ 62 -7.914
88 FZ 63 -7.426
88 FZ 64 -5.961
88 FZ 65 -4.008
88 FZ 66 -3.031
88 FZ 67 -3.031
88 FZ 68 -4.008
88 FZ 69 -5.473
88 FZ 70 -5.473
88 FZ 71 -4.985
88 FZ 72 -3.520
88 FZ 73 -1.567
88 FZ 74 -0.102
88 FZ 75 0.875
88 FZ 76 2.340
88 FZ 77 3.316
88 FZ 78 4.781
88 FZ 79 6.246
88 FZ 80 7.711
88 FZ 81 8.687
88 FZ 82 9.176
88 FZ 83 8.687
88 FZ 84 6.734
88 FZ 85 3.805
88 FZ 86 0.387
88 FZ 87 -2.055
88 FZ 88 -4.008
88 FZ 89 -4.985
88 FZ 90 -5.473
88 FZ 91 -4.985
88 FZ 92 -4.496
88 FZ 93 -4.496
88 FZ 94 -4.008
88 FZ 95 -3.031
88 FZ 96 -2.055
88 FZ 97 -2.055
88 FZ 98 -1.567
88 FZ 99 -2.543
88 FZ 100 -3.031
88 FZ 101 -3.031
88 FZ 102 -2.543
88 FZ 103 -1.078
88 FZ 104 0.875
88 FZ 105 1.851
88 FZ 106 2.828
88 FZ 107 3.316
88 FZ 108 3.805
88 FZ 109 4.293
88 FZ 110 5.269
88 FZ 111 5.758
88 FZ 112 5.758
88 FZ 113 4.781
88 FZ 114 3.805
88 FZ 115 3.316
88 FZ 116 2.828
88 FZ 117 1.851
88 FZ 118 0.387
88 FZ 119 -1.078
88 FZ 120 -2.543
88 FZ 121 -2.543
88 FZ 122 -2.055
88 FZ 123 -0.590
88 FZ 124 -0.590
88 FZ 125 -1.078
88 FZ 126 -2.055
88 FZ 127 -2.543
88 FZ 128 -1.567
88 FZ 129 1.363
88 FZ 130 4.781
88 FZ 131 7.711
88 FZ 132 9.176
88 FZ 133 8.687
88 FZ 134 7.711
88 FZ 135 6.246
88 FZ 136 5.758
88 FZ 137 4.781
88 FZ 138 3.316
88 FZ 139 1.851
88 FZ 140 0.387
88 FZ 141 -0.102
88 FZ 142 -0.102
88 FZ 143 0.875
88 FZ 144 1.363
88 FZ 145 0.875
88 FZ 146 -0.590
88 FZ 147 -3.031
88 FZ 148 -4.496
88 FZ 149 -5.473
88 FZ 150 -4.985
88 FZ 151 -4.008
88 FZ 152 -2.055
88 FZ 153 0.387
88 FZ 154 2.340
88 FZ 155 4.293
88 FZ 156 4.781
88 FZ 157 3.805
88 FZ 158 2.828
88 FZ 159 1.851
88 FZ 160 2.828
88 FZ 161 5.269
88 FZ 162 8.687
88 FZ 163 11.129
88 FZ 164 12.594
88 FZ 165 10.640
88 FZ 166 7.711
88 FZ 167 4.293
88 FZ 168 1.363
88 FZ 169 0.387
88 FZ 170 0.387
88 FZ 171 0.875
88 FZ 172 0.875
88 FZ 173 0.387
88 FZ 174 -0.102
88 FZ 175 -0.102
88 FZ 176 0.387
88 FZ 177 0.875
88 FZ 178 1.363
88 FZ 179 1.363
88 FZ 180 0.875
88 FZ 181 0.387
88 FZ 182 -0.102
88 FZ 183 0.875
88 FZ 184 2.340
88 FZ 185 4.781
88 FZ 186 6.246
88 FZ 187 7.711
88 FZ 188 7.711
88 FZ 189 8.199
88 FZ 190 8.687
88 FZ 191 9.664
88 FZ 192 10.640
88 FZ 193 10.640
88 FZ 194 9.176
88 FZ 195 6.246
88 FZ 196 3.316
88 FZ 197 0.875
88 FZ 198 -0.102
88 FZ 199 0.387
88 FZ 200 0.875
88 FZ 201 0.387
88 FZ 202 -0.590
88 FZ 203 -2.055
88 FZ 204 -3.031
88 FZ 205 -3.031
88 FZ 206 -2.055
88 FZ 207 -0.102
88 FZ 208 1.363
88 FZ 209 2.340
88 FZ 210 2.828
88 FZ 211 2.340
88 FZ 212 1.363
88 FZ 213 0.387
88 FZ 214 -0.590
88 FZ 215 -1.078
88 FZ 216 -1.567
88 FZ 217 -1.078
88 FZ 218 -1.078
88 FZ 219 -0.590
88 FZ 220 -0.590
88 FZ 221 -0.102
88 FZ 222 0.387
88 FZ 223 0.875
88 FZ 224 2.340
88 FZ 225 4.781
88 FZ 226 6.734
88 FZ 227 8.687
88 FZ 228 9.176
88 FZ 229 8.199
88 FZ 230 6.734
88 FZ 231 4.293
88 FZ 232 2.340
88 FZ 233 0.875
88 FZ 234 0.387
88 FZ 235 -0.102
88 FZ 236 -1.078
88 FZ 237 -2.055
88 FZ 238 -3.031
88 FZ 239 -3.520
88 FZ 240 -2.543
88 FZ 241 -1.567
88 FZ 242 -0.590
88 FZ 243 -0.590
88 FZ 244 -0.590
88 FZ 245 -0.590
88 FZ 246 0.387
88 FZ 247 2.340
88 FZ 248 4.293
88 FZ 249 4.781
88 FZ 250 4.781
88 FZ 251 4.293
88 FZ 252 4.781
88 FZ 253 5.758
88 FZ 254 6.734
88 FZ 255 7.711
# F4 chan 7
88 F4 0 1.017
88 F4 1 0.041
88 F4 2 -0.448
88 F4 3 -1.424
88 F4 4 -3.377
88 F4 5 -5.330
88 F4 6 -7.284
88 F4 7 -8.748
88 F4 8 -8.748
88 F4 9 -7.284
88 F4 10 -4.354
88 F4 11 -1.424
88 F4 12 1.017
88 F4 13 3.459
88 F4 14 4.435
88 F4 15 4.924
88 F4 16 5.900
88 F4 17 7.365
88 F4 18 8.830
88 F4 19 9.806
88 F4 20 9.806
88 F4 21 8.830
88 F4 22 7.365
88 F4 23 5.412
88 F4 24 3.947
88 F4 25 3.459
88 F4 26 3.459
88 F4 27 2.482
88 F4 28 1.506
88 F4 29 0.041
88 F4 30 -1.424
88 F4 31 -2.401
88 F4 32 -2.889
88 F4 33 -1.912
88 F4 34 -0.448
88 F4 35 1.506
88 F4 36 2.970
88 F4 37 3.459
88 F4 38 3.459
88 F4 39 2.970
88 F4 40 2.482
88 F4 41 2.482
88 F4 42 3.459
88 F4 43 4.924
88 F4 44 5.900
88 F4 45 6.877
88 F4 46 7.853
88 F4 47 9.318
88 F4 48 10.783
88 F4 49 12.736
88 F4 50 15.666
88 F4 51 18.595
88 F4 52 21.037
88 F4 53 20.549
88 F4 54 17.619
88 F4 55 11.759
88 F4 56 5.900
88 F4 57 0.529
88 F4 58 -1.912
88 F4 59 -3.377
88 F4 60 -4.354
88 F4 61 -5.330
88 F4 62 -6.307
88 F4 63 -6.795
88 F4 64 -6.307
88 F4 65 -3.866
88 F4 66 -1.912
88 F4 67 -1.424
88 F4 68 -1.912
88 F4 69 -3.866
88 F4 70 -4.842
88 F4 71 -4.842
88 F4 72 -3.866
88 F4 73 -2.401
88 F4 74 -1.424
88 F4 75 0.041
88 F4 76 1.017
88 F4 77 1.994
88 F4 78 3.459
88 F4 79 5.412
88 F4 80 6.877
88 F4 81 7.853
88 F4 82 7.853
88 F4 83 7.365
88 F4 84 5.412
88 F4 85 3.459
88 F4 86 0.529
88 F4 87 -1.424
88 F4 88 -3.377
88 F4 89 -4.842
88 F4 90 -5.819
88 F4 91 -6.307
88 F4 92 -6.307
88 F4 93 -5.330
88 F4 94 -4.354
88 F4 95 -3.866
88 F4 96 -3.377
88 F4 97 -3.377
88 F4 98 -3.866
88 F4 99 -4.354
88 F4 100 -4.842
88 F4 101 -4.354
88 F4 102 -3.866
88 F4 103 -2.401
88 F4 104 -1.424
88 F4 105 0.041
88 F4 106 1.017
88 F4 107 1.994
88 F4 108 2.970
88 F4 109 4.435
88 F4 110 5.412
88 F4 111 6.388
88 F4 112 6.388
88 F4 113 5.412
88 F4 114 4.435
88 F4 115 2.970
88 F4 116 1.994
88 F4 117 0.041
88 F4 118 -1.424
88 F4 119 -3.377
88 F4 120 -3.866
88 F4 121 -2.889
88 F4 122 -1.424
88 F4 123 0.041
88 F4 124 0.041
88 F4 125 -0.936
88 F4 126 -1.912
88 F4 127 -1.424
88 F4 128 0.529
88 F4 129 3.459
88 F4 130 6.388
88 F4 131 7.853
88 F4 132 7.365
88 F4 133 5.900
88 F4 134 3.459
88 F4 135 1.017
88 F4 136 -0.936
88 F4 137 -2.889
88 F4 138 -4.354
88 F4 139 -5.330
88 F4 140 -5.330
88 F4 141 -4.842
88 F4 142 -4.842
88 F4 143 -4.354
88 F4 144 -4.842
88 F4 145 -5.330
88 F4 146 -6.307
88 F4 147 -6.795
88 F4 148 -7.284
88 F4 149 -6.795
88 F4 150 -6.307
88 F4 151 -5.330
88 F4 152 -3.377
88 F4 153 -0.936
88 F4 154 1.506
88 F4 155 3.459
88 F4 156 4.435
88 F4 157 4.924
88 F4 158 4.435
88 F4 159 4.435
88 F4 160 4.924
88 F4 161 6.388
88 F4 162 7.853
88 F4 163 8.830
88 F4 164 8.341
88 F4 165 5.900
88 F4 166 2.482
88 F4 167 -1.424
88 F4 168 -3.866
88 F4 169 -3.866
88 F4 170 -1.912
88 F4 171 0.041
88 F4 172 1.994
88 F4 173 1.506
88 F4 174 0.041
88 F4 175 -1.912
88 F4 176 -4.354
88 F4 177 -5.330
88 F4 178 -5.330
88 F4 179 -4.842
88 F4 180 -3.377
88 F4 181 -2.401
88 F4 182 -0.936
88 F4 183 -0.448
88 F4 184 0.529
88 F4 185 1.506
88 F4 186 2.482
88 F4 187 2.970
88 F4 188 3.459
88 F4 189 4.435
88 F4 190 5.412
88 F4 191 6.877
88 F4 192 7.853
88 F4 193 7.853
88 F4 194 6.388
88 F4 195 3.459
88 F4 196 0.041
88 F4 197 -2.401
88 F4 198 -3.377
88 F4 199 -3.866
88 F4 200 -3.866
88 F4 201 -4.842
88 F4 202 -6.307
88 F4 203 -8.260
88 F4 204 -8.748
88 F4 205 -8.260
88 F4 206 -5.819
88 F4 207 -3.377
88 F4 208 -1.424
88 F4 209 -0.936
88 F4 210 -1.424
88 F4 211 -2.889
88 F4 212 -3.866
88 F4 213 -4.354
88 F4 214 -4.354
88 F4 215 -3.377
88 F4 216 -3.377
88 F4 217 -3.377
88 F4 218 -4.842
88 F4 219 -6.795
88 F4 220 -8.260
88 F4 221 -8.748
88 F4 222 -7.772
88 F4 223 -5.330
88 F4 224 -2.889
88 F4 225 -0.448
88 F4 226 1.017
88 F4 227 1.994
88 F4 228 2.970
88 F4 229 3.947
88 F4 230 4.435
88 F4 231 3.947
88 F4 232 1.994
88 F4 233 0.529
88 F4 234 -0.448
88 F4 235 -0.936
88 F4 236 -1.424
88 F4 237 -2.401
88 F4 238 -3.866
88 F4 239 -4.842
88 F4 240 -5.819
88 F4 241 -5.819
88 F4 242 -5.330
88 F4 243 -5.330
88 F4 244 -5.330
88 F4 245 -4.842
88 F4 246 -3.866
88 F4 247 -2.889
88 F4 248 -1.424
88 F4 249 -1.424
88 F4 250 -1.424
88 F4 251 -1.424
88 F4 252 -0.936
88 F4 253 1.017
88 F4 254 3.459
88 F4 255 5.900
# F3 chan 8
88 F3 0 -3.052
88 F3 1 -3.052
88 F3 2 -2.563
88 F3 3 -2.075
88 F3 4 -2.563
88 F3 5 -3.540
88 F3 6 -4.517
88 F3 7 -4.517
88 F3 8 -3.540
88 F3 9 -0.610
88 F3 10 2.319
88 F3 11 5.249
88 F3 12 6.714
88 F3 13 7.202
88 F3 14 8.179
88 F3 15 9.155
88 F3 16 10.620
88 F3 17 11.597
88 F3 18 11.108
88 F3 19 9.155
88 F3 20 6.714
88 F3 21 4.272
88 F3 22 2.319
88 F3 23 1.831
88 F3 24 1.831
88 F3 25 1.831
88 F3 26 0.854
88 F3 27 -1.099
88 F3 28 -3.540
88 F3 29 -5.981
88 F3 30 -6.958
88 F3 31 -7.446
88 F3 32 -5.493
88 F3 33 -2.563
88 F3 34 0.854
88 F3 35 3.784
88 F3 36 5.737
88 F3 37 6.226
88 F3 38 5.249
88 F3 39 3.784
88 F3 40 2.808
88 F3 41 3.296
88 F3 42 4.761
88 F3 43 8.179
88 F3 44 11.108
88 F3 45 13.062
88 F3 46 13.550
88 F3 47 13.062
88 F3 48 13.062
88 F3 49 15.015
88 F3 50 18.433
88 F3 51 21.362
88 F3 52 22.339
88 F3 53 19.897
88 F3 54 14.526
88 F3 55 8.179
88 F3 56 2.808
88 F3 57 -1.099
88 F3 58 -3.540
88 F3 59 -5.493
88 F3 60 -6.958
88 F3 61 -7.935
88 F3 62 -7.935
88 F3 63 -6.470
88 F3 64 -4.028
88 F3 65 -2.075
88 F3 66 -1.587
88 F3 67 -2.075
88 F3 68 -3.540
88 F3 69 -4.028
88 F3 70 -4.028
88 F3 71 -2.563
88 F3 72 -0.122
88 F3 73 1.831
88 F3 74 3.784
88 F3 75 5.249
88 F3 76 6.714
88 F3 77 7.202
88 F3 78 8.179
88 F3 79 9.644
88 F3 80 11.108
88 F3 81 13.062
88 F3 82 13.550
88 F3 83 12.573
88 F3 84 10.132
88 F3 85 6.714
88 F3 86 2.808
88 F3 87 -0.122
88 F3 88 -2.075
88 F3 89 -3.052
88 F3 90 -3.540
88 F3 91 -4.028
88 F3 92 -4.028
88 F3 93 -4.028
88 F3 94 -3.540
88 F3 95 -3.052
88 F3 96 -2.075
88 F3 97 -1.099
88 F3 98 0.366
88 F3 99 1.831
88 F3 100 2.808
88 F3 101 3.296
88 F3 102 3.296
88 F3 103 3.784
88 F3 104 4.272
88 F3 105 4.761
88 F3 106 4.761
88 F3 107 4.272
88 F3 108 4.761
88 F3 109 5.249
88 F3 110 5.737
88 F3 111 5.737
88 F3 112 5.249
88 F3 113 4.761
88 F3 114 4.761
88 F3 115 5.249
88 F3 116 5.737
88 F3 117 5.249
88 F3 118 4.272
88 F3 119 2.319
88 F3 120 0.854
88 F3 121 0.854
88 F3 122 0.854
88 F3 123 1.831
88 F3 124 1.343
88 F3 125 0.366
88 F3 126 -1.099
88 F3 127 -2.075
88 F3 128 -0.610
88 F3 129 2.319
88 F3 130 5.737
88 F3 131 8.179
88 F3 132 9.644
88 F3 133 9.155
88 F3 134 8.179
88 F3 135 6.714
88 F3 136 5.737
88 F3 137 5.249
88 F3 138 5.249
88 F3 139 5.249
88 F3 140 5.249
88 F3 141 5.249
88 F3 142 5.737
88 F3 143 6.226
88 F3 144 6.226
88 F3 145 5.249
88 F3 146 3.784
88 F3 147 1.343
88 F3 148 -1.099
88 F3 149 -2.563
88 F3 150 -3.052
88 F3 151 -3.052
88 F3 152 -1.587
88 F3 153 -0.122
88 F3 154 1.343
88 F3 155 2.319
88 F3 156 2.808
88 F3 157 2.808
88 F3 158 1.831
88 F3 159 1.831
88 F3 160 3.296
88 F3 161 6.226
88 F3 162 9.155
88 F3 163 12.573
88 F3 164 14.038
88 F3 165 13.550
88 F3 166 11.597
88 F3 167 8.667
88 F3 168 5.737
88 F3 169 3.784
88 F3 170 2.808
88 F3 171 1.831
88 F3 172 1.343
88 F3 173 0.854
88 F3 174 0.854
88 F3 175 1.343
88 F3 176 3.296
88 F3 177 4.761
88 F3 178 5.737
88 F3 179 4.761
88 F3 180 2.319
88 F3 181 -1.099
88 F3 182 -2.563
88 F3 183 -1.587
88 F3 184 1.831
88 F3 185 6.714
88 F3 186 10.620
88 F3 187 12.085
88 F3 188 11.597
88 F3 189 10.620
88 F3 190 10.132
88 F3 191 10.620
88 F3 192 12.085
88 F3 193 12.573
88 F3 194 11.597
88 F3 195 9.155
88 F3 196 5.737
88 F3 197 2.808
88 F3 198 1.343
88 F3 199 0.854
88 F3 200 1.831
88 F3 201 1.831
88 F3 202 0.854
88 F3 203 -1.587
88 F3 204 -4.028
88 F3 205 -5.981
88 F3 206 -6.470
88 F3 207 -5.005
88 F3 208 -3.052
88 F3 209 -1.587
88 F3 210 -0.610
88 F3 211 -1.099
88 F3 212 -2.075
88 F3 213 -3.052
88 F3 214 -3.540
88 F3 215 -3.540
88 F3 216 -3.052
88 F3 217 -2.563
88 F3 218 -1.099
88 F3 219 -0.122
88 F3 220 1.343
88 F3 221 2.319
88 F3 222 3.296
88 F3 223 3.784
88 F3 224 5.249
88 F3 225 7.690
88 F3 226 10.132
88 F3 227 11.597
88 F3 228 11.108
88 F3 229 8.667
88 F3 230 4.761
88 F3 231 1.343
88 F3 232 -1.587
88 F3 233 -3.540
88 F3 234 -4.517
88 F3 235 -5.005
88 F3 236 -5.493
88 F3 237 -5.981
88 F3 238 -5.005
88 F3 239 -4.517
88 F3 240 -2.563
88 F3 241 -1.587
88 F3 242 -0.122
88 F3 243 0.854
88 F3 244 2.319
88 F3 245 3.784
88 F3 246 5.737
88 F3 247 7.202
88 F3 248 8.179
88 F3 249 8.667
88 F3 250 8.179
88 F3 251 8.179
88 F3 252 8.179
88 F3 253 9.155
88 F3 254 10.132
88 F3 255 10.620
# FC6 chan 9
88 FC6 0 -0.671
88 FC6 1 -3.601
88 FC6 2 -7.019
88 FC6 3 -8.484
88 FC6 4 -8.972
88 FC6 5 -8.484
88 FC6 6 -8.484
88 FC6 7 -7.996
88 FC6 8 -7.996
88 FC6 9 -7.507
88 FC6 10 -7.019
88 FC6 11 -6.042
88 FC6 12 -5.066
88 FC6 13 -3.601
88 FC6 14 -2.625
88 FC6 15 -1.648
88 FC6 16 -0.671
88 FC6 17 0.793
88 FC6 18 2.258
88 FC6 19 3.235
88 FC6 20 3.723
88 FC6 21 3.723
88 FC6 22 3.723
88 FC6 23 3.723
88 FC6 24 3.723
88 FC6 25 3.723
88 FC6 26 3.723
88 FC6 27 2.747
88 FC6 28 1.770
88 FC6 29 0.305
88 FC6 30 -1.160
88 FC6 31 -2.136
88 FC6 32 -3.113
88 FC6 33 -2.625
88 FC6 34 -1.160
88 FC6 35 0.793
88 FC6 36 2.747
88 FC6 37 3.723
88 FC6 38 3.235
88 FC6 39 1.770
88 FC6 40 -0.183
88 FC6 41 -1.648
88 FC6 42 -2.625
88 FC6 43 -2.625
88 FC6 44 -1.648
88 FC6 45 -0.671
88 FC6 46 1.282
88 FC6 47 2.747
88 FC6 48 4.211
88 FC6 49 5.188
88 FC6 50 6.165
88 FC6 51 8.118
88 FC6 52 10.071
88 FC6 53 11.536
88 FC6 54 10.559
88 FC6 55 7.141
88 FC6 56 1.770
88 FC6 57 -2.625
88 FC6 58 -5.066
88 FC6 59 -4.578
88 FC6 60 -3.113
88 FC6 61 -2.136
88 FC6 62 -2.625
88 FC6 63 -4.578
88 FC6 64 -5.554
88 FC6 65 -4.578
88 FC6 66 -2.625
88 FC6 67 -0.183
88 FC6 68 0.305
88 FC6 69 -1.160
88 FC6 70 -3.113
88 FC6 71 -4.578
88 FC6 72 -4.578
88 FC6 73 -3.601
88 FC6 74 -2.625
88 FC6 75 -2.136
88 FC6 76 -1.160
88 FC6 77 -0.671
88 FC6 78 1.282
88 FC6 79 2.258
88 FC6 80 3.723
88 FC6 81 4.700
88 FC6 82 5.188
88 FC6 83 5.188
88 FC6 84 4.700
88 FC6 85 3.235
88 FC6 86 1.282
88 FC6 87 -0.671
88 FC6 88 -2.625
88 FC6 89 -5.066
88 FC6 90 -7.019
88 FC6 91 -8.484
88 FC6 92 -8.972
88 FC6 93 -8.484
88 FC6 94 -6.531
88 FC6 95 -4.089
88 FC6 96 -2.625
88 FC6 97 -2.136
88 FC6 98 -2.136
88 FC6 99 -2.625
88 FC6 100 -3.113
88 FC6 101 -3.113
88 FC6 102 -2.625
88 FC6 103 -2.136
88 FC6 104 -1.160
88 FC6 105 -0.183
88 FC6 106 0.793
88 FC6 107 0.793
88 FC6 108 0.793
88 FC6 109 1.282
88 FC6 110 2.258
88 FC6 111 3.235
88 FC6 112 3.723
88 FC6 113 3.235
88 FC6 114 1.770
88 FC6 115 0.305
88 FC6 116 -1.160
88 FC6 117 -2.136
88 FC6 118 -2.625
88 FC6 119 -2.625
88 FC6 120 -2.136
88 FC6 121 -1.160
88 FC6 122 0.305
88 FC6 123 1.282
88 FC6 124 1.282
88 FC6 125 0.305
88 FC6 126 -1.160
88 FC6 127 -0.671
88 FC6 128 1.282
88 FC6 129 3.723
88 FC6 130 5.676
88 FC6 131 4.700
88 FC6 132 1.770
88 FC6 133 -3.113
88 FC6 134 -6.531
88 FC6 135 -9.460
88 FC6 136 -9.949
88 FC6 137 -9.460
88 FC6 138 -8.484
88 FC6 139 -7.507
88 FC6 140 -6.042
88 FC6 141 -5.066
88 FC6 142 -4.578
88 FC6 143 -5.066
88 FC6 144 -6.531
88 FC6 145 -7.507
88 FC6 146 -7.507
88 FC6 147 -6.531
88 FC6 148 -5.066
88 FC6 149 -4.578
88 FC6 150 -4.578
88 FC6 151 -4.578
88 FC6 152 -4.578
88 FC6 153 -3.113
88 FC6 154 -0.671
88 FC6 155 1.770
88 FC6 156 3.723
88 FC6 157 4.700
88 FC6 158 5.676
88 FC6 159 5.676
88 FC6 160 6.165
88 FC6 161 6.653
88 FC6 162 7.629
88 FC6 163 7.141
88 FC6 164 6.653
88 FC6 165 4.211
88 FC6 166 0.793
88 FC6 167 -2.625
88 FC6 168 -4.578
88 FC6 169 -4.578
88 FC6 170 -2.136
88 FC6 171 1.282
88 FC6 172 4.211
88 FC6 173 5.188
88 FC6 174 3.235
88 FC6 175 -0.671
88 FC6 176 -5.066
88 FC6 177 -7.996
88 FC6 178 -8.972
88 FC6 179 -8.484
88 FC6 180 -6.531
88 FC6 181 -4.089
88 FC6 182 -2.136
88 FC6 183 -1.160
88 FC6 184 -0.183
88 FC6 185 0.793
88 FC6 186 1.770
88 FC6 187 2.747
88 FC6 188 4.211
88 FC6 189 5.676
88 FC6 190 7.141
88 FC6 191 8.118
88 FC6 192 8.606
88 FC6 193 8.118
88 FC6 194 6.165
88 FC6 195 3.723
88 FC6 196 0.793
88 FC6 197 -2.136
88 FC6 198 -4.089
88 FC6 199 -5.066
88 FC6 200 -5.554
88 FC6 201 -6.531
88 FC6 202 -7.996
88 FC6 203 -9.460
88 FC6 204 -9.949
88 FC6 205 -9.460
88 FC6 206 -7.507
88 FC6 207 -6.042
88 FC6 208 -5.554
88 FC6 209 -6.042
88 FC6 210 -6.531
88 FC6 211 -7.019
88 FC6 212 -6.531
88 FC6 213 -6.042
88 FC6 214 -4.089
88 FC6 215 -3.113
88 FC6 216 -2.625
88 FC6 217 -2.625
88 FC6 218 -4.089
88 FC6 219 -6.042
88 FC6 220 -7.507
88 FC6 221 -7.996
88 FC6 222 -6.531
88 FC6 223 -4.089
88 FC6 224 -1.648
88 FC6 225 -0.671
88 FC6 226 -0.671
88 FC6 227 -1.648
88 FC6 228 -1.648
88 FC6 229 -0.671
88 FC6 230 0.305
88 FC6 231 1.282
88 FC6 232 0.305
88 FC6 233 -1.160
88 FC6 234 -2.625
88 FC6 235 -3.113
88 FC6 236 -2.625
88 FC6 237 -3.113
88 FC6 238 -3.601
88 FC6 239 -5.066
88 FC6 240 -6.531
88 FC6 241 -7.507
88 FC6 242 -7.019
88 FC6 243 -6.531
88 FC6 244 -5.066
88 FC6 245 -2.625
88 FC6 246 -1.160
88 FC6 247 -0.183
88 FC6 248 -0.183
88 FC6 249 -1.160
88 FC6 250 -2.625
88 FC6 251 -2.625
88 FC6 252 -1.648
88 FC6 253 0.793
88 FC6 254 4.211
88 FC6 255 7.141
# FC5 chan 10
88 FC5 0 -7.222
88 FC5 1 -9.176
88 FC5 2 -9.664
88 FC5 3 -9.664
88 FC5 4 -9.664
88 FC5 5 -10.152
88 FC5 6 -9.664
88 FC5 7 -8.199
88 FC5 8 -4.781
88 FC5 9 -1.363
88 FC5 10 0.590
88 FC5 11 1.567
88 FC5 12 1.078
88 FC5 13 0.590
88 FC5 14 1.078
88 FC5 15 2.055
88 FC5 16 3.520
88 FC5 17 4.496
88 FC5 18 4.008
88 FC5 19 2.543
88 FC5 20 0.102
88 FC5 21 -2.340
88 FC5 22 -3.805
88 FC5 23 -4.293
88 FC5 24 -2.828
88 FC5 25 -2.340
88 FC5 26 -1.851
88 FC5 27 -2.340
88 FC5 28 -4.781
88 FC5 29 -7.222
88 FC5 30 -9.176
88 FC5 31 -9.664
88 FC5 32 -9.176
88 FC5 33 -7.222
88 FC5 34 -4.293
88 FC5 35 -1.363
88 FC5 36 0.102
88 FC5 37 0.102
88 FC5 38 -1.851
88 FC5 39 -3.805
88 FC5 40 -5.269
88 FC5 41 -4.293
88 FC5 42 -1.851
88 FC5 43 2.055
88 FC5 44 5.473
88 FC5 45 6.938
88 FC5 46 6.938
88 FC5 47 6.449
88 FC5 48 6.938
88 FC5 49 7.914
88 FC5 50 9.867
88 FC5 51 10.844
88 FC5 52 10.356
88 FC5 53 8.891
88 FC5 54 5.961
88 FC5 55 2.543
88 FC5 56 -0.387
88 FC5 57 -3.316
88 FC5 58 -5.269
88 FC5 59 -7.711
88 FC5 60 -9.176
88 FC5 61 -10.640
88 FC5 62 -10.152
88 FC5 63 -9.176
88 FC5 64 -8.199
88 FC5 65 -7.222
88 FC5 66 -7.222
88 FC5 67 -7.222
88 FC5 68 -7.222
88 FC5 69 -6.734
88 FC5 70 -4.781
88 FC5 71 -1.851
88 FC5 72 0.590
88 FC5 73 2.055
88 FC5 74 3.520
88 FC5 75 4.008
88 FC5 76 4.496
88 FC5 77 4.985
88 FC5 78 5.473
88 FC5 79 6.449
88 FC5 80 7.914
88 FC5 81 9.379
88 FC5 82 9.867
88 FC5 83 9.379
88 FC5 84 7.914
88 FC5 85 5.473
88 FC5 86 3.031
88 FC5 87 0.590
88 FC5 88 -0.875
88 FC5 89 -1.851
88 FC5 90 -3.316
88 FC5 91 -5.269
88 FC5 92 -6.246
88 FC5 93 -6.734
88 FC5 94 -6.734
88 FC5 95 -5.269
88 FC5 96 -2.828
88 FC5 97 -0.387
88 FC5 98 1.567
88 FC5 99 3.031
88 FC5 100 4.008
88 FC5 101 4.496
88 FC5 102 5.473
88 FC5 103 5.473
88 FC5 104 5.473
88 FC5 105 4.008
88 FC5 106 2.543
88 FC5 107 1.078
88 FC5 108 -0.387
88 FC5 109 -0.875
88 FC5 110 -0.387
88 FC5 111 0.590
88 FC5 112 2.055
88 FC5 113 4.008
88 FC5 114 5.473
88 FC5 115 6.938
88 FC5 116 7.426
88 FC5 117 6.938
88 FC5 118 5.473
88 FC5 119 4.008
88 FC5 120 2.055
88 FC5 121 1.078
88 FC5 122 0.590
88 FC5 123 0.590
88 FC5 124 1.078
88 FC5 125 1.567
88 FC5 126 1.078
88 FC5 127 0.590
88 FC5 128 0.590
88 FC5 129 0.590
88 FC5 130 1.567
88 FC5 131 2.055
88 FC5 132 3.031
88 FC5 133 2.543
88 FC5 134 1.078
88 FC5 135 0.102
88 FC5 136 -0.387
88 FC5 137 0.590
88 FC5 138 3.031
88 FC5 139 5.473
88 FC5 140 7.426
88 FC5 141 8.403
88 FC5 142 7.914
88 FC5 143 7.426
88 FC5 144 6.449
88 FC5 145 5.473
88 FC5 146 3.520
88 FC5 147 1.078
88 FC5 148 -0.875
88 FC5 149 -2.340
88 FC5 150 -2.340
88 FC5 151 -2.340
88 FC5 152 -2.340
88 FC5 153 -2.828
88 FC5 154 -2.828
88 FC5 155 -2.340
88 FC5 156 -2.340
88 FC5 157 -1.851
88 FC5 158 -1.851
88 FC5 159 -1.851
88 FC5 160 -0.875
88 FC5 161 1.567
88 FC5 162 4.985
88 FC5 163 7.426
88 FC5 164 8.403
88 FC5 165 7.426
88 FC5 166 5.473
88 FC5 167 3.520
88 FC5 168 2.055
88 FC5 169 1.078
88 FC5 170 0.102
88 FC5 171 0.102
88 FC5 172 0.590
88 FC5 173 1.078
88 FC5 174 1.567
88 FC5 175 2.055
88 FC5 176 2.543
88 FC5 177 2.543
88 FC5 178 1.567
88 FC5 179 -0.387
88 FC5 180 -2.340
88 FC5 181 -4.781
88 FC5 182 -5.269
88 FC5 183 -3.316
88 FC5 184 -0.387
88 FC5 185 3.520
88 FC5 186 6.449
88 FC5 187 7.426
88 FC5 188 7.426
88 FC5 189 7.426
88 FC5 190 7.914
88 FC5 191 8.891
88 FC5 192 10.844
88 FC5 193 11.332
88 FC5 194 10.844
88 FC5 195 8.891
88 FC5 196 6.449
88 FC5 197 4.008
88 FC5 198 2.055
88 FC5 199 0.590
88 FC5 200 0.590
88 FC5 201 0.102
88 FC5 202 -0.875
88 FC5 203 -2.828
88 FC5 204 -5.269
88 FC5 205 -8.199
88 FC5 206 -9.664
88 FC5 207 -10.152
88 FC5 208 -9.664
88 FC5 209 -8.687
88 FC5 210 -8.199
88 FC5 211 -8.199
88 FC5 212 -9.176
88 FC5 213 -10.152
88 FC5 214 -10.152
88 FC5 215 -9.176
88 FC5 216 -7.222
88 FC5 217 -5.269
88 FC5 218 -2.340
88 FC5 219 -0.387
88 FC5 220 0.590
88 FC5 221 1.567
88 FC5 222 2.543
88 FC5 223 3.520
88 FC5 224 4.008
88 FC5 225 4.008
88 FC5 226 4.008
88 FC5 227 3.520
88 FC5 228 2.543
88 FC5 229 1.078
88 FC5 230 -1.363
88 FC5 231 -3.805
88 FC5 232 -6.734
88 FC5 233 -9.176
88 FC5 234 -11.617
88 FC5 235 -13.082
88 FC5 236 -14.058
88 FC5 237 -13.570
88 FC5 238 -12.105
88 FC5 239 -10.152
88 FC5 240 -7.711
88 FC5 241 -5.758
88 FC5 242 -3.805
88 FC5 243 -1.851
88 FC5 244 0.590
88 FC5 245 3.520
88 FC5 246 6.938
88 FC5 247 8.891
88 FC5 248 9.867
88 FC5 249 9.379
88 FC5 250 7.914
88 FC5 251 6.938
88 FC5 252 6.938
88 FC5 253 7.426
88 FC5 254 7.426
88 FC5 255 7.426
# FC2 chan 11
88 FC2 0 2.563
88 FC2 1 2.075
88 FC2 2 1.099
88 FC2 3 0.122
88 FC2 4 -0.854
88 FC2 5 -2.319
88 FC2 6 -3.296
88 FC2 7 -4.272
88 FC2 8 -4.272
88 FC2 9 -3.296
88 FC2 10 -1.343
88 FC2 11 1.099
88 FC2 12 3.540
88 FC2 13 4.517
88 FC2 14 5.005
88 FC2 15 4.517
88 FC2 16 5.005
88 FC2 17 5.493
88 FC2 18 5.981
88 FC2 19 7.446
88 FC2 20 7.935
88 FC2 21 7.935
88 FC2 22 7.446
88 FC2 23 6.470
88 FC2 24 5.005
88 FC2 25 4.028
88 FC2 26 3.052
88 FC2 27 2.075
88 FC2 28 1.587
88 FC2 29 1.587
88 FC2 30 1.099
88 FC2 31 1.099
88 FC2 32 1.099
88 FC2 33 1.099
88 FC2 34 1.587
88 FC2 35 2.563
88 FC2 36 3.052
88 FC2 37 4.028
88 FC2 38 4.517
88 FC2 39 5.005
88 FC2 40 5.005
88 FC2 41 5.005
88 FC2 42 5.005
88 FC2 43 5.005
88 FC2 44 5.981
88 FC2 45 7.446
88 FC2 46 9.399
88 FC2 47 10.864
88 FC2 48 12.817
88 FC2 49 14.282
88 FC2 50 15.259
88 FC2 51 16.724
88 FC2 52 17.212
88 FC2 53 16.724
88 FC2 54 14.282
88 FC2 55 10.864
88 FC2 56 7.446
88 FC2 57 4.517
88 FC2 58 2.563
88 FC2 59 2.075
88 FC2 60 1.587
88 FC2 61 1.099
88 FC2 62 0.610
88 FC2 63 0.122
88 FC2 64 1.099
88 FC2 65 2.075
88 FC2 66 3.052
88 FC2 67 3.540
88 FC2 68 3.052
88 FC2 69 1.587
88 FC2 70 0.610
88 FC2 71 0.122
88 FC2 72 0.610
88 FC2 73 1.099
88 FC2 74 2.563
88 FC2 75 3.540
88 FC2 76 5.005
88 FC2 77 6.470
88 FC2 78 7.446
88 FC2 79 8.911
88 FC2 80 9.399
88 FC2 81 9.399
88 FC2 82 9.399
88 FC2 83 9.399
88 FC2 84 8.423
88 FC2 85 6.958
88 FC2 86 5.005
88 FC2 87 3.052
88 FC2 88 1.099
88 FC2 89 0.122
88 FC2 90 -0.366
88 FC2 91 0.122
88 FC2 92 0.610
88 FC2 93 1.099
88 FC2 94 2.075
88 FC2 95 2.563
88 FC2 96 2.563
88 FC2 97 2.075
88 FC2 98 1.099
88 FC2 99 0.610
88 FC2 100 0.122
88 FC2 101 -0.366
88 FC2 102 0.610
88 FC2 103 1.099
88 FC2 104 2.075
88 FC2 105 3.052
88 FC2 106 4.028
88 FC2 107 5.005
88 FC2 108 5.981
88 FC2 109 6.470
88 FC2 110 6.958
88 FC2 111 7.446
88 FC2 112 7.446
88 FC2 113 7.446
88 FC2 114 6.958
88 FC2 115 6.470
88 FC2 116 5.493
88 FC2 117 4.028
88 FC2 118 3.052
88 FC2 119 2.075
88 FC2 120 1.587
88 FC2 121 1.587
88 FC2 122 3.052
88 FC2 123 3.540
88 FC2 124 3.540
88 FC2 125 3.540
88 FC2 126 3.052
88 FC2 127 3.052
88 FC2 128 4.028
88 FC2 129 5.493
88 FC2 130 6.470
88 FC2 131 6.470
88 FC2 132 6.470
88 FC2 133 5.493
88 FC2 134 4.517
88 FC2 135 4.028
88 FC2 136 3.540
88 FC2 137 2.563
88 FC2 138 1.099
88 FC2 139 0.610
88 FC2 140 -0.366
88 FC2 141 0.122
88 FC2 142 0.610
88 FC2 143 1.099
88 FC2 144 0.610
88 FC2 145 -0.366
88 FC2 146 -1.343
88 FC2 147 -1.831
88 FC2 148 -1.831
88 FC2 149 -1.343
88 FC2 150 -0.854
88 FC2 151 -0.366
88 FC2 152 0.122
88 FC2 153 1.099
88 FC2 154 2.563
88 FC2 155 3.540
88 FC2 156 4.028
88 FC2 157 3.052
88 FC2 158 2.075
88 FC2 159 1.099
88 FC2 160 0.610
88 FC2 161 2.075
88 FC2 162 4.028
88 FC2 163 5.493
88 FC2 164 6.470
88 FC2 165 5.493
88 FC2 166 3.540
88 FC2 167 1.587
88 FC2 168 0.610
88 FC2 169 0.610
88 FC2 170 1.587
88 FC2 171 2.563
88 FC2 172 3.540
88 FC2 173 3.052
88 FC2 174 2.075
88 FC2 175 0.122
88 FC2 176 -0.854
88 FC2 177 -1.343
88 FC2 178 -1.343
88 FC2 179 -0.854
88 FC2 180 -0.366
88 FC2 181 -0.366
88 FC2 182 -0.366
88 FC2 183 -0.366
88 FC2 184 -0.366
88 FC2 185 0.610
88 FC2 186 1.099
88 FC2 187 2.075
88 FC2 188 2.563
88 FC2 189 2.563
88 FC2 190 3.052
88 FC2 191 3.052
88 FC2 192 4.028
88 FC2 193 4.517
88 FC2 194 3.540
88 FC2 195 2.563
88 FC2 196 1.099
88 FC2 197 0.610
88 FC2 198 0.610
88 FC2 199 0.610
88 FC2 200 0.610
88 FC2 201 -0.366
88 FC2 202 -1.831
88 FC2 203 -3.296
88 FC2 204 -3.784
88 FC2 205 -2.808
88 FC2 206 -1.343
88 FC2 207 0.610
88 FC2 208 2.075
88 FC2 209 2.563
88 FC2 210 2.075
88 FC2 211 1.099
88 FC2 212 0.122
88 FC2 213 -0.366
88 FC2 214 -0.366
88 FC2 215 -0.854
88 FC2 216 -1.343
88 FC2 217 -1.343
88 FC2 218 -1.831
88 FC2 219 -2.319
88 FC2 220 -2.319
88 FC2 221 -2.319
88 FC2 222 -1.343
88 FC2 223 0.122
88 FC2 224 2.075
88 FC2 225 3.540
88 FC2 226 5.005
88 FC2 227 6.470
88 FC2 228 7.935
88 FC2 229 8.911
88 FC2 230 8.911
88 FC2 231 8.911
88 FC2 232 7.935
88 FC2 233 7.446
88 FC2 234 6.470
88 FC2 235 5.981
88 FC2 236 5.493
88 FC2 237 4.517
88 FC2 238 3.052
88 FC2 239 2.075
88 FC2 240 1.099
88 FC2 241 0.610
88 FC2 242 1.099
88 FC2 243 0.610
88 FC2 244 0.122
88 FC2 245 -0.366
88 FC2 246 0.122
88 FC2 247 1.099
88 FC2 248 2.075
88 FC2 249 3.052
88 FC2 250 3.540
88 FC2 251 4.028
88 FC2 252 4.028
88 FC2 253 5.005
88 FC2 254 6.470
88 FC2 255 8.423
# FC1 chan 12
88 FC1 0 -1.048
88 FC1 1 -1.048
88 FC1 2 -0.559
88 FC1 3 -0.559
88 FC1 4 -1.048
88 FC1 5 -2.024
88 FC1 6 -3.001
88 FC1 7 -3.489
88 FC1 8 -2.513
88 FC1 9 -0.071
88 FC1 10 2.370
88 FC1 11 4.323
88 FC1 12 5.788
88 FC1 13 6.276
88 FC1 14 6.276
88 FC1 15 6.276
88 FC1 16 6.276
88 FC1 17 6.276
88 FC1 18 5.788
88 FC1 19 4.323
88 FC1 20 2.858
88 FC1 21 0.905
88 FC1 22 -0.559
88 FC1 23 -1.048
88 FC1 24 -2.024
88 FC1 25 -2.513
88 FC1 26 -3.489
88 FC1 27 -3.977
88 FC1 28 -4.466
88 FC1 29 -4.954
88 FC1 30 -4.954
88 FC1 31 -4.954
88 FC1 32 -4.466
88 FC1 33 -3.489
88 FC1 34 -1.536
88 FC1 35 0.417
88 FC1 36 2.370
88 FC1 37 3.347
88 FC1 38 3.347
88 FC1 39 2.370
88 FC1 40 1.882
88 FC1 41 1.882
88 FC1 42 2.858
88 FC1 43 4.323
88 FC1 44 5.788
88 FC1 45 6.276
88 FC1 46 6.276
88 FC1 47 6.276
88 FC1 48 7.741
88 FC1 49 9.206
88 FC1 50 11.159
88 FC1 51 12.624
88 FC1 52 12.624
88 FC1 53 10.183
88 FC1 54 6.765
88 FC1 55 2.858
88 FC1 56 -1.048
88 FC1 57 -3.489
88 FC1 58 -5.931
88 FC1 59 -6.907
88 FC1 60 -7.884
88 FC1 61 -7.884
88 FC1 62 -6.907
88 FC1 63 -5.442
88 FC1 64 -3.489
88 FC1 65 -2.024
88 FC1 66 -1.536
88 FC1 67 -2.024
88 FC1 68 -2.513
88 FC1 69 -2.513
88 FC1 70 -2.024
88 FC1 71 -1.536
88 FC1 72 -0.559
88 FC1 73 -0.071
88 FC1 74 -0.071
88 FC1 75 0.905
88 FC1 76 1.882
88 FC1 77 3.347
88 FC1 78 4.812
88 FC1 79 6.276
88 FC1 80 7.741
88 FC1 81 8.230
88 FC1 82 8.230
88 FC1 83 6.765
88 FC1 84 4.812
88 FC1 85 2.370
88 FC1 86 -0.071
88 FC1 87 -2.024
88 FC1 88 -3.489
88 FC1 89 -4.466
88 FC1 90 -4.954
88 FC1 91 -5.442
88 FC1 92 -5.442
88 FC1 93 -4.954
88 FC1 94 -3.977
88 FC1 95 -3.001
88 FC1 96 -2.024
88 FC1 97 -1.536
88 FC1 98 -1.048
88 FC1 99 -0.071
88 FC1 100 1.394
88 FC1 101 1.882
88 FC1 102 2.370
88 FC1 103 2.370
88 FC1 104 2.370
88 FC1 105 1.882
88 FC1 106 1.394
88 FC1 107 1.394
88 FC1 108 1.882
88 FC1 109 1.882
88 FC1 110 1.394
88 FC1 111 0.905
88 FC1 112 -0.071
88 FC1 113 -0.559
88 FC1 114 -0.071
88 FC1 115 1.394
88 FC1 116 2.858
88 FC1 117 3.347
88 FC1 118 2.858
88 FC1 119 1.882
88 FC1 120 0.905
88 FC1 121 0.417
88 FC1 122 0.905
88 FC1 123 1.394
88 FC1 124 0.905
88 FC1 125 -0.071
88 FC1 126 -1.048
88 FC1 127 -1.536
88 FC1 128 -1.536
88 FC1 129 -0.559
88 FC1 130 1.394
88 FC1 131 3.347
88 FC1 132 4.323
88 FC1 133 4.323
88 FC1 134 3.835
88 FC1 135 3.347
88 FC1 136 3.347
88 FC1 137 4.323
88 FC1 138 4.812
88 FC1 139 4.812
88 FC1 140 4.323
88 FC1 141 3.835
88 FC1 142 3.347
88 FC1 143 3.347
88 FC1 144 3.347
88 FC1 145 3.347
88 FC1 146 2.370
88 FC1 147 0.417
88 FC1 148 -1.536
88 FC1 149 -3.489
88 FC1 150 -3.977
88 FC1 151 -3.489
88 FC1 152 -2.024
88 FC1 153 -0.559
88 FC1 154 -0.071
88 FC1 155 0.417
88 FC1 156 -0.071
88 FC1 157 -0.559
88 FC1 158 -1.048
88 FC1 159 -1.048
88 FC1 160 -0.559
88 FC1 161 1.394
88 FC1 162 4.323
88 FC1 163 6.276
88 FC1 164 7.741
88 FC1 165 8.230
88 FC1 166 7.253
88 FC1 167 5.300
88 FC1 168 3.835
88 FC1 169 1.882
88 FC1 170 0.417
88 FC1 171 -0.559
88 FC1 172 -1.048
88 FC1 173 -1.048
88 FC1 174 -0.559
88 FC1 175 0.417
88 FC1 176 1.882
88 FC1 177 2.370
88 FC1 178 2.370
88 FC1 179 1.394
88 FC1 180 -0.559
88 FC1 181 -2.513
88 FC1 182 -3.001
88 FC1 183 -1.536
88 FC1 184 1.882
88 FC1 185 5.300
88 FC1 186 7.741
88 FC1 187 8.230
88 FC1 188 8.230
88 FC1 189 7.253
88 FC1 190 6.765
88 FC1 191 7.253
88 FC1 192 7.741
88 FC1 193 7.253
88 FC1 194 6.276
88 FC1 195 4.323
88 FC1 196 1.882
88 FC1 197 0.417
88 FC1 198 -0.071
88 FC1 199 0.905
88 FC1 200 1.882
88 FC1 201 1.882
88 FC1 202 1.394
88 FC1 203 -0.071
88 FC1 204 -1.536
88 FC1 205 -2.513
88 FC1 206 -2.513
88 FC1 207 -1.536
88 FC1 208 -0.071
88 FC1 209 0.905
88 FC1 210 1.394
88 FC1 211 0.905
88 FC1 212 -0.559
88 FC1 213 -2.024
88 FC1 214 -3.977
88 FC1 215 -4.466
88 FC1 216 -4.954
88 FC1 217 -3.489
88 FC1 218 -1.536
88 FC1 219 0.417
88 FC1 220 2.370
88 FC1 221 2.858
88 FC1 222 3.347
88 FC1 223 2.858
88 FC1 224 3.835
88 FC1 225 5.300
88 FC1 226 6.765
88 FC1 227 7.741
88 FC1 228 7.253
88 FC1 229 6.276
88 FC1 230 3.835
88 FC1 231 1.882
88 FC1 232 -0.071
88 FC1 233 -1.536
88 FC1 234 -2.513
88 FC1 235 -3.977
88 FC1 236 -5.442
88 FC1 237 -6.907
88 FC1 238 -6.907
88 FC1 239 -5.931
88 FC1 240 -3.489
88 FC1 241 -1.048
88 FC1 242 0.905
88 FC1 243 1.882
88 FC1 244 1.882
88 FC1 245 1.394
88 FC1 246 1.882
88 FC1 247 3.347
88 FC1 248 4.323
88 FC1 249 5.788
88 FC1 250 6.276
88 FC1 251 6.276
88 FC1 252 6.276
88 FC1 253 6.276
88 FC1 254 6.765
88 FC1 255 5.788
# T8 chan 13
88 T8 0 -3.621
88 T8 1 -8.504
88 T8 2 -13.387
88 T8 3 -16.317
88 T8 4 -16.805
88 T8 5 -13.875
88 T8 6 -9.969
88 T8 7 -6.551
88 T8 8 -6.063
88 T8 9 -8.016
88 T8 10 -10.946
88 T8 11 -12.410
88 T8 12 -10.946
88 T8 13 -9.481
88 T8 14 -8.504
88 T8 15 -9.481
88 T8 16 -10.457
88 T8 17 -9.481
88 T8 18 -6.551
88 T8 19 -2.157
88 T8 20 1.750
88 T8 21 2.726
88 T8 22 2.238
88 T8 23 1.261
88 T8 24 1.750
88 T8 25 2.726
88 T8 26 3.215
88 T8 27 2.238
88 T8 28 -0.203
88 T8 29 -2.157
88 T8 30 -2.157
88 T8 31 -0.692
88 T8 32 0.285
88 T8 33 0.285
88 T8 34 -1.180
88 T8 35 -2.157
88 T8 36 -1.668
88 T8 37 0.285
88 T8 38 1.261
88 T8 39 -0.203
88 T8 40 -3.621
88 T8 41 -7.528
88 T8 42 -9.481
88 T8 43 -10.457
88 T8 44 -9.481
88 T8 45 -8.993
88 T8 46 -7.528
88 T8 47 -6.063
88 T8 48 -4.598
88 T8 49 -2.157
88 T8 50 -0.203
88 T8 51 1.261
88 T8 52 2.238
88 T8 53 2.238
88 T8 54 1.261
88 T8 55 -0.203
88 T8 56 -3.133
88 T8 57 -5.575
88 T8 58 -7.039
88 T8 59 -6.551
88 T8 60 -5.575
88 T8 61 -4.598
88 T8 62 -3.621
88 T8 63 -3.621
88 T8 64 -3.133
88 T8 65 -2.157
88 T8 66 -1.180
88 T8 67 -0.692
88 T8 68 -1.180
88 T8 69 -2.157
88 T8 70 -3.133
88 T8 71 -3.133
88 T8 72 -1.668
88 T8 73 -0.692
88 T8 74 -0.203
88 T8 75 -1.180
88 T8 76 -2.157
88 T8 77 -2.645
88 T8 78 -2.157
88 T8 79 -0.203
88 T8 80 1.261
88 T8 81 1.261
88 T8 82 0.285
88 T8 83 -0.203
88 T8 84 0.773
88 T8 85 2.238
88 T8 86 3.703
88 T8 87 2.238
88 T8 88 -1.668
88 T8 89 -6.063
88 T8 90 -8.993
88 T8 91 -9.481
88 T8 92 -8.016
88 T8 93 -6.063
88 T8 94 -5.575
88 T8 95 -5.575
88 T8 96 -4.110
88 T8 97 -0.692
88 T8 98 3.703
88 T8 99 6.144
88 T8 100 4.679
88 T8 101 0.285
88 T8 102 -4.110
88 T8 103 -5.575
88 T8 104 -3.133
88 T8 105 1.261
88 T8 106 4.679
88 T8 107 4.191
88 T8 108 1.261
88 T8 109 -2.157
88 T8 110 -2.645
88 T8 111 -1.180
88 T8 112 0.773
88 T8 113 1.261
88 T8 114 -0.692
88 T8 115 -3.621
88 T8 116 -5.086
88 T8 117 -4.110
88 T8 118 -1.180
88 T8 119 1.261
88 T8 120 2.726
88 T8 121 2.238
88 T8 122 1.261
88 T8 123 0.285
88 T8 124 -0.203
88 T8 125 -0.692
88 T8 126 -0.692
88 T8 127 -0.203
88 T8 128 1.750
88 T8 129 3.215
88 T8 130 3.215
88 T8 131 0.773
88 T8 132 -3.621
88 T8 133 -8.016
88 T8 134 -10.946
88 T8 135 -12.899
88 T8 136 -12.899
88 T8 137 -12.410
88 T8 138 -10.457
88 T8 139 -7.039
88 T8 140 -3.133
88 T8 141 0.285
88 T8 142 -0.203
88 T8 143 -3.133
88 T8 144 -8.016
88 T8 145 -11.922
88 T8 146 -12.410
88 T8 147 -8.993
88 T8 148 -4.110
88 T8 149 -0.203
88 T8 150 1.261
88 T8 151 0.285
88 T8 152 -1.668
88 T8 153 -3.133
88 T8 154 -3.621
88 T8 155 -2.645
88 T8 156 -0.692
88 T8 157 2.238
88 T8 158 5.168
88 T8 159 7.121
88 T8 160 7.609
88 T8 161 7.121
88 T8 162 5.168
88 T8 163 3.703
88 T8 164 2.238
88 T8 165 0.773
88 T8 166 -1.180
88 T8 167 -4.598
88 T8 168 -7.039
88 T8 169 -8.016
88 T8 170 -5.575
88 T8 171 -0.692
88 T8 172 4.191
88 T8 173 6.144
88 T8 174 3.703
88 T8 175 -2.645
88 T8 176 -9.481
88 T8 177 -14.364
88 T8 178 -15.828
88 T8 179 -13.875
88 T8 180 -8.993
88 T8 181 -4.110
88 T8 182 -1.180
88 T8 183 -0.203
88 T8 184 -1.180
88 T8 185 -1.180
88 T8 186 -0.692
88 T8 187 2.238
88 T8 188 6.144
88 T8 189 10.539
88 T8 190 12.004
88 T8 191 11.515
88 T8 192 9.562
88 T8 193 7.609
88 T8 194 5.656
88 T8 195 4.679
88 T8 196 2.726
88 T8 197 0.285
88 T8 198 -3.133
88 T8 199 -7.039
88 T8 200 -9.481
88 T8 201 -9.969
88 T8 202 -8.993
88 T8 203 -7.528
88 T8 204 -6.551
88 T8 205 -6.551
88 T8 206 -8.016
88 T8 207 -9.969
88 T8 208 -11.434
88 T8 209 -11.434
88 T8 210 -10.457
88 T8 211 -8.993
88 T8 212 -6.551
88 T8 213 -4.598
88 T8 214 -2.157
88 T8 215 0.285
88 T8 216 1.750
88 T8 217 0.773
88 T8 218 -2.157
88 T8 219 -6.063
88 T8 220 -8.504
88 T8 221 -7.039
88 T8 222 -2.157
88 T8 223 3.215
88 T8 224 6.144
88 T8 225 5.168
88 T8 226 0.773
88 T8 227 -3.621
88 T8 228 -5.086
88 T8 229 -4.110
88 T8 230 -3.133
88 T8 231 -3.133
88 T8 232 -6.063
88 T8 233 -9.481
88 T8 234 -9.969
88 T8 235 -7.528
88 T8 236 -3.133
88 T8 237 -0.203
88 T8 238 -1.180
88 T8 239 -5.086
88 T8 240 -9.481
88 T8 241 -12.899
88 T8 242 -13.387
88 T8 243 -10.457
88 T8 244 -6.551
88 T8 245 -1.668
88 T8 246 3.215
88 T8 247 6.144
88 T8 248 6.144
88 T8 249 2.726
88 T8 250 -2.157
88 T8 251 -6.063
88 T8 252 -6.551
88 T8 253 -4.110
88 T8 254 0.773
88 T8 255 6.632
# T7 chan 14
88 T7 0 -3.428
88 T7 1 -7.823
88 T7 2 -12.705
88 T7 3 -16.612
88 T7 4 -18.565
88 T7 5 -17.588
88 T7 6 -14.170
88 T7 7 -9.288
88 T7 8 -4.405
88 T7 9 -1.475
88 T7 10 -0.498
88 T7 11 -1.475
88 T7 12 -4.405
88 T7 13 -8.311
88 T7 14 -11.241
88 T7 15 -13.194
88 T7 16 -12.217
88 T7 17 -8.799
88 T7 18 -3.916
88 T7 19 0.478
88 T7 20 1.943
88 T7 21 0.478
88 T7 22 -2.452
88 T7 23 -4.405
88 T7 24 -2.940
88 T7 25 0.966
88 T7 26 4.873
88 T7 27 5.361
88 T7 28 1.943
88 T7 29 -4.893
88 T7 30 -11.241
88 T7 31 -15.635
88 T7 32 -17.100
88 T7 33 -16.123
88 T7 34 -13.194
88 T7 35 -9.776
88 T7 36 -5.870
88 T7 37 -3.428
88 T7 38 -3.428
88 T7 39 -5.870
88 T7 40 -10.264
88 T7 41 -13.682
88 T7 42 -13.682
88 T7 43 -10.264
88 T7 44 -4.893
88 T7 45 -0.498
88 T7 46 1.943
88 T7 47 2.431
88 T7 48 2.431
88 T7 49 3.896
88 T7 50 6.337
88 T7 51 9.267
88 T7 52 10.244
88 T7 53 7.802
88 T7 54 2.920
88 T7 55 -2.940
88 T7 56 -7.334
88 T7 57 -8.799
88 T7 58 -7.823
88 T7 59 -5.870
88 T7 60 -6.358
88 T7 61 -9.288
88 T7 62 -13.194
88 T7 63 -16.612
88 T7 64 -17.100
88 T7 65 -14.659
88 T7 66 -10.752
88 T7 67 -6.846
88 T7 68 -4.893
88 T7 69 -4.405
88 T7 70 -5.381
88 T7 71 -5.381
88 T7 72 -3.916
88 T7 73 -0.987
88 T7 74 1.455
88 T7 75 2.920
88 T7 76 2.920
88 T7 77 1.455
88 T7 78 0.478
88 T7 79 1.943
88 T7 80 5.361
88 T7 81 9.755
88 T7 82 11.709
88 T7 83 10.732
88 T7 84 5.849
88 T7 85 0.966
88 T7 86 -2.452
88 T7 87 -3.916
88 T7 88 -3.428
88 T7 89 -1.963
88 T7 90 -0.987
88 T7 91 -0.010
88 T7 92 0.966
88 T7 93 0.966
88 T7 94 -0.498
88 T7 95 -2.452
88 T7 96 -3.916
88 T7 97 -3.428
88 T7 98 -0.987
88 T7 99 1.943
88 T7 100 3.896
88 T7 101 4.873
88 T7 102 4.873
88 T7 103 4.384
88 T7 104 3.408
88 T7 105 1.943
88 T7 106 -0.498
88 T7 107 -2.940
88 T7 108 -4.405
88 T7 109 -2.940
88 T7 110 -0.010
88 T7 111 3.896
88 T7 112 6.826
88 T7 113 8.291
88 T7 114 8.291
88 T7 115 8.291
88 T7 116 7.314
88 T7 117 5.849
88 T7 118 3.408
88 T7 119 1.943
88 T7 120 1.455
88 T7 121 2.920
88 T7 122 4.384
88 T7 123 4.384
88 T7 124 3.408
88 T7 125 0.966
88 T7 126 -0.987
88 T7 127 -2.452
88 T7 128 -3.428
88 T7 129 -3.428
88 T7 130 -3.428
88 T7 131 -2.452
88 T7 132 -0.498
88 T7 133 0.966
88 T7 134 1.943
88 T7 135 0.478
88 T7 136 -1.963
88 T7 137 -4.405
88 T7 138 -4.405
88 T7 139 -1.475
88 T7 140 5.361
88 T7 141 12.685
88 T7 142 17.080
88 T7 143 17.080
88 T7 144 11.709
88 T7 145 3.896
88 T7 146 -2.940
88 T7 147 -6.846
88 T7 148 -7.823
88 T7 149 -6.846
88 T7 150 -7.334
88 T7 151 -8.799
88 T7 152 -9.288
88 T7 153 -8.799
88 T7 154 -6.358
88 T7 155 -3.916
88 T7 156 -2.452
88 T7 157 -1.475
88 T7 158 -0.010
88 T7 159 3.408
88 T7 160 7.314
88 T7 161 9.267
88 T7 162 7.802
88 T7 163 2.920
88 T7 164 -1.963
88 T7 165 -3.428
88 T7 166 -1.963
88 T7 167 -0.010
88 T7 168 0.478
88 T7 169 -0.987
88 T7 170 -1.475
88 T7 171 0.478
88 T7 172 4.384
88 T7 173 7.314
88 T7 174 5.361
88 T7 175 0.478
88 T7 176 -4.893
88 T7 177 -5.870
88 T7 178 -2.940
88 T7 179 0.966
88 T7 180 2.431
88 T7 181 -0.010
88 T7 182 -3.916
88 T7 183 -5.381
88 T7 184 -2.940
88 T7 185 1.455
88 T7 186 3.408
88 T7 187 1.943
88 T7 188 -0.987
88 T7 189 -0.987
88 T7 190 4.384
88 T7 191 13.662
88 T7 192 22.451
88 T7 193 25.869
88 T7 194 21.474
88 T7 195 12.685
88 T7 196 3.896
88 T7 197 -0.987
88 T7 198 -0.987
88 T7 199 1.455
88 T7 200 3.408
88 T7 201 3.408
88 T7 202 0.966
88 T7 203 -2.452
88 T7 204 -7.334
88 T7 205 -11.241
88 T7 206 -14.170
88 T7 207 -15.635
88 T7 208 -16.123
88 T7 209 -15.147
88 T7 210 -13.682
88 T7 211 -12.217
88 T7 212 -9.776
88 T7 213 -7.823
88 T7 214 -6.358
88 T7 215 -6.358
88 T7 216 -8.311
88 T7 217 -10.264
88 T7 218 -11.729
88 T7 219 -10.752
88 T7 220 -6.846
88 T7 221 -1.963
88 T7 222 2.431
88 T7 223 4.873
88 T7 224 5.361
88 T7 225 4.384
88 T7 226 2.920
88 T7 227 0.966
88 T7 228 -2.452
88 T7 229 -5.870
88 T7 230 -9.288
88 T7 231 -11.729
88 T7 232 -13.682
88 T7 233 -16.123
88 T7 234 -19.541
88 T7 235 -22.959
88 T7 236 -24.913
88 T7 237 -24.424
88 T7 238 -21.006
88 T7 239 -16.612
88 T7 240 -13.682
88 T7 241 -12.217
88 T7 242 -11.729
88 T7 243 -10.264
88 T7 244 -5.870
88 T7 245 -0.498
88 T7 246 5.849
88 T7 247 9.267
88 T7 248 11.220
88 T7 249 10.732
88 T7 250 10.244
88 T7 251 9.755
88 T7 252 7.802
88 T7 253 4.384
88 T7 254 -0.498
88 T7 255 -5.381
# CZ chan 15
88 CZ 0 -10.651
88 CZ 1 -14.069
88 CZ 2 -16.998
88 CZ 3 -19.928
88 CZ 4 -22.369
88 CZ 5 -23.346
88 CZ 6 -21.881
88 CZ 7 -18.463
88 CZ 8 -14.069
88 CZ 9 -12.115
88 CZ 10 -12.115
88 CZ 11 -14.069
88 CZ 12 -14.069
88 CZ 13 -11.139
88 CZ 14 -7.233
88 CZ 15 -4.303
88 CZ 16 -3.815
88 CZ 17 -4.791
88 CZ 18 -4.791
88 CZ 19 -1.373
88 CZ 20 3.510
88 CZ 21 7.416
88 CZ 22 7.904
88 CZ 23 4.974
88 CZ 24 2.045
88 CZ 25 -0.397
88 CZ 26 -1.373
88 CZ 27 -4.303
88 CZ 28 -9.186
88 CZ 29 -15.533
88 CZ 30 -20.416
88 CZ 31 -21.881
88 CZ 32 -20.416
88 CZ 33 -17.487
88 CZ 34 -16.022
88 CZ 35 -16.022
88 CZ 36 -16.998
88 CZ 37 -17.487
88 CZ 38 -16.998
88 CZ 39 -15.045
88 CZ 40 -13.092
88 CZ 41 -11.627
88 CZ 42 -9.674
88 CZ 43 -6.256
88 CZ 44 -1.862
88 CZ 45 2.533
88 CZ 46 5.951
88 CZ 47 7.416
88 CZ 48 7.416
88 CZ 49 5.951
88 CZ 50 5.951
88 CZ 51 6.927
88 CZ 52 8.881
88 CZ 53 9.369
88 CZ 54 7.904
88 CZ 55 3.998
88 CZ 56 -1.862
88 CZ 57 -8.209
88 CZ 58 -13.580
88 CZ 59 -17.487
88 CZ 60 -20.416
88 CZ 61 -22.369
88 CZ 62 -23.346
88 CZ 63 -24.323
88 CZ 64 -23.834
88 CZ 65 -21.393
88 CZ 66 -17.975
88 CZ 67 -13.092
88 CZ 68 -9.674
88 CZ 69 -7.721
88 CZ 70 -8.209
88 CZ 71 -9.674
88 CZ 72 -10.162
88 CZ 73 -8.209
88 CZ 74 -3.815
88 CZ 75 0.580
88 CZ 76 3.998
88 CZ 77 3.998
88 CZ 78 2.045
88 CZ 79 0.092
88 CZ 80 0.092
88 CZ 81 2.533
88 CZ 82 4.486
88 CZ 83 3.998
88 CZ 84 0.580
88 CZ 85 -5.280
88 CZ 86 -11.139
88 CZ 87 -14.069
88 CZ 88 -15.045
88 CZ 89 -14.069
88 CZ 90 -13.092
88 CZ 91 -11.627
88 CZ 92 -10.162
88 CZ 93 -9.186
88 CZ 94 -8.698
88 CZ 95 -9.186
88 CZ 96 -11.139
88 CZ 97 -13.092
88 CZ 98 -14.069
88 CZ 99 -12.604
88 CZ 100 -10.162
88 CZ 101 -6.256
88 CZ 102 -3.815
88 CZ 103 -1.373
88 CZ 104 0.092
88 CZ 105 0.580
88 CZ 106 0.580
88 CZ 107 -0.397
88 CZ 108 -1.373
88 CZ 109 -1.373
88 CZ 110 -0.397
88 CZ 111 2.533
88 CZ 112 4.486
88 CZ 113 4.486
88 CZ 114 1.068
88 CZ 115 -4.791
88 CZ 116 -10.651
88 CZ 117 -14.557
88 CZ 118 -16.022
88 CZ 119 -16.022
88 CZ 120 -15.533
88 CZ 121 -14.069
88 CZ 122 -12.115
88 CZ 123 -10.162
88 CZ 124 -7.721
88 CZ 125 -6.256
88 CZ 126 -5.280
88 CZ 127 -4.303
88 CZ 128 -2.838
88 CZ 129 -0.885
88 CZ 130 0.580
88 CZ 131 0.092
88 CZ 132 -2.350
88 CZ 133 -5.280
88 CZ 134 -7.233
88 CZ 135 -7.721
88 CZ 136 -6.744
88 CZ 137 -6.256
88 CZ 138 -6.744
88 CZ 139 -8.209
88 CZ 140 -9.674
88 CZ 141 -10.651
88 CZ 142 -11.627
88 CZ 143 -12.604
88 CZ 144 -15.533
88 CZ 145 -18.951
88 CZ 146 -22.858
88 CZ 147 -24.811
88 CZ 148 -24.323
88 CZ 149 -22.369
88 CZ 150 -19.928
88 CZ 151 -17.487
88 CZ 152 -16.022
88 CZ 153 -14.069
88 CZ 154 -11.627
88 CZ 155 -8.698
88 CZ 156 -6.256
88 CZ 157 -4.791
88 CZ 158 -4.303
88 CZ 159 -4.303
88 CZ 160 -3.326
88 CZ 161 -0.397
88 CZ 162 3.998
88 CZ 163 7.904
88 CZ 164 8.392
88 CZ 165 5.463
88 CZ 166 0.092
88 CZ 167 -5.768
88 CZ 168 -10.162
88 CZ 169 -11.627
88 CZ 170 -11.139
88 CZ 171 -10.651
88 CZ 172 -10.162
88 CZ 173 -9.674
88 CZ 174 -9.674
88 CZ 175 -9.186
88 CZ 176 -9.186
88 CZ 177 -10.162
88 CZ 178 -11.627
88 CZ 179 -12.115
88 CZ 180 -11.627
88 CZ 181 -10.162
88 CZ 182 -8.698
88 CZ 183 -7.721
88 CZ 184 -6.256
88 CZ 185 -3.815
88 CZ 186 0.580
88 CZ 187 5.951
88 CZ 188 10.345
88 CZ 189 13.763
88 CZ 190 16.205
88 CZ 191 17.670
88 CZ 192 19.135
88 CZ 193 19.135
88 CZ 194 17.670
88 CZ 195 12.299
88 CZ 196 4.486
88 CZ 197 -3.326
88 CZ 198 -9.674
88 CZ 199 -12.604
88 CZ 200 -12.604
88 CZ 201 -11.627
88 CZ 202 -12.604
88 CZ 203 -16.022
88 CZ 204 -20.416
88 CZ 205 -23.834
88 CZ 206 -24.323
88 CZ 207 -23.346
88 CZ 208 -21.393
88 CZ 209 -21.393
88 CZ 210 -22.369
88 CZ 211 -22.858
88 CZ 212 -21.393
88 CZ 213 -18.463
88 CZ 214 -15.533
88 CZ 215 -14.557
88 CZ 216 -15.045
88 CZ 217 -16.510
88 CZ 218 -16.510
88 CZ 219 -16.022
88 CZ 220 -15.045
88 CZ 221 -14.557
88 CZ 222 -14.069
88 CZ 223 -13.092
88 CZ 224 -11.139
88 CZ 225 -9.186
88 CZ 226 -10.162
88 CZ 227 -14.069
88 CZ 228 -20.905
88 CZ 229 -27.740
88 CZ 230 -30.670
88 CZ 231 -29.694
88 CZ 232 -26.764
88 CZ 233 -24.323
88 CZ 234 -23.834
88 CZ 235 -24.811
88 CZ 236 -25.787
88 CZ 237 -24.323
88 CZ 238 -21.881
88 CZ 239 -20.905
88 CZ 240 -22.369
88 CZ 241 -25.787
88 CZ 242 -27.740
88 CZ 243 -26.276
88 CZ 244 -20.905
88 CZ 245 -13.580
88 CZ 246 -7.233
88 CZ 247 -4.303
88 CZ 248 -4.303
88 CZ 249 -5.768
88 CZ 250 -6.744
88 CZ 251 -6.744
88 CZ 252 -6.744
88 CZ 253 -7.233
88 CZ 254 -7.233
88 CZ 255 -6.256
# C3 chan 16
88 C3 0 -5.910
88 C3 1 -5.910
88 C3 2 -5.422
88 C3 3 -5.422
88 C3 4 -4.445
88 C3 5 -3.469
88 C3 6 -2.492
88 C3 7 -1.027
88 C3 8 0.437
88 C3 9 1.902
88 C3 10 1.902
88 C3 11 1.414
88 C3 12 0.437
88 C3 13 -0.539
88 C3 14 -0.539
88 C3 15 -0.051
88 C3 16 0.926
88 C3 17 1.414
88 C3 18 0.437
88 C3 19 -1.516
88 C3 20 -3.957
88 C3 21 -5.910
88 C3 22 -7.375
88 C3 23 -7.863
88 C3 24 -7.375
88 C3 25 -6.399
88 C3 26 -5.910
88 C3 27 -5.422
88 C3 28 -4.445
88 C3 29 -3.957
88 C3 30 -2.981
88 C3 31 -2.492
88 C3 32 -2.492
88 C3 33 -2.004
88 C3 34 -0.539
88 C3 35 0.926
88 C3 36 1.902
88 C3 37 1.902
88 C3 38 0.926
88 C3 39 -0.539
88 C3 40 -2.004
88 C3 41 -1.516
88 C3 42 -0.539
88 C3 43 0.437
88 C3 44 1.414
88 C3 45 0.926
88 C3 46 -0.051
88 C3 47 -1.027
88 C3 48 -1.516
88 C3 49 -1.027
88 C3 50 -0.539
88 C3 51 0.437
88 C3 52 -0.051
88 C3 53 -1.516
88 C3 54 -3.469
88 C3 55 -5.910
88 C3 56 -7.863
88 C3 57 -9.328
88 C3 58 -10.305
88 C3 59 -11.281
88 C3 60 -11.770
88 C3 61 -10.793
88 C3 62 -9.328
88 C3 63 -7.375
88 C3 64 -5.422
88 C3 65 -4.445
88 C3 66 -4.445
88 C3 67 -4.445
88 C3 68 -3.469
88 C3 69 -2.004
88 C3 70 -0.539
88 C3 71 0.926
88 C3 72 1.902
88 C3 73 1.902
88 C3 74 1.902
88 C3 75 2.391
88 C3 76 3.367
88 C3 77 4.344
88 C3 78 4.832
88 C3 79 4.832
88 C3 80 5.320
88 C3 81 5.809
88 C3 82 5.809
88 C3 83 5.320
88 C3 84 3.855
88 C3 85 1.902
88 C3 86 0.926
88 C3 87 0.437
88 C3 88 0.437
88 C3 89 -0.051
88 C3 90 -0.539
88 C3 91 -2.004
88 C3 92 -3.469
88 C3 93 -3.469
88 C3 94 -2.492
88 C3 95 -1.027
88 C3 96 0.437
88 C3 97 1.902
88 C3 98 3.367
88 C3 99 4.344
88 C3 100 4.832
88 C3 101 5.320
88 C3 102 4.832
88 C3 103 4.344
88 C3 104 2.879
88 C3 105 1.902
88 C3 106 0.437
88 C3 107 -0.051
88 C3 108 -1.027
88 C3 109 -2.004
88 C3 110 -2.981
88 C3 111 -3.957
88 C3 112 -4.445
88 C3 113 -3.469
88 C3 114 -1.027
88 C3 115 1.902
88 C3 116 5.320
88 C3 117 6.785
88 C3 118 7.273
88 C3 119 5.809
88 C3 120 4.344
88 C3 121 3.367
88 C3 122 2.879
88 C3 123 2.879
88 C3 124 2.879
88 C3 125 2.391
88 C3 126 2.391
88 C3 127 1.414
88 C3 128 0.926
88 C3 129 0.437
88 C3 130 -0.539
88 C3 131 -1.516
88 C3 132 -1.516
88 C3 133 -2.004
88 C3 134 -1.516
88 C3 135 -1.027
88 C3 136 -0.539
88 C3 137 1.414
88 C3 138 3.367
88 C3 139 5.809
88 C3 140 7.273
88 C3 141 7.762
88 C3 142 6.297
88 C3 143 4.832
88 C3 144 3.367
88 C3 145 2.391
88 C3 146 2.391
88 C3 147 1.902
88 C3 148 1.414
88 C3 149 0.437
88 C3 150 -0.539
88 C3 151 -1.516
88 C3 152 -1.516
88 C3 153 -2.004
88 C3 154 -2.004
88 C3 155 -1.516
88 C3 156 -1.516
88 C3 157 -0.539
88 C3 158 0.437
88 C3 159 1.902
88 C3 160 2.879
88 C3 161 4.344
88 C3 162 5.320
88 C3 163 5.320
88 C3 164 5.320
88 C3 165 4.832
88 C3 166 3.855
88 C3 167 2.391
88 C3 168 0.437
88 C3 169 -1.027
88 C3 170 -2.004
88 C3 171 -2.492
88 C3 172 -2.492
88 C3 173 -1.516
88 C3 174 -0.539
88 C3 175 0.926
88 C3 176 1.902
88 C3 177 2.879
88 C3 178 2.391
88 C3 179 0.926
88 C3 180 -0.539
88 C3 181 -1.516
88 C3 182 -1.027
88 C3 183 0.437
88 C3 184 2.879
88 C3 185 4.832
88 C3 186 5.809
88 C3 187 5.809
88 C3 188 5.320
88 C3 189 5.320
88 C3 190 5.809
88 C3 191 6.297
88 C3 192 6.297
88 C3 193 5.320
88 C3 194 3.855
88 C3 195 2.391
88 C3 196 0.926
88 C3 197 -0.051
88 C3 198 -1.516
88 C3 199 -2.004
88 C3 200 -2.492
88 C3 201 -1.516
88 C3 202 -1.027
88 C3 203 -1.027
88 C3 204 -2.004
88 C3 205 -3.957
88 C3 206 -5.422
88 C3 207 -5.422
88 C3 208 -4.934
88 C3 209 -3.469
88 C3 210 -2.981
88 C3 211 -2.981
88 C3 212 -4.445
88 C3 213 -5.422
88 C3 214 -5.910
88 C3 215 -5.422
88 C3 216 -3.957
88 C3 217 -2.492
88 C3 218 -0.539
88 C3 219 1.414
88 C3 220 3.367
88 C3 221 4.832
88 C3 222 5.320
88 C3 223 5.320
88 C3 224 3.855
88 C3 225 2.879
88 C3 226 1.414
88 C3 227 0.437
88 C3 228 -1.027
88 C3 229 -2.004
88 C3 230 -3.469
88 C3 231 -5.422
88 C3 232 -6.887
88 C3 233 -8.352
88 C3 234 -9.816
88 C3 235 -10.793
88 C3 236 -11.281
88 C3 237 -11.281
88 C3 238 -9.328
88 C3 239 -6.887
88 C3 240 -3.957
88 C3 241 -1.516
88 C3 242 -0.051
88 C3 243 1.414
88 C3 244 2.879
88 C3 245 3.855
88 C3 246 4.832
88 C3 247 4.832
88 C3 248 3.855
88 C3 249 2.391
88 C3 250 1.414
88 C3 251 1.414
88 C3 252 2.391
88 C3 253 3.855
88 C3 254 4.832
88 C3 255 4.344
# C4 chan 17
88 C4 0 4.669
88 C4 1 2.716
88 C4 2 0.763
88 C4 3 -1.678
88 C4 4 -3.143
88 C4 5 -3.143
88 C4 6 -3.143
88 C4 7 -2.655
88 C4 8 -2.655
88 C4 9 -4.120
88 C4 10 -5.096
88 C4 11 -6.561
88 C4 12 -6.561
88 C4 13 -6.561
88 C4 14 -6.073
88 C4 15 -6.073
88 C4 16 -7.050
88 C4 17 -8.026
88 C4 18 -8.514
88 C4 19 -7.538
88 C4 20 -5.585
88 C4 21 -2.655
88 C4 22 0.275
88 C4 23 3.204
88 C4 24 5.646
88 C4 25 7.111
88 C4 26 7.599
88 C4 27 7.599
88 C4 28 6.622
88 C4 29 5.157
88 C4 30 3.204
88 C4 31 2.228
88 C4 32 1.251
88 C4 33 1.251
88 C4 34 1.740
88 C4 35 2.228
88 C4 36 1.740
88 C4 37 1.251
88 C4 38 0.763
88 C4 39 -0.702
88 C4 40 -1.678
88 C4 41 -3.632
88 C4 42 -5.096
88 C4 43 -6.561
88 C4 44 -6.561
88 C4 45 -6.073
88 C4 46 -4.608
88 C4 47 -3.143
88 C4 48 -1.678
88 C4 49 -1.190
88 C4 50 -0.214
88 C4 51 0.763
88 C4 52 2.228
88 C4 53 3.204
88 C4 54 3.693
88 C4 55 2.716
88 C4 56 1.251
88 C4 57 -0.214
88 C4 58 -0.702
88 C4 59 -0.214
88 C4 60 1.251
88 C4 61 1.740
88 C4 62 1.740
88 C4 63 0.763
88 C4 64 -0.214
88 C4 65 -0.214
88 C4 66 0.275
88 C4 67 0.763
88 C4 68 0.763
88 C4 69 0.275
88 C4 70 -0.702
88 C4 71 -1.190
88 C4 72 -1.678
88 C4 73 -1.678
88 C4 74 -2.167
88 C4 75 -2.655
88 C4 76 -3.143
88 C4 77 -3.143
88 C4 78 -2.167
88 C4 79 -0.702
88 C4 80 0.275
88 C4 81 1.251
88 C4 82 1.740
88 C4 83 2.228
88 C4 84 2.716
88 C4 85 2.716
88 C4 86 2.716
88 C4 87 1.740
88 C4 88 0.275
88 C4 89 -1.190
88 C4 90 -2.167
88 C4 91 -2.655
88 C4 92 -2.167
88 C4 93 -2.167
88 C4 94 -1.678
88 C4 95 -2.167
88 C4 96 -2.167
88 C4 97 -2.167
88 C4 98 -1.678
88 C4 99 -1.190
88 C4 100 -1.190
88 C4 101 -1.678
88 C4 102 -2.167
88 C4 103 -2.655
88 C4 104 -2.655
88 C4 105 -2.167
88 C4 106 -1.678
88 C4 107 -1.678
88 C4 108 -2.167
88 C4 109 -2.655
88 C4 110 -1.678
88 C4 111 -0.214
88 C4 112 1.740
88 C4 113 3.693
88 C4 114 4.181
88 C4 115 3.693
88 C4 116 3.204
88 C4 117 2.716
88 C4 118 2.228
88 C4 119 2.228
88 C4 120 2.228
88 C4 121 2.716
88 C4 122 3.204
88 C4 123 2.716
88 C4 124 2.228
88 C4 125 0.763
88 C4 126 -0.214
88 C4 127 -0.214
88 C4 128 0.763
88 C4 129 1.251
88 C4 130 0.763
88 C4 131 -1.190
88 C4 132 -3.632
88 C4 133 -6.561
88 C4 134 -8.026
88 C4 135 -8.026
88 C4 136 -8.026
88 C4 137 -7.538
88 C4 138 -7.050
88 C4 139 -6.073
88 C4 140 -4.120
88 C4 141 -1.678
88 C4 142 -0.214
88 C4 143 0.763
88 C4 144 -0.214
88 C4 145 -1.190
88 C4 146 -2.167
88 C4 147 -1.678
88 C4 148 -0.214
88 C4 149 0.763
88 C4 150 1.740
88 C4 151 1.251
88 C4 152 0.763
88 C4 153 0.275
88 C4 154 0.275
88 C4 155 0.763
88 C4 156 1.740
88 C4 157 2.228
88 C4 158 2.716
88 C4 159 2.716
88 C4 160 2.716
88 C4 161 2.228
88 C4 162 1.740
88 C4 163 1.251
88 C4 164 0.275
88 C4 165 -0.702
88 C4 166 -1.678
88 C4 167 -2.655
88 C4 168 -3.143
88 C4 169 -2.655
88 C4 170 -1.678
88 C4 171 0.275
88 C4 172 1.740
88 C4 173 2.228
88 C4 174 1.251
88 C4 175 -1.190
88 C4 176 -4.120
88 C4 177 -6.561
88 C4 178 -7.050
88 C4 179 -6.073
88 C4 180 -4.120
88 C4 181 -2.167
88 C4 182 -0.702
88 C4 183 -0.702
88 C4 184 -1.190
88 C4 185 -1.190
88 C4 186 -0.214
88 C4 187 0.763
88 C4 188 2.228
88 C4 189 3.204
88 C4 190 3.693
88 C4 191 3.693
88 C4 192 3.693
88 C4 193 3.204
88 C4 194 2.716
88 C4 195 1.251
88 C4 196 -0.702
88 C4 197 -2.167
88 C4 198 -3.632
88 C4 199 -4.608
88 C4 200 -4.608
88 C4 201 -5.096
88 C4 202 -6.073
88 C4 203 -6.561
88 C4 204 -6.561
88 C4 205 -6.073
88 C4 206 -5.096
88 C4 207 -4.120
88 C4 208 -3.632
88 C4 209 -3.632
88 C4 210 -4.120
88 C4 211 -4.120
88 C4 212 -3.632
88 C4 213 -2.167
88 C4 214 -0.702
88 C4 215 -0.214
88 C4 216 -0.702
88 C4 217 -2.167
88 C4 218 -4.120
88 C4 219 -5.096
88 C4 220 -5.585
88 C4 221 -4.608
88 C4 222 -3.143
88 C4 223 -2.167
88 C4 224 -0.702
88 C4 225 -1.190
88 C4 226 -1.678
88 C4 227 -1.678
88 C4 228 -1.678
88 C4 229 -0.214
88 C4 230 1.251
88 C4 231 2.228
88 C4 232 3.204
88 C4 233 3.204
88 C4 234 2.716
88 C4 235 2.716
88 C4 236 2.228
88 C4 237 1.740
88 C4 238 1.251
88 C4 239 -0.214
88 C4 240 -2.167
88 C4 241 -3.632
88 C4 242 -4.608
88 C4 243 -4.608
88 C4 244 -4.120
88 C4 245 -2.655
88 C4 246 -1.678
88 C4 247 -1.678
88 C4 248 -2.167
88 C4 249 -2.655
88 C4 250 -3.143
88 C4 251 -3.143
88 C4 252 -2.167
88 C4 253 -0.702
88 C4 254 1.251
88 C4 255 3.204
# CP5 chan 18
88 CP5 0 -8.169
88 CP5 1 -9.633
88 CP5 2 -10.122
88 CP5 3 -9.633
88 CP5 4 -8.657
88 CP5 5 -7.192
88 CP5 6 -4.751
88 CP5 7 -3.286
88 CP5 8 -1.821
88 CP5 9 -1.333
88 CP5 10 -1.821
88 CP5 11 -3.774
88 CP5 12 -6.215
88 CP5 13 -8.657
88 CP5 14 -9.633
88 CP5 15 -10.122
88 CP5 16 -9.145
88 CP5 17 -7.192
88 CP5 18 -5.727
88 CP5 19 -5.727
88 CP5 20 -5.727
88 CP5 21 -5.727
88 CP5 22 -5.239
88 CP5 23 -4.262
88 CP5 24 -2.309
88 CP5 25 -0.844
88 CP5 26 -0.356
88 CP5 27 -0.356
88 CP5 28 -0.844
88 CP5 29 -1.821
88 CP5 30 -2.797
88 CP5 31 -4.262
88 CP5 32 -6.215
88 CP5 33 -6.704
88 CP5 34 -6.215
88 CP5 35 -4.751
88 CP5 36 -3.286
88 CP5 37 -3.286
88 CP5 38 -5.239
88 CP5 39 -8.169
88 CP5 40 -11.098
88 CP5 41 -11.587
88 CP5 42 -10.122
88 CP5 43 -7.192
88 CP5 44 -4.751
88 CP5 45 -3.774
88 CP5 46 -3.774
88 CP5 47 -5.239
88 CP5 48 -5.727
88 CP5 49 -4.751
88 CP5 50 -3.286
88 CP5 51 -1.333
88 CP5 52 -0.356
88 CP5 53 -1.333
88 CP5 54 -2.797
88 CP5 55 -4.751
88 CP5 56 -6.704
88 CP5 57 -8.169
88 CP5 58 -9.633
88 CP5 59 -10.610
88 CP5 60 -12.075
88 CP5 61 -12.563
88 CP5 62 -12.563
88 CP5 63 -11.587
88 CP5 64 -10.122
88 CP5 65 -9.145
88 CP5 66 -8.657
88 CP5 67 -7.680
88 CP5 68 -6.704
88 CP5 69 -4.751
88 CP5 70 -2.309
88 CP5 71 0.621
88 CP5 72 3.062
88 CP5 73 3.550
88 CP5 74 3.550
88 CP5 75 3.550
88 CP5 76 3.062
88 CP5 77 2.085
88 CP5 78 1.109
88 CP5 79 0.621
88 CP5 80 1.109
88 CP5 81 2.574
88 CP5 82 5.015
88 CP5 83 5.992
88 CP5 84 5.992
88 CP5 85 4.527
88 CP5 86 2.574
88 CP5 87 1.597
88 CP5 88 1.597
88 CP5 89 1.597
88 CP5 90 1.109
88 CP5 91 -0.356
88 CP5 92 -1.821
88 CP5 93 -2.309
88 CP5 94 -1.333
88 CP5 95 0.132
88 CP5 96 1.597
88 CP5 97 3.062
88 CP5 98 3.062
88 CP5 99 3.550
88 CP5 100 3.062
88 CP5 101 3.062
88 CP5 102 3.062
88 CP5 103 2.085
88 CP5 104 1.109
88 CP5 105 0.132
88 CP5 106 -1.821
88 CP5 107 -2.797
88 CP5 108 -3.774
88 CP5 109 -4.751
88 CP5 110 -5.239
88 CP5 111 -5.239
88 CP5 112 -3.286
88 CP5 113 -0.356
88 CP5 114 3.550
88 CP5 115 6.480
88 CP5 116 8.433
88 CP5 117 8.433
88 CP5 118 6.480
88 CP5 119 4.527
88 CP5 120 3.062
88 CP5 121 2.085
88 CP5 122 1.597
88 CP5 123 1.597
88 CP5 124 1.597
88 CP5 125 1.109
88 CP5 126 0.621
88 CP5 127 0.621
88 CP5 128 -0.844
88 CP5 129 -2.309
88 CP5 130 -4.262
88 CP5 131 -6.215
88 CP5 132 -6.215
88 CP5 133 -6.215
88 CP5 134 -5.727
88 CP5 135 -5.239
88 CP5 136 -4.262
88 CP5 137 -2.797
88 CP5 138 0.621
88 CP5 139 5.015
88 CP5 140 9.410
88 CP5 141 11.363
88 CP5 142 9.898
88 CP5 143 6.480
88 CP5 144 2.085
88 CP5 145 -0.844
88 CP5 146 -2.309
88 CP5 147 -2.797
88 CP5 148 -3.774
88 CP5 149 -5.727
88 CP5 150 -7.680
88 CP5 151 -9.145
88 CP5 152 -8.657
88 CP5 153 -7.192
88 CP5 154 -6.704
88 CP5 155 -5.727
88 CP5 156 -5.239
88 CP5 157 -3.774
88 CP5 158 -1.333
88 CP5 159 1.109
88 CP5 160 3.550
88 CP5 161 4.527
88 CP5 162 4.038
88 CP5 163 3.062
88 CP5 164 2.574
88 CP5 165 1.597
88 CP5 166 1.109
88 CP5 167 -0.356
88 CP5 168 -1.821
88 CP5 169 -3.286
88 CP5 170 -4.751
88 CP5 171 -5.727
88 CP5 172 -5.727
88 CP5 173 -5.727
88 CP5 174 -5.727
88 CP5 175 -5.727
88 CP5 176 -4.751
88 CP5 177 -4.262
88 CP5 178 -4.262
88 CP5 179 -4.751
88 CP5 180 -5.239
88 CP5 181 -6.215
88 CP5 182 -5.239
88 CP5 183 -3.774
88 CP5 184 -1.333
88 CP5 185 1.109
88 CP5 186 2.085
88 CP5 187 2.574
88 CP5 188 3.550
88 CP5 189 5.015
88 CP5 190 6.968
88 CP5 191 8.433
88 CP5 192 8.921
88 CP5 193 7.945
88 CP5 194 6.480
88 CP5 195 5.015
88 CP5 196 2.574
88 CP5 197 0.621
88 CP5 198 -2.309
88 CP5 199 -4.751
88 CP5 200 -6.215
88 CP5 201 -6.704
88 CP5 202 -6.215
88 CP5 203 -6.215
88 CP5 204 -7.192
88 CP5 205 -9.633
88 CP5 206 -12.563
88 CP5 207 -14.516
88 CP5 208 -15.004
88 CP5 209 -13.540
88 CP5 210 -12.075
88 CP5 211 -11.587
88 CP5 212 -12.563
88 CP5 213 -13.051
88 CP5 214 -12.075
88 CP5 215 -9.633
88 CP5 216 -5.727
88 CP5 217 -2.797
88 CP5 218 -1.333
88 CP5 219 -1.333
88 CP5 220 -0.844
88 CP5 221 0.132
88 CP5 222 2.085
88 CP5 223 3.550
88 CP5 224 3.062
88 CP5 225 0.132
88 CP5 226 -3.774
88 CP5 227 -7.192
88 CP5 228 -10.610
88 CP5 229 -12.563
88 CP5 230 -14.028
88 CP5 231 -15.981
88 CP5 232 -17.446
88 CP5 233 -18.422
88 CP5 234 -18.422
88 CP5 235 -18.422
88 CP5 236 -17.446
88 CP5 237 -16.469
88 CP5 238 -15.981
88 CP5 239 -14.516
88 CP5 240 -12.075
88 CP5 241 -9.145
88 CP5 242 -6.215
88 CP5 243 -2.797
88 CP5 244 0.621
88 CP5 245 3.062
88 CP5 246 5.015
88 CP5 247 5.503
88 CP5 248 4.038
88 CP5 249 1.109
88 CP5 250 -1.821
88 CP5 251 -4.262
88 CP5 252 -4.751
88 CP5 253 -4.751
88 CP5 254 -3.774
88 CP5 255 -3.774
# CP6 chan 19
88 CP6 0 0.142
88 CP6 1 -2.787
88 CP6 2 -5.229
88 CP6 3 -7.182
88 CP6 4 -7.670
88 CP6 5 -6.694
88 CP6 6 -5.229
88 CP6 7 -4.252
88 CP6 8 -4.740
88 CP6 9 -6.694
88 CP6 10 -10.111
88 CP6 11 -13.041
88 CP6 12 -14.506
88 CP6 13 -14.506
88 CP6 14 -14.018
88 CP6 15 -14.018
88 CP6 16 -14.994
88 CP6 17 -16.459
88 CP6 18 -17.924
88 CP6 19 -17.436
88 CP6 20 -14.994
88 CP6 21 -10.600
88 CP6 22 -5.229
88 CP6 23 0.631
88 CP6 24 5.025
88 CP6 25 7.955
88 CP6 26 8.931
88 CP6 27 7.467
88 CP6 28 5.025
88 CP6 29 1.607
88 CP6 30 -0.346
88 CP6 31 -1.322
88 CP6 32 -1.322
88 CP6 33 -0.346
88 CP6 34 0.631
88 CP6 35 1.119
88 CP6 36 1.119
88 CP6 37 0.142
88 CP6 38 -2.299
88 CP6 39 -5.717
88 CP6 40 -10.600
88 CP6 41 -14.506
88 CP6 42 -17.436
88 CP6 43 -17.924
88 CP6 44 -16.947
88 CP6 45 -15.483
88 CP6 46 -13.529
88 CP6 47 -12.553
88 CP6 48 -12.065
88 CP6 49 -11.088
88 CP6 50 -10.111
88 CP6 51 -8.647
88 CP6 52 -6.205
88 CP6 53 -3.764
88 CP6 54 -1.811
88 CP6 55 -1.322
88 CP6 56 -1.811
88 CP6 57 -2.787
88 CP6 58 -2.299
88 CP6 59 -0.834
88 CP6 60 0.631
88 CP6 61 2.096
88 CP6 62 1.119
88 CP6 63 -0.346
88 CP6 64 -1.811
88 CP6 65 -2.299
88 CP6 66 -0.834
88 CP6 67 0.631
88 CP6 68 2.096
88 CP6 69 2.584
88 CP6 70 1.607
88 CP6 71 1.119
88 CP6 72 0.631
88 CP6 73 0.142
88 CP6 74 -1.322
88 CP6 75 -3.764
88 CP6 76 -7.182
88 CP6 77 -9.135
88 CP6 78 -9.135
88 CP6 79 -7.670
88 CP6 80 -6.205
88 CP6 81 -4.740
88 CP6 82 -3.764
88 CP6 83 -3.764
88 CP6 84 -2.787
88 CP6 85 -1.322
88 CP6 86 -0.346
88 CP6 87 -0.834
88 CP6 88 -2.299
88 CP6 89 -3.764
88 CP6 90 -4.252
88 CP6 91 -3.764
88 CP6 92 -2.787
88 CP6 93 -2.299
88 CP6 94 -2.299
88 CP6 95 -2.787
88 CP6 96 -3.276
88 CP6 97 -2.299
88 CP6 98 -0.834
88 CP6 99 0.631
88 CP6 100 1.119
88 CP6 101 -0.346
88 CP6 102 -1.811
88 CP6 103 -3.276
88 CP6 104 -3.764
88 CP6 105 -4.252
88 CP6 106 -4.740
88 CP6 107 -6.694
88 CP6 108 -8.647
88 CP6 109 -10.111
88 CP6 110 -9.135
88 CP6 111 -6.694
88 CP6 112 -2.787
88 CP6 113 0.142
88 CP6 114 1.607
88 CP6 115 1.607
88 CP6 116 1.119
88 CP6 117 0.142
88 CP6 118 0.142
88 CP6 119 0.631
88 CP6 120 1.607
88 CP6 121 2.584
88 CP6 122 3.072
88 CP6 123 2.584
88 CP6 124 1.119
88 CP6 125 -0.346
88 CP6 126 -1.811
88 CP6 127 -1.811
88 CP6 128 -1.811
88 CP6 129 -2.787
88 CP6 130 -5.229
88 CP6 131 -9.623
88 CP6 132 -13.041
88 CP6 133 -15.483
88 CP6 134 -15.971
88 CP6 135 -15.483
88 CP6 136 -14.506
88 CP6 137 -13.529
88 CP6 138 -12.553
88 CP6 139 -9.623
88 CP6 140 -5.717
88 CP6 141 -1.811
88 CP6 142 0.142
88 CP6 143 -0.346
88 CP6 144 -2.787
88 CP6 145 -5.717
88 CP6 146 -6.694
88 CP6 147 -5.717
88 CP6 148 -3.764
88 CP6 149 -1.811
88 CP6 150 -1.811
88 CP6 151 -2.299
88 CP6 152 -3.764
88 CP6 153 -4.252
88 CP6 154 -3.764
88 CP6 155 -3.276
88 CP6 156 -2.299
88 CP6 157 -1.322
88 CP6 158 0.631
88 CP6 159 2.096
88 CP6 160 3.560
88 CP6 161 3.560
88 CP6 162 2.584
88 CP6 163 0.142
88 CP6 164 -1.811
88 CP6 165 -3.764
88 CP6 166 -4.740
88 CP6 167 -5.717
88 CP6 168 -6.694
88 CP6 169 -8.158
88 CP6 170 -8.647
88 CP6 171 -7.670
88 CP6 172 -5.717
88 CP6 173 -4.252
88 CP6 174 -4.740
88 CP6 175 -7.670
88 CP6 176 -12.065
88 CP6 177 -15.971
88 CP6 178 -16.947
88 CP6 179 -15.483
88 CP6 180 -11.576
88 CP6 181 -7.670
88 CP6 182 -4.740
88 CP6 183 -3.276
88 CP6 184 -2.787
88 CP6 185 -1.811
88 CP6 186 -0.834
88 CP6 187 1.119
88 CP6 188 3.072
88 CP6 189 4.537
88 CP6 190 5.514
88 CP6 191 6.002
88 CP6 192 6.490
88 CP6 193 6.490
88 CP6 194 4.049
88 CP6 195 0.631
88 CP6 196 -4.252
88 CP6 197 -9.135
88 CP6 198 -12.553
88 CP6 199 -14.018
88 CP6 200 -14.506
88 CP6 201 -14.506
88 CP6 202 -14.994
88 CP6 203 -14.994
88 CP6 204 -14.994
88 CP6 205 -14.018
88 CP6 206 -13.529
88 CP6 207 -12.553
88 CP6 208 -12.553
88 CP6 209 -13.041
88 CP6 210 -13.041
88 CP6 211 -11.088
88 CP6 212 -8.158
88 CP6 213 -4.252
88 CP6 214 -1.322
88 CP6 215 0.142
88 CP6 216 -0.834
88 CP6 217 -2.787
88 CP6 218 -4.740
88 CP6 219 -6.205
88 CP6 220 -6.205
88 CP6 221 -5.229
88 CP6 222 -4.252
88 CP6 223 -3.764
88 CP6 224 -4.252
88 CP6 225 -6.205
88 CP6 226 -8.647
88 CP6 227 -11.088
88 CP6 228 -12.553
88 CP6 229 -13.041
88 CP6 230 -12.065
88 CP6 231 -9.623
88 CP6 232 -8.158
88 CP6 233 -6.694
88 CP6 234 -6.205
88 CP6 235 -6.205
88 CP6 236 -5.717
88 CP6 237 -5.717
88 CP6 238 -5.229
88 CP6 239 -5.717
88 CP6 240 -6.694
88 CP6 241 -8.158
88 CP6 242 -8.647
88 CP6 243 -7.670
88 CP6 244 -4.740
88 CP6 245 -1.811
88 CP6 246 0.142
88 CP6 247 0.142
88 CP6 248 -1.322
88 CP6 249 -3.764
88 CP6 250 -6.205
88 CP6 251 -7.670
88 CP6 252 -8.158
88 CP6 253 -7.670
88 CP6 254 -6.205
88 CP6 255 -3.276
# CP1 chan 20
88 CP1 0 -6.307
88 CP1 1 -5.330
88 CP1 2 -3.866
88 CP1 3 -2.401
88 CP1 4 -0.448
88 CP1 5 1.017
88 CP1 6 3.459
88 CP1 7 4.435
88 CP1 8 4.435
88 CP1 9 3.459
88 CP1 10 1.994
88 CP1 11 0.041
88 CP1 12 -1.912
88 CP1 13 -2.889
88 CP1 14 -3.377
88 CP1 15 -3.866
88 CP1 16 -3.866
88 CP1 17 -3.866
88 CP1 18 -4.354
88 CP1 19 -5.819
88 CP1 20 -6.795
88 CP1 21 -7.284
88 CP1 22 -7.772
88 CP1 23 -6.795
88 CP1 24 -4.842
88 CP1 25 -2.889
88 CP1 26 -1.424
88 CP1 27 0.529
88 CP1 28 1.506
88 CP1 29 1.994
88 CP1 30 2.970
88 CP1 31 3.459
88 CP1 32 2.970
88 CP1 33 3.459
88 CP1 34 3.947
88 CP1 35 3.947
88 CP1 36 3.459
88 CP1 37 1.994
88 CP1 38 0.529
88 CP1 39 -1.424
88 CP1 40 -2.889
88 CP1 41 -3.377
88 CP1 42 -3.377
88 CP1 43 -2.889
88 CP1 44 -2.889
88 CP1 45 -3.377
88 CP1 46 -4.842
88 CP1 47 -6.307
88 CP1 48 -7.772
88 CP1 49 -8.748
88 CP1 50 -8.748
88 CP1 51 -8.748
88 CP1 52 -7.772
88 CP1 53 -7.284
88 CP1 54 -6.795
88 CP1 55 -6.795
88 CP1 56 -7.284
88 CP1 57 -7.284
88 CP1 58 -7.772
88 CP1 59 -7.284
88 CP1 60 -6.795
88 CP1 61 -5.819
88 CP1 62 -4.354
88 CP1 63 -2.889
88 CP1 64 -1.912
88 CP1 65 -1.424
88 CP1 66 -1.424
88 CP1 67 -0.448
88 CP1 68 0.529
88 CP1 69 1.994
88 CP1 70 2.970
88 CP1 71 3.947
88 CP1 72 4.435
88 CP1 73 4.435
88 CP1 74 3.947
88 CP1 75 3.947
88 CP1 76 3.459
88 CP1 77 2.482
88 CP1 78 1.017
88 CP1 79 0.529
88 CP1 80 0.529
88 CP1 81 0.529
88 CP1 82 1.017
88 CP1 83 1.017
88 CP1 84 1.017
88 CP1 85 1.017
88 CP1 86 1.017
88 CP1 87 1.017
88 CP1 88 1.017
88 CP1 89 1.017
88 CP1 90 0.529
88 CP1 91 0.041
88 CP1 92 0.041
88 CP1 93 0.041
88 CP1 94 1.017
88 CP1 95 1.994
88 CP1 96 2.482
88 CP1 97 2.970
88 CP1 98 3.947
88 CP1 99 4.435
88 CP1 100 4.435
88 CP1 101 4.435
88 CP1 102 3.947
88 CP1 103 2.970
88 CP1 104 1.506
88 CP1 105 0.529
88 CP1 106 -0.936
88 CP1 107 -1.912
88 CP1 108 -2.889
88 CP1 109 -3.866
88 CP1 110 -4.842
88 CP1 111 -5.330
88 CP1 112 -5.330
88 CP1 113 -4.354
88 CP1 114 -2.889
88 CP1 115 -0.448
88 CP1 116 1.994
88 CP1 117 3.947
88 CP1 118 4.924
88 CP1 119 4.924
88 CP1 120 4.435
88 CP1 121 3.459
88 CP1 122 2.482
88 CP1 123 1.994
88 CP1 124 1.994
88 CP1 125 1.994
88 CP1 126 1.994
88 CP1 127 1.506
88 CP1 128 1.017
88 CP1 129 0.041
88 CP1 130 -1.912
88 CP1 131 -2.889
88 CP1 132 -3.866
88 CP1 133 -3.866
88 CP1 134 -3.377
88 CP1 135 -2.889
88 CP1 136 -1.912
88 CP1 137 -1.424
88 CP1 138 0.041
88 CP1 139 1.017
88 CP1 140 1.506
88 CP1 141 1.994
88 CP1 142 1.994
88 CP1 143 1.017
88 CP1 144 0.529
88 CP1 145 0.041
88 CP1 146 -0.448
88 CP1 147 -0.448
88 CP1 148 0.041
88 CP1 149 -0.448
88 CP1 150 -0.448
88 CP1 151 -1.424
88 CP1 152 -1.912
88 CP1 153 -2.401
88 CP1 154 -2.401
88 CP1 155 -1.912
88 CP1 156 -0.448
88 CP1 157 1.017
88 CP1 158 2.482
88 CP1 159 3.459
88 CP1 160 4.435
88 CP1 161 4.924
88 CP1 162 4.435
88 CP1 163 3.459
88 CP1 164 1.994
88 CP1 165 1.017
88 CP1 166 -0.448
88 CP1 167 -1.424
88 CP1 168 -2.889
88 CP1 169 -3.866
88 CP1 170 -4.354
88 CP1 171 -4.842
88 CP1 172 -4.354
88 CP1 173 -3.377
88 CP1 174 -2.401
88 CP1 175 -1.912
88 CP1 176 -1.424
88 CP1 177 -1.424
88 CP1 178 -1.424
88 CP1 179 -0.936
88 CP1 180 -0.448
88 CP1 181 0.041
88 CP1 182 1.017
88 CP1 183 1.506
88 CP1 184 1.994
88 CP1 185 1.994
88 CP1 186 1.506
88 CP1 187 1.506
88 CP1 188 1.506
88 CP1 189 1.994
88 CP1 190 2.482
88 CP1 191 2.482
88 CP1 192 2.482
88 CP1 193 1.506
88 CP1 194 0.041
88 CP1 195 -1.424
88 CP1 196 -2.401
88 CP1 197 -3.866
88 CP1 198 -4.842
88 CP1 199 -5.819
88 CP1 200 -5.819
88 CP1 201 -5.330
88 CP1 202 -4.354
88 CP1 203 -3.377
88 CP1 204 -2.889
88 CP1 205 -2.889
88 CP1 206 -3.866
88 CP1 207 -4.354
88 CP1 208 -4.354
88 CP1 209 -3.866
88 CP1 210 -2.889
88 CP1 211 -2.401
88 CP1 212 -1.424
88 CP1 213 -0.936
88 CP1 214 0.041
88 CP1 215 1.506
88 CP1 216 2.482
88 CP1 217 2.970
88 CP1 218 3.459
88 CP1 219 3.947
88 CP1 220 4.435
88 CP1 221 4.924
88 CP1 222 4.924
88 CP1 223 3.459
88 CP1 224 1.994
88 CP1 225 -0.448
88 CP1 226 -3.377
88 CP1 227 -6.307
88 CP1 228 -7.772
88 CP1 229 -8.748
88 CP1 230 -9.237
88 CP1 231 -9.237
88 CP1 232 -8.748
88 CP1 233 -8.260
88 CP1 234 -7.772
88 CP1 235 -6.795
88 CP1 236 -5.819
88 CP1 237 -4.842
88 CP1 238 -2.889
88 CP1 239 -1.424
88 CP1 240 0.041
88 CP1 241 0.529
88 CP1 242 1.506
88 CP1 243 2.970
88 CP1 244 3.459
88 CP1 245 4.435
88 CP1 246 4.924
88 CP1 247 3.947
88 CP1 248 2.482
88 CP1 249 0.529
88 CP1 250 -1.424
88 CP1 251 -2.401
88 CP1 252 -2.889
88 CP1 253 -2.401
88 CP1 254 -1.912
88 CP1 255 -1.424
# CP2 chan 21
88 CP2 0 -1.923
88 CP2 1 -2.411
88 CP2 2 -2.411
88 CP2 3 -2.411
88 CP2 4 -1.923
88 CP2 5 -0.946
88 CP2 6 0.031
88 CP2 7 0.519
88 CP2 8 0.031
88 CP2 9 -1.923
88 CP2 10 -3.876
88 CP2 11 -6.317
88 CP2 12 -7.782
88 CP2 13 -8.270
88 CP2 14 -8.759
88 CP2 15 -9.247
88 CP2 16 -10.712
88 CP2 17 -12.177
88 CP2 18 -13.153
88 CP2 19 -12.665
88 CP2 20 -10.223
88 CP2 21 -6.317
88 CP2 22 -1.923
88 CP2 23 2.960
88 CP2 24 6.378
88 CP2 25 8.331
88 CP2 26 8.820
88 CP2 27 8.331
88 CP2 28 7.355
88 CP2 29 6.378
88 CP2 30 5.402
88 CP2 31 4.913
88 CP2 32 4.425
88 CP2 33 4.425
88 CP2 34 4.425
88 CP2 35 3.448
88 CP2 36 1.984
88 CP2 37 0.519
88 CP2 38 -2.411
88 CP2 39 -4.364
88 CP2 40 -6.805
88 CP2 41 -8.759
88 CP2 42 -10.223
88 CP2 43 -10.712
88 CP2 44 -11.200
88 CP2 45 -11.200
88 CP2 46 -9.735
88 CP2 47 -8.759
88 CP2 48 -7.782
88 CP2 49 -7.294
88 CP2 50 -6.805
88 CP2 51 -6.317
88 CP2 52 -4.852
88 CP2 53 -2.411
88 CP2 54 0.031
88 CP2 55 1.495
88 CP2 56 2.472
88 CP2 57 2.960
88 CP2 58 3.448
88 CP2 59 3.448
88 CP2 60 4.425
88 CP2 61 4.913
88 CP2 62 5.402
88 CP2 63 4.913
88 CP2 64 3.937
88 CP2 65 2.960
88 CP2 66 2.960
88 CP2 67 2.960
88 CP2 68 3.448
88 CP2 69 3.448
88 CP2 70 3.448
88 CP2 71 1.984
88 CP2 72 1.495
88 CP2 73 0.519
88 CP2 74 -0.946
88 CP2 75 -1.923
88 CP2 76 -3.387
88 CP2 77 -4.364
88 CP2 78 -4.852
88 CP2 79 -4.852
88 CP2 80 -4.364
88 CP2 81 -3.387
88 CP2 82 -1.923
88 CP2 83 0.519
88 CP2 84 2.472
88 CP2 85 3.937
88 CP2 86 4.425
88 CP2 87 3.448
88 CP2 88 2.472
88 CP2 89 1.495
88 CP2 90 1.007
88 CP2 91 1.007
88 CP2 92 1.495
88 CP2 93 1.495
88 CP2 94 1.495
88 CP2 95 1.007
88 CP2 96 1.007
88 CP2 97 1.007
88 CP2 98 1.495
88 CP2 99 2.472
88 CP2 100 2.960
88 CP2 101 2.472
88 CP2 102 1.495
88 CP2 103 0.519
88 CP2 104 -0.458
88 CP2 105 -1.923
88 CP2 106 -2.899
88 CP2 107 -4.364
88 CP2 108 -5.341
88 CP2 109 -5.829
88 CP2 110 -5.341
88 CP2 111 -3.387
88 CP2 112 -0.946
88 CP2 113 1.007
88 CP2 114 2.472
88 CP2 115 2.472
88 CP2 116 2.472
88 CP2 117 2.960
88 CP2 118 3.937
88 CP2 119 4.913
88 CP2 120 5.402
88 CP2 121 4.913
88 CP2 122 3.937
88 CP2 123 2.472
88 CP2 124 1.495
88 CP2 125 1.007
88 CP2 126 1.007
88 CP2 127 1.007
88 CP2 128 0.519
88 CP2 129 -0.458
88 CP2 130 -1.923
88 CP2 131 -3.876
88 CP2 132 -5.341
88 CP2 133 -6.805
88 CP2 134 -7.294
88 CP2 135 -7.294
88 CP2 136 -7.294
88 CP2 137 -6.805
88 CP2 138 -6.317
88 CP2 139 -4.852
88 CP2 140 -2.899
88 CP2 141 -0.458
88 CP2 142 1.495
88 CP2 143 2.472
88 CP2 144 2.472
88 CP2 145 1.495
88 CP2 146 0.519
88 CP2 147 1.007
88 CP2 148 1.984
88 CP2 149 2.960
88 CP2 150 2.960
88 CP2 151 1.984
88 CP2 152 0.519
88 CP2 153 -0.946
88 CP2 154 -1.923
88 CP2 155 -0.946
88 CP2 156 0.031
88 CP2 157 1.495
88 CP2 158 1.984
88 CP2 159 2.960
88 CP2 160 2.960
88 CP2 161 2.472
88 CP2 162 1.007
88 CP2 163 -0.458
88 CP2 164 -2.411
88 CP2 165 -3.387
88 CP2 166 -3.387
88 CP2 167 -3.387
88 CP2 168 -3.387
88 CP2 169 -3.387
88 CP2 170 -3.876
88 CP2 171 -3.876
88 CP2 172 -3.387
88 CP2 173 -2.899
88 CP2 174 -3.387
88 CP2 175 -4.364
88 CP2 176 -6.805
88 CP2 177 -8.759
88 CP2 178 -8.759
88 CP2 179 -7.294
88 CP2 180 -5.341
88 CP2 181 -3.387
88 CP2 182 -2.411
88 CP2 183 -2.899
88 CP2 184 -3.387
88 CP2 185 -3.387
88 CP2 186 -3.387
88 CP2 187 -1.923
88 CP2 188 -0.458
88 CP2 189 0.519
88 CP2 190 0.519
88 CP2 191 0.031
88 CP2 192 0.031
88 CP2 193 -0.458
88 CP2 194 -1.923
88 CP2 195 -3.387
88 CP2 196 -5.341
88 CP2 197 -7.782
88 CP2 198 -9.247
88 CP2 199 -10.223
88 CP2 200 -10.223
88 CP2 201 -9.735
88 CP2 202 -9.247
88 CP2 203 -8.759
88 CP2 204 -8.759
88 CP2 205 -8.270
88 CP2 206 -7.782
88 CP2 207 -6.805
88 CP2 208 -5.829
88 CP2 209 -5.341
88 CP2 210 -4.852
88 CP2 211 -3.876
88 CP2 212 -1.923
88 CP2 213 0.519
88 CP2 214 2.472
88 CP2 215 3.937
88 CP2 216 3.448
88 CP2 217 1.984
88 CP2 218 0.519
88 CP2 219 -0.946
88 CP2 220 -1.434
88 CP2 221 -0.946
88 CP2 222 -0.946
88 CP2 223 -0.946
88 CP2 224 -2.899
88 CP2 225 -3.876
88 CP2 226 -5.829
88 CP2 227 -7.294
88 CP2 228 -8.270
88 CP2 229 -7.782
88 CP2 230 -6.805
88 CP2 231 -4.852
88 CP2 232 -2.899
88 CP2 233 -1.434
88 CP2 234 -0.458
88 CP2 235 0.031
88 CP2 236 0.519
88 CP2 237 1.007
88 CP2 238 1.495
88 CP2 239 1.495
88 CP2 240 1.007
88 CP2 241 -0.946
88 CP2 242 -0.946
88 CP2 243 -0.458
88 CP2 244 0.519
88 CP2 245 1.984
88 CP2 246 1.984
88 CP2 247 1.007
88 CP2 248 -0.458
88 CP2 249 -1.923
88 CP2 250 -2.899
88 CP2 251 -2.899
88 CP2 252 -2.899
88 CP2 253 -2.899
88 CP2 254 -2.411
88 CP2 255 -1.434
# P3 chan 22
88 P3 0 -10.000
88 P3 1 -9.023
88 P3 2 -7.558
88 P3 3 -5.605
88 P3 4 -2.675
88 P3 5 0.254
88 P3 6 2.207
88 P3 7 3.672
88 P3 8 3.184
88 P3 9 1.231
88 P3 10 -2.187
88 P3 11 -6.093
88 P3 12 -9.511
88 P3 13 -11.953
88 P3 14 -13.418
88 P3 15 -13.906
88 P3 16 -13.418
88 P3 17 -13.418
88 P3 18 -12.929
88 P3 19 -12.441
88 P3 20 -11.464
88 P3 21 -10.000
88 P3 22 -7.558
88 P3 23 -4.628
88 P3 24 -1.211
88 P3 25 0.743
88 P3 26 2.207
88 P3 27 3.184
88 P3 28 3.184
88 P3 29 2.696
88 P3 30 1.719
88 P3 31 0.743
88 P3 32 -0.722
88 P3 33 -1.699
88 P3 34 -1.699
88 P3 35 -1.699
88 P3 36 -2.675
88 P3 37 -5.117
88 P3 38 -9.023
88 P3 39 -12.929
88 P3 40 -15.371
88 P3 41 -15.859
88 P3 42 -14.882
88 P3 43 -12.441
88 P3 44 -10.976
88 P3 45 -10.000
88 P3 46 -10.000
88 P3 47 -10.000
88 P3 48 -10.000
88 P3 49 -10.000
88 P3 50 -9.511
88 P3 51 -9.023
88 P3 52 -8.535
88 P3 53 -8.046
88 P3 54 -8.046
88 P3 55 -8.535
88 P3 56 -9.023
88 P3 57 -10.488
88 P3 58 -11.464
88 P3 59 -12.441
88 P3 60 -12.929
88 P3 61 -12.929
88 P3 62 -11.953
88 P3 63 -10.976
88 P3 64 -9.511
88 P3 65 -8.535
88 P3 66 -7.558
88 P3 67 -6.093
88 P3 68 -4.140
88 P3 69 -1.699
88 P3 70 1.231
88 P3 71 3.672
88 P3 72 5.137
88 P3 73 5.625
88 P3 74 5.137
88 P3 75 4.649
88 P3 76 3.184
88 P3 77 1.231
88 P3 78 -1.211
88 P3 79 -2.675
88 P3 80 -3.164
88 P3 81 -2.187
88 P3 82 -0.722
88 P3 83 0.743
88 P3 84 1.231
88 P3 85 1.719
88 P3 86 1.231
88 P3 87 0.743
88 P3 88 0.254
88 P3 89 -0.234
88 P3 90 -0.722
88 P3 91 -0.722
88 P3 92 -0.722
88 P3 93 0.254
88 P3 94 1.231
88 P3 95 2.207
88 P3 96 3.184
88 P3 97 3.672
88 P3 98 3.672
88 P3 99 3.672
88 P3 100 3.184
88 P3 101 1.719
88 P3 102 0.743
88 P3 103 -0.234
88 P3 104 -1.699
88 P3 105 -2.675
88 P3 106 -4.628
88 P3 107 -6.582
88 P3 108 -8.535
88 P3 109 -10.000
88 P3 110 -10.488
88 P3 111 -9.511
88 P3 112 -7.558
88 P3 113 -4.628
88 P3 114 -1.699
88 P3 115 1.231
88 P3 116 2.696
88 P3 117 3.672
88 P3 118 3.184
88 P3 119 2.207
88 P3 120 1.231
88 P3 121 0.254
88 P3 122 -0.722
88 P3 123 -1.211
88 P3 124 -1.211
88 P3 125 -2.187
88 P3 126 -2.675
88 P3 127 -3.652
88 P3 128 -4.628
88 P3 129 -6.093
88 P3 130 -7.558
88 P3 131 -9.511
88 P3 132 -10.000
88 P3 133 -10.000
88 P3 134 -9.023
88 P3 135 -8.046
88 P3 136 -6.582
88 P3 137 -4.628
88 P3 138 -1.699
88 P3 139 1.719
88 P3 140 5.137
88 P3 141 7.090
88 P3 142 5.625
88 P3 143 2.696
88 P3 144 -1.211
88 P3 145 -4.628
88 P3 146 -6.582
88 P3 147 -7.558
88 P3 148 -9.023
88 P3 149 -10.976
88 P3 150 -12.441
88 P3 151 -13.418
88 P3 152 -13.418
88 P3 153 -11.464
88 P3 154 -10.000
88 P3 155 -8.046
88 P3 156 -6.582
88 P3 157 -4.140
88 P3 158 -0.722
88 P3 159 2.696
88 P3 160 5.137
88 P3 161 6.602
88 P3 162 6.602
88 P3 163 5.137
88 P3 164 3.672
88 P3 165 1.719
88 P3 166 -0.234
88 P3 167 -2.187
88 P3 168 -4.628
88 P3 169 -7.070
88 P3 170 -9.511
88 P3 171 -10.976
88 P3 172 -11.464
88 P3 173 -11.464
88 P3 174 -10.976
88 P3 175 -10.976
88 P3 176 -10.488
88 P3 177 -10.488
88 P3 178 -10.488
88 P3 179 -9.511
88 P3 180 -8.535
88 P3 181 -7.070
88 P3 182 -4.628
88 P3 183 -2.675
88 P3 184 -1.211
88 P3 185 0.254
88 P3 186 0.743
88 P3 187 1.719
88 P3 188 2.696
88 P3 189 4.161
88 P3 190 5.625
88 P3 191 6.114
88 P3 192 6.114
88 P3 193 4.649
88 P3 194 3.184
88 P3 195 0.254
88 P3 196 -2.187
88 P3 197 -5.117
88 P3 198 -8.046
88 P3 199 -10.000
88 P3 200 -10.976
88 P3 201 -10.488
88 P3 202 -9.511
88 P3 203 -9.511
88 P3 204 -10.488
88 P3 205 -12.441
88 P3 206 -15.371
88 P3 207 -16.347
88 P3 208 -16.347
88 P3 209 -15.371
88 P3 210 -13.418
88 P3 211 -12.441
88 P3 212 -11.464
88 P3 213 -10.488
88 P3 214 -8.535
88 P3 215 -6.093
88 P3 216 -3.652
88 P3 217 -2.187
88 P3 218 -2.187
88 P3 219 -2.187
88 P3 220 -1.699
88 P3 221 -0.722
88 P3 222 0.743
88 P3 223 0.254
88 P3 224 -1.699
88 P3 225 -5.605
88 P3 226 -10.488
88 P3 227 -14.394
88 P3 228 -17.324
88 P3 229 -19.277
88 P3 230 -20.253
88 P3 231 -20.742
88 P3 232 -20.742
88 P3 233 -20.253
88 P3 234 -18.300
88 P3 235 -16.836
88 P3 236 -14.882
88 P3 237 -13.418
88 P3 238 -12.441
88 P3 239 -10.976
88 P3 240 -9.511
88 P3 241 -7.070
88 P3 242 -4.628
88 P3 243 -2.187
88 P3 244 0.254
88 P3 245 2.207
88 P3 246 3.184
88 P3 247 2.696
88 P3 248 0.743
88 P3 249 -2.675
88 P3 250 -6.582
88 P3 251 -9.023
88 P3 252 -10.000
88 P3 253 -10.000
88 P3 254 -9.023
88 P3 255 -8.046
# P4 chan 23
88 P4 0 0.783
88 P4 1 -0.193
88 P4 2 -0.682
88 P4 3 -0.682
88 P4 4 -0.193
88 P4 5 0.295
88 P4 6 0.783
88 P4 7 0.783
88 P4 8 -0.193
88 P4 9 -3.123
88 P4 10 -6.541
88 P4 11 -10.447
88 P4 12 -13.377
88 P4 13 -14.353
88 P4 14 -14.842
88 P4 15 -15.330
88 P4 16 -16.307
88 P4 17 -18.748
88 P4 18 -20.213
88 P4 19 -20.213
88 P4 20 -17.283
88 P4 21 -11.424
88 P4 22 -4.100
88 P4 23 3.225
88 P4 24 9.084
88 P4 25 12.502
88 P4 26 12.990
88 P4 27 11.525
88 P4 28 9.084
88 P4 29 5.666
88 P4 30 4.201
88 P4 31 3.225
88 P4 32 3.225
88 P4 33 3.713
88 P4 34 4.201
88 P4 35 4.201
88 P4 36 2.736
88 P4 37 -0.193
88 P4 38 -3.611
88 P4 39 -7.517
88 P4 40 -12.400
88 P4 41 -15.330
88 P4 42 -17.283
88 P4 43 -17.771
88 P4 44 -16.307
88 P4 45 -14.353
88 P4 46 -12.400
88 P4 47 -10.935
88 P4 48 -9.959
88 P4 49 -8.982
88 P4 50 -8.006
88 P4 51 -6.541
88 P4 52 -4.100
88 P4 53 -1.658
88 P4 54 0.783
88 P4 55 2.248
88 P4 56 2.248
88 P4 57 2.248
88 P4 58 2.248
88 P4 59 3.225
88 P4 60 4.201
88 P4 61 4.690
88 P4 62 4.690
88 P4 63 3.225
88 P4 64 2.248
88 P4 65 2.248
88 P4 66 3.225
88 P4 67 5.666
88 P4 68 7.619
88 P4 69 8.596
88 P4 70 8.596
88 P4 71 8.108
88 P4 72 6.643
88 P4 73 5.178
88 P4 74 2.736
88 P4 75 -0.193
88 P4 76 -3.611
88 P4 77 -6.541
88 P4 78 -8.494
88 P4 79 -8.494
88 P4 80 -7.517
88 P4 81 -6.053
88 P4 82 -4.100
88 P4 83 -1.658
88 P4 84 0.295
88 P4 85 2.248
88 P4 86 2.736
88 P4 87 2.248
88 P4 88 1.272
88 P4 89 -0.193
88 P4 90 -0.682
88 P4 91 0.295
88 P4 92 0.783
88 P4 93 1.272
88 P4 94 1.272
88 P4 95 1.272
88 P4 96 1.272
88 P4 97 1.760
88 P4 98 3.225
88 P4 99 4.201
88 P4 100 4.690
88 P4 101 4.201
88 P4 102 3.225
88 P4 103 1.760
88 P4 104 0.295
88 P4 105 -1.658
88 P4 106 -4.100
88 P4 107 -6.541
88 P4 108 -9.471
88 P4 109 -10.447
88 P4 110 -10.447
88 P4 111 -7.517
88 P4 112 -3.611
88 P4 113 -0.193
88 P4 114 2.248
88 P4 115 2.736
88 P4 116 2.248
88 P4 117 2.248
88 P4 118 2.248
88 P4 119 3.225
88 P4 120 3.713
88 P4 121 3.713
88 P4 122 2.736
88 P4 123 1.272
88 P4 124 -0.682
88 P4 125 -2.146
88 P4 126 -2.635
88 P4 127 -3.123
88 P4 128 -3.123
88 P4 129 -4.588
88 P4 130 -7.029
88 P4 131 -10.447
88 P4 132 -12.889
88 P4 133 -14.353
88 P4 134 -14.353
88 P4 135 -13.377
88 P4 136 -11.912
88 P4 137 -10.935
88 P4 138 -9.471
88 P4 139 -7.029
88 P4 140 -4.100
88 P4 141 -1.170
88 P4 142 0.295
88 P4 143 0.295
88 P4 144 -1.658
88 P4 145 -3.611
88 P4 146 -5.564
88 P4 147 -5.564
88 P4 148 -4.588
88 P4 149 -3.611
88 P4 150 -3.611
88 P4 151 -4.100
88 P4 152 -5.564
88 P4 153 -7.029
88 P4 154 -7.029
88 P4 155 -6.053
88 P4 156 -3.611
88 P4 157 -0.682
88 P4 158 1.760
88 P4 159 3.225
88 P4 160 4.201
88 P4 161 4.201
88 P4 162 2.736
88 P4 163 0.295
88 P4 164 -2.146
88 P4 165 -5.076
88 P4 166 -7.029
88 P4 167 -8.006
88 P4 168 -8.982
88 P4 169 -10.447
88 P4 170 -11.424
88 P4 171 -11.424
88 P4 172 -10.935
88 P4 173 -10.447
88 P4 174 -11.424
88 P4 175 -12.889
88 P4 176 -16.307
88 P4 177 -18.260
88 P4 178 -18.748
88 P4 179 -16.307
88 P4 180 -11.424
88 P4 181 -7.029
88 P4 182 -4.100
88 P4 183 -2.146
88 P4 184 -2.146
88 P4 185 -1.658
88 P4 186 -0.682
88 P4 187 0.295
88 P4 188 0.783
88 P4 189 1.760
88 P4 190 2.736
88 P4 191 3.713
88 P4 192 4.201
88 P4 193 3.225
88 P4 194 0.783
88 P4 195 -3.611
88 P4 196 -8.982
88 P4 197 -13.377
88 P4 198 -16.795
88 P4 199 -18.748
88 P4 200 -19.236
88 P4 201 -19.236
88 P4 202 -18.748
88 P4 203 -18.260
88 P4 204 -17.771
88 P4 205 -17.283
88 P4 206 -16.307
88 P4 207 -14.842
88 P4 208 -13.865
88 P4 209 -12.400
88 P4 210 -10.935
88 P4 211 -8.006
88 P4 212 -5.076
88 P4 213 -1.658
88 P4 214 1.760
88 P4 215 3.713
88 P4 216 3.225
88 P4 217 1.760
88 P4 218 -0.193
88 P4 219 -2.146
88 P4 220 -3.611
88 P4 221 -3.611
88 P4 222 -3.611
88 P4 223 -4.100
88 P4 224 -5.076
88 P4 225 -7.517
88 P4 226 -10.447
88 P4 227 -13.865
88 P4 228 -16.307
88 P4 229 -16.795
88 P4 230 -15.818
88 P4 231 -13.377
88 P4 232 -10.447
88 P4 233 -7.517
88 P4 234 -5.564
88 P4 235 -4.588
88 P4 236 -3.611
88 P4 237 -2.635
88 P4 238 -2.146
88 P4 239 -1.658
88 P4 240 -2.146
88 P4 241 -3.123
88 P4 242 -3.611
88 P4 243 -2.146
88 P4 244 0.295
88 P4 245 2.736
88 P4 246 3.713
88 P4 247 2.736
88 P4 248 0.295
88 P4 249 -2.635
88 P4 250 -4.588
88 P4 251 -6.053
88 P4 252 -7.517
88 P4 253 -7.517
88 P4 254 -7.029
88 P4 255 -5.564
# PZ chan 24
88 PZ 0 -8.626
88 PZ 1 -8.138
88 PZ 2 -6.185
88 PZ 3 -4.232
88 PZ 4 -1.302
88 PZ 5 1.628
88 PZ 6 4.069
88 PZ 7 5.046
88 PZ 8 4.069
88 PZ 9 2.116
88 PZ 10 -1.790
88 PZ 11 -5.208
88 PZ 12 -8.138
88 PZ 13 -9.115
88 PZ 14 -9.603
88 PZ 15 -9.603
88 PZ 16 -10.579
88 PZ 17 -12.044
88 PZ 18 -13.509
88 PZ 19 -13.997
88 PZ 20 -13.021
88 PZ 21 -10.091
88 PZ 22 -5.697
88 PZ 23 -0.814
88 PZ 24 3.092
88 PZ 25 5.534
88 PZ 26 6.510
88 PZ 27 6.022
88 PZ 28 5.046
88 PZ 29 4.069
88 PZ 30 3.581
88 PZ 31 3.092
88 PZ 32 3.581
88 PZ 33 4.069
88 PZ 34 4.069
88 PZ 35 3.092
88 PZ 36 1.139
88 PZ 37 -2.279
88 PZ 38 -5.697
88 PZ 39 -9.115
88 PZ 40 -12.044
88 PZ 41 -13.509
88 PZ 42 -13.509
88 PZ 43 -12.044
88 PZ 44 -10.579
88 PZ 45 -9.603
88 PZ 46 -8.626
88 PZ 47 -9.115
88 PZ 48 -9.603
88 PZ 49 -10.091
88 PZ 50 -10.579
88 PZ 51 -10.091
88 PZ 52 -8.626
88 PZ 53 -6.673
88 PZ 54 -3.743
88 PZ 55 -1.302
88 PZ 56 -0.326
88 PZ 57 -0.326
88 PZ 58 -1.302
88 PZ 59 -2.279
88 PZ 60 -2.279
88 PZ 61 -1.790
88 PZ 62 -0.814
88 PZ 63 -0.814
88 PZ 64 -0.814
88 PZ 65 -1.302
88 PZ 66 -0.814
88 PZ 67 0.163
88 PZ 68 2.116
88 PZ 69 4.069
88 PZ 70 6.022
88 PZ 71 6.510
88 PZ 72 6.999
88 PZ 73 6.510
88 PZ 74 6.022
88 PZ 75 5.046
88 PZ 76 3.092
88 PZ 77 0.651
88 PZ 78 -1.302
88 PZ 79 -3.255
88 PZ 80 -3.743
88 PZ 81 -2.279
88 PZ 82 -0.814
88 PZ 83 1.628
88 PZ 84 3.581
88 PZ 85 4.557
88 PZ 86 4.557
88 PZ 87 4.069
88 PZ 88 2.604
88 PZ 89 1.139
88 PZ 90 -0.326
88 PZ 91 -0.814
88 PZ 92 -0.326
88 PZ 93 0.163
88 PZ 94 1.139
88 PZ 95 1.628
88 PZ 96 2.604
88 PZ 97 2.604
88 PZ 98 3.581
88 PZ 99 3.581
88 PZ 100 4.069
88 PZ 101 4.069
88 PZ 102 3.581
88 PZ 103 3.092
88 PZ 104 1.628
88 PZ 105 0.163
88 PZ 106 -2.279
88 PZ 107 -5.208
88 PZ 108 -7.161
88 PZ 109 -8.626
88 PZ 110 -8.626
88 PZ 111 -7.161
88 PZ 112 -4.720
88 PZ 113 -2.767
88 PZ 114 -0.814
88 PZ 115 0.163
88 PZ 116 1.139
88 PZ 117 2.116
88 PZ 118 3.092
88 PZ 119 3.581
88 PZ 120 3.581
88 PZ 121 3.092
88 PZ 122 1.628
88 PZ 123 0.163
88 PZ 124 -0.814
88 PZ 125 -1.790
88 PZ 126 -2.279
88 PZ 127 -2.279
88 PZ 128 -3.255
88 PZ 129 -4.720
88 PZ 130 -6.673
88 PZ 131 -8.626
88 PZ 132 -10.091
88 PZ 133 -10.091
88 PZ 134 -9.115
88 PZ 135 -7.161
88 PZ 136 -5.697
88 PZ 137 -4.232
88 PZ 138 -3.255
88 PZ 139 -1.790
88 PZ 140 0.163
88 PZ 141 2.116
88 PZ 142 3.581
88 PZ 143 3.581
88 PZ 144 2.604
88 PZ 145 0.163
88 PZ 146 -1.790
88 PZ 147 -2.767
88 PZ 148 -4.232
88 PZ 149 -4.720
88 PZ 150 -5.697
88 PZ 151 -7.161
88 PZ 152 -8.626
88 PZ 153 -9.115
88 PZ 154 -8.626
88 PZ 155 -6.673
88 PZ 156 -4.232
88 PZ 157 -1.302
88 PZ 158 1.628
88 PZ 159 4.069
88 PZ 160 5.534
88 PZ 161 6.510
88 PZ 162 6.022
88 PZ 163 5.046
88 PZ 164 3.092
88 PZ 165 1.139
88 PZ 166 -0.326
88 PZ 167 -1.302
88 PZ 168 -2.279
88 PZ 169 -3.255
88 PZ 170 -4.720
88 PZ 171 -6.185
88 PZ 172 -7.650
88 PZ 173 -8.626
88 PZ 174 -9.603
88 PZ 175 -10.091
88 PZ 176 -11.068
88 PZ 177 -11.556
88 PZ 178 -11.068
88 PZ 179 -10.091
88 PZ 180 -8.138
88 PZ 181 -5.697
88 PZ 182 -3.743
88 PZ 183 -2.279
88 PZ 184 -2.279
88 PZ 185 -2.767
88 PZ 186 -2.767
88 PZ 187 -2.279
88 PZ 188 -1.302
88 PZ 189 0.163
88 PZ 190 2.116
88 PZ 191 4.069
88 PZ 192 5.046
88 PZ 193 5.046
88 PZ 194 3.581
88 PZ 195 1.139
88 PZ 196 -1.302
88 PZ 197 -4.232
88 PZ 198 -6.673
88 PZ 199 -8.138
88 PZ 200 -8.626
88 PZ 201 -8.626
88 PZ 202 -9.115
88 PZ 203 -9.115
88 PZ 204 -10.091
88 PZ 205 -11.068
88 PZ 206 -13.021
88 PZ 207 -13.509
88 PZ 208 -13.021
88 PZ 209 -11.068
88 PZ 210 -8.626
88 PZ 211 -6.185
88 PZ 212 -2.767
88 PZ 213 0.163
88 PZ 214 3.092
88 PZ 215 5.534
88 PZ 216 6.510
88 PZ 217 6.510
88 PZ 218 5.534
88 PZ 219 4.557
88 PZ 220 3.581
88 PZ 221 3.581
88 PZ 222 3.092
88 PZ 223 1.628
88 PZ 224 -0.814
88 PZ 225 -4.232
88 PZ 226 -8.138
88 PZ 227 -12.044
88 PZ 228 -14.486
88 PZ 229 -15.951
88 PZ 230 -15.951
88 PZ 231 -14.974
88 PZ 232 -13.509
88 PZ 233 -12.044
88 PZ 234 -10.579
88 PZ 235 -8.138
88 PZ 236 -6.185
88 PZ 237 -3.743
88 PZ 238 -1.790
88 PZ 239 -0.814
88 PZ 240 -0.326
88 PZ 241 -0.326
88 PZ 242 0.163
88 PZ 243 1.628
88 PZ 244 3.581
88 PZ 245 5.046
88 PZ 246 5.534
88 PZ 247 4.069
88 PZ 248 1.628
88 PZ 249 -1.790
88 PZ 250 -4.720
88 PZ 251 -6.673
88 PZ 252 -8.138
88 PZ 253 -8.626
88 PZ 254 -8.138
88 PZ 255 -6.673
# P8 chan 25
88 P8 0 -2.553
88 P8 1 -4.995
88 P8 2 -6.460
88 P8 3 -7.924
88 P8 4 -7.924
88 P8 5 -7.436
88 P8 6 -6.948
88 P8 7 -6.948
88 P8 8 -6.948
88 P8 9 -7.924
88 P8 10 -9.389
88 P8 11 -11.831
88 P8 12 -14.760
88 P8 13 -16.225
88 P8 14 -16.225
88 P8 15 -14.760
88 P8 16 -13.784
88 P8 17 -14.760
88 P8 18 -17.202
88 P8 19 -19.155
88 P8 20 -18.667
88 P8 21 -14.272
88 P8 22 -8.413
88 P8 23 -2.065
88 P8 24 1.841
88 P8 25 3.794
88 P8 26 3.794
88 P8 27 3.306
88 P8 28 1.841
88 P8 29 -0.112
88 P8 30 -2.065
88 P8 31 -3.530
88 P8 32 -4.506
88 P8 33 -4.018
88 P8 34 -2.065
88 P8 35 0.376
88 P8 36 2.818
88 P8 37 2.330
88 P8 38 -0.600
88 P8 39 -6.948
88 P8 40 -14.272
88 P8 41 -20.131
88 P8 42 -22.085
88 P8 43 -19.643
88 P8 44 -14.760
88 P8 45 -11.342
88 P8 46 -10.366
88 P8 47 -11.342
88 P8 48 -12.807
88 P8 49 -12.807
88 P8 50 -10.854
88 P8 51 -7.924
88 P8 52 -5.971
88 P8 53 -4.018
88 P8 54 -2.553
88 P8 55 -2.065
88 P8 56 -1.577
88 P8 57 -2.553
88 P8 58 -4.018
88 P8 59 -5.483
88 P8 60 -6.460
88 P8 61 -6.460
88 P8 62 -6.948
88 P8 63 -7.924
88 P8 64 -7.924
88 P8 65 -6.460
88 P8 66 -3.042
88 P8 67 1.353
88 P8 68 5.259
88 P8 69 7.212
88 P8 70 7.701
88 P8 71 7.701
88 P8 72 9.165
88 P8 73 10.630
88 P8 74 10.142
88 P8 75 6.724
88 P8 76 0.865
88 P8 77 -5.483
88 P8 78 -8.901
88 P8 79 -9.389
88 P8 80 -6.948
88 P8 81 -4.018
88 P8 82 -3.042
88 P8 83 -3.530
88 P8 84 -4.018
88 P8 85 -4.018
88 P8 86 -3.530
88 P8 87 -3.530
88 P8 88 -3.530
88 P8 89 -3.530
88 P8 90 -3.042
88 P8 91 -1.577
88 P8 92 -0.600
88 P8 93 -0.112
88 P8 94 -0.600
88 P8 95 -1.088
88 P8 96 -0.600
88 P8 97 0.865
88 P8 98 3.306
88 P8 99 4.771
88 P8 100 4.771
88 P8 101 4.283
88 P8 102 2.818
88 P8 103 1.353
88 P8 104 -0.600
88 P8 105 -2.065
88 P8 106 -4.018
88 P8 107 -4.995
88 P8 108 -6.460
88 P8 109 -6.948
88 P8 110 -6.460
88 P8 111 -4.995
88 P8 112 -1.577
88 P8 113 1.841
88 P8 114 4.771
88 P8 115 5.259
88 P8 116 3.306
88 P8 117 -1.088
88 P8 118 -4.995
88 P8 119 -6.460
88 P8 120 -4.995
88 P8 121 -1.577
88 P8 122 1.353
88 P8 123 1.353
88 P8 124 -1.088
88 P8 125 -3.530
88 P8 126 -3.530
88 P8 127 -1.088
88 P8 128 2.330
88 P8 129 1.841
88 P8 130 -3.042
88 P8 131 -10.854
88 P8 132 -17.690
88 P8 133 -19.643
88 P8 134 -17.202
88 P8 135 -12.807
88 P8 136 -10.366
88 P8 137 -10.854
88 P8 138 -10.854
88 P8 139 -9.389
88 P8 140 -4.995
88 P8 141 -0.600
88 P8 142 0.376
88 P8 143 -3.530
88 P8 144 -9.389
88 P8 145 -14.272
88 P8 146 -15.249
88 P8 147 -12.807
88 P8 148 -9.878
88 P8 149 -8.413
88 P8 150 -9.389
88 P8 151 -10.366
88 P8 152 -10.366
88 P8 153 -8.413
88 P8 154 -5.971
88 P8 155 -4.506
88 P8 156 -4.995
88 P8 157 -5.483
88 P8 158 -4.506
88 P8 159 -0.112
88 P8 160 4.771
88 P8 161 7.701
88 P8 162 7.212
88 P8 163 3.306
88 P8 164 -1.577
88 P8 165 -4.995
88 P8 166 -5.971
88 P8 167 -6.460
88 P8 168 -8.413
88 P8 169 -11.831
88 P8 170 -15.737
88 P8 171 -17.690
88 P8 172 -16.713
88 P8 173 -13.784
88 P8 174 -11.831
88 P8 175 -12.319
88 P8 176 -16.713
88 P8 177 -21.108
88 P8 178 -24.038
88 P8 179 -23.061
88 P8 180 -19.155
88 P8 181 -13.784
88 P8 182 -9.389
88 P8 183 -6.460
88 P8 184 -3.530
88 P8 185 -1.088
88 P8 186 1.841
88 P8 187 3.794
88 P8 188 4.283
88 P8 189 4.283
88 P8 190 4.771
88 P8 191 6.724
88 P8 192 9.654
88 P8 193 11.119
88 P8 194 9.654
88 P8 195 4.771
88 P8 196 -2.553
88 P8 197 -9.389
88 P8 198 -13.784
88 P8 199 -15.737
88 P8 200 -16.225
88 P8 201 -17.690
88 P8 202 -18.667
88 P8 203 -20.131
88 P8 204 -20.131
88 P8 205 -19.643
88 P8 206 -19.643
88 P8 207 -19.643
88 P8 208 -20.620
88 P8 209 -21.596
88 P8 210 -20.620
88 P8 211 -17.202
88 P8 212 -11.342
88 P8 213 -5.971
88 P8 214 -3.042
88 P8 215 -2.553
88 P8 216 -4.506
88 P8 217 -6.460
88 P8 218 -6.948
88 P8 219 -5.483
88 P8 220 -3.042
88 P8 221 -2.065
88 P8 222 -3.042
88 P8 223 -5.971
88 P8 224 -8.901
88 P8 225 -10.366
88 P8 226 -11.831
88 P8 227 -13.295
88 P8 228 -15.737
88 P8 229 -19.155
88 P8 230 -20.620
88 P8 231 -20.131
88 P8 232 -17.202
88 P8 233 -14.272
88 P8 234 -12.319
88 P8 235 -12.807
88 P8 236 -14.272
88 P8 237 -14.760
88 P8 238 -13.784
88 P8 239 -12.319
88 P8 240 -11.342
88 P8 241 -11.342
88 P8 242 -11.831
88 P8 243 -11.342
88 P8 244 -8.413
88 P8 245 -4.995
88 P8 246 -1.088
88 P8 247 0.376
88 P8 248 0.376
88 P8 249 -1.577
88 P8 250 -4.018
88 P8 251 -7.924
88 P8 252 -11.342
88 P8 253 -12.807
88 P8 254 -11.342
88 P8 255 -6.948
# P7 chan 26
88 P7 0 -8.118
88 P7 1 -11.536
88 P7 2 -13.489
88 P7 3 -13.977
88 P7 4 -13.489
88 P7 5 -12.024
88 P7 6 -9.583
88 P7 7 -7.141
88 P7 8 -3.723
88 P7 9 -1.282
88 P7 10 -0.305
88 P7 11 -1.770
88 P7 12 -5.676
88 P7 13 -10.559
88 P7 14 -14.954
88 P7 15 -18.372
88 P7 16 -18.860
88 P7 17 -16.907
88 P7 18 -13.000
88 P7 19 -8.606
88 P7 20 -4.211
88 P7 21 -0.793
88 P7 22 2.136
88 P7 23 5.066
88 P7 24 7.507
88 P7 25 8.972
88 P7 26 8.484
88 P7 27 5.066
88 P7 28 0.671
88 P7 29 -4.211
88 P7 30 -8.118
88 P7 31 -11.047
88 P7 32 -13.489
88 P7 33 -14.954
88 P7 34 -13.977
88 P7 35 -11.047
88 P7 36 -7.629
88 P7 37 -5.188
88 P7 38 -6.165
88 P7 39 -11.047
88 P7 40 -17.395
88 P7 41 -21.301
88 P7 42 -20.813
88 P7 43 -14.954
88 P7 44 -7.629
88 P7 45 -3.235
88 P7 46 -3.723
88 P7 47 -8.606
88 P7 48 -13.000
88 P7 49 -12.512
88 P7 50 -6.653
88 P7 51 1.648
88 P7 52 7.019
88 P7 53 6.042
88 P7 54 -1.282
88 P7 55 -9.583
88 P7 56 -14.465
88 P7 57 -14.954
88 P7 58 -12.024
88 P7 59 -9.583
88 P7 60 -10.071
88 P7 61 -13.000
88 P7 62 -15.930
88 P7 63 -16.907
88 P7 64 -14.954
88 P7 65 -11.047
88 P7 66 -7.141
88 P7 67 -5.188
88 P7 68 -4.700
88 P7 69 -4.700
88 P7 70 -4.211
88 P7 71 -1.770
88 P7 72 2.136
88 P7 73 5.554
88 P7 74 7.019
88 P7 75 7.019
88 P7 76 4.578
88 P7 77 1.648
88 P7 78 -1.282
88 P7 79 -2.258
88 P7 80 -0.305
88 P7 81 3.601
88 P7 82 7.507
88 P7 83 8.972
88 P7 84 7.019
88 P7 85 3.113
88 P7 86 -1.282
88 P7 87 -2.258
88 P7 88 -1.282
88 P7 89 1.160
88 P7 90 1.648
88 P7 91 0.183
88 P7 92 -1.770
88 P7 93 -2.258
88 P7 94 0.183
88 P7 95 3.113
88 P7 96 5.066
88 P7 97 4.578
88 P7 98 2.136
88 P7 99 -0.793
88 P7 100 -1.282
88 P7 101 0.183
88 P7 102 2.625
88 P7 103 4.089
88 P7 104 3.113
88 P7 105 1.160
88 P7 106 -0.305
88 P7 107 -0.793
88 P7 108 -1.282
88 P7 109 -3.235
88 P7 110 -6.653
88 P7 111 -9.094
88 P7 112 -8.118
88 P7 113 -2.747
88 P7 114 5.066
88 P7 115 10.925
88 P7 116 11.414
88 P7 117 6.531
88 P7 118 -0.305
88 P7 119 -5.188
88 P7 120 -5.676
88 P7 121 -3.235
88 P7 122 -1.282
88 P7 123 -0.793
88 P7 124 -2.747
88 P7 125 -4.700
88 P7 126 -5.188
88 P7 127 -4.211
88 P7 128 -3.723
88 P7 129 -4.700
88 P7 130 -6.653
88 P7 131 -8.118
88 P7 132 -7.629
88 P7 133 -5.188
88 P7 134 -3.235
88 P7 135 -4.211
88 P7 136 -7.141
88 P7 137 -9.094
88 P7 138 -7.141
88 P7 139 0.671
88 P7 140 10.437
88 P7 141 16.785
88 P7 142 15.808
88 P7 143 8.484
88 P7 144 -1.770
88 P7 145 -9.094
88 P7 146 -12.024
88 P7 147 -13.000
88 P7 148 -15.442
88 P7 149 -19.836
88 P7 150 -24.719
88 P7 151 -26.184
88 P7 152 -22.766
88 P7 153 -16.418
88 P7 154 -10.559
88 P7 155 -6.653
88 P7 156 -4.700
88 P7 157 -2.258
88 P7 158 2.136
88 P7 159 6.531
88 P7 160 7.996
88 P7 161 5.066
88 P7 162 -0.305
88 P7 163 -4.700
88 P7 164 -5.188
88 P7 165 -2.747
88 P7 166 0.671
88 P7 167 0.671
88 P7 168 -2.258
88 P7 169 -6.653
88 P7 170 -9.583
88 P7 171 -10.559
88 P7 172 -11.047
88 P7 173 -13.000
88 P7 174 -15.930
88 P7 175 -19.348
88 P7 176 -19.836
88 P7 177 -17.883
88 P7 178 -13.977
88 P7 179 -11.536
88 P7 180 -10.559
88 P7 181 -10.559
88 P7 182 -9.583
88 P7 183 -6.653
88 P7 184 -3.235
88 P7 185 -0.793
88 P7 186 0.183
88 P7 187 1.648
88 P7 188 3.601
88 P7 189 7.507
88 P7 190 10.437
88 P7 191 10.925
88 P7 192 8.972
88 P7 193 6.042
88 P7 194 4.578
88 P7 195 5.066
88 P7 196 5.554
88 P7 197 3.601
88 P7 198 -1.770
88 P7 199 -8.118
88 P7 200 -12.512
88 P7 201 -13.977
88 P7 202 -12.512
88 P7 203 -11.047
88 P7 204 -12.024
88 P7 205 -16.418
88 P7 206 -21.301
88 P7 207 -23.254
88 P7 208 -21.301
88 P7 209 -15.930
88 P7 210 -11.536
88 P7 211 -11.536
88 P7 212 -15.442
88 P7 213 -20.813
88 P7 214 -21.790
88 P7 215 -17.395
88 P7 216 -9.094
88 P7 217 -1.770
88 P7 218 -0.793
88 P7 219 -4.700
88 P7 220 -9.583
88 P7 221 -10.559
88 P7 222 -5.676
88 P7 223 0.671
88 P7 224 3.113
88 P7 225 -0.305
88 P7 226 -8.118
88 P7 227 -16.907
88 P7 228 -20.813
88 P7 229 -20.813
88 P7 230 -19.836
88 P7 231 -20.325
88 P7 232 -22.766
88 P7 233 -24.231
88 P7 234 -23.254
88 P7 235 -19.348
88 P7 236 -16.418
88 P7 237 -17.395
88 P7 238 -21.790
88 P7 239 -25.696
88 P7 240 -25.696
88 P7 241 -20.325
88 P7 242 -12.024
88 P7 243 -5.188
88 P7 244 -1.770
88 P7 245 -0.793
88 P7 246 -0.305
88 P7 247 1.160
88 P7 248 1.648
88 P7 249 0.671
88 P7 250 -2.747
88 P7 251 -6.165
88 P7 252 -8.118
88 P7 253 -8.606
88 P7 254 -8.606
88 P7 255 -9.583
# PO2 chan 27
88 PO2 0 -2.757
88 PO2 1 -1.780
88 PO2 2 -0.804
88 PO2 3 0.661
88 PO2 4 1.638
88 PO2 5 2.126
88 PO2 6 1.638
88 PO2 7 0.173
88 PO2 8 -1.780
88 PO2 9 -4.710
88 PO2 10 -8.616
88 PO2 11 -13.499
88 PO2 12 -17.405
88 PO2 13 -19.358
88 PO2 14 -19.358
88 PO2 15 -18.870
88 PO2 16 -18.382
88 PO2 17 -18.870
88 PO2 18 -19.358
88 PO2 19 -19.358
88 PO2 20 -16.429
88 PO2 21 -11.058
88 PO2 22 -3.733
88 PO2 23 3.103
88 PO2 24 7.985
88 PO2 25 9.939
88 PO2 26 8.474
88 PO2 27 6.032
88 PO2 28 2.614
88 PO2 29 -0.804
88 PO2 30 -2.757
88 PO2 31 -4.222
88 PO2 32 -4.710
88 PO2 33 -4.710
88 PO2 34 -4.710
88 PO2 35 -5.198
88 PO2 36 -7.151
88 PO2 37 -10.081
88 PO2 38 -14.964
88 PO2 39 -20.335
88 PO2 40 -24.729
88 PO2 41 -27.659
88 PO2 42 -27.659
88 PO2 43 -25.218
88 PO2 44 -21.311
88 PO2 45 -16.429
88 PO2 46 -12.522
88 PO2 47 -9.593
88 PO2 48 -8.128
88 PO2 49 -7.151
88 PO2 50 -6.663
88 PO2 51 -6.663
88 PO2 52 -6.175
88 PO2 53 -5.198
88 PO2 54 -4.222
88 PO2 55 -3.245
88 PO2 56 -2.268
88 PO2 57 -2.268
88 PO2 58 -2.757
88 PO2 59 -2.757
88 PO2 60 -3.245
88 PO2 61 -3.733
88 PO2 62 -4.222
88 PO2 63 -4.222
88 PO2 64 -3.733
88 PO2 65 -2.268
88 PO2 66 0.661
88 PO2 67 3.591
88 PO2 68 7.009
88 PO2 69 9.450
88 PO2 70 10.915
88 PO2 71 11.892
88 PO2 72 11.403
88 PO2 73 9.939
88 PO2 74 7.497
88 PO2 75 4.079
88 PO2 76 0.661
88 PO2 77 -2.268
88 PO2 78 -4.710
88 PO2 79 -6.175
88 PO2 80 -6.663
88 PO2 81 -6.663
88 PO2 82 -5.198
88 PO2 83 -2.757
88 PO2 84 -0.315
88 PO2 85 1.149
88 PO2 86 1.149
88 PO2 87 -0.315
88 PO2 88 -2.757
88 PO2 89 -4.222
88 PO2 90 -4.222
88 PO2 91 -2.757
88 PO2 92 -1.292
88 PO2 93 -0.315
88 PO2 94 0.173
88 PO2 95 0.173
88 PO2 96 1.149
88 PO2 97 3.103
88 PO2 98 5.056
88 PO2 99 7.009
88 PO2 100 7.497
88 PO2 101 7.497
88 PO2 102 6.521
88 PO2 103 5.056
88 PO2 104 3.591
88 PO2 105 1.638
88 PO2 106 -1.780
88 PO2 107 -5.686
88 PO2 108 -9.593
88 PO2 109 -12.034
88 PO2 110 -12.034
88 PO2 111 -9.593
88 PO2 112 -6.175
88 PO2 113 -3.733
88 PO2 114 -2.757
88 PO2 115 -2.268
88 PO2 116 -2.757
88 PO2 117 -2.757
88 PO2 118 -1.780
88 PO2 119 -0.804
88 PO2 120 -0.315
88 PO2 121 -0.804
88 PO2 122 -1.780
88 PO2 123 -3.733
88 PO2 124 -5.198
88 PO2 125 -6.175
88 PO2 126 -6.663
88 PO2 127 -6.663
88 PO2 128 -6.663
88 PO2 129 -7.640
88 PO2 130 -9.104
88 PO2 131 -11.546
88 PO2 132 -13.987
88 PO2 133 -14.476
88 PO2 134 -13.499
88 PO2 135 -11.058
88 PO2 136 -8.616
88 PO2 137 -6.175
88 PO2 138 -4.710
88 PO2 139 -3.733
88 PO2 140 -2.268
88 PO2 141 -1.292
88 PO2 142 -0.804
88 PO2 143 -1.292
88 PO2 144 -4.222
88 PO2 145 -8.128
88 PO2 146 -11.546
88 PO2 147 -13.987
88 PO2 148 -14.964
88 PO2 149 -14.964
88 PO2 150 -14.476
88 PO2 151 -14.964
88 PO2 152 -15.452
88 PO2 153 -14.964
88 PO2 154 -13.987
88 PO2 155 -10.569
88 PO2 156 -6.175
88 PO2 157 -1.780
88 PO2 158 2.614
88 PO2 159 6.521
88 PO2 160 8.474
88 PO2 161 9.939
88 PO2 162 9.450
88 PO2 163 7.497
88 PO2 164 4.567
88 PO2 165 0.173
88 PO2 166 -3.245
88 PO2 167 -6.663
88 PO2 168 -9.104
88 PO2 169 -12.034
88 PO2 170 -14.964
88 PO2 171 -17.405
88 PO2 172 -18.870
88 PO2 173 -19.847
88 PO2 174 -20.335
88 PO2 175 -21.800
88 PO2 176 -23.265
88 PO2 177 -23.753
88 PO2 178 -22.776
88 PO2 179 -19.358
88 PO2 180 -14.964
88 PO2 181 -10.081
88 PO2 182 -6.663
88 PO2 183 -4.710
88 PO2 184 -4.222
88 PO2 185 -3.733
88 PO2 186 -3.245
88 PO2 187 -2.268
88 PO2 188 -0.804
88 PO2 189 1.149
88 PO2 190 4.079
88 PO2 191 7.497
88 PO2 192 9.450
88 PO2 193 9.450
88 PO2 194 7.009
88 PO2 195 1.638
88 PO2 196 -4.710
88 PO2 197 -10.569
88 PO2 198 -14.964
88 PO2 199 -17.405
88 PO2 200 -18.870
88 PO2 201 -19.847
88 PO2 202 -21.311
88 PO2 203 -22.288
88 PO2 204 -22.776
88 PO2 205 -22.776
88 PO2 206 -22.288
88 PO2 207 -21.800
88 PO2 208 -20.823
88 PO2 209 -19.358
88 PO2 210 -16.917
88 PO2 211 -13.499
88 PO2 212 -9.104
88 PO2 213 -4.222
88 PO2 214 -0.804
88 PO2 215 1.638
88 PO2 216 2.614
88 PO2 217 1.638
88 PO2 218 0.173
88 PO2 219 -1.780
88 PO2 220 -3.245
