# co2a0000384.rd
# 120 trials, 64 chans, 416 samples 368 post_stim samples
# 3.906000 msecs uV
# S1 obj , trial 104
# FP1 chan 0
104 FP1 0 -6.582
104 FP1 1 -2.675
104 FP1 2 0.254
104 FP1 3 -0.234
104 FP1 4 -2.675
104 FP1 5 -4.628
104 FP1 6 -5.605
104 FP1 7 -5.605
104 FP1 8 -5.117
104 FP1 9 -5.117
104 FP1 10 -4.628
104 FP1 11 -3.164
104 FP1 12 -0.234
104 FP1 13 1.719
104 FP1 14 1.231
104 FP1 15 -1.699
104 FP1 16 -5.605
104 FP1 17 -8.046
104 FP1 18 -7.070
104 FP1 19 -4.628
104 FP1 20 -2.675
104 FP1 21 -2.675
104 FP1 22 -5.605
104 FP1 23 -10.488
104 FP1 24 -14.394
104 FP1 25 -14.882
104 FP1 26 -12.441
104 FP1 27 -8.535
104 FP1 28 -5.117
104 FP1 29 -4.140
104 FP1 30 -3.652
104 FP1 31 -2.187
104 FP1 32 0.254
104 FP1 33 2.207
104 FP1 34 2.696
104 FP1 35 1.231
104 FP1 36 -1.211
104 FP1 37 -0.722
104 FP1 38 3.184
104 FP1 39 9.043
104 FP1 40 13.438
104 FP1 41 13.438
104 FP1 42 9.532
104 FP1 43 4.649
104 FP1 44 1.231
104 FP1 45 1.231
104 FP1 46 3.672
104 FP1 47 5.625
104 FP1 48 5.137
104 FP1 49 1.719
104 FP1 50 -3.652
104 FP1 51 -7.558
104 FP1 52 -9.511
104 FP1 53 -9.023
104 FP1 54 -7.070
104 FP1 55 -5.605
104 FP1 56 -4.140
104 FP1 57 -3.652
104 FP1 58 -3.652
104 FP1 59 -4.140
104 FP1 60 -4.140
104 FP1 61 -4.628
104 FP1 62 -5.117
104 FP1 63 -6.093
104 FP1 64 -6.093
104 FP1 65 -4.140
104 FP1 66 1.231
104 FP1 67 6.602
104 FP1 68 11.485
104 FP1 69 12.461
104 FP1 70 9.532
104 FP1 71 5.625
104 FP1 72 3.672
104 FP1 73 5.137
104 FP1 74 9.043
104 FP1 75 11.973
104 FP1 76 11.485
104 FP1 77 7.090
104 FP1 78 2.207
104 FP1 79 0.743
104 FP1 80 4.649
104 FP1 81 11.973
104 FP1 82 16.856
104 FP1 83 15.391
104 FP1 84 7.579
104 FP1 85 -2.675
104 FP1 86 -9.023
104 FP1 87 -8.535
104 FP1 88 -2.187
104 FP1 89 5.137
104 FP1 90 10.508
104 FP1 91 11.485
104 FP1 92 11.485
104 FP1 93 11.973
104 FP1 94 13.438
104 FP1 95 14.903
104 FP1 96 14.414
104 FP1 97 13.438
104 FP1 98 13.926
104 FP1 99 16.368
104 FP1 100 19.297
104 FP1 101 19.786
104 FP1 102 17.344
104 FP1 103 14.414
104 FP1 104 13.438
104 FP1 105 15.391
104 FP1 106 18.321
104 FP1 107 18.321
104 FP1 108 12.950
104 FP1 109 6.602
104 FP1 110 5.137
104 FP1 111 9.532
104 FP1 112 18.321
104 FP1 113 25.157
104 FP1 114 24.668
104 FP1 115 17.344
104 FP1 116 7.579
104 FP1 117 1.719
104 FP1 118 1.719
104 FP1 119 4.649
104 FP1 120 8.067
104 FP1 121 8.067
104 FP1 122 6.602
104 FP1 123 4.649
104 FP1 124 3.184
104 FP1 125 1.231
104 FP1 126 -2.187
104 FP1 127 -5.605
104 FP1 128 -8.046
104 FP1 129 -6.582
104 FP1 130 -1.699
104 FP1 131 4.649
104 FP1 132 9.043
104 FP1 133 9.532
104 FP1 134 6.602
104 FP1 135 2.696
104 FP1 136 -0.234
104 FP1 137 -2.187
104 FP1 138 -2.187
104 FP1 139 -0.722
104 FP1 140 1.719
104 FP1 141 4.649
104 FP1 142 6.602
104 FP1 143 6.602
104 FP1 144 5.625
104 FP1 145 4.161
104 FP1 146 4.649
104 FP1 147 6.602
104 FP1 148 8.555
104 FP1 149 8.555
104 FP1 150 5.137
104 FP1 151 0.254
104 FP1 152 -4.140
104 FP1 153 -6.093
104 FP1 154 -5.605
104 FP1 155 -4.140
104 FP1 156 -3.164
104 FP1 157 -3.164
104 FP1 158 -2.187
104 FP1 159 0.743
104 FP1 160 5.625
104 FP1 161 10.508
104 FP1 162 12.950
104 FP1 163 10.997
104 FP1 164 5.625
104 FP1 165 0.743
104 FP1 166 -0.722
104 FP1 167 1.719
104 FP1 168 6.602
104 FP1 169 10.508
104 FP1 170 12.461
104 FP1 171 11.485
104 FP1 172 10.020
104 FP1 173 8.555
104 FP1 174 8.067
104 FP1 175 8.555
104 FP1 176 9.043
104 FP1 177 10.508
104 FP1 178 12.950
104 FP1 179 16.368
104 FP1 180 19.297
104 FP1 181 19.297
104 FP1 182 17.832
104 FP1 183 15.391
104 FP1 184 12.950
104 FP1 185 11.973
104 FP1 186 10.997
104 FP1 187 10.508
104 FP1 188 10.508
104 FP1 189 12.461
104 FP1 190 16.368
104 FP1 191 20.274
104 FP1 192 20.762
104 FP1 193 16.856
104 FP1 194 10.020
104 FP1 195 5.137
104 FP1 196 6.602
104 FP1 197 13.438
104 FP1 198 22.227
104 FP1 199 27.598
104 FP1 200 25.645
104 FP1 201 18.809
104 FP1 202 11.973
104 FP1 203 8.555
104 FP1 204 8.555
104 FP1 205 9.532
104 FP1 206 8.555
104 FP1 207 5.625
104 FP1 208 2.696
104 FP1 209 2.207
104 FP1 210 5.137
104 FP1 211 8.555
104 FP1 212 9.532
104 FP1 213 8.555
104 FP1 214 7.090
104 FP1 215 9.043
104 FP1 216 13.438
104 FP1 217 18.809
104 FP1 218 21.250
104 FP1 219 18.809
104 FP1 220 13.438
104 FP1 221 9.532
104 FP1 222 8.555
104 FP1 223 10.997
104 FP1 224 13.926
104 FP1 225 14.903
104 FP1 226 12.950
104 FP1 227 10.508
104 FP1 228 7.579
104 FP1 229 6.114
104 FP1 230 4.649
104 FP1 231 3.672
104 FP1 232 3.184
104 FP1 233 2.207
104 FP1 234 1.719
104 FP1 235 0.743
104 FP1 236 -0.234
104 FP1 237 -0.234
104 FP1 238 1.231
104 FP1 239 5.625
104 FP1 240 10.997
104 FP1 241 15.879
104 FP1 242 19.297
104 FP1 243 21.250
104 FP1 244 20.762
104 FP1 245 19.297
104 FP1 246 16.856
104 FP1 247 14.414
104 FP1 248 11.973
104 FP1 249 10.508
104 FP1 250 9.043
104 FP1 251 9.043
104 FP1 252 9.043
104 FP1 253 8.067
104 FP1 254 5.625
104 FP1 255 2.207
# FP2 chan 1
104 FP2 0 -5.005
104 FP2 1 -6.958
104 FP2 2 -8.911
104 FP2 3 -8.911
104 FP2 4 -6.958
104 FP2 5 -3.052
104 FP2 6 1.831
104 FP2 7 4.761
104 FP2 8 5.737
104 FP2 9 4.761
104 FP2 10 2.808
104 FP2 11 0.854
104 FP2 12 -1.099
104 FP2 13 -1.587
104 FP2 14 -1.099
104 FP2 15 -0.610
104 FP2 16 -0.122
104 FP2 17 0.366
104 FP2 18 0.366
104 FP2 19 -0.122
104 FP2 20 -1.099
104 FP2 21 -3.540
104 FP2 22 -6.470
104 FP2 23 -9.888
104 FP2 24 -12.329
104 FP2 25 -13.306
104 FP2 26 -12.329
104 FP2 27 -9.888
104 FP2 28 -7.446
104 FP2 29 -5.493
104 FP2 30 -5.005
104 FP2 31 -4.517
104 FP2 32 -4.028
104 FP2 33 -2.075
104 FP2 34 0.366
104 FP2 35 2.319
104 FP2 36 4.272
104 FP2 37 5.249
104 FP2 38 5.737
104 FP2 39 6.714
104 FP2 40 7.690
104 FP2 41 8.179
104 FP2 42 8.667
104 FP2 43 8.179
104 FP2 44 7.690
104 FP2 45 5.737
104 FP2 46 3.784
104 FP2 47 1.831
104 FP2 48 -0.610
104 FP2 49 -2.075
104 FP2 50 -3.052
104 FP2 51 -4.028
104 FP2 52 -4.517
104 FP2 53 -5.981
104 FP2 54 -6.958
104 FP2 55 -7.446
104 FP2 56 -7.446
104 FP2 57 -6.958
104 FP2 58 -5.981
104 FP2 59 -5.005
104 FP2 60 -5.005
104 FP2 61 -5.493
104 FP2 62 -6.958
104 FP2 63 -7.935
104 FP2 64 -9.399
104 FP2 65 -8.911
104 FP2 66 -5.981
104 FP2 67 -1.099
104 FP2 68 3.784
104 FP2 69 7.202
104 FP2 70 7.690
104 FP2 71 6.226
104 FP2 72 4.272
104 FP2 73 3.784
104 FP2 74 5.737
104 FP2 75 7.690
104 FP2 76 8.667
104 FP2 77 8.179
104 FP2 78 5.737
104 FP2 79 4.761
104 FP2 80 5.249
104 FP2 81 7.202
104 FP2 82 8.667
104 FP2 83 7.690
104 FP2 84 4.272
104 FP2 85 -0.122
104 FP2 86 -3.052
104 FP2 87 -3.052
104 FP2 88 -1.099
104 FP2 89 0.854
104 FP2 90 1.343
104 FP2 91 1.343
104 FP2 92 2.808
104 FP2 93 6.226
104 FP2 94 11.108
104 FP2 95 14.526
104 FP2 96 14.526
104 FP2 97 12.573
104 FP2 98 10.620
104 FP2 99 10.620
104 FP2 100 12.573
104 FP2 101 14.526
104 FP2 102 15.015
104 FP2 103 13.550
104 FP2 104 12.085
104 FP2 105 13.062
104 FP2 106 15.015
104 FP2 107 16.968
104 FP2 108 15.991
104 FP2 109 12.085
104 FP2 110 8.179
104 FP2 111 6.226
104 FP2 112 7.690
104 FP2 113 10.132
104 FP2 114 11.108
104 FP2 115 9.644
104 FP2 116 6.714
104 FP2 117 4.272
104 FP2 118 3.784
104 FP2 119 5.737
104 FP2 120 7.690
104 FP2 121 9.155
104 FP2 122 8.667
104 FP2 123 6.714
104 FP2 124 3.784
104 FP2 125 1.343
104 FP2 126 -1.099
104 FP2 127 -2.075
104 FP2 128 -3.052
104 FP2 129 -2.075
104 FP2 130 -0.122
104 FP2 131 2.319
104 FP2 132 3.784
104 FP2 133 4.272
104 FP2 134 2.319
104 FP2 135 -0.122
104 FP2 136 -3.052
104 FP2 137 -4.028
104 FP2 138 -3.052
104 FP2 139 -1.587
104 FP2 140 0.854
104 FP2 141 1.831
104 FP2 142 1.831
104 FP2 143 1.831
104 FP2 144 1.831
104 FP2 145 2.808
104 FP2 146 4.272
104 FP2 147 5.737
104 FP2 148 5.249
104 FP2 149 3.784
104 FP2 150 0.854
104 FP2 151 -2.075
104 FP2 152 -4.028
104 FP2 153 -5.493
104 FP2 154 -4.517
104 FP2 155 -2.563
104 FP2 156 -0.122
104 FP2 157 1.343
104 FP2 158 1.831
104 FP2 159 1.831
104 FP2 160 1.831
104 FP2 161 2.808
104 FP2 162 4.272
104 FP2 163 4.761
104 FP2 164 4.761
104 FP2 165 3.784
104 FP2 166 3.296
104 FP2 167 4.272
104 FP2 168 6.226
104 FP2 169 8.179
104 FP2 170 10.132
104 FP2 171 11.108
104 FP2 172 11.597
104 FP2 173 12.085
104 FP2 174 11.597
104 FP2 175 10.132
104 FP2 176 8.667
104 FP2 177 7.690
104 FP2 178 8.179
104 FP2 179 10.132
104 FP2 180 13.062
104 FP2 181 15.015
104 FP2 182 15.015
104 FP2 183 14.038
104 FP2 184 12.085
104 FP2 185 10.620
104 FP2 186 10.620
104 FP2 187 11.108
104 FP2 188 11.597
104 FP2 189 13.062
104 FP2 190 13.550
104 FP2 191 14.526
104 FP2 192 14.526
104 FP2 193 13.062
104 FP2 194 11.108
104 FP2 195 8.179
104 FP2 196 6.714
104 FP2 197 6.714
104 FP2 198 8.667
104 FP2 199 10.132
104 FP2 200 11.597
104 FP2 201 11.597
104 FP2 202 11.108
104 FP2 203 9.644
104 FP2 204 8.179
104 FP2 205 5.249
104 FP2 206 2.319
104 FP2 207 0.366
104 FP2 208 -0.610
104 FP2 209 0.366
104 FP2 210 2.808
104 FP2 211 4.761
104 FP2 212 5.737
104 FP2 213 6.714
104 FP2 214 7.690
104 FP2 215 8.667
104 FP2 216 9.644
104 FP2 217 10.620
104 FP2 218 10.620
104 FP2 219 9.644
104 FP2 220 8.179
104 FP2 221 6.714
104 FP2 222 6.226
104 FP2 223 6.714
104 FP2 224 7.202
104 FP2 225 8.179
104 FP2 226 8.179
104 FP2 227 7.690
104 FP2 228 5.737
104 FP2 229 3.296
104 FP2 230 0.366
104 FP2 231 -1.587
104 FP2 232 -1.587
104 FP2 233 0.366
104 FP2 234 1.831
104 FP2 235 2.319
104 FP2 236 1.831
104 FP2 237 0.854
104 FP2 238 2.319
104 FP2 239 6.226
104 FP2 240 11.597
104 FP2 241 16.968
104 FP2 242 19.409
104 FP2 243 18.921
104 FP2 244 17.944
104 FP2 245 17.456
104 FP2 246 17.944
104 FP2 247 17.944
104 FP2 248 15.503
104 FP2 249 11.597
104 FP2 250 7.690
104 FP2 251 6.226
104 FP2 252 8.179
104 FP2 253 10.132
104 FP2 254 10.620
104 FP2 255 7.690
# F7 chan 2
104 F7 0 -3.001
104 F7 1 -1.048
104 F7 2 0.417
104 F7 3 0.905
104 F7 4 0.905
104 F7 5 0.905
104 F7 6 -0.559
104 F7 7 -2.513
104 F7 8 -5.442
104 F7 9 -7.395
104 F7 10 -7.884
104 F7 11 -7.395
104 F7 12 -5.931
104 F7 13 -3.977
104 F7 14 -2.513
104 F7 15 -1.048
104 F7 16 -0.071
104 F7 17 -0.071
104 F7 18 -1.048
104 F7 19 -2.024
104 F7 20 -3.489
104 F7 21 -5.442
104 F7 22 -7.884
104 F7 23 -10.325
104 F7 24 -12.278
104 F7 25 -12.767
104 F7 26 -12.278
104 F7 27 -10.325
104 F7 28 -7.395
104 F7 29 -4.466
104 F7 30 -0.559
104 F7 31 2.858
104 F7 32 5.300
104 F7 33 5.300
104 F7 34 3.835
104 F7 35 0.417
104 F7 36 -1.048
104 F7 37 -0.559
104 F7 38 1.882
104 F7 39 5.788
104 F7 40 9.206
104 F7 41 11.159
104 F7 42 12.136
104 F7 43 11.648
104 F7 44 10.671
104 F7 45 8.718
104 F7 46 6.765
104 F7 47 4.323
104 F7 48 0.905
104 F7 49 -2.513
104 F7 50 -6.419
104 F7 51 -8.860
104 F7 52 -9.837
104 F7 53 -9.837
104 F7 54 -7.884
104 F7 55 -5.931
104 F7 56 -4.466
104 F7 57 -3.977
104 F7 58 -4.954
104 F7 59 -5.442
104 F7 60 -4.954
104 F7 61 -3.489
104 F7 62 -1.536
104 F7 63 -0.559
104 F7 64 -0.071
104 F7 65 0.905
104 F7 66 3.835
104 F7 67 8.718
104 F7 68 13.112
104 F7 69 14.577
104 F7 70 11.648
104 F7 71 6.765
104 F7 72 1.882
104 F7 73 0.417
104 F7 74 2.858
104 F7 75 6.276
104 F7 76 7.741
104 F7 77 6.765
104 F7 78 3.835
104 F7 79 1.882
104 F7 80 1.882
104 F7 81 3.835
104 F7 82 6.276
104 F7 83 6.765
104 F7 84 5.300
104 F7 85 4.323
104 F7 86 3.835
104 F7 87 5.788
104 F7 88 8.230
104 F7 89 10.183
104 F7 90 10.671
104 F7 91 11.648
104 F7 92 12.136
104 F7 93 13.112
104 F7 94 14.089
104 F7 95 14.089
104 F7 96 14.577
104 F7 97 14.577
104 F7 98 16.530
104 F7 99 18.483
104 F7 100 18.972
104 F7 101 16.530
104 F7 102 12.624
104 F7 103 9.694
104 F7 104 10.671
104 F7 105 13.601
104 F7 106 16.042
104 F7 107 14.577
104 F7 108 9.206
104 F7 109 3.347
104 F7 110 0.905
104 F7 111 4.323
104 F7 112 11.159
104 F7 113 17.019
104 F7 114 18.483
104 F7 115 16.042
104 F7 116 11.648
104 F7 117 8.718
104 F7 118 7.253
104 F7 119 7.741
104 F7 120 7.253
104 F7 121 6.276
104 F7 122 3.835
104 F7 123 1.394
104 F7 124 -1.048
104 F7 125 -2.513
104 F7 126 -3.489
104 F7 127 -3.001
104 F7 128 -1.048
104 F7 129 2.370
104 F7 130 6.276
104 F7 131 8.718
104 F7 132 9.694
104 F7 133 9.206
104 F7 134 7.741
104 F7 135 6.765
104 F7 136 7.253
104 F7 137 8.230
104 F7 138 8.718
104 F7 139 9.206
104 F7 140 8.230
104 F7 141 7.741
104 F7 142 7.253
104 F7 143 6.765
104 F7 144 6.276
104 F7 145 5.300
104 F7 146 3.835
104 F7 147 1.882
104 F7 148 -0.071
104 F7 149 -2.513
104 F7 150 -3.977
104 F7 151 -4.954
104 F7 152 -4.954
104 F7 153 -3.977
104 F7 154 -1.536
104 F7 155 1.394
104 F7 156 3.835
104 F7 157 4.812
104 F7 158 4.812
104 F7 159 4.323
104 F7 160 3.835
104 F7 161 4.812
104 F7 162 6.765
104 F7 163 8.230
104 F7 164 8.718
104 F7 165 7.253
104 F7 166 4.812
104 F7 167 2.858
104 F7 168 1.882
104 F7 169 1.394
104 F7 170 1.394
104 F7 171 1.882
104 F7 172 2.370
104 F7 173 4.323
104 F7 174 7.741
104 F7 175 10.671
104 F7 176 12.136
104 F7 177 12.624
104 F7 178 12.624
104 F7 179 13.112
104 F7 180 14.577
104 F7 181 16.530
104 F7 182 17.995
104 F7 183 17.019
104 F7 184 14.089
104 F7 185 10.671
104 F7 186 8.230
104 F7 187 8.230
104 F7 188 10.183
104 F7 189 12.136
104 F7 190 12.624
104 F7 191 12.136
104 F7 192 9.694
104 F7 193 7.253
104 F7 194 6.276
104 F7 195 6.276
104 F7 196 8.230
104 F7 197 10.183
104 F7 198 12.136
104 F7 199 13.601
104 F7 200 13.601
104 F7 201 13.601
104 F7 202 13.112
104 F7 203 13.112
104 F7 204 12.624
104 F7 205 12.136
104 F7 206 10.671
104 F7 207 9.206
104 F7 208 8.230
104 F7 209 7.253
104 F7 210 6.765
104 F7 211 7.253
104 F7 212 7.253
104 F7 213 7.253
104 F7 214 6.765
104 F7 215 6.276
104 F7 216 6.276
104 F7 217 7.741
104 F7 218 10.183
104 F7 219 11.648
104 F7 220 12.624
104 F7 221 11.648
104 F7 222 10.183
104 F7 223 9.694
104 F7 224 11.648
104 F7 225 14.089
104 F7 226 16.530
104 F7 227 16.530
104 F7 228 13.112
104 F7 229 8.230
104 F7 230 3.347
104 F7 231 1.394
104 F7 232 1.394
104 F7 233 1.882
104 F7 234 1.882
104 F7 235 0.905
104 F7 236 -0.071
104 F7 237 -0.071
104 F7 238 1.882
104 F7 239 5.788
104 F7 240 9.694
104 F7 241 13.112
104 F7 242 15.554
104 F7 243 17.019
104 F7 244 17.019
104 F7 245 16.530
104 F7 246 15.554
104 F7 247 14.577
104 F7 248 14.089
104 F7 249 14.577
104 F7 250 14.577
104 F7 251 14.577
104 F7 252 14.577
104 F7 253 14.577
104 F7 254 14.577
104 F7 255 14.577
# F8 chan 3
104 F8 0 -4.384
104 F8 1 -9.267
104 F8 2 -13.173
104 F8 3 -13.662
104 F8 4 -10.732
104 F8 5 -4.873
104 F8 6 0.498
104 F8 7 4.405
104 F8 8 6.358
104 F8 9 6.358
104 F8 10 5.381
104 F8 11 3.916
104 F8 12 2.940
104 F8 13 0.987
104 F8 14 -0.478
104 F8 15 -1.943
104 F8 16 -1.943
104 F8 17 -0.478
104 F8 18 0.987
104 F8 19 1.963
104 F8 20 1.475
104 F8 21 -0.966
104 F8 22 -4.384
104 F8 23 -7.314
104 F8 24 -9.755
104 F8 25 -10.244
104 F8 26 -9.267
104 F8 27 -7.314
104 F8 28 -5.361
104 F8 29 -4.384
104 F8 30 -4.873
104 F8 31 -6.826
104 F8 32 -8.779
104 F8 33 -9.755
104 F8 34 -9.267
104 F8 35 -6.337
104 F8 36 -3.408
104 F8 37 -0.478
104 F8 38 0.987
104 F8 39 1.963
104 F8 40 2.452
104 F8 41 3.916
104 F8 42 5.870
104 F8 43 8.311
104 F8 44 8.799
104 F8 45 8.311
104 F8 46 6.358
104 F8 47 4.405
104 F8 48 2.452
104 F8 49 0.498
104 F8 50 -1.455
104 F8 51 -2.920
104 F8 52 -3.408
104 F8 53 -3.408
104 F8 54 -2.431
104 F8 55 -1.455
104 F8 56 -1.943
104 F8 57 -3.408
104 F8 58 -5.361
104 F8 59 -6.826
104 F8 60 -6.826
104 F8 61 -6.337
104 F8 62 -5.849
104 F8 63 -6.337
104 F8 64 -6.826
104 F8 65 -6.826
104 F8 66 -5.361
104 F8 67 -2.431
104 F8 68 0.987
104 F8 69 3.428
104 F8 70 4.405
104 F8 71 3.916
104 F8 72 3.916
104 F8 73 4.405
104 F8 74 5.381
104 F8 75 5.870
104 F8 76 5.381
104 F8 77 4.405
104 F8 78 2.940
104 F8 79 2.940
104 F8 80 3.916
104 F8 81 5.381
104 F8 82 5.870
104 F8 83 4.405
104 F8 84 0.987
104 F8 85 -1.943
104 F8 86 -1.943
104 F8 87 -0.478
104 F8 88 2.452
104 F8 89 4.405
104 F8 90 3.916
104 F8 91 2.452
104 F8 92 1.475
104 F8 93 2.452
104 F8 94 5.870
104 F8 95 9.288
104 F8 96 10.752
104 F8 97 9.288
104 F8 98 6.846
104 F8 99 5.870
104 F8 100 7.334
104 F8 101 9.288
104 F8 102 10.752
104 F8 103 10.264
104 F8 104 8.799
104 F8 105 8.311
104 F8 106 9.776
104 F8 107 12.217
104 F8 108 13.682
104 F8 109 13.194
104 F8 110 11.241
104 F8 111 8.799
104 F8 112 7.823
104 F8 113 6.846
104 F8 114 5.870
104 F8 115 3.916
104 F8 116 1.963
104 F8 117 1.475
104 F8 118 3.428
104 F8 119 7.334
104 F8 120 10.752
104 F8 121 11.241
104 F8 122 9.288
104 F8 123 4.893
104 F8 124 0.987
104 F8 125 -0.966
104 F8 126 -1.943
104 F8 127 -2.431
104 F8 128 -2.920
104 F8 129 -2.920
104 F8 130 -2.431
104 F8 131 -0.966
104 F8 132 0.987
104 F8 133 0.987
104 F8 134 -0.478
104 F8 135 -2.920
104 F8 136 -4.873
104 F8 137 -5.361
104 F8 138 -3.896
104 F8 139 -1.943
104 F8 140 0.010
104 F8 141 0.987
104 F8 142 1.963
104 F8 143 2.452
104 F8 144 2.452
104 F8 145 2.452
104 F8 146 1.475
104 F8 147 0.010
104 F8 148 -1.455
104 F8 149 -1.943
104 F8 150 -1.943
104 F8 151 -0.966
104 F8 152 -0.966
104 F8 153 -0.966
104 F8 154 -1.943
104 F8 155 -2.920
104 F8 156 -3.408
104 F8 157 -3.408
104 F8 158 -2.431
104 F8 159 -0.966
104 F8 160 1.475
104 F8 161 3.428
104 F8 162 3.916
104 F8 163 3.916
104 F8 164 2.940
104 F8 165 2.452
104 F8 166 2.940
104 F8 167 4.893
104 F8 168 6.846
104 F8 169 7.823
104 F8 170 8.799
104 F8 171 8.799
104 F8 172 9.288
104 F8 173 9.288
104 F8 174 8.311
104 F8 175 5.381
104 F8 176 0.987
104 F8 177 -1.455
104 F8 178 -1.455
104 F8 179 0.987
104 F8 180 4.405
104 F8 181 6.846
104 F8 182 8.311
104 F8 183 7.823
104 F8 184 7.823
104 F8 185 7.334
104 F8 186 6.846
104 F8 187 6.358
104 F8 188 6.358
104 F8 189 6.846
104 F8 190 8.311
104 F8 191 9.776
104 F8 192 10.264
104 F8 193 8.799
104 F8 194 6.358
104 F8 195 4.405
104 F8 196 3.916
104 F8 197 4.405
104 F8 198 4.893
104 F8 199 4.893
104 F8 200 3.916
104 F8 201 2.940
104 F8 202 2.940
104 F8 203 3.916
104 F8 204 4.893
104 F8 205 5.381
104 F8 206 4.405
104 F8 207 1.963
104 F8 208 0.498
104 F8 209 0.010
104 F8 210 0.987
104 F8 211 2.940
104 F8 212 4.405
104 F8 213 5.381
104 F8 214 6.846
104 F8 215 7.334
104 F8 216 7.823
104 F8 217 7.334
104 F8 218 6.358
104 F8 219 4.893
104 F8 220 3.916
104 F8 221 3.428
104 F8 222 3.916
104 F8 223 4.893
104 F8 224 5.381
104 F8 225 4.893
104 F8 226 3.428
104 F8 227 1.963
104 F8 228 0.010
104 F8 229 -0.478
104 F8 230 -0.966
104 F8 231 -1.455
104 F8 232 -0.966
104 F8 233 0.010
104 F8 234 1.475
104 F8 235 2.452
104 F8 236 2.452
104 F8 237 0.987
104 F8 238 -0.478
104 F8 239 0.010
104 F8 240 2.940
104 F8 241 6.358
104 F8 242 9.776
104 F8 243 11.241
104 F8 244 11.729
104 F8 245 11.241
104 F8 246 10.752
104 F8 247 10.264
104 F8 248 9.288
104 F8 249 6.846
104 F8 250 5.381
104 F8 251 3.916
104 F8 252 3.916
104 F8 253 3.916
104 F8 254 3.916
104 F8 255 2.940
# AF1 chan 4
104 AF1 0 1.282
104 AF1 1 0.305
104 AF1 2 -0.183
104 AF1 3 -0.183
104 AF1 4 0.793
104 AF1 5 1.282
104 AF1 6 1.770
104 AF1 7 0.793
104 AF1 8 -0.671
104 AF1 9 -2.136
104 AF1 10 -3.601
104 AF1 11 -4.578
104 AF1 12 -4.089
104 AF1 13 -3.113
104 AF1 14 -2.136
104 AF1 15 -0.671
104 AF1 16 0.305
104 AF1 17 0.793
104 AF1 18 0.305
104 AF1 19 -1.160
104 AF1 20 -3.113
104 AF1 21 -4.578
104 AF1 22 -5.554
104 AF1 23 -5.066
104 AF1 24 -4.578
104 AF1 25 -4.578
104 AF1 26 -4.578
104 AF1 27 -4.578
104 AF1 28 -4.578
104 AF1 29 -3.601
104 AF1 30 -2.136
104 AF1 31 -0.671
104 AF1 32 -0.671
104 AF1 33 -1.160
104 AF1 34 -0.671
104 AF1 35 0.793
104 AF1 36 3.235
104 AF1 37 5.188
104 AF1 38 6.165
104 AF1 39 6.165
104 AF1 40 5.676
104 AF1 41 6.653
104 AF1 42 8.606
104 AF1 43 10.071
104 AF1 44 9.583
104 AF1 45 6.653
104 AF1 46 1.770
104 AF1 47 -2.625
104 AF1 48 -5.066
104 AF1 49 -5.066
104 AF1 50 -4.578
104 AF1 51 -4.089
104 AF1 52 -4.089
104 AF1 53 -3.601
104 AF1 54 -2.625
104 AF1 55 0.305
104 AF1 56 2.747
104 AF1 57 3.723
104 AF1 58 3.235
104 AF1 59 1.770
104 AF1 60 -0.183
104 AF1 61 -0.671
104 AF1 62 -0.183
104 AF1 63 0.305
104 AF1 64 0.793
104 AF1 65 1.282
104 AF1 66 2.258
104 AF1 67 3.723
104 AF1 68 6.165
104 AF1 69 7.629
104 AF1 70 7.629
104 AF1 71 6.653
104 AF1 72 5.676
104 AF1 73 5.676
104 AF1 74 7.629
104 AF1 75 10.559
104 AF1 76 13.000
104 AF1 77 12.512
104 AF1 78 10.071
104 AF1 79 5.676
104 AF1 80 2.258
104 AF1 81 0.793
104 AF1 82 0.793
104 AF1 83 1.282
104 AF1 84 2.258
104 AF1 85 2.258
104 AF1 86 2.258
104 AF1 87 1.282
104 AF1 88 0.305
104 AF1 89 0.305
104 AF1 90 0.793
104 AF1 91 1.770
104 AF1 92 3.723
104 AF1 93 6.165
104 AF1 94 9.583
104 AF1 95 13.000
104 AF1 96 15.442
104 AF1 97 15.442
104 AF1 98 13.977
104 AF1 99 11.047
104 AF1 100 8.606
104 AF1 101 7.629
104 AF1 102 8.606
104 AF1 103 10.559
104 AF1 104 12.024
104 AF1 105 13.000
104 AF1 106 13.489
104 AF1 107 13.977
104 AF1 108 14.465
104 AF1 109 14.465
104 AF1 110 13.977
104 AF1 111 13.000
104 AF1 112 12.512
104 AF1 113 12.024
104 AF1 114 13.000
104 AF1 115 13.000
104 AF1 116 12.024
104 AF1 117 10.559
104 AF1 118 9.094
104 AF1 119 9.094
104 AF1 120 9.094
104 AF1 121 9.094
104 AF1 122 8.118
104 AF1 123 6.165
104 AF1 124 4.211
104 AF1 125 3.235
104 AF1 126 3.723
104 AF1 127 5.188
104 AF1 128 5.676
104 AF1 129 5.676
104 AF1 130 5.676
104 AF1 131 6.165
104 AF1 132 6.653
104 AF1 133 7.141
104 AF1 134 6.165
104 AF1 135 4.700
104 AF1 136 2.747
104 AF1 137 1.770
104 AF1 138 1.770
104 AF1 139 3.235
104 AF1 140 3.723
104 AF1 141 4.211
104 AF1 142 4.211
104 AF1 143 5.188
104 AF1 144 6.653
104 AF1 145 8.118
104 AF1 146 8.606
104 AF1 147 7.141
104 AF1 148 5.188
104 AF1 149 1.770
104 AF1 150 -0.183
104 AF1 151 -1.160
104 AF1 152 -0.671
104 AF1 153 0.305
104 AF1 154 2.258
104 AF1 155 4.211
104 AF1 156 5.188
104 AF1 157 5.188
104 AF1 158 3.723
104 AF1 159 1.770
104 AF1 160 1.282
104 AF1 161 1.770
104 AF1 162 3.723
104 AF1 163 6.165
104 AF1 164 8.118
104 AF1 165 9.094
104 AF1 166 9.583
104 AF1 167 10.559
104 AF1 168 11.047
104 AF1 169 12.024
104 AF1 170 12.512
104 AF1 171 13.000
104 AF1 172 13.489
104 AF1 173 13.977
104 AF1 174 13.977
104 AF1 175 12.512
104 AF1 176 10.559
104 AF1 177 9.094
104 AF1 178 8.606
104 AF1 179 9.583
104 AF1 180 12.024
104 AF1 181 14.954
104 AF1 182 16.418
104 AF1 183 15.930
104 AF1 184 14.465
104 AF1 185 12.512
104 AF1 186 11.047
104 AF1 187 10.071
104 AF1 188 9.583
104 AF1 189 9.583
104 AF1 190 10.071
104 AF1 191 12.024
104 AF1 192 14.954
104 AF1 193 18.372
104 AF1 194 20.325
104 AF1 195 20.325
104 AF1 196 18.372
104 AF1 197 15.930
104 AF1 198 14.465
104 AF1 199 13.977
104 AF1 200 14.465
104 AF1 201 14.954
104 AF1 202 13.977
104 AF1 203 12.512
104 AF1 204 10.071
104 AF1 205 7.629
104 AF1 206 6.165
104 AF1 207 5.188
104 AF1 208 4.700
104 AF1 209 5.188
104 AF1 210 6.165
104 AF1 211 8.118
104 AF1 212 10.559
104 AF1 213 13.000
104 AF1 214 14.465
104 AF1 215 14.465
104 AF1 216 13.489
104 AF1 217 12.024
104 AF1 218 12.024
104 AF1 219 13.489
104 AF1 220 15.442
104 AF1 221 16.418
104 AF1 222 16.418
104 AF1 223 14.954
104 AF1 224 13.489
104 AF1 225 12.512
104 AF1 226 12.024
104 AF1 227 11.047
104 AF1 228 9.094
104 AF1 229 6.165
104 AF1 230 2.747
104 AF1 231 0.793
104 AF1 232 0.305
104 AF1 233 0.793
104 AF1 234 1.282
104 AF1 235 1.770
104 AF1 236 1.282
104 AF1 237 2.747
104 AF1 238 5.188
104 AF1 239 9.583
104 AF1 240 13.489
104 AF1 241 15.930
104 AF1 242 15.930
104 AF1 243 14.465
104 AF1 244 13.000
104 AF1 245 12.512
104 AF1 246 13.000
104 AF1 247 13.977
104 AF1 248 13.977
104 AF1 249 12.024
104 AF1 250 9.583
104 AF1 251 7.141
104 AF1 252 5.676
104 AF1 253 4.700
104 AF1 254 4.700
104 AF1 255 4.211
# AF2 chan 5
104 AF2 0 -3.520
104 AF2 1 -5.961
104 AF2 2 -7.426
104 AF2 3 -7.914
104 AF2 4 -6.449
104 AF2 5 -3.520
104 AF2 6 -0.102
104 AF2 7 1.851
104 AF2 8 2.828
104 AF2 9 2.828
104 AF2 10 2.340
104 AF2 11 1.363
104 AF2 12 0.875
104 AF2 13 0.387
104 AF2 14 -1.078
104 AF2 15 -1.567
104 AF2 16 -1.567
104 AF2 17 -1.078
104 AF2 18 -0.102
104 AF2 19 0.387
104 AF2 20 -0.590
104 AF2 21 -2.055
104 AF2 22 -4.496
104 AF2 23 -6.449
104 AF2 24 -7.914
104 AF2 25 -7.914
104 AF2 26 -7.426
104 AF2 27 -5.961
104 AF2 28 -4.985
104 AF2 29 -4.008
104 AF2 30 -3.520
104 AF2 31 -4.008
104 AF2 32 -4.496
104 AF2 33 -4.985
104 AF2 34 -3.520
104 AF2 35 -1.078
104 AF2 36 1.363
104 AF2 37 3.316
104 AF2 38 3.805
104 AF2 39 3.805
104 AF2 40 3.805
104 AF2 41 4.781
104 AF2 42 6.246
104 AF2 43 7.711
104 AF2 44 6.734
104 AF2 45 4.293
104 AF2 46 0.875
104 AF2 47 -2.055
104 AF2 48 -3.031
104 AF2 49 -2.543
104 AF2 50 -1.567
104 AF2 51 -1.078
104 AF2 52 -2.055
104 AF2 53 -3.031
104 AF2 54 -3.031
104 AF2 55 -2.543
104 AF2 56 -1.567
104 AF2 57 -0.590
104 AF2 58 -1.078
104 AF2 59 -2.055
104 AF2 60 -3.520
104 AF2 61 -4.496
104 AF2 62 -4.985
104 AF2 63 -5.473
104 AF2 64 -5.473
104 AF2 65 -4.985
104 AF2 66 -3.520
104 AF2 67 -1.078
104 AF2 68 1.851
104 AF2 69 3.805
104 AF2 70 4.781
104 AF2 71 3.805
104 AF2 72 3.316
104 AF2 73 3.805
104 AF2 74 5.758
104 AF2 75 7.711
104 AF2 76 8.687
104 AF2 77 8.199
104 AF2 78 5.758
104 AF2 79 3.316
104 AF2 80 2.340
104 AF2 81 2.340
104 AF2 82 2.828
104 AF2 83 2.340
104 AF2 84 0.875
104 AF2 85 -1.567
104 AF2 86 -3.031
104 AF2 87 -4.008
104 AF2 88 -4.008
104 AF2 89 -2.543
104 AF2 90 -1.567
104 AF2 91 -0.102
104 AF2 92 1.363
104 AF2 93 3.316
104 AF2 94 5.758
104 AF2 95 7.711
104 AF2 96 8.687
104 AF2 97 8.199
104 AF2 98 7.222
104 AF2 99 6.246
104 AF2 100 6.734
104 AF2 101 7.711
104 AF2 102 8.199
104 AF2 103 8.687
104 AF2 104 8.199
104 AF2 105 8.687
104 AF2 106 9.664
104 AF2 107 11.617
104 AF2 108 13.082
104 AF2 109 13.082
104 AF2 110 11.617
104 AF2 111 10.152
104 AF2 112 9.176
104 AF2 113 9.176
104 AF2 114 9.176
104 AF2 115 8.199
104 AF2 116 6.246
104 AF2 117 4.781
104 AF2 118 4.781
104 AF2 119 6.246
104 AF2 120 8.687
104 AF2 121 10.640
104 AF2 122 10.640
104 AF2 123 8.687
104 AF2 124 5.758
104 AF2 125 3.316
104 AF2 126 1.363
104 AF2 127 0.387
104 AF2 128 -0.102
104 AF2 129 0.387
104 AF2 130 0.875
104 AF2 131 2.340
104 AF2 132 3.805
104 AF2 133 3.805
104 AF2 134 2.340
104 AF2 135 -0.590
104 AF2 136 -3.031
104 AF2 137 -4.008
104 AF2 138 -3.520
104 AF2 139 -1.078
104 AF2 140 0.875
104 AF2 141 1.851
104 AF2 142 1.851
104 AF2 143 1.851
104 AF2 144 1.851
104 AF2 145 2.828
104 AF2 146 3.316
104 AF2 147 3.316
104 AF2 148 2.340
104 AF2 149 0.875
104 AF2 150 -1.078
104 AF2 151 -2.543
104 AF2 152 -3.031
104 AF2 153 -3.031
104 AF2 154 -2.055
104 AF2 155 -1.078
104 AF2 156 -0.590
104 AF2 157 0.387
104 AF2 158 0.387
104 AF2 159 0.387
104 AF2 160 0.387
104 AF2 161 1.363
104 AF2 162 2.340
104 AF2 163 3.805
104 AF2 164 4.781
104 AF2 165 5.269
104 AF2 166 6.246
104 AF2 167 7.711
104 AF2 168 9.664
104 AF2 169 10.640
104 AF2 170 12.594
104 AF2 171 13.570
104 AF2 172 14.058
104 AF2 173 14.058
104 AF2 174 12.105
104 AF2 175 8.687
104 AF2 176 4.781
104 AF2 177 1.851
104 AF2 178 1.363
104 AF2 179 3.316
104 AF2 180 6.734
104 AF2 181 9.664
104 AF2 182 10.152
104 AF2 183 9.176
104 AF2 184 8.199
104 AF2 185 7.711
104 AF2 186 7.711
104 AF2 187 8.687
104 AF2 188 8.687
104 AF2 189 8.199
104 AF2 190 8.199
104 AF2 191 9.664
104 AF2 192 12.105
104 AF2 193 14.058
104 AF2 194 14.547
104 AF2 195 13.082
104 AF2 196 11.129
104 AF2 197 9.176
104 AF2 198 9.176
104 AF2 199 10.152
104 AF2 200 11.617
104 AF2 201 11.129
104 AF2 202 10.152
104 AF2 203 7.711
104 AF2 204 5.269
104 AF2 205 3.316
104 AF2 206 1.851
104 AF2 207 1.851
104 AF2 208 2.340
104 AF2 209 3.316
104 AF2 210 4.781
104 AF2 211 6.246
104 AF2 212 7.711
104 AF2 213 9.176
104 AF2 214 10.152
104 AF2 215 11.129
104 AF2 216 11.129
104 AF2 217 11.129
104 AF2 218 10.640
104 AF2 219 10.152
104 AF2 220 9.664
104 AF2 221 9.664
104 AF2 222 9.664
104 AF2 223 9.664
104 AF2 224 9.664
104 AF2 225 9.176
104 AF2 226 8.199
104 AF2 227 6.734
104 AF2 228 4.293
104 AF2 229 1.851
104 AF2 230 -1.078
104 AF2 231 -2.543
104 AF2 232 -2.055
104 AF2 233 -0.590
104 AF2 234 1.363
104 AF2 235 2.828
104 AF2 236 2.340
104 AF2 237 1.363
104 AF2 238 1.363
104 AF2 239 3.316
104 AF2 240 6.734
104 AF2 241 9.664
104 AF2 242 11.617
104 AF2 243 12.105
104 AF2 244 11.129
104 AF2 245 10.640
104 AF2 246 11.129
104 AF2 247 11.617
104 AF2 248 11.129
104 AF2 249 8.687
104 AF2 250 5.758
104 AF2 251 3.316
104 AF2 252 1.851
104 AF2 253 1.851
104 AF2 254 2.340
104 AF2 255 1.851
# FZ chan 6
104 FZ 0 0.814
104 FZ 1 -0.163
104 FZ 2 -1.628
104 FZ 3 -2.116
104 FZ 4 -2.116
104 FZ 5 -1.628
104 FZ 6 -1.139
104 FZ 7 -1.139
104 FZ 8 -1.139
104 FZ 9 -1.628
104 FZ 10 -1.628
104 FZ 11 -1.139
104 FZ 12 -0.651
104 FZ 13 -0.163
104 FZ 14 -0.163
104 FZ 15 -1.139
104 FZ 16 -1.628
104 FZ 17 -1.139
104 FZ 18 -0.651
104 FZ 19 -0.163
104 FZ 20 -0.651
104 FZ 21 -2.116
104 FZ 22 -3.581
104 FZ 23 -4.557
104 FZ 24 -4.557
104 FZ 25 -3.581
104 FZ 26 -2.604
104 FZ 27 -2.116
104 FZ 28 -2.604
104 FZ 29 -3.092
104 FZ 30 -3.581
104 FZ 31 -3.581
104 FZ 32 -3.581
104 FZ 33 -3.581
104 FZ 34 -2.116
104 FZ 35 -0.163
104 FZ 36 2.279
104 FZ 37 3.255
104 FZ 38 3.743
104 FZ 39 2.767
104 FZ 40 1.790
104 FZ 41 2.279
104 FZ 42 4.232
104 FZ 43 5.697
104 FZ 44 5.208
104 FZ 45 2.279
104 FZ 46 -1.139
104 FZ 47 -3.581
104 FZ 48 -4.069
104 FZ 49 -3.092
104 FZ 50 -1.628
104 FZ 51 -0.651
104 FZ 52 -1.139
104 FZ 53 -1.139
104 FZ 54 -0.651
104 FZ 55 0.814
104 FZ 56 1.790
104 FZ 57 2.279
104 FZ 58 1.302
104 FZ 59 0.326
104 FZ 60 -1.139
104 FZ 61 -2.116
104 FZ 62 -2.116
104 FZ 63 -2.116
104 FZ 64 -1.139
104 FZ 65 -0.651
104 FZ 66 -0.163
104 FZ 67 0.326
104 FZ 68 0.814
104 FZ 69 1.790
104 FZ 70 2.279
104 FZ 71 2.767
104 FZ 72 2.279
104 FZ 73 2.767
104 FZ 74 3.255
104 FZ 75 4.720
104 FZ 76 6.185
104 FZ 77 6.185
104 FZ 78 4.720
104 FZ 79 1.302
104 FZ 80 -1.139
104 FZ 81 -2.604
104 FZ 82 -2.604
104 FZ 83 -1.628
104 FZ 84 -0.651
104 FZ 85 -0.163
104 FZ 86 -1.139
104 FZ 87 -2.116
104 FZ 88 -3.581
104 FZ 89 -4.069
104 FZ 90 -3.581
104 FZ 91 -2.116
104 FZ 92 -0.163
104 FZ 93 2.279
104 FZ 94 4.720
104 FZ 95 6.673
104 FZ 96 7.161
104 FZ 97 6.673
104 FZ 98 5.697
104 FZ 99 4.720
104 FZ 100 4.232
104 FZ 101 4.232
104 FZ 102 4.232
104 FZ 103 4.232
104 FZ 104 4.232
104 FZ 105 4.720
104 FZ 106 6.673
104 FZ 107 8.626
104 FZ 108 10.579
104 FZ 109 10.579
104 FZ 110 9.603
104 FZ 111 7.650
104 FZ 112 6.673
104 FZ 113 6.673
104 FZ 114 7.650
104 FZ 115 7.650
104 FZ 116 6.673
104 FZ 117 5.208
104 FZ 118 4.720
104 FZ 119 5.697
104 FZ 120 7.650
104 FZ 121 9.115
104 FZ 122 8.626
104 FZ 123 7.650
104 FZ 124 5.697
104 FZ 125 5.208
104 FZ 126 5.208
104 FZ 127 4.720
104 FZ 128 3.743
104 FZ 129 2.279
104 FZ 130 2.279
104 FZ 131 3.255
104 FZ 132 4.232
104 FZ 133 4.232
104 FZ 134 2.767
104 FZ 135 0.326
104 FZ 136 -1.628
104 FZ 137 -2.116
104 FZ 138 -1.628
104 FZ 139 -0.163
104 FZ 140 0.814
104 FZ 141 0.814
104 FZ 142 0.814
104 FZ 143 0.814
104 FZ 144 1.790
104 FZ 145 3.255
104 FZ 146 3.743
104 FZ 147 3.255
104 FZ 148 1.302
104 FZ 149 -0.651
104 FZ 150 -2.116
104 FZ 151 -3.092
104 FZ 152 -2.116
104 FZ 153 -0.651
104 FZ 154 0.326
104 FZ 155 0.814
104 FZ 156 0.326
104 FZ 157 -0.163
104 FZ 158 -0.651
104 FZ 159 -1.139
104 FZ 160 -0.651
104 FZ 161 -0.163
104 FZ 162 0.814
104 FZ 163 2.767
104 FZ 164 4.232
104 FZ 165 5.697
104 FZ 166 7.161
104 FZ 167 8.626
104 FZ 168 10.091
104 FZ 169 10.579
104 FZ 170 11.068
104 FZ 171 11.068
104 FZ 172 11.068
104 FZ 173 11.068
104 FZ 174 10.091
104 FZ 175 8.138
104 FZ 176 5.697
104 FZ 177 3.743
104 FZ 178 2.767
104 FZ 179 3.743
104 FZ 180 5.697
104 FZ 181 7.161
104 FZ 182 7.161
104 FZ 183 6.673
104 FZ 184 6.185
104 FZ 185 5.697
104 FZ 186 6.185
104 FZ 187 6.185
104 FZ 188 6.185
104 FZ 189 5.697
104 FZ 190 5.697
104 FZ 191 7.650
104 FZ 192 10.579
104 FZ 193 13.509
104 FZ 194 14.974
104 FZ 195 14.486
104 FZ 196 12.044
104 FZ 197 10.091
104 FZ 198 9.115
104 FZ 199 10.579
104 FZ 200 11.556
104 FZ 201 11.068
104 FZ 202 9.603
104 FZ 203 6.673
104 FZ 204 4.232
104 FZ 205 2.767
104 FZ 206 2.767
104 FZ 207 3.743
104 FZ 208 3.743
104 FZ 209 3.743
104 FZ 210 3.743
104 FZ 211 5.208
104 FZ 212 7.161
104 FZ 213 9.115
104 FZ 214 10.579
104 FZ 215 11.068
104 FZ 216 10.579
104 FZ 217 10.579
104 FZ 218 10.579
104 FZ 219 10.579
104 FZ 220 10.579
104 FZ 221 10.091
104 FZ 222 10.091
104 FZ 223 10.091
104 FZ 224 9.603
104 FZ 225 9.115
104 FZ 226 8.138
104 FZ 227 6.185
104 FZ 228 3.255
104 FZ 229 0.326
104 FZ 230 -1.628
104 FZ 231 -2.116
104 FZ 232 -1.628
104 FZ 233 -0.163
104 FZ 234 1.302
104 FZ 235 2.279
104 FZ 236 2.279
104 FZ 237 3.255
104 FZ 238 4.232
104 FZ 239 5.697
104 FZ 240 7.161
104 FZ 241 8.138
104 FZ 242 8.138
104 FZ 243 8.138
104 FZ 244 8.138
104 FZ 245 8.626
104 FZ 246 9.115
104 FZ 247 10.091
104 FZ 248 9.603
104 FZ 249 7.650
104 FZ 250 5.697
104 FZ 251 2.767
104 FZ 252 1.302
104 FZ 253 0.326
104 FZ 254 0.326
104 FZ 255 -0.163
# F4 chan 7
104 F4 0 -5.208
104 F4 1 -8.626
104 F4 2 -10.579
104 F4 3 -10.579
104 F4 4 -8.626
104 F4 5 -5.208
104 F4 6 -1.302
104 F4 7 1.139
104 F4 8 2.604
104 F4 9 3.092
104 F4 10 2.604
104 F4 11 2.116
104 F4 12 1.628
104 F4 13 0.651
104 F4 14 -0.326
104 F4 15 -1.302
104 F4 16 -1.302
104 F4 17 -0.814
104 F4 18 0.163
104 F4 19 1.139
104 F4 20 0.651
104 F4 21 -1.302
104 F4 22 -4.232
104 F4 23 -6.185
104 F4 24 -7.650
104 F4 25 -7.650
104 F4 26 -6.673
104 F4 27 -5.697
104 F4 28 -4.232
104 F4 29 -4.232
104 F4 30 -4.720
104 F4 31 -6.185
104 F4 32 -8.138
104 F4 33 -9.115
104 F4 34 -8.138
104 F4 35 -6.185
104 F4 36 -3.743
104 F4 37 -2.279
104 F4 38 -1.790
104 F4 39 -1.790
104 F4 40 -1.302
104 F4 41 1.139
104 F4 42 3.581
104 F4 43 5.046
104 F4 44 5.046
104 F4 45 2.604
104 F4 46 -0.326
104 F4 47 -2.279
104 F4 48 -2.279
104 F4 49 -1.302
104 F4 50 -0.326
104 F4 51 -0.326
104 F4 52 -1.790
104 F4 53 -2.279
104 F4 54 -2.767
104 F4 55 -2.279
104 F4 56 -1.302
104 F4 57 -1.302
104 F4 58 -2.279
104 F4 59 -3.743
104 F4 60 -5.208
104 F4 61 -5.697
104 F4 62 -5.697
104 F4 63 -5.697
104 F4 64 -5.697
104 F4 65 -5.697
104 F4 66 -4.720
104 F4 67 -3.255
104 F4 68 -0.814
104 F4 69 0.651
104 F4 70 1.139
104 F4 71 1.139
104 F4 72 1.139
104 F4 73 1.628
104 F4 74 3.581
104 F4 75 5.046
104 F4 76 6.022
104 F4 77 5.046
104 F4 78 3.581
104 F4 79 2.116
104 F4 80 1.628
104 F4 81 2.116
104 F4 82 2.604
104 F4 83 2.604
104 F4 84 1.628
104 F4 85 -0.326
104 F4 86 -1.790
104 F4 87 -2.279
104 F4 88 -2.279
104 F4 89 -1.302
104 F4 90 -0.326
104 F4 91 0.651
104 F4 92 1.628
104 F4 93 2.604
104 F4 94 4.557
104 F4 95 6.510
104 F4 96 6.999
104 F4 97 6.999
104 F4 98 6.022
104 F4 99 5.534
104 F4 100 6.022
104 F4 101 6.999
104 F4 102 6.999
104 F4 103 6.510
104 F4 104 6.022
104 F4 105 6.510
104 F4 106 8.464
104 F4 107 10.905
104 F4 108 12.858
104 F4 109 12.858
104 F4 110 11.393
104 F4 111 9.440
104 F4 112 7.487
104 F4 113 6.510
104 F4 114 5.534
104 F4 115 4.557
104 F4 116 3.092
104 F4 117 2.604
104 F4 118 3.581
104 F4 119 5.534
104 F4 120 8.952
104 F4 121 10.905
104 F4 122 10.417
104 F4 123 8.464
104 F4 124 5.534
104 F4 125 3.092
104 F4 126 1.139
104 F4 127 0.163
104 F4 128 -0.326
104 F4 129 -0.326
104 F4 130 -0.326
104 F4 131 0.651
104 F4 132 1.139
104 F4 133 1.139
104 F4 134 -0.326
104 F4 135 -2.767
104 F4 136 -4.232
104 F4 137 -4.720
104 F4 138 -3.743
104 F4 139 -1.302
104 F4 140 0.651
104 F4 141 2.116
104 F4 142 1.628
104 F4 143 1.139
104 F4 144 1.139
104 F4 145 1.139
104 F4 146 1.628
104 F4 147 1.628
104 F4 148 0.651
104 F4 149 -0.814
104 F4 150 -1.790
104 F4 151 -2.279
104 F4 152 -1.790
104 F4 153 -1.790
104 F4 154 -1.302
104 F4 155 -1.790
104 F4 156 -2.279
104 F4 157 -2.767
104 F4 158 -2.767
104 F4 159 -2.279
104 F4 160 -0.326
104 F4 161 1.139
104 F4 162 3.092
104 F4 163 4.069
104 F4 164 4.557
104 F4 165 4.557
104 F4 166 5.046
104 F4 167 6.510
104 F4 168 7.975
104 F4 169 9.440
104 F4 170 10.417
104 F4 171 11.393
104 F4 172 10.905
104 F4 173 9.928
104 F4 174 7.975
104 F4 175 4.069
104 F4 176 0.163
104 F4 177 -1.790
104 F4 178 -2.279
104 F4 179 -0.326
104 F4 180 2.116
104 F4 181 4.069
104 F4 182 4.557
104 F4 183 4.069
104 F4 184 3.581
104 F4 185 3.581
104 F4 186 4.557
104 F4 187 5.046
104 F4 188 4.557
104 F4 189 4.557
104 F4 190 4.557
104 F4 191 6.022
104 F4 192 8.464
104 F4 193 9.928
104 F4 194 9.440
104 F4 195 8.464
104 F4 196 6.510
104 F4 197 5.046
104 F4 198 5.046
104 F4 199 6.022
104 F4 200 6.510
104 F4 201 5.534
104 F4 202 4.557
104 F4 203 3.092
104 F4 204 2.116
104 F4 205 1.139
104 F4 206 0.651
104 F4 207 0.651
104 F4 208 0.651
104 F4 209 1.139
104 F4 210 2.116
104 F4 211 3.092
104 F4 212 4.069
104 F4 213 5.046
104 F4 214 6.022
104 F4 215 6.999
104 F4 216 6.999
104 F4 217 6.999
104 F4 218 6.022
104 F4 219 4.557
104 F4 220 3.581
104 F4 221 3.581
104 F4 222 3.581
104 F4 223 4.557
104 F4 224 5.046
104 F4 225 5.046
104 F4 226 4.069
104 F4 227 2.116
104 F4 228 -0.326
104 F4 229 -2.767
104 F4 230 -4.232
104 F4 231 -4.232
104 F4 232 -3.255
104 F4 233 -1.302
104 F4 234 0.651
104 F4 235 1.628
104 F4 236 0.651
104 F4 237 -0.814
104 F4 238 -1.302
104 F4 239 -0.326
104 F4 240 2.116
104 F4 241 4.069
104 F4 242 5.534
104 F4 243 6.022
104 F4 244 5.534
104 F4 245 5.534
104 F4 246 6.510
104 F4 247 6.999
104 F4 248 6.999
104 F4 249 4.557
104 F4 250 2.116
104 F4 251 -0.814
104 F4 252 -2.279
104 F4 253 -2.279
104 F4 254 -2.279
104 F4 255 -2.279
# F3 chan 8
104 F3 0 4.974
104 F3 1 5.951
104 F3 2 5.951
104 F3 3 5.463
104 F3 4 3.510
104 F3 5 1.556
104 F3 6 -0.397
104 F3 7 -1.862
104 F3 8 -3.326
104 F3 9 -4.303
104 F3 10 -5.280
104 F3 11 -5.768
104 F3 12 -5.768
104 F3 13 -4.303
104 F3 14 -2.350
104 F3 15 -0.885
104 F3 16 0.580
104 F3 17 0.580
104 F3 18 0.092
104 F3 19 -1.373
104 F3 20 -2.838
104 F3 21 -3.815
104 F3 22 -4.303
104 F3 23 -3.815
104 F3 24 -2.838
104 F3 25 -1.862
104 F3 26 -0.885
104 F3 27 0.092
104 F3 28 0.580
104 F3 29 0.580
104 F3 30 0.092
104 F3 31 -0.397
104 F3 32 -0.397
104 F3 33 0.092
104 F3 34 1.068
104 F3 35 2.533
104 F3 36 4.974
104 F3 37 5.951
104 F3 38 5.463
104 F3 39 4.486
104 F3 40 3.510
104 F3 41 3.021
104 F3 42 3.510
104 F3 43 4.974
104 F3 44 4.486
104 F3 45 3.021
104 F3 46 0.580
104 F3 47 -2.838
104 F3 48 -4.791
104 F3 49 -5.280
104 F3 50 -5.280
104 F3 51 -4.791
104 F3 52 -3.815
104 F3 53 -2.350
104 F3 54 0.092
104 F3 55 2.533
104 F3 56 3.998
104 F3 57 4.974
104 F3 58 3.998
104 F3 59 3.021
104 F3 60 2.533
104 F3 61 3.510
104 F3 62 5.463
104 F3 63 6.439
104 F3 64 6.927
104 F3 65 6.927
104 F3 66 6.927
104 F3 67 6.927
104 F3 68 7.416
104 F3 69 7.416
104 F3 70 5.951
104 F3 71 3.998
104 F3 72 3.021
104 F3 73 3.510
104 F3 74 5.463
104 F3 75 7.416
104 F3 76 8.392
104 F3 77 6.927
104 F3 78 3.998
104 F3 79 1.068
104 F3 80 -1.373
104 F3 81 -2.350
104 F3 82 -0.885
104 F3 83 1.556
104 F3 84 4.486
104 F3 85 6.439
104 F3 86 6.927
104 F3 87 5.463
104 F3 88 3.021
104 F3 89 1.068
104 F3 90 0.580
104 F3 91 1.068
104 F3 92 3.021
104 F3 93 5.951
104 F3 94 9.369
104 F3 95 11.322
104 F3 96 12.787
104 F3 97 12.787
104 F3 98 11.810
104 F3 99 9.857
104 F3 100 8.392
104 F3 101 6.927
104 F3 102 6.439
104 F3 103 6.927
104 F3 104 8.392
104 F3 105 10.345
104 F3 106 11.810
104 F3 107 12.787
104 F3 108 12.787
104 F3 109 12.299
104 F3 110 12.299
104 F3 111 12.299
104 F3 112 13.275
104 F3 113 13.763
104 F3 114 13.763
104 F3 115 13.275
104 F3 116 12.299
104 F3 117 11.322
104 F3 118 10.834
104 F3 119 10.345
104 F3 120 9.369
104 F3 121 7.904
104 F3 122 6.439
104 F3 123 4.974
104 F3 124 4.974
104 F3 125 6.439
104 F3 126 7.904
104 F3 127 9.369
104 F3 128 9.369
104 F3 129 8.392
104 F3 130 7.416
104 F3 131 7.416
104 F3 132 8.392
104 F3 133 9.369
104 F3 134 8.881
104 F3 135 6.439
104 F3 136 3.998
104 F3 137 2.533
104 F3 138 2.045
104 F3 139 3.510
104 F3 140 4.974
104 F3 141 6.439
104 F3 142 7.416
104 F3 143 7.416
104 F3 144 7.416
104 F3 145 7.416
104 F3 146 7.416
104 F3 147 6.927
104 F3 148 5.463
104 F3 149 3.021
104 F3 150 1.556
104 F3 151 0.092
104 F3 152 0.092
104 F3 153 1.068
104 F3 154 3.021
104 F3 155 4.974
104 F3 156 5.951
104 F3 157 5.951
104 F3 158 4.486
104 F3 159 3.021
104 F3 160 2.533
104 F3 161 3.021
104 F3 162 4.486
104 F3 163 5.951
104 F3 164 7.904
104 F3 165 8.392
104 F3 166 9.857
104 F3 167 10.834
104 F3 168 10.834
104 F3 169 10.345
104 F3 170 9.369
104 F3 171 8.392
104 F3 172 8.392
104 F3 173 9.369
104 F3 174 10.345
104 F3 175 11.322
104 F3 176 10.834
104 F3 177 9.857
104 F3 178 9.857
104 F3 179 10.345
104 F3 180 11.810
104 F3 181 12.787
104 F3 182 12.787
104 F3 183 12.299
104 F3 184 11.322
104 F3 185 10.345
104 F3 186 9.369
104 F3 187 8.392
104 F3 188 7.416
104 F3 189 6.927
104 F3 190 7.416
104 F3 191 9.369
104 F3 192 12.299
104 F3 193 14.740
104 F3 194 15.228
104 F3 195 13.763
104 F3 196 12.787
104 F3 197 11.810
104 F3 198 12.787
104 F3 199 13.763
104 F3 200 14.252
104 F3 201 13.275
104 F3 202 12.299
104 F3 203 10.834
104 F3 204 9.857
104 F3 205 9.857
104 F3 206 8.881
104 F3 207 7.416
104 F3 208 5.951
104 F3 209 4.486
104 F3 210 4.974
104 F3 211 6.439
104 F3 212 8.392
104 F3 213 9.857
104 F3 214 10.834
104 F3 215 10.345
104 F3 216 9.857
104 F3 217 10.345
104 F3 218 11.322
104 F3 219 12.787
104 F3 220 14.252
104 F3 221 14.252
104 F3 222 13.275
104 F3 223 12.299
104 F3 224 11.322
104 F3 225 10.834
104 F3 226 10.834
104 F3 227 10.834
104 F3 228 9.369
104 F3 229 6.439
104 F3 230 3.021
104 F3 231 0.580
104 F3 232 0.092
104 F3 233 0.580
104 F3 234 1.556
104 F3 235 2.045
104 F3 236 2.533
104 F3 237 3.510
104 F3 238 5.463
104 F3 239 7.904
104 F3 240 10.345
104 F3 241 11.322
104 F3 242 9.857
104 F3 243 8.392
104 F3 244 7.416
104 F3 245 8.392
104 F3 246 10.345
104 F3 247 12.787
104 F3 248 13.275
104 F3 249 12.787
104 F3 250 10.345
104 F3 251 8.392
104 F3 252 6.927
104 F3 253 5.463
104 F3 254 4.974
104 F3 255 3.998
# FC6 chan 9
104 FC6 0 -3.164
104 FC6 1 -6.582
104 FC6 2 -9.511
104 FC6 3 -10.976
104 FC6 4 -9.023
104 FC6 5 -5.605
104 FC6 6 -2.187
104 FC6 7 0.743
104 FC6 8 2.696
104 FC6 9 2.696
104 FC6 10 2.207
104 FC6 11 1.231
104 FC6 12 0.254
104 FC6 13 -0.722
104 FC6 14 -1.211
104 FC6 15 -1.699
104 FC6 16 -0.722
104 FC6 17 0.254
104 FC6 18 1.719
104 FC6 19 2.207
104 FC6 20 1.231
104 FC6 21 -1.211
104 FC6 22 -4.140
104 FC6 23 -6.582
104 FC6 24 -8.046
104 FC6 25 -8.535
104 FC6 26 -7.558
104 FC6 27 -6.582
104 FC6 28 -5.605
104 FC6 29 -6.093
104 FC6 30 -7.558
104 FC6 31 -9.511
104 FC6 32 -11.953
104 FC6 33 -12.441
104 FC6 34 -11.953
104 FC6 35 -10.000
104 FC6 36 -7.558
104 FC6 37 -5.117
104 FC6 38 -3.164
104 FC6 39 -1.211
104 FC6 40 1.719
104 FC6 41 4.161
104 FC6 42 6.114
104 FC6 43 6.602
104 FC6 44 5.625
104 FC6 45 3.672
104 FC6 46 2.207
104 FC6 47 1.231
104 FC6 48 1.231
104 FC6 49 0.254
104 FC6 50 -0.722
104 FC6 51 -2.187
104 FC6 52 -3.652
104 FC6 53 -4.628
104 FC6 54 -5.117
104 FC6 55 -5.605
104 FC6 56 -6.582
104 FC6 57 -7.558
104 FC6 58 -8.046
104 FC6 59 -8.046
104 FC6 60 -7.558
104 FC6 61 -7.558
104 FC6 62 -7.558
104 FC6 63 -7.558
104 FC6 64 -7.070
104 FC6 65 -5.605
104 FC6 66 -4.140
104 FC6 67 -2.187
104 FC6 68 -0.722
104 FC6 69 0.254
104 FC6 70 0.743
104 FC6 71 1.231
104 FC6 72 2.207
104 FC6 73 2.696
104 FC6 74 3.184
104 FC6 75 3.184
104 FC6 76 2.696
104 FC6 77 1.719
104 FC6 78 1.231
104 FC6 79 0.743
104 FC6 80 0.743
104 FC6 81 1.719
104 FC6 82 2.696
104 FC6 83 2.696
104 FC6 84 1.719
104 FC6 85 0.254
104 FC6 86 -1.211
104 FC6 87 -0.722
104 FC6 88 0.743
104 FC6 89 2.696
104 FC6 90 4.161
104 FC6 91 4.161
104 FC6 92 4.161
104 FC6 93 3.672
104 FC6 94 4.649
104 FC6 95 6.602
104 FC6 96 8.067
104 FC6 97 7.579
104 FC6 98 6.602
104 FC6 99 5.625
104 FC6 100 5.625
104 FC6 101 6.114
104 FC6 102 7.090
104 FC6 103 7.090
104 FC6 104 6.602
104 FC6 105 6.602
104 FC6 106 8.067
104 FC6 107 10.020
104 FC6 108 11.485
104 FC6 109 11.485
104 FC6 110 9.532
104 FC6 111 7.579
104 FC6 112 5.137
104 FC6 113 4.649
104 FC6 114 4.161
104 FC6 115 3.184
104 FC6 116 2.207
104 FC6 117 1.719
104 FC6 118 2.696
104 FC6 119 4.649
104 FC6 120 7.090
104 FC6 121 8.067
104 FC6 122 6.602
104 FC6 123 3.672
104 FC6 124 0.254
104 FC6 125 -2.187
104 FC6 126 -4.140
104 FC6 127 -4.628
104 FC6 128 -4.628
104 FC6 129 -4.140
104 FC6 130 -3.164
104 FC6 131 -1.699
104 FC6 132 -0.234
104 FC6 133 -0.234
104 FC6 134 -1.211
104 FC6 135 -3.164
104 FC6 136 -4.628
104 FC6 137 -4.628
104 FC6 138 -2.675
104 FC6 139 -0.234
104 FC6 140 1.719
104 FC6 141 1.719
104 FC6 142 0.743
104 FC6 143 -0.722
104 FC6 144 -1.699
104 FC6 145 -1.211
104 FC6 146 -0.722
104 FC6 147 -0.722
104 FC6 148 -1.211
104 FC6 149 -2.187
104 FC6 150 -2.675
104 FC6 151 -2.187
104 FC6 152 -1.699
104 FC6 153 -1.211
104 FC6 154 -1.699
104 FC6 155 -3.164
104 FC6 156 -4.140
104 FC6 157 -4.628
104 FC6 158 -4.628
104 FC6 159 -3.652
104 FC6 160 -2.187
104 FC6 161 -0.234
104 FC6 162 1.719
104 FC6 163 2.696
104 FC6 164 2.696
104 FC6 165 1.231
104 FC6 166 -0.234
104 FC6 167 0.254
104 FC6 168 1.231
104 FC6 169 3.672
104 FC6 170 6.114
104 FC6 171 7.579
104 FC6 172 7.579
104 FC6 173 6.114
104 FC6 174 3.184
104 FC6 175 -0.234
104 FC6 176 -3.652
104 FC6 177 -5.117
104 FC6 178 -4.628
104 FC6 179 -2.187
104 FC6 180 0.254
104 FC6 181 1.719
104 FC6 182 2.696
104 FC6 183 3.184
104 FC6 184 3.672
104 FC6 185 4.649
104 FC6 186 5.625
104 FC6 187 5.625
104 FC6 188 4.649
104 FC6 189 3.184
104 FC6 190 2.696
104 FC6 191 3.184
104 FC6 192 3.672
104 FC6 193 4.161
104 FC6 194 3.672
104 FC6 195 2.207
104 FC6 196 1.231
104 FC6 197 0.254
104 FC6 198 -0.234
104 FC6 199 -0.722
104 FC6 200 -1.211
104 FC6 201 -2.187
104 FC6 202 -2.187
104 FC6 203 -1.699
104 FC6 204 -1.211
104 FC6 205 -0.234
104 FC6 206 -0.234
104 FC6 207 -0.722
104 FC6 208 -0.722
104 FC6 209 -0.722
104 FC6 210 0.254
104 FC6 211 0.743
104 FC6 212 0.743
104 FC6 213 0.743
104 FC6 214 0.743
104 FC6 215 0.254
104 FC6 216 0.254
104 FC6 217 0.254
104 FC6 218 0.254
104 FC6 219 -0.234
104 FC6 220 -0.722
104 FC6 221 -1.211
104 FC6 222 -1.211
104 FC6 223 -0.722
104 FC6 224 0.254
104 FC6 225 1.231
104 FC6 226 1.231
104 FC6 227 -0.722
104 FC6 228 -3.164
104 FC6 229 -5.117
104 FC6 230 -6.093
104 FC6 231 -5.605
104 FC6 232 -3.164
104 FC6 233 -1.211
104 FC6 234 -0.234
104 FC6 235 -1.211
104 FC6 236 -3.164
104 FC6 237 -4.628
104 FC6 238 -5.117
104 FC6 239 -4.140
104 FC6 240 -1.699
104 FC6 241 1.231
104 FC6 242 2.207
104 FC6 243 2.207
104 FC6 244 2.696
104 FC6 245 3.184
104 FC6 246 4.649
104 FC6 247 6.114
104 FC6 248 5.625
104 FC6 249 3.672
104 FC6 250 0.743
104 FC6 251 -1.211
104 FC6 252 -1.211
104 FC6 253 -0.234
104 FC6 254 1.231
104 FC6 255 1.231
# FC5 chan 10
104 FC5 0 0.112
104 FC5 1 2.065
104 FC5 2 4.506
104 FC5 3 6.460
104 FC5 4 6.948
104 FC5 5 5.971
104 FC5 6 4.018
104 FC5 7 1.088
104 FC5 8 -1.841
104 FC5 9 -5.259
104 FC5 10 -8.677
104 FC5 11 -10.630
104 FC5 12 -10.142
104 FC5 13 -8.189
104 FC5 14 -4.283
104 FC5 15 -1.353
104 FC5 16 -0.376
104 FC5 17 -0.865
104 FC5 18 -3.306
104 FC5 19 -5.747
104 FC5 20 -7.212
104 FC5 21 -8.189
104 FC5 22 -8.189
104 FC5 23 -7.701
104 FC5 24 -6.236
104 FC5 25 -4.771
104 FC5 26 -2.818
104 FC5 27 -0.865
104 FC5 28 0.600
104 FC5 29 1.577
104 FC5 30 2.065
104 FC5 31 2.065
104 FC5 32 3.042
104 FC5 33 4.018
104 FC5 34 5.483
104 FC5 35 5.971
104 FC5 36 6.460
104 FC5 37 6.460
104 FC5 38 6.460
104 FC5 39 5.971
104 FC5 40 5.483
104 FC5 41 4.995
104 FC5 42 4.506
104 FC5 43 4.506
104 FC5 44 4.018
104 FC5 45 3.530
104 FC5 46 2.065
104 FC5 47 -0.376
104 FC5 48 -4.283
104 FC5 49 -7.212
104 FC5 50 -9.654
104 FC5 51 -10.142
104 FC5 52 -8.677
104 FC5 53 -6.724
104 FC5 54 -4.283
104 FC5 55 -1.841
104 FC5 56 0.600
104 FC5 57 2.065
104 FC5 58 3.042
104 FC5 59 4.018
104 FC5 60 4.506
104 FC5 61 4.995
104 FC5 62 5.483
104 FC5 63 6.460
104 FC5 64 7.436
104 FC5 65 8.413
104 FC5 66 9.389
104 FC5 67 9.389
104 FC5 68 9.389
104 FC5 69 7.924
104 FC5 70 5.971
104 FC5 71 3.530
104 FC5 72 1.088
104 FC5 73 0.112
104 FC5 74 0.112
104 FC5 75 0.600
104 FC5 76 1.088
104 FC5 77 1.577
104 FC5 78 1.088
104 FC5 79 0.600
104 FC5 80 0.112
104 FC5 81 0.600
104 FC5 82 1.577
104 FC5 83 3.530
104 FC5 84 5.483
104 FC5 85 6.948
104 FC5 86 7.924
104 FC5 87 8.413
104 FC5 88 7.924
104 FC5 89 7.436
104 FC5 90 7.436
104 FC5 91 8.413
104 FC5 92 9.878
104 FC5 93 11.831
104 FC5 94 12.807
104 FC5 95 12.319
104 FC5 96 10.854
104 FC5 97 9.878
104 FC5 98 8.901
104 FC5 99 8.901
104 FC5 100 8.413
104 FC5 101 7.436
104 FC5 102 5.483
104 FC5 103 4.995
104 FC5 104 5.971
104 FC5 105 7.436
104 FC5 106 8.901
104 FC5 107 8.901
104 FC5 108 7.436
104 FC5 109 6.948
104 FC5 110 7.436
104 FC5 111 10.366
104 FC5 112 13.295
104 FC5 113 15.249
104 FC5 114 14.760
104 FC5 115 12.807
104 FC5 116 10.854
104 FC5 117 9.389
104 FC5 118 7.924
104 FC5 119 7.436
104 FC5 120 5.483
104 FC5 121 3.042
104 FC5 122 0.600
104 FC5 123 0.112
104 FC5 124 0.600
104 FC5 125 2.553
104 FC5 126 4.018
104 FC5 127 4.018
104 FC5 128 3.530
104 FC5 129 2.553
104 FC5 130 2.553
104 FC5 131 4.995
104 FC5 132 7.924
104 FC5 133 9.878
104 FC5 134 10.366
104 FC5 135 8.901
104 FC5 136 7.924
104 FC5 137 6.948
104 FC5 138 7.924
104 FC5 139 8.901
104 FC5 140 9.389
104 FC5 141 8.413
104 FC5 142 5.971
104 FC5 143 3.530
104 FC5 144 2.065
104 FC5 145 1.577
104 FC5 146 1.088
104 FC5 147 0.600
104 FC5 148 -0.865
104 FC5 149 -1.353
104 FC5 150 -1.841
104 FC5 151 -2.330
104 FC5 152 -1.841
104 FC5 153 -0.865
104 FC5 154 1.088
104 FC5 155 3.530
104 FC5 156 5.971
104 FC5 157 7.436
104 FC5 158 7.436
104 FC5 159 6.948
104 FC5 160 5.483
104 FC5 161 4.995
104 FC5 162 4.995
104 FC5 163 6.460
104 FC5 164 7.436
104 FC5 165 7.924
104 FC5 166 7.436
104 FC5 167 5.971
104 FC5 168 4.018
104 FC5 169 1.577
104 FC5 170 -0.376
104 FC5 171 -1.353
104 FC5 172 -0.865
104 FC5 173 1.577
104 FC5 174 4.995
104 FC5 175 8.413
104 FC5 176 10.366
104 FC5 177 10.854
104 FC5 178 10.366
104 FC5 179 10.366
104 FC5 180 11.342
104 FC5 181 12.807
104 FC5 182 14.272
104 FC5 183 14.272
104 FC5 184 12.807
104 FC5 185 10.366
104 FC5 186 7.924
104 FC5 187 5.971
104 FC5 188 5.483
104 FC5 189 4.995
104 FC5 190 4.995
104 FC5 191 5.483
104 FC5 192 5.483
104 FC5 193 4.995
104 FC5 194 4.506
104 FC5 195 3.530
104 FC5 196 3.530
104 FC5 197 4.018
104 FC5 198 6.460
104 FC5 199 8.901
104 FC5 200 11.831
104 FC5 201 13.295
104 FC5 202 13.295
104 FC5 203 12.807
104 FC5 204 12.807
104 FC5 205 12.807
104 FC5 206 12.319
104 FC5 207 11.342
104 FC5 208 9.389
104 FC5 209 6.948
104 FC5 210 5.483
104 FC5 211 4.995
104 FC5 212 5.483
104 FC5 213 5.971
104 FC5 214 4.995
104 FC5 215 2.553
104 FC5 216 1.577
104 FC5 217 2.065
104 FC5 218 4.506
104 FC5 219 8.413
104 FC5 220 10.854
104 FC5 221 11.831
104 FC5 222 10.854
104 FC5 223 9.878
104 FC5 224 9.878
104 FC5 225 10.854
104 FC5 226 12.319
104 FC5 227 13.295
104 FC5 228 11.831
104 FC5 229 8.901
104 FC5 230 5.971
104 FC5 231 3.530
104 FC5 232 2.065
104 FC5 233 1.088
104 FC5 234 -0.376
104 FC5 235 -1.841
104 FC5 236 -3.306
104 FC5 237 -3.794
104 FC5 238 -2.330
104 FC5 239 1.088
104 FC5 240 4.995
104 FC5 241 7.436
104 FC5 242 8.413
104 FC5 243 8.901
104 FC5 244 8.901
104 FC5 245 9.389
104 FC5 246 10.854
104 FC5 247 11.831
104 FC5 248 12.319
104 FC5 249 12.319
104 FC5 250 11.831
104 FC5 251 11.831
104 FC5 252 12.319
104 FC5 253 12.807
104 FC5 254 12.807
104 FC5 255 12.319
# FC2 chan 11
104 FC2 0 -2.238
104 FC2 1 -4.191
104 FC2 2 -6.144
104 FC2 3 -7.121
104 FC2 4 -7.121
104 FC2 5 -6.144
104 FC2 6 -4.191
104 FC2 7 -2.726
104 FC2 8 -1.750
104 FC2 9 -0.773
104 FC2 10 -0.285
104 FC2 11 -0.285
104 FC2 12 0.203
104 FC2 13 0.203
104 FC2 14 -0.285
104 FC2 15 -0.773
104 FC2 16 -0.773
104 FC2 17 -0.773
104 FC2 18 -0.285
104 FC2 19 -0.285
104 FC2 20 -1.261
104 FC2 21 -2.726
104 FC2 22 -4.191
104 FC2 23 -5.168
104 FC2 24 -5.656
104 FC2 25 -5.656
104 FC2 26 -5.168
104 FC2 27 -4.679
104 FC2 28 -4.679
104 FC2 29 -5.168
104 FC2 30 -5.656
104 FC2 31 -6.632
104 FC2 32 -8.097
104 FC2 33 -8.097
104 FC2 34 -7.609
104 FC2 35 -6.632
104 FC2 36 -5.656
104 FC2 37 -5.168
104 FC2 38 -5.656
104 FC2 39 -5.656
104 FC2 40 -5.656
104 FC2 41 -4.191
104 FC2 42 -2.238
104 FC2 43 -1.261
104 FC2 44 -1.261
104 FC2 45 -3.215
104 FC2 46 -5.168
104 FC2 47 -6.632
104 FC2 48 -6.144
104 FC2 49 -4.679
104 FC2 50 -3.215
104 FC2 51 -2.726
104 FC2 52 -2.726
104 FC2 53 -3.703
104 FC2 54 -3.703
104 FC2 55 -4.191
104 FC2 56 -4.191
104 FC2 57 -4.679
104 FC2 58 -5.656
104 FC2 59 -6.144
104 FC2 60 -6.632
104 FC2 61 -6.144
104 FC2 62 -6.144
104 FC2 63 -6.144
104 FC2 64 -6.144
104 FC2 65 -6.144
104 FC2 66 -6.144
104 FC2 67 -5.168
104 FC2 68 -4.191
104 FC2 69 -2.726
104 FC2 70 -2.238
104 FC2 71 -2.238
104 FC2 72 -2.238
104 FC2 73 -2.238
104 FC2 74 -1.261
104 FC2 75 -0.285
104 FC2 76 0.692
104 FC2 77 1.180
104 FC2 78 0.203
104 FC2 79 -0.773
104 FC2 80 -1.750
104 FC2 81 -1.750
104 FC2 82 -1.750
104 FC2 83 -1.261
104 FC2 84 -1.750
104 FC2 85 -1.750
104 FC2 86 -2.238
104 FC2 87 -2.726
104 FC2 88 -2.726
104 FC2 89 -2.726
104 FC2 90 -2.238
104 FC2 91 -1.750
104 FC2 92 -0.773
104 FC2 93 0.203
104 FC2 94 1.180
104 FC2 95 2.157
104 FC2 96 2.645
104 FC2 97 2.645
104 FC2 98 2.157
104 FC2 99 1.668
104 FC2 100 2.157
104 FC2 101 2.157
104 FC2 102 2.157
104 FC2 103 2.157
104 FC2 104 1.668
104 FC2 105 2.157
104 FC2 106 3.133
104 FC2 107 4.598
104 FC2 108 5.575
104 FC2 109 5.575
104 FC2 110 4.598
104 FC2 111 3.133
104 FC2 112 2.157
104 FC2 113 2.157
104 FC2 114 1.668
104 FC2 115 1.668
104 FC2 116 0.692
104 FC2 117 0.203
104 FC2 118 0.692
104 FC2 119 2.157
104 FC2 120 4.598
104 FC2 121 6.063
104 FC2 122 6.551
104 FC2 123 5.575
104 FC2 124 4.110
104 FC2 125 2.645
104 FC2 126 1.668
104 FC2 127 0.692
104 FC2 128 -0.285
104 FC2 129 -0.773
104 FC2 130 -0.285
104 FC2 131 -0.285
104 FC2 132 0.692
104 FC2 133 0.692
104 FC2 134 -0.285
104 FC2 135 -1.750
104 FC2 136 -3.215
104 FC2 137 -3.215
104 FC2 138 -2.726
104 FC2 139 -1.750
104 FC2 140 -1.261
104 FC2 141 -1.261
104 FC2 142 -1.261
104 FC2 143 -1.261
104 FC2 144 -0.773
104 FC2 145 0.203
104 FC2 146 1.180
104 FC2 147 1.180
104 FC2 148 0.203
104 FC2 149 -0.773
104 FC2 150 -1.750
104 FC2 151 -1.750
104 FC2 152 -1.750
104 FC2 153 -1.750
104 FC2 154 -1.750
104 FC2 155 -2.726
104 FC2 156 -3.215
104 FC2 157 -4.191
104 FC2 158 -4.191
104 FC2 159 -3.703
104 FC2 160 -2.726
104 FC2 161 -1.261
104 FC2 162 0.692
104 FC2 163 2.157
104 FC2 164 2.645
104 FC2 165 3.133
104 FC2 166 3.133
104 FC2 167 4.110
104 FC2 168 5.086
104 FC2 169 6.063
104 FC2 170 6.551
104 FC2 171 6.551
104 FC2 172 6.063
104 FC2 173 5.086
104 FC2 174 3.133
104 FC2 175 1.180
104 FC2 176 -1.261
104 FC2 177 -2.726
104 FC2 178 -3.703
104 FC2 179 -3.215
104 FC2 180 -2.726
104 FC2 181 -1.750
104 FC2 182 -0.773
104 FC2 183 -0.773
104 FC2 184 -0.285
104 FC2 185 0.203
104 FC2 186 0.692
104 FC2 187 0.692
104 FC2 188 0.692
104 FC2 189 0.203
104 FC2 190 0.692
104 FC2 191 2.157
104 FC2 192 4.110
104 FC2 193 5.086
104 FC2 194 5.575
104 FC2 195 4.598
104 FC2 196 3.621
104 FC2 197 2.645
104 FC2 198 2.645
104 FC2 199 2.157
104 FC2 200 1.668
104 FC2 201 0.692
104 FC2 202 -0.773
104 FC2 203 -2.238
104 FC2 204 -2.726
104 FC2 205 -2.726
104 FC2 206 -2.726
104 FC2 207 -2.238
104 FC2 208 -2.238
104 FC2 209 -2.238
104 FC2 210 -1.750
104 FC2 211 -1.261
104 FC2 212 -0.773
104 FC2 213 -0.285
104 FC2 214 0.203
104 FC2 215 0.692
104 FC2 216 0.692
104 FC2 217 0.203
104 FC2 218 -0.773
104 FC2 219 -2.238
104 FC2 220 -2.726
104 FC2 221 -2.726
104 FC2 222 -1.261
104 FC2 223 0.203
104 FC2 224 0.692
104 FC2 225 0.692
104 FC2 226 -0.285
104 FC2 227 -2.238
104 FC2 228 -3.703
104 FC2 229 -5.168
104 FC2 230 -5.168
104 FC2 231 -4.679
104 FC2 232 -3.703
104 FC2 233 -2.238
104 FC2 234 -1.261
104 FC2 235 -1.261
104 FC2 236 -1.750
104 FC2 237 -2.238
104 FC2 238 -2.238
104 FC2 239 -2.238
104 FC2 240 -1.261
104 FC2 241 -0.773
104 FC2 242 -0.285
104 FC2 243 -0.285
104 FC2 244 -0.285
104 FC2 245 0.203
104 FC2 246 1.180
104 FC2 247 1.180
104 FC2 248 1.180
104 FC2 249 -0.773
104 FC2 250 -2.726
104 FC2 251 -4.679
104 FC2 252 -5.656
104 FC2 253 -6.144
104 FC2 254 -6.144
104 FC2 255 -6.632
# FC1 chan 12
104 FC1 0 4.751
104 FC1 1 5.239
104 FC1 2 5.239
104 FC1 3 4.751
104 FC1 4 3.774
104 FC1 5 1.821
104 FC1 6 -0.132
104 FC1 7 -1.597
104 FC1 8 -2.574
104 FC1 9 -3.062
104 FC1 10 -3.062
104 FC1 11 -3.062
104 FC1 12 -3.062
104 FC1 13 -2.574
104 FC1 14 -1.597
104 FC1 15 -1.109
104 FC1 16 -0.621
104 FC1 17 -0.621
104 FC1 18 -0.621
104 FC1 19 -1.597
104 FC1 20 -2.085
104 FC1 21 -2.085
104 FC1 22 -1.109
104 FC1 23 -0.132
104 FC1 24 0.844
104 FC1 25 1.333
104 FC1 26 1.333
104 FC1 27 0.844
104 FC1 28 0.356
104 FC1 29 0.356
104 FC1 30 0.356
104 FC1 31 -0.132
104 FC1 32 -0.132
104 FC1 33 0.356
104 FC1 34 1.333
104 FC1 35 2.309
104 FC1 36 3.774
104 FC1 37 4.262
104 FC1 38 3.774
104 FC1 39 2.309
104 FC1 40 1.333
104 FC1 41 1.333
104 FC1 42 1.821
104 FC1 43 2.797
104 FC1 44 2.797
104 FC1 45 1.821
104 FC1 46 -0.132
104 FC1 47 -1.597
104 FC1 48 -3.062
104 FC1 49 -3.550
104 FC1 50 -3.062
104 FC1 51 -2.574
104 FC1 52 -1.597
104 FC1 53 -0.621
104 FC1 54 0.844
104 FC1 55 3.286
104 FC1 56 4.262
104 FC1 57 4.751
104 FC1 58 3.774
104 FC1 59 3.286
104 FC1 60 3.286
104 FC1 61 3.774
104 FC1 62 4.262
104 FC1 63 4.751
104 FC1 64 4.262
104 FC1 65 3.774
104 FC1 66 2.797
104 FC1 67 2.797
104 FC1 68 3.286
104 FC1 69 2.797
104 FC1 70 2.309
104 FC1 71 0.844
104 FC1 72 -0.132
104 FC1 73 -0.132
104 FC1 74 0.356
104 FC1 75 1.333
104 FC1 76 1.821
104 FC1 77 1.333
104 FC1 78 -0.132
104 FC1 79 -1.597
104 FC1 80 -3.062
104 FC1 81 -3.062
104 FC1 82 -2.085
104 FC1 83 -0.621
104 FC1 84 1.333
104 FC1 85 2.309
104 FC1 86 2.309
104 FC1 87 1.333
104 FC1 88 -0.621
104 FC1 89 -1.597
104 FC1 90 -2.085
104 FC1 91 -1.109
104 FC1 92 0.844
104 FC1 93 2.309
104 FC1 94 3.774
104 FC1 95 4.751
104 FC1 96 4.751
104 FC1 97 4.262
104 FC1 98 3.774
104 FC1 99 3.286
104 FC1 100 2.309
104 FC1 101 1.333
104 FC1 102 0.844
104 FC1 103 0.844
104 FC1 104 1.821
104 FC1 105 3.774
104 FC1 106 5.239
104 FC1 107 6.215
104 FC1 108 6.215
104 FC1 109 5.239
104 FC1 110 4.751
104 FC1 111 4.751
104 FC1 112 5.727
104 FC1 113 6.704
104 FC1 114 7.192
104 FC1 115 6.704
104 FC1 116 5.727
104 FC1 117 5.239
104 FC1 118 4.751
104 FC1 119 4.751
104 FC1 120 4.751
104 FC1 121 4.262
104 FC1 122 3.774
104 FC1 123 3.286
104 FC1 124 3.774
104 FC1 125 4.262
104 FC1 126 5.239
104 FC1 127 5.239
104 FC1 128 4.751
104 FC1 129 3.774
104 FC1 130 2.797
104 FC1 131 2.797
104 FC1 132 3.286
104 FC1 133 4.262
104 FC1 134 3.774
104 FC1 135 2.797
104 FC1 136 0.844
104 FC1 137 -0.132
104 FC1 138 -0.132
104 FC1 139 0.844
104 FC1 140 1.333
104 FC1 141 1.821
104 FC1 142 1.821
104 FC1 143 0.844
104 FC1 144 0.356
104 FC1 145 0.356
104 FC1 146 0.844
104 FC1 147 0.844
104 FC1 148 0.844
104 FC1 149 -0.132
104 FC1 150 -0.621
104 FC1 151 -1.109
104 FC1 152 -0.621
104 FC1 153 0.356
104 FC1 154 1.821
104 FC1 155 2.797
104 FC1 156 2.797
104 FC1 157 2.309
104 FC1 158 1.333
104 FC1 159 0.356
104 FC1 160 -0.132
104 FC1 161 -0.132
104 FC1 162 0.356
104 FC1 163 1.333
104 FC1 164 2.309
104 FC1 165 3.774
104 FC1 166 4.751
104 FC1 167 5.727
104 FC1 168 6.215
104 FC1 169 5.727
104 FC1 170 4.751
104 FC1 171 4.262
104 FC1 172 4.262
104 FC1 173 4.751
104 FC1 174 5.727
104 FC1 175 6.215
104 FC1 176 6.215
104 FC1 177 5.727
104 FC1 178 5.239
104 FC1 179 5.239
104 FC1 180 5.239
104 FC1 181 5.727
104 FC1 182 5.727
104 FC1 183 5.727
104 FC1 184 5.239
104 FC1 185 4.751
104 FC1 186 4.262
104 FC1 187 3.774
104 FC1 188 3.286
104 FC1 189 2.797
104 FC1 190 3.286
104 FC1 191 3.774
104 FC1 192 4.751
104 FC1 193 5.239
104 FC1 194 5.239
104 FC1 195 5.239
104 FC1 196 5.239
104 FC1 197 6.215
104 FC1 198 7.192
104 FC1 199 8.169
104 FC1 200 8.169
104 FC1 201 7.680
104 FC1 202 6.215
104 FC1 203 5.727
104 FC1 204 5.239
104 FC1 205 5.239
104 FC1 206 4.751
104 FC1 207 4.262
104 FC1 208 3.286
104 FC1 209 2.309
104 FC1 210 1.821
104 FC1 211 2.797
104 FC1 212 3.774
104 FC1 213 4.751
104 FC1 214 5.727
104 FC1 215 6.215
104 FC1 216 5.727
104 FC1 217 6.215
104 FC1 218 6.704
104 FC1 219 7.680
104 FC1 220 8.169
104 FC1 221 8.169
104 FC1 222 7.192
104 FC1 223 6.215
104 FC1 224 5.727
104 FC1 225 5.727
104 FC1 226 5.727
104 FC1 227 5.727
104 FC1 228 4.262
104 FC1 229 2.309
104 FC1 230 -0.132
104 FC1 231 -1.109
104 FC1 232 -1.109
104 FC1 233 -0.621
104 FC1 234 0.356
104 FC1 235 0.844
104 FC1 236 0.844
104 FC1 237 1.333
104 FC1 238 2.797
104 FC1 239 4.262
104 FC1 240 5.239
104 FC1 241 5.239
104 FC1 242 4.751
104 FC1 243 3.774
104 FC1 244 3.774
104 FC1 245 4.262
104 FC1 246 5.239
104 FC1 247 5.727
104 FC1 248 5.727
104 FC1 249 5.239
104 FC1 250 4.262
104 FC1 251 3.774
104 FC1 252 2.797
104 FC1 253 2.309
104 FC1 254 1.821
104 FC1 255 1.333
# T8 chan 13
104 T8 0 -2.543
104 T8 1 -2.543
104 T8 2 -3.520
104 T8 3 -4.496
104 T8 4 -5.473
104 T8 5 -5.473
104 T8 6 -4.496
104 T8 7 -2.543
104 T8 8 -0.102
104 T8 9 2.828
104 T8 10 4.293
104 T8 11 3.316
104 T8 12 0.387
104 T8 13 -3.520
104 T8 14 -6.938
104 T8 15 -8.403
104 T8 16 -7.426
104 T8 17 -4.985
104 T8 18 -3.031
104 T8 19 -2.055
104 T8 20 -2.543
104 T8 21 -3.520
104 T8 22 -3.520
104 T8 23 -3.520
104 T8 24 -4.008
104 T8 25 -5.473
104 T8 26 -7.914
104 T8 27 -10.356
104 T8 28 -11.332
104 T8 29 -11.332
104 T8 30 -10.844
104 T8 31 -9.379
104 T8 32 -8.891
104 T8 33 -8.403
104 T8 34 -7.914
104 T8 35 -7.426
104 T8 36 -5.961
104 T8 37 -4.008
104 T8 38 -1.078
104 T8 39 1.851
104 T8 40 4.781
104 T8 41 7.222
104 T8 42 9.176
104 T8 43 10.152
104 T8 44 9.176
104 T8 45 6.734
104 T8 46 3.805
104 T8 47 0.875
104 T8 48 -1.078
104 T8 49 -2.055
104 T8 50 -4.008
104 T8 51 -6.938
104 T8 52 -10.844
104 T8 53 -15.238
104 T8 54 -17.192
104 T8 55 -16.703
104 T8 56 -13.774
104 T8 57 -10.844
104 T8 58 -9.379
104 T8 59 -9.867
104 T8 60 -10.844
104 T8 61 -11.820
104 T8 62 -11.820
104 T8 63 -10.844
104 T8 64 -9.867
104 T8 65 -8.891
104 T8 66 -6.449
104 T8 67 -2.543
104 T8 68 2.340
104 T8 69 6.246
104 T8 70 7.222
104 T8 71 5.269
104 T8 72 1.851
104 T8 73 -1.078
104 T8 74 -2.055
104 T8 75 -2.543
104 T8 76 -3.520
104 T8 77 -4.496
104 T8 78 -4.496
104 T8 79 -2.055
104 T8 80 1.851
104 T8 81 4.781
104 T8 82 4.781
104 T8 83 1.851
104 T8 84 -3.031
104 T8 85 -5.961
104 T8 86 -5.473
104 T8 87 -0.590
104 T8 88 5.758
104 T8 89 11.129
104 T8 90 12.594
104 T8 91 10.640
104 T8 92 6.246
104 T8 93 2.340
104 T8 94 1.363
104 T8 95 2.340
104 T8 96 5.269
104 T8 97 7.711
104 T8 98 9.176
104 T8 99 8.687
104 T8 100 7.222
104 T8 101 5.758
104 T8 102 4.293
104 T8 103 3.316
104 T8 104 2.828
104 T8 105 1.851
104 T8 106 1.851
104 T8 107 2.340
104 T8 108 3.316
104 T8 109 5.269
104 T8 110 7.222
104 T8 111 8.687
104 T8 112 8.199
104 T8 113 6.734
104 T8 114 3.805
104 T8 115 0.875
104 T8 116 -1.078
104 T8 117 -1.567
104 T8 118 -1.078
104 T8 119 1.363
104 T8 120 3.805
104 T8 121 5.758
104 T8 122 4.781
104 T8 123 0.387
104 T8 124 -5.961
104 T8 125 -11.820
104 T8 126 -15.238
104 T8 127 -15.238
104 T8 128 -11.820
104 T8 129 -7.426
104 T8 130 -2.543
104 T8 131 0.875
104 T8 132 2.340
104 T8 133 1.851
104 T8 134 -0.590
104 T8 135 -3.031
104 T8 136 -4.496
104 T8 137 -4.008
104 T8 138 -1.567
104 T8 139 0.875
104 T8 140 2.828
104 T8 141 2.828
104 T8 142 2.340
104 T8 143 0.387
104 T8 144 -1.078
104 T8 145 -2.543
104 T8 146 -4.008
104 T8 147 -5.473
104 T8 148 -5.961
104 T8 149 -5.961
104 T8 150 -4.008
104 T8 151 -1.567
104 T8 152 -0.102
104 T8 153 -0.102
104 T8 154 -2.055
104 T8 155 -5.961
104 T8 156 -9.379
104 T8 157 -10.844
104 T8 158 -10.356
104 T8 159 -7.426
104 T8 160 -3.520
104 T8 161 0.875
104 T8 162 3.316
104 T8 163 3.316
104 T8 164 0.875
104 T8 165 -2.543
104 T8 166 -5.961
104 T8 167 -6.938
104 T8 168 -6.449
104 T8 169 -4.496
104 T8 170 -1.567
104 T8 171 1.363
104 T8 172 3.316
104 T8 173 3.805
104 T8 174 1.851
104 T8 175 -2.543
104 T8 176 -6.449
104 T8 177 -8.403
104 T8 178 -7.426
104 T8 179 -4.008
104 T8 180 -0.590
104 T8 181 1.851
104 T8 182 3.805
104 T8 183 4.781
104 T8 184 5.758
104 T8 185 6.246
104 T8 186 5.758
104 T8 187 4.781
104 T8 188 3.316
104 T8 189 2.828
104 T8 190 2.340
104 T8 191 1.851
104 T8 192 -0.102
104 T8 193 -2.055
104 T8 194 -2.543
104 T8 195 -1.078
104 T8 196 1.363
104 T8 197 1.851
104 T8 198 -0.102
104 T8 199 -3.520
104 T8 200 -5.961
104 T8 201 -6.449
104 T8 202 -5.473
104 T8 203 -3.520
104 T8 204 -3.031
104 T8 205 -2.543
104 T8 206 -2.543
104 T8 207 -1.567
104 T8 208 -0.102
104 T8 209 0.387
104 T8 210 0.387
104 T8 211 -0.590
104 T8 212 -1.567
104 T8 213 -2.055
104 T8 214 -2.543
104 T8 215 -3.031
104 T8 216 -2.543
104 T8 217 -1.567
104 T8 218 -0.590
104 T8 219 -0.102
104 T8 220 -0.590
104 T8 221 -2.543
104 T8 222 -3.520
104 T8 223 -3.031
104 T8 224 -1.567
104 T8 225 -0.102
104 T8 226 -0.590
104 T8 227 -2.055
104 T8 228 -4.008
104 T8 229 -4.008
104 T8 230 -2.055
104 T8 231 0.387
104 T8 232 1.363
104 T8 233 -0.590
104 T8 234 -4.008
104 T8 235 -7.426
104 T8 236 -8.891
104 T8 237 -8.891
104 T8 238 -7.914
104 T8 239 -6.449
104 T8 240 -4.985
104 T8 241 -3.520
104 T8 242 -1.567
104 T8 243 -0.102
104 T8 244 0.875
104 T8 245 1.851
104 T8 246 2.828
104 T8 247 4.293
104 T8 248 6.246
104 T8 249 6.246
104 T8 250 5.269
104 T8 251 3.316
104 T8 252 2.340
104 T8 253 2.828
104 T8 254 4.293
104 T8 255 4.781
# T7 chan 14
104 T7 0 -4.405
104 T7 1 -3.916
104 T7 2 -0.010
104 T7 3 5.849
104 T7 4 11.220
104 T7 5 14.150
104 T7 6 12.685
104 T7 7 6.826
104 T7 8 -0.498
104 T7 9 -6.846
104 T7 10 -10.752
104 T7 11 -11.729
104 T7 12 -10.752
104 T7 13 -9.288
104 T7 14 -6.846
104 T7 15 -3.916
104 T7 16 -0.987
104 T7 17 0.966
104 T7 18 -0.010
104 T7 19 -4.893
104 T7 20 -11.729
104 T7 21 -16.612
104 T7 22 -17.100
104 T7 23 -13.194
104 T7 24 -7.334
104 T7 25 -3.916
104 T7 26 -3.428
104 T7 27 -4.893
104 T7 28 -4.893
104 T7 29 -1.475
104 T7 30 4.384
104 T7 31 9.755
104 T7 32 12.197
104 T7 33 11.220
104 T7 34 9.267
104 T7 35 8.779
104 T7 36 10.732
104 T7 37 14.150
104 T7 38 16.591
104 T7 39 16.591
104 T7 40 15.127
104 T7 41 12.685
104 T7 42 10.244
104 T7 43 7.802
104 T7 44 4.384
104 T7 45 0.966
104 T7 46 -1.963
104 T7 47 -3.916
104 T7 48 -4.893
104 T7 49 -6.358
104 T7 50 -8.311
104 T7 51 -11.241
104 T7 52 -13.194
104 T7 53 -12.705
104 T7 54 -8.799
104 T7 55 -3.428
104 T7 56 1.943
104 T7 57 4.873
104 T7 58 4.384
104 T7 59 2.431
104 T7 60 -0.010
104 T7 61 -0.498
104 T7 62 1.455
104 T7 63 4.384
104 T7 64 7.802
104 T7 65 11.220
104 T7 66 14.638
104 T7 67 17.568
104 T7 68 20.009
104 T7 69 20.009
104 T7 70 15.615
104 T7 71 8.291
104 T7 72 1.455
104 T7 73 -2.452
104 T7 74 -1.963
104 T7 75 1.455
104 T7 76 4.384
104 T7 77 5.361
104 T7 78 3.896
104 T7 79 1.943
104 T7 80 1.455
104 T7 81 2.431
104 T7 82 3.896
104 T7 83 4.384
104 T7 84 4.384
104 T7 85 4.384
104 T7 86 5.361
104 T7 87 8.291
104 T7 88 11.709
104 T7 89 14.638
104 T7 90 16.103
104 T7 91 15.615
104 T7 92 13.662
104 T7 93 12.685
104 T7 94 12.685
104 T7 95 14.638
104 T7 96 16.103
104 T7 97 16.103
104 T7 98 12.197
104 T7 99 6.337
104 T7 100 0.966
104 T7 101 -1.963
104 T7 102 -0.498
104 T7 103 3.896
104 T7 104 9.267
104 T7 105 12.197
104 T7 106 11.709
104 T7 107 7.802
104 T7 108 2.920
104 T7 109 -0.498
104 T7 110 -0.010
104 T7 111 4.873
104 T7 112 11.220
104 T7 113 16.591
104 T7 114 18.056
104 T7 115 15.615
104 T7 116 11.220
104 T7 117 6.826
104 T7 118 4.873
104 T7 119 4.873
104 T7 120 4.384
104 T7 121 3.408
104 T7 122 -0.010
104 T7 123 -3.428
104 T7 124 -6.846
104 T7 125 -7.823
104 T7 126 -6.846
104 T7 127 -4.893
104 T7 128 -2.452
104 T7 129 -0.010
104 T7 130 2.431
104 T7 131 5.361
104 T7 132 7.802
104 T7 133 9.267
104 T7 134 9.267
104 T7 135 6.826
104 T7 136 4.873
104 T7 137 4.384
104 T7 138 6.826
104 T7 139 10.732
104 T7 140 14.638
104 T7 141 15.615
104 T7 142 12.685
104 T7 143 6.337
104 T7 144 -0.498
104 T7 145 -5.381
104 T7 146 -8.311
104 T7 147 -8.311
104 T7 148 -7.334
104 T7 149 -6.358
104 T7 150 -6.358
104 T7 151 -7.334
104 T7 152 -8.311
104 T7 153 -7.823
104 T7 154 -4.405
104 T7 155 1.455
104 T7 156 7.314
104 T7 157 10.732
104 T7 158 9.755
104 T7 159 4.873
104 T7 160 -0.010
104 T7 161 -2.940
104 T7 162 -2.452
104 T7 163 0.478
104 T7 164 3.896
104 T7 165 6.826
104 T7 166 7.314
104 T7 167 5.849
104 T7 168 3.408
104 T7 169 -0.498
104 T7 170 -4.405
104 T7 171 -6.358
104 T7 172 -6.358
104 T7 173 -3.916
104 T7 174 -0.987
104 T7 175 0.966
104 T7 176 1.455
104 T7 177 0.478
104 T7 178 -0.987
104 T7 179 -0.498
104 T7 180 2.920
104 T7 181 9.267
104 T7 182 17.568
104 T7 183 23.427
104 T7 184 24.404
104 T7 185 19.033
104 T7 186 9.755
104 T7 187 1.455
104 T7 188 -2.940
104 T7 189 -2.452
104 T7 190 0.966
104 T7 191 3.408
104 T7 192 2.431
104 T7 193 -1.963
104 T7 194 -7.334
104 T7 195 -9.776
104 T7 196 -7.823
104 T7 197 -3.428
104 T7 198 0.966
104 T7 199 4.384
104 T7 200 6.337
104 T7 201 7.802
104 T7 202 10.244
104 T7 203 13.662
104 T7 204 15.615
104 T7 205 15.127
104 T7 206 12.197
104 T7 207 9.267
104 T7 208 8.291
104 T7 209 9.755
104 T7 210 11.220
104 T7 211 9.267
104 T7 212 3.408
104 T7 213 -5.381
104 T7 214 -11.729
104 T7 215 -13.194
104 T7 216 -11.241
104 T7 217 -7.334
104 T7 218 -4.405
104 T7 219 -1.963
104 T7 220 1.455
104 T7 221 7.314
104 T7 222 12.685
104 T7 223 16.103
104 T7 224 15.615
104 T7 225 11.220
104 T7 226 6.826
104 T7 227 4.384
104 T7 228 5.361
104 T7 229 7.314
104 T7 230 7.802
104 T7 231 6.337
104 T7 232 2.431
104 T7 233 -1.475
104 T7 234 -3.916
104 T7 235 -3.916
104 T7 236 -3.916
104 T7 237 -3.916
104 T7 238 -5.381
104 T7 239 -6.846
104 T7 240 -6.358
104 T7 241 -2.452
104 T7 242 2.920
104 T7 243 8.291
104 T7 244 11.709
104 T7 245 11.709
104 T7 246 9.267
104 T7 247 6.826
104 T7 248 6.337
104 T7 249 7.802
104 T7 250 10.244
104 T7 251 12.197
104 T7 252 13.662
104 T7 253 15.127
104 T7 254 17.080
104 T7 255 18.545
# CZ chan 15
104 CZ 0 -11.943
104 CZ 1 -13.407
104 CZ 2 -12.919
104 CZ 3 -10.966
104 CZ 4 -7.060
104 CZ 5 -3.153
104 CZ 6 -0.224
104 CZ 7 1.241
104 CZ 8 1.241
104 CZ 9 -0.224
104 CZ 10 -1.689
104 CZ 11 -3.153
104 CZ 12 -3.153
104 CZ 13 -3.153
104 CZ 14 -2.177
104 CZ 15 -1.689
104 CZ 16 -1.200
104 CZ 17 -0.712
104 CZ 18 -1.200
104 CZ 19 -3.153
104 CZ 20 -5.595
104 CZ 21 -9.501
104 CZ 22 -13.407
104 CZ 23 -16.825
104 CZ 24 -18.778
104 CZ 25 -18.778
104 CZ 26 -16.825
104 CZ 27 -14.384
104 CZ 28 -11.454
104 CZ 29 -9.013
104 CZ 30 -7.060
104 CZ 31 -5.107
104 CZ 32 -2.665
104 CZ 33 -0.712
104 CZ 34 0.753
104 CZ 35 2.218
104 CZ 36 4.171
104 CZ 37 6.612
104 CZ 38 9.542
104 CZ 39 13.448
104 CZ 40 16.378
104 CZ 41 18.819
104 CZ 42 20.284
104 CZ 43 19.796
104 CZ 44 17.354
104 CZ 45 13.936
104 CZ 46 10.518
104 CZ 47 6.612
104 CZ 48 3.194
104 CZ 49 0.753
104 CZ 50 -1.689
104 CZ 51 -4.130
104 CZ 52 -7.060
104 CZ 53 -10.478
104 CZ 54 -12.919
104 CZ 55 -13.896
104 CZ 56 -12.919
104 CZ 57 -9.989
104 CZ 58 -7.060
104 CZ 59 -5.595
104 CZ 60 -5.595
104 CZ 61 -7.060
104 CZ 62 -8.525
104 CZ 63 -8.525
104 CZ 64 -6.083
104 CZ 65 -1.689
104 CZ 66 4.659
104 CZ 67 10.518
104 CZ 68 14.913
104 CZ 69 16.866
104 CZ 70 15.889
104 CZ 71 12.960
104 CZ 72 10.518
104 CZ 73 10.030
104 CZ 74 11.007
104 CZ 75 12.960
104 CZ 76 14.425
104 CZ 77 13.936
104 CZ 78 11.983
104 CZ 79 11.007
104 CZ 80 11.007
104 CZ 81 12.472
104 CZ 82 13.936
104 CZ 83 13.448
104 CZ 84 11.007
104 CZ 85 8.565
104 CZ 86 8.077
104 CZ 87 10.518
104 CZ 88 14.913
104 CZ 89 17.843
104 CZ 90 18.819
104 CZ 91 17.354
104 CZ 92 16.378
104 CZ 93 17.843
104 CZ 94 21.261
104 CZ 95 25.655
104 CZ 96 28.097
104 CZ 97 27.120
104 CZ 98 25.167
104 CZ 99 23.702
104 CZ 100 23.702
104 CZ 101 25.167
104 CZ 102 26.632
104 CZ 103 27.120
104 CZ 104 26.632
104 CZ 105 25.655
104 CZ 106 24.190
104 CZ 107 20.772
104 CZ 108 16.378
104 CZ 109 11.983
104 CZ 110 10.030
104 CZ 111 11.495
104 CZ 112 15.401
104 CZ 113 19.796
104 CZ 114 22.725
104 CZ 115 22.237
104 CZ 116 19.796
104 CZ 117 16.378
104 CZ 118 14.913
104 CZ 119 14.425
104 CZ 120 14.425
104 CZ 121 13.936
104 CZ 122 11.983
104 CZ 123 9.054
104 CZ 124 6.124
104 CZ 125 3.682
104 CZ 126 2.706
104 CZ 127 2.218
104 CZ 128 2.218
104 CZ 129 3.682
104 CZ 130 6.612
104 CZ 131 11.007
104 CZ 132 14.913
104 CZ 133 16.866
104 CZ 134 16.378
104 CZ 135 14.425
104 CZ 136 12.960
104 CZ 137 12.960
104 CZ 138 14.913
104 CZ 139 17.843
104 CZ 140 19.307
104 CZ 141 19.796
104 CZ 142 18.819
104 CZ 143 17.843
104 CZ 144 16.378
104 CZ 145 14.425
104 CZ 146 11.983
104 CZ 147 9.542
104 CZ 148 9.054
104 CZ 149 9.542
104 CZ 150 10.518
104 CZ 151 10.518
104 CZ 152 9.054
104 CZ 153 7.100
104 CZ 154 6.124
104 CZ 155 7.589
104 CZ 156 9.542
104 CZ 157 10.518
104 CZ 158 10.030
104 CZ 159 9.054
104 CZ 160 10.518
104 CZ 161 14.425
104 CZ 162 19.796
104 CZ 163 23.214
104 CZ 164 23.702
104 CZ 165 20.284
104 CZ 166 15.889
104 CZ 167 12.472
104 CZ 168 10.518
104 CZ 169 10.030
104 CZ 170 10.030
104 CZ 171 11.007
104 CZ 172 13.448
104 CZ 173 16.378
104 CZ 174 19.307
104 CZ 175 20.284
104 CZ 176 19.307
104 CZ 177 18.331
104 CZ 178 18.819
104 CZ 179 23.214
104 CZ 180 28.585
104 CZ 181 32.979
104 CZ 182 34.444
104 CZ 183 32.491
104 CZ 184 29.561
104 CZ 185 28.097
104 CZ 186 28.097
104 CZ 187 29.561
104 CZ 188 30.050
104 CZ 189 29.073
104 CZ 190 27.608
104 CZ 191 26.632
104 CZ 192 26.632
104 CZ 193 26.143
104 CZ 194 25.655
104 CZ 195 24.190
104 CZ 196 23.214
104 CZ 197 23.214
104 CZ 198 23.702
104 CZ 199 24.679
104 CZ 200 24.679
104 CZ 201 24.190
104 CZ 202 24.190
104 CZ 203 25.167
104 CZ 204 26.143
104 CZ 205 26.143
104 CZ 206 24.190
104 CZ 207 21.749
104 CZ 208 20.284
104 CZ 209 21.261
104 CZ 210 24.190
104 CZ 211 27.120
104 CZ 212 28.585
104 CZ 213 27.608
104 CZ 214 25.655
104 CZ 215 24.190
104 CZ 216 24.190
104 CZ 217 26.143
104 CZ 218 28.585
104 CZ 219 30.538
104 CZ 220 31.514
104 CZ 221 32.491
104 CZ 222 33.468
104 CZ 223 35.421
104 CZ 224 38.350
104 CZ 225 39.327
104 CZ 226 38.839
104 CZ 227 36.886
104 CZ 228 33.956
104 CZ 229 31.514
104 CZ 230 29.561
104 CZ 231 26.143
104 CZ 232 22.237
104 CZ 233 17.354
104 CZ 234 11.983
104 CZ 235 8.077
104 CZ 236 6.124
104 CZ 237 7.589
104 CZ 238 12.960
104 CZ 239 22.725
104 CZ 240 34.444
104 CZ 241 42.745
104 CZ 242 42.745
104 CZ 243 34.444
104 CZ 244 23.214
104 CZ 245 15.889
104 CZ 246 17.843
104 CZ 247 26.632
104 CZ 248 33.956
104 CZ 249 33.956
104 CZ 250 26.143
104 CZ 251 16.866
104 CZ 252 13.936
104 CZ 253 20.284
104 CZ 254 30.538
104 CZ 255 38.839
# C3 chan 16
104 C3 0 5.920
104 C3 1 7.874
104 C3 2 9.338
104 C3 3 10.803
104 C3 4 11.292
104 C3 5 10.315
104 C3 6 7.874
104 C3 7 4.456
104 C3 8 0.549
104 C3 9 -2.869
104 C3 10 -5.798
104 C3 11 -7.263
104 C3 12 -7.263
104 C3 13 -6.287
104 C3 14 -4.822
104 C3 15 -3.845
104 C3 16 -4.333
104 C3 17 -4.822
104 C3 18 -5.798
104 C3 19 -6.287
104 C3 20 -5.798
104 C3 21 -4.822
104 C3 22 -2.380
104 C3 23 -0.427
104 C3 24 2.014
104 C3 25 3.479
104 C3 26 4.456
104 C3 27 5.920
104 C3 28 6.409
104 C3 29 7.385
104 C3 30 8.362
104 C3 31 9.338
104 C3 32 10.315
104 C3 33 10.803
104 C3 34 11.292
104 C3 35 11.292
104 C3 36 10.803
104 C3 37 10.315
104 C3 38 9.827
104 C3 39 8.850
104 C3 40 7.874
104 C3 41 6.409
104 C3 42 4.944
104 C3 43 3.967
104 C3 44 3.479
104 C3 45 2.502
104 C3 46 0.549
104 C3 47 -1.404
104 C3 48 -4.333
104 C3 49 -6.287
104 C3 50 -7.263
104 C3 51 -6.775
104 C3 52 -4.822
104 C3 53 -1.892
104 C3 54 1.038
104 C3 55 3.967
104 C3 56 6.409
104 C3 57 7.874
104 C3 58 9.338
104 C3 59 10.315
104 C3 60 10.315
104 C3 61 10.315
104 C3 62 10.315
104 C3 63 10.803
104 C3 64 11.292
104 C3 65 11.780
104 C3 66 12.268
104 C3 67 12.268
104 C3 68 11.292
104 C3 69 9.827
104 C3 70 7.874
104 C3 71 5.920
104 C3 72 3.967
104 C3 73 2.502
104 C3 74 1.526
104 C3 75 1.038
104 C3 76 0.549
104 C3 77 0.549
104 C3 78 1.038
104 C3 79 1.038
104 C3 80 1.526
104 C3 81 2.014
104 C3 82 2.502
104 C3 83 3.967
104 C3 84 5.432
104 C3 85 6.409
104 C3 86 7.385
104 C3 87 8.362
104 C3 88 8.362
104 C3 89 8.850
104 C3 90 9.338
104 C3 91 10.315
104 C3 92 10.803
104 C3 93 10.803
104 C3 94 10.315
104 C3 95 8.850
104 C3 96 7.385
104 C3 97 5.920
104 C3 98 4.456
104 C3 99 3.479
104 C3 100 2.014
104 C3 101 0.549
104 C3 102 0.061
104 C3 103 0.549
104 C3 104 2.014
104 C3 105 4.456
104 C3 106 5.432
104 C3 107 5.432
104 C3 108 4.456
104 C3 109 3.479
104 C3 110 4.456
104 C3 111 6.409
104 C3 112 8.362
104 C3 113 9.338
104 C3 114 9.338
104 C3 115 8.362
104 C3 116 7.385
104 C3 117 6.409
104 C3 118 5.920
104 C3 119 4.944
104 C3 120 2.502
104 C3 121 0.549
104 C3 122 -1.404
104 C3 123 -1.892
104 C3 124 -0.427
104 C3 125 0.549
104 C3 126 1.526
104 C3 127 2.014
104 C3 128 2.014
104 C3 129 2.502
104 C3 130 3.479
104 C3 131 4.456
104 C3 132 4.944
104 C3 133 5.432
104 C3 134 5.432
104 C3 135 5.432
104 C3 136 5.920
104 C3 137 7.385
104 C3 138 7.874
104 C3 139 8.362
104 C3 140 7.874
104 C3 141 6.409
104 C3 142 3.967
104 C3 143 1.038
104 C3 144 -1.892
104 C3 145 -4.822
104 C3 146 -6.287
104 C3 147 -6.775
104 C3 148 -5.798
104 C3 149 -3.357
104 C3 150 -0.916
104 C3 151 1.526
104 C3 152 3.479
104 C3 153 4.456
104 C3 154 5.920
104 C3 155 7.385
104 C3 156 8.362
104 C3 157 9.338
104 C3 158 9.827
104 C3 159 9.338
104 C3 160 8.850
104 C3 161 7.874
104 C3 162 6.409
104 C3 163 5.432
104 C3 164 4.456
104 C3 165 3.479
104 C3 166 2.014
104 C3 167 0.549
104 C3 168 -0.916
104 C3 169 -2.869
104 C3 170 -4.333
104 C3 171 -4.333
104 C3 172 -3.357
104 C3 173 -0.427
104 C3 174 2.991
104 C3 175 6.409
104 C3 176 7.874
104 C3 177 8.850
104 C3 178 8.850
104 C3 179 8.850
104 C3 180 9.827
104 C3 181 10.803
104 C3 182 12.268
104 C3 183 11.780
104 C3 184 10.803
104 C3 185 8.850
104 C3 186 6.897
104 C3 187 4.944
104 C3 188 3.479
104 C3 189 1.526
104 C3 190 0.061
104 C3 191 -1.404
104 C3 192 -2.869
104 C3 193 -4.333
104 C3 194 -4.333
104 C3 195 -3.845
104 C3 196 -2.869
104 C3 197 -0.916
104 C3 198 2.014
104 C3 199 4.944
104 C3 200 7.874
104 C3 201 9.827
104 C3 202 11.292
104 C3 203 11.780
104 C3 204 12.268
104 C3 205 12.756
104 C3 206 12.756
104 C3 207 11.780
104 C3 208 10.803
104 C3 209 9.338
104 C3 210 7.874
104 C3 211 5.920
104 C3 212 4.456
104 C3 213 2.502
104 C3 214 1.038
104 C3 215 -0.427
104 C3 216 -0.916
104 C3 217 -0.427
104 C3 218 2.014
104 C3 219 4.944
104 C3 220 7.385
104 C3 221 8.362
104 C3 222 7.874
104 C3 223 6.897
104 C3 224 7.385
104 C3 225 8.850
104 C3 226 11.292
104 C3 227 12.756
104 C3 228 12.756
104 C3 229 11.292
104 C3 230 8.362
104 C3 231 6.409
104 C3 232 4.456
104 C3 233 3.967
104 C3 234 2.991
104 C3 235 2.502
104 C3 236 1.526
104 C3 237 1.038
104 C3 238 1.038
104 C3 239 1.526
104 C3 240 2.991
104 C3 241 4.456
104 C3 242 5.432
104 C3 243 5.920
104 C3 244 6.897
104 C3 245 7.385
104 C3 246 7.385
104 C3 247 6.897
104 C3 248 6.897
104 C3 249 7.385
104 C3 250 8.850
104 C3 251 11.292
104 C3 252 13.245
104 C3 253 14.709
104 C3 254 15.198
104 C3 255 14.709
# C4 chan 17
104 C4 0 -0.407
104 C4 1 -2.360
104 C4 2 -4.313
104 C4 3 -5.778
104 C4 4 -5.778
104 C4 5 -5.290
104 C4 6 -3.337
104 C4 7 -2.360
104 C4 8 -1.383
104 C4 9 -0.407
104 C4 10 0.081
104 C4 11 0.570
104 C4 12 0.081
104 C4 13 0.081
104 C4 14 -0.407
104 C4 15 -0.407
104 C4 16 0.081
104 C4 17 1.546
104 C4 18 2.523
104 C4 19 3.011
104 C4 20 2.523
104 C4 21 1.058
104 C4 22 -0.407
104 C4 23 -1.872
104 C4 24 -2.360
104 C4 25 -2.360
104 C4 26 -2.848
104 C4 27 -2.848
104 C4 28 -3.337
104 C4 29 -3.825
104 C4 30 -4.313
104 C4 31 -4.801
104 C4 32 -5.778
104 C4 33 -6.266
104 C4 34 -6.266
104 C4 35 -5.778
104 C4 36 -4.313
104 C4 37 -3.337
104 C4 38 -1.872
104 C4 39 -0.407
104 C4 40 1.058
104 C4 41 2.035
104 C4 42 3.011
104 C4 43 3.499
104 C4 44 3.011
104 C4 45 2.035
104 C4 46 1.546
104 C4 47 1.058
104 C4 48 1.058
104 C4 49 0.570
104 C4 50 0.081
104 C4 51 -0.407
104 C4 52 -1.383
104 C4 53 -1.872
104 C4 54 -2.360
104 C4 55 -2.848
104 C4 56 -3.825
104 C4 57 -4.801
104 C4 58 -5.290
104 C4 59 -4.801
104 C4 60 -3.825
104 C4 61 -3.825
104 C4 62 -3.337
104 C4 63 -3.825
104 C4 64 -3.337
104 C4 65 -2.848
104 C4 66 -1.872
104 C4 67 -1.383
104 C4 68 -0.895
104 C4 69 0.081
104 C4 70 1.058
104 C4 71 2.035
104 C4 72 2.523
104 C4 73 3.011
104 C4 74 2.523
104 C4 75 2.035
104 C4 76 1.546
104 C4 77 1.058
104 C4 78 1.546
104 C4 79 2.035
104 C4 80 2.523
104 C4 81 3.011
104 C4 82 3.011
104 C4 83 2.035
104 C4 84 1.058
104 C4 85 0.081
104 C4 86 0.081
104 C4 87 0.570
104 C4 88 2.523
104 C4 89 3.988
104 C4 90 4.476
104 C4 91 3.988
104 C4 92 2.523
104 C4 93 2.035
104 C4 94 2.035
104 C4 95 3.011
104 C4 96 3.499
104 C4 97 3.499
104 C4 98 2.523
104 C4 99 1.546
104 C4 100 1.546
104 C4 101 1.546
104 C4 102 2.523
104 C4 103 3.011
104 C4 104 3.011
104 C4 105 2.523
104 C4 106 3.011
104 C4 107 3.499
104 C4 108 3.988
104 C4 109 3.988
104 C4 110 3.499
104 C4 111 2.523
104 C4 112 1.546
104 C4 113 1.058
104 C4 114 1.058
104 C4 115 1.058
104 C4 116 0.570
104 C4 117 0.081
104 C4 118 0.570
104 C4 119 1.546
104 C4 120 2.523
104 C4 121 3.499
104 C4 122 3.011
104 C4 123 1.546
104 C4 124 -0.407
104 C4 125 -2.360
104 C4 126 -3.337
104 C4 127 -4.313
104 C4 128 -4.313
104 C4 129 -3.337
104 C4 130 -2.360
104 C4 131 -1.383
104 C4 132 -0.895
104 C4 133 -0.895
104 C4 134 -1.872
104 C4 135 -2.360
104 C4 136 -2.848
104 C4 137 -2.360
104 C4 138 -0.895
104 C4 139 0.081
104 C4 140 0.570
104 C4 141 0.570
104 C4 142 -0.407
104 C4 143 -0.895
104 C4 144 -0.895
104 C4 145 -0.895
104 C4 146 0.081
104 C4 147 0.081
104 C4 148 0.081
104 C4 149 0.081
104 C4 150 -0.407
104 C4 151 -0.895
104 C4 152 -1.383
104 C4 153 -1.872
104 C4 154 -2.848
104 C4 155 -4.313
104 C4 156 -5.778
104 C4 157 -6.266
104 C4 158 -6.266
104 C4 159 -5.290
104 C4 160 -3.337
104 C4 161 -0.895
104 C4 162 1.058
104 C4 163 1.546
104 C4 164 1.058
104 C4 165 0.081
104 C4 166 -0.407
104 C4 167 -0.407
104 C4 168 1.058
104 C4 169 3.011
104 C4 170 3.988
104 C4 171 3.988
104 C4 172 3.011
104 C4 173 1.058
104 C4 174 -1.383
104 C4 175 -3.337
104 C4 176 -4.801
104 C4 177 -5.778
104 C4 178 -5.290
104 C4 179 -3.825
104 C4 180 -2.848
104 C4 181 -1.383
104 C4 182 -0.407
104 C4 183 0.081
104 C4 184 1.058
104 C4 185 2.035
104 C4 186 2.523
104 C4 187 2.523
104 C4 188 2.035
104 C4 189 2.035
104 C4 190 2.035
104 C4 191 2.035
104 C4 192 2.523
104 C4 193 2.035
104 C4 194 2.035
104 C4 195 1.546
104 C4 196 1.058
104 C4 197 0.570
104 C4 198 0.081
104 C4 199 -1.383
104 C4 200 -2.848
104 C4 201 -3.825
104 C4 202 -3.825
104 C4 203 -2.848
104 C4 204 -1.872
104 C4 205 -0.407
104 C4 206 -0.407
104 C4 207 0.081
104 C4 208 0.081
104 C4 209 0.570
104 C4 210 1.058
104 C4 211 1.058
104 C4 212 0.081
104 C4 213 -0.895
104 C4 214 -1.872
104 C4 215 -1.872
104 C4 216 -1.872
104 C4 217 -1.383
104 C4 218 -2.360
104 C4 219 -2.848
104 C4 220 -3.337
104 C4 221 -3.337
104 C4 222 -2.360
104 C4 223 -0.895
104 C4 224 0.081
104 C4 225 0.570
104 C4 226 0.081
104 C4 227 -0.407
104 C4 228 -1.383
104 C4 229 -1.383
104 C4 230 -0.895
104 C4 231 -0.407
104 C4 232 0.081
104 C4 233 -0.407
104 C4 234 -1.383
104 C4 235 -2.360
104 C4 236 -3.825
104 C4 237 -4.801
104 C4 238 -5.290
104 C4 239 -4.801
104 C4 240 -3.337
104 C4 241 -2.360
104 C4 242 -1.872
104 C4 243 -1.872
104 C4 244 -1.872
104 C4 245 -1.383
104 C4 246 0.081
104 C4 247 1.546
104 C4 248 2.035
104 C4 249 1.546
104 C4 250 0.570
104 C4 251 -0.407
104 C4 252 -0.407
104 C4 253 0.081
104 C4 254 1.058
104 C4 255 1.546
# CP5 chan 18
104 CP5 0 0.468
104 CP5 1 2.909
104 CP5 2 6.816
104 CP5 3 10.722
104 CP5 4 13.652
104 CP5 5 14.140
104 CP5 6 12.675
104 CP5 7 9.745
104 CP5 8 5.351
104 CP5 9 0.468
104 CP5 10 -3.927
104 CP5 11 -7.345
104 CP5 12 -9.298
104 CP5 13 -9.298
104 CP5 14 -8.809
104 CP5 15 -8.321
104 CP5 16 -8.321
104 CP5 17 -9.786
104 CP5 18 -10.763
104 CP5 19 -11.739
104 CP5 20 -11.739
104 CP5 21 -10.763
104 CP5 22 -8.809
104 CP5 23 -5.880
104 CP5 24 -2.950
104 CP5 25 -0.020
104 CP5 26 2.421
104 CP5 27 3.886
104 CP5 28 5.351
104 CP5 29 6.816
104 CP5 30 9.257
104 CP5 31 11.210
104 CP5 32 12.675
104 CP5 33 13.652
104 CP5 34 13.163
104 CP5 35 12.187
104 CP5 36 12.675
104 CP5 37 13.652
104 CP5 38 14.628
104 CP5 39 14.628
104 CP5 40 12.187
104 CP5 41 9.745
104 CP5 42 6.816
104 CP5 43 5.351
104 CP5 44 4.374
104 CP5 45 3.398
104 CP5 46 -0.020
104 CP5 47 -4.903
104 CP5 48 -10.274
104 CP5 49 -13.692
104 CP5 50 -15.645
104 CP5 51 -15.157
104 CP5 52 -13.204
104 CP5 53 -10.274
104 CP5 54 -7.345
104 CP5 55 -3.438
104 CP5 56 -0.020
104 CP5 57 4.374
104 CP5 58 6.816
104 CP5 59 8.769
104 CP5 60 9.745
104 CP5 61 9.745
104 CP5 62 10.234
104 CP5 63 11.698
104 CP5 64 14.140
104 CP5 65 16.581
104 CP5 66 18.534
104 CP5 67 18.534
104 CP5 68 17.069
104 CP5 69 15.116
104 CP5 70 12.187
104 CP5 71 10.234
104 CP5 72 7.792
104 CP5 73 5.351
104 CP5 74 2.909
104 CP5 75 1.444
104 CP5 76 0.956
104 CP5 77 1.444
104 CP5 78 1.933
104 CP5 79 1.933
104 CP5 80 0.468
104 CP5 81 -0.509
104 CP5 82 -1.485
104 CP5 83 -0.509
104 CP5 84 1.933
104 CP5 85 4.862
104 CP5 86 8.280
104 CP5 87 10.722
104 CP5 88 12.675
104 CP5 89 14.628
104 CP5 90 16.581
104 CP5 91 18.046
104 CP5 92 19.023
104 CP5 93 18.534
104 CP5 94 17.069
104 CP5 95 14.628
104 CP5 96 11.698
104 CP5 97 8.769
104 CP5 98 6.327
104 CP5 99 3.398
104 CP5 100 -0.020
104 CP5 101 -3.438
104 CP5 102 -5.391
104 CP5 103 -4.903
104 CP5 104 -2.950
104 CP5 105 -0.509
104 CP5 106 0.956
104 CP5 107 0.956
104 CP5 108 -0.020
104 CP5 109 -0.020
104 CP5 110 2.421
104 CP5 111 6.816
104 CP5 112 10.722
104 CP5 113 12.675
104 CP5 114 12.675
104 CP5 115 11.210
104 CP5 116 9.745
104 CP5 117 7.792
104 CP5 118 6.327
104 CP5 119 3.398
104 CP5 120 -0.020
104 CP5 121 -3.438
104 CP5 122 -5.391
104 CP5 123 -5.880
104 CP5 124 -5.880
104 CP5 125 -5.391
104 CP5 126 -5.880
104 CP5 127 -5.880
104 CP5 128 -5.391
104 CP5 129 -3.927
104 CP5 130 -1.485
104 CP5 131 0.956
104 CP5 132 1.933
104 CP5 133 2.909
104 CP5 134 3.398
104 CP5 135 4.862
104 CP5 136 7.304
104 CP5 137 9.745
104 CP5 138 11.698
104 CP5 139 12.187
104 CP5 140 11.210
104 CP5 141 9.257
104 CP5 142 5.839
104 CP5 143 1.933
104 CP5 144 -2.462
104 CP5 145 -6.856
104 CP5 146 -9.298
104 CP5 147 -10.763
104 CP5 148 -9.786
104 CP5 149 -8.809
104 CP5 150 -6.856
104 CP5 151 -5.391
104 CP5 152 -4.415
104 CP5 153 -2.462
104 CP5 154 -0.997
104 CP5 155 0.956
104 CP5 156 3.398
104 CP5 157 5.839
104 CP5 158 7.304
104 CP5 159 8.280
104 CP5 160 8.769
104 CP5 161 7.792
104 CP5 162 6.327
104 CP5 163 4.862
104 CP5 164 3.886
104 CP5 165 2.909
104 CP5 166 1.933
104 CP5 167 0.468
104 CP5 168 -2.462
104 CP5 169 -5.880
104 CP5 170 -9.298
104 CP5 171 -10.763
104 CP5 172 -9.786
104 CP5 173 -6.368
104 CP5 174 -1.485
104 CP5 175 2.421
104 CP5 176 4.374
104 CP5 177 4.862
104 CP5 178 4.374
104 CP5 179 4.374
104 CP5 180 6.816
104 CP5 181 10.234
104 CP5 182 13.163
104 CP5 183 14.140
104 CP5 184 13.163
104 CP5 185 10.234
104 CP5 186 7.304
104 CP5 187 4.374
104 CP5 188 2.421
104 CP5 189 0.468
104 CP5 190 -1.973
104 CP5 191 -4.415
104 CP5 192 -6.856
104 CP5 193 -8.809
104 CP5 194 -9.786
104 CP5 195 -9.786
104 CP5 196 -9.786
104 CP5 197 -7.833
104 CP5 198 -4.903
104 CP5 199 -0.997
104 CP5 200 3.398
104 CP5 201 6.816
104 CP5 202 9.257
104 CP5 203 11.210
104 CP5 204 13.163
104 CP5 205 14.628
104 CP5 206 16.093
104 CP5 207 16.581
104 CP5 208 15.116
104 CP5 209 11.210
104 CP5 210 7.304
104 CP5 211 2.909
104 CP5 212 -0.509
104 CP5 213 -3.438
104 CP5 214 -5.880
104 CP5 215 -8.321
104 CP5 216 -10.274
104 CP5 217 -9.786
104 CP5 218 -7.345
104 CP5 219 -3.438
104 CP5 220 0.956
104 CP5 221 3.886
104 CP5 222 4.862
104 CP5 223 5.839
104 CP5 224 6.816
104 CP5 225 9.257
104 CP5 226 12.675
104 CP5 227 15.116
104 CP5 228 15.116
104 CP5 229 13.163
104 CP5 230 9.257
104 CP5 231 5.351
104 CP5 232 2.421
104 CP5 233 -0.509
104 CP5 234 -2.462
104 CP5 235 -3.927
104 CP5 236 -5.880
104 CP5 237 -6.856
104 CP5 238 -7.345
104 CP5 239 -6.856
104 CP5 240 -5.391
104 CP5 241 -2.950
104 CP5 242 0.468
104 CP5 243 3.886
104 CP5 244 6.327
104 CP5 245 6.816
104 CP5 246 6.327
104 CP5 247 5.839
104 CP5 248 6.327
104 CP5 249 8.280
104 CP5 250 11.698
104 CP5 251 15.116
104 CP5 252 17.558
104 CP5 253 19.023
104 CP5 254 19.023
104 CP5 255 17.558
# CP6 chan 19
104 CP6 0 -0.651
104 CP6 1 -2.116
104 CP6 2 -3.092
104 CP6 3 -3.092
104 CP6 4 -3.092
104 CP6 5 -2.116
104 CP6 6 -1.139
104 CP6 7 -0.651
104 CP6 8 -0.651
104 CP6 9 -0.651
104 CP6 10 -1.139
104 CP6 11 -2.116
104 CP6 12 -3.092
104 CP6 13 -4.557
104 CP6 14 -5.534
104 CP6 15 -5.534
104 CP6 16 -4.557
104 CP6 17 -2.116
104 CP6 18 -0.163
104 CP6 19 0.326
104 CP6 20 -0.651
104 CP6 21 -2.604
104 CP6 22 -4.069
104 CP6 23 -4.069
104 CP6 24 -3.092
104 CP6 25 -2.116
104 CP6 26 -2.116
104 CP6 27 -3.092
104 CP6 28 -4.069
104 CP6 29 -4.557
104 CP6 30 -4.557
104 CP6 31 -4.557
104 CP6 32 -5.046
104 CP6 33 -6.022
104 CP6 34 -6.022
104 CP6 35 -5.534
104 CP6 36 -3.581
104 CP6 37 -0.651
104 CP6 38 1.790
104 CP6 39 3.743
104 CP6 40 5.208
104 CP6 41 5.697
104 CP6 42 5.208
104 CP6 43 3.743
104 CP6 44 1.790
104 CP6 45 0.326
104 CP6 46 -0.163
104 CP6 47 -0.163
104 CP6 48 -0.651
104 CP6 49 -2.604
104 CP6 50 -5.534
104 CP6 51 -7.975
104 CP6 52 -8.952
104 CP6 53 -9.440
104 CP6 54 -8.464
104 CP6 55 -7.975
104 CP6 56 -8.464
104 CP6 57 -8.952
104 CP6 58 -8.464
104 CP6 59 -6.999
104 CP6 60 -5.046
104 CP6 61 -3.092
104 CP6 62 -2.116
104 CP6 63 -1.628
104 CP6 64 -0.651
104 CP6 65 0.326
104 CP6 66 1.302
104 CP6 67 2.279
104 CP6 68 2.767
104 CP6 69 2.767
104 CP6 70 3.743
104 CP6 71 4.720
104 CP6 72 5.208
104 CP6 73 4.720
104 CP6 74 3.255
104 CP6 75 1.302
104 CP6 76 -0.651
104 CP6 77 -1.139
104 CP6 78 -0.651
104 CP6 79 0.814
104 CP6 80 2.767
104 CP6 81 3.743
104 CP6 82 3.255
104 CP6 83 2.279
104 CP6 84 0.814
104 CP6 85 -0.163
104 CP6 86 0.326
104 CP6 87 2.279
104 CP6 88 5.208
104 CP6 89 8.626
104 CP6 90 10.091
104 CP6 91 9.115
104 CP6 92 6.673
104 CP6 93 4.232
104 CP6 94 3.743
104 CP6 95 4.232
104 CP6 96 5.697
104 CP6 97 5.697
104 CP6 98 3.255
104 CP6 99 0.326
104 CP6 100 -1.628
104 CP6 101 -1.628
104 CP6 102 -0.163
104 CP6 103 1.302
104 CP6 104 1.302
104 CP6 105 0.326
104 CP6 106 -0.163
104 CP6 107 -0.163
104 CP6 108 -0.163
104 CP6 109 0.814
104 CP6 110 1.302
104 CP6 111 1.302
104 CP6 112 1.790
104 CP6 113 2.279
104 CP6 114 3.255
104 CP6 115 3.743
104 CP6 116 3.255
104 CP6 117 1.790
104 CP6 118 0.814
104 CP6 119 0.814
104 CP6 120 1.302
104 CP6 121 1.302
104 CP6 122 -0.163
104 CP6 123 -2.604
104 CP6 124 -6.022
104 CP6 125 -8.464
104 CP6 126 -9.928
104 CP6 127 -9.440
104 CP6 128 -8.464
104 CP6 129 -6.510
104 CP6 130 -4.557
104 CP6 131 -2.604
104 CP6 132 -1.628
104 CP6 133 -1.628
104 CP6 134 -2.604
104 CP6 135 -3.581
104 CP6 136 -3.581
104 CP6 137 -2.116
104 CP6 138 -0.163
104 CP6 139 1.790
104 CP6 140 2.279
104 CP6 141 1.302
104 CP6 142 -0.163
104 CP6 143 -1.139
104 CP6 144 -1.628
104 CP6 145 -1.628
104 CP6 146 -2.116
104 CP6 147 -2.604
104 CP6 148 -3.581
104 CP6 149 -4.069
104 CP6 150 -4.069
104 CP6 151 -4.069
104 CP6 152 -3.581
104 CP6 153 -4.069
104 CP6 154 -5.046
104 CP6 155 -6.022
104 CP6 156 -6.999
104 CP6 157 -7.487
104 CP6 158 -7.487
104 CP6 159 -6.510
104 CP6 160 -4.069
104 CP6 161 -1.628
104 CP6 162 -0.163
104 CP6 163 -0.163
104 CP6 164 -1.628
104 CP6 165 -4.069
104 CP6 166 -5.534
104 CP6 167 -5.046
104 CP6 168 -3.092
104 CP6 169 -0.651
104 CP6 170 0.326
104 CP6 171 0.326
104 CP6 172 -0.651
104 CP6 173 -2.116
104 CP6 174 -4.069
104 CP6 175 -5.046
104 CP6 176 -6.022
104 CP6 177 -6.022
104 CP6 178 -5.046
104 CP6 179 -3.581
104 CP6 180 -1.628
104 CP6 181 -0.163
104 CP6 182 0.814
104 CP6 183 0.814
104 CP6 184 1.302
104 CP6 185 2.279
104 CP6 186 2.279
104 CP6 187 1.790
104 CP6 188 0.814
104 CP6 189 -0.651
104 CP6 190 -1.139
104 CP6 191 -1.139
104 CP6 192 -0.651
104 CP6 193 -0.651
104 CP6 194 -1.139
104 CP6 195 -1.139
104 CP6 196 -1.139
104 CP6 197 -1.139
104 CP6 198 -2.116
104 CP6 199 -3.581
104 CP6 200 -5.046
104 CP6 201 -6.022
104 CP6 202 -5.046
104 CP6 203 -3.092
104 CP6 204 -1.139
104 CP6 205 -0.163
104 CP6 206 -0.163
104 CP6 207 -0.651
104 CP6 208 -1.628
104 CP6 209 -1.628
104 CP6 210 -1.139
104 CP6 211 -0.651
104 CP6 212 -1.139
104 CP6 213 -2.604
104 CP6 214 -4.557
104 CP6 215 -6.022
104 CP6 216 -6.510
104 CP6 217 -6.022
104 CP6 218 -5.046
104 CP6 219 -4.069
104 CP6 220 -3.581
104 CP6 221 -3.581
104 CP6 222 -3.092
104 CP6 223 -2.116
104 CP6 224 -0.163
104 CP6 225 1.302
104 CP6 226 1.790
104 CP6 227 0.814
104 CP6 228 -0.163
104 CP6 229 -0.163
104 CP6 230 1.302
104 CP6 231 2.279
104 CP6 232 2.767
104 CP6 233 1.302
104 CP6 234 -1.139
104 CP6 235 -4.557
104 CP6 236 -7.487
104 CP6 237 -8.952
104 CP6 238 -8.952
104 CP6 239 -7.975
104 CP6 240 -6.510
104 CP6 241 -4.557
104 CP6 242 -3.581
104 CP6 243 -3.092
104 CP6 244 -2.604
104 CP6 245 -2.116
104 CP6 246 -0.163
104 CP6 247 2.279
104 CP6 248 4.232
104 CP6 249 5.697
104 CP6 250 5.208
104 CP6 251 4.720
104 CP6 252 4.720
104 CP6 253 5.697
104 CP6 254 7.650
104 CP6 255 8.626
# CP1 chan 20
104 CP1 0 2.777
104 CP1 1 3.754
104 CP1 2 6.195
104 CP1 3 8.148
104 CP1 4 9.125
104 CP1 5 9.125
104 CP1 6 7.660
104 CP1 7 5.219
104 CP1 8 2.289
104 CP1 9 -0.153
104 CP1 10 -2.106
104 CP1 11 -3.571
104 CP1 12 -4.547
104 CP1 13 -4.547
104 CP1 14 -4.547
104 CP1 15 -4.547
104 CP1 16 -5.035
104 CP1 17 -5.524
104 CP1 18 -6.012
104 CP1 19 -6.500
104 CP1 20 -5.524
104 CP1 21 -4.059
104 CP1 22 -1.617
104 CP1 23 0.824
104 CP1 24 3.265
104 CP1 25 4.730
104 CP1 26 5.707
104 CP1 27 6.195
104 CP1 28 6.683
104 CP1 29 7.172
104 CP1 30 7.660
104 CP1 31 8.636
104 CP1 32 9.125
104 CP1 33 9.125
104 CP1 34 8.636
104 CP1 35 8.148
104 CP1 36 7.172
104 CP1 37 6.683
104 CP1 38 6.683
104 CP1 39 6.683
104 CP1 40 6.195
104 CP1 41 5.219
104 CP1 42 3.754
104 CP1 43 2.289
104 CP1 44 1.801
104 CP1 45 1.801
104 CP1 46 1.312
104 CP1 47 0.336
104 CP1 48 -1.129
104 CP1 49 -2.594
104 CP1 50 -3.571
104 CP1 51 -3.571
104 CP1 52 -2.106
104 CP1 53 -0.641
104 CP1 54 0.824
104 CP1 55 1.801
104 CP1 56 2.777
104 CP1 57 4.242
104 CP1 58 5.707
104 CP1 59 6.683
104 CP1 60 7.172
104 CP1 61 7.172
104 CP1 62 7.172
104 CP1 63 7.172
104 CP1 64 7.660
104 CP1 65 8.636
104 CP1 66 9.613
104 CP1 67 10.101
104 CP1 68 10.101
104 CP1 69 9.613
104 CP1 70 8.636
104 CP1 71 7.172
104 CP1 72 6.195
104 CP1 73 5.219
104 CP1 74 3.754
104 CP1 75 3.265
104 CP1 76 2.777
104 CP1 77 2.289
104 CP1 78 2.777
104 CP1 79 3.265
104 CP1 80 3.754
104 CP1 81 3.754
104 CP1 82 4.242
104 CP1 83 3.754
104 CP1 84 3.754
104 CP1 85 4.242
104 CP1 86 5.219
104 CP1 87 6.683
104 CP1 88 8.148
104 CP1 89 9.125
104 CP1 90 9.613
104 CP1 91 9.613
104 CP1 92 9.125
104 CP1 93 8.636
104 CP1 94 7.660
104 CP1 95 7.172
104 CP1 96 6.683
104 CP1 97 5.707
104 CP1 98 4.730
104 CP1 99 3.265
104 CP1 100 2.289
104 CP1 101 1.312
104 CP1 102 0.824
104 CP1 103 0.336
104 CP1 104 0.336
104 CP1 105 0.336
104 CP1 106 0.336
104 CP1 107 0.336
104 CP1 108 -0.153
104 CP1 109 -0.153
104 CP1 110 0.336
104 CP1 111 1.801
104 CP1 112 3.265
104 CP1 113 4.242
104 CP1 114 4.730
104 CP1 115 4.730
104 CP1 116 4.730
104 CP1 117 4.242
104 CP1 118 3.265
104 CP1 119 2.289
104 CP1 120 0.824
104 CP1 121 -0.641
104 CP1 122 -1.617
104 CP1 123 -2.106
104 CP1 124 -2.106
104 CP1 125 -1.129
104 CP1 126 -0.641
104 CP1 127 -0.153
104 CP1 128 0.336
104 CP1 129 0.336
104 CP1 130 0.336
104 CP1 131 0.824
104 CP1 132 0.336
104 CP1 133 0.824
104 CP1 134 0.824
104 CP1 135 2.289
104 CP1 136 3.754
104 CP1 137 5.219
104 CP1 138 6.195
104 CP1 139 6.683
104 CP1 140 6.195
104 CP1 141 5.219
104 CP1 142 3.754
104 CP1 143 1.801
104 CP1 144 -0.641
104 CP1 145 -3.571
104 CP1 146 -5.035
104 CP1 147 -5.524
104 CP1 148 -4.547
104 CP1 149 -2.106
104 CP1 150 -0.153
104 CP1 151 1.312
104 CP1 152 2.289
104 CP1 153 2.777
104 CP1 154 3.265
104 CP1 155 4.730
104 CP1 156 6.195
104 CP1 157 7.660
104 CP1 158 8.636
104 CP1 159 9.125
104 CP1 160 8.636
104 CP1 161 7.660
104 CP1 162 6.195
104 CP1 163 4.730
104 CP1 164 3.265
104 CP1 165 1.801
104 CP1 166 -0.153
104 CP1 167 -1.617
104 CP1 168 -3.571
104 CP1 169 -5.035
104 CP1 170 -6.500
104 CP1 171 -6.500
104 CP1 172 -5.524
104 CP1 173 -3.571
104 CP1 174 -0.641
104 CP1 175 1.801
104 CP1 176 3.754
104 CP1 177 5.219
104 CP1 178 5.707
104 CP1 179 6.195
104 CP1 180 6.195
104 CP1 181 7.172
104 CP1 182 7.660
104 CP1 183 7.660
104 CP1 184 7.172
104 CP1 185 6.195
104 CP1 186 4.730
104 CP1 187 3.754
104 CP1 188 2.777
104 CP1 189 1.801
104 CP1 190 0.336
104 CP1 191 -2.106
104 CP1 192 -4.547
104 CP1 193 -6.012
104 CP1 194 -6.989
104 CP1 195 -6.989
104 CP1 196 -6.500
104 CP1 197 -5.524
104 CP1 198 -4.059
104 CP1 199 -2.106
104 CP1 200 0.336
104 CP1 201 2.289
104 CP1 202 4.730
104 CP1 203 6.195
104 CP1 204 6.683
104 CP1 205 7.172
104 CP1 206 7.172
104 CP1 207 7.660
104 CP1 208 7.660
104 CP1 209 7.660
104 CP1 210 7.172
104 CP1 211 5.707
104 CP1 212 3.754
104 CP1 213 1.801
104 CP1 214 -0.641
104 CP1 215 -2.106
104 CP1 216 -3.082
104 CP1 217 -2.594
104 CP1 218 -1.617
104 CP1 219 -0.641
104 CP1 220 0.824
104 CP1 221 1.312
104 CP1 222 1.312
104 CP1 223 1.312
104 CP1 224 1.801
104 CP1 225 2.777
104 CP1 226 5.219
104 CP1 227 7.172
104 CP1 228 8.636
104 CP1 229 8.636
104 CP1 230 8.148
104 CP1 231 6.683
104 CP1 232 5.707
104 CP1 233 4.730
104 CP1 234 3.754
104 CP1 235 3.265
104 CP1 236 2.289
104 CP1 237 1.312
104 CP1 238 0.336
104 CP1 239 0.336
104 CP1 240 0.336
104 CP1 241 0.824
104 CP1 242 1.801
104 CP1 243 2.289
104 CP1 244 2.777
104 CP1 245 2.289
104 CP1 246 1.312
104 CP1 247 1.312
104 CP1 248 1.801
104 CP1 249 2.777
104 CP1 250 5.219
104 CP1 251 7.172
104 CP1 252 9.613
104 CP1 253 11.566
104 CP1 254 12.543
104 CP1 255 12.543
# CP2 chan 21
104 CP2 0 -1.200
104 CP2 1 -1.689
104 CP2 2 -1.200
104 CP2 3 -0.712
104 CP2 4 -0.224
104 CP2 5 -0.224
104 CP2 6 -0.224
104 CP2 7 -0.712
104 CP2 8 -0.712
104 CP2 9 -0.712
104 CP2 10 -0.712
104 CP2 11 -0.224
104 CP2 12 -0.224
104 CP2 13 -0.712
104 CP2 14 -0.712
104 CP2 15 -0.712
104 CP2 16 -0.712
104 CP2 17 0.264
104 CP2 18 1.241
104 CP2 19 1.241
104 CP2 20 0.753
104 CP2 21 0.264
104 CP2 22 -1.200
104 CP2 23 -1.200
104 CP2 24 -0.712
104 CP2 25 0.264
104 CP2 26 1.241
104 CP2 27 1.241
104 CP2 28 0.753
104 CP2 29 -0.224
104 CP2 30 -0.224
104 CP2 31 -0.224
104 CP2 32 0.264
104 CP2 33 0.753
104 CP2 34 0.753
104 CP2 35 0.753
104 CP2 36 0.264
104 CP2 37 0.753
104 CP2 38 1.241
104 CP2 39 2.218
104 CP2 40 2.706
104 CP2 41 2.706
104 CP2 42 2.218
104 CP2 43 1.241
104 CP2 44 0.753
104 CP2 45 1.241
104 CP2 46 1.729
104 CP2 47 2.218
104 CP2 48 1.241
104 CP2 49 -0.224
104 CP2 50 -1.689
104 CP2 51 -2.177
104 CP2 52 -2.177
104 CP2 53 -1.689
104 CP2 54 -2.177
104 CP2 55 -3.153
104 CP2 56 -3.642
104 CP2 57 -4.130
104 CP2 58 -3.642
104 CP2 59 -2.177
104 CP2 60 -1.200
104 CP2 61 -1.689
104 CP2 62 -1.689
104 CP2 63 -2.177
104 CP2 64 -1.689
104 CP2 65 -0.712
104 CP2 66 0.753
104 CP2 67 1.241
104 CP2 68 1.241
104 CP2 69 1.729
104 CP2 70 1.729
104 CP2 71 2.706
104 CP2 72 3.194
104 CP2 73 3.682
104 CP2 74 3.194
104 CP2 75 2.218
104 CP2 76 1.729
104 CP2 77 1.729
104 CP2 78 1.729
104 CP2 79 2.706
104 CP2 80 3.194
104 CP2 81 3.682
104 CP2 82 3.682
104 CP2 83 3.194
104 CP2 84 2.706
104 CP2 85 2.706
104 CP2 86 2.706
104 CP2 87 4.171
104 CP2 88 5.636
104 CP2 89 7.100
104 CP2 90 7.589
104 CP2 91 6.612
104 CP2 92 5.147
104 CP2 93 3.682
104 CP2 94 3.682
104 CP2 95 3.682
104 CP2 96 4.171
104 CP2 97 4.171
104 CP2 98 2.706
104 CP2 99 1.729
104 CP2 100 0.753
104 CP2 101 0.753
104 CP2 102 1.241
104 CP2 103 1.729
104 CP2 104 1.729
104 CP2 105 1.241
104 CP2 106 0.753
104 CP2 107 0.264
104 CP2 108 0.753
104 CP2 109 1.729
104 CP2 110 2.218
104 CP2 111 2.218
104 CP2 112 2.218
104 CP2 113 2.218
104 CP2 114 2.218
104 CP2 115 2.218
104 CP2 116 2.218
104 CP2 117 2.218
104 CP2 118 1.729
104 CP2 119 1.729
104 CP2 120 1.241
104 CP2 121 1.241
104 CP2 122 0.753
104 CP2 123 -0.712
104 CP2 124 -2.177
104 CP2 125 -3.153
104 CP2 126 -3.642
104 CP2 127 -3.153
104 CP2 128 -2.665
104 CP2 129 -2.665
104 CP2 130 -2.665
104 CP2 131 -3.153
104 CP2 132 -3.153
104 CP2 133 -3.153
104 CP2 134 -3.153
104 CP2 135 -2.665
104 CP2 136 -1.689
104 CP2 137 -0.712
104 CP2 138 0.264
104 CP2 139 1.241
104 CP2 140 1.241
104 CP2 141 1.241
104 CP2 142 0.753
104 CP2 143 -0.224
104 CP2 144 -0.712
104 CP2 145 -0.712
104 CP2 146 -0.224
104 CP2 147 -0.224
104 CP2 148 -0.712
104 CP2 149 -0.712
104 CP2 150 -1.689
104 CP2 151 -2.177
104 CP2 152 -3.153
104 CP2 153 -3.642
104 CP2 154 -4.130
104 CP2 155 -4.130
104 CP2 156 -3.642
104 CP2 157 -2.665
104 CP2 158 -2.177
104 CP2 159 -1.689
104 CP2 160 -1.689
104 CP2 161 -1.689
104 CP2 162 -1.200
104 CP2 163 -1.200
104 CP2 164 -1.200
104 CP2 165 -1.689
104 CP2 166 -2.177
104 CP2 167 -2.665
104 CP2 168 -2.177
104 CP2 169 -1.689
104 CP2 170 -1.689
104 CP2 171 -1.689
104 CP2 172 -2.665
104 CP2 173 -3.642
104 CP2 174 -5.107
104 CP2 175 -6.083
104 CP2 176 -6.083
104 CP2 177 -6.083
104 CP2 178 -5.107
104 CP2 179 -3.642
104 CP2 180 -2.665
104 CP2 181 -2.177
104 CP2 182 -1.689
104 CP2 183 -1.200
104 CP2 184 -1.200
104 CP2 185 -1.200
104 CP2 186 -0.712
104 CP2 187 -0.712
104 CP2 188 -0.712
104 CP2 189 -0.712
104 CP2 190 -1.200
104 CP2 191 -1.689
104 CP2 192 -1.689
104 CP2 193 -1.689
104 CP2 194 -1.689
104 CP2 195 -1.689
104 CP2 196 -1.689
104 CP2 197 -2.665
104 CP2 198 -3.642
104 CP2 199 -4.618
104 CP2 200 -5.595
104 CP2 201 -5.595
104 CP2 202 -5.595
104 CP2 203 -4.130
104 CP2 204 -3.153
104 CP2 205 -2.665
104 CP2 206 -2.177
104 CP2 207 -1.689
104 CP2 208 -1.200
104 CP2 209 -0.712
104 CP2 210 -0.712
104 CP2 211 -1.200
104 CP2 212 -2.177
104 CP2 213 -3.642
104 CP2 214 -4.618
104 CP2 215 -5.107
104 CP2 216 -4.618
104 CP2 217 -4.130
104 CP2 218 -4.130
104 CP2 219 -4.130
104 CP2 220 -4.618
104 CP2 221 -4.618
104 CP2 222 -4.618
104 CP2 223 -4.130
104 CP2 224 -3.642
104 CP2 225 -3.153
104 CP2 226 -3.153
104 CP2 227 -2.665
104 CP2 228 -2.177
104 CP2 229 -0.712
104 CP2 230 -0.224
104 CP2 231 0.264
104 CP2 232 0.264
104 CP2 233 -0.712
104 CP2 234 -1.200
104 CP2 235 -2.177
104 CP2 236 -3.153
104 CP2 237 -4.618
104 CP2 238 -5.595
104 CP2 239 -6.083
104 CP2 240 -5.595
104 CP2 241 -4.618
104 CP2 242 -3.153
104 CP2 243 -3.153
104 CP2 244 -3.153
104 CP2 245 -3.642
104 CP2 246 -3.642
104 CP2 247 -2.665
104 CP2 248 -1.200
104 CP2 249 -0.712
104 CP2 250 -0.224
104 CP2 251 -0.224
104 CP2 252 -0.224
104 CP2 253 0.753
104 CP2 254 2.218
104 CP2 255 2.706
# P3 chan 22
104 P3 0 0.590
104 P3 1 4.008
104 P3 2 8.891
104 P3 3 12.797
104 P3 4 15.727
104 P3 5 16.215
104 P3 6 14.262
104 P3 7 10.844
104 P3 8 6.449
104 P3 9 2.055
104 P3 10 -1.851
104 P3 11 -5.269
104 P3 12 -7.222
104 P3 13 -8.687
104 P3 14 -8.687
104 P3 15 -8.687
104 P3 16 -8.687
104 P3 17 -9.176
104 P3 18 -10.152
104 P3 19 -11.129
104 P3 20 -10.640
104 P3 21 -8.687
104 P3 22 -5.758
104 P3 23 -2.340
104 P3 24 1.078
104 P3 25 4.496
104 P3 26 6.449
104 P3 27 7.914
104 P3 28 9.379
104 P3 29 10.844
104 P3 30 12.309
104 P3 31 13.285
104 P3 32 13.774
104 P3 33 13.774
104 P3 34 12.797
104 P3 35 11.820
104 P3 36 11.332
104 P3 37 11.332
104 P3 38 12.309
104 P3 39 11.820
104 P3 40 10.844
104 P3 41 8.891
104 P3 42 6.938
104 P3 43 5.473
104 P3 44 4.008
104 P3 45 2.543
104 P3 46 -0.387
104 P3 47 -4.781
104 P3 48 -9.176
104 P3 49 -12.105
104 P3 50 -14.058
104 P3 51 -13.082
104 P3 52 -11.129
104 P3 53 -8.199
104 P3 54 -5.269
104 P3 55 -2.340
104 P3 56 0.102
104 P3 57 3.031
104 P3 58 5.961
104 P3 59 7.914
104 P3 60 8.891
104 P3 61 9.867
104 P3 62 9.867
104 P3 63 10.844
104 P3 64 12.797
104 P3 65 15.727
104 P3 66 18.168
104 P3 67 19.633
104 P3 68 19.633
104 P3 69 18.168
104 P3 70 16.215
104 P3 71 13.285
104 P3 72 10.844
104 P3 73 8.403
104 P3 74 5.961
104 P3 75 4.008
104 P3 76 2.543
104 P3 77 1.567
104 P3 78 0.590
104 P3 79 0.590
104 P3 80 0.590
104 P3 81 0.590
104 P3 82 0.590
104 P3 83 1.078
104 P3 84 1.567
104 P3 85 3.520
104 P3 86 5.961
104 P3 87 9.379
104 P3 88 12.797
104 P3 89 16.215
104 P3 90 18.168
104 P3 91 19.145
104 P3 92 19.145
104 P3 93 18.168
104 P3 94 17.192
104 P3 95 14.750
104 P3 96 12.309
104 P3 97 9.379
104 P3 98 6.449
104 P3 99 3.031
104 P3 100 -0.387
104 P3 101 -3.316
104 P3 102 -5.269
104 P3 103 -6.246
104 P3 104 -5.758
104 P3 105 -4.781
104 P3 106 -3.805
104 P3 107 -3.316
104 P3 108 -3.316
104 P3 109 -2.340
104 P3 110 -0.387
104 P3 111 2.543
104 P3 112 5.473
104 P3 113 7.914
104 P3 114 9.379
104 P3 115 9.379
104 P3 116 8.403
104 P3 117 7.426
104 P3 118 5.961
104 P3 119 3.520
104 P3 120 1.078
104 P3 121 -1.851
104 P3 122 -3.805
104 P3 123 -5.269
104 P3 124 -6.246
104 P3 125 -6.734
104 P3 126 -7.222
104 P3 127 -6.734
104 P3 128 -6.246
104 P3 129 -5.269
104 P3 130 -4.781
104 P3 131 -4.293
104 P3 132 -3.805
104 P3 133 -2.828
104 P3 134 -1.363
104 P3 135 1.567
104 P3 136 4.985
104 P3 137 7.914
104 P3 138 9.379
104 P3 139 9.379
104 P3 140 8.891
104 P3 141 7.914
104 P3 142 5.961
104 P3 143 3.031
104 P3 144 -1.363
104 P3 145 -4.781
104 P3 146 -7.711
104 P3 147 -8.687
104 P3 148 -8.199
104 P3 149 -6.246
104 P3 150 -4.781
104 P3 151 -3.805
104 P3 152 -3.316
104 P3 153 -3.316
104 P3 154 -2.340
104 P3 155 -0.387
104 P3 156 2.543
104 P3 157 5.473
104 P3 158 7.914
104 P3 159 9.379
104 P3 160 9.867
104 P3 161 8.403
104 P3 162 6.449
104 P3 163 4.496
104 P3 164 3.031
104 P3 165 1.567
104 P3 166 0.590
104 P3 167 -1.363
104 P3 168 -3.805
104 P3 169 -6.246
104 P3 170 -8.687
104 P3 171 -10.152
104 P3 172 -9.664
104 P3 173 -7.222
104 P3 174 -4.293
104 P3 175 -0.875
104 P3 176 1.078
104 P3 177 3.031
104 P3 178 4.008
104 P3 179 5.473
104 P3 180 7.426
104 P3 181 10.356
104 P3 182 12.309
104 P3 183 12.797
104 P3 184 11.332
104 P3 185 8.891
104 P3 186 6.938
104 P3 187 4.985
104 P3 188 3.520
104 P3 189 1.567
104 P3 190 -1.363
104 P3 191 -4.293
104 P3 192 -7.711
104 P3 193 -10.152
104 P3 194 -11.617
104 P3 195 -12.105
104 P3 196 -11.617
104 P3 197 -9.664
104 P3 198 -7.711
104 P3 199 -4.293
104 P3 200 -0.387
104 P3 201 3.520
104 P3 202 6.938
104 P3 203 9.379
104 P3 204 11.820
104 P3 205 13.285
104 P3 206 14.750
104 P3 207 15.238
104 P3 208 14.750
104 P3 209 12.797
104 P3 210 10.356
104 P3 211 6.449
104 P3 212 2.055
104 P3 213 -2.340
104 P3 214 -6.246
104 P3 215 -9.664
104 P3 216 -11.617
104 P3 217 -11.617
104 P3 218 -9.664
104 P3 219 -6.246
104 P3 220 -2.340
104 P3 221 0.590
104 P3 222 2.055
104 P3 223 3.031
104 P3 224 4.008
104 P3 225 6.449
104 P3 226 9.867
104 P3 227 13.285
104 P3 228 15.238
104 P3 229 15.238
104 P3 230 12.797
104 P3 231 9.867
104 P3 232 6.938
104 P3 233 4.008
104 P3 234 2.055
104 P3 235 -0.387
104 P3 236 -2.340
104 P3 237 -4.293
104 P3 238 -5.758
104 P3 239 -6.734
104 P3 240 -6.246
104 P3 241 -4.293
104 P3 242 -1.363
104 P3 243 1.567
104 P3 244 3.520
104 P3 245 4.496
104 P3 246 4.008
104 P3 247 3.520
104 P3 248 4.496
104 P3 249 6.449
104 P3 250 10.356
104 P3 251 14.262
104 P3 252 18.168
104 P3 253 20.121
104 P3 254 21.098
104 P3 255 20.121
# P4 chan 23
104 P4 0 -2.370
104 P4 1 -2.858
104 P4 2 -2.370
104 P4 3 -1.394
104 P4 4 -0.417
104 P4 5 0.071
104 P4 6 0.071
104 P4 7 -0.417
104 P4 8 -1.394
104 P4 9 -2.370
104 P4 10 -2.370
104 P4 11 -3.347
104 P4 12 -3.835
104 P4 13 -5.300
104 P4 14 -5.788
104 P4 15 -5.300
104 P4 16 -3.835
104 P4 17 -2.370
104 P4 18 -0.905
104 P4 19 -0.905
104 P4 20 -1.394
104 P4 21 -2.370
104 P4 22 -3.347
104 P4 23 -3.347
104 P4 24 -2.370
104 P4 25 -2.370
104 P4 26 -1.882
104 P4 27 -2.370
104 P4 28 -2.858
104 P4 29 -3.347
104 P4 30 -3.835
104 P4 31 -3.835
104 P4 32 -3.835
104 P4 33 -3.835
104 P4 34 -2.858
104 P4 35 -2.370
104 P4 36 -1.394
104 P4 37 0.071
104 P4 38 1.048
104 P4 39 2.513
104 P4 40 3.977
104 P4 41 4.466
104 P4 42 3.489
104 P4 43 1.536
104 P4 44 0.071
104 P4 45 -0.417
104 P4 46 0.071
104 P4 47 0.559
104 P4 48 -0.417
104 P4 49 -2.858
104 P4 50 -5.788
104 P4 51 -8.230
104 P4 52 -9.206
104 P4 53 -8.718
104 P4 54 -7.741
104 P4 55 -7.741
104 P4 56 -7.741
104 P4 57 -7.741
104 P4 58 -5.788
104 P4 59 -2.858
104 P4 60 -0.417
104 P4 61 1.536
104 P4 62 2.024
104 P4 63 2.513
104 P4 64 3.489
104 P4 65 5.442
104 P4 66 7.395
104 P4 67 7.884
104 P4 68 7.395
104 P4 69 6.907
104 P4 70 6.907
104 P4 71 7.395
104 P4 72 7.884
104 P4 73 7.884
104 P4 74 6.419
104 P4 75 4.466
104 P4 76 2.513
104 P4 77 2.024
104 P4 78 2.024
104 P4 79 3.001
104 P4 80 4.466
104 P4 81 5.442
104 P4 82 5.442
104 P4 83 4.466
104 P4 84 3.489
104 P4 85 2.513
104 P4 86 3.001
104 P4 87 4.954
104 P4 88 8.372
104 P4 89 11.302
104 P4 90 12.767
104 P4 91 12.278
104 P4 92 10.813
104 P4 93 8.860
104 P4 94 8.372
104 P4 95 8.372
104 P4 96 8.372
104 P4 97 6.907
104 P4 98 3.977
104 P4 99 0.559
104 P4 100 -1.882
104 P4 101 -2.370
104 P4 102 -0.417
104 P4 103 0.559
104 P4 104 1.048
104 P4 105 0.071
104 P4 106 -0.905
104 P4 107 -1.882
104 P4 108 -1.394
104 P4 109 -0.417
104 P4 110 0.559
104 P4 111 1.048
104 P4 112 2.024
104 P4 113 3.001
104 P4 114 4.466
104 P4 115 5.442
104 P4 116 4.954
104 P4 117 4.466
104 P4 118 3.489
104 P4 119 3.489
104 P4 120 3.489
104 P4 121 3.001
104 P4 122 1.048
104 P4 123 -2.370
104 P4 124 -5.300
104 P4 125 -7.253
104 P4 126 -7.741
104 P4 127 -7.253
104 P4 128 -6.276
104 P4 129 -5.788
104 P4 130 -5.300
104 P4 131 -4.323
104 P4 132 -3.347
104 P4 133 -2.858
104 P4 134 -2.370
104 P4 135 -1.394
104 P4 136 0.071
104 P4 137 1.536
104 P4 138 3.001
104 P4 139 4.466
104 P4 140 4.954
104 P4 141 4.466
104 P4 142 3.001
104 P4 143 2.024
104 P4 144 1.048
104 P4 145 0.559
104 P4 146 -0.417
104 P4 147 -1.394
104 P4 148 -2.370
104 P4 149 -2.858
104 P4 150 -2.858
104 P4 151 -3.347
104 P4 152 -4.323
104 P4 153 -4.812
104 P4 154 -5.300
104 P4 155 -5.300
104 P4 156 -4.323
104 P4 157 -3.347
104 P4 158 -2.370
104 P4 159 -1.394
104 P4 160 0.071
104 P4 161 1.048
104 P4 162 1.536
104 P4 163 0.559
104 P4 164 -1.394
104 P4 165 -3.347
104 P4 166 -3.835
104 P4 167 -3.347
104 P4 168 -1.394
104 P4 169 0.071
104 P4 170 0.071
104 P4 171 -0.905
104 P4 172 -2.858
104 P4 173 -4.323
104 P4 174 -5.300
104 P4 175 -5.788
104 P4 176 -5.788
104 P4 177 -5.300
104 P4 178 -3.835
104 P4 179 -1.394
104 P4 180 1.048
104 P4 181 2.024
104 P4 182 3.001
104 P4 183 2.513
104 P4 184 2.024
104 P4 185 2.024
104 P4 186 2.513
104 P4 187 2.513
104 P4 188 1.048
104 P4 189 -0.417
104 P4 190 -1.882
104 P4 191 -2.858
104 P4 192 -3.347
104 P4 193 -3.347
104 P4 194 -2.858
104 P4 195 -2.858
104 P4 196 -3.347
104 P4 197 -3.347
104 P4 198 -4.323
104 P4 199 -4.812
104 P4 200 -5.788
104 P4 201 -5.788
104 P4 202 -4.323
104 P4 203 -1.882
104 P4 204 0.071
104 P4 205 1.536
104 P4 206 2.024
104 P4 207 1.048
104 P4 208 0.071
104 P4 209 0.071
104 P4 210 0.071
104 P4 211 -0.417
104 P4 212 -1.394
104 P4 213 -3.835
104 P4 214 -6.276
104 P4 215 -8.230
104 P4 216 -8.718
104 P4 217 -8.230
104 P4 218 -6.765
104 P4 219 -5.788
104 P4 220 -4.812
104 P4 221 -4.812
104 P4 222 -3.835
104 P4 223 -2.370
104 P4 224 -0.417
104 P4 225 1.048
104 P4 226 1.536
104 P4 227 2.513
104 P4 228 3.977
104 P4 229 4.954
104 P4 230 6.419
104 P4 231 6.907
104 P4 232 5.931
104 P4 233 3.489
104 P4 234 0.559
104 P4 235 -2.858
104 P4 236 -5.788
104 P4 237 -7.741
104 P4 238 -9.206
104 P4 239 -9.694
104 P4 240 -8.230
104 P4 241 -6.276
104 P4 242 -4.812
104 P4 243 -3.835
104 P4 244 -3.347
104 P4 245 -3.347
104 P4 246 -2.370
104 P4 247 0.071
104 P4 248 3.001
104 P4 249 5.442
104 P4 250 6.907
104 P4 251 7.395
104 P4 252 7.884
104 P4 253 8.860
104 P4 254 10.813
104 P4 255 12.278
# PZ chan 24
104 PZ 0 -1.709
104 PZ 1 -0.732
104 PZ 2 0.732
104 PZ 3 3.662
104 PZ 4 6.104
104 PZ 5 7.080
104 PZ 6 7.080
104 PZ 7 5.127
104 PZ 8 2.686
104 PZ 9 0.732
104 PZ 10 -1.221
104 PZ 11 -2.686
104 PZ 12 -4.150
104 PZ 13 -5.127
104 PZ 14 -5.615
104 PZ 15 -5.615
104 PZ 16 -4.639
104 PZ 17 -4.150
104 PZ 18 -3.662
104 PZ 19 -3.174
104 PZ 20 -3.174
104 PZ 21 -3.174
104 PZ 22 -2.197
104 PZ 23 -0.732
104 PZ 24 0.732
104 PZ 25 1.221
104 PZ 26 1.709
104 PZ 27 1.709
104 PZ 28 1.709
104 PZ 29 1.709
104 PZ 30 1.709
104 PZ 31 2.197
104 PZ 32 2.686
104 PZ 33 3.174
104 PZ 34 3.174
104 PZ 35 3.174
104 PZ 36 2.686
104 PZ 37 3.662
104 PZ 38 4.639
104 PZ 39 6.104
104 PZ 40 7.080
104 PZ 41 7.568
104 PZ 42 6.592
104 PZ 43 5.127
104 PZ 44 4.150
104 PZ 45 3.662
104 PZ 46 3.662
104 PZ 47 2.686
104 PZ 48 1.221
104 PZ 49 -1.709
104 PZ 50 -4.150
104 PZ 51 -5.615
104 PZ 52 -5.127
104 PZ 53 -4.150
104 PZ 54 -3.174
104 PZ 55 -3.174
104 PZ 56 -3.174
104 PZ 57 -2.686
104 PZ 58 -1.221
104 PZ 59 0.732
104 PZ 60 2.686
104 PZ 61 4.150
104 PZ 62 4.639
104 PZ 63 5.127
104 PZ 64 6.104
104 PZ 65 8.545
104 PZ 66 10.986
104 PZ 67 12.451
104 PZ 68 12.451
104 PZ 69 11.963
104 PZ 70 10.498
104 PZ 71 9.521
104 PZ 72 9.033
104 PZ 73 8.545
104 PZ 74 8.057
104 PZ 75 6.592
104 PZ 76 5.127
104 PZ 77 3.662
104 PZ 78 3.174
104 PZ 79 3.174
104 PZ 80 4.150
104 PZ 81 4.639
104 PZ 82 5.127
104 PZ 83 4.150
104 PZ 84 3.174
104 PZ 85 2.686
104 PZ 86 3.662
104 PZ 87 6.104
104 PZ 88 9.033
104 PZ 89 11.475
104 PZ 90 12.451
104 PZ 91 12.451
104 PZ 92 10.986
104 PZ 93 10.010
104 PZ 94 10.010
104 PZ 95 10.010
104 PZ 96 10.010
104 PZ 97 8.545
104 PZ 98 6.592
104 PZ 99 4.639
104 PZ 100 2.686
104 PZ 101 1.709
104 PZ 102 1.221
104 PZ 103 0.732
104 PZ 104 0.244
104 PZ 105 -0.732
104 PZ 106 -1.709
104 PZ 107 -2.686
104 PZ 108 -2.686
104 PZ 109 -2.686
104 PZ 110 -1.709
104 PZ 111 -0.244
104 PZ 112 0.732
104 PZ 113 1.709
104 PZ 114 2.686
104 PZ 115 2.686
104 PZ 116 3.174
104 PZ 117 3.174
104 PZ 118 2.686
104 PZ 119 2.197
104 PZ 120 1.221
104 PZ 121 -0.244
104 PZ 122 -1.709
104 PZ 123 -2.686
104 PZ 124 -3.662
104 PZ 125 -4.150
104 PZ 126 -4.150
104 PZ 127 -4.639
104 PZ 128 -4.639
104 PZ 129 -5.127
104 PZ 130 -5.615
104 PZ 131 -6.104
104 PZ 132 -5.615
104 PZ 133 -5.127
104 PZ 134 -3.662
104 PZ 135 -1.709
104 PZ 136 0.732
104 PZ 137 2.686
104 PZ 138 4.639
104 PZ 139 5.127
104 PZ 140 5.615
104 PZ 141 5.615
104 PZ 142 5.127
104 PZ 143 3.662
104 PZ 144 1.709
104 PZ 145 0.244
104 PZ 146 -1.221
104 PZ 147 -2.197
104 PZ 148 -2.197
104 PZ 149 -1.709
104 PZ 150 -1.221
104 PZ 151 -1.221
104 PZ 152 -1.709
104 PZ 153 -2.197
104 PZ 154 -2.197
104 PZ 155 -1.221
104 PZ 156 0.732
104 PZ 157 2.686
104 PZ 158 4.639
104 PZ 159 5.615
104 PZ 160 5.615
104 PZ 161 5.127
104 PZ 162 4.150
104 PZ 163 2.197
104 PZ 164 0.732
104 PZ 165 -0.244
104 PZ 166 -0.732
104 PZ 167 -1.709
104 PZ 168 -2.197
104 PZ 169 -2.686
104 PZ 170 -3.174
104 PZ 171 -4.150
104 PZ 172 -4.639
104 PZ 173 -5.127
104 PZ 174 -5.127
104 PZ 175 -4.150
104 PZ 176 -3.174
104 PZ 177 -1.709
104 PZ 178 -0.244
104 PZ 179 1.709
104 PZ 180 3.662
104 PZ 181 5.127
104 PZ 182 5.615
104 PZ 183 5.127
104 PZ 184 4.639
104 PZ 185 4.150
104 PZ 186 4.150
104 PZ 187 3.662
104 PZ 188 3.174
104 PZ 189 2.197
104 PZ 190 0.244
104 PZ 191 -1.709
104 PZ 192 -3.662
104 PZ 193 -5.615
104 PZ 194 -6.592
104 PZ 195 -7.080
104 PZ 196 -7.080
104 PZ 197 -6.592
104 PZ 198 -6.592
104 PZ 199 -6.104
104 PZ 200 -4.639
104 PZ 201 -3.662
104 PZ 202 -1.709
104 PZ 203 0.244
104 PZ 204 2.686
104 PZ 205 4.150
104 PZ 206 5.127
104 PZ 207 5.615
104 PZ 208 5.615
104 PZ 209 5.615
104 PZ 210 5.127
104 PZ 211 4.150
104 PZ 212 2.197
104 PZ 213 -0.732
104 PZ 214 -3.662
104 PZ 215 -6.104
104 PZ 216 -7.568
104 PZ 217 -7.568
104 PZ 218 -6.592
104 PZ 219 -4.639
104 PZ 220 -3.662
104 PZ 221 -2.686
104 PZ 222 -2.197
104 PZ 223 -2.197
104 PZ 224 -2.197
104 PZ 225 -1.221
104 PZ 226 0.732
104 PZ 227 3.174
104 PZ 228 5.615
104 PZ 229 8.057
104 PZ 230 9.033
104 PZ 231 8.057
104 PZ 232 6.592
104 PZ 233 4.639
104 PZ 234 2.686
104 PZ 235 1.709
104 PZ 236 0.244
104 PZ 237 -0.732
104 PZ 238 -2.686
104 PZ 239 -3.662
104 PZ 240 -4.150
104 PZ 241 -3.174
104 PZ 242 -1.221
104 PZ 243 -0.244
104 PZ 244 0.244
104 PZ 245 -0.244
104 PZ 246 -0.732
104 PZ 247 -0.732
104 PZ 248 0.244
104 PZ 249 2.197
104 PZ 250 4.639
104 PZ 251 7.080
104 PZ 252 9.033
104 PZ 253 10.986
104 PZ 254 12.451
104 PZ 255 13.428
# P8 chan 25
104 P8 0 -4.710
104 P8 1 -3.733
104 P8 2 -2.757
104 P8 3 -2.268
104 P8 4 -1.780
104 P8 5 -1.292
104 P8 6 -0.315
104 P8 7 1.149
104 P8 8 1.149
104 P8 9 0.661
104 P8 10 -0.804
104 P8 11 -2.757
104 P8 12 -5.686
104 P8 13 -8.616
104 P8 14 -11.058
104 P8 15 -12.034
104 P8 16 -10.081
104 P8 17 -6.175
104 P8 18 -2.757
104 P8 19 -2.757
104 P8 20 -5.686
104 P8 21 -11.058
104 P8 22 -14.476
104 P8 23 -13.499
104 P8 24 -9.593
104 P8 25 -4.710
104 P8 26 -2.757
104 P8 27 -3.245
104 P8 28 -4.710
104 P8 29 -5.198
104 P8 30 -4.222
104 P8 31 -3.245
104 P8 32 -5.198
104 P8 33 -8.616
104 P8 34 -10.569
104 P8 35 -9.104
104 P8 36 -3.733
104 P8 37 2.126
104 P8 38 6.032
104 P8 39 7.985
104 P8 40 7.985
104 P8 41 7.009
104 P8 42 6.032
104 P8 43 3.103
104 P8 44 -0.804
104 P8 45 -4.222
104 P8 46 -6.175
104 P8 47 -6.175
104 P8 48 -6.175
104 P8 49 -9.104
104 P8 50 -15.452
104 P8 51 -21.800
104 P8 52 -25.706
104 P8 53 -24.729
104 P8 54 -20.335
104 P8 55 -16.429
104 P8 56 -15.452
104 P8 57 -16.429
104 P8 58 -16.429
104 P8 59 -13.987
104 P8 60 -9.104
104 P8 61 -4.710
104 P8 62 -2.268
104 P8 63 -1.780
104 P8 64 -1.292
104 P8 65 0.661
104 P8 66 2.614
104 P8 67 3.103
104 P8 68 2.126
104 P8 69 0.173
104 P8 70 -0.315
104 P8 71 1.149
104 P8 72 3.591
104 P8 73 4.079
104 P8 74 2.614
104 P8 75 -1.780
104 P8 76 -5.198
104 P8 77 -5.686
104 P8 78 -3.245
104 P8 79 -0.315
104 P8 80 0.661
104 P8 81 -0.315
104 P8 82 -2.268
104 P8 83 -3.245
104 P8 84 -3.245
104 P8 85 -2.757
104 P8 86 -2.268
104 P8 87 -1.780
104 P8 88 0.661
104 P8 89 4.567
104 P8 90 9.450
104 P8 91 11.892
104 P8 92 10.427
104 P8 93 6.521
104 P8 94 3.103
104 P8 95 2.126
104 P8 96 4.079
104 P8 97 6.032
104 P8 98 4.567
104 P8 99 0.173
104 P8 100 -4.710
104 P8 101 -6.663
104 P8 102 -5.686
104 P8 103 -2.757
104 P8 104 -1.292
104 P8 105 -2.757
104 P8 106 -5.686
104 P8 107 -7.151
104 P8 108 -6.175
104 P8 109 -3.733
104 P8 110 -1.292
104 P8 111 -0.315
104 P8 112 0.661
104 P8 113 2.126
104 P8 114 5.056
104 P8 115 7.497
104 P8 116 6.521
104 P8 117 2.614
104 P8 118 -2.268
104 P8 119 -5.686
104 P8 120 -6.175
104 P8 121 -4.710
104 P8 122 -4.222
104 P8 123 -6.663
104 P8 124 -11.546
104 P8 125 -15.452
104 P8 126 -16.429
104 P8 127 -15.452
104 P8 128 -13.011
104 P8 129 -11.058
104 P8 130 -9.593
104 P8 131 -9.104
104 P8 132 -7.640
104 P8 133 -6.175
104 P8 134 -5.198
104 P8 135 -4.222
104 P8 136 -2.757
104 P8 137 -0.804
104 P8 138 1.149
104 P8 139 2.126
104 P8 140 1.149
104 P8 141 -1.780
104 P8 142 -4.710
104 P8 143 -5.686
104 P8 144 -5.686
104 P8 145 -5.198
104 P8 146 -5.686
104 P8 147 -8.128
104 P8 148 -9.593
104 P8 149 -11.058
104 P8 150 -10.569
104 P8 151 -9.593
104 P8 152 -8.616
104 P8 153 -8.616
104 P8 154 -8.616
104 P8 155 -9.104
104 P8 156 -9.593
104 P8 157 -11.058
104 P8 158 -12.034
104 P8 159 -11.546
104 P8 160 -8.128
104 P8 161 -3.733
104 P8 162 -0.804
104 P8 163 -1.292
104 P8 164 -5.198
104 P8 165 -11.058
104 P8 166 -13.987
104 P8 167 -13.987
104 P8 168 -10.569
104 P8 169 -6.175
104 P8 170 -4.710
104 P8 171 -5.198
104 P8 172 -7.640
104 P8 173 -10.569
104 P8 174 -12.034
104 P8 175 -12.034
104 P8 176 -11.058
104 P8 177 -9.104
104 P8 178 -6.175
104 P8 179 -3.733
104 P8 180 -2.757
104 P8 181 -2.268
104 P8 182 -2.268
104 P8 183 -2.268
104 P8 184 -1.292
104 P8 185 -0.315
104 P8 186 -0.315
104 P8 187 -1.780
104 P8 188 -4.222
104 P8 189 -6.663
104 P8 190 -7.640
104 P8 191 -6.663
104 P8 192 -5.686
104 P8 193 -5.198
104 P8 194 -5.198
104 P8 195 -6.175
104 P8 196 -7.151
104 P8 197 -8.616
104 P8 198 -10.569
104 P8 199 -12.034
104 P8 200 -13.011
104 P8 201 -12.034
104 P8 202 -8.616
104 P8 203 -4.222
104 P8 204 -1.292
104 P8 205 -0.315
104 P8 206 -2.268
104 P8 207 -5.686
104 P8 208 -8.128
104 P8 209 -9.104
104 P8 210 -7.151
104 P8 211 -4.710
104 P8 212 -3.245
104 P8 213 -4.222
104 P8 214 -8.616
104 P8 215 -13.499
104 P8 216 -16.917
104 P8 217 -16.917
104 P8 218 -13.987
104 P8 219 -10.569
104 P8 220 -8.616
104 P8 221 -9.104
104 P8 222 -9.593
104 P8 223 -8.128
104 P8 224 -4.222
104 P8 225 -0.315
104 P8 226 1.149
104 P8 227 -1.292
104 P8 228 -5.198
104 P8 229 -7.640
104 P8 230 -5.686
104 P8 231 -0.315
104 P8 232 3.591
104 P8 233 3.591
104 P8 234 -1.780
104 P8 235 -9.104
104 P8 236 -15.452
104 P8 237 -17.893
104 P8 238 -16.917
104 P8 239 -14.476
104 P8 240 -12.522
104 P8 241 -11.546
104 P8 242 -11.058
104 P8 243 -10.081
104 P8 244 -8.128
104 P8 245 -5.198
104 P8 246 -1.780
104 P8 247 1.149
104 P8 248 2.614
104 P8 249 2.126
104 P8 250 1.149
104 P8 251 0.173
104 P8 252 1.149
104 P8 253 4.079
104 P8 254 7.009
104 P8 255 8.962
# P7 chan 26
104 P7 0 -4.791
104 P7 1 0.580
104 P7 2 6.439
104 P7 3 11.810
104 P7 4 14.740
104 P7 5 14.740
104 P7 6 13.275
104 P7 7 10.345
104 P7 8 6.439
104 P7 9 2.045
104 P7 10 -2.838
104 P7 11 -8.209
104 P7 12 -12.115
104 P7 13 -13.580
104 P7 14 -13.580
104 P7 15 -13.092
104 P7 16 -14.069
104 P7 17 -14.557
104 P7 18 -15.045
104 P7 19 -14.069
104 P7 20 -12.115
104 P7 21 -11.139
104 P7 22 -10.651
104 P7 23 -10.651
104 P7 24 -9.186
104 P7 25 -6.256
104 P7 26 -2.350
104 P7 27 0.092
104 P7 28 1.068
104 P7 29 1.556
104 P7 30 3.998
104 P7 31 7.904
104 P7 32 11.322
104 P7 33 11.810
104 P7 34 10.345
104 P7 35 7.904
104 P7 36 8.881
104 P7 37 13.763
104 P7 38 18.646
104 P7 39 20.111
104 P7 40 15.228
104 P7 41 7.416
104 P7 42 2.045
104 P7 43 1.068
104 P7 44 4.486
104 P7 45 7.416
104 P7 46 5.463
104 P7 47 -2.350
104 P7 48 -12.604
104 P7 49 -19.928
104 P7 50 -22.858
104 P7 51 -21.393
104 P7 52 -18.951
104 P7 53 -17.487
104 P7 54 -16.510
104 P7 55 -15.533
104 P7 56 -12.604
104 P7 57 -7.721
104 P7 58 -2.350
104 P7 59 1.068
104 P7 60 2.045
104 P7 61 2.045
104 P7 62 3.021
104 P7 63 6.439
104 P7 64 12.299
104 P7 65 17.670
104 P7 66 21.088
104 P7 67 21.088
104 P7 68 18.646
104 P7 69 16.205
104 P7 70 14.252
104 P7 71 11.810
104 P7 72 8.881
104 P7 73 5.463
104 P7 74 2.533
104 P7 75 2.533
104 P7 76 5.463
104 P7 77 9.369
104 P7 78 11.322
104 P7 79 7.904
104 P7 80 1.068
104 P7 81 -7.233
104 P7 82 -11.139
104 P7 83 -10.162
104 P7 84 -3.815
104 P7 85 3.998
104 P7 86 9.857
104 P7 87 13.275
104 P7 88 14.740
104 P7 89 15.228
104 P7 90 16.693
104 P7 91 18.646
104 P7 92 19.623
104 P7 93 19.135
104 P7 94 17.670
104 P7 95 16.205
104 P7 96 14.740
104 P7 97 13.275
104 P7 98 10.834
104 P7 99 6.927
104 P7 100 2.045
104 P7 101 -1.862
104 P7 102 -3.815
104 P7 103 -3.326
104 P7 104 -1.373
104 P7 105 0.580
104 P7 106 0.580
104 P7 107 -0.885
104 P7 108 -2.350
104 P7 109 -2.838
104 P7 110 -0.397
104 P7 111 3.998
104 P7 112 8.392
104 P7 113 11.322
104 P7 114 13.275
104 P7 115 12.787
104 P7 116 10.834
104 P7 117 7.904
104 P7 118 3.998
104 P7 119 -0.397
104 P7 120 -3.815
104 P7 121 -5.768
104 P7 122 -5.768
104 P7 123 -5.280
104 P7 124 -5.280
104 P7 125 -6.256
104 P7 126 -8.698
104 P7 127 -11.139
104 P7 128 -11.627
104 P7 129 -9.674
104 P7 130 -7.233
104 P7 131 -4.303
104 P7 132 -3.326
104 P7 133 -3.326
104 P7 134 -3.815
104 P7 135 -2.350
104 P7 136 1.068
104 P7 137 5.463
104 P7 138 10.345
104 P7 139 13.275
104 P7 140 13.763
104 P7 141 11.810
104 P7 142 7.416
104 P7 143 1.556
104 P7 144 -3.815
104 P7 145 -8.209
104 P7 146 -10.162
104 P7 147 -10.651
104 P7 148 -10.651
