# co2c0000341.rd
# 120 trials, 64 chans, 416 samples 368 post_stim samples
# 3.906000 msecs uV
# S1 obj , trial 42
# FP1 chan 0
42 FP1 0 -2.482
42 FP1 1 -2.482
42 FP1 2 -0.041
42 FP1 3 2.889
42 FP1 4 4.354
42 FP1 5 3.377
42 FP1 6 0.936
42 FP1 7 -0.529
42 FP1 8 -0.041
42 FP1 9 0.936
42 FP1 10 1.424
42 FP1 11 0.936
42 FP1 12 0.448
42 FP1 13 0.448
42 FP1 14 0.448
42 FP1 15 -0.041
42 FP1 16 -1.506
42 FP1 17 -3.459
42 FP1 18 -4.435
42 FP1 19 -3.459
42 FP1 20 -1.506
42 FP1 21 0.936
42 FP1 22 1.424
42 FP1 23 0.448
42 FP1 24 -1.017
42 FP1 25 -2.482
42 FP1 26 -3.459
42 FP1 27 -3.459
42 FP1 28 -2.970
42 FP1 29 -2.970
42 FP1 30 -1.506
42 FP1 31 -0.529
42 FP1 32 0.936
42 FP1 33 1.912
42 FP1 34 2.401
42 FP1 35 2.889
42 FP1 36 3.866
42 FP1 37 4.354
42 FP1 38 5.330
42 FP1 39 5.819
42 FP1 40 6.795
42 FP1 41 9.237
42 FP1 42 11.678
42 FP1 43 12.655
42 FP1 44 12.166
42 FP1 45 9.725
42 FP1 46 7.284
42 FP1 47 5.819
42 FP1 48 6.307
42 FP1 49 7.284
42 FP1 50 7.772
42 FP1 51 6.795
42 FP1 52 5.330
42 FP1 53 4.354
42 FP1 54 4.354
42 FP1 55 4.354
42 FP1 56 4.354
42 FP1 57 3.377
42 FP1 58 1.912
42 FP1 59 0.936
42 FP1 60 0.936
42 FP1 61 0.448
42 FP1 62 -1.017
42 FP1 63 -3.459
42 FP1 64 -5.900
42 FP1 65 -6.388
42 FP1 66 -6.388
42 FP1 67 -5.900
42 FP1 68 -6.388
42 FP1 69 -8.341
42 FP1 70 -10.295
42 FP1 71 -10.295
42 FP1 72 -8.341
42 FP1 73 -5.412
42 FP1 74 -4.435
42 FP1 75 -4.924
42 FP1 76 -7.365
42 FP1 77 -9.318
42 FP1 78 -9.318
42 FP1 79 -6.877
42 FP1 80 -2.482
42 FP1 81 0.936
42 FP1 82 2.889
42 FP1 83 3.866
42 FP1 84 3.866
42 FP1 85 3.377
42 FP1 86 1.912
42 FP1 87 0.448
42 FP1 88 -1.017
42 FP1 89 -1.506
42 FP1 90 -1.506
42 FP1 91 -0.041
42 FP1 92 1.912
42 FP1 93 3.866
42 FP1 94 4.354
42 FP1 95 3.866
42 FP1 96 2.401
42 FP1 97 0.936
42 FP1 98 -0.041
42 FP1 99 -1.017
42 FP1 100 -1.017
42 FP1 101 -0.041
42 FP1 102 1.424
42 FP1 103 3.866
42 FP1 104 5.330
42 FP1 105 6.307
42 FP1 106 5.819
42 FP1 107 4.354
42 FP1 108 2.401
42 FP1 109 0.936
42 FP1 110 -0.529
42 FP1 111 -1.506
42 FP1 112 -1.994
42 FP1 113 -1.994
42 FP1 114 -1.506
42 FP1 115 -1.017
42 FP1 116 -0.529
42 FP1 117 -0.041
42 FP1 118 0.448
42 FP1 119 0.448
42 FP1 120 0.936
42 FP1 121 1.912
42 FP1 122 2.889
42 FP1 123 3.377
42 FP1 124 3.866
42 FP1 125 3.377
42 FP1 126 1.912
42 FP1 127 0.448
42 FP1 128 -0.529
42 FP1 129 -0.041
42 FP1 130 1.424
42 FP1 131 3.377
42 FP1 132 3.377
42 FP1 133 2.889
42 FP1 134 0.936
42 FP1 135 -0.529
42 FP1 136 -0.529
42 FP1 137 0.448
42 FP1 138 0.936
42 FP1 139 0.448
42 FP1 140 -0.041
42 FP1 141 -0.041
42 FP1 142 0.936
42 FP1 143 3.866
42 FP1 144 5.819
42 FP1 145 6.307
42 FP1 146 3.866
42 FP1 147 0.936
42 FP1 148 -1.994
42 FP1 149 -3.459
42 FP1 150 -2.482
42 FP1 151 0.448
42 FP1 152 3.866
42 FP1 153 7.284
42 FP1 154 9.237
42 FP1 155 8.748
42 FP1 156 5.330
42 FP1 157 1.424
42 FP1 158 -0.529
42 FP1 159 -0.041
42 FP1 160 3.377
42 FP1 161 7.772
42 FP1 162 9.725
42 FP1 163 8.748
42 FP1 164 4.842
42 FP1 165 -0.041
42 FP1 166 -2.970
42 FP1 167 -2.970
42 FP1 168 -1.506
42 FP1 169 0.448
42 FP1 170 1.912
42 FP1 171 2.889
42 FP1 172 2.889
42 FP1 173 2.401
42 FP1 174 0.936
42 FP1 175 -0.529
42 FP1 176 -1.994
42 FP1 177 -3.459
42 FP1 178 -3.947
42 FP1 179 -3.459
42 FP1 180 -2.482
42 FP1 181 -1.506
42 FP1 182 -1.017
42 FP1 183 -1.506
42 FP1 184 -1.994
42 FP1 185 -2.482
42 FP1 186 -1.994
42 FP1 187 -1.017
42 FP1 188 0.936
42 FP1 189 2.401
42 FP1 190 2.889
42 FP1 191 2.401
42 FP1 192 1.424
42 FP1 193 0.936
42 FP1 194 0.448
42 FP1 195 0.448
42 FP1 196 -0.041
42 FP1 197 -1.017
42 FP1 198 -1.506
42 FP1 199 -1.017
42 FP1 200 0.936
42 FP1 201 3.377
42 FP1 202 5.330
42 FP1 203 6.795
42 FP1 204 7.284
42 FP1 205 8.260
42 FP1 206 9.237
42 FP1 207 10.213
42 FP1 208 9.725
42 FP1 209 9.237
42 FP1 210 8.260
42 FP1 211 8.748
42 FP1 212 11.190
42 FP1 213 13.631
42 FP1 214 16.073
42 FP1 215 17.049
42 FP1 216 16.561
42 FP1 217 15.096
42 FP1 218 13.143
42 FP1 219 12.655
42 FP1 220 13.143
42 FP1 221 14.119
42 FP1 222 16.073
42 FP1 223 16.561
42 FP1 224 17.049
42 FP1 225 15.584
42 FP1 226 13.631
42 FP1 227 11.190
42 FP1 228 9.237
42 FP1 229 7.772
42 FP1 230 7.772
42 FP1 231 8.260
42 FP1 232 8.748
42 FP1 233 9.725
42 FP1 234 10.213
42 FP1 235 10.701
42 FP1 236 11.190
42 FP1 237 11.190
42 FP1 238 10.701
42 FP1 239 9.237
42 FP1 240 7.772
42 FP1 241 7.284
42 FP1 242 7.772
42 FP1 243 9.237
42 FP1 244 10.213
42 FP1 245 9.725
42 FP1 246 7.772
42 FP1 247 6.307
42 FP1 248 5.330
42 FP1 249 5.330
42 FP1 250 5.819
42 FP1 251 6.307
42 FP1 252 6.307
42 FP1 253 6.307
42 FP1 254 6.307
42 FP1 255 6.795
# FP2 chan 1
42 FP2 0 -2.360
42 FP2 1 -0.407
42 FP2 2 3.499
42 FP2 3 6.429
42 FP2 4 6.917
42 FP2 5 4.476
42 FP2 6 0.570
42 FP2 7 -1.383
42 FP2 8 -0.895
42 FP2 9 0.570
42 FP2 10 1.546
42 FP2 11 2.035
42 FP2 12 1.546
42 FP2 13 1.058
42 FP2 14 1.058
42 FP2 15 0.081
42 FP2 16 -1.872
42 FP2 17 -3.337
42 FP2 18 -3.825
42 FP2 19 -2.848
42 FP2 20 -0.407
42 FP2 21 2.035
42 FP2 22 2.523
42 FP2 23 0.570
42 FP2 24 -1.383
42 FP2 25 -3.825
42 FP2 26 -4.801
42 FP2 27 -5.290
42 FP2 28 -5.778
42 FP2 29 -5.290
42 FP2 30 -3.825
42 FP2 31 -2.360
42 FP2 32 0.081
42 FP2 33 1.058
42 FP2 34 1.058
42 FP2 35 0.570
42 FP2 36 1.546
42 FP2 37 2.523
42 FP2 38 4.476
42 FP2 39 6.429
42 FP2 40 8.382
42 FP2 41 10.824
42 FP2 42 12.777
42 FP2 43 13.753
42 FP2 44 13.265
42 FP2 45 10.824
42 FP2 46 8.382
42 FP2 47 6.917
42 FP2 48 6.429
42 FP2 49 7.406
42 FP2 50 7.894
42 FP2 51 7.894
42 FP2 52 6.917
42 FP2 53 5.452
42 FP2 54 4.476
42 FP2 55 3.988
42 FP2 56 3.499
42 FP2 57 2.523
42 FP2 58 1.546
42 FP2 59 0.081
42 FP2 60 -0.407
42 FP2 61 -1.872
42 FP2 62 -3.337
42 FP2 63 -6.266
42 FP2 64 -8.219
42 FP2 65 -9.196
42 FP2 66 -9.196
42 FP2 67 -8.708
42 FP2 68 -8.708
42 FP2 69 -10.173
42 FP2 70 -10.661
42 FP2 71 -10.173
42 FP2 72 -7.731
42 FP2 73 -4.801
42 FP2 74 -3.825
42 FP2 75 -4.801
42 FP2 76 -6.755
42 FP2 77 -8.219
42 FP2 78 -8.219
42 FP2 79 -6.266
42 FP2 80 -2.848
42 FP2 81 -0.407
42 FP2 82 1.546
42 FP2 83 2.523
42 FP2 84 3.011
42 FP2 85 3.011
42 FP2 86 2.035
42 FP2 87 0.081
42 FP2 88 -1.872
42 FP2 89 -3.825
42 FP2 90 -4.313
42 FP2 91 -2.848
42 FP2 92 -0.407
42 FP2 93 1.546
42 FP2 94 2.523
42 FP2 95 2.035
42 FP2 96 0.081
42 FP2 97 -2.360
42 FP2 98 -4.801
42 FP2 99 -5.778
42 FP2 100 -5.290
42 FP2 101 -3.337
42 FP2 102 -0.895
42 FP2 103 1.058
42 FP2 104 2.523
42 FP2 105 2.523
42 FP2 106 1.546
42 FP2 107 0.570
42 FP2 108 -0.895
42 FP2 109 -1.872
42 FP2 110 -3.337
42 FP2 111 -4.313
42 FP2 112 -4.801
42 FP2 113 -5.778
42 FP2 114 -5.778
42 FP2 115 -5.290
42 FP2 116 -4.801
42 FP2 117 -3.825
42 FP2 118 -3.337
42 FP2 119 -2.360
42 FP2 120 -1.872
42 FP2 121 -1.383
42 FP2 122 -1.383
42 FP2 123 -1.872
42 FP2 124 -2.360
42 FP2 125 -2.848
42 FP2 126 -4.313
42 FP2 127 -5.290
42 FP2 128 -5.778
42 FP2 129 -5.290
42 FP2 130 -3.825
42 FP2 131 -1.383
42 FP2 132 -0.895
42 FP2 133 -1.383
42 FP2 134 -2.848
42 FP2 135 -4.801
42 FP2 136 -5.290
42 FP2 137 -4.801
42 FP2 138 -4.801
42 FP2 139 -4.313
42 FP2 140 -3.825
42 FP2 141 -3.337
42 FP2 142 -1.872
42 FP2 143 0.570
42 FP2 144 2.035
42 FP2 145 2.035
42 FP2 146 0.081
42 FP2 147 -2.848
42 FP2 148 -4.801
42 FP2 149 -5.290
42 FP2 150 -3.337
42 FP2 151 -0.407
42 FP2 152 3.011
42 FP2 153 6.429
42 FP2 154 7.894
42 FP2 155 6.917
42 FP2 156 3.988
42 FP2 157 1.058
42 FP2 158 -1.383
42 FP2 159 -0.407
42 FP2 160 2.523
42 FP2 161 6.429
42 FP2 162 8.382
42 FP2 163 6.917
42 FP2 164 2.523
42 FP2 165 -1.872
42 FP2 166 -4.801
42 FP2 167 -4.313
42 FP2 168 -2.848
42 FP2 169 -0.895
42 FP2 170 0.081
42 FP2 171 0.081
42 FP2 172 -0.407
42 FP2 173 -0.895
42 FP2 174 -1.383
42 FP2 175 -1.872
42 FP2 176 -2.360
42 FP2 177 -2.360
42 FP2 178 -2.360
42 FP2 179 -2.360
42 FP2 180 -1.872
42 FP2 181 -1.872
42 FP2 182 -1.872
42 FP2 183 -2.848
42 FP2 184 -3.337
42 FP2 185 -3.825
42 FP2 186 -3.825
42 FP2 187 -2.360
42 FP2 188 -1.383
42 FP2 189 -0.895
42 FP2 190 -1.383
42 FP2 191 -1.872
42 FP2 192 -2.848
42 FP2 193 -2.360
42 FP2 194 -1.872
42 FP2 195 -0.895
42 FP2 196 -1.383
42 FP2 197 -2.360
42 FP2 198 -3.337
42 FP2 199 -2.360
42 FP2 200 0.081
42 FP2 201 3.011
42 FP2 202 5.452
42 FP2 203 6.429
42 FP2 204 7.406
42 FP2 205 7.406
42 FP2 206 8.382
42 FP2 207 8.870
42 FP2 208 8.870
42 FP2 209 8.870
42 FP2 210 8.870
42 FP2 211 9.847
42 FP2 212 12.288
42 FP2 213 14.730
42 FP2 214 16.195
42 FP2 215 16.195
42 FP2 216 14.730
42 FP2 217 12.777
42 FP2 218 10.824
42 FP2 219 10.335
42 FP2 220 11.312
42 FP2 221 12.777
42 FP2 222 13.753
42 FP2 223 14.242
42 FP2 224 13.265
42 FP2 225 11.312
42 FP2 226 8.870
42 FP2 227 5.941
42 FP2 228 3.499
42 FP2 229 2.523
42 FP2 230 3.011
42 FP2 231 3.988
42 FP2 232 4.476
42 FP2 233 4.964
42 FP2 234 4.476
42 FP2 235 3.988
42 FP2 236 4.476
42 FP2 237 5.452
42 FP2 238 5.452
42 FP2 239 4.476
42 FP2 240 3.011
42 FP2 241 1.546
42 FP2 242 1.058
42 FP2 243 1.058
42 FP2 244 1.058
42 FP2 245 1.058
42 FP2 246 0.570
42 FP2 247 0.570
42 FP2 248 0.081
42 FP2 249 0.081
42 FP2 250 0.570
42 FP2 251 1.058
42 FP2 252 1.546
42 FP2 253 2.523
42 FP2 254 3.011
42 FP2 255 3.011
# F7 chan 2
42 F7 0 -2.116
42 F7 1 -4.557
42 F7 2 -3.092
42 F7 3 -0.163
42 F7 4 3.255
42 F7 5 4.232
42 F7 6 3.743
42 F7 7 2.767
42 F7 8 2.279
42 F7 9 1.790
42 F7 10 1.302
42 F7 11 0.326
42 F7 12 -0.163
42 F7 13 -0.163
42 F7 14 0.814
42 F7 15 1.302
42 F7 16 0.814
42 F7 17 -0.651
42 F7 18 -2.116
42 F7 19 -3.092
42 F7 20 -2.604
42 F7 21 -1.628
42 F7 22 -0.163
42 F7 23 0.326
42 F7 24 0.326
42 F7 25 0.326
42 F7 26 -0.651
42 F7 27 -0.651
42 F7 28 -0.651
42 F7 29 0.326
42 F7 30 1.790
42 F7 31 3.255
42 F7 32 4.720
42 F7 33 4.720
42 F7 34 5.208
42 F7 35 5.697
42 F7 36 6.185
42 F7 37 6.673
42 F7 38 5.697
42 F7 39 4.232
42 F7 40 3.743
42 F7 41 4.232
42 F7 42 6.185
42 F7 43 8.626
42 F7 44 10.091
42 F7 45 10.091
42 F7 46 8.626
42 F7 47 7.650
42 F7 48 7.161
42 F7 49 7.161
42 F7 50 6.185
42 F7 51 5.208
42 F7 52 4.232
42 F7 53 4.232
42 F7 54 5.208
42 F7 55 6.673
42 F7 56 7.161
42 F7 57 7.161
42 F7 58 5.697
42 F7 59 4.232
42 F7 60 3.255
42 F7 61 2.767
42 F7 62 2.767
42 F7 63 1.790
42 F7 64 1.790
42 F7 65 1.790
42 F7 66 2.279
42 F7 67 1.302
42 F7 68 -0.651
42 F7 69 -3.581
42 F7 70 -6.022
42 F7 71 -6.022
42 F7 72 -3.092
42 F7 73 1.302
42 F7 74 3.743
42 F7 75 3.743
42 F7 76 0.814
42 F7 77 -2.604
42 F7 78 -4.069
42 F7 79 -2.116
42 F7 80 2.279
42 F7 81 7.650
42 F7 82 11.556
42 F7 83 12.533
42 F7 84 11.068
42 F7 85 8.138
42 F7 86 5.697
42 F7 87 4.720
42 F7 88 4.232
42 F7 89 4.720
42 F7 90 5.697
42 F7 91 7.161
42 F7 92 9.115
42 F7 93 10.091
42 F7 94 10.091
42 F7 95 9.115
42 F7 96 8.138
42 F7 97 8.138
42 F7 98 8.138
42 F7 99 9.115
42 F7 100 11.068
42 F7 101 12.533
42 F7 102 14.974
42 F7 103 16.439
42 F7 104 17.415
42 F7 105 16.439
42 F7 106 14.486
42 F7 107 12.044
42 F7 108 9.115
42 F7 109 7.650
42 F7 110 7.650
42 F7 111 8.138
42 F7 112 8.626
42 F7 113 8.138
42 F7 114 7.650
42 F7 115 7.161
42 F7 116 7.650
42 F7 117 8.138
42 F7 118 8.138
42 F7 119 7.161
42 F7 120 7.161
42 F7 121 7.161
42 F7 122 9.115
42 F7 123 11.556
42 F7 124 13.021
42 F7 125 13.509
42 F7 126 11.068
42 F7 127 8.626
42 F7 128 7.161
42 F7 129 7.650
42 F7 130 9.603
42 F7 131 11.556
42 F7 132 12.533
42 F7 133 11.556
42 F7 134 10.091
42 F7 135 9.603
42 F7 136 10.091
42 F7 137 10.579
42 F7 138 10.091
42 F7 139 7.650
42 F7 140 5.208
42 F7 141 3.743
42 F7 142 4.720
42 F7 143 8.138
42 F7 144 12.044
42 F7 145 13.509
42 F7 146 12.044
42 F7 147 7.161
42 F7 148 2.279
42 F7 149 0.326
42 F7 150 1.302
42 F7 151 5.697
42 F7 152 11.068
42 F7 153 14.486
42 F7 154 15.462
42 F7 155 12.533
42 F7 156 7.650
42 F7 157 2.767
42 F7 158 -0.651
42 F7 159 0.326
42 F7 160 3.743
42 F7 161 8.626
42 F7 162 11.556
42 F7 163 11.556
42 F7 164 8.626
42 F7 165 4.720
42 F7 166 1.302
42 F7 167 0.326
42 F7 168 0.814
42 F7 169 3.255
42 F7 170 6.185
42 F7 171 8.138
42 F7 172 9.115
42 F7 173 7.161
42 F7 174 3.255
42 F7 175 -1.139
42 F7 176 -5.046
42 F7 177 -6.510
42 F7 178 -5.534
42 F7 179 -3.092
42 F7 180 -0.163
42 F7 181 2.279
42 F7 182 3.255
42 F7 183 3.255
42 F7 184 2.279
42 F7 185 1.302
42 F7 186 0.814
42 F7 187 1.790
42 F7 188 3.743
42 F7 189 6.185
42 F7 190 8.626
42 F7 191 8.626
42 F7 192 7.161
42 F7 193 3.743
42 F7 194 1.302
42 F7 195 -0.163
42 F7 196 1.302
42 F7 197 3.255
42 F7 198 5.208
42 F7 199 5.697
42 F7 200 4.232
42 F7 201 2.767
42 F7 202 1.790
42 F7 203 2.767
42 F7 204 6.185
42 F7 205 10.579
42 F7 206 13.509
42 F7 207 14.974
42 F7 208 13.509
42 F7 209 10.091
42 F7 210 7.161
42 F7 211 6.185
42 F7 212 8.138
42 F7 213 11.556
42 F7 214 15.462
42 F7 215 17.415
42 F7 216 17.415
42 F7 217 14.974
42 F7 218 12.533
42 F7 219 10.579
42 F7 220 10.579
42 F7 221 12.044
42 F7 222 14.486
42 F7 223 16.439
42 F7 224 16.927
42 F7 225 15.951
42 F7 226 14.486
42 F7 227 12.044
42 F7 228 10.091
42 F7 229 9.603
42 F7 230 10.091
42 F7 231 11.556
42 F7 232 13.021
42 F7 233 14.974
42 F7 234 16.439
42 F7 235 16.927
42 F7 236 16.439
42 F7 237 14.974
42 F7 238 12.044
42 F7 239 9.603
42 F7 240 8.626
42 F7 241 10.091
42 F7 242 13.021
42 F7 243 15.462
42 F7 244 16.439
42 F7 245 14.486
42 F7 246 10.579
42 F7 247 7.161
42 F7 248 5.208
42 F7 249 5.697
42 F7 250 7.161
42 F7 251 9.115
42 F7 252 9.115
42 F7 253 8.138
42 F7 254 7.161
42 F7 255 6.185
# F8 chan 3
42 F8 0 -4.659
42 F8 1 -0.753
42 F8 2 3.642
42 F8 3 5.595
42 F8 4 4.618
42 F8 5 1.200
42 F8 6 -3.194
42 F8 7 -4.659
42 F8 8 -2.706
42 F8 9 0.224
42 F8 10 3.153
42 F8 11 4.618
42 F8 12 4.130
42 F8 13 3.153
42 F8 14 2.665
42 F8 15 1.200
42 F8 16 -0.753
42 F8 17 -2.706
42 F8 18 -3.194
42 F8 19 -2.218
42 F8 20 0.224
42 F8 21 2.177
42 F8 22 2.177
42 F8 23 0.224
42 F8 24 -2.706
42 F8 25 -5.147
42 F8 26 -7.100
42 F8 27 -7.100
42 F8 28 -6.612
42 F8 29 -5.636
42 F8 30 -4.171
42 F8 31 -2.218
42 F8 32 -0.753
42 F8 33 -0.753
42 F8 34 -1.241
42 F8 35 -1.241
42 F8 36 -0.264
42 F8 37 2.177
42 F8 38 5.595
42 F8 39 8.525
42 F8 40 10.966
42 F8 41 12.919
42 F8 42 14.384
42 F8 43 15.361
42 F8 44 15.361
42 F8 45 13.896
42 F8 46 11.943
42 F8 47 9.989
42 F8 48 9.013
42 F8 49 9.013
42 F8 50 9.013
42 F8 51 8.525
42 F8 52 7.060
42 F8 53 6.083
42 F8 54 5.107
42 F8 55 5.107
42 F8 56 4.618
42 F8 57 4.130
42 F8 58 2.665
42 F8 59 1.689
42 F8 60 0.712
42 F8 61 -0.753
42 F8 62 -2.706
42 F8 63 -5.147
42 F8 64 -8.077
42 F8 65 -9.542
42 F8 66 -10.030
42 F8 67 -8.565
42 F8 68 -7.589
42 F8 69 -7.589
42 F8 70 -8.077
42 F8 71 -8.565
42 F8 72 -7.589
42 F8 73 -5.636
42 F8 74 -3.682
42 F8 75 -2.706
42 F8 76 -4.171
42 F8 77 -4.659
42 F8 78 -4.659
42 F8 79 -3.194
42 F8 80 -0.264
42 F8 81 2.665
42 F8 82 4.618
42 F8 83 5.595
42 F8 84 6.083
42 F8 85 6.571
42 F8 86 6.083
42 F8 87 4.618
42 F8 88 2.665
42 F8 89 1.200
42 F8 90 1.200
42 F8 91 3.153
42 F8 92 6.083
42 F8 93 8.036
42 F8 94 7.548
42 F8 95 4.618
42 F8 96 0.224
42 F8 97 -3.194
42 F8 98 -4.659
42 F8 99 -4.171
42 F8 100 -1.729
42 F8 101 1.200
42 F8 102 4.130
42 F8 103 5.595
42 F8 104 6.083
42 F8 105 5.595
42 F8 106 4.618
42 F8 107 4.130
42 F8 108 3.642
42 F8 109 3.153
42 F8 110 2.665
42 F8 111 1.200
42 F8 112 -0.264
42 F8 113 -2.218
42 F8 114 -3.682
42 F8 115 -5.147
42 F8 116 -5.147
42 F8 117 -4.171
42 F8 118 -2.706
42 F8 119 -0.753
42 F8 120 -0.264
42 F8 121 -1.729
42 F8 122 -3.194
42 F8 123 -5.147
42 F8 124 -5.636
42 F8 125 -5.147
42 F8 126 -4.659
42 F8 127 -4.659
42 F8 128 -5.147
42 F8 129 -4.659
42 F8 130 -3.194
42 F8 131 -0.264
42 F8 132 1.689
42 F8 133 2.665
42 F8 134 1.689
42 F8 135 0.224
42 F8 136 -1.241
42 F8 137 -1.729
42 F8 138 -2.218
42 F8 139 -2.706
42 F8 140 -2.706
42 F8 141 -2.218
42 F8 142 -1.241
42 F8 143 0.224
42 F8 144 1.689
42 F8 145 1.689
42 F8 146 -0.264
42 F8 147 -2.218
42 F8 148 -3.682
42 F8 149 -3.194
42 F8 150 -1.241
42 F8 151 1.689
42 F8 152 4.618
42 F8 153 6.083
42 F8 154 5.595
42 F8 155 4.130
42 F8 156 0.712
42 F8 157 -2.218
42 F8 158 -3.682
42 F8 159 -2.706
42 F8 160 -0.264
42 F8 161 2.177
42 F8 162 2.177
42 F8 163 -0.264
42 F8 164 -4.171
42 F8 165 -8.077
42 F8 166 -9.054
42 F8 167 -7.100
42 F8 168 -3.682
42 F8 169 -1.241
42 F8 170 -0.264
42 F8 171 -1.729
42 F8 172 -3.194
42 F8 173 -4.171
42 F8 174 -4.171
42 F8 175 -3.194
42 F8 176 -2.218
42 F8 177 -2.218
42 F8 178 -2.706
42 F8 179 -4.171
42 F8 180 -5.636
42 F8 181 -6.612
42 F8 182 -6.612
42 F8 183 -6.124
42 F8 184 -6.612
42 F8 185 -6.612
42 F8 186 -6.612
42 F8 187 -6.124
42 F8 188 -5.636
42 F8 189 -5.147
42 F8 190 -5.147
42 F8 191 -6.124
42 F8 192 -7.100
42 F8 193 -7.589
42 F8 194 -7.100
42 F8 195 -7.100
42 F8 196 -6.612
42 F8 197 -7.100
42 F8 198 -7.589
42 F8 199 -6.612
42 F8 200 -4.171
42 F8 201 -0.753
42 F8 202 2.665
42 F8 203 5.107
42 F8 204 6.083
42 F8 205 6.083
42 F8 206 5.595
42 F8 207 6.083
42 F8 208 7.060
42 F8 209 8.525
42 F8 210 9.501
42 F8 211 10.478
42 F8 212 10.966
42 F8 213 11.454
42 F8 214 11.454
42 F8 215 10.966
42 F8 216 9.501
42 F8 217 8.036
42 F8 218 7.060
42 F8 219 7.060
42 F8 220 8.036
42 F8 221 8.525
42 F8 222 9.013
42 F8 223 8.036
42 F8 224 6.083
42 F8 225 3.153
42 F8 226 -0.264
42 F8 227 -3.194
42 F8 228 -4.659
42 F8 229 -4.171
42 F8 230 -3.682
42 F8 231 -2.218
42 F8 232 -2.706
42 F8 233 -4.171
42 F8 234 -5.636
42 F8 235 -6.612
42 F8 236 -6.612
42 F8 237 -5.636
42 F8 238 -4.171
42 F8 239 -3.682
42 F8 240 -4.659
42 F8 241 -6.612
42 F8 242 -8.565
42 F8 243 -10.518
42 F8 244 -11.495
42 F8 245 -11.495
42 F8 246 -10.518
42 F8 247 -8.565
42 F8 248 -7.589
42 F8 249 -7.589
42 F8 250 -7.589
42 F8 251 -8.077
42 F8 252 -7.589
42 F8 253 -6.612
42 F8 254 -5.147
42 F8 255 -4.659
# AF1 chan 4
42 AF1 0 -0.102
42 AF1 1 -0.102
42 AF1 2 1.363
42 AF1 3 3.805
42 AF1 4 5.269
42 AF1 5 4.781
42 AF1 6 3.805
42 AF1 7 3.316
42 AF1 8 3.805
42 AF1 9 4.781
42 AF1 10 4.781
42 AF1 11 3.316
42 AF1 12 0.875
42 AF1 13 -0.590
42 AF1 14 -2.055
42 AF1 15 -2.543
42 AF1 16 -3.031
42 AF1 17 -3.520
42 AF1 18 -3.520
42 AF1 19 -3.031
42 AF1 20 -2.055
42 AF1 21 -2.055
42 AF1 22 -2.543
42 AF1 23 -3.031
42 AF1 24 -4.008
42 AF1 25 -4.008
42 AF1 26 -4.008
42 AF1 27 -4.496
42 AF1 28 -5.473
42 AF1 29 -5.961
42 AF1 30 -4.496
42 AF1 31 -2.543
42 AF1 32 -1.078
42 AF1 33 -0.590
42 AF1 34 0.387
42 AF1 35 0.875
42 AF1 36 1.851
42 AF1 37 2.828
42 AF1 38 3.316
42 AF1 39 3.316
42 AF1 40 4.293
42 AF1 41 6.246
42 AF1 42 9.176
42 AF1 43 11.129
42 AF1 44 11.129
42 AF1 45 9.176
42 AF1 46 6.734
42 AF1 47 5.269
42 AF1 48 5.269
42 AF1 49 5.758
42 AF1 50 6.246
42 AF1 51 5.269
42 AF1 52 4.781
42 AF1 53 3.805
42 AF1 54 4.293
42 AF1 55 4.781
42 AF1 56 4.781
42 AF1 57 3.805
42 AF1 58 2.828
42 AF1 59 1.851
42 AF1 60 1.363
42 AF1 61 0.875
42 AF1 62 -0.590
42 AF1 63 -2.543
42 AF1 64 -4.985
42 AF1 65 -5.961
42 AF1 66 -5.961
42 AF1 67 -5.961
42 AF1 68 -6.938
42 AF1 69 -8.891
42 AF1 70 -9.867
42 AF1 71 -8.891
42 AF1 72 -6.938
42 AF1 73 -4.496
42 AF1 74 -4.008
42 AF1 75 -5.961
42 AF1 76 -7.914
42 AF1 77 -9.867
42 AF1 78 -8.891
42 AF1 79 -7.426
42 AF1 80 -4.496
42 AF1 81 -2.055
42 AF1 82 -0.102
42 AF1 83 0.875
42 AF1 84 1.363
42 AF1 85 1.363
42 AF1 86 -0.102
42 AF1 87 -2.543
42 AF1 88 -4.496
42 AF1 89 -5.473
42 AF1 90 -4.985
42 AF1 91 -3.520
42 AF1 92 -1.567
42 AF1 93 0.387
42 AF1 94 1.363
42 AF1 95 1.363
42 AF1 96 0.387
42 AF1 97 -0.590
42 AF1 98 -2.055
42 AF1 99 -3.031
42 AF1 100 -3.031
42 AF1 101 -2.055
42 AF1 102 -0.102
42 AF1 103 1.851
42 AF1 104 2.340
42 AF1 105 2.340
42 AF1 106 1.363
42 AF1 107 0.875
42 AF1 108 -0.102
42 AF1 109 -0.590
42 AF1 110 -1.567
42 AF1 111 -3.031
42 AF1 112 -4.496
42 AF1 113 -5.473
42 AF1 114 -4.985
42 AF1 115 -3.031
42 AF1 116 -1.078
42 AF1 117 0.875
42 AF1 118 1.851
42 AF1 119 1.851
42 AF1 120 1.851
42 AF1 121 0.875
42 AF1 122 0.875
42 AF1 123 1.363
42 AF1 124 1.363
42 AF1 125 1.851
42 AF1 126 1.851
42 AF1 127 1.851
42 AF1 128 2.340
42 AF1 129 2.340
42 AF1 130 2.340
42 AF1 131 1.363
42 AF1 132 0.387
42 AF1 133 -1.078
42 AF1 134 -2.055
42 AF1 135 -1.567
42 AF1 136 -0.590
42 AF1 137 0.387
42 AF1 138 0.875
42 AF1 139 -0.102
42 AF1 140 -1.567
42 AF1 141 -2.055
42 AF1 142 -1.567
42 AF1 143 0.387
42 AF1 144 1.851
42 AF1 145 2.340
42 AF1 146 1.363
42 AF1 147 -1.078
42 AF1 148 -3.031
42 AF1 149 -4.008
42 AF1 150 -3.520
42 AF1 151 -1.567
42 AF1 152 1.851
42 AF1 153 5.758
42 AF1 154 8.687
42 AF1 155 9.664
42 AF1 156 7.711
42 AF1 157 4.293
42 AF1 158 0.875
42 AF1 159 0.875
42 AF1 160 3.316
42 AF1 161 7.711
42 AF1 162 10.640
42 AF1 163 9.664
42 AF1 164 6.246
42 AF1 165 1.363
42 AF1 166 -2.055
42 AF1 167 -2.543
42 AF1 168 -1.567
42 AF1 169 0.387
42 AF1 170 1.851
42 AF1 171 1.851
42 AF1 172 1.851
42 AF1 173 1.363
42 AF1 174 0.875
42 AF1 175 -1.078
42 AF1 176 -3.031
42 AF1 177 -4.985
42 AF1 178 -5.473
42 AF1 179 -4.496
42 AF1 180 -3.031
42 AF1 181 -1.567
42 AF1 182 -1.567
42 AF1 183 -2.543
42 AF1 184 -4.496
42 AF1 185 -5.473
42 AF1 186 -4.985
42 AF1 187 -3.031
42 AF1 188 -0.102
42 AF1 189 1.363
42 AF1 190 1.363
42 AF1 191 0.875
42 AF1 192 -0.590
42 AF1 193 -1.567
42 AF1 194 -1.078
42 AF1 195 -0.590
42 AF1 196 -0.102
42 AF1 197 -0.102
42 AF1 198 -0.590
42 AF1 199 -0.102
42 AF1 200 -0.102
42 AF1 201 0.875
42 AF1 202 1.851
42 AF1 203 3.316
42 AF1 204 5.269
42 AF1 205 6.734
42 AF1 206 7.711
42 AF1 207 8.199
42 AF1 208 6.246
42 AF1 209 4.781
42 AF1 210 3.316
42 AF1 211 3.316
42 AF1 212 5.758
42 AF1 213 9.176
42 AF1 214 12.105
42 AF1 215 13.570
42 AF1 216 14.058
42 AF1 217 12.594
42 AF1 218 11.129
42 AF1 219 10.152
42 AF1 220 10.152
42 AF1 221 11.129
42 AF1 222 13.082
42 AF1 223 14.547
42 AF1 224 15.523
42 AF1 225 14.547
42 AF1 226 12.594
42 AF1 227 10.152
42 AF1 228 7.711
42 AF1 229 6.734
42 AF1 230 6.246
42 AF1 231 6.246
42 AF1 232 7.222
42 AF1 233 9.176
42 AF1 234 10.640
42 AF1 235 11.617
42 AF1 236 11.617
42 AF1 237 10.640
42 AF1 238 8.687
42 AF1 239 7.222
42 AF1 240 6.734
42 AF1 241 7.711
42 AF1 242 9.176
42 AF1 243 10.640
42 AF1 244 11.617
42 AF1 245 10.640
42 AF1 246 9.176
42 AF1 247 7.222
42 AF1 248 5.758
42 AF1 249 4.781
42 AF1 250 4.781
42 AF1 251 5.269
42 AF1 252 6.734
42 AF1 253 7.711
42 AF1 254 7.711
42 AF1 255 7.222
# AF2 chan 5
42 AF2 0 0.580
42 AF2 1 2.533
42 AF2 2 5.463
42 AF2 3 7.416
42 AF2 4 6.927
42 AF2 5 3.998
42 AF2 6 1.068
42 AF2 7 0.092
42 AF2 8 1.068
42 AF2 9 3.021
42 AF2 10 3.998
42 AF2 11 3.021
42 AF2 12 1.068
42 AF2 13 -1.373
42 AF2 14 -3.326
42 AF2 15 -4.303
42 AF2 16 -4.791
42 AF2 17 -4.791
42 AF2 18 -3.815
42 AF2 19 -2.838
42 AF2 20 -1.373
42 AF2 21 -1.862
42 AF2 22 -3.326
42 AF2 23 -4.791
42 AF2 24 -6.256
42 AF2 25 -6.744
42 AF2 26 -6.744
42 AF2 27 -6.744
42 AF2 28 -7.233
42 AF2 29 -7.233
42 AF2 30 -6.256
42 AF2 31 -4.791
42 AF2 32 -3.815
42 AF2 33 -3.326
42 AF2 34 -3.326
42 AF2 35 -2.838
42 AF2 36 -1.373
42 AF2 37 1.068
42 AF2 38 3.021
42 AF2 39 4.486
42 AF2 40 5.951
42 AF2 41 8.392
42 AF2 42 10.345
42 AF2 43 11.322
42 AF2 44 10.345
42 AF2 45 7.904
42 AF2 46 5.463
42 AF2 47 3.998
42 AF2 48 3.998
42 AF2 49 4.486
42 AF2 50 4.486
42 AF2 51 3.510
42 AF2 52 2.045
42 AF2 53 1.068
42 AF2 54 1.068
42 AF2 55 1.556
42 AF2 56 2.045
42 AF2 57 1.068
42 AF2 58 0.092
42 AF2 59 -0.885
42 AF2 60 -1.373
42 AF2 61 -2.838
42 AF2 62 -4.791
42 AF2 63 -7.721
42 AF2 64 -9.674
42 AF2 65 -10.651
42 AF2 66 -10.651
42 AF2 67 -9.674
42 AF2 68 -9.674
42 AF2 69 -10.651
42 AF2 70 -10.651
42 AF2 71 -9.674
42 AF2 72 -7.721
42 AF2 73 -5.768
42 AF2 74 -5.768
42 AF2 75 -6.744
42 AF2 76 -9.186
42 AF2 77 -10.651
42 AF2 78 -10.162
42 AF2 79 -7.721
42 AF2 80 -5.280
42 AF2 81 -3.326
42 AF2 82 -2.350
42 AF2 83 -1.373
42 AF2 84 -0.885
42 AF2 85 -0.397
42 AF2 86 -1.373
42 AF2 87 -3.326
42 AF2 88 -5.768
42 AF2 89 -7.721
42 AF2 90 -7.721
42 AF2 91 -6.256
42 AF2 92 -4.303
42 AF2 93 -2.350
42 AF2 94 -1.862
42 AF2 95 -1.862
42 AF2 96 -3.326
42 AF2 97 -5.280
42 AF2 98 -7.233
42 AF2 99 -8.698
42 AF2 100 -8.209
42 AF2 101 -7.233
42 AF2 102 -4.791
42 AF2 103 -2.838
42 AF2 104 -1.862
42 AF2 105 -1.862
42 AF2 106 -2.350
42 AF2 107 -2.350
42 AF2 108 -2.350
42 AF2 109 -2.838
42 AF2 110 -3.815
42 AF2 111 -6.256
42 AF2 112 -8.698
42 AF2 113 -9.674
42 AF2 114 -9.186
42 AF2 115 -7.233
42 AF2 116 -5.280
42 AF2 117 -3.815
42 AF2 118 -3.326
42 AF2 119 -3.326
42 AF2 120 -3.326
42 AF2 121 -3.326
42 AF2 122 -4.303
42 AF2 123 -4.791
42 AF2 124 -4.791
42 AF2 125 -4.303
42 AF2 126 -3.815
42 AF2 127 -3.815
42 AF2 128 -4.303
42 AF2 129 -4.303
42 AF2 130 -4.303
42 AF2 131 -3.815
42 AF2 132 -3.815
42 AF2 133 -4.303
42 AF2 134 -5.768
42 AF2 135 -6.256
42 AF2 136 -6.256
42 AF2 137 -5.768
42 AF2 138 -5.280
42 AF2 139 -5.280
42 AF2 140 -5.280
42 AF2 141 -4.791
42 AF2 142 -3.815
42 AF2 143 -2.838
42 AF2 144 -1.862
42 AF2 145 -2.350
42 AF2 146 -3.815
42 AF2 147 -5.280
42 AF2 148 -6.744
42 AF2 149 -7.721
42 AF2 150 -6.256
42 AF2 151 -3.815
42 AF2 152 -0.885
42 AF2 153 2.045
42 AF2 154 4.486
42 AF2 155 4.974
42 AF2 156 3.510
42 AF2 157 1.068
42 AF2 158 -0.885
42 AF2 159 -0.885
42 AF2 160 1.556
42 AF2 161 4.974
42 AF2 162 7.416
42 AF2 163 5.951
42 AF2 164 2.045
42 AF2 165 -2.350
42 AF2 166 -5.280
42 AF2 167 -5.768
42 AF2 168 -4.791
42 AF2 169 -3.326
42 AF2 170 -2.838
42 AF2 171 -2.838
42 AF2 172 -2.838
42 AF2 173 -2.838
42 AF2 174 -2.350
42 AF2 175 -2.350
42 AF2 176 -3.326
42 AF2 177 -4.303
42 AF2 178 -5.280
42 AF2 179 -4.791
42 AF2 180 -4.303
42 AF2 181 -3.326
42 AF2 182 -3.326
42 AF2 183 -4.791
42 AF2 184 -6.256
42 AF2 185 -6.744
42 AF2 186 -6.256
42 AF2 187 -5.280
42 AF2 188 -3.326
42 AF2 189 -3.326
42 AF2 190 -3.815
42 AF2 191 -5.280
42 AF2 192 -5.768
42 AF2 193 -5.280
42 AF2 194 -3.326
42 AF2 195 -1.862
42 AF2 196 -1.862
42 AF2 197 -2.350
42 AF2 198 -3.326
42 AF2 199 -3.326
42 AF2 200 -1.862
42 AF2 201 0.092
42 AF2 202 2.045
42 AF2 203 3.510
42 AF2 204 4.486
42 AF2 205 5.463
42 AF2 206 5.463
42 AF2 207 5.463
42 AF2 208 4.486
42 AF2 209 3.021
42 AF2 210 2.533
42 AF2 211 3.510
42 AF2 212 6.439
42 AF2 213 9.369
42 AF2 214 11.322
42 AF2 215 11.810
42 AF2 216 10.834
42 AF2 217 8.881
42 AF2 218 7.416
42 AF2 219 6.927
42 AF2 220 7.416
42 AF2 221 8.881
42 AF2 222 10.345
42 AF2 223 11.322
42 AF2 224 10.834
42 AF2 225 8.881
42 AF2 226 5.463
42 AF2 227 2.533
42 AF2 228 0.580
42 AF2 229 -0.397
42 AF2 230 0.092
42 AF2 231 1.556
42 AF2 232 3.021
42 AF2 233 3.998
42 AF2 234 4.486
42 AF2 235 4.486
42 AF2 236 3.998
42 AF2 237 3.998
42 AF2 238 3.510
42 AF2 239 3.510
42 AF2 240 3.510
42 AF2 241 3.510
42 AF2 242 3.510
42 AF2 243 3.510
42 AF2 244 3.021
42 AF2 245 3.021
42 AF2 246 2.533
42 AF2 247 2.045
42 AF2 248 1.068
42 AF2 249 0.092
42 AF2 250 -0.397
42 AF2 251 -0.397
42 AF2 252 1.068
42 AF2 253 2.533
42 AF2 254 3.510
42 AF2 255 3.510
# FZ chan 6
42 FZ 0 3.459
42 FZ 1 3.947
42 FZ 2 5.900
42 FZ 3 7.365
42 FZ 4 7.365
42 FZ 5 6.388
42 FZ 6 5.412
42 FZ 7 5.412
42 FZ 8 6.388
42 FZ 9 7.853
42 FZ 10 7.365
42 FZ 11 5.412
42 FZ 12 2.970
42 FZ 13 0.041
42 FZ 14 -2.401
42 FZ 15 -3.866
42 FZ 16 -4.842
42 FZ 17 -4.354
42 FZ 18 -2.889
42 FZ 19 -1.912
42 FZ 20 -0.936
42 FZ 21 -1.424
42 FZ 22 -2.889
42 FZ 23 -4.354
42 FZ 24 -5.330
42 FZ 25 -5.330
42 FZ 26 -5.819
42 FZ 27 -5.819
42 FZ 28 -6.307
42 FZ 29 -5.819
42 FZ 30 -4.842
42 FZ 31 -3.866
42 FZ 32 -2.889
42 FZ 33 -2.889
42 FZ 34 -2.889
42 FZ 35 -2.401
42 FZ 36 -0.936
42 FZ 37 1.017
42 FZ 38 1.994
42 FZ 39 2.482
42 FZ 40 3.459
42 FZ 41 4.924
42 FZ 42 6.877
42 FZ 43 8.341
42 FZ 44 8.341
42 FZ 45 6.877
42 FZ 46 4.435
42 FZ 47 3.459
42 FZ 48 2.970
42 FZ 49 3.459
42 FZ 50 2.970
42 FZ 51 1.506
42 FZ 52 0.529
42 FZ 53 0.529
42 FZ 54 1.506
42 FZ 55 2.970
42 FZ 56 3.947
42 FZ 57 3.459
42 FZ 58 2.482
42 FZ 59 1.506
42 FZ 60 1.506
42 FZ 61 0.041
42 FZ 62 -1.424
42 FZ 63 -3.377
42 FZ 64 -5.330
42 FZ 65 -5.330
42 FZ 66 -5.330
42 FZ 67 -5.330
42 FZ 68 -5.819
42 FZ 69 -7.284
42 FZ 70 -7.772
42 FZ 71 -6.795
42 FZ 72 -4.842
42 FZ 73 -3.377
42 FZ 74 -3.866
42 FZ 75 -5.330
42 FZ 76 -7.772
42 FZ 77 -9.237
42 FZ 78 -8.748
42 FZ 79 -6.795
42 FZ 80 -5.330
42 FZ 81 -3.866
42 FZ 82 -2.889
42 FZ 83 -2.401
42 FZ 84 -1.912
42 FZ 85 -1.424
42 FZ 86 -2.401
42 FZ 87 -4.354
42 FZ 88 -6.307
42 FZ 89 -7.284
42 FZ 90 -7.284
42 FZ 91 -6.307
42 FZ 92 -4.842
42 FZ 93 -3.866
42 FZ 94 -2.889
42 FZ 95 -1.912
42 FZ 96 -2.401
42 FZ 97 -3.377
42 FZ 98 -5.330
42 FZ 99 -6.795
42 FZ 100 -6.307
42 FZ 101 -5.330
42 FZ 102 -3.377
42 FZ 103 -1.912
42 FZ 104 -0.936
42 FZ 105 -1.424
42 FZ 106 -1.424
42 FZ 107 -0.448
42 FZ 108 0.041
42 FZ 109 -0.448
42 FZ 110 -1.912
42 FZ 111 -4.842
42 FZ 112 -7.284
42 FZ 113 -8.260
42 FZ 114 -7.284
42 FZ 115 -4.842
42 FZ 116 -1.912
42 FZ 117 -0.448
42 FZ 118 0.041
42 FZ 119 0.041
42 FZ 120 -0.936
42 FZ 121 -1.912
42 FZ 122 -2.401
42 FZ 123 -2.889
42 FZ 124 -2.889
42 FZ 125 -1.912
42 FZ 126 -0.936
42 FZ 127 0.041
42 FZ 128 0.041
42 FZ 129 -0.448
42 FZ 130 -1.912
42 FZ 131 -2.889
42 FZ 132 -4.354
42 FZ 133 -5.819
42 FZ 134 -6.307
42 FZ 135 -5.819
42 FZ 136 -4.842
42 FZ 137 -3.866
42 FZ 138 -3.866
42 FZ 139 -4.354
42 FZ 140 -4.842
42 FZ 141 -4.842
42 FZ 142 -4.354
42 FZ 143 -3.377
42 FZ 144 -2.889
42 FZ 145 -3.377
42 FZ 146 -4.842
42 FZ 147 -5.819
42 FZ 148 -6.795
42 FZ 149 -7.284
42 FZ 150 -6.307
42 FZ 151 -4.842
42 FZ 152 -1.912
42 FZ 153 1.017
42 FZ 154 3.459
42 FZ 155 4.924
42 FZ 156 4.435
42 FZ 157 2.482
42 FZ 158 1.017
42 FZ 159 1.017
42 FZ 160 2.970
42 FZ 161 5.900
42 FZ 162 7.853
42 FZ 163 7.853
42 FZ 164 4.924
42 FZ 165 1.506
42 FZ 166 -0.936
42 FZ 167 -1.912
42 FZ 168 -1.912
42 FZ 169 -1.424
42 FZ 170 -0.936
42 FZ 171 -0.936
42 FZ 172 -0.936
42 FZ 173 -0.448
42 FZ 174 -0.448
42 FZ 175 -1.424
42 FZ 176 -3.377
42 FZ 177 -5.330
42 FZ 178 -6.307
42 FZ 179 -5.819
42 FZ 180 -4.842
42 FZ 181 -3.377
42 FZ 182 -3.377
42 FZ 183 -4.842
42 FZ 184 -6.307
42 FZ 185 -7.284
42 FZ 186 -6.795
42 FZ 187 -4.842
42 FZ 188 -2.889
42 FZ 189 -1.424
42 FZ 190 -1.912
42 FZ 191 -2.889
42 FZ 192 -3.377
42 FZ 193 -3.377
42 FZ 194 -1.912
42 FZ 195 -0.448
42 FZ 196 0.529
42 FZ 197 0.529
42 FZ 198 -0.448
42 FZ 199 -0.936
42 FZ 200 -0.936
42 FZ 201 0.041
42 FZ 202 1.506
42 FZ 203 2.970
42 FZ 204 4.435
42 FZ 205 5.412
42 FZ 206 5.412
42 FZ 207 4.435
42 FZ 208 1.994
42 FZ 209 0.529
42 FZ 210 0.041
42 FZ 211 1.017
42 FZ 212 2.970
42 FZ 213 5.900
42 FZ 214 8.341
42 FZ 215 9.806
42 FZ 216 9.806
42 FZ 217 8.830
42 FZ 218 7.853
42 FZ 219 6.877
42 FZ 220 5.900
42 FZ 221 6.877
42 FZ 222 8.341
42 FZ 223 9.806
42 FZ 224 10.783
42 FZ 225 9.806
42 FZ 226 8.341
42 FZ 227 5.900
42 FZ 228 3.947
42 FZ 229 2.970
42 FZ 230 2.482
42 FZ 231 2.970
42 FZ 232 3.947
42 FZ 233 5.412
42 FZ 234 7.365
42 FZ 235 8.830
42 FZ 236 8.830
42 FZ 237 7.853
42 FZ 238 6.388
42 FZ 239 5.900
42 FZ 240 5.900
42 FZ 241 6.877
42 FZ 242 7.853
42 FZ 243 8.341
42 FZ 244 8.341
42 FZ 245 7.365
42 FZ 246 6.877
42 FZ 247 6.388
42 FZ 248 4.435
42 FZ 249 2.482
42 FZ 250 1.017
42 FZ 251 1.017
42 FZ 252 1.994
42 FZ 253 4.435
42 FZ 254 6.388
42 FZ 255 6.388
# F4 chan 7
42 F4 0 0.885
42 F4 1 3.815
42 F4 2 6.744
42 F4 3 7.721
42 F4 4 5.280
42 F4 5 1.373
42 F4 6 -1.556
42 F4 7 -2.045
42 F4 8 -0.092
42 F4 9 1.862
42 F4 10 3.326
42 F4 11 2.350
42 F4 12 0.397
42 F4 13 -2.533
42 F4 14 -4.974
42 F4 15 -6.439
42 F4 16 -5.951
42 F4 17 -4.486
42 F4 18 -2.533
42 F4 19 -1.068
42 F4 20 -0.580
42 F4 21 -1.556
42 F4 22 -3.998
42 F4 23 -5.951
42 F4 24 -6.927
42 F4 25 -6.927
42 F4 26 -6.927
42 F4 27 -6.927
42 F4 28 -7.416
42 F4 29 -6.927
42 F4 30 -5.951
42 F4 31 -4.486
42 F4 32 -3.998
42 F4 33 -4.974
42 F4 34 -5.951
42 F4 35 -5.463
42 F4 36 -3.021
42 F4 37 -0.092
42 F4 38 2.838
42 F4 39 5.280
42 F4 40 6.744
42 F4 41 8.209
42 F4 42 9.186
42 F4 43 9.674
42 F4 44 9.186
42 F4 45 7.721
42 F4 46 6.256
42 F4 47 5.280
42 F4 48 4.791
42 F4 49 4.303
42 F4 50 2.838
42 F4 51 0.885
42 F4 52 -0.092
42 F4 53 -1.068
42 F4 54 -0.580
42 F4 55 -0.580
42 F4 56 -0.580
42 F4 57 -1.068
42 F4 58 -1.556
42 F4 59 -2.045
42 F4 60 -2.045
42 F4 61 -3.021
42 F4 62 -4.974
42 F4 63 -7.904
42 F4 64 -9.857
42 F4 65 -10.834
42 F4 66 -10.345
42 F4 67 -8.881
42 F4 68 -8.392
42 F4 69 -7.904
42 F4 70 -7.904
42 F4 71 -6.927
42 F4 72 -5.463
42 F4 73 -4.486
42 F4 74 -4.974
42 F4 75 -6.439
42 F4 76 -8.881
42 F4 77 -9.857
42 F4 78 -8.881
42 F4 79 -6.927
42 F4 80 -4.486
42 F4 81 -3.021
42 F4 82 -1.556
42 F4 83 -1.556
42 F4 84 -1.068
42 F4 85 -0.580
42 F4 86 -0.580
42 F4 87 -2.045
42 F4 88 -3.998
42 F4 89 -4.974
42 F4 90 -4.974
42 F4 91 -3.510
42 F4 92 -1.556
42 F4 93 -0.580
42 F4 94 -0.580
42 F4 95 -1.556
42 F4 96 -3.998
42 F4 97 -5.951
42 F4 98 -7.416
42 F4 99 -7.904
42 F4 100 -6.927
42 F4 101 -4.974
42 F4 102 -2.045
42 F4 103 -0.092
42 F4 104 -0.580
42 F4 105 -1.068
42 F4 106 -2.045
42 F4 107 -1.556
42 F4 108 -0.580
42 F4 109 -0.092
42 F4 110 -1.556
42 F4 111 -3.998
42 F4 112 -6.439
42 F4 113 -7.416
42 F4 114 -6.927
42 F4 115 -5.951
42 F4 116 -4.486
42 F4 117 -3.510
42 F4 118 -3.021
42 F4 119 -3.021
42 F4 120 -2.533
42 F4 121 -2.533
42 F4 122 -3.510
42 F4 123 -4.486
42 F4 124 -4.974
42 F4 125 -4.486
42 F4 126 -3.998
42 F4 127 -3.021
42 F4 128 -3.021
42 F4 129 -3.021
42 F4 130 -3.021
42 F4 131 -2.533
42 F4 132 -2.045
42 F4 133 -1.556
42 F4 134 -2.045
42 F4 135 -3.021
42 F4 136 -3.510
42 F4 137 -4.486
42 F4 138 -4.974
42 F4 139 -4.974
42 F4 140 -3.998
42 F4 141 -3.021
42 F4 142 -2.533
42 F4 143 -1.556
42 F4 144 -1.556
42 F4 145 -2.045
42 F4 146 -3.021
42 F4 147 -4.486
42 F4 148 -4.974
42 F4 149 -4.974
42 F4 150 -4.486
42 F4 151 -2.533
42 F4 152 -0.092
42 F4 153 1.862
42 F4 154 2.838
42 F4 155 2.838
42 F4 156 1.373
42 F4 157 -0.092
42 F4 158 -0.580
42 F4 159 -0.092
42 F4 160 1.373
42 F4 161 3.326
42 F4 162 4.303
42 F4 163 2.838
42 F4 164 -0.092
42 F4 165 -3.021
42 F4 166 -4.974
42 F4 167 -4.974
42 F4 168 -3.998
42 F4 169 -2.533
42 F4 170 -2.045
42 F4 171 -2.045
42 F4 172 -2.533
42 F4 173 -2.533
42 F4 174 -1.556
42 F4 175 -1.068
42 F4 176 -1.556
42 F4 177 -1.556
42 F4 178 -2.045
42 F4 179 -2.045
42 F4 180 -2.045
42 F4 181 -2.045
42 F4 182 -3.021
42 F4 183 -3.510
42 F4 184 -4.486
42 F4 185 -4.974
42 F4 186 -4.974
42 F4 187 -4.974
42 F4 188 -3.998
42 F4 189 -3.998
42 F4 190 -4.974
42 F4 191 -5.951
42 F4 192 -6.439
42 F4 193 -5.463
42 F4 194 -3.510
42 F4 195 -2.045
42 F4 196 -1.556
42 F4 197 -2.045
42 F4 198 -2.533
42 F4 199 -2.533
42 F4 200 -1.556
42 F4 201 0.885
42 F4 202 3.326
42 F4 203 4.791
42 F4 204 5.768
42 F4 205 6.256
42 F4 206 5.280
42 F4 207 4.303
42 F4 208 2.838
42 F4 209 2.350
42 F4 210 2.838
42 F4 211 3.815
42 F4 212 5.768
42 F4 213 7.721
42 F4 214 8.698
42 F4 215 8.698
42 F4 216 7.233
42 F4 217 6.256
42 F4 218 5.280
42 F4 219 4.791
42 F4 220 4.791
42 F4 221 5.280
42 F4 222 5.768
42 F4 223 6.256
42 F4 224 5.768
42 F4 225 3.815
42 F4 226 0.885
42 F4 227 -2.045
42 F4 228 -3.998
42 F4 229 -3.998
42 F4 230 -2.045
42 F4 231 -0.580
42 F4 232 0.397
42 F4 233 0.397
42 F4 234 0.397
42 F4 235 -0.580
42 F4 236 -1.068
42 F4 237 -1.068
42 F4 238 -1.068
42 F4 239 -0.580
42 F4 240 -0.092
42 F4 241 -0.580
42 F4 242 -1.068
42 F4 243 -2.045
42 F4 244 -3.021
42 F4 245 -3.510
42 F4 246 -3.021
42 F4 247 -2.045
42 F4 248 -2.045
42 F4 249 -2.533
42 F4 250 -3.510
42 F4 251 -3.510
42 F4 252 -2.045
42 F4 253 0.397
42 F4 254 1.862
42 F4 255 1.862
# F3 chan 8
42 F3 0 2.513
42 F3 1 1.048
42 F3 2 1.536
42 F3 3 3.001
42 F3 4 3.977
42 F3 5 4.466
42 F3 6 4.954
42 F3 7 5.931
42 F3 8 6.419
42 F3 9 6.907
42 F3 10 5.442
42 F3 11 3.489
42 F3 12 1.048
42 F3 13 -0.417
42 F3 14 -0.417
42 F3 15 0.071
42 F3 16 0.071
42 F3 17 0.071
42 F3 18 -0.417
42 F3 19 -0.417
42 F3 20 -1.394
42 F3 21 -2.370
42 F3 22 -2.858
42 F3 23 -2.858
42 F3 24 -1.882
42 F3 25 -0.417
42 F3 26 -0.417
42 F3 27 -0.905
42 F3 28 -2.370
42 F3 29 -2.858
42 F3 30 -2.370
42 F3 31 -0.417
42 F3 32 1.536
42 F3 33 3.001
42 F3 34 4.466
42 F3 35 5.442
42 F3 36 5.931
42 F3 37 5.442
42 F3 38 4.466
42 F3 39 3.001
42 F3 40 2.513
42 F3 41 3.977
42 F3 42 6.907
42 F3 43 9.349
42 F3 44 10.813
42 F3 45 9.837
42 F3 46 8.372
42 F3 47 6.907
42 F3 48 6.419
42 F3 49 5.931
42 F3 50 5.442
42 F3 51 4.954
42 F3 52 4.954
42 F3 53 5.442
42 F3 54 6.419
42 F3 55 6.907
42 F3 56 6.419
42 F3 57 4.954
42 F3 58 3.977
42 F3 59 3.977
42 F3 60 4.466
42 F3 61 4.466
42 F3 62 3.977
42 F3 63 2.513
42 F3 64 1.048
42 F3 65 -0.417
42 F3 66 -1.394
42 F3 67 -2.370
42 F3 68 -3.835
42 F3 69 -4.812
42 F3 70 -5.788
42 F3 71 -4.812
42 F3 72 -2.370
42 F3 73 -0.417
42 F3 74 0.071
42 F3 75 -1.394
42 F3 76 -3.347
42 F3 77 -5.300
42 F3 78 -5.788
42 F3 79 -4.812
42 F3 80 -2.370
42 F3 81 0.071
42 F3 82 3.001
42 F3 83 4.466
42 F3 84 4.954
42 F3 85 3.001
42 F3 86 0.559
42 F3 87 -1.882
42 F3 88 -2.858
42 F3 89 -2.858
42 F3 90 -0.905
42 F3 91 0.559
42 F3 92 2.024
42 F3 93 2.513
42 F3 94 3.001
42 F3 95 2.513
42 F3 96 2.513
42 F3 97 2.513
42 F3 98 2.513
42 F3 99 0.559
42 F3 100 3.001
42 F3 101 3.489
42 F3 102 4.954
42 F3 103 5.442
42 F3 104 5.931
42 F3 105 4.954
42 F3 106 3.977
42 F3 107 3.489
42 F3 108 3.001
42 F3 109 3.001
42 F3 110 2.513
42 F3 111 0.559
42 F3 112 -0.905
42 F3 113 -2.370
42 F3 114 -1.882
42 F3 115 -0.417
42 F3 116 1.536
42 F3 117 3.977
42 F3 118 4.954
42 F3 119 4.954
42 F3 120 3.977
42 F3 121 3.001
42 F3 122 2.513
42 F3 123 3.001
42 F3 124 3.977
42 F3 125 4.954
42 F3 126 5.442
42 F3 127 5.931
42 F3 128 5.442
42 F3 129 4.954
42 F3 130 3.977
42 F3 131 3.001
42 F3 132 2.024
42 F3 133 1.536
42 F3 134 1.536
42 F3 135 2.513
42 F3 136 3.977
42 F3 137 4.466
42 F3 138 3.489
42 F3 139 1.536
42 F3 140 -0.905
42 F3 141 -1.882
42 F3 142 -1.394
42 F3 143 0.559
42 F3 144 2.024
42 F3 145 2.513
42 F3 146 2.024
42 F3 147 0.071
42 F3 148 -1.882
42 F3 149 -2.858
42 F3 150 -2.858
42 F3 151 -0.905
42 F3 152 2.024
42 F3 153 5.931
42 F3 154 8.860
42 F3 155 8.860
42 F3 156 6.907
42 F3 157 3.489
42 F3 158 0.559
42 F3 159 0.071
42 F3 160 2.513
42 F3 161 5.931
42 F3 162 8.860
42 F3 163 8.860
42 F3 164 5.931
42 F3 165 2.513
42 F3 166 -0.417
42 F3 167 -0.905
42 F3 168 0.071
42 F3 169 1.048
42 F3 170 2.513
42 F3 171 2.513
42 F3 172 2.024
42 F3 173 1.048
42 F3 174 -0.417
42 F3 175 -2.858
42 F3 176 -4.812
42 F3 177 -6.276
42 F3 178 -6.276
42 F3 179 -5.300
42 F3 180 -3.835
42 F3 181 -2.370
42 F3 182 -1.882
42 F3 183 -2.858
42 F3 184 -3.835
42 F3 185 -4.812
42 F3 186 -4.323
42 F3 187 -2.858
42 F3 188 -0.905
42 F3 189 1.048
42 F3 190 2.024
42 F3 191 1.536
42 F3 192 0.559
42 F3 193 -0.905
42 F3 194 -1.394
42 F3 195 -1.394
42 F3 196 -0.417
42 F3 197 0.559
42 F3 198 1.048
42 F3 199 1.536
42 F3 200 0.071
42 F3 201 -0.905
42 F3 202 -0.905
42 F3 203 0.559
42 F3 204 3.001
42 F3 205 5.931
42 F3 206 8.372
42 F3 207 8.372
42 F3 208 5.931
42 F3 209 3.001
42 F3 210 0.559
42 F3 211 0.071
42 F3 212 2.024
42 F3 213 5.442
42 F3 214 8.860
42 F3 215 11.790
42 F3 216 12.278
42 F3 217 11.302
42 F3 218 9.349
42 F3 219 7.395
42 F3 220 5.931
42 F3 221 6.419
42 F3 222 7.884
42 F3 223 10.325
42 F3 224 12.278
42 F3 225 12.767
42 F3 226 12.278
42 F3 227 9.837
42 F3 228 7.884
42 F3 229 5.931
42 F3 230 4.954
42 F3 231 5.442
42 F3 232 6.907
42 F3 233 8.860
42 F3 234 11.790
42 F3 235 13.743
42 F3 236 13.743
42 F3 237 12.278
42 F3 238 9.349
42 F3 239 6.419
42 F3 240 5.442
42 F3 241 6.907
42 F3 242 9.837
42 F3 243 12.767
42 F3 244 14.231
42 F3 245 13.255
42 F3 246 10.813
42 F3 247 6.907
42 F3 248 3.977
42 F3 249 3.001
42 F3 250 3.489
42 F3 251 4.954
42 F3 252 6.419
42 F3 253 7.884
42 F3 254 7.884
42 F3 255 7.395
# FC6 chan 9
42 FC6 0 -2.563
42 FC6 1 0.854
42 FC6 2 3.784
42 FC6 3 4.272
42 FC6 4 1.831
42 FC6 5 -2.075
42 FC6 6 -5.005
42 FC6 7 -5.005
42 FC6 8 -3.052
42 FC6 9 -0.610
42 FC6 10 1.343
42 FC6 11 1.831
42 FC6 12 1.343
42 FC6 13 0.366
42 FC6 14 -1.099
42 FC6 15 -2.075
42 FC6 16 -3.052
42 FC6 17 -3.052
42 FC6 18 -2.563
42 FC6 19 -0.610
42 FC6 20 0.854
42 FC6 21 1.343
42 FC6 22 0.854
42 FC6 23 -0.122
42 FC6 24 -1.099
42 FC6 25 -2.075
42 FC6 26 -3.052
42 FC6 27 -3.540
42 FC6 28 -3.540
42 FC6 29 -3.540
42 FC6 30 -2.075
42 FC6 31 -1.587
42 FC6 32 -2.075
42 FC6 33 -3.540
42 FC6 34 -5.005
42 FC6 35 -5.493
42 FC6 36 -3.540
42 FC6 37 -0.610
42 FC6 38 2.808
42 FC6 39 5.249
42 FC6 40 6.714
42 FC6 41 8.179
42 FC6 42 8.667
42 FC6 43 8.667
42 FC6 44 8.667
42 FC6 45 8.179
42 FC6 46 7.690
42 FC6 47 7.202
42 FC6 48 6.226
42 FC6 49 4.761
42 FC6 50 2.319
42 FC6 51 -0.122
42 FC6 52 -1.099
42 FC6 53 -2.075
42 FC6 54 -1.587
42 FC6 55 -1.099
42 FC6 56 -0.122
42 FC6 57 -0.122
42 FC6 58 -0.610
42 FC6 59 -1.587
42 FC6 60 -2.075
42 FC6 61 -3.052
42 FC6 62 -3.540
42 FC6 63 -5.005
42 FC6 64 -6.470
42 FC6 65 -7.446
42 FC6 66 -7.935
42 FC6 67 -6.958
42 FC6 68 -5.493
42 FC6 69 -4.517
42 FC6 70 -4.028
42 FC6 71 -4.028
42 FC6 72 -4.517
42 FC6 73 -4.517
42 FC6 74 -4.517
42 FC6 75 -5.005
42 FC6 76 -5.493
42 FC6 77 -5.981
42 FC6 78 -5.493
42 FC6 79 -4.028
42 FC6 80 -1.587
42 FC6 81 0.366
42 FC6 82 1.831
42 FC6 83 1.831
42 FC6 84 1.831
42 FC6 85 1.831
42 FC6 86 1.343
42 FC6 87 0.854
42 FC6 88 0.366
42 FC6 89 -0.122
42 FC6 90 -0.122
42 FC6 91 0.854
42 FC6 92 1.831
42 FC6 93 1.831
42 FC6 94 1.343
42 FC6 95 0.366
42 FC6 96 -1.587
42 FC6 97 -3.540
42 FC6 98 -5.005
42 FC6 99 -5.005
42 FC6 100 -4.028
42 FC6 101 -2.075
42 FC6 102 0.854
42 FC6 103 2.319
42 FC6 104 3.296
42 FC6 105 2.808
42 FC6 106 1.831
42 FC6 107 1.343
42 FC6 108 1.343
42 FC6 109 0.854
42 FC6 110 0.366
42 FC6 111 -0.122
42 FC6 112 -1.587
42 FC6 113 -2.563
42 FC6 114 -3.052
42 FC6 115 -3.540
42 FC6 116 -4.028
42 FC6 117 -4.517
42 FC6 118 -4.517
42 FC6 119 -4.028
42 FC6 120 -2.563
42 FC6 121 -2.075
42 FC6 122 -3.052
42 FC6 123 -4.028
42 FC6 124 -5.005
42 FC6 125 -5.005
42 FC6 126 -4.028
42 FC6 127 -3.052
42 FC6 128 -3.540
42 FC6 129 -3.540
42 FC6 130 -3.052
42 FC6 131 -1.099
42 FC6 132 0.854
42 FC6 133 2.319
42 FC6 134 1.831
42 FC6 135 0.366
42 FC6 136 -2.075
42 FC6 137 -4.028
42 FC6 138 -4.517
42 FC6 139 -4.028
42 FC6 140 -3.540
42 FC6 141 -2.075
42 FC6 142 -1.099
42 FC6 143 -0.122
42 FC6 144 0.366
42 FC6 145 0.366
42 FC6 146 -0.122
42 FC6 147 -1.099
42 FC6 148 -1.587
42 FC6 149 -1.099
42 FC6 150 -0.122
42 FC6 151 1.831
42 FC6 152 3.784
42 FC6 153 4.272
42 FC6 154 3.784
42 FC6 155 2.808
42 FC6 156 1.343
42 FC6 157 -0.122
42 FC6 158 -0.610
42 FC6 159 -0.610
42 FC6 160 0.854
42 FC6 161 1.343
42 FC6 162 1.343
42 FC6 163 0.366
42 FC6 164 -2.075
42 FC6 165 -4.028
42 FC6 166 -4.517
42 FC6 167 -3.540
42 FC6 168 -1.099
42 FC6 169 0.366
42 FC6 170 1.343
42 FC6 171 0.854
42 FC6 172 0.366
42 FC6 173 -0.122
42 FC6 174 -0.122
42 FC6 175 0.366
42 FC6 176 0.366
42 FC6 177 -0.122
42 FC6 178 -1.099
42 FC6 179 -2.075
42 FC6 180 -3.052
42 FC6 181 -3.052
42 FC6 182 -2.563
42 FC6 183 -2.563
42 FC6 184 -3.052
42 FC6 185 -3.540
42 FC6 186 -3.540
42 FC6 187 -3.052
42 FC6 188 -3.052
42 FC6 189 -2.563
42 FC6 190 -3.052
42 FC6 191 -3.052
42 FC6 192 -3.540
42 FC6 193 -3.540
42 FC6 194 -3.540
42 FC6 195 -4.028
42 FC6 196 -4.517
42 FC6 197 -4.517
42 FC6 198 -4.517
42 FC6 199 -3.540
42 FC6 200 -2.075
42 FC6 201 0.366
42 FC6 202 2.319
42 FC6 203 3.784
42 FC6 204 3.784
42 FC6 205 3.784
42 FC6 206 3.296
42 FC6 207 3.296
42 FC6 208 3.784
42 FC6 209 4.272
42 FC6 210 4.761
42 FC6 211 4.761
42 FC6 212 4.761
42 FC6 213 4.761
42 FC6 214 5.249
42 FC6 215 5.249
42 FC6 216 5.249
42 FC6 217 4.761
42 FC6 218 4.272
42 FC6 219 3.784
42 FC6 220 3.784
42 FC6 221 3.784
42 FC6 222 2.808
42 FC6 223 2.319
42 FC6 224 0.854
42 FC6 225 -1.099
42 FC6 226 -3.540
42 FC6 227 -5.005
42 FC6 228 -5.493
42 FC6 229 -4.517
42 FC6 230 -3.052
42 FC6 231 -1.587
42 FC6 232 -1.099
42 FC6 233 -2.563
42 FC6 234 -4.028
42 FC6 235 -5.493
42 FC6 236 -5.981
42 FC6 237 -5.493
42 FC6 238 -5.493
42 FC6 239 -5.005
42 FC6 240 -5.493
42 FC6 241 -6.470
42 FC6 242 -7.935
42 FC6 243 -9.399
42 FC6 244 -9.888
42 FC6 245 -9.888
42 FC6 246 -8.911
42 FC6 247 -6.958
42 FC6 248 -5.981
42 FC6 249 -5.493
42 FC6 250 -5.005
42 FC6 251 -5.005
42 FC6 252 -4.028
42 FC6 253 -3.052
42 FC6 254 -2.075
42 FC6 255 -1.587
# FC5 chan 10
42 FC5 0 -0.743
42 FC5 1 -1.719
42 FC5 2 -0.743
42 FC5 3 0.722
42 FC5 4 1.699
42 FC5 5 1.699
42 FC5 6 1.211
42 FC5 7 0.722
42 FC5 8 0.722
42 FC5 9 1.211
42 FC5 10 1.699
42 FC5 11 1.699
42 FC5 12 0.722
42 FC5 13 0.722
42 FC5 14 1.211
42 FC5 15 1.699
42 FC5 16 1.699
42 FC5 17 1.211
42 FC5 18 -0.254
42 FC5 19 -1.719
42 FC5 20 -2.696
42 FC5 21 -2.696
42 FC5 22 -1.231
42 FC5 23 0.722
42 FC5 24 2.187
42 FC5 25 2.675
42 FC5 26 2.187
42 FC5 27 1.211
42 FC5 28 0.722
42 FC5 29 0.722
42 FC5 30 2.675
42 FC5 31 5.117
42 FC5 32 6.582
42 FC5 33 7.070
42 FC5 34 7.558
42 FC5 35 8.046
42 FC5 36 8.046
42 FC5 37 7.070
42 FC5 38 5.117
42 FC5 39 2.675
42 FC5 40 1.211
42 FC5 41 1.699
42 FC5 42 3.164
42 FC5 43 5.117
42 FC5 44 6.582
42 FC5 45 6.582
42 FC5 46 6.093
42 FC5 47 5.605
42 FC5 48 5.117
42 FC5 49 5.117
42 FC5 50 5.117
42 FC5 51 5.117
42 FC5 52 5.605
42 FC5 53 5.605
42 FC5 54 6.093
42 FC5 55 6.093
42 FC5 56 5.605
42 FC5 57 5.117
42 FC5 58 4.628
42 FC5 59 4.628
42 FC5 60 5.117
42 FC5 61 5.117
42 FC5 62 4.628
42 FC5 63 3.652
42 FC5 64 2.675
42 FC5 65 2.187
42 FC5 66 2.675
42 FC5 67 2.675
42 FC5 68 1.699
42 FC5 69 0.722
42 FC5 70 -0.743
42 FC5 71 -1.231
42 FC5 72 0.234
42 FC5 73 2.187
42 FC5 74 3.652
42 FC5 75 3.652
42 FC5 76 2.675
42 FC5 77 0.722
42 FC5 78 -0.743
42 FC5 79 -0.254
42 FC5 80 1.211
42 FC5 81 4.140
42 FC5 82 6.582
42 FC5 83 7.558
42 FC5 84 6.582
42 FC5 85 4.140
42 FC5 86 1.699
42 FC5 87 -0.254
42 FC5 88 -0.254
42 FC5 89 0.722
42 FC5 90 2.675
42 FC5 91 4.628
42 FC5 92 5.605
42 FC5 93 5.117
42 FC5 94 4.628
42 FC5 95 4.140
42 FC5 96 4.628
42 FC5 97 5.117
42 FC5 98 6.582
42 FC5 99 7.558
42 FC5 100 9.023
42 FC5 101 9.511
42 FC5 102 10.488
42 FC5 103 10.488
42 FC5 104 10.000
42 FC5 105 9.511
42 FC5 106 8.535
42 FC5 107 7.070
42 FC5 108 6.093
42 FC5 109 5.117
42 FC5 110 4.628
42 FC5 111 3.652
42 FC5 112 2.675
42 FC5 113 1.699
42 FC5 114 1.211
42 FC5 115 2.187
42 FC5 116 3.652
42 FC5 117 4.628
42 FC5 118 5.117
42 FC5 119 3.652
42 FC5 120 2.675
42 FC5 121 2.187
42 FC5 122 3.164
42 FC5 123 5.605
42 FC5 124 7.558
42 FC5 125 9.023
42 FC5 126 8.535
42 FC5 127 6.582
42 FC5 128 5.117
42 FC5 129 4.628
42 FC5 130 5.117
42 FC5 131 6.093
42 FC5 132 7.070
42 FC5 133 7.558
42 FC5 134 7.558
42 FC5 135 7.558
42 FC5 136 7.558
42 FC5 137 7.558
42 FC5 138 6.582
42 FC5 139 5.605
42 FC5 140 4.140
42 FC5 141 2.675
42 FC5 142 2.675
42 FC5 143 3.652
42 FC5 144 5.117
42 FC5 145 6.093
42 FC5 146 6.093
42 FC5 147 5.117
42 FC5 148 3.164
42 FC5 149 2.187
42 FC5 150 2.675
42 FC5 151 4.628
42 FC5 152 7.558
42 FC5 153 9.511
42 FC5 154 10.488
42 FC5 155 8.535
42 FC5 156 5.605
42 FC5 157 3.164
42 FC5 158 1.699
42 FC5 159 2.187
42 FC5 160 4.140
42 FC5 161 6.582
42 FC5 162 8.046
42 FC5 163 7.558
42 FC5 164 5.605
42 FC5 165 3.652
42 FC5 166 2.675
42 FC5 167 2.675
42 FC5 168 4.140
42 FC5 169 5.605
42 FC5 170 6.093
42 FC5 171 6.582
42 FC5 172 6.093
42 FC5 173 4.628
42 FC5 174 2.187
42 FC5 175 -0.254
42 FC5 176 -2.207
42 FC5 177 -3.184
42 FC5 178 -2.696
42 FC5 179 -1.231
42 FC5 180 0.234
42 FC5 181 1.699
42 FC5 182 2.675
42 FC5 183 3.164
42 FC5 184 3.652
42 FC5 185 3.652
42 FC5 186 3.164
42 FC5 187 2.187
42 FC5 188 2.675
42 FC5 189 4.140
42 FC5 190 5.605
42 FC5 191 6.582
42 FC5 192 6.093
42 FC5 193 4.628
42 FC5 194 2.675
42 FC5 195 1.699
42 FC5 196 1.699
42 FC5 197 3.164
42 FC5 198 3.652
42 FC5 199 4.140
42 FC5 200 3.164
42 FC5 201 1.699
42 FC5 202 1.699
42 FC5 203 2.675
42 FC5 204 5.117
42 FC5 205 8.046
42 FC5 206 9.511
42 FC5 207 10.000
42 FC5 208 8.046
42 FC5 209 6.093
42 FC5 210 5.117
42 FC5 211 5.117
42 FC5 212 6.582
42 FC5 213 8.535
42 FC5 214 10.488
42 FC5 215 11.464
42 FC5 216 10.976
42 FC5 217 10.000
42 FC5 218 8.535
42 FC5 219 7.558
42 FC5 220 7.070
42 FC5 221 7.070
42 FC5 222 8.046
42 FC5 223 9.023
42 FC5 224 10.000
42 FC5 225 10.000
42 FC5 226 9.511
42 FC5 227 8.046
42 FC5 228 7.070
42 FC5 229 6.582
42 FC5 230 7.070
42 FC5 231 7.558
42 FC5 232 8.535
42 FC5 233 9.511
42 FC5 234 10.976
42 FC5 235 11.953
42 FC5 236 12.929
42 FC5 237 12.441
42 FC5 238 10.976
42 FC5 239 8.535
42 FC5 240 7.070
42 FC5 241 6.582
42 FC5 242 8.535
42 FC5 243 10.488
42 FC5 244 12.441
42 FC5 245 12.441
42 FC5 246 10.000
42 FC5 247 7.070
42 FC5 248 4.628
42 FC5 249 3.652
42 FC5 250 4.140
42 FC5 251 5.117
42 FC5 252 6.093
42 FC5 253 7.070
42 FC5 254 7.070
42 FC5 255 7.070
# FC2 chan 11
42 FC2 0 1.668
42 FC2 1 3.621
42 FC2 2 4.598
42 FC2 3 3.621
42 FC2 4 2.645
42 FC2 5 1.180
42 FC2 6 0.692
42 FC2 7 1.180
42 FC2 8 2.157
42 FC2 9 3.133
42 FC2 10 3.133
42 FC2 11 2.157
42 FC2 12 0.692
42 FC2 13 -1.261
42 FC2 14 -2.726
42 FC2 15 -3.215
42 FC2 16 -3.215
42 FC2 17 -2.238
42 FC2 18 -1.261
42 FC2 19 -0.773
42 FC2 20 -0.773
42 FC2 21 -1.261
42 FC2 22 -1.750
42 FC2 23 -2.726
42 FC2 24 -3.215
42 FC2 25 -3.215
42 FC2 26 -2.726
42 FC2 27 -2.726
42 FC2 28 -2.726
42 FC2 29 -2.726
42 FC2 30 -2.238
42 FC2 31 -2.238
42 FC2 32 -2.726
42 FC2 33 -3.703
42 FC2 34 -4.191
42 FC2 35 -3.703
42 FC2 36 -2.238
42 FC2 37 -0.285
42 FC2 38 1.180
42 FC2 39 1.668
42 FC2 40 2.645
42 FC2 41 2.645
42 FC2 42 3.133
42 FC2 43 3.133
42 FC2 44 3.133
42 FC2 45 3.133
42 FC2 46 2.645
42 FC2 47 2.157
42 FC2 48 1.180
42 FC2 49 0.203
42 FC2 50 -0.773
42 FC2 51 -2.238
42 FC2 52 -2.238
42 FC2 53 -2.238
42 FC2 54 -1.261
42 FC2 55 -0.773
42 FC2 56 -0.285
42 FC2 57 -0.773
42 FC2 58 -1.261
42 FC2 59 -2.238
42 FC2 60 -2.238
42 FC2 61 -2.238
42 FC2 62 -2.726
42 FC2 63 -3.215
42 FC2 64 -4.191
42 FC2 65 -4.679
42 FC2 66 -5.168
42 FC2 67 -4.679
42 FC2 68 -4.191
42 FC2 69 -3.215
42 FC2 70 -2.726
42 FC2 71 -2.238
42 FC2 72 -1.261
42 FC2 73 -1.261
42 FC2 74 -2.238
42 FC2 75 -3.703
42 FC2 76 -5.168
42 FC2 77 -6.144
42 FC2 78 -5.168
42 FC2 79 -4.191
42 FC2 80 -3.215
42 FC2 81 -2.726
42 FC2 82 -2.726
42 FC2 83 -2.726
42 FC2 84 -2.238
42 FC2 85 -1.750
42 FC2 86 -1.750
42 FC2 87 -2.238
42 FC2 88 -2.726
42 FC2 89 -3.703
42 FC2 90 -3.703
42 FC2 91 -3.703
42 FC2 92 -3.703
42 FC2 93 -3.215
42 FC2 94 -3.215
42 FC2 95 -2.726
42 FC2 96 -2.726
42 FC2 97 -3.215
42 FC2 98 -5.168
42 FC2 99 -6.144
42 FC2 100 -5.656
42 FC2 101 -4.679
42 FC2 102 -2.726
42 FC2 103 -1.261
42 FC2 104 -1.261
42 FC2 105 -1.750
42 FC2 106 -2.238
42 FC2 107 -1.750
42 FC2 108 -1.750
42 FC2 109 -1.750
42 FC2 110 -2.238
42 FC2 111 -3.215
42 FC2 112 -4.191
42 FC2 113 -4.191
42 FC2 114 -3.703
42 FC2 115 -3.215
42 FC2 116 -2.726
42 FC2 117 -2.726
42 FC2 118 -2.238
42 FC2 119 -2.238
42 FC2 120 -1.750
42 FC2 121 -1.261
42 FC2 122 -1.750
42 FC2 123 -2.238
42 FC2 124 -3.215
42 FC2 125 -3.215
42 FC2 126 -2.238
42 FC2 127 -1.750
42 FC2 128 -1.261
42 FC2 129 -1.261
42 FC2 130 -2.238
42 FC2 131 -2.726
42 FC2 132 -2.726
42 FC2 133 -3.215
42 FC2 134 -2.726
42 FC2 135 -3.215
42 FC2 136 -3.703
42 FC2 137 -4.191
42 FC2 138 -4.679
42 FC2 139 -4.679
42 FC2 140 -4.191
42 FC2 141 -3.215
42 FC2 142 -2.238
42 FC2 143 -2.238
42 FC2 144 -1.750
42 FC2 145 -2.238
42 FC2 146 -2.726
42 FC2 147 -3.703
42 FC2 148 -4.191
42 FC2 149 -4.191
42 FC2 150 -3.703
42 FC2 151 -2.726
42 FC2 152 -2.238
42 FC2 153 -1.261
42 FC2 154 -1.261
42 FC2 155 -0.773
42 FC2 156 -0.773
42 FC2 157 -0.773
42 FC2 158 -0.773
42 FC2 159 -0.773
42 FC2 160 -0.285
42 FC2 161 0.203
42 FC2 162 0.692
42 FC2 163 0.692
42 FC2 164 0.203
42 FC2 165 -0.773
42 FC2 166 -1.261
42 FC2 167 -1.750
42 FC2 168 -1.261
42 FC2 169 -0.773
42 FC2 170 -0.773
42 FC2 171 -0.773
42 FC2 172 -0.773
42 FC2 173 -0.285
42 FC2 174 0.203
42 FC2 175 0.203
42 FC2 176 0.203
42 FC2 177 -0.773
42 FC2 178 -1.261
42 FC2 179 -1.261
42 FC2 180 -1.261
42 FC2 181 -0.773
42 FC2 182 -0.773
42 FC2 183 -1.750
42 FC2 184 -2.726
42 FC2 185 -3.215
42 FC2 186 -2.726
42 FC2 187 -2.726
42 FC2 188 -1.750
42 FC2 189 -1.750
42 FC2 190 -2.238
42 FC2 191 -2.238
42 FC2 192 -2.726
42 FC2 193 -1.750
42 FC2 194 -0.773
42 FC2 195 0.203
42 FC2 196 0.203
42 FC2 197 0.203
42 FC2 198 -0.285
42 FC2 199 -0.285
42 FC2 200 0.203
42 FC2 201 1.180
42 FC2 202 2.157
42 FC2 203 2.645
42 FC2 204 3.133
42 FC2 205 3.621
42 FC2 206 3.133
42 FC2 207 2.157
42 FC2 208 1.180
42 FC2 209 0.692
42 FC2 210 0.692
42 FC2 211 0.692
42 FC2 212 1.180
42 FC2 213 2.645
42 FC2 214 2.645
42 FC2 215 3.133
42 FC2 216 3.621
42 FC2 217 3.621
42 FC2 218 3.133
42 FC2 219 2.157
42 FC2 220 1.668
42 FC2 221 1.180
42 FC2 222 1.668
42 FC2 223 2.157
42 FC2 224 2.157
42 FC2 225 1.668
42 FC2 226 0.692
42 FC2 227 -0.773
42 FC2 228 -1.261
42 FC2 229 -1.261
42 FC2 230 -0.773
42 FC2 231 -0.773
42 FC2 232 0.203
42 FC2 233 0.692
42 FC2 234 1.180
42 FC2 235 1.180
42 FC2 236 0.203
42 FC2 237 -0.285
42 FC2 238 -1.261
42 FC2 239 -1.261
42 FC2 240 -0.773
42 FC2 241 -0.285
42 FC2 242 -0.773
42 FC2 243 -1.261
42 FC2 244 -2.238
42 FC2 245 -2.726
42 FC2 246 -2.238
42 FC2 247 -1.261
42 FC2 248 -0.773
42 FC2 249 -1.261
42 FC2 250 -1.750
42 FC2 251 -2.238
42 FC2 252 -1.750
42 FC2 253 -0.285
42 FC2 254 0.692
42 FC2 255 0.692
# FC1 chan 12
42 FC1 0 2.991
42 FC1 1 2.991
42 FC1 2 3.479
42 FC1 3 3.479
42 FC1 4 2.991
42 FC1 5 2.991
42 FC1 6 2.991
42 FC1 7 3.967
42 FC1 8 4.944
42 FC1 9 5.432
42 FC1 10 4.944
42 FC1 11 3.479
42 FC1 12 1.526
42 FC1 13 0.061
42 FC1 14 -0.916
42 FC1 15 -0.916
42 FC1 16 -0.427
42 FC1 17 0.061
42 FC1 18 0.061
42 FC1 19 -0.427
42 FC1 20 -0.916
42 FC1 21 -1.892
42 FC1 22 -2.869
42 FC1 23 -2.869
42 FC1 24 -2.380
42 FC1 25 -1.892
42 FC1 26 -1.892
42 FC1 27 -1.892
42 FC1 28 -2.380
42 FC1 29 -1.892
42 FC1 30 -1.404
42 FC1 31 -0.427
42 FC1 32 0.061
42 FC1 33 0.061
42 FC1 34 0.549
42 FC1 35 1.038
42 FC1 36 1.526
42 FC1 37 1.526
42 FC1 38 1.038
42 FC1 39 0.549
42 FC1 40 0.061
42 FC1 41 0.549
42 FC1 42 1.526
42 FC1 43 2.991
42 FC1 44 3.479
42 FC1 45 2.991
42 FC1 46 2.502
42 FC1 47 2.502
42 FC1 48 2.502
42 FC1 49 2.502
42 FC1 50 2.014
42 FC1 51 1.038
42 FC1 52 1.038
42 FC1 53 1.038
42 FC1 54 1.038
42 FC1 55 2.014
42 FC1 56 2.014
42 FC1 57 1.526
42 FC1 58 1.526
42 FC1 59 2.014
42 FC1 60 2.014
42 FC1 61 2.014
42 FC1 62 1.526
42 FC1 63 0.549
42 FC1 64 -0.427
42 FC1 65 -0.916
42 FC1 66 -0.916
42 FC1 67 -0.916
42 FC1 68 -1.892
42 FC1 69 -2.380
42 FC1 70 -2.380
42 FC1 71 -1.892
42 FC1 72 -0.916
42 FC1 73 -0.427
42 FC1 74 -0.916
42 FC1 75 -2.380
42 FC1 76 -2.869
42 FC1 77 -3.357
42 FC1 78 -2.869
42 FC1 79 -2.869
42 FC1 80 -2.869
42 FC1 81 -2.380
42 FC1 82 -1.404
42 FC1 83 -0.916
42 FC1 84 -0.427
42 FC1 85 -0.916
42 FC1 86 -1.892
42 FC1 87 -2.869
42 FC1 88 -3.845
42 FC1 89 -3.845
42 FC1 90 -2.869
42 FC1 91 -1.892
42 FC1 92 -0.916
42 FC1 93 -0.427
42 FC1 94 -0.427
42 FC1 95 -0.427
42 FC1 96 0.061
42 FC1 97 0.549
42 FC1 98 0.549
42 FC1 99 0.549
42 FC1 100 0.549
42 FC1 101 1.038
42 FC1 102 1.038
42 FC1 103 1.038
42 FC1 104 0.549
42 FC1 105 0.549
42 FC1 106 1.038
42 FC1 107 2.014
42 FC1 108 2.502
42 FC1 109 2.014
42 FC1 110 1.038
42 FC1 111 -0.916
42 FC1 112 -2.380
42 FC1 113 -2.869
42 FC1 114 -2.380
42 FC1 115 -0.916
42 FC1 116 1.038
42 FC1 117 2.014
42 FC1 118 2.502
42 FC1 119 2.014
42 FC1 120 1.526
42 FC1 121 1.038
42 FC1 122 1.038
42 FC1 123 1.526
42 FC1 124 2.502
42 FC1 125 2.991
42 FC1 126 3.479
42 FC1 127 2.991
42 FC1 128 2.991
42 FC1 129 2.014
42 FC1 130 1.038
42 FC1 131 0.549
42 FC1 132 0.549
42 FC1 133 0.549
42 FC1 134 1.038
42 FC1 135 2.014
42 FC1 136 2.014
42 FC1 137 1.526
42 FC1 138 0.549
42 FC1 139 -0.427
42 FC1 140 -0.916
42 FC1 141 -0.916
42 FC1 142 -0.916
42 FC1 143 -0.427
42 FC1 144 0.061
42 FC1 145 0.061
42 FC1 146 -0.427
42 FC1 147 -0.916
42 FC1 148 -1.892
42 FC1 149 -1.892
42 FC1 150 -1.892
42 FC1 151 -0.916
42 FC1 152 1.038
42 FC1 153 2.502
42 FC1 154 3.967
42 FC1 155 4.456
42 FC1 156 3.479
42 FC1 157 2.502
42 FC1 158 1.526
42 FC1 159 2.014
42 FC1 160 3.479
42 FC1 161 4.944
42 FC1 162 6.409
42 FC1 163 5.920
42 FC1 164 4.944
42 FC1 165 2.991
42 FC1 166 2.014
42 FC1 167 1.526
42 FC1 168 2.014
42 FC1 169 2.014
42 FC1 170 2.014
42 FC1 171 2.014
42 FC1 172 2.502
42 FC1 173 2.502
42 FC1 174 2.014
42 FC1 175 0.549
42 FC1 176 -0.427
42 FC1 177 -1.892
42 FC1 178 -1.892
42 FC1 179 -0.916
42 FC1 180 0.061
42 FC1 181 1.038
42 FC1 182 1.038
42 FC1 183 0.549
42 FC1 184 -0.427
42 FC1 185 -0.916
42 FC1 186 -0.916
42 FC1 187 0.061
42 FC1 188 1.038
42 FC1 189 1.526
42 FC1 190 1.526
42 FC1 191 1.526
42 FC1 192 1.526
42 FC1 193 1.526
42 FC1 194 2.014
42 FC1 195 2.502
42 FC1 196 2.991
42 FC1 197 2.991
42 FC1 198 2.014
42 FC1 199 1.526
42 FC1 200 1.038
42 FC1 201 1.038
42 FC1 202 1.526
42 FC1 203 2.502
42 FC1 204 3.479
42 FC1 205 4.456
42 FC1 206 4.944
42 FC1 207 4.456
42 FC1 208 3.479
42 FC1 209 2.502
42 FC1 210 1.526
42 FC1 211 1.526
42 FC1 212 2.502
42 FC1 213 3.967
42 FC1 214 4.944
42 FC1 215 6.409
42 FC1 216 6.897
42 FC1 217 6.409
42 FC1 218 5.432
42 FC1 219 3.967
42 FC1 220 2.991
42 FC1 221 2.991
42 FC1 222 3.967
42 FC1 223 4.944
42 FC1 224 5.920
42 FC1 225 5.920
42 FC1 226 5.920
42 FC1 227 4.944
42 FC1 228 3.967
42 FC1 229 2.502
42 FC1 230 2.014
42 FC1 231 1.526
42 FC1 232 2.502
42 FC1 233 4.456
42 FC1 234 6.409
42 FC1 235 7.874
42 FC1 236 8.362
42 FC1 237 7.385
42 FC1 238 5.920
42 FC1 239 4.456
42 FC1 240 3.967
42 FC1 241 4.456
42 FC1 242 5.432
42 FC1 243 6.409
42 FC1 244 6.897
42 FC1 245 6.409
42 FC1 246 5.920
42 FC1 247 4.456
42 FC1 248 2.991
42 FC1 249 1.526
42 FC1 250 0.549
42 FC1 251 0.549
42 FC1 252 1.526
42 FC1 253 2.991
42 FC1 254 3.967
42 FC1 255 3.967
# T8 chan 13
42 T8 0 -6.256
42 T8 1 -3.815
42 T8 2 -1.862
42 T8 3 -0.397
42 T8 4 -0.397
42 T8 5 -2.350
42 T8 6 -4.303
42 T8 7 -5.768
42 T8 8 -5.280
42 T8 9 -3.326
42 T8 10 -0.885
42 T8 11 1.556
42 T8 12 2.533
42 T8 13 3.021
42 T8 14 2.045
42 T8 15 0.092
42 T8 16 -2.838
42 T8 17 -4.791
42 T8 18 -6.256
42 T8 19 -5.768
42 T8 20 -2.838
42 T8 21 0.580
42 T8 22 3.510
42 T8 23 3.998
42 T8 24 3.510
42 T8 25 2.045
42 T8 26 -0.397
42 T8 27 -2.350
42 T8 28 -3.326
42 T8 29 -2.838
42 T8 30 -1.373
42 T8 31 0.580
42 T8 32 1.556
42 T8 33 1.556
42 T8 34 0.092
42 T8 35 -0.885
42 T8 36 -0.885
42 T8 37 1.068
42 T8 38 3.510
42 T8 39 4.974
42 T8 40 5.463
42 T8 41 4.974
42 T8 42 4.974
42 T8 43 5.463
42 T8 44 5.951
42 T8 45 5.463
42 T8 46 4.974
42 T8 47 3.998
42 T8 48 3.021
42 T8 49 2.045
42 T8 50 0.580
42 T8 51 -0.885
42 T8 52 -2.838
42 T8 53 -4.303
42 T8 54 -4.791
42 T8 55 -4.303
42 T8 56 -2.838
42 T8 57 -2.350
42 T8 58 -2.350
42 T8 59 -3.326
42 T8 60 -3.815
42 T8 61 -4.303
42 T8 62 -4.303
42 T8 63 -5.280
42 T8 64 -6.256
42 T8 65 -7.233
42 T8 66 -6.744
42 T8 67 -5.280
42 T8 68 -3.326
42 T8 69 -2.838
42 T8 70 -3.326
42 T8 71 -5.280
42 T8 72 -6.744
42 T8 73 -7.233
42 T8 74 -6.744
42 T8 75 -5.768
42 T8 76 -4.791
42 T8 77 -4.791
42 T8 78 -4.791
42 T8 79 -3.815
42 T8 80 -2.350
42 T8 81 0.092
42 T8 82 2.533
42 T8 83 3.510
42 T8 84 3.998
42 T8 85 2.533
42 T8 86 1.556
42 T8 87 1.556
42 T8 88 2.045
42 T8 89 3.021
42 T8 90 4.486
42 T8 91 4.974
42 T8 92 5.463
42 T8 93 4.974
42 T8 94 3.998
42 T8 95 2.533
42 T8 96 1.068
42 T8 97 0.092
42 T8 98 -0.885
42 T8 99 -0.885
42 T8 100 0.092
42 T8 101 1.556
42 T8 102 3.998
42 T8 103 5.951
42 T8 104 7.416
42 T8 105 7.904
42 T8 106 7.416
42 T8 107 6.439
42 T8 108 5.463
42 T8 109 4.486
42 T8 110 3.998
42 T8 111 3.021
42 T8 112 3.021
42 T8 113 3.021
42 T8 114 2.533
42 T8 115 1.556
42 T8 116 -0.885
42 T8 117 -2.838
42 T8 118 -4.303
42 T8 119 -4.303
42 T8 120 -3.815
42 T8 121 -3.326
42 T8 122 -3.326
42 T8 123 -3.815
42 T8 124 -3.815
42 T8 125 -3.815
42 T8 126 -3.815
42 T8 127 -4.303
42 T8 128 -5.280
42 T8 129 -5.768
42 T8 130 -3.815
42 T8 131 -0.397
42 T8 132 3.021
42 T8 133 4.974
42 T8 134 3.998
42 T8 135 1.068
42 T8 136 -2.838
42 T8 137 -4.791
42 T8 138 -4.791
42 T8 139 -3.815
42 T8 140 -2.838
42 T8 141 -1.862
42 T8 142 -0.885
42 T8 143 0.580
42 T8 144 2.045
42 T8 145 2.533
42 T8 146 2.045
42 T8 147 1.068
42 T8 148 0.092
42 T8 149 0.580
42 T8 150 2.045
42 T8 151 3.998
42 T8 152 5.951
42 T8 153 6.439
42 T8 154 5.463
42 T8 155 3.021
42 T8 156 0.580
42 T8 157 -0.885
42 T8 158 -1.373
42 T8 159 -0.885
42 T8 160 0.092
42 T8 161 1.068
42 T8 162 0.580
42 T8 163 -0.885
42 T8 164 -2.350
42 T8 165 -2.838
42 T8 166 -1.862
42 T8 167 1.068
42 T8 168 3.998
42 T8 169 5.463
42 T8 170 5.951
42 T8 171 4.974
42 T8 172 3.510
42 T8 173 2.533
42 T8 174 1.556
42 T8 175 2.045
42 T8 176 2.045
42 T8 177 1.556
42 T8 178 1.068
42 T8 179 0.092
42 T8 180 -1.373
42 T8 181 -2.350
42 T8 182 -2.350
42 T8 183 -1.862
42 T8 184 -0.885
42 T8 185 0.092
42 T8 186 0.580
42 T8 187 1.068
42 T8 188 1.068
42 T8 189 1.068
42 T8 190 0.580
42 T8 191 0.580
42 T8 192 -0.397
42 T8 193 -1.862
42 T8 194 -2.350
42 T8 195 -3.326
42 T8 196 -4.303
42 T8 197 -5.280
42 T8 198 -6.256
42 T8 199 -6.744
42 T8 200 -6.256
42 T8 201 -4.303
42 T8 202 -2.350
42 T8 203 -0.397
42 T8 204 0.092
42 T8 205 0.092
42 T8 206 0.580
42 T8 207 1.556
42 T8 208 3.510
42 T8 209 4.486
42 T8 210 5.463
42 T8 211 4.974
42 T8 212 3.998
42 T8 213 3.510
42 T8 214 3.998
42 T8 215 4.486
42 T8 216 4.486
42 T8 217 3.510
42 T8 218 2.533
42 T8 219 1.556
42 T8 220 2.045
42 T8 221 3.510
42 T8 222 3.510
42 T8 223 2.533
42 T8 224 0.092
42 T8 225 -3.326
42 T8 226 -5.768
42 T8 227 -6.744
42 T8 228 -6.256
42 T8 229 -4.303
42 T8 230 -2.838
42 T8 231 -1.373
42 T8 232 -1.862
42 T8 233 -3.815
42 T8 234 -5.768
42 T8 235 -7.233
42 T8 236 -7.233
42 T8 237 -6.744
42 T8 238 -6.744
42 T8 239 -7.233
42 T8 240 -8.698
42 T8 241 -10.651
42 T8 242 -12.604
42 T8 243 -13.580
42 T8 244 -13.580
42 T8 245 -13.580
42 T8 246 -13.092
42 T8 247 -12.115
42 T8 248 -11.139
42 T8 249 -10.651
42 T8 250 -9.674
42 T8 251 -8.209
42 T8 252 -6.744
42 T8 253 -5.280
42 T8 254 -4.303
42 T8 255 -4.303
# T7 chan 14
42 T7 0 -4.313
42 T7 1 -4.313
42 T7 2 -2.360
42 T7 3 -0.407
42 T7 4 1.058
42 T7 5 0.570
42 T7 6 -0.895
42 T7 7 -2.360
42 T7 8 -2.848
42 T7 9 -2.360
42 T7 10 -1.872
42 T7 11 -0.895
42 T7 12 0.570
42 T7 13 1.546
42 T7 14 3.011
42 T7 15 3.011
42 T7 16 1.058
42 T7 17 -1.872
42 T7 18 -4.801
42 T7 19 -6.266
42 T7 20 -4.313
42 T7 21 -0.895
42 T7 22 2.523
42 T7 23 4.964
42 T7 24 5.452
42 T7 25 3.988
42 T7 26 2.035
42 T7 27 1.058
42 T7 28 2.035
42 T7 29 4.476
42 T7 30 8.382
42 T7 31 11.800
42 T7 32 13.265
42 T7 33 12.777
42 T7 34 10.824
42 T7 35 8.870
42 T7 36 7.406
42 T7 37 7.406
42 T7 38 6.917
42 T7 39 5.941
42 T7 40 4.964
42 T7 41 3.988
42 T7 42 3.499
42 T7 43 3.988
42 T7 44 4.476
42 T7 45 4.476
42 T7 46 4.476
42 T7 47 4.964
42 T7 48 5.452
42 T7 49 5.941
42 T7 50 6.917
42 T7 51 6.917
42 T7 52 6.917
42 T7 53 6.917
42 T7 54 5.941
42 T7 55 5.452
42 T7 56 4.964
42 T7 57 5.452
42 T7 58 5.941
42 T7 59 6.429
42 T7 60 6.917
42 T7 61 6.429
42 T7 62 5.452
42 T7 63 4.476
42 T7 64 3.988
42 T7 65 4.476
42 T7 66 5.941
42 T7 67 7.406
42 T7 68 7.406
42 T7 69 5.941
42 T7 70 3.988
42 T7 71 2.523
42 T7 72 3.011
42 T7 73 5.452
42 T7 74 8.382
42 T7 75 10.335
42 T7 76 10.335
42 T7 77 8.870
42 T7 78 7.406
42 T7 79 7.406
42 T7 80 8.870
42 T7 81 11.800
42 T7 82 14.730
42 T7 83 16.195
42 T7 84 15.218
42 T7 85 12.777
42 T7 86 10.335
42 T7 87 8.870
42 T7 88 9.359
42 T7 89 10.824
42 T7 90 12.777
42 T7 91 14.730
42 T7 92 15.706
42 T7 93 15.218
42 T7 94 13.753
42 T7 95 12.288
42 T7 96 11.312
42 T7 97 11.800
42 T7 98 12.777
42 T7 99 14.242
42 T7 100 15.218
42 T7 101 15.706
42 T7 102 16.683
42 T7 103 17.171
42 T7 104 17.660
42 T7 105 18.148
42 T7 106 17.171
42 T7 107 15.706
42 T7 108 13.265
42 T7 109 10.824
42 T7 110 9.359
42 T7 111 8.382
42 T7 112 7.406
42 T7 113 6.917
42 T7 114 6.429
42 T7 115 6.917
42 T7 116 7.406
42 T7 117 7.406
42 T7 118 6.917
42 T7 119 5.452
42 T7 120 4.476
42 T7 121 3.988
42 T7 122 5.452
42 T7 123 7.406
42 T7 124 9.847
42 T7 125 10.824
42 T7 126 9.847
42 T7 127 8.382
42 T7 128 6.917
42 T7 129 6.429
42 T7 130 8.382
42 T7 131 10.824
42 T7 132 12.777
42 T7 133 13.265
42 T7 134 12.288
42 T7 135 10.335
42 T7 136 9.359
42 T7 137 8.382
42 T7 138 8.870
42 T7 139 8.870
42 T7 140 7.894
42 T7 141 6.429
42 T7 142 5.452
42 T7 143 6.429
42 T7 144 8.870
42 T7 145 10.824
42 T7 146 11.312
42 T7 147 10.335
42 T7 148 7.894
42 T7 149 6.429
42 T7 150 6.917
42 T7 151 8.382
42 T7 152 10.824
42 T7 153 11.800
42 T7 154 10.335
42 T7 155 8.382
42 T7 156 5.452
42 T7 157 3.988
42 T7 158 3.011
42 T7 159 3.988
42 T7 160 5.452
42 T7 161 6.429
42 T7 162 6.917
42 T7 163 6.429
42 T7 164 5.941
42 T7 165 5.452
42 T7 166 6.917
42 T7 167 8.382
42 T7 168 10.335
42 T7 169 10.335
42 T7 170 9.847
42 T7 171 9.359
42 T7 172 8.870
42 T7 173 7.894
42 T7 174 6.429
42 T7 175 3.988
42 T7 176 2.523
42 T7 177 2.035
42 T7 178 2.523
42 T7 179 3.499
42 T7 180 4.476
42 T7 181 4.964
42 T7 182 5.941
42 T7 183 7.406
42 T7 184 9.359
42 T7 185 10.335
42 T7 186 10.335
42 T7 187 8.382
42 T7 188 6.917
42 T7 189 6.429
42 T7 190 7.894
42 T7 191 9.359
42 T7 192 9.847
42 T7 193 8.382
42 T7 194 6.429
42 T7 195 4.476
42 T7 196 3.499
42 T7 197 3.499
42 T7 198 3.499
42 T7 199 3.011
42 T7 200 2.523
42 T7 201 2.035
42 T7 202 2.523
42 T7 203 3.499
42 T7 204 4.964
42 T7 205 6.429
42 T7 206 7.894
42 T7 207 8.382
42 T7 208 8.870
42 T7 209 8.382
42 T7 210 8.870
42 T7 211 9.847
42 T7 212 10.824
42 T7 213 12.288
42 T7 214 12.777
42 T7 215 11.800
42 T7 216 10.335
42 T7 217 8.870
42 T7 218 7.406
42 T7 219 7.894
42 T7 220 8.870
42 T7 221 9.359
42 T7 222 9.847
42 T7 223 9.847
42 T7 224 9.359
42 T7 225 8.382
42 T7 226 7.406
42 T7 227 6.917
42 T7 228 6.429
42 T7 229 6.917
42 T7 230 7.894
42 T7 231 8.382
42 T7 232 8.382
42 T7 233 7.894
42 T7 234 7.894
42 T7 235 7.894
42 T7 236 8.870
42 T7 237 9.359
42 T7 238 9.359
42 T7 239 8.870
42 T7 240 7.406
42 T7 241 5.941
42 T7 242 5.452
42 T7 243 5.941
42 T7 244 6.429
42 T7 245 6.917
42 T7 246 5.941
42 T7 247 4.964
42 T7 248 3.499
42 T7 249 2.523
42 T7 250 3.499
42 T7 251 4.476
42 T7 252 5.452
42 T7 253 5.941
42 T7 254 6.429
42 T7 255 6.917
# CZ chan 15
42 CZ 0 -10.824
42 CZ 1 -9.359
42 CZ 2 -3.499
42 CZ 3 2.360
42 CZ 4 5.778
42 CZ 5 4.801
42 CZ 6 0.895
42 CZ 7 -3.011
42 CZ 8 -4.964
42 CZ 9 -4.476
42 CZ 10 -2.523
42 CZ 11 -1.546
42 CZ 12 0.407
42 CZ 13 2.848
42 CZ 14 4.801
42 CZ 15 4.801
42 CZ 16 0.407
42 CZ 17 -5.941
42 CZ 18 -10.824
42 CZ 19 -10.824
42 CZ 20 -4.964
42 CZ 21 2.848
42 CZ 22 8.219
42 CZ 23 8.219
42 CZ 24 4.313
42 CZ 25 -0.081
42 CZ 26 -3.499
42 CZ 27 -4.964
42 CZ 28 -6.429
42 CZ 29 -7.894
42 CZ 30 -9.847
42 CZ 31 -10.335
42 CZ 32 -9.847
42 CZ 33 -7.894
42 CZ 34 -5.941
42 CZ 35 -3.499
42 CZ 36 -1.546
42 CZ 37 -0.081
42 CZ 38 0.895
42 CZ 39 1.872
42 CZ 40 2.848
42 CZ 41 3.337
42 CZ 42 4.801
42 CZ 43 5.290
42 CZ 44 4.801
42 CZ 45 2.848
42 CZ 46 0.895
42 CZ 47 -0.081
42 CZ 48 0.407
42 CZ 49 2.360
42 CZ 50 4.313
42 CZ 51 5.290
42 CZ 52 4.313
42 CZ 53 2.848
42 CZ 54 1.872
42 CZ 55 2.360
42 CZ 56 2.848
42 CZ 57 3.337
42 CZ 58 3.337
42 CZ 59 2.360
42 CZ 60 1.383
42 CZ 61 0.407
42 CZ 62 -0.570
42 CZ 63 -2.035
42 CZ 64 -3.988
42 CZ 65 -4.476
42 CZ 66 -4.476
42 CZ 67 -3.499
42 CZ 68 -3.011
42 CZ 69 -3.988
42 CZ 70 -6.429
42 CZ 71 -8.382
42 CZ 72 -8.382
42 CZ 73 -7.406
42 CZ 74 -5.452
42 CZ 75 -3.011
42 CZ 76 -2.035
42 CZ 77 -1.546
42 CZ 78 -0.081
42 CZ 79 2.360
42 CZ 80 6.266
42 CZ 81 9.196
42 CZ 82 11.149
42 CZ 83 11.637
42 CZ 84 11.149
42 CZ 85 10.173
42 CZ 86 9.196
42 CZ 87 7.731
42 CZ 88 5.778
42 CZ 89 4.313
42 CZ 90 4.801
42 CZ 91 7.243
42 CZ 92 9.196
42 CZ 93 9.196
42 CZ 94 6.755
42 CZ 95 3.825
42 CZ 96 0.895
42 CZ 97 -0.081
42 CZ 98 0.407
42 CZ 99 1.383
42 CZ 100 1.872
42 CZ 101 2.360
42 CZ 102 4.313
42 CZ 103 6.755
42 CZ 104 10.173
42 CZ 105 12.126
42 CZ 106 12.614
42 CZ 107 11.149
42 CZ 108 8.219
42 CZ 109 5.290
42 CZ 110 2.848
42 CZ 111 1.872
42 CZ 112 1.383
42 CZ 113 0.407
42 CZ 114 -0.570
42 CZ 115 -1.546
42 CZ 116 -3.011
42 CZ 117 -3.988
42 CZ 118 -4.476
42 CZ 119 -4.476
42 CZ 120 -4.476
42 CZ 121 -3.499
42 CZ 122 -2.523
42 CZ 123 -2.035
42 CZ 124 -1.058
42 CZ 125 -1.058
42 CZ 126 -2.035
42 CZ 127 -3.988
42 CZ 128 -5.941
42 CZ 129 -6.429
42 CZ 130 -3.499
42 CZ 131 1.383
42 CZ 132 5.290
42 CZ 133 6.755
42 CZ 134 4.313
42 CZ 135 0.407
42 CZ 136 -3.499
42 CZ 137 -5.452
42 CZ 138 -5.452
42 CZ 139 -4.964
42 CZ 140 -3.988
42 CZ 141 -3.011
42 CZ 142 -2.523
42 CZ 143 -2.035
42 CZ 144 -1.546
42 CZ 145 -2.035
42 CZ 146 -3.499
42 CZ 147 -5.941
42 CZ 148 -8.382
42 CZ 149 -10.335
42 CZ 150 -10.824
42 CZ 151 -9.847
42 CZ 152 -7.406
42 CZ 153 -5.452
42 CZ 154 -4.964
42 CZ 155 -7.406
42 CZ 156 -11.312
42 CZ 157 -15.706
42 CZ 158 -18.148
42 CZ 159 -17.660
42 CZ 160 -15.218
42 CZ 161 -12.288
42 CZ 162 -10.824
42 CZ 163 -12.288
42 CZ 164 -14.730
42 CZ 165 -17.171
42 CZ 166 -17.171
42 CZ 167 -15.218
42 CZ 168 -13.265
42 CZ 169 -10.335
42 CZ 170 -8.382
42 CZ 171 -7.406
42 CZ 172 -7.894
42 CZ 173 -9.847
42 CZ 174 -13.265
42 CZ 175 -16.195
42 CZ 176 -16.683
42 CZ 177 -15.218
42 CZ 178 -13.265
42 CZ 179 -13.265
42 CZ 180 -14.730
42 CZ 181 -17.171
42 CZ 182 -17.660
42 CZ 183 -16.683
42 CZ 184 -14.242
42 CZ 185 -12.777
42 CZ 186 -12.288
42 CZ 187 -12.777
42 CZ 188 -12.777
42 CZ 189 -12.288
42 CZ 190 -11.312
42 CZ 191 -10.335
42 CZ 192 -10.335
42 CZ 193 -10.824
42 CZ 194 -12.777
42 CZ 195 -14.242
42 CZ 196 -17.171
42 CZ 197 -19.613
42 CZ 198 -21.566
42 CZ 199 -21.566
42 CZ 200 -19.613
42 CZ 201 -16.683
42 CZ 202 -14.242
42 CZ 203 -13.753
42 CZ 204 -14.730
42 CZ 205 -15.706
42 CZ 206 -15.218
42 CZ 207 -12.777
42 CZ 208 -8.870
42 CZ 209 -5.941
42 CZ 210 -5.452
42 CZ 211 -6.429
42 CZ 212 -7.406
42 CZ 213 -8.382
42 CZ 214 -8.870
42 CZ 215 -9.359
42 CZ 216 -10.824
42 CZ 217 -11.312
42 CZ 218 -10.335
42 CZ 219 -7.894
42 CZ 220 -5.452
42 CZ 221 -3.988
42 CZ 222 -4.964
42 CZ 223 -7.894
42 CZ 224 -11.312
42 CZ 225 -14.730
42 CZ 226 -17.660
42 CZ 227 -19.613
42 CZ 228 -19.613
42 CZ 229 -18.636
42 CZ 230 -17.171
42 CZ 231 -17.660
42 CZ 232 -19.124
42 CZ 233 -21.566
42 CZ 234 -23.031
42 CZ 235 -23.031
42 CZ 236 -21.566
42 CZ 237 -18.636
42 CZ 238 -17.171
42 CZ 239 -17.171
42 CZ 240 -20.101
42 CZ 241 -23.031
42 CZ 242 -25.472
42 CZ 243 -25.960
42 CZ 244 -25.960
42 CZ 245 -25.960
42 CZ 246 -25.960
42 CZ 247 -25.472
42 CZ 248 -23.519
42 CZ 249 -21.077
42 CZ 250 -19.124
42 CZ 251 -19.124
42 CZ 252 -21.077
42 CZ 253 -23.519
42 CZ 254 -24.007
42 CZ 255 -22.542
# C3 chan 16
42 C3 0 0.102
42 C3 1 -1.363
42 C3 2 -1.363
42 C3 3 0.102
42 C3 4 -0.387
42 C3 5 -1.363
42 C3 6 -0.875
42 C3 7 0.102
42 C3 8 -0.387
42 C3 9 -1.851
42 C3 10 -2.340
42 C3 11 0.102
42 C3 12 1.567
42 C3 13 2.055
42 C3 14 2.543
42 C3 15 2.055
42 C3 16 0.590
42 C3 17 -2.340
42 C3 18 -4.293
42 C3 19 -3.805
42 C3 20 -1.363
42 C3 21 0.590
42 C3 22 1.567
42 C3 23 2.055
42 C3 24 2.055
42 C3 25 1.078
42 C3 26 0.590
42 C3 27 2.055
42 C3 28 3.031
42 C3 29 3.520
42 C3 30 3.520
42 C3 31 4.985
42 C3 32 6.938
42 C3 33 7.914
42 C3 34 5.961
42 C3 35 3.520
42 C3 36 1.078
42 C3 37 -1.363
42 C3 38 -3.316
42 C3 39 -4.293
42 C3 40 -3.805
42 C3 41 -2.340
42 C3 42 -0.387
42 C3 43 1.078
42 C3 44 1.567
42 C3 45 1.567
42 C3 46 1.567
42 C3 47 1.567
42 C3 48 2.055
42 C3 49 2.543
42 C3 50 3.520
42 C3 51 4.008
42 C3 52 4.008
42 C3 53 3.031
42 C3 54 2.543
42 C3 55 2.543
42 C3 56 3.031
42 C3 57 3.031
42 C3 58 2.543
42 C3 59 2.055
42 C3 60 2.543
42 C3 61 3.031
42 C3 62 3.031
42 C3 63 2.543
42 C3 64 3.031
42 C3 65 4.496
42 C3 66 4.985
42 C3 67 4.008
42 C3 68 2.055
42 C3 69 2.055
42 C3 70 2.543
42 C3 71 2.543
42 C3 72 2.543
42 C3 73 4.008
42 C3 74 5.473
42 C3 75 4.985
42 C3 76 3.031
42 C3 77 1.567
42 C3 78 3.031
42 C3 79 4.985
42 C3 80 4.985
42 C3 81 4.008
42 C3 82 4.008
42 C3 83 4.008
42 C3 84 2.543
42 C3 85 0.590
42 C3 86 -0.387
42 C3 87 2.055
42 C3 88 4.496
42 C3 89 5.473
42 C3 90 4.496
42 C3 91 3.520
42 C3 92 4.008
42 C3 93 4.985
42 C3 94 5.473
42 C3 95 6.449
42 C3 96 7.914
42 C3 97 9.379
42 C3 98 8.403
42 C3 99 6.938
42 C3 100 6.449
42 C3 101 7.426
42 C3 102 7.914
42 C3 103 6.449
42 C3 104 4.985
42 C3 105 4.985
42 C3 106 5.961
42 C3 107 5.473
42 C3 108 3.520
42 C3 109 2.055
42 C3 110 1.567
42 C3 111 1.567
42 C3 112 1.078
42 C3 113 1.078
42 C3 114 2.543
42 C3 115 4.008
42 C3 116 3.520
42 C3 117 2.543
42 C3 118 1.078
42 C3 119 1.078
42 C3 120 2.055
42 C3 121 4.008
42 C3 122 5.961
42 C3 123 5.961
42 C3 124 4.985
42 C3 125 4.008
42 C3 126 4.008
42 C3 127 3.520
42 C3 128 2.543
42 C3 129 4.008
42 C3 130 6.449
42 C3 131 7.914
42 C3 132 6.449
42 C3 133 4.985
42 C3 134 5.473
42 C3 135 6.449
42 C3 136 6.938
42 C3 137 5.473
42 C3 138 4.496
42 C3 139 3.520
42 C3 140 2.543
42 C3 141 1.567
42 C3 142 2.543
42 C3 143 4.008
42 C3 144 4.496
42 C3 145 3.520
42 C3 146 4.008
42 C3 147 4.985
42 C3 148 5.961
42 C3 149 5.473
42 C3 150 5.473
42 C3 151 6.449
42 C3 152 7.914
42 C3 153 6.938
42 C3 154 4.496
42 C3 155 2.543
42 C3 156 2.543
42 C3 157 4.008
42 C3 158 4.985
42 C3 159 4.496
42 C3 160 4.008
42 C3 161 4.008
42 C3 162 3.520
42 C3 163 3.520
42 C3 164 4.496
42 C3 165 5.473
42 C3 166 5.473
42 C3 167 4.985
42 C3 168 5.473
42 C3 169 6.449
42 C3 170 5.961
42 C3 171 4.008
42 C3 172 2.055
42 C3 173 1.567
42 C3 174 1.567
42 C3 175 1.078
42 C3 176 0.590
42 C3 177 1.567
42 C3 178 2.055
42 C3 179 2.055
42 C3 180 2.543
42 C3 181 4.008
42 C3 182 4.008
42 C3 183 3.520
42 C3 184 2.543
42 C3 185 3.031
42 C3 186 4.008
42 C3 187 4.008
42 C3 188 4.008
42 C3 189 5.473
42 C3 190 6.938
42 C3 191 5.473
42 C3 192 3.031
42 C3 193 2.055
42 C3 194 2.543
42 C3 195 3.031
42 C3 196 1.567
42 C3 197 1.078
42 C3 198 1.567
42 C3 199 2.055
42 C3 200 0.590
42 C3 201 0.590
42 C3 202 2.055
42 C3 203 4.008
42 C3 204 4.985
42 C3 205 4.008
42 C3 206 3.520
42 C3 207 3.520
42 C3 208 3.520
42 C3 209 4.496
42 C3 210 4.496
42 C3 211 5.473
42 C3 212 5.473
42 C3 213 4.008
42 C3 214 2.543
42 C3 215 2.055
42 C3 216 3.031
42 C3 217 2.543
42 C3 218 1.078
42 C3 219 1.078
42 C3 220 3.031
42 C3 221 4.496
42 C3 222 4.496
42 C3 223 4.008
42 C3 224 3.520
42 C3 225 3.520
42 C3 226 4.008
42 C3 227 3.520
42 C3 228 3.031
42 C3 229 2.055
42 C3 230 2.055
42 C3 231 3.520
42 C3 232 4.985
42 C3 233 5.961
42 C3 234 6.449
42 C3 235 7.426
42 C3 236 7.426
42 C3 237 5.473
42 C3 238 2.543
42 C3 239 2.055
42 C3 240 3.520
42 C3 241 5.961
42 C3 242 7.426
42 C3 243 6.449
42 C3 244 4.985
42 C3 245 4.496
42 C3 246 4.008
42 C3 247 3.031
42 C3 248 2.055
42 C3 249 2.055
42 C3 250 3.031
42 C3 251 3.520
42 C3 252 3.520
42 C3 253 3.520
42 C3 254 4.496
42 C3 255 4.985
# C4 chan 17
42 C4 0 -0.631
42 C4 1 -1.607
42 C4 2 -2.096
42 C4 3 -3.072
42 C4 4 -4.537
42 C4 5 -4.537
42 C4 6 -2.096
42 C4 7 -0.142
42 C4 8 -0.631
42 C4 9 -1.607
42 C4 10 -1.607
42 C4 11 -1.119
42 C4 12 -2.096
42 C4 13 -3.072
42 C4 14 -2.096
42 C4 15 0.346
42 C4 16 0.834
42 C4 17 0.346
42 C4 18 -0.142
42 C4 19 0.834
42 C4 20 1.811
42 C4 21 1.811
42 C4 22 2.299
42 C4 23 2.787
42 C4 24 1.811
42 C4 25 0.346
42 C4 26 0.346
42 C4 27 1.811
42 C4 28 2.787
42 C4 29 0.834
42 C4 30 -2.096
42 C4 31 -3.072
42 C4 32 -2.584
42 C4 33 -2.584
42 C4 34 -4.049
42 C4 35 -4.049
42 C4 36 -1.119
42 C4 37 2.299
42 C4 38 2.787
42 C4 39 1.322
42 C4 40 1.322
42 C4 41 1.811
42 C4 42 3.276
42 C4 43 3.276
42 C4 44 3.764
42 C4 45 4.252
42 C4 46 3.276
42 C4 47 1.322
42 C4 48 -1.607
42 C4 49 -3.560
42 C4 50 -4.537
42 C4 51 -5.514
42 C4 52 -4.537
42 C4 53 -3.072
42 C4 54 -1.607
42 C4 55 -2.584
42 C4 56 -5.025
42 C4 57 -5.025
42 C4 58 -2.584
42 C4 59 -1.119
42 C4 60 -2.096
42 C4 61 -3.560
42 C4 62 -3.560
42 C4 63 -2.584
42 C4 64 -2.584
42 C4 65 -2.096
42 C4 66 -0.631
42 C4 67 1.322
42 C4 68 0.834
42 C4 69 0.346
42 C4 70 0.346
42 C4 71 -0.142
42 C4 72 -1.607
42 C4 73 -3.072
42 C4 74 -3.072
42 C4 75 -2.096
42 C4 76 -1.607
42 C4 77 -1.607
42 C4 78 -0.631
42 C4 79 0.834
42 C4 80 1.322
42 C4 81 0.834
42 C4 82 0.834
42 C4 83 1.811
42 C4 84 2.299
42 C4 85 2.299
42 C4 86 1.322
42 C4 87 1.811
42 C4 88 2.787
42 C4 89 2.299
42 C4 90 0.346
42 C4 91 -1.607
42 C4 92 -1.607
42 C4 93 -0.631
42 C4 94 -0.631
42 C4 95 -2.096
42 C4 96 -4.537
42 C4 97 -5.025
42 C4 98 -3.560
42 C4 99 -1.607
42 C4 100 -0.142
42 C4 101 1.322
42 C4 102 1.811
42 C4 103 1.322
42 C4 104 -0.142
42 C4 105 -0.142
42 C4 106 -0.142
42 C4 107 -0.631
42 C4 108 -1.119
42 C4 109 -0.631
42 C4 110 0.834
42 C4 111 0.834
42 C4 112 -0.631
42 C4 113 -3.072
42 C4 114 -5.025
42 C4 115 -5.514
42 C4 116 -5.025
42 C4 117 -4.049
42 C4 118 -3.560
42 C4 119 -4.537
42 C4 120 -5.514
42 C4 121 -5.025
42 C4 122 -4.049
42 C4 123 -3.560
42 C4 124 -4.049
42 C4 125 -4.049
42 C4 126 -3.560
42 C4 127 -3.072
42 C4 128 -2.096
42 C4 129 -0.631
42 C4 130 0.834
42 C4 131 1.322
42 C4 132 -0.142
42 C4 133 -2.096
42 C4 134 -3.072
42 C4 135 -3.560
42 C4 136 -4.049
42 C4 137 -4.049
42 C4 138 -4.049
42 C4 139 -2.584
42 C4 140 -1.607
42 C4 141 -0.631
42 C4 142 0.346
42 C4 143 0.834
42 C4 144 0.346
42 C4 145 -0.142
42 C4 146 -0.631
42 C4 147 -0.142
42 C4 148 0.346
42 C4 149 1.322
42 C4 150 1.322
42 C4 151 1.322
42 C4 152 0.346
42 C4 153 0.346
42 C4 154 -0.142
42 C4 155 -1.119
42 C4 156 -1.607
42 C4 157 -1.119
42 C4 158 0.346
42 C4 159 0.346
42 C4 160 -0.142
42 C4 161 -0.631
42 C4 162 -1.607
42 C4 163 -0.631
42 C4 164 -0.631
42 C4 165 1.322
42 C4 166 2.299
42 C4 167 2.299
42 C4 168 1.811
42 C4 169 1.811
42 C4 170 1.811
42 C4 171 1.322
42 C4 172 1.811
42 C4 173 2.787
42 C4 174 2.787
42 C4 175 1.322
42 C4 176 0.346
42 C4 177 0.346
42 C4 178 0.834
42 C4 179 0.346
42 C4 180 -0.142
42 C4 181 -0.142
42 C4 182 -0.142
42 C4 183 -0.142
42 C4 184 -0.142
42 C4 185 -0.142
42 C4 186 -0.142
42 C4 187 -0.142
42 C4 188 -0.631
42 C4 189 -1.119
42 C4 190 -1.119
42 C4 191 -1.607
42 C4 192 -2.096
42 C4 193 -2.096
42 C4 194 -1.607
42 C4 195 -0.631
42 C4 196 -1.607
42 C4 197 -2.584
42 C4 198 -2.584
42 C4 199 -0.142
42 C4 200 1.811
42 C4 201 1.322
42 C4 202 -0.142
42 C4 203 -0.142
42 C4 204 1.811
42 C4 205 2.299
42 C4 206 1.811
42 C4 207 1.322
42 C4 208 1.322
42 C4 209 1.322
42 C4 210 0.346
42 C4 211 -0.142
42 C4 212 0.834
42 C4 213 0.346
42 C4 214 -1.119
42 C4 215 -1.119
42 C4 216 0.834
42 C4 217 1.811
42 C4 218 0.346
42 C4 219 -0.631
42 C4 220 -0.142
42 C4 221 -0.142
42 C4 222 -3.072
42 C4 223 -5.514
42 C4 224 -6.002
42 C4 225 -5.025
42 C4 226 -3.560
42 C4 227 -2.584
42 C4 228 -0.631
42 C4 229 -0.142
42 C4 230 -1.119
42 C4 231 -2.096
42 C4 232 -2.096
42 C4 233 -2.584
42 C4 234 -4.537
42 C4 235 -5.514
42 C4 236 -5.025
42 C4 237 -4.049
42 C4 238 -4.537
42 C4 239 -6.490
42 C4 240 -7.467
42 C4 241 -7.467
42 C4 242 -6.490
42 C4 243 -6.002
42 C4 244 -6.002
42 C4 245 -5.514
42 C4 246 -4.537
42 C4 247 -4.537
42 C4 248 -4.537
42 C4 249 -3.072
42 C4 250 -0.631
42 C4 251 0.346
42 C4 252 -0.631
42 C4 253 -2.096
42 C4 254 -2.584
42 C4 255 -2.096
# CP5 chan 18
42 CP5 0 -0.112
42 CP5 1 -1.577
42 CP5 2 -2.065
42 CP5 3 -1.577
42 CP5 4 -1.088
42 CP5 5 -1.577
42 CP5 6 -2.553
42 CP5 7 -3.042
42 CP5 8 -3.530
42 CP5 9 -3.530
42 CP5 10 -2.065
42 CP5 11 0.865
42 CP5 12 3.794
42 CP5 13 4.283
42 CP5 14 3.306
42 CP5 15 0.865
42 CP5 16 -1.088
42 CP5 17 -2.553
42 CP5 18 -2.065
42 CP5 19 -0.600
42 CP5 20 2.330
42 CP5 21 5.747
42 CP5 22 8.189
42 CP5 23 6.724
42 CP5 24 3.794
42 CP5 25 2.818
42 CP5 26 5.259
42 CP5 27 8.677
42 CP5 28 11.119
42 CP5 29 12.583
42 CP5 30 14.048
42 CP5 31 14.537
42 CP5 32 13.560
42 CP5 33 12.095
42 CP5 34 9.165
42 CP5 35 5.747
42 CP5 36 1.841
42 CP5 37 -0.600
42 CP5 38 -1.577
42 CP5 39 -3.042
42 CP5 40 -4.018
42 CP5 41 -4.018
42 CP5 42 -1.577
42 CP5 43 0.376
42 CP5 44 -0.600
42 CP5 45 -2.553
42 CP5 46 -2.553
42 CP5 47 -0.600
42 CP5 48 0.376
42 CP5 49 0.376
42 CP5 50 1.841
42 CP5 51 3.794
42 CP5 52 4.283
42 CP5 53 3.306
42 CP5 54 3.794
42 CP5 55 4.771
42 CP5 56 4.771
42 CP5 57 4.283
42 CP5 58 4.283
42 CP5 59 5.259
42 CP5 60 5.747
42 CP5 61 4.771
42 CP5 62 3.794
42 CP5 63 4.771
42 CP5 64 7.212
42 CP5 65 8.677
42 CP5 66 8.677
42 CP5 67 7.212
42 CP5 68 4.771
42 CP5 69 3.794
42 CP5 70 4.283
42 CP5 71 5.747
42 CP5 72 7.212
42 CP5 73 9.654
42 CP5 74 11.119
42 CP5 75 9.165
42 CP5 76 6.236
42 CP5 77 5.259
42 CP5 78 7.701
42 CP5 79 10.630
42 CP5 80 10.630
42 CP5 81 9.654
42 CP5 82 10.142
42 CP5 83 10.630
42 CP5 84 9.165
42 CP5 85 6.236
42 CP5 86 5.259
42 CP5 87 7.701
42 CP5 88 11.119
42 CP5 89 12.583
42 CP5 90 11.607
42 CP5 91 10.630
42 CP5 92 9.654
42 CP5 93 9.654
42 CP5 94 9.654
42 CP5 95 10.142
42 CP5 96 10.630
42 CP5 97 11.607
42 CP5 98 12.583
42 CP5 99 12.583
42 CP5 100 12.095
42 CP5 101 12.095
42 CP5 102 14.048
42 CP5 103 14.537
42 CP5 104 12.095
42 CP5 105 9.654
42 CP5 106 10.142
42 CP5 107 10.630
42 CP5 108 7.701
42 CP5 109 3.306
42 CP5 110 2.330
42 CP5 111 3.794
42 CP5 112 4.283
42 CP5 113 1.841
42 CP5 114 1.353
42 CP5 115 3.306
42 CP5 116 3.794
42 CP5 117 1.353
42 CP5 118 -1.577
42 CP5 119 -2.065
42 CP5 120 -0.600
42 CP5 121 1.841
42 CP5 122 3.306
42 CP5 123 3.794
42 CP5 124 2.818
42 CP5 125 0.376
42 CP5 126 -0.600
42 CP5 127 -0.112
42 CP5 128 1.841
42 CP5 129 3.794
42 CP5 130 6.236
42 CP5 131 7.212
42 CP5 132 5.747
42 CP5 133 3.794
42 CP5 134 3.306
42 CP5 135 3.794
42 CP5 136 4.771
42 CP5 137 5.259
42 CP5 138 3.794
42 CP5 139 1.841
42 CP5 140 0.865
42 CP5 141 2.818
42 CP5 142 5.259
42 CP5 143 5.747
42 CP5 144 4.771
42 CP5 145 4.283
42 CP5 146 4.283
42 CP5 147 5.259
42 CP5 148 5.747
42 CP5 149 6.236
42 CP5 150 6.236
42 CP5 151 5.747
42 CP5 152 5.259
42 CP5 153 4.771
42 CP5 154 2.818
42 CP5 155 0.376
42 CP5 156 -1.088
42 CP5 157 0.865
42 CP5 158 3.794
42 CP5 159 3.306
42 CP5 160 0.865
42 CP5 161 -1.088
42 CP5 162 -0.112
42 CP5 163 2.818
42 CP5 164 4.771
42 CP5 165 5.747
42 CP5 166 5.259
42 CP5 167 4.771
42 CP5 168 5.259
42 CP5 169 6.236
42 CP5 170 5.259
42 CP5 171 2.818
42 CP5 172 0.376
42 CP5 173 0.376
42 CP5 174 0.865
42 CP5 175 1.353
42 CP5 176 0.865
42 CP5 177 0.865
42 CP5 178 -0.112
42 CP5 179 -0.600
42 CP5 180 0.865
42 CP5 181 3.306
42 CP5 182 5.259
42 CP5 183 5.259
42 CP5 184 4.283
42 CP5 185 3.306
42 CP5 186 2.818
42 CP5 187 3.306
42 CP5 188 3.794
42 CP5 189 4.283
42 CP5 190 3.794
42 CP5 191 2.330
42 CP5 192 0.865
42 CP5 193 -0.600
42 CP5 194 -1.577
42 CP5 195 -2.065
42 CP5 196 -2.553
42 CP5 197 -3.042
42 CP5 198 -3.530
42 CP5 199 -4.018
42 CP5 200 -4.018
42 CP5 201 -3.042
42 CP5 202 -1.577
42 CP5 203 -0.112
42 CP5 204 0.376
42 CP5 205 -0.112
42 CP5 206 -1.088
42 CP5 207 -0.600
42 CP5 208 1.353
42 CP5 209 4.283
42 CP5 210 5.259
42 CP5 211 4.283
42 CP5 212 3.306
42 CP5 213 1.353
42 CP5 214 -1.577
42 CP5 215 -2.553
42 CP5 216 -1.577
42 CP5 217 -0.112
42 CP5 218 0.376
42 CP5 219 0.376
42 CP5 220 1.353
42 CP5 221 2.330
42 CP5 222 2.818
42 CP5 223 1.353
42 CP5 224 -0.112
42 CP5 225 -0.112
42 CP5 226 1.353
42 CP5 227 2.818
42 CP5 228 1.841
42 CP5 229 -0.112
42 CP5 230 -0.112
42 CP5 231 1.353
42 CP5 232 1.841
42 CP5 233 -0.600
42 CP5 234 -1.088
42 CP5 235 1.353
42 CP5 236 3.794
42 CP5 237 2.330
42 CP5 238 -1.088
42 CP5 239 -3.042
42 CP5 240 -2.065
42 CP5 241 -0.600
42 CP5 242 0.376
42 CP5 243 0.865
42 CP5 244 -0.112
42 CP5 245 -1.088
42 CP5 246 -1.088
42 CP5 247 0.376
42 CP5 248 0.865
42 CP5 249 -0.112
42 CP5 250 -0.600
42 CP5 251 -0.112
42 CP5 252 1.841
42 CP5 253 2.818
42 CP5 254 3.306
42 CP5 255 3.306
# CP6 chan 19
42 CP6 0 -1.678
42 CP6 1 -2.167
42 CP6 2 -2.167
42 CP6 3 -2.655
42 CP6 4 -3.143
42 CP6 5 -2.655
42 CP6 6 -1.678
42 CP6 7 -1.190
42 CP6 8 -1.190
42 CP6 9 -0.214
42 CP6 10 1.740
42 CP6 11 2.716
42 CP6 12 1.740
42 CP6 13 0.275
42 CP6 14 -0.214
42 CP6 15 -1.190
42 CP6 16 -2.167
42 CP6 17 -2.167
42 CP6 18 0.275
42 CP6 19 2.716
42 CP6 20 4.669
42 CP6 21 7.111
42 CP6 22 10.040
42 CP6 23 10.040
42 CP6 24 5.646
42 CP6 25 2.716
42 CP6 26 3.693
42 CP6 27 6.134
42 CP6 28 6.622
42 CP6 29 5.646
42 CP6 30 5.157
42 CP6 31 5.157
42 CP6 32 3.693
42 CP6 33 1.740
42 CP6 34 0.275
42 CP6 35 -0.702
42 CP6 36 0.275
42 CP6 37 2.716
42 CP6 38 3.693
42 CP6 39 2.716
42 CP6 40 0.275
42 CP6 41 -0.214
42 CP6 42 1.740
42 CP6 43 3.204
42 CP6 44 2.228
42 CP6 45 0.275
42 CP6 46 0.275
42 CP6 47 0.275
42 CP6 48 -2.167
42 CP6 49 -5.096
42 CP6 50 -6.073
42 CP6 51 -6.073
42 CP6 52 -5.585
42 CP6 53 -5.585
42 CP6 54 -3.632
42 CP6 55 -2.655
42 CP6 56 -4.120
42 CP6 57 -5.096
42 CP6 58 -2.167
42 CP6 59 0.763
42 CP6 60 0.763
42 CP6 61 -1.678
42 CP6 62 -2.167
42 CP6 63 -0.702
42 CP6 64 1.251
42 CP6 65 2.228
42 CP6 66 2.716
42 CP6 67 2.716
42 CP6 68 1.251
42 CP6 69 -0.214
42 CP6 70 -0.214
42 CP6 71 -0.702
42 CP6 72 -1.190
42 CP6 73 -0.702
42 CP6 74 0.275
42 CP6 75 -0.702
42 CP6 76 -2.167
42 CP6 77 -1.190
42 CP6 78 2.228
42 CP6 79 3.693
42 CP6 80 4.181
42 CP6 81 3.693
42 CP6 82 3.693
42 CP6 83 3.693
42 CP6 84 4.181
42 CP6 85 4.669
42 CP6 86 5.157
42 CP6 87 5.157
42 CP6 88 5.646
42 CP6 89 7.111
42 CP6 90 7.111
42 CP6 91 4.669
42 CP6 92 3.204
42 CP6 93 3.693
42 CP6 94 5.157
42 CP6 95 3.693
42 CP6 96 -0.702
42 CP6 97 -1.678
42 CP6 98 1.740
42 CP6 99 5.157
42 CP6 100 5.646
42 CP6 101 5.157
42 CP6 102 7.111
42 CP6 103 7.599
42 CP6 104 5.646
42 CP6 105 4.669
42 CP6 106 5.646
42 CP6 107 6.622
42 CP6 108 4.669
42 CP6 109 2.716
42 CP6 110 4.669
42 CP6 111 6.622
42 CP6 112 4.669
42 CP6 113 0.275
42 CP6 114 -3.632
42 CP6 115 -3.632
42 CP6 116 -2.655
42 CP6 117 -3.632
42 CP6 118 -6.073
42 CP6 119 -6.561
42 CP6 120 -6.073
42 CP6 121 -5.585
42 CP6 122 -4.608
42 CP6 123 -4.120
42 CP6 124 -4.120
42 CP6 125 -5.585
42 CP6 126 -6.073
42 CP6 127 -4.608
42 CP6 128 -2.167
42 CP6 129 1.251
42 CP6 130 3.204
42 CP6 131 3.204
42 CP6 132 1.251
42 CP6 133 -0.702
42 CP6 134 -2.167
42 CP6 135 -3.632
42 CP6 136 -3.632
42 CP6 137 -2.655
42 CP6 138 -1.678
42 CP6 139 -1.190
42 CP6 140 -1.190
42 CP6 141 0.275
42 CP6 142 1.740
42 CP6 143 1.251
42 CP6 144 0.763
42 CP6 145 1.251
42 CP6 146 2.228
42 CP6 147 2.228
42 CP6 148 2.228
42 CP6 149 3.693
42 CP6 150 5.157
42 CP6 151 3.693
42 CP6 152 1.740
42 CP6 153 0.275
42 CP6 154 0.275
42 CP6 155 -0.702
42 CP6 156 -2.167
42 CP6 157 -1.190
42 CP6 158 1.251
42 CP6 159 1.251
42 CP6 160 -2.167
42 CP6 161 -4.120
42 CP6 162 -2.167
42 CP6 163 -0.214
42 CP6 164 0.763
42 CP6 165 1.251
42 CP6 166 2.716
42 CP6 167 4.669
42 CP6 168 4.669
42 CP6 169 3.204
42 CP6 170 2.716
42 CP6 171 2.228
42 CP6 172 1.740
42 CP6 173 1.740
42 CP6 174 2.228
42 CP6 175 2.716
42 CP6 176 2.716
42 CP6 177 1.740
42 CP6 178 0.275
42 CP6 179 -0.702
42 CP6 180 -1.190
42 CP6 181 -1.190
42 CP6 182 -0.214
42 CP6 183 0.275
42 CP6 184 1.251
42 CP6 185 1.251
42 CP6 186 1.251
42 CP6 187 0.763
42 CP6 188 0.763
42 CP6 189 -0.214
42 CP6 190 -1.678
42 CP6 191 -2.655
42 CP6 192 -1.678
42 CP6 193 -1.190
42 CP6 194 -2.167
42 CP6 195 -4.120
42 CP6 196 -6.073
42 CP6 197 -7.538
42 CP6 198 -8.026
42 CP6 199 -5.585
42 CP6 200 -3.143
42 CP6 201 -2.655
42 CP6 202 -3.632
42 CP6 203 -4.120
42 CP6 204 -1.678
42 CP6 205 1.251
42 CP6 206 2.228
42 CP6 207 1.740
42 CP6 208 1.251
42 CP6 209 0.763
42 CP6 210 0.275
42 CP6 211 0.763
42 CP6 212 1.251
42 CP6 213 0.275
42 CP6 214 -1.678
42 CP6 215 -4.120
42 CP6 216 -3.632
42 CP6 217 -1.678
42 CP6 218 -1.190
42 CP6 219 -1.190
42 CP6 220 -1.190
42 CP6 221 -1.678
42 CP6 222 -4.120
42 CP6 223 -7.538
42 CP6 224 -9.491
42 CP6 225 -8.514
42 CP6 226 -5.096
42 CP6 227 -2.167
42 CP6 228 -0.702
42 CP6 229 -1.678
42 CP6 230 -3.143
42 CP6 231 -3.143
42 CP6 232 -3.632
42 CP6 233 -5.096
42 CP6 234 -5.585
42 CP6 235 -5.096
42 CP6 236 -5.096
42 CP6 237 -6.561
42 CP6 238 -8.514
42 CP6 239 -9.979
42 CP6 240 -11.444
42 CP6 241 -12.421
42 CP6 242 -12.421
42 CP6 243 -11.444
42 CP6 244 -10.468
42 CP6 245 -10.956
42 CP6 246 -10.468
42 CP6 247 -8.514
42 CP6 248 -6.561
42 CP6 249 -6.073
42 CP6 250 -4.608
42 CP6 251 -2.167
42 CP6 252 -0.702
42 CP6 253 -2.655
42 CP6 254 -5.096
42 CP6 255 -4.608
# CP1 chan 20
42 CP1 0 -0.580
42 CP1 1 -1.556
42 CP1 2 -2.045
42 CP1 3 -2.045
42 CP1 4 -2.045
42 CP1 5 -2.045
42 CP1 6 -2.045
42 CP1 7 -2.533
42 CP1 8 -3.021
42 CP1 9 -3.510
42 CP1 10 -4.486
42 CP1 11 -4.486
42 CP1 12 -3.998
42 CP1 13 -2.045
42 CP1 14 0.397
42 CP1 15 2.838
42 CP1 16 3.815
42 CP1 17 3.326
42 CP1 18 1.373
42 CP1 19 -0.580
42 CP1 20 -1.556
42 CP1 21 -1.068
42 CP1 22 0.397
42 CP1 23 2.838
42 CP1 24 4.303
42 CP1 25 4.791
42 CP1 26 4.791
42 CP1 27 3.815
42 CP1 28 2.838
42 CP1 29 2.838
42 CP1 30 3.326
42 CP1 31 3.815
42 CP1 32 3.815
42 CP1 33 3.815
42 CP1 34 3.326
42 CP1 35 1.862
42 CP1 36 0.397
42 CP1 37 -1.556
42 CP1 38 -3.998
42 CP1 39 -6.439
42 CP1 40 -8.392
42 CP1 41 -9.369
42 CP1 42 -8.392
42 CP1 43 -6.927
42 CP1 44 -5.463
42 CP1 45 -3.998
42 CP1 46 -3.510
42 CP1 47 -3.021
42 CP1 48 -2.533
42 CP1 49 -2.533
42 CP1 50 -2.045
42 CP1 51 -1.068
42 CP1 52 0.397
42 CP1 53 1.373
42 CP1 54 2.350
42 CP1 55 2.838
42 CP1 56 2.350
42 CP1 57 1.862
42 CP1 58 1.373
42 CP1 59 1.373
42 CP1 60 1.862
42 CP1 61 1.862
42 CP1 62 1.862
42 CP1 63 1.862
42 CP1 64 1.862
42 CP1 65 2.350
42 CP1 66 3.326
42 CP1 67 4.303
42 CP1 68 4.791
42 CP1 69 4.791
42 CP1 70 4.303
42 CP1 71 2.838
42 CP1 72 1.862
42 CP1 73 0.885
42 CP1 74 1.373
42 CP1 75 2.838
42 CP1 76 4.303
42 CP1 77 4.791
42 CP1 78 3.815
42 CP1 79 2.838
42 CP1 80 1.862
42 CP1 81 1.862
42 CP1 82 2.838
42 CP1 83 3.326
42 CP1 84 2.838
42 CP1 85 2.350
42 CP1 86 0.885
42 CP1 87 0.885
42 CP1 88 0.885
42 CP1 89 1.862
42 CP1 90 2.838
42 CP1 91 3.815
42 CP1 92 3.815
42 CP1 93 3.326
42 CP1 94 2.838
42 CP1 95 2.838
42 CP1 96 3.326
42 CP1 97 4.303
42 CP1 98 5.280
42 CP1 99 5.280
42 CP1 100 5.280
42 CP1 101 4.303
42 CP1 102 3.815
42 CP1 103 3.815
42 CP1 104 3.815
42 CP1 105 3.815
42 CP1 106 3.326
42 CP1 107 3.326
42 CP1 108 2.838
42 CP1 109 2.350
42 CP1 110 1.862
42 CP1 111 1.373
42 CP1 112 1.373
42 CP1 113 0.397
42 CP1 114 -0.092
42 CP1 115 -0.092
42 CP1 116 -0.580
42 CP1 117 -0.092
42 CP1 118 -0.092
42 CP1 119 -0.580
42 CP1 120 -1.068
42 CP1 121 -1.556
42 CP1 122 -1.556
42 CP1 123 -1.068
42 CP1 124 -0.580
42 CP1 125 -0.092
42 CP1 126 -0.092
42 CP1 127 -1.068
42 CP1 128 -2.045
42 CP1 129 -2.045
42 CP1 130 -1.556
42 CP1 131 -0.092
42 CP1 132 1.862
42 CP1 133 2.350
42 CP1 134 1.862
42 CP1 135 0.885
42 CP1 136 0.885
42 CP1 137 0.885
42 CP1 138 1.373
42 CP1 139 2.350
42 CP1 140 2.350
42 CP1 141 1.862
42 CP1 142 0.885
42 CP1 143 0.397
42 CP1 144 0.885
42 CP1 145 1.862
42 CP1 146 2.838
42 CP1 147 3.326
42 CP1 148 3.326
42 CP1 149 2.838
42 CP1 150 2.838
42 CP1 151 2.838
42 CP1 152 3.326
42 CP1 153 3.326
42 CP1 154 2.350
42 CP1 155 1.862
42 CP1 156 0.885
42 CP1 157 0.397
42 CP1 158 0.885
42 CP1 159 0.885
42 CP1 160 0.885
42 CP1 161 0.397
42 CP1 162 -0.580
42 CP1 163 -1.068
42 CP1 164 -1.068
42 CP1 165 -1.068
42 CP1 166 -0.092
42 CP1 167 1.373
42 CP1 168 1.862
42 CP1 169 1.862
42 CP1 170 0.885
42 CP1 171 -0.092
42 CP1 172 -0.580
42 CP1 173 -1.068
42 CP1 174 -1.068
42 CP1 175 -1.068
42 CP1 176 -1.068
42 CP1 177 -0.580
42 CP1 178 0.397
42 CP1 179 0.885
42 CP1 180 0.397
42 CP1 181 -0.092
42 CP1 182 -1.068
42 CP1 183 -1.068
42 CP1 184 -0.092
42 CP1 185 0.885
42 CP1 186 0.885
42 CP1 187 0.885
42 CP1 188 0.397
42 CP1 189 0.885
42 CP1 190 0.885
42 CP1 191 1.862
42 CP1 192 1.862
42 CP1 193 1.862
42 CP1 194 0.885
42 CP1 195 -0.092
42 CP1 196 -1.068
42 CP1 197 -1.068
42 CP1 198 -1.556
42 CP1 199 -1.556
42 CP1 200 -2.045
42 CP1 201 -2.533
42 CP1 202 -3.021
42 CP1 203 -3.510
42 CP1 204 -3.021
42 CP1 205 -2.533
42 CP1 206 -2.045
42 CP1 207 -1.068
42 CP1 208 -0.580
42 CP1 209 -0.092
42 CP1 210 0.885
42 CP1 211 1.373
42 CP1 212 2.350
42 CP1 213 1.862
42 CP1 214 0.397
42 CP1 215 -1.068
42 CP1 216 -3.021
42 CP1 217 -3.510
42 CP1 218 -3.510
42 CP1 219 -2.533
42 CP1 220 -1.068
42 CP1 221 -0.092
42 CP1 222 0.397
42 CP1 223 0.885
42 CP1 224 0.397
42 CP1 225 0.397
42 CP1 226 -0.092
42 CP1 227 -0.580
42 CP1 228 -1.068
42 CP1 229 -1.068
42 CP1 230 -1.068
42 CP1 231 -0.580
42 CP1 232 -0.580
42 CP1 233 -0.580
42 CP1 234 -0.092
42 CP1 235 -0.092
42 CP1 236 -0.092
42 CP1 237 -0.092
42 CP1 238 -0.580
42 CP1 239 -1.068
42 CP1 240 -2.045
42 CP1 241 -3.021
42 CP1 242 -3.021
42 CP1 243 -2.045
42 CP1 244 -0.580
42 CP1 245 0.397
42 CP1 246 1.373
42 CP1 247 0.885
42 CP1 248 -0.092
42 CP1 249 -0.092
42 CP1 250 -0.092
42 CP1 251 0.397
42 CP1 252 0.397
42 CP1 253 -0.092
42 CP1 254 -0.580
42 CP1 255 -0.580
# CP2 chan 21
42 CP2 0 -2.370
42 CP2 1 -1.882
42 CP2 2 -1.882
42 CP2 3 -2.370
42 CP2 4 -2.370
42 CP2 5 -2.370
42 CP2 6 -2.370
42 CP2 7 -2.858
42 CP2 8 -2.858
42 CP2 9 -3.347
42 CP2 10 -3.835
42 CP2 11 -3.835
42 CP2 12 -2.858
42 CP2 13 -1.394
42 CP2 14 0.071
42 CP2 15 1.536
42 CP2 16 2.024
42 CP2 17 2.024
42 CP2 18 1.048
42 CP2 19 1.048
42 CP2 20 1.536
42 CP2 21 2.024
42 CP2 22 3.489
42 CP2 23 4.954
42 CP2 24 5.442
42 CP2 25 5.442
42 CP2 26 4.954
42 CP2 27 3.977
42 CP2 28 3.001
42 CP2 29 3.001
42 CP2 30 2.513
42 CP2 31 2.513
42 CP2 32 2.024
42 CP2 33 1.048
42 CP2 34 0.071
42 CP2 35 -1.394
42 CP2 36 -2.370
42 CP2 37 -2.858
42 CP2 38 -3.347
42 CP2 39 -3.347
42 CP2 40 -2.858
42 CP2 41 -2.858
42 CP2 42 -2.858
42 CP2 43 -2.858
42 CP2 44 -2.858
42 CP2 45 -2.370
42 CP2 46 -1.882
42 CP2 47 -0.905
42 CP2 48 -0.417
42 CP2 49 0.071
42 CP2 50 -0.417
42 CP2 51 -0.905
42 CP2 52 -0.905
42 CP2 53 -0.417
42 CP2 54 0.071
42 CP2 55 0.559
42 CP2 56 0.559
42 CP2 57 0.071
42 CP2 58 -0.417
42 CP2 59 -0.905
42 CP2 60 -0.417
42 CP2 61 0.071
42 CP2 62 0.559
42 CP2 63 1.048
42 CP2 64 1.048
42 CP2 65 1.536
42 CP2 66 1.536
42 CP2 67 2.513
42 CP2 68 3.001
42 CP2 69 3.489
42 CP2 70 3.489
42 CP2 71 2.024
42 CP2 72 1.048
42 CP2 73 0.071
42 CP2 74 0.071
42 CP2 75 0.559
42 CP2 76 2.024
42 CP2 77 2.513
42 CP2 78 2.024
42 CP2 79 1.536
42 CP2 80 1.536
42 CP2 81 1.536
42 CP2 82 2.513
42 CP2 83 3.001
42 CP2 84 2.513
42 CP2 85 2.024
42 CP2 86 2.024
42 CP2 87 2.024
42 CP2 88 3.001
42 CP2 89 3.489
42 CP2 90 3.489
42 CP2 91 3.001
42 CP2 92 2.024
42 CP2 93 1.048
42 CP2 94 0.559
42 CP2 95 0.559
42 CP2 96 1.048
42 CP2 97 1.048
42 CP2 98 1.048
42 CP2 99 0.071
42 CP2 100 0.071
42 CP2 101 1.048
42 CP2 102 1.536
42 CP2 103 2.024
42 CP2 104 2.024
42 CP2 105 1.048
42 CP2 106 0.071
42 CP2 107 -0.417
42 CP2 108 -0.417
42 CP2 109 0.559
42 CP2 110 2.024
42 CP2 111 3.001
42 CP2 112 3.489
42 CP2 113 2.513
42 CP2 114 1.048
42 CP2 115 -0.417
42 CP2 116 -2.370
42 CP2 117 -2.858
42 CP2 118 -3.347
42 CP2 119 -2.858
42 CP2 120 -2.858
42 CP2 121 -3.347
42 CP2 122 -4.812
42 CP2 123 -5.300
42 CP2 124 -5.788
42 CP2 125 -5.300
42 CP2 126 -4.812
42 CP2 127 -3.835
42 CP2 128 -3.347
42 CP2 129 -2.858
42 CP2 130 -2.370
42 CP2 131 -0.905
42 CP2 132 -0.417
42 CP2 133 -0.417
42 CP2 134 -1.394
42 CP2 135 -2.370
42 CP2 136 -2.858
42 CP2 137 -1.882
42 CP2 138 -0.905
42 CP2 139 0.071
42 CP2 140 0.071
42 CP2 141 -0.417
42 CP2 142 -0.905
42 CP2 143 -0.905
42 CP2 144 -0.417
42 CP2 145 0.559
42 CP2 146 1.048
42 CP2 147 1.536
42 CP2 148 0.559
42 CP2 149 -0.417
42 CP2 150 -0.417
42 CP2 151 0.071
42 CP2 152 0.071
42 CP2 153 0.071
42 CP2 154 -0.905
42 CP2 155 -1.394
42 CP2 156 -1.882
42 CP2 157 -1.882
42 CP2 158 -1.394
42 CP2 159 -1.394
42 CP2 160 -1.394
42 CP2 161 -1.882
42 CP2 162 -2.370
42 CP2 163 -2.858
42 CP2 164 -2.858
42 CP2 165 -2.370
42 CP2 166 -1.882
42 CP2 167 -0.905
42 CP2 168 -0.417
42 CP2 169 0.071
42 CP2 170 -0.417
42 CP2 171 -0.905
42 CP2 172 -0.905
42 CP2 173 -0.905
42 CP2 174 -0.905
42 CP2 175 -0.905
42 CP2 176 -0.417
42 CP2 177 0.071
42 CP2 178 0.559
42 CP2 179 0.559
42 CP2 180 0.071
42 CP2 181 -0.905
42 CP2 182 -1.394
42 CP2 183 -1.394
42 CP2 184 -0.905
42 CP2 185 -0.417
42 CP2 186 -0.417
42 CP2 187 -0.417
42 CP2 188 -0.417
42 CP2 189 -0.417
42 CP2 190 0.071
42 CP2 191 0.071
42 CP2 192 0.071
42 CP2 193 -0.417
42 CP2 194 -0.417
42 CP2 195 -0.417
42 CP2 196 -0.417
42 CP2 197 0.071
42 CP2 198 -0.417
42 CP2 199 -0.905
42 CP2 200 -1.882
42 CP2 201 -2.858
42 CP2 202 -2.370
42 CP2 203 -2.858
42 CP2 204 -2.370
42 CP2 205 -2.858
42 CP2 206 -2.858
42 CP2 207 -2.370
42 CP2 208 -1.394
42 CP2 209 0.071
42 CP2 210 0.071
42 CP2 211 -0.417
42 CP2 212 -1.394
42 CP2 213 -2.370
42 CP2 214 -2.858
42 CP2 215 -2.858
42 CP2 216 -3.347
42 CP2 217 -3.347
42 CP2 218 -3.347
42 CP2 219 -2.370
42 CP2 220 -1.882
42 CP2 221 -0.417
42 CP2 222 -0.417
42 CP2 223 -1.394
42 CP2 224 -2.858
42 CP2 225 -4.812
42 CP2 226 -5.300
42 CP2 227 -4.812
42 CP2 228 -3.347
42 CP2 229 -1.882
42 CP2 230 -0.905
42 CP2 231 -0.417
42 CP2 232 -0.417
42 CP2 233 -1.394
42 CP2 234 -2.370
42 CP2 235 -3.347
42 CP2 236 -4.323
42 CP2 237 -4.323
42 CP2 238 -4.323
42 CP2 239 -3.835
42 CP2 240 -4.323
42 CP2 241 -4.812
42 CP2 242 -5.300
42 CP2 243 -5.788
42 CP2 244 -5.300
42 CP2 245 -4.323
42 CP2 246 -2.858
42 CP2 247 -2.370
42 CP2 248 -2.370
42 CP2 249 -2.858
42 CP2 250 -2.370
42 CP2 251 -1.394
42 CP2 252 -0.417
42 CP2 253 -0.417
42 CP2 254 -0.417
42 CP2 255 -1.882
# P3 chan 22
42 P3 0 0.753
42 P3 1 0.264
42 P3 2 -0.224
42 P3 3 -0.224
42 P3 4 -0.224
42 P3 5 -0.224
42 P3 6 -0.712
42 P3 7 -1.689
42 P3 8 -3.642
42 P3 9 -5.107
42 P3 10 -6.083
42 P3 11 -5.595
42 P3 12 -4.130
42 P3 13 -1.200
42 P3 14 2.706
42 P3 15 5.636
42 P3 16 6.612
42 P3 17 5.147
42 P3 18 2.218
42 P3 19 -0.224
42 P3 20 0.264
42 P3 21 2.706
42 P3 22 7.100
42 P3 23 11.007
42 P3 24 13.448
42 P3 25 13.448
42 P3 26 11.983
42 P3 27 10.518
42 P3 28 10.518
42 P3 29 11.495
42 P3 30 13.936
42 P3 31 15.889
42 P3 32 16.378
42 P3 33 14.913
42 P3 34 11.495
42 P3 35 6.612
42 P3 36 1.729
42 P3 37 -2.665
42 P3 38 -6.571
42 P3 39 -9.989
42 P3 40 -11.943
42 P3 41 -12.919
42 P3 42 -12.431
42 P3 43 -11.454
42 P3 44 -9.501
42 P3 45 -8.525
42 P3 46 -8.525
42 P3 47 -8.036
42 P3 48 -7.548
42 P3 49 -7.060
42 P3 50 -5.595
42 P3 51 -3.153
42 P3 52 -0.712
42 P3 53 1.729
42 P3 54 3.682
42 P3 55 4.659
42 P3 56 4.659
42 P3 57 4.659
42 P3 58 4.659
42 P3 59 4.659
42 P3 60 5.147
42 P3 61 5.636
42 P3 62 6.124
42 P3 63 6.124
42 P3 64 6.124
42 P3 65 6.124
42 P3 66 7.100
42 P3 67 8.077
42 P3 68 8.565
42 P3 69 9.054
42 P3 70 8.077
42 P3 71 6.612
42 P3 72 4.659
42 P3 73 5.147
42 P3 74 6.612
42 P3 75 9.054
42 P3 76 10.518
42 P3 77 10.518
42 P3 78 8.565
42 P3 79 6.612
42 P3 80 5.636
42 P3 81 6.612
42 P3 82 9.054
42 P3 83 10.518
42 P3 84 10.518
42 P3 85 9.054
42 P3 86 7.100
42 P3 87 6.124
42 P3 88 6.124
42 P3 89 7.589
42 P3 90 9.054
42 P3 91 10.030
42 P3 92 10.030
42 P3 93 9.054
42 P3 94 8.077
42 P3 95 6.612
42 P3 96 6.124
42 P3 97 6.612
42 P3 98 7.589
42 P3 99 8.565
42 P3 100 9.542
42 P3 101 10.030
42 P3 102 10.518
42 P3 103 11.007
42 P3 104 11.007
42 P3 105 11.495
42 P3 106 11.007
42 P3 107 10.030
42 P3 108 9.054
42 P3 109 7.589
42 P3 110 5.636
42 P3 111 3.682
42 P3 112 1.729
42 P3 113 0.264
42 P3 114 -1.200
42 P3 115 -1.200
42 P3 116 -1.200
42 P3 117 -1.200
42 P3 118 -1.200
42 P3 119 -1.689
42 P3 120 -3.642
42 P3 121 -5.107
42 P3 122 -5.595
42 P3 123 -5.595
42 P3 124 -3.642
42 P3 125 -2.177
42 P3 126 -2.665
42 P3 127 -4.130
42 P3 128 -6.571
42 P3 129 -7.548
42 P3 130 -6.571
42 P3 131 -3.642
42 P3 132 -0.712
42 P3 133 0.264
42 P3 134 -0.712
42 P3 135 -3.153
42 P3 136 -4.618
42 P3 137 -4.618
42 P3 138 -3.153
42 P3 139 -1.689
42 P3 140 -1.200
42 P3 141 -1.200
42 P3 142 -1.689
42 P3 143 -1.689
42 P3 144 -0.712
42 P3 145 1.241
42 P3 146 2.218
42 P3 147 1.729
42 P3 148 0.753
42 P3 149 0.264
42 P3 150 0.753
42 P3 151 1.729
42 P3 152 2.218
42 P3 153 1.241
42 P3 154 -0.712
42 P3 155 -2.665
42 P3 156 -4.130
42 P3 157 -5.107
42 P3 158 -5.107
42 P3 159 -4.618
42 P3 160 -4.130
42 P3 161 -4.130
42 P3 162 -4.618
42 P3 163 -5.107
42 P3 164 -5.595
42 P3 165 -4.618
42 P3 166 -3.153
42 P3 167 -1.689
42 P3 168 -0.712
42 P3 169 -0.712
42 P3 170 -1.689
42 P3 171 -2.665
42 P3 172 -3.642
42 P3 173 -4.130
42 P3 174 -4.618
42 P3 175 -4.618
42 P3 176 -5.107
42 P3 177 -4.618
42 P3 178 -3.153
42 P3 179 -2.177
42 P3 180 -2.177
42 P3 181 -3.153
42 P3 182 -4.130
42 P3 183 -3.642
42 P3 184 -1.200
42 P3 185 1.729
42 P3 186 3.194
42 P3 187 2.706
42 P3 188 0.753
42 P3 189 -1.200
42 P3 190 -1.689
42 P3 191 -1.200
42 P3 192 -1.689
42 P3 193 -3.153
42 P3 194 -5.595
42 P3 195 -7.548
42 P3 196 -8.036
42 P3 197 -7.548
42 P3 198 -7.548
42 P3 199 -8.036
42 P3 200 -9.989
42 P3 201 -11.943
42 P3 202 -11.943
42 P3 203 -10.966
42 P3 204 -8.525
42 P3 205 -6.083
42 P3 206 -5.107
42 P3 207 -6.083
42 P3 208 -6.571
42 P3 209 -6.571
42 P3 210 -4.618
42 P3 211 -2.665
42 P3 212 -1.689
42 P3 213 -2.665
42 P3 214 -5.107
42 P3 215 -8.525
42 P3 216 -10.966
42 P3 217 -11.943
42 P3 218 -11.454
42 P3 219 -9.013
42 P3 220 -7.060
42 P3 221 -5.107
42 P3 222 -3.642
42 P3 223 -3.642
42 P3 224 -3.153
42 P3 225 -3.642
42 P3 226 -3.642
42 P3 227 -3.642
42 P3 228 -3.153
42 P3 229 -2.665
42 P3 230 -2.177
42 P3 231 -2.177
42 P3 232 -3.642
42 P3 233 -5.107
42 P3 234 -6.571
42 P3 235 -7.060
42 P3 236 -7.548
42 P3 237 -7.548
42 P3 238 -8.036
42 P3 239 -9.013
42 P3 240 -10.478
42 P3 241 -11.943
42 P3 242 -12.919
42 P3 243 -12.431
42 P3 244 -10.966
42 P3 245 -9.013
42 P3 246 -7.060
42 P3 247 -6.571
42 P3 248 -6.083
42 P3 249 -6.083
42 P3 250 -5.595
42 P3 251 -4.618
42 P3 252 -4.130
42 P3 253 -3.642
42 P3 254 -3.642
42 P3 255 -3.642
# P4 chan 23
42 P4 0 -2.492
42 P4 1 -1.516
42 P4 2 -1.516
42 P4 3 -1.516
42 P4 4 -1.516
42 P4 5 -1.027
42 P4 6 -0.051
42 P4 7 0.437
42 P4 8 -0.051
42 P4 9 -1.516
42 P4 10 -2.492
42 P4 11 -2.492
42 P4 12 -1.027
42 P4 13 0.926
42 P4 14 1.902
42 P4 15 1.902
42 P4 16 0.926
42 P4 17 -0.539
42 P4 18 -1.027
42 P4 19 -0.539
42 P4 20 1.902
42 P4 21 5.320
42 P4 22 9.226
42 P4 23 12.644
42 P4 24 14.109
42 P4 25 14.109
42 P4 26 12.156
42 P4 27 9.715
42 P4 28 8.250
42 P4 29 7.762
42 P4 30 8.738
42 P4 31 9.226
42 P4 32 9.715
42 P4 33 7.762
42 P4 34 4.832
42 P4 35 1.414
42 P4 36 -1.516
42 P4 37 -2.981
42 P4 38 -4.445
42 P4 39 -4.445
42 P4 40 -4.445
42 P4 41 -4.445
42 P4 42 -4.445
42 P4 43 -4.934
42 P4 44 -5.422
42 P4 45 -5.422
42 P4 46 -4.445
42 P4 47 -3.469
42 P4 48 -2.492
42 P4 49 -2.004
42 P4 50 -2.981
42 P4 51 -4.445
42 P4 52 -4.445
42 P4 53 -3.957
42 P4 54 -2.492
42 P4 55 -2.004
42 P4 56 -1.516
42 P4 57 -2.004
42 P4 58 -2.004
42 P4 59 -1.516
42 P4 60 -0.539
42 P4 61 1.414
42 P4 62 2.879
42 P4 63 3.367
42 P4 64 3.855
42 P4 65 3.367
42 P4 66 3.855
42 P4 67 4.832
42 P4 68 5.809
42 P4 69 6.297
42 P4 70 4.832
42 P4 71 2.879
42 P4 72 1.414
42 P4 73 0.437
42 P4 74 1.414
42 P4 75 2.391
42 P4 76 2.879
42 P4 77 2.391
42 P4 78 0.926
42 P4 79 1.902
42 P4 80 2.879
42 P4 81 4.344
42 P4 82 6.297
42 P4 83 6.785
42 P4 84 6.297
42 P4 85 5.809
42 P4 86 5.809
42 P4 87 6.297
42 P4 88 7.273
42 P4 89 7.762
42 P4 90 7.762
42 P4 91 7.273
42 P4 92 7.273
42 P4 93 7.273
42 P4 94 7.273
42 P4 95 7.273
42 P4 96 6.297
42 P4 97 5.320
42 P4 98 4.832
42 P4 99 4.832
42 P4 100 5.320
42 P4 101 6.785
42 P4 102 8.738
42 P4 103 9.715
42 P4 104 10.203
42 P4 105 9.715
42 P4 106 9.226
42 P4 107 8.250
42 P4 108 8.250
42 P4 109 9.226
42 P4 110 10.203
42 P4 111 9.715
42 P4 112 8.738
42 P4 113 6.785
42 P4 114 4.832
42 P4 115 2.879
42 P4 116 1.414
42 P4 117 -0.539
42 P4 118 -2.004
42 P4 119 -3.469
42 P4 120 -4.445
42 P4 121 -4.934
42 P4 122 -5.422
42 P4 123 -5.910
42 P4 124 -5.422
42 P4 125 -4.934
42 P4 126 -3.957
42 P4 127 -3.469
42 P4 128 -3.469
42 P4 129 -2.981
42 P4 130 -1.516
42 P4 131 0.437
42 P4 132 2.391
42 P4 133 2.391
42 P4 134 0.926
42 P4 135 -1.027
42 P4 136 -2.492
42 P4 137 -2.492
42 P4 138 -1.516
42 P4 139 -0.539
42 P4 140 -0.051
42 P4 141 -0.539
42 P4 142 -0.539
42 P4 143 -0.539
42 P4 144 0.926
42 P4 145 1.902
42 P4 146 2.879
42 P4 147 2.391
42 P4 148 1.414
42 P4 149 0.926
42 P4 150 1.414
42 P4 151 1.902
42 P4 152 2.391
42 P4 153 2.391
42 P4 154 1.414
42 P4 155 -0.051
42 P4 156 -1.516
42 P4 157 -2.004
42 P4 158 -2.492
42 P4 159 -2.492
42 P4 160 -2.004
42 P4 161 -2.492
42 P4 162 -3.469
42 P4 163 -3.957
42 P4 164 -3.957
42 P4 165 -2.492
42 P4 166 -1.516
42 P4 167 -0.051
42 P4 168 0.926
42 P4 169 0.926
42 P4 170 0.926
42 P4 171 0.926
42 P4 172 0.437
42 P4 173 -0.051
42 P4 174 -0.539
42 P4 175 -0.539
42 P4 176 -0.051
42 P4 177 0.926
42 P4 178 1.414
42 P4 179 1.414
42 P4 180 0.437
42 P4 181 -1.516
42 P4 182 -2.492
42 P4 183 -2.981
42 P4 184 -2.004
42 P4 185 -0.539
42 P4 186 0.926
42 P4 187 1.902
42 P4 188 1.902
42 P4 189 1.414
42 P4 190 0.926
42 P4 191 0.437
42 P4 192 -0.539
42 P4 193 -1.027
42 P4 194 -1.516
42 P4 195 -1.516
42 P4 196 -1.516
42 P4 197 -2.492
42 P4 198 -4.445
42 P4 199 -6.887
42 P4 200 -8.352
42 P4 201 -7.863
42 P4 202 -6.399
42 P4 203 -3.957
42 P4 204 -2.981
42 P4 205 -2.981
42 P4 206 -2.981
42 P4 207 -2.004
42 P4 208 -0.051
42 P4 209 2.391
42 P4 210 3.367
42 P4 211 2.391
42 P4 212 0.437
42 P4 213 -1.516
42 P4 214 -2.981
42 P4 215 -3.469
42 P4 216 -4.445
42 P4 217 -5.910
42 P4 218 -7.375
42 P4 219 -7.375
42 P4 220 -5.910
42 P4 221 -3.469
42 P4 222 -2.004
42 P4 223 -2.492
42 P4 224 -5.422
42 P4 225 -8.352
42 P4 226 -9.328
42 P4 227 -7.375
42 P4 228 -4.445
42 P4 229 -1.027
42 P4 230 0.437
42 P4 231 0.437
42 P4 232 -0.539
42 P4 233 -2.004
42 P4 234 -2.492
42 P4 235 -2.492
42 P4 236 -2.492
42 P4 237 -2.981
42 P4 238 -4.445
42 P4 239 -6.399
42 P4 240 -8.352
42 P4 241 -9.816
42 P4 242 -10.305
42 P4 243 -10.305
42 P4 244 -9.816
42 P4 245 -8.840
42 P4 246 -7.863
42 P4 247 -7.375
42 P4 248 -6.887
42 P4 249 -5.910
42 P4 250 -4.445
42 P4 251 -2.492
42 P4 252 -0.539
42 P4 253 0.437
42 P4 254 -0.051
42 P4 255 -1.516
# PZ chan 24
42 PZ 0 -3.265
42 PZ 1 -3.265
42 PZ 2 -2.777
42 PZ 3 -1.801
42 PZ 4 -1.312
42 PZ 5 -1.312
42 PZ 6 -2.777
42 PZ 7 -4.242
42 PZ 8 -6.195
42 PZ 9 -7.660
42 PZ 10 -7.660
42 PZ 11 -6.683
42 PZ 12 -4.242
42 PZ 13 -0.824
42 PZ 14 2.106
42 PZ 15 4.059
42 PZ 16 3.082
42 PZ 17 1.129
42 PZ 18 -0.824
42 PZ 19 -0.824
42 PZ 20 0.641
42 PZ 21 3.082
42 PZ 22 5.524
42 PZ 23 7.477
42 PZ 24 7.965
42 PZ 25 7.965
42 PZ 26 6.500
42 PZ 27 5.524
42 PZ 28 5.035
42 PZ 29 5.035
42 PZ 30 6.012
42 PZ 31 6.500
42 PZ 32 6.012
42 PZ 33 4.547
42 PZ 34 2.106
42 PZ 35 -1.312
42 PZ 36 -4.730
42 PZ 37 -7.660
42 PZ 38 -9.613
42 PZ 39 -11.078
42 PZ 40 -11.078
42 PZ 41 -11.078
42 PZ 42 -11.078
42 PZ 43 -10.590
42 PZ 44 -10.590
42 PZ 45 -9.125
42 PZ 46 -7.172
42 PZ 47 -5.219
42 PZ 48 -3.265
42 PZ 49 -1.801
42 PZ 50 0.153
42 PZ 51 1.617
42 PZ 52 3.571
42 PZ 53 4.547
42 PZ 54 5.524
42 PZ 55 5.524
42 PZ 56 5.035
42 PZ 57 4.059
42 PZ 58 3.082
42 PZ 59 2.594
42 PZ 60 2.594
42 PZ 61 3.082
42 PZ 62 3.082
42 PZ 63 3.571
42 PZ 64 3.082
42 PZ 65 3.571
42 PZ 66 4.059
42 PZ 67 5.035
42 PZ 68 6.012
42 PZ 69 6.012
42 PZ 70 5.035
42 PZ 71 3.082
42 PZ 72 1.617
42 PZ 73 1.129
42 PZ 74 2.106
42 PZ 75 4.059
42 PZ 76 5.035
42 PZ 77 4.547
42 PZ 78 3.571
42 PZ 79 3.082
42 PZ 80 3.571
42 PZ 81 4.547
42 PZ 82 5.524
42 PZ 83 5.524
42 PZ 84 4.547
42 PZ 85 4.059
42 PZ 86 4.059
42 PZ 87 4.547
42 PZ 88 5.524
42 PZ 89 6.012
42 PZ 90 6.012
42 PZ 91 5.524
42 PZ 92 5.035
42 PZ 93 4.547
42 PZ 94 4.059
42 PZ 95 3.571
42 PZ 96 3.571
42 PZ 97 4.059
42 PZ 98 4.059
42 PZ 99 4.059
42 PZ 100 4.059
42 PZ 101 4.547
42 PZ 102 5.035
42 PZ 103 5.035
42 PZ 104 4.547
42 PZ 105 4.059
42 PZ 106 3.571
42 PZ 107 3.082
42 PZ 108 3.571
42 PZ 109 4.547
42 PZ 110 6.012
42 PZ 111 6.012
42 PZ 112 5.035
42 PZ 113 3.082
42 PZ 114 1.129
42 PZ 115 0.153
42 PZ 116 -0.336
42 PZ 117 -0.336
42 PZ 118 -0.336
42 PZ 119 -1.312
42 PZ 120 -3.265
42 PZ 121 -5.219
42 PZ 122 -6.195
42 PZ 123 -6.195
42 PZ 124 -4.730
42 PZ 125 -3.754
42 PZ 126 -3.754
42 PZ 127 -4.730
42 PZ 128 -5.219
42 PZ 129 -4.242
42 PZ 130 -2.289
42 PZ 131 -0.336
42 PZ 132 0.641
42 PZ 133 0.153
42 PZ 134 -1.312
42 PZ 135 -2.777
42 PZ 136 -1.801
42 PZ 137 -0.336
42 PZ 138 1.129
42 PZ 139 2.106
42 PZ 140 1.617
42 PZ 141 1.129
42 PZ 142 0.153
42 PZ 143 0.641
42 PZ 144 1.617
42 PZ 145 2.106
42 PZ 146 2.106
42 PZ 147 1.617
42 PZ 148 0.641
42 PZ 149 0.153
42 PZ 150 0.641
42 PZ 151 1.129
42 PZ 152 1.129
42 PZ 153 0.641
42 PZ 154 -0.336
42 PZ 155 -1.801
42 PZ 156 -2.777
42 PZ 157 -2.777
42 PZ 158 -2.289
42 PZ 159 -1.801
42 PZ 160 -1.801
42 PZ 161 -2.289
42 PZ 162 -3.265
42 PZ 163 -4.242
42 PZ 164 -3.754
42 PZ 165 -2.777
42 PZ 166 -1.801
42 PZ 167 -0.824
42 PZ 168 -0.824
42 PZ 169 -1.312
42 PZ 170 -1.801
42 PZ 171 -2.289
42 PZ 172 -2.289
42 PZ 173 -3.754
42 PZ 174 -4.730
42 PZ 175 -4.730
42 PZ 176 -3.265
42 PZ 177 -0.824
42 PZ 178 0.641
42 PZ 179 0.641
42 PZ 180 -0.824
42 PZ 181 -2.777
42 PZ 182 -3.265
42 PZ 183 -2.289
42 PZ 184 -1.312
42 PZ 185 -0.336
42 PZ 186 0.153
42 PZ 187 0.153
42 PZ 188 0.153
42 PZ 189 1.129
42 PZ 190 1.617
42 PZ 191 2.106
42 PZ 192 1.617
42 PZ 193 0.641
42 PZ 194 0.153
42 PZ 195 0.153
42 PZ 196 0.641
42 PZ 197 0.153
42 PZ 198 -1.312
42 PZ 199 -3.754
42 PZ 200 -5.707
42 PZ 201 -7.172
42 PZ 202 -7.660
42 PZ 203 -7.660
42 PZ 204 -7.660
42 PZ 205 -7.660
42 PZ 206 -7.172
42 PZ 207 -5.707
42 PZ 208 -4.242
42 PZ 209 -2.777
42 PZ 210 -2.289
42 PZ 211 -1.801
42 PZ 212 -2.289
42 PZ 213 -3.265
42 PZ 214 -4.730
42 PZ 215 -6.683
42 PZ 216 -8.636
42 PZ 217 -9.613
42 PZ 218 -9.125
42 PZ 219 -7.172
42 PZ 220 -4.730
42 PZ 221 -3.754
42 PZ 222 -3.265
42 PZ 223 -4.242
42 PZ 224 -5.219
42 PZ 225 -6.195
42 PZ 226 -6.195
42 PZ 227 -5.707
42 PZ 228 -4.730
42 PZ 229 -3.265
42 PZ 230 -2.289
42 PZ 231 -1.801
42 PZ 232 -2.289
42 PZ 233 -2.777
42 PZ 234 -4.242
42 PZ 235 -4.730
42 PZ 236 -5.219
42 PZ 237 -5.219
42 PZ 238 -5.707
42 PZ 239 -6.683
42 PZ 240 -8.148
42 PZ 241 -9.613
42 PZ 242 -9.613
42 PZ 243 -9.125
42 PZ 244 -7.172
42 PZ 245 -5.707
42 PZ 246 -4.730
42 PZ 247 -4.730
42 PZ 248 -4.730
42 PZ 249 -4.242
42 PZ 250 -2.777
42 PZ 251 -1.801
42 PZ 252 -1.801
42 PZ 253 -2.289
42 PZ 254 -3.265
42 PZ 255 -3.754
# P8 chan 25
42 P8 0 -3.021
42 P8 1 -1.556
42 P8 2 0.397
42 P8 3 2.350
42 P8 4 3.326
42 P8 5 2.838
42 P8 6 1.862
42 P8 7 1.373
42 P8 8 2.350
42 P8 9 3.815
42 P8 10 5.280
42 P8 11 6.256
42 P8 12 7.233
42 P8 13 7.233
42 P8 14 5.768
42 P8 15 3.326
42 P8 16 -0.092
42 P8 17 -2.533
42 P8 18 -2.533
42 P8 19 -0.092
42 P8 20 4.303
42 P8 21 8.698
42 P8 22 12.115
42 P8 23 14.557
42 P8 24 15.533
42 P8 25 14.557
42 P8 26 12.115
42 P8 27 9.674
42 P8 28 9.186
42 P8 29 11.139
42 P8 30 15.045
42 P8 31 18.463
42 P8 32 19.928
42 P8 33 17.975
42 P8 34 15.045
42 P8 35 11.627
42 P8 36 9.186
42 P8 37 7.721
42 P8 38 6.744
42 P8 39 6.256
42 P8 40 5.768
42 P8 41 4.303
42 P8 42 2.838
42 P8 43 0.885
42 P8 44 -0.092
42 P8 45 -0.580
42 P8 46 -0.580
42 P8 47 -0.580
42 P8 48 -2.045
42 P8 49 -3.021
42 P8 50 -3.998
42 P8 51 -3.998
42 P8 52 -3.998
42 P8 53 -3.998
42 P8 54 -3.998
42 P8 55 -3.021
42 P8 56 -2.045
42 P8 57 -0.580
42 P8 58 0.397
42 P8 59 0.885
42 P8 60 1.862
42 P8 61 3.326
42 P8 62 4.791
42 P8 63 5.280
42 P8 64 4.791
42 P8 65 5.280
42 P8 66 5.768
42 P8 67 7.721
42 P8 68 8.209
42 P8 69 7.721
42 P8 70 5.280
42 P8 71 3.326
42 P8 72 2.838
42 P8 73 4.303
42 P8 74 6.256
42 P8 75 6.744
42 P8 76 6.256
42 P8 77 4.791
42 P8 78 4.303
42 P8 79 5.280
42 P8 80 7.233
42 P8 81 9.674
42 P8 82 11.627
42 P8 83 11.627
42 P8 84 10.651
42 P8 85 10.162
42 P8 86 10.162
42 P8 87 10.651
42 P8 88 11.627
42 P8 89 12.604
42 P8 90 13.092
42 P8 91 13.580
42 P8 92 13.580
42 P8 93 13.580
42 P8 94 12.604
42 P8 95 11.627
42 P8 96 10.651
42 P8 97 9.674
42 P8 98 9.186
42 P8 99 8.698
42 P8 100 10.162
42 P8 101 12.604
42 P8 102 15.045
42 P8 103 16.998
42 P8 104 16.998
42 P8 105 16.510
42 P8 106 15.045
42 P8 107 14.557
42 P8 108 14.069
42 P8 109 12.604
42 P8 110 10.651
42 P8 111 9.186
42 P8 112 7.721
42 P8 113 7.233
42 P8 114 6.256
42 P8 115 4.303
42 P8 116 0.885
42 P8 117 -2.533
42 P8 118 -3.998
42 P8 119 -3.998
42 P8 120 -3.510
42 P8 121 -3.998
42 P8 122 -4.486
42 P8 123 -4.974
42 P8 124 -3.998
42 P8 125 -3.021
42 P8 126 -2.533
42 P8 127 -3.998
42 P8 128 -4.974
42 P8 129 -3.998
42 P8 130 -0.580
42 P8 131 3.326
42 P8 132 5.768
42 P8 133 5.280
42 P8 134 2.838
42 P8 135 -0.092
42 P8 136 -2.045
42 P8 137 -2.045
42 P8 138 -1.556
42 P8 139 -1.068
42 P8 140 -0.092
42 P8 141 -0.092
42 P8 142 0.885
42 P8 143 1.862
42 P8 144 2.838
42 P8 145 2.838
42 P8 146 2.838
42 P8 147 2.838
42 P8 148 2.838
42 P8 149 2.838
42 P8 150 3.326
42 P8 151 3.815
42 P8 152 4.303
42 P8 153 4.303
42 P8 154 2.838
42 P8 155 0.885
42 P8 156 -1.556
42 P8 157 -3.021
42 P8 158 -3.021
42 P8 159 -2.533
42 P8 160 -2.045
42 P8 161 -2.533
42 P8 162 -3.998
42 P8 163 -4.974
42 P8 164 -4.486
42 P8 165 -2.045
42 P8 166 0.885
42 P8 167 2.838
42 P8 168 3.815
42 P8 169 3.326
42 P8 170 2.838
42 P8 171 1.862
42 P8 172 1.862
42 P8 173 1.373
42 P8 174 0.885
42 P8 175 0.397
42 P8 176 1.373
42 P8 177 2.350
42 P8 178 2.350
42 P8 179 0.397
42 P8 180 -2.533
42 P8 181 -3.998
42 P8 182 -4.486
42 P8 183 -2.533
42 P8 184 -0.092
42 P8 185 1.862
42 P8 186 2.350
42 P8 187 2.838
42 P8 188 2.350
42 P8 189 2.350
42 P8 190 1.373
42 P8 191 -0.092
42 P8 192 -1.556
42 P8 193 -3.021
42 P8 194 -3.510
42 P8 195 -3.510
42 P8 196 -4.974
42 P8 197 -7.904
42 P8 198 -11.322
42 P8 199 -13.763
42 P8 200 -13.275
42 P8 201 -10.834
42 P8 202 -7.904
42 P8 203 -5.951
42 P8 204 -4.974
42 P8 205 -4.974
42 P8 206 -3.510
42 P8 207 -1.068
42 P8 208 0.885
42 P8 209 1.862
42 P8 210 0.885
42 P8 211 -0.580
42 P8 212 -1.556
42 P8 213 -1.068
42 P8 214 -0.580
42 P8 215 -1.556
42 P8 216 -3.998
42 P8 217 -6.439
42 P8 218 -8.392
42 P8 219 -6.927
42 P8 220 -4.974
42 P8 221 -3.021
42 P8 222 -3.510
42 P8 223 -6.439
42 P8 224 -9.369
42 P8 225 -10.834
42 P8 226 -10.345
42 P8 227 -7.904
42 P8 228 -4.486
42 P8 229 -1.068
42 P8 230 0.397
42 P8 231 -0.092
42 P8 232 -1.556
42 P8 233 -3.510
42 P8 234 -4.486
42 P8 235 -3.998
42 P8 236 -3.021
42 P8 237 -3.021
42 P8 238 -4.486
42 P8 239 -7.416
42 P8 240 -10.834
42 P8 241 -13.275
42 P8 242 -14.740
42 P8 243 -15.717
42 P8 244 -15.717
42 P8 245 -15.717
42 P8 246 -15.717
42 P8 247 -14.740
42 P8 248 -13.275
42 P8 249 -11.322
42 P8 250 -8.881
42 P8 251 -5.951
42 P8 252 -3.510
42 P8 253 -2.045
42 P8 254 -2.045
42 P8 255 -3.021
# P7 chan 26
42 P7 0 -3.123
42 P7 1 -2.146
42 P7 2 -0.682
42 P7 3 0.783
42 P7 4 1.272
42 P7 5 0.783
42 P7 6 0.295
42 P7 7 -0.682
42 P7 8 -1.170
42 P7 9 -1.658
42 P7 10 -2.146
42 P7 11 -1.658
42 P7 12 1.272
42 P7 13 5.178
42 P7 14 8.596
42 P7 15 8.596
42 P7 16 5.178
42 P7 17 0.295
42 P7 18 -2.635
42 P7 19 -2.635
42 P7 20 0.295
42 P7 21 5.178
42 P7 22 9.084
42 P7 23 12.014
42 P7 24 12.990
42 P7 25 12.014
42 P7 26 11.037
42 P7 27 10.549
42 P7 28 13.479
42 P7 29 19.338
42 P7 30 26.174
42 P7 31 31.057
42 P7 32 31.545
42 P7 33 28.127
42 P7 34 22.756
42 P7 35 17.385
42 P7 36 12.014
42 P7 37 8.108
42 P7 38 3.713
42 P7 39 0.783
42 P7 40 -1.170
42 P7 41 -2.635
42 P7 42 -3.123
42 P7 43 -4.100
42 P7 44 -4.588
42 P7 45 -5.564
42 P7 46 -6.053
42 P7 47 -6.541
42 P7 48 -7.029
42 P7 49 -6.541
42 P7 50 -4.100
42 P7 51 -1.658
42 P7 52 1.272
42 P7 53 2.248
42 P7 54 2.736
42 P7 55 2.736
42 P7 56 3.713
42 P7 57 4.690
42 P7 58 6.154
42 P7 59 6.643
42 P7 60 6.643
42 P7 61 6.643
42 P7 62 6.643
42 P7 63 6.643
42 P7 64 6.643
42 P7 65 7.131
42 P7 66 8.596
42 P7 67 10.061
42 P7 68 10.549
42 P7 69 9.572
42 P7 70 7.619
42 P7 71 6.154
42 P7 72 6.643
42 P7 73 9.084
42 P7 74 12.014
42 P7 75 13.479
42 P7 76 13.479
42 P7 77 12.014
42 P7 78 10.061
42 P7 79 10.061
42 P7 80 12.014
42 P7 81 14.455
42 P7 82 16.408
42 P7 83 16.897
42 P7 84 15.920
42 P7 85 14.455
42 P7 86 12.990
42 P7 87 12.502
42 P7 88 12.502
42 P7 89 13.967
42 P7 90 15.920
42 P7 91 17.873
42 P7 92 18.850
42 P7 93 17.385
42 P7 94 14.455
42 P7 95 12.502
42 P7 96 11.525
42 P7 97 12.502
42 P7 98 12.990
42 P7 99 13.967
42 P7 100 14.455
42 P7 101 15.432
42 P7 102 16.897
42 P7 103 18.361
42 P7 104 19.338
42 P7 105 18.850
42 P7 106 17.385
42 P7 107 15.432
42 P7 108 13.479
42 P7 109 10.549
42 P7 110 7.619
42 P7 111 4.690
42 P7 112 2.248
42 P7 113 1.760
42 P7 114 1.760
42 P7 115 1.760
42 P7 116 1.272
42 P7 117 0.295
42 P7 118 -1.170
42 P7 119 -2.635
42 P7 120 -4.100
42 P7 121 -5.564
42 P7 122 -6.053
42 P7 123 -4.588
42 P7 124 -2.635
42 P7 125 -1.170
42 P7 126 -1.658
42 P7 127 -3.611
42 P7 128 -5.564
42 P7 129 -5.076
42 P7 130 -1.658
42 P7 131 2.736
42 P7 132 5.666
42 P7 133 5.666
42 P7 134 3.225
42 P7 135 0.295
42 P7 136 -1.658
42 P7 137 -1.170
42 P7 138 -0.193
42 P7 139 0.783
42 P7 140 1.272
42 P7 141 0.783
42 P7 142 1.760
42 P7 143 3.225
42 P7 144 5.178
42 P7 145 7.131
42 P7 146 6.643
42 P7 147 5.178
42 P7 148 3.225
42 P7 149 2.248
42 P7 150 3.225
42 P7 151 4.201
42 P7 152 4.690
42 P7 153 3.225
42 P7 154 0.783
42 P7 155 -1.170
42 P7 156 -2.146
42 P7 157 -3.123
42 P7 158 -3.611
42 P7 159 -3.611
42 P7 160 -3.123
42 P7 161 -3.123
42 P7 162 -3.123
42 P7 163 -3.611
42 P7 164 -3.611
42 P7 165 -1.658
42 P7 166 1.272
42 P7 167 4.201
42 P7 168 5.178
42 P7 169 3.713
42 P7 170 1.272
42 P7 171 -0.193
42 P7 172 -0.193
42 P7 173 -0.193
42 P7 174 -1.658
42 P7 175 -3.123
42 P7 176 -3.611
42 P7 177 -3.123
42 P7 178 -1.658
42 P7 179 -1.658
42 P7 180 -3.611
42 P7 181 -5.076
42 P7 182 -4.100
42 P7 183 -0.682
42 P7 184 3.713
42 P7 185 6.154
42 P7 186 5.178
42 P7 187 2.248
42 P7 188 0.295
42 P7 189 0.783
42 P7 190 2.736
42 P7 191 3.225
42 P7 192 0.783
42 P7 193 -3.123
42 P7 194 -6.053
42 P7 195 -7.029
42 P7 196 -6.053
42 P7 197 -6.053
42 P7 198 -7.517
42 P7 199 -10.447
42 P7 200 -12.889
42 P7 201 -13.865
42 P7 202 -12.400
42 P7 203 -9.959
42 P7 204 -7.517
42 P7 205 -6.541
42 P7 206 -7.029
42 P7 207 -7.517
42 P7 208 -7.517
42 P7 209 -5.564
42 P7 210 -3.123
42 P7 211 -0.682
42 P7 212 -0.193
42 P7 213 -2.146
42 P7 214 -5.564
42 P7 215 -8.982
42 P7 216 -10.447
42 P7 217 -9.959
42 P7 218 -8.006
42 P7 219 -5.564
42 P7 220 -5.076
42 P7 221 -4.588
42 P7 222 -5.076
42 P7 223 -5.076
42 P7 224 -5.076
42 P7 225 -5.076
42 P7 226 -5.564
42 P7 227 -5.564
42 P7 228 -4.588
42 P7 229 -3.123
42 P7 230 -2.146
42 P7 231 -2.146
42 P7 232 -3.123
42 P7 233 -5.076
42 P7 234 -6.541
42 P7 235 -6.541
42 P7 236 -6.541
42 P7 237 -5.564
42 P7 238 -4.588
42 P7 239 -4.588
42 P7 240 -6.541
42 P7 241 -8.982
42 P7 242 -11.912
42 P7 243 -12.889
42 P7 244 -11.912
42 P7 245 -10.447
42 P7 246 -8.982
42 P7 247 -8.494
42 P7 248 -8.494
42 P7 249 -7.029
42 P7 250 -5.564
42 P7 251 -3.611
42 P7 252 -3.611
42 P7 253 -3.123
42 P7 254 -2.635
42 P7 255 -1.170
# PO2 chan 27
42 PO2 0 -2.472
42 PO2 1 -1.495
42 PO2 2 0.458
42 PO2 3 2.899
42 PO2 4 4.364
42 PO2 5 4.852
42 PO2 6 4.364
42 PO2 7 3.876
42 PO2 8 3.876
42 PO2 9 3.387
42 PO2 10 2.899
42 PO2 11 2.899
42 PO2 12 4.364
42 PO2 13 6.317
42 PO2 14 7.782
42 PO2 15 7.294
42 PO2 16 3.876
42 PO2 17 -0.031
42 PO2 18 -1.495
42 PO2 19 -0.519
42 PO2 20 2.899
42 PO2 21 7.294
42 PO2 22 11.200
42 PO2 23 13.153
42 PO2 24 13.641
42 PO2 25 13.153
42 PO2 26 11.200
42 PO2 27 10.223
42 PO2 28 10.223
42 PO2 29 11.688
42 PO2 30 14.618
42 PO2 31 17.059
42 PO2 32 18.036
42 PO2 33 17.059
42 PO2 34 13.641
42 PO2 35 8.759
42 PO2 36 3.387
42 PO2 37 -1.007
42 PO2 38 -3.448
42 PO2 39 -3.937
42 PO2 40 -3.448
42 PO2 41 -2.960
42 PO2 42 -3.448
42 PO2 43 -4.913
42 PO2 44 -6.378
42 PO2 45 -5.890
42 PO2 46 -4.425
42 PO2 47 -1.984
42 PO2 48 -0.519
42 PO2 49 0.458
42 PO2 50 1.434
42 PO2 51 3.387
42 PO2 52 5.341
42 PO2 53 6.805
42 PO2 54 6.805
42 PO2 55 6.805
42 PO2 56 7.294
42 PO2 57 7.782
42 PO2 58 8.759
42 PO2 59 9.247
42 PO2 60 9.735
42 PO2 61 10.712
42 PO2 62 11.688
42 PO2 63 12.177
42 PO2 64 11.688
42 PO2 65 11.688
42 PO2 66 12.177
42 PO2 67 13.153
42 PO2 68 13.641
42 PO2 69 13.153
42 PO2 70 11.688
42 PO2 71 9.735
42 PO2 72 8.759
42 PO2 73 8.759
42 PO2 74 9.735
42 PO2 75 10.223
42 PO2 76 9.247
42 PO2 77 8.270
42 PO2 78 7.294
42 PO2 79 8.270
42 PO2 80 10.712
42 PO2 81 13.153
42 PO2 82 15.106
42 PO2 83 15.594
42 PO2 84 15.594
42 PO2 85 14.618
42 PO2 86 14.618
42 PO2 87 15.594
42 PO2 88 16.083
42 PO2 89 16.571
42 PO2 90 17.059
42 PO2 91 17.059
42 PO2 92 17.548
42 PO2 93 17.548
42 PO2 94 17.548
42 PO2 95 17.059
42 PO2 96 17.059
42 PO2 97 17.059
42 PO2 98 17.059
42 PO2 99 17.548
42 PO2 100 18.036
42 PO2 101 19.501
42 PO2 102 21.454
42 PO2 103 22.919
42 PO2 104 22.919
42 PO2 105 22.430
42 PO2 106 21.454
42 PO2 107 20.966
42 PO2 108 20.477
42 PO2 109 19.989
42 PO2 110 19.012
42 PO2 111 17.059
42 PO2 112 16.083
42 PO2 113 15.106
42 PO2 114 14.130
42 PO2 115 12.665
42 PO2 116 10.712
42 PO2 117 9.247
42 PO2 118 8.270
42 PO2 119 6.805
42 PO2 120 5.341
42 PO2 121 3.387
42 PO2 122 2.411
42 PO2 123 2.899
42 PO2 124 4.364
42 PO2 125 5.341
42 PO2 126 4.852
42 PO2 127 3.387
42 PO2 128 2.411
42 PO2 129 3.387
42 PO2 130 5.829
42 PO2 131 8.759
42 PO2 132 10.712
42 PO2 133 9.735
42 PO2 134 7.294
42 PO2 135 4.364
42 PO2 136 2.899
42 PO2 137 2.899
42 PO2 138 4.364
42 PO2 139 5.341
42 PO2 140 5.829
42 PO2 141 4.852
42 PO2 142 4.364
42 PO2 143 4.364
42 PO2 144 5.341
42 PO2 145 6.317
42 PO2 146 6.805
42 PO2 147 6.317
42 PO2 148 5.341
42 PO2 149 4.852
42 PO2 150 5.341
42 PO2 151 5.341
42 PO2 152 5.829
42 PO2 153 4.364
42 PO2 154 2.411
42 PO2 155 -0.031
42 PO2 156 -1.984
42 PO2 157 -2.472
42 PO2 158 -2.472
42 PO2 159 -1.495
42 PO2 160 -0.519
42 PO2 161 -0.519
42 PO2 162 -0.519
42 PO2 163 -1.007
42 PO2 164 -0.519
42 PO2 165 0.946
42 PO2 166 2.899
42 PO2 167 3.876
42 PO2 168 4.364
42 PO2 169 4.364
42 PO2 170 4.364
42 PO2 171 3.876
42 PO2 172 3.387
42 PO2 173 2.411
42 PO2 174 1.434
42 PO2 175 1.434
42 PO2 176 1.923
42 PO2 177 2.899
42 PO2 178 2.899
42 PO2 179 1.923
42 PO2 180 0.458
42 PO2 181 -0.519
42 PO2 182 -0.031
42 PO2 183 0.946
42 PO2 184 3.387
42 PO2 185 5.341
42 PO2 186 6.317
42 PO2 187 6.317
42 PO2 188 6.805
42 PO2 189 6.805
42 PO2 190 6.805
42 PO2 191 6.805
42 PO2 192 6.317
42 PO2 193 5.341
42 PO2 194 5.341
42 PO2 195 6.317
42 PO2 196 5.829
42 PO2 197 4.364
42 PO2 198 0.946
42 PO2 199 -2.472
42 PO2 200 -4.425
42 PO2 201 -4.425
42 PO2 202 -2.960
42 PO2 203 -1.495
42 PO2 204 -0.519
42 PO2 205 -0.519
42 PO2 206 0.946
42 PO2 207 2.899
42 PO2 208 5.341
42 PO2 209 7.294
42 PO2 210 7.294
42 PO2 211 6.805
42 PO2 212 5.829
42 PO2 213 5.341
42 PO2 214 4.364
42 PO2 215 1.923
42 PO2 216 -1.007
42 PO2 217 -2.960
42 PO2 218 -2.960
42 PO2 219 -0.519
42 PO2 220 2.411
42 PO2 221 4.852
42 PO2 222 4.364
42 PO2 223 2.411
42 PO2 224 0.458
42 PO2 225 -0.519
42 PO2 226 -0.519
42 PO2 227 0.946
42 PO2 228 2.899
42 PO2 229 5.829
42 PO2 230 8.270
42 PO2 231 9.247
42 PO2 232 9.247
42 PO2 233 8.270
42 PO2 234 7.294
42 PO2 235 6.805
42 PO2 236 6.805
42 PO2 237 6.317
42 PO2 238 4.852
42 PO2 239 2.411
42 PO2 240 -0.031
42 PO2 241 -2.472
42 PO2 242 -3.448
42 PO2 243 -3.937
42 PO2 244 -3.937
42 PO2 245 -3.937
42 PO2 246 -3.448
42 PO2 247 -2.472
42 PO2 248 -1.007
42 PO2 249 1.434
42 PO2 250 3.876
42 PO2 251 6.317
42 PO2 252 7.782
42 PO2 253 7.782
42 PO2 254 7.782
42 PO2 255 7.782
# PO1 chan 28
42 PO1 0 -1.038
42 PO1 1 -0.549
42 PO1 2 0.916
42 PO1 3 1.892
42 PO1 4 2.869
42 PO1 5 3.357
42 PO1 6 2.380
42 PO1 7 0.916
42 PO1 8 -1.526
42 PO1 9 -3.479
42 PO1 10 -4.456
42 PO1 11 -4.456
42 PO1 12 -2.991
42 PO1 13 -0.061
42 PO1 14 2.869
42 PO1 15 4.333
42 PO1 16 4.333
42 PO1 17 2.380
42 PO1 18 -0.549
42 PO1 19 -2.014
42 PO1 20 -1.526
42 PO1 21 1.404
42 PO1 22 5.798
42 PO1 23 9.705
42 PO1 24 12.146
42 PO1 25 12.634
42 PO1 26 11.658
42 PO1 27 10.681
42 PO1 28 10.681
42 PO1 29 12.634
42 PO1 30 15.564
42 PO1 31 18.005
42 PO1 32 18.982
42 PO1 33 17.029
42 PO1 34 12.634
42 PO1 35 6.287
42 PO1 36 0.427
42 PO1 37 -4.944
42 PO1 38 -8.850
42 PO1 39 -10.803
42 PO1 40 -11.780
42 PO1 41 -11.780
