# co2c0000341.rd
# 120 trials, 64 chans, 416 samples 368 post_stim samples
# 3.906000 msecs uV
# S1 obj , trial 44
# FP1 chan 0
44 FP1 0 5.666
44 FP1 1 1.272
44 FP1 2 -1.658
44 FP1 3 -1.170
44 FP1 4 1.760
44 FP1 5 5.178
44 FP1 6 6.643
44 FP1 7 6.154
44 FP1 8 4.201
44 FP1 9 3.225
44 FP1 10 3.713
44 FP1 11 5.178
44 FP1 12 7.131
44 FP1 13 9.084
44 FP1 14 9.572
44 FP1 15 9.084
44 FP1 16 8.108
44 FP1 17 6.154
44 FP1 18 3.713
44 FP1 19 2.248
44 FP1 20 2.248
44 FP1 21 2.736
44 FP1 22 3.225
44 FP1 23 1.760
44 FP1 24 -0.682
44 FP1 25 -3.123
44 FP1 26 -3.611
44 FP1 27 -1.170
44 FP1 28 2.248
44 FP1 29 5.178
44 FP1 30 5.666
44 FP1 31 5.178
44 FP1 32 3.713
44 FP1 33 3.225
44 FP1 34 2.736
44 FP1 35 1.760
44 FP1 36 -0.193
44 FP1 37 -2.146
44 FP1 38 -3.611
44 FP1 39 -3.123
44 FP1 40 -2.146
44 FP1 41 -1.170
44 FP1 42 -2.635
44 FP1 43 -5.076
44 FP1 44 -7.029
44 FP1 45 -7.517
44 FP1 46 -6.053
44 FP1 47 -4.588
44 FP1 48 -5.076
44 FP1 49 -7.029
44 FP1 50 -8.982
44 FP1 51 -9.959
44 FP1 52 -9.471
44 FP1 53 -7.517
44 FP1 54 -5.564
44 FP1 55 -4.100
44 FP1 56 -2.635
44 FP1 57 -1.170
44 FP1 58 -0.193
44 FP1 59 -0.193
44 FP1 60 -0.193
44 FP1 61 -0.682
44 FP1 62 -1.170
44 FP1 63 -2.146
44 FP1 64 -4.588
44 FP1 65 -7.517
44 FP1 66 -9.959
44 FP1 67 -10.447
44 FP1 68 -8.494
44 FP1 69 -5.564
44 FP1 70 -3.123
44 FP1 71 -2.635
44 FP1 72 -4.100
44 FP1 73 -5.564
44 FP1 74 -6.053
44 FP1 75 -6.053
44 FP1 76 -5.076
44 FP1 77 -4.588
44 FP1 78 -3.123
44 FP1 79 -2.635
44 FP1 80 -3.123
44 FP1 81 -4.100
44 FP1 82 -5.564
44 FP1 83 -7.517
44 FP1 84 -8.982
44 FP1 85 -9.471
44 FP1 86 -8.982
44 FP1 87 -9.471
44 FP1 88 -9.471
44 FP1 89 -9.959
44 FP1 90 -10.447
44 FP1 91 -9.471
44 FP1 92 -8.006
44 FP1 93 -6.541
44 FP1 94 -5.564
44 FP1 95 -6.053
44 FP1 96 -8.006
44 FP1 97 -9.471
44 FP1 98 -10.935
44 FP1 99 -10.935
44 FP1 100 -10.447
44 FP1 101 -8.982
44 FP1 102 -8.006
44 FP1 103 -7.029
44 FP1 104 -5.564
44 FP1 105 -4.100
44 FP1 106 -3.123
44 FP1 107 -2.635
44 FP1 108 -2.635
44 FP1 109 -2.635
44 FP1 110 -3.123
44 FP1 111 -3.611
44 FP1 112 -3.611
44 FP1 113 -3.611
44 FP1 114 -3.123
44 FP1 115 -3.611
44 FP1 116 -5.076
44 FP1 117 -7.029
44 FP1 118 -8.982
44 FP1 119 -8.006
44 FP1 120 -6.053
44 FP1 121 -4.100
44 FP1 122 -3.611
44 FP1 123 -4.588
44 FP1 124 -6.053
44 FP1 125 -7.029
44 FP1 126 -7.517
44 FP1 127 -8.006
44 FP1 128 -9.959
44 FP1 129 -13.865
44 FP1 130 -16.795
44 FP1 131 -18.260
44 FP1 132 -16.795
44 FP1 133 -14.353
44 FP1 134 -12.400
44 FP1 135 -11.912
44 FP1 136 -12.889
44 FP1 137 -12.400
44 FP1 138 -10.447
44 FP1 139 -6.541
44 FP1 140 -3.611
44 FP1 141 -3.123
44 FP1 142 -5.076
44 FP1 143 -7.029
44 FP1 144 -7.517
44 FP1 145 -6.541
44 FP1 146 -4.100
44 FP1 147 -1.658
44 FP1 148 0.295
44 FP1 149 1.760
44 FP1 150 3.225
44 FP1 151 4.690
44 FP1 152 5.178
44 FP1 153 5.178
44 FP1 154 4.690
44 FP1 155 4.201
44 FP1 156 5.666
44 FP1 157 7.131
44 FP1 158 9.084
44 FP1 159 11.037
44 FP1 160 12.014
44 FP1 161 12.014
44 FP1 162 10.061
44 FP1 163 7.619
44 FP1 164 5.178
44 FP1 165 3.713
44 FP1 166 3.713
44 FP1 167 3.713
44 FP1 168 4.201
44 FP1 169 3.713
44 FP1 170 4.201
44 FP1 171 5.666
44 FP1 172 7.131
44 FP1 173 8.108
44 FP1 174 7.619
44 FP1 175 6.154
44 FP1 176 3.713
44 FP1 177 1.760
44 FP1 178 0.295
44 FP1 179 -0.682
44 FP1 180 -1.170
44 FP1 181 -1.658
44 FP1 182 -1.658
44 FP1 183 -2.146
44 FP1 184 -1.658
44 FP1 185 -1.658
44 FP1 186 -1.658
44 FP1 187 -1.658
44 FP1 188 -1.170
44 FP1 189 -0.193
44 FP1 190 1.272
44 FP1 191 2.248
44 FP1 192 2.736
44 FP1 193 2.248
44 FP1 194 0.783
44 FP1 195 -1.170
44 FP1 196 -3.611
44 FP1 197 -5.564
44 FP1 198 -7.517
44 FP1 199 -8.494
44 FP1 200 -8.982
44 FP1 201 -8.494
44 FP1 202 -7.029
44 FP1 203 -6.053
44 FP1 204 -5.076
44 FP1 205 -5.564
44 FP1 206 -6.053
44 FP1 207 -7.029
44 FP1 208 -7.517
44 FP1 209 -7.517
44 FP1 210 -6.541
44 FP1 211 -5.564
44 FP1 212 -5.564
44 FP1 213 -6.053
44 FP1 214 -8.006
44 FP1 215 -9.959
44 FP1 216 -11.912
44 FP1 217 -13.865
44 FP1 218 -15.330
44 FP1 219 -16.307
44 FP1 220 -16.795
44 FP1 221 -16.795
44 FP1 222 -16.307
44 FP1 223 -15.818
44 FP1 224 -14.842
44 FP1 225 -14.842
44 FP1 226 -14.842
44 FP1 227 -15.330
44 FP1 228 -15.818
44 FP1 229 -16.307
44 FP1 230 -16.307
44 FP1 231 -16.307
44 FP1 232 -14.842
44 FP1 233 -12.889
44 FP1 234 -10.935
44 FP1 235 -8.982
44 FP1 236 -8.494
44 FP1 237 -8.006
44 FP1 238 -7.517
44 FP1 239 -7.029
44 FP1 240 -6.541
44 FP1 241 -7.029
44 FP1 242 -8.006
44 FP1 243 -9.959
44 FP1 244 -11.912
44 FP1 245 -11.912
44 FP1 246 -9.471
44 FP1 247 -5.564
44 FP1 248 -1.658
44 FP1 249 -0.193
44 FP1 250 -1.170
44 FP1 251 -4.100
44 FP1 252 -7.029
44 FP1 253 -8.982
44 FP1 254 -8.494
44 FP1 255 -8.006
# FP2 chan 1
44 FP2 0 7.314
44 FP2 1 2.920
44 FP2 2 0.478
44 FP2 3 0.478
44 FP2 4 3.408
44 FP2 5 6.337
44 FP2 6 8.291
44 FP2 7 8.291
44 FP2 8 6.826
44 FP2 9 5.849
44 FP2 10 5.849
44 FP2 11 6.337
44 FP2 12 7.802
44 FP2 13 8.779
44 FP2 14 8.779
44 FP2 15 8.291
44 FP2 16 7.314
44 FP2 17 5.849
44 FP2 18 3.896
44 FP2 19 2.920
44 FP2 20 3.408
44 FP2 21 4.384
44 FP2 22 4.384
44 FP2 23 2.431
44 FP2 24 -0.498
44 FP2 25 -3.916
44 FP2 26 -4.893
44 FP2 27 -2.940
44 FP2 28 0.966
44 FP2 29 3.896
44 FP2 30 5.361
44 FP2 31 4.873
44 FP2 32 3.896
44 FP2 33 2.920
44 FP2 34 1.943
44 FP2 35 -0.010
44 FP2 36 -2.452
44 FP2 37 -4.893
44 FP2 38 -5.381
44 FP2 39 -4.405
44 FP2 40 -2.452
44 FP2 41 -0.987
44 FP2 42 -1.963
44 FP2 43 -4.405
44 FP2 44 -5.870
44 FP2 45 -5.870
44 FP2 46 -5.381
44 FP2 47 -4.405
44 FP2 48 -4.893
44 FP2 49 -6.846
44 FP2 50 -9.288
44 FP2 51 -10.752
44 FP2 52 -10.752
44 FP2 53 -9.288
44 FP2 54 -7.334
44 FP2 55 -5.381
44 FP2 56 -4.405
44 FP2 57 -3.916
44 FP2 58 -3.916
44 FP2 59 -4.405
44 FP2 60 -3.916
44 FP2 61 -2.940
44 FP2 62 -1.963
44 FP2 63 -1.963
44 FP2 64 -4.405
44 FP2 65 -7.334
44 FP2 66 -10.264
44 FP2 67 -11.241
44 FP2 68 -9.288
44 FP2 69 -6.358
44 FP2 70 -4.405
44 FP2 71 -3.916
44 FP2 72 -4.893
44 FP2 73 -5.870
44 FP2 74 -6.358
44 FP2 75 -5.870
44 FP2 76 -5.381
44 FP2 77 -4.893
44 FP2 78 -3.916
44 FP2 79 -3.428
44 FP2 80 -3.428
44 FP2 81 -3.916
44 FP2 82 -5.870
44 FP2 83 -7.823
44 FP2 84 -9.776
44 FP2 85 -10.264
44 FP2 86 -9.776
44 FP2 87 -9.288
44 FP2 88 -9.288
44 FP2 89 -9.288
44 FP2 90 -9.288
44 FP2 91 -8.799
44 FP2 92 -7.334
44 FP2 93 -5.381
44 FP2 94 -3.916
44 FP2 95 -3.916
44 FP2 96 -5.870
44 FP2 97 -8.311
44 FP2 98 -9.288
44 FP2 99 -9.776
44 FP2 100 -8.799
44 FP2 101 -7.334
44 FP2 102 -6.358
44 FP2 103 -4.893
44 FP2 104 -3.428
44 FP2 105 -1.963
44 FP2 106 -0.987
44 FP2 107 -0.498
44 FP2 108 -0.987
44 FP2 109 -1.963
44 FP2 110 -2.452
44 FP2 111 -2.940
44 FP2 112 -2.940
44 FP2 113 -2.940
44 FP2 114 -2.452
44 FP2 115 -2.940
44 FP2 116 -4.893
44 FP2 117 -6.846
44 FP2 118 -8.311
44 FP2 119 -8.311
44 FP2 120 -6.358
44 FP2 121 -4.893
44 FP2 122 -4.405
44 FP2 123 -5.381
44 FP2 124 -7.334
44 FP2 125 -8.311
44 FP2 126 -8.799
44 FP2 127 -8.799
44 FP2 128 -10.264
44 FP2 129 -12.705
44 FP2 130 -15.635
44 FP2 131 -17.100
44 FP2 132 -16.123
44 FP2 133 -14.170
44 FP2 134 -12.217
44 FP2 135 -12.217
44 FP2 136 -12.217
44 FP2 137 -11.241
44 FP2 138 -9.288
44 FP2 139 -5.870
44 FP2 140 -3.428
44 FP2 141 -3.428
44 FP2 142 -5.381
44 FP2 143 -6.846
44 FP2 144 -7.334
44 FP2 145 -5.381
44 FP2 146 -2.940
44 FP2 147 -0.010
44 FP2 148 1.943
44 FP2 149 3.408
44 FP2 150 4.384
44 FP2 151 5.849
44 FP2 152 6.826
44 FP2 153 6.826
44 FP2 154 6.826
44 FP2 155 6.337
44 FP2 156 6.826
44 FP2 157 8.291
44 FP2 158 9.755
44 FP2 159 11.220
44 FP2 160 12.197
44 FP2 161 11.709
44 FP2 162 10.244
44 FP2 163 7.802
44 FP2 164 5.361
44 FP2 165 4.384
44 FP2 166 4.384
44 FP2 167 4.873
44 FP2 168 5.361
44 FP2 169 5.361
44 FP2 170 4.873
44 FP2 171 5.361
44 FP2 172 6.337
44 FP2 173 7.314
44 FP2 174 7.802
44 FP2 175 6.826
44 FP2 176 4.384
44 FP2 177 1.455
44 FP2 178 -0.498
44 FP2 179 -1.963
44 FP2 180 -2.452
44 FP2 181 -2.940
44 FP2 182 -2.940
44 FP2 183 -3.428
44 FP2 184 -3.428
44 FP2 185 -3.428
44 FP2 186 -2.940
44 FP2 187 -2.452
44 FP2 188 -2.452
44 FP2 189 -1.963
44 FP2 190 -1.475
44 FP2 191 -0.498
44 FP2 192 0.478
44 FP2 193 -0.010
44 FP2 194 -1.475
44 FP2 195 -3.916
44 FP2 196 -6.846
44 FP2 197 -8.799
44 FP2 198 -10.264
44 FP2 199 -10.752
44 FP2 200 -10.752
44 FP2 201 -9.776
44 FP2 202 -8.799
44 FP2 203 -7.823
44 FP2 204 -6.846
44 FP2 205 -6.358
44 FP2 206 -6.846
44 FP2 207 -7.823
44 FP2 208 -8.311
44 FP2 209 -8.311
44 FP2 210 -6.846
44 FP2 211 -5.381
44 FP2 212 -4.405
44 FP2 213 -4.405
44 FP2 214 -6.358
44 FP2 215 -8.799
44 FP2 216 -12.217
44 FP2 217 -14.170
44 FP2 218 -15.635
44 FP2 219 -16.612
44 FP2 220 -17.100
44 FP2 221 -17.588
44 FP2 222 -17.588
44 FP2 223 -17.100
44 FP2 224 -16.123
44 FP2 225 -15.635
44 FP2 226 -16.123
44 FP2 227 -17.100
44 FP2 228 -18.077
44 FP2 229 -18.565
44 FP2 230 -18.077
44 FP2 231 -16.612
44 FP2 232 -14.659
44 FP2 233 -11.729
44 FP2 234 -9.288
44 FP2 235 -7.334
44 FP2 236 -6.846
44 FP2 237 -6.358
44 FP2 238 -5.870
44 FP2 239 -5.381
44 FP2 240 -4.893
44 FP2 241 -4.893
44 FP2 242 -5.870
44 FP2 243 -7.334
44 FP2 244 -8.799
44 FP2 245 -8.799
44 FP2 246 -6.846
44 FP2 247 -3.916
44 FP2 248 -0.498
44 FP2 249 0.966
44 FP2 250 -0.498
44 FP2 251 -3.916
44 FP2 252 -7.334
44 FP2 253 -9.776
44 FP2 254 -9.776
44 FP2 255 -8.799
# F7 chan 2
44 F7 0 0.092
44 F7 1 -2.838
44 F7 2 -3.815
44 F7 3 -2.350
44 F7 4 1.068
44 F7 5 3.998
44 F7 6 4.974
44 F7 7 3.510
44 F7 8 1.068
44 F7 9 0.092
44 F7 10 0.092
44 F7 11 2.533
44 F7 12 5.463
44 F7 13 8.392
44 F7 14 9.857
44 F7 15 9.369
44 F7 16 6.927
44 F7 17 3.998
44 F7 18 1.068
44 F7 19 -0.397
44 F7 20 -0.885
44 F7 21 0.092
44 F7 22 1.068
44 F7 23 1.068
44 F7 24 -0.397
44 F7 25 -1.373
44 F7 26 -0.885
44 F7 27 1.556
44 F7 28 4.974
44 F7 29 7.416
44 F7 30 8.881
44 F7 31 7.904
44 F7 32 6.439
44 F7 33 4.974
44 F7 34 4.486
44 F7 35 3.510
44 F7 36 2.533
44 F7 37 1.556
44 F7 38 1.068
44 F7 39 1.556
44 F7 40 3.021
44 F7 41 3.998
44 F7 42 3.021
44 F7 43 0.092
44 F7 44 -2.350
44 F7 45 -3.815
44 F7 46 -3.815
44 F7 47 -2.838
44 F7 48 -2.838
44 F7 49 -4.303
44 F7 50 -6.256
44 F7 51 -7.233
44 F7 52 -6.744
44 F7 53 -5.280
44 F7 54 -3.326
44 F7 55 -1.862
44 F7 56 0.092
44 F7 57 1.068
44 F7 58 1.556
44 F7 59 1.556
44 F7 60 1.068
44 F7 61 0.580
44 F7 62 0.580
44 F7 63 0.092
44 F7 64 -1.862
44 F7 65 -3.815
44 F7 66 -5.768
44 F7 67 -5.768
44 F7 68 -3.326
44 F7 69 -0.397
44 F7 70 2.045
44 F7 71 3.021
44 F7 72 2.533
44 F7 73 2.045
44 F7 74 1.556
44 F7 75 1.556
44 F7 76 1.556
44 F7 77 2.045
44 F7 78 2.533
44 F7 79 3.021
44 F7 80 3.021
44 F7 81 2.533
44 F7 82 1.556
44 F7 83 0.580
44 F7 84 1.068
44 F7 85 2.045
44 F7 86 3.510
44 F7 87 3.021
44 F7 88 1.556
44 F7 89 -0.885
44 F7 90 -3.326
44 F7 91 -3.815
44 F7 92 -2.838
44 F7 93 -0.397
44 F7 94 1.068
44 F7 95 1.556
44 F7 96 0.092
44 F7 97 -1.862
44 F7 98 -3.815
44 F7 99 -4.791
44 F7 100 -4.791
44 F7 101 -3.326
44 F7 102 -1.373
44 F7 103 0.580
44 F7 104 1.556
44 F7 105 2.533
44 F7 106 2.045
44 F7 107 2.045
44 F7 108 2.045
44 F7 109 3.021
44 F7 110 3.021
44 F7 111 3.021
44 F7 112 2.533
44 F7 113 1.556
44 F7 114 0.580
44 F7 115 -0.885
44 F7 116 -2.350
44 F7 117 -3.815
44 F7 118 -3.326
44 F7 119 -0.885
44 F7 120 2.045
44 F7 121 4.486
44 F7 122 4.974
44 F7 123 3.998
44 F7 124 2.045
44 F7 125 1.068
44 F7 126 -0.397
44 F7 127 -1.862
44 F7 128 -5.280
44 F7 129 -8.698
44 F7 130 -11.139
44 F7 131 -11.627
44 F7 132 -9.674
44 F7 133 -7.721
44 F7 134 -7.721
44 F7 135 -9.186
44 F7 136 -11.139
44 F7 137 -11.139
44 F7 138 -7.721
44 F7 139 -2.350
44 F7 140 2.533
44 F7 141 4.974
44 F7 142 3.021
44 F7 143 -0.397
44 F7 144 -3.815
44 F7 145 -4.791
44 F7 146 -4.303
44 F7 147 -1.862
44 F7 148 1.068
44 F7 149 3.510
44 F7 150 5.463
44 F7 151 6.439
44 F7 152 6.927
44 F7 153 6.927
44 F7 154 6.927
44 F7 155 8.881
44 F7 156 11.322
44 F7 157 14.252
44 F7 158 16.693
44 F7 159 18.158
44 F7 160 18.158
44 F7 161 17.181
44 F7 162 14.740
44 F7 163 12.299
44 F7 164 9.369
44 F7 165 6.439
44 F7 166 4.486
44 F7 167 3.510
44 F7 168 3.998
44 F7 169 6.439
44 F7 170 9.369
44 F7 171 11.810
44 F7 172 13.275
44 F7 173 12.787
44 F7 174 11.322
44 F7 175 9.369
44 F7 176 8.881
44 F7 177 8.392
44 F7 178 8.392
44 F7 179 7.416
44 F7 180 6.927
44 F7 181 6.439
44 F7 182 6.927
44 F7 183 6.927
44 F7 184 6.439
44 F7 185 5.463
44 F7 186 4.486
44 F7 187 5.463
44 F7 188 7.416
44 F7 189 9.857
44 F7 190 11.810
44 F7 191 11.322
44 F7 192 10.345
44 F7 193 8.881
44 F7 194 7.904
44 F7 195 6.927
44 F7 196 5.951
44 F7 197 3.998
44 F7 198 1.556
44 F7 199 -0.397
44 F7 200 -0.885
44 F7 201 -0.397
44 F7 202 1.068
44 F7 203 2.045
44 F7 204 2.533
44 F7 205 2.533
44 F7 206 2.045
44 F7 207 1.556
44 F7 208 1.556
44 F7 209 2.045
44 F7 210 2.533
44 F7 211 3.021
44 F7 212 2.533
44 F7 213 1.556
44 F7 214 0.092
44 F7 215 -1.862
44 F7 216 -3.326
44 F7 217 -4.303
44 F7 218 -4.303
44 F7 219 -3.326
44 F7 220 -2.350
44 F7 221 -1.862
44 F7 222 -1.862
44 F7 223 -2.350
44 F7 224 -3.326
44 F7 225 -3.326
44 F7 226 -2.838
44 F7 227 -1.862
44 F7 228 -0.885
44 F7 229 -1.373
44 F7 230 -2.838
44 F7 231 -5.280
44 F7 232 -5.768
44 F7 233 -4.791
44 F7 234 -2.350
44 F7 235 0.092
44 F7 236 1.556
44 F7 237 2.045
44 F7 238 1.556
44 F7 239 1.556
44 F7 240 1.068
44 F7 241 0.580
44 F7 242 -0.397
44 F7 243 -1.862
44 F7 244 -3.326
44 F7 245 -2.838
44 F7 246 -0.397
44 F7 247 3.510
44 F7 248 6.927
44 F7 249 8.392
44 F7 250 8.392
44 F7 251 6.927
44 F7 252 5.951
44 F7 253 5.463
44 F7 254 5.463
44 F7 255 4.486
# F8 chan 3
44 F8 0 6.154
44 F8 1 3.225
44 F8 2 1.272
44 F8 3 0.783
44 F8 4 3.225
44 F8 5 6.643
44 F8 6 9.084
44 F8 7 10.549
44 F8 8 9.572
44 F8 9 8.108
44 F8 10 7.131
44 F8 11 6.643
44 F8 12 6.643
44 F8 13 7.619
44 F8 14 7.619
44 F8 15 6.154
44 F8 16 4.690
44 F8 17 3.225
44 F8 18 3.225
44 F8 19 4.690
44 F8 20 6.643
44 F8 21 8.108
44 F8 22 8.596
44 F8 23 7.131
44 F8 24 4.201
44 F8 25 2.248
44 F8 26 1.272
44 F8 27 2.248
44 F8 28 4.690
44 F8 29 8.108
44 F8 30 10.549
44 F8 31 12.014
44 F8 32 11.037
44 F8 33 9.572
44 F8 34 7.131
44 F8 35 4.690
44 F8 36 2.736
44 F8 37 1.272
44 F8 38 1.272
44 F8 39 2.248
44 F8 40 4.201
44 F8 41 5.666
44 F8 42 5.666
44 F8 43 4.690
44 F8 44 3.713
44 F8 45 3.713
44 F8 46 4.201
44 F8 47 4.690
44 F8 48 3.713
44 F8 49 1.272
44 F8 50 -1.658
44 F8 51 -4.100
44 F8 52 -5.564
44 F8 53 -5.564
44 F8 54 -4.588
44 F8 55 -3.123
44 F8 56 -1.170
44 F8 57 -0.193
44 F8 58 0.783
44 F8 59 0.295
44 F8 60 1.272
44 F8 61 2.736
44 F8 62 4.690
44 F8 63 6.154
44 F8 64 5.666
44 F8 65 3.713
44 F8 66 1.272
44 F8 67 0.783
44 F8 68 2.248
44 F8 69 4.201
44 F8 70 6.154
44 F8 71 7.131
44 F8 72 7.619
44 F8 73 9.084
44 F8 74 11.037
44 F8 75 12.014
44 F8 76 11.037
44 F8 77 10.061
44 F8 78 8.596
44 F8 79 8.108
44 F8 80 8.596
44 F8 81 8.596
44 F8 82 7.131
44 F8 83 5.178
44 F8 84 3.225
44 F8 85 3.225
44 F8 86 4.201
44 F8 87 4.690
44 F8 88 4.690
44 F8 89 4.201
44 F8 90 3.713
44 F8 91 3.713
44 F8 92 5.178
44 F8 93 6.643
44 F8 94 8.108
44 F8 95 8.108
44 F8 96 6.643
44 F8 97 4.690
44 F8 98 2.248
44 F8 99 1.272
44 F8 100 0.783
44 F8 101 1.760
44 F8 102 4.201
44 F8 103 6.154
44 F8 104 7.619
44 F8 105 8.108
44 F8 106 8.108
44 F8 107 8.108
44 F8 108 7.619
44 F8 109 7.131
44 F8 110 6.643
44 F8 111 6.643
44 F8 112 6.643
44 F8 113 6.643
44 F8 114 6.643
44 F8 115 5.666
44 F8 116 4.201
44 F8 117 2.736
44 F8 118 1.760
44 F8 119 2.248
44 F8 120 4.201
44 F8 121 6.154
44 F8 122 7.131
44 F8 123 6.154
44 F8 124 4.690
44 F8 125 4.201
44 F8 126 4.201
44 F8 127 3.713
44 F8 128 2.736
44 F8 129 0.295
44 F8 130 -2.635
44 F8 131 -4.588
44 F8 132 -5.076
44 F8 133 -4.588
44 F8 134 -4.100
44 F8 135 -4.100
44 F8 136 -4.100
44 F8 137 -3.123
44 F8 138 -0.682
44 F8 139 1.760
44 F8 140 2.736
44 F8 141 1.760
44 F8 142 -0.193
44 F8 143 -2.635
44 F8 144 -2.635
44 F8 145 -0.682
44 F8 146 2.248
44 F8 147 5.666
44 F8 148 8.108
44 F8 149 9.572
44 F8 150 10.061
44 F8 151 10.549
44 F8 152 11.037
44 F8 153 12.014
44 F8 154 12.990
44 F8 155 14.455
44 F8 156 16.408
44 F8 157 17.873
44 F8 158 18.850
44 F8 159 19.338
44 F8 160 19.338
44 F8 161 18.361
44 F8 162 16.408
44 F8 163 13.967
44 F8 164 12.502
44 F8 165 12.014
44 F8 166 13.479
44 F8 167 14.943
44 F8 168 15.920
44 F8 169 16.408
44 F8 170 16.408
44 F8 171 16.408
44 F8 172 16.408
44 F8 173 15.920
44 F8 174 14.943
44 F8 175 13.967
44 F8 176 12.014
44 F8 177 10.061
44 F8 178 7.131
44 F8 179 4.690
44 F8 180 2.736
44 F8 181 1.760
44 F8 182 1.760
44 F8 183 2.248
44 F8 184 2.736
44 F8 185 3.225
44 F8 186 3.713
44 F8 187 4.201
44 F8 188 5.178
44 F8 189 7.131
44 F8 190 9.084
44 F8 191 9.572
44 F8 192 9.084
44 F8 193 7.131
44 F8 194 4.201
44 F8 195 1.760
44 F8 196 -0.193
44 F8 197 -0.682
44 F8 198 -0.682
44 F8 199 -0.193
44 F8 200 0.783
44 F8 201 0.783
44 F8 202 1.272
44 F8 203 0.783
44 F8 204 0.783
44 F8 205 1.760
44 F8 206 2.736
44 F8 207 3.713
44 F8 208 4.201
44 F8 209 4.201
44 F8 210 3.713
44 F8 211 3.225
44 F8 212 3.225
44 F8 213 2.248
44 F8 214 1.272
44 F8 215 -0.193
44 F8 216 -1.170
44 F8 217 -1.658
44 F8 218 -2.635
44 F8 219 -3.123
44 F8 220 -4.100
44 F8 221 -5.076
44 F8 222 -5.564
44 F8 223 -4.588
44 F8 224 -4.100
44 F8 225 -3.611
44 F8 226 -3.611
44 F8 227 -4.100
44 F8 228 -4.588
44 F8 229 -5.564
44 F8 230 -5.564
44 F8 231 -4.588
44 F8 232 -2.146
44 F8 233 1.760
44 F8 234 6.154
44 F8 235 10.061
44 F8 236 12.502
44 F8 237 12.014
44 F8 238 10.549
44 F8 239 8.596
44 F8 240 7.619
44 F8 241 6.643
44 F8 242 5.666
44 F8 243 4.201
44 F8 244 3.225
44 F8 245 3.225
44 F8 246 4.201
44 F8 247 6.154
44 F8 248 8.596
44 F8 249 9.084
44 F8 250 8.108
44 F8 251 5.666
44 F8 252 2.248
44 F8 253 0.295
44 F8 254 -0.682
44 F8 255 -0.682
# AF1 chan 4
44 AF1 0 4.842
44 AF1 1 1.424
44 AF1 2 -1.017
44 AF1 3 -1.017
44 AF1 4 0.936
44 AF1 5 3.866
44 AF1 6 5.330
44 AF1 7 5.330
44 AF1 8 3.866
44 AF1 9 2.889
44 AF1 10 3.377
44 AF1 11 5.330
44 AF1 12 7.284
44 AF1 13 9.237
44 AF1 14 9.725
44 AF1 15 9.237
44 AF1 16 7.772
44 AF1 17 5.330
44 AF1 18 3.377
44 AF1 19 2.401
44 AF1 20 2.401
44 AF1 21 2.889
44 AF1 22 3.377
44 AF1 23 2.401
44 AF1 24 0.448
44 AF1 25 -1.017
44 AF1 26 -1.506
44 AF1 27 0.448
44 AF1 28 2.889
44 AF1 29 4.354
44 AF1 30 4.842
44 AF1 31 3.866
44 AF1 32 2.889
44 AF1 33 2.889
44 AF1 34 2.889
44 AF1 35 1.912
44 AF1 36 -0.041
44 AF1 37 -2.482
44 AF1 38 -3.459
44 AF1 39 -2.482
44 AF1 40 -1.017
44 AF1 41 0.448
44 AF1 42 -0.529
44 AF1 43 -2.970
44 AF1 44 -5.412
44 AF1 45 -5.900
44 AF1 46 -5.412
44 AF1 47 -3.947
44 AF1 48 -3.459
44 AF1 49 -3.947
44 AF1 50 -5.412
44 AF1 51 -5.900
44 AF1 52 -5.412
44 AF1 53 -4.435
44 AF1 54 -2.970
44 AF1 55 -1.506
44 AF1 56 -0.041
44 AF1 57 1.424
44 AF1 58 2.401
44 AF1 59 2.401
44 AF1 60 1.912
44 AF1 61 0.448
44 AF1 62 -0.529
44 AF1 63 -2.970
44 AF1 64 -5.900
44 AF1 65 -9.318
44 AF1 66 -11.759
44 AF1 67 -11.759
44 AF1 68 -9.806
44 AF1 69 -6.388
44 AF1 70 -3.947
44 AF1 71 -3.459
44 AF1 72 -4.924
44 AF1 73 -6.388
44 AF1 74 -7.853
44 AF1 75 -8.341
44 AF1 76 -7.853
44 AF1 77 -7.853
44 AF1 78 -6.877
44 AF1 79 -6.388
44 AF1 80 -6.388
44 AF1 81 -6.877
44 AF1 82 -8.830
44 AF1 83 -10.783
44 AF1 84 -12.248
44 AF1 85 -12.736
44 AF1 86 -13.224
44 AF1 87 -12.736
44 AF1 88 -12.736
44 AF1 89 -11.759
44 AF1 90 -10.783
44 AF1 91 -9.318
44 AF1 92 -7.853
44 AF1 93 -6.388
44 AF1 94 -5.900
44 AF1 95 -6.388
44 AF1 96 -7.853
44 AF1 97 -10.295
44 AF1 98 -11.759
44 AF1 99 -11.759
44 AF1 100 -10.295
44 AF1 101 -8.341
44 AF1 102 -6.388
44 AF1 103 -5.412
44 AF1 104 -4.924
44 AF1 105 -4.435
44 AF1 106 -3.947
44 AF1 107 -3.947
44 AF1 108 -3.947
44 AF1 109 -4.435
44 AF1 110 -5.412
44 AF1 111 -5.900
44 AF1 112 -5.412
44 AF1 113 -4.435
44 AF1 114 -3.459
44 AF1 115 -3.459
44 AF1 116 -5.412
44 AF1 117 -7.365
44 AF1 118 -8.830
44 AF1 119 -8.830
44 AF1 120 -7.853
44 AF1 121 -6.388
44 AF1 122 -6.388
44 AF1 123 -8.341
44 AF1 124 -9.806
44 AF1 125 -10.783
44 AF1 126 -10.783
44 AF1 127 -10.295
44 AF1 128 -11.271
44 AF1 129 -14.201
44 AF1 130 -16.642
44 AF1 131 -18.107
44 AF1 132 -17.131
44 AF1 133 -14.201
44 AF1 134 -11.759
44 AF1 135 -10.783
44 AF1 136 -10.295
44 AF1 137 -9.318
44 AF1 138 -6.877
44 AF1 139 -3.947
44 AF1 140 -1.994
44 AF1 141 -1.994
44 AF1 142 -3.947
44 AF1 143 -6.388
44 AF1 144 -7.365
44 AF1 145 -6.877
44 AF1 146 -4.435
44 AF1 147 -1.506
44 AF1 148 0.936
44 AF1 149 2.889
44 AF1 150 4.354
44 AF1 151 5.819
44 AF1 152 5.819
44 AF1 153 5.819
44 AF1 154 4.842
44 AF1 155 4.354
44 AF1 156 4.842
44 AF1 157 5.819
44 AF1 158 8.260
44 AF1 159 10.213
44 AF1 160 11.678
44 AF1 161 11.678
44 AF1 162 10.213
44 AF1 163 7.772
44 AF1 164 5.330
44 AF1 165 3.866
44 AF1 166 2.889
44 AF1 167 2.401
44 AF1 168 1.912
44 AF1 169 1.424
44 AF1 170 0.936
44 AF1 171 1.424
44 AF1 172 1.912
44 AF1 173 2.889
44 AF1 174 2.889
44 AF1 175 1.912
44 AF1 176 0.936
44 AF1 177 -0.529
44 AF1 178 -1.994
44 AF1 179 -2.482
44 AF1 180 -2.970
44 AF1 181 -2.482
44 AF1 182 -2.482
44 AF1 183 -2.482
44 AF1 184 -2.482
44 AF1 185 -2.970
44 AF1 186 -2.970
44 AF1 187 -3.459
44 AF1 188 -3.459
44 AF1 189 -2.970
44 AF1 190 -2.482
44 AF1 191 -1.994
44 AF1 192 -1.017
44 AF1 193 -1.506
44 AF1 194 -2.482
44 AF1 195 -4.435
44 AF1 196 -6.877
44 AF1 197 -8.830
44 AF1 198 -10.783
44 AF1 199 -11.271
44 AF1 200 -11.271
44 AF1 201 -10.295
44 AF1 202 -8.341
44 AF1 203 -7.365
44 AF1 204 -7.365
44 AF1 205 -7.853
44 AF1 206 -9.806
44 AF1 207 -11.271
44 AF1 208 -11.759
44 AF1 209 -11.759
44 AF1 210 -9.806
44 AF1 211 -8.341
44 AF1 212 -7.853
44 AF1 213 -8.830
44 AF1 214 -11.271
44 AF1 215 -14.689
44 AF1 216 -17.619
44 AF1 217 -19.572
44 AF1 218 -20.060
44 AF1 219 -20.060
44 AF1 220 -19.084
44 AF1 221 -18.595
44 AF1 222 -18.107
44 AF1 223 -18.595
44 AF1 224 -19.084
44 AF1 225 -18.595
44 AF1 226 -18.595
44 AF1 227 -18.107
44 AF1 228 -18.107
44 AF1 229 -17.619
44 AF1 230 -17.131
44 AF1 231 -16.154
44 AF1 232 -15.177
44 AF1 233 -13.224
44 AF1 234 -12.248
44 AF1 235 -11.271
44 AF1 236 -10.783
44 AF1 237 -11.271
44 AF1 238 -10.295
44 AF1 239 -9.318
44 AF1 240 -7.853
44 AF1 241 -6.388
44 AF1 242 -6.877
44 AF1 243 -8.341
44 AF1 244 -10.295
44 AF1 245 -10.783
44 AF1 246 -8.830
44 AF1 247 -5.900
44 AF1 248 -2.482
44 AF1 249 -1.506
44 AF1 250 -2.970
44 AF1 251 -5.412
44 AF1 252 -7.853
44 AF1 253 -8.341
44 AF1 254 -7.365
44 AF1 255 -6.877
# AF2 chan 5
44 AF2 0 6.460
44 AF2 1 3.530
44 AF2 2 1.577
44 AF2 3 2.065
44 AF2 4 4.506
44 AF2 5 7.924
44 AF2 6 10.366
44 AF2 7 10.366
44 AF2 8 8.901
44 AF2 9 7.924
44 AF2 10 7.436
44 AF2 11 7.924
44 AF2 12 9.389
44 AF2 13 10.366
44 AF2 14 10.854
44 AF2 15 10.366
44 AF2 16 8.901
44 AF2 17 7.436
44 AF2 18 5.483
44 AF2 19 4.506
44 AF2 20 4.995
44 AF2 21 5.483
44 AF2 22 5.971
44 AF2 23 4.506
44 AF2 24 2.065
44 AF2 25 -0.376
44 AF2 26 -0.865
44 AF2 27 0.600
44 AF2 28 3.042
44 AF2 29 5.483
44 AF2 30 5.483
44 AF2 31 4.995
44 AF2 32 3.530
44 AF2 33 3.042
44 AF2 34 2.553
44 AF2 35 1.577
44 AF2 36 -0.865
44 AF2 37 -3.306
44 AF2 38 -4.771
44 AF2 39 -3.794
44 AF2 40 -1.353
44 AF2 41 0.600
44 AF2 42 0.600
44 AF2 43 -0.865
44 AF2 44 -2.330
44 AF2 45 -3.306
44 AF2 46 -2.818
44 AF2 47 -1.353
44 AF2 48 -1.353
44 AF2 49 -2.330
44 AF2 50 -4.283
44 AF2 51 -5.259
44 AF2 52 -5.259
44 AF2 53 -4.283
44 AF2 54 -2.818
44 AF2 55 -1.353
44 AF2 56 -0.376
44 AF2 57 0.112
44 AF2 58 0.112
44 AF2 59 0.112
44 AF2 60 0.112
44 AF2 61 0.112
44 AF2 62 -0.376
44 AF2 63 -1.353
44 AF2 64 -4.771
44 AF2 65 -8.189
44 AF2 66 -11.119
44 AF2 67 -11.607
44 AF2 68 -9.165
44 AF2 69 -6.236
44 AF2 70 -4.283
44 AF2 71 -3.794
44 AF2 72 -5.259
44 AF2 73 -7.212
44 AF2 74 -8.189
44 AF2 75 -8.189
44 AF2 76 -7.701
44 AF2 77 -7.212
44 AF2 78 -6.724
44 AF2 79 -5.747
44 AF2 80 -5.747
44 AF2 81 -6.236
44 AF2 82 -8.189
44 AF2 83 -9.654
44 AF2 84 -11.607
44 AF2 85 -12.095
44 AF2 86 -11.607
44 AF2 87 -11.119
44 AF2 88 -10.142
44 AF2 89 -9.165
44 AF2 90 -8.677
44 AF2 91 -7.701
44 AF2 92 -5.747
44 AF2 93 -4.283
44 AF2 94 -3.306
44 AF2 95 -3.306
44 AF2 96 -5.259
44 AF2 97 -7.212
44 AF2 98 -8.677
44 AF2 99 -8.189
44 AF2 100 -6.724
44 AF2 101 -5.259
44 AF2 102 -3.306
44 AF2 103 -2.818
44 AF2 104 -2.330
44 AF2 105 -2.330
44 AF2 106 -2.330
44 AF2 107 -1.841
44 AF2 108 -1.841
44 AF2 109 -2.330
44 AF2 110 -3.306
44 AF2 111 -4.283
44 AF2 112 -4.283
44 AF2 113 -3.306
44 AF2 114 -2.330
44 AF2 115 -2.330
44 AF2 116 -3.306
44 AF2 117 -5.747
44 AF2 118 -7.212
44 AF2 119 -8.189
44 AF2 120 -7.212
44 AF2 121 -6.236
44 AF2 122 -6.236
44 AF2 123 -7.701
44 AF2 124 -9.165
44 AF2 125 -10.142
44 AF2 126 -9.654
44 AF2 127 -9.165
44 AF2 128 -10.142
44 AF2 129 -12.095
44 AF2 130 -14.537
44 AF2 131 -16.490
44 AF2 132 -16.001
44 AF2 133 -13.560
44 AF2 134 -11.119
44 AF2 135 -9.654
44 AF2 136 -8.677
44 AF2 137 -7.701
44 AF2 138 -5.259
44 AF2 139 -3.306
44 AF2 140 -1.353
44 AF2 141 -1.353
44 AF2 142 -2.330
44 AF2 143 -4.283
44 AF2 144 -4.771
44 AF2 145 -3.306
44 AF2 146 -1.353
44 AF2 147 2.065
44 AF2 148 4.995
44 AF2 149 6.948
44 AF2 150 7.924
44 AF2 151 8.413
44 AF2 152 8.413
44 AF2 153 7.924
44 AF2 154 7.436
44 AF2 155 7.436
44 AF2 156 6.948
44 AF2 157 7.924
44 AF2 158 9.878
44 AF2 159 11.342
44 AF2 160 12.807
44 AF2 161 13.295
44 AF2 162 12.319
44 AF2 163 10.366
44 AF2 164 7.924
44 AF2 165 6.948
44 AF2 166 5.971
44 AF2 167 5.971
44 AF2 168 5.483
44 AF2 169 4.995
44 AF2 170 4.506
44 AF2 171 3.530
44 AF2 172 3.530
44 AF2 173 3.530
44 AF2 174 3.530
44 AF2 175 3.042
44 AF2 176 1.088
44 AF2 177 -0.865
44 AF2 178 -2.818
44 AF2 179 -3.794
44 AF2 180 -3.306
44 AF2 181 -3.306
44 AF2 182 -3.794
44 AF2 183 -3.794
44 AF2 184 -3.794
44 AF2 185 -3.306
44 AF2 186 -3.306
44 AF2 187 -3.306
44 AF2 188 -3.794
44 AF2 189 -3.794
44 AF2 190 -3.306
44 AF2 191 -1.841
44 AF2 192 -0.865
44 AF2 193 -0.865
44 AF2 194 -2.330
44 AF2 195 -4.771
44 AF2 196 -7.701
44 AF2 197 -9.654
44 AF2 198 -11.119
44 AF2 199 -11.607
44 AF2 200 -11.119
44 AF2 201 -9.654
44 AF2 202 -8.189
44 AF2 203 -6.236
44 AF2 204 -5.747
44 AF2 205 -6.236
44 AF2 206 -7.701
44 AF2 207 -9.165
44 AF2 208 -9.654
44 AF2 209 -9.654
44 AF2 210 -7.701
44 AF2 211 -6.236
44 AF2 212 -5.259
44 AF2 213 -5.747
44 AF2 214 -8.189
44 AF2 215 -11.119
44 AF2 216 -14.048
44 AF2 217 -16.001
44 AF2 218 -16.978
44 AF2 219 -17.466
44 AF2 220 -17.955
44 AF2 221 -17.955
44 AF2 222 -17.466
44 AF2 223 -16.978
44 AF2 224 -16.490
44 AF2 225 -16.490
44 AF2 226 -16.490
44 AF2 227 -16.978
44 AF2 228 -16.978
44 AF2 229 -16.978
44 AF2 230 -15.513
44 AF2 231 -13.560
44 AF2 232 -11.607
44 AF2 233 -9.654
44 AF2 234 -8.677
44 AF2 235 -7.212
44 AF2 236 -6.724
44 AF2 237 -6.236
44 AF2 238 -5.747
44 AF2 239 -4.283
44 AF2 240 -2.818
44 AF2 241 -1.841
44 AF2 242 -2.330
44 AF2 243 -3.794
44 AF2 244 -5.747
44 AF2 245 -6.236
44 AF2 246 -4.771
44 AF2 247 -1.841
44 AF2 248 1.088
44 AF2 249 2.553
44 AF2 250 1.088
44 AF2 251 -2.330
44 AF2 252 -5.747
44 AF2 253 -7.212
44 AF2 254 -6.724
44 AF2 255 -5.747
# FZ chan 6
44 FZ 0 3.184
44 FZ 1 0.743
44 FZ 2 -0.234
44 FZ 3 0.743
44 FZ 4 2.696
44 FZ 5 4.649
44 FZ 6 5.625
44 FZ 7 6.114
44 FZ 8 5.137
44 FZ 9 4.161
44 FZ 10 4.649
44 FZ 11 5.137
44 FZ 12 6.602
44 FZ 13 7.579
44 FZ 14 8.555
44 FZ 15 8.067
44 FZ 16 7.090
44 FZ 17 5.625
44 FZ 18 4.161
44 FZ 19 3.184
44 FZ 20 3.184
44 FZ 21 3.672
44 FZ 22 3.672
44 FZ 23 3.184
44 FZ 24 1.719
44 FZ 25 0.254
44 FZ 26 0.254
44 FZ 27 1.719
44 FZ 28 2.696
44 FZ 29 3.184
44 FZ 30 3.184
44 FZ 31 2.207
44 FZ 32 1.231
44 FZ 33 1.231
44 FZ 34 2.207
44 FZ 35 1.719
44 FZ 36 0.254
44 FZ 37 -1.699
44 FZ 38 -2.675
44 FZ 39 -2.187
44 FZ 40 -0.234
44 FZ 41 1.719
44 FZ 42 2.207
44 FZ 43 1.231
44 FZ 44 -0.722
44 FZ 45 -2.187
44 FZ 46 -2.187
44 FZ 47 -1.211
44 FZ 48 -0.234
44 FZ 49 0.254
44 FZ 50 -0.234
44 FZ 51 -0.722
44 FZ 52 -0.722
44 FZ 53 -0.234
44 FZ 54 0.254
44 FZ 55 1.231
44 FZ 56 2.207
44 FZ 57 2.696
44 FZ 58 2.696
44 FZ 59 2.207
44 FZ 60 1.231
44 FZ 61 -0.234
44 FZ 62 -1.699
44 FZ 63 -4.140
44 FZ 64 -7.070
44 FZ 65 -10.000
44 FZ 66 -11.953
44 FZ 67 -11.953
44 FZ 68 -10.000
44 FZ 69 -8.046
44 FZ 70 -6.093
44 FZ 71 -5.605
44 FZ 72 -6.582
44 FZ 73 -8.046
44 FZ 74 -9.511
44 FZ 75 -10.000
44 FZ 76 -10.000
44 FZ 77 -10.000
44 FZ 78 -9.511
44 FZ 79 -9.023
44 FZ 80 -9.023
44 FZ 81 -9.511
44 FZ 82 -10.976
44 FZ 83 -12.441
44 FZ 84 -13.418
44 FZ 85 -14.394
44 FZ 86 -14.394
44 FZ 87 -14.394
44 FZ 88 -13.418
44 FZ 89 -12.929
44 FZ 90 -11.464
44 FZ 91 -10.000
44 FZ 92 -9.023
44 FZ 93 -7.558
44 FZ 94 -7.558
44 FZ 95 -7.558
44 FZ 96 -9.511
44 FZ 97 -10.976
44 FZ 98 -11.953
44 FZ 99 -11.953
44 FZ 100 -10.488
44 FZ 101 -8.535
44 FZ 102 -6.582
44 FZ 103 -6.093
44 FZ 104 -6.582
44 FZ 105 -7.070
44 FZ 106 -7.070
44 FZ 107 -6.582
44 FZ 108 -6.093
44 FZ 109 -6.582
44 FZ 110 -7.558
44 FZ 111 -9.023
44 FZ 112 -9.511
44 FZ 113 -8.535
44 FZ 114 -7.558
44 FZ 115 -7.070
44 FZ 116 -7.558
44 FZ 117 -9.511
44 FZ 118 -10.976
44 FZ 119 -11.464
44 FZ 120 -10.976
44 FZ 121 -10.488
44 FZ 122 -10.000
44 FZ 123 -11.464
44 FZ 124 -12.441
44 FZ 125 -12.929
44 FZ 126 -12.929
44 FZ 127 -11.953
44 FZ 128 -11.953
44 FZ 129 -13.418
44 FZ 130 -15.371
44 FZ 131 -16.347
44 FZ 132 -15.859
44 FZ 133 -13.418
44 FZ 134 -10.976
44 FZ 135 -8.535
44 FZ 136 -7.558
44 FZ 137 -6.582
44 FZ 138 -5.117
44 FZ 139 -3.164
44 FZ 140 -1.699
44 FZ 141 -1.699
44 FZ 142 -2.675
44 FZ 143 -3.652
44 FZ 144 -4.140
44 FZ 145 -3.652
44 FZ 146 -1.699
44 FZ 147 0.254
44 FZ 148 2.207
44 FZ 149 3.184
44 FZ 150 4.161
44 FZ 151 5.625
44 FZ 152 6.114
44 FZ 153 6.602
44 FZ 154 6.114
44 FZ 155 4.649
44 FZ 156 3.672
44 FZ 157 3.672
44 FZ 158 4.649
44 FZ 159 6.114
44 FZ 160 8.555
44 FZ 161 9.043
44 FZ 162 8.555
44 FZ 163 6.602
44 FZ 164 4.161
44 FZ 165 2.207
44 FZ 166 1.231
44 FZ 167 0.743
44 FZ 168 0.254
44 FZ 169 -0.722
44 FZ 170 -1.699
44 FZ 171 -2.187
44 FZ 172 -2.675
44 FZ 173 -2.187
44 FZ 174 -1.699
44 FZ 175 -1.699
44 FZ 176 -2.187
44 FZ 177 -3.652
44 FZ 178 -5.117
44 FZ 179 -6.093
44 FZ 180 -5.605
44 FZ 181 -5.605
44 FZ 182 -4.628
44 FZ 183 -4.628
44 FZ 184 -5.117
44 FZ 185 -5.117
44 FZ 186 -5.117
44 FZ 187 -5.117
44 FZ 188 -5.605
44 FZ 189 -5.605
44 FZ 190 -5.605
44 FZ 191 -5.117
44 FZ 192 -4.140
44 FZ 193 -3.652
44 FZ 194 -4.628
44 FZ 195 -6.582
44 FZ 196 -9.023
44 FZ 197 -10.976
44 FZ 198 -12.441
44 FZ 199 -12.929
44 FZ 200 -11.953
44 FZ 201 -10.488
44 FZ 202 -8.535
44 FZ 203 -6.582
44 FZ 204 -6.582
44 FZ 205 -7.070
44 FZ 206 -9.511
44 FZ 207 -10.976
44 FZ 208 -11.464
44 FZ 209 -10.488
44 FZ 210 -9.023
44 FZ 211 -7.070
44 FZ 212 -6.582
44 FZ 213 -8.535
44 FZ 214 -10.976
44 FZ 215 -13.906
44 FZ 216 -16.347
44 FZ 217 -17.812
44 FZ 218 -17.812
44 FZ 219 -17.324
44 FZ 220 -16.836
44 FZ 221 -16.347
44 FZ 222 -16.347
44 FZ 223 -16.347
44 FZ 224 -16.347
44 FZ 225 -15.859
44 FZ 226 -15.859
44 FZ 227 -15.859
44 FZ 228 -15.371
44 FZ 229 -14.882
44 FZ 230 -14.394
44 FZ 231 -13.418
44 FZ 232 -12.929
44 FZ 233 -11.953
44 FZ 234 -10.976
44 FZ 235 -10.488
44 FZ 236 -10.000
44 FZ 237 -10.000
44 FZ 238 -9.511
44 FZ 239 -7.558
44 FZ 240 -6.093
44 FZ 241 -5.117
44 FZ 242 -5.117
44 FZ 243 -6.093
44 FZ 244 -7.070
44 FZ 245 -7.070
44 FZ 246 -6.093
44 FZ 247 -4.140
44 FZ 248 -3.164
44 FZ 249 -3.164
44 FZ 250 -4.628
44 FZ 251 -6.582
44 FZ 252 -7.558
44 FZ 253 -7.070
44 FZ 254 -6.093
44 FZ 255 -4.628
# F4 chan 7
44 F4 0 4.781
44 F4 1 2.828
44 F4 2 1.851
44 F4 3 2.828
44 F4 4 5.758
44 F4 5 8.687
44 F4 6 10.152
44 F4 7 10.640
44 F4 8 9.176
44 F4 9 7.711
44 F4 10 7.222
44 F4 11 7.222
44 F4 12 7.711
44 F4 13 8.199
44 F4 14 7.711
44 F4 15 7.222
44 F4 16 5.758
44 F4 17 4.781
44 F4 18 3.805
44 F4 19 3.805
44 F4 20 4.781
44 F4 21 5.758
44 F4 22 5.758
44 F4 23 4.781
44 F4 24 2.828
44 F4 25 1.363
44 F4 26 0.387
44 F4 27 0.875
44 F4 28 2.340
44 F4 29 3.805
44 F4 30 4.781
44 F4 31 5.269
44 F4 32 5.269
44 F4 33 4.781
44 F4 34 3.805
44 F4 35 1.851
44 F4 36 -0.102
44 F4 37 -2.543
44 F4 38 -3.520
44 F4 39 -2.543
44 F4 40 -0.102
44 F4 41 1.851
44 F4 42 2.340
44 F4 43 1.363
44 F4 44 0.387
44 F4 45 0.387
44 F4 46 0.875
44 F4 47 1.851
44 F4 48 1.363
44 F4 49 -0.102
44 F4 50 -1.567
44 F4 51 -3.031
44 F4 52 -3.031
44 F4 53 -2.543
44 F4 54 -2.055
44 F4 55 -1.567
44 F4 56 -0.590
44 F4 57 -0.102
44 F4 58 0.387
44 F4 59 -0.102
44 F4 60 0.387
44 F4 61 0.387
44 F4 62 0.387
44 F4 63 -0.590
44 F4 64 -3.031
44 F4 65 -5.961
44 F4 66 -8.403
44 F4 67 -8.891
44 F4 68 -6.449
44 F4 69 -4.008
44 F4 70 -2.055
44 F4 71 -2.055
44 F4 72 -3.520
44 F4 73 -4.496
44 F4 74 -4.985
44 F4 75 -4.496
44 F4 76 -4.008
44 F4 77 -4.008
44 F4 78 -3.520
44 F4 79 -3.520
44 F4 80 -3.520
44 F4 81 -4.008
44 F4 82 -5.473
44 F4 83 -6.938
44 F4 84 -7.914
44 F4 85 -8.403
44 F4 86 -7.914
44 F4 87 -7.426
44 F4 88 -6.449
44 F4 89 -6.449
44 F4 90 -5.961
44 F4 91 -4.496
44 F4 92 -3.031
44 F4 93 -1.078
44 F4 94 -0.102
44 F4 95 0.387
44 F4 96 -0.590
44 F4 97 -2.543
44 F4 98 -4.496
44 F4 99 -4.985
44 F4 100 -4.008
44 F4 101 -2.543
44 F4 102 -0.590
44 F4 103 0.387
44 F4 104 0.387
44 F4 105 0.387
44 F4 106 -0.102
44 F4 107 -0.102
44 F4 108 -0.102
44 F4 109 -0.102
44 F4 110 -1.078
44 F4 111 -2.055
44 F4 112 -2.055
44 F4 113 -1.567
44 F4 114 -1.078
44 F4 115 -0.590
44 F4 116 -1.078
44 F4 117 -3.031
44 F4 118 -4.496
44 F4 119 -4.985
44 F4 120 -4.008
44 F4 121 -3.031
44 F4 122 -2.543
44 F4 123 -4.008
44 F4 124 -5.961
44 F4 125 -7.426
44 F4 126 -6.938
44 F4 127 -5.961
44 F4 128 -5.961
44 F4 129 -7.426
44 F4 130 -9.867
44 F4 131 -11.820
44 F4 132 -12.309
44 F4 133 -10.844
44 F4 134 -8.891
44 F4 135 -6.938
44 F4 136 -5.961
44 F4 137 -4.985
44 F4 138 -3.520
44 F4 139 -2.055
44 F4 140 -0.590
44 F4 141 -1.078
44 F4 142 -3.031
44 F4 143 -4.496
44 F4 144 -4.985
44 F4 145 -3.031
44 F4 146 -0.102
44 F4 147 2.828
44 F4 148 4.781
44 F4 149 5.758
44 F4 150 6.246
44 F4 151 6.734
44 F4 152 6.734
44 F4 153 6.734
44 F4 154 6.734
44 F4 155 6.734
44 F4 156 6.734
44 F4 157 7.222
44 F4 158 7.711
44 F4 159 8.687
44 F4 160 9.176
44 F4 161 9.176
44 F4 162 8.687
44 F4 163 7.711
44 F4 164 6.246
44 F4 165 5.758
44 F4 166 5.758
44 F4 167 5.758
44 F4 168 5.758
44 F4 169 4.781
44 F4 170 3.805
44 F4 171 2.828
44 F4 172 2.340
44 F4 173 2.340
44 F4 174 2.828
44 F4 175 1.851
44 F4 176 0.875
44 F4 177 -0.590
44 F4 178 -2.055
44 F4 179 -3.031
44 F4 180 -4.008
44 F4 181 -4.985
44 F4 182 -5.961
44 F4 183 -5.961
44 F4 184 -5.961
44 F4 185 -4.985
44 F4 186 -4.008
44 F4 187 -4.008
44 F4 188 -4.496
44 F4 189 -4.985
44 F4 190 -4.496
44 F4 191 -3.520
44 F4 192 -3.031
44 F4 193 -3.031
44 F4 194 -4.496
44 F4 195 -6.938
44 F4 196 -9.379
44 F4 197 -11.332
44 F4 198 -11.820
44 F4 199 -11.332
44 F4 200 -10.356
44 F4 201 -9.379
44 F4 202 -7.914
44 F4 203 -6.449
44 F4 204 -5.473
44 F4 205 -5.473
44 F4 206 -6.449
44 F4 207 -6.938
44 F4 208 -7.914
44 F4 209 -7.914
44 F4 210 -6.938
44 F4 211 -5.961
44 F4 212 -5.473
44 F4 213 -5.961
44 F4 214 -7.914
44 F4 215 -9.867
44 F4 216 -11.820
44 F4 217 -13.285
44 F4 218 -13.774
44 F4 219 -13.774
44 F4 220 -13.285
44 F4 221 -12.797
44 F4 222 -12.797
44 F4 223 -12.797
44 F4 224 -12.797
44 F4 225 -13.774
44 F4 226 -14.262
44 F4 227 -14.262
44 F4 228 -13.774
44 F4 229 -12.797
44 F4 230 -10.844
44 F4 231 -9.379
44 F4 232 -7.426
44 F4 233 -5.961
44 F4 234 -4.496
44 F4 235 -3.520
44 F4 236 -3.031
44 F4 237 -3.031
44 F4 238 -3.031
44 F4 239 -2.055
44 F4 240 -0.590
44 F4 241 -0.102
44 F4 242 -0.590
44 F4 243 -2.055
44 F4 244 -3.520
44 F4 245 -4.008
44 F4 246 -3.520
44 F4 247 -1.567
44 F4 248 0.875
44 F4 249 1.851
44 F4 250 0.875
44 F4 251 -2.055
44 F4 252 -5.473
44 F4 253 -7.426
44 F4 254 -7.914
44 F4 255 -7.426
# F3 chan 8
44 F3 0 2.869
44 F3 1 0.427
44 F3 2 -1.038
44 F3 3 -1.038
44 F3 4 1.404
44 F3 5 2.869
44 F3 6 4.333
44 F3 7 3.845
44 F3 8 2.380
44 F3 9 1.404
44 F3 10 1.404
44 F3 11 2.869
44 F3 12 5.310
44 F3 13 7.263
44 F3 14 8.728
44 F3 15 8.728
44 F3 16 6.775
44 F3 17 4.822
44 F3 18 2.380
44 F3 19 1.404
44 F3 20 1.404
44 F3 21 1.892
44 F3 22 2.380
44 F3 23 2.380
44 F3 24 0.916
44 F3 25 -0.061
44 F3 26 0.427
44 F3 27 1.892
44 F3 28 3.845
44 F3 29 4.822
44 F3 30 4.822
44 F3 31 3.845
44 F3 32 2.380
44 F3 33 2.380
44 F3 34 2.380
44 F3 35 1.892
44 F3 36 0.916
44 F3 37 -0.549
44 F3 38 -1.526
44 F3 39 -1.038
44 F3 40 -0.061
44 F3 41 0.916
44 F3 42 0.427
44 F3 43 -1.526
44 F3 44 -3.479
44 F3 45 -4.944
44 F3 46 -4.944
44 F3 47 -3.967
44 F3 48 -2.502
44 F3 49 -2.502
44 F3 50 -2.991
44 F3 51 -2.991
44 F3 52 -2.991
44 F3 53 -2.502
44 F3 54 -1.526
44 F3 55 -0.549
44 F3 56 0.916
44 F3 57 2.380
44 F3 58 2.869
44 F3 59 2.869
44 F3 60 1.892
44 F3 61 0.427
44 F3 62 -1.526
44 F3 63 -3.479
44 F3 64 -5.920
44 F3 65 -8.362
44 F3 66 -9.338
44 F3 67 -9.338
44 F3 68 -7.385
44 F3 69 -4.456
44 F3 70 -2.502
44 F3 71 -2.014
44 F3 72 -2.991
44 F3 73 -3.967
44 F3 74 -5.432
44 F3 75 -6.409
44 F3 76 -6.409
44 F3 77 -5.920
44 F3 78 -5.432
44 F3 79 -4.456
44 F3 80 -4.944
44 F3 81 -5.920
44 F3 82 -7.874
44 F3 83 -9.338
44 F3 84 -10.315
44 F3 85 -9.827
44 F3 86 -9.827
44 F3 87 -9.338
44 F3 88 -8.850
44 F3 89 -8.850
44 F3 90 -8.362
44 F3 91 -7.874
44 F3 92 -6.897
44 F3 93 -5.920
44 F3 94 -5.432
44 F3 95 -5.920
44 F3 96 -7.385
44 F3 97 -8.850
44 F3 98 -10.315
44 F3 99 -10.315
44 F3 100 -9.338
44 F3 101 -7.874
44 F3 102 -5.920
44 F3 103 -4.944
44 F3 104 -4.944
44 F3 105 -4.944
44 F3 106 -5.432
44 F3 107 -5.432
44 F3 108 -5.432
44 F3 109 -5.432
44 F3 110 -5.432
44 F3 111 -5.432
44 F3 112 -5.432
44 F3 113 -4.944
44 F3 114 -4.456
44 F3 115 -3.967
44 F3 116 -4.456
44 F3 117 -5.920
44 F3 118 -6.409
44 F3 119 -6.409
44 F3 120 -5.920
44 F3 121 -5.432
44 F3 122 -5.920
44 F3 123 -6.897
44 F3 124 -8.362
44 F3 125 -8.850
44 F3 126 -8.850
44 F3 127 -8.362
44 F3 128 -9.338
44 F3 129 -11.292
44 F3 130 -13.245
44 F3 131 -14.709
44 F3 132 -13.733
44 F3 133 -11.780
44 F3 134 -10.315
44 F3 135 -9.338
44 F3 136 -8.850
44 F3 137 -7.874
44 F3 138 -5.432
44 F3 139 -2.991
44 F3 140 -1.038
44 F3 141 -1.038
44 F3 142 -2.991
44 F3 143 -5.432
44 F3 144 -7.385
44 F3 145 -7.385
44 F3 146 -5.920
44 F3 147 -3.967
44 F3 148 -2.502
44 F3 149 -0.549
44 F3 150 0.916
44 F3 151 1.892
44 F3 152 2.380
44 F3 153 1.892
44 F3 154 1.892
44 F3 155 1.892
44 F3 156 2.380
44 F3 157 3.845
44 F3 158 5.798
44 F3 159 8.240
44 F3 160 9.216
44 F3 161 8.728
44 F3 162 6.775
44 F3 163 4.333
44 F3 164 1.892
44 F3 165 0.427
44 F3 166 -0.549
44 F3 167 -1.038
44 F3 168 -1.038
44 F3 169 -1.526
44 F3 170 -1.038
44 F3 171 -0.549
44 F3 172 0.427
44 F3 173 1.404
44 F3 174 1.404
44 F3 175 1.404
44 F3 176 0.427
44 F3 177 -0.061
44 F3 178 -1.038
44 F3 179 -1.526
44 F3 180 -1.526
44 F3 181 -1.038
44 F3 182 -0.549
44 F3 183 -0.549
44 F3 184 -1.038
44 F3 185 -1.526
44 F3 186 -2.014
44 F3 187 -2.014
44 F3 188 -1.526
44 F3 189 -1.526
44 F3 190 -1.038
44 F3 191 -1.526
44 F3 192 -1.526
44 F3 193 -2.014
44 F3 194 -2.502
44 F3 195 -2.991
44 F3 196 -4.944
44 F3 197 -6.897
44 F3 198 -8.362
44 F3 199 -9.338
44 F3 200 -8.850
44 F3 201 -7.874
44 F3 202 -6.409
44 F3 203 -5.432
44 F3 204 -5.432
44 F3 205 -6.897
44 F3 206 -8.362
44 F3 207 -9.827
44 F3 208 -10.315
44 F3 209 -9.827
44 F3 210 -8.362
44 F3 211 -6.897
44 F3 212 -6.897
44 F3 213 -8.362
44 F3 214 -11.292
44 F3 215 -14.709
44 F3 216 -17.151
44 F3 217 -17.639
44 F3 218 -16.663
44 F3 219 -15.198
44 F3 220 -13.245
44 F3 221 -12.268
44 F3 222 -12.268
44 F3 223 -13.733
44 F3 224 -15.198
44 F3 225 -15.686
44 F3 226 -15.198
44 F3 227 -13.733
44 F3 228 -11.780
44 F3 229 -10.803
44 F3 230 -11.292
44 F3 231 -12.268
44 F3 232 -12.756
44 F3 233 -12.268
44 F3 234 -11.292
44 F3 235 -10.315
44 F3 236 -9.827
44 F3 237 -9.338
44 F3 238 -9.338
44 F3 239 -8.850
44 F3 240 -7.874
44 F3 241 -7.385
44 F3 242 -7.874
44 F3 243 -8.850
44 F3 244 -10.315
44 F3 245 -10.315
44 F3 246 -8.850
44 F3 247 -6.409
44 F3 248 -3.967
44 F3 249 -2.991
44 F3 250 -3.479
44 F3 251 -4.944
44 F3 252 -5.920
44 F3 253 -5.432
44 F3 254 -4.944
44 F3 255 -4.944
# FC6 chan 9
44 FC6 0 5.676
44 FC6 1 4.211
44 FC6 2 2.747
44 FC6 3 2.747
44 FC6 4 4.211
44 FC6 5 6.165
44 FC6 6 8.118
44 FC6 7 8.118
44 FC6 8 6.653
44 FC6 9 5.676
44 FC6 10 5.188
44 FC6 11 5.676
44 FC6 12 6.653
44 FC6 13 7.141
44 FC6 14 6.165
44 FC6 15 4.700
44 FC6 16 2.747
44 FC6 17 1.770
44 FC6 18 2.258
44 FC6 19 3.235
44 FC6 20 4.700
44 FC6 21 5.676
44 FC6 22 5.676
44 FC6 23 4.700
44 FC6 24 3.235
44 FC6 25 2.258
44 FC6 26 2.258
44 FC6 27 3.235
44 FC6 28 4.700
44 FC6 29 6.165
44 FC6 30 7.629
44 FC6 31 7.629
44 FC6 32 6.653
44 FC6 33 5.188
44 FC6 34 3.235
44 FC6 35 1.282
44 FC6 36 -0.671
44 FC6 37 -1.160
44 FC6 38 -0.671
44 FC6 39 0.305
44 FC6 40 1.770
44 FC6 41 2.258
44 FC6 42 1.770
44 FC6 43 1.282
44 FC6 44 1.282
44 FC6 45 1.770
44 FC6 46 2.747
44 FC6 47 3.235
44 FC6 48 2.747
44 FC6 49 1.282
44 FC6 50 -0.671
44 FC6 51 -2.625
44 FC6 52 -3.113
44 FC6 53 -3.113
44 FC6 54 -2.625
44 FC6 55 -1.648
44 FC6 56 -1.160
44 FC6 57 -0.183
44 FC6 58 -0.183
44 FC6 59 0.305
44 FC6 60 1.282
44 FC6 61 3.235
44 FC6 62 5.188
44 FC6 63 6.165
44 FC6 64 5.188
44 FC6 65 3.235
44 FC6 66 1.282
44 FC6 67 1.282
44 FC6 68 2.747
44 FC6 69 5.188
44 FC6 70 7.141
44 FC6 71 8.118
44 FC6 72 8.118
44 FC6 73 9.094
44 FC6 74 9.583
44 FC6 75 10.559
44 FC6 76 10.071
44 FC6 77 9.094
44 FC6 78 8.118
44 FC6 79 7.629
44 FC6 80 7.629
44 FC6 81 7.141
44 FC6 82 6.165
44 FC6 83 4.211
44 FC6 84 2.258
44 FC6 85 2.258
44 FC6 86 2.747
44 FC6 87 3.235
44 FC6 88 3.723
44 FC6 89 3.235
44 FC6 90 3.235
44 FC6 91 3.235
44 FC6 92 4.211
44 FC6 93 5.188
44 FC6 94 6.165
44 FC6 95 6.165
44 FC6 96 4.700
44 FC6 97 3.235
44 FC6 98 2.258
44 FC6 99 1.282
44 FC6 100 1.282
44 FC6 101 2.258
44 FC6 102 3.723
44 FC6 103 5.188
44 FC6 104 6.653
44 FC6 105 7.629
44 FC6 106 8.118
44 FC6 107 7.629
44 FC6 108 7.141
44 FC6 109 6.165
44 FC6 110 5.676
44 FC6 111 5.188
44 FC6 112 5.188
44 FC6 113 5.188
44 FC6 114 4.700
44 FC6 115 4.211
44 FC6 116 3.235
44 FC6 117 2.258
44 FC6 118 1.770
44 FC6 119 2.258
44 FC6 120 3.723
44 FC6 121 5.188
44 FC6 122 5.676
44 FC6 123 5.188
44 FC6 124 4.700
44 FC6 125 4.211
44 FC6 126 3.723
44 FC6 127 3.723
44 FC6 128 3.235
44 FC6 129 1.770
44 FC6 130 -0.671
44 FC6 131 -2.625
44 FC6 132 -3.113
44 FC6 133 -3.113
44 FC6 134 -2.625
44 FC6 135 -1.648
44 FC6 136 -1.160
44 FC6 137 -0.183
44 FC6 138 0.793
44 FC6 139 2.258
44 FC6 140 2.747
44 FC6 141 1.770
44 FC6 142 -0.183
44 FC6 143 -1.648
44 FC6 144 -2.625
44 FC6 145 -1.160
44 FC6 146 1.282
44 FC6 147 4.211
44 FC6 148 6.165
44 FC6 149 7.141
44 FC6 150 7.629
44 FC6 151 7.629
44 FC6 152 7.629
44 FC6 153 8.606
44 FC6 154 9.583
44 FC6 155 11.047
44 FC6 156 12.024
44 FC6 157 12.512
44 FC6 158 13.000
44 FC6 159 13.000
44 FC6 160 13.000
44 FC6 161 12.024
44 FC6 162 11.047
44 FC6 163 10.071
44 FC6 164 9.583
44 FC6 165 9.583
44 FC6 166 10.559
44 FC6 167 12.024
44 FC6 168 12.512
44 FC6 169 12.512
44 FC6 170 12.512
44 FC6 171 12.024
44 FC6 172 11.536
44 FC6 173 11.047
44 FC6 174 10.071
44 FC6 175 9.094
44 FC6 176 7.629
44 FC6 177 6.165
44 FC6 178 4.700
44 FC6 179 2.747
44 FC6 180 1.282
44 FC6 181 -0.183
44 FC6 182 -0.671
44 FC6 183 -0.183
44 FC6 184 0.305
44 FC6 185 1.282
44 FC6 186 1.770
44 FC6 187 2.258
44 FC6 188 3.235
44 FC6 189 5.188
44 FC6 190 7.629
44 FC6 191 9.094
44 FC6 192 8.606
44 FC6 193 6.653
44 FC6 194 3.723
44 FC6 195 1.282
44 FC6 196 -0.671
44 FC6 197 -0.671
44 FC6 198 -0.671
44 FC6 199 -0.183
44 FC6 200 0.305
44 FC6 201 0.305
44 FC6 202 0.305
44 FC6 203 0.305
44 FC6 204 1.282
44 FC6 205 1.770
44 FC6 206 2.747
44 FC6 207 3.235
44 FC6 208 3.235
44 FC6 209 3.235
44 FC6 210 2.747
44 FC6 211 1.770
44 FC6 212 1.282
44 FC6 213 1.282
44 FC6 214 1.282
44 FC6 215 1.282
44 FC6 216 0.793
44 FC6 217 0.305
44 FC6 218 -0.671
44 FC6 219 -0.671
44 FC6 220 -0.671
44 FC6 221 -0.671
44 FC6 222 -0.671
44 FC6 223 -1.160
44 FC6 224 -1.648
44 FC6 225 -2.136
44 FC6 226 -2.625
44 FC6 227 -3.113
44 FC6 228 -2.625
44 FC6 229 -2.136
44 FC6 230 -1.160
44 FC6 231 0.305
44 FC6 232 1.770
44 FC6 233 4.211
44 FC6 234 6.165
44 FC6 235 7.629
44 FC6 236 8.118
44 FC6 237 7.629
44 FC6 238 7.141
44 FC6 239 7.141
44 FC6 240 7.141
44 FC6 241 7.141
44 FC6 242 6.165
44 FC6 243 4.211
44 FC6 244 2.258
44 FC6 245 2.258
44 FC6 246 3.235
44 FC6 247 5.676
44 FC6 248 8.118
44 FC6 249 8.606
44 FC6 250 7.629
44 FC6 251 4.211
44 FC6 252 1.770
44 FC6 253 -0.183
44 FC6 254 -0.671
44 FC6 255 -0.183
# FC5 chan 10
44 FC5 0 -0.264
44 FC5 1 -1.729
44 FC5 2 -2.218
44 FC5 3 -1.241
44 FC5 4 0.224
44 FC5 5 2.177
44 FC5 6 2.665
44 FC5 7 2.177
44 FC5 8 0.224
44 FC5 9 -1.241
44 FC5 10 -1.241
44 FC5 11 -0.264
44 FC5 12 1.689
44 FC5 13 4.130
44 FC5 14 5.595
44 FC5 15 6.083
44 FC5 16 5.107
44 FC5 17 2.665
44 FC5 18 0.224
44 FC5 19 -1.729
44 FC5 20 -2.218
44 FC5 21 -1.729
44 FC5 22 -0.753
44 FC5 23 -0.264
44 FC5 24 -0.753
44 FC5 25 -0.753
44 FC5 26 -0.264
44 FC5 27 1.689
44 FC5 28 4.130
44 FC5 29 6.571
44 FC5 30 8.036
44 FC5 31 7.548
44 FC5 32 6.083
44 FC5 33 5.107
44 FC5 34 4.130
44 FC5 35 3.642
44 FC5 36 3.153
44 FC5 37 2.177
44 FC5 38 2.177
44 FC5 39 2.177
44 FC5 40 2.665
44 FC5 41 2.665
44 FC5 42 2.177
44 FC5 43 0.712
44 FC5 44 -1.241
44 FC5 45 -2.706
44 FC5 46 -3.682
44 FC5 47 -3.682
44 FC5 48 -4.171
44 FC5 49 -4.659
44 FC5 50 -5.147
44 FC5 51 -5.147
44 FC5 52 -4.659
44 FC5 53 -3.682
44 FC5 54 -2.218
44 FC5 55 -1.241
44 FC5 56 -0.264
44 FC5 57 0.224
44 FC5 58 0.712
44 FC5 59 0.712
44 FC5 60 1.200
44 FC5 61 1.689
44 FC5 62 2.177
44 FC5 63 2.665
44 FC5 64 2.665
44 FC5 65 2.177
44 FC5 66 1.200
44 FC5 67 0.712
44 FC5 68 1.200
44 FC5 69 2.177
44 FC5 70 3.642
44 FC5 71 5.107
44 FC5 72 6.083
44 FC5 73 5.595
44 FC5 74 4.618
44 FC5 75 3.153
44 FC5 76 2.177
44 FC5 77 2.177
44 FC5 78 3.153
44 FC5 79 4.618
44 FC5 80 5.595
44 FC5 81 5.107
44 FC5 82 3.642
44 FC5 83 2.177
44 FC5 84 1.200
44 FC5 85 1.689
44 FC5 86 2.665
44 FC5 87 3.153
44 FC5 88 2.665
44 FC5 89 1.689
44 FC5 90 0.712
44 FC5 91 0.224
44 FC5 92 0.224
44 FC5 93 1.200
44 FC5 94 1.689
44 FC5 95 1.200
44 FC5 96 0.224
44 FC5 97 -1.241
44 FC5 98 -2.218
44 FC5 99 -2.706
44 FC5 100 -2.218
44 FC5 101 -1.729
44 FC5 102 -0.264
44 FC5 103 1.200
44 FC5 104 2.177
44 FC5 105 2.665
44 FC5 106 2.177
44 FC5 107 2.177
44 FC5 108 1.200
44 FC5 109 1.200
44 FC5 110 1.200
44 FC5 111 1.200
44 FC5 112 0.712
44 FC5 113 0.712
44 FC5 114 0.712
44 FC5 115 0.224
44 FC5 116 -0.264
44 FC5 117 -0.753
44 FC5 118 -0.753
44 FC5 119 -0.753
44 FC5 120 0.712
44 FC5 121 1.200
44 FC5 122 1.689
44 FC5 123 1.200
44 FC5 124 1.200
44 FC5 125 0.712
44 FC5 126 0.224
44 FC5 127 -1.241
44 FC5 128 -3.682
44 FC5 129 -6.124
44 FC5 130 -7.589
44 FC5 131 -8.565
44 FC5 132 -7.589
44 FC5 133 -6.612
44 FC5 134 -6.612
44 FC5 135 -7.589
44 FC5 136 -8.077
44 FC5 137 -7.589
44 FC5 138 -5.147
44 FC5 139 -1.241
44 FC5 140 1.689
44 FC5 141 2.177
44 FC5 142 1.200
44 FC5 143 -1.241
44 FC5 144 -3.194
44 FC5 145 -4.171
44 FC5 146 -4.171
44 FC5 147 -3.682
44 FC5 148 -2.706
44 FC5 149 -1.729
44 FC5 150 -0.264
44 FC5 151 0.712
44 FC5 152 2.177
44 FC5 153 3.153
44 FC5 154 5.107
44 FC5 155 7.060
44 FC5 156 9.013
44 FC5 157 10.966
44 FC5 158 12.431
44 FC5 159 12.431
44 FC5 160 11.454
44 FC5 161 9.501
44 FC5 162 8.036
44 FC5 163 6.083
44 FC5 164 4.618
44 FC5 165 3.153
44 FC5 166 2.177
44 FC5 167 2.177
44 FC5 168 3.153
44 FC5 169 4.618
44 FC5 170 6.571
44 FC5 171 8.036
44 FC5 172 8.525
44 FC5 173 8.525
44 FC5 174 7.060
44 FC5 175 7.060
44 FC5 176 6.571
44 FC5 177 6.571
44 FC5 178 7.060
44 FC5 179 6.571
44 FC5 180 6.083
44 FC5 181 5.595
44 FC5 182 5.595
44 FC5 183 5.595
44 FC5 184 4.618
44 FC5 185 4.130
44 FC5 186 3.642
44 FC5 187 4.130
44 FC5 188 5.595
44 FC5 189 7.548
44 FC5 190 8.525
44 FC5 191 8.525
44 FC5 192 7.548
44 FC5 193 7.548
44 FC5 194 7.548
44 FC5 195 8.036
44 FC5 196 7.548
44 FC5 197 6.083
44 FC5 198 4.130
44 FC5 199 2.177
44 FC5 200 1.689
44 FC5 201 2.177
44 FC5 202 2.665
44 FC5 203 3.153
44 FC5 204 3.153
44 FC5 205 2.177
44 FC5 206 1.200
44 FC5 207 0.224
44 FC5 208 -0.264
44 FC5 209 0.224
44 FC5 210 1.200
44 FC5 211 1.689
44 FC5 212 1.200
44 FC5 213 0.712
44 FC5 214 -0.753
44 FC5 215 -1.241
44 FC5 216 -2.218
44 FC5 217 -2.706
44 FC5 218 -2.706
44 FC5 219 -2.218
44 FC5 220 -1.729
44 FC5 221 -1.241
44 FC5 222 -0.753
44 FC5 223 -0.753
44 FC5 224 -1.729
44 FC5 225 -1.729
44 FC5 226 -2.218
44 FC5 227 -1.729
44 FC5 228 -1.729
44 FC5 229 -2.706
44 FC5 230 -3.194
44 FC5 231 -4.659
44 FC5 232 -4.659
44 FC5 233 -4.171
44 FC5 234 -2.706
44 FC5 235 -0.753
44 FC5 236 0.712
44 FC5 237 0.712
44 FC5 238 0.712
44 FC5 239 -0.264
44 FC5 240 -1.241
44 FC5 241 -1.729
44 FC5 242 -2.706
44 FC5 243 -3.194
44 FC5 244 -3.682
44 FC5 245 -2.706
44 FC5 246 -0.753
44 FC5 247 2.177
44 FC5 248 4.618
44 FC5 249 6.083
44 FC5 250 6.083
44 FC5 251 5.107
44 FC5 252 4.130
44 FC5 253 3.642
44 FC5 254 4.130
44 FC5 255 3.153
# FC2 chan 11
44 FC2 0 1.109
44 FC2 1 1.109
44 FC2 2 1.109
44 FC2 3 2.085
44 FC2 4 3.062
44 FC2 5 4.038
44 FC2 6 4.038
44 FC2 7 4.038
44 FC2 8 3.550
44 FC2 9 2.574
44 FC2 10 2.574
44 FC2 11 2.574
44 FC2 12 3.062
44 FC2 13 3.062
44 FC2 14 2.574
44 FC2 15 2.085
44 FC2 16 1.597
44 FC2 17 1.597
44 FC2 18 2.085
44 FC2 19 2.574
44 FC2 20 3.550
44 FC2 21 3.062
44 FC2 22 2.085
44 FC2 23 1.109
44 FC2 24 0.621
44 FC2 25 0.132
44 FC2 26 0.621
44 FC2 27 1.109
44 FC2 28 1.597
44 FC2 29 2.085
44 FC2 30 2.085
44 FC2 31 1.597
44 FC2 32 1.597
44 FC2 33 0.621
44 FC2 34 0.621
44 FC2 35 0.621
44 FC2 36 0.132
44 FC2 37 -0.356
44 FC2 38 -0.356
44 FC2 39 -0.356
44 FC2 40 0.132
44 FC2 41 1.597
44 FC2 42 2.574
44 FC2 43 3.062
44 FC2 44 2.574
44 FC2 45 2.574
44 FC2 46 2.085
44 FC2 47 2.574
44 FC2 48 2.574
44 FC2 49 2.574
44 FC2 50 2.574
44 FC2 51 1.597
44 FC2 52 1.597
44 FC2 53 1.597
44 FC2 54 1.597
44 FC2 55 1.597
44 FC2 56 1.109
44 FC2 57 1.109
44 FC2 58 1.109
44 FC2 59 1.109
44 FC2 60 1.109
44 FC2 61 0.621
44 FC2 62 0.132
44 FC2 63 -1.333
44 FC2 64 -2.309
44 FC2 65 -3.286
44 FC2 66 -3.774
44 FC2 67 -3.774
44 FC2 68 -2.797
44 FC2 69 -1.821
44 FC2 70 -0.844
44 FC2 71 -0.844
44 FC2 72 -1.333
44 FC2 73 -1.821
44 FC2 74 -2.309
44 FC2 75 -2.309
44 FC2 76 -2.309
44 FC2 77 -2.309
44 FC2 78 -2.309
44 FC2 79 -2.797
44 FC2 80 -2.797
44 FC2 81 -2.797
44 FC2 82 -3.286
44 FC2 83 -3.774
44 FC2 84 -3.774
44 FC2 85 -4.262
44 FC2 86 -4.262
44 FC2 87 -4.262
44 FC2 88 -4.262
44 FC2 89 -3.774
44 FC2 90 -2.797
44 FC2 91 -2.309
44 FC2 92 -1.821
44 FC2 93 -1.333
44 FC2 94 -1.333
44 FC2 95 -1.333
44 FC2 96 -1.821
44 FC2 97 -2.797
44 FC2 98 -3.286
44 FC2 99 -3.286
44 FC2 100 -2.309
44 FC2 101 -1.821
44 FC2 102 -0.844
44 FC2 103 -0.844
44 FC2 104 -0.844
44 FC2 105 -1.333
44 FC2 106 -1.821
44 FC2 107 -1.821
44 FC2 108 -1.333
44 FC2 109 -1.333
44 FC2 110 -1.333
44 FC2 111 -2.309
44 FC2 112 -2.309
44 FC2 113 -2.797
44 FC2 114 -2.309
44 FC2 115 -2.309
44 FC2 116 -2.309
44 FC2 117 -2.797
44 FC2 118 -3.774
44 FC2 119 -3.774
44 FC2 120 -3.286
44 FC2 121 -2.797
44 FC2 122 -2.309
44 FC2 123 -2.797
44 FC2 124 -3.286
44 FC2 125 -3.286
44 FC2 126 -3.286
44 FC2 127 -2.797
44 FC2 128 -2.797
44 FC2 129 -3.286
44 FC2 130 -3.774
44 FC2 131 -4.262
44 FC2 132 -4.262
44 FC2 133 -4.262
44 FC2 134 -3.286
44 FC2 135 -2.309
44 FC2 136 -1.333
44 FC2 137 -0.356
44 FC2 138 0.132
44 FC2 139 0.132
44 FC2 140 0.132
44 FC2 141 -0.356
44 FC2 142 -0.356
44 FC2 143 -0.356
44 FC2 144 -0.356
44 FC2 145 0.132
44 FC2 146 1.109
44 FC2 147 2.085
44 FC2 148 3.062
44 FC2 149 4.038
44 FC2 150 4.038
44 FC2 151 4.527
44 FC2 152 5.015
44 FC2 153 5.015
44 FC2 154 4.527
44 FC2 155 4.038
44 FC2 156 3.062
44 FC2 157 2.574
44 FC2 158 2.574
44 FC2 159 3.550
44 FC2 160 4.527
44 FC2 161 4.527
44 FC2 162 4.527
44 FC2 163 4.038
44 FC2 164 4.038
44 FC2 165 4.038
44 FC2 166 4.038
44 FC2 167 3.550
44 FC2 168 3.550
44 FC2 169 2.574
44 FC2 170 2.574
44 FC2 171 2.085
44 FC2 172 2.085
44 FC2 173 2.085
44 FC2 174 2.085
44 FC2 175 2.085
44 FC2 176 1.109
44 FC2 177 0.621
44 FC2 178 -0.356
44 FC2 179 -1.333
44 FC2 180 -1.821
44 FC2 181 -1.821
44 FC2 182 -1.821
44 FC2 183 -2.309
44 FC2 184 -2.309
44 FC2 185 -1.821
44 FC2 186 -1.821
44 FC2 187 -1.821
44 FC2 188 -1.821
44 FC2 189 -1.333
44 FC2 190 -0.844
44 FC2 191 -0.356
44 FC2 192 0.132
44 FC2 193 -0.356
44 FC2 194 -1.333
44 FC2 195 -2.797
44 FC2 196 -4.262
44 FC2 197 -5.239
44 FC2 198 -5.239
44 FC2 199 -4.262
44 FC2 200 -3.286
44 FC2 201 -2.797
44 FC2 202 -2.309
44 FC2 203 -1.821
44 FC2 204 -0.844
44 FC2 205 -0.356
44 FC2 206 -0.844
44 FC2 207 -1.333
44 FC2 208 -1.821
44 FC2 209 -2.309
44 FC2 210 -2.309
44 FC2 211 -1.821
44 FC2 212 -1.333
44 FC2 213 -1.333
44 FC2 214 -2.309
44 FC2 215 -3.286
44 FC2 216 -4.262
44 FC2 217 -4.751
44 FC2 218 -4.751
44 FC2 219 -4.751
44 FC2 220 -4.262
44 FC2 221 -4.262
44 FC2 222 -3.774
44 FC2 223 -3.774
44 FC2 224 -3.774
44 FC2 225 -3.774
44 FC2 226 -4.262
44 FC2 227 -4.262
44 FC2 228 -4.262
44 FC2 229 -3.286
44 FC2 230 -2.309
44 FC2 231 -1.333
44 FC2 232 -0.356
44 FC2 233 -0.356
44 FC2 234 -0.356
44 FC2 235 -0.356
44 FC2 236 -0.356
44 FC2 237 -0.356
44 FC2 238 0.621
44 FC2 239 1.597
44 FC2 240 2.574
44 FC2 241 3.062
44 FC2 242 2.574
44 FC2 243 1.597
44 FC2 244 0.621
44 FC2 245 0.621
44 FC2 246 1.109
44 FC2 247 2.085
44 FC2 248 3.062
44 FC2 249 2.574
44 FC2 250 1.597
44 FC2 251 0.621
44 FC2 252 -0.356
44 FC2 253 -0.356
44 FC2 254 0.132
44 FC2 255 0.132
# FC1 chan 12
44 FC1 0 1.475
44 FC1 1 0.498
44 FC1 2 0.498
44 FC1 3 0.498
44 FC1 4 0.987
44 FC1 5 1.475
44 FC1 6 1.475
44 FC1 7 1.475
44 FC1 8 0.987
44 FC1 9 0.987
44 FC1 10 1.475
44 FC1 11 2.452
44 FC1 12 2.940
44 FC1 13 3.428
44 FC1 14 3.428
44 FC1 15 3.428
44 FC1 16 3.428
44 FC1 17 2.940
44 FC1 18 2.452
44 FC1 19 1.963
44 FC1 20 1.475
44 FC1 21 1.475
44 FC1 22 1.963
44 FC1 23 1.963
44 FC1 24 1.475
44 FC1 25 1.475
44 FC1 26 1.475
44 FC1 27 2.452
44 FC1 28 3.428
44 FC1 29 3.916
44 FC1 30 3.916
44 FC1 31 3.428
44 FC1 32 3.428
44 FC1 33 3.428
44 FC1 34 3.916
44 FC1 35 4.405
44 FC1 36 3.428
44 FC1 37 2.452
44 FC1 38 1.475
44 FC1 39 0.987
44 FC1 40 1.963
44 FC1 41 2.940
44 FC1 42 3.428
44 FC1 43 2.940
44 FC1 44 1.475
44 FC1 45 0.498
44 FC1 46 0.010
44 FC1 47 0.010
44 FC1 48 0.498
44 FC1 49 1.475
44 FC1 50 1.475
44 FC1 51 1.475
44 FC1 52 1.963
44 FC1 53 1.963
44 FC1 54 2.452
44 FC1 55 2.940
44 FC1 56 3.428
44 FC1 57 3.916
44 FC1 58 4.405
44 FC1 59 3.916
44 FC1 60 2.940
44 FC1 61 1.963
44 FC1 62 0.498
44 FC1 63 -0.966
44 FC1 64 -1.943
44 FC1 65 -2.431
44 FC1 66 -2.431
44 FC1 67 -2.431
44 FC1 68 -1.943
44 FC1 69 -0.966
44 FC1 70 0.010
44 FC1 71 0.498
44 FC1 72 0.010
44 FC1 73 -0.966
44 FC1 74 -1.943
44 FC1 75 -2.431
44 FC1 76 -2.431
44 FC1 77 -2.431
44 FC1 78 -2.431
44 FC1 79 -2.431
44 FC1 80 -2.431
44 FC1 81 -3.408
44 FC1 82 -3.896
44 FC1 83 -4.384
44 FC1 84 -4.873
44 FC1 85 -5.361
44 FC1 86 -5.849
44 FC1 87 -5.849
44 FC1 88 -5.361
44 FC1 89 -4.873
44 FC1 90 -3.896
44 FC1 91 -3.408
44 FC1 92 -2.920
44 FC1 93 -2.431
44 FC1 94 -2.431
44 FC1 95 -2.920
44 FC1 96 -2.920
44 FC1 97 -3.896
44 FC1 98 -4.384
44 FC1 99 -4.873
44 FC1 100 -4.873
44 FC1 101 -4.384
44 FC1 102 -3.896
44 FC1 103 -2.920
44 FC1 104 -3.408
44 FC1 105 -3.896
44 FC1 106 -4.384
44 FC1 107 -4.384
44 FC1 108 -3.896
44 FC1 109 -3.408
44 FC1 110 -3.896
44 FC1 111 -4.384
44 FC1 112 -4.873
44 FC1 113 -4.384
44 FC1 114 -3.408
44 FC1 115 -2.431
44 FC1 116 -2.920
44 FC1 117 -3.408
44 FC1 118 -4.384
44 FC1 119 -4.873
44 FC1 120 -4.873
44 FC1 121 -4.873
44 FC1 122 -4.873
44 FC1 123 -5.361
44 FC1 124 -6.337
44 FC1 125 -6.337
44 FC1 126 -5.849
44 FC1 127 -5.361
44 FC1 128 -5.849
44 FC1 129 -6.826
44 FC1 130 -7.802
44 FC1 131 -7.802
44 FC1 132 -7.314
44 FC1 133 -6.337
44 FC1 134 -5.361
44 FC1 135 -4.384
44 FC1 136 -3.896
44 FC1 137 -2.920
44 FC1 138 -1.455
44 FC1 139 -0.478
44 FC1 140 0.498
44 FC1 141 0.498
44 FC1 142 -0.478
44 FC1 143 -0.966
44 FC1 144 -1.455
44 FC1 145 -1.455
44 FC1 146 -0.966
44 FC1 147 -0.478
44 FC1 148 0.498
44 FC1 149 0.987
44 FC1 150 1.475
44 FC1 151 2.452
44 FC1 152 2.452
44 FC1 153 2.940
44 FC1 154 2.940
44 FC1 155 2.452
44 FC1 156 2.452
44 FC1 157 2.452
44 FC1 158 3.428
44 FC1 159 3.916
44 FC1 160 4.405
44 FC1 161 3.916
44 FC1 162 2.452
44 FC1 163 0.498
44 FC1 164 -0.478
44 FC1 165 -1.455
44 FC1 166 -1.455
44 FC1 167 -1.943
44 FC1 168 -1.455
44 FC1 169 -1.455
44 FC1 170 -1.455
44 FC1 171 -1.455
44 FC1 172 -0.966
44 FC1 173 -0.478
44 FC1 174 -0.478
44 FC1 175 -0.478
44 FC1 176 -0.478
44 FC1 177 -0.478
44 FC1 178 -1.455
44 FC1 179 -1.943
44 FC1 180 -2.431
44 FC1 181 -2.431
44 FC1 182 -1.943
44 FC1 183 -1.455
44 FC1 184 -0.966
44 FC1 185 -1.455
44 FC1 186 -1.943
44 FC1 187 -2.431
44 FC1 188 -2.431
44 FC1 189 -2.920
44 FC1 190 -3.408
44 FC1 191 -3.408
44 FC1 192 -3.408
44 FC1 193 -2.431
44 FC1 194 -2.431
44 FC1 195 -2.431
44 FC1 196 -3.896
44 FC1 197 -5.361
44 FC1 198 -6.826
44 FC1 199 -6.826
44 FC1 200 -5.849
44 FC1 201 -4.873
44 FC1 202 -3.896
44 FC1 203 -3.408
44 FC1 204 -3.408
44 FC1 205 -3.896
44 FC1 206 -5.361
44 FC1 207 -6.826
44 FC1 208 -7.314
44 FC1 209 -6.826
44 FC1 210 -5.361
44 FC1 211 -4.384
44 FC1 212 -3.896
44 FC1 213 -5.361
44 FC1 214 -6.826
44 FC1 215 -8.779
44 FC1 216 -9.267
44 FC1 217 -8.779
44 FC1 218 -7.802
44 FC1 219 -6.826
44 FC1 220 -6.337
44 FC1 221 -5.849
44 FC1 222 -6.337
44 FC1 223 -7.314
44 FC1 224 -7.802
44 FC1 225 -8.291
44 FC1 226 -7.802
44 FC1 227 -6.826
44 FC1 228 -5.361
44 FC1 229 -4.873
44 FC1 230 -4.384
44 FC1 231 -4.873
44 FC1 232 -5.361
44 FC1 233 -5.361
44 FC1 234 -4.873
44 FC1 235 -4.384
44 FC1 236 -4.384
44 FC1 237 -3.896
44 FC1 238 -3.408
44 FC1 239 -2.920
44 FC1 240 -2.920
44 FC1 241 -2.920
44 FC1 242 -3.408
44 FC1 243 -3.408
44 FC1 244 -3.896
44 FC1 245 -3.408
44 FC1 246 -2.431
44 FC1 247 -1.455
44 FC1 248 -0.966
44 FC1 249 -0.966
44 FC1 250 -1.455
44 FC1 251 -1.943
44 FC1 252 -1.943
44 FC1 253 -1.455
44 FC1 254 -0.478
44 FC1 255 -0.478
# T8 chan 13
44 T8 0 6.551
44 T8 1 4.110
44 T8 2 0.692
44 T8 3 -1.750
44 T8 4 -1.750
44 T8 5 0.692
44 T8 6 2.645
44 T8 7 3.133
44 T8 8 3.133
44 T8 9 2.645
44 T8 10 4.110
44 T8 11 6.551
44 T8 12 8.993
44 T8 13 9.481
44 T8 14 8.016
44 T8 15 5.086
44 T8 16 2.157
44 T8 17 0.692
44 T8 18 0.692
44 T8 19 1.668
44 T8 20 1.668
44 T8 21 1.668
44 T8 22 1.668
44 T8 23 1.668
44 T8 24 2.157
44 T8 25 3.133
44 T8 26 4.110
44 T8 27 5.086
44 T8 28 6.551
44 T8 29 8.016
44 T8 30 9.481
44 T8 31 9.969
44 T8 32 9.481
44 T8 33 7.528
44 T8 34 6.063
44 T8 35 4.110
44 T8 36 3.621
44 T8 37 4.110
44 T8 38 5.086
44 T8 39 5.575
44 T8 40 5.086
44 T8 41 3.621
44 T8 42 1.668
44 T8 43 0.203
44 T8 44 -0.773
44 T8 45 0.203
44 T8 46 1.668
44 T8 47 2.645
44 T8 48 2.645
44 T8 49 0.692
44 T8 50 -1.750
44 T8 51 -3.703
44 T8 52 -5.168
44 T8 53 -5.168
44 T8 54 -3.703
44 T8 55 -1.750
44 T8 56 0.203
44 T8 57 1.668
44 T8 58 2.157
44 T8 59 2.645
44 T8 60 5.086
44 T8 61 8.993
44 T8 62 13.875
44 T8 63 17.293
44 T8 64 17.293
44 T8 65 15.340
44 T8 66 12.410
44 T8 67 11.434
44 T8 68 13.387
44 T8 69 16.317
44 T8 70 18.758
44 T8 71 20.711
44 T8 72 21.688
44 T8 73 22.664
44 T8 74 24.618
44 T8 75 25.594
44 T8 76 25.106
44 T8 77 23.641
44 T8 78 22.176
44 T8 79 21.688
44 T8 80 21.688
44 T8 81 21.688
44 T8 82 20.223
44 T8 83 18.758
44 T8 84 17.293
44 T8 85 17.293
44 T8 86 17.293
44 T8 87 16.805
44 T8 88 15.828
44 T8 89 13.875
44 T8 90 12.899
44 T8 91 12.410
44 T8 92 12.410
44 T8 93 12.410
44 T8 94 11.922
44 T8 95 10.457
44 T8 96 9.481
44 T8 97 8.504
44 T8 98 7.528
44 T8 99 7.039
44 T8 100 7.039
44 T8 101 8.016
44 T8 102 9.969
44 T8 103 12.410
44 T8 104 14.852
44 T8 105 16.805
44 T8 106 16.805
44 T8 107 16.317
44 T8 108 15.828
44 T8 109 15.828
44 T8 110 15.828
44 T8 111 15.340
44 T8 112 14.364
44 T8 113 13.875
44 T8 114 12.899
44 T8 115 11.922
44 T8 116 9.969
44 T8 117 8.504
44 T8 118 8.016
44 T8 119 8.504
44 T8 120 10.946
44 T8 121 13.387
44 T8 122 15.340
44 T8 123 16.317
44 T8 124 16.805
44 T8 125 16.805
44 T8 126 16.805
44 T8 127 15.340
44 T8 128 13.387
44 T8 129 9.969
44 T8 130 7.528
44 T8 131 6.063
44 T8 132 6.063
44 T8 133 7.039
44 T8 134 7.039
44 T8 135 6.063
44 T8 136 4.598
44 T8 137 4.110
44 T8 138 5.086
44 T8 139 7.039
44 T8 140 8.993
44 T8 141 8.504
44 T8 142 7.039
44 T8 143 5.086
44 T8 144 4.110
44 T8 145 4.598
44 T8 146 7.039
44 T8 147 9.969
44 T8 148 11.922
44 T8 149 12.899
44 T8 150 12.410
44 T8 151 11.434
44 T8 152 11.434
44 T8 153 12.410
44 T8 154 15.340
44 T8 155 18.270
44 T8 156 20.711
44 T8 157 22.176
44 T8 158 22.176
44 T8 159 22.176
44 T8 160 21.688
44 T8 161 20.223
44 T8 162 18.758
44 T8 163 16.805
44 T8 164 15.828
44 T8 165 16.317
44 T8 166 17.293
44 T8 167 19.735
44 T8 168 21.688
44 T8 169 23.153
44 T8 170 23.641
44 T8 171 23.153
44 T8 172 22.176
44 T8 173 20.711
44 T8 174 18.758
44 T8 175 16.805
44 T8 176 14.852
44 T8 177 12.899
44 T8 178 10.946
44 T8 179 8.993
44 T8 180 7.039
44 T8 181 6.063
44 T8 182 6.551
44 T8 183 8.016
44 T8 184 8.993
44 T8 185 9.969
44 T8 186 9.969
44 T8 187 10.457
44 T8 188 12.899
44 T8 189 16.805
44 T8 190 20.223
44 T8 191 21.688
44 T8 192 20.711
44 T8 193 17.782
44 T8 194 14.364
44 T8 195 11.922
44 T8 196 10.457
44 T8 197 10.946
44 T8 198 11.434
44 T8 199 11.922
44 T8 200 11.434
44 T8 201 10.457
44 T8 202 9.969
44 T8 203 9.481
44 T8 204 9.481
44 T8 205 10.457
44 T8 206 11.434
44 T8 207 12.410
44 T8 208 12.899
44 T8 209 12.899
44 T8 210 12.899
44 T8 211 11.922
44 T8 212 10.946
44 T8 213 10.457
44 T8 214 10.946
44 T8 215 11.434
44 T8 216 12.410
44 T8 217 11.922
44 T8 218 11.434
44 T8 219 10.946
44 T8 220 10.457
44 T8 221 10.946
44 T8 222 11.922
44 T8 223 11.922
44 T8 224 11.434
44 T8 225 10.457
44 T8 226 9.481
44 T8 227 8.504
44 T8 228 8.016
44 T8 229 8.016
44 T8 230 8.016
44 T8 231 8.993
44 T8 232 11.434
44 T8 233 15.340
44 T8 234 19.246
44 T8 235 22.176
44 T8 236 23.641
44 T8 237 22.664
44 T8 238 22.176
44 T8 239 21.200
44 T8 240 19.735
44 T8 241 17.293
44 T8 242 14.364
44 T8 243 10.946
44 T8 244 8.993
44 T8 245 9.969
44 T8 246 13.387
44 T8 247 18.270
44 T8 248 21.688
44 T8 249 22.664
44 T8 250 20.711
44 T8 251 17.293
44 T8 252 13.387
44 T8 253 11.922
44 T8 254 11.434
44 T8 255 10.946
# T7 chan 14
44 T7 0 -0.692
44 T7 1 -1.668
44 T7 2 -1.668
44 T7 3 -1.180
44 T7 4 0.773
44 T7 5 2.726
44 T7 6 3.703
44 T7 7 2.726
44 T7 8 1.261
44 T7 9 -0.203
44 T7 10 -0.692
44 T7 11 0.773
44 T7 12 3.215
44 T7 13 6.144
44 T7 14 8.097
44 T7 15 7.609
44 T7 16 5.656
44 T7 17 2.726
44 T7 18 -0.203
44 T7 19 -2.157
44 T7 20 -2.645
44 T7 21 -1.668
44 T7 22 -0.692
44 T7 23 -0.203
44 T7 24 -0.692
44 T7 25 -0.692
44 T7 26 0.285
44 T7 27 3.215
44 T7 28 7.121
44 T7 29 11.027
44 T7 30 12.980
44 T7 31 12.492
44 T7 32 11.027
44 T7 33 9.562
44 T7 34 8.097
44 T7 35 7.609
44 T7 36 7.609
44 T7 37 7.609
44 T7 38 7.609
44 T7 39 7.609
44 T7 40 7.121
44 T7 41 6.632
44 T7 42 5.168
44 T7 43 3.215
44 T7 44 1.261
44 T7 45 -0.203
44 T7 46 -1.180
44 T7 47 -2.157
44 T7 48 -4.110
44 T7 49 -6.063
44 T7 50 -7.528
44 T7 51 -8.016
44 T7 52 -7.039
44 T7 53 -5.575
44 T7 54 -4.110
44 T7 55 -2.157
44 T7 56 -0.692
44 T7 57 0.773
44 T7 58 2.238
44 T7 59 2.726
44 T7 60 4.191
44 T7 61 6.144
44 T7 62 9.074
44 T7 63 11.515
44 T7 64 12.492
44 T7 65 12.492
44 T7 66 11.027
44 T7 67 10.050
44 T7 68 10.050
44 T7 69 11.027
44 T7 70 12.492
44 T7 71 13.468
44 T7 72 13.957
44 T7 73 13.957
44 T7 74 13.468
44 T7 75 12.980
44 T7 76 12.492
44 T7 77 12.492
44 T7 78 12.980
44 T7 79 13.957
44 T7 80 14.933
44 T7 81 14.933
44 T7 82 14.445
44 T7 83 13.468
44 T7 84 12.980
44 T7 85 13.468
44 T7 86 13.468
44 T7 87 13.468
44 T7 88 12.004
44 T7 89 9.562
44 T7 90 7.609
44 T7 91 6.144
44 T7 92 5.656
44 T7 93 5.656
44 T7 94 5.656
44 T7 95 4.679
44 T7 96 3.215
44 T7 97 2.726
44 T7 98 2.238
44 T7 99 2.238
44 T7 100 2.726
44 T7 101 4.191
44 T7 102 6.144
44 T7 103 8.586
44 T7 104 11.027
44 T7 105 12.492
44 T7 106 12.492
44 T7 107 11.515
44 T7 108 10.539
44 T7 109 9.074
44 T7 110 8.586
44 T7 111 7.121
44 T7 112 6.144
44 T7 113 5.168
44 T7 114 4.191
44 T7 115 3.703
44 T7 116 3.215
44 T7 117 2.238
44 T7 118 2.726
44 T7 119 3.703
44 T7 120 5.656
44 T7 121 7.121
44 T7 122 8.586
44 T7 123 9.562
44 T7 124 9.562
44 T7 125 9.562
44 T7 126 8.586
44 T7 127 6.632
44 T7 128 3.215
44 T7 129 -0.692
44 T7 130 -3.133
44 T7 131 -3.621
44 T7 132 -2.645
44 T7 133 -2.157
44 T7 134 -2.645
44 T7 135 -4.110
44 T7 136 -5.575
44 T7 137 -5.086
44 T7 138 -2.157
44 T7 139 1.750
44 T7 140 5.168
44 T7 141 6.144
44 T7 142 5.656
44 T7 143 4.191
44 T7 144 3.215
44 T7 145 2.726
44 T7 146 1.750
44 T7 147 1.750
44 T7 148 1.750
44 T7 149 1.750
44 T7 150 2.726
44 T7 151 4.191
44 T7 152 5.656
44 T7 153 7.609
44 T7 154 10.050
44 T7 155 12.492
44 T7 156 15.422
44 T7 157 18.351
44 T7 158 20.304
44 T7 159 20.304
44 T7 160 18.840
44 T7 161 16.398
44 T7 162 13.468
44 T7 163 12.004
44 T7 164 10.539
44 T7 165 10.050
44 T7 166 10.539
44 T7 167 11.515
44 T7 168 12.492
44 T7 169 13.957
44 T7 170 14.933
44 T7 171 15.422
44 T7 172 15.422
44 T7 173 14.933
44 T7 174 14.445
44 T7 175 14.445
44 T7 176 14.445
44 T7 177 15.422
44 T7 178 15.422
44 T7 179 14.445
44 T7 180 13.468
44 T7 181 12.980
44 T7 182 12.980
44 T7 183 12.980
44 T7 184 12.492
44 T7 185 11.027
44 T7 186 10.050
44 T7 187 11.027
44 T7 188 13.468
44 T7 189 17.375
44 T7 190 20.304
44 T7 191 21.281
44 T7 192 20.793
44 T7 193 19.816
44 T7 194 19.328
44 T7 195 19.328
44 T7 196 18.840
44 T7 197 17.863
44 T7 198 15.422
44 T7 199 13.468
44 T7 200 11.515
44 T7 201 11.027
44 T7 202 11.027
44 T7 203 11.515
44 T7 204 12.492
44 T7 205 13.468
44 T7 206 13.957
44 T7 207 14.445
44 T7 208 14.445
44 T7 209 13.957
44 T7 210 13.957
44 T7 211 13.468
44 T7 212 13.468
44 T7 213 13.468
44 T7 214 13.468
44 T7 215 13.468
44 T7 216 13.468
44 T7 217 12.980
44 T7 218 12.004
44 T7 219 11.515
44 T7 220 11.027
44 T7 221 12.004
44 T7 222 12.492
44 T7 223 13.468
44 T7 224 13.957
44 T7 225 13.957
44 T7 226 12.980
44 T7 227 11.515
44 T7 228 9.562
44 T7 229 6.632
44 T7 230 4.191
44 T7 231 3.703
44 T7 232 4.679
44 T7 233 7.121
44 T7 234 10.050
44 T7 235 12.492
44 T7 236 13.468
44 T7 237 12.980
44 T7 238 12.004
44 T7 239 11.027
44 T7 240 9.562
44 T7 241 7.121
44 T7 242 5.168
44 T7 243 3.215
44 T7 244 2.726
44 T7 245 4.191
44 T7 246 8.586
44 T7 247 12.980
44 T7 248 16.886
44 T7 249 18.840
44 T7 250 18.351
44 T7 251 15.910
44 T7 252 13.957
44 T7 253 12.980
44 T7 254 12.980
44 T7 255 12.004
# CZ chan 15
44 CZ 0 -8.341
44 CZ 1 -11.271
44 CZ 2 -12.736
44 CZ 3 -11.759
44 CZ 4 -9.806
44 CZ 5 -8.830
44 CZ 6 -8.341
44 CZ 7 -8.830
44 CZ 8 -9.318
44 CZ 9 -8.830
44 CZ 10 -7.853
44 CZ 11 -6.877
44 CZ 12 -5.900
44 CZ 13 -5.412
44 CZ 14 -4.924
44 CZ 15 -4.435
44 CZ 16 -5.412
44 CZ 17 -7.365
44 CZ 18 -9.806
44 CZ 19 -12.248
44 CZ 20 -12.736
44 CZ 21 -11.271
44 CZ 22 -10.783
44 CZ 23 -11.271
44 CZ 24 -13.713
44 CZ 25 -16.642
44 CZ 26 -17.619
44 CZ 27 -15.177
44 CZ 28 -10.783
44 CZ 29 -7.365
44 CZ 30 -5.412
44 CZ 31 -5.412
44 CZ 32 -5.900
44 CZ 33 -6.388
44 CZ 34 -6.388
44 CZ 35 -6.388
44 CZ 36 -6.877
44 CZ 37 -6.877
44 CZ 38 -6.388
44 CZ 39 -5.900
44 CZ 40 -6.388
44 CZ 41 -7.853
44 CZ 42 -10.295
44 CZ 43 -13.224
44 CZ 44 -14.201
44 CZ 45 -13.224
44 CZ 46 -11.759
44 CZ 47 -10.295
44 CZ 48 -11.271
44 CZ 49 -13.713
44 CZ 50 -16.642
44 CZ 51 -18.107
44 CZ 52 -18.107
44 CZ 53 -17.619
44 CZ 54 -16.642
44 CZ 55 -14.201
44 CZ 56 -11.759
44 CZ 57 -9.806
44 CZ 58 -7.365
44 CZ 59 -6.877
44 CZ 60 -5.900
44 CZ 61 -3.459
44 CZ 62 -0.041
44 CZ 63 3.377
44 CZ 64 4.354
44 CZ 65 2.889
44 CZ 66 -0.529
44 CZ 67 -2.970
44 CZ 68 -2.970
44 CZ 69 -1.994
44 CZ 70 -0.041
44 CZ 71 1.424
44 CZ 72 2.889
44 CZ 73 4.842
44 CZ 74 6.307
44 CZ 75 6.795
44 CZ 76 6.307
44 CZ 77 5.819
44 CZ 78 5.819
44 CZ 79 6.307
44 CZ 80 6.307
44 CZ 81 4.842
44 CZ 82 2.401
44 CZ 83 0.448
44 CZ 84 0.448
44 CZ 85 1.424
44 CZ 86 3.377
44 CZ 87 3.866
44 CZ 88 2.401
44 CZ 89 -0.529
44 CZ 90 -3.459
44 CZ 91 -4.435
44 CZ 92 -3.947
44 CZ 93 -3.459
44 CZ 94 -3.947
44 CZ 95 -5.412
44 CZ 96 -7.853
44 CZ 97 -9.806
44 CZ 98 -10.295
44 CZ 99 -10.295
44 CZ 100 -10.295
44 CZ 101 -9.806
44 CZ 102 -8.830
44 CZ 103 -5.900
44 CZ 104 -2.970
44 CZ 105 -1.017
44 CZ 106 -0.529
44 CZ 107 -0.529
44 CZ 108 -1.017
44 CZ 109 -1.017
44 CZ 110 -0.529
44 CZ 111 -1.017
44 CZ 112 -2.482
44 CZ 113 -5.412
44 CZ 114 -7.365
44 CZ 115 -7.853
44 CZ 116 -8.341
44 CZ 117 -8.830
44 CZ 118 -9.318
44 CZ 119 -9.806
44 CZ 120 -8.341
44 CZ 121 -5.412
44 CZ 122 -1.994
44 CZ 123 0.936
44 CZ 124 2.401
44 CZ 125 2.889
44 CZ 126 1.912
44 CZ 127 -0.041
44 CZ 128 -4.924
44 CZ 129 -10.783
44 CZ 130 -15.666
44 CZ 131 -17.619
44 CZ 132 -15.666
44 CZ 133 -12.736
44 CZ 134 -11.759
44 CZ 135 -14.201
44 CZ 136 -17.619
44 CZ 137 -20.060
44 CZ 138 -18.107
44 CZ 139 -13.713
44 CZ 140 -9.318
44 CZ 141 -7.365
44 CZ 142 -8.830
44 CZ 143 -10.783
44 CZ 144 -10.783
44 CZ 145 -9.806
44 CZ 146 -7.365
44 CZ 147 -6.388
44 CZ 148 -5.900
44 CZ 149 -5.412
44 CZ 150 -3.947
44 CZ 151 -1.994
44 CZ 152 -0.041
44 CZ 153 0.936
44 CZ 154 0.936
44 CZ 155 1.424
44 CZ 156 2.889
44 CZ 157 6.307
44 CZ 158 9.725
44 CZ 159 11.678
44 CZ 160 9.725
44 CZ 161 5.819
44 CZ 162 -0.041
44 CZ 163 -5.900
44 CZ 164 -9.806
44 CZ 165 -11.759
44 CZ 166 -10.783
44 CZ 167 -8.341
44 CZ 168 -5.412
44 CZ 169 -2.482
44 CZ 170 1.424
44 CZ 171 4.842
44 CZ 172 7.772
44 CZ 173 9.725
44 CZ 174 9.725
44 CZ 175 8.260
44 CZ 176 5.819
44 CZ 177 2.889
44 CZ 178 0.936
44 CZ 179 -1.506
44 CZ 180 -3.459
44 CZ 181 -4.924
44 CZ 182 -4.924
44 CZ 183 -4.435
44 CZ 184 -3.947
44 CZ 185 -3.947
44 CZ 186 -2.970
44 CZ 187 -1.506
44 CZ 188 1.912
44 CZ 189 5.819
44 CZ 190 9.725
44 CZ 191 11.678
44 CZ 192 11.190
44 CZ 193 9.237
44 CZ 194 5.819
44 CZ 195 3.866
44 CZ 196 1.424
44 CZ 197 -0.041
44 CZ 198 -1.017
44 CZ 199 -1.994
44 CZ 200 -2.482
44 CZ 201 -2.482
44 CZ 202 -1.994
44 CZ 203 -1.994
44 CZ 204 -1.506
44 CZ 205 -1.017
44 CZ 206 -1.017
44 CZ 207 -0.529
44 CZ 208 -1.017
44 CZ 209 -1.017
44 CZ 210 -1.017
44 CZ 211 -1.017
44 CZ 212 -1.017
44 CZ 213 -1.994
44 CZ 214 -2.482
44 CZ 215 -2.970
44 CZ 216 -2.970
44 CZ 217 -2.970
44 CZ 218 -3.947
44 CZ 219 -4.924
44 CZ 220 -6.877
44 CZ 221 -7.365
44 CZ 222 -7.365
44 CZ 223 -5.900
44 CZ 224 -4.924
44 CZ 225 -4.924
44 CZ 226 -5.900
44 CZ 227 -8.341
44 CZ 228 -11.271
44 CZ 229 -14.689
44 CZ 230 -16.642
44 CZ 231 -17.131
44 CZ 232 -14.689
44 CZ 233 -10.295
44 CZ 234 -4.435
44 CZ 235 -0.041
44 CZ 236 2.401
44 CZ 237 2.401
44 CZ 238 1.424
44 CZ 239 -0.041
44 CZ 240 -2.482
44 CZ 241 -4.924
44 CZ 242 -7.853
44 CZ 243 -11.271
44 CZ 244 -12.736
44 CZ 245 -12.248
44 CZ 246 -8.341
44 CZ 247 -3.459
44 CZ 248 1.424
44 CZ 249 3.866
44 CZ 250 3.866
44 CZ 251 0.936
44 CZ 252 -3.459
44 CZ 253 -6.388
44 CZ 254 -8.341
44 CZ 255 -9.318
# C3 chan 16
44 C3 0 -0.641
44 C3 1 -0.153
44 C3 2 0.336
44 C3 3 1.312
44 C3 4 2.777
44 C3 5 2.777
44 C3 6 1.801
44 C3 7 0.824
44 C3 8 0.824
44 C3 9 1.801
44 C3 10 3.265
44 C3 11 4.730
44 C3 12 6.195
44 C3 13 6.683
44 C3 14 6.683
44 C3 15 4.730
44 C3 16 2.289
44 C3 17 1.801
44 C3 18 1.312
44 C3 19 0.824
44 C3 20 0.824
44 C3 21 1.312
44 C3 22 1.801
44 C3 23 2.289
44 C3 24 2.289
44 C3 25 3.754
44 C3 26 6.683
44 C3 27 9.125
44 C3 28 10.101
44 C3 29 9.125
44 C3 30 8.636
44 C3 31 8.148
44 C3 32 7.660
44 C3 33 6.683
44 C3 34 5.707
44 C3 35 5.707
44 C3 36 5.707
44 C3 37 4.730
44 C3 38 3.754
44 C3 39 2.777
44 C3 40 0.824
44 C3 41 -0.641
44 C3 42 -0.641
44 C3 43 -0.153
44 C3 44 -1.129
44 C3 45 -4.059
44 C3 46 -5.035
44 C3 47 -3.082
44 C3 48 -1.617
44 C3 49 -2.106
44 C3 50 -2.106
44 C3 51 -1.129
44 C3 52 1.312
44 C3 53 2.289
44 C3 54 2.289
44 C3 55 2.289
44 C3 56 2.777
44 C3 57 3.754
44 C3 58 5.219
44 C3 59 5.707
44 C3 60 6.683
44 C3 61 8.148
44 C3 62 10.101
44 C3 63 11.566
44 C3 64 10.590
44 C3 65 9.125
44 C3 66 8.148
44 C3 67 8.636
44 C3 68 9.125
44 C3 69 9.613
44 C3 70 9.613
44 C3 71 10.101
44 C3 72 9.613
44 C3 73 9.613
44 C3 74 8.148
44 C3 75 7.660
44 C3 76 8.148
44 C3 77 9.613
44 C3 78 9.125
44 C3 79 7.172
44 C3 80 5.707
44 C3 81 5.219
44 C3 82 4.242
44 C3 83 3.754
44 C3 84 5.219
44 C3 85 6.683
44 C3 86 6.195
44 C3 87 4.242
44 C3 88 3.754
44 C3 89 4.730
44 C3 90 5.219
44 C3 91 3.754
44 C3 92 3.265
44 C3 93 4.730
44 C3 94 6.195
44 C3 95 6.195
44 C3 96 5.219
44 C3 97 4.730
44 C3 98 4.730
44 C3 99 4.730
44 C3 100 5.219
44 C3 101 5.219
44 C3 102 6.195
44 C3 103 6.683
44 C3 104 6.683
44 C3 105 6.195
44 C3 106 5.707
44 C3 107 5.219
44 C3 108 4.242
44 C3 109 3.265
44 C3 110 3.265
44 C3 111 3.754
44 C3 112 3.754
44 C3 113 3.265
44 C3 114 3.265
44 C3 115 4.242
44 C3 116 4.730
44 C3 117 4.242
44 C3 118 3.754
44 C3 119 3.754
44 C3 120 4.242
44 C3 121 3.754
44 C3 122 4.242
44 C3 123 5.219
44 C3 124 5.219
44 C3 125 3.265
44 C3 126 0.336
44 C3 127 -0.641
44 C3 128 0.336
44 C3 129 0.824
44 C3 130 -0.153
44 C3 131 -2.106
44 C3 132 -2.106
44 C3 133 -2.106
44 C3 134 -2.594
44 C3 135 -2.106
44 C3 136 0.336
44 C3 137 2.777
44 C3 138 3.754
44 C3 139 3.754
44 C3 140 4.242
44 C3 141 4.242
44 C3 142 1.801
44 C3 143 -1.129
44 C3 144 -3.082
44 C3 145 -3.082
44 C3 146 -2.594
44 C3 147 -3.082
44 C3 148 -2.106
44 C3 149 -1.617
44 C3 150 -1.129
44 C3 151 -0.641
44 C3 152 1.312
44 C3 153 4.242
44 C3 154 6.195
44 C3 155 7.172
44 C3 156 7.660
44 C3 157 8.148
44 C3 158 7.660
44 C3 159 4.242
44 C3 160 1.801
44 C3 161 1.312
44 C3 162 1.801
44 C3 163 1.312
44 C3 164 0.336
44 C3 165 1.312
44 C3 166 2.777
44 C3 167 3.265
44 C3 168 3.265
44 C3 169 2.777
44 C3 170 3.265
44 C3 171 2.289
44 C3 172 1.801
44 C3 173 2.777
44 C3 174 3.754
44 C3 175 4.242
44 C3 176 3.265
44 C3 177 2.289
44 C3 178 1.801
44 C3 179 3.265
44 C3 180 4.242
44 C3 181 3.265
44 C3 182 0.824
44 C3 183 0.824
44 C3 184 2.777
44 C3 185 5.219
44 C3 186 4.730
44 C3 187 2.777
44 C3 188 2.289
44 C3 189 2.289
44 C3 190 2.777
44 C3 191 2.777
44 C3 192 4.242
44 C3 193 5.707
44 C3 194 5.707
44 C3 195 4.730
44 C3 196 3.265
44 C3 197 2.777
44 C3 198 1.801
44 C3 199 0.824
44 C3 200 1.801
44 C3 201 2.777
44 C3 202 3.265
44 C3 203 1.801
44 C3 204 -0.153
44 C3 205 -0.153
44 C3 206 0.824
44 C3 207 0.824
44 C3 208 0.336
44 C3 209 0.336
44 C3 210 1.312
44 C3 211 1.801
44 C3 212 1.801
44 C3 213 1.801
44 C3 214 2.289
44 C3 215 1.801
44 C3 216 1.312
44 C3 217 2.289
44 C3 218 3.754
44 C3 219 4.730
44 C3 220 4.730
44 C3 221 5.219
44 C3 222 5.219
44 C3 223 4.242
44 C3 224 3.265
44 C3 225 3.754
44 C3 226 4.730
44 C3 227 3.754
44 C3 228 1.801
44 C3 229 0.824
44 C3 230 1.801
44 C3 231 2.777
44 C3 232 2.289
44 C3 233 2.289
44 C3 234 3.265
44 C3 235 4.242
44 C3 236 3.754
44 C3 237 1.801
44 C3 238 0.824
44 C3 239 0.824
44 C3 240 0.336
44 C3 241 -0.153
44 C3 242 -0.641
44 C3 243 -0.153
44 C3 244 2.289
44 C3 245 4.730
44 C3 246 6.683
44 C3 247 7.172
44 C3 248 7.172
44 C3 249 6.683
44 C3 250 6.683
44 C3 251 7.172
44 C3 252 7.660
44 C3 253 6.683
44 C3 254 4.242
44 C3 255 2.289
# C4 chan 17
44 C4 0 2.370
44 C4 1 2.858
44 C4 2 3.347
44 C4 3 3.835
44 C4 4 4.812
44 C4 5 4.812
44 C4 6 3.835
44 C4 7 3.347
44 C4 8 4.323
44 C4 9 5.788
44 C4 10 6.276
44 C4 11 4.323
44 C4 12 2.858
44 C4 13 0.905
44 C4 14 0.417
44 C4 15 0.417
44 C4 16 0.417
44 C4 17 1.394
44 C4 18 2.370
44 C4 19 2.370
44 C4 20 1.394
44 C4 21 0.417
44 C4 22 0.905
44 C4 23 2.370
44 C4 24 3.347
44 C4 25 3.835
44 C4 26 4.323
44 C4 27 5.300
44 C4 28 6.276
44 C4 29 5.788
44 C4 30 3.347
44 C4 31 1.394
44 C4 32 0.417
44 C4 33 -0.559
44 C4 34 -1.536
44 C4 35 -2.024
44 C4 36 -1.536
44 C4 37 -0.071
44 C4 38 -0.559
44 C4 39 -1.536
44 C4 40 -2.024
44 C4 41 -1.536
44 C4 42 0.417
44 C4 43 2.370
44 C4 44 2.858
44 C4 45 2.370
44 C4 46 1.394
44 C4 47 1.394
44 C4 48 1.394
44 C4 49 0.905
44 C4 50 0.417
44 C4 51 0.905
44 C4 52 1.394
44 C4 53 1.394
44 C4 54 0.905
44 C4 55 0.417
44 C4 56 0.417
44 C4 57 0.417
44 C4 58 2.370
44 C4 59 4.812
44 C4 60 7.253
44 C4 61 6.765
44 C4 62 4.323
44 C4 63 3.835
44 C4 64 4.323
44 C4 65 6.276
44 C4 66 6.765
44 C4 67 6.276
44 C4 68 7.741
44 C4 69 10.183
44 C4 70 12.136
44 C4 71 11.648
44 C4 72 10.671
44 C4 73 10.183
44 C4 74 9.694
44 C4 75 9.694
44 C4 76 9.694
44 C4 77 10.671
44 C4 78 10.183
44 C4 79 7.741
44 C4 80 6.765
44 C4 81 6.276
44 C4 82 6.765
44 C4 83 5.300
44 C4 84 4.323
44 C4 85 5.300
44 C4 86 6.276
44 C4 87 5.788
44 C4 88 4.323
44 C4 89 3.835
44 C4 90 5.300
44 C4 91 6.276
44 C4 92 5.788
44 C4 93 4.323
44 C4 94 3.347
44 C4 95 3.835
44 C4 96 3.347
44 C4 97 2.370
44 C4 98 2.858
44 C4 99 4.323
44 C4 100 5.788
44 C4 101 6.276
44 C4 102 6.765
44 C4 103 7.741
44 C4 104 8.230
44 C4 105 8.718
44 C4 106 8.718
44 C4 107 8.230
44 C4 108 7.253
44 C4 109 6.276
44 C4 110 6.276
44 C4 111 5.300
44 C4 112 4.812
44 C4 113 4.323
44 C4 114 3.347
44 C4 115 3.835
44 C4 116 4.812
44 C4 117 4.812
44 C4 118 5.300
44 C4 119 6.276
44 C4 120 8.230
44 C4 121 7.741
44 C4 122 6.276
44 C4 123 5.788
44 C4 124 7.253
44 C4 125 7.253
44 C4 126 5.300
44 C4 127 3.835
44 C4 128 4.812
44 C4 129 5.300
44 C4 130 4.812
44 C4 131 3.835
44 C4 132 3.835
44 C4 133 3.347
44 C4 134 1.882
44 C4 135 1.882
44 C4 136 2.858
44 C4 137 3.835
44 C4 138 3.347
44 C4 139 2.370
44 C4 140 1.882
44 C4 141 0.417
44 C4 142 -1.048
44 C4 143 -1.048
44 C4 144 0.417
44 C4 145 2.858
44 C4 146 3.835
44 C4 147 4.323
44 C4 148 4.323
44 C4 149 4.323
44 C4 150 4.323
44 C4 151 4.323
44 C4 152 4.812
44 C4 153 5.300
44 C4 154 6.765
44 C4 155 7.253
44 C4 156 6.276
44 C4 157 5.300
44 C4 158 4.812
44 C4 159 5.300
44 C4 160 5.300
44 C4 161 5.300
44 C4 162 6.276
44 C4 163 7.741
44 C4 164 8.230
44 C4 165 7.741
44 C4 166 6.765
44 C4 167 6.765
44 C4 168 7.253
44 C4 169 7.253
44 C4 170 6.765
44 C4 171 6.276
44 C4 172 5.300
44 C4 173 4.812
44 C4 174 4.323
44 C4 175 3.835
44 C4 176 3.347
44 C4 177 1.882
44 C4 178 0.905
44 C4 179 1.394
44 C4 180 2.858
44 C4 181 2.370
44 C4 182 0.905
44 C4 183 1.394
44 C4 184 2.370
44 C4 185 2.370
44 C4 186 1.882
44 C4 187 3.835
44 C4 188 7.253
44 C4 189 9.206
44 C4 190 6.765
44 C4 191 3.835
44 C4 192 2.858
44 C4 193 3.347
44 C4 194 2.858
44 C4 195 2.370
44 C4 196 2.370
44 C4 197 3.347
44 C4 198 3.347
44 C4 199 2.370
44 C4 200 1.394
44 C4 201 0.905
44 C4 202 1.394
44 C4 203 3.835
44 C4 204 5.300
44 C4 205 5.788
44 C4 206 5.788
44 C4 207 5.788
44 C4 208 5.788
44 C4 209 4.812
44 C4 210 4.323
44 C4 211 4.323
44 C4 212 5.300
44 C4 213 6.276
44 C4 214 6.276
44 C4 215 6.276
44 C4 216 5.788
44 C4 217 5.300
44 C4 218 5.300
44 C4 219 5.300
44 C4 220 5.788
44 C4 221 5.788
44 C4 222 4.812
44 C4 223 4.323
44 C4 224 3.347
44 C4 225 2.858
44 C4 226 3.347
44 C4 227 3.835
44 C4 228 4.323
44 C4 229 4.323
44 C4 230 6.765
44 C4 231 9.206
44 C4 232 9.206
44 C4 233 7.253
44 C4 234 6.276
44 C4 235 7.253
44 C4 236 8.230
44 C4 237 7.741
44 C4 238 7.253
44 C4 239 7.741
44 C4 240 7.741
44 C4 241 5.300
44 C4 242 3.347
44 C4 243 2.858
44 C4 244 5.300
44 C4 245 8.230
44 C4 246 9.206
44 C4 247 8.230
44 C4 248 6.765
44 C4 249 5.300
44 C4 250 3.835
44 C4 251 2.858
44 C4 252 1.882
44 C4 253 1.394
44 C4 254 -0.071
44 C4 255 0.417
# CP5 chan 18
44 CP5 0 -0.671
44 CP5 1 -0.183
44 CP5 2 1.770
44 CP5 3 4.211
44 CP5 4 5.676
44 CP5 5 5.188
44 CP5 6 4.211
44 CP5 7 3.235
44 CP5 8 2.747
44 CP5 9 3.723
44 CP5 10 6.165
44 CP5 11 8.606
44 CP5 12 8.606
44 CP5 13 7.629
44 CP5 14 6.653
44 CP5 15 4.211
44 CP5 16 0.793
44 CP5 17 -2.136
44 CP5 18 -1.648
44 CP5 19 0.305
44 CP5 20 0.305
44 CP5 21 -0.671
44 CP5 22 0.305
44 CP5 23 2.258
44 CP5 24 4.211
44 CP5 25 6.165
44 CP5 26 9.583
44 CP5 27 14.465
44 CP5 28 16.907
44 CP5 29 15.930
44 CP5 30 13.489
44 CP5 31 13.000
44 CP5 32 13.977
44 CP5 33 13.489
44 CP5 34 12.512
44 CP5 35 11.536
44 CP5 36 11.047
44 CP5 37 10.071
44 CP5 38 7.629
44 CP5 39 4.700
44 CP5 40 1.282
44 CP5 41 -1.160
44 CP5 42 -1.648
44 CP5 43 -0.671
44 CP5 44 -2.136
44 CP5 45 -6.042
44 CP5 46 -8.972
44 CP5 47 -7.996
44 CP5 48 -6.042
44 CP5 49 -5.066
44 CP5 50 -6.042
44 CP5 51 -4.578
44 CP5 52 -1.648
44 CP5 53 1.770
44 CP5 54 3.723
44 CP5 55 4.700
44 CP5 56 5.676
44 CP5 57 7.629
44 CP5 58 10.559
44 CP5 59 13.489
44 CP5 60 15.442
44 CP5 61 17.395
44 CP5 62 19.348
44 CP5 63 20.325
44 CP5 64 19.348
44 CP5 65 17.883
44 CP5 66 17.883
44 CP5 67 17.883
44 CP5 68 17.395
44 CP5 69 17.883
44 CP5 70 18.860
44 CP5 71 19.836
44 CP5 72 19.348
44 CP5 73 17.883
44 CP5 74 16.907
44 CP5 75 16.907
44 CP5 76 17.395
44 CP5 77 17.883
44 CP5 78 18.372
44 CP5 79 17.395
44 CP5 80 15.442
44 CP5 81 13.489
44 CP5 82 12.512
44 CP5 83 13.489
44 CP5 84 14.465
44 CP5 85 14.465
44 CP5 86 13.000
44 CP5 87 10.559
44 CP5 88 9.583
44 CP5 89 9.583
44 CP5 90 9.583
44 CP5 91 9.094
44 CP5 92 8.118
44 CP5 93 6.653
44 CP5 94 6.653
44 CP5 95 8.118
44 CP5 96 8.118
44 CP5 97 6.653
44 CP5 98 6.165
44 CP5 99 8.118
44 CP5 100 11.536
44 CP5 101 12.512
44 CP5 102 12.512
44 CP5 103 12.512
44 CP5 104 13.977
44 CP5 105 14.954
44 CP5 106 12.512
44 CP5 107 11.047
44 CP5 108 10.071
44 CP5 109 9.583
44 CP5 110 9.094
44 CP5 111 8.606
44 CP5 112 8.118
44 CP5 113 7.141
44 CP5 114 6.653
44 CP5 115 6.653
44 CP5 116 7.141
44 CP5 117 7.629
44 CP5 118 7.629
44 CP5 119 8.606
44 CP5 120 9.583
44 CP5 121 11.047
44 CP5 122 12.512
44 CP5 123 13.000
44 CP5 124 12.512
44 CP5 125 10.559
44 CP5 126 7.141
44 CP5 127 5.188
44 CP5 128 5.188
44 CP5 129 4.700
44 CP5 130 3.723
44 CP5 131 1.770
44 CP5 132 0.305
44 CP5 133 -1.160
44 CP5 134 -1.160
44 CP5 135 0.793
44 CP5 136 2.258
44 CP5 137 3.235
44 CP5 138 4.700
44 CP5 139 6.165
44 CP5 140 6.653
44 CP5 141 5.188
44 CP5 142 3.235
44 CP5 143 2.747
44 CP5 144 1.770
44 CP5 145 0.305
44 CP5 146 -1.160
44 CP5 147 -0.671
44 CP5 148 0.305
44 CP5 149 -0.183
44 CP5 150 -0.671
44 CP5 151 1.282
44 CP5 152 4.211
44 CP5 153 7.629
44 CP5 154 9.094
44 CP5 155 10.071
44 CP5 156 11.047
44 CP5 157 12.512
44 CP5 158 12.024
44 CP5 159 9.094
44 CP5 160 6.653
44 CP5 161 5.188
44 CP5 162 6.165
44 CP5 163 7.141
44 CP5 164 8.118
44 CP5 165 9.583
44 CP5 166 9.094
44 CP5 167 8.606
44 CP5 168 9.094
44 CP5 169 9.583
44 CP5 170 8.118
44 CP5 171 5.676
44 CP5 172 5.676
44 CP5 173 8.606
44 CP5 174 11.047
44 CP5 175 11.536
44 CP5 176 10.559
44 CP5 177 9.583
44 CP5 178 9.583
44 CP5 179 11.047
44 CP5 180 13.000
44 CP5 181 12.024
44 CP5 182 8.606
44 CP5 183 6.653
44 CP5 184 9.094
44 CP5 185 12.512
44 CP5 186 13.489
44 CP5 187 13.489
44 CP5 188 14.465
44 CP5 189 16.418
44 CP5 190 16.907
44 CP5 191 15.442
44 CP5 192 15.442
44 CP5 193 17.395
44 CP5 194 18.372
44 CP5 195 17.395
44 CP5 196 14.465
44 CP5 197 13.000
44 CP5 198 11.536
44 CP5 199 10.071
44 CP5 200 8.606
44 CP5 201 7.629
44 CP5 202 8.606
44 CP5 203 9.583
44 CP5 204 9.583
44 CP5 205 10.071
44 CP5 206 10.559
44 CP5 207 11.536
44 CP5 208 10.559
44 CP5 209 9.583
44 CP5 210 10.559
44 CP5 211 12.512
44 CP5 212 13.000
44 CP5 213 12.024
44 CP5 214 10.559
44 CP5 215 10.559
44 CP5 216 10.071
44 CP5 217 9.094
44 CP5 218 9.583
44 CP5 219 11.047
44 CP5 220 13.489
44 CP5 221 13.977
44 CP5 222 13.489
44 CP5 223 13.000
44 CP5 224 12.512
44 CP5 225 12.512
44 CP5 226 10.559
44 CP5 227 7.141
44 CP5 228 4.700
44 CP5 229 3.723
44 CP5 230 5.676
44 CP5 231 7.629
44 CP5 232 9.094
44 CP5 233 10.071
44 CP5 234 10.559
44 CP5 235 11.047
44 CP5 236 11.536
44 CP5 237 10.559
44 CP5 238 7.141
44 CP5 239 3.235
44 CP5 240 1.770
44 CP5 241 1.282
44 CP5 242 1.282
44 CP5 243 1.282
44 CP5 244 4.700
44 CP5 245 10.559
44 CP5 246 15.442
44 CP5 247 15.930
44 CP5 248 13.977
44 CP5 249 13.000
44 CP5 250 13.489
44 CP5 251 13.489
44 CP5 252 12.512
44 CP5 253 10.559
44 CP5 254 7.629
44 CP5 255 4.700
# CP6 chan 19
44 CP6 0 -0.376
44 CP6 1 -0.376
44 CP6 2 0.600
44 CP6 3 0.600
44 CP6 4 1.088
44 CP6 5 1.577
44 CP6 6 2.065
44 CP6 7 2.553
44 CP6 8 4.995
44 CP6 9 7.924
44 CP6 10 10.366
44 CP6 11 10.366
44 CP6 12 7.436
44 CP6 13 4.506
44 CP6 14 3.042
44 CP6 15 3.042
44 CP6 16 1.577
44 CP6 17 -0.376
44 CP6 18 -0.865
44 CP6 19 0.600
44 CP6 20 0.600
44 CP6 21 -0.865
44 CP6 22 -0.376
44 CP6 23 2.553
44 CP6 24 4.995
44 CP6 25 4.995
44 CP6 26 4.995
44 CP6 27 7.924
44 CP6 28 10.854
44 CP6 29 9.878
44 CP6 30 6.460
44 CP6 31 4.018
44 CP6 32 4.506
44 CP6 33 4.995
44 CP6 34 4.018
44 CP6 35 4.018
44 CP6 36 5.971
44 CP6 37 6.948
44 CP6 38 4.995
44 CP6 39 0.112
44 CP6 40 -2.818
44 CP6 41 -3.794
44 CP6 42 -2.818
44 CP6 43 -1.353
44 CP6 44 0.112
44 CP6 45 0.600
44 CP6 46 0.112
44 CP6 47 -0.865
44 CP6 48 -1.841
44 CP6 49 -3.306
44 CP6 50 -3.794
44 CP6 51 -2.818
44 CP6 52 -0.865
44 CP6 53 0.600
44 CP6 54 0.600
44 CP6 55 0.600
44 CP6 56 0.112
44 CP6 57 2.065
44 CP6 58 6.460
44 CP6 59 12.319
44 CP6 60 16.225
44 CP6 61 16.713
44 CP6 62 15.249
44 CP6 63 14.760
44 CP6 64 14.760
44 CP6 65 15.737
44 CP6 66 16.713
44 CP6 67 16.713
44 CP6 68 17.202
44 CP6 69 19.643
44 CP6 70 23.061
44 CP6 71 25.014
44 CP6 72 24.038
44 CP6 73 22.085
44 CP6 74 22.085
44 CP6 75 23.549
44 CP6 76 23.549
44 CP6 77 22.573
44 CP6 78 21.596
44 CP6 79 20.620
44 CP6 80 19.155
44 CP6 81 17.202
44 CP6 82 17.202
44 CP6 83 17.202
44 CP6 84 15.737
44 CP6 85 13.784
44 CP6 86 13.295
44 CP6 87 13.784
44 CP6 88 11.831
44 CP6 89 9.389
44 CP6 90 9.389
44 CP6 91 10.854
44 CP6 92 9.878
44 CP6 93 6.948
44 CP6 94 5.971
44 CP6 95 6.948
44 CP6 96 6.948
44 CP6 97 5.483
44 CP6 98 4.995
44 CP6 99 6.948
44 CP6 100 10.366
44 CP6 101 11.831
44 CP6 102 11.831
44 CP6 103 11.831
44 CP6 104 13.295
44 CP6 105 14.760
44 CP6 106 15.249
44 CP6 107 13.784
44 CP6 108 12.807
44 CP6 109 12.807
44 CP6 110 12.319
44 CP6 111 11.831
44 CP6 112 10.854
44 CP6 113 9.389
44 CP6 114 6.460
44 CP6 115 5.483
44 CP6 116 6.460
44 CP6 117 7.436
44 CP6 118 8.413
44 CP6 119 10.366
44 CP6 120 12.319
44 CP6 121 13.295
44 CP6 122 13.784
44 CP6 123 15.249
44 CP6 124 16.225
44 CP6 125 14.760
44 CP6 126 12.807
44 CP6 127 10.854
44 CP6 128 9.389
44 CP6 129 7.924
44 CP6 130 7.924
44 CP6 131 8.901
44 CP6 132 8.413
44 CP6 133 4.995
44 CP6 134 3.042
44 CP6 135 3.530
44 CP6 136 4.506
44 CP6 137 4.506
44 CP6 138 4.995
44 CP6 139 5.971
44 CP6 140 4.506
44 CP6 141 0.600
44 CP6 142 -0.865
44 CP6 143 1.088
44 CP6 144 3.042
44 CP6 145 3.530
44 CP6 146 4.506
44 CP6 147 6.460
44 CP6 148 5.483
44 CP6 149 2.553
44 CP6 150 0.600
44 CP6 151 2.065
44 CP6 152 4.995
44 CP6 153 6.948
44 CP6 154 7.924
44 CP6 155 8.901
44 CP6 156 9.389
44 CP6 157 8.901
44 CP6 158 8.413
44 CP6 159 7.924
44 CP6 160 8.413
44 CP6 161 8.413
44 CP6 162 8.413
44 CP6 163 9.878
44 CP6 164 11.342
44 CP6 165 12.319
44 CP6 166 12.319
44 CP6 167 11.831
44 CP6 168 13.295
44 CP6 169 13.784
44 CP6 170 11.831
44 CP6 171 8.901
44 CP6 172 7.436
44 CP6 173 7.436
44 CP6 174 6.460
44 CP6 175 4.995
44 CP6 176 3.530
44 CP6 177 3.042
44 CP6 178 2.553
44 CP6 179 3.530
44 CP6 180 4.995
44 CP6 181 4.995
44 CP6 182 4.018
44 CP6 183 2.553
44 CP6 184 3.530
44 CP6 185 5.971
44 CP6 186 8.413
44 CP6 187 10.854
44 CP6 188 14.272
44 CP6 189 16.225
44 CP6 190 15.249
44 CP6 191 11.831
44 CP6 192 8.901
44 CP6 193 8.901
44 CP6 194 9.878
44 CP6 195 9.878
44 CP6 196 8.413
44 CP6 197 7.436
44 CP6 198 7.924
44 CP6 199 7.436
44 CP6 200 4.995
44 CP6 201 2.553
44 CP6 202 4.018
44 CP6 203 6.948
44 CP6 204 8.413
44 CP6 205 7.924
44 CP6 206 9.389
44 CP6 207 11.831
44 CP6 208 10.854
44 CP6 209 7.436
44 CP6 210 6.460
44 CP6 211 8.413
44 CP6 212 10.366
44 CP6 213 10.366
44 CP6 214 9.389
44 CP6 215 10.366
44 CP6 216 10.366
44 CP6 217 8.901
44 CP6 218 7.924
44 CP6 219 8.413
44 CP6 220 9.878
44 CP6 221 9.878
44 CP6 222 7.924
44 CP6 223 6.460
44 CP6 224 6.460
44 CP6 225 6.460
44 CP6 226 4.995
44 CP6 227 3.530
44 CP6 228 3.530
44 CP6 229 5.483
44 CP6 230 7.924
44 CP6 231 10.854
44 CP6 232 14.272
44 CP6 233 15.249
44 CP6 234 14.760
44 CP6 235 14.760
44 CP6 236 16.225
44 CP6 237 16.713
44 CP6 238 13.784
44 CP6 239 9.389
44 CP6 240 6.948
44 CP6 241 4.995
44 CP6 242 2.065
44 CP6 243 1.088
44 CP6 244 5.483
44 CP6 245 12.807
44 CP6 246 15.737
44 CP6 247 13.784
44 CP6 248 10.854
44 CP6 249 9.878
44 CP6 250 9.878
44 CP6 251 8.413
44 CP6 252 5.971
44 CP6 253 4.506
44 CP6 254 3.042
44 CP6 255 2.065
# CP1 chan 20
44 CP1 0 -1.221
44 CP1 1 -2.197
44 CP1 2 -3.174
44 CP1 3 -3.174
44 CP1 4 -1.709
44 CP1 5 -0.244
44 CP1 6 0.732
44 CP1 7 1.221
44 CP1 8 0.732
44 CP1 9 0.244
44 CP1 10 0.244
44 CP1 11 1.221
44 CP1 12 2.197
44 CP1 13 3.174
44 CP1 14 3.662
44 CP1 15 3.174
44 CP1 16 2.197
44 CP1 17 0.732
44 CP1 18 -0.244
44 CP1 19 -0.732
44 CP1 20 -0.732
44 CP1 21 0.244
44 CP1 22 1.221
44 CP1 23 2.197
44 CP1 24 2.686
44 CP1 25 3.174
44 CP1 26 3.662
44 CP1 27 4.639
44 CP1 28 5.615
44 CP1 29 7.080
44 CP1 30 9.033
44 CP1 31 9.521
44 CP1 32 9.033
44 CP1 33 8.057
44 CP1 34 6.592
44 CP1 35 6.104
44 CP1 36 5.615
44 CP1 37 5.615
44 CP1 38 5.127
44 CP1 39 4.150
44 CP1 40 1.709
44 CP1 41 -1.221
44 CP1 42 -3.174
44 CP1 43 -4.639
44 CP1 44 -5.127
44 CP1 45 -4.639
44 CP1 46 -4.639
44 CP1 47 -4.639
44 CP1 48 -4.639
44 CP1 49 -4.639
44 CP1 50 -4.150
44 CP1 51 -3.174
44 CP1 52 -1.221
44 CP1 53 0.732
44 CP1 54 1.709
44 CP1 55 3.174
44 CP1 56 4.150
44 CP1 57 4.639
44 CP1 58 5.615
44 CP1 59 6.592
44 CP1 60 8.057
44 CP1 61 9.033
44 CP1 62 10.498
44 CP1 63 11.963
44 CP1 64 12.939
44 CP1 65 13.916
44 CP1 66 13.428
44 CP1 67 12.939
44 CP1 68 11.963
44 CP1 69 10.498
44 CP1 70 10.010
44 CP1 71 10.498
44 CP1 72 11.475
44 CP1 73 12.451
44 CP1 74 12.939
44 CP1 75 12.939
44 CP1 76 11.963
44 CP1 77 11.475
44 CP1 78 10.986
44 CP1 79 10.986
44 CP1 80 10.986
44 CP1 81 10.986
44 CP1 82 10.010
44 CP1 83 9.033
44 CP1 84 8.545
44 CP1 85 8.545
44 CP1 86 9.033
44 CP1 87 10.010
44 CP1 88 10.010
44 CP1 89 9.033
44 CP1 90 8.057
44 CP1 91 6.104
44 CP1 92 5.615
44 CP1 93 5.615
44 CP1 94 6.592
44 CP1 95 7.080
44 CP1 96 7.568
44 CP1 97 8.057
44 CP1 98 8.057
44 CP1 99 8.545
44 CP1 100 8.545
44 CP1 101 8.545
44 CP1 102 8.545
44 CP1 103 8.545
44 CP1 104 9.033
44 CP1 105 10.010
44 CP1 106 10.010
44 CP1 107 9.521
44 CP1 108 9.521
44 CP1 109 8.545
44 CP1 110 8.057
44 CP1 111 8.057
44 CP1 112 8.057
44 CP1 113 8.057
44 CP1 114 7.568
44 CP1 115 7.080
44 CP1 116 6.592
44 CP1 117 6.104
44 CP1 118 6.592
44 CP1 119 7.080
44 CP1 120 7.568
44 CP1 121 8.057
44 CP1 122 8.545
44 CP1 123 9.033
44 CP1 124 9.521
44 CP1 125 10.010
44 CP1 126 9.521
44 CP1 127 8.545
44 CP1 128 7.568
44 CP1 129 6.592
44 CP1 130 6.592
44 CP1 131 6.104
44 CP1 132 5.615
44 CP1 133 4.639
44 CP1 134 3.662
44 CP1 135 2.197
44 CP1 136 1.709
44 CP1 137 2.197
44 CP1 138 3.174
44 CP1 139 4.150
44 CP1 140 5.127
44 CP1 141 6.104
44 CP1 142 5.615
44 CP1 143 5.127
44 CP1 144 4.150
44 CP1 145 2.686
44 CP1 146 1.709
44 CP1 147 0.244
44 CP1 148 -0.732
44 CP1 149 -1.221
44 CP1 150 -1.709
44 CP1 151 -1.709
44 CP1 152 -1.221
44 CP1 153 -0.732
44 CP1 154 0.244
44 CP1 155 1.709
44 CP1 156 3.174
44 CP1 157 4.150
44 CP1 158 4.639
44 CP1 159 4.639
44 CP1 160 3.662
44 CP1 161 2.686
44 CP1 162 1.709
44 CP1 163 1.221
44 CP1 164 1.221
44 CP1 165 2.197
44 CP1 166 3.662
44 CP1 167 5.127
44 CP1 168 5.127
44 CP1 169 4.150
44 CP1 170 3.174
44 CP1 171 2.197
44 CP1 172 1.221
44 CP1 173 1.221
44 CP1 174 1.221
44 CP1 175 2.197
44 CP1 176 3.174
44 CP1 177 4.150
44 CP1 178 5.127
44 CP1 179 5.127
44 CP1 180 6.104
44 CP1 181 6.104
44 CP1 182 6.592
44 CP1 183 6.592
44 CP1 184 6.104
44 CP1 185 5.615
44 CP1 186 5.615
44 CP1 187 6.104
44 CP1 188 7.080
44 CP1 189 7.568
44 CP1 190 7.568
44 CP1 191 6.592
44 CP1 192 6.104
44 CP1 193 6.592
44 CP1 194 7.568
44 CP1 195 9.033
44 CP1 196 9.521
44 CP1 197 9.521
44 CP1 198 8.545
44 CP1 199 6.592
44 CP1 200 5.127
44 CP1 201 3.662
44 CP1 202 3.174
44 CP1 203 2.686
44 CP1 204 3.174
44 CP1 205 3.662
44 CP1 206 3.662
44 CP1 207 4.639
44 CP1 208 5.127
44 CP1 209 5.127
44 CP1 210 5.127
44 CP1 211 5.127
44 CP1 212 5.615
44 CP1 213 6.104
44 CP1 214 6.104
44 CP1 215 6.592
44 CP1 216 6.592
44 CP1 217 6.104
44 CP1 218 5.127
44 CP1 219 5.127
44 CP1 220 5.615
44 CP1 221 7.080
44 CP1 222 8.057
44 CP1 223 9.033
44 CP1 224 9.033
44 CP1 225 8.057
44 CP1 226 7.080
44 CP1 227 6.104
44 CP1 228 5.615
44 CP1 229 5.127
44 CP1 230 4.150
44 CP1 231 3.662
44 CP1 232 3.662
44 CP1 233 4.150
44 CP1 234 5.127
44 CP1 235 5.615
44 CP1 236 6.104
44 CP1 237 5.615
44 CP1 238 4.639
44 CP1 239 4.150
44 CP1 240 2.686
44 CP1 241 1.709
44 CP1 242 0.732
44 CP1 243 0.244
44 CP1 244 0.244
44 CP1 245 1.221
44 CP1 246 3.174
44 CP1 247 5.615
44 CP1 248 7.080
44 CP1 249 8.057
44 CP1 250 8.057
44 CP1 251 7.568
44 CP1 252 7.080
44 CP1 253 6.592
44 CP1 254 6.104
44 CP1 255 5.615
# CP2 chan 21
44 CP2 0 0.346
44 CP2 1 -1.119
44 CP2 2 -2.096
44 CP2 3 -2.584
44 CP2 4 -1.119
44 CP2 5 -0.142
44 CP2 6 0.346
44 CP2 7 0.346
44 CP2 8 -0.142
44 CP2 9 -0.142
44 CP2 10 0.346
44 CP2 11 1.322
44 CP2 12 2.299
44 CP2 13 2.299
44 CP2 14 1.322
44 CP2 15 0.834
44 CP2 16 -0.631
44 CP2 17 -0.631
44 CP2 18 -0.631
44 CP2 19 -0.142
44 CP2 20 -0.142
44 CP2 21 0.346
44 CP2 22 0.346
44 CP2 23 0.346
44 CP2 24 0.346
44 CP2 25 0.834
44 CP2 26 0.834
44 CP2 27 1.322
44 CP2 28 1.322
44 CP2 29 1.811
44 CP2 30 2.299
44 CP2 31 2.299
44 CP2 32 1.811
44 CP2 33 0.834
44 CP2 34 -0.142
44 CP2 35 -0.631
44 CP2 36 -0.142
44 CP2 37 0.834
44 CP2 38 1.322
44 CP2 39 0.834
44 CP2 40 -0.631
44 CP2 41 -3.072
44 CP2 42 -4.537
44 CP2 43 -5.025
44 CP2 44 -4.537
44 CP2 45 -3.072
44 CP2 46 -2.096
44 CP2 47 -1.119
44 CP2 48 -1.607
44 CP2 49 -2.584
44 CP2 50 -3.072
44 CP2 51 -3.072
44 CP2 52 -2.096
44 CP2 53 -1.607
44 CP2 54 -1.119
44 CP2 55 -1.119
44 CP2 56 -1.119
44 CP2 57 -1.119
44 CP2 58 -0.631
44 CP2 59 0.834
44 CP2 60 2.787
44 CP2 61 4.740
44 CP2 62 6.694
44 CP2 63 7.182
44 CP2 64 7.182
44 CP2 65 6.205
44 CP2 66 5.717
44 CP2 67 5.229
44 CP2 68 6.205
44 CP2 69 6.694
44 CP2 70 7.670
44 CP2 71 8.158
44 CP2 72 8.647
44 CP2 73 9.623
44 CP2 74 10.111
44 CP2 75 10.111
44 CP2 76 9.623
44 CP2 77 9.135
44 CP2 78 8.647
44 CP2 79 9.135
44 CP2 80 9.135
44 CP2 81 9.135
44 CP2 82 9.135
44 CP2 83 8.158
44 CP2 84 8.158
44 CP2 85 8.158
44 CP2 86 8.647
44 CP2 87 8.647
44 CP2 88 8.158
44 CP2 89 7.182
44 CP2 90 5.717
44 CP2 91 4.740
44 CP2 92 4.252
44 CP2 93 4.740
44 CP2 94 4.740
44 CP2 95 4.740
44 CP2 96 4.252
44 CP2 97 3.764
44 CP2 98 3.764
44 CP2 99 4.252
44 CP2 100 5.229
44 CP2 101 5.717
44 CP2 102 6.205
44 CP2 103 6.694
44 CP2 104 7.670
44 CP2 105 8.158
44 CP2 106 8.647
44 CP2 107 8.647
44 CP2 108 8.647
44 CP2 109 8.158
44 CP2 110 7.670
44 CP2 111 7.182
44 CP2 112 6.694
44 CP2 113 6.694
44 CP2 114 6.205
44 CP2 115 5.717
44 CP2 116 5.229
44 CP2 117 4.740
44 CP2 118 5.229
44 CP2 119 5.229
44 CP2 120 6.205
44 CP2 121 6.694
44 CP2 122 7.182
44 CP2 123 8.647
44 CP2 124 9.135
44 CP2 125 9.623
44 CP2 126 9.623
44 CP2 127 8.647
44 CP2 128 8.647
44 CP2 129 7.670
44 CP2 130 7.670
44 CP2 131 7.670
44 CP2 132 7.182
44 CP2 133 6.694
44 CP2 134 6.205
44 CP2 135 4.740
44 CP2 136 3.764
44 CP2 137 2.787
44 CP2 138 2.787
44 CP2 139 2.787
44 CP2 140 3.764
44 CP2 141 4.252
44 CP2 142 4.252
44 CP2 143 3.276
44 CP2 144 2.299
44 CP2 145 1.322
44 CP2 146 0.834
44 CP2 147 0.834
44 CP2 148 0.834
44 CP2 149 0.346
44 CP2 150 -0.631
44 CP2 151 -1.607
44 CP2 152 -2.584
44 CP2 153 -2.584
44 CP2 154 -2.096
44 CP2 155 -1.119
44 CP2 156 0.346
44 CP2 157 1.322
44 CP2 158 1.811
44 CP2 159 1.322
44 CP2 160 1.322
44 CP2 161 1.811
44 CP2 162 2.299
44 CP2 163 2.787
44 CP2 164 3.764
44 CP2 165 4.740
44 CP2 166 5.229
44 CP2 167 5.717
44 CP2 168 5.229
44 CP2 169 4.740
44 CP2 170 3.764
44 CP2 171 2.787
44 CP2 172 2.299
44 CP2 173 2.299
44 CP2 174 2.299
44 CP2 175 2.299
44 CP2 176 2.299
44 CP2 177 3.276
44 CP2 178 3.764
44 CP2 179 4.740
44 CP2 180 5.717
44 CP2 181 6.205
44 CP2 182 6.694
44 CP2 183 6.694
44 CP2 184 6.205
44 CP2 185 6.205
44 CP2 186 6.205
44 CP2 187 6.205
44 CP2 188 7.182
44 CP2 189 8.158
44 CP2 190 9.135
44 CP2 191 9.623
44 CP2 192 9.135
44 CP2 193 8.647
44 CP2 194 8.158
44 CP2 195 7.670
44 CP2 196 8.158
44 CP2 197 9.135
44 CP2 198 9.623
44 CP2 199 8.647
44 CP2 200 7.182
44 CP2 201 5.229
44 CP2 202 4.252
44 CP2 203 3.764
44 CP2 204 4.252
44 CP2 205 5.717
44 CP2 206 6.694
44 CP2 207 7.670
44 CP2 208 8.647
44 CP2 209 8.647
44 CP2 210 8.158
44 CP2 211 7.670
44 CP2 212 7.182
44 CP2 213 7.670
44 CP2 214 8.158
44 CP2 215 8.647
44 CP2 216 9.135
44 CP2 217 8.647
44 CP2 218 8.158
44 CP2 219 7.670
44 CP2 220 7.670
44 CP2 221 7.670
44 CP2 222 8.158
44 CP2 223 8.647
44 CP2 224 8.158
44 CP2 225 7.670
44 CP2 226 6.694
44 CP2 227 6.205
44 CP2 228 5.229
44 CP2 229 4.740
44 CP2 230 4.252
44 CP2 231 4.740
44 CP2 232 5.717
44 CP2 233 7.182
44 CP2 234 8.647
44 CP2 235 9.135
44 CP2 236 9.135
44 CP2 237 8.158
44 CP2 238 7.182
44 CP2 239 6.694
44 CP2 240 5.717
44 CP2 241 5.229
44 CP2 242 3.764
44 CP2 243 2.299
44 CP2 244 1.322
44 CP2 245 1.322
44 CP2 246 2.787
44 CP2 247 4.740
44 CP2 248 6.694
44 CP2 249 7.670
44 CP2 250 6.694
44 CP2 251 5.229
44 CP2 252 3.764
44 CP2 253 3.276
44 CP2 254 3.764
44 CP2 255 3.764
# P3 chan 22
44 P3 0 -2.747
44 P3 1 -3.235
44 P3 2 -3.723
44 P3 3 -2.747
44 P3 4 -0.793
44 P3 5 2.625
44 P3 6 4.578
44 P3 7 5.554
44 P3 8 5.066
44 P3 9 4.089
44 P3 10 4.578
44 P3 11 5.554
44 P3 12 7.507
44 P3 13 8.972
44 P3 14 8.484
44 P3 15 6.531
44 P3 16 4.089
44 P3 17 1.160
44 P3 18 -1.282
44 P3 19 -2.747
44 P3 20 -2.747
44 P3 21 -1.282
44 P3 22 0.671
44 P3 23 2.136
44 P3 24 4.578
44 P3 25 6.042
44 P3 26 8.484
44 P3 27 11.414
44 P3 28 13.855
44 P3 29 16.785
44 P3 30 18.738
44 P3 31 19.226
44 P3 32 18.738
44 P3 33 16.785
44 P3 34 15.320
44 P3 35 14.343
44 P3 36 13.367
44 P3 37 12.878
44 P3 38 11.414
44 P3 39 8.484
44 P3 40 4.578
44 P3 41 0.183
44 P3 42 -4.211
44 P3 43 -6.653
44 P3 44 -7.141
44 P3 45 -6.165
44 P3 46 -5.188
44 P3 47 -5.188
44 P3 48 -6.165
44 P3 49 -7.141
44 P3 50 -7.141
44 P3 51 -5.676
44 P3 52 -2.258
44 P3 53 0.671
44 P3 54 3.601
44 P3 55 5.066
44 P3 56 7.019
44 P3 57 9.460
44 P3 58 12.390
44 P3 59 15.808
44 P3 60 18.250
44 P3 61 20.691
44 P3 62 23.132
44 P3 63 25.085
44 P3 64 26.062
44 P3 65 26.062
44 P3 66 25.085
44 P3 67 23.621
44 P3 68 21.667
44 P3 69 20.203
44 P3 70 20.203
44 P3 71 21.179
44 P3 72 22.156
44 P3 73 22.644
44 P3 74 23.132
44 P3 75 22.644
44 P3 76 21.667
44 P3 77 20.203
44 P3 78 18.738
44 P3 79 18.250
44 P3 80 17.761
44 P3 81 17.273
44 P3 82 16.296
44 P3 83 15.320
44 P3 84 13.855
44 P3 85 13.855
44 P3 86 14.343
44 P3 87 14.343
44 P3 88 14.343
44 P3 89 12.390
44 P3 90 10.437
44 P3 91 8.484
44 P3 92 7.996
44 P3 93 8.484
44 P3 94 9.460
44 P3 95 9.460
44 P3 96 8.972
44 P3 97 8.484
44 P3 98 8.484
44 P3 99 9.460
44 P3 100 9.949
44 P3 101 10.437
44 P3 102 10.925
44 P3 103 11.902
44 P3 104 12.878
44 P3 105 14.343
44 P3 106 14.832
44 P3 107 14.832
44 P3 108 13.855
44 P3 109 12.878
44 P3 110 11.902
44 P3 111 11.414
44 P3 112 10.437
44 P3 113 9.460
44 P3 114 8.484
44 P3 115 7.996
44 P3 116 7.507
44 P3 117 7.019
44 P3 118 7.019
44 P3 119 7.019
44 P3 120 7.996
44 P3 121 8.972
44 P3 122 10.437
44 P3 123 12.878
44 P3 124 14.832
44 P3 125 15.808
44 P3 126 15.808
44 P3 127 14.343
44 P3 128 12.390
44 P3 129 10.437
44 P3 130 8.972
44 P3 131 7.507
44 P3 132 6.042
44 P3 133 4.578
44 P3 134 2.136
44 P3 135 0.671
44 P3 136 -0.793
44 P3 137 -0.793
44 P3 138 -0.305
44 P3 139 0.671
44 P3 140 1.160
44 P3 141 1.648
44 P3 142 1.648
44 P3 143 1.160
44 P3 144 1.160
44 P3 145 1.160
44 P3 146 0.671
44 P3 147 -0.305
44 P3 148 -1.282
44 P3 149 -2.747
44 P3 150 -4.211
44 P3 151 -4.700
44 P3 152 -4.700
44 P3 153 -4.211
44 P3 154 -2.747
44 P3 155 -0.793
44 P3 156 0.671
44 P3 157 1.648
44 P3 158 1.648
44 P3 159 1.648
44 P3 160 1.648
44 P3 161 1.160
44 P3 162 0.671
44 P3 163 0.183
44 P3 164 0.671
44 P3 165 3.113
44 P3 166 6.531
44 P3 167 9.460
44 P3 168 9.949
44 P3 169 8.484
44 P3 170 5.066
44 P3 171 1.648
44 P3 172 0.183
44 P3 173 0.183
44 P3 174 1.648
44 P3 175 3.601
44 P3 176 5.554
44 P3 177 7.019
44 P3 178 8.484
44 P3 179 8.972
44 P3 180 9.460
44 P3 181 8.972
44 P3 182 8.972
44 P3 183 8.972
44 P3 184 8.972
44 P3 185 8.972
44 P3 186 8.972
44 P3 187 9.460
44 P3 188 11.414
44 P3 189 13.367
44 P3 190 15.320
44 P3 191 16.785
44 P3 192 16.296
44 P3 193 16.296
44 P3 194 16.296
44 P3 195 16.785
44 P3 196 17.761
44 P3 197 18.250
44 P3 198 17.273
44 P3 199 14.343
44 P3 200 10.925
44 P3 201 7.996
44 P3 202 5.554
44 P3 203 5.066
44 P3 204 5.066
44 P3 205 6.042
44 P3 206 7.507
44 P3 207 9.460
44 P3 208 10.925
44 P3 209 11.414
44 P3 210 11.414
44 P3 211 11.414
44 P3 212 11.902
44 P3 213 13.367
44 P3 214 13.855
44 P3 215 12.878
44 P3 216 10.925
44 P3 217 7.996
44 P3 218 6.042
44 P3 219 6.042
44 P3 220 8.484
44 P3 221 11.902
44 P3 222 14.832
44 P3 223 16.785
44 P3 224 15.808
44 P3 225 13.855
44 P3 226 11.902
44 P3 227 9.949
44 P3 228 7.996
44 P3 229 6.042
44 P3 230 4.089
44 P3 231 3.113
44 P3 232 3.113
44 P3 233 5.066
44 P3 234 7.996
44 P3 235 10.437
44 P3 236 11.414
44 P3 237 10.437
44 P3 238 8.972
44 P3 239 7.019
44 P3 240 4.089
44 P3 241 0.671
44 P3 242 -2.747
44 P3 243 -4.700
44 P3 244 -5.188
44 P3 245 -2.747
44 P3 246 1.648
44 P3 247 7.019
44 P3 248 11.414
44 P3 249 13.855
44 P3 250 13.855
44 P3 251 12.390
44 P3 252 10.925
44 P3 253 8.972
44 P3 254 7.996
44 P3 255 6.042
# P4 chan 23
44 P4 0 2.197
44 P4 1 0.732
44 P4 2 -1.221
44 P4 3 -2.686
44 P4 4 -2.686
44 P4 5 -1.709
44 P4 6 -0.244
44 P4 7 0.732
44 P4 8 1.221
44 P4 9 1.709
44 P4 10 4.150
44 P4 11 6.592
44 P4 12 9.521
44 P4 13 10.986
44 P4 14 10.010
44 P4 15 7.080
44 P4 16 4.150
44 P4 17 2.197
44 P4 18 0.732
44 P4 19 0.732
44 P4 20 0.732
44 P4 21 0.732
44 P4 22 1.221
44 P4 23 1.709
44 P4 24 3.662
44 P4 25 6.104
44 P4 26 8.545
44 P4 27 10.498
44 P4 28 11.475
44 P4 29 11.475
44 P4 30 11.963
44 P4 31 11.475
44 P4 32 10.986
44 P4 33 9.521
44 P4 34 8.057
44 P4 35 7.568
44 P4 36 8.057
44 P4 37 9.033
44 P4 38 10.010
44 P4 39 9.033
44 P4 40 6.104
44 P4 41 1.221
44 P4 42 -3.174
44 P4 43 -5.615
44 P4 44 -5.615
44 P4 45 -3.174
44 P4 46 -0.732
44 P4 47 0.732
44 P4 48 1.221
44 P4 49 -0.732
44 P4 50 -1.709
44 P4 51 -2.197
44 P4 52 -1.221
44 P4 53 1.221
44 P4 54 3.174
44 P4 55 5.127
44 P4 56 6.104
44 P4 57 7.080
44 P4 58 8.545
44 P4 59 10.986
44 P4 60 14.404
44 P4 61 19.287
44 P4 62 22.705
44 P4 63 24.170
44 P4 64 24.170
44 P4 65 22.217
44 P4 66 21.240
44 P4 67 21.240
44 P4 68 22.217
44 P4 69 23.193
44 P4 70 23.682
44 P4 71 24.658
44 P4 72 25.635
44 P4 73 26.611
44 P4 74 27.588
44 P4 75 27.588
44 P4 76 26.611
44 P4 77 24.658
44 P4 78 23.682
44 P4 79 23.682
44 P4 80 24.658
44 P4 81 24.658
44 P4 82 24.170
44 P4 83 22.217
44 P4 84 20.752
44 P4 85 20.264
44 P4 86 19.775
44 P4 87 19.287
44 P4 88 18.311
44 P4 89 16.357
44 P4 90 13.916
44 P4 91 11.963
44 P4 92 10.986
44 P4 93 11.475
44 P4 94 11.475
44 P4 95 11.475
44 P4 96 10.498
44 P4 97 10.010
44 P4 98 9.521
44 P4 99 10.010
44 P4 100 11.475
44 P4 101 12.939
44 P4 102 14.893
44 P4 103 16.357
44 P4 104 17.334
44 P4 105 18.311
44 P4 106 18.799
44 P4 107 18.311
44 P4 108 17.822
44 P4 109 17.334
44 P4 110 17.334
44 P4 111 16.846
44 P4 112 15.869
44 P4 113 15.381
44 P4 114 14.404
44 P4 115 13.916
44 P4 116 12.939
44 P4 117 11.475
44 P4 118 10.986
44 P4 119 10.498
44 P4 120 12.451
44 P4 121 14.893
44 P4 122 17.822
44 P4 123 19.775
44 P4 124 21.240
44 P4 125 21.729
44 P4 126 21.729
44 P4 127 21.240
44 P4 128 20.264
44 P4 129 18.799
44 P4 130 17.334
44 P4 131 15.869
44 P4 132 15.381
44 P4 133 14.893
44 P4 134 13.916
44 P4 135 11.963
44 P4 136 9.521
44 P4 137 7.568
44 P4 138 7.080
44 P4 139 8.057
44 P4 140 9.521
44 P4 141 10.498
44 P4 142 10.010
44 P4 143 8.057
44 P4 144 6.592
44 P4 145 6.104
44 P4 146 6.104
44 P4 147 7.080
44 P4 148 7.080
44 P4 149 6.104
44 P4 150 4.150
44 P4 151 1.709
44 P4 152 0.732
44 P4 153 0.732
44 P4 154 2.197
44 P4 155 4.639
44 P4 156 6.592
44 P4 157 7.568
44 P4 158 8.057
44 P4 159 7.568
44 P4 160 7.080
44 P4 161 7.080
44 P4 162 8.057
44 P4 163 9.033
44 P4 164 10.010
44 P4 165 11.475
44 P4 166 12.939
44 P4 167 13.916
44 P4 168 14.893
44 P4 169 14.404
44 P4 170 12.939
44 P4 171 10.986
44 P4 172 9.033
44 P4 173 7.568
44 P4 174 6.592
44 P4 175 6.592
44 P4 176 7.568
44 P4 177 8.057
44 P4 178 9.521
44 P4 179 10.010
44 P4 180 10.498
44 P4 181 10.498
44 P4 182 10.498
44 P4 183 10.498
44 P4 184 10.010
44 P4 185 10.010
44 P4 186 10.986
44 P4 187 12.939
44 P4 188 15.869
44 P4 189 19.775
44 P4 190 22.705
44 P4 191 23.682
44 P4 192 22.705
44 P4 193 21.240
44 P4 194 19.287
44 P4 195 19.287
44 P4 196 19.287
44 P4 197 20.264
44 P4 198 19.775
44 P4 199 17.822
44 P4 200 14.893
44 P4 201 11.963
44 P4 202 10.498
44 P4 203 10.010
44 P4 204 10.986
44 P4 205 12.939
44 P4 206 14.893
44 P4 207 17.334
44 P4 208 18.799
44 P4 209 18.799
44 P4 210 17.822
44 P4 211 16.357
44 P4 212 15.381
44 P4 213 15.381
44 P4 214 16.846
44 P4 215 17.822
44 P4 216 17.822
44 P4 217 16.846
44 P4 218 15.869
44 P4 219 15.381
44 P4 220 15.869
44 P4 221 16.846
44 P4 222 17.334
44 P4 223 17.334
44 P4 224 15.869
44 P4 225 14.404
44 P4 226 13.428
44 P4 227 11.963
44 P4 228 10.498
44 P4 229 9.033
44 P4 230 8.057
44 P4 231 9.033
44 P4 232 11.963
44 P4 233 16.357
44 P4 234 20.752
44 P4 235 22.705
44 P4 236 22.705
44 P4 237 21.729
44 P4 238 20.264
44 P4 239 18.799
44 P4 240 16.846
44 P4 241 13.916
44 P4 242 10.010
44 P4 243 6.104
44 P4 244 4.150
44 P4 245 5.127
44 P4 246 8.545
44 P4 247 13.916
44 P4 248 17.822
44 P4 249 19.287
44 P4 250 17.334
44 P4 251 14.404
44 P4 252 11.963
44 P4 253 10.986
44 P4 254 10.986
44 P4 255 10.498
# PZ chan 24
44 PZ 0 -1.485
44 PZ 1 -3.438
44 PZ 2 -3.927
44 PZ 3 -3.438
44 PZ 4 -2.462
44 PZ 5 -1.485
44 PZ 6 -0.997
44 PZ 7 -1.485
44 PZ 8 -1.485
44 PZ 9 -0.997
44 PZ 10 0.468
44 PZ 11 1.933
44 PZ 12 3.886
44 PZ 13 4.374
44 PZ 14 3.886
44 PZ 15 2.421
44 PZ 16 0.468
44 PZ 17 -0.509
44 PZ 18 -0.509
44 PZ 19 -0.020
44 PZ 20 0.956
44 PZ 21 1.444
44 PZ 22 1.933
44 PZ 23 2.909
44 PZ 24 2.909
44 PZ 25 2.909
44 PZ 26 2.909
44 PZ 27 2.909
44 PZ 28 2.909
44 PZ 29 4.374
44 PZ 30 5.351
44 PZ 31 6.327
44 PZ 32 5.839
44 PZ 33 4.862
44 PZ 34 3.886
44 PZ 35 4.374
44 PZ 36 5.351
44 PZ 37 6.327
44 PZ 38 5.351
44 PZ 39 2.909
44 PZ 40 -0.509
44 PZ 41 -4.415
44 PZ 42 -6.856
44 PZ 43 -7.833
44 PZ 44 -6.856
44 PZ 45 -4.903
44 PZ 46 -3.438
44 PZ 47 -3.438
44 PZ 48 -4.415
44 PZ 49 -5.391
44 PZ 50 -4.903
44 PZ 51 -3.927
44 PZ 52 -2.462
44 PZ 53 -0.997
44 PZ 54 -0.020
44 PZ 55 0.956
44 PZ 56 2.421
44 PZ 57 4.374
44 PZ 58 6.327
44 PZ 59 8.280
44 PZ 60 10.722
44 PZ 61 13.163
44 PZ 62 15.605
44 PZ 63 16.581
44 PZ 64 16.093
44 PZ 65 14.628
44 PZ 66 13.163
44 PZ 67 11.698
44 PZ 68 11.210
44 PZ 69 11.210
44 PZ 70 11.698
44 PZ 71 12.187
44 PZ 72 13.652
44 PZ 73 15.605
44 PZ 74 16.093
44 PZ 75 15.605
44 PZ 76 13.652
44 PZ 77 12.675
44 PZ 78 12.675
44 PZ 79 13.652
44 PZ 80 14.628
44 PZ 81 14.628
44 PZ 82 14.140
44 PZ 83 14.140
44 PZ 84 14.628
44 PZ 85 15.116
44 PZ 86 15.605
44 PZ 87 14.628
44 PZ 88 12.675
44 PZ 89 10.722
44 PZ 90 9.257
44 PZ 91 7.792
44 PZ 92 7.792
44 PZ 93 7.304
44 PZ 94 7.792
44 PZ 95 7.792
44 PZ 96 7.304
44 PZ 97 7.792
44 PZ 98 8.769
44 PZ 99 9.745
44 PZ 100 10.234
44 PZ 101 10.722
44 PZ 102 11.210
44 PZ 103 12.187
44 PZ 104 13.163
44 PZ 105 14.140
44 PZ 106 13.652
44 PZ 107 12.675
44 PZ 108 12.187
44 PZ 109 11.210
44 PZ 110 11.698
44 PZ 111 11.698
44 PZ 112 11.210
44 PZ 113 10.722
44 PZ 114 9.257
44 PZ 115 8.280
44 PZ 116 8.280
44 PZ 117 7.792
44 PZ 118 7.792
44 PZ 119 7.792
44 PZ 120 8.280
44 PZ 121 9.745
44 PZ 122 11.698
44 PZ 123 13.652
44 PZ 124 14.628
44 PZ 125 14.628
44 PZ 126 14.140
44 PZ 127 13.652
44 PZ 128 13.163
44 PZ 129 12.675
44 PZ 130 11.698
44 PZ 131 10.722
44 PZ 132 9.257
44 PZ 133 8.280
44 PZ 134 7.304
44 PZ 135 5.351
44 PZ 136 3.886
44 PZ 137 3.398
44 PZ 138 3.886
44 PZ 139 4.374
44 PZ 140 5.839
44 PZ 141 6.816
44 PZ 142 6.327
44 PZ 143 5.351
44 PZ 144 4.374
44 PZ 145 3.886
44 PZ 146 3.398
44 PZ 147 2.421
44 PZ 148 0.956
44 PZ 149 -1.485
44 PZ 150 -3.438
44 PZ 151 -4.903
44 PZ 152 -5.391
44 PZ 153 -4.415
44 PZ 154 -3.438
44 PZ 155 -1.973
44 PZ 156 -0.509
44 PZ 157 0.468
44 PZ 158 0.956
44 PZ 159 1.933
44 PZ 160 1.933
44 PZ 161 1.933
44 PZ 162 1.933
44 PZ 163 2.421
44 PZ 164 3.886
44 PZ 165 6.327
44 PZ 166 9.257
44 PZ 167 9.745
44 PZ 168 8.769
44 PZ 169 6.327
44 PZ 170 3.886
44 PZ 171 1.933
44 PZ 172 1.444
44 PZ 173 1.444
44 PZ 174 1.444
44 PZ 175 2.421
44 PZ 176 4.374
44 PZ 177 7.304
44 PZ 178 10.234
44 PZ 179 11.698
44 PZ 180 12.675
44 PZ 181 12.675
44 PZ 182 12.675
44 PZ 183 12.675
44 PZ 184 11.698
44 PZ 185 11.210
44 PZ 186 10.722
44 PZ 187 11.698
44 PZ 188 13.652
44 PZ 189 15.116
44 PZ 190 15.605
44 PZ 191 15.605
44 PZ 192 15.605
44 PZ 193 16.093
44 PZ 194 17.069
44 PZ 195 18.534
44 PZ 196 19.511
44 PZ 197 19.511
44 PZ 198 18.046
44 PZ 199 15.605
44 PZ 200 12.675
44 PZ 201 9.745
44 PZ 202 7.792
44 PZ 203 6.816
44 PZ 204 7.304
44 PZ 205 8.769
44 PZ 206 10.722
44 PZ 207 11.698
44 PZ 208 12.675
44 PZ 209 12.187
44 PZ 210 11.698
44 PZ 211 11.210
44 PZ 212 11.698
44 PZ 213 13.163
44 PZ 214 14.140
44 PZ 215 13.652
44 PZ 216 11.698
44 PZ 217 9.745
44 PZ 218 9.257
44 PZ 219 10.234
44 PZ 220 11.698
44 PZ 221 13.652
44 PZ 222 13.652
44 PZ 223 13.652
44 PZ 224 13.163
44 PZ 225 12.675
44 PZ 226 11.698
44 PZ 227 10.234
44 PZ 228 8.280
44 PZ 229 6.327
44 PZ 230 5.351
44 PZ 231 5.351
44 PZ 232 7.304
44 PZ 233 9.257
44 PZ 234 10.722
44 PZ 235 11.210
44 PZ 236 11.210
44 PZ 237 10.234
44 PZ 238 9.257
44 PZ 239 8.280
44 PZ 240 5.839
44 PZ 241 2.909
44 PZ 242 -0.020
44 PZ 243 -1.973
44 PZ 244 -2.462
44 PZ 245 -0.509
44 PZ 246 3.886
44 PZ 247 8.280
44 PZ 248 11.210
44 PZ 249 11.698
44 PZ 250 10.722
44 PZ 251 8.769
44 PZ 252 7.792
44 PZ 253 7.792
44 PZ 254 7.792
44 PZ 255 6.816
# P8 chan 25
44 P8 0 2.380
44 P8 1 -1.526
44 P8 2 -3.967
44 P8 3 -3.967
44 P8 4 -2.502
44 P8 5 -0.061
44 P8 6 0.427
44 P8 7 1.404
44 P8 8 2.380
44 P8 9 5.310
44 P8 10 9.216
44 P8 11 12.146
44 P8 12 13.611
44 P8 13 12.634
44 P8 14 10.193
44 P8 15 7.751
44 P8 16 4.822
44 P8 17 2.869
44 P8 18 1.404
44 P8 19 -0.061
44 P8 20 -0.061
44 P8 21 0.427
44 P8 22 0.916
44 P8 23 1.892
44 P8 24 2.869
44 P8 25 3.845
44 P8 26 5.310
44 P8 27 7.263
44 P8 28 9.216
44 P8 29 11.169
44 P8 30 12.146
44 P8 31 12.146
44 P8 32 11.169
44 P8 33 10.681
44 P8 34 11.169
44 P8 35 12.634
44 P8 36 15.076
44 P8 37 17.029
44 P8 38 17.029
44 P8 39 14.587
44 P8 40 10.193
44 P8 41 4.333
44 P8 42 -0.549
44 P8 43 -2.991
44 P8 44 -3.967
44 P8 45 -2.502
44 P8 46 -0.549
44 P8 47 -0.061
44 P8 48 -0.549
44 P8 49 -2.991
44 P8 50 -3.967
44 P8 51 -4.456
44 P8 52 -3.479
44 P8 53 -2.014
44 P8 54 0.427
44 P8 55 2.869
44 P8 56 4.822
44 P8 57 5.310
44 P8 58 6.287
44 P8 59 8.728
44 P8 60 13.611
44 P8 61 19.958
44 P8 62 25.818
44 P8 63 28.259
44 P8 64 27.771
44 P8 65 25.330
44 P8 66 24.353
44 P8 67 25.330
44 P8 68 26.794
44 P8 69 27.771
44 P8 70 28.748
44 P8 71 29.724
44 P8 72 32.166
44 P8 73 35.095
44 P8 74 36.560
44 P8 75 35.095
44 P8 76 32.166
44 P8 77 30.701
44 P8 78 30.701
44 P8 79 31.677
44 P8 80 31.189
44 P8 81 29.236
44 P8 82 26.794
44 P8 83 24.841
44 P8 84 24.353
44 P8 85 24.353
44 P8 86 23.376
44 P8 87 21.423
44 P8 88 19.470
44 P8 89 18.005
44 P8 90 17.517
44 P8 91 17.029
44 P8 92 16.052
44 P8 93 15.076
44 P8 94 13.611
44 P8 95 12.146
44 P8 96 10.681
44 P8 97 9.705
44 P8 98 9.705
44 P8 99 10.193
44 P8 100 11.658
44 P8 101 13.123
44 P8 102 15.076
44 P8 103 17.029
44 P8 104 18.005
44 P8 105 18.494
44 P8 106 18.982
44 P8 107 18.982
44 P8 108 19.470
44 P8 109 19.470
44 P8 110 19.470
44 P8 111 18.982
44 P8 112 18.494
44 P8 113 18.005
44 P8 114 17.029
44 P8 115 15.564
44 P8 116 13.123
44 P8 117 11.658
44 P8 118 11.658
44 P8 119 13.611
44 P8 120 16.541
44 P8 121 18.982
44 P8 122 20.447
44 P8 123 22.400
44 P8 124 23.865
44 P8 125 25.330
44 P8 126 25.818
44 P8 127 24.353
44 P8 128 21.423
44 P8 129 18.494
44 P8 130 16.052
44 P8 131 15.076
44 P8 132 15.076
44 P8 133 14.587
44 P8 134 13.123
44 P8 135 10.193
44 P8 136 7.751
44 P8 137 6.287
44 P8 138 7.263
44 P8 139 8.240
44 P8 140 9.705
44 P8 141 9.216
44 P8 142 7.263
44 P8 143 4.333
44 P8 144 3.357
44 P8 145 4.333
44 P8 146 7.263
44 P8 147 10.193
44 P8 148 11.169
44 P8 149 10.193
44 P8 150 7.263
44 P8 151 4.333
44 P8 152 3.357
44 P8 153 4.822
44 P8 154 7.751
44 P8 155 11.169
44 P8 156 12.146
44 P8 157 11.658
44 P8 158 9.705
44 P8 159 8.728
44 P8 160 8.728
44 P8 161 9.705
44 P8 162 9.705
44 P8 163 9.705
44 P8 164 9.705
44 P8 165 11.169
44 P8 166 13.611
44 P8 167 17.029
44 P8 168 18.982
44 P8 169 18.982
44 P8 170 18.494
44 P8 171 17.029
44 P8 172 15.076
44 P8 173 12.634
44 P8 174 10.193
44 P8 175 8.728
44 P8 176 8.728
44 P8 177 8.728
44 P8 178 8.240
44 P8 179 7.751
44 P8 180 7.263
44 P8 181 7.263
44 P8 182 8.240
44 P8 183 8.728
44 P8 184 7.751
44 P8 185 7.263
44 P8 186 7.751
44 P8 187 12.146
44 P8 188 18.982
44 P8 189 24.841
44 P8 190 27.771
44 P8 191 27.283
44 P8 192 24.841
44 P8 193 22.400
44 P8 194 21.423
44 P8 195 21.912
44 P8 196 21.912
44 P8 197 20.935
44 P8 198 19.958
44 P8 199 17.517
44 P8 200 16.052
44 P8 201 14.587
44 P8 202 13.611
44 P8 203 13.123
44 P8 204 13.123
44 P8 205 14.587
44 P8 206 17.029
44 P8 207 19.958
44 P8 208 21.912
44 P8 209 22.888
44 P8 210 21.912
44 P8 211 19.958
44 P8 212 18.494
44 P8 213 18.494
44 P8 214 18.982
44 P8 215 19.470
44 P8 216 19.958
44 P8 217 18.982
44 P8 218 18.005
44 P8 219 18.005
44 P8 220 18.494
44 P8 221 19.470
44 P8 222 19.958
44 P8 223 19.470
44 P8 224 18.005
44 P8 225 16.541
44 P8 226 15.076
44 P8 227 13.123
44 P8 228 12.146
44 P8 229 11.169
44 P8 230 11.169
44 P8 231 13.611
44 P8 232 17.517
44 P8 233 22.888
44 P8 234 27.283
44 P8 235 29.724
44 P8 236 30.212
44 P8 237 29.236
44 P8 238 27.283
44 P8 239 24.841
44 P8 240 20.935
44 P8 241 15.076
44 P8 242 8.728
44 P8 243 4.822
44 P8 244 4.333
44 P8 245 8.240
44 P8 246 15.076
44 P8 247 21.912
44 P8 248 25.818
44 P8 249 25.818
44 P8 250 22.888
44 P8 251 19.470
44 P8 252 16.052
44 P8 253 14.099
44 P8 254 12.634
44 P8 255 10.681
# P7 chan 26
44 P7 0 -2.716
44 P7 1 -1.251
44 P7 2 0.214
44 P7 3 1.678
44 P7 4 4.120
44 P7 5 6.073
44 P7 6 7.050
44 P7 7 7.538
44 P7 8 6.561
44 P7 9 6.073
44 P7 10 7.050
44 P7 11 9.003
44 P7 12 11.932
44 P7 13 13.397
44 P7 14 12.909
44 P7 15 9.491
44 P7 16 4.120
44 P7 17 0.214
44 P7 18 -2.716
44 P7 19 -3.693
44 P7 20 -2.716
44 P7 21 -1.251
44 P7 22 0.214
44 P7 23 1.190
44 P7 24 2.655
44 P7 25 4.608
44 P7 26 8.026
44 P7 27 12.421
44 P7 28 16.815
44 P7 29 20.233
44 P7 30 22.675
44 P7 31 22.675
44 P7 32 21.698
44 P7 33 20.233
44 P7 34 20.233
44 P7 35 20.721
44 P7 36 20.721
44 P7 37 20.233
44 P7 38 17.792
44 P7 39 14.374
44 P7 40 9.979
44 P7 41 6.073
44 P7 42 2.167
44 P7 43 -0.275
44 P7 44 -1.740
44 P7 45 -2.228
44 P7 46 -2.716
44 P7 47 -4.669
44 P7 48 -7.111
44 P7 49 -9.552
44 P7 50 -9.064
44 P7 51 -7.599
44 P7 52 -5.157
44 P7 53 -3.204
44 P7 54 -0.763
44 P7 55 1.678
44 P7 56 6.561
44 P7 57 11.444
44 P7 58 15.350
44 P7 59 17.792
44 P7 60 19.745
44 P7 61 22.675
44 P7 62 26.581
44 P7 63 29.999
44 P7 64 30.975
44 P7 65 30.487
44 P7 66 28.534
44 P7 67 27.069
44 P7 68 27.069
44 P7 69 27.069
44 P7 70 27.557
44 P7 71 28.046
44 P7 72 29.022
44 P7 73 29.510
44 P7 74 29.510
44 P7 75 28.534
44 P7 76 26.581
44 P7 77 25.116
44 P7 78 24.628
44 P7 79 24.628
44 P7 80 24.628
44 P7 81 24.139
44 P7 82 22.186
44 P7 83 20.721
44 P7 84 19.257
44 P7 85 19.745
44 P7 86 19.257
44 P7 87 18.768
44 P7 88 17.303
44 P7 89 14.862
44 P7 90 13.397
44 P7 91 12.909
44 P7 92 12.909
44 P7 93 13.397
44 P7 94 12.421
44 P7 95 10.956
44 P7 96 9.003
44 P7 97 8.514
44 P7 98 9.491
44 P7 99 10.468
44 P7 100 12.421
44 P7 101 13.885
44 P7 102 15.839
44 P7 103 17.792
44 P7 104 19.257
44 P7 105 19.745
44 P7 106 19.745
44 P7 107 19.257
44 P7 108 18.768
44 P7 109 18.280
44 P7 110 16.815
44 P7 111 14.862
44 P7 112 13.397
44 P7 113 12.421
44 P7 114 11.932
44 P7 115 11.932
44 P7 116 11.444
44 P7 117 10.956
44 P7 118 10.956
44 P7 119 10.956
44 P7 120 12.421
44 P7 121 13.885
44 P7 122 15.839
44 P7 123 18.280
44 P7 124 20.233
44 P7 125 21.698
44 P7 126 21.210
44 P7 127 18.280
44 P7 128 14.862
44 P7 129 10.956
44 P7 130 8.514
44 P7 131 7.538
44 P7 132 6.561
44 P7 133 4.608
44 P7 134 2.167
44 P7 135 -0.275
44 P7 136 -0.763
44 P7 137 0.214
44 P7 138 1.678
44 P7 139 3.143
44 P7 140 3.143
44 P7 141 2.655
44 P7 142 2.655
44 P7 143 2.655
44 P7 144 3.143
44 P7 145 3.632
44 P7 146 3.632
44 P7 147 3.632
44 P7 148 3.143
44 P7 149 2.167
44 P7 150 1.678
44 P7 151 1.190
44 P7 152 1.678
44 P7 153 3.143
44 P7 154 6.073
44 P7 155 8.514
44 P7 156 10.468
44 P7 157 11.444
44 P7 158 10.956
44 P7 159 9.979
44 P7 160 9.491
44 P7 161 9.003
44 P7 162 8.514
44 P7 163 8.514
44 P7 164 9.491
44 P7 165 12.909
44 P7 166 16.327
44 P7 167 18.280
44 P7 168 18.280
44 P7 169 15.839
44 P7 170 12.421
44 P7 171 9.979
44 P7 172 9.003
44 P7 173 9.003
44 P7 174 9.491
44 P7 175 11.444
44 P7 176 13.885
44 P7 177 16.327
44 P7 178 16.815
44 P7 179 15.350
44 P7 180 13.885
44 P7 181 13.397
44 P7 182 14.862
44 P7 183 16.327
44 P7 184 15.839
44 P7 185 14.374
44 P7 186 13.397
44 P7 187 15.350
44 P7 188 19.745
44 P7 189 24.139
44 P7 190 27.069
44 P7 191 27.069
44 P7 192 26.093
44 P7 193 25.604
44 P7 194 26.093
44 P7 195 26.581
44 P7 196 25.604
44 P7 197 24.139
44 P7 198 22.186
44 P7 199 19.745
44 P7 200 17.792
44 P7 201 15.839
44 P7 202 14.374
44 P7 203 13.885
44 P7 204 14.862
44 P7 205 16.815
44 P7 206 18.768
44 P7 207 19.745
44 P7 208 19.745
44 P7 209 18.768
44 P7 210 18.768
44 P7 211 18.768
44 P7 212 19.745
44 P7 213 20.721
44 P7 214 20.721
44 P7 215 19.745
44 P7 216 17.792
44 P7 217 15.839
44 P7 218 15.350
44 P7 219 15.839
44 P7 220 17.792
44 P7 221 19.745
44 P7 222 21.698
44 P7 223 22.675
44 P7 224 22.675
44 P7 225 21.698
44 P7 226 19.745
44 P7 227 16.327
44 P7 228 12.909
44 P7 229 9.979
44 P7 230 8.026
44 P7 231 8.514
44 P7 232 10.956
44 P7 233 14.862
44 P7 234 18.768
44 P7 235 21.210
44 P7 236 21.698
44 P7 237 21.210
44 P7 238 19.257
44 P7 239 15.839
44 P7 240 10.956
44 P7 241 5.096
44 P7 242 0.214
44 P7 243 -2.228
44 P7 244 -1.251
44 P7 245 3.143
44 P7 246 9.491
44 P7 247 16.327
44 P7 248 21.698
44 P7 249 24.139
44 P7 250 23.163
44 P7 251 20.721
44 P7 252 17.792
44 P7 253 15.839
44 P7 254 14.374
44 P7 255 12.909
# PO2 chan 27
44 PO2 0 2.014
44 PO2 1 1.038
44 PO2 2 0.061
44 PO2 3 0.549
44 PO2 4 1.038
44 PO2 5 1.526
44 PO2 6 1.526
44 PO2 7 1.526
44 PO2 8 2.991
44 PO2 9 5.432
44 PO2 10 8.850
44 PO2 11 12.756
44 PO2 12 15.198
44 PO2 13 16.174
44 PO2 14 15.686
44 PO2 15 13.733
44 PO2 16 11.780
44 PO2 17 9.827
44 PO2 18 8.362
44 PO2 19 7.385
44 PO2 20 6.897
44 PO2 21 6.897
44 PO2 22 7.874
44 PO2 23 9.338
44 PO2 24 11.780
44 PO2 25 14.709
44 PO2 26 17.639
44 PO2 27 20.569
44 PO2 28 22.522
44 PO2 29 23.987
44 PO2 30 24.475
44 PO2 31 23.499
44 PO2 32 22.034
44 PO2 33 21.057
44 PO2 34 21.057
44 PO2 35 22.522
44 PO2 36 23.499
44 PO2 37 23.987
44 PO2 38 22.522
44 PO2 39 19.104
44 PO2 40 14.709
44 PO2 41 8.850
44 PO2 42 3.967
44 PO2 43 0.549
44 PO2 44 0.061
44 PO2 45 2.014
44 PO2 46 3.967
44 PO2 47 4.456
44 PO2 48 2.991
44 PO2 49 0.549
44 PO2 50 -0.916
44 PO2 51 0.061
44 PO2 52 2.014
44 PO2 53 3.967
44 PO2 54 5.432
44 PO2 55 6.409
44 PO2 56 8.362
44 PO2 57 11.292
44 PO2 58 14.221
44 PO2 59 18.127
44 PO2 60 22.034
44 PO2 61 26.428
44 PO2 62 29.358
44 PO2 63 30.334
44 PO2 64 29.358
44 PO2 65 27.405
44 PO2 66 25.940
44 PO2 67 25.940
44 PO2 68 25.940
44 PO2 69 25.940
44 PO2 70 25.452
44 PO2 71 25.452
44 PO2 72 26.428
44 PO2 73 27.893
44 PO2 74 29.358
44 PO2 75 28.381
44 PO2 76 26.428
44 PO2 77 24.475
44 PO2 78 23.499
44 PO2 79 24.475
44 PO2 80 25.452
44 PO2 81 25.940
44 PO2 82 24.963
44 PO2 83 23.987
44 PO2 84 23.499
44 PO2 85 23.987
44 PO2 86 23.499
44 PO2 87 22.522
44 PO2 88 21.057
44 PO2 89 18.616
44 PO2 90 17.151
44 PO2 91 15.686
44 PO2 92 15.198
44 PO2 93 15.198
44 PO2 94 14.709
44 PO2 95 14.221
44 PO2 96 13.245
44 PO2 97 13.733
44 PO2 98 14.709
44 PO2 99 16.663
44 PO2 100 18.616
44 PO2 101 19.592
44 PO2 102 20.081
44 PO2 103 20.569
44 PO2 104 20.569
44 PO2 105 21.057
44 PO2 106 21.545
44 PO2 107 20.569
44 PO2 108 19.592
44 PO2 109 18.616
44 PO2 110 18.616
44 PO2 111 18.616
44 PO2 112 19.104
44 PO2 113 18.616
44 PO2 114 18.127
44 PO2 115 16.663
44 PO2 116 15.686
44 PO2 117 14.709
44 PO2 118 15.686
44 PO2 119 16.663
44 PO2 120 18.616
44 PO2 121 20.569
44 PO2 122 23.010
44 PO2 123 25.452
44 PO2 124 27.405
44 PO2 125 28.381
44 PO2 126 27.893
44 PO2 127 26.428
44 PO2 128 23.987
44 PO2 129 22.034
44 PO2 130 20.569
44 PO2 131 20.081
44 PO2 132 19.104
44 PO2 133 17.639
44 PO2 134 15.198
44 PO2 135 12.268
44 PO2 136 10.315
44 PO2 137 9.338
44 PO2 138 9.827
44 PO2 139 11.780
44 PO2 140 13.245
44 PO2 141 13.245
44 PO2 142 11.780
44 PO2 143 9.827
44 PO2 144 8.850
44 PO2 145 9.827
44 PO2 146 10.803
44 PO2 147 11.780
44 PO2 148 11.292
44 PO2 149 8.850
44 PO2 150 5.920
44 PO2 151 4.456
44 PO2 152 3.967
44 PO2 153 4.944
44 PO2 154 7.385
44 PO2 155 9.827
44 PO2 156 11.780
44 PO2 157 12.268
44 PO2 158 11.780
44 PO2 159 11.292
44 PO2 160 11.292
44 PO2 161 12.268
44 PO2 162 12.756
44 PO2 163 13.733
44 PO2 164 14.221
44 PO2 165 16.663
44 PO2 166 19.592
44 PO2 167 22.034
44 PO2 168 22.522
44 PO2 169 21.057
44 PO2 170 18.127
44 PO2 171 15.198
44 PO2 172 12.756
44 PO2 173 11.292
44 PO2 174 10.803
44 PO2 175 11.780
44 PO2 176 13.733
44 PO2 177 16.174
44 PO2 178 18.127
44 PO2 179 17.639
44 PO2 180 17.639
44 PO2 181 17.639
44 PO2 182 17.639
44 PO2 183 18.127
44 PO2 184 17.151
44 PO2 185 15.686
44 PO2 186 15.686
44 PO2 187 18.127
44 PO2 188 22.034
44 PO2 189 26.428
44 PO2 190 29.358
44 PO2 191 29.358
44 PO2 192 28.381
44 PO2 193 27.405
44 PO2 194 27.405
44 PO2 195 27.893
44 PO2 196 28.381
44 PO2 197 28.381
44 PO2 198 26.428
44 PO2 199 23.499
44 PO2 200 20.569
44 PO2 201 18.127
44 PO2 202 16.663
44 PO2 203 16.174
44 PO2 204 16.663
44 PO2 205 18.616
44 PO2 206 21.057
44 PO2 207 23.499
44 PO2 208 25.452
44 PO2 209 25.452
44 PO2 210 24.475
44 PO2 211 23.499
44 PO2 212 23.499
44 PO2 213 23.987
44 PO2 214 24.475
44 PO2 215 23.499
44 PO2 216 21.545
44 PO2 217 19.104
44 PO2 218 18.127
44 PO2 219 18.616
44 PO2 220 20.569
44 PO2 221 23.010
44 PO2 222 24.475
44 PO2 223 24.475
44 PO2 224 23.499
44 PO2 225 22.034
44 PO2 226 20.569
44 PO2 227 18.127
44 PO2 228 15.198
44 PO2 229 13.245
44 PO2 230 12.268
44 PO2 231 14.221
44 PO2 232 17.639
44 PO2 233 22.522
44 PO2 234 26.428
44 PO2 235 28.870
44 PO2 236 28.381
44 PO2 237 27.405
44 PO2 238 25.940
44 PO2 239 23.499
44 PO2 240 19.592
44 PO2 241 14.221
44 PO2 242 8.850
44 PO2 243 4.944
44 PO2 244 3.967
44 PO2 245 7.385
44 PO2 246 13.245
44 PO2 247 20.081
44 PO2 248 24.963
44 PO2 249 26.428
44 PO2 250 23.987
44 PO2 251 20.081
44 PO2 252 17.151
44 PO2 253 15.198
44 PO2 254 13.733
44 PO2 255 11.780
# PO1 chan 28
44 PO1 0 -1.943
44 PO1 1 -2.920
44 PO1 2 -2.920
44 PO1 3 -2.431
44 PO1 4 -0.966
44 PO1 5 1.475
44 PO1 6 2.940
44 PO1 7 3.428
44 PO1 8 3.428
44 PO1 9 3.428
44 PO1 10 4.405
44 PO1 11 6.358
44 PO1 12 8.799
44 PO1 13 9.776
44 PO1 14 9.288
44 PO1 15 6.846
44 PO1 16 4.405
