# co2a0000385.rd
# 120 trials, 64 chans, 416 samples 368 post_stim samples
# 3.906000 msecs uV
# S1 obj , trial 74
# FP1 chan 0
74 FP1 0 -0.549
74 FP1 1 0.427
74 FP1 2 0.427
74 FP1 3 -0.061
74 FP1 4 -1.038
74 FP1 5 -2.991
74 FP1 6 -4.944
74 FP1 7 -5.432
74 FP1 8 -4.456
74 FP1 9 -2.502
74 FP1 10 -0.061
74 FP1 11 0.916
74 FP1 12 0.427
74 FP1 13 -1.526
74 FP1 14 -3.479
74 FP1 15 -4.944
74 FP1 16 -5.432
74 FP1 17 -5.920
74 FP1 18 -7.385
74 FP1 19 -9.338
74 FP1 20 -10.803
74 FP1 21 -11.292
74 FP1 22 -8.850
74 FP1 23 -4.456
74 FP1 24 0.427
74 FP1 25 3.845
74 FP1 26 3.845
74 FP1 27 1.892
74 FP1 28 -1.526
74 FP1 29 -3.479
74 FP1 30 -3.967
74 FP1 31 -2.991
74 FP1 32 -1.038
74 FP1 33 0.427
74 FP1 34 0.916
74 FP1 35 0.427
74 FP1 36 -1.038
74 FP1 37 -3.967
74 FP1 38 -6.897
74 FP1 39 -9.338
74 FP1 40 -9.827
74 FP1 41 -8.850
74 FP1 42 -6.897
74 FP1 43 -4.944
74 FP1 44 -3.967
74 FP1 45 -2.991
74 FP1 46 -1.526
74 FP1 47 0.916
74 FP1 48 2.380
74 FP1 49 1.892
74 FP1 50 -1.038
74 FP1 51 -4.944
74 FP1 52 -7.874
74 FP1 53 -8.850
74 FP1 54 -7.874
74 FP1 55 -5.432
74 FP1 56 -2.014
74 FP1 57 1.892
74 FP1 58 6.287
74 FP1 59 9.705
74 FP1 60 10.681
74 FP1 61 8.240
74 FP1 62 3.845
74 FP1 63 0.427
74 FP1 64 0.427
74 FP1 65 3.845
74 FP1 66 9.216
74 FP1 67 12.146
74 FP1 68 11.169
74 FP1 69 7.263
74 FP1 70 2.380
74 FP1 71 0.427
74 FP1 72 0.916
74 FP1 73 3.357
74 FP1 74 4.822
74 FP1 75 4.333
74 FP1 76 2.380
74 FP1 77 -1.038
74 FP1 78 -3.967
74 FP1 79 -5.920
74 FP1 80 -6.409
74 FP1 81 -4.944
74 FP1 82 -2.014
74 FP1 83 1.404
74 FP1 84 3.845
74 FP1 85 4.822
74 FP1 86 3.357
74 FP1 87 0.916
74 FP1 88 -2.014
74 FP1 89 -3.967
74 FP1 90 -4.456
74 FP1 91 -4.456
74 FP1 92 -4.456
74 FP1 93 -4.456
74 FP1 94 -3.967
74 FP1 95 -3.479
74 FP1 96 -2.991
74 FP1 97 -2.991
74 FP1 98 -2.991
74 FP1 99 -2.502
74 FP1 100 -2.014
74 FP1 101 -1.038
74 FP1 102 -0.549
74 FP1 103 -1.038
74 FP1 104 -2.502
74 FP1 105 -3.967
74 FP1 106 -4.944
74 FP1 107 -4.456
74 FP1 108 -3.967
74 FP1 109 -2.991
74 FP1 110 -3.479
74 FP1 111 -4.944
74 FP1 112 -7.385
74 FP1 113 -9.338
74 FP1 114 -10.803
74 FP1 115 -10.803
74 FP1 116 -10.315
74 FP1 117 -9.338
74 FP1 118 -8.362
74 FP1 119 -8.850
74 FP1 120 -9.827
74 FP1 121 -11.292
74 FP1 122 -11.780
74 FP1 123 -10.315
74 FP1 124 -7.385
74 FP1 125 -4.456
74 FP1 126 -1.526
74 FP1 127 -0.061
74 FP1 128 0.916
74 FP1 129 0.916
74 FP1 130 0.916
74 FP1 131 0.427
74 FP1 132 -0.549
74 FP1 133 -1.038
74 FP1 134 -1.038
74 FP1 135 -0.549
74 FP1 136 0.916
74 FP1 137 2.869
74 FP1 138 3.845
74 FP1 139 3.357
74 FP1 140 1.404
74 FP1 141 -1.038
74 FP1 142 -2.991
74 FP1 143 -4.456
74 FP1 144 -4.944
74 FP1 145 -4.944
74 FP1 146 -4.456
74 FP1 147 -3.479
74 FP1 148 -2.014
74 FP1 149 -0.549
74 FP1 150 0.427
74 FP1 151 0.916
74 FP1 152 -0.549
74 FP1 153 -2.991
74 FP1 154 -5.432
74 FP1 155 -6.409
74 FP1 156 -6.897
74 FP1 157 -6.897
74 FP1 158 -7.385
74 FP1 159 -8.850
74 FP1 160 -9.827
74 FP1 161 -9.338
74 FP1 162 -7.874
74 FP1 163 -5.432
74 FP1 164 -2.991
74 FP1 165 -2.014
74 FP1 166 -2.014
74 FP1 167 -2.502
74 FP1 168 -2.991
74 FP1 169 -3.479
74 FP1 170 -3.967
74 FP1 171 -4.456
74 FP1 172 -4.944
74 FP1 173 -4.944
74 FP1 174 -5.432
74 FP1 175 -4.944
74 FP1 176 -3.967
74 FP1 177 -2.014
74 FP1 178 1.404
74 FP1 179 4.822
74 FP1 180 6.287
74 FP1 181 5.310
74 FP1 182 1.404
74 FP1 183 -2.991
74 FP1 184 -6.897
74 FP1 185 -7.385
74 FP1 186 -5.920
74 FP1 187 -3.479
74 FP1 188 -0.549
74 FP1 189 1.892
74 FP1 190 2.869
74 FP1 191 2.869
74 FP1 192 2.869
74 FP1 193 1.892
74 FP1 194 1.892
74 FP1 195 2.380
74 FP1 196 2.380
74 FP1 197 2.380
74 FP1 198 1.404
74 FP1 199 -0.549
74 FP1 200 -2.014
74 FP1 201 -2.502
74 FP1 202 -2.014
74 FP1 203 -1.038
74 FP1 204 -0.549
74 FP1 205 -1.526
74 FP1 206 -3.479
74 FP1 207 -4.456
74 FP1 208 -4.456
74 FP1 209 -2.991
74 FP1 210 -1.526
74 FP1 211 -1.038
74 FP1 212 -2.502
74 FP1 213 -4.456
74 FP1 214 -5.920
74 FP1 215 -6.409
74 FP1 216 -6.409
74 FP1 217 -6.409
74 FP1 218 -6.897
74 FP1 219 -7.385
74 FP1 220 -6.409
74 FP1 221 -5.432
74 FP1 222 -4.456
74 FP1 223 -4.456
74 FP1 224 -4.944
74 FP1 225 -4.944
74 FP1 226 -2.991
74 FP1 227 -0.061
74 FP1 228 2.869
74 FP1 229 3.357
74 FP1 230 1.404
74 FP1 231 -1.038
74 FP1 232 -2.991
74 FP1 233 -2.991
74 FP1 234 -2.014
74 FP1 235 -1.526
74 FP1 236 -2.014
74 FP1 237 -3.479
74 FP1 238 -4.456
74 FP1 239 -4.456
74 FP1 240 -3.967
74 FP1 241 -4.456
74 FP1 242 -4.944
74 FP1 243 -4.456
74 FP1 244 -2.502
74 FP1 245 0.427
74 FP1 246 2.869
74 FP1 247 3.845
74 FP1 248 2.869
74 FP1 249 1.404
74 FP1 250 0.916
74 FP1 251 1.404
74 FP1 252 2.869
74 FP1 253 4.822
74 FP1 254 6.287
74 FP1 255 6.287
# FP2 chan 1
74 FP2 0 -0.387
74 FP2 1 1.078
74 FP2 2 -0.387
74 FP2 3 -3.805
74 FP2 4 -7.711
74 FP2 5 -10.640
74 FP2 6 -10.640
74 FP2 7 -8.687
74 FP2 8 -4.781
74 FP2 9 -1.363
74 FP2 10 0.102
74 FP2 11 -0.875
74 FP2 12 -2.828
74 FP2 13 -5.269
74 FP2 14 -6.734
74 FP2 15 -7.222
74 FP2 16 -7.222
74 FP2 17 -6.734
74 FP2 18 -7.222
74 FP2 19 -8.199
74 FP2 20 -9.664
74 FP2 21 -11.129
74 FP2 22 -10.152
74 FP2 23 -6.246
74 FP2 24 -0.875
74 FP2 25 3.031
74 FP2 26 4.008
74 FP2 27 1.567
74 FP2 28 -2.828
74 FP2 29 -5.758
74 FP2 30 -5.758
74 FP2 31 -3.805
74 FP2 32 -0.875
74 FP2 33 0.590
74 FP2 34 0.590
74 FP2 35 -0.875
74 FP2 36 -2.340
74 FP2 37 -4.293
74 FP2 38 -6.246
74 FP2 39 -8.199
74 FP2 40 -9.176
74 FP2 41 -9.664
74 FP2 42 -8.199
74 FP2 43 -6.246
74 FP2 44 -4.781
74 FP2 45 -3.316
74 FP2 46 -1.851
74 FP2 47 0.102
74 FP2 48 0.590
74 FP2 49 0.590
74 FP2 50 -1.851
74 FP2 51 -5.269
74 FP2 52 -7.711
74 FP2 53 -8.199
74 FP2 54 -6.734
74 FP2 55 -3.316
74 FP2 56 -0.387
74 FP2 57 2.543
74 FP2 58 4.985
74 FP2 59 5.961
74 FP2 60 5.961
74 FP2 61 4.008
74 FP2 62 1.078
74 FP2 63 -0.387
74 FP2 64 1.078
74 FP2 65 5.473
74 FP2 66 10.356
74 FP2 67 12.797
74 FP2 68 10.844
74 FP2 69 5.473
74 FP2 70 -0.875
74 FP2 71 -4.293
74 FP2 72 -3.805
74 FP2 73 -1.363
74 FP2 74 0.590
74 FP2 75 0.102
74 FP2 76 -2.340
74 FP2 77 -5.758
74 FP2 78 -7.222
74 FP2 79 -7.222
74 FP2 80 -6.246
74 FP2 81 -4.781
74 FP2 82 -3.316
74 FP2 83 -2.828
74 FP2 84 -2.340
74 FP2 85 -1.363
74 FP2 86 -0.387
74 FP2 87 -0.387
74 FP2 88 -1.363
74 FP2 89 -3.316
74 FP2 90 -5.758
74 FP2 91 -7.711
74 FP2 92 -8.687
74 FP2 93 -8.687
74 FP2 94 -8.199
74 FP2 95 -8.687
74 FP2 96 -9.176
74 FP2 97 -9.176
74 FP2 98 -8.199
74 FP2 99 -6.246
74 FP2 100 -3.316
74 FP2 101 -0.387
74 FP2 102 0.590
74 FP2 103 0.590
74 FP2 104 -0.875
74 FP2 105 -3.316
74 FP2 106 -5.758
74 FP2 107 -8.199
74 FP2 108 -10.152
74 FP2 109 -11.129
74 FP2 110 -11.129
74 FP2 111 -10.152
74 FP2 112 -9.176
74 FP2 113 -8.687
74 FP2 114 -9.664
74 FP2 115 -11.617
74 FP2 116 -13.570
74 FP2 117 -14.547
74 FP2 118 -15.035
74 FP2 119 -16.012
74 FP2 120 -16.988
74 FP2 121 -17.476
74 FP2 122 -16.988
74 FP2 123 -15.035
74 FP2 124 -11.617
74 FP2 125 -8.687
74 FP2 126 -6.734
74 FP2 127 -6.246
74 FP2 128 -5.269
74 FP2 129 -4.293
74 FP2 130 -4.293
74 FP2 131 -4.781
74 FP2 132 -6.246
74 FP2 133 -7.711
74 FP2 134 -7.711
74 FP2 135 -6.246
74 FP2 136 -3.316
74 FP2 137 -1.363
74 FP2 138 -0.875
74 FP2 139 -1.851
74 FP2 140 -3.316
74 FP2 141 -4.781
74 FP2 142 -5.758
74 FP2 143 -7.222
74 FP2 144 -9.176
74 FP2 145 -10.152
74 FP2 146 -10.152
74 FP2 147 -8.687
74 FP2 148 -5.758
74 FP2 149 -2.828
74 FP2 150 -1.363
74 FP2 151 -2.340
74 FP2 152 -5.269
74 FP2 153 -8.199
74 FP2 154 -11.617
74 FP2 155 -13.082
74 FP2 156 -12.594
74 FP2 157 -11.617
74 FP2 158 -10.640
74 FP2 159 -11.129
74 FP2 160 -11.617
74 FP2 161 -12.594
74 FP2 162 -11.129
74 FP2 163 -9.664
74 FP2 164 -7.711
74 FP2 165 -7.222
74 FP2 166 -7.711
74 FP2 167 -9.176
74 FP2 168 -9.664
74 FP2 169 -9.176
74 FP2 170 -8.199
74 FP2 171 -7.222
74 FP2 172 -8.199
74 FP2 173 -9.664
74 FP2 174 -11.129
74 FP2 175 -11.617
74 FP2 176 -10.640
74 FP2 177 -8.687
74 FP2 178 -5.269
74 FP2 179 -1.363
74 FP2 180 1.567
74 FP2 181 2.055
74 FP2 182 -0.387
74 FP2 183 -4.781
74 FP2 184 -9.176
74 FP2 185 -10.640
74 FP2 186 -9.176
74 FP2 187 -6.246
74 FP2 188 -3.316
74 FP2 189 -1.851
74 FP2 190 -1.363
74 FP2 191 -1.851
74 FP2 192 -0.875
74 FP2 193 0.102
74 FP2 194 1.567
74 FP2 195 2.055
74 FP2 196 1.078
74 FP2 197 -1.363
74 FP2 198 -3.316
74 FP2 199 -5.269
74 FP2 200 -5.758
74 FP2 201 -6.246
74 FP2 202 -6.246
74 FP2 203 -6.246
74 FP2 204 -6.734
74 FP2 205 -7.222
74 FP2 206 -7.711
74 FP2 207 -8.199
74 FP2 208 -7.711
74 FP2 209 -6.734
74 FP2 210 -4.781
74 FP2 211 -3.316
74 FP2 212 -3.316
74 FP2 213 -5.269
74 FP2 214 -7.711
74 FP2 215 -10.152
74 FP2 216 -11.129
74 FP2 217 -11.129
74 FP2 218 -10.640
74 FP2 219 -9.664
74 FP2 220 -9.664
74 FP2 221 -9.176
74 FP2 222 -8.687
74 FP2 223 -7.222
74 FP2 224 -5.269
74 FP2 225 -3.805
74 FP2 226 -2.828
74 FP2 227 -3.316
74 FP2 228 -3.805
74 FP2 229 -4.781
74 FP2 230 -5.269
74 FP2 231 -5.758
74 FP2 232 -5.758
74 FP2 233 -5.758
74 FP2 234 -5.269
74 FP2 235 -5.269
74 FP2 236 -4.293
74 FP2 237 -3.316
74 FP2 238 -3.805
74 FP2 239 -6.246
74 FP2 240 -9.664
74 FP2 241 -12.594
74 FP2 242 -12.594
74 FP2 243 -9.176
74 FP2 244 -3.805
74 FP2 245 0.590
74 FP2 246 2.055
74 FP2 247 0.102
74 FP2 248 -2.340
74 FP2 249 -3.316
74 FP2 250 -3.316
74 FP2 251 -1.851
74 FP2 252 0.102
74 FP2 253 2.055
74 FP2 254 4.008
74 FP2 255 5.473
# F7 chan 2
74 F7 0 -4.740
74 F7 1 -0.346
74 F7 2 3.072
74 F7 3 3.072
74 F7 4 0.631
74 F7 5 -2.299
74 F7 6 -3.276
74 F7 7 -0.834
74 F7 8 3.560
74 F7 9 6.978
74 F7 10 6.978
74 F7 11 4.049
74 F7 12 -0.346
74 F7 13 -4.252
74 F7 14 -5.717
74 F7 15 -5.717
74 F7 16 -5.717
74 F7 17 -6.694
74 F7 18 -8.647
74 F7 19 -11.088
74 F7 20 -12.553
74 F7 21 -11.576
74 F7 22 -8.158
74 F7 23 -4.252
74 F7 24 -0.834
74 F7 25 0.142
74 F7 26 -0.834
74 F7 27 -2.787
74 F7 28 -2.787
74 F7 29 -0.346
74 F7 30 3.072
74 F7 31 5.025
74 F7 32 4.537
74 F7 33 2.584
74 F7 34 0.142
74 F7 35 -1.322
74 F7 36 -2.787
74 F7 37 -4.740
74 F7 38 -7.670
74 F7 39 -11.088
74 F7 40 -12.065
74 F7 41 -11.088
74 F7 42 -8.158
74 F7 43 -5.229
74 F7 44 -4.740
74 F7 45 -4.740
74 F7 46 -3.276
74 F7 47 0.142
74 F7 48 5.025
74 F7 49 7.467
74 F7 50 5.514
74 F7 51 0.142
74 F7 52 -5.229
74 F7 53 -7.182
74 F7 54 -4.740
74 F7 55 0.142
74 F7 56 5.025
74 F7 57 7.955
74 F7 58 9.908
74 F7 59 11.861
74 F7 60 13.814
74 F7 61 13.326
74 F7 62 10.396
74 F7 63 5.025
74 F7 64 0.142
74 F7 65 -0.346
74 F7 66 4.049
74 F7 67 11.373
74 F7 68 17.721
74 F7 69 20.650
74 F7 70 19.674
74 F7 71 16.744
74 F7 72 15.279
74 F7 73 15.767
74 F7 74 17.721
74 F7 75 18.209
74 F7 76 16.256
74 F7 77 11.861
74 F7 78 6.490
74 F7 79 2.584
74 F7 80 1.119
74 F7 81 2.584
74 F7 82 5.025
74 F7 83 7.955
74 F7 84 9.908
74 F7 85 11.373
74 F7 86 11.861
74 F7 87 12.838
74 F7 88 13.326
74 F7 89 13.326
74 F7 90 11.861
74 F7 91 9.420
74 F7 92 7.955
74 F7 93 8.443
74 F7 94 10.885
74 F7 95 14.303
74 F7 96 16.744
74 F7 97 17.232
74 F7 98 15.279
74 F7 99 11.861
74 F7 100 8.443
74 F7 101 5.025
74 F7 102 3.072
74 F7 103 2.096
74 F7 104 1.607
74 F7 105 1.607
74 F7 106 1.607
74 F7 107 2.096
74 F7 108 2.584
74 F7 109 3.560
74 F7 110 3.072
74 F7 111 1.119
74 F7 112 -1.811
74 F7 113 -4.740
74 F7 114 -5.717
74 F7 115 -3.764
74 F7 116 0.631
74 F7 117 6.002
74 F7 118 9.908
74 F7 119 10.885
74 F7 120 8.931
74 F7 121 6.490
74 F7 122 5.025
74 F7 123 6.002
74 F7 124 8.931
74 F7 125 10.885
74 F7 126 11.373
74 F7 127 10.396
74 F7 128 9.420
74 F7 129 9.908
74 F7 130 11.861
74 F7 131 12.349
74 F7 132 10.885
74 F7 133 7.955
74 F7 134 5.025
74 F7 135 4.537
74 F7 136 6.490
74 F7 137 9.908
74 F7 138 11.861
74 F7 139 11.861
74 F7 140 9.420
74 F7 141 6.490
74 F7 142 5.025
74 F7 143 5.025
74 F7 144 6.002
74 F7 145 7.467
74 F7 146 8.443
74 F7 147 8.443
74 F7 148 8.443
74 F7 149 7.955
74 F7 150 7.955
74 F7 151 7.955
74 F7 152 7.467
74 F7 153 6.002
74 F7 154 4.049
74 F7 155 1.607
74 F7 156 0.142
74 F7 157 -0.834
74 F7 158 -0.346
74 F7 159 0.631
74 F7 160 2.584
74 F7 161 4.537
74 F7 162 6.490
74 F7 163 8.443
74 F7 164 9.908
74 F7 165 11.861
74 F7 166 14.303
74 F7 167 17.232
74 F7 168 18.209
74 F7 169 17.232
74 F7 170 15.279
74 F7 171 13.326
74 F7 172 12.349
74 F7 173 11.861
74 F7 174 11.861
74 F7 175 10.396
74 F7 176 8.931
74 F7 177 9.420
74 F7 178 12.349
74 F7 179 17.232
74 F7 180 20.162
74 F7 181 19.185
74 F7 182 14.303
74 F7 183 9.420
74 F7 184 6.490
74 F7 185 8.443
74 F7 186 11.861
74 F7 187 14.791
74 F7 188 16.256
74 F7 189 14.791
74 F7 190 13.814
74 F7 191 14.791
74 F7 192 16.256
74 F7 193 16.256
74 F7 194 13.814
74 F7 195 10.396
74 F7 196 6.978
74 F7 197 5.514
74 F7 198 4.537
74 F7 199 4.537
74 F7 200 4.537
74 F7 201 5.025
74 F7 202 6.002
74 F7 203 7.467
74 F7 204 7.955
74 F7 205 6.978
74 F7 206 5.025
74 F7 207 3.072
74 F7 208 2.584
74 F7 209 3.072
74 F7 210 4.049
74 F7 211 4.537
74 F7 212 5.025
74 F7 213 6.002
74 F7 214 6.978
74 F7 215 6.490
74 F7 216 5.025
74 F7 217 2.096
74 F7 218 0.142
74 F7 219 0.142
74 F7 220 2.096
74 F7 221 5.025
74 F7 222 6.002
74 F7 223 5.025
74 F7 224 3.560
74 F7 225 3.072
74 F7 226 5.514
74 F7 227 8.931
74 F7 228 10.885
74 F7 229 9.908
74 F7 230 6.490
74 F7 231 3.072
74 F7 232 2.096
74 F7 233 3.560
74 F7 234 6.490
74 F7 235 8.443
74 F7 236 7.955
74 F7 237 6.002
74 F7 238 3.560
74 F7 239 2.584
74 F7 240 3.072
74 F7 241 3.560
74 F7 242 4.049
74 F7 243 4.049
74 F7 244 5.025
74 F7 245 6.978
74 F7 246 9.420
74 F7 247 11.861
74 F7 248 12.838
74 F7 249 11.861
74 F7 250 10.396
74 F7 251 8.443
74 F7 252 7.467
74 F7 253 7.467
74 F7 254 8.443
74 F7 255 9.420
# F8 chan 3
74 F8 0 6.083
74 F8 1 3.642
74 F8 2 -0.753
74 F8 3 -4.659
74 F8 4 -7.100
74 F8 5 -7.100
74 F8 6 -6.124
74 F8 7 -4.659
74 F8 8 -3.682
74 F8 9 -2.706
74 F8 10 -3.194
74 F8 11 -4.659
74 F8 12 -6.612
74 F8 13 -8.077
74 F8 14 -7.589
74 F8 15 -5.636
74 F8 16 -3.682
74 F8 17 -3.682
74 F8 18 -6.124
74 F8 19 -9.054
74 F8 20 -10.030
74 F8 21 -8.565
74 F8 22 -4.659
74 F8 23 -0.753
74 F8 24 1.689
74 F8 25 0.712
74 F8 26 -2.218
74 F8 27 -5.636
74 F8 28 -6.612
74 F8 29 -5.147
74 F8 30 -2.218
74 F8 31 0.224
74 F8 32 2.177
74 F8 33 2.665
74 F8 34 2.177
74 F8 35 0.712
74 F8 36 -2.218
74 F8 37 -6.124
74 F8 38 -9.542
74 F8 39 -11.007
74 F8 40 -10.030
74 F8 41 -7.100
74 F8 42 -3.682
74 F8 43 -0.753
74 F8 44 -0.264
74 F8 45 -1.241
74 F8 46 -2.706
74 F8 47 -3.194
74 F8 48 -3.194
74 F8 49 -1.729
74 F8 50 -1.241
74 F8 51 -2.706
74 F8 52 -4.171
74 F8 53 -4.171
74 F8 54 -0.753
74 F8 55 3.642
74 F8 56 7.548
74 F8 57 8.036
74 F8 58 4.618
74 F8 59 -0.264
74 F8 60 -4.171
74 F8 61 -6.124
74 F8 62 -6.612
74 F8 63 -7.589
74 F8 64 -7.589
74 F8 65 -6.124
74 F8 66 -1.729
74 F8 67 4.130
74 F8 68 7.060
74 F8 69 5.595
74 F8 70 0.224
74 F8 71 -5.636
74 F8 72 -7.589
74 F8 73 -5.147
74 F8 74 -0.264
74 F8 75 1.689
74 F8 76 -1.241
74 F8 77 -8.077
74 F8 78 -14.425
74 F8 79 -17.843
74 F8 80 -15.889
74 F8 81 -10.518
74 F8 82 -5.147
74 F8 83 -1.729
74 F8 84 -0.264
74 F8 85 -1.241
74 F8 86 -1.729
74 F8 87 -2.218
74 F8 88 -2.706
74 F8 89 -4.171
74 F8 90 -6.612
74 F8 91 -10.518
74 F8 92 -14.425
74 F8 93 -16.866
74 F8 94 -16.866
74 F8 95 -14.425
74 F8 96 -11.007
74 F8 97 -6.612
74 F8 98 -3.682
74 F8 99 -1.729
74 F8 100 -0.753
74 F8 101 -0.264
74 F8 102 0.712
74 F8 103 0.224
74 F8 104 -2.706
74 F8 105 -7.100
74 F8 106 -11.007
74 F8 107 -13.936
74 F8 108 -14.425
74 F8 109 -13.448
74 F8 110 -11.983
74 F8 111 -11.007
74 F8 112 -10.030
74 F8 113 -9.054
74 F8 114 -9.054
74 F8 115 -10.518
74 F8 116 -12.960
74 F8 117 -15.401
74 F8 118 -16.378
74 F8 119 -16.866
74 F8 120 -17.354
74 F8 121 -17.354
74 F8 122 -16.378
74 F8 123 -13.936
74 F8 124 -10.030
74 F8 125 -7.589
74 F8 126 -6.612
74 F8 127 -8.077
74 F8 128 -9.542
74 F8 129 -9.054
74 F8 130 -7.100
74 F8 131 -6.612
74 F8 132 -7.589
74 F8 133 -11.007
74 F8 134 -12.960
74 F8 135 -11.495
74 F8 136 -8.077
74 F8 137 -4.659
74 F8 138 -4.659
74 F8 139 -8.077
74 F8 140 -11.495
74 F8 141 -12.472
74 F8 142 -10.518
74 F8 143 -8.077
74 F8 144 -7.589
74 F8 145 -10.030
74 F8 146 -12.960
74 F8 147 -14.425
74 F8 148 -12.960
74 F8 149 -9.054
74 F8 150 -5.636
74 F8 151 -4.659
74 F8 152 -7.589
74 F8 153 -11.495
74 F8 154 -14.425
74 F8 155 -14.425
74 F8 156 -12.472
74 F8 157 -10.030
74 F8 158 -9.054
74 F8 159 -10.518
74 F8 160 -12.472
74 F8 161 -12.960
74 F8 162 -12.472
74 F8 163 -10.518
74 F8 164 -9.542
74 F8 165 -9.542
74 F8 166 -11.007
74 F8 167 -11.495
74 F8 168 -11.983
74 F8 169 -11.983
74 F8 170 -11.983
74 F8 171 -11.007
74 F8 172 -9.542
74 F8 173 -8.077
74 F8 174 -8.077
74 F8 175 -10.030
74 F8 176 -12.472
74 F8 177 -12.960
74 F8 178 -9.542
74 F8 179 -3.194
74 F8 180 1.689
74 F8 181 0.712
74 F8 182 -6.612
74 F8 183 -14.913
74 F8 184 -19.307
74 F8 185 -15.889
74 F8 186 -8.565
74 F8 187 -1.241
74 F8 188 1.200
74 F8 189 -1.729
74 F8 190 -4.659
74 F8 191 -5.147
74 F8 192 -1.241
74 F8 193 3.153
74 F8 194 5.107
74 F8 195 3.642
74 F8 196 0.224
74 F8 197 -2.218
74 F8 198 -2.706
74 F8 199 -1.729
74 F8 200 -1.729
74 F8 201 -3.682
74 F8 202 -7.589
74 F8 203 -11.007
74 F8 204 -11.983
74 F8 205 -10.518
74 F8 206 -7.100
74 F8 207 -5.147
74 F8 208 -5.147
74 F8 209 -7.100
74 F8 210 -9.054
74 F8 211 -9.054
74 F8 212 -7.100
74 F8 213 -4.171
74 F8 214 -2.706
74 F8 215 -4.171
74 F8 216 -8.565
74 F8 217 -11.983
74 F8 218 -12.960
74 F8 219 -11.495
74 F8 220 -8.077
74 F8 221 -5.636
74 F8 222 -4.659
74 F8 223 -4.171
74 F8 224 -3.682
74 F8 225 -3.682
74 F8 226 -5.147
74 F8 227 -7.589
74 F8 228 -11.495
74 F8 229 -13.448
74 F8 230 -11.495
74 F8 231 -7.589
74 F8 232 -3.682
74 F8 233 -3.682
74 F8 234 -7.100
74 F8 235 -10.518
74 F8 236 -10.518
74 F8 237 -6.612
74 F8 238 -2.218
74 F8 239 -2.218
74 F8 240 -8.565
74 F8 241 -15.889
74 F8 242 -18.331
74 F8 243 -11.983
74 F8 244 -1.729
74 F8 245 5.107
74 F8 246 4.618
74 F8 247 -2.218
74 F8 248 -9.054
74 F8 249 -10.030
74 F8 250 -5.636
74 F8 251 0.712
74 F8 252 3.642
74 F8 253 4.130
74 F8 254 3.153
74 F8 255 1.689
# AF1 chan 4
74 AF1 0 1.343
74 AF1 1 3.784
74 AF1 2 3.296
74 AF1 3 1.343
74 AF1 4 -1.587
74 AF1 5 -4.028
74 AF1 6 -4.517
74 AF1 7 -3.052
74 AF1 8 -1.587
74 AF1 9 0.366
74 AF1 10 1.831
74 AF1 11 2.319
74 AF1 12 2.319
74 AF1 13 1.343
74 AF1 14 0.366
74 AF1 15 -1.587
74 AF1 16 -2.563
74 AF1 17 -3.540
74 AF1 18 -4.028
74 AF1 19 -4.028
74 AF1 20 -5.005
74 AF1 21 -5.493
74 AF1 22 -5.005
74 AF1 23 -2.563
74 AF1 24 0.854
74 AF1 25 4.272
74 AF1 26 5.737
74 AF1 27 4.761
74 AF1 28 2.319
74 AF1 29 0.366
74 AF1 30 -0.610
74 AF1 31 -0.122
74 AF1 32 0.854
74 AF1 33 2.319
74 AF1 34 3.784
74 AF1 35 4.272
74 AF1 36 3.784
74 AF1 37 1.831
74 AF1 38 -0.610
74 AF1 39 -3.052
74 AF1 40 -4.028
74 AF1 41 -4.028
74 AF1 42 -2.563
74 AF1 43 -1.099
74 AF1 44 -0.122
74 AF1 45 0.366
74 AF1 46 2.319
74 AF1 47 4.761
74 AF1 48 6.714
74 AF1 49 6.714
74 AF1 50 3.784
74 AF1 51 -0.610
74 AF1 52 -4.028
74 AF1 53 -5.493
74 AF1 54 -4.028
74 AF1 55 -1.099
74 AF1 56 1.343
74 AF1 57 4.272
74 AF1 58 6.714
74 AF1 59 8.179
74 AF1 60 8.667
74 AF1 61 7.202
74 AF1 62 3.784
74 AF1 63 1.831
74 AF1 64 2.319
74 AF1 65 5.737
74 AF1 66 10.620
74 AF1 67 13.550
74 AF1 68 13.062
74 AF1 69 9.644
74 AF1 70 5.737
74 AF1 71 3.784
74 AF1 72 3.784
74 AF1 73 4.761
74 AF1 74 4.761
74 AF1 75 4.272
74 AF1 76 2.808
74 AF1 77 0.854
74 AF1 78 0.366
74 AF1 79 -0.610
74 AF1 80 -0.610
74 AF1 81 0.366
74 AF1 82 1.831
74 AF1 83 4.761
74 AF1 84 7.202
74 AF1 85 8.179
74 AF1 86 7.202
74 AF1 87 4.761
74 AF1 88 2.808
74 AF1 89 2.319
74 AF1 90 2.319
74 AF1 91 2.808
74 AF1 92 2.319
74 AF1 93 1.831
74 AF1 94 1.343
74 AF1 95 1.343
74 AF1 96 1.343
74 AF1 97 1.831
74 AF1 98 1.343
74 AF1 99 1.831
74 AF1 100 2.319
74 AF1 101 3.784
74 AF1 102 4.272
74 AF1 103 4.272
74 AF1 104 2.319
74 AF1 105 0.366
74 AF1 106 -0.610
74 AF1 107 -0.122
74 AF1 108 0.854
74 AF1 109 2.319
74 AF1 110 2.319
74 AF1 111 1.343
74 AF1 112 -0.610
74 AF1 113 -1.587
74 AF1 114 -2.563
74 AF1 115 -2.563
74 AF1 116 -2.075
74 AF1 117 -1.587
74 AF1 118 -2.075
74 AF1 119 -3.052
74 AF1 120 -4.028
74 AF1 121 -4.517
74 AF1 122 -4.517
74 AF1 123 -3.540
74 AF1 124 -2.075
74 AF1 125 -1.099
74 AF1 126 0.366
74 AF1 127 1.343
74 AF1 128 2.808
74 AF1 129 3.784
74 AF1 130 4.272
74 AF1 131 4.272
74 AF1 132 4.272
74 AF1 133 3.784
74 AF1 134 4.272
74 AF1 135 5.249
74 AF1 136 6.226
74 AF1 137 6.714
74 AF1 138 6.226
74 AF1 139 5.737
74 AF1 140 5.249
74 AF1 141 5.249
74 AF1 142 4.272
74 AF1 143 2.808
74 AF1 144 1.831
74 AF1 145 1.343
74 AF1 146 1.831
74 AF1 147 2.808
74 AF1 148 3.784
74 AF1 149 4.272
74 AF1 150 4.272
74 AF1 151 3.296
74 AF1 152 1.831
74 AF1 153 -0.122
74 AF1 154 -1.587
74 AF1 155 -3.052
74 AF1 156 -3.540
74 AF1 157 -3.540
74 AF1 158 -3.540
74 AF1 159 -3.540
74 AF1 160 -3.540
74 AF1 161 -3.540
74 AF1 162 -2.563
74 AF1 163 -1.099
74 AF1 164 0.854
74 AF1 165 2.319
74 AF1 166 2.808
74 AF1 167 1.831
74 AF1 168 0.366
74 AF1 169 -0.610
74 AF1 170 -0.610
74 AF1 171 0.366
74 AF1 172 0.366
74 AF1 173 -0.122
74 AF1 174 -1.099
74 AF1 175 -1.099
74 AF1 176 -0.122
74 AF1 177 2.808
74 AF1 178 6.226
74 AF1 179 9.155
74 AF1 180 10.132
74 AF1 181 9.155
74 AF1 182 7.202
74 AF1 183 4.761
74 AF1 184 2.319
74 AF1 185 1.343
74 AF1 186 1.343
74 AF1 187 2.808
74 AF1 188 5.249
74 AF1 189 7.690
74 AF1 190 8.667
74 AF1 191 9.155
74 AF1 192 8.179
74 AF1 193 7.202
74 AF1 194 7.202
74 AF1 195 7.202
74 AF1 196 7.690
74 AF1 197 6.714
74 AF1 198 4.761
74 AF1 199 2.319
74 AF1 200 0.366
74 AF1 201 0.366
74 AF1 202 2.319
74 AF1 203 4.761
74 AF1 204 6.714
74 AF1 205 6.226
74 AF1 206 4.272
74 AF1 207 2.808
74 AF1 208 2.319
74 AF1 209 2.808
74 AF1 210 3.784
74 AF1 211 3.784
74 AF1 212 2.808
74 AF1 213 0.854
74 AF1 214 -0.610
74 AF1 215 -1.587
74 AF1 216 -1.587
74 AF1 217 -2.075
74 AF1 218 -1.587
74 AF1 219 -2.075
74 AF1 220 -1.099
74 AF1 221 -0.122
74 AF1 222 0.366
74 AF1 223 0.854
74 AF1 224 1.343
74 AF1 225 1.831
74 AF1 226 3.784
74 AF1 227 5.737
74 AF1 228 7.690
74 AF1 229 8.179
74 AF1 230 6.714
74 AF1 231 4.761
74 AF1 232 3.784
74 AF1 233 4.272
74 AF1 234 5.249
74 AF1 235 5.737
74 AF1 236 5.737
74 AF1 237 5.249
74 AF1 238 4.761
74 AF1 239 4.761
74 AF1 240 3.784
74 AF1 241 3.296
74 AF1 242 2.808
74 AF1 243 3.296
74 AF1 244 5.737
74 AF1 245 8.667
74 AF1 246 11.108
74 AF1 247 11.108
74 AF1 248 10.132
74 AF1 249 8.667
74 AF1 250 7.690
74 AF1 251 7.202
74 AF1 252 8.179
74 AF1 253 9.155
74 AF1 254 10.620
74 AF1 255 10.620
# AF2 chan 5
74 AF2 0 0.000
74 AF2 1 0.488
74 AF2 2 -0.488
74 AF2 3 -1.953
74 AF2 4 -3.906
74 AF2 5 -5.859
74 AF2 6 -7.324
74 AF2 7 -8.789
74 AF2 8 -8.789
74 AF2 9 -7.324
74 AF2 10 -5.371
74 AF2 11 -4.395
74 AF2 12 -4.883
74 AF2 13 -7.324
74 AF2 14 -9.766
74 AF2 15 -11.230
74 AF2 16 -10.742
74 AF2 17 -9.277
74 AF2 18 -8.789
74 AF2 19 -10.742
74 AF2 20 -14.160
74 AF2 21 -16.602
74 AF2 22 -16.602
74 AF2 23 -13.184
74 AF2 24 -7.324
74 AF2 25 -2.441
74 AF2 26 0.488
74 AF2 27 0.977
74 AF2 28 0.000
74 AF2 29 0.000
74 AF2 30 0.488
74 AF2 31 1.465
74 AF2 32 1.465
74 AF2 33 1.465
74 AF2 34 0.488
74 AF2 35 0.977
74 AF2 36 2.441
74 AF2 37 2.930
74 AF2 38 2.441
74 AF2 39 0.977
74 AF2 40 -1.465
74 AF2 41 -2.930
74 AF2 42 -3.418
74 AF2 43 -2.930
74 AF2 44 -1.465
74 AF2 45 0.000
74 AF2 46 1.953
74 AF2 47 4.883
74 AF2 48 6.836
74 AF2 49 6.348
74 AF2 50 3.418
74 AF2 51 -1.465
74 AF2 52 -5.859
74 AF2 53 -6.348
74 AF2 54 -3.418
74 AF2 55 1.953
74 AF2 56 6.348
74 AF2 57 9.277
74 AF2 58 9.277
74 AF2 59 8.301
74 AF2 60 7.324
74 AF2 61 6.348
74 AF2 62 6.348
74 AF2 63 6.348
74 AF2 64 7.324
74 AF2 65 9.766
74 AF2 66 12.695
74 AF2 67 14.160
74 AF2 68 12.207
74 AF2 69 7.812
74 AF2 70 1.953
74 AF2 71 -1.953
74 AF2 72 -1.953
74 AF2 73 0.488
74 AF2 74 2.930
74 AF2 75 2.930
74 AF2 76 1.465
74 AF2 77 -0.488
74 AF2 78 -1.465
74 AF2 79 -0.977
74 AF2 80 0.000
74 AF2 81 0.488
74 AF2 82 0.488
74 AF2 83 0.000
74 AF2 84 0.488
74 AF2 85 1.465
74 AF2 86 2.441
74 AF2 87 1.465
74 AF2 88 -0.488
74 AF2 89 -4.395
74 AF2 90 -7.324
74 AF2 91 -10.254
74 AF2 92 -11.719
74 AF2 93 -12.695
74 AF2 94 -13.184
74 AF2 95 -13.672
74 AF2 96 -13.184
74 AF2 97 -12.207
74 AF2 98 -10.254
74 AF2 99 -6.836
74 AF2 100 -2.930
74 AF2 101 0.000
74 AF2 102 0.977
74 AF2 103 0.488
74 AF2 104 -0.977
74 AF2 105 -2.930
74 AF2 106 -3.418
74 AF2 107 -3.418
74 AF2 108 -3.418
74 AF2 109 -4.395
74 AF2 110 -5.859
74 AF2 111 -8.301
74 AF2 112 -10.254
74 AF2 113 -12.695
74 AF2 114 -14.648
74 AF2 115 -16.602
74 AF2 116 -17.578
74 AF2 117 -17.090
74 AF2 118 -15.137
74 AF2 119 -12.207
74 AF2 120 -10.254
74 AF2 121 -9.766
74 AF2 122 -10.254
74 AF2 123 -9.766
74 AF2 124 -8.301
74 AF2 125 -6.348
74 AF2 126 -3.906
74 AF2 127 -2.441
74 AF2 128 -2.441
74 AF2 129 -3.418
74 AF2 130 -5.371
74 AF2 131 -6.348
74 AF2 132 -6.836
74 AF2 133 -5.859
74 AF2 134 -3.906
74 AF2 135 -0.977
74 AF2 136 0.977
74 AF2 137 1.953
74 AF2 138 1.465
74 AF2 139 -0.488
74 AF2 140 -2.441
74 AF2 141 -5.371
74 AF2 142 -7.324
74 AF2 143 -8.789
74 AF2 144 -9.277
74 AF2 145 -8.789
74 AF2 146 -8.301
74 AF2 147 -7.324
74 AF2 148 -6.348
74 AF2 149 -4.395
74 AF2 150 -1.953
74 AF2 151 -0.488
74 AF2 152 0.000
74 AF2 153 -1.953
74 AF2 154 -5.859
74 AF2 155 -9.766
74 AF2 156 -12.207
74 AF2 157 -13.184
74 AF2 158 -12.695
74 AF2 159 -11.719
74 AF2 160 -10.742
74 AF2 161 -9.766
74 AF2 162 -8.789
74 AF2 163 -7.324
74 AF2 164 -6.348
74 AF2 165 -5.859
74 AF2 166 -5.859
74 AF2 167 -6.348
74 AF2 168 -7.324
74 AF2 169 -7.812
74 AF2 170 -8.301
74 AF2 171 -8.789
74 AF2 172 -9.766
74 AF2 173 -11.230
74 AF2 174 -12.695
74 AF2 175 -13.672
74 AF2 176 -13.184
74 AF2 177 -11.719
74 AF2 178 -8.789
74 AF2 179 -4.883
74 AF2 180 -1.465
74 AF2 181 0.488
74 AF2 182 -0.488
74 AF2 183 -3.906
74 AF2 184 -8.789
74 AF2 185 -12.695
74 AF2 186 -13.672
74 AF2 187 -12.695
74 AF2 188 -10.742
74 AF2 189 -9.766
74 AF2 190 -9.766
74 AF2 191 -10.742
74 AF2 192 -11.719
74 AF2 193 -11.230
74 AF2 194 -11.230
74 AF2 195 -11.230
74 AF2 196 -12.207
74 AF2 197 -15.137
74 AF2 198 -18.066
74 AF2 199 -20.996
74 AF2 200 -22.949
74 AF2 201 -23.926
74 AF2 202 -23.926
74 AF2 203 -23.926
74 AF2 204 -23.926
74 AF2 205 -23.926
74 AF2 206 -23.926
74 AF2 207 -23.438
74 AF2 208 -22.949
74 AF2 209 -22.949
74 AF2 210 -22.949
74 AF2 211 -22.949
74 AF2 212 -22.461
74 AF2 213 -21.973
74 AF2 214 -21.973
74 AF2 215 -22.949
74 AF2 216 -25.879
74 AF2 217 -28.320
74 AF2 218 -29.297
74 AF2 219 -28.320
74 AF2 220 -26.367
74 AF2 221 -23.438
74 AF2 222 -22.461
74 AF2 223 -23.438
74 AF2 224 -25.391
74 AF2 225 -26.855
74 AF2 226 -25.391
74 AF2 227 -22.949
74 AF2 228 -19.531
74 AF2 229 -17.090
74 AF2 230 -17.090
74 AF2 231 -18.066
74 AF2 232 -19.043
74 AF2 233 -19.531
74 AF2 234 -18.555
74 AF2 235 -17.578
74 AF2 236 -17.090
74 AF2 237 -17.578
74 AF2 238 -18.555
74 AF2 239 -20.020
74 AF2 240 -21.973
74 AF2 241 -23.438
74 AF2 242 -23.438
74 AF2 243 -22.461
74 AF2 244 -20.020
74 AF2 245 -17.090
74 AF2 246 -16.113
74 AF2 247 -16.602
74 AF2 248 -18.555
74 AF2 249 -20.508
74 AF2 250 -20.996
74 AF2 251 -20.020
74 AF2 252 -18.066
74 AF2 253 -16.113
74 AF2 254 -15.137
74 AF2 255 -16.113
# FZ chan 6
74 FZ 0 1.251
74 FZ 1 2.716
74 FZ 2 2.716
74 FZ 3 0.763
74 FZ 4 -1.678
74 FZ 5 -4.120
74 FZ 6 -4.608
74 FZ 7 -3.632
74 FZ 8 -0.702
74 FZ 9 2.228
74 FZ 10 4.181
74 FZ 11 3.693
74 FZ 12 2.228
74 FZ 13 -0.214
74 FZ 14 -2.167
74 FZ 15 -3.632
74 FZ 16 -3.143
74 FZ 17 -2.167
74 FZ 18 -1.678
74 FZ 19 -1.678
74 FZ 20 -2.655
74 FZ 21 -4.120
74 FZ 22 -5.096
74 FZ 23 -4.608
74 FZ 24 -2.655
74 FZ 25 1.251
74 FZ 26 3.693
74 FZ 27 5.157
74 FZ 28 4.181
74 FZ 29 2.228
74 FZ 30 0.275
74 FZ 31 -1.190
74 FZ 32 -1.190
74 FZ 33 0.275
74 FZ 34 0.763
74 FZ 35 0.763
74 FZ 36 0.275
74 FZ 37 -1.190
74 FZ 38 -2.167
74 FZ 39 -2.655
74 FZ 40 -2.655
74 FZ 41 -3.143
74 FZ 42 -3.632
74 FZ 43 -4.608
74 FZ 44 -4.608
74 FZ 45 -3.632
74 FZ 46 -0.702
74 FZ 47 2.716
74 FZ 48 5.157
74 FZ 49 5.157
74 FZ 50 2.716
74 FZ 51 -1.190
74 FZ 52 -4.608
74 FZ 53 -6.073
74 FZ 54 -5.585
74 FZ 55 -3.632
74 FZ 56 -1.190
74 FZ 57 1.251
74 FZ 58 2.716
74 FZ 59 3.693
74 FZ 60 3.204
74 FZ 61 2.228
74 FZ 62 0.275
74 FZ 63 -0.214
74 FZ 64 0.275
74 FZ 65 2.716
74 FZ 66 5.646
74 FZ 67 7.599
74 FZ 68 7.111
74 FZ 69 4.669
74 FZ 70 1.740
74 FZ 71 -1.190
74 FZ 72 -1.678
74 FZ 73 -2.655
74 FZ 74 -2.655
74 FZ 75 -3.143
74 FZ 76 -4.120
74 FZ 77 -4.120
74 FZ 78 -4.120
74 FZ 79 -3.143
74 FZ 80 -2.655
74 FZ 81 -2.655
74 FZ 82 -2.655
74 FZ 83 -2.167
74 FZ 84 -1.190
74 FZ 85 -0.702
74 FZ 86 -0.702
74 FZ 87 -1.678
74 FZ 88 -2.655
74 FZ 89 -3.632
74 FZ 90 -4.120
74 FZ 91 -4.608
74 FZ 92 -5.585
74 FZ 93 -6.561
74 FZ 94 -7.538
74 FZ 95 -8.026
74 FZ 96 -8.026
74 FZ 97 -7.050
74 FZ 98 -6.073
74 FZ 99 -4.608
74 FZ 100 -3.143
74 FZ 101 -2.167
74 FZ 102 -1.678
74 FZ 103 -2.655
74 FZ 104 -3.143
74 FZ 105 -4.608
74 FZ 106 -5.096
74 FZ 107 -4.608
74 FZ 108 -3.632
74 FZ 109 -2.655
74 FZ 110 -2.167
74 FZ 111 -2.655
74 FZ 112 -3.143
74 FZ 113 -4.120
74 FZ 114 -5.096
74 FZ 115 -5.585
74 FZ 116 -6.073
74 FZ 117 -6.561
74 FZ 118 -7.050
74 FZ 119 -7.050
74 FZ 120 -7.538
74 FZ 121 -8.026
74 FZ 122 -7.538
74 FZ 123 -7.538
74 FZ 124 -7.050
74 FZ 125 -6.561
74 FZ 126 -6.073
74 FZ 127 -5.096
74 FZ 128 -4.120
74 FZ 129 -3.632
74 FZ 130 -2.655
74 FZ 131 -2.167
74 FZ 132 -1.678
74 FZ 133 -1.678
74 FZ 134 -1.190
74 FZ 135 -0.702
74 FZ 136 -0.214
74 FZ 137 0.275
74 FZ 138 0.763
74 FZ 139 1.251
74 FZ 140 1.251
74 FZ 141 0.763
74 FZ 142 -0.214
74 FZ 143 -1.190
74 FZ 144 -1.678
74 FZ 145 -1.678
74 FZ 146 -1.678
74 FZ 147 -1.678
74 FZ 148 -2.167
74 FZ 149 -2.655
74 FZ 150 -3.143
74 FZ 151 -3.632
74 FZ 152 -4.120
74 FZ 153 -5.585
74 FZ 154 -6.561
74 FZ 155 -7.538
74 FZ 156 -7.538
74 FZ 157 -7.050
74 FZ 158 -6.073
74 FZ 159 -6.073
74 FZ 160 -6.561
74 FZ 161 -6.561
74 FZ 162 -6.073
74 FZ 163 -5.096
74 FZ 164 -3.632
74 FZ 165 -2.655
74 FZ 166 -3.143
74 FZ 167 -4.120
74 FZ 168 -5.096
74 FZ 169 -4.608
74 FZ 170 -4.120
74 FZ 171 -3.143
74 FZ 172 -3.632
74 FZ 173 -4.120
74 FZ 174 -4.608
74 FZ 175 -4.608
74 FZ 176 -3.632
74 FZ 177 -1.678
74 FZ 178 0.763
74 FZ 179 2.228
74 FZ 180 2.716
74 FZ 181 2.716
74 FZ 182 2.228
74 FZ 183 1.251
74 FZ 184 -0.702
74 FZ 185 -2.167
74 FZ 186 -3.143
74 FZ 187 -3.143
74 FZ 188 -2.167
74 FZ 189 0.275
74 FZ 190 1.740
74 FZ 191 2.716
74 FZ 192 2.716
74 FZ 193 2.228
74 FZ 194 1.740
74 FZ 195 2.228
74 FZ 196 2.228
74 FZ 197 1.251
74 FZ 198 -0.214
74 FZ 199 -2.167
74 FZ 200 -3.632
74 FZ 201 -3.143
74 FZ 202 -1.678
74 FZ 203 -0.214
74 FZ 204 1.251
74 FZ 205 1.251
74 FZ 206 0.763
74 FZ 207 -0.214
74 FZ 208 -0.702
74 FZ 209 -1.190
74 FZ 210 -1.678
74 FZ 211 -2.655
74 FZ 212 -3.632
74 FZ 213 -4.120
74 FZ 214 -4.608
74 FZ 215 -4.608
74 FZ 216 -4.608
74 FZ 217 -5.096
74 FZ 218 -5.585
74 FZ 219 -5.585
74 FZ 220 -5.096
74 FZ 221 -4.608
74 FZ 222 -4.120
74 FZ 223 -3.143
74 FZ 224 -2.655
74 FZ 225 -1.190
74 FZ 226 0.275
74 FZ 227 1.251
74 FZ 228 2.228
74 FZ 229 2.228
74 FZ 230 1.740
74 FZ 231 0.763
74 FZ 232 0.763
74 FZ 233 0.763
74 FZ 234 0.763
74 FZ 235 1.251
74 FZ 236 1.740
74 FZ 237 2.228
74 FZ 238 2.228
74 FZ 239 2.716
74 FZ 240 2.228
74 FZ 241 2.228
74 FZ 242 2.228
74 FZ 243 2.716
74 FZ 244 3.693
74 FZ 245 5.157
74 FZ 246 6.134
74 FZ 247 6.134
74 FZ 248 5.646
74 FZ 249 4.181
74 FZ 250 2.716
74 FZ 251 2.716
74 FZ 252 3.204
74 FZ 253 4.669
74 FZ 254 6.134
74 FZ 255 7.111
# F4 chan 7
74 F4 0 -1.363
74 F4 1 0.102
74 F4 2 0.590
74 F4 3 -1.363
74 F4 4 -6.734
74 F4 5 -12.594
74 F4 6 -15.523
74 F4 7 -14.547
74 F4 8 -9.176
74 F4 9 -2.340
74 F4 10 3.520
74 F4 11 4.496
74 F4 12 2.543
74 F4 13 -0.875
74 F4 14 -2.340
74 F4 15 -0.875
74 F4 16 3.520
74 F4 17 7.914
74 F4 18 9.379
74 F4 19 6.938
74 F4 20 2.055
74 F4 21 -2.828
74 F4 22 -4.293
74 F4 23 -2.340
74 F4 24 3.031
74 F4 25 7.914
74 F4 26 9.867
74 F4 27 9.379
74 F4 28 6.938
74 F4 29 5.473
74 F4 30 5.961
74 F4 31 7.914
74 F4 32 10.356
74 F4 33 11.820
74 F4 34 10.844
74 F4 35 8.891
74 F4 36 6.449
74 F4 37 4.496
74 F4 38 3.031
74 F4 39 1.078
74 F4 40 -0.875
74 F4 41 -3.805
74 F4 42 -7.222
74 F4 43 -9.176
74 F4 44 -9.176
74 F4 45 -5.758
74 F4 46 0.102
74 F4 47 5.473
74 F4 48 7.914
74 F4 49 6.449
74 F4 50 1.567
74 F4 51 -4.293
74 F4 52 -8.199
74 F4 53 -9.176
74 F4 54 -8.687
74 F4 55 -8.199
74 F4 56 -7.711
74 F4 57 -6.734
74 F4 58 -5.269
74 F4 59 -3.316
74 F4 60 -1.363
74 F4 61 -0.387
74 F4 62 -0.875
74 F4 63 -0.875
74 F4 64 0.102
74 F4 65 1.078
74 F4 66 0.590
74 F4 67 -1.851
74 F4 68 -5.758
74 F4 69 -10.152
74 F4 70 -12.105
74 F4 71 -12.105
74 F4 72 -11.617
74 F4 73 -11.617
74 F4 74 -13.570
74 F4 75 -16.012
74 F4 76 -17.476
74 F4 77 -17.965
74 F4 78 -16.500
74 F4 79 -15.035
74 F4 80 -14.547
74 F4 81 -15.523
74 F4 82 -16.500
74 F4 83 -17.476
74 F4 84 -17.476
74 F4 85 -16.500
74 F4 86 -16.012
74 F4 87 -16.988
74 F4 88 -20.406
74 F4 89 -25.289
74 F4 90 -29.195
74 F4 91 -32.125
74 F4 92 -32.125
74 F4 93 -30.660
74 F4 94 -29.195
74 F4 95 -28.219
74 F4 96 -27.242
74 F4 97 -25.777
74 F4 98 -23.336
74 F4 99 -20.406
74 F4 100 -18.453
74 F4 101 -16.988
74 F4 102 -16.500
74 F4 103 -16.500
74 F4 104 -16.988
74 F4 105 -17.965
74 F4 106 -19.918
74 F4 107 -22.359
74 F4 108 -24.312
74 F4 109 -24.801
74 F4 110 -24.312
74 F4 111 -23.824
74 F4 112 -25.289
74 F4 113 -28.219
74 F4 114 -32.613
74 F4 115 -35.055
74 F4 116 -35.543
74 F4 117 -33.590
74 F4 118 -30.172
74 F4 119 -28.219
74 F4 120 -27.242
74 F4 121 -27.242
74 F4 122 -27.242
74 F4 123 -26.754
74 F4 124 -27.242
74 F4 125 -28.707
74 F4 126 -30.172
74 F4 127 -31.148
74 F4 128 -30.660
74 F4 129 -30.172
74 F4 130 -30.172
74 F4 131 -31.148
74 F4 132 -31.148
74 F4 133 -30.172
74 F4 134 -27.242
74 F4 135 -23.824
74 F4 136 -21.383
74 F4 137 -21.383
74 F4 138 -22.847
74 F4 139 -24.801
74 F4 140 -26.265
74 F4 141 -27.730
74 F4 142 -28.707
74 F4 143 -28.707
74 F4 144 -27.242
74 F4 145 -24.801
74 F4 146 -23.336
74 F4 147 -23.336
74 F4 148 -25.289
74 F4 149 -27.730
74 F4 150 -29.683
74 F4 151 -29.683
74 F4 152 -27.242
74 F4 153 -23.336
74 F4 154 -19.918
74 F4 155 -17.965
74 F4 156 -18.453
74 F4 157 -19.918
74 F4 158 -20.406
74 F4 159 -18.453
74 F4 160 -13.570
74 F4 161 -6.734
74 F4 162 -0.875
74 F4 163 2.055
74 F4 164 1.567
74 F4 165 0.102
74 F4 166 -0.387
74 F4 167 1.078
74 F4 168 3.031
74 F4 169 4.008
74 F4 170 2.055
74 F4 171 -1.363
74 F4 172 -5.758
74 F4 173 -8.687
74 F4 174 -9.664
74 F4 175 -7.222
74 F4 176 -3.316
74 F4 177 0.102
74 F4 178 2.543
74 F4 179 3.031
74 F4 180 2.055
74 F4 181 1.567
74 F4 182 1.078
74 F4 183 -0.387
74 F4 184 -3.805
74 F4 185 -8.687
74 F4 186 -13.082
74 F4 187 -14.547
74 F4 188 -11.617
74 F4 189 -7.222
74 F4 190 -3.316
74 F4 191 -1.363
74 F4 192 -1.851
74 F4 193 -1.851
74 F4 194 -0.387
74 F4 195 1.567
74 F4 196 2.055
74 F4 197 0.590
74 F4 198 -3.805
74 F4 199 -7.711
74 F4 200 -7.711
74 F4 201 -4.781
74 F4 202 0.590
74 F4 203 4.496
74 F4 204 4.008
74 F4 205 0.102
74 F4 206 -6.246
74 F4 207 -10.152
74 F4 208 -10.640
74 F4 209 -6.734
74 F4 210 -1.851
74 F4 211 1.567
74 F4 212 0.590
74 F4 213 -2.340
74 F4 214 -7.222
74 F4 215 -11.129
74 F4 216 -13.570
74 F4 217 -16.012
74 F4 218 -16.500
74 F4 219 -16.988
74 F4 220 -15.523
74 F4 221 -13.082
74 F4 222 -10.152
74 F4 223 -8.199
74 F4 224 -7.711
74 F4 225 -8.199
74 F4 226 -8.687
74 F4 227 -7.711
74 F4 228 -6.246
74 F4 229 -4.781
74 F4 230 -4.781
74 F4 231 -6.246
74 F4 232 -7.222
74 F4 233 -7.222
74 F4 234 -5.758
74 F4 235 -4.781
74 F4 236 -5.758
74 F4 237 -9.176
74 F4 238 -12.594
74 F4 239 -14.058
74 F4 240 -12.594
74 F4 241 -10.152
74 F4 242 -8.199
74 F4 243 -8.199
74 F4 244 -8.687
74 F4 245 -8.687
74 F4 246 -6.734
74 F4 247 -4.293
74 F4 248 -3.316
74 F4 249 -4.293
74 F4 250 -7.222
74 F4 251 -8.687
74 F4 252 -7.222
74 F4 253 -3.316
74 F4 254 1.567
74 F4 255 4.008
# F3 chan 8
74 F3 0 1.068
74 F3 1 2.533
74 F3 2 2.533
74 F3 3 2.045
74 F3 4 1.068
74 F3 5 -0.397
74 F3 6 -0.885
74 F3 7 -0.397
74 F3 8 0.580
74 F3 9 2.045
74 F3 10 2.533
74 F3 11 2.533
74 F3 12 1.068
74 F3 13 -0.885
74 F3 14 -2.838
74 F3 15 -4.791
74 F3 16 -5.280
74 F3 17 -4.791
74 F3 18 -3.326
74 F3 19 -2.350
74 F3 20 -2.838
74 F3 21 -3.815
74 F3 22 -4.303
74 F3 23 -3.326
74 F3 24 -0.885
74 F3 25 3.021
74 F3 26 5.463
74 F3 27 5.951
74 F3 28 3.998
74 F3 29 1.556
74 F3 30 -0.397
74 F3 31 -0.885
74 F3 32 0.580
74 F3 33 2.045
74 F3 34 2.533
74 F3 35 2.045
74 F3 36 0.580
74 F3 37 -1.373
74 F3 38 -2.838
74 F3 39 -3.326
74 F3 40 -3.815
74 F3 41 -3.326
74 F3 42 -2.838
74 F3 43 -2.350
74 F3 44 -0.885
74 F3 45 0.580
74 F3 46 2.533
74 F3 47 4.486
74 F3 48 4.974
74 F3 49 4.486
74 F3 50 2.045
74 F3 51 -1.373
74 F3 52 -3.815
74 F3 53 -5.280
74 F3 54 -4.303
74 F3 55 -2.350
74 F3 56 1.068
74 F3 57 4.486
74 F3 58 7.416
74 F3 59 9.369
74 F3 60 8.881
74 F3 61 6.927
74 F3 62 4.486
74 F3 63 2.045
74 F3 64 1.556
74 F3 65 4.486
74 F3 66 7.904
74 F3 67 11.322
74 F3 68 11.810
74 F3 69 9.857
74 F3 70 6.927
74 F3 71 4.974
74 F3 72 4.974
74 F3 73 5.951
74 F3 74 6.439
74 F3 75 5.951
74 F3 76 3.998
74 F3 77 2.045
74 F3 78 0.580
74 F3 79 -0.397
74 F3 80 -0.397
74 F3 81 0.580
74 F3 82 2.533
74 F3 83 4.974
74 F3 84 6.439
74 F3 85 6.439
74 F3 86 4.974
74 F3 87 3.510
74 F3 88 2.045
74 F3 89 2.045
74 F3 90 3.021
74 F3 91 3.510
74 F3 92 3.998
74 F3 93 3.021
74 F3 94 2.533
74 F3 95 2.533
74 F3 96 2.045
74 F3 97 1.556
74 F3 98 1.556
74 F3 99 1.068
74 F3 100 1.556
74 F3 101 2.045
74 F3 102 1.556
74 F3 103 0.580
74 F3 104 -0.885
74 F3 105 -2.350
74 F3 106 -2.838
74 F3 107 -1.373
74 F3 108 0.580
74 F3 109 1.556
74 F3 110 1.556
74 F3 111 0.580
74 F3 112 -1.373
74 F3 113 -3.326
74 F3 114 -3.815
74 F3 115 -3.326
74 F3 116 -2.350
74 F3 117 -1.373
74 F3 118 -0.885
74 F3 119 -0.885
74 F3 120 -1.862
74 F3 121 -3.326
74 F3 122 -3.815
74 F3 123 -3.815
74 F3 124 -3.326
74 F3 125 -2.350
74 F3 126 -1.373
74 F3 127 -0.397
74 F3 128 1.068
74 F3 129 2.533
74 F3 130 3.998
74 F3 131 4.486
74 F3 132 4.486
74 F3 133 3.998
74 F3 134 3.021
74 F3 135 3.021
74 F3 136 3.510
74 F3 137 4.486
74 F3 138 5.951
74 F3 139 6.439
74 F3 140 5.951
74 F3 141 4.486
74 F3 142 3.021
74 F3 143 2.045
74 F3 144 1.556
74 F3 145 1.068
74 F3 146 1.068
74 F3 147 1.556
74 F3 148 2.045
74 F3 149 2.533
74 F3 150 3.021
74 F3 151 2.533
74 F3 152 1.556
74 F3 153 -0.397
74 F3 154 -2.838
74 F3 155 -3.326
74 F3 156 -2.838
74 F3 157 -1.862
74 F3 158 -0.885
74 F3 159 -0.885
74 F3 160 -1.373
74 F3 161 -1.862
74 F3 162 -0.885
74 F3 163 0.580
74 F3 164 2.533
74 F3 165 3.510
74 F3 166 3.021
74 F3 167 2.045
74 F3 168 0.580
74 F3 169 0.580
74 F3 170 0.580
74 F3 171 1.068
74 F3 172 1.556
74 F3 173 1.556
74 F3 174 1.556
74 F3 175 2.045
74 F3 176 3.021
74 F3 177 4.486
74 F3 178 5.951
74 F3 179 7.416
74 F3 180 8.392
74 F3 181 8.881
74 F3 182 7.904
74 F3 183 6.927
74 F3 184 4.486
74 F3 185 2.533
74 F3 186 1.068
74 F3 187 1.556
74 F3 188 3.021
74 F3 189 5.463
74 F3 190 6.927
74 F3 191 7.416
74 F3 192 6.927
74 F3 193 5.463
74 F3 194 4.974
74 F3 195 4.974
74 F3 196 5.463
74 F3 197 5.463
74 F3 198 4.486
74 F3 199 2.533
74 F3 200 1.068
74 F3 201 0.580
74 F3 202 1.556
74 F3 203 3.021
74 F3 204 4.486
74 F3 205 4.486
74 F3 206 4.486
74 F3 207 3.510
74 F3 208 3.021
74 F3 209 2.533
74 F3 210 2.045
74 F3 211 1.556
74 F3 212 0.580
74 F3 213 0.092
74 F3 214 -0.885
74 F3 215 -0.885
74 F3 216 -0.397
74 F3 217 0.092
74 F3 218 0.092
74 F3 219 -0.397
74 F3 220 -1.373
74 F3 221 -1.862
74 F3 222 -1.373
74 F3 223 0.092
74 F3 224 2.045
74 F3 225 3.998
74 F3 226 4.974
74 F3 227 5.463
74 F3 228 5.951
74 F3 229 5.463
74 F3 230 5.463
74 F3 231 4.974
74 F3 232 4.486
74 F3 233 4.486
74 F3 234 4.486
74 F3 235 4.974
74 F3 236 4.974
74 F3 237 4.974
74 F3 238 4.486
74 F3 239 4.486
74 F3 240 4.486
74 F3 241 4.486
74 F3 242 4.486
74 F3 243 4.974
74 F3 244 5.951
74 F3 245 7.416
74 F3 246 7.904
74 F3 247 8.881
74 F3 248 8.881
74 F3 249 7.904
74 F3 250 6.439
74 F3 251 5.463
74 F3 252 5.463
74 F3 253 5.951
74 F3 254 6.927
74 F3 255 7.416
# FC6 chan 9
74 FC6 0 4.303
74 FC6 1 4.791
74 FC6 2 0.885
74 FC6 3 -3.998
74 FC6 4 -6.927
74 FC6 5 -7.416
74 FC6 6 -6.439
74 FC6 7 -5.951
74 FC6 8 -5.951
74 FC6 9 -4.974
74 FC6 10 -3.021
74 FC6 11 -0.092
74 FC6 12 2.350
74 FC6 13 1.373
74 FC6 14 -2.533
74 FC6 15 -7.904
74 FC6 16 -10.834
74 FC6 17 -9.369
74 FC6 18 -4.486
74 FC6 19 -0.580
74 FC6 20 1.373
74 FC6 21 0.397
74 FC6 22 -2.045
74 FC6 23 -3.510
74 FC6 24 -3.998
74 FC6 25 -3.998
74 FC6 26 -4.974
74 FC6 27 -5.463
74 FC6 28 -4.974
74 FC6 29 -2.533
74 FC6 30 0.885
74 FC6 31 3.326
74 FC6 32 2.350
74 FC6 33 -0.580
74 FC6 34 -3.021
74 FC6 35 -3.998
74 FC6 36 -3.998
74 FC6 37 -3.998
74 FC6 38 -5.463
74 FC6 39 -8.392
74 FC6 40 -8.881
74 FC6 41 -6.927
74 FC6 42 -3.510
74 FC6 43 -1.068
74 FC6 44 -2.533
74 FC6 45 -5.951
74 FC6 46 -8.392
74 FC6 47 -7.416
74 FC6 48 -3.021
74 FC6 49 1.373
74 FC6 50 1.862
74 FC6 51 -1.556
74 FC6 52 -6.439
74 FC6 53 -7.416
74 FC6 54 -3.998
74 FC6 55 1.373
74 FC6 56 4.791
74 FC6 57 3.815
74 FC6 58 -0.580
74 FC6 59 -4.974
74 FC6 60 -7.416
74 FC6 61 -6.439
74 FC6 62 -3.998
74 FC6 63 -2.533
74 FC6 64 -2.533
74 FC6 65 -3.021
74 FC6 66 -1.556
74 FC6 67 0.885
74 FC6 68 4.791
74 FC6 69 6.744
74 FC6 70 5.768
74 FC6 71 2.350
74 FC6 72 -2.045
74 FC6 73 -4.486
74 FC6 74 -4.486
74 FC6 75 -3.021
74 FC6 76 -2.533
74 FC6 77 -3.021
74 FC6 78 -5.951
74 FC6 79 -8.392
74 FC6 80 -9.857
74 FC6 81 -9.369
74 FC6 82 -6.439
74 FC6 83 -2.533
74 FC6 84 2.350
74 FC6 85 6.256
74 FC6 86 8.209
74 FC6 87 7.233
74 FC6 88 3.815
74 FC6 89 -0.580
74 FC6 90 -3.510
74 FC6 91 -5.463
74 FC6 92 -6.439
74 FC6 93 -6.439
74 FC6 94 -5.951
74 FC6 95 -5.463
74 FC6 96 -4.974
74 FC6 97 -3.998
74 FC6 98 -3.021
74 FC6 99 -1.556
74 FC6 100 0.397
74 FC6 101 4.303
74 FC6 102 6.744
74 FC6 103 6.744
74 FC6 104 3.815
74 FC6 105 -0.580
74 FC6 106 -3.998
74 FC6 107 -4.974
74 FC6 108 -3.998
74 FC6 109 -3.510
74 FC6 110 -4.974
74 FC6 111 -6.927
74 FC6 112 -7.904
74 FC6 113 -6.439
74 FC6 114 -3.021
74 FC6 115 -1.068
74 FC6 116 -2.045
74 FC6 117 -6.439
74 FC6 118 -11.322
74 FC6 119 -13.763
74 FC6 120 -11.322
74 FC6 121 -5.463
74 FC6 122 -0.092
74 FC6 123 1.862
74 FC6 124 -0.580
74 FC6 125 -4.974
74 FC6 126 -7.904
74 FC6 127 -7.416
74 FC6 128 -3.510
74 FC6 129 0.397
74 FC6 130 0.885
74 FC6 131 -2.045
74 FC6 132 -6.439
74 FC6 133 -8.392
74 FC6 134 -6.439
74 FC6 135 -1.556
74 FC6 136 3.815
74 FC6 137 5.280
74 FC6 138 2.838
74 FC6 139 -2.533
74 FC6 140 -7.416
74 FC6 141 -8.881
74 FC6 142 -4.974
74 FC6 143 0.397
74 FC6 144 5.768
74 FC6 145 6.256
74 FC6 146 2.350
74 FC6 147 -3.998
74 FC6 148 -7.904
74 FC6 149 -7.904
74 FC6 150 -3.998
74 FC6 151 0.397
74 FC6 152 2.350
74 FC6 153 0.885
74 FC6 154 -2.533
74 FC6 155 -4.974
74 FC6 156 -6.439
74 FC6 157 -6.439
74 FC6 158 -7.416
74 FC6 159 -8.392
74 FC6 160 -8.392
74 FC6 161 -5.951
74 FC6 162 -2.045
74 FC6 163 2.350
74 FC6 164 3.326
74 FC6 165 0.885
74 FC6 166 -3.510
74 FC6 167 -5.951
74 FC6 168 -3.998
74 FC6 169 0.885
74 FC6 170 5.768
74 FC6 171 6.744
74 FC6 172 1.862
74 FC6 173 -4.974
74 FC6 174 -9.857
74 FC6 175 -9.857
74 FC6 176 -5.951
74 FC6 177 -0.580
74 FC6 178 2.350
74 FC6 179 2.838
74 FC6 180 1.373
74 FC6 181 0.397
74 FC6 182 -0.092
74 FC6 183 -0.580
74 FC6 184 -2.533
74 FC6 185 -5.463
74 FC6 186 -8.392
74 FC6 187 -7.904
74 FC6 188 -4.486
74 FC6 189 0.885
74 FC6 190 5.280
74 FC6 191 6.256
74 FC6 192 4.303
74 FC6 193 2.350
74 FC6 194 2.838
74 FC6 195 5.280
74 FC6 196 7.233
74 FC6 197 6.256
74 FC6 198 1.373
74 FC6 199 -3.998
74 FC6 200 -6.439
74 FC6 201 -3.510
74 FC6 202 1.862
74 FC6 203 6.256
74 FC6 204 5.280
74 FC6 205 0.397
74 FC6 206 -5.463
74 FC6 207 -8.392
74 FC6 208 -7.416
74 FC6 209 -3.998
74 FC6 210 -2.533
74 FC6 211 -3.021
74 FC6 212 -5.463
74 FC6 213 -6.927
74 FC6 214 -5.463
74 FC6 215 -1.068
74 FC6 216 2.838
74 FC6 217 4.791
74 FC6 218 2.838
74 FC6 219 -0.092
74 FC6 220 -2.533
74 FC6 221 -2.533
74 FC6 222 -1.556
74 FC6 223 -1.068
74 FC6 224 -1.556
74 FC6 225 -3.021
74 FC6 226 -4.486
74 FC6 227 -5.463
74 FC6 228 -5.463
74 FC6 229 -4.974
74 FC6 230 -4.486
74 FC6 231 -3.998
74 FC6 232 -3.021
74 FC6 233 -3.021
74 FC6 234 -3.998
74 FC6 235 -4.974
74 FC6 236 -4.486
74 FC6 237 -1.068
74 FC6 238 3.815
74 FC6 239 6.256
74 FC6 240 3.815
74 FC6 241 -2.045
74 FC6 242 -7.904
74 FC6 243 -8.881
74 FC6 244 -4.486
74 FC6 245 2.350
74 FC6 246 6.256
74 FC6 247 5.280
74 FC6 248 0.397
74 FC6 249 -3.510
74 FC6 250 -3.998
74 FC6 251 -1.068
74 FC6 252 2.838
74 FC6 253 5.280
74 FC6 254 4.791
74 FC6 255 2.838
# FC5 chan 10
74 FC5 0 -0.295
74 FC5 1 2.635
74 FC5 2 4.100
74 FC5 3 5.076
74 FC5 4 5.076
74 FC5 5 4.588
74 FC5 6 5.076
74 FC5 7 5.076
74 FC5 8 5.076
74 FC5 9 4.100
74 FC5 10 3.123
74 FC5 11 1.658
74 FC5 12 1.170
74 FC5 13 -0.295
74 FC5 14 -2.248
74 FC5 15 -4.201
74 FC5 16 -6.643
74 FC5 17 -7.131
74 FC5 18 -5.666
74 FC5 19 -3.713
74 FC5 20 -2.248
74 FC5 21 -1.760
74 FC5 22 -1.272
74 FC5 23 0.193
74 FC5 24 2.146
74 FC5 25 4.588
74 FC5 26 5.564
74 FC5 27 4.100
74 FC5 28 1.658
74 FC5 29 -0.295
74 FC5 30 -0.295
74 FC5 31 1.658
74 FC5 32 3.123
74 FC5 33 3.611
74 FC5 34 2.146
74 FC5 35 -0.295
74 FC5 36 -2.736
74 FC5 37 -4.690
74 FC5 38 -6.154
74 FC5 39 -7.131
74 FC5 40 -7.619
74 FC5 41 -7.131
74 FC5 42 -5.178
74 FC5 43 -2.248
74 FC5 44 0.193
74 FC5 45 2.146
74 FC5 46 3.123
74 FC5 47 3.123
74 FC5 48 3.123
74 FC5 49 3.123
74 FC5 50 2.635
74 FC5 51 1.658
74 FC5 52 -0.295
74 FC5 53 -0.783
74 FC5 54 -0.295
74 FC5 55 1.658
74 FC5 56 3.611
74 FC5 57 6.053
74 FC5 58 8.006
74 FC5 59 8.982
74 FC5 60 9.471
74 FC5 61 8.494
74 FC5 62 6.541
74 FC5 63 3.611
74 FC5 64 2.146
74 FC5 65 2.146
74 FC5 66 3.611
74 FC5 67 6.541
74 FC5 68 8.982
74 FC5 69 10.447
74 FC5 70 10.935
74 FC5 71 10.935
74 FC5 72 11.424
74 FC5 73 11.912
74 FC5 74 11.912
74 FC5 75 10.935
74 FC5 76 8.982
74 FC5 77 6.541
74 FC5 78 3.611
74 FC5 79 1.658
74 FC5 80 1.170
74 FC5 81 1.658
74 FC5 82 4.100
74 FC5 83 6.053
74 FC5 84 7.029
74 FC5 85 6.541
74 FC5 86 5.076
74 FC5 87 4.588
74 FC5 88 4.588
74 FC5 89 5.564
74 FC5 90 6.541
74 FC5 91 7.029
74 FC5 92 7.029
74 FC5 93 7.517
74 FC5 94 8.494
74 FC5 95 9.471
74 FC5 96 8.982
74 FC5 97 8.006
74 FC5 98 5.564
74 FC5 99 3.123
74 FC5 100 1.658
74 FC5 101 0.682
74 FC5 102 0.193
74 FC5 103 -1.272
74 FC5 104 -3.225
74 FC5 105 -4.690
74 FC5 106 -5.666
74 FC5 107 -4.690
74 FC5 108 -3.225
74 FC5 109 -2.248
74 FC5 110 -1.760
74 FC5 111 -2.736
74 FC5 112 -4.201
74 FC5 113 -5.178
74 FC5 114 -4.690
74 FC5 115 -2.248
74 FC5 116 1.170
74 FC5 117 4.100
74 FC5 118 5.564
74 FC5 119 4.588
74 FC5 120 2.635
74 FC5 121 0.682
74 FC5 122 -0.783
74 FC5 123 -0.783
74 FC5 124 0.193
74 FC5 125 0.682
74 FC5 126 0.682
74 FC5 127 0.193
74 FC5 128 0.193
74 FC5 129 1.170
74 FC5 130 2.146
74 FC5 131 2.635
74 FC5 132 1.658
74 FC5 133 0.193
74 FC5 134 -0.783
74 FC5 135 -0.783
74 FC5 136 0.682
74 FC5 137 2.635
74 FC5 138 3.611
74 FC5 139 3.123
74 FC5 140 2.635
74 FC5 141 2.146
74 FC5 142 2.146
74 FC5 143 2.146
74 FC5 144 2.146
74 FC5 145 1.658
74 FC5 146 1.170
74 FC5 147 1.170
74 FC5 148 1.658
74 FC5 149 2.635
74 FC5 150 3.123
74 FC5 151 2.635
74 FC5 152 1.170
74 FC5 153 -1.272
74 FC5 154 -3.225
74 FC5 155 -4.201
74 FC5 156 -4.201
74 FC5 157 -3.713
74 FC5 158 -2.736
74 FC5 159 -1.760
74 FC5 160 -0.295
74 FC5 161 1.170
74 FC5 162 3.123
74 FC5 163 5.076
74 FC5 164 6.053
74 FC5 165 5.564
74 FC5 166 4.588
74 FC5 167 2.635
74 FC5 168 2.146
74 FC5 169 2.146
74 FC5 170 3.123
74 FC5 171 4.588
74 FC5 172 5.076
74 FC5 173 5.076
74 FC5 174 4.588
74 FC5 175 4.100
74 FC5 176 4.588
74 FC5 177 5.076
74 FC5 178 6.053
74 FC5 179 7.029
74 FC5 180 7.517
74 FC5 181 7.517
74 FC5 182 7.029
74 FC5 183 6.541
74 FC5 184 5.564
74 FC5 185 5.564
74 FC5 186 6.053
74 FC5 187 7.029
74 FC5 188 8.006
74 FC5 189 8.982
74 FC5 190 9.471
74 FC5 191 9.471
74 FC5 192 8.494
74 FC5 193 7.029
74 FC5 194 5.076
74 FC5 195 4.100
74 FC5 196 3.123
74 FC5 197 2.635
74 FC5 198 2.146
74 FC5 199 1.658
74 FC5 200 1.658
74 FC5 201 1.170
74 FC5 202 1.658
74 FC5 203 2.635
74 FC5 204 4.100
74 FC5 205 5.076
74 FC5 206 5.564
74 FC5 207 5.076
74 FC5 208 4.100
74 FC5 209 4.100
74 FC5 210 4.100
74 FC5 211 4.100
74 FC5 212 3.611
74 FC5 213 2.146
74 FC5 214 1.658
74 FC5 215 1.658
74 FC5 216 3.123
74 FC5 217 4.100
74 FC5 218 4.100
74 FC5 219 2.635
74 FC5 220 0.193
74 FC5 221 -1.760
74 FC5 222 -1.760
74 FC5 223 -0.295
74 FC5 224 2.146
74 FC5 225 4.588
74 FC5 226 5.564
74 FC5 227 5.564
74 FC5 228 5.564
74 FC5 229 4.588
74 FC5 230 4.100
74 FC5 231 4.100
74 FC5 232 4.100
74 FC5 233 5.076
74 FC5 234 6.541
74 FC5 235 7.029
74 FC5 236 6.541
74 FC5 237 5.564
74 FC5 238 4.588
74 FC5 239 4.100
74 FC5 240 4.588
74 FC5 241 5.564
74 FC5 242 6.541
74 FC5 243 6.053
74 FC5 244 5.564
74 FC5 245 5.564
74 FC5 246 6.053
74 FC5 247 7.517
74 FC5 248 8.982
74 FC5 249 9.959
74 FC5 250 9.471
74 FC5 251 8.006
74 FC5 252 5.564
74 FC5 253 4.588
74 FC5 254 4.100
74 FC5 255 4.100
# FC2 chan 11
74 FC2 0 0.773
74 FC2 1 2.238
74 FC2 2 3.215
74 FC2 3 1.750
74 FC2 4 -1.180
74 FC2 5 -4.110
74 FC2 6 -5.086
74 FC2 7 -4.110
74 FC2 8 -1.180
74 FC2 9 1.261
74 FC2 10 2.238
74 FC2 11 1.261
74 FC2 12 -0.692
74 FC2 13 -2.157
74 FC2 14 -2.645
74 FC2 15 -2.157
74 FC2 16 -1.668
74 FC2 17 -1.180
74 FC2 18 -0.203
74 FC2 19 -0.203
74 FC2 20 -0.203
74 FC2 21 -0.692
74 FC2 22 -1.668
74 FC2 23 -2.645
74 FC2 24 -2.645
74 FC2 25 -1.180
74 FC2 26 0.773
74 FC2 27 2.238
74 FC2 28 2.726
74 FC2 29 1.750
74 FC2 30 -0.203
74 FC2 31 -1.180
74 FC2 32 -1.180
74 FC2 33 0.285
74 FC2 34 1.750
74 FC2 35 1.750
74 FC2 36 0.285
74 FC2 37 -2.157
74 FC2 38 -3.133
74 FC2 39 -3.133
74 FC2 40 -1.668
74 FC2 41 -1.180
74 FC2 42 -1.180
74 FC2 43 -3.133
74 FC2 44 -4.110
74 FC2 45 -3.133
74 FC2 46 -0.692
74 FC2 47 2.238
74 FC2 48 4.191
74 FC2 49 3.215
74 FC2 50 0.285
74 FC2 51 -2.645
74 FC2 52 -4.110
74 FC2 53 -4.598
74 FC2 54 -3.621
74 FC2 55 -2.645
74 FC2 56 -2.157
74 FC2 57 -1.180
74 FC2 58 -0.203
74 FC2 59 0.773
74 FC2 60 0.773
74 FC2 61 0.285
74 FC2 62 -0.203
74 FC2 63 0.773
74 FC2 64 2.726
74 FC2 65 4.679
74 FC2 66 6.144
74 FC2 67 5.168
74 FC2 68 3.215
74 FC2 69 0.773
74 FC2 70 -0.692
74 FC2 71 -0.692
74 FC2 72 -0.692
74 FC2 73 -1.180
74 FC2 74 -3.133
74 FC2 75 -4.598
74 FC2 76 -5.086
74 FC2 77 -4.110
74 FC2 78 -1.668
74 FC2 79 0.285
74 FC2 80 1.261
74 FC2 81 0.285
74 FC2 82 -1.180
74 FC2 83 -1.668
74 FC2 84 -1.180
74 FC2 85 0.285
74 FC2 86 1.261
74 FC2 87 1.750
74 FC2 88 0.773
74 FC2 89 -1.180
74 FC2 90 -3.133
74 FC2 91 -4.598
74 FC2 92 -5.086
74 FC2 93 -5.086
74 FC2 94 -5.086
74 FC2 95 -5.086
74 FC2 96 -5.086
74 FC2 97 -4.598
74 FC2 98 -3.621
74 FC2 99 -2.645
74 FC2 100 -1.668
74 FC2 101 -1.180
74 FC2 102 -0.692
74 FC2 103 -1.180
74 FC2 104 -1.180
74 FC2 105 -1.180
74 FC2 106 -0.692
74 FC2 107 -0.203
74 FC2 108 -0.692
74 FC2 109 -1.180
74 FC2 110 -1.668
74 FC2 111 -2.645
74 FC2 112 -2.157
74 FC2 113 -1.668
74 FC2 114 -1.668
74 FC2 115 -2.157
74 FC2 116 -2.645
74 FC2 117 -3.621
74 FC2 118 -3.621
74 FC2 119 -3.621
74 FC2 120 -3.133
74 FC2 121 -2.645
74 FC2 122 -2.157
74 FC2 123 -2.645
74 FC2 124 -3.133
74 FC2 125 -4.110
74 FC2 126 -4.110
74 FC2 127 -3.621
74 FC2 128 -2.645
74 FC2 129 -2.157
74 FC2 130 -2.157
74 FC2 131 -2.157
74 FC2 132 -2.157
74 FC2 133 -1.668
74 FC2 134 -1.180
74 FC2 135 -0.203
74 FC2 136 0.285
74 FC2 137 0.773
74 FC2 138 1.750
74 FC2 139 2.726
74 FC2 140 3.215
74 FC2 141 2.726
74 FC2 142 0.773
74 FC2 143 -1.180
74 FC2 144 -2.157
74 FC2 145 -1.668
74 FC2 146 -0.692
74 FC2 147 0.285
74 FC2 148 -0.203
74 FC2 149 -1.180
74 FC2 150 -2.645
74 FC2 151 -3.133
74 FC2 152 -2.645
74 FC2 153 -2.157
74 FC2 154 -1.668
74 FC2 155 -2.645
74 FC2 156 -3.133
74 FC2 157 -3.621
74 FC2 158 -3.133
74 FC2 159 -1.668
74 FC2 160 -0.692
74 FC2 161 -0.692
74 FC2 162 -1.180
74 FC2 163 -2.157
74 FC2 164 -2.645
74 FC2 165 -2.645
74 FC2 166 -2.157
74 FC2 167 -1.668
74 FC2 168 -1.180
74 FC2 169 -1.180
74 FC2 170 -1.180
74 FC2 171 -1.180
74 FC2 172 -1.668
74 FC2 173 -2.645
74 FC2 174 -3.133
74 FC2 175 -2.645
74 FC2 176 -1.668
74 FC2 177 -0.692
74 FC2 178 -0.203
74 FC2 179 0.285
74 FC2 180 -0.203
74 FC2 181 0.285
74 FC2 182 1.261
74 FC2 183 2.238
74 FC2 184 1.750
74 FC2 185 0.285
74 FC2 186 -1.180
74 FC2 187 -2.157
74 FC2 188 -1.180
74 FC2 189 0.285
74 FC2 190 1.261
74 FC2 191 0.773
74 FC2 192 0.773
74 FC2 193 1.261
74 FC2 194 2.238
74 FC2 195 3.703
74 FC2 196 3.703
74 FC2 197 1.750
74 FC2 198 -0.692
74 FC2 199 -2.157
74 FC2 200 -2.645
74 FC2 201 -1.180
74 FC2 202 0.285
74 FC2 203 0.773
74 FC2 204 -0.203
74 FC2 205 -1.180
74 FC2 206 -1.180
74 FC2 207 -1.180
74 FC2 208 -0.692
74 FC2 209 -0.692
74 FC2 210 -1.180
74 FC2 211 -0.692
74 FC2 212 -0.203
74 FC2 213 0.773
74 FC2 214 0.773
74 FC2 215 0.285
74 FC2 216 -1.180
74 FC2 217 -2.157
74 FC2 218 -3.133
74 FC2 219 -2.157
74 FC2 220 -0.692
74 FC2 221 0.285
74 FC2 222 0.773
74 FC2 223 0.285
74 FC2 224 0.285
74 FC2 225 0.773
74 FC2 226 1.750
74 FC2 227 2.726
74 FC2 228 2.726
74 FC2 229 1.750
74 FC2 230 1.261
74 FC2 231 0.773
74 FC2 232 1.261
74 FC2 233 1.261
74 FC2 234 1.261
74 FC2 235 1.261
74 FC2 236 1.261
74 FC2 237 1.750
74 FC2 238 2.238
74 FC2 239 3.703
74 FC2 240 3.703
74 FC2 241 3.703
74 FC2 242 2.238
74 FC2 243 2.238
74 FC2 244 2.238
74 FC2 245 3.703
74 FC2 246 5.656
74 FC2 247 6.144
74 FC2 248 5.656
74 FC2 249 4.191
74 FC2 250 2.238
74 FC2 251 1.750
74 FC2 252 2.726
74 FC2 253 4.679
74 FC2 254 6.632
74 FC2 255 7.121
# FC1 chan 12
74 FC1 0 -0.132
74 FC1 1 1.333
74 FC1 2 1.821
74 FC1 3 1.333
74 FC1 4 0.844
74 FC1 5 -0.132
74 FC1 6 -0.132
74 FC1 7 0.356
74 FC1 8 0.844
74 FC1 9 1.821
74 FC1 10 2.309
74 FC1 11 1.821
74 FC1 12 0.844
74 FC1 13 -0.132
74 FC1 14 -0.621
74 FC1 15 -1.597
74 FC1 16 -1.109
74 FC1 17 -0.621
74 FC1 18 0.844
74 FC1 19 1.333
74 FC1 20 0.844
74 FC1 21 -0.132
74 FC1 22 -1.597
74 FC1 23 -1.597
74 FC1 24 -1.109
74 FC1 25 0.844
74 FC1 26 2.797
74 FC1 27 3.774
74 FC1 28 3.774
74 FC1 29 2.309
74 FC1 30 1.333
74 FC1 31 0.356
74 FC1 32 -0.132
74 FC1 33 0.356
74 FC1 34 0.844
74 FC1 35 0.844
74 FC1 36 0.844
74 FC1 37 -0.132
74 FC1 38 -0.621
74 FC1 39 -1.109
74 FC1 40 -1.109
74 FC1 41 -1.597
74 FC1 42 -1.597
74 FC1 43 -1.597
74 FC1 44 -1.109
74 FC1 45 0.356
74 FC1 46 1.821
74 FC1 47 2.797
74 FC1 48 3.286
74 FC1 49 3.286
74 FC1 50 1.821
74 FC1 51 0.356
74 FC1 52 -1.109
74 FC1 53 -2.085
74 FC1 54 -2.085
74 FC1 55 -1.109
74 FC1 56 0.844
74 FC1 57 2.309
74 FC1 58 3.774
74 FC1 59 4.262
74 FC1 60 3.774
74 FC1 61 3.286
74 FC1 62 2.309
74 FC1 63 1.821
74 FC1 64 2.309
74 FC1 65 3.286
74 FC1 66 4.262
74 FC1 67 4.751
74 FC1 68 5.239
74 FC1 69 4.751
74 FC1 70 3.774
74 FC1 71 3.286
74 FC1 72 2.797
74 FC1 73 3.286
74 FC1 74 3.286
74 FC1 75 2.797
74 FC1 76 2.309
74 FC1 77 1.821
74 FC1 78 1.333
74 FC1 79 1.333
74 FC1 80 1.821
74 FC1 81 2.797
74 FC1 82 3.774
74 FC1 83 5.239
74 FC1 84 5.239
74 FC1 85 4.751
74 FC1 86 4.262
74 FC1 87 3.286
74 FC1 88 3.286
74 FC1 89 2.797
74 FC1 90 2.797
74 FC1 91 2.309
74 FC1 92 1.821
74 FC1 93 1.821
74 FC1 94 1.333
74 FC1 95 0.356
74 FC1 96 -0.132
74 FC1 97 -0.621
74 FC1 98 -1.109
74 FC1 99 -1.597
74 FC1 100 -1.109
74 FC1 101 -1.109
74 FC1 102 -1.109
74 FC1 103 -1.597
74 FC1 104 -2.085
74 FC1 105 -2.574
74 FC1 106 -2.085
74 FC1 107 -1.109
74 FC1 108 0.356
74 FC1 109 1.333
74 FC1 110 1.821
74 FC1 111 1.821
74 FC1 112 0.844
74 FC1 113 0.844
74 FC1 114 0.356
74 FC1 115 0.844
74 FC1 116 1.333
74 FC1 117 1.821
74 FC1 118 1.821
74 FC1 119 0.844
74 FC1 120 -0.132
74 FC1 121 -0.621
74 FC1 122 -1.109
74 FC1 123 -0.621
74 FC1 124 -0.132
74 FC1 125 -0.132
74 FC1 126 -0.132
74 FC1 127 -0.132
74 FC1 128 0.356
74 FC1 129 1.333
74 FC1 130 1.821
74 FC1 131 2.309
74 FC1 132 1.821
74 FC1 133 1.821
74 FC1 134 1.821
74 FC1 135 1.821
74 FC1 136 2.309
74 FC1 137 2.309
74 FC1 138 2.797
74 FC1 139 2.797
74 FC1 140 3.774
74 FC1 141 4.262
74 FC1 142 4.262
74 FC1 143 3.774
74 FC1 144 2.797
74 FC1 145 1.821
74 FC1 146 1.821
74 FC1 147 2.309
74 FC1 148 3.286
74 FC1 149 3.774
74 FC1 150 3.286
74 FC1 151 2.797
74 FC1 152 1.333
74 FC1 153 0.356
74 FC1 154 -0.132
74 FC1 155 -0.621
74 FC1 156 -0.132
74 FC1 157 0.844
74 FC1 158 1.333
74 FC1 159 2.309
74 FC1 160 2.309
74 FC1 161 2.309
74 FC1 162 1.821
74 FC1 163 1.821
74 FC1 164 2.309
74 FC1 165 2.309
74 FC1 166 2.309
74 FC1 167 1.821
74 FC1 168 1.333
74 FC1 169 1.333
74 FC1 170 1.821
74 FC1 171 1.821
74 FC1 172 2.309
74 FC1 173 2.797
74 FC1 174 3.286
74 FC1 175 4.262
74 FC1 176 4.751
74 FC1 177 5.239
74 FC1 178 5.239
74 FC1 179 5.727
74 FC1 180 5.727
74 FC1 181 6.704
74 FC1 182 7.192
74 FC1 183 7.192
74 FC1 184 6.215
74 FC1 185 4.751
74 FC1 186 3.774
74 FC1 187 3.774
74 FC1 188 4.262
74 FC1 189 5.727
74 FC1 190 6.215
74 FC1 191 6.704
74 FC1 192 6.215
74 FC1 193 5.727
74 FC1 194 5.239
74 FC1 195 4.751
74 FC1 196 4.751
74 FC1 197 4.262
74 FC1 198 3.286
74 FC1 199 2.797
74 FC1 200 2.309
74 FC1 201 1.821
74 FC1 202 1.821
74 FC1 203 2.309
74 FC1 204 2.309
74 FC1 205 2.797
74 FC1 206 2.309
74 FC1 207 2.309
74 FC1 208 2.309
74 FC1 209 2.309
74 FC1 210 1.821
74 FC1 211 1.333
74 FC1 212 0.356
74 FC1 213 -0.132
74 FC1 214 -0.132
74 FC1 215 0.844
74 FC1 216 2.309
74 FC1 217 2.797
74 FC1 218 2.797
74 FC1 219 2.309
74 FC1 220 1.821
74 FC1 221 1.333
74 FC1 222 1.821
74 FC1 223 2.797
74 FC1 224 3.774
74 FC1 225 5.239
74 FC1 226 5.727
74 FC1 227 5.727
74 FC1 228 5.727
74 FC1 229 5.727
74 FC1 230 5.239
74 FC1 231 5.239
74 FC1 232 5.727
74 FC1 233 5.727
74 FC1 234 6.215
74 FC1 235 6.215
74 FC1 236 5.727
74 FC1 237 5.239
74 FC1 238 5.239
74 FC1 239 5.239
74 FC1 240 5.727
74 FC1 241 6.704
74 FC1 242 6.704
74 FC1 243 6.215
74 FC1 244 5.727
74 FC1 245 5.727
74 FC1 246 5.727
74 FC1 247 5.727
74 FC1 248 6.215
74 FC1 249 6.704
74 FC1 250 6.215
74 FC1 251 5.239
74 FC1 252 4.751
74 FC1 253 4.751
74 FC1 254 5.239
74 FC1 255 5.727
# T8 chan 13
74 T8 0 6.368
74 T8 1 4.903
74 T8 2 0.509
74 T8 3 -3.398
74 T8 4 -4.862
74 T8 5 -5.839
74 T8 6 -6.327
74 T8 7 -7.792
74 T8 8 -8.769
74 T8 9 -7.792
74 T8 10 -4.862
74 T8 11 -1.444
74 T8 12 0.509
74 T8 13 -1.444
74 T8 14 -5.351
74 T8 15 -9.257
74 T8 16 -11.210
74 T8 17 -9.745
74 T8 18 -6.327
74 T8 19 -3.398
74 T8 20 -2.421
74 T8 21 -2.909
74 T8 22 -2.421
74 T8 23 -0.956
74 T8 24 0.509
74 T8 25 0.020
74 T8 26 -3.398
74 T8 27 -7.792
74 T8 28 -10.234
74 T8 29 -8.280
74 T8 30 -2.909
74 T8 31 2.950
74 T8 32 5.391
74 T8 33 4.415
74 T8 34 0.020
74 T8 35 -3.886
74 T8 36 -8.280
74 T8 37 -11.210
74 T8 38 -14.140
74 T8 39 -15.116
74 T8 40 -12.675
74 T8 41 -7.304
74 T8 42 -0.468
74 T8 43 3.438
74 T8 44 2.462
74 T8 45 -1.933
74 T8 46 -6.327
74 T8 47 -8.280
74 T8 48 -6.327
74 T8 49 -2.421
74 T8 50 0.020
74 T8 51 0.509
74 T8 52 -0.468
74 T8 53 -0.468
74 T8 54 0.509
74 T8 55 1.973
74 T8 56 2.462
74 T8 57 0.509
74 T8 58 -1.444
74 T8 59 -3.398
74 T8 60 -3.886
74 T8 61 -3.886
74 T8 62 -5.351
74 T8 63 -6.816
74 T8 64 -8.280
74 T8 65 -7.304
74 T8 66 -3.886
74 T8 67 0.020
74 T8 68 1.485
74 T8 69 0.020
74 T8 70 -3.398
74 T8 71 -5.351
74 T8 72 -4.862
74 T8 73 -1.933
74 T8 74 0.997
74 T8 75 0.997
74 T8 76 -1.933
74 T8 77 -6.816
74 T8 78 -10.234
74 T8 79 -11.210
74 T8 80 -8.280
74 T8 81 -3.886
74 T8 82 0.997
74 T8 83 5.391
74 T8 84 8.321
74 T8 85 10.274
74 T8 86 10.763
74 T8 87 10.274
74 T8 88 8.321
74 T8 89 4.415
74 T8 90 0.020
74 T8 91 -3.398
74 T8 92 -3.886
74 T8 93 -1.933
74 T8 94 1.973
74 T8 95 4.903
74 T8 96 5.391
74 T8 97 3.438
74 T8 98 1.485
74 T8 99 2.462
74 T8 100 6.368
74 T8 101 9.786
74 T8 102 11.739
74 T8 103 9.298
74 T8 104 3.927
74 T8 105 -1.444
74 T8 106 -4.374
74 T8 107 -4.374
74 T8 108 -2.421
74 T8 109 -1.444
74 T8 110 -2.421
74 T8 111 -4.374
74 T8 112 -5.351
74 T8 113 -3.886
74 T8 114 -0.468
74 T8 115 2.950
74 T8 116 3.438
74 T8 117 0.020
74 T8 118 -4.862
74 T8 119 -9.257
74 T8 120 -11.210
74 T8 121 -9.745
74 T8 122 -5.839
74 T8 123 -1.933
74 T8 124 0.997
74 T8 125 2.462
74 T8 126 2.950
74 T8 127 3.438
74 T8 128 3.438
74 T8 129 3.438
74 T8 130 1.973
74 T8 131 -0.468
74 T8 132 -2.909
74 T8 133 -4.374
74 T8 134 -3.886
74 T8 135 -1.933
74 T8 136 0.509
74 T8 137 1.485
74 T8 138 0.020
74 T8 139 -2.421
74 T8 140 -4.862
74 T8 141 -5.351
74 T8 142 -3.398
74 T8 143 -1.444
74 T8 144 0.020
74 T8 145 -0.468
74 T8 146 -2.421
74 T8 147 -3.886
74 T8 148 -3.886
74 T8 149 -1.933
74 T8 150 0.509
74 T8 151 1.485
74 T8 152 0.997
74 T8 153 -1.444
74 T8 154 -2.909
74 T8 155 -3.398
74 T8 156 -1.933
74 T8 157 -0.468
74 T8 158 -0.468
74 T8 159 -1.933
74 T8 160 -3.398
74 T8 161 -3.398
74 T8 162 -1.444
74 T8 163 1.973
74 T8 164 3.927
74 T8 165 3.927
74 T8 166 1.485
74 T8 167 -1.444
74 T8 168 -2.909
74 T8 169 -1.933
74 T8 170 0.509
74 T8 171 2.462
74 T8 172 2.950
74 T8 173 1.485
74 T8 174 0.020
74 T8 175 -0.468
74 T8 176 0.509
74 T8 177 1.973
74 T8 178 3.438
74 T8 179 3.927
74 T8 180 4.415
74 T8 181 4.415
74 T8 182 3.927
74 T8 183 2.950
74 T8 184 0.997
74 T8 185 -0.468
74 T8 186 -0.956
74 T8 187 -0.468
74 T8 188 1.973
74 T8 189 4.415
74 T8 190 5.880
74 T8 191 5.880
74 T8 192 5.391
74 T8 193 5.391
74 T8 194 6.856
74 T8 195 9.298
74 T8 196 11.251
74 T8 197 11.251
74 T8 198 8.809
74 T8 199 5.391
74 T8 200 2.462
74 T8 201 1.485
74 T8 202 2.462
74 T8 203 3.927
74 T8 204 3.927
74 T8 205 2.462
74 T8 206 0.509
74 T8 207 -0.956
74 T8 208 -0.956
74 T8 209 0.020
74 T8 210 0.997
74 T8 211 0.997
74 T8 212 0.020
74 T8 213 0.020
74 T8 214 0.509
74 T8 215 1.485
74 T8 216 2.462
74 T8 217 2.950
74 T8 218 2.462
74 T8 219 2.462
74 T8 220 2.462
74 T8 221 3.438
74 T8 222 4.903
74 T8 223 5.880
74 T8 224 5.880
74 T8 225 5.391
74 T8 226 3.927
74 T8 227 1.485
74 T8 228 -1.444
74 T8 229 -4.374
74 T8 230 -5.839
74 T8 231 -5.351
74 T8 232 -3.398
74 T8 233 -1.933
74 T8 234 -1.444
74 T8 235 -1.444
74 T8 236 -0.468
74 T8 237 1.973
74 T8 238 3.438
74 T8 239 2.462
74 T8 240 -2.909
74 T8 241 -8.280
74 T8 242 -9.745
74 T8 243 -5.351
74 T8 244 2.462
74 T8 245 8.809
74 T8 246 8.809
74 T8 247 3.927
74 T8 248 -1.933
74 T8 249 -3.886
74 T8 250 -1.444
74 T8 251 2.950
74 T8 252 5.880
74 T8 253 6.368
74 T8 254 5.391
74 T8 255 4.415
# T7 chan 14
74 T7 0 -2.248
74 T7 1 2.146
74 T7 2 5.564
74 T7 3 6.053
74 T7 4 4.100
74 T7 5 0.682
74 T7 6 0.193
74 T7 7 2.635
74 T7 8 7.029
74 T7 9 9.471
74 T7 10 8.006
74 T7 11 2.635
74 T7 12 -2.736
74 T7 13 -5.666
74 T7 14 -5.666
74 T7 15 -4.690
74 T7 16 -5.178
74 T7 17 -8.596
74 T7 18 -11.525
74 T7 19 -12.502
74 T7 20 -10.061
74 T7 21 -5.666
74 T7 22 -0.295
74 T7 23 3.123
74 T7 24 3.611
74 T7 25 2.146
74 T7 26 0.193
74 T7 27 -1.272
74 T7 28 -0.783
74 T7 29 1.658
74 T7 30 4.588
74 T7 31 6.541
74 T7 32 5.076
74 T7 33 1.170
74 T7 34 -3.713
74 T7 35 -7.131
74 T7 36 -8.596
74 T7 37 -7.619
74 T7 38 -6.643
74 T7 39 -6.643
74 T7 40 -7.131
74 T7 41 -7.619
74 T7 42 -7.619
74 T7 43 -6.643
74 T7 44 -4.690
74 T7 45 -2.736
74 T7 46 -0.295
74 T7 47 2.146
74 T7 48 3.123
74 T7 49 2.635
74 T7 50 0.682
74 T7 51 -0.783
74 T7 52 -0.783
74 T7 53 2.146
74 T7 54 5.564
74 T7 55 8.006
74 T7 56 8.494
74 T7 57 7.029
74 T7 58 5.076
74 T7 59 4.100
74 T7 60 4.588
74 T7 61 4.100
74 T7 62 2.146
74 T7 63 -1.272
74 T7 64 -4.201
74 T7 65 -4.201
74 T7 66 -1.760
74 T7 67 3.123
74 T7 68 7.029
74 T7 69 9.471
74 T7 70 11.424
74 T7 71 12.889
74 T7 72 14.353
74 T7 73 15.330
74 T7 74 15.330
74 T7 75 13.865
74 T7 76 10.935
74 T7 77 7.517
74 T7 78 4.100
74 T7 79 0.682
74 T7 80 -2.248
74 T7 81 -2.736
74 T7 82 -0.783
74 T7 83 2.635
74 T7 84 6.053
74 T7 85 8.494
74 T7 86 8.982
74 T7 87 8.494
74 T7 88 8.494
74 T7 89 9.471
74 T7 90 10.447
74 T7 91 10.935
74 T7 92 9.959
74 T7 93 8.982
74 T7 94 8.494
74 T7 95 8.494
74 T7 96 9.471
74 T7 97 10.935
74 T7 98 10.447
74 T7 99 8.982
74 T7 100 7.029
74 T7 101 4.100
74 T7 102 1.658
74 T7 103 -0.783
74 T7 104 -4.201
74 T7 105 -8.108
74 T7 106 -11.037
74 T7 107 -12.014
74 T7 108 -10.549
74 T7 109 -7.619
74 T7 110 -5.178
74 T7 111 -4.690
74 T7 112 -5.666
74 T7 113 -6.643
74 T7 114 -7.131
74 T7 115 -5.178
74 T7 116 -0.783
74 T7 117 5.564
74 T7 118 11.424
74 T7 119 13.865
74 T7 120 12.889
74 T7 121 8.982
74 T7 122 5.076
74 T7 123 3.611
74 T7 124 4.100
74 T7 125 5.564
74 T7 126 6.053
74 T7 127 5.076
74 T7 128 3.123
74 T7 129 1.658
74 T7 130 1.170
74 T7 131 1.170
74 T7 132 -0.295
74 T7 133 -2.736
74 T7 134 -3.713
74 T7 135 -3.225
74 T7 136 -0.783
74 T7 137 2.146
74 T7 138 4.100
74 T7 139 3.611
74 T7 140 2.635
74 T7 141 2.635
74 T7 142 4.100
74 T7 143 6.053
74 T7 144 7.029
74 T7 145 6.053
74 T7 146 3.611
74 T7 147 1.170
74 T7 148 0.682
74 T7 149 2.635
74 T7 150 5.564
74 T7 151 6.541
74 T7 152 5.564
74 T7 153 3.123
74 T7 154 0.193
74 T7 155 -1.760
74 T7 156 -2.248
74 T7 157 -2.248
74 T7 158 -2.248
74 T7 159 -1.760
74 T7 160 -1.760
74 T7 161 0.193
74 T7 162 3.123
74 T7 163 7.029
74 T7 164 9.959
74 T7 165 10.935
74 T7 166 9.471
74 T7 167 7.517
74 T7 168 6.053
74 T7 169 6.541
74 T7 170 8.982
74 T7 171 11.424
74 T7 172 12.400
74 T7 173 10.935
74 T7 174 8.006
74 T7 175 6.541
74 T7 176 7.029
74 T7 177 9.959
74 T7 178 12.889
74 T7 179 14.842
74 T7 180 13.377
74 T7 181 10.447
74 T7 182 7.517
74 T7 183 6.053
74 T7 184 7.517
74 T7 185 11.424
74 T7 186 15.818
74 T7 187 18.748
74 T7 188 19.236
74 T7 189 16.795
74 T7 190 12.889
74 T7 191 9.959
74 T7 192 9.471
74 T7 193 10.935
74 T7 194 13.865
74 T7 195 14.842
74 T7 196 13.865
74 T7 197 9.959
74 T7 198 6.053
74 T7 199 4.100
74 T7 200 4.100
74 T7 201 6.053
74 T7 202 8.006
74 T7 203 10.447
74 T7 204 12.400
74 T7 205 13.377
74 T7 206 13.377
74 T7 207 11.912
74 T7 208 9.959
74 T7 209 8.494
74 T7 210 9.471
74 T7 211 11.424
74 T7 212 12.400
74 T7 213 12.400
74 T7 214 10.447
74 T7 215 8.006
74 T7 216 5.564
74 T7 217 4.100
74 T7 218 3.123
74 T7 219 3.123
74 T7 220 4.100
74 T7 221 7.029
74 T7 222 9.959
74 T7 223 11.912
74 T7 224 11.912
74 T7 225 9.471
74 T7 226 8.006
74 T7 227 8.006
74 T7 228 10.447
74 T7 229 11.912
74 T7 230 11.912
74 T7 231 10.447
74 T7 232 8.982
74 T7 233 9.959
74 T7 234 11.912
74 T7 235 13.865
74 T7 236 13.865
74 T7 237 11.912
74 T7 238 9.959
74 T7 239 8.982
74 T7 240 10.447
74 T7 241 11.424
74 T7 242 11.424
74 T7 243 9.471
74 T7 244 8.006
74 T7 245 8.494
74 T7 246 10.447
74 T7 247 13.865
74 T7 248 17.283
74 T7 249 18.748
74 T7 250 18.748
74 T7 251 16.307
74 T7 252 13.377
74 T7 253 9.959
74 T7 254 7.517
74 T7 255 7.029
# CZ chan 15
74 CZ 0 -17.303
74 CZ 1 -16.815
74 CZ 2 -13.885
74 CZ 3 -9.003
74 CZ 4 -4.120
74 CZ 5 -2.655
74 CZ 6 -5.096
74 CZ 7 -9.979
74 CZ 8 -13.885
74 CZ 9 -13.885
74 CZ 10 -9.491
74 CZ 11 -4.608
74 CZ 12 -1.678
74 CZ 13 -3.143
74 CZ 14 -8.514
74 CZ 15 -13.885
74 CZ 16 -17.792
74 CZ 17 -19.257
74 CZ 18 -19.257
74 CZ 19 -19.745
74 CZ 20 -21.210
74 CZ 21 -22.186
74 CZ 22 -20.233
74 CZ 23 -14.862
74 CZ 24 -8.026
74 CZ 25 -2.655
74 CZ 26 -2.167
74 CZ 27 -7.538
74 CZ 28 -13.397
74 CZ 29 -16.815
74 CZ 30 -15.839
74 CZ 31 -10.956
74 CZ 32 -5.585
74 CZ 33 -2.167
74 CZ 34 -2.655
74 CZ 35 -5.585
74 CZ 36 -10.468
74 CZ 37 -15.839
74 CZ 38 -21.210
74 CZ 39 -25.116
74 CZ 40 -26.093
74 CZ 41 -23.651
74 CZ 42 -17.303
74 CZ 43 -10.956
74 CZ 44 -7.050
74 CZ 45 -7.050
74 CZ 46 -9.491
74 CZ 47 -11.444
74 CZ 48 -10.956
74 CZ 49 -7.538
74 CZ 50 -5.096
74 CZ 51 -4.608
74 CZ 52 -7.050
74 CZ 53 -10.956
74 CZ 54 -12.909
74 CZ 55 -11.444
74 CZ 56 -7.050
74 CZ 57 -0.214
74 CZ 58 6.134
74 CZ 59 10.040
74 CZ 60 8.575
74 CZ 61 3.693
74 CZ 62 -3.143
74 CZ 63 -7.538
74 CZ 64 -8.514
74 CZ 65 -5.096
74 CZ 66 -1.190
74 CZ 67 0.275
74 CZ 68 -0.702
74 CZ 69 -2.655
74 CZ 70 -3.143
74 CZ 71 -0.214
74 CZ 72 5.157
74 CZ 73 10.040
74 CZ 74 10.529
74 CZ 75 5.646
74 CZ 76 -1.678
74 CZ 77 -8.026
74 CZ 78 -10.468
74 CZ 79 -9.491
74 CZ 80 -7.050
74 CZ 81 -5.096
74 CZ 82 -4.120
74 CZ 83 -3.143
74 CZ 84 -1.190
74 CZ 85 2.228
74 CZ 86 5.646
74 CZ 87 7.599
74 CZ 88 7.599
74 CZ 89 5.646
74 CZ 90 2.228
74 CZ 91 -2.167
74 CZ 92 -4.120
74 CZ 93 -3.143
74 CZ 94 1.740
74 CZ 95 7.599
74 CZ 96 11.017
74 CZ 97 9.064
74 CZ 98 3.693
74 CZ 99 -1.678
74 CZ 100 -2.167
74 CZ 101 2.716
74 CZ 102 8.575
74 CZ 103 11.017
74 CZ 104 6.622
74 CZ 105 -1.190
74 CZ 106 -7.538
74 CZ 107 -8.514
74 CZ 108 -6.561
74 CZ 109 -5.096
74 CZ 110 -8.026
74 CZ 111 -14.862
74 CZ 112 -22.186
74 CZ 113 -25.116
74 CZ 114 -22.186
74 CZ 115 -16.327
74 CZ 116 -10.468
74 CZ 117 -7.538
74 CZ 118 -8.026
74 CZ 119 -10.956
74 CZ 120 -13.885
74 CZ 121 -14.374
74 CZ 122 -12.909
74 CZ 123 -9.003
74 CZ 124 -4.120
74 CZ 125 -0.214
74 CZ 126 1.251
74 CZ 127 1.251
74 CZ 128 0.275
74 CZ 129 -0.702
74 CZ 130 -0.702
74 CZ 131 -1.678
74 CZ 132 -4.120
74 CZ 133 -7.538
74 CZ 134 -10.956
74 CZ 135 -10.956
74 CZ 136 -8.026
74 CZ 137 -3.143
74 CZ 138 0.275
74 CZ 139 -1.190
74 CZ 140 -6.073
74 CZ 141 -11.932
74 CZ 142 -14.862
74 CZ 143 -14.374
74 CZ 144 -11.444
74 CZ 145 -9.491
74 CZ 146 -8.514
74 CZ 147 -8.026
74 CZ 148 -7.050
74 CZ 149 -4.608
74 CZ 150 -2.655
74 CZ 151 -2.655
74 CZ 152 -4.608
74 CZ 153 -8.026
74 CZ 154 -10.468
74 CZ 155 -10.956
74 CZ 156 -9.979
74 CZ 157 -8.514
74 CZ 158 -7.050
74 CZ 159 -6.073
74 CZ 160 -5.585
74 CZ 161 -6.073
74 CZ 162 -6.561
74 CZ 163 -7.538
74 CZ 164 -8.026
74 CZ 165 -7.050
74 CZ 166 -3.632
74 CZ 167 1.251
74 CZ 168 6.134
74 CZ 169 8.575
74 CZ 170 7.599
74 CZ 171 3.693
74 CZ 172 -1.190
74 CZ 173 -4.608
74 CZ 174 -5.096
74 CZ 175 -3.632
74 CZ 176 -2.167
74 CZ 177 -0.702
74 CZ 178 -0.214
74 CZ 179 0.763
74 CZ 180 3.693
74 CZ 181 5.646
74 CZ 182 5.157
74 CZ 183 1.251
74 CZ 184 -4.120
74 CZ 185 -8.026
74 CZ 186 -6.561
74 CZ 187 -0.702
74 CZ 188 6.134
74 CZ 189 10.040
74 CZ 190 8.575
74 CZ 191 4.181
74 CZ 192 1.740
74 CZ 193 3.693
74 CZ 194 8.575
74 CZ 195 11.993
74 CZ 196 11.017
74 CZ 197 5.646
74 CZ 198 -1.190
74 CZ 199 -4.608
74 CZ 200 -3.632
74 CZ 201 0.275
74 CZ 202 3.204
74 CZ 203 3.693
74 CZ 204 0.763
74 CZ 205 -2.655
74 CZ 206 -5.585
74 CZ 207 -6.561
74 CZ 208 -6.073
74 CZ 209 -4.608
74 CZ 210 -2.167
74 CZ 211 0.763
74 CZ 212 3.204
74 CZ 213 4.181
74 CZ 214 1.740
74 CZ 215 -1.678
74 CZ 216 -5.096
74 CZ 217 -6.561
74 CZ 218 -5.585
74 CZ 219 -3.143
74 CZ 220 -2.167
74 CZ 221 -2.655
74 CZ 222 -4.608
74 CZ 223 -6.073
74 CZ 224 -5.585
74 CZ 225 -4.120
74 CZ 226 -2.167
74 CZ 227 -1.678
74 CZ 228 -3.143
74 CZ 229 -5.096
74 CZ 230 -6.561
74 CZ 231 -6.073
74 CZ 232 -3.632
74 CZ 233 -1.190
74 CZ 234 -1.190
74 CZ 235 -4.120
74 CZ 236 -9.491
74 CZ 237 -13.885
74 CZ 238 -16.815
74 CZ 239 -16.815
74 CZ 240 -14.862
74 CZ 241 -12.909
74 CZ 242 -12.421
74 CZ 243 -13.397
74 CZ 244 -15.350
74 CZ 245 -16.327
74 CZ 246 -15.350
74 CZ 247 -11.932
74 CZ 248 -6.073
74 CZ 249 -1.190
74 CZ 250 0.763
74 CZ 251 -0.214
74 CZ 252 -3.143
74 CZ 253 -4.120
74 CZ 254 -2.655
74 CZ 255 0.763
# C3 chan 16
74 C3 0 -0.305
74 C3 1 1.648
74 C3 2 3.113
74 C3 3 5.066
74 C3 4 6.042
74 C3 5 7.019
74 C3 6 6.531
74 C3 7 5.554
74 C3 8 4.089
74 C3 9 2.625
74 C3 10 2.136
74 C3 11 2.625
74 C3 12 3.113
74 C3 13 2.625
74 C3 14 1.160
74 C3 15 -0.305
74 C3 16 -1.770
74 C3 17 -1.770
74 C3 18 -0.305
74 C3 19 1.160
74 C3 20 2.136
74 C3 21 2.625
74 C3 22 2.625
74 C3 23 3.113
74 C3 24 4.089
74 C3 25 5.066
74 C3 26 4.578
74 C3 27 3.113
74 C3 28 1.648
74 C3 29 0.183
74 C3 30 0.671
74 C3 31 2.136
74 C3 32 3.601
74 C3 33 4.089
74 C3 34 3.601
74 C3 35 2.136
74 C3 36 1.160
74 C3 37 0.183
74 C3 38 -0.793
74 C3 39 -1.770
74 C3 40 -2.258
74 C3 41 -1.282
74 C3 42 0.183
74 C3 43 2.136
74 C3 44 4.089
74 C3 45 3.601
74 C3 46 3.113
74 C3 47 1.648
74 C3 48 1.160
74 C3 49 1.648
74 C3 50 3.113
74 C3 51 3.601
74 C3 52 3.601
74 C3 53 3.113
74 C3 54 2.625
74 C3 55 2.625
74 C3 56 2.625
74 C3 57 3.601
74 C3 58 4.578
74 C3 59 5.066
74 C3 60 6.042
74 C3 61 6.531
74 C3 62 6.042
74 C3 63 4.578
74 C3 64 3.113
74 C3 65 2.136
74 C3 66 2.136
74 C3 67 3.601
74 C3 68 5.554
74 C3 69 7.019
74 C3 70 7.507
74 C3 71 6.531
74 C3 72 6.042
74 C3 73 6.042
74 C3 74 6.531
74 C3 75 7.507
74 C3 76 7.507
74 C3 77 6.531
74 C3 78 4.089
74 C3 79 2.625
74 C3 80 2.625
74 C3 81 3.601
74 C3 82 5.066
74 C3 83 6.042
74 C3 84 5.066
74 C3 85 4.089
74 C3 86 3.113
74 C3 87 2.625
74 C3 88 3.113
74 C3 89 4.578
74 C3 90 5.554
74 C3 91 6.042
74 C3 92 6.042
74 C3 93 6.042
74 C3 94 6.042
74 C3 95 5.554
74 C3 96 4.578
74 C3 97 3.113
74 C3 98 1.648
74 C3 99 -0.305
74 C3 100 -1.282
74 C3 101 -1.770
74 C3 102 -2.258
74 C3 103 -2.747
74 C3 104 -3.723
74 C3 105 -4.700
74 C3 106 -4.700
74 C3 107 -4.211
74 C3 108 -2.747
74 C3 109 -1.282
74 C3 110 -0.305
74 C3 111 -0.305
74 C3 112 -0.793
74 C3 113 -1.282
74 C3 114 -0.793
74 C3 115 0.671
74 C3 116 2.136
74 C3 117 3.113
74 C3 118 2.625
74 C3 119 1.648
74 C3 120 0.183
74 C3 121 -0.793
74 C3 122 -0.305
74 C3 123 0.183
74 C3 124 0.671
74 C3 125 0.671
74 C3 126 0.671
74 C3 127 0.183
74 C3 128 0.671
74 C3 129 1.648
74 C3 130 2.136
74 C3 131 2.136
74 C3 132 1.648
74 C3 133 0.671
74 C3 134 0.671
74 C3 135 1.648
74 C3 136 2.625
74 C3 137 3.113
74 C3 138 2.625
74 C3 139 1.648
74 C3 140 1.160
74 C3 141 1.160
74 C3 142 1.648
74 C3 143 2.625
74 C3 144 2.625
74 C3 145 2.136
74 C3 146 2.136
74 C3 147 2.625
74 C3 148 3.113
74 C3 149 3.113
74 C3 150 3.113
74 C3 151 1.648
74 C3 152 0.671
74 C3 153 -1.282
74 C3 154 -1.770
74 C3 155 -2.258
74 C3 156 -1.770
74 C3 157 -1.282
74 C3 158 -0.305
74 C3 159 1.160
74 C3 160 2.625
74 C3 161 4.089
74 C3 162 6.042
74 C3 163 6.531
74 C3 164 6.531
74 C3 165 5.066
74 C3 166 3.601
74 C3 167 1.648
74 C3 168 0.671
74 C3 169 1.160
74 C3 170 2.625
74 C3 171 4.089
74 C3 172 5.066
74 C3 173 6.042
74 C3 174 6.042
74 C3 175 5.554
74 C3 176 5.554
74 C3 177 6.042
74 C3 178 6.042
74 C3 179 6.042
74 C3 180 6.042
74 C3 181 6.042
74 C3 182 5.554
74 C3 183 5.554
74 C3 184 5.554
74 C3 185 6.042
74 C3 186 6.531
74 C3 187 7.019
74 C3 188 7.507
74 C3 189 7.019
74 C3 190 7.019
74 C3 191 6.531
74 C3 192 5.554
74 C3 193 4.578
74 C3 194 3.113
74 C3 195 2.136
74 C3 196 2.136
74 C3 197 2.625
74 C3 198 3.601
74 C3 199 4.578
74 C3 200 4.578
74 C3 201 4.578
74 C3 202 4.089
74 C3 203 4.089
74 C3 204 4.089
74 C3 205 4.578
74 C3 206 4.089
74 C3 207 4.089
74 C3 208 4.089
74 C3 209 4.578
74 C3 210 5.066
74 C3 211 5.066
74 C3 212 4.089
74 C3 213 2.625
74 C3 214 1.648
74 C3 215 2.625
74 C3 216 4.578
74 C3 217 6.531
74 C3 218 7.507
74 C3 219 6.531
74 C3 220 4.578
74 C3 221 2.136
74 C3 222 1.160
74 C3 223 1.160
74 C3 224 2.136
74 C3 225 3.601
74 C3 226 5.066
74 C3 227 5.066
74 C3 228 5.554
74 C3 229 5.066
74 C3 230 4.578
74 C3 231 4.578
74 C3 232 6.042
74 C3 233 7.507
74 C3 234 8.484
74 C3 235 8.972
74 C3 236 8.484
74 C3 237 7.507
74 C3 238 6.531
74 C3 239 6.042
74 C3 240 6.531
74 C3 241 7.996
74 C3 242 8.484
74 C3 243 7.996
74 C3 244 6.042
74 C3 245 4.578
74 C3 246 3.601
74 C3 247 4.578
74 C3 248 6.531
74 C3 249 8.484
74 C3 250 8.972
74 C3 251 7.507
74 C3 252 5.066
74 C3 253 3.601
74 C3 254 3.113
74 C3 255 4.089
# C4 chan 17
74 C4 0 2.126
74 C4 1 1.638
74 C4 2 1.638
74 C4 3 0.173
74 C4 4 -1.780
74 C4 5 -4.222
74 C4 6 -4.710
74 C4 7 -2.757
74 C4 8 0.173
74 C4 9 2.126
74 C4 10 1.638
74 C4 11 -0.315
74 C4 12 -2.268
74 C4 13 -2.757
74 C4 14 -1.292
74 C4 15 0.661
74 C4 16 1.149
74 C4 17 0.661
74 C4 18 -0.804
74 C4 19 -1.292
74 C4 20 0.173
74 C4 21 2.126
74 C4 22 3.103
74 C4 23 2.614
74 C4 24 1.149
74 C4 25 0.173
74 C4 26 1.149
74 C4 27 2.614
74 C4 28 4.079
74 C4 29 3.591
74 C4 30 1.638
74 C4 31 -0.315
74 C4 32 -0.315
74 C4 33 1.638
74 C4 34 3.591
74 C4 35 3.591
74 C4 36 1.149
74 C4 37 -2.268
74 C4 38 -4.222
74 C4 39 -3.245
74 C4 40 -0.315
74 C4 41 2.126
74 C4 42 3.103
74 C4 43 2.126
74 C4 44 0.661
74 C4 45 1.149
74 C4 46 1.638
74 C4 47 3.103
74 C4 48 1.638
74 C4 49 -1.292
74 C4 50 -4.222
74 C4 51 -5.686
74 C4 52 -4.222
74 C4 53 -0.804
74 C4 54 1.149
74 C4 55 1.638
74 C4 56 0.173
74 C4 57 -1.292
74 C4 58 -1.780
74 C4 59 -1.292
74 C4 60 -1.780
74 C4 61 -2.757
74 C4 62 -2.757
74 C4 63 -1.292
74 C4 64 1.638
74 C4 65 4.567
74 C4 66 5.056
74 C4 67 3.103
74 C4 68 -0.804
74 C4 69 -3.245
74 C4 70 -3.733
74 C4 71 -1.780
74 C4 72 0.173
74 C4 73 -0.315
74 C4 74 -2.757
74 C4 75 -5.686
74 C4 76 -7.151
74 C4 77 -5.686
74 C4 78 -2.757
74 C4 79 0.661
74 C4 80 2.126
74 C4 81 1.638
74 C4 82 0.173
74 C4 83 -1.292
74 C4 84 -1.292
74 C4 85 -0.804
74 C4 86 0.173
74 C4 87 0.173
74 C4 88 -1.292
74 C4 89 -3.733
74 C4 90 -5.686
74 C4 91 -7.151
74 C4 92 -6.663
74 C4 93 -5.198
74 C4 94 -3.245
74 C4 95 -2.268
74 C4 96 -1.780
74 C4 97 -1.780
74 C4 98 -1.780
74 C4 99 -2.268
74 C4 100 -2.757
74 C4 101 -3.245
74 C4 102 -3.733
74 C4 103 -3.733
74 C4 104 -3.245
74 C4 105 -2.268
74 C4 106 -1.780
74 C4 107 -2.268
74 C4 108 -4.222
74 C4 109 -6.663
74 C4 110 -8.128
74 C4 111 -8.616
74 C4 112 -7.640
74 C4 113 -5.686
74 C4 114 -4.710
74 C4 115 -4.710
74 C4 116 -5.198
74 C4 117 -5.686
74 C4 118 -6.175
74 C4 119 -5.686
74 C4 120 -4.710
74 C4 121 -3.733
74 C4 122 -3.733
74 C4 123 -5.198
74 C4 124 -6.175
74 C4 125 -6.663
74 C4 126 -6.175
74 C4 127 -5.198
74 C4 128 -4.222
74 C4 129 -4.222
74 C4 130 -4.710
74 C4 131 -4.710
74 C4 132 -4.710
74 C4 133 -4.222
74 C4 134 -4.222
74 C4 135 -4.222
74 C4 136 -4.222
74 C4 137 -3.245
74 C4 138 -1.292
74 C4 139 0.661
74 C4 140 1.149
74 C4 141 -0.315
74 C4 142 -3.733
74 C4 143 -6.663
74 C4 144 -8.128
74 C4 145 -7.640
74 C4 146 -5.198
74 C4 147 -2.757
74 C4 148 -2.268
74 C4 149 -3.733
74 C4 150 -6.175
74 C4 151 -7.640
74 C4 152 -7.151
74 C4 153 -5.686
74 C4 154 -3.733
74 C4 155 -3.245
74 C4 156 -4.222
74 C4 157 -5.198
74 C4 158 -5.198
74 C4 159 -3.733
74 C4 160 -1.780
74 C4 161 -0.315
74 C4 162 -1.292
74 C4 163 -3.733
74 C4 164 -6.663
74 C4 165 -7.640
74 C4 166 -6.663
74 C4 167 -4.222
74 C4 168 -2.268
74 C4 169 -1.292
74 C4 170 -2.268
74 C4 171 -3.245
74 C4 172 -4.222
74 C4 173 -4.710
74 C4 174 -4.222
74 C4 175 -3.733
74 C4 176 -4.222
74 C4 177 -4.222
74 C4 178 -3.733
74 C4 179 -3.733
74 C4 180 -3.245
74 C4 181 -2.268
74 C4 182 -1.292
74 C4 183 -1.780
74 C4 184 -2.268
74 C4 185 -2.268
74 C4 186 -2.268
74 C4 187 -1.780
74 C4 188 -1.292
74 C4 189 -2.268
74 C4 190 -3.733
74 C4 191 -4.710
74 C4 192 -3.733
74 C4 193 -0.804
74 C4 194 2.126
74 C4 195 4.079
74 C4 196 3.103
74 C4 197 0.661
74 C4 198 -1.780
74 C4 199 -2.757
74 C4 200 -2.757
74 C4 201 -2.268
74 C4 202 -2.268
74 C4 203 -2.757
74 C4 204 -3.733
74 C4 205 -3.733
74 C4 206 -3.733
74 C4 207 -3.245
74 C4 208 -3.245
74 C4 209 -3.245
74 C4 210 -2.757
74 C4 211 -1.292
74 C4 212 0.661
74 C4 213 1.638
74 C4 214 1.638
74 C4 215 -0.315
74 C4 216 -2.757
74 C4 217 -5.198
74 C4 218 -5.198
74 C4 219 -3.733
74 C4 220 -0.804
74 C4 221 1.149
74 C4 222 1.149
74 C4 223 0.173
74 C4 224 -0.804
74 C4 225 -0.804
74 C4 226 -0.315
74 C4 227 -0.315
74 C4 228 -0.804
74 C4 229 -2.757
74 C4 230 -4.222
74 C4 231 -4.710
74 C4 232 -4.222
74 C4 233 -3.245
74 C4 234 -1.292
74 C4 235 -0.315
74 C4 236 0.173
74 C4 237 0.173
74 C4 238 -0.315
74 C4 239 -1.292
74 C4 240 -2.268
74 C4 241 -2.757
74 C4 242 -2.268
74 C4 243 -0.804
74 C4 244 0.661
74 C4 245 1.149
74 C4 246 1.149
74 C4 247 0.173
74 C4 248 -1.780
74 C4 249 -3.245
74 C4 250 -3.245
74 C4 251 -2.268
74 C4 252 -0.315
74 C4 253 1.638
74 C4 254 3.103
74 C4 255 3.103
# CP5 chan 18
74 CP5 0 -6.266
74 CP5 1 -1.872
74 CP5 2 2.523
74 CP5 3 5.941
74 CP5 4 7.406
74 CP5 5 5.941
74 CP5 6 3.988
74 CP5 7 3.011
74 CP5 8 3.011
74 CP5 9 3.988
74 CP5 10 4.476
74 CP5 11 3.499
74 CP5 12 2.035
74 CP5 13 0.570
74 CP5 14 -0.895
74 CP5 15 -2.360
74 CP5 16 -4.313
74 CP5 17 -5.778
74 CP5 18 -6.266
74 CP5 19 -5.290
74 CP5 20 -2.360
74 CP5 21 1.058
74 CP5 22 3.499
74 CP5 23 4.476
74 CP5 24 4.964
74 CP5 25 3.499
74 CP5 26 1.546
74 CP5 27 -0.407
74 CP5 28 -1.383
74 CP5 29 -0.895
74 CP5 30 1.058
74 CP5 31 3.011
74 CP5 32 3.988
74 CP5 33 2.523
74 CP5 34 0.570
74 CP5 35 -1.872
74 CP5 36 -3.337
74 CP5 37 -4.313
74 CP5 38 -5.290
74 CP5 39 -6.266
74 CP5 40 -6.266
74 CP5 41 -5.290
74 CP5 42 -2.360
74 CP5 43 0.081
74 CP5 44 1.546
74 CP5 45 1.058
74 CP5 46 0.081
74 CP5 47 0.081
74 CP5 48 1.546
74 CP5 49 3.988
74 CP5 50 4.964
74 CP5 51 4.964
74 CP5 52 3.988
74 CP5 53 3.988
74 CP5 54 5.941
74 CP5 55 8.870
74 CP5 56 10.335
74 CP5 57 10.824
74 CP5 58 9.359
74 CP5 59 8.870
74 CP5 60 9.359
74 CP5 61 9.847
74 CP5 62 9.847
74 CP5 63 7.894
74 CP5 64 4.476
74 CP5 65 2.523
74 CP5 66 2.523
74 CP5 67 4.476
74 CP5 68 6.917
74 CP5 69 9.359
74 CP5 70 9.847
74 CP5 71 10.824
74 CP5 72 11.800
74 CP5 73 13.753
74 CP5 74 15.218
74 CP5 75 15.706
74 CP5 76 13.753
74 CP5 77 10.335
74 CP5 78 7.406
74 CP5 79 6.429
74 CP5 80 6.917
74 CP5 81 8.870
74 CP5 82 10.824
74 CP5 83 11.312
74 CP5 84 10.824
74 CP5 85 9.847
74 CP5 86 9.847
74 CP5 87 10.335
74 CP5 88 11.312
74 CP5 89 12.777
74 CP5 90 14.242
74 CP5 91 14.730
74 CP5 92 15.706
74 CP5 93 15.706
74 CP5 94 15.706
74 CP5 95 15.218
74 CP5 96 14.730
74 CP5 97 13.753
74 CP5 98 12.288
74 CP5 99 10.335
74 CP5 100 7.406
74 CP5 101 4.964
74 CP5 102 3.011
74 CP5 103 1.058
74 CP5 104 -0.895
74 CP5 105 -2.848
74 CP5 106 -4.801
74 CP5 107 -5.290
74 CP5 108 -3.337
74 CP5 109 0.081
74 CP5 110 3.499
74 CP5 111 5.941
74 CP5 112 6.429
74 CP5 113 5.452
74 CP5 114 4.964
74 CP5 115 6.429
74 CP5 116 9.359
74 CP5 117 12.288
74 CP5 118 13.753
74 CP5 119 13.265
74 CP5 120 11.800
74 CP5 121 10.335
74 CP5 122 10.335
74 CP5 123 11.312
74 CP5 124 12.288
74 CP5 125 12.288
74 CP5 126 11.312
74 CP5 127 9.847
74 CP5 128 8.382
74 CP5 129 7.406
74 CP5 130 6.429
74 CP5 131 4.964
74 CP5 132 2.523
74 CP5 133 0.570
74 CP5 134 0.570
74 CP5 135 2.523
74 CP5 136 6.429
74 CP5 137 9.847
74 CP5 138 11.312
74 CP5 139 9.847
74 CP5 140 7.406
74 CP5 141 4.964
74 CP5 142 4.964
74 CP5 143 7.406
74 CP5 144 10.335
74 CP5 145 11.800
74 CP5 146 11.312
74 CP5 147 9.847
74 CP5 148 9.359
74 CP5 149 9.847
74 CP5 150 10.824
74 CP5 151 10.824
74 CP5 152 9.359
74 CP5 153 6.917
74 CP5 154 4.476
74 CP5 155 3.499
74 CP5 156 3.988
74 CP5 157 5.452
74 CP5 158 6.917
74 CP5 159 8.870
74 CP5 160 11.312
74 CP5 161 13.265
74 CP5 162 15.706
74 CP5 163 17.171
74 CP5 164 17.171
74 CP5 165 16.195
74 CP5 166 14.242
74 CP5 167 12.777
74 CP5 168 11.312
74 CP5 169 11.312
74 CP5 170 11.312
74 CP5 171 11.800
74 CP5 172 12.288
74 CP5 173 12.288
74 CP5 174 11.312
74 CP5 175 10.335
74 CP5 176 10.335
74 CP5 177 10.824
74 CP5 178 12.288
74 CP5 179 14.242
74 CP5 180 15.218
74 CP5 181 15.218
74 CP5 182 13.753
74 CP5 183 12.777
74 CP5 184 13.265
74 CP5 185 14.730
74 CP5 186 17.171
74 CP5 187 18.636
74 CP5 188 18.148
74 CP5 189 16.195
74 CP5 190 13.265
74 CP5 191 10.824
74 CP5 192 9.847
74 CP5 193 9.847
74 CP5 194 9.847
74 CP5 195 9.847
74 CP5 196 10.335
74 CP5 197 9.847
74 CP5 198 9.359
74 CP5 199 8.382
74 CP5 200 7.894
74 CP5 201 7.894
74 CP5 202 9.359
74 CP5 203 11.312
74 CP5 204 12.777
74 CP5 205 13.265
74 CP5 206 11.800
74 CP5 207 10.824
74 CP5 208 10.824
74 CP5 209 12.288
74 CP5 210 14.242
74 CP5 211 15.218
74 CP5 212 14.242
74 CP5 213 11.800
74 CP5 214 9.847
74 CP5 215 8.870
74 CP5 216 9.359
74 CP5 217 9.847
74 CP5 218 10.335
74 CP5 219 9.847
74 CP5 220 9.847
74 CP5 221 9.359
74 CP5 222 9.847
74 CP5 223 8.870
74 CP5 224 8.382
74 CP5 225 7.406
74 CP5 226 7.406
74 CP5 227 8.382
74 CP5 228 9.359
74 CP5 229 10.335
74 CP5 230 10.335
74 CP5 231 10.335
74 CP5 232 10.824
74 CP5 233 13.265
74 CP5 234 15.218
74 CP5 235 16.683
74 CP5 236 16.195
74 CP5 237 13.753
74 CP5 238 11.312
74 CP5 239 9.359
74 CP5 240 9.847
74 CP5 241 10.824
74 CP5 242 12.288
74 CP5 243 11.800
74 CP5 244 9.359
74 CP5 245 6.429
74 CP5 246 4.476
74 CP5 247 5.452
74 CP5 248 9.359
74 CP5 249 13.753
74 CP5 250 16.195
74 CP5 251 15.218
74 CP5 252 10.824
74 CP5 253 6.429
74 CP5 254 3.988
74 CP5 255 4.964
# CP6 chan 19
74 CP6 0 5.809
74 CP6 1 3.855
74 CP6 2 0.926
74 CP6 3 -2.004
74 CP6 4 -3.957
74 CP6 5 -4.934
74 CP6 6 -4.934
74 CP6 7 -5.422
74 CP6 8 -5.422
74 CP6 9 -5.422
74 CP6 10 -3.957
74 CP6 11 -2.492
74 CP6 12 -1.516
74 CP6 13 -1.516
74 CP6 14 -2.492
74 CP6 15 -3.469
74 CP6 16 -3.469
74 CP6 17 -2.492
74 CP6 18 -1.516
74 CP6 19 -0.539
74 CP6 20 0.437
74 CP6 21 1.414
74 CP6 22 2.391
74 CP6 23 2.391
74 CP6 24 1.414
74 CP6 25 -1.516
74 CP6 26 -4.445
74 CP6 27 -6.399
74 CP6 28 -5.422
74 CP6 29 -2.004
74 CP6 30 1.902
74 CP6 31 5.320
74 CP6 32 6.297
74 CP6 33 5.320
74 CP6 34 2.879
74 CP6 35 -0.051
74 CP6 36 -2.492
74 CP6 37 -4.445
74 CP6 38 -5.910
74 CP6 39 -5.910
74 CP6 40 -3.469
74 CP6 41 -0.051
74 CP6 42 2.879
74 CP6 43 3.855
74 CP6 44 2.391
74 CP6 45 -0.539
74 CP6 46 -3.469
74 CP6 47 -5.422
74 CP6 48 -5.422
74 CP6 49 -3.957
74 CP6 50 -2.492
74 CP6 51 -1.516
74 CP6 52 0.437
74 CP6 53 1.902
74 CP6 54 3.367
74 CP6 55 3.367
74 CP6 56 2.391
74 CP6 57 -0.051
74 CP6 58 -2.004
74 CP6 59 -3.469
74 CP6 60 -3.957
74 CP6 61 -3.469
74 CP6 62 -3.469
74 CP6 63 -2.981
74 CP6 64 -2.004
74 CP6 65 -0.539
74 CP6 66 1.414
74 CP6 67 2.879
74 CP6 68 2.879
74 CP6 69 2.391
74 CP6 70 1.414
74 CP6 71 0.926
74 CP6 72 1.902
74 CP6 73 3.367
74 CP6 74 3.855
74 CP6 75 2.391
74 CP6 76 0.437
74 CP6 77 -1.516
74 CP6 78 -2.492
74 CP6 79 -2.004
74 CP6 80 -0.539
74 CP6 81 0.926
74 CP6 82 2.879
74 CP6 83 4.832
74 CP6 84 6.297
74 CP6 85 7.762
74 CP6 86 8.250
74 CP6 87 6.785
74 CP6 88 4.344
74 CP6 89 1.414
74 CP6 90 -0.539
74 CP6 91 -0.051
74 CP6 92 1.414
74 CP6 93 3.855
74 CP6 94 5.809
74 CP6 95 5.809
74 CP6 96 4.832
74 CP6 97 3.367
74 CP6 98 2.391
74 CP6 99 2.391
74 CP6 100 2.879
74 CP6 101 3.855
74 CP6 102 4.832
74 CP6 103 4.832
74 CP6 104 3.367
74 CP6 105 1.414
74 CP6 106 -0.051
74 CP6 107 -1.027
74 CP6 108 -0.539
74 CP6 109 -0.539
74 CP6 110 -1.516
74 CP6 111 -3.469
74 CP6 112 -5.422
74 CP6 113 -4.445
74 CP6 114 -2.492
74 CP6 115 0.926
74 CP6 116 2.391
74 CP6 117 0.926
74 CP6 118 -1.516
74 CP6 119 -2.981
74 CP6 120 -2.981
74 CP6 121 -0.539
74 CP6 122 2.391
74 CP6 123 3.855
74 CP6 124 3.367
74 CP6 125 2.391
74 CP6 126 1.902
74 CP6 127 2.391
74 CP6 128 3.367
74 CP6 129 3.367
74 CP6 130 2.391
74 CP6 131 0.926
74 CP6 132 -1.027
74 CP6 133 -2.004
74 CP6 134 -1.516
74 CP6 135 -0.539
74 CP6 136 0.926
74 CP6 137 2.391
74 CP6 138 2.391
74 CP6 139 1.902
74 CP6 140 0.437
74 CP6 141 -0.539
74 CP6 142 -1.027
74 CP6 143 -1.027
74 CP6 144 -0.539
74 CP6 145 -0.539
74 CP6 146 -0.051
74 CP6 147 -0.051
74 CP6 148 -0.051
74 CP6 149 -0.051
74 CP6 150 -0.539
74 CP6 151 -1.027
74 CP6 152 -1.516
74 CP6 153 -1.516
74 CP6 154 -1.027
74 CP6 155 -1.027
74 CP6 156 -1.027
74 CP6 157 -0.539
74 CP6 158 -0.051
74 CP6 159 1.414
74 CP6 160 3.367
74 CP6 161 4.344
74 CP6 162 4.344
74 CP6 163 2.879
74 CP6 164 0.926
74 CP6 165 -0.051
74 CP6 166 -0.539
74 CP6 167 0.437
74 CP6 168 0.926
74 CP6 169 1.902
74 CP6 170 2.391
74 CP6 171 2.391
74 CP6 172 2.391
74 CP6 173 1.902
74 CP6 174 0.926
74 CP6 175 -0.051
74 CP6 176 -0.539
74 CP6 177 -0.051
74 CP6 178 1.902
74 CP6 179 3.367
74 CP6 180 4.344
74 CP6 181 3.367
74 CP6 182 1.902
74 CP6 183 -0.051
74 CP6 184 -1.027
74 CP6 185 -1.516
74 CP6 186 -0.539
74 CP6 187 0.437
74 CP6 188 1.414
74 CP6 189 1.414
74 CP6 190 1.414
74 CP6 191 0.926
74 CP6 192 1.414
74 CP6 193 2.391
74 CP6 194 3.855
74 CP6 195 5.320
74 CP6 196 6.297
74 CP6 197 6.785
74 CP6 198 6.297
74 CP6 199 5.320
74 CP6 200 3.855
74 CP6 201 2.879
74 CP6 202 2.391
74 CP6 203 2.391
74 CP6 204 2.391
74 CP6 205 1.902
74 CP6 206 0.926
74 CP6 207 -0.051
74 CP6 208 -0.539
74 CP6 209 -0.051
74 CP6 210 0.926
74 CP6 211 1.902
74 CP6 212 2.879
74 CP6 213 2.879
74 CP6 214 2.391
74 CP6 215 1.902
74 CP6 216 1.902
74 CP6 217 1.902
74 CP6 218 2.391
74 CP6 219 2.391
74 CP6 220 3.367
74 CP6 221 4.344
74 CP6 222 5.809
74 CP6 223 7.273
74 CP6 224 7.762
74 CP6 225 6.785
74 CP6 226 4.344
74 CP6 227 1.414
74 CP6 228 -1.027
74 CP6 229 -2.492
74 CP6 230 -2.981
74 CP6 231 -2.492
74 CP6 232 -2.004
74 CP6 233 -1.027
74 CP6 234 -0.539
74 CP6 235 0.437
74 CP6 236 1.902
74 CP6 237 3.855
74 CP6 238 4.832
74 CP6 239 3.855
74 CP6 240 1.902
74 CP6 241 -0.051
74 CP6 242 -0.051
74 CP6 243 2.879
74 CP6 244 6.297
74 CP6 245 8.250
74 CP6 246 6.785
74 CP6 247 2.879
74 CP6 248 -1.027
74 CP6 249 -2.492
74 CP6 250 -1.027
74 CP6 251 2.391
74 CP6 252 4.832
74 CP6 253 6.297
74 CP6 254 5.320
74 CP6 255 4.344
# CP1 chan 20
74 CP1 0 -0.580
74 CP1 1 -0.092
74 CP1 2 0.397
74 CP1 3 1.373
74 CP1 4 2.838
74 CP1 5 3.815
74 CP1 6 3.815
74 CP1 7 3.326
74 CP1 8 1.373
74 CP1 9 0.397
74 CP1 10 -0.092
74 CP1 11 -0.092
74 CP1 12 0.885
74 CP1 13 1.373
74 CP1 14 2.350
74 CP1 15 2.838
74 CP1 16 1.862
74 CP1 17 1.862
74 CP1 18 0.885
74 CP1 19 1.862
74 CP1 20 2.838
74 CP1 21 4.303
74 CP1 22 5.768
74 CP1 23 5.768
74 CP1 24 5.280
74 CP1 25 3.326
74 CP1 26 0.885
74 CP1 27 -0.580
74 CP1 28 -1.068
74 CP1 29 -0.092
74 CP1 30 1.862
74 CP1 31 3.326
74 CP1 32 4.303
74 CP1 33 4.303
74 CP1 34 3.326
74 CP1 35 2.350
74 CP1 36 1.862
74 CP1 37 1.373
74 CP1 38 1.373
74 CP1 39 0.885
74 CP1 40 1.373
74 CP1 41 1.862
74 CP1 42 2.350
74 CP1 43 2.838
74 CP1 44 2.350
74 CP1 45 1.373
74 CP1 46 -0.092
74 CP1 47 -1.556
74 CP1 48 -1.556
74 CP1 49 -1.068
74 CP1 50 0.885
74 CP1 51 2.350
74 CP1 52 4.303
74 CP1 53 4.791
74 CP1 54 4.303
74 CP1 55 3.326
74 CP1 56 2.350
74 CP1 57 1.373
74 CP1 58 0.885
74 CP1 59 0.885
74 CP1 60 1.373
74 CP1 61 1.862
74 CP1 62 1.862
74 CP1 63 1.862
74 CP1 64 0.885
74 CP1 65 0.397
74 CP1 66 0.397
74 CP1 67 1.862
74 CP1 68 2.838
74 CP1 69 3.326
74 CP1 70 3.815
74 CP1 71 3.326
74 CP1 72 2.838
74 CP1 73 3.326
74 CP1 74 4.303
74 CP1 75 4.791
74 CP1 76 5.280
74 CP1 77 3.326
74 CP1 78 1.862
74 CP1 79 0.885
74 CP1 80 0.885
74 CP1 81 1.862
74 CP1 82 2.838
74 CP1 83 3.326
74 CP1 84 3.326
74 CP1 85 2.350
74 CP1 86 1.373
74 CP1 87 1.373
74 CP1 88 1.862
74 CP1 89 2.838
74 CP1 90 3.815
74 CP1 91 4.303
74 CP1 92 4.303
74 CP1 93 3.815
74 CP1 94 3.326
74 CP1 95 2.838
74 CP1 96 1.373
74 CP1 97 0.397
74 CP1 98 -0.092
74 CP1 99 -0.580
74 CP1 100 -1.068
74 CP1 101 -0.580
74 CP1 102 -1.068
74 CP1 103 -1.068
74 CP1 104 -1.556
74 CP1 105 -2.045
74 CP1 106 -2.533
74 CP1 107 -2.533
74 CP1 108 -2.533
74 CP1 109 -2.045
74 CP1 110 -1.556
74 CP1 111 -1.556
74 CP1 112 -1.068
74 CP1 113 -1.068
74 CP1 114 -0.092
74 CP1 115 0.885
74 CP1 116 1.373
74 CP1 117 1.373
74 CP1 118 0.885
74 CP1 119 -0.092
74 CP1 120 -0.092
74 CP1 121 0.397
74 CP1 122 0.885
74 CP1 123 1.373
74 CP1 124 1.373
74 CP1 125 1.373
74 CP1 126 1.373
74 CP1 127 1.862
74 CP1 128 1.373
74 CP1 129 0.885
74 CP1 130 0.397
74 CP1 131 -0.580
74 CP1 132 -1.556
74 CP1 133 -2.045
74 CP1 134 -1.556
74 CP1 135 -0.092
74 CP1 136 1.862
74 CP1 137 2.838
74 CP1 138 2.838
74 CP1 139 1.862
74 CP1 140 0.397
74 CP1 141 -0.092
74 CP1 142 -0.092
74 CP1 143 0.885
74 CP1 144 1.862
74 CP1 145 2.350
74 CP1 146 2.838
74 CP1 147 2.350
74 CP1 148 2.350
74 CP1 149 2.350
74 CP1 150 1.862
74 CP1 151 1.373
74 CP1 152 0.885
74 CP1 153 -0.092
74 CP1 154 -0.580
74 CP1 155 -0.580
74 CP1 156 -0.092
74 CP1 157 0.885
74 CP1 158 1.373
74 CP1 159 2.350
74 CP1 160 3.326
74 CP1 161 3.815
74 CP1 162 3.815
74 CP1 163 3.815
74 CP1 164 3.326
74 CP1 165 2.838
74 CP1 166 1.862
74 CP1 167 0.885
74 CP1 168 0.885
74 CP1 169 1.373
74 CP1 170 1.862
74 CP1 171 2.838
74 CP1 172 3.815
74 CP1 173 4.303
74 CP1 174 4.303
74 CP1 175 3.815
74 CP1 176 3.326
74 CP1 177 2.838
74 CP1 178 2.350
74 CP1 179 2.350
74 CP1 180 2.838
74 CP1 181 2.350
74 CP1 182 1.862
74 CP1 183 1.862
74 CP1 184 1.862
74 CP1 185 2.838
74 CP1 186 3.815
74 CP1 187 4.303
74 CP1 188 4.303
74 CP1 189 3.326
74 CP1 190 1.862
74 CP1 191 0.885
74 CP1 192 0.397
74 CP1 193 0.885
74 CP1 194 1.373
74 CP1 195 1.862
74 CP1 196 2.350
74 CP1 197 2.350
74 CP1 198 2.350
74 CP1 199 2.838
74 CP1 200 2.838
74 CP1 201 3.326
74 CP1 202 2.838
74 CP1 203 2.838
74 CP1 204 2.838
74 CP1 205 2.838
74 CP1 206 2.350
74 CP1 207 1.862
74 CP1 208 2.350
74 CP1 209 2.838
74 CP1 210 3.815
74 CP1 211 3.815
74 CP1 212 2.838
74 CP1 213 1.373
74 CP1 214 -0.092
74 CP1 215 -0.092
74 CP1 216 0.397
74 CP1 217 1.862
74 CP1 218 3.326
74 CP1 219 3.815
74 CP1 220 3.326
74 CP1 221 3.326
74 CP1 222 3.326
74 CP1 223 3.326
74 CP1 224 2.838
74 CP1 225 2.350
74 CP1 226 1.862
74 CP1 227 1.862
74 CP1 228 2.350
74 CP1 229 2.838
74 CP1 230 2.350
74 CP1 231 2.350
74 CP1 232 2.350
74 CP1 233 2.838
74 CP1 234 3.815
74 CP1 235 4.791
74 CP1 236 4.791
74 CP1 237 4.303
74 CP1 238 3.326
74 CP1 239 2.838
74 CP1 240 3.326
74 CP1 241 3.815
74 CP1 242 3.326
74 CP1 243 3.326
74 CP1 244 1.862
74 CP1 245 0.397
74 CP1 246 -0.092
74 CP1 247 0.397
74 CP1 248 1.373
74 CP1 249 2.350
74 CP1 250 2.838
74 CP1 251 2.350
74 CP1 252 0.885
74 CP1 253 -0.092
74 CP1 254 -0.580
74 CP1 255 -0.092
# CP2 chan 21
74 CP2 0 1.851
74 CP2 1 0.875
74 CP2 2 -0.102
74 CP2 3 -1.078
74 CP2 4 -1.567
74 CP2 5 -1.567
74 CP2 6 -1.567
74 CP2 7 -1.567
74 CP2 8 -1.567
74 CP2 9 -1.567
74 CP2 10 -1.567
74 CP2 11 -1.078
74 CP2 12 -0.102
74 CP2 13 1.363
74 CP2 14 2.828
74 CP2 15 3.316
74 CP2 16 3.316
74 CP2 17 2.828
74 CP2 18 1.851
74 CP2 19 1.851
74 CP2 20 2.828
74 CP2 21 3.805
74 CP2 22 4.781
74 CP2 23 4.293
74 CP2 24 3.316
74 CP2 25 1.363
74 CP2 26 -0.590
74 CP2 27 -1.078
74 CP2 28 -0.590
74 CP2 29 0.387
74 CP2 30 1.851
74 CP2 31 3.316
74 CP2 32 4.293
74 CP2 33 4.293
74 CP2 34 4.293
74 CP2 35 3.316
74 CP2 36 1.851
74 CP2 37 -0.102
74 CP2 38 -1.078
74 CP2 39 -0.590
74 CP2 40 0.387
74 CP2 41 2.340
74 CP2 42 3.805
74 CP2 43 3.805
74 CP2 44 2.828
74 CP2 45 1.363
74 CP2 46 -0.102
74 CP2 47 -1.078
74 CP2 48 -1.078
74 CP2 49 -0.590
74 CP2 50 0.387
74 CP2 51 1.363
74 CP2 52 2.828
74 CP2 53 3.805
74 CP2 54 3.316
74 CP2 55 2.828
74 CP2 56 1.363
74 CP2 57 -0.102
74 CP2 58 -0.590
74 CP2 59 -1.078
74 CP2 60 -0.590
74 CP2 61 -0.102
74 CP2 62 -0.102
74 CP2 63 0.387
74 CP2 64 0.875
74 CP2 65 1.363
74 CP2 66 1.363
74 CP2 67 1.363
74 CP2 68 0.875
74 CP2 69 0.387
74 CP2 70 0.387
74 CP2 71 1.363
74 CP2 72 1.363
74 CP2 73 1.851
74 CP2 74 1.363
74 CP2 75 0.875
74 CP2 76 -0.102
74 CP2 77 -0.102
74 CP2 78 -0.590
74 CP2 79 -0.102
74 CP2 80 0.387
74 CP2 81 0.875
74 CP2 82 2.340
74 CP2 83 3.805
74 CP2 84 4.293
74 CP2 85 4.293
74 CP2 86 3.316
74 CP2 87 2.340
74 CP2 88 0.875
74 CP2 89 0.387
74 CP2 90 0.387
74 CP2 91 0.875
74 CP2 92 1.851
74 CP2 93 1.851
74 CP2 94 2.340
74 CP2 95 1.363
74 CP2 96 0.875
74 CP2 97 -0.102
74 CP2 98 -1.078
74 CP2 99 -1.567
74 CP2 100 -1.567
74 CP2 101 -1.078
74 CP2 102 -0.590
74 CP2 103 0.387
74 CP2 104 0.387
74 CP2 105 -0.102
74 CP2 106 -0.102
74 CP2 107 -0.590
74 CP2 108 -1.078
74 CP2 109 -1.567
74 CP2 110 -2.543
74 CP2 111 -4.008
74 CP2 112 -4.008
74 CP2 113 -3.520
74 CP2 114 -1.567
74 CP2 115 -0.102
74 CP2 116 0.387
74 CP2 117 -0.590
74 CP2 118 -1.567
74 CP2 119 -2.055
74 CP2 120 -2.055
74 CP2 121 -0.590
74 CP2 122 0.875
74 CP2 123 0.875
74 CP2 124 0.387
74 CP2 125 -0.102
74 CP2 126 -0.590
74 CP2 127 -0.102
74 CP2 128 -0.102
74 CP2 129 -0.102
74 CP2 130 -1.078
74 CP2 131 -2.055
74 CP2 132 -3.031
74 CP2 133 -3.031
74 CP2 134 -2.055
74 CP2 135 -0.590
74 CP2 136 0.875
74 CP2 137 1.363
74 CP2 138 1.363
74 CP2 139 0.875
74 CP2 140 -0.102
74 CP2 141 -1.078
74 CP2 142 -1.567
74 CP2 143 -1.078
74 CP2 144 -0.590
74 CP2 145 -0.102
74 CP2 146 0.387
74 CP2 147 0.387
74 CP2 148 -0.102
74 CP2 149 -0.590
74 CP2 150 -2.055
74 CP2 151 -3.031
74 CP2 152 -3.520
74 CP2 153 -3.031
74 CP2 154 -1.567
74 CP2 155 -1.078
74 CP2 156 -0.590
74 CP2 157 -0.102
74 CP2 158 -0.102
74 CP2 159 0.875
74 CP2 160 1.851
74 CP2 161 2.340
74 CP2 162 1.363
74 CP2 163 0.387
74 CP2 164 -1.078
74 CP2 165 -2.055
74 CP2 166 -1.567
74 CP2 167 -0.590
74 CP2 168 0.387
74 CP2 169 1.363
74 CP2 170 1.363
74 CP2 171 1.363
74 CP2 172 0.875
74 CP2 173 0.875
74 CP2 174 0.875
74 CP2 175 0.875
74 CP2 176 0.387
74 CP2 177 -0.102
74 CP2 178 -0.102
74 CP2 179 -0.102
74 CP2 180 -0.102
74 CP2 181 -0.102
74 CP2 182 -0.102
74 CP2 183 -0.590
74 CP2 184 -0.102
74 CP2 185 0.387
74 CP2 186 0.387
74 CP2 187 0.387
74 CP2 188 0.387
74 CP2 189 -0.590
74 CP2 190 -1.078
74 CP2 191 -1.567
74 CP2 192 -1.567
74 CP2 193 -0.590
74 CP2 194 0.387
74 CP2 195 1.363
74 CP2 196 2.340
74 CP2 197 2.340
74 CP2 198 2.340
74 CP2 199 1.851
74 CP2 200 1.363
74 CP2 201 1.363
74 CP2 202 1.363
74 CP2 203 1.363
74 CP2 204 1.363
74 CP2 205 1.363
74 CP2 206 0.875
74 CP2 207 0.387
74 CP2 208 -0.102
74 CP2 209 -0.102
74 CP2 210 0.387
74 CP2 211 1.363
74 CP2 212 1.363
74 CP2 213 1.363
74 CP2 214 0.387
74 CP2 215 -0.102
74 CP2 216 -0.102
74 CP2 217 -0.102
74 CP2 218 0.387
74 CP2 219 1.851
74 CP2 220 2.828
74 CP2 221 3.805
74 CP2 222 4.293
74 CP2 223 4.293
74 CP2 224 3.805
74 CP2 225 2.828
74 CP2 226 1.363
74 CP2 227 -0.102
74 CP2 228 -1.078
74 CP2 229 -1.078
74 CP2 230 -1.567
74 CP2 231 -1.567
74 CP2 232 -1.078
74 CP2 233 -0.590
74 CP2 234 -0.102
74 CP2 235 1.363
74 CP2 236 3.316
74 CP2 237 4.293
74 CP2 238 3.805
74 CP2 239 2.828
74 CP2 240 0.875
74 CP2 241 0.387
74 CP2 242 0.875
74 CP2 243 1.851
74 CP2 244 3.316
74 CP2 245 3.316
74 CP2 246 2.340
74 CP2 247 0.387
74 CP2 248 -0.590
74 CP2 249 -1.078
74 CP2 250 -0.590
74 CP2 251 0.387
74 CP2 252 1.363
74 CP2 253 1.851
74 CP2 254 2.340
74 CP2 255 1.851
# P3 chan 22
74 P3 0 -3.021
74 P3 1 -0.580
74 P3 2 2.350
74 P3 3 4.303
74 P3 4 5.280
74 P3 5 5.280
74 P3 6 4.303
74 P3 7 3.326
74 P3 8 2.838
74 P3 9 2.350
74 P3 10 1.373
74 P3 11 0.397
74 P3 12 -0.580
74 P3 13 -1.068
74 P3 14 -1.556
74 P3 15 -1.556
74 P3 16 -2.533
74 P3 17 -3.998
74 P3 18 -3.998
74 P3 19 -2.533
74 P3 20 0.397
74 P3 21 3.815
74 P3 22 6.256
74 P3 23 6.744
74 P3 24 5.280
74 P3 25 2.838
74 P3 26 -0.580
74 P3 27 -3.021
74 P3 28 -3.998
74 P3 29 -2.533
74 P3 30 0.397
74 P3 31 3.326
74 P3 32 4.791
74 P3 33 4.303
74 P3 34 2.350
74 P3 35 -0.092
74 P3 36 -1.556
74 P3 37 -2.045
74 P3 38 -2.045
74 P3 39 -2.045
74 P3 40 -1.556
74 P3 41 -0.580
74 P3 42 0.397
74 P3 43 1.373
74 P3 44 1.373
74 P3 45 0.397
74 P3 46 -1.068
74 P3 47 -2.045
74 P3 48 -1.556
74 P3 49 0.397
74 P3 50 3.326
74 P3 51 5.768
74 P3 52 7.721
74 P3 53 7.721
74 P3 54 6.744
74 P3 55 4.791
74 P3 56 2.350
74 P3 57 0.885
74 P3 58 -0.580
74 P3 59 -0.092
74 P3 60 0.885
74 P3 61 1.373
74 P3 62 0.885
74 P3 63 -0.580
74 P3 64 -1.556
74 P3 65 -1.068
74 P3 66 0.885
74 P3 67 3.815
74 P3 68 6.256
74 P3 69 7.721
74 P3 70 7.233
74 P3 71 6.256
74 P3 72 5.768
74 P3 73 6.744
74 P3 74 8.698
74 P3 75 10.162
74 P3 76 10.162
74 P3 77 8.698
74 P3 78 6.256
74 P3 79 4.303
74 P3 80 3.815
74 P3 81 4.303
74 P3 82 5.280
74 P3 83 6.256
74 P3 84 6.256
74 P3 85 4.303
74 P3 86 2.838
74 P3 87 2.350
74 P3 88 3.326
74 P3 89 5.280
74 P3 90 8.209
74 P3 91 9.674
74 P3 92 10.651
74 P3 93 10.162
74 P3 94 9.674
74 P3 95 8.209
74 P3 96 6.744
74 P3 97 4.303
74 P3 98 1.373
74 P3 99 -1.068
74 P3 100 -3.021
74 P3 101 -3.998
74 P3 102 -3.510
74 P3 103 -3.510
74 P3 104 -4.486
74 P3 105 -5.951
74 P3 106 -7.416
74 P3 107 -8.392
74 P3 108 -7.416
74 P3 109 -6.439
74 P3 110 -4.974
74 P3 111 -3.998
74 P3 112 -3.021
74 P3 113 -0.580
74 P3 114 2.350
74 P3 115 4.791
74 P3 116 6.256
74 P3 117 5.768
74 P3 118 4.791
74 P3 119 3.815
74 P3 120 3.815
74 P3 121 4.303
74 P3 122 5.768
74 P3 123 7.233
74 P3 124 8.698
74 P3 125 9.674
74 P3 126 9.674
74 P3 127 9.186
74 P3 128 7.233
74 P3 129 5.280
74 P3 130 2.350
74 P3 131 -0.092
74 P3 132 -3.021
74 P3 133 -5.463
74 P3 134 -5.951
74 P3 135 -4.486
74 P3 136 -1.556
74 P3 137 0.885
74 P3 138 2.350
74 P3 139 1.373
74 P3 140 -1.068
74 P3 141 -2.533
74 P3 142 -2.533
74 P3 143 -0.580
74 P3 144 1.373
74 P3 145 2.838
74 P3 146 2.838
74 P3 147 1.862
74 P3 148 1.373
74 P3 149 1.373
74 P3 150 1.373
74 P3 151 0.885
74 P3 152 -0.092
74 P3 153 -1.556
74 P3 154 -2.533
74 P3 155 -2.533
74 P3 156 -1.556
74 P3 157 0.885
74 P3 158 2.350
74 P3 159 3.815
74 P3 160 5.280
74 P3 161 7.233
74 P3 162 8.209
74 P3 163 8.698
74 P3 164 8.209
74 P3 165 7.233
74 P3 166 6.256
74 P3 167 5.280
74 P3 168 4.791
74 P3 169 4.791
74 P3 170 5.280
74 P3 171 6.744
74 P3 172 7.721
74 P3 173 8.698
74 P3 174 8.209
74 P3 175 6.256
74 P3 176 3.326
74 P3 177 1.373
74 P3 178 0.885
74 P3 179 1.862
74 P3 180 3.326
74 P3 181 3.815
74 P3 182 2.838
74 P3 183 1.862
74 P3 184 1.373
74 P3 185 2.838
74 P3 186 4.791
74 P3 187 6.256
74 P3 188 6.256
74 P3 189 4.791
74 P3 190 2.838
74 P3 191 0.397
74 P3 192 -0.580
74 P3 193 -0.092
74 P3 194 0.397
74 P3 195 1.862
74 P3 196 2.838
74 P3 197 3.326
74 P3 198 3.326
74 P3 199 2.838
74 P3 200 3.326
74 P3 201 4.303
74 P3 202 5.768
74 P3 203 7.233
74 P3 204 6.744
74 P3 205 4.791
74 P3 206 1.373
74 P3 207 -1.068
74 P3 208 -1.068
74 P3 209 0.885
74 P3 210 3.815
74 P3 211 4.791
74 P3 212 4.303
74 P3 213 0.885
74 P3 214 -2.045
74 P3 215 -3.510
74 P3 216 -3.021
74 P3 217 -2.533
74 P3 218 -1.556
74 P3 219 -1.556
74 P3 220 -1.068
74 P3 221 -0.580
74 P3 222 0.397
74 P3 223 0.885
74 P3 224 1.373
74 P3 225 0.885
74 P3 226 0.397
74 P3 227 -0.092
74 P3 228 -0.580
74 P3 229 -1.556
74 P3 230 -2.533
74 P3 231 -3.021
74 P3 232 -2.045
74 P3 233 -0.580
74 P3 234 1.862
74 P3 235 2.838
74 P3 236 2.838
74 P3 237 2.350
74 P3 238 1.862
74 P3 239 1.862
74 P3 240 2.838
74 P3 241 3.815
74 P3 242 3.815
74 P3 243 2.838
74 P3 244 0.397
74 P3 245 -1.556
74 P3 246 -3.021
74 P3 247 -2.533
74 P3 248 -0.580
74 P3 249 1.862
74 P3 250 2.838
74 P3 251 2.350
74 P3 252 0.397
74 P3 253 -1.068
74 P3 254 -0.580
74 P3 255 0.885
# P4 chan 23
74 P4 0 3.886
74 P4 1 2.421
74 P4 2 0.468
74 P4 3 -0.997
74 P4 4 -1.973
74 P4 5 -2.462
74 P4 6 -2.462
74 P4 7 -2.950
74 P4 8 -4.415
74 P4 9 -4.903
74 P4 10 -4.903
74 P4 11 -3.438
74 P4 12 -1.485
74 P4 13 -0.020
74 P4 14 1.444
74 P4 15 1.933
74 P4 16 1.444
74 P4 17 0.956
74 P4 18 0.956
74 P4 19 0.956
74 P4 20 2.421
74 P4 21 3.886
74 P4 22 5.351
74 P4 23 4.862
74 P4 24 2.421
74 P4 25 -0.997
74 P4 26 -4.415
74 P4 27 -5.880
74 P4 28 -4.903
74 P4 29 -2.462
74 P4 30 0.468
74 P4 31 2.909
74 P4 32 3.886
74 P4 33 3.886
74 P4 34 3.398
74 P4 35 1.444
74 P4 36 -0.997
74 P4 37 -2.950
74 P4 38 -4.903
74 P4 39 -4.415
74 P4 40 -2.950
74 P4 41 -0.509
74 P4 42 1.444
74 P4 43 1.933
74 P4 44 0.468
74 P4 45 -1.485
74 P4 46 -4.415
74 P4 47 -5.880
74 P4 48 -6.368
74 P4 49 -5.391
74 P4 50 -2.950
74 P4 51 -0.509
74 P4 52 2.421
74 P4 53 3.886
74 P4 54 3.886
74 P4 55 2.421
74 P4 56 0.468
74 P4 57 -1.973
74 P4 58 -3.438
74 P4 59 -3.927
74 P4 60 -3.927
74 P4 61 -3.438
74 P4 62 -2.462
74 P4 63 -1.485
74 P4 64 -0.020
74 P4 65 0.956
74 P4 66 1.444
74 P4 67 1.444
74 P4 68 0.956
74 P4 69 0.956
74 P4 70 0.956
74 P4 71 1.933
74 P4 72 2.909
74 P4 73 3.886
74 P4 74 3.886
74 P4 75 3.398
74 P4 76 2.421
74 P4 77 0.468
74 P4 78 -0.997
74 P4 79 -1.485
74 P4 80 -0.997
74 P4 81 0.468
74 P4 82 2.909
74 P4 83 4.862
74 P4 84 6.327
74 P4 85 6.816
74 P4 86 5.839
74 P4 87 4.862
74 P4 88 3.398
74 P4 89 1.933
74 P4 90 1.444
74 P4 91 2.421
74 P4 92 3.398
74 P4 93 4.862
74 P4 94 4.862
74 P4 95 3.886
74 P4 96 2.909
74 P4 97 1.444
74 P4 98 -0.020
74 P4 99 -0.997
74 P4 100 -0.997
74 P4 101 -0.020
74 P4 102 0.956
74 P4 103 1.933
74 P4 104 1.444
74 P4 105 -0.509
74 P4 106 -1.973
74 P4 107 -2.950
74 P4 108 -3.438
74 P4 109 -3.438
74 P4 110 -4.415
74 P4 111 -6.856
74 P4 112 -8.321
74 P4 113 -7.833
74 P4 114 -4.903
74 P4 115 -1.485
74 P4 116 0.956
74 P4 117 0.468
74 P4 118 -0.997
74 P4 119 -1.973
74 P4 120 -1.485
74 P4 121 -0.020
74 P4 122 1.933
74 P4 123 2.421
74 P4 124 1.444
74 P4 125 0.468
74 P4 126 0.956
74 P4 127 1.444
74 P4 128 2.421
74 P4 129 2.421
74 P4 130 1.444
74 P4 131 -0.997
74 P4 132 -2.950
74 P4 133 -3.927
74 P4 134 -3.438
74 P4 135 -1.973
74 P4 136 -0.020
74 P4 137 0.956
74 P4 138 1.444
74 P4 139 0.956
74 P4 140 -0.509
74 P4 141 -1.485
74 P4 142 -2.462
74 P4 143 -2.950
74 P4 144 -2.462
74 P4 145 -1.485
74 P4 146 -0.509
74 P4 147 -0.020
74 P4 148 -0.020
74 P4 149 -0.997
74 P4 150 -2.950
74 P4 151 -4.415
74 P4 152 -4.415
74 P4 153 -3.927
74 P4 154 -2.950
74 P4 155 -2.462
74 P4 156 -1.973
74 P4 157 -1.485
74 P4 158 -0.020
74 P4 159 1.933
74 P4 160 3.398
74 P4 161 3.886
74 P4 162 3.398
74 P4 163 0.956
74 P4 164 -0.509
74 P4 165 -0.997
74 P4 166 -0.509
74 P4 167 0.956
74 P4 168 1.933
74 P4 169 1.933
74 P4 170 1.933
74 P4 171 1.933
74 P4 172 2.421
74 P4 173 2.421
74 P4 174 1.444
74 P4 175 0.468
74 P4 176 -0.509
74 P4 177 -0.997
74 P4 178 -0.509
74 P4 179 0.468
74 P4 180 0.468
74 P4 181 -0.020
74 P4 182 -0.997
74 P4 183 -1.973
74 P4 184 -1.973
74 P4 185 -0.997
74 P4 186 -0.020
74 P4 187 0.468
74 P4 188 -0.020
74 P4 189 -1.485
74 P4 190 -2.950
74 P4 191 -3.438
74 P4 192 -3.438
74 P4 193 -2.462
74 P4 194 -0.997
74 P4 195 0.468
74 P4 196 1.933
74 P4 197 2.909
74 P4 198 3.398
74 P4 199 2.909
74 P4 200 2.421
74 P4 201 1.933
74 P4 202 1.444
74 P4 203 1.933
74 P4 204 2.421
74 P4 205 1.933
74 P4 206 0.956
74 P4 207 -0.509
74 P4 208 -1.973
74 P4 209 -1.973
74 P4 210 -0.997
74 P4 211 0.468
74 P4 212 0.956
74 P4 213 0.956
74 P4 214 -0.020
74 P4 215 -0.997
74 P4 216 -0.997
74 P4 217 -0.509
74 P4 218 0.468
74 P4 219 1.444
74 P4 220 2.421
74 P4 221 2.909
74 P4 222 3.886
74 P4 223 4.862
74 P4 224 4.862
74 P4 225 3.398
74 P4 226 0.468
74 P4 227 -2.462
74 P4 228 -4.415
74 P4 229 -5.391
74 P4 230 -4.903
74 P4 231 -4.415
74 P4 232 -3.927
74 P4 233 -3.438
74 P4 234 -1.973
74 P4 235 -0.509
74 P4 236 1.933
74 P4 237 3.398
74 P4 238 2.909
74 P4 239 1.444
74 P4 240 -0.997
74 P4 241 -1.485
74 P4 242 -0.020
74 P4 243 2.421
74 P4 244 4.374
74 P4 245 4.374
74 P4 246 1.933
74 P4 247 -1.485
74 P4 248 -3.927
74 P4 249 -4.415
74 P4 250 -3.438
74 P4 251 -0.997
74 P4 252 0.468
74 P4 253 0.956
74 P4 254 0.468
74 P4 255 -0.509
# PZ chan 24
74 PZ 0 1.068
74 PZ 1 0.580
74 PZ 2 1.068
74 PZ 3 2.045
74 PZ 4 3.021
74 PZ 5 3.510
74 PZ 6 3.021
74 PZ 7 2.045
74 PZ 8 0.580
74 PZ 9 -0.397
74 PZ 10 -0.885
74 PZ 11 -0.397
74 PZ 12 1.068
74 PZ 13 3.021
74 PZ 14 4.486
74 PZ 15 5.951
74 PZ 16 5.463
74 PZ 17 4.486
74 PZ 18 3.021
74 PZ 19 3.021
74 PZ 20 3.998
74 PZ 21 5.951
74 PZ 22 7.416
74 PZ 23 7.904
74 PZ 24 5.951
74 PZ 25 2.533
74 PZ 26 -0.397
74 PZ 27 -2.350
74 PZ 28 -2.838
74 PZ 29 -0.885
74 PZ 30 1.068
74 PZ 31 3.510
74 PZ 32 4.974
74 PZ 33 4.974
74 PZ 34 3.998
74 PZ 35 2.533
74 PZ 36 1.068
74 PZ 37 0.092
74 PZ 38 -0.885
74 PZ 39 -1.373
74 PZ 40 -0.885
74 PZ 41 0.092
74 PZ 42 1.068
74 PZ 43 1.556
74 PZ 44 1.068
74 PZ 45 -0.397
74 PZ 46 -2.350
74 PZ 47 -3.815
74 PZ 48 -3.815
74 PZ 49 -2.350
74 PZ 50 0.580
74 PZ 51 3.510
74 PZ 52 6.439
74 PZ 53 7.416
74 PZ 54 6.927
74 PZ 55 4.974
74 PZ 56 3.021
74 PZ 57 1.556
74 PZ 58 0.580
74 PZ 59 0.092
74 PZ 60 0.580
74 PZ 61 1.068
74 PZ 62 2.045
74 PZ 63 2.533
74 PZ 64 3.021
74 PZ 65 3.510
74 PZ 66 3.998
74 PZ 67 3.998
74 PZ 68 4.486
74 PZ 69 4.974
74 PZ 70 4.486
74 PZ 71 3.998
74 PZ 72 3.998
74 PZ 73 4.486
74 PZ 74 6.439
74 PZ 75 6.927
74 PZ 76 6.927
74 PZ 77 5.951
74 PZ 78 3.998
74 PZ 79 2.045
74 PZ 80 2.045
74 PZ 81 3.510
74 PZ 82 5.463
74 PZ 83 7.416
74 PZ 84 7.416
74 PZ 85 6.927
74 PZ 86 5.951
74 PZ 87 5.951
74 PZ 88 5.951
74 PZ 89 6.439
74 PZ 90 7.416
74 PZ 91 7.904
74 PZ 92 8.881
74 PZ 93 8.392
74 PZ 94 8.392
74 PZ 95 7.416
74 PZ 96 6.439
74 PZ 97 4.974
74 PZ 98 3.998
74 PZ 99 3.021
74 PZ 100 3.021
74 PZ 101 3.510
74 PZ 102 3.510
74 PZ 103 3.510
74 PZ 104 2.533
74 PZ 105 1.556
74 PZ 106 0.580
74 PZ 107 0.092
74 PZ 108 0.092
74 PZ 109 0.092
74 PZ 110 -0.397
74 PZ 111 -1.373
74 PZ 112 -1.862
74 PZ 113 -0.885
74 PZ 114 1.068
74 PZ 115 3.021
74 PZ 116 4.486
74 PZ 117 4.486
74 PZ 118 3.021
74 PZ 119 2.045
74 PZ 120 2.533
74 PZ 121 3.510
74 PZ 122 4.974
74 PZ 123 5.951
74 PZ 124 5.951
74 PZ 125 5.951
74 PZ 126 5.951
74 PZ 127 6.439
74 PZ 128 6.927
74 PZ 129 6.439
74 PZ 130 4.974
74 PZ 131 3.021
74 PZ 132 1.068
74 PZ 133 0.092
74 PZ 134 1.068
74 PZ 135 2.533
74 PZ 136 4.974
74 PZ 137 6.927
74 PZ 138 7.416
74 PZ 139 6.439
74 PZ 140 4.486
74 PZ 141 3.510
74 PZ 142 3.021
74 PZ 143 3.510
74 PZ 144 4.486
74 PZ 145 4.974
74 PZ 146 5.463
74 PZ 147 4.974
74 PZ 148 4.486
74 PZ 149 3.998
74 PZ 150 3.021
74 PZ 151 2.533
74 PZ 152 2.045
74 PZ 153 1.068
74 PZ 154 1.556
74 PZ 155 1.556
74 PZ 156 2.045
74 PZ 157 3.021
74 PZ 158 3.998
74 PZ 159 4.974
74 PZ 160 5.951
74 PZ 161 6.927
74 PZ 162 7.416
74 PZ 163 7.416
74 PZ 164 6.439
74 PZ 165 5.951
74 PZ 166 5.463
74 PZ 167 5.463
74 PZ 168 5.951
74 PZ 169 5.951
74 PZ 170 6.439
74 PZ 171 6.927
74 PZ 172 6.927
74 PZ 173 7.416
74 PZ 174 6.927
74 PZ 175 6.439
74 PZ 176 4.974
74 PZ 177 4.486
74 PZ 178 4.486
74 PZ 179 4.974
74 PZ 180 5.463
74 PZ 181 4.974
74 PZ 182 4.486
74 PZ 183 3.510
74 PZ 184 3.021
74 PZ 185 3.998
74 PZ 186 4.486
74 PZ 187 4.974
74 PZ 188 4.486
74 PZ 189 3.021
74 PZ 190 1.556
74 PZ 191 0.092
74 PZ 192 0.092
74 PZ 193 1.068
74 PZ 194 2.533
74 PZ 195 3.998
74 PZ 196 4.974
74 PZ 197 5.463
74 PZ 198 5.951
74 PZ 199 5.951
74 PZ 200 5.951
74 PZ 201 5.951
74 PZ 202 5.951
74 PZ 203 5.951
74 PZ 204 5.951
74 PZ 205 5.463
74 PZ 206 3.998
74 PZ 207 2.533
74 PZ 208 1.556
74 PZ 209 1.556
74 PZ 210 2.533
74 PZ 211 3.998
74 PZ 212 4.486
74 PZ 213 3.998
74 PZ 214 2.045
74 PZ 215 0.580
74 PZ 216 0.580
74 PZ 217 1.556
74 PZ 218 3.021
74 PZ 219 4.974
74 PZ 220 5.951
74 PZ 221 5.951
74 PZ 222 5.951
74 PZ 223 5.951
74 PZ 224 5.463
74 PZ 225 4.486
74 PZ 226 3.021
74 PZ 227 1.068
74 PZ 228 0.092
74 PZ 229 -0.397
74 PZ 230 -0.397
74 PZ 231 0.092
74 PZ 232 0.580
74 PZ 233 2.045
74 PZ 234 3.021
74 PZ 235 4.974
74 PZ 236 6.927
74 PZ 237 7.416
74 PZ 238 6.439
74 PZ 239 3.998
74 PZ 240 2.533
74 PZ 241 2.045
74 PZ 242 2.533
74 PZ 243 3.998
74 PZ 244 3.998
74 PZ 245 3.021
74 PZ 246 2.045
74 PZ 247 0.580
74 PZ 248 0.092
74 PZ 249 1.068
74 PZ 250 2.045
74 PZ 251 2.533
74 PZ 252 2.045
74 PZ 253 1.556
74 PZ 254 0.580
74 PZ 255 0.092
# P8 chan 25
74 P8 0 6.104
74 P8 1 5.615
74 P8 2 3.174
74 P8 3 -0.732
74 P8 4 -3.662
74 P8 5 -5.615
74 P8 6 -6.592
74 P8 7 -8.057
74 P8 8 -10.010
74 P8 9 -11.475
74 P8 10 -10.986
74 P8 11 -9.033
74 P8 12 -5.127
74 P8 13 -2.686
74 P8 14 -1.221
74 P8 15 -1.221
74 P8 16 -2.197
74 P8 17 -2.686
74 P8 18 -3.174
74 P8 19 -2.686
74 P8 20 -1.709
74 P8 21 -0.732
74 P8 22 0.244
74 P8 23 -0.244
74 P8 24 -2.686
74 P8 25 -7.080
74 P8 26 -11.963
74 P8 27 -15.381
74 P8 28 -15.381
74 P8 29 -10.986
74 P8 30 -4.639
74 P8 31 0.244
74 P8 32 2.686
74 P8 33 2.686
74 P8 34 0.244
74 P8 35 -3.174
74 P8 36 -6.592
74 P8 37 -10.498
74 P8 38 -12.939
74 P8 39 -13.916
74 P8 40 -11.963
74 P8 41 -8.545
74 P8 42 -5.615
74 P8 43 -4.150
74 P8 44 -5.127
74 P8 45 -8.057
74 P8 46 -11.475
74 P8 47 -13.916
74 P8 48 -14.893
74 P8 49 -14.404
74 P8 50 -12.939
74 P8 51 -10.010
74 P8 52 -6.592
74 P8 53 -3.662
74 P8 54 -1.709
74 P8 55 -2.197
74 P8 56 -5.127
74 P8 57 -8.545
74 P8 58 -10.986
74 P8 59 -12.451
74 P8 60 -13.428
74 P8 61 -13.916
74 P8 62 -14.404
74 P8 63 -14.404
74 P8 64 -12.939
74 P8 65 -10.010
74 P8 66 -6.592
74 P8 67 -4.639
74 P8 68 -4.639
74 P8 69 -5.615
74 P8 70 -6.592
74 P8 71 -5.615
74 P8 72 -2.686
74 P8 73 0.732
74 P8 74 2.686
74 P8 75 1.709
74 P8 76 -2.197
74 P8 77 -6.592
74 P8 78 -9.033
74 P8 79 -8.545
74 P8 80 -7.080
74 P8 81 -4.639
74 P8 82 -3.662
74 P8 83 -1.709
74 P8 84 0.732
74 P8 85 3.662
74 P8 86 6.104
74 P8 87 6.104
74 P8 88 4.150
74 P8 89 0.244
74 P8 90 -2.197
74 P8 91 -1.709
74 P8 92 1.221
74 P8 93 4.150
74 P8 94 4.639
74 P8 95 2.686
74 P8 96 -0.732
74 P8 97 -3.662
74 P8 98 -4.639
74 P8 99 -4.150
74 P8 100 -3.174
74 P8 101 -2.686
74 P8 102 -2.686
74 P8 103 -4.150
74 P8 104 -6.104
74 P8 105 -9.033
74 P8 106 -11.475
74 P8 107 -13.428
74 P8 108 -14.404
74 P8 109 -15.869
74 P8 110 -19.287
74 P8 111 -23.193
74 P8 112 -27.588
74 P8 113 -29.053
74 P8 114 -25.635
74 P8 115 -20.264
74 P8 116 -14.893
74 P8 117 -13.428
74 P8 118 -15.381
74 P8 119 -18.311
74 P8 120 -20.264
74 P8 121 -19.775
74 P8 122 -17.822
74 P8 123 -16.846
74 P8 124 -16.846
74 P8 125 -16.357
74 P8 126 -14.404
74 P8 127 -11.475
74 P8 128 -9.033
74 P8 129 -9.521
74 P8 130 -12.451
74 P8 131 -16.846
74 P8 132 -21.240
74 P8 133 -22.705
74 P8 134 -21.729
74 P8 135 -19.775
74 P8 136 -17.822
74 P8 137 -17.334
74 P8 138 -17.334
74 P8 139 -17.334
74 P8 140 -17.334
74 P8 141 -16.357
74 P8 142 -16.357
74 P8 143 -17.334
74 P8 144 -18.311
74 P8 145 -18.311
74 P8 146 -16.846
74 P8 147 -14.893
74 P8 148 -12.939
74 P8 149 -12.939
74 P8 150 -14.404
74 P8 151 -16.357
74 P8 152 -17.822
74 P8 153 -17.822
74 P8 154 -17.334
74 P8 155 -16.846
74 P8 156 -17.334
74 P8 157 -17.334
74 P8 158 -15.381
74 P8 159 -11.963
74 P8 160 -8.057
74 P8 161 -5.615
74 P8 162 -5.615
74 P8 163 -7.568
74 P8 164 -10.986
74 P8 165 -12.939
74 P8 166 -13.428
74 P8 167 -13.428
74 P8 168 -12.939
74 P8 169 -12.939
74 P8 170 -13.428
74 P8 171 -13.428
74 P8 172 -13.428
74 P8 173 -13.916
74 P8 174 -15.869
74 P8 175 -17.822
74 P8 176 -18.799
74 P8 177 -18.311
74 P8 178 -15.869
74 P8 179 -12.939
74 P8 180 -11.963
74 P8 181 -12.939
74 P8 182 -15.381
74 P8 183 -18.311
74 P8 184 -19.287
74 P8 185 -18.799
74 P8 186 -17.334
74 P8 187 -15.381
74 P8 188 -14.404
74 P8 189 -14.404
74 P8 190 -14.404
74 P8 191 -14.893
74 P8 192 -14.404
74 P8 193 -12.939
74 P8 194 -10.986
74 P8 195 -8.545
74 P8 196 -7.080
74 P8 197 -6.592
74 P8 198 -7.080
74 P8 199 -8.057
74 P8 200 -9.521
74 P8 201 -9.521
74 P8 202 -9.521
74 P8 203 -9.521
74 P8 204 -9.521
74 P8 205 -10.986
74 P8 206 -12.451
74 P8 207 -14.404
74 P8 208 -15.869
74 P8 209 -16.357
74 P8 210 -15.381
74 P8 211 -13.428
74 P8 212 -11.963
74 P8 213 -10.986
74 P8 214 -11.475
74 P8 215 -12.451
74 P8 216 -12.939
74 P8 217 -12.939
74 P8 218 -11.963
74 P8 219 -10.986
74 P8 220 -10.498
74 P8 221 -9.033
74 P8 222 -7.568
74 P8 223 -5.615
74 P8 224 -4.639
74 P8 225 -5.615
74 P8 226 -9.521
74 P8 227 -14.404
74 P8 228 -18.799
74 P8 229 -21.240
74 P8 230 -20.752
74 P8 231 -19.287
74 P8 232 -17.334
74 P8 233 -16.357
74 P8 234 -15.869
74 P8 235 -13.916
74 P8 236 -11.475
74 P8 237 -8.545
74 P8 238 -7.080
74 P8 239 -8.057
74 P8 240 -10.986
74 P8 241 -13.428
74 P8 242 -13.428
74 P8 243 -10.498
74 P8 244 -5.615
74 P8 245 -3.174
74 P8 246 -4.639
74 P8 247 -10.010
74 P8 248 -15.869
74 P8 249 -19.287
74 P8 250 -18.799
74 P8 251 -15.381
74 P8 252 -11.475
74 P8 253 -10.010
74 P8 254 -10.986
74 P8 255 -13.428
# P7 chan 26
74 P7 0 -1.841
74 P7 1 2.065
74 P7 2 5.971
74 P7 3 7.924
74 P7 4 7.924
74 P7 5 5.971
74 P7 6 4.506
74 P7 7 4.506
74 P7 8 5.971
74 P7 9 7.436
74 P7 10 6.948
74 P7 11 4.995
74 P7 12 3.530
74 P7 13 2.553
74 P7 14 3.042
74 P7 15 3.530
74 P7 16 2.553
74 P7 17 0.600
74 P7 18 -1.353
74 P7 19 -1.353
74 P7 20 0.600
74 P7 21 4.018
74 P7 22 7.436
74 P7 23 8.901
74 P7 24 8.413
74 P7 25 5.971
74 P7 26 2.065
74 P7 27 -0.865
74 P7 28 -2.330
74 P7 29 -0.376
74 P7 30 4.018
74 P7 31 8.901
74 P7 32 11.342
74 P7 33 9.878
74 P7 34 5.971
74 P7 35 1.088
74 P7 36 -2.330
74 P7 37 -3.794
74 P7 38 -4.771
74 P7 39 -5.259
74 P7 40 -5.259
74 P7 41 -4.771
74 P7 42 -2.330
74 P7 43 0.600
74 P7 44 2.553
74 P7 45 3.042
74 P7 46 1.577
74 P7 47 0.112
74 P7 48 0.112
74 P7 49 1.577
74 P7 50 4.018
74 P7 51 6.460
74 P7 52 7.924
74 P7 53 8.413
74 P7 54 8.413
74 P7 55 8.413
74 P7 56 7.436
74 P7 57 5.971
74 P7 58 4.506
74 P7 59 3.530
74 P7 60 4.018
74 P7 61 4.995
74 P7 62 5.483
74 P7 63 4.995
74 P7 64 4.018
74 P7 65 4.018
74 P7 66 4.506
74 P7 67 6.460
74 P7 68 8.413
74 P7 69 9.389
74 P7 70 8.901
74 P7 71 8.413
74 P7 72 9.878
74 P7 73 12.807
74 P7 74 16.713
74 P7 75 18.667
74 P7 76 17.202
74 P7 77 13.784
74 P7 78 9.878
74 P7 79 7.924
74 P7 80 7.436
74 P7 81 8.413
74 P7 82 8.901
74 P7 83 8.413
74 P7 84 7.436
74 P7 85 6.460
74 P7 86 6.948
74 P7 87 7.924
74 P7 88 9.878
74 P7 89 10.854
74 P7 90 11.342
74 P7 91 11.831
74 P7 92 12.807
74 P7 93 13.784
74 P7 94 13.784
74 P7 95 13.295
74 P7 96 12.319
74 P7 97 11.342
74 P7 98 9.878
74 P7 99 8.413
74 P7 100 6.948
74 P7 101 4.506
74 P7 102 2.065
74 P7 103 0.112
74 P7 104 -2.330
74 P7 105 -5.259
74 P7 106 -8.189
74 P7 107 -10.630
74 P7 108 -11.607
74 P7 109 -10.630
74 P7 110 -8.189
74 P7 111 -5.259
74 P7 112 -3.794
74 P7 113 -2.330
74 P7 114 -1.353
74 P7 115 0.600
74 P7 116 3.042
74 P7 117 5.971
74 P7 118 7.924
74 P7 119 7.436
74 P7 120 5.483
74 P7 121 4.018
74 P7 122 3.530
74 P7 123 4.995
74 P7 124 7.436
74 P7 125 9.389
74 P7 126 9.389
74 P7 127 7.924
74 P7 128 5.483
74 P7 129 3.530
74 P7 130 1.088
74 P7 131 -1.353
74 P7 132 -4.771
74 P7 133 -7.701
74 P7 134 -9.165
74 P7 135 -6.724
74 P7 136 -1.841
74 P7 137 3.042
74 P7 138 4.995
74 P7 139 4.018
74 P7 140 1.577
74 P7 141 -0.376
74 P7 142 0.112
74 P7 143 3.530
74 P7 144 6.460
74 P7 145 7.436
74 P7 146 5.971
74 P7 147 3.530
74 P7 148 1.088
74 P7 149 -0.376
74 P7 150 -0.865
74 P7 151 -1.353
74 P7 152 -2.330
74 P7 153 -3.794
74 P7 154 -4.283
74 P7 155 -5.259
74 P7 156 -4.771
74 P7 157 -3.794
74 P7 158 -2.330
74 P7 159 0.112
74 P7 160 2.553
74 P7 161 4.995
74 P7 162 6.948
74 P7 163 8.413
74 P7 164 9.389
74 P7 165 8.901
74 P7 166 7.924
74 P7 167 6.460
74 P7 168 4.506
74 P7 169 3.530
74 P7 170 3.042
74 P7 171 4.018
74 P7 172 5.971
74 P7 173 6.460
74 P7 174 5.971
74 P7 175 4.018
74 P7 176 2.065
74 P7 177 1.577
74 P7 178 3.042
74 P7 179 5.971
74 P7 180 7.924
74 P7 181 8.901
74 P7 182 7.436
74 P7 183 4.995
74 P7 184 4.506
74 P7 185 5.971
74 P7 186 8.413
74 P7 187 10.366
74 P7 188 10.366
74 P7 189 7.924
74 P7 190 4.995
74 P7 191 3.042
74 P7 192 2.553
74 P7 193 3.042
74 P7 194 4.018
74 P7 195 3.530
74 P7 196 3.042
74 P7 197 2.065
74 P7 198 1.577
74 P7 199 1.577
74 P7 200 2.065
74 P7 201 3.042
74 P7 202 4.995
74 P7 203 7.924
74 P7 204 9.878
74 P7 205 9.878
74 P7 206 7.924
74 P7 207 4.995
74 P7 208 3.042
74 P7 209 4.018
74 P7 210 7.436
74 P7 211 10.366
74 P7 212 10.854
74 P7 213 8.901
74 P7 214 5.971
74 P7 215 3.530
74 P7 216 3.042
74 P7 217 3.530
74 P7 218 3.530
74 P7 219 2.553
74 P7 220 2.065
74 P7 221 3.042
74 P7 222 4.506
74 P7 223 6.948
74 P7 224 7.436
74 P7 225 7.436
74 P7 226 5.971
74 P7 227 5.483
74 P7 228 5.483
74 P7 229 5.483
74 P7 230 5.483
74 P7 231 5.483
74 P7 232 6.460
74 P7 233 8.901
74 P7 234 10.854
74 P7 235 12.319
74 P7 236 11.342
74 P7 237 8.901
74 P7 238 6.948
74 P7 239 5.971
74 P7 240 6.460
74 P7 241 7.436
74 P7 242 7.436
74 P7 243 5.483
74 P7 244 2.553
74 P7 245 0.112
74 P7 246 -0.376
74 P7 247 2.065
74 P7 248 5.971
74 P7 249 10.366
74 P7 250 12.807
74 P7 251 12.319
74 P7 252 9.389
74 P7 253 6.460
74 P7 254 4.506
74 P7 255 4.018
# PO2 chan 27
74 PO2 0 -2.238
74 PO2 1 -2.238
74 PO2 2 -2.726
74 PO2 3 -4.191
74 PO2 4 -5.168
74 PO2 5 -6.632
74 PO2 6 -8.586
74 PO2 7 -9.562
74 PO2 8 -11.027
74 PO2 9 -12.492
74 PO2 10 -13.468
74 PO2 11 -13.468
74 PO2 12 -12.980
74 PO2 13 -11.515
74 PO2 14 -9.562
74 PO2 15 -7.609
74 PO2 16 -7.121
74 PO2 17 -7.609
74 PO2 18 -8.586
74 PO2 19 -9.074
74 PO2 20 -8.097
74 PO2 21 -6.144
74 PO2 22 -3.703
74 PO2 23 -2.726
74 PO2 24 -3.703
74 PO2 25 -6.144
74 PO2 26 -9.562
74 PO2 27 -12.004
74 PO2 28 -12.492
74 PO2 29 -11.027
74 PO2 30 -8.097
74 PO2 31 -5.168
74 PO2 32 -4.191
74 PO2 33 -5.168
74 PO2 34 -8.097
74 PO2 35 -11.027
74 PO2 36 -13.468
74 PO2 37 -14.445
74 PO2 38 -14.445
74 PO2 39 -13.957
74 PO2 40 -13.468
74 PO2 41 -12.492
74 PO2 42 -12.004
74 PO2 43 -11.515
74 PO2 44 -11.027
74 PO2 45 -11.027
74 PO2 46 -12.004
74 PO2 47 -13.468
74 PO2 48 -13.468
74 PO2 49 -11.027
74 PO2 50 -6.632
74 PO2 51 -0.773
74 PO2 52 3.133
74 PO2 53 5.086
74 PO2 54 4.110
74 PO2 55 1.180
74 PO2 56 -0.773
74 PO2 57 -2.238
74 PO2 58 -1.750
74 PO2 59 -1.750
74 PO2 60 -2.238
74 PO2 61 -3.215
74 PO2 62 -3.215
74 PO2 63 -1.750
74 PO2 64 0.692
74 PO2 65 3.621
74 PO2 66 5.086
74 PO2 67 5.575
74 PO2 68 5.575
74 PO2 69 6.063
74 PO2 70 6.551
74 PO2 71 7.528
74 PO2 72 8.504
74 PO2 73 9.481
74 PO2 74 9.481
74 PO2 75 8.993
74 PO2 76 8.016
74 PO2 77 6.063
74 PO2 78 3.621
74 PO2 79 2.645
74 PO2 80 2.645
74 PO2 81 4.598
74 PO2 82 7.528
74 PO2 83 10.457
74 PO2 84 11.922
74 PO2 85 11.922
74 PO2 86 10.946
74 PO2 87 9.969
74 PO2 88 8.993
74 PO2 89 8.504
74 PO2 90 8.993
74 PO2 91 10.457
74 PO2 92 12.899
74 PO2 93 14.852
74 PO2 94 15.828
74 PO2 95 15.828
74 PO2 96 14.364
74 PO2 97 11.922
74 PO2 98 9.969
74 PO2 99 8.504
74 PO2 100 7.528
74 PO2 101 7.039
74 PO2 102 7.039
74 PO2 103 6.063
74 PO2 104 3.621
74 PO2 105 0.692
74 PO2 106 -2.238
74 PO2 107 -2.726
74 PO2 108 -2.238
74 PO2 109 -0.773
74 PO2 110 -0.773
74 PO2 111 -2.238
74 PO2 112 -3.215
74 PO2 113 -2.238
74 PO2 114 2.157
74 PO2 115 7.528
74 PO2 116 10.946
74 PO2 117 11.922
74 PO2 118 10.457
74 PO2 119 8.993
74 PO2 120 9.969
74 PO2 121 12.410
74 PO2 122 15.340
74 PO2 123 16.805
74 PO2 124 16.805
74 PO2 125 15.828
74 PO2 126 16.317
74 PO2 127 16.805
74 PO2 128 17.293
74 PO2 129 15.828
74 PO2 130 12.899
74 PO2 131 8.993
74 PO2 132 6.551
74 PO2 133 5.575
74 PO2 134 7.039
74 PO2 135 9.969
74 PO2 136 12.899
74 PO2 137 14.852
74 PO2 138 15.340
74 PO2 139 13.875
74 PO2 140 11.922
74 PO2 141 10.457
74 PO2 142 9.481
74 PO2 143 9.481
74 PO2 144 10.457
74 PO2 145 11.922
74 PO2 146 13.387
74 PO2 147 13.875
74 PO2 148 12.899
74 PO2 149 11.434
74 PO2 150 8.504
74 PO2 151 6.063
74 PO2 152 4.598
74 PO2 153 4.110
74 PO2 154 5.086
74 PO2 155 6.551
74 PO2 156 8.504
74 PO2 157 10.946
74 PO2 158 12.899
74 PO2 159 15.340
74 PO2 160 15.828
74 PO2 161 15.828
74 PO2 162 14.364
74 PO2 163 12.899
74 PO2 164 12.410
74 PO2 165 12.899
74 PO2 166 13.387
74 PO2 167 12.899
74 PO2 168 11.434
74 PO2 169 9.969
74 PO2 170 8.993
74 PO2 171 9.481
74 PO2 172 10.946
74 PO2 173 11.434
74 PO2 174 10.457
74 PO2 175 7.039
74 PO2 176 3.133
74 PO2 177 1.668
74 PO2 178 2.157
74 PO2 179 4.598
74 PO2 180 6.551
74 PO2 181 6.551
74 PO2 182 4.598
74 PO2 183 3.133
74 PO2 184 3.621
74 PO2 185 7.039
74 PO2 186 10.946
74 PO2 187 13.387
74 PO2 188 12.410
74 PO2 189 8.993
74 PO2 190 4.598
74 PO2 191 2.157
74 PO2 192 2.645
74 PO2 193 5.086
74 PO2 194 8.993
74 PO2 195 12.410
74 PO2 196 14.852
74 PO2 197 15.340
74 PO2 198 14.852
74 PO2 199 13.387
74 PO2 200 12.410
74 PO2 201 12.410
74 PO2 202 12.899
74 PO2 203 14.852
74 PO2 204 15.828
74 PO2 205 15.340
74 PO2 206 13.387
74 PO2 207 10.946
74 PO2 208 9.481
74 PO2 209 9.969
74 PO2 210 11.434
74 PO2 211 12.899
74 PO2 212 13.387
74 PO2 213 11.434
74 PO2 214 8.993
74 PO2 215 6.551
74 PO2 216 6.063
74 PO2 217 6.551
74 PO2 218 8.016
74 PO2 219 8.993
74 PO2 220 9.481
74 PO2 221 9.481
74 PO2 222 9.969
74 PO2 223 9.969
74 PO2 224 8.993
74 PO2 225 7.039
74 PO2 226 3.133
74 PO2 227 -1.261
74 PO2 228 -4.679
74 PO2 229 -5.168
74 PO2 230 -3.703
74 PO2 231 -0.773
74 PO2 232 1.668
74 PO2 233 4.110
74 PO2 234 6.063
74 PO2 235 8.016
74 PO2 236 9.969
74 PO2 237 11.434
74 PO2 238 11.922
74 PO2 239 10.946
74 PO2 240 9.969
74 PO2 241 9.969
74 PO2 242 10.946
74 PO2 243 11.922
74 PO2 244 11.434
74 PO2 245 9.481
74 PO2 246 6.063
74 PO2 247 3.133
74 PO2 248 1.668
74 PO2 249 3.133
74 PO2 250 6.063
74 PO2 251 8.993
74 PO2 252 9.969
74 PO2 253 8.993
74 PO2 254 7.039
74 PO2 255 4.598
# PO1 chan 28
74 PO1 0 0.763
74 PO1 1 1.740
74 PO1 2 1.740
74 PO1 3 1.740
74 PO1 4 1.740
74 PO1 5 2.228
74 PO1 6 3.693
74 PO1 7 4.669
74 PO1 8 3.693
74 PO1 9 1.740
74 PO1 10 -1.190
74 PO1 11 -3.143
74 PO1 12 -2.167
74 PO1 13 0.763
74 PO1 14 5.157
74 PO1 15 7.599
74 PO1 16 7.111
74 PO1 17 4.669
74 PO1 18 2.228
