# co3a0000453.rd
# 120 trials, 64 chans, 416 samples 368 post_stim samples
# 3.906000 msecs uV
# S1 obj , trial 42
# FP1 chan 0
42 FP1 0 5.656
42 FP1 1 6.144
42 FP1 2 6.144
42 FP1 3 6.144
42 FP1 4 6.632
42 FP1 5 7.121
42 FP1 6 7.609
42 FP1 7 8.586
42 FP1 8 9.562
42 FP1 9 10.539
42 FP1 10 11.027
42 FP1 11 12.004
42 FP1 12 12.980
42 FP1 13 13.957
42 FP1 14 14.445
42 FP1 15 14.445
42 FP1 16 14.933
42 FP1 17 14.933
42 FP1 18 15.422
42 FP1 19 16.398
42 FP1 20 16.886
42 FP1 21 16.886
42 FP1 22 16.886
42 FP1 23 17.375
42 FP1 24 17.863
42 FP1 25 17.863
42 FP1 26 17.375
42 FP1 27 16.398
42 FP1 28 15.910
42 FP1 29 15.422
42 FP1 30 15.422
42 FP1 31 15.422
42 FP1 32 15.910
42 FP1 33 16.398
42 FP1 34 16.886
42 FP1 35 17.375
42 FP1 36 17.863
42 FP1 37 17.375
42 FP1 38 15.910
42 FP1 39 14.933
42 FP1 40 13.957
42 FP1 41 14.445
42 FP1 42 15.422
42 FP1 43 16.886
42 FP1 44 17.863
42 FP1 45 18.351
42 FP1 46 17.863
42 FP1 47 17.863
42 FP1 48 17.863
42 FP1 49 17.375
42 FP1 50 16.886
42 FP1 51 16.398
42 FP1 52 15.422
42 FP1 53 14.933
42 FP1 54 14.933
42 FP1 55 15.422
42 FP1 56 16.886
42 FP1 57 17.863
42 FP1 58 18.351
42 FP1 59 18.840
42 FP1 60 18.351
42 FP1 61 17.863
42 FP1 62 18.351
42 FP1 63 18.351
42 FP1 64 18.840
42 FP1 65 18.351
42 FP1 66 16.886
42 FP1 67 14.933
42 FP1 68 12.980
42 FP1 69 11.027
42 FP1 70 9.562
42 FP1 71 8.586
42 FP1 72 8.097
42 FP1 73 8.097
42 FP1 74 7.609
42 FP1 75 7.121
42 FP1 76 6.632
42 FP1 77 6.144
42 FP1 78 5.168
42 FP1 79 5.168
42 FP1 80 4.679
42 FP1 81 5.168
42 FP1 82 5.168
42 FP1 83 5.656
42 FP1 84 5.656
42 FP1 85 5.656
42 FP1 86 6.632
42 FP1 87 8.097
42 FP1 88 10.050
42 FP1 89 12.004
42 FP1 90 12.980
42 FP1 91 12.980
42 FP1 92 12.004
42 FP1 93 10.539
42 FP1 94 9.074
42 FP1 95 7.609
42 FP1 96 6.144
42 FP1 97 5.656
42 FP1 98 6.144
42 FP1 99 6.632
42 FP1 100 7.121
42 FP1 101 8.097
42 FP1 102 8.097
42 FP1 103 8.097
42 FP1 104 9.074
42 FP1 105 10.539
42 FP1 106 12.492
42 FP1 107 14.445
42 FP1 108 15.422
42 FP1 109 15.422
42 FP1 110 13.957
42 FP1 111 12.980
42 FP1 112 12.980
42 FP1 113 13.957
42 FP1 114 15.422
42 FP1 115 16.398
42 FP1 116 15.910
42 FP1 117 13.468
42 FP1 118 11.515
42 FP1 119 9.562
42 FP1 120 9.074
42 FP1 121 9.074
42 FP1 122 8.097
42 FP1 123 6.632
42 FP1 124 5.168
42 FP1 125 4.191
42 FP1 126 4.191
42 FP1 127 4.191
42 FP1 128 4.191
42 FP1 129 4.191
42 FP1 130 4.679
42 FP1 131 5.656
42 FP1 132 7.121
42 FP1 133 8.097
42 FP1 134 9.074
42 FP1 135 9.074
42 FP1 136 9.562
42 FP1 137 10.050
42 FP1 138 10.050
42 FP1 139 9.562
42 FP1 140 8.586
42 FP1 141 7.609
42 FP1 142 6.632
42 FP1 143 5.656
42 FP1 144 4.191
42 FP1 145 4.191
42 FP1 146 3.215
42 FP1 147 3.703
42 FP1 148 5.656
42 FP1 149 8.097
42 FP1 150 9.562
42 FP1 151 10.050
42 FP1 152 10.050
42 FP1 153 10.050
42 FP1 154 10.539
42 FP1 155 12.980
42 FP1 156 14.933
42 FP1 157 16.886
42 FP1 158 17.375
42 FP1 159 17.375
42 FP1 160 16.886
42 FP1 161 17.863
42 FP1 162 18.840
42 FP1 163 19.328
42 FP1 164 18.840
42 FP1 165 17.375
42 FP1 166 15.910
42 FP1 167 14.445
42 FP1 168 13.957
42 FP1 169 13.957
42 FP1 170 13.957
42 FP1 171 12.492
42 FP1 172 10.539
42 FP1 173 8.586
42 FP1 174 7.121
42 FP1 175 7.121
42 FP1 176 7.609
42 FP1 177 8.586
42 FP1 178 9.562
42 FP1 179 10.539
42 FP1 180 11.515
42 FP1 181 12.980
42 FP1 182 13.957
42 FP1 183 14.933
42 FP1 184 15.910
42 FP1 185 16.886
42 FP1 186 17.863
42 FP1 187 18.840
42 FP1 188 18.840
42 FP1 189 18.840
42 FP1 190 18.840
42 FP1 191 19.328
42 FP1 192 19.328
42 FP1 193 19.328
42 FP1 194 20.304
42 FP1 195 20.793
42 FP1 196 21.281
42 FP1 197 20.793
42 FP1 198 20.304
42 FP1 199 19.816
42 FP1 200 19.328
42 FP1 201 19.328
42 FP1 202 19.328
42 FP1 203 18.840
42 FP1 204 18.351
42 FP1 205 17.375
42 FP1 206 17.375
42 FP1 207 17.863
42 FP1 208 18.840
42 FP1 209 20.304
42 FP1 210 21.281
42 FP1 211 21.769
42 FP1 212 23.234
42 FP1 213 25.187
42 FP1 214 27.140
42 FP1 215 27.629
42 FP1 216 27.140
42 FP1 217 25.675
42 FP1 218 24.699
42 FP1 219 24.211
42 FP1 220 24.211
42 FP1 221 23.234
42 FP1 222 21.281
42 FP1 223 18.840
42 FP1 224 16.886
42 FP1 225 15.910
42 FP1 226 16.886
42 FP1 227 17.863
42 FP1 228 18.840
42 FP1 229 18.840
42 FP1 230 18.840
42 FP1 231 18.840
42 FP1 232 19.328
42 FP1 233 20.304
42 FP1 234 20.793
42 FP1 235 21.281
42 FP1 236 21.281
42 FP1 237 21.769
42 FP1 238 22.257
42 FP1 239 23.234
42 FP1 240 23.234
42 FP1 241 22.746
42 FP1 242 21.769
42 FP1 243 20.304
42 FP1 244 19.328
42 FP1 245 18.840
42 FP1 246 19.328
42 FP1 247 19.328
42 FP1 248 19.328
42 FP1 249 18.840
42 FP1 250 18.840
42 FP1 251 19.816
42 FP1 252 20.793
42 FP1 253 21.769
42 FP1 254 21.769
42 FP1 255 20.793
# FP2 chan 1
42 FP2 0 4.496
42 FP2 1 5.473
42 FP2 2 5.961
42 FP2 3 5.961
42 FP2 4 5.473
42 FP2 5 4.985
42 FP2 6 4.985
42 FP2 7 4.985
42 FP2 8 5.473
42 FP2 9 6.449
42 FP2 10 7.426
42 FP2 11 8.403
42 FP2 12 8.891
42 FP2 13 9.867
42 FP2 14 10.356
42 FP2 15 10.844
42 FP2 16 11.332
42 FP2 17 11.820
42 FP2 18 12.797
42 FP2 19 13.774
42 FP2 20 14.750
42 FP2 21 15.238
42 FP2 22 15.238
42 FP2 23 15.238
42 FP2 24 14.750
42 FP2 25 14.750
42 FP2 26 14.750
42 FP2 27 15.238
42 FP2 28 15.727
42 FP2 29 16.703
42 FP2 30 17.680
42 FP2 31 18.168
42 FP2 32 18.168
42 FP2 33 18.168
42 FP2 34 17.680
42 FP2 35 17.192
42 FP2 36 16.215
42 FP2 37 15.238
42 FP2 38 13.774
42 FP2 39 12.797
42 FP2 40 12.797
42 FP2 41 13.774
42 FP2 42 14.750
42 FP2 43 16.215
42 FP2 44 17.192
42 FP2 45 17.192
42 FP2 46 17.680
42 FP2 47 18.168
42 FP2 48 18.656
42 FP2 49 18.656
42 FP2 50 18.656
42 FP2 51 18.168
42 FP2 52 18.168
42 FP2 53 18.168
42 FP2 54 18.656
42 FP2 55 18.656
42 FP2 56 18.168
42 FP2 57 18.168
42 FP2 58 17.680
42 FP2 59 17.680
42 FP2 60 18.168
42 FP2 61 18.656
42 FP2 62 19.145
42 FP2 63 19.145
42 FP2 64 18.656
42 FP2 65 17.192
42 FP2 66 15.727
42 FP2 67 13.774
42 FP2 68 12.309
42 FP2 69 10.844
42 FP2 70 10.844
42 FP2 71 10.844
42 FP2 72 10.844
42 FP2 73 11.332
42 FP2 74 11.332
42 FP2 75 11.332
42 FP2 76 10.844
42 FP2 77 9.867
42 FP2 78 9.867
42 FP2 79 9.867
42 FP2 80 11.332
42 FP2 81 12.309
42 FP2 82 13.285
42 FP2 83 13.285
42 FP2 84 12.797
42 FP2 85 12.309
42 FP2 86 12.309
42 FP2 87 13.774
42 FP2 88 16.215
42 FP2 89 17.680
42 FP2 90 18.656
42 FP2 91 19.145
42 FP2 92 19.145
42 FP2 93 18.656
42 FP2 94 17.680
42 FP2 95 16.703
42 FP2 96 14.750
42 FP2 97 13.774
42 FP2 98 13.285
42 FP2 99 13.774
42 FP2 100 14.750
42 FP2 101 15.238
42 FP2 102 15.727
42 FP2 103 15.727
42 FP2 104 16.215
42 FP2 105 18.168
42 FP2 106 20.121
42 FP2 107 22.563
42 FP2 108 24.028
42 FP2 109 24.028
42 FP2 110 23.051
42 FP2 111 22.563
42 FP2 112 23.051
42 FP2 113 24.516
42 FP2 114 26.957
42 FP2 115 28.910
42 FP2 116 28.910
42 FP2 117 27.445
42 FP2 118 25.492
42 FP2 119 24.028
42 FP2 120 23.051
42 FP2 121 23.051
42 FP2 122 22.563
42 FP2 123 21.586
42 FP2 124 20.121
42 FP2 125 19.145
42 FP2 126 18.656
42 FP2 127 18.656
42 FP2 128 18.656
42 FP2 129 18.168
42 FP2 130 17.680
42 FP2 131 16.703
42 FP2 132 15.727
42 FP2 133 15.238
42 FP2 134 15.238
42 FP2 135 15.727
42 FP2 136 16.215
42 FP2 137 17.192
42 FP2 138 17.680
42 FP2 139 18.656
42 FP2 140 19.145
42 FP2 141 19.633
42 FP2 142 19.633
42 FP2 143 19.145
42 FP2 144 17.680
42 FP2 145 16.215
42 FP2 146 14.750
42 FP2 147 14.750
42 FP2 148 15.727
42 FP2 149 17.192
42 FP2 150 17.680
42 FP2 151 16.703
42 FP2 152 16.215
42 FP2 153 16.215
42 FP2 154 17.680
42 FP2 155 20.121
42 FP2 156 22.074
42 FP2 157 23.539
42 FP2 158 23.539
42 FP2 159 22.563
42 FP2 160 22.563
42 FP2 161 23.051
42 FP2 162 23.051
42 FP2 163 23.051
42 FP2 164 22.074
42 FP2 165 20.121
42 FP2 166 18.656
42 FP2 167 18.168
42 FP2 168 18.656
42 FP2 169 19.145
42 FP2 170 19.145
42 FP2 171 17.680
42 FP2 172 15.727
42 FP2 173 14.262
42 FP2 174 13.285
42 FP2 175 13.285
42 FP2 176 13.774
42 FP2 177 14.750
42 FP2 178 16.215
42 FP2 179 18.168
42 FP2 180 20.610
42 FP2 181 22.074
42 FP2 182 23.051
42 FP2 183 23.051
42 FP2 184 23.051
42 FP2 185 23.051
42 FP2 186 24.028
42 FP2 187 25.004
42 FP2 188 26.469
42 FP2 189 27.445
42 FP2 190 27.934
42 FP2 191 28.422
42 FP2 192 28.422
42 FP2 193 28.422
42 FP2 194 29.399
42 FP2 195 30.375
42 FP2 196 31.840
42 FP2 197 32.817
42 FP2 198 32.817
42 FP2 199 32.328
42 FP2 200 31.840
42 FP2 201 31.352
42 FP2 202 31.352
42 FP2 203 30.863
42 FP2 204 30.375
42 FP2 205 29.887
42 FP2 206 29.887
42 FP2 207 30.863
42 FP2 208 32.328
42 FP2 209 33.305
42 FP2 210 34.281
42 FP2 211 34.770
42 FP2 212 35.746
42 FP2 213 36.723
42 FP2 214 37.699
42 FP2 215 37.699
42 FP2 216 37.699
42 FP2 217 37.699
42 FP2 218 37.699
42 FP2 219 38.676
42 FP2 220 39.164
42 FP2 221 37.699
42 FP2 222 35.258
42 FP2 223 31.840
42 FP2 224 29.887
42 FP2 225 28.910
42 FP2 226 30.375
42 FP2 227 31.840
42 FP2 228 32.817
42 FP2 229 33.305
42 FP2 230 33.305
42 FP2 231 32.817
42 FP2 232 33.305
42 FP2 233 34.281
42 FP2 234 35.258
42 FP2 235 35.746
42 FP2 236 36.235
42 FP2 237 36.723
42 FP2 238 37.211
42 FP2 239 37.699
42 FP2 240 38.676
42 FP2 241 38.188
42 FP2 242 37.211
42 FP2 243 35.746
42 FP2 244 33.793
42 FP2 245 32.817
42 FP2 246 32.328
42 FP2 247 31.840
42 FP2 248 30.863
42 FP2 249 30.863
42 FP2 250 31.352
42 FP2 251 32.817
42 FP2 252 34.770
42 FP2 253 35.746
42 FP2 254 35.746
42 FP2 255 34.770
# F7 chan 2
42 F7 0 4.456
42 F7 1 4.944
42 F7 2 5.920
42 F7 3 7.385
42 F7 4 8.850
42 F7 5 10.315
42 F7 6 11.292
42 F7 7 11.292
42 F7 8 11.780
42 F7 9 12.756
42 F7 10 13.733
42 F7 11 14.709
42 F7 12 15.686
42 F7 13 15.686
42 F7 14 15.686
42 F7 15 15.198
42 F7 16 14.709
42 F7 17 14.221
42 F7 18 14.221
42 F7 19 13.733
42 F7 20 13.245
42 F7 21 13.245
42 F7 22 13.733
42 F7 23 14.709
42 F7 24 16.663
42 F7 25 18.127
42 F7 26 18.616
42 F7 27 17.151
42 F7 28 15.686
42 F7 29 13.733
42 F7 30 13.245
42 F7 31 14.221
42 F7 32 15.686
42 F7 33 17.151
42 F7 34 18.616
42 F7 35 19.104
42 F7 36 20.081
42 F7 37 20.569
42 F7 38 20.569
42 F7 39 20.569
42 F7 40 19.592
42 F7 41 19.104
42 F7 42 19.104
42 F7 43 19.592
42 F7 44 19.592
42 F7 45 19.104
42 F7 46 17.151
42 F7 47 15.198
42 F7 48 12.756
42 F7 49 11.780
42 F7 50 11.292
42 F7 51 11.780
42 F7 52 12.268
42 F7 53 13.245
42 F7 54 13.245
42 F7 55 13.733
42 F7 56 14.709
42 F7 57 15.686
42 F7 58 16.663
42 F7 59 17.151
42 F7 60 16.663
42 F7 61 15.686
42 F7 62 15.198
42 F7 63 15.198
42 F7 64 14.709
42 F7 65 14.221
42 F7 66 12.756
42 F7 67 10.315
42 F7 68 8.362
42 F7 69 7.385
42 F7 70 7.385
42 F7 71 7.874
42 F7 72 8.850
42 F7 73 8.850
42 F7 74 8.362
42 F7 75 7.385
42 F7 76 5.920
42 F7 77 4.944
42 F7 78 3.479
42 F7 79 2.502
42 F7 80 2.014
42 F7 81 2.991
42 F7 82 3.479
42 F7 83 3.967
42 F7 84 4.456
42 F7 85 5.432
42 F7 86 6.897
42 F7 87 9.338
42 F7 88 12.268
42 F7 89 13.733
42 F7 90 13.733
42 F7 91 11.780
42 F7 92 9.338
42 F7 93 6.897
42 F7 94 5.432
42 F7 95 4.944
42 F7 96 4.456
42 F7 97 3.967
42 F7 98 3.967
42 F7 99 4.944
42 F7 100 6.409
42 F7 101 8.850
42 F7 102 9.827
42 F7 103 10.803
42 F7 104 10.803
42 F7 105 10.803
42 F7 106 11.780
42 F7 107 13.245
42 F7 108 15.198
42 F7 109 16.174
42 F7 110 16.174
42 F7 111 15.686
42 F7 112 14.709
42 F7 113 15.198
42 F7 114 15.686
42 F7 115 15.686
42 F7 116 14.709
42 F7 117 11.780
42 F7 118 9.338
42 F7 119 7.874
42 F7 120 7.874
42 F7 121 7.874
42 F7 122 7.385
42 F7 123 5.432
42 F7 124 3.479
42 F7 125 2.014
42 F7 126 2.991
42 F7 127 4.944
42 F7 128 7.385
42 F7 129 8.850
42 F7 130 9.338
42 F7 131 8.850
42 F7 132 9.338
42 F7 133 9.827
42 F7 134 10.803
42 F7 135 11.780
42 F7 136 12.268
42 F7 137 11.780
42 F7 138 10.803
42 F7 139 9.827
42 F7 140 7.874
42 F7 141 6.409
42 F7 142 3.967
42 F7 143 1.038
42 F7 144 -1.404
42 F7 145 -2.869
42 F7 146 -3.357
42 F7 147 -1.892
42 F7 148 0.549
42 F7 149 2.991
42 F7 150 3.967
42 F7 151 2.991
42 F7 152 1.526
42 F7 153 0.549
42 F7 154 1.038
42 F7 155 2.991
42 F7 156 4.944
42 F7 157 6.409
42 F7 158 6.409
42 F7 159 6.409
42 F7 160 6.409
42 F7 161 6.897
42 F7 162 7.874
42 F7 163 8.362
42 F7 164 8.362
42 F7 165 6.897
42 F7 166 5.920
42 F7 167 5.432
42 F7 168 5.432
42 F7 169 5.432
42 F7 170 4.944
42 F7 171 2.991
42 F7 172 1.038
42 F7 173 -0.916
42 F7 174 -1.892
42 F7 175 -1.892
42 F7 176 -1.892
42 F7 177 -1.404
42 F7 178 0.061
42 F7 179 2.014
42 F7 180 3.967
42 F7 181 6.409
42 F7 182 7.874
42 F7 183 9.338
42 F7 184 10.315
42 F7 185 12.268
42 F7 186 14.221
42 F7 187 15.686
42 F7 188 15.686
42 F7 189 14.709
42 F7 190 13.733
42 F7 191 12.756
42 F7 192 12.756
42 F7 193 12.756
42 F7 194 12.756
42 F7 195 12.756
42 F7 196 12.756
42 F7 197 12.756
42 F7 198 13.245
42 F7 199 12.756
42 F7 200 12.268
42 F7 201 11.292
42 F7 202 10.803
42 F7 203 10.315
42 F7 204 10.315
42 F7 205 10.803
42 F7 206 11.292
42 F7 207 11.780
42 F7 208 12.756
42 F7 209 13.245
42 F7 210 14.221
42 F7 211 15.686
42 F7 212 17.151
42 F7 213 18.616
42 F7 214 19.592
42 F7 215 19.592
42 F7 216 19.592
42 F7 217 19.104
42 F7 218 18.616
42 F7 219 18.616
42 F7 220 18.616
42 F7 221 17.151
42 F7 222 15.686
42 F7 223 13.733
42 F7 224 13.245
42 F7 225 13.245
42 F7 226 14.221
42 F7 227 15.198
42 F7 228 15.198
42 F7 229 14.221
42 F7 230 13.245
42 F7 231 12.268
42 F7 232 11.780
42 F7 233 12.268
42 F7 234 12.756
42 F7 235 13.245
42 F7 236 13.733
42 F7 237 14.221
42 F7 238 14.709
42 F7 239 15.198
42 F7 240 14.709
42 F7 241 14.221
42 F7 242 13.245
42 F7 243 13.245
42 F7 244 13.245
42 F7 245 14.221
42 F7 246 15.686
42 F7 247 16.663
42 F7 248 16.663
42 F7 249 16.663
42 F7 250 17.151
42 F7 251 18.127
42 F7 252 19.592
42 F7 253 19.592
42 F7 254 18.616
42 F7 255 17.151
# F8 chan 3
42 F8 0 1.424
42 F8 1 2.889
42 F8 2 4.354
42 F8 3 4.842
42 F8 4 5.819
42 F8 5 6.307
42 F8 6 6.795
42 F8 7 6.307
42 F8 8 5.819
42 F8 9 6.307
42 F8 10 7.772
42 F8 11 9.237
42 F8 12 10.701
42 F8 13 10.701
42 F8 14 9.725
42 F8 15 8.748
42 F8 16 8.260
42 F8 17 8.748
42 F8 18 9.725
42 F8 19 10.213
42 F8 20 10.213
42 F8 21 9.725
42 F8 22 9.725
42 F8 23 10.701
42 F8 24 11.678
42 F8 25 12.166
42 F8 26 12.166
42 F8 27 11.678
42 F8 28 11.678
42 F8 29 11.678
42 F8 30 12.166
42 F8 31 12.655
42 F8 32 12.655
42 F8 33 11.678
42 F8 34 11.678
42 F8 35 11.190
42 F8 36 10.701
42 F8 37 8.748
42 F8 38 6.307
42 F8 39 3.866
42 F8 40 2.401
42 F8 41 1.912
42 F8 42 2.401
42 F8 43 3.377
42 F8 44 4.842
42 F8 45 5.819
42 F8 46 7.772
42 F8 47 9.725
42 F8 48 11.190
42 F8 49 11.678
42 F8 50 11.678
42 F8 51 10.701
42 F8 52 10.213
42 F8 53 9.725
42 F8 54 10.213
42 F8 55 10.213
42 F8 56 10.701
42 F8 57 9.725
42 F8 58 9.237
42 F8 59 8.748
42 F8 60 9.237
42 F8 61 10.701
42 F8 62 11.678
42 F8 63 12.166
42 F8 64 11.190
42 F8 65 8.748
42 F8 66 6.307
42 F8 67 4.842
42 F8 68 3.377
42 F8 69 2.889
42 F8 70 2.401
42 F8 71 2.401
42 F8 72 2.889
42 F8 73 3.377
42 F8 74 4.842
42 F8 75 5.819
42 F8 76 6.307
42 F8 77 5.819
42 F8 78 5.330
42 F8 79 5.819
42 F8 80 6.307
42 F8 81 6.795
42 F8 82 7.284
42 F8 83 6.795
42 F8 84 5.330
42 F8 85 4.354
42 F8 86 3.866
42 F8 87 3.866
42 F8 88 4.842
42 F8 89 5.819
42 F8 90 6.307
42 F8 91 6.795
42 F8 92 6.307
42 F8 93 6.307
42 F8 94 6.307
42 F8 95 5.819
42 F8 96 4.842
42 F8 97 4.354
42 F8 98 3.866
42 F8 99 3.866
42 F8 100 4.354
42 F8 101 4.842
42 F8 102 5.819
42 F8 103 6.795
42 F8 104 8.748
42 F8 105 10.701
42 F8 106 12.655
42 F8 107 14.119
42 F8 108 14.119
42 F8 109 12.655
42 F8 110 11.190
42 F8 111 10.701
42 F8 112 11.190
42 F8 113 13.143
42 F8 114 15.584
42 F8 115 17.049
42 F8 116 16.561
42 F8 117 14.608
42 F8 118 12.166
42 F8 119 10.213
42 F8 120 9.237
42 F8 121 8.748
42 F8 122 7.772
42 F8 123 6.307
42 F8 124 3.866
42 F8 125 1.424
42 F8 126 -0.529
42 F8 127 -1.506
42 F8 128 -1.017
42 F8 129 0.448
42 F8 130 1.912
42 F8 131 2.889
42 F8 132 3.377
42 F8 133 2.889
42 F8 134 2.401
42 F8 135 2.401
42 F8 136 2.889
42 F8 137 3.866
42 F8 138 4.842
42 F8 139 5.819
42 F8 140 5.819
42 F8 141 5.819
42 F8 142 5.819
42 F8 143 5.330
42 F8 144 3.866
42 F8 145 2.889
42 F8 146 2.401
42 F8 147 2.401
42 F8 148 3.377
42 F8 149 3.866
42 F8 150 4.354
42 F8 151 4.354
42 F8 152 3.866
42 F8 153 3.377
42 F8 154 2.889
42 F8 155 3.377
42 F8 156 3.377
42 F8 157 3.866
42 F8 158 4.354
42 F8 159 4.842
42 F8 160 5.330
42 F8 161 5.819
42 F8 162 6.307
42 F8 163 6.307
42 F8 164 5.819
42 F8 165 4.842
42 F8 166 3.866
42 F8 167 3.377
42 F8 168 3.377
42 F8 169 2.889
42 F8 170 1.424
42 F8 171 -0.529
42 F8 172 -2.482
42 F8 173 -4.435
42 F8 174 -5.412
42 F8 175 -5.900
42 F8 176 -5.900
42 F8 177 -5.412
42 F8 178 -4.924
42 F8 179 -3.947
42 F8 180 -2.482
42 F8 181 -1.017
42 F8 182 -0.041
42 F8 183 0.448
42 F8 184 0.448
42 F8 185 0.448
42 F8 186 0.936
42 F8 187 1.424
42 F8 188 1.912
42 F8 189 1.912
42 F8 190 2.401
42 F8 191 2.401
42 F8 192 3.377
42 F8 193 4.842
42 F8 194 6.795
42 F8 195 8.748
42 F8 196 9.725
42 F8 197 9.725
42 F8 198 9.237
42 F8 199 8.748
42 F8 200 8.260
42 F8 201 8.260
42 F8 202 7.772
42 F8 203 7.772
42 F8 204 7.284
42 F8 205 7.284
42 F8 206 7.772
42 F8 207 7.772
42 F8 208 7.772
42 F8 209 7.772
42 F8 210 7.772
42 F8 211 8.260
42 F8 212 9.725
42 F8 213 11.190
42 F8 214 12.655
42 F8 215 13.631
42 F8 216 14.119
42 F8 217 14.119
42 F8 218 14.119
42 F8 219 13.143
42 F8 220 12.166
42 F8 221 11.190
42 F8 222 10.213
42 F8 223 9.725
42 F8 224 9.237
42 F8 225 8.748
42 F8 226 8.748
42 F8 227 8.748
42 F8 228 7.772
42 F8 229 7.284
42 F8 230 6.307
42 F8 231 5.819
42 F8 232 5.819
42 F8 233 6.307
42 F8 234 7.284
42 F8 235 9.237
42 F8 236 10.213
42 F8 237 10.213
42 F8 238 10.213
42 F8 239 9.725
42 F8 240 9.237
42 F8 241 9.237
42 F8 242 8.748
42 F8 243 7.772
42 F8 244 6.307
42 F8 245 4.842
42 F8 246 4.842
42 F8 247 5.330
42 F8 248 5.330
42 F8 249 4.842
42 F8 250 3.866
42 F8 251 2.889
42 F8 252 2.889
42 F8 253 3.866
42 F8 254 5.819
42 F8 255 7.284
# AF1 chan 4
42 AF1 0 3.937
42 AF1 1 3.937
42 AF1 2 4.425
42 AF1 3 4.913
42 AF1 4 4.913
42 AF1 5 4.425
42 AF1 6 4.425
42 AF1 7 4.913
42 AF1 8 5.402
42 AF1 9 6.378
42 AF1 10 6.866
42 AF1 11 7.355
42 AF1 12 7.355
42 AF1 13 8.331
42 AF1 14 8.820
42 AF1 15 9.308
42 AF1 16 9.796
42 AF1 17 10.284
42 AF1 18 10.773
42 AF1 19 11.261
42 AF1 20 11.749
42 AF1 21 11.749
42 AF1 22 11.749
42 AF1 23 12.238
42 AF1 24 12.726
42 AF1 25 13.214
42 AF1 26 12.726
42 AF1 27 11.749
42 AF1 28 10.773
42 AF1 29 9.796
42 AF1 30 9.308
42 AF1 31 9.308
42 AF1 32 9.796
42 AF1 33 9.796
42 AF1 34 10.773
42 AF1 35 10.284
42 AF1 36 10.284
42 AF1 37 9.308
42 AF1 38 7.843
42 AF1 39 6.866
42 AF1 40 6.378
42 AF1 41 6.866
42 AF1 42 7.843
42 AF1 43 9.308
42 AF1 44 10.773
42 AF1 45 11.261
42 AF1 46 11.749
42 AF1 47 11.749
42 AF1 48 11.749
42 AF1 49 11.261
42 AF1 50 11.261
42 AF1 51 10.773
42 AF1 52 10.773
42 AF1 53 11.261
42 AF1 54 11.261
42 AF1 55 12.238
42 AF1 56 13.214
42 AF1 57 13.702
42 AF1 58 13.702
42 AF1 59 13.702
42 AF1 60 13.214
42 AF1 61 13.214
42 AF1 62 12.726
42 AF1 63 12.238
42 AF1 64 11.749
42 AF1 65 10.773
42 AF1 66 9.796
42 AF1 67 8.331
42 AF1 68 6.866
42 AF1 69 4.913
42 AF1 70 3.937
42 AF1 71 2.960
42 AF1 72 2.472
42 AF1 73 2.960
42 AF1 74 2.472
42 AF1 75 2.472
42 AF1 76 1.984
42 AF1 77 1.007
42 AF1 78 0.519
42 AF1 79 0.031
42 AF1 80 0.519
42 AF1 81 1.007
42 AF1 82 1.007
42 AF1 83 1.007
42 AF1 84 1.007
42 AF1 85 1.495
42 AF1 86 2.472
42 AF1 87 3.937
42 AF1 88 5.890
42 AF1 89 7.355
42 AF1 90 7.843
42 AF1 91 7.843
42 AF1 92 6.378
42 AF1 93 4.913
42 AF1 94 3.448
42 AF1 95 1.984
42 AF1 96 1.007
42 AF1 97 1.007
42 AF1 98 0.519
42 AF1 99 1.007
42 AF1 100 1.007
42 AF1 101 1.495
42 AF1 102 1.984
42 AF1 103 2.960
42 AF1 104 3.937
42 AF1 105 5.890
42 AF1 106 7.355
42 AF1 107 8.331
42 AF1 108 8.820
42 AF1 109 8.331
42 AF1 110 7.843
42 AF1 111 6.866
42 AF1 112 6.866
42 AF1 113 8.331
42 AF1 114 9.308
42 AF1 115 10.773
42 AF1 116 9.796
42 AF1 117 8.820
42 AF1 118 6.866
42 AF1 119 5.402
42 AF1 120 5.402
42 AF1 121 4.913
42 AF1 122 4.425
42 AF1 123 2.960
42 AF1 124 1.007
42 AF1 125 -0.458
42 AF1 126 -0.946
42 AF1 127 -0.946
42 AF1 128 -0.458
42 AF1 129 0.031
42 AF1 130 0.031
42 AF1 131 0.031
42 AF1 132 -0.458
42 AF1 133 -0.458
42 AF1 134 0.031
42 AF1 135 0.519
42 AF1 136 1.495
42 AF1 137 2.472
42 AF1 138 2.960
42 AF1 139 2.960
42 AF1 140 2.472
42 AF1 141 1.984
42 AF1 142 1.495
42 AF1 143 1.007
42 AF1 144 -0.458
42 AF1 145 -0.946
42 AF1 146 -0.946
42 AF1 147 -0.458
42 AF1 148 1.495
42 AF1 149 2.960
42 AF1 150 4.425
42 AF1 151 4.425
42 AF1 152 3.937
42 AF1 153 3.448
42 AF1 154 4.425
42 AF1 155 5.890
42 AF1 156 7.355
42 AF1 157 8.331
42 AF1 158 8.820
42 AF1 159 9.308
42 AF1 160 9.796
42 AF1 161 10.284
42 AF1 162 11.261
42 AF1 163 11.261
42 AF1 164 9.796
42 AF1 165 7.843
42 AF1 166 6.378
42 AF1 167 5.890
42 AF1 168 5.890
42 AF1 169 5.890
42 AF1 170 5.402
42 AF1 171 4.425
42 AF1 172 3.448
42 AF1 173 2.472
42 AF1 174 1.984
42 AF1 175 1.984
42 AF1 176 1.984
42 AF1 177 2.472
42 AF1 178 2.960
42 AF1 179 3.937
42 AF1 180 5.402
42 AF1 181 6.866
42 AF1 182 7.843
42 AF1 183 7.843
42 AF1 184 8.331
42 AF1 185 8.820
42 AF1 186 9.308
42 AF1 187 10.773
42 AF1 188 10.773
42 AF1 189 10.773
42 AF1 190 10.773
42 AF1 191 10.284
42 AF1 192 9.796
42 AF1 193 9.796
42 AF1 194 10.773
42 AF1 195 11.261
42 AF1 196 12.238
42 AF1 197 12.238
42 AF1 198 12.238
42 AF1 199 11.749
42 AF1 200 10.773
42 AF1 201 9.796
42 AF1 202 9.796
42 AF1 203 9.308
42 AF1 204 9.308
42 AF1 205 9.796
42 AF1 206 10.284
42 AF1 207 10.773
42 AF1 208 11.261
42 AF1 209 11.749
42 AF1 210 11.749
42 AF1 211 12.238
42 AF1 212 12.726
42 AF1 213 14.191
42 AF1 214 14.679
42 AF1 215 15.167
42 AF1 216 14.191
42 AF1 217 13.214
42 AF1 218 12.238
42 AF1 219 12.238
42 AF1 220 11.749
42 AF1 221 11.261
42 AF1 222 10.284
42 AF1 223 8.331
42 AF1 224 7.355
42 AF1 225 7.355
42 AF1 226 8.331
42 AF1 227 9.796
42 AF1 228 10.773
42 AF1 229 10.773
42 AF1 230 10.773
42 AF1 231 11.261
42 AF1 232 11.261
42 AF1 233 12.238
42 AF1 234 13.214
42 AF1 235 13.214
42 AF1 236 13.214
42 AF1 237 13.214
42 AF1 238 13.702
42 AF1 239 13.214
42 AF1 240 13.214
42 AF1 241 11.749
42 AF1 242 10.773
42 AF1 243 9.308
42 AF1 244 7.843
42 AF1 245 7.843
42 AF1 246 7.843
42 AF1 247 7.843
42 AF1 248 7.843
42 AF1 249 7.355
42 AF1 250 7.355
42 AF1 251 7.843
42 AF1 252 8.331
42 AF1 253 8.820
42 AF1 254 8.820
42 AF1 255 8.820
# AF2 chan 5
42 AF2 0 3.713
42 AF2 1 4.201
42 AF2 2 4.690
42 AF2 3 4.690
42 AF2 4 5.178
42 AF2 5 4.690
42 AF2 6 4.690
42 AF2 7 4.690
42 AF2 8 5.178
42 AF2 9 5.178
42 AF2 10 5.666
42 AF2 11 6.643
42 AF2 12 6.643
42 AF2 13 8.108
42 AF2 14 8.596
42 AF2 15 9.084
42 AF2 16 9.572
42 AF2 17 10.549
42 AF2 18 11.525
42 AF2 19 12.014
42 AF2 20 12.014
42 AF2 21 12.014
42 AF2 22 11.525
42 AF2 23 11.525
42 AF2 24 11.525
42 AF2 25 12.014
42 AF2 26 12.014
42 AF2 27 12.014
42 AF2 28 11.525
42 AF2 29 11.525
42 AF2 30 11.037
42 AF2 31 11.525
42 AF2 32 11.525
42 AF2 33 11.037
42 AF2 34 11.037
42 AF2 35 10.549
42 AF2 36 10.549
42 AF2 37 9.572
42 AF2 38 8.108
42 AF2 39 7.131
42 AF2 40 6.154
42 AF2 41 6.154
42 AF2 42 6.643
42 AF2 43 8.596
42 AF2 44 9.084
42 AF2 45 10.061
42 AF2 46 11.037
42 AF2 47 12.502
42 AF2 48 13.479
42 AF2 49 13.967
42 AF2 50 13.967
42 AF2 51 13.479
42 AF2 52 12.990
42 AF2 53 12.990
42 AF2 54 13.967
42 AF2 55 14.455
42 AF2 56 14.943
42 AF2 57 15.432
42 AF2 58 14.943
42 AF2 59 14.455
42 AF2 60 13.967
42 AF2 61 13.967
42 AF2 62 13.967
42 AF2 63 13.967
42 AF2 64 13.479
42 AF2 65 12.502
42 AF2 66 11.525
42 AF2 67 10.061
42 AF2 68 8.596
42 AF2 69 7.131
42 AF2 70 5.178
42 AF2 71 4.201
42 AF2 72 3.713
42 AF2 73 3.713
42 AF2 74 4.201
42 AF2 75 4.690
42 AF2 76 4.690
42 AF2 77 4.201
42 AF2 78 3.713
42 AF2 79 3.713
42 AF2 80 4.201
42 AF2 81 4.690
42 AF2 82 4.690
42 AF2 83 5.178
42 AF2 84 4.690
42 AF2 85 4.690
42 AF2 86 5.178
42 AF2 87 6.643
42 AF2 88 8.108
42 AF2 89 9.084
42 AF2 90 9.572
42 AF2 91 10.061
42 AF2 92 9.572
42 AF2 93 8.596
42 AF2 94 7.619
42 AF2 95 5.666
42 AF2 96 4.690
42 AF2 97 3.713
42 AF2 98 3.225
42 AF2 99 3.225
42 AF2 100 3.225
42 AF2 101 3.225
42 AF2 102 3.713
42 AF2 103 4.690
42 AF2 104 6.643
42 AF2 105 8.596
42 AF2 106 10.549
42 AF2 107 12.502
42 AF2 108 12.502
42 AF2 109 12.014
42 AF2 110 10.549
42 AF2 111 9.572
42 AF2 112 9.572
42 AF2 113 11.037
42 AF2 114 12.990
42 AF2 115 14.455
42 AF2 116 14.455
42 AF2 117 12.990
42 AF2 118 11.037
42 AF2 119 9.084
42 AF2 120 8.596
42 AF2 121 8.108
42 AF2 122 7.131
42 AF2 123 5.666
42 AF2 124 3.713
42 AF2 125 1.272
42 AF2 126 -0.193
42 AF2 127 -0.193
42 AF2 128 -0.193
42 AF2 129 0.295
42 AF2 130 0.783
42 AF2 131 0.295
42 AF2 132 -0.193
42 AF2 133 -0.193
42 AF2 134 0.295
42 AF2 135 0.783
42 AF2 136 1.760
42 AF2 137 2.736
42 AF2 138 3.225
42 AF2 139 3.225
42 AF2 140 3.713
42 AF2 141 4.201
42 AF2 142 4.690
42 AF2 143 4.690
42 AF2 144 3.713
42 AF2 145 2.248
42 AF2 146 1.760
42 AF2 147 2.248
42 AF2 148 3.713
42 AF2 149 5.666
42 AF2 150 6.643
42 AF2 151 6.643
42 AF2 152 6.154
42 AF2 153 5.666
42 AF2 154 6.154
42 AF2 155 7.619
42 AF2 156 9.084
42 AF2 157 9.572
42 AF2 158 9.572
42 AF2 159 9.572
42 AF2 160 9.572
42 AF2 161 10.061
42 AF2 162 11.037
42 AF2 163 11.037
42 AF2 164 10.549
42 AF2 165 9.084
42 AF2 166 7.619
42 AF2 167 6.643
42 AF2 168 6.643
42 AF2 169 6.643
42 AF2 170 6.154
42 AF2 171 5.178
42 AF2 172 4.201
42 AF2 173 3.225
42 AF2 174 2.736
42 AF2 175 2.248
42 AF2 176 2.248
42 AF2 177 2.248
42 AF2 178 3.225
42 AF2 179 4.201
42 AF2 180 5.666
42 AF2 181 7.131
42 AF2 182 7.619
42 AF2 183 8.108
42 AF2 184 8.108
42 AF2 185 8.596
42 AF2 186 9.084
42 AF2 187 9.572
42 AF2 188 9.572
42 AF2 189 9.084
42 AF2 190 8.596
42 AF2 191 8.596
42 AF2 192 8.596
42 AF2 193 9.084
42 AF2 194 10.061
42 AF2 195 11.037
42 AF2 196 12.502
42 AF2 197 12.990
42 AF2 198 12.990
42 AF2 199 12.502
42 AF2 200 12.014
42 AF2 201 11.525
42 AF2 202 11.525
42 AF2 203 11.525
42 AF2 204 11.525
42 AF2 205 12.014
42 AF2 206 11.525
42 AF2 207 11.525
42 AF2 208 11.037
42 AF2 209 10.549
42 AF2 210 10.549
42 AF2 211 11.037
42 AF2 212 12.014
42 AF2 213 12.990
42 AF2 214 13.967
42 AF2 215 14.455
42 AF2 216 14.455
42 AF2 217 13.479
42 AF2 218 12.990
42 AF2 219 12.502
42 AF2 220 12.014
42 AF2 221 11.037
42 AF2 222 9.572
42 AF2 223 8.108
42 AF2 224 7.619
42 AF2 225 7.619
42 AF2 226 8.596
42 AF2 227 10.061
42 AF2 228 11.037
42 AF2 229 11.525
42 AF2 230 11.037
42 AF2 231 11.037
42 AF2 232 11.037
42 AF2 233 12.014
42 AF2 234 12.990
42 AF2 235 13.479
42 AF2 236 13.967
42 AF2 237 13.967
42 AF2 238 13.967
42 AF2 239 13.967
42 AF2 240 13.967
42 AF2 241 13.479
42 AF2 242 12.502
42 AF2 243 11.037
42 AF2 244 9.572
42 AF2 245 8.596
42 AF2 246 8.108
42 AF2 247 7.619
42 AF2 248 8.108
42 AF2 249 8.596
42 AF2 250 9.084
42 AF2 251 9.572
42 AF2 252 10.061
42 AF2 253 10.549
42 AF2 254 10.549
42 AF2 255 10.549
# FZ chan 6
42 FZ 0 3.062
42 FZ 1 3.062
42 FZ 2 3.550
42 FZ 3 3.062
42 FZ 4 3.062
42 FZ 5 2.574
42 FZ 6 2.574
42 FZ 7 2.574
42 FZ 8 3.062
42 FZ 9 3.550
42 FZ 10 3.550
42 FZ 11 3.550
42 FZ 12 3.062
42 FZ 13 3.550
42 FZ 14 4.038
42 FZ 15 5.015
42 FZ 16 5.992
42 FZ 17 6.968
42 FZ 18 7.945
42 FZ 19 7.945
42 FZ 20 7.945
42 FZ 21 7.456
42 FZ 22 7.456
42 FZ 23 6.968
42 FZ 24 7.456
42 FZ 25 7.456
42 FZ 26 6.968
42 FZ 27 6.968
42 FZ 28 5.992
42 FZ 29 5.503
42 FZ 30 5.015
42 FZ 31 5.015
42 FZ 32 5.503
42 FZ 33 5.503
42 FZ 34 5.503
42 FZ 35 5.015
42 FZ 36 4.527
42 FZ 37 3.550
42 FZ 38 2.574
42 FZ 39 2.085
42 FZ 40 1.597
42 FZ 41 2.085
42 FZ 42 2.574
42 FZ 43 3.550
42 FZ 44 5.015
42 FZ 45 5.503
42 FZ 46 6.480
42 FZ 47 7.456
42 FZ 48 8.433
42 FZ 49 8.921
42 FZ 50 8.921
42 FZ 51 8.921
42 FZ 52 8.921
42 FZ 53 9.410
42 FZ 54 9.898
42 FZ 55 10.386
42 FZ 56 10.874
42 FZ 57 10.874
42 FZ 58 10.874
42 FZ 59 10.874
42 FZ 60 10.386
42 FZ 61 10.386
42 FZ 62 9.410
42 FZ 63 9.410
42 FZ 64 8.921
42 FZ 65 7.945
42 FZ 66 7.456
42 FZ 67 6.968
42 FZ 68 5.992
42 FZ 69 4.038
42 FZ 70 2.574
42 FZ 71 1.109
42 FZ 72 0.132
42 FZ 73 0.132
42 FZ 74 0.132
42 FZ 75 0.621
42 FZ 76 0.621
42 FZ 77 0.132
42 FZ 78 -0.356
42 FZ 79 -0.356
42 FZ 80 -0.356
42 FZ 81 0.132
42 FZ 82 0.621
42 FZ 83 0.621
42 FZ 84 0.621
42 FZ 85 0.621
42 FZ 86 1.109
42 FZ 87 2.085
42 FZ 88 3.062
42 FZ 89 4.038
42 FZ 90 5.015
42 FZ 91 5.015
42 FZ 92 4.527
42 FZ 93 3.062
42 FZ 94 2.085
42 FZ 95 1.109
42 FZ 96 0.132
42 FZ 97 -0.356
42 FZ 98 -0.844
42 FZ 99 -0.844
42 FZ 100 -0.844
42 FZ 101 -0.844
42 FZ 102 -0.844
42 FZ 103 0.621
42 FZ 104 1.597
42 FZ 105 4.038
42 FZ 106 5.503
42 FZ 107 6.480
42 FZ 108 6.968
42 FZ 109 5.992
42 FZ 110 5.503
42 FZ 111 5.015
42 FZ 112 5.503
42 FZ 113 5.992
42 FZ 114 6.968
42 FZ 115 7.945
42 FZ 116 7.945
42 FZ 117 7.456
42 FZ 118 5.992
42 FZ 119 4.527
42 FZ 120 4.038
42 FZ 121 3.062
42 FZ 122 2.574
42 FZ 123 1.597
42 FZ 124 0.132
42 FZ 125 -0.844
42 FZ 126 -1.821
42 FZ 127 -2.309
42 FZ 128 -2.309
42 FZ 129 -1.821
42 FZ 130 -1.821
42 FZ 131 -2.309
42 FZ 132 -2.797
42 FZ 133 -2.797
42 FZ 134 -2.797
42 FZ 135 -2.309
42 FZ 136 -1.333
42 FZ 137 -0.356
42 FZ 138 0.621
42 FZ 139 1.597
42 FZ 140 1.597
42 FZ 141 1.597
42 FZ 142 1.597
42 FZ 143 1.109
42 FZ 144 0.621
42 FZ 145 -0.356
42 FZ 146 -0.356
42 FZ 147 -0.356
42 FZ 148 0.621
42 FZ 149 1.597
42 FZ 150 2.574
42 FZ 151 3.062
42 FZ 152 3.062
42 FZ 153 2.574
42 FZ 154 2.574
42 FZ 155 3.550
42 FZ 156 4.038
42 FZ 157 5.015
42 FZ 158 5.015
42 FZ 159 5.503
42 FZ 160 5.992
42 FZ 161 6.480
42 FZ 162 6.480
42 FZ 163 5.992
42 FZ 164 5.015
42 FZ 165 4.038
42 FZ 166 3.062
42 FZ 167 2.574
42 FZ 168 2.574
42 FZ 169 2.574
42 FZ 170 2.085
42 FZ 171 1.597
42 FZ 172 1.109
42 FZ 173 0.621
42 FZ 174 0.621
42 FZ 175 1.109
42 FZ 176 1.597
42 FZ 177 1.597
42 FZ 178 1.597
42 FZ 179 2.085
42 FZ 180 3.062
42 FZ 181 4.038
42 FZ 182 5.015
42 FZ 183 5.503
42 FZ 184 5.503
42 FZ 185 5.992
42 FZ 186 5.992
42 FZ 187 5.992
42 FZ 188 6.480
42 FZ 189 6.480
42 FZ 190 5.992
42 FZ 191 5.503
42 FZ 192 5.015
42 FZ 193 4.038
42 FZ 194 4.527
42 FZ 195 5.503
42 FZ 196 6.968
42 FZ 197 7.456
42 FZ 198 7.945
42 FZ 199 7.456
42 FZ 200 6.480
42 FZ 201 5.992
42 FZ 202 5.503
42 FZ 203 5.503
42 FZ 204 5.992
42 FZ 205 5.992
42 FZ 206 5.992
42 FZ 207 5.992
42 FZ 208 5.992
42 FZ 209 5.503
42 FZ 210 5.503
42 FZ 211 5.503
42 FZ 212 5.992
42 FZ 213 6.480
42 FZ 214 6.968
42 FZ 215 7.456
42 FZ 216 6.968
42 FZ 217 5.992
42 FZ 218 5.015
42 FZ 219 5.015
42 FZ 220 5.015
42 FZ 221 5.015
42 FZ 222 4.527
42 FZ 223 3.062
42 FZ 224 2.574
42 FZ 225 3.062
42 FZ 226 4.527
42 FZ 227 5.992
42 FZ 228 7.456
42 FZ 229 7.945
42 FZ 230 7.456
42 FZ 231 7.456
42 FZ 232 7.456
42 FZ 233 7.945
42 FZ 234 8.433
42 FZ 235 9.410
42 FZ 236 9.410
42 FZ 237 9.410
42 FZ 238 9.410
42 FZ 239 8.921
42 FZ 240 8.921
42 FZ 241 7.945
42 FZ 242 6.480
42 FZ 243 5.015
42 FZ 244 3.550
42 FZ 245 2.574
42 FZ 246 2.574
42 FZ 247 2.574
42 FZ 248 2.574
42 FZ 249 3.062
42 FZ 250 3.062
42 FZ 251 3.550
42 FZ 252 4.038
42 FZ 253 4.527
42 FZ 254 4.527
42 FZ 255 4.527
# F4 chan 7
42 F4 0 1.139
42 F4 1 1.628
42 F4 2 2.116
42 F4 3 2.604
42 F4 4 2.604
42 F4 5 2.604
42 F4 6 3.092
42 F4 7 3.092
42 F4 8 3.581
42 F4 9 4.069
42 F4 10 4.557
42 F4 11 4.557
42 F4 12 4.557
42 F4 13 5.046
42 F4 14 5.046
42 F4 15 5.534
42 F4 16 6.022
42 F4 17 6.510
42 F4 18 6.999
42 F4 19 7.487
42 F4 20 7.975
42 F4 21 7.487
42 F4 22 7.487
42 F4 23 7.487
42 F4 24 7.975
42 F4 25 7.975
42 F4 26 7.975
42 F4 27 7.487
42 F4 28 7.487
42 F4 29 7.487
42 F4 30 7.487
42 F4 31 7.487
42 F4 32 7.487
42 F4 33 6.999
42 F4 34 6.510
42 F4 35 6.022
42 F4 36 5.046
42 F4 37 3.581
42 F4 38 3.092
42 F4 39 2.116
42 F4 40 1.628
42 F4 41 1.628
42 F4 42 2.116
42 F4 43 3.092
42 F4 44 4.557
42 F4 45 6.022
42 F4 46 7.487
42 F4 47 8.464
42 F4 48 9.440
42 F4 49 9.440
42 F4 50 9.928
42 F4 51 10.417
42 F4 52 10.905
42 F4 53 11.393
42 F4 54 11.882
42 F4 55 11.882
42 F4 56 11.882
42 F4 57 11.393
42 F4 58 10.905
42 F4 59 10.417
42 F4 60 9.928
42 F4 61 9.440
42 F4 62 9.440
42 F4 63 9.440
42 F4 64 8.952
42 F4 65 8.464
42 F4 66 6.999
42 F4 67 6.022
42 F4 68 4.069
42 F4 69 2.604
42 F4 70 1.139
42 F4 71 0.651
42 F4 72 0.651
42 F4 73 0.651
42 F4 74 1.628
42 F4 75 2.604
42 F4 76 3.092
42 F4 77 3.092
42 F4 78 3.092
42 F4 79 3.092
42 F4 80 3.581
42 F4 81 3.581
42 F4 82 3.581
42 F4 83 3.092
42 F4 84 3.092
42 F4 85 2.604
42 F4 86 2.604
42 F4 87 3.092
42 F4 88 3.581
42 F4 89 4.069
42 F4 90 4.069
42 F4 91 4.557
42 F4 92 4.557
42 F4 93 4.069
42 F4 94 3.581
42 F4 95 2.604
42 F4 96 1.139
42 F4 97 0.163
42 F4 98 -0.326
42 F4 99 0.163
42 F4 100 0.163
42 F4 101 0.651
42 F4 102 1.139
42 F4 103 2.116
42 F4 104 4.069
42 F4 105 6.510
42 F4 106 8.464
42 F4 107 9.440
42 F4 108 9.440
42 F4 109 8.464
42 F4 110 7.487
42 F4 111 6.999
42 F4 112 6.999
42 F4 113 8.464
42 F4 114 9.440
42 F4 115 9.928
42 F4 116 9.440
42 F4 117 8.464
42 F4 118 6.999
42 F4 119 6.022
42 F4 120 5.534
42 F4 121 4.557
42 F4 122 4.069
42 F4 123 2.116
42 F4 124 0.651
42 F4 125 -0.814
42 F4 126 -1.790
42 F4 127 -2.279
42 F4 128 -2.279
42 F4 129 -2.279
42 F4 130 -2.279
42 F4 131 -1.790
42 F4 132 -2.279
42 F4 133 -2.279
42 F4 134 -2.767
42 F4 135 -2.279
42 F4 136 -0.814
42 F4 137 0.651
42 F4 138 2.116
42 F4 139 3.581
42 F4 140 4.069
42 F4 141 5.046
42 F4 142 5.046
42 F4 143 4.557
42 F4 144 3.581
42 F4 145 2.116
42 F4 146 1.139
42 F4 147 1.139
42 F4 148 2.604
42 F4 149 3.581
42 F4 150 4.557
42 F4 151 4.557
42 F4 152 4.557
42 F4 153 4.557
42 F4 154 5.046
42 F4 155 6.022
42 F4 156 6.510
42 F4 157 6.510
42 F4 158 6.022
42 F4 159 6.022
42 F4 160 6.510
42 F4 161 6.999
42 F4 162 7.487
42 F4 163 7.487
42 F4 164 6.510
42 F4 165 5.046
42 F4 166 4.069
42 F4 167 3.581
42 F4 168 3.581
42 F4 169 3.581
42 F4 170 3.581
42 F4 171 3.092
42 F4 172 2.116
42 F4 173 1.628
42 F4 174 1.628
42 F4 175 1.628
42 F4 176 1.139
42 F4 177 1.139
42 F4 178 1.628
42 F4 179 2.604
42 F4 180 4.069
42 F4 181 5.046
42 F4 182 5.534
42 F4 183 5.534
42 F4 184 5.046
42 F4 185 5.046
42 F4 186 5.534
42 F4 187 5.534
42 F4 188 5.534
42 F4 189 5.534
42 F4 190 5.046
42 F4 191 5.046
42 F4 192 5.534
42 F4 193 6.022
42 F4 194 6.999
42 F4 195 7.975
42 F4 196 8.952
42 F4 197 8.952
42 F4 198 8.952
42 F4 199 8.464
42 F4 200 8.464
42 F4 201 8.464
42 F4 202 8.464
42 F4 203 8.952
42 F4 204 8.952
42 F4 205 8.952
42 F4 206 8.464
42 F4 207 8.464
42 F4 208 7.487
42 F4 209 6.510
42 F4 210 6.022
42 F4 211 6.022
42 F4 212 6.510
42 F4 213 7.975
42 F4 214 9.440
42 F4 215 9.928
42 F4 216 9.440
42 F4 217 7.487
42 F4 218 6.510
42 F4 219 5.534
42 F4 220 5.534
42 F4 221 5.534
42 F4 222 5.534
42 F4 223 5.046
42 F4 224 4.557
42 F4 225 4.069
42 F4 226 5.046
42 F4 227 6.022
42 F4 228 6.999
42 F4 229 7.487
42 F4 230 6.999
42 F4 231 6.510
42 F4 232 6.022
42 F4 233 6.510
42 F4 234 7.975
42 F4 235 8.952
42 F4 236 8.952
42 F4 237 8.464
42 F4 238 7.975
42 F4 239 7.487
42 F4 240 7.487
42 F4 241 6.999
42 F4 242 6.510
42 F4 243 5.534
42 F4 244 4.069
42 F4 245 2.604
42 F4 246 2.116
42 F4 247 2.116
42 F4 248 2.116
42 F4 249 2.116
42 F4 250 1.628
42 F4 251 1.628
42 F4 252 2.604
42 F4 253 2.604
42 F4 254 3.581
42 F4 255 4.069
# F3 chan 8
42 F3 0 3.560
42 F3 1 4.049
42 F3 2 4.537
42 F3 3 5.025
42 F3 4 5.025
42 F3 5 5.025
42 F3 6 5.025
42 F3 7 5.514
42 F3 8 6.002
42 F3 9 6.490
42 F3 10 6.978
42 F3 11 6.978
42 F3 12 6.978
42 F3 13 7.467
42 F3 14 7.955
42 F3 15 8.443
42 F3 16 8.931
42 F3 17 9.420
42 F3 18 9.908
42 F3 19 9.908
42 F3 20 9.420
42 F3 21 8.931
42 F3 22 8.931
42 F3 23 8.931
42 F3 24 9.908
42 F3 25 10.396
42 F3 26 9.908
42 F3 27 8.931
42 F3 28 7.955
42 F3 29 6.978
42 F3 30 6.490
42 F3 31 6.978
42 F3 32 7.467
42 F3 33 7.955
42 F3 34 8.443
42 F3 35 8.931
42 F3 36 8.931
42 F3 37 8.443
42 F3 38 7.467
42 F3 39 6.490
42 F3 40 6.490
42 F3 41 6.978
42 F3 42 7.467
42 F3 43 8.931
42 F3 44 9.420
42 F3 45 9.908
42 F3 46 9.420
42 F3 47 8.931
42 F3 48 8.931
42 F3 49 8.443
42 F3 50 7.955
42 F3 51 7.955
42 F3 52 7.955
42 F3 53 8.443
42 F3 54 8.443
42 F3 55 8.931
42 F3 56 9.908
42 F3 57 10.396
42 F3 58 10.885
42 F3 59 11.373
42 F3 60 11.373
42 F3 61 10.885
42 F3 62 10.396
42 F3 63 9.908
42 F3 64 9.420
42 F3 65 8.443
42 F3 66 7.467
42 F3 67 6.490
42 F3 68 5.514
42 F3 69 4.537
42 F3 70 3.560
42 F3 71 3.072
42 F3 72 2.584
42 F3 73 1.607
42 F3 74 1.119
42 F3 75 1.119
42 F3 76 0.631
42 F3 77 0.142
42 F3 78 -0.834
42 F3 79 -0.834
42 F3 80 -0.834
42 F3 81 -0.834
42 F3 82 -0.346
42 F3 83 0.142
42 F3 84 0.631
42 F3 85 1.119
42 F3 86 2.096
42 F3 87 4.049
42 F3 88 6.002
42 F3 89 7.467
42 F3 90 7.955
42 F3 91 6.490
42 F3 92 5.025
42 F3 93 3.072
42 F3 94 1.607
42 F3 95 1.119
42 F3 96 0.631
42 F3 97 0.631
42 F3 98 0.142
42 F3 99 0.142
42 F3 100 0.142
42 F3 101 0.631
42 F3 102 1.119
42 F3 103 2.584
42 F3 104 3.560
42 F3 105 5.025
42 F3 106 6.002
42 F3 107 6.490
42 F3 108 7.467
42 F3 109 6.978
42 F3 110 6.978
42 F3 111 6.978
42 F3 112 6.978
42 F3 113 6.978
42 F3 114 7.955
42 F3 115 7.955
42 F3 116 7.467
42 F3 117 6.490
42 F3 118 5.025
42 F3 119 4.049
42 F3 120 3.560
42 F3 121 3.072
42 F3 122 2.096
42 F3 123 1.119
42 F3 124 -0.346
42 F3 125 -0.834
42 F3 126 -0.834
42 F3 127 -0.346
42 F3 128 0.631
42 F3 129 0.631
42 F3 130 0.631
42 F3 131 0.631
42 F3 132 0.631
42 F3 133 1.119
42 F3 134 1.119
42 F3 135 2.096
42 F3 136 2.584
42 F3 137 3.072
42 F3 138 3.560
42 F3 139 3.072
42 F3 140 2.584
42 F3 141 1.607
42 F3 142 0.631
42 F3 143 -0.346
42 F3 144 -1.322
42 F3 145 -1.811
42 F3 146 -1.811
42 F3 147 -0.834
42 F3 148 0.631
42 F3 149 2.096
42 F3 150 2.584
42 F3 151 2.584
42 F3 152 2.584
42 F3 153 2.096
42 F3 154 3.072
42 F3 155 4.049
42 F3 156 5.514
42 F3 157 6.002
42 F3 158 6.490
42 F3 159 6.490
42 F3 160 7.955
42 F3 161 8.931
42 F3 162 9.420
42 F3 163 8.931
42 F3 164 8.443
42 F3 165 6.490
42 F3 166 5.514
42 F3 167 5.025
42 F3 168 5.025
42 F3 169 5.025
42 F3 170 5.025
42 F3 171 4.049
42 F3 172 3.560
42 F3 173 3.072
42 F3 174 2.584
42 F3 175 2.584
42 F3 176 2.584
42 F3 177 3.072
42 F3 178 3.560
42 F3 179 5.025
42 F3 180 6.002
42 F3 181 7.467
42 F3 182 7.955
42 F3 183 8.443
42 F3 184 8.931
42 F3 185 9.420
42 F3 186 10.396
42 F3 187 10.396
42 F3 188 10.885
42 F3 189 10.396
42 F3 190 9.908
42 F3 191 9.420
42 F3 192 8.931
42 F3 193 8.443
42 F3 194 8.931
42 F3 195 8.931
42 F3 196 9.420
42 F3 197 9.908
42 F3 198 9.420
42 F3 199 8.931
42 F3 200 8.443
42 F3 201 7.467
42 F3 202 6.978
42 F3 203 6.490
42 F3 204 6.490
42 F3 205 6.490
42 F3 206 6.978
42 F3 207 7.955
42 F3 208 8.443
42 F3 209 9.420
42 F3 210 9.908
42 F3 211 10.396
42 F3 212 10.885
42 F3 213 11.861
42 F3 214 12.838
42 F3 215 12.838
42 F3 216 12.349
42 F3 217 11.373
42 F3 218 10.396
42 F3 219 9.908
42 F3 220 9.420
42 F3 221 8.931
42 F3 222 7.955
42 F3 223 6.978
42 F3 224 6.490
42 F3 225 6.978
42 F3 226 8.443
42 F3 227 9.420
42 F3 228 9.908
42 F3 229 9.908
42 F3 230 9.420
42 F3 231 9.420
42 F3 232 9.908
42 F3 233 10.396
42 F3 234 10.885
42 F3 235 11.373
42 F3 236 11.373
42 F3 237 11.373
42 F3 238 11.373
42 F3 239 10.885
42 F3 240 10.396
42 F3 241 9.420
42 F3 242 7.955
42 F3 243 6.978
42 F3 244 6.490
42 F3 245 6.002
42 F3 246 6.490
42 F3 247 6.978
42 F3 248 6.978
42 F3 249 6.978
42 F3 250 7.467
42 F3 251 8.443
42 F3 252 8.931
42 F3 253 8.931
42 F3 254 8.443
42 F3 255 7.955
# FC6 chan 9
42 FC6 0 -2.380
42 FC6 1 -0.916
42 FC6 2 1.038
42 FC6 3 2.502
42 FC6 4 3.479
42 FC6 5 2.991
42 FC6 6 2.014
42 FC6 7 1.526
42 FC6 8 1.526
42 FC6 9 2.014
42 FC6 10 2.991
42 FC6 11 3.967
42 FC6 12 4.944
42 FC6 13 4.944
42 FC6 14 4.944
42 FC6 15 4.456
42 FC6 16 3.967
42 FC6 17 3.479
42 FC6 18 3.479
42 FC6 19 3.479
42 FC6 20 3.967
42 FC6 21 3.967
42 FC6 22 4.944
42 FC6 23 5.920
42 FC6 24 6.409
42 FC6 25 7.385
42 FC6 26 7.874
42 FC6 27 7.385
42 FC6 28 6.897
42 FC6 29 6.897
42 FC6 30 6.897
42 FC6 31 7.385
42 FC6 32 7.874
42 FC6 33 7.385
42 FC6 34 6.897
42 FC6 35 5.920
42 FC6 36 5.432
42 FC6 37 4.456
42 FC6 38 2.502
42 FC6 39 1.038
42 FC6 40 -0.427
42 FC6 41 -0.916
42 FC6 42 -0.427
42 FC6 43 0.061
42 FC6 44 1.526
42 FC6 45 2.991
42 FC6 46 3.967
42 FC6 47 4.944
42 FC6 48 5.920
42 FC6 49 6.897
42 FC6 50 7.385
42 FC6 51 7.874
42 FC6 52 7.874
42 FC6 53 7.874
42 FC6 54 8.362
42 FC6 55 8.362
42 FC6 56 8.362
42 FC6 57 8.362
42 FC6 58 7.874
42 FC6 59 7.385
42 FC6 60 6.897
42 FC6 61 7.385
42 FC6 62 7.874
42 FC6 63 7.874
42 FC6 64 7.385
42 FC6 65 5.920
42 FC6 66 4.456
42 FC6 67 2.502
42 FC6 68 1.038
42 FC6 69 0.061
42 FC6 70 -0.427
42 FC6 71 -0.916
42 FC6 72 -0.427
42 FC6 73 0.061
42 FC6 74 1.038
42 FC6 75 2.014
42 FC6 76 2.991
42 FC6 77 2.991
42 FC6 78 2.991
42 FC6 79 3.479
42 FC6 80 3.479
42 FC6 81 3.479
42 FC6 82 3.479
42 FC6 83 3.479
42 FC6 84 2.991
42 FC6 85 2.991
42 FC6 86 2.014
42 FC6 87 2.014
42 FC6 88 2.014
42 FC6 89 1.526
42 FC6 90 1.038
42 FC6 91 1.038
42 FC6 92 1.038
42 FC6 93 0.549
42 FC6 94 0.061
42 FC6 95 0.061
42 FC6 96 -0.427
42 FC6 97 -0.916
42 FC6 98 -0.916
42 FC6 99 -0.916
42 FC6 100 -0.916
42 FC6 101 -0.916
42 FC6 102 -0.427
42 FC6 103 0.549
42 FC6 104 2.502
42 FC6 105 4.944
42 FC6 106 6.897
42 FC6 107 8.362
42 FC6 108 8.362
42 FC6 109 7.385
42 FC6 110 6.409
42 FC6 111 5.920
42 FC6 112 6.409
42 FC6 113 6.897
42 FC6 114 7.874
42 FC6 115 7.874
42 FC6 116 6.897
42 FC6 117 6.409
42 FC6 118 5.920
42 FC6 119 5.432
42 FC6 120 4.944
42 FC6 121 4.456
42 FC6 122 2.991
42 FC6 123 1.526
42 FC6 124 -0.427
42 FC6 125 -1.892
42 FC6 126 -2.869
42 FC6 127 -3.845
42 FC6 128 -4.333
42 FC6 129 -4.333
42 FC6 130 -3.845
42 FC6 131 -3.357
42 FC6 132 -2.869
42 FC6 133 -2.869
42 FC6 134 -2.380
42 FC6 135 -1.892
42 FC6 136 -0.916
42 FC6 137 0.061
42 FC6 138 0.549
42 FC6 139 1.038
42 FC6 140 1.526
42 FC6 141 2.014
42 FC6 142 2.502
42 FC6 143 2.014
42 FC6 144 0.549
42 FC6 145 -0.916
42 FC6 146 -2.380
42 FC6 147 -2.380
42 FC6 148 -1.892
42 FC6 149 -1.404
42 FC6 150 -0.916
42 FC6 151 -1.404
42 FC6 152 -1.892
42 FC6 153 -1.892
42 FC6 154 -1.404
42 FC6 155 -0.427
42 FC6 156 0.549
42 FC6 157 1.038
42 FC6 158 1.038
42 FC6 159 1.526
42 FC6 160 2.014
42 FC6 161 2.502
42 FC6 162 3.479
42 FC6 163 3.967
42 FC6 164 2.991
42 FC6 165 2.014
42 FC6 166 1.038
42 FC6 167 0.061
42 FC6 168 -0.427
42 FC6 169 -0.916
42 FC6 170 -0.916
42 FC6 171 -1.892
42 FC6 172 -2.869
42 FC6 173 -3.845
42 FC6 174 -4.822
42 FC6 175 -5.310
42 FC6 176 -5.310
42 FC6 177 -5.310
42 FC6 178 -4.822
42 FC6 179 -3.357
42 FC6 180 -1.892
42 FC6 181 -1.404
42 FC6 182 -0.916
42 FC6 183 -1.404
42 FC6 184 -1.404
42 FC6 185 -0.916
42 FC6 186 -0.427
42 FC6 187 -0.916
42 FC6 188 -0.916
42 FC6 189 -1.404
42 FC6 190 -0.916
42 FC6 191 -0.427
42 FC6 192 0.549
42 FC6 193 2.014
42 FC6 194 2.991
42 FC6 195 3.967
42 FC6 196 4.456
42 FC6 197 4.456
42 FC6 198 4.456
42 FC6 199 4.456
42 FC6 200 4.944
42 FC6 201 5.432
42 FC6 202 4.944
42 FC6 203 4.944
42 FC6 204 4.456
42 FC6 205 3.967
42 FC6 206 3.479
42 FC6 207 3.479
42 FC6 208 2.991
42 FC6 209 2.991
42 FC6 210 2.991
42 FC6 211 3.967
42 FC6 212 4.944
42 FC6 213 6.897
42 FC6 214 7.874
42 FC6 215 7.874
42 FC6 216 7.385
42 FC6 217 6.409
42 FC6 218 5.920
42 FC6 219 5.920
42 FC6 220 6.409
42 FC6 221 5.920
42 FC6 222 4.944
42 FC6 223 3.967
42 FC6 224 3.967
42 FC6 225 3.967
42 FC6 226 4.456
42 FC6 227 4.944
42 FC6 228 4.944
42 FC6 229 3.479
42 FC6 230 2.014
42 FC6 231 1.038
42 FC6 232 0.549
42 FC6 233 1.526
42 FC6 234 2.502
42 FC6 235 3.967
42 FC6 236 4.456
42 FC6 237 4.456
42 FC6 238 3.967
42 FC6 239 3.479
42 FC6 240 3.479
42 FC6 241 3.479
42 FC6 242 2.991
42 FC6 243 2.502
42 FC6 244 1.038
42 FC6 245 0.061
42 FC6 246 0.061
42 FC6 247 0.061
42 FC6 248 -0.427
42 FC6 249 -0.916
42 FC6 250 -1.892
42 FC6 251 -1.892
42 FC6 252 -1.892
42 FC6 253 -0.916
42 FC6 254 0.061
42 FC6 255 1.038
# FC5 chan 10
42 FC5 0 4.191
42 FC5 1 4.191
42 FC5 2 5.168
42 FC5 3 6.144
42 FC5 4 7.121
42 FC5 5 7.609
42 FC5 6 8.097
42 FC5 7 8.097
42 FC5 8 8.097
42 FC5 9 8.097
42 FC5 10 9.074
42 FC5 11 10.050
42 FC5 12 10.050
42 FC5 13 10.050
42 FC5 14 9.562
42 FC5 15 9.562
42 FC5 16 9.074
42 FC5 17 9.074
42 FC5 18 8.586
42 FC5 19 7.609
42 FC5 20 6.632
42 FC5 21 6.144
42 FC5 22 6.144
42 FC5 23 7.609
42 FC5 24 9.074
42 FC5 25 10.050
42 FC5 26 9.562
42 FC5 27 8.097
42 FC5 28 7.121
42 FC5 29 6.632
42 FC5 30 6.632
42 FC5 31 7.121
42 FC5 32 7.121
42 FC5 33 7.609
42 FC5 34 8.097
42 FC5 35 9.562
42 FC5 36 10.539
42 FC5 37 11.027
42 FC5 38 11.515
42 FC5 39 11.027
42 FC5 40 10.050
42 FC5 41 10.050
42 FC5 42 10.539
42 FC5 43 11.515
42 FC5 44 11.515
42 FC5 45 10.050
42 FC5 46 8.097
42 FC5 47 6.144
42 FC5 48 5.168
42 FC5 49 4.679
42 FC5 50 4.679
42 FC5 51 5.168
42 FC5 52 5.656
42 FC5 53 5.656
42 FC5 54 5.656
42 FC5 55 6.144
42 FC5 56 7.121
42 FC5 57 8.586
42 FC5 58 9.562
42 FC5 59 9.562
42 FC5 60 9.074
42 FC5 61 9.074
42 FC5 62 9.074
42 FC5 63 9.074
42 FC5 64 9.074
42 FC5 65 8.586
42 FC5 66 7.121
42 FC5 67 6.144
42 FC5 68 5.656
42 FC5 69 5.656
42 FC5 70 5.656
42 FC5 71 5.656
42 FC5 72 5.168
42 FC5 73 4.679
42 FC5 74 3.703
42 FC5 75 3.215
42 FC5 76 2.726
42 FC5 77 1.750
42 FC5 78 0.773
42 FC5 79 -0.203
42 FC5 80 -0.692
42 FC5 81 -0.203
42 FC5 82 1.261
42 FC5 83 2.238
42 FC5 84 2.726
42 FC5 85 3.215
42 FC5 86 4.191
42 FC5 87 5.656
42 FC5 88 8.097
42 FC5 89 9.562
42 FC5 90 9.562
42 FC5 91 8.097
42 FC5 92 5.656
42 FC5 93 4.191
42 FC5 94 3.215
42 FC5 95 3.703
42 FC5 96 3.703
42 FC5 97 3.215
42 FC5 98 2.726
42 FC5 99 2.238
42 FC5 100 3.215
42 FC5 101 4.191
42 FC5 102 5.656
42 FC5 103 7.121
42 FC5 104 7.609
42 FC5 105 8.097
42 FC5 106 8.586
42 FC5 107 9.562
42 FC5 108 11.027
42 FC5 109 11.515
42 FC5 110 11.515
42 FC5 111 11.027
42 FC5 112 10.050
42 FC5 113 10.050
42 FC5 114 10.539
42 FC5 115 10.050
42 FC5 116 9.562
42 FC5 117 8.097
42 FC5 118 7.121
42 FC5 119 6.144
42 FC5 120 5.168
42 FC5 121 4.679
42 FC5 122 4.191
42 FC5 123 2.726
42 FC5 124 1.750
42 FC5 125 1.261
42 FC5 126 2.726
42 FC5 127 4.191
42 FC5 128 5.656
42 FC5 129 6.632
42 FC5 130 7.121
42 FC5 131 7.121
42 FC5 132 7.609
42 FC5 133 7.609
42 FC5 134 8.586
42 FC5 135 9.074
42 FC5 136 9.562
42 FC5 137 9.562
42 FC5 138 8.097
42 FC5 139 6.632
42 FC5 140 5.168
42 FC5 141 3.703
42 FC5 142 2.726
42 FC5 143 1.261
42 FC5 144 -0.203
42 FC5 145 -1.180
42 FC5 146 -1.180
42 FC5 147 -0.203
42 FC5 148 1.261
42 FC5 149 2.238
42 FC5 150 2.238
42 FC5 151 1.750
42 FC5 152 0.773
42 FC5 153 0.773
42 FC5 154 1.750
42 FC5 155 2.726
42 FC5 156 3.703
42 FC5 157 4.191
42 FC5 158 4.191
42 FC5 159 4.679
42 FC5 160 5.168
42 FC5 161 6.144
42 FC5 162 6.632
42 FC5 163 6.632
42 FC5 164 6.144
42 FC5 165 5.168
42 FC5 166 4.191
42 FC5 167 3.703
42 FC5 168 4.191
42 FC5 169 4.191
42 FC5 170 3.703
42 FC5 171 3.215
42 FC5 172 2.238
42 FC5 173 0.773
42 FC5 174 -0.203
42 FC5 175 -0.692
42 FC5 176 -0.692
42 FC5 177 0.285
42 FC5 178 1.750
42 FC5 179 3.215
42 FC5 180 5.168
42 FC5 181 6.632
42 FC5 182 7.609
42 FC5 183 8.097
42 FC5 184 9.074
42 FC5 185 10.050
42 FC5 186 11.027
42 FC5 187 11.515
42 FC5 188 11.515
42 FC5 189 11.027
42 FC5 190 10.050
42 FC5 191 9.562
42 FC5 192 9.562
42 FC5 193 9.562
42 FC5 194 9.562
42 FC5 195 9.562
42 FC5 196 9.562
42 FC5 197 9.562
42 FC5 198 9.074
42 FC5 199 9.074
42 FC5 200 8.097
42 FC5 201 7.121
42 FC5 202 6.632
42 FC5 203 6.144
42 FC5 204 6.632
42 FC5 205 7.121
42 FC5 206 7.609
42 FC5 207 8.586
42 FC5 208 9.562
42 FC5 209 11.027
42 FC5 210 12.004
42 FC5 211 13.468
42 FC5 212 14.445
42 FC5 213 15.422
42 FC5 214 15.910
42 FC5 215 15.910
42 FC5 216 15.422
42 FC5 217 14.933
42 FC5 218 14.445
42 FC5 219 14.445
42 FC5 220 13.957
42 FC5 221 12.980
42 FC5 222 12.004
42 FC5 223 10.539
42 FC5 224 10.050
42 FC5 225 10.539
42 FC5 226 11.515
42 FC5 227 12.492
42 FC5 228 12.492
42 FC5 229 12.004
42 FC5 230 11.515
42 FC5 231 10.539
42 FC5 232 10.050
42 FC5 233 10.050
42 FC5 234 9.562
42 FC5 235 9.562
42 FC5 236 9.562
42 FC5 237 9.562
42 FC5 238 9.562
42 FC5 239 9.562
42 FC5 240 9.562
42 FC5 241 8.586
42 FC5 242 8.097
42 FC5 243 8.097
42 FC5 244 9.074
42 FC5 245 9.562
42 FC5 246 10.539
42 FC5 247 10.539
42 FC5 248 11.027
42 FC5 249 11.515
42 FC5 250 12.492
42 FC5 251 13.468
42 FC5 252 14.445
42 FC5 253 13.957
42 FC5 254 12.492
42 FC5 255 11.027
# FC2 chan 11
42 FC2 0 -0.041
42 FC2 1 0.448
42 FC2 2 0.936
42 FC2 3 0.936
42 FC2 4 0.936
42 FC2 5 0.936
42 FC2 6 0.448
42 FC2 7 0.448
42 FC2 8 0.448
42 FC2 9 0.448
42 FC2 10 0.936
42 FC2 11 1.424
42 FC2 12 1.424
42 FC2 13 1.912
42 FC2 14 2.401
42 FC2 15 2.401
42 FC2 16 2.889
42 FC2 17 3.377
42 FC2 18 3.866
42 FC2 19 3.866
42 FC2 20 3.866
42 FC2 21 3.377
42 FC2 22 3.377
42 FC2 23 3.377
42 FC2 24 3.866
42 FC2 25 4.354
42 FC2 26 3.866
42 FC2 27 3.866
42 FC2 28 2.889
42 FC2 29 2.889
42 FC2 30 2.889
42 FC2 31 2.889
42 FC2 32 3.377
42 FC2 33 3.377
42 FC2 34 3.377
42 FC2 35 2.889
42 FC2 36 1.912
42 FC2 37 0.936
42 FC2 38 0.448
42 FC2 39 -0.041
42 FC2 40 -0.529
42 FC2 41 -0.041
42 FC2 42 -0.041
42 FC2 43 0.448
42 FC2 44 1.424
42 FC2 45 1.912
42 FC2 46 2.889
42 FC2 47 4.354
42 FC2 48 4.842
42 FC2 49 5.330
42 FC2 50 5.819
42 FC2 51 5.819
42 FC2 52 6.307
42 FC2 53 6.795
42 FC2 54 7.284
42 FC2 55 7.284
42 FC2 56 7.284
42 FC2 57 7.284
42 FC2 58 7.284
42 FC2 59 6.795
42 FC2 60 6.795
42 FC2 61 6.307
42 FC2 62 5.819
42 FC2 63 5.330
42 FC2 64 5.330
42 FC2 65 4.842
42 FC2 66 4.354
42 FC2 67 3.866
42 FC2 68 2.401
42 FC2 69 1.424
42 FC2 70 -0.041
42 FC2 71 -0.041
42 FC2 72 -0.529
42 FC2 73 -0.041
42 FC2 74 0.448
42 FC2 75 0.936
42 FC2 76 0.936
42 FC2 77 0.936
42 FC2 78 0.448
42 FC2 79 0.448
42 FC2 80 0.936
42 FC2 81 1.424
42 FC2 82 1.424
42 FC2 83 1.424
42 FC2 84 1.424
42 FC2 85 1.424
42 FC2 86 0.936
42 FC2 87 0.936
42 FC2 88 1.424
42 FC2 89 1.424
42 FC2 90 1.424
42 FC2 91 1.424
42 FC2 92 0.936
42 FC2 93 0.936
42 FC2 94 0.448
42 FC2 95 0.448
42 FC2 96 -0.041
42 FC2 97 -0.529
42 FC2 98 -1.017
42 FC2 99 -1.017
42 FC2 100 -1.017
42 FC2 101 -1.017
42 FC2 102 -0.529
42 FC2 103 0.448
42 FC2 104 1.912
42 FC2 105 3.377
42 FC2 106 4.354
42 FC2 107 4.842
42 FC2 108 4.354
42 FC2 109 3.377
42 FC2 110 2.889
42 FC2 111 2.889
42 FC2 112 2.889
42 FC2 113 3.866
42 FC2 114 4.354
42 FC2 115 4.842
42 FC2 116 4.842
42 FC2 117 4.354
42 FC2 118 3.866
42 FC2 119 3.377
42 FC2 120 2.889
42 FC2 121 2.401
42 FC2 122 1.912
42 FC2 123 0.936
42 FC2 124 -0.041
42 FC2 125 -1.017
42 FC2 126 -2.482
42 FC2 127 -2.970
42 FC2 128 -3.459
42 FC2 129 -3.459
42 FC2 130 -2.970
42 FC2 131 -2.970
42 FC2 132 -2.482
42 FC2 133 -2.970
42 FC2 134 -2.482
42 FC2 135 -2.482
42 FC2 136 -1.506
42 FC2 137 -1.017
42 FC2 138 -0.041
42 FC2 139 0.448
42 FC2 140 0.936
42 FC2 141 1.424
42 FC2 142 1.424
42 FC2 143 1.424
42 FC2 144 0.936
42 FC2 145 0.448
42 FC2 146 -0.529
42 FC2 147 -0.529
42 FC2 148 -0.529
42 FC2 149 -0.041
42 FC2 150 -0.041
42 FC2 151 -0.041
42 FC2 152 -0.041
42 FC2 153 -0.041
42 FC2 154 -0.041
42 FC2 155 0.448
42 FC2 156 0.448
42 FC2 157 1.424
42 FC2 158 1.424
42 FC2 159 1.912
42 FC2 160 2.401
42 FC2 161 2.401
42 FC2 162 2.401
42 FC2 163 1.912
42 FC2 164 1.424
42 FC2 165 0.448
42 FC2 166 0.448
42 FC2 167 -0.041
42 FC2 168 0.448
42 FC2 169 0.448
42 FC2 170 -0.041
42 FC2 171 -0.041
42 FC2 172 -0.529
42 FC2 173 -0.529
42 FC2 174 -0.529
42 FC2 175 -0.529
42 FC2 176 -0.529
42 FC2 177 -0.041
42 FC2 178 -0.041
42 FC2 179 0.448
42 FC2 180 0.936
42 FC2 181 0.936
42 FC2 182 1.424
42 FC2 183 1.424
42 FC2 184 1.424
42 FC2 185 1.424
42 FC2 186 1.424
42 FC2 187 1.424
42 FC2 188 0.936
42 FC2 189 0.448
42 FC2 190 0.448
42 FC2 191 -0.041
42 FC2 192 -0.041
42 FC2 193 0.448
42 FC2 194 1.424
42 FC2 195 1.912
42 FC2 196 2.889
42 FC2 197 2.889
42 FC2 198 2.889
42 FC2 199 2.889
42 FC2 200 2.889
42 FC2 201 2.889
42 FC2 202 2.889
42 FC2 203 2.889
42 FC2 204 2.889
42 FC2 205 2.889
42 FC2 206 2.401
42 FC2 207 2.401
42 FC2 208 1.912
42 FC2 209 1.424
42 FC2 210 1.424
42 FC2 211 0.936
42 FC2 212 1.424
42 FC2 213 1.912
42 FC2 214 1.912
42 FC2 215 1.912
42 FC2 216 1.912
42 FC2 217 1.912
42 FC2 218 1.424
42 FC2 219 1.424
42 FC2 220 1.424
42 FC2 221 0.936
42 FC2 222 0.448
42 FC2 223 0.448
42 FC2 224 0.448
42 FC2 225 0.448
42 FC2 226 1.912
42 FC2 227 2.401
42 FC2 228 2.889
42 FC2 229 2.889
42 FC2 230 2.401
42 FC2 231 1.912
42 FC2 232 1.424
42 FC2 233 1.912
42 FC2 234 2.401
42 FC2 235 3.377
42 FC2 236 3.866
42 FC2 237 3.866
42 FC2 238 3.377
42 FC2 239 3.377
42 FC2 240 3.377
42 FC2 241 2.889
42 FC2 242 2.401
42 FC2 243 1.912
42 FC2 244 0.448
42 FC2 245 -0.041
42 FC2 246 -0.041
42 FC2 247 -0.041
42 FC2 248 -0.041
42 FC2 249 -0.041
42 FC2 250 -0.529
42 FC2 251 -0.529
42 FC2 252 -0.529
42 FC2 253 -0.529
42 FC2 254 0.448
42 FC2 255 0.936
# FC1 chan 12
42 FC1 0 1.495
42 FC1 1 1.495
42 FC1 2 1.495
42 FC1 3 1.984
42 FC1 4 1.495
42 FC1 5 1.495
42 FC1 6 1.495
42 FC1 7 1.495
42 FC1 8 1.495
42 FC1 9 1.495
42 FC1 10 1.495
42 FC1 11 1.495
42 FC1 12 1.495
42 FC1 13 1.495
42 FC1 14 1.984
42 FC1 15 2.472
42 FC1 16 2.960
42 FC1 17 3.448
42 FC1 18 3.937
42 FC1 19 3.937
42 FC1 20 3.937
42 FC1 21 3.448
42 FC1 22 2.960
42 FC1 23 2.472
42 FC1 24 2.472
42 FC1 25 2.472
42 FC1 26 2.472
42 FC1 27 1.495
42 FC1 28 1.495
42 FC1 29 1.007
42 FC1 30 1.007
42 FC1 31 1.007
42 FC1 32 1.007
42 FC1 33 1.007
42 FC1 34 1.007
42 FC1 35 1.007
42 FC1 36 1.495
42 FC1 37 1.007
42 FC1 38 1.007
42 FC1 39 0.519
42 FC1 40 0.519
42 FC1 41 0.519
42 FC1 42 1.495
42 FC1 43 1.984
42 FC1 44 2.472
42 FC1 45 2.472
42 FC1 46 2.472
42 FC1 47 2.472
42 FC1 48 2.472
42 FC1 49 2.472
42 FC1 50 2.472
42 FC1 51 2.472
42 FC1 52 2.472
42 FC1 53 2.960
42 FC1 54 2.960
42 FC1 55 3.448
42 FC1 56 3.937
42 FC1 57 4.425
42 FC1 58 4.425
42 FC1 59 4.425
42 FC1 60 4.913
42 FC1 61 4.913
42 FC1 62 4.913
42 FC1 63 4.425
42 FC1 64 4.425
42 FC1 65 3.937
42 FC1 66 3.937
42 FC1 67 2.960
42 FC1 68 2.472
42 FC1 69 1.984
42 FC1 70 1.007
42 FC1 71 0.519
42 FC1 72 -0.458
42 FC1 73 -0.946
42 FC1 74 -0.946
42 FC1 75 -0.946
42 FC1 76 -0.946
42 FC1 77 -1.434
42 FC1 78 -1.923
42 FC1 79 -2.411
42 FC1 80 -2.411
42 FC1 81 -2.411
42 FC1 82 -1.923
42 FC1 83 -1.434
42 FC1 84 -1.434
42 FC1 85 -0.946
42 FC1 86 -0.946
42 FC1 87 0.031
42 FC1 88 1.495
42 FC1 89 2.472
42 FC1 90 2.960
42 FC1 91 2.472
42 FC1 92 1.495
42 FC1 93 0.031
42 FC1 94 -0.458
42 FC1 95 -1.434
42 FC1 96 -1.434
42 FC1 97 -1.923
42 FC1 98 -1.923
42 FC1 99 -2.411
42 FC1 100 -2.411
42 FC1 101 -2.411
42 FC1 102 -1.923
42 FC1 103 -0.946
42 FC1 104 0.031
42 FC1 105 0.519
42 FC1 106 1.007
42 FC1 107 1.007
42 FC1 108 1.495
42 FC1 109 1.495
42 FC1 110 1.495
42 FC1 111 1.984
42 FC1 112 2.472
42 FC1 113 2.472
42 FC1 114 2.472
42 FC1 115 2.472
42 FC1 116 2.472
42 FC1 117 1.984
42 FC1 118 1.007
42 FC1 119 0.519
42 FC1 120 0.031
42 FC1 121 -0.946
42 FC1 122 -1.434
42 FC1 123 -1.434
42 FC1 124 -1.923
42 FC1 125 -1.923
42 FC1 126 -1.923
42 FC1 127 -1.923
42 FC1 128 -1.923
42 FC1 129 -1.434
42 FC1 130 -1.434
42 FC1 131 -1.434
42 FC1 132 -1.434
42 FC1 133 -1.434
42 FC1 134 -1.434
42 FC1 135 -0.946
42 FC1 136 -0.458
42 FC1 137 0.519
42 FC1 138 0.519
42 FC1 139 0.519
42 FC1 140 0.519
42 FC1 141 0.031
42 FC1 142 -0.458
42 FC1 143 -0.946
42 FC1 144 -1.434
42 FC1 145 -1.923
42 FC1 146 -2.411
42 FC1 147 -1.923
42 FC1 148 -1.434
42 FC1 149 -0.458
42 FC1 150 0.519
42 FC1 151 0.519
42 FC1 152 0.519
42 FC1 153 0.031
42 FC1 154 0.031
42 FC1 155 0.519
42 FC1 156 0.519
42 FC1 157 1.007
42 FC1 158 1.495
42 FC1 159 1.984
42 FC1 160 2.472
42 FC1 161 2.472
42 FC1 162 2.472
42 FC1 163 2.472
42 FC1 164 1.984
42 FC1 165 1.007
42 FC1 166 0.519
42 FC1 167 0.519
42 FC1 168 0.519
42 FC1 169 0.519
42 FC1 170 0.519
42 FC1 171 0.031
42 FC1 172 0.031
42 FC1 173 -0.458
42 FC1 174 0.031
42 FC1 175 0.031
42 FC1 176 0.519
42 FC1 177 1.007
42 FC1 178 1.007
42 FC1 179 1.495
42 FC1 180 1.984
42 FC1 181 2.472
42 FC1 182 2.960
42 FC1 183 3.448
42 FC1 184 3.448
42 FC1 185 3.448
42 FC1 186 3.448
42 FC1 187 3.937
42 FC1 188 3.937
42 FC1 189 3.937
42 FC1 190 3.448
42 FC1 191 2.960
42 FC1 192 1.984
42 FC1 193 1.984
42 FC1 194 2.472
42 FC1 195 2.472
42 FC1 196 2.960
42 FC1 197 2.960
42 FC1 198 2.472
42 FC1 199 1.984
42 FC1 200 1.495
42 FC1 201 1.495
42 FC1 202 1.007
42 FC1 203 0.519
42 FC1 204 0.519
42 FC1 205 1.007
42 FC1 206 1.495
42 FC1 207 1.984
42 FC1 208 2.472
42 FC1 209 2.472
42 FC1 210 2.472
42 FC1 211 2.472
42 FC1 212 2.960
42 FC1 213 2.960
42 FC1 214 3.448
42 FC1 215 3.448
42 FC1 216 2.960
42 FC1 217 2.960
42 FC1 218 2.472
42 FC1 219 1.984
42 FC1 220 1.495
42 FC1 221 1.007
42 FC1 222 0.519
42 FC1 223 0.031
42 FC1 224 0.519
42 FC1 225 0.519
42 FC1 226 1.495
42 FC1 227 2.960
42 FC1 228 3.448
42 FC1 229 3.937
42 FC1 230 3.937
42 FC1 231 4.425
42 FC1 232 4.425
42 FC1 233 4.913
42 FC1 234 4.913
42 FC1 235 4.913
42 FC1 236 4.913
42 FC1 237 4.425
42 FC1 238 4.425
42 FC1 239 4.425
42 FC1 240 3.937
42 FC1 241 2.960
42 FC1 242 1.984
42 FC1 243 1.495
42 FC1 244 1.007
42 FC1 245 1.007
42 FC1 246 1.007
42 FC1 247 1.007
42 FC1 248 1.495
42 FC1 249 1.495
42 FC1 250 1.495
42 FC1 251 1.984
42 FC1 252 2.472
42 FC1 253 2.472
42 FC1 254 2.472
42 FC1 255 1.984
# T8 chan 13
42 T8 0 -2.950
42 T8 1 -1.485
42 T8 2 -0.020
42 T8 3 1.933
42 T8 4 2.909
42 T8 5 3.398
42 T8 6 3.886
42 T8 7 3.398
42 T8 8 3.886
42 T8 9 4.374
42 T8 10 4.862
42 T8 11 5.839
42 T8 12 6.327
42 T8 13 6.816
42 T8 14 6.327
42 T8 15 5.351
42 T8 16 4.374
42 T8 17 2.909
42 T8 18 1.933
42 T8 19 1.444
42 T8 20 0.956
42 T8 21 0.956
42 T8 22 2.421
42 T8 23 4.374
42 T8 24 6.816
42 T8 25 8.769
42 T8 26 8.769
42 T8 27 8.769
42 T8 28 8.769
42 T8 29 9.745
42 T8 30 10.722
42 T8 31 11.698
42 T8 32 11.210
42 T8 33 10.234
42 T8 34 9.745
42 T8 35 9.257
42 T8 36 8.769
42 T8 37 7.304
42 T8 38 4.862
42 T8 39 1.933
42 T8 40 -0.509
42 T8 41 -1.973
42 T8 42 -2.462
42 T8 43 -1.485
42 T8 44 -0.509
42 T8 45 -0.020
42 T8 46 -0.020
42 T8 47 0.468
42 T8 48 1.444
42 T8 49 2.421
42 T8 50 2.909
42 T8 51 2.909
42 T8 52 2.421
42 T8 53 1.933
42 T8 54 1.933
42 T8 55 2.421
42 T8 56 3.886
42 T8 57 4.862
42 T8 58 5.351
42 T8 59 5.351
42 T8 60 5.839
42 T8 61 6.327
42 T8 62 6.816
42 T8 63 6.816
42 T8 64 5.839
42 T8 65 3.886
42 T8 66 2.421
42 T8 67 1.933
42 T8 68 1.933
42 T8 69 2.421
42 T8 70 2.909
42 T8 71 2.421
42 T8 72 1.444
42 T8 73 1.444
42 T8 74 2.421
42 T8 75 4.374
42 T8 76 5.839
42 T8 77 6.327
42 T8 78 5.839
42 T8 79 4.862
42 T8 80 4.374
42 T8 81 4.374
42 T8 82 4.862
42 T8 83 5.351
42 T8 84 4.862
42 T8 85 3.886
42 T8 86 2.909
42 T8 87 2.909
42 T8 88 2.909
42 T8 89 3.886
42 T8 90 3.886
42 T8 91 3.398
42 T8 92 2.909
42 T8 93 2.909
42 T8 94 2.909
42 T8 95 2.909
42 T8 96 2.421
42 T8 97 1.444
42 T8 98 0.468
42 T8 99 -0.020
42 T8 100 -0.020
42 T8 101 0.468
42 T8 102 0.956
42 T8 103 1.444
42 T8 104 2.421
42 T8 105 3.886
42 T8 106 5.351
42 T8 107 6.816
42 T8 108 7.792
42 T8 109 8.280
42 T8 110 7.792
42 T8 111 7.792
42 T8 112 7.304
42 T8 113 7.792
42 T8 114 8.280
42 T8 115 9.257
42 T8 116 9.745
42 T8 117 10.234
42 T8 118 9.257
42 T8 119 7.304
42 T8 120 5.351
42 T8 121 3.886
42 T8 122 2.909
42 T8 123 1.933
42 T8 124 0.956
42 T8 125 -0.509
42 T8 126 -2.462
42 T8 127 -3.927
42 T8 128 -4.415
42 T8 129 -3.438
42 T8 130 -1.973
42 T8 131 -0.020
42 T8 132 0.468
42 T8 133 0.956
42 T8 134 1.933
42 T8 135 2.421
42 T8 136 2.909
42 T8 137 2.421
42 T8 138 2.421
42 T8 139 1.933
42 T8 140 1.444
42 T8 141 1.933
42 T8 142 2.421
42 T8 143 1.933
42 T8 144 0.956
42 T8 145 -0.509
42 T8 146 -1.485
42 T8 147 -1.973
42 T8 148 -1.973
42 T8 149 -2.462
42 T8 150 -3.927
42 T8 151 -5.880
42 T8 152 -7.345
42 T8 153 -7.833
42 T8 154 -6.856
42 T8 155 -5.391
42 T8 156 -3.927
42 T8 157 -3.438
42 T8 158 -2.950
42 T8 159 -1.485
42 T8 160 0.468
42 T8 161 1.933
42 T8 162 3.886
42 T8 163 3.398
42 T8 164 1.933
42 T8 165 -0.020
42 T8 166 -1.485
42 T8 167 -1.973
42 T8 168 -1.485
42 T8 169 -1.485
42 T8 170 -1.973
42 T8 171 -3.438
42 T8 172 -5.391
42 T8 173 -7.833
42 T8 174 -8.809
42 T8 175 -9.786
42 T8 176 -9.786
42 T8 177 -9.298
42 T8 178 -8.809
42 T8 179 -7.833
42 T8 180 -7.345
42 T8 181 -6.856
42 T8 182 -5.880
42 T8 183 -4.903
42 T8 184 -3.927
42 T8 185 -3.438
42 T8 186 -3.438
42 T8 187 -3.438
42 T8 188 -3.927
42 T8 189 -3.438
42 T8 190 -1.973
42 T8 191 -0.020
42 T8 192 1.444
42 T8 193 2.421
42 T8 194 2.909
42 T8 195 3.398
42 T8 196 3.886
42 T8 197 4.862
42 T8 198 4.862
42 T8 199 4.862
42 T8 200 4.862
42 T8 201 4.862
42 T8 202 4.862
42 T8 203 4.862
42 T8 204 3.886
42 T8 205 1.933
42 T8 206 0.956
42 T8 207 0.468
42 T8 208 1.444
42 T8 209 3.398
42 T8 210 5.351
42 T8 211 6.816
42 T8 212 8.280
42 T8 213 8.769
42 T8 214 9.745
42 T8 215 10.722
42 T8 216 11.210
42 T8 217 11.210
42 T8 218 10.722
42 T8 219 10.722
42 T8 220 10.234
42 T8 221 9.745
42 T8 222 8.769
42 T8 223 7.792
42 T8 224 6.327
42 T8 225 5.839
42 T8 226 6.327
42 T8 227 6.816
42 T8 228 6.816
42 T8 229 5.839
42 T8 230 3.886
42 T8 231 0.956
42 T8 232 -0.509
42 T8 233 -0.509
42 T8 234 0.956
42 T8 235 2.909
42 T8 236 4.374
42 T8 237 4.862
42 T8 238 4.862
42 T8 239 4.374
42 T8 240 4.374
42 T8 241 4.374
42 T8 242 3.886
42 T8 243 2.909
42 T8 244 1.444
42 T8 245 -0.020
42 T8 246 -0.509
42 T8 247 -0.020
42 T8 248 -0.020
42 T8 249 -0.997
42 T8 250 -1.973
42 T8 251 -2.462
42 T8 252 -1.485
42 T8 253 0.956
42 T8 254 2.909
42 T8 255 4.374
# T7 chan 14
42 T7 0 3.988
42 T7 1 4.964
42 T7 2 5.941
42 T7 3 7.406
42 T7 4 8.870
42 T7 5 9.847
42 T7 6 10.335
42 T7 7 9.847
42 T7 8 9.359
42 T7 9 8.870
42 T7 10 9.359
42 T7 11 10.335
42 T7 12 11.800
42 T7 13 11.800
42 T7 14 11.312
42 T7 15 9.847
42 T7 16 8.382
42 T7 17 7.406
42 T7 18 5.941
42 T7 19 4.964
42 T7 20 3.988
42 T7 21 3.499
42 T7 22 4.476
42 T7 23 5.941
42 T7 24 8.382
42 T7 25 10.335
42 T7 26 10.824
42 T7 27 10.335
42 T7 28 9.847
42 T7 29 9.359
42 T7 30 9.847
42 T7 31 9.847
42 T7 32 9.359
42 T7 33 9.359
42 T7 34 9.359
42 T7 35 10.824
42 T7 36 12.777
42 T7 37 15.218
42 T7 38 17.171
42 T7 39 17.171
42 T7 40 16.683
42 T7 41 15.706
42 T7 42 14.730
42 T7 43 13.753
42 T7 44 12.777
42 T7 45 10.824
42 T7 46 7.894
42 T7 47 4.476
42 T7 48 1.058
42 T7 49 -0.895
42 T7 50 -1.383
42 T7 51 -0.895
42 T7 52 0.081
42 T7 53 1.058
42 T7 54 1.546
42 T7 55 2.035
42 T7 56 3.499
42 T7 57 4.476
42 T7 58 5.941
42 T7 59 6.917
42 T7 60 6.917
42 T7 61 6.917
42 T7 62 7.406
42 T7 63 7.406
42 T7 64 7.894
42 T7 65 7.894
42 T7 66 7.894
42 T7 67 7.406
42 T7 68 7.406
42 T7 69 7.406
42 T7 70 7.894
42 T7 71 8.870
42 T7 72 8.870
42 T7 73 8.870
42 T7 74 8.382
42 T7 75 7.894
42 T7 76 6.917
42 T7 77 5.452
42 T7 78 3.988
42 T7 79 2.523
42 T7 80 1.546
42 T7 81 2.035
42 T7 82 3.011
42 T7 83 3.988
42 T7 84 4.964
42 T7 85 5.941
42 T7 86 6.429
42 T7 87 7.894
42 T7 88 10.335
42 T7 89 11.800
42 T7 90 12.777
42 T7 91 12.288
42 T7 92 10.824
42 T7 93 9.359
42 T7 94 8.382
42 T7 95 7.894
42 T7 96 6.917
42 T7 97 6.429
42 T7 98 5.452
42 T7 99 5.452
42 T7 100 5.941
42 T7 101 7.894
42 T7 102 9.847
42 T7 103 11.312
42 T7 104 12.288
42 T7 105 12.777
42 T7 106 12.777
42 T7 107 13.753
42 T7 108 15.218
42 T7 109 16.683
42 T7 110 17.171
42 T7 111 17.171
42 T7 112 16.195
42 T7 113 15.706
42 T7 114 14.730
42 T7 115 14.242
42 T7 116 13.265
42 T7 117 11.800
42 T7 118 10.824
42 T7 119 10.335
42 T7 120 9.847
42 T7 121 8.870
42 T7 122 7.894
42 T7 123 5.941
42 T7 124 4.476
42 T7 125 3.988
42 T7 126 5.452
42 T7 127 7.894
42 T7 128 9.847
42 T7 129 11.800
42 T7 130 12.777
42 T7 131 13.265
42 T7 132 13.753
42 T7 133 14.242
42 T7 134 15.218
42 T7 135 15.218
42 T7 136 14.730
42 T7 137 13.265
42 T7 138 11.800
42 T7 139 10.335
42 T7 140 8.382
42 T7 141 6.429
42 T7 142 4.476
42 T7 143 3.011
42 T7 144 1.058
42 T7 145 0.570
42 T7 146 0.570
42 T7 147 1.546
42 T7 148 2.523
42 T7 149 3.011
42 T7 150 2.523
42 T7 151 1.546
42 T7 152 0.081
42 T7 153 -0.407
42 T7 154 0.081
42 T7 155 1.058
42 T7 156 2.035
42 T7 157 3.011
42 T7 158 3.011
42 T7 159 3.011
42 T7 160 2.523
42 T7 161 3.011
42 T7 162 3.499
42 T7 163 3.988
42 T7 164 3.988
42 T7 165 3.499
42 T7 166 2.523
42 T7 167 2.035
42 T7 168 2.523
42 T7 169 2.035
42 T7 170 2.035
42 T7 171 0.570
42 T7 172 -0.895
42 T7 173 -2.848
42 T7 174 -3.825
42 T7 175 -4.801
42 T7 176 -4.313
42 T7 177 -3.825
42 T7 178 -2.848
42 T7 179 -0.895
42 T7 180 1.058
42 T7 181 3.011
42 T7 182 4.476
42 T7 183 5.452
42 T7 184 6.917
42 T7 185 8.382
42 T7 186 9.847
42 T7 187 11.312
42 T7 188 11.800
42 T7 189 11.312
42 T7 190 10.824
42 T7 191 9.847
42 T7 192 9.847
42 T7 193 10.335
42 T7 194 10.335
42 T7 195 10.335
42 T7 196 9.847
42 T7 197 9.847
42 T7 198 9.847
42 T7 199 9.359
42 T7 200 8.870
42 T7 201 8.382
42 T7 202 7.406
42 T7 203 7.406
42 T7 204 7.406
42 T7 205 8.382
42 T7 206 9.847
42 T7 207 10.824
42 T7 208 11.800
42 T7 209 13.265
42 T7 210 14.730
42 T7 211 16.683
42 T7 212 19.124
42 T7 213 20.589
42 T7 214 21.077
42 T7 215 21.077
42 T7 216 19.613
42 T7 217 19.124
42 T7 218 18.636
42 T7 219 18.636
42 T7 220 19.124
42 T7 221 18.636
42 T7 222 17.171
42 T7 223 15.218
42 T7 224 14.242
42 T7 225 13.753
42 T7 226 13.753
42 T7 227 14.242
42 T7 228 14.242
42 T7 229 13.753
42 T7 230 11.800
42 T7 231 10.335
42 T7 232 9.359
42 T7 233 8.382
42 T7 234 7.406
42 T7 235 6.917
42 T7 236 6.917
42 T7 237 6.917
42 T7 238 6.917
42 T7 239 7.406
42 T7 240 7.894
42 T7 241 7.894
42 T7 242 8.382
42 T7 243 9.359
42 T7 244 10.824
42 T7 245 12.777
42 T7 246 14.242
42 T7 247 15.706
42 T7 248 16.195
42 T7 249 16.683
42 T7 250 17.660
42 T7 251 18.636
42 T7 252 19.124
42 T7 253 18.636
42 T7 254 16.683
42 T7 255 14.242
# CZ chan 15
42 CZ 0 6.388
42 CZ 1 7.853
42 CZ 2 9.318
42 CZ 3 10.783
42 CZ 4 11.759
42 CZ 5 12.736
42 CZ 6 12.736
42 CZ 7 12.248
42 CZ 8 11.759
42 CZ 9 11.271
42 CZ 10 11.759
42 CZ 11 13.224
42 CZ 12 15.177
42 CZ 13 16.154
42 CZ 14 14.689
42 CZ 15 12.248
42 CZ 16 9.318
42 CZ 17 7.365
42 CZ 18 6.877
42 CZ 19 7.365
42 CZ 20 7.853
42 CZ 21 8.341
42 CZ 22 8.830
42 CZ 23 9.806
42 CZ 24 11.759
42 CZ 25 14.201
42 CZ 26 15.666
42 CZ 27 16.154
42 CZ 28 17.131
42 CZ 29 18.595
42 CZ 30 20.060
42 CZ 31 21.525
42 CZ 32 22.013
42 CZ 33 22.013
42 CZ 34 21.525
42 CZ 35 21.525
42 CZ 36 22.013
42 CZ 37 21.525
42 CZ 38 19.084
42 CZ 39 14.689
42 CZ 40 10.295
42 CZ 41 6.877
42 CZ 42 5.900
42 CZ 43 6.877
42 CZ 44 8.830
42 CZ 45 11.271
42 CZ 46 14.689
42 CZ 47 17.131
42 CZ 48 18.595
42 CZ 49 18.595
42 CZ 50 16.154
42 CZ 51 12.248
42 CZ 52 9.318
42 CZ 53 8.341
42 CZ 54 9.318
42 CZ 55 10.783
42 CZ 56 11.759
42 CZ 57 11.271
42 CZ 58 10.783
42 CZ 59 10.295
42 CZ 60 10.783
42 CZ 61 12.736
42 CZ 62 15.177
42 CZ 63 16.154
42 CZ 64 16.154
42 CZ 65 14.689
42 CZ 66 13.713
42 CZ 67 12.736
42 CZ 68 12.248
42 CZ 69 12.248
42 CZ 70 11.759
42 CZ 71 11.271
42 CZ 72 11.759
42 CZ 73 12.736
42 CZ 74 14.201
42 CZ 75 15.177
42 CZ 76 15.666
42 CZ 77 14.201
42 CZ 78 11.759
42 CZ 79 9.806
42 CZ 80 8.830
42 CZ 81 9.318
42 CZ 82 9.806
42 CZ 83 10.783
42 CZ 84 10.783
42 CZ 85 11.271
42 CZ 86 12.736
42 CZ 87 14.689
42 CZ 88 17.619
42 CZ 89 20.060
42 CZ 90 21.037
42 CZ 91 22.013
42 CZ 92 22.013
42 CZ 93 22.502
42 CZ 94 22.013
42 CZ 95 20.060
42 CZ 96 16.642
42 CZ 97 13.224
42 CZ 98 10.783
42 CZ 99 10.783
42 CZ 100 12.248
42 CZ 101 14.689
42 CZ 102 15.666
42 CZ 103 15.177
42 CZ 104 14.689
42 CZ 105 14.689
42 CZ 106 16.642
42 CZ 107 19.084
42 CZ 108 20.549
42 CZ 109 20.060
42 CZ 110 17.619
42 CZ 111 16.154
42 CZ 112 16.642
42 CZ 113 20.060
42 CZ 114 23.966
42 CZ 115 25.920
42 CZ 116 23.966
42 CZ 117 19.084
42 CZ 118 15.177
42 CZ 119 13.224
42 CZ 120 14.201
42 CZ 121 15.666
42 CZ 122 15.177
42 CZ 123 11.759
42 CZ 124 7.365
42 CZ 125 5.412
42 CZ 126 5.900
42 CZ 127 8.341
42 CZ 128 11.271
42 CZ 129 12.736
42 CZ 130 12.736
42 CZ 131 13.713
42 CZ 132 14.689
42 CZ 133 16.642
42 CZ 134 17.131
42 CZ 135 16.642
42 CZ 136 14.689
42 CZ 137 12.248
42 CZ 138 10.295
42 CZ 139 8.830
42 CZ 140 7.853
42 CZ 141 6.388
42 CZ 142 4.924
42 CZ 143 2.970
42 CZ 144 1.017
42 CZ 145 -0.448
42 CZ 146 -1.912
42 CZ 147 -2.401
42 CZ 148 -1.912
42 CZ 149 -0.936
42 CZ 150 0.529
42 CZ 151 1.506
42 CZ 152 1.506
42 CZ 153 1.506
42 CZ 154 1.994
42 CZ 155 3.947
42 CZ 156 6.388
42 CZ 157 9.806
42 CZ 158 11.271
42 CZ 159 11.271
42 CZ 160 9.318
42 CZ 161 8.830
42 CZ 162 8.830
42 CZ 163 9.806
42 CZ 164 10.295
42 CZ 165 8.830
42 CZ 166 7.365
42 CZ 167 6.388
42 CZ 168 6.877
42 CZ 169 7.365
42 CZ 170 6.877
42 CZ 171 4.435
42 CZ 172 0.529
42 CZ 173 -2.889
42 CZ 174 -4.842
42 CZ 175 -4.354
42 CZ 176 -2.889
42 CZ 177 -1.424
42 CZ 178 -0.448
42 CZ 179 0.529
42 CZ 180 1.994
42 CZ 181 4.435
42 CZ 182 6.877
42 CZ 183 8.830
42 CZ 184 10.295
42 CZ 185 12.248
42 CZ 186 13.713
42 CZ 187 15.177
42 CZ 188 15.666
42 CZ 189 15.666
42 CZ 190 14.689
42 CZ 191 13.224
42 CZ 192 13.224
42 CZ 193 13.713
42 CZ 194 14.689
42 CZ 195 15.666
42 CZ 196 16.154
42 CZ 197 15.666
42 CZ 198 15.177
42 CZ 199 15.666
42 CZ 200 16.642
42 CZ 201 17.131
42 CZ 202 16.154
42 CZ 203 14.201
42 CZ 204 12.248
42 CZ 205 11.271
42 CZ 206 12.248
42 CZ 207 14.201
42 CZ 208 16.154
42 CZ 209 17.131
42 CZ 210 18.107
42 CZ 211 19.572
42 CZ 212 22.502
42 CZ 213 25.920
42 CZ 214 28.849
42 CZ 215 30.802
42 CZ 216 30.314
42 CZ 217 30.314
42 CZ 218 29.826
42 CZ 219 29.338
42 CZ 220 27.873
42 CZ 221 24.943
42 CZ 222 22.013
42 CZ 223 19.084
42 CZ 224 18.107
42 CZ 225 18.107
42 CZ 226 19.084
42 CZ 227 18.595
42 CZ 228 17.619
42 CZ 229 15.666
42 CZ 230 14.201
42 CZ 231 13.224
42 CZ 232 13.713
42 CZ 233 14.201
42 CZ 234 15.177
42 CZ 235 15.666
42 CZ 236 16.642
42 CZ 237 17.619
42 CZ 238 18.595
42 CZ 239 20.060
42 CZ 240 21.525
42 CZ 241 22.502
42 CZ 242 22.502
42 CZ 243 22.013
42 CZ 244 21.525
42 CZ 245 21.037
42 CZ 246 20.549
42 CZ 247 19.572
42 CZ 248 18.107
42 CZ 249 17.131
42 CZ 250 17.131
42 CZ 251 18.595
42 CZ 252 21.525
42 CZ 253 23.478
42 CZ 254 23.478
42 CZ 255 21.525
# C3 chan 16
42 C3 0 1.689
42 C3 1 1.689
42 C3 2 2.177
42 C3 3 3.153
42 C3 4 4.130
42 C3 5 4.618
42 C3 6 5.107
42 C3 7 5.107
42 C3 8 5.107
42 C3 9 5.107
42 C3 10 5.595
42 C3 11 6.083
42 C3 12 6.083
42 C3 13 5.595
42 C3 14 5.107
42 C3 15 4.618
42 C3 16 4.130
42 C3 17 3.642
42 C3 18 3.642
42 C3 19 2.665
42 C3 20 2.177
42 C3 21 1.689
42 C3 22 1.689
42 C3 23 2.177
42 C3 24 3.642
42 C3 25 4.130
42 C3 26 3.642
42 C3 27 3.642
42 C3 28 3.153
42 C3 29 3.153
42 C3 30 3.153
42 C3 31 3.153
42 C3 32 2.665
42 C3 33 2.177
42 C3 34 1.689
42 C3 35 2.665
42 C3 36 4.130
42 C3 37 5.595
42 C3 38 6.083
42 C3 39 6.083
42 C3 40 5.107
42 C3 41 4.618
42 C3 42 4.618
42 C3 43 5.107
42 C3 44 4.618
42 C3 45 3.642
42 C3 46 2.177
42 C3 47 0.224
42 C3 48 -0.753
42 C3 49 -1.241
42 C3 50 -0.753
42 C3 51 -0.264
42 C3 52 -0.264
42 C3 53 0.224
42 C3 54 0.712
42 C3 55 1.200
42 C3 56 1.689
42 C3 57 2.177
42 C3 58 2.665
42 C3 59 3.153
42 C3 60 3.153
42 C3 61 3.642
42 C3 62 3.642
42 C3 63 4.130
42 C3 64 4.130
42 C3 65 4.130
42 C3 66 4.130
42 C3 67 4.130
42 C3 68 3.642
42 C3 69 4.130
42 C3 70 4.130
42 C3 71 4.130
42 C3 72 3.642
42 C3 73 3.153
42 C3 74 3.153
42 C3 75 2.665
42 C3 76 2.177
42 C3 77 1.689
42 C3 78 0.712
42 C3 79 0.224
42 C3 80 -0.264
42 C3 81 0.224
42 C3 82 1.200
42 C3 83 2.177
42 C3 84 2.665
42 C3 85 3.153
42 C3 86 3.642
42 C3 87 4.618
42 C3 88 5.595
42 C3 89 6.571
42 C3 90 6.571
42 C3 91 5.595
42 C3 92 4.130
42 C3 93 2.665
42 C3 94 2.177
42 C3 95 1.689
42 C3 96 1.689
42 C3 97 1.689
42 C3 98 1.689
42 C3 99 1.689
42 C3 100 2.177
42 C3 101 2.665
42 C3 102 3.642
42 C3 103 4.618
42 C3 104 4.618
42 C3 105 5.107
42 C3 106 7.060
42 C3 107 6.083
42 C3 108 6.571
42 C3 109 7.060
42 C3 110 7.548
42 C3 111 7.548
42 C3 112 7.060
42 C3 113 6.571
42 C3 114 6.571
42 C3 115 6.083
42 C3 116 5.595
42 C3 117 4.618
42 C3 118 4.618
42 C3 119 3.153
42 C3 120 2.665
42 C3 121 2.177
42 C3 122 1.689
42 C3 123 1.200
42 C3 124 1.200
42 C3 125 1.689
42 C3 126 2.665
42 C3 127 4.130
42 C3 128 4.618
42 C3 129 5.595
42 C3 130 5.595
42 C3 131 6.083
42 C3 132 6.083
42 C3 133 6.571
42 C3 134 7.060
42 C3 135 7.060
42 C3 136 6.571
42 C3 137 6.083
42 C3 138 5.107
42 C3 139 4.130
42 C3 140 3.153
42 C3 141 2.177
42 C3 142 1.200
42 C3 143 0.712
42 C3 144 -0.264
42 C3 145 -0.264
42 C3 146 -0.264
42 C3 147 0.224
42 C3 148 1.200
42 C3 149 1.689
42 C3 150 1.689
42 C3 151 0.712
42 C3 152 0.224
42 C3 153 -0.264
42 C3 154 0.224
42 C3 155 0.712
42 C3 156 1.689
42 C3 157 1.689
42 C3 158 2.177
42 C3 159 2.177
42 C3 160 2.177
42 C3 161 2.665
42 C3 162 3.153
42 C3 163 3.153
42 C3 164 2.665
42 C3 165 2.177
42 C3 166 1.689
42 C3 167 1.689
42 C3 168 1.689
42 C3 169 2.177
42 C3 170 2.177
42 C3 171 1.689
42 C3 172 0.712
42 C3 173 -0.264
42 C3 174 -0.753
42 C3 175 -0.753
42 C3 176 -0.264
42 C3 177 0.712
42 C3 178 1.689
42 C3 179 2.665
42 C3 180 3.642
42 C3 181 4.130
42 C3 182 4.130
42 C3 183 4.618
42 C3 184 5.107
42 C3 185 6.083
42 C3 186 6.571
42 C3 187 7.060
42 C3 188 6.571
42 C3 189 6.571
42 C3 190 5.595
42 C3 191 5.595
42 C3 192 5.107
42 C3 193 5.107
42 C3 194 4.618
42 C3 195 4.618
42 C3 196 4.130
42 C3 197 3.642
42 C3 198 3.642
42 C3 199 3.153
42 C3 200 2.665
42 C3 201 2.177
42 C3 202 1.689
42 C3 203 1.689
42 C3 204 1.200
42 C3 205 1.689
42 C3 206 2.177
42 C3 207 3.153
42 C3 208 4.618
42 C3 209 5.595
42 C3 210 6.571
42 C3 211 7.548
42 C3 212 8.036
42 C3 213 8.036
42 C3 214 8.036
42 C3 215 8.036
42 C3 216 8.036
42 C3 217 8.036
42 C3 218 7.548
42 C3 219 7.548
42 C3 220 7.548
42 C3 221 7.548
42 C3 222 7.060
42 C3 223 6.083
42 C3 224 5.595
42 C3 225 5.107
42 C3 226 5.595
42 C3 227 6.083
42 C3 228 6.571
42 C3 229 6.571
42 C3 230 5.595
42 C3 231 5.107
42 C3 232 4.130
42 C3 233 3.642
42 C3 234 3.642
42 C3 235 3.153
42 C3 236 2.177
42 C3 237 1.689
42 C3 238 1.689
42 C3 239 1.689
42 C3 240 1.689
42 C3 241 1.689
42 C3 242 2.177
42 C3 243 2.665
42 C3 244 3.153
42 C3 245 4.130
42 C3 246 5.107
42 C3 247 5.595
42 C3 248 6.083
42 C3 249 6.571
42 C3 250 7.548
42 C3 251 8.036
42 C3 252 8.036
42 C3 253 7.548
42 C3 254 6.083
42 C3 255 5.107
# C4 chan 17
42 C4 0 -2.523
42 C4 1 -2.035
42 C4 2 -1.546
42 C4 3 -0.570
42 C4 4 -0.081
42 C4 5 -0.081
42 C4 6 0.407
42 C4 7 -0.081
42 C4 8 0.407
42 C4 9 0.407
42 C4 10 0.895
42 C4 11 1.383
42 C4 12 1.872
42 C4 13 1.872
42 C4 14 1.872
42 C4 15 0.895
42 C4 16 0.407
42 C4 17 -0.570
42 C4 18 -1.058
42 C4 19 -1.058
42 C4 20 -0.570
42 C4 21 -0.081
42 C4 22 1.383
42 C4 23 2.360
42 C4 24 3.337
42 C4 25 3.825
42 C4 26 3.825
42 C4 27 3.825
42 C4 28 3.825
42 C4 29 4.313
42 C4 30 5.290
42 C4 31 5.290
42 C4 32 4.801
42 C4 33 3.825
42 C4 34 3.337
42 C4 35 2.848
42 C4 36 2.360
42 C4 37 1.383
42 C4 38 0.407
42 C4 39 -1.058
42 C4 40 -2.035
42 C4 41 -2.523
42 C4 42 -2.035
42 C4 43 -1.546
42 C4 44 -1.546
42 C4 45 -1.546
42 C4 46 -1.058
42 C4 47 -0.570
42 C4 48 -0.081
42 C4 49 0.407
42 C4 50 1.383
42 C4 51 1.872
42 C4 52 1.872
42 C4 53 2.848
42 C4 54 2.848
42 C4 55 3.337
42 C4 56 3.337
42 C4 57 3.337
42 C4 58 3.825
42 C4 59 3.337
42 C4 60 3.337
42 C4 61 2.848
42 C4 62 2.848
42 C4 63 2.360
42 C4 64 1.872
42 C4 65 0.895
42 C4 66 0.407
42 C4 67 -0.081
42 C4 68 -0.570
42 C4 69 -0.570
42 C4 70 -1.058
42 C4 71 -1.546
42 C4 72 -2.035
42 C4 73 -1.546
42 C4 74 -0.570
42 C4 75 0.407
42 C4 76 0.895
42 C4 77 1.383
42 C4 78 1.383
42 C4 79 1.872
42 C4 80 1.872
42 C4 81 1.872
42 C4 82 2.360
42 C4 83 2.360
42 C4 84 1.872
42 C4 85 1.872
42 C4 86 1.383
42 C4 87 0.895
42 C4 88 0.407
42 C4 89 -0.081
42 C4 90 -0.570
42 C4 91 -1.058
42 C4 92 -1.058
42 C4 93 -1.058
42 C4 94 -0.570
42 C4 95 -0.570
42 C4 96 -1.058
42 C4 97 -1.058
42 C4 98 -1.058
42 C4 99 -1.058
42 C4 100 -0.570
42 C4 101 -0.081
42 C4 102 -0.081
42 C4 103 0.407
42 C4 104 0.895
42 C4 105 1.872
42 C4 106 2.848
42 C4 107 3.825
42 C4 108 3.825
42 C4 109 3.337
42 C4 110 2.848
42 C4 111 2.848
42 C4 112 2.360
42 C4 113 2.848
42 C4 114 2.848
42 C4 115 3.337
42 C4 116 3.337
42 C4 117 3.337
42 C4 118 3.337
42 C4 119 2.848
42 C4 120 2.848
42 C4 121 2.360
42 C4 122 1.872
42 C4 123 1.383
42 C4 124 -0.081
42 C4 125 -1.058
42 C4 126 -2.523
42 C4 127 -3.499
42 C4 128 -3.988
42 C4 129 -3.499
42 C4 130 -3.011
42 C4 131 -2.035
42 C4 132 -1.546
42 C4 133 -1.546
42 C4 134 -1.058
42 C4 135 -0.570
42 C4 136 -0.081
42 C4 137 -0.570
42 C4 138 -0.570
42 C4 139 -1.058
42 C4 140 -0.570
42 C4 141 -0.081
42 C4 142 0.407
42 C4 143 -0.081
42 C4 144 -0.570
42 C4 145 -1.058
42 C4 146 -2.035
42 C4 147 -2.035
42 C4 148 -2.035
42 C4 149 -2.523
42 C4 150 -2.523
42 C4 151 -3.499
42 C4 152 -3.988
42 C4 153 -4.476
42 C4 154 -3.988
42 C4 155 -3.499
42 C4 156 -3.011
42 C4 157 -2.035
42 C4 158 -2.035
42 C4 159 -1.546
42 C4 160 -1.058
42 C4 161 -0.081
42 C4 162 -0.081
42 C4 163 -0.081
42 C4 164 -0.570
42 C4 165 -1.058
42 C4 166 -1.546
42 C4 167 -2.523
42 C4 168 -3.011
42 C4 169 -3.499
42 C4 170 -3.988
42 C4 171 -3.499
42 C4 172 -3.988
42 C4 173 -3.499
42 C4 174 -3.988
42 C4 175 -3.988
42 C4 176 -4.476
42 C4 177 -3.988
42 C4 178 -3.988
42 C4 179 -3.499
42 C4 180 -3.499
42 C4 181 -3.011
42 C4 182 -3.011
42 C4 183 -3.011
42 C4 184 -2.035
42 C4 185 -2.035
42 C4 186 -2.035
42 C4 187 -2.523
42 C4 188 -3.011
42 C4 189 -3.011
42 C4 190 -2.523
42 C4 191 -2.035
42 C4 192 -1.546
42 C4 193 -1.058
42 C4 194 -1.058
42 C4 195 -0.570
42 C4 196 0.407
42 C4 197 0.895
42 C4 198 1.383
42 C4 199 1.383
42 C4 200 1.872
42 C4 201 1.872
42 C4 202 1.872
42 C4 203 1.872
42 C4 204 0.895
42 C4 205 -0.081
42 C4 206 -0.081
42 C4 207 -0.570
42 C4 208 -0.570
42 C4 209 -0.570
42 C4 210 -0.081
42 C4 211 -0.570
42 C4 212 -0.081
42 C4 213 -0.081
42 C4 214 -0.081
42 C4 215 0.407
42 C4 216 -0.081
42 C4 217 0.407
42 C4 218 0.407
42 C4 219 0.895
42 C4 220 1.383
42 C4 221 1.383
42 C4 222 0.895
42 C4 223 0.895
42 C4 224 0.895
42 C4 225 1.383
42 C4 226 1.872
42 C4 227 2.360
42 C4 228 1.383
42 C4 229 0.407
42 C4 230 -1.546
42 C4 231 -3.011
42 C4 232 -3.988
42 C4 233 -3.499
42 C4 234 -2.523
42 C4 235 -1.546
42 C4 236 -1.058
42 C4 237 -1.058
42 C4 238 -1.546
42 C4 239 -1.546
42 C4 240 -1.058
42 C4 241 -0.570
42 C4 242 -0.570
42 C4 243 -1.058
42 C4 244 -2.035
42 C4 245 -2.523
42 C4 246 -3.011
42 C4 247 -2.523
42 C4 248 -2.523
42 C4 249 -2.523
42 C4 250 -3.011
42 C4 251 -3.499
42 C4 252 -3.499
42 C4 253 -3.011
42 C4 254 -2.523
42 C4 255 -2.035
# CP5 chan 18
42 CP5 0 2.716
42 CP5 1 3.693
42 CP5 2 4.669
42 CP5 3 5.646
42 CP5 4 7.111
42 CP5 5 7.599
42 CP5 6 7.599
42 CP5 7 7.599
42 CP5 8 6.622
42 CP5 9 6.622
42 CP5 10 6.622
42 CP5 11 7.111
42 CP5 12 7.599
42 CP5 13 7.599
42 CP5 14 6.134
42 CP5 15 4.669
42 CP5 16 3.204
42 CP5 17 1.740
42 CP5 18 0.763
42 CP5 19 -0.214
42 CP5 20 -0.702
42 CP5 21 -0.214
42 CP5 22 0.763
42 CP5 23 2.716
42 CP5 24 4.669
42 CP5 25 6.134
42 CP5 26 6.622
42 CP5 27 7.111
42 CP5 28 7.111
42 CP5 29 8.087
42 CP5 30 8.087
42 CP5 31 7.599
42 CP5 32 6.622
42 CP5 33 5.157
42 CP5 34 4.669
42 CP5 35 5.157
42 CP5 36 7.599
42 CP5 37 9.552
42 CP5 38 11.017
42 CP5 39 11.505
42 CP5 40 10.529
42 CP5 41 9.064
42 CP5 42 8.087
42 CP5 43 7.599
42 CP5 44 6.134
42 CP5 45 3.693
42 CP5 46 0.275
42 CP5 47 -3.143
42 CP5 48 -5.585
42 CP5 49 -6.561
42 CP5 50 -6.561
42 CP5 51 -5.585
42 CP5 52 -4.608
42 CP5 53 -3.632
42 CP5 54 -2.655
42 CP5 55 -1.678
42 CP5 56 -0.702
42 CP5 57 0.275
42 CP5 58 1.251
42 CP5 59 1.740
42 CP5 60 1.740
42 CP5 61 2.228
42 CP5 62 3.204
42 CP5 63 4.181
42 CP5 64 4.669
42 CP5 65 4.669
42 CP5 66 4.669
42 CP5 67 5.157
42 CP5 68 5.646
42 CP5 69 7.111
42 CP5 70 8.087
42 CP5 71 8.575
42 CP5 72 9.064
42 CP5 73 8.575
42 CP5 74 8.575
42 CP5 75 8.087
42 CP5 76 7.599
42 CP5 77 6.134
42 CP5 78 4.669
42 CP5 79 3.693
42 CP5 80 3.204
42 CP5 81 3.693
42 CP5 82 4.669
42 CP5 83 5.646
42 CP5 84 6.622
42 CP5 85 7.111
42 CP5 86 7.599
42 CP5 87 8.087
42 CP5 88 9.064
42 CP5 89 9.552
42 CP5 90 9.552
42 CP5 91 8.575
42 CP5 92 7.599
42 CP5 93 6.134
42 CP5 94 5.646
42 CP5 95 5.646
42 CP5 96 5.646
42 CP5 97 5.646
42 CP5 98 5.157
42 CP5 99 5.157
42 CP5 100 5.646
42 CP5 101 6.622
42 CP5 102 8.087
42 CP5 103 8.575
42 CP5 104 9.064
42 CP5 105 9.064
42 CP5 106 9.064
42 CP5 107 10.040
42 CP5 108 11.017
42 CP5 109 12.482
42 CP5 110 12.970
42 CP5 111 12.970
42 CP5 112 12.970
42 CP5 113 11.993
42 CP5 114 11.505
42 CP5 115 11.017
42 CP5 116 10.040
42 CP5 117 9.064
42 CP5 118 8.087
42 CP5 119 7.111
42 CP5 120 6.622
42 CP5 121 5.646
42 CP5 122 5.157
42 CP5 123 3.693
42 CP5 124 3.204
42 CP5 125 3.693
42 CP5 126 5.157
42 CP5 127 7.599
42 CP5 128 8.575
42 CP5 129 9.552
42 CP5 130 10.040
42 CP5 131 10.040
42 CP5 132 11.017
42 CP5 133 11.505
42 CP5 134 11.993
42 CP5 135 11.993
42 CP5 136 11.017
42 CP5 137 9.064
42 CP5 138 7.599
42 CP5 139 6.134
42 CP5 140 5.157
42 CP5 141 4.181
42 CP5 142 2.716
42 CP5 143 1.740
42 CP5 144 0.763
42 CP5 145 0.763
42 CP5 146 1.251
42 CP5 147 2.228
42 CP5 148 2.716
42 CP5 149 2.228
42 CP5 150 1.251
42 CP5 151 -0.214
42 CP5 152 -1.190
42 CP5 153 -1.190
42 CP5 154 -0.702
42 CP5 155 0.275
42 CP5 156 1.251
42 CP5 157 1.740
42 CP5 158 1.740
42 CP5 159 1.251
42 CP5 160 1.251
42 CP5 161 1.251
42 CP5 162 1.251
42 CP5 163 1.740
42 CP5 164 1.740
42 CP5 165 1.251
42 CP5 166 0.763
42 CP5 167 0.275
42 CP5 168 0.275
42 CP5 169 0.275
42 CP5 170 -0.214
42 CP5 171 -1.190
42 CP5 172 -2.167
42 CP5 173 -3.143
42 CP5 174 -4.120
42 CP5 175 -4.120
42 CP5 176 -3.632
42 CP5 177 -2.655
42 CP5 178 -0.702
42 CP5 179 0.763
42 CP5 180 2.228
42 CP5 181 2.716
42 CP5 182 3.693
42 CP5 183 4.181
42 CP5 184 5.157
42 CP5 185 6.134
42 CP5 186 7.111
42 CP5 187 8.087
42 CP5 188 8.087
42 CP5 189 7.599
42 CP5 190 7.111
42 CP5 191 7.111
42 CP5 192 6.622
42 CP5 193 6.622
42 CP5 194 6.134
42 CP5 195 5.646
42 CP5 196 5.157
42 CP5 197 4.669
42 CP5 198 4.181
42 CP5 199 3.693
42 CP5 200 3.204
42 CP5 201 2.716
42 CP5 202 2.228
42 CP5 203 1.740
42 CP5 204 1.740
42 CP5 205 2.716
42 CP5 206 4.181
42 CP5 207 6.134
42 CP5 208 8.087
42 CP5 209 9.552
42 CP5 210 11.017
42 CP5 211 11.993
42 CP5 212 12.970
42 CP5 213 12.970
42 CP5 214 12.970
42 CP5 215 12.970
42 CP5 216 11.993
42 CP5 217 11.993
42 CP5 218 11.993
42 CP5 219 12.970
42 CP5 220 13.458
42 CP5 221 13.458
42 CP5 222 12.970
42 CP5 223 11.505
42 CP5 224 10.040
42 CP5 225 9.064
42 CP5 226 9.064
42 CP5 227 9.064
42 CP5 228 9.064
42 CP5 229 8.575
42 CP5 230 7.599
42 CP5 231 5.646
42 CP5 232 3.693
42 CP5 233 2.228
42 CP5 234 1.251
42 CP5 235 0.275
42 CP5 236 0.275
42 CP5 237 -0.214
42 CP5 238 0.275
42 CP5 239 1.251
42 CP5 240 1.740
42 CP5 241 2.716
42 CP5 242 3.204
42 CP5 243 4.181
42 CP5 244 6.134
42 CP5 245 7.599
42 CP5 246 9.064
42 CP5 247 10.529
42 CP5 248 11.505
42 CP5 249 12.482
42 CP5 250 13.458
42 CP5 251 14.435
42 CP5 252 13.947
42 CP5 253 12.970
42 CP5 254 11.017
42 CP5 255 8.575
# CP6 chan 19
42 CP6 0 -3.764
42 CP6 1 -2.299
42 CP6 2 -1.322
42 CP6 3 0.142
42 CP6 4 1.119
42 CP6 5 2.096
42 CP6 6 3.072
42 CP6 7 3.560
42 CP6 8 4.049
42 CP6 9 4.049
42 CP6 10 4.049
42 CP6 11 4.049
42 CP6 12 4.049
42 CP6 13 3.560
42 CP6 14 2.584
42 CP6 15 0.631
42 CP6 16 -1.322
42 CP6 17 -3.276
42 CP6 18 -5.229
42 CP6 19 -5.229
42 CP6 20 -4.252
42 CP6 21 -2.787
42 CP6 22 -0.834
42 CP6 23 1.119
42 CP6 24 2.584
42 CP6 25 4.049
42 CP6 26 5.025
42 CP6 27 6.002
42 CP6 28 6.978
42 CP6 29 8.443
42 CP6 30 9.908
42 CP6 31 9.908
42 CP6 32 9.420
42 CP6 33 7.955
42 CP6 34 6.978
42 CP6 35 6.002
42 CP6 36 5.514
42 CP6 37 5.025
42 CP6 38 3.072
42 CP6 39 1.119
42 CP6 40 -0.834
42 CP6 41 -1.811
42 CP6 42 -2.299
42 CP6 43 -2.299
42 CP6 44 -2.787
42 CP6 45 -3.764
42 CP6 46 -4.740
42 CP6 47 -5.717
42 CP6 48 -5.717
42 CP6 49 -5.229
42 CP6 50 -4.252
42 CP6 51 -3.764
42 CP6 52 -3.276
42 CP6 53 -3.276
42 CP6 54 -2.787
42 CP6 55 -1.811
42 CP6 56 -0.834
42 CP6 57 0.631
42 CP6 58 1.119
42 CP6 59 2.096
42 CP6 60 2.584
42 CP6 61 2.096
42 CP6 62 2.584
42 CP6 63 2.096
42 CP6 64 1.119
42 CP6 65 0.631
42 CP6 66 -0.346
42 CP6 67 0.142
42 CP6 68 0.631
42 CP6 69 1.607
42 CP6 70 2.096
42 CP6 71 2.096
42 CP6 72 1.607
42 CP6 73 2.096
42 CP6 74 2.584
42 CP6 75 4.049
42 CP6 76 5.514
42 CP6 77 6.490
42 CP6 78 6.490
42 CP6 79 6.490
42 CP6 80 6.002
42 CP6 81 6.002
42 CP6 82 6.002
42 CP6 83 6.490
42 CP6 84 5.514
42 CP6 85 4.537
42 CP6 86 3.560
42 CP6 87 3.072
42 CP6 88 3.072
42 CP6 89 2.584
42 CP6 90 2.096
42 CP6 91 1.119
42 CP6 92 0.631
42 CP6 93 0.631
42 CP6 94 0.631
42 CP6 95 0.631
42 CP6 96 0.631
42 CP6 97 0.142
42 CP6 98 0.142
42 CP6 99 -0.346
42 CP6 100 -0.346
42 CP6 101 0.631
42 CP6 102 1.119
42 CP6 103 1.607
42 CP6 104 2.584
42 CP6 105 3.072
42 CP6 106 4.049
42 CP6 107 5.025
42 CP6 108 6.002
42 CP6 109 6.002
42 CP6 110 6.490
42 CP6 111 6.490
42 CP6 112 6.002
42 CP6 113 5.514
42 CP6 114 5.514
42 CP6 115 5.514
42 CP6 116 6.002
42 CP6 117 6.002
42 CP6 118 6.002
42 CP6 119 5.025
42 CP6 120 4.537
42 CP6 121 3.072
42 CP6 122 2.584
42 CP6 123 1.607
42 CP6 124 0.142
42 CP6 125 -1.811
42 CP6 126 -3.276
42 CP6 127 -4.252
42 CP6 128 -3.764
42 CP6 129 -2.787
42 CP6 130 -1.811
42 CP6 131 -0.834
42 CP6 132 0.142
42 CP6 133 0.631
42 CP6 134 1.607
42 CP6 135 1.607
42 CP6 136 1.607
42 CP6 137 0.631
42 CP6 138 0.142
42 CP6 139 -0.346
42 CP6 140 -0.346
42 CP6 141 0.142
42 CP6 142 0.142
42 CP6 143 -0.346
42 CP6 144 -0.834
42 CP6 145 -1.811
42 CP6 146 -2.299
42 CP6 147 -2.299
42 CP6 148 -2.787
42 CP6 149 -3.764
42 CP6 150 -5.229
42 CP6 151 -7.182
42 CP6 152 -8.158
42 CP6 153 -8.158
42 CP6 154 -7.670
42 CP6 155 -6.694
42 CP6 156 -5.717
42 CP6 157 -4.740
42 CP6 158 -3.764
42 CP6 159 -2.787
42 CP6 160 -2.299
42 CP6 161 -1.811
42 CP6 162 -1.322
42 CP6 163 -1.811
42 CP6 164 -2.299
42 CP6 165 -2.787
42 CP6 166 -3.764
42 CP6 167 -5.229
42 CP6 168 -6.205
42 CP6 169 -6.694
42 CP6 170 -6.694
42 CP6 171 -6.205
42 CP6 172 -6.205
42 CP6 173 -6.205
42 CP6 174 -7.182
42 CP6 175 -8.158
42 CP6 176 -8.158
42 CP6 177 -7.670
42 CP6 178 -6.694
42 CP6 179 -5.717
42 CP6 180 -5.717
42 CP6 181 -5.717
42 CP6 182 -5.717
42 CP6 183 -4.740
42 CP6 184 -3.764
42 CP6 185 -2.299
42 CP6 186 -2.299
42 CP6 187 -2.299
42 CP6 188 -2.787
42 CP6 189 -2.787
42 CP6 190 -2.299
42 CP6 191 -1.322
42 CP6 192 -0.346
42 CP6 193 0.142
42 CP6 194 0.631
42 CP6 195 1.119
42 CP6 196 2.096
42 CP6 197 2.584
42 CP6 198 2.584
42 CP6 199 2.584
42 CP6 200 2.584
42 CP6 201 2.584
42 CP6 202 2.584
42 CP6 203 2.584
42 CP6 204 1.119
42 CP6 205 0.631
42 CP6 206 0.142
42 CP6 207 0.142
42 CP6 208 1.119
42 CP6 209 1.607
42 CP6 210 2.584
42 CP6 211 3.072
42 CP6 212 3.560
42 CP6 213 4.049
42 CP6 214 4.049
42 CP6 215 4.049
42 CP6 216 4.049
42 CP6 217 4.537
42 CP6 218 5.514
42 CP6 219 6.490
42 CP6 220 6.978
42 CP6 221 6.978
42 CP6 222 6.490
42 CP6 223 5.514
42 CP6 224 5.025
42 CP6 225 5.514
42 CP6 226 5.514
42 CP6 227 6.002
42 CP6 228 5.025
42 CP6 229 3.072
42 CP6 230 1.119
42 CP6 231 -0.834
42 CP6 232 -2.299
42 CP6 233 -1.811
42 CP6 234 -0.834
42 CP6 235 0.142
42 CP6 236 0.631
42 CP6 237 0.631
42 CP6 238 0.142
42 CP6 239 0.142
42 CP6 240 0.631
42 CP6 241 1.119
42 CP6 242 1.119
42 CP6 243 0.631
42 CP6 244 -0.346
42 CP6 245 -0.834
42 CP6 246 -1.322
42 CP6 247 -0.834
42 CP6 248 -0.834
42 CP6 249 -0.834
42 CP6 250 -1.322
42 CP6 251 -1.811
42 CP6 252 -1.322
42 CP6 253 -0.834
42 CP6 254 0.631
42 CP6 255 1.607
# CP1 chan 20
42 CP1 0 -0.712
42 CP1 1 -0.224
42 CP1 2 0.264
42 CP1 3 0.264
42 CP1 4 0.753
42 CP1 5 1.241
42 CP1 6 1.729
42 CP1 7 1.729
42 CP1 8 1.729
42 CP1 9 1.729
42 CP1 10 1.729
42 CP1 11 1.241
42 CP1 12 1.241
42 CP1 13 0.753
42 CP1 14 -0.224
42 CP1 15 -1.200
42 CP1 16 -2.177
42 CP1 17 -3.153
42 CP1 18 -3.642
42 CP1 19 -4.130
42 CP1 20 -4.130
42 CP1 21 -3.642
42 CP1 22 -2.665
42 CP1 23 -1.689
42 CP1 24 -0.712
42 CP1 25 -0.224
42 CP1 26 -0.224
42 CP1 27 0.264
42 CP1 28 0.264
42 CP1 29 1.241
42 CP1 30 1.729
42 CP1 31 1.729
42 CP1 32 0.264
42 CP1 33 -0.224
42 CP1 34 -0.712
42 CP1 35 -0.224
42 CP1 36 0.753
42 CP1 37 1.729
42 CP1 38 2.218
42 CP1 39 2.218
42 CP1 40 1.729
42 CP1 41 1.241
42 CP1 42 0.753
42 CP1 43 0.264
42 CP1 44 -0.224
42 CP1 45 -1.689
42 CP1 46 -3.153
42 CP1 47 -4.618
42 CP1 48 -5.595
42 CP1 49 -6.083
42 CP1 50 -6.083
42 CP1 51 -6.083
42 CP1 52 -5.595
42 CP1 53 -5.595
42 CP1 54 -5.595
42 CP1 55 -5.595
42 CP1 56 -5.595
42 CP1 57 -4.618
42 CP1 58 -4.618
42 CP1 59 -4.618
42 CP1 60 -4.130
42 CP1 61 -3.642
42 CP1 62 -2.665
42 CP1 63 -2.177
42 CP1 64 -1.200
42 CP1 65 -1.200
42 CP1 66 -1.200
42 CP1 67 -0.712
42 CP1 68 0.264
42 CP1 69 1.241
42 CP1 70 1.729
42 CP1 71 2.218
42 CP1 72 2.218
42 CP1 73 1.729
42 CP1 74 1.241
42 CP1 75 1.241
42 CP1 76 1.241
42 CP1 77 0.264
42 CP1 78 0.264
42 CP1 79 -0.224
42 CP1 80 -0.224
42 CP1 81 -0.224
42 CP1 82 0.264
42 CP1 83 0.753
42 CP1 84 0.753
42 CP1 85 1.241
42 CP1 86 1.729
42 CP1 87 2.218
42 CP1 88 2.218
42 CP1 89 1.729
42 CP1 90 1.241
42 CP1 91 0.753
42 CP1 92 0.264
42 CP1 93 0.264
42 CP1 94 0.264
42 CP1 95 1.241
42 CP1 96 1.241
42 CP1 97 1.729
42 CP1 98 1.729
42 CP1 99 2.706
42 CP1 100 3.194
42 CP1 101 3.194
42 CP1 102 3.194
42 CP1 103 2.706
42 CP1 104 1.729
42 CP1 105 0.753
42 CP1 106 0.264
42 CP1 107 0.264
42 CP1 108 1.241
42 CP1 109 1.729
42 CP1 110 2.218
42 CP1 111 2.218
42 CP1 112 2.218
42 CP1 113 1.729
42 CP1 114 1.241
42 CP1 115 1.241
42 CP1 116 0.753
42 CP1 117 0.753
42 CP1 118 0.264
42 CP1 119 -0.224
42 CP1 120 0.264
42 CP1 121 0.264
42 CP1 122 1.241
42 CP1 123 1.729
42 CP1 124 1.729
42 CP1 125 1.729
42 CP1 126 1.729
42 CP1 127 2.218
42 CP1 128 2.706
42 CP1 129 3.194
42 CP1 130 3.194
42 CP1 131 3.194
42 CP1 132 3.194
42 CP1 133 3.194
42 CP1 134 3.194
42 CP1 135 2.706
42 CP1 136 2.218
42 CP1 137 0.264
42 CP1 138 -0.224
42 CP1 139 -0.712
42 CP1 140 -1.200
42 CP1 141 -1.200
42 CP1 142 -1.689
42 CP1 143 -1.689
42 CP1 144 -2.177
42 CP1 145 -1.689
42 CP1 146 -0.712
42 CP1 147 -0.224
42 CP1 148 0.264
42 CP1 149 0.264
42 CP1 150 -0.224
42 CP1 151 -0.712
42 CP1 152 -1.200
42 CP1 153 -1.200
42 CP1 154 -0.712
42 CP1 155 -0.224
42 CP1 156 -0.224
42 CP1 157 0.264
42 CP1 158 0.264
42 CP1 159 -0.224
42 CP1 160 0.753
42 CP1 161 -0.712
42 CP1 162 -0.712
42 CP1 163 -0.224
42 CP1 164 0.264
42 CP1 165 0.264
42 CP1 166 0.264
42 CP1 167 0.264
42 CP1 168 0.264
42 CP1 169 0.264
42 CP1 170 0.264
42 CP1 171 0.264
42 CP1 172 -0.224
42 CP1 173 -0.712
42 CP1 174 -0.712
42 CP1 175 -0.712
42 CP1 176 -0.712
42 CP1 177 -0.712
42 CP1 178 -0.224
42 CP1 179 -0.224
42 CP1 180 0.264
42 CP1 181 0.264
42 CP1 182 0.264
42 CP1 183 -0.224
42 CP1 184 -0.224
42 CP1 185 -0.224
42 CP1 186 0.264
42 CP1 187 0.264
42 CP1 188 0.753
42 CP1 189 0.753
42 CP1 190 0.264
42 CP1 191 0.264
42 CP1 192 0.753
42 CP1 193 0.753
42 CP1 194 0.264
42 CP1 195 0.264
42 CP1 196 -0.712
42 CP1 197 -1.200
42 CP1 198 -1.689
42 CP1 199 -1.689
42 CP1 200 -1.200
42 CP1 201 -1.200
42 CP1 202 -1.200
42 CP1 203 -1.689
42 CP1 204 -2.177
42 CP1 205 -1.689
42 CP1 206 -1.200
42 CP1 207 -0.712
42 CP1 208 0.264
42 CP1 209 0.264
42 CP1 210 1.241
42 CP1 211 1.241
42 CP1 212 1.241
42 CP1 213 1.241
42 CP1 214 0.753
42 CP1 215 0.264
42 CP1 216 0.264
42 CP1 217 1.241
42 CP1 218 1.729
42 CP1 219 2.706
42 CP1 220 3.194
42 CP1 221 3.194
42 CP1 222 3.194
42 CP1 223 2.706
42 CP1 224 2.218
42 CP1 225 1.729
42 CP1 226 1.241
42 CP1 227 1.241
42 CP1 228 0.753
42 CP1 229 0.264
42 CP1 230 -0.224
42 CP1 231 -0.712
42 CP1 232 -1.689
42 CP1 233 -2.177
42 CP1 234 -2.665
42 CP1 235 -2.665
42 CP1 236 -3.642
42 CP1 237 -3.642
42 CP1 238 -3.642
42 CP1 239 -3.153
42 CP1 240 -2.665
42 CP1 241 -2.177
42 CP1 242 -1.200
42 CP1 243 -0.224
42 CP1 244 0.264
42 CP1 245 0.753
42 CP1 246 1.241
42 CP1 247 1.729
42 CP1 248 2.218
42 CP1 249 2.706
42 CP1 250 3.194
42 CP1 251 2.706
42 CP1 252 2.218
42 CP1 253 1.241
42 CP1 254 0.264
42 CP1 255 -0.224
# CP2 chan 21
42 CP2 0 -2.879
42 CP2 1 -1.902
42 CP2 2 -1.414
42 CP2 3 -0.926
42 CP2 4 -0.437
42 CP2 5 0.051
42 CP2 6 0.539
42 CP2 7 1.027
42 CP2 8 1.516
42 CP2 9 1.516
42 CP2 10 1.516
42 CP2 11 1.027
42 CP2 12 1.027
42 CP2 13 0.539
42 CP2 14 0.051
42 CP2 15 -1.414
42 CP2 16 -2.879
42 CP2 17 -4.344
42 CP2 18 -5.320
42 CP2 19 -5.320
42 CP2 20 -4.344
42 CP2 21 -3.367
42 CP2 22 -1.902
42 CP2 23 -0.926
42 CP2 24 0.051
42 CP2 25 0.539
42 CP2 26 1.516
42 CP2 27 2.492
42 CP2 28 2.981
42 CP2 29 3.957
42 CP2 30 4.934
42 CP2 31 4.934
42 CP2 32 3.957
42 CP2 33 2.981
42 CP2 34 2.004
42 CP2 35 2.004
42 CP2 36 2.004
42 CP2 37 1.516
42 CP2 38 1.516
42 CP2 39 0.051
42 CP2 40 -0.437
42 CP2 41 -0.926
42 CP2 42 -1.414
42 CP2 43 -1.414
42 CP2 44 -1.902
42 CP2 45 -2.879
42 CP2 46 -3.855
42 CP2 47 -4.832
42 CP2 48 -5.320
42 CP2 49 -5.320
42 CP2 50 -4.832
42 CP2 51 -4.832
42 CP2 52 -4.832
42 CP2 53 -4.344
42 CP2 54 -4.344
42 CP2 55 -3.855
42 CP2 56 -3.855
42 CP2 57 -3.367
42 CP2 58 -2.879
42 CP2 59 -2.391
42 CP2 60 -1.902
42 CP2 61 -1.902
42 CP2 62 -1.902
42 CP2 63 -1.902
42 CP2 64 -1.902
42 CP2 65 -2.391
42 CP2 66 -1.902
42 CP2 67 -1.414
42 CP2 68 -0.437
42 CP2 69 0.539
42 CP2 70 1.027
42 CP2 71 0.539
42 CP2 72 0.051
42 CP2 73 0.051
42 CP2 74 0.051
42 CP2 75 1.027
42 CP2 76 2.004
42 CP2 77 2.492
42 CP2 78 2.492
42 CP2 79 2.004
42 CP2 80 2.004
42 CP2 81 2.004
42 CP2 82 2.492
42 CP2 83 2.492
42 CP2 84 2.492
42 CP2 85 2.004
42 CP2 86 2.004
42 CP2 87 1.027
42 CP2 88 0.539
42 CP2 89 0.051
42 CP2 90 -0.437
42 CP2 91 -0.926
42 CP2 92 -0.437
42 CP2 93 -0.437
42 CP2 94 0.051
42 CP2 95 0.051
42 CP2 96 0.051
42 CP2 97 0.051
42 CP2 98 0.539
42 CP2 99 1.027
42 CP2 100 1.516
42 CP2 101 2.004
42 CP2 102 2.004
42 CP2 103 1.516
42 CP2 104 1.027
42 CP2 105 0.539
42 CP2 106 0.539
42 CP2 107 0.539
42 CP2 108 1.027
42 CP2 109 2.004
42 CP2 110 2.492
42 CP2 111 2.492
42 CP2 112 2.004
42 CP2 113 2.004
42 CP2 114 1.516
42 CP2 115 1.027
42 CP2 116 1.027
42 CP2 117 1.516
42 CP2 118 1.516
42 CP2 119 1.516
42 CP2 120 2.004
42 CP2 121 2.004
42 CP2 122 2.004
42 CP2 123 1.516
42 CP2 124 1.027
42 CP2 125 0.051
42 CP2 126 -0.926
42 CP2 127 -1.414
42 CP2 128 -1.414
42 CP2 129 -0.926
42 CP2 130 -0.926
42 CP2 131 -0.437
42 CP2 132 0.051
42 CP2 133 0.539
42 CP2 134 1.027
42 CP2 135 0.539
42 CP2 136 0.051
42 CP2 137 -0.437
42 CP2 138 -0.926
42 CP2 139 -1.414
42 CP2 140 -1.414
42 CP2 141 -0.926
42 CP2 142 -0.926
42 CP2 143 -0.926
42 CP2 144 -1.414
42 CP2 145 -1.414
42 CP2 146 -0.926
42 CP2 147 -0.926
42 CP2 148 -0.926
42 CP2 149 -1.414
42 CP2 150 -1.902
42 CP2 151 -2.879
42 CP2 152 -3.367
42 CP2 153 -3.855
42 CP2 154 -3.367
42 CP2 155 -2.879
42 CP2 156 -2.879
42 CP2 157 -2.391
42 CP2 158 -1.902
42 CP2 159 -1.902
42 CP2 160 -1.902
42 CP2 161 -1.902
42 CP2 162 -1.902
42 CP2 163 -1.902
42 CP2 164 -1.902
42 CP2 165 -1.902
42 CP2 166 -1.902
42 CP2 167 -2.391
42 CP2 168 -2.879
42 CP2 169 -3.367
42 CP2 170 -3.367
42 CP2 171 -2.879
42 CP2 172 -2.391
42 CP2 173 -2.391
42 CP2 174 -2.391
42 CP2 175 -2.391
42 CP2 176 -2.879
42 CP2 177 -2.391
42 CP2 178 -1.902
42 CP2 179 -1.902
42 CP2 180 -1.902
42 CP2 181 -2.391
42 CP2 182 -2.879
42 CP2 183 -2.879
42 CP2 184 -2.391
42 CP2 185 -2.391
42 CP2 186 -2.391
42 CP2 187 -2.391
42 CP2 188 -2.391
42 CP2 189 -1.902
42 CP2 190 -1.902
42 CP2 191 -1.902
42 CP2 192 -1.414
42 CP2 193 -0.926
42 CP2 194 -0.926
42 CP2 195 -0.926
42 CP2 196 -0.926
42 CP2 197 -0.926
42 CP2 198 -0.437
42 CP2 199 0.051
42 CP2 200 0.539
42 CP2 201 1.027
42 CP2 202 1.027
42 CP2 203 0.539
42 CP2 204 -0.437
42 CP2 205 -0.437
42 CP2 206 -0.437
42 CP2 207 -0.437
42 CP2 208 -0.437
42 CP2 209 -0.926
42 CP2 210 -0.926
42 CP2 211 -0.926
42 CP2 212 -0.926
42 CP2 213 -1.414
42 CP2 214 -1.414
42 CP2 215 -1.902
42 CP2 216 -1.414
42 CP2 217 -0.437
42 CP2 218 0.539
42 CP2 219 1.027
42 CP2 220 1.516
42 CP2 221 2.004
42 CP2 222 2.004
42 CP2 223 2.492
42 CP2 224 2.492
42 CP2 225 2.492
42 CP2 226 2.492
42 CP2 227 2.004
42 CP2 228 1.027
42 CP2 229 0.051
42 CP2 230 -0.926
42 CP2 231 -1.902
42 CP2 232 -2.879
42 CP2 233 -3.367
42 CP2 234 -3.367
42 CP2 235 -2.879
42 CP2 236 -3.367
42 CP2 237 -3.367
42 CP2 238 -3.367
42 CP2 239 -3.367
42 CP2 240 -2.879
42 CP2 241 -1.902
42 CP2 242 -1.414
42 CP2 243 -0.926
42 CP2 244 -0.926
42 CP2 245 -0.926
42 CP2 246 -0.926
42 CP2 247 -0.437
42 CP2 248 -0.926
42 CP2 249 -0.926
42 CP2 250 -0.926
42 CP2 251 -0.926
42 CP2 252 -0.926
42 CP2 253 -0.926
42 CP2 254 -0.926
42 CP2 255 -1.414
# P3 chan 22
42 P3 0 1.567
42 P3 1 2.543
42 P3 2 3.520
42 P3 3 4.008
42 P3 4 4.985
42 P3 5 5.473
42 P3 6 5.961
42 P3 7 5.473
42 P3 8 4.496
42 P3 9 4.008
42 P3 10 3.520
42 P3 11 3.031
42 P3 12 2.543
42 P3 13 2.055
42 P3 14 1.078
42 P3 15 -0.387
42 P3 16 -1.851
42 P3 17 -3.805
42 P3 18 -5.758
42 P3 19 -6.734
42 P3 20 -7.222
42 P3 21 -6.246
42 P3 22 -3.805
42 P3 23 -1.363
42 P3 24 0.590
42 P3 25 1.567
42 P3 26 2.055
42 P3 27 2.543
42 P3 28 3.520
42 P3 29 4.985
42 P3 30 6.449
42 P3 31 5.961
42 P3 32 4.985
42 P3 33 3.031
42 P3 34 2.543
42 P3 35 2.543
42 P3 36 4.008
42 P3 37 5.961
42 P3 38 6.938
42 P3 39 6.449
42 P3 40 5.473
42 P3 41 4.008
42 P3 42 2.543
42 P3 43 1.078
42 P3 44 -0.875
42 P3 45 -3.316
42 P3 46 -6.734
42 P3 47 -9.664
42 P3 48 -11.617
42 P3 49 -12.594
42 P3 50 -11.617
42 P3 51 -11.129
42 P3 52 -10.152
42 P3 53 -9.664
42 P3 54 -9.176
42 P3 55 -8.687
42 P3 56 -7.711
42 P3 57 -7.222
42 P3 58 -6.734
42 P3 59 -6.246
42 P3 60 -5.758
42 P3 61 -5.269
42 P3 62 -3.805
42 P3 63 -2.340
42 P3 64 -1.363
42 P3 65 -0.387
42 P3 66 0.590
42 P3 67 1.567
42 P3 68 3.031
42 P3 69 4.985
42 P3 70 5.961
42 P3 71 6.938
42 P3 72 7.426
42 P3 73 7.426
42 P3 74 7.426
42 P3 75 6.938
42 P3 76 6.449
42 P3 77 4.985
42 P3 78 4.008
42 P3 79 2.543
42 P3 80 2.055
42 P3 81 2.543
42 P3 82 3.031
42 P3 83 4.496
42 P3 84 5.473
42 P3 85 6.449
42 P3 86 6.938
42 P3 87 6.938
42 P3 88 6.938
42 P3 89 6.449
42 P3 90 5.961
42 P3 91 4.985
42 P3 92 4.008
42 P3 93 3.520
42 P3 94 3.520
42 P3 95 3.520
42 P3 96 4.008
42 P3 97 4.496
42 P3 98 4.496
42 P3 99 4.496
42 P3 100 4.985
42 P3 101 5.473
42 P3 102 5.961
42 P3 103 5.473
42 P3 104 4.985
42 P3 105 4.496
42 P3 106 4.008
42 P3 107 4.985
42 P3 108 6.938
42 P3 109 8.403
42 P3 110 9.867
42 P3 111 9.867
42 P3 112 8.891
42 P3 113 8.403
42 P3 114 7.914
42 P3 115 7.426
42 P3 116 6.938
42 P3 117 5.961
42 P3 118 4.496
42 P3 119 3.520
42 P3 120 3.520
42 P3 121 3.520
42 P3 122 3.520
42 P3 123 3.031
42 P3 124 2.543
42 P3 125 2.543
42 P3 126 3.520
42 P3 127 4.985
42 P3 128 5.961
42 P3 129 6.938
42 P3 130 6.449
42 P3 131 6.449
42 P3 132 6.938
42 P3 133 7.426
42 P3 134 7.914
42 P3 135 6.938
42 P3 136 4.985
42 P3 137 3.031
42 P3 138 2.055
42 P3 139 1.078
42 P3 140 1.078
42 P3 141 1.078
42 P3 142 0.102
42 P3 143 -0.875
42 P3 144 -1.363
42 P3 145 -1.363
42 P3 146 -0.875
42 P3 147 0.102
42 P3 148 1.078
42 P3 149 1.078
42 P3 150 0.102
42 P3 151 -1.363
42 P3 152 -2.340
42 P3 153 -2.828
42 P3 154 -2.828
42 P3 155 -1.851
42 P3 156 -0.875
42 P3 157 -0.875
42 P3 158 -1.363
42 P3 159 -1.851
42 P3 160 -2.340
42 P3 161 -2.340
42 P3 162 -1.851
42 P3 163 -0.875
42 P3 164 0.102
42 P3 165 0.102
42 P3 166 0.102
42 P3 167 -0.387
42 P3 168 -0.387
42 P3 169 -0.875
42 P3 170 -0.875
42 P3 171 -1.851
42 P3 172 -2.340
42 P3 173 -2.828
42 P3 174 -3.805
42 P3 175 -3.805
42 P3 176 -3.805
42 P3 177 -2.828
42 P3 178 -1.851
42 P3 179 -0.875
42 P3 180 0.102
42 P3 181 0.102
42 P3 182 -0.387
42 P3 183 0.102
42 P3 184 0.102
42 P3 185 1.567
42 P3 186 3.031
42 P3 187 4.008
42 P3 188 4.496
42 P3 189 4.008
42 P3 190 3.520
42 P3 191 3.031
42 P3 192 3.520
42 P3 193 3.520
42 P3 194 3.520
42 P3 195 2.543
42 P3 196 1.567
42 P3 197 0.590
42 P3 198 0.102
42 P3 199 0.102
42 P3 200 0.102
42 P3 201 0.102
42 P3 202 -0.387
42 P3 203 -0.875
42 P3 204 -0.387
42 P3 205 0.590
42 P3 206 2.055
42 P3 207 3.031
42 P3 208 3.520
42 P3 209 4.008
42 P3 210 4.496
42 P3 211 4.985
42 P3 212 4.985
42 P3 213 4.985
42 P3 214 4.496
42 P3 215 4.008
42 P3 216 4.008
42 P3 217 4.985
42 P3 218 5.961
42 P3 219 7.426
42 P3 220 8.403
42 P3 221 8.891
42 P3 222 8.891
42 P3 223 8.403
42 P3 224 7.914
42 P3 225 6.938
42 P3 226 6.449
42 P3 227 5.961
42 P3 228 4.985
42 P3 229 4.008
42 P3 230 2.055
42 P3 231 0.102
42 P3 232 -1.851
42 P3 233 -3.805
42 P3 234 -5.269
42 P3 235 -5.758
42 P3 236 -6.734
42 P3 237 -6.734
42 P3 238 -6.734
42 P3 239 -5.758
42 P3 240 -4.781
42 P3 241 -2.828
42 P3 242 -0.875
42 P3 243 1.078
42 P3 244 3.031
42 P3 245 4.496
42 P3 246 5.473
42 P3 247 6.449
42 P3 248 7.914
42 P3 249 9.379
42 P3 250 10.356
42 P3 251 10.844
42 P3 252 9.379
42 P3 253 6.938
42 P3 254 4.496
42 P3 255 2.055
# P4 chan 23
42 P4 0 -3.988
42 P4 1 -2.523
42 P4 2 -1.058
42 P4 3 -0.081
42 P4 4 0.895
42 P4 5 1.383
42 P4 6 2.848
42 P4 7 3.825
42 P4 8 4.313
42 P4 9 4.313
42 P4 10 3.825
42 P4 11 2.848
42 P4 12 1.872
42 P4 13 1.383
42 P4 14 0.407
42 P4 15 -2.035
42 P4 16 -5.452
42 P4 17 -8.382
42 P4 18 -9.847
42 P4 19 -10.335
42 P4 20 -8.870
42 P4 21 -7.406
42 P4 22 -4.964
42 P4 23 -2.523
42 P4 24 -1.058
42 P4 25 0.407
42 P4 26 1.383
42 P4 27 2.848
42 P4 28 4.801
42 P4 29 6.755
42 P4 30 8.219
42 P4 31 8.708
42 P4 32 7.731
42 P4 33 5.778
42 P4 34 4.313
42 P4 35 4.313
42 P4 36 4.313
42 P4 37 4.313
42 P4 38 3.337
42 P4 39 1.872
42 P4 40 0.407
42 P4 41 -0.570
42 P4 42 -1.546
42 P4 43 -2.523
42 P4 44 -3.499
42 P4 45 -5.941
42 P4 46 -7.894
42 P4 47 -9.847
42 P4 48 -10.824
42 P4 49 -10.824
42 P4 50 -10.824
42 P4 51 -10.335
42 P4 52 -9.847
42 P4 53 -9.359
42 P4 54 -8.382
42 P4 55 -7.894
42 P4 56 -6.429
42 P4 57 -5.452
42 P4 58 -4.476
42 P4 59 -3.499
42 P4 60 -2.523
42 P4 61 -2.035
42 P4 62 -2.035
42 P4 63 -2.035
42 P4 64 -2.035
42 P4 65 -2.523
42 P4 66 -2.523
42 P4 67 -1.546
42 P4 68 -0.570
42 P4 69 0.895
42 P4 70 1.383
42 P4 71 1.872
42 P4 72 1.383
42 P4 73 1.383
42 P4 74 1.872
42 P4 75 2.848
42 P4 76 4.313
42 P4 77 5.290
42 P4 78 5.290
42 P4 79 4.801
42 P4 80 4.313
42 P4 81 4.801
42 P4 82 5.290
42 P4 83 5.778
42 P4 84 5.778
42 P4 85 5.290
42 P4 86 4.801
42 P4 87 3.825
42 P4 88 2.848
42 P4 89 1.872
42 P4 90 0.895
42 P4 91 -0.081
42 P4 92 -0.570
42 P4 93 -0.570
42 P4 94 -0.081
42 P4 95 0.407
42 P4 96 0.407
42 P4 97 -0.081
42 P4 98 -0.081
42 P4 99 0.407
42 P4 100 0.895
42 P4 101 1.872
42 P4 102 2.360
42 P4 103 2.360
42 P4 104 1.872
42 P4 105 1.383
42 P4 106 1.383
42 P4 107 1.872
42 P4 108 2.848
42 P4 109 4.313
42 P4 110 4.801
42 P4 111 4.801
42 P4 112 4.801
42 P4 113 3.825
42 P4 114 3.825
42 P4 115 3.825
42 P4 116 3.825
42 P4 117 3.825
42 P4 118 3.825
42 P4 119 2.848
42 P4 120 2.848
42 P4 121 2.360
42 P4 122 1.872
42 P4 123 0.895
42 P4 124 -0.081
42 P4 125 -1.546
42 P4 126 -2.523
42 P4 127 -2.523
42 P4 128 -2.035
42 P4 129 -1.546
42 P4 130 -0.570
42 P4 131 -0.081
42 P4 132 0.895
42 P4 133 1.383
42 P4 134 1.872
42 P4 135 1.383
42 P4 136 0.895
42 P4 137 -0.570
42 P4 138 -1.546
42 P4 139 -1.546
42 P4 140 -1.058
42 P4 141 -0.570
42 P4 142 -1.058
42 P4 143 -1.546
42 P4 144 -2.523
42 P4 145 -2.035
42 P4 146 -1.546
42 P4 147 -0.570
42 P4 148 -0.570
42 P4 149 -2.035
42 P4 150 -3.988
42 P4 151 -5.941
42 P4 152 -7.406
42 P4 153 -7.406
42 P4 154 -6.917
42 P4 155 -5.941
42 P4 156 -4.964
42 P4 157 -3.988
42 P4 158 -3.499
42 P4 159 -3.499
42 P4 160 -3.499
42 P4 161 -3.988
42 P4 162 -3.988
42 P4 163 -3.499
42 P4 164 -3.499
42 P4 165 -3.988
42 P4 166 -4.964
42 P4 167 -6.429
42 P4 168 -6.429
42 P4 169 -6.429
42 P4 170 -6.429
42 P4 171 -5.452
42 P4 172 -4.476
42 P4 173 -4.476
42 P4 174 -4.964
42 P4 175 -5.452
42 P4 176 -5.452
42 P4 177 -5.452
42 P4 178 -4.476
42 P4 179 -3.988
42 P4 180 -3.988
42 P4 181 -4.476
42 P4 182 -4.476
42 P4 183 -3.988
42 P4 184 -3.499
42 P4 185 -2.523
42 P4 186 -2.035
42 P4 187 -2.523
42 P4 188 -2.523
42 P4 189 -3.011
42 P4 190 -2.523
42 P4 191 -2.035
42 P4 192 -1.546
42 P4 193 -1.058
42 P4 194 -0.570
42 P4 195 -0.570
42 P4 196 -0.081
42 P4 197 -0.081
42 P4 198 0.407
42 P4 199 0.895
42 P4 200 0.895
42 P4 201 1.383
42 P4 202 1.383
42 P4 203 0.895
42 P4 204 0.407
42 P4 205 -0.081
42 P4 206 -0.081
42 P4 207 0.407
42 P4 208 0.895
42 P4 209 0.895
42 P4 210 0.895
42 P4 211 0.895
42 P4 212 0.407
42 P4 213 -0.081
42 P4 214 -0.570
42 P4 215 -0.570
42 P4 216 -0.081
42 P4 217 0.895
42 P4 218 1.872
42 P4 219 2.848
42 P4 220 3.825
42 P4 221 4.313
42 P4 222 4.313
42 P4 223 4.313
42 P4 224 4.801
42 P4 225 4.801
42 P4 226 4.801
42 P4 227 3.825
42 P4 228 3.337
42 P4 229 1.383
42 P4 230 -0.081
42 P4 231 -2.523
42 P4 232 -4.476
42 P4 233 -4.964
42 P4 234 -4.964
42 P4 235 -4.476
42 P4 236 -3.988
42 P4 237 -3.988
42 P4 238 -4.476
42 P4 239 -3.988
42 P4 240 -3.499
42 P4 241 -2.523
42 P4 242 -2.035
42 P4 243 -1.546
42 P4 244 -1.546
42 P4 245 -1.058
42 P4 246 -1.058
42 P4 247 -0.570
42 P4 248 -0.570
42 P4 249 -1.058
42 P4 250 -1.546
42 P4 251 -1.058
42 P4 252 -1.058
42 P4 253 -1.058
42 P4 254 -0.570
42 P4 255 -0.570
# PZ chan 24
42 PZ 0 -4.852
42 PZ 1 -3.876
42 PZ 2 -3.387
42 PZ 3 -2.899
42 PZ 4 -2.411
42 PZ 5 -1.434
42 PZ 6 -0.458
42 PZ 7 0.031
42 PZ 8 0.031
42 PZ 9 -0.458
42 PZ 10 -1.434
42 PZ 11 -2.411
42 PZ 12 -3.387
42 PZ 13 -3.876
42 PZ 14 -5.341
42 PZ 15 -7.294
42 PZ 16 -9.735
42 PZ 17 -12.177
42 PZ 18 -14.130
42 PZ 19 -14.618
42 PZ 20 -14.130
42 PZ 21 -12.665
42 PZ 22 -10.712
42 PZ 23 -8.270
42 PZ 24 -6.805
42 PZ 25 -5.829
42 PZ 26 -4.852
42 PZ 27 -3.876
42 PZ 28 -2.411
42 PZ 29 -0.458
42 PZ 30 0.519
42 PZ 31 0.519
42 PZ 32 -0.458
42 PZ 33 -2.411
42 PZ 34 -3.387
42 PZ 35 -3.387
42 PZ 36 -1.923
42 PZ 37 -0.458
42 PZ 38 -0.458
42 PZ 39 -0.946
42 PZ 40 -1.923
42 PZ 41 -2.899
42 PZ 42 -3.876
42 PZ 43 -4.364
42 PZ 44 -6.317
42 PZ 45 -8.270
42 PZ 46 -10.712
42 PZ 47 -13.153
42 PZ 48 -15.106
42 PZ 49 -16.083
42 PZ 50 -17.059
42 PZ 51 -17.059
42 PZ 52 -17.059
42 PZ 53 -16.083
42 PZ 54 -15.594
42 PZ 55 -14.618
42 PZ 56 -13.641
42 PZ 57 -13.153
42 PZ 58 -12.665
42 PZ 59 -11.688
42 PZ 60 -10.712
42 PZ 61 -9.247
42 PZ 62 -8.759
42 PZ 63 -7.782
42 PZ 64 -7.294
42 PZ 65 -6.805
42 PZ 66 -6.317
42 PZ 67 -4.852
42 PZ 68 -3.876
42 PZ 69 -2.411
42 PZ 70 -1.434
42 PZ 71 -0.458
42 PZ 72 -0.458
42 PZ 73 -0.458
42 PZ 74 -1.434
42 PZ 75 -1.434
42 PZ 76 -1.434
42 PZ 77 -0.946
42 PZ 78 -1.434
42 PZ 79 -1.434
42 PZ 80 -1.923
42 PZ 81 -1.434
42 PZ 82 -0.946
42 PZ 83 -0.458
42 PZ 84 0.031
42 PZ 85 -0.458
42 PZ 86 -0.946
42 PZ 87 -1.434
42 PZ 88 -2.411
42 PZ 89 -3.387
42 PZ 90 -4.364
42 PZ 91 -5.341
42 PZ 92 -5.829
42 PZ 93 -6.317
42 PZ 94 -6.317
42 PZ 95 -5.829
42 PZ 96 -5.341
42 PZ 97 -4.852
42 PZ 98 -4.852
42 PZ 99 -4.364
42 PZ 100 -3.876
42 PZ 101 -2.899
42 PZ 102 -2.899
42 PZ 103 -3.387
42 PZ 104 -5.341
42 PZ 105 -6.805
42 PZ 106 -7.782
42 PZ 107 -8.270
42 PZ 108 -7.294
42 PZ 109 -6.317
42 PZ 110 -4.852
42 PZ 111 -4.364
42 PZ 112 -4.364
42 PZ 113 -4.364
42 PZ 114 -5.341
42 PZ 115 -5.341
42 PZ 116 -5.341
42 PZ 117 -5.829
42 PZ 118 -5.829
42 PZ 119 -5.829
42 PZ 120 -5.341
42 PZ 121 -4.364
42 PZ 122 -3.876
42 PZ 123 -3.876
42 PZ 124 -4.364
42 PZ 125 -4.852
42 PZ 126 -5.341
42 PZ 127 -5.341
42 PZ 128 -4.364
42 PZ 129 -3.387
42 PZ 130 -2.899
42 PZ 131 -2.899
42 PZ 132 -2.411
42 PZ 133 -1.923
42 PZ 134 -1.923
42 PZ 135 -2.411
42 PZ 136 -3.387
42 PZ 137 -4.852
42 PZ 138 -5.829
42 PZ 139 -6.805
42 PZ 140 -6.805
42 PZ 141 -6.805
42 PZ 142 -7.294
42 PZ 143 -7.782
42 PZ 144 -8.270
42 PZ 145 -8.270
42 PZ 146 -6.805
42 PZ 147 -5.829
42 PZ 148 -4.364
42 PZ 149 -4.364
42 PZ 150 -5.341
42 PZ 151 -6.805
42 PZ 152 -7.782
42 PZ 153 -8.270
42 PZ 154 -7.782
42 PZ 155 -6.805
42 PZ 156 -6.317
42 PZ 157 -6.317
42 PZ 158 -6.317
42 PZ 159 -6.805
42 PZ 160 -6.805
42 PZ 161 -7.294
42 PZ 162 -7.294
42 PZ 163 -7.294
42 PZ 164 -7.294
42 PZ 165 -7.294
42 PZ 166 -6.805
42 PZ 167 -7.294
42 PZ 168 -7.294
42 PZ 169 -7.294
42 PZ 170 -7.294
42 PZ 171 -6.805
42 PZ 172 -6.805
42 PZ 173 -6.805
42 PZ 174 -6.805
42 PZ 175 -7.294
42 PZ 176 -7.294
42 PZ 177 -6.805
42 PZ 178 -6.805
42 PZ 179 -6.317
42 PZ 180 -6.317
42 PZ 181 -6.805
42 PZ 182 -7.294
42 PZ 183 -7.782
42 PZ 184 -8.270
42 PZ 185 -8.270
42 PZ 186 -7.782
42 PZ 187 -7.782
42 PZ 188 -8.270
42 PZ 189 -8.759
42 PZ 190 -8.759
42 PZ 191 -8.759
42 PZ 192 -8.759
42 PZ 193 -8.270
42 PZ 194 -8.270
42 PZ 195 -8.759
42 PZ 196 -9.247
42 PZ 197 -9.735
42 PZ 198 -9.735
42 PZ 199 -9.247
42 PZ 200 -8.759
42 PZ 201 -8.270
42 PZ 202 -8.270
42 PZ 203 -8.270
42 PZ 204 -8.270
42 PZ 205 -8.270
42 PZ 206 -7.782
42 PZ 207 -7.294
42 PZ 208 -7.294
42 PZ 209 -7.294
42 PZ 210 -7.294
42 PZ 211 -7.782
42 PZ 212 -8.270
42 PZ 213 -8.759
42 PZ 214 -9.247
42 PZ 215 -9.735
42 PZ 216 -9.247
42 PZ 217 -7.782
42 PZ 218 -6.805
42 PZ 219 -5.341
42 PZ 220 -4.364
42 PZ 221 -3.387
42 PZ 222 -2.899
42 PZ 223 -2.411
42 PZ 224 -2.411
42 PZ 225 -2.899
42 PZ 226 -3.387
42 PZ 227 -3.876
42 PZ 228 -4.852
42 PZ 229 -5.341
42 PZ 230 -6.317
42 PZ 231 -8.270
42 PZ 232 -9.735
42 PZ 233 -11.200
42 PZ 234 -11.688
42 PZ 235 -11.688
42 PZ 236 -11.688
42 PZ 237 -12.177
42 PZ 238 -12.177
42 PZ 239 -12.177
42 PZ 240 -11.688
42 PZ 241 -10.223
42 PZ 242 -8.759
42 PZ 243 -7.294
42 PZ 244 -6.317
42 PZ 245 -5.829
42 PZ 246 -5.341
42 PZ 247 -4.852
42 PZ 248 -3.876
42 PZ 249 -3.876
42 PZ 250 -4.364
42 PZ 251 -4.852
42 PZ 252 -5.341
42 PZ 253 -6.317
42 PZ 254 -7.294
42 PZ 255 -7.782
# P8 chan 25
42 P8 0 -4.964
42 P8 1 -3.011
42 P8 2 -1.058
42 P8 3 0.895
42 P8 4 2.848
42 P8 5 4.801
42 P8 6 5.778
42 P8 7 6.755
42 P8 8 7.243
42 P8 9 6.755
42 P8 10 5.778
42 P8 11 5.290
42 P8 12 4.313
42 P8 13 2.848
42 P8 14 0.895
42 P8 15 -1.546
42 P8 16 -4.964
42 P8 17 -8.382
42 P8 18 -10.824
42 P8 19 -11.800
42 P8 20 -11.312
42 P8 21 -9.359
42 P8 22 -6.429
42 P8 23 -3.499
42 P8 24 -0.570
42 P8 25 1.383
42 P8 26 2.848
42 P8 27 4.801
42 P8 28 6.755
42 P8 29 9.684
42 P8 30 12.126
42 P8 31 12.614
42 P8 32 12.126
42 P8 33 10.173
42 P8 34 9.196
42 P8 35 8.708
42 P8 36 8.708
42 P8 37 8.708
42 P8 38 7.243
42 P8 39 4.801
42 P8 40 2.848
42 P8 41 1.383
42 P8 42 -0.081
42 P8 43 -1.058
42 P8 44 -3.011
42 P8 45 -5.941
42 P8 46 -8.870
42 P8 47 -10.824
42 P8 48 -11.800
42 P8 49 -11.800
42 P8 50 -11.800
42 P8 51 -11.800
42 P8 52 -11.312
42 P8 53 -10.824
42 P8 54 -9.847
42 P8 55 -8.382
42 P8 56 -6.917
42 P8 57 -4.476
42 P8 58 -3.011
42 P8 59 -1.058
42 P8 60 -0.081
42 P8 61 0.895
42 P8 62 1.383
42 P8 63 1.383
42 P8 64 0.895
42 P8 65 -0.081
42 P8 66 -0.570
42 P8 67 -0.570
42 P8 68 0.407
42 P8 69 1.383
42 P8 70 2.360
42 P8 71 2.360
42 P8 72 1.872
42 P8 73 1.872
42 P8 74 2.848
42 P8 75 4.801
42 P8 76 6.755
42 P8 77 7.731
42 P8 78 7.731
42 P8 79 6.266
42 P8 80 5.290
42 P8 81 5.290
42 P8 82 5.290
42 P8 83 5.778
42 P8 84 5.290
42 P8 85 4.801
42 P8 86 4.313
42 P8 87 4.313
42 P8 88 4.801
42 P8 89 4.801
42 P8 90 3.825
42 P8 91 2.848
42 P8 92 1.383
42 P8 93 -0.081
42 P8 94 -0.081
42 P8 95 -0.570
42 P8 96 -1.058
42 P8 97 -2.523
42 P8 98 -3.988
42 P8 99 -4.476
42 P8 100 -4.476
42 P8 101 -3.499
42 P8 102 -2.523
42 P8 103 -0.570
42 P8 104 -0.081
42 P8 105 0.895
42 P8 106 1.872
42 P8 107 2.848
42 P8 108 4.313
42 P8 109 5.778
42 P8 110 6.755
42 P8 111 6.755
42 P8 112 6.266
42 P8 113 6.266
42 P8 114 5.778
42 P8 115 6.755
42 P8 116 7.243
42 P8 117 7.243
42 P8 118 6.755
42 P8 119 4.801
42 P8 120 2.848
42 P8 121 0.895
42 P8 122 -1.058
42 P8 123 -3.011
42 P8 124 -4.476
42 P8 125 -6.429
42 P8 126 -7.894
42 P8 127 -8.382
42 P8 128 -8.382
42 P8 129 -7.894
42 P8 130 -5.941
42 P8 131 -3.988
42 P8 132 -2.523
42 P8 133 -0.570
42 P8 134 0.407
42 P8 135 -0.081
42 P8 136 -1.058
42 P8 137 -2.523
42 P8 138 -3.988
42 P8 139 -3.988
42 P8 140 -3.499
42 P8 141 -2.523
42 P8 142 -2.523
42 P8 143 -3.499
42 P8 144 -4.964
42 P8 145 -5.941
42 P8 146 -5.941
42 P8 147 -5.452
42 P8 148 -5.452
42 P8 149 -6.917
42 P8 150 -9.847
42 P8 151 -13.265
42 P8 152 -15.218
42 P8 153 -15.706
42 P8 154 -14.730
42 P8 155 -13.265
42 P8 156 -11.800
42 P8 157 -10.824
42 P8 158 -9.847
42 P8 159 -8.382
42 P8 160 -7.406
42 P8 161 -6.429
42 P8 162 -6.917
42 P8 163 -7.894
42 P8 164 -8.382
42 P8 165 -8.870
42 P8 166 -9.847
42 P8 167 -10.335
42 P8 168 -11.312
42 P8 169 -12.288
42 P8 170 -12.288
42 P8 171 -11.800
42 P8 172 -11.312
42 P8 173 -11.312
42 P8 174 -12.777
42 P8 175 -14.242
42 P8 176 -15.218
42 P8 177 -14.730
42 P8 178 -13.753
42 P8 179 -12.288
42 P8 180 -11.800
42 P8 181 -11.800
42 P8 182 -10.824
42 P8 183 -9.359
42 P8 184 -7.406
42 P8 185 -4.964
42 P8 186 -3.988
42 P8 187 -3.988
42 P8 188 -4.964
42 P8 189 -5.452
42 P8 190 -4.964
42 P8 191 -3.988
42 P8 192 -2.523
42 P8 193 -2.035
42 P8 194 -1.546
42 P8 195 -1.058
42 P8 196 -0.570
42 P8 197 -0.081
42 P8 198 -0.081
42 P8 199 -0.081
42 P8 200 -0.570
42 P8 201 -1.058
42 P8 202 -1.546
42 P8 203 -2.035
42 P8 204 -3.011
42 P8 205 -3.011
42 P8 206 -3.011
42 P8 207 -2.035
42 P8 208 -1.058
42 P8 209 -0.081
42 P8 210 1.383
42 P8 211 1.872
42 P8 212 2.848
42 P8 213 2.848
42 P8 214 2.848
42 P8 215 2.848
42 P8 216 2.848
42 P8 217 2.848
42 P8 218 3.337
42 P8 219 3.825
42 P8 220 4.313
42 P8 221 4.313
42 P8 222 3.825
42 P8 223 2.848
42 P8 224 2.360
42 P8 225 1.872
42 P8 226 2.360
42 P8 227 2.848
42 P8 228 2.848
42 P8 229 0.895
42 P8 230 -2.035
42 P8 231 -4.964
42 P8 232 -6.917
42 P8 233 -6.917
42 P8 234 -5.941
42 P8 235 -3.988
42 P8 236 -3.011
42 P8 237 -3.499
42 P8 238 -3.499
42 P8 239 -3.988
42 P8 240 -3.011
42 P8 241 -2.523
42 P8 242 -2.523
42 P8 243 -3.499
42 P8 244 -4.964
42 P8 245 -5.452
42 P8 246 -5.452
42 P8 247 -5.452
42 P8 248 -5.452
42 P8 249 -5.941
42 P8 250 -6.917
42 P8 251 -7.406
42 P8 252 -6.429
42 P8 253 -4.476
42 P8 254 -2.523
42 P8 255 -0.081
# P7 chan 26
42 P7 0 2.960
42 P7 1 4.913
42 P7 2 6.378
42 P7 3 7.355
42 P7 4 8.820
42 P7 5 10.284
42 P7 6 10.284
42 P7 7 9.308
42 P7 8 7.843
42 P7 9 6.378
42 P7 10 5.402
42 P7 11 4.913
42 P7 12 5.402
42 P7 13 4.913
42 P7 14 3.937
42 P7 15 1.495
42 P7 16 -0.946
42 P7 17 -2.899
42 P7 18 -4.852
42 P7 19 -5.829
42 P7 20 -6.317
42 P7 21 -5.829
42 P7 22 -2.899
42 P7 23 0.031
42 P7 24 3.448
42 P7 25 6.378
42 P7 26 7.843
42 P7 27 9.308
42 P7 28 10.773
42 P7 29 12.726
42 P7 30 14.191
42 P7 31 14.191
42 P7 32 12.726
42 P7 33 10.284
42 P7 34 7.843
42 P7 35 7.843
42 P7 36 9.308
42 P7 37 11.749
42 P7 38 13.214
42 P7 39 13.702
42 P7 40 12.726
42 P7 41 11.261
42 P7 42 9.796
42 P7 43 7.355
42 P7 44 4.913
42 P7 45 0.519
42 P7 46 -4.364
42 P7 47 -8.759
42 P7 48 -12.665
42 P7 49 -15.106
42 P7 50 -15.594
42 P7 51 -14.618
42 P7 52 -13.153
42 P7 53 -11.688
42 P7 54 -10.223
42 P7 55 -8.759
42 P7 56 -7.294
42 P7 57 -5.829
42 P7 58 -4.364
42 P7 59 -2.899
42 P7 60 -1.923
42 P7 61 -0.946
42 P7 62 0.031
42 P7 63 0.519
42 P7 64 1.495
42 P7 65 1.984
42 P7 66 3.448
42 P7 67 4.913
42 P7 68 6.378
42 P7 69 7.843
42 P7 70 9.308
42 P7 71 10.773
42 P7 72 11.749
42 P7 73 13.214
42 P7 74 13.214
42 P7 75 13.214
42 P7 76 11.749
42 P7 77 9.308
42 P7 78 6.866
42 P7 79 4.425
42 P7 80 3.448
42 P7 81 3.448
42 P7 82 4.425
42 P7 83 5.890
42 P7 84 6.866
42 P7 85 7.843
42 P7 86 8.331
42 P7 87 9.308
42 P7 88 10.284
42 P7 89 11.261
42 P7 90 11.749
42 P7 91 11.261
42 P7 92 9.796
42 P7 93 8.331
42 P7 94 7.843
42 P7 95 7.843
42 P7 96 7.355
42 P7 97 6.378
42 P7 98 5.890
42 P7 99 5.890
42 P7 100 5.890
42 P7 101 6.866
42 P7 102 8.820
42 P7 103 9.308
42 P7 104 9.796
42 P7 105 9.308
42 P7 106 9.308
42 P7 107 10.773
42 P7 108 12.238
42 P7 109 14.191
42 P7 110 15.656
42 P7 111 15.656
42 P7 112 15.167
42 P7 113 14.679
42 P7 114 13.702
42 P7 115 12.726
42 P7 116 11.749
42 P7 117 10.773
42 P7 118 9.308
42 P7 119 7.843
42 P7 120 6.866
42 P7 121 5.890
42 P7 122 4.425
42 P7 123 2.472
42 P7 124 1.007
42 P7 125 0.519
42 P7 126 1.984
42 P7 127 4.425
42 P7 128 6.378
42 P7 129 7.843
42 P7 130 7.843
42 P7 131 7.843
42 P7 132 8.331
42 P7 133 9.796
42 P7 134 10.284
42 P7 135 10.773
42 P7 136 9.308
42 P7 137 7.355
42 P7 138 5.402
42 P7 139 3.937
42 P7 140 2.960
42 P7 141 2.472
42 P7 142 1.495
42 P7 143 0.031
42 P7 144 -1.923
42 P7 145 -2.899
42 P7 146 -2.899
42 P7 147 -1.923
42 P7 148 -0.458
42 P7 149 -0.458
42 P7 150 -1.434
42 P7 151 -3.876
42 P7 152 -5.341
42 P7 153 -6.317
42 P7 154 -5.829
42 P7 155 -4.364
42 P7 156 -2.899
42 P7 157 -2.411
42 P7 158 -2.899
42 P7 159 -3.387
42 P7 160 -3.876
42 P7 161 -3.387
42 P7 162 -2.899
42 P7 163 -2.411
42 P7 164 -2.411
42 P7 165 -3.387
42 P7 166 -4.364
42 P7 167 -4.852
42 P7 168 -5.829
42 P7 169 -6.317
42 P7 170 -7.782
42 P7 171 -9.735
42 P7 172 -11.200
42 P7 173 -12.177
42 P7 174 -12.665
42 P7 175 -11.688
42 P7 176 -10.712
42 P7 177 -9.735
42 P7 178 -8.270
42 P7 179 -6.805
42 P7 180 -4.852
42 P7 181 -2.899
42 P7 182 -1.923
42 P7 183 -0.458
42 P7 184 0.031
42 P7 185 1.495
42 P7 186 2.960
42 P7 187 3.937
42 P7 188 4.425
42 P7 189 4.425
42 P7 190 3.937
42 P7 191 3.448
42 P7 192 3.448
42 P7 193 3.448
42 P7 194 3.937
42 P7 195 2.960
42 P7 196 1.984
42 P7 197 1.007
42 P7 198 0.519
42 P7 199 0.031
42 P7 200 -0.458
42 P7 201 -1.923
42 P7 202 -3.387
42 P7 203 -3.387
42 P7 204 -2.899
42 P7 205 -0.946
42 P7 206 1.984
42 P7 207 4.425
42 P7 208 5.890
42 P7 209 7.355
42 P7 210 8.820
42 P7 211 10.284
42 P7 212 11.749
42 P7 213 12.726
42 P7 214 12.238
42 P7 215 11.749
42 P7 216 10.773
42 P7 217 9.796
42 P7 218 10.284
42 P7 219 11.261
42 P7 220 12.238
42 P7 221 12.726
42 P7 222 12.238
42 P7 223 10.773
42 P7 224 8.820
42 P7 225 6.866
42 P7 226 6.378
42 P7 227 6.378
42 P7 228 6.378
42 P7 229 5.402
42 P7 230 3.448
42 P7 231 0.031
42 P7 232 -2.411
42 P7 233 -4.852
42 P7 234 -5.829
42 P7 235 -6.805
42 P7 236 -6.805
42 P7 237 -6.317
42 P7 238 -5.341
42 P7 239 -4.364
42 P7 240 -2.411
42 P7 241 -0.946
42 P7 242 1.007
42 P7 243 2.960
42 P7 244 4.913
42 P7 245 6.866
42 P7 246 9.308
42 P7 247 11.261
42 P7 248 12.726
42 P7 249 13.702
42 P7 250 14.191
42 P7 251 14.191
42 P7 252 13.214
42 P7 253 10.773
42 P7 254 7.355
42 P7 255 4.425
# PO2 chan 27
42 PO2 0 -3.754
42 PO2 1 -1.801
42 PO2 2 0.153
42 PO2 3 2.106
42 PO2 4 3.571
42 PO2 5 5.035
42 PO2 6 5.524
42 PO2 7 6.012
42 PO2 8 6.012
42 PO2 9 5.524
42 PO2 10 4.547
42 PO2 11 3.571
42 PO2 12 2.594
42 PO2 13 0.641
42 PO2 14 -1.312
42 PO2 15 -4.730
42 PO2 16 -8.636
42 PO2 17 -12.543
42 PO2 18 -15.472
42 PO2 19 -16.449
42 PO2 20 -15.961
42 PO2 21 -14.008
42 PO2 22 -10.590
42 PO2 23 -7.172
42 PO2 24 -4.730
42 PO2 25 -2.777
42 PO2 26 -1.312
42 PO2 27 0.641
42 PO2 28 4.059
42 PO2 29 6.989
42 PO2 30 9.918
42 PO2 31 10.406
42 PO2 32 8.942
42 PO2 33 6.500
42 PO2 34 4.547
42 PO2 35 4.547
42 PO2 36 6.012
42 PO2 37 6.989
42 PO2 38 6.989
42 PO2 39 5.524
42 PO2 40 3.571
42 PO2 41 2.106
42 PO2 42 0.641
42 PO2 43 -0.824
42 PO2 44 -3.265
42 PO2 45 -6.683
42 PO2 46 -10.590
42 PO2 47 -14.008
42 PO2 48 -15.961
42 PO2 49 -17.426
42 PO2 50 -17.914
42 PO2 51 -17.426
42 PO2 52 -16.937
42 PO2 53 -15.961
42 PO2 54 -14.984
42 PO2 55 -14.008
42 PO2 56 -12.543
42 PO2 57 -11.566
42 PO2 58 -10.101
42 PO2 59 -9.125
42 PO2 60 -8.148
42 PO2 61 -6.683
42 PO2 62 -5.707
42 PO2 63 -4.730
42 PO2 64 -4.242
42 PO2 65 -4.242
42 PO2 66 -3.754
42 PO2 67 -2.777
42 PO2 68 -1.312
42 PO2 69 0.153
42 PO2 70 1.129
42 PO2 71 2.106
42 PO2 72 2.106
42 PO2 73 2.106
42 PO2 74 1.617
42 PO2 75 2.106
42 PO2 76 3.082
42 PO2 77 4.059
42 PO2 78 4.059
42 PO2 79 4.059
42 PO2 80 3.571
42 PO2 81 4.059
42 PO2 82 5.035
42 PO2 83 6.012
42 PO2 84 6.989
42 PO2 85 6.500
42 PO2 86 5.524
42 PO2 87 5.035
42 PO2 88 4.059
42 PO2 89 2.594
42 PO2 90 1.617
42 PO2 91 -0.336
42 PO2 92 -1.801
42 PO2 93 -2.777
42 PO2 94 -2.777
42 PO2 95 -2.289
42 PO2 96 -2.289
42 PO2 97 -2.289
42 PO2 98 -2.289
42 PO2 99 -1.801
42 PO2 100 -0.824
42 PO2 101 0.153
42 PO2 102 1.129
42 PO2 103 1.129
42 PO2 104 0.153
42 PO2 105 -1.312
42 PO2 106 -1.801
42 PO2 107 -1.801
42 PO2 108 -0.336
42 PO2 109 1.617
42 PO2 110 3.571
42 PO2 111 5.035
42 PO2 112 4.547
42 PO2 113 3.571
42 PO2 114 2.594
42 PO2 115 1.617
42 PO2 116 1.129
42 PO2 117 0.641
42 PO2 118 0.641
42 PO2 119 0.153
42 PO2 120 0.153
42 PO2 121 0.153
42 PO2 122 -0.336
42 PO2 123 -0.824
42 PO2 124 -2.289
42 PO2 125 -3.754
42 PO2 126 -5.219
42 PO2 127 -5.219
42 PO2 128 -4.730
42 PO2 129 -3.265
42 PO2 130 -2.289
42 PO2 131 -0.824
42 PO2 132 -0.336
42 PO2 133 0.641
42 PO2 134 0.641
42 PO2 135 0.153
42 PO2 136 -0.824
42 PO2 137 -3.265
42 PO2 138 -4.242
42 PO2 139 -4.730
42 PO2 140 -4.242
42 PO2 141 -3.754
42 PO2 142 -4.242
42 PO2 143 -5.707
42 PO2 144 -7.172
42 PO2 145 -7.172
42 PO2 146 -5.707
42 PO2 147 -3.754
42 PO2 148 -2.289
42 PO2 149 -3.265
42 PO2 150 -5.219
42 PO2 151 -8.148
42 PO2 152 -10.101
42 PO2 153 -10.590
42 PO2 154 -9.613
42 PO2 155 -8.636
42 PO2 156 -7.660
42 PO2 157 -7.660
42 PO2 158 -7.172
42 PO2 159 -7.172
42 PO2 160 -7.172
42 PO2 161 -7.172
42 PO2 162 -7.172
42 PO2 163 -7.660
42 PO2 164 -7.660
42 PO2 165 -7.660
42 PO2 166 -7.660
42 PO2 167 -8.636
42 PO2 168 -9.125
42 PO2 169 -9.613
42 PO2 170 -9.125
42 PO2 171 -8.148
42 PO2 172 -7.172
42 PO2 173 -6.683
42 PO2 174 -7.172
42 PO2 175 -7.660
42 PO2 176 -8.148
42 PO2 177 -7.660
42 PO2 178 -6.195
42 PO2 179 -5.707
42 PO2 180 -5.707
42 PO2 181 -6.195
42 PO2 182 -6.683
42 PO2 183 -6.683
42 PO2 184 -6.195
42 PO2 185 -4.730
42 PO2 186 -4.242
42 PO2 187 -3.754
42 PO2 188 -4.730
42 PO2 189 -5.707
42 PO2 190 -6.195
42 PO2 191 -5.707
42 PO2 192 -4.242
42 PO2 193 -3.754
42 PO2 194 -3.265
42 PO2 195 -3.754
42 PO2 196 -4.242
42 PO2 197 -4.730
42 PO2 198 -4.242
42 PO2 199 -3.754
42 PO2 200 -3.265
42 PO2 201 -2.777
42 PO2 202 -2.777
42 PO2 203 -2.777
42 PO2 204 -2.289
42 PO2 205 -1.801
42 PO2 206 -1.312
42 PO2 207 -0.824
42 PO2 208 -0.336
42 PO2 209 -0.824
42 PO2 210 -0.824
42 PO2 211 -1.801
42 PO2 212 -2.289
42 PO2 213 -3.265
42 PO2 214 -4.242
42 PO2 215 -4.730
42 PO2 216 -4.730
42 PO2 217 -3.754
42 PO2 218 -2.289
42 PO2 219 -0.824
42 PO2 220 0.153
42 PO2 221 1.129
42 PO2 222 2.106
42 PO2 223 2.106
42 PO2 224 2.106
42 PO2 225 1.617
42 PO2 226 1.617
42 PO2 227 1.129
42 PO2 228 1.129
42 PO2 229 -0.336
42 PO2 230 -2.289
42 PO2 231 -5.219
42 PO2 232 -8.148
42 PO2 233 -9.613
42 PO2 234 -9.613
42 PO2 235 -9.125
42 PO2 236 -9.125
42 PO2 237 -9.613
42 PO2 238 -10.101
42 PO2 239 -10.101
42 PO2 240 -9.125
42 PO2 241 -8.148
42 PO2 242 -6.683
42 PO2 243 -5.219
42 PO2 244 -4.730
42 PO2 245 -4.242
42 PO2 246 -3.265
42 PO2 247 -2.289
42 PO2 248 -1.801
42 PO2 249 -1.801
42 PO2 250 -2.289
42 PO2 251 -2.777
42 PO2 252 -3.754
42 PO2 253 -4.242
42 PO2 254 -4.730
42 PO2 255 -4.730
# PO1 chan 28
42 PO1 0 -0.834
42 PO1 1 0.142
42 PO1 2 1.607
42 PO1 3 2.584
42 PO1 4 4.049
42 PO1 5 5.025
42 PO1 6 6.002
42 PO1 7 6.002
42 PO1 8 5.514
42 PO1 9 4.049
42 PO1 10 3.072
42 PO1 11 2.096
42 PO1 12 0.631
42 PO1 13 -0.834
42 PO1 14 -2.787
42 PO1 15 -5.229
42 PO1 16 -8.647
42 PO1 17 -11.088
42 PO1 18 -13.529
42 PO1 19 -14.506
42 PO1 20 -14.018
42 PO1 21 -12.553
42 PO1 22 -9.623
42 PO1 23 -5.717
42 PO1 24 -3.276
42 PO1 25 -1.322
42 PO1 26 0.142
42 PO1 27 1.607
42 PO1 28 3.560
42 PO1 29 6.002
42 PO1 30 7.467
42 PO1 31 6.978
42 PO1 32 5.025
42 PO1 33 2.584
42 PO1 34 1.119
42 PO1 35 1.607
42 PO1 36 4.049
42 PO1 37 6.002
42 PO1 38 6.978
42 PO1 39 6.978
42 PO1 40 5.025
42 PO1 41 3.560
42 PO1 42 2.584
42 PO1 43 0.631
42 PO1 44 -1.811
42 PO1 45 -5.229
42 PO1 46 -9.135
42 PO1 47 -13.041
42 PO1 48 -15.483
42 PO1 49 -16.947
42 PO1 50 -17.924
42 PO1 51 -17.924
42 PO1 52 -16.947
42 PO1 53 -16.459
42 PO1 54 -15.483
42 PO1 55 -14.018
42 PO1 56 -13.529
42 PO1 57 -12.553
42 PO1 58 -12.065
42 PO1 59 -11.088
42 PO1 60 -9.623
42 PO1 61 -8.158
42 PO1 62 -7.182
42 PO1 63 -6.205
42 PO1 64 -5.229
42 PO1 65 -4.740
42 PO1 66 -3.764
42 PO1 67 -1.811
42 PO1 68 0.142
42 PO1 69 2.584
42 PO1 70 4.537
42 PO1 71 6.490
42 PO1 72 6.978
42 PO1 73 7.467
42 PO1 74 6.978
42 PO1 75 6.490
42 PO1 76 6.002
42 PO1 77 5.514
