# co2a0000396.rd
# 120 trials, 64 chans, 416 samples 368 post_stim samples
# 3.906000 msecs uV
# S1 obj , trial 96
# FP1 chan 0
96 FP1 0 3.276
96 FP1 1 4.740
96 FP1 2 5.717
96 FP1 3 6.694
96 FP1 4 7.182
96 FP1 5 8.647
96 FP1 6 10.111
96 FP1 7 10.600
96 FP1 8 9.623
96 FP1 9 7.182
96 FP1 10 3.764
96 FP1 11 1.322
96 FP1 12 0.346
96 FP1 13 0.346
96 FP1 14 0.346
96 FP1 15 -0.631
96 FP1 16 -2.096
96 FP1 17 -2.584
96 FP1 18 -1.607
96 FP1 19 0.834
96 FP1 20 3.764
96 FP1 21 5.717
96 FP1 22 5.717
96 FP1 23 4.740
96 FP1 24 4.740
96 FP1 25 5.229
96 FP1 26 6.205
96 FP1 27 7.182
96 FP1 28 7.670
96 FP1 29 7.670
96 FP1 30 7.670
96 FP1 31 7.182
96 FP1 32 6.205
96 FP1 33 4.740
96 FP1 34 2.787
96 FP1 35 1.322
96 FP1 36 0.346
96 FP1 37 -0.142
96 FP1 38 -1.119
96 FP1 39 -2.096
96 FP1 40 -3.072
96 FP1 41 -4.537
96 FP1 42 -5.025
96 FP1 43 -5.025
96 FP1 44 -4.537
96 FP1 45 -4.049
96 FP1 46 -3.560
96 FP1 47 -2.096
96 FP1 48 -1.119
96 FP1 49 -0.631
96 FP1 50 -1.119
96 FP1 51 -2.096
96 FP1 52 -3.560
96 FP1 53 -4.537
96 FP1 54 -4.049
96 FP1 55 -3.072
96 FP1 56 -2.096
96 FP1 57 -2.096
96 FP1 58 -4.537
96 FP1 59 -7.467
96 FP1 60 -9.908
96 FP1 61 -10.885
96 FP1 62 -9.908
96 FP1 63 -6.978
96 FP1 64 -4.537
96 FP1 65 -3.560
96 FP1 66 -4.537
96 FP1 67 -6.490
96 FP1 68 -8.443
96 FP1 69 -9.420
96 FP1 70 -9.908
96 FP1 71 -10.396
96 FP1 72 -11.373
96 FP1 73 -11.373
96 FP1 74 -10.885
96 FP1 75 -8.443
96 FP1 76 -6.490
96 FP1 77 -4.537
96 FP1 78 -4.537
96 FP1 79 -5.025
96 FP1 80 -5.025
96 FP1 81 -4.049
96 FP1 82 -0.631
96 FP1 83 2.299
96 FP1 84 3.764
96 FP1 85 2.299
96 FP1 86 -0.142
96 FP1 87 -3.072
96 FP1 88 -5.025
96 FP1 89 -4.537
96 FP1 90 -3.072
96 FP1 91 -1.607
96 FP1 92 -1.607
96 FP1 93 -3.072
96 FP1 94 -4.537
96 FP1 95 -6.002
96 FP1 96 -6.002
96 FP1 97 -4.537
96 FP1 98 -2.096
96 FP1 99 0.346
96 FP1 100 1.811
96 FP1 101 1.811
96 FP1 102 -0.142
96 FP1 103 -2.096
96 FP1 104 -3.072
96 FP1 105 -3.072
96 FP1 106 -1.607
96 FP1 107 0.346
96 FP1 108 0.834
96 FP1 109 1.322
96 FP1 110 0.834
96 FP1 111 0.346
96 FP1 112 0.834
96 FP1 113 1.811
96 FP1 114 2.787
96 FP1 115 3.276
96 FP1 116 3.276
96 FP1 117 3.764
96 FP1 118 4.740
96 FP1 119 6.205
96 FP1 120 7.182
96 FP1 121 7.670
96 FP1 122 7.670
96 FP1 123 7.670
96 FP1 124 7.670
96 FP1 125 8.158
96 FP1 126 8.158
96 FP1 127 6.694
96 FP1 128 5.229
96 FP1 129 3.764
96 FP1 130 2.299
96 FP1 131 0.834
96 FP1 132 -0.142
96 FP1 133 -1.119
96 FP1 134 -0.631
96 FP1 135 0.346
96 FP1 136 2.299
96 FP1 137 4.252
96 FP1 138 4.252
96 FP1 139 3.276
96 FP1 140 1.322
96 FP1 141 0.346
96 FP1 142 0.834
96 FP1 143 2.787
96 FP1 144 4.252
96 FP1 145 4.740
96 FP1 146 3.764
96 FP1 147 2.299
96 FP1 148 2.299
96 FP1 149 3.276
96 FP1 150 3.764
96 FP1 151 3.276
96 FP1 152 1.322
96 FP1 153 -1.119
96 FP1 154 -2.096
96 FP1 155 -0.142
96 FP1 156 3.276
96 FP1 157 6.205
96 FP1 158 6.205
96 FP1 159 4.740
96 FP1 160 3.276
96 FP1 161 2.787
96 FP1 162 3.764
96 FP1 163 5.229
96 FP1 164 5.717
96 FP1 165 4.740
96 FP1 166 2.787
96 FP1 167 2.299
96 FP1 168 3.276
96 FP1 169 4.740
96 FP1 170 6.694
96 FP1 171 7.182
96 FP1 172 6.694
96 FP1 173 5.717
96 FP1 174 4.740
96 FP1 175 3.764
96 FP1 176 3.276
96 FP1 177 2.787
96 FP1 178 2.787
96 FP1 179 3.276
96 FP1 180 5.229
96 FP1 181 7.182
96 FP1 182 8.647
96 FP1 183 8.647
96 FP1 184 7.670
96 FP1 185 5.717
96 FP1 186 4.252
96 FP1 187 3.764
96 FP1 188 4.252
96 FP1 189 5.229
96 FP1 190 6.205
96 FP1 191 5.717
96 FP1 192 4.252
96 FP1 193 2.299
96 FP1 194 0.346
96 FP1 195 -0.631
96 FP1 196 -0.631
96 FP1 197 -0.142
96 FP1 198 0.834
96 FP1 199 2.299
96 FP1 200 3.276
96 FP1 201 3.764
96 FP1 202 3.764
96 FP1 203 3.276
96 FP1 204 3.276
96 FP1 205 3.276
96 FP1 206 3.276
96 FP1 207 2.787
96 FP1 208 1.322
96 FP1 209 -0.631
96 FP1 210 -1.607
96 FP1 211 -0.631
96 FP1 212 1.322
96 FP1 213 3.764
96 FP1 214 5.229
96 FP1 215 4.252
96 FP1 216 2.299
96 FP1 217 0.346
96 FP1 218 -1.119
96 FP1 219 -2.584
96 FP1 220 -5.025
96 FP1 221 -8.443
96 FP1 222 -11.861
96 FP1 223 -13.814
96 FP1 224 -12.838
96 FP1 225 -9.420
96 FP1 226 -5.514
96 FP1 227 -3.072
96 FP1 228 -2.584
96 FP1 229 -2.584
96 FP1 230 -2.584
96 FP1 231 -1.119
96 FP1 232 0.346
96 FP1 233 1.322
96 FP1 234 1.811
96 FP1 235 1.811
96 FP1 236 2.299
96 FP1 237 3.276
96 FP1 238 4.740
96 FP1 239 5.229
96 FP1 240 5.717
96 FP1 241 5.717
96 FP1 242 6.205
96 FP1 243 6.205
96 FP1 244 4.740
96 FP1 245 1.322
96 FP1 246 -2.584
96 FP1 247 -5.514
96 FP1 248 -6.002
96 FP1 249 -4.049
96 FP1 250 -2.584
96 FP1 251 -3.072
96 FP1 252 -5.025
96 FP1 253 -6.978
96 FP1 254 -7.955
96 FP1 255 -5.514
# FP2 chan 1
96 FP2 0 -0.865
96 FP2 1 0.600
96 FP2 2 2.553
96 FP2 3 4.506
96 FP2 4 6.948
96 FP2 5 9.878
96 FP2 6 12.319
96 FP2 7 13.295
96 FP2 8 11.342
96 FP2 9 7.924
96 FP2 10 4.995
96 FP2 11 3.042
96 FP2 12 3.042
96 FP2 13 3.042
96 FP2 14 2.065
96 FP2 15 0.112
96 FP2 16 -1.841
96 FP2 17 -2.818
96 FP2 18 -1.353
96 FP2 19 1.088
96 FP2 20 4.506
96 FP2 21 7.436
96 FP2 22 9.878
96 FP2 23 11.342
96 FP2 24 12.319
96 FP2 25 11.342
96 FP2 26 9.389
96 FP2 27 7.436
96 FP2 28 6.948
96 FP2 29 7.924
96 FP2 30 10.366
96 FP2 31 11.342
96 FP2 32 10.366
96 FP2 33 7.924
96 FP2 34 5.483
96 FP2 35 3.530
96 FP2 36 3.042
96 FP2 37 3.042
96 FP2 38 1.577
96 FP2 39 -0.376
96 FP2 40 -3.306
96 FP2 41 -4.771
96 FP2 42 -5.259
96 FP2 43 -4.283
96 FP2 44 -3.306
96 FP2 45 -3.306
96 FP2 46 -3.306
96 FP2 47 -3.306
96 FP2 48 -1.841
96 FP2 49 -0.376
96 FP2 50 1.088
96 FP2 51 0.600
96 FP2 52 -1.353
96 FP2 53 -3.306
96 FP2 54 -3.794
96 FP2 55 -1.353
96 FP2 56 2.065
96 FP2 57 3.530
96 FP2 58 1.577
96 FP2 59 -3.794
96 FP2 60 -9.654
96 FP2 61 -12.583
96 FP2 62 -11.119
96 FP2 63 -6.236
96 FP2 64 -2.330
96 FP2 65 -0.376
96 FP2 66 -1.841
96 FP2 67 -3.794
96 FP2 68 -5.747
96 FP2 69 -6.236
96 FP2 70 -7.212
96 FP2 71 -9.165
96 FP2 72 -11.607
96 FP2 73 -12.095
96 FP2 74 -9.165
96 FP2 75 -3.794
96 FP2 76 1.088
96 FP2 77 3.042
96 FP2 78 0.112
96 FP2 79 -3.306
96 FP2 80 -5.747
96 FP2 81 -4.283
96 FP2 82 0.112
96 FP2 83 4.506
96 FP2 84 6.460
96 FP2 85 4.995
96 FP2 86 1.577
96 FP2 87 -1.841
96 FP2 88 -4.283
96 FP2 89 -5.747
96 FP2 90 -6.236
96 FP2 91 -5.747
96 FP2 92 -4.771
96 FP2 93 -3.306
96 FP2 94 -0.865
96 FP2 95 2.065
96 FP2 96 4.506
96 FP2 97 5.483
96 FP2 98 5.483
96 FP2 99 4.018
96 FP2 100 2.065
96 FP2 101 1.088
96 FP2 102 1.088
96 FP2 103 0.112
96 FP2 104 -0.865
96 FP2 105 -1.353
96 FP2 106 -0.865
96 FP2 107 1.088
96 FP2 108 3.530
96 FP2 109 4.506
96 FP2 110 4.018
96 FP2 111 1.577
96 FP2 112 0.600
96 FP2 113 2.065
96 FP2 114 4.506
96 FP2 115 6.460
96 FP2 116 6.460
96 FP2 117 4.995
96 FP2 118 4.018
96 FP2 119 4.506
96 FP2 120 5.971
96 FP2 121 6.948
96 FP2 122 6.948
96 FP2 123 6.460
96 FP2 124 6.460
96 FP2 125 8.413
96 FP2 126 10.366
96 FP2 127 9.878
96 FP2 128 7.436
96 FP2 129 3.530
96 FP2 130 1.088
96 FP2 131 0.600
96 FP2 132 2.065
96 FP2 133 3.530
96 FP2 134 3.530
96 FP2 135 3.042
96 FP2 136 2.553
96 FP2 137 3.530
96 FP2 138 4.995
96 FP2 139 5.483
96 FP2 140 4.506
96 FP2 141 3.042
96 FP2 142 2.065
96 FP2 143 2.553
96 FP2 144 3.042
96 FP2 145 3.042
96 FP2 146 2.065
96 FP2 147 1.088
96 FP2 148 1.088
96 FP2 149 3.042
96 FP2 150 4.506
96 FP2 151 4.995
96 FP2 152 4.018
96 FP2 153 2.065
96 FP2 154 1.088
96 FP2 155 2.553
96 FP2 156 4.018
96 FP2 157 4.995
96 FP2 158 4.506
96 FP2 159 2.553
96 FP2 160 2.065
96 FP2 161 3.042
96 FP2 162 5.483
96 FP2 163 7.924
96 FP2 164 7.924
96 FP2 165 6.460
96 FP2 166 4.995
96 FP2 167 5.483
96 FP2 168 6.948
96 FP2 169 8.413
96 FP2 170 8.413
96 FP2 171 6.460
96 FP2 172 4.995
96 FP2 173 4.506
96 FP2 174 5.971
96 FP2 175 6.948
96 FP2 176 6.948
96 FP2 177 5.971
96 FP2 178 5.483
96 FP2 179 6.460
96 FP2 180 8.413
96 FP2 181 9.389
96 FP2 182 8.901
96 FP2 183 6.948
96 FP2 184 5.483
96 FP2 185 4.506
96 FP2 186 4.018
96 FP2 187 3.530
96 FP2 188 3.042
96 FP2 189 2.553
96 FP2 190 2.065
96 FP2 191 2.065
96 FP2 192 2.553
96 FP2 193 3.042
96 FP2 194 4.018
96 FP2 195 4.995
96 FP2 196 5.483
96 FP2 197 5.483
96 FP2 198 4.995
96 FP2 199 3.530
96 FP2 200 3.042
96 FP2 201 3.042
96 FP2 202 3.530
96 FP2 203 4.995
96 FP2 204 5.971
96 FP2 205 6.460
96 FP2 206 4.995
96 FP2 207 2.065
96 FP2 208 -2.330
96 FP2 209 -5.259
96 FP2 210 -4.771
96 FP2 211 -1.353
96 FP2 212 3.042
96 FP2 213 6.460
96 FP2 214 7.436
96 FP2 215 5.483
96 FP2 216 3.042
96 FP2 217 1.577
96 FP2 218 0.600
96 FP2 219 -0.865
96 FP2 220 -3.306
96 FP2 221 -6.236
96 FP2 222 -9.654
96 FP2 223 -10.630
96 FP2 224 -8.677
96 FP2 225 -4.771
96 FP2 226 -0.865
96 FP2 227 1.088
96 FP2 228 0.112
96 FP2 229 -1.841
96 FP2 230 -2.330
96 FP2 231 -0.865
96 FP2 232 1.577
96 FP2 233 4.018
96 FP2 234 4.506
96 FP2 235 4.506
96 FP2 236 4.995
96 FP2 237 6.948
96 FP2 238 8.901
96 FP2 239 9.389
96 FP2 240 8.413
96 FP2 241 6.460
96 FP2 242 5.971
96 FP2 243 6.460
96 FP2 244 7.436
96 FP2 245 5.971
96 FP2 246 2.065
96 FP2 247 -2.330
96 FP2 248 -3.794
96 FP2 249 -1.841
96 FP2 250 2.553
96 FP2 251 4.506
96 FP2 252 2.553
96 FP2 253 -2.330
96 FP2 254 -6.236
96 FP2 255 -6.724
# F7 chan 2
96 F7 0 3.245
96 F7 1 0.804
96 F7 2 -0.173
96 F7 3 1.780
96 F7 4 4.222
96 F7 5 5.198
96 F7 6 4.222
96 F7 7 1.780
96 F7 8 -1.149
96 F7 9 -3.591
96 F7 10 -5.056
96 F7 11 -6.521
96 F7 12 -7.497
96 F7 13 -7.985
96 F7 14 -8.474
96 F7 15 -9.450
96 F7 16 -10.915
96 F7 17 -11.403
96 F7 18 -11.403
96 F7 19 -9.450
96 F7 20 -6.032
96 F7 21 -3.591
96 F7 22 -2.614
96 F7 23 -3.103
96 F7 24 -4.079
96 F7 25 -4.567
96 F7 26 -3.591
96 F7 27 -2.126
96 F7 28 -1.149
96 F7 29 -1.638
96 F7 30 -2.126
96 F7 31 -2.126
96 F7 32 -2.126
96 F7 33 -1.638
96 F7 34 -2.126
96 F7 35 -4.079
96 F7 36 -7.009
96 F7 37 -9.939
96 F7 38 -11.403
96 F7 39 -10.915
96 F7 40 -9.450
96 F7 41 -8.474
96 F7 42 -9.450
96 F7 43 -11.403
96 F7 44 -12.868
96 F7 45 -12.380
96 F7 46 -9.939
96 F7 47 -6.521
96 F7 48 -4.079
96 F7 49 -3.591
96 F7 50 -6.032
96 F7 51 -9.939
96 F7 52 -12.868
96 F7 53 -14.333
96 F7 54 -13.357
96 F7 55 -12.380
96 F7 56 -11.403
96 F7 57 -11.403
96 F7 58 -13.357
96 F7 59 -15.310
96 F7 60 -16.774
96 F7 61 -16.286
96 F7 62 -13.845
96 F7 63 -10.915
96 F7 64 -9.450
96 F7 65 -10.427
96 F7 66 -13.357
96 F7 67 -15.798
96 F7 68 -16.774
96 F7 69 -15.798
96 F7 70 -15.310
96 F7 71 -16.286
96 F7 72 -18.239
96 F7 73 -20.192
96 F7 74 -19.216
96 F7 75 -16.286
96 F7 76 -12.380
96 F7 77 -10.427
96 F7 78 -11.403
96 F7 79 -13.357
96 F7 80 -13.845
96 F7 81 -11.892
96 F7 82 -8.474
96 F7 83 -5.544
96 F7 84 -4.567
96 F7 85 -5.544
96 F7 86 -6.521
96 F7 87 -6.521
96 F7 88 -5.544
96 F7 89 -3.591
96 F7 90 -3.103
96 F7 91 -3.103
96 F7 92 -3.591
96 F7 93 -5.544
96 F7 94 -7.497
96 F7 95 -10.915
96 F7 96 -12.380
96 F7 97 -12.868
96 F7 98 -10.427
96 F7 99 -7.009
96 F7 100 -5.056
96 F7 101 -6.032
96 F7 102 -9.450
96 F7 103 -13.357
96 F7 104 -13.845
96 F7 105 -11.403
96 F7 106 -6.521
96 F7 107 -2.614
96 F7 108 -1.638
96 F7 109 -3.103
96 F7 110 -5.544
96 F7 111 -7.009
96 F7 112 -5.544
96 F7 113 -3.591
96 F7 114 -1.149
96 F7 115 0.315
96 F7 116 0.315
96 F7 117 -0.661
96 F7 118 -0.661
96 F7 119 -0.173
96 F7 120 0.315
96 F7 121 1.292
96 F7 122 1.780
96 F7 123 2.757
96 F7 124 3.245
96 F7 125 4.710
96 F7 126 5.198
96 F7 127 4.222
96 F7 128 1.780
96 F7 129 -1.638
96 F7 130 -5.056
96 F7 131 -7.009
96 F7 132 -7.009
96 F7 133 -5.544
96 F7 134 -3.591
96 F7 135 -2.614
96 F7 136 -1.638
96 F7 137 -0.661
96 F7 138 0.315
96 F7 139 0.804
96 F7 140 -0.173
96 F7 141 -2.126
96 F7 142 -4.079
96 F7 143 -4.567
96 F7 144 -3.591
96 F7 145 -2.614
96 F7 146 -2.614
96 F7 147 -3.591
96 F7 148 -4.079
96 F7 149 -4.079
96 F7 150 -3.103
96 F7 151 -3.103
96 F7 152 -5.544
96 F7 153 -8.474
96 F7 154 -10.427
96 F7 155 -8.474
96 F7 156 -3.591
96 F7 157 1.292
96 F7 158 2.757
96 F7 159 0.804
96 F7 160 -3.103
96 F7 161 -6.032
96 F7 162 -6.032
96 F7 163 -3.591
96 F7 164 -1.149
96 F7 165 -0.661
96 F7 166 -3.103
96 F7 167 -5.544
96 F7 168 -7.497
96 F7 169 -7.009
96 F7 170 -5.056
96 F7 171 -3.103
96 F7 172 -2.126
96 F7 173 -1.149
96 F7 174 -1.638
96 F7 175 -2.614
96 F7 176 -4.079
96 F7 177 -6.032
96 F7 178 -6.521
96 F7 179 -5.056
96 F7 180 -1.149
96 F7 181 3.733
96 F7 182 7.640
96 F7 183 8.128
96 F7 184 6.175
96 F7 185 3.245
96 F7 186 1.292
96 F7 187 1.292
96 F7 188 3.245
96 F7 189 5.686
96 F7 190 6.663
96 F7 191 6.175
96 F7 192 3.245
96 F7 193 -0.661
96 F7 194 -5.056
96 F7 195 -8.474
96 F7 196 -10.915
96 F7 197 -10.427
96 F7 198 -7.985
96 F7 199 -5.544
96 F7 200 -3.103
96 F7 201 -3.103
96 F7 202 -5.056
96 F7 203 -7.009
96 F7 204 -7.985
96 F7 205 -7.009
96 F7 206 -5.544
96 F7 207 -4.567
96 F7 208 -4.079
96 F7 209 -4.567
96 F7 210 -5.056
96 F7 211 -4.567
96 F7 212 -3.103
96 F7 213 -1.638
96 F7 214 -0.661
96 F7 215 -0.661
96 F7 216 -1.638
96 F7 217 -3.591
96 F7 218 -5.544
96 F7 219 -7.985
96 F7 220 -11.403
96 F7 221 -15.798
96 F7 222 -19.704
96 F7 223 -22.146
96 F7 224 -22.146
96 F7 225 -20.681
96 F7 226 -19.216
96 F7 227 -18.239
96 F7 228 -18.239
96 F7 229 -18.239
96 F7 230 -17.263
96 F7 231 -14.333
96 F7 232 -11.403
96 F7 233 -8.962
96 F7 234 -7.497
96 F7 235 -6.521
96 F7 236 -5.056
96 F7 237 -2.614
96 F7 238 -0.661
96 F7 239 0.804
96 F7 240 1.780
96 F7 241 1.780
96 F7 242 2.757
96 F7 243 2.268
96 F7 244 -0.173
96 F7 245 -5.544
96 F7 246 -11.892
96 F7 247 -16.774
96 F7 248 -17.751
96 F7 249 -15.310
96 F7 250 -13.357
96 F7 251 -12.868
96 F7 252 -15.310
96 F7 253 -18.239
96 F7 254 -18.728
96 F7 255 -15.798
# F8 chan 3
96 F8 0 -2.350
96 F8 1 -3.815
96 F8 2 -4.791
96 F8 3 -5.280
96 F8 4 -3.326
96 F8 5 0.092
96 F8 6 3.510
96 F8 7 5.463
96 F8 8 4.974
96 F8 9 3.510
96 F8 10 2.533
96 F8 11 2.533
96 F8 12 2.045
96 F8 13 0.580
96 F8 14 -2.838
96 F8 15 -6.744
96 F8 16 -8.209
96 F8 17 -6.744
96 F8 18 -2.350
96 F8 19 3.510
96 F8 20 6.439
96 F8 21 6.439
96 F8 22 3.998
96 F8 23 1.556
96 F8 24 1.068
96 F8 25 2.533
96 F8 26 4.486
96 F8 27 5.951
96 F8 28 5.463
96 F8 29 4.974
96 F8 30 4.974
96 F8 31 6.927
96 F8 32 8.392
96 F8 33 8.392
96 F8 34 5.951
96 F8 35 2.045
96 F8 36 -1.373
96 F8 37 -2.350
96 F8 38 -2.350
96 F8 39 -2.350
96 F8 40 -3.815
96 F8 41 -5.768
96 F8 42 -6.744
96 F8 43 -5.768
96 F8 44 -3.815
96 F8 45 -2.350
96 F8 46 -3.326
96 F8 47 -5.768
96 F8 48 -7.721
96 F8 49 -7.233
96 F8 50 -5.280
96 F8 51 -3.815
96 F8 52 -3.815
96 F8 53 -4.791
96 F8 54 -4.791
96 F8 55 -3.815
96 F8 56 -1.373
96 F8 57 0.092
96 F8 58 -2.350
96 F8 59 -7.233
96 F8 60 -13.092
96 F8 61 -16.022
96 F8 62 -14.557
96 F8 63 -10.162
96 F8 64 -4.791
96 F8 65 -2.350
96 F8 66 -2.838
96 F8 67 -6.256
96 F8 68 -10.162
96 F8 69 -12.604
96 F8 70 -13.092
96 F8 71 -13.580
96 F8 72 -14.557
96 F8 73 -14.557
96 F8 74 -13.092
96 F8 75 -9.186
96 F8 76 -4.791
96 F8 77 -1.862
96 F8 78 -1.373
96 F8 79 -1.862
96 F8 80 -2.838
96 F8 81 -1.373
96 F8 82 1.068
96 F8 83 3.021
96 F8 84 2.045
96 F8 85 -1.373
96 F8 86 -5.280
96 F8 87 -8.209
96 F8 88 -8.698
96 F8 89 -7.721
96 F8 90 -6.744
96 F8 91 -5.768
96 F8 92 -5.768
96 F8 93 -5.768
96 F8 94 -5.280
96 F8 95 -4.791
96 F8 96 -4.791
96 F8 97 -5.280
96 F8 98 -5.280
96 F8 99 -4.303
96 F8 100 -3.326
96 F8 101 -2.350
96 F8 102 -2.838
96 F8 103 -4.303
96 F8 104 -5.768
96 F8 105 -6.256
96 F8 106 -5.768
96 F8 107 -4.303
96 F8 108 -3.326
96 F8 109 -3.815
96 F8 110 -4.791
96 F8 111 -5.768
96 F8 112 -5.768
96 F8 113 -3.815
96 F8 114 -0.885
96 F8 115 1.068
96 F8 116 1.556
96 F8 117 0.580
96 F8 118 -0.885
96 F8 119 -2.838
96 F8 120 -3.326
96 F8 121 -3.815
96 F8 122 -3.326
96 F8 123 -2.350
96 F8 124 -1.373
96 F8 125 -1.373
96 F8 126 -1.862
96 F8 127 -4.303
96 F8 128 -6.256
96 F8 129 -7.233
96 F8 130 -6.744
96 F8 131 -5.768
96 F8 132 -4.791
96 F8 133 -4.303
96 F8 134 -3.815
96 F8 135 -1.862
96 F8 136 0.092
96 F8 137 2.045
96 F8 138 1.556
96 F8 139 -0.885
96 F8 140 -3.815
96 F8 141 -4.791
96 F8 142 -4.791
96 F8 143 -3.815
96 F8 144 -3.326
96 F8 145 -4.303
96 F8 146 -5.768
96 F8 147 -5.768
96 F8 148 -4.303
96 F8 149 -1.862
96 F8 150 -0.397
96 F8 151 -0.885
96 F8 152 -3.326
96 F8 153 -6.256
96 F8 154 -7.721
96 F8 155 -8.209
96 F8 156 -7.233
96 F8 157 -5.280
96 F8 158 -3.815
96 F8 159 -1.373
96 F8 160 2.045
96 F8 161 4.974
96 F8 162 6.439
96 F8 163 5.951
96 F8 164 3.021
96 F8 165 0.092
96 F8 166 -0.885
96 F8 167 0.580
96 F8 168 3.510
96 F8 169 4.974
96 F8 170 3.998
96 F8 171 2.045
96 F8 172 0.580
96 F8 173 1.068
96 F8 174 3.021
96 F8 175 4.974
96 F8 176 5.463
96 F8 177 4.974
96 F8 178 3.510
96 F8 179 2.533
96 F8 180 1.556
96 F8 181 1.556
96 F8 182 2.045
96 F8 183 3.021
96 F8 184 4.974
96 F8 185 6.439
96 F8 186 6.439
96 F8 187 5.951
96 F8 188 5.463
96 F8 189 5.463
96 F8 190 6.439
96 F8 191 7.904
96 F8 192 7.904
96 F8 193 6.439
96 F8 194 3.998
96 F8 195 2.045
96 F8 196 2.045
96 F8 197 2.533
96 F8 198 2.045
96 F8 199 -0.397
96 F8 200 -3.326
96 F8 201 -5.768
96 F8 202 -5.280
96 F8 203 -2.838
96 F8 204 0.092
96 F8 205 1.068
96 F8 206 0.092
96 F8 207 -2.350
96 F8 208 -3.815
96 F8 209 -3.815
96 F8 210 -2.838
96 F8 211 0.092
96 F8 212 3.021
96 F8 213 6.439
96 F8 214 9.369
96 F8 215 9.857
96 F8 216 7.904
96 F8 217 3.510
96 F8 218 -2.350
96 F8 219 -8.209
96 F8 220 -13.092
96 F8 221 -16.998
96 F8 222 -18.951
96 F8 223 -18.463
96 F8 224 -15.533
96 F8 225 -10.651
96 F8 226 -6.256
96 F8 227 -4.791
96 F8 228 -6.744
96 F8 229 -9.674
96 F8 230 -11.139
96 F8 231 -10.162
96 F8 232 -7.233
96 F8 233 -3.815
96 F8 234 -0.885
96 F8 235 2.533
96 F8 236 5.463
96 F8 237 8.881
96 F8 238 11.810
96 F8 239 12.299
96 F8 240 11.322
96 F8 241 9.857
96 F8 242 8.881
96 F8 243 8.392
96 F8 244 7.904
96 F8 245 6.439
96 F8 246 3.510
96 F8 247 -0.397
96 F8 248 -4.303
96 F8 249 -7.233
96 F8 250 -8.698
96 F8 251 -10.162
96 F8 252 -11.139
96 F8 253 -12.115
96 F8 254 -11.627
96 F8 255 -8.209
# AF1 chan 4
96 AF1 0 0.905
96 AF1 1 2.370
96 AF1 2 3.347
96 AF1 3 4.812
96 AF1 4 5.788
96 AF1 5 6.765
96 AF1 6 7.253
96 AF1 7 7.253
96 AF1 8 5.788
96 AF1 9 3.835
96 AF1 10 1.882
96 AF1 11 -0.071
96 AF1 12 -1.048
96 AF1 13 -2.024
96 AF1 14 -2.513
96 AF1 15 -3.001
96 AF1 16 -2.513
96 AF1 17 -1.536
96 AF1 18 -0.071
96 AF1 19 1.882
96 AF1 20 3.347
96 AF1 21 4.323
96 AF1 22 4.323
96 AF1 23 3.835
96 AF1 24 3.835
96 AF1 25 4.812
96 AF1 26 5.788
96 AF1 27 7.253
96 AF1 28 7.741
96 AF1 29 8.230
96 AF1 30 8.230
96 AF1 31 7.741
96 AF1 32 7.253
96 AF1 33 6.276
96 AF1 34 4.323
96 AF1 35 2.858
96 AF1 36 0.905
96 AF1 37 -0.559
96 AF1 38 -1.536
96 AF1 39 -2.024
96 AF1 40 -2.513
96 AF1 41 -3.489
96 AF1 42 -3.977
96 AF1 43 -4.466
96 AF1 44 -3.977
96 AF1 45 -3.001
96 AF1 46 -2.024
96 AF1 47 -1.048
96 AF1 48 -0.071
96 AF1 49 0.417
96 AF1 50 0.905
96 AF1 51 0.905
96 AF1 52 0.417
96 AF1 53 0.905
96 AF1 54 1.394
96 AF1 55 1.882
96 AF1 56 1.882
96 AF1 57 0.905
96 AF1 58 -1.048
96 AF1 59 -3.489
96 AF1 60 -5.442
96 AF1 61 -6.419
96 AF1 62 -5.442
96 AF1 63 -3.977
96 AF1 64 -2.513
96 AF1 65 -2.024
96 AF1 66 -2.513
96 AF1 67 -3.489
96 AF1 68 -4.954
96 AF1 69 -5.442
96 AF1 70 -6.419
96 AF1 71 -7.395
96 AF1 72 -8.372
96 AF1 73 -9.349
96 AF1 74 -8.860
96 AF1 75 -6.907
96 AF1 76 -3.977
96 AF1 77 -2.024
96 AF1 78 -1.536
96 AF1 79 -2.024
96 AF1 80 -2.513
96 AF1 81 -2.024
96 AF1 82 0.417
96 AF1 83 2.858
96 AF1 84 3.835
96 AF1 85 2.858
96 AF1 86 0.417
96 AF1 87 -2.024
96 AF1 88 -2.513
96 AF1 89 -1.536
96 AF1 90 0.417
96 AF1 91 1.882
96 AF1 92 1.882
96 AF1 93 0.417
96 AF1 94 -1.048
96 AF1 95 -2.024
96 AF1 96 -1.536
96 AF1 97 0.417
96 AF1 98 2.370
96 AF1 99 4.323
96 AF1 100 4.812
96 AF1 101 4.323
96 AF1 102 3.347
96 AF1 103 1.882
96 AF1 104 1.882
96 AF1 105 2.370
96 AF1 106 3.347
96 AF1 107 3.835
96 AF1 108 3.835
96 AF1 109 3.347
96 AF1 110 2.858
96 AF1 111 2.858
96 AF1 112 3.347
96 AF1 113 4.323
96 AF1 114 4.812
96 AF1 115 4.812
96 AF1 116 4.812
96 AF1 117 4.812
96 AF1 118 5.300
96 AF1 119 6.276
96 AF1 120 7.253
96 AF1 121 7.741
96 AF1 122 7.741
96 AF1 123 8.230
96 AF1 124 8.230
96 AF1 125 8.230
96 AF1 126 8.230
96 AF1 127 6.765
96 AF1 128 5.788
96 AF1 129 4.323
96 AF1 130 3.347
96 AF1 131 2.370
96 AF1 132 1.394
96 AF1 133 0.417
96 AF1 134 0.417
96 AF1 135 0.905
96 AF1 136 2.370
96 AF1 137 4.323
96 AF1 138 5.300
96 AF1 139 4.323
96 AF1 140 2.858
96 AF1 141 0.905
96 AF1 142 0.905
96 AF1 143 2.370
96 AF1 144 4.323
96 AF1 145 5.788
96 AF1 146 5.300
96 AF1 147 4.323
96 AF1 148 3.347
96 AF1 149 3.835
96 AF1 150 4.323
96 AF1 151 4.812
96 AF1 152 3.347
96 AF1 153 1.394
96 AF1 154 0.417
96 AF1 155 0.905
96 AF1 156 3.347
96 AF1 157 6.276
96 AF1 158 6.765
96 AF1 159 5.788
96 AF1 160 3.835
96 AF1 161 2.858
96 AF1 162 3.835
96 AF1 163 5.788
96 AF1 164 7.741
96 AF1 165 7.253
96 AF1 166 5.788
96 AF1 167 3.835
96 AF1 168 2.858
96 AF1 169 3.835
96 AF1 170 5.300
96 AF1 171 6.765
96 AF1 172 6.276
96 AF1 173 5.300
96 AF1 174 3.835
96 AF1 175 2.858
96 AF1 176 1.882
96 AF1 177 1.882
96 AF1 178 1.394
96 AF1 179 1.882
96 AF1 180 2.370
96 AF1 181 3.835
96 AF1 182 4.812
96 AF1 183 4.812
96 AF1 184 3.835
96 AF1 185 1.882
96 AF1 186 -0.071
96 AF1 187 -0.559
96 AF1 188 0.417
96 AF1 189 2.370
96 AF1 190 3.835
96 AF1 191 3.835
96 AF1 192 2.858
96 AF1 193 0.905
96 AF1 194 -0.559
96 AF1 195 -1.048
96 AF1 196 -0.559
96 AF1 197 0.417
96 AF1 198 1.394
96 AF1 199 3.347
96 AF1 200 4.323
96 AF1 201 5.300
96 AF1 202 5.788
96 AF1 203 5.788
96 AF1 204 5.300
96 AF1 205 4.323
96 AF1 206 3.347
96 AF1 207 1.882
96 AF1 208 -0.559
96 AF1 209 -2.513
96 AF1 210 -3.489
96 AF1 211 -2.513
96 AF1 212 -1.048
96 AF1 213 0.905
96 AF1 214 1.882
96 AF1 215 0.905
96 AF1 216 -0.559
96 AF1 217 -3.001
96 AF1 218 -3.977
96 AF1 219 -4.954
96 AF1 220 -4.954
96 AF1 221 -6.419
96 AF1 222 -7.884
96 AF1 223 -8.372
96 AF1 224 -7.884
96 AF1 225 -5.442
96 AF1 226 -3.489
96 AF1 227 -1.536
96 AF1 228 -1.048
96 AF1 229 -0.559
96 AF1 230 -0.559
96 AF1 231 -0.071
96 AF1 232 0.417
96 AF1 233 0.905
96 AF1 234 0.905
96 AF1 235 0.417
96 AF1 236 -0.071
96 AF1 237 -0.071
96 AF1 238 0.417
96 AF1 239 0.417
96 AF1 240 0.417
96 AF1 241 1.394
96 AF1 242 2.370
96 AF1 243 2.858
96 AF1 244 2.370
96 AF1 245 -0.071
96 AF1 246 -3.489
96 AF1 247 -6.419
96 AF1 248 -7.884
96 AF1 249 -7.395
96 AF1 250 -5.931
96 AF1 251 -4.466
96 AF1 252 -4.466
96 AF1 253 -5.442
96 AF1 254 -4.954
96 AF1 255 -3.489
# AF2 chan 5
96 AF2 0 1.292
96 AF2 1 1.780
96 AF2 2 1.292
96 AF2 3 1.292
96 AF2 4 2.268
96 AF2 5 4.710
96 AF2 6 7.151
96 AF2 7 8.616
96 AF2 8 7.640
96 AF2 9 6.175
96 AF2 10 4.710
96 AF2 11 2.757
96 AF2 12 1.292
96 AF2 13 -0.661
96 AF2 14 -2.614
96 AF2 15 -3.591
96 AF2 16 -3.103
96 AF2 17 -0.173
96 AF2 18 3.733
96 AF2 19 7.151
96 AF2 20 8.128
96 AF2 21 6.663
96 AF2 22 4.710
96 AF2 23 3.245
96 AF2 24 3.245
96 AF2 25 5.198
96 AF2 26 8.128
96 AF2 27 10.081
96 AF2 28 10.569
96 AF2 29 11.058
96 AF2 30 11.058
96 AF2 31 11.058
96 AF2 32 10.081
96 AF2 33 7.640
96 AF2 34 4.710
96 AF2 35 1.780
96 AF2 36 0.315
96 AF2 37 0.315
96 AF2 38 0.315
96 AF2 39 -0.661
96 AF2 40 -2.614
96 AF2 41 -4.567
96 AF2 42 -6.032
96 AF2 43 -5.544
96 AF2 44 -4.079
96 AF2 45 -2.614
96 AF2 46 -1.638
96 AF2 47 -1.638
96 AF2 48 -2.126
96 AF2 49 -1.638
96 AF2 50 -0.173
96 AF2 51 1.780
96 AF2 52 4.222
96 AF2 53 5.686
96 AF2 54 6.175
96 AF2 55 5.686
96 AF2 56 4.710
96 AF2 57 2.268
96 AF2 58 0.315
96 AF2 59 -2.126
96 AF2 60 -4.079
96 AF2 61 -4.567
96 AF2 62 -4.079
96 AF2 63 -2.614
96 AF2 64 -1.149
96 AF2 65 -1.149
96 AF2 66 -1.638
96 AF2 67 -2.614
96 AF2 68 -3.103
96 AF2 69 -2.614
96 AF2 70 -2.614
96 AF2 71 -4.079
96 AF2 72 -6.521
96 AF2 73 -8.474
96 AF2 74 -9.450
96 AF2 75 -7.497
96 AF2 76 -5.056
96 AF2 77 -2.126
96 AF2 78 -0.661
96 AF2 79 -0.661
96 AF2 80 -1.149
96 AF2 81 -0.173
96 AF2 82 1.780
96 AF2 83 3.733
96 AF2 84 3.245
96 AF2 85 0.315
96 AF2 86 -3.103
96 AF2 87 -5.544
96 AF2 88 -4.567
96 AF2 89 -1.149
96 AF2 90 1.780
96 AF2 91 3.245
96 AF2 92 2.268
96 AF2 93 0.315
96 AF2 94 -2.126
96 AF2 95 -2.614
96 AF2 96 -1.638
96 AF2 97 0.315
96 AF2 98 2.757
96 AF2 99 4.710
96 AF2 100 5.686
96 AF2 101 5.686
96 AF2 102 4.710
96 AF2 103 3.245
96 AF2 104 2.757
96 AF2 105 2.757
96 AF2 106 3.245
96 AF2 107 3.245
96 AF2 108 2.757
96 AF2 109 1.780
96 AF2 110 1.292
96 AF2 111 1.780
96 AF2 112 2.757
96 AF2 113 3.245
96 AF2 114 2.268
96 AF2 115 0.804
96 AF2 116 0.315
96 AF2 117 0.804
96 AF2 118 2.757
96 AF2 119 4.710
96 AF2 120 6.663
96 AF2 121 6.663
96 AF2 122 7.151
96 AF2 123 6.663
96 AF2 124 7.151
96 AF2 125 6.663
96 AF2 126 5.686
96 AF2 127 4.222
96 AF2 128 2.268
96 AF2 129 1.780
96 AF2 130 1.780
96 AF2 131 1.780
96 AF2 132 0.804
96 AF2 133 -0.661
96 AF2 134 -1.149
96 AF2 135 -0.173
96 AF2 136 1.780
96 AF2 137 3.733
96 AF2 138 4.222
96 AF2 139 2.268
96 AF2 140 -0.173
96 AF2 141 -2.126
96 AF2 142 -1.149
96 AF2 143 1.780
96 AF2 144 5.198
96 AF2 145 6.175
96 AF2 146 4.710
96 AF2 147 1.780
96 AF2 148 -0.173
96 AF2 149 0.315
96 AF2 150 2.757
96 AF2 151 4.710
96 AF2 152 4.222
96 AF2 153 1.292
96 AF2 154 -1.638
96 AF2 155 -3.103
96 AF2 156 -1.638
96 AF2 157 2.268
96 AF2 158 5.686
96 AF2 159 7.151
96 AF2 160 7.151
96 AF2 161 6.663
96 AF2 162 7.151
96 AF2 163 8.616
96 AF2 164 10.081
96 AF2 165 10.081
96 AF2 166 7.640
96 AF2 167 5.198
96 AF2 168 3.245
96 AF2 169 3.245
96 AF2 170 4.710
96 AF2 171 6.663
96 AF2 172 7.151
96 AF2 173 6.663
96 AF2 174 5.198
96 AF2 175 4.710
96 AF2 176 4.222
96 AF2 177 4.710
96 AF2 178 4.222
96 AF2 179 3.245
96 AF2 180 1.780
96 AF2 181 1.780
96 AF2 182 2.757
96 AF2 183 4.222
96 AF2 184 4.710
96 AF2 185 3.245
96 AF2 186 0.804
96 AF2 187 -0.661
96 AF2 188 -0.173
96 AF2 189 1.780
96 AF2 190 4.222
96 AF2 191 4.710
96 AF2 192 3.733
96 AF2 193 1.292
96 AF2 194 -0.173
96 AF2 195 -0.661
96 AF2 196 0.315
96 AF2 197 1.780
96 AF2 198 2.268
96 AF2 199 3.733
96 AF2 200 4.222
96 AF2 201 5.686
96 AF2 202 6.663
96 AF2 203 6.663
96 AF2 204 6.663
96 AF2 205 5.686
96 AF2 206 4.222
96 AF2 207 2.757
96 AF2 208 -0.173
96 AF2 209 -3.103
96 AF2 210 -4.567
96 AF2 211 -4.079
96 AF2 212 -1.149
96 AF2 213 2.757
96 AF2 214 5.686
96 AF2 215 6.175
96 AF2 216 3.733
96 AF2 217 0.315
96 AF2 218 -2.126
96 AF2 219 -4.079
96 AF2 220 -5.544
96 AF2 221 -7.009
96 AF2 222 -8.474
96 AF2 223 -8.962
96 AF2 224 -7.497
96 AF2 225 -5.056
96 AF2 226 -2.126
96 AF2 227 -0.173
96 AF2 228 0.315
96 AF2 229 -0.173
96 AF2 230 -0.661
96 AF2 231 -0.661
96 AF2 232 -0.173
96 AF2 233 0.315
96 AF2 234 1.292
96 AF2 235 1.780
96 AF2 236 2.757
96 AF2 237 3.733
96 AF2 238 4.222
96 AF2 239 3.245
96 AF2 240 2.757
96 AF2 241 2.268
96 AF2 242 2.268
96 AF2 243 2.757
96 AF2 244 2.757
96 AF2 245 2.268
96 AF2 246 1.292
96 AF2 247 -0.661
96 AF2 248 -2.614
96 AF2 249 -4.079
96 AF2 250 -5.544
96 AF2 251 -6.032
96 AF2 252 -5.544
96 AF2 253 -4.567
96 AF2 254 -3.591
96 AF2 255 -1.149
# FZ chan 6
96 FZ 0 -0.916
96 FZ 1 0.061
96 FZ 2 1.038
96 FZ 3 2.014
96 FZ 4 3.967
96 FZ 5 5.432
96 FZ 6 5.920
96 FZ 7 5.920
96 FZ 8 5.432
96 FZ 9 3.967
96 FZ 10 2.502
96 FZ 11 1.526
96 FZ 12 -0.427
96 FZ 13 -1.892
96 FZ 14 -2.869
96 FZ 15 -2.869
96 FZ 16 -1.892
96 FZ 17 0.061
96 FZ 18 2.014
96 FZ 19 3.967
96 FZ 20 4.456
96 FZ 21 3.967
96 FZ 22 3.479
96 FZ 23 3.479
96 FZ 24 4.456
96 FZ 25 5.920
96 FZ 26 7.385
96 FZ 27 8.850
96 FZ 28 9.338
96 FZ 29 9.338
96 FZ 30 9.338
96 FZ 31 8.850
96 FZ 32 8.362
96 FZ 33 6.897
96 FZ 34 4.944
96 FZ 35 2.991
96 FZ 36 1.526
96 FZ 37 0.549
96 FZ 38 0.061
96 FZ 39 -0.427
96 FZ 40 -1.404
96 FZ 41 -1.892
96 FZ 42 -1.892
96 FZ 43 -1.892
96 FZ 44 -1.404
96 FZ 45 -0.916
96 FZ 46 -0.916
96 FZ 47 -0.427
96 FZ 48 0.061
96 FZ 49 1.526
96 FZ 50 2.991
96 FZ 51 3.967
96 FZ 52 5.432
96 FZ 53 6.409
96 FZ 54 6.897
96 FZ 55 7.385
96 FZ 56 6.897
96 FZ 57 5.920
96 FZ 58 3.967
96 FZ 59 1.526
96 FZ 60 -0.427
96 FZ 61 -1.404
96 FZ 62 -0.916
96 FZ 63 0.549
96 FZ 64 1.526
96 FZ 65 2.014
96 FZ 66 2.014
96 FZ 67 1.038
96 FZ 68 0.549
96 FZ 69 0.061
96 FZ 70 -0.427
96 FZ 71 -1.404
96 FZ 72 -2.380
96 FZ 73 -3.357
96 FZ 74 -3.357
96 FZ 75 -1.892
96 FZ 76 0.549
96 FZ 77 2.014
96 FZ 78 2.991
96 FZ 79 2.502
96 FZ 80 2.014
96 FZ 81 2.502
96 FZ 82 3.479
96 FZ 83 5.432
96 FZ 84 5.920
96 FZ 85 5.432
96 FZ 86 3.479
96 FZ 87 1.526
96 FZ 88 1.038
96 FZ 89 2.014
96 FZ 90 3.479
96 FZ 91 5.432
96 FZ 92 5.432
96 FZ 93 4.456
96 FZ 94 2.991
96 FZ 95 2.014
96 FZ 96 2.502
96 FZ 97 3.967
96 FZ 98 5.920
96 FZ 99 6.897
96 FZ 100 7.385
96 FZ 101 6.897
96 FZ 102 6.409
96 FZ 103 5.920
96 FZ 104 6.409
96 FZ 105 6.897
96 FZ 106 7.385
96 FZ 107 7.385
96 FZ 108 6.409
96 FZ 109 5.920
96 FZ 110 5.432
96 FZ 111 5.432
96 FZ 112 5.920
96 FZ 113 6.409
96 FZ 114 6.409
96 FZ 115 6.409
96 FZ 116 5.920
96 FZ 117 5.920
96 FZ 118 6.409
96 FZ 119 6.409
96 FZ 120 6.897
96 FZ 121 6.897
96 FZ 122 6.897
96 FZ 123 6.897
96 FZ 124 7.874
96 FZ 125 7.874
96 FZ 126 7.874
96 FZ 127 6.897
96 FZ 128 5.920
96 FZ 129 5.432
96 FZ 130 5.432
96 FZ 131 4.944
96 FZ 132 3.967
96 FZ 133 2.502
96 FZ 134 2.014
96 FZ 135 2.014
96 FZ 136 3.479
96 FZ 137 5.432
96 FZ 138 6.409
96 FZ 139 5.920
96 FZ 140 4.456
96 FZ 141 3.479
96 FZ 142 3.479
96 FZ 143 4.944
96 FZ 144 6.897
96 FZ 145 7.874
96 FZ 146 7.385
96 FZ 147 6.409
96 FZ 148 5.432
96 FZ 149 5.432
96 FZ 150 6.409
96 FZ 151 6.897
96 FZ 152 6.409
96 FZ 153 4.456
96 FZ 154 3.479
96 FZ 155 3.479
96 FZ 156 4.944
96 FZ 157 6.897
96 FZ 158 7.874
96 FZ 159 6.897
96 FZ 160 5.432
96 FZ 161 4.456
96 FZ 162 5.432
96 FZ 163 7.385
96 FZ 164 9.338
96 FZ 165 10.315
96 FZ 166 9.338
96 FZ 167 7.385
96 FZ 168 6.409
96 FZ 169 5.920
96 FZ 170 6.409
96 FZ 171 7.385
96 FZ 172 7.385
96 FZ 173 6.409
96 FZ 174 4.944
96 FZ 175 3.967
96 FZ 176 3.479
96 FZ 177 2.991
96 FZ 178 2.502
96 FZ 179 2.502
96 FZ 180 2.502
96 FZ 181 2.991
96 FZ 182 3.479
96 FZ 183 3.967
96 FZ 184 3.479
96 FZ 185 2.014
96 FZ 186 -0.427
96 FZ 187 -1.892
96 FZ 188 -1.404
96 FZ 189 1.038
96 FZ 190 2.991
96 FZ 191 3.967
96 FZ 192 3.479
96 FZ 193 2.502
96 FZ 194 1.526
96 FZ 195 1.038
96 FZ 196 2.014
96 FZ 197 3.479
96 FZ 198 4.944
96 FZ 199 5.920
96 FZ 200 6.897
96 FZ 201 8.362
96 FZ 202 9.338
96 FZ 203 9.338
96 FZ 204 8.850
96 FZ 205 7.874
96 FZ 206 5.432
96 FZ 207 2.991
96 FZ 208 0.549
96 FZ 209 -0.916
96 FZ 210 -1.404
96 FZ 211 -0.916
96 FZ 212 0.549
96 FZ 213 2.014
96 FZ 214 2.991
96 FZ 215 2.014
96 FZ 216 0.549
96 FZ 217 -0.916
96 FZ 218 -1.892
96 FZ 219 -2.380
96 FZ 220 -1.892
96 FZ 221 -1.892
96 FZ 222 -1.892
96 FZ 223 -1.404
96 FZ 224 -0.427
96 FZ 225 1.038
96 FZ 226 2.014
96 FZ 227 2.502
96 FZ 228 2.502
96 FZ 229 2.502
96 FZ 230 2.502
96 FZ 231 2.502
96 FZ 232 2.502
96 FZ 233 2.502
96 FZ 234 2.014
96 FZ 235 1.526
96 FZ 236 0.549
96 FZ 237 0.061
96 FZ 238 -0.916
96 FZ 239 -0.916
96 FZ 240 -0.916
96 FZ 241 0.061
96 FZ 242 2.014
96 FZ 243 3.479
96 FZ 244 3.967
96 FZ 245 2.991
96 FZ 246 0.549
96 FZ 247 -1.404
96 FZ 248 -2.869
96 FZ 249 -2.869
96 FZ 250 -1.892
96 FZ 251 -0.916
96 FZ 252 -0.427
96 FZ 253 -0.427
96 FZ 254 0.061
96 FZ 255 1.038
# F4 chan 7
96 F4 0 1.546
96 F4 1 0.570
96 F4 2 -0.407
96 F4 3 -0.895
96 F4 4 0.081
96 F4 5 2.035
96 F4 6 3.499
96 F4 7 4.964
96 F4 8 3.988
96 F4 9 2.035
96 F4 10 -0.407
96 F4 11 -2.360
96 F4 12 -3.337
96 F4 13 -4.801
96 F4 14 -5.778
96 F4 15 -5.778
96 F4 16 -4.313
96 F4 17 -1.383
96 F4 18 2.035
96 F4 19 4.476
96 F4 20 4.476
96 F4 21 2.035
96 F4 22 -0.895
96 F4 23 -1.872
96 F4 24 -0.895
96 F4 25 2.035
96 F4 26 4.476
96 F4 27 5.941
96 F4 28 5.941
96 F4 29 6.429
96 F4 30 6.917
96 F4 31 7.894
96 F4 32 7.406
96 F4 33 5.941
96 F4 34 2.523
96 F4 35 -0.895
96 F4 36 -3.825
96 F4 37 -4.313
96 F4 38 -4.313
96 F4 39 -4.801
96 F4 40 -6.266
96 F4 41 -8.219
96 F4 42 -9.196
96 F4 43 -9.196
96 F4 44 -8.219
96 F4 45 -6.755
96 F4 46 -6.266
96 F4 47 -6.266
96 F4 48 -6.755
96 F4 49 -6.266
96 F4 50 -4.801
96 F4 51 -2.360
96 F4 52 0.081
96 F4 53 2.523
96 F4 54 3.988
96 F4 55 3.988
96 F4 56 2.035
96 F4 57 -0.407
96 F4 58 -3.825
96 F4 59 -6.755
96 F4 60 -8.219
96 F4 61 -7.731
96 F4 62 -5.778
96 F4 63 -3.825
96 F4 64 -2.848
96 F4 65 -2.848
96 F4 66 -3.825
96 F4 67 -4.801
96 F4 68 -5.290
96 F4 69 -5.290
96 F4 70 -5.290
96 F4 71 -6.755
96 F4 72 -8.219
96 F4 73 -9.684
96 F4 74 -9.196
96 F4 75 -7.731
96 F4 76 -5.778
96 F4 77 -4.313
96 F4 78 -3.825
96 F4 79 -4.313
96 F4 80 -4.313
96 F4 81 -3.825
96 F4 82 -2.848
96 F4 83 -2.360
96 F4 84 -2.360
96 F4 85 -3.337
96 F4 86 -5.778
96 F4 87 -7.243
96 F4 88 -7.243
96 F4 89 -5.778
96 F4 90 -3.337
96 F4 91 -0.895
96 F4 92 0.081
96 F4 93 -0.895
96 F4 94 -3.337
96 F4 95 -6.266
96 F4 96 -7.731
96 F4 97 -7.243
96 F4 98 -4.801
96 F4 99 -1.872
96 F4 100 0.081
96 F4 101 0.081
96 F4 102 -0.895
96 F4 103 -2.360
96 F4 104 -2.848
96 F4 105 -2.360
96 F4 106 -1.383
96 F4 107 -1.383
96 F4 108 -1.872
96 F4 109 -3.337
96 F4 110 -3.825
96 F4 111 -4.313
96 F4 112 -3.825
96 F4 113 -4.313
96 F4 114 -5.290
96 F4 115 -6.266
96 F4 116 -6.266
96 F4 117 -4.801
96 F4 118 -2.848
96 F4 119 -1.383
96 F4 120 -1.383
96 F4 121 -2.848
96 F4 122 -3.825
96 F4 123 -3.337
96 F4 124 -2.360
96 F4 125 -1.383
96 F4 126 -0.895
96 F4 127 -1.383
96 F4 128 -2.360
96 F4 129 -3.337
96 F4 130 -4.313
96 F4 131 -6.755
96 F4 132 -9.196
96 F4 133 -10.661
96 F4 134 -10.173
96 F4 135 -7.243
96 F4 136 -3.825
96 F4 137 -0.895
96 F4 138 -1.383
96 F4 139 -3.825
96 F4 140 -6.755
96 F4 141 -8.219
96 F4 142 -7.731
96 F4 143 -5.778
96 F4 144 -3.825
96 F4 145 -3.337
96 F4 146 -4.313
96 F4 147 -5.778
96 F4 148 -6.266
96 F4 149 -5.778
96 F4 150 -4.801
96 F4 151 -4.801
96 F4 152 -5.290
96 F4 153 -6.755
96 F4 154 -8.708
96 F4 155 -9.684
96 F4 156 -8.708
96 F4 157 -6.755
96 F4 158 -4.313
96 F4 159 -2.848
96 F4 160 -1.383
96 F4 161 -0.407
96 F4 162 0.570
96 F4 163 2.035
96 F4 164 3.011
96 F4 165 3.011
96 F4 166 1.058
96 F4 167 -1.872
96 F4 168 -4.313
96 F4 169 -6.266
96 F4 170 -5.778
96 F4 171 -3.825
96 F4 172 -1.872
96 F4 173 -1.383
96 F4 174 -1.872
96 F4 175 -3.337
96 F4 176 -4.801
96 F4 177 -5.290
96 F4 178 -4.801
96 F4 179 -4.801
96 F4 180 -4.313
96 F4 181 -3.825
96 F4 182 -3.337
96 F4 183 -3.337
96 F4 184 -3.825
96 F4 185 -5.290
96 F4 186 -7.731
96 F4 187 -9.196
96 F4 188 -8.708
96 F4 189 -6.266
96 F4 190 -2.848
96 F4 191 -1.383
96 F4 192 -2.360
96 F4 193 -3.825
96 F4 194 -4.801
96 F4 195 -4.801
96 F4 196 -3.825
96 F4 197 -2.848
96 F4 198 -2.360
96 F4 199 -3.337
96 F4 200 -3.825
96 F4 201 -4.313
96 F4 202 -3.825
96 F4 203 -3.337
96 F4 204 -2.360
96 F4 205 -2.360
96 F4 206 -3.337
96 F4 207 -5.290
96 F4 208 -7.731
96 F4 209 -10.173
96 F4 210 -11.149
96 F4 211 -10.173
96 F4 212 -7.731
96 F4 213 -4.313
96 F4 214 -1.383
96 F4 215 -0.895
96 F4 216 -2.360
96 F4 217 -5.778
96 F4 218 -9.684
96 F4 219 -13.590
96 F4 220 -16.032
96 F4 221 -16.520
96 F4 222 -16.520
96 F4 223 -14.567
96 F4 224 -12.614
96 F4 225 -10.661
96 F4 226 -9.684
96 F4 227 -9.684
96 F4 228 -10.173
96 F4 229 -10.661
96 F4 230 -10.661
96 F4 231 -10.661
96 F4 232 -10.173
96 F4 233 -8.708
96 F4 234 -7.243
96 F4 235 -5.778
96 F4 236 -5.290
96 F4 237 -6.266
96 F4 238 -7.731
96 F4 239 -8.708
96 F4 240 -8.708
96 F4 241 -7.243
96 F4 242 -5.290
96 F4 243 -4.313
96 F4 244 -4.313
96 F4 245 -5.290
96 F4 246 -7.243
96 F4 247 -9.196
96 F4 248 -10.661
96 F4 249 -12.126
96 F4 250 -13.590
96 F4 251 -14.567
96 F4 252 -15.055
96 F4 253 -15.055
96 F4 254 -13.590
96 F4 255 -11.149
# F3 chan 8
96 F3 0 -0.824
96 F3 1 0.153
96 F3 2 1.129
96 F3 3 1.617
96 F3 4 2.106
96 F3 5 2.594
96 F3 6 2.594
96 F3 7 2.106
96 F3 8 1.129
96 F3 9 0.153
96 F3 10 -1.312
96 F3 11 -2.777
96 F3 12 -4.242
96 F3 13 -4.730
96 F3 14 -4.730
96 F3 15 -4.242
96 F3 16 -3.265
96 F3 17 -2.289
96 F3 18 -1.312
96 F3 19 -0.824
96 F3 20 0.153
96 F3 21 0.641
96 F3 22 1.129
96 F3 23 1.617
96 F3 24 1.617
96 F3 25 2.106
96 F3 26 3.082
96 F3 27 3.571
96 F3 28 4.547
96 F3 29 4.547
96 F3 30 5.035
96 F3 31 4.547
96 F3 32 4.059
96 F3 33 3.082
96 F3 34 2.594
96 F3 35 1.129
96 F3 36 0.153
96 F3 37 -0.824
96 F3 38 -2.289
96 F3 39 -2.777
96 F3 40 -2.777
96 F3 41 -2.777
96 F3 42 -2.777
96 F3 43 -2.777
96 F3 44 -2.777
96 F3 45 -2.777
96 F3 46 -2.289
96 F3 47 -1.801
96 F3 48 -0.824
96 F3 49 -0.336
96 F3 50 0.153
96 F3 51 0.153
96 F3 52 -0.336
96 F3 53 0.153
96 F3 54 0.153
96 F3 55 0.641
96 F3 56 0.153
96 F3 57 -1.312
96 F3 58 -2.777
96 F3 59 -4.242
96 F3 60 -5.219
96 F3 61 -4.730
96 F3 62 -3.754
96 F3 63 -2.777
96 F3 64 -2.289
96 F3 65 -2.289
96 F3 66 -2.777
96 F3 67 -4.242
96 F3 68 -5.219
96 F3 69 -5.707
96 F3 70 -6.195
96 F3 71 -6.683
96 F3 72 -7.660
96 F3 73 -8.148
96 F3 74 -8.148
96 F3 75 -6.683
96 F3 76 -4.730
96 F3 77 -2.777
96 F3 78 -1.801
96 F3 79 -1.801
96 F3 80 -2.289
96 F3 81 -2.289
96 F3 82 -0.824
96 F3 83 1.129
96 F3 84 2.594
96 F3 85 2.106
96 F3 86 0.641
96 F3 87 -0.824
96 F3 88 -1.312
96 F3 89 -0.824
96 F3 90 1.129
96 F3 91 2.594
96 F3 92 2.594
96 F3 93 1.129
96 F3 94 -0.336
96 F3 95 -0.824
96 F3 96 -0.336
96 F3 97 1.129
96 F3 98 3.082
96 F3 99 4.059
96 F3 100 4.059
96 F3 101 2.594
96 F3 102 1.617
96 F3 103 0.641
96 F3 104 0.641
96 F3 105 2.106
96 F3 106 3.082
96 F3 107 3.571
96 F3 108 3.082
96 F3 109 2.106
96 F3 110 1.129
96 F3 111 1.617
96 F3 112 2.594
96 F3 113 4.059
96 F3 114 5.035
96 F3 115 5.035
96 F3 116 4.547
96 F3 117 4.059
96 F3 118 4.059
96 F3 119 4.547
96 F3 120 5.035
96 F3 121 5.035
96 F3 122 5.035
96 F3 123 5.035
96 F3 124 5.524
96 F3 125 5.035
96 F3 126 5.035
96 F3 127 4.059
96 F3 128 3.082
96 F3 129 2.106
96 F3 130 1.617
96 F3 131 1.129
96 F3 132 1.129
96 F3 133 0.641
96 F3 134 0.641
96 F3 135 0.641
96 F3 136 1.617
96 F3 137 2.594
96 F3 138 4.059
96 F3 139 5.035
96 F3 140 4.059
96 F3 141 2.594
96 F3 142 2.106
96 F3 143 2.106
96 F3 144 3.571
96 F3 145 4.547
96 F3 146 5.035
96 F3 147 5.035
96 F3 148 4.059
96 F3 149 3.571
96 F3 150 3.571
96 F3 151 3.082
96 F3 152 2.594
96 F3 153 1.129
96 F3 154 0.641
96 F3 155 1.129
96 F3 156 3.082
96 F3 157 4.547
96 F3 158 4.059
96 F3 159 2.594
96 F3 160 0.153
96 F3 161 -0.824
96 F3 162 0.153
96 F3 163 2.106
96 F3 164 4.059
96 F3 165 4.059
96 F3 166 2.594
96 F3 167 1.129
96 F3 168 0.641
96 F3 169 1.129
96 F3 170 2.106
96 F3 171 2.594
96 F3 172 2.594
96 F3 173 1.617
96 F3 174 0.641
96 F3 175 0.153
96 F3 176 -0.336
96 F3 177 -0.336
96 F3 178 -0.336
96 F3 179 0.153
96 F3 180 1.129
96 F3 181 2.594
96 F3 182 4.059
96 F3 183 4.059
96 F3 184 2.594
96 F3 185 0.641
96 F3 186 -1.312
96 F3 187 -1.801
96 F3 188 -0.824
96 F3 189 1.129
96 F3 190 2.594
96 F3 191 3.082
96 F3 192 2.106
96 F3 193 0.641
96 F3 194 -1.312
96 F3 195 -2.289
96 F3 196 -2.289
96 F3 197 -1.801
96 F3 198 -0.336
96 F3 199 0.641
96 F3 200 1.617
96 F3 201 2.106
96 F3 202 2.106
96 F3 203 2.106
96 F3 204 1.129
96 F3 205 0.153
96 F3 206 -0.824
96 F3 207 -2.289
96 F3 208 -3.754
96 F3 209 -4.730
96 F3 210 -4.730
96 F3 211 -4.242
96 F3 212 -3.265
96 F3 213 -2.777
96 F3 214 -2.777
96 F3 215 -3.265
96 F3 216 -4.730
96 F3 217 -5.707
96 F3 218 -5.707
96 F3 219 -5.219
96 F3 220 -4.730
96 F3 221 -4.730
96 F3 222 -5.707
96 F3 223 -6.683
96 F3 224 -6.683
96 F3 225 -6.683
96 F3 226 -5.707
96 F3 227 -5.219
96 F3 228 -5.219
96 F3 229 -5.219
96 F3 230 -4.242
96 F3 231 -3.754
96 F3 232 -2.777
96 F3 233 -2.289
96 F3 234 -2.777
96 F3 235 -3.754
96 F3 236 -4.730
96 F3 237 -5.219
96 F3 238 -4.730
96 F3 239 -4.242
96 F3 240 -2.777
96 F3 241 -1.801
96 F3 242 -0.824
96 F3 243 -0.336
96 F3 244 -0.824
96 F3 245 -3.265
96 F3 246 -6.683
96 F3 247 -9.613
96 F3 248 -11.078
96 F3 249 -11.078
96 F3 250 -9.125
96 F3 251 -7.172
96 F3 252 -6.195
96 F3 253 -5.707
96 F3 254 -5.219
96 F3 255 -4.730
# FC6 chan 9
96 FC6 0 0.905
96 FC6 1 -1.048
96 FC6 2 -2.513
96 FC6 3 -3.001
96 FC6 4 -2.513
96 FC6 5 -0.559
96 FC6 6 1.394
96 FC6 7 2.858
96 FC6 8 2.370
96 FC6 9 0.905
96 FC6 10 -1.048
96 FC6 11 -3.001
96 FC6 12 -3.001
96 FC6 13 -3.489
96 FC6 14 -3.489
96 FC6 15 -3.977
96 FC6 16 -3.977
96 FC6 17 -3.489
96 FC6 18 -1.048
96 FC6 19 0.905
96 FC6 20 2.370
96 FC6 21 1.882
96 FC6 22 1.394
96 FC6 23 0.417
96 FC6 24 0.417
96 FC6 25 1.394
96 FC6 26 2.858
96 FC6 27 3.347
96 FC6 28 3.835
96 FC6 29 3.835
96 FC6 30 4.323
96 FC6 31 5.788
96 FC6 32 5.788
96 FC6 33 4.812
96 FC6 34 2.858
96 FC6 35 0.417
96 FC6 36 -1.536
96 FC6 37 -2.024
96 FC6 38 -2.513
96 FC6 39 -3.001
96 FC6 40 -3.977
96 FC6 41 -5.442
96 FC6 42 -5.931
96 FC6 43 -5.931
96 FC6 44 -4.954
96 FC6 45 -4.466
96 FC6 46 -5.442
96 FC6 47 -6.907
96 FC6 48 -7.884
96 FC6 49 -7.884
96 FC6 50 -5.442
96 FC6 51 -2.513
96 FC6 52 -0.559
96 FC6 53 -0.071
96 FC6 54 -0.559
96 FC6 55 -1.048
96 FC6 56 -0.071
96 FC6 57 -0.071
96 FC6 58 -1.048
96 FC6 59 -3.977
96 FC6 60 -6.907
96 FC6 61 -8.860
96 FC6 62 -8.372
96 FC6 63 -6.907
96 FC6 64 -4.466
96 FC6 65 -3.977
96 FC6 66 -4.466
96 FC6 67 -6.419
96 FC6 68 -7.395
96 FC6 69 -8.372
96 FC6 70 -8.372
96 FC6 71 -8.860
96 FC6 72 -9.837
96 FC6 73 -10.325
96 FC6 74 -9.837
96 FC6 75 -7.395
96 FC6 76 -3.977
96 FC6 77 -1.536
96 FC6 78 -0.559
96 FC6 79 -1.536
96 FC6 80 -3.489
96 FC6 81 -4.466
96 FC6 82 -3.977
96 FC6 83 -3.001
96 FC6 84 -2.024
96 FC6 85 -2.513
96 FC6 86 -3.977
96 FC6 87 -5.931
96 FC6 88 -6.907
96 FC6 89 -6.907
96 FC6 90 -5.931
96 FC6 91 -5.442
96 FC6 92 -5.442
96 FC6 93 -6.419
96 FC6 94 -7.395
96 FC6 95 -7.395
96 FC6 96 -7.395
96 FC6 97 -7.395
96 FC6 98 -7.395
96 FC6 99 -6.907
96 FC6 100 -6.419
96 FC6 101 -5.931
96 FC6 102 -5.442
96 FC6 103 -5.931
96 FC6 104 -6.907
96 FC6 105 -7.884
96 FC6 106 -8.372
96 FC6 107 -8.372
96 FC6 108 -7.395
96 FC6 109 -6.907
96 FC6 110 -5.931
96 FC6 111 -5.931
96 FC6 112 -6.907
96 FC6 113 -7.395
96 FC6 114 -8.372
96 FC6 115 -7.884
96 FC6 116 -6.419
96 FC6 117 -4.466
96 FC6 118 -3.001
96 FC6 119 -3.001
96 FC6 120 -4.466
96 FC6 121 -7.395
96 FC6 122 -8.860
96 FC6 123 -8.860
96 FC6 124 -6.907
96 FC6 125 -4.466
96 FC6 126 -3.001
96 FC6 127 -3.489
96 FC6 128 -4.954
96 FC6 129 -6.419
96 FC6 130 -8.372
96 FC6 131 -10.325
96 FC6 132 -11.790
96 FC6 133 -11.790
96 FC6 134 -9.837
96 FC6 135 -6.419
96 FC6 136 -3.489
96 FC6 137 -2.024
96 FC6 138 -3.001
96 FC6 139 -5.442
96 FC6 140 -6.907
96 FC6 141 -7.395
96 FC6 142 -6.907
96 FC6 143 -6.907
96 FC6 144 -7.395
96 FC6 145 -8.372
96 FC6 146 -8.372
96 FC6 147 -7.395
96 FC6 148 -5.442
96 FC6 149 -4.466
96 FC6 150 -4.466
96 FC6 151 -5.442
96 FC6 152 -6.907
96 FC6 153 -7.884
96 FC6 154 -8.372
96 FC6 155 -8.860
96 FC6 156 -9.349
96 FC6 157 -8.860
96 FC6 158 -6.907
96 FC6 159 -3.489
96 FC6 160 0.417
96 FC6 161 3.347
96 FC6 162 4.812
96 FC6 163 4.812
96 FC6 164 3.835
96 FC6 165 2.370
96 FC6 166 0.417
96 FC6 167 -0.559
96 FC6 168 -2.024
96 FC6 169 -3.001
96 FC6 170 -3.489
96 FC6 171 -3.001
96 FC6 172 -2.024
96 FC6 173 -0.559
96 FC6 174 0.417
96 FC6 175 0.417
96 FC6 176 -0.559
96 FC6 177 -1.048
96 FC6 178 -1.536
96 FC6 179 -1.048
96 FC6 180 -0.071
96 FC6 181 0.905
96 FC6 182 1.394
96 FC6 183 2.370
96 FC6 184 3.347
96 FC6 185 4.323
96 FC6 186 4.323
96 FC6 187 3.347
96 FC6 188 2.858
96 FC6 189 2.858
96 FC6 190 4.323
96 FC6 191 5.300
96 FC6 192 5.788
96 FC6 193 4.812
96 FC6 194 2.858
96 FC6 195 0.905
96 FC6 196 -0.071
96 FC6 197 -0.071
96 FC6 198 0.417
96 FC6 199 -0.071
96 FC6 200 -1.536
96 FC6 201 -3.489
96 FC6 202 -4.954
96 FC6 203 -4.954
96 FC6 204 -3.489
96 FC6 205 -1.536
96 FC6 206 -0.071
96 FC6 207 0.417
96 FC6 208 -1.536
96 FC6 209 -3.001
96 FC6 210 -3.977
96 FC6 211 -2.513
96 FC6 212 0.905
96 FC6 213 4.812
96 FC6 214 7.253
96 FC6 215 7.253
96 FC6 216 4.812
96 FC6 217 1.394
96 FC6 218 -3.001
96 FC6 219 -6.907
96 FC6 220 -9.837
96 FC6 221 -11.790
96 FC6 222 -12.278
96 FC6 223 -11.790
96 FC6 224 -9.349
96 FC6 225 -6.907
96 FC6 226 -4.954
96 FC6 227 -4.954
96 FC6 228 -6.419
96 FC6 229 -7.884
96 FC6 230 -8.372
96 FC6 231 -7.395
96 FC6 232 -4.466
96 FC6 233 -0.559
96 FC6 234 2.858
96 FC6 235 5.300
96 FC6 236 6.276
96 FC6 237 6.276
96 FC6 238 5.788
96 FC6 239 5.300
96 FC6 240 4.812
96 FC6 241 4.812
96 FC6 242 4.323
96 FC6 243 3.835
96 FC6 244 2.858
96 FC6 245 1.394
96 FC6 246 0.905
96 FC6 247 -0.071
96 FC6 248 -1.048
96 FC6 249 -3.489
96 FC6 250 -6.419
96 FC6 251 -8.860
96 FC6 252 -10.813
96 FC6 253 -9.837
96 FC6 254 -7.395
96 FC6 255 -4.466
# FC5 chan 10
96 FC5 0 0.610
96 FC5 1 1.587
96 FC5 2 2.075
96 FC5 3 1.587
96 FC5 4 0.122
96 FC5 5 -2.319
96 FC5 6 -4.272
96 FC5 7 -5.249
96 FC5 8 -4.761
96 FC5 9 -3.784
96 FC5 10 -3.784
96 FC5 11 -4.761
96 FC5 12 -6.714
96 FC5 13 -8.667
96 FC5 14 -8.667
96 FC5 15 -7.690
96 FC5 16 -6.226
96 FC5 17 -5.737
96 FC5 18 -5.737
96 FC5 19 -6.226
96 FC5 20 -5.737
96 FC5 21 -4.761
96 FC5 22 -3.784
96 FC5 23 -2.808
96 FC5 24 -2.808
96 FC5 25 -2.319
96 FC5 26 -2.319
96 FC5 27 -1.343
96 FC5 28 -1.343
96 FC5 29 -1.343
96 FC5 30 -2.319
96 FC5 31 -3.784
96 FC5 32 -4.272
96 FC5 33 -3.784
96 FC5 34 -2.808
96 FC5 35 -1.831
96 FC5 36 -1.831
96 FC5 37 -3.784
96 FC5 38 -5.737
96 FC5 39 -7.690
96 FC5 40 -8.667
96 FC5 41 -7.690
96 FC5 42 -6.714
96 FC5 43 -6.226
96 FC5 44 -6.226
96 FC5 45 -6.226
96 FC5 46 -5.737
96 FC5 47 -4.761
96 FC5 48 -3.296
96 FC5 49 -3.296
96 FC5 50 -3.784
96 FC5 51 -5.249
96 FC5 52 -6.226
96 FC5 53 -7.202
96 FC5 54 -7.690
96 FC5 55 -8.667
96 FC5 56 -10.132
96 FC5 57 -11.597
96 FC5 58 -12.085
96 FC5 59 -11.597
96 FC5 60 -10.132
96 FC5 61 -9.155
96 FC5 62 -8.667
96 FC5 63 -8.667
96 FC5 64 -9.155
96 FC5 65 -9.155
96 FC5 66 -9.155
96 FC5 67 -9.644
96 FC5 68 -10.132
96 FC5 69 -10.132
96 FC5 70 -10.132
96 FC5 71 -9.644
96 FC5 72 -10.132
96 FC5 73 -11.108
96 FC5 74 -12.573
96 FC5 75 -13.062
96 FC5 76 -12.085
96 FC5 77 -9.644
96 FC5 78 -6.714
96 FC5 79 -5.249
96 FC5 80 -5.249
96 FC5 81 -6.226
96 FC5 82 -6.226
96 FC5 83 -4.761
96 FC5 84 -3.296
96 FC5 85 -1.831
96 FC5 86 -1.831
96 FC5 87 -2.319
96 FC5 88 -2.319
96 FC5 89 -0.854
96 FC5 90 0.610
96 FC5 91 0.610
96 FC5 92 -1.343
96 FC5 93 -4.272
96 FC5 94 -6.714
96 FC5 95 -7.202
96 FC5 96 -5.737
96 FC5 97 -3.296
96 FC5 98 -2.319
96 FC5 99 -2.808
96 FC5 100 -4.272
96 FC5 101 -5.737
96 FC5 102 -6.714
96 FC5 103 -6.714
96 FC5 104 -6.714
96 FC5 105 -5.737
96 FC5 106 -4.761
96 FC5 107 -4.272
96 FC5 108 -3.784
96 FC5 109 -4.761
96 FC5 110 -5.249
96 FC5 111 -4.761
96 FC5 112 -2.808
96 FC5 113 -0.366
96 FC5 114 1.587
96 FC5 115 1.587
96 FC5 116 0.610
96 FC5 117 -1.343
96 FC5 118 -1.343
96 FC5 119 -0.366
96 FC5 120 1.099
96 FC5 121 2.075
96 FC5 122 2.075
96 FC5 123 1.587
96 FC5 124 0.122
96 FC5 125 -0.366
96 FC5 126 -0.366
96 FC5 127 -0.854
96 FC5 128 -1.343
96 FC5 129 -2.319
96 FC5 130 -3.784
96 FC5 131 -4.272
96 FC5 132 -4.272
96 FC5 133 -3.296
96 FC5 134 -2.319
96 FC5 135 -1.343
96 FC5 136 -0.366
96 FC5 137 0.610
96 FC5 138 2.075
96 FC5 139 3.052
96 FC5 140 2.563
96 FC5 141 0.610
96 FC5 142 -1.343
96 FC5 143 -3.296
96 FC5 144 -3.296
96 FC5 145 -2.319
96 FC5 146 -0.366
96 FC5 147 0.122
96 FC5 148 -0.366
96 FC5 149 -2.319
96 FC5 150 -3.784
96 FC5 151 -4.272
96 FC5 152 -3.784
96 FC5 153 -3.296
96 FC5 154 -2.808
96 FC5 155 -2.319
96 FC5 156 -1.343
96 FC5 157 -0.854
96 FC5 158 -1.343
96 FC5 159 -3.296
96 FC5 160 -4.761
96 FC5 161 -4.761
96 FC5 162 -3.296
96 FC5 163 -1.343
96 FC5 164 -0.366
96 FC5 165 -1.831
96 FC5 166 -4.272
96 FC5 167 -5.737
96 FC5 168 -5.737
96 FC5 169 -3.784
96 FC5 170 -1.343
96 FC5 171 0.122
96 FC5 172 -0.366
96 FC5 173 -0.854
96 FC5 174 -1.831
96 FC5 175 -2.808
96 FC5 176 -3.784
96 FC5 177 -5.249
96 FC5 178 -5.249
96 FC5 179 -3.784
96 FC5 180 -0.366
96 FC5 181 3.540
96 FC5 182 6.470
96 FC5 183 6.470
96 FC5 184 5.493
96 FC5 185 3.052
96 FC5 186 1.587
96 FC5 187 1.587
96 FC5 188 2.075
96 FC5 189 3.052
96 FC5 190 3.052
96 FC5 191 2.563
96 FC5 192 0.610
96 FC5 193 -1.831
96 FC5 194 -4.272
96 FC5 195 -6.226
96 FC5 196 -7.202
96 FC5 197 -6.226
96 FC5 198 -4.761
96 FC5 199 -3.784
96 FC5 200 -3.784
96 FC5 201 -4.272
96 FC5 202 -5.737
96 FC5 203 -6.226
96 FC5 204 -6.714
96 FC5 205 -5.737
96 FC5 206 -4.761
96 FC5 207 -3.784
96 FC5 208 -3.296
96 FC5 209 -3.296
96 FC5 210 -3.296
96 FC5 211 -3.296
96 FC5 212 -3.296
96 FC5 213 -3.296
96 FC5 214 -3.296
96 FC5 215 -3.784
96 FC5 216 -4.272
96 FC5 217 -5.249
96 FC5 218 -6.226
96 FC5 219 -7.202
96 FC5 220 -8.667
96 FC5 221 -9.644
96 FC5 222 -10.132
96 FC5 223 -11.108
96 FC5 224 -11.597
96 FC5 225 -12.573
96 FC5 226 -14.038
96 FC5 227 -15.015
96 FC5 228 -15.991
96 FC5 229 -15.503
96 FC5 230 -13.550
96 FC5 231 -10.620
96 FC5 232 -8.179
96 FC5 233 -6.226
96 FC5 234 -5.249
96 FC5 235 -4.761
96 FC5 236 -3.784
96 FC5 237 -2.319
96 FC5 238 0.122
96 FC5 239 1.099
96 FC5 240 1.099
96 FC5 241 0.610
96 FC5 242 -0.366
96 FC5 243 -1.831
96 FC5 244 -3.784
96 FC5 245 -6.226
96 FC5 246 -8.667
96 FC5 247 -11.597
96 FC5 248 -13.550
96 FC5 249 -15.015
96 FC5 250 -15.015
96 FC5 251 -14.038
96 FC5 252 -13.550
96 FC5 253 -12.085
96 FC5 254 -11.108
96 FC5 255 -9.155
# FC2 chan 11
96 FC2 0 0.712
96 FC2 1 0.712
96 FC2 2 0.712
96 FC2 3 1.200
96 FC2 4 2.177
96 FC2 5 3.153
96 FC2 6 3.642
96 FC2 7 3.642
96 FC2 8 3.153
96 FC2 9 2.177
96 FC2 10 0.712
96 FC2 11 -0.753
96 FC2 12 -2.218
96 FC2 13 -3.194
96 FC2 14 -3.682
96 FC2 15 -3.194
96 FC2 16 -2.706
96 FC2 17 -1.241
96 FC2 18 -0.264
96 FC2 19 0.712
96 FC2 20 0.712
96 FC2 21 0.224
96 FC2 22 0.224
96 FC2 23 0.224
96 FC2 24 1.689
96 FC2 25 2.665
96 FC2 26 3.642
96 FC2 27 4.618
96 FC2 28 4.618
96 FC2 29 4.618
96 FC2 30 4.618
96 FC2 31 4.130
96 FC2 32 3.642
96 FC2 33 2.665
96 FC2 34 1.200
96 FC2 35 0.224
96 FC2 36 -1.241
96 FC2 37 -2.706
96 FC2 38 -3.194
96 FC2 39 -3.682
96 FC2 40 -4.171
96 FC2 41 -4.659
96 FC2 42 -5.147
96 FC2 43 -4.659
96 FC2 44 -4.659
96 FC2 45 -4.171
96 FC2 46 -4.171
96 FC2 47 -4.171
96 FC2 48 -4.171
96 FC2 49 -3.682
96 FC2 50 -1.729
96 FC2 51 -0.264
96 FC2 52 1.689
96 FC2 53 3.153
96 FC2 54 4.130
96 FC2 55 4.130
96 FC2 56 3.153
96 FC2 57 1.689
96 FC2 58 0.224
96 FC2 59 -1.729
96 FC2 60 -2.706
96 FC2 61 -2.706
96 FC2 62 -1.729
96 FC2 63 -0.264
96 FC2 64 0.224
96 FC2 65 0.224
96 FC2 66 -0.753
96 FC2 67 -1.729
96 FC2 68 -2.706
96 FC2 69 -2.706
96 FC2 70 -2.706
96 FC2 71 -2.706
96 FC2 72 -3.194
96 FC2 73 -3.682
96 FC2 74 -3.682
96 FC2 75 -3.194
96 FC2 76 -2.706
96 FC2 77 -1.729
96 FC2 78 -1.729
96 FC2 79 -2.218
96 FC2 80 -2.706
96 FC2 81 -2.706
96 FC2 82 -2.218
96 FC2 83 -1.729
96 FC2 84 -1.729
96 FC2 85 -2.706
96 FC2 86 -3.682
96 FC2 87 -4.659
96 FC2 88 -5.147
96 FC2 89 -5.147
96 FC2 90 -4.171
96 FC2 91 -3.194
96 FC2 92 -2.218
96 FC2 93 -2.218
96 FC2 94 -3.194
96 FC2 95 -3.682
96 FC2 96 -3.682
96 FC2 97 -3.682
96 FC2 98 -3.194
96 FC2 99 -2.218
96 FC2 100 -1.729
96 FC2 101 -1.729
96 FC2 102 -2.706
96 FC2 103 -3.194
96 FC2 104 -3.194
96 FC2 105 -2.706
96 FC2 106 -2.218
96 FC2 107 -2.218
96 FC2 108 -2.706
96 FC2 109 -3.194
96 FC2 110 -3.682
96 FC2 111 -4.171
96 FC2 112 -4.171
96 FC2 113 -4.171
96 FC2 114 -4.659
96 FC2 115 -5.147
96 FC2 116 -4.659
96 FC2 117 -4.171
96 FC2 118 -3.682
96 FC2 119 -3.194
96 FC2 120 -3.682
96 FC2 121 -4.171
96 FC2 122 -4.659
96 FC2 123 -4.659
96 FC2 124 -4.171
96 FC2 125 -3.682
96 FC2 126 -3.194
96 FC2 127 -2.706
96 FC2 128 -2.706
96 FC2 129 -2.706
96 FC2 130 -3.194
96 FC2 131 -4.171
96 FC2 132 -6.124
96 FC2 133 -7.100
96 FC2 134 -7.589
96 FC2 135 -6.612
96 FC2 136 -5.147
96 FC2 137 -3.682
96 FC2 138 -3.194
96 FC2 139 -4.171
96 FC2 140 -5.147
96 FC2 141 -6.612
96 FC2 142 -7.100
96 FC2 143 -6.612
96 FC2 144 -5.147
96 FC2 145 -4.171
96 FC2 146 -3.682
96 FC2 147 -3.194
96 FC2 148 -3.194
96 FC2 149 -3.194
96 FC2 150 -3.194
96 FC2 151 -3.194
96 FC2 152 -4.171
96 FC2 153 -5.147
96 FC2 154 -6.124
96 FC2 155 -6.612
96 FC2 156 -6.124
96 FC2 157 -4.659
96 FC2 158 -3.194
96 FC2 159 -2.218
96 FC2 160 -1.729
96 FC2 161 -1.241
96 FC2 162 -0.264
96 FC2 163 0.712
96 FC2 164 1.200
96 FC2 165 1.200
96 FC2 166 0.224
96 FC2 167 -1.729
96 FC2 168 -3.194
96 FC2 169 -3.194
96 FC2 170 -2.706
96 FC2 171 -1.241
96 FC2 172 0.224
96 FC2 173 0.712
96 FC2 174 -0.264
96 FC2 175 -1.241
96 FC2 176 -2.706
96 FC2 177 -3.682
96 FC2 178 -4.171
96 FC2 179 -4.659
96 FC2 180 -4.171
96 FC2 181 -3.682
96 FC2 182 -2.218
96 FC2 183 -1.241
96 FC2 184 -1.241
96 FC2 185 -2.706
96 FC2 186 -5.147
96 FC2 187 -7.100
96 FC2 188 -7.100
96 FC2 189 -5.636
96 FC2 190 -3.682
96 FC2 191 -2.218
96 FC2 192 -1.241
96 FC2 193 -1.241
96 FC2 194 -1.729
96 FC2 195 -1.729
96 FC2 196 -1.241
96 FC2 197 -1.241
96 FC2 198 -1.241
96 FC2 199 -1.729
96 FC2 200 -1.241
96 FC2 201 -0.264
96 FC2 202 0.712
96 FC2 203 1.689
96 FC2 204 2.177
96 FC2 205 1.200
96 FC2 206 -0.264
96 FC2 207 -2.218
96 FC2 208 -3.682
96 FC2 209 -4.171
96 FC2 210 -3.682
96 FC2 211 -2.706
96 FC2 212 -1.729
96 FC2 213 -0.753
96 FC2 214 -0.264
96 FC2 215 -0.753
96 FC2 216 -1.241
96 FC2 217 -2.706
96 FC2 218 -4.171
96 FC2 219 -5.147
96 FC2 220 -6.124
96 FC2 221 -6.124
96 FC2 222 -5.147
96 FC2 223 -3.682
96 FC2 224 -2.706
96 FC2 225 -1.729
96 FC2 226 -1.241
96 FC2 227 -2.218
96 FC2 228 -2.706
96 FC2 229 -3.682
96 FC2 230 -3.682
96 FC2 231 -3.682
96 FC2 232 -2.706
96 FC2 233 -1.241
96 FC2 234 -0.264
96 FC2 235 0.224
96 FC2 236 -0.753
96 FC2 237 -2.706
96 FC2 238 -4.659
96 FC2 239 -5.636
96 FC2 240 -5.147
96 FC2 241 -4.171
96 FC2 242 -1.729
96 FC2 243 -0.264
96 FC2 244 0.712
96 FC2 245 0.712
96 FC2 246 0.712
96 FC2 247 -0.264
96 FC2 248 -1.241
96 FC2 249 -2.706
96 FC2 250 -4.171
96 FC2 251 -5.147
96 FC2 252 -6.124
96 FC2 253 -6.124
96 FC2 254 -6.124
96 FC2 255 -4.659
# FC1 chan 12
96 FC1 0 -2.218
96 FC1 1 -1.729
96 FC1 2 -1.729
96 FC1 3 -1.241
96 FC1 4 -0.753
96 FC1 5 0.224
96 FC1 6 0.712
96 FC1 7 1.200
96 FC1 8 1.200
96 FC1 9 0.712
96 FC1 10 -0.264
96 FC1 11 -1.241
96 FC1 12 -2.218
96 FC1 13 -2.218
96 FC1 14 -2.218
96 FC1 15 -1.241
96 FC1 16 -0.753
96 FC1 17 0.224
96 FC1 18 0.224
96 FC1 19 0.224
96 FC1 20 -0.264
96 FC1 21 -0.753
96 FC1 22 -0.264
96 FC1 23 -0.264
96 FC1 24 1.200
96 FC1 25 2.177
96 FC1 26 3.153
96 FC1 27 3.642
96 FC1 28 3.642
96 FC1 29 3.642
96 FC1 30 2.665
96 FC1 31 2.177
96 FC1 32 1.689
96 FC1 33 1.689
96 FC1 34 1.200
96 FC1 35 1.689
96 FC1 36 1.200
96 FC1 37 0.712
96 FC1 38 0.224
96 FC1 39 -0.264
96 FC1 40 -0.264
96 FC1 41 -0.264
96 FC1 42 0.224
96 FC1 43 0.712
96 FC1 44 0.712
96 FC1 45 0.224
96 FC1 46 0.224
96 FC1 47 -0.264
96 FC1 48 0.224
96 FC1 49 0.224
96 FC1 50 0.224
96 FC1 51 0.224
96 FC1 52 0.224
96 FC1 53 0.224
96 FC1 54 0.712
96 FC1 55 1.200
96 FC1 56 1.200
96 FC1 57 0.712
96 FC1 58 0.224
96 FC1 59 -0.753
96 FC1 60 -1.729
96 FC1 61 -2.218
96 FC1 62 -1.729
96 FC1 63 -1.241
96 FC1 64 -0.264
96 FC1 65 0.224
96 FC1 66 0.712
96 FC1 67 -0.264
96 FC1 68 -1.241
96 FC1 69 -1.729
96 FC1 70 -1.729
96 FC1 71 -2.218
96 FC1 72 -2.706
96 FC1 73 -2.706
96 FC1 74 -3.194
96 FC1 75 -2.218
96 FC1 76 -1.241
96 FC1 77 -0.264
96 FC1 78 0.224
96 FC1 79 -0.264
96 FC1 80 -0.264
96 FC1 81 -0.264
96 FC1 82 0.224
96 FC1 83 1.689
96 FC1 84 2.177
96 FC1 85 2.177
96 FC1 86 1.200
96 FC1 87 0.224
96 FC1 88 -0.264
96 FC1 89 -0.264
96 FC1 90 0.712
96 FC1 91 1.200
96 FC1 92 1.689
96 FC1 93 1.200
96 FC1 94 0.712
96 FC1 95 0.224
96 FC1 96 0.712
96 FC1 97 1.200
96 FC1 98 1.200
96 FC1 99 1.200
96 FC1 100 0.224
96 FC1 101 -0.264
96 FC1 102 -0.264
96 FC1 103 -0.264
96 FC1 104 -0.264
96 FC1 105 0.712
96 FC1 106 0.712
96 FC1 107 0.712
96 FC1 108 0.224
96 FC1 109 -0.753
96 FC1 110 -1.729
96 FC1 111 -2.218
96 FC1 112 -1.729
96 FC1 113 -0.753
96 FC1 114 0.224
96 FC1 115 0.712
96 FC1 116 0.224
96 FC1 117 -0.753
96 FC1 118 -1.729
96 FC1 119 -1.729
96 FC1 120 -1.729
96 FC1 121 -1.241
96 FC1 122 -0.753
96 FC1 123 -0.264
96 FC1 124 -0.264
96 FC1 125 -0.264
96 FC1 126 -1.241
96 FC1 127 -1.729
96 FC1 128 -2.218
96 FC1 129 -2.218
96 FC1 130 -1.729
96 FC1 131 -1.241
96 FC1 132 -0.264
96 FC1 133 0.224
96 FC1 134 0.224
96 FC1 135 0.224
96 FC1 136 0.224
96 FC1 137 0.224
96 FC1 138 0.712
96 FC1 139 1.200
96 FC1 140 1.200
96 FC1 141 1.200
96 FC1 142 1.689
96 FC1 143 2.665
96 FC1 144 3.642
96 FC1 145 4.618
96 FC1 146 4.618
96 FC1 147 3.642
96 FC1 148 2.177
96 FC1 149 1.200
96 FC1 150 0.712
96 FC1 151 1.200
96 FC1 152 1.689
96 FC1 153 2.177
96 FC1 154 2.177
96 FC1 155 2.177
96 FC1 156 2.665
96 FC1 157 2.177
96 FC1 158 1.200
96 FC1 159 -0.264
96 FC1 160 -1.241
96 FC1 161 -1.729
96 FC1 162 -1.241
96 FC1 163 0.712
96 FC1 164 2.665
96 FC1 165 3.153
96 FC1 166 2.665
96 FC1 167 1.689
96 FC1 168 1.200
96 FC1 169 1.200
96 FC1 170 1.689
96 FC1 171 2.665
96 FC1 172 2.665
96 FC1 173 2.665
96 FC1 174 1.689
96 FC1 175 1.200
96 FC1 176 0.712
96 FC1 177 0.224
96 FC1 178 -0.264
96 FC1 179 -0.264
96 FC1 180 0.224
96 FC1 181 1.200
96 FC1 182 2.177
96 FC1 183 2.665
96 FC1 184 2.177
96 FC1 185 1.200
96 FC1 186 -0.753
96 FC1 187 -1.729
96 FC1 188 -1.729
96 FC1 189 -0.753
96 FC1 190 0.712
96 FC1 191 1.689
96 FC1 192 1.689
96 FC1 193 0.712
96 FC1 194 -0.753
96 FC1 195 -1.729
96 FC1 196 -1.729
96 FC1 197 -0.753
96 FC1 198 0.224
96 FC1 199 1.689
96 FC1 200 2.665
96 FC1 201 3.153
96 FC1 202 3.153
96 FC1 203 2.665
96 FC1 204 1.689
96 FC1 205 0.224
96 FC1 206 -0.753
96 FC1 207 -1.729
96 FC1 208 -2.706
96 FC1 209 -3.194
96 FC1 210 -2.706
96 FC1 211 -1.729
96 FC1 212 -0.753
96 FC1 213 -0.264
96 FC1 214 -1.241
96 FC1 215 -2.706
96 FC1 216 -4.171
96 FC1 217 -5.147
96 FC1 218 -5.147
96 FC1 219 -3.682
96 FC1 220 -1.729
96 FC1 221 -0.753
96 FC1 222 -0.264
96 FC1 223 -0.264
96 FC1 224 -0.753
96 FC1 225 -1.241
96 FC1 226 -1.729
96 FC1 227 -2.218
96 FC1 228 -2.706
96 FC1 229 -2.218
96 FC1 230 -1.729
96 FC1 231 -0.753
96 FC1 232 0.224
96 FC1 233 0.224
96 FC1 234 -0.753
96 FC1 235 -2.706
96 FC1 236 -4.171
96 FC1 237 -5.147
96 FC1 238 -4.659
96 FC1 239 -3.682
96 FC1 240 -2.218
96 FC1 241 -0.753
96 FC1 242 0.224
96 FC1 243 0.712
96 FC1 244 0.224
96 FC1 245 -1.729
96 FC1 246 -3.682
96 FC1 247 -5.636
96 FC1 248 -6.124
96 FC1 249 -5.147
96 FC1 250 -2.218
96 FC1 251 0.224
96 FC1 252 1.689
96 FC1 253 1.200
96 FC1 254 0.224
96 FC1 255 -1.241
# T8 chan 13
96 T8 0 -1.648
96 T8 1 -2.625
96 T8 2 -4.578
96 T8 3 -6.042
96 T8 4 -5.554
96 T8 5 -3.601
96 T8 6 -0.183
96 T8 7 2.258
96 T8 8 2.258
96 T8 9 0.305
96 T8 10 -2.136
96 T8 11 -2.625
96 T8 12 -2.136
96 T8 13 -0.183
96 T8 14 0.305
96 T8 15 -0.183
96 T8 16 -1.160
96 T8 17 -0.671
96 T8 18 1.282
96 T8 19 3.723
96 T8 20 5.188
96 T8 21 4.211
96 T8 22 2.747
96 T8 23 1.282
96 T8 24 1.770
96 T8 25 3.235
96 T8 26 4.211
96 T8 27 4.700
96 T8 28 4.700
96 T8 29 4.700
96 T8 30 5.188
96 T8 31 6.165
96 T8 32 6.165
96 T8 33 5.188
96 T8 34 2.747
96 T8 35 0.305
96 T8 36 -0.183
96 T8 37 -0.183
96 T8 38 -0.183
96 T8 39 -1.160
96 T8 40 -3.113
96 T8 41 -6.042
96 T8 42 -7.996
96 T8 43 -7.996
96 T8 44 -7.507
96 T8 45 -7.019
96 T8 46 -7.996
96 T8 47 -9.460
96 T8 48 -10.437
96 T8 49 -9.949
96 T8 50 -7.996
96 T8 51 -7.019
96 T8 52 -7.019
96 T8 53 -8.484
96 T8 54 -9.460
96 T8 55 -9.460
96 T8 56 -7.996
96 T8 57 -6.531
96 T8 58 -6.042
96 T8 59 -7.996
96 T8 60 -10.925
96 T8 61 -12.878
96 T8 62 -13.367
96 T8 63 -11.902
96 T8 64 -10.437
96 T8 65 -8.972
96 T8 66 -8.972
96 T8 67 -9.949
96 T8 68 -10.925
96 T8 69 -12.390
96 T8 70 -13.855
96 T8 71 -15.320
96 T8 72 -16.296
96 T8 73 -16.296
96 T8 74 -14.832
96 T8 75 -11.902
96 T8 76 -8.484
96 T8 77 -6.042
96 T8 78 -5.066
96 T8 79 -5.066
96 T8 80 -6.042
96 T8 81 -7.019
96 T8 82 -7.019
96 T8 83 -6.042
96 T8 84 -6.042
96 T8 85 -6.531
96 T8 86 -7.996
96 T8 87 -9.460
96 T8 88 -10.437
96 T8 89 -11.414
96 T8 90 -11.414
96 T8 91 -11.902
96 T8 92 -12.390
96 T8 93 -12.390
96 T8 94 -11.902
96 T8 95 -11.902
96 T8 96 -11.414
96 T8 97 -11.902
96 T8 98 -13.367
96 T8 99 -14.343
96 T8 100 -14.832
96 T8 101 -13.367
96 T8 102 -12.390
96 T8 103 -11.414
96 T8 104 -11.414
96 T8 105 -12.390
96 T8 106 -12.878
96 T8 107 -12.878
96 T8 108 -11.902
96 T8 109 -9.460
96 T8 110 -7.019
96 T8 111 -5.554
96 T8 112 -5.066
96 T8 113 -7.019
96 T8 114 -8.972
96 T8 115 -10.925
96 T8 116 -10.437
96 T8 117 -8.484
96 T8 118 -6.042
96 T8 119 -5.066
96 T8 120 -6.531
96 T8 121 -8.972
96 T8 122 -10.437
96 T8 123 -9.949
96 T8 124 -7.507
96 T8 125 -5.554
96 T8 126 -5.066
96 T8 127 -7.019
96 T8 128 -9.949
96 T8 129 -11.902
96 T8 130 -12.390
96 T8 131 -12.390
96 T8 132 -11.414
96 T8 133 -10.925
96 T8 134 -9.460
96 T8 135 -7.507
96 T8 136 -5.554
96 T8 137 -4.089
96 T8 138 -5.066
96 T8 139 -6.531
96 T8 140 -7.996
96 T8 141 -8.972
96 T8 142 -8.972
96 T8 143 -9.460
96 T8 144 -10.437
96 T8 145 -11.902
96 T8 146 -13.367
96 T8 147 -12.390
96 T8 148 -9.949
96 T8 149 -7.019
96 T8 150 -5.066
96 T8 151 -5.066
96 T8 152 -5.554
96 T8 153 -7.507
96 T8 154 -8.972
96 T8 155 -10.437
96 T8 156 -10.437
96 T8 157 -9.460
96 T8 158 -7.507
96 T8 159 -4.578
96 T8 160 -1.648
96 T8 161 0.305
96 T8 162 1.770
96 T8 163 2.258
96 T8 164 1.770
96 T8 165 0.793
96 T8 166 -0.671
96 T8 167 -1.648
96 T8 168 -2.136
96 T8 169 -3.113
96 T8 170 -3.113
96 T8 171 -2.625
96 T8 172 -2.625
96 T8 173 -2.136
96 T8 174 -2.136
96 T8 175 -2.136
96 T8 176 -2.625
96 T8 177 -3.113
96 T8 178 -2.625
96 T8 179 -2.136
96 T8 180 -1.160
96 T8 181 0.305
96 T8 182 0.793
96 T8 183 1.770
96 T8 184 2.747
96 T8 185 4.700
96 T8 186 6.653
96 T8 187 8.606
96 T8 188 9.583
96 T8 189 8.606
96 T8 190 6.653
96 T8 191 5.188
96 T8 192 4.211
96 T8 193 4.211
96 T8 194 3.723
96 T8 195 1.770
96 T8 196 -0.671
96 T8 197 -3.601
96 T8 198 -5.554
96 T8 199 -6.042
96 T8 200 -6.531
96 T8 201 -7.507
96 T8 202 -9.460
96 T8 203 -9.949
96 T8 204 -9.460
96 T8 205 -7.019
96 T8 206 -3.601
96 T8 207 -1.648
96 T8 208 -2.136
96 T8 209 -3.113
96 T8 210 -3.113
96 T8 211 -1.648
96 T8 212 1.770
96 T8 213 5.188
96 T8 214 6.165
96 T8 215 4.700
96 T8 216 1.770
96 T8 217 -1.160
96 T8 218 -4.089
96 T8 219 -7.507
96 T8 220 -10.925
96 T8 221 -14.832
96 T8 222 -17.273
96 T8 223 -17.273
96 T8 224 -15.320
96 T8 225 -11.902
96 T8 226 -9.949
96 T8 227 -9.949
96 T8 228 -10.437
96 T8 229 -10.925
96 T8 230 -9.949
96 T8 231 -7.019
96 T8 232 -3.113
96 T8 233 0.305
96 T8 234 3.723
96 T8 235 6.165
96 T8 236 9.094
96 T8 237 11.536
96 T8 238 13.489
96 T8 239 14.465
96 T8 240 13.489
96 T8 241 11.047
96 T8 242 7.629
96 T8 243 4.211
96 T8 244 1.282
96 T8 245 -0.671
96 T8 246 -2.625
96 T8 247 -4.089
96 T8 248 -6.531
96 T8 249 -9.949
96 T8 250 -13.367
96 T8 251 -16.785
96 T8 252 -18.250
96 T8 253 -18.250
96 T8 254 -15.808
96 T8 255 -11.902
# T7 chan 14
96 T7 0 2.472
96 T7 1 2.472
96 T7 2 1.495
96 T7 3 0.031
96 T7 4 -0.458
96 T7 5 -0.946
96 T7 6 -1.434
96 T7 7 -2.411
96 T7 8 -3.387
96 T7 9 -4.852
96 T7 10 -5.829
96 T7 11 -6.317
96 T7 12 -7.294
96 T7 13 -8.270
96 T7 14 -9.247
96 T7 15 -10.712
96 T7 16 -11.200
96 T7 17 -11.688
96 T7 18 -11.200
96 T7 19 -9.735
96 T7 20 -7.782
96 T7 21 -6.317
96 T7 22 -4.852
96 T7 23 -5.341
96 T7 24 -6.317
96 T7 25 -6.805
96 T7 26 -7.294
96 T7 27 -6.805
96 T7 28 -5.829
96 T7 29 -5.829
96 T7 30 -6.317
96 T7 31 -8.270
96 T7 32 -9.735
96 T7 33 -10.223
96 T7 34 -9.735
96 T7 35 -8.759
96 T7 36 -8.270
96 T7 37 -8.270
96 T7 38 -8.759
96 T7 39 -9.735
96 T7 40 -9.735
96 T7 41 -10.223
96 T7 42 -10.223
96 T7 43 -10.223
96 T7 44 -10.223
96 T7 45 -9.247
96 T7 46 -8.270
96 T7 47 -6.805
96 T7 48 -6.317
96 T7 49 -7.294
96 T7 50 -9.735
96 T7 51 -13.153
96 T7 52 -16.083
96 T7 53 -18.036
96 T7 54 -18.524
96 T7 55 -17.548
96 T7 56 -16.571
96 T7 57 -15.106
96 T7 58 -14.130
96 T7 59 -14.618
96 T7 60 -15.106
96 T7 61 -16.083
96 T7 62 -15.594
96 T7 63 -15.106
96 T7 64 -14.130
96 T7 65 -13.641
96 T7 66 -14.130
96 T7 67 -15.594
96 T7 68 -16.083
96 T7 69 -16.083
96 T7 70 -16.083
96 T7 71 -17.059
96 T7 72 -18.524
96 T7 73 -19.989
96 T7 74 -20.477
96 T7 75 -19.501
96 T7 76 -17.059
96 T7 77 -15.106
96 T7 78 -14.618
96 T7 79 -14.618
96 T7 80 -15.106
96 T7 81 -14.618
96 T7 82 -12.665
96 T7 83 -10.223
96 T7 84 -8.270
96 T7 85 -7.294
96 T7 86 -7.782
96 T7 87 -7.782
96 T7 88 -6.805
96 T7 89 -5.341
96 T7 90 -4.364
96 T7 91 -3.876
96 T7 92 -5.341
96 T7 93 -7.782
96 T7 94 -10.223
96 T7 95 -12.665
96 T7 96 -13.641
96 T7 97 -14.130
96 T7 98 -14.130
96 T7 99 -13.641
96 T7 100 -14.130
96 T7 101 -15.594
96 T7 102 -17.059
96 T7 103 -18.524
96 T7 104 -18.036
96 T7 105 -16.083
96 T7 106 -13.641
96 T7 107 -10.712
96 T7 108 -8.759
96 T7 109 -7.782
96 T7 110 -7.294
96 T7 111 -7.782
96 T7 112 -6.805
96 T7 113 -6.317
96 T7 114 -5.341
96 T7 115 -4.852
96 T7 116 -4.852
96 T7 117 -5.829
96 T7 118 -6.317
96 T7 119 -7.294
96 T7 120 -7.782
96 T7 121 -8.270
96 T7 122 -8.270
96 T7 123 -7.782
96 T7 124 -6.805
96 T7 125 -5.341
96 T7 126 -4.852
96 T7 127 -4.852
96 T7 128 -6.317
96 T7 129 -7.782
96 T7 130 -9.247
96 T7 131 -8.759
96 T7 132 -7.782
96 T7 133 -5.829
96 T7 134 -4.852
96 T7 135 -3.876
96 T7 136 -3.387
96 T7 137 -2.899
96 T7 138 -2.899
96 T7 139 -2.899
96 T7 140 -4.364
96 T7 141 -5.829
96 T7 142 -7.294
96 T7 143 -7.294
96 T7 144 -6.805
96 T7 145 -6.317
96 T7 146 -6.805
96 T7 147 -8.270
96 T7 148 -9.735
96 T7 149 -10.712
96 T7 150 -11.200
96 T7 151 -10.712
96 T7 152 -10.712
96 T7 153 -10.712
96 T7 154 -10.712
96 T7 155 -9.247
96 T7 156 -7.294
96 T7 157 -4.852
96 T7 158 -3.387
96 T7 159 -2.899
96 T7 160 -2.899
96 T7 161 -2.899
96 T7 162 -2.899
96 T7 163 -2.411
96 T7 164 -3.387
96 T7 165 -6.317
96 T7 166 -9.735
96 T7 167 -12.177
96 T7 168 -12.177
96 T7 169 -10.712
96 T7 170 -8.270
96 T7 171 -7.782
96 T7 172 -8.270
96 T7 173 -10.223
96 T7 174 -10.712
96 T7 175 -10.223
96 T7 176 -9.247
96 T7 177 -8.270
96 T7 178 -7.782
96 T7 179 -6.317
96 T7 180 -3.387
96 T7 181 1.495
96 T7 182 6.378
96 T7 183 9.796
96 T7 184 9.796
96 T7 185 7.355
96 T7 186 4.425
96 T7 187 2.472
96 T7 188 1.007
96 T7 189 1.007
96 T7 190 -0.458
96 T7 191 -1.923
96 T7 192 -4.364
96 T7 193 -6.317
96 T7 194 -7.782
96 T7 195 -9.247
96 T7 196 -11.200
96 T7 197 -12.665
96 T7 198 -13.641
96 T7 199 -14.130
96 T7 200 -14.130
96 T7 201 -14.130
96 T7 202 -14.130
96 T7 203 -14.618
96 T7 204 -14.130
96 T7 205 -12.177
96 T7 206 -8.270
96 T7 207 -4.364
96 T7 208 -1.923
96 T7 209 -1.923
96 T7 210 -2.899
96 T7 211 -4.364
96 T7 212 -4.364
96 T7 213 -3.387
96 T7 214 -2.411
96 T7 215 -3.387
96 T7 216 -5.341
96 T7 217 -8.759
96 T7 218 -12.177
96 T7 219 -14.618
96 T7 220 -16.571
96 T7 221 -19.501
96 T7 222 -23.407
96 T7 223 -26.825
96 T7 224 -29.266
96 T7 225 -29.266
96 T7 226 -27.802
96 T7 227 -25.848
96 T7 228 -24.384
96 T7 229 -22.430
96 T7 230 -20.477
96 T7 231 -17.059
96 T7 232 -13.153
96 T7 233 -7.782
96 T7 234 -2.899
96 T7 235 1.495
96 T7 236 4.425
96 T7 237 5.402
96 T7 238 5.890
96 T7 239 4.425
96 T7 240 2.960
96 T7 241 0.519
96 T7 242 -1.923
96 T7 243 -4.364
96 T7 244 -7.294
96 T7 245 -11.200
96 T7 246 -15.594
96 T7 247 -20.477
96 T7 248 -23.895
96 T7 249 -26.825
96 T7 250 -27.802
96 T7 251 -27.802
96 T7 252 -27.802
96 T7 253 -26.825
96 T7 254 -25.360
96 T7 255 -22.430
# CZ chan 15
96 CZ 0 6.999
96 CZ 1 8.952
96 CZ 2 4.069
96 CZ 3 -3.255
96 CZ 4 -7.650
96 CZ 5 -4.720
96 CZ 6 5.534
96 CZ 7 16.764
96 CZ 8 20.671
96 CZ 9 16.276
96 CZ 10 6.510
96 CZ 11 -2.279
96 CZ 12 -5.208
96 CZ 13 -2.767
96 CZ 14 1.139
96 CZ 15 1.628
96 CZ 16 -1.302
96 CZ 17 -5.208
96 CZ 18 -7.161
96 CZ 19 -6.673
96 CZ 20 -5.208
96 CZ 21 -3.255
96 CZ 22 -1.790
96 CZ 23 0.163
96 CZ 24 3.092
96 CZ 25 5.534
96 CZ 26 5.534
96 CZ 27 2.604
96 CZ 28 -1.302
96 CZ 29 -2.279
96 CZ 30 0.651
96 CZ 31 6.022
96 CZ 32 9.928
96 CZ 33 8.464
96 CZ 34 3.581
96 CZ 35 -2.279
96 CZ 36 -5.697
96 CZ 37 -5.697
96 CZ 38 -4.720
96 CZ 39 -5.208
96 CZ 40 -7.161
96 CZ 41 -9.115
96 CZ 42 -8.626
96 CZ 43 -6.185
96 CZ 44 -3.743
96 CZ 45 -4.720
96 CZ 46 -8.626
96 CZ 47 -13.997
96 CZ 48 -17.415
96 CZ 49 -15.951
96 CZ 50 -11.068
96 CZ 51 -7.161
96 CZ 52 -6.673
96 CZ 53 -10.579
96 CZ 54 -15.951
96 CZ 55 -19.857
96 CZ 56 -18.880
96 CZ 57 -15.462
96 CZ 58 -12.044
96 CZ 59 -11.556
96 CZ 60 -14.974
96 CZ 61 -19.857
96 CZ 62 -23.275
96 CZ 63 -23.275
96 CZ 64 -19.857
96 CZ 65 -15.951
96 CZ 66 -12.044
96 CZ 67 -10.091
96 CZ 68 -10.579
96 CZ 69 -12.044
96 CZ 70 -14.974
96 CZ 71 -18.392
96 CZ 72 -20.833
96 CZ 73 -21.810
96 CZ 74 -19.857
96 CZ 75 -15.951
96 CZ 76 -12.044
96 CZ 77 -9.115
96 CZ 78 -8.626
96 CZ 79 -9.115
96 CZ 80 -10.091
96 CZ 81 -9.603
96 CZ 82 -8.138
96 CZ 83 -5.697
96 CZ 84 -3.743
96 CZ 85 -2.279
96 CZ 86 -3.255
96 CZ 87 -6.185
96 CZ 88 -11.556
96 CZ 89 -17.415
96 CZ 90 -21.322
96 CZ 91 -21.322
96 CZ 92 -18.880
96 CZ 93 -15.462
96 CZ 94 -13.021
96 CZ 95 -13.509
96 CZ 96 -15.462
96 CZ 97 -16.927
96 CZ 98 -16.927
96 CZ 99 -14.486
96 CZ 100 -12.044
96 CZ 101 -12.044
96 CZ 102 -14.486
96 CZ 103 -17.415
96 CZ 104 -18.880
96 CZ 105 -17.904
96 CZ 106 -15.462
96 CZ 107 -13.997
96 CZ 108 -13.997
96 CZ 109 -14.486
96 CZ 110 -14.486
96 CZ 111 -13.509
96 CZ 112 -11.556
96 CZ 113 -10.091
96 CZ 114 -10.091
96 CZ 115 -9.115
96 CZ 116 -7.161
96 CZ 117 -4.720
96 CZ 118 -2.767
96 CZ 119 -3.255
96 CZ 120 -5.697
96 CZ 121 -8.138
96 CZ 122 -8.626
96 CZ 123 -6.185
96 CZ 124 -3.743
96 CZ 125 -3.255
96 CZ 126 -5.208
96 CZ 127 -8.626
96 CZ 128 -10.579
96 CZ 129 -10.091
96 CZ 130 -8.626
96 CZ 131 -7.650
96 CZ 132 -7.650
96 CZ 133 -8.138
96 CZ 134 -7.650
96 CZ 135 -6.185
96 CZ 136 -4.720
96 CZ 137 -4.232
96 CZ 138 -5.208
96 CZ 139 -7.161
96 CZ 140 -8.626
96 CZ 141 -8.626
96 CZ 142 -8.138
96 CZ 143 -6.673
96 CZ 144 -5.208
96 CZ 145 -4.232
96 CZ 146 -4.232
96 CZ 147 -5.697
96 CZ 148 -7.161
96 CZ 149 -7.650
96 CZ 150 -6.673
96 CZ 151 -5.208
96 CZ 152 -5.208
96 CZ 153 -6.673
96 CZ 154 -9.115
96 CZ 155 -10.091
96 CZ 156 -9.115
96 CZ 157 -6.673
96 CZ 158 -5.208
96 CZ 159 -5.208
96 CZ 160 -5.697
96 CZ 161 -5.208
96 CZ 162 -3.255
96 CZ 163 0.163
96 CZ 164 2.116
96 CZ 165 1.139
96 CZ 166 -2.279
96 CZ 167 -4.232
96 CZ 168 -4.720
96 CZ 169 -2.767
96 CZ 170 -0.326
96 CZ 171 0.163
96 CZ 172 -0.814
96 CZ 173 -1.302
96 CZ 174 -0.326
96 CZ 175 1.628
96 CZ 176 2.116
96 CZ 177 1.139
96 CZ 178 -0.814
96 CZ 179 -1.790
96 CZ 180 0.651
96 CZ 181 6.022
96 CZ 182 11.882
96 CZ 183 15.299
96 CZ 184 15.299
96 CZ 185 12.858
96 CZ 186 9.440
96 CZ 187 6.999
96 CZ 188 6.510
96 CZ 189 6.999
96 CZ 190 7.975
96 CZ 191 8.464
96 CZ 192 7.975
96 CZ 193 6.999
96 CZ 194 6.510
96 CZ 195 4.069
96 CZ 196 0.651
96 CZ 197 -2.279
96 CZ 198 -4.720
96 CZ 199 -5.697
96 CZ 200 -4.720
96 CZ 201 -3.255
96 CZ 202 -2.279
96 CZ 203 -2.279
96 CZ 204 -2.767
96 CZ 205 -3.255
96 CZ 206 -3.255
96 CZ 207 -3.743
96 CZ 208 -5.697
96 CZ 209 -8.626
96 CZ 210 -10.091
96 CZ 211 -8.626
96 CZ 212 -1.790
96 CZ 213 6.510
96 CZ 214 12.858
96 CZ 215 13.346
96 CZ 216 7.487
96 CZ 217 -0.326
96 CZ 218 -7.161
96 CZ 219 -11.068
96 CZ 220 -13.021
96 CZ 221 -14.974
96 CZ 222 -18.880
96 CZ 223 -21.322
96 CZ 224 -21.810
96 CZ 225 -18.880
96 CZ 226 -14.486
96 CZ 227 -12.044
96 CZ 228 -12.533
96 CZ 229 -13.997
96 CZ 230 -14.974
96 CZ 231 -13.021
96 CZ 232 -9.115
96 CZ 233 -5.697
96 CZ 234 -3.255
96 CZ 235 -1.790
96 CZ 236 1.628
96 CZ 237 6.999
96 CZ 238 13.346
96 CZ 239 16.276
96 CZ 240 14.811
96 CZ 241 10.417
96 CZ 242 6.510
96 CZ 243 5.534
96 CZ 244 6.999
96 CZ 245 7.487
96 CZ 246 4.557
96 CZ 247 -0.814
96 CZ 248 -5.697
96 CZ 249 -8.138
96 CZ 250 -7.650
96 CZ 251 -7.161
96 CZ 252 -9.115
96 CZ 253 -13.021
96 CZ 254 -15.951
96 CZ 255 -13.509
# C3 chan 16
96 C3 0 -3.520
96 C3 1 -4.008
96 C3 2 -4.496
96 C3 3 -4.985
96 C3 4 -5.961
96 C3 5 -5.961
96 C3 6 -5.961
96 C3 7 -5.473
96 C3 8 -4.985
96 C3 9 -4.496
96 C3 10 -4.496
96 C3 11 -4.496
96 C3 12 -4.496
96 C3 13 -4.008
96 C3 14 -4.008
96 C3 15 -3.520
96 C3 16 -3.031
96 C3 17 -3.031
96 C3 18 -3.031
96 C3 19 -3.031
96 C3 20 -3.031
96 C3 21 -2.543
96 C3 22 -2.055
96 C3 23 -2.543
96 C3 24 -2.543
96 C3 25 -3.031
96 C3 26 -3.520
96 C3 27 -4.008
96 C3 28 -4.008
96 C3 29 -4.008
96 C3 30 -4.496
96 C3 31 -4.496
96 C3 32 -4.496
96 C3 33 -4.008
96 C3 34 -2.543
96 C3 35 -0.590
96 C3 36 -0.102
96 C3 37 -0.102
96 C3 38 -0.590
96 C3 39 -1.078
96 C3 40 -0.590
96 C3 41 -0.102
96 C3 42 0.387
96 C3 43 -0.102
96 C3 44 -1.078
96 C3 45 -2.055
96 C3 46 -2.055
96 C3 47 -2.543
96 C3 48 -2.543
96 C3 49 -3.031
96 C3 50 -3.520
96 C3 51 -5.473
96 C3 52 -6.449
96 C3 53 -7.914
96 C3 54 -8.403
96 C3 55 -8.891
96 C3 56 -8.403
96 C3 57 -8.403
96 C3 58 -6.938
96 C3 59 -6.449
96 C3 60 -5.473
96 C3 61 -4.985
96 C3 62 -5.961
96 C3 63 -6.449
96 C3 64 -6.938
96 C3 65 -6.449
96 C3 66 -6.449
96 C3 67 -6.449
96 C3 68 -6.449
96 C3 69 -6.449
96 C3 70 -7.426
96 C3 71 -7.914
96 C3 72 -8.403
96 C3 73 -9.379
96 C3 74 -8.891
96 C3 75 -8.403
96 C3 76 -7.426
96 C3 77 -6.449
96 C3 78 -5.473
96 C3 79 -4.985
96 C3 80 -4.496
96 C3 81 -4.008
96 C3 82 -4.008
96 C3 83 -3.520
96 C3 84 -3.520
96 C3 85 -3.031
96 C3 86 -3.520
96 C3 87 -3.520
96 C3 88 -3.031
96 C3 89 -2.055
96 C3 90 -1.078
96 C3 91 -0.590
96 C3 92 -1.078
96 C3 93 -2.055
96 C3 94 -3.520
96 C3 95 -4.008
96 C3 96 -3.520
96 C3 97 -3.031
96 C3 98 -3.031
96 C3 99 -3.031
96 C3 100 -3.520
96 C3 101 -4.008
96 C3 102 -4.008
96 C3 103 -3.520
96 C3 104 -3.520
96 C3 105 -3.520
96 C3 106 -3.520
96 C3 107 -4.008
96 C3 108 -4.496
96 C3 109 -4.985
96 C3 110 -4.985
96 C3 111 -4.985
96 C3 112 -4.008
96 C3 113 -3.520
96 C3 114 -3.031
96 C3 115 -3.031
96 C3 116 -4.008
96 C3 117 -4.496
96 C3 118 -4.985
96 C3 119 -4.496
96 C3 120 -4.008
96 C3 121 -3.520
96 C3 122 -3.520
96 C3 123 -3.520
96 C3 124 -3.520
96 C3 125 -3.520
96 C3 126 -4.008
96 C3 127 -4.496
96 C3 128 -4.985
96 C3 129 -5.473
96 C3 130 -5.473
96 C3 131 -4.985
96 C3 132 -4.008
96 C3 133 -3.520
96 C3 134 -3.031
96 C3 135 -3.031
96 C3 136 -3.031
96 C3 137 -2.543
96 C3 138 -1.567
96 C3 139 -1.567
96 C3 140 -2.055
96 C3 141 -2.543
96 C3 142 -3.031
96 C3 143 -2.543
96 C3 144 -2.055
96 C3 145 -1.078
96 C3 146 -0.590
96 C3 147 -1.078
96 C3 148 -1.567
96 C3 149 -2.055
96 C3 150 -2.543
96 C3 151 -3.031
96 C3 152 -3.031
96 C3 153 -3.031
96 C3 154 -3.031
96 C3 155 -2.055
96 C3 156 -1.567
96 C3 157 -1.078
96 C3 158 -1.567
96 C3 159 -3.031
96 C3 160 -3.520
96 C3 161 -4.008
96 C3 162 -3.520
96 C3 163 -3.031
96 C3 164 -2.543
96 C3 165 -3.520
96 C3 166 -4.985
96 C3 167 -5.473
96 C3 168 -4.985
96 C3 169 -3.520
96 C3 170 -1.567
96 C3 171 -0.102
96 C3 172 -0.590
96 C3 173 -1.567
96 C3 174 -3.031
96 C3 175 -3.520
96 C3 176 -3.520
96 C3 177 -3.520
96 C3 178 -3.520
96 C3 179 -3.031
96 C3 180 -1.567
96 C3 181 0.875
96 C3 182 2.828
96 C3 183 4.293
96 C3 184 4.293
96 C3 185 3.316
96 C3 186 1.851
96 C3 187 -0.102
96 C3 188 -0.590
96 C3 189 -1.078
96 C3 190 -1.567
96 C3 191 -2.055
96 C3 192 -2.543
96 C3 193 -3.031
96 C3 194 -3.031
96 C3 195 -3.031
96 C3 196 -3.031
96 C3 197 -3.031
96 C3 198 -3.031
96 C3 199 -3.520
96 C3 200 -4.008
96 C3 201 -4.496
96 C3 202 -4.496
96 C3 203 -4.985
96 C3 204 -4.496
96 C3 205 -4.985
96 C3 206 -4.985
96 C3 207 -4.985
96 C3 208 -4.985
96 C3 209 -5.473
96 C3 210 -5.473
96 C3 211 -5.473
96 C3 212 -5.473
96 C3 213 -4.985
96 C3 214 -4.985
96 C3 215 -5.473
96 C3 216 -5.961
96 C3 217 -5.961
96 C3 218 -5.473
96 C3 219 -4.985
96 C3 220 -4.008
96 C3 221 -4.008
96 C3 222 -4.496
96 C3 223 -5.473
96 C3 224 -5.961
96 C3 225 -6.449
96 C3 226 -6.938
96 C3 227 -6.938
96 C3 228 -7.426
96 C3 229 -7.426
96 C3 230 -7.426
96 C3 231 -6.938
96 C3 232 -5.473
96 C3 233 -4.008
96 C3 234 -3.031
96 C3 235 -3.031
96 C3 236 -3.031
96 C3 237 -3.031
96 C3 238 -3.031
96 C3 239 -3.031
96 C3 240 -2.543
96 C3 241 -2.543
96 C3 242 -2.543
96 C3 243 -3.031
96 C3 244 -4.008
96 C3 245 -4.985
96 C3 246 -6.449
96 C3 247 -7.914
96 C3 248 -8.891
96 C3 249 -9.379
96 C3 250 -8.891
96 C3 251 -7.426
96 C3 252 -5.961
96 C3 253 -4.008
96 C3 254 -3.031
96 C3 255 -2.543
# C4 chan 17
96 C4 0 -0.905
96 C4 1 -0.905
96 C4 2 -0.905
96 C4 3 -0.905
96 C4 4 -0.417
96 C4 5 -0.417
96 C4 6 -0.417
96 C4 7 -0.417
96 C4 8 -0.905
96 C4 9 -1.882
96 C4 10 -3.347
96 C4 11 -4.323
96 C4 12 -5.300
96 C4 13 -5.300
96 C4 14 -4.812
96 C4 15 -4.323
96 C4 16 -3.835
96 C4 17 -3.347
96 C4 18 -2.858
96 C4 19 -2.858
96 C4 20 -1.882
96 C4 21 -1.394
96 C4 22 -0.905
96 C4 23 -0.417
96 C4 24 -0.417
96 C4 25 0.071
96 C4 26 0.071
96 C4 27 0.559
96 C4 28 1.048
96 C4 29 1.048
96 C4 30 1.048
96 C4 31 1.048
96 C4 32 1.536
96 C4 33 1.048
96 C4 34 0.559
96 C4 35 -0.417
96 C4 36 -1.882
96 C4 37 -3.347
96 C4 38 -4.812
96 C4 39 -5.300
96 C4 40 -5.300
96 C4 41 -5.788
96 C4 42 -6.276
96 C4 43 -6.765
96 C4 44 -6.765
96 C4 45 -6.765
96 C4 46 -5.788
96 C4 47 -5.300
96 C4 48 -4.812
96 C4 49 -4.323
96 C4 50 -3.835
96 C4 51 -2.370
96 C4 52 -0.417
96 C4 53 0.559
96 C4 54 1.048
96 C4 55 0.559
96 C4 56 -0.905
96 C4 57 -2.370
96 C4 58 -3.835
96 C4 59 -4.323
96 C4 60 -4.812
96 C4 61 -4.812
96 C4 62 -5.300
96 C4 63 -4.812
96 C4 64 -4.812
96 C4 65 -4.323
96 C4 66 -3.835
96 C4 67 -4.812
96 C4 68 -5.788
96 C4 69 -6.765
96 C4 70 -6.765
96 C4 71 -6.765
96 C4 72 -5.788
96 C4 73 -5.300
96 C4 74 -4.812
96 C4 75 -4.812
96 C4 76 -4.812
96 C4 77 -5.300
96 C4 78 -5.300
96 C4 79 -5.300
96 C4 80 -5.300
96 C4 81 -5.300
96 C4 82 -5.300
96 C4 83 -5.300
96 C4 84 -5.788
96 C4 85 -6.276
96 C4 86 -6.276
96 C4 87 -6.765
96 C4 88 -6.765
96 C4 89 -6.765
96 C4 90 -6.765
96 C4 91 -6.276
96 C4 92 -5.788
96 C4 93 -4.812
96 C4 94 -4.812
96 C4 95 -4.812
96 C4 96 -5.788
96 C4 97 -6.276
96 C4 98 -7.253
96 C4 99 -7.253
96 C4 100 -6.276
96 C4 101 -5.300
96 C4 102 -4.812
96 C4 103 -4.812
96 C4 104 -5.788
96 C4 105 -6.276
96 C4 106 -6.276
96 C4 107 -6.276
96 C4 108 -6.276
96 C4 109 -5.788
96 C4 110 -5.788
96 C4 111 -6.276
96 C4 112 -6.276
96 C4 113 -6.765
96 C4 114 -6.765
96 C4 115 -6.276
96 C4 116 -5.788
96 C4 117 -4.812
96 C4 118 -4.323
96 C4 119 -4.812
96 C4 120 -5.788
96 C4 121 -6.765
96 C4 122 -7.253
96 C4 123 -6.276
96 C4 124 -5.300
96 C4 125 -3.835
96 C4 126 -3.347
96 C4 127 -3.347
96 C4 128 -3.347
96 C4 129 -3.347
96 C4 130 -3.835
96 C4 131 -5.300
96 C4 132 -6.765
96 C4 133 -7.253
96 C4 134 -6.765
96 C4 135 -5.300
96 C4 136 -3.835
96 C4 137 -2.858
96 C4 138 -3.347
96 C4 139 -4.812
96 C4 140 -6.765
96 C4 141 -7.741
96 C4 142 -8.230
96 C4 143 -8.230
96 C4 144 -8.230
96 C4 145 -7.741
96 C4 146 -7.253
96 C4 147 -6.765
96 C4 148 -5.788
96 C4 149 -4.323
96 C4 150 -3.835
96 C4 151 -3.835
96 C4 152 -4.323
96 C4 153 -5.788
96 C4 154 -6.765
96 C4 155 -7.741
96 C4 156 -7.253
96 C4 157 -6.276
96 C4 158 -4.812
96 C4 159 -3.347
96 C4 160 -2.370
96 C4 161 -2.370
96 C4 162 -2.370
96 C4 163 -2.858
96 C4 164 -3.347
96 C4 165 -4.323
96 C4 166 -4.812
96 C4 167 -5.788
96 C4 168 -5.788
96 C4 169 -5.300
96 C4 170 -4.323
96 C4 171 -2.858
96 C4 172 -2.370
96 C4 173 -1.882
96 C4 174 -2.370
96 C4 175 -2.858
96 C4 176 -3.347
96 C4 177 -4.323
96 C4 178 -4.812
96 C4 179 -4.323
96 C4 180 -3.835
96 C4 181 -2.370
96 C4 182 -1.394
96 C4 183 -0.905
96 C4 184 -0.905
96 C4 185 -1.882
96 C4 186 -3.835
96 C4 187 -4.812
96 C4 188 -5.300
96 C4 189 -4.812
96 C4 190 -3.347
96 C4 191 -1.882
96 C4 192 -0.417
96 C4 193 0.559
96 C4 194 0.559
96 C4 195 -0.417
96 C4 196 -1.882
96 C4 197 -3.835
96 C4 198 -5.300
96 C4 199 -5.788
96 C4 200 -5.788
96 C4 201 -5.300
96 C4 202 -4.323
96 C4 203 -3.835
96 C4 204 -3.347
96 C4 205 -2.858
96 C4 206 -2.370
96 C4 207 -2.858
96 C4 208 -3.835
96 C4 209 -4.812
96 C4 210 -5.300
96 C4 211 -5.300
96 C4 212 -4.323
96 C4 213 -2.858
96 C4 214 -1.394
96 C4 215 -0.905
96 C4 216 -0.417
96 C4 217 -1.394
96 C4 218 -3.347
96 C4 219 -5.788
96 C4 220 -7.741
96 C4 221 -8.718
96 C4 222 -8.718
96 C4 223 -8.230
96 C4 224 -6.765
96 C4 225 -6.276
96 C4 226 -6.276
96 C4 227 -6.765
96 C4 228 -7.253
96 C4 229 -7.741
96 C4 230 -6.765
96 C4 231 -5.788
96 C4 232 -3.835
96 C4 233 -1.882
96 C4 234 -0.417
96 C4 235 1.048
96 C4 236 1.048
96 C4 237 0.071
96 C4 238 -0.905
96 C4 239 -2.370
96 C4 240 -2.858
96 C4 241 -3.347
96 C4 242 -3.347
96 C4 243 -2.858
96 C4 244 -2.858
96 C4 245 -2.370
96 C4 246 -1.882
96 C4 247 -1.882
96 C4 248 -2.370
96 C4 249 -4.323
96 C4 250 -6.276
96 C4 251 -8.230
96 C4 252 -9.694
96 C4 253 -10.183
96 C4 254 -9.694
96 C4 255 -7.741
# CP5 chan 18
96 CP5 0 -1.353
96 CP5 1 -1.841
96 CP5 2 -3.306
96 CP5 3 -4.771
96 CP5 4 -5.747
96 CP5 5 -5.747
96 CP5 6 -5.747
96 CP5 7 -5.747
96 CP5 8 -5.747
96 CP5 9 -6.236
96 CP5 10 -6.236
96 CP5 11 -6.724
96 CP5 12 -6.236
96 CP5 13 -6.236
96 CP5 14 -5.747
96 CP5 15 -5.747
96 CP5 16 -5.259
96 CP5 17 -5.259
96 CP5 18 -4.771
96 CP5 19 -4.283
96 CP5 20 -3.794
96 CP5 21 -3.794
96 CP5 22 -3.794
96 CP5 23 -4.283
96 CP5 24 -4.771
96 CP5 25 -6.236
96 CP5 26 -7.212
96 CP5 27 -7.212
96 CP5 28 -6.724
96 CP5 29 -6.724
96 CP5 30 -7.212
96 CP5 31 -8.189
96 CP5 32 -8.677
96 CP5 33 -7.701
96 CP5 34 -6.236
96 CP5 35 -4.771
96 CP5 36 -3.794
96 CP5 37 -3.794
96 CP5 38 -4.771
96 CP5 39 -4.771
96 CP5 40 -4.283
96 CP5 41 -3.794
96 CP5 42 -3.794
96 CP5 43 -4.771
96 CP5 44 -5.259
96 CP5 45 -5.747
96 CP5 46 -5.747
96 CP5 47 -4.771
96 CP5 48 -4.771
96 CP5 49 -5.747
96 CP5 50 -8.189
96 CP5 51 -10.630
96 CP5 52 -12.095
96 CP5 53 -13.560
96 CP5 54 -14.048
96 CP5 55 -14.048
96 CP5 56 -13.560
96 CP5 57 -12.583
96 CP5 58 -11.607
96 CP5 59 -10.142
96 CP5 60 -9.165
96 CP5 61 -9.165
96 CP5 62 -9.654
96 CP5 63 -10.630
96 CP5 64 -11.119
96 CP5 65 -10.630
96 CP5 66 -10.142
96 CP5 67 -10.142
96 CP5 68 -10.142
96 CP5 69 -10.630
96 CP5 70 -11.607
96 CP5 71 -12.583
96 CP5 72 -14.048
96 CP5 73 -15.513
96 CP5 74 -16.001
96 CP5 75 -16.001
96 CP5 76 -14.537
96 CP5 77 -13.072
96 CP5 78 -11.119
96 CP5 79 -10.630
96 CP5 80 -10.142
96 CP5 81 -10.142
96 CP5 82 -9.654
96 CP5 83 -8.677
96 CP5 84 -7.212
96 CP5 85 -6.236
96 CP5 86 -5.747
96 CP5 87 -5.259
96 CP5 88 -4.771
96 CP5 89 -3.794
96 CP5 90 -2.818
96 CP5 91 -2.330
96 CP5 92 -2.818
96 CP5 93 -3.794
96 CP5 94 -5.747
96 CP5 95 -7.212
96 CP5 96 -8.189
96 CP5 97 -8.677
96 CP5 98 -8.677
96 CP5 99 -8.677
96 CP5 100 -8.677
96 CP5 101 -8.677
96 CP5 102 -8.677
96 CP5 103 -8.677
96 CP5 104 -8.189
96 CP5 105 -8.189
96 CP5 106 -7.701
96 CP5 107 -7.701
96 CP5 108 -8.189
96 CP5 109 -8.189
96 CP5 110 -7.701
96 CP5 111 -7.212
96 CP5 112 -6.724
96 CP5 113 -6.236
96 CP5 114 -6.236
96 CP5 115 -6.724
96 CP5 116 -7.212
96 CP5 117 -7.212
96 CP5 118 -7.212
96 CP5 119 -6.724
96 CP5 120 -6.236
96 CP5 121 -6.724
96 CP5 122 -7.212
96 CP5 123 -7.212
96 CP5 124 -6.724
96 CP5 125 -6.236
96 CP5 126 -5.747
96 CP5 127 -6.724
96 CP5 128 -7.701
96 CP5 129 -8.189
96 CP5 130 -8.189
96 CP5 131 -7.212
96 CP5 132 -5.747
96 CP5 133 -4.771
96 CP5 134 -4.283
96 CP5 135 -4.283
96 CP5 136 -3.794
96 CP5 137 -3.794
96 CP5 138 -3.794
96 CP5 139 -4.771
96 CP5 140 -5.747
96 CP5 141 -7.212
96 CP5 142 -7.701
96 CP5 143 -7.701
96 CP5 144 -6.724
96 CP5 145 -6.236
96 CP5 146 -6.236
96 CP5 147 -6.724
96 CP5 148 -6.724
96 CP5 149 -6.236
96 CP5 150 -5.747
96 CP5 151 -5.747
96 CP5 152 -6.236
96 CP5 153 -7.212
96 CP5 154 -7.701
96 CP5 155 -7.212
96 CP5 156 -5.747
96 CP5 157 -3.794
96 CP5 158 -2.818
96 CP5 159 -2.818
96 CP5 160 -2.818
96 CP5 161 -2.818
96 CP5 162 -2.818
96 CP5 163 -3.306
96 CP5 164 -5.259
96 CP5 165 -8.189
96 CP5 166 -10.630
96 CP5 167 -11.607
96 CP5 168 -10.630
96 CP5 169 -9.165
96 CP5 170 -7.212
96 CP5 171 -6.236
96 CP5 172 -7.212
96 CP5 173 -8.677
96 CP5 174 -9.654
96 CP5 175 -10.142
96 CP5 176 -9.654
96 CP5 177 -8.677
96 CP5 178 -7.701
96 CP5 179 -5.747
96 CP5 180 -2.818
96 CP5 181 1.088
96 CP5 182 4.506
96 CP5 183 6.460
96 CP5 184 6.460
96 CP5 185 4.506
96 CP5 186 2.553
96 CP5 187 0.600
96 CP5 188 -0.865
96 CP5 189 -2.330
96 CP5 190 -3.794
96 CP5 191 -5.259
96 CP5 192 -6.236
96 CP5 193 -7.212
96 CP5 194 -7.701
96 CP5 195 -7.701
96 CP5 196 -8.189
96 CP5 197 -9.165
96 CP5 198 -10.142
96 CP5 199 -10.630
96 CP5 200 -11.119
96 CP5 201 -10.630
96 CP5 202 -10.630
96 CP5 203 -10.142
96 CP5 204 -8.677
96 CP5 205 -7.212
96 CP5 206 -4.283
96 CP5 207 -2.818
96 CP5 208 -2.330
96 CP5 209 -3.306
96 CP5 210 -4.771
96 CP5 211 -6.724
96 CP5 212 -7.701
96 CP5 213 -7.701
96 CP5 214 -7.701
96 CP5 215 -8.189
96 CP5 216 -9.165
96 CP5 217 -10.142
96 CP5 218 -11.119
96 CP5 219 -11.607
96 CP5 220 -12.583
96 CP5 221 -13.560
96 CP5 222 -15.513
96 CP5 223 -16.978
96 CP5 224 -17.466
96 CP5 225 -17.466
96 CP5 226 -16.490
96 CP5 227 -15.513
96 CP5 228 -14.048
96 CP5 229 -13.072
96 CP5 230 -12.095
96 CP5 231 -10.630
96 CP5 232 -8.189
96 CP5 233 -4.771
96 CP5 234 -1.353
96 CP5 235 1.088
96 CP5 236 2.553
96 CP5 237 2.065
96 CP5 238 1.088
96 CP5 239 -0.376
96 CP5 240 -1.841
96 CP5 241 -3.794
96 CP5 242 -5.747
96 CP5 243 -8.189
96 CP5 244 -10.142
96 CP5 245 -12.095
96 CP5 246 -14.048
96 CP5 247 -15.513
96 CP5 248 -16.978
96 CP5 249 -17.466
96 CP5 250 -17.466
96 CP5 251 -17.466
96 CP5 252 -16.490
96 CP5 253 -15.513
96 CP5 254 -14.048
96 CP5 255 -11.607
# CP6 chan 19
96 CP6 0 -3.438
96 CP6 1 -4.415
96 CP6 2 -5.391
96 CP6 3 -5.880
96 CP6 4 -5.880
96 CP6 5 -4.903
96 CP6 6 -3.927
96 CP6 7 -3.438
96 CP6 8 -3.438
96 CP6 9 -4.415
96 CP6 10 -5.880
96 CP6 11 -6.856
96 CP6 12 -6.856
96 CP6 13 -5.880
96 CP6 14 -5.391
96 CP6 15 -4.415
96 CP6 16 -3.927
96 CP6 17 -3.438
96 CP6 18 -2.950
96 CP6 19 -2.462
96 CP6 20 -1.973
96 CP6 21 -1.485
96 CP6 22 -1.485
96 CP6 23 -2.462
96 CP6 24 -3.438
96 CP6 25 -4.903
96 CP6 26 -5.391
96 CP6 27 -4.415
96 CP6 28 -3.438
96 CP6 29 -2.462
96 CP6 30 -1.973
96 CP6 31 -2.462
96 CP6 32 -3.438
96 CP6 33 -3.927
96 CP6 34 -4.903
96 CP6 35 -5.391
96 CP6 36 -6.368
96 CP6 37 -7.833
96 CP6 38 -8.809
96 CP6 39 -9.786
96 CP6 40 -9.786
96 CP6 41 -10.274
96 CP6 42 -10.763
96 CP6 43 -11.251
96 CP6 44 -11.251
96 CP6 45 -10.274
96 CP6 46 -9.786
96 CP6 47 -9.298
96 CP6 48 -9.786
96 CP6 49 -10.274
96 CP6 50 -10.274
96 CP6 51 -9.298
96 CP6 52 -7.833
96 CP6 53 -6.856
96 CP6 54 -6.368
96 CP6 55 -7.345
96 CP6 56 -8.321
96 CP6 57 -8.809
96 CP6 58 -8.809
96 CP6 59 -8.809
96 CP6 60 -9.298
96 CP6 61 -10.763
96 CP6 62 -11.739
96 CP6 63 -12.227
96 CP6 64 -11.251
96 CP6 65 -9.786
96 CP6 66 -9.786
96 CP6 67 -10.763
96 CP6 68 -13.204
96 CP6 69 -15.645
96 CP6 70 -16.622
96 CP6 71 -16.622
96 CP6 72 -16.134
96 CP6 73 -15.157
96 CP6 74 -14.669
96 CP6 75 -13.692
96 CP6 76 -12.716
96 CP6 77 -11.739
96 CP6 78 -11.251
96 CP6 79 -11.251
96 CP6 80 -11.739
96 CP6 81 -12.227
96 CP6 82 -12.227
96 CP6 83 -12.227
96 CP6 84 -11.739
96 CP6 85 -12.227
96 CP6 86 -12.716
96 CP6 87 -13.204
96 CP6 88 -13.692
96 CP6 89 -13.692
96 CP6 90 -13.692
96 CP6 91 -13.692
96 CP6 92 -13.204
96 CP6 93 -11.739
96 CP6 94 -11.251
96 CP6 95 -10.763
96 CP6 96 -11.739
96 CP6 97 -14.181
96 CP6 98 -16.134
96 CP6 99 -16.622
96 CP6 100 -16.134
96 CP6 101 -14.669
96 CP6 102 -13.692
96 CP6 103 -13.204
96 CP6 104 -14.181
96 CP6 105 -15.157
96 CP6 106 -15.157
96 CP6 107 -14.669
96 CP6 108 -13.692
96 CP6 109 -12.716
96 CP6 110 -12.227
96 CP6 111 -12.227
96 CP6 112 -12.716
96 CP6 113 -13.204
96 CP6 114 -13.692
96 CP6 115 -13.692
96 CP6 116 -13.204
96 CP6 117 -12.716
96 CP6 118 -12.227
96 CP6 119 -12.227
96 CP6 120 -13.692
96 CP6 121 -15.157
96 CP6 122 -15.645
96 CP6 123 -15.645
96 CP6 124 -14.181
96 CP6 125 -12.227
96 CP6 126 -11.251
96 CP6 127 -11.251
96 CP6 128 -12.227
96 CP6 129 -13.692
96 CP6 130 -15.157
96 CP6 131 -16.622
96 CP6 132 -17.110
96 CP6 133 -16.622
96 CP6 134 -15.157
96 CP6 135 -13.204
96 CP6 136 -11.739
96 CP6 137 -11.251
96 CP6 138 -12.716
96 CP6 139 -14.669
96 CP6 140 -17.110
96 CP6 141 -18.575
96 CP6 142 -19.063
96 CP6 143 -19.063
96 CP6 144 -19.063
96 CP6 145 -19.063
96 CP6 146 -18.575
96 CP6 147 -17.598
96 CP6 148 -15.645
96 CP6 149 -13.204
96 CP6 150 -11.739
96 CP6 151 -11.251
96 CP6 152 -11.739
96 CP6 153 -13.204
96 CP6 154 -14.181
96 CP6 155 -15.645
96 CP6 156 -15.645
96 CP6 157 -14.669
96 CP6 158 -13.204
96 CP6 159 -10.763
96 CP6 160 -9.298
96 CP6 161 -8.321
96 CP6 162 -7.833
96 CP6 163 -8.809
96 CP6 164 -9.786
96 CP6 165 -11.251
96 CP6 166 -12.227
96 CP6 167 -12.716
96 CP6 168 -12.227
96 CP6 169 -11.251
96 CP6 170 -10.763
96 CP6 171 -10.274
96 CP6 172 -10.274
96 CP6 173 -11.251
96 CP6 174 -11.739
96 CP6 175 -11.739
96 CP6 176 -11.251
96 CP6 177 -11.251
96 CP6 178 -11.251
96 CP6 179 -10.763
96 CP6 180 -9.786
96 CP6 181 -8.321
96 CP6 182 -6.368
96 CP6 183 -4.415
96 CP6 184 -3.927
96 CP6 185 -3.927
96 CP6 186 -4.903
96 CP6 187 -5.880
96 CP6 188 -5.880
96 CP6 189 -6.368
96 CP6 190 -6.368
96 CP6 191 -5.880
96 CP6 192 -5.391
96 CP6 193 -4.415
96 CP6 194 -4.415
96 CP6 195 -5.391
96 CP6 196 -7.345
96 CP6 197 -9.298
96 CP6 198 -11.251
96 CP6 199 -12.716
96 CP6 200 -13.204
96 CP6 201 -13.204
96 CP6 202 -12.716
96 CP6 203 -12.227
96 CP6 204 -10.274
96 CP6 205 -8.321
96 CP6 206 -6.368
96 CP6 207 -5.880
96 CP6 208 -6.368
96 CP6 209 -7.833
96 CP6 210 -9.298
96 CP6 211 -9.298
96 CP6 212 -8.321
96 CP6 213 -6.856
96 CP6 214 -5.391
96 CP6 215 -5.391
96 CP6 216 -5.880
96 CP6 217 -7.345
96 CP6 218 -9.298
96 CP6 219 -11.739
96 CP6 220 -14.181
96 CP6 221 -16.622
96 CP6 222 -17.598
96 CP6 223 -17.598
96 CP6 224 -16.622
96 CP6 225 -15.157
96 CP6 226 -14.181
96 CP6 227 -13.692
96 CP6 228 -13.204
96 CP6 229 -12.227
96 CP6 230 -11.251
96 CP6 231 -9.786
96 CP6 232 -8.321
96 CP6 233 -6.368
96 CP6 234 -3.927
96 CP6 235 -1.485
96 CP6 236 0.956
96 CP6 237 1.933
96 CP6 238 2.421
96 CP6 239 1.444
96 CP6 240 -0.509
96 CP6 241 -1.973
96 CP6 242 -3.927
96 CP6 243 -5.391
96 CP6 244 -6.856
96 CP6 245 -8.321
96 CP6 246 -9.786
96 CP6 247 -10.763
96 CP6 248 -11.739
96 CP6 249 -13.204
96 CP6 250 -14.669
96 CP6 251 -17.110
96 CP6 252 -18.575
96 CP6 253 -19.063
96 CP6 254 -17.598
96 CP6 255 -13.692
# CP1 chan 20
96 CP1 0 -2.279
96 CP1 1 -3.255
96 CP1 2 -4.232
96 CP1 3 -5.208
96 CP1 4 -6.185
96 CP1 5 -6.185
96 CP1 6 -6.185
96 CP1 7 -5.208
96 CP1 8 -3.743
96 CP1 9 -2.767
96 CP1 10 -1.790
96 CP1 11 -1.302
96 CP1 12 -1.302
96 CP1 13 -0.814
96 CP1 14 -0.814
96 CP1 15 -0.814
96 CP1 16 -0.814
96 CP1 17 -0.814
96 CP1 18 -0.814
96 CP1 19 -0.814
96 CP1 20 -0.814
96 CP1 21 -0.814
96 CP1 22 -1.302
96 CP1 23 -2.279
96 CP1 24 -3.743
96 CP1 25 -5.208
96 CP1 26 -6.185
96 CP1 27 -6.673
96 CP1 28 -7.161
96 CP1 29 -7.161
96 CP1 30 -7.650
96 CP1 31 -7.161
96 CP1 32 -6.673
96 CP1 33 -4.720
96 CP1 34 -2.767
96 CP1 35 -1.302
96 CP1 36 0.163
96 CP1 37 0.651
96 CP1 38 1.139
96 CP1 39 1.628
96 CP1 40 2.116
96 CP1 41 2.604
96 CP1 42 2.116
96 CP1 43 1.139
96 CP1 44 0.651
96 CP1 45 -0.326
96 CP1 46 -0.814
96 CP1 47 -1.302
96 CP1 48 -2.279
96 CP1 49 -3.255
96 CP1 50 -5.208
96 CP1 51 -6.673
96 CP1 52 -7.161
96 CP1 53 -7.650
96 CP1 54 -8.138
96 CP1 55 -7.650
96 CP1 56 -7.161
96 CP1 57 -6.673
96 CP1 58 -5.208
96 CP1 59 -4.232
96 CP1 60 -3.255
96 CP1 61 -2.767
96 CP1 62 -3.743
96 CP1 63 -4.720
96 CP1 64 -5.208
96 CP1 65 -5.208
96 CP1 66 -5.208
96 CP1 67 -4.720
96 CP1 68 -4.720
96 CP1 69 -5.208
96 CP1 70 -6.185
96 CP1 71 -6.673
96 CP1 72 -6.673
96 CP1 73 -6.673
96 CP1 74 -6.673
96 CP1 75 -6.185
96 CP1 76 -6.185
96 CP1 77 -6.185
96 CP1 78 -5.208
96 CP1 79 -4.720
96 CP1 80 -4.232
96 CP1 81 -4.232
96 CP1 82 -4.720
96 CP1 83 -4.720
96 CP1 84 -4.720
96 CP1 85 -4.720
96 CP1 86 -4.232
96 CP1 87 -3.743
96 CP1 88 -3.743
96 CP1 89 -3.743
96 CP1 90 -3.743
96 CP1 91 -3.255
96 CP1 92 -3.255
96 CP1 93 -2.767
96 CP1 94 -2.767
96 CP1 95 -2.767
96 CP1 96 -2.767
96 CP1 97 -3.255
96 CP1 98 -3.255
96 CP1 99 -3.255
96 CP1 100 -3.255
96 CP1 101 -3.255
96 CP1 102 -2.767
96 CP1 103 -2.767
96 CP1 104 -2.767
96 CP1 105 -3.255
96 CP1 106 -3.255
96 CP1 107 -3.743
96 CP1 108 -3.743
96 CP1 109 -3.743
96 CP1 110 -3.743
96 CP1 111 -3.255
96 CP1 112 -3.255
96 CP1 113 -3.255
96 CP1 114 -3.743
96 CP1 115 -4.232
96 CP1 116 -4.232
96 CP1 117 -4.232
96 CP1 118 -4.232
96 CP1 119 -4.232
96 CP1 120 -3.743
96 CP1 121 -3.743
96 CP1 122 -3.743
96 CP1 123 -3.743
96 CP1 124 -3.255
96 CP1 125 -3.255
96 CP1 126 -3.255
96 CP1 127 -3.743
96 CP1 128 -4.232
96 CP1 129 -4.720
96 CP1 130 -4.720
96 CP1 131 -4.720
96 CP1 132 -3.743
96 CP1 133 -2.767
96 CP1 134 -2.279
96 CP1 135 -1.790
96 CP1 136 -1.790
96 CP1 137 -1.790
96 CP1 138 -2.279
96 CP1 139 -3.255
96 CP1 140 -4.232
96 CP1 141 -4.720
96 CP1 142 -5.208
96 CP1 143 -4.720
96 CP1 144 -4.720
96 CP1 145 -4.232
96 CP1 146 -3.743
96 CP1 147 -3.255
96 CP1 148 -2.767
96 CP1 149 -2.279
96 CP1 150 -1.790
96 CP1 151 -1.790
96 CP1 152 -2.279
96 CP1 153 -2.279
96 CP1 154 -2.279
96 CP1 155 -2.279
96 CP1 156 -2.279
96 CP1 157 -2.279
96 CP1 158 -2.767
96 CP1 159 -2.767
96 CP1 160 -2.767
96 CP1 161 -2.279
96 CP1 162 -2.279
96 CP1 163 -2.767
96 CP1 164 -3.743
96 CP1 165 -4.720
96 CP1 166 -5.697
96 CP1 167 -5.697
96 CP1 168 -4.232
96 CP1 169 -2.767
96 CP1 170 -1.790
96 CP1 171 -1.302
96 CP1 172 -1.302
96 CP1 173 -2.279
96 CP1 174 -3.255
96 CP1 175 -3.743
96 CP1 176 -3.743
96 CP1 177 -3.255
96 CP1 178 -2.767
96 CP1 179 -2.279
96 CP1 180 -1.302
96 CP1 181 0.163
96 CP1 182 1.139
96 CP1 183 1.628
96 CP1 184 1.628
96 CP1 185 1.139
96 CP1 186 0.163
96 CP1 187 -1.302
96 CP1 188 -1.790
96 CP1 189 -2.767
96 CP1 190 -3.255
96 CP1 191 -3.255
96 CP1 192 -3.255
96 CP1 193 -2.767
96 CP1 194 -2.279
96 CP1 195 -1.790
96 CP1 196 -1.790
96 CP1 197 -2.767
96 CP1 198 -3.743
96 CP1 199 -4.720
96 CP1 200 -5.697
96 CP1 201 -6.185
96 CP1 202 -5.697
96 CP1 203 -5.208
96 CP1 204 -4.232
96 CP1 205 -3.255
96 CP1 206 -2.767
96 CP1 207 -2.767
96 CP1 208 -3.255
96 CP1 209 -4.232
96 CP1 210 -5.208
96 CP1 211 -5.697
96 CP1 212 -6.185
96 CP1 213 -5.697
96 CP1 214 -5.208
96 CP1 215 -5.208
96 CP1 216 -4.720
96 CP1 217 -4.720
96 CP1 218 -4.720
96 CP1 219 -4.720
96 CP1 220 -4.720
96 CP1 221 -4.720
96 CP1 222 -5.208
96 CP1 223 -5.208
96 CP1 224 -5.208
96 CP1 225 -5.208
96 CP1 226 -5.697
96 CP1 227 -5.697
96 CP1 228 -5.697
96 CP1 229 -6.185
96 CP1 230 -6.185
96 CP1 231 -6.185
96 CP1 232 -6.185
96 CP1 233 -5.208
96 CP1 234 -4.232
96 CP1 235 -3.255
96 CP1 236 -2.767
96 CP1 237 -2.767
96 CP1 238 -2.767
96 CP1 239 -2.767
96 CP1 240 -3.255
96 CP1 241 -4.232
96 CP1 242 -4.720
96 CP1 243 -5.697
96 CP1 244 -6.185
96 CP1 245 -6.185
96 CP1 246 -6.185
96 CP1 247 -6.185
96 CP1 248 -5.697
96 CP1 249 -6.185
96 CP1 250 -6.673
96 CP1 251 -6.673
96 CP1 252 -6.185
96 CP1 253 -5.208
96 CP1 254 -4.720
96 CP1 255 -4.720
# CP2 chan 21
96 CP2 0 -1.272
96 CP2 1 -1.760
96 CP2 2 -2.248
96 CP2 3 -2.248
96 CP2 4 -2.248
96 CP2 5 -2.248
96 CP2 6 -2.248
96 CP2 7 -1.760
96 CP2 8 -2.248
96 CP2 9 -2.736
96 CP2 10 -3.225
96 CP2 11 -3.713
96 CP2 12 -4.201
96 CP2 13 -3.225
96 CP2 14 -3.225
96 CP2 15 -2.248
96 CP2 16 -2.248
96 CP2 17 -1.760
96 CP2 18 -1.760
96 CP2 19 -1.272
96 CP2 20 -0.783
96 CP2 21 -0.783
96 CP2 22 -0.783
96 CP2 23 -1.272
96 CP2 24 -2.248
96 CP2 25 -3.225
96 CP2 26 -4.201
96 CP2 27 -4.201
96 CP2 28 -4.201
96 CP2 29 -3.713
96 CP2 30 -3.225
96 CP2 31 -2.736
96 CP2 32 -2.248
96 CP2 33 -1.760
96 CP2 34 -1.760
96 CP2 35 -1.760
96 CP2 36 -2.736
96 CP2 37 -2.736
96 CP2 38 -2.736
96 CP2 39 -2.736
96 CP2 40 -2.248
96 CP2 41 -2.248
96 CP2 42 -2.248
96 CP2 43 -2.248
96 CP2 44 -2.736
96 CP2 45 -2.248
96 CP2 46 -2.248
96 CP2 47 -1.760
96 CP2 48 -2.248
96 CP2 49 -2.248
96 CP2 50 -2.736
96 CP2 51 -2.248
96 CP2 52 -2.248
96 CP2 53 -1.760
96 CP2 54 -1.272
96 CP2 55 -1.760
96 CP2 56 -2.248
96 CP2 57 -2.736
96 CP2 58 -3.225
96 CP2 59 -2.736
96 CP2 60 -2.736
96 CP2 61 -2.736
96 CP2 62 -3.225
96 CP2 63 -3.713
96 CP2 64 -3.713
96 CP2 65 -3.713
96 CP2 66 -3.225
96 CP2 67 -3.713
96 CP2 68 -4.201
96 CP2 69 -4.690
96 CP2 70 -5.666
96 CP2 71 -6.154
96 CP2 72 -5.666
96 CP2 73 -5.178
96 CP2 74 -4.690
96 CP2 75 -4.690
96 CP2 76 -4.690
96 CP2 77 -5.178
96 CP2 78 -5.178
96 CP2 79 -4.690
96 CP2 80 -4.690
96 CP2 81 -4.690
96 CP2 82 -4.690
96 CP2 83 -4.690
96 CP2 84 -4.690
96 CP2 85 -4.690
96 CP2 86 -4.201
96 CP2 87 -4.201
96 CP2 88 -4.201
96 CP2 89 -4.690
96 CP2 90 -4.690
96 CP2 91 -4.690
96 CP2 92 -4.201
96 CP2 93 -3.225
96 CP2 94 -2.736
96 CP2 95 -2.736
96 CP2 96 -3.225
96 CP2 97 -3.713
96 CP2 98 -4.690
96 CP2 99 -4.690
96 CP2 100 -4.201
96 CP2 101 -3.225
96 CP2 102 -2.736
96 CP2 103 -3.225
96 CP2 104 -3.713
96 CP2 105 -4.690
96 CP2 106 -4.690
96 CP2 107 -4.201
96 CP2 108 -3.713
96 CP2 109 -3.713
96 CP2 110 -3.713
96 CP2 111 -4.201
96 CP2 112 -4.690
96 CP2 113 -4.690
96 CP2 114 -5.178
96 CP2 115 -5.178
96 CP2 116 -5.178
96 CP2 117 -4.690
96 CP2 118 -4.201
96 CP2 119 -3.713
96 CP2 120 -3.713
96 CP2 121 -4.201
96 CP2 122 -4.690
96 CP2 123 -5.178
96 CP2 124 -4.690
96 CP2 125 -4.201
96 CP2 126 -3.225
96 CP2 127 -3.225
96 CP2 128 -2.736
96 CP2 129 -3.225
96 CP2 130 -3.713
96 CP2 131 -4.201
96 CP2 132 -4.690
96 CP2 133 -4.690
96 CP2 134 -4.201
96 CP2 135 -3.225
96 CP2 136 -2.736
96 CP2 137 -2.248
96 CP2 138 -3.225
96 CP2 139 -4.201
96 CP2 140 -5.178
96 CP2 141 -6.154
96 CP2 142 -6.154
96 CP2 143 -6.154
96 CP2 144 -6.154
96 CP2 145 -6.154
96 CP2 146 -6.154
96 CP2 147 -6.154
96 CP2 148 -5.178
96 CP2 149 -4.690
96 CP2 150 -3.713
96 CP2 151 -3.225
96 CP2 152 -3.225
96 CP2 153 -3.713
96 CP2 154 -4.690
96 CP2 155 -5.178
96 CP2 156 -5.666
96 CP2 157 -5.178
96 CP2 158 -4.690
96 CP2 159 -3.713
96 CP2 160 -2.736
96 CP2 161 -2.248
96 CP2 162 -2.248
96 CP2 163 -3.225
96 CP2 164 -4.201
96 CP2 165 -5.666
96 CP2 166 -7.131
96 CP2 167 -7.131
96 CP2 168 -6.643
96 CP2 169 -6.154
96 CP2 170 -5.178
96 CP2 171 -4.690
96 CP2 172 -4.690
96 CP2 173 -5.178
96 CP2 174 -5.666
96 CP2 175 -5.666
96 CP2 176 -5.666
96 CP2 177 -5.666
96 CP2 178 -5.666
96 CP2 179 -5.178
96 CP2 180 -4.201
96 CP2 181 -3.225
96 CP2 182 -2.248
96 CP2 183 -1.272
96 CP2 184 -1.760
96 CP2 185 -2.248
96 CP2 186 -3.225
96 CP2 187 -4.690
96 CP2 188 -5.178
96 CP2 189 -5.666
96 CP2 190 -4.690
96 CP2 191 -3.713
96 CP2 192 -2.248
96 CP2 193 -0.783
96 CP2 194 -0.295
96 CP2 195 -0.783
96 CP2 196 -2.248
96 CP2 197 -4.201
96 CP2 198 -6.154
96 CP2 199 -7.131
96 CP2 200 -7.619
96 CP2 201 -7.131
96 CP2 202 -6.643
96 CP2 203 -6.154
96 CP2 204 -4.690
96 CP2 205 -4.201
96 CP2 206 -3.225
96 CP2 207 -3.225
96 CP2 208 -3.713
96 CP2 209 -4.690
96 CP2 210 -5.178
96 CP2 211 -6.154
96 CP2 212 -5.666
96 CP2 213 -5.178
96 CP2 214 -4.201
96 CP2 215 -3.225
96 CP2 216 -2.248
96 CP2 217 -2.736
96 CP2 218 -3.225
96 CP2 219 -4.201
96 CP2 220 -5.666
96 CP2 221 -6.643
96 CP2 222 -7.619
96 CP2 223 -7.619
96 CP2 224 -7.619
96 CP2 225 -7.619
96 CP2 226 -7.619
96 CP2 227 -7.619
96 CP2 228 -7.619
96 CP2 229 -7.131
96 CP2 230 -7.131
96 CP2 231 -6.643
96 CP2 232 -6.154
96 CP2 233 -5.178
96 CP2 234 -3.225
96 CP2 235 -1.760
96 CP2 236 -0.783
96 CP2 237 -0.295
96 CP2 238 -0.783
96 CP2 239 -1.760
96 CP2 240 -3.225
96 CP2 241 -4.201
96 CP2 242 -4.690
96 CP2 243 -5.178
96 CP2 244 -5.178
96 CP2 245 -4.690
96 CP2 246 -4.201
96 CP2 247 -3.713
96 CP2 248 -3.713
96 CP2 249 -4.690
96 CP2 250 -6.154
96 CP2 251 -7.619
96 CP2 252 -9.084
96 CP2 253 -9.572
96 CP2 254 -9.572
96 CP2 255 -8.108
# P3 chan 22
96 P3 0 -3.815
96 P3 1 -4.791
96 P3 2 -5.768
96 P3 3 -6.744
96 P3 4 -6.744
96 P3 5 -5.768
96 P3 6 -4.791
96 P3 7 -3.815
96 P3 8 -2.838
96 P3 9 -2.838
96 P3 10 -2.838
96 P3 11 -3.326
96 P3 12 -2.838
96 P3 13 -2.350
96 P3 14 -1.862
96 P3 15 -1.862
96 P3 16 -1.373
96 P3 17 -1.373
96 P3 18 -0.885
96 P3 19 -0.885
96 P3 20 -0.397
96 P3 21 -0.397
96 P3 22 -0.885
96 P3 23 -2.350
96 P3 24 -3.815
96 P3 25 -5.768
96 P3 26 -7.233
96 P3 27 -8.209
96 P3 28 -8.209
96 P3 29 -8.209
96 P3 30 -8.698
96 P3 31 -8.698
96 P3 32 -8.209
96 P3 33 -6.744
96 P3 34 -4.303
96 P3 35 -2.350
96 P3 36 -1.373
96 P3 37 -0.885
96 P3 38 -0.885
96 P3 39 -0.397
96 P3 40 0.580
96 P3 41 1.556
96 P3 42 1.556
96 P3 43 0.580
96 P3 44 -0.397
96 P3 45 -1.373
96 P3 46 -1.862
96 P3 47 -1.373
96 P3 48 -2.350
96 P3 49 -3.815
96 P3 50 -6.256
96 P3 51 -8.698
96 P3 52 -10.651
96 P3 53 -11.627
96 P3 54 -12.115
96 P3 55 -11.627
96 P3 56 -11.139
96 P3 57 -10.651
96 P3 58 -9.186
96 P3 59 -7.721
96 P3 60 -6.256
96 P3 61 -5.768
96 P3 62 -6.744
96 P3 63 -7.721
96 P3 64 -8.698
96 P3 65 -8.209
96 P3 66 -7.233
96 P3 67 -6.256
96 P3 68 -6.256
96 P3 69 -7.233
96 P3 70 -9.186
96 P3 71 -11.139
96 P3 72 -12.604
96 P3 73 -13.092
96 P3 74 -13.092
96 P3 75 -12.604
96 P3 76 -11.627
96 P3 77 -10.162
96 P3 78 -9.186
96 P3 79 -8.209
96 P3 80 -8.209
96 P3 81 -8.209
96 P3 82 -8.209
96 P3 83 -7.721
96 P3 84 -6.744
96 P3 85 -5.280
96 P3 86 -4.791
96 P3 87 -4.303
96 P3 88 -3.815
96 P3 89 -3.815
96 P3 90 -3.326
96 P3 91 -2.838
96 P3 92 -2.838
96 P3 93 -3.326
96 P3 94 -3.815
96 P3 95 -4.791
96 P3 96 -6.256
96 P3 97 -7.721
96 P3 98 -8.698
96 P3 99 -9.186
96 P3 100 -8.698
96 P3 101 -8.209
96 P3 102 -7.233
96 P3 103 -6.744
96 P3 104 -6.256
96 P3 105 -6.744
96 P3 106 -7.233
96 P3 107 -7.721
96 P3 108 -8.209
96 P3 109 -8.209
96 P3 110 -8.209
96 P3 111 -7.721
96 P3 112 -7.233
96 P3 113 -7.233
96 P3 114 -7.721
96 P3 115 -8.209
96 P3 116 -8.698
96 P3 117 -8.698
96 P3 118 -8.698
96 P3 119 -8.209
96 P3 120 -8.209
96 P3 121 -8.698
96 P3 122 -8.698
96 P3 123 -8.698
96 P3 124 -8.209
96 P3 125 -7.721
96 P3 126 -7.233
96 P3 127 -7.233
96 P3 128 -7.721
96 P3 129 -7.233
96 P3 130 -7.233
96 P3 131 -6.744
96 P3 132 -6.744
96 P3 133 -5.768
96 P3 134 -4.791
96 P3 135 -4.303
96 P3 136 -3.326
96 P3 137 -4.303
96 P3 138 -5.768
96 P3 139 -7.721
96 P3 140 -9.674
96 P3 141 -10.162
96 P3 142 -10.162
96 P3 143 -9.674
96 P3 144 -8.698
96 P3 145 -8.698
96 P3 146 -8.209
96 P3 147 -7.721
96 P3 148 -6.256
96 P3 149 -4.791
96 P3 150 -3.815
96 P3 151 -3.326
96 P3 152 -3.815
96 P3 153 -4.791
96 P3 154 -5.280
96 P3 155 -5.768
96 P3 156 -5.280
96 P3 157 -4.791
96 P3 158 -4.303
96 P3 159 -3.326
96 P3 160 -2.838
96 P3 161 -2.838
96 P3 162 -2.838
96 P3 163 -3.815
96 P3 164 -5.768
96 P3 165 -8.698
96 P3 166 -10.651
96 P3 167 -11.139
96 P3 168 -10.162
96 P3 169 -8.698
96 P3 170 -7.233
96 P3 171 -6.744
96 P3 172 -7.721
96 P3 173 -9.186
96 P3 174 -10.162
96 P3 175 -10.162
96 P3 176 -10.162
96 P3 177 -9.186
96 P3 178 -8.209
96 P3 179 -6.744
96 P3 180 -4.303
96 P3 181 -1.373
96 P3 182 1.556
96 P3 183 3.021
96 P3 184 3.510
96 P3 185 2.045
96 P3 186 -0.397
96 P3 187 -2.350
96 P3 188 -4.303
96 P3 189 -5.768
96 P3 190 -6.744
96 P3 191 -7.721
96 P3 192 -8.209
96 P3 193 -8.209
96 P3 194 -7.721
96 P3 195 -7.233
96 P3 196 -7.721
96 P3 197 -8.698
96 P3 198 -10.651
96 P3 199 -12.115
96 P3 200 -12.604
96 P3 201 -13.092
96 P3 202 -12.115
96 P3 203 -10.651
96 P3 204 -8.698
96 P3 205 -6.744
96 P3 206 -4.791
96 P3 207 -3.326
96 P3 208 -3.815
96 P3 209 -5.280
96 P3 210 -7.233
96 P3 211 -9.186
96 P3 212 -10.162
96 P3 213 -9.674
96 P3 214 -9.186
96 P3 215 -9.674
96 P3 216 -10.162
96 P3 217 -11.627
96 P3 218 -12.604
96 P3 219 -14.069
96 P3 220 -14.557
96 P3 221 -15.045
96 P3 222 -15.533
96 P3 223 -16.022
96 P3 224 -16.022
96 P3 225 -15.533
96 P3 226 -14.557
96 P3 227 -13.092
96 P3 228 -12.115
96 P3 229 -11.627
96 P3 230 -11.139
96 P3 231 -10.162
96 P3 232 -8.698
96 P3 233 -5.768
96 P3 234 -2.838
96 P3 235 -0.397
96 P3 236 1.068
96 P3 237 0.580
96 P3 238 -0.885
96 P3 239 -2.838
96 P3 240 -4.791
96 P3 241 -6.256
96 P3 242 -8.209
96 P3 243 -10.651
96 P3 244 -12.604
96 P3 245 -14.069
96 P3 246 -15.045
96 P3 247 -15.533
96 P3 248 -16.022
96 P3 249 -16.998
96 P3 250 -17.975
96 P3 251 -18.463
96 P3 252 -17.975
96 P3 253 -16.998
96 P3 254 -15.533
96 P3 255 -13.580
# P4 chan 23
96 P4 0 3.621
96 P4 1 2.645
96 P4 2 0.692
96 P4 3 -1.261
96 P4 4 -2.238
96 P4 5 -1.750
96 P4 6 0.203
96 P4 7 1.668
96 P4 8 1.180
96 P4 9 -1.261
96 P4 10 -5.168
96 P4 11 -8.097
96 P4 12 -8.586
96 P4 13 -6.632
96 P4 14 -3.703
96 P4 15 -0.773
96 P4 16 0.692
96 P4 17 2.157
96 P4 18 2.645
96 P4 19 3.133
96 P4 20 3.621
96 P4 21 4.110
96 P4 22 3.621
96 P4 23 2.157
96 P4 24 -0.285
96 P4 25 -2.726
96 P4 26 -4.679
96 P4 27 -5.168
96 P4 28 -3.703
96 P4 29 -1.261
96 P4 30 0.692
96 P4 31 1.668
96 P4 32 1.668
96 P4 33 1.668
96 P4 34 1.668
96 P4 35 2.645
96 P4 36 3.133
96 P4 37 2.645
96 P4 38 2.157
96 P4 39 1.180
96 P4 40 0.692
96 P4 41 0.692
96 P4 42 1.180
96 P4 43 1.180
96 P4 44 0.692
96 P4 45 0.203
96 P4 46 -0.773
96 P4 47 -1.750
96 P4 48 -2.726
96 P4 49 -3.215
96 P4 50 -3.703
96 P4 51 -2.726
96 P4 52 -1.261
96 P4 53 0.203
96 P4 54 1.180
96 P4 55 0.692
96 P4 56 -0.285
96 P4 57 -2.238
96 P4 58 -3.703
96 P4 59 -5.168
96 P4 60 -6.144
96 P4 61 -7.121
96 P4 62 -8.097
96 P4 63 -8.586
96 P4 64 -9.074
96 P4 65 -8.586
96 P4 66 -8.586
96 P4 67 -8.586
96 P4 68 -9.074
96 P4 69 -10.050
96 P4 70 -11.027
96 P4 71 -12.004
96 P4 72 -12.980
96 P4 73 -13.468
96 P4 74 -13.468
96 P4 75 -13.468
96 P4 76 -12.980
96 P4 77 -12.492
96 P4 78 -11.515
96 P4 79 -11.027
96 P4 80 -11.027
96 P4 81 -11.027
96 P4 82 -11.515
96 P4 83 -12.492
96 P4 84 -12.980
96 P4 85 -13.468
96 P4 86 -13.468
96 P4 87 -12.004
96 P4 88 -10.050
96 P4 89 -9.074
96 P4 90 -8.097
96 P4 91 -8.097
96 P4 92 -8.586
96 P4 93 -9.074
96 P4 94 -9.074
96 P4 95 -9.074
96 P4 96 -9.562
96 P4 97 -11.515
96 P4 98 -12.980
96 P4 99 -13.468
96 P4 100 -12.492
96 P4 101 -11.027
96 P4 102 -10.050
96 P4 103 -10.050
96 P4 104 -11.027
96 P4 105 -12.004
96 P4 106 -12.004
96 P4 107 -11.515
96 P4 108 -11.515
96 P4 109 -12.492
96 P4 110 -13.957
96 P4 111 -15.422
96 P4 112 -15.910
96 P4 113 -15.910
96 P4 114 -14.933
96 P4 115 -13.957
96 P4 116 -13.468
96 P4 117 -12.492
96 P4 118 -12.004
96 P4 119 -12.492
96 P4 120 -14.933
96 P4 121 -18.840
96 P4 122 -21.769
96 P4 123 -22.746
96 P4 124 -21.281
96 P4 125 -17.863
96 P4 126 -14.933
96 P4 127 -13.957
96 P4 128 -13.957
96 P4 129 -15.422
96 P4 130 -15.910
96 P4 131 -15.910
96 P4 132 -15.422
96 P4 133 -14.933
96 P4 134 -14.445
96 P4 135 -13.468
96 P4 136 -12.980
96 P4 137 -12.980
96 P4 138 -13.957
96 P4 139 -14.933
96 P4 140 -15.910
96 P4 141 -15.910
96 P4 142 -14.445
96 P4 143 -13.957
96 P4 144 -14.445
96 P4 145 -16.398
96 P4 146 -18.351
96 P4 147 -19.328
96 P4 148 -17.863
96 P4 149 -14.933
96 P4 150 -12.004
96 P4 151 -10.539
96 P4 152 -10.539
96 P4 153 -12.492
96 P4 154 -14.445
96 P4 155 -15.910
96 P4 156 -16.398
96 P4 157 -16.398
96 P4 158 -15.910
96 P4 159 -14.933
96 P4 160 -13.957
96 P4 161 -12.980
96 P4 162 -12.492
96 P4 163 -13.468
96 P4 164 -14.933
96 P4 165 -17.863
96 P4 166 -19.816
96 P4 167 -20.304
96 P4 168 -19.328
96 P4 169 -17.375
96 P4 170 -16.398
96 P4 171 -16.398
96 P4 172 -16.886
96 P4 173 -17.863
96 P4 174 -17.863
96 P4 175 -16.398
96 P4 176 -15.422
96 P4 177 -14.445
96 P4 178 -14.933
96 P4 179 -14.933
96 P4 180 -14.445
96 P4 181 -12.980
96 P4 182 -10.539
96 P4 183 -9.562
96 P4 184 -10.539
96 P4 185 -12.492
96 P4 186 -14.445
96 P4 187 -15.910
96 P4 188 -15.910
96 P4 189 -14.933
96 P4 190 -14.933
96 P4 191 -14.933
96 P4 192 -14.933
96 P4 193 -13.957
96 P4 194 -12.492
96 P4 195 -11.515
96 P4 196 -12.004
96 P4 197 -13.468
96 P4 198 -15.422
96 P4 199 -17.375
96 P4 200 -18.351
96 P4 201 -18.351
96 P4 202 -17.863
96 P4 203 -17.375
96 P4 204 -16.398
96 P4 205 -14.933
96 P4 206 -13.468
96 P4 207 -12.492
96 P4 208 -12.980
96 P4 209 -13.468
96 P4 210 -13.468
96 P4 211 -12.980
96 P4 212 -12.004
96 P4 213 -11.027
96 P4 214 -10.050
96 P4 215 -9.074
96 P4 216 -8.586
96 P4 217 -8.586
96 P4 218 -9.074
96 P4 219 -10.539
96 P4 220 -12.492
96 P4 221 -15.422
96 P4 222 -17.863
96 P4 223 -19.816
96 P4 224 -20.793
96 P4 225 -21.769
96 P4 226 -22.746
96 P4 227 -23.722
96 P4 228 -24.699
96 P4 229 -26.164
96 P4 230 -26.164
96 P4 231 -25.187
96 P4 232 -22.257
96 P4 233 -18.840
96 P4 234 -15.422
96 P4 235 -12.492
96 P4 236 -11.515
96 P4 237 -11.027
96 P4 238 -11.027
96 P4 239 -11.515
96 P4 240 -12.492
96 P4 241 -13.957
96 P4 242 -15.422
96 P4 243 -16.886
96 P4 244 -18.351
96 P4 245 -19.328
96 P4 246 -20.304
96 P4 247 -21.281
96 P4 248 -22.746
96 P4 249 -24.211
96 P4 250 -26.652
96 P4 251 -29.093
96 P4 252 -31.535
96 P4 253 -32.023
96 P4 254 -30.558
96 P4 255 -26.652
# PZ chan 24
96 PZ 0 -4.252
96 PZ 1 -5.717
96 PZ 2 -6.694
96 PZ 3 -6.694
96 PZ 4 -6.205
96 PZ 5 -5.229
96 PZ 6 -3.764
96 PZ 7 -2.299
96 PZ 8 -1.811
96 PZ 9 -2.299
96 PZ 10 -2.787
96 PZ 11 -3.276
96 PZ 12 -2.787
96 PZ 13 -1.811
96 PZ 14 -1.322
96 PZ 15 -0.346
96 PZ 16 -0.346
96 PZ 17 -0.346
96 PZ 18 -0.834
96 PZ 19 -0.834
96 PZ 20 -0.346
96 PZ 21 -0.346
96 PZ 22 -0.834
96 PZ 23 -1.811
96 PZ 24 -4.252
96 PZ 25 -6.694
96 PZ 26 -8.647
96 PZ 27 -9.623
96 PZ 28 -9.623
96 PZ 29 -9.623
96 PZ 30 -9.135
96 PZ 31 -8.647
96 PZ 32 -7.670
96 PZ 33 -6.205
96 PZ 34 -4.252
96 PZ 35 -2.787
96 PZ 36 -1.811
96 PZ 37 -1.322
96 PZ 38 -0.346
96 PZ 39 0.142
96 PZ 40 1.607
96 PZ 41 2.096
96 PZ 42 2.096
96 PZ 43 1.119
96 PZ 44 0.631
96 PZ 45 0.142
96 PZ 46 0.142
96 PZ 47 -0.346
96 PZ 48 -0.834
96 PZ 49 -2.787
96 PZ 50 -4.740
96 PZ 51 -6.694
96 PZ 52 -7.670
96 PZ 53 -7.670
96 PZ 54 -7.670
96 PZ 55 -7.670
96 PZ 56 -7.670
96 PZ 57 -7.670
96 PZ 58 -7.182
96 PZ 59 -5.717
96 PZ 60 -4.252
96 PZ 61 -3.764
96 PZ 62 -4.740
96 PZ 63 -5.717
96 PZ 64 -6.694
96 PZ 65 -6.694
96 PZ 66 -5.717
96 PZ 67 -5.229
96 PZ 68 -5.229
96 PZ 69 -6.205
96 PZ 70 -8.158
96 PZ 71 -9.623
96 PZ 72 -10.111
96 PZ 73 -10.111
96 PZ 74 -9.623
96 PZ 75 -9.135
96 PZ 76 -9.135
96 PZ 77 -8.647
96 PZ 78 -9.135
96 PZ 79 -8.647
96 PZ 80 -8.647
96 PZ 81 -8.158
96 PZ 82 -7.670
96 PZ 83 -7.182
96 PZ 84 -6.694
96 PZ 85 -6.205
96 PZ 86 -5.717
96 PZ 87 -5.229
96 PZ 88 -5.717
96 PZ 89 -5.717
96 PZ 90 -5.717
96 PZ 91 -5.717
96 PZ 92 -5.229
96 PZ 93 -4.252
96 PZ 94 -4.252
96 PZ 95 -4.740
96 PZ 96 -6.205
96 PZ 97 -7.670
96 PZ 98 -8.647
96 PZ 99 -9.135
96 PZ 100 -8.158
96 PZ 101 -7.182
96 PZ 102 -6.694
96 PZ 103 -6.694
96 PZ 104 -7.182
96 PZ 105 -8.158
96 PZ 106 -8.647
96 PZ 107 -8.158
96 PZ 108 -7.670
96 PZ 109 -6.694
96 PZ 110 -6.694
96 PZ 111 -6.694
96 PZ 112 -7.182
96 PZ 113 -7.670
96 PZ 114 -7.670
96 PZ 115 -8.158
96 PZ 116 -8.158
96 PZ 117 -8.158
96 PZ 118 -7.670
96 PZ 119 -7.182
96 PZ 120 -7.182
96 PZ 121 -7.670
96 PZ 122 -8.158
96 PZ 123 -8.647
96 PZ 124 -8.647
96 PZ 125 -8.158
96 PZ 126 -7.182
96 PZ 127 -6.694
96 PZ 128 -6.694
96 PZ 129 -6.694
96 PZ 130 -7.182
96 PZ 131 -7.670
96 PZ 132 -7.670
96 PZ 133 -6.694
96 PZ 134 -5.717
96 PZ 135 -4.740
96 PZ 136 -4.252
96 PZ 137 -5.229
96 PZ 138 -7.182
96 PZ 139 -9.135
96 PZ 140 -11.088
96 PZ 141 -11.576
96 PZ 142 -11.576
96 PZ 143 -11.088
96 PZ 144 -10.600
96 PZ 145 -10.111
96 PZ 146 -10.111
96 PZ 147 -9.135
96 PZ 148 -7.670
96 PZ 149 -5.717
96 PZ 150 -4.252
96 PZ 151 -3.764
96 PZ 152 -3.764
96 PZ 153 -4.740
96 PZ 154 -5.717
96 PZ 155 -7.182
96 PZ 156 -7.182
96 PZ 157 -7.182
96 PZ 158 -6.694
96 PZ 159 -5.717
96 PZ 160 -4.252
96 PZ 161 -3.764
96 PZ 162 -3.764
96 PZ 163 -5.229
96 PZ 164 -7.182
96 PZ 165 -9.135
96 PZ 166 -10.600
96 PZ 167 -11.088
96 PZ 168 -10.600
96 PZ 169 -9.135
96 PZ 170 -7.670
96 PZ 171 -7.182
96 PZ 172 -8.158
96 PZ 173 -9.135
96 PZ 174 -10.600
96 PZ 175 -11.088
96 PZ 176 -11.088
96 PZ 177 -10.600
96 PZ 178 -9.623
96 PZ 179 -8.647
96 PZ 180 -6.694
96 PZ 181 -4.740
96 PZ 182 -2.299
96 PZ 183 -1.322
96 PZ 184 -0.834
96 PZ 185 -1.811
96 PZ 186 -3.764
96 PZ 187 -5.717
96 PZ 188 -7.182
96 PZ 189 -7.670
96 PZ 190 -7.670
96 PZ 191 -7.182
96 PZ 192 -6.205
96 PZ 193 -5.229
96 PZ 194 -4.252
96 PZ 195 -3.764
96 PZ 196 -4.740
96 PZ 197 -6.205
96 PZ 198 -8.158
96 PZ 199 -10.111
96 PZ 200 -11.088
96 PZ 201 -11.576
96 PZ 202 -11.088
96 PZ 203 -10.111
96 PZ 204 -8.647
96 PZ 205 -7.182
96 PZ 206 -5.717
96 PZ 207 -4.740
96 PZ 208 -5.229
96 PZ 209 -6.205
96 PZ 210 -8.158
96 PZ 211 -8.647
96 PZ 212 -9.135
96 PZ 213 -8.158
96 PZ 214 -6.694
96 PZ 215 -5.717
96 PZ 216 -5.717
96 PZ 217 -6.205
96 PZ 218 -7.182
96 PZ 219 -8.647
96 PZ 220 -9.135
96 PZ 221 -9.623
96 PZ 222 -10.600
96 PZ 223 -10.600
96 PZ 224 -11.088
96 PZ 225 -11.088
96 PZ 226 -11.088
96 PZ 227 -11.088
96 PZ 228 -11.088
96 PZ 229 -11.088
96 PZ 230 -11.088
96 PZ 231 -11.088
96 PZ 232 -10.600
96 PZ 233 -8.647
96 PZ 234 -6.205
96 PZ 235 -3.276
96 PZ 236 -1.322
96 PZ 237 -0.346
96 PZ 238 -0.834
96 PZ 239 -2.299
96 PZ 240 -3.764
96 PZ 241 -5.717
96 PZ 242 -7.182
96 PZ 243 -8.158
96 PZ 244 -9.623
96 PZ 245 -9.623
96 PZ 246 -10.111
96 PZ 247 -10.111
96 PZ 248 -10.111
96 PZ 249 -10.600
96 PZ 250 -11.576
96 PZ 251 -13.041
96 PZ 252 -14.018
96 PZ 253 -14.506
96 PZ 254 -14.018
96 PZ 255 -12.553
# P8 chan 25
96 P8 0 -3.550
96 P8 1 -5.015
96 P8 2 -5.992
96 P8 3 -5.992
96 P8 4 -5.503
96 P8 5 -4.527
96 P8 6 -3.062
96 P8 7 -2.574
96 P8 8 -3.062
96 P8 9 -5.015
96 P8 10 -6.968
96 P8 11 -8.433
96 P8 12 -7.945
96 P8 13 -6.480
96 P8 14 -4.527
96 P8 15 -2.574
96 P8 16 -2.085
96 P8 17 -2.085
96 P8 18 -2.574
96 P8 19 -2.574
96 P8 20 -2.085
96 P8 21 -1.597
96 P8 22 -1.597
96 P8 23 -2.574
96 P8 24 -4.038
96 P8 25 -5.503
96 P8 26 -5.503
96 P8 27 -4.527
96 P8 28 -2.574
96 P8 29 -1.109
96 P8 30 -1.109
96 P8 31 -2.574
96 P8 32 -4.527
96 P8 33 -5.503
96 P8 34 -5.992
96 P8 35 -5.992
96 P8 36 -6.480
96 P8 37 -8.433
96 P8 38 -10.386
96 P8 39 -11.851
96 P8 40 -12.339
96 P8 41 -12.828
96 P8 42 -13.316
96 P8 43 -14.292
96 P8 44 -14.781
96 P8 45 -14.781
96 P8 46 -13.804
96 P8 47 -12.339
96 P8 48 -11.851
96 P8 49 -11.851
96 P8 50 -12.339
96 P8 51 -12.828
96 P8 52 -12.339
96 P8 53 -11.851
96 P8 54 -10.874
96 P8 55 -10.874
96 P8 56 -10.874
96 P8 57 -10.874
96 P8 58 -10.386
96 P8 59 -10.386
96 P8 60 -10.874
96 P8 61 -12.339
96 P8 62 -13.804
96 P8 63 -14.781
96 P8 64 -14.781
96 P8 65 -13.316
96 P8 66 -12.339
96 P8 67 -12.339
96 P8 68 -14.292
96 P8 69 -17.222
96 P8 70 -19.175
96 P8 71 -20.152
96 P8 72 -20.152
96 P8 73 -19.175
96 P8 74 -18.199
96 P8 75 -17.222
96 P8 76 -15.757
96 P8 77 -13.804
96 P8 78 -12.339
96 P8 79 -11.851
96 P8 80 -11.851
96 P8 81 -12.339
96 P8 82 -12.828
96 P8 83 -12.339
96 P8 84 -11.363
96 P8 85 -11.363
96 P8 86 -11.851
96 P8 87 -12.828
96 P8 88 -13.804
96 P8 89 -13.804
96 P8 90 -13.316
96 P8 91 -12.339
96 P8 92 -11.851
96 P8 93 -11.363
96 P8 94 -11.363
96 P8 95 -12.339
96 P8 96 -13.804
96 P8 97 -16.246
96 P8 98 -18.199
96 P8 99 -19.663
96 P8 100 -19.663
96 P8 101 -18.687
96 P8 102 -17.222
96 P8 103 -16.734
96 P8 104 -17.222
96 P8 105 -18.199
96 P8 106 -18.199
96 P8 107 -17.222
96 P8 108 -15.757
96 P8 109 -14.292
96 P8 110 -13.316
96 P8 111 -13.804
96 P8 112 -14.292
96 P8 113 -15.757
96 P8 114 -16.734
96 P8 115 -16.734
96 P8 116 -15.757
96 P8 117 -14.292
96 P8 118 -12.828
96 P8 119 -12.339
96 P8 120 -14.292
96 P8 121 -17.222
96 P8 122 -19.175
96 P8 123 -19.663
96 P8 124 -17.222
96 P8 125 -13.804
96 P8 126 -11.851
96 P8 127 -11.851
96 P8 128 -14.292
96 P8 129 -16.734
96 P8 130 -18.199
96 P8 131 -19.175
96 P8 132 -18.687
96 P8 133 -17.710
96 P8 134 -16.734
96 P8 135 -15.269
96 P8 136 -14.292
96 P8 137 -14.292
96 P8 138 -15.757
96 P8 139 -18.687
96 P8 140 -22.105
96 P8 141 -24.058
96 P8 142 -24.546
96 P8 143 -23.570
96 P8 144 -22.593
96 P8 145 -21.617
96 P8 146 -21.128
96 P8 147 -20.152
96 P8 148 -18.687
96 P8 149 -16.734
96 P8 150 -14.292
96 P8 151 -12.828
96 P8 152 -12.828
96 P8 153 -14.292
96 P8 154 -15.757
96 P8 155 -17.222
96 P8 156 -17.710
96 P8 157 -16.734
96 P8 158 -14.781
96 P8 159 -12.828
96 P8 160 -11.363
96 P8 161 -10.386
96 P8 162 -9.898
96 P8 163 -10.386
96 P8 164 -11.851
96 P8 165 -13.316
96 P8 166 -14.292
96 P8 167 -14.781
96 P8 168 -14.292
96 P8 169 -13.316
96 P8 170 -11.851
96 P8 171 -10.874
96 P8 172 -11.363
96 P8 173 -11.851
96 P8 174 -12.828
96 P8 175 -13.316
96 P8 176 -13.316
96 P8 177 -13.804
96 P8 178 -13.316
96 P8 179 -12.828
96 P8 180 -11.363
96 P8 181 -8.921
96 P8 182 -6.480
96 P8 183 -4.527
96 P8 184 -3.062
96 P8 185 -3.062
96 P8 186 -3.550
96 P8 187 -3.550
96 P8 188 -3.550
96 P8 189 -3.550
96 P8 190 -4.527
96 P8 191 -5.015
96 P8 192 -5.503
96 P8 193 -5.503
96 P8 194 -5.503
96 P8 195 -5.503
96 P8 196 -7.456
96 P8 197 -10.386
96 P8 198 -13.316
96 P8 199 -15.269
96 P8 200 -16.246
96 P8 201 -16.246
96 P8 202 -16.246
96 P8 203 -16.246
96 P8 204 -15.757
96 P8 205 -14.292
96 P8 206 -11.851
96 P8 207 -10.386
96 P8 208 -10.386
96 P8 209 -11.363
96 P8 210 -12.828
96 P8 211 -13.316
96 P8 212 -11.363
96 P8 213 -9.410
96 P8 214 -7.456
96 P8 215 -7.456
96 P8 216 -8.921
96 P8 217 -11.851
96 P8 218 -14.781
96 P8 219 -16.734
96 P8 220 -17.710
96 P8 221 -18.687
96 P8 222 -20.640
96 P8 223 -21.128
96 P8 224 -21.617
96 P8 225 -22.105
96 P8 226 -21.617
96 P8 227 -21.128
96 P8 228 -20.152
96 P8 229 -19.175
96 P8 230 -17.710
96 P8 231 -16.246
96 P8 232 -14.292
96 P8 233 -11.363
96 P8 234 -8.433
96 P8 235 -4.527
96 P8 236 -1.109
96 P8 237 1.333
96 P8 238 2.797
96 P8 239 2.797
96 P8 240 1.333
96 P8 241 -1.109
96 P8 242 -3.062
96 P8 243 -5.503
96 P8 244 -7.456
96 P8 245 -9.410
96 P8 246 -11.851
96 P8 247 -14.292
96 P8 248 -16.734
96 P8 249 -19.175
96 P8 250 -21.617
96 P8 251 -23.570
96 P8 252 -25.523
96 P8 253 -25.523
96 P8 254 -24.058
96 P8 255 -20.152
# P7 chan 26
96 P7 0 0.295
96 P7 1 -1.170
96 P7 2 -2.635
96 P7 3 -3.611
96 P7 4 -4.100
96 P7 5 -3.611
96 P7 6 -3.123
96 P7 7 -3.611
96 P7 8 -4.588
96 P7 9 -5.564
96 P7 10 -7.029
96 P7 11 -7.029
96 P7 12 -6.541
96 P7 13 -6.053
96 P7 14 -5.564
96 P7 15 -5.076
96 P7 16 -5.076
96 P7 17 -5.076
96 P7 18 -4.588
96 P7 19 -4.588
96 P7 20 -4.588
96 P7 21 -4.588
96 P7 22 -4.100
96 P7 23 -4.588
96 P7 24 -6.053
96 P7 25 -7.517
96 P7 26 -8.494
96 P7 27 -8.494
96 P7 28 -8.006
96 P7 29 -7.517
96 P7 30 -7.517
96 P7 31 -8.494
96 P7 32 -9.471
96 P7 33 -9.959
96 P7 34 -8.982
96 P7 35 -8.006
96 P7 36 -7.517
96 P7 37 -8.006
96 P7 38 -8.982
96 P7 39 -9.471
96 P7 40 -9.959
96 P7 41 -9.471
96 P7 42 -9.959
96 P7 43 -10.447
96 P7 44 -11.424
96 P7 45 -11.424
96 P7 46 -10.935
96 P7 47 -9.959
96 P7 48 -9.471
96 P7 49 -10.935
96 P7 50 -13.377
96 P7 51 -16.795
96 P7 52 -18.748
96 P7 53 -19.725
96 P7 54 -19.236
96 P7 55 -18.260
96 P7 56 -17.283
96 P7 57 -15.818
96 P7 58 -14.842
96 P7 59 -13.865
96 P7 60 -13.377
96 P7 61 -13.865
96 P7 62 -15.330
96 P7 63 -16.307
96 P7 64 -16.795
96 P7 65 -16.307
96 P7 66 -15.330
96 P7 67 -14.353
96 P7 68 -14.353
96 P7 69 -15.330
96 P7 70 -17.283
96 P7 71 -19.236
96 P7 72 -21.189
96 P7 73 -22.654
96 P7 74 -23.142
96 P7 75 -22.166
96 P7 76 -20.213
96 P7 77 -17.771
96 P7 78 -15.818
96 P7 79 -14.842
96 P7 80 -14.353
96 P7 81 -14.353
96 P7 82 -13.865
96 P7 83 -11.912
96 P7 84 -10.447
96 P7 85 -8.494
96 P7 86 -7.517
96 P7 87 -6.541
96 P7 88 -6.053
96 P7 89 -4.100
96 P7 90 -2.635
96 P7 91 -1.658
96 P7 92 -2.146
96 P7 93 -4.100
96 P7 94 -7.029
96 P7 95 -10.447
96 P7 96 -13.377
96 P7 97 -15.330
96 P7 98 -15.818
96 P7 99 -16.307
96 P7 100 -15.818
96 P7 101 -15.330
96 P7 102 -14.842
96 P7 103 -14.353
96 P7 104 -13.865
96 P7 105 -13.377
96 P7 106 -12.889
96 P7 107 -12.889
96 P7 108 -12.889
96 P7 109 -13.377
96 P7 110 -13.377
96 P7 111 -12.889
96 P7 112 -12.889
96 P7 113 -12.889
96 P7 114 -13.865
96 P7 115 -14.353
96 P7 116 -14.353
96 P7 117 -13.865
96 P7 118 -12.400
96 P7 119 -11.424
96 P7 120 -11.424
96 P7 121 -12.889
96 P7 122 -13.377
96 P7 123 -12.889
96 P7 124 -11.424
96 P7 125 -9.959
96 P7 126 -9.471
96 P7 127 -9.959
96 P7 128 -10.935
96 P7 129 -11.912
96 P7 130 -12.400
96 P7 131 -11.912
96 P7 132 -10.935
96 P7 133 -10.447
96 P7 134 -9.471
96 P7 135 -8.982
96 P7 136 -8.494
96 P7 137 -8.982
96 P7 138 -10.447
96 P7 139 -12.400
96 P7 140 -14.353
96 P7 141 -15.818
96 P7 142 -15.818
96 P7 143 -14.353
96 P7 144 -13.377
96 P7 145 -12.889
96 P7 146 -13.865
96 P7 147 -14.353
96 P7 148 -13.865
96 P7 149 -12.889
96 P7 150 -10.447
96 P7 151 -8.982
96 P7 152 -8.494
96 P7 153 -9.471
96 P7 154 -10.447
96 P7 155 -10.447
96 P7 156 -9.959
96 P7 157 -8.494
96 P7 158 -7.029
96 P7 159 -6.053
96 P7 160 -5.564
96 P7 161 -5.076
96 P7 162 -5.076
96 P7 163 -6.541
96 P7 164 -8.982
96 P7 165 -12.889
96 P7 166 -16.307
96 P7 167 -17.771
96 P7 168 -17.283
96 P7 169 -15.818
96 P7 170 -13.865
96 P7 171 -13.865
96 P7 172 -14.353
96 P7 173 -15.818
96 P7 174 -16.307
96 P7 175 -15.818
96 P7 176 -14.353
96 P7 177 -12.889
96 P7 178 -10.935
96 P7 179 -8.494
96 P7 180 -5.564
96 P7 181 -1.658
96 P7 182 1.760
96 P7 183 2.736
96 P7 184 2.248
96 P7 185 0.295
96 P7 186 -2.635
96 P7 187 -5.076
96 P7 188 -6.541
96 P7 189 -7.517
96 P7 190 -8.982
96 P7 191 -10.447
96 P7 192 -12.400
96 P7 193 -13.377
96 P7 194 -13.377
96 P7 195 -13.865
96 P7 196 -14.353
96 P7 197 -15.818
96 P7 198 -16.795
96 P7 199 -17.771
96 P7 200 -17.771
96 P7 201 -17.771
96 P7 202 -17.771
96 P7 203 -17.771
96 P7 204 -16.795
96 P7 205 -14.353
96 P7 206 -11.424
96 P7 207 -8.494
96 P7 208 -8.006
96 P7 209 -8.982
96 P7 210 -11.424
96 P7 211 -13.865
96 P7 212 -14.842
96 P7 213 -14.353
96 P7 214 -13.865
96 P7 215 -13.865
96 P7 216 -14.842
96 P7 217 -16.795
96 P7 218 -18.748
96 P7 219 -20.701
96 P7 220 -22.654
96 P7 221 -25.096
96 P7 222 -27.537
96 P7 223 -29.490
96 P7 224 -30.467
96 P7 225 -29.978
96 P7 226 -28.514
96 P7 227 -26.072
96 P7 228 -24.119
96 P7 229 -22.166
96 P7 230 -20.213
96 P7 231 -17.283
96 P7 232 -13.865
96 P7 233 -9.471
96 P7 234 -5.564
96 P7 235 -2.146
96 P7 236 -1.170
96 P7 237 -1.170
96 P7 238 -2.146
96 P7 239 -3.611
96 P7 240 -5.564
96 P7 241 -7.517
96 P7 242 -9.471
96 P7 243 -11.912
96 P7 244 -14.353
96 P7 245 -17.771
96 P7 246 -20.701
96 P7 247 -23.142
96 P7 248 -25.584
96 P7 249 -27.537
96 P7 250 -29.002
96 P7 251 -29.490
96 P7 252 -29.490
96 P7 253 -29.002
96 P7 254 -27.049
96 P7 255 -23.631
# PO2 chan 27
96 PO2 0 -8.403
96 PO2 1 -8.891
96 PO2 2 -9.867
96 PO2 3 -11.332
96 PO2 4 -12.309
96 PO2 5 -12.797
96 PO2 6 -12.309
96 PO2 7 -11.820
96 PO2 8 -12.309
96 PO2 9 -13.285
96 PO2 10 -14.750
96 PO2 11 -15.727
96 PO2 12 -15.238
96 PO2 13 -14.750
96 PO2 14 -13.774
96 PO2 15 -13.774
96 PO2 16 -14.750
96 PO2 17 -16.215
96 PO2 18 -16.703
96 PO2 19 -17.192
96 PO2 20 -16.703
96 PO2 21 -16.215
96 PO2 22 -15.727
96 PO2 23 -17.192
96 PO2 24 -20.121
96 PO2 25 -23.051
96 PO2 26 -25.492
96 PO2 27 -26.469
96 PO2 28 -26.469
96 PO2 29 -26.469
96 PO2 30 -26.957
96 PO2 31 -28.910
96 PO2 32 -30.863
96 PO2 33 -32.328
96 PO2 34 -32.328
96 PO2 35 -31.352
96 PO2 36 -30.375
96 PO2 37 -30.375
96 PO2 38 -29.887
96 PO2 39 -29.399
96 PO2 40 -28.910
96 PO2 41 -27.934
96 PO2 42 -27.934
96 PO2 43 -28.422
96 PO2 44 -28.422
96 PO2 45 -28.422
96 PO2 46 -27.445
96 PO2 47 -26.957
96 PO2 48 -26.469
96 PO2 49 -27.445
96 PO2 50 -29.399
96 PO2 51 -31.352
96 PO2 52 -32.328
96 PO2 53 -32.328
96 PO2 54 -32.328
96 PO2 55 -31.840
96 PO2 56 -31.840
96 PO2 57 -31.352
96 PO2 58 -30.375
96 PO2 59 -29.399
96 PO2 60 -29.399
96 PO2 61 -29.887
96 PO2 62 -30.863
96 PO2 63 -31.840
96 PO2 64 -32.328
96 PO2 65 -31.840
96 PO2 66 -30.863
96 PO2 67 -30.863
96 PO2 68 -31.352
96 PO2 69 -33.305
96 PO2 70 -35.746
96 PO2 71 -38.188
96 PO2 72 -39.164
96 PO2 73 -40.141
96 PO2 74 -39.653
96 PO2 75 -38.676
96 PO2 76 -37.699
96 PO2 77 -36.235
96 PO2 78 -35.746
96 PO2 79 -35.746
96 PO2 80 -36.235
96 PO2 81 -36.723
96 PO2 82 -36.235
96 PO2 83 -35.258
96 PO2 84 -34.281
96 PO2 85 -33.305
96 PO2 86 -33.793
96 PO2 87 -34.770
96 PO2 88 -35.746
96 PO2 89 -36.723
96 PO2 90 -36.723
96 PO2 91 -36.235
96 PO2 92 -35.746
96 PO2 93 -35.258
96 PO2 94 -36.723
96 PO2 95 -38.188
96 PO2 96 -41.117
96 PO2 97 -44.047
96 PO2 98 -46.000
96 PO2 99 -46.488
96 PO2 100 -45.512
96 PO2 101 -44.047
96 PO2 102 -42.582
96 PO2 103 -43.070
96 PO2 104 -45.024
96 PO2 105 -46.977
96 PO2 106 -47.465
96 PO2 107 -47.465
96 PO2 108 -46.977
96 PO2 109 -46.000
96 PO2 110 -46.000
96 PO2 111 -46.488
96 PO2 112 -47.465
96 PO2 113 -47.953
96 PO2 114 -48.442
96 PO2 115 -48.442
96 PO2 116 -47.953
96 PO2 117 -46.977
96 PO2 118 -45.024
96 PO2 119 -43.559
96 PO2 120 -43.559
96 PO2 121 -44.047
96 PO2 122 -45.512
96 PO2 123 -46.488
96 PO2 124 -46.488
96 PO2 125 -45.024
96 PO2 126 -43.070
96 PO2 127 -42.582
96 PO2 128 -43.559
96 PO2 129 -46.000
