# co2c0000357.rd
# 120 trials, 64 chans, 416 samples 368 post_stim samples
# 3.906000 msecs uV
# S1 obj , trial 50
# FP1 chan 0
50 FP1 0 -19.643
50 FP1 1 -21.596
50 FP1 2 -24.038
50 FP1 3 -26.479
50 FP1 4 -28.920
50 FP1 5 -30.874
50 FP1 6 -32.338
50 FP1 7 -32.338
50 FP1 8 -31.362
50 FP1 9 -29.897
50 FP1 10 -29.409
50 FP1 11 -29.409
50 FP1 12 -29.409
50 FP1 13 -27.944
50 FP1 14 -25.503
50 FP1 15 -22.573
50 FP1 16 -20.620
50 FP1 17 -19.643
50 FP1 18 -19.643
50 FP1 19 -19.643
50 FP1 20 -17.202
50 FP1 21 -14.272
50 FP1 22 -10.854
50 FP1 23 -8.413
50 FP1 24 -7.436
50 FP1 25 -6.948
50 FP1 26 -6.460
50 FP1 27 -6.460
50 FP1 28 -6.460
50 FP1 29 -6.948
50 FP1 30 -6.948
50 FP1 31 -6.460
50 FP1 32 -4.995
50 FP1 33 -2.553
50 FP1 34 -0.600
50 FP1 35 0.865
50 FP1 36 2.330
50 FP1 37 4.771
50 FP1 38 7.701
50 FP1 39 11.119
50 FP1 40 13.560
50 FP1 41 14.537
50 FP1 42 14.048
50 FP1 43 12.583
50 FP1 44 10.630
50 FP1 45 10.142
50 FP1 46 10.142
50 FP1 47 10.630
50 FP1 48 10.630
50 FP1 49 9.654
50 FP1 50 7.212
50 FP1 51 4.771
50 FP1 52 3.794
50 FP1 53 4.283
50 FP1 54 6.236
50 FP1 55 6.724
50 FP1 56 6.236
50 FP1 57 3.794
50 FP1 58 1.353
50 FP1 59 0.376
50 FP1 60 0.865
50 FP1 61 2.818
50 FP1 62 4.771
50 FP1 63 4.771
50 FP1 64 2.818
50 FP1 65 0.376
50 FP1 66 -2.065
50 FP1 67 -3.042
50 FP1 68 -3.530
50 FP1 69 -4.018
50 FP1 70 -4.995
50 FP1 71 -6.948
50 FP1 72 -8.413
50 FP1 73 -9.389
50 FP1 74 -8.901
50 FP1 75 -7.436
50 FP1 76 -6.460
50 FP1 77 -5.483
50 FP1 78 -4.506
50 FP1 79 -3.530
50 FP1 80 -2.553
50 FP1 81 -2.065
50 FP1 82 -2.553
50 FP1 83 -3.530
50 FP1 84 -4.018
50 FP1 85 -3.530
50 FP1 86 -1.577
50 FP1 87 0.865
50 FP1 88 3.794
50 FP1 89 4.771
50 FP1 90 5.747
50 FP1 91 5.259
50 FP1 92 4.771
50 FP1 93 4.283
50 FP1 94 3.306
50 FP1 95 2.818
50 FP1 96 2.818
50 FP1 97 4.283
50 FP1 98 7.212
50 FP1 99 11.607
50 FP1 100 16.001
50 FP1 101 18.931
50 FP1 102 19.908
50 FP1 103 18.443
50 FP1 104 15.513
50 FP1 105 12.583
50 FP1 106 11.119
50 FP1 107 10.142
50 FP1 108 10.142
50 FP1 109 10.630
50 FP1 110 11.607
50 FP1 111 12.095
50 FP1 112 12.095
50 FP1 113 11.607
50 FP1 114 10.142
50 FP1 115 9.165
50 FP1 116 8.189
50 FP1 117 8.189
50 FP1 118 8.677
50 FP1 119 9.165
50 FP1 120 9.654
50 FP1 121 10.142
50 FP1 122 9.654
50 FP1 123 7.701
50 FP1 124 5.747
50 FP1 125 3.794
50 FP1 126 3.306
50 FP1 127 4.283
50 FP1 128 5.259
50 FP1 129 4.283
50 FP1 130 2.330
50 FP1 131 -0.600
50 FP1 132 -3.530
50 FP1 133 -3.530
50 FP1 134 -2.065
50 FP1 135 -0.600
50 FP1 136 -0.600
50 FP1 137 -2.065
50 FP1 138 -4.018
50 FP1 139 -4.506
50 FP1 140 -3.530
50 FP1 141 -2.065
50 FP1 142 -1.088
50 FP1 143 -3.042
50 FP1 144 -6.460
50 FP1 145 -10.854
50 FP1 146 -12.319
50 FP1 147 -11.831
50 FP1 148 -9.389
50 FP1 149 -7.436
50 FP1 150 -5.971
50 FP1 151 -6.460
50 FP1 152 -7.436
50 FP1 153 -7.924
50 FP1 154 -7.436
50 FP1 155 -6.948
50 FP1 156 -6.460
50 FP1 157 -7.436
50 FP1 158 -9.389
50 FP1 159 -12.319
50 FP1 160 -14.760
50 FP1 161 -16.713
50 FP1 162 -18.178
50 FP1 163 -19.155
50 FP1 164 -20.620
50 FP1 165 -21.596
50 FP1 166 -23.061
50 FP1 167 -23.061
50 FP1 168 -21.596
50 FP1 169 -19.643
50 FP1 170 -18.178
50 FP1 171 -18.667
50 FP1 172 -20.131
50 FP1 173 -21.596
50 FP1 174 -21.596
50 FP1 175 -19.643
50 FP1 176 -17.202
50 FP1 177 -15.737
50 FP1 178 -15.737
50 FP1 179 -16.225
50 FP1 180 -16.225
50 FP1 181 -13.784
50 FP1 182 -11.831
50 FP1 183 -9.389
50 FP1 184 -7.924
50 FP1 185 -7.924
50 FP1 186 -8.413
50 FP1 187 -8.901
50 FP1 188 -7.924
50 FP1 189 -5.971
50 FP1 190 -4.018
50 FP1 191 -3.042
50 FP1 192 -2.553
50 FP1 193 -3.530
50 FP1 194 -4.995
50 FP1 195 -5.971
50 FP1 196 -6.460
50 FP1 197 -5.971
50 FP1 198 -5.483
50 FP1 199 -5.483
50 FP1 200 -6.460
50 FP1 201 -7.924
50 FP1 202 -8.901
50 FP1 203 -9.878
50 FP1 204 -10.854
50 FP1 205 -11.342
50 FP1 206 -11.342
50 FP1 207 -11.831
50 FP1 208 -11.831
50 FP1 209 -12.319
50 FP1 210 -13.784
50 FP1 211 -15.737
50 FP1 212 -18.667
50 FP1 213 -21.596
50 FP1 214 -23.549
50 FP1 215 -24.526
50 FP1 216 -24.526
50 FP1 217 -23.549
50 FP1 218 -22.573
50 FP1 219 -21.596
50 FP1 220 -20.620
50 FP1 221 -19.643
50 FP1 222 -18.667
50 FP1 223 -18.178
50 FP1 224 -18.667
50 FP1 225 -20.620
50 FP1 226 -22.573
50 FP1 227 -23.549
50 FP1 228 -23.549
50 FP1 229 -22.573
50 FP1 230 -21.596
50 FP1 231 -21.596
50 FP1 232 -23.061
50 FP1 233 -24.038
50 FP1 234 -25.014
50 FP1 235 -24.526
50 FP1 236 -24.526
50 FP1 237 -25.014
50 FP1 238 -25.503
50 FP1 239 -25.503
50 FP1 240 -24.038
50 FP1 241 -21.596
50 FP1 242 -19.155
50 FP1 243 -18.178
50 FP1 244 -18.178
50 FP1 245 -19.643
50 FP1 246 -20.620
50 FP1 247 -21.108
50 FP1 248 -21.108
50 FP1 249 -21.108
50 FP1 250 -21.596
50 FP1 251 -21.596
50 FP1 252 -20.620
50 FP1 253 -19.155
50 FP1 254 -17.690
50 FP1 255 -18.178
# FP2 chan 1
50 FP2 0 -17.802
50 FP2 1 -18.778
50 FP2 2 -19.755
50 FP2 3 -21.220
50 FP2 4 -23.661
50 FP2 5 -26.103
50 FP2 6 -28.544
50 FP2 7 -28.544
50 FP2 8 -27.079
50 FP2 9 -25.614
50 FP2 10 -25.126
50 FP2 11 -25.614
50 FP2 12 -26.591
50 FP2 13 -25.614
50 FP2 14 -23.173
50 FP2 15 -20.243
50 FP2 16 -18.778
50 FP2 17 -18.778
50 FP2 18 -18.778
50 FP2 19 -18.290
50 FP2 20 -16.337
50 FP2 21 -13.407
50 FP2 22 -11.454
50 FP2 23 -9.989
50 FP2 24 -9.501
50 FP2 25 -9.013
50 FP2 26 -8.036
50 FP2 27 -8.036
50 FP2 28 -8.525
50 FP2 29 -9.989
50 FP2 30 -10.478
50 FP2 31 -9.501
50 FP2 32 -7.060
50 FP2 33 -3.642
50 FP2 34 -2.177
50 FP2 35 -1.200
50 FP2 36 -0.712
50 FP2 37 0.264
50 FP2 38 3.194
50 FP2 39 6.612
50 FP2 40 9.054
50 FP2 41 9.054
50 FP2 42 8.077
50 FP2 43 6.124
50 FP2 44 4.171
50 FP2 45 4.171
50 FP2 46 4.659
50 FP2 47 5.147
50 FP2 48 5.147
50 FP2 49 4.171
50 FP2 50 2.218
50 FP2 51 0.264
50 FP2 52 -1.200
50 FP2 53 -0.712
50 FP2 54 0.753
50 FP2 55 2.218
50 FP2 56 2.218
50 FP2 57 0.264
50 FP2 58 -2.665
50 FP2 59 -5.595
50 FP2 60 -6.571
50 FP2 61 -5.595
50 FP2 62 -3.642
50 FP2 63 -2.177
50 FP2 64 -1.689
50 FP2 65 -3.153
50 FP2 66 -5.595
50 FP2 67 -8.036
50 FP2 68 -9.989
50 FP2 69 -10.966
50 FP2 70 -11.454
50 FP2 71 -12.919
50 FP2 72 -13.896
50 FP2 73 -13.896
50 FP2 74 -13.896
50 FP2 75 -12.919
50 FP2 76 -11.943
50 FP2 77 -10.966
50 FP2 78 -9.989
50 FP2 79 -8.525
50 FP2 80 -7.060
50 FP2 81 -6.083
50 FP2 82 -5.107
50 FP2 83 -5.107
50 FP2 84 -6.083
50 FP2 85 -5.595
50 FP2 86 -5.107
50 FP2 87 -3.642
50 FP2 88 -2.177
50 FP2 89 -1.689
50 FP2 90 -1.689
50 FP2 91 -2.665
50 FP2 92 -3.642
50 FP2 93 -3.642
50 FP2 94 -3.153
50 FP2 95 -2.177
50 FP2 96 -2.177
50 FP2 97 -1.200
50 FP2 98 1.241
50 FP2 99 4.171
50 FP2 100 8.565
50 FP2 101 11.495
50 FP2 102 12.960
50 FP2 103 11.983
50 FP2 104 10.030
50 FP2 105 7.589
50 FP2 106 6.124
50 FP2 107 5.147
50 FP2 108 4.171
50 FP2 109 4.171
50 FP2 110 4.171
50 FP2 111 4.171
50 FP2 112 3.682
50 FP2 113 2.218
50 FP2 114 0.264
50 FP2 115 -0.712
50 FP2 116 -1.689
50 FP2 117 -2.177
50 FP2 118 -1.689
50 FP2 119 -0.712
50 FP2 120 -0.224
50 FP2 121 -0.224
50 FP2 122 -0.712
50 FP2 123 -2.665
50 FP2 124 -4.618
50 FP2 125 -5.595
50 FP2 126 -5.107
50 FP2 127 -3.642
50 FP2 128 -3.642
50 FP2 129 -4.618
50 FP2 130 -7.548
50 FP2 131 -10.966
50 FP2 132 -12.919
50 FP2 133 -13.407
50 FP2 134 -12.431
50 FP2 135 -10.966
50 FP2 136 -9.989
50 FP2 137 -9.989
50 FP2 138 -10.966
50 FP2 139 -11.454
50 FP2 140 -11.454
50 FP2 141 -11.454
50 FP2 142 -11.454
50 FP2 143 -11.943
50 FP2 144 -13.896
50 FP2 145 -15.849
50 FP2 146 -16.825
50 FP2 147 -17.314
50 FP2 148 -16.337
50 FP2 149 -15.361
50 FP2 150 -14.384
50 FP2 151 -13.896
50 FP2 152 -13.407
50 FP2 153 -12.919
50 FP2 154 -11.943
50 FP2 155 -11.454
50 FP2 156 -11.943
50 FP2 157 -13.407
50 FP2 158 -15.849
50 FP2 159 -17.802
50 FP2 160 -19.755
50 FP2 161 -20.732
50 FP2 162 -21.708
50 FP2 163 -22.685
50 FP2 164 -23.173
50 FP2 165 -24.638
50 FP2 166 -26.103
50 FP2 167 -26.591
50 FP2 168 -26.103
50 FP2 169 -25.126
50 FP2 170 -24.638
50 FP2 171 -24.638
50 FP2 172 -26.103
50 FP2 173 -27.568
50 FP2 174 -28.544
50 FP2 175 -28.056
50 FP2 176 -25.614
50 FP2 177 -22.685
50 FP2 178 -19.755
50 FP2 179 -18.778
50 FP2 180 -17.802
50 FP2 181 -17.802
50 FP2 182 -16.825
50 FP2 183 -14.872
50 FP2 184 -11.943
50 FP2 185 -9.501
50 FP2 186 -9.013
50 FP2 187 -9.013
50 FP2 188 -9.501
50 FP2 189 -9.013
50 FP2 190 -7.060
50 FP2 191 -5.107
50 FP2 192 -3.642
50 FP2 193 -4.130
50 FP2 194 -6.083
50 FP2 195 -8.525
50 FP2 196 -9.501
50 FP2 197 -9.501
50 FP2 198 -9.013
50 FP2 199 -9.501
50 FP2 200 -11.454
50 FP2 201 -14.384
50 FP2 202 -16.337
50 FP2 203 -16.825
50 FP2 204 -15.849
50 FP2 205 -14.384
50 FP2 206 -13.407
50 FP2 207 -13.407
50 FP2 208 -13.896
50 FP2 209 -14.872
50 FP2 210 -16.825
50 FP2 211 -18.778
50 FP2 212 -20.732
50 FP2 213 -22.196
50 FP2 214 -23.661
50 FP2 215 -25.126
50 FP2 216 -25.614
50 FP2 217 -25.126
50 FP2 218 -24.150
50 FP2 219 -22.196
50 FP2 220 -20.732
50 FP2 221 -19.267
50 FP2 222 -18.290
50 FP2 223 -18.290
50 FP2 224 -18.290
50 FP2 225 -18.778
50 FP2 226 -19.267
50 FP2 227 -20.243
50 FP2 228 -20.732
50 FP2 229 -21.708
50 FP2 230 -21.220
50 FP2 231 -20.732
50 FP2 232 -20.243
50 FP2 233 -20.243
50 FP2 234 -21.220
50 FP2 235 -22.685
50 FP2 236 -24.150
50 FP2 237 -25.126
50 FP2 238 -24.638
50 FP2 239 -23.661
50 FP2 240 -21.708
50 FP2 241 -19.267
50 FP2 242 -17.314
50 FP2 243 -16.337
50 FP2 244 -17.314
50 FP2 245 -18.778
50 FP2 246 -20.243
50 FP2 247 -20.243
50 FP2 248 -18.290
50 FP2 249 -15.849
50 FP2 250 -14.872
50 FP2 251 -14.384
50 FP2 252 -15.849
50 FP2 253 -16.337
50 FP2 254 -16.337
50 FP2 255 -15.849
# F7 chan 2
50 F7 0 -15.961
50 F7 1 -17.426
50 F7 2 -18.402
50 F7 3 -19.867
50 F7 4 -22.308
50 F7 5 -24.750
50 F7 6 -26.215
50 F7 7 -26.703
50 F7 8 -25.726
50 F7 9 -24.750
50 F7 10 -23.773
50 F7 11 -22.797
50 F7 12 -21.820
50 F7 13 -19.379
50 F7 14 -16.449
50 F7 15 -13.519
50 F7 16 -11.566
50 F7 17 -10.101
50 F7 18 -8.636
50 F7 19 -6.683
50 F7 20 -4.730
50 F7 21 -3.265
50 F7 22 -2.289
50 F7 23 -1.801
50 F7 24 -1.801
50 F7 25 -1.312
50 F7 26 -0.336
50 F7 27 -0.336
50 F7 28 -0.824
50 F7 29 -1.801
50 F7 30 -3.265
50 F7 31 -3.754
50 F7 32 -3.265
50 F7 33 -1.801
50 F7 34 -0.336
50 F7 35 1.129
50 F7 36 2.594
50 F7 37 5.035
50 F7 38 7.477
50 F7 39 10.406
50 F7 40 12.848
50 F7 41 14.313
50 F7 42 13.824
50 F7 43 12.360
50 F7 44 10.406
50 F7 45 9.918
50 F7 46 9.918
50 F7 47 10.895
50 F7 48 10.895
50 F7 49 10.406
50 F7 50 8.453
50 F7 51 6.989
50 F7 52 6.989
50 F7 53 7.965
50 F7 54 9.918
50 F7 55 9.918
50 F7 56 8.942
50 F7 57 6.012
50 F7 58 3.082
50 F7 59 1.617
50 F7 60 1.617
50 F7 61 2.106
50 F7 62 2.594
50 F7 63 1.617
50 F7 64 -0.336
50 F7 65 -2.289
50 F7 66 -3.265
50 F7 67 -3.265
50 F7 68 -2.289
50 F7 69 -2.777
50 F7 70 -4.242
50 F7 71 -6.195
50 F7 72 -7.660
50 F7 73 -8.148
50 F7 74 -7.660
50 F7 75 -6.195
50 F7 76 -5.219
50 F7 77 -4.730
50 F7 78 -4.242
50 F7 79 -3.754
50 F7 80 -2.777
50 F7 81 -2.289
50 F7 82 -2.289
50 F7 83 -2.289
50 F7 84 -2.289
50 F7 85 -1.312
50 F7 86 0.153
50 F7 87 1.617
50 F7 88 2.594
50 F7 89 3.571
50 F7 90 4.059
50 F7 91 4.059
50 F7 92 4.059
50 F7 93 3.082
50 F7 94 2.106
50 F7 95 0.153
50 F7 96 -1.801
50 F7 97 -1.801
50 F7 98 0.153
50 F7 99 4.547
50 F7 100 9.430
50 F7 101 12.848
50 F7 102 13.824
50 F7 103 11.383
50 F7 104 7.965
50 F7 105 5.035
50 F7 106 4.547
50 F7 107 5.524
50 F7 108 6.989
50 F7 109 7.965
50 F7 110 8.453
50 F7 111 7.965
50 F7 112 6.989
50 F7 113 6.012
50 F7 114 5.524
50 F7 115 5.035
50 F7 116 5.524
50 F7 117 6.500
50 F7 118 7.965
50 F7 119 9.430
50 F7 120 10.895
50 F7 121 11.383
50 F7 122 11.383
50 F7 123 10.406
50 F7 124 8.453
50 F7 125 6.500
50 F7 126 5.524
50 F7 127 5.524
50 F7 128 5.035
50 F7 129 4.059
50 F7 130 2.106
50 F7 131 -0.336
50 F7 132 -2.777
50 F7 133 -3.265
50 F7 134 -2.777
50 F7 135 -2.289
50 F7 136 -2.777
50 F7 137 -4.242
50 F7 138 -6.683
50 F7 139 -8.148
50 F7 140 -7.660
50 F7 141 -5.707
50 F7 142 -4.242
50 F7 143 -3.754
50 F7 144 -4.730
50 F7 145 -6.683
50 F7 146 -8.148
50 F7 147 -8.148
50 F7 148 -7.660
50 F7 149 -7.172
50 F7 150 -7.172
50 F7 151 -7.172
50 F7 152 -6.683
50 F7 153 -5.707
50 F7 154 -4.730
50 F7 155 -4.242
50 F7 156 -4.730
50 F7 157 -6.195
50 F7 158 -8.148
50 F7 159 -10.101
50 F7 160 -11.566
50 F7 161 -12.543
50 F7 162 -13.031
50 F7 163 -13.031
50 F7 164 -13.519
50 F7 165 -14.008
50 F7 166 -14.008
50 F7 167 -13.519
50 F7 168 -12.054
50 F7 169 -9.613
50 F7 170 -8.636
50 F7 171 -8.148
50 F7 172 -8.148
50 F7 173 -8.148
50 F7 174 -7.172
50 F7 175 -5.219
50 F7 176 -2.777
50 F7 177 -1.312
50 F7 178 -0.824
50 F7 179 -1.312
50 F7 180 -1.312
50 F7 181 -0.824
50 F7 182 0.641
50 F7 183 2.106
50 F7 184 3.571
50 F7 185 4.547
50 F7 186 5.524
50 F7 187 6.989
50 F7 188 8.453
50 F7 189 9.918
50 F7 190 10.895
50 F7 191 11.383
50 F7 192 11.871
50 F7 193 11.871
50 F7 194 11.871
50 F7 195 12.360
50 F7 196 11.871
50 F7 197 11.383
50 F7 198 11.383
50 F7 199 10.406
50 F7 200 9.918
50 F7 201 8.453
50 F7 202 7.477
50 F7 203 6.500
50 F7 204 6.012
50 F7 205 6.012
50 F7 206 6.012
50 F7 207 5.524
50 F7 208 5.524
50 F7 209 4.547
50 F7 210 4.547
50 F7 211 4.059
50 F7 212 3.571
50 F7 213 2.106
50 F7 214 -0.336
50 F7 215 -2.289
50 F7 216 -4.242
50 F7 217 -5.219
50 F7 218 -5.219
50 F7 219 -5.219
50 F7 220 -4.730
50 F7 221 -4.730
50 F7 222 -4.730
50 F7 223 -4.730
50 F7 224 -5.219
50 F7 225 -5.707
50 F7 226 -7.172
50 F7 227 -8.148
50 F7 228 -9.125
50 F7 229 -9.613
50 F7 230 -8.636
50 F7 231 -8.148
50 F7 232 -7.660
50 F7 233 -7.172
50 F7 234 -7.172
50 F7 235 -7.172
50 F7 236 -8.148
50 F7 237 -8.148
50 F7 238 -7.660
50 F7 239 -6.195
50 F7 240 -3.754
50 F7 241 0.153
50 F7 242 3.082
50 F7 243 5.035
50 F7 244 5.035
50 F7 245 5.035
50 F7 246 4.547
50 F7 247 4.059
50 F7 248 3.571
50 F7 249 3.082
50 F7 250 2.594
50 F7 251 2.106
50 F7 252 3.082
50 F7 253 5.035
50 F7 254 6.989
50 F7 255 7.965
# F8 chan 3
50 F8 0 -5.219
50 F8 1 -7.172
50 F8 2 -7.660
50 F8 3 -8.148
50 F8 4 -9.613
50 F8 5 -10.590
50 F8 6 -12.054
50 F8 7 -12.054
50 F8 8 -11.078
50 F8 9 -10.101
50 F8 10 -10.101
50 F8 11 -11.078
50 F8 12 -12.054
50 F8 13 -12.054
50 F8 14 -10.101
50 F8 15 -7.172
50 F8 16 -4.730
50 F8 17 -3.265
50 F8 18 -2.289
50 F8 19 -1.312
50 F8 20 -0.336
50 F8 21 1.129
50 F8 22 1.617
50 F8 23 1.617
50 F8 24 0.641
50 F8 25 0.641
50 F8 26 1.129
50 F8 27 1.617
50 F8 28 1.617
50 F8 29 1.617
50 F8 30 2.106
50 F8 31 3.571
50 F8 32 6.012
50 F8 33 8.453
50 F8 34 8.942
50 F8 35 8.942
50 F8 36 8.453
50 F8 37 9.430
50 F8 38 11.383
50 F8 39 14.313
50 F8 40 15.778
50 F8 41 15.778
50 F8 42 13.824
50 F8 43 10.406
50 F8 44 7.965
50 F8 45 6.500
50 F8 46 6.500
50 F8 47 7.477
50 F8 48 7.477
50 F8 49 6.989
50 F8 50 6.012
50 F8 51 5.524
50 F8 52 5.524
50 F8 53 6.989
50 F8 54 8.453
50 F8 55 9.430
50 F8 56 9.430
50 F8 57 7.965
50 F8 58 6.500
50 F8 59 5.035
50 F8 60 4.547
50 F8 61 5.035
50 F8 62 6.012
50 F8 63 6.500
50 F8 64 6.500
50 F8 65 6.012
50 F8 66 5.524
50 F8 67 5.035
50 F8 68 4.059
50 F8 69 2.106
50 F8 70 -0.336
50 F8 71 -3.265
50 F8 72 -5.707
50 F8 73 -6.683
50 F8 74 -6.683
50 F8 75 -5.707
50 F8 76 -5.707
50 F8 77 -5.707
50 F8 78 -5.219
50 F8 79 -4.242
50 F8 80 -2.289
50 F8 81 -0.336
50 F8 82 1.129
50 F8 83 1.617
50 F8 84 1.129
50 F8 85 0.153
50 F8 86 0.153
50 F8 87 0.641
50 F8 88 1.129
50 F8 89 2.106
50 F8 90 2.106
50 F8 91 2.106
50 F8 92 2.594
50 F8 93 3.082
50 F8 94 3.082
50 F8 95 2.106
50 F8 96 1.129
50 F8 97 0.641
50 F8 98 1.617
50 F8 99 3.571
50 F8 100 5.035
50 F8 101 5.035
50 F8 102 4.547
50 F8 103 4.059
50 F8 104 4.547
50 F8 105 6.012
50 F8 106 6.989
50 F8 107 6.989
50 F8 108 6.012
50 F8 109 6.012
50 F8 110 6.500
50 F8 111 7.965
50 F8 112 8.942
50 F8 113 7.965
50 F8 114 6.500
50 F8 115 4.547
50 F8 116 4.059
50 F8 117 5.035
50 F8 118 6.500
50 F8 119 6.989
50 F8 120 6.989
50 F8 121 6.500
50 F8 122 6.500
50 F8 123 6.500
50 F8 124 6.989
50 F8 125 7.477
50 F8 126 8.453
50 F8 127 8.453
50 F8 128 7.477
50 F8 129 6.012
50 F8 130 3.571
50 F8 131 1.617
50 F8 132 0.641
50 F8 133 1.129
50 F8 134 2.106
50 F8 135 2.594
50 F8 136 1.617
50 F8 137 0.153
50 F8 138 -0.824
50 F8 139 -1.312
50 F8 140 -0.336
50 F8 141 1.617
50 F8 142 3.082
50 F8 143 3.082
50 F8 144 1.129
50 F8 145 -1.801
50 F8 146 -3.754
50 F8 147 -3.754
50 F8 148 -2.289
50 F8 149 -0.336
50 F8 150 1.129
50 F8 151 1.129
50 F8 152 0.641
50 F8 153 0.153
50 F8 154 0.641
50 F8 155 1.129
50 F8 156 1.129
50 F8 157 0.153
50 F8 158 -1.312
50 F8 159 -2.777
50 F8 160 -3.265
50 F8 161 -3.265
50 F8 162 -3.265
50 F8 163 -3.265
50 F8 164 -3.754
50 F8 165 -4.730
50 F8 166 -5.707
50 F8 167 -5.707
50 F8 168 -4.730
50 F8 169 -3.265
50 F8 170 -2.289
50 F8 171 -1.801
50 F8 172 -1.801
50 F8 173 -1.801
50 F8 174 -2.289
50 F8 175 -2.289
50 F8 176 -2.289
50 F8 177 -2.289
50 F8 178 -2.289
50 F8 179 -0.824
50 F8 180 1.129
50 F8 181 3.571
50 F8 182 5.524
50 F8 183 7.477
50 F8 184 8.942
50 F8 185 10.895
50 F8 186 12.848
50 F8 187 14.313
50 F8 188 15.778
50 F8 189 16.754
50 F8 190 16.754
50 F8 191 16.266
50 F8 192 14.801
50 F8 193 12.848
50 F8 194 10.406
50 F8 195 7.477
50 F8 196 6.012
50 F8 197 5.524
50 F8 198 5.035
50 F8 199 4.059
50 F8 200 2.594
50 F8 201 1.129
50 F8 202 -0.336
50 F8 203 -0.336
50 F8 204 -0.336
50 F8 205 -0.336
50 F8 206 -0.336
50 F8 207 -1.312
50 F8 208 -1.801
50 F8 209 -2.289
50 F8 210 -3.754
50 F8 211 -5.219
50 F8 212 -6.683
50 F8 213 -7.660
50 F8 214 -7.660
50 F8 215 -8.148
50 F8 216 -8.148
50 F8 217 -9.125
50 F8 218 -9.125
50 F8 219 -8.636
50 F8 220 -7.660
50 F8 221 -5.219
50 F8 222 -3.754
50 F8 223 -3.265
50 F8 224 -3.754
50 F8 225 -4.242
50 F8 226 -4.242
50 F8 227 -3.754
50 F8 228 -3.754
50 F8 229 -3.265
50 F8 230 -3.265
50 F8 231 -2.777
50 F8 232 -2.289
50 F8 233 -2.289
50 F8 234 -2.777
50 F8 235 -4.242
50 F8 236 -5.219
50 F8 237 -6.195
50 F8 238 -5.707
50 F8 239 -3.754
50 F8 240 -1.312
50 F8 241 1.617
50 F8 242 3.571
50 F8 243 4.059
50 F8 244 3.571
50 F8 245 2.106
50 F8 246 1.129
50 F8 247 0.641
50 F8 248 1.129
50 F8 249 2.106
50 F8 250 3.571
50 F8 251 4.547
50 F8 252 4.547
50 F8 253 4.059
50 F8 254 3.082
50 F8 255 1.617
# AF1 chan 4
50 AF1 0 -14.628
50 AF1 1 -15.605
50 AF1 2 -16.581
50 AF1 3 -18.046
50 AF1 4 -19.511
50 AF1 5 -20.976
50 AF1 6 -21.952
50 AF1 7 -22.441
50 AF1 8 -21.952
50 AF1 9 -21.464
50 AF1 10 -20.976
50 AF1 11 -20.487
50 AF1 12 -20.487
50 AF1 13 -19.023
50 AF1 14 -17.069
50 AF1 15 -14.628
50 AF1 16 -12.187
50 AF1 17 -10.722
50 AF1 18 -9.257
50 AF1 19 -7.304
50 AF1 20 -5.839
50 AF1 21 -3.398
50 AF1 22 -1.444
50 AF1 23 0.509
50 AF1 24 1.485
50 AF1 25 2.462
50 AF1 26 2.950
50 AF1 27 3.438
50 AF1 28 2.950
50 AF1 29 2.462
50 AF1 30 2.462
50 AF1 31 3.438
50 AF1 32 4.903
50 AF1 33 6.856
50 AF1 34 8.809
50 AF1 35 9.786
50 AF1 36 10.763
50 AF1 37 12.227
50 AF1 38 13.692
50 AF1 39 16.134
50 AF1 40 17.598
50 AF1 41 18.575
50 AF1 42 18.575
50 AF1 43 17.598
50 AF1 44 16.622
50 AF1 45 16.134
50 AF1 46 15.645
50 AF1 47 15.157
50 AF1 48 13.692
50 AF1 49 11.739
50 AF1 50 10.274
50 AF1 51 8.809
50 AF1 52 8.321
50 AF1 53 8.809
50 AF1 54 9.786
50 AF1 55 10.274
50 AF1 56 9.786
50 AF1 57 7.833
50 AF1 58 5.880
50 AF1 59 4.415
50 AF1 60 4.903
50 AF1 61 5.880
50 AF1 62 7.345
50 AF1 63 7.833
50 AF1 64 7.345
50 AF1 65 5.880
50 AF1 66 4.415
50 AF1 67 3.438
50 AF1 68 2.950
50 AF1 69 2.462
50 AF1 70 1.973
50 AF1 71 0.997
50 AF1 72 0.020
50 AF1 73 0.020
50 AF1 74 1.485
50 AF1 75 2.950
50 AF1 76 4.903
50 AF1 77 5.880
50 AF1 78 5.880
50 AF1 79 6.368
50 AF1 80 6.856
50 AF1 81 6.856
50 AF1 82 6.856
50 AF1 83 6.856
50 AF1 84 6.856
50 AF1 85 7.345
50 AF1 86 8.809
50 AF1 87 9.786
50 AF1 88 11.251
50 AF1 89 11.739
50 AF1 90 12.716
50 AF1 91 12.716
50 AF1 92 12.716
50 AF1 93 12.716
50 AF1 94 11.739
50 AF1 95 11.251
50 AF1 96 10.763
50 AF1 97 11.251
50 AF1 98 12.716
50 AF1 99 14.669
50 AF1 100 17.598
50 AF1 101 19.552
50 AF1 102 20.528
50 AF1 103 20.040
50 AF1 104 18.575
50 AF1 105 16.622
50 AF1 106 15.157
50 AF1 107 14.669
50 AF1 108 14.669
50 AF1 109 15.157
50 AF1 110 16.622
50 AF1 111 17.110
50 AF1 112 16.622
50 AF1 113 15.157
50 AF1 114 13.692
50 AF1 115 11.739
50 AF1 116 11.251
50 AF1 117 11.251
50 AF1 118 11.739
50 AF1 119 12.227
50 AF1 120 12.716
50 AF1 121 12.227
50 AF1 122 11.251
50 AF1 123 9.298
50 AF1 124 7.345
50 AF1 125 5.391
50 AF1 126 5.391
50 AF1 127 6.368
50 AF1 128 6.856
50 AF1 129 6.368
50 AF1 130 4.903
50 AF1 131 2.462
50 AF1 132 0.997
50 AF1 133 0.509
50 AF1 134 0.997
50 AF1 135 2.462
50 AF1 136 2.950
50 AF1 137 2.950
50 AF1 138 1.973
50 AF1 139 1.485
50 AF1 140 2.462
50 AF1 141 4.415
50 AF1 142 5.880
50 AF1 143 6.368
50 AF1 144 4.903
50 AF1 145 3.438
50 AF1 146 2.950
50 AF1 147 3.438
50 AF1 148 5.391
50 AF1 149 6.368
50 AF1 150 7.345
50 AF1 151 6.856
50 AF1 152 5.880
50 AF1 153 4.903
50 AF1 154 5.391
50 AF1 155 5.880
50 AF1 156 5.880
50 AF1 157 5.391
50 AF1 158 3.438
50 AF1 159 0.997
50 AF1 160 -0.956
50 AF1 161 -2.909
50 AF1 162 -3.886
50 AF1 163 -4.862
50 AF1 164 -6.327
50 AF1 165 -7.304
50 AF1 166 -8.280
50 AF1 167 -7.792
50 AF1 168 -6.816
50 AF1 169 -4.862
50 AF1 170 -3.398
50 AF1 171 -2.909
50 AF1 172 -2.909
50 AF1 173 -3.398
50 AF1 174 -2.909
50 AF1 175 -1.444
50 AF1 176 0.020
50 AF1 177 0.997
50 AF1 178 0.997
50 AF1 179 0.997
50 AF1 180 1.485
50 AF1 181 2.462
50 AF1 182 4.415
50 AF1 183 6.368
50 AF1 184 7.833
50 AF1 185 8.321
50 AF1 186 8.321
50 AF1 187 8.809
50 AF1 188 9.298
50 AF1 189 10.274
50 AF1 190 11.739
50 AF1 191 13.204
50 AF1 192 14.181
50 AF1 193 14.181
50 AF1 194 13.692
50 AF1 195 13.204
50 AF1 196 12.227
50 AF1 197 11.739
50 AF1 198 11.739
50 AF1 199 10.763
50 AF1 200 9.786
50 AF1 201 8.809
50 AF1 202 7.833
50 AF1 203 6.856
50 AF1 204 6.368
50 AF1 205 6.856
50 AF1 206 6.368
50 AF1 207 6.856
50 AF1 208 6.368
50 AF1 209 5.391
50 AF1 210 4.903
50 AF1 211 3.927
50 AF1 212 2.950
50 AF1 213 0.997
50 AF1 214 0.020
50 AF1 215 -1.444
50 AF1 216 -1.444
50 AF1 217 -0.956
50 AF1 218 0.020
50 AF1 219 1.485
50 AF1 220 2.462
50 AF1 221 3.927
50 AF1 222 4.903
50 AF1 223 5.391
50 AF1 224 4.903
50 AF1 225 3.927
50 AF1 226 2.950
50 AF1 227 1.485
50 AF1 228 0.997
50 AF1 229 0.997
50 AF1 230 0.997
50 AF1 231 0.997
50 AF1 232 0.997
50 AF1 233 0.997
50 AF1 234 0.997
50 AF1 235 0.509
50 AF1 236 0.020
50 AF1 237 -0.956
50 AF1 238 -1.444
50 AF1 239 -1.444
50 AF1 240 0.020
50 AF1 241 1.973
50 AF1 242 3.927
50 AF1 243 4.415
50 AF1 244 3.927
50 AF1 245 2.462
50 AF1 246 1.485
50 AF1 247 0.997
50 AF1 248 0.997
50 AF1 249 1.485
50 AF1 250 1.973
50 AF1 251 1.485
50 AF1 252 1.973
50 AF1 253 1.973
50 AF1 254 2.950
50 AF1 255 3.438
# AF2 chan 5
50 AF2 0 -11.403
50 AF2 1 -12.868
50 AF2 2 -13.357
50 AF2 3 -13.845
50 AF2 4 -15.310
50 AF2 5 -16.286
50 AF2 6 -17.751
50 AF2 7 -17.751
50 AF2 8 -17.263
50 AF2 9 -16.286
50 AF2 10 -16.286
50 AF2 11 -16.286
50 AF2 12 -16.774
50 AF2 13 -16.286
50 AF2 14 -14.821
50 AF2 15 -12.380
50 AF2 16 -9.939
50 AF2 17 -8.474
50 AF2 18 -7.009
50 AF2 19 -6.032
50 AF2 20 -4.079
50 AF2 21 -2.126
50 AF2 22 0.315
50 AF2 23 1.780
50 AF2 24 2.757
50 AF2 25 3.245
50 AF2 26 3.733
50 AF2 27 3.733
50 AF2 28 3.245
50 AF2 29 3.245
50 AF2 30 3.733
50 AF2 31 4.710
50 AF2 32 6.663
50 AF2 33 8.616
50 AF2 34 9.593
50 AF2 35 10.569
50 AF2 36 11.058
50 AF2 37 12.034
50 AF2 38 13.499
50 AF2 39 15.452
50 AF2 40 16.917
50 AF2 41 17.893
50 AF2 42 17.405
50 AF2 43 15.940
50 AF2 44 14.964
50 AF2 45 13.499
50 AF2 46 13.011
50 AF2 47 11.546
50 AF2 48 10.569
50 AF2 49 8.616
50 AF2 50 7.151
50 AF2 51 6.663
50 AF2 52 7.151
50 AF2 53 8.128
50 AF2 54 9.593
50 AF2 55 10.081
50 AF2 56 10.081
50 AF2 57 8.616
50 AF2 58 6.663
50 AF2 59 5.198
50 AF2 60 4.710
50 AF2 61 5.686
50 AF2 62 7.151
50 AF2 63 8.616
50 AF2 64 8.616
50 AF2 65 7.640
50 AF2 66 6.663
50 AF2 67 5.198
50 AF2 68 4.710
50 AF2 69 4.222
50 AF2 70 3.245
50 AF2 71 1.780
50 AF2 72 0.804
50 AF2 73 0.804
50 AF2 74 1.780
50 AF2 75 3.245
50 AF2 76 4.222
50 AF2 77 5.198
50 AF2 78 5.686
50 AF2 79 6.175
50 AF2 80 7.151
50 AF2 81 7.640
50 AF2 82 8.616
50 AF2 83 9.104
50 AF2 84 9.593
50 AF2 85 10.081
50 AF2 86 10.569
50 AF2 87 11.546
50 AF2 88 12.522
50 AF2 89 13.011
50 AF2 90 13.499
50 AF2 91 13.499
50 AF2 92 13.987
50 AF2 93 13.987
50 AF2 94 13.987
50 AF2 95 13.499
50 AF2 96 13.499
50 AF2 97 13.499
50 AF2 98 14.476
50 AF2 99 16.917
50 AF2 100 18.870
50 AF2 101 20.335
50 AF2 102 20.335
50 AF2 103 19.358
50 AF2 104 18.382
50 AF2 105 17.405
50 AF2 106 16.917
50 AF2 107 16.429
50 AF2 108 16.429
50 AF2 109 16.917
50 AF2 110 17.893
50 AF2 111 18.382
50 AF2 112 18.382
50 AF2 113 17.405
50 AF2 114 15.452
50 AF2 115 13.499
50 AF2 116 12.034
50 AF2 117 12.034
50 AF2 118 13.011
50 AF2 119 13.499
50 AF2 120 13.499
50 AF2 121 13.011
50 AF2 122 11.546
50 AF2 123 9.593
50 AF2 124 8.128
50 AF2 125 7.151
50 AF2 126 7.640
50 AF2 127 9.104
50 AF2 128 9.593
50 AF2 129 9.593
50 AF2 130 8.128
50 AF2 131 6.175
50 AF2 132 4.710
50 AF2 133 4.222
50 AF2 134 5.198
50 AF2 135 6.663
50 AF2 136 6.663
50 AF2 137 6.663
50 AF2 138 5.686
50 AF2 139 5.198
50 AF2 140 5.686
50 AF2 141 6.663
50 AF2 142 8.128
50 AF2 143 8.616
50 AF2 144 7.640
50 AF2 145 6.663
50 AF2 146 5.686
50 AF2 147 5.686
50 AF2 148 7.640
50 AF2 149 9.104
50 AF2 150 9.593
50 AF2 151 9.593
50 AF2 152 8.616
50 AF2 153 7.640
50 AF2 154 7.640
50 AF2 155 8.128
50 AF2 156 8.128
50 AF2 157 7.151
50 AF2 158 5.686
50 AF2 159 3.245
50 AF2 160 1.292
50 AF2 161 -0.173
50 AF2 162 -0.661
50 AF2 163 -1.638
50 AF2 164 -2.614
50 AF2 165 -4.079
50 AF2 166 -5.544
50 AF2 167 -5.544
50 AF2 168 -4.079
50 AF2 169 -1.638
50 AF2 170 -0.173
50 AF2 171 0.804
50 AF2 172 0.315
50 AF2 173 -0.661
50 AF2 174 -0.661
50 AF2 175 -0.173
50 AF2 176 1.292
50 AF2 177 2.268
50 AF2 178 2.757
50 AF2 179 2.757
50 AF2 180 2.757
50 AF2 181 4.222
50 AF2 182 6.175
50 AF2 183 8.616
50 AF2 184 10.569
50 AF2 185 11.546
50 AF2 186 11.546
50 AF2 187 12.034
50 AF2 188 13.011
50 AF2 189 13.987
50 AF2 190 15.452
50 AF2 191 15.940
50 AF2 192 15.940
50 AF2 193 15.452
50 AF2 194 13.987
50 AF2 195 13.011
50 AF2 196 12.522
50 AF2 197 11.546
50 AF2 198 11.058
50 AF2 199 10.081
50 AF2 200 9.104
50 AF2 201 8.128
50 AF2 202 7.151
50 AF2 203 6.663
50 AF2 204 6.663
50 AF2 205 6.663
50 AF2 206 7.151
50 AF2 207 6.663
50 AF2 208 6.175
50 AF2 209 5.198
50 AF2 210 4.222
50 AF2 211 2.757
50 AF2 212 1.780
50 AF2 213 0.804
50 AF2 214 -0.173
50 AF2 215 -0.661
50 AF2 216 -0.661
50 AF2 217 -0.173
50 AF2 218 0.315
50 AF2 219 0.804
50 AF2 220 1.780
50 AF2 221 3.245
50 AF2 222 5.198
50 AF2 223 6.663
50 AF2 224 6.663
50 AF2 225 6.175
50 AF2 226 5.198
50 AF2 227 4.222
50 AF2 228 3.733
50 AF2 229 3.733
50 AF2 230 4.710
50 AF2 231 4.710
50 AF2 232 4.710
50 AF2 233 4.222
50 AF2 234 3.733
50 AF2 235 3.245
50 AF2 236 2.757
50 AF2 237 1.780
50 AF2 238 0.804
50 AF2 239 0.804
50 AF2 240 1.780
50 AF2 241 3.245
50 AF2 242 4.710
50 AF2 243 5.198
50 AF2 244 4.222
50 AF2 245 2.757
50 AF2 246 1.780
50 AF2 247 1.292
50 AF2 248 1.780
50 AF2 249 2.757
50 AF2 250 3.245
50 AF2 251 3.245
50 AF2 252 3.245
50 AF2 253 3.733
50 AF2 254 3.733
50 AF2 255 3.733
# FZ chan 6
50 FZ 0 -8.972
50 FZ 1 -9.949
50 FZ 2 -9.949
50 FZ 3 -10.437
50 FZ 4 -10.925
50 FZ 5 -11.902
50 FZ 6 -12.390
50 FZ 7 -12.390
50 FZ 8 -11.902
50 FZ 9 -11.414
50 FZ 10 -10.437
50 FZ 11 -10.437
50 FZ 12 -9.949
50 FZ 13 -9.460
50 FZ 14 -7.996
50 FZ 15 -6.531
50 FZ 16 -4.578
50 FZ 17 -3.113
50 FZ 18 -1.648
50 FZ 19 -0.671
50 FZ 20 0.793
50 FZ 21 2.258
50 FZ 22 3.235
50 FZ 23 4.700
50 FZ 24 5.676
50 FZ 25 6.165
50 FZ 26 6.653
50 FZ 27 6.653
50 FZ 28 6.653
50 FZ 29 6.165
50 FZ 30 6.165
50 FZ 31 7.141
50 FZ 32 8.606
50 FZ 33 10.071
50 FZ 34 11.047
50 FZ 35 11.047
50 FZ 36 11.536
50 FZ 37 12.512
50 FZ 38 13.489
50 FZ 39 14.954
50 FZ 40 15.930
50 FZ 41 15.930
50 FZ 42 15.442
50 FZ 43 15.442
50 FZ 44 14.954
50 FZ 45 14.465
50 FZ 46 13.977
50 FZ 47 12.024
50 FZ 48 10.559
50 FZ 49 8.606
50 FZ 50 7.629
50 FZ 51 7.629
50 FZ 52 8.118
50 FZ 53 8.606
50 FZ 54 9.094
50 FZ 55 9.583
50 FZ 56 9.094
50 FZ 57 8.118
50 FZ 58 6.653
50 FZ 59 6.653
50 FZ 60 6.653
50 FZ 61 8.118
50 FZ 62 9.094
50 FZ 63 10.071
50 FZ 64 9.583
50 FZ 65 9.094
50 FZ 66 7.629
50 FZ 67 6.653
50 FZ 68 6.653
50 FZ 69 6.165
50 FZ 70 5.676
50 FZ 71 4.700
50 FZ 72 4.211
50 FZ 73 4.211
50 FZ 74 5.188
50 FZ 75 7.141
50 FZ 76 8.118
50 FZ 77 9.094
50 FZ 78 9.583
50 FZ 79 9.583
50 FZ 80 10.559
50 FZ 81 11.047
50 FZ 82 11.047
50 FZ 83 11.047
50 FZ 84 11.047
50 FZ 85 11.047
50 FZ 86 12.024
50 FZ 87 13.000
50 FZ 88 13.977
50 FZ 89 14.954
50 FZ 90 15.442
50 FZ 91 15.930
50 FZ 92 15.930
50 FZ 93 16.418
50 FZ 94 15.930
50 FZ 95 15.930
50 FZ 96 15.930
50 FZ 97 16.418
50 FZ 98 16.907
50 FZ 99 18.372
50 FZ 100 19.348
50 FZ 101 19.836
50 FZ 102 19.836
50 FZ 103 19.348
50 FZ 104 18.372
50 FZ 105 17.395
50 FZ 106 16.418
50 FZ 107 15.930
50 FZ 108 15.442
50 FZ 109 15.442
50 FZ 110 15.930
50 FZ 111 15.930
50 FZ 112 15.442
50 FZ 113 14.465
50 FZ 114 13.000
50 FZ 115 12.024
50 FZ 116 10.559
50 FZ 117 10.071
50 FZ 118 10.071
50 FZ 119 10.071
50 FZ 120 10.559
50 FZ 121 10.559
50 FZ 122 9.583
50 FZ 123 7.629
50 FZ 124 5.676
50 FZ 125 4.211
50 FZ 126 4.700
50 FZ 127 5.676
50 FZ 128 7.141
50 FZ 129 7.629
50 FZ 130 6.653
50 FZ 131 5.188
50 FZ 132 4.211
50 FZ 133 4.700
50 FZ 134 5.676
50 FZ 135 7.141
50 FZ 136 8.118
50 FZ 137 8.606
50 FZ 138 8.118
50 FZ 139 8.118
50 FZ 140 9.094
50 FZ 141 10.071
50 FZ 142 11.047
50 FZ 143 11.536
50 FZ 144 11.536
50 FZ 145 11.047
50 FZ 146 11.047
50 FZ 147 12.024
50 FZ 148 13.000
50 FZ 149 13.977
50 FZ 150 14.465
50 FZ 151 13.977
50 FZ 152 12.512
50 FZ 153 11.047
50 FZ 154 10.559
50 FZ 155 10.559
50 FZ 156 10.071
50 FZ 157 9.583
50 FZ 158 8.118
50 FZ 159 6.653
50 FZ 160 4.700
50 FZ 161 3.235
50 FZ 162 2.258
50 FZ 163 0.793
50 FZ 164 -0.183
50 FZ 165 -0.671
50 FZ 166 -1.160
50 FZ 167 -1.160
50 FZ 168 0.305
50 FZ 169 1.770
50 FZ 170 3.235
50 FZ 171 3.723
50 FZ 172 3.723
50 FZ 173 3.723
50 FZ 174 3.723
50 FZ 175 4.700
50 FZ 176 5.676
50 FZ 177 6.165
50 FZ 178 6.165
50 FZ 179 6.165
50 FZ 180 6.653
50 FZ 181 7.629
50 FZ 182 8.606
50 FZ 183 10.071
50 FZ 184 10.559
50 FZ 185 10.559
50 FZ 186 10.559
50 FZ 187 10.559
50 FZ 188 11.047
50 FZ 189 12.024
50 FZ 190 13.000
50 FZ 191 13.489
50 FZ 192 13.977
50 FZ 193 13.977
50 FZ 194 13.489
50 FZ 195 12.512
50 FZ 196 12.024
50 FZ 197 11.047
50 FZ 198 10.559
50 FZ 199 9.583
50 FZ 200 8.606
50 FZ 201 8.118
50 FZ 202 7.629
50 FZ 203 7.141
50 FZ 204 7.629
50 FZ 205 7.629
50 FZ 206 7.141
50 FZ 207 6.653
50 FZ 208 5.676
50 FZ 209 4.700
50 FZ 210 4.211
50 FZ 211 3.723
50 FZ 212 3.235
50 FZ 213 2.747
50 FZ 214 1.770
50 FZ 215 0.793
50 FZ 216 0.793
50 FZ 217 1.282
50 FZ 218 2.747
50 FZ 219 3.723
50 FZ 220 4.700
50 FZ 221 5.676
50 FZ 222 6.653
50 FZ 223 7.141
50 FZ 224 7.141
50 FZ 225 6.165
50 FZ 226 5.676
50 FZ 227 4.700
50 FZ 228 4.211
50 FZ 229 4.211
50 FZ 230 4.211
50 FZ 231 4.211
50 FZ 232 3.723
50 FZ 233 3.235
50 FZ 234 2.747
50 FZ 235 2.747
50 FZ 236 1.770
50 FZ 237 1.282
50 FZ 238 0.305
50 FZ 239 0.305
50 FZ 240 0.793
50 FZ 241 1.770
50 FZ 242 2.258
50 FZ 243 2.258
50 FZ 244 1.770
50 FZ 245 1.282
50 FZ 246 0.793
50 FZ 247 0.305
50 FZ 248 0.305
50 FZ 249 0.305
50 FZ 250 0.305
50 FZ 251 0.305
50 FZ 252 0.305
50 FZ 253 0.793
50 FZ 254 1.282
50 FZ 255 0.793
# F4 chan 7
50 F4 0 -5.524
50 F4 1 -6.500
50 F4 2 -6.989
50 F4 3 -7.965
50 F4 4 -8.942
50 F4 5 -10.406
50 F4 6 -10.895
50 F4 7 -11.383
50 F4 8 -10.895
50 F4 9 -10.406
50 F4 10 -10.406
50 F4 11 -10.406
50 F4 12 -11.383
50 F4 13 -11.383
50 F4 14 -10.406
50 F4 15 -8.942
50 F4 16 -7.477
50 F4 17 -6.012
50 F4 18 -4.547
50 F4 19 -3.571
50 F4 20 -2.106
50 F4 21 -0.641
50 F4 22 0.336
50 F4 23 0.824
50 F4 24 1.312
50 F4 25 1.312
50 F4 26 1.312
50 F4 27 1.312
50 F4 28 1.801
50 F4 29 2.289
50 F4 30 3.265
50 F4 31 4.730
50 F4 32 6.195
50 F4 33 7.660
50 F4 34 8.148
50 F4 35 7.660
50 F4 36 7.660
50 F4 37 8.148
50 F4 38 9.125
50 F4 39 10.590
50 F4 40 11.566
50 F4 41 11.566
50 F4 42 10.590
50 F4 43 9.613
50 F4 44 8.636
50 F4 45 7.660
50 F4 46 6.683
50 F4 47 5.707
50 F4 48 4.242
50 F4 49 2.777
50 F4 50 1.801
50 F4 51 1.801
50 F4 52 2.289
50 F4 53 3.754
50 F4 54 5.219
50 F4 55 6.683
50 F4 56 6.683
50 F4 57 5.707
50 F4 58 3.754
50 F4 59 2.289
50 F4 60 1.801
50 F4 61 2.777
50 F4 62 3.754
50 F4 63 5.219
50 F4 64 5.707
50 F4 65 5.219
50 F4 66 4.730
50 F4 67 3.754
50 F4 68 3.754
50 F4 69 2.289
50 F4 70 1.312
50 F4 71 -0.641
50 F4 72 -2.106
50 F4 73 -2.594
50 F4 74 -1.617
50 F4 75 -0.153
50 F4 76 0.824
50 F4 77 1.312
50 F4 78 1.801
50 F4 79 2.289
50 F4 80 3.265
50 F4 81 4.730
50 F4 82 6.195
50 F4 83 6.683
50 F4 84 6.683
50 F4 85 6.195
50 F4 86 5.707
50 F4 87 5.707
50 F4 88 6.683
50 F4 89 7.172
50 F4 90 8.148
50 F4 91 9.125
50 F4 92 9.125
50 F4 93 9.125
50 F4 94 9.125
50 F4 95 8.636
50 F4 96 8.148
50 F4 97 8.636
50 F4 98 9.125
50 F4 99 10.101
50 F4 100 11.078
50 F4 101 11.078
50 F4 102 10.101
50 F4 103 9.125
50 F4 104 9.125
50 F4 105 9.613
50 F4 106 10.590
50 F4 107 11.078
50 F4 108 11.566
50 F4 109 11.566
50 F4 110 11.566
50 F4 111 12.543
50 F4 112 13.031
50 F4 113 12.543
50 F4 114 10.590
50 F4 115 8.636
50 F4 116 7.172
50 F4 117 6.683
50 F4 118 7.172
50 F4 119 8.148
50 F4 120 8.148
50 F4 121 7.660
50 F4 122 6.195
50 F4 123 4.730
50 F4 124 3.754
50 F4 125 3.754
50 F4 126 4.730
50 F4 127 6.195
50 F4 128 7.172
50 F4 129 6.683
50 F4 130 5.707
50 F4 131 4.242
50 F4 132 3.265
50 F4 133 3.265
50 F4 134 4.242
50 F4 135 5.707
50 F4 136 6.683
50 F4 137 6.683
50 F4 138 6.195
50 F4 139 5.219
50 F4 140 4.730
50 F4 141 5.219
50 F4 142 5.219
50 F4 143 5.707
50 F4 144 5.219
50 F4 145 4.730
50 F4 146 4.730
50 F4 147 5.707
50 F4 148 6.683
50 F4 149 7.660
50 F4 150 7.660
50 F4 151 6.683
50 F4 152 5.707
50 F4 153 4.242
50 F4 154 3.754
50 F4 155 4.242
50 F4 156 4.242
50 F4 157 3.754
50 F4 158 1.801
50 F4 159 -0.153
50 F4 160 -1.617
50 F4 161 -2.594
50 F4 162 -3.082
50 F4 163 -3.571
50 F4 164 -4.059
50 F4 165 -5.035
50 F4 166 -5.524
50 F4 167 -5.524
50 F4 168 -4.547
50 F4 169 -2.594
50 F4 170 -1.129
50 F4 171 -0.641
50 F4 172 -0.641
50 F4 173 -1.129
50 F4 174 -0.641
50 F4 175 0.336
50 F4 176 1.312
50 F4 177 1.801
50 F4 178 1.312
50 F4 179 1.312
50 F4 180 1.312
50 F4 181 2.777
50 F4 182 4.730
50 F4 183 7.172
50 F4 184 8.636
50 F4 185 9.613
50 F4 186 9.613
50 F4 187 10.590
50 F4 188 11.078
50 F4 189 12.054
50 F4 190 12.054
50 F4 191 12.054
50 F4 192 11.078
50 F4 193 9.613
50 F4 194 8.636
50 F4 195 7.172
50 F4 196 6.195
50 F4 197 5.707
50 F4 198 5.219
50 F4 199 4.730
50 F4 200 3.265
50 F4 201 2.289
50 F4 202 1.312
50 F4 203 0.824
50 F4 204 1.312
50 F4 205 1.312
50 F4 206 0.824
50 F4 207 -0.153
50 F4 208 -1.617
50 F4 209 -2.594
50 F4 210 -3.082
50 F4 211 -3.082
50 F4 212 -3.082
50 F4 213 -3.571
50 F4 214 -4.059
50 F4 215 -4.547
50 F4 216 -4.059
50 F4 217 -4.059
50 F4 218 -4.059
50 F4 219 -3.571
50 F4 220 -3.082
50 F4 221 -2.106
50 F4 222 -0.153
50 F4 223 1.312
50 F4 224 2.289
50 F4 225 1.801
50 F4 226 1.312
50 F4 227 0.336
50 F4 228 0.336
50 F4 229 0.824
50 F4 230 0.824
50 F4 231 0.336
50 F4 232 0.336
50 F4 233 -0.641
50 F4 234 -0.641
50 F4 235 -1.129
50 F4 236 -1.129
50 F4 237 -2.106
50 F4 238 -2.106
50 F4 239 -2.106
50 F4 240 -1.617
50 F4 241 -0.153
50 F4 242 0.336
50 F4 243 0.824
50 F4 244 -0.641
50 F4 245 -2.106
50 F4 246 -3.082
50 F4 247 -3.571
50 F4 248 -3.082
50 F4 249 -2.594
50 F4 250 -2.106
50 F4 251 -2.106
50 F4 252 -1.617
50 F4 253 -1.617
50 F4 254 -1.617
50 F4 255 -2.594
# F3 chan 8
50 F3 0 -11.515
50 F3 1 -12.492
50 F3 2 -13.468
50 F3 3 -14.445
50 F3 4 -15.422
50 F3 5 -16.886
50 F3 6 -17.375
50 F3 7 -17.375
50 F3 8 -16.886
50 F3 9 -15.910
50 F3 10 -14.933
50 F3 11 -14.445
50 F3 12 -13.468
50 F3 13 -12.492
50 F3 14 -10.539
50 F3 15 -8.097
50 F3 16 -6.144
50 F3 17 -3.703
50 F3 18 -2.238
50 F3 19 -0.773
50 F3 20 0.692
50 F3 21 2.645
50 F3 22 3.621
50 F3 23 4.598
50 F3 24 5.575
50 F3 25 6.551
50 F3 26 6.551
50 F3 27 6.551
50 F3 28 6.063
50 F3 29 5.086
50 F3 30 4.110
50 F3 31 4.110
50 F3 32 5.086
50 F3 33 6.551
50 F3 34 8.016
50 F3 35 9.481
50 F3 36 10.457
50 F3 37 11.434
50 F3 38 12.899
50 F3 39 14.852
50 F3 40 15.828
50 F3 41 16.317
50 F3 42 16.317
50 F3 43 15.828
50 F3 44 14.852
50 F3 45 14.852
50 F3 46 14.364
50 F3 47 13.875
50 F3 48 12.410
50 F3 49 10.946
50 F3 50 9.481
50 F3 51 8.504
50 F3 52 8.504
50 F3 53 8.504
50 F3 54 9.481
50 F3 55 9.481
50 F3 56 8.993
50 F3 57 7.528
50 F3 58 6.063
50 F3 59 5.086
50 F3 60 5.575
50 F3 61 6.551
50 F3 62 7.528
50 F3 63 7.528
50 F3 64 6.551
50 F3 65 5.086
50 F3 66 4.110
50 F3 67 3.621
50 F3 68 4.110
50 F3 69 4.110
50 F3 70 3.133
50 F3 71 2.157
50 F3 72 1.180
50 F3 73 1.180
50 F3 74 2.645
50 F3 75 4.110
50 F3 76 6.063
50 F3 77 7.039
50 F3 78 7.528
50 F3 79 7.528
50 F3 80 7.528
50 F3 81 7.528
50 F3 82 7.528
50 F3 83 7.039
50 F3 84 7.039
50 F3 85 7.528
50 F3 86 8.504
50 F3 87 9.969
50 F3 88 11.434
50 F3 89 12.410
50 F3 90 12.899
50 F3 91 12.899
50 F3 92 12.899
50 F3 93 12.410
50 F3 94 11.922
50 F3 95 10.946
50 F3 96 10.457
50 F3 97 10.457
50 F3 98 11.922
50 F3 99 13.875
50 F3 100 15.828
50 F3 101 17.293
50 F3 102 17.782
50 F3 103 16.805
50 F3 104 15.340
50 F3 105 13.387
50 F3 106 11.922
50 F3 107 10.946
50 F3 108 11.434
50 F3 109 11.922
50 F3 110 13.387
50 F3 111 13.875
50 F3 112 13.387
50 F3 113 11.922
50 F3 114 10.457
50 F3 115 9.481
50 F3 116 8.504
50 F3 117 8.993
50 F3 118 9.481
50 F3 119 10.457
50 F3 120 10.457
50 F3 121 10.457
50 F3 122 9.969
50 F3 123 8.016
50 F3 124 6.063
50 F3 125 5.086
50 F3 126 4.598
50 F3 127 5.575
50 F3 128 6.063
50 F3 129 6.063
50 F3 130 5.086
50 F3 131 3.133
50 F3 132 1.668
50 F3 133 1.180
50 F3 134 2.157
50 F3 135 3.621
50 F3 136 4.598
50 F3 137 4.598
50 F3 138 4.110
50 F3 139 3.621
50 F3 140 4.110
50 F3 141 5.575
50 F3 142 7.039
50 F3 143 8.016
50 F3 144 8.016
50 F3 145 7.039
50 F3 146 6.063
50 F3 147 6.551
50 F3 148 7.528
50 F3 149 8.504
50 F3 150 8.504
50 F3 151 8.504
50 F3 152 7.039
50 F3 153 6.063
50 F3 154 5.575
50 F3 155 5.086
50 F3 156 5.086
50 F3 157 4.110
50 F3 158 2.645
50 F3 159 1.180
50 F3 160 -0.773
50 F3 161 -2.238
50 F3 162 -3.215
50 F3 163 -3.703
50 F3 164 -4.191
50 F3 165 -4.679
50 F3 166 -4.679
50 F3 167 -4.191
50 F3 168 -2.726
50 F3 169 -1.261
50 F3 170 0.203
50 F3 171 0.692
50 F3 172 1.668
50 F3 173 1.668
50 F3 174 3.133
50 F3 175 4.598
50 F3 176 6.063
50 F3 177 7.039
50 F3 178 7.039
50 F3 179 6.063
50 F3 180 6.063
50 F3 181 6.551
50 F3 182 7.528
50 F3 183 8.504
50 F3 184 9.481
50 F3 185 9.481
50 F3 186 9.969
50 F3 187 9.969
50 F3 188 10.946
50 F3 189 11.922
50 F3 190 13.387
50 F3 191 14.364
50 F3 192 14.852
50 F3 193 14.852
50 F3 194 14.852
50 F3 195 14.364
50 F3 196 13.875
50 F3 197 13.875
50 F3 198 12.899
50 F3 199 12.410
50 F3 200 11.922
50 F3 201 10.946
50 F3 202 10.457
50 F3 203 9.969
50 F3 204 9.969
50 F3 205 9.481
50 F3 206 8.993
50 F3 207 8.016
50 F3 208 7.528
50 F3 209 7.528
50 F3 210 7.528
50 F3 211 7.039
50 F3 212 6.063
50 F3 213 4.598
50 F3 214 3.133
50 F3 215 1.668
50 F3 216 1.180
50 F3 217 1.668
50 F3 218 2.645
50 F3 219 4.110
50 F3 220 4.598
50 F3 221 5.086
50 F3 222 5.575
50 F3 223 5.575
50 F3 224 5.086
50 F3 225 4.110
50 F3 226 2.645
50 F3 227 1.180
50 F3 228 0.692
50 F3 229 0.203
50 F3 230 0.692
50 F3 231 1.180
50 F3 232 1.180
50 F3 233 1.668
50 F3 234 1.668
50 F3 235 1.180
50 F3 236 1.180
50 F3 237 0.692
50 F3 238 0.203
50 F3 239 0.692
50 F3 240 2.157
50 F3 241 4.110
50 F3 242 5.575
50 F3 243 6.551
50 F3 244 6.063
50 F3 245 5.086
50 F3 246 4.110
50 F3 247 3.133
50 F3 248 3.133
50 F3 249 2.645
50 F3 250 2.645
50 F3 251 2.645
50 F3 252 3.133
50 F3 253 4.110
50 F3 254 5.086
50 F3 255 5.575
# FC6 chan 9
50 FC6 0 -3.408
50 FC6 1 -4.384
50 FC6 2 -5.849
50 FC6 3 -7.314
50 FC6 4 -9.267
50 FC6 5 -10.244
50 FC6 6 -10.732
50 FC6 7 -10.244
50 FC6 8 -9.755
50 FC6 9 -9.267
50 FC6 10 -9.267
50 FC6 11 -9.755
50 FC6 12 -9.755
50 FC6 13 -9.267
50 FC6 14 -8.291
50 FC6 15 -7.314
50 FC6 16 -5.849
50 FC6 17 -4.384
50 FC6 18 -2.920
50 FC6 19 -0.966
50 FC6 20 0.010
50 FC6 21 0.987
50 FC6 22 0.987
50 FC6 23 0.498
50 FC6 24 -0.478
50 FC6 25 -0.966
50 FC6 26 -0.966
50 FC6 27 -0.966
50 FC6 28 -0.478
50 FC6 29 0.498
50 FC6 30 1.475
50 FC6 31 3.916
50 FC6 32 5.870
50 FC6 33 6.846
50 FC6 34 6.846
50 FC6 35 6.358
50 FC6 36 5.870
50 FC6 37 6.358
50 FC6 38 7.823
50 FC6 39 9.288
50 FC6 40 9.776
50 FC6 41 9.288
50 FC6 42 7.334
50 FC6 43 5.381
50 FC6 44 3.916
50 FC6 45 2.940
50 FC6 46 3.428
50 FC6 47 3.916
50 FC6 48 4.893
50 FC6 49 4.405
50 FC6 50 3.916
50 FC6 51 3.428
50 FC6 52 3.428
50 FC6 53 4.893
50 FC6 54 6.358
50 FC6 55 7.823
50 FC6 56 8.311
50 FC6 57 7.334
50 FC6 58 5.381
50 FC6 59 3.916
50 FC6 60 2.940
50 FC6 61 2.940
50 FC6 62 3.916
50 FC6 63 4.405
50 FC6 64 4.405
50 FC6 65 4.405
50 FC6 66 4.405
50 FC6 67 3.916
50 FC6 68 3.428
50 FC6 69 1.963
50 FC6 70 0.010
50 FC6 71 -2.920
50 FC6 72 -5.361
50 FC6 73 -6.337
50 FC6 74 -6.337
50 FC6 75 -5.849
50 FC6 76 -5.361
50 FC6 77 -4.873
50 FC6 78 -4.384
50 FC6 79 -3.408
50 FC6 80 -1.943
50 FC6 81 -0.478
50 FC6 82 0.987
50 FC6 83 0.987
50 FC6 84 0.987
50 FC6 85 0.498
50 FC6 86 0.010
50 FC6 87 0.010
50 FC6 88 0.010
50 FC6 89 0.498
50 FC6 90 0.987
50 FC6 91 1.475
50 FC6 92 1.963
50 FC6 93 1.963
50 FC6 94 0.987
50 FC6 95 0.010
50 FC6 96 -0.478
50 FC6 97 -0.478
50 FC6 98 0.010
50 FC6 99 0.987
50 FC6 100 0.987
50 FC6 101 -0.478
50 FC6 102 -1.455
50 FC6 103 -2.920
50 FC6 104 -2.920
50 FC6 105 -1.455
50 FC6 106 0.987
50 FC6 107 2.452
50 FC6 108 2.940
50 FC6 109 3.428
50 FC6 110 3.916
50 FC6 111 4.405
50 FC6 112 4.893
50 FC6 113 4.893
50 FC6 114 3.916
50 FC6 115 2.940
50 FC6 116 1.963
50 FC6 117 2.452
50 FC6 118 2.940
50 FC6 119 4.405
50 FC6 120 4.893
50 FC6 121 5.381
50 FC6 122 4.893
50 FC6 123 4.893
50 FC6 124 4.893
50 FC6 125 5.381
50 FC6 126 6.358
50 FC6 127 6.846
50 FC6 128 6.846
50 FC6 129 5.870
50 FC6 130 4.405
50 FC6 131 2.940
50 FC6 132 2.452
50 FC6 133 2.452
50 FC6 134 2.940
50 FC6 135 3.428
50 FC6 136 3.428
50 FC6 137 2.452
50 FC6 138 1.963
50 FC6 139 1.963
50 FC6 140 2.452
50 FC6 141 3.428
50 FC6 142 3.916
50 FC6 143 3.428
50 FC6 144 2.452
50 FC6 145 0.987
50 FC6 146 0.010
50 FC6 147 0.010
50 FC6 148 0.987
50 FC6 149 2.452
50 FC6 150 2.940
50 FC6 151 3.916
50 FC6 152 3.916
50 FC6 153 3.428
50 FC6 154 3.428
50 FC6 155 3.428
50 FC6 156 3.428
50 FC6 157 2.940
50 FC6 158 2.452
50 FC6 159 1.963
50 FC6 160 1.963
50 FC6 161 1.963
50 FC6 162 1.963
50 FC6 163 2.452
50 FC6 164 1.963
50 FC6 165 1.963
50 FC6 166 1.963
50 FC6 167 1.963
50 FC6 168 2.940
50 FC6 169 3.428
50 FC6 170 3.916
50 FC6 171 4.893
50 FC6 172 4.893
50 FC6 173 4.893
50 FC6 174 4.405
50 FC6 175 4.405
50 FC6 176 3.916
50 FC6 177 3.916
50 FC6 178 3.916
50 FC6 179 4.405
50 FC6 180 5.381
50 FC6 181 7.334
50 FC6 182 9.288
50 FC6 183 11.241
50 FC6 184 12.705
50 FC6 185 14.170
50 FC6 186 16.123
50 FC6 187 17.588
50 FC6 188 19.541
50 FC6 189 20.030
50 FC6 190 19.541
50 FC6 191 18.077
50 FC6 192 16.123
50 FC6 193 14.170
50 FC6 194 13.194
50 FC6 195 12.217
50 FC6 196 11.729
50 FC6 197 11.729
50 FC6 198 11.241
50 FC6 199 11.241
50 FC6 200 9.776
50 FC6 201 8.311
50 FC6 202 6.846
50 FC6 203 6.358
50 FC6 204 6.358
50 FC6 205 6.846
50 FC6 206 6.846
50 FC6 207 6.358
50 FC6 208 5.870
50 FC6 209 4.893
50 FC6 210 3.916
50 FC6 211 3.428
50 FC6 212 2.940
50 FC6 213 2.940
50 FC6 214 2.940
50 FC6 215 2.452
50 FC6 216 2.452
50 FC6 217 1.963
50 FC6 218 1.963
50 FC6 219 0.987
50 FC6 220 1.475
50 FC6 221 2.452
50 FC6 222 3.916
50 FC6 223 5.381
50 FC6 224 5.870
50 FC6 225 5.870
50 FC6 226 5.381
50 FC6 227 4.405
50 FC6 228 4.405
50 FC6 229 4.893
50 FC6 230 4.893
50 FC6 231 5.381
50 FC6 232 4.893
50 FC6 233 3.916
50 FC6 234 2.452
50 FC6 235 1.963
50 FC6 236 0.987
50 FC6 237 0.987
50 FC6 238 1.475
50 FC6 239 2.452
50 FC6 240 3.916
50 FC6 241 5.870
50 FC6 242 7.334
50 FC6 243 7.823
50 FC6 244 7.334
50 FC6 245 5.870
50 FC6 246 4.405
50 FC6 247 3.916
50 FC6 248 3.916
50 FC6 249 4.405
50 FC6 250 5.870
50 FC6 251 6.846
50 FC6 252 7.334
50 FC6 253 6.846
50 FC6 254 5.870
50 FC6 255 3.916
# FC5 chan 10
50 FC5 0 -9.603
50 FC5 1 -10.579
50 FC5 2 -11.556
50 FC5 3 -12.044
50 FC5 4 -13.021
50 FC5 5 -14.486
50 FC5 6 -14.974
50 FC5 7 -15.462
50 FC5 8 -15.462
50 FC5 9 -14.974
50 FC5 10 -14.486
50 FC5 11 -13.509
50 FC5 12 -12.044
50 FC5 13 -10.091
50 FC5 14 -7.650
50 FC5 15 -5.208
50 FC5 16 -3.255
50 FC5 17 -1.302
50 FC5 18 0.651
50 FC5 19 2.116
50 FC5 20 3.581
50 FC5 21 5.046
50 FC5 22 5.046
50 FC5 23 5.046
50 FC5 24 5.046
50 FC5 25 4.557
50 FC5 26 5.046
50 FC5 27 4.557
50 FC5 28 3.581
50 FC5 29 2.116
50 FC5 30 0.651
50 FC5 31 -0.326
50 FC5 32 -0.326
50 FC5 33 0.163
50 FC5 34 1.628
50 FC5 35 2.604
50 FC5 36 3.581
50 FC5 37 5.534
50 FC5 38 7.975
50 FC5 39 9.928
50 FC5 40 11.882
50 FC5 41 12.370
50 FC5 42 11.882
50 FC5 43 10.417
50 FC5 44 9.440
50 FC5 45 9.440
50 FC5 46 10.417
50 FC5 47 11.393
50 FC5 48 11.393
50 FC5 49 9.928
50 FC5 50 7.975
50 FC5 51 6.510
50 FC5 52 6.022
50 FC5 53 6.999
50 FC5 54 7.975
50 FC5 55 8.464
50 FC5 56 7.487
50 FC5 57 6.022
50 FC5 58 4.557
50 FC5 59 4.069
50 FC5 60 4.557
50 FC5 61 5.046
50 FC5 62 5.046
50 FC5 63 4.069
50 FC5 64 1.628
50 FC5 65 0.163
50 FC5 66 -0.814
50 FC5 67 -0.326
50 FC5 68 0.651
50 FC5 69 0.651
50 FC5 70 -0.814
50 FC5 71 -2.279
50 FC5 72 -3.255
50 FC5 73 -3.743
50 FC5 74 -2.767
50 FC5 75 -1.302
50 FC5 76 -0.326
50 FC5 77 0.163
50 FC5 78 -0.326
50 FC5 79 -0.814
50 FC5 80 -1.302
50 FC5 81 -1.302
50 FC5 82 -0.814
50 FC5 83 0.163
50 FC5 84 0.651
50 FC5 85 1.139
50 FC5 86 2.116
50 FC5 87 2.604
50 FC5 88 3.581
50 FC5 89 4.069
50 FC5 90 4.069
50 FC5 91 4.069
50 FC5 92 4.069
50 FC5 93 3.581
50 FC5 94 2.604
50 FC5 95 1.628
50 FC5 96 1.139
50 FC5 97 1.628
50 FC5 98 2.604
50 FC5 99 4.557
50 FC5 100 6.999
50 FC5 101 8.464
50 FC5 102 8.952
50 FC5 103 7.487
50 FC5 104 5.534
50 FC5 105 3.092
50 FC5 106 2.116
50 FC5 107 2.116
50 FC5 108 2.604
50 FC5 109 4.069
50 FC5 110 5.046
50 FC5 111 5.046
50 FC5 112 4.557
50 FC5 113 4.069
50 FC5 114 3.581
50 FC5 115 3.581
50 FC5 116 4.069
50 FC5 117 5.534
50 FC5 118 6.999
50 FC5 119 7.975
50 FC5 120 8.952
50 FC5 121 9.440
50 FC5 122 9.440
50 FC5 123 8.952
50 FC5 124 7.975
50 FC5 125 6.510
50 FC5 126 5.534
50 FC5 127 5.046
50 FC5 128 5.046
50 FC5 129 4.557
50 FC5 130 3.581
50 FC5 131 2.116
50 FC5 132 0.651
50 FC5 133 -0.814
50 FC5 134 -0.814
50 FC5 135 -0.326
50 FC5 136 -0.326
50 FC5 137 -0.326
50 FC5 138 -1.302
50 FC5 139 -2.279
50 FC5 140 -2.279
50 FC5 141 -1.790
50 FC5 142 -0.326
50 FC5 143 0.651
50 FC5 144 0.651
50 FC5 145 0.163
50 FC5 146 -0.326
50 FC5 147 -0.326
50 FC5 148 -0.326
50 FC5 149 0.651
50 FC5 150 1.139
50 FC5 151 1.628
50 FC5 152 1.628
50 FC5 153 1.628
50 FC5 154 1.628
50 FC5 155 2.116
50 FC5 156 1.628
50 FC5 157 1.139
50 FC5 158 -0.326
50 FC5 159 -1.302
50 FC5 160 -1.790
50 FC5 161 -2.279
50 FC5 162 -2.767
50 FC5 163 -2.767
50 FC5 164 -3.255
50 FC5 165 -3.255
50 FC5 166 -2.767
50 FC5 167 -1.790
50 FC5 168 0.651
50 FC5 169 2.604
50 FC5 170 3.581
50 FC5 171 4.069
50 FC5 172 4.069
50 FC5 173 4.069
50 FC5 174 4.557
50 FC5 175 6.022
50 FC5 176 7.487
50 FC5 177 8.952
50 FC5 178 9.440
50 FC5 179 8.952
50 FC5 180 8.464
50 FC5 181 8.464
50 FC5 182 8.464
50 FC5 183 9.440
50 FC5 184 9.928
50 FC5 185 10.417
50 FC5 186 11.393
50 FC5 187 12.858
50 FC5 188 14.323
50 FC5 189 15.299
50 FC5 190 15.788
50 FC5 191 16.276
50 FC5 192 15.788
50 FC5 193 16.276
50 FC5 194 16.276
50 FC5 195 16.276
50 FC5 196 15.788
50 FC5 197 15.299
50 FC5 198 14.323
50 FC5 199 13.835
50 FC5 200 12.858
50 FC5 201 12.370
50 FC5 202 11.882
50 FC5 203 11.393
50 FC5 204 11.393
50 FC5 205 11.393
50 FC5 206 10.417
50 FC5 207 8.952
50 FC5 208 7.975
50 FC5 209 6.999
50 FC5 210 6.999
50 FC5 211 6.999
50 FC5 212 6.999
50 FC5 213 6.022
50 FC5 214 3.581
50 FC5 215 1.628
50 FC5 216 0.163
50 FC5 217 -0.326
50 FC5 218 0.163
50 FC5 219 0.651
50 FC5 220 1.139
50 FC5 221 0.651
50 FC5 222 0.651
50 FC5 223 0.163
50 FC5 224 -0.326
50 FC5 225 -1.302
50 FC5 226 -2.279
50 FC5 227 -3.743
50 FC5 228 -4.720
50 FC5 229 -5.208
50 FC5 230 -5.208
50 FC5 231 -4.232
50 FC5 232 -3.743
50 FC5 233 -2.767
50 FC5 234 -2.279
50 FC5 235 -2.767
50 FC5 236 -2.767
50 FC5 237 -3.255
50 FC5 238 -3.743
50 FC5 239 -2.767
50 FC5 240 -0.326
50 FC5 241 2.604
50 FC5 242 5.534
50 FC5 243 7.487
50 FC5 244 7.487
50 FC5 245 6.999
50 FC5 246 5.534
50 FC5 247 5.046
50 FC5 248 4.557
50 FC5 249 4.557
50 FC5 250 4.557
50 FC5 251 4.557
50 FC5 252 4.557
50 FC5 253 5.046
50 FC5 254 6.022
50 FC5 255 6.510
# FC2 chan 11
50 FC2 0 -4.384
50 FC2 1 -4.873
50 FC2 2 -5.361
50 FC2 3 -5.361
50 FC2 4 -5.361
50 FC2 5 -5.849
50 FC2 6 -6.337
50 FC2 7 -6.337
50 FC2 8 -6.337
50 FC2 9 -6.337
50 FC2 10 -5.849
50 FC2 11 -4.873
50 FC2 12 -4.873
50 FC2 13 -4.873
50 FC2 14 -4.873
50 FC2 15 -4.384
50 FC2 16 -3.896
50 FC2 17 -2.920
50 FC2 18 -1.943
50 FC2 19 -0.966
50 FC2 20 -0.478
50 FC2 21 -0.478
50 FC2 22 0.010
50 FC2 23 0.498
50 FC2 24 0.987
50 FC2 25 1.963
50 FC2 26 1.963
50 FC2 27 1.963
50 FC2 28 1.475
50 FC2 29 1.963
50 FC2 30 2.940
50 FC2 31 3.916
50 FC2 32 4.893
50 FC2 33 4.893
50 FC2 34 4.893
50 FC2 35 4.405
50 FC2 36 3.916
50 FC2 37 3.428
50 FC2 38 3.916
50 FC2 39 4.405
50 FC2 40 4.405
50 FC2 41 4.893
50 FC2 42 4.893
50 FC2 43 4.405
50 FC2 44 3.916
50 FC2 45 3.428
50 FC2 46 2.940
50 FC2 47 2.452
50 FC2 48 2.452
50 FC2 49 1.475
50 FC2 50 0.987
50 FC2 51 0.987
50 FC2 52 1.963
50 FC2 53 2.940
50 FC2 54 4.405
50 FC2 55 4.893
50 FC2 56 5.381
50 FC2 57 4.405
50 FC2 58 2.940
50 FC2 59 1.963
50 FC2 60 1.963
50 FC2 61 2.940
50 FC2 62 3.916
50 FC2 63 4.893
50 FC2 64 5.381
50 FC2 65 4.893
50 FC2 66 4.405
50 FC2 67 3.916
50 FC2 68 3.916
50 FC2 69 2.940
50 FC2 70 1.963
50 FC2 71 0.987
50 FC2 72 0.010
50 FC2 73 -0.478
50 FC2 74 0.498
50 FC2 75 0.987
50 FC2 76 2.452
50 FC2 77 2.940
50 FC2 78 3.428
50 FC2 79 3.916
50 FC2 80 4.893
50 FC2 81 5.870
50 FC2 82 6.846
50 FC2 83 6.846
50 FC2 84 6.358
50 FC2 85 5.381
50 FC2 86 5.381
50 FC2 87 5.870
50 FC2 88 6.358
50 FC2 89 6.846
50 FC2 90 7.334
50 FC2 91 7.334
50 FC2 92 6.846
50 FC2 93 6.846
50 FC2 94 6.846
50 FC2 95 7.334
50 FC2 96 6.846
50 FC2 97 7.334
50 FC2 98 7.334
50 FC2 99 7.334
50 FC2 100 7.334
50 FC2 101 7.334
50 FC2 102 6.846
50 FC2 103 6.358
50 FC2 104 6.358
50 FC2 105 6.358
50 FC2 106 7.334
50 FC2 107 7.823
50 FC2 108 8.799
50 FC2 109 8.799
50 FC2 110 8.799
50 FC2 111 8.799
50 FC2 112 8.311
50 FC2 113 7.334
50 FC2 114 6.358
50 FC2 115 4.893
50 FC2 116 3.916
50 FC2 117 2.940
50 FC2 118 2.940
50 FC2 119 2.940
50 FC2 120 3.428
50 FC2 121 3.428
50 FC2 122 3.428
50 FC2 123 2.452
50 FC2 124 1.963
50 FC2 125 1.475
50 FC2 126 1.963
50 FC2 127 2.940
50 FC2 128 3.428
50 FC2 129 3.428
50 FC2 130 2.940
50 FC2 131 1.963
50 FC2 132 0.987
50 FC2 133 1.475
50 FC2 134 1.963
50 FC2 135 2.452
50 FC2 136 2.940
50 FC2 137 3.428
50 FC2 138 3.428
50 FC2 139 3.428
50 FC2 140 3.916
50 FC2 141 3.916
50 FC2 142 4.405
50 FC2 143 4.405
50 FC2 144 4.405
50 FC2 145 4.405
50 FC2 146 4.893
50 FC2 147 5.381
50 FC2 148 5.870
50 FC2 149 6.358
50 FC2 150 6.358
50 FC2 151 6.358
50 FC2 152 5.381
50 FC2 153 4.893
50 FC2 154 4.405
50 FC2 155 4.405
50 FC2 156 4.405
50 FC2 157 4.405
50 FC2 158 3.916
50 FC2 159 2.940
50 FC2 160 1.475
50 FC2 161 0.987
50 FC2 162 0.498
50 FC2 163 0.010
50 FC2 164 -0.478
50 FC2 165 -1.455
50 FC2 166 -2.431
50 FC2 167 -2.920
50 FC2 168 -2.920
50 FC2 169 -1.943
50 FC2 170 -0.966
50 FC2 171 -0.478
50 FC2 172 -0.478
50 FC2 173 -0.966
50 FC2 174 -1.455
50 FC2 175 -1.455
50 FC2 176 -0.966
50 FC2 177 0.010
50 FC2 178 0.010
50 FC2 179 0.010
50 FC2 180 -0.478
50 FC2 181 0.010
50 FC2 182 0.498
50 FC2 183 1.963
50 FC2 184 2.940
50 FC2 185 3.916
50 FC2 186 4.405
50 FC2 187 4.893
50 FC2 188 4.893
50 FC2 189 4.893
50 FC2 190 5.381
50 FC2 191 4.893
50 FC2 192 4.405
50 FC2 193 3.428
50 FC2 194 2.452
50 FC2 195 1.475
50 FC2 196 0.987
50 FC2 197 0.987
50 FC2 198 0.987
50 FC2 199 0.498
50 FC2 200 0.010
50 FC2 201 -0.478
50 FC2 202 -0.966
50 FC2 203 -1.455
50 FC2 204 -0.966
50 FC2 205 -0.966
50 FC2 206 -0.966
50 FC2 207 -1.455
50 FC2 208 -1.943
50 FC2 209 -2.431
50 FC2 210 -2.431
50 FC2 211 -2.431
50 FC2 212 -1.943
50 FC2 213 -1.943
50 FC2 214 -1.943
50 FC2 215 -2.431
50 FC2 216 -1.943
50 FC2 217 -1.943
50 FC2 218 -1.455
50 FC2 219 -1.455
50 FC2 220 -0.966
50 FC2 221 0.010
50 FC2 222 0.987
50 FC2 223 1.475
50 FC2 224 1.963
50 FC2 225 1.475
50 FC2 226 1.475
50 FC2 227 0.987
50 FC2 228 0.987
50 FC2 229 0.987
50 FC2 230 0.987
50 FC2 231 0.498
50 FC2 232 0.010
50 FC2 233 -0.966
50 FC2 234 -1.455
50 FC2 235 -1.943
50 FC2 236 -2.431
50 FC2 237 -2.431
50 FC2 238 -2.431
50 FC2 239 -2.431
50 FC2 240 -2.431
50 FC2 241 -1.943
50 FC2 242 -1.455
50 FC2 243 -1.943
50 FC2 244 -2.431
50 FC2 245 -2.920
50 FC2 246 -3.408
50 FC2 247 -2.920
50 FC2 248 -2.431
50 FC2 249 -2.431
50 FC2 250 -2.431
50 FC2 251 -2.920
50 FC2 252 -2.920
50 FC2 253 -3.408
50 FC2 254 -3.408
50 FC2 255 -3.896
# FC1 chan 12
50 FC1 0 -4.303
50 FC1 1 -5.280
50 FC1 2 -5.280
50 FC1 3 -5.768
50 FC1 4 -5.768
50 FC1 5 -6.256
50 FC1 6 -6.256
50 FC1 7 -6.256
50 FC1 8 -5.768
50 FC1 9 -4.791
50 FC1 10 -4.303
50 FC1 11 -3.326
50 FC1 12 -3.326
50 FC1 13 -2.838
50 FC1 14 -1.862
50 FC1 15 -0.397
50 FC1 16 0.580
50 FC1 17 2.045
50 FC1 18 2.533
50 FC1 19 3.021
50 FC1 20 3.510
50 FC1 21 3.998
50 FC1 22 4.486
50 FC1 23 5.463
50 FC1 24 5.951
50 FC1 25 5.951
50 FC1 26 6.439
50 FC1 27 5.951
50 FC1 28 5.463
50 FC1 29 4.486
50 FC1 30 3.998
50 FC1 31 4.486
50 FC1 32 4.974
50 FC1 33 5.463
50 FC1 34 6.439
50 FC1 35 6.927
50 FC1 36 7.416
50 FC1 37 7.904
50 FC1 38 8.881
50 FC1 39 9.369
50 FC1 40 9.369
50 FC1 41 9.369
50 FC1 42 8.881
50 FC1 43 9.369
50 FC1 44 9.369
50 FC1 45 9.369
50 FC1 46 8.881
50 FC1 47 7.904
50 FC1 48 6.927
50 FC1 49 5.951
50 FC1 50 4.974
50 FC1 51 4.974
50 FC1 52 4.974
50 FC1 53 5.463
50 FC1 54 4.974
50 FC1 55 4.974
50 FC1 56 4.486
50 FC1 57 3.998
50 FC1 58 3.998
50 FC1 59 4.486
50 FC1 60 5.951
50 FC1 61 6.927
50 FC1 62 7.904
50 FC1 63 8.392
50 FC1 64 7.416
50 FC1 65 6.439
50 FC1 66 5.951
50 FC1 67 5.463
50 FC1 68 5.463
50 FC1 69 5.463
50 FC1 70 4.974
50 FC1 71 4.486
50 FC1 72 3.998
50 FC1 73 3.998
50 FC1 74 4.974
50 FC1 75 5.951
50 FC1 76 6.927
50 FC1 77 7.416
50 FC1 78 7.416
50 FC1 79 6.927
50 FC1 80 6.927
50 FC1 81 6.927
50 FC1 82 6.927
50 FC1 83 6.439
50 FC1 84 6.439
50 FC1 85 6.439
50 FC1 86 6.927
50 FC1 87 7.416
50 FC1 88 8.881
50 FC1 89 9.857
50 FC1 90 10.345
50 FC1 91 10.345
50 FC1 92 10.345
50 FC1 93 10.345
50 FC1 94 10.834
50 FC1 95 10.345
50 FC1 96 10.345
50 FC1 97 10.834
50 FC1 98 11.322
50 FC1 99 11.810
50 FC1 100 12.299
50 FC1 101 12.787
50 FC1 102 13.275
50 FC1 103 12.787
50 FC1 104 12.299
50 FC1 105 11.322
50 FC1 106 9.857
50 FC1 107 8.881
50 FC1 108 8.392
50 FC1 109 8.392
50 FC1 110 8.392
50 FC1 111 8.392
50 FC1 112 8.392
50 FC1 113 7.416
50 FC1 114 6.439
50 FC1 115 5.463
50 FC1 116 4.486
50 FC1 117 3.998
50 FC1 118 3.998
50 FC1 119 4.486
50 FC1 120 4.486
50 FC1 121 3.998
50 FC1 122 3.510
50 FC1 123 2.045
50 FC1 124 0.580
50 FC1 125 0.092
50 FC1 126 0.092
50 FC1 127 1.068
50 FC1 128 2.533
50 FC1 129 3.021
50 FC1 130 3.021
50 FC1 131 2.533
50 FC1 132 2.045
50 FC1 133 2.045
50 FC1 134 3.021
50 FC1 135 3.998
50 FC1 136 4.974
50 FC1 137 5.951
50 FC1 138 5.951
50 FC1 139 6.439
50 FC1 140 6.439
50 FC1 141 7.416
50 FC1 142 8.392
50 FC1 143 8.881
50 FC1 144 8.881
50 FC1 145 8.881
50 FC1 146 8.881
50 FC1 147 8.881
50 FC1 148 9.857
50 FC1 149 10.345
50 FC1 150 10.345
50 FC1 151 9.369
50 FC1 152 7.904
50 FC1 153 6.439
50 FC1 154 5.463
50 FC1 155 4.974
50 FC1 156 4.486
50 FC1 157 3.998
50 FC1 158 3.510
50 FC1 159 2.533
50 FC1 160 1.556
50 FC1 161 0.580
50 FC1 162 0.092
50 FC1 163 -0.397
50 FC1 164 -0.885
50 FC1 165 -1.373
50 FC1 166 -1.373
50 FC1 167 -0.885
50 FC1 168 -0.397
50 FC1 169 0.580
50 FC1 170 1.556
50 FC1 171 2.533
50 FC1 172 3.021
50 FC1 173 3.021
50 FC1 174 3.510
50 FC1 175 4.486
50 FC1 176 4.974
50 FC1 177 4.974
50 FC1 178 4.486
50 FC1 179 3.998
50 FC1 180 3.510
50 FC1 181 3.510
50 FC1 182 3.998
50 FC1 183 4.486
50 FC1 184 4.974
50 FC1 185 4.974
50 FC1 186 4.486
50 FC1 187 4.486
50 FC1 188 4.974
50 FC1 189 4.974
50 FC1 190 5.463
50 FC1 191 5.951
50 FC1 192 6.439
50 FC1 193 6.927
50 FC1 194 6.927
50 FC1 195 6.927
50 FC1 196 6.927
50 FC1 197 6.439
50 FC1 198 5.951
50 FC1 199 4.974
50 FC1 200 3.998
50 FC1 201 3.510
50 FC1 202 3.510
50 FC1 203 3.998
50 FC1 204 3.998
50 FC1 205 3.998
50 FC1 206 3.510
50 FC1 207 2.533
50 FC1 208 2.533
50 FC1 209 2.045
50 FC1 210 2.045
50 FC1 211 2.045
50 FC1 212 2.533
50 FC1 213 1.068
50 FC1 214 0.092
50 FC1 215 -0.885
50 FC1 216 -0.885
50 FC1 217 -0.397
50 FC1 218 0.580
50 FC1 219 2.045
50 FC1 220 3.021
50 FC1 221 3.510
50 FC1 222 3.998
50 FC1 223 3.510
50 FC1 224 3.021
50 FC1 225 1.556
50 FC1 226 0.580
50 FC1 227 0.092
50 FC1 228 -0.397
50 FC1 229 0.092
50 FC1 230 0.092
50 FC1 231 0.092
50 FC1 232 0.092
50 FC1 233 -0.397
50 FC1 234 0.092
50 FC1 235 -0.397
50 FC1 236 -0.397
50 FC1 237 -1.373
50 FC1 238 -1.862
50 FC1 239 -2.350
50 FC1 240 -1.862
50 FC1 241 -1.373
50 FC1 242 -0.397
50 FC1 243 0.092
50 FC1 244 0.092
50 FC1 245 0.092
50 FC1 246 -0.397
50 FC1 247 -0.397
50 FC1 248 -1.373
50 FC1 249 -1.373
50 FC1 250 -1.862
50 FC1 251 -1.862
50 FC1 252 -1.862
50 FC1 253 -1.373
50 FC1 254 -0.397
50 FC1 255 -0.397
# T8 chan 13
50 T8 0 -4.425
50 T8 1 -5.402
50 T8 2 -7.843
50 T8 3 -10.773
50 T8 4 -13.702
50 T8 5 -14.679
50 T8 6 -14.191
50 T8 7 -13.214
50 T8 8 -12.238
50 T8 9 -12.238
50 T8 10 -12.238
50 T8 11 -12.238
50 T8 12 -10.773
50 T8 13 -9.796
50 T8 14 -8.331
50 T8 15 -7.843
50 T8 16 -7.355
50 T8 17 -5.890
50 T8 18 -2.960
50 T8 19 -0.031
50 T8 20 1.923
50 T8 21 2.411
50 T8 22 1.434
50 T8 23 0.458
50 T8 24 -0.031
50 T8 25 0.458
50 T8 26 0.458
50 T8 27 0.458
50 T8 28 -0.519
50 T8 29 -0.519
50 T8 30 0.946
50 T8 31 2.899
50 T8 32 5.829
50 T8 33 7.294
50 T8 34 7.294
50 T8 35 6.805
50 T8 36 6.317
50 T8 37 7.782
50 T8 38 9.735
50 T8 39 11.688
50 T8 40 12.665
50 T8 41 11.200
50 T8 42 8.759
50 T8 43 5.829
50 T8 44 4.852
50 T8 45 4.852
50 T8 46 6.805
50 T8 47 8.270
50 T8 48 9.735
50 T8 49 9.735
50 T8 50 8.270
50 T8 51 7.294
50 T8 52 6.805
50 T8 53 8.270
50 T8 54 10.223
50 T8 55 12.177
50 T8 56 12.665
50 T8 57 11.200
50 T8 58 8.270
50 T8 59 5.829
50 T8 60 3.876
50 T8 61 3.387
50 T8 62 3.876
50 T8 63 3.876
50 T8 64 3.387
50 T8 65 3.387
50 T8 66 3.387
50 T8 67 3.387
50 T8 68 2.411
50 T8 69 -0.031
50 T8 70 -3.448
50 T8 71 -7.355
50 T8 72 -9.796
50 T8 73 -10.284
50 T8 74 -9.796
50 T8 75 -8.820
50 T8 76 -7.843
50 T8 77 -8.331
50 T8 78 -8.331
50 T8 79 -7.843
50 T8 80 -6.378
50 T8 81 -4.425
50 T8 82 -3.448
50 T8 83 -2.472
50 T8 84 -2.960
50 T8 85 -3.448
50 T8 86 -3.937
50 T8 87 -3.937
50 T8 88 -3.937
50 T8 89 -3.937
50 T8 90 -3.448
50 T8 91 -3.448
50 T8 92 -2.960
50 T8 93 -3.448
50 T8 94 -3.937
50 T8 95 -4.913
50 T8 96 -5.890
50 T8 97 -5.890
50 T8 98 -4.913
50 T8 99 -3.448
50 T8 100 -3.448
50 T8 101 -4.913
50 T8 102 -7.355
50 T8 103 -9.308
50 T8 104 -9.308
50 T8 105 -8.331
50 T8 106 -5.890
50 T8 107 -3.937
50 T8 108 -2.472
50 T8 109 -1.984
50 T8 110 -1.007
50 T8 111 -0.519
50 T8 112 0.458
50 T8 113 0.458
50 T8 114 -0.031
50 T8 115 -0.519
50 T8 116 -1.007
50 T8 117 -0.519
50 T8 118 0.458
50 T8 119 2.411
50 T8 120 3.876
50 T8 121 5.341
50 T8 122 5.829
50 T8 123 5.829
50 T8 124 6.317
50 T8 125 6.805
50 T8 126 7.294
50 T8 127 7.294
50 T8 128 6.317
50 T8 129 4.364
50 T8 130 2.411
50 T8 131 0.946
50 T8 132 0.458
50 T8 133 0.946
50 T8 134 1.434
50 T8 135 0.946
50 T8 136 -0.519
50 T8 137 -2.472
50 T8 138 -2.960
50 T8 139 -2.960
50 T8 140 -0.519
50 T8 141 1.434
50 T8 142 2.411
50 T8 143 1.923
50 T8 144 -0.519
50 T8 145 -2.960
50 T8 146 -4.913
50 T8 147 -4.913
50 T8 148 -3.448
50 T8 149 -1.984
50 T8 150 -1.007
50 T8 151 -0.031
50 T8 152 0.946
50 T8 153 2.411
50 T8 154 3.387
50 T8 155 3.876
50 T8 156 3.387
50 T8 157 2.411
50 T8 158 1.923
50 T8 159 2.411
50 T8 160 3.876
50 T8 161 5.341
50 T8 162 6.317
50 T8 163 6.317
50 T8 164 5.829
50 T8 165 5.829
50 T8 166 6.317
50 T8 167 6.805
50 T8 168 7.782
50 T8 169 7.782
50 T8 170 7.294
50 T8 171 6.805
50 T8 172 6.317
50 T8 173 6.317
50 T8 174 5.829
50 T8 175 5.341
50 T8 176 4.852
50 T8 177 3.876
50 T8 178 3.876
50 T8 179 4.852
50 T8 180 6.805
50 T8 181 8.759
50 T8 182 10.223
50 T8 183 12.177
50 T8 184 14.130
50 T8 185 16.571
50 T8 186 19.012
50 T8 187 20.966
50 T8 188 22.430
50 T8 189 22.919
50 T8 190 22.919
50 T8 191 21.942
50 T8 192 20.477
50 T8 193 18.524
50 T8 194 16.083
50 T8 195 14.130
50 T8 196 13.641
50 T8 197 14.618
50 T8 198 15.594
50 T8 199 15.594
50 T8 200 14.618
50 T8 201 12.177
50 T8 202 9.735
50 T8 203 8.759
50 T8 204 9.247
50 T8 205 10.223
50 T8 206 10.712
50 T8 207 10.223
50 T8 208 8.759
50 T8 209 7.294
50 T8 210 5.829
50 T8 211 4.852
50 T8 212 4.364
50 T8 213 3.876
50 T8 214 2.899
50 T8 215 2.411
50 T8 216 1.923
50 T8 217 1.434
50 T8 218 0.946
50 T8 219 -0.031
50 T8 220 -0.031
50 T8 221 -0.031
50 T8 222 0.946
50 T8 223 1.923
50 T8 224 3.387
50 T8 225 3.387
50 T8 226 3.387
50 T8 227 2.411
50 T8 228 1.434
50 T8 229 0.946
50 T8 230 1.434
50 T8 231 1.923
50 T8 232 2.899
50 T8 233 3.387
50 T8 234 2.899
50 T8 235 1.923
50 T8 236 0.946
50 T8 237 -0.031
50 T8 238 -0.031
50 T8 239 0.946
50 T8 240 2.899
50 T8 241 6.317
50 T8 242 9.735
50 T8 243 11.200
50 T8 244 11.200
50 T8 245 8.759
50 T8 246 6.317
50 T8 247 4.364
50 T8 248 3.876
50 T8 249 4.852
50 T8 250 6.317
50 T8 251 7.294
50 T8 252 6.805
50 T8 253 5.341
50 T8 254 3.387
50 T8 255 0.946
# T7 chan 14
50 T7 0 -6.927
50 T7 1 -7.416
50 T7 2 -8.392
50 T7 3 -9.369
50 T7 4 -10.345
50 T7 5 -10.834
50 T7 6 -11.322
50 T7 7 -11.810
50 T7 8 -13.275
50 T7 9 -15.228
50 T7 10 -16.693
50 T7 11 -16.693
50 T7 12 -14.740
50 T7 13 -10.834
50 T7 14 -6.439
50 T7 15 -3.998
50 T7 16 -2.533
50 T7 17 -2.045
50 T7 18 -0.580
50 T7 19 1.373
50 T7 20 3.326
50 T7 21 4.303
50 T7 22 3.815
50 T7 23 1.862
50 T7 24 0.397
50 T7 25 -0.092
50 T7 26 -0.092
50 T7 27 -0.092
50 T7 28 -1.068
50 T7 29 -3.021
50 T7 30 -4.486
50 T7 31 -5.463
50 T7 32 -4.974
50 T7 33 -3.998
50 T7 34 -3.021
50 T7 35 -1.556
50 T7 36 -0.092
50 T7 37 2.838
50 T7 38 6.744
50 T7 39 10.651
50 T7 40 12.604
50 T7 41 11.139
50 T7 42 8.209
50 T7 43 5.280
50 T7 44 4.303
50 T7 45 6.256
50 T7 46 9.674
50 T7 47 12.604
50 T7 48 12.604
50 T7 49 10.651
50 T7 50 7.721
50 T7 51 5.768
50 T7 52 5.768
50 T7 53 6.744
50 T7 54 7.721
50 T7 55 7.721
50 T7 56 6.256
50 T7 57 4.791
50 T7 58 3.815
50 T7 59 3.326
50 T7 60 3.815
50 T7 61 3.815
50 T7 62 3.326
50 T7 63 1.862
50 T7 64 -0.092
50 T7 65 -1.556
50 T7 66 -2.533
50 T7 67 -2.045
50 T7 68 -2.045
50 T7 69 -2.045
50 T7 70 -3.510
50 T7 71 -5.463
50 T7 72 -7.416
50 T7 73 -7.904
50 T7 74 -6.439
50 T7 75 -3.998
50 T7 76 -2.533
50 T7 77 -2.533
50 T7 78 -5.463
50 T7 79 -9.857
50 T7 80 -11.810
50 T7 81 -11.322
50 T7 82 -8.392
50 T7 83 -4.486
50 T7 84 -1.556
50 T7 85 -1.556
50 T7 86 -2.533
50 T7 87 -3.998
50 T7 88 -3.998
50 T7 89 -3.021
50 T7 90 -2.045
50 T7 91 -2.045
50 T7 92 -3.021
50 T7 93 -3.998
50 T7 94 -4.486
50 T7 95 -4.486
50 T7 96 -3.998
50 T7 97 -3.998
50 T7 98 -3.998
50 T7 99 -2.533
50 T7 100 0.397
50 T7 101 2.838
50 T7 102 4.303
50 T7 103 3.815
50 T7 104 0.397
50 T7 105 -3.998
50 T7 106 -6.927
50 T7 107 -8.392
50 T7 108 -6.927
50 T7 109 -4.486
50 T7 110 -2.045
50 T7 111 -1.068
50 T7 112 -1.556
50 T7 113 -3.021
50 T7 114 -3.021
50 T7 115 -1.556
50 T7 116 0.885
50 T7 117 3.815
50 T7 118 5.768
50 T7 119 6.744
50 T7 120 7.233
50 T7 121 8.209
50 T7 122 9.674
50 T7 123 10.651
50 T7 124 10.162
50 T7 125 8.209
50 T7 126 6.256
50 T7 127 5.280
50 T7 128 5.768
50 T7 129 6.744
50 T7 130 6.744
50 T7 131 4.303
50 T7 132 0.397
50 T7 133 -3.510
50 T7 134 -4.974
50 T7 135 -4.486
50 T7 136 -3.021
50 T7 137 -2.533
50 T7 138 -3.998
50 T7 139 -5.951
50 T7 140 -7.904
50 T7 141 -7.416
50 T7 142 -5.463
50 T7 143 -3.510
50 T7 144 -2.533
50 T7 145 -3.510
50 T7 146 -4.974
50 T7 147 -5.951
50 T7 148 -5.951
50 T7 149 -4.974
50 T7 150 -3.998
50 T7 151 -2.533
50 T7 152 -1.068
50 T7 153 0.885
50 T7 154 1.862
50 T7 155 1.862
50 T7 156 0.885
50 T7 157 -0.092
50 T7 158 -0.092
50 T7 159 0.885
50 T7 160 2.350
50 T7 161 3.326
50 T7 162 2.838
50 T7 163 1.373
50 T7 164 0.397
50 T7 165 0.397
50 T7 166 2.350
50 T7 167 4.791
50 T7 168 7.233
50 T7 169 9.186
50 T7 170 10.162
50 T7 171 10.651
50 T7 172 10.162
50 T7 173 9.674
50 T7 174 9.186
50 T7 175 9.674
50 T7 176 11.139
50 T7 177 13.092
50 T7 178 14.557
50 T7 179 16.022
50 T7 180 16.998
50 T7 181 16.510
50 T7 182 16.022
50 T7 183 15.045
50 T7 184 14.069
50 T7 185 15.045
50 T7 186 17.487
50 T7 187 20.416
50 T7 188 21.881
50 T7 189 22.369
50 T7 190 21.393
50 T7 191 19.928
50 T7 192 19.928
50 T7 193 20.905
50 T7 194 21.881
50 T7 195 21.393
50 T7 196 20.416
50 T7 197 18.951
50 T7 198 17.975
50 T7 199 17.487
50 T7 200 17.487
50 T7 201 17.487
50 T7 202 16.998
50 T7 203 16.998
50 T7 204 17.487
50 T7 205 16.998
50 T7 206 15.045
50 T7 207 11.627
50 T7 208 8.209
50 T7 209 6.256
50 T7 210 7.233
50 T7 211 9.674
50 T7 212 10.651
50 T7 213 9.674
50 T7 214 6.744
50 T7 215 4.303
50 T7 216 3.326
50 T7 217 3.815
50 T7 218 4.791
50 T7 219 4.791
50 T7 220 3.815
50 T7 221 2.350
50 T7 222 1.862
50 T7 223 2.838
50 T7 224 4.303
50 T7 225 4.791
50 T7 226 3.326
50 T7 227 0.885
50 T7 228 -2.533
50 T7 229 -4.974
50 T7 230 -6.439
50 T7 231 -5.463
50 T7 232 -3.021
50 T7 233 -0.580
50 T7 234 1.373
50 T7 235 1.373
50 T7 236 -0.580
50 T7 237 -2.045
50 T7 238 -2.045
50 T7 239 -0.580
50 T7 240 2.838
50 T7 241 6.256
50 T7 242 9.186
50 T7 243 11.139
50 T7 244 12.115
50 T7 245 12.115
50 T7 246 12.115
50 T7 247 11.627
50 T7 248 11.627
50 T7 249 11.627
50 T7 250 11.627
50 T7 251 11.139
50 T7 252 9.674
50 T7 253 7.721
50 T7 254 6.744
50 T7 255 7.721
# CZ chan 15
50 CZ 0 -8.525
50 CZ 1 -11.943
50 CZ 2 -15.849
50 CZ 3 -19.755
50 CZ 4 -22.685
50 CZ 5 -24.150
50 CZ 6 -24.150
50 CZ 7 -21.708
50 CZ 8 -19.267
50 CZ 9 -17.314
50 CZ 10 -16.825
50 CZ 11 -16.825
50 CZ 12 -16.337
50 CZ 13 -13.896
50 CZ 14 -10.478
50 CZ 15 -7.060
50 CZ 16 -4.618
50 CZ 17 -3.642
50 CZ 18 -2.665
50 CZ 19 -0.712
50 CZ 20 1.241
50 CZ 21 2.218
50 CZ 22 2.218
50 CZ 23 0.753
50 CZ 24 -0.224
50 CZ 25 0.264
50 CZ 26 1.241
50 CZ 27 2.706
50 CZ 28 1.729
50 CZ 29 -0.224
50 CZ 30 -2.177
50 CZ 31 -3.153
50 CZ 32 -1.200
50 CZ 33 1.241
50 CZ 34 3.682
50 CZ 35 4.171
50 CZ 36 4.171
50 CZ 37 4.659
50 CZ 38 6.124
50 CZ 39 9.542
50 CZ 40 12.472
50 CZ 41 13.936
50 CZ 42 13.936
50 CZ 43 11.983
50 CZ 44 10.030
50 CZ 45 9.542
50 CZ 46 9.542
50 CZ 47 10.030
50 CZ 48 11.007
50 CZ 49 11.007
50 CZ 50 10.518
50 CZ 51 10.030
50 CZ 52 9.542
50 CZ 53 10.030
50 CZ 54 11.007
50 CZ 55 11.495
50 CZ 56 11.983
50 CZ 57 11.007
50 CZ 58 10.030
50 CZ 59 8.565
50 CZ 60 7.589
50 CZ 61 7.100
50 CZ 62 6.124
50 CZ 63 5.636
50 CZ 64 5.636
50 CZ 65 6.124
50 CZ 66 7.100
50 CZ 67 7.100
50 CZ 68 6.124
50 CZ 69 3.682
50 CZ 70 -0.224
50 CZ 71 -3.642
50 CZ 72 -5.595
50 CZ 73 -5.595
50 CZ 74 -4.130
50 CZ 75 -3.153
50 CZ 76 -3.642
50 CZ 77 -5.107
50 CZ 78 -6.571
50 CZ 79 -6.083
50 CZ 80 -3.153
50 CZ 81 0.753
50 CZ 82 3.194
50 CZ 83 2.706
50 CZ 84 0.753
50 CZ 85 -1.200
50 CZ 86 -1.689
50 CZ 87 0.753
50 CZ 88 3.682
50 CZ 89 5.636
50 CZ 90 5.147
50 CZ 91 3.682
50 CZ 92 2.218
50 CZ 93 0.753
50 CZ 94 -1.200
50 CZ 95 -4.130
50 CZ 96 -7.548
50 CZ 97 -9.501
50 CZ 98 -7.548
50 CZ 99 -3.153
50 CZ 100 2.706
50 CZ 101 4.171
50 CZ 102 1.729
50 CZ 103 -3.642
50 CZ 104 -7.548
50 CZ 105 -8.036
50 CZ 106 -5.595
50 CZ 107 -3.153
50 CZ 108 -3.153
50 CZ 109 -5.595
50 CZ 110 -8.525
50 CZ 111 -9.501
50 CZ 112 -7.548
50 CZ 113 -6.083
50 CZ 114 -5.595
50 CZ 115 -7.548
50 CZ 116 -9.989
50 CZ 117 -10.966
50 CZ 118 -9.013
50 CZ 119 -6.571
50 CZ 120 -5.107
50 CZ 121 -5.595
50 CZ 122 -7.060
50 CZ 123 -7.548
50 CZ 124 -6.571
50 CZ 125 -5.107
50 CZ 126 -4.618
50 CZ 127 -7.548
50 CZ 128 -11.454
50 CZ 129 -15.849
50 CZ 130 -17.802
50 CZ 131 -17.802
50 CZ 132 -16.337
50 CZ 133 -15.849
50 CZ 134 -16.825
50 CZ 135 -19.267
50 CZ 136 -22.685
50 CZ 137 -25.614
50 CZ 138 -27.568
50 CZ 139 -28.056
50 CZ 140 -28.056
50 CZ 141 -28.056
50 CZ 142 -28.544
50 CZ 143 -29.521
50 CZ 144 -31.962
50 CZ 145 -34.892
50 CZ 146 -37.821
50 CZ 147 -40.263
50 CZ 148 -41.728
50 CZ 149 -41.728
50 CZ 150 -41.728
50 CZ 151 -40.751
50 CZ 152 -39.775
50 CZ 153 -37.821
50 CZ 154 -35.868
50 CZ 155 -34.403
50 CZ 156 -35.380
50 CZ 157 -37.333
50 CZ 158 -39.775
50 CZ 159 -42.704
50 CZ 160 -44.169
50 CZ 161 -43.681
50 CZ 162 -42.704
50 CZ 163 -42.216
50 CZ 164 -43.193
50 CZ 165 -45.634
50 CZ 166 -48.075
50 CZ 167 -49.540
50 CZ 168 -49.052
50 CZ 169 -47.587
50 CZ 170 -46.122
50 CZ 171 -47.099
50 CZ 172 -49.540
50 CZ 173 -52.470
50 CZ 174 -53.935
50 CZ 175 -53.446
50 CZ 176 -51.005
50 CZ 177 -49.052
50 CZ 178 -48.564
50 CZ 179 -49.540
50 CZ 180 -51.005
50 CZ 181 -51.493
50 CZ 182 -49.540
50 CZ 183 -46.611
50 CZ 184 -43.681
50 CZ 185 -40.751
50 CZ 186 -38.798
50 CZ 187 -37.821
50 CZ 188 -38.310
50 CZ 189 -39.286
50 CZ 190 -40.263
50 CZ 191 -39.775
50 CZ 192 -38.798
50 CZ 193 -37.333
50 CZ 194 -36.357
50 CZ 195 -36.845
50 CZ 196 -37.821
50 CZ 197 -39.775
50 CZ 198 -40.751
50 CZ 199 -41.728
50 CZ 200 -43.193
50 CZ 201 -44.657
50 CZ 202 -46.611
50 CZ 203 -47.099
50 CZ 204 -46.122
50 CZ 205 -44.169
50 CZ 206 -42.216
50 CZ 207 -41.728
50 CZ 208 -42.216
50 CZ 209 -43.681
50 CZ 210 -43.681
50 CZ 211 -43.193
50 CZ 212 -42.216
50 CZ 213 -41.728
50 CZ 214 -43.681
50 CZ 215 -46.122
50 CZ 216 -49.052
50 CZ 217 -50.517
50 CZ 218 -50.517
50 CZ 219 -49.540
50 CZ 220 -48.564
50 CZ 221 -48.564
50 CZ 222 -49.540
50 CZ 223 -50.517
50 CZ 224 -51.493
50 CZ 225 -51.493
50 CZ 226 -51.005
50 CZ 227 -51.005
50 CZ 228 -51.493
50 CZ 229 -52.470
50 CZ 230 -52.470
50 CZ 231 -52.470
50 CZ 232 -51.005
50 CZ 233 -51.005
50 CZ 234 -51.982
50 CZ 235 -54.911
50 CZ 236 -57.841
50 CZ 237 -59.306
50 CZ 238 -58.818
50 CZ 239 -55.888
50 CZ 240 -51.493
50 CZ 241 -48.075
50 CZ 242 -45.634
50 CZ 243 -45.146
50 CZ 244 -45.146
50 CZ 245 -45.634
50 CZ 246 -47.099
50 CZ 247 -48.564
50 CZ 248 -50.028
50 CZ 249 -50.517
50 CZ 250 -49.052
50 CZ 251 -46.611
50 CZ 252 -44.169
50 CZ 253 -43.681
50 CZ 254 -45.146
50 CZ 255 -48.564
# C3 chan 16
50 C3 0 -2.767
50 C3 1 -3.743
50 C3 2 -4.720
50 C3 3 -5.208
50 C3 4 -5.208
50 C3 5 -5.208
50 C3 6 -5.208
50 C3 7 -5.697
50 C3 8 -6.185
50 C3 9 -7.161
50 C3 10 -7.161
50 C3 11 -6.673
50 C3 12 -5.697
50 C3 13 -4.232
50 C3 14 -2.279
50 C3 15 -0.814
50 C3 16 0.651
50 C3 17 1.628
50 C3 18 3.092
50 C3 19 3.581
50 C3 20 3.581
50 C3 21 4.069
50 C3 22 4.069
50 C3 23 4.069
50 C3 24 4.557
50 C3 25 4.069
50 C3 26 3.581
50 C3 27 3.092
50 C3 28 2.604
50 C3 29 1.139
50 C3 30 -0.326
50 C3 31 -1.302
50 C3 32 -2.279
50 C3 33 -2.279
50 C3 34 -1.302
50 C3 35 -0.814
50 C3 36 0.163
50 C3 37 1.139
50 C3 38 1.628
50 C3 39 3.092
50 C3 40 3.581
50 C3 41 4.069
50 C3 42 3.581
50 C3 43 2.604
50 C3 44 2.116
50 C3 45 2.604
50 C3 46 3.581
50 C3 47 4.069
50 C3 48 4.069
50 C3 49 2.604
50 C3 50 1.139
50 C3 51 0.163
50 C3 52 -0.326
50 C3 53 -0.326
50 C3 54 0.163
50 C3 55 0.651
50 C3 56 0.163
50 C3 57 -0.326
50 C3 58 -0.326
50 C3 59 -0.326
50 C3 60 0.163
50 C3 61 0.163
50 C3 62 -0.326
50 C3 63 -0.814
50 C3 64 -1.790
50 C3 65 -1.790
50 C3 66 -1.790
50 C3 67 -1.302
50 C3 68 -1.302
50 C3 69 -1.790
50 C3 70 -2.767
50 C3 71 -3.743
50 C3 72 -4.232
50 C3 73 -4.232
50 C3 74 -3.255
50 C3 75 -2.767
50 C3 76 -2.279
50 C3 77 -2.767
50 C3 78 -3.255
50 C3 79 -4.232
50 C3 80 -4.720
50 C3 81 -4.720
50 C3 82 -3.743
50 C3 83 -3.743
50 C3 84 -3.255
50 C3 85 -3.743
50 C3 86 -3.743
50 C3 87 -3.743
50 C3 88 -3.743
50 C3 89 -3.255
50 C3 90 -3.743
50 C3 91 -4.232
50 C3 92 -4.232
50 C3 93 -4.232
50 C3 94 -4.232
50 C3 95 -4.720
50 C3 96 -4.720
50 C3 97 -4.720
50 C3 98 -4.232
50 C3 99 -2.767
50 C3 100 -1.790
50 C3 101 -0.814
50 C3 102 -0.326
50 C3 103 -1.302
50 C3 104 -2.279
50 C3 105 -3.743
50 C3 106 -4.720
50 C3 107 -4.720
50 C3 108 -4.720
50 C3 109 -4.232
50 C3 110 -4.232
50 C3 111 -3.743
50 C3 112 -3.743
50 C3 113 -3.743
50 C3 114 -3.255
50 C3 115 -2.279
50 C3 116 -1.790
50 C3 117 -1.302
50 C3 118 -1.302
50 C3 119 -1.302
50 C3 120 -1.302
50 C3 121 -1.302
50 C3 122 -0.814
50 C3 123 -0.326
50 C3 124 -0.326
50 C3 125 -0.814
50 C3 126 -1.302
50 C3 127 -1.302
50 C3 128 -1.790
50 C3 129 -2.279
50 C3 130 -3.255
50 C3 131 -3.743
50 C3 132 -4.232
50 C3 133 -4.720
50 C3 134 -4.232
50 C3 135 -3.743
50 C3 136 -3.743
50 C3 137 -3.743
50 C3 138 -4.232
50 C3 139 -4.720
50 C3 140 -4.720
50 C3 141 -4.232
50 C3 142 -4.232
50 C3 143 -3.743
50 C3 144 -3.255
50 C3 145 -3.255
50 C3 146 -3.255
50 C3 147 -3.743
50 C3 148 -3.743
50 C3 149 -4.232
50 C3 150 -4.232
50 C3 151 -3.743
50 C3 152 -3.255
50 C3 153 -2.767
50 C3 154 -2.279
50 C3 155 -2.279
50 C3 156 -2.279
50 C3 157 -2.767
50 C3 158 -2.767
50 C3 159 -2.767
50 C3 160 -2.767
50 C3 161 -3.255
50 C3 162 -3.255
50 C3 163 -3.743
50 C3 164 -3.743
50 C3 165 -3.255
50 C3 166 -3.255
50 C3 167 -2.279
50 C3 168 -0.814
50 C3 169 0.651
50 C3 170 1.628
50 C3 171 1.628
50 C3 172 1.628
50 C3 173 1.628
50 C3 174 1.628
50 C3 175 2.604
50 C3 176 3.092
50 C3 177 3.581
50 C3 178 3.581
50 C3 179 3.581
50 C3 180 3.581
50 C3 181 4.069
50 C3 182 4.069
50 C3 183 4.557
50 C3 184 4.557
50 C3 185 4.557
50 C3 186 4.557
50 C3 187 4.557
50 C3 188 5.046
50 C3 189 5.046
50 C3 190 5.046
50 C3 191 5.046
50 C3 192 5.534
50 C3 193 6.510
50 C3 194 7.487
50 C3 195 7.975
50 C3 196 8.464
50 C3 197 7.975
50 C3 198 6.999
50 C3 199 5.534
50 C3 200 4.557
50 C3 201 3.581
50 C3 202 3.581
50 C3 203 3.581
50 C3 204 3.581
50 C3 205 3.581
50 C3 206 3.092
50 C3 207 2.116
50 C3 208 0.651
50 C3 209 -0.326
50 C3 210 -0.814
50 C3 211 -1.302
50 C3 212 -1.790
50 C3 213 -2.279
50 C3 214 -3.255
50 C3 215 -4.232
50 C3 216 -4.720
50 C3 217 -4.232
50 C3 218 -3.743
50 C3 219 -2.767
50 C3 220 -2.767
50 C3 221 -2.767
50 C3 222 -3.255
50 C3 223 -3.255
50 C3 224 -4.232
50 C3 225 -4.720
50 C3 226 -5.208
50 C3 227 -5.697
50 C3 228 -6.673
50 C3 229 -6.673
50 C3 230 -6.673
50 C3 231 -6.673
50 C3 232 -6.185
50 C3 233 -4.720
50 C3 234 -3.743
50 C3 235 -2.767
50 C3 236 -2.279
50 C3 237 -2.767
50 C3 238 -3.255
50 C3 239 -3.255
50 C3 240 -2.279
50 C3 241 -0.814
50 C3 242 1.628
50 C3 243 2.604
50 C3 244 3.581
50 C3 245 3.092
50 C3 246 2.116
50 C3 247 1.628
50 C3 248 1.139
50 C3 249 1.139
50 C3 250 0.651
50 C3 251 0.163
50 C3 252 0.163
50 C3 253 0.163
50 C3 254 0.651
50 C3 255 1.139
# C4 chan 17
50 C4 0 -1.597
50 C4 1 -2.574
50 C4 2 -4.038
50 C4 3 -5.503
50 C4 4 -6.968
50 C4 5 -7.456
50 C4 6 -7.456
50 C4 7 -6.968
50 C4 8 -6.968
50 C4 9 -7.456
50 C4 10 -7.456
50 C4 11 -7.456
50 C4 12 -6.968
50 C4 13 -6.968
50 C4 14 -6.480
50 C4 15 -5.992
50 C4 16 -5.503
50 C4 17 -4.527
50 C4 18 -3.062
50 C4 19 -1.597
50 C4 20 -1.109
50 C4 21 -1.109
50 C4 22 -1.597
50 C4 23 -3.062
50 C4 24 -3.550
50 C4 25 -4.038
50 C4 26 -4.038
50 C4 27 -4.038
50 C4 28 -3.550
50 C4 29 -2.574
50 C4 30 -1.109
50 C4 31 0.844
50 C4 32 1.821
50 C4 33 1.821
50 C4 34 1.333
50 C4 35 0.356
50 C4 36 -0.621
50 C4 37 -0.621
50 C4 38 -0.621
50 C4 39 -0.621
50 C4 40 -0.621
50 C4 41 -1.109
50 C4 42 -2.085
50 C4 43 -3.062
50 C4 44 -4.038
50 C4 45 -4.038
50 C4 46 -3.062
50 C4 47 -2.085
50 C4 48 -1.109
50 C4 49 -0.621
50 C4 50 -1.109
50 C4 51 -1.597
50 C4 52 -1.597
50 C4 53 -0.132
50 C4 54 1.333
50 C4 55 2.309
50 C4 56 2.309
50 C4 57 0.844
50 C4 58 -1.109
50 C4 59 -3.062
50 C4 60 -4.038
50 C4 61 -3.062
50 C4 62 -2.085
50 C4 63 -1.109
50 C4 64 -0.621
50 C4 65 -0.621
50 C4 66 -0.132
50 C4 67 -0.132
50 C4 68 -0.132
50 C4 69 -1.109
50 C4 70 -2.574
50 C4 71 -4.038
50 C4 72 -5.503
50 C4 73 -5.992
50 C4 74 -5.992
50 C4 75 -5.503
50 C4 76 -4.527
50 C4 77 -4.038
50 C4 78 -4.038
50 C4 79 -3.550
50 C4 80 -3.062
50 C4 81 -2.574
50 C4 82 -1.597
50 C4 83 -1.109
50 C4 84 -1.109
50 C4 85 -1.109
50 C4 86 -1.597
50 C4 87 -2.085
50 C4 88 -2.085
50 C4 89 -1.597
50 C4 90 -1.109
50 C4 91 -0.621
50 C4 92 -1.109
50 C4 93 -2.085
50 C4 94 -2.574
50 C4 95 -3.550
50 C4 96 -3.550
50 C4 97 -3.062
50 C4 98 -3.062
50 C4 99 -3.062
50 C4 100 -3.550
50 C4 101 -4.527
50 C4 102 -5.503
50 C4 103 -6.480
50 C4 104 -6.480
50 C4 105 -5.503
50 C4 106 -4.038
50 C4 107 -1.597
50 C4 108 -0.132
50 C4 109 0.356
50 C4 110 0.844
50 C4 111 0.356
50 C4 112 0.356
50 C4 113 0.356
50 C4 114 0.356
50 C4 115 -0.132
50 C4 116 -1.109
50 C4 117 -1.597
50 C4 118 -1.109
50 C4 119 -0.621
50 C4 120 0.844
50 C4 121 1.821
50 C4 122 1.821
50 C4 123 1.821
50 C4 124 1.821
50 C4 125 2.309
50 C4 126 3.286
50 C4 127 3.774
50 C4 128 3.774
50 C4 129 3.286
50 C4 130 1.821
50 C4 131 0.844
50 C4 132 0.356
50 C4 133 0.356
50 C4 134 -0.132
50 C4 135 -0.132
50 C4 136 -0.132
50 C4 137 -0.621
50 C4 138 -0.621
50 C4 139 -0.132
50 C4 140 0.356
50 C4 141 0.356
50 C4 142 -0.132
50 C4 143 -0.621
50 C4 144 -2.085
50 C4 145 -2.574
50 C4 146 -3.062
50 C4 147 -3.062
50 C4 148 -2.085
50 C4 149 -1.597
50 C4 150 -1.109
50 C4 151 -0.621
50 C4 152 -0.132
50 C4 153 -0.132
50 C4 154 -0.132
50 C4 155 -0.132
50 C4 156 -0.132
50 C4 157 -0.132
50 C4 158 -0.132
50 C4 159 -0.132
50 C4 160 0.356
50 C4 161 0.844
50 C4 162 1.333
50 C4 163 1.333
50 C4 164 1.333
50 C4 165 0.844
50 C4 166 0.356
50 C4 167 0.356
50 C4 168 0.844
50 C4 169 0.844
50 C4 170 1.333
50 C4 171 1.333
50 C4 172 1.333
50 C4 173 1.333
50 C4 174 0.844
50 C4 175 -0.132
50 C4 176 -0.621
50 C4 177 -1.109
50 C4 178 -0.621
50 C4 179 0.356
50 C4 180 1.821
50 C4 181 2.797
50 C4 182 3.774
50 C4 183 5.239
50 C4 184 6.215
50 C4 185 7.680
50 C4 186 9.145
50 C4 187 10.122
50 C4 188 10.610
50 C4 189 10.122
50 C4 190 9.633
50 C4 191 9.145
50 C4 192 7.680
50 C4 193 6.704
50 C4 194 5.727
50 C4 195 5.239
50 C4 196 5.727
50 C4 197 6.215
50 C4 198 7.192
50 C4 199 7.680
50 C4 200 6.704
50 C4 201 5.239
50 C4 202 4.262
50 C4 203 3.774
50 C4 204 4.262
50 C4 205 4.751
50 C4 206 5.239
50 C4 207 4.751
50 C4 208 3.774
50 C4 209 3.286
50 C4 210 2.797
50 C4 211 2.797
50 C4 212 2.309
50 C4 213 1.821
50 C4 214 1.821
50 C4 215 1.821
50 C4 216 1.821
50 C4 217 1.821
50 C4 218 0.844
50 C4 219 -0.132
50 C4 220 -0.621
50 C4 221 -0.132
50 C4 222 0.844
50 C4 223 1.821
50 C4 224 2.797
50 C4 225 2.797
50 C4 226 2.797
50 C4 227 1.821
50 C4 228 1.821
50 C4 229 1.821
50 C4 230 1.821
50 C4 231 2.309
50 C4 232 1.821
50 C4 233 1.333
50 C4 234 0.844
50 C4 235 -0.132
50 C4 236 -0.621
50 C4 237 -0.621
50 C4 238 0.356
50 C4 239 1.333
50 C4 240 2.797
50 C4 241 3.774
50 C4 242 4.262
50 C4 243 4.262
50 C4 244 3.286
50 C4 245 2.309
50 C4 246 1.333
50 C4 247 0.844
50 C4 248 0.356
50 C4 249 0.356
50 C4 250 1.333
50 C4 251 1.333
50 C4 252 1.333
50 C4 253 0.844
50 C4 254 -0.621
50 C4 255 -2.085
# CP5 chan 18
50 CP5 0 -2.767
50 CP5 1 -2.767
50 CP5 2 -4.232
50 CP5 3 -5.208
50 CP5 4 -6.673
50 CP5 5 -7.650
50 CP5 6 -8.626
50 CP5 7 -9.603
50 CP5 8 -11.556
50 CP5 9 -12.533
50 CP5 10 -13.021
50 CP5 11 -12.533
50 CP5 12 -10.579
50 CP5 13 -8.138
50 CP5 14 -5.697
50 CP5 15 -3.255
50 CP5 16 -1.302
50 CP5 17 0.163
50 CP5 18 2.116
50 CP5 19 3.092
50 CP5 20 3.092
50 CP5 21 3.092
50 CP5 22 2.604
50 CP5 23 2.116
50 CP5 24 1.139
50 CP5 25 0.651
50 CP5 26 0.163
50 CP5 27 -0.326
50 CP5 28 -0.814
50 CP5 29 -1.790
50 CP5 30 -3.255
50 CP5 31 -4.720
50 CP5 32 -5.208
50 CP5 33 -5.697
50 CP5 34 -5.697
50 CP5 35 -5.208
50 CP5 36 -4.720
50 CP5 37 -4.232
50 CP5 38 -1.790
50 CP5 39 0.163
50 CP5 40 3.092
50 CP5 41 4.069
50 CP5 42 3.581
50 CP5 43 1.139
50 CP5 44 -0.326
50 CP5 45 -0.326
50 CP5 46 1.139
50 CP5 47 3.581
50 CP5 48 5.046
50 CP5 49 4.557
50 CP5 50 3.092
50 CP5 51 1.139
50 CP5 52 0.651
50 CP5 53 1.139
50 CP5 54 2.116
50 CP5 55 2.116
50 CP5 56 1.628
50 CP5 57 0.163
50 CP5 58 -0.814
50 CP5 59 -1.302
50 CP5 60 -0.814
50 CP5 61 -0.814
50 CP5 62 -1.302
50 CP5 63 -2.767
50 CP5 64 -3.255
50 CP5 65 -4.232
50 CP5 66 -4.232
50 CP5 67 -3.255
50 CP5 68 -2.767
50 CP5 69 -3.255
50 CP5 70 -4.720
50 CP5 71 -6.185
50 CP5 72 -7.650
50 CP5 73 -7.650
50 CP5 74 -7.161
50 CP5 75 -5.697
50 CP5 76 -5.208
50 CP5 77 -5.697
50 CP5 78 -7.161
50 CP5 79 -8.138
50 CP5 80 -8.626
50 CP5 81 -7.650
50 CP5 82 -5.697
50 CP5 83 -4.720
50 CP5 84 -3.743
50 CP5 85 -3.255
50 CP5 86 -3.743
50 CP5 87 -3.743
50 CP5 88 -4.720
50 CP5 89 -5.697
50 CP5 90 -6.673
50 CP5 91 -7.161
50 CP5 92 -7.650
50 CP5 93 -7.650
50 CP5 94 -6.673
50 CP5 95 -6.185
50 CP5 96 -6.185
50 CP5 97 -5.697
50 CP5 98 -5.697
50 CP5 99 -4.232
50 CP5 100 -2.767
50 CP5 101 -2.279
50 CP5 102 -3.255
50 CP5 103 -5.208
50 CP5 104 -7.650
50 CP5 105 -9.603
50 CP5 106 -9.603
50 CP5 107 -8.626
50 CP5 108 -7.161
50 CP5 109 -6.185
50 CP5 110 -6.185
50 CP5 111 -7.161
50 CP5 112 -7.161
50 CP5 113 -6.673
50 CP5 114 -4.720
50 CP5 115 -2.767
50 CP5 116 -1.790
50 CP5 117 -1.302
50 CP5 118 -1.302
50 CP5 119 -0.814
50 CP5 120 0.163
50 CP5 121 2.116
50 CP5 122 4.069
50 CP5 123 5.046
50 CP5 124 5.046
50 CP5 125 3.581
50 CP5 126 1.628
50 CP5 127 0.651
50 CP5 128 -0.326
50 CP5 129 -0.814
50 CP5 130 -1.790
50 CP5 131 -2.767
50 CP5 132 -3.743
50 CP5 133 -4.232
50 CP5 134 -4.720
50 CP5 135 -4.720
50 CP5 136 -5.208
50 CP5 137 -6.185
50 CP5 138 -7.161
50 CP5 139 -8.138
50 CP5 140 -7.650
50 CP5 141 -7.161
50 CP5 142 -6.185
50 CP5 143 -5.208
50 CP5 144 -5.208
50 CP5 145 -5.208
50 CP5 146 -6.185
50 CP5 147 -6.673
50 CP5 148 -7.161
50 CP5 149 -7.650
50 CP5 150 -7.650
50 CP5 151 -7.161
50 CP5 152 -5.697
50 CP5 153 -4.232
50 CP5 154 -2.767
50 CP5 155 -1.790
50 CP5 156 -1.302
50 CP5 157 -0.814
50 CP5 158 -0.814
50 CP5 159 -0.814
50 CP5 160 -0.814
50 CP5 161 -1.302
50 CP5 162 -1.302
50 CP5 163 -1.790
50 CP5 164 -1.790
50 CP5 165 -1.302
50 CP5 166 -0.814
50 CP5 167 1.139
50 CP5 168 3.092
50 CP5 169 5.046
50 CP5 170 6.022
50 CP5 171 6.022
50 CP5 172 5.046
50 CP5 173 4.557
50 CP5 174 3.581
50 CP5 175 4.557
50 CP5 176 5.046
50 CP5 177 6.022
50 CP5 178 6.510
50 CP5 179 6.999
50 CP5 180 7.975
50 CP5 181 8.952
50 CP5 182 10.417
50 CP5 183 11.393
50 CP5 184 11.393
50 CP5 185 11.882
50 CP5 186 11.393
50 CP5 187 11.393
50 CP5 188 11.393
50 CP5 189 11.393
50 CP5 190 10.905
50 CP5 191 10.905
50 CP5 192 11.393
50 CP5 193 11.882
50 CP5 194 12.370
50 CP5 195 12.858
50 CP5 196 12.858
50 CP5 197 12.858
50 CP5 198 11.393
50 CP5 199 10.417
50 CP5 200 9.440
50 CP5 201 8.464
50 CP5 202 7.487
50 CP5 203 7.487
50 CP5 204 7.975
50 CP5 205 8.464
50 CP5 206 7.975
50 CP5 207 6.510
50 CP5 208 4.069
50 CP5 209 2.116
50 CP5 210 1.139
50 CP5 211 0.651
50 CP5 212 0.163
50 CP5 213 -0.326
50 CP5 214 -1.302
50 CP5 215 -1.790
50 CP5 216 -1.790
50 CP5 217 -1.302
50 CP5 218 -1.302
50 CP5 219 -1.302
50 CP5 220 -1.790
50 CP5 221 -2.279
50 CP5 222 -2.767
50 CP5 223 -2.767
50 CP5 224 -2.279
50 CP5 225 -2.767
50 CP5 226 -4.232
50 CP5 227 -5.697
50 CP5 228 -6.673
50 CP5 229 -7.161
50 CP5 230 -6.673
50 CP5 231 -6.185
50 CP5 232 -5.697
50 CP5 233 -5.208
50 CP5 234 -4.232
50 CP5 235 -2.767
50 CP5 236 -1.790
50 CP5 237 -1.302
50 CP5 238 -1.302
50 CP5 239 -1.302
50 CP5 240 -0.814
50 CP5 241 1.139
50 CP5 242 4.069
50 CP5 243 6.022
50 CP5 244 6.999
50 CP5 245 6.510
50 CP5 246 5.534
50 CP5 247 4.557
50 CP5 248 3.581
50 CP5 249 3.092
50 CP5 250 2.604
50 CP5 251 1.628
50 CP5 252 1.139
50 CP5 253 0.651
50 CP5 254 1.139
50 CP5 255 1.628
# CP6 chan 19
50 CP6 0 1.994
50 CP6 1 1.017
50 CP6 2 -1.912
50 CP6 3 -5.330
50 CP6 4 -7.284
50 CP6 5 -7.772
50 CP6 6 -6.795
50 CP6 7 -6.795
50 CP6 8 -7.772
50 CP6 9 -9.725
50 CP6 10 -11.678
50 CP6 11 -11.678
50 CP6 12 -10.213
50 CP6 13 -8.260
50 CP6 14 -6.795
50 CP6 15 -5.819
50 CP6 16 -5.330
50 CP6 17 -3.377
50 CP6 18 -0.936
50 CP6 19 1.017
50 CP6 20 1.994
50 CP6 21 1.994
50 CP6 22 1.506
50 CP6 23 0.041
50 CP6 24 0.041
50 CP6 25 0.041
50 CP6 26 -0.936
50 CP6 27 -1.424
50 CP6 28 -1.912
50 CP6 29 -1.424
50 CP6 30 0.041
50 CP6 31 1.994
50 CP6 32 4.435
50 CP6 33 5.412
50 CP6 34 4.924
50 CP6 35 3.459
50 CP6 36 1.994
50 CP6 37 1.506
50 CP6 38 1.506
50 CP6 39 2.482
50 CP6 40 3.459
50 CP6 41 2.970
50 CP6 42 1.994
50 CP6 43 0.529
50 CP6 44 0.041
50 CP6 45 0.529
50 CP6 46 1.994
50 CP6 47 4.435
50 CP6 48 5.900
50 CP6 49 6.388
50 CP6 50 5.900
50 CP6 51 5.900
50 CP6 52 5.900
50 CP6 53 7.853
50 CP6 54 10.295
50 CP6 55 11.759
50 CP6 56 12.248
50 CP6 57 10.295
50 CP6 58 7.365
50 CP6 59 4.924
50 CP6 60 2.482
50 CP6 61 1.994
50 CP6 62 1.994
50 CP6 63 2.970
50 CP6 64 3.947
50 CP6 65 5.412
50 CP6 66 5.900
50 CP6 67 5.900
50 CP6 68 4.924
50 CP6 69 2.970
50 CP6 70 0.041
50 CP6 71 -2.401
50 CP6 72 -4.354
50 CP6 73 -4.842
50 CP6 74 -4.842
50 CP6 75 -3.866
50 CP6 76 -2.889
50 CP6 77 -1.912
50 CP6 78 -1.912
50 CP6 79 -1.424
50 CP6 80 -1.424
50 CP6 81 -0.936
50 CP6 82 0.529
50 CP6 83 1.506
50 CP6 84 2.482
50 CP6 85 2.482
50 CP6 86 1.506
50 CP6 87 0.041
50 CP6 88 -0.448
50 CP6 89 -0.936
50 CP6 90 -0.448
50 CP6 91 0.041
50 CP6 92 -0.448
50 CP6 93 -1.424
50 CP6 94 -2.401
50 CP6 95 -3.377
50 CP6 96 -3.377
50 CP6 97 -2.889
50 CP6 98 -1.912
50 CP6 99 -1.912
50 CP6 100 -2.889
50 CP6 101 -5.330
50 CP6 102 -7.772
50 CP6 103 -9.725
50 CP6 104 -10.213
50 CP6 105 -8.748
50 CP6 106 -6.307
50 CP6 107 -3.377
50 CP6 108 -1.912
50 CP6 109 -0.448
50 CP6 110 0.041
50 CP6 111 0.529
50 CP6 112 1.017
50 CP6 113 1.017
50 CP6 114 1.017
50 CP6 115 1.017
50 CP6 116 0.041
50 CP6 117 -0.448
50 CP6 118 -0.936
50 CP6 119 0.041
50 CP6 120 1.017
50 CP6 121 2.970
50 CP6 122 4.435
50 CP6 123 6.388
50 CP6 124 7.853
50 CP6 125 8.830
50 CP6 126 8.830
50 CP6 127 8.341
50 CP6 128 7.365
50 CP6 129 6.388
50 CP6 130 4.924
50 CP6 131 3.947
50 CP6 132 3.459
50 CP6 133 3.459
50 CP6 134 2.970
50 CP6 135 2.482
50 CP6 136 1.994
50 CP6 137 1.506
50 CP6 138 1.994
50 CP6 139 2.970
50 CP6 140 3.459
50 CP6 141 3.459
50 CP6 142 2.970
50 CP6 143 1.506
50 CP6 144 0.041
50 CP6 145 -0.936
50 CP6 146 -0.936
50 CP6 147 -0.936
50 CP6 148 -0.448
50 CP6 149 -0.448
50 CP6 150 -0.448
50 CP6 151 0.041
50 CP6 152 1.017
50 CP6 153 2.482
50 CP6 154 3.459
50 CP6 155 3.947
50 CP6 156 2.970
50 CP6 157 1.994
50 CP6 158 1.994
50 CP6 159 2.482
50 CP6 160 3.947
50 CP6 161 5.412
50 CP6 162 5.900
50 CP6 163 5.900
50 CP6 164 5.412
50 CP6 165 4.924
50 CP6 166 4.924
50 CP6 167 5.900
50 CP6 168 6.877
50 CP6 169 7.365
50 CP6 170 7.365
50 CP6 171 7.365
50 CP6 172 6.877
50 CP6 173 6.388
50 CP6 174 5.412
50 CP6 175 3.947
50 CP6 176 2.482
50 CP6 177 1.994
50 CP6 178 2.970
50 CP6 179 4.924
50 CP6 180 6.877
50 CP6 181 8.341
50 CP6 182 9.806
50 CP6 183 10.295
50 CP6 184 11.759
50 CP6 185 13.713
50 CP6 186 15.666
50 CP6 187 17.619
50 CP6 188 18.107
50 CP6 189 17.619
50 CP6 190 16.642
50 CP6 191 15.177
50 CP6 192 13.713
50 CP6 193 12.248
50 CP6 194 11.271
50 CP6 195 10.783
50 CP6 196 10.783
50 CP6 197 12.248
50 CP6 198 14.201
50 CP6 199 14.689
50 CP6 200 14.201
50 CP6 201 12.736
50 CP6 202 10.783
50 CP6 203 10.295
50 CP6 204 11.271
50 CP6 205 12.736
50 CP6 206 13.224
50 CP6 207 12.248
50 CP6 208 10.295
50 CP6 209 8.830
50 CP6 210 7.365
50 CP6 211 6.388
50 CP6 212 5.900
50 CP6 213 4.924
50 CP6 214 3.459
50 CP6 215 2.970
50 CP6 216 2.482
50 CP6 217 1.994
50 CP6 218 1.506
50 CP6 219 1.017
50 CP6 220 0.041
50 CP6 221 -0.448
50 CP6 222 0.529
50 CP6 223 2.482
50 CP6 224 4.924
50 CP6 225 6.388
50 CP6 226 6.388
50 CP6 227 4.435
50 CP6 228 2.970
50 CP6 229 1.994
50 CP6 230 2.482
50 CP6 231 3.947
50 CP6 232 5.412
50 CP6 233 5.900
50 CP6 234 5.412
50 CP6 235 3.947
50 CP6 236 2.970
50 CP6 237 2.482
50 CP6 238 3.459
50 CP6 239 4.924
50 CP6 240 7.365
50 CP6 241 10.295
50 CP6 242 13.224
50 CP6 243 15.177
50 CP6 244 15.177
50 CP6 245 13.713
50 CP6 246 11.271
50 CP6 247 8.830
50 CP6 248 7.365
50 CP6 249 7.365
50 CP6 250 7.853
50 CP6 251 7.853
50 CP6 252 7.365
50 CP6 253 5.900
50 CP6 254 3.947
50 CP6 255 1.506
# CP1 chan 20
50 CP1 0 0.020
50 CP1 1 -0.956
50 CP1 2 -1.933
50 CP1 3 -2.421
50 CP1 4 -2.421
50 CP1 5 -2.909
50 CP1 6 -3.886
50 CP1 7 -5.351
50 CP1 8 -7.304
50 CP1 9 -8.280
50 CP1 10 -8.280
50 CP1 11 -7.304
50 CP1 12 -6.327
50 CP1 13 -4.862
50 CP1 14 -3.886
50 CP1 15 -2.909
50 CP1 16 -2.421
50 CP1 17 -2.421
50 CP1 18 -2.909
50 CP1 19 -3.398
50 CP1 20 -3.398
50 CP1 21 -3.398
50 CP1 22 -2.909
50 CP1 23 -2.909
50 CP1 24 -2.421
50 CP1 25 -2.909
50 CP1 26 -2.421
50 CP1 27 -1.933
50 CP1 28 -1.933
50 CP1 29 -2.421
50 CP1 30 -3.886
50 CP1 31 -5.839
50 CP1 32 -6.816
50 CP1 33 -7.792
50 CP1 34 -7.792
50 CP1 35 -7.304
50 CP1 36 -7.792
50 CP1 37 -8.280
50 CP1 38 -8.769
50 CP1 39 -8.769
50 CP1 40 -7.792
50 CP1 41 -7.304
50 CP1 42 -6.816
50 CP1 43 -6.816
50 CP1 44 -6.327
50 CP1 45 -5.351
50 CP1 46 -3.886
50 CP1 47 -2.421
50 CP1 48 -1.933
50 CP1 49 -2.909
50 CP1 50 -3.886
50 CP1 51 -4.862
50 CP1 52 -4.862
50 CP1 53 -4.374
50 CP1 54 -3.886
50 CP1 55 -3.886
50 CP1 56 -4.374
50 CP1 57 -5.839
50 CP1 58 -6.327
50 CP1 59 -7.304
50 CP1 60 -7.304
50 CP1 61 -7.792
50 CP1 62 -8.280
50 CP1 63 -8.280
50 CP1 64 -8.280
50 CP1 65 -7.304
50 CP1 66 -6.816
50 CP1 67 -5.839
50 CP1 68 -4.862
50 CP1 69 -4.862
50 CP1 70 -4.862
50 CP1 71 -4.862
50 CP1 72 -4.862
50 CP1 73 -4.862
50 CP1 74 -4.862
50 CP1 75 -4.374
50 CP1 76 -3.886
50 CP1 77 -3.886
50 CP1 78 -3.886
50 CP1 79 -4.374
50 CP1 80 -4.862
50 CP1 81 -5.351
50 CP1 82 -4.862
50 CP1 83 -4.374
50 CP1 84 -3.886
50 CP1 85 -3.886
50 CP1 86 -3.886
50 CP1 87 -4.862
50 CP1 88 -5.839
50 CP1 89 -7.304
50 CP1 90 -8.280
50 CP1 91 -8.769
50 CP1 92 -8.769
50 CP1 93 -8.280
50 CP1 94 -8.769
50 CP1 95 -8.769
50 CP1 96 -8.280
50 CP1 97 -7.792
50 CP1 98 -7.304
50 CP1 99 -7.304
50 CP1 100 -7.304
50 CP1 101 -8.280
50 CP1 102 -9.257
50 CP1 103 -10.234
50 CP1 104 -9.745
50 CP1 105 -8.769
50 CP1 106 -6.816
50 CP1 107 -5.839
50 CP1 108 -5.351
50 CP1 109 -5.839
50 CP1 110 -6.816
50 CP1 111 -7.304
50 CP1 112 -6.816
50 CP1 113 -5.839
50 CP1 114 -4.374
50 CP1 115 -3.398
50 CP1 116 -2.421
50 CP1 117 -2.421
50 CP1 118 -2.909
50 CP1 119 -2.909
50 CP1 120 -2.909
50 CP1 121 -1.933
50 CP1 122 -0.468
50 CP1 123 0.020
50 CP1 124 0.020
50 CP1 125 -0.468
50 CP1 126 -1.444
50 CP1 127 -2.421
50 CP1 128 -2.909
50 CP1 129 -3.886
50 CP1 130 -4.374
50 CP1 131 -4.374
50 CP1 132 -3.886
50 CP1 133 -3.398
50 CP1 134 -2.909
50 CP1 135 -2.909
50 CP1 136 -3.398
50 CP1 137 -3.886
50 CP1 138 -4.862
50 CP1 139 -5.351
50 CP1 140 -5.839
50 CP1 141 -5.839
50 CP1 142 -5.839
50 CP1 143 -5.839
50 CP1 144 -5.351
50 CP1 145 -5.351
50 CP1 146 -5.351
50 CP1 147 -5.839
50 CP1 148 -6.816
50 CP1 149 -7.792
50 CP1 150 -8.769
50 CP1 151 -8.280
50 CP1 152 -6.816
50 CP1 153 -5.351
50 CP1 154 -3.886
50 CP1 155 -3.398
50 CP1 156 -3.398
50 CP1 157 -3.398
50 CP1 158 -3.886
50 CP1 159 -4.374
50 CP1 160 -4.374
50 CP1 161 -3.886
50 CP1 162 -3.398
50 CP1 163 -2.909
50 CP1 164 -2.909
50 CP1 165 -2.909
50 CP1 166 -2.909
50 CP1 167 -2.909
50 CP1 168 -2.909
50 CP1 169 -2.909
50 CP1 170 -2.909
50 CP1 171 -3.398
50 CP1 172 -3.398
50 CP1 173 -2.909
50 CP1 174 -2.909
50 CP1 175 -2.421
50 CP1 176 -2.421
50 CP1 177 -2.421
50 CP1 178 -2.421
50 CP1 179 -1.933
50 CP1 180 -1.933
50 CP1 181 -0.468
50 CP1 182 0.509
50 CP1 183 0.997
50 CP1 184 0.997
50 CP1 185 0.509
50 CP1 186 0.020
50 CP1 187 -0.468
50 CP1 188 -0.956
50 CP1 189 -1.444
50 CP1 190 -1.933
50 CP1 191 -2.909
50 CP1 192 -2.909
50 CP1 193 -2.421
50 CP1 194 -1.933
50 CP1 195 -0.956
50 CP1 196 -0.468
50 CP1 197 -0.468
50 CP1 198 -0.468
50 CP1 199 -0.956
50 CP1 200 -0.956
50 CP1 201 -1.444
50 CP1 202 -1.444
50 CP1 203 -1.933
50 CP1 204 -1.933
50 CP1 205 -1.933
50 CP1 206 -1.933
50 CP1 207 -2.909
50 CP1 208 -3.886
50 CP1 209 -5.351
50 CP1 210 -6.327
50 CP1 211 -6.816
50 CP1 212 -7.304
50 CP1 213 -7.792
50 CP1 214 -8.280
50 CP1 215 -8.769
50 CP1 216 -8.769
50 CP1 217 -8.769
50 CP1 218 -9.257
50 CP1 219 -9.257
50 CP1 220 -9.745
50 CP1 221 -10.722
50 CP1 222 -10.234
50 CP1 223 -9.257
50 CP1 224 -8.280
50 CP1 225 -7.792
50 CP1 226 -8.280
50 CP1 227 -9.745
50 CP1 228 -10.722
50 CP1 229 -11.698
50 CP1 230 -10.722
50 CP1 231 -9.745
50 CP1 232 -8.769
50 CP1 233 -7.792
50 CP1 234 -7.304
50 CP1 235 -6.816
50 CP1 236 -5.839
50 CP1 237 -5.351
50 CP1 238 -5.351
50 CP1 239 -4.862
50 CP1 240 -4.374
50 CP1 241 -3.398
50 CP1 242 -2.421
50 CP1 243 -1.933
50 CP1 244 -2.421
50 CP1 245 -3.398
50 CP1 246 -4.862
50 CP1 247 -5.351
50 CP1 248 -5.839
50 CP1 249 -5.351
50 CP1 250 -5.351
50 CP1 251 -5.351
50 CP1 252 -5.351
50 CP1 253 -5.351
50 CP1 254 -4.862
50 CP1 255 -4.374
# CP2 chan 21
50 CP2 0 2.014
50 CP2 1 1.526
50 CP2 2 -0.427
50 CP2 3 -1.892
50 CP2 4 -2.380
50 CP2 5 -2.869
50 CP2 6 -2.869
50 CP2 7 -2.869
50 CP2 8 -4.333
50 CP2 9 -5.310
50 CP2 10 -6.775
50 CP2 11 -6.775
50 CP2 12 -5.798
50 CP2 13 -5.310
50 CP2 14 -4.822
50 CP2 15 -4.333
50 CP2 16 -3.357
50 CP2 17 -2.869
50 CP2 18 -1.892
50 CP2 19 -1.404
50 CP2 20 -1.404
50 CP2 21 -1.404
50 CP2 22 -2.380
50 CP2 23 -2.869
50 CP2 24 -3.357
50 CP2 25 -3.845
50 CP2 26 -4.333
50 CP2 27 -4.822
50 CP2 28 -4.822
50 CP2 29 -4.822
50 CP2 30 -4.333
50 CP2 31 -3.357
50 CP2 32 -2.869
50 CP2 33 -2.869
50 CP2 34 -3.357
50 CP2 35 -3.845
50 CP2 36 -4.822
50 CP2 37 -5.310
50 CP2 38 -5.310
50 CP2 39 -4.822
50 CP2 40 -4.333
50 CP2 41 -4.333
50 CP2 42 -4.822
50 CP2 43 -5.310
50 CP2 44 -5.798
50 CP2 45 -5.310
50 CP2 46 -4.333
50 CP2 47 -2.380
50 CP2 48 -1.404
50 CP2 49 -0.916
50 CP2 50 -0.916
50 CP2 51 -0.916
50 CP2 52 -0.916
50 CP2 53 0.061
50 CP2 54 1.038
50 CP2 55 1.526
50 CP2 56 1.526
50 CP2 57 0.061
50 CP2 58 -1.404
50 CP2 59 -3.357
50 CP2 60 -4.333
50 CP2 61 -4.822
50 CP2 62 -4.333
50 CP2 63 -3.357
50 CP2 64 -2.869
50 CP2 65 -1.892
50 CP2 66 -1.404
50 CP2 67 -0.916
50 CP2 68 -0.916
50 CP2 69 -1.404
50 CP2 70 -1.892
50 CP2 71 -2.869
50 CP2 72 -3.357
50 CP2 73 -3.845
50 CP2 74 -3.845
50 CP2 75 -3.357
50 CP2 76 -2.869
50 CP2 77 -2.380
50 CP2 78 -1.892
50 CP2 79 -1.892
50 CP2 80 -2.380
50 CP2 81 -2.380
50 CP2 82 -2.380
50 CP2 83 -1.892
50 CP2 84 -1.404
50 CP2 85 -1.404
50 CP2 86 -1.892
50 CP2 87 -2.869
50 CP2 88 -3.845
50 CP2 89 -4.333
50 CP2 90 -4.822
50 CP2 91 -4.822
50 CP2 92 -4.822
50 CP2 93 -4.822
50 CP2 94 -5.310
50 CP2 95 -5.798
50 CP2 96 -5.798
50 CP2 97 -5.310
50 CP2 98 -4.822
50 CP2 99 -5.310
50 CP2 100 -6.287
50 CP2 101 -7.263
50 CP2 102 -8.240
50 CP2 103 -9.216
50 CP2 104 -8.728
50 CP2 105 -8.240
50 CP2 106 -6.775
50 CP2 107 -5.310
50 CP2 108 -4.333
50 CP2 109 -3.357
50 CP2 110 -2.869
50 CP2 111 -2.869
50 CP2 112 -2.869
50 CP2 113 -2.869
50 CP2 114 -2.380
50 CP2 115 -2.380
50 CP2 116 -2.380
50 CP2 117 -2.869
50 CP2 118 -2.869
50 CP2 119 -2.380
50 CP2 120 -1.892
50 CP2 121 -0.916
50 CP2 122 0.549
50 CP2 123 1.526
50 CP2 124 2.014
50 CP2 125 2.014
50 CP2 126 2.014
50 CP2 127 1.526
50 CP2 128 1.038
50 CP2 129 0.061
50 CP2 130 -0.427
50 CP2 131 -0.916
50 CP2 132 -1.404
50 CP2 133 -1.404
50 CP2 134 -1.892
50 CP2 135 -1.892
50 CP2 136 -2.380
50 CP2 137 -2.869
50 CP2 138 -2.869
50 CP2 139 -2.869
50 CP2 140 -2.380
50 CP2 141 -2.869
50 CP2 142 -3.845
50 CP2 143 -4.333
50 CP2 144 -5.310
50 CP2 145 -5.310
50 CP2 146 -5.798
50 CP2 147 -5.798
50 CP2 148 -5.798
50 CP2 149 -5.798
50 CP2 150 -5.798
50 CP2 151 -5.310
50 CP2 152 -4.333
50 CP2 153 -3.845
50 CP2 154 -2.869
50 CP2 155 -2.869
50 CP2 156 -2.869
50 CP2 157 -3.357
50 CP2 158 -3.357
50 CP2 159 -2.869
50 CP2 160 -2.380
50 CP2 161 -1.404
50 CP2 162 -0.427
50 CP2 163 -0.427
50 CP2 164 -0.427
50 CP2 165 -0.916
50 CP2 166 -0.916
50 CP2 167 -0.916
50 CP2 168 -0.916
50 CP2 169 -0.916
50 CP2 170 -0.916
50 CP2 171 -0.916
50 CP2 172 -0.916
50 CP2 173 -0.916
50 CP2 174 -1.404
50 CP2 175 -1.892
50 CP2 176 -2.380
50 CP2 177 -2.380
50 CP2 178 -1.892
50 CP2 179 -0.916
50 CP2 180 0.549
50 CP2 181 1.038
50 CP2 182 1.526
50 CP2 183 2.014
50 CP2 184 2.014
50 CP2 185 2.991
50 CP2 186 3.967
50 CP2 187 4.456
50 CP2 188 3.967
50 CP2 189 3.479
50 CP2 190 2.502
50 CP2 191 2.014
50 CP2 192 1.526
50 CP2 193 1.526
50 CP2 194 1.038
50 CP2 195 1.038
50 CP2 196 1.526
50 CP2 197 2.014
50 CP2 198 2.991
50 CP2 199 3.479
50 CP2 200 3.479
50 CP2 201 2.502
50 CP2 202 1.526
50 CP2 203 1.038
50 CP2 204 1.038
50 CP2 205 1.526
50 CP2 206 2.014
50 CP2 207 1.526
50 CP2 208 0.549
50 CP2 209 0.061
50 CP2 210 -0.916
50 CP2 211 -0.916
50 CP2 212 -1.404
50 CP2 213 -1.892
50 CP2 214 -1.892
50 CP2 215 -1.892
50 CP2 216 -1.892
50 CP2 217 -2.380
50 CP2 218 -2.869
50 CP2 219 -3.357
50 CP2 220 -4.333
50 CP2 221 -4.333
50 CP2 222 -3.845
50 CP2 223 -2.869
50 CP2 224 -1.404
50 CP2 225 -0.916
50 CP2 226 -0.916
50 CP2 227 -1.404
50 CP2 228 -2.380
50 CP2 229 -2.869
50 CP2 230 -2.380
50 CP2 231 -1.404
50 CP2 232 -0.916
50 CP2 233 -0.427
50 CP2 234 -0.916
50 CP2 235 -0.916
50 CP2 236 -0.916
50 CP2 237 0.061
50 CP2 238 1.038
50 CP2 239 2.014
50 CP2 240 2.991
50 CP2 241 2.991
50 CP2 242 3.479
50 CP2 243 3.967
50 CP2 244 3.479
50 CP2 245 2.991
50 CP2 246 2.014
50 CP2 247 0.549
50 CP2 248 0.549
50 CP2 249 0.549
50 CP2 250 0.061
50 CP2 251 0.061
50 CP2 252 -0.427
50 CP2 253 -1.404
50 CP2 254 -2.380
50 CP2 255 -3.357
# P3 chan 22
50 P3 0 2.665
50 P3 1 2.177
50 P3 2 0.712
50 P3 3 -1.241
50 P3 4 -2.706
50 P3 5 -3.194
50 P3 6 -4.659
50 P3 7 -6.612
50 P3 8 -9.542
50 P3 9 -11.983
50 P3 10 -13.936
50 P3 11 -13.448
50 P3 12 -11.007
50 P3 13 -8.077
50 P3 14 -5.147
50 P3 15 -3.194
50 P3 16 -1.241
50 P3 17 0.224
50 P3 18 0.712
50 P3 19 1.200
50 P3 20 1.200
50 P3 21 1.200
50 P3 22 0.712
50 P3 23 0.224
50 P3 24 -0.753
50 P3 25 -1.729
50 P3 26 -2.218
50 P3 27 -2.706
50 P3 28 -3.194
50 P3 29 -3.682
50 P3 30 -5.147
50 P3 31 -7.100
50 P3 32 -8.565
50 P3 33 -9.542
50 P3 34 -10.030
50 P3 35 -10.030
50 P3 36 -10.518
50 P3 37 -10.030
50 P3 38 -9.054
50 P3 39 -7.100
50 P3 40 -5.147
50 P3 41 -3.682
50 P3 42 -3.682
50 P3 43 -4.659
50 P3 44 -5.636
50 P3 45 -5.147
50 P3 46 -2.706
50 P3 47 0.224
50 P3 48 2.665
50 P3 49 3.153
50 P3 50 2.665
50 P3 51 1.689
50 P3 52 2.177
50 P3 53 3.642
50 P3 54 4.618
50 P3 55 5.107
50 P3 56 4.130
50 P3 57 2.177
50 P3 58 0.224
50 P3 59 -0.753
50 P3 60 -1.241
50 P3 61 -1.241
50 P3 62 -1.241
50 P3 63 -1.729
50 P3 64 -1.241
50 P3 65 -0.753
50 P3 66 0.712
50 P3 67 1.200
50 P3 68 1.200
50 P3 69 0.712
50 P3 70 -0.753
50 P3 71 -2.218
50 P3 72 -3.194
50 P3 73 -3.194
50 P3 74 -2.706
50 P3 75 -2.218
50 P3 76 -2.218
50 P3 77 -2.218
50 P3 78 -2.706
50 P3 79 -3.682
50 P3 80 -4.171
50 P3 81 -3.682
50 P3 82 -2.706
50 P3 83 -1.241
50 P3 84 -0.264
50 P3 85 -0.264
50 P3 86 -0.753
50 P3 87 -1.729
50 P3 88 -3.194
50 P3 89 -4.659
50 P3 90 -6.124
50 P3 91 -7.100
50 P3 92 -7.589
50 P3 93 -7.589
50 P3 94 -7.100
50 P3 95 -6.124
50 P3 96 -5.636
50 P3 97 -5.636
50 P3 98 -5.147
50 P3 99 -4.171
50 P3 100 -4.171
50 P3 101 -4.659
50 P3 102 -6.124
50 P3 103 -8.077
50 P3 104 -10.030
50 P3 105 -11.007
50 P3 106 -10.518
50 P3 107 -9.054
50 P3 108 -7.589
50 P3 109 -6.612
50 P3 110 -6.612
50 P3 111 -6.612
50 P3 112 -6.612
50 P3 113 -5.636
50 P3 114 -4.171
50 P3 115 -3.194
50 P3 116 -2.218
50 P3 117 -2.218
50 P3 118 -2.218
50 P3 119 -2.218
50 P3 120 -1.241
50 P3 121 0.712
50 P3 122 3.153
50 P3 123 5.107
50 P3 124 5.595
50 P3 125 4.618
50 P3 126 3.153
50 P3 127 1.200
50 P3 128 0.224
50 P3 129 -0.753
50 P3 130 -0.753
50 P3 131 -0.753
50 P3 132 -1.241
50 P3 133 -1.729
50 P3 134 -2.218
50 P3 135 -2.706
50 P3 136 -3.194
50 P3 137 -4.171
50 P3 138 -4.659
50 P3 139 -5.636
50 P3 140 -6.124
50 P3 141 -6.612
50 P3 142 -6.612
50 P3 143 -6.612
50 P3 144 -6.124
50 P3 145 -6.124
50 P3 146 -6.612
50 P3 147 -7.589
50 P3 148 -8.077
50 P3 149 -8.565
50 P3 150 -8.565
50 P3 151 -7.589
50 P3 152 -6.612
50 P3 153 -4.659
50 P3 154 -3.682
50 P3 155 -2.706
50 P3 156 -2.706
50 P3 157 -2.706
50 P3 158 -3.194
50 P3 159 -3.194
50 P3 160 -3.194
50 P3 161 -3.194
50 P3 162 -3.194
50 P3 163 -3.194
50 P3 164 -3.682
50 P3 165 -3.682
50 P3 166 -3.194
50 P3 167 -1.729
50 P3 168 -0.264
50 P3 169 1.200
50 P3 170 1.200
50 P3 171 1.200
50 P3 172 0.224
50 P3 173 -0.753
50 P3 174 -1.241
50 P3 175 -1.241
50 P3 176 -1.241
50 P3 177 -0.753
50 P3 178 -0.264
50 P3 179 0.712
50 P3 180 2.177
50 P3 181 3.153
50 P3 182 4.130
50 P3 183 4.618
50 P3 184 4.618
50 P3 185 5.107
50 P3 186 5.107
50 P3 187 4.618
50 P3 188 4.130
50 P3 189 3.642
50 P3 190 3.153
50 P3 191 3.642
50 P3 192 4.130
50 P3 193 4.618
50 P3 194 5.107
50 P3 195 5.595
50 P3 196 5.595
50 P3 197 6.083
50 P3 198 6.571
50 P3 199 6.083
50 P3 200 5.595
50 P3 201 4.618
50 P3 202 3.642
50 P3 203 3.153
50 P3 204 3.153
50 P3 205 2.665
50 P3 206 2.177
50 P3 207 0.712
50 P3 208 -1.241
50 P3 209 -3.194
50 P3 210 -4.659
50 P3 211 -5.636
50 P3 212 -6.612
50 P3 213 -7.100
50 P3 214 -7.589
50 P3 215 -7.589
50 P3 216 -7.100
50 P3 217 -7.100
50 P3 218 -7.100
50 P3 219 -8.077
50 P3 220 -9.054
50 P3 221 -9.542
50 P3 222 -9.054
50 P3 223 -7.589
50 P3 224 -5.636
50 P3 225 -5.147
50 P3 226 -6.124
50 P3 227 -7.589
50 P3 228 -9.054
50 P3 229 -9.542
50 P3 230 -9.054
50 P3 231 -8.565
50 P3 232 -8.565
50 P3 233 -8.077
50 P3 234 -6.612
50 P3 235 -4.659
50 P3 236 -3.194
50 P3 237 -1.241
50 P3 238 -0.753
50 P3 239 -0.753
50 P3 240 -0.264
50 P3 241 0.224
50 P3 242 1.689
50 P3 243 2.665
50 P3 244 2.665
50 P3 245 1.689
50 P3 246 0.712
50 P3 247 -0.753
50 P3 248 -1.241
50 P3 249 -2.218
50 P3 250 -3.194
50 P3 251 -4.171
50 P3 252 -5.147
50 P3 253 -5.636
50 P3 254 -5.636
50 P3 255 -5.147
# P4 chan 23
50 P4 0 5.686
50 P4 1 4.222
50 P4 2 1.780
50 P4 3 -1.638
50 P4 4 -3.103
50 P4 5 -3.591
50 P4 6 -2.614
50 P4 7 -3.103
50 P4 8 -5.056
50 P4 9 -8.474
50 P4 10 -10.915
50 P4 11 -11.403
50 P4 12 -9.939
50 P4 13 -7.497
50 P4 14 -5.544
50 P4 15 -4.567
50 P4 16 -4.079
50 P4 17 -3.103
50 P4 18 -1.638
50 P4 19 -0.173
50 P4 20 0.315
50 P4 21 -0.173
50 P4 22 -0.661
50 P4 23 -1.149
50 P4 24 -1.638
50 P4 25 -1.638
50 P4 26 -2.614
50 P4 27 -3.591
50 P4 28 -5.056
50 P4 29 -5.544
50 P4 30 -5.544
50 P4 31 -4.079
50 P4 32 -2.614
50 P4 33 -2.126
50 P4 34 -2.614
50 P4 35 -4.079
50 P4 36 -6.032
50 P4 37 -7.009
50 P4 38 -6.521
50 P4 39 -5.056
50 P4 40 -3.591
50 P4 41 -3.103
50 P4 42 -3.103
50 P4 43 -4.079
50 P4 44 -5.056
50 P4 45 -4.567
50 P4 46 -3.103
50 P4 47 -0.661
50 P4 48 1.292
50 P4 49 2.757
50 P4 50 3.733
50 P4 51 4.222
50 P4 52 5.686
50 P4 53 7.151
50 P4 54 9.593
50 P4 55 10.569
50 P4 56 10.081
50 P4 57 8.128
50 P4 58 5.686
50 P4 59 3.245
50 P4 60 1.780
50 P4 61 0.804
50 P4 62 1.292
50 P4 63 2.757
50 P4 64 4.222
50 P4 65 6.175
50 P4 66 7.151
50 P4 67 7.640
50 P4 68 6.663
50 P4 69 5.198
50 P4 70 3.245
50 P4 71 1.780
50 P4 72 0.315
50 P4 73 -0.173
50 P4 74 -0.173
50 P4 75 0.315
50 P4 76 1.292
50 P4 77 2.268
50 P4 78 2.757
50 P4 79 2.757
50 P4 80 1.292
50 P4 81 0.804
50 P4 82 1.780
50 P4 83 3.245
50 P4 84 4.222
50 P4 85 4.710
50 P4 86 3.245
50 P4 87 1.292
50 P4 88 -1.149
50 P4 89 -2.614
50 P4 90 -3.103
50 P4 91 -2.614
50 P4 92 -3.103
50 P4 93 -3.591
50 P4 94 -4.567
50 P4 95 -5.056
50 P4 96 -5.056
50 P4 97 -4.567
50 P4 98 -4.567
50 P4 99 -5.056
50 P4 100 -6.032
50 P4 101 -8.474
50 P4 102 -10.427
50 P4 103 -11.892
50 P4 104 -11.892
50 P4 105 -11.403
50 P4 106 -9.450
50 P4 107 -6.521
50 P4 108 -4.567
50 P4 109 -3.103
50 P4 110 -2.614
50 P4 111 -1.638
50 P4 112 -1.149
50 P4 113 -1.149
50 P4 114 -1.638
50 P4 115 -1.638
50 P4 116 -2.614
50 P4 117 -3.591
50 P4 118 -4.079
50 P4 119 -4.079
50 P4 120 -3.103
50 P4 121 -1.149
50 P4 122 1.780
50 P4 123 4.222
50 P4 124 6.175
50 P4 125 6.663
50 P4 126 6.175
50 P4 127 5.686
50 P4 128 4.710
50 P4 129 4.222
50 P4 130 3.733
50 P4 131 3.245
50 P4 132 2.268
50 P4 133 1.780
50 P4 134 1.292
50 P4 135 0.804
50 P4 136 0.315
50 P4 137 0.315
50 P4 138 0.315
50 P4 139 0.315
50 P4 140 -0.173
50 P4 141 -0.661
50 P4 142 -1.638
50 P4 143 -2.614
50 P4 144 -3.591
50 P4 145 -4.079
50 P4 146 -4.567
50 P4 147 -4.567
50 P4 148 -5.056
50 P4 149 -5.544
50 P4 150 -5.544
50 P4 151 -4.567
50 P4 152 -3.591
50 P4 153 -1.638
50 P4 154 -0.661
50 P4 155 -0.173
50 P4 156 -0.661
50 P4 157 -1.638
50 P4 158 -2.614
50 P4 159 -2.126
50 P4 160 -0.661
50 P4 161 0.804
50 P4 162 1.292
50 P4 163 1.292
50 P4 164 0.315
50 P4 165 -0.173
50 P4 166 -0.173
50 P4 167 0.804
50 P4 168 1.292
50 P4 169 1.780
50 P4 170 1.292
50 P4 171 0.804
50 P4 172 1.292
50 P4 173 0.804
50 P4 174 0.315
50 P4 175 -0.661
50 P4 176 -1.638
50 P4 177 -2.614
50 P4 178 -1.638
50 P4 179 -0.173
50 P4 180 1.292
50 P4 181 2.268
50 P4 182 2.757
50 P4 183 3.245
50 P4 184 3.733
50 P4 185 5.686
50 P4 186 7.151
50 P4 187 8.128
50 P4 188 7.640
50 P4 189 6.663
50 P4 190 5.198
50 P4 191 4.222
50 P4 192 3.733
50 P4 193 3.245
50 P4 194 2.757
50 P4 195 2.757
50 P4 196 3.733
50 P4 197 5.198
50 P4 198 6.663
50 P4 199 7.640
50 P4 200 7.151
50 P4 201 5.686
50 P4 202 4.222
50 P4 203 4.222
50 P4 204 4.710
50 P4 205 6.175
50 P4 206 6.175
50 P4 207 5.198
50 P4 208 3.733
50 P4 209 1.780
50 P4 210 0.804
50 P4 211 -0.173
50 P4 212 -1.149
50 P4 213 -2.614
50 P4 214 -3.591
50 P4 215 -5.544
50 P4 216 -6.032
50 P4 217 -6.521
50 P4 218 -7.009
50 P4 219 -7.985
50 P4 220 -9.450
50 P4 221 -9.939
50 P4 222 -8.474
50 P4 223 -6.032
50 P4 224 -2.614
50 P4 225 -0.661
50 P4 226 -1.149
50 P4 227 -2.614
50 P4 228 -5.056
50 P4 229 -6.032
50 P4 230 -5.056
50 P4 231 -3.591
50 P4 232 -2.614
50 P4 233 -2.126
50 P4 234 -2.614
50 P4 235 -3.103
50 P4 236 -3.591
50 P4 237 -2.614
50 P4 238 -1.638
50 P4 239 -0.661
50 P4 240 0.804
50 P4 241 2.757
50 P4 242 5.198
50 P4 243 7.151
50 P4 244 8.616
50 P4 245 7.640
50 P4 246 5.198
50 P4 247 2.757
50 P4 248 0.804
50 P4 249 0.315
50 P4 250 -0.173
50 P4 251 -0.661
50 P4 252 -1.638
50 P4 253 -3.103
50 P4 254 -4.567
50 P4 255 -6.032
# PZ chan 24
50 PZ 0 2.706
50 PZ 1 1.241
50 PZ 2 0.264
50 PZ 3 -1.200
50 PZ 4 -2.177
50 PZ 5 -2.177
50 PZ 6 -2.665
50 PZ 7 -4.130
50 PZ 8 -6.083
50 PZ 9 -8.525
50 PZ 10 -9.989
50 PZ 11 -9.501
50 PZ 12 -8.036
50 PZ 13 -6.083
50 PZ 14 -4.130
50 PZ 15 -3.642
50 PZ 16 -2.665
50 PZ 17 -2.177
50 PZ 18 -1.689
50 PZ 19 -1.200
50 PZ 20 -1.689
50 PZ 21 -2.177
50 PZ 22 -2.665
50 PZ 23 -3.153
50 PZ 24 -3.153
50 PZ 25 -3.642
50 PZ 26 -4.618
50 PZ 27 -5.595
50 PZ 28 -7.060
50 PZ 29 -8.036
50 PZ 30 -9.013
50 PZ 31 -9.501
50 PZ 32 -9.501
50 PZ 33 -9.989
50 PZ 34 -10.478
50 PZ 35 -10.966
50 PZ 36 -11.454
50 PZ 37 -11.454
50 PZ 38 -10.966
50 PZ 39 -9.989
50 PZ 40 -8.036
50 PZ 41 -6.571
50 PZ 42 -6.083
50 PZ 43 -6.571
50 PZ 44 -6.571
50 PZ 45 -6.083
50 PZ 46 -3.642
50 PZ 47 -0.712
50 PZ 48 1.729
50 PZ 49 3.194
50 PZ 50 3.194
50 PZ 51 2.706
50 PZ 52 3.194
50 PZ 53 4.659
50 PZ 54 5.636
50 PZ 55 6.612
50 PZ 56 5.147
50 PZ 57 2.706
50 PZ 58 -0.224
50 PZ 59 -2.177
50 PZ 60 -3.153
50 PZ 61 -3.153
50 PZ 62 -3.153
50 PZ 63 -2.665
50 PZ 64 -1.200
50 PZ 65 0.264
50 PZ 66 2.218
50 PZ 67 3.194
50 PZ 68 2.706
50 PZ 69 1.729
50 PZ 70 0.264
50 PZ 71 -0.712
50 PZ 72 -0.712
50 PZ 73 -0.224
50 PZ 74 -0.224
50 PZ 75 0.264
50 PZ 76 1.241
50 PZ 77 2.218
50 PZ 78 3.194
50 PZ 79 3.194
50 PZ 80 2.218
50 PZ 81 1.241
50 PZ 82 1.241
50 PZ 83 1.729
50 PZ 84 3.682
50 PZ 85 4.659
50 PZ 86 4.659
50 PZ 87 3.194
50 PZ 88 0.753
50 PZ 89 -1.200
50 PZ 90 -3.153
50 PZ 91 -4.130
50 PZ 92 -5.107
50 PZ 93 -5.595
50 PZ 94 -5.595
50 PZ 95 -5.107
50 PZ 96 -4.130
50 PZ 97 -3.642
50 PZ 98 -3.153
50 PZ 99 -3.642
50 PZ 100 -5.107
50 PZ 101 -6.571
50 PZ 102 -8.525
50 PZ 103 -9.989
50 PZ 104 -10.966
50 PZ 105 -10.966
50 PZ 106 -10.478
50 PZ 107 -9.501
50 PZ 108 -8.525
50 PZ 109 -7.548
50 PZ 110 -7.060
50 PZ 111 -6.083
50 PZ 112 -5.107
50 PZ 113 -3.642
50 PZ 114 -2.177
50 PZ 115 -1.200
50 PZ 116 -0.712
50 PZ 117 -1.200
50 PZ 118 -1.689
50 PZ 119 -1.689
50 PZ 120 -1.200
50 PZ 121 -0.224
50 PZ 122 1.729
50 PZ 123 2.706
50 PZ 124 3.682
50 PZ 125 3.194
50 PZ 126 2.218
50 PZ 127 0.753
50 PZ 128 -0.712
50 PZ 129 -1.689
50 PZ 130 -2.177
50 PZ 131 -2.177
50 PZ 132 -1.689
50 PZ 133 -1.200
50 PZ 134 -1.689
50 PZ 135 -2.177
50 PZ 136 -3.153
50 PZ 137 -4.130
50 PZ 138 -4.618
50 PZ 139 -4.618
50 PZ 140 -4.618
50 PZ 141 -4.618
50 PZ 142 -5.107
50 PZ 143 -6.083
50 PZ 144 -6.571
50 PZ 145 -7.548
50 PZ 146 -7.548
50 PZ 147 -8.036
50 PZ 148 -8.036
50 PZ 149 -8.036
50 PZ 150 -8.036
50 PZ 151 -7.060
50 PZ 152 -6.571
50 PZ 153 -5.595
50 PZ 154 -4.618
50 PZ 155 -4.130
50 PZ 156 -4.130
50 PZ 157 -4.130
50 PZ 158 -3.642
50 PZ 159 -3.642
50 PZ 160 -3.153
50 PZ 161 -2.177
50 PZ 162 -1.200
50 PZ 163 -0.712
50 PZ 164 -0.712
50 PZ 165 -0.712
50 PZ 166 -1.200
50 PZ 167 -1.200
50 PZ 168 -1.200
50 PZ 169 -1.689
50 PZ 170 -1.689
50 PZ 171 -1.689
50 PZ 172 -1.689
50 PZ 173 -1.689
50 PZ 174 -2.177
50 PZ 175 -2.177
50 PZ 176 -2.665
50 PZ 177 -3.153
50 PZ 178 -3.153
50 PZ 179 -2.177
50 PZ 180 -1.200
50 PZ 181 -0.224
50 PZ 182 0.264
50 PZ 183 0.264
50 PZ 184 0.264
50 PZ 185 0.753
50 PZ 186 0.753
50 PZ 187 1.241
50 PZ 188 0.753
50 PZ 189 0.264
50 PZ 190 -0.712
50 PZ 191 -0.712
50 PZ 192 -0.224
50 PZ 193 0.264
50 PZ 194 0.753
50 PZ 195 0.753
50 PZ 196 1.241
50 PZ 197 1.729
50 PZ 198 2.706
50 PZ 199 3.682
50 PZ 200 3.682
50 PZ 201 3.194
50 PZ 202 1.241
50 PZ 203 -0.224
50 PZ 204 -0.712
50 PZ 205 -0.712
50 PZ 206 -0.712
50 PZ 207 -1.689
50 PZ 208 -2.665
50 PZ 209 -4.130
50 PZ 210 -6.083
50 PZ 211 -7.060
50 PZ 212 -8.036
50 PZ 213 -8.525
50 PZ 214 -9.501
50 PZ 215 -9.989
50 PZ 216 -9.989
50 PZ 217 -9.989
50 PZ 218 -10.478
50 PZ 219 -10.966
50 PZ 220 -11.454
50 PZ 221 -11.943
50 PZ 222 -10.966
50 PZ 223 -9.501
50 PZ 224 -8.036
50 PZ 225 -6.571
50 PZ 226 -6.571
50 PZ 227 -7.548
50 PZ 228 -9.501
50 PZ 229 -10.478
50 PZ 230 -10.478
50 PZ 231 -9.989
50 PZ 232 -9.013
50 PZ 233 -8.525
50 PZ 234 -8.036
50 PZ 235 -7.060
50 PZ 236 -5.595
50 PZ 237 -4.618
50 PZ 238 -3.642
50 PZ 239 -3.153
50 PZ 240 -2.665
50 PZ 241 -2.665
50 PZ 242 -2.177
50 PZ 243 -2.177
50 PZ 244 -3.153
50 PZ 245 -4.130
50 PZ 246 -6.083
50 PZ 247 -7.548
50 PZ 248 -8.525
50 PZ 249 -9.013
50 PZ 250 -9.013
50 PZ 251 -9.501
50 PZ 252 -9.989
50 PZ 253 -10.966
50 PZ 254 -11.454
50 PZ 255 -11.454
# P8 chan 25
50 P8 0 6.460
50 P8 1 4.995
50 P8 2 1.088
50 P8 3 -3.306
50 P8 4 -5.747
50 P8 5 -6.236
50 P8 6 -4.771
50 P8 7 -3.794
50 P8 8 -5.259
50 P8 9 -8.677
50 P8 10 -11.607
50 P8 11 -12.583
50 P8 12 -10.630
50 P8 13 -7.701
50 P8 14 -4.771
50 P8 15 -3.306
50 P8 16 -1.841
50 P8 17 -0.865
50 P8 18 1.577
50 P8 19 4.018
50 P8 20 6.460
50 P8 21 7.436
50 P8 22 7.436
50 P8 23 6.948
50 P8 24 6.460
50 P8 25 6.460
50 P8 26 6.460
50 P8 27 5.483
50 P8 28 4.018
50 P8 29 2.553
50 P8 30 2.553
50 P8 31 4.506
50 P8 32 7.436
50 P8 33 9.389
50 P8 34 9.389
50 P8 35 6.460
50 P8 36 2.553
50 P8 37 -0.376
50 P8 38 -0.865
50 P8 39 1.088
50 P8 40 3.530
50 P8 41 5.483
50 P8 42 5.971
50 P8 43 4.995
50 P8 44 3.530
50 P8 45 3.042
50 P8 46 3.530
50 P8 47 4.506
50 P8 48 5.971
50 P8 49 7.436
50 P8 50 8.413
50 P8 51 9.389
50 P8 52 10.854
50 P8 53 13.295
50 P8 54 15.737
50 P8 55 17.690
50 P8 56 19.155
50 P8 57 18.178
50 P8 58 15.249
50 P8 59 11.342
50 P8 60 7.436
50 P8 61 5.483
50 P8 62 5.483
50 P8 63 6.460
50 P8 64 8.901
50 P8 65 9.878
50 P8 66 10.366
50 P8 67 8.901
50 P8 68 6.460
50 P8 69 3.042
50 P8 70 0.112
50 P8 71 -2.330
50 P8 72 -4.283
50 P8 73 -5.259
50 P8 74 -5.259
50 P8 75 -4.283
50 P8 76 -2.818
50 P8 77 -1.353
50 P8 78 -0.376
50 P8 79 -0.376
50 P8 80 -0.865
50 P8 81 -0.376
50 P8 82 1.088
50 P8 83 3.042
50 P8 84 4.506
50 P8 85 4.995
50 P8 86 3.042
50 P8 87 0.112
50 P8 88 -1.841
50 P8 89 -1.841
50 P8 90 -0.865
50 P8 91 -0.376
50 P8 92 -0.376
50 P8 93 -1.353
50 P8 94 -2.818
50 P8 95 -3.794
50 P8 96 -3.794
50 P8 97 -2.330
50 P8 98 -1.353
50 P8 99 -1.353
50 P8 100 -3.306
50 P8 101 -6.236
50 P8 102 -9.165
50 P8 103 -11.607
50 P8 104 -11.119
50 P8 105 -8.677
50 P8 106 -6.236
50 P8 107 -3.306
50 P8 108 -1.841
50 P8 109 -0.865
50 P8 110 0.112
50 P8 111 1.088
50 P8 112 2.553
50 P8 113 3.042
50 P8 114 2.065
50 P8 115 1.088
50 P8 116 -0.865
50 P8 117 -1.841
50 P8 118 -2.330
50 P8 119 -1.841
50 P8 120 -0.865
50 P8 121 1.577
50 P8 122 4.506
50 P8 123 7.924
50 P8 124 10.366
50 P8 125 10.854
50 P8 126 9.878
50 P8 127 7.924
50 P8 128 6.460
50 P8 129 5.971
50 P8 130 6.948
50 P8 131 6.948
50 P8 132 5.971
50 P8 133 4.506
50 P8 134 2.553
50 P8 135 1.577
50 P8 136 1.577
50 P8 137 2.065
50 P8 138 3.042
50 P8 139 3.042
50 P8 140 3.042
50 P8 141 2.065
50 P8 142 1.088
50 P8 143 0.112
50 P8 144 0.112
50 P8 145 0.112
50 P8 146 0.600
50 P8 147 0.600
50 P8 148 -0.376
50 P8 149 -1.841
50 P8 150 -3.794
50 P8 151 -3.794
50 P8 152 -2.330
50 P8 153 0.600
50 P8 154 4.018
50 P8 155 5.483
50 P8 156 5.483
50 P8 157 3.530
50 P8 158 1.577
50 P8 159 1.088
50 P8 160 3.042
50 P8 161 5.483
50 P8 162 6.460
50 P8 163 5.483
50 P8 164 3.042
50 P8 165 1.088
50 P8 166 1.088
50 P8 167 3.042
50 P8 168 5.483
50 P8 169 6.948
50 P8 170 6.460
50 P8 171 4.995
50 P8 172 4.018
50 P8 173 2.553
50 P8 174 1.088
50 P8 175 0.112
50 P8 176 -1.353
50 P8 177 -1.841
50 P8 178 -0.865
50 P8 179 1.088
50 P8 180 3.530
50 P8 181 4.995
50 P8 182 5.483
50 P8 183 5.971
50 P8 184 7.436
50 P8 185 9.878
50 P8 186 12.807
50 P8 187 14.760
50 P8 188 15.249
50 P8 189 14.272
50 P8 190 12.807
50 P8 191 11.342
50 P8 192 10.366
50 P8 193 8.901
50 P8 194 6.948
50 P8 195 5.971
50 P8 196 6.948
50 P8 197 8.901
50 P8 198 11.342
50 P8 199 12.807
50 P8 200 11.831
50 P8 201 9.878
50 P8 202 8.413
50 P8 203 8.901
50 P8 204 10.854
50 P8 205 13.784
50 P8 206 14.272
50 P8 207 12.807
50 P8 208 9.878
50 P8 209 6.948
50 P8 210 5.483
50 P8 211 4.995
50 P8 212 4.506
50 P8 213 3.042
50 P8 214 1.088
50 P8 215 -0.865
50 P8 216 -1.841
50 P8 217 -1.841
50 P8 218 -1.841
50 P8 219 -2.818
50 P8 220 -3.794
50 P8 221 -4.771
50 P8 222 -4.283
50 P8 223 -1.353
50 P8 224 2.553
50 P8 225 5.971
50 P8 226 6.460
50 P8 227 4.506
50 P8 228 1.088
50 P8 229 -0.865
50 P8 230 -0.865
50 P8 231 0.600
50 P8 232 3.042
50 P8 233 4.506
50 P8 234 4.018
50 P8 235 2.065
50 P8 236 0.600
50 P8 237 0.600
50 P8 238 1.577
50 P8 239 4.018
50 P8 240 6.948
50 P8 241 10.366
50 P8 242 13.784
50 P8 243 16.713
50 P8 244 18.667
50 P8 245 17.690
50 P8 246 14.760
50 P8 247 10.854
50 P8 248 7.436
50 P8 249 5.971
50 P8 250 6.460
50 P8 251 7.436
50 P8 252 7.436
50 P8 253 5.971
50 P8 254 3.042
50 P8 255 -0.376
# P7 chan 26
50 P7 0 1.109
50 P7 1 0.621
50 P7 2 -1.333
50 P7 3 -4.262
50 P7 4 -6.704
50 P7 5 -9.145
50 P7 6 -10.122
50 P7 7 -10.610
50 P7 8 -11.587
50 P7 9 -13.540
50 P7 10 -15.004
50 P7 11 -15.004
50 P7 12 -13.540
50 P7 13 -10.610
50 P7 14 -7.680
50 P7 15 -4.751
50 P7 16 -1.821
50 P7 17 0.621
50 P7 18 3.062
50 P7 19 5.015
50 P7 20 6.968
50 P7 21 7.456
50 P7 22 6.968
50 P7 23 5.503
50 P7 24 3.550
50 P7 25 2.085
50 P7 26 1.597
50 P7 27 2.085
50 P7 28 2.085
50 P7 29 1.109
50 P7 30 -0.844
50 P7 31 -2.797
50 P7 32 -3.286
50 P7 33 -2.797
50 P7 34 -1.333
50 P7 35 -1.333
50 P7 36 -1.821
50 P7 37 -2.309
50 P7 38 -0.844
50 P7 39 2.574
50 P7 40 7.456
50 P7 41 10.386
50 P7 42 10.386
50 P7 43 7.456
50 P7 44 3.550
50 P7 45 1.597
50 P7 46 1.597
50 P7 47 4.527
50 P7 48 6.968
50 P7 49 8.433
50 P7 50 7.945
50 P7 51 6.968
50 P7 52 5.992
50 P7 53 6.480
50 P7 54 7.456
50 P7 55 8.433
50 P7 56 7.456
50 P7 57 5.503
50 P7 58 4.038
50 P7 59 3.062
50 P7 60 3.550
50 P7 61 4.038
50 P7 62 4.038
50 P7 63 3.062
50 P7 64 1.597
50 P7 65 0.132
50 P7 66 -0.356
50 P7 67 0.132
50 P7 68 0.132
50 P7 69 -0.356
50 P7 70 -1.333
50 P7 71 -3.286
50 P7 72 -4.751
50 P7 73 -5.727
50 P7 74 -4.751
50 P7 75 -4.262
50 P7 76 -4.751
50 P7 77 -6.215
50 P7 78 -8.169
50 P7 79 -9.145
50 P7 80 -7.680
50 P7 81 -4.751
50 P7 82 -1.333
50 P7 83 1.109
50 P7 84 1.597
50 P7 85 0.621
50 P7 86 -0.844
50 P7 87 -1.333
50 P7 88 -1.821
50 P7 89 -2.797
50 P7 90 -3.774
50 P7 91 -5.239
50 P7 92 -5.239
50 P7 93 -4.262
50 P7 94 -3.286
50 P7 95 -1.821
50 P7 96 -1.821
50 P7 97 -2.309
50 P7 98 -2.309
50 P7 99 -0.844
50 P7 100 0.621
50 P7 101 1.597
50 P7 102 0.132
50 P7 103 -4.262
50 P7 104 -8.657
50 P7 105 -11.098
50 P7 106 -9.633
50 P7 107 -5.727
50 P7 108 -2.309
50 P7 109 -0.844
50 P7 110 -1.821
50 P7 111 -4.262
50 P7 112 -5.727
50 P7 113 -3.774
50 P7 114 -0.844
50 P7 115 2.574
50 P7 116 4.038
50 P7 117 3.550
50 P7 118 2.085
50 P7 119 1.597
50 P7 120 2.574
50 P7 121 5.503
50 P7 122 8.921
50 P7 123 10.874
50 P7 124 10.386
50 P7 125 8.921
50 P7 126 6.968
50 P7 127 5.503
50 P7 128 4.527
50 P7 129 3.550
50 P7 130 2.574
50 P7 131 0.621
50 P7 132 -0.844
50 P7 133 -1.333
50 P7 134 -1.333
50 P7 135 -1.333
50 P7 136 -1.821
50 P7 137 -3.286
50 P7 138 -5.239
50 P7 139 -6.215
50 P7 140 -6.704
50 P7 141 -5.727
50 P7 142 -4.262
50 P7 143 -2.797
50 P7 144 -1.821
50 P7 145 -2.309
50 P7 146 -3.286
50 P7 147 -4.751
50 P7 148 -5.727
50 P7 149 -5.727
50 P7 150 -4.751
50 P7 151 -3.286
50 P7 152 -2.309
50 P7 153 -2.309
50 P7 154 -1.333
50 P7 155 -0.356
50 P7 156 1.109
50 P7 157 2.574
50 P7 158 4.038
50 P7 159 4.038
50 P7 160 3.550
50 P7 161 2.085
50 P7 162 0.621
50 P7 163 0.132
50 P7 164 -0.356
50 P7 165 0.621
50 P7 166 2.085
50 P7 167 4.527
50 P7 168 7.456
50 P7 169 9.898
50 P7 170 11.363
50 P7 171 10.874
50 P7 172 9.410
50 P7 173 7.945
50 P7 174 6.968
50 P7 175 6.480
50 P7 176 6.480
50 P7 177 6.968
50 P7 178 6.968
50 P7 179 7.945
50 P7 180 9.410
50 P7 181 11.851
50 P7 182 13.804
50 P7 183 15.757
50 P7 184 16.246
50 P7 185 16.246
50 P7 186 16.246
50 P7 187 16.246
50 P7 188 16.246
50 P7 189 16.246
50 P7 190 15.269
50 P7 191 14.292
50 P7 192 13.804
50 P7 193 13.804
50 P7 194 14.781
50 P7 195 15.757
50 P7 196 16.734
50 P7 197 17.222
50 P7 198 16.734
50 P7 199 15.757
50 P7 200 14.292
50 P7 201 13.316
50 P7 202 13.316
50 P7 203 14.292
50 P7 204 15.269
50 P7 205 15.269
50 P7 206 13.804
50 P7 207 10.386
50 P7 208 6.968
50 P7 209 4.038
50 P7 210 2.085
50 P7 211 2.085
50 P7 212 2.085
50 P7 213 2.574
50 P7 214 2.574
50 P7 215 2.574
50 P7 216 2.574
50 P7 217 2.574
50 P7 218 2.085
50 P7 219 1.109
50 P7 220 0.621
50 P7 221 0.621
50 P7 222 2.085
50 P7 223 3.550
50 P7 224 4.527
50 P7 225 3.550
50 P7 226 1.597
50 P7 227 -0.356
50 P7 228 -0.844
50 P7 229 0.132
50 P7 230 0.621
50 P7 231 0.621
50 P7 232 -0.356
50 P7 233 -2.309
50 P7 234 -2.797
50 P7 235 -1.821
50 P7 236 -0.356
50 P7 237 1.597
50 P7 238 2.574
50 P7 239 4.038
50 P7 240 5.503
50 P7 241 7.945
50 P7 242 10.874
50 P7 243 12.828
50 P7 244 13.316
50 P7 245 12.828
50 P7 246 11.363
50 P7 247 9.898
50 P7 248 8.921
50 P7 249 7.945
50 P7 250 5.992
50 P7 251 4.038
50 P7 252 2.085
50 P7 253 1.109
50 P7 254 1.109
50 P7 255 1.597
# PO2 chan 27
50 PO2 0 7.212
50 PO2 1 5.259
50 PO2 2 1.841
50 PO2 3 -1.577
50 PO2 4 -3.530
50 PO2 5 -3.042
50 PO2 6 -2.553
50 PO2 7 -3.042
50 PO2 8 -6.460
50 PO2 9 -10.366
50 PO2 10 -13.784
50 PO2 11 -14.760
50 PO2 12 -13.295
50 PO2 13 -10.854
50 PO2 14 -8.413
50 PO2 15 -6.948
50 PO2 16 -5.483
50 PO2 17 -4.506
50 PO2 18 -3.042
50 PO2 19 -2.065
50 PO2 20 -2.065
50 PO2 21 -2.553
50 PO2 22 -3.530
50 PO2 23 -4.506
50 PO2 24 -4.995
50 PO2 25 -6.460
50 PO2 26 -7.924
50 PO2 27 -10.366
50 PO2 28 -12.807
50 PO2 29 -14.272
50 PO2 30 -14.760
50 PO2 31 -13.784
50 PO2 32 -12.319
50 PO2 33 -11.342
50 PO2 34 -11.342
50 PO2 35 -12.807
50 PO2 36 -14.272
50 PO2 37 -15.249
50 PO2 38 -14.760
50 PO2 39 -12.807
50 PO2 40 -10.366
50 PO2 41 -8.901
50 PO2 42 -8.901
50 PO2 43 -9.878
50 PO2 44 -10.366
50 PO2 45 -9.878
50 PO2 46 -7.924
50 PO2 47 -4.995
50 PO2 48 -2.553
50 PO2 49 -0.600
50 PO2 50 0.376
50 PO2 51 1.353
50 PO2 52 3.794
50 PO2 53 6.724
50 PO2 54 9.165
50 PO2 55 10.630
50 PO2 56 10.142
50 PO2 57 8.189
50 PO2 58 5.259
50 PO2 59 1.841
50 PO2 60 -0.600
50 PO2 61 -2.065
50 PO2 62 -2.065
50 PO2 63 -1.088
50 PO2 64 1.353
50 PO2 65 4.283
50 PO2 66 6.236
50 PO2 67 6.724
50 PO2 68 5.747
50 PO2 69 3.794
50 PO2 70 1.841
50 PO2 71 0.376
50 PO2 72 -0.600
50 PO2 73 -1.088
50 PO2 74 -2.065
50 PO2 75 -2.065
50 PO2 76 -2.553
50 PO2 77 -2.065
50 PO2 78 -1.577
50 PO2 79 -2.065
50 PO2 80 -2.553
50 PO2 81 -3.042
50 PO2 82 -1.577
50 PO2 83 0.376
50 PO2 84 2.330
50 PO2 85 2.330
50 PO2 86 0.376
50 PO2 87 -3.042
50 PO2 88 -5.971
50 PO2 89 -7.924
50 PO2 90 -8.413
50 PO2 91 -7.924
50 PO2 92 -8.413
50 PO2 93 -8.901
50 PO2 94 -9.878
50 PO2 95 -9.878
50 PO2 96 -9.389
50 PO2 97 -8.413
50 PO2 98 -7.436
50 PO2 99 -7.436
50 PO2 100 -8.413
50 PO2 101 -10.366
50 PO2 102 -12.807
50 PO2 103 -15.249
50 PO2 104 -16.225
50 PO2 105 -15.737
50 PO2 106 -14.272
50 PO2 107 -11.342
50 PO2 108 -8.901
50 PO2 109 -6.460
50 PO2 110 -5.483
50 PO2 111 -4.506
50 PO2 112 -3.530
50 PO2 113 -3.042
50 PO2 114 -3.042
50 PO2 115 -3.530
50 PO2 116 -4.995
50 PO2 117 -6.460
50 PO2 118 -7.436
50 PO2 119 -7.436
50 PO2 120 -5.483
50 PO2 121 -3.042
50 PO2 122 0.376
50 PO2 123 3.794
50 PO2 124 5.747
50 PO2 125 6.724
50 PO2 126 5.747
50 PO2 127 4.771
50 PO2 128 4.283
50 PO2 129 4.283
50 PO2 130 4.771
50 PO2 131 4.771
50 PO2 132 4.771
50 PO2 133 3.794
50 PO2 134 2.818
50 PO2 135 1.353
50 PO2 136 0.865
50 PO2 137 0.865
50 PO2 138 0.376
50 PO2 139 0.376
50 PO2 140 -0.600
50 PO2 141 -1.577
50 PO2 142 -3.530
50 PO2 143 -4.506
50 PO2 144 -4.995
50 PO2 145 -4.995
50 PO2 146 -5.483
50 PO2 147 -5.971
50 PO2 148 -6.948
50 PO2 149 -7.924
50 PO2 150 -8.413
50 PO2 151 -7.436
50 PO2 152 -5.483
50 PO2 153 -2.553
50 PO2 154 -0.112
50 PO2 155 0.865
50 PO2 156 0.376
50 PO2 157 -1.577
50 PO2 158 -2.553
50 PO2 159 -2.553
50 PO2 160 -1.577
50 PO2 161 -0.112
50 PO2 162 0.376
50 PO2 163 -0.600
50 PO2 164 -2.065
50 PO2 165 -3.530
50 PO2 166 -3.530
50 PO2 167 -2.553
50 PO2 168 -1.088
50 PO2 169 -0.600
50 PO2 170 -0.600
50 PO2 171 -1.088
50 PO2 172 -1.088
50 PO2 173 -1.577
50 PO2 174 -2.553
50 PO2 175 -3.530
50 PO2 176 -4.995
50 PO2 177 -5.483
50 PO2 178 -4.506
50 PO2 179 -3.042
50 PO2 180 -1.577
50 PO2 181 -1.088
50 PO2 182 -1.088
50 PO2 183 -1.577
50 PO2 184 -0.600
50 PO2 185 0.865
50 PO2 186 2.330
50 PO2 187 3.306
50 PO2 188 2.818
50 PO2 189 1.353
50 PO2 190 -0.600
50 PO2 191 -1.577
50 PO2 192 -1.088
50 PO2 193 -0.112
50 PO2 194 -0.112
50 PO2 195 -0.112
50 PO2 196 0.376
50 PO2 197 1.353
50 PO2 198 2.818
50 PO2 199 4.283
50 PO2 200 4.283
50 PO2 201 3.306
50 PO2 202 1.353
50 PO2 203 0.865
50 PO2 204 1.353
50 PO2 205 3.306
50 PO2 206 4.283
50 PO2 207 3.306
50 PO2 208 0.865
50 PO2 209 -1.577
50 PO2 210 -4.018
50 PO2 211 -4.995
50 PO2 212 -5.971
50 PO2 213 -7.436
50 PO2 214 -9.878
50 PO2 215 -12.319
50 PO2 216 -13.784
50 PO2 217 -14.272
50 PO2 218 -13.784
50 PO2 219 -14.272
50 PO2 220 -15.737
50 PO2 221 -17.202
50 PO2 222 -16.225
50 PO2 223 -13.295
50 PO2 224 -8.901
50 PO2 225 -5.971
50 PO2 226 -5.971
50 PO2 227 -8.901
50 PO2 228 -12.319
50 PO2 229 -14.272
50 PO2 230 -13.295
50 PO2 231 -11.342
50 PO2 232 -9.878
50 PO2 233 -9.389
50 PO2 234 -9.878
50 PO2 235 -9.878
50 PO2 236 -9.389
50 PO2 237 -7.924
50 PO2 238 -6.460
50 PO2 239 -5.971
50 PO2 240 -5.971
50 PO2 241 -4.995
50 PO2 242 -3.042
50 PO2 243 -1.088
50 PO2 244 0.865
50 PO2 245 0.376
50 PO2 246 -1.577
50 PO2 247 -4.995
50 PO2 248 -7.924
50 PO2 249 -9.389
50 PO2 250 -9.878
