# co2c0000352.rd
# 120 trials, 64 chans, 416 samples 368 post_stim samples
# 3.906000 msecs uV
# S2 nomatch, trial 103
# FP1 chan 0
103 FP1 0 10.844
103 FP1 1 14.262
103 FP1 2 17.192
103 FP1 3 19.633
103 FP1 4 20.610
103 FP1 5 20.121
103 FP1 6 18.168
103 FP1 7 16.703
103 FP1 8 16.215
103 FP1 9 17.680
103 FP1 10 19.633
103 FP1 11 20.610
103 FP1 12 19.633
103 FP1 13 17.192
103 FP1 14 13.285
103 FP1 15 9.379
103 FP1 16 6.449
103 FP1 17 3.520
103 FP1 18 1.567
103 FP1 19 0.590
103 FP1 20 0.590
103 FP1 21 2.543
103 FP1 22 4.985
103 FP1 23 8.891
103 FP1 24 11.820
103 FP1 25 13.285
103 FP1 26 12.797
103 FP1 27 10.356
103 FP1 28 7.426
103 FP1 29 5.473
103 FP1 30 4.496
103 FP1 31 5.473
103 FP1 32 6.938
103 FP1 33 8.891
103 FP1 34 10.844
103 FP1 35 11.820
103 FP1 36 10.844
103 FP1 37 8.891
103 FP1 38 6.449
103 FP1 39 5.961
103 FP1 40 7.426
103 FP1 41 11.332
103 FP1 42 14.750
103 FP1 43 15.238
103 FP1 44 13.285
103 FP1 45 9.867
103 FP1 46 5.961
103 FP1 47 3.520
103 FP1 48 2.055
103 FP1 49 0.590
103 FP1 50 0.102
103 FP1 51 1.567
103 FP1 52 4.985
103 FP1 53 9.867
103 FP1 54 14.750
103 FP1 55 17.680
103 FP1 56 18.656
103 FP1 57 18.656
103 FP1 58 17.680
103 FP1 59 16.215
103 FP1 60 13.774
103 FP1 61 9.867
103 FP1 62 4.496
103 FP1 63 -0.875
103 FP1 64 -4.781
103 FP1 65 -6.734
103 FP1 66 -6.246
103 FP1 67 -3.316
103 FP1 68 0.590
103 FP1 69 2.543
103 FP1 70 2.055
103 FP1 71 -1.851
103 FP1 72 -7.711
103 FP1 73 -12.594
103 FP1 74 -15.523
103 FP1 75 -15.523
103 FP1 76 -15.035
103 FP1 77 -14.547
103 FP1 78 -14.547
103 FP1 79 -13.570
103 FP1 80 -10.640
103 FP1 81 -5.758
103 FP1 82 0.590
103 FP1 83 5.473
103 FP1 84 7.426
103 FP1 85 6.449
103 FP1 86 3.520
103 FP1 87 1.078
103 FP1 88 0.102
103 FP1 89 2.055
103 FP1 90 4.985
103 FP1 91 7.426
103 FP1 92 6.938
103 FP1 93 4.985
103 FP1 94 1.567
103 FP1 95 -0.875
103 FP1 96 -1.851
103 FP1 97 -3.316
103 FP1 98 -5.269
103 FP1 99 -8.687
103 FP1 100 -13.082
103 FP1 101 -16.012
103 FP1 102 -17.476
103 FP1 103 -17.965
103 FP1 104 -18.941
103 FP1 105 -18.941
103 FP1 106 -18.941
103 FP1 107 -16.500
103 FP1 108 -11.617
103 FP1 109 -5.758
103 FP1 110 -0.875
103 FP1 111 2.543
103 FP1 112 4.985
103 FP1 113 7.914
103 FP1 114 12.309
103 FP1 115 18.168
103 FP1 116 24.028
103 FP1 117 28.422
103 FP1 118 31.840
103 FP1 119 33.793
103 FP1 120 34.770
103 FP1 121 34.770
103 FP1 122 32.817
103 FP1 123 29.887
103 FP1 124 26.469
103 FP1 125 23.051
103 FP1 126 20.121
103 FP1 127 17.680
103 FP1 128 14.750
103 FP1 129 10.356
103 FP1 130 5.961
103 FP1 131 1.567
103 FP1 132 -1.851
103 FP1 133 -4.293
103 FP1 134 -6.246
103 FP1 135 -7.222
103 FP1 136 -8.199
103 FP1 137 -8.687
103 FP1 138 -8.687
103 FP1 139 -7.711
103 FP1 140 -5.269
103 FP1 141 -1.851
103 FP1 142 0.590
103 FP1 143 0.590
103 FP1 144 -2.340
103 FP1 145 -5.758
103 FP1 146 -7.711
103 FP1 147 -6.734
103 FP1 148 -4.293
103 FP1 149 -2.340
103 FP1 150 -2.340
103 FP1 151 -3.316
103 FP1 152 -3.805
103 FP1 153 -1.851
103 FP1 154 1.567
103 FP1 155 3.520
103 FP1 156 3.520
103 FP1 157 0.102
103 FP1 158 -4.781
103 FP1 159 -8.199
103 FP1 160 -9.664
103 FP1 161 -10.152
103 FP1 162 -10.640
103 FP1 163 -12.105
103 FP1 164 -12.594
103 FP1 165 -13.082
103 FP1 166 -12.594
103 FP1 167 -12.594
103 FP1 168 -13.082
103 FP1 169 -13.570
103 FP1 170 -13.570
103 FP1 171 -12.105
103 FP1 172 -10.152
103 FP1 173 -8.199
103 FP1 174 -7.222
103 FP1 175 -6.246
103 FP1 176 -5.269
103 FP1 177 -3.805
103 FP1 178 -1.851
103 FP1 179 -1.851
103 FP1 180 -3.805
103 FP1 181 -7.222
103 FP1 182 -10.152
103 FP1 183 -12.105
103 FP1 184 -11.617
103 FP1 185 -9.176
103 FP1 186 -6.246
103 FP1 187 -4.293
103 FP1 188 -3.805
103 FP1 189 -4.293
103 FP1 190 -4.781
103 FP1 191 -4.293
103 FP1 192 -3.316
103 FP1 193 -2.340
103 FP1 194 -1.851
103 FP1 195 -0.875
103 FP1 196 0.590
103 FP1 197 3.520
103 FP1 198 6.449
103 FP1 199 8.891
103 FP1 200 10.844
103 FP1 201 11.820
103 FP1 202 12.797
103 FP1 203 14.750
103 FP1 204 16.703
103 FP1 205 19.145
103 FP1 206 22.074
103 FP1 207 25.981
103 FP1 208 30.375
103 FP1 209 34.281
103 FP1 210 36.723
103 FP1 211 36.235
103 FP1 212 33.793
103 FP1 213 30.863
103 FP1 214 29.399
103 FP1 215 29.399
103 FP1 216 31.352
103 FP1 217 31.352
103 FP1 218 29.887
103 FP1 219 25.492
103 FP1 220 20.121
103 FP1 221 15.727
103 FP1 222 13.285
103 FP1 223 13.285
103 FP1 224 14.750
103 FP1 225 15.727
103 FP1 226 15.238
103 FP1 227 14.262
103 FP1 228 12.309
103 FP1 229 10.844
103 FP1 230 11.332
103 FP1 231 12.309
103 FP1 232 14.262
103 FP1 233 15.238
103 FP1 234 14.262
103 FP1 235 11.820
103 FP1 236 9.379
103 FP1 237 7.914
103 FP1 238 7.426
103 FP1 239 7.426
103 FP1 240 6.449
103 FP1 241 4.496
103 FP1 242 1.078
103 FP1 243 -1.851
103 FP1 244 -3.316
103 FP1 245 -2.828
103 FP1 246 -0.875
103 FP1 247 0.590
103 FP1 248 0.590
103 FP1 249 -0.387
103 FP1 250 -1.363
103 FP1 251 -1.851
103 FP1 252 -1.851
103 FP1 253 -1.851
103 FP1 254 -2.340
103 FP1 255 -3.316
# FP2 chan 1
103 FP2 0 9.501
103 FP2 1 9.989
103 FP2 2 11.454
103 FP2 3 12.919
103 FP2 4 14.384
103 FP2 5 14.384
103 FP2 6 12.919
103 FP2 7 11.943
103 FP2 8 11.454
103 FP2 9 12.431
103 FP2 10 14.384
103 FP2 11 15.361
103 FP2 12 15.361
103 FP2 13 12.919
103 FP2 14 9.989
103 FP2 15 7.060
103 FP2 16 4.130
103 FP2 17 2.177
103 FP2 18 0.712
103 FP2 19 -0.264
103 FP2 20 -0.264
103 FP2 21 0.712
103 FP2 22 3.153
103 FP2 23 5.595
103 FP2 24 6.571
103 FP2 25 6.571
103 FP2 26 4.618
103 FP2 27 2.665
103 FP2 28 0.712
103 FP2 29 0.224
103 FP2 30 0.224
103 FP2 31 1.689
103 FP2 32 3.642
103 FP2 33 5.107
103 FP2 34 6.083
103 FP2 35 6.083
103 FP2 36 5.107
103 FP2 37 2.665
103 FP2 38 0.224
103 FP2 39 -0.264
103 FP2 40 1.689
103 FP2 41 4.618
103 FP2 42 7.548
103 FP2 43 8.525
103 FP2 44 7.548
103 FP2 45 6.083
103 FP2 46 4.130
103 FP2 47 2.177
103 FP2 48 0.712
103 FP2 49 -0.753
103 FP2 50 -1.729
103 FP2 51 -1.241
103 FP2 52 1.200
103 FP2 53 4.130
103 FP2 54 7.548
103 FP2 55 9.989
103 FP2 56 11.454
103 FP2 57 12.919
103 FP2 58 14.384
103 FP2 59 14.872
103 FP2 60 13.896
103 FP2 61 10.966
103 FP2 62 7.060
103 FP2 63 2.665
103 FP2 64 0.224
103 FP2 65 -0.753
103 FP2 66 -0.264
103 FP2 67 1.200
103 FP2 68 1.689
103 FP2 69 1.200
103 FP2 70 -1.729
103 FP2 71 -6.124
103 FP2 72 -11.007
103 FP2 73 -14.425
103 FP2 74 -16.378
103 FP2 75 -17.354
103 FP2 76 -17.843
103 FP2 77 -18.331
103 FP2 78 -18.819
103 FP2 79 -18.331
103 FP2 80 -15.401
103 FP2 81 -10.518
103 FP2 82 -4.659
103 FP2 83 0.712
103 FP2 84 4.130
103 FP2 85 5.107
103 FP2 86 4.130
103 FP2 87 2.177
103 FP2 88 0.712
103 FP2 89 1.200
103 FP2 90 2.665
103 FP2 91 5.107
103 FP2 92 6.083
103 FP2 93 6.083
103 FP2 94 4.618
103 FP2 95 2.177
103 FP2 96 -0.753
103 FP2 97 -3.682
103 FP2 98 -6.124
103 FP2 99 -8.565
103 FP2 100 -10.030
103 FP2 101 -11.007
103 FP2 102 -11.495
103 FP2 103 -13.448
103 FP2 104 -15.401
103 FP2 105 -17.354
103 FP2 106 -17.843
103 FP2 107 -14.913
103 FP2 108 -9.542
103 FP2 109 -3.194
103 FP2 110 1.200
103 FP2 111 2.665
103 FP2 112 3.642
103 FP2 113 5.107
103 FP2 114 8.525
103 FP2 115 13.896
103 FP2 116 18.778
103 FP2 117 22.685
103 FP2 118 25.126
103 FP2 119 26.591
103 FP2 120 28.056
103 FP2 121 28.056
103 FP2 122 26.103
103 FP2 123 22.196
103 FP2 124 17.802
103 FP2 125 14.384
103 FP2 126 12.431
103 FP2 127 10.478
103 FP2 128 8.036
103 FP2 129 3.642
103 FP2 130 -1.729
103 FP2 131 -7.100
103 FP2 132 -11.495
103 FP2 133 -13.936
103 FP2 134 -14.913
103 FP2 135 -14.913
103 FP2 136 -14.913
103 FP2 137 -14.425
103 FP2 138 -13.448
103 FP2 139 -11.983
103 FP2 140 -9.542
103 FP2 141 -6.612
103 FP2 142 -3.682
103 FP2 143 -3.682
103 FP2 144 -6.124
103 FP2 145 -9.054
103 FP2 146 -10.518
103 FP2 147 -9.542
103 FP2 148 -6.612
103 FP2 149 -4.659
103 FP2 150 -5.147
103 FP2 151 -8.077
103 FP2 152 -11.007
103 FP2 153 -11.495
103 FP2 154 -9.054
103 FP2 155 -5.636
103 FP2 156 -3.682
103 FP2 157 -5.147
103 FP2 158 -8.565
103 FP2 159 -12.472
103 FP2 160 -14.425
103 FP2 161 -14.425
103 FP2 162 -13.448
103 FP2 163 -11.983
103 FP2 164 -11.495
103 FP2 165 -11.007
103 FP2 166 -11.007
103 FP2 167 -11.495
103 FP2 168 -11.983
103 FP2 169 -11.983
103 FP2 170 -11.495
103 FP2 171 -10.518
103 FP2 172 -9.054
103 FP2 173 -7.589
103 FP2 174 -6.612
103 FP2 175 -5.636
103 FP2 176 -3.682
103 FP2 177 -1.729
103 FP2 178 0.224
103 FP2 179 0.712
103 FP2 180 -1.241
103 FP2 181 -4.659
103 FP2 182 -8.077
103 FP2 183 -10.030
103 FP2 184 -9.542
103 FP2 185 -7.100
103 FP2 186 -4.171
103 FP2 187 -2.706
103 FP2 188 -2.218
103 FP2 189 -2.218
103 FP2 190 -1.729
103 FP2 191 -0.264
103 FP2 192 1.200
103 FP2 193 1.689
103 FP2 194 1.689
103 FP2 195 1.689
103 FP2 196 2.177
103 FP2 197 4.130
103 FP2 198 7.060
103 FP2 199 9.989
103 FP2 200 12.431
103 FP2 201 13.896
103 FP2 202 14.872
103 FP2 203 16.337
103 FP2 204 17.802
103 FP2 205 20.243
103 FP2 206 23.661
103 FP2 207 28.544
103 FP2 208 33.427
103 FP2 209 37.333
103 FP2 210 38.798
103 FP2 211 37.821
103 FP2 212 35.868
103 FP2 213 33.915
103 FP2 214 33.427
103 FP2 215 33.915
103 FP2 216 34.403
103 FP2 217 32.450
103 FP2 218 28.544
103 FP2 219 23.661
103 FP2 220 19.267
103 FP2 221 16.825
103 FP2 222 16.337
103 FP2 223 17.314
103 FP2 224 17.314
103 FP2 225 17.314
103 FP2 226 15.361
103 FP2 227 12.431
103 FP2 228 9.989
103 FP2 229 8.036
103 FP2 230 7.548
103 FP2 231 9.013
103 FP2 232 10.966
103 FP2 233 12.431
103 FP2 234 13.407
103 FP2 235 12.919
103 FP2 236 11.943
103 FP2 237 10.966
103 FP2 238 10.478
103 FP2 239 10.478
103 FP2 240 9.989
103 FP2 241 8.036
103 FP2 242 5.595
103 FP2 243 2.665
103 FP2 244 1.200
103 FP2 245 0.712
103 FP2 246 1.689
103 FP2 247 2.177
103 FP2 248 2.665
103 FP2 249 2.665
103 FP2 250 3.153
103 FP2 251 3.153
103 FP2 252 3.642
103 FP2 253 4.130
103 FP2 254 3.153
103 FP2 255 3.153
# F7 chan 2
103 F7 0 10.437
103 F7 1 12.878
103 F7 2 16.785
103 F7 3 19.714
103 F7 4 21.179
103 F7 5 20.203
103 F7 6 17.273
103 F7 7 15.808
103 F7 8 15.808
103 F7 9 18.250
103 F7 10 20.691
103 F7 11 21.179
103 F7 12 19.226
103 F7 13 14.832
103 F7 14 9.949
103 F7 15 7.019
103 F7 16 5.554
103 F7 17 4.089
103 F7 18 1.648
103 F7 19 -0.793
103 F7 20 -2.747
103 F7 21 -3.235
103 F7 22 -2.258
103 F7 23 -0.793
103 F7 24 1.160
103 F7 25 2.625
103 F7 26 2.136
103 F7 27 1.648
103 F7 28 0.183
103 F7 29 -0.793
103 F7 30 -0.793
103 F7 31 -0.305
103 F7 32 2.136
103 F7 33 4.578
103 F7 34 6.042
103 F7 35 6.531
103 F7 36 5.554
103 F7 37 4.089
103 F7 38 3.601
103 F7 39 3.601
103 F7 40 5.554
103 F7 41 7.507
103 F7 42 9.460
103 F7 43 9.460
103 F7 44 8.484
103 F7 45 5.554
103 F7 46 3.113
103 F7 47 0.183
103 F7 48 -1.770
103 F7 49 -2.747
103 F7 50 -2.747
103 F7 51 -1.282
103 F7 52 1.648
103 F7 53 6.531
103 F7 54 10.925
103 F7 55 13.367
103 F7 56 13.367
103 F7 57 11.414
103 F7 58 8.972
103 F7 59 8.484
103 F7 60 8.484
103 F7 61 8.484
103 F7 62 7.019
103 F7 63 3.113
103 F7 64 -0.793
103 F7 65 -3.235
103 F7 66 -3.723
103 F7 67 -1.770
103 F7 68 -0.305
103 F7 69 -0.305
103 F7 70 -2.747
103 F7 71 -7.141
103 F7 72 -12.024
103 F7 73 -16.418
103 F7 74 -18.372
103 F7 75 -19.348
103 F7 76 -19.836
103 F7 77 -20.813
103 F7 78 -21.301
103 F7 79 -20.813
103 F7 80 -17.395
103 F7 81 -11.536
103 F7 82 -5.676
103 F7 83 -0.305
103 F7 84 1.648
103 F7 85 0.671
103 F7 86 -1.770
103 F7 87 -3.723
103 F7 88 -3.723
103 F7 89 -1.770
103 F7 90 -0.305
103 F7 91 -0.305
103 F7 92 -1.770
103 F7 93 -4.211
103 F7 94 -5.676
103 F7 95 -5.676
103 F7 96 -5.676
103 F7 97 -7.141
103 F7 98 -10.559
103 F7 99 -13.977
103 F7 100 -16.907
103 F7 101 -16.418
103 F7 102 -14.954
103 F7 103 -13.489
103 F7 104 -13.977
103 F7 105 -16.418
103 F7 106 -18.860
103 F7 107 -18.860
103 F7 108 -15.930
103 F7 109 -11.047
103 F7 110 -6.653
103 F7 111 -3.723
103 F7 112 -1.770
103 F7 113 1.160
103 F7 114 5.554
103 F7 115 11.902
103 F7 116 18.250
103 F7 117 23.132
103 F7 118 26.062
103 F7 119 28.015
103 F7 120 28.015
103 F7 121 27.527
103 F7 122 25.085
103 F7 123 21.667
103 F7 124 17.273
103 F7 125 12.878
103 F7 126 8.972
103 F7 127 6.042
103 F7 128 3.113
103 F7 129 0.183
103 F7 130 -3.235
103 F7 131 -7.629
103 F7 132 -11.536
103 F7 133 -14.465
103 F7 134 -15.442
103 F7 135 -14.954
103 F7 136 -13.489
103 F7 137 -13.000
103 F7 138 -14.465
103 F7 139 -15.930
103 F7 140 -15.930
103 F7 141 -14.465
103 F7 142 -11.047
103 F7 143 -8.606
103 F7 144 -8.606
103 F7 145 -9.094
103 F7 146 -9.094
103 F7 147 -7.141
103 F7 148 -3.723
103 F7 149 -1.770
103 F7 150 -2.258
103 F7 151 -4.700
103 F7 152 -6.165
103 F7 153 -5.676
103 F7 154 -3.235
103 F7 155 -1.282
103 F7 156 -1.770
103 F7 157 -6.165
103 F7 158 -11.047
103 F7 159 -13.977
103 F7 160 -13.977
103 F7 161 -12.024
103 F7 162 -10.559
103 F7 163 -10.071
103 F7 164 -10.559
103 F7 165 -11.536
103 F7 166 -11.536
103 F7 167 -11.536
103 F7 168 -11.047
103 F7 169 -11.047
103 F7 170 -10.071
103 F7 171 -9.094
103 F7 172 -7.629
103 F7 173 -6.653
103 F7 174 -6.653
103 F7 175 -8.118
103 F7 176 -8.118
103 F7 177 -6.653
103 F7 178 -4.211
103 F7 179 -3.235
103 F7 180 -5.676
103 F7 181 -10.559
103 F7 182 -15.442
103 F7 183 -17.395
103 F7 184 -15.442
103 F7 185 -11.047
103 F7 186 -7.629
103 F7 187 -6.653
103 F7 188 -8.118
103 F7 189 -9.583
103 F7 190 -9.583
103 F7 191 -8.118
103 F7 192 -6.653
103 F7 193 -6.165
103 F7 194 -7.141
103 F7 195 -7.141
103 F7 196 -5.676
103 F7 197 -3.235
103 F7 198 -0.305
103 F7 199 1.160
103 F7 200 1.648
103 F7 201 2.136
103 F7 202 3.601
103 F7 203 5.554
103 F7 204 7.507
103 F7 205 8.972
103 F7 206 9.949
103 F7 207 12.390
103 F7 208 14.832
103 F7 209 16.785
103 F7 210 16.785
103 F7 211 13.855
103 F7 212 9.949
103 F7 213 7.019
103 F7 214 6.042
103 F7 215 7.019
103 F7 216 8.484
103 F7 217 7.996
103 F7 218 7.019
103 F7 219 5.066
103 F7 220 3.113
103 F7 221 2.136
103 F7 222 1.160
103 F7 223 -0.305
103 F7 224 -0.793
103 F7 225 0.183
103 F7 226 1.160
103 F7 227 2.136
103 F7 228 1.648
103 F7 229 0.183
103 F7 230 -1.282
103 F7 231 -1.282
103 F7 232 0.183
103 F7 233 1.648
103 F7 234 1.648
103 F7 235 1.160
103 F7 236 -0.305
103 F7 237 -1.282
103 F7 238 -1.770
103 F7 239 -1.770
103 F7 240 -2.258
103 F7 241 -3.723
103 F7 242 -5.676
103 F7 243 -8.118
103 F7 244 -9.583
103 F7 245 -10.071
103 F7 246 -10.071
103 F7 247 -10.071
103 F7 248 -10.071
103 F7 249 -11.047
103 F7 250 -12.024
103 F7 251 -12.024
103 F7 252 -11.536
103 F7 253 -9.583
103 F7 254 -8.118
103 F7 255 -6.165
# F8 chan 3
103 F8 0 8.382
103 F8 1 8.382
103 F8 2 9.359
103 F8 3 10.824
103 F8 4 12.288
103 F8 5 12.777
103 F8 6 12.288
103 F8 7 11.312
103 F8 8 11.800
103 F8 9 13.753
103 F8 10 15.706
103 F8 11 17.171
103 F8 12 16.195
103 F8 13 13.265
103 F8 14 9.359
103 F8 15 5.941
103 F8 16 3.011
103 F8 17 1.546
103 F8 18 1.058
103 F8 19 1.058
103 F8 20 2.035
103 F8 21 3.499
103 F8 22 5.452
103 F8 23 6.429
103 F8 24 6.917
103 F8 25 6.917
103 F8 26 5.941
103 F8 27 4.964
103 F8 28 3.499
103 F8 29 2.523
103 F8 30 1.546
103 F8 31 1.058
103 F8 32 1.546
103 F8 33 3.011
103 F8 34 4.476
103 F8 35 4.476
103 F8 36 3.499
103 F8 37 1.058
103 F8 38 -0.895
103 F8 39 -1.383
103 F8 40 0.081
103 F8 41 2.035
103 F8 42 3.988
103 F8 43 3.988
103 F8 44 2.523
103 F8 45 1.058
103 F8 46 -0.895
103 F8 47 -2.360
103 F8 48 -3.825
103 F8 49 -4.801
103 F8 50 -5.290
103 F8 51 -3.825
103 F8 52 -1.383
103 F8 53 1.546
103 F8 54 3.499
103 F8 55 5.452
103 F8 56 7.406
103 F8 57 9.359
103 F8 58 11.312
103 F8 59 11.800
103 F8 60 10.335
103 F8 61 7.406
103 F8 62 3.988
103 F8 63 2.523
103 F8 64 2.523
103 F8 65 3.988
103 F8 66 5.941
103 F8 67 6.917
103 F8 68 5.941
103 F8 69 3.011
103 F8 70 -1.872
103 F8 71 -5.778
103 F8 72 -9.196
103 F8 73 -10.661
103 F8 74 -11.637
103 F8 75 -13.102
103 F8 76 -15.544
103 F8 77 -17.985
103 F8 78 -20.426
103 F8 79 -19.938
103 F8 80 -17.008
103 F8 81 -12.614
103 F8 82 -8.219
103 F8 83 -4.313
103 F8 84 -1.872
103 F8 85 -0.407
103 F8 86 0.081
103 F8 87 -0.407
103 F8 88 -1.383
103 F8 89 -1.872
103 F8 90 -0.895
103 F8 91 1.058
103 F8 92 3.988
103 F8 93 6.429
103 F8 94 6.917
103 F8 95 5.452
103 F8 96 2.523
103 F8 97 -0.895
103 F8 98 -3.337
103 F8 99 -4.801
103 F8 100 -5.778
103 F8 101 -6.266
103 F8 102 -7.243
103 F8 103 -8.219
103 F8 104 -10.173
103 F8 105 -11.637
103 F8 106 -11.149
103 F8 107 -7.731
103 F8 108 -2.848
103 F8 109 2.523
103 F8 110 6.917
103 F8 111 8.870
103 F8 112 10.824
103 F8 113 13.265
103 F8 114 16.683
103 F8 115 21.077
103 F8 116 24.007
103 F8 117 25.960
103 F8 118 26.937
103 F8 119 28.402
103 F8 120 29.378
103 F8 121 29.378
103 F8 122 26.449
103 F8 123 22.542
103 F8 124 18.636
103 F8 125 16.195
103 F8 126 14.242
103 F8 127 12.288
103 F8 128 8.870
103 F8 129 3.011
103 F8 130 -2.848
103 F8 131 -7.243
103 F8 132 -10.173
103 F8 133 -12.126
103 F8 134 -12.126
103 F8 135 -12.614
103 F8 136 -12.126
103 F8 137 -11.637
103 F8 138 -10.661
103 F8 139 -9.684
103 F8 140 -7.731
103 F8 141 -5.778
103 F8 142 -3.337
103 F8 143 -2.848
103 F8 144 -3.337
103 F8 145 -4.313
103 F8 146 -4.313
103 F8 147 -3.337
103 F8 148 -1.383
103 F8 149 -0.895
103 F8 150 -3.337
103 F8 151 -6.266
103 F8 152 -8.219
103 F8 153 -6.755
103 F8 154 -3.337
103 F8 155 -0.407
103 F8 156 0.081
103 F8 157 -3.337
103 F8 158 -7.243
103 F8 159 -9.684
103 F8 160 -9.684
103 F8 161 -8.708
103 F8 162 -7.243
103 F8 163 -6.266
103 F8 164 -6.266
103 F8 165 -6.266
103 F8 166 -6.755
103 F8 167 -7.731
103 F8 168 -8.219
103 F8 169 -6.755
103 F8 170 -4.801
103 F8 171 -1.383
103 F8 172 0.570
103 F8 173 2.035
103 F8 174 1.546
103 F8 175 1.546
103 F8 176 2.035
103 F8 177 3.988
103 F8 178 6.917
103 F8 179 8.382
103 F8 180 8.870
103 F8 181 7.406
103 F8 182 4.964
103 F8 183 3.011
103 F8 184 2.523
103 F8 185 3.011
103 F8 186 3.988
103 F8 187 5.452
103 F8 188 6.429
103 F8 189 6.429
103 F8 190 5.941
103 F8 191 4.476
103 F8 192 3.499
103 F8 193 3.011
103 F8 194 2.523
103 F8 195 3.499
103 F8 196 4.964
103 F8 197 6.429
103 F8 198 7.894
103 F8 199 8.382
103 F8 200 8.870
103 F8 201 8.382
103 F8 202 7.406
103 F8 203 6.429
103 F8 204 4.964
103 F8 205 4.964
103 F8 206 6.429
103 F8 207 9.359
103 F8 208 13.265
103 F8 209 15.706
103 F8 210 16.195
103 F8 211 14.730
103 F8 212 11.800
103 F8 213 8.870
103 F8 214 7.894
103 F8 215 7.894
103 F8 216 7.894
103 F8 217 6.917
103 F8 218 4.476
103 F8 219 2.035
103 F8 220 0.570
103 F8 221 0.081
103 F8 222 1.058
103 F8 223 2.035
103 F8 224 2.035
103 F8 225 1.058
103 F8 226 -0.895
103 F8 227 -1.872
103 F8 228 -2.848
103 F8 229 -2.848
103 F8 230 -2.848
103 F8 231 -2.848
103 F8 232 -1.872
103 F8 233 -0.895
103 F8 234 0.081
103 F8 235 0.570
103 F8 236 0.081
103 F8 237 -0.895
103 F8 238 -1.872
103 F8 239 -2.360
103 F8 240 -2.848
103 F8 241 -3.337
103 F8 242 -5.290
103 F8 243 -7.243
103 F8 244 -9.684
103 F8 245 -11.149
103 F8 246 -10.661
103 F8 247 -10.173
103 F8 248 -8.708
103 F8 249 -8.219
103 F8 250 -6.266
103 F8 251 -4.313
103 F8 252 -1.872
103 F8 253 -0.407
103 F8 254 -0.895
103 F8 255 -1.383
# AF1 chan 4
103 AF1 0 10.824
103 AF1 1 11.800
103 AF1 2 13.265
103 AF1 3 14.242
103 AF1 4 14.242
103 AF1 5 13.265
103 AF1 6 11.800
103 AF1 7 10.824
103 AF1 8 10.824
103 AF1 9 11.800
103 AF1 10 13.753
103 AF1 11 15.218
103 AF1 12 14.730
103 AF1 13 12.288
103 AF1 14 8.870
103 AF1 15 5.452
103 AF1 16 3.011
103 AF1 17 1.546
103 AF1 18 0.081
103 AF1 19 -0.407
103 AF1 20 -0.407
103 AF1 21 0.570
103 AF1 22 2.523
103 AF1 23 4.964
103 AF1 24 6.917
103 AF1 25 7.406
103 AF1 26 5.941
103 AF1 27 3.499
103 AF1 28 1.058
103 AF1 29 0.081
103 AF1 30 1.058
103 AF1 31 3.011
103 AF1 32 4.964
103 AF1 33 6.429
103 AF1 34 6.917
103 AF1 35 6.429
103 AF1 36 4.476
103 AF1 37 2.523
103 AF1 38 1.058
103 AF1 39 0.570
103 AF1 40 2.035
103 AF1 41 4.964
103 AF1 42 7.406
103 AF1 43 7.894
103 AF1 44 6.917
103 AF1 45 4.964
103 AF1 46 3.499
103 AF1 47 2.035
103 AF1 48 1.546
103 AF1 49 1.058
103 AF1 50 0.081
103 AF1 51 0.570
103 AF1 52 2.035
103 AF1 53 4.964
103 AF1 54 7.406
103 AF1 55 9.359
103 AF1 56 10.335
103 AF1 57 11.312
103 AF1 58 12.777
103 AF1 59 13.753
103 AF1 60 13.753
103 AF1 61 11.800
103 AF1 62 8.870
103 AF1 63 4.476
103 AF1 64 1.058
103 AF1 65 -0.407
103 AF1 66 -1.383
103 AF1 67 -0.895
103 AF1 68 -0.407
103 AF1 69 -0.895
103 AF1 70 -2.360
103 AF1 71 -5.290
103 AF1 72 -9.684
103 AF1 73 -13.590
103 AF1 74 -16.032
103 AF1 75 -16.520
103 AF1 76 -15.544
103 AF1 77 -14.079
103 AF1 78 -12.614
103 AF1 79 -10.661
103 AF1 80 -7.731
103 AF1 81 -2.848
103 AF1 82 2.523
103 AF1 83 7.406
103 AF1 84 10.824
103 AF1 85 12.288
103 AF1 86 11.800
103 AF1 87 10.335
103 AF1 88 8.870
103 AF1 89 8.382
103 AF1 90 8.870
103 AF1 91 9.359
103 AF1 92 9.359
103 AF1 93 8.382
103 AF1 94 6.429
103 AF1 95 4.476
103 AF1 96 2.523
103 AF1 97 0.081
103 AF1 98 -2.848
103 AF1 99 -5.778
103 AF1 100 -8.708
103 AF1 101 -10.661
103 AF1 102 -11.149
103 AF1 103 -11.637
103 AF1 104 -12.614
103 AF1 105 -13.590
103 AF1 106 -14.567
103 AF1 107 -13.590
103 AF1 108 -9.684
103 AF1 109 -4.801
103 AF1 110 -0.407
103 AF1 111 2.035
103 AF1 112 2.523
103 AF1 113 3.011
103 AF1 114 5.941
103 AF1 115 10.335
103 AF1 116 16.195
103 AF1 117 21.077
103 AF1 118 24.495
103 AF1 119 25.960
103 AF1 120 25.960
103 AF1 121 25.472
103 AF1 122 24.007
103 AF1 123 21.077
103 AF1 124 17.171
103 AF1 125 13.753
103 AF1 126 11.312
103 AF1 127 9.847
103 AF1 128 8.870
103 AF1 129 6.917
103 AF1 130 3.011
103 AF1 131 -0.895
103 AF1 132 -4.801
103 AF1 133 -7.243
103 AF1 134 -7.731
103 AF1 135 -7.243
103 AF1 136 -6.266
103 AF1 137 -6.266
103 AF1 138 -6.266
103 AF1 139 -5.778
103 AF1 140 -4.313
103 AF1 141 -1.383
103 AF1 142 1.058
103 AF1 143 2.035
103 AF1 144 1.546
103 AF1 145 0.081
103 AF1 146 -0.895
103 AF1 147 0.570
103 AF1 148 3.499
103 AF1 149 5.941
103 AF1 150 6.917
103 AF1 151 5.452
103 AF1 152 3.988
103 AF1 153 2.523
103 AF1 154 3.499
103 AF1 155 4.476
103 AF1 156 4.964
103 AF1 157 3.499
103 AF1 158 1.058
103 AF1 159 -1.872
103 AF1 160 -2.848
103 AF1 161 -2.360
103 AF1 162 -1.872
103 AF1 163 -1.383
103 AF1 164 -0.895
103 AF1 165 -0.895
103 AF1 166 -0.895
103 AF1 167 -1.383
103 AF1 168 -1.872
103 AF1 169 -2.360
103 AF1 170 -1.872
103 AF1 171 -0.895
103 AF1 172 0.081
103 AF1 173 1.058
103 AF1 174 1.546
103 AF1 175 1.546
103 AF1 176 2.035
103 AF1 177 3.499
103 AF1 178 5.452
103 AF1 179 6.429
103 AF1 180 4.964
103 AF1 181 2.035
103 AF1 182 -1.872
103 AF1 183 -3.825
103 AF1 184 -4.313
103 AF1 185 -2.360
103 AF1 186 0.081
103 AF1 187 1.546
103 AF1 188 2.523
103 AF1 189 3.499
103 AF1 190 3.988
103 AF1 191 5.452
103 AF1 192 6.917
103 AF1 193 6.917
103 AF1 194 6.429
103 AF1 195 5.941
103 AF1 196 6.917
103 AF1 197 9.359
103 AF1 198 11.312
103 AF1 199 12.777
103 AF1 200 12.777
103 AF1 201 12.777
103 AF1 202 12.777
103 AF1 203 14.242
103 AF1 204 15.706
103 AF1 205 17.660
103 AF1 206 19.124
103 AF1 207 20.589
103 AF1 208 22.542
103 AF1 209 24.984
103 AF1 210 26.449
103 AF1 211 25.960
103 AF1 212 24.007
103 AF1 213 22.054
103 AF1 214 21.566
103 AF1 215 22.542
103 AF1 216 24.495
103 AF1 217 24.984
103 AF1 218 23.031
103 AF1 219 19.613
103 AF1 220 16.195
103 AF1 221 14.242
103 AF1 222 13.753
103 AF1 223 14.730
103 AF1 224 15.218
103 AF1 225 15.218
103 AF1 226 14.242
103 AF1 227 13.265
103 AF1 228 12.288
103 AF1 229 12.777
103 AF1 230 13.265
103 AF1 231 14.730
103 AF1 232 15.706
103 AF1 233 16.195
103 AF1 234 15.706
103 AF1 235 14.730
103 AF1 236 13.753
103 AF1 237 13.265
103 AF1 238 13.265
103 AF1 239 13.265
103 AF1 240 12.288
103 AF1 241 9.359
103 AF1 242 5.941
103 AF1 243 3.011
103 AF1 244 2.523
103 AF1 245 3.499
103 AF1 246 5.452
103 AF1 247 6.429
103 AF1 248 6.429
103 AF1 249 5.941
103 AF1 250 4.964
103 AF1 251 4.964
103 AF1 252 4.964
103 AF1 253 4.964
103 AF1 254 3.988
103 AF1 255 3.011
# AF2 chan 5
103 AF2 0 6.927
103 AF2 1 6.927
103 AF2 2 7.904
103 AF2 3 9.369
103 AF2 4 10.834
103 AF2 5 10.345
103 AF2 6 8.881
103 AF2 7 6.927
103 AF2 8 5.951
103 AF2 9 5.951
103 AF2 10 7.416
103 AF2 11 8.881
103 AF2 12 8.881
103 AF2 13 6.927
103 AF2 14 4.486
103 AF2 15 1.556
103 AF2 16 -1.373
103 AF2 17 -3.326
103 AF2 18 -5.280
103 AF2 19 -5.280
103 AF2 20 -4.791
103 AF2 21 -2.838
103 AF2 22 -1.373
103 AF2 23 1.068
103 AF2 24 2.533
103 AF2 25 2.533
103 AF2 26 1.068
103 AF2 27 -0.885
103 AF2 28 -3.326
103 AF2 29 -4.791
103 AF2 30 -4.791
103 AF2 31 -3.326
103 AF2 32 -0.885
103 AF2 33 0.580
103 AF2 34 0.092
103 AF2 35 -1.373
103 AF2 36 -4.303
103 AF2 37 -7.233
103 AF2 38 -8.698
103 AF2 39 -8.698
103 AF2 40 -6.744
103 AF2 41 -4.303
103 AF2 42 -1.862
103 AF2 43 -1.373
103 AF2 44 -1.373
103 AF2 45 -2.350
103 AF2 46 -3.326
103 AF2 47 -4.303
103 AF2 48 -4.791
103 AF2 49 -6.256
103 AF2 50 -7.233
103 AF2 51 -7.721
103 AF2 52 -7.233
103 AF2 53 -5.768
103 AF2 54 -3.326
103 AF2 55 -0.885
103 AF2 56 2.045
103 AF2 57 4.974
103 AF2 58 7.416
103 AF2 59 8.881
103 AF2 60 8.881
103 AF2 61 7.904
103 AF2 62 4.974
103 AF2 63 1.556
103 AF2 64 -2.350
103 AF2 65 -4.791
103 AF2 66 -5.768
103 AF2 67 -5.280
103 AF2 68 -4.303
103 AF2 69 -4.791
103 AF2 70 -7.233
103 AF2 71 -11.139
103 AF2 72 -16.510
103 AF2 73 -20.905
103 AF2 74 -23.346
103 AF2 75 -23.346
103 AF2 76 -22.369
103 AF2 77 -21.881
103 AF2 78 -21.881
103 AF2 79 -20.905
103 AF2 80 -18.463
103 AF2 81 -14.069
103 AF2 82 -9.186
103 AF2 83 -4.303
103 AF2 84 -0.885
103 AF2 85 1.068
103 AF2 86 1.068
103 AF2 87 1.068
103 AF2 88 0.580
103 AF2 89 1.068
103 AF2 90 1.556
103 AF2 91 2.045
103 AF2 92 2.045
103 AF2 93 2.045
103 AF2 94 0.580
103 AF2 95 -0.885
103 AF2 96 -2.350
103 AF2 97 -4.303
103 AF2 98 -6.744
103 AF2 99 -8.698
103 AF2 100 -11.139
103 AF2 101 -13.092
103 AF2 102 -14.557
103 AF2 103 -16.510
103 AF2 104 -18.463
103 AF2 105 -20.416
103 AF2 106 -20.905
103 AF2 107 -19.440
103 AF2 108 -15.045
103 AF2 109 -9.186
103 AF2 110 -4.791
103 AF2 111 -2.838
103 AF2 112 -2.838
103 AF2 113 -3.326
103 AF2 114 -1.862
103 AF2 115 1.068
103 AF2 116 5.463
103 AF2 117 9.369
103 AF2 118 12.787
103 AF2 119 14.252
103 AF2 120 14.740
103 AF2 121 13.763
103 AF2 122 11.810
103 AF2 123 8.881
103 AF2 124 5.951
103 AF2 125 3.510
103 AF2 126 1.556
103 AF2 127 0.092
103 AF2 128 -1.862
103 AF2 129 -4.791
103 AF2 130 -8.698
103 AF2 131 -13.092
103 AF2 132 -17.487
103 AF2 133 -19.928
103 AF2 134 -20.905
103 AF2 135 -20.905
103 AF2 136 -20.416
103 AF2 137 -19.440
103 AF2 138 -18.463
103 AF2 139 -16.510
103 AF2 140 -13.580
103 AF2 141 -10.651
103 AF2 142 -7.721
103 AF2 143 -7.721
103 AF2 144 -8.698
103 AF2 145 -11.139
103 AF2 146 -12.604
103 AF2 147 -11.627
103 AF2 148 -8.698
103 AF2 149 -5.768
103 AF2 150 -5.280
103 AF2 151 -7.233
103 AF2 152 -10.162
103 AF2 153 -11.627
103 AF2 154 -10.651
103 AF2 155 -8.209
103 AF2 156 -6.744
103 AF2 157 -7.233
103 AF2 158 -10.162
103 AF2 159 -14.069
103 AF2 160 -16.510
103 AF2 161 -16.998
103 AF2 162 -16.022
103 AF2 163 -14.069
103 AF2 164 -13.092
103 AF2 165 -13.092
103 AF2 166 -14.069
103 AF2 167 -15.045
103 AF2 168 -15.533
103 AF2 169 -15.045
103 AF2 170 -14.069
103 AF2 171 -13.092
103 AF2 172 -12.604
103 AF2 173 -12.115
103 AF2 174 -11.627
103 AF2 175 -10.651
103 AF2 176 -9.186
103 AF2 177 -7.233
103 AF2 178 -5.768
103 AF2 179 -5.280
103 AF2 180 -6.744
103 AF2 181 -9.674
103 AF2 182 -13.092
103 AF2 183 -15.533
103 AF2 184 -15.533
103 AF2 185 -14.069
103 AF2 186 -11.139
103 AF2 187 -9.186
103 AF2 188 -7.721
103 AF2 189 -7.721
103 AF2 190 -7.721
103 AF2 191 -7.233
103 AF2 192 -6.744
103 AF2 193 -5.768
103 AF2 194 -5.768
103 AF2 195 -5.768
103 AF2 196 -5.768
103 AF2 197 -5.280
103 AF2 198 -3.815
103 AF2 199 -1.862
103 AF2 200 -0.885
103 AF2 201 -0.885
103 AF2 202 -0.885
103 AF2 203 -0.885
103 AF2 204 -0.885
103 AF2 205 0.092
103 AF2 206 1.556
103 AF2 207 4.486
103 AF2 208 7.416
103 AF2 209 9.369
103 AF2 210 10.345
103 AF2 211 9.857
103 AF2 212 7.904
103 AF2 213 6.439
103 AF2 214 6.439
103 AF2 215 6.927
103 AF2 216 7.904
103 AF2 217 6.927
103 AF2 218 3.998
103 AF2 219 0.580
103 AF2 220 -2.838
103 AF2 221 -4.303
103 AF2 222 -4.303
103 AF2 223 -3.326
103 AF2 224 -2.838
103 AF2 225 -3.326
103 AF2 226 -4.791
103 AF2 227 -6.256
103 AF2 228 -7.721
103 AF2 229 -8.698
103 AF2 230 -8.209
103 AF2 231 -7.233
103 AF2 232 -5.280
103 AF2 233 -3.815
103 AF2 234 -3.815
103 AF2 235 -4.791
103 AF2 236 -5.768
103 AF2 237 -6.744
103 AF2 238 -6.744
103 AF2 239 -6.744
103 AF2 240 -7.721
103 AF2 241 -9.674
103 AF2 242 -12.115
103 AF2 243 -14.557
103 AF2 244 -16.022
103 AF2 245 -16.022
103 AF2 246 -15.045
103 AF2 247 -13.580
103 AF2 248 -12.604
103 AF2 249 -12.115
103 AF2 250 -12.115
103 AF2 251 -11.627
103 AF2 252 -11.627
103 AF2 253 -11.627
103 AF2 254 -12.604
103 AF2 255 -13.092
# FZ chan 6
103 FZ 0 7.029
103 FZ 1 7.517
103 FZ 2 8.494
103 FZ 3 8.982
103 FZ 4 8.982
103 FZ 5 7.517
103 FZ 6 5.564
103 FZ 7 4.588
103 FZ 8 4.588
103 FZ 9 6.053
103 FZ 10 7.517
103 FZ 11 8.006
103 FZ 12 7.517
103 FZ 13 6.053
103 FZ 14 3.611
103 FZ 15 1.658
103 FZ 16 0.193
103 FZ 17 -0.783
103 FZ 18 -1.760
103 FZ 19 -2.248
103 FZ 20 -1.760
103 FZ 21 -0.783
103 FZ 22 1.170
103 FZ 23 3.611
103 FZ 24 4.588
103 FZ 25 4.588
103 FZ 26 3.123
103 FZ 27 1.170
103 FZ 28 -0.295
103 FZ 29 -1.272
103 FZ 30 -0.783
103 FZ 31 0.682
103 FZ 32 2.635
103 FZ 33 3.611
103 FZ 34 3.611
103 FZ 35 3.123
103 FZ 36 1.170
103 FZ 37 -0.295
103 FZ 38 -1.760
103 FZ 39 -1.760
103 FZ 40 -0.295
103 FZ 41 1.170
103 FZ 42 2.635
103 FZ 43 3.123
103 FZ 44 2.635
103 FZ 45 1.658
103 FZ 46 1.170
103 FZ 47 1.170
103 FZ 48 1.658
103 FZ 49 2.146
103 FZ 50 2.146
103 FZ 51 2.635
103 FZ 52 3.123
103 FZ 53 4.588
103 FZ 54 6.541
103 FZ 55 8.006
103 FZ 56 9.959
103 FZ 57 11.912
103 FZ 58 13.377
103 FZ 59 13.865
103 FZ 60 12.889
103 FZ 61 10.935
103 FZ 62 7.517
103 FZ 63 4.100
103 FZ 64 1.170
103 FZ 65 -1.272
103 FZ 66 -2.248
103 FZ 67 -2.736
103 FZ 68 -3.225
103 FZ 69 -3.225
103 FZ 70 -4.690
103 FZ 71 -7.131
103 FZ 72 -9.572
103 FZ 73 -12.502
103 FZ 74 -13.967
103 FZ 75 -13.967
103 FZ 76 -13.479
103 FZ 77 -12.502
103 FZ 78 -12.014
103 FZ 79 -10.061
103 FZ 80 -6.643
103 FZ 81 -1.760
103 FZ 82 3.123
103 FZ 83 7.517
103 FZ 84 9.959
103 FZ 85 10.935
103 FZ 86 10.447
103 FZ 87 9.471
103 FZ 88 8.982
103 FZ 89 9.471
103 FZ 90 9.471
103 FZ 91 9.471
103 FZ 92 8.494
103 FZ 93 7.029
103 FZ 94 5.076
103 FZ 95 3.123
103 FZ 96 1.170
103 FZ 97 0.193
103 FZ 98 -0.783
103 FZ 99 -2.248
103 FZ 100 -4.201
103 FZ 101 -5.666
103 FZ 102 -7.131
103 FZ 103 -8.596
103 FZ 104 -10.061
103 FZ 105 -11.525
103 FZ 106 -11.525
103 FZ 107 -9.572
103 FZ 108 -6.154
103 FZ 109 -1.760
103 FZ 110 1.170
103 FZ 111 2.635
103 FZ 112 2.146
103 FZ 113 1.170
103 FZ 114 2.146
103 FZ 115 4.588
103 FZ 116 8.494
103 FZ 117 11.912
103 FZ 118 13.865
103 FZ 119 13.865
103 FZ 120 13.865
103 FZ 121 12.889
103 FZ 122 11.912
103 FZ 123 9.959
103 FZ 124 7.517
103 FZ 125 5.076
103 FZ 126 3.123
103 FZ 127 2.146
103 FZ 128 1.658
103 FZ 129 1.170
103 FZ 130 -0.783
103 FZ 131 -3.225
103 FZ 132 -5.666
103 FZ 133 -7.619
103 FZ 134 -7.619
103 FZ 135 -6.643
103 FZ 136 -5.666
103 FZ 137 -4.690
103 FZ 138 -3.713
103 FZ 139 -2.736
103 FZ 140 -0.783
103 FZ 141 1.170
103 FZ 142 2.635
103 FZ 143 2.146
103 FZ 144 0.193
103 FZ 145 -1.272
103 FZ 146 -1.760
103 FZ 147 -0.783
103 FZ 148 1.170
103 FZ 149 2.635
103 FZ 150 2.635
103 FZ 151 1.170
103 FZ 152 -0.783
103 FZ 153 -1.760
103 FZ 154 -1.272
103 FZ 155 0.193
103 FZ 156 0.193
103 FZ 157 -0.295
103 FZ 158 -2.248
103 FZ 159 -4.201
103 FZ 160 -5.178
103 FZ 161 -5.178
103 FZ 162 -4.690
103 FZ 163 -3.713
103 FZ 164 -3.225
103 FZ 165 -3.225
103 FZ 166 -3.713
103 FZ 167 -4.690
103 FZ 168 -5.666
103 FZ 169 -5.666
103 FZ 170 -5.666
103 FZ 171 -4.690
103 FZ 172 -3.225
103 FZ 173 -2.736
103 FZ 174 -2.248
103 FZ 175 -2.736
103 FZ 176 -2.248
103 FZ 177 -1.760
103 FZ 178 -0.295
103 FZ 179 0.682
103 FZ 180 -0.295
103 FZ 181 -2.736
103 FZ 182 -5.666
103 FZ 183 -8.108
103 FZ 184 -8.596
103 FZ 185 -7.131
103 FZ 186 -5.178
103 FZ 187 -3.713
103 FZ 188 -3.225
103 FZ 189 -2.736
103 FZ 190 -2.248
103 FZ 191 -1.272
103 FZ 192 -0.295
103 FZ 193 0.193
103 FZ 194 0.193
103 FZ 195 -0.295
103 FZ 196 -0.295
103 FZ 197 0.193
103 FZ 198 1.170
103 FZ 199 2.146
103 FZ 200 2.635
103 FZ 201 2.635
103 FZ 202 2.635
103 FZ 203 3.123
103 FZ 204 3.611
103 FZ 205 4.588
103 FZ 206 5.076
103 FZ 207 6.053
103 FZ 208 7.029
103 FZ 209 8.494
103 FZ 210 8.494
103 FZ 211 7.517
103 FZ 212 6.541
103 FZ 213 5.564
103 FZ 214 6.053
103 FZ 215 7.029
103 FZ 216 8.494
103 FZ 217 8.982
103 FZ 218 7.517
103 FZ 219 5.076
103 FZ 220 3.611
103 FZ 221 2.635
103 FZ 222 2.635
103 FZ 223 3.123
103 FZ 224 3.123
103 FZ 225 3.123
103 FZ 226 2.146
103 FZ 227 1.170
103 FZ 228 0.682
103 FZ 229 0.682
103 FZ 230 1.170
103 FZ 231 2.146
103 FZ 232 3.123
103 FZ 233 3.611
103 FZ 234 2.635
103 FZ 235 1.170
103 FZ 236 0.193
103 FZ 237 0.193
103 FZ 238 0.682
103 FZ 239 0.682
103 FZ 240 0.193
103 FZ 241 -1.760
103 FZ 242 -4.690
103 FZ 243 -6.643
103 FZ 244 -7.619
103 FZ 245 -7.131
103 FZ 246 -5.666
103 FZ 247 -4.690
103 FZ 248 -4.201
103 FZ 249 -4.690
103 FZ 250 -5.178
103 FZ 251 -5.666
103 FZ 252 -5.666
103 FZ 253 -5.666
103 FZ 254 -5.178
103 FZ 255 -5.666
# F4 chan 7
103 F4 0 7.345
103 F4 1 7.345
103 F4 2 8.321
103 F4 3 8.809
103 F4 4 9.298
103 F4 5 9.298
103 F4 6 7.833
103 F4 7 6.856
103 F4 8 6.856
103 F4 9 8.321
103 F4 10 9.786
103 F4 11 11.251
103 F4 12 11.251
103 F4 13 9.298
103 F4 14 6.856
103 F4 15 3.927
103 F4 16 1.485
103 F4 17 0.020
103 F4 18 0.020
103 F4 19 0.020
103 F4 20 0.997
103 F4 21 1.973
103 F4 22 3.438
103 F4 23 4.415
103 F4 24 4.903
103 F4 25 4.415
103 F4 26 3.438
103 F4 27 1.973
103 F4 28 0.020
103 F4 29 -0.956
103 F4 30 -1.444
103 F4 31 -0.468
103 F4 32 0.509
103 F4 33 1.485
103 F4 34 1.485
103 F4 35 0.020
103 F4 36 -2.421
103 F4 37 -5.351
103 F4 38 -6.816
103 F4 39 -7.304
103 F4 40 -5.839
103 F4 41 -3.398
103 F4 42 -1.444
103 F4 43 -0.468
103 F4 44 -1.444
103 F4 45 -2.909
103 F4 46 -4.374
103 F4 47 -4.862
103 F4 48 -5.351
103 F4 49 -5.351
103 F4 50 -4.862
103 F4 51 -4.374
103 F4 52 -2.909
103 F4 53 -1.933
103 F4 54 -0.468
103 F4 55 0.997
103 F4 56 3.438
103 F4 57 5.391
103 F4 58 8.321
103 F4 59 9.786
103 F4 60 9.298
103 F4 61 6.856
103 F4 62 3.927
103 F4 63 0.509
103 F4 64 -1.444
103 F4 65 -1.933
103 F4 66 -0.956
103 F4 67 0.020
103 F4 68 0.509
103 F4 69 -0.956
103 F4 70 -3.398
103 F4 71 -7.304
103 F4 72 -11.210
103 F4 73 -13.652
103 F4 74 -15.116
103 F4 75 -15.605
103 F4 76 -16.093
103 F4 77 -17.069
103 F4 78 -17.558
103 F4 79 -17.069
103 F4 80 -14.628
103 F4 81 -10.722
103 F4 82 -6.327
103 F4 83 -2.909
103 F4 84 -0.468
103 F4 85 0.997
103 F4 86 1.973
103 F4 87 2.462
103 F4 88 2.462
103 F4 89 2.462
103 F4 90 2.950
103 F4 91 3.438
103 F4 92 4.415
103 F4 93 4.903
103 F4 94 5.391
103 F4 95 4.415
103 F4 96 2.950
103 F4 97 0.509
103 F4 98 -1.933
103 F4 99 -3.886
103 F4 100 -5.351
103 F4 101 -6.327
103 F4 102 -7.304
103 F4 103 -8.769
103 F4 104 -11.210
103 F4 105 -13.163
103 F4 106 -13.652
103 F4 107 -11.210
103 F4 108 -6.327
103 F4 109 -1.444
103 F4 110 1.485
103 F4 111 2.950
103 F4 112 2.462
103 F4 113 2.950
103 F4 114 4.415
103 F4 115 6.856
103 F4 116 10.274
103 F4 117 12.716
103 F4 118 14.669
103 F4 119 16.134
103 F4 120 16.622
103 F4 121 16.622
103 F4 122 15.157
103 F4 123 12.227
103 F4 124 8.809
103 F4 125 6.368
103 F4 126 4.415
103 F4 127 3.438
103 F4 128 1.973
103 F4 129 -0.468
103 F4 130 -3.886
103 F4 131 -7.304
103 F4 132 -10.722
103 F4 133 -12.187
103 F4 134 -13.163
103 F4 135 -12.675
103 F4 136 -11.698
103 F4 137 -10.722
103 F4 138 -9.745
103 F4 139 -7.792
103 F4 140 -5.839
103 F4 141 -3.886
103 F4 142 -2.421
103 F4 143 -2.421
103 F4 144 -3.886
103 F4 145 -5.351
103 F4 146 -5.839
103 F4 147 -4.862
103 F4 148 -2.421
103 F4 149 -1.933
103 F4 150 -2.421
103 F4 151 -4.862
103 F4 152 -6.816
103 F4 153 -7.304
103 F4 154 -5.839
103 F4 155 -3.886
103 F4 156 -2.909
103 F4 157 -3.886
103 F4 158 -6.327
103 F4 159 -8.769
103 F4 160 -10.234
103 F4 161 -9.745
103 F4 162 -9.257
103 F4 163 -8.280
103 F4 164 -7.792
103 F4 165 -7.792
103 F4 166 -8.280
103 F4 167 -8.280
103 F4 168 -8.280
103 F4 169 -7.792
103 F4 170 -6.816
103 F4 171 -5.839
103 F4 172 -4.862
103 F4 173 -3.886
103 F4 174 -3.398
103 F4 175 -2.909
103 F4 176 -1.933
103 F4 177 -0.468
103 F4 178 1.485
103 F4 179 2.462
103 F4 180 1.973
103 F4 181 0.020
103 F4 182 -2.421
103 F4 183 -4.862
103 F4 184 -5.839
103 F4 185 -5.351
103 F4 186 -3.398
103 F4 187 -1.933
103 F4 188 -0.956
103 F4 189 -0.468
103 F4 190 -0.468
103 F4 191 -0.468
103 F4 192 -0.468
103 F4 193 -0.468
103 F4 194 -0.468
103 F4 195 -0.468
103 F4 196 0.020
103 F4 197 1.485
103 F4 198 2.462
103 F4 199 3.438
103 F4 200 3.927
103 F4 201 3.927
103 F4 202 2.950
103 F4 203 2.462
103 F4 204 1.973
103 F4 205 1.973
103 F4 206 2.462
103 F4 207 3.927
103 F4 208 5.880
103 F4 209 7.345
103 F4 210 7.833
103 F4 211 6.368
103 F4 212 4.415
103 F4 213 2.462
103 F4 214 1.973
103 F4 215 1.973
103 F4 216 2.462
103 F4 217 2.462
103 F4 218 1.485
103 F4 219 -0.468
103 F4 220 -1.933
103 F4 221 -2.421
103 F4 222 -1.933
103 F4 223 -0.956
103 F4 224 -1.444
103 F4 225 -2.421
103 F4 226 -3.886
103 F4 227 -4.862
103 F4 228 -5.839
103 F4 229 -5.351
103 F4 230 -4.862
103 F4 231 -3.398
103 F4 232 -1.933
103 F4 233 -0.956
103 F4 234 -0.468
103 F4 235 -0.956
103 F4 236 -1.933
103 F4 237 -2.909
103 F4 238 -2.909
103 F4 239 -2.909
103 F4 240 -3.398
103 F4 241 -4.374
103 F4 242 -6.327
103 F4 243 -8.280
103 F4 244 -9.745
103 F4 245 -9.745
103 F4 246 -8.769
103 F4 247 -8.280
103 F4 248 -7.792
103 F4 249 -7.792
103 F4 250 -7.304
103 F4 251 -6.327
103 F4 252 -4.862
103 F4 253 -4.374
103 F4 254 -4.374
103 F4 255 -5.351
# F3 chan 8
103 F3 0 7.314
103 F3 1 8.779
103 F3 2 10.732
103 F3 3 11.709
103 F3 4 11.709
103 F3 5 10.244
103 F3 6 8.779
103 F3 7 7.314
103 F3 8 7.314
103 F3 9 8.291
103 F3 10 9.267
103 F3 11 10.244
103 F3 12 9.267
103 F3 13 7.314
103 F3 14 4.384
103 F3 15 1.455
103 F3 16 -1.475
103 F3 17 -3.428
103 F3 18 -4.893
103 F3 19 -5.870
103 F3 20 -5.870
103 F3 21 -4.893
103 F3 22 -2.452
103 F3 23 -0.498
103 F3 24 0.966
103 F3 25 0.966
103 F3 26 -0.010
103 F3 27 -1.475
103 F3 28 -3.428
103 F3 29 -3.916
103 F3 30 -2.940
103 F3 31 -0.987
103 F3 32 0.966
103 F3 33 2.431
103 F3 34 3.408
103 F3 35 2.920
103 F3 36 1.455
103 F3 37 -0.498
103 F3 38 -2.452
103 F3 39 -3.428
103 F3 40 -2.452
103 F3 41 -0.498
103 F3 42 1.455
103 F3 43 1.943
103 F3 44 0.966
103 F3 45 -0.498
103 F3 46 -2.452
103 F3 47 -2.940
103 F3 48 -3.428
103 F3 49 -3.916
103 F3 50 -3.916
103 F3 51 -3.428
103 F3 52 -2.452
103 F3 53 -0.010
103 F3 54 2.431
103 F3 55 4.873
103 F3 56 6.337
103 F3 57 7.314
103 F3 58 8.291
103 F3 59 8.779
103 F3 60 8.779
103 F3 61 7.314
103 F3 62 5.361
103 F3 63 1.943
103 F3 64 -1.475
103 F3 65 -3.916
103 F3 66 -5.870
103 F3 67 -6.846
103 F3 68 -7.823
103 F3 69 -8.799
103 F3 70 -10.264
103 F3 71 -12.217
103 F3 72 -15.635
103 F3 73 -17.588
103 F3 74 -19.053
103 F3 75 -19.053
103 F3 76 -18.565
103 F3 77 -18.077
103 F3 78 -17.100
103 F3 79 -15.635
103 F3 80 -12.705
103 F3 81 -7.823
103 F3 82 -1.963
103 F3 83 2.431
103 F3 84 5.361
103 F3 85 5.361
103 F3 86 3.408
103 F3 87 1.943
103 F3 88 0.966
103 F3 89 0.966
103 F3 90 1.943
103 F3 91 2.431
103 F3 92 1.943
103 F3 93 -0.010
103 F3 94 -2.452
103 F3 95 -3.916
103 F3 96 -5.381
103 F3 97 -6.358
103 F3 98 -7.823
103 F3 99 -9.288
103 F3 100 -11.241
103 F3 101 -12.217
103 F3 102 -12.705
103 F3 103 -12.705
103 F3 104 -13.194
103 F3 105 -14.170
103 F3 106 -14.659
103 F3 107 -14.659
103 F3 108 -12.705
103 F3 109 -9.288
103 F3 110 -6.358
103 F3 111 -4.405
103 F3 112 -3.916
103 F3 113 -3.428
103 F3 114 -1.963
103 F3 115 1.455
103 F3 116 5.849
103 F3 117 9.755
103 F3 118 12.685
103 F3 119 14.150
103 F3 120 14.150
103 F3 121 13.173
103 F3 122 11.709
103 F3 123 9.755
103 F3 124 6.826
103 F3 125 3.896
103 F3 126 1.455
103 F3 127 -0.498
103 F3 128 -1.963
103 F3 129 -3.916
103 F3 130 -5.870
103 F3 131 -8.799
103 F3 132 -11.729
103 F3 133 -13.682
103 F3 134 -14.170
103 F3 135 -13.682
103 F3 136 -12.705
103 F3 137 -11.729
103 F3 138 -11.729
103 F3 139 -11.241
103 F3 140 -10.752
103 F3 141 -8.799
103 F3 142 -6.846
103 F3 143 -5.870
103 F3 144 -6.358
103 F3 145 -7.823
103 F3 146 -8.311
103 F3 147 -7.823
103 F3 148 -5.381
103 F3 149 -2.940
103 F3 150 -1.963
103 F3 151 -2.940
103 F3 152 -3.916
103 F3 153 -4.893
103 F3 154 -4.893
103 F3 155 -3.916
103 F3 156 -4.405
103 F3 157 -5.870
103 F3 158 -7.823
103 F3 159 -9.776
103 F3 160 -10.264
103 F3 161 -10.264
103 F3 162 -9.288
103 F3 163 -9.288
103 F3 164 -9.288
103 F3 165 -9.776
103 F3 166 -9.776
103 F3 167 -10.264
103 F3 168 -10.752
103 F3 169 -10.752
103 F3 170 -10.264
103 F3 171 -8.799
103 F3 172 -6.846
103 F3 173 -5.381
103 F3 174 -5.870
103 F3 175 -6.846
103 F3 176 -7.334
103 F3 177 -6.846
103 F3 178 -5.381
103 F3 179 -3.916
103 F3 180 -4.893
103 F3 181 -7.334
103 F3 182 -10.752
103 F3 183 -14.170
103 F3 184 -14.170
103 F3 185 -12.705
103 F3 186 -9.776
103 F3 187 -7.823
103 F3 188 -6.846
103 F3 189 -6.846
103 F3 190 -6.358
103 F3 191 -5.870
103 F3 192 -4.893
103 F3 193 -4.405
103 F3 194 -5.381
103 F3 195 -6.846
103 F3 196 -6.358
103 F3 197 -4.893
103 F3 198 -2.452
103 F3 199 -0.498
103 F3 200 0.478
103 F3 201 0.966
103 F3 202 1.455
103 F3 203 1.943
103 F3 204 3.408
103 F3 205 4.873
103 F3 206 5.361
103 F3 207 5.849
103 F3 208 6.337
103 F3 209 7.314
103 F3 210 7.802
103 F3 211 6.826
103 F3 212 5.361
103 F3 213 2.920
103 F3 214 1.943
103 F3 215 2.920
103 F3 216 4.873
103 F3 217 5.361
103 F3 218 4.384
103 F3 219 1.943
103 F3 220 -0.987
103 F3 221 -2.452
103 F3 222 -2.452
103 F3 223 -1.475
103 F3 224 -0.010
103 F3 225 0.966
103 F3 226 1.455
103 F3 227 0.966
103 F3 228 0.478
103 F3 229 -0.010
103 F3 230 -0.010
103 F3 231 0.966
103 F3 232 2.431
103 F3 233 2.920
103 F3 234 2.431
103 F3 235 0.966
103 F3 236 -0.987
103 F3 237 -1.963
103 F3 238 -1.963
103 F3 239 -1.963
103 F3 240 -2.940
103 F3 241 -4.893
103 F3 242 -7.823
103 F3 243 -10.264
103 F3 244 -11.729
103 F3 245 -11.241
103 F3 246 -9.288
103 F3 247 -7.823
103 F3 248 -7.823
103 F3 249 -8.311
103 F3 250 -9.288
103 F3 251 -9.776
103 F3 252 -8.799
103 F3 253 -8.311
103 F3 254 -7.823
103 F3 255 -7.334
# FC6 chan 9
103 FC6 0 9.145
103 FC6 1 10.122
103 FC6 2 11.098
103 FC6 3 12.075
103 FC6 4 13.540
103 FC6 5 13.540
103 FC6 6 12.563
103 FC6 7 11.587
103 FC6 8 11.098
103 FC6 9 12.563
103 FC6 10 14.516
103 FC6 11 15.981
103 FC6 12 15.981
103 FC6 13 13.051
103 FC6 14 9.145
103 FC6 15 5.239
103 FC6 16 2.797
103 FC6 17 1.333
103 FC6 18 0.844
103 FC6 19 0.844
103 FC6 20 0.844
103 FC6 21 0.844
103 FC6 22 1.821
103 FC6 23 2.797
103 FC6 24 4.262
103 FC6 25 4.262
103 FC6 26 3.774
103 FC6 27 1.821
103 FC6 28 -0.621
103 FC6 29 -2.085
103 FC6 30 -3.062
103 FC6 31 -2.085
103 FC6 32 -1.109
103 FC6 33 0.356
103 FC6 34 0.844
103 FC6 35 0.356
103 FC6 36 -1.597
103 FC6 37 -3.550
103 FC6 38 -4.527
103 FC6 39 -4.038
103 FC6 40 -2.085
103 FC6 41 0.356
103 FC6 42 2.309
103 FC6 43 2.797
103 FC6 44 1.821
103 FC6 45 -0.132
103 FC6 46 -2.574
103 FC6 47 -5.015
103 FC6 48 -6.480
103 FC6 49 -7.945
103 FC6 50 -7.945
103 FC6 51 -5.992
103 FC6 52 -4.038
103 FC6 53 -2.574
103 FC6 54 -1.109
103 FC6 55 -0.621
103 FC6 56 0.844
103 FC6 57 2.797
103 FC6 58 4.751
103 FC6 59 6.704
103 FC6 60 6.704
103 FC6 61 5.239
103 FC6 62 3.286
103 FC6 63 2.309
103 FC6 64 2.309
103 FC6 65 3.774
103 FC6 66 5.727
103 FC6 67 7.680
103 FC6 68 8.657
103 FC6 69 7.192
103 FC6 70 4.262
103 FC6 71 0.844
103 FC6 72 -2.574
103 FC6 73 -4.527
103 FC6 74 -5.992
103 FC6 75 -6.968
103 FC6 76 -9.410
103 FC6 77 -12.828
103 FC6 78 -15.269
103 FC6 79 -15.757
103 FC6 80 -13.804
103 FC6 81 -9.898
103 FC6 82 -5.992
103 FC6 83 -3.062
103 FC6 84 -1.597
103 FC6 85 -1.109
103 FC6 86 -0.621
103 FC6 87 -0.132
103 FC6 88 -0.132
103 FC6 89 -0.621
103 FC6 90 -0.621
103 FC6 91 -0.132
103 FC6 92 1.333
103 FC6 93 3.774
103 FC6 94 5.239
103 FC6 95 5.727
103 FC6 96 3.774
103 FC6 97 0.844
103 FC6 98 -2.085
103 FC6 99 -5.015
103 FC6 100 -5.992
103 FC6 101 -6.480
103 FC6 102 -6.480
103 FC6 103 -7.945
103 FC6 104 -9.410
103 FC6 105 -11.363
103 FC6 106 -11.851
103 FC6 107 -10.386
103 FC6 108 -6.968
103 FC6 109 -3.062
103 FC6 110 0.356
103 FC6 111 2.309
103 FC6 112 3.774
103 FC6 113 5.727
103 FC6 114 8.657
103 FC6 115 11.587
103 FC6 116 14.516
103 FC6 117 15.981
103 FC6 118 17.446
103 FC6 119 18.422
103 FC6 120 19.399
103 FC6 121 18.911
103 FC6 122 17.446
103 FC6 123 14.516
103 FC6 124 11.098
103 FC6 125 8.657
103 FC6 126 7.680
103 FC6 127 6.704
103 FC6 128 4.751
103 FC6 129 1.333
103 FC6 130 -3.550
103 FC6 131 -7.456
103 FC6 132 -9.898
103 FC6 133 -10.874
103 FC6 134 -11.363
103 FC6 135 -11.363
103 FC6 136 -11.363
103 FC6 137 -11.851
103 FC6 138 -11.851
103 FC6 139 -11.851
103 FC6 140 -11.363
103 FC6 141 -10.874
103 FC6 142 -9.410
103 FC6 143 -9.410
103 FC6 144 -8.921
103 FC6 145 -8.921
103 FC6 146 -8.921
103 FC6 147 -8.433
103 FC6 148 -7.945
103 FC6 149 -8.433
103 FC6 150 -9.410
103 FC6 151 -10.874
103 FC6 152 -12.339
103 FC6 153 -11.363
103 FC6 154 -9.410
103 FC6 155 -6.968
103 FC6 156 -6.480
103 FC6 157 -7.456
103 FC6 158 -9.898
103 FC6 159 -11.851
103 FC6 160 -12.339
103 FC6 161 -11.363
103 FC6 162 -9.898
103 FC6 163 -8.921
103 FC6 164 -9.410
103 FC6 165 -10.386
103 FC6 166 -10.874
103 FC6 167 -10.874
103 FC6 168 -10.386
103 FC6 169 -8.921
103 FC6 170 -7.945
103 FC6 171 -6.480
103 FC6 172 -5.992
103 FC6 173 -5.503
103 FC6 174 -5.015
103 FC6 175 -4.527
103 FC6 176 -3.550
103 FC6 177 -2.085
103 FC6 178 -0.621
103 FC6 179 0.844
103 FC6 180 1.821
103 FC6 181 1.333
103 FC6 182 0.356
103 FC6 183 -0.621
103 FC6 184 -0.621
103 FC6 185 0.356
103 FC6 186 1.821
103 FC6 187 3.286
103 FC6 188 3.286
103 FC6 189 1.333
103 FC6 190 -0.621
103 FC6 191 -3.062
103 FC6 192 -4.038
103 FC6 193 -4.038
103 FC6 194 -3.550
103 FC6 195 -3.062
103 FC6 196 -2.574
103 FC6 197 -1.597
103 FC6 198 -1.109
103 FC6 199 -0.132
103 FC6 200 -0.132
103 FC6 201 -0.621
103 FC6 202 -2.574
103 FC6 203 -4.038
103 FC6 204 -4.527
103 FC6 205 -4.038
103 FC6 206 -3.062
103 FC6 207 -1.597
103 FC6 208 -0.621
103 FC6 209 -0.621
103 FC6 210 -1.109
103 FC6 211 -2.574
103 FC6 212 -4.527
103 FC6 213 -5.992
103 FC6 214 -6.968
103 FC6 215 -6.968
103 FC6 216 -6.968
103 FC6 217 -7.945
103 FC6 218 -8.921
103 FC6 219 -10.386
103 FC6 220 -11.363
103 FC6 221 -11.363
103 FC6 222 -10.386
103 FC6 223 -8.921
103 FC6 224 -7.945
103 FC6 225 -7.945
103 FC6 226 -7.945
103 FC6 227 -8.433
103 FC6 228 -8.433
103 FC6 229 -9.410
103 FC6 230 -9.410
103 FC6 231 -9.410
103 FC6 232 -8.433
103 FC6 233 -6.968
103 FC6 234 -5.503
103 FC6 235 -5.015
103 FC6 236 -5.992
103 FC6 237 -6.968
103 FC6 238 -7.945
103 FC6 239 -7.456
103 FC6 240 -6.968
103 FC6 241 -6.968
103 FC6 242 -7.945
103 FC6 243 -9.898
103 FC6 244 -11.363
103 FC6 245 -12.339
103 FC6 246 -11.851
103 FC6 247 -10.874
103 FC6 248 -9.898
103 FC6 249 -9.410
103 FC6 250 -8.921
103 FC6 251 -7.945
103 FC6 252 -6.480
103 FC6 253 -5.503
103 FC6 254 -5.503
103 FC6 255 -5.015
# FC5 chan 10
103 FC5 0 6.744
103 FC5 1 10.651
103 FC5 2 12.604
103 FC5 3 13.580
103 FC5 4 13.092
103 FC5 5 12.115
103 FC5 6 11.627
103 FC5 7 11.627
103 FC5 8 11.627
103 FC5 9 11.139
103 FC5 10 10.651
103 FC5 11 10.162
103 FC5 12 9.674
103 FC5 13 8.209
103 FC5 14 5.768
103 FC5 15 2.838
103 FC5 16 -0.580
103 FC5 17 -3.510
103 FC5 18 -6.439
103 FC5 19 -7.904
103 FC5 20 -7.416
103 FC5 21 -6.439
103 FC5 22 -5.951
103 FC5 23 -5.463
103 FC5 24 -5.463
103 FC5 25 -5.951
103 FC5 26 -5.951
103 FC5 27 -5.463
103 FC5 28 -4.974
103 FC5 29 -4.974
103 FC5 30 -4.486
103 FC5 31 -3.998
103 FC5 32 -2.045
103 FC5 33 0.397
103 FC5 34 3.326
103 FC5 35 4.791
103 FC5 36 4.303
103 FC5 37 1.373
103 FC5 38 -2.045
103 FC5 39 -3.021
103 FC5 40 -2.045
103 FC5 41 1.373
103 FC5 42 4.791
103 FC5 43 5.768
103 FC5 44 4.791
103 FC5 45 2.350
103 FC5 46 -0.580
103 FC5 47 -2.533
103 FC5 48 -4.486
103 FC5 49 -6.439
103 FC5 50 -8.392
103 FC5 51 -8.881
103 FC5 52 -7.416
103 FC5 53 -3.998
103 FC5 54 -0.092
103 FC5 55 2.838
103 FC5 56 4.303
103 FC5 57 4.303
103 FC5 58 3.815
103 FC5 59 3.815
103 FC5 60 3.815
103 FC5 61 3.326
103 FC5 62 3.326
103 FC5 63 2.350
103 FC5 64 1.862
103 FC5 65 0.885
103 FC5 66 -0.092
103 FC5 67 -1.556
103 FC5 68 -3.510
103 FC5 69 -5.463
103 FC5 70 -6.927
103 FC5 71 -8.392
103 FC5 72 -10.345
103 FC5 73 -12.299
103 FC5 74 -15.228
103 FC5 75 -17.181
103 FC5 76 -18.158
103 FC5 77 -18.646
103 FC5 78 -18.646
103 FC5 79 -18.158
103 FC5 80 -17.670
103 FC5 81 -16.205
103 FC5 82 -13.275
103 FC5 83 -10.345
103 FC5 84 -8.881
103 FC5 85 -8.881
103 FC5 86 -8.881
103 FC5 87 -9.857
103 FC5 88 -9.857
103 FC5 89 -9.369
103 FC5 90 -8.881
103 FC5 91 -8.881
103 FC5 92 -9.369
103 FC5 93 -9.857
103 FC5 94 -10.345
103 FC5 95 -10.345
103 FC5 96 -10.345
103 FC5 97 -11.322
103 FC5 98 -13.275
103 FC5 99 -15.717
103 FC5 100 -17.670
103 FC5 101 -19.135
103 FC5 102 -20.111
103 FC5 103 -20.599
103 FC5 104 -21.576
103 FC5 105 -23.041
103 FC5 106 -24.017
103 FC5 107 -24.506
103 FC5 108 -23.041
103 FC5 109 -20.111
103 FC5 110 -15.717
103 FC5 111 -11.322
103 FC5 112 -7.904
103 FC5 113 -5.463
103 FC5 114 -3.510
103 FC5 115 -1.556
103 FC5 116 -0.092
103 FC5 117 2.350
103 FC5 118 4.791
103 FC5 119 7.233
103 FC5 120 9.186
103 FC5 121 10.651
103 FC5 122 9.674
103 FC5 123 7.233
103 FC5 124 3.815
103 FC5 125 -0.092
103 FC5 126 -2.533
103 FC5 127 -4.974
103 FC5 128 -7.416
103 FC5 129 -10.834
103 FC5 130 -14.740
103 FC5 131 -18.158
103 FC5 132 -21.088
103 FC5 133 -22.064
103 FC5 134 -21.576
103 FC5 135 -20.111
103 FC5 136 -19.623
103 FC5 137 -20.599
103 FC5 138 -22.064
103 FC5 139 -23.529
103 FC5 140 -23.041
103 FC5 141 -21.088
103 FC5 142 -18.158
103 FC5 143 -15.717
103 FC5 144 -15.717
103 FC5 145 -16.205
103 FC5 146 -17.670
103 FC5 147 -17.181
103 FC5 148 -15.228
103 FC5 149 -12.787
103 FC5 150 -10.834
103 FC5 151 -9.857
103 FC5 152 -9.857
103 FC5 153 -10.345
103 FC5 154 -9.857
103 FC5 155 -9.369
103 FC5 156 -9.857
103 FC5 157 -10.834
103 FC5 158 -13.275
103 FC5 159 -14.740
103 FC5 160 -15.717
103 FC5 161 -15.717
103 FC5 162 -15.228
103 FC5 163 -15.717
103 FC5 164 -15.717
103 FC5 165 -15.228
103 FC5 166 -14.740
103 FC5 167 -14.252
103 FC5 168 -14.252
103 FC5 169 -14.252
103 FC5 170 -14.252
103 FC5 171 -13.275
103 FC5 172 -10.834
103 FC5 173 -9.369
103 FC5 174 -8.881
103 FC5 175 -9.857
103 FC5 176 -11.810
103 FC5 177 -13.275
103 FC5 178 -13.275
103 FC5 179 -12.299
103 FC5 180 -11.810
103 FC5 181 -12.787
103 FC5 182 -14.252
103 FC5 183 -15.717
103 FC5 184 -16.693
103 FC5 185 -16.205
103 FC5 186 -14.252
103 FC5 187 -12.787
103 FC5 188 -11.810
103 FC5 189 -11.810
103 FC5 190 -11.810
103 FC5 191 -11.810
103 FC5 192 -12.299
103 FC5 193 -13.275
103 FC5 194 -14.740
103 FC5 195 -15.717
103 FC5 196 -15.717
103 FC5 197 -13.763
103 FC5 198 -10.834
103 FC5 199 -8.881
103 FC5 200 -7.904
103 FC5 201 -7.904
103 FC5 202 -7.904
103 FC5 203 -7.416
103 FC5 204 -5.463
103 FC5 205 -3.998
103 FC5 206 -3.021
103 FC5 207 -2.045
103 FC5 208 -1.556
103 FC5 209 -0.580
103 FC5 210 -0.092
103 FC5 211 -2.045
103 FC5 212 -4.974
103 FC5 213 -8.881
103 FC5 214 -11.810
103 FC5 215 -11.322
103 FC5 216 -9.369
103 FC5 217 -7.416
103 FC5 218 -7.416
103 FC5 219 -9.369
103 FC5 220 -12.299
103 FC5 221 -14.740
103 FC5 222 -14.740
103 FC5 223 -12.787
103 FC5 224 -10.345
103 FC5 225 -7.904
103 FC5 226 -6.927
103 FC5 227 -6.927
103 FC5 228 -7.904
103 FC5 229 -8.881
103 FC5 230 -8.392
103 FC5 231 -6.927
103 FC5 232 -4.486
103 FC5 233 -2.533
103 FC5 234 -2.533
103 FC5 235 -4.486
103 FC5 236 -6.439
103 FC5 237 -8.392
103 FC5 238 -8.392
103 FC5 239 -8.881
103 FC5 240 -9.857
103 FC5 241 -12.787
103 FC5 242 -16.205
103 FC5 243 -18.158
103 FC5 244 -18.646
103 FC5 245 -17.670
103 FC5 246 -15.717
103 FC5 247 -15.228
103 FC5 248 -16.205
103 FC5 249 -16.693
103 FC5 250 -17.670
103 FC5 251 -17.181
103 FC5 252 -16.693
103 FC5 253 -16.205
103 FC5 254 -16.205
103 FC5 255 -15.717
# FC2 chan 11
103 FC2 0 3.082
103 FC2 1 3.571
103 FC2 2 4.059
103 FC2 3 4.059
103 FC2 4 4.059
103 FC2 5 3.571
103 FC2 6 2.594
103 FC2 7 2.594
103 FC2 8 3.082
103 FC2 9 3.571
103 FC2 10 4.547
103 FC2 11 5.035
103 FC2 12 4.547
103 FC2 13 3.571
103 FC2 14 2.594
103 FC2 15 0.641
103 FC2 16 -0.336
103 FC2 17 -1.801
103 FC2 18 -1.801
103 FC2 19 -1.312
103 FC2 20 -0.336
103 FC2 21 1.129
103 FC2 22 2.106
103 FC2 23 2.594
103 FC2 24 2.594
103 FC2 25 1.617
103 FC2 26 0.641
103 FC2 27 -0.824
103 FC2 28 -1.801
103 FC2 29 -2.777
103 FC2 30 -2.777
103 FC2 31 -2.289
103 FC2 32 -1.312
103 FC2 33 -0.824
103 FC2 34 -1.312
103 FC2 35 -2.777
103 FC2 36 -4.730
103 FC2 37 -6.683
103 FC2 38 -7.660
103 FC2 39 -7.660
103 FC2 40 -6.195
103 FC2 41 -4.242
103 FC2 42 -2.289
103 FC2 43 -1.801
103 FC2 44 -2.289
103 FC2 45 -2.289
103 FC2 46 -2.289
103 FC2 47 -2.289
103 FC2 48 -1.801
103 FC2 49 -1.801
103 FC2 50 -2.289
103 FC2 51 -2.289
103 FC2 52 -2.289
103 FC2 53 -1.801
103 FC2 54 -1.312
103 FC2 55 -0.336
103 FC2 56 0.153
103 FC2 57 1.617
103 FC2 58 3.082
103 FC2 59 4.547
103 FC2 60 5.035
103 FC2 61 4.547
103 FC2 62 3.082
103 FC2 63 1.617
103 FC2 64 0.153
103 FC2 65 -0.824
103 FC2 66 -0.336
103 FC2 67 0.153
103 FC2 68 0.153
103 FC2 69 0.641
103 FC2 70 -0.824
103 FC2 71 -2.777
103 FC2 72 -4.730
103 FC2 73 -6.195
103 FC2 74 -6.683
103 FC2 75 -6.683
103 FC2 76 -7.172
103 FC2 77 -8.636
103 FC2 78 -9.125
103 FC2 79 -9.125
103 FC2 80 -7.172
103 FC2 81 -4.242
103 FC2 82 -1.312
103 FC2 83 0.153
103 FC2 84 1.129
103 FC2 85 1.129
103 FC2 86 1.617
103 FC2 87 2.106
103 FC2 88 3.082
103 FC2 89 4.059
103 FC2 90 4.059
103 FC2 91 3.571
103 FC2 92 3.082
103 FC2 93 2.594
103 FC2 94 2.106
103 FC2 95 1.617
103 FC2 96 1.129
103 FC2 97 0.153
103 FC2 98 -1.312
103 FC2 99 -2.289
103 FC2 100 -2.777
103 FC2 101 -3.754
103 FC2 102 -4.730
103 FC2 103 -5.707
103 FC2 104 -7.172
103 FC2 105 -7.660
103 FC2 106 -7.660
103 FC2 107 -6.195
103 FC2 108 -3.754
103 FC2 109 -1.312
103 FC2 110 0.153
103 FC2 111 0.641
103 FC2 112 0.641
103 FC2 113 0.153
103 FC2 114 0.641
103 FC2 115 1.617
103 FC2 116 3.571
103 FC2 117 5.524
103 FC2 118 6.500
103 FC2 119 6.500
103 FC2 120 6.012
103 FC2 121 5.035
103 FC2 122 4.059
103 FC2 123 2.594
103 FC2 124 1.129
103 FC2 125 -0.336
103 FC2 126 -0.824
103 FC2 127 -0.824
103 FC2 128 -0.824
103 FC2 129 -1.312
103 FC2 130 -2.289
103 FC2 131 -3.754
103 FC2 132 -5.219
103 FC2 133 -5.707
103 FC2 134 -5.707
103 FC2 135 -4.730
103 FC2 136 -3.754
103 FC2 137 -2.777
103 FC2 138 -2.777
103 FC2 139 -1.801
103 FC2 140 -0.824
103 FC2 141 0.153
103 FC2 142 0.641
103 FC2 143 0.153
103 FC2 144 -0.824
103 FC2 145 -1.312
103 FC2 146 -1.312
103 FC2 147 -0.824
103 FC2 148 -0.336
103 FC2 149 -0.336
103 FC2 150 -1.312
103 FC2 151 -2.777
103 FC2 152 -3.754
103 FC2 153 -3.265
103 FC2 154 -2.289
103 FC2 155 -1.312
103 FC2 156 -0.824
103 FC2 157 -1.312
103 FC2 158 -2.289
103 FC2 159 -3.265
103 FC2 160 -3.754
103 FC2 161 -4.242
103 FC2 162 -4.242
103 FC2 163 -4.242
103 FC2 164 -4.242
103 FC2 165 -3.754
103 FC2 166 -3.265
103 FC2 167 -3.754
103 FC2 168 -4.730
103 FC2 169 -5.219
103 FC2 170 -5.219
103 FC2 171 -4.730
103 FC2 172 -4.242
103 FC2 173 -3.265
103 FC2 174 -3.265
103 FC2 175 -2.777
103 FC2 176 -2.289
103 FC2 177 -1.312
103 FC2 178 0.641
103 FC2 179 1.617
103 FC2 180 1.129
103 FC2 181 -0.336
103 FC2 182 -2.777
103 FC2 183 -4.242
103 FC2 184 -4.730
103 FC2 185 -4.242
103 FC2 186 -2.777
103 FC2 187 -1.801
103 FC2 188 -1.312
103 FC2 189 -0.824
103 FC2 190 -0.824
103 FC2 191 -0.824
103 FC2 192 -0.336
103 FC2 193 -0.336
103 FC2 194 0.153
103 FC2 195 0.153
103 FC2 196 0.153
103 FC2 197 0.641
103 FC2 198 0.641
103 FC2 199 0.641
103 FC2 200 0.153
103 FC2 201 0.153
103 FC2 202 0.153
103 FC2 203 0.153
103 FC2 204 0.153
103 FC2 205 -0.336
103 FC2 206 -0.336
103 FC2 207 0.641
103 FC2 208 1.129
103 FC2 209 2.106
103 FC2 210 2.106
103 FC2 211 0.641
103 FC2 212 -0.824
103 FC2 213 -1.801
103 FC2 214 -1.801
103 FC2 215 -0.824
103 FC2 216 0.153
103 FC2 217 1.129
103 FC2 218 0.641
103 FC2 219 -0.336
103 FC2 220 -0.824
103 FC2 221 -1.312
103 FC2 222 -1.312
103 FC2 223 -1.312
103 FC2 224 -2.289
103 FC2 225 -2.777
103 FC2 226 -3.265
103 FC2 227 -3.754
103 FC2 228 -3.265
103 FC2 229 -2.777
103 FC2 230 -2.777
103 FC2 231 -2.777
103 FC2 232 -2.777
103 FC2 233 -2.777
103 FC2 234 -2.289
103 FC2 235 -2.289
103 FC2 236 -1.801
103 FC2 237 -2.289
103 FC2 238 -2.777
103 FC2 239 -3.265
103 FC2 240 -4.242
103 FC2 241 -4.242
103 FC2 242 -5.219
103 FC2 243 -6.195
103 FC2 244 -6.683
103 FC2 245 -6.683
103 FC2 246 -5.707
103 FC2 247 -4.730
103 FC2 248 -4.242
103 FC2 249 -4.242
103 FC2 250 -4.730
103 FC2 251 -5.219
103 FC2 252 -5.219
103 FC2 253 -4.730
103 FC2 254 -3.754
103 FC2 255 -3.754
# FC1 chan 12
103 FC1 0 5.330
103 FC1 1 6.307
103 FC1 2 6.795
103 FC1 3 6.795
103 FC1 4 6.307
103 FC1 5 5.819
103 FC1 6 4.842
103 FC1 7 4.354
103 FC1 8 3.866
103 FC1 9 3.866
103 FC1 10 3.866
103 FC1 11 3.866
103 FC1 12 3.866
103 FC1 13 3.866
103 FC1 14 2.889
103 FC1 15 0.936
103 FC1 16 -0.529
103 FC1 17 -2.482
103 FC1 18 -3.459
103 FC1 19 -3.947
103 FC1 20 -2.970
103 FC1 21 -1.506
103 FC1 22 -0.041
103 FC1 23 0.936
103 FC1 24 0.936
103 FC1 25 0.936
103 FC1 26 0.448
103 FC1 27 -0.041
103 FC1 28 -0.529
103 FC1 29 -1.017
103 FC1 30 -0.529
103 FC1 31 -0.041
103 FC1 32 0.448
103 FC1 33 0.448
103 FC1 34 -0.041
103 FC1 35 -0.041
103 FC1 36 -0.529
103 FC1 37 -1.017
103 FC1 38 -1.506
103 FC1 39 -1.994
103 FC1 40 -1.017
103 FC1 41 -0.041
103 FC1 42 1.912
103 FC1 43 2.889
103 FC1 44 3.377
103 FC1 45 3.377
103 FC1 46 2.889
103 FC1 47 2.401
103 FC1 48 2.401
103 FC1 49 2.401
103 FC1 50 1.912
103 FC1 51 1.912
103 FC1 52 1.912
103 FC1 53 2.889
103 FC1 54 4.354
103 FC1 55 5.819
103 FC1 56 6.307
103 FC1 57 7.284
103 FC1 58 7.284
103 FC1 59 7.284
103 FC1 60 7.284
103 FC1 61 6.795
103 FC1 62 5.819
103 FC1 63 4.354
103 FC1 64 2.401
103 FC1 65 0.448
103 FC1 66 -0.529
103 FC1 67 -1.506
103 FC1 68 -1.506
103 FC1 69 -1.994
103 FC1 70 -2.482
103 FC1 71 -3.459
103 FC1 72 -4.924
103 FC1 73 -6.388
103 FC1 74 -7.853
103 FC1 75 -8.830
103 FC1 76 -9.318
103 FC1 77 -9.318
103 FC1 78 -9.318
103 FC1 79 -8.341
103 FC1 80 -6.388
103 FC1 81 -3.459
103 FC1 82 -0.041
103 FC1 83 2.889
103 FC1 84 4.354
103 FC1 85 4.354
103 FC1 86 3.866
103 FC1 87 3.377
103 FC1 88 2.889
103 FC1 89 3.377
103 FC1 90 3.377
103 FC1 91 3.377
103 FC1 92 2.889
103 FC1 93 1.424
103 FC1 94 0.448
103 FC1 95 -0.529
103 FC1 96 -1.017
103 FC1 97 -1.506
103 FC1 98 -1.994
103 FC1 99 -2.482
103 FC1 100 -3.459
103 FC1 101 -4.435
103 FC1 102 -4.924
103 FC1 103 -4.924
103 FC1 104 -5.412
103 FC1 105 -5.412
103 FC1 106 -5.412
103 FC1 107 -5.412
103 FC1 108 -3.459
103 FC1 109 -1.506
103 FC1 110 0.448
103 FC1 111 1.424
103 FC1 112 0.936
103 FC1 113 0.448
103 FC1 114 -0.041
103 FC1 115 1.424
103 FC1 116 3.377
103 FC1 117 5.819
103 FC1 118 7.284
103 FC1 119 7.284
103 FC1 120 6.795
103 FC1 121 5.330
103 FC1 122 3.866
103 FC1 123 2.889
103 FC1 124 1.424
103 FC1 125 0.448
103 FC1 126 -0.041
103 FC1 127 -1.017
103 FC1 128 -1.017
103 FC1 129 -1.994
103 FC1 130 -2.970
103 FC1 131 -4.435
103 FC1 132 -5.900
103 FC1 133 -6.388
103 FC1 134 -5.900
103 FC1 135 -4.435
103 FC1 136 -2.970
103 FC1 137 -1.994
103 FC1 138 -1.994
103 FC1 139 -1.506
103 FC1 140 -0.529
103 FC1 141 0.936
103 FC1 142 1.912
103 FC1 143 2.401
103 FC1 144 1.424
103 FC1 145 0.448
103 FC1 146 -0.041
103 FC1 147 -0.041
103 FC1 148 0.936
103 FC1 149 1.912
103 FC1 150 1.912
103 FC1 151 0.936
103 FC1 152 0.448
103 FC1 153 -0.041
103 FC1 154 0.448
103 FC1 155 0.936
103 FC1 156 0.936
103 FC1 157 -0.041
103 FC1 158 -1.506
103 FC1 159 -2.970
103 FC1 160 -3.459
103 FC1 161 -3.459
103 FC1 162 -2.482
103 FC1 163 -1.017
103 FC1 164 -0.041
103 FC1 165 0.936
103 FC1 166 0.448
103 FC1 167 -0.529
103 FC1 168 -1.994
103 FC1 169 -3.459
103 FC1 170 -3.459
103 FC1 171 -3.459
103 FC1 172 -2.482
103 FC1 173 -1.994
103 FC1 174 -1.506
103 FC1 175 -1.994
103 FC1 176 -2.482
103 FC1 177 -1.994
103 FC1 178 -1.017
103 FC1 179 -0.529
103 FC1 180 -0.529
103 FC1 181 -2.482
103 FC1 182 -4.435
103 FC1 183 -6.388
103 FC1 184 -6.877
103 FC1 185 -5.412
103 FC1 186 -3.947
103 FC1 187 -2.482
103 FC1 188 -1.506
103 FC1 189 -1.506
103 FC1 190 -1.506
103 FC1 191 -1.017
103 FC1 192 -0.529
103 FC1 193 -0.041
103 FC1 194 -0.041
103 FC1 195 -1.017
103 FC1 196 -1.017
103 FC1 197 -1.017
103 FC1 198 0.448
103 FC1 199 1.424
103 FC1 200 2.401
103 FC1 201 2.401
103 FC1 202 2.889
103 FC1 203 2.889
103 FC1 204 3.377
103 FC1 205 3.377
103 FC1 206 3.866
103 FC1 207 3.866
103 FC1 208 4.354
103 FC1 209 4.842
103 FC1 210 4.842
103 FC1 211 3.377
103 FC1 212 2.401
103 FC1 213 0.936
103 FC1 214 0.936
103 FC1 215 1.912
103 FC1 216 3.377
103 FC1 217 3.866
103 FC1 218 3.377
103 FC1 219 2.401
103 FC1 220 1.424
103 FC1 221 1.424
103 FC1 222 2.401
103 FC1 223 2.889
103 FC1 224 3.377
103 FC1 225 3.377
103 FC1 226 3.377
103 FC1 227 2.889
103 FC1 228 2.889
103 FC1 229 3.377
103 FC1 230 3.866
103 FC1 231 4.354
103 FC1 232 4.354
103 FC1 233 4.354
103 FC1 234 3.866
103 FC1 235 3.377
103 FC1 236 2.889
103 FC1 237 2.401
103 FC1 238 2.401
103 FC1 239 2.401
103 FC1 240 1.424
103 FC1 241 -0.041
103 FC1 242 -1.994
103 FC1 243 -3.459
103 FC1 244 -3.947
103 FC1 245 -2.970
103 FC1 246 -1.506
103 FC1 247 -0.529
103 FC1 248 -0.041
103 FC1 249 -1.017
103 FC1 250 -1.994
103 FC1 251 -2.970
103 FC1 252 -2.482
103 FC1 253 -2.482
103 FC1 254 -1.994
103 FC1 255 -1.506
# T8 chan 13
103 T8 0 6.999
103 T8 1 8.952
103 T8 2 10.417
103 T8 3 11.882
103 T8 4 12.858
103 T8 5 13.835
103 T8 6 14.323
103 T8 7 16.276
103 T8 8 18.717
103 T8 9 21.159
103 T8 10 22.624
103 T8 11 22.624
103 T8 12 20.182
103 T8 13 15.788
103 T8 14 10.905
103 T8 15 6.022
103 T8 16 2.604
103 T8 17 0.163
103 T8 18 -2.279
103 T8 19 -3.255
103 T8 20 -2.767
103 T8 21 -2.279
103 T8 22 -0.814
103 T8 23 0.163
103 T8 24 0.651
103 T8 25 0.163
103 T8 26 -0.326
103 T8 27 -1.790
103 T8 28 -3.743
103 T8 29 -5.697
103 T8 30 -7.161
103 T8 31 -7.650
103 T8 32 -6.185
103 T8 33 -3.743
103 T8 34 -1.790
103 T8 35 -0.814
103 T8 36 -1.302
103 T8 37 -2.767
103 T8 38 -3.743
103 T8 39 -3.743
103 T8 40 -2.279
103 T8 41 -0.326
103 T8 42 0.651
103 T8 43 0.651
103 T8 44 -0.814
103 T8 45 -2.767
103 T8 46 -5.208
103 T8 47 -7.650
103 T8 48 -9.603
103 T8 49 -11.068
103 T8 50 -11.556
103 T8 51 -10.579
103 T8 52 -8.138
103 T8 53 -5.697
103 T8 54 -3.743
103 T8 55 -3.255
103 T8 56 -2.767
103 T8 57 -2.279
103 T8 58 -1.302
103 T8 59 -0.326
103 T8 60 -0.326
103 T8 61 -0.814
103 T8 62 -2.279
103 T8 63 -2.767
103 T8 64 -2.767
103 T8 65 -0.814
103 T8 66 2.116
103 T8 67 4.557
103 T8 68 5.534
103 T8 69 5.046
103 T8 70 2.116
103 T8 71 -1.302
103 T8 72 -4.720
103 T8 73 -7.650
103 T8 74 -9.115
103 T8 75 -10.091
103 T8 76 -12.044
103 T8 77 -14.974
103 T8 78 -17.904
103 T8 79 -19.857
103 T8 80 -19.857
103 T8 81 -17.415
103 T8 82 -13.997
103 T8 83 -11.556
103 T8 84 -10.579
103 T8 85 -10.091
103 T8 86 -10.091
103 T8 87 -10.579
103 T8 88 -10.579
103 T8 89 -11.556
103 T8 90 -13.021
103 T8 91 -13.021
103 T8 92 -12.044
103 T8 93 -8.626
103 T8 94 -5.697
103 T8 95 -3.255
103 T8 96 -4.232
103 T8 97 -7.650
103 T8 98 -12.044
103 T8 99 -15.951
103 T8 100 -18.392
103 T8 101 -18.880
103 T8 102 -18.392
103 T8 103 -17.904
103 T8 104 -18.880
103 T8 105 -18.880
103 T8 106 -18.392
103 T8 107 -17.415
103 T8 108 -14.486
103 T8 109 -11.556
103 T8 110 -7.650
103 T8 111 -4.720
103 T8 112 -1.790
103 T8 113 1.139
103 T8 114 4.069
103 T8 115 7.975
103 T8 116 11.393
103 T8 117 14.323
103 T8 118 16.276
103 T8 119 17.253
103 T8 120 17.253
103 T8 121 16.276
103 T8 122 14.323
103 T8 123 12.858
103 T8 124 10.905
103 T8 125 8.464
103 T8 126 6.510
103 T8 127 3.581
103 T8 128 -0.326
103 T8 129 -4.720
103 T8 130 -9.115
103 T8 131 -13.021
103 T8 132 -15.951
103 T8 133 -17.904
103 T8 134 -19.368
103 T8 135 -20.345
103 T8 136 -20.345
103 T8 137 -21.322
103 T8 138 -22.298
103 T8 139 -23.763
103 T8 140 -24.740
103 T8 141 -24.251
103 T8 142 -21.810
103 T8 143 -19.368
103 T8 144 -16.927
103 T8 145 -15.951
103 T8 146 -16.927
103 T8 147 -18.392
103 T8 148 -19.857
103 T8 149 -20.345
103 T8 150 -20.345
103 T8 151 -19.857
103 T8 152 -17.904
103 T8 153 -15.462
103 T8 154 -13.509
103 T8 155 -13.509
103 T8 156 -15.462
103 T8 157 -18.880
103 T8 158 -22.298
103 T8 159 -23.275
103 T8 160 -21.810
103 T8 161 -19.368
103 T8 162 -17.415
103 T8 163 -17.904
103 T8 164 -18.392
103 T8 165 -19.857
103 T8 166 -19.857
103 T8 167 -18.880
103 T8 168 -16.927
103 T8 169 -15.462
103 T8 170 -14.486
103 T8 171 -13.509
103 T8 172 -12.533
103 T8 173 -10.579
103 T8 174 -8.138
103 T8 175 -5.697
103 T8 176 -3.743
103 T8 177 -2.767
103 T8 178 -2.767
103 T8 179 -2.767
103 T8 180 -3.743
103 T8 181 -3.743
103 T8 182 -4.232
103 T8 183 -3.743
103 T8 184 -3.255
103 T8 185 -2.279
103 T8 186 -1.790
103 T8 187 -1.790
103 T8 188 -2.279
103 T8 189 -3.743
103 T8 190 -5.697
103 T8 191 -7.161
103 T8 192 -8.626
103 T8 193 -9.115
103 T8 194 -9.115
103 T8 195 -8.138
103 T8 196 -7.161
103 T8 197 -6.185
103 T8 198 -5.208
103 T8 199 -6.185
103 T8 200 -8.138
103 T8 201 -10.579
103 T8 202 -13.021
103 T8 203 -13.997
103 T8 204 -13.509
103 T8 205 -12.533
103 T8 206 -12.044
103 T8 207 -12.533
103 T8 208 -14.486
103 T8 209 -15.462
103 T8 210 -15.951
103 T8 211 -16.927
103 T8 212 -18.392
103 T8 213 -19.857
103 T8 214 -21.810
103 T8 215 -23.275
103 T8 216 -23.275
103 T8 217 -24.251
103 T8 218 -24.251
103 T8 219 -25.228
103 T8 220 -25.228
103 T8 221 -24.251
103 T8 222 -21.810
103 T8 223 -18.392
103 T8 224 -14.486
103 T8 225 -11.556
103 T8 226 -9.115
103 T8 227 -7.650
103 T8 228 -7.161
103 T8 229 -7.161
103 T8 230 -7.650
103 T8 231 -8.138
103 T8 232 -8.138
103 T8 233 -6.673
103 T8 234 -5.208
103 T8 235 -4.720
103 T8 236 -5.208
103 T8 237 -7.161
103 T8 238 -9.603
103 T8 239 -10.579
103 T8 240 -10.091
103 T8 241 -9.115
103 T8 242 -9.115
103 T8 243 -11.068
103 T8 244 -13.997
103 T8 245 -16.927
103 T8 246 -18.392
103 T8 247 -17.415
103 T8 248 -15.462
103 T8 249 -13.021
103 T8 250 -11.556
103 T8 251 -10.091
103 T8 252 -9.115
103 T8 253 -8.138
103 T8 254 -7.161
103 T8 255 -6.185
# T7 chan 14
103 T7 0 5.310
103 T7 1 7.751
103 T7 2 9.705
103 T7 3 10.681
103 T7 4 10.681
103 T7 5 9.705
103 T7 6 9.705
103 T7 7 10.681
103 T7 8 12.634
103 T7 9 14.587
103 T7 10 15.564
103 T7 11 14.587
103 T7 12 11.169
103 T7 13 6.775
103 T7 14 2.869
103 T7 15 0.916
103 T7 16 -1.038
103 T7 17 -3.967
103 T7 18 -6.897
103 T7 19 -10.315
103 T7 20 -12.268
103 T7 21 -11.292
103 T7 22 -9.338
103 T7 23 -6.897
103 T7 24 -5.432
103 T7 25 -5.920
103 T7 26 -6.897
103 T7 27 -6.897
103 T7 28 -6.409
103 T7 29 -5.432
103 T7 30 -4.944
103 T7 31 -4.456
103 T7 32 -3.479
103 T7 33 -1.526
103 T7 34 0.427
103 T7 35 2.380
103 T7 36 3.357
103 T7 37 3.357
103 T7 38 2.869
103 T7 39 2.869
103 T7 40 2.869
103 T7 41 3.357
103 T7 42 3.845
103 T7 43 3.845
103 T7 44 3.357
103 T7 45 2.869
103 T7 46 1.404
103 T7 47 -1.526
103 T7 48 -5.432
103 T7 49 -10.315
103 T7 50 -13.733
103 T7 51 -14.221
103 T7 52 -11.292
103 T7 53 -5.920
103 T7 54 -0.549
103 T7 55 2.869
103 T7 56 3.845
103 T7 57 3.357
103 T7 58 2.869
103 T7 59 2.380
103 T7 60 2.380
103 T7 61 2.380
103 T7 62 1.892
103 T7 63 0.916
103 T7 64 0.427
103 T7 65 -0.549
103 T7 66 -0.549
103 T7 67 -1.526
103 T7 68 -2.014
103 T7 69 -3.967
103 T7 70 -5.432
103 T7 71 -7.874
103 T7 72 -10.803
103 T7 73 -14.709
103 T7 74 -18.616
103 T7 75 -21.545
103 T7 76 -23.499
103 T7 77 -24.963
103 T7 78 -25.452
103 T7 79 -25.940
103 T7 80 -24.963
103 T7 81 -22.522
103 T7 82 -18.616
103 T7 83 -14.221
103 T7 84 -12.268
103 T7 85 -12.268
103 T7 86 -14.221
103 T7 87 -15.686
103 T7 88 -15.686
103 T7 89 -13.733
103 T7 90 -11.292
103 T7 91 -10.803
103 T7 92 -12.756
103 T7 93 -15.198
103 T7 94 -16.663
103 T7 95 -16.174
103 T7 96 -14.709
103 T7 97 -14.221
103 T7 98 -15.686
103 T7 99 -18.616
103 T7 100 -21.545
103 T7 101 -23.010
103 T7 102 -22.522
103 T7 103 -22.522
103 T7 104 -23.987
103 T7 105 -25.940
103 T7 106 -28.381
103 T7 107 -28.870
103 T7 108 -26.917
103 T7 109 -23.499
103 T7 110 -19.592
103 T7 111 -15.198
103 T7 112 -10.803
103 T7 113 -5.920
103 T7 114 -1.526
103 T7 115 2.380
103 T7 116 5.310
103 T7 117 7.263
103 T7 118 9.216
103 T7 119 10.681
103 T7 120 12.146
103 T7 121 12.634
103 T7 122 11.658
103 T7 123 9.216
103 T7 124 6.775
103 T7 125 3.845
103 T7 126 0.916
103 T7 127 -3.479
103 T7 128 -7.874
103 T7 129 -12.756
103 T7 130 -16.174
103 T7 131 -19.592
103 T7 132 -22.034
103 T7 133 -24.475
103 T7 134 -26.428
103 T7 135 -27.405
103 T7 136 -27.893
103 T7 137 -27.893
103 T7 138 -27.405
103 T7 139 -26.428
103 T7 140 -24.963
103 T7 141 -23.499
103 T7 142 -21.057
103 T7 143 -19.104
103 T7 144 -17.151
103 T7 145 -15.686
103 T7 146 -13.733
103 T7 147 -11.780
103 T7 148 -9.338
103 T7 149 -7.874
103 T7 150 -7.874
103 T7 151 -8.850
103 T7 152 -10.315
103 T7 153 -11.292
103 T7 154 -11.292
103 T7 155 -10.803
103 T7 156 -10.803
103 T7 157 -11.780
103 T7 158 -13.733
103 T7 159 -15.686
103 T7 160 -16.663
103 T7 161 -15.686
103 T7 162 -14.221
103 T7 163 -12.268
103 T7 164 -11.292
103 T7 165 -11.292
103 T7 166 -12.268
103 T7 167 -13.245
103 T7 168 -13.245
103 T7 169 -12.268
103 T7 170 -9.827
103 T7 171 -7.385
103 T7 172 -5.432
103 T7 173 -4.456
103 T7 174 -4.456
103 T7 175 -5.432
103 T7 176 -5.920
103 T7 177 -5.920
103 T7 178 -4.944
103 T7 179 -3.967
103 T7 180 -3.967
103 T7 181 -4.456
103 T7 182 -5.920
103 T7 183 -7.385
103 T7 184 -7.385
103 T7 185 -6.409
103 T7 186 -5.432
103 T7 187 -5.432
103 T7 188 -5.920
103 T7 189 -7.874
103 T7 190 -9.827
103 T7 191 -11.292
103 T7 192 -11.780
103 T7 193 -11.780
103 T7 194 -10.803
103 T7 195 -10.315
103 T7 196 -9.827
103 T7 197 -9.338
103 T7 198 -8.850
103 T7 199 -8.362
103 T7 200 -7.385
103 T7 201 -6.409
103 T7 202 -5.432
103 T7 203 -4.944
103 T7 204 -5.432
103 T7 205 -6.409
103 T7 206 -6.897
103 T7 207 -6.897
103 T7 208 -6.409
103 T7 209 -6.409
103 T7 210 -8.362
103 T7 211 -11.292
103 T7 212 -15.198
103 T7 213 -18.127
103 T7 214 -19.592
103 T7 215 -19.104
103 T7 216 -17.639
103 T7 217 -17.151
103 T7 218 -17.151
103 T7 219 -18.127
103 T7 220 -19.592
103 T7 221 -20.081
103 T7 222 -20.081
103 T7 223 -19.104
103 T7 224 -18.127
103 T7 225 -17.151
103 T7 226 -16.174
103 T7 227 -14.709
103 T7 228 -13.733
103 T7 229 -12.756
103 T7 230 -11.780
103 T7 231 -10.315
103 T7 232 -7.874
103 T7 233 -5.432
103 T7 234 -3.479
103 T7 235 -2.502
103 T7 236 -3.967
103 T7 237 -5.432
103 T7 238 -6.897
103 T7 239 -6.897
103 T7 240 -6.897
103 T7 241 -6.897
103 T7 242 -8.362
103 T7 243 -9.827
103 T7 244 -11.780
103 T7 245 -12.268
103 T7 246 -11.780
103 T7 247 -11.292
103 T7 248 -11.780
103 T7 249 -12.756
103 T7 250 -14.221
103 T7 251 -14.709
103 T7 252 -13.245
103 T7 253 -10.803
103 T7 254 -8.362
103 T7 255 -5.432
# CZ chan 15
103 CZ 0 9.155
103 CZ 1 11.108
103 CZ 2 12.573
103 CZ 3 14.526
103 CZ 4 15.991
103 CZ 5 15.991
103 CZ 6 16.479
103 CZ 7 16.968
103 CZ 8 18.921
103 CZ 9 21.851
103 CZ 10 25.269
103 CZ 11 26.733
103 CZ 12 25.269
103 CZ 13 21.851
103 CZ 14 16.479
103 CZ 15 12.573
103 CZ 16 9.644
103 CZ 17 8.179
103 CZ 18 6.714
103 CZ 19 5.249
103 CZ 20 3.784
103 CZ 21 3.296
103 CZ 22 4.272
103 CZ 23 6.226
103 CZ 24 7.690
103 CZ 25 8.667
103 CZ 26 8.179
103 CZ 27 6.714
103 CZ 28 4.761
103 CZ 29 3.296
103 CZ 30 3.296
103 CZ 31 4.761
103 CZ 32 7.202
103 CZ 33 9.644
103 CZ 34 12.085
103 CZ 35 13.062
103 CZ 36 11.597
103 CZ 37 8.667
103 CZ 38 5.737
103 CZ 39 4.272
103 CZ 40 5.737
103 CZ 41 8.667
103 CZ 42 11.108
103 CZ 43 11.597
103 CZ 44 10.132
103 CZ 45 8.179
103 CZ 46 6.714
103 CZ 47 4.761
103 CZ 48 2.319
103 CZ 49 -0.122
103 CZ 50 -3.052
103 CZ 51 -2.563
103 CZ 52 0.854
103 CZ 53 7.202
103 CZ 54 13.550
103 CZ 55 17.456
103 CZ 56 18.921
103 CZ 57 18.921
103 CZ 58 18.921
103 CZ 59 17.944
103 CZ 60 16.479
103 CZ 61 13.062
103 CZ 62 9.644
103 CZ 63 7.202
103 CZ 64 7.202
103 CZ 65 9.644
103 CZ 66 13.062
103 CZ 67 15.015
103 CZ 68 15.991
103 CZ 69 15.015
103 CZ 70 12.573
103 CZ 71 9.155
103 CZ 72 4.761
103 CZ 73 0.366
103 CZ 74 -3.540
103 CZ 75 -6.958
103 CZ 76 -9.399
103 CZ 77 -10.864
103 CZ 78 -10.864
103 CZ 79 -10.376
103 CZ 80 -7.935
103 CZ 81 -4.517
103 CZ 82 0.366
103 CZ 83 4.272
103 CZ 84 7.202
103 CZ 85 6.714
103 CZ 86 3.784
103 CZ 87 -0.122
103 CZ 88 -3.052
103 CZ 89 -2.563
103 CZ 90 0.854
103 CZ 91 5.737
103 CZ 92 8.667
103 CZ 93 9.155
103 CZ 94 6.714
103 CZ 95 3.296
103 CZ 96 0.366
103 CZ 97 -2.075
103 CZ 98 -4.517
103 CZ 99 -7.935
103 CZ 100 -11.353
103 CZ 101 -14.282
103 CZ 102 -15.747
103 CZ 103 -16.724
103 CZ 104 -18.188
103 CZ 105 -19.653
103 CZ 106 -21.118
103 CZ 107 -21.118
103 CZ 108 -17.212
103 CZ 109 -10.864
103 CZ 110 -4.028
103 CZ 111 2.319
103 CZ 112 7.690
103 CZ 113 12.573
103 CZ 114 17.456
103 CZ 115 22.827
103 CZ 116 28.687
103 CZ 117 33.569
103 CZ 118 37.964
103 CZ 119 41.382
103 CZ 120 43.335
103 CZ 121 43.823
103 CZ 122 41.870
103 CZ 123 38.940
103 CZ 124 35.034
103 CZ 125 31.616
103 CZ 126 28.198
103 CZ 127 24.780
103 CZ 128 19.897
103 CZ 129 13.062
103 CZ 130 5.737
103 CZ 131 -1.587
103 CZ 132 -6.958
103 CZ 133 -9.399
103 CZ 134 -8.911
103 CZ 135 -8.423
103 CZ 136 -7.935
103 CZ 137 -8.911
103 CZ 138 -10.864
103 CZ 139 -12.329
103 CZ 140 -10.864
103 CZ 141 -6.958
103 CZ 142 -2.075
103 CZ 143 0.854
103 CZ 144 0.854
103 CZ 145 -1.587
103 CZ 146 -3.540
103 CZ 147 -4.517
103 CZ 148 -3.540
103 CZ 149 -3.540
103 CZ 150 -5.005
103 CZ 151 -7.935
103 CZ 152 -8.911
103 CZ 153 -6.470
103 CZ 154 -1.587
103 CZ 155 2.319
103 CZ 156 2.319
103 CZ 157 -1.587
103 CZ 158 -6.958
103 CZ 159 -10.864
103 CZ 160 -11.353
103 CZ 161 -9.399
103 CZ 162 -6.958
103 CZ 163 -5.493
103 CZ 164 -5.005
103 CZ 165 -4.517
103 CZ 166 -4.028
103 CZ 167 -2.563
103 CZ 168 -2.075
103 CZ 169 -1.099
103 CZ 170 0.366
103 CZ 171 2.319
103 CZ 172 4.761
103 CZ 173 6.226
103 CZ 174 6.226
103 CZ 175 5.249
103 CZ 176 5.249
103 CZ 177 6.714
103 CZ 178 9.155
103 CZ 179 11.108
103 CZ 180 11.597
103 CZ 181 9.644
103 CZ 182 6.714
103 CZ 183 4.761
103 CZ 184 5.249
103 CZ 185 6.714
103 CZ 186 8.179
103 CZ 187 7.690
103 CZ 188 5.737
103 CZ 189 2.319
103 CZ 190 -0.122
103 CZ 191 -1.587
103 CZ 192 -2.563
103 CZ 193 -3.540
103 CZ 194 -5.005
103 CZ 195 -5.981
103 CZ 196 -5.981
103 CZ 197 -5.981
103 CZ 198 -6.470
103 CZ 199 -8.423
103 CZ 200 -13.306
103 CZ 201 -19.653
103 CZ 202 -26.489
103 CZ 203 -32.837
103 CZ 204 -38.208
103 CZ 205 -42.603
103 CZ 206 -46.509
103 CZ 207 -48.462
103 CZ 208 -49.438
103 CZ 209 -50.903
103 CZ 210 -54.321
103 CZ 211 -60.669
103 CZ 212 -67.993
103 CZ 213 -73.364
103 CZ 214 -73.853
103 CZ 215 -69.946
103 CZ 216 -63.599
103 CZ 217 -59.204
103 CZ 218 -58.228
103 CZ 219 -60.669
103 CZ 220 -63.110
103 CZ 221 -62.622
103 CZ 222 -58.228
103 CZ 223 -52.368
103 CZ 224 -46.021
103 CZ 225 -41.626
103 CZ 226 -39.185
103 CZ 227 -37.720
103 CZ 228 -36.743
103 CZ 229 -35.767
103 CZ 230 -34.302
103 CZ 231 -32.837
103 CZ 232 -30.884
103 CZ 233 -28.442
103 CZ 234 -26.001
103 CZ 235 -24.536
103 CZ 236 -24.048
103 CZ 237 -24.048
103 CZ 238 -23.560
103 CZ 239 -22.583
103 CZ 240 -21.606
103 CZ 241 -21.606
103 CZ 242 -22.583
103 CZ 243 -24.536
103 CZ 244 -26.001
103 CZ 245 -24.536
103 CZ 246 -22.583
103 CZ 247 -20.142
103 CZ 248 -19.165
103 CZ 249 -20.142
103 CZ 250 -20.630
103 CZ 251 -19.653
103 CZ 252 -17.212
103 CZ 253 -13.794
103 CZ 254 -10.864
103 CZ 255 -8.911
# C3 chan 16
103 C3 0 6.521
103 C3 1 8.474
103 C3 2 9.939
103 C3 3 9.939
103 C3 4 8.962
103 C3 5 7.497
103 C3 6 6.521
103 C3 7 6.521
103 C3 8 7.009
103 C3 9 7.009
103 C3 10 6.032
103 C3 11 4.567
103 C3 12 3.103
103 C3 13 1.638
103 C3 14 0.173
103 C3 15 -0.315
103 C3 16 -1.292
103 C3 17 -2.268
103 C3 18 -3.733
103 C3 19 -4.710
103 C3 20 -5.686
103 C3 21 -5.686
103 C3 22 -5.198
103 C3 23 -4.222
103 C3 24 -4.222
103 C3 25 -3.733
103 C3 26 -4.222
103 C3 27 -3.733
103 C3 28 -2.757
103 C3 29 -1.780
103 C3 30 -0.315
103 C3 31 0.173
103 C3 32 0.661
103 C3 33 1.149
103 C3 34 2.126
103 C3 35 3.591
103 C3 36 4.567
103 C3 37 4.567
103 C3 38 3.591
103 C3 39 2.126
103 C3 40 1.149
103 C3 41 1.149
103 C3 42 2.614
103 C3 43 4.567
103 C3 44 6.032
103 C3 45 6.521
103 C3 46 5.544
103 C3 47 4.079
103 C3 48 2.126
103 C3 49 -0.315
103 C3 50 -1.780
103 C3 51 -2.268
103 C3 52 -1.780
103 C3 53 0.173
103 C3 54 2.614
103 C3 55 4.079
103 C3 56 4.079
103 C3 57 3.591
103 C3 58 2.614
103 C3 59 2.126
103 C3 60 2.614
103 C3 61 3.103
103 C3 62 4.079
103 C3 63 4.567
103 C3 64 4.079
103 C3 65 4.079
103 C3 66 3.591
103 C3 67 2.614
103 C3 68 2.126
103 C3 69 1.149
103 C3 70 0.661
103 C3 71 0.173
103 C3 72 -1.292
103 C3 73 -2.757
103 C3 74 -4.222
103 C3 75 -5.686
103 C3 76 -7.151
103 C3 77 -7.640
103 C3 78 -8.128
103 C3 79 -8.616
103 C3 80 -8.616
103 C3 81 -8.128
103 C3 82 -6.663
103 C3 83 -4.710
103 C3 84 -3.733
103 C3 85 -3.245
103 C3 86 -3.733
103 C3 87 -3.733
103 C3 88 -3.733
103 C3 89 -3.245
103 C3 90 -3.245
103 C3 91 -3.733
103 C3 92 -4.710
103 C3 93 -5.198
103 C3 94 -4.710
103 C3 95 -3.733
103 C3 96 -1.780
103 C3 97 -1.292
103 C3 98 -1.780
103 C3 99 -3.245
103 C3 100 -5.198
103 C3 101 -5.686
103 C3 102 -5.198
103 C3 103 -4.710
103 C3 104 -3.733
103 C3 105 -3.733
103 C3 106 -4.222
103 C3 107 -5.198
103 C3 108 -5.686
103 C3 109 -5.198
103 C3 110 -3.733
103 C3 111 -2.757
103 C3 112 -2.268
103 C3 113 -1.292
103 C3 114 -0.315
103 C3 115 1.149
103 C3 116 3.103
103 C3 117 5.056
103 C3 118 5.544
103 C3 119 5.544
103 C3 120 5.056
103 C3 121 4.567
103 C3 122 4.567
103 C3 123 5.056
103 C3 124 5.056
103 C3 125 4.567
103 C3 126 4.079
103 C3 127 2.614
103 C3 128 1.149
103 C3 129 -0.315
103 C3 130 -1.780
103 C3 131 -3.733
103 C3 132 -5.686
103 C3 133 -6.663
103 C3 134 -7.151
103 C3 135 -7.640
103 C3 136 -7.640
103 C3 137 -7.640
103 C3 138 -8.128
103 C3 139 -7.640
103 C3 140 -6.663
103 C3 141 -4.710
103 C3 142 -3.733
103 C3 143 -2.757
103 C3 144 -2.757
103 C3 145 -2.757
103 C3 146 -2.268
103 C3 147 -1.780
103 C3 148 -0.804
103 C3 149 0.173
103 C3 150 0.173
103 C3 151 0.173
103 C3 152 0.173
103 C3 153 0.173
103 C3 154 0.173
103 C3 155 0.173
103 C3 156 0.173
103 C3 157 -1.292
103 C3 158 -2.268
103 C3 159 -3.245
103 C3 160 -4.222
103 C3 161 -3.733
103 C3 162 -2.757
103 C3 163 -1.780
103 C3 164 -0.315
103 C3 165 0.661
103 C3 166 0.661
103 C3 167 0.661
103 C3 168 0.661
103 C3 169 1.149
103 C3 170 1.638
103 C3 171 2.614
103 C3 172 3.103
103 C3 173 3.591
103 C3 174 3.591
103 C3 175 3.103
103 C3 176 2.614
103 C3 177 2.614
103 C3 178 3.103
103 C3 179 3.103
103 C3 180 3.591
103 C3 181 3.103
103 C3 182 2.126
103 C3 183 1.149
103 C3 184 0.661
103 C3 185 0.661
103 C3 186 1.149
103 C3 187 1.149
103 C3 188 1.149
103 C3 189 0.173
103 C3 190 -0.315
103 C3 191 -1.292
103 C3 192 -1.292
103 C3 193 -1.292
103 C3 194 -1.292
103 C3 195 -1.292
103 C3 196 -0.804
103 C3 197 -0.315
103 C3 198 -0.315
103 C3 199 -0.315
103 C3 200 -0.315
103 C3 201 -0.315
103 C3 202 1.149
103 C3 203 2.614
103 C3 204 4.079
103 C3 205 4.567
103 C3 206 3.591
103 C3 207 2.614
103 C3 208 1.638
103 C3 209 1.638
103 C3 210 1.149
103 C3 211 0.173
103 C3 212 -1.780
103 C3 213 -2.757
103 C3 214 -3.733
103 C3 215 -3.245
103 C3 216 -2.757
103 C3 217 -2.757
103 C3 218 -3.245
103 C3 219 -4.222
103 C3 220 -5.198
103 C3 221 -4.710
103 C3 222 -4.222
103 C3 223 -2.757
103 C3 224 -1.292
103 C3 225 0.173
103 C3 226 0.661
103 C3 227 0.661
103 C3 228 0.661
103 C3 229 1.149
103 C3 230 2.126
103 C3 231 4.079
103 C3 232 6.521
103 C3 233 7.985
103 C3 234 8.474
103 C3 235 7.497
103 C3 236 6.032
103 C3 237 4.079
103 C3 238 3.591
103 C3 239 2.614
103 C3 240 1.638
103 C3 241 0.661
103 C3 242 -0.315
103 C3 243 -1.780
103 C3 244 -1.780
103 C3 245 -1.780
103 C3 246 -1.780
103 C3 247 -2.268
103 C3 248 -2.757
103 C3 249 -3.733
103 C3 250 -3.733
103 C3 251 -3.733
103 C3 252 -3.245
103 C3 253 -2.268
103 C3 254 -1.292
103 C3 255 -0.315
# C4 chan 17
103 C4 0 2.930
103 C4 1 3.906
103 C4 2 4.395
103 C4 3 4.883
103 C4 4 5.371
103 C4 5 4.883
103 C4 6 4.395
103 C4 7 4.395
103 C4 8 5.371
103 C4 9 6.836
103 C4 10 7.812
103 C4 11 8.789
103 C4 12 8.789
103 C4 13 7.812
103 C4 14 6.348
103 C4 15 4.395
103 C4 16 2.441
103 C4 17 0.977
103 C4 18 0.977
103 C4 19 1.465
103 C4 20 2.441
103 C4 21 3.418
103 C4 22 3.418
103 C4 23 2.930
103 C4 24 2.441
103 C4 25 1.465
103 C4 26 0.488
103 C4 27 0.000
103 C4 28 -0.977
103 C4 29 -1.953
103 C4 30 -2.441
103 C4 31 -1.465
103 C4 32 0.000
103 C4 33 1.465
103 C4 34 2.441
103 C4 35 1.465
103 C4 36 -0.977
103 C4 37 -3.418
103 C4 38 -4.395
103 C4 39 -3.906
103 C4 40 -1.465
103 C4 41 0.977
103 C4 42 2.441
103 C4 43 2.441
103 C4 44 1.465
103 C4 45 -0.977
103 C4 46 -3.418
103 C4 47 -5.371
103 C4 48 -7.324
103 C4 49 -8.789
103 C4 50 -10.254
103 C4 51 -10.742
103 C4 52 -10.254
103 C4 53 -10.254
103 C4 54 -10.254
103 C4 55 -9.766
103 C4 56 -9.277
103 C4 57 -7.324
103 C4 58 -4.395
103 C4 59 -1.953
103 C4 60 0.000
103 C4 61 0.977
103 C4 62 0.977
103 C4 63 0.977
103 C4 64 1.465
103 C4 65 2.930
103 C4 66 4.395
103 C4 67 5.859
103 C4 68 5.859
103 C4 69 5.371
103 C4 70 4.395
103 C4 71 3.418
103 C4 72 2.441
103 C4 73 2.441
103 C4 74 3.418
103 C4 75 2.441
103 C4 76 0.000
103 C4 77 -3.906
103 C4 78 -7.812
103 C4 79 -10.254
103 C4 80 -10.742
103 C4 81 -9.277
103 C4 82 -7.812
103 C4 83 -6.348
103 C4 84 -5.371
103 C4 85 -4.395
103 C4 86 -2.441
103 C4 87 -0.488
103 C4 88 1.953
103 C4 89 2.930
103 C4 90 2.930
103 C4 91 2.441
103 C4 92 1.953
103 C4 93 2.930
103 C4 94 4.395
103 C4 95 5.371
103 C4 96 5.859
103 C4 97 4.883
103 C4 98 3.418
103 C4 99 1.953
103 C4 100 0.977
103 C4 101 0.000
103 C4 102 -0.488
103 C4 103 -1.465
103 C4 104 -2.441
103 C4 105 -2.930
103 C4 106 -2.441
103 C4 107 -1.953
103 C4 108 -0.977
103 C4 109 0.488
103 C4 110 1.465
103 C4 111 2.441
103 C4 112 3.418
103 C4 113 4.883
103 C4 114 6.348
103 C4 115 7.812
103 C4 116 8.789
103 C4 117 9.277
103 C4 118 9.766
103 C4 119 9.766
103 C4 120 9.277
103 C4 121 9.277
103 C4 122 8.789
103 C4 123 8.789
103 C4 124 7.812
103 C4 125 7.324
103 C4 126 7.324
103 C4 127 6.348
103 C4 128 4.883
103 C4 129 3.906
103 C4 130 2.441
103 C4 131 0.977
103 C4 132 0.488
103 C4 133 -0.488
103 C4 134 -0.488
103 C4 135 -0.488
103 C4 136 -0.488
103 C4 137 -0.488
103 C4 138 -0.488
103 C4 139 -0.488
103 C4 140 -0.488
103 C4 141 0.000
103 C4 142 0.977
103 C4 143 1.953
103 C4 144 3.418
103 C4 145 4.395
103 C4 146 4.883
103 C4 147 4.395
103 C4 148 3.418
103 C4 149 2.441
103 C4 150 1.465
103 C4 151 0.977
103 C4 152 0.977
103 C4 153 1.465
103 C4 154 1.465
103 C4 155 1.465
103 C4 156 1.465
103 C4 157 1.465
103 C4 158 2.441
103 C4 159 3.418
103 C4 160 3.906
103 C4 161 3.906
103 C4 162 2.930
103 C4 163 1.465
103 C4 164 -0.488
103 C4 165 -1.465
103 C4 166 -1.465
103 C4 167 -0.977
103 C4 168 0.000
103 C4 169 0.977
103 C4 170 1.465
103 C4 171 1.465
103 C4 172 0.977
103 C4 173 0.977
103 C4 174 1.953
103 C4 175 2.930
103 C4 176 4.395
103 C4 177 4.883
103 C4 178 4.883
103 C4 179 4.395
103 C4 180 4.395
103 C4 181 5.371
103 C4 182 6.348
103 C4 183 7.324
103 C4 184 7.324
103 C4 185 6.836
103 C4 186 5.859
103 C4 187 5.859
103 C4 188 5.859
103 C4 189 5.371
103 C4 190 3.906
103 C4 191 1.953
103 C4 192 0.000
103 C4 193 -0.488
103 C4 194 -0.488
103 C4 195 0.488
103 C4 196 1.465
103 C4 197 1.953
103 C4 198 2.441
103 C4 199 2.441
103 C4 200 2.441
103 C4 201 2.441
103 C4 202 2.441
103 C4 203 1.465
103 C4 204 0.977
103 C4 205 0.488
103 C4 206 0.000
103 C4 207 -0.488
103 C4 208 -0.488
103 C4 209 -0.488
103 C4 210 0.000
103 C4 211 0.488
103 C4 212 0.977
103 C4 213 0.488
103 C4 214 -0.488
103 C4 215 -1.465
103 C4 216 -2.441
103 C4 217 -3.418
103 C4 218 -3.418
103 C4 219 -3.906
103 C4 220 -3.906
103 C4 221 -3.418
103 C4 222 -3.418
103 C4 223 -2.930
103 C4 224 -2.441
103 C4 225 -2.441
103 C4 226 -1.953
103 C4 227 -0.977
103 C4 228 -0.488
103 C4 229 -0.488
103 C4 230 -1.465
103 C4 231 -2.441
103 C4 232 -1.953
103 C4 233 0.000
103 C4 234 1.953
103 C4 235 3.418
103 C4 236 2.930
103 C4 237 1.465
103 C4 238 0.000
103 C4 239 0.000
103 C4 240 0.977
103 C4 241 2.930
103 C4 242 3.418
103 C4 243 2.930
103 C4 244 0.977
103 C4 245 -0.977
103 C4 246 -2.441
103 C4 247 -2.930
103 C4 248 -2.441
103 C4 249 -2.441
103 C4 250 -1.953
103 C4 251 -1.465
103 C4 252 -0.488
103 C4 253 0.000
103 C4 254 0.977
103 C4 255 1.465
# CP5 chan 18
103 CP5 0 7.812
103 CP5 1 11.719
103 CP5 2 14.160
103 CP5 3 14.648
103 CP5 4 14.648
103 CP5 5 14.648
103 CP5 6 15.137
103 CP5 7 17.090
103 CP5 8 19.043
103 CP5 9 20.508
103 CP5 10 20.508
103 CP5 11 19.043
103 CP5 12 15.625
103 CP5 13 11.719
103 CP5 14 8.301
103 CP5 15 5.859
103 CP5 16 4.883
103 CP5 17 4.395
103 CP5 18 2.930
103 CP5 19 0.000
103 CP5 20 -1.953
103 CP5 21 -2.930
103 CP5 22 -2.441
103 CP5 23 -1.465
103 CP5 24 -0.977
103 CP5 25 -1.465
103 CP5 26 -1.953
103 CP5 27 -1.953
103 CP5 28 -0.488
103 CP5 29 1.465
103 CP5 30 2.930
103 CP5 31 3.418
103 CP5 32 3.906
103 CP5 33 4.883
103 CP5 34 6.836
103 CP5 35 8.789
103 CP5 36 10.742
103 CP5 37 11.230
103 CP5 38 10.742
103 CP5 39 9.766
103 CP5 40 9.277
103 CP5 41 8.789
103 CP5 42 8.789
103 CP5 43 8.301
103 CP5 44 8.789
103 CP5 45 8.789
103 CP5 46 8.301
103 CP5 47 6.836
103 CP5 48 3.906
103 CP5 49 0.000
103 CP5 50 -2.441
103 CP5 51 -2.441
103 CP5 52 0.000
103 CP5 53 3.906
103 CP5 54 7.812
103 CP5 55 9.277
103 CP5 56 9.766
103 CP5 57 8.301
103 CP5 58 6.348
103 CP5 59 4.883
103 CP5 60 3.906
103 CP5 61 4.395
103 CP5 62 5.371
103 CP5 63 6.836
103 CP5 64 8.301
103 CP5 65 9.277
103 CP5 66 9.277
103 CP5 67 8.789
103 CP5 68 7.812
103 CP5 69 6.836
103 CP5 70 5.859
103 CP5 71 3.906
103 CP5 72 1.465
103 CP5 73 -0.977
103 CP5 74 -3.418
103 CP5 75 -4.883
103 CP5 76 -5.859
103 CP5 77 -6.348
103 CP5 78 -7.812
103 CP5 79 -8.789
103 CP5 80 -9.766
103 CP5 81 -9.277
103 CP5 82 -7.324
103 CP5 83 -5.371
103 CP5 84 -4.395
103 CP5 85 -4.883
103 CP5 86 -5.371
103 CP5 87 -5.371
103 CP5 88 -3.418
103 CP5 89 -0.977
103 CP5 90 0.488
103 CP5 91 0.000
103 CP5 92 -2.930
103 CP5 93 -5.371
103 CP5 94 -5.859
103 CP5 95 -3.418
103 CP5 96 0.488
103 CP5 97 3.418
103 CP5 98 3.418
103 CP5 99 0.000
103 CP5 100 -3.418
103 CP5 101 -5.859
103 CP5 102 -5.371
103 CP5 103 -3.906
103 CP5 104 -2.930
103 CP5 105 -3.906
103 CP5 106 -5.859
103 CP5 107 -8.301
103 CP5 108 -8.789
103 CP5 109 -7.812
103 CP5 110 -5.859
103 CP5 111 -3.906
103 CP5 112 -1.953
103 CP5 113 0.000
103 CP5 114 2.441
103 CP5 115 5.371
103 CP5 116 8.301
103 CP5 117 10.742
103 CP5 118 12.695
103 CP5 119 13.184
103 CP5 120 13.672
103 CP5 121 13.672
103 CP5 122 13.184
103 CP5 123 12.695
103 CP5 124 12.207
103 CP5 125 11.230
103 CP5 126 9.277
103 CP5 127 5.859
103 CP5 128 1.953
103 CP5 129 -1.953
103 CP5 130 -4.395
103 CP5 131 -6.348
103 CP5 132 -7.812
103 CP5 133 -9.277
103 CP5 134 -10.742
103 CP5 135 -12.695
103 CP5 136 -13.672
103 CP5 137 -13.672
103 CP5 138 -13.184
103 CP5 139 -12.695
103 CP5 140 -12.695
103 CP5 141 -12.207
103 CP5 142 -10.742
103 CP5 143 -8.789
103 CP5 144 -5.859
103 CP5 145 -3.418
103 CP5 146 -1.953
103 CP5 147 -1.465
103 CP5 148 -1.465
103 CP5 149 -0.488
103 CP5 150 0.977
103 CP5 151 1.465
103 CP5 152 0.488
103 CP5 153 -1.953
103 CP5 154 -3.418
103 CP5 155 -3.906
103 CP5 156 -1.953
103 CP5 157 0.000
103 CP5 158 1.465
103 CP5 159 0.977
103 CP5 160 -0.977
103 CP5 161 -2.441
103 CP5 162 -2.441
103 CP5 163 -1.465
103 CP5 164 0.488
103 CP5 165 0.977
103 CP5 166 0.488
103 CP5 167 -0.977
103 CP5 168 -1.465
103 CP5 169 -0.977
103 CP5 170 1.465
103 CP5 171 3.906
103 CP5 172 5.859
103 CP5 173 6.348
103 CP5 174 6.836
103 CP5 175 6.348
103 CP5 176 6.348
103 CP5 177 5.859
103 CP5 178 5.859
103 CP5 179 5.859
103 CP5 180 5.859
103 CP5 181 5.371
103 CP5 182 4.883
103 CP5 183 4.395
103 CP5 184 3.906
103 CP5 185 4.395
103 CP5 186 4.883
103 CP5 187 5.371
103 CP5 188 4.883
103 CP5 189 2.930
103 CP5 190 0.488
103 CP5 191 -1.953
103 CP5 192 -3.418
103 CP5 193 -3.418
103 CP5 194 -1.953
103 CP5 195 -1.465
103 CP5 196 -0.977
103 CP5 197 -1.465
103 CP5 198 -1.465
103 CP5 199 -1.465
103 CP5 200 -0.488
103 CP5 201 0.977
103 CP5 202 2.441
103 CP5 203 3.418
103 CP5 204 3.418
103 CP5 205 3.906
103 CP5 206 3.906
103 CP5 207 3.418
103 CP5 208 1.953
103 CP5 209 -0.488
103 CP5 210 -2.930
103 CP5 211 -4.883
103 CP5 212 -5.859
103 CP5 213 -5.859
103 CP5 214 -6.348
103 CP5 215 -7.324
103 CP5 216 -7.812
103 CP5 217 -8.301
103 CP5 218 -8.301
103 CP5 219 -8.301
103 CP5 220 -9.277
103 CP5 221 -10.254
103 CP5 222 -10.254
103 CP5 223 -8.301
103 CP5 224 -4.883
103 CP5 225 -0.977
103 CP5 226 0.977
103 CP5 227 1.465
103 CP5 228 0.488
103 CP5 229 0.000
103 CP5 230 0.977
103 CP5 231 3.418
103 CP5 232 6.836
103 CP5 233 9.766
103 CP5 234 10.742
103 CP5 235 9.766
103 CP5 236 7.324
103 CP5 237 4.395
103 CP5 238 2.930
103 CP5 239 2.441
103 CP5 240 2.930
103 CP5 241 3.418
103 CP5 242 3.906
103 CP5 243 2.930
103 CP5 244 1.465
103 CP5 245 0.000
103 CP5 246 -0.977
103 CP5 247 -1.953
103 CP5 248 -1.953
103 CP5 249 -3.418
103 CP5 250 -4.883
103 CP5 251 -5.371
103 CP5 252 -4.395
103 CP5 253 -1.953
103 CP5 254 0.977
103 CP5 255 4.395
# CP6 chan 19
103 CP6 0 0.498
103 CP6 1 2.452
103 CP6 2 4.893
103 CP6 3 6.846
103 CP6 4 9.288
103 CP6 5 10.264
103 CP6 6 11.241
103 CP6 7 11.729
103 CP6 8 12.705
103 CP6 9 14.170
103 CP6 10 15.635
103 CP6 11 16.612
103 CP6 12 16.612
103 CP6 13 14.659
103 CP6 14 11.729
103 CP6 15 8.799
103 CP6 16 6.358
103 CP6 17 4.893
103 CP6 18 4.893
103 CP6 19 4.893
103 CP6 20 4.893
103 CP6 21 4.893
103 CP6 22 4.893
103 CP6 23 4.405
103 CP6 24 4.405
103 CP6 25 4.893
103 CP6 26 4.893
103 CP6 27 4.405
103 CP6 28 2.940
103 CP6 29 1.475
103 CP6 30 0.498
103 CP6 31 0.987
103 CP6 32 3.428
103 CP6 33 6.358
103 CP6 34 8.799
103 CP6 35 8.799
103 CP6 36 6.846
103 CP6 37 4.405
103 CP6 38 2.940
103 CP6 39 2.940
103 CP6 40 4.893
103 CP6 41 6.358
103 CP6 42 7.334
103 CP6 43 6.846
103 CP6 44 5.381
103 CP6 45 2.940
103 CP6 46 0.498
103 CP6 47 -1.943
103 CP6 48 -4.384
103 CP6 49 -5.849
103 CP6 50 -5.361
103 CP6 51 -3.896
103 CP6 52 -1.943
103 CP6 53 -0.478
103 CP6 54 0.010
103 CP6 55 0.010
103 CP6 56 0.498
103 CP6 57 2.940
103 CP6 58 5.381
103 CP6 59 7.334
103 CP6 60 7.823
103 CP6 61 6.846
103 CP6 62 5.381
103 CP6 63 5.870
103 CP6 64 7.823
103 CP6 65 10.752
103 CP6 66 13.194
103 CP6 67 14.170
103 CP6 68 13.194
103 CP6 69 11.241
103 CP6 70 9.776
103 CP6 71 9.288
103 CP6 72 8.799
103 CP6 73 8.799
103 CP6 74 7.334
103 CP6 75 5.381
103 CP6 76 2.940
103 CP6 77 0.010
103 CP6 78 -2.920
103 CP6 79 -4.384
103 CP6 80 -4.873
103 CP6 81 -4.873
103 CP6 82 -3.896
103 CP6 83 -2.920
103 CP6 84 -2.920
103 CP6 85 -3.408
103 CP6 86 -2.920
103 CP6 87 -2.431
103 CP6 88 -1.943
103 CP6 89 -1.455
103 CP6 90 -1.943
103 CP6 91 -2.431
103 CP6 92 -1.943
103 CP6 93 0.010
103 CP6 94 3.428
103 CP6 95 5.381
103 CP6 96 5.381
103 CP6 97 2.940
103 CP6 98 -0.478
103 CP6 99 -2.920
103 CP6 100 -3.408
103 CP6 101 -2.431
103 CP6 102 -1.943
103 CP6 103 -2.431
103 CP6 104 -3.896
103 CP6 105 -4.873
103 CP6 106 -4.873
103 CP6 107 -3.408
103 CP6 108 -0.966
103 CP6 109 0.987
103 CP6 110 2.940
103 CP6 111 3.916
103 CP6 112 4.893
103 CP6 113 5.870
103 CP6 114 7.334
103 CP6 115 8.311
103 CP6 116 9.776
103 CP6 117 11.729
103 CP6 118 14.170
103 CP6 119 15.635
103 CP6 120 16.123
103 CP6 121 14.659
103 CP6 122 13.194
103 CP6 123 12.217
103 CP6 124 12.217
103 CP6 125 12.217
103 CP6 126 11.241
103 CP6 127 8.799
103 CP6 128 5.381
103 CP6 129 2.452
103 CP6 130 0.498
103 CP6 131 0.010
103 CP6 132 -0.966
103 CP6 133 -1.943
103 CP6 134 -4.384
103 CP6 135 -6.826
103 CP6 136 -8.291
103 CP6 137 -8.779
103 CP6 138 -9.267
103 CP6 139 -9.755
103 CP6 140 -11.220
103 CP6 141 -12.197
103 CP6 142 -10.732
103 CP6 143 -8.291
103 CP6 144 -4.873
103 CP6 145 -2.920
103 CP6 146 -2.431
103 CP6 147 -4.384
103 CP6 148 -6.826
103 CP6 149 -8.291
103 CP6 150 -8.291
103 CP6 151 -6.826
103 CP6 152 -5.361
103 CP6 153 -4.873
103 CP6 154 -5.361
103 CP6 155 -6.337
103 CP6 156 -6.826
103 CP6 157 -6.826
103 CP6 158 -5.849
103 CP6 159 -5.361
103 CP6 160 -4.873
103 CP6 161 -5.361
103 CP6 162 -6.337
103 CP6 163 -7.314
103 CP6 164 -8.779
103 CP6 165 -9.267
103 CP6 166 -9.267
103 CP6 167 -7.802
103 CP6 168 -6.337
103 CP6 169 -4.873
103 CP6 170 -4.384
103 CP6 171 -4.873
103 CP6 172 -5.361
103 CP6 173 -4.384
103 CP6 174 -2.920
103 CP6 175 -0.478
103 CP6 176 1.475
103 CP6 177 1.963
103 CP6 178 1.475
103 CP6 179 0.498
103 CP6 180 0.498
103 CP6 181 1.963
103 CP6 182 3.916
103 CP6 183 4.893
103 CP6 184 4.893
103 CP6 185 4.893
103 CP6 186 3.916
103 CP6 187 3.428
103 CP6 188 2.940
103 CP6 189 1.475
103 CP6 190 -0.966
103 CP6 191 -4.384
103 CP6 192 -6.826
103 CP6 193 -7.802
103 CP6 194 -6.337
103 CP6 195 -4.384
103 CP6 196 -2.431
103 CP6 197 -1.943
103 CP6 198 -2.431
103 CP6 199 -3.408
103 CP6 200 -4.384
103 CP6 201 -4.873
103 CP6 202 -5.361
103 CP6 203 -5.849
103 CP6 204 -5.361
103 CP6 205 -5.361
103 CP6 206 -5.361
103 CP6 207 -6.826
103 CP6 208 -7.802
103 CP6 209 -9.267
103 CP6 210 -9.267
103 CP6 211 -8.779
103 CP6 212 -8.291
103 CP6 213 -8.291
103 CP6 214 -9.755
103 CP6 215 -11.220
103 CP6 216 -12.685
103 CP6 217 -13.662
103 CP6 218 -13.173
103 CP6 219 -12.685
103 CP6 220 -12.197
103 CP6 221 -11.709
103 CP6 222 -11.709
103 CP6 223 -10.732
103 CP6 224 -9.267
103 CP6 225 -7.314
103 CP6 226 -5.849
103 CP6 227 -4.873
103 CP6 228 -4.873
103 CP6 229 -5.361
103 CP6 230 -5.361
103 CP6 231 -4.873
103 CP6 232 -2.431
103 CP6 233 0.498
103 CP6 234 3.428
103 CP6 235 4.893
103 CP6 236 3.916
103 CP6 237 1.475
103 CP6 238 -0.966
103 CP6 239 -1.455
103 CP6 240 0.010
103 CP6 241 1.963
103 CP6 242 2.452
103 CP6 243 0.987
103 CP6 244 -1.943
103 CP6 245 -4.873
103 CP6 246 -6.826
103 CP6 247 -7.802
103 CP6 248 -7.314
103 CP6 249 -6.337
103 CP6 250 -5.361
103 CP6 251 -4.873
103 CP6 252 -4.384
103 CP6 253 -3.896
103 CP6 254 -2.431
103 CP6 255 -1.455
# CP1 chan 20
103 CP1 0 -0.366
103 CP1 1 1.099
103 CP1 2 1.587
103 CP1 3 0.610
103 CP1 4 0.122
103 CP1 5 -0.366
103 CP1 6 0.122
103 CP1 7 1.587
103 CP1 8 3.052
103 CP1 9 3.540
103 CP1 10 3.540
103 CP1 11 2.075
103 CP1 12 0.610
103 CP1 13 -0.854
103 CP1 14 -2.319
103 CP1 15 -3.296
103 CP1 16 -3.296
103 CP1 17 -2.808
103 CP1 18 -2.319
103 CP1 19 -1.831
103 CP1 20 -2.319
103 CP1 21 -2.808
103 CP1 22 -3.784
103 CP1 23 -4.761
103 CP1 24 -5.249
103 CP1 25 -5.249
103 CP1 26 -5.249
103 CP1 27 -4.272
103 CP1 28 -3.784
103 CP1 29 -2.808
103 CP1 30 -2.319
103 CP1 31 -2.319
103 CP1 32 -1.831
103 CP1 33 -1.831
103 CP1 34 -1.343
103 CP1 35 -0.854
103 CP1 36 -0.366
103 CP1 37 0.122
103 CP1 38 0.122
103 CP1 39 0.122
103 CP1 40 -0.366
103 CP1 41 -0.854
103 CP1 42 -1.343
103 CP1 43 -0.854
103 CP1 44 0.122
103 CP1 45 1.587
103 CP1 46 1.587
103 CP1 47 0.610
103 CP1 48 -0.854
103 CP1 49 -2.319
103 CP1 50 -2.808
103 CP1 51 -1.831
103 CP1 52 -0.366
103 CP1 53 1.099
103 CP1 54 1.587
103 CP1 55 1.099
103 CP1 56 -0.854
103 CP1 57 -3.296
103 CP1 58 -6.226
103 CP1 59 -8.179
103 CP1 60 -9.155
103 CP1 61 -8.667
103 CP1 62 -6.714
103 CP1 63 -4.272
103 CP1 64 -2.319
103 CP1 65 -0.854
103 CP1 66 -0.854
103 CP1 67 -1.343
103 CP1 68 -1.343
103 CP1 69 -0.854
103 CP1 70 -0.854
103 CP1 71 -0.854
103 CP1 72 -0.854
103 CP1 73 -0.854
103 CP1 74 -1.343
103 CP1 75 -1.343
103 CP1 76 -1.831
103 CP1 77 -2.808
103 CP1 78 -4.761
103 CP1 79 -6.714
103 CP1 80 -9.155
103 CP1 81 -11.108
103 CP1 82 -12.085
103 CP1 83 -12.573
103 CP1 84 -12.573
103 CP1 85 -12.085
103 CP1 86 -10.620
103 CP1 87 -8.667
103 CP1 88 -6.714
103 CP1 89 -5.249
103 CP1 90 -4.761
103 CP1 91 -5.737
103 CP1 92 -7.690
103 CP1 93 -9.155
103 CP1 94 -9.155
103 CP1 95 -7.202
103 CP1 96 -4.761
103 CP1 97 -3.296
103 CP1 98 -3.296
103 CP1 99 -4.272
103 CP1 100 -5.249
103 CP1 101 -5.249
103 CP1 102 -3.784
103 CP1 103 -2.808
103 CP1 104 -2.319
103 CP1 105 -3.296
103 CP1 106 -4.761
103 CP1 107 -6.226
103 CP1 108 -6.714
103 CP1 109 -6.714
103 CP1 110 -6.714
103 CP1 111 -7.202
103 CP1 112 -8.179
103 CP1 113 -8.667
103 CP1 114 -8.667
103 CP1 115 -7.690
103 CP1 116 -5.737
103 CP1 117 -3.296
103 CP1 118 -1.831
103 CP1 119 -1.831
103 CP1 120 -2.808
103 CP1 121 -3.296
103 CP1 122 -3.784
103 CP1 123 -2.808
103 CP1 124 -1.831
103 CP1 125 -1.343
103 CP1 126 -1.343
103 CP1 127 -2.808
103 CP1 128 -4.761
103 CP1 129 -5.249
103 CP1 130 -5.249
103 CP1 131 -4.761
103 CP1 132 -4.272
103 CP1 133 -4.761
103 CP1 134 -6.226
103 CP1 135 -8.179
103 CP1 136 -9.155
103 CP1 137 -9.644
103 CP1 138 -9.644
103 CP1 139 -10.620
103 CP1 140 -11.108
103 CP1 141 -12.085
103 CP1 142 -11.597
103 CP1 143 -9.644
103 CP1 144 -6.226
103 CP1 145 -3.784
103 CP1 146 -2.319
103 CP1 147 -2.808
103 CP1 148 -4.272
103 CP1 149 -5.249
103 CP1 150 -5.737
103 CP1 151 -5.737
103 CP1 152 -5.737
103 CP1 153 -6.714
103 CP1 154 -8.179
103 CP1 155 -9.155
103 CP1 156 -8.179
103 CP1 157 -6.226
103 CP1 158 -4.272
103 CP1 159 -3.784
103 CP1 160 -4.272
103 CP1 161 -4.761
103 CP1 162 -4.761
103 CP1 163 -4.761
103 CP1 164 -4.272
103 CP1 165 -4.272
103 CP1 166 -3.784
103 CP1 167 -2.808
103 CP1 168 -2.319
103 CP1 169 -1.831
103 CP1 170 -2.319
103 CP1 171 -3.296
103 CP1 172 -4.761
103 CP1 173 -4.761
103 CP1 174 -3.784
103 CP1 175 -2.319
103 CP1 176 -0.854
103 CP1 177 -1.343
103 CP1 178 -1.831
103 CP1 179 -2.808
103 CP1 180 -3.296
103 CP1 181 -2.808
103 CP1 182 -1.831
103 CP1 183 -1.343
103 CP1 184 -1.343
103 CP1 185 -1.343
103 CP1 186 -1.343
103 CP1 187 -1.343
103 CP1 188 -1.343
103 CP1 189 -1.831
103 CP1 190 -3.296
103 CP1 191 -5.249
103 CP1 192 -6.714
103 CP1 193 -7.202
103 CP1 194 -6.226
103 CP1 195 -4.761
103 CP1 196 -3.784
103 CP1 197 -3.296
103 CP1 198 -3.784
103 CP1 199 -4.761
103 CP1 200 -5.249
103 CP1 201 -5.249
103 CP1 202 -5.249
103 CP1 203 -4.761
103 CP1 204 -4.272
103 CP1 205 -4.272
103 CP1 206 -5.249
103 CP1 207 -6.226
103 CP1 208 -7.690
103 CP1 209 -8.667
103 CP1 210 -8.667
103 CP1 211 -7.690
103 CP1 212 -6.226
103 CP1 213 -5.249
103 CP1 214 -5.249
103 CP1 215 -6.226
103 CP1 216 -7.202
103 CP1 217 -8.179
103 CP1 218 -8.667
103 CP1 219 -9.155
103 CP1 220 -9.155
103 CP1 221 -9.644
103 CP1 222 -10.132
103 CP1 223 -9.155
103 CP1 224 -8.179
103 CP1 225 -6.714
103 CP1 226 -5.737
103 CP1 227 -5.737
103 CP1 228 -6.714
103 CP1 229 -7.690
103 CP1 230 -7.690
103 CP1 231 -7.202
103 CP1 232 -5.737
103 CP1 233 -4.761
103 CP1 234 -3.784
103 CP1 235 -3.784
103 CP1 236 -3.784
103 CP1 237 -4.272
103 CP1 238 -4.761
103 CP1 239 -4.761
103 CP1 240 -4.272
103 CP1 241 -3.784
103 CP1 242 -3.296
103 CP1 243 -4.272
103 CP1 244 -5.249
103 CP1 245 -6.714
103 CP1 246 -8.667
103 CP1 247 -9.155
103 CP1 248 -9.155
103 CP1 249 -9.644
103 CP1 250 -10.132
103 CP1 251 -11.108
103 CP1 252 -12.573
103 CP1 253 -13.062
103 CP1 254 -13.062
103 CP1 255 -12.085
# CP2 chan 21
103 CP2 0 -0.661
103 CP2 1 0.315
103 CP2 2 0.804
103 CP2 3 1.292
103 CP2 4 0.804
103 CP2 5 0.315
103 CP2 6 0.804
103 CP2 7 1.292
103 CP2 8 2.268
103 CP2 9 3.245
103 CP2 10 4.222
103 CP2 11 5.198
103 CP2 12 5.686
103 CP2 13 5.198
103 CP2 14 4.222
103 CP2 15 3.733
103 CP2 16 3.733
103 CP2 17 4.222
103 CP2 18 5.198
103 CP2 19 6.175
103 CP2 20 5.686
103 CP2 21 5.198
103 CP2 22 4.710
103 CP2 23 3.733
103 CP2 24 3.733
103 CP2 25 3.733
103 CP2 26 4.222
103 CP2 27 4.222
103 CP2 28 3.733
103 CP2 29 3.245
103 CP2 30 3.245
103 CP2 31 3.733
103 CP2 32 4.710
103 CP2 33 5.686
103 CP2 34 5.686
103 CP2 35 5.198
103 CP2 36 4.710
103 CP2 37 3.733
103 CP2 38 3.733
103 CP2 39 4.222
103 CP2 40 5.198
103 CP2 41 6.175
103 CP2 42 6.663
103 CP2 43 7.151
103 CP2 44 7.151
103 CP2 45 7.151
103 CP2 46 6.663
103 CP2 47 5.686
103 CP2 48 5.198
103 CP2 49 4.222
103 CP2 50 3.733
103 CP2 51 3.733
103 CP2 52 3.245
103 CP2 53 2.268
103 CP2 54 1.292
103 CP2 55 1.292
103 CP2 56 1.780
103 CP2 57 2.757
103 CP2 58 4.710
103 CP2 59 6.175
103 CP2 60 7.151
103 CP2 61 7.151
103 CP2 62 7.640
103 CP2 63 8.128
103 CP2 64 9.104
103 CP2 65 10.569
103 CP2 66 11.546
103 CP2 67 12.522
103 CP2 68 12.522
103 CP2 69 12.034
103 CP2 70 12.034
103 CP2 71 12.034
103 CP2 72 12.034
103 CP2 73 12.034
103 CP2 74 11.546
103 CP2 75 11.058
103 CP2 76 10.081
103 CP2 77 8.616
103 CP2 78 7.640
103 CP2 79 6.175
103 CP2 80 5.198
103 CP2 81 3.245
103 CP2 82 1.780
103 CP2 83 0.804
103 CP2 84 0.315
103 CP2 85 0.804
103 CP2 86 2.268
103 CP2 87 4.222
103 CP2 88 5.686
103 CP2 89 6.663
103 CP2 90 7.151
103 CP2 91 6.663
103 CP2 92 6.175
103 CP2 93 6.175
103 CP2 94 6.663
103 CP2 95 8.128
103 CP2 96 9.593
103 CP2 97 10.569
103 CP2 98 10.569
103 CP2 99 9.593
103 CP2 100 8.616
103 CP2 101 8.128
103 CP2 102 8.616
103 CP2 103 8.616
103 CP2 104 8.128
103 CP2 105 7.151
103 CP2 106 5.686
103 CP2 107 4.710
103 CP2 108 4.222
103 CP2 109 4.222
103 CP2 110 4.710
103 CP2 111 4.222
103 CP2 112 3.733
103 CP2 113 3.245
103 CP2 114 3.245
103 CP2 115 4.710
103 CP2 116 6.175
103 CP2 117 8.128
103 CP2 118 9.104
103 CP2 119 8.616
103 CP2 120 8.128
103 CP2 121 7.640
103 CP2 122 8.128
103 CP2 123 9.593
103 CP2 124 11.058
103 CP2 125 11.546
103 CP2 126 11.546
103 CP2 127 11.058
103 CP2 128 10.081
103 CP2 129 10.569
103 CP2 130 11.058
103 CP2 131 10.569
103 CP2 132 10.081
103 CP2 133 8.616
103 CP2 134 6.663
103 CP2 135 5.686
103 CP2 136 5.198
103 CP2 137 4.710
103 CP2 138 4.222
103 CP2 139 2.757
103 CP2 140 0.804
103 CP2 141 -0.661
103 CP2 142 -1.149
103 CP2 143 0.315
103 CP2 144 2.268
103 CP2 145 4.222
103 CP2 146 5.198
103 CP2 147 4.222
103 CP2 148 3.245
103 CP2 149 3.245
103 CP2 150 4.222
103 CP2 151 5.686
103 CP2 152 6.175
103 CP2 153 5.686
103 CP2 154 4.222
103 CP2 155 3.245
103 CP2 156 3.733
103 CP2 157 5.686
103 CP2 158 7.151
103 CP2 159 8.128
103 CP2 160 7.640
103 CP2 161 6.175
103 CP2 162 5.198
103 CP2 163 4.222
103 CP2 164 4.222
103 CP2 165 3.733
103 CP2 166 3.733
103 CP2 167 3.733
103 CP2 168 4.222
103 CP2 169 5.686
103 CP2 170 6.175
103 CP2 171 6.175
103 CP2 172 5.686
103 CP2 173 5.198
103 CP2 174 5.686
103 CP2 175 7.151
103 CP2 176 8.616
103 CP2 177 8.616
103 CP2 178 7.151
103 CP2 179 5.686
103 CP2 180 5.198
103 CP2 181 6.175
103 CP2 182 8.128
103 CP2 183 9.593
103 CP2 184 10.081
103 CP2 185 9.593
103 CP2 186 9.104
103 CP2 187 9.104
103 CP2 188 9.593
103 CP2 189 9.593
103 CP2 190 8.128
103 CP2 191 5.198
103 CP2 192 3.245
103 CP2 193 2.268
103 CP2 194 2.757
103 CP2 195 4.222
103 CP2 196 4.710
103 CP2 197 4.710
103 CP2 198 3.245
103 CP2 199 2.268
103 CP2 200 1.292
103 CP2 201 0.804
103 CP2 202 1.292
103 CP2 203 1.292
103 CP2 204 1.780
103 CP2 205 2.757
103 CP2 206 3.245
103 CP2 207 2.268
103 CP2 208 1.292
103 CP2 209 -0.173
103 CP2 210 -0.173
103 CP2 211 0.315
103 CP2 212 1.780
103 CP2 213 2.757
103 CP2 214 2.757
103 CP2 215 1.780
103 CP2 216 0.804
103 CP2 217 0.804
103 CP2 218 1.780
103 CP2 219 3.245
103 CP2 220 3.733
103 CP2 221 4.222
103 CP2 222 3.733
103 CP2 223 2.757
103 CP2 224 2.757
103 CP2 225 2.268
103 CP2 226 2.268
103 CP2 227 1.780
103 CP2 228 1.292
103 CP2 229 1.292
103 CP2 230 1.780
103 CP2 231 2.268
103 CP2 232 3.733
103 CP2 233 5.686
103 CP2 234 7.151
103 CP2 235 7.640
103 CP2 236 7.151
103 CP2 237 5.686
103 CP2 238 4.710
103 CP2 239 5.198
103 CP2 240 6.663
103 CP2 241 8.128
103 CP2 242 9.104
103 CP2 243 9.104
103 CP2 244 7.640
103 CP2 245 6.663
103 CP2 246 5.686
103 CP2 247 5.198
103 CP2 248 5.198
103 CP2 249 5.686
103 CP2 250 5.198
103 CP2 251 4.710
103 CP2 252 3.245
103 CP2 253 2.268
103 CP2 254 1.780
103 CP2 255 1.292
# P3 chan 22
103 P3 0 0.397
103 P3 1 4.303
103 P3 2 7.233
103 P3 3 7.721
103 P3 4 7.233
103 P3 5 6.744
103 P3 6 7.233
103 P3 7 9.186
103 P3 8 12.115
103 P3 9 14.069
103 P3 10 13.580
103 P3 11 11.627
103 P3 12 7.721
103 P3 13 3.815
103 P3 14 0.885
103 P3 15 -0.092
103 P3 16 1.373
103 P3 17 2.350
103 P3 18 2.350
103 P3 19 0.397
103 P3 20 -2.045
103 P3 21 -4.486
103 P3 22 -4.974
103 P3 23 -4.974
103 P3 24 -3.998
103 P3 25 -3.510
103 P3 26 -3.021
103 P3 27 -1.556
103 P3 28 0.885
103 P3 29 3.815
103 P3 30 5.280
103 P3 31 5.768
103 P3 32 5.768
103 P3 33 6.256
103 P3 34 7.233
103 P3 35 8.698
103 P3 36 9.674
103 P3 37 10.651
103 P3 38 10.651
103 P3 39 10.651
103 P3 40 10.162
103 P3 41 9.674
103 P3 42 9.186
103 P3 43 9.186
103 P3 44 9.186
103 P3 45 9.674
103 P3 46 9.674
103 P3 47 7.721
103 P3 48 4.303
103 P3 49 1.373
103 P3 50 -0.580
103 P3 51 0.397
103 P3 52 2.838
103 P3 53 6.256
103 P3 54 9.186
103 P3 55 10.651
103 P3 56 10.651
103 P3 57 9.186
103 P3 58 6.744
103 P3 59 4.303
103 P3 60 1.862
103 P3 61 1.862
103 P3 62 3.815
103 P3 63 7.233
103 P3 64 10.651
103 P3 65 12.604
103 P3 66 14.069
103 P3 67 14.069
103 P3 68 13.580
103 P3 69 13.092
103 P3 70 12.115
103 P3 71 11.139
103 P3 72 10.162
103 P3 73 9.186
103 P3 74 8.209
103 P3 75 7.233
103 P3 76 5.768
103 P3 77 4.303
103 P3 78 2.350
103 P3 79 0.397
103 P3 80 -0.580
103 P3 81 -1.068
103 P3 82 -1.556
103 P3 83 -1.556
103 P3 84 -1.556
103 P3 85 -2.533
103 P3 86 -3.021
103 P3 87 -2.045
103 P3 88 -0.092
103 P3 89 2.838
103 P3 90 5.280
103 P3 91 5.768
103 P3 92 3.815
103 P3 93 1.373
103 P3 94 0.397
103 P3 95 2.350
103 P3 96 5.768
103 P3 97 7.721
103 P3 98 7.721
103 P3 99 5.280
103 P3 100 2.350
103 P3 101 0.885
103 P3 102 1.373
103 P3 103 2.838
103 P3 104 3.815
103 P3 105 2.350
103 P3 106 -0.092
103 P3 107 -2.533
103 P3 108 -3.998
103 P3 109 -3.998
103 P3 110 -3.510
103 P3 111 -3.510
103 P3 112 -3.998
103 P3 113 -3.510
103 P3 114 -1.556
103 P3 115 1.373
103 P3 116 5.280
103 P3 117 8.698
103 P3 118 10.162
103 P3 119 10.162
103 P3 120 9.186
103 P3 121 8.209
103 P3 122 9.674
103 P3 123 12.604
103 P3 124 16.022
103 P3 125 16.998
103 P3 126 14.557
103 P3 127 9.674
103 P3 128 4.303
103 P3 129 1.373
103 P3 130 1.373
103 P3 131 2.838
103 P3 132 2.838
103 P3 133 0.397
103 P3 134 -3.021
103 P3 135 -5.463
103 P3 136 -5.951
103 P3 137 -4.486
103 P3 138 -2.045
103 P3 139 -2.045
103 P3 140 -3.998
103 P3 141 -6.927
103 P3 142 -7.904
103 P3 143 -5.463
103 P3 144 -0.580
103 P3 145 4.791
103 P3 146 7.721
103 P3 147 7.721
103 P3 148 6.256
103 P3 149 6.256
103 P3 150 8.209
103 P3 151 9.674
103 P3 152 8.209
103 P3 153 4.303
103 P3 154 -0.580
103 P3 155 -3.021
103 P3 156 -1.556
103 P3 157 2.350
103 P3 158 4.791
103 P3 159 3.815
103 P3 160 0.397
103 P3 161 -3.021
103 P3 162 -3.998
103 P3 163 -2.045
103 P3 164 0.397
103 P3 165 2.350
103 P3 166 2.350
103 P3 167 2.350
103 P3 168 2.838
103 P3 169 4.303
103 P3 170 6.256
103 P3 171 7.233
103 P3 172 7.233
103 P3 173 6.744
103 P3 174 7.233
103 P3 175 8.698
103 P3 176 9.674
103 P3 177 9.186
103 P3 178 7.233
103 P3 179 5.280
103 P3 180 3.815
103 P3 181 5.280
103 P3 182 7.233
103 P3 183 9.186
103 P3 184 10.162
103 P3 185 10.162
103 P3 186 10.162
103 P3 187 10.162
103 P3 188 10.651
103 P3 189 9.186
103 P3 190 6.256
103 P3 191 1.373
103 P3 192 -2.533
103 P3 193 -4.486
103 P3 194 -3.998
103 P3 195 -1.556
103 P3 196 0.885
103 P3 197 1.373
103 P3 198 0.397
103 P3 199 -0.580
103 P3 200 -1.556
103 P3 201 -1.068
103 P3 202 0.397
103 P3 203 1.862
103 P3 204 3.326
103 P3 205 4.791
103 P3 206 4.791
103 P3 207 2.838
103 P3 208 -0.092
103 P3 209 -3.998
103 P3 210 -6.439
103 P3 211 -6.927
103 P3 212 -4.974
103 P3 213 -3.510
103 P3 214 -3.510
103 P3 215 -5.951
103 P3 216 -7.904
103 P3 217 -8.881
103 P3 218 -7.904
103 P3 219 -7.416
103 P3 220 -7.904
103 P3 221 -9.369
103 P3 222 -10.345
103 P3 223 -9.369
103 P3 224 -6.439
103 P3 225 -3.021
103 P3 226 -1.556
103 P3 227 -1.556
103 P3 228 -2.533
103 P3 229 -2.045
103 P3 230 -0.092
103 P3 231 2.838
103 P3 232 6.256
103 P3 233 8.209
103 P3 234 8.209
103 P3 235 7.233
103 P3 236 5.280
103 P3 237 3.326
103 P3 238 2.350
103 P3 239 2.350
103 P3 240 2.838
103 P3 241 4.303
103 P3 242 5.280
103 P3 243 4.303
103 P3 244 2.350
103 P3 245 -0.092
103 P3 246 -2.045
103 P3 247 -3.021
103 P3 248 -3.021
103 P3 249 -3.021
103 P3 250 -2.533
103 P3 251 -3.021
103 P3 252 -3.021
103 P3 253 -1.556
103 P3 254 0.885
103 P3 255 4.791
# P4 chan 23
103 P4 0 -5.300
103 P4 1 -2.858
103 P4 2 -0.417
103 P4 3 1.048
103 P4 4 2.513
103 P4 5 3.001
103 P4 6 3.001
103 P4 7 2.513
103 P4 8 3.001
103 P4 9 4.466
103 P4 10 6.419
103 P4 11 8.372
103 P4 12 9.349
103 P4 13 8.372
103 P4 14 6.419
103 P4 15 5.442
103 P4 16 5.442
103 P4 17 6.419
103 P4 18 7.395
103 P4 19 7.395
103 P4 20 5.442
103 P4 21 3.001
103 P4 22 1.536
103 P4 23 1.048
103 P4 24 1.536
103 P4 25 2.513
103 P4 26 3.489
103 P4 27 3.489
103 P4 28 3.489
103 P4 29 3.489
103 P4 30 3.489
103 P4 31 3.489
103 P4 32 4.954
103 P4 33 6.419
103 P4 34 8.372
103 P4 35 8.372
103 P4 36 7.395
103 P4 37 5.442
103 P4 38 4.466
103 P4 39 4.954
103 P4 40 5.931
103 P4 41 6.419
103 P4 42 6.419
103 P4 43 5.442
103 P4 44 3.977
103 P4 45 2.024
103 P4 46 -0.417
103 P4 47 -2.370
103 P4 48 -3.347
103 P4 49 -3.835
103 P4 50 -3.347
103 P4 51 -1.882
103 P4 52 -0.905
103 P4 53 -0.417
103 P4 54 -0.905
103 P4 55 -1.394
103 P4 56 -1.394
103 P4 57 -0.417
103 P4 58 1.536
103 P4 59 3.001
103 P4 60 3.489
103 P4 61 3.001
103 P4 62 2.513
103 P4 63 3.001
103 P4 64 4.954
103 P4 65 7.395
103 P4 66 9.349
103 P4 67 9.837
103 P4 68 8.372
103 P4 69 6.419
103 P4 70 4.466
103 P4 71 3.489
103 P4 72 3.977
103 P4 73 4.466
103 P4 74 3.977
103 P4 75 3.001
103 P4 76 1.536
103 P4 77 0.071
103 P4 78 -0.905
103 P4 79 -1.394
103 P4 80 -2.370
103 P4 81 -3.347
103 P4 82 -4.323
103 P4 83 -5.300
103 P4 84 -6.765
103 P4 85 -7.253
103 P4 86 -6.276
103 P4 87 -4.812
103 P4 88 -3.835
103 P4 89 -3.347
103 P4 90 -4.323
103 P4 91 -5.788
103 P4 92 -6.276
103 P4 93 -5.300
103 P4 94 -1.882
103 P4 95 1.536
103 P4 96 3.001
103 P4 97 3.001
103 P4 98 1.536
103 P4 99 -0.417
103 P4 100 -1.394
103 P4 101 -0.905
103 P4 102 -0.905
103 P4 103 -0.905
103 P4 104 -1.882
103 P4 105 -3.347
103 P4 106 -4.323
103 P4 107 -4.323
103 P4 108 -3.835
103 P4 109 -3.347
103 P4 110 -2.858
103 P4 111 -2.370
103 P4 112 -2.370
103 P4 113 -1.882
103 P4 114 -0.905
103 P4 115 0.071
103 P4 116 2.024
103 P4 117 3.977
103 P4 118 6.419
103 P4 119 7.395
103 P4 120 6.907
103 P4 121 6.419
103 P4 122 6.419
103 P4 123 7.395
103 P4 124 9.349
103 P4 125 9.837
103 P4 126 8.860
103 P4 127 5.442
103 P4 128 2.024
103 P4 129 -0.417
103 P4 130 -0.905
103 P4 131 0.071
103 P4 132 0.071
103 P4 133 -1.394
103 P4 134 -3.835
103 P4 135 -6.765
103 P4 136 -8.718
103 P4 137 -8.230
103 P4 138 -7.253
103 P4 139 -6.765
103 P4 140 -7.253
103 P4 141 -9.206
103 P4 142 -10.183
103 P4 143 -9.206
103 P4 144 -5.300
103 P4 145 -1.394
103 P4 146 1.048
103 P4 147 -0.417
103 P4 148 -3.347
103 P4 149 -5.788
103 P4 150 -5.788
103 P4 151 -3.835
103 P4 152 -2.370
103 P4 153 -2.858
103 P4 154 -4.812
103 P4 155 -7.253
103 P4 156 -7.253
103 P4 157 -5.300
103 P4 158 -1.882
103 P4 159 -0.417
103 P4 160 -1.394
103 P4 161 -3.347
103 P4 162 -5.300
103 P4 163 -6.276
103 P4 164 -6.765
103 P4 165 -7.253
103 P4 166 -8.230
103 P4 167 -8.230
103 P4 168 -8.230
103 P4 169 -7.253
103 P4 170 -7.741
103 P4 171 -8.718
103 P4 172 -9.694
103 P4 173 -9.694
103 P4 174 -7.253
103 P4 175 -4.323
103 P4 176 -2.370
103 P4 177 -2.370
103 P4 178 -4.323
103 P4 179 -6.276
103 P4 180 -6.276
103 P4 181 -4.323
103 P4 182 -0.905
103 P4 183 1.048
103 P4 184 1.048
103 P4 185 -0.417
103 P4 186 -1.882
103 P4 187 -2.858
103 P4 188 -2.858
103 P4 189 -3.347
103 P4 190 -5.300
103 P4 191 -8.718
103 P4 192 -12.136
103 P4 193 -13.112
103 P4 194 -11.648
103 P4 195 -8.718
103 P4 196 -6.276
103 P4 197 -5.300
103 P4 198 -5.788
103 P4 199 -6.765
103 P4 200 -8.230
103 P4 201 -9.206
103 P4 202 -9.694
103 P4 203 -10.183
103 P4 204 -9.694
103 P4 205 -8.230
103 P4 206 -7.253
103 P4 207 -8.230
103 P4 208 -9.694
103 P4 209 -11.159
103 P4 210 -11.159
103 P4 211 -9.694
103 P4 212 -7.253
103 P4 213 -6.765
103 P4 214 -8.230
103 P4 215 -11.648
103 P4 216 -14.089
103 P4 217 -15.066
103 P4 218 -13.601
103 P4 219 -11.159
103 P4 220 -9.694
103 P4 221 -9.694
103 P4 222 -11.159
103 P4 223 -13.112
103 P4 224 -13.112
103 P4 225 -11.648
103 P4 226 -10.183
103 P4 227 -8.718
103 P4 228 -8.230
103 P4 229 -9.206
103 P4 230 -9.206
103 P4 231 -8.718
103 P4 232 -6.276
103 P4 233 -2.858
103 P4 234 0.559
103 P4 235 2.513
103 P4 236 1.536
103 P4 237 -0.417
103 P4 238 -2.370
103 P4 239 -2.370
103 P4 240 -0.905
103 P4 241 1.536
103 P4 242 2.513
103 P4 243 1.536
103 P4 244 -0.905
103 P4 245 -4.812
103 P4 246 -7.741
103 P4 247 -9.206
103 P4 248 -8.718
103 P4 249 -7.741
103 P4 250 -6.765
103 P4 251 -6.765
103 P4 252 -6.765
103 P4 253 -7.253
103 P4 254 -6.765
103 P4 255 -5.300
# PZ chan 24
103 PZ 0 -3.754
103 PZ 1 -0.824
103 PZ 2 1.129
103 PZ 3 2.106
103 PZ 4 1.617
103 PZ 5 0.641
103 PZ 6 1.129
103 PZ 7 2.594
103 PZ 8 5.035
103 PZ 9 7.477
103 PZ 10 8.453
103 PZ 11 8.453
103 PZ 12 6.500
103 PZ 13 4.059
103 PZ 14 2.106
103 PZ 15 2.106
103 PZ 16 3.082
103 PZ 17 5.524
103 PZ 18 7.477
103 PZ 19 7.477
103 PZ 20 6.012
103 PZ 21 4.059
103 PZ 22 2.106
103 PZ 23 1.617
103 PZ 24 1.617
103 PZ 25 1.617
103 PZ 26 1.617
103 PZ 27 1.129
103 PZ 28 1.129
103 PZ 29 0.641
103 PZ 30 0.641
103 PZ 31 1.129
103 PZ 32 2.106
103 PZ 33 4.059
103 PZ 34 5.524
103 PZ 35 6.500
103 PZ 36 6.500
103 PZ 37 6.500
103 PZ 38 6.012
103 PZ 39 6.500
103 PZ 40 7.477
103 PZ 41 7.965
103 PZ 42 7.965
103 PZ 43 8.453
103 PZ 44 7.965
103 PZ 45 8.453
103 PZ 46 8.453
103 PZ 47 7.477
103 PZ 48 6.012
103 PZ 49 4.059
103 PZ 50 3.082
103 PZ 51 3.082
103 PZ 52 4.059
103 PZ 53 5.524
103 PZ 54 6.500
103 PZ 55 6.500
103 PZ 56 5.524
103 PZ 57 4.547
103 PZ 58 3.571
103 PZ 59 2.594
103 PZ 60 2.106
103 PZ 61 1.617
103 PZ 62 1.617
103 PZ 63 3.082
103 PZ 64 5.524
103 PZ 65 8.453
103 PZ 66 9.918
103 PZ 67 9.918
103 PZ 68 8.453
103 PZ 69 6.500
103 PZ 70 5.035
103 PZ 71 5.035
103 PZ 72 6.500
103 PZ 73 7.965
103 PZ 74 8.453
103 PZ 75 7.965
103 PZ 76 6.989
103 PZ 77 6.012
103 PZ 78 5.035
103 PZ 79 4.059
103 PZ 80 2.594
103 PZ 81 1.129
103 PZ 82 0.153
103 PZ 83 -0.336
103 PZ 84 -0.824
103 PZ 85 -0.336
103 PZ 86 0.153
103 PZ 87 1.617
103 PZ 88 3.571
103 PZ 89 5.524
103 PZ 90 6.012
103 PZ 91 5.524
103 PZ 92 3.571
103 PZ 93 2.594
103 PZ 94 3.082
103 PZ 95 5.524
103 PZ 96 8.453
103 PZ 97 9.918
103 PZ 98 9.430
103 PZ 99 7.965
103 PZ 100 6.012
103 PZ 101 5.524
103 PZ 102 6.500
103 PZ 103 7.477
103 PZ 104 7.965
103 PZ 105 7.477
103 PZ 106 6.500
103 PZ 107 5.035
103 PZ 108 4.059
103 PZ 109 3.571
103 PZ 110 3.082
103 PZ 111 3.082
103 PZ 112 2.594
103 PZ 113 2.594
103 PZ 114 3.082
103 PZ 115 4.547
103 PZ 116 6.989
103 PZ 117 9.430
103 PZ 118 11.383
103 PZ 119 10.895
103 PZ 120 9.430
103 PZ 121 7.477
103 PZ 122 6.989
103 PZ 123 8.453
103 PZ 124 11.383
103 PZ 125 13.336
103 PZ 126 13.336
103 PZ 127 10.895
103 PZ 128 8.453
103 PZ 129 6.989
103 PZ 130 7.965
103 PZ 131 9.918
103 PZ 132 10.406
103 PZ 133 8.942
103 PZ 134 5.524
103 PZ 135 2.106
103 PZ 136 1.129
103 PZ 137 1.617
103 PZ 138 2.594
103 PZ 139 2.106
103 PZ 140 0.153
103 PZ 141 -2.777
103 PZ 142 -3.754
103 PZ 143 -1.801
103 PZ 144 2.594
103 PZ 145 7.477
103 PZ 146 9.430
103 PZ 147 8.942
103 PZ 148 6.500
103 PZ 149 5.524
103 PZ 150 6.500
103 PZ 151 7.965
103 PZ 152 7.965
103 PZ 153 5.524
103 PZ 154 2.106
103 PZ 155 0.153
103 PZ 156 1.617
103 PZ 157 5.524
103 PZ 158 8.942
103 PZ 159 9.918
103 PZ 160 7.965
103 PZ 161 4.547
103 PZ 162 3.082
103 PZ 163 3.082
103 PZ 164 5.035
103 PZ 165 6.012
103 PZ 166 6.500
103 PZ 167 6.012
103 PZ 168 6.500
103 PZ 169 7.477
103 PZ 170 8.453
103 PZ 171 8.453
103 PZ 172 7.477
103 PZ 173 6.989
103 PZ 174 7.477
103 PZ 175 9.430
103 PZ 176 10.895
103 PZ 177 10.406
103 PZ 178 8.453
103 PZ 179 5.524
103 PZ 180 4.547
103 PZ 181 6.012
103 PZ 182 9.430
103 PZ 183 11.871
103 PZ 184 12.360
103 PZ 185 10.895
103 PZ 186 9.430
103 PZ 187 8.453
103 PZ 188 8.942
103 PZ 189 8.942
103 PZ 190 7.477
103 PZ 191 4.547
103 PZ 192 1.617
103 PZ 193 0.153
103 PZ 194 1.129
103 PZ 195 3.082
103 PZ 196 4.547
103 PZ 197 5.035
103 PZ 198 4.059
103 PZ 199 3.082
103 PZ 200 2.594
103 PZ 201 2.594
103 PZ 202 3.082
103 PZ 203 3.571
103 PZ 204 3.571
103 PZ 205 4.059
103 PZ 206 4.547
103 PZ 207 4.547
103 PZ 208 3.571
103 PZ 209 2.106
103 PZ 210 1.129
103 PZ 211 2.106
103 PZ 212 4.547
103 PZ 213 6.500
103 PZ 214 6.500
103 PZ 215 4.547
103 PZ 216 2.594
103 PZ 217 1.129
103 PZ 218 1.617
103 PZ 219 3.082
103 PZ 220 4.059
103 PZ 221 3.082
103 PZ 222 1.617
103 PZ 223 1.129
103 PZ 224 2.106
103 PZ 225 4.059
103 PZ 226 6.012
103 PZ 227 6.500
103 PZ 228 5.035
103 PZ 229 3.571
103 PZ 230 2.594
103 PZ 231 3.571
103 PZ 232 5.524
103 PZ 233 7.965
103 PZ 234 9.918
103 PZ 235 9.918
103 PZ 236 9.430
103 PZ 237 7.965
103 PZ 238 6.989
103 PZ 239 6.500
103 PZ 240 6.989
103 PZ 241 8.453
103 PZ 242 9.918
103 PZ 243 9.918
103 PZ 244 9.430
103 PZ 245 7.477
103 PZ 246 6.012
103 PZ 247 5.035
103 PZ 248 4.059
103 PZ 249 3.571
103 PZ 250 3.082
103 PZ 251 2.106
103 PZ 252 1.617
103 PZ 253 1.129
103 PZ 254 2.594
103 PZ 255 4.059
# P8 chan 25
103 P8 0 -2.309
103 P8 1 1.597
103 P8 2 5.503
103 P8 3 8.921
103 P8 4 11.851
103 P8 5 14.292
103 P8 6 15.269
103 P8 7 17.222
103 P8 8 19.175
103 P8 9 21.617
103 P8 10 24.058
103 P8 11 25.035
103 P8 12 23.081
103 P8 13 19.175
103 P8 14 14.292
103 P8 15 10.386
103 P8 16 7.945
103 P8 17 7.456
103 P8 18 7.945
103 P8 19 7.945
103 P8 20 6.968
103 P8 21 4.527
103 P8 22 3.062
103 P8 23 2.085
103 P8 24 2.085
103 P8 25 3.550
103 P8 26 5.015
103 P8 27 5.992
103 P8 28 5.015
103 P8 29 3.550
103 P8 30 1.109
103 P8 31 0.621
103 P8 32 3.062
103 P8 33 7.456
103 P8 34 11.363
103 P8 35 13.316
103 P8 36 11.363
103 P8 37 7.945
103 P8 38 5.503
103 P8 39 4.527
103 P8 40 5.992
103 P8 41 7.456
103 P8 42 8.433
103 P8 43 6.968
103 P8 44 4.527
103 P8 45 1.597
103 P8 46 -1.333
103 P8 47 -3.774
103 P8 48 -5.239
103 P8 49 -6.215
103 P8 50 -5.239
103 P8 51 -2.309
103 P8 52 1.597
103 P8 53 4.527
103 P8 54 6.480
103 P8 55 6.480
103 P8 56 6.480
103 P8 57 7.456
103 P8 58 8.921
103 P8 59 10.386
103 P8 60 10.386
103 P8 61 7.945
103 P8 62 5.015
103 P8 63 4.038
103 P8 64 6.480
103 P8 65 11.363
103 P8 66 15.269
103 P8 67 17.222
103 P8 68 15.757
103 P8 69 12.828
103 P8 70 10.386
103 P8 71 9.410
103 P8 72 9.898
103 P8 73 10.386
103 P8 74 9.410
103 P8 75 6.480
103 P8 76 3.062
103 P8 77 0.132
103 P8 78 -2.309
103 P8 79 -2.797
103 P8 80 -2.797
103 P8 81 -1.821
103 P8 82 -1.333
103 P8 83 -1.333
103 P8 84 -1.821
103 P8 85 -2.309
103 P8 86 -2.309
103 P8 87 -1.821
103 P8 88 -2.309
103 P8 89 -2.797
103 P8 90 -4.751
103 P8 91 -6.215
103 P8 92 -5.727
103 P8 93 -2.309
103 P8 94 2.085
103 P8 95 5.015
103 P8 96 4.527
103 P8 97 1.109
103 P8 98 -4.262
103 P8 99 -8.169
103 P8 100 -9.633
103 P8 101 -9.145
103 P8 102 -8.169
103 P8 103 -8.169
103 P8 104 -9.633
103 P8 105 -10.122
103 P8 106 -9.633
103 P8 107 -7.192
103 P8 108 -4.262
103 P8 109 -1.333
103 P8 110 1.109
103 P8 111 3.062
103 P8 112 4.527
103 P8 113 6.480
103 P8 114 8.433
103 P8 115 10.386
103 P8 116 13.316
103 P8 117 17.222
103 P8 118 21.128
103 P8 119 23.570
103 P8 120 23.081
103 P8 121 20.640
103 P8 122 17.710
103 P8 123 16.246
103 P8 124 16.734
103 P8 125 17.222
103 P8 126 16.246
103 P8 127 12.339
103 P8 128 6.480
103 P8 129 1.109
103 P8 130 -1.821
103 P8 131 -2.309
103 P8 132 -2.309
103 P8 133 -2.797
103 P8 134 -5.239
103 P8 135 -8.657
103 P8 136 -11.587
103 P8 137 -13.051
103 P8 138 -13.540
103 P8 139 -14.516
103 P8 140 -15.004
103 P8 141 -15.981
103 P8 142 -15.004
103 P8 143 -11.587
103 P8 144 -6.215
103 P8 145 -1.821
103 P8 146 0.132
103 P8 147 -1.333
103 P8 148 -5.239
103 P8 149 -7.680
103 P8 150 -7.680
103 P8 151 -5.727
103 P8 152 -3.774
103 P8 153 -2.797
103 P8 154 -4.262
103 P8 155 -5.727
103 P8 156 -6.704
103 P8 157 -6.704
103 P8 158 -5.727
103 P8 159 -5.727
103 P8 160 -7.192
103 P8 161 -8.657
103 P8 162 -10.122
103 P8 163 -11.098
103 P8 164 -11.098
103 P8 165 -11.587
103 P8 166 -11.098
103 P8 167 -9.633
103 P8 168 -7.192
103 P8 169 -3.774
103 P8 170 -1.333
103 P8 171 -1.333
103 P8 172 -1.821
103 P8 173 -2.309
103 P8 174 -1.333
103 P8 175 1.109
103 P8 176 4.527
103 P8 177 5.992
103 P8 178 5.015
103 P8 179 3.062
103 P8 180 1.597
103 P8 181 2.574
103 P8 182 5.503
103 P8 183 8.433
103 P8 184 9.898
103 P8 185 8.921
103 P8 186 6.968
103 P8 187 5.992
103 P8 188 5.992
103 P8 189 5.992
103 P8 190 4.527
103 P8 191 1.109
103 P8 192 -2.309
103 P8 193 -4.262
103 P8 194 -2.797
103 P8 195 1.109
103 P8 196 5.015
103 P8 197 6.968
103 P8 198 5.992
103 P8 199 2.574
103 P8 200 -1.333
103 P8 201 -4.262
103 P8 202 -5.239
103 P8 203 -5.727
103 P8 204 -5.239
103 P8 205 -5.239
103 P8 206 -5.239
103 P8 207 -6.704
103 P8 208 -8.169
103 P8 209 -9.633
103 P8 210 -9.633
103 P8 211 -8.657
103 P8 212 -7.680
103 P8 213 -7.680
103 P8 214 -10.122
103 P8 215 -13.051
103 P8 216 -15.981
103 P8 217 -15.981
103 P8 218 -13.540
103 P8 219 -10.122
103 P8 220 -7.192
103 P8 221 -6.215
103 P8 222 -5.727
103 P8 223 -5.239
103 P8 224 -4.262
103 P8 225 -1.821
103 P8 226 0.621
103 P8 227 1.597
103 P8 228 1.597
103 P8 229 0.621
103 P8 230 -0.356
103 P8 231 0.132
103 P8 232 3.062
103 P8 233 6.968
103 P8 234 10.386
103 P8 235 11.363
103 P8 236 10.386
103 P8 237 7.456
103 P8 238 5.015
103 P8 239 3.550
103 P8 240 4.527
103 P8 241 5.503
103 P8 242 5.503
103 P8 243 4.038
103 P8 244 1.109
103 P8 245 -2.797
103 P8 246 -5.727
103 P8 247 -7.192
103 P8 248 -7.680
103 P8 249 -6.215
103 P8 250 -4.751
103 P8 251 -3.286
103 P8 252 -2.309
103 P8 253 -1.333
103 P8 254 0.132
103 P8 255 2.574
# P7 chan 26
103 P7 0 1.699
103 P7 1 6.093
103 P7 2 10.488
103 P7 3 13.418
103 P7 4 15.859
103 P7 5 16.836
103 P7 6 18.300
103 P7 7 19.765
103 P7 8 21.718
103 P7 9 23.671
103 P7 10 24.648
103 P7 11 23.183
103 P7 12 19.277
103 P7 13 14.394
103 P7 14 10.000
103 P7 15 8.046
103 P7 16 8.535
103 P7 17 9.511
103 P7 18 8.535
103 P7 19 4.628
103 P7 20 0.722
103 P7 21 -2.207
103 P7 22 -2.207
103 P7 23 -0.254
103 P7 24 1.699
103 P7 25 2.675
103 P7 26 2.187
103 P7 27 2.187
103 P7 28 4.140
103 P7 29 7.070
103 P7 30 10.000
103 P7 31 10.976
103 P7 32 10.488
103 P7 33 10.000
103 P7 34 10.976
103 P7 35 12.929
103 P7 36 14.882
103 P7 37 15.371
103 P7 38 14.394
103 P7 39 12.441
103 P7 40 10.488
103 P7 41 9.023
103 P7 42 8.046
103 P7 43 7.558
103 P7 44 8.535
103 P7 45 9.511
103 P7 46 10.000
103 P7 47 9.511
103 P7 48 6.582
103 P7 49 3.164
103 P7 50 0.722
103 P7 51 0.722
103 P7 52 3.652
103 P7 53 8.046
103 P7 54 11.953
103 P7 55 14.882
103 P7 56 15.859
103 P7 57 14.882
103 P7 58 13.418
103 P7 59 10.488
103 P7 60 8.535
103 P7 61 8.046
103 P7 62 9.023
103 P7 63 10.976
103 P7 64 12.929
103 P7 65 13.906
103 P7 66 14.882
103 P7 67 15.371
103 P7 68 15.859
103 P7 69 15.859
103 P7 70 14.394
103 P7 71 11.464
103 P7 72 6.582
103 P7 73 2.675
103 P7 74 -0.254
103 P7 75 -1.231
