# co2a0000395.rd
# 120 trials, 64 chans, 416 samples 368 post_stim samples
# 3.906000 msecs uV
# S2 nomatch, trial 29
# FP1 chan 0
29 FP1 0 -2.950
29 FP1 1 -3.438
29 FP1 2 -4.415
29 FP1 3 -5.391
29 FP1 4 -6.368
29 FP1 5 -7.833
29 FP1 6 -10.763
29 FP1 7 -14.669
29 FP1 8 -17.598
29 FP1 9 -17.598
29 FP1 10 -14.181
29 FP1 11 -8.321
29 FP1 12 -3.438
29 FP1 13 -0.997
29 FP1 14 0.468
29 FP1 15 1.444
29 FP1 16 4.374
29 FP1 17 8.280
29 FP1 18 9.745
29 FP1 19 7.792
29 FP1 20 2.421
29 FP1 21 -3.927
29 FP1 22 -8.321
29 FP1 23 -9.298
29 FP1 24 -7.345
29 FP1 25 -4.415
29 FP1 26 -1.973
29 FP1 27 -0.997
29 FP1 28 -0.997
29 FP1 29 -1.973
29 FP1 30 -3.927
29 FP1 31 -5.880
29 FP1 32 -7.345
29 FP1 33 -7.345
29 FP1 34 -5.391
29 FP1 35 -2.950
29 FP1 36 -0.509
29 FP1 37 -0.020
29 FP1 38 -0.509
29 FP1 39 -1.973
29 FP1 40 -2.462
29 FP1 41 -0.997
29 FP1 42 1.933
29 FP1 43 4.862
29 FP1 44 6.816
29 FP1 45 7.304
29 FP1 46 5.839
29 FP1 47 3.886
29 FP1 48 0.956
29 FP1 49 0.468
29 FP1 50 0.468
29 FP1 51 0.956
29 FP1 52 -0.997
29 FP1 53 -4.415
29 FP1 54 -8.809
29 FP1 55 -11.739
29 FP1 56 -12.227
29 FP1 57 -9.298
29 FP1 58 -5.391
29 FP1 59 -1.973
29 FP1 60 -0.020
29 FP1 61 -0.020
29 FP1 62 -0.509
29 FP1 63 -0.997
29 FP1 64 -1.485
29 FP1 65 -0.509
29 FP1 66 1.933
29 FP1 67 6.816
29 FP1 68 11.698
29 FP1 69 13.652
29 FP1 70 11.698
29 FP1 71 4.862
29 FP1 72 -1.485
29 FP1 73 -4.903
29 FP1 74 -2.462
29 FP1 75 2.909
29 FP1 76 6.816
29 FP1 77 7.304
29 FP1 78 4.374
29 FP1 79 0.468
29 FP1 80 -0.020
29 FP1 81 2.421
29 FP1 82 5.839
29 FP1 83 8.280
29 FP1 84 8.769
29 FP1 85 7.792
29 FP1 86 5.839
29 FP1 87 5.351
29 FP1 88 5.839
29 FP1 89 7.304
29 FP1 90 7.792
29 FP1 91 6.816
29 FP1 92 3.886
29 FP1 93 -0.020
29 FP1 94 -2.950
29 FP1 95 -4.415
29 FP1 96 -2.950
29 FP1 97 -0.020
29 FP1 98 1.444
29 FP1 99 0.468
29 FP1 100 -3.438
29 FP1 101 -8.809
29 FP1 102 -13.204
29 FP1 103 -14.669
29 FP1 104 -12.716
29 FP1 105 -8.809
29 FP1 106 -4.903
29 FP1 107 -1.485
29 FP1 108 -0.020
29 FP1 109 0.468
29 FP1 110 0.468
29 FP1 111 1.444
29 FP1 112 2.909
29 FP1 113 4.862
29 FP1 114 7.304
29 FP1 115 8.280
29 FP1 116 7.304
29 FP1 117 4.862
29 FP1 118 1.444
29 FP1 119 -1.485
29 FP1 120 -2.950
29 FP1 121 -3.438
29 FP1 122 -3.927
29 FP1 123 -5.391
29 FP1 124 -6.368
29 FP1 125 -5.880
29 FP1 126 -3.927
29 FP1 127 -0.997
29 FP1 128 1.933
29 FP1 129 3.886
29 FP1 130 4.862
29 FP1 131 5.351
29 FP1 132 5.351
29 FP1 133 4.862
29 FP1 134 3.886
29 FP1 135 2.421
29 FP1 136 1.933
29 FP1 137 2.421
29 FP1 138 3.398
29 FP1 139 2.909
29 FP1 140 0.468
29 FP1 141 -4.415
29 FP1 142 -9.298
29 FP1 143 -12.716
29 FP1 144 -14.181
29 FP1 145 -14.669
29 FP1 146 -16.622
29 FP1 147 -20.040
29 FP1 148 -23.946
29 FP1 149 -26.388
29 FP1 150 -23.946
29 FP1 151 -17.598
29 FP1 152 -9.786
29 FP1 153 -3.927
29 FP1 154 -3.927
29 FP1 155 -8.321
29 FP1 156 -13.204
29 FP1 157 -14.181
29 FP1 158 -10.274
29 FP1 159 -4.903
29 FP1 160 -1.973
29 FP1 161 -3.438
29 FP1 162 -8.809
29 FP1 163 -14.181
29 FP1 164 -16.134
29 FP1 165 -15.157
29 FP1 166 -13.692
29 FP1 167 -12.227
29 FP1 168 -11.739
29 FP1 169 -10.274
29 FP1 170 -8.809
29 FP1 171 -7.345
29 FP1 172 -8.321
29 FP1 173 -12.227
29 FP1 174 -17.598
29 FP1 175 -20.040
29 FP1 176 -18.087
29 FP1 177 -12.716
29 FP1 178 -5.391
29 FP1 179 -0.509
29 FP1 180 0.956
29 FP1 181 -0.020
29 FP1 182 -1.973
29 FP1 183 -3.927
29 FP1 184 -4.903
29 FP1 185 -5.880
29 FP1 186 -6.856
29 FP1 187 -8.321
29 FP1 188 -9.786
29 FP1 189 -12.227
29 FP1 190 -14.181
29 FP1 191 -15.157
29 FP1 192 -14.669
29 FP1 193 -12.716
29 FP1 194 -10.274
29 FP1 195 -8.809
29 FP1 196 -8.321
29 FP1 197 -8.321
29 FP1 198 -7.833
29 FP1 199 -6.368
29 FP1 200 -4.415
29 FP1 201 -3.927
29 FP1 202 -5.391
29 FP1 203 -7.833
29 FP1 204 -10.274
29 FP1 205 -11.251
29 FP1 206 -11.739
29 FP1 207 -11.739
29 FP1 208 -12.227
29 FP1 209 -13.204
29 FP1 210 -12.716
29 FP1 211 -10.763
29 FP1 212 -7.833
29 FP1 213 -4.903
29 FP1 214 -4.903
29 FP1 215 -7.345
29 FP1 216 -10.763
29 FP1 217 -13.204
29 FP1 218 -13.204
29 FP1 219 -11.739
29 FP1 220 -10.274
29 FP1 221 -10.274
29 FP1 222 -11.739
29 FP1 223 -13.204
29 FP1 224 -11.739
29 FP1 225 -7.833
29 FP1 226 -2.950
29 FP1 227 -0.997
29 FP1 228 -2.950
29 FP1 229 -7.833
29 FP1 230 -12.227
29 FP1 231 -13.204
29 FP1 232 -9.298
29 FP1 233 -3.438
29 FP1 234 1.933
29 FP1 235 2.421
29 FP1 236 -0.997
29 FP1 237 -6.856
29 FP1 238 -10.763
29 FP1 239 -9.786
29 FP1 240 -3.927
29 FP1 241 3.398
29 FP1 242 8.280
29 FP1 243 7.792
29 FP1 244 2.421
29 FP1 245 -3.438
29 FP1 246 -7.345
29 FP1 247 -8.809
29 FP1 248 -9.298
29 FP1 249 -10.763
29 FP1 250 -13.204
29 FP1 251 -15.645
29 FP1 252 -16.134
29 FP1 253 -14.669
29 FP1 254 -13.204
29 FP1 255 -12.716
# FP2 chan 1
29 FP2 0 -14.058
29 FP2 1 -6.246
29 FP2 2 0.590
29 FP2 3 2.055
29 FP2 4 -2.828
29 FP2 5 -10.152
29 FP2 6 -15.035
29 FP2 7 -16.012
29 FP2 8 -13.082
29 FP2 9 -9.664
29 FP2 10 -6.734
29 FP2 11 -5.269
29 FP2 12 -3.805
29 FP2 13 -1.363
29 FP2 14 1.567
29 FP2 15 4.985
29 FP2 16 7.914
29 FP2 17 10.356
29 FP2 18 12.309
29 FP2 19 12.797
29 FP2 20 10.356
29 FP2 21 5.961
29 FP2 22 1.078
29 FP2 23 -2.828
29 FP2 24 -4.293
29 FP2 25 -2.340
29 FP2 26 1.567
29 FP2 27 5.473
29 FP2 28 7.914
29 FP2 29 8.403
29 FP2 30 6.449
29 FP2 31 3.031
29 FP2 32 -0.875
29 FP2 33 -3.805
29 FP2 34 -3.805
29 FP2 35 -1.363
29 FP2 36 3.520
29 FP2 37 7.914
29 FP2 38 10.356
29 FP2 39 9.867
29 FP2 40 7.914
29 FP2 41 5.961
29 FP2 42 5.473
29 FP2 43 5.961
29 FP2 44 6.938
29 FP2 45 7.426
29 FP2 46 7.426
29 FP2 47 7.426
29 FP2 48 7.914
29 FP2 49 8.891
29 FP2 50 7.914
29 FP2 51 4.985
29 FP2 52 0.590
29 FP2 53 -3.805
29 FP2 54 -5.269
29 FP2 55 -4.293
29 FP2 56 -1.363
29 FP2 57 1.567
29 FP2 58 3.031
29 FP2 59 4.008
29 FP2 60 4.496
29 FP2 61 5.961
29 FP2 62 6.449
29 FP2 63 5.473
29 FP2 64 3.031
29 FP2 65 2.055
29 FP2 66 4.496
29 FP2 67 11.332
29 FP2 68 18.168
29 FP2 69 22.074
29 FP2 70 19.145
29 FP2 71 10.844
29 FP2 72 2.543
29 FP2 73 -2.340
29 FP2 74 -1.363
29 FP2 75 3.031
29 FP2 76 5.961
29 FP2 77 5.473
29 FP2 78 2.543
29 FP2 79 0.102
29 FP2 80 1.567
29 FP2 81 7.914
29 FP2 82 14.750
29 FP2 83 19.145
29 FP2 84 18.168
29 FP2 85 13.285
29 FP2 86 6.938
29 FP2 87 3.520
29 FP2 88 4.496
29 FP2 89 8.891
29 FP2 90 12.797
29 FP2 91 13.285
29 FP2 92 9.867
29 FP2 93 4.496
29 FP2 94 -0.387
29 FP2 95 -2.828
29 FP2 96 -1.363
29 FP2 97 1.567
29 FP2 98 3.520
29 FP2 99 3.520
29 FP2 100 0.590
29 FP2 101 -4.781
29 FP2 102 -11.129
29 FP2 103 -15.523
29 FP2 104 -16.012
29 FP2 105 -12.105
29 FP2 106 -5.269
29 FP2 107 1.567
29 FP2 108 5.473
29 FP2 109 5.473
29 FP2 110 3.031
29 FP2 111 2.055
29 FP2 112 3.520
29 FP2 113 8.403
29 FP2 114 13.285
29 FP2 115 15.727
29 FP2 116 14.262
29 FP2 117 10.356
29 FP2 118 5.961
29 FP2 119 3.520
29 FP2 120 2.055
29 FP2 121 0.102
29 FP2 122 -2.828
29 FP2 123 -5.269
29 FP2 124 -5.758
29 FP2 125 -3.316
29 FP2 126 1.567
29 FP2 127 5.473
29 FP2 128 5.473
29 FP2 129 1.567
29 FP2 130 -3.316
29 FP2 131 -5.758
29 FP2 132 -4.293
29 FP2 133 1.567
29 FP2 134 7.914
29 FP2 135 12.309
29 FP2 136 13.774
29 FP2 137 12.309
29 FP2 138 9.379
29 FP2 139 6.938
29 FP2 140 4.496
29 FP2 141 2.055
29 FP2 142 -0.875
29 FP2 143 -3.316
29 FP2 144 -5.758
29 FP2 145 -8.199
29 FP2 146 -11.129
29 FP2 147 -15.523
29 FP2 148 -20.406
29 FP2 149 -22.847
29 FP2 150 -20.894
29 FP2 151 -14.058
29 FP2 152 -6.246
29 FP2 153 -2.340
29 FP2 154 -4.293
29 FP2 155 -9.664
29 FP2 156 -14.058
29 FP2 157 -13.082
29 FP2 158 -7.222
29 FP2 159 -0.875
29 FP2 160 2.055
29 FP2 161 0.590
29 FP2 162 -4.293
29 FP2 163 -7.711
29 FP2 164 -9.176
29 FP2 165 -10.152
29 FP2 166 -11.129
29 FP2 167 -12.105
29 FP2 168 -11.617
29 FP2 169 -7.711
29 FP2 170 -2.340
29 FP2 171 1.078
29 FP2 172 0.102
29 FP2 173 -4.293
29 FP2 174 -9.176
29 FP2 175 -11.129
29 FP2 176 -9.664
29 FP2 177 -5.758
29 FP2 178 -2.340
29 FP2 179 0.102
29 FP2 180 2.055
29 FP2 181 4.985
29 FP2 182 7.914
29 FP2 183 10.844
29 FP2 184 10.844
29 FP2 185 8.891
29 FP2 186 4.985
29 FP2 187 0.590
29 FP2 188 -2.340
29 FP2 189 -3.805
29 FP2 190 -4.293
29 FP2 191 -3.316
29 FP2 192 -2.340
29 FP2 193 -0.387
29 FP2 194 0.590
29 FP2 195 1.078
29 FP2 196 1.567
29 FP2 197 2.055
29 FP2 198 2.543
29 FP2 199 3.520
29 FP2 200 3.520
29 FP2 201 3.031
29 FP2 202 2.055
29 FP2 203 2.055
29 FP2 204 3.520
29 FP2 205 4.496
29 FP2 206 4.496
29 FP2 207 3.031
29 FP2 208 0.590
29 FP2 209 0.102
29 FP2 210 1.078
29 FP2 211 3.031
29 FP2 212 4.008
29 FP2 213 3.520
29 FP2 214 1.567
29 FP2 215 -0.875
29 FP2 216 -2.340
29 FP2 217 -2.828
29 FP2 218 -3.316
29 FP2 219 -4.293
29 FP2 220 -3.805
29 FP2 221 -0.875
29 FP2 222 3.031
29 FP2 223 6.449
29 FP2 224 8.403
29 FP2 225 6.938
29 FP2 226 4.496
29 FP2 227 1.078
29 FP2 228 -0.875
29 FP2 229 -1.363
29 FP2 230 -0.875
29 FP2 231 1.078
29 FP2 232 3.031
29 FP2 233 5.473
29 FP2 234 6.449
29 FP2 235 6.449
29 FP2 236 4.985
29 FP2 237 4.008
29 FP2 238 5.473
29 FP2 239 9.379
29 FP2 240 14.750
29 FP2 241 18.168
29 FP2 242 17.192
29 FP2 243 12.797
29 FP2 244 6.938
29 FP2 245 2.543
29 FP2 246 0.590
29 FP2 247 0.590
29 FP2 248 0.102
29 FP2 249 -1.363
29 FP2 250 -3.316
29 FP2 251 -3.805
29 FP2 252 -3.805
29 FP2 253 -3.805
29 FP2 254 -3.805
29 FP2 255 -3.805
# F7 chan 2
29 F7 0 3.235
29 F7 1 3.723
29 F7 2 3.723
29 F7 3 4.211
29 F7 4 4.700
29 F7 5 3.723
29 F7 6 0.793
29 F7 7 -3.113
29 F7 8 -6.042
29 F7 9 -6.042
29 F7 10 -3.113
29 F7 11 2.258
29 F7 12 6.165
29 F7 13 8.118
29 F7 14 9.094
29 F7 15 10.559
29 F7 16 12.512
29 F7 17 13.489
29 F7 18 12.024
29 F7 19 7.141
29 F7 20 0.793
29 F7 21 -4.089
29 F7 22 -7.019
29 F7 23 -7.996
29 F7 24 -8.972
29 F7 25 -10.437
29 F7 26 -12.390
29 F7 27 -12.878
29 F7 28 -11.414
29 F7 29 -9.460
29 F7 30 -7.507
29 F7 31 -7.507
29 F7 32 -8.972
29 F7 33 -10.437
29 F7 34 -10.925
29 F7 35 -8.972
29 F7 36 -5.066
29 F7 37 -1.160
29 F7 38 1.770
29 F7 39 2.747
29 F7 40 3.723
29 F7 41 5.188
29 F7 42 8.606
29 F7 43 12.024
29 F7 44 13.000
29 F7 45 10.071
29 F7 46 2.747
29 F7 47 -5.066
29 F7 48 -10.925
29 F7 49 -11.414
29 F7 50 -8.972
29 F7 51 -7.019
29 F7 52 -7.996
29 F7 53 -11.902
29 F7 54 -15.808
29 F7 55 -17.761
29 F7 56 -16.785
29 F7 57 -14.343
29 F7 58 -11.414
29 F7 59 -8.484
29 F7 60 -4.578
29 F7 61 -1.160
29 F7 62 -0.183
29 F7 63 -2.136
29 F7 64 -5.066
29 F7 65 -7.507
29 F7 66 -5.066
29 F7 67 0.305
29 F7 68 4.700
29 F7 69 4.211
29 F7 70 -3.113
29 F7 71 -11.414
29 F7 72 -16.296
29 F7 73 -12.878
29 F7 74 -3.601
29 F7 75 4.211
29 F7 76 6.165
29 F7 77 0.793
29 F7 78 -7.019
29 F7 79 -10.925
29 F7 80 -8.484
29 F7 81 -1.648
29 F7 82 4.211
29 F7 83 5.676
29 F7 84 2.747
29 F7 85 -1.160
29 F7 86 -4.089
29 F7 87 -3.113
29 F7 88 -0.183
29 F7 89 3.235
29 F7 90 4.700
29 F7 91 4.211
29 F7 92 0.793
29 F7 93 -4.089
29 F7 94 -9.460
29 F7 95 -13.367
29 F7 96 -14.832
29 F7 97 -14.343
29 F7 98 -13.855
29 F7 99 -13.367
29 F7 100 -13.367
29 F7 101 -13.367
29 F7 102 -12.878
29 F7 103 -11.902
29 F7 104 -12.390
29 F7 105 -12.878
29 F7 106 -13.367
29 F7 107 -11.414
29 F7 108 -7.507
29 F7 109 -2.625
29 F7 110 0.793
29 F7 111 1.282
29 F7 112 -0.183
29 F7 113 -2.136
29 F7 114 -1.648
29 F7 115 1.282
29 F7 116 3.723
29 F7 117 4.211
29 F7 118 0.793
29 F7 119 -4.089
29 F7 120 -8.972
29 F7 121 -9.949
29 F7 122 -7.019
29 F7 123 -1.648
29 F7 124 2.747
29 F7 125 4.700
29 F7 126 3.723
29 F7 127 3.235
29 F7 128 5.676
29 F7 129 10.559
29 F7 130 14.954
29 F7 131 14.954
29 F7 132 10.071
29 F7 133 1.282
29 F7 134 -4.578
29 F7 135 -4.089
29 F7 136 2.747
29 F7 137 11.047
29 F7 138 13.977
29 F7 139 10.071
29 F7 140 0.793
29 F7 141 -7.019
29 F7 142 -8.484
29 F7 143 -4.578
29 F7 144 -0.183
29 F7 145 -0.183
29 F7 146 -5.554
29 F7 147 -12.390
29 F7 148 -16.296
29 F7 149 -14.343
29 F7 150 -7.507
29 F7 151 -0.671
29 F7 152 2.258
29 F7 153 0.793
29 F7 154 -3.113
29 F7 155 -5.066
29 F7 156 -3.113
29 F7 157 3.235
29 F7 158 11.536
29 F7 159 17.395
29 F7 160 17.883
29 F7 161 13.489
29 F7 162 5.676
29 F7 163 -1.160
29 F7 164 -4.089
29 F7 165 -5.066
29 F7 166 -5.066
29 F7 167 -7.019
29 F7 168 -8.972
29 F7 169 -8.484
29 F7 170 -4.089
29 F7 171 2.258
29 F7 172 6.653
29 F7 173 6.165
29 F7 174 1.282
29 F7 175 -3.601
29 F7 176 -3.601
29 F7 177 1.770
29 F7 178 10.071
29 F7 179 15.930
29 F7 180 17.395
29 F7 181 15.442
29 F7 182 12.024
29 F7 183 10.071
29 F7 184 9.094
29 F7 185 10.071
29 F7 186 11.047
29 F7 187 11.536
29 F7 188 12.024
29 F7 189 11.536
29 F7 190 10.071
29 F7 191 7.629
29 F7 192 5.188
29 F7 193 4.700
29 F7 194 5.188
29 F7 195 7.141
29 F7 196 9.094
29 F7 197 11.536
29 F7 198 13.489
29 F7 199 15.930
29 F7 200 16.907
29 F7 201 15.442
29 F7 202 11.536
29 F7 203 6.165
29 F7 204 1.770
29 F7 205 0.305
29 F7 206 1.282
29 F7 207 2.258
29 F7 208 3.235
29 F7 209 3.235
29 F7 210 3.723
29 F7 211 4.700
29 F7 212 7.141
29 F7 213 8.606
29 F7 214 8.606
29 F7 215 7.629
29 F7 216 5.676
29 F7 217 4.211
29 F7 218 4.211
29 F7 219 5.188
29 F7 220 7.141
29 F7 221 10.071
29 F7 222 12.512
29 F7 223 14.465
29 F7 224 15.442
29 F7 225 16.907
29 F7 226 17.395
29 F7 227 17.395
29 F7 228 15.930
29 F7 229 11.536
29 F7 230 6.165
29 F7 231 1.770
29 F7 232 1.770
29 F7 233 5.676
29 F7 234 11.536
29 F7 235 14.954
29 F7 236 13.489
29 F7 237 9.094
29 F7 238 3.723
29 F7 239 2.747
29 F7 240 5.676
29 F7 241 11.536
29 F7 242 16.418
29 F7 243 18.860
29 F7 244 18.860
29 F7 245 17.395
29 F7 246 15.442
29 F7 247 13.000
29 F7 248 10.559
29 F7 249 6.653
29 F7 250 4.211
29 F7 251 2.747
29 F7 252 2.258
29 F7 253 2.258
29 F7 254 1.770
29 F7 255 2.258
# F8 chan 3
29 F8 0 -3.835
29 F8 1 0.559
29 F8 2 3.001
29 F8 3 1.048
29 F8 4 -4.812
29 F8 5 -11.648
29 F8 6 -15.066
29 F8 7 -14.089
29 F8 8 -9.694
29 F8 9 -4.812
29 F8 10 -1.882
29 F8 11 -1.882
29 F8 12 -3.347
29 F8 13 -3.835
29 F8 14 -1.882
29 F8 15 2.024
29 F8 16 7.884
29 F8 17 12.767
29 F8 18 16.184
29 F8 19 16.673
29 F8 20 14.720
29 F8 21 9.837
29 F8 22 4.466
29 F8 23 -0.417
29 F8 24 -2.370
29 F8 25 -1.394
29 F8 26 3.001
29 F8 27 7.884
29 F8 28 11.302
29 F8 29 10.325
29 F8 30 5.442
29 F8 31 -0.905
29 F8 32 -5.300
29 F8 33 -5.788
29 F8 34 -2.858
29 F8 35 0.071
29 F8 36 0.071
29 F8 37 -2.858
29 F8 38 -5.788
29 F8 39 -6.276
29 F8 40 -2.858
29 F8 41 2.024
29 F8 42 5.442
29 F8 43 5.442
29 F8 44 2.513
29 F8 45 0.071
29 F8 46 1.048
29 F8 47 4.466
29 F8 48 8.860
29 F8 49 10.325
29 F8 50 7.884
29 F8 51 3.977
29 F8 52 2.024
29 F8 53 2.513
29 F8 54 4.466
29 F8 55 3.977
29 F8 56 1.536
29 F8 57 -0.905
29 F8 58 -0.417
29 F8 59 4.954
29 F8 60 11.302
29 F8 61 14.231
29 F8 62 10.325
29 F8 63 2.513
29 F8 64 -5.300
29 F8 65 -8.230
29 F8 66 -4.812
29 F8 67 1.048
29 F8 68 4.954
29 F8 69 5.442
29 F8 70 2.513
29 F8 71 -1.394
29 F8 72 -4.812
29 F8 73 -6.276
29 F8 74 -6.276
29 F8 75 -5.788
29 F8 76 -6.276
29 F8 77 -6.276
29 F8 78 -5.788
29 F8 79 -3.835
29 F8 80 -0.417
29 F8 81 3.001
29 F8 82 4.466
29 F8 83 3.489
29 F8 84 -0.905
29 F8 85 -6.765
29 F8 86 -10.183
29 F8 87 -9.206
29 F8 88 -3.347
29 F8 89 3.977
29 F8 90 9.349
29 F8 91 9.349
29 F8 92 3.977
29 F8 93 -3.347
29 F8 94 -8.718
29 F8 95 -9.206
29 F8 96 -6.276
29 F8 97 -1.394
29 F8 98 1.536
29 F8 99 1.536
29 F8 100 -2.858
29 F8 101 -9.694
29 F8 102 -17.019
29 F8 103 -22.390
29 F8 104 -22.390
29 F8 105 -17.507
29 F8 106 -10.183
29 F8 107 -3.347
29 F8 108 1.048
29 F8 109 1.536
29 F8 110 0.559
29 F8 111 0.559
29 F8 112 2.513
29 F8 113 4.954
29 F8 114 6.907
29 F8 115 7.395
29 F8 116 5.931
29 F8 117 4.466
29 F8 118 3.489
29 F8 119 3.001
29 F8 120 1.048
29 F8 121 -2.858
29 F8 122 -8.718
29 F8 123 -12.624
29 F8 124 -13.112
29 F8 125 -9.206
29 F8 126 -1.394
29 F8 127 5.442
29 F8 128 7.395
29 F8 129 3.977
29 F8 130 -1.882
29 F8 131 -6.276
29 F8 132 -5.300
29 F8 133 1.048
29 F8 134 8.860
29 F8 135 13.743
29 F8 136 12.278
29 F8 137 6.907
29 F8 138 1.536
29 F8 139 -0.905
29 F8 140 0.559
29 F8 141 2.513
29 F8 142 1.536
29 F8 143 -2.370
29 F8 144 -8.230
29 F8 145 -12.136
29 F8 146 -14.089
29 F8 147 -16.530
29 F8 148 -19.460
29 F8 149 -22.390
29 F8 150 -21.901
29 F8 151 -16.042
29 F8 152 -6.276
29 F8 153 1.048
29 F8 154 1.048
29 F8 155 -5.300
29 F8 156 -13.112
29 F8 157 -16.042
29 F8 158 -13.112
29 F8 159 -7.741
29 F8 160 -5.300
29 F8 161 -6.765
29 F8 162 -10.183
29 F8 163 -11.648
29 F8 164 -10.671
29 F8 165 -9.694
29 F8 166 -11.648
29 F8 167 -15.554
29 F8 168 -17.019
29 F8 169 -14.089
29 F8 170 -7.253
29 F8 171 -1.882
29 F8 172 -2.370
29 F8 173 -7.741
29 F8 174 -15.066
29 F8 175 -17.995
29 F8 176 -15.554
29 F8 177 -8.718
29 F8 178 -1.882
29 F8 179 3.489
29 F8 180 7.395
29 F8 181 10.813
29 F8 182 13.255
29 F8 183 13.255
29 F8 184 10.813
29 F8 185 6.907
29 F8 186 4.466
29 F8 187 3.977
29 F8 188 6.419
29 F8 189 8.860
29 F8 190 9.837
29 F8 191 9.349
29 F8 192 7.395
29 F8 193 4.954
29 F8 194 2.513
29 F8 195 0.559
29 F8 196 -0.905
29 F8 197 -0.905
29 F8 198 0.071
29 F8 199 2.513
29 F8 200 4.466
29 F8 201 4.466
29 F8 202 1.048
29 F8 203 -5.300
29 F8 204 -10.671
29 F8 205 -13.601
29 F8 206 -11.648
29 F8 207 -5.788
29 F8 208 1.536
29 F8 209 6.907
29 F8 210 7.395
29 F8 211 4.466
29 F8 212 0.559
29 F8 213 -2.370
29 F8 214 -2.858
29 F8 215 -1.394
29 F8 216 -0.905
29 F8 217 -2.370
29 F8 218 -5.300
29 F8 219 -7.741
29 F8 220 -8.230
29 F8 221 -5.300
29 F8 222 -0.905
29 F8 223 3.489
29 F8 224 6.419
29 F8 225 6.907
29 F8 226 5.442
29 F8 227 1.536
29 F8 228 -3.347
29 F8 229 -8.230
29 F8 230 -11.648
29 F8 231 -11.648
29 F8 232 -8.718
29 F8 233 -4.812
29 F8 234 -2.370
29 F8 235 -2.370
29 F8 236 -4.812
29 F8 237 -5.300
29 F8 238 -3.347
29 F8 239 1.536
29 F8 240 6.907
29 F8 241 9.837
29 F8 242 9.837
29 F8 243 7.395
29 F8 244 4.466
29 F8 245 2.024
29 F8 246 -0.417
29 F8 247 -2.858
29 F8 248 -5.788
29 F8 249 -8.718
29 F8 250 -10.183
29 F8 251 -10.183
29 F8 252 -9.694
29 F8 253 -9.694
29 F8 254 -10.671
29 F8 255 -12.136
# AF1 chan 4
29 AF1 0 -4.079
29 AF1 1 -3.591
29 AF1 2 -2.614
29 AF1 3 -1.638
29 AF1 4 -1.638
29 AF1 5 -3.103
29 AF1 6 -6.032
29 AF1 7 -9.450
29 AF1 8 -11.892
29 AF1 9 -12.380
29 AF1 10 -11.403
29 AF1 11 -8.962
29 AF1 12 -5.544
29 AF1 13 -2.614
29 AF1 14 -0.173
29 AF1 15 2.757
29 AF1 16 5.686
29 AF1 17 8.128
29 AF1 18 9.104
29 AF1 19 8.128
29 AF1 20 4.222
29 AF1 21 -0.173
29 AF1 22 -4.567
29 AF1 23 -7.009
29 AF1 24 -7.985
29 AF1 25 -6.521
29 AF1 26 -4.567
29 AF1 27 -2.614
29 AF1 28 -2.126
29 AF1 29 -3.103
29 AF1 30 -4.567
29 AF1 31 -6.521
29 AF1 32 -7.497
29 AF1 33 -7.497
29 AF1 34 -6.521
29 AF1 35 -4.079
29 AF1 36 -2.126
29 AF1 37 0.315
29 AF1 38 1.780
29 AF1 39 2.268
29 AF1 40 2.757
29 AF1 41 3.245
29 AF1 42 4.222
29 AF1 43 6.175
29 AF1 44 7.151
29 AF1 45 6.663
29 AF1 46 5.198
29 AF1 47 2.757
29 AF1 48 0.804
29 AF1 49 -0.173
29 AF1 50 -0.173
29 AF1 51 -0.173
29 AF1 52 -1.149
29 AF1 53 -4.079
29 AF1 54 -7.985
29 AF1 55 -10.915
29 AF1 56 -11.892
29 AF1 57 -10.915
29 AF1 58 -7.985
29 AF1 59 -4.567
29 AF1 60 -2.126
29 AF1 61 -0.661
29 AF1 62 -0.661
29 AF1 63 -1.149
29 AF1 64 -1.149
29 AF1 65 -0.173
29 AF1 66 2.268
29 AF1 67 6.175
29 AF1 68 9.593
29 AF1 69 11.058
29 AF1 70 9.104
29 AF1 71 5.198
29 AF1 72 1.292
29 AF1 73 -0.173
29 AF1 74 1.292
29 AF1 75 4.710
29 AF1 76 7.640
29 AF1 77 8.128
29 AF1 78 6.663
29 AF1 79 4.710
29 AF1 80 4.222
29 AF1 81 5.686
29 AF1 82 8.128
29 AF1 83 9.593
29 AF1 84 10.081
29 AF1 85 9.593
29 AF1 86 7.640
29 AF1 87 7.151
29 AF1 88 7.640
29 AF1 89 9.593
29 AF1 90 10.569
29 AF1 91 10.569
29 AF1 92 7.640
29 AF1 93 3.733
29 AF1 94 -0.661
29 AF1 95 -3.103
29 AF1 96 -2.126
29 AF1 97 0.315
29 AF1 98 3.245
29 AF1 99 3.733
29 AF1 100 1.780
29 AF1 101 -2.614
29 AF1 102 -7.009
29 AF1 103 -8.962
29 AF1 104 -8.474
29 AF1 105 -6.032
29 AF1 106 -2.614
29 AF1 107 0.315
29 AF1 108 2.268
29 AF1 109 2.757
29 AF1 110 3.245
29 AF1 111 4.710
29 AF1 112 6.175
29 AF1 113 8.616
29 AF1 114 10.569
29 AF1 115 11.058
29 AF1 116 9.593
29 AF1 117 6.663
29 AF1 118 3.733
29 AF1 119 1.780
29 AF1 120 -0.661
29 AF1 121 -3.103
29 AF1 122 -5.056
29 AF1 123 -6.521
29 AF1 124 -7.009
29 AF1 125 -5.544
29 AF1 126 -3.103
29 AF1 127 -0.661
29 AF1 128 1.292
29 AF1 129 2.268
29 AF1 130 2.757
29 AF1 131 3.245
29 AF1 132 4.222
29 AF1 133 5.198
29 AF1 134 5.686
29 AF1 135 5.198
29 AF1 136 4.222
29 AF1 137 3.733
29 AF1 138 2.757
29 AF1 139 1.292
29 AF1 140 -0.661
29 AF1 141 -3.103
29 AF1 142 -6.521
29 AF1 143 -8.962
29 AF1 144 -11.403
29 AF1 145 -13.357
29 AF1 146 -15.310
29 AF1 147 -17.263
29 AF1 148 -18.239
29 AF1 149 -17.751
29 AF1 150 -15.310
29 AF1 151 -11.403
29 AF1 152 -7.009
29 AF1 153 -4.079
29 AF1 154 -3.103
29 AF1 155 -3.591
29 AF1 156 -5.056
29 AF1 157 -5.056
29 AF1 158 -2.614
29 AF1 159 0.315
29 AF1 160 2.268
29 AF1 161 1.292
29 AF1 162 -2.126
29 AF1 163 -7.009
29 AF1 164 -10.427
29 AF1 165 -11.403
29 AF1 166 -10.915
29 AF1 167 -9.939
29 AF1 168 -8.474
29 AF1 169 -7.009
29 AF1 170 -7.009
29 AF1 171 -7.009
29 AF1 172 -7.985
29 AF1 173 -9.939
29 AF1 174 -11.892
29 AF1 175 -12.868
29 AF1 176 -12.380
29 AF1 177 -9.939
29 AF1 178 -6.521
29 AF1 179 -3.103
29 AF1 180 -1.149
29 AF1 181 -0.173
29 AF1 182 -0.661
29 AF1 183 -1.638
29 AF1 184 -3.103
29 AF1 185 -4.079
29 AF1 186 -5.056
29 AF1 187 -5.544
29 AF1 188 -7.009
29 AF1 189 -9.450
29 AF1 190 -12.868
29 AF1 191 -15.798
29 AF1 192 -16.774
29 AF1 193 -15.310
29 AF1 194 -12.380
29 AF1 195 -8.962
29 AF1 196 -7.009
29 AF1 197 -6.032
29 AF1 198 -5.056
29 AF1 199 -4.567
29 AF1 200 -3.103
29 AF1 201 -2.614
29 AF1 202 -3.103
29 AF1 203 -5.056
29 AF1 204 -7.009
29 AF1 205 -7.497
29 AF1 206 -7.009
29 AF1 207 -7.009
29 AF1 208 -7.497
29 AF1 209 -8.962
29 AF1 210 -9.939
29 AF1 211 -9.939
29 AF1 212 -8.962
29 AF1 213 -7.009
29 AF1 214 -7.009
29 AF1 215 -8.962
29 AF1 216 -11.403
29 AF1 217 -13.845
29 AF1 218 -14.333
29 AF1 219 -13.845
29 AF1 220 -11.892
29 AF1 221 -10.427
29 AF1 222 -8.962
29 AF1 223 -7.497
29 AF1 224 -5.544
29 AF1 225 -3.103
29 AF1 226 -1.149
29 AF1 227 -1.149
29 AF1 228 -2.614
29 AF1 229 -5.544
29 AF1 230 -7.497
29 AF1 231 -7.009
29 AF1 232 -4.079
29 AF1 233 -0.661
29 AF1 234 2.268
29 AF1 235 2.757
29 AF1 236 0.804
29 AF1 237 -2.126
29 AF1 238 -4.079
29 AF1 239 -4.079
29 AF1 240 -1.638
29 AF1 241 2.757
29 AF1 242 5.198
29 AF1 243 5.198
29 AF1 244 2.757
29 AF1 245 -2.126
29 AF1 246 -6.032
29 AF1 247 -8.474
29 AF1 248 -10.427
29 AF1 249 -11.403
29 AF1 250 -12.868
29 AF1 251 -13.845
29 AF1 252 -13.357
29 AF1 253 -12.380
29 AF1 254 -10.915
29 AF1 255 -9.939
# AF2 chan 5
29 AF2 0 -2.268
29 AF2 1 -0.804
29 AF2 2 0.661
29 AF2 3 1.638
29 AF2 4 0.661
29 AF2 5 -2.268
29 AF2 6 -6.175
29 AF2 7 -9.104
29 AF2 8 -10.081
29 AF2 9 -9.104
29 AF2 10 -5.686
29 AF2 11 -2.268
29 AF2 12 1.149
29 AF2 13 4.079
29 AF2 14 6.032
29 AF2 15 8.962
29 AF2 16 11.892
29 AF2 17 14.333
29 AF2 18 15.310
29 AF2 19 14.333
29 AF2 20 10.427
29 AF2 21 5.544
29 AF2 22 0.661
29 AF2 23 -2.268
29 AF2 24 -2.268
29 AF2 25 -0.804
29 AF2 26 1.149
29 AF2 27 2.614
29 AF2 28 3.103
29 AF2 29 1.638
29 AF2 30 0.173
29 AF2 31 -1.292
29 AF2 32 -2.757
29 AF2 33 -3.245
29 AF2 34 -2.757
29 AF2 35 -1.292
29 AF2 36 -0.315
29 AF2 37 1.149
29 AF2 38 2.126
29 AF2 39 2.614
29 AF2 40 3.591
29 AF2 41 4.567
29 AF2 42 5.544
29 AF2 43 7.009
29 AF2 44 7.009
29 AF2 45 6.521
29 AF2 46 5.544
29 AF2 47 4.567
29 AF2 48 4.079
29 AF2 49 3.591
29 AF2 50 3.103
29 AF2 51 2.614
29 AF2 52 1.149
29 AF2 53 -0.315
29 AF2 54 -0.804
29 AF2 55 -1.292
29 AF2 56 -1.780
29 AF2 57 -1.780
29 AF2 58 -1.292
29 AF2 59 -0.804
29 AF2 60 0.661
29 AF2 61 1.149
29 AF2 62 1.638
29 AF2 63 0.173
29 AF2 64 -1.292
29 AF2 65 -1.780
29 AF2 66 0.173
29 AF2 67 4.079
29 AF2 68 8.474
29 AF2 69 9.939
29 AF2 70 8.474
29 AF2 71 5.544
29 AF2 72 2.614
29 AF2 73 2.614
29 AF2 74 4.079
29 AF2 75 6.032
29 AF2 76 6.032
29 AF2 77 4.079
29 AF2 78 2.614
29 AF2 79 2.614
29 AF2 80 4.567
29 AF2 81 7.497
29 AF2 82 10.427
29 AF2 83 11.403
29 AF2 84 9.939
29 AF2 85 7.497
29 AF2 86 5.544
29 AF2 87 4.567
29 AF2 88 5.544
29 AF2 89 8.962
29 AF2 90 11.892
29 AF2 91 13.845
29 AF2 92 13.845
29 AF2 93 11.403
29 AF2 94 7.009
29 AF2 95 3.103
29 AF2 96 2.126
29 AF2 97 3.591
29 AF2 98 6.521
29 AF2 99 7.497
29 AF2 100 4.567
29 AF2 101 -1.292
29 AF2 102 -7.640
29 AF2 103 -11.546
29 AF2 104 -11.058
29 AF2 105 -7.151
29 AF2 106 -1.292
29 AF2 107 2.614
29 AF2 108 4.079
29 AF2 109 4.079
29 AF2 110 4.079
29 AF2 111 6.032
29 AF2 112 9.939
29 AF2 113 13.357
29 AF2 114 15.798
29 AF2 115 15.310
29 AF2 116 13.845
29 AF2 117 11.403
29 AF2 118 9.939
29 AF2 119 8.474
29 AF2 120 6.521
29 AF2 121 3.591
29 AF2 122 0.661
29 AF2 123 -1.780
29 AF2 124 -2.757
29 AF2 125 -1.780
29 AF2 126 0.173
29 AF2 127 2.126
29 AF2 128 2.614
29 AF2 129 2.614
29 AF2 130 2.126
29 AF2 131 2.614
29 AF2 132 4.079
29 AF2 133 6.521
29 AF2 134 8.474
29 AF2 135 9.939
29 AF2 136 10.427
29 AF2 137 9.450
29 AF2 138 7.985
29 AF2 139 6.032
29 AF2 140 4.079
29 AF2 141 2.126
29 AF2 142 0.661
29 AF2 143 -1.292
29 AF2 144 -3.733
29 AF2 145 -7.151
29 AF2 146 -11.546
29 AF2 147 -14.964
29 AF2 148 -16.917
29 AF2 149 -16.429
29 AF2 150 -12.522
29 AF2 151 -7.151
29 AF2 152 -1.292
29 AF2 153 1.638
29 AF2 154 1.149
29 AF2 155 -1.780
29 AF2 156 -4.710
29 AF2 157 -5.686
29 AF2 158 -3.733
29 AF2 159 -0.315
29 AF2 160 2.614
29 AF2 161 3.591
29 AF2 162 2.126
29 AF2 163 -1.292
29 AF2 164 -5.198
29 AF2 165 -7.151
29 AF2 166 -7.151
29 AF2 167 -5.686
29 AF2 168 -3.245
29 AF2 169 0.173
29 AF2 170 2.614
29 AF2 171 4.079
29 AF2 172 3.103
29 AF2 173 1.149
29 AF2 174 -1.780
29 AF2 175 -3.733
29 AF2 176 -4.710
29 AF2 177 -3.733
29 AF2 178 -1.292
29 AF2 179 1.149
29 AF2 180 4.079
29 AF2 181 6.521
29 AF2 182 7.497
29 AF2 183 7.497
29 AF2 184 5.544
29 AF2 185 2.614
29 AF2 186 -0.315
29 AF2 187 -2.757
29 AF2 188 -4.222
29 AF2 189 -5.198
29 AF2 190 -6.175
29 AF2 191 -7.151
29 AF2 192 -7.640
29 AF2 193 -7.151
29 AF2 194 -5.686
29 AF2 195 -3.245
29 AF2 196 -0.315
29 AF2 197 1.638
29 AF2 198 3.103
29 AF2 199 4.079
29 AF2 200 4.567
29 AF2 201 5.544
29 AF2 202 5.544
29 AF2 203 5.056
29 AF2 204 5.056
29 AF2 205 4.567
29 AF2 206 5.056
29 AF2 207 5.056
29 AF2 208 4.079
29 AF2 209 1.638
29 AF2 210 -0.804
29 AF2 211 -2.268
29 AF2 212 -2.757
29 AF2 213 -2.268
29 AF2 214 -1.292
29 AF2 215 -1.780
29 AF2 216 -4.222
29 AF2 217 -6.175
29 AF2 218 -8.128
29 AF2 219 -7.640
29 AF2 220 -5.198
29 AF2 221 -1.780
29 AF2 222 0.661
29 AF2 223 2.614
29 AF2 224 4.079
29 AF2 225 4.567
29 AF2 226 5.056
29 AF2 227 4.079
29 AF2 228 1.638
29 AF2 229 -0.804
29 AF2 230 -2.757
29 AF2 231 -1.780
29 AF2 232 1.638
29 AF2 233 5.544
29 AF2 234 8.474
29 AF2 235 8.474
29 AF2 236 6.032
29 AF2 237 4.079
29 AF2 238 3.591
29 AF2 239 5.544
29 AF2 240 8.474
29 AF2 241 11.403
29 AF2 242 12.380
29 AF2 243 11.892
29 AF2 244 9.450
29 AF2 245 7.009
29 AF2 246 4.079
29 AF2 247 1.638
29 AF2 248 -0.804
29 AF2 249 -3.733
29 AF2 250 -5.686
29 AF2 251 -7.151
29 AF2 252 -6.663
29 AF2 253 -5.198
29 AF2 254 -4.222
29 AF2 255 -3.733
# FZ chan 6
29 FZ 0 -1.333
29 FZ 1 -0.844
29 FZ 2 0.132
29 FZ 3 0.621
29 FZ 4 0.132
29 FZ 5 -1.333
29 FZ 6 -4.262
29 FZ 7 -7.192
29 FZ 8 -8.657
29 FZ 9 -9.145
29 FZ 10 -7.680
29 FZ 11 -5.727
29 FZ 12 -2.797
29 FZ 13 -0.844
29 FZ 14 1.597
29 FZ 15 3.550
29 FZ 16 5.992
29 FZ 17 7.456
29 FZ 18 7.945
29 FZ 19 6.968
29 FZ 20 3.550
29 FZ 21 -0.844
29 FZ 22 -4.751
29 FZ 23 -6.704
29 FZ 24 -6.215
29 FZ 25 -4.262
29 FZ 26 -2.309
29 FZ 27 -1.333
29 FZ 28 -1.821
29 FZ 29 -3.286
29 FZ 30 -4.751
29 FZ 31 -5.239
29 FZ 32 -5.239
29 FZ 33 -5.239
29 FZ 34 -4.262
29 FZ 35 -3.286
29 FZ 36 -2.797
29 FZ 37 -2.309
29 FZ 38 -1.821
29 FZ 39 -0.844
29 FZ 40 -0.356
29 FZ 41 1.109
29 FZ 42 2.085
29 FZ 43 2.574
29 FZ 44 3.062
29 FZ 45 2.574
29 FZ 46 1.597
29 FZ 47 0.621
29 FZ 48 0.621
29 FZ 49 0.621
29 FZ 50 0.621
29 FZ 51 -0.356
29 FZ 52 -2.797
29 FZ 53 -5.727
29 FZ 54 -8.657
29 FZ 55 -10.610
29 FZ 56 -11.587
29 FZ 57 -11.098
29 FZ 58 -10.122
29 FZ 59 -8.657
29 FZ 60 -7.192
29 FZ 61 -6.215
29 FZ 62 -6.215
29 FZ 63 -6.704
29 FZ 64 -7.192
29 FZ 65 -6.704
29 FZ 66 -4.262
29 FZ 67 -1.333
29 FZ 68 1.109
29 FZ 69 1.597
29 FZ 70 0.621
29 FZ 71 -1.821
29 FZ 72 -3.286
29 FZ 73 -3.286
29 FZ 74 -1.333
29 FZ 75 0.621
29 FZ 76 1.109
29 FZ 77 0.621
29 FZ 78 -0.356
29 FZ 79 -0.844
29 FZ 80 0.621
29 FZ 81 3.062
29 FZ 82 4.527
29 FZ 83 5.015
29 FZ 84 4.038
29 FZ 85 2.085
29 FZ 86 0.621
29 FZ 87 0.621
29 FZ 88 1.597
29 FZ 89 3.550
29 FZ 90 5.503
29 FZ 91 6.480
29 FZ 92 5.503
29 FZ 93 3.550
29 FZ 94 0.132
29 FZ 95 -1.821
29 FZ 96 -2.797
29 FZ 97 -2.309
29 FZ 98 -0.844
29 FZ 99 -0.356
29 FZ 100 -1.821
29 FZ 101 -4.751
29 FZ 102 -8.169
29 FZ 103 -10.122
29 FZ 104 -9.633
29 FZ 105 -6.704
29 FZ 106 -2.309
29 FZ 107 1.597
29 FZ 108 3.062
29 FZ 109 3.062
29 FZ 110 2.085
29 FZ 111 3.062
29 FZ 112 5.015
29 FZ 113 7.456
29 FZ 114 8.921
29 FZ 115 8.921
29 FZ 116 7.456
29 FZ 117 4.527
29 FZ 118 2.085
29 FZ 119 -0.356
29 FZ 120 -2.309
29 FZ 121 -4.262
29 FZ 122 -6.215
29 FZ 123 -6.704
29 FZ 124 -6.215
29 FZ 125 -4.262
29 FZ 126 -2.797
29 FZ 127 -2.309
29 FZ 128 -3.774
29 FZ 129 -5.239
29 FZ 130 -6.215
29 FZ 131 -5.239
29 FZ 132 -3.286
29 FZ 133 -0.356
29 FZ 134 2.085
29 FZ 135 3.550
29 FZ 136 3.550
29 FZ 137 2.085
29 FZ 138 0.132
29 FZ 139 -2.309
29 FZ 140 -4.262
29 FZ 141 -6.704
29 FZ 142 -9.145
29 FZ 143 -11.098
29 FZ 144 -13.540
29 FZ 145 -16.469
29 FZ 146 -18.422
29 FZ 147 -19.887
29 FZ 148 -19.887
29 FZ 149 -18.422
29 FZ 150 -15.981
29 FZ 151 -12.563
29 FZ 152 -9.145
29 FZ 153 -7.192
29 FZ 154 -6.215
29 FZ 155 -7.192
29 FZ 156 -7.680
29 FZ 157 -7.680
29 FZ 158 -5.727
29 FZ 159 -3.774
29 FZ 160 -1.821
29 FZ 161 -2.309
29 FZ 162 -4.751
29 FZ 163 -8.169
29 FZ 164 -11.098
29 FZ 165 -12.563
29 FZ 166 -12.563
29 FZ 167 -11.098
29 FZ 168 -9.145
29 FZ 169 -7.680
29 FZ 170 -6.704
29 FZ 171 -6.215
29 FZ 172 -6.215
29 FZ 173 -7.192
29 FZ 174 -8.657
29 FZ 175 -9.633
29 FZ 176 -10.122
29 FZ 177 -9.145
29 FZ 178 -7.680
29 FZ 179 -5.727
29 FZ 180 -4.262
29 FZ 181 -2.797
29 FZ 182 -2.309
29 FZ 183 -2.309
29 FZ 184 -3.286
29 FZ 185 -5.239
29 FZ 186 -7.192
29 FZ 187 -8.657
29 FZ 188 -10.610
29 FZ 189 -13.051
29 FZ 190 -15.004
29 FZ 191 -16.958
29 FZ 192 -17.446
29 FZ 193 -15.981
29 FZ 194 -13.051
29 FZ 195 -9.633
29 FZ 196 -7.680
29 FZ 197 -7.192
29 FZ 198 -7.192
29 FZ 199 -6.704
29 FZ 200 -5.239
29 FZ 201 -3.286
29 FZ 202 -2.309
29 FZ 203 -2.797
29 FZ 204 -3.286
29 FZ 205 -4.751
29 FZ 206 -4.751
29 FZ 207 -4.751
29 FZ 208 -5.239
29 FZ 209 -7.192
29 FZ 210 -10.122
29 FZ 211 -11.587
29 FZ 212 -11.587
29 FZ 213 -10.610
29 FZ 214 -9.145
29 FZ 215 -8.657
29 FZ 216 -9.633
29 FZ 217 -12.075
29 FZ 218 -13.051
29 FZ 219 -12.563
29 FZ 220 -10.610
29 FZ 221 -7.192
29 FZ 222 -4.262
29 FZ 223 -2.309
29 FZ 224 -1.333
29 FZ 225 -0.844
29 FZ 226 -0.844
29 FZ 227 -1.821
29 FZ 228 -3.286
29 FZ 229 -5.239
29 FZ 230 -5.727
29 FZ 231 -4.751
29 FZ 232 -1.821
29 FZ 233 1.597
29 FZ 234 4.038
29 FZ 235 4.038
29 FZ 236 2.085
29 FZ 237 0.132
29 FZ 238 -0.844
29 FZ 239 0.132
29 FZ 240 2.574
29 FZ 241 4.527
29 FZ 242 5.015
29 FZ 243 4.038
29 FZ 244 1.109
29 FZ 245 -1.821
29 FZ 246 -4.262
29 FZ 247 -6.215
29 FZ 248 -7.680
29 FZ 249 -9.145
29 FZ 250 -10.122
29 FZ 251 -10.610
29 FZ 252 -10.122
29 FZ 253 -9.145
29 FZ 254 -8.657
29 FZ 255 -8.657
# F4 chan 7
29 F4 0 1.963
29 F4 1 2.940
29 F4 2 3.428
29 F4 3 2.940
29 F4 4 1.475
29 F4 5 -1.455
29 F4 6 -5.361
29 F4 7 -8.291
29 F4 8 -8.779
29 F4 9 -6.826
29 F4 10 -2.431
29 F4 11 1.475
29 F4 12 4.405
29 F4 13 4.893
29 F4 14 4.893
29 F4 15 4.893
29 F4 16 6.846
29 F4 17 10.264
29 F4 18 12.705
29 F4 19 12.217
29 F4 20 8.799
29 F4 21 4.405
29 F4 22 0.498
29 F4 23 -0.478
29 F4 24 0.010
29 F4 25 0.987
29 F4 26 1.963
29 F4 27 1.475
29 F4 28 1.475
29 F4 29 1.963
29 F4 30 3.428
29 F4 31 3.428
29 F4 32 2.452
29 F4 33 0.498
29 F4 34 -1.455
29 F4 35 -1.943
29 F4 36 -0.966
29 F4 37 0.498
29 F4 38 1.475
29 F4 39 1.475
29 F4 40 0.987
29 F4 41 1.475
29 F4 42 2.940
29 F4 43 4.893
29 F4 44 5.381
29 F4 45 5.381
29 F4 46 4.405
29 F4 47 3.428
29 F4 48 3.428
29 F4 49 3.916
29 F4 50 3.428
29 F4 51 1.963
29 F4 52 0.498
29 F4 53 0.010
29 F4 54 1.475
29 F4 55 3.428
29 F4 56 4.405
29 F4 57 3.428
29 F4 58 1.963
29 F4 59 0.498
29 F4 60 0.498
29 F4 61 1.963
29 F4 62 2.940
29 F4 63 2.940
29 F4 64 1.475
29 F4 65 0.498
29 F4 66 0.987
29 F4 67 2.940
29 F4 68 5.381
29 F4 69 6.358
29 F4 70 4.893
29 F4 71 1.963
29 F4 72 -0.966
29 F4 73 -1.455
29 F4 74 -0.478
29 F4 75 0.498
29 F4 76 1.475
29 F4 77 0.498
29 F4 78 -0.966
29 F4 79 -0.966
29 F4 80 0.987
29 F4 81 3.916
29 F4 82 6.846
29 F4 83 7.823
29 F4 84 6.358
29 F4 85 3.428
29 F4 86 0.498
29 F4 87 -0.478
29 F4 88 1.475
29 F4 89 5.381
29 F4 90 9.288
29 F4 91 11.729
29 F4 92 11.729
29 F4 93 9.776
29 F4 94 6.358
29 F4 95 3.916
29 F4 96 2.940
29 F4 97 3.916
29 F4 98 5.381
29 F4 99 5.870
29 F4 100 3.916
29 F4 101 -0.966
29 F4 102 -6.337
29 F4 103 -10.244
29 F4 104 -10.244
29 F4 105 -6.826
29 F4 106 -2.431
29 F4 107 1.475
29 F4 108 1.963
29 F4 109 0.010
29 F4 110 -1.455
29 F4 111 -0.478
29 F4 112 2.940
29 F4 113 7.334
29 F4 114 10.264
29 F4 115 10.264
29 F4 116 7.823
29 F4 117 4.405
29 F4 118 2.452
29 F4 119 1.475
29 F4 120 0.010
29 F4 121 -1.943
29 F4 122 -4.873
29 F4 123 -7.802
29 F4 124 -9.267
29 F4 125 -7.802
29 F4 126 -5.849
29 F4 127 -4.873
29 F4 128 -5.361
29 F4 129 -6.826
29 F4 130 -7.802
29 F4 131 -6.826
29 F4 132 -3.896
29 F4 133 -1.455
29 F4 134 0.987
29 F4 135 0.987
29 F4 136 0.498
29 F4 137 -0.478
29 F4 138 -0.966
29 F4 139 -1.455
29 F4 140 -1.455
29 F4 141 -1.455
29 F4 142 -1.943
29 F4 143 -2.920
29 F4 144 -4.873
29 F4 145 -8.291
29 F4 146 -12.685
29 F4 147 -16.591
29 F4 148 -18.545
29 F4 149 -17.568
29 F4 150 -13.173
29 F4 151 -8.291
29 F4 152 -3.896
29 F4 153 -1.943
29 F4 154 -3.408
29 F4 155 -6.826
29 F4 156 -9.267
29 F4 157 -9.755
29 F4 158 -7.314
29 F4 159 -3.408
29 F4 160 -0.478
29 F4 161 -0.478
29 F4 162 -2.920
29 F4 163 -6.826
29 F4 164 -10.244
29 F4 165 -12.685
29 F4 166 -13.662
29 F4 167 -12.685
29 F4 168 -10.244
29 F4 169 -6.826
29 F4 170 -3.408
29 F4 171 -1.943
29 F4 172 -2.920
29 F4 173 -6.337
29 F4 174 -10.732
29 F4 175 -13.662
29 F4 176 -14.638
29 F4 177 -12.197
29 F4 178 -8.291
29 F4 179 -4.384
29 F4 180 -0.966
29 F4 181 1.475
29 F4 182 2.452
29 F4 183 2.452
29 F4 184 0.987
29 F4 185 -1.455
29 F4 186 -3.896
29 F4 187 -5.849
29 F4 188 -6.826
29 F4 189 -7.314
29 F4 190 -7.802
29 F4 191 -8.291
29 F4 192 -9.755
29 F4 193 -9.755
29 F4 194 -8.779
29 F4 195 -6.826
29 F4 196 -4.384
29 F4 197 -2.431
29 F4 198 -1.455
29 F4 199 -0.966
29 F4 200 0.010
29 F4 201 0.498
29 F4 202 0.498
29 F4 203 -0.966
29 F4 204 -2.431
29 F4 205 -3.408
29 F4 206 -3.896
29 F4 207 -3.896
29 F4 208 -3.896
29 F4 209 -4.873
29 F4 210 -5.849
29 F4 211 -6.826
29 F4 212 -7.314
29 F4 213 -6.826
29 F4 214 -7.314
29 F4 215 -7.802
29 F4 216 -9.267
29 F4 217 -9.755
29 F4 218 -9.267
29 F4 219 -7.314
29 F4 220 -4.384
29 F4 221 -1.455
29 F4 222 0.498
29 F4 223 2.940
29 F4 224 4.405
29 F4 225 5.381
29 F4 226 4.405
29 F4 227 1.963
29 F4 228 -1.943
29 F4 229 -6.337
29 F4 230 -7.802
29 F4 231 -6.826
29 F4 232 -3.408
29 F4 233 0.498
29 F4 234 2.452
29 F4 235 2.452
29 F4 236 1.475
29 F4 237 0.498
29 F4 238 0.498
29 F4 239 1.475
29 F4 240 2.940
29 F4 241 3.428
29 F4 242 2.940
29 F4 243 1.475
29 F4 244 -0.478
29 F4 245 -2.920
29 F4 246 -5.849
29 F4 247 -8.779
29 F4 248 -11.709
29 F4 249 -13.662
29 F4 250 -14.638
29 F4 251 -14.638
29 F4 252 -13.662
29 F4 253 -12.685
29 F4 254 -12.685
29 F4 255 -13.173
# F3 chan 8
29 F3 0 -2.574
29 F3 1 -2.085
29 F3 2 -1.597
29 F3 3 -0.621
29 F3 4 -0.621
29 F3 5 -1.597
29 F3 6 -4.038
29 F3 7 -7.945
29 F3 8 -10.874
29 F3 9 -12.828
29 F3 10 -12.828
29 F3 11 -11.363
29 F3 12 -8.921
29 F3 13 -6.480
29 F3 14 -3.550
29 F3 15 -1.109
29 F3 16 1.821
29 F3 17 3.774
29 F3 18 4.262
29 F3 19 2.797
29 F3 20 -0.132
29 F3 21 -4.038
29 F3 22 -6.480
29 F3 23 -7.945
29 F3 24 -7.456
29 F3 25 -5.992
29 F3 26 -5.015
29 F3 27 -4.038
29 F3 28 -4.038
29 F3 29 -5.015
29 F3 30 -5.992
29 F3 31 -6.968
29 F3 32 -7.456
29 F3 33 -6.968
29 F3 34 -6.480
29 F3 35 -4.038
29 F3 36 -1.597
29 F3 37 0.844
29 F3 38 3.286
29 F3 39 4.262
29 F3 40 4.262
29 F3 41 3.774
29 F3 42 3.774
29 F3 43 4.262
29 F3 44 5.239
29 F3 45 5.239
29 F3 46 3.774
29 F3 47 0.844
29 F3 48 -1.597
29 F3 49 -2.085
29 F3 50 -2.085
29 F3 51 -1.597
29 F3 52 -2.085
29 F3 53 -5.015
29 F3 54 -8.921
29 F3 55 -11.851
29 F3 56 -12.339
29 F3 57 -10.874
29 F3 58 -7.456
29 F3 59 -4.038
29 F3 60 -1.597
29 F3 61 -0.132
29 F3 62 0.844
29 F3 63 1.821
29 F3 64 2.797
29 F3 65 4.262
29 F3 66 5.727
29 F3 67 7.680
29 F3 68 8.657
29 F3 69 8.657
29 F3 70 6.215
29 F3 71 3.286
29 F3 72 0.356
29 F3 73 -0.132
29 F3 74 1.821
29 F3 75 5.239
29 F3 76 7.192
29 F3 77 6.704
29 F3 78 4.751
29 F3 79 2.797
29 F3 80 2.309
29 F3 81 4.262
29 F3 82 6.704
29 F3 83 9.145
29 F3 84 9.145
29 F3 85 7.680
29 F3 86 5.727
29 F3 87 5.239
29 F3 88 6.215
29 F3 89 8.657
29 F3 90 10.610
29 F3 91 11.098
29 F3 92 8.169
29 F3 93 3.774
29 F3 94 -1.109
29 F3 95 -3.550
29 F3 96 -2.574
29 F3 97 -0.132
29 F3 98 2.309
29 F3 99 3.286
29 F3 100 1.821
29 F3 101 -1.109
29 F3 102 -4.038
29 F3 103 -5.015
29 F3 104 -4.527
29 F3 105 -2.574
29 F3 106 -0.132
29 F3 107 2.309
29 F3 108 3.774
29 F3 109 4.262
29 F3 110 4.751
29 F3 111 4.751
29 F3 112 5.727
29 F3 113 6.704
29 F3 114 7.680
29 F3 115 8.169
29 F3 116 7.192
29 F3 117 4.751
29 F3 118 1.821
29 F3 119 -1.109
29 F3 120 -4.038
29 F3 121 -5.992
29 F3 122 -7.945
29 F3 123 -8.433
29 F3 124 -7.945
29 F3 125 -5.992
29 F3 126 -4.038
29 F3 127 -1.597
29 F3 128 -0.132
29 F3 129 0.844
29 F3 130 1.821
29 F3 131 2.309
29 F3 132 2.797
29 F3 133 3.286
29 F3 134 2.797
29 F3 135 2.309
29 F3 136 1.333
29 F3 137 0.356
29 F3 138 -0.621
29 F3 139 -1.597
29 F3 140 -3.550
29 F3 141 -5.992
29 F3 142 -8.433
29 F3 143 -10.874
29 F3 144 -13.316
29 F3 145 -14.292
29 F3 146 -15.269
29 F3 147 -15.757
29 F3 148 -15.269
29 F3 149 -14.292
29 F3 150 -12.339
29 F3 151 -9.410
29 F3 152 -6.480
29 F3 153 -5.015
29 F3 154 -3.550
29 F3 155 -3.062
29 F3 156 -2.574
29 F3 157 -1.109
29 F3 158 0.844
29 F3 159 3.286
29 F3 160 3.774
29 F3 161 1.821
29 F3 162 -2.574
29 F3 163 -7.456
29 F3 164 -11.363
29 F3 165 -13.316
29 F3 166 -12.828
29 F3 167 -11.851
29 F3 168 -10.386
29 F3 169 -10.386
29 F3 170 -10.386
29 F3 171 -11.363
29 F3 172 -11.851
29 F3 173 -12.828
29 F3 174 -13.316
29 F3 175 -13.316
29 F3 176 -12.339
29 F3 177 -10.386
29 F3 178 -8.433
29 F3 179 -5.992
29 F3 180 -4.038
29 F3 181 -3.550
29 F3 182 -4.038
29 F3 183 -5.015
29 F3 184 -5.992
29 F3 185 -6.968
29 F3 186 -6.968
29 F3 187 -7.456
29 F3 188 -8.433
29 F3 189 -11.363
29 F3 190 -15.269
29 F3 191 -18.687
29 F3 192 -19.663
29 F3 193 -18.199
29 F3 194 -14.781
29 F3 195 -11.363
29 F3 196 -8.921
29 F3 197 -8.921
29 F3 198 -8.921
29 F3 199 -8.921
29 F3 200 -7.945
29 F3 201 -6.968
29 F3 202 -6.968
29 F3 203 -7.945
29 F3 204 -9.410
29 F3 205 -10.386
29 F3 206 -10.386
29 F3 207 -10.386
29 F3 208 -11.363
29 F3 209 -12.339
29 F3 210 -12.828
29 F3 211 -12.339
29 F3 212 -10.874
29 F3 213 -8.921
29 F3 214 -8.433
29 F3 215 -9.898
29 F3 216 -12.828
29 F3 217 -15.757
29 F3 218 -16.246
29 F3 219 -15.269
29 F3 220 -13.316
29 F3 221 -10.386
29 F3 222 -8.433
29 F3 223 -7.456
29 F3 224 -5.992
29 F3 225 -4.527
29 F3 226 -3.550
29 F3 227 -4.038
29 F3 228 -5.503
29 F3 229 -6.968
29 F3 230 -7.945
29 F3 231 -6.968
29 F3 232 -4.527
29 F3 233 -2.085
29 F3 234 -0.621
29 F3 235 -1.109
29 F3 236 -3.062
29 F3 237 -5.503
29 F3 238 -6.968
29 F3 239 -5.992
29 F3 240 -3.062
29 F3 241 -0.132
29 F3 242 1.821
29 F3 243 0.844
29 F3 244 -2.574
29 F3 245 -6.480
29 F3 246 -9.410
29 F3 247 -10.874
29 F3 248 -11.363
29 F3 249 -11.851
29 F3 250 -12.828
29 F3 251 -13.804
29 F3 252 -14.292
29 F3 253 -13.804
29 F3 254 -12.339
29 F3 255 -11.363
# FC6 chan 9
29 FC6 0 6.287
29 FC6 1 3.845
29 FC6 2 0.916
29 FC6 3 -1.038
29 FC6 4 -2.502
29 FC6 5 -3.479
29 FC6 6 -5.432
29 FC6 7 -6.897
29 FC6 8 -6.409
29 FC6 9 -3.479
29 FC6 10 0.916
29 FC6 11 4.822
29 FC6 12 6.775
29 FC6 13 6.287
29 FC6 14 5.798
29 FC6 15 8.240
29 FC6 16 13.123
29 FC6 17 18.494
29 FC6 18 20.935
29 FC6 19 18.982
29 FC6 20 13.611
29 FC6 21 8.728
29 FC6 22 6.775
29 FC6 23 8.240
29 FC6 24 10.193
29 FC6 25 10.681
29 FC6 26 9.705
29 FC6 27 8.240
29 FC6 28 8.240
29 FC6 29 9.216
29 FC6 30 10.681
29 FC6 31 10.681
29 FC6 32 9.705
29 FC6 33 8.728
29 FC6 34 9.216
29 FC6 35 11.658
29 FC6 36 14.099
29 FC6 37 14.099
29 FC6 38 12.146
29 FC6 39 8.728
29 FC6 40 7.263
29 FC6 41 8.240
29 FC6 42 11.169
29 FC6 43 13.611
29 FC6 44 13.611
29 FC6 45 11.169
29 FC6 46 8.240
29 FC6 47 6.775
29 FC6 48 8.240
29 FC6 49 10.681
29 FC6 50 12.146
29 FC6 51 11.169
29 FC6 52 8.240
29 FC6 53 5.798
29 FC6 54 6.287
29 FC6 55 10.681
29 FC6 56 14.587
29 FC6 57 17.517
29 FC6 58 16.541
29 FC6 59 14.099
29 FC6 60 12.146
29 FC6 61 12.146
29 FC6 62 13.123
29 FC6 63 13.611
29 FC6 64 12.634
29 FC6 65 9.705
29 FC6 66 7.263
29 FC6 67 6.287
29 FC6 68 6.287
29 FC6 69 6.775
29 FC6 70 5.798
29 FC6 71 3.845
29 FC6 72 3.357
29 FC6 73 3.845
29 FC6 74 4.822
29 FC6 75 5.310
29 FC6 76 3.845
29 FC6 77 1.892
29 FC6 78 0.427
29 FC6 79 1.892
29 FC6 80 5.310
29 FC6 81 9.705
29 FC6 82 11.169
29 FC6 83 9.705
29 FC6 84 6.287
29 FC6 85 3.845
29 FC6 86 3.845
29 FC6 87 5.798
29 FC6 88 8.240
29 FC6 89 9.705
29 FC6 90 10.193
29 FC6 91 9.216
29 FC6 92 7.751
29 FC6 93 5.798
29 FC6 94 3.357
29 FC6 95 0.916
29 FC6 96 0.427
29 FC6 97 1.892
29 FC6 98 5.798
29 FC6 99 8.240
29 FC6 100 7.263
29 FC6 101 1.892
29 FC6 102 -5.920
29 FC6 103 -11.780
29 FC6 104 -12.756
29 FC6 105 -7.874
29 FC6 106 -0.549
29 FC6 107 5.310
29 FC6 108 7.263
29 FC6 109 6.775
29 FC6 110 5.310
29 FC6 111 4.822
29 FC6 112 5.798
29 FC6 113 6.287
29 FC6 114 5.798
29 FC6 115 3.357
29 FC6 116 1.404
29 FC6 117 0.427
29 FC6 118 1.404
29 FC6 119 2.869
29 FC6 120 3.357
29 FC6 121 2.380
29 FC6 122 -0.061
29 FC6 123 -2.502
29 FC6 124 -3.479
29 FC6 125 -1.526
29 FC6 126 2.380
29 FC6 127 5.798
29 FC6 128 6.287
29 FC6 129 3.845
29 FC6 130 -0.061
29 FC6 131 -2.014
29 FC6 132 -1.038
29 FC6 133 3.357
29 FC6 134 7.751
29 FC6 135 10.193
29 FC6 136 9.705
29 FC6 137 7.263
29 FC6 138 5.310
29 FC6 139 4.822
29 FC6 140 5.310
29 FC6 141 4.822
29 FC6 142 3.845
29 FC6 143 2.380
29 FC6 144 0.916
29 FC6 145 0.427
29 FC6 146 -0.549
29 FC6 147 -2.991
29 FC6 148 -6.897
29 FC6 149 -10.315
29 FC6 150 -9.827
29 FC6 151 -4.944
29 FC6 152 1.892
29 FC6 153 6.287
29 FC6 154 5.310
29 FC6 155 -0.549
29 FC6 156 -6.897
29 FC6 157 -8.362
29 FC6 158 -4.944
29 FC6 159 0.427
29 FC6 160 4.333
29 FC6 161 4.333
29 FC6 162 2.380
29 FC6 163 0.427
29 FC6 164 0.916
29 FC6 165 1.404
29 FC6 166 0.427
29 FC6 167 -2.014
29 FC6 168 -3.967
29 FC6 169 -3.479
29 FC6 170 0.427
29 FC6 171 4.822
29 FC6 172 6.775
29 FC6 173 5.310
29 FC6 174 0.916
29 FC6 175 -2.502
29 FC6 176 -2.014
29 FC6 177 1.892
29 FC6 178 8.728
29 FC6 179 13.611
29 FC6 180 16.541
29 FC6 181 16.541
29 FC6 182 15.076
29 FC6 183 14.099
29 FC6 184 14.099
29 FC6 185 14.099
29 FC6 186 14.587
29 FC6 187 15.564
29 FC6 188 17.517
29 FC6 189 18.982
29 FC6 190 18.982
29 FC6 191 16.541
29 FC6 192 12.634
29 FC6 193 9.705
29 FC6 194 9.705
29 FC6 195 12.146
29 FC6 196 15.564
29 FC6 197 16.541
29 FC6 198 15.564
29 FC6 199 13.611
29 FC6 200 12.634
29 FC6 201 12.634
29 FC6 202 13.611
29 FC6 203 12.146
29 FC6 204 8.240
29 FC6 205 4.822
29 FC6 206 3.845
29 FC6 207 6.775
29 FC6 208 11.169
29 FC6 209 15.076
29 FC6 210 15.564
29 FC6 211 14.587
29 FC6 212 12.634
29 FC6 213 11.658
29 FC6 214 11.658
29 FC6 215 11.658
29 FC6 216 10.193
29 FC6 217 7.751
29 FC6 218 7.263
29 FC6 219 7.751
29 FC6 220 10.681
29 FC6 221 13.123
29 FC6 222 14.587
29 FC6 223 15.076
29 FC6 224 15.564
29 FC6 225 16.052
29 FC6 226 16.052
29 FC6 227 14.587
29 FC6 228 11.658
29 FC6 229 7.751
29 FC6 230 5.798
29 FC6 231 5.310
29 FC6 232 5.798
29 FC6 233 6.775
29 FC6 234 7.263
29 FC6 235 7.751
29 FC6 236 9.216
29 FC6 237 12.634
29 FC6 238 15.076
29 FC6 239 17.029
29 FC6 240 17.517
29 FC6 241 18.494
29 FC6 242 19.958
29 FC6 243 21.912
29 FC6 244 22.400
29 FC6 245 20.447
29 FC6 246 17.517
29 FC6 247 14.587
29 FC6 248 12.146
29 FC6 249 10.193
29 FC6 250 7.263
29 FC6 251 2.380
29 FC6 252 -1.526
29 FC6 253 -2.014
29 FC6 254 -0.061
29 FC6 255 3.845
# FC5 chan 10
29 FC5 0 -4.862
29 FC5 1 -3.398
29 FC5 2 -2.421
29 FC5 3 -1.933
29 FC5 4 -1.444
29 FC5 5 -2.421
29 FC5 6 -3.886
29 FC5 7 -6.327
29 FC5 8 -8.280
29 FC5 9 -9.257
29 FC5 10 -8.280
29 FC5 11 -6.327
29 FC5 12 -4.374
29 FC5 13 -3.886
29 FC5 14 -3.398
29 FC5 15 -2.909
29 FC5 16 -0.956
29 FC5 17 1.485
29 FC5 18 1.973
29 FC5 19 0.509
29 FC5 20 -2.909
29 FC5 21 -5.839
29 FC5 22 -7.304
29 FC5 23 -5.839
29 FC5 24 -3.886
29 FC5 25 -1.444
29 FC5 26 -0.956
29 FC5 27 -0.468
29 FC5 28 0.509
29 FC5 29 0.997
29 FC5 30 0.997
29 FC5 31 0.509
29 FC5 32 -0.956
29 FC5 33 -1.444
29 FC5 34 -0.956
29 FC5 35 1.485
29 FC5 36 4.415
29 FC5 37 6.856
29 FC5 38 7.833
29 FC5 39 6.856
29 FC5 40 4.415
29 FC5 41 1.485
29 FC5 42 0.509
29 FC5 43 0.509
29 FC5 44 1.973
29 FC5 45 2.950
29 FC5 46 2.950
29 FC5 47 0.997
29 FC5 48 -1.933
29 FC5 49 -4.862
29 FC5 50 -6.816
29 FC5 51 -7.304
29 FC5 52 -8.280
29 FC5 53 -8.769
29 FC5 54 -10.234
29 FC5 55 -11.210
29 FC5 56 -10.722
29 FC5 57 -7.792
29 FC5 58 -3.398
29 FC5 59 1.485
29 FC5 60 4.415
29 FC5 61 5.880
29 FC5 62 5.880
29 FC5 63 5.880
29 FC5 64 7.345
29 FC5 65 9.298
29 FC5 66 11.251
29 FC5 67 12.227
29 FC5 68 10.763
29 FC5 69 7.345
29 FC5 70 3.438
29 FC5 71 -0.468
29 FC5 72 -2.421
29 FC5 73 -2.421
29 FC5 74 -1.444
29 FC5 75 0.020
29 FC5 76 0.509
29 FC5 77 -0.468
29 FC5 78 -1.444
29 FC5 79 -2.909
29 FC5 80 -2.909
29 FC5 81 -1.444
29 FC5 82 0.997
29 FC5 83 3.438
29 FC5 84 4.415
29 FC5 85 3.438
29 FC5 86 1.973
29 FC5 87 1.485
29 FC5 88 3.438
29 FC5 89 6.856
29 FC5 90 9.786
29 FC5 91 10.274
29 FC5 92 6.368
29 FC5 93 0.509
29 FC5 94 -4.862
29 FC5 95 -6.816
29 FC5 96 -5.351
29 FC5 97 -2.421
29 FC5 98 -0.468
29 FC5 99 0.020
29 FC5 100 -0.956
29 FC5 101 -1.444
29 FC5 102 -0.956
29 FC5 103 0.509
29 FC5 104 0.997
29 FC5 105 0.997
29 FC5 106 0.509
29 FC5 107 1.485
29 FC5 108 2.950
29 FC5 109 5.391
29 FC5 110 6.856
29 FC5 111 6.368
29 FC5 112 4.903
29 FC5 113 4.415
29 FC5 114 4.903
29 FC5 115 5.391
29 FC5 116 5.391
29 FC5 117 3.927
29 FC5 118 1.485
29 FC5 119 -1.444
29 FC5 120 -3.398
29 FC5 121 -4.374
29 FC5 122 -4.374
29 FC5 123 -3.886
29 FC5 124 -3.398
29 FC5 125 -2.421
29 FC5 126 0.020
29 FC5 127 2.950
29 FC5 128 6.368
29 FC5 129 8.809
29 FC5 130 10.274
29 FC5 131 9.786
29 FC5 132 8.321
29 FC5 133 5.391
29 FC5 134 2.950
29 FC5 135 2.462
29 FC5 136 3.927
29 FC5 137 5.880
29 FC5 138 7.345
29 FC5 139 5.880
29 FC5 140 2.462
29 FC5 141 -2.421
29 FC5 142 -6.327
29 FC5 143 -8.280
29 FC5 144 -8.280
29 FC5 145 -7.304
29 FC5 146 -7.304
29 FC5 147 -8.280
29 FC5 148 -10.234
29 FC5 149 -11.210
29 FC5 150 -10.722
29 FC5 151 -8.769
29 FC5 152 -5.351
29 FC5 153 -2.421
29 FC5 154 0.020
29 FC5 155 0.997
29 FC5 156 1.485
29 FC5 157 2.462
29 FC5 158 3.927
29 FC5 159 6.368
29 FC5 160 7.345
29 FC5 161 5.880
29 FC5 162 0.997
29 FC5 163 -4.862
29 FC5 164 -9.745
29 FC5 165 -12.187
29 FC5 166 -10.722
29 FC5 167 -8.280
29 FC5 168 -6.816
29 FC5 169 -6.327
29 FC5 170 -7.304
29 FC5 171 -7.304
29 FC5 172 -6.327
29 FC5 173 -5.351
29 FC5 174 -4.374
29 FC5 175 -5.351
29 FC5 176 -5.351
29 FC5 177 -4.374
29 FC5 178 -1.444
29 FC5 179 2.462
29 FC5 180 6.368
29 FC5 181 7.833
29 FC5 182 6.368
29 FC5 183 3.927
29 FC5 184 1.485
29 FC5 185 -0.468
29 FC5 186 -0.956
29 FC5 187 -0.468
29 FC5 188 0.020
29 FC5 189 -0.956
29 FC5 190 -2.909
29 FC5 191 -5.351
29 FC5 192 -7.304
29 FC5 193 -6.816
29 FC5 194 -4.374
29 FC5 195 -1.444
29 FC5 196 0.509
29 FC5 197 0.020
29 FC5 198 -1.933
29 FC5 199 -3.886
29 FC5 200 -5.351
29 FC5 201 -5.351
29 FC5 202 -5.839
29 FC5 203 -6.816
29 FC5 204 -8.769
29 FC5 205 -10.234
29 FC5 206 -11.210
29 FC5 207 -11.698
29 FC5 208 -11.698
29 FC5 209 -11.698
29 FC5 210 -10.722
29 FC5 211 -8.769
29 FC5 212 -6.327
29 FC5 213 -4.862
29 FC5 214 -4.862
29 FC5 215 -6.816
29 FC5 216 -9.257
29 FC5 217 -10.234
29 FC5 218 -8.769
29 FC5 219 -5.839
29 FC5 220 -2.909
29 FC5 221 -1.933
29 FC5 222 -2.909
29 FC5 223 -4.862
29 FC5 224 -5.351
29 FC5 225 -4.374
29 FC5 226 -2.421
29 FC5 227 -0.956
29 FC5 228 -0.956
29 FC5 229 -2.421
29 FC5 230 -4.374
29 FC5 231 -5.351
29 FC5 232 -4.862
29 FC5 233 -3.886
29 FC5 234 -2.909
29 FC5 235 -3.398
29 FC5 236 -4.374
29 FC5 237 -5.839
29 FC5 238 -6.327
29 FC5 239 -5.351
29 FC5 240 -2.421
29 FC5 241 1.485
29 FC5 242 4.415
29 FC5 243 5.880
29 FC5 244 4.415
29 FC5 245 1.485
29 FC5 246 -1.933
29 FC5 247 -4.862
29 FC5 248 -7.304
29 FC5 249 -9.257
29 FC5 250 -10.234
29 FC5 251 -10.234
29 FC5 252 -8.769
29 FC5 253 -7.304
29 FC5 254 -6.327
29 FC5 255 -6.327
# FC2 chan 11
29 FC2 0 2.838
29 FC2 1 3.326
29 FC2 2 4.303
29 FC2 3 3.326
29 FC2 4 0.885
29 FC2 5 -2.045
29 FC2 6 -2.533
29 FC2 7 -0.580
29 FC2 8 3.326
29 FC2 9 5.768
29 FC2 10 6.744
29 FC2 11 5.768
29 FC2 12 5.768
29 FC2 13 6.744
29 FC2 14 8.698
29 FC2 15 10.651
29 FC2 16 11.627
29 FC2 17 11.627
29 FC2 18 11.139
29 FC2 19 10.651
29 FC2 20 9.186
29 FC2 21 6.744
29 FC2 22 3.815
29 FC2 23 0.397
29 FC2 24 -2.045
29 FC2 25 -3.021
29 FC2 26 -2.045
29 FC2 27 -0.580
29 FC2 28 1.373
29 FC2 29 3.326
29 FC2 30 5.768
29 FC2 31 8.209
29 FC2 32 11.139
29 FC2 33 12.604
29 FC2 34 12.115
29 FC2 35 9.186
29 FC2 36 5.768
29 FC2 37 2.838
29 FC2 38 2.350
29 FC2 39 2.838
29 FC2 40 3.326
29 FC2 41 2.350
29 FC2 42 0.885
29 FC2 43 -0.580
29 FC2 44 -0.092
29 FC2 45 2.350
29 FC2 46 4.791
29 FC2 47 6.744
29 FC2 48 5.280
29 FC2 49 2.350
29 FC2 50 -1.068
29 FC2 51 -2.533
29 FC2 52 -2.045
29 FC2 53 -1.556
29 FC2 54 -2.533
29 FC2 55 -4.486
29 FC2 56 -7.416
29 FC2 57 -8.881
29 FC2 58 -8.881
29 FC2 59 -5.951
29 FC2 60 -3.510
29 FC2 61 -0.580
29 FC2 62 0.885
29 FC2 63 1.373
29 FC2 64 0.885
29 FC2 65 -0.580
29 FC2 66 -2.045
29 FC2 67 -2.533
29 FC2 68 -2.533
29 FC2 69 -1.556
29 FC2 70 -0.580
29 FC2 71 0.885
29 FC2 72 1.373
29 FC2 73 1.373
29 FC2 74 0.885
29 FC2 75 0.397
29 FC2 76 -0.092
29 FC2 77 -0.092
29 FC2 78 -0.092
29 FC2 79 -0.092
29 FC2 80 -0.580
29 FC2 81 -0.580
29 FC2 82 -0.580
29 FC2 83 -1.068
29 FC2 84 -2.045
29 FC2 85 -3.021
29 FC2 86 -4.486
29 FC2 87 -4.974
29 FC2 88 -4.974
29 FC2 89 -4.486
29 FC2 90 -4.974
29 FC2 91 -6.439
29 FC2 92 -8.881
29 FC2 93 -10.345
29 FC2 94 -10.345
29 FC2 95 -8.881
29 FC2 96 -7.904
29 FC2 97 -7.416
29 FC2 98 -7.904
29 FC2 99 -8.392
29 FC2 100 -8.392
29 FC2 101 -7.904
29 FC2 102 -7.904
29 FC2 103 -8.881
29 FC2 104 -9.857
29 FC2 105 -9.369
29 FC2 106 -7.416
29 FC2 107 -3.998
29 FC2 108 -0.580
29 FC2 109 0.885
29 FC2 110 0.397
29 FC2 111 -0.580
29 FC2 112 -2.533
29 FC2 113 -3.021
29 FC2 114 -2.533
29 FC2 115 -1.556
29 FC2 116 -1.068
29 FC2 117 -2.045
29 FC2 118 -3.998
29 FC2 119 -5.463
29 FC2 120 -6.439
29 FC2 121 -5.463
29 FC2 122 -3.510
29 FC2 123 -2.533
29 FC2 124 -3.998
29 FC2 125 -6.927
29 FC2 126 -10.345
29 FC2 127 -11.810
29 FC2 128 -10.834
29 FC2 129 -8.392
29 FC2 130 -5.951
29 FC2 131 -5.951
29 FC2 132 -7.416
29 FC2 133 -9.369
29 FC2 134 -9.857
29 FC2 135 -8.881
29 FC2 136 -6.439
29 FC2 137 -4.486
29 FC2 138 -3.021
29 FC2 139 -1.556
29 FC2 140 -0.092
29 FC2 141 2.350
29 FC2 142 3.815
29 FC2 143 3.815
29 FC2 144 -0.092
29 FC2 145 -5.463
29 FC2 146 -10.834
29 FC2 147 -12.787
29 FC2 148 -10.345
29 FC2 149 -5.951
29 FC2 150 -1.556
29 FC2 151 -0.092
29 FC2 152 -1.556
29 FC2 153 -5.463
29 FC2 154 -8.881
29 FC2 155 -9.857
29 FC2 156 -8.881
29 FC2 157 -6.927
29 FC2 158 -5.951
29 FC2 159 -6.439
29 FC2 160 -7.904
29 FC2 161 -8.392
29 FC2 162 -7.416
29 FC2 163 -4.974
29 FC2 164 -3.510
29 FC2 165 -2.045
29 FC2 166 -1.556
29 FC2 167 -1.068
29 FC2 168 -0.092
29 FC2 169 1.862
29 FC2 170 3.326
29 FC2 171 4.303
29 FC2 172 3.326
29 FC2 173 1.373
29 FC2 174 -2.045
29 FC2 175 -4.486
29 FC2 176 -5.463
29 FC2 177 -3.998
29 FC2 178 0.397
29 FC2 179 5.280
29 FC2 180 8.209
29 FC2 181 7.233
29 FC2 182 3.326
29 FC2 183 -1.556
29 FC2 184 -3.998
29 FC2 185 -3.021
29 FC2 186 -1.068
29 FC2 187 -0.092
29 FC2 188 -1.556
29 FC2 189 -5.463
29 FC2 190 -8.392
29 FC2 191 -8.881
29 FC2 192 -7.416
29 FC2 193 -6.439
29 FC2 194 -6.927
29 FC2 195 -8.392
29 FC2 196 -8.881
29 FC2 197 -7.416
29 FC2 198 -4.486
29 FC2 199 -2.045
29 FC2 200 -1.556
29 FC2 201 -3.510
29 FC2 202 -5.951
29 FC2 203 -7.416
29 FC2 204 -7.416
29 FC2 205 -6.927
29 FC2 206 -7.416
29 FC2 207 -8.881
29 FC2 208 -10.834
29 FC2 209 -11.810
29 FC2 210 -10.834
29 FC2 211 -9.369
29 FC2 212 -7.416
29 FC2 213 -5.951
29 FC2 214 -6.927
29 FC2 215 -7.904
29 FC2 216 -8.392
29 FC2 217 -6.927
29 FC2 218 -4.486
29 FC2 219 -1.068
29 FC2 220 1.862
29 FC2 221 3.326
29 FC2 222 3.815
29 FC2 223 3.326
29 FC2 224 3.326
29 FC2 225 3.326
29 FC2 226 2.838
29 FC2 227 1.862
29 FC2 228 -0.092
29 FC2 229 -2.045
29 FC2 230 -3.510
29 FC2 231 -3.021
29 FC2 232 -2.045
29 FC2 233 -0.580
29 FC2 234 0.885
29 FC2 235 1.862
29 FC2 236 2.838
29 FC2 237 3.815
29 FC2 238 4.303
29 FC2 239 4.791
29 FC2 240 4.303
29 FC2 241 2.838
29 FC2 242 1.862
29 FC2 243 0.885
29 FC2 244 1.373
29 FC2 245 2.838
29 FC2 246 4.791
29 FC2 247 6.744
29 FC2 248 6.744
29 FC2 249 5.768
29 FC2 250 3.815
29 FC2 251 1.862
29 FC2 252 0.885
29 FC2 253 0.885
29 FC2 254 1.862
29 FC2 255 1.373
# FC1 chan 12
29 FC1 0 0.305
29 FC1 1 0.793
29 FC1 2 0.793
29 FC1 3 0.305
29 FC1 4 -0.671
29 FC1 5 -1.648
29 FC1 6 -3.113
29 FC1 7 -4.578
29 FC1 8 -5.554
29 FC1 9 -6.531
29 FC1 10 -7.019
29 FC1 11 -6.531
29 FC1 12 -6.042
29 FC1 13 -5.066
29 FC1 14 -3.601
29 FC1 15 -1.648
29 FC1 16 0.305
29 FC1 17 1.770
29 FC1 18 2.747
29 FC1 19 2.258
29 FC1 20 0.305
29 FC1 21 -1.648
29 FC1 22 -4.089
29 FC1 23 -5.066
29 FC1 24 -4.578
29 FC1 25 -3.113
29 FC1 26 -1.648
29 FC1 27 -1.648
29 FC1 28 -2.136
29 FC1 29 -3.601
29 FC1 30 -4.578
29 FC1 31 -4.578
29 FC1 32 -4.089
29 FC1 33 -3.113
29 FC1 34 -2.625
29 FC1 35 -2.136
29 FC1 36 -1.648
29 FC1 37 -0.183
29 FC1 38 1.282
29 FC1 39 2.747
29 FC1 40 3.235
29 FC1 41 3.235
29 FC1 42 2.747
29 FC1 43 2.747
29 FC1 44 2.747
29 FC1 45 2.258
29 FC1 46 1.770
29 FC1 47 0.305
29 FC1 48 -1.160
29 FC1 49 -1.648
29 FC1 50 -1.160
29 FC1 51 -0.671
29 FC1 52 -1.648
29 FC1 53 -3.601
29 FC1 54 -6.531
29 FC1 55 -7.996
29 FC1 56 -7.996
29 FC1 57 -6.042
29 FC1 58 -4.578
29 FC1 59 -2.136
29 FC1 60 -1.160
29 FC1 61 0.305
29 FC1 62 1.282
29 FC1 63 3.235
29 FC1 64 3.723
29 FC1 65 4.700
29 FC1 66 5.188
29 FC1 67 5.676
29 FC1 68 5.676
29 FC1 69 5.188
29 FC1 70 3.723
29 FC1 71 2.258
29 FC1 72 1.770
29 FC1 73 1.770
29 FC1 74 3.235
29 FC1 75 3.723
29 FC1 76 3.723
29 FC1 77 2.747
29 FC1 78 2.258
29 FC1 79 2.258
29 FC1 80 3.723
29 FC1 81 5.188
29 FC1 82 7.141
29 FC1 83 7.141
29 FC1 84 6.165
29 FC1 85 5.188
29 FC1 86 4.211
29 FC1 87 4.700
29 FC1 88 6.653
29 FC1 89 9.094
29 FC1 90 11.047
29 FC1 91 11.047
29 FC1 92 9.094
29 FC1 93 5.676
29 FC1 94 1.770
29 FC1 95 -0.671
29 FC1 96 -0.671
29 FC1 97 0.793
29 FC1 98 2.258
29 FC1 99 2.747
29 FC1 100 1.282
29 FC1 101 -1.160
29 FC1 102 -2.625
29 FC1 103 -3.113
29 FC1 104 -2.136
29 FC1 105 0.305
29 FC1 106 2.258
29 FC1 107 3.723
29 FC1 108 4.211
29 FC1 109 4.700
29 FC1 110 5.188
29 FC1 111 6.165
29 FC1 112 7.141
29 FC1 113 7.629
29 FC1 114 8.118
29 FC1 115 7.629
29 FC1 116 6.165
29 FC1 117 3.723
29 FC1 118 0.793
29 FC1 119 -1.648
29 FC1 120 -3.113
29 FC1 121 -4.578
29 FC1 122 -5.066
29 FC1 123 -5.066
29 FC1 124 -5.066
29 FC1 125 -4.578
29 FC1 126 -3.113
29 FC1 127 -2.136
29 FC1 128 -0.671
29 FC1 129 -0.183
29 FC1 130 0.305
29 FC1 131 0.793
29 FC1 132 1.770
29 FC1 133 2.747
29 FC1 134 3.235
29 FC1 135 3.723
29 FC1 136 3.235
29 FC1 137 2.258
29 FC1 138 0.793
29 FC1 139 -0.671
29 FC1 140 -2.136
29 FC1 141 -3.601
29 FC1 142 -5.554
29 FC1 143 -7.019
29 FC1 144 -8.484
29 FC1 145 -9.460
29 FC1 146 -9.460
29 FC1 147 -8.484
29 FC1 148 -7.507
29 FC1 149 -7.019
29 FC1 150 -6.531
29 FC1 151 -5.554
29 FC1 152 -4.089
29 FC1 153 -2.625
29 FC1 154 -0.183
29 FC1 155 1.770
29 FC1 156 2.747
29 FC1 157 3.235
29 FC1 158 3.723
29 FC1 159 3.723
29 FC1 160 3.723
29 FC1 161 2.747
29 FC1 162 0.305
29 FC1 163 -2.625
29 FC1 164 -4.578
29 FC1 165 -6.042
29 FC1 166 -6.531
29 FC1 167 -6.042
29 FC1 168 -6.531
29 FC1 169 -7.019
29 FC1 170 -7.507
29 FC1 171 -7.996
29 FC1 172 -7.507
29 FC1 173 -6.531
29 FC1 174 -6.042
29 FC1 175 -5.554
29 FC1 176 -6.042
29 FC1 177 -5.554
29 FC1 178 -4.578
29 FC1 179 -3.113
29 FC1 180 -2.136
29 FC1 181 -1.160
29 FC1 182 -0.671
29 FC1 183 -1.160
29 FC1 184 -2.136
29 FC1 185 -2.625
29 FC1 186 -3.601
29 FC1 187 -4.578
29 FC1 188 -6.042
29 FC1 189 -8.484
29 FC1 190 -10.437
29 FC1 191 -11.902
29 FC1 192 -11.902
29 FC1 193 -10.437
29 FC1 194 -8.484
29 FC1 195 -7.019
29 FC1 196 -6.042
29 FC1 197 -6.042
29 FC1 198 -6.531
29 FC1 199 -6.042
29 FC1 200 -5.554
29 FC1 201 -5.066
29 FC1 202 -4.578
29 FC1 203 -4.578
29 FC1 204 -5.066
29 FC1 205 -5.066
29 FC1 206 -4.578
29 FC1 207 -4.578
29 FC1 208 -5.066
29 FC1 209 -6.531
29 FC1 210 -7.507
29 FC1 211 -7.507
29 FC1 212 -6.531
29 FC1 213 -5.554
29 FC1 214 -4.578
29 FC1 215 -5.554
29 FC1 216 -6.531
29 FC1 217 -7.996
29 FC1 218 -8.484
29 FC1 219 -7.507
29 FC1 220 -5.554
29 FC1 221 -3.601
29 FC1 222 -2.625
29 FC1 223 -1.648
29 FC1 224 -1.160
29 FC1 225 -0.671
29 FC1 226 -0.671
29 FC1 227 -1.160
29 FC1 228 -2.136
29 FC1 229 -2.625
29 FC1 230 -2.625
29 FC1 231 -1.160
29 FC1 232 0.305
29 FC1 233 1.770
29 FC1 234 1.282
29 FC1 235 -0.183
29 FC1 236 -2.136
29 FC1 237 -3.113
29 FC1 238 -2.625
29 FC1 239 -1.648
29 FC1 240 0.305
29 FC1 241 1.770
29 FC1 242 1.770
29 FC1 243 0.305
29 FC1 244 -2.136
29 FC1 245 -4.089
29 FC1 246 -5.554
29 FC1 247 -6.042
29 FC1 248 -6.042
29 FC1 249 -6.042
29 FC1 250 -6.042
29 FC1 251 -6.531
29 FC1 252 -7.507
29 FC1 253 -7.507
29 FC1 254 -7.019
29 FC1 255 -5.554
# T8 chan 13
29 T8 0 -4.974
29 T8 1 -0.092
29 T8 2 2.350
29 T8 3 -1.556
29 T8 4 -9.857
29 T8 5 -18.646
29 T8 6 -24.017
29 T8 7 -23.041
29 T8 8 -18.158
29 T8 9 -11.810
29 T8 10 -6.927
29 T8 11 -4.486
29 T8 12 -3.998
29 T8 13 -3.510
29 T8 14 -3.021
29 T8 15 -0.580
29 T8 16 3.326
29 T8 17 7.233
29 T8 18 9.186
29 T8 19 7.721
29 T8 20 2.350
29 T8 21 -5.463
29 T8 22 -12.299
29 T8 23 -14.252
29 T8 24 -10.345
29 T8 25 -1.556
29 T8 26 8.698
29 T8 27 14.069
29 T8 28 12.604
29 T8 29 4.303
29 T8 30 -5.951
29 T8 31 -13.275
29 T8 32 -14.252
29 T8 33 -8.392
29 T8 34 -0.092
29 T8 35 7.233
29 T8 36 10.162
29 T8 37 7.721
29 T8 38 1.373
29 T8 39 -5.951
29 T8 40 -10.345
29 T8 41 -10.345
29 T8 42 -7.416
29 T8 43 -4.486
29 T8 44 -4.486
29 T8 45 -9.369
29 T8 46 -16.205
29 T8 47 -21.088
29 T8 48 -21.088
29 T8 49 -14.740
29 T8 50 -6.439
29 T8 51 -0.092
29 T8 52 0.397
29 T8 53 -4.974
29 T8 54 -11.810
29 T8 55 -16.205
29 T8 56 -15.228
29 T8 57 -10.345
29 T8 58 -5.463
29 T8 59 -2.533
29 T8 60 -3.510
29 T8 61 -6.439
29 T8 62 -9.857
29 T8 63 -11.810
29 T8 64 -12.787
29 T8 65 -12.299
29 T8 66 -10.345
29 T8 67 -7.416
29 T8 68 -4.486
29 T8 69 -5.951
29 T8 70 -12.299
29 T8 71 -21.576
29 T8 72 -27.435
29 T8 73 -25.482
29 T8 74 -16.205
29 T8 75 -5.951
29 T8 76 -1.556
29 T8 77 -5.463
29 T8 78 -14.740
29 T8 79 -22.064
29 T8 80 -21.576
29 T8 81 -16.205
29 T8 82 -10.834
29 T8 83 -10.834
29 T8 84 -16.205
29 T8 85 -21.088
29 T8 86 -19.135
29 T8 87 -9.857
29 T8 88 1.373
29 T8 89 7.233
29 T8 90 3.815
29 T8 91 -4.974
29 T8 92 -14.740
29 T8 93 -20.111
29 T8 94 -21.088
29 T8 95 -19.135
29 T8 96 -16.205
29 T8 97 -12.787
29 T8 98 -9.857
29 T8 99 -8.881
29 T8 100 -11.810
29 T8 101 -19.135
29 T8 102 -27.924
29 T8 103 -30.853
29 T8 104 -26.947
29 T8 105 -18.158
29 T8 106 -10.345
29 T8 107 -8.392
29 T8 108 -12.787
29 T8 109 -18.158
29 T8 110 -17.670
29 T8 111 -11.322
29 T8 112 -2.533
29 T8 113 0.885
29 T8 114 -3.998
29 T8 115 -13.275
29 T8 116 -21.576
29 T8 117 -23.041
29 T8 118 -18.158
29 T8 119 -12.787
29 T8 120 -12.299
29 T8 121 -17.670
29 T8 122 -25.482
29 T8 123 -29.877
29 T8 124 -28.412
29 T8 125 -22.064
29 T8 126 -15.228
29 T8 127 -11.322
29 T8 128 -11.322
29 T8 129 -12.787
29 T8 130 -13.275
29 T8 131 -11.810
29 T8 132 -10.834
29 T8 133 -10.345
29 T8 134 -11.810
29 T8 135 -12.787
29 T8 136 -11.810
29 T8 137 -9.857
29 T8 138 -8.392
29 T8 139 -10.834
29 T8 140 -17.181
29 T8 141 -24.994
29 T8 142 -28.900
29 T8 143 -25.482
29 T8 144 -16.205
29 T8 145 -4.974
29 T8 146 -0.580
29 T8 147 -6.439
29 T8 148 -19.623
29 T8 149 -32.318
29 T8 150 -36.224
29 T8 151 -29.877
29 T8 152 -18.158
29 T8 153 -9.857
29 T8 154 -9.369
29 T8 155 -14.740
29 T8 156 -20.599
29 T8 157 -22.064
29 T8 158 -19.135
29 T8 159 -15.228
29 T8 160 -13.275
29 T8 161 -12.787
29 T8 162 -11.810
29 T8 163 -9.857
29 T8 164 -9.369
29 T8 165 -13.275
29 T8 166 -21.576
29 T8 167 -29.388
29 T8 168 -32.318
29 T8 169 -27.435
29 T8 170 -18.646
29 T8 171 -12.299
29 T8 172 -12.787
29 T8 173 -18.646
29 T8 174 -24.994
29 T8 175 -26.459
29 T8 176 -22.064
29 T8 177 -12.787
29 T8 178 -3.998
29 T8 179 1.862
29 T8 180 3.815
29 T8 181 1.373
29 T8 182 -3.510
29 T8 183 -9.857
29 T8 184 -14.740
29 T8 185 -15.717
29 T8 186 -11.810
29 T8 187 -4.974
29 T8 188 2.350
29 T8 189 5.280
29 T8 190 2.838
29 T8 191 -3.021
29 T8 192 -8.881
29 T8 193 -12.299
29 T8 194 -12.787
29 T8 195 -13.763
29 T8 196 -17.670
29 T8 197 -22.552
29 T8 198 -26.459
29 T8 199 -25.970
29 T8 200 -21.576
29 T8 201 -16.205
29 T8 202 -13.763
29 T8 203 -16.205
29 T8 204 -20.599
29 T8 205 -24.506
29 T8 206 -24.506
29 T8 207 -20.599
29 T8 208 -16.205
29 T8 209 -12.787
29 T8 210 -13.275
29 T8 211 -15.717
29 T8 212 -20.111
29 T8 213 -23.529
29 T8 214 -24.994
29 T8 215 -22.552
29 T8 216 -18.158
29 T8 217 -14.252
29 T8 218 -13.275
29 T8 219 -16.205
29 T8 220 -22.552
29 T8 221 -27.924
29 T8 222 -29.877
29 T8 223 -27.435
29 T8 224 -23.041
29 T8 225 -19.135
29 T8 226 -19.623
29 T8 227 -24.506
29 T8 228 -31.830
29 T8 229 -37.689
29 T8 230 -38.666
29 T8 231 -34.271
29 T8 232 -27.435
29 T8 233 -23.041
29 T8 234 -23.529
29 T8 235 -27.435
29 T8 236 -31.830
29 T8 237 -32.318
29 T8 238 -28.900
29 T8 239 -22.064
29 T8 240 -15.228
29 T8 241 -10.834
29 T8 242 -9.369
29 T8 243 -9.857
29 T8 244 -10.834
29 T8 245 -10.345
29 T8 246 -9.857
29 T8 247 -11.322
29 T8 248 -16.205
29 T8 249 -23.529
29 T8 250 -31.342
29 T8 251 -33.295
29 T8 252 -28.900
29 T8 253 -19.623
29 T8 254 -12.787
29 T8 255 -13.275
# T7 chan 14
29 T7 0 -8.993
29 T7 1 -7.039
29 T7 2 -4.598
29 T7 3 -2.645
29 T7 4 -3.133
29 T7 5 -4.110
29 T7 6 -5.575
29 T7 7 -7.039
29 T7 8 -8.016
29 T7 9 -8.016
29 T7 10 -7.039
29 T7 11 -5.575
29 T7 12 -4.110
29 T7 13 -4.110
29 T7 14 -5.086
29 T7 15 -6.063
29 T7 16 -6.063
29 T7 17 -5.575
29 T7 18 -4.110
29 T7 19 -2.157
29 T7 20 -0.692
29 T7 21 0.285
29 T7 22 -0.203
29 T7 23 -1.668
29 T7 24 -3.621
29 T7 25 -5.575
29 T7 26 -6.063
29 T7 27 -4.598
29 T7 28 -2.157
29 T7 29 -0.203
29 T7 30 -0.692
29 T7 31 -2.157
29 T7 32 -3.621
29 T7 33 -2.645
29 T7 34 1.261
29 T7 35 6.632
29 T7 36 11.027
29 T7 37 11.515
29 T7 38 7.609
29 T7 39 1.750
29 T7 40 -2.645
29 T7 41 -4.110
29 T7 42 -2.645
29 T7 43 0.773
29 T7 44 2.726
29 T7 45 2.238
29 T7 46 -0.692
29 T7 47 -4.110
29 T7 48 -6.551
29 T7 49 -7.528
29 T7 50 -8.016
29 T7 51 -9.969
29 T7 52 -12.410
29 T7 53 -14.852
29 T7 54 -13.875
29 T7 55 -10.946
29 T7 56 -6.551
29 T7 57 -2.157
29 T7 58 -0.203
29 T7 59 0.773
29 T7 60 0.773
29 T7 61 1.261
29 T7 62 3.215
29 T7 63 5.168
29 T7 64 6.632
29 T7 65 7.609
29 T7 66 7.609
29 T7 67 7.121
29 T7 68 6.144
29 T7 69 3.703
29 T7 70 0.773
29 T7 71 -2.645
29 T7 72 -5.086
29 T7 73 -5.575
29 T7 74 -5.086
29 T7 75 -4.598
29 T7 76 -6.063
29 T7 77 -9.481
29 T7 78 -12.899
29 T7 79 -14.852
29 T7 80 -13.387
29 T7 81 -9.969
29 T7 82 -6.551
29 T7 83 -3.621
29 T7 84 -2.157
29 T7 85 -1.668
29 T7 86 -0.692
29 T7 87 0.773
29 T7 88 1.750
29 T7 89 1.261
29 T7 90 -0.203
29 T7 91 -2.645
29 T7 92 -4.110
29 T7 93 -5.086
29 T7 94 -5.575
29 T7 95 -6.551
29 T7 96 -7.528
29 T7 97 -8.016
29 T7 98 -8.016
29 T7 99 -7.039
29 T7 100 -5.086
29 T7 101 -3.621
29 T7 102 -3.133
29 T7 103 -3.133
29 T7 104 -3.621
29 T7 105 -2.645
29 T7 106 -1.668
29 T7 107 -0.692
29 T7 108 -0.203
29 T7 109 -0.203
29 T7 110 0.773
29 T7 111 3.215
29 T7 112 6.144
29 T7 113 7.121
29 T7 114 6.632
29 T7 115 3.703
29 T7 116 1.261
29 T7 117 0.285
29 T7 118 0.773
29 T7 119 2.238
29 T7 120 2.726
29 T7 121 0.773
29 T7 122 -1.180
29 T7 123 -2.157
29 T7 124 -1.668
29 T7 125 -0.203
29 T7 126 2.238
29 T7 127 4.679
29 T7 128 7.121
29 T7 129 10.050
29 T7 130 12.492
29 T7 131 12.980
29 T7 132 11.027
29 T7 133 6.144
29 T7 134 1.750
29 T7 135 -0.203
29 T7 136 1.750
29 T7 137 6.144
29 T7 138 10.050
29 T7 139 10.539
29 T7 140 6.144
29 T7 141 -0.203
29 T7 142 -5.086
29 T7 143 -7.039
29 T7 144 -5.086
29 T7 145 -3.133
29 T7 146 -3.133
29 T7 147 -7.039
29 T7 148 -11.922
29 T7 149 -15.828
29 T7 150 -15.340
29 T7 151 -11.922
29 T7 152 -7.039
29 T7 153 -4.110
29 T7 154 -2.157
29 T7 155 -1.668
29 T7 156 -1.180
29 T7 157 -0.692
29 T7 158 -0.692
29 T7 159 -0.692
29 T7 160 -2.157
29 T7 161 -3.133
29 T7 162 -3.133
29 T7 163 -2.645
29 T7 164 -4.110
29 T7 165 -7.528
29 T7 166 -12.410
29 T7 167 -16.317
29 T7 168 -16.317
29 T7 169 -12.410
29 T7 170 -7.528
29 T7 171 -4.598
29 T7 172 -5.575
29 T7 173 -8.993
29 T7 174 -11.434
29 T7 175 -10.457
29 T7 176 -5.575
29 T7 177 0.285
29 T7 178 4.679
29 T7 179 6.144
29 T7 180 5.168
29 T7 181 3.703
29 T7 182 1.750
29 T7 183 -0.203
29 T7 184 -2.645
29 T7 185 -4.110
29 T7 186 -4.598
29 T7 187 -2.645
29 T7 188 -0.692
29 T7 189 -0.692
29 T7 190 -3.621
29 T7 191 -8.016
29 T7 192 -10.946
29 T7 193 -9.969
29 T7 194 -5.575
29 T7 195 -0.692
29 T7 196 1.750
29 T7 197 0.773
29 T7 198 -1.180
29 T7 199 -2.645
29 T7 200 -3.133
29 T7 201 -4.110
29 T7 202 -7.528
29 T7 203 -12.899
29 T7 204 -18.758
29 T7 205 -20.711
29 T7 206 -18.270
29 T7 207 -12.410
29 T7 208 -7.528
29 T7 209 -6.063
29 T7 210 -8.016
29 T7 211 -10.946
29 T7 212 -11.434
29 T7 213 -8.993
29 T7 214 -6.063
29 T7 215 -5.086
29 T7 216 -6.551
29 T7 217 -10.457
29 T7 218 -12.410
29 T7 219 -11.434
29 T7 220 -8.016
29 T7 221 -4.598
29 T7 222 -2.645
29 T7 223 -3.621
29 T7 224 -5.086
29 T7 225 -6.063
29 T7 226 -5.575
29 T7 227 -4.598
29 T7 228 -5.575
29 T7 229 -8.016
29 T7 230 -10.457
29 T7 231 -11.434
29 T7 232 -9.969
29 T7 233 -6.063
29 T7 234 -2.645
29 T7 235 -1.668
29 T7 236 -3.621
29 T7 237 -6.063
29 T7 238 -8.504
29 T7 239 -8.504
29 T7 240 -6.063
29 T7 241 -2.645
29 T7 242 -0.203
29 T7 243 0.285
29 T7 244 -1.668
29 T7 245 -3.621
29 T7 246 -5.575
29 T7 247 -6.551
29 T7 248 -7.528
29 T7 249 -9.481
29 T7 250 -12.899
29 T7 251 -16.805
29 T7 252 -18.758
29 T7 253 -18.270
29 T7 254 -15.828
29 T7 255 -12.899
# CZ chan 15
29 CZ 0 -4.506
29 CZ 1 -2.065
29 CZ 2 -4.018
29 CZ 3 -8.413
29 CZ 4 -12.319
29 CZ 5 -13.784
29 CZ 6 -14.272
29 CZ 7 -15.249
29 CZ 8 -17.202
29 CZ 9 -18.178
29 CZ 10 -15.737
29 CZ 11 -10.854
29 CZ 12 -5.483
29 CZ 13 -2.065
29 CZ 14 -0.600
29 CZ 15 -0.112
29 CZ 16 1.841
29 CZ 17 5.259
29 CZ 18 7.701
29 CZ 19 7.701
29 CZ 20 4.771
29 CZ 21 0.376
29 CZ 22 -2.065
29 CZ 23 -1.577
29 CZ 24 0.376
29 CZ 25 2.330
29 CZ 26 4.283
29 CZ 27 6.236
29 CZ 28 7.212
29 CZ 29 6.236
29 CZ 30 1.353
29 CZ 31 -6.948
29 CZ 32 -14.760
29 CZ 33 -17.690
29 CZ 34 -13.784
29 CZ 35 -4.018
29 CZ 36 5.747
29 CZ 37 10.142
29 CZ 38 7.701
29 CZ 39 1.353
29 CZ 40 -4.018
29 CZ 41 -6.460
29 CZ 42 -5.971
29 CZ 43 -4.506
29 CZ 44 -2.553
29 CZ 45 -0.600
29 CZ 46 2.818
29 CZ 47 7.212
29 CZ 48 10.142
29 CZ 49 9.654
29 CZ 50 4.771
29 CZ 51 -3.042
29 CZ 52 -11.831
29 CZ 53 -19.155
29 CZ 54 -22.085
29 CZ 55 -19.155
29 CZ 56 -10.854
29 CZ 57 -0.112
29 CZ 58 8.189
29 CZ 59 9.165
29 CZ 60 2.330
29 CZ 61 -8.413
29 CZ 62 -16.713
29 CZ 63 -17.690
29 CZ 64 -11.342
29 CZ 65 -0.600
29 CZ 66 9.654
29 CZ 67 15.025
29 CZ 68 14.048
29 CZ 69 9.165
29 CZ 70 1.841
29 CZ 71 -4.995
29 CZ 72 -9.878
29 CZ 73 -12.319
29 CZ 74 -13.784
29 CZ 75 -12.807
29 CZ 76 -11.342
29 CZ 77 -10.366
29 CZ 78 -8.901
29 CZ 79 -8.413
29 CZ 80 -7.924
29 CZ 81 -7.436
29 CZ 82 -6.948
29 CZ 83 -6.948
29 CZ 84 -7.924
29 CZ 85 -9.389
29 CZ 86 -9.878
29 CZ 87 -8.413
29 CZ 88 -4.018
29 CZ 89 -0.600
29 CZ 90 -0.600
29 CZ 91 -4.506
29 CZ 92 -12.319
29 CZ 93 -18.667
29 CZ 94 -22.085
29 CZ 95 -21.596
29 CZ 96 -18.178
29 CZ 97 -14.760
29 CZ 98 -11.831
29 CZ 99 -11.342
29 CZ 100 -13.784
29 CZ 101 -19.155
29 CZ 102 -26.479
29 CZ 103 -33.315
29 CZ 104 -36.733
29 CZ 105 -33.803
29 CZ 106 -26.967
29 CZ 107 -20.131
29 CZ 108 -16.713
29 CZ 109 -18.178
29 CZ 110 -21.108
29 CZ 111 -21.596
29 CZ 112 -17.202
29 CZ 113 -8.901
29 CZ 114 -1.088
29 CZ 115 2.818
29 CZ 116 0.376
29 CZ 117 -5.971
29 CZ 118 -14.272
29 CZ 119 -21.108
29 CZ 120 -24.038
29 CZ 121 -23.061
29 CZ 122 -18.178
29 CZ 123 -12.319
29 CZ 124 -7.436
29 CZ 125 -6.460
29 CZ 126 -7.924
29 CZ 127 -10.854
29 CZ 128 -13.784
29 CZ 129 -14.760
29 CZ 130 -15.249
29 CZ 131 -15.737
29 CZ 132 -16.225
29 CZ 133 -16.713
29 CZ 134 -15.737
29 CZ 135 -13.784
29 CZ 136 -12.319
29 CZ 137 -11.342
29 CZ 138 -10.854
29 CZ 139 -10.854
29 CZ 140 -10.854
29 CZ 141 -12.319
29 CZ 142 -15.737
29 CZ 143 -21.108
29 CZ 144 -26.479
29 CZ 145 -29.897
29 CZ 146 -31.850
29 CZ 147 -32.338
29 CZ 148 -33.315
29 CZ 149 -35.756
29 CZ 150 -37.221
29 CZ 151 -37.221
29 CZ 152 -36.245
29 CZ 153 -34.780
29 CZ 154 -33.803
29 CZ 155 -31.850
29 CZ 156 -27.456
29 CZ 157 -19.643
29 CZ 158 -13.784
29 CZ 159 -13.295
29 CZ 160 -20.131
29 CZ 161 -31.850
29 CZ 162 -41.128
29 CZ 163 -42.592
29 CZ 164 -34.780
29 CZ 165 -24.038
29 CZ 166 -16.225
29 CZ 167 -15.737
29 CZ 168 -21.108
29 CZ 169 -28.920
29 CZ 170 -34.292
29 CZ 171 -35.756
29 CZ 172 -34.780
29 CZ 173 -33.315
29 CZ 174 -31.850
29 CZ 175 -29.897
29 CZ 176 -26.479
29 CZ 177 -21.108
29 CZ 178 -14.760
29 CZ 179 -8.413
29 CZ 180 -4.506
29 CZ 181 -3.042
29 CZ 182 -4.018
29 CZ 183 -7.436
29 CZ 184 -11.831
29 CZ 185 -16.713
29 CZ 186 -19.155
29 CZ 187 -18.667
29 CZ 188 -15.249
29 CZ 189 -10.366
29 CZ 190 -6.460
29 CZ 191 -4.506
29 CZ 192 -5.483
29 CZ 193 -8.413
29 CZ 194 -13.295
29 CZ 195 -17.202
29 CZ 196 -18.178
29 CZ 197 -16.225
29 CZ 198 -11.831
29 CZ 199 -6.948
29 CZ 200 -5.483
29 CZ 201 -7.436
29 CZ 202 -12.319
29 CZ 203 -18.178
29 CZ 204 -22.085
29 CZ 205 -24.526
29 CZ 206 -25.014
29 CZ 207 -25.014
29 CZ 208 -24.038
29 CZ 209 -22.085
29 CZ 210 -18.178
29 CZ 211 -12.807
29 CZ 212 -8.901
29 CZ 213 -7.924
29 CZ 214 -11.342
29 CZ 215 -18.178
29 CZ 216 -25.991
29 CZ 217 -30.874
29 CZ 218 -28.920
29 CZ 219 -22.085
29 CZ 220 -12.319
29 CZ 221 -5.483
29 CZ 222 -4.018
29 CZ 223 -7.436
29 CZ 224 -11.831
29 CZ 225 -15.249
29 CZ 226 -16.713
29 CZ 227 -17.202
29 CZ 228 -19.643
29 CZ 229 -23.061
29 CZ 230 -25.503
29 CZ 231 -24.526
29 CZ 232 -20.620
29 CZ 233 -16.225
29 CZ 234 -13.784
29 CZ 235 -14.760
29 CZ 236 -17.690
29 CZ 237 -20.620
29 CZ 238 -21.108
29 CZ 239 -17.202
29 CZ 240 -11.342
29 CZ 241 -4.995
29 CZ 242 -0.600
29 CZ 243 1.353
29 CZ 244 -0.600
29 CZ 245 -4.995
29 CZ 246 -10.366
29 CZ 247 -16.225
29 CZ 248 -21.108
29 CZ 249 -23.549
29 CZ 250 -22.573
29 CZ 251 -20.131
29 CZ 252 -17.202
29 CZ 253 -17.202
29 CZ 254 -19.643
29 CZ 255 -24.038
# C3 chan 16
29 C3 0 -4.171
29 C3 1 -0.753
29 C3 2 0.224
29 C3 3 0.224
29 C3 4 -0.753
29 C3 5 -1.729
29 C3 6 -1.241
29 C3 7 -0.753
29 C3 8 -0.753
29 C3 9 -0.753
29 C3 10 -0.753
29 C3 11 -0.264
29 C3 12 -0.264
29 C3 13 -0.753
29 C3 14 -1.729
29 C3 15 -3.194
29 C3 16 -3.682
29 C3 17 -3.682
29 C3 18 -2.706
29 C3 19 -2.218
29 C3 20 -2.218
29 C3 21 -3.194
29 C3 22 -3.682
29 C3 23 -3.194
29 C3 24 -1.729
29 C3 25 0.224
29 C3 26 1.689
29 C3 27 2.177
29 C3 28 1.689
29 C3 29 0.712
29 C3 30 -0.264
29 C3 31 -1.241
29 C3 32 -1.729
29 C3 33 -1.241
29 C3 34 -0.753
29 C3 35 0.224
29 C3 36 2.665
29 C3 37 5.595
29 C3 38 7.548
29 C3 39 7.548
29 C3 40 5.107
29 C3 41 1.689
29 C3 42 -0.753
29 C3 43 -1.729
29 C3 44 -0.753
29 C3 45 1.200
29 C3 46 1.200
29 C3 47 0.224
29 C3 48 -1.729
29 C3 49 -3.682
29 C3 50 -4.659
29 C3 51 -5.147
29 C3 52 -5.636
29 C3 53 -6.612
29 C3 54 -8.077
29 C3 55 -8.077
29 C3 56 -6.612
29 C3 57 -2.706
29 C3 58 1.200
29 C3 59 4.130
29 C3 60 5.595
29 C3 61 6.083
29 C3 62 6.083
29 C3 63 7.060
29 C3 64 9.013
29 C3 65 11.454
29 C3 66 13.896
29 C3 67 13.896
29 C3 68 11.943
29 C3 69 8.036
29 C3 70 3.642
29 C3 71 -0.264
29 C3 72 -2.218
29 C3 73 -2.218
29 C3 74 -1.241
29 C3 75 -1.241
29 C3 76 -1.729
29 C3 77 -3.682
29 C3 78 -5.636
29 C3 79 -6.612
29 C3 80 -5.636
29 C3 81 -3.682
29 C3 82 -0.753
29 C3 83 1.689
29 C3 84 3.153
29 C3 85 3.642
29 C3 86 4.130
29 C3 87 5.595
29 C3 88 7.548
29 C3 89 9.989
29 C3 90 11.454
29 C3 91 10.966
29 C3 92 7.548
29 C3 93 2.665
29 C3 94 -3.194
29 C3 95 -6.124
29 C3 96 -6.124
29 C3 97 -4.171
29 C3 98 -1.241
29 C3 99 0.224
29 C3 100 1.200
29 C3 101 1.200
29 C3 102 1.689
29 C3 103 2.665
29 C3 104 4.130
29 C3 105 5.107
29 C3 106 5.107
29 C3 107 5.107
29 C3 108 5.595
29 C3 109 6.083
29 C3 110 7.060
29 C3 111 8.036
29 C3 112 8.525
29 C3 113 8.036
29 C3 114 6.571
29 C3 115 4.618
29 C3 116 2.665
29 C3 117 0.224
29 C3 118 -1.729
29 C3 119 -2.706
29 C3 120 -2.706
29 C3 121 -2.218
29 C3 122 -1.729
29 C3 123 -1.729
29 C3 124 -2.706
29 C3 125 -2.218
29 C3 126 -1.241
29 C3 127 1.689
29 C3 128 5.107
29 C3 129 7.548
29 C3 130 8.525
29 C3 131 8.036
29 C3 132 6.083
29 C3 133 4.618
29 C3 134 3.642
29 C3 135 3.642
29 C3 136 3.153
29 C3 137 3.153
29 C3 138 2.177
29 C3 139 1.200
29 C3 140 -0.264
29 C3 141 -1.729
29 C3 142 -2.706
29 C3 143 -3.194
29 C3 144 -3.194
29 C3 145 -2.706
29 C3 146 -1.729
29 C3 147 -1.729
29 C3 148 -2.706
29 C3 149 -3.682
29 C3 150 -4.171
29 C3 151 -2.218
29 C3 152 0.224
29 C3 153 3.153
29 C3 154 5.107
29 C3 155 6.083
29 C3 156 5.107
29 C3 157 4.618
29 C3 158 4.618
29 C3 159 5.595
29 C3 160 6.571
29 C3 161 5.595
29 C3 162 3.642
29 C3 163 0.712
29 C3 164 -1.241
29 C3 165 -2.218
29 C3 166 -2.218
29 C3 167 -2.218
29 C3 168 -2.218
29 C3 169 -2.706
29 C3 170 -3.194
29 C3 171 -2.218
29 C3 172 -0.753
29 C3 173 0.224
29 C3 174 0.712
29 C3 175 0.224
29 C3 176 0.224
29 C3 177 1.200
29 C3 178 3.153
29 C3 179 5.595
29 C3 180 7.060
29 C3 181 7.060
29 C3 182 5.595
29 C3 183 3.153
29 C3 184 1.200
29 C3 185 -0.264
29 C3 186 -1.241
29 C3 187 -1.241
29 C3 188 -1.241
29 C3 189 -1.241
29 C3 190 -1.241
29 C3 191 -1.241
29 C3 192 -0.753
29 C3 193 -0.264
29 C3 194 0.224
29 C3 195 0.712
29 C3 196 0.712
29 C3 197 0.712
29 C3 198 0.224
29 C3 199 -0.753
29 C3 200 -1.241
29 C3 201 -3.194
29 C3 202 -4.659
29 C3 203 -6.124
29 C3 204 -7.589
29 C3 205 -8.077
29 C3 206 -8.077
29 C3 207 -7.589
29 C3 208 -7.589
29 C3 209 -8.077
29 C3 210 -8.077
29 C3 211 -6.612
29 C3 212 -5.147
29 C3 213 -4.171
29 C3 214 -3.682
29 C3 215 -4.659
29 C3 216 -6.124
29 C3 217 -6.124
29 C3 218 -4.171
29 C3 219 -1.729
29 C3 220 0.224
29 C3 221 0.712
29 C3 222 -0.753
29 C3 223 -1.729
29 C3 224 -1.729
29 C3 225 -0.753
29 C3 226 0.224
29 C3 227 -0.753
29 C3 228 -2.706
29 C3 229 -4.659
29 C3 230 -5.147
29 C3 231 -3.194
29 C3 232 -0.753
29 C3 233 0.712
29 C3 234 0.712
29 C3 235 -1.729
29 C3 236 -3.682
29 C3 237 -4.171
29 C3 238 -2.218
29 C3 239 0.224
29 C3 240 1.689
29 C3 241 2.177
29 C3 242 1.689
29 C3 243 1.200
29 C3 244 0.712
29 C3 245 -0.264
29 C3 246 -0.753
29 C3 247 -2.706
29 C3 248 -5.147
29 C3 249 -6.612
29 C3 250 -7.589
29 C3 251 -7.100
29 C3 252 -6.124
29 C3 253 -5.636
29 C3 254 -6.124
29 C3 255 -6.612
# C4 chan 17
29 C4 0 5.473
29 C4 1 0.102
29 C4 2 -6.734
29 C4 3 -11.129
29 C4 4 -11.617
29 C4 5 -8.687
29 C4 6 -5.758
29 C4 7 -4.293
29 C4 8 -4.781
29 C4 9 -5.269
29 C4 10 -3.316
29 C4 11 1.567
29 C4 12 7.914
29 C4 13 11.820
29 C4 14 11.332
29 C4 15 7.426
29 C4 16 3.031
29 C4 17 1.567
29 C4 18 4.008
29 C4 19 7.914
29 C4 20 10.844
29 C4 21 10.844
29 C4 22 8.403
29 C4 23 5.473
29 C4 24 2.543
29 C4 25 -0.875
29 C4 26 -5.269
29 C4 27 -8.199
29 C4 28 -9.176
29 C4 29 -6.734
29 C4 30 -1.363
29 C4 31 3.520
29 C4 32 5.473
29 C4 33 4.496
29 C4 34 3.031
29 C4 35 3.031
29 C4 36 4.496
29 C4 37 5.961
29 C4 38 6.449
29 C4 39 4.496
29 C4 40 1.567
29 C4 41 -0.387
29 C4 42 -0.387
29 C4 43 -0.387
29 C4 44 -0.875
29 C4 45 -2.828
29 C4 46 -5.269
29 C4 47 -7.222
29 C4 48 -7.711
29 C4 49 -8.199
29 C4 50 -8.687
29 C4 51 -8.199
29 C4 52 -6.246
29 C4 53 -1.851
29 C4 54 4.008
29 C4 55 8.891
29 C4 56 10.356
29 C4 57 7.914
29 C4 58 4.008
29 C4 59 1.078
29 C4 60 1.567
29 C4 61 4.496
29 C4 62 8.891
29 C4 63 11.332
29 C4 64 9.867
29 C4 65 5.961
29 C4 66 -0.387
29 C4 67 -6.734
29 C4 68 -11.129
29 C4 69 -12.594
29 C4 70 -11.129
29 C4 71 -7.711
29 C4 72 -4.293
29 C4 73 -3.316
29 C4 74 -4.293
29 C4 75 -5.758
29 C4 76 -5.758
29 C4 77 -4.293
29 C4 78 -1.363
29 C4 79 0.590
29 C4 80 0.590
29 C4 81 -0.387
29 C4 82 -0.875
29 C4 83 0.102
29 C4 84 1.078
29 C4 85 1.078
29 C4 86 -0.875
29 C4 87 -2.828
29 C4 88 -5.269
29 C4 89 -5.758
29 C4 90 -5.269
29 C4 91 -4.293
29 C4 92 -5.269
29 C4 93 -6.246
29 C4 94 -6.734
29 C4 95 -5.269
29 C4 96 -2.828
29 C4 97 -0.387
29 C4 98 1.078
29 C4 99 1.567
29 C4 100 1.078
29 C4 101 0.590
29 C4 102 0.102
29 C4 103 -0.387
29 C4 104 -1.363
29 C4 105 -1.363
29 C4 106 -0.875
29 C4 107 0.102
29 C4 108 0.590
29 C4 109 0.590
29 C4 110 -0.387
29 C4 111 -1.851
29 C4 112 -2.828
29 C4 113 -3.316
29 C4 114 -3.805
29 C4 115 -4.781
29 C4 116 -5.758
29 C4 117 -5.758
29 C4 118 -4.293
29 C4 119 -0.875
29 C4 120 2.055
29 C4 121 3.031
29 C4 122 2.543
29 C4 123 1.567
29 C4 124 1.078
29 C4 125 1.567
29 C4 126 2.055
29 C4 127 1.567
29 C4 128 -0.387
29 C4 129 -1.363
29 C4 130 -1.851
29 C4 131 -0.875
29 C4 132 -0.387
29 C4 133 -0.875
29 C4 134 -3.805
29 C4 135 -6.246
29 C4 136 -7.222
29 C4 137 -4.781
29 C4 138 -0.387
29 C4 139 4.008
29 C4 140 6.449
29 C4 141 6.938
29 C4 142 7.426
29 C4 143 7.426
29 C4 144 6.449
29 C4 145 4.008
29 C4 146 0.102
29 C4 147 -2.828
29 C4 148 -3.805
29 C4 149 -2.828
29 C4 150 -0.875
29 C4 151 0.590
29 C4 152 1.078
29 C4 153 0.590
29 C4 154 0.102
29 C4 155 -1.363
29 C4 156 -3.805
29 C4 157 -6.734
29 C4 158 -9.176
29 C4 159 -9.664
29 C4 160 -6.734
29 C4 161 -2.340
29 C4 162 0.590
29 C4 163 0.590
29 C4 164 -0.875
29 C4 165 -2.340
29 C4 166 -1.363
29 C4 167 1.567
29 C4 168 4.985
29 C4 169 6.449
29 C4 170 6.938
29 C4 171 5.473
29 C4 172 4.985
29 C4 173 4.496
29 C4 174 3.520
29 C4 175 3.031
29 C4 176 3.031
29 C4 177 4.985
29 C4 178 7.426
29 C4 179 8.403
29 C4 180 6.449
29 C4 181 3.031
29 C4 182 0.102
29 C4 183 0.590
29 C4 184 4.496
29 C4 185 8.891
29 C4 186 11.332
29 C4 187 11.332
29 C4 188 10.356
29 C4 189 11.332
29 C4 190 14.262
29 C4 191 16.215
29 C4 192 15.727
29 C4 193 11.820
29 C4 194 7.426
29 C4 195 5.473
29 C4 196 6.938
29 C4 197 9.867
29 C4 198 11.332
29 C4 199 10.844
29 C4 200 8.891
29 C4 201 7.914
29 C4 202 8.403
29 C4 203 7.914
29 C4 204 5.961
29 C4 205 2.543
29 C4 206 0.102
29 C4 207 0.102
29 C4 208 2.543
29 C4 209 5.961
29 C4 210 6.449
29 C4 211 5.473
29 C4 212 4.008
29 C4 213 4.008
29 C4 214 6.449
29 C4 215 8.891
29 C4 216 8.891
29 C4 217 5.961
29 C4 218 2.055
29 C4 219 -0.875
29 C4 220 -0.875
29 C4 221 1.567
29 C4 222 5.473
29 C4 223 8.403
29 C4 224 9.379
29 C4 225 7.914
29 C4 226 5.473
29 C4 227 3.031
29 C4 228 1.567
29 C4 229 0.102
29 C4 230 -0.875
29 C4 231 -2.828
29 C4 232 -4.293
29 C4 233 -5.269
29 C4 234 -2.340
29 C4 235 2.543
29 C4 236 8.403
29 C4 237 12.309
29 C4 238 12.309
29 C4 239 9.379
29 C4 240 5.473
29 C4 241 3.031
29 C4 242 3.520
29 C4 243 6.449
29 C4 244 9.867
29 C4 245 10.844
29 C4 246 7.914
29 C4 247 3.031
29 C4 248 -0.387
29 C4 249 -0.875
29 C4 250 0.590
29 C4 251 2.543
29 C4 252 1.567
29 C4 253 -1.363
29 C4 254 -4.781
29 C4 255 -5.269
# CP5 chan 18
29 CP5 0 -9.440
29 CP5 1 -6.022
29 CP5 2 -3.581
29 CP5 3 -3.581
29 CP5 4 -4.557
29 CP5 5 -5.534
29 CP5 6 -6.022
29 CP5 7 -6.510
29 CP5 8 -6.999
29 CP5 9 -6.999
29 CP5 10 -6.510
29 CP5 11 -5.046
29 CP5 12 -4.069
29 CP5 13 -3.581
29 CP5 14 -4.069
29 CP5 15 -5.046
29 CP5 16 -5.046
29 CP5 17 -4.069
29 CP5 18 -2.604
29 CP5 19 -1.628
29 CP5 20 -2.116
29 CP5 21 -3.092
29 CP5 22 -4.557
29 CP5 23 -5.046
29 CP5 24 -4.069
29 CP5 25 -2.604
29 CP5 26 -1.139
29 CP5 27 0.326
29 CP5 28 0.814
29 CP5 29 1.302
29 CP5 30 0.814
29 CP5 31 -0.651
29 CP5 32 -2.604
29 CP5 33 -4.557
29 CP5 34 -5.046
29 CP5 35 -2.604
29 CP5 36 1.302
29 CP5 37 5.697
29 CP5 38 6.185
29 CP5 39 3.255
29 CP5 40 -3.092
29 CP5 41 -8.464
29 CP5 42 -10.417
29 CP5 43 -8.952
29 CP5 44 -6.510
29 CP5 45 -4.557
29 CP5 46 -5.046
29 CP5 47 -7.487
29 CP5 48 -9.440
29 CP5 49 -10.417
29 CP5 50 -9.928
29 CP5 51 -9.928
29 CP5 52 -11.882
29 CP5 53 -15.299
29 CP5 54 -17.253
29 CP5 55 -16.276
29 CP5 56 -11.882
29 CP5 57 -6.022
29 CP5 58 -2.116
29 CP5 59 0.326
29 CP5 60 1.302
29 CP5 61 2.767
29 CP5 62 4.720
29 CP5 63 8.138
29 CP5 64 10.579
29 CP5 65 11.556
29 CP5 66 12.044
29 CP5 67 11.556
29 CP5 68 11.068
29 CP5 69 9.603
29 CP5 70 6.185
29 CP5 71 0.326
29 CP5 72 -6.022
29 CP5 73 -10.905
29 CP5 74 -13.346
29 CP5 75 -13.346
29 CP5 76 -13.346
29 CP5 77 -14.811
29 CP5 78 -17.253
29 CP5 79 -19.206
29 CP5 80 -18.717
29 CP5 81 -16.276
29 CP5 82 -13.346
29 CP5 83 -11.393
29 CP5 84 -11.393
29 CP5 85 -11.882
29 CP5 86 -10.417
29 CP5 87 -7.975
29 CP5 88 -5.046
29 CP5 89 -3.092
29 CP5 90 -4.069
29 CP5 91 -6.510
29 CP5 92 -11.393
29 CP5 93 -15.788
29 CP5 94 -18.717
29 CP5 95 -20.182
29 CP5 96 -20.182
29 CP5 97 -18.229
29 CP5 98 -15.788
29 CP5 99 -12.858
29 CP5 100 -10.417
29 CP5 101 -7.975
29 CP5 102 -6.022
29 CP5 103 -3.092
29 CP5 104 -1.139
29 CP5 105 0.326
29 CP5 106 0.814
29 CP5 107 1.302
29 CP5 108 1.302
29 CP5 109 1.790
29 CP5 110 1.790
29 CP5 111 0.814
29 CP5 112 -0.651
29 CP5 113 -3.092
29 CP5 114 -5.534
29 CP5 115 -7.487
29 CP5 116 -9.440
29 CP5 117 -10.417
29 CP5 118 -10.905
29 CP5 119 -10.905
29 CP5 120 -9.440
29 CP5 121 -7.975
29 CP5 122 -6.999
29 CP5 123 -7.487
29 CP5 124 -8.464
29 CP5 125 -8.952
29 CP5 126 -7.975
29 CP5 127 -5.534
29 CP5 128 -2.604
29 CP5 129 -0.651
29 CP5 130 0.326
29 CP5 131 -0.163
29 CP5 132 -1.628
29 CP5 133 -3.092
29 CP5 134 -5.046
29 CP5 135 -6.510
29 CP5 136 -7.487
29 CP5 137 -7.487
29 CP5 138 -6.999
29 CP5 139 -6.510
29 CP5 140 -6.510
29 CP5 141 -6.999
29 CP5 142 -8.952
29 CP5 143 -9.928
29 CP5 144 -10.417
29 CP5 145 -9.928
29 CP5 146 -9.440
29 CP5 147 -9.928
29 CP5 148 -12.858
29 CP5 149 -15.788
29 CP5 150 -16.276
29 CP5 151 -13.346
29 CP5 152 -8.464
29 CP5 153 -2.604
29 CP5 154 1.302
29 CP5 155 2.279
29 CP5 156 2.279
29 CP5 157 0.814
29 CP5 158 0.326
29 CP5 159 0.814
29 CP5 160 0.814
29 CP5 161 0.326
29 CP5 162 -0.651
29 CP5 163 -2.116
29 CP5 164 -4.557
29 CP5 165 -6.510
29 CP5 166 -8.952
29 CP5 167 -9.928
29 CP5 168 -8.952
29 CP5 169 -6.510
29 CP5 170 -3.581
29 CP5 171 -1.139
29 CP5 172 0.326
29 CP5 173 0.814
29 CP5 174 0.814
29 CP5 175 0.326
29 CP5 176 1.302
29 CP5 177 2.767
29 CP5 178 4.720
29 CP5 179 6.673
29 CP5 180 8.138
29 CP5 181 8.138
29 CP5 182 6.185
29 CP5 183 2.767
29 CP5 184 -0.651
29 CP5 185 -2.604
29 CP5 186 -1.628
29 CP5 187 0.814
29 CP5 188 3.743
29 CP5 189 4.720
29 CP5 190 3.743
29 CP5 191 1.790
29 CP5 192 0.814
29 CP5 193 0.814
29 CP5 194 2.279
29 CP5 195 3.255
29 CP5 196 3.743
29 CP5 197 3.255
29 CP5 198 2.767
29 CP5 199 1.790
29 CP5 200 -0.163
29 CP5 201 -4.069
29 CP5 202 -8.952
29 CP5 203 -13.346
29 CP5 204 -15.788
29 CP5 205 -15.299
29 CP5 206 -12.370
29 CP5 207 -9.928
29 CP5 208 -9.928
29 CP5 209 -12.370
29 CP5 210 -15.299
29 CP5 211 -16.764
29 CP5 212 -15.299
29 CP5 213 -12.370
29 CP5 214 -10.417
29 CP5 215 -9.928
29 CP5 216 -10.905
29 CP5 217 -10.417
29 CP5 218 -8.952
29 CP5 219 -5.534
29 CP5 220 -3.581
29 CP5 221 -3.581
29 CP5 222 -5.046
29 CP5 223 -6.999
29 CP5 224 -7.975
29 CP5 225 -7.975
29 CP5 226 -8.464
29 CP5 227 -10.905
29 CP5 228 -14.323
29 CP5 229 -17.741
29 CP5 230 -19.206
29 CP5 231 -17.741
29 CP5 232 -15.788
29 CP5 233 -13.835
29 CP5 234 -13.346
29 CP5 235 -12.858
29 CP5 236 -11.882
29 CP5 237 -10.417
29 CP5 238 -7.975
29 CP5 239 -6.510
29 CP5 240 -5.534
29 CP5 241 -5.046
29 CP5 242 -4.069
29 CP5 243 -2.604
29 CP5 244 -1.628
29 CP5 245 -2.116
29 CP5 246 -4.069
29 CP5 247 -6.999
29 CP5 248 -9.440
29 CP5 249 -10.905
29 CP5 250 -10.905
29 CP5 251 -9.928
29 CP5 252 -9.440
29 CP5 253 -9.928
29 CP5 254 -11.393
29 CP5 255 -12.858
# CP6 chan 19
29 CP6 0 1.007
29 CP6 1 -2.411
29 CP6 2 -4.852
29 CP6 3 -7.294
29 CP6 4 -9.247
29 CP6 5 -10.223
29 CP6 6 -8.270
29 CP6 7 -5.341
29 CP6 8 -1.923
29 CP6 9 -0.458
29 CP6 10 0.031
29 CP6 11 1.495
29 CP6 12 5.402
29 CP6 13 10.773
29 CP6 14 14.191
29 CP6 15 13.214
29 CP6 16 7.843
29 CP6 17 1.495
29 CP6 18 -1.923
29 CP6 19 0.519
29 CP6 20 6.378
29 CP6 21 11.749
29 CP6 22 13.702
29 CP6 23 11.261
29 CP6 24 7.355
29 CP6 25 3.448
29 CP6 26 1.984
29 CP6 27 2.472
29 CP6 28 3.937
29 CP6 29 5.890
29 CP6 30 7.355
29 CP6 31 7.843
29 CP6 32 8.331
29 CP6 33 7.843
29 CP6 34 6.378
29 CP6 35 4.913
29 CP6 36 3.937
29 CP6 37 3.448
29 CP6 38 3.448
29 CP6 39 2.960
29 CP6 40 1.007
29 CP6 41 -0.946
29 CP6 42 -2.411
29 CP6 43 -1.923
29 CP6 44 0.031
29 CP6 45 2.472
29 CP6 46 4.425
29 CP6 47 4.913
29 CP6 48 3.937
29 CP6 49 0.519
29 CP6 50 -4.364
29 CP6 51 -9.247
29 CP6 52 -11.688
29 CP6 53 -8.759
29 CP6 54 -2.411
29 CP6 55 5.402
29 CP6 56 9.308
29 CP6 57 8.820
29 CP6 58 4.913
29 CP6 59 2.472
29 CP6 60 3.448
29 CP6 61 8.331
29 CP6 62 13.214
29 CP6 63 15.656
29 CP6 64 15.656
29 CP6 65 12.726
29 CP6 66 7.843
29 CP6 67 1.984
29 CP6 68 -3.876
29 CP6 69 -7.294
29 CP6 70 -6.805
29 CP6 71 -2.411
29 CP6 72 1.495
29 CP6 73 1.007
29 CP6 74 -3.876
29 CP6 75 -10.223
29 CP6 76 -13.641
29 CP6 77 -11.200
29 CP6 78 -5.341
29 CP6 79 -0.458
29 CP6 80 0.031
29 CP6 81 -2.411
29 CP6 82 -5.829
29 CP6 83 -6.317
29 CP6 84 -5.341
29 CP6 85 -4.852
29 CP6 86 -5.829
29 CP6 87 -8.270
29 CP6 88 -8.759
29 CP6 89 -6.805
29 CP6 90 -2.411
29 CP6 91 1.007
29 CP6 92 1.007
29 CP6 93 -2.411
29 CP6 94 -6.317
29 CP6 95 -8.270
29 CP6 96 -6.805
29 CP6 97 -4.364
29 CP6 98 -2.411
29 CP6 99 -2.411
29 CP6 100 -2.411
29 CP6 101 -0.946
29 CP6 102 0.031
29 CP6 103 0.031
29 CP6 104 -2.899
29 CP6 105 -5.829
29 CP6 106 -6.317
29 CP6 107 -2.899
29 CP6 108 2.960
29 CP6 109 6.866
29 CP6 110 6.866
29 CP6 111 3.448
29 CP6 112 0.031
29 CP6 113 -1.434
29 CP6 114 -1.923
29 CP6 115 -2.411
29 CP6 116 -4.364
29 CP6 117 -6.317
29 CP6 118 -5.829
29 CP6 119 -1.923
29 CP6 120 2.472
29 CP6 121 4.425
29 CP6 122 2.472
29 CP6 123 -2.411
29 CP6 124 -6.317
29 CP6 125 -6.317
29 CP6 126 -2.411
29 CP6 127 1.495
29 CP6 128 4.425
29 CP6 129 4.913
29 CP6 130 2.960
29 CP6 131 1.007
29 CP6 132 -1.434
29 CP6 133 -2.899
29 CP6 134 -4.364
29 CP6 135 -5.341
29 CP6 136 -5.341
29 CP6 137 -5.341
29 CP6 138 -3.876
29 CP6 139 -1.434
29 CP6 140 1.495
29 CP6 141 4.425
29 CP6 142 6.378
29 CP6 143 5.890
29 CP6 144 2.472
29 CP6 145 -2.411
29 CP6 146 -7.294
29 CP6 147 -10.712
29 CP6 148 -11.688
29 CP6 149 -9.735
29 CP6 150 -7.782
29 CP6 151 -5.829
29 CP6 152 -4.852
29 CP6 153 -3.387
29 CP6 154 -2.899
29 CP6 155 -2.411
29 CP6 156 -1.923
29 CP6 157 -1.923
29 CP6 158 -0.946
29 CP6 159 -0.458
29 CP6 160 -1.923
29 CP6 161 -4.852
29 CP6 162 -8.759
29 CP6 163 -10.712
29 CP6 164 -9.735
29 CP6 165 -6.317
29 CP6 166 -3.387
29 CP6 167 -2.899
29 CP6 168 -3.387
29 CP6 169 -2.899
29 CP6 170 -0.458
29 CP6 171 2.960
29 CP6 172 4.425
29 CP6 173 2.472
29 CP6 174 -0.458
29 CP6 175 -1.923
29 CP6 176 1.495
29 CP6 177 7.843
29 CP6 178 13.214
29 CP6 179 13.702
29 CP6 180 10.284
29 CP6 181 6.378
29 CP6 182 4.913
29 CP6 183 7.355
29 CP6 184 10.284
29 CP6 185 10.773
29 CP6 186 8.820
29 CP6 187 7.355
29 CP6 188 9.796
29 CP6 189 15.656
29 CP6 190 22.003
29 CP6 191 23.956
29 CP6 192 21.515
29 CP6 193 16.632
29 CP6 194 13.214
29 CP6 195 12.726
29 CP6 196 13.702
29 CP6 197 13.214
29 CP6 198 10.284
29 CP6 199 7.843
29 CP6 200 6.866
29 CP6 201 7.843
29 CP6 202 9.308
29 CP6 203 7.843
29 CP6 204 2.960
29 CP6 205 -1.923
29 CP6 206 -4.364
29 CP6 207 -2.899
29 CP6 208 0.519
29 CP6 209 3.937
29 CP6 210 5.890
29 CP6 211 6.866
29 CP6 212 8.331
29 CP6 213 9.308
29 CP6 214 9.308
29 CP6 215 7.355
29 CP6 216 4.913
29 CP6 217 2.472
29 CP6 218 2.960
29 CP6 219 4.425
29 CP6 220 5.402
29 CP6 221 5.890
29 CP6 222 4.913
29 CP6 223 4.913
29 CP6 224 6.378
29 CP6 225 8.820
29 CP6 226 10.284
29 CP6 227 9.308
29 CP6 228 4.913
29 CP6 229 -2.411
29 CP6 230 -10.712
29 CP6 231 -18.524
29 CP6 232 -21.454
29 CP6 233 -19.012
29 CP6 234 -10.712
29 CP6 235 -0.946
29 CP6 236 5.890
29 CP6 237 9.308
29 CP6 238 8.331
29 CP6 239 6.866
29 CP6 240 6.866
29 CP6 241 8.820
29 CP6 242 12.726
29 CP6 243 15.167
29 CP6 244 15.656
29 CP6 245 13.214
29 CP6 246 9.308
29 CP6 247 5.402
29 CP6 248 2.472
29 CP6 249 1.495
29 CP6 250 1.007
29 CP6 251 -0.946
29 CP6 252 -4.852
29 CP6 253 -9.735
29 CP6 254 -13.153
29 CP6 255 -12.665
# CP1 chan 20
29 CP1 0 -4.069
29 CP1 1 -2.604
29 CP1 2 -1.139
29 CP1 3 -0.651
29 CP1 4 -0.163
29 CP1 5 0.326
29 CP1 6 0.814
29 CP1 7 1.302
29 CP1 8 1.302
29 CP1 9 0.814
29 CP1 10 0.326
29 CP1 11 -0.163
29 CP1 12 -0.163
29 CP1 13 -0.163
29 CP1 14 -0.163
29 CP1 15 -0.651
29 CP1 16 -1.139
29 CP1 17 -1.628
29 CP1 18 -1.628
29 CP1 19 -1.139
29 CP1 20 -0.163
29 CP1 21 0.326
29 CP1 22 0.326
29 CP1 23 0.814
29 CP1 24 1.302
29 CP1 25 1.302
29 CP1 26 1.790
29 CP1 27 2.279
29 CP1 28 2.279
29 CP1 29 1.790
29 CP1 30 0.814
29 CP1 31 -0.651
29 CP1 32 -1.628
29 CP1 33 -2.116
29 CP1 34 -1.139
29 CP1 35 0.814
29 CP1 36 3.743
29 CP1 37 6.185
29 CP1 38 7.161
29 CP1 39 5.697
29 CP1 40 2.767
29 CP1 41 -0.163
29 CP1 42 -1.628
29 CP1 43 -1.628
29 CP1 44 -0.651
29 CP1 45 0.326
29 CP1 46 0.326
29 CP1 47 -1.139
29 CP1 48 -3.092
29 CP1 49 -4.557
29 CP1 50 -5.534
29 CP1 51 -5.534
29 CP1 52 -5.534
29 CP1 53 -5.534
29 CP1 54 -5.046
29 CP1 55 -3.581
29 CP1 56 -1.139
29 CP1 57 0.814
29 CP1 58 2.767
29 CP1 59 3.743
29 CP1 60 4.720
29 CP1 61 5.697
29 CP1 62 6.673
29 CP1 63 8.138
29 CP1 64 9.115
29 CP1 65 9.603
29 CP1 66 9.603
29 CP1 67 9.115
29 CP1 68 8.138
29 CP1 69 6.185
29 CP1 70 3.743
29 CP1 71 0.814
29 CP1 72 -1.139
29 CP1 73 -2.116
29 CP1 74 -2.116
29 CP1 75 -2.116
29 CP1 76 -2.116
29 CP1 77 -2.604
29 CP1 78 -3.581
29 CP1 79 -4.557
29 CP1 80 -4.557
29 CP1 81 -3.581
29 CP1 82 -2.116
29 CP1 83 -0.163
29 CP1 84 1.790
29 CP1 85 3.255
29 CP1 86 3.743
29 CP1 87 4.232
29 CP1 88 4.232
29 CP1 89 3.255
29 CP1 90 2.279
29 CP1 91 1.302
29 CP1 92 -0.651
29 CP1 93 -2.604
29 CP1 94 -4.069
29 CP1 95 -5.046
29 CP1 96 -4.069
29 CP1 97 -2.604
29 CP1 98 -0.651
29 CP1 99 1.302
29 CP1 100 2.279
29 CP1 101 3.255
29 CP1 102 4.232
29 CP1 103 4.720
29 CP1 104 5.697
29 CP1 105 6.673
29 CP1 106 7.161
29 CP1 107 6.673
29 CP1 108 6.185
29 CP1 109 5.697
29 CP1 110 5.208
29 CP1 111 5.208
29 CP1 112 5.208
29 CP1 113 4.720
29 CP1 114 3.743
29 CP1 115 1.790
29 CP1 116 -0.163
29 CP1 117 -1.139
29 CP1 118 -0.651
29 CP1 119 0.326
29 CP1 120 2.279
29 CP1 121 3.255
29 CP1 122 3.743
29 CP1 123 2.767
29 CP1 124 2.279
29 CP1 125 2.279
29 CP1 126 2.767
29 CP1 127 4.720
29 CP1 128 6.185
29 CP1 129 7.650
29 CP1 130 8.138
29 CP1 131 7.650
29 CP1 132 6.673
29 CP1 133 5.208
29 CP1 134 3.255
29 CP1 135 1.790
29 CP1 136 1.302
29 CP1 137 1.790
29 CP1 138 2.767
29 CP1 139 3.255
29 CP1 140 3.255
29 CP1 141 2.767
29 CP1 142 2.767
29 CP1 143 3.743
29 CP1 144 5.208
29 CP1 145 6.673
29 CP1 146 7.650
29 CP1 147 6.673
29 CP1 148 5.208
29 CP1 149 3.255
29 CP1 150 2.279
29 CP1 151 2.767
29 CP1 152 4.720
29 CP1 153 6.185
29 CP1 154 6.673
29 CP1 155 6.185
29 CP1 156 5.208
29 CP1 157 4.232
29 CP1 158 3.255
29 CP1 159 3.255
29 CP1 160 4.232
29 CP1 161 4.720
29 CP1 162 5.208
29 CP1 163 5.208
29 CP1 164 4.232
29 CP1 165 3.255
29 CP1 166 2.279
29 CP1 167 1.790
29 CP1 168 2.279
29 CP1 169 3.743
29 CP1 170 5.208
29 CP1 171 5.697
29 CP1 172 5.697
29 CP1 173 5.208
29 CP1 174 5.208
29 CP1 175 5.208
29 CP1 176 6.185
29 CP1 177 7.161
29 CP1 178 8.138
29 CP1 179 8.626
29 CP1 180 7.650
29 CP1 181 7.161
29 CP1 182 5.208
29 CP1 183 3.255
29 CP1 184 1.302
29 CP1 185 0.326
29 CP1 186 0.326
29 CP1 187 1.302
29 CP1 188 3.255
29 CP1 189 4.720
29 CP1 190 5.208
29 CP1 191 6.185
29 CP1 192 6.673
29 CP1 193 8.138
29 CP1 194 9.115
29 CP1 195 9.603
29 CP1 196 9.115
29 CP1 197 7.650
29 CP1 198 6.185
29 CP1 199 4.720
29 CP1 200 3.255
29 CP1 201 1.790
29 CP1 202 0.326
29 CP1 203 -1.628
29 CP1 204 -2.604
29 CP1 205 -3.092
29 CP1 206 -2.604
29 CP1 207 -2.116
29 CP1 208 -2.116
29 CP1 209 -2.116
29 CP1 210 -2.604
29 CP1 211 -2.604
29 CP1 212 -2.116
29 CP1 213 -2.116
29 CP1 214 -1.628
29 CP1 215 -2.116
29 CP1 216 -2.604
29 CP1 217 -2.604
29 CP1 218 -1.628
29 CP1 219 -1.139
29 CP1 220 -0.651
29 CP1 221 -1.628
29 CP1 222 -2.116
29 CP1 223 -3.092
29 CP1 224 -2.116
29 CP1 225 -1.139
29 CP1 226 -0.651
29 CP1 227 -1.139
29 CP1 228 -2.604
29 CP1 229 -4.069
29 CP1 230 -4.557
29 CP1 231 -3.581
29 CP1 232 -2.116
29 CP1 233 -0.651
29 CP1 234 -0.163
29 CP1 235 -0.651
29 CP1 236 -1.139
29 CP1 237 -1.139
29 CP1 238 -0.163
29 CP1 239 0.814
29 CP1 240 1.302
29 CP1 241 1.302
29 CP1 242 1.302
29 CP1 243 1.302
29 CP1 244 1.790
29 CP1 245 2.279
29 CP1 246 2.279
29 CP1 247 1.790
29 CP1 248 0.814
29 CP1 249 -0.651
29 CP1 250 -1.139
29 CP1 251 -1.139
29 CP1 252 -1.139
29 CP1 253 -1.139
29 CP1 254 -1.628
29 CP1 255 -2.604
# CP2 chan 21
29 CP2 0 -0.295
29 CP2 1 -3.225
29 CP2 2 -5.666
29 CP2 3 -6.643
29 CP2 4 -6.643
29 CP2 5 -5.178
29 CP2 6 -2.736
29 CP2 7 -1.272
29 CP2 8 -0.783
29 CP2 9 -0.295
29 CP2 10 0.193
29 CP2 11 1.658
29 CP2 12 4.100
29 CP2 13 5.564
29 CP2 14 6.053
29 CP2 15 4.588
29 CP2 16 2.146
29 CP2 17 0.682
29 CP2 18 0.193
29 CP2 19 1.170
29 CP2 20 2.635
29 CP2 21 3.611
29 CP2 22 4.100
29 CP2 23 4.100
29 CP2 24 3.123
29 CP2 25 1.170
29 CP2 26 -0.783
29 CP2 27 -2.736
29 CP2 28 -2.736
29 CP2 29 -1.760
29 CP2 30 0.193
29 CP2 31 1.658
29 CP2 32 2.146
29 CP2 33 1.658
29 CP2 34 1.170
29 CP2 35 2.146
29 CP2 36 3.611
29 CP2 37 4.588
29 CP2 38 4.588
29 CP2 39 2.635
29 CP2 40 0.682
29 CP2 41 -0.783
29 CP2 42 -1.760
29 CP2 43 -1.272
29 CP2 44 -1.760
29 CP2 45 -2.736
29 CP2 46 -4.201
29 CP2 47 -5.178
29 CP2 48 -6.154
29 CP2 49 -6.643
29 CP2 50 -6.643
29 CP2 51 -6.154
29 CP2 52 -4.690
29 CP2 53 -1.760
29 CP2 54 2.635
29 CP2 55 5.564
29 CP2 56 7.029
29 CP2 57 5.564
29 CP2 58 3.611
29 CP2 59 2.635
29 CP2 60 4.100
29 CP2 61 7.029
29 CP2 62 9.471
29 CP2 63 9.959
29 CP2 64 8.494
29 CP2 65 5.564
29 CP2 66 2.146
29 CP2 67 -1.272
29 CP2 68 -3.713
29 CP2 69 -5.178
29 CP2 70 -5.178
29 CP2 71 -3.713
29 CP2 72 -2.248
29 CP2 73 -1.760
29 CP2 74 -1.760
29 CP2 75 -2.736
29 CP2 76 -2.736
29 CP2 77 -2.248
29 CP2 78 -1.272
29 CP2 79 -0.783
29 CP2 80 -1.272
29 CP2 81 -1.760
29 CP2 82 -2.248
29 CP2 83 -1.272
29 CP2 84 -0.295
29 CP2 85 0.193
29 CP2 86 -1.272
29 CP2 87 -3.225
29 CP2 88 -6.154
29 CP2 89 -7.131
29 CP2 90 -7.619
29 CP2 91 -7.619
29 CP2 92 -8.108
29 CP2 93 -8.596
29 CP2 94 -9.084
29 CP2 95 -7.131
29 CP2 96 -3.225
29 CP2 97 0.193
29 CP2 98 2.146
29 CP2 99 2.635
29 CP2 100 1.658
29 CP2 101 0.682
29 CP2 102 1.170
29 CP2 103 2.635
29 CP2 104 3.611
29 CP2 105 4.100
29 CP2 106 3.611
29 CP2 107 2.146
29 CP2 108 1.658
29 CP2 109 0.682
29 CP2 110 0.193
29 CP2 111 -0.783
29 CP2 112 -1.760
29 CP2 113 -3.225
29 CP2 114 -4.690
29 CP2 115 -6.154
29 CP2 116 -7.131
29 CP2 117 -6.643
29 CP2 118 -4.690
29 CP2 119 -1.272
29 CP2 120 2.146
29 CP2 121 4.588
29 CP2 122 4.588
29 CP2 123 3.611
29 CP2 124 2.635
29 CP2 125 1.658
29 CP2 126 2.146
29 CP2 127 3.123
29 CP2 128 4.100
29 CP2 129 4.588
29 CP2 130 4.100
29 CP2 131 2.635
29 CP2 132 0.682
29 CP2 133 -1.760
29 CP2 134 -3.225
29 CP2 135 -3.713
29 CP2 136 -3.225
29 CP2 137 -1.760
29 CP2 138 -0.295
29 CP2 139 1.170
29 CP2 140 2.635
29 CP2 141 4.100
29 CP2 142 5.564
29 CP2 143 6.541
29 CP2 144 7.517
29 CP2 145 7.517
29 CP2 146 7.029
29 CP2 147 6.541
29 CP2 148 5.564
29 CP2 149 4.588
29 CP2 150 3.611
29 CP2 151 2.635
29 CP2 152 2.146
29 CP2 153 1.658
29 CP2 154 1.170
29 CP2 155 -0.295
29 CP2 156 -2.248
29 CP2 157 -5.178
29 CP2 158 -6.643
29 CP2 159 -6.154
29 CP2 160 -3.713
29 CP2 161 -0.783
29 CP2 162 0.682
29 CP2 163 0.682
29 CP2 164 0.193
29 CP2 165 -1.272
29 CP2 166 -0.783
29 CP2 167 0.682
29 CP2 168 2.146
29 CP2 169 4.100
29 CP2 170 5.076
29 CP2 171 5.076
29 CP2 172 4.588
29 CP2 173 4.100
29 CP2 174 3.611
29 CP2 175 4.100
29 CP2 176 4.588
29 CP2 177 5.564
29 CP2 178 6.541
29 CP2 179 5.564
29 CP2 180 3.611
29 CP2 181 0.682
29 CP2 182 -1.760
29 CP2 183 -2.248
29 CP2 184 -1.272
29 CP2 185 1.170
29 CP2 186 4.100
29 CP2 187 6.541
29 CP2 188 8.982
29 CP2 189 10.935
29 CP2 190 12.889
29 CP2 191 13.377
29 CP2 192 12.400
29 CP2 193 10.447
29 CP2 194 8.982
29 CP2 195 8.494
29 CP2 196 8.982
29 CP2 197 8.982
29 CP2 198 8.494
29 CP2 199 7.029
29 CP2 200 5.076
29 CP2 201 4.100
29 CP2 202 3.611
29 CP2 203 3.123
29 CP2 204 2.146
29 CP2 205 0.193
29 CP2 206 -1.272
29 CP2 207 -1.272
29 CP2 208 -0.295
29 CP2 209 1.658
29 CP2 210 2.635
29 CP2 211 2.635
29 CP2 212 2.146
29 CP2 213 1.658
29 CP2 214 2.146
29 CP2 215 3.123
29 CP2 216 4.100
29 CP2 217 4.100
29 CP2 218 2.635
29 CP2 219 0.193
29 CP2 220 -2.248
29 CP2 221 -3.713
29 CP2 222 -3.713
29 CP2 223 -3.225
29 CP2 224 -1.760
29 CP2 225 -0.295
29 CP2 226 -0.295
29 CP2 227 -0.783
29 CP2 228 -1.760
29 CP2 229 -2.736
29 CP2 230 -3.713
29 CP2 231 -4.690
29 CP2 232 -4.690
29 CP2 233 -4.690
29 CP2 234 -3.225
29 CP2 235 -1.760
29 CP2 236 0.682
29 CP2 237 2.635
29 CP2 238 3.611
29 CP2 239 3.123
29 CP2 240 1.658
29 CP2 241 -0.295
29 CP2 242 -0.783
29 CP2 243 0.682
29 CP2 244 2.635
29 CP2 245 4.588
29 CP2 246 5.076
29 CP2 247 4.100
29 CP2 248 2.146
29 CP2 249 0.682
29 CP2 250 0.682
29 CP2 251 1.170
29 CP2 252 1.170
29 CP2 253 1.170
29 CP2 254 0.193
29 CP2 255 -0.783
# P3 chan 22
29 P3 0 -6.877
29 P3 1 -4.435
29 P3 2 -2.482
29 P3 3 -1.017
29 P3 4 -0.529
29 P3 5 -0.041
29 P3 6 -0.041
29 P3 7 0.448
29 P3 8 -0.529
29 P3 9 -1.506
29 P3 10 -1.994
29 P3 11 -1.506
29 P3 12 -0.529
29 P3 13 -0.529
29 P3 14 -1.017
29 P3 15 -1.994
29 P3 16 -2.482
29 P3 17 -1.994
29 P3 18 -1.017
29 P3 19 -0.041
29 P3 20 -0.041
29 P3 21 -0.529
29 P3 22 -1.506
29 P3 23 -2.482
29 P3 24 -1.994
29 P3 25 -1.017
29 P3 26 -0.041
29 P3 27 0.936
29 P3 28 0.936
29 P3 29 0.448
29 P3 30 -0.041
29 P3 31 -1.506
29 P3 32 -2.970
29 P3 33 -3.947
29 P3 34 -2.970
29 P3 35 -0.529
29 P3 36 3.377
29 P3 37 6.307
29 P3 38 7.284
29 P3 39 4.842
29 P3 40 0.448
29 P3 41 -3.459
29 P3 42 -5.900
29 P3 43 -5.900
29 P3 44 -4.435
29 P3 45 -4.435
29 P3 46 -4.924
29 P3 47 -7.365
29 P3 48 -9.806
29 P3 49 -11.271
29 P3 50 -10.783
29 P3 51 -10.295
29 P3 52 -10.295
29 P3 53 -10.783
29 P3 54 -10.783
29 P3 55 -9.806
29 P3 56 -7.853
29 P3 57 -4.435
29 P3 58 -1.506
29 P3 59 2.401
29 P3 60 4.842
29 P3 61 7.284
29 P3 62 8.748
29 P3 63 9.725
29 P3 64 11.190
29 P3 65 12.166
29 P3 66 12.166
29 P3 67 11.190
29 P3 68 9.237
29 P3 69 6.307
29 P3 70 1.912
29 P3 71 -1.994
29 P3 72 -5.900
29 P3 73 -7.853
29 P3 74 -9.806
29 P3 75 -11.271
29 P3 76 -12.736
29 P3 77 -15.177
29 P3 78 -17.131
29 P3 79 -18.107
29 P3 80 -17.619
29 P3 81 -16.154
29 P3 82 -13.713
29 P3 83 -10.783
29 P3 84 -7.365
29 P3 85 -4.435
29 P3 86 -2.482
29 P3 87 -1.017
29 P3 88 -0.529
29 P3 89 -0.529
29 P3 90 -1.017
29 P3 91 -2.970
29 P3 92 -4.924
29 P3 93 -7.853
29 P3 94 -10.295
29 P3 95 -11.271
29 P3 96 -10.783
29 P3 97 -9.318
29 P3 98 -6.877
29 P3 99 -4.435
29 P3 100 -2.970
29 P3 101 -1.506
29 P3 102 -0.529
29 P3 103 1.424
29 P3 104 2.889
29 P3 105 4.354
29 P3 106 4.842
29 P3 107 3.866
29 P3 108 1.912
29 P3 109 0.448
29 P3 110 -0.529
29 P3 111 0.448
29 P3 112 1.424
29 P3 113 1.912
29 P3 114 -0.041
29 P3 115 -3.459
29 P3 116 -7.365
29 P3 117 -9.318
29 P3 118 -9.318
29 P3 119 -6.877
29 P3 120 -3.947
29 P3 121 -2.482
29 P3 122 -2.482
29 P3 123 -3.947
29 P3 124 -4.924
29 P3 125 -4.924
29 P3 126 -3.947
29 P3 127 -1.994
29 P3 128 -0.041
29 P3 129 1.912
29 P3 130 3.377
29 P3 131 3.377
29 P3 132 2.401
29 P3 133 -0.529
29 P3 134 -3.459
29 P3 135 -5.900
29 P3 136 -5.900
29 P3 137 -3.459
29 P3 138 -0.529
29 P3 139 -0.041
29 P3 140 -1.017
29 P3 141 -2.970
29 P3 142 -3.947
29 P3 143 -2.970
29 P3 144 -0.529
29 P3 145 2.401
29 P3 146 3.377
29 P3 147 1.912
29 P3 148 -1.017
29 P3 149 -4.435
29 P3 150 -5.900
29 P3 151 -4.435
29 P3 152 -1.994
29 P3 153 0.936
29 P3 154 2.401
29 P3 155 2.401
29 P3 156 1.424
29 P3 157 0.448
29 P3 158 0.936
29 P3 159 1.912
29 P3 160 2.889
29 P3 161 3.866
29 P3 162 3.377
29 P3 163 1.424
29 P3 164 -0.529
29 P3 165 -2.970
29 P3 166 -4.924
29 P3 167 -5.412
29 P3 168 -4.924
29 P3 169 -3.459
29 P3 170 -1.994
29 P3 171 -1.017
29 P3 172 -1.017
29 P3 173 -1.017
29 P3 174 -0.529
29 P3 175 0.448
29 P3 176 2.889
29 P3 177 5.819
29 P3 178 8.260
29 P3 179 9.237
29 P3 180 8.260
29 P3 181 5.330
29 P3 182 1.424
29 P3 183 -2.482
29 P3 184 -5.412
29 P3 185 -6.388
29 P3 186 -4.924
29 P3 187 -2.970
29 P3 188 -1.017
29 P3 189 0.448
29 P3 190 0.936
29 P3 191 1.912
29 P3 192 3.377
29 P3 193 5.330
29 P3 194 6.795
29 P3 195 7.284
29 P3 196 6.795
29 P3 197 5.819
29 P3 198 4.354
29 P3 199 2.889
29 P3 200 -0.041
29 P3 201 -3.947
29 P3 202 -7.853
29 P3 203 -10.783
29 P3 204 -12.736
29 P3 205 -12.736
29 P3 206 -11.759
29 P3 207 -10.783
29 P3 208 -10.295
29 P3 209 -11.271
29 P3 210 -11.759
29 P3 211 -12.248
29 P3 212 -11.759
29 P3 213 -10.783
29 P3 214 -9.318
29 P3 215 -8.830
29 P3 216 -8.341
29 P3 217 -8.341
29 P3 218 -8.341
29 P3 219 -8.341
29 P3 220 -8.341
29 P3 221 -9.318
29 P3 222 -9.806
29 P3 223 -9.806
29 P3 224 -9.318
29 P3 225 -8.341
29 P3 226 -8.341
29 P3 227 -9.318
29 P3 228 -11.271
29 P3 229 -13.713
29 P3 230 -15.177
29 P3 231 -15.177
29 P3 232 -13.713
29 P3 233 -12.736
29 P3 234 -12.736
29 P3 235 -13.224
29 P3 236 -13.224
29 P3 237 -11.759
29 P3 238 -9.806
29 P3 239 -7.853
29 P3 240 -6.877
29 P3 241 -6.877
29 P3 242 -6.388
29 P3 243 -5.412
29 P3 244 -3.459
29 P3 245 -1.017
29 P3 246 -0.529
29 P3 247 -1.506
29 P3 248 -3.947
29 P3 249 -6.877
29 P3 250 -8.341
29 P3 251 -8.830
29 P3 252 -8.341
29 P3 253 -8.830
29 P3 254 -10.295
29 P3 255 -13.224
# P4 chan 23
29 P4 0 -0.793
29 P4 1 -3.235
29 P4 2 -5.676
29 P4 3 -7.629
29 P4 4 -8.606
29 P4 5 -8.118
29 P4 6 -6.653
29 P4 7 -4.211
29 P4 8 -2.258
29 P4 9 -0.793
29 P4 10 0.183
29 P4 11 1.648
29 P4 12 4.089
29 P4 13 6.531
29 P4 14 8.484
29 P4 15 8.484
29 P4 16 6.531
29 P4 17 4.089
29 P4 18 2.625
29 P4 19 2.625
29 P4 20 3.601
29 P4 21 5.066
29 P4 22 6.042
29 P4 23 6.531
29 P4 24 6.042
29 P4 25 4.578
29 P4 26 4.089
29 P4 27 4.089
29 P4 28 5.066
29 P4 29 6.042
29 P4 30 6.042
29 P4 31 4.578
29 P4 32 2.136
29 P4 33 -0.305
29 P4 34 -1.282
29 P4 35 -0.793
29 P4 36 0.671
29 P4 37 2.136
29 P4 38 1.648
29 P4 39 0.183
29 P4 40 -1.770
29 P4 41 -2.258
29 P4 42 -1.282
29 P4 43 -0.305
29 P4 44 0.671
29 P4 45 -0.305
29 P4 46 -1.770
29 P4 47 -4.211
29 P4 48 -5.676
29 P4 49 -7.629
29 P4 50 -9.094
29 P4 51 -10.071
29 P4 52 -9.583
29 P4 53 -6.653
29 P4 54 -2.258
29 P4 55 1.648
29 P4 56 3.113
29 P4 57 2.136
29 P4 58 0.671
29 P4 59 1.648
29 P4 60 4.578
29 P4 61 9.460
29 P4 62 13.367
29 P4 63 14.343
29 P4 64 13.367
29 P4 65 10.925
29 P4 66 7.996
29 P4 67 5.066
29 P4 68 1.648
29 P4 69 -0.793
29 P4 70 -2.747
29 P4 71 -2.747
29 P4 72 -2.747
29 P4 73 -3.235
29 P4 74 -6.165
29 P4 75 -9.583
29 P4 76 -12.024
29 P4 77 -12.512
29 P4 78 -11.536
29 P4 79 -10.071
29 P4 80 -10.071
29 P4 81 -11.047
29 P4 82 -11.536
29 P4 83 -10.559
29 P4 84 -8.118
29 P4 85 -6.165
29 P4 86 -5.676
29 P4 87 -7.141
29 P4 88 -8.606
29 P4 89 -8.606
29 P4 90 -8.118
29 P4 91 -7.629
29 P4 92 -9.583
29 P4 93 -12.512
29 P4 94 -14.465
29 P4 95 -13.977
29 P4 96 -11.047
29 P4 97 -7.141
29 P4 98 -5.188
29 P4 99 -6.165
29 P4 100 -7.629
29 P4 101 -8.118
29 P4 102 -6.165
29 P4 103 -3.235
29 P4 104 -0.793
29 P4 105 -0.305
29 P4 106 -0.793
29 P4 107 -1.282
29 P4 108 -0.793
29 P4 109 0.183
29 P4 110 0.671
29 P4 111 0.183
29 P4 112 -0.305
29 P4 113 -2.258
29 P4 114 -4.211
29 P4 115 -8.118
29 P4 116 -11.536
29 P4 117 -13.489
29 P4 118 -13.000
29 P4 119 -10.071
29 P4 120 -6.653
29 P4 121 -4.211
29 P4 122 -4.211
29 P4 123 -6.165
29 P4 124 -8.118
29 P4 125 -7.629
29 P4 126 -5.188
29 P4 127 -1.282
29 P4 128 1.648
29 P4 129 2.625
29 P4 130 1.648
29 P4 131 -0.305
29 P4 132 -2.258
29 P4 133 -4.211
29 P4 134 -5.676
29 P4 135 -5.676
29 P4 136 -5.676
29 P4 137 -4.700
29 P4 138 -3.723
29 P4 139 -2.258
29 P4 140 -1.282
29 P4 141 -0.305
29 P4 142 0.671
29 P4 143 1.160
29 P4 144 1.648
29 P4 145 1.648
29 P4 146 1.648
29 P4 147 0.671
29 P4 148 -1.282
29 P4 149 -3.723
29 P4 150 -5.676
29 P4 151 -6.165
29 P4 152 -4.211
29 P4 153 -2.258
29 P4 154 -1.770
29 P4 155 -3.235
29 P4 156 -6.653
29 P4 157 -9.583
29 P4 158 -10.071
29 P4 159 -7.629
29 P4 160 -4.211
29 P4 161 -1.770
29 P4 162 -2.258
29 P4 163 -4.700
29 P4 164 -8.118
29 P4 165 -10.071
29 P4 166 -10.071
29 P4 167 -8.606
29 P4 168 -5.676
29 P4 169 -2.747
29 P4 170 -0.305
29 P4 171 1.648
29 P4 172 2.136
29 P4 173 2.136
29 P4 174 1.648
29 P4 175 2.136
29 P4 176 3.601
29 P4 177 5.554
29 P4 178 7.019
29 P4 179 6.531
29 P4 180 4.089
29 P4 181 1.160
29 P4 182 -1.282
29 P4 183 -2.258
29 P4 184 -1.282
29 P4 185 0.183
29 P4 186 2.625
29 P4 187 6.042
29 P4 188 8.972
29 P4 189 12.878
29 P4 190 14.832
29 P4 191 15.320
29 P4 192 13.855
29 P4 193 11.414
29 P4 194 8.972
29 P4 195 7.507
29 P4 196 7.507
29 P4 197 7.019
29 P4 198 6.042
29 P4 199 4.578
29 P4 200 2.625
29 P4 201 1.160
29 P4 202 0.183
29 P4 203 -0.793
29 P4 204 -2.747
29 P4 205 -5.676
29 P4 206 -7.141
29 P4 207 -7.141
29 P4 208 -5.676
29 P4 209 -2.747
29 P4 210 -1.282
29 P4 211 -0.305
29 P4 212 -0.793
29 P4 213 -1.282
29 P4 214 -1.282
29 P4 215 -0.305
29 P4 216 0.671
29 P4 217 0.671
29 P4 218 -0.305
29 P4 219 -2.747
29 P4 220 -5.676
29 P4 221 -7.629
29 P4 222 -8.118
29 P4 223 -7.141
29 P4 224 -4.700
29 P4 225 -3.235
29 P4 226 -3.235
29 P4 227 -4.700
29 P4 228 -7.141
29 P4 229 -10.559
29 P4 230 -13.000
29 P4 231 -14.954
29 P4 232 -15.442
29 P4 233 -14.954
29 P4 234 -13.000
29 P4 235 -9.094
29 P4 236 -5.676
29 P4 237 -1.770
29 P4 238 0.671
29 P4 239 2.136
29 P4 240 1.648
29 P4 241 1.160
29 P4 242 1.160
29 P4 243 2.136
29 P4 244 5.066
29 P4 245 7.996
29 P4 246 9.460
29 P4 247 8.972
29 P4 248 6.042
29 P4 249 2.625
29 P4 250 -0.793
29 P4 251 -3.235
29 P4 252 -5.188
29 P4 253 -7.141
29 P4 254 -9.094
29 P4 255 -11.047
# PZ chan 24
29 PZ 0 -5.564
29 PZ 1 -5.564
29 PZ 2 -5.076
29 PZ 3 -3.611
29 PZ 4 -2.146
29 PZ 5 -1.170
29 PZ 6 -0.682
29 PZ 7 -0.682
29 PZ 8 -0.193
29 PZ 9 -0.193
29 PZ 10 -0.193
29 PZ 11 0.783
29 PZ 12 1.760
29 PZ 13 2.736
29 PZ 14 3.225
29 PZ 15 3.225
29 PZ 16 2.736
29 PZ 17 2.248
29 PZ 18 1.760
29 PZ 19 1.760
29 PZ 20 1.760
29 PZ 21 2.248
29 PZ 22 2.736
29 PZ 23 3.225
29 PZ 24 3.225
29 PZ 25 2.736
29 PZ 26 2.248
29 PZ 27 2.248
29 PZ 28 1.760
29 PZ 29 1.272
29 PZ 30 0.783
29 PZ 31 -1.170
29 PZ 32 -3.123
29 PZ 33 -4.100
29 PZ 34 -3.611
29 PZ 35 -1.658
29 PZ 36 0.783
29 PZ 37 3.225
29 PZ 38 3.713
29 PZ 39 2.736
29 PZ 40 0.783
29 PZ 41 -1.170
29 PZ 42 -1.170
29 PZ 43 -0.193
29 PZ 44 0.295
29 PZ 45 0.783
29 PZ 46 -0.682
29 PZ 47 -2.635
29 PZ 48 -4.588
29 PZ 49 -6.541
29 PZ 50 -8.006
29 PZ 51 -8.494
29 PZ 52 -8.494
29 PZ 53 -7.029
29 PZ 54 -6.053
29 PZ 55 -4.588
29 PZ 56 -3.611
29 PZ 57 -3.611
29 PZ 58 -3.123
29 PZ 59 -1.658
29 PZ 60 1.272
29 PZ 61 4.690
29 PZ 62 8.108
29 PZ 63 10.061
29 PZ 64 10.549
29 PZ 65 9.084
29 PZ 66 7.131
29 PZ 67 5.178
29 PZ 68 3.225
29 PZ 69 1.272
29 PZ 70 -0.193
29 PZ 71 -2.146
29 PZ 72 -3.611
29 PZ 73 -5.076
29 PZ 74 -6.053
29 PZ 75 -7.517
29 PZ 76 -8.982
29 PZ 77 -9.959
29 PZ 78 -11.424
29 PZ 79 -11.912
29 PZ 80 -12.400
29 PZ 81 -11.912
29 PZ 82 -10.935
29 PZ 83 -9.471
29 PZ 84 -7.029
29 PZ 85 -5.564
29 PZ 86 -5.076
29 PZ 87 -5.076
29 PZ 88 -6.053
29 PZ 89 -7.029
29 PZ 90 -8.494
29 PZ 91 -9.959
29 PZ 92 -11.912
29 PZ 93 -13.865
29 PZ 94 -14.842
29 PZ 95 -14.353
29 PZ 96 -12.400
29 PZ 97 -9.959
29 PZ 98 -8.006
29 PZ 99 -6.053
29 PZ 100 -5.564
29 PZ 101 -4.588
29 PZ 102 -3.123
29 PZ 103 -0.682
29 PZ 104 1.760
29 PZ 105 3.225
29 PZ 106 3.225
29 PZ 107 2.736
29 PZ 108 1.760
29 PZ 109 0.783
29 PZ 110 0.295
29 PZ 111 0.783
29 PZ 112 0.783
29 PZ 113 0.295
29 PZ 114 -2.146
29 PZ 115 -5.564
29 PZ 116 -8.982
29 PZ 117 -10.935
29 PZ 118 -10.447
29 PZ 119 -8.006
29 PZ 120 -5.076
29 PZ 121 -3.123
29 PZ 122 -2.146
29 PZ 123 -2.635
29 PZ 124 -3.123
29 PZ 125 -2.635
29 PZ 126 -1.170
29 PZ 127 0.783
29 PZ 128 3.225
29 PZ 129 5.666
29 PZ 130 7.131
29 PZ 131 6.643
29 PZ 132 5.178
29 PZ 133 2.736
29 PZ 134 -0.193
29 PZ 135 -1.658
29 PZ 136 -1.170
29 PZ 137 0.295
29 PZ 138 1.760
29 PZ 139 2.736
29 PZ 140 2.248
29 PZ 141 1.272
29 PZ 142 0.783
29 PZ 143 1.760
29 PZ 144 3.713
29 PZ 145 5.666
29 PZ 146 7.131
29 PZ 147 6.643
29 PZ 148 5.178
29 PZ 149 2.248
29 PZ 150 0.295
29 PZ 151 -0.193
29 PZ 152 0.783
29 PZ 153 2.248
29 PZ 154 2.736
29 PZ 155 2.248
29 PZ 156 -0.682
29 PZ 157 -3.123
29 PZ 158 -4.588
29 PZ 159 -4.100
29 PZ 160 -2.146
29 PZ 161 -0.193
29 PZ 162 0.783
29 PZ 163 -0.682
29 PZ 164 -3.123
29 PZ 165 -5.564
29 PZ 166 -7.029
29 PZ 167 -6.541
29 PZ 168 -4.588
29 PZ 169 -1.658
29 PZ 170 0.783
29 PZ 171 2.248
29 PZ 172 2.248
29 PZ 173 2.248
29 PZ 174 2.248
29 PZ 175 3.225
29 PZ 176 4.201
29 PZ 177 5.666
29 PZ 178 6.154
29 PZ 179 5.666
29 PZ 180 3.225
29 PZ 181 -0.193
29 PZ 182 -4.100
29 PZ 183 -8.006
29 PZ 184 -9.959
29 PZ 185 -9.959
29 PZ 186 -6.541
29 PZ 187 -1.658
29 PZ 188 2.736
29 PZ 189 6.154
29 PZ 190 7.619
29 PZ 191 7.619
29 PZ 192 7.619
29 PZ 193 7.619
29 PZ 194 7.619
29 PZ 195 7.619
29 PZ 196 7.131
29 PZ 197 5.666
29 PZ 198 3.713
29 PZ 199 1.760
29 PZ 200 -0.682
29 PZ 201 -2.635
29 PZ 202 -5.076
29 PZ 203 -7.029
29 PZ 204 -8.494
29 PZ 205 -8.982
29 PZ 206 -8.982
29 PZ 207 -8.494
29 PZ 208 -7.517
29 PZ 209 -6.541
29 PZ 210 -5.564
29 PZ 211 -5.564
29 PZ 212 -6.053
29 PZ 213 -7.029
29 PZ 214 -7.517
29 PZ 215 -7.517
29 PZ 216 -7.029
29 PZ 217 -7.029
29 PZ 218 -7.517
29 PZ 219 -9.471
29 PZ 220 -11.424
29 PZ 221 -12.889
29 PZ 222 -13.377
29 PZ 223 -12.400
29 PZ 224 -10.447
29 PZ 225 -8.494
29 PZ 226 -7.517
29 PZ 227 -7.517
29 PZ 228 -8.494
29 PZ 229 -9.471
29 PZ 230 -10.935
29 PZ 231 -11.912
29 PZ 232 -12.400
29 PZ 233 -13.377
29 PZ 234 -13.865
29 PZ 235 -13.865
29 PZ 236 -12.889
29 PZ 237 -11.424
29 PZ 238 -9.959
29 PZ 239 -8.494
29 PZ 240 -8.006
29 PZ 241 -7.517
29 PZ 242 -7.029
29 PZ 243 -5.564
29 PZ 244 -3.611
29 PZ 245 -1.658
29 PZ 246 -0.193
29 PZ 247 -0.193
29 PZ 248 -1.170
29 PZ 249 -2.146
29 PZ 250 -3.123
29 PZ 251 -3.611
29 PZ 252 -4.100
29 PZ 253 -4.100
29 PZ 254 -6.053
29 PZ 255 -8.494
# P8 chan 25
29 P8 0 -3.743
29 P8 1 -4.232
29 P8 2 -3.743
29 P8 3 -4.720
29 P8 4 -7.650
29 P8 5 -10.579
29 P8 6 -11.556
29 P8 7 -10.091
29 P8 8 -6.185
29 P8 9 -2.767
29 P8 10 -0.326
29 P8 11 0.651
29 P8 12 1.628
29 P8 13 3.581
29 P8 14 5.534
29 P8 15 7.975
29 P8 16 9.440
29 P8 17 9.440
29 P8 18 8.952
29 P8 19 8.952
29 P8 20 9.440
29 P8 21 8.952
29 P8 22 7.487
29 P8 23 6.022
29 P8 24 5.534
29 P8 25 6.999
29 P8 26 10.417
29 P8 27 13.835
29 P8 28 15.299
29 P8 29 14.323
29 P8 30 11.882
29 P8 31 8.952
29 P8 32 6.999
29 P8 33 6.999
29 P8 34 7.487
29 P8 35 8.464
29 P8 36 8.464
29 P8 37 7.975
29 P8 38 6.510
29 P8 39 4.069
29 P8 40 1.628
29 P8 41 -0.326
29 P8 42 -0.814
29 P8 43 0.651
29 P8 44 2.604
29 P8 45 3.581
29 P8 46 2.116
29 P8 47 0.163
29 P8 48 -1.790
29 P8 49 -2.279
29 P8 50 -0.814
29 P8 51 1.139
29 P8 52 2.116
29 P8 53 2.116
29 P8 54 1.139
29 P8 55 0.651
29 P8 56 1.139
29 P8 57 2.116
29 P8 58 5.046
29 P8 59 8.464
29 P8 60 11.393
29 P8 61 14.323
29 P8 62 16.764
29 P8 63 17.741
29 P8 64 17.741
29 P8 65 16.764
29 P8 66 14.811
29 P8 67 12.370
29 P8 68 9.440
29 P8 69 6.022
29 P8 70 2.604
29 P8 71 -1.302
29 P8 72 -4.232
29 P8 73 -6.185
29 P8 74 -8.138
29 P8 75 -10.091
29 P8 76 -12.044
29 P8 77 -14.486
29 P8 78 -15.951
29 P8 79 -16.439
29 P8 80 -15.951
29 P8 81 -14.974
29 P8 82 -13.997
29 P8 83 -13.509
29 P8 84 -13.021
29 P8 85 -12.533
29 P8 86 -12.044
29 P8 87 -11.068
29 P8 88 -9.115
29 P8 89 -7.161
29 P8 90 -5.697
29 P8 91 -6.185
29 P8 92 -9.115
29 P8 93 -12.533
29 P8 94 -15.462
29 P8 95 -16.439
29 P8 96 -15.462
29 P8 97 -13.509
29 P8 98 -13.021
29 P8 99 -13.997
29 P8 100 -15.951
29 P8 101 -16.927
29 P8 102 -16.439
29 P8 103 -14.974
29 P8 104 -12.044
29 P8 105 -9.603
29 P8 106 -7.161
29 P8 107 -5.697
29 P8 108 -4.232
29 P8 109 -4.232
29 P8 110 -5.208
29 P8 111 -6.673
29 P8 112 -8.626
29 P8 113 -10.579
29 P8 114 -12.044
29 P8 115 -13.997
29 P8 116 -16.439
29 P8 117 -18.392
29 P8 118 -18.880
29 P8 119 -18.392
29 P8 120 -16.927
29 P8 121 -16.439
29 P8 122 -17.904
29 P8 123 -20.345
29 P8 124 -22.298
29 P8 125 -21.810
29 P8 126 -18.880
29 P8 127 -13.997
29 P8 128 -9.603
29 P8 129 -7.650
29 P8 130 -7.650
29 P8 131 -9.603
29 P8 132 -12.044
29 P8 133 -14.974
29 P8 134 -16.927
29 P8 135 -17.904
29 P8 136 -17.415
29 P8 137 -15.951
29 P8 138 -14.974
29 P8 139 -14.974
29 P8 140 -16.439
29 P8 141 -17.904
29 P8 142 -17.904
29 P8 143 -15.951
29 P8 144 -13.021
29 P8 145 -11.556
29 P8 146 -13.021
29 P8 147 -17.415
29 P8 148 -23.275
29 P8 149 -28.158
29 P8 150 -29.134
29 P8 151 -26.204
29 P8 152 -21.810
29 P8 153 -18.392
29 P8 154 -16.439
29 P8 155 -16.927
29 P8 156 -17.904
29 P8 157 -19.368
29 P8 158 -18.880
29 P8 159 -17.904
29 P8 160 -16.439
29 P8 161 -15.462
29 P8 162 -15.462
29 P8 163 -17.415
29 P8 164 -21.810
29 P8 165 -27.181
29 P8 166 -31.576
29 P8 167 -33.040
29 P8 168 -29.622
29 P8 169 -23.763
29 P8 170 -16.927
29 P8 171 -13.021
29 P8 172 -12.533
29 P8 173 -14.486
29 P8 174 -15.462
29 P8 175 -14.486
29 P8 176 -11.068
29 P8 177 -6.673
29 P8 178 -3.255
29 P8 179 -0.814
29 P8 180 -0.326
29 P8 181 -1.790
29 P8 182 -4.232
29 P8 183 -7.650
29 P8 184 -10.579
29 P8 185 -11.068
29 P8 186 -8.626
29 P8 187 -4.720
29 P8 188 -0.814
29 P8 189 1.139
29 P8 190 1.628
29 P8 191 2.116
29 P8 192 2.116
29 P8 193 1.628
29 P8 194 0.163
29 P8 195 -2.767
29 P8 196 -6.185
29 P8 197 -8.138
29 P8 198 -8.138
29 P8 199 -7.161
29 P8 200 -6.673
29 P8 201 -8.626
29 P8 202 -11.556
29 P8 203 -15.462
29 P8 204 -17.904
29 P8 205 -19.368
29 P8 206 -19.368
29 P8 207 -17.904
29 P8 208 -15.951
29 P8 209 -13.997
29 P8 210 -11.556
29 P8 211 -10.579
29 P8 212 -11.068
29 P8 213 -12.044
29 P8 214 -13.021
29 P8 215 -12.533
29 P8 216 -10.579
29 P8 217 -9.115
29 P8 218 -9.115
29 P8 219 -10.579
29 P8 220 -12.533
29 P8 221 -13.997
29 P8 222 -13.997
29 P8 223 -13.997
29 P8 224 -13.997
29 P8 225 -15.462
29 P8 226 -18.392
29 P8 227 -22.298
29 P8 228 -25.716
29 P8 229 -28.158
29 P8 230 -30.111
29 P8 231 -31.087
29 P8 232 -30.111
29 P8 233 -28.646
29 P8 234 -25.716
29 P8 235 -21.322
29 P8 236 -16.927
29 P8 237 -13.021
29 P8 238 -9.603
29 P8 239 -7.161
29 P8 240 -6.185
29 P8 241 -4.720
29 P8 242 -2.767
29 P8 243 -0.814
29 P8 244 0.163
29 P8 245 -0.326
29 P8 246 -2.767
29 P8 247 -6.673
29 P8 248 -11.556
29 P8 249 -16.439
29 P8 250 -20.833
29 P8 251 -24.740
29 P8 252 -28.158
29 P8 253 -29.622
29 P8 254 -30.599
29 P8 255 -31.087
# P7 chan 26
29 P7 0 -9.410
29 P7 1 -6.968
29 P7 2 -3.550
29 P7 3 -0.621
29 P7 4 0.356
29 P7 5 -1.109
29 P7 6 -3.550
29 P7 7 -5.015
29 P7 8 -5.992
29 P7 9 -4.527
29 P7 10 -2.574
29 P7 11 -0.621
29 P7 12 0.844
29 P7 13 1.821
29 P7 14 1.821
29 P7 15 2.797
29 P7 16 3.286
29 P7 17 4.262
29 P7 18 4.262
29 P7 19 4.262
29 P7 20 3.286
29 P7 21 2.797
29 P7 22 1.821
29 P7 23 0.844
29 P7 24 0.356
29 P7 25 1.333
29 P7 26 3.286
29 P7 27 6.704
29 P7 28 10.122
29 P7 29 12.563
29 P7 30 12.563
29 P7 31 10.122
29 P7 32 7.192
29 P7 33 5.727
29 P7 34 5.727
29 P7 35 7.680
29 P7 36 10.122
29 P7 37 10.610
29 P7 38 8.657
29 P7 39 4.751
29 P7 40 0.844
29 P7 41 -2.085
29 P7 42 -2.574
29 P7 43 -1.597
29 P7 44 -0.621
29 P7 45 -1.109
29 P7 46 -3.550
29 P7 47 -6.480
29 P7 48 -8.433
29 P7 49 -8.921
29 P7 50 -8.921
29 P7 51 -8.921
29 P7 52 -9.410
29 P7 53 -10.386
29 P7 54 -10.874
29 P7 55 -9.410
29 P7 56 -6.480
29 P7 57 -3.062
29 P7 58 1.333
29 P7 59 4.751
29 P7 60 7.680
29 P7 61 10.122
29 P7 62 11.098
29 P7 63 11.587
29 P7 64 11.587
29 P7 65 11.098
29 P7 66 11.098
29 P7 67 11.587
29 P7 68 11.098
29 P7 69 9.145
29 P7 70 5.239
29 P7 71 0.844
29 P7 72 -3.550
29 P7 73 -7.456
29 P7 74 -9.898
29 P7 75 -12.339
29 P7 76 -15.269
29 P7 77 -18.687
29 P7 78 -21.617
29 P7 79 -22.593
29 P7 80 -21.128
29 P7 81 -17.222
29 P7 82 -13.316
29 P7 83 -9.410
29 P7 84 -6.480
29 P7 85 -4.527
29 P7 86 -3.062
29 P7 87 -2.085
29 P7 88 -1.109
29 P7 89 -1.109
29 P7 90 -1.597
29 P7 91 -3.062
29 P7 92 -5.015
29 P7 93 -6.480
29 P7 94 -8.921
29 P7 95 -10.874
29 P7 96 -11.851
29 P7 97 -11.363
29 P7 98 -8.921
29 P7 99 -5.503
29 P7 100 -2.085
29 P7 101 0.356
29 P7 102 0.844
29 P7 103 0.356
29 P7 104 0.356
29 P7 105 0.356
29 P7 106 0.356
29 P7 107 -0.132
29 P7 108 -2.085
29 P7 109 -4.527
29 P7 110 -5.992
29 P7 111 -5.015
29 P7 112 -3.062
29 P7 113 -0.621
29 P7 114 -0.621
29 P7 115 -2.574
29 P7 116 -5.992
29 P7 117 -8.433
29 P7 118 -9.410
29 P7 119 -7.945
29 P7 120 -6.968
29 P7 121 -6.968
29 P7 122 -8.433
29 P7 123 -9.898
29 P7 124 -10.386
29 P7 125 -8.433
29 P7 126 -5.503
29 P7 127 -2.574
29 P7 128 -0.132
29 P7 129 0.844
29 P7 130 0.356
29 P7 131 -0.621
29 P7 132 -3.062
29 P7 133 -5.503
29 P7 134 -7.945
29 P7 135 -8.433
29 P7 136 -7.456
29 P7 137 -4.527
29 P7 138 -2.574
29 P7 139 -3.550
29 P7 140 -6.480
29 P7 141 -10.874
29 P7 142 -12.828
29 P7 143 -12.339
29 P7 144 -9.410
29 P7 145 -6.480
29 P7 146 -5.015
29 P7 147 -6.480
29 P7 148 -9.410
29 P7 149 -11.851
29 P7 150 -11.851
29 P7 151 -9.410
29 P7 152 -5.503
29 P7 153 -1.109
29 P7 154 1.333
29 P7 155 1.821
29 P7 156 0.844
29 P7 157 -0.132
29 P7 158 -0.132
29 P7 159 1.333
29 P7 160 3.286
29 P7 161 5.239
29 P7 162 5.727
29 P7 163 3.774
29 P7 164 0.844
29 P7 165 -2.085
29 P7 166 -4.527
29 P7 167 -4.038
29 P7 168 -1.597
29 P7 169 1.333
29 P7 170 4.262
29 P7 171 5.239
29 P7 172 4.262
29 P7 173 2.797
29 P7 174 1.333
29 P7 175 1.821
29 P7 176 4.262
29 P7 177 7.680
29 P7 178 11.587
29 P7 179 15.004
29 P7 180 15.981
29 P7 181 14.028
29 P7 182 9.145
29 P7 183 3.774
29 P7 184 -1.109
29 P7 185 -3.062
29 P7 186 -2.574
29 P7 187 -0.132
29 P7 188 1.821
29 P7 189 2.309
29 P7 190 1.821
29 P7 191 2.309
29 P7 192 4.751
29 P7 193 8.657
29 P7 194 11.587
29 P7 195 13.051
29 P7 196 12.563
29 P7 197 10.610
29 P7 198 8.657
29 P7 199 7.192
29 P7 200 5.239
29 P7 201 1.821
29 P7 202 -3.550
29 P7 203 -8.433
29 P7 204 -11.851
29 P7 205 -12.339
29 P7 206 -10.386
29 P7 207 -7.945
29 P7 208 -6.968
29 P7 209 -7.945
29 P7 210 -9.898
29 P7 211 -10.874
29 P7 212 -10.874
29 P7 213 -8.433
29 P7 214 -5.503
29 P7 215 -2.574
29 P7 216 -0.621
29 P7 217 -0.132
29 P7 218 -0.621
29 P7 219 -1.597
29 P7 220 -3.062
29 P7 221 -3.550
29 P7 222 -4.038
29 P7 223 -4.527
29 P7 224 -4.527
29 P7 225 -4.038
29 P7 226 -4.038
29 P7 227 -5.015
29 P7 228 -6.968
29 P7 229 -10.386
29 P7 230 -12.828
29 P7 231 -14.292
29 P7 232 -13.316
29 P7 233 -10.386
29 P7 234 -7.945
29 P7 235 -6.968
29 P7 236 -6.968
29 P7 237 -7.456
29 P7 238 -6.968
29 P7 239 -4.527
29 P7 240 -0.621
29 P7 241 3.286
29 P7 242 6.704
29 P7 243 8.657
29 P7 244 8.657
29 P7 245 7.680
29 P7 246 6.704
29 P7 247 4.262
29 P7 248 1.333
29 P7 249 -2.574
29 P7 250 -5.992
29 P7 251 -8.433
29 P7 252 -7.945
29 P7 253 -6.968
29 P7 254 -5.992
29 P7 255 -6.968
# PO2 chan 27
29 PO2 0 6.317
29 PO2 1 3.387
29 PO2 2 0.946
29 PO2 3 -1.007
29 PO2 4 -2.960
29 PO2 5 -4.913
29 PO2 6 -6.378
29 PO2 7 -7.355
29 PO2 8 -8.331
29 PO2 9 -7.843
29 PO2 10 -7.355
29 PO2 11 -5.402
29 PO2 12 -3.448
29 PO2 13 -0.519
29 PO2 14 1.923
29 PO2 15 3.876
29 PO2 16 5.341
29 PO2 17 5.341
29 PO2 18 4.852
29 PO2 19 4.364
29 PO2 20 4.364
29 PO2 21 4.852
29 PO2 22 5.829
29 PO2 23 7.294
29 PO2 24 7.782
29 PO2 25 8.759
29 PO2 26 10.223
29 PO2 27 11.200
29 PO2 28 11.688
29 PO2 29 9.735
29 PO2 30 5.341
29 PO2 31 -1.007
29 PO2 32 -6.378
29 PO2 33 -9.796
29 PO2 34 -10.773
29 PO2 35 -9.796
29 PO2 36 -8.331
29 PO2 37 -7.355
29 PO2 38 -7.355
29 PO2 39 -8.331
29 PO2 40 -8.331
29 PO2 41 -7.355
29 PO2 42 -4.913
29 PO2 43 -1.984
29 PO2 44 0.458
29 PO2 45 1.923
29 PO2 46 1.434
29 PO2 47 0.458
29 PO2 48 -1.007
29 PO2 49 -2.960
29 PO2 50 -3.937
29 PO2 51 -3.937
29 PO2 52 -2.960
29 PO2 53 -1.007
29 PO2 54 0.946
29 PO2 55 1.923
29 PO2 56 1.923
29 PO2 57 0.946
29 PO2 58 1.434
29 PO2 59 3.876
29 PO2 60 8.270
29 PO2 61 12.665
29 PO2 62 16.083
29 PO2 63 16.083
29 PO2 64 13.641
29 PO2 65 10.712
29 PO2 66 7.782
29 PO2 67 5.341
29 PO2 68 3.876
29 PO2 69 1.434
29 PO2 70 -0.519
29 PO2 71 -1.984
29 PO2 72 -2.960
29 PO2 73 -3.448
29 PO2 74 -2.960
29 PO2 75 -1.984
29 PO2 76 -1.984
29 PO2 77 -2.960
29 PO2 78 -4.913
29 PO2 79 -7.843
29 PO2 80 -10.773
29 PO2 81 -12.238
29 PO2 82 -11.749
29 PO2 83 -10.284
29 PO2 84 -7.843
29 PO2 85 -6.866
29 PO2 86 -6.866
29 PO2 87 -6.378
29 PO2 88 -6.378
29 PO2 89 -5.890
29 PO2 90 -6.378
29 PO2 91 -8.820
29 PO2 92 -13.702
29 PO2 93 -19.562
29 PO2 94 -23.468
29 PO2 95 -23.956
29 PO2 96 -22.003
29 PO2 97 -18.585
29 PO2 98 -17.120
29 PO2 99 -17.120
29 PO2 100 -17.609
29 PO2 101 -17.120
29 PO2 102 -14.191
29 PO2 103 -10.284
29 PO2 104 -6.378
29 PO2 105 -4.425
29 PO2 106 -3.937
29 PO2 107 -3.937
29 PO2 108 -4.425
29 PO2 109 -4.913
29 PO2 110 -4.913
29 PO2 111 -5.402
29 PO2 112 -6.378
29 PO2 113 -7.843
29 PO2 114 -10.284
29 PO2 115 -13.702
29 PO2 116 -17.609
29 PO2 117 -20.538
29 PO2 118 -22.003
29 PO2 119 -21.027
29 PO2 120 -19.562
29 PO2 121 -18.097
29 PO2 122 -18.585
29 PO2 123 -19.073
29 PO2 124 -19.562
29 PO2 125 -18.585
29 PO2 126 -15.167
29 PO2 127 -11.261
29 PO2 128 -7.355
29 PO2 129 -4.913
29 PO2 130 -4.425
29 PO2 131 -4.913
29 PO2 132 -6.378
29 PO2 133 -8.331
29 PO2 134 -10.284
29 PO2 135 -11.261
29 PO2 136 -10.773
29 PO2 137 -9.308
29 PO2 138 -7.355
29 PO2 139 -6.378
29 PO2 140 -6.378
29 PO2 141 -7.355
29 PO2 142 -8.331
29 PO2 143 -7.843
29 PO2 144 -6.378
29 PO2 145 -4.425
29 PO2 146 -3.448
29 PO2 147 -3.937
29 PO2 148 -6.866
29 PO2 149 -10.773
29 PO2 150 -13.214
29 PO2 151 -13.214
29 PO2 152 -10.773
29 PO2 153 -7.355
29 PO2 154 -4.913
29 PO2 155 -4.913
29 PO2 156 -7.355
29 PO2 157 -9.796
29 PO2 158 -9.796
29 PO2 159 -7.843
29 PO2 160 -3.937
29 PO2 161 -1.007
29 PO2 162 -1.495
29 PO2 163 -4.425
29 PO2 164 -8.820
29 PO2 165 -12.726
29 PO2 166 -14.191
29 PO2 167 -12.726
29 PO2 168 -9.308
29 PO2 169 -5.402
29 PO2 170 -2.472
29 PO2 171 -0.519
29 PO2 172 -0.031
29 PO2 173 -0.031
29 PO2 174 -0.031
29 PO2 175 0.458
29 PO2 176 1.434
29 PO2 177 2.899
29 PO2 178 4.852
29 PO2 179 5.341
29 PO2 180 4.852
29 PO2 181 2.411
29 PO2 182 -1.007
29 PO2 183 -3.937
29 PO2 184 -4.913
29 PO2 185 -3.448
29 PO2 186 1.434
29 PO2 187 7.294
29 PO2 188 13.641
