# co2c0000391.rd
# 120 trials, 64 chans, 416 samples 368 post_stim samples
# 3.906000 msecs uV
# S1 obj , trial 50
# FP1 chan 0
50 FP1 0 -2.574
50 FP1 1 -0.132
50 FP1 2 2.309
50 FP1 3 3.286
50 FP1 4 4.262
50 FP1 5 3.286
50 FP1 6 1.333
50 FP1 7 -1.109
50 FP1 8 -4.527
50 FP1 9 -7.945
50 FP1 10 -10.874
50 FP1 11 -11.851
50 FP1 12 -11.851
50 FP1 13 -10.874
50 FP1 14 -9.410
50 FP1 15 -8.433
50 FP1 16 -8.921
50 FP1 17 -9.898
50 FP1 18 -10.874
50 FP1 19 -11.363
50 FP1 20 -10.386
50 FP1 21 -7.945
50 FP1 22 -5.015
50 FP1 23 -2.574
50 FP1 24 -0.621
50 FP1 25 -0.132
50 FP1 26 -0.132
50 FP1 27 -1.597
50 FP1 28 -3.062
50 FP1 29 -5.015
50 FP1 30 -7.456
50 FP1 31 -8.921
50 FP1 32 -9.898
50 FP1 33 -10.386
50 FP1 34 -9.898
50 FP1 35 -9.410
50 FP1 36 -9.410
50 FP1 37 -8.921
50 FP1 38 -8.433
50 FP1 39 -7.456
50 FP1 40 -5.992
50 FP1 41 -5.015
50 FP1 42 -4.527
50 FP1 43 -4.527
50 FP1 44 -4.038
50 FP1 45 -3.062
50 FP1 46 -1.109
50 FP1 47 -0.132
50 FP1 48 -1.109
50 FP1 49 -5.015
50 FP1 50 -9.898
50 FP1 51 -13.804
50 FP1 52 -14.781
50 FP1 53 -13.804
50 FP1 54 -12.339
50 FP1 55 -11.851
50 FP1 56 -12.339
50 FP1 57 -12.828
50 FP1 58 -12.828
50 FP1 59 -12.828
50 FP1 60 -11.851
50 FP1 61 -11.851
50 FP1 62 -11.363
50 FP1 63 -10.386
50 FP1 64 -8.433
50 FP1 65 -5.503
50 FP1 66 -3.062
50 FP1 67 -1.597
50 FP1 68 -1.109
50 FP1 69 -1.109
50 FP1 70 -1.109
50 FP1 71 -2.085
50 FP1 72 -4.527
50 FP1 73 -8.433
50 FP1 74 -12.828
50 FP1 75 -15.757
50 FP1 76 -17.710
50 FP1 77 -18.199
50 FP1 78 -17.710
50 FP1 79 -18.199
50 FP1 80 -18.199
50 FP1 81 -19.175
50 FP1 82 -19.663
50 FP1 83 -19.663
50 FP1 84 -18.687
50 FP1 85 -16.734
50 FP1 86 -13.804
50 FP1 87 -11.363
50 FP1 88 -8.921
50 FP1 89 -7.456
50 FP1 90 -6.968
50 FP1 91 -6.968
50 FP1 92 -7.456
50 FP1 93 -7.456
50 FP1 94 -7.945
50 FP1 95 -10.386
50 FP1 96 -13.804
50 FP1 97 -17.710
50 FP1 98 -21.617
50 FP1 99 -23.570
50 FP1 100 -24.546
50 FP1 101 -23.081
50 FP1 102 -20.640
50 FP1 103 -18.687
50 FP1 104 -16.734
50 FP1 105 -15.269
50 FP1 106 -13.804
50 FP1 107 -12.339
50 FP1 108 -10.386
50 FP1 109 -7.945
50 FP1 110 -5.015
50 FP1 111 -1.109
50 FP1 112 3.774
50 FP1 113 8.657
50 FP1 114 12.563
50 FP1 115 15.004
50 FP1 116 15.493
50 FP1 117 15.004
50 FP1 118 14.028
50 FP1 119 15.493
50 FP1 120 19.887
50 FP1 121 27.212
50 FP1 122 35.512
50 FP1 123 42.837
50 FP1 124 46.254
50 FP1 125 46.254
50 FP1 126 44.301
50 FP1 127 42.837
50 FP1 128 43.325
50 FP1 129 45.766
50 FP1 130 48.696
50 FP1 131 50.649
50 FP1 132 50.649
50 FP1 133 49.672
50 FP1 134 48.208
50 FP1 135 47.719
50 FP1 136 47.719
50 FP1 137 46.743
50 FP1 138 43.813
50 FP1 139 38.442
50 FP1 140 33.559
50 FP1 141 30.141
50 FP1 142 28.676
50 FP1 143 28.676
50 FP1 144 29.165
50 FP1 145 29.653
50 FP1 146 29.165
50 FP1 147 29.165
50 FP1 148 28.676
50 FP1 149 29.165
50 FP1 150 29.165
50 FP1 151 28.676
50 FP1 152 27.212
50 FP1 153 25.747
50 FP1 154 23.794
50 FP1 155 22.329
50 FP1 156 21.352
50 FP1 157 20.376
50 FP1 158 18.911
50 FP1 159 16.469
50 FP1 160 13.540
50 FP1 161 10.122
50 FP1 162 7.192
50 FP1 163 6.215
50 FP1 164 7.192
50 FP1 165 9.145
50 FP1 166 11.098
50 FP1 167 11.587
50 FP1 168 11.098
50 FP1 169 10.122
50 FP1 170 9.145
50 FP1 171 9.145
50 FP1 172 9.633
50 FP1 173 9.633
50 FP1 174 9.633
50 FP1 175 10.610
50 FP1 176 11.587
50 FP1 177 13.540
50 FP1 178 15.493
50 FP1 179 15.981
50 FP1 180 15.493
50 FP1 181 13.540
50 FP1 182 11.587
50 FP1 183 8.657
50 FP1 184 6.704
50 FP1 185 5.239
50 FP1 186 4.751
50 FP1 187 4.751
50 FP1 188 4.262
50 FP1 189 3.774
50 FP1 190 2.797
50 FP1 191 1.333
50 FP1 192 1.333
50 FP1 193 2.309
50 FP1 194 3.286
50 FP1 195 3.774
50 FP1 196 2.797
50 FP1 197 0.844
50 FP1 198 -0.132
50 FP1 199 0.356
50 FP1 200 2.309
50 FP1 201 5.239
50 FP1 202 7.680
50 FP1 203 8.657
50 FP1 204 7.680
50 FP1 205 7.192
50 FP1 206 6.704
50 FP1 207 6.215
50 FP1 208 4.751
50 FP1 209 2.797
50 FP1 210 0.356
50 FP1 211 -1.597
50 FP1 212 -2.574
50 FP1 213 -2.574
50 FP1 214 -1.597
50 FP1 215 -0.621
50 FP1 216 -0.132
50 FP1 217 0.844
50 FP1 218 1.821
50 FP1 219 3.774
50 FP1 220 6.215
50 FP1 221 8.169
50 FP1 222 9.145
50 FP1 223 9.145
50 FP1 224 7.680
50 FP1 225 5.727
50 FP1 226 3.774
50 FP1 227 2.309
50 FP1 228 1.821
50 FP1 229 1.333
50 FP1 230 0.356
50 FP1 231 -0.621
50 FP1 232 -2.085
50 FP1 233 -2.574
50 FP1 234 -2.574
50 FP1 235 -2.085
50 FP1 236 -1.597
50 FP1 237 -2.085
50 FP1 238 -4.527
50 FP1 239 -7.456
50 FP1 240 -9.898
50 FP1 241 -11.851
50 FP1 242 -12.828
50 FP1 243 -12.828
50 FP1 244 -12.828
50 FP1 245 -13.316
50 FP1 246 -13.316
50 FP1 247 -11.851
50 FP1 248 -10.386
50 FP1 249 -8.433
50 FP1 250 -7.456
50 FP1 251 -7.945
50 FP1 252 -9.410
50 FP1 253 -10.874
50 FP1 254 -11.851
50 FP1 255 -11.851
# FP2 chan 1
50 FP2 0 5.493
50 FP2 1 7.935
50 FP2 2 9.399
50 FP2 3 10.376
50 FP2 4 10.376
50 FP2 5 9.888
50 FP2 6 8.423
50 FP2 7 5.493
50 FP2 8 1.587
50 FP2 9 -1.343
50 FP2 10 -3.296
50 FP2 11 -3.784
50 FP2 12 -2.808
50 FP2 13 -1.343
50 FP2 14 -1.343
50 FP2 15 -2.319
50 FP2 16 -3.784
50 FP2 17 -5.737
50 FP2 18 -6.714
50 FP2 19 -6.226
50 FP2 20 -4.761
50 FP2 21 -2.319
50 FP2 22 0.610
50 FP2 23 3.052
50 FP2 24 5.005
50 FP2 25 5.981
50 FP2 26 5.005
50 FP2 27 3.540
50 FP2 28 1.587
50 FP2 29 -0.854
50 FP2 30 -2.808
50 FP2 31 -3.784
50 FP2 32 -4.272
50 FP2 33 -4.761
50 FP2 34 -5.737
50 FP2 35 -7.202
50 FP2 36 -8.179
50 FP2 37 -8.667
50 FP2 38 -8.179
50 FP2 39 -6.226
50 FP2 40 -3.784
50 FP2 41 -2.319
50 FP2 42 -0.854
50 FP2 43 -0.366
50 FP2 44 0.610
50 FP2 45 2.563
50 FP2 46 4.517
50 FP2 47 5.005
50 FP2 48 2.563
50 FP2 49 -3.296
50 FP2 50 -10.620
50 FP2 51 -15.015
50 FP2 52 -16.479
50 FP2 53 -14.526
50 FP2 54 -12.573
50 FP2 55 -12.573
50 FP2 56 -14.038
50 FP2 57 -16.479
50 FP2 58 -16.968
50 FP2 59 -16.479
50 FP2 60 -15.991
50 FP2 61 -15.991
50 FP2 62 -15.991
50 FP2 63 -15.991
50 FP2 64 -14.526
50 FP2 65 -12.085
50 FP2 66 -8.667
50 FP2 67 -5.737
50 FP2 68 -4.272
50 FP2 69 -4.272
50 FP2 70 -4.272
50 FP2 71 -5.249
50 FP2 72 -7.690
50 FP2 73 -11.108
50 FP2 74 -15.015
50 FP2 75 -18.433
50 FP2 76 -20.386
50 FP2 77 -20.386
50 FP2 78 -18.921
50 FP2 79 -17.456
50 FP2 80 -17.456
50 FP2 81 -18.921
50 FP2 82 -20.386
50 FP2 83 -21.362
50 FP2 84 -20.874
50 FP2 85 -17.456
50 FP2 86 -13.062
50 FP2 87 -8.179
50 FP2 88 -5.249
50 FP2 89 -4.272
50 FP2 90 -3.784
50 FP2 91 -3.784
50 FP2 92 -3.784
50 FP2 93 -3.296
50 FP2 94 -4.761
50 FP2 95 -7.690
50 FP2 96 -12.085
50 FP2 97 -16.968
50 FP2 98 -20.386
50 FP2 99 -21.851
50 FP2 100 -20.874
50 FP2 101 -18.921
50 FP2 102 -16.479
50 FP2 103 -14.038
50 FP2 104 -12.085
50 FP2 105 -10.132
50 FP2 106 -8.179
50 FP2 107 -6.714
50 FP2 108 -5.249
50 FP2 109 -4.272
50 FP2 110 -1.343
50 FP2 111 2.563
50 FP2 112 7.935
50 FP2 113 13.306
50 FP2 114 17.700
50 FP2 115 20.142
50 FP2 116 20.142
50 FP2 117 20.142
50 FP2 118 20.630
50 FP2 119 23.071
50 FP2 120 27.466
50 FP2 121 33.325
50 FP2 122 39.673
50 FP2 123 45.044
50 FP2 124 47.974
50 FP2 125 48.950
50 FP2 126 48.950
50 FP2 127 48.950
50 FP2 128 50.415
50 FP2 129 53.833
50 FP2 130 57.251
50 FP2 131 59.692
50 FP2 132 59.692
50 FP2 133 58.716
50 FP2 134 57.739
50 FP2 135 57.251
50 FP2 136 57.251
50 FP2 137 55.298
50 FP2 138 51.880
50 FP2 139 46.997
50 FP2 140 42.603
50 FP2 141 39.185
50 FP2 142 38.208
50 FP2 143 38.208
50 FP2 144 37.231
50 FP2 145 35.767
50 FP2 146 33.813
50 FP2 147 32.837
50 FP2 148 33.325
50 FP2 149 34.790
50 FP2 150 36.743
50 FP2 151 37.720
50 FP2 152 37.720
50 FP2 153 36.255
50 FP2 154 34.302
50 FP2 155 30.884
50 FP2 156 27.954
50 FP2 157 25.024
50 FP2 158 23.071
50 FP2 159 21.606
50 FP2 160 20.142
50 FP2 161 17.700
50 FP2 162 14.771
50 FP2 163 13.794
50 FP2 164 13.794
50 FP2 165 14.771
50 FP2 166 15.747
50 FP2 167 15.259
50 FP2 168 13.306
50 FP2 169 10.864
50 FP2 170 9.888
50 FP2 171 9.888
50 FP2 172 10.376
50 FP2 173 11.353
50 FP2 174 12.329
50 FP2 175 12.817
50 FP2 176 14.282
50 FP2 177 16.235
50 FP2 178 18.677
50 FP2 179 19.653
50 FP2 180 19.653
50 FP2 181 18.188
50 FP2 182 16.235
50 FP2 183 13.794
50 FP2 184 10.864
50 FP2 185 8.423
50 FP2 186 6.470
50 FP2 187 5.005
50 FP2 188 3.540
50 FP2 189 3.052
50 FP2 190 2.075
50 FP2 191 2.075
50 FP2 192 2.075
50 FP2 193 2.075
50 FP2 194 1.587
50 FP2 195 0.610
50 FP2 196 -0.854
50 FP2 197 -1.831
50 FP2 198 -0.854
50 FP2 199 2.075
50 FP2 200 5.493
50 FP2 201 8.911
50 FP2 202 10.864
50 FP2 203 10.864
50 FP2 204 9.888
50 FP2 205 7.935
50 FP2 206 5.981
50 FP2 207 5.005
50 FP2 208 4.028
50 FP2 209 2.563
50 FP2 210 1.099
50 FP2 211 -0.854
50 FP2 212 -2.319
50 FP2 213 -3.784
50 FP2 214 -3.784
50 FP2 215 -3.296
50 FP2 216 -2.319
50 FP2 217 -0.366
50 FP2 218 2.075
50 FP2 219 5.005
50 FP2 220 7.446
50 FP2 221 9.399
50 FP2 222 9.888
50 FP2 223 9.399
50 FP2 224 8.423
50 FP2 225 5.981
50 FP2 226 4.028
50 FP2 227 2.563
50 FP2 228 1.099
50 FP2 229 0.610
50 FP2 230 -0.366
50 FP2 231 -1.831
50 FP2 232 -3.296
50 FP2 233 -4.272
50 FP2 234 -4.272
50 FP2 235 -4.272
50 FP2 236 -3.784
50 FP2 237 -4.761
50 FP2 238 -7.202
50 FP2 239 -9.644
50 FP2 240 -12.085
50 FP2 241 -13.062
50 FP2 242 -12.573
50 FP2 243 -12.085
50 FP2 244 -12.085
50 FP2 245 -13.550
50 FP2 246 -14.526
50 FP2 247 -14.038
50 FP2 248 -10.620
50 FP2 249 -6.714
50 FP2 250 -3.784
50 FP2 251 -3.296
50 FP2 252 -5.737
50 FP2 253 -9.155
50 FP2 254 -11.108
50 FP2 255 -11.108
# F7 chan 2
50 F7 0 3.235
50 F7 1 6.165
50 F7 2 9.094
50 F7 3 10.559
50 F7 4 10.071
50 F7 5 9.094
50 F7 6 8.118
50 F7 7 7.629
50 F7 8 7.141
50 F7 9 5.676
50 F7 10 2.747
50 F7 11 -0.183
50 F7 12 -1.648
50 F7 13 -1.648
50 F7 14 -0.671
50 F7 15 0.793
50 F7 16 0.793
50 F7 17 0.305
50 F7 18 0.793
50 F7 19 2.258
50 F7 20 5.188
50 F7 21 8.118
50 F7 22 10.071
50 F7 23 10.071
50 F7 24 10.559
50 F7 25 11.047
50 F7 26 11.536
50 F7 27 12.024
50 F7 28 11.047
50 F7 29 7.141
50 F7 30 3.235
50 F7 31 -0.671
50 F7 32 -2.625
50 F7 33 -2.136
50 F7 34 0.305
50 F7 35 3.235
50 F7 36 5.676
50 F7 37 7.141
50 F7 38 7.629
50 F7 39 7.141
50 F7 40 7.629
50 F7 41 7.629
50 F7 42 8.118
50 F7 43 9.094
50 F7 44 11.536
50 F7 45 15.442
50 F7 46 19.836
50 F7 47 22.766
50 F7 48 23.254
50 F7 49 20.813
50 F7 50 16.418
50 F7 51 13.000
50 F7 52 11.047
50 F7 53 10.071
50 F7 54 9.094
50 F7 55 8.606
50 F7 56 9.094
50 F7 57 10.071
50 F7 58 12.024
50 F7 59 13.000
50 F7 60 12.512
50 F7 61 11.047
50 F7 62 9.583
50 F7 63 10.559
50 F7 64 13.977
50 F7 65 18.372
50 F7 66 21.301
50 F7 67 22.766
50 F7 68 22.766
50 F7 69 22.278
50 F7 70 22.278
50 F7 71 21.790
50 F7 72 19.836
50 F7 73 16.907
50 F7 74 13.489
50 F7 75 10.559
50 F7 76 8.118
50 F7 77 6.653
50 F7 78 5.676
50 F7 79 4.211
50 F7 80 3.235
50 F7 81 1.770
50 F7 82 0.793
50 F7 83 -0.671
50 F7 84 -1.648
50 F7 85 -1.648
50 F7 86 -0.183
50 F7 87 3.235
50 F7 88 7.629
50 F7 89 10.559
50 F7 90 13.000
50 F7 91 13.489
50 F7 92 12.512
50 F7 93 12.512
50 F7 94 13.000
50 F7 95 13.489
50 F7 96 13.000
50 F7 97 9.583
50 F7 98 4.211
50 F7 99 -0.671
50 F7 100 -2.625
50 F7 101 -1.160
50 F7 102 2.747
50 F7 103 6.653
50 F7 104 9.094
50 F7 105 10.071
50 F7 106 9.583
50 F7 107 10.559
50 F7 108 12.024
50 F7 109 13.977
50 F7 110 15.442
50 F7 111 16.907
50 F7 112 18.372
50 F7 113 20.325
50 F7 114 21.301
50 F7 115 20.813
50 F7 116 18.372
50 F7 117 14.954
50 F7 118 13.000
50 F7 119 14.954
50 F7 120 20.813
50 F7 121 28.137
50 F7 122 33.508
50 F7 123 36.926
50 F7 124 37.415
50 F7 125 36.926
50 F7 126 36.926
50 F7 127 37.415
50 F7 128 38.391
50 F7 129 39.856
50 F7 130 40.833
50 F7 131 42.297
50 F7 132 43.274
50 F7 133 45.227
50 F7 134 46.204
50 F7 135 46.692
50 F7 136 46.692
50 F7 137 45.715
50 F7 138 44.250
50 F7 139 41.321
50 F7 140 37.415
50 F7 141 33.508
50 F7 142 31.067
50 F7 143 31.067
50 F7 144 33.508
50 F7 145 36.926
50 F7 146 39.368
50 F7 147 40.344
50 F7 148 39.368
50 F7 149 37.903
50 F7 150 36.438
50 F7 151 34.973
50 F7 152 34.485
50 F7 153 34.485
50 F7 154 34.973
50 F7 155 35.461
50 F7 156 36.438
50 F7 157 36.438
50 F7 158 35.461
50 F7 159 32.532
50 F7 160 28.137
50 F7 161 24.231
50 F7 162 22.766
50 F7 163 23.743
50 F7 164 27.161
50 F7 165 30.090
50 F7 166 32.043
50 F7 167 31.555
50 F7 168 29.602
50 F7 169 28.625
50 F7 170 29.114
50 F7 171 30.090
50 F7 172 31.067
50 F7 173 30.579
50 F7 174 30.090
50 F7 175 30.579
50 F7 176 32.043
50 F7 177 34.485
50 F7 178 36.438
50 F7 179 36.438
50 F7 180 34.485
50 F7 181 30.579
50 F7 182 26.184
50 F7 183 21.790
50 F7 184 19.348
50 F7 185 18.860
50 F7 186 21.301
50 F7 187 24.719
50 F7 188 27.649
50 F7 189 28.137
50 F7 190 27.161
50 F7 191 25.208
50 F7 192 24.719
50 F7 193 26.184
50 F7 194 28.625
50 F7 195 30.090
50 F7 196 30.579
50 F7 197 29.114
50 F7 198 27.649
50 F7 199 26.672
50 F7 200 27.649
50 F7 201 30.579
50 F7 202 33.997
50 F7 203 37.903
50 F7 204 40.344
50 F7 205 40.833
50 F7 206 39.368
50 F7 207 36.438
50 F7 208 33.020
50 F7 209 29.602
50 F7 210 27.161
50 F7 211 26.184
50 F7 212 26.672
50 F7 213 29.114
50 F7 214 32.043
50 F7 215 34.485
50 F7 216 35.950
50 F7 217 36.926
50 F7 218 36.926
50 F7 219 36.438
50 F7 220 35.950
50 F7 221 35.950
50 F7 222 35.950
50 F7 223 35.461
50 F7 224 34.485
50 F7 225 32.532
50 F7 226 30.090
50 F7 227 28.137
50 F7 228 27.649
50 F7 229 28.137
50 F7 230 28.625
50 F7 231 29.114
50 F7 232 28.625
50 F7 233 26.672
50 F7 234 25.208
50 F7 235 23.743
50 F7 236 22.278
50 F7 237 20.813
50 F7 238 19.348
50 F7 239 18.860
50 F7 240 18.372
50 F7 241 18.860
50 F7 242 18.860
50 F7 243 18.372
50 F7 244 17.395
50 F7 245 14.954
50 F7 246 13.000
50 F7 247 11.047
50 F7 248 10.559
50 F7 249 10.559
50 F7 250 11.536
50 F7 251 12.512
50 F7 252 13.489
50 F7 253 13.489
50 F7 254 13.489
50 F7 255 13.977
# F8 chan 3
50 F8 0 8.636
50 F8 1 11.566
50 F8 2 14.008
50 F8 3 16.449
50 F8 4 18.890
50 F8 5 19.867
50 F8 6 18.402
50 F8 7 15.472
50 F8 8 11.078
50 F8 9 7.172
50 F8 10 4.730
50 F8 11 4.242
50 F8 12 4.242
50 F8 13 3.754
50 F8 14 2.289
50 F8 15 -0.153
50 F8 16 -3.082
50 F8 17 -4.059
50 F8 18 -4.547
50 F8 19 -3.571
50 F8 20 -2.106
50 F8 21 -0.641
50 F8 22 0.824
50 F8 23 1.801
50 F8 24 2.777
50 F8 25 3.265
50 F8 26 2.777
50 F8 27 1.801
50 F8 28 -0.153
50 F8 29 -2.106
50 F8 30 -4.059
50 F8 31 -4.547
50 F8 32 -5.035
50 F8 33 -6.012
50 F8 34 -6.500
50 F8 35 -7.477
50 F8 36 -7.965
50 F8 37 -7.477
50 F8 38 -6.500
50 F8 39 -5.035
50 F8 40 -3.571
50 F8 41 -2.106
50 F8 42 -0.641
50 F8 43 1.801
50 F8 44 4.730
50 F8 45 8.148
50 F8 46 11.566
50 F8 47 12.543
50 F8 48 10.590
50 F8 49 5.707
50 F8 50 0.336
50 F8 51 -3.571
50 F8 52 -5.035
50 F8 53 -4.547
50 F8 54 -4.059
50 F8 55 -4.547
50 F8 56 -6.012
50 F8 57 -8.453
50 F8 58 -10.406
50 F8 59 -12.848
50 F8 60 -14.313
50 F8 61 -15.778
50 F8 62 -15.778
50 F8 63 -13.824
50 F8 64 -10.895
50 F8 65 -7.477
50 F8 66 -5.035
50 F8 67 -3.571
50 F8 68 -2.106
50 F8 69 -1.129
50 F8 70 -0.153
50 F8 71 -0.153
50 F8 72 -1.617
50 F8 73 -5.035
50 F8 74 -9.430
50 F8 75 -12.848
50 F8 76 -14.801
50 F8 77 -14.801
50 F8 78 -14.313
50 F8 79 -13.824
50 F8 80 -14.801
50 F8 81 -16.754
50 F8 82 -18.219
50 F8 83 -18.219
50 F8 84 -16.266
50 F8 85 -11.871
50 F8 86 -6.012
50 F8 87 -1.129
50 F8 88 2.777
50 F8 89 3.754
50 F8 90 3.754
50 F8 91 3.754
50 F8 92 4.242
50 F8 93 5.219
50 F8 94 4.242
50 F8 95 2.289
50 F8 96 -1.617
50 F8 97 -5.035
50 F8 98 -7.965
50 F8 99 -9.430
50 F8 100 -9.430
50 F8 101 -8.942
50 F8 102 -8.942
50 F8 103 -7.965
50 F8 104 -6.989
50 F8 105 -5.035
50 F8 106 -3.571
50 F8 107 -2.594
50 F8 108 -3.082
50 F8 109 -3.571
50 F8 110 -3.571
50 F8 111 -2.106
50 F8 112 -0.153
50 F8 113 1.801
50 F8 114 2.777
50 F8 115 2.289
50 F8 116 0.824
50 F8 117 -1.617
50 F8 118 -3.082
50 F8 119 -3.571
50 F8 120 -2.106
50 F8 121 0.336
50 F8 122 3.265
50 F8 123 5.219
50 F8 124 5.707
50 F8 125 4.730
50 F8 126 3.265
50 F8 127 2.289
50 F8 128 3.265
50 F8 129 5.707
50 F8 130 8.636
50 F8 131 11.078
50 F8 132 11.566
50 F8 133 11.566
50 F8 134 10.590
50 F8 135 11.078
50 F8 136 12.054
50 F8 137 13.519
50 F8 138 13.031
50 F8 139 11.078
50 F8 140 7.660
50 F8 141 4.730
50 F8 142 3.754
50 F8 143 4.730
50 F8 144 6.683
50 F8 145 8.636
50 F8 146 9.125
50 F8 147 9.125
50 F8 148 9.125
50 F8 149 9.613
50 F8 150 10.101
50 F8 151 10.590
50 F8 152 10.101
50 F8 153 8.636
50 F8 154 6.195
50 F8 155 3.754
50 F8 156 2.289
50 F8 157 1.801
50 F8 158 2.289
50 F8 159 2.289
50 F8 160 1.801
50 F8 161 0.336
50 F8 162 -2.106
50 F8 163 -3.571
50 F8 164 -4.059
50 F8 165 -3.082
50 F8 166 -3.082
50 F8 167 -3.571
50 F8 168 -4.547
50 F8 169 -5.524
50 F8 170 -6.012
50 F8 171 -5.035
50 F8 172 -4.059
50 F8 173 -2.594
50 F8 174 -2.106
50 F8 175 -2.106
50 F8 176 -1.129
50 F8 177 0.824
50 F8 178 1.801
50 F8 179 2.777
50 F8 180 2.289
50 F8 181 0.824
50 F8 182 -1.617
50 F8 183 -4.059
50 F8 184 -6.989
50 F8 185 -9.918
50 F8 186 -11.871
50 F8 187 -13.336
50 F8 188 -13.824
50 F8 189 -14.313
50 F8 190 -14.801
50 F8 191 -15.289
50 F8 192 -14.801
50 F8 193 -13.824
50 F8 194 -13.336
50 F8 195 -13.824
50 F8 196 -14.801
50 F8 197 -16.266
50 F8 198 -16.754
50 F8 199 -14.313
50 F8 200 -9.918
50 F8 201 -5.035
50 F8 202 -2.106
50 F8 203 -1.617
50 F8 204 -4.059
50 F8 205 -6.500
50 F8 206 -7.965
50 F8 207 -7.965
50 F8 208 -7.477
50 F8 209 -7.477
50 F8 210 -9.918
50 F8 211 -12.848
50 F8 212 -15.778
50 F8 213 -17.242
50 F8 214 -17.731
50 F8 215 -16.754
50 F8 216 -16.266
50 F8 217 -14.801
50 F8 218 -12.360
50 F8 219 -8.942
50 F8 220 -5.524
50 F8 221 -2.106
50 F8 222 -0.641
50 F8 223 -1.617
50 F8 224 -3.571
50 F8 225 -5.524
50 F8 226 -7.477
50 F8 227 -7.965
50 F8 228 -8.942
50 F8 229 -9.918
50 F8 230 -11.383
50 F8 231 -12.848
50 F8 232 -14.313
50 F8 233 -15.289
50 F8 234 -15.778
50 F8 235 -16.754
50 F8 236 -17.731
50 F8 237 -19.684
50 F8 238 -21.637
50 F8 239 -22.614
50 F8 240 -23.590
50 F8 241 -23.590
50 F8 242 -23.102
50 F8 243 -23.590
50 F8 244 -23.590
50 F8 245 -24.567
50 F8 246 -24.078
50 F8 247 -23.102
50 F8 248 -21.149
50 F8 249 -18.707
50 F8 250 -16.754
50 F8 251 -17.242
50 F8 252 -19.196
50 F8 253 -22.125
50 F8 254 -24.567
50 F8 255 -24.567
# AF1 chan 4
50 AF1 0 2.258
50 AF1 1 4.700
50 AF1 2 6.653
50 AF1 3 7.141
50 AF1 4 7.629
50 AF1 5 7.141
50 AF1 6 5.188
50 AF1 7 2.747
50 AF1 8 -0.183
50 AF1 9 -2.625
50 AF1 10 -5.066
50 AF1 11 -6.042
50 AF1 12 -6.042
50 AF1 13 -5.554
50 AF1 14 -4.089
50 AF1 15 -3.113
50 AF1 16 -3.113
50 AF1 17 -3.113
50 AF1 18 -4.089
50 AF1 19 -4.089
50 AF1 20 -3.601
50 AF1 21 -1.160
50 AF1 22 1.282
50 AF1 23 3.723
50 AF1 24 5.676
50 AF1 25 6.165
50 AF1 26 5.188
50 AF1 27 3.235
50 AF1 28 0.793
50 AF1 29 -2.136
50 AF1 30 -3.601
50 AF1 31 -4.578
50 AF1 32 -5.066
50 AF1 33 -5.066
50 AF1 34 -6.042
50 AF1 35 -7.019
50 AF1 36 -7.507
50 AF1 37 -7.996
50 AF1 38 -7.019
50 AF1 39 -5.066
50 AF1 40 -2.625
50 AF1 41 -0.183
50 AF1 42 1.770
50 AF1 43 3.235
50 AF1 44 3.723
50 AF1 45 4.211
50 AF1 46 4.211
50 AF1 47 3.723
50 AF1 48 1.770
50 AF1 49 -1.160
50 AF1 50 -4.578
50 AF1 51 -6.531
50 AF1 52 -7.996
50 AF1 53 -7.507
50 AF1 54 -6.531
50 AF1 55 -6.531
50 AF1 56 -6.531
50 AF1 57 -6.531
50 AF1 58 -6.042
50 AF1 59 -5.554
50 AF1 60 -5.554
50 AF1 61 -5.554
50 AF1 62 -6.042
50 AF1 63 -5.554
50 AF1 64 -3.601
50 AF1 65 -1.160
50 AF1 66 0.793
50 AF1 67 2.747
50 AF1 68 3.723
50 AF1 69 3.723
50 AF1 70 3.723
50 AF1 71 3.235
50 AF1 72 1.282
50 AF1 73 -0.671
50 AF1 74 -3.601
50 AF1 75 -5.554
50 AF1 76 -7.019
50 AF1 77 -7.996
50 AF1 78 -8.484
50 AF1 79 -9.949
50 AF1 80 -10.925
50 AF1 81 -11.902
50 AF1 82 -12.390
50 AF1 83 -12.390
50 AF1 84 -10.925
50 AF1 85 -8.972
50 AF1 86 -6.042
50 AF1 87 -3.601
50 AF1 88 -1.648
50 AF1 89 -0.671
50 AF1 90 -0.671
50 AF1 91 -0.183
50 AF1 92 -0.671
50 AF1 93 -0.671
50 AF1 94 -1.648
50 AF1 95 -3.113
50 AF1 96 -5.554
50 AF1 97 -7.996
50 AF1 98 -9.460
50 AF1 99 -10.925
50 AF1 100 -11.902
50 AF1 101 -11.902
50 AF1 102 -10.925
50 AF1 103 -9.949
50 AF1 104 -8.972
50 AF1 105 -7.507
50 AF1 106 -6.042
50 AF1 107 -5.554
50 AF1 108 -4.578
50 AF1 109 -3.601
50 AF1 110 -1.160
50 AF1 111 2.258
50 AF1 112 5.676
50 AF1 113 9.094
50 AF1 114 10.559
50 AF1 115 10.071
50 AF1 116 8.606
50 AF1 117 5.676
50 AF1 118 3.723
50 AF1 119 4.700
50 AF1 120 7.629
50 AF1 121 13.000
50 AF1 122 18.860
50 AF1 123 23.743
50 AF1 124 25.696
50 AF1 125 26.184
50 AF1 126 24.719
50 AF1 127 24.231
50 AF1 128 24.719
50 AF1 129 27.161
50 AF1 130 30.090
50 AF1 131 32.532
50 AF1 132 33.508
50 AF1 133 33.508
50 AF1 134 32.532
50 AF1 135 32.043
50 AF1 136 31.555
50 AF1 137 29.602
50 AF1 138 27.161
50 AF1 139 24.231
50 AF1 140 21.301
50 AF1 141 19.836
50 AF1 142 19.836
50 AF1 143 20.325
50 AF1 144 20.325
50 AF1 145 19.836
50 AF1 146 18.860
50 AF1 147 18.372
50 AF1 148 18.860
50 AF1 149 19.348
50 AF1 150 19.836
50 AF1 151 20.325
50 AF1 152 19.836
50 AF1 153 18.860
50 AF1 154 17.395
50 AF1 155 16.418
50 AF1 156 14.954
50 AF1 157 13.489
50 AF1 158 11.536
50 AF1 159 9.094
50 AF1 160 6.165
50 AF1 161 3.235
50 AF1 162 0.793
50 AF1 163 -0.183
50 AF1 164 0.793
50 AF1 165 2.258
50 AF1 166 4.211
50 AF1 167 4.700
50 AF1 168 4.211
50 AF1 169 3.723
50 AF1 170 2.747
50 AF1 171 2.747
50 AF1 172 3.235
50 AF1 173 4.211
50 AF1 174 4.700
50 AF1 175 5.188
50 AF1 176 6.653
50 AF1 177 8.118
50 AF1 178 10.071
50 AF1 179 10.559
50 AF1 180 10.559
50 AF1 181 9.583
50 AF1 182 7.629
50 AF1 183 6.165
50 AF1 184 4.700
50 AF1 185 3.723
50 AF1 186 3.235
50 AF1 187 3.235
50 AF1 188 2.747
50 AF1 189 1.282
50 AF1 190 0.305
50 AF1 191 -0.671
50 AF1 192 -1.160
50 AF1 193 -0.671
50 AF1 194 0.305
50 AF1 195 0.793
50 AF1 196 0.305
50 AF1 197 -0.671
50 AF1 198 -1.648
50 AF1 199 -1.648
50 AF1 200 -0.183
50 AF1 201 2.258
50 AF1 202 4.211
50 AF1 203 5.676
50 AF1 204 5.676
50 AF1 205 5.188
50 AF1 206 4.211
50 AF1 207 3.235
50 AF1 208 1.770
50 AF1 209 0.305
50 AF1 210 -2.136
50 AF1 211 -4.089
50 AF1 212 -5.066
50 AF1 213 -5.066
50 AF1 214 -4.089
50 AF1 215 -2.625
50 AF1 216 -0.671
50 AF1 217 0.793
50 AF1 218 2.258
50 AF1 219 3.235
50 AF1 220 4.211
50 AF1 221 5.188
50 AF1 222 5.676
50 AF1 223 5.676
50 AF1 224 5.188
50 AF1 225 3.235
50 AF1 226 1.770
50 AF1 227 0.793
50 AF1 228 -0.183
50 AF1 229 -0.183
50 AF1 230 -0.183
50 AF1 231 -0.183
50 AF1 232 -1.160
50 AF1 233 -2.136
50 AF1 234 -2.625
50 AF1 235 -2.136
50 AF1 236 -1.160
50 AF1 237 -1.648
50 AF1 238 -2.625
50 AF1 239 -5.066
50 AF1 240 -7.507
50 AF1 241 -9.949
50 AF1 242 -10.925
50 AF1 243 -10.925
50 AF1 244 -10.437
50 AF1 245 -9.949
50 AF1 246 -8.972
50 AF1 247 -7.996
50 AF1 248 -6.042
50 AF1 249 -4.578
50 AF1 250 -3.601
50 AF1 251 -3.601
50 AF1 252 -5.066
50 AF1 253 -7.019
50 AF1 254 -8.484
50 AF1 255 -8.972
# AF2 chan 5
50 AF2 0 5.636
50 AF2 1 7.100
50 AF2 2 8.565
50 AF2 3 9.054
50 AF2 4 9.542
50 AF2 5 9.054
50 AF2 6 7.589
50 AF2 7 5.147
50 AF2 8 2.218
50 AF2 9 -1.200
50 AF2 10 -3.642
50 AF2 11 -5.107
50 AF2 12 -4.618
50 AF2 13 -3.642
50 AF2 14 -2.665
50 AF2 15 -2.177
50 AF2 16 -2.665
50 AF2 17 -3.153
50 AF2 18 -3.642
50 AF2 19 -3.642
50 AF2 20 -2.177
50 AF2 21 -0.224
50 AF2 22 2.218
50 AF2 23 4.171
50 AF2 24 5.147
50 AF2 25 5.147
50 AF2 26 4.171
50 AF2 27 2.706
50 AF2 28 0.753
50 AF2 29 -1.200
50 AF2 30 -3.153
50 AF2 31 -4.618
50 AF2 32 -6.083
50 AF2 33 -7.060
50 AF2 34 -7.548
50 AF2 35 -8.525
50 AF2 36 -9.013
50 AF2 37 -9.013
50 AF2 38 -9.013
50 AF2 39 -7.548
50 AF2 40 -5.107
50 AF2 41 -1.689
50 AF2 42 1.241
50 AF2 43 3.194
50 AF2 44 3.682
50 AF2 45 3.194
50 AF2 46 2.706
50 AF2 47 1.241
50 AF2 48 -0.712
50 AF2 49 -4.130
50 AF2 50 -7.548
50 AF2 51 -9.989
50 AF2 52 -10.966
50 AF2 53 -9.989
50 AF2 54 -8.525
50 AF2 55 -8.036
50 AF2 56 -8.036
50 AF2 57 -8.525
50 AF2 58 -9.013
50 AF2 59 -9.501
50 AF2 60 -9.501
50 AF2 61 -9.501
50 AF2 62 -9.501
50 AF2 63 -9.013
50 AF2 64 -7.548
50 AF2 65 -4.618
50 AF2 66 -2.177
50 AF2 67 0.264
50 AF2 68 2.218
50 AF2 69 3.682
50 AF2 70 3.682
50 AF2 71 3.194
50 AF2 72 1.241
50 AF2 73 -2.177
50 AF2 74 -5.107
50 AF2 75 -8.036
50 AF2 76 -9.501
50 AF2 77 -10.478
50 AF2 78 -10.966
50 AF2 79 -11.454
50 AF2 80 -12.431
50 AF2 81 -13.896
50 AF2 82 -14.872
50 AF2 83 -14.384
50 AF2 84 -12.431
50 AF2 85 -9.013
50 AF2 86 -4.618
50 AF2 87 -1.200
50 AF2 88 0.753
50 AF2 89 0.753
50 AF2 90 0.264
50 AF2 91 -0.224
50 AF2 92 -0.224
50 AF2 93 0.264
50 AF2 94 -0.712
50 AF2 95 -3.153
50 AF2 96 -6.571
50 AF2 97 -9.989
50 AF2 98 -11.943
50 AF2 99 -12.431
50 AF2 100 -11.943
50 AF2 101 -10.478
50 AF2 102 -9.013
50 AF2 103 -8.036
50 AF2 104 -7.060
50 AF2 105 -5.595
50 AF2 106 -4.618
50 AF2 107 -3.642
50 AF2 108 -3.153
50 AF2 109 -2.665
50 AF2 110 -1.689
50 AF2 111 1.241
50 AF2 112 4.659
50 AF2 113 8.565
50 AF2 114 11.007
50 AF2 115 11.007
50 AF2 116 9.054
50 AF2 117 6.124
50 AF2 118 4.171
50 AF2 119 4.171
50 AF2 120 7.100
50 AF2 121 11.495
50 AF2 122 16.378
50 AF2 123 19.796
50 AF2 124 20.772
50 AF2 125 20.284
50 AF2 126 18.819
50 AF2 127 18.331
50 AF2 128 19.307
50 AF2 129 22.237
50 AF2 130 26.143
50 AF2 131 28.585
50 AF2 132 29.073
50 AF2 133 28.585
50 AF2 134 27.608
50 AF2 135 27.120
50 AF2 136 26.632
50 AF2 137 26.143
50 AF2 138 24.190
50 AF2 139 21.261
50 AF2 140 17.843
50 AF2 141 15.401
50 AF2 142 14.425
50 AF2 143 14.425
50 AF2 144 14.425
50 AF2 145 14.425
50 AF2 146 13.936
50 AF2 147 13.448
50 AF2 148 14.425
50 AF2 149 16.378
50 AF2 150 17.843
50 AF2 151 19.307
50 AF2 152 19.307
50 AF2 153 18.331
50 AF2 154 16.866
50 AF2 155 14.913
50 AF2 156 13.448
50 AF2 157 11.983
50 AF2 158 11.007
50 AF2 159 10.030
50 AF2 160 8.565
50 AF2 161 5.636
50 AF2 162 2.706
50 AF2 163 0.264
50 AF2 164 -0.712
50 AF2 165 -0.712
50 AF2 166 0.264
50 AF2 167 0.753
50 AF2 168 0.264
50 AF2 169 -0.224
50 AF2 170 -0.712
50 AF2 171 -0.224
50 AF2 172 1.241
50 AF2 173 2.218
50 AF2 174 3.194
50 AF2 175 3.682
50 AF2 176 4.659
50 AF2 177 6.124
50 AF2 178 7.100
50 AF2 179 8.077
50 AF2 180 8.077
50 AF2 181 8.565
50 AF2 182 8.077
50 AF2 183 7.100
50 AF2 184 5.147
50 AF2 185 3.194
50 AF2 186 1.729
50 AF2 187 -0.224
50 AF2 188 -1.689
50 AF2 189 -2.665
50 AF2 190 -4.130
50 AF2 191 -5.107
50 AF2 192 -5.595
50 AF2 193 -5.107
50 AF2 194 -4.618
50 AF2 195 -4.130
50 AF2 196 -4.618
50 AF2 197 -5.595
50 AF2 198 -6.083
50 AF2 199 -5.595
50 AF2 200 -4.130
50 AF2 201 -1.689
50 AF2 202 0.264
50 AF2 203 1.729
50 AF2 204 2.218
50 AF2 205 1.729
50 AF2 206 0.753
50 AF2 207 -0.224
50 AF2 208 -1.689
50 AF2 209 -3.153
50 AF2 210 -5.107
50 AF2 211 -7.548
50 AF2 212 -8.525
50 AF2 213 -9.501
50 AF2 214 -9.013
50 AF2 215 -7.548
50 AF2 216 -6.083
50 AF2 217 -4.618
50 AF2 218 -3.153
50 AF2 219 -0.712
50 AF2 220 1.241
50 AF2 221 3.194
50 AF2 222 4.171
50 AF2 223 4.659
50 AF2 224 4.171
50 AF2 225 3.194
50 AF2 226 1.729
50 AF2 227 0.753
50 AF2 228 -0.712
50 AF2 229 -1.200
50 AF2 230 -2.177
50 AF2 231 -2.665
50 AF2 232 -3.153
50 AF2 233 -3.642
50 AF2 234 -3.153
50 AF2 235 -3.642
50 AF2 236 -3.642
50 AF2 237 -5.107
50 AF2 238 -7.548
50 AF2 239 -10.478
50 AF2 240 -12.919
50 AF2 241 -13.896
50 AF2 242 -13.896
50 AF2 243 -13.407
50 AF2 244 -13.407
50 AF2 245 -13.896
50 AF2 246 -13.896
50 AF2 247 -12.919
50 AF2 248 -10.478
50 AF2 249 -7.060
50 AF2 250 -4.618
50 AF2 251 -4.618
50 AF2 252 -7.060
50 AF2 253 -11.454
50 AF2 254 -13.896
50 AF2 255 -14.872
# FZ chan 6
50 FZ 0 4.649
50 FZ 1 6.114
50 FZ 2 7.579
50 FZ 3 8.067
50 FZ 4 8.067
50 FZ 5 8.067
50 FZ 6 7.579
50 FZ 7 6.602
50 FZ 8 4.649
50 FZ 9 2.207
50 FZ 10 -0.234
50 FZ 11 -2.187
50 FZ 12 -3.164
50 FZ 13 -2.187
50 FZ 14 -1.211
50 FZ 15 -0.234
50 FZ 16 -0.234
50 FZ 17 -0.234
50 FZ 18 -0.234
50 FZ 19 0.743
50 FZ 20 3.184
50 FZ 21 5.625
50 FZ 22 8.555
50 FZ 23 9.532
50 FZ 24 9.043
50 FZ 25 7.090
50 FZ 26 5.137
50 FZ 27 2.696
50 FZ 28 1.719
50 FZ 29 0.254
50 FZ 30 -1.211
50 FZ 31 -2.187
50 FZ 32 -3.164
50 FZ 33 -3.164
50 FZ 34 -3.652
50 FZ 35 -4.628
50 FZ 36 -6.093
50 FZ 37 -7.070
50 FZ 38 -7.558
50 FZ 39 -6.093
50 FZ 40 -2.675
50 FZ 41 1.719
50 FZ 42 5.625
50 FZ 43 7.579
50 FZ 44 6.602
50 FZ 45 5.137
50 FZ 46 3.672
50 FZ 47 2.696
50 FZ 48 2.207
50 FZ 49 1.231
50 FZ 50 -0.722
50 FZ 51 -2.187
50 FZ 52 -3.652
50 FZ 53 -3.652
50 FZ 54 -2.187
50 FZ 55 -1.699
50 FZ 56 -1.699
50 FZ 57 -2.675
50 FZ 58 -3.164
50 FZ 59 -3.164
50 FZ 60 -2.675
50 FZ 61 -2.675
50 FZ 62 -2.675
50 FZ 63 -2.675
50 FZ 64 -2.675
50 FZ 65 -1.699
50 FZ 66 -0.234
50 FZ 67 1.719
50 FZ 68 2.696
50 FZ 69 3.184
50 FZ 70 3.184
50 FZ 71 3.184
50 FZ 72 2.696
50 FZ 73 1.719
50 FZ 74 -0.722
50 FZ 75 -2.675
50 FZ 76 -4.628
50 FZ 77 -6.093
50 FZ 78 -6.582
50 FZ 79 -7.070
50 FZ 80 -8.046
50 FZ 81 -8.046
50 FZ 82 -7.558
50 FZ 83 -6.093
50 FZ 84 -4.140
50 FZ 85 -1.699
50 FZ 86 0.743
50 FZ 87 2.207
50 FZ 88 3.184
50 FZ 89 3.184
50 FZ 90 2.696
50 FZ 91 2.696
50 FZ 92 2.207
50 FZ 93 2.207
50 FZ 94 1.719
50 FZ 95 0.254
50 FZ 96 -2.187
50 FZ 97 -4.140
50 FZ 98 -6.093
50 FZ 99 -6.582
50 FZ 100 -6.093
50 FZ 101 -5.117
50 FZ 102 -4.140
50 FZ 103 -2.675
50 FZ 104 -3.164
50 FZ 105 -3.164
50 FZ 106 -4.140
50 FZ 107 -4.628
50 FZ 108 -4.628
50 FZ 109 -3.652
50 FZ 110 -1.211
50 FZ 111 2.696
50 FZ 112 6.114
50 FZ 113 9.043
50 FZ 114 10.020
50 FZ 115 9.532
50 FZ 116 7.579
50 FZ 117 4.161
50 FZ 118 1.231
50 FZ 119 -0.234
50 FZ 120 0.254
50 FZ 121 2.696
50 FZ 122 6.114
50 FZ 123 10.020
50 FZ 124 12.461
50 FZ 125 12.950
50 FZ 126 11.973
50 FZ 127 10.997
50 FZ 128 11.485
50 FZ 129 12.950
50 FZ 130 15.391
50 FZ 131 18.321
50 FZ 132 19.297
50 FZ 133 19.297
50 FZ 134 18.809
50 FZ 135 18.321
50 FZ 136 18.321
50 FZ 137 17.832
50 FZ 138 16.856
50 FZ 139 14.903
50 FZ 140 13.438
50 FZ 141 12.461
50 FZ 142 12.461
50 FZ 143 11.973
50 FZ 144 10.997
50 FZ 145 9.043
50 FZ 146 7.090
50 FZ 147 5.625
50 FZ 148 6.602
50 FZ 149 9.043
50 FZ 150 11.973
50 FZ 151 15.391
50 FZ 152 16.856
50 FZ 153 16.368
50 FZ 154 14.414
50 FZ 155 11.485
50 FZ 156 9.043
50 FZ 157 7.579
50 FZ 158 7.090
50 FZ 159 6.602
50 FZ 160 6.602
50 FZ 161 5.137
50 FZ 162 3.672
50 FZ 163 1.719
50 FZ 164 0.743
50 FZ 165 0.743
50 FZ 166 1.719
50 FZ 167 3.672
50 FZ 168 4.649
50 FZ 169 4.649
50 FZ 170 3.672
50 FZ 171 3.184
50 FZ 172 3.672
50 FZ 173 4.161
50 FZ 174 5.137
50 FZ 175 6.114
50 FZ 176 6.602
50 FZ 177 6.602
50 FZ 178 6.602
50 FZ 179 7.090
50 FZ 180 7.579
50 FZ 181 9.043
50 FZ 182 9.532
50 FZ 183 9.532
50 FZ 184 9.043
50 FZ 185 6.602
50 FZ 186 4.161
50 FZ 187 1.719
50 FZ 188 -0.234
50 FZ 189 -2.187
50 FZ 190 -4.140
50 FZ 191 -5.117
50 FZ 192 -5.117
50 FZ 193 -4.140
50 FZ 194 -2.187
50 FZ 195 -0.234
50 FZ 196 1.231
50 FZ 197 0.254
50 FZ 198 -1.699
50 FZ 199 -4.140
50 FZ 200 -5.605
50 FZ 201 -4.628
50 FZ 202 -2.187
50 FZ 203 0.743
50 FZ 204 3.672
50 FZ 205 5.137
50 FZ 206 5.137
50 FZ 207 4.649
50 FZ 208 4.161
50 FZ 209 3.184
50 FZ 210 1.719
50 FZ 211 0.254
50 FZ 212 -1.211
50 FZ 213 -2.187
50 FZ 214 -2.187
50 FZ 215 -0.722
50 FZ 216 1.231
50 FZ 217 3.672
50 FZ 218 5.137
50 FZ 219 5.625
50 FZ 220 5.137
50 FZ 221 4.161
50 FZ 222 3.184
50 FZ 223 3.184
50 FZ 224 3.672
50 FZ 225 4.161
50 FZ 226 4.649
50 FZ 227 4.161
50 FZ 228 2.696
50 FZ 229 1.719
50 FZ 230 0.743
50 FZ 231 0.254
50 FZ 232 0.254
50 FZ 233 -0.234
50 FZ 234 -0.234
50 FZ 235 -0.722
50 FZ 236 -0.234
50 FZ 237 0.743
50 FZ 238 0.254
50 FZ 239 -0.722
50 FZ 240 -2.675
50 FZ 241 -4.628
50 FZ 242 -5.117
50 FZ 243 -4.628
50 FZ 244 -4.140
50 FZ 245 -2.675
50 FZ 246 -2.187
50 FZ 247 -2.187
50 FZ 248 -2.187
50 FZ 249 -1.699
50 FZ 250 -0.722
50 FZ 251 -0.722
50 FZ 252 -1.699
50 FZ 253 -3.652
50 FZ 254 -5.605
50 FZ 255 -6.093
# F4 chan 7
50 F4 0 6.653
50 F4 1 8.606
50 F4 2 9.583
50 F4 3 11.047
50 F4 4 12.512
50 F4 5 13.977
50 F4 6 13.977
50 F4 7 12.024
50 F4 8 8.118
50 F4 9 3.235
50 F4 10 -0.671
50 F4 11 -2.625
50 F4 12 -2.136
50 F4 13 -1.160
50 F4 14 -0.671
50 F4 15 -0.671
50 F4 16 -1.648
50 F4 17 -2.625
50 F4 18 -2.625
50 F4 19 -1.648
50 F4 20 0.305
50 F4 21 1.770
50 F4 22 3.235
50 F4 23 4.211
50 F4 24 4.211
50 F4 25 4.211
50 F4 26 3.235
50 F4 27 2.747
50 F4 28 1.770
50 F4 29 1.282
50 F4 30 0.305
50 F4 31 -1.160
50 F4 32 -3.113
50 F4 33 -4.578
50 F4 34 -6.042
50 F4 35 -7.019
50 F4 36 -7.996
50 F4 37 -7.996
50 F4 38 -8.484
50 F4 39 -7.507
50 F4 40 -5.066
50 F4 41 -2.136
50 F4 42 1.770
50 F4 43 5.188
50 F4 44 6.653
50 F4 45 7.141
50 F4 46 7.141
50 F4 47 5.676
50 F4 48 3.723
50 F4 49 0.793
50 F4 50 -1.648
50 F4 51 -3.601
50 F4 52 -4.578
50 F4 53 -4.578
50 F4 54 -4.089
50 F4 55 -3.601
50 F4 56 -4.089
50 F4 57 -5.066
50 F4 58 -6.042
50 F4 59 -6.531
50 F4 60 -7.507
50 F4 61 -7.507
50 F4 62 -7.507
50 F4 63 -6.531
50 F4 64 -4.578
50 F4 65 -2.625
50 F4 66 -0.671
50 F4 67 0.305
50 F4 68 0.793
50 F4 69 1.282
50 F4 70 1.770
50 F4 71 1.282
50 F4 72 -0.183
50 F4 73 -2.625
50 F4 74 -5.066
50 F4 75 -7.019
50 F4 76 -7.996
50 F4 77 -8.972
50 F4 78 -9.949
50 F4 79 -10.925
50 F4 80 -12.390
50 F4 81 -12.878
50 F4 82 -12.878
50 F4 83 -11.902
50 F4 84 -9.460
50 F4 85 -6.531
50 F4 86 -3.113
50 F4 87 -0.671
50 F4 88 1.282
50 F4 89 1.770
50 F4 90 1.770
50 F4 91 1.282
50 F4 92 0.793
50 F4 93 -0.183
50 F4 94 -0.671
50 F4 95 -2.136
50 F4 96 -3.601
50 F4 97 -5.066
50 F4 98 -6.042
50 F4 99 -6.042
50 F4 100 -5.554
50 F4 101 -5.554
50 F4 102 -5.554
50 F4 103 -5.554
50 F4 104 -4.578
50 F4 105 -3.113
50 F4 106 -1.160
50 F4 107 -0.183
50 F4 108 -0.671
50 F4 109 -1.160
50 F4 110 -0.671
50 F4 111 0.793
50 F4 112 2.747
50 F4 113 5.188
50 F4 114 5.676
50 F4 115 5.188
50 F4 116 3.235
50 F4 117 0.793
50 F4 118 -0.183
50 F4 119 0.305
50 F4 120 1.770
50 F4 121 4.211
50 F4 122 5.676
50 F4 123 7.141
50 F4 124 7.141
50 F4 125 6.165
50 F4 126 4.700
50 F4 127 4.700
50 F4 128 5.188
50 F4 129 7.629
50 F4 130 10.559
50 F4 131 13.000
50 F4 132 13.977
50 F4 133 13.489
50 F4 134 13.000
50 F4 135 12.512
50 F4 136 12.512
50 F4 137 12.512
50 F4 138 11.536
50 F4 139 10.071
50 F4 140 8.606
50 F4 141 7.141
50 F4 142 6.165
50 F4 143 6.165
50 F4 144 6.165
50 F4 145 5.676
50 F4 146 5.676
50 F4 147 5.676
50 F4 148 6.165
50 F4 149 7.629
50 F4 150 9.583
50 F4 151 11.047
50 F4 152 11.047
50 F4 153 10.071
50 F4 154 8.606
50 F4 155 6.653
50 F4 156 5.188
50 F4 157 4.211
50 F4 158 4.211
50 F4 159 3.723
50 F4 160 3.235
50 F4 161 1.770
50 F4 162 -0.183
50 F4 163 -2.136
50 F4 164 -2.625
50 F4 165 -2.625
50 F4 166 -2.136
50 F4 167 -2.136
50 F4 168 -3.113
50 F4 169 -4.089
50 F4 170 -5.066
50 F4 171 -4.578
50 F4 172 -3.113
50 F4 173 -2.136
50 F4 174 -1.160
50 F4 175 -1.160
50 F4 176 -1.160
50 F4 177 -0.671
50 F4 178 0.793
50 F4 179 1.770
50 F4 180 2.747
50 F4 181 3.723
50 F4 182 3.723
50 F4 183 3.235
50 F4 184 1.770
50 F4 185 -0.183
50 F4 186 -2.136
50 F4 187 -4.089
50 F4 188 -5.554
50 F4 189 -7.019
50 F4 190 -7.996
50 F4 191 -8.484
50 F4 192 -8.484
50 F4 193 -7.507
50 F4 194 -7.507
50 F4 195 -7.996
50 F4 196 -8.972
50 F4 197 -10.437
50 F4 198 -11.902
50 F4 199 -11.414
50 F4 200 -9.949
50 F4 201 -6.531
50 F4 202 -3.601
50 F4 203 -2.136
50 F4 204 -1.648
50 F4 205 -2.625
50 F4 206 -3.601
50 F4 207 -4.089
50 F4 208 -4.578
50 F4 209 -4.578
50 F4 210 -6.042
50 F4 211 -7.996
50 F4 212 -10.437
50 F4 213 -11.414
50 F4 214 -10.925
50 F4 215 -8.972
50 F4 216 -7.019
50 F4 217 -5.554
50 F4 218 -4.578
50 F4 219 -3.601
50 F4 220 -2.136
50 F4 221 -0.183
50 F4 222 1.282
50 F4 223 2.258
50 F4 224 2.258
50 F4 225 0.793
50 F4 226 -0.671
50 F4 227 -2.136
50 F4 228 -3.113
50 F4 229 -3.601
50 F4 230 -4.578
50 F4 231 -6.042
50 F4 232 -6.531
50 F4 233 -7.507
50 F4 234 -7.019
50 F4 235 -6.531
50 F4 236 -6.042
50 F4 237 -5.554
50 F4 238 -6.531
50 F4 239 -8.484
50 F4 240 -9.949
50 F4 241 -10.925
50 F4 242 -10.925
50 F4 243 -10.437
50 F4 244 -9.949
50 F4 245 -9.460
50 F4 246 -9.460
50 F4 247 -7.996
50 F4 248 -5.554
50 F4 249 -3.113
50 F4 250 -2.136
50 F4 251 -3.113
50 F4 252 -6.042
50 F4 253 -9.460
50 F4 254 -11.414
50 F4 255 -11.414
# F3 chan 8
50 F3 0 -0.173
50 F3 1 2.268
50 F3 2 4.222
50 F3 3 5.686
50 F3 4 6.175
50 F3 5 5.686
50 F3 6 4.710
50 F3 7 3.245
50 F3 8 1.292
50 F3 9 -0.661
50 F3 10 -2.614
50 F3 11 -4.567
50 F3 12 -5.056
50 F3 13 -5.056
50 F3 14 -4.567
50 F3 15 -3.591
50 F3 16 -3.103
50 F3 17 -3.591
50 F3 18 -3.591
50 F3 19 -3.103
50 F3 20 -1.638
50 F3 21 -0.173
50 F3 22 1.292
50 F3 23 2.757
50 F3 24 2.757
50 F3 25 2.757
50 F3 26 2.268
50 F3 27 1.292
50 F3 28 -0.661
50 F3 29 -3.103
50 F3 30 -5.544
50 F3 31 -7.497
50 F3 32 -7.497
50 F3 33 -7.009
50 F3 34 -5.544
50 F3 35 -5.056
50 F3 36 -5.056
50 F3 37 -6.032
50 F3 38 -5.544
50 F3 39 -4.567
50 F3 40 -2.614
50 F3 41 0.315
50 F3 42 3.245
50 F3 43 5.198
50 F3 44 5.686
50 F3 45 5.198
50 F3 46 5.198
50 F3 47 4.710
50 F3 48 3.733
50 F3 49 2.268
50 F3 50 0.315
50 F3 51 -1.638
50 F3 52 -2.614
50 F3 53 -2.614
50 F3 54 -3.103
50 F3 55 -2.614
50 F3 56 -2.126
50 F3 57 -1.638
50 F3 58 -0.661
50 F3 59 0.315
50 F3 60 0.315
50 F3 61 -0.173
50 F3 62 -0.661
50 F3 63 -0.661
50 F3 64 0.315
50 F3 65 2.268
50 F3 66 4.222
50 F3 67 5.686
50 F3 68 6.663
50 F3 69 7.151
50 F3 70 7.151
50 F3 71 6.663
50 F3 72 4.710
50 F3 73 1.780
50 F3 74 -0.661
50 F3 75 -2.126
50 F3 76 -3.103
50 F3 77 -3.103
50 F3 78 -4.079
50 F3 79 -5.544
50 F3 80 -7.009
50 F3 81 -7.985
50 F3 82 -8.474
50 F3 83 -7.985
50 F3 84 -7.009
50 F3 85 -5.056
50 F3 86 -3.103
50 F3 87 -1.638
50 F3 88 0.315
50 F3 89 1.292
50 F3 90 1.780
50 F3 91 2.268
50 F3 92 1.780
50 F3 93 1.292
50 F3 94 0.804
50 F3 95 -0.173
50 F3 96 -1.638
50 F3 97 -3.103
50 F3 98 -5.544
50 F3 99 -7.497
50 F3 100 -8.474
50 F3 101 -8.474
50 F3 102 -7.009
50 F3 103 -5.544
50 F3 104 -4.567
50 F3 105 -4.567
50 F3 106 -5.056
50 F3 107 -5.056
50 F3 108 -4.567
50 F3 109 -3.103
50 F3 110 -0.661
50 F3 111 2.757
50 F3 112 5.686
50 F3 113 8.128
50 F3 114 8.128
50 F3 115 6.663
50 F3 116 3.245
50 F3 117 -0.173
50 F3 118 -2.126
50 F3 119 -1.638
50 F3 120 1.780
50 F3 121 6.663
50 F3 122 12.034
50 F3 123 15.452
50 F3 124 17.893
50 F3 125 18.870
50 F3 126 18.870
50 F3 127 18.382
50 F3 128 18.382
50 F3 129 18.382
50 F3 130 19.358
50 F3 131 20.823
50 F3 132 22.288
50 F3 133 23.753
50 F3 134 23.753
50 F3 135 23.753
50 F3 136 23.265
50 F3 137 21.800
50 F3 138 19.358
50 F3 139 16.917
50 F3 140 14.964
50 F3 141 13.499
50 F3 142 13.499
50 F3 143 13.987
50 F3 144 13.987
50 F3 145 13.987
50 F3 146 13.011
50 F3 147 12.034
50 F3 148 12.034
50 F3 149 13.011
50 F3 150 13.499
50 F3 151 13.987
50 F3 152 14.476
50 F3 153 14.476
50 F3 154 14.476
50 F3 155 13.987
50 F3 156 13.499
50 F3 157 12.034
50 F3 158 10.081
50 F3 159 7.640
50 F3 160 5.198
50 F3 161 3.245
50 F3 162 1.780
50 F3 163 2.268
50 F3 164 3.733
50 F3 165 5.198
50 F3 166 7.151
50 F3 167 7.640
50 F3 168 6.663
50 F3 169 5.198
50 F3 170 3.733
50 F3 171 2.757
50 F3 172 3.245
50 F3 173 4.710
50 F3 174 6.175
50 F3 175 7.151
50 F3 176 8.616
50 F3 177 9.593
50 F3 178 10.081
50 F3 179 10.569
50 F3 180 10.081
50 F3 181 9.593
50 F3 182 8.616
50 F3 183 7.151
50 F3 184 6.175
50 F3 185 5.686
50 F3 186 5.686
50 F3 187 6.175
50 F3 188 6.175
50 F3 189 5.198
50 F3 190 3.733
50 F3 191 2.268
50 F3 192 2.268
50 F3 193 3.245
50 F3 194 4.710
50 F3 195 5.686
50 F3 196 5.686
50 F3 197 4.222
50 F3 198 2.757
50 F3 199 1.780
50 F3 200 2.268
50 F3 201 4.222
50 F3 202 6.175
50 F3 203 8.128
50 F3 204 9.593
50 F3 205 10.081
50 F3 206 10.569
50 F3 207 9.593
50 F3 208 8.616
50 F3 209 6.663
50 F3 210 5.198
50 F3 211 4.222
50 F3 212 3.733
50 F3 213 4.222
50 F3 214 5.198
50 F3 215 6.175
50 F3 216 6.663
50 F3 217 7.640
50 F3 218 9.104
50 F3 219 10.081
50 F3 220 11.058
50 F3 221 11.546
50 F3 222 11.058
50 F3 223 10.569
50 F3 224 9.593
50 F3 225 8.616
50 F3 226 7.640
50 F3 227 6.175
50 F3 228 5.686
50 F3 229 5.686
50 F3 230 5.686
50 F3 231 5.198
50 F3 232 4.710
50 F3 233 4.222
50 F3 234 4.222
50 F3 235 4.710
50 F3 236 5.198
50 F3 237 5.686
50 F3 238 4.710
50 F3 239 2.757
50 F3 240 0.804
50 F3 241 -0.173
50 F3 242 -0.173
50 F3 243 0.804
50 F3 244 1.780
50 F3 245 2.268
50 F3 246 2.268
50 F3 247 1.780
50 F3 248 1.292
50 F3 249 1.292
50 F3 250 1.292
50 F3 251 1.292
50 F3 252 0.804
50 F3 253 0.804
50 F3 254 0.804
50 F3 255 0.804
# FC6 chan 9
50 FC6 0 3.601
50 FC6 1 7.019
50 FC6 2 9.460
50 FC6 3 11.414
50 FC6 4 13.855
50 FC6 5 16.296
50 FC6 6 17.273
50 FC6 7 15.808
50 FC6 8 12.878
50 FC6 9 8.972
50 FC6 10 5.554
50 FC6 11 4.089
50 FC6 12 3.113
50 FC6 13 2.136
50 FC6 14 -0.305
50 FC6 15 -2.747
50 FC6 16 -4.700
50 FC6 17 -5.188
50 FC6 18 -4.700
50 FC6 19 -3.723
50 FC6 20 -2.747
50 FC6 21 -2.258
50 FC6 22 -1.282
50 FC6 23 0.183
50 FC6 24 1.648
50 FC6 25 3.601
50 FC6 26 4.578
50 FC6 27 5.066
50 FC6 28 5.066
50 FC6 29 4.089
50 FC6 30 2.625
50 FC6 31 0.183
50 FC6 32 -2.258
50 FC6 33 -5.188
50 FC6 34 -6.653
50 FC6 35 -6.653
50 FC6 36 -6.165
50 FC6 37 -5.676
50 FC6 38 -5.676
50 FC6 39 -6.653
50 FC6 40 -7.629
50 FC6 41 -7.629
50 FC6 42 -5.188
50 FC6 43 -1.282
50 FC6 44 4.089
50 FC6 45 7.996
50 FC6 46 10.437
50 FC6 47 10.925
50 FC6 48 9.949
50 FC6 49 7.996
50 FC6 50 5.554
50 FC6 51 4.089
50 FC6 52 2.625
50 FC6 53 2.136
50 FC6 54 1.648
50 FC6 55 0.671
50 FC6 56 0.183
50 FC6 57 -0.793
50 FC6 58 -2.258
50 FC6 59 -3.235
50 FC6 60 -4.700
50 FC6 61 -5.188
50 FC6 62 -4.700
50 FC6 63 -2.747
50 FC6 64 -0.305
50 FC6 65 2.136
50 FC6 66 3.601
50 FC6 67 3.601
50 FC6 68 3.113
50 FC6 69 2.136
50 FC6 70 2.136
50 FC6 71 1.160
50 FC6 72 0.183
50 FC6 73 -1.770
50 FC6 74 -4.211
50 FC6 75 -6.653
50 FC6 76 -8.118
50 FC6 77 -8.606
50 FC6 78 -9.094
50 FC6 79 -9.583
50 FC6 80 -11.047
50 FC6 81 -13.000
50 FC6 82 -14.954
50 FC6 83 -15.442
50 FC6 84 -15.442
50 FC6 85 -13.977
50 FC6 86 -12.024
50 FC6 87 -9.583
50 FC6 88 -7.629
50 FC6 89 -5.676
50 FC6 90 -3.723
50 FC6 91 -2.258
50 FC6 92 -1.282
50 FC6 93 -0.793
50 FC6 94 -0.305
50 FC6 95 -0.305
50 FC6 96 -0.793
50 FC6 97 -1.282
50 FC6 98 -1.770
50 FC6 99 -2.747
50 FC6 100 -3.723
50 FC6 101 -4.700
50 FC6 102 -5.676
50 FC6 103 -5.676
50 FC6 104 -4.700
50 FC6 105 -2.747
50 FC6 106 -1.770
50 FC6 107 -1.770
50 FC6 108 -2.747
50 FC6 109 -4.211
50 FC6 110 -5.188
50 FC6 111 -4.700
50 FC6 112 -3.723
50 FC6 113 -1.770
50 FC6 114 -0.793
50 FC6 115 -0.793
50 FC6 116 -1.770
50 FC6 117 -3.235
50 FC6 118 -3.723
50 FC6 119 -3.723
50 FC6 120 -4.211
50 FC6 121 -5.188
50 FC6 122 -6.653
50 FC6 123 -7.629
50 FC6 124 -8.606
50 FC6 125 -8.606
50 FC6 126 -8.606
50 FC6 127 -9.583
50 FC6 128 -9.583
50 FC6 129 -8.606
50 FC6 130 -6.653
50 FC6 131 -3.723
50 FC6 132 -1.770
50 FC6 133 -1.282
50 FC6 134 -2.258
50 FC6 135 -3.235
50 FC6 136 -3.235
50 FC6 137 -3.235
50 FC6 138 -3.235
50 FC6 139 -5.676
50 FC6 140 -9.094
50 FC6 141 -12.512
50 FC6 142 -14.954
50 FC6 143 -13.977
50 FC6 144 -11.536
50 FC6 145 -8.118
50 FC6 146 -5.188
50 FC6 147 -3.235
50 FC6 148 -1.770
50 FC6 149 -0.305
50 FC6 150 1.160
50 FC6 151 2.136
50 FC6 152 3.113
50 FC6 153 2.136
50 FC6 154 0.183
50 FC6 155 -2.258
50 FC6 156 -4.700
50 FC6 157 -6.165
50 FC6 158 -6.653
50 FC6 159 -5.676
50 FC6 160 -4.700
50 FC6 161 -3.723
50 FC6 162 -3.723
50 FC6 163 -4.700
50 FC6 164 -6.165
50 FC6 165 -7.141
50 FC6 166 -7.629
50 FC6 167 -8.118
50 FC6 168 -8.118
50 FC6 169 -8.118
50 FC6 170 -7.141
50 FC6 171 -6.653
50 FC6 172 -6.653
50 FC6 173 -7.629
50 FC6 174 -9.583
50 FC6 175 -11.536
50 FC6 176 -11.536
50 FC6 177 -10.071
50 FC6 178 -7.141
50 FC6 179 -5.188
50 FC6 180 -4.700
50 FC6 181 -6.165
50 FC6 182 -8.606
50 FC6 183 -11.047
50 FC6 184 -12.024
50 FC6 185 -13.000
50 FC6 186 -13.489
50 FC6 187 -13.977
50 FC6 188 -15.442
50 FC6 189 -17.395
50 FC6 190 -19.348
50 FC6 191 -20.813
50 FC6 192 -20.813
50 FC6 193 -19.836
50 FC6 194 -18.860
50 FC6 195 -18.860
50 FC6 196 -19.836
50 FC6 197 -21.301
50 FC6 198 -21.790
50 FC6 199 -20.325
50 FC6 200 -16.907
50 FC6 201 -13.489
50 FC6 202 -11.047
50 FC6 203 -10.071
50 FC6 204 -11.047
50 FC6 205 -11.536
50 FC6 206 -11.536
50 FC6 207 -10.559
50 FC6 208 -10.559
50 FC6 209 -11.536
50 FC6 210 -14.465
50 FC6 211 -17.883
50 FC6 212 -21.301
50 FC6 213 -23.743
50 FC6 214 -24.231
50 FC6 215 -23.743
50 FC6 216 -22.766
50 FC6 217 -21.301
50 FC6 218 -19.836
50 FC6 219 -18.372
50 FC6 220 -16.418
50 FC6 221 -14.465
50 FC6 222 -12.512
50 FC6 223 -11.047
50 FC6 224 -9.583
50 FC6 225 -9.094
50 FC6 226 -9.094
50 FC6 227 -10.559
50 FC6 228 -12.512
50 FC6 229 -15.442
50 FC6 230 -17.395
50 FC6 231 -18.372
50 FC6 232 -18.860
50 FC6 233 -19.348
50 FC6 234 -20.325
50 FC6 235 -22.278
50 FC6 236 -23.254
50 FC6 237 -23.743
50 FC6 238 -22.766
50 FC6 239 -20.813
50 FC6 240 -19.836
50 FC6 241 -19.348
50 FC6 242 -20.325
50 FC6 243 -21.301
50 FC6 244 -22.766
50 FC6 245 -23.743
50 FC6 246 -23.254
50 FC6 247 -20.325
50 FC6 248 -17.395
50 FC6 249 -14.465
50 FC6 250 -13.977
50 FC6 251 -16.418
50 FC6 252 -20.325
50 FC6 253 -24.231
50 FC6 254 -25.696
50 FC6 255 -25.208
# FC5 chan 10
50 FC5 0 2.370
50 FC5 1 4.323
50 FC5 2 6.765
50 FC5 3 8.230
50 FC5 4 8.718
50 FC5 5 7.741
50 FC5 6 5.788
50 FC5 7 4.323
50 FC5 8 3.347
50 FC5 9 2.858
50 FC5 10 1.882
50 FC5 11 0.905
50 FC5 12 -0.071
50 FC5 13 -1.048
50 FC5 14 -1.536
50 FC5 15 -2.024
50 FC5 16 -2.024
50 FC5 17 -1.536
50 FC5 18 -0.559
50 FC5 19 0.905
50 FC5 20 2.370
50 FC5 21 4.323
50 FC5 22 5.300
50 FC5 23 5.300
50 FC5 24 4.812
50 FC5 25 4.812
50 FC5 26 4.812
50 FC5 27 4.323
50 FC5 28 2.370
50 FC5 29 0.417
50 FC5 30 -3.001
50 FC5 31 -5.442
50 FC5 32 -6.419
50 FC5 33 -4.954
50 FC5 34 -3.001
50 FC5 35 -1.048
50 FC5 36 -0.071
50 FC5 37 -0.071
50 FC5 38 -0.559
50 FC5 39 -0.559
50 FC5 40 0.417
50 FC5 41 1.882
50 FC5 42 3.835
50 FC5 43 5.300
50 FC5 44 6.765
50 FC5 45 8.718
50 FC5 46 10.671
50 FC5 47 12.136
50 FC5 48 12.624
50 FC5 49 11.159
50 FC5 50 8.718
50 FC5 51 6.765
50 FC5 52 5.300
50 FC5 53 4.812
50 FC5 54 4.323
50 FC5 55 4.323
50 FC5 56 4.812
50 FC5 57 4.812
50 FC5 58 5.300
50 FC5 59 4.812
50 FC5 60 4.323
50 FC5 61 3.347
50 FC5 62 2.858
50 FC5 63 3.835
50 FC5 64 5.788
50 FC5 65 8.230
50 FC5 66 10.183
50 FC5 67 11.159
50 FC5 68 11.648
50 FC5 69 11.648
50 FC5 70 11.648
50 FC5 71 11.159
50 FC5 72 9.694
50 FC5 73 7.253
50 FC5 74 4.812
50 FC5 75 2.370
50 FC5 76 1.394
50 FC5 77 0.905
50 FC5 78 0.905
50 FC5 79 0.417
50 FC5 80 -0.559
50 FC5 81 -1.536
50 FC5 82 -3.001
50 FC5 83 -3.489
50 FC5 84 -3.489
50 FC5 85 -2.024
50 FC5 86 -1.048
50 FC5 87 0.417
50 FC5 88 2.370
50 FC5 89 3.347
50 FC5 90 4.323
50 FC5 91 4.323
50 FC5 92 4.323
50 FC5 93 3.347
50 FC5 94 3.347
50 FC5 95 2.858
50 FC5 96 1.882
50 FC5 97 -0.559
50 FC5 98 -3.489
50 FC5 99 -6.419
50 FC5 100 -7.395
50 FC5 101 -6.419
50 FC5 102 -3.489
50 FC5 103 -0.559
50 FC5 104 1.394
50 FC5 105 1.882
50 FC5 106 1.394
50 FC5 107 0.417
50 FC5 108 0.417
50 FC5 109 1.394
50 FC5 110 2.370
50 FC5 111 3.835
50 FC5 112 5.300
50 FC5 113 5.788
50 FC5 114 4.812
50 FC5 115 2.370
50 FC5 116 -1.048
50 FC5 117 -3.489
50 FC5 118 -3.489
50 FC5 119 -1.536
50 FC5 120 2.370
50 FC5 121 6.765
50 FC5 122 9.206
50 FC5 123 10.671
50 FC5 124 10.183
50 FC5 125 10.183
50 FC5 126 10.671
50 FC5 127 11.648
50 FC5 128 12.624
50 FC5 129 13.601
50 FC5 130 14.577
50 FC5 131 15.554
50 FC5 132 15.554
50 FC5 133 15.554
50 FC5 134 15.554
50 FC5 135 15.066
50 FC5 136 15.554
50 FC5 137 16.042
50 FC5 138 15.066
50 FC5 139 13.112
50 FC5 140 10.671
50 FC5 141 8.230
50 FC5 142 6.765
50 FC5 143 7.741
50 FC5 144 9.206
50 FC5 145 11.648
50 FC5 146 13.112
50 FC5 147 13.112
50 FC5 148 12.624
50 FC5 149 11.648
50 FC5 150 10.671
50 FC5 151 9.694
50 FC5 152 10.671
50 FC5 153 11.648
50 FC5 154 12.624
50 FC5 155 13.601
50 FC5 156 14.089
50 FC5 157 12.624
50 FC5 158 10.671
50 FC5 159 7.741
50 FC5 160 5.788
50 FC5 161 4.812
50 FC5 162 5.300
50 FC5 163 6.765
50 FC5 164 9.206
50 FC5 165 10.671
50 FC5 166 11.159
50 FC5 167 10.183
50 FC5 168 8.230
50 FC5 169 6.765
50 FC5 170 5.300
50 FC5 171 5.300
50 FC5 172 6.276
50 FC5 173 7.253
50 FC5 174 8.718
50 FC5 175 9.206
50 FC5 176 9.694
50 FC5 177 10.183
50 FC5 178 10.183
50 FC5 179 9.694
50 FC5 180 8.718
50 FC5 181 7.253
50 FC5 182 5.300
50 FC5 183 4.323
50 FC5 184 4.323
50 FC5 185 4.812
50 FC5 186 6.276
50 FC5 187 7.741
50 FC5 188 8.718
50 FC5 189 8.230
50 FC5 190 7.741
50 FC5 191 6.765
50 FC5 192 7.253
50 FC5 193 7.741
50 FC5 194 9.206
50 FC5 195 9.694
50 FC5 196 9.206
50 FC5 197 7.253
50 FC5 198 5.300
50 FC5 199 3.835
50 FC5 200 3.347
50 FC5 201 4.812
50 FC5 202 6.765
50 FC5 203 9.206
50 FC5 204 10.183
50 FC5 205 10.671
50 FC5 206 10.671
50 FC5 207 9.206
50 FC5 208 7.741
50 FC5 209 6.276
50 FC5 210 5.300
50 FC5 211 5.300
50 FC5 212 6.276
50 FC5 213 8.718
50 FC5 214 11.159
50 FC5 215 12.624
50 FC5 216 13.601
50 FC5 217 13.112
50 FC5 218 13.112
50 FC5 219 13.601
50 FC5 220 14.577
50 FC5 221 16.042
50 FC5 222 16.042
50 FC5 223 15.554
50 FC5 224 13.112
50 FC5 225 10.183
50 FC5 226 7.741
50 FC5 227 6.276
50 FC5 228 5.788
50 FC5 229 5.788
50 FC5 230 5.788
50 FC5 231 5.788
50 FC5 232 5.300
50 FC5 233 4.812
50 FC5 234 5.300
50 FC5 235 5.300
50 FC5 236 4.812
50 FC5 237 3.347
50 FC5 238 1.882
50 FC5 239 1.394
50 FC5 240 2.370
50 FC5 241 3.835
50 FC5 242 5.788
50 FC5 243 6.765
50 FC5 244 5.788
50 FC5 245 3.347
50 FC5 246 1.394
50 FC5 247 -0.071
50 FC5 248 -1.048
50 FC5 249 -1.048
50 FC5 250 -0.559
50 FC5 251 -0.071
50 FC5 252 0.417
50 FC5 253 -0.071
50 FC5 254 -0.071
50 FC5 255 0.905
# FC2 chan 11
50 FC2 0 1.444
50 FC2 1 2.421
50 FC2 2 2.909
50 FC2 3 3.886
50 FC2 4 4.862
50 FC2 5 6.327
50 FC2 6 7.792
50 FC2 7 8.769
50 FC2 8 8.280
50 FC2 9 6.816
50 FC2 10 4.374
50 FC2 11 1.933
50 FC2 12 0.956
50 FC2 13 1.444
50 FC2 14 1.444
50 FC2 15 1.444
50 FC2 16 1.444
50 FC2 17 0.468
50 FC2 18 0.468
50 FC2 19 0.956
50 FC2 20 2.421
50 FC2 21 3.398
50 FC2 22 4.374
50 FC2 23 4.374
50 FC2 24 3.398
50 FC2 25 2.909
50 FC2 26 3.398
50 FC2 27 4.374
50 FC2 28 5.351
50 FC2 29 5.839
50 FC2 30 5.351
50 FC2 31 4.374
50 FC2 32 2.421
50 FC2 33 0.468
50 FC2 34 -1.485
50 FC2 35 -2.462
50 FC2 36 -3.438
50 FC2 37 -3.927
50 FC2 38 -3.438
50 FC2 39 -2.950
50 FC2 40 -1.485
50 FC2 41 0.468
50 FC2 42 2.421
50 FC2 43 3.886
50 FC2 44 4.862
50 FC2 45 5.351
50 FC2 46 4.862
50 FC2 47 3.886
50 FC2 48 2.909
50 FC2 49 1.933
50 FC2 50 1.444
50 FC2 51 0.468
50 FC2 52 -0.020
50 FC2 53 -0.997
50 FC2 54 -1.973
50 FC2 55 -2.950
50 FC2 56 -3.438
50 FC2 57 -3.438
50 FC2 58 -3.927
50 FC2 59 -3.927
50 FC2 60 -4.415
50 FC2 61 -4.415
50 FC2 62 -4.415
50 FC2 63 -4.415
50 FC2 64 -4.415
50 FC2 65 -4.415
50 FC2 66 -4.415
50 FC2 67 -3.927
50 FC2 68 -3.927
50 FC2 69 -3.438
50 FC2 70 -2.950
50 FC2 71 -2.462
50 FC2 72 -2.462
50 FC2 73 -2.950
50 FC2 74 -3.438
50 FC2 75 -4.415
50 FC2 76 -4.903
50 FC2 77 -5.880
50 FC2 78 -6.368
50 FC2 79 -6.856
50 FC2 80 -6.856
50 FC2 81 -6.368
50 FC2 82 -5.880
50 FC2 83 -4.903
50 FC2 84 -4.415
50 FC2 85 -2.950
50 FC2 86 -1.973
50 FC2 87 -0.997
50 FC2 88 -0.509
50 FC2 89 -0.509
50 FC2 90 -0.997
50 FC2 91 -0.997
50 FC2 92 -0.509
50 FC2 93 -0.020
50 FC2 94 -0.020
50 FC2 95 -0.509
50 FC2 96 -1.485
50 FC2 97 -2.462
50 FC2 98 -2.462
50 FC2 99 -1.973
50 FC2 100 -1.485
50 FC2 101 -2.462
50 FC2 102 -2.950
50 FC2 103 -3.438
50 FC2 104 -3.438
50 FC2 105 -2.462
50 FC2 106 -1.485
50 FC2 107 -1.485
50 FC2 108 -2.462
50 FC2 109 -3.438
50 FC2 110 -3.927
50 FC2 111 -3.438
50 FC2 112 -2.462
50 FC2 113 -1.485
50 FC2 114 -0.997
50 FC2 115 -0.997
50 FC2 116 -0.997
50 FC2 117 -1.973
50 FC2 118 -2.950
50 FC2 119 -3.927
50 FC2 120 -4.415
50 FC2 121 -3.927
50 FC2 122 -3.438
50 FC2 123 -2.462
50 FC2 124 -1.973
50 FC2 125 -1.485
50 FC2 126 -1.973
50 FC2 127 -2.462
50 FC2 128 -2.950
50 FC2 129 -2.462
50 FC2 130 -1.485
50 FC2 131 -0.020
50 FC2 132 1.444
50 FC2 133 1.933
50 FC2 134 1.444
50 FC2 135 1.444
50 FC2 136 1.444
50 FC2 137 1.444
50 FC2 138 0.956
50 FC2 139 0.468
50 FC2 140 -0.509
50 FC2 141 -1.973
50 FC2 142 -2.950
50 FC2 143 -3.438
50 FC2 144 -3.927
50 FC2 145 -3.927
50 FC2 146 -4.415
50 FC2 147 -4.903
50 FC2 148 -4.903
50 FC2 149 -4.415
50 FC2 150 -2.950
50 FC2 151 -1.485
50 FC2 152 -0.020
50 FC2 153 0.956
50 FC2 154 0.468
50 FC2 155 -0.997
50 FC2 156 -1.973
50 FC2 157 -2.950
50 FC2 158 -2.462
50 FC2 159 -1.973
50 FC2 160 -1.485
50 FC2 161 -1.485
50 FC2 162 -2.462
50 FC2 163 -3.927
50 FC2 164 -4.903
50 FC2 165 -5.391
50 FC2 166 -4.903
50 FC2 167 -3.927
50 FC2 168 -3.927
50 FC2 169 -4.415
50 FC2 170 -4.903
50 FC2 171 -5.391
50 FC2 172 -5.880
50 FC2 173 -5.880
50 FC2 174 -5.880
50 FC2 175 -5.391
50 FC2 176 -4.903
50 FC2 177 -3.438
50 FC2 178 -2.462
50 FC2 179 -1.485
50 FC2 180 -0.509
50 FC2 181 -0.020
50 FC2 182 0.468
50 FC2 183 0.468
50 FC2 184 -0.020
50 FC2 185 -0.997
50 FC2 186 -2.462
50 FC2 187 -3.438
50 FC2 188 -5.391
50 FC2 189 -6.856
50 FC2 190 -8.321
50 FC2 191 -9.298
50 FC2 192 -9.786
50 FC2 193 -8.809
50 FC2 194 -8.321
50 FC2 195 -7.345
50 FC2 196 -7.345
50 FC2 197 -8.321
50 FC2 198 -9.298
50 FC2 199 -9.298
50 FC2 200 -9.298
50 FC2 201 -8.321
50 FC2 202 -6.856
50 FC2 203 -5.880
50 FC2 204 -5.391
50 FC2 205 -4.903
50 FC2 206 -4.903
50 FC2 207 -4.415
50 FC2 208 -4.903
50 FC2 209 -5.391
50 FC2 210 -7.345
50 FC2 211 -9.298
50 FC2 212 -11.251
50 FC2 213 -12.716
50 FC2 214 -13.204
50 FC2 215 -13.204
50 FC2 216 -12.716
50 FC2 217 -12.716
50 FC2 218 -12.716
50 FC2 219 -12.716
50 FC2 220 -12.716
50 FC2 221 -12.227
50 FC2 222 -11.251
50 FC2 223 -10.274
50 FC2 224 -8.321
50 FC2 225 -6.856
50 FC2 226 -6.368
50 FC2 227 -6.856
50 FC2 228 -8.321
50 FC2 229 -9.298
50 FC2 230 -10.274
50 FC2 231 -9.298
50 FC2 232 -8.809
50 FC2 233 -8.321
50 FC2 234 -8.321
50 FC2 235 -8.809
50 FC2 236 -8.321
50 FC2 237 -7.833
50 FC2 238 -7.345
50 FC2 239 -6.856
50 FC2 240 -7.833
50 FC2 241 -8.321
50 FC2 242 -9.298
50 FC2 243 -8.809
50 FC2 244 -8.321
50 FC2 245 -7.833
50 FC2 246 -6.856
50 FC2 247 -5.880
50 FC2 248 -4.415
50 FC2 249 -2.950
50 FC2 250 -1.973
50 FC2 251 -1.973
50 FC2 252 -2.950
50 FC2 253 -5.391
50 FC2 254 -7.345
50 FC2 255 -8.321
# FC1 chan 12
50 FC1 0 0.122
50 FC1 1 1.099
50 FC1 2 2.075
50 FC1 3 3.052
50 FC1 4 3.540
50 FC1 5 3.540
50 FC1 6 2.563
50 FC1 7 1.587
50 FC1 8 0.122
50 FC1 9 -1.343
50 FC1 10 -2.808
50 FC1 11 -3.784
50 FC1 12 -4.272
50 FC1 13 -3.784
50 FC1 14 -3.296
50 FC1 15 -2.808
50 FC1 16 -2.319
50 FC1 17 -1.831
50 FC1 18 -1.343
50 FC1 19 -0.366
50 FC1 20 0.610
50 FC1 21 2.075
50 FC1 22 3.052
50 FC1 23 3.540
50 FC1 24 3.540
50 FC1 25 3.052
50 FC1 26 2.563
50 FC1 27 2.075
50 FC1 28 1.099
50 FC1 29 0.122
50 FC1 30 -1.343
50 FC1 31 -2.808
50 FC1 32 -4.272
50 FC1 33 -4.272
50 FC1 34 -4.761
50 FC1 35 -4.272
50 FC1 36 -4.272
50 FC1 37 -4.761
50 FC1 38 -4.761
50 FC1 39 -4.272
50 FC1 40 -2.319
50 FC1 41 0.122
50 FC1 42 2.563
50 FC1 43 4.028
50 FC1 44 4.028
50 FC1 45 2.563
50 FC1 46 1.099
50 FC1 47 0.610
50 FC1 48 0.610
50 FC1 49 1.099
50 FC1 50 1.099
50 FC1 51 0.122
50 FC1 52 -0.854
50 FC1 53 -2.319
50 FC1 54 -2.808
50 FC1 55 -3.296
50 FC1 56 -3.784
50 FC1 57 -3.296
50 FC1 58 -3.296
50 FC1 59 -2.808
50 FC1 60 -2.319
50 FC1 61 -2.808
50 FC1 62 -3.296
50 FC1 63 -3.784
50 FC1 64 -3.784
50 FC1 65 -2.808
50 FC1 66 -1.343
50 FC1 67 0.610
50 FC1 68 1.587
50 FC1 69 2.075
50 FC1 70 2.075
50 FC1 71 2.075
50 FC1 72 1.587
50 FC1 73 0.122
50 FC1 74 -0.854
50 FC1 75 -1.831
50 FC1 76 -2.319
50 FC1 77 -2.319
50 FC1 78 -2.808
50 FC1 79 -4.272
50 FC1 80 -5.249
50 FC1 81 -6.226
50 FC1 82 -6.226
50 FC1 83 -4.761
50 FC1 84 -3.296
50 FC1 85 -2.319
50 FC1 86 -1.831
50 FC1 87 -1.831
50 FC1 88 -1.831
50 FC1 89 -1.343
50 FC1 90 -0.366
50 FC1 91 0.122
50 FC1 92 -0.366
50 FC1 93 -0.854
50 FC1 94 -1.343
50 FC1 95 -1.831
50 FC1 96 -2.319
50 FC1 97 -3.296
50 FC1 98 -4.761
50 FC1 99 -6.226
50 FC1 100 -6.714
50 FC1 101 -6.714
50 FC1 102 -5.737
50 FC1 103 -4.761
50 FC1 104 -4.761
50 FC1 105 -5.249
50 FC1 106 -5.737
50 FC1 107 -5.737
50 FC1 108 -4.761
50 FC1 109 -3.784
50 FC1 110 -2.319
50 FC1 111 -0.366
50 FC1 112 1.099
50 FC1 113 2.075
50 FC1 114 2.075
50 FC1 115 1.099
50 FC1 116 -1.343
50 FC1 117 -4.272
50 FC1 118 -6.226
50 FC1 119 -6.714
50 FC1 120 -5.249
50 FC1 121 -2.808
50 FC1 122 -0.366
50 FC1 123 2.075
50 FC1 124 3.540
50 FC1 125 4.517
50 FC1 126 5.005
50 FC1 127 5.005
50 FC1 128 5.005
50 FC1 129 4.517
50 FC1 130 5.005
50 FC1 131 5.493
50 FC1 132 6.470
50 FC1 133 7.446
50 FC1 134 7.935
50 FC1 135 7.446
50 FC1 136 6.470
50 FC1 137 5.005
50 FC1 138 4.028
50 FC1 139 3.052
50 FC1 140 3.540
50 FC1 141 3.540
50 FC1 142 4.028
50 FC1 143 3.540
50 FC1 144 3.052
50 FC1 145 1.587
50 FC1 146 0.122
50 FC1 147 -0.366
50 FC1 148 0.122
50 FC1 149 1.099
50 FC1 150 2.075
50 FC1 151 3.540
50 FC1 152 4.517
50 FC1 153 4.517
50 FC1 154 4.517
50 FC1 155 3.540
50 FC1 156 3.052
50 FC1 157 2.075
50 FC1 158 1.587
50 FC1 159 0.610
50 FC1 160 0.122
50 FC1 161 -0.366
50 FC1 162 -0.854
50 FC1 163 -0.854
50 FC1 164 -0.366
50 FC1 165 0.122
50 FC1 166 0.610
50 FC1 167 0.610
50 FC1 168 0.122
50 FC1 169 -0.854
50 FC1 170 -1.831
50 FC1 171 -2.319
50 FC1 172 -1.831
50 FC1 173 -0.854
50 FC1 174 0.122
50 FC1 175 1.099
50 FC1 176 1.099
50 FC1 177 0.610
50 FC1 178 0.122
50 FC1 179 0.122
50 FC1 180 0.610
50 FC1 181 1.587
50 FC1 182 2.075
50 FC1 183 2.563
50 FC1 184 2.075
50 FC1 185 2.075
50 FC1 186 1.587
50 FC1 187 1.099
50 FC1 188 0.122
50 FC1 189 -0.854
50 FC1 190 -2.319
50 FC1 191 -3.296
50 FC1 192 -3.784
50 FC1 193 -2.319
50 FC1 194 -0.854
50 FC1 195 1.099
50 FC1 196 1.587
50 FC1 197 0.610
50 FC1 198 -1.343
50 FC1 199 -2.808
50 FC1 200 -3.296
50 FC1 201 -2.319
50 FC1 202 -0.854
50 FC1 203 0.610
50 FC1 204 1.587
50 FC1 205 1.587
50 FC1 206 1.587
50 FC1 207 1.099
50 FC1 208 0.610
50 FC1 209 0.610
50 FC1 210 0.122
50 FC1 211 0.122
50 FC1 212 0.122
50 FC1 213 0.122
50 FC1 214 0.610
50 FC1 215 1.099
50 FC1 216 1.587
50 FC1 217 2.075
50 FC1 218 2.563
50 FC1 219 3.052
50 FC1 220 2.563
50 FC1 221 2.563
50 FC1 222 2.075
50 FC1 223 1.587
50 FC1 224 1.099
50 FC1 225 1.099
50 FC1 226 1.587
50 FC1 227 1.587
50 FC1 228 1.587
50 FC1 229 1.099
50 FC1 230 0.610
50 FC1 231 0.610
50 FC1 232 0.122
50 FC1 233 0.122
50 FC1 234 0.610
50 FC1 235 0.610
50 FC1 236 1.099
50 FC1 237 1.099
50 FC1 238 0.122
50 FC1 239 -0.854
50 FC1 240 -1.831
50 FC1 241 -2.319
50 FC1 242 -1.831
50 FC1 243 -1.343
50 FC1 244 0.122
50 FC1 245 0.122
50 FC1 246 -0.366
50 FC1 247 -1.343
50 FC1 248 -2.808
50 FC1 249 -2.808
50 FC1 250 -2.319
50 FC1 251 -1.831
50 FC1 252 -1.343
50 FC1 253 -1.343
50 FC1 254 -2.319
50 FC1 255 -2.808
# T8 chan 13
50 T8 0 2.665
50 T8 1 5.107
50 T8 2 7.548
50 T8 3 10.478
50 T8 4 13.407
50 T8 5 16.825
50 T8 6 19.267
50 T8 7 19.267
50 T8 8 16.825
50 T8 9 13.896
50 T8 10 10.966
50 T8 11 9.013
50 T8 12 8.036
50 T8 13 7.548
50 T8 14 6.083
50 T8 15 3.153
50 T8 16 -0.753
50 T8 17 -3.682
50 T8 18 -5.147
50 T8 19 -5.147
50 T8 20 -3.194
50 T8 21 -0.264
50 T8 22 3.153
50 T8 23 5.107
50 T8 24 6.571
50 T8 25 7.060
50 T8 26 7.548
50 T8 27 8.036
50 T8 28 8.525
50 T8 29 7.548
50 T8 30 6.083
50 T8 31 4.130
50 T8 32 2.177
50 T8 33 1.200
50 T8 34 1.200
50 T8 35 1.689
50 T8 36 1.689
50 T8 37 0.712
50 T8 38 -0.264
50 T8 39 -0.753
50 T8 40 -0.753
50 T8 41 -0.264
50 T8 42 1.200
50 T8 43 3.153
50 T8 44 7.060
50 T8 45 12.431
50 T8 46 19.755
50 T8 47 26.103
50 T8 48 29.032
50 T8 49 28.544
50 T8 50 25.614
50 T8 51 22.685
50 T8 52 20.732
50 T8 53 20.732
50 T8 54 20.243
50 T8 55 18.290
50 T8 56 14.872
50 T8 57 10.966
50 T8 58 7.548
50 T8 59 6.083
50 T8 60 5.595
50 T8 61 6.083
50 T8 62 6.571
50 T8 63 8.036
50 T8 64 10.966
50 T8 65 13.896
50 T8 66 16.825
50 T8 67 19.755
50 T8 68 20.243
50 T8 69 20.243
50 T8 70 20.243
50 T8 71 18.778
50 T8 72 17.802
50 T8 73 15.849
50 T8 74 12.919
50 T8 75 9.501
50 T8 76 6.083
50 T8 77 4.130
50 T8 78 3.153
50 T8 79 1.689
50 T8 80 -0.264
50 T8 81 -3.194
50 T8 82 -6.612
50 T8 83 -9.054
50 T8 84 -9.542
50 T8 85 -7.100
50 T8 86 -3.194
50 T8 87 0.224
50 T8 88 3.642
50 T8 89 6.571
50 T8 90 9.013
50 T8 91 11.943
50 T8 92 13.896
50 T8 93 15.849
50 T8 94 16.825
50 T8 95 16.825
50 T8 96 14.872
50 T8 97 12.919
50 T8 98 9.989
50 T8 99 7.060
50 T8 100 4.130
50 T8 101 2.665
50 T8 102 1.689
50 T8 103 2.665
50 T8 104 4.618
50 T8 105 7.060
50 T8 106 9.013
50 T8 107 9.989
50 T8 108 9.501
50 T8 109 8.036
50 T8 110 6.083
50 T8 111 5.107
50 T8 112 5.107
50 T8 113 5.595
50 T8 114 6.083
50 T8 115 5.595
50 T8 116 3.153
50 T8 117 -0.264
50 T8 118 -3.194
50 T8 119 -5.147
50 T8 120 -5.147
50 T8 121 -4.171
50 T8 122 -3.194
50 T8 123 -2.706
50 T8 124 -3.682
50 T8 125 -5.636
50 T8 126 -8.077
50 T8 127 -10.030
50 T8 128 -10.030
50 T8 129 -8.565
50 T8 130 -6.124
50 T8 131 -3.194
50 T8 132 -1.729
50 T8 133 -0.753
50 T8 134 -0.753
50 T8 135 -0.753
50 T8 136 -0.264
50 T8 137 0.224
50 T8 138 -0.264
50 T8 139 -2.706
50 T8 140 -5.636
50 T8 141 -9.054
50 T8 142 -10.518
50 T8 143 -10.030
50 T8 144 -7.100
50 T8 145 -3.194
50 T8 146 -0.264
50 T8 147 1.689
50 T8 148 3.153
50 T8 149 4.130
50 T8 150 4.618
50 T8 151 5.107
50 T8 152 4.618
50 T8 153 3.153
50 T8 154 1.689
50 T8 155 0.712
50 T8 156 1.200
50 T8 157 2.665
50 T8 158 4.618
50 T8 159 6.083
50 T8 160 6.571
50 T8 161 4.618
50 T8 162 2.665
50 T8 163 0.712
50 T8 164 0.224
50 T8 165 0.712
50 T8 166 1.689
50 T8 167 1.689
50 T8 168 1.200
50 T8 169 0.224
50 T8 170 -0.264
50 T8 171 0.224
50 T8 172 0.224
50 T8 173 0.712
50 T8 174 0.712
50 T8 175 0.224
50 T8 176 0.224
50 T8 177 0.712
50 T8 178 1.689
50 T8 179 2.665
50 T8 180 2.177
50 T8 181 0.712
50 T8 182 -1.729
50 T8 183 -4.659
50 T8 184 -7.100
50 T8 185 -8.077
50 T8 186 -7.589
50 T8 187 -7.100
50 T8 188 -7.100
50 T8 189 -8.077
50 T8 190 -9.542
50 T8 191 -10.518
50 T8 192 -10.518
50 T8 193 -9.542
50 T8 194 -8.077
50 T8 195 -7.589
50 T8 196 -7.589
50 T8 197 -8.565
50 T8 198 -8.565
50 T8 199 -6.124
50 T8 200 -2.706
50 T8 201 1.200
50 T8 202 4.130
50 T8 203 4.130
50 T8 204 2.665
50 T8 205 1.200
50 T8 206 0.224
50 T8 207 0.224
50 T8 208 -0.264
50 T8 209 -1.729
50 T8 210 -4.171
50 T8 211 -7.100
50 T8 212 -9.542
50 T8 213 -11.007
50 T8 214 -11.495
50 T8 215 -11.007
50 T8 216 -10.030
50 T8 217 -9.054
50 T8 218 -6.612
50 T8 219 -3.682
50 T8 220 -1.241
50 T8 221 1.689
50 T8 222 3.153
50 T8 223 4.130
50 T8 224 3.153
50 T8 225 1.200
50 T8 226 -0.753
50 T8 227 -3.682
50 T8 228 -6.124
50 T8 229 -8.565
50 T8 230 -10.518
50 T8 231 -12.472
50 T8 232 -13.936
50 T8 233 -15.401
50 T8 234 -17.843
50 T8 235 -20.772
50 T8 236 -23.214
50 T8 237 -23.702
50 T8 238 -22.725
50 T8 239 -19.307
50 T8 240 -15.889
50 T8 241 -12.960
50 T8 242 -11.983
50 T8 243 -12.472
50 T8 244 -12.960
50 T8 245 -12.472
50 T8 246 -10.030
50 T8 247 -7.100
50 T8 248 -4.171
50 T8 249 -3.194
50 T8 250 -5.636
50 T8 251 -9.542
50 T8 252 -13.936
50 T8 253 -16.866
50 T8 254 -17.354
50 T8 255 -16.378
# T7 chan 14
50 T7 0 5.717
50 T7 1 8.158
50 T7 2 11.576
50 T7 3 13.529
50 T7 4 13.529
50 T7 5 11.576
50 T7 6 8.647
50 T7 7 6.694
50 T7 8 6.694
50 T7 9 7.670
50 T7 10 8.647
50 T7 11 8.647
50 T7 12 6.694
50 T7 13 4.740
50 T7 14 3.764
50 T7 15 3.276
50 T7 16 4.252
50 T7 17 5.229
50 T7 18 6.205
50 T7 19 7.182
50 T7 20 7.670
50 T7 21 8.647
50 T7 22 9.623
50 T7 23 10.111
50 T7 24 10.111
50 T7 25 10.111
50 T7 26 9.135
50 T7 27 8.647
50 T7 28 8.158
50 T7 29 6.694
50 T7 30 4.740
50 T7 31 3.276
50 T7 32 2.299
50 T7 33 1.811
50 T7 34 2.299
50 T7 35 3.276
50 T7 36 4.252
50 T7 37 5.229
50 T7 38 6.205
50 T7 39 7.670
50 T7 40 8.647
50 T7 41 9.623
50 T7 42 10.600
50 T7 43 12.065
50 T7 44 14.506
50 T7 45 18.412
50 T7 46 22.319
50 T7 47 25.736
50 T7 48 26.713
50 T7 49 24.272
50 T7 50 20.854
50 T7 51 17.436
50 T7 52 14.994
50 T7 53 14.506
50 T7 54 14.506
50 T7 55 14.506
50 T7 56 14.018
50 T7 57 13.041
50 T7 58 12.065
50 T7 59 11.576
50 T7 60 11.088
50 T7 61 11.088
50 T7 62 11.576
50 T7 63 13.041
50 T7 64 15.483
50 T7 65 18.412
50 T7 66 20.854
50 T7 67 21.830
50 T7 68 21.830
50 T7 69 21.342
50 T7 70 21.342
50 T7 71 21.342
50 T7 72 20.854
50 T7 73 20.365
50 T7 74 18.412
50 T7 75 14.994
50 T7 76 12.065
50 T7 77 9.623
50 T7 78 7.670
50 T7 79 6.694
50 T7 80 5.229
50 T7 81 3.276
50 T7 82 1.322
50 T7 83 0.834
50 T7 84 1.322
50 T7 85 4.252
50 T7 86 7.670
50 T7 87 10.600
50 T7 88 12.553
50 T7 89 13.529
50 T7 90 14.018
50 T7 91 14.018
50 T7 92 13.529
50 T7 93 13.041
50 T7 94 12.553
50 T7 95 11.088
50 T7 96 9.623
50 T7 97 7.182
50 T7 98 4.740
50 T7 99 1.811
50 T7 100 -0.142
50 T7 101 -1.119
50 T7 102 -0.142
50 T7 103 2.299
50 T7 104 5.717
50 T7 105 8.647
50 T7 106 10.600
50 T7 107 11.088
50 T7 108 10.600
50 T7 109 9.135
50 T7 110 8.158
50 T7 111 7.182
50 T7 112 6.694
50 T7 113 6.694
50 T7 114 5.717
50 T7 115 3.764
50 T7 116 1.322
50 T7 117 -2.096
50 T7 118 -3.072
50 T7 119 -2.096
50 T7 120 0.834
50 T7 121 4.252
50 T7 122 7.670
50 T7 123 8.647
50 T7 124 8.158
50 T7 125 6.694
50 T7 126 6.205
50 T7 127 7.670
50 T7 128 10.600
50 T7 129 13.529
50 T7 130 15.971
50 T7 131 16.947
50 T7 132 15.483
50 T7 133 13.529
50 T7 134 12.065
50 T7 135 12.553
50 T7 136 14.506
50 T7 137 16.947
50 T7 138 18.412
50 T7 139 17.924
50 T7 140 14.506
50 T7 141 11.088
50 T7 142 9.135
50 T7 143 9.623
50 T7 144 12.553
50 T7 145 16.459
50 T7 146 19.877
50 T7 147 20.854
50 T7 148 20.365
50 T7 149 18.901
50 T7 150 17.924
50 T7 151 17.924
50 T7 152 18.412
50 T7 153 19.389
50 T7 154 20.365
50 T7 155 20.854
50 T7 156 21.342
50 T7 157 20.854
50 T7 158 19.389
50 T7 159 17.924
50 T7 160 16.459
50 T7 161 15.483
50 T7 162 15.971
50 T7 163 17.436
50 T7 164 18.901
50 T7 165 20.365
50 T7 166 21.342
50 T7 167 20.854
50 T7 168 19.877
50 T7 169 19.389
50 T7 170 18.901
50 T7 171 19.877
50 T7 172 21.342
50 T7 173 22.319
50 T7 174 22.319
50 T7 175 21.830
50 T7 176 21.342
50 T7 177 20.854
50 T7 178 20.854
50 T7 179 19.877
50 T7 180 18.412
50 T7 181 15.483
50 T7 182 12.553
50 T7 183 11.088
50 T7 184 10.600
50 T7 185 12.553
50 T7 186 14.994
50 T7 187 17.436
50 T7 188 18.901
50 T7 189 19.877
50 T7 190 19.877
50 T7 191 19.877
50 T7 192 19.877
50 T7 193 19.877
50 T7 194 20.365
50 T7 195 20.365
50 T7 196 20.854
50 T7 197 21.830
50 T7 198 22.319
50 T7 199 22.807
50 T7 200 23.783
50 T7 201 24.760
50 T7 202 25.736
50 T7 203 27.201
50 T7 204 27.690
50 T7 205 27.201
50 T7 206 25.736
50 T7 207 23.783
50 T7 208 22.319
50 T7 209 20.854
50 T7 210 19.877
50 T7 211 19.389
50 T7 212 19.389
50 T7 213 20.365
50 T7 214 21.830
50 T7 215 24.272
50 T7 216 26.225
50 T7 217 28.178
50 T7 218 29.154
50 T7 219 30.619
50 T7 220 31.596
50 T7 221 32.084
50 T7 222 32.084
50 T7 223 30.131
50 T7 224 27.201
50 T7 225 24.272
50 T7 226 22.319
50 T7 227 21.830
50 T7 228 22.319
50 T7 229 21.830
50 T7 230 20.365
50 T7 231 18.901
50 T7 232 17.924
50 T7 233 18.412
50 T7 234 19.877
50 T7 235 20.365
50 T7 236 19.877
50 T7 237 17.924
50 T7 238 15.971
50 T7 239 15.971
50 T7 240 17.924
50 T7 241 20.854
50 T7 242 22.807
50 T7 243 21.830
50 T7 244 18.901
50 T7 245 14.994
50 T7 246 13.041
50 T7 247 12.553
50 T7 248 13.041
50 T7 249 13.529
50 T7 250 13.529
50 T7 251 13.041
50 T7 252 13.041
50 T7 253 13.041
50 T7 254 14.506
50 T7 255 15.971
# CZ chan 15
50 CZ 0 -1.953
50 CZ 1 0.488
50 CZ 2 2.441
50 CZ 3 2.930
50 CZ 4 3.418
50 CZ 5 3.418
50 CZ 6 2.930
50 CZ 7 1.465
50 CZ 8 -0.977
50 CZ 9 -3.906
50 CZ 10 -7.324
50 CZ 11 -9.766
50 CZ 12 -11.230
50 CZ 13 -12.207
50 CZ 14 -13.184
50 CZ 15 -14.648
50 CZ 16 -17.090
50 CZ 17 -19.531
50 CZ 18 -21.973
50 CZ 19 -23.438
50 CZ 20 -21.973
50 CZ 21 -17.578
50 CZ 22 -11.719
50 CZ 23 -5.859
50 CZ 24 -2.930
50 CZ 25 -2.930
50 CZ 26 -6.348
50 CZ 27 -10.254
50 CZ 28 -13.184
50 CZ 29 -14.160
50 CZ 30 -13.672
50 CZ 31 -12.695
50 CZ 32 -11.230
50 CZ 33 -10.254
50 CZ 34 -9.766
50 CZ 35 -9.277
50 CZ 36 -9.766
50 CZ 37 -9.766
50 CZ 38 -10.254
50 CZ 39 -10.742
50 CZ 40 -11.719
50 CZ 41 -13.672
50 CZ 42 -15.625
50 CZ 43 -15.137
50 CZ 44 -10.254
50 CZ 45 -0.488
50 CZ 46 10.742
50 CZ 47 17.578
50 CZ 48 16.113
50 CZ 49 6.348
50 CZ 50 -6.836
50 CZ 51 -15.625
50 CZ 52 -16.602
50 CZ 53 -11.230
50 CZ 54 -5.859
50 CZ 55 -4.883
50 CZ 56 -8.789
50 CZ 57 -13.672
50 CZ 58 -16.602
50 CZ 59 -14.648
50 CZ 60 -10.254
50 CZ 61 -5.859
50 CZ 62 -2.441
50 CZ 63 -0.488
50 CZ 64 1.953
50 CZ 65 4.883
50 CZ 66 7.812
50 CZ 67 9.277
50 CZ 68 11.230
50 CZ 69 12.695
50 CZ 70 15.137
50 CZ 71 17.090
50 CZ 72 16.602
50 CZ 73 13.672
50 CZ 74 7.812
50 CZ 75 1.465
50 CZ 76 -2.441
50 CZ 77 -3.418
50 CZ 78 -2.441
50 CZ 79 -0.488
50 CZ 80 0.488
50 CZ 81 0.000
50 CZ 82 -1.953
50 CZ 83 -2.930
50 CZ 84 -1.953
50 CZ 85 1.465
50 CZ 86 6.348
50 CZ 87 10.742
50 CZ 88 14.648
50 CZ 89 17.090
50 CZ 90 19.043
50 CZ 91 20.508
50 CZ 92 21.973
50 CZ 93 22.949
50 CZ 94 22.461
50 CZ 95 20.508
50 CZ 96 17.090
50 CZ 97 11.719
50 CZ 98 6.348
50 CZ 99 1.953
50 CZ 100 -0.488
50 CZ 101 0.000
50 CZ 102 1.953
50 CZ 103 3.906
50 CZ 104 4.883
50 CZ 105 5.371
50 CZ 106 4.883
50 CZ 107 4.883
50 CZ 108 4.395
50 CZ 109 2.930
50 CZ 110 0.488
50 CZ 111 -2.930
50 CZ 112 -8.301
50 CZ 113 -14.160
50 CZ 114 -20.508
50 CZ 115 -27.344
50 CZ 116 -35.156
50 CZ 117 -43.945
50 CZ 118 -52.734
50 CZ 119 -60.059
50 CZ 120 -65.430
50 CZ 121 -68.359
50 CZ 122 -69.336
50 CZ 123 -69.336
50 CZ 124 -70.801
50 CZ 125 -72.266
50 CZ 126 -74.707
50 CZ 127 -75.684
50 CZ 128 -75.195
50 CZ 129 -73.242
50 CZ 130 -71.289
50 CZ 131 -69.336
50 CZ 132 -68.359
50 CZ 133 -66.895
50 CZ 134 -64.941
50 CZ 135 -61.035
50 CZ 136 -57.129
50 CZ 137 -53.223
50 CZ 138 -50.781
50 CZ 139 -50.781
50 CZ 140 -51.758
50 CZ 141 -51.758
50 CZ 142 -49.316
50 CZ 143 -44.434
50 CZ 144 -38.086
50 CZ 145 -32.227
50 CZ 146 -28.320
50 CZ 147 -26.855
50 CZ 148 -25.391
50 CZ 149 -22.949
50 CZ 150 -19.043
50 CZ 151 -15.137
50 CZ 152 -13.672
50 CZ 153 -14.648
50 CZ 154 -17.090
50 CZ 155 -19.531
50 CZ 156 -20.508
50 CZ 157 -19.043
50 CZ 158 -16.602
50 CZ 159 -14.648
50 CZ 160 -15.137
50 CZ 161 -17.578
50 CZ 162 -20.996
50 CZ 163 -23.926
50 CZ 164 -24.902
50 CZ 165 -23.926
50 CZ 166 -21.973
50 CZ 167 -20.508
50 CZ 168 -20.508
50 CZ 169 -20.996
50 CZ 170 -19.531
50 CZ 171 -17.578
50 CZ 172 -15.625
50 CZ 173 -15.625
50 CZ 174 -16.602
50 CZ 175 -17.578
50 CZ 176 -16.113
50 CZ 177 -12.695
50 CZ 178 -9.277
50 CZ 179 -8.301
50 CZ 180 -11.719
50 CZ 181 -17.578
50 CZ 182 -24.414
50 CZ 183 -29.297
50 CZ 184 -32.227
50 CZ 185 -33.691
50 CZ 186 -35.156
50 CZ 187 -37.109
50 CZ 188 -40.039
50 CZ 189 -42.969
50 CZ 190 -45.898
50 CZ 191 -46.875
50 CZ 192 -45.898
50 CZ 193 -43.945
50 CZ 194 -41.504
50 CZ 195 -39.551
50 CZ 196 -39.062
50 CZ 197 -39.062
50 CZ 198 -38.086
50 CZ 199 -35.156
50 CZ 200 -31.738
50 CZ 201 -28.320
50 CZ 202 -27.344
50 CZ 203 -28.809
50 CZ 204 -30.273
50 CZ 205 -31.738
50 CZ 206 -32.227
50 CZ 207 -33.203
50 CZ 208 -35.156
50 CZ 209 -38.574
50 CZ 210 -42.969
50 CZ 211 -45.898
50 CZ 212 -47.363
50 CZ 213 -47.363
50 CZ 214 -46.387
50 CZ 215 -46.875
50 CZ 216 -47.363
50 CZ 217 -47.852
50 CZ 218 -47.852
50 CZ 219 -46.387
50 CZ 220 -43.945
50 CZ 221 -41.504
50 CZ 222 -40.527
50 CZ 223 -41.504
50 CZ 224 -43.457
50 CZ 225 -45.410
50 CZ 226 -46.875
50 CZ 227 -47.363
50 CZ 228 -46.875
50 CZ 229 -46.387
50 CZ 230 -46.387
50 CZ 231 -45.410
50 CZ 232 -44.434
50 CZ 233 -42.480
50 CZ 234 -41.504
50 CZ 235 -41.992
50 CZ 236 -43.945
50 CZ 237 -45.898
50 CZ 238 -46.875
50 CZ 239 -45.898
50 CZ 240 -44.434
50 CZ 241 -42.969
50 CZ 242 -41.992
50 CZ 243 -41.504
50 CZ 244 -41.016
50 CZ 245 -41.016
50 CZ 246 -40.527
50 CZ 247 -39.551
50 CZ 248 -38.086
50 CZ 249 -35.156
50 CZ 250 -32.715
50 CZ 251 -30.273
50 CZ 252 -29.785
50 CZ 253 -30.273
50 CZ 254 -31.250
50 CZ 255 -31.250
# C3 chan 16
50 C3 0 -1.831
50 C3 1 -0.854
50 C3 2 1.099
50 C3 3 3.052
50 C3 4 4.517
50 C3 5 4.028
50 C3 6 3.052
50 C3 7 1.587
50 C3 8 1.099
50 C3 9 0.122
50 C3 10 0.122
50 C3 11 -0.366
50 C3 12 -0.854
50 C3 13 -2.319
50 C3 14 -2.808
50 C3 15 -3.296
50 C3 16 -3.784
50 C3 17 -3.296
50 C3 18 -2.319
50 C3 19 -1.343
50 C3 20 0.122
50 C3 21 1.099
50 C3 22 2.563
50 C3 23 3.052
50 C3 24 2.563
50 C3 25 2.075
50 C3 26 1.099
50 C3 27 0.122
50 C3 28 -0.854
50 C3 29 -1.831
50 C3 30 -3.296
50 C3 31 -4.761
50 C3 32 -5.737
50 C3 33 -5.249
50 C3 34 -4.272
50 C3 35 -3.296
50 C3 36 -2.808
50 C3 37 -2.808
50 C3 38 -3.296
50 C3 39 -3.296
50 C3 40 -3.296
50 C3 41 -2.808
50 C3 42 -2.319
50 C3 43 -1.831
50 C3 44 -1.343
50 C3 45 -0.366
50 C3 46 1.099
50 C3 47 3.540
50 C3 48 5.005
50 C3 49 5.005
50 C3 50 4.517
50 C3 51 2.075
50 C3 52 -0.366
50 C3 53 -2.319
50 C3 54 -2.808
50 C3 55 -2.808
50 C3 56 -1.831
50 C3 57 -0.854
50 C3 58 0.122
50 C3 59 0.122
50 C3 60 -1.343
50 C3 61 -2.808
50 C3 62 -4.272
50 C3 63 -4.272
50 C3 64 -2.808
50 C3 65 -0.366
50 C3 66 2.075
50 C3 67 4.517
50 C3 68 5.493
50 C3 69 5.493
50 C3 70 5.493
50 C3 71 4.517
50 C3 72 2.563
50 C3 73 1.099
50 C3 74 -0.854
50 C3 75 -1.343
50 C3 76 -1.343
50 C3 77 -1.343
50 C3 78 -2.319
50 C3 79 -3.784
50 C3 80 -5.737
50 C3 81 -7.202
50 C3 82 -8.179
50 C3 83 -8.179
50 C3 84 -7.690
50 C3 85 -6.714
50 C3 86 -5.249
50 C3 87 -3.784
50 C3 88 -2.319
50 C3 89 -1.343
50 C3 90 -1.343
50 C3 91 -1.831
50 C3 92 -2.319
50 C3 93 -2.319
50 C3 94 -2.319
50 C3 95 -2.319
50 C3 96 -3.296
50 C3 97 -5.737
50 C3 98 -8.667
50 C3 99 -11.597
50 C3 100 -11.597
50 C3 101 -10.620
50 C3 102 -8.179
50 C3 103 -5.737
50 C3 104 -3.784
50 C3 105 -3.296
50 C3 106 -3.296
50 C3 107 -4.272
50 C3 108 -5.737
50 C3 109 -6.226
50 C3 110 -5.737
50 C3 111 -4.272
50 C3 112 -2.808
50 C3 113 -2.808
50 C3 114 -3.296
50 C3 115 -5.737
50 C3 116 -8.667
50 C3 117 -10.620
50 C3 118 -11.108
50 C3 119 -10.620
50 C3 120 -9.155
50 C3 121 -7.202
50 C3 122 -5.249
50 C3 123 -3.296
50 C3 124 -1.831
50 C3 125 -1.343
50 C3 126 -1.343
50 C3 127 -2.319
50 C3 128 -2.319
50 C3 129 -1.343
50 C3 130 0.122
50 C3 131 1.099
50 C3 132 -0.366
50 C3 133 -2.319
50 C3 134 -4.761
50 C3 135 -5.737
50 C3 136 -5.249
50 C3 137 -4.761
50 C3 138 -4.761
50 C3 139 -6.226
50 C3 140 -8.179
50 C3 141 -9.155
50 C3 142 -8.667
50 C3 143 -7.202
50 C3 144 -5.737
50 C3 145 -5.737
50 C3 146 -6.226
50 C3 147 -7.202
50 C3 148 -7.202
50 C3 149 -6.714
50 C3 150 -7.202
50 C3 151 -7.690
50 C3 152 -8.667
50 C3 153 -8.667
50 C3 154 -8.179
50 C3 155 -7.202
50 C3 156 -6.714
50 C3 157 -6.226
50 C3 158 -6.714
50 C3 159 -6.714
50 C3 160 -5.737
50 C3 161 -3.784
50 C3 162 -2.319
50 C3 163 -1.343
50 C3 164 -0.854
50 C3 165 -1.343
50 C3 166 -1.831
50 C3 167 -2.808
50 C3 168 -3.296
50 C3 169 -4.272
50 C3 170 -4.272
50 C3 171 -4.272
50 C3 172 -2.808
50 C3 173 -2.319
50 C3 174 -1.831
50 C3 175 -2.319
50 C3 176 -2.808
50 C3 177 -3.784
50 C3 178 -4.272
50 C3 179 -4.272
50 C3 180 -5.249
50 C3 181 -5.737
50 C3 182 -5.737
50 C3 183 -5.249
50 C3 184 -4.272
50 C3 185 -3.296
50 C3 186 -2.808
50 C3 187 -3.296
50 C3 188 -3.296
50 C3 189 -4.272
50 C3 190 -4.272
50 C3 191 -4.272
50 C3 192 -3.784
50 C3 193 -3.784
50 C3 194 -3.296
50 C3 195 -3.296
50 C3 196 -3.296
50 C3 197 -4.272
50 C3 198 -5.737
50 C3 199 -7.202
50 C3 200 -8.667
50 C3 201 -9.155
50 C3 202 -9.155
50 C3 203 -8.667
50 C3 204 -9.155
50 C3 205 -10.132
50 C3 206 -11.108
50 C3 207 -11.597
50 C3 208 -11.108
50 C3 209 -9.155
50 C3 210 -7.690
50 C3 211 -5.737
50 C3 212 -4.761
50 C3 213 -2.808
50 C3 214 -1.831
50 C3 215 -0.854
50 C3 216 0.122
50 C3 217 0.122
50 C3 218 -0.366
50 C3 219 -1.831
50 C3 220 -2.808
50 C3 221 -3.784
50 C3 222 -4.761
50 C3 223 -6.226
50 C3 224 -7.202
50 C3 225 -9.155
50 C3 226 -10.620
50 C3 227 -11.597
50 C3 228 -11.597
50 C3 229 -10.620
50 C3 230 -9.644
50 C3 231 -8.667
50 C3 232 -7.690
50 C3 233 -7.202
50 C3 234 -7.202
50 C3 235 -7.202
50 C3 236 -7.202
50 C3 237 -7.690
50 C3 238 -8.179
50 C3 239 -7.690
50 C3 240 -6.714
50 C3 241 -4.761
50 C3 242 -3.296
50 C3 243 -3.296
50 C3 244 -4.272
50 C3 245 -6.714
50 C3 246 -9.155
50 C3 247 -10.620
50 C3 248 -11.108
50 C3 249 -9.644
50 C3 250 -8.667
50 C3 251 -8.179
50 C3 252 -8.667
50 C3 253 -10.132
50 C3 254 -10.620
50 C3 255 -10.132
# C4 chan 17
50 C4 0 -0.031
50 C4 1 2.411
50 C4 2 4.852
50 C4 3 8.270
50 C4 4 11.688
50 C4 5 15.106
50 C4 6 17.059
50 C4 7 16.571
50 C4 8 14.618
50 C4 9 11.688
50 C4 10 9.247
50 C4 11 7.294
50 C4 12 5.829
50 C4 13 4.364
50 C4 14 2.411
50 C4 15 -0.031
50 C4 16 -2.960
50 C4 17 -4.913
50 C4 18 -5.890
50 C4 19 -5.890
50 C4 20 -5.890
50 C4 21 -5.890
50 C4 22 -5.402
50 C4 23 -4.425
50 C4 24 -2.472
50 C4 25 0.458
50 C4 26 3.387
50 C4 27 5.829
50 C4 28 7.294
50 C4 29 6.805
50 C4 30 6.317
50 C4 31 4.852
50 C4 32 3.876
50 C4 33 3.387
50 C4 34 2.411
50 C4 35 1.923
50 C4 36 0.946
50 C4 37 -0.519
50 C4 38 -1.495
50 C4 39 -2.472
50 C4 40 -2.960
50 C4 41 -2.472
50 C4 42 -1.007
50 C4 43 0.946
50 C4 44 2.899
50 C4 45 4.364
50 C4 46 4.852
50 C4 47 5.829
50 C4 48 6.317
50 C4 49 6.805
50 C4 50 6.805
50 C4 51 5.829
50 C4 52 3.876
50 C4 53 1.434
50 C4 54 -0.519
50 C4 55 -1.984
50 C4 56 -2.472
50 C4 57 -2.960
50 C4 58 -3.937
50 C4 59 -5.402
50 C4 60 -6.378
50 C4 61 -6.378
50 C4 62 -5.402
50 C4 63 -3.448
50 C4 64 -1.495
50 C4 65 -0.519
50 C4 66 -0.519
50 C4 67 -1.007
50 C4 68 -1.984
50 C4 69 -1.984
50 C4 70 -1.495
50 C4 71 -1.007
50 C4 72 -1.007
50 C4 73 -1.495
50 C4 74 -2.472
50 C4 75 -2.960
50 C4 76 -3.937
50 C4 77 -5.402
50 C4 78 -6.378
50 C4 79 -6.866
50 C4 80 -6.866
50 C4 81 -7.355
50 C4 82 -8.331
50 C4 83 -10.284
50 C4 84 -12.238
50 C4 85 -13.214
50 C4 86 -13.214
50 C4 87 -11.749
50 C4 88 -9.796
50 C4 89 -7.843
50 C4 90 -6.378
50 C4 91 -4.913
50 C4 92 -4.425
50 C4 93 -3.937
50 C4 94 -2.960
50 C4 95 -2.472
50 C4 96 -1.495
50 C4 97 -0.519
50 C4 98 0.458
50 C4 99 0.458
50 C4 100 -0.519
50 C4 101 -1.495
50 C4 102 -2.472
50 C4 103 -1.984
50 C4 104 -0.519
50 C4 105 0.946
50 C4 106 0.946
50 C4 107 -1.007
50 C4 108 -4.425
50 C4 109 -7.843
50 C4 110 -9.308
50 C4 111 -8.820
50 C4 112 -6.866
50 C4 113 -4.913
50 C4 114 -3.937
50 C4 115 -3.937
50 C4 116 -4.913
50 C4 117 -5.402
50 C4 118 -4.913
50 C4 119 -3.937
50 C4 120 -2.960
50 C4 121 -2.472
50 C4 122 -2.960
50 C4 123 -3.937
50 C4 124 -5.890
50 C4 125 -8.331
50 C4 126 -11.261
50 C4 127 -14.679
50 C4 128 -16.144
50 C4 129 -16.144
50 C4 130 -12.726
50 C4 131 -8.331
50 C4 132 -4.913
50 C4 133 -2.960
50 C4 134 -2.472
50 C4 135 -2.472
50 C4 136 -1.984
50 C4 137 -0.519
50 C4 138 0.946
50 C4 139 0.458
50 C4 140 -1.007
50 C4 141 -3.448
50 C4 142 -5.402
50 C4 143 -5.402
50 C4 144 -4.425
50 C4 145 -2.472
50 C4 146 -1.007
50 C4 147 -1.007
50 C4 148 -1.495
50 C4 149 -1.984
50 C4 150 -2.960
50 C4 151 -3.448
50 C4 152 -3.937
50 C4 153 -4.425
50 C4 154 -5.402
50 C4 155 -5.890
50 C4 156 -5.890
50 C4 157 -5.402
50 C4 158 -3.937
50 C4 159 -3.937
50 C4 160 -4.425
50 C4 161 -4.913
50 C4 162 -5.890
50 C4 163 -6.866
50 C4 164 -6.866
50 C4 165 -6.866
50 C4 166 -6.866
50 C4 167 -6.378
50 C4 168 -5.402
50 C4 169 -4.913
50 C4 170 -4.425
50 C4 171 -4.425
50 C4 172 -4.913
50 C4 173 -5.402
50 C4 174 -5.890
50 C4 175 -5.890
50 C4 176 -5.402
50 C4 177 -4.425
50 C4 178 -3.937
50 C4 179 -3.448
50 C4 180 -3.937
50 C4 181 -4.425
50 C4 182 -5.890
50 C4 183 -6.866
50 C4 184 -8.331
50 C4 185 -8.820
50 C4 186 -8.331
50 C4 187 -8.331
50 C4 188 -8.820
50 C4 189 -9.796
50 C4 190 -11.749
50 C4 191 -13.214
50 C4 192 -13.702
50 C4 193 -13.214
50 C4 194 -12.238
50 C4 195 -11.261
50 C4 196 -10.773
50 C4 197 -10.773
50 C4 198 -9.796
50 C4 199 -8.331
50 C4 200 -5.890
50 C4 201 -2.960
50 C4 202 -1.007
50 C4 203 -0.519
50 C4 204 -0.031
50 C4 205 0.458
50 C4 206 1.434
50 C4 207 1.923
50 C4 208 0.946
50 C4 209 -1.007
50 C4 210 -3.937
50 C4 211 -5.890
50 C4 212 -6.378
50 C4 213 -6.378
50 C4 214 -6.378
50 C4 215 -7.843
50 C4 216 -9.308
50 C4 217 -10.773
50 C4 218 -11.261
50 C4 219 -10.773
50 C4 220 -9.308
50 C4 221 -7.355
50 C4 222 -6.378
50 C4 223 -5.890
50 C4 224 -5.402
50 C4 225 -4.913
50 C4 226 -4.913
50 C4 227 -4.913
50 C4 228 -5.890
50 C4 229 -6.378
50 C4 230 -7.843
50 C4 231 -8.820
50 C4 232 -8.820
50 C4 233 -9.308
50 C4 234 -9.796
50 C4 235 -10.284
50 C4 236 -9.796
50 C4 237 -9.308
50 C4 238 -7.843
50 C4 239 -5.890
50 C4 240 -3.448
50 C4 241 -1.984
50 C4 242 -1.007
50 C4 243 -0.519
50 C4 244 0.458
50 C4 245 1.434
50 C4 246 3.387
50 C4 247 4.364
50 C4 248 5.341
50 C4 249 4.852
50 C4 250 2.411
50 C4 251 -0.519
50 C4 252 -3.448
50 C4 253 -4.913
50 C4 254 -4.913
50 C4 255 -4.913
# CP5 chan 18
50 CP5 0 4.140
50 CP5 1 6.093
50 CP5 2 8.535
50 CP5 3 10.000
50 CP5 4 9.511
50 CP5 5 8.046
50 CP5 6 6.093
50 CP5 7 4.628
50 CP5 8 3.652
50 CP5 9 3.652
50 CP5 10 4.140
50 CP5 11 3.652
50 CP5 12 3.652
50 CP5 13 3.652
50 CP5 14 2.675
50 CP5 15 2.675
50 CP5 16 2.675
50 CP5 17 3.652
50 CP5 18 4.628
50 CP5 19 5.605
50 CP5 20 6.582
50 CP5 21 7.558
50 CP5 22 7.558
50 CP5 23 7.558
50 CP5 24 6.582
50 CP5 25 6.093
50 CP5 26 5.605
50 CP5 27 4.628
50 CP5 28 3.652
50 CP5 29 2.187
50 CP5 30 0.722
50 CP5 31 -0.254
50 CP5 32 0.234
50 CP5 33 1.211
50 CP5 34 3.164
50 CP5 35 4.628
50 CP5 36 5.117
50 CP5 37 4.140
50 CP5 38 3.164
50 CP5 39 2.675
50 CP5 40 3.164
50 CP5 41 4.140
50 CP5 42 5.605
50 CP5 43 7.070
50 CP5 44 8.535
50 CP5 45 10.488
50 CP5 46 12.441
50 CP5 47 14.394
50 CP5 48 15.371
50 CP5 49 13.906
50 CP5 50 11.464
50 CP5 51 9.023
50 CP5 52 7.070
50 CP5 53 6.093
50 CP5 54 6.582
50 CP5 55 7.070
50 CP5 56 7.070
50 CP5 57 7.070
50 CP5 58 5.605
50 CP5 59 4.628
50 CP5 60 3.164
50 CP5 61 2.675
50 CP5 62 3.652
50 CP5 63 5.605
50 CP5 64 9.023
50 CP5 65 12.441
50 CP5 66 14.394
50 CP5 67 15.371
50 CP5 68 14.882
50 CP5 69 13.906
50 CP5 70 12.929
50 CP5 71 11.464
50 CP5 72 10.000
50 CP5 73 8.535
50 CP5 74 6.582
50 CP5 75 5.117
50 CP5 76 4.140
50 CP5 77 2.675
50 CP5 78 1.211
50 CP5 79 -0.743
50 CP5 80 -2.696
50 CP5 81 -4.161
50 CP5 82 -5.625
50 CP5 83 -6.114
50 CP5 84 -5.625
50 CP5 85 -3.672
50 CP5 86 -0.743
50 CP5 87 2.187
50 CP5 88 4.628
50 CP5 89 5.605
50 CP5 90 5.605
50 CP5 91 5.117
50 CP5 92 4.628
50 CP5 93 5.117
50 CP5 94 4.628
50 CP5 95 4.140
50 CP5 96 2.187
50 CP5 97 -0.254
50 CP5 98 -3.184
50 CP5 99 -4.649
50 CP5 100 -4.649
50 CP5 101 -2.696
50 CP5 102 -0.254
50 CP5 103 2.675
50 CP5 104 4.628
50 CP5 105 5.605
50 CP5 106 5.605
50 CP5 107 4.140
50 CP5 108 3.164
50 CP5 109 1.699
50 CP5 110 1.699
50 CP5 111 2.187
50 CP5 112 2.675
50 CP5 113 2.187
50 CP5 114 0.234
50 CP5 115 -3.184
50 CP5 116 -7.090
50 CP5 117 -9.532
50 CP5 118 -9.532
50 CP5 119 -8.067
50 CP5 120 -4.649
50 CP5 121 -1.719
50 CP5 122 -0.254
50 CP5 123 -0.254
50 CP5 124 -1.231
50 CP5 125 -1.719
50 CP5 126 -2.207
50 CP5 127 -0.743
50 CP5 128 1.699
50 CP5 129 4.140
50 CP5 130 5.117
50 CP5 131 4.628
50 CP5 132 1.699
50 CP5 133 -1.719
50 CP5 134 -4.161
50 CP5 135 -4.649
50 CP5 136 -3.184
50 CP5 137 -0.743
50 CP5 138 0.722
50 CP5 139 0.234
50 CP5 140 -1.719
50 CP5 141 -3.184
50 CP5 142 -3.672
50 CP5 143 -2.207
50 CP5 144 0.234
50 CP5 145 2.675
50 CP5 146 5.117
50 CP5 147 6.093
50 CP5 148 5.605
50 CP5 149 4.140
50 CP5 150 1.699
50 CP5 151 -0.254
50 CP5 152 -1.719
50 CP5 153 -1.719
50 CP5 154 -0.254
50 CP5 155 0.722
50 CP5 156 1.211
50 CP5 157 0.722
50 CP5 158 -0.254
50 CP5 159 -1.231
50 CP5 160 -1.231
50 CP5 161 -0.743
50 CP5 162 0.234
50 CP5 163 1.211
50 CP5 164 1.699
50 CP5 165 1.211
50 CP5 166 1.211
50 CP5 167 0.234
50 CP5 168 -0.254
50 CP5 169 -0.254
50 CP5 170 0.722
50 CP5 171 2.187
50 CP5 172 3.652
50 CP5 173 4.140
50 CP5 174 3.164
50 CP5 175 0.722
50 CP5 176 -1.231
50 CP5 177 -2.207
50 CP5 178 -2.207
50 CP5 179 -2.207
50 CP5 180 -3.672
50 CP5 181 -6.602
50 CP5 182 -8.555
50 CP5 183 -10.020
50 CP5 184 -9.043
50 CP5 185 -7.090
50 CP5 186 -4.649
50 CP5 187 -2.696
50 CP5 188 -1.231
50 CP5 189 0.722
50 CP5 190 3.164
50 CP5 191 5.117
50 CP5 192 6.093
50 CP5 193 5.117
50 CP5 194 3.652
50 CP5 195 1.699
50 CP5 196 1.211
50 CP5 197 1.699
50 CP5 198 2.187
50 CP5 199 3.164
50 CP5 200 3.164
50 CP5 201 3.164
50 CP5 202 2.675
50 CP5 203 1.699
50 CP5 204 0.722
50 CP5 205 -0.743
50 CP5 206 -1.719
50 CP5 207 -2.696
50 CP5 208 -3.672
50 CP5 209 -3.672
50 CP5 210 -4.161
50 CP5 211 -3.184
50 CP5 212 -1.719
50 CP5 213 0.722
50 CP5 214 3.652
50 CP5 215 6.582
50 CP5 216 9.023
50 CP5 217 10.976
50 CP5 218 11.953
50 CP5 219 12.441
50 CP5 220 11.953
50 CP5 221 11.464
50 CP5 222 9.511
50 CP5 223 7.558
50 CP5 224 4.628
50 CP5 225 1.699
50 CP5 226 -0.254
50 CP5 227 -1.719
50 CP5 228 -2.207
50 CP5 229 -2.696
50 CP5 230 -3.672
50 CP5 231 -4.161
50 CP5 232 -4.161
50 CP5 233 -4.161
50 CP5 234 -3.184
50 CP5 235 -2.696
50 CP5 236 -3.672
50 CP5 237 -4.649
50 CP5 238 -5.137
50 CP5 239 -4.161
50 CP5 240 -1.231
50 CP5 241 1.699
50 CP5 242 4.140
50 CP5 243 3.164
50 CP5 244 0.234
50 CP5 245 -3.672
50 CP5 246 -6.114
50 CP5 247 -6.602
50 CP5 248 -5.625
50 CP5 249 -4.649
50 CP5 250 -4.649
50 CP5 251 -5.625
50 CP5 252 -6.602
50 CP5 253 -6.602
50 CP5 254 -5.137
50 CP5 255 -3.184
# CP6 chan 19
50 CP6 0 -5.524
50 CP6 1 -0.153
50 CP6 2 5.707
50 CP6 3 11.078
50 CP6 4 15.961
50 CP6 5 18.890
50 CP6 6 20.355
50 CP6 7 20.355
50 CP6 8 18.890
50 CP6 9 16.449
50 CP6 10 14.496
50 CP6 11 12.543
50 CP6 12 10.590
50 CP6 13 8.636
50 CP6 14 6.195
50 CP6 15 4.242
50 CP6 16 2.777
50 CP6 17 2.289
50 CP6 18 1.801
50 CP6 19 1.801
50 CP6 20 1.312
50 CP6 21 0.824
50 CP6 22 0.824
50 CP6 23 1.312
50 CP6 24 3.265
50 CP6 25 6.195
50 CP6 26 9.125
50 CP6 27 11.566
50 CP6 28 12.054
50 CP6 29 11.078
50 CP6 30 8.636
50 CP6 31 6.683
50 CP6 32 4.730
50 CP6 33 3.265
50 CP6 34 1.801
50 CP6 35 0.336
50 CP6 36 -0.641
50 CP6 37 -1.129
50 CP6 38 -0.641
50 CP6 39 0.336
50 CP6 40 1.312
50 CP6 41 1.801
50 CP6 42 2.289
50 CP6 43 2.777
50 CP6 44 4.242
50 CP6 45 5.707
50 CP6 46 7.172
50 CP6 47 8.636
50 CP6 48 9.613
50 CP6 49 10.101
50 CP6 50 10.101
50 CP6 51 9.613
50 CP6 52 8.148
50 CP6 53 7.660
50 CP6 54 6.195
50 CP6 55 4.730
50 CP6 56 2.289
50 CP6 57 -1.129
50 CP6 58 -5.035
50 CP6 59 -8.942
50 CP6 60 -10.406
50 CP6 61 -9.430
50 CP6 62 -6.012
50 CP6 63 -1.129
50 CP6 64 3.265
50 CP6 65 6.683
50 CP6 66 8.636
50 CP6 67 9.613
50 CP6 68 10.590
50 CP6 69 10.590
50 CP6 70 10.590
50 CP6 71 10.590
50 CP6 72 10.590
50 CP6 73 10.101
50 CP6 74 9.125
50 CP6 75 8.148
50 CP6 76 6.195
50 CP6 77 2.777
50 CP6 78 -1.129
50 CP6 79 -5.524
50 CP6 80 -8.942
50 CP6 81 -11.871
50 CP6 82 -13.824
50 CP6 83 -14.313
50 CP6 84 -14.313
50 CP6 85 -12.848
50 CP6 86 -10.895
50 CP6 87 -7.477
50 CP6 88 -3.571
50 CP6 89 -0.641
50 CP6 90 1.312
50 CP6 91 2.777
50 CP6 92 3.265
50 CP6 93 5.219
50 CP6 94 7.660
50 CP6 95 10.101
50 CP6 96 11.078
50 CP6 97 10.101
50 CP6 98 7.660
50 CP6 99 5.219
50 CP6 100 2.777
50 CP6 101 1.312
50 CP6 102 0.336
50 CP6 103 -0.153
50 CP6 104 0.336
50 CP6 105 1.312
50 CP6 106 2.777
50 CP6 107 2.777
50 CP6 108 1.312
50 CP6 109 -2.594
50 CP6 110 -6.500
50 CP6 111 -8.942
50 CP6 112 -8.942
50 CP6 113 -6.500
50 CP6 114 -4.547
50 CP6 115 -3.571
50 CP6 116 -4.059
50 CP6 117 -6.012
50 CP6 118 -7.965
50 CP6 119 -9.430
50 CP6 120 -9.430
50 CP6 121 -9.430
50 CP6 122 -10.406
50 CP6 123 -11.871
50 CP6 124 -13.824
50 CP6 125 -15.778
50 CP6 126 -17.731
50 CP6 127 -18.707
50 CP6 128 -19.196
50 CP6 129 -19.196
50 CP6 130 -17.731
50 CP6 131 -15.778
50 CP6 132 -14.801
50 CP6 133 -14.313
50 CP6 134 -13.336
50 CP6 135 -12.360
50 CP6 136 -9.430
50 CP6 137 -6.012
50 CP6 138 -3.571
50 CP6 139 -4.059
50 CP6 140 -6.500
50 CP6 141 -9.918
50 CP6 142 -12.360
50 CP6 143 -12.360
50 CP6 144 -10.895
50 CP6 145 -8.453
50 CP6 146 -6.500
50 CP6 147 -5.524
50 CP6 148 -5.524
50 CP6 149 -5.035
50 CP6 150 -3.082
50 CP6 151 -0.641
50 CP6 152 1.312
50 CP6 153 2.289
50 CP6 154 2.777
50 CP6 155 2.777
50 CP6 156 3.265
50 CP6 157 4.242
50 CP6 158 4.730
50 CP6 159 4.242
50 CP6 160 3.265
50 CP6 161 2.289
50 CP6 162 1.801
50 CP6 163 1.312
50 CP6 164 0.824
50 CP6 165 -0.153
50 CP6 166 -2.106
50 CP6 167 -3.082
50 CP6 168 -3.571
50 CP6 169 -3.571
50 CP6 170 -3.082
50 CP6 171 -2.594
50 CP6 172 -3.082
50 CP6 173 -3.571
50 CP6 174 -4.059
50 CP6 175 -4.059
50 CP6 176 -3.082
50 CP6 177 -2.106
50 CP6 178 -1.129
50 CP6 179 -0.641
50 CP6 180 -1.129
50 CP6 181 -1.129
50 CP6 182 -0.641
50 CP6 183 -1.129
50 CP6 184 -2.106
50 CP6 185 -3.571
50 CP6 186 -4.547
50 CP6 187 -6.012
50 CP6 188 -6.989
50 CP6 189 -7.965
50 CP6 190 -9.918
50 CP6 191 -12.360
50 CP6 192 -14.313
50 CP6 193 -15.289
50 CP6 194 -14.801
50 CP6 195 -13.824
50 CP6 196 -12.360
50 CP6 197 -10.406
50 CP6 198 -8.942
50 CP6 199 -6.989
50 CP6 200 -5.524
50 CP6 201 -5.035
50 CP6 202 -6.012
50 CP6 203 -7.477
50 CP6 204 -7.965
50 CP6 205 -7.477
50 CP6 206 -5.524
50 CP6 207 -3.571
50 CP6 208 -3.082
50 CP6 209 -4.547
50 CP6 210 -7.965
50 CP6 211 -11.383
50 CP6 212 -13.336
50 CP6 213 -14.313
50 CP6 214 -15.289
50 CP6 215 -16.754
50 CP6 216 -18.707
50 CP6 217 -19.684
50 CP6 218 -19.196
50 CP6 219 -15.778
50 CP6 220 -11.383
50 CP6 221 -6.989
50 CP6 222 -3.571
50 CP6 223 -1.129
50 CP6 224 -0.153
50 CP6 225 -0.153
50 CP6 226 -1.129
50 CP6 227 -3.082
50 CP6 228 -6.012
50 CP6 229 -8.453
50 CP6 230 -10.406
50 CP6 231 -11.871
50 CP6 232 -13.336
50 CP6 233 -15.778
50 CP6 234 -19.196
50 CP6 235 -23.590
50 CP6 236 -26.031
50 CP6 237 -26.520
50 CP6 238 -24.567
50 CP6 239 -21.149
50 CP6 240 -18.219
50 CP6 241 -16.266
50 CP6 242 -16.266
50 CP6 243 -17.242
50 CP6 244 -17.731
50 CP6 245 -16.266
50 CP6 246 -12.848
50 CP6 247 -8.453
50 CP6 248 -5.524
50 CP6 249 -5.524
50 CP6 250 -9.430
50 CP6 251 -15.289
50 CP6 252 -21.637
50 CP6 253 -25.055
50 CP6 254 -25.055
50 CP6 255 -22.125
# CP1 chan 20
50 CP1 0 0.946
50 CP1 1 0.458
50 CP1 2 0.458
50 CP1 3 -0.031
50 CP1 4 -0.031
50 CP1 5 0.458
50 CP1 6 0.458
50 CP1 7 0.946
50 CP1 8 1.434
50 CP1 9 0.946
50 CP1 10 -0.031
50 CP1 11 -0.519
50 CP1 12 -1.007
50 CP1 13 -0.519
50 CP1 14 -1.007
50 CP1 15 -1.984
50 CP1 16 -3.448
50 CP1 17 -4.425
50 CP1 18 -4.425
50 CP1 19 -2.960
50 CP1 20 -1.495
50 CP1 21 -0.519
50 CP1 22 -1.495
50 CP1 23 -2.472
50 CP1 24 -3.448
50 CP1 25 -3.448
50 CP1 26 -2.960
50 CP1 27 -1.984
50 CP1 28 -1.984
50 CP1 29 -2.472
50 CP1 30 -2.472
50 CP1 31 -2.472
50 CP1 32 -1.495
50 CP1 33 -0.031
50 CP1 34 1.434
50 CP1 35 2.411
50 CP1 36 2.411
50 CP1 37 0.946
50 CP1 38 -1.495
50 CP1 39 -3.448
50 CP1 40 -4.425
50 CP1 41 -4.425
50 CP1 42 -3.937
50 CP1 43 -3.448
50 CP1 44 -3.937
50 CP1 45 -3.937
50 CP1 46 -4.425
50 CP1 47 -3.937
50 CP1 48 -3.937
50 CP1 49 -4.425
50 CP1 50 -4.913
50 CP1 51 -5.402
50 CP1 52 -5.890
50 CP1 53 -5.402
50 CP1 54 -4.425
50 CP1 55 -3.937
50 CP1 56 -4.425
50 CP1 57 -4.913
50 CP1 58 -4.913
50 CP1 59 -4.913
50 CP1 60 -4.425
50 CP1 61 -3.448
50 CP1 62 -1.495
50 CP1 63 0.458
50 CP1 64 1.923
50 CP1 65 2.899
50 CP1 66 3.387
50 CP1 67 2.411
50 CP1 68 0.946
50 CP1 69 -0.519
50 CP1 70 -0.519
50 CP1 71 0.458
50 CP1 72 2.411
50 CP1 73 3.387
50 CP1 74 3.387
50 CP1 75 2.899
50 CP1 76 2.411
50 CP1 77 1.923
50 CP1 78 2.411
50 CP1 79 3.387
50 CP1 80 3.876
50 CP1 81 3.876
50 CP1 82 3.387
50 CP1 83 2.899
50 CP1 84 2.411
50 CP1 85 1.923
50 CP1 86 1.923
50 CP1 87 2.411
50 CP1 88 3.876
50 CP1 89 4.852
50 CP1 90 5.829
50 CP1 91 6.805
50 CP1 92 6.805
50 CP1 93 6.317
50 CP1 94 5.829
50 CP1 95 6.317
50 CP1 96 6.805
50 CP1 97 7.782
50 CP1 98 7.782
50 CP1 99 7.294
50 CP1 100 6.317
50 CP1 101 5.341
50 CP1 102 5.341
50 CP1 103 6.317
50 CP1 104 6.805
50 CP1 105 6.805
50 CP1 106 5.341
50 CP1 107 3.387
50 CP1 108 1.434
50 CP1 109 0.458
50 CP1 110 0.458
50 CP1 111 1.434
50 CP1 112 2.411
50 CP1 113 2.899
50 CP1 114 2.899
50 CP1 115 2.899
50 CP1 116 2.899
50 CP1 117 2.411
50 CP1 118 1.434
50 CP1 119 1.434
50 CP1 120 1.923
50 CP1 121 2.411
50 CP1 122 3.876
50 CP1 123 5.341
50 CP1 124 6.317
50 CP1 125 6.317
50 CP1 126 5.829
50 CP1 127 4.852
50 CP1 128 3.876
50 CP1 129 2.411
50 CP1 130 2.411
50 CP1 131 1.923
50 CP1 132 0.458
50 CP1 133 -1.007
50 CP1 134 -3.448
50 CP1 135 -5.402
50 CP1 136 -5.890
50 CP1 137 -4.913
50 CP1 138 -2.472
50 CP1 139 -0.031
50 CP1 140 0.946
50 CP1 141 1.434
50 CP1 142 0.458
50 CP1 143 -0.031
50 CP1 144 -0.031
50 CP1 145 0.946
50 CP1 146 2.899
50 CP1 147 3.876
50 CP1 148 4.364
50 CP1 149 4.364
50 CP1 150 2.899
50 CP1 151 1.923
50 CP1 152 0.458
50 CP1 153 0.458
50 CP1 154 0.946
50 CP1 155 1.434
50 CP1 156 2.411
50 CP1 157 2.411
50 CP1 158 1.923
50 CP1 159 1.434
50 CP1 160 0.946
50 CP1 161 1.434
50 CP1 162 1.434
50 CP1 163 1.923
50 CP1 164 2.899
50 CP1 165 3.876
50 CP1 166 4.364
50 CP1 167 4.364
50 CP1 168 3.876
50 CP1 169 3.387
50 CP1 170 2.899
50 CP1 171 2.899
50 CP1 172 2.899
50 CP1 173 2.411
50 CP1 174 1.434
50 CP1 175 -0.519
50 CP1 176 -1.007
50 CP1 177 -1.007
50 CP1 178 -0.031
50 CP1 179 1.434
50 CP1 180 1.923
50 CP1 181 1.923
50 CP1 182 1.434
50 CP1 183 1.434
50 CP1 184 1.923
50 CP1 185 1.923
50 CP1 186 1.923
50 CP1 187 1.434
50 CP1 188 0.946
50 CP1 189 0.946
50 CP1 190 2.411
50 CP1 191 4.852
50 CP1 192 7.782
50 CP1 193 10.712
50 CP1 194 12.177
50 CP1 195 12.665
50 CP1 196 11.200
50 CP1 197 9.247
50 CP1 198 7.294
50 CP1 199 6.805
50 CP1 200 7.294
50 CP1 201 8.270
50 CP1 202 9.247
50 CP1 203 9.247
50 CP1 204 9.247
50 CP1 205 8.759
50 CP1 206 7.782
50 CP1 207 6.805
50 CP1 208 5.341
50 CP1 209 4.364
50 CP1 210 3.876
50 CP1 211 4.364
50 CP1 212 5.341
50 CP1 213 6.317
50 CP1 214 7.294
50 CP1 215 7.294
50 CP1 216 7.294
50 CP1 217 7.294
50 CP1 218 8.270
50 CP1 219 9.247
50 CP1 220 9.735
50 CP1 221 9.735
50 CP1 222 9.247
50 CP1 223 8.270
50 CP1 224 7.294
50 CP1 225 6.317
50 CP1 226 5.829
50 CP1 227 5.341
50 CP1 228 5.341
50 CP1 229 5.341
50 CP1 230 5.829
50 CP1 231 5.341
50 CP1 232 4.852
50 CP1 233 4.852
50 CP1 234 5.341
50 CP1 235 6.317
50 CP1 236 8.270
50 CP1 237 9.247
50 CP1 238 9.735
50 CP1 239 9.247
50 CP1 240 9.735
50 CP1 241 10.712
50 CP1 242 12.177
50 CP1 243 13.641
50 CP1 244 14.130
50 CP1 245 13.641
50 CP1 246 12.665
50 CP1 247 11.200
50 CP1 248 10.223
50 CP1 249 9.247
50 CP1 250 7.782
50 CP1 251 6.805
50 CP1 252 6.805
50 CP1 253 8.270
50 CP1 254 9.735
50 CP1 255 10.712
# CP2 chan 21
50 CP2 0 -0.346
50 CP2 1 -0.834
50 CP2 2 0.631
50 CP2 3 3.560
50 CP2 4 6.978
50 CP2 5 9.420
50 CP2 6 10.885
50 CP2 7 10.396
50 CP2 8 9.420
50 CP2 9 7.955
50 CP2 10 6.978
50 CP2 11 6.002
50 CP2 12 5.514
50 CP2 13 5.025
50 CP2 14 4.537
50 CP2 15 4.049
50 CP2 16 3.560
50 CP2 17 2.584
50 CP2 18 1.607
50 CP2 19 1.119
50 CP2 20 0.631
50 CP2 21 0.631
50 CP2 22 1.119
50 CP2 23 2.096
50 CP2 24 3.072
50 CP2 25 4.537
50 CP2 26 6.002
50 CP2 27 7.955
50 CP2 28 9.908
50 CP2 29 10.885
50 CP2 30 11.373
50 CP2 31 11.373
50 CP2 32 10.885
50 CP2 33 10.396
50 CP2 34 9.420
50 CP2 35 8.931
50 CP2 36 7.467
50 CP2 37 6.002
50 CP2 38 4.537
50 CP2 39 3.072
50 CP2 40 2.584
50 CP2 41 2.584
50 CP2 42 2.584
50 CP2 43 2.096
50 CP2 44 1.119
50 CP2 45 0.142
50 CP2 46 -0.346
50 CP2 47 1.119
50 CP2 48 3.560
50 CP2 49 5.514
50 CP2 50 6.490
50 CP2 51 6.002
50 CP2 52 5.025
50 CP2 53 4.049
50 CP2 54 3.560
50 CP2 55 4.049
50 CP2 56 4.537
50 CP2 57 4.537
50 CP2 58 4.049
50 CP2 59 3.560
50 CP2 60 3.560
50 CP2 61 4.049
50 CP2 62 5.025
50 CP2 63 6.490
50 CP2 64 6.490
50 CP2 65 6.978
50 CP2 66 7.467
50 CP2 67 7.955
50 CP2 68 7.955
50 CP2 69 7.467
50 CP2 70 7.467
50 CP2 71 7.467
50 CP2 72 7.955
50 CP2 73 8.931
50 CP2 74 8.931
50 CP2 75 8.443
50 CP2 76 6.978
50 CP2 77 6.002
50 CP2 78 5.514
50 CP2 79 5.514
50 CP2 80 5.514
50 CP2 81 4.537
50 CP2 82 2.584
50 CP2 83 0.142
50 CP2 84 -1.322
50 CP2 85 -0.834
50 CP2 86 0.631
50 CP2 87 2.584
50 CP2 88 4.049
50 CP2 89 5.025
50 CP2 90 5.025
50 CP2 91 5.514
50 CP2 92 5.514
50 CP2 93 6.002
50 CP2 94 6.490
50 CP2 95 6.490
50 CP2 96 6.978
50 CP2 97 6.978
50 CP2 98 7.467
50 CP2 99 7.467
50 CP2 100 6.978
50 CP2 101 6.978
50 CP2 102 6.490
50 CP2 103 6.490
50 CP2 104 6.002
50 CP2 105 6.002
50 CP2 106 5.025
50 CP2 107 4.537
50 CP2 108 4.049
50 CP2 109 3.072
50 CP2 110 2.584
50 CP2 111 2.096
50 CP2 112 2.096
50 CP2 113 3.072
50 CP2 114 3.560
50 CP2 115 4.049
50 CP2 116 4.049
50 CP2 117 3.072
50 CP2 118 3.560
50 CP2 119 4.537
50 CP2 120 6.490
50 CP2 121 7.955
50 CP2 122 8.931
50 CP2 123 8.931
50 CP2 124 7.955
50 CP2 125 6.490
50 CP2 126 4.537
50 CP2 127 3.072
50 CP2 128 2.096
50 CP2 129 1.607
50 CP2 130 3.072
50 CP2 131 5.514
50 CP2 132 7.467
50 CP2 133 6.978
50 CP2 134 5.514
50 CP2 135 4.049
50 CP2 136 3.072
50 CP2 137 4.049
50 CP2 138 5.514
50 CP2 139 6.002
50 CP2 140 5.514
50 CP2 141 4.537
50 CP2 142 4.049
50 CP2 143 4.049
50 CP2 144 5.025
50 CP2 145 6.002
50 CP2 146 6.002
50 CP2 147 6.002
50 CP2 148 6.002
50 CP2 149 6.002
50 CP2 150 6.002
50 CP2 151 5.514
50 CP2 152 5.025
50 CP2 153 5.025
50 CP2 154 5.025
50 CP2 155 5.025
50 CP2 156 5.514
50 CP2 157 5.514
50 CP2 158 6.002
50 CP2 159 6.002
50 CP2 160 6.978
50 CP2 161 7.955
50 CP2 162 8.443
50 CP2 163 7.955
50 CP2 164 7.467
50 CP2 165 6.490
50 CP2 166 6.978
50 CP2 167 8.443
50 CP2 168 9.908
50 CP2 169 10.396
50 CP2 170 9.908
50 CP2 171 8.443
50 CP2 172 7.955
50 CP2 173 7.955
50 CP2 174 8.931
50 CP2 175 9.420
50 CP2 176 9.420
50 CP2 177 9.908
50 CP2 178 10.396
50 CP2 179 10.885
50 CP2 180 10.885
50 CP2 181 10.396
50 CP2 182 9.420
50 CP2 183 8.443
50 CP2 184 7.467
50 CP2 185 7.467
50 CP2 186 7.955
50 CP2 187 8.443
50 CP2 188 8.443
50 CP2 189 8.443
50 CP2 190 7.467
50 CP2 191 6.978
50 CP2 192 6.978
50 CP2 193 6.978
50 CP2 194 6.978
50 CP2 195 7.467
50 CP2 196 8.443
50 CP2 197 9.420
50 CP2 198 10.885
50 CP2 199 12.349
50 CP2 200 13.326
50 CP2 201 14.791
50 CP2 202 15.767
50 CP2 203 16.256
50 CP2 204 15.767
50 CP2 205 13.814
50 CP2 206 11.861
50 CP2 207 9.908
50 CP2 208 8.931
50 CP2 209 8.931
50 CP2 210 8.931
50 CP2 211 8.931
50 CP2 212 8.931
50 CP2 213 7.955
50 CP2 214 7.955
50 CP2 215 8.443
50 CP2 216 8.931
50 CP2 217 9.420
50 CP2 218 10.396
50 CP2 219 11.861
50 CP2 220 13.326
50 CP2 221 15.279
50 CP2 222 16.744
50 CP2 223 17.232
50 CP2 224 17.232
50 CP2 225 16.744
50 CP2 226 15.767
50 CP2 227 14.303
50 CP2 228 13.326
50 CP2 229 12.349
50 CP2 230 11.861
50 CP2 231 11.861
50 CP2 232 11.373
50 CP2 233 10.885
50 CP2 234 10.396
50 CP2 235 9.908
50 CP2 236 9.908
50 CP2 237 10.885
50 CP2 238 12.349
50 CP2 239 13.814
50 CP2 240 13.814
50 CP2 241 13.814
50 CP2 242 13.326
50 CP2 243 12.838
50 CP2 244 13.814
50 CP2 245 14.791
50 CP2 246 17.232
50 CP2 247 19.674
50 CP2 248 21.139
50 CP2 249 21.627
50 CP2 250 20.650
50 CP2 251 19.185
50 CP2 252 17.232
50 CP2 253 15.767
50 CP2 254 14.791
50 CP2 255 14.303
# P3 chan 22
50 P3 0 3.103
50 P3 1 4.567
50 P3 2 6.032
50 P3 3 7.497
50 P3 4 7.985
50 P3 5 7.497
50 P3 6 6.032
50 P3 7 4.567
50 P3 8 3.591
50 P3 9 3.591
50 P3 10 3.591
50 P3 11 4.079
50 P3 12 4.079
50 P3 13 4.079
50 P3 14 3.591
50 P3 15 3.591
50 P3 16 3.103
50 P3 17 3.103
50 P3 18 3.591
50 P3 19 3.591
50 P3 20 3.591
50 P3 21 4.079
50 P3 22 5.056
50 P3 23 5.544
50 P3 24 5.544
50 P3 25 5.056
50 P3 26 4.567
50 P3 27 4.079
50 P3 28 3.103
50 P3 29 2.126
50 P3 30 1.638
50 P3 31 1.638
50 P3 32 2.126
50 P3 33 3.591
50 P3 34 4.567
50 P3 35 5.056
50 P3 36 4.079
50 P3 37 2.614
50 P3 38 1.638
50 P3 39 1.638
50 P3 40 2.614
50 P3 41 3.591
50 P3 42 4.079
50 P3 43 4.079
50 P3 44 4.079
50 P3 45 5.056
50 P3 46 6.521
50 P3 47 8.474
50 P3 48 9.450
50 P3 49 8.962
50 P3 50 7.009
50 P3 51 3.591
50 P3 52 1.638
50 P3 53 1.149
50 P3 54 1.149
50 P3 55 1.638
50 P3 56 2.126
50 P3 57 2.126
50 P3 58 1.638
50 P3 59 1.149
50 P3 60 1.149
50 P3 61 2.614
50 P3 62 5.056
50 P3 63 8.474
50 P3 64 11.403
50 P3 65 14.333
50 P3 66 15.310
50 P3 67 14.821
50 P3 68 14.333
50 P3 69 12.868
50 P3 70 11.403
50 P3 71 10.427
50 P3 72 8.962
50 P3 73 7.497
50 P3 74 7.009
50 P3 75 6.521
50 P3 76 6.032
50 P3 77 5.544
50 P3 78 4.567
50 P3 79 3.103
50 P3 80 1.149
50 P3 81 -0.315
50 P3 82 -2.268
50 P3 83 -3.245
50 P3 84 -2.757
50 P3 85 -1.292
50 P3 86 1.149
50 P3 87 4.079
50 P3 88 6.032
50 P3 89 6.521
50 P3 90 7.009
50 P3 91 6.521
50 P3 92 6.521
50 P3 93 7.009
50 P3 94 7.497
50 P3 95 7.497
50 P3 96 6.521
50 P3 97 5.056
50 P3 98 2.614
50 P3 99 0.661
50 P3 100 -0.315
50 P3 101 0.661
50 P3 102 3.591
50 P3 103 6.032
50 P3 104 8.474
50 P3 105 8.962
50 P3 106 7.985
50 P3 107 6.521
50 P3 108 5.056
50 P3 109 4.567
50 P3 110 5.544
50 P3 111 7.009
50 P3 112 7.497
50 P3 113 6.521
50 P3 114 4.567
50 P3 115 1.149
50 P3 116 -2.268
50 P3 117 -5.198
50 P3 118 -6.663
50 P3 119 -6.175
50 P3 120 -4.710
50 P3 121 -2.268
50 P3 122 -0.315
50 P3 123 0.661
50 P3 124 1.149
50 P3 125 0.661
50 P3 126 0.173
50 P3 127 1.149
50 P3 128 3.103
50 P3 129 5.056
50 P3 130 7.009
50 P3 131 6.032
50 P3 132 3.103
50 P3 133 -0.804
50 P3 134 -4.222
50 P3 135 -5.198
50 P3 136 -4.222
50 P3 137 -2.757
50 P3 138 -1.292
50 P3 139 -1.292
50 P3 140 -2.268
50 P3 141 -2.757
50 P3 142 -2.757
50 P3 143 -2.268
50 P3 144 -0.315
50 P3 145 1.638
50 P3 146 4.079
50 P3 147 6.032
50 P3 148 7.009
50 P3 149 6.032
50 P3 150 2.614
50 P3 151 -0.804
50 P3 152 -3.733
50 P3 153 -4.222
50 P3 154 -2.757
50 P3 155 -1.292
50 P3 156 -0.315
50 P3 157 0.173
50 P3 158 -0.315
50 P3 159 0.173
50 P3 160 0.661
50 P3 161 0.661
50 P3 162 0.173
50 P3 163 -1.292
50 P3 164 -1.780
50 P3 165 -1.780
50 P3 166 -1.292
50 P3 167 -0.804
50 P3 168 -0.315
50 P3 169 -0.315
50 P3 170 0.173
50 P3 171 1.638
50 P3 172 3.103
50 P3 173 3.103
50 P3 174 1.638
50 P3 175 -0.804
50 P3 176 -2.268
50 P3 177 -2.757
50 P3 178 -2.757
50 P3 179 -2.757
50 P3 180 -5.198
50 P3 181 -7.640
50 P3 182 -10.081
50 P3 183 -9.593
50 P3 184 -9.104
50 P3 185 -7.640
50 P3 186 -6.663
50 P3 187 -5.686
50 P3 188 -4.222
50 P3 189 -1.780
50 P3 190 0.661
50 P3 191 3.103
50 P3 192 3.591
50 P3 193 2.614
50 P3 194 1.149
50 P3 195 0.173
50 P3 196 0.661
50 P3 197 1.149
50 P3 198 2.614
50 P3 199 3.103
50 P3 200 3.103
50 P3 201 2.614
50 P3 202 2.614
50 P3 203 1.149
50 P3 204 -0.315
50 P3 205 -1.780
50 P3 206 -3.245
50 P3 207 -4.222
50 P3 208 -5.686
50 P3 209 -6.663
50 P3 210 -7.151
50 P3 211 -6.175
50 P3 212 -4.222
50 P3 213 -0.804
50 P3 214 2.126
50 P3 215 4.079
50 P3 216 5.544
50 P3 217 6.032
50 P3 218 6.032
50 P3 219 6.032
50 P3 220 5.544
50 P3 221 4.567
50 P3 222 2.614
50 P3 223 0.661
50 P3 224 -1.292
50 P3 225 -2.268
50 P3 226 -3.245
50 P3 227 -3.733
50 P3 228 -3.733
50 P3 229 -4.222
50 P3 230 -4.222
50 P3 231 -4.222
50 P3 232 -4.222
50 P3 233 -4.222
50 P3 234 -4.222
50 P3 235 -4.710
50 P3 236 -5.686
50 P3 237 -6.175
50 P3 238 -6.663
50 P3 239 -5.198
50 P3 240 -3.245
50 P3 241 -0.315
50 P3 242 1.638
50 P3 243 1.638
50 P3 244 -0.315
50 P3 245 -2.757
50 P3 246 -3.733
50 P3 247 -2.757
50 P3 248 -0.804
50 P3 249 0.661
50 P3 250 0.173
50 P3 251 -1.780
50 P3 252 -3.733
50 P3 253 -4.222
50 P3 254 -2.757
50 P3 255 0.173
# P4 chan 23
50 P4 0 -4.171
50 P4 1 -2.218
50 P4 2 1.200
50 P4 3 4.618
50 P4 4 8.525
50 P4 5 10.966
50 P4 6 12.919
50 P4 7 12.919
50 P4 8 11.943
50 P4 9 10.478
50 P4 10 9.013
50 P4 11 7.060
50 P4 12 4.618
50 P4 13 2.665
50 P4 14 0.712
50 P4 15 -1.241
50 P4 16 -3.194
50 P4 17 -4.171
50 P4 18 -4.659
50 P4 19 -5.147
50 P4 20 -4.659
50 P4 21 -4.659
50 P4 22 -4.171
50 P4 23 -3.682
50 P4 24 -2.218
50 P4 25 0.712
50 P4 26 4.130
50 P4 27 7.548
50 P4 28 9.013
50 P4 29 9.013
50 P4 30 8.036
50 P4 31 7.060
50 P4 32 6.083
50 P4 33 5.107
50 P4 34 3.642
50 P4 35 1.689
50 P4 36 -1.241
50 P4 37 -3.194
50 P4 38 -4.659
50 P4 39 -5.636
50 P4 40 -6.124
50 P4 41 -6.612
50 P4 42 -7.589
50 P4 43 -7.589
50 P4 44 -6.612
50 P4 45 -4.171
50 P4 46 -1.241
50 P4 47 1.689
50 P4 48 3.642
50 P4 49 4.618
50 P4 50 4.618
50 P4 51 4.130
50 P4 52 2.665
50 P4 53 1.689
50 P4 54 0.224
50 P4 55 -1.241
50 P4 56 -2.218
50 P4 57 -3.682
50 P4 58 -4.659
50 P4 59 -4.659
50 P4 60 -4.171
50 P4 61 -3.194
50 P4 62 -0.753
50 P4 63 1.689
50 P4 64 4.618
50 P4 65 6.571
50 P4 66 7.548
50 P4 67 7.060
50 P4 68 6.571
50 P4 69 5.595
50 P4 70 5.595
50 P4 71 6.083
50 P4 72 6.571
50 P4 73 6.571
50 P4 74 5.595
50 P4 75 3.642
50 P4 76 0.712
50 P4 77 -2.218
50 P4 78 -4.659
50 P4 79 -7.100
50 P4 80 -8.077
50 P4 81 -10.030
50 P4 82 -11.495
50 P4 83 -12.960
50 P4 84 -13.448
50 P4 85 -12.960
50 P4 86 -11.007
50 P4 87 -8.077
50 P4 88 -5.147
50 P4 89 -2.218
50 P4 90 -0.264
50 P4 91 0.712
50 P4 92 2.177
50 P4 93 3.642
50 P4 94 5.107
50 P4 95 7.060
50 P4 96 8.525
50 P4 97 8.525
50 P4 98 7.060
50 P4 99 4.130
50 P4 100 1.200
50 P4 101 -0.264
50 P4 102 -0.264
50 P4 103 0.712
50 P4 104 2.665
50 P4 105 4.130
50 P4 106 4.130
50 P4 107 2.665
50 P4 108 0.224
50 P4 109 -2.218
50 P4 110 -3.194
50 P4 111 -3.194
50 P4 112 -2.706
50 P4 113 -0.753
50 P4 114 0.712
50 P4 115 1.200
50 P4 116 0.712
50 P4 117 -0.753
50 P4 118 -2.218
50 P4 119 -3.194
50 P4 120 -4.171
50 P4 121 -4.171
50 P4 122 -4.171
50 P4 123 -5.147
50 P4 124 -6.612
50 P4 125 -9.054
50 P4 126 -11.983
50 P4 127 -13.448
50 P4 128 -13.448
50 P4 129 -11.007
50 P4 130 -6.612
50 P4 131 -3.194
50 P4 132 -1.729
50 P4 133 -2.218
50 P4 134 -4.171
50 P4 135 -6.124
50 P4 136 -5.636
50 P4 137 -4.171
50 P4 138 -2.706
50 P4 139 -2.706
50 P4 140 -4.659
50 P4 141 -7.100
50 P4 142 -8.565
50 P4 143 -8.077
50 P4 144 -6.612
50 P4 145 -4.659
50 P4 146 -3.682
50 P4 147 -2.218
50 P4 148 -1.241
50 P4 149 0.224
50 P4 150 1.200
50 P4 151 1.689
50 P4 152 0.712
50 P4 153 0.224
50 P4 154 0.712
50 P4 155 1.689
50 P4 156 3.153
50 P4 157 4.130
50 P4 158 4.618
50 P4 159 3.642
50 P4 160 2.177
50 P4 161 0.224
50 P4 162 -2.218
50 P4 163 -4.171
50 P4 164 -5.147
50 P4 165 -5.636
50 P4 166 -5.147
50 P4 167 -4.171
50 P4 168 -2.706
50 P4 169 -1.241
50 P4 170 0.224
50 P4 171 1.200
50 P4 172 1.689
50 P4 173 1.200
50 P4 174 -0.264
50 P4 175 -1.241
50 P4 176 -0.753
50 P4 177 0.224
50 P4 178 1.200
50 P4 179 1.200
50 P4 180 -0.264
50 P4 181 -2.706
50 P4 182 -5.147
50 P4 183 -6.612
50 P4 184 -6.612
50 P4 185 -6.612
50 P4 186 -7.100
50 P4 187 -8.565
50 P4 188 -10.030
50 P4 189 -11.495
50 P4 190 -12.472
50 P4 191 -11.983
50 P4 192 -11.495
50 P4 193 -10.518
50 P4 194 -9.542
50 P4 195 -8.565
50 P4 196 -7.100
50 P4 197 -5.636
50 P4 198 -3.682
50 P4 199 -1.729
50 P4 200 -0.264
50 P4 201 0.712
50 P4 202 0.712
50 P4 203 0.224
50 P4 204 -1.241
50 P4 205 -3.682
50 P4 206 -6.124
50 P4 207 -8.077
50 P4 208 -10.030
50 P4 209 -10.518
50 P4 210 -10.518
50 P4 211 -9.542
50 P4 212 -9.054
50 P4 213 -8.565
50 P4 214 -8.565
50 P4 215 -9.054
50 P4 216 -9.054
50 P4 217 -8.077
50 P4 218 -7.100
50 P4 219 -6.124
50 P4 220 -4.659
50 P4 221 -4.171
50 P4 222 -3.194
50 P4 223 -3.194
50 P4 224 -3.194
50 P4 225 -3.682
50 P4 226 -5.147
50 P4 227 -7.100
50 P4 228 -9.054
50 P4 229 -11.007
50 P4 230 -11.983
50 P4 231 -11.983
50 P4 232 -11.495
50 P4 233 -11.495
50 P4 234 -11.495
50 P4 235 -11.495
50 P4 236 -11.007
50 P4 237 -10.030
50 P4 238 -8.077
50 P4 239 -5.636
50 P4 240 -4.171
50 P4 241 -3.682
50 P4 242 -3.194
50 P4 243 -3.194
50 P4 244 -2.218
50 P4 245 -0.264
50 P4 246 2.665
50 P4 247 5.107
50 P4 248 5.595
50 P4 249 3.642
50 P4 250 0.224
50 P4 251 -3.682
50 P4 252 -6.612
50 P4 253 -8.077
50 P4 254 -7.589
50 P4 255 -6.612
# PZ chan 24
50 PZ 0 -3.042
50 PZ 1 -3.042
50 PZ 2 -1.577
50 PZ 3 0.865
50 PZ 4 3.306
50 PZ 5 4.771
50 PZ 6 5.747
50 PZ 7 6.236
50 PZ 8 6.236
50 PZ 9 6.724
50 PZ 10 7.212
50 PZ 11 7.212
50 PZ 12 6.724
50 PZ 13 5.259
50 PZ 14 3.794
50 PZ 15 1.841
50 PZ 16 0.376
50 PZ 17 -0.112
50 PZ 18 -0.112
50 PZ 19 -0.112
50 PZ 20 -0.112
50 PZ 21 -0.112
50 PZ 22 -0.600
50 PZ 23 -1.577
50 PZ 24 -1.577
50 PZ 25 -1.088
50 PZ 26 0.376
50 PZ 27 1.841
50 PZ 28 2.818
50 PZ 29 3.306
50 PZ 30 3.794
50 PZ 31 3.794
50 PZ 32 4.771
50 PZ 33 5.747
50 PZ 34 5.747
50 PZ 35 4.771
50 PZ 36 3.306
50 PZ 37 1.841
50 PZ 38 0.865
50 PZ 39 0.376
50 PZ 40 0.376
50 PZ 41 -0.112
50 PZ 42 -1.088
50 PZ 43 -2.065
50 PZ 44 -2.553
50 PZ 45 -2.065
50 PZ 46 -0.600
50 PZ 47 0.865
50 PZ 48 2.818
50 PZ 49 3.794
50 PZ 50 4.283
50 PZ 51 3.794
50 PZ 52 2.818
50 PZ 53 1.841
50 PZ 54 0.865
50 PZ 55 0.376
50 PZ 56 0.376
50 PZ 57 0.376
50 PZ 58 -0.112
50 PZ 59 -1.088
50 PZ 60 -1.088
50 PZ 61 -0.600
50 PZ 62 0.865
50 PZ 63 3.306
50 PZ 64 5.259
50 PZ 65 6.724
50 PZ 66 6.724
50 PZ 67 5.259
50 PZ 68 3.306
50 PZ 69 1.353
50 PZ 70 0.865
50 PZ 71 0.865
50 PZ 72 1.353
50 PZ 73 2.330
50 PZ 74 2.818
50 PZ 75 2.818
50 PZ 76 2.818
50 PZ 77 2.818
50 PZ 78 2.818
50 PZ 79 2.818
50 PZ 80 2.818
50 PZ 81 1.841
50 PZ 82 -0.112
50 PZ 83 -2.553
50 PZ 84 -4.506
50 PZ 85 -5.483
50 PZ 86 -5.483
50 PZ 87 -4.506
50 PZ 88 -3.530
50 PZ 89 -3.042
50 PZ 90 -3.042
50 PZ 91 -2.553
50 PZ 92 -1.577
50 PZ 93 -0.112
50 PZ 94 2.330
50 PZ 95 3.794
50 PZ 96 6.724
50 PZ 97 7.701
50 PZ 98 7.212
50 PZ 99 6.236
50 PZ 100 4.771
50 PZ 101 3.794
50 PZ 102 4.283
50 PZ 103 5.259
50 PZ 104 6.724
50 PZ 105 6.724
50 PZ 106 5.747
50 PZ 107 3.794
50 PZ 108 1.841
50 PZ 109 0.865
50 PZ 110 0.865
50 PZ 111 1.353
50 PZ 112 1.353
50 PZ 113 1.841
50 PZ 114 1.353
50 PZ 115 0.865
50 PZ 116 0.376
50 PZ 117 -0.112
50 PZ 118 -0.600
50 PZ 119 -1.088
50 PZ 120 -0.600
50 PZ 121 -0.112
50 PZ 122 0.376
50 PZ 123 -0.112
50 PZ 124 -1.088
50 PZ 125 -3.042
50 PZ 126 -4.018
50 PZ 127 -4.506
50 PZ 128 -3.042
50 PZ 129 -0.600
50 PZ 130 1.841
50 PZ 131 2.818
50 PZ 132 1.841
50 PZ 133 -1.088
50 PZ 134 -4.506
50 PZ 135 -6.460
50 PZ 136 -6.948
50 PZ 137 -5.971
50 PZ 138 -4.018
50 PZ 139 -2.553
50 PZ 140 -1.577
50 PZ 141 -1.577
50 PZ 142 -2.065
50 PZ 143 -2.065
50 PZ 144 -2.065
50 PZ 145 -1.088
50 PZ 146 0.376
50 PZ 147 1.353
50 PZ 148 2.330
50 PZ 149 2.330
50 PZ 150 1.353
50 PZ 151 -0.600
50 PZ 152 -2.553
50 PZ 153 -3.530
50 PZ 154 -4.018
50 PZ 155 -3.530
50 PZ 156 -3.042
50 PZ 157 -3.530
50 PZ 158 -3.530
50 PZ 159 -3.530
50 PZ 160 -3.042
50 PZ 161 -3.042
50 PZ 162 -3.042
50 PZ 163 -4.018
50 PZ 164 -4.995
50 PZ 165 -4.995
50 PZ 166 -4.018
50 PZ 167 -2.553
50 PZ 168 -1.088
50 PZ 169 0.376
50 PZ 170 0.376
50 PZ 171 0.865
50 PZ 172 0.865
50 PZ 173 0.376
50 PZ 174 -0.112
50 PZ 175 -1.088
50 PZ 176 -2.553
50 PZ 177 -3.042
50 PZ 178 -4.018
50 PZ 179 -4.506
50 PZ 180 -5.483
50 PZ 181 -6.948
50 PZ 182 -7.924
50 PZ 183 -8.413
50 PZ 184 -7.924
50 PZ 185 -6.948
50 PZ 186 -5.971
50 PZ 187 -4.995
50 PZ 188 -4.506
50 PZ 189 -3.530
50 PZ 190 -2.065
50 PZ 191 -0.112
50 PZ 192 0.865
50 PZ 193 1.353
50 PZ 194 0.376
50 PZ 195 -0.600
50 PZ 196 -1.577
50 PZ 197 -1.088
50 PZ 198 -0.112
50 PZ 199 1.841
50 PZ 200 3.306
50 PZ 201 4.283
50 PZ 202 4.283
50 PZ 203 3.794
50 PZ 204 2.330
50 PZ 205 0.865
50 PZ 206 -0.600
50 PZ 207 -1.577
50 PZ 208 -2.553
50 PZ 209 -3.042
50 PZ 210 -4.018
50 PZ 211 -4.506
50 PZ 212 -3.530
50 PZ 213 -2.065
50 PZ 214 -0.112
50 PZ 215 1.353
50 PZ 216 1.841
50 PZ 217 1.353
50 PZ 218 0.865
50 PZ 219 0.376
50 PZ 220 0.865
50 PZ 221 1.353
50 PZ 222 1.841
50 PZ 223 0.865
50 PZ 224 0.376
50 PZ 225 -1.088
50 PZ 226 -1.577
50 PZ 227 -1.088
50 PZ 228 -0.600
50 PZ 229 -0.112
50 PZ 230 -0.112
50 PZ 231 -0.600
50 PZ 232 -1.088
50 PZ 233 -1.088
50 PZ 234 -0.600
50 PZ 235 0.376
50 PZ 236 1.841
50 PZ 237 2.818
50 PZ 238 2.818
50 PZ 239 3.306
50 PZ 240 3.306
50 PZ 241 3.794
50 PZ 242 4.283
50 PZ 243 3.794
50 PZ 244 2.818
50 PZ 245 1.353
50 PZ 246 1.353
50 PZ 247 2.818
50 PZ 248 4.283
50 PZ 249 5.747
50 PZ 250 5.747
50 PZ 251 4.283
50 PZ 252 2.330
50 PZ 253 1.841
50 PZ 254 2.818
50 PZ 255 4.771
# P8 chan 25
50 P8 0 -4.547
50 P8 1 2.289
50 P8 2 8.636
50 P8 3 13.031
50 P8 4 16.449
50 P8 5 17.914
50 P8 6 17.914
50 P8 7 16.937
50 P8 8 14.008
50 P8 9 11.078
50 P8 10 7.660
50 P8 11 4.242
50 P8 12 1.312
50 P8 13 -1.617
50 P8 14 -5.035
50 P8 15 -7.477
50 P8 16 -8.942
50 P8 17 -8.942
50 P8 18 -7.477
50 P8 19 -5.524
50 P8 20 -2.594
50 P8 21 -0.641
50 P8 22 0.824
50 P8 23 1.801
50 P8 24 3.265
50 P8 25 5.707
50 P8 26 7.660
50 P8 27 9.125
50 P8 28 9.125
50 P8 29 7.660
50 P8 30 5.219
50 P8 31 3.265
50 P8 32 1.801
50 P8 33 0.824
50 P8 34 0.336
50 P8 35 -0.153
50 P8 36 -0.641
50 P8 37 -1.129
50 P8 38 -1.617
50 P8 39 -1.617
50 P8 40 -1.129
50 P8 41 -1.617
50 P8 42 -2.106
50 P8 43 -2.106
50 P8 44 -0.641
50 P8 45 1.801
50 P8 46 5.707
50 P8 47 8.636
50 P8 48 10.590
50 P8 49 11.078
50 P8 50 10.101
50 P8 51 9.125
50 P8 52 8.148
50 P8 53 7.172
50 P8 54 5.219
50 P8 55 2.289
50 P8 56 -1.617
50 P8 57 -4.547
50 P8 58 -6.500
50 P8 59 -6.012
50 P8 60 -4.547
50 P8 61 -2.594
50 P8 62 -0.153
50 P8 63 2.777
50 P8 64 5.707
50 P8 65 9.125
50 P8 66 12.054
50 P8 67 13.519
50 P8 68 14.496
50 P8 69 14.008
50 P8 70 14.496
50 P8 71 15.472
50 P8 72 15.961
50 P8 73 15.472
50 P8 74 11.566
50 P8 75 5.707
50 P8 76 -1.617
50 P8 77 -7.965
50 P8 78 -11.871
50 P8 79 -14.313
50 P8 80 -15.778
50 P8 81 -18.707
50 P8 82 -22.614
50 P8 83 -26.520
50 P8 84 -27.985
50 P8 85 -26.520
50 P8 86 -21.637
50 P8 87 -14.801
50 P8 88 -8.453
50 P8 89 -3.082
50 P8 90 0.336
50 P8 91 2.289
50 P8 92 4.242
50 P8 93 5.707
50 P8 94 7.660
50 P8 95 8.636
50 P8 96 8.636
50 P8 97 7.172
50 P8 98 4.242
50 P8 99 0.336
50 P8 100 -3.082
50 P8 101 -5.035
50 P8 102 -5.035
50 P8 103 -3.571
50 P8 104 -1.129
50 P8 105 0.336
50 P8 106 0.336
50 P8 107 -0.641
50 P8 108 -2.106
50 P8 109 -3.082
50 P8 110 -3.082
50 P8 111 -2.106
50 P8 112 -0.641
50 P8 113 0.336
50 P8 114 0.336
50 P8 115 -1.129
50 P8 116 -3.571
50 P8 117 -6.989
50 P8 118 -9.430
50 P8 119 -11.383
50 P8 120 -11.871
50 P8 121 -11.871
50 P8 122 -12.848
50 P8 123 -13.824
50 P8 124 -15.778
50 P8 125 -18.219
50 P8 126 -20.660
50 P8 127 -22.125
50 P8 128 -22.125
50 P8 129 -19.684
50 P8 130 -15.778
50 P8 131 -10.895
50 P8 132 -7.477
50 P8 133 -6.989
50 P8 134 -7.965
50 P8 135 -9.430
50 P8 136 -8.942
50 P8 137 -7.477
50 P8 138 -6.012
50 P8 139 -6.989
50 P8 140 -9.918
50 P8 141 -13.824
50 P8 142 -16.754
50 P8 143 -17.242
50 P8 144 -15.778
50 P8 145 -13.336
50 P8 146 -11.383
50 P8 147 -10.406
50 P8 148 -8.942
50 P8 149 -6.989
50 P8 150 -5.524
50 P8 151 -4.059
50 P8 152 -4.059
50 P8 153 -4.547
50 P8 154 -4.547
50 P8 155 -3.571
50 P8 156 -2.106
50 P8 157 -0.641
50 P8 158 0.336
50 P8 159 -1.129
50 P8 160 -3.571
50 P8 161 -7.477
50 P8 162 -11.383
50 P8 163 -13.336
50 P8 164 -13.824
50 P8 165 -13.336
50 P8 166 -12.360
50 P8 167 -11.383
50 P8 168 -11.383
50 P8 169 -11.383
50 P8 170 -10.895
50 P8 171 -8.942
50 P8 172 -7.477
50 P8 173 -6.500
50 P8 174 -6.989
50 P8 175 -7.965
50 P8 176 -7.965
50 P8 177 -7.477
50 P8 178 -6.012
50 P8 179 -5.524
50 P8 180 -6.500
50 P8 181 -8.942
50 P8 182 -12.360
50 P8 183 -15.289
50 P8 184 -16.754
50 P8 185 -17.242
50 P8 186 -17.242
50 P8 187 -18.219
50 P8 188 -19.684
50 P8 189 -21.149
50 P8 190 -22.125
50 P8 191 -22.614
50 P8 192 -21.637
50 P8 193 -21.149
50 P8 194 -19.196
50 P8 195 -17.731
50 P8 196 -15.289
50 P8 197 -12.360
50 P8 198 -9.430
50 P8 199 -6.500
50 P8 200 -4.547
50 P8 201 -3.571
50 P8 202 -5.035
50 P8 203 -7.477
50 P8 204 -9.918
50 P8 205 -12.360
50 P8 206 -14.313
50 P8 207 -16.266
50 P8 208 -18.219
50 P8 209 -19.684
50 P8 210 -21.149
50 P8 211 -21.149
50 P8 212 -20.172
50 P8 213 -19.684
50 P8 214 -19.684
50 P8 215 -20.172
50 P8 216 -19.684
50 P8 217 -17.731
50 P8 218 -13.824
50 P8 219 -9.918
50 P8 220 -6.500
50 P8 221 -5.035
50 P8 222 -4.547
50 P8 223 -5.035
50 P8 224 -6.012
50 P8 225 -7.477
50 P8 226 -9.918
50 P8 227 -13.336
50 P8 228 -17.242
50 P8 229 -19.684
50 P8 230 -21.149
50 P8 231 -21.149
50 P8 232 -20.172
50 P8 233 -20.660
50 P8 234 -22.614
50 P8 235 -24.567
50 P8 236 -26.031
50 P8 237 -25.055
50 P8 238 -22.125
50 P8 239 -18.219
50 P8 240 -14.801
50 P8 241 -12.360
50 P8 242 -10.895
50 P8 243 -9.430
50 P8 244 -6.989
50 P8 245 -4.059
50 P8 246 -0.641
50 P8 247 1.801
50 P8 248 2.777
50 P8 249 0.336
50 P8 250 -5.035
50 P8 251 -11.383
50 P8 252 -16.754
50 P8 253 -19.684
50 P8 254 -19.196
50 P8 255 -17.242
# P7 chan 26
50 P7 0 8.413
50 P7 1 13.784
50 P7 2 19.155
50 P7 3 23.061
50 P7 4 24.038
50 P7 5 22.573
50 P7 6 20.131
50 P7 7 17.202
50 P7 8 15.249
50 P7 9 13.295
50 P7 10 11.831
50 P7 11 9.878
50 P7 12 8.901
50 P7 13 7.924
50 P7 14 8.413
50 P7 15 9.389
50 P7 16 10.854
50 P7 17 12.319
50 P7 18 13.784
50 P7 19 14.272
50 P7 20 14.272
50 P7 21 14.272
50 P7 22 13.295
50 P7 23 12.319
50 P7 24 11.342
50 P7 25 10.854
50 P7 26 10.366
50 P7 27 9.878
50 P7 28 9.878
50 P7 29 9.878
50 P7 30 9.389
50 P7 31 9.389
50 P7 32 9.389
50 P7 33 10.366
50 P7 34 11.831
50 P7 35 13.295
50 P7 36 14.760
50 P7 37 15.737
50 P7 38 16.225
50 P7 39 16.225
50 P7 40 16.713
50 P7 41 17.690
50 P7 42 18.178
50 P7 43 18.178
50 P7 44 17.202
50 P7 45 16.713
50 P7 46 16.713
50 P7 47 18.178
50 P7 48 19.155
50 P7 49 18.667
50 P7 50 16.225
50 P7 51 12.319
50 P7 52 8.901
50 P7 53 6.948
50 P7 54 6.948
50 P7 55 7.924
50 P7 56 8.413
50 P7 57 7.924
50 P7 58 6.460
50 P7 59 5.483
50 P7 60 5.971
50 P7 61 7.436
50 P7 62 9.878
50 P7 63 12.319
50 P7 64 14.272
50 P7 65 15.249
50 P7 66 16.225
50 P7 67 17.202
50 P7 68 17.202
50 P7 69 16.713
50 P7 70 16.225
50 P7 71 15.249
50 P7 72 12.807
50 P7 73 9.389
50 P7 74 4.995
50 P7 75 0.600
50 P7 76 -3.794
50 P7 77 -7.212
50 P7 78 -9.654
50 P7 79 -12.583
50 P7 80 -16.490
50 P7 81 -22.837
50 P7 82 -30.650
50 P7 83 -37.974
50 P7 84 -42.369
50 P7 85 -42.857
50 P7 86 -39.927
50 P7 87 -36.021
50 P7 88 -32.603
50 P7 89 -31.626
50 P7 90 -32.115
50 P7 91 -33.091
50 P7 92 -34.068
50 P7 93 -35.044
50 P7 94 -35.533
50 P7 95 -36.021
50 P7 96 -35.533
50 P7 97 -35.044
50 P7 98 -34.556
50 P7 99 -35.533
50 P7 100 -36.509
50 P7 101 -37.486
50 P7 102 -37.486
50 P7 103 -36.021
50 P7 104 -32.603
50 P7 105 -29.673
50 P7 106 -27.232
50 P7 107 -26.744
50 P7 108 -27.720
50 P7 109 -29.185
50 P7 110 -30.162
50 P7 111 -29.673
50 P7 112 -29.185
50 P7 113 -29.185
50 P7 114 -30.650
50 P7 115 -34.556
50 P7 116 -39.439
50 P7 117 -45.298
50 P7 118 -49.693
50 P7 119 -51.646
50 P7 120 -50.669
50 P7 121 -47.251
50 P7 122 -43.833
50 P7 123 -41.392
50 P7 124 -41.392
50 P7 125 -42.369
50 P7 126 -43.345
50 P7 127 -43.833
50 P7 128 -41.392
50 P7 129 -38.462
50 P7 130 -35.044
50 P7 131 -33.580
50 P7 132 -34.556
50 P7 133 -37.974
50 P7 134 -41.880
50 P7 135 -44.810
50 P7 136 -46.275
50 P7 137 -46.275
50 P7 138 -45.787
50 P7 139 -45.787
50 P7 140 -47.251
50 P7 141 -49.205
50 P7 142 -51.158
50 P7 143 -51.646
50 P7 144 -50.181
50 P7 145 -48.228
50 P7 146 -45.298
50 P7 147 -43.345
50 P7 148 -42.369
50 P7 149 -42.369
50 P7 150 -43.833
50 P7 151 -45.787
50 P7 152 -48.228
50 P7 153 -50.669
50 P7 154 -52.134
50 P7 155 -52.134
50 P7 156 -51.158
50 P7 157 -50.181
50 P7 158 -49.205
50 P7 159 -48.716
50 P7 160 -48.716
50 P7 161 -49.693
50 P7 162 -51.158
50 P7 163 -53.111
50 P7 164 -53.599
50 P7 165 -53.599
50 P7 166 -52.622
50 P7 167 -51.646
50 P7 168 -51.158
50 P7 169 -50.669
50 P7 170 -50.669
50 P7 171 -49.205
50 P7 172 -48.228
50 P7 173 -47.740
50 P7 174 -48.716
50 P7 175 -51.158
50 P7 176 -53.599
50 P7 177 -54.576
50 P7 178 -55.552
50 P7 179 -56.529
50 P7 180 -58.482
50 P7 181 -60.923
50 P7 182 -63.853
50 P7 183 -66.783
50 P7 184 -68.736
50 P7 185 -70.201
50 P7 186 -71.177
50 P7 187 -71.177
50 P7 188 -69.224
50 P7 189 -65.318
50 P7 190 -60.435
50 P7 191 -56.040
50 P7 192 -52.622
50 P7 193 -52.134
50 P7 194 -53.599
50 P7 195 -54.576
50 P7 196 -54.087
50 P7 197 -52.622
50 P7 198 -50.669
50 P7 199 -49.205
50 P7 200 -49.693
50 P7 201 -50.669
50 P7 202 -51.646
50 P7 203 -51.646
50 P7 204 -51.158
50 P7 205 -51.158
50 P7 206 -52.622
50 P7 207 -55.552
50 P7 208 -58.970
50 P7 209 -62.388
50 P7 210 -64.341
50 P7 211 -63.853
50 P7 212 -62.388
50 P7 213 -58.970
50 P7 214 -55.552
50 P7 215 -52.622
50 P7 216 -50.669
50 P7 217 -50.181
50 P7 218 -50.181
50 P7 219 -50.669
50 P7 220 -51.158
50 P7 221 -51.646
50 P7 222 -52.134
50 P7 223 -53.599
50 P7 224 -55.552
50 P7 225 -58.482
50 P7 226 -59.947
50 P7 227 -59.458
50 P7 228 -57.505
50 P7 229 -53.599
50 P7 230 -51.646
50 P7 231 -50.669
50 P7 232 -51.646
50 P7 233 -53.111
50 P7 234 -54.087
50 P7 235 -55.552
50 P7 236 -57.994
50 P7 237 -60.923
50 P7 238 -63.365
50 P7 239 -63.365
50 P7 240 -61.412
50 P7 241 -57.505
50 P7 242 -54.576
50 P7 243 -54.087
50 P7 244 -56.529
50 P7 245 -60.435
50 P7 246 -63.365
50 P7 247 -64.341
50 P7 248 -63.365
50 P7 249 -61.412
50 P7 250 -60.923
50 P7 251 -61.412
50 P7 252 -62.388
50 P7 253 -63.853
50 P7 254 -63.853
50 P7 255 -62.876
# PO2 chan 27
50 PO2 0 -2.197
50 PO2 1 0.244
50 PO2 2 3.662
50 PO2 3 8.545
50 PO2 4 12.939
50 PO2 5 16.846
50 PO2 6 18.311
50 PO2 7 17.822
50 PO2 8 15.869
50 PO2 9 14.404
50 PO2 10 12.939
50 PO2 11 11.963
50 PO2 12 10.010
50 PO2 13 8.057
50 PO2 14 5.127
50 PO2 15 3.174
50 PO2 16 2.197
50 PO2 17 1.709
50 PO2 18 2.686
50 PO2 19 2.686
50 PO2 20 2.197
50 PO2 21 1.221
50 PO2 22 0.244
50 PO2 23 0.244
50 PO2 24 1.709
50 PO2 25 5.615
50 PO2 26 10.010
50 PO2 27 13.428
50 PO2 28 15.381
50 PO2 29 15.381
50 PO2 30 14.404
50 PO2 31 12.939
50 PO2 32 10.498
50 PO2 33 8.057
50 PO2 34 5.127
50 PO2 35 2.686
50 PO2 36 0.732
50 PO2 37 0.244
50 PO2 38 0.244
50 PO2 39 0.244
50 PO2 40 -0.732
50 PO2 41 -1.709
50 PO2 42 -2.686
50 PO2 43 -2.686
50 PO2 44 -1.221
50 PO2 45 0.732
50 PO2 46 2.686
50 PO2 47 4.639
50 PO2 48 7.080
50 PO2 49 8.545
50 PO2 50 9.521
50 PO2 51 9.521
50 PO2 52 7.568
50 PO2 53 4.639
50 PO2 54 0.732
50 PO2 55 -2.686
50 PO2 56 -4.639
50 PO2 57 -6.104
50 PO2 58 -6.592
50 PO2 59 -6.104
50 PO2 60 -3.662
50 PO2 61 -0.244
50 PO2 62 3.662
50 PO2 63 7.568
50 PO2 64 10.498
50 PO2 65 12.939
50 PO2 66 13.916
50 PO2 67 15.381
50 PO2 68 16.357
50 PO2 69 17.334
50 PO2 70 18.799
50 PO2 71 18.799
50 PO2 72 18.799
50 PO2 73 17.822
50 PO2 74 15.381
50 PO2 75 11.963
50 PO2 76 8.545
50 PO2 77 4.639
50 PO2 78 2.197
50 PO2 79 -0.244
50 PO2 80 -1.709
50 PO2 81 -3.662
50 PO2 82 -5.615
50 PO2 83 -6.592
50 PO2 84 -6.592
50 PO2 85 -5.127
50 PO2 86 -2.686
50 PO2 87 0.244
50 PO2 88 3.174
50 PO2 89 5.615
50 PO2 90 8.057
50 PO2 91 10.010
50 PO2 92 12.451
50 PO2 93 14.893
50 PO2 94 16.357
50 PO2 95 18.311
50 PO2 96 19.775
50 PO2 97 19.775
50 PO2 98 18.799
50 PO2 99 16.357
50 PO2 100 13.916
50 PO2 101 12.451
50 PO2 102 11.963
50 PO2 103 13.428
50 PO2 104 14.893
50 PO2 105 16.357
50 PO2 106 16.357
50 PO2 107 14.893
50 PO2 108 11.963
50 PO2 109 9.521
50 PO2 110 9.033
50 PO2 111 10.010
50 PO2 112 11.963
50 PO2 113 13.428
50 PO2 114 13.916
50 PO2 115 12.451
50 PO2 116 9.521
50 PO2 117 6.104
50 PO2 118 3.174
50 PO2 119 1.709
50 PO2 120 2.197
50 PO2 121 3.174
50 PO2 122 4.150
50 PO2 123 4.150
50 PO2 124 2.686
50 PO2 125 -0.244
50 PO2 126 -3.174
50 PO2 127 -6.104
50 PO2 128 -6.592
50 PO2 129 -4.150
50 PO2 130 0.732
50 PO2 131 5.615
50 PO2 132 8.545
50 PO2 133 9.033
50 PO2 134 6.592
50 PO2 135 4.150
50 PO2 136 2.197
50 PO2 137 1.709
50 PO2 138 2.686
50 PO2 139 2.686
50 PO2 140 0.732
50 PO2 141 -1.709
50 PO2 142 -4.150
50 PO2 143 -4.639
50 PO2 144 -3.662
50 PO2 145 -1.709
50 PO2 146 0.732
50 PO2 147 2.686
50 PO2 148 4.639
50 PO2 149 6.592
50 PO2 150 7.568
50 PO2 151 7.568
50 PO2 152 6.592
50 PO2 153 4.639
50 PO2 154 4.150
50 PO2 155 4.150
50 PO2 156 6.592
50 PO2 157 9.033
50 PO2 158 10.010
50 PO2 159 9.033
50 PO2 160 6.104
50 PO2 161 2.197
50 PO2 162 -1.709
50 PO2 163 -3.662
50 PO2 164 -4.150
50 PO2 165 -3.662
50 PO2 166 -1.709
50 PO2 167 -0.244
50 PO2 168 1.709
50 PO2 169 4.150
50 PO2 170 6.592
50 PO2 171 8.545
50 PO2 172 10.010
50 PO2 173 10.498
50 PO2 174 10.498
50 PO2 175 9.033
50 PO2 176 7.568
50 PO2 177 7.080
50 PO2 178 6.592
50 PO2 179 6.104
50 PO2 180 4.639
50 PO2 181 3.174
50 PO2 182 1.221
50 PO2 183 -0.732
50 PO2 184 -1.709
50 PO2 185 -1.709
50 PO2 186 -1.221
50 PO2 187 -0.732
50 PO2 188 -0.244
50 PO2 189 -0.732
50 PO2 190 -1.221
50 PO2 191 -1.221
50 PO2 192 -0.244
50 PO2 193 0.732
50 PO2 194 2.197
50 PO2 195 3.174
50 PO2 196 4.150
50 PO2 197 6.104
50 PO2 198 9.033
50 PO2 199 11.963
50 PO2 200 14.404
50 PO2 201 15.869
