# co2c0000351.rd
# 120 trials, 64 chans, 416 samples 368 post_stim samples
# 3.906000 msecs uV
# S2 nomatch, trial 111
# FP1 chan 0
111 FP1 0 9.257
111 FP1 1 1.933
111 FP1 2 -6.856
111 FP1 3 -10.763
111 FP1 4 -4.903
111 FP1 5 7.792
111 FP1 6 20.487
111 FP1 7 26.347
111 FP1 8 23.905
111 FP1 9 14.628
111 FP1 10 3.886
111 FP1 11 -5.391
111 FP1 12 -11.739
111 FP1 13 -13.204
111 FP1 14 -8.809
111 FP1 15 -0.997
111 FP1 16 6.327
111 FP1 17 6.816
111 FP1 18 -0.509
111 FP1 19 -9.786
111 FP1 20 -14.181
111 FP1 21 -9.298
111 FP1 22 0.468
111 FP1 23 5.351
111 FP1 24 -0.509
111 FP1 25 -14.181
111 FP1 26 -25.411
111 FP1 27 -26.388
111 FP1 28 -17.110
111 FP1 29 -6.368
111 FP1 30 -3.927
111 FP1 31 -9.298
111 FP1 32 -16.134
111 FP1 33 -16.622
111 FP1 34 -9.298
111 FP1 35 -1.973
111 FP1 36 -2.462
111 FP1 37 -11.251
111 FP1 38 -18.575
111 FP1 39 -14.181
111 FP1 40 1.444
111 FP1 41 18.046
111 FP1 42 21.464
111 FP1 43 7.304
111 FP1 44 -15.157
111 FP1 45 -29.806
111 FP1 46 -25.899
111 FP1 47 -8.809
111 FP1 48 7.792
111 FP1 49 11.210
111 FP1 50 1.444
111 FP1 51 -11.739
111 FP1 52 -20.528
111 FP1 53 -21.016
111 FP1 54 -19.063
111 FP1 55 -19.552
111 FP1 56 -21.016
111 FP1 57 -20.040
111 FP1 58 -13.204
111 FP1 59 -4.415
111 FP1 60 -0.020
111 FP1 61 -4.415
111 FP1 62 -15.157
111 FP1 63 -22.970
111 FP1 64 -21.505
111 FP1 65 -10.763
111 FP1 66 0.956
111 FP1 67 5.839
111 FP1 68 -0.020
111 FP1 69 -13.204
111 FP1 70 -27.364
111 FP1 71 -34.200
111 FP1 72 -32.735
111 FP1 73 -25.411
111 FP1 74 -16.622
111 FP1 75 -10.763
111 FP1 76 -9.786
111 FP1 77 -12.227
111 FP1 78 -16.622
111 FP1 79 -22.481
111 FP1 80 -28.829
111 FP1 81 -36.641
111 FP1 82 -43.477
111 FP1 83 -45.919
111 FP1 84 -41.036
111 FP1 85 -28.829
111 FP1 86 -15.157
111 FP1 87 -7.345
111 FP1 88 -9.786
111 FP1 89 -22.481
111 FP1 90 -38.106
111 FP1 91 -50.313
111 FP1 92 -55.196
111 FP1 93 -51.778
111 FP1 94 -43.477
111 FP1 95 -33.223
111 FP1 96 -22.970
111 FP1 97 -15.157
111 FP1 98 -10.763
111 FP1 99 -11.251
111 FP1 100 -16.134
111 FP1 101 -23.946
111 FP1 102 -30.294
111 FP1 103 -33.712
111 FP1 104 -33.712
111 FP1 105 -30.782
111 FP1 106 -24.923
111 FP1 107 -18.575
111 FP1 108 -11.251
111 FP1 109 -2.950
111 FP1 110 1.933
111 FP1 111 0.468
111 FP1 112 -8.809
111 FP1 113 -22.481
111 FP1 114 -33.223
111 FP1 115 -35.665
111 FP1 116 -30.294
111 FP1 117 -21.505
111 FP1 118 -14.669
111 FP1 119 -11.251
111 FP1 120 -8.321
111 FP1 121 -3.927
111 FP1 122 0.468
111 FP1 123 -0.509
111 FP1 124 -9.298
111 FP1 125 -21.993
111 FP1 126 -31.270
111 FP1 127 -33.223
111 FP1 128 -27.852
111 FP1 129 -19.552
111 FP1 130 -13.692
111 FP1 131 -10.274
111 FP1 132 -6.368
111 FP1 133 0.468
111 FP1 134 7.304
111 FP1 135 10.722
111 FP1 136 8.280
111 FP1 137 1.444
111 FP1 138 -4.415
111 FP1 139 -4.903
111 FP1 140 -0.509
111 FP1 141 2.421
111 FP1 142 -0.997
111 FP1 143 -10.763
111 FP1 144 -21.016
111 FP1 145 -23.946
111 FP1 146 -15.645
111 FP1 147 -0.509
111 FP1 148 12.187
111 FP1 149 16.093
111 FP1 150 11.210
111 FP1 151 4.374
111 FP1 152 2.421
111 FP1 153 7.304
111 FP1 154 13.652
111 FP1 155 15.605
111 FP1 156 9.745
111 FP1 157 0.468
111 FP1 158 -4.415
111 FP1 159 1.933
111 FP1 160 20.487
111 FP1 161 46.366
111 FP1 162 68.827
111 FP1 163 80.546
111 FP1 164 78.593
111 FP1 165 66.874
111 FP1 166 54.667
111 FP1 167 47.831
111 FP1 168 50.761
111 FP1 169 61.015
111 FP1 170 73.222
111 FP1 171 82.499
111 FP1 172 83.964
111 FP1 173 76.640
111 FP1 174 63.944
111 FP1 175 52.714
111 FP1 176 49.784
111 FP1 177 59.550
111 FP1 178 78.105
111 FP1 179 96.659
111 FP1 180 104.960
111 FP1 181 98.612
111 FP1 182 82.499
111 FP1 183 65.898
111 FP1 184 56.620
111 FP1 185 58.573
111 FP1 186 66.386
111 FP1 187 73.710
111 FP1 188 74.687
111 FP1 189 66.874
111 FP1 190 53.202
111 FP1 191 38.066
111 FP1 192 27.812
111 FP1 193 26.347
111 FP1 194 36.112
111 FP1 195 51.249
111 FP1 196 62.968
111 FP1 197 60.527
111 FP1 198 41.484
111 FP1 199 14.140
111 FP1 200 -7.833
111 FP1 201 -13.204
111 FP1 202 0.468
111 FP1 203 22.929
111 FP1 204 40.995
111 FP1 205 45.878
111 FP1 206 39.530
111 FP1 207 29.765
111 FP1 208 25.370
111 FP1 209 27.812
111 FP1 210 33.183
111 FP1 211 38.066
111 FP1 212 40.507
111 FP1 213 43.437
111 FP1 214 48.808
111 FP1 215 54.667
111 FP1 216 54.179
111 FP1 217 43.925
111 FP1 218 25.370
111 FP1 219 9.745
111 FP1 220 6.816
111 FP1 221 18.534
111 FP1 222 36.601
111 FP1 223 48.319
111 FP1 224 44.902
111 FP1 225 28.788
111 FP1 226 9.745
111 FP1 227 -1.973
111 FP1 228 -2.950
111 FP1 229 3.398
111 FP1 230 8.769
111 FP1 231 8.280
111 FP1 232 2.421
111 FP1 233 -5.391
111 FP1 234 -10.274
111 FP1 235 -8.809
111 FP1 236 -2.950
111 FP1 237 4.374
111 FP1 238 8.769
111 FP1 239 7.792
111 FP1 240 0.956
111 FP1 241 -8.321
111 FP1 242 -14.181
111 FP1 243 -13.692
111 FP1 244 -5.880
111 FP1 245 4.862
111 FP1 246 14.140
111 FP1 247 19.511
111 FP1 248 22.929
111 FP1 249 26.835
111 FP1 250 31.718
111 FP1 251 32.694
111 FP1 252 26.347
111 FP1 253 11.210
111 FP1 254 -4.415
111 FP1 255 -13.204
# FP2 chan 1
111 FP2 0 -2.421
111 FP2 1 5.391
111 FP2 2 12.716
111 FP2 3 15.645
111 FP2 4 15.157
111 FP2 5 14.669
111 FP2 6 16.134
111 FP2 7 17.598
111 FP2 8 16.622
111 FP2 9 10.763
111 FP2 10 3.438
111 FP2 11 -2.421
111 FP2 12 -3.398
111 FP2 13 0.020
111 FP2 14 4.415
111 FP2 15 7.345
111 FP2 16 6.368
111 FP2 17 1.973
111 FP2 18 -2.909
111 FP2 19 -7.792
111 FP2 20 -9.257
111 FP2 21 -6.816
111 FP2 22 -1.444
111 FP2 23 3.438
111 FP2 24 3.927
111 FP2 25 -1.933
111 FP2 26 -12.187
111 FP2 27 -20.976
111 FP2 28 -24.394
111 FP2 29 -18.534
111 FP2 30 -5.839
111 FP2 31 7.345
111 FP2 32 14.669
111 FP2 33 13.692
111 FP2 34 6.368
111 FP2 35 -1.933
111 FP2 36 -6.327
111 FP2 37 -5.839
111 FP2 38 -1.933
111 FP2 39 3.927
111 FP2 40 9.298
111 FP2 41 11.739
111 FP2 42 9.786
111 FP2 43 2.950
111 FP2 44 -5.839
111 FP2 45 -12.187
111 FP2 46 -11.210
111 FP2 47 -3.398
111 FP2 48 7.345
111 FP2 49 13.692
111 FP2 50 12.227
111 FP2 51 2.950
111 FP2 52 -10.234
111 FP2 53 -21.952
111 FP2 54 -29.277
111 FP2 55 -30.253
111 FP2 56 -24.394
111 FP2 57 -12.187
111 FP2 58 1.485
111 FP2 59 10.274
111 FP2 60 8.321
111 FP2 61 -3.398
111 FP2 62 -19.023
111 FP2 63 -28.788
111 FP2 64 -27.323
111 FP2 65 -15.605
111 FP2 66 0.509
111 FP2 67 12.227
111 FP2 68 15.157
111 FP2 69 10.763
111 FP2 70 0.509
111 FP2 71 -11.698
111 FP2 72 -21.464
111 FP2 73 -27.323
111 FP2 74 -25.859
111 FP2 75 -16.093
111 FP2 76 -2.909
111 FP2 77 7.345
111 FP2 78 8.809
111 FP2 79 -0.468
111 FP2 80 -15.605
111 FP2 81 -30.253
111 FP2 82 -36.112
111 FP2 83 -31.230
111 FP2 84 -19.023
111 FP2 85 -5.839
111 FP2 86 1.485
111 FP2 87 0.020
111 FP2 88 -10.722
111 FP2 89 -25.370
111 FP2 90 -38.066
111 FP2 91 -43.437
111 FP2 92 -39.042
111 FP2 93 -27.812
111 FP2 94 -16.093
111 FP2 95 -9.257
111 FP2 96 -10.722
111 FP2 97 -17.558
111 FP2 98 -24.394
111 FP2 99 -27.323
111 FP2 100 -23.905
111 FP2 101 -17.069
111 FP2 102 -11.698
111 FP2 103 -9.745
111 FP2 104 -10.234
111 FP2 105 -9.745
111 FP2 106 -6.327
111 FP2 107 -0.956
111 FP2 108 3.927
111 FP2 109 4.903
111 FP2 110 0.509
111 FP2 111 -5.839
111 FP2 112 -11.210
111 FP2 113 -12.675
111 FP2 114 -10.722
111 FP2 115 -6.816
111 FP2 116 -3.398
111 FP2 117 -0.468
111 FP2 118 1.973
111 FP2 119 4.415
111 FP2 120 5.391
111 FP2 121 4.415
111 FP2 122 0.020
111 FP2 123 -5.839
111 FP2 124 -11.210
111 FP2 125 -14.140
111 FP2 126 -13.652
111 FP2 127 -11.210
111 FP2 128 -10.234
111 FP2 129 -12.187
111 FP2 130 -16.093
111 FP2 131 -17.558
111 FP2 132 -13.652
111 FP2 133 -4.374
111 FP2 134 5.880
111 FP2 135 10.763
111 FP2 136 6.368
111 FP2 137 -1.444
111 FP2 138 -5.839
111 FP2 139 -0.956
111 FP2 140 9.786
111 FP2 141 17.598
111 FP2 142 14.669
111 FP2 143 1.973
111 FP2 144 -12.187
111 FP2 145 -17.558
111 FP2 146 -10.234
111 FP2 147 5.880
111 FP2 148 20.528
111 FP2 149 27.364
111 FP2 150 24.923
111 FP2 151 18.087
111 FP2 152 12.716
111 FP2 153 11.739
111 FP2 154 14.669
111 FP2 155 16.622
111 FP2 156 14.181
111 FP2 157 6.856
111 FP2 158 -1.444
111 FP2 159 -4.374
111 FP2 160 4.415
111 FP2 161 26.876
111 FP2 162 55.684
111 FP2 163 78.634
111 FP2 164 83.028
111 FP2 165 65.450
111 FP2 166 35.665
111 FP2 167 11.251
111 FP2 168 7.345
111 FP2 169 26.388
111 FP2 170 55.684
111 FP2 171 76.192
111 FP2 172 75.704
111 FP2 173 56.661
111 FP2 174 34.688
111 FP2 175 25.411
111 FP2 176 35.665
111 FP2 177 60.567
111 FP2 178 84.005
111 FP2 179 93.282
111 FP2 180 84.493
111 FP2 181 64.962
111 FP2 182 46.895
111 FP2 183 40.548
111 FP2 184 48.360
111 FP2 185 63.009
111 FP2 186 74.727
111 FP2 187 75.216
111 FP2 188 63.985
111 FP2 189 47.384
111 FP2 190 31.270
111 FP2 191 22.481
111 FP2 192 21.993
111 FP2 193 28.341
111 FP2 194 40.548
111 FP2 195 52.755
111 FP2 196 59.591
111 FP2 197 54.708
111 FP2 198 36.641
111 FP2 199 12.227
111 FP2 200 -7.304
111 FP2 201 -13.163
111 FP2 202 -3.886
111 FP2 203 13.204
111 FP2 204 26.388
111 FP2 205 29.317
111 FP2 206 23.946
111 FP2 207 18.087
111 FP2 208 18.575
111 FP2 209 25.411
111 FP2 210 32.247
111 FP2 211 33.712
111 FP2 212 31.270
111 FP2 213 29.806
111 FP2 214 34.200
111 FP2 215 42.989
111 FP2 216 48.360
111 FP2 217 42.989
111 FP2 218 28.829
111 FP2 219 16.134
111 FP2 220 15.645
111 FP2 221 28.829
111 FP2 222 46.407
111 FP2 223 53.731
111 FP2 224 45.431
111 FP2 225 25.411
111 FP2 226 8.321
111 FP2 227 4.903
111 FP2 228 14.669
111 FP2 229 28.341
111 FP2 230 31.759
111 FP2 231 20.040
111 FP2 232 0.020
111 FP2 233 -16.581
111 FP2 234 -19.023
111 FP2 235 -5.839
111 FP2 236 13.692
111 FP2 237 27.852
111 FP2 238 28.341
111 FP2 239 13.204
111 FP2 240 -7.792
111 FP2 241 -23.417
111 FP2 242 -24.882
111 FP2 243 -11.698
111 FP2 244 6.368
111 FP2 245 21.016
111 FP2 246 25.899
111 FP2 247 23.946
111 FP2 248 20.528
111 FP2 249 18.575
111 FP2 250 18.575
111 FP2 251 16.622
111 FP2 252 12.716
111 FP2 253 9.298
111 FP2 254 10.274
111 FP2 255 16.134
# F7 chan 2
111 F7 0 8.942
111 F7 1 8.942
111 F7 2 7.965
111 F7 3 6.500
111 F7 4 5.524
111 F7 5 5.524
111 F7 6 6.989
111 F7 7 7.965
111 F7 8 8.453
111 F7 9 6.500
111 F7 10 3.082
111 F7 11 -1.312
111 F7 12 -4.242
111 F7 13 -5.707
111 F7 14 -4.730
111 F7 15 -3.265
111 F7 16 -2.777
111 F7 17 -4.242
111 F7 18 -6.683
111 F7 19 -8.636
111 F7 20 -9.125
111 F7 21 -6.683
111 F7 22 -3.265
111 F7 23 -0.824
111 F7 24 -0.824
111 F7 25 -3.265
111 F7 26 -7.660
111 F7 27 -11.566
111 F7 28 -13.519
111 F7 29 -13.031
111 F7 30 -9.613
111 F7 31 -4.730
111 F7 32 0.153
111 F7 33 2.106
111 F7 34 1.129
111 F7 35 -2.777
111 F7 36 -7.172
111 F7 37 -9.613
111 F7 38 -7.660
111 F7 39 -2.777
111 F7 40 2.594
111 F7 41 6.012
111 F7 42 6.012
111 F7 43 2.594
111 F7 44 -1.801
111 F7 45 -3.754
111 F7 46 -3.265
111 F7 47 -1.312
111 F7 48 -0.336
111 F7 49 -1.312
111 F7 50 -3.754
111 F7 51 -6.683
111 F7 52 -9.125
111 F7 53 -11.078
111 F7 54 -13.519
111 F7 55 -14.984
111 F7 56 -14.984
111 F7 57 -13.519
111 F7 58 -11.078
111 F7 59 -8.636
111 F7 60 -8.148
111 F7 61 -10.101
111 F7 62 -11.566
111 F7 63 -12.054
111 F7 64 -10.101
111 F7 65 -6.683
111 F7 66 -4.730
111 F7 67 -5.219
111 F7 68 -7.660
111 F7 69 -10.101
111 F7 70 -11.078
111 F7 71 -11.078
111 F7 72 -11.566
111 F7 73 -14.008
111 F7 74 -17.426
111 F7 75 -19.867
111 F7 76 -18.402
111 F7 77 -14.984
111 F7 78 -12.054
111 F7 79 -13.031
111 F7 80 -17.426
111 F7 81 -22.797
111 F7 82 -26.215
111 F7 83 -25.726
111 F7 84 -22.797
111 F7 85 -19.867
111 F7 86 -19.379
111 F7 87 -21.820
111 F7 88 -25.238
111 F7 89 -28.656
111 F7 90 -31.097
111 F7 91 -32.562
111 F7 92 -32.562
111 F7 93 -30.121
111 F7 94 -26.703
111 F7 95 -22.797
111 F7 96 -21.820
111 F7 97 -22.797
111 F7 98 -25.726
111 F7 99 -27.679
111 F7 100 -27.679
111 F7 101 -26.215
111 F7 102 -24.750
111 F7 103 -23.773
111 F7 104 -23.285
111 F7 105 -22.308
111 F7 106 -19.867
111 F7 107 -16.937
111 F7 108 -14.496
111 F7 109 -13.519
111 F7 110 -13.519
111 F7 111 -14.008
111 F7 112 -14.008
111 F7 113 -14.008
111 F7 114 -13.031
111 F7 115 -11.566
111 F7 116 -9.613
111 F7 117 -7.172
111 F7 118 -5.219
111 F7 119 -3.754
111 F7 120 -2.777
111 F7 121 -2.777
111 F7 122 -3.754
111 F7 123 -5.219
111 F7 124 -7.172
111 F7 125 -8.636
111 F7 126 -10.101
111 F7 127 -11.078
111 F7 128 -12.054
111 F7 129 -13.031
111 F7 130 -13.031
111 F7 131 -12.054
111 F7 132 -10.590
111 F7 133 -8.148
111 F7 134 -5.707
111 F7 135 -3.265
111 F7 136 -2.289
111 F7 137 -3.265
111 F7 138 -5.707
111 F7 139 -8.636
111 F7 140 -10.590
111 F7 141 -9.613
111 F7 142 -8.148
111 F7 143 -7.172
111 F7 144 -7.660
111 F7 145 -9.125
111 F7 146 -8.636
111 F7 147 -5.219
111 F7 148 -0.336
111 F7 149 4.059
111 F7 150 5.524
111 F7 151 4.547
111 F7 152 3.571
111 F7 153 4.547
111 F7 154 7.965
111 F7 155 11.871
111 F7 156 13.336
111 F7 157 11.871
111 F7 158 8.453
111 F7 159 6.500
111 F7 160 8.453
111 F7 161 14.313
111 F7 162 22.614
111 F7 163 29.938
111 F7 164 34.332
111 F7 165 34.332
111 F7 166 30.914
111 F7 167 25.543
111 F7 168 21.637
111 F7 169 20.660
111 F7 170 23.102
111 F7 171 27.496
111 F7 172 30.426
111 F7 173 29.938
111 F7 174 25.543
111 F7 175 19.196
111 F7 176 15.778
111 F7 177 16.754
111 F7 178 23.102
111 F7 179 28.961
111 F7 180 30.914
111 F7 181 27.985
111 F7 182 22.125
111 F7 183 18.219
111 F7 184 18.707
111 F7 185 24.078
111 F7 186 30.426
111 F7 187 32.867
111 F7 188 30.914
111 F7 189 25.055
111 F7 190 19.684
111 F7 191 16.754
111 F7 192 17.242
111 F7 193 18.707
111 F7 194 20.660
111 F7 195 22.125
111 F7 196 23.590
111 F7 197 23.590
111 F7 198 20.660
111 F7 199 14.801
111 F7 200 7.965
111 F7 201 3.082
111 F7 202 2.594
111 F7 203 5.035
111 F7 204 7.965
111 F7 205 8.942
111 F7 206 8.942
111 F7 207 10.406
111 F7 208 14.313
111 F7 209 20.172
111 F7 210 24.078
111 F7 211 24.078
111 F7 212 20.660
111 F7 213 16.266
111 F7 214 14.801
111 F7 215 16.266
111 F7 216 18.219
111 F7 217 18.219
111 F7 218 16.754
111 F7 219 15.778
111 F7 220 17.242
111 F7 221 20.660
111 F7 222 23.590
111 F7 223 21.637
111 F7 224 15.289
111 F7 225 7.477
111 F7 226 2.594
111 F7 227 2.594
111 F7 228 5.035
111 F7 229 6.989
111 F7 230 5.035
111 F7 231 0.641
111 F7 232 -2.777
111 F7 233 -2.777
111 F7 234 2.106
111 F7 235 9.430
111 F7 236 14.801
111 F7 237 16.754
111 F7 238 16.266
111 F7 239 15.289
111 F7 240 13.336
111 F7 241 11.871
111 F7 242 9.430
111 F7 243 6.989
111 F7 244 5.524
111 F7 245 6.989
111 F7 246 10.895
111 F7 247 15.289
111 F7 248 17.731
111 F7 249 15.778
111 F7 250 10.895
111 F7 251 5.524
111 F7 252 2.106
111 F7 253 1.129
111 F7 254 2.594
111 F7 255 4.547
# F8 chan 3
111 F8 0 7.050
111 F8 1 7.538
111 F8 2 6.561
111 F8 3 4.608
111 F8 4 3.143
111 F8 5 4.608
111 F8 6 10.468
111 F8 7 15.839
111 F8 8 17.303
111 F8 9 11.932
111 F8 10 1.190
111 F8 11 -9.552
111 F8 12 -14.923
111 F8 13 -13.947
111 F8 14 -8.087
111 F8 15 -2.228
111 F8 16 0.702
111 F8 17 -1.740
111 F8 18 -7.111
111 F8 19 -12.482
111 F8 20 -14.923
111 F8 21 -12.970
111 F8 22 -9.552
111 F8 23 -6.622
111 F8 24 -6.622
111 F8 25 -9.552
111 F8 26 -11.505
111 F8 27 -11.993
111 F8 28 -9.064
111 F8 29 -5.157
111 F8 30 -1.740
111 F8 31 0.702
111 F8 32 2.167
111 F8 33 3.632
111 F8 34 4.608
111 F8 35 6.073
111 F8 36 6.073
111 F8 37 5.585
111 F8 38 6.073
111 F8 39 7.538
111 F8 40 10.956
111 F8 41 13.397
111 F8 42 11.932
111 F8 43 5.096
111 F8 44 -4.669
111 F8 45 -11.993
111 F8 46 -12.970
111 F8 47 -7.111
111 F8 48 0.702
111 F8 49 4.608
111 F8 50 3.143
111 F8 51 -2.716
111 F8 52 -9.064
111 F8 53 -13.458
111 F8 54 -16.388
111 F8 55 -18.829
111 F8 56 -20.782
111 F8 57 -20.294
111 F8 58 -15.900
111 F8 59 -9.552
111 F8 60 -3.693
111 F8 61 -1.740
111 F8 62 -3.204
111 F8 63 -5.157
111 F8 64 -4.181
111 F8 65 -1.251
111 F8 66 2.167
111 F8 67 3.632
111 F8 68 3.632
111 F8 69 2.655
111 F8 70 1.678
111 F8 71 0.214
111 F8 72 -1.740
111 F8 73 -4.669
111 F8 74 -6.622
111 F8 75 -4.669
111 F8 76 -0.763
111 F8 77 1.190
111 F8 78 -2.228
111 F8 79 -9.552
111 F8 80 -17.853
111 F8 81 -22.247
111 F8 82 -20.782
111 F8 83 -16.876
111 F8 84 -13.458
111 F8 85 -12.970
111 F8 86 -13.458
111 F8 87 -13.458
111 F8 88 -12.970
111 F8 89 -14.923
111 F8 90 -20.782
111 F8 91 -28.595
111 F8 92 -32.990
111 F8 93 -32.013
111 F8 94 -24.689
111 F8 95 -15.411
111 F8 96 -10.040
111 F8 97 -10.040
111 F8 98 -12.482
111 F8 99 -13.947
111 F8 100 -12.970
111 F8 101 -10.040
111 F8 102 -9.064
111 F8 103 -9.552
111 F8 104 -10.529
111 F8 105 -9.552
111 F8 106 -6.622
111 F8 107 -1.740
111 F8 108 1.190
111 F8 109 2.167
111 F8 110 3.143
111 F8 111 5.585
111 F8 112 8.514
111 F8 113 10.956
111 F8 114 10.956
111 F8 115 8.026
111 F8 116 5.585
111 F8 117 4.608
111 F8 118 6.073
111 F8 119 8.514
111 F8 120 10.956
111 F8 121 11.444
111 F8 122 10.956
111 F8 123 9.003
111 F8 124 5.096
111 F8 125 0.214
111 F8 126 -5.157
111 F8 127 -9.064
111 F8 128 -11.993
111 F8 129 -14.435
111 F8 130 -17.853
111 F8 131 -20.782
111 F8 132 -20.294
111 F8 133 -15.411
111 F8 134 -8.575
111 F8 135 -4.181
111 F8 136 -4.669
111 F8 137 -8.575
111 F8 138 -11.505
111 F8 139 -9.552
111 F8 140 -4.181
111 F8 141 1.190
111 F8 142 1.678
111 F8 143 -3.693
111 F8 144 -9.064
111 F8 145 -10.040
111 F8 146 -4.669
111 F8 147 5.096
111 F8 148 13.397
111 F8 149 17.303
111 F8 150 16.327
111 F8 151 13.397
111 F8 152 11.932
111 F8 153 11.932
111 F8 154 12.421
111 F8 155 11.932
111 F8 156 9.003
111 F8 157 4.120
111 F8 158 -1.740
111 F8 159 -6.622
111 F8 160 -8.087
111 F8 161 -5.157
111 F8 162 1.678
111 F8 163 9.491
111 F8 164 12.909
111 F8 165 10.468
111 F8 166 2.167
111 F8 167 -7.599
111 F8 168 -13.458
111 F8 169 -13.458
111 F8 170 -9.064
111 F8 171 -2.228
111 F8 172 4.608
111 F8 173 8.514
111 F8 174 9.979
111 F8 175 8.026
111 F8 176 4.120
111 F8 177 1.190
111 F8 178 1.678
111 F8 179 5.585
111 F8 180 9.979
111 F8 181 12.421
111 F8 182 10.956
111 F8 183 9.003
111 F8 184 8.514
111 F8 185 9.491
111 F8 186 10.468
111 F8 187 9.003
111 F8 188 5.096
111 F8 189 1.190
111 F8 190 0.702
111 F8 191 4.608
111 F8 192 10.468
111 F8 193 13.885
111 F8 194 13.885
111 F8 195 11.444
111 F8 196 8.514
111 F8 197 5.585
111 F8 198 1.678
111 F8 199 -5.157
111 F8 200 -14.435
111 F8 201 -22.247
111 F8 202 -24.689
111 F8 203 -21.271
111 F8 204 -15.411
111 F8 205 -11.505
111 F8 206 -11.993
111 F8 207 -14.435
111 F8 208 -14.923
111 F8 209 -12.482
111 F8 210 -8.087
111 F8 211 -5.646
111 F8 212 -5.157
111 F8 213 -4.669
111 F8 214 -0.763
111 F8 215 6.073
111 F8 216 11.932
111 F8 217 12.909
111 F8 218 8.514
111 F8 219 3.143
111 F8 220 2.655
111 F8 221 8.026
111 F8 222 15.839
111 F8 223 19.745
111 F8 224 16.815
111 F8 225 9.003
111 F8 226 3.143
111 F8 227 3.143
111 F8 228 7.050
111 F8 229 9.491
111 F8 230 5.585
111 F8 231 -5.157
111 F8 232 -16.388
111 F8 233 -20.294
111 F8 234 -13.947
111 F8 235 -0.275
111 F8 236 12.909
111 F8 237 18.280
111 F8 238 13.885
111 F8 239 1.678
111 F8 240 -11.505
111 F8 241 -18.829
111 F8 242 -18.341
111 F8 243 -12.482
111 F8 244 -6.622
111 F8 245 -3.693
111 F8 246 -4.181
111 F8 247 -4.181
111 F8 248 -2.716
111 F8 249 -0.763
111 F8 250 -2.228
111 F8 251 -8.575
111 F8 252 -17.365
111 F8 253 -22.247
111 F8 254 -18.341
111 F8 255 -8.087
# AF1 chan 4
111 AF1 0 6.917
111 AF1 1 3.499
111 AF1 2 2.523
111 AF1 3 3.988
111 AF1 4 4.964
111 AF1 5 5.452
111 AF1 6 5.941
111 AF1 7 7.406
111 AF1 8 10.335
111 AF1 9 11.312
111 AF1 10 10.335
111 AF1 11 6.429
111 AF1 12 1.546
111 AF1 13 -1.383
111 AF1 14 -2.848
111 AF1 15 -2.848
111 AF1 16 -3.337
111 AF1 17 -5.290
111 AF1 18 -7.243
111 AF1 19 -7.731
111 AF1 20 -6.266
111 AF1 21 -2.360
111 AF1 22 0.081
111 AF1 23 0.081
111 AF1 24 -2.848
111 AF1 25 -5.778
111 AF1 26 -8.219
111 AF1 27 -9.684
111 AF1 28 -11.637
111 AF1 29 -15.055
111 AF1 30 -16.520
111 AF1 31 -12.614
111 AF1 32 -2.848
111 AF1 33 7.406
111 AF1 34 12.288
111 AF1 35 6.429
111 AF1 36 -5.778
111 AF1 37 -16.032
111 AF1 38 -15.544
111 AF1 39 -4.313
111 AF1 40 8.870
111 AF1 41 15.218
111 AF1 42 9.847
111 AF1 43 -1.872
111 AF1 44 -11.149
111 AF1 45 -12.614
111 AF1 46 -7.731
111 AF1 47 -3.337
111 AF1 48 -3.825
111 AF1 49 -7.243
111 AF1 50 -8.708
111 AF1 51 -5.778
111 AF1 52 -0.895
111 AF1 53 -0.407
111 AF1 54 -5.778
111 AF1 55 -14.079
111 AF1 56 -18.473
111 AF1 57 -16.520
111 AF1 58 -10.173
111 AF1 59 -5.290
111 AF1 60 -6.266
111 AF1 61 -10.661
111 AF1 62 -14.567
111 AF1 63 -13.590
111 AF1 64 -7.243
111 AF1 65 0.081
111 AF1 66 3.499
111 AF1 67 0.570
111 AF1 68 -7.243
111 AF1 69 -15.055
111 AF1 70 -18.473
111 AF1 71 -16.520
111 AF1 72 -12.614
111 AF1 73 -12.614
111 AF1 74 -18.473
111 AF1 75 -25.798
111 AF1 76 -29.215
111 AF1 77 -25.798
111 AF1 78 -17.985
111 AF1 79 -12.126
111 AF1 80 -13.102
111 AF1 81 -18.473
111 AF1 82 -21.891
111 AF1 83 -20.426
111 AF1 84 -16.032
111 AF1 85 -14.079
111 AF1 86 -19.450
111 AF1 87 -28.239
111 AF1 88 -35.563
111 AF1 89 -35.563
111 AF1 90 -28.239
111 AF1 91 -19.450
111 AF1 92 -13.590
111 AF1 93 -13.590
111 AF1 94 -17.008
111 AF1 95 -20.426
111 AF1 96 -22.380
111 AF1 97 -22.380
111 AF1 98 -21.891
111 AF1 99 -21.891
111 AF1 100 -21.891
111 AF1 101 -20.426
111 AF1 102 -17.008
111 AF1 103 -12.614
111 AF1 104 -9.684
111 AF1 105 -8.708
111 AF1 106 -10.661
111 AF1 107 -11.149
111 AF1 108 -11.149
111 AF1 109 -9.684
111 AF1 110 -9.684
111 AF1 111 -12.126
111 AF1 112 -17.008
111 AF1 113 -21.891
111 AF1 114 -22.868
111 AF1 115 -19.450
111 AF1 116 -14.079
111 AF1 117 -10.173
111 AF1 118 -9.684
111 AF1 119 -12.126
111 AF1 120 -14.079
111 AF1 121 -13.102
111 AF1 122 -10.661
111 AF1 123 -8.219
111 AF1 124 -8.219
111 AF1 125 -12.126
111 AF1 126 -17.008
111 AF1 127 -20.915
111 AF1 128 -20.915
111 AF1 129 -16.520
111 AF1 130 -8.708
111 AF1 131 -0.407
111 AF1 132 5.941
111 AF1 133 9.847
111 AF1 134 9.847
111 AF1 135 8.382
111 AF1 136 6.917
111 AF1 137 5.941
111 AF1 138 4.476
111 AF1 139 2.523
111 AF1 140 0.570
111 AF1 141 0.081
111 AF1 142 1.058
111 AF1 143 2.035
111 AF1 144 0.570
111 AF1 145 -3.825
111 AF1 146 -8.708
111 AF1 147 -10.173
111 AF1 148 -7.731
111 AF1 149 -4.801
111 AF1 150 -4.313
111 AF1 151 -7.731
111 AF1 152 -11.637
111 AF1 153 -11.637
111 AF1 154 -6.755
111 AF1 155 1.546
111 AF1 156 6.917
111 AF1 157 7.894
111 AF1 158 4.964
111 AF1 159 2.035
111 AF1 160 2.035
111 AF1 161 6.917
111 AF1 162 16.683
111 AF1 163 30.355
111 AF1 164 43.538
111 AF1 165 52.327
111 AF1 166 51.351
111 AF1 167 40.120
111 AF1 168 24.984
111 AF1 169 17.171
111 AF1 170 22.542
111 AF1 171 39.144
111 AF1 172 54.769
111 AF1 173 59.163
111 AF1 174 48.421
111 AF1 175 33.285
111 AF1 176 26.937
111 AF1 177 36.702
111 AF1 178 55.257
111 AF1 179 67.952
111 AF1 180 63.558
111 AF1 181 44.515
111 AF1 182 24.984
111 AF1 183 19.613
111 AF1 184 30.843
111 AF1 185 48.421
111 AF1 186 58.675
111 AF1 187 53.304
111 AF1 188 35.726
111 AF1 189 16.683
111 AF1 190 5.941
111 AF1 191 5.452
111 AF1 192 9.847
111 AF1 193 14.242
111 AF1 194 17.171
111 AF1 195 19.613
111 AF1 196 21.566
111 AF1 197 20.589
111 AF1 198 14.242
111 AF1 199 2.523
111 AF1 200 -7.243
111 AF1 201 -9.196
111 AF1 202 -1.383
111 AF1 203 11.312
111 AF1 204 20.101
111 AF1 205 19.613
111 AF1 206 13.753
111 AF1 207 9.847
111 AF1 208 14.242
111 AF1 209 25.472
111 AF1 210 37.191
111 AF1 211 42.074
111 AF1 212 39.144
111 AF1 213 32.796
111 AF1 214 29.378
111 AF1 215 29.378
111 AF1 216 29.378
111 AF1 217 25.472
111 AF1 218 17.171
111 AF1 219 11.312
111 AF1 220 13.265
111 AF1 221 23.031
111 AF1 222 34.261
111 AF1 223 37.679
111 AF1 224 28.890
111 AF1 225 10.335
111 AF1 226 -7.731
111 AF1 227 -16.520
111 AF1 228 -14.079
111 AF1 229 -4.801
111 AF1 230 3.988
111 AF1 231 5.941
111 AF1 232 0.570
111 AF1 233 -8.219
111 AF1 234 -15.055
111 AF1 235 -17.497
111 AF1 236 -15.055
111 AF1 237 -9.684
111 AF1 238 -3.337
111 AF1 239 2.523
111 AF1 240 5.452
111 AF1 241 3.499
111 AF1 242 -1.872
111 AF1 243 -7.731
111 AF1 244 -7.731
111 AF1 245 2.035
111 AF1 246 18.636
111 AF1 247 34.261
111 AF1 248 40.120
111 AF1 249 33.285
111 AF1 250 17.660
111 AF1 251 3.011
111 AF1 252 -2.848
111 AF1 253 2.035
111 AF1 254 12.777
111 AF1 255 22.054
# AF2 chan 5
111 AF2 0 6.561
111 AF2 1 9.003
111 AF2 2 9.491
111 AF2 3 9.003
111 AF2 4 8.026
111 AF2 5 7.538
111 AF2 6 8.026
111 AF2 7 8.514
111 AF2 8 9.979
111 AF2 9 11.444
111 AF2 10 12.909
111 AF2 11 12.421
111 AF2 12 9.979
111 AF2 13 5.585
111 AF2 14 0.702
111 AF2 15 -3.204
111 AF2 16 -4.669
111 AF2 17 -4.669
111 AF2 18 -3.204
111 AF2 19 -1.251
111 AF2 20 -0.275
111 AF2 21 -0.275
111 AF2 22 -1.740
111 AF2 23 -5.157
111 AF2 24 -8.575
111 AF2 25 -11.993
111 AF2 26 -14.435
111 AF2 27 -14.435
111 AF2 28 -12.970
111 AF2 29 -10.040
111 AF2 30 -7.111
111 AF2 31 -4.181
111 AF2 32 -1.251
111 AF2 33 0.214
111 AF2 34 1.190
111 AF2 35 1.678
111 AF2 36 2.167
111 AF2 37 3.143
111 AF2 38 4.120
111 AF2 39 5.585
111 AF2 40 6.073
111 AF2 41 7.050
111 AF2 42 7.050
111 AF2 43 5.585
111 AF2 44 2.655
111 AF2 45 -0.763
111 AF2 46 -3.693
111 AF2 47 -5.646
111 AF2 48 -6.134
111 AF2 49 -5.157
111 AF2 50 -4.181
111 AF2 51 -3.204
111 AF2 52 -3.204
111 AF2 53 -5.646
111 AF2 54 -9.552
111 AF2 55 -12.970
111 AF2 56 -15.411
111 AF2 57 -14.923
111 AF2 58 -12.482
111 AF2 59 -9.552
111 AF2 60 -8.087
111 AF2 61 -6.622
111 AF2 62 -5.646
111 AF2 63 -4.181
111 AF2 64 -2.716
111 AF2 65 -3.693
111 AF2 66 -5.157
111 AF2 67 -7.111
111 AF2 68 -7.111
111 AF2 69 -6.134
111 AF2 70 -4.181
111 AF2 71 -4.669
111 AF2 72 -8.575
111 AF2 73 -15.411
111 AF2 74 -20.782
111 AF2 75 -20.782
111 AF2 76 -15.411
111 AF2 77 -9.064
111 AF2 78 -6.134
111 AF2 79 -9.064
111 AF2 80 -15.900
111 AF2 81 -20.294
111 AF2 82 -20.294
111 AF2 83 -15.900
111 AF2 84 -11.993
111 AF2 85 -12.482
111 AF2 86 -15.411
111 AF2 87 -18.829
111 AF2 88 -20.294
111 AF2 89 -20.782
111 AF2 90 -20.782
111 AF2 91 -22.247
111 AF2 92 -25.177
111 AF2 93 -27.130
111 AF2 94 -27.130
111 AF2 95 -24.689
111 AF2 96 -20.294
111 AF2 97 -14.435
111 AF2 98 -9.552
111 AF2 99 -6.622
111 AF2 100 -7.111
111 AF2 101 -9.552
111 AF2 102 -11.993
111 AF2 103 -11.993
111 AF2 104 -9.552
111 AF2 105 -6.622
111 AF2 106 -6.134
111 AF2 107 -8.087
111 AF2 108 -11.017
111 AF2 109 -11.017
111 AF2 110 -7.111
111 AF2 111 -1.251
111 AF2 112 3.143
111 AF2 113 3.143
111 AF2 114 -0.763
111 AF2 115 -7.111
111 AF2 116 -12.482
111 AF2 117 -14.923
111 AF2 118 -14.435
111 AF2 119 -11.505
111 AF2 120 -7.111
111 AF2 121 -2.228
111 AF2 122 0.214
111 AF2 123 -0.275
111 AF2 124 -4.669
111 AF2 125 -10.040
111 AF2 126 -14.923
111 AF2 127 -17.853
111 AF2 128 -19.318
111 AF2 129 -18.829
111 AF2 130 -15.411
111 AF2 131 -9.064
111 AF2 132 -0.275
111 AF2 133 8.514
111 AF2 134 12.421
111 AF2 135 9.491
111 AF2 136 2.167
111 AF2 137 -5.157
111 AF2 138 -7.111
111 AF2 139 -3.204
111 AF2 140 4.120
111 AF2 141 8.514
111 AF2 142 7.538
111 AF2 143 1.190
111 AF2 144 -5.646
111 AF2 145 -9.064
111 AF2 146 -8.087
111 AF2 147 -4.669
111 AF2 148 -1.740
111 AF2 149 -1.740
111 AF2 150 -3.204
111 AF2 151 -3.693
111 AF2 152 -1.740
111 AF2 153 0.214
111 AF2 154 1.678
111 AF2 155 1.678
111 AF2 156 1.678
111 AF2 157 3.632
111 AF2 158 8.026
111 AF2 159 11.932
111 AF2 160 14.862
111 AF2 161 16.327
111 AF2 162 18.768
111 AF2 163 23.651
111 AF2 164 30.487
111 AF2 165 35.858
111 AF2 166 35.858
111 AF2 167 29.510
111 AF2 168 19.745
111 AF2 169 12.909
111 AF2 170 13.397
111 AF2 171 21.210
111 AF2 172 31.464
111 AF2 173 37.811
111 AF2 174 37.323
111 AF2 175 32.440
111 AF2 176 28.534
111 AF2 177 29.999
111 AF2 178 37.811
111 AF2 179 46.112
111 AF2 180 48.553
111 AF2 181 42.206
111 AF2 182 30.487
111 AF2 183 20.721
111 AF2 184 19.257
111 AF2 185 26.093
111 AF2 186 34.393
111 AF2 187 37.323
111 AF2 188 32.928
111 AF2 189 23.651
111 AF2 190 16.327
111 AF2 191 12.909
111 AF2 192 13.397
111 AF2 193 13.397
111 AF2 194 12.421
111 AF2 195 11.932
111 AF2 196 14.374
111 AF2 197 17.303
111 AF2 198 16.815
111 AF2 199 8.026
111 AF2 200 -6.622
111 AF2 201 -19.806
111 AF2 202 -22.247
111 AF2 203 -11.993
111 AF2 204 4.608
111 AF2 205 16.327
111 AF2 206 16.815
111 AF2 207 8.514
111 AF2 208 0.214
111 AF2 209 -0.275
111 AF2 210 8.514
111 AF2 211 21.210
111 AF2 212 30.975
111 AF2 213 33.417
111 AF2 214 30.487
111 AF2 215 25.116
111 AF2 216 21.210
111 AF2 217 18.280
111 AF2 218 16.815
111 AF2 219 17.792
111 AF2 220 21.698
111 AF2 221 28.046
111 AF2 222 32.440
111 AF2 223 29.510
111 AF2 224 18.768
111 AF2 225 4.120
111 AF2 226 -6.134
111 AF2 227 -7.111
111 AF2 228 0.214
111 AF2 229 8.026
111 AF2 230 9.003
111 AF2 231 0.702
111 AF2 232 -10.529
111 AF2 233 -17.853
111 AF2 234 -16.876
111 AF2 235 -9.552
111 AF2 236 -3.204
111 AF2 237 -2.716
111 AF2 238 -8.575
111 AF2 239 -16.388
111 AF2 240 -20.294
111 AF2 241 -17.853
111 AF2 242 -10.529
111 AF2 243 -2.228
111 AF2 244 4.608
111 AF2 245 9.003
111 AF2 246 11.444
111 AF2 247 11.932
111 AF2 248 11.444
111 AF2 249 9.979
111 AF2 250 8.026
111 AF2 251 7.050
111 AF2 252 7.538
111 AF2 253 7.538
111 AF2 254 8.514
111 AF2 255 9.491
# FZ chan 6
111 FZ 0 5.168
111 FZ 1 7.121
111 FZ 2 8.097
111 FZ 3 8.586
111 FZ 4 8.586
111 FZ 5 8.586
111 FZ 6 7.121
111 FZ 7 5.656
111 FZ 8 4.679
111 FZ 9 4.679
111 FZ 10 5.656
111 FZ 11 7.609
111 FZ 12 8.586
111 FZ 13 8.097
111 FZ 14 5.168
111 FZ 15 1.750
111 FZ 16 -1.668
111 FZ 17 -2.645
111 FZ 18 -1.668
111 FZ 19 0.285
111 FZ 20 1.750
111 FZ 21 0.773
111 FZ 22 -2.157
111 FZ 23 -5.086
111 FZ 24 -7.528
111 FZ 25 -8.504
111 FZ 26 -8.504
111 FZ 27 -8.016
111 FZ 28 -6.551
111 FZ 29 -4.598
111 FZ 30 -2.157
111 FZ 31 -0.203
111 FZ 32 0.773
111 FZ 33 0.773
111 FZ 34 0.773
111 FZ 35 1.261
111 FZ 36 2.726
111 FZ 37 4.679
111 FZ 38 5.656
111 FZ 39 6.632
111 FZ 40 6.144
111 FZ 41 5.168
111 FZ 42 4.191
111 FZ 43 3.215
111 FZ 44 2.726
111 FZ 45 2.238
111 FZ 46 1.750
111 FZ 47 0.285
111 FZ 48 -2.645
111 FZ 49 -5.086
111 FZ 50 -6.551
111 FZ 51 -6.551
111 FZ 52 -4.598
111 FZ 53 -2.645
111 FZ 54 -1.668
111 FZ 55 -2.645
111 FZ 56 -5.086
111 FZ 57 -7.528
111 FZ 58 -8.993
111 FZ 59 -8.993
111 FZ 60 -7.039
111 FZ 61 -4.110
111 FZ 62 -1.668
111 FZ 63 -0.203
111 FZ 64 -0.692
111 FZ 65 -3.133
111 FZ 66 -6.063
111 FZ 67 -8.016
111 FZ 68 -8.016
111 FZ 69 -7.039
111 FZ 70 -6.551
111 FZ 71 -8.016
111 FZ 72 -12.410
111 FZ 73 -17.293
111 FZ 74 -21.200
111 FZ 75 -21.200
111 FZ 76 -18.270
111 FZ 77 -13.875
111 FZ 78 -10.946
111 FZ 79 -10.457
111 FZ 80 -10.946
111 FZ 81 -11.922
111 FZ 82 -11.434
111 FZ 83 -10.946
111 FZ 84 -11.434
111 FZ 85 -13.387
111 FZ 86 -15.828
111 FZ 87 -16.805
111 FZ 88 -15.340
111 FZ 89 -12.899
111 FZ 90 -10.946
111 FZ 91 -10.946
111 FZ 92 -12.410
111 FZ 93 -14.852
111 FZ 94 -16.317
111 FZ 95 -15.340
111 FZ 96 -13.387
111 FZ 97 -10.946
111 FZ 98 -8.016
111 FZ 99 -6.063
111 FZ 100 -5.086
111 FZ 101 -5.575
111 FZ 102 -7.039
111 FZ 103 -8.016
111 FZ 104 -8.016
111 FZ 105 -6.551
111 FZ 106 -5.575
111 FZ 107 -5.575
111 FZ 108 -8.016
111 FZ 109 -11.434
111 FZ 110 -13.875
111 FZ 111 -13.387
111 FZ 112 -9.969
111 FZ 113 -6.063
111 FZ 114 -5.575
111 FZ 115 -7.528
111 FZ 116 -11.922
111 FZ 117 -15.340
111 FZ 118 -15.828
111 FZ 119 -14.852
111 FZ 120 -13.387
111 FZ 121 -12.899
111 FZ 122 -13.387
111 FZ 123 -12.899
111 FZ 124 -11.434
111 FZ 125 -8.504
111 FZ 126 -6.063
111 FZ 127 -5.086
111 FZ 128 -5.575
111 FZ 129 -6.063
111 FZ 130 -5.575
111 FZ 131 -2.645
111 FZ 132 0.773
111 FZ 133 4.191
111 FZ 134 5.656
111 FZ 135 6.144
111 FZ 136 5.168
111 FZ 137 4.679
111 FZ 138 4.191
111 FZ 139 3.703
111 FZ 140 2.726
111 FZ 141 0.773
111 FZ 142 -0.692
111 FZ 143 -2.645
111 FZ 144 -3.621
111 FZ 145 -5.086
111 FZ 146 -7.039
111 FZ 147 -9.969
111 FZ 148 -12.899
111 FZ 149 -14.364
111 FZ 150 -13.387
111 FZ 151 -10.457
111 FZ 152 -8.016
111 FZ 153 -6.551
111 FZ 154 -6.063
111 FZ 155 -4.598
111 FZ 156 -0.692
111 FZ 157 5.656
111 FZ 158 12.492
111 FZ 159 16.398
111 FZ 160 15.910
111 FZ 161 12.980
111 FZ 162 10.050
111 FZ 163 10.050
111 FZ 164 13.957
111 FZ 165 19.328
111 FZ 166 23.234
111 FZ 167 22.746
111 FZ 168 18.840
111 FZ 169 12.980
111 FZ 170 9.074
111 FZ 171 9.074
111 FZ 172 12.004
111 FZ 173 17.863
111 FZ 174 23.722
111 FZ 175 26.164
111 FZ 176 24.699
111 FZ 177 19.816
111 FZ 178 13.957
111 FZ 179 10.539
111 FZ 180 12.004
111 FZ 181 16.886
111 FZ 182 21.281
111 FZ 183 21.769
111 FZ 184 16.398
111 FZ 185 8.586
111 FZ 186 2.726
111 FZ 187 2.726
111 FZ 188 7.609
111 FZ 189 13.468
111 FZ 190 16.886
111 FZ 191 15.422
111 FZ 192 10.050
111 FZ 193 4.191
111 FZ 194 -0.692
111 FZ 195 -4.110
111 FZ 196 -6.063
111 FZ 197 -7.528
111 FZ 198 -7.528
111 FZ 199 -7.039
111 FZ 200 -6.063
111 FZ 201 -5.086
111 FZ 202 -5.086
111 FZ 203 -5.575
111 FZ 204 -4.598
111 FZ 205 -1.668
111 FZ 206 3.215
111 FZ 207 9.074
111 FZ 208 14.445
111 FZ 209 18.351
111 FZ 210 20.304
111 FZ 211 21.281
111 FZ 212 22.257
111 FZ 213 23.234
111 FZ 214 22.746
111 FZ 215 20.793
111 FZ 216 18.351
111 FZ 217 15.910
111 FZ 218 14.445
111 FZ 219 13.468
111 FZ 220 12.980
111 FZ 221 11.027
111 FZ 222 7.609
111 FZ 223 2.726
111 FZ 224 -1.668
111 FZ 225 -4.598
111 FZ 226 -5.086
111 FZ 227 -5.086
111 FZ 228 -6.063
111 FZ 229 -8.504
111 FZ 230 -13.387
111 FZ 231 -16.805
111 FZ 232 -19.246
111 FZ 233 -18.270
111 FZ 234 -16.317
111 FZ 235 -14.364
111 FZ 236 -13.387
111 FZ 237 -13.875
111 FZ 238 -14.852
111 FZ 239 -14.852
111 FZ 240 -12.899
111 FZ 241 -8.504
111 FZ 242 -2.645
111 FZ 243 2.726
111 FZ 244 6.632
111 FZ 245 8.097
111 FZ 246 7.609
111 FZ 247 6.632
111 FZ 248 5.168
111 FZ 249 5.168
111 FZ 250 5.168
111 FZ 251 5.656
111 FZ 252 6.144
111 FZ 253 6.632
111 FZ 254 7.609
111 FZ 255 7.609
# F4 chan 7
111 F4 0 6.643
111 F4 1 3.713
111 F4 2 2.736
111 F4 3 5.666
111 F4 4 11.037
111 F4 5 16.408
111 F4 6 18.850
111 F4 7 16.897
111 F4 8 12.990
111 F4 9 9.084
111 F4 10 6.643
111 F4 11 5.666
111 F4 12 4.690
111 F4 13 3.225
111 F4 14 0.783
111 F4 15 -2.146
111 F4 16 -3.611
111 F4 17 -4.100
111 F4 18 -3.611
111 F4 19 -3.123
111 F4 20 -4.588
111 F4 21 -6.541
111 F4 22 -8.982
111 F4 23 -9.959
111 F4 24 -9.471
111 F4 25 -7.517
111 F4 26 -6.053
111 F4 27 -5.076
111 F4 28 -5.564
111 F4 29 -5.076
111 F4 30 -4.588
111 F4 31 -2.635
111 F4 32 0.295
111 F4 33 2.736
111 F4 34 5.178
111 F4 35 7.131
111 F4 36 8.108
111 F4 37 9.572
111 F4 38 10.549
111 F4 39 10.549
111 F4 40 9.084
111 F4 41 6.154
111 F4 42 3.225
111 F4 43 2.736
111 F4 44 5.666
111 F4 45 10.061
111 F4 46 13.967
111 F4 47 12.990
111 F4 48 6.643
111 F4 49 -3.123
111 F4 50 -12.400
111 F4 51 -16.795
111 F4 52 -15.330
111 F4 53 -11.912
111 F4 54 -8.006
111 F4 55 -6.541
111 F4 56 -8.006
111 F4 57 -11.424
111 F4 58 -14.353
111 F4 59 -14.842
111 F4 60 -12.400
111 F4 61 -8.494
111 F4 62 -4.588
111 F4 63 -2.146
111 F4 64 -2.146
111 F4 65 -2.146
111 F4 66 -2.635
111 F4 67 -1.658
111 F4 68 -1.170
111 F4 69 -1.658
111 F4 70 -4.100
111 F4 71 -6.053
111 F4 72 -7.517
111 F4 73 -7.029
111 F4 74 -8.006
111 F4 75 -8.982
111 F4 76 -10.935
111 F4 77 -10.935
111 F4 78 -8.494
111 F4 79 -4.588
111 F4 80 -2.146
111 F4 81 -2.146
111 F4 82 -5.564
111 F4 83 -10.447
111 F4 84 -15.330
111 F4 85 -18.748
111 F4 86 -20.213
111 F4 87 -19.236
111 F4 88 -15.818
111 F4 89 -10.935
111 F4 90 -6.541
111 F4 91 -6.053
111 F4 92 -9.959
111 F4 93 -16.307
111 F4 94 -22.166
111 F4 95 -24.607
111 F4 96 -22.654
111 F4 97 -16.795
111 F4 98 -10.935
111 F4 99 -7.029
111 F4 100 -5.076
111 F4 101 -4.588
111 F4 102 -4.100
111 F4 103 -3.611
111 F4 104 -2.146
111 F4 105 -1.658
111 F4 106 -0.682
111 F4 107 -0.682
111 F4 108 -0.682
111 F4 109 -0.193
111 F4 110 2.248
111 F4 111 6.154
111 F4 112 11.037
111 F4 113 12.990
111 F4 114 10.549
111 F4 115 3.225
111 F4 116 -4.588
111 F4 117 -9.471
111 F4 118 -8.006
111 F4 119 -3.123
111 F4 120 0.783
111 F4 121 1.272
111 F4 122 -0.682
111 F4 123 -1.658
111 F4 124 -0.682
111 F4 125 1.760
111 F4 126 1.272
111 F4 127 -3.123
111 F4 128 -9.471
111 F4 129 -13.377
111 F4 130 -12.400
111 F4 131 -8.982
111 F4 132 -5.564
111 F4 133 -5.564
111 F4 134 -6.541
111 F4 135 -5.076
111 F4 136 -0.193
111 F4 137 5.178
111 F4 138 6.154
111 F4 139 2.248
111 F4 140 -4.100
111 F4 141 -8.006
111 F4 142 -5.564
111 F4 143 1.272
111 F4 144 7.131
111 F4 145 7.131
111 F4 146 2.248
111 F4 147 -4.588
111 F4 148 -8.494
111 F4 149 -6.541
111 F4 150 -1.658
111 F4 151 3.225
111 F4 152 5.178
111 F4 153 4.690
111 F4 154 3.713
111 F4 155 5.178
111 F4 156 10.549
111 F4 157 17.385
111 F4 158 23.733
111 F4 159 26.662
111 F4 160 24.709
111 F4 161 17.385
111 F4 162 8.596
111 F4 163 2.736
111 F4 164 2.736
111 F4 165 9.572
111 F4 166 17.873
111 F4 167 22.268
111 F4 168 19.338
111 F4 169 10.549
111 F4 170 0.295
111 F4 171 -4.588
111 F4 172 -1.658
111 F4 173 6.643
111 F4 174 15.432
111 F4 175 19.338
111 F4 176 16.408
111 F4 177 9.084
111 F4 178 3.225
111 F4 179 3.225
111 F4 180 10.549
111 F4 181 21.291
111 F4 182 29.104
111 F4 183 29.592
111 F4 184 21.291
111 F4 185 9.084
111 F4 186 -0.682
111 F4 187 -2.635
111 F4 188 2.736
111 F4 189 12.014
111 F4 190 19.338
111 F4 191 22.756
111 F4 192 21.779
111 F4 193 16.897
111 F4 194 10.061
111 F4 195 2.248
111 F4 196 -4.588
111 F4 197 -8.006
111 F4 198 -8.006
111 F4 199 -5.076
111 F4 200 -2.146
111 F4 201 -2.146
111 F4 202 -7.029
111 F4 203 -14.353
111 F4 204 -19.725
111 F4 205 -20.213
111 F4 206 -13.865
111 F4 207 -4.100
111 F4 208 5.666
111 F4 209 11.037
111 F4 210 12.014
111 F4 211 10.549
111 F4 212 9.572
111 F4 213 10.549
111 F4 214 12.502
111 F4 215 12.990
111 F4 216 11.525
111 F4 217 9.572
111 F4 218 8.596
111 F4 219 9.084
111 F4 220 11.525
111 F4 221 13.479
111 F4 222 13.479
111 F4 223 11.525
111 F4 224 9.084
111 F4 225 6.643
111 F4 226 4.690
111 F4 227 1.760
111 F4 228 -1.658
111 F4 229 -6.053
111 F4 230 -9.471
111 F4 231 -9.959
111 F4 232 -8.494
111 F4 233 -7.029
111 F4 234 -8.006
111 F4 235 -11.912
111 F4 236 -17.771
111 F4 237 -21.189
111 F4 238 -19.725
111 F4 239 -14.353
111 F4 240 -7.517
111 F4 241 -4.100
111 F4 242 -5.564
111 F4 243 -9.959
111 F4 244 -12.889
111 F4 245 -10.447
111 F4 246 -4.100
111 F4 247 1.272
111 F4 248 2.248
111 F4 249 -1.658
111 F4 250 -6.053
111 F4 251 -6.541
111 F4 252 -2.146
111 F4 253 3.225
111 F4 254 6.154
111 F4 255 4.201
# F3 chan 8
111 F3 0 3.255
111 F3 1 2.767
111 F3 2 1.302
111 F3 3 0.814
111 F3 4 1.790
111 F3 5 4.232
111 F3 6 7.161
111 F3 7 8.626
111 F3 8 8.138
111 F3 9 6.185
111 F3 10 3.743
111 F3 11 1.790
111 F3 12 0.814
111 F3 13 -1.139
111 F3 14 -3.581
111 F3 15 -6.022
111 F3 16 -6.510
111 F3 17 -4.557
111 F3 18 -0.651
111 F3 19 2.767
111 F3 20 3.743
111 F3 21 0.814
111 F3 22 -4.557
111 F3 23 -9.928
111 F3 24 -12.858
111 F3 25 -12.370
111 F3 26 -8.952
111 F3 27 -5.046
111 F3 28 -2.116
111 F3 29 -1.628
111 F3 30 -2.604
111 F3 31 -4.069
111 F3 32 -5.046
111 F3 33 -3.581
111 F3 34 -1.628
111 F3 35 0.814
111 F3 36 1.302
111 F3 37 0.326
111 F3 38 -1.139
111 F3 39 -2.116
111 F3 40 -1.139
111 F3 41 1.790
111 F3 42 5.208
111 F3 43 6.673
111 F3 44 5.697
111 F3 45 2.279
111 F3 46 -2.116
111 F3 47 -5.534
111 F3 48 -6.999
111 F3 49 -7.487
111 F3 50 -6.999
111 F3 51 -7.487
111 F3 52 -7.975
111 F3 53 -7.975
111 F3 54 -6.999
111 F3 55 -5.046
111 F3 56 -3.581
111 F3 57 -4.069
111 F3 58 -6.510
111 F3 59 -9.928
111 F3 60 -11.393
111 F3 61 -9.928
111 F3 62 -5.534
111 F3 63 -1.139
111 F3 64 -0.163
111 F3 65 -2.604
111 F3 66 -7.487
111 F3 67 -11.393
111 F3 68 -12.858
111 F3 69 -12.370
111 F3 70 -12.858
111 F3 71 -15.788
111 F3 72 -19.694
111 F3 73 -22.135
111 F3 74 -20.671
111 F3 75 -15.788
111 F3 76 -10.905
111 F3 77 -9.928
111 F3 78 -13.835
111 F3 79 -19.694
111 F3 80 -23.112
111 F3 81 -21.647
111 F3 82 -16.764
111 F3 83 -11.882
111 F3 84 -9.928
111 F3 85 -11.882
111 F3 86 -14.811
111 F3 87 -17.253
111 F3 88 -17.741
111 F3 89 -18.229
111 F3 90 -19.206
111 F3 91 -20.671
111 F3 92 -22.135
111 F3 93 -22.135
111 F3 94 -21.159
111 F3 95 -20.182
111 F3 96 -18.229
111 F3 97 -16.276
111 F3 98 -13.346
111 F3 99 -11.882
111 F3 100 -11.393
111 F3 101 -12.858
111 F3 102 -14.811
111 F3 103 -15.788
111 F3 104 -15.299
111 F3 105 -13.835
111 F3 106 -13.835
111 F3 107 -15.299
111 F3 108 -17.253
111 F3 109 -17.253
111 F3 110 -15.788
111 F3 111 -13.346
111 F3 112 -10.905
111 F3 113 -10.417
111 F3 114 -10.905
111 F3 115 -12.370
111 F3 116 -14.323
111 F3 117 -15.299
111 F3 118 -15.299
111 F3 119 -14.323
111 F3 120 -11.393
111 F3 121 -7.975
111 F3 122 -5.534
111 F3 123 -6.510
111 F3 124 -9.928
111 F3 125 -12.858
111 F3 126 -12.858
111 F3 127 -9.440
111 F3 128 -4.557
111 F3 129 -2.604
111 F3 130 -3.581
111 F3 131 -5.534
111 F3 132 -5.534
111 F3 133 -1.139
111 F3 134 5.208
111 F3 135 9.603
111 F3 136 9.603
111 F3 137 6.185
111 F3 138 2.767
111 F3 139 0.814
111 F3 140 0.814
111 F3 141 -0.163
111 F3 142 -4.557
111 F3 143 -10.417
111 F3 144 -14.811
111 F3 145 -14.811
111 F3 146 -11.882
111 F3 147 -7.975
111 F3 148 -6.510
111 F3 149 -6.999
111 F3 150 -7.975
111 F3 151 -7.975
111 F3 152 -6.022
111 F3 153 -4.069
111 F3 154 -2.116
111 F3 155 -0.163
111 F3 156 3.255
111 F3 157 7.650
111 F3 158 13.021
111 F3 159 16.927
111 F3 160 18.880
111 F3 161 18.880
111 F3 162 18.880
111 F3 163 19.857
111 F3 164 21.322
111 F3 165 23.275
111 F3 166 25.228
111 F3 167 26.693
111 F3 168 28.158
111 F3 169 27.669
111 F3 170 24.740
111 F3 171 19.368
111 F3 172 13.997
111 F3 173 12.533
111 F3 174 16.439
111 F3 175 23.763
111 F3 176 28.646
111 F3 177 28.158
111 F3 178 23.763
111 F3 179 17.415
111 F3 180 14.486
111 F3 181 15.462
111 F3 182 18.392
111 F3 183 19.368
111 F3 184 17.415
111 F3 185 13.021
111 F3 186 10.579
111 F3 187 11.068
111 F3 188 13.021
111 F3 189 14.974
111 F3 190 14.486
111 F3 191 11.556
111 F3 192 7.650
111 F3 193 5.208
111 F3 194 4.720
111 F3 195 5.208
111 F3 196 3.743
111 F3 197 0.814
111 F3 198 -3.092
111 F3 199 -5.534
111 F3 200 -5.046
111 F3 201 -2.604
111 F3 202 0.814
111 F3 203 3.255
111 F3 204 4.720
111 F3 205 5.697
111 F3 206 7.161
111 F3 207 10.091
111 F3 208 13.997
111 F3 209 17.415
111 F3 210 20.833
111 F3 211 23.763
111 F3 212 25.716
111 F3 213 26.693
111 F3 214 25.716
111 F3 215 22.298
111 F3 216 16.439
111 F3 217 11.068
111 F3 218 6.673
111 F3 219 5.697
111 F3 220 6.673
111 F3 221 8.138
111 F3 222 8.138
111 F3 223 4.720
111 F3 224 -0.163
111 F3 225 -5.534
111 F3 226 -6.999
111 F3 227 -6.022
111 F3 228 -3.581
111 F3 229 -3.581
111 F3 230 -6.510
111 F3 231 -11.882
111 F3 232 -16.764
111 F3 233 -17.741
111 F3 234 -14.811
111 F3 235 -9.440
111 F3 236 -4.557
111 F3 237 -2.604
111 F3 238 -4.069
111 F3 239 -6.999
111 F3 240 -8.464
111 F3 241 -6.510
111 F3 242 -0.163
111 F3 243 7.161
111 F3 244 12.533
111 F3 245 13.997
111 F3 246 11.068
111 F3 247 6.185
111 F3 248 3.255
111 F3 249 4.232
111 F3 250 8.138
111 F3 251 12.044
111 F3 252 12.533
111 F3 253 8.626
111 F3 254 2.767
111 F3 255 -1.628
# FC6 chan 9
111 FC6 0 6.602
111 FC6 1 9.043
111 FC6 2 10.997
111 FC6 3 12.950
111 FC6 4 13.926
111 FC6 5 13.438
111 FC6 6 10.997
111 FC6 7 7.579
111 FC6 8 4.161
111 FC6 9 3.184
111 FC6 10 3.672
111 FC6 11 5.137
111 FC6 12 5.137
111 FC6 13 2.207
111 FC6 14 -3.652
111 FC6 15 -10.976
111 FC6 16 -15.371
111 FC6 17 -16.347
111 FC6 18 -13.418
111 FC6 19 -9.511
111 FC6 20 -6.093
111 FC6 21 -5.605
111 FC6 22 -7.558
111 FC6 23 -10.000
111 FC6 24 -11.464
111 FC6 25 -10.976
111 FC6 26 -10.000
111 FC6 27 -8.046
111 FC6 28 -6.093
111 FC6 29 -4.628
111 FC6 30 -2.675
111 FC6 31 -0.722
111 FC6 32 2.696
111 FC6 33 5.625
111 FC6 34 8.067
111 FC6 35 8.555
111 FC6 36 7.090
111 FC6 37 5.137
111 FC6 38 3.672
111 FC6 39 4.161
111 FC6 40 5.137
111 FC6 41 5.625
111 FC6 42 4.649
111 FC6 43 3.672
111 FC6 44 3.672
111 FC6 45 4.649
111 FC6 46 5.625
111 FC6 47 2.696
111 FC6 48 -3.164
111 FC6 49 -10.000
111 FC6 50 -13.906
111 FC6 51 -13.418
111 FC6 52 -10.000
111 FC6 53 -8.046
111 FC6 54 -9.511
111 FC6 55 -14.882
111 FC6 56 -19.765
111 FC6 57 -22.207
111 FC6 58 -19.765
111 FC6 59 -14.882
111 FC6 60 -10.000
111 FC6 61 -6.093
111 FC6 62 -3.652
111 FC6 63 -1.211
111 FC6 64 0.743
111 FC6 65 2.207
111 FC6 66 3.672
111 FC6 67 3.672
111 FC6 68 2.696
111 FC6 69 1.231
111 FC6 70 -0.234
111 FC6 71 -1.699
111 FC6 72 -2.187
111 FC6 73 -2.675
111 FC6 74 -4.140
111 FC6 75 -5.605
111 FC6 76 -6.093
111 FC6 77 -5.117
111 FC6 78 -2.675
111 FC6 79 -0.234
111 FC6 80 -0.722
111 FC6 81 -4.628
111 FC6 82 -11.464
111 FC6 83 -16.836
111 FC6 84 -18.789
111 FC6 85 -17.324
111 FC6 86 -14.394
111 FC6 87 -13.418
111 FC6 88 -13.906
111 FC6 89 -14.882
111 FC6 90 -14.882
111 FC6 91 -13.906
111 FC6 92 -13.418
111 FC6 93 -14.882
111 FC6 94 -18.300
111 FC6 95 -20.742
111 FC6 96 -19.277
111 FC6 97 -14.394
111 FC6 98 -9.511
111 FC6 99 -6.582
111 FC6 100 -7.070
111 FC6 101 -9.023
111 FC6 102 -8.535
111 FC6 103 -5.117
111 FC6 104 -2.187
111 FC6 105 -0.234
111 FC6 106 -0.722
111 FC6 107 -1.211
111 FC6 108 0.254
111 FC6 109 5.137
111 FC6 110 10.997
111 FC6 111 14.414
111 FC6 112 14.903
111 FC6 113 12.461
111 FC6 114 10.020
111 FC6 115 9.043
111 FC6 116 10.020
111 FC6 117 11.973
111 FC6 118 12.950
111 FC6 119 12.461
111 FC6 120 10.997
111 FC6 121 8.555
111 FC6 122 5.625
111 FC6 123 3.672
111 FC6 124 2.696
111 FC6 125 2.696
111 FC6 126 2.207
111 FC6 127 -0.722
111 FC6 128 -5.117
111 FC6 129 -10.488
111 FC6 130 -13.906
111 FC6 131 -14.394
111 FC6 132 -13.418
111 FC6 133 -12.441
111 FC6 134 -13.418
111 FC6 135 -14.394
111 FC6 136 -14.394
111 FC6 137 -10.976
111 FC6 138 -6.582
111 FC6 139 -3.652
111 FC6 140 -3.164
111 FC6 141 -4.140
111 FC6 142 -3.652
111 FC6 143 -1.699
111 FC6 144 1.719
111 FC6 145 4.649
111 FC6 146 4.649
111 FC6 147 3.184
111 FC6 148 1.719
111 FC6 149 1.231
111 FC6 150 2.696
111 FC6 151 4.161
111 FC6 152 4.649
111 FC6 153 3.184
111 FC6 154 2.207
111 FC6 155 2.696
111 FC6 156 4.649
111 FC6 157 6.602
111 FC6 158 9.043
111 FC6 159 9.043
111 FC6 160 7.579
111 FC6 161 4.161
111 FC6 162 -0.234
111 FC6 163 -5.117
111 FC6 164 -9.511
111 FC6 165 -12.441
111 FC6 166 -12.441
111 FC6 167 -10.000
111 FC6 168 -7.070
111 FC6 169 -5.605
111 FC6 170 -6.093
111 FC6 171 -8.535
111 FC6 172 -11.464
111 FC6 173 -12.929
111 FC6 174 -11.953
111 FC6 175 -9.023
111 FC6 176 -4.628
111 FC6 177 -2.187
111 FC6 178 -2.187
111 FC6 179 -4.140
111 FC6 180 -5.117
111 FC6 181 -4.628
111 FC6 182 -2.187
111 FC6 183 0.254
111 FC6 184 0.254
111 FC6 185 -2.187
111 FC6 186 -4.140
111 FC6 187 -4.628
111 FC6 188 -2.675
111 FC6 189 0.743
111 FC6 190 3.672
111 FC6 191 4.161
111 FC6 192 2.207
111 FC6 193 -1.211
111 FC6 194 -4.628
111 FC6 195 -7.558
111 FC6 196 -9.511
111 FC6 197 -10.976
111 FC6 198 -12.441
111 FC6 199 -13.906
111 FC6 200 -15.859
111 FC6 201 -17.812
111 FC6 202 -20.742
111 FC6 203 -23.671
111 FC6 204 -26.601
111 FC6 205 -27.089
111 FC6 206 -25.625
111 FC6 207 -20.253
111 FC6 208 -13.906
111 FC6 209 -8.046
111 FC6 210 -3.164
111 FC6 211 -1.699
111 FC6 212 -1.699
111 FC6 213 -3.164
111 FC6 214 -4.628
111 FC6 215 -6.093
111 FC6 216 -6.582
111 FC6 217 -5.605
111 FC6 218 -3.652
111 FC6 219 0.254
111 FC6 220 5.137
111 FC6 221 9.043
111 FC6 222 10.997
111 FC6 223 9.532
111 FC6 224 5.625
111 FC6 225 0.743
111 FC6 226 -3.164
111 FC6 227 -5.117
111 FC6 228 -5.605
111 FC6 229 -5.117
111 FC6 230 -5.117
111 FC6 231 -4.628
111 FC6 232 -5.117
111 FC6 233 -6.093
111 FC6 234 -9.511
111 FC6 235 -13.906
111 FC6 236 -18.789
111 FC6 237 -20.253
111 FC6 238 -17.324
111 FC6 239 -10.488
111 FC6 240 -4.140
111 FC6 241 -2.187
111 FC6 242 -7.070
111 FC6 243 -14.882
111 FC6 244 -21.230
111 FC6 245 -21.230
111 FC6 246 -16.347
111 FC6 247 -10.000
111 FC6 248 -7.558
111 FC6 249 -10.976
111 FC6 250 -16.347
111 FC6 251 -18.300
111 FC6 252 -15.859
111 FC6 253 -10.000
111 FC6 254 -5.605
111 FC6 255 -5.605
# FC5 chan 10
111 FC5 0 8.280
111 FC5 1 8.280
111 FC5 2 6.816
111 FC5 3 4.862
111 FC5 4 2.909
111 FC5 5 2.909
111 FC5 6 3.886
111 FC5 7 5.351
111 FC5 8 4.862
111 FC5 9 1.933
111 FC5 10 -1.485
111 FC5 11 -2.950
111 FC5 12 -2.462
111 FC5 13 -0.997
111 FC5 14 -0.509
111 FC5 15 -1.973
111 FC5 16 -4.903
111 FC5 17 -6.856
111 FC5 18 -6.368
111 FC5 19 -4.903
111 FC5 20 -3.438
111 FC5 21 -3.927
111 FC5 22 -6.368
111 FC5 23 -7.833
111 FC5 24 -7.345
111 FC5 25 -4.903
111 FC5 26 -2.462
111 FC5 27 -1.485
111 FC5 28 -2.462
111 FC5 29 -4.903
111 FC5 30 -5.880
111 FC5 31 -5.391
111 FC5 32 -3.438
111 FC5 33 -1.973
111 FC5 34 -0.997
111 FC5 35 -0.020
111 FC5 36 -0.020
111 FC5 37 0.468
111 FC5 38 0.956
111 FC5 39 1.444
111 FC5 40 2.909
111 FC5 41 4.374
111 FC5 42 5.351
111 FC5 43 5.351
111 FC5 44 4.374
111 FC5 45 3.398
111 FC5 46 2.421
111 FC5 47 1.444
111 FC5 48 -0.509
111 FC5 49 -3.438
111 FC5 50 -8.321
111 FC5 51 -11.251
111 FC5 52 -11.739
111 FC5 53 -9.298
111 FC5 54 -5.880
111 FC5 55 -3.927
111 FC5 56 -5.391
111 FC5 57 -8.321
111 FC5 58 -10.763
111 FC5 59 -9.786
111 FC5 60 -6.856
111 FC5 61 -4.415
111 FC5 62 -4.903
111 FC5 63 -8.321
111 FC5 64 -11.251
111 FC5 65 -10.763
111 FC5 66 -6.856
111 FC5 67 -1.485
111 FC5 68 0.956
111 FC5 69 -1.485
111 FC5 70 -8.321
111 FC5 71 -16.134
111 FC5 72 -20.528
111 FC5 73 -21.016
111 FC5 74 -18.087
111 FC5 75 -13.204
111 FC5 76 -8.809
111 FC5 77 -5.880
111 FC5 78 -5.391
111 FC5 79 -6.856
111 FC5 80 -9.298
111 FC5 81 -11.251
111 FC5 82 -12.716
111 FC5 83 -13.204
111 FC5 84 -13.692
111 FC5 85 -14.669
111 FC5 86 -15.645
111 FC5 87 -15.645
111 FC5 88 -14.669
111 FC5 89 -13.204
111 FC5 90 -12.227
111 FC5 91 -13.692
111 FC5 92 -16.134
111 FC5 93 -19.552
111 FC5 94 -22.481
111 FC5 95 -23.458
111 FC5 96 -22.481
111 FC5 97 -20.528
111 FC5 98 -17.598
111 FC5 99 -15.157
111 FC5 100 -14.181
111 FC5 101 -14.669
111 FC5 102 -16.134
111 FC5 103 -17.110
111 FC5 104 -17.598
111 FC5 105 -17.110
111 FC5 106 -16.134
111 FC5 107 -15.645
111 FC5 108 -15.157
111 FC5 109 -14.181
111 FC5 110 -11.251
111 FC5 111 -7.833
111 FC5 112 -4.415
111 FC5 113 -2.950
111 FC5 114 -3.438
111 FC5 115 -4.903
111 FC5 116 -4.903
111 FC5 117 -3.438
111 FC5 118 -0.997
111 FC5 119 1.444
111 FC5 120 1.933
111 FC5 121 1.444
111 FC5 122 -0.509
111 FC5 123 -1.973
111 FC5 124 -2.462
111 FC5 125 -2.462
111 FC5 126 -2.462
111 FC5 127 -3.438
111 FC5 128 -5.391
111 FC5 129 -5.880
111 FC5 130 -4.415
111 FC5 131 -0.997
111 FC5 132 2.421
111 FC5 133 4.374
111 FC5 134 3.886
111 FC5 135 0.956
111 FC5 136 -2.950
111 FC5 137 -5.391
111 FC5 138 -5.391
111 FC5 139 -3.927
111 FC5 140 -2.462
111 FC5 141 -2.462
111 FC5 142 -3.927
111 FC5 143 -6.856
111 FC5 144 -7.345
111 FC5 145 -8.321
111 FC5 146 -7.345
111 FC5 147 -5.391
111 FC5 148 -3.438
111 FC5 149 -2.462
111 FC5 150 -1.485
111 FC5 151 -0.997
111 FC5 152 -0.020
111 FC5 153 0.468
111 FC5 154 2.421
111 FC5 155 4.374
111 FC5 156 7.304
111 FC5 157 10.722
111 FC5 158 12.675
111 FC5 159 12.675
111 FC5 160 10.722
111 FC5 161 8.280
111 FC5 162 6.816
111 FC5 163 8.280
111 FC5 164 11.698
111 FC5 165 16.093
111 FC5 166 19.023
111 FC5 167 19.023
111 FC5 168 15.605
111 FC5 169 10.234
111 FC5 170 5.351
111 FC5 171 1.444
111 FC5 172 -0.020
111 FC5 173 0.468
111 FC5 174 2.421
111 FC5 175 5.351
111 FC5 176 7.792
111 FC5 177 8.280
111 FC5 178 6.327
111 FC5 179 3.398
111 FC5 180 0.468
111 FC5 181 -0.997
111 FC5 182 -0.020
111 FC5 183 1.933
111 FC5 184 3.886
111 FC5 185 5.351
111 FC5 186 5.839
111 FC5 187 5.839
111 FC5 188 5.839
111 FC5 189 6.327
111 FC5 190 6.327
111 FC5 191 5.839
111 FC5 192 4.862
111 FC5 193 3.886
111 FC5 194 3.886
111 FC5 195 4.374
111 FC5 196 4.862
111 FC5 197 3.886
111 FC5 198 0.956
111 FC5 199 -2.950
111 FC5 200 -6.368
111 FC5 201 -7.833
111 FC5 202 -7.345
111 FC5 203 -3.927
111 FC5 204 -0.509
111 FC5 205 2.909
111 FC5 206 4.862
111 FC5 207 5.839
111 FC5 208 7.304
111 FC5 209 9.257
111 FC5 210 12.187
111 FC5 211 14.628
111 FC5 212 14.628
111 FC5 213 12.675
111 FC5 214 9.745
111 FC5 215 7.304
111 FC5 216 5.839
111 FC5 217 5.351
111 FC5 218 4.374
111 FC5 219 2.909
111 FC5 220 1.933
111 FC5 221 2.421
111 FC5 222 4.862
111 FC5 223 6.816
111 FC5 224 6.816
111 FC5 225 3.886
111 FC5 226 -0.997
111 FC5 227 -4.903
111 FC5 228 -5.880
111 FC5 229 -3.927
111 FC5 230 -1.973
111 FC5 231 -0.997
111 FC5 232 -2.950
111 FC5 233 -4.903
111 FC5 234 -5.391
111 FC5 235 -2.950
111 FC5 236 1.933
111 FC5 237 6.327
111 FC5 238 9.745
111 FC5 239 10.234
111 FC5 240 8.769
111 FC5 241 7.792
111 FC5 242 8.280
111 FC5 243 10.234
111 FC5 244 12.675
111 FC5 245 14.628
111 FC5 246 14.140
111 FC5 247 12.187
111 FC5 248 8.769
111 FC5 249 5.351
111 FC5 250 2.909
111 FC5 251 2.909
111 FC5 252 4.374
111 FC5 253 5.839
111 FC5 254 5.839
111 FC5 255 3.886
# FC2 chan 11
111 FC2 0 2.808
111 FC2 1 2.319
111 FC2 2 2.319
111 FC2 3 3.296
111 FC2 4 4.761
111 FC2 5 6.714
111 FC2 6 7.202
111 FC2 7 7.202
111 FC2 8 6.226
111 FC2 9 5.249
111 FC2 10 4.761
111 FC2 11 5.249
111 FC2 12 4.761
111 FC2 13 3.296
111 FC2 14 1.343
111 FC2 15 -1.099
111 FC2 16 -2.075
111 FC2 17 -2.075
111 FC2 18 -1.099
111 FC2 19 -0.122
111 FC2 20 -0.610
111 FC2 21 -1.587
111 FC2 22 -3.540
111 FC2 23 -5.005
111 FC2 24 -5.493
111 FC2 25 -5.493
111 FC2 26 -5.005
111 FC2 27 -4.028
111 FC2 28 -3.052
111 FC2 29 -2.075
111 FC2 30 -0.610
111 FC2 31 1.343
111 FC2 32 2.319
111 FC2 33 3.784
111 FC2 34 4.761
111 FC2 35 5.737
111 FC2 36 6.714
111 FC2 37 7.202
111 FC2 38 7.202
111 FC2 39 6.226
111 FC2 40 5.737
111 FC2 41 5.249
111 FC2 42 4.272
111 FC2 43 3.296
111 FC2 44 3.296
111 FC2 45 3.784
111 FC2 46 4.272
111 FC2 47 3.784
111 FC2 48 2.319
111 FC2 49 -0.122
111 FC2 50 -1.587
111 FC2 51 -2.563
111 FC2 52 -2.075
111 FC2 53 -2.075
111 FC2 54 -1.587
111 FC2 55 -3.052
111 FC2 56 -4.517
111 FC2 57 -6.470
111 FC2 58 -6.958
111 FC2 59 -6.470
111 FC2 60 -5.005
111 FC2 61 -3.052
111 FC2 62 -1.587
111 FC2 63 -1.099
111 FC2 64 -1.099
111 FC2 65 -1.587
111 FC2 66 -2.075
111 FC2 67 -2.075
111 FC2 68 -1.587
111 FC2 69 -1.099
111 FC2 70 -1.099
111 FC2 71 -1.587
111 FC2 72 -3.052
111 FC2 73 -5.005
111 FC2 74 -5.981
111 FC2 75 -6.470
111 FC2 76 -6.470
111 FC2 77 -5.493
111 FC2 78 -4.517
111 FC2 79 -3.052
111 FC2 80 -2.075
111 FC2 81 -2.075
111 FC2 82 -3.540
111 FC2 83 -5.493
111 FC2 84 -6.958
111 FC2 85 -7.446
111 FC2 86 -6.958
111 FC2 87 -5.981
111 FC2 88 -4.517
111 FC2 89 -3.540
111 FC2 90 -3.052
111 FC2 91 -3.052
111 FC2 92 -3.540
111 FC2 93 -5.005
111 FC2 94 -5.981
111 FC2 95 -6.470
111 FC2 96 -5.981
111 FC2 97 -5.005
111 FC2 98 -3.052
111 FC2 99 -2.075
111 FC2 100 -1.099
111 FC2 101 -1.587
111 FC2 102 -1.587
111 FC2 103 -2.075
111 FC2 104 -1.587
111 FC2 105 -1.099
111 FC2 106 -1.099
111 FC2 107 -1.099
111 FC2 108 -1.587
111 FC2 109 -2.075
111 FC2 110 -1.099
111 FC2 111 -0.122
111 FC2 112 1.831
111 FC2 113 2.808
111 FC2 114 1.831
111 FC2 115 -0.122
111 FC2 116 -2.563
111 FC2 117 -4.517
111 FC2 118 -5.005
111 FC2 119 -4.028
111 FC2 120 -3.052
111 FC2 121 -3.540
111 FC2 122 -4.028
111 FC2 123 -4.028
111 FC2 124 -3.540
111 FC2 125 -2.075
111 FC2 126 -1.587
111 FC2 127 -2.075
111 FC2 128 -3.052
111 FC2 129 -4.028
111 FC2 130 -4.028
111 FC2 131 -3.052
111 FC2 132 -2.075
111 FC2 133 -1.099
111 FC2 134 -0.122
111 FC2 135 0.854
111 FC2 136 2.808
111 FC2 137 4.272
111 FC2 138 5.249
111 FC2 139 4.272
111 FC2 140 2.319
111 FC2 141 0.854
111 FC2 142 -0.122
111 FC2 143 0.366
111 FC2 144 0.366
111 FC2 145 -0.122
111 FC2 146 -2.075
111 FC2 147 -4.517
111 FC2 148 -6.470
111 FC2 149 -6.958
111 FC2 150 -5.981
111 FC2 151 -5.005
111 FC2 152 -4.028
111 FC2 153 -4.028
111 FC2 154 -4.028
111 FC2 155 -3.052
111 FC2 156 -0.610
111 FC2 157 2.319
111 FC2 158 5.249
111 FC2 159 7.202
111 FC2 160 7.202
111 FC2 161 6.226
111 FC2 162 4.272
111 FC2 163 2.808
111 FC2 164 3.296
111 FC2 165 4.272
111 FC2 166 5.249
111 FC2 167 4.272
111 FC2 168 1.831
111 FC2 169 -1.587
111 FC2 170 -4.028
111 FC2 171 -4.028
111 FC2 172 -2.563
111 FC2 173 0.366
111 FC2 174 2.808
111 FC2 175 3.296
111 FC2 176 2.319
111 FC2 177 0.854
111 FC2 178 0.366
111 FC2 179 0.854
111 FC2 180 2.808
111 FC2 181 5.737
111 FC2 182 7.202
111 FC2 183 6.714
111 FC2 184 4.272
111 FC2 185 1.343
111 FC2 186 -0.610
111 FC2 187 -0.122
111 FC2 188 2.808
111 FC2 189 5.737
111 FC2 190 7.690
111 FC2 191 7.202
111 FC2 192 5.249
111 FC2 193 1.831
111 FC2 194 -1.099
111 FC2 195 -4.517
111 FC2 196 -6.470
111 FC2 197 -7.935
111 FC2 198 -8.423
111 FC2 199 -8.423
111 FC2 200 -8.423
111 FC2 201 -8.423
111 FC2 202 -8.423
111 FC2 203 -8.911
111 FC2 204 -8.423
111 FC2 205 -6.958
111 FC2 206 -4.028
111 FC2 207 -0.122
111 FC2 208 3.784
111 FC2 209 6.714
111 FC2 210 8.667
111 FC2 211 9.155
111 FC2 212 9.644
111 FC2 213 9.644
111 FC2 214 9.155
111 FC2 215 8.667
111 FC2 216 7.690
111 FC2 217 6.226
111 FC2 218 5.249
111 FC2 219 5.249
111 FC2 220 5.249
111 FC2 221 5.737
111 FC2 222 4.761
111 FC2 223 3.296
111 FC2 224 1.831
111 FC2 225 0.366
111 FC2 226 -0.122
111 FC2 227 -0.610
111 FC2 228 -2.075
111 FC2 229 -3.540
111 FC2 230 -4.517
111 FC2 231 -5.493
111 FC2 232 -5.493
111 FC2 233 -5.493
111 FC2 234 -5.981
111 FC2 235 -7.935
111 FC2 236 -9.888
111 FC2 237 -11.353
111 FC2 238 -10.376
111 FC2 239 -7.446
111 FC2 240 -4.028
111 FC2 241 -2.075
111 FC2 242 -1.587
111 FC2 243 -2.075
111 FC2 244 -2.563
111 FC2 245 -1.587
111 FC2 246 0.854
111 FC2 247 2.808
111 FC2 248 3.784
111 FC2 249 3.296
111 FC2 250 1.343
111 FC2 251 0.366
111 FC2 252 0.854
111 FC2 253 1.831
111 FC2 254 2.808
111 FC2 255 3.296
# FC1 chan 12
111 FC1 0 0.682
111 FC1 1 1.170
111 FC1 2 0.682
111 FC1 3 0.193
111 FC1 4 0.193
111 FC1 5 1.170
111 FC1 6 1.170
111 FC1 7 1.658
111 FC1 8 0.682
111 FC1 9 0.193
111 FC1 10 0.193
111 FC1 11 1.658
111 FC1 12 3.123
111 FC1 13 4.100
111 FC1 14 3.611
111 FC1 15 2.146
111 FC1 16 0.682
111 FC1 17 0.682
111 FC1 18 2.635
111 FC1 19 5.076
111 FC1 20 5.564
111 FC1 21 3.611
111 FC1 22 0.193
111 FC1 23 -2.736
111 FC1 24 -3.713
111 FC1 25 -2.248
111 FC1 26 0.682
111 FC1 27 2.146
111 FC1 28 2.635
111 FC1 29 1.658
111 FC1 30 1.170
111 FC1 31 0.682
111 FC1 32 0.682
111 FC1 33 0.193
111 FC1 34 0.682
111 FC1 35 1.170
111 FC1 36 1.658
111 FC1 37 2.635
111 FC1 38 3.123
111 FC1 39 2.635
111 FC1 40 2.146
111 FC1 41 1.658
111 FC1 42 1.658
111 FC1 43 1.658
111 FC1 44 1.658
111 FC1 45 0.193
111 FC1 46 -1.272
111 FC1 47 -2.248
111 FC1 48 -2.248
111 FC1 49 -1.760
111 FC1 50 -1.760
111 FC1 51 -1.760
111 FC1 52 -1.760
111 FC1 53 -1.272
111 FC1 54 0.193
111 FC1 55 1.170
111 FC1 56 1.658
111 FC1 57 0.682
111 FC1 58 -1.272
111 FC1 59 -2.248
111 FC1 60 -2.248
111 FC1 61 -0.783
111 FC1 62 0.682
111 FC1 63 0.193
111 FC1 64 -1.760
111 FC1 65 -4.201
111 FC1 66 -5.666
111 FC1 67 -6.154
111 FC1 68 -5.666
111 FC1 69 -5.666
111 FC1 70 -6.643
111 FC1 71 -9.572
111 FC1 72 -13.479
111 FC1 73 -15.432
111 FC1 74 -14.943
111 FC1 75 -12.014
111 FC1 76 -9.084
111 FC1 77 -6.643
111 FC1 78 -6.643
111 FC1 79 -7.619
111 FC1 80 -8.596
111 FC1 81 -7.619
111 FC1 82 -6.154
111 FC1 83 -4.201
111 FC1 84 -3.225
111 FC1 85 -2.736
111 FC1 86 -3.225
111 FC1 87 -3.225
111 FC1 88 -2.736
111 FC1 89 -2.736
111 FC1 90 -2.736
111 FC1 91 -3.713
111 FC1 92 -4.690
111 FC1 93 -5.178
111 FC1 94 -5.666
111 FC1 95 -5.666
111 FC1 96 -5.178
111 FC1 97 -4.201
111 FC1 98 -3.225
111 FC1 99 -2.736
111 FC1 100 -2.736
111 FC1 101 -3.713
111 FC1 102 -6.154
111 FC1 103 -7.131
111 FC1 104 -7.619
111 FC1 105 -7.131
111 FC1 106 -6.643
111 FC1 107 -8.108
111 FC1 108 -10.061
111 FC1 109 -12.014
111 FC1 110 -12.502
111 FC1 111 -10.549
111 FC1 112 -7.619
111 FC1 113 -6.154
111 FC1 114 -5.666
111 FC1 115 -7.619
111 FC1 116 -9.572
111 FC1 117 -10.549
111 FC1 118 -9.572
111 FC1 119 -8.108
111 FC1 120 -6.643
111 FC1 121 -5.666
111 FC1 122 -5.666
111 FC1 123 -5.666
111 FC1 124 -5.178
111 FC1 125 -3.713
111 FC1 126 -2.248
111 FC1 127 -0.295
111 FC1 128 1.170
111 FC1 129 2.146
111 FC1 130 3.123
111 FC1 131 4.588
111 FC1 132 6.053
111 FC1 133 8.006
111 FC1 134 8.982
111 FC1 135 8.982
111 FC1 136 8.006
111 FC1 137 6.053
111 FC1 138 4.100
111 FC1 139 3.123
111 FC1 140 2.635
111 FC1 141 1.170
111 FC1 142 -1.272
111 FC1 143 -3.713
111 FC1 144 -6.154
111 FC1 145 -8.108
111 FC1 146 -9.084
111 FC1 147 -9.572
111 FC1 148 -10.549
111 FC1 149 -11.037
111 FC1 150 -10.549
111 FC1 151 -9.572
111 FC1 152 -7.619
111 FC1 153 -6.643
111 FC1 154 -5.178
111 FC1 155 -3.225
111 FC1 156 0.193
111 FC1 157 4.100
111 FC1 158 8.494
111 FC1 159 11.424
111 FC1 160 11.912
111 FC1 161 10.935
111 FC1 162 9.471
111 FC1 163 9.471
111 FC1 164 11.424
111 FC1 165 13.865
111 FC1 166 15.818
111 FC1 167 15.818
111 FC1 168 14.353
111 FC1 169 11.424
111 FC1 170 8.494
111 FC1 171 6.541
111 FC1 172 6.053
111 FC1 173 7.029
111 FC1 174 8.982
111 FC1 175 10.935
111 FC1 176 10.935
111 FC1 177 9.471
111 FC1 178 6.053
111 FC1 179 3.611
111 FC1 180 3.123
111 FC1 181 5.076
111 FC1 182 7.517
111 FC1 183 8.982
111 FC1 184 7.517
111 FC1 185 5.076
111 FC1 186 3.123
111 FC1 187 3.123
111 FC1 188 4.588
111 FC1 189 6.053
111 FC1 190 7.029
111 FC1 191 5.564
111 FC1 192 3.611
111 FC1 193 1.170
111 FC1 194 0.193
111 FC1 195 -0.783
111 FC1 196 -1.272
111 FC1 197 -2.248
111 FC1 198 -2.736
111 FC1 199 -2.248
111 FC1 200 -1.272
111 FC1 201 0.682
111 FC1 202 1.658
111 FC1 203 3.123
111 FC1 204 4.100
111 FC1 205 6.053
111 FC1 206 8.494
111 FC1 207 10.935
111 FC1 208 13.865
111 FC1 209 16.307
111 FC1 210 18.748
111 FC1 211 20.701
111 FC1 212 22.166
111 FC1 213 22.654
111 FC1 214 21.678
111 FC1 215 18.748
111 FC1 216 14.842
111 FC1 217 10.447
111 FC1 218 7.029
111 FC1 219 4.100
111 FC1 220 2.635
111 FC1 221 2.146
111 FC1 222 1.658
111 FC1 223 1.170
111 FC1 224 -0.295
111 FC1 225 -2.248
111 FC1 226 -3.713
111 FC1 227 -4.690
111 FC1 228 -5.178
111 FC1 229 -5.666
111 FC1 230 -7.131
111 FC1 231 -8.596
111 FC1 232 -9.572
111 FC1 233 -9.572
111 FC1 234 -7.619
111 FC1 235 -4.201
111 FC1 236 -1.760
111 FC1 237 0.193
111 FC1 238 1.170
111 FC1 239 1.170
111 FC1 240 2.635
111 FC1 241 6.053
111 FC1 242 9.959
111 FC1 243 14.842
111 FC1 244 17.283
111 FC1 245 17.283
111 FC1 246 15.330
111 FC1 247 12.400
111 FC1 248 10.447
111 FC1 249 9.471
111 FC1 250 9.959
111 FC1 251 10.935
111 FC1 252 10.935
111 FC1 253 10.447
111 FC1 254 8.982
111 FC1 255 7.517
# T8 chan 13
111 T8 0 6.419
111 T8 1 9.349
111 T8 2 11.790
111 T8 3 12.767
111 T8 4 12.278
111 T8 5 10.325
111 T8 6 8.372
111 T8 7 5.931
111 T8 8 2.513
111 T8 9 -0.905
111 T8 10 -5.300
111 T8 11 -9.206
111 T8 12 -11.159
111 T8 13 -12.136
111 T8 14 -12.624
111 T8 15 -13.601
111 T8 16 -14.089
111 T8 17 -14.577
111 T8 18 -14.089
111 T8 19 -12.624
111 T8 20 -11.159
111 T8 21 -10.183
111 T8 22 -9.206
111 T8 23 -9.206
111 T8 24 -9.694
111 T8 25 -10.183
111 T8 26 -10.183
111 T8 27 -9.694
111 T8 28 -7.741
111 T8 29 -4.812
111 T8 30 -1.882
111 T8 31 1.536
111 T8 32 3.977
111 T8 33 5.931
111 T8 34 6.419
111 T8 35 5.442
111 T8 36 3.977
111 T8 37 2.513
111 T8 38 2.024
111 T8 39 3.489
111 T8 40 5.442
111 T8 41 6.907
111 T8 42 5.442
111 T8 43 1.536
111 T8 44 -3.835
111 T8 45 -8.230
111 T8 46 -9.694
111 T8 47 -8.230
111 T8 48 -6.765
111 T8 49 -5.300
111 T8 50 -6.276
111 T8 51 -9.206
111 T8 52 -12.136
111 T8 53 -15.066
111 T8 54 -17.019
111 T8 55 -17.507
111 T8 56 -17.019
111 T8 57 -15.066
111 T8 58 -11.648
111 T8 59 -7.253
111 T8 60 -3.835
111 T8 61 -1.882
111 T8 62 -0.417
111 T8 63 1.536
111 T8 64 4.466
111 T8 65 6.907
111 T8 66 8.372
111 T8 67 7.884
111 T8 68 6.419
111 T8 69 4.954
111 T8 70 4.954
111 T8 71 4.954
111 T8 72 4.954
111 T8 73 2.513
111 T8 74 -1.394
111 T8 75 -4.812
111 T8 76 -5.788
111 T8 77 -4.323
111 T8 78 -2.858
111 T8 79 -3.347
111 T8 80 -6.276
111 T8 81 -11.159
111 T8 82 -14.577
111 T8 83 -16.530
111 T8 84 -17.019
111 T8 85 -16.042
111 T8 86 -16.042
111 T8 87 -15.554
111 T8 88 -15.066
111 T8 89 -14.577
111 T8 90 -15.066
111 T8 91 -17.019
111 T8 92 -19.948
111 T8 93 -21.413
111 T8 94 -20.437
111 T8 95 -16.042
111 T8 96 -11.159
111 T8 97 -7.253
111 T8 98 -5.788
111 T8 99 -7.741
111 T8 100 -9.206
111 T8 101 -9.206
111 T8 102 -7.253
111 T8 103 -4.812
111 T8 104 -3.347
111 T8 105 -3.835
111 T8 106 -4.323
111 T8 107 -2.370
111 T8 108 1.536
111 T8 109 6.419
111 T8 110 10.325
111 T8 111 11.302
111 T8 112 10.813
111 T8 113 10.325
111 T8 114 11.302
111 T8 115 13.743
111 T8 116 15.208
111 T8 117 15.208
111 T8 118 14.231
111 T8 119 12.278
111 T8 120 11.302
111 T8 121 10.813
111 T8 122 9.837
111 T8 123 7.395
111 T8 124 3.977
111 T8 125 0.559
111 T8 126 -1.882
111 T8 127 -3.835
111 T8 128 -6.765
111 T8 129 -11.159
111 T8 130 -15.554
111 T8 131 -18.972
111 T8 132 -19.460
111 T8 133 -17.507
111 T8 134 -15.554
111 T8 135 -15.554
111 T8 136 -17.507
111 T8 137 -19.948
111 T8 138 -20.437
111 T8 139 -17.995
111 T8 140 -13.601
111 T8 141 -9.206
111 T8 142 -5.788
111 T8 143 -4.323
111 T8 144 -3.835
111 T8 145 -2.370
111 T8 146 0.071
111 T8 147 3.977
111 T8 148 7.395
111 T8 149 9.349
111 T8 150 9.837
111 T8 151 8.372
111 T8 152 5.931
111 T8 153 3.977
111 T8 154 3.001
111 T8 155 3.489
111 T8 156 3.977
111 T8 157 2.513
111 T8 158 -0.417
111 T8 159 -5.300
111 T8 160 -10.183
111 T8 161 -13.601
111 T8 162 -15.066
111 T8 163 -15.554
111 T8 164 -17.019
111 T8 165 -20.437
111 T8 166 -24.831
111 T8 167 -28.249
111 T8 168 -28.249
111 T8 169 -25.319
111 T8 170 -20.925
111 T8 171 -16.530
111 T8 172 -13.601
111 T8 173 -12.624
111 T8 174 -12.624
111 T8 175 -13.112
111 T8 176 -13.112
111 T8 177 -12.624
111 T8 178 -12.136
111 T8 179 -12.136
111 T8 180 -12.624
111 T8 181 -13.112
111 T8 182 -14.089
111 T8 183 -14.089
111 T8 184 -13.601
111 T8 185 -12.624
111 T8 186 -12.136
111 T8 187 -12.136
111 T8 188 -12.624
111 T8 189 -12.136
111 T8 190 -10.671
111 T8 191 -9.206
111 T8 192 -8.230
111 T8 193 -9.206
111 T8 194 -12.136
111 T8 195 -15.554
111 T8 196 -17.995
111 T8 197 -19.948
111 T8 198 -20.925
111 T8 199 -22.390
111 T8 200 -25.319
111 T8 201 -28.737
111 T8 202 -31.667
111 T8 203 -33.132
111 T8 204 -32.644
111 T8 205 -31.667
111 T8 206 -29.714
111 T8 207 -28.249
111 T8 208 -25.808
111 T8 209 -23.366
111 T8 210 -19.948
111 T8 211 -17.995
111 T8 212 -17.019
111 T8 213 -17.019
111 T8 214 -17.995
111 T8 215 -17.507
111 T8 216 -15.554
111 T8 217 -12.136
111 T8 218 -8.230
111 T8 219 -4.812
111 T8 220 -2.370
111 T8 221 -0.905
111 T8 222 -0.417
111 T8 223 -1.394
111 T8 224 -2.858
111 T8 225 -4.812
111 T8 226 -5.788
111 T8 227 -6.276
111 T8 228 -6.276
111 T8 229 -7.741
111 T8 230 -11.159
111 T8 231 -15.554
111 T8 232 -19.948
111 T8 233 -20.925
111 T8 234 -18.483
111 T8 235 -13.601
111 T8 236 -8.230
111 T8 237 -3.835
111 T8 238 -1.882
111 T8 239 -3.835
111 T8 240 -7.741
111 T8 241 -14.089
111 T8 242 -19.948
111 T8 243 -24.831
111 T8 244 -27.273
111 T8 245 -27.273
111 T8 246 -25.319
111 T8 247 -23.366
111 T8 248 -23.855
111 T8 249 -26.784
111 T8 250 -31.667
111 T8 251 -36.062
111 T8 252 -38.015
111 T8 253 -36.550
111 T8 254 -33.132
111 T8 255 -28.249
# T7 chan 14
111 T7 0 7.192
111 T7 1 8.657
111 T7 2 5.239
111 T7 3 0.356
111 T7 4 -2.085
111 T7 5 0.356
111 T7 6 5.727
111 T7 7 11.587
111 T7 8 13.540
111 T7 9 9.145
111 T7 10 2.309
111 T7 11 -4.038
111 T7 12 -6.480
111 T7 13 -5.503
111 T7 14 -3.550
111 T7 15 -4.527
111 T7 16 -9.898
111 T7 17 -16.246
111 T7 18 -20.152
111 T7 19 -18.199
111 T7 20 -12.339
111 T7 21 -5.992
111 T7 22 -1.597
111 T7 23 -0.132
111 T7 24 -0.621
111 T7 25 -2.085
111 T7 26 -3.550
111 T7 27 -6.480
111 T7 28 -9.410
111 T7 29 -11.363
111 T7 30 -10.386
111 T7 31 -6.968
111 T7 32 -2.574
111 T7 33 -0.132
111 T7 34 -0.621
111 T7 35 -2.085
111 T7 36 -2.085
111 T7 37 0.844
111 T7 38 4.262
111 T7 39 8.169
111 T7 40 8.169
111 T7 41 5.727
111 T7 42 1.821
111 T7 43 -3.062
111 T7 44 -7.456
111 T7 45 -10.386
111 T7 46 -11.363
111 T7 47 -9.410
111 T7 48 -4.038
111 T7 49 1.821
111 T7 50 6.215
111 T7 51 6.215
111 T7 52 0.844
111 T7 53 -6.480
111 T7 54 -11.851
111 T7 55 -12.339
111 T7 56 -10.386
111 T7 57 -7.456
111 T7 58 -7.456
111 T7 59 -10.874
111 T7 60 -15.757
111 T7 61 -18.199
111 T7 62 -16.734
111 T7 63 -11.363
111 T7 64 -5.015
111 T7 65 0.356
111 T7 66 3.286
111 T7 67 4.262
111 T7 68 4.262
111 T7 69 3.774
111 T7 70 1.333
111 T7 71 -3.550
111 T7 72 -9.898
111 T7 73 -15.269
111 T7 74 -15.269
111 T7 75 -9.898
111 T7 76 -3.550
111 T7 77 -1.109
111 T7 78 -6.480
111 T7 79 -15.269
111 T7 80 -21.617
111 T7 81 -20.152
111 T7 82 -11.851
111 T7 83 -3.550
111 T7 84 -3.062
111 T7 85 -11.363
111 T7 86 -23.081
111 T7 87 -28.941
111 T7 88 -26.011
111 T7 89 -17.222
111 T7 90 -11.851
111 T7 91 -14.781
111 T7 92 -23.081
111 T7 93 -27.476
111 T7 94 -23.081
111 T7 95 -11.363
111 T7 96 -1.597
111 T7 97 -2.085
111 T7 98 -12.339
111 T7 99 -22.105
111 T7 100 -24.058
111 T7 101 -17.710
111 T7 102 -10.874
111 T7 103 -11.851
111 T7 104 -21.617
111 T7 105 -30.406
111 T7 106 -28.453
111 T7 107 -14.781
111 T7 108 1.821
111 T7 109 8.657
111 T7 110 1.821
111 T7 111 -11.363
111 T7 112 -17.710
111 T7 113 -11.363
111 T7 114 2.797
111 T7 115 12.075
111 T7 116 8.657
111 T7 117 -5.015
111 T7 118 -16.734
111 T7 119 -16.734
111 T7 120 -3.550
111 T7 121 12.075
111 T7 122 20.376
111 T7 123 16.958
111 T7 124 5.727
111 T7 125 -3.550
111 T7 126 -5.992
111 T7 127 -3.062
111 T7 128 -0.132
111 T7 129 -1.597
111 T7 130 -7.456
111 T7 131 -13.804
111 T7 132 -16.246
111 T7 133 -12.828
111 T7 134 -5.503
111 T7 135 2.797
111 T7 136 6.215
111 T7 137 3.286
111 T7 138 -5.015
111 T7 139 -12.339
111 T7 140 -15.269
111 T7 141 -11.851
111 T7 142 -4.038
111 T7 143 2.309
111 T7 144 4.262
111 T7 145 1.333
111 T7 146 -1.597
111 T7 147 -1.597
111 T7 148 2.309
111 T7 149 7.192
111 T7 150 9.633
111 T7 151 8.657
111 T7 152 6.704
111 T7 153 6.704
111 T7 154 9.145
111 T7 155 11.098
111 T7 156 10.610
111 T7 157 5.239
111 T7 158 -2.085
111 T7 159 -8.433
111 T7 160 -9.410
111 T7 161 -5.015
111 T7 162 3.286
111 T7 163 11.587
111 T7 164 15.981
111 T7 165 14.028
111 T7 166 6.704
111 T7 167 -3.062
111 T7 168 -9.898
111 T7 169 -10.386
111 T7 170 -4.527
111 T7 171 3.286
111 T7 172 6.215
111 T7 173 1.821
111 T7 174 -8.433
111 T7 175 -19.175
111 T7 176 -24.546
111 T7 177 -22.105
111 T7 178 -14.292
111 T7 179 -5.503
111 T7 180 -1.109
111 T7 181 -1.597
111 T7 182 -6.480
111 T7 183 -10.386
111 T7 184 -10.386
111 T7 185 -6.480
111 T7 186 -0.621
111 T7 187 3.774
111 T7 188 4.262
111 T7 189 1.333
111 T7 190 -3.550
111 T7 191 -8.433
111 T7 192 -10.874
111 T7 193 -10.874
111 T7 194 -8.433
111 T7 195 -4.527
111 T7 196 0.844
111 T7 197 5.239
111 T7 198 6.215
111 T7 199 3.774
111 T7 200 -1.109
111 T7 201 -7.945
111 T7 202 -12.828
111 T7 203 -15.269
111 T7 204 -14.781
111 T7 205 -12.339
111 T7 206 -9.410
111 T7 207 -6.480
111 T7 208 -3.550
111 T7 209 -2.574
111 T7 210 -2.574
111 T7 211 -4.038
111 T7 212 -5.992
111 T7 213 -6.968
111 T7 214 -6.968
111 T7 215 -6.968
111 T7 216 -5.992
111 T7 217 -4.527
111 T7 218 -1.597
111 T7 219 3.286
111 T7 220 8.657
111 T7 221 11.587
111 T7 222 9.633
111 T7 223 4.262
111 T7 224 -3.550
111 T7 225 -8.433
111 T7 226 -8.921
111 T7 227 -6.480
111 T7 228 -3.062
111 T7 229 -3.550
111 T7 230 -8.921
111 T7 231 -16.734
111 T7 232 -20.152
111 T7 233 -16.734
111 T7 234 -5.503
111 T7 235 7.192
111 T7 236 15.004
111 T7 237 14.516
111 T7 238 7.680
111 T7 239 1.333
111 T7 240 -1.109
111 T7 241 0.356
111 T7 242 0.844
111 T7 243 -2.085
111 T7 244 -7.456
111 T7 245 -10.386
111 T7 246 -6.968
111 T7 247 0.356
111 T7 248 6.215
111 T7 249 5.727
111 T7 250 -2.085
111 T7 251 -11.851
111 T7 252 -17.222
111 T7 253 -16.246
111 T7 254 -11.851
111 T7 255 -6.968
# CZ chan 15
111 CZ 0 6.165
111 CZ 1 8.118
111 CZ 2 9.094
111 CZ 3 9.094
111 CZ 4 9.583
111 CZ 5 9.094
111 CZ 6 9.094
111 CZ 7 7.629
111 CZ 8 6.165
111 CZ 9 4.211
111 CZ 10 3.235
111 CZ 11 2.747
111 CZ 12 1.770
111 CZ 13 -1.160
111 CZ 14 -5.554
111 CZ 15 -9.460
111 CZ 16 -11.902
111 CZ 17 -10.925
111 CZ 18 -7.996
111 CZ 19 -5.066
111 CZ 20 -4.578
111 CZ 21 -5.554
111 CZ 22 -6.531
111 CZ 23 -6.531
111 CZ 24 -5.554
111 CZ 25 -5.554
111 CZ 26 -8.484
111 CZ 27 -12.878
111 CZ 28 -16.785
111 CZ 29 -17.273
111 CZ 30 -13.367
111 CZ 31 -7.507
111 CZ 32 -3.601
111 CZ 33 -3.601
111 CZ 34 -7.507
111 CZ 35 -10.925
111 CZ 36 -12.390
111 CZ 37 -9.949
111 CZ 38 -6.531
111 CZ 39 -3.113
111 CZ 40 -1.160
111 CZ 41 -0.671
111 CZ 42 -1.648
111 CZ 43 -2.625
111 CZ 44 -3.601
111 CZ 45 -5.066
111 CZ 46 -5.554
111 CZ 47 -5.554
111 CZ 48 -6.042
111 CZ 49 -6.531
111 CZ 50 -9.460
111 CZ 51 -13.367
111 CZ 52 -16.785
111 CZ 53 -18.738
111 CZ 54 -19.226
111 CZ 55 -19.226
111 CZ 56 -20.203
111 CZ 57 -20.691
111 CZ 58 -20.691
111 CZ 59 -18.738
111 CZ 60 -14.832
111 CZ 61 -11.414
111 CZ 62 -9.460
111 CZ 63 -9.460
111 CZ 64 -9.949
111 CZ 65 -9.460
111 CZ 66 -7.507
111 CZ 67 -4.578
111 CZ 68 -2.625
111 CZ 69 -2.625
111 CZ 70 -5.554
111 CZ 71 -10.925
111 CZ 72 -18.250
111 CZ 73 -24.597
111 CZ 74 -28.992
111 CZ 75 -27.527
111 CZ 76 -22.156
111 CZ 77 -14.343
111 CZ 78 -9.949
111 CZ 79 -11.902
111 CZ 80 -21.179
111 CZ 81 -32.898
111 CZ 82 -40.710
111 CZ 83 -41.687
111 CZ 84 -38.269
111 CZ 85 -35.828
111 CZ 86 -37.292
111 CZ 87 -42.664
111 CZ 88 -48.035
111 CZ 89 -49.988
111 CZ 90 -49.011
111 CZ 91 -48.035
111 CZ 92 -49.500
111 CZ 93 -53.406
111 CZ 94 -56.335
111 CZ 95 -54.871
111 CZ 96 -49.011
111 CZ 97 -41.199
111 CZ 98 -35.339
111 CZ 99 -32.898
111 CZ 100 -32.410
111 CZ 101 -31.921
111 CZ 102 -29.968
111 CZ 103 -27.039
111 CZ 104 -23.132
111 CZ 105 -19.714
111 CZ 106 -16.785
111 CZ 107 -13.855
111 CZ 108 -11.414
111 CZ 109 -9.460
111 CZ 110 -8.484
111 CZ 111 -7.996
111 CZ 112 -7.507
111 CZ 113 -6.531
111 CZ 114 -5.554
111 CZ 115 -5.554
111 CZ 116 -6.531
111 CZ 117 -8.484
111 CZ 118 -8.972
111 CZ 119 -8.484
111 CZ 120 -7.507
111 CZ 121 -6.042
111 CZ 122 -7.019
111 CZ 123 -8.484
111 CZ 124 -11.414
111 CZ 125 -12.878
111 CZ 126 -13.855
111 CZ 127 -15.320
111 CZ 128 -18.738
111 CZ 129 -23.132
111 CZ 130 -25.574
111 CZ 131 -25.085
111 CZ 132 -21.179
111 CZ 133 -16.785
111 CZ 134 -14.343
111 CZ 135 -16.296
111 CZ 136 -20.691
111 CZ 137 -25.085
111 CZ 138 -27.527
111 CZ 139 -27.039
111 CZ 140 -25.574
111 CZ 141 -23.621
111 CZ 142 -23.132
111 CZ 143 -23.132
111 CZ 144 -24.597
111 CZ 145 -25.574
111 CZ 146 -26.550
111 CZ 147 -26.550
111 CZ 148 -25.574
111 CZ 149 -25.085
111 CZ 150 -25.085
111 CZ 151 -25.574
111 CZ 152 -26.550
111 CZ 153 -28.015
111 CZ 154 -28.015
111 CZ 155 -28.503
111 CZ 156 -29.480
111 CZ 157 -31.921
111 CZ 158 -36.804
111 CZ 159 -41.687
111 CZ 160 -46.570
111 CZ 161 -50.476
111 CZ 162 -51.453
111 CZ 163 -50.476
111 CZ 164 -49.500
111 CZ 165 -50.964
111 CZ 166 -55.359
111 CZ 167 -62.683
111 CZ 168 -70.007
111 CZ 169 -74.402
111 CZ 170 -73.914
111 CZ 171 -70.496
111 CZ 172 -67.078
111 CZ 173 -66.101
111 CZ 174 -68.054
111 CZ 175 -70.496
111 CZ 176 -70.496
111 CZ 177 -67.078
111 CZ 178 -61.707
111 CZ 179 -57.800
111 CZ 180 -56.824
111 CZ 181 -58.289
111 CZ 182 -60.242
111 CZ 183 -60.242
111 CZ 184 -58.289
111 CZ 185 -54.871
111 CZ 186 -52.917
111 CZ 187 -52.917
111 CZ 188 -54.871
111 CZ 189 -57.312
111 CZ 190 -58.777
111 CZ 191 -59.265
111 CZ 192 -58.777
111 CZ 193 -58.289
111 CZ 194 -57.312
111 CZ 195 -56.824
111 CZ 196 -56.824
111 CZ 197 -56.824
111 CZ 198 -58.289
111 CZ 199 -61.218
111 CZ 200 -64.148
111 CZ 201 -65.613
111 CZ 202 -65.613
111 CZ 203 -64.148
111 CZ 204 -62.195
111 CZ 205 -61.707
111 CZ 206 -61.218
111 CZ 207 -58.777
111 CZ 208 -52.429
111 CZ 209 -43.152
111 CZ 210 -34.363
111 CZ 211 -30.945
111 CZ 212 -33.386
111 CZ 213 -38.269
111 CZ 214 -40.710
111 CZ 215 -38.269
111 CZ 216 -31.921
111 CZ 217 -27.039
111 CZ 218 -27.527
111 CZ 219 -31.921
111 CZ 220 -36.316
111 CZ 221 -37.292
111 CZ 222 -34.363
111 CZ 223 -30.457
111 CZ 224 -28.992
111 CZ 225 -30.945
111 CZ 226 -35.339
111 CZ 227 -38.269
111 CZ 228 -38.269
111 CZ 229 -36.804
111 CZ 230 -35.828
111 CZ 231 -36.804
111 CZ 232 -37.781
111 CZ 233 -36.804
111 CZ 234 -32.898
111 CZ 235 -26.550
111 CZ 236 -21.179
111 CZ 237 -17.273
111 CZ 238 -17.273
111 CZ 239 -18.738
111 CZ 240 -21.179
111 CZ 241 -23.132
111 CZ 242 -25.085
111 CZ 243 -26.550
111 CZ 244 -27.039
111 CZ 245 -26.062
111 CZ 246 -23.621
111 CZ 247 -20.691
111 CZ 248 -18.250
111 CZ 249 -18.250
111 CZ 250 -21.179
111 CZ 251 -24.109
111 CZ 252 -26.062
111 CZ 253 -25.085
111 CZ 254 -20.691
111 CZ 255 -14.832
# C3 chan 16
111 C3 0 1.506
111 C3 1 2.970
111 C3 2 4.435
111 C3 3 4.435
111 C3 4 3.947
111 C3 5 3.947
111 C3 6 3.947
111 C3 7 3.947
111 C3 8 3.459
111 C3 9 1.506
111 C3 10 0.041
111 C3 11 -0.936
111 C3 12 -0.936
111 C3 13 -0.448
111 C3 14 -0.448
111 C3 15 -1.912
111 C3 16 -3.377
111 C3 17 -4.842
111 C3 18 -4.842
111 C3 19 -3.866
111 C3 20 -3.377
111 C3 21 -4.354
111 C3 22 -5.330
111 C3 23 -6.795
111 C3 24 -6.307
111 C3 25 -5.330
111 C3 26 -3.377
111 C3 27 -2.401
111 C3 28 -1.912
111 C3 29 -2.401
111 C3 30 -2.889
111 C3 31 -2.889
111 C3 32 -2.401
111 C3 33 -1.912
111 C3 34 -1.424
111 C3 35 -0.936
111 C3 36 -0.936
111 C3 37 -1.424
111 C3 38 -1.424
111 C3 39 -0.448
111 C3 40 1.506
111 C3 41 3.947
111 C3 42 5.900
111 C3 43 5.900
111 C3 44 4.435
111 C3 45 2.482
111 C3 46 0.529
111 C3 47 -0.448
111 C3 48 -0.936
111 C3 49 -1.912
111 C3 50 -2.889
111 C3 51 -3.377
111 C3 52 -3.377
111 C3 53 -2.401
111 C3 54 -1.424
111 C3 55 -0.936
111 C3 56 -1.912
111 C3 57 -3.866
111 C3 58 -4.842
111 C3 59 -5.819
111 C3 60 -5.330
111 C3 61 -4.354
111 C3 62 -4.354
111 C3 63 -4.354
111 C3 64 -4.354
111 C3 65 -2.889
111 C3 66 -1.424
111 C3 67 -0.448
111 C3 68 0.041
111 C3 69 -0.936
111 C3 70 -2.889
111 C3 71 -4.354
111 C3 72 -5.819
111 C3 73 -5.330
111 C3 74 -4.354
111 C3 75 -2.401
111 C3 76 -0.448
111 C3 77 1.017
111 C3 78 0.529
111 C3 79 -0.936
111 C3 80 -2.889
111 C3 81 -4.842
111 C3 82 -6.307
111 C3 83 -6.307
111 C3 84 -5.819
111 C3 85 -4.842
111 C3 86 -3.866
111 C3 87 -3.377
111 C3 88 -3.377
111 C3 89 -4.354
111 C3 90 -5.330
111 C3 91 -6.307
111 C3 92 -6.307
111 C3 93 -6.795
111 C3 94 -6.307
111 C3 95 -5.819
111 C3 96 -5.330
111 C3 97 -4.842
111 C3 98 -4.354
111 C3 99 -4.842
111 C3 100 -5.819
111 C3 101 -7.284
111 C3 102 -8.260
111 C3 103 -8.748
111 C3 104 -9.237
111 C3 105 -8.260
111 C3 106 -8.260
111 C3 107 -8.748
111 C3 108 -8.748
111 C3 109 -8.260
111 C3 110 -6.795
111 C3 111 -5.330
111 C3 112 -3.866
111 C3 113 -3.377
111 C3 114 -2.889
111 C3 115 -2.401
111 C3 116 -0.936
111 C3 117 0.529
111 C3 118 2.482
111 C3 119 3.459
111 C3 120 2.970
111 C3 121 2.482
111 C3 122 1.506
111 C3 123 1.017
111 C3 124 0.529
111 C3 125 0.041
111 C3 126 0.041
111 C3 127 -0.448
111 C3 128 -0.936
111 C3 129 -1.424
111 C3 130 -1.424
111 C3 131 -0.936
111 C3 132 0.041
111 C3 133 1.017
111 C3 134 1.506
111 C3 135 0.041
111 C3 136 -1.912
111 C3 137 -3.866
111 C3 138 -4.354
111 C3 139 -3.377
111 C3 140 -1.424
111 C3 141 0.041
111 C3 142 0.529
111 C3 143 -0.448
111 C3 144 -1.424
111 C3 145 -1.912
111 C3 146 -0.936
111 C3 147 1.017
111 C3 148 3.459
111 C3 149 4.435
111 C3 150 4.924
111 C3 151 4.924
111 C3 152 3.947
111 C3 153 3.459
111 C3 154 2.970
111 C3 155 3.947
111 C3 156 4.924
111 C3 157 6.388
111 C3 158 7.365
111 C3 159 6.877
111 C3 160 5.900
111 C3 161 4.435
111 C3 162 3.459
111 C3 163 4.435
111 C3 164 5.900
111 C3 165 7.853
111 C3 166 8.830
111 C3 167 8.341
111 C3 168 7.365
111 C3 169 4.924
111 C3 170 2.482
111 C3 171 0.041
111 C3 172 -1.424
111 C3 173 -1.912
111 C3 174 -1.424
111 C3 175 -0.448
111 C3 176 0.041
111 C3 177 0.041
111 C3 178 -0.936
111 C3 179 -2.401
111 C3 180 -3.866
111 C3 181 -4.354
111 C3 182 -4.842
111 C3 183 -4.842
111 C3 184 -4.354
111 C3 185 -2.889
111 C3 186 -1.912
111 C3 187 0.041
111 C3 188 1.994
111 C3 189 2.482
111 C3 190 2.970
111 C3 191 1.994
111 C3 192 1.017
111 C3 193 0.529
111 C3 194 1.017
111 C3 195 2.482
111 C3 196 3.459
111 C3 197 3.459
111 C3 198 2.970
111 C3 199 1.506
111 C3 200 -0.448
111 C3 201 -1.424
111 C3 202 -1.912
111 C3 203 -1.912
111 C3 204 -1.424
111 C3 205 -1.424
111 C3 206 -1.912
111 C3 207 -2.889
111 C3 208 -3.377
111 C3 209 -2.401
111 C3 210 -1.424
111 C3 211 0.529
111 C3 212 1.506
111 C3 213 1.017
111 C3 214 0.529
111 C3 215 0.529
111 C3 216 0.041
111 C3 217 -0.448
111 C3 218 -1.912
111 C3 219 -3.377
111 C3 220 -3.377
111 C3 221 -1.424
111 C3 222 1.994
111 C3 223 4.435
111 C3 224 4.924
111 C3 225 2.482
111 C3 226 -1.424
111 C3 227 -4.354
111 C3 228 -4.842
111 C3 229 -3.866
111 C3 230 -2.889
111 C3 231 -3.866
111 C3 232 -5.330
111 C3 233 -6.795
111 C3 234 -6.307
111 C3 235 -2.889
111 C3 236 1.017
111 C3 237 3.459
111 C3 238 3.947
111 C3 239 2.482
111 C3 240 1.017
111 C3 241 0.529
111 C3 242 1.506
111 C3 243 2.482
111 C3 244 2.482
111 C3 245 0.041
111 C3 246 -2.889
111 C3 247 -5.330
111 C3 248 -5.819
111 C3 249 -4.354
111 C3 250 -2.401
111 C3 251 -1.424
111 C3 252 -0.448
111 C3 253 -0.936
111 C3 254 -1.424
111 C3 255 -1.912
# C4 chan 17
111 C4 0 4.924
111 C4 1 5.412
111 C4 2 5.900
111 C4 3 6.877
111 C4 4 7.853
111 C4 5 8.341
111 C4 6 8.341
111 C4 7 6.877
111 C4 8 4.435
111 C4 9 2.482
111 C4 10 1.017
111 C4 11 0.041
111 C4 12 -1.424
111 C4 13 -3.377
111 C4 14 -5.819
111 C4 15 -8.260
111 C4 16 -9.725
111 C4 17 -10.213
111 C4 18 -9.725
111 C4 19 -9.237
111 C4 20 -8.748
111 C4 21 -8.260
111 C4 22 -7.772
111 C4 23 -7.284
111 C4 24 -7.772
111 C4 25 -7.772
111 C4 26 -8.260
111 C4 27 -7.772
111 C4 28 -6.307
111 C4 29 -3.866
111 C4 30 -1.424
111 C4 31 1.017
111 C4 32 2.482
111 C4 33 3.947
111 C4 34 4.924
111 C4 35 5.412
111 C4 36 5.412
111 C4 37 4.924
111 C4 38 4.924
111 C4 39 4.924
111 C4 40 4.924
111 C4 41 4.924
111 C4 42 3.947
111 C4 43 2.970
111 C4 44 2.482
111 C4 45 2.482
111 C4 46 2.482
111 C4 47 2.482
111 C4 48 0.529
111 C4 49 -1.424
111 C4 50 -3.377
111 C4 51 -4.354
111 C4 52 -4.842
111 C4 53 -5.819
111 C4 54 -7.772
111 C4 55 -10.213
111 C4 56 -12.655
111 C4 57 -13.631
111 C4 58 -12.166
111 C4 59 -9.237
111 C4 60 -5.330
111 C4 61 -2.401
111 C4 62 0.041
111 C4 63 1.506
111 C4 64 2.970
111 C4 65 3.459
111 C4 66 4.435
111 C4 67 4.435
111 C4 68 4.435
111 C4 69 4.435
111 C4 70 3.947
111 C4 71 4.435
111 C4 72 4.435
111 C4 73 3.459
111 C4 74 1.994
111 C4 75 0.041
111 C4 76 -0.936
111 C4 77 -0.448
111 C4 78 0.529
111 C4 79 1.017
111 C4 80 0.041
111 C4 81 -3.377
111 C4 82 -7.284
111 C4 83 -10.213
111 C4 84 -11.190
111 C4 85 -10.213
111 C4 86 -8.260
111 C4 87 -7.284
111 C4 88 -6.795
111 C4 89 -6.795
111 C4 90 -6.307
111 C4 91 -5.819
111 C4 92 -5.819
111 C4 93 -6.307
111 C4 94 -7.284
111 C4 95 -7.284
111 C4 96 -6.307
111 C4 97 -3.866
111 C4 98 -2.401
111 C4 99 -1.424
111 C4 100 -1.912
111 C4 101 -2.889
111 C4 102 -2.889
111 C4 103 -2.401
111 C4 104 -1.912
111 C4 105 -1.912
111 C4 106 -1.912
111 C4 107 -0.936
111 C4 108 0.529
111 C4 109 3.459
111 C4 110 5.900
111 C4 111 7.365
111 C4 112 7.853
111 C4 113 7.853
111 C4 114 7.365
111 C4 115 6.877
111 C4 116 6.388
111 C4 117 6.388
111 C4 118 6.388
111 C4 119 6.877
111 C4 120 6.877
111 C4 121 5.900
111 C4 122 4.435
111 C4 123 2.970
111 C4 124 1.506
111 C4 125 1.017
111 C4 126 0.041
111 C4 127 -1.912
111 C4 128 -4.842
111 C4 129 -8.748
111 C4 130 -11.678
111 C4 131 -13.143
111 C4 132 -13.631
111 C4 133 -13.143
111 C4 134 -12.166
111 C4 135 -10.701
111 C4 136 -8.748
111 C4 137 -6.307
111 C4 138 -4.354
111 C4 139 -2.401
111 C4 140 -0.936
111 C4 141 0.529
111 C4 142 1.994
111 C4 143 3.459
111 C4 144 3.947
111 C4 145 3.947
111 C4 146 3.459
111 C4 147 2.970
111 C4 148 3.459
111 C4 149 4.435
111 C4 150 5.412
111 C4 151 4.435
111 C4 152 2.482
111 C4 153 0.041
111 C4 154 -1.424
111 C4 155 -0.936
111 C4 156 0.041
111 C4 157 1.017
111 C4 158 1.017
111 C4 159 -0.448
111 C4 160 -3.377
111 C4 161 -6.307
111 C4 162 -8.260
111 C4 163 -9.237
111 C4 164 -9.725
111 C4 165 -9.725
111 C4 166 -9.237
111 C4 167 -9.237
111 C4 168 -9.237
111 C4 169 -8.748
111 C4 170 -7.772
111 C4 171 -6.307
111 C4 172 -4.354
111 C4 173 -3.377
111 C4 174 -2.889
111 C4 175 -3.377
111 C4 176 -3.866
111 C4 177 -4.842
111 C4 178 -4.842
111 C4 179 -4.842
111 C4 180 -4.354
111 C4 181 -3.377
111 C4 182 -3.377
111 C4 183 -3.866
111 C4 184 -4.842
111 C4 185 -6.307
111 C4 186 -6.795
111 C4 187 -6.307
111 C4 188 -3.866
111 C4 189 -1.912
111 C4 190 0.041
111 C4 191 1.017
111 C4 192 0.529
111 C4 193 -0.936
111 C4 194 -2.889
111 C4 195 -4.842
111 C4 196 -6.795
111 C4 197 -7.772
111 C4 198 -8.260
111 C4 199 -9.237
111 C4 200 -10.701
111 C4 201 -13.143
111 C4 202 -14.608
111 C4 203 -16.073
111 C4 204 -16.561
111 C4 205 -16.073
111 C4 206 -15.096
111 C4 207 -13.143
111 C4 208 -11.190
111 C4 209 -9.237
111 C4 210 -7.772
111 C4 211 -6.795
111 C4 212 -7.284
111 C4 213 -7.772
111 C4 214 -7.284
111 C4 215 -6.795
111 C4 216 -4.842
111 C4 217 -2.889
111 C4 218 -1.424
111 C4 219 0.041
111 C4 220 1.994
111 C4 221 3.947
111 C4 222 4.924
111 C4 223 4.924
111 C4 224 3.947
111 C4 225 1.506
111 C4 226 0.529
111 C4 227 0.041
111 C4 228 0.041
111 C4 229 0.041
111 C4 230 -0.936
111 C4 231 -2.401
111 C4 232 -4.842
111 C4 233 -6.307
111 C4 234 -7.284
111 C4 235 -7.772
111 C4 236 -8.260
111 C4 237 -8.260
111 C4 238 -7.772
111 C4 239 -6.307
111 C4 240 -5.330
111 C4 241 -6.795
111 C4 242 -9.725
111 C4 243 -13.631
111 C4 244 -16.561
111 C4 245 -16.073
111 C4 246 -13.143
111 C4 247 -9.725
111 C4 248 -8.748
111 C4 249 -10.213
111 C4 250 -13.143
111 C4 251 -15.096
111 C4 252 -14.608
111 C4 253 -12.166
111 C4 254 -9.725
111 C4 255 -8.260
# CP5 chan 18
111 CP5 0 7.965
111 CP5 1 10.895
111 CP5 2 11.871
111 CP5 3 8.942
111 CP5 4 4.059
111 CP5 5 0.153
111 CP5 6 -0.824
111 CP5 7 0.641
111 CP5 8 2.594
111 CP5 9 2.106
111 CP5 10 0.153
111 CP5 11 -2.289
111 CP5 12 -3.265
111 CP5 13 -3.265
111 CP5 14 -4.242
111 CP5 15 -6.195
111 CP5 16 -9.613
111 CP5 17 -12.543
111 CP5 18 -13.031
111 CP5 19 -11.566
111 CP5 20 -9.125
111 CP5 21 -7.660
111 CP5 22 -7.660
111 CP5 23 -8.148
111 CP5 24 -8.636
111 CP5 25 -8.148
111 CP5 26 -7.172
111 CP5 27 -6.195
111 CP5 28 -5.219
111 CP5 29 -4.730
111 CP5 30 -5.219
111 CP5 31 -5.219
111 CP5 32 -4.730
111 CP5 33 -3.265
111 CP5 34 -1.801
111 CP5 35 -0.824
111 CP5 36 -0.336
111 CP5 37 -0.824
111 CP5 38 -1.312
111 CP5 39 -0.336
111 CP5 40 2.106
111 CP5 41 4.547
111 CP5 42 6.012
111 CP5 43 6.012
111 CP5 44 3.571
111 CP5 45 0.153
111 CP5 46 -2.289
111 CP5 47 -3.754
111 CP5 48 -5.219
111 CP5 49 -6.195
111 CP5 50 -6.683
111 CP5 51 -6.683
111 CP5 52 -6.683
111 CP5 53 -6.195
111 CP5 54 -6.683
111 CP5 55 -6.683
111 CP5 56 -6.683
111 CP5 57 -5.707
111 CP5 58 -4.730
111 CP5 59 -4.242
111 CP5 60 -4.730
111 CP5 61 -6.195
111 CP5 62 -6.683
111 CP5 63 -6.195
111 CP5 64 -3.754
111 CP5 65 -0.824
111 CP5 66 2.106
111 CP5 67 3.082
111 CP5 68 3.082
111 CP5 69 2.594
111 CP5 70 2.106
111 CP5 71 0.641
111 CP5 72 -0.824
111 CP5 73 -2.777
111 CP5 74 -4.730
111 CP5 75 -4.242
111 CP5 76 -3.265
111 CP5 77 -1.312
111 CP5 78 -0.336
111 CP5 79 -1.801
111 CP5 80 -5.219
111 CP5 81 -8.636
111 CP5 82 -9.613
111 CP5 83 -8.636
111 CP5 84 -6.195
111 CP5 85 -4.242
111 CP5 86 -4.242
111 CP5 87 -5.707
111 CP5 88 -8.148
111 CP5 89 -9.125
111 CP5 90 -9.125
111 CP5 91 -9.125
111 CP5 92 -8.148
111 CP5 93 -7.660
111 CP5 94 -6.683
111 CP5 95 -6.195
111 CP5 96 -4.730
111 CP5 97 -4.730
111 CP5 98 -4.730
111 CP5 99 -5.707
111 CP5 100 -6.683
111 CP5 101 -7.660
111 CP5 102 -8.636
111 CP5 103 -9.613
111 CP5 104 -10.590
111 CP5 105 -10.590
111 CP5 106 -10.101
111 CP5 107 -9.125
111 CP5 108 -7.172
111 CP5 109 -5.219
111 CP5 110 -4.242
111 CP5 111 -3.265
111 CP5 112 -2.777
111 CP5 113 -1.312
111 CP5 114 0.153
111 CP5 115 2.106
111 CP5 116 3.082
111 CP5 117 3.571
111 CP5 118 4.059
111 CP5 119 4.547
111 CP5 120 6.012
111 CP5 121 7.477
111 CP5 122 8.942
111 CP5 123 8.453
111 CP5 124 6.989
111 CP5 125 5.035
111 CP5 126 3.082
111 CP5 127 0.641
111 CP5 128 -1.312
111 CP5 129 -3.754
111 CP5 130 -4.730
111 CP5 131 -4.730
111 CP5 132 -3.754
111 CP5 133 -2.777
111 CP5 134 -2.777
111 CP5 135 -4.242
111 CP5 136 -6.683
111 CP5 137 -8.148
111 CP5 138 -7.660
111 CP5 139 -5.219
111 CP5 140 -2.777
111 CP5 141 -0.336
111 CP5 142 0.153
111 CP5 143 0.153
111 CP5 144 0.641
111 CP5 145 2.594
111 CP5 146 4.547
111 CP5 147 7.477
111 CP5 148 9.918
111 CP5 149 11.383
111 CP5 150 11.871
111 CP5 151 11.871
111 CP5 152 10.895
111 CP5 153 9.430
111 CP5 154 8.453
111 CP5 155 7.965
111 CP5 156 7.965
111 CP5 157 7.965
111 CP5 158 6.989
111 CP5 159 4.547
111 CP5 160 1.617
111 CP5 161 0.153
111 CP5 162 0.153
111 CP5 163 2.594
111 CP5 164 5.035
111 CP5 165 6.012
111 CP5 166 4.059
111 CP5 167 0.153
111 CP5 168 -3.754
111 CP5 169 -6.195
111 CP5 170 -7.172
111 CP5 171 -7.172
111 CP5 172 -7.660
111 CP5 173 -9.125
111 CP5 174 -10.590
111 CP5 175 -11.566
111 CP5 176 -11.566
111 CP5 177 -12.054
111 CP5 178 -13.031
111 CP5 179 -15.472
111 CP5 180 -17.914
111 CP5 181 -19.867
111 CP5 182 -19.867
111 CP5 183 -17.914
111 CP5 184 -14.984
111 CP5 185 -12.054
111 CP5 186 -9.613
111 CP5 187 -7.660
111 CP5 188 -6.195
111 CP5 189 -4.242
111 CP5 190 -2.777
111 CP5 191 -1.801
111 CP5 192 -1.801
111 CP5 193 -2.289
111 CP5 194 -1.801
111 CP5 195 -0.824
111 CP5 196 0.641
111 CP5 197 2.106
111 CP5 198 1.617
111 CP5 199 0.153
111 CP5 200 -2.289
111 CP5 201 -5.219
111 CP5 202 -6.683
111 CP5 203 -6.195
111 CP5 204 -5.707
111 CP5 205 -5.707
111 CP5 206 -8.148
111 CP5 207 -11.566
111 CP5 208 -13.519
111 CP5 209 -13.519
111 CP5 210 -11.566
111 CP5 211 -9.613
111 CP5 212 -8.636
111 CP5 213 -9.613
111 CP5 214 -10.101
111 CP5 215 -10.101
111 CP5 216 -8.636
111 CP5 217 -6.683
111 CP5 218 -5.707
111 CP5 219 -5.707
111 CP5 220 -4.730
111 CP5 221 -1.312
111 CP5 222 4.059
111 CP5 223 7.965
111 CP5 224 7.965
111 CP5 225 3.571
111 CP5 226 -2.289
111 CP5 227 -5.707
111 CP5 228 -6.195
111 CP5 229 -3.754
111 CP5 230 -2.777
111 CP5 231 -5.219
111 CP5 232 -9.125
111 CP5 233 -12.054
111 CP5 234 -10.590
111 CP5 235 -4.242
111 CP5 236 3.571
111 CP5 237 8.942
111 CP5 238 8.942
111 CP5 239 5.524
111 CP5 240 0.641
111 CP5 241 -2.777
111 CP5 242 -3.265
111 CP5 243 -3.265
111 CP5 244 -5.219
111 CP5 245 -8.636
111 CP5 246 -13.031
111 CP5 247 -15.961
111 CP5 248 -16.937
111 CP5 249 -16.449
111 CP5 250 -15.961
111 CP5 251 -15.472
111 CP5 252 -14.008
111 CP5 253 -12.054
111 CP5 254 -9.125
111 CP5 255 -6.195
# CP6 chan 19
111 CP6 0 8.413
111 CP6 1 8.901
111 CP6 2 9.389
111 CP6 3 8.901
111 CP6 4 7.436
111 CP6 5 4.995
111 CP6 6 1.577
111 CP6 7 -1.841
111 CP6 8 -4.771
111 CP6 9 -7.701
111 CP6 10 -9.654
111 CP6 11 -11.119
111 CP6 12 -12.583
111 CP6 13 -14.048
111 CP6 14 -15.513
111 CP6 15 -17.466
111 CP6 16 -17.466
111 CP6 17 -17.466
111 CP6 18 -16.490
111 CP6 19 -15.513
111 CP6 20 -15.025
111 CP6 21 -14.537
111 CP6 22 -13.560
111 CP6 23 -11.607
111 CP6 24 -10.630
111 CP6 25 -10.142
111 CP6 26 -9.654
111 CP6 27 -8.677
111 CP6 28 -7.212
111 CP6 29 -4.283
111 CP6 30 -1.353
111 CP6 31 1.088
111 CP6 32 3.530
111 CP6 33 4.995
111 CP6 34 5.483
111 CP6 35 5.483
111 CP6 36 4.018
111 CP6 37 3.042
111 CP6 38 2.065
111 CP6 39 2.065
111 CP6 40 3.042
111 CP6 41 3.530
111 CP6 42 2.553
111 CP6 43 0.112
111 CP6 44 -2.818
111 CP6 45 -4.771
111 CP6 46 -5.747
111 CP6 47 -5.747
111 CP6 48 -5.747
111 CP6 49 -5.747
111 CP6 50 -6.236
111 CP6 51 -6.236
111 CP6 52 -6.724
111 CP6 53 -8.677
111 CP6 54 -11.119
111 CP6 55 -13.560
111 CP6 56 -14.537
111 CP6 57 -13.072
111 CP6 58 -9.165
111 CP6 59 -3.794
111 CP6 60 0.112
111 CP6 61 3.042
111 CP6 62 4.506
111 CP6 63 6.460
111 CP6 64 8.901
111 CP6 65 11.831
111 CP6 66 13.784
111 CP6 67 13.784
111 CP6 68 12.319
111 CP6 69 10.366
111 CP6 70 9.389
111 CP6 71 9.878
111 CP6 72 10.854
111 CP6 73 10.366
111 CP6 74 7.924
111 CP6 75 4.995
111 CP6 76 2.065
111 CP6 77 1.577
111 CP6 78 1.577
111 CP6 79 1.577
111 CP6 80 0.112
111 CP6 81 -2.818
111 CP6 82 -6.236
111 CP6 83 -8.189
111 CP6 84 -9.165
111 CP6 85 -8.677
111 CP6 86 -7.701
111 CP6 87 -6.724
111 CP6 88 -6.236
111 CP6 89 -6.236
111 CP6 90 -6.236
111 CP6 91 -6.236
111 CP6 92 -6.236
111 CP6 93 -6.236
111 CP6 94 -6.236
111 CP6 95 -4.283
111 CP6 96 -1.353
111 CP6 97 0.600
111 CP6 98 2.065
111 CP6 99 1.577
111 CP6 100 1.088
111 CP6 101 1.088
111 CP6 102 1.088
111 CP6 103 2.065
111 CP6 104 2.553
111 CP6 105 2.553
111 CP6 106 3.042
111 CP6 107 5.483
111 CP6 108 7.924
111 CP6 109 10.854
111 CP6 110 12.807
111 CP6 111 13.295
111 CP6 112 12.807
111 CP6 113 12.807
111 CP6 114 13.784
111 CP6 115 15.249
111 CP6 116 16.713
111 CP6 117 17.202
111 CP6 118 17.202
111 CP6 119 16.713
111 CP6 120 16.225
111 CP6 121 14.760
111 CP6 122 12.807
111 CP6 123 10.366
111 CP6 124 7.436
111 CP6 125 4.995
111 CP6 126 2.065
111 CP6 127 -0.865
111 CP6 128 -4.771
111 CP6 129 -9.654
111 CP6 130 -14.537
111 CP6 131 -17.466
111 CP6 132 -17.955
111 CP6 133 -17.466
111 CP6 134 -17.466
111 CP6 135 -17.466
111 CP6 136 -17.955
111 CP6 137 -16.978
111 CP6 138 -14.537
111 CP6 139 -10.142
111 CP6 140 -5.259
111 CP6 141 -1.353
111 CP6 142 1.577
111 CP6 143 3.530
111 CP6 144 4.995
111 CP6 145 6.948
111 CP6 146 8.413
111 CP6 147 11.342
111 CP6 148 13.295
111 CP6 149 14.760
111 CP6 150 14.760
111 CP6 151 12.807
111 CP6 152 8.901
111 CP6 153 4.995
111 CP6 154 3.530
111 CP6 155 3.042
111 CP6 156 3.042
111 CP6 157 1.577
111 CP6 158 -1.841
111 CP6 159 -8.189
111 CP6 160 -14.537
111 CP6 161 -20.396
111 CP6 162 -23.814
111 CP6 163 -25.767
111 CP6 164 -27.232
111 CP6 165 -28.208
111 CP6 166 -28.208
111 CP6 167 -27.232
111 CP6 168 -23.814
111 CP6 169 -19.419
111 CP6 170 -15.025
111 CP6 171 -11.119
111 CP6 172 -8.189
111 CP6 173 -6.724
111 CP6 174 -6.236
111 CP6 175 -7.701
111 CP6 176 -9.165
111 CP6 177 -10.630
111 CP6 178 -12.583
111 CP6 179 -14.048
111 CP6 180 -16.001
111 CP6 181 -17.955
111 CP6 182 -19.419
111 CP6 183 -20.396
111 CP6 184 -20.396
111 CP6 185 -19.908
111 CP6 186 -18.443
111 CP6 187 -16.978
111 CP6 188 -15.513
111 CP6 189 -14.048
111 CP6 190 -12.583
111 CP6 191 -11.119
111 CP6 192 -10.630
111 CP6 193 -11.607
111 CP6 194 -12.583
111 CP6 195 -14.537
111 CP6 196 -15.513
111 CP6 197 -16.001
111 CP6 198 -16.490
111 CP6 199 -17.466
111 CP6 200 -19.419
111 CP6 201 -21.861
111 CP6 202 -24.302
111 CP6 203 -25.279
111 CP6 204 -25.767
111 CP6 205 -25.767
111 CP6 206 -27.232
111 CP6 207 -28.697
111 CP6 208 -29.673
111 CP6 209 -29.673
111 CP6 210 -28.697
111 CP6 211 -28.208
111 CP6 212 -27.720
111 CP6 213 -28.208
111 CP6 214 -26.744
111 CP6 215 -23.814
111 CP6 216 -19.419
111 CP6 217 -14.537
111 CP6 218 -10.630
111 CP6 219 -7.701
111 CP6 220 -5.259
111 CP6 221 -2.818
111 CP6 222 -0.865
111 CP6 223 0.112
111 CP6 224 -1.353
111 CP6 225 -3.794
111 CP6 226 -6.236
111 CP6 227 -6.724
111 CP6 228 -6.236
111 CP6 229 -6.236
111 CP6 230 -8.677
111 CP6 231 -12.583
111 CP6 232 -16.001
111 CP6 233 -16.978
111 CP6 234 -14.537
111 CP6 235 -9.654
111 CP6 236 -4.771
111 CP6 237 -1.841
111 CP6 238 -1.353
111 CP6 239 -3.306
111 CP6 240 -6.724
111 CP6 241 -11.607
111 CP6 242 -16.978
111 CP6 243 -22.837
111 CP6 244 -28.208
111 CP6 245 -31.138
111 CP6 246 -31.626
111 CP6 247 -32.115
111 CP6 248 -32.603
111 CP6 249 -36.021
111 CP6 250 -40.415
111 CP6 251 -43.833
111 CP6 252 -44.322
111 CP6 253 -41.880
111 CP6 254 -37.974
111 CP6 255 -34.068
# CP1 chan 20
111 CP1 0 -0.071
111 CP1 1 0.905
111 CP1 2 1.882
111 CP1 3 1.882
111 CP1 4 1.394
111 CP1 5 0.905
111 CP1 6 0.905
111 CP1 7 1.394
111 CP1 8 0.905
111 CP1 9 0.417
111 CP1 10 -0.559
111 CP1 11 -1.536
111 CP1 12 -1.536
111 CP1 13 -1.536
111 CP1 14 -1.536
111 CP1 15 -2.513
111 CP1 16 -3.489
111 CP1 17 -4.466
111 CP1 18 -4.954
111 CP1 19 -4.466
111 CP1 20 -3.977
111 CP1 21 -3.489
111 CP1 22 -3.001
111 CP1 23 -3.489
111 CP1 24 -3.977
111 CP1 25 -3.977
111 CP1 26 -3.489
111 CP1 27 -3.001
111 CP1 28 -3.001
111 CP1 29 -3.001
111 CP1 30 -3.001
111 CP1 31 -3.489
111 CP1 32 -3.001
111 CP1 33 -2.513
111 CP1 34 -1.536
111 CP1 35 -1.048
111 CP1 36 -0.559
111 CP1 37 -0.559
111 CP1 38 -0.559
111 CP1 39 0.417
111 CP1 40 0.905
111 CP1 41 2.370
111 CP1 42 3.347
111 CP1 43 3.835
111 CP1 44 3.347
111 CP1 45 2.370
111 CP1 46 1.394
111 CP1 47 0.905
111 CP1 48 0.905
111 CP1 49 0.417
111 CP1 50 0.417
111 CP1 51 -0.071
111 CP1 52 -0.071
111 CP1 53 -0.071
111 CP1 54 -0.071
111 CP1 55 -0.071
111 CP1 56 -0.559
111 CP1 57 -1.048
111 CP1 58 -1.048
111 CP1 59 -1.536
111 CP1 60 -1.536
111 CP1 61 -1.536
111 CP1 62 -1.536
111 CP1 63 -1.048
111 CP1 64 0.905
111 CP1 65 2.370
111 CP1 66 3.835
111 CP1 67 4.323
111 CP1 68 4.323
111 CP1 69 4.323
111 CP1 70 4.812
111 CP1 71 5.300
111 CP1 72 5.788
111 CP1 73 6.276
111 CP1 74 6.276
111 CP1 75 6.276
111 CP1 76 6.276
111 CP1 77 6.765
111 CP1 78 5.788
111 CP1 79 4.812
111 CP1 80 2.858
111 CP1 81 1.394
111 CP1 82 0.417
111 CP1 83 0.417
111 CP1 84 0.905
111 CP1 85 1.882
111 CP1 86 2.370
111 CP1 87 2.370
111 CP1 88 2.370
111 CP1 89 1.882
111 CP1 90 1.882
111 CP1 91 1.394
111 CP1 92 1.394
111 CP1 93 1.882
111 CP1 94 1.882
111 CP1 95 2.370
111 CP1 96 2.858
111 CP1 97 2.858
111 CP1 98 2.370
111 CP1 99 1.882
111 CP1 100 0.905
111 CP1 101 0.905
111 CP1 102 0.905
111 CP1 103 0.905
111 CP1 104 0.417
111 CP1 105 -0.071
111 CP1 106 -1.048
111 CP1 107 -1.536
111 CP1 108 -1.536
111 CP1 109 -1.048
111 CP1 110 -0.071
111 CP1 111 0.417
111 CP1 112 0.417
111 CP1 113 0.417
111 CP1 114 1.394
111 CP1 115 2.370
111 CP1 116 3.835
111 CP1 117 5.300
111 CP1 118 6.276
111 CP1 119 6.765
111 CP1 120 6.765
111 CP1 121 6.765
111 CP1 122 7.253
111 CP1 123 7.253
111 CP1 124 6.276
111 CP1 125 5.300
111 CP1 126 4.323
111 CP1 127 3.347
111 CP1 128 2.370
111 CP1 129 1.394
111 CP1 130 0.417
111 CP1 131 -0.559
111 CP1 132 -1.048
111 CP1 133 -1.536
111 CP1 134 -1.536
111 CP1 135 -2.513
111 CP1 136 -3.001
111 CP1 137 -3.001
111 CP1 138 -2.513
111 CP1 139 -1.048
111 CP1 140 1.394
111 CP1 141 2.858
111 CP1 142 3.835
111 CP1 143 4.323
111 CP1 144 4.812
111 CP1 145 5.300
111 CP1 146 6.765
111 CP1 147 8.718
111 CP1 148 10.671
111 CP1 149 11.648
111 CP1 150 12.136
111 CP1 151 11.159
111 CP1 152 9.694
111 CP1 153 7.741
111 CP1 154 6.765
111 CP1 155 5.788
111 CP1 156 5.788
111 CP1 157 5.300
111 CP1 158 4.812
111 CP1 159 2.858
111 CP1 160 0.905
111 CP1 161 -1.048
111 CP1 162 -1.048
111 CP1 163 -0.071
111 CP1 164 1.394
111 CP1 165 2.858
111 CP1 166 3.347
111 CP1 167 3.347
111 CP1 168 2.370
111 CP1 169 1.394
111 CP1 170 0.417
111 CP1 171 -0.071
111 CP1 172 -0.559
111 CP1 173 -1.048
111 CP1 174 -1.048
111 CP1 175 -1.536
111 CP1 176 -2.513
111 CP1 177 -3.001
111 CP1 178 -3.977
111 CP1 179 -4.954
111 CP1 180 -6.419
111 CP1 181 -7.884
111 CP1 182 -9.349
111 CP1 183 -9.349
111 CP1 184 -9.349
111 CP1 185 -7.884
111 CP1 186 -6.419
111 CP1 187 -5.442
111 CP1 188 -4.954
111 CP1 189 -4.466
111 CP1 190 -3.977
111 CP1 191 -3.001
111 CP1 192 -1.536
111 CP1 193 -0.071
111 CP1 194 1.882
111 CP1 195 3.347
111 CP1 196 5.300
111 CP1 197 6.765
111 CP1 198 7.253
111 CP1 199 6.765
111 CP1 200 5.300
111 CP1 201 3.835
111 CP1 202 2.370
111 CP1 203 1.882
111 CP1 204 1.394
111 CP1 205 0.417
111 CP1 206 -2.513
111 CP1 207 -5.442
111 CP1 208 -8.372
111 CP1 209 -10.325
111 CP1 210 -10.325
111 CP1 211 -9.349
111 CP1 212 -9.349
111 CP1 213 -9.349
111 CP1 214 -9.349
111 CP1 215 -8.860
111 CP1 216 -7.395
111 CP1 217 -5.442
111 CP1 218 -3.977
111 CP1 219 -3.489
111 CP1 220 -2.513
111 CP1 221 -1.048
111 CP1 222 1.394
111 CP1 223 3.347
111 CP1 224 3.835
111 CP1 225 2.858
111 CP1 226 0.905
111 CP1 227 -0.559
111 CP1 228 -0.559
111 CP1 229 0.905
111 CP1 230 1.882
111 CP1 231 0.905
111 CP1 232 -1.048
111 CP1 233 -2.513
111 CP1 234 -2.513
111 CP1 235 -0.071
111 CP1 236 2.858
111 CP1 237 4.812
111 CP1 238 4.323
111 CP1 239 1.882
111 CP1 240 -1.048
111 CP1 241 -2.513
111 CP1 242 -3.489
111 CP1 243 -4.466
111 CP1 244 -5.442
111 CP1 245 -7.395
111 CP1 246 -9.349
111 CP1 247 -10.813
111 CP1 248 -11.302
111 CP1 249 -10.813
111 CP1 250 -9.837
111 CP1 251 -9.349
111 CP1 252 -8.372
111 CP1 253 -7.884
111 CP1 254 -6.907
111 CP1 255 -5.931
# CP2 chan 21
111 CP2 0 5.707
111 CP2 1 6.195
111 CP2 2 6.195
111 CP2 3 6.195
111 CP2 4 5.219
111 CP2 5 4.242
111 CP2 6 3.265
111 CP2 7 1.801
111 CP2 8 -0.153
111 CP2 9 -1.617
111 CP2 10 -3.571
111 CP2 11 -5.035
111 CP2 12 -6.012
111 CP2 13 -6.500
111 CP2 14 -7.477
111 CP2 15 -7.965
111 CP2 16 -8.453
111 CP2 17 -8.942
111 CP2 18 -8.453
111 CP2 19 -8.453
111 CP2 20 -7.477
111 CP2 21 -6.500
111 CP2 22 -5.035
111 CP2 23 -4.059
111 CP2 24 -3.571
111 CP2 25 -3.082
111 CP2 26 -3.571
111 CP2 27 -3.571
111 CP2 28 -3.082
111 CP2 29 -1.129
111 CP2 30 0.336
111 CP2 31 1.801
111 CP2 32 3.265
111 CP2 33 4.730
111 CP2 34 5.707
111 CP2 35 5.707
111 CP2 36 5.219
111 CP2 37 4.242
111 CP2 38 3.754
111 CP2 39 3.754
111 CP2 40 3.754
111 CP2 41 3.754
111 CP2 42 3.265
111 CP2 43 2.777
111 CP2 44 1.801
111 CP2 45 0.824
111 CP2 46 0.336
111 CP2 47 0.336
111 CP2 48 -0.153
111 CP2 49 -0.153
111 CP2 50 -0.153
111 CP2 51 -0.153
111 CP2 52 -0.641
111 CP2 53 -1.617
111 CP2 54 -3.082
111 CP2 55 -4.059
111 CP2 56 -4.547
111 CP2 57 -3.571
111 CP2 58 -1.617
111 CP2 59 0.336
111 CP2 60 2.289
111 CP2 61 3.754
111 CP2 62 5.219
111 CP2 63 6.195
111 CP2 64 7.660
111 CP2 65 9.125
111 CP2 66 9.613
111 CP2 67 9.613
111 CP2 68 9.125
111 CP2 69 8.636
111 CP2 70 9.125
111 CP2 71 10.101
111 CP2 72 10.590
111 CP2 73 10.590
111 CP2 74 10.101
111 CP2 75 8.636
111 CP2 76 7.172
111 CP2 77 6.683
111 CP2 78 6.683
111 CP2 79 6.195
111 CP2 80 4.730
111 CP2 81 3.265
111 CP2 82 0.824
111 CP2 83 -0.153
111 CP2 84 -0.153
111 CP2 85 -0.153
111 CP2 86 0.824
111 CP2 87 1.312
111 CP2 88 1.312
111 CP2 89 1.801
111 CP2 90 1.312
111 CP2 91 1.801
111 CP2 92 1.801
111 CP2 93 1.801
111 CP2 94 2.289
111 CP2 95 3.265
111 CP2 96 4.242
111 CP2 97 5.219
111 CP2 98 5.707
111 CP2 99 5.219
111 CP2 100 5.219
111 CP2 101 5.219
111 CP2 102 5.707
111 CP2 103 6.683
111 CP2 104 6.195
111 CP2 105 5.707
111 CP2 106 5.219
111 CP2 107 5.707
111 CP2 108 6.683
111 CP2 109 8.148
111 CP2 110 9.125
111 CP2 111 8.636
111 CP2 112 8.148
111 CP2 113 7.172
111 CP2 114 7.660
111 CP2 115 8.636
111 CP2 116 10.101
111 CP2 117 10.590
111 CP2 118 11.078
111 CP2 119 10.590
111 CP2 120 10.101
111 CP2 121 10.101
111 CP2 122 10.101
111 CP2 123 10.101
111 CP2 124 8.636
111 CP2 125 7.660
111 CP2 126 6.195
111 CP2 127 4.242
111 CP2 128 1.801
111 CP2 129 -0.641
111 CP2 130 -3.571
111 CP2 131 -5.524
111 CP2 132 -6.500
111 CP2 133 -6.500
111 CP2 134 -6.989
111 CP2 135 -6.500
111 CP2 136 -6.500
111 CP2 137 -5.035
111 CP2 138 -3.571
111 CP2 139 -0.641
111 CP2 140 1.801
111 CP2 141 3.754
111 CP2 142 5.707
111 CP2 143 6.683
111 CP2 144 7.660
111 CP2 145 8.636
111 CP2 146 9.613
111 CP2 147 11.566
111 CP2 148 13.519
111 CP2 149 14.496
111 CP2 150 14.496
111 CP2 151 12.543
111 CP2 152 9.613
111 CP2 153 7.172
111 CP2 154 5.219
111 CP2 155 4.242
111 CP2 156 3.754
111 CP2 157 2.777
111 CP2 158 -0.153
111 CP2 159 -3.571
111 CP2 160 -7.477
111 CP2 161 -10.406
111 CP2 162 -11.383
111 CP2 163 -11.871
111 CP2 164 -10.895
111 CP2 165 -10.406
111 CP2 166 -8.942
111 CP2 167 -6.989
111 CP2 168 -4.547
111 CP2 169 -2.106
111 CP2 170 -0.153
111 CP2 171 1.801
111 CP2 172 2.777
111 CP2 173 2.777
111 CP2 174 2.289
111 CP2 175 1.312
111 CP2 176 0.336
111 CP2 177 -1.129
111 CP2 178 -2.594
111 CP2 179 -4.059
111 CP2 180 -6.012
111 CP2 181 -7.965
111 CP2 182 -9.918
111 CP2 183 -11.383
111 CP2 184 -11.871
111 CP2 185 -12.360
111 CP2 186 -11.871
111 CP2 187 -11.383
111 CP2 188 -10.406
111 CP2 189 -9.430
111 CP2 190 -8.453
111 CP2 191 -6.989
111 CP2 192 -5.524
111 CP2 193 -4.059
111 CP2 194 -2.594
111 CP2 195 -1.129
111 CP2 196 -0.153
111 CP2 197 1.312
111 CP2 198 2.289
111 CP2 199 2.289
111 CP2 200 1.801
111 CP2 201 0.824
111 CP2 202 -0.153
111 CP2 203 -1.129
111 CP2 204 -1.617
111 CP2 205 -3.082
111 CP2 206 -5.524
111 CP2 207 -8.453
111 CP2 208 -11.871
111 CP2 209 -14.313
111 CP2 210 -15.778
111 CP2 211 -16.266
111 CP2 212 -17.242
111 CP2 213 -17.242
111 CP2 214 -16.754
111 CP2 215 -15.289
111 CP2 216 -12.360
111 CP2 217 -9.430
111 CP2 218 -6.500
111 CP2 219 -5.035
111 CP2 220 -3.571
111 CP2 221 -2.106
111 CP2 222 -0.641
111 CP2 223 0.824
111 CP2 224 1.312
111 CP2 225 0.824
111 CP2 226 0.824
111 CP2 227 0.824
111 CP2 228 1.801
111 CP2 229 2.777
111 CP2 230 2.777
111 CP2 231 2.289
111 CP2 232 0.824
111 CP2 233 -0.153
111 CP2 234 0.336
111 CP2 235 2.289
111 CP2 236 3.265
111 CP2 237 3.754
111 CP2 238 3.265
111 CP2 239 1.801
111 CP2 240 -0.641
111 CP2 241 -3.082
111 CP2 242 -6.012
111 CP2 243 -8.942
111 CP2 244 -11.383
111 CP2 245 -13.336
111 CP2 246 -13.336
111 CP2 247 -13.336
111 CP2 248 -12.848
111 CP2 249 -13.824
111 CP2 250 -15.289
111 CP2 251 -16.754
111 CP2 252 -16.754
111 CP2 253 -16.266
111 CP2 254 -14.313
111 CP2 255 -12.360
# P3 chan 22
111 P3 0 4.924
111 P3 1 5.900
111 P3 2 5.900
111 P3 3 3.947
111 P3 4 1.506
111 P3 5 0.041
111 P3 6 -0.448
111 P3 7 -0.448
111 P3 8 -0.448
111 P3 9 -1.912
111 P3 10 -3.377
111 P3 11 -4.842
111 P3 12 -5.330
111 P3 13 -5.819
111 P3 14 -6.795
111 P3 15 -8.748
111 P3 16 -10.701
111 P3 17 -12.655
111 P3 18 -13.143
111 P3 19 -12.166
111 P3 20 -10.701
111 P3 21 -9.725
111 P3 22 -9.725
111 P3 23 -9.725
111 P3 24 -10.213
111 P3 25 -10.213
111 P3 26 -9.725
111 P3 27 -9.725
111 P3 28 -9.237
111 P3 29 -9.237
111 P3 30 -8.260
111 P3 31 -6.795
111 P3 32 -5.330
111 P3 33 -3.377
111 P3 34 -1.912
111 P3 35 -0.448
111 P3 36 -0.448
111 P3 37 0.041
111 P3 38 -0.448
111 P3 39 0.529
111 P3 40 1.994
111 P3 41 3.459
111 P3 42 4.435
111 P3 43 3.459
111 P3 44 1.994
111 P3 45 -0.448
111 P3 46 -2.401
111 P3 47 -3.866
111 P3 48 -4.354
111 P3 49 -4.842
111 P3 50 -5.330
111 P3 51 -5.330
111 P3 52 -4.842
111 P3 53 -4.842
111 P3 54 -5.330
111 P3 55 -5.330
111 P3 56 -5.330
111 P3 57 -4.842
111 P3 58 -3.866
111 P3 59 -2.889
111 P3 60 -1.912
111 P3 61 -1.424
111 P3 62 -0.448
111 P3 63 1.994
111 P3 64 4.435
111 P3 65 7.365
111 P3 66 8.341
111 P3 67 8.341
111 P3 68 7.853
111 P3 69 6.877
111 P3 70 6.388
111 P3 71 6.388
111 P3 72 5.412
111 P3 73 4.435
111 P3 74 3.459
111 P3 75 3.459
111 P3 76 3.947
111 P3 77 4.435
111 P3 78 3.459
111 P3 79 1.017
111 P3 80 -1.912
111 P3 81 -4.354
111 P3 82 -5.330
111 P3 83 -5.330
111 P3 84 -4.354
111 P3 85 -3.377
111 P3 86 -2.889
111 P3 87 -2.401
111 P3 88 -1.912
111 P3 89 -1.912
111 P3 90 -1.912
111 P3 91 -1.912
111 P3 92 -1.424
111 P3 93 -0.936
111 P3 94 0.529
111 P3 95 1.994
111 P3 96 2.970
111 P3 97 3.947
111 P3 98 2.482
111 P3 99 1.506
111 P3 100 1.017
111 P3 101 1.017
111 P3 102 1.017
111 P3 103 1.017
111 P3 104 0.529
111 P3 105 -0.936
111 P3 106 -2.889
111 P3 107 -3.377
111 P3 108 -3.377
111 P3 109 -2.401
111 P3 110 -2.401
111 P3 111 -2.401
111 P3 112 -3.377
111 P3 113 -2.889
111 P3 114 -0.936
111 P3 115 1.506
111 P3 116 3.947
111 P3 117 5.900
111 P3 118 6.877
111 P3 119 8.341
111 P3 120 9.806
111 P3 121 11.759
111 P3 122 12.736
111 P3 123 12.248
111 P3 124 10.783
111 P3 125 7.853
111 P3 126 4.924
111 P3 127 2.970
111 P3 128 1.017
111 P3 129 -0.936
111 P3 130 -2.889
111 P3 131 -4.354
111 P3 132 -5.330
111 P3 133 -5.819
111 P3 134 -6.307
111 P3 135 -7.284
111 P3 136 -7.772
111 P3 137 -7.772
111 P3 138 -6.307
111 P3 139 -3.377
111 P3 140 0.041
111 P3 141 2.482
111 P3 142 4.435
111 P3 143 5.412
111 P3 144 6.388
111 P3 145 7.853
111 P3 146 10.295
111 P3 147 13.224
111 P3 148 16.154
111 P3 149 18.595
111 P3 150 19.572
111 P3 151 18.107
111 P3 152 15.666
111 P3 153 12.736
111 P3 154 10.295
111 P3 155 9.806
111 P3 156 9.806
111 P3 157 8.830
111 P3 158 6.877
111 P3 159 3.947
111 P3 160 0.529
111 P3 161 -1.424
111 P3 162 -0.936
111 P3 163 1.017
111 P3 164 3.459
111 P3 165 4.435
111 P3 166 4.924
111 P3 167 3.947
111 P3 168 2.970
111 P3 169 1.994
111 P3 170 0.529
111 P3 171 -0.448
111 P3 172 -2.401
111 P3 173 -3.866
111 P3 174 -5.330
111 P3 175 -6.795
111 P3 176 -8.260
111 P3 177 -10.213
111 P3 178 -12.166
111 P3 179 -14.608
111 P3 180 -17.049
111 P3 181 -19.979
111 P3 182 -21.444
111 P3 183 -22.420
111 P3 184 -21.444
111 P3 185 -19.002
111 P3 186 -15.584
111 P3 187 -12.166
111 P3 188 -8.748
111 P3 189 -5.819
111 P3 190 -3.377
111 P3 191 -1.424
111 P3 192 0.041
111 P3 193 1.994
111 P3 194 3.947
111 P3 195 6.388
111 P3 196 8.830
111 P3 197 10.295
111 P3 198 9.806
111 P3 199 8.341
111 P3 200 4.435
111 P3 201 0.529
111 P3 202 -2.401
111 P3 203 -3.866
111 P3 204 -4.354
111 P3 205 -6.307
111 P3 206 -10.213
111 P3 207 -15.096
111 P3 208 -19.979
111 P3 209 -22.909
111 P3 210 -22.909
111 P3 211 -21.932
111 P3 212 -21.444
111 P3 213 -20.955
111 P3 214 -19.979
111 P3 215 -17.049
111 P3 216 -13.143
111 P3 217 -9.237
111 P3 218 -5.819
111 P3 219 -3.377
111 P3 220 -0.448
111 P3 221 3.947
111 P3 222 8.341
111 P3 223 10.783
111 P3 224 10.295
111 P3 225 5.900
111 P3 226 1.017
111 P3 227 -2.401
111 P3 228 -3.377
111 P3 229 -3.377
111 P3 230 -3.377
111 P3 231 -5.819
111 P3 232 -8.260
111 P3 233 -9.725
111 P3 234 -7.284
111 P3 235 -1.424
111 P3 236 5.412
111 P3 237 9.318
111 P3 238 9.318
111 P3 239 6.388
111 P3 240 1.994
111 P3 241 -2.401
111 P3 242 -5.330
111 P3 243 -8.260
111 P3 244 -11.678
111 P3 245 -16.073
111 P3 246 -19.979
111 P3 247 -23.885
111 P3 248 -26.326
111 P3 249 -27.791
111 P3 250 -28.280
111 P3 251 -28.280
111 P3 252 -27.303
111 P3 253 -24.862
111 P3 254 -21.932
111 P3 255 -18.514
# P4 chan 23
111 P4 0 9.430
111 P4 1 9.430
111 P4 2 8.942
111 P4 3 7.477
111 P4 4 5.524
111 P4 5 3.082
111 P4 6 0.153
111 P4 7 -2.777
111 P4 8 -6.195
111 P4 9 -9.125
111 P4 10 -11.078
111 P4 11 -12.543
111 P4 12 -13.031
111 P4 13 -14.008
111 P4 14 -15.472
111 P4 15 -16.449
111 P4 16 -16.937
111 P4 17 -16.937
111 P4 18 -16.449
111 P4 19 -16.449
111 P4 20 -16.449
111 P4 21 -15.472
111 P4 22 -14.496
111 P4 23 -13.031
111 P4 24 -11.566
111 P4 25 -11.566
111 P4 26 -11.078
111 P4 27 -10.590
111 P4 28 -9.613
111 P4 29 -7.660
111 P4 30 -4.730
111 P4 31 -2.289
111 P4 32 0.641
111 P4 33 2.594
111 P4 34 5.035
111 P4 35 5.524
111 P4 36 5.524
111 P4 37 4.547
111 P4 38 3.571
111 P4 39 3.571
111 P4 40 3.571
111 P4 41 4.059
111 P4 42 3.082
111 P4 43 1.129
111 P4 44 -1.801
111 P4 45 -4.242
111 P4 46 -6.195
111 P4 47 -6.683
111 P4 48 -7.172
111 P4 49 -7.172
111 P4 50 -7.660
111 P4 51 -7.660
111 P4 52 -7.660
111 P4 53 -8.636
111 P4 54 -9.613
111 P4 55 -11.078
111 P4 56 -11.078
111 P4 57 -9.125
111 P4 58 -5.707
111 P4 59 -0.824
111 P4 60 2.594
111 P4 61 5.035
111 P4 62 6.989
111 P4 63 8.453
111 P4 64 11.383
111 P4 65 13.824
111 P4 66 15.289
111 P4 67 15.289
111 P4 68 13.824
111 P4 69 11.871
111 P4 70 10.895
111 P4 71 11.383
111 P4 72 11.383
111 P4 73 10.406
111 P4 74 8.453
111 P4 75 5.524
111 P4 76 3.571
111 P4 77 2.594
111 P4 78 2.106
111 P4 79 1.617
111 P4 80 -0.336
111 P4 81 -2.777
111 P4 82 -5.219
111 P4 83 -7.172
111 P4 84 -7.660
111 P4 85 -7.172
111 P4 86 -6.195
111 P4 87 -5.707
111 P4 88 -4.730
111 P4 89 -4.242
111 P4 90 -3.754
111 P4 91 -3.754
111 P4 92 -4.242
111 P4 93 -4.242
111 P4 94 -3.754
111 P4 95 -2.289
111 P4 96 -0.336
111 P4 97 1.129
111 P4 98 2.106
111 P4 99 2.594
111 P4 100 2.594
111 P4 101 3.082
111 P4 102 4.059
111 P4 103 4.547
111 P4 104 5.035
111 P4 105 4.059
111 P4 106 3.571
111 P4 107 4.059
111 P4 108 5.035
111 P4 109 6.500
111 P4 110 6.500
111 P4 111 6.012
111 P4 112 4.547
111 P4 113 4.547
111 P4 114 5.035
111 P4 115 6.989
111 P4 116 8.453
111 P4 117 9.918
111 P4 118 10.406
111 P4 119 10.406
111 P4 120 10.895
111 P4 121 10.895
111 P4 122 10.406
111 P4 123 9.430
111 P4 124 7.477
111 P4 125 5.035
111 P4 126 2.106
111 P4 127 -0.824
111 P4 128 -4.730
111 P4 129 -9.125
111 P4 130 -13.031
111 P4 131 -15.472
111 P4 132 -16.937
111 P4 133 -17.426
111 P4 134 -17.426
111 P4 135 -17.426
111 P4 136 -17.914
111 P4 137 -16.937
111 P4 138 -14.496
111 P4 139 -11.078
111 P4 140 -6.683
111 P4 141 -2.777
111 P4 142 0.153
111 P4 143 2.106
111 P4 144 3.571
111 P4 145 6.012
111 P4 146 8.453
111 P4 147 11.383
111 P4 148 14.801
111 P4 149 16.754
111 P4 150 16.754
111 P4 151 14.313
111 P4 152 10.406
111 P4 153 6.500
111 P4 154 4.547
111 P4 155 3.571
111 P4 156 3.571
111 P4 157 2.106
111 P4 158 -1.312
111 P4 159 -7.660
111 P4 160 -14.496
111 P4 161 -20.355
111 P4 162 -23.285
111 P4 163 -24.261
111 P4 164 -23.285
111 P4 165 -21.820
111 P4 166 -19.867
111 P4 167 -17.426
111 P4 168 -14.008
111 P4 169 -10.101
111 P4 170 -6.195
111 P4 171 -2.777
111 P4 172 -1.312
111 P4 173 -0.824
111 P4 174 -1.312
111 P4 175 -2.777
111 P4 176 -5.219
111 P4 177 -8.148
111 P4 178 -11.078
111 P4 179 -14.008
111 P4 180 -17.426
111 P4 181 -20.844
111 P4 182 -23.773
111 P4 183 -26.215
111 P4 184 -27.191
111 P4 185 -27.191
111 P4 186 -25.726
111 P4 187 -23.773
111 P4 188 -21.332
111 P4 189 -18.402
111 P4 190 -15.961
111 P4 191 -13.519
111 P4 192 -11.078
111 P4 193 -9.613
111 P4 194 -7.660
111 P4 195 -6.195
111 P4 196 -4.242
111 P4 197 -3.265
111 P4 198 -2.777
111 P4 199 -3.754
111 P4 200 -6.195
111 P4 201 -8.636
111 P4 202 -10.590
111 P4 203 -12.054
111 P4 204 -14.008
111 P4 205 -16.449
111 P4 206 -21.332
111 P4 207 -26.703
111 P4 208 -31.586
111 P4 209 -35.004
111 P4 210 -36.957
111 P4 211 -36.957
111 P4 212 -37.445
111 P4 213 -36.957
111 P4 214 -34.515
111 P4 215 -30.609
111 P4 216 -24.261
111 P4 217 -18.402
111 P4 218 -14.008
111 P4 219 -11.078
111 P4 220 -8.636
111 P4 221 -6.195
111 P4 222 -3.265
111 P4 223 -2.289
111 P4 224 -3.265
111 P4 225 -5.707
111 P4 226 -8.148
111 P4 227 -9.613
111 P4 228 -9.125
111 P4 229 -9.125
111 P4 230 -10.590
111 P4 231 -13.519
111 P4 232 -16.449
111 P4 233 -16.449
111 P4 234 -13.031
111 P4 235 -6.683
111 P4 236 -0.336
111 P4 237 3.571
111 P4 238 4.059
111 P4 239 1.617
111 P4 240 -1.801
111 P4 241 -6.683
111 P4 242 -11.566
111 P4 243 -16.937
111 P4 244 -21.820
111 P4 245 -25.726
111 P4 246 -28.168
111 P4 247 -30.121
111 P4 248 -32.074
111 P4 249 -35.492
111 P4 250 -39.398
111 P4 251 -42.816
111 P4 252 -44.281
111 P4 253 -43.304
111 P4 254 -40.375
111 P4 255 -36.469
# PZ chan 24
111 PZ 0 6.266
111 PZ 1 6.755
111 PZ 2 6.755
111 PZ 3 5.778
111 PZ 4 4.313
111 PZ 5 2.360
111 PZ 6 0.407
111 PZ 7 -1.546
111 PZ 8 -3.499
111 PZ 9 -5.941
111 PZ 10 -7.894
111 PZ 11 -9.359
111 PZ 12 -10.335
111 PZ 13 -10.335
111 PZ 14 -10.824
111 PZ 15 -11.312
111 PZ 16 -11.800
111 PZ 17 -12.288
111 PZ 18 -12.288
111 PZ 19 -12.288
111 PZ 20 -11.312
111 PZ 21 -9.847
111 PZ 22 -8.382
111 PZ 23 -6.917
111 PZ 24 -6.429
111 PZ 25 -5.941
111 PZ 26 -5.941
111 PZ 27 -5.941
111 PZ 28 -5.452
111 PZ 29 -4.476
111 PZ 30 -3.011
111 PZ 31 -1.058
111 PZ 32 1.383
111 PZ 33 3.825
111 PZ 34 5.778
111 PZ 35 6.755
111 PZ 36 6.755
111 PZ 37 6.266
111 PZ 38 5.290
111 PZ 39 4.801
111 PZ 40 5.290
111 PZ 41 5.290
111 PZ 42 5.290
111 PZ 43 4.313
111 PZ 44 2.360
111 PZ 45 -0.081
111 PZ 46 -2.035
111 PZ 47 -3.499
111 PZ 48 -3.988
111 PZ 49 -4.476
111 PZ 50 -4.476
111 PZ 51 -4.476
111 PZ 52 -3.988
111 PZ 53 -3.988
111 PZ 54 -4.476
111 PZ 55 -4.964
111 PZ 56 -3.988
111 PZ 57 -2.523
111 PZ 58 0.895
111 PZ 59 3.337
111 PZ 60 5.778
111 PZ 61 7.243
111 PZ 62 8.708
111 PZ 63 10.661
111 PZ 64 13.590
111 PZ 65 16.032
111 PZ 66 17.497
111 PZ 67 17.497
111 PZ 68 16.032
111 PZ 69 14.079
111 PZ 70 13.590
111 PZ 71 13.102
111 PZ 72 13.102
111 PZ 73 12.614
111 PZ 74 11.149
111 PZ 75 9.684
111 PZ 76 8.219
111 PZ 77 7.731
111 PZ 78 7.243
111 PZ 79 5.778
111 PZ 80 3.825
111 PZ 81 1.872
111 PZ 82 0.407
111 PZ 83 -0.081
111 PZ 84 0.407
111 PZ 85 1.383
111 PZ 86 2.360
111 PZ 87 3.337
111 PZ 88 3.825
111 PZ 89 4.313
111 PZ 90 4.313
111 PZ 91 4.313
111 PZ 92 4.801
111 PZ 93 4.801
111 PZ 94 5.778
111 PZ 95 7.243
111 PZ 96 8.708
111 PZ 97 9.196
111 PZ 98 9.196
111 PZ 99 8.708
111 PZ 100 8.219
111 PZ 101 8.219
111 PZ 102 9.684
111 PZ 103 10.173
111 PZ 104 10.173
111 PZ 105 9.196
111 PZ 106 7.731
111 PZ 107 6.755
111 PZ 108 6.755
111 PZ 109 7.243
111 PZ 110 6.755
111 PZ 111 5.778
111 PZ 112 4.801
111 PZ 113 4.313
111 PZ 114 5.290
111 PZ 115 7.243
111 PZ 116 9.684
111 PZ 117 11.637
111 PZ 118 12.614
111 PZ 119 13.102
111 PZ 120 14.079
111 PZ 121 15.055
111 PZ 122 16.032
111 PZ 123 15.544
111 PZ 124 15.055
111 PZ 125 12.614
111 PZ 126 10.173
111 PZ 127 7.731
111 PZ 128 5.290
111 PZ 129 2.848
111 PZ 130 -0.081
111 PZ 131 -2.523
111 PZ 132 -3.988
111 PZ 133 -4.964
111 PZ 134 -5.452
111 PZ 135 -5.941
111 PZ 136 -6.429
111 PZ 137 -5.941
111 PZ 138 -4.476
111 PZ 139 -1.546
111 PZ 140 1.872
111 PZ 141 4.313
111 PZ 142 6.266
111 PZ 143 7.731
111 PZ 144 8.708
111 PZ 145 10.661
111 PZ 146 13.102
111 PZ 147 16.520
111 PZ 148 19.450
111 PZ 149 21.403
111 PZ 150 21.403
111 PZ 151 19.450
111 PZ 152 16.032
111 PZ 153 12.126
111 PZ 154 10.173
111 PZ 155 8.708
111 PZ 156 8.219
111 PZ 157 6.755
111 PZ 158 3.825
111 PZ 159 -0.081
111 PZ 160 -4.964
111 PZ 161 -8.382
111 PZ 162 -9.847
111 PZ 163 -9.359
111 PZ 164 -7.894
111 PZ 165 -5.941
111 PZ 166 -3.499
111 PZ 167 -2.035
111 PZ 168 -0.081
111 PZ 169 1.383
111 PZ 170 2.360
111 PZ 171 3.337
111 PZ 172 3.825
111 PZ 173 3.337
111 PZ 174 2.360
111 PZ 175 0.895
111 PZ 176 -1.546
111 PZ 177 -3.988
111 PZ 178 -6.917
111 PZ 179 -9.847
111 PZ 180 -13.265
111 PZ 181 -17.171
111 PZ 182 -20.589
111 PZ 183 -23.031
111 PZ 184 -24.007
111 PZ 185 -23.519
111 PZ 186 -22.054
111 PZ 187 -19.613
111 PZ 188 -17.660
111 PZ 189 -15.218
111 PZ 190 -13.265
111 PZ 191 -10.335
111 PZ 192 -6.917
111 PZ 193 -3.499
111 PZ 194 0.895
111 PZ 195 4.801
111 PZ 196 8.219
111 PZ 197 10.661
111 PZ 198 12.126
111 PZ 199 12.126
111 PZ 200 10.661
111 PZ 201 8.219
111 PZ 202 5.778
111 PZ 203 3.825
111 PZ 204 2.360
111 PZ 205 -0.570
111 PZ 206 -5.452
111 PZ 207 -11.800
111 PZ 208 -18.636
111 PZ 209 -24.007
111 PZ 210 -26.937
111 PZ 211 -27.913
111 PZ 212 -28.402
111 PZ 213 -27.425
111 PZ 214 -26.449
111 PZ 215 -23.519
111 PZ 216 -19.124
111 PZ 217 -14.730
111 PZ 218 -10.824
111 PZ 219 -8.870
111 PZ 220 -6.429
111 PZ 221 -3.988
111 PZ 222 -1.058
111 PZ 223 1.383
111 PZ 224 1.872
111 PZ 225 -0.081
111 PZ 226 -2.523
111 PZ 227 -3.499
111 PZ 228 -3.011
111 PZ 229 -1.546
111 PZ 230 -1.058
111 PZ 231 -2.035
111 PZ 232 -3.988
111 PZ 233 -4.964
111 PZ 234 -2.523
111 PZ 235 2.360
111 PZ 236 7.731
111 PZ 237 10.661
111 PZ 238 10.661
111 PZ 239 7.731
111 PZ 240 3.337
111 PZ 241 -1.546
111 PZ 242 -4.964
111 PZ 243 -8.870
111 PZ 244 -12.288
111 PZ 245 -16.195
111 PZ 246 -19.124
111 PZ 247 -20.589
111 PZ 248 -22.054
111 PZ 249 -23.519
111 PZ 250 -25.472
111 PZ 251 -27.425
111 PZ 252 -28.402
111 PZ 253 -28.402
111 PZ 254 -26.449
111 PZ 255 -23.519
# P8 chan 25
111 P8 0 10.234
111 P8 1 9.745
111 P8 2 8.280
111 P8 3 6.327
111 P8 4 3.398
111 P8 5 -0.509
111 P8 6 -4.415
111 P8 7 -8.321
111 P8 8 -12.227
111 P8 9 -14.669
111 P8 10 -15.645
111 P8 11 -16.134
111 P8 12 -16.134
111 P8 13 -16.622
111 P8 14 -18.087
111 P8 15 -19.063
111 P8 16 -19.063
111 P8 17 -18.575
111 P8 18 -17.598
111 P8 19 -17.598
111 P8 20 -18.087
111 P8 21 -18.575
111 P8 22 -18.087
111 P8 23 -16.134
111 P8 24 -13.692
111 P8 25 -12.227
111 P8 26 -10.763
111 P8 27 -10.274
111 P8 28 -9.298
111 P8 29 -7.345
111 P8 30 -4.903
111 P8 31 -2.462
111 P8 32 -0.509
111 P8 33 0.956
111 P8 34 1.444
111 P8 35 0.956
111 P8 36 -0.509
111 P8 37 -2.462
111 P8 38 -3.438
111 P8 39 -3.438
111 P8 40 -2.950
111 P8 41 -2.950
111 P8 42 -3.927
111 P8 43 -6.368
111 P8 44 -10.274
111 P8 45 -13.204
111 P8 46 -15.157
111 P8 47 -15.645
111 P8 48 -15.157
111 P8 49 -14.181
111 P8 50 -13.692
111 P8 51 -13.204
111 P8 52 -13.204
111 P8 53 -13.692
111 P8 54 -15.157
111 P8 55 -16.622
111 P8 56 -16.622
111 P8 57 -14.669
111 P8 58 -9.786
111 P8 59 -4.415
111 P8 60 -0.020
111 P8 61 1.933
111 P8 62 3.398
111 P8 63 4.374
111 P8 64 6.327
111 P8 65 9.745
111 P8 66 12.187
111 P8 67 12.187
111 P8 68 10.234
111 P8 69 8.280
111 P8 70 6.816
111 P8 71 7.304
111 P8 72 8.280
111 P8 73 7.792
111 P8 74 5.839
111 P8 75 2.909
111 P8 76 0.468
111 P8 77 -0.997
111 P8 78 -1.973
111 P8 79 -2.950
111 P8 80 -4.415
111 P8 81 -6.856
111 P8 82 -9.298
111 P8 83 -11.251
111 P8 84 -12.716
111 P8 85 -13.692
111 P8 86 -14.669
111 P8 87 -15.157
111 P8 88 -15.157
111 P8 89 -14.669
111 P8 90 -14.181
111 P8 91 -14.181
111 P8 92 -14.669
111 P8 93 -14.669
111 P8 94 -13.692
111 P8 95 -11.739
111 P8 96 -8.809
111 P8 97 -6.368
111 P8 98 -4.903
111 P8 99 -3.927
111 P8 100 -2.950
111 P8 101 -1.485
111 P8 102 -0.020
111 P8 103 0.956
111 P8 104 1.444
111 P8 105 0.956
111 P8 106 1.933
111 P8 107 3.886
111 P8 108 6.327
111 P8 109 8.280
111 P8 110 8.769
111 P8 111 7.792
111 P8 112 6.327
111 P8 113 6.327
111 P8 114 6.816
111 P8 115 8.280
111 P8 116 9.257
111 P8 117 9.745
111 P8 118 9.257
111 P8 119 8.769
111 P8 120 8.280
111 P8 121 7.304
111 P8 122 5.839
111 P8 123 3.398
111 P8 124 0.956
111 P8 125 -1.973
111 P8 126 -4.415
111 P8 127 -7.345
111 P8 128 -10.763
111 P8 129 -14.669
111 P8 130 -19.063
111 P8 131 -21.505
111 P8 132 -21.993
111 P8 133 -21.993
111 P8 134 -21.993
111 P8 135 -22.970
111 P8 136 -23.946
111 P8 137 -24.923
111 P8 138 -23.946
111 P8 139 -20.528
111 P8 140 -16.622
111 P8 141 -13.204
111 P8 142 -10.274
111 P8 143 -8.321
111 P8 144 -5.880
111 P8 145 -3.438
111 P8 146 -0.020
111 P8 147 3.398
111 P8 148 6.327
111 P8 149 8.280
111 P8 150 8.280
111 P8 151 6.327
111 P8 152 3.886
111 P8 153 0.956
111 P8 154 -0.020
111 P8 155 0.468
111 P8 156 0.956
111 P8 157 0.468
111 P8 158 -2.462
111 P8 159 -8.321
111 P8 160 -14.181
111 P8 161 -20.528
111 P8 162 -24.923
111 P8 163 -27.852
111 P8 164 -30.294
111 P8 165 -32.247
111 P8 166 -33.712
111 P8 167 -34.200
111 P8 168 -32.247
111 P8 169 -28.341
111 P8 170 -22.970
111 P8 171 -18.087
111 P8 172 -14.181
111 P8 173 -11.739
111 P8 174 -11.251
111 P8 175 -11.739
111 P8 176 -13.204
111 P8 177 -14.669
111 P8 178 -16.622
111 P8 179 -18.575
111 P8 180 -20.040
111 P8 181 -22.481
111 P8 182 -23.946
111 P8 183 -25.411
111 P8 184 -25.411
111 P8 185 -24.434
111 P8 186 -22.481
111 P8 187 -20.528
111 P8 188 -18.575
111 P8 189 -16.134
111 P8 190 -14.669
111 P8 191 -13.692
111 P8 192 -13.692
111 P8 193 -15.157
111 P8 194 -17.110
111 P8 195 -19.063
111 P8 196 -20.040
111 P8 197 -21.016
111 P8 198 -22.481
111 P8 199 -24.923
111 P8 200 -28.341
111 P8 201 -31.759
111 P8 202 -34.200
111 P8 203 -34.688
111 P8 204 -34.688
111 P8 205 -34.200
111 P8 206 -35.665
111 P8 207 -38.106
111 P8 208 -41.036
111 P8 209 -42.013
111 P8 210 -42.013
111 P8 211 -41.524
111 P8 212 -41.036
111 P8 213 -40.548
111 P8 214 -38.595
111 P8 215 -34.688
111 P8 216 -29.317
111 P8 217 -22.970
111 P8 218 -18.087
111 P8 219 -14.669
111 P8 220 -12.227
111 P8 221 -9.786
111 P8 222 -7.833
111 P8 223 -7.833
111 P8 224 -10.274
111 P8 225 -14.181
111 P8 226 -18.575
111 P8 227 -21.016
111 P8 228 -22.970
111 P8 229 -23.946
111 P8 230 -26.876
111 P8 231 -30.782
111 P8 232 -34.200
111 P8 233 -33.712
111 P8 234 -28.829
111 P8 235 -19.063
111 P8 236 -8.809
111 P8 237 -1.485
111 P8 238 0.956
111 P8 239 -0.509
111 P8 240 -5.391
111 P8 241 -11.739
111 P8 242 -18.087
111 P8 243 -24.434
111 P8 244 -30.294
111 P8 245 -35.665
