# co2c0000339.rd
# 120 trials, 64 chans, 416 samples 368 post_stim samples
# 3.906000 msecs uV
# S1 obj , trial 6
# FP1 chan 0
6 FP1 0 1.617
6 FP1 1 2.106
6 FP1 2 2.106
6 FP1 3 1.617
6 FP1 4 0.641
6 FP1 5 0.153
6 FP1 6 -0.336
6 FP1 7 0.641
6 FP1 8 1.617
6 FP1 9 2.106
6 FP1 10 1.617
6 FP1 11 0.153
6 FP1 12 -1.801
6 FP1 13 -4.242
6 FP1 14 -5.707
6 FP1 15 -7.660
6 FP1 16 -9.613
6 FP1 17 -10.590
6 FP1 18 -10.590
6 FP1 19 -10.590
6 FP1 20 -9.613
6 FP1 21 -9.125
6 FP1 22 -9.125
6 FP1 23 -10.590
6 FP1 24 -12.054
6 FP1 25 -13.519
6 FP1 26 -14.984
6 FP1 27 -15.472
6 FP1 28 -15.961
6 FP1 29 -15.961
6 FP1 30 -15.961
6 FP1 31 -15.961
6 FP1 32 -15.961
6 FP1 33 -16.449
6 FP1 34 -16.937
6 FP1 35 -17.426
6 FP1 36 -16.937
6 FP1 37 -16.449
6 FP1 38 -15.472
6 FP1 39 -14.984
6 FP1 40 -15.472
6 FP1 41 -15.961
6 FP1 42 -16.449
6 FP1 43 -15.961
6 FP1 44 -14.984
6 FP1 45 -13.519
6 FP1 46 -12.543
6 FP1 47 -12.543
6 FP1 48 -14.008
6 FP1 49 -14.984
6 FP1 50 -15.472
6 FP1 51 -14.496
6 FP1 52 -12.543
6 FP1 53 -12.054
6 FP1 54 -12.543
6 FP1 55 -15.961
6 FP1 56 -19.379
6 FP1 57 -21.820
6 FP1 58 -21.332
6 FP1 59 -19.867
6 FP1 60 -17.426
6 FP1 61 -15.961
6 FP1 62 -16.937
6 FP1 63 -17.914
6 FP1 64 -19.867
6 FP1 65 -21.332
6 FP1 66 -23.285
6 FP1 67 -24.750
6 FP1 68 -25.726
6 FP1 69 -25.726
6 FP1 70 -24.750
6 FP1 71 -22.797
6 FP1 72 -20.844
6 FP1 73 -20.355
6 FP1 74 -19.379
6 FP1 75 -18.402
6 FP1 76 -17.426
6 FP1 77 -16.937
6 FP1 78 -16.937
6 FP1 79 -17.426
6 FP1 80 -17.914
6 FP1 81 -17.914
6 FP1 82 -16.937
6 FP1 83 -15.472
6 FP1 84 -13.519
6 FP1 85 -13.031
6 FP1 86 -12.543
6 FP1 87 -12.543
6 FP1 88 -13.031
6 FP1 89 -12.543
6 FP1 90 -12.054
6 FP1 91 -11.078
6 FP1 92 -10.101
6 FP1 93 -10.101
6 FP1 94 -11.078
6 FP1 95 -13.031
6 FP1 96 -14.496
6 FP1 97 -15.961
6 FP1 98 -17.426
6 FP1 99 -18.402
6 FP1 100 -18.402
6 FP1 101 -18.890
6 FP1 102 -19.379
6 FP1 103 -18.402
6 FP1 104 -16.937
6 FP1 105 -15.961
6 FP1 106 -16.449
6 FP1 107 -17.914
6 FP1 108 -19.867
6 FP1 109 -20.844
6 FP1 110 -20.355
6 FP1 111 -19.379
6 FP1 112 -18.890
6 FP1 113 -18.402
6 FP1 114 -18.402
6 FP1 115 -17.914
6 FP1 116 -15.472
6 FP1 117 -13.519
6 FP1 118 -11.078
6 FP1 119 -9.613
6 FP1 120 -9.613
6 FP1 121 -10.101
6 FP1 122 -10.590
6 FP1 123 -11.078
6 FP1 124 -11.078
6 FP1 125 -10.590
6 FP1 126 -10.101
6 FP1 127 -9.613
6 FP1 128 -9.613
6 FP1 129 -9.125
6 FP1 130 -10.101
6 FP1 131 -11.078
6 FP1 132 -13.031
6 FP1 133 -14.496
6 FP1 134 -14.984
6 FP1 135 -14.984
6 FP1 136 -14.496
6 FP1 137 -14.008
6 FP1 138 -14.496
6 FP1 139 -15.472
6 FP1 140 -15.961
6 FP1 141 -15.472
6 FP1 142 -14.496
6 FP1 143 -14.008
6 FP1 144 -14.008
6 FP1 145 -14.984
6 FP1 146 -15.961
6 FP1 147 -16.937
6 FP1 148 -16.449
6 FP1 149 -15.961
6 FP1 150 -16.449
6 FP1 151 -17.914
6 FP1 152 -19.379
6 FP1 153 -21.332
6 FP1 154 -21.820
6 FP1 155 -21.820
6 FP1 156 -21.332
6 FP1 157 -21.332
6 FP1 158 -21.820
6 FP1 159 -22.797
6 FP1 160 -23.773
6 FP1 161 -24.261
6 FP1 162 -24.750
6 FP1 163 -25.238
6 FP1 164 -24.750
6 FP1 165 -24.261
6 FP1 166 -23.773
6 FP1 167 -22.797
6 FP1 168 -22.797
6 FP1 169 -22.797
6 FP1 170 -23.773
6 FP1 171 -24.750
6 FP1 172 -25.238
6 FP1 173 -24.261
6 FP1 174 -22.797
6 FP1 175 -21.332
6 FP1 176 -20.844
6 FP1 177 -20.844
6 FP1 178 -20.844
6 FP1 179 -20.844
6 FP1 180 -20.355
6 FP1 181 -19.379
6 FP1 182 -17.914
6 FP1 183 -15.961
6 FP1 184 -14.496
6 FP1 185 -13.031
6 FP1 186 -12.543
6 FP1 187 -12.054
6 FP1 188 -12.054
6 FP1 189 -12.543
6 FP1 190 -12.543
6 FP1 191 -11.566
6 FP1 192 -10.101
6 FP1 193 -8.148
6 FP1 194 -6.683
6 FP1 195 -5.707
6 FP1 196 -5.707
6 FP1 197 -6.683
6 FP1 198 -7.660
6 FP1 199 -8.636
6 FP1 200 -9.125
6 FP1 201 -9.613
6 FP1 202 -10.590
6 FP1 203 -12.054
6 FP1 204 -14.008
6 FP1 205 -15.961
6 FP1 206 -16.937
6 FP1 207 -17.426
6 FP1 208 -17.914
6 FP1 209 -18.890
6 FP1 210 -20.355
6 FP1 211 -22.308
6 FP1 212 -23.773
6 FP1 213 -24.261
6 FP1 214 -24.261
6 FP1 215 -22.797
6 FP1 216 -21.332
6 FP1 217 -19.379
6 FP1 218 -16.937
6 FP1 219 -14.984
6 FP1 220 -13.031
6 FP1 221 -12.054
6 FP1 222 -11.078
6 FP1 223 -10.101
6 FP1 224 -8.636
6 FP1 225 -7.172
6 FP1 226 -6.195
6 FP1 227 -4.730
6 FP1 228 -3.754
6 FP1 229 -2.777
6 FP1 230 -1.312
6 FP1 231 -0.336
6 FP1 232 0.641
6 FP1 233 0.153
6 FP1 234 -1.312
6 FP1 235 -3.265
6 FP1 236 -4.242
6 FP1 237 -4.242
6 FP1 238 -4.242
6 FP1 239 -4.242
6 FP1 240 -4.730
6 FP1 241 -4.730
6 FP1 242 -4.730
6 FP1 243 -5.219
6 FP1 244 -5.219
6 FP1 245 -5.707
6 FP1 246 -6.195
6 FP1 247 -5.707
6 FP1 248 -5.219
6 FP1 249 -4.730
6 FP1 250 -4.242
6 FP1 251 -4.242
6 FP1 252 -5.707
6 FP1 253 -8.148
6 FP1 254 -9.613
6 FP1 255 -10.101
# FP2 chan 1
6 FP2 0 6.521
6 FP2 1 6.521
6 FP2 2 6.521
6 FP2 3 5.544
6 FP2 4 4.567
6 FP2 5 3.591
6 FP2 6 3.591
6 FP2 7 4.079
6 FP2 8 4.567
6 FP2 9 4.567
6 FP2 10 3.591
6 FP2 11 1.149
6 FP2 12 -1.292
6 FP2 13 -3.733
6 FP2 14 -6.175
6 FP2 15 -8.128
6 FP2 16 -9.593
6 FP2 17 -10.569
6 FP2 18 -10.569
6 FP2 19 -10.081
6 FP2 20 -10.081
6 FP2 21 -10.081
6 FP2 22 -11.058
6 FP2 23 -12.034
6 FP2 24 -13.499
6 FP2 25 -15.452
6 FP2 26 -16.429
6 FP2 27 -16.917
6 FP2 28 -16.917
6 FP2 29 -16.429
6 FP2 30 -15.452
6 FP2 31 -15.452
6 FP2 32 -14.964
6 FP2 33 -15.940
6 FP2 34 -15.940
6 FP2 35 -15.452
6 FP2 36 -14.476
6 FP2 37 -13.499
6 FP2 38 -12.522
6 FP2 39 -12.522
6 FP2 40 -13.011
6 FP2 41 -13.011
6 FP2 42 -12.522
6 FP2 43 -12.034
6 FP2 44 -11.058
6 FP2 45 -10.569
6 FP2 46 -9.593
6 FP2 47 -9.104
6 FP2 48 -9.593
6 FP2 49 -10.569
6 FP2 50 -11.546
6 FP2 51 -11.546
6 FP2 52 -11.058
6 FP2 53 -10.081
6 FP2 54 -10.569
6 FP2 55 -13.011
6 FP2 56 -16.429
6 FP2 57 -18.870
6 FP2 58 -19.358
6 FP2 59 -17.893
6 FP2 60 -16.429
6 FP2 61 -15.452
6 FP2 62 -15.940
6 FP2 63 -17.405
6 FP2 64 -19.358
6 FP2 65 -21.311
6 FP2 66 -23.753
6 FP2 67 -26.194
6 FP2 68 -27.171
6 FP2 69 -27.171
6 FP2 70 -25.706
6 FP2 71 -23.753
6 FP2 72 -22.288
6 FP2 73 -21.800
6 FP2 74 -21.311
6 FP2 75 -20.823
6 FP2 76 -18.870
6 FP2 77 -17.405
6 FP2 78 -16.917
6 FP2 79 -17.893
6 FP2 80 -19.358
6 FP2 81 -19.847
6 FP2 82 -18.870
6 FP2 83 -16.429
6 FP2 84 -13.987
6 FP2 85 -12.522
6 FP2 86 -12.522
6 FP2 87 -12.522
6 FP2 88 -13.011
6 FP2 89 -13.011
6 FP2 90 -12.522
6 FP2 91 -12.034
6 FP2 92 -11.058
6 FP2 93 -11.058
6 FP2 94 -12.034
6 FP2 95 -13.987
6 FP2 96 -16.429
6 FP2 97 -19.358
6 FP2 98 -21.311
6 FP2 99 -22.288
6 FP2 100 -22.776
6 FP2 101 -22.776
6 FP2 102 -22.288
6 FP2 103 -21.311
6 FP2 104 -20.823
6 FP2 105 -20.823
6 FP2 106 -21.311
6 FP2 107 -22.776
6 FP2 108 -24.241
6 FP2 109 -24.729
6 FP2 110 -24.241
6 FP2 111 -23.265
6 FP2 112 -22.776
6 FP2 113 -23.265
6 FP2 114 -23.753
6 FP2 115 -22.776
6 FP2 116 -20.335
6 FP2 117 -17.405
6 FP2 118 -14.964
6 FP2 119 -13.987
6 FP2 120 -14.964
6 FP2 121 -15.940
6 FP2 122 -16.429
6 FP2 123 -16.429
6 FP2 124 -14.964
6 FP2 125 -14.964
6 FP2 126 -14.964
6 FP2 127 -14.964
6 FP2 128 -14.964
6 FP2 129 -15.452
6 FP2 130 -15.452
6 FP2 131 -16.429
6 FP2 132 -17.893
6 FP2 133 -19.358
6 FP2 134 -19.358
6 FP2 135 -18.382
6 FP2 136 -16.917
6 FP2 137 -16.429
6 FP2 138 -16.917
6 FP2 139 -18.382
6 FP2 140 -19.358
6 FP2 141 -18.870
6 FP2 142 -17.405
6 FP2 143 -16.429
6 FP2 144 -16.429
6 FP2 145 -17.405
6 FP2 146 -17.893
6 FP2 147 -17.893
6 FP2 148 -16.917
6 FP2 149 -16.429
6 FP2 150 -16.917
6 FP2 151 -18.870
6 FP2 152 -21.311
6 FP2 153 -22.776
6 FP2 154 -23.265
6 FP2 155 -22.776
6 FP2 156 -22.776
6 FP2 157 -23.753
6 FP2 158 -25.706
6 FP2 159 -27.171
6 FP2 160 -27.659
6 FP2 161 -27.659
6 FP2 162 -27.171
6 FP2 163 -26.194
6 FP2 164 -25.706
6 FP2 165 -24.729
6 FP2 166 -23.753
6 FP2 167 -22.776
6 FP2 168 -22.776
6 FP2 169 -23.753
6 FP2 170 -24.729
6 FP2 171 -26.194
6 FP2 172 -26.194
6 FP2 173 -24.729
6 FP2 174 -23.265
6 FP2 175 -21.800
6 FP2 176 -21.311
6 FP2 177 -21.800
6 FP2 178 -22.776
6 FP2 179 -22.776
6 FP2 180 -21.311
6 FP2 181 -19.358
6 FP2 182 -17.893
6 FP2 183 -16.917
6 FP2 184 -15.452
6 FP2 185 -14.476
6 FP2 186 -13.987
6 FP2 187 -13.011
6 FP2 188 -13.011
6 FP2 189 -13.011
6 FP2 190 -12.522
6 FP2 191 -12.034
6 FP2 192 -10.081
6 FP2 193 -8.128
6 FP2 194 -6.175
6 FP2 195 -5.198
6 FP2 196 -5.198
6 FP2 197 -5.198
6 FP2 198 -5.198
6 FP2 199 -5.198
6 FP2 200 -5.198
6 FP2 201 -5.686
6 FP2 202 -6.663
6 FP2 203 -8.616
6 FP2 204 -11.058
6 FP2 205 -13.011
6 FP2 206 -14.476
6 FP2 207 -15.940
6 FP2 208 -16.429
6 FP2 209 -17.405
6 FP2 210 -18.870
6 FP2 211 -20.335
6 FP2 212 -21.800
6 FP2 213 -22.776
6 FP2 214 -22.288
6 FP2 215 -20.823
6 FP2 216 -18.870
6 FP2 217 -16.917
6 FP2 218 -15.452
6 FP2 219 -13.987
6 FP2 220 -13.499
6 FP2 221 -12.522
6 FP2 222 -11.546
6 FP2 223 -10.569
6 FP2 224 -9.593
6 FP2 225 -8.616
6 FP2 226 -8.128
6 FP2 227 -8.128
6 FP2 228 -7.640
6 FP2 229 -6.175
6 FP2 230 -4.222
6 FP2 231 -1.780
6 FP2 232 -0.804
6 FP2 233 -1.292
6 FP2 234 -2.757
6 FP2 235 -4.222
6 FP2 236 -5.198
6 FP2 237 -5.686
6 FP2 238 -5.198
6 FP2 239 -5.686
6 FP2 240 -5.686
6 FP2 241 -6.175
6 FP2 242 -5.686
6 FP2 243 -5.198
6 FP2 244 -4.710
6 FP2 245 -5.198
6 FP2 246 -5.686
6 FP2 247 -5.686
6 FP2 248 -4.710
6 FP2 249 -3.245
6 FP2 250 -1.780
6 FP2 251 -1.780
6 FP2 252 -2.757
6 FP2 253 -4.710
6 FP2 254 -6.663
6 FP2 255 -7.640
# F7 chan 2
6 F7 0 -2.563
6 F7 1 -2.563
6 F7 2 -2.563
6 F7 3 -3.052
6 F7 4 -3.540
6 F7 5 -3.540
6 F7 6 -3.540
6 F7 7 -3.052
6 F7 8 -2.563
6 F7 9 -2.075
6 F7 10 -2.563
6 F7 11 -3.052
6 F7 12 -3.540
6 F7 13 -4.517
6 F7 14 -5.493
6 F7 15 -7.446
6 F7 16 -8.911
6 F7 17 -9.888
6 F7 18 -10.376
6 F7 19 -10.376
6 F7 20 -9.888
6 F7 21 -10.376
6 F7 22 -10.864
6 F7 23 -11.841
6 F7 24 -12.329
6 F7 25 -13.306
6 F7 26 -14.771
6 F7 27 -15.747
6 F7 28 -16.235
6 F7 29 -16.235
6 F7 30 -15.259
6 F7 31 -14.771
6 F7 32 -14.282
6 F7 33 -15.747
6 F7 34 -17.212
6 F7 35 -18.188
6 F7 36 -17.700
6 F7 37 -16.235
6 F7 38 -15.259
6 F7 39 -14.282
6 F7 40 -14.771
6 F7 41 -15.259
6 F7 42 -16.235
6 F7 43 -16.235
6 F7 44 -15.747
6 F7 45 -15.259
6 F7 46 -14.771
6 F7 47 -14.771
6 F7 48 -15.259
6 F7 49 -15.747
6 F7 50 -15.259
6 F7 51 -13.306
6 F7 52 -9.888
6 F7 53 -7.935
6 F7 54 -7.935
6 F7 55 -11.353
6 F7 56 -14.771
6 F7 57 -16.235
6 F7 58 -14.771
6 F7 59 -11.353
6 F7 60 -7.935
6 F7 61 -7.446
6 F7 62 -8.911
6 F7 63 -11.841
6 F7 64 -13.306
6 F7 65 -13.306
6 F7 66 -12.329
6 F7 67 -11.841
6 F7 68 -11.841
6 F7 69 -12.329
6 F7 70 -12.817
6 F7 71 -13.306
6 F7 72 -12.817
6 F7 73 -12.817
6 F7 74 -11.841
6 F7 75 -10.864
6 F7 76 -9.888
6 F7 77 -9.399
6 F7 78 -9.399
6 F7 79 -10.376
6 F7 80 -10.864
6 F7 81 -11.353
6 F7 82 -11.841
6 F7 83 -12.329
6 F7 84 -12.329
6 F7 85 -11.841
6 F7 86 -10.864
6 F7 87 -9.888
6 F7 88 -9.399
6 F7 89 -8.911
6 F7 90 -8.423
6 F7 91 -8.423
6 F7 92 -6.958
6 F7 93 -5.981
6 F7 94 -4.517
6 F7 95 -3.540
6 F7 96 -3.540
6 F7 97 -3.540
6 F7 98 -4.028
6 F7 99 -4.517
6 F7 100 -5.493
6 F7 101 -5.981
6 F7 102 -6.470
6 F7 103 -6.958
6 F7 104 -6.958
6 F7 105 -6.958
6 F7 106 -7.446
6 F7 107 -8.423
6 F7 108 -9.399
6 F7 109 -9.888
6 F7 110 -9.399
6 F7 111 -8.911
6 F7 112 -9.399
6 F7 113 -9.888
6 F7 114 -10.376
6 F7 115 -11.353
6 F7 116 -10.864
6 F7 117 -10.864
6 F7 118 -9.888
6 F7 119 -8.911
6 F7 120 -8.423
6 F7 121 -8.423
6 F7 122 -8.911
6 F7 123 -9.888
6 F7 124 -10.376
6 F7 125 -10.864
6 F7 126 -10.864
6 F7 127 -9.888
6 F7 128 -9.399
6 F7 129 -8.911
6 F7 130 -9.399
6 F7 131 -10.864
6 F7 132 -12.817
6 F7 133 -15.259
6 F7 134 -16.235
6 F7 135 -16.235
6 F7 136 -15.259
6 F7 137 -14.282
6 F7 138 -13.306
6 F7 139 -12.817
6 F7 140 -11.841
6 F7 141 -11.353
6 F7 142 -10.376
6 F7 143 -10.376
6 F7 144 -10.864
6 F7 145 -12.329
6 F7 146 -13.794
6 F7 147 -14.771
6 F7 148 -15.747
6 F7 149 -15.747
6 F7 150 -15.747
6 F7 151 -16.235
6 F7 152 -17.212
6 F7 153 -18.188
6 F7 154 -18.677
6 F7 155 -18.188
6 F7 156 -17.212
6 F7 157 -16.235
6 F7 158 -15.747
6 F7 159 -15.747
6 F7 160 -17.212
6 F7 161 -19.165
6 F7 162 -21.118
6 F7 163 -21.606
6 F7 164 -21.118
6 F7 165 -19.653
6 F7 166 -18.677
6 F7 167 -18.188
6 F7 168 -18.677
6 F7 169 -19.165
6 F7 170 -20.630
6 F7 171 -21.606
6 F7 172 -21.606
6 F7 173 -21.606
6 F7 174 -21.606
6 F7 175 -20.630
6 F7 176 -19.165
6 F7 177 -18.188
6 F7 178 -17.700
6 F7 179 -17.212
6 F7 180 -17.700
6 F7 181 -17.700
6 F7 182 -17.700
6 F7 183 -17.212
6 F7 184 -16.235
6 F7 185 -14.771
6 F7 186 -14.282
6 F7 187 -13.306
6 F7 188 -13.306
6 F7 189 -13.794
6 F7 190 -13.794
6 F7 191 -14.282
6 F7 192 -14.282
6 F7 193 -13.306
6 F7 194 -12.329
6 F7 195 -11.841
6 F7 196 -11.841
6 F7 197 -12.817
6 F7 198 -13.794
6 F7 199 -14.771
6 F7 200 -14.771
6 F7 201 -14.771
6 F7 202 -14.282
6 F7 203 -14.771
6 F7 204 -15.747
6 F7 205 -16.724
6 F7 206 -17.212
6 F7 207 -17.212
6 F7 208 -17.212
6 F7 209 -17.212
6 F7 210 -18.677
6 F7 211 -20.630
6 F7 212 -22.583
6 F7 213 -23.071
6 F7 214 -22.095
6 F7 215 -20.142
6 F7 216 -17.212
6 F7 217 -14.282
6 F7 218 -11.841
6 F7 219 -10.376
6 F7 220 -10.376
6 F7 221 -10.376
6 F7 222 -10.864
6 F7 223 -9.888
6 F7 224 -8.911
6 F7 225 -6.470
6 F7 226 -5.005
6 F7 227 -4.028
6 F7 228 -3.052
6 F7 229 -3.052
6 F7 230 -3.052
6 F7 231 -3.540
6 F7 232 -4.028
6 F7 233 -4.517
6 F7 234 -4.517
6 F7 235 -5.005
6 F7 236 -5.005
6 F7 237 -5.493
6 F7 238 -5.493
6 F7 239 -5.981
6 F7 240 -5.981
6 F7 241 -5.493
6 F7 242 -5.493
6 F7 243 -5.493
6 F7 244 -5.493
6 F7 245 -5.981
6 F7 246 -5.493
6 F7 247 -5.005
6 F7 248 -4.517
6 F7 249 -4.028
6 F7 250 -4.028
6 F7 251 -4.517
6 F7 252 -5.005
6 F7 253 -5.981
6 F7 254 -6.470
6 F7 255 -6.470
# F8 chan 3
6 F8 0 4.608
6 F8 1 4.608
6 F8 2 3.632
6 F8 3 2.167
6 F8 4 2.167
6 F8 5 2.655
6 F8 6 4.120
6 F8 7 4.608
6 F8 8 3.632
6 F8 9 1.678
6 F8 10 0.214
6 F8 11 -0.275
6 F8 12 -0.763
6 F8 13 -1.740
6 F8 14 -3.204
6 F8 15 -5.646
6 F8 16 -7.111
6 F8 17 -6.622
6 F8 18 -5.157
6 F8 19 -4.669
6 F8 20 -6.134
6 F8 21 -8.087
6 F8 22 -9.552
6 F8 23 -9.064
6 F8 24 -7.599
6 F8 25 -7.599
6 F8 26 -8.575
6 F8 27 -10.040
6 F8 28 -11.017
6 F8 29 -9.552
6 F8 30 -7.111
6 F8 31 -6.134
6 F8 32 -7.599
6 F8 33 -10.529
6 F8 34 -12.482
6 F8 35 -11.993
6 F8 36 -8.087
6 F8 37 -4.181
6 F8 38 -2.228
6 F8 39 -2.716
6 F8 40 -3.693
6 F8 41 -4.669
6 F8 42 -3.693
6 F8 43 -2.716
6 F8 44 -1.251
6 F8 45 0.214
6 F8 46 0.214
6 F8 47 -0.275
6 F8 48 -1.740
6 F8 49 -3.204
6 F8 50 -3.693
6 F8 51 -2.716
6 F8 52 -0.763
6 F8 53 1.190
6 F8 54 1.190
6 F8 55 -1.251
6 F8 56 -4.181
6 F8 57 -5.646
6 F8 58 -5.157
6 F8 59 -3.693
6 F8 60 -2.716
6 F8 61 -3.204
6 F8 62 -4.669
6 F8 63 -5.157
6 F8 64 -5.646
6 F8 65 -6.622
6 F8 66 -9.064
6 F8 67 -12.482
6 F8 68 -14.923
6 F8 69 -14.435
6 F8 70 -11.993
6 F8 71 -9.552
6 F8 72 -9.064
6 F8 73 -9.552
6 F8 74 -11.017
6 F8 75 -10.040
6 F8 76 -7.599
6 F8 77 -5.157
6 F8 78 -4.669
6 F8 79 -7.111
6 F8 80 -9.552
6 F8 81 -11.017
6 F8 82 -10.529
6 F8 83 -8.575
6 F8 84 -7.111
6 F8 85 -7.599
6 F8 86 -9.064
6 F8 87 -11.017
6 F8 88 -12.482
6 F8 89 -12.482
6 F8 90 -11.993
6 F8 91 -10.040
6 F8 92 -7.599
6 F8 93 -4.669
6 F8 94 -3.204
6 F8 95 -3.204
6 F8 96 -5.157
6 F8 97 -6.622
6 F8 98 -7.599
6 F8 99 -7.599
6 F8 100 -8.087
6 F8 101 -8.575
6 F8 102 -9.552
6 F8 103 -10.040
6 F8 104 -8.575
6 F8 105 -7.599
6 F8 106 -7.111
6 F8 107 -8.575
6 F8 108 -10.040
6 F8 109 -11.017
6 F8 110 -10.529
6 F8 111 -9.552
6 F8 112 -9.552
6 F8 113 -10.040
6 F8 114 -10.529
6 F8 115 -11.017
6 F8 116 -10.040
6 F8 117 -9.064
6 F8 118 -8.575
6 F8 119 -9.064
6 F8 120 -11.017
6 F8 121 -12.970
6 F8 122 -13.458
6 F8 123 -12.482
6 F8 124 -11.017
6 F8 125 -10.040
6 F8 126 -10.040
6 F8 127 -11.017
6 F8 128 -12.482
6 F8 129 -13.947
6 F8 130 -14.923
6 F8 131 -15.411
6 F8 132 -15.411
6 F8 133 -14.435
6 F8 134 -12.482
6 F8 135 -9.552
6 F8 136 -7.111
6 F8 137 -5.157
6 F8 138 -4.669
6 F8 139 -4.669
6 F8 140 -4.669
6 F8 141 -4.181
6 F8 142 -4.669
6 F8 143 -5.157
6 F8 144 -6.134
6 F8 145 -7.599
6 F8 146 -8.087
6 F8 147 -7.111
6 F8 148 -5.157
6 F8 149 -4.181
6 F8 150 -3.693
6 F8 151 -5.157
6 F8 152 -7.111
6 F8 153 -8.575
6 F8 154 -8.575
6 F8 155 -8.575
6 F8 156 -8.575
6 F8 157 -9.552
6 F8 158 -11.505
6 F8 159 -13.458
6 F8 160 -13.458
6 F8 161 -12.970
6 F8 162 -11.505
6 F8 163 -10.529
6 F8 164 -10.040
6 F8 165 -9.552
6 F8 166 -9.064
6 F8 167 -8.087
6 F8 168 -8.087
6 F8 169 -9.064
6 F8 170 -10.529
6 F8 171 -11.505
6 F8 172 -11.017
6 F8 173 -9.552
6 F8 174 -8.575
6 F8 175 -8.087
6 F8 176 -9.552
6 F8 177 -11.993
6 F8 178 -13.458
6 F8 179 -13.947
6 F8 180 -12.970
6 F8 181 -11.505
6 F8 182 -10.040
6 F8 183 -9.552
6 F8 184 -10.040
6 F8 185 -10.529
6 F8 186 -11.505
6 F8 187 -11.505
6 F8 188 -11.017
6 F8 189 -10.040
6 F8 190 -8.575
6 F8 191 -7.599
6 F8 192 -7.111
6 F8 193 -6.622
6 F8 194 -6.134
6 F8 195 -5.157
6 F8 196 -4.669
6 F8 197 -3.693
6 F8 198 -2.228
6 F8 199 -1.251
6 F8 200 -0.275
6 F8 201 1.190
6 F8 202 1.678
6 F8 203 1.190
6 F8 204 -0.763
6 F8 205 -3.693
6 F8 206 -7.111
6 F8 207 -9.064
6 F8 208 -9.552
6 F8 209 -9.552
6 F8 210 -8.575
6 F8 211 -8.575
6 F8 212 -9.064
6 F8 213 -9.552
6 F8 214 -9.552
6 F8 215 -8.575
6 F8 216 -6.622
6 F8 217 -4.669
6 F8 218 -4.181
6 F8 219 -4.669
6 F8 220 -5.646
6 F8 221 -5.646
6 F8 222 -5.646
6 F8 223 -5.646
6 F8 224 -5.646
6 F8 225 -6.622
6 F8 226 -7.599
6 F8 227 -8.087
6 F8 228 -7.111
6 F8 229 -6.134
6 F8 230 -4.669
6 F8 231 -3.204
6 F8 232 -2.228
6 F8 233 -2.228
6 F8 234 -2.228
6 F8 235 -2.228
6 F8 236 -2.716
6 F8 237 -3.204
6 F8 238 -3.693
6 F8 239 -3.204
6 F8 240 -2.228
6 F8 241 -1.251
6 F8 242 -0.275
6 F8 243 0.702
6 F8 244 1.190
6 F8 245 1.678
6 F8 246 2.167
6 F8 247 1.678
6 F8 248 1.190
6 F8 249 1.190
6 F8 250 0.702
6 F8 251 0.702
6 F8 252 0.702
6 F8 253 0.702
6 F8 254 0.214
6 F8 255 0.214
# AF1 chan 4
6 AF1 0 0.366
6 AF1 1 0.854
6 AF1 2 0.366
6 AF1 3 -0.122
6 AF1 4 -0.610
6 AF1 5 -1.099
6 AF1 6 -0.610
6 AF1 7 -0.122
6 AF1 8 -0.122
6 AF1 9 -0.122
6 AF1 10 -1.099
6 AF1 11 -2.563
6 AF1 12 -4.517
6 AF1 13 -6.958
6 AF1 14 -8.911
6 AF1 15 -10.376
6 AF1 16 -11.841
6 AF1 17 -12.329
6 AF1 18 -12.329
6 AF1 19 -10.864
6 AF1 20 -9.399
6 AF1 21 -8.423
6 AF1 22 -8.423
6 AF1 23 -9.399
6 AF1 24 -10.864
6 AF1 25 -12.329
6 AF1 26 -12.817
6 AF1 27 -12.817
6 AF1 28 -12.817
6 AF1 29 -12.817
6 AF1 30 -13.306
6 AF1 31 -13.306
6 AF1 32 -13.306
6 AF1 33 -13.306
6 AF1 34 -12.817
6 AF1 35 -11.841
6 AF1 36 -11.353
6 AF1 37 -10.376
6 AF1 38 -9.888
6 AF1 39 -9.888
6 AF1 40 -10.376
6 AF1 41 -11.353
6 AF1 42 -11.353
6 AF1 43 -11.353
6 AF1 44 -10.864
6 AF1 45 -9.399
6 AF1 46 -8.911
6 AF1 47 -8.423
6 AF1 48 -9.399
6 AF1 49 -10.864
6 AF1 50 -11.353
6 AF1 51 -11.841
6 AF1 52 -11.353
6 AF1 53 -10.376
6 AF1 54 -10.376
6 AF1 55 -11.841
6 AF1 56 -13.794
6 AF1 57 -15.747
6 AF1 58 -15.747
6 AF1 59 -14.771
6 AF1 60 -13.794
6 AF1 61 -13.306
6 AF1 62 -14.282
6 AF1 63 -16.724
6 AF1 64 -18.677
6 AF1 65 -21.118
6 AF1 66 -22.583
6 AF1 67 -23.560
6 AF1 68 -23.071
6 AF1 69 -22.583
6 AF1 70 -21.118
6 AF1 71 -20.142
6 AF1 72 -19.165
6 AF1 73 -18.677
6 AF1 74 -17.700
6 AF1 75 -15.747
6 AF1 76 -14.771
6 AF1 77 -13.794
6 AF1 78 -13.794
6 AF1 79 -14.282
6 AF1 80 -15.259
6 AF1 81 -14.771
6 AF1 82 -13.306
6 AF1 83 -10.864
6 AF1 84 -8.911
6 AF1 85 -7.446
6 AF1 86 -6.958
6 AF1 87 -6.958
6 AF1 88 -7.446
6 AF1 89 -7.935
6 AF1 90 -7.935
6 AF1 91 -7.935
6 AF1 92 -7.935
6 AF1 93 -8.423
6 AF1 94 -9.399
6 AF1 95 -10.864
6 AF1 96 -13.306
6 AF1 97 -15.259
6 AF1 98 -16.724
6 AF1 99 -17.212
6 AF1 100 -17.212
6 AF1 101 -16.724
6 AF1 102 -16.724
6 AF1 103 -16.235
6 AF1 104 -16.235
6 AF1 105 -16.235
6 AF1 106 -16.724
6 AF1 107 -17.212
6 AF1 108 -17.212
6 AF1 109 -16.724
6 AF1 110 -15.747
6 AF1 111 -15.747
6 AF1 112 -16.724
6 AF1 113 -17.700
6 AF1 114 -18.677
6 AF1 115 -18.188
6 AF1 116 -16.235
6 AF1 117 -13.306
6 AF1 118 -10.864
6 AF1 119 -9.399
6 AF1 120 -8.911
6 AF1 121 -8.911
6 AF1 122 -9.888
6 AF1 123 -10.376
6 AF1 124 -10.864
6 AF1 125 -10.864
6 AF1 126 -9.888
6 AF1 127 -9.399
6 AF1 128 -8.911
6 AF1 129 -9.399
6 AF1 130 -10.376
6 AF1 131 -11.841
6 AF1 132 -12.817
6 AF1 133 -13.794
6 AF1 134 -14.282
6 AF1 135 -14.771
6 AF1 136 -15.259
6 AF1 137 -15.259
6 AF1 138 -15.747
6 AF1 139 -16.235
6 AF1 140 -16.724
6 AF1 141 -16.235
6 AF1 142 -15.259
6 AF1 143 -14.282
6 AF1 144 -13.794
6 AF1 145 -13.794
6 AF1 146 -15.259
6 AF1 147 -15.747
6 AF1 148 -15.747
6 AF1 149 -15.259
6 AF1 150 -15.259
6 AF1 151 -15.747
6 AF1 152 -17.212
6 AF1 153 -19.165
6 AF1 154 -20.630
6 AF1 155 -20.630
6 AF1 156 -20.142
6 AF1 157 -19.653
6 AF1 158 -20.142
6 AF1 159 -20.630
6 AF1 160 -21.606
6 AF1 161 -21.606
6 AF1 162 -21.118
6 AF1 163 -21.118
6 AF1 164 -20.630
6 AF1 165 -20.142
6 AF1 166 -19.653
6 AF1 167 -18.677
6 AF1 168 -17.700
6 AF1 169 -17.212
6 AF1 170 -17.700
6 AF1 171 -18.188
6 AF1 172 -18.188
6 AF1 173 -17.212
6 AF1 174 -16.235
6 AF1 175 -15.259
6 AF1 176 -14.771
6 AF1 177 -14.771
6 AF1 178 -14.282
6 AF1 179 -13.306
6 AF1 180 -11.841
6 AF1 181 -9.888
6 AF1 182 -8.423
6 AF1 183 -7.446
6 AF1 184 -5.981
6 AF1 185 -5.493
6 AF1 186 -5.005
6 AF1 187 -5.493
6 AF1 188 -6.470
6 AF1 189 -6.958
6 AF1 190 -6.470
6 AF1 191 -5.493
6 AF1 192 -3.540
6 AF1 193 -2.075
6 AF1 194 -0.610
6 AF1 195 -0.122
6 AF1 196 -0.122
6 AF1 197 -0.610
6 AF1 198 -1.587
6 AF1 199 -3.052
6 AF1 200 -5.005
6 AF1 201 -5.981
6 AF1 202 -7.446
6 AF1 203 -8.423
6 AF1 204 -9.888
6 AF1 205 -11.353
6 AF1 206 -12.817
6 AF1 207 -13.794
6 AF1 208 -14.771
6 AF1 209 -15.259
6 AF1 210 -16.724
6 AF1 211 -17.700
6 AF1 212 -19.165
6 AF1 213 -19.653
6 AF1 214 -19.165
6 AF1 215 -17.700
6 AF1 216 -15.747
6 AF1 217 -13.794
6 AF1 218 -11.353
6 AF1 219 -9.888
6 AF1 220 -8.911
6 AF1 221 -7.935
6 AF1 222 -6.958
6 AF1 223 -6.470
6 AF1 224 -5.493
6 AF1 225 -4.517
6 AF1 226 -3.540
6 AF1 227 -3.540
6 AF1 228 -3.052
6 AF1 229 -2.075
6 AF1 230 -1.099
6 AF1 231 0.366
6 AF1 232 0.854
6 AF1 233 0.366
6 AF1 234 -1.099
6 AF1 235 -2.563
6 AF1 236 -4.028
6 AF1 237 -4.028
6 AF1 238 -4.028
6 AF1 239 -4.028
6 AF1 240 -4.517
6 AF1 241 -4.517
6 AF1 242 -4.517
6 AF1 243 -4.517
6 AF1 244 -4.028
6 AF1 245 -4.028
6 AF1 246 -4.028
6 AF1 247 -3.540
6 AF1 248 -3.052
6 AF1 249 -1.099
6 AF1 250 0.366
6 AF1 251 0.366
6 AF1 252 -1.099
6 AF1 253 -3.540
6 AF1 254 -5.493
6 AF1 255 -5.981
# AF2 chan 5
6 AF2 0 2.411
6 AF2 1 1.923
6 AF2 2 1.434
6 AF2 3 0.946
6 AF2 4 -0.031
6 AF2 5 -0.519
6 AF2 6 -0.031
6 AF2 7 0.458
6 AF2 8 1.434
6 AF2 9 1.434
6 AF2 10 -0.031
6 AF2 11 -2.472
6 AF2 12 -4.913
6 AF2 13 -7.355
6 AF2 14 -9.308
6 AF2 15 -10.773
6 AF2 16 -11.261
6 AF2 17 -11.749
6 AF2 18 -11.261
6 AF2 19 -10.773
6 AF2 20 -10.284
6 AF2 21 -9.796
6 AF2 22 -9.796
6 AF2 23 -10.284
6 AF2 24 -11.261
6 AF2 25 -12.238
6 AF2 26 -12.726
6 AF2 27 -12.726
6 AF2 28 -12.238
6 AF2 29 -11.749
6 AF2 30 -10.773
6 AF2 31 -9.796
6 AF2 32 -9.796
6 AF2 33 -9.796
6 AF2 34 -9.796
6 AF2 35 -9.308
6 AF2 36 -8.820
6 AF2 37 -8.331
6 AF2 38 -8.331
6 AF2 39 -8.331
6 AF2 40 -8.331
6 AF2 41 -7.843
6 AF2 42 -7.355
6 AF2 43 -6.378
6 AF2 44 -5.402
6 AF2 45 -5.402
6 AF2 46 -4.913
6 AF2 47 -4.913
6 AF2 48 -5.402
6 AF2 49 -6.378
6 AF2 50 -7.843
6 AF2 51 -8.820
6 AF2 52 -8.820
6 AF2 53 -8.331
6 AF2 54 -7.843
6 AF2 55 -9.308
6 AF2 56 -11.261
6 AF2 57 -13.214
6 AF2 58 -13.702
6 AF2 59 -12.726
6 AF2 60 -11.261
6 AF2 61 -10.773
6 AF2 62 -10.773
6 AF2 63 -12.238
6 AF2 64 -14.191
6 AF2 65 -16.144
6 AF2 66 -18.097
6 AF2 67 -20.050
6 AF2 68 -20.538
6 AF2 69 -20.538
6 AF2 70 -20.050
6 AF2 71 -18.585
6 AF2 72 -17.120
6 AF2 73 -16.632
6 AF2 74 -15.656
6 AF2 75 -14.679
6 AF2 76 -13.214
6 AF2 77 -12.238
6 AF2 78 -11.261
6 AF2 79 -11.749
6 AF2 80 -12.238
6 AF2 81 -12.726
6 AF2 82 -12.238
6 AF2 83 -10.284
6 AF2 84 -7.843
6 AF2 85 -6.866
6 AF2 86 -6.866
6 AF2 87 -8.331
6 AF2 88 -9.308
6 AF2 89 -9.796
6 AF2 90 -9.308
6 AF2 91 -8.331
6 AF2 92 -8.331
6 AF2 93 -8.820
6 AF2 94 -10.284
6 AF2 95 -11.749
6 AF2 96 -13.702
6 AF2 97 -15.656
6 AF2 98 -17.120
6 AF2 99 -18.097
6 AF2 100 -18.585
6 AF2 101 -18.097
6 AF2 102 -17.609
6 AF2 103 -16.632
6 AF2 104 -16.144
6 AF2 105 -16.144
6 AF2 106 -16.632
6 AF2 107 -18.585
6 AF2 108 -19.073
6 AF2 109 -19.073
6 AF2 110 -18.585
6 AF2 111 -17.120
6 AF2 112 -17.120
6 AF2 113 -17.609
6 AF2 114 -17.609
6 AF2 115 -17.120
6 AF2 116 -15.167
6 AF2 117 -13.214
6 AF2 118 -11.261
6 AF2 119 -10.284
6 AF2 120 -9.796
6 AF2 121 -10.284
6 AF2 122 -10.284
6 AF2 123 -10.284
6 AF2 124 -10.284
6 AF2 125 -10.284
6 AF2 126 -10.773
6 AF2 127 -10.773
6 AF2 128 -11.261
6 AF2 129 -11.261
6 AF2 130 -12.238
6 AF2 131 -12.726
6 AF2 132 -13.702
6 AF2 133 -14.191
6 AF2 134 -14.191
6 AF2 135 -13.702
6 AF2 136 -13.214
6 AF2 137 -12.726
6 AF2 138 -13.702
6 AF2 139 -14.679
6 AF2 140 -14.679
6 AF2 141 -14.191
6 AF2 142 -13.214
6 AF2 143 -12.726
6 AF2 144 -12.726
6 AF2 145 -13.214
6 AF2 146 -13.702
6 AF2 147 -13.702
6 AF2 148 -13.214
6 AF2 149 -13.702
6 AF2 150 -14.191
6 AF2 151 -15.167
6 AF2 152 -16.632
6 AF2 153 -18.097
6 AF2 154 -18.585
6 AF2 155 -19.073
6 AF2 156 -19.562
6 AF2 157 -20.538
6 AF2 158 -22.003
6 AF2 159 -22.980
6 AF2 160 -23.468
6 AF2 161 -23.468
6 AF2 162 -22.491
6 AF2 163 -21.515
6 AF2 164 -21.027
6 AF2 165 -20.050
6 AF2 166 -19.073
6 AF2 167 -18.097
6 AF2 168 -17.609
6 AF2 169 -18.097
6 AF2 170 -18.585
6 AF2 171 -18.585
6 AF2 172 -18.585
6 AF2 173 -17.120
6 AF2 174 -16.144
6 AF2 175 -15.167
6 AF2 176 -15.167
6 AF2 177 -15.167
6 AF2 178 -15.167
6 AF2 179 -14.679
6 AF2 180 -13.214
6 AF2 181 -11.749
6 AF2 182 -10.284
6 AF2 183 -9.308
6 AF2 184 -8.331
6 AF2 185 -8.331
6 AF2 186 -8.331
6 AF2 187 -8.820
6 AF2 188 -9.308
6 AF2 189 -9.308
6 AF2 190 -9.308
6 AF2 191 -8.331
6 AF2 192 -6.866
6 AF2 193 -5.402
6 AF2 194 -4.425
6 AF2 195 -3.937
6 AF2 196 -3.937
6 AF2 197 -3.937
6 AF2 198 -3.937
6 AF2 199 -3.937
6 AF2 200 -4.425
6 AF2 201 -5.402
6 AF2 202 -6.378
6 AF2 203 -7.843
6 AF2 204 -9.308
6 AF2 205 -11.261
6 AF2 206 -12.726
6 AF2 207 -13.702
6 AF2 208 -14.679
6 AF2 209 -15.167
6 AF2 210 -15.656
6 AF2 211 -16.632
6 AF2 212 -17.609
6 AF2 213 -17.609
6 AF2 214 -17.609
6 AF2 215 -16.632
6 AF2 216 -15.167
6 AF2 217 -13.702
6 AF2 218 -12.726
6 AF2 219 -11.261
6 AF2 220 -9.796
6 AF2 221 -7.843
6 AF2 222 -6.378
6 AF2 223 -5.890
6 AF2 224 -5.402
6 AF2 225 -5.890
6 AF2 226 -5.890
6 AF2 227 -5.890
6 AF2 228 -5.402
6 AF2 229 -4.425
6 AF2 230 -2.960
6 AF2 231 -1.984
6 AF2 232 -1.495
6 AF2 233 -1.984
6 AF2 234 -3.448
6 AF2 235 -4.425
6 AF2 236 -5.402
6 AF2 237 -5.402
6 AF2 238 -5.890
6 AF2 239 -5.890
6 AF2 240 -5.890
6 AF2 241 -6.378
6 AF2 242 -6.378
6 AF2 243 -5.890
6 AF2 244 -5.402
6 AF2 245 -5.890
6 AF2 246 -5.890
6 AF2 247 -5.890
6 AF2 248 -5.402
6 AF2 249 -4.425
6 AF2 250 -3.448
6 AF2 251 -3.448
6 AF2 252 -4.425
6 AF2 253 -5.890
6 AF2 254 -7.355
6 AF2 255 -7.843
# FZ chan 6
6 FZ 0 -0.173
6 FZ 1 -0.661
6 FZ 2 -0.661
6 FZ 3 -1.149
6 FZ 4 -1.149
6 FZ 5 -1.638
6 FZ 6 -1.149
6 FZ 7 -0.661
6 FZ 8 -0.173
6 FZ 9 0.315
6 FZ 10 -0.661
6 FZ 11 -2.614
6 FZ 12 -4.567
6 FZ 13 -6.032
6 FZ 14 -7.497
6 FZ 15 -8.474
6 FZ 16 -8.962
6 FZ 17 -8.962
6 FZ 18 -8.474
6 FZ 19 -7.497
6 FZ 20 -6.032
6 FZ 21 -5.544
6 FZ 22 -5.056
6 FZ 23 -5.056
6 FZ 24 -6.032
6 FZ 25 -6.521
6 FZ 26 -7.009
6 FZ 27 -7.497
6 FZ 28 -7.009
6 FZ 29 -6.521
6 FZ 30 -6.521
6 FZ 31 -6.521
6 FZ 32 -6.032
6 FZ 33 -5.544
6 FZ 34 -5.544
6 FZ 35 -4.567
6 FZ 36 -4.567
6 FZ 37 -4.567
6 FZ 38 -5.056
6 FZ 39 -5.544
6 FZ 40 -5.544
6 FZ 41 -5.544
6 FZ 42 -5.544
6 FZ 43 -5.056
6 FZ 44 -4.567
6 FZ 45 -4.079
6 FZ 46 -3.591
6 FZ 47 -3.103
6 FZ 48 -3.591
6 FZ 49 -4.079
6 FZ 50 -5.056
6 FZ 51 -5.544
6 FZ 52 -6.032
6 FZ 53 -6.521
6 FZ 54 -6.521
6 FZ 55 -7.497
6 FZ 56 -8.474
6 FZ 57 -9.450
6 FZ 58 -9.450
6 FZ 59 -8.962
6 FZ 60 -7.985
6 FZ 61 -7.009
6 FZ 62 -7.985
6 FZ 63 -9.450
6 FZ 64 -10.915
6 FZ 65 -12.380
6 FZ 66 -13.845
6 FZ 67 -14.333
6 FZ 68 -14.333
6 FZ 69 -14.333
6 FZ 70 -13.357
6 FZ 71 -12.380
6 FZ 72 -11.892
6 FZ 73 -11.403
6 FZ 74 -10.427
6 FZ 75 -9.450
6 FZ 76 -8.962
6 FZ 77 -7.985
6 FZ 78 -7.497
6 FZ 79 -7.497
6 FZ 80 -7.985
6 FZ 81 -7.497
6 FZ 82 -7.009
6 FZ 83 -5.056
6 FZ 84 -3.591
6 FZ 85 -3.103
6 FZ 86 -3.103
6 FZ 87 -4.079
6 FZ 88 -5.056
6 FZ 89 -5.544
6 FZ 90 -5.056
6 FZ 91 -5.056
6 FZ 92 -5.544
6 FZ 93 -6.032
6 FZ 94 -7.497
6 FZ 95 -8.962
6 FZ 96 -10.427
6 FZ 97 -11.892
6 FZ 98 -12.380
6 FZ 99 -12.868
6 FZ 100 -12.380
6 FZ 101 -12.380
6 FZ 102 -11.892
6 FZ 103 -11.892
6 FZ 104 -11.403
6 FZ 105 -11.403
6 FZ 106 -11.403
6 FZ 107 -11.403
6 FZ 108 -11.403
6 FZ 109 -10.427
6 FZ 110 -8.962
6 FZ 111 -7.985
6 FZ 112 -7.985
6 FZ 113 -7.985
6 FZ 114 -8.474
6 FZ 115 -8.962
6 FZ 116 -7.985
6 FZ 117 -6.521
6 FZ 118 -4.567
6 FZ 119 -2.614
6 FZ 120 -1.638
6 FZ 121 -1.638
6 FZ 122 -2.126
6 FZ 123 -3.103
6 FZ 124 -4.079
6 FZ 125 -4.567
6 FZ 126 -4.567
6 FZ 127 -4.079
6 FZ 128 -4.079
6 FZ 129 -4.567
6 FZ 130 -4.567
6 FZ 131 -5.056
6 FZ 132 -5.544
6 FZ 133 -6.032
6 FZ 134 -7.009
6 FZ 135 -7.497
6 FZ 136 -7.497
6 FZ 137 -7.985
6 FZ 138 -8.474
6 FZ 139 -8.474
6 FZ 140 -8.474
6 FZ 141 -7.985
6 FZ 142 -7.497
6 FZ 143 -7.009
6 FZ 144 -7.009
6 FZ 145 -7.497
6 FZ 146 -7.985
6 FZ 147 -7.985
6 FZ 148 -7.985
6 FZ 149 -7.497
6 FZ 150 -7.497
6 FZ 151 -7.985
6 FZ 152 -8.474
6 FZ 153 -9.450
6 FZ 154 -10.427
6 FZ 155 -10.915
6 FZ 156 -10.915
6 FZ 157 -11.403
6 FZ 158 -11.892
6 FZ 159 -11.892
6 FZ 160 -11.892
6 FZ 161 -11.403
6 FZ 162 -10.915
6 FZ 163 -10.427
6 FZ 164 -9.939
6 FZ 165 -9.450
6 FZ 166 -8.962
6 FZ 167 -7.985
6 FZ 168 -7.009
6 FZ 169 -6.521
6 FZ 170 -6.521
6 FZ 171 -7.009
6 FZ 172 -7.497
6 FZ 173 -7.497
6 FZ 174 -7.009
6 FZ 175 -6.032
6 FZ 176 -5.544
6 FZ 177 -4.567
6 FZ 178 -4.079
6 FZ 179 -3.103
6 FZ 180 -2.126
6 FZ 181 -1.149
6 FZ 182 -0.661
6 FZ 183 -0.661
6 FZ 184 -0.173
6 FZ 185 -0.173
6 FZ 186 -0.173
6 FZ 187 -0.173
6 FZ 188 -0.661
6 FZ 189 -1.149
6 FZ 190 -1.149
6 FZ 191 -1.149
6 FZ 192 -0.173
6 FZ 193 0.804
6 FZ 194 1.292
6 FZ 195 1.780
6 FZ 196 1.292
6 FZ 197 1.292
6 FZ 198 1.292
6 FZ 199 0.804
6 FZ 200 0.315
6 FZ 201 -0.173
6 FZ 202 -1.149
6 FZ 203 -1.638
6 FZ 204 -2.614
6 FZ 205 -3.103
6 FZ 206 -4.079
6 FZ 207 -4.567
6 FZ 208 -5.544
6 FZ 209 -6.032
6 FZ 210 -6.521
6 FZ 211 -6.521
6 FZ 212 -7.009
6 FZ 213 -7.497
6 FZ 214 -7.009
6 FZ 215 -6.521
6 FZ 216 -5.544
6 FZ 217 -4.079
6 FZ 218 -3.103
6 FZ 219 -2.126
6 FZ 220 -0.661
6 FZ 221 0.315
6 FZ 222 1.292
6 FZ 223 1.292
6 FZ 224 1.292
6 FZ 225 1.292
6 FZ 226 0.804
6 FZ 227 0.315
6 FZ 228 0.315
6 FZ 229 1.292
6 FZ 230 2.268
6 FZ 231 3.245
6 FZ 232 4.222
6 FZ 233 3.733
6 FZ 234 2.268
6 FZ 235 1.292
6 FZ 236 -0.173
6 FZ 237 -0.661
6 FZ 238 -0.661
6 FZ 239 -1.149
6 FZ 240 -1.149
6 FZ 241 -0.661
6 FZ 242 -0.661
6 FZ 243 0.315
6 FZ 244 0.315
6 FZ 245 0.315
6 FZ 246 -0.661
6 FZ 247 -0.661
6 FZ 248 -0.661
6 FZ 249 0.315
6 FZ 250 0.804
6 FZ 251 0.804
6 FZ 252 0.315
6 FZ 253 -1.149
6 FZ 254 -2.126
6 FZ 255 -2.614
# F4 chan 7
6 F4 0 3.011
6 F4 1 3.011
6 F4 2 2.523
6 F4 3 1.546
6 F4 4 1.058
6 F4 5 1.058
6 F4 6 2.035
6 F4 7 2.523
6 F4 8 2.523
6 F4 9 1.546
6 F4 10 0.081
6 F4 11 -1.872
6 F4 12 -3.825
6 F4 13 -5.290
6 F4 14 -6.266
6 F4 15 -7.243
6 F4 16 -7.731
6 F4 17 -6.755
6 F4 18 -6.266
6 F4 19 -5.778
6 F4 20 -6.266
6 F4 21 -6.755
6 F4 22 -6.755
6 F4 23 -6.266
6 F4 24 -5.778
6 F4 25 -5.778
6 F4 26 -6.266
6 F4 27 -6.755
6 F4 28 -6.755
6 F4 29 -5.778
6 F4 30 -4.313
6 F4 31 -3.825
6 F4 32 -3.825
6 F4 33 -4.801
6 F4 34 -4.801
6 F4 35 -4.801
6 F4 36 -3.337
6 F4 37 -2.360
6 F4 38 -1.872
6 F4 39 -1.872
6 F4 40 -2.360
6 F4 41 -2.848
6 F4 42 -2.360
6 F4 43 -1.872
6 F4 44 -0.895
6 F4 45 -0.407
6 F4 46 0.081
6 F4 47 0.081
6 F4 48 -0.407
6 F4 49 -1.872
6 F4 50 -2.848
6 F4 51 -3.825
6 F4 52 -3.825
6 F4 53 -3.337
6 F4 54 -2.848
6 F4 55 -2.848
6 F4 56 -3.825
6 F4 57 -4.801
6 F4 58 -5.290
6 F4 59 -5.778
6 F4 60 -4.801
6 F4 61 -4.801
6 F4 62 -4.801
6 F4 63 -5.778
6 F4 64 -6.755
6 F4 65 -8.708
6 F4 66 -10.661
6 F4 67 -13.102
6 F4 68 -14.079
6 F4 69 -14.567
6 F4 70 -13.590
6 F4 71 -12.614
6 F4 72 -11.637
6 F4 73 -10.661
6 F4 74 -10.173
6 F4 75 -9.196
6 F4 76 -8.219
6 F4 77 -7.243
6 F4 78 -6.755
6 F4 79 -7.731
6 F4 80 -8.708
6 F4 81 -9.196
6 F4 82 -8.708
6 F4 83 -6.755
6 F4 84 -5.290
6 F4 85 -4.313
6 F4 86 -4.801
6 F4 87 -5.778
6 F4 88 -6.266
6 F4 89 -6.755
6 F4 90 -6.266
6 F4 91 -5.778
6 F4 92 -6.266
6 F4 93 -6.266
6 F4 94 -6.755
6 F4 95 -7.731
6 F4 96 -8.708
6 F4 97 -10.173
6 F4 98 -11.637
6 F4 99 -12.614
6 F4 100 -13.102
6 F4 101 -12.614
6 F4 102 -11.637
6 F4 103 -10.661
6 F4 104 -10.173
6 F4 105 -10.173
6 F4 106 -10.173
6 F4 107 -11.149
6 F4 108 -11.637
6 F4 109 -11.149
6 F4 110 -10.661
6 F4 111 -9.684
6 F4 112 -9.196
6 F4 113 -9.684
6 F4 114 -10.173
6 F4 115 -9.684
6 F4 116 -9.196
6 F4 117 -7.731
6 F4 118 -6.755
6 F4 119 -5.778
6 F4 120 -6.266
6 F4 121 -7.731
6 F4 122 -8.708
6 F4 123 -9.684
6 F4 124 -9.196
6 F4 125 -9.196
6 F4 126 -8.219
6 F4 127 -8.708
6 F4 128 -9.196
6 F4 129 -9.684
6 F4 130 -10.173
6 F4 131 -9.684
6 F4 132 -9.684
6 F4 133 -9.196
6 F4 134 -8.708
6 F4 135 -8.219
6 F4 136 -7.243
6 F4 137 -6.755
6 F4 138 -6.266
6 F4 139 -6.266
6 F4 140 -6.755
6 F4 141 -6.755
6 F4 142 -6.755
6 F4 143 -6.266
6 F4 144 -6.266
6 F4 145 -6.755
6 F4 146 -6.755
6 F4 147 -6.755
6 F4 148 -6.266
6 F4 149 -5.778
6 F4 150 -5.778
6 F4 151 -6.266
6 F4 152 -7.243
6 F4 153 -8.219
6 F4 154 -8.708
6 F4 155 -8.708
6 F4 156 -9.196
6 F4 157 -10.173
6 F4 158 -11.637
6 F4 159 -12.614
6 F4 160 -12.614
6 F4 161 -11.637
6 F4 162 -9.684
6 F4 163 -8.708
6 F4 164 -8.219
6 F4 165 -8.219
6 F4 166 -7.731
6 F4 167 -7.243
6 F4 168 -6.755
6 F4 169 -6.755
6 F4 170 -7.243
6 F4 171 -7.731
6 F4 172 -8.219
6 F4 173 -7.731
6 F4 174 -6.755
6 F4 175 -6.755
6 F4 176 -6.755
6 F4 177 -7.731
6 F4 178 -8.219
6 F4 179 -7.731
6 F4 180 -7.243
6 F4 181 -6.266
6 F4 182 -5.778
6 F4 183 -5.290
6 F4 184 -5.290
6 F4 185 -5.290
6 F4 186 -4.801
6 F4 187 -4.801
6 F4 188 -4.801
6 F4 189 -4.801
6 F4 190 -4.801
6 F4 191 -3.825
6 F4 192 -2.848
6 F4 193 -1.383
6 F4 194 -0.407
6 F4 195 -0.407
6 F4 196 -0.407
6 F4 197 -0.407
6 F4 198 0.081
6 F4 199 0.570
6 F4 200 0.570
6 F4 201 0.570
6 F4 202 0.081
6 F4 203 -0.407
6 F4 204 -1.383
6 F4 205 -3.337
6 F4 206 -4.801
6 F4 207 -6.266
6 F4 208 -6.755
6 F4 209 -7.243
6 F4 210 -7.243
6 F4 211 -7.731
6 F4 212 -7.731
6 F4 213 -7.731
6 F4 214 -7.731
6 F4 215 -6.755
6 F4 216 -5.290
6 F4 217 -4.801
6 F4 218 -4.313
6 F4 219 -3.825
6 F4 220 -2.848
6 F4 221 -1.383
6 F4 222 -0.407
6 F4 223 -0.407
6 F4 224 -0.895
6 F4 225 -1.872
6 F4 226 -2.360
6 F4 227 -2.848
6 F4 228 -2.848
6 F4 229 -1.872
6 F4 230 -0.895
6 F4 231 0.081
6 F4 232 0.570
6 F4 233 1.058
6 F4 234 0.081
6 F4 235 -0.407
6 F4 236 -1.383
6 F4 237 -1.872
6 F4 238 -2.848
6 F4 239 -3.337
6 F4 240 -3.825
6 F4 241 -2.848
6 F4 242 -2.360
6 F4 243 -1.383
6 F4 244 -0.895
6 F4 245 -0.895
6 F4 246 -1.383
6 F4 247 -1.383
6 F4 248 -0.895
6 F4 249 -0.407
6 F4 250 0.081
6 F4 251 -0.407
6 F4 252 -0.895
6 F4 253 -1.872
6 F4 254 -2.360
6 F4 255 -2.848
# F3 chan 8
6 F3 0 -0.804
6 F3 1 -0.804
6 F3 2 -1.292
6 F3 3 -1.292
6 F3 4 -1.780
6 F3 5 -1.780
6 F3 6 -1.292
6 F3 7 -1.292
6 F3 8 -0.804
6 F3 9 -0.804
6 F3 10 -0.804
6 F3 11 -2.268
6 F3 12 -3.733
6 F3 13 -5.198
6 F3 14 -6.663
6 F3 15 -7.640
6 F3 16 -8.616
6 F3 17 -9.593
6 F3 18 -9.593
6 F3 19 -8.616
6 F3 20 -7.151
6 F3 21 -6.175
6 F3 22 -5.686
6 F3 23 -6.175
6 F3 24 -7.640
6 F3 25 -8.616
6 F3 26 -9.104
6 F3 27 -8.616
6 F3 28 -8.128
6 F3 29 -7.640
6 F3 30 -8.128
6 F3 31 -8.128
6 F3 32 -8.128
6 F3 33 -7.640
6 F3 34 -8.128
6 F3 35 -7.640
6 F3 36 -8.128
6 F3 37 -7.640
6 F3 38 -7.640
6 F3 39 -7.640
6 F3 40 -8.128
6 F3 41 -8.616
6 F3 42 -10.081
6 F3 43 -10.081
6 F3 44 -9.593
6 F3 45 -8.128
6 F3 46 -7.151
6 F3 47 -7.151
6 F3 48 -7.640
6 F3 49 -9.104
6 F3 50 -9.593
6 F3 51 -9.593
6 F3 52 -8.616
6 F3 53 -8.128
6 F3 54 -8.616
6 F3 55 -10.081
6 F3 56 -11.546
6 F3 57 -12.522
6 F3 58 -12.034
6 F3 59 -10.081
6 F3 60 -8.616
6 F3 61 -8.616
6 F3 62 -9.104
6 F3 63 -10.569
6 F3 64 -12.522
6 F3 65 -13.011
6 F3 66 -13.011
6 F3 67 -13.011
6 F3 68 -12.522
6 F3 69 -12.522
6 F3 70 -12.522
6 F3 71 -12.034
6 F3 72 -11.058
6 F3 73 -10.569
6 F3 74 -9.593
6 F3 75 -8.616
6 F3 76 -8.128
6 F3 77 -8.128
6 F3 78 -7.640
6 F3 79 -8.128
6 F3 80 -8.128
6 F3 81 -8.128
6 F3 82 -7.640
6 F3 83 -7.151
6 F3 84 -6.175
6 F3 85 -5.686
6 F3 86 -5.198
6 F3 87 -4.710
6 F3 88 -4.710
6 F3 89 -4.710
6 F3 90 -4.710
6 F3 91 -5.198
6 F3 92 -4.710
6 F3 93 -4.710
6 F3 94 -5.686
6 F3 95 -6.663
6 F3 96 -7.640
6 F3 97 -8.128
6 F3 98 -8.616
6 F3 99 -9.104
6 F3 100 -9.104
6 F3 101 -9.593
6 F3 102 -9.593
6 F3 103 -9.593
6 F3 104 -9.593
6 F3 105 -9.593
6 F3 106 -9.104
6 F3 107 -9.593
6 F3 108 -10.081
6 F3 109 -10.081
6 F3 110 -9.593
6 F3 111 -9.104
6 F3 112 -8.616
6 F3 113 -8.616
6 F3 114 -8.616
6 F3 115 -8.616
6 F3 116 -8.128
6 F3 117 -6.663
6 F3 118 -4.710
6 F3 119 -3.245
6 F3 120 -2.268
6 F3 121 -1.780
6 F3 122 -2.268
6 F3 123 -3.245
6 F3 124 -4.222
6 F3 125 -4.710
6 F3 126 -5.198
6 F3 127 -4.710
6 F3 128 -4.710
6 F3 129 -4.222
6 F3 130 -4.710
6 F3 131 -5.198
6 F3 132 -6.663
6 F3 133 -8.128
6 F3 134 -9.593
6 F3 135 -9.593
6 F3 136 -10.081
6 F3 137 -10.081
6 F3 138 -10.569
6 F3 139 -11.058
6 F3 140 -11.546
6 F3 141 -11.058
6 F3 142 -10.081
6 F3 143 -9.104
6 F3 144 -9.104
6 F3 145 -9.593
6 F3 146 -10.569
6 F3 147 -11.058
6 F3 148 -11.546
6 F3 149 -12.034
6 F3 150 -12.522
6 F3 151 -13.011
6 F3 152 -13.499
6 F3 153 -14.476
6 F3 154 -14.964
6 F3 155 -14.964
6 F3 156 -14.964
6 F3 157 -14.476
6 F3 158 -13.987
6 F3 159 -13.499
6 F3 160 -13.499
6 F3 161 -13.987
6 F3 162 -14.476
6 F3 163 -14.964
6 F3 164 -14.964
6 F3 165 -14.476
6 F3 166 -13.499
6 F3 167 -11.546
6 F3 168 -10.569
6 F3 169 -10.569
6 F3 170 -10.569
6 F3 171 -11.546
6 F3 172 -12.034
6 F3 173 -12.034
6 F3 174 -11.546
6 F3 175 -10.569
6 F3 176 -9.593
6 F3 177 -8.616
6 F3 178 -7.640
6 F3 179 -7.151
6 F3 180 -6.663
6 F3 181 -6.175
6 F3 182 -5.686
6 F3 183 -5.198
6 F3 184 -4.710
6 F3 185 -3.733
6 F3 186 -3.733
6 F3 187 -3.733
6 F3 188 -4.222
6 F3 189 -4.222
6 F3 190 -4.710
6 F3 191 -4.222
6 F3 192 -4.222
6 F3 193 -3.733
6 F3 194 -2.757
6 F3 195 -2.757
6 F3 196 -2.757
6 F3 197 -3.245
6 F3 198 -3.733
6 F3 199 -4.222
6 F3 200 -5.198
6 F3 201 -5.686
6 F3 202 -5.686
6 F3 203 -6.175
6 F3 204 -7.151
6 F3 205 -8.128
6 F3 206 -8.616
6 F3 207 -9.104
6 F3 208 -9.593
6 F3 209 -9.593
6 F3 210 -10.569
6 F3 211 -12.034
6 F3 212 -13.499
6 F3 213 -13.987
6 F3 214 -13.987
6 F3 215 -13.011
6 F3 216 -10.569
6 F3 217 -8.616
6 F3 218 -6.175
6 F3 219 -4.710
6 F3 220 -3.733
6 F3 221 -3.245
6 F3 222 -2.757
6 F3 223 -2.268
6 F3 224 -1.780
6 F3 225 -0.804
6 F3 226 0.173
6 F3 227 0.661
6 F3 228 1.149
6 F3 229 1.638
6 F3 230 2.126
6 F3 231 2.614
6 F3 232 2.614
6 F3 233 1.638
6 F3 234 0.661
6 F3 235 -0.315
6 F3 236 -0.804
6 F3 237 -1.292
6 F3 238 -1.292
6 F3 239 -1.780
6 F3 240 -2.268
6 F3 241 -1.780
6 F3 242 -1.780
6 F3 243 -1.780
6 F3 244 -1.780
6 F3 245 -2.268
6 F3 246 -3.245
6 F3 247 -3.245
6 F3 248 -2.757
6 F3 249 -1.780
6 F3 250 -1.292
6 F3 251 -1.292
6 F3 252 -2.268
6 F3 253 -3.733
6 F3 254 -4.710
6 F3 255 -4.710
# FC6 chan 9
6 FC6 0 3.225
6 FC6 1 3.225
6 FC6 2 1.760
6 FC6 3 0.783
6 FC6 4 0.295
6 FC6 5 0.295
6 FC6 6 1.272
6 FC6 7 1.760
6 FC6 8 1.760
6 FC6 9 0.295
6 FC6 10 -1.170
6 FC6 11 -2.635
6 FC6 12 -3.123
6 FC6 13 -3.611
6 FC6 14 -4.100
6 FC6 15 -5.076
6 FC6 16 -5.564
6 FC6 17 -5.076
6 FC6 18 -4.588
6 FC6 19 -4.588
6 FC6 20 -5.564
6 FC6 21 -6.053
6 FC6 22 -6.053
6 FC6 23 -5.564
6 FC6 24 -4.100
6 FC6 25 -4.100
6 FC6 26 -5.076
6 FC6 27 -6.541
6 FC6 28 -6.541
6 FC6 29 -5.564
6 FC6 30 -4.100
6 FC6 31 -2.635
6 FC6 32 -2.146
6 FC6 33 -3.123
6 FC6 34 -3.611
6 FC6 35 -3.611
6 FC6 36 -2.635
6 FC6 37 -1.170
6 FC6 38 -0.193
6 FC6 39 0.783
6 FC6 40 0.783
6 FC6 41 0.783
6 FC6 42 0.783
6 FC6 43 1.760
6 FC6 44 2.736
6 FC6 45 2.736
6 FC6 46 3.225
6 FC6 47 3.225
6 FC6 48 2.736
6 FC6 49 1.760
6 FC6 50 0.295
6 FC6 51 -0.193
6 FC6 52 -0.193
6 FC6 53 0.783
6 FC6 54 1.760
6 FC6 55 2.248
6 FC6 56 1.760
6 FC6 57 0.783
6 FC6 58 -0.193
6 FC6 59 -1.170
6 FC6 60 -1.658
6 FC6 61 -1.658
6 FC6 62 -1.658
6 FC6 63 -1.658
6 FC6 64 -2.146
6 FC6 65 -3.123
6 FC6 66 -4.588
6 FC6 67 -6.541
6 FC6 68 -8.006
6 FC6 69 -8.494
6 FC6 70 -8.006
6 FC6 71 -7.029
6 FC6 72 -6.541
6 FC6 73 -5.564
6 FC6 74 -4.588
6 FC6 75 -3.611
6 FC6 76 -2.635
6 FC6 77 -2.146
6 FC6 78 -3.123
6 FC6 79 -4.588
6 FC6 80 -6.053
6 FC6 81 -6.541
6 FC6 82 -6.541
6 FC6 83 -6.053
6 FC6 84 -5.076
6 FC6 85 -5.076
6 FC6 86 -4.588
6 FC6 87 -4.588
6 FC6 88 -4.100
6 FC6 89 -4.588
6 FC6 90 -4.588
6 FC6 91 -4.588
6 FC6 92 -4.588
6 FC6 93 -4.100
6 FC6 94 -3.611
6 FC6 95 -3.123
6 FC6 96 -3.123
6 FC6 97 -4.588
6 FC6 98 -5.564
6 FC6 99 -6.053
6 FC6 100 -6.053
6 FC6 101 -5.076
6 FC6 102 -4.100
6 FC6 103 -3.123
6 FC6 104 -3.123
6 FC6 105 -3.123
6 FC6 106 -3.123
6 FC6 107 -3.611
6 FC6 108 -4.100
6 FC6 109 -4.100
6 FC6 110 -4.100
6 FC6 111 -3.611
6 FC6 112 -3.611
6 FC6 113 -4.100
6 FC6 114 -4.100
6 FC6 115 -4.100
6 FC6 116 -4.100
6 FC6 117 -3.611
6 FC6 118 -3.611
6 FC6 119 -4.100
6 FC6 120 -5.564
6 FC6 121 -7.517
6 FC6 122 -8.982
6 FC6 123 -9.959
6 FC6 124 -8.982
6 FC6 125 -8.006
6 FC6 126 -6.541
6 FC6 127 -6.053
6 FC6 128 -7.029
6 FC6 129 -8.494
6 FC6 130 -8.982
6 FC6 131 -8.982
6 FC6 132 -8.982
6 FC6 133 -8.006
6 FC6 134 -7.517
6 FC6 135 -6.053
6 FC6 136 -5.076
6 FC6 137 -3.611
6 FC6 138 -3.123
6 FC6 139 -2.635
6 FC6 140 -3.123
6 FC6 141 -3.611
6 FC6 142 -3.611
6 FC6 143 -3.611
6 FC6 144 -4.100
6 FC6 145 -4.588
6 FC6 146 -5.076
6 FC6 147 -5.076
6 FC6 148 -4.100
6 FC6 149 -2.635
6 FC6 150 -1.658
6 FC6 151 -1.658
6 FC6 152 -3.123
6 FC6 153 -4.588
6 FC6 154 -5.564
6 FC6 155 -5.564
6 FC6 156 -5.564
6 FC6 157 -6.541
6 FC6 158 -7.517
6 FC6 159 -8.494
6 FC6 160 -8.494
6 FC6 161 -7.517
6 FC6 162 -6.053
6 FC6 163 -5.076
6 FC6 164 -4.588
6 FC6 165 -4.588
6 FC6 166 -4.100
6 FC6 167 -3.611
6 FC6 168 -3.123
6 FC6 169 -3.611
6 FC6 170 -4.588
6 FC6 171 -6.053
6 FC6 172 -6.541
6 FC6 173 -6.541
6 FC6 174 -6.053
6 FC6 175 -5.564
6 FC6 176 -6.541
6 FC6 177 -7.517
6 FC6 178 -8.494
6 FC6 179 -8.494
6 FC6 180 -8.006
6 FC6 181 -7.029
6 FC6 182 -6.541
6 FC6 183 -6.053
6 FC6 184 -6.053
6 FC6 185 -6.053
6 FC6 186 -6.053
6 FC6 187 -6.053
6 FC6 188 -5.564
6 FC6 189 -5.076
6 FC6 190 -4.588
6 FC6 191 -3.611
6 FC6 192 -2.635
6 FC6 193 -1.658
6 FC6 194 -0.682
6 FC6 195 -0.193
6 FC6 196 -0.193
6 FC6 197 0.295
6 FC6 198 0.783
6 FC6 199 0.783
6 FC6 200 1.272
6 FC6 201 1.760
6 FC6 202 1.760
6 FC6 203 1.272
6 FC6 204 0.295
6 FC6 205 -1.658
6 FC6 206 -2.635
6 FC6 207 -4.100
6 FC6 208 -4.100
6 FC6 209 -4.100
6 FC6 210 -4.100
6 FC6 211 -4.100
6 FC6 212 -4.588
6 FC6 213 -4.588
6 FC6 214 -4.588
6 FC6 215 -4.100
6 FC6 216 -4.100
6 FC6 217 -3.611
6 FC6 218 -3.123
6 FC6 219 -3.123
6 FC6 220 -2.635
6 FC6 221 -1.658
6 FC6 222 -1.658
6 FC6 223 -2.146
6 FC6 224 -3.123
6 FC6 225 -4.588
6 FC6 226 -5.564
6 FC6 227 -5.564
6 FC6 228 -5.076
6 FC6 229 -4.588
6 FC6 230 -4.100
6 FC6 231 -4.100
6 FC6 232 -4.100
6 FC6 233 -4.100
6 FC6 234 -3.611
6 FC6 235 -3.123
6 FC6 236 -3.123
6 FC6 237 -3.611
6 FC6 238 -4.588
6 FC6 239 -5.076
6 FC6 240 -5.076
6 FC6 241 -4.100
6 FC6 242 -2.635
6 FC6 243 -1.658
6 FC6 244 -0.682
6 FC6 245 -0.193
6 FC6 246 -0.193
6 FC6 247 -0.682
6 FC6 248 -1.170
6 FC6 249 -1.658
6 FC6 250 -1.658
6 FC6 251 -1.170
6 FC6 252 -1.170
6 FC6 253 -1.170
6 FC6 254 -0.682
6 FC6 255 -0.193
# FC5 chan 10
6 FC5 0 -2.462
6 FC5 1 -2.462
6 FC5 2 -2.462
6 FC5 3 -2.462
6 FC5 4 -1.973
6 FC5 5 -1.973
6 FC5 6 -1.485
6 FC5 7 -1.485
6 FC5 8 -1.973
6 FC5 9 -2.462
6 FC5 10 -2.950
6 FC5 11 -3.438
6 FC5 12 -3.927
6 FC5 13 -4.415
6 FC5 14 -4.903
6 FC5 15 -5.880
6 FC5 16 -7.345
6 FC5 17 -8.809
6 FC5 18 -9.298
6 FC5 19 -8.809
6 FC5 20 -8.809
6 FC5 21 -8.321
6 FC5 22 -7.833
6 FC5 23 -8.321
6 FC5 24 -9.298
6 FC5 25 -9.786
6 FC5 26 -10.763
6 FC5 27 -11.251
6 FC5 28 -11.251
6 FC5 29 -10.763
6 FC5 30 -10.763
6 FC5 31 -10.274
6 FC5 32 -10.274
6 FC5 33 -10.274
6 FC5 34 -10.763
6 FC5 35 -10.274
6 FC5 36 -10.274
6 FC5 37 -9.298
6 FC5 38 -8.321
6 FC5 39 -7.833
6 FC5 40 -7.345
6 FC5 41 -7.833
6 FC5 42 -8.809
6 FC5 43 -9.786
6 FC5 44 -10.274
6 FC5 45 -10.274
6 FC5 46 -9.786
6 FC5 47 -8.809
6 FC5 48 -8.321
6 FC5 49 -8.321
6 FC5 50 -8.321
6 FC5 51 -7.345
6 FC5 52 -6.368
6 FC5 53 -5.391
6 FC5 54 -5.391
6 FC5 55 -6.856
6 FC5 56 -8.809
6 FC5 57 -9.298
6 FC5 58 -8.321
6 FC5 59 -6.368
6 FC5 60 -4.415
6 FC5 61 -3.927
6 FC5 62 -4.903
6 FC5 63 -6.856
6 FC5 64 -7.833
6 FC5 65 -6.856
6 FC5 66 -5.391
6 FC5 67 -2.950
6 FC5 68 -2.462
6 FC5 69 -2.462
6 FC5 70 -3.438
6 FC5 71 -4.415
6 FC5 72 -4.903
6 FC5 73 -4.903
6 FC5 74 -4.415
6 FC5 75 -3.927
6 FC5 76 -4.415
6 FC5 77 -4.903
6 FC5 78 -5.391
6 FC5 79 -5.880
6 FC5 80 -5.880
6 FC5 81 -5.880
6 FC5 82 -6.368
6 FC5 83 -6.856
6 FC5 84 -7.345
6 FC5 85 -6.856
6 FC5 86 -6.368
6 FC5 87 -5.391
6 FC5 88 -4.415
6 FC5 89 -4.415
6 FC5 90 -4.415
6 FC5 91 -4.415
6 FC5 92 -3.927
6 FC5 93 -2.950
6 FC5 94 -1.973
6 FC5 95 -0.509
6 FC5 96 0.468
6 FC5 97 0.468
6 FC5 98 0.468
6 FC5 99 -0.020
6 FC5 100 -0.997
6 FC5 101 -1.485
6 FC5 102 -2.462
6 FC5 103 -2.462
6 FC5 104 -2.462
6 FC5 105 -2.950
6 FC5 106 -2.950
6 FC5 107 -4.415
6 FC5 108 -4.903
6 FC5 109 -5.391
6 FC5 110 -5.391
6 FC5 111 -4.903
6 FC5 112 -4.415
6 FC5 113 -4.903
6 FC5 114 -5.391
6 FC5 115 -5.880
6 FC5 116 -6.368
6 FC5 117 -5.880
6 FC5 118 -5.391
6 FC5 119 -3.927
6 FC5 120 -2.950
6 FC5 121 -2.462
6 FC5 122 -2.462
6 FC5 123 -2.950
6 FC5 124 -3.927
6 FC5 125 -4.903
6 FC5 126 -5.391
6 FC5 127 -4.415
6 FC5 128 -3.438
6 FC5 129 -2.950
6 FC5 130 -2.950
6 FC5 131 -3.927
6 FC5 132 -5.391
6 FC5 133 -6.856
6 FC5 134 -7.345
6 FC5 135 -7.345
6 FC5 136 -6.856
6 FC5 137 -6.856
6 FC5 138 -7.345
6 FC5 139 -7.345
6 FC5 140 -7.345
6 FC5 141 -5.880
6 FC5 142 -4.903
6 FC5 143 -4.415
6 FC5 144 -4.415
6 FC5 145 -4.903
6 FC5 146 -5.880
6 FC5 147 -6.368
6 FC5 148 -6.856
6 FC5 149 -7.345
6 FC5 150 -8.321
6 FC5 151 -8.809
6 FC5 152 -9.786
6 FC5 153 -10.274
6 FC5 154 -10.274
6 FC5 155 -10.274
6 FC5 156 -9.786
6 FC5 157 -8.809
6 FC5 158 -7.833
6 FC5 159 -7.345
6 FC5 160 -7.833
6 FC5 161 -9.298
6 FC5 162 -10.763
6 FC5 163 -11.739
6 FC5 164 -11.739
6 FC5 165 -10.274
6 FC5 166 -9.298
6 FC5 167 -8.321
6 FC5 168 -8.321
6 FC5 169 -8.321
6 FC5 170 -8.809
6 FC5 171 -9.298
6 FC5 172 -9.786
6 FC5 173 -10.274
6 FC5 174 -10.274
6 FC5 175 -9.786
6 FC5 176 -8.321
6 FC5 177 -7.345
6 FC5 178 -6.856
6 FC5 179 -6.856
6 FC5 180 -7.833
6 FC5 181 -8.321
6 FC5 182 -8.809
6 FC5 183 -8.321
6 FC5 184 -7.345
6 FC5 185 -7.345
6 FC5 186 -7.345
6 FC5 187 -7.345
6 FC5 188 -7.345
6 FC5 189 -6.856
6 FC5 190 -6.856
6 FC5 191 -6.856
6 FC5 192 -7.345
6 FC5 193 -7.345
6 FC5 194 -6.856
6 FC5 195 -5.880
6 FC5 196 -5.391
6 FC5 197 -5.391
6 FC5 198 -5.880
6 FC5 199 -5.880
6 FC5 200 -5.880
6 FC5 201 -5.880
6 FC5 202 -5.880
6 FC5 203 -6.368
6 FC5 204 -6.856
6 FC5 205 -7.833
6 FC5 206 -8.321
6 FC5 207 -7.833
6 FC5 208 -7.345
6 FC5 209 -7.833
6 FC5 210 -8.321
6 FC5 211 -9.786
6 FC5 212 -11.739
6 FC5 213 -13.204
6 FC5 214 -13.204
6 FC5 215 -11.739
6 FC5 216 -9.298
6 FC5 217 -6.368
6 FC5 218 -4.415
6 FC5 219 -3.927
6 FC5 220 -4.415
6 FC5 221 -5.391
6 FC5 222 -5.880
6 FC5 223 -5.880
6 FC5 224 -4.415
6 FC5 225 -2.462
6 FC5 226 -0.509
6 FC5 227 0.956
6 FC5 228 1.444
6 FC5 229 1.933
6 FC5 230 1.444
6 FC5 231 0.956
6 FC5 232 -0.020
6 FC5 233 -0.997
6 FC5 234 -0.997
6 FC5 235 -0.509
6 FC5 236 -0.020
6 FC5 237 -0.020
6 FC5 238 -0.020
6 FC5 239 -0.509
6 FC5 240 -0.509
6 FC5 241 -0.020
6 FC5 242 -0.020
6 FC5 243 -0.020
6 FC5 244 -0.020
6 FC5 245 -0.997
6 FC5 246 -0.997
6 FC5 247 -0.997
6 FC5 248 -0.997
6 FC5 249 -0.997
6 FC5 250 -1.485
6 FC5 251 -1.485
6 FC5 252 -1.973
6 FC5 253 -1.973
6 FC5 254 -2.462
6 FC5 255 -2.462
# FC2 chan 11
6 FC2 0 0.966
6 FC2 1 0.966
6 FC2 2 0.478
6 FC2 3 -0.010
6 FC2 4 -0.987
6 FC2 5 -0.987
6 FC2 6 -0.987
6 FC2 7 -0.498
6 FC2 8 -0.010
6 FC2 9 -0.010
6 FC2 10 -0.987
6 FC2 11 -1.963
6 FC2 12 -2.940
6 FC2 13 -4.405
6 FC2 14 -4.893
6 FC2 15 -4.893
6 FC2 16 -4.893
6 FC2 17 -4.405
6 FC2 18 -3.916
6 FC2 19 -3.428
6 FC2 20 -3.428
6 FC2 21 -2.452
6 FC2 22 -2.452
6 FC2 23 -1.963
6 FC2 24 -1.963
6 FC2 25 -2.452
6 FC2 26 -2.940
6 FC2 27 -3.428
6 FC2 28 -3.428
6 FC2 29 -3.428
6 FC2 30 -2.940
6 FC2 31 -2.940
6 FC2 32 -2.452
6 FC2 33 -2.452
6 FC2 34 -1.963
6 FC2 35 -1.963
6 FC2 36 -1.963
6 FC2 37 -1.963
6 FC2 38 -1.963
6 FC2 39 -1.963
6 FC2 40 -1.963
6 FC2 41 -1.963
6 FC2 42 -1.475
6 FC2 43 -0.987
6 FC2 44 -0.498
6 FC2 45 -0.010
6 FC2 46 0.478
6 FC2 47 0.478
6 FC2 48 -0.010
6 FC2 49 -0.498
6 FC2 50 -0.987
6 FC2 51 -1.475
6 FC2 52 -1.963
6 FC2 53 -2.452
6 FC2 54 -2.452
6 FC2 55 -2.452
6 FC2 56 -2.452
6 FC2 57 -2.940
6 FC2 58 -3.428
6 FC2 59 -3.428
6 FC2 60 -3.428
6 FC2 61 -3.428
6 FC2 62 -3.428
6 FC2 63 -4.405
6 FC2 64 -5.381
6 FC2 65 -6.358
6 FC2 66 -7.334
6 FC2 67 -7.823
6 FC2 68 -8.311
6 FC2 69 -8.799
6 FC2 70 -8.311
6 FC2 71 -8.311
6 FC2 72 -7.823
6 FC2 73 -6.846
6 FC2 74 -6.358
6 FC2 75 -5.381
6 FC2 76 -4.405
6 FC2 77 -3.916
6 FC2 78 -3.916
6 FC2 79 -3.916
6 FC2 80 -4.405
6 FC2 81 -4.405
6 FC2 82 -3.916
6 FC2 83 -2.940
6 FC2 84 -1.963
6 FC2 85 -1.475
6 FC2 86 -1.475
6 FC2 87 -2.452
6 FC2 88 -2.940
6 FC2 89 -3.428
6 FC2 90 -3.428
6 FC2 91 -3.428
6 FC2 92 -3.428
6 FC2 93 -3.916
6 FC2 94 -4.893
6 FC2 95 -5.870
6 FC2 96 -6.358
6 FC2 97 -6.846
6 FC2 98 -6.846
6 FC2 99 -6.846
6 FC2 100 -6.358
6 FC2 101 -6.358
6 FC2 102 -5.870
6 FC2 103 -5.381
6 FC2 104 -5.381
6 FC2 105 -4.893
6 FC2 106 -4.893
6 FC2 107 -4.405
6 FC2 108 -4.405
6 FC2 109 -3.916
6 FC2 110 -3.916
6 FC2 111 -2.940
6 FC2 112 -2.940
6 FC2 113 -2.940
6 FC2 114 -3.428
6 FC2 115 -3.916
6 FC2 116 -3.916
6 FC2 117 -3.428
6 FC2 118 -1.963
6 FC2 119 -1.475
6 FC2 120 -0.987
6 FC2 121 -1.475
6 FC2 122 -2.452
6 FC2 123 -3.428
6 FC2 124 -3.916
6 FC2 125 -3.428
6 FC2 126 -2.940
6 FC2 127 -2.452
6 FC2 128 -2.940
6 FC2 129 -3.428
6 FC2 130 -3.428
6 FC2 131 -2.940
6 FC2 132 -2.940
6 FC2 133 -2.940
6 FC2 134 -3.428
6 FC2 135 -3.428
6 FC2 136 -3.916
6 FC2 137 -3.428
6 FC2 138 -2.940
6 FC2 139 -2.940
6 FC2 140 -2.940
6 FC2 141 -2.940
6 FC2 142 -2.452
6 FC2 143 -1.963
6 FC2 144 -1.963
6 FC2 145 -1.963
6 FC2 146 -2.452
6 FC2 147 -2.452
6 FC2 148 -1.963
6 FC2 149 -1.475
6 FC2 150 -0.987
6 FC2 151 -0.987
6 FC2 152 -0.987
6 FC2 153 -1.475
6 FC2 154 -1.963
6 FC2 155 -1.963
6 FC2 156 -2.452
6 FC2 157 -2.452
6 FC2 158 -3.428
6 FC2 159 -3.428
6 FC2 160 -3.428
6 FC2 161 -2.940
6 FC2 162 -2.452
6 FC2 163 -1.963
6 FC2 164 -1.963
6 FC2 165 -1.963
6 FC2 166 -1.963
6 FC2 167 -0.987
6 FC2 168 -0.987
6 FC2 169 -0.498
6 FC2 170 -1.475
6 FC2 171 -1.963
6 FC2 172 -1.963
6 FC2 173 -1.963
6 FC2 174 -1.963
6 FC2 175 -1.475
6 FC2 176 -0.987
6 FC2 177 -0.987
6 FC2 178 -0.498
6 FC2 179 -0.498
6 FC2 180 -0.010
6 FC2 181 0.478
6 FC2 182 0.478
6 FC2 183 0.478
6 FC2 184 0.966
6 FC2 185 0.966
6 FC2 186 0.966
6 FC2 187 0.966
6 FC2 188 0.966
6 FC2 189 0.478
6 FC2 190 0.478
6 FC2 191 0.966
6 FC2 192 1.455
6 FC2 193 1.943
6 FC2 194 1.943
6 FC2 195 2.431
6 FC2 196 2.431
6 FC2 197 2.431
6 FC2 198 2.920
6 FC2 199 2.920
6 FC2 200 2.920
6 FC2 201 2.431
6 FC2 202 1.943
6 FC2 203 1.943
6 FC2 204 1.455
6 FC2 205 1.455
6 FC2 206 0.478
6 FC2 207 -0.010
6 FC2 208 -0.987
6 FC2 209 -0.987
6 FC2 210 -0.987
6 FC2 211 -0.987
6 FC2 212 -0.987
6 FC2 213 -0.498
6 FC2 214 -0.498
6 FC2 215 -0.987
6 FC2 216 -0.987
6 FC2 217 -0.987
6 FC2 218 -0.498
6 FC2 219 -0.010
6 FC2 220 0.966
6 FC2 221 1.943
6 FC2 222 2.431
6 FC2 223 2.431
6 FC2 224 1.943
6 FC2 225 1.455
6 FC2 226 0.966
6 FC2 227 0.478
6 FC2 228 -0.010
6 FC2 229 0.478
6 FC2 230 0.966
6 FC2 231 1.943
6 FC2 232 2.431
6 FC2 233 2.431
6 FC2 234 1.943
6 FC2 235 0.966
6 FC2 236 -0.010
6 FC2 237 -0.498
6 FC2 238 -0.987
6 FC2 239 -0.987
6 FC2 240 -0.498
6 FC2 241 -0.498
6 FC2 242 -0.010
6 FC2 243 0.966
6 FC2 244 0.966
6 FC2 245 0.966
6 FC2 246 0.966
6 FC2 247 0.966
6 FC2 248 0.966
6 FC2 249 0.966
6 FC2 250 1.455
6 FC2 251 1.455
6 FC2 252 0.966
6 FC2 253 0.478
6 FC2 254 0.478
6 FC2 255 0.478
# FC1 chan 12
6 FC1 0 1.139
6 FC1 1 0.651
6 FC1 2 0.163
6 FC1 3 0.163
6 FC1 4 0.163
6 FC1 5 0.651
6 FC1 6 1.139
6 FC1 7 0.651
6 FC1 8 0.163
6 FC1 9 -0.814
6 FC1 10 -1.790
6 FC1 11 -2.279
6 FC1 12 -2.767
6 FC1 13 -3.255
6 FC1 14 -3.743
6 FC1 15 -5.208
6 FC1 16 -6.185
6 FC1 17 -6.673
6 FC1 18 -5.697
6 FC1 19 -4.720
6 FC1 20 -3.255
6 FC1 21 -2.767
6 FC1 22 -2.767
6 FC1 23 -3.255
6 FC1 24 -3.255
6 FC1 25 -3.255
6 FC1 26 -3.255
6 FC1 27 -3.255
6 FC1 28 -2.767
6 FC1 29 -2.279
6 FC1 30 -2.279
6 FC1 31 -1.790
6 FC1 32 -2.279
6 FC1 33 -2.767
6 FC1 34 -3.255
6 FC1 35 -3.255
6 FC1 36 -2.279
6 FC1 37 -1.790
6 FC1 38 -1.790
6 FC1 39 -2.767
6 FC1 40 -3.743
6 FC1 41 -4.720
6 FC1 42 -4.720
6 FC1 43 -4.720
6 FC1 44 -4.232
6 FC1 45 -3.743
6 FC1 46 -3.255
6 FC1 47 -2.767
6 FC1 48 -2.767
6 FC1 49 -2.767
6 FC1 50 -3.255
6 FC1 51 -3.743
6 FC1 52 -3.743
6 FC1 53 -3.255
6 FC1 54 -2.767
6 FC1 55 -2.767
6 FC1 56 -2.767
6 FC1 57 -3.255
6 FC1 58 -3.255
6 FC1 59 -2.767
6 FC1 60 -2.279
6 FC1 61 -1.790
6 FC1 62 -2.767
6 FC1 63 -3.255
6 FC1 64 -4.720
6 FC1 65 -5.208
6 FC1 66 -5.697
6 FC1 67 -5.208
6 FC1 68 -4.720
6 FC1 69 -4.720
6 FC1 70 -3.743
6 FC1 71 -3.255
6 FC1 72 -3.255
6 FC1 73 -3.743
6 FC1 74 -4.720
6 FC1 75 -5.208
6 FC1 76 -5.697
6 FC1 77 -5.208
6 FC1 78 -4.232
6 FC1 79 -3.743
6 FC1 80 -4.232
6 FC1 81 -5.208
6 FC1 82 -6.185
6 FC1 83 -6.673
6 FC1 84 -5.697
6 FC1 85 -4.232
6 FC1 86 -3.743
6 FC1 87 -3.743
6 FC1 88 -4.720
6 FC1 89 -6.185
6 FC1 90 -6.673
6 FC1 91 -6.185
6 FC1 92 -5.208
6 FC1 93 -4.720
6 FC1 94 -4.232
6 FC1 95 -4.720
6 FC1 96 -5.697
6 FC1 97 -6.673
6 FC1 98 -7.161
6 FC1 99 -7.650
6 FC1 100 -8.138
6 FC1 101 -8.626
6 FC1 102 -9.115
6 FC1 103 -9.115
6 FC1 104 -9.115
6 FC1 105 -9.115
6 FC1 106 -9.115
6 FC1 107 -9.603
6 FC1 108 -9.115
6 FC1 109 -9.115
6 FC1 110 -8.626
6 FC1 111 -7.650
6 FC1 112 -7.161
6 FC1 113 -6.673
6 FC1 114 -6.673
6 FC1 115 -7.161
6 FC1 116 -6.673
6 FC1 117 -6.673
6 FC1 118 -6.185
6 FC1 119 -5.208
6 FC1 120 -4.720
6 FC1 121 -3.743
6 FC1 122 -3.743
6 FC1 123 -4.232
6 FC1 124 -5.697
6 FC1 125 -6.673
6 FC1 126 -7.650
6 FC1 127 -7.650
6 FC1 128 -7.161
6 FC1 129 -7.161
6 FC1 130 -7.161
6 FC1 131 -7.650
6 FC1 132 -7.650
6 FC1 133 -7.650
6 FC1 134 -7.161
6 FC1 135 -7.161
6 FC1 136 -7.650
6 FC1 137 -8.138
6 FC1 138 -8.626
6 FC1 139 -8.626
6 FC1 140 -8.138
6 FC1 141 -7.161
6 FC1 142 -6.185
6 FC1 143 -6.185
6 FC1 144 -6.185
6 FC1 145 -6.673
6 FC1 146 -6.185
6 FC1 147 -5.208
6 FC1 148 -4.720
6 FC1 149 -5.208
6 FC1 150 -6.185
6 FC1 151 -7.650
6 FC1 152 -8.626
6 FC1 153 -9.115
6 FC1 154 -9.115
6 FC1 155 -9.115
6 FC1 156 -8.626
6 FC1 157 -8.138
6 FC1 158 -8.138
6 FC1 159 -8.138
6 FC1 160 -8.138
6 FC1 161 -9.115
6 FC1 162 -9.603
6 FC1 163 -10.091
6 FC1 164 -9.115
6 FC1 165 -8.626
6 FC1 166 -7.650
6 FC1 167 -7.650
6 FC1 168 -7.650
6 FC1 169 -8.138
6 FC1 170 -8.138
6 FC1 171 -8.138
6 FC1 172 -8.138
6 FC1 173 -7.650
6 FC1 174 -7.161
6 FC1 175 -6.673
6 FC1 176 -6.185
6 FC1 177 -5.208
6 FC1 178 -4.232
6 FC1 179 -4.720
6 FC1 180 -4.232
6 FC1 181 -4.232
6 FC1 182 -3.743
6 FC1 183 -3.255
6 FC1 184 -3.255
6 FC1 185 -4.232
6 FC1 186 -5.208
6 FC1 187 -5.697
6 FC1 188 -5.208
6 FC1 189 -4.720
6 FC1 190 -5.208
6 FC1 191 -5.208
6 FC1 192 -5.208
6 FC1 193 -5.208
6 FC1 194 -4.232
6 FC1 195 -3.743
6 FC1 196 -3.255
6 FC1 197 -2.767
6 FC1 198 -2.767
6 FC1 199 -3.255
6 FC1 200 -3.743
6 FC1 201 -4.232
6 FC1 202 -4.720
6 FC1 203 -5.697
6 FC1 204 -6.185
6 FC1 205 -6.673
6 FC1 206 -6.673
6 FC1 207 -6.185
6 FC1 208 -6.185
6 FC1 209 -6.185
6 FC1 210 -6.673
6 FC1 211 -7.161
6 FC1 212 -7.650
6 FC1 213 -7.650
6 FC1 214 -6.673
6 FC1 215 -5.697
6 FC1 216 -5.208
6 FC1 217 -5.208
6 FC1 218 -5.697
6 FC1 219 -5.208
6 FC1 220 -4.720
6 FC1 221 -3.255
6 FC1 222 -2.279
6 FC1 223 -1.790
6 FC1 224 -1.302
6 FC1 225 -0.326
6 FC1 226 0.163
6 FC1 227 0.163
6 FC1 228 -0.326
6 FC1 229 -0.326
6 FC1 230 -0.326
6 FC1 231 0.163
6 FC1 232 0.651
6 FC1 233 0.163
6 FC1 234 -0.814
6 FC1 235 -1.302
6 FC1 236 -1.790
6 FC1 237 -1.790
6 FC1 238 -1.302
6 FC1 239 -1.302
6 FC1 240 -1.790
6 FC1 241 -2.279
6 FC1 242 -2.767
6 FC1 243 -2.767
6 FC1 244 -2.767
6 FC1 245 -3.255
6 FC1 246 -3.255
6 FC1 247 -3.255
6 FC1 248 -2.767
6 FC1 249 -2.279
6 FC1 250 -2.279
6 FC1 251 -2.279
6 FC1 252 -2.767
6 FC1 253 -3.743
6 FC1 254 -4.232
6 FC1 255 -4.720
# T8 chan 13
6 T8 0 1.556
6 T8 1 1.556
6 T8 2 1.556
6 T8 3 0.580
6 T8 4 -0.397
6 T8 5 -1.373
6 T8 6 -1.373
6 T8 7 -1.373
6 T8 8 -0.885
6 T8 9 -1.373
6 T8 10 -1.862
6 T8 11 -2.350
6 T8 12 -1.373
6 T8 13 -0.397
6 T8 14 0.580
6 T8 15 1.068
6 T8 16 1.068
6 T8 17 -0.397
6 T8 18 -3.326
6 T8 19 -6.256
6 T8 20 -8.209
6 T8 21 -8.209
6 T8 22 -6.744
6 T8 23 -5.280
6 T8 24 -5.768
6 T8 25 -7.233
6 T8 26 -9.674
6 T8 27 -10.651
6 T8 28 -10.162
6 T8 29 -8.209
6 T8 30 -6.744
6 T8 31 -5.768
6 T8 32 -5.768
6 T8 33 -6.744
6 T8 34 -6.256
6 T8 35 -5.280
6 T8 36 -4.303
6 T8 37 -3.326
6 T8 38 -2.838
6 T8 39 -2.838
6 T8 40 -1.862
6 T8 41 -0.885
6 T8 42 0.092
6 T8 43 1.556
6 T8 44 2.533
6 T8 45 3.021
6 T8 46 3.021
6 T8 47 2.533
6 T8 48 2.533
6 T8 49 2.533
6 T8 50 2.533
6 T8 51 1.556
6 T8 52 -0.397
6 T8 53 -1.862
6 T8 54 -1.862
6 T8 55 -0.885
6 T8 56 1.068
6 T8 57 1.556
6 T8 58 0.092
6 T8 59 -2.350
6 T8 60 -3.815
6 T8 61 -2.838
6 T8 62 -0.397
6 T8 63 2.045
6 T8 64 2.045
6 T8 65 -0.397
6 T8 66 -3.815
6 T8 67 -6.256
6 T8 68 -6.744
6 T8 69 -6.256
6 T8 70 -4.791
6 T8 71 -3.815
6 T8 72 -2.350
6 T8 73 0.092
6 T8 74 3.021
6 T8 75 4.974
6 T8 76 4.486
6 T8 77 1.068
6 T8 78 -2.838
6 T8 79 -5.768
6 T8 80 -6.256
6 T8 81 -5.280
6 T8 82 -4.303
6 T8 83 -4.791
6 T8 84 -5.768
6 T8 85 -6.744
6 T8 86 -6.256
6 T8 87 -4.791
6 T8 88 -3.815
6 T8 89 -3.326
6 T8 90 -4.303
6 T8 91 -4.303
6 T8 92 -2.838
6 T8 93 0.092
6 T8 94 3.021
6 T8 95 3.021
6 T8 96 1.068
6 T8 97 -1.862
6 T8 98 -3.815
6 T8 99 -2.838
6 T8 100 -0.397
6 T8 101 2.045
6 T8 102 3.021
6 T8 103 2.045
6 T8 104 0.580
6 T8 105 0.092
6 T8 106 0.092
6 T8 107 0.580
6 T8 108 0.580
6 T8 109 -0.397
6 T8 110 -0.885
6 T8 111 -0.397
6 T8 112 0.092
6 T8 113 0.580
6 T8 114 1.068
6 T8 115 0.580
6 T8 116 0.092
6 T8 117 -0.885
6 T8 118 -2.350
6 T8 119 -3.815
6 T8 120 -5.768
6 T8 121 -7.721
6 T8 122 -9.186
6 T8 123 -8.698
6 T8 124 -7.233
6 T8 125 -5.768
6 T8 126 -3.815
6 T8 127 -3.326
6 T8 128 -4.303
6 T8 129 -6.744
6 T8 130 -10.162
6 T8 131 -13.092
6 T8 132 -13.580
6 T8 133 -11.139
6 T8 134 -7.233
6 T8 135 -2.350
6 T8 136 0.092
6 T8 137 1.068
6 T8 138 0.580
6 T8 139 0.092
6 T8 140 0.580
6 T8 141 1.068
6 T8 142 1.068
6 T8 143 0.092
6 T8 144 -1.373
6 T8 145 -2.350
6 T8 146 -2.350
6 T8 147 -1.862
6 T8 148 -0.397
6 T8 149 0.092
6 T8 150 0.580
6 T8 151 0.092
6 T8 152 -0.885
6 T8 153 -1.373
6 T8 154 -1.862
6 T8 155 -2.350
6 T8 156 -3.326
6 T8 157 -3.815
6 T8 158 -4.791
6 T8 159 -4.791
6 T8 160 -4.791
6 T8 161 -4.303
6 T8 162 -3.326
6 T8 163 -2.350
6 T8 164 -0.397
6 T8 165 1.556
6 T8 166 2.045
6 T8 167 1.068
6 T8 168 -1.373
6 T8 169 -4.791
6 T8 170 -7.233
6 T8 171 -6.256
6 T8 172 -3.815
6 T8 173 -1.862
6 T8 174 -2.838
6 T8 175 -5.280
6 T8 176 -8.698
6 T8 177 -10.651
6 T8 178 -10.162
6 T8 179 -9.186
6 T8 180 -8.698
6 T8 181 -9.186
6 T8 182 -9.674
6 T8 183 -9.186
6 T8 184 -8.209
6 T8 185 -6.744
6 T8 186 -6.256
6 T8 187 -7.233
6 T8 188 -7.721
6 T8 189 -8.209
6 T8 190 -7.233
6 T8 191 -5.768
6 T8 192 -3.815
6 T8 193 -1.862
6 T8 194 0.092
6 T8 195 2.045
6 T8 196 3.510
6 T8 197 4.486
6 T8 198 3.998
6 T8 199 2.045
6 T8 200 0.092
6 T8 201 -0.397
6 T8 202 1.556
6 T8 203 3.510
6 T8 204 4.486
6 T8 205 3.510
6 T8 206 0.580
6 T8 207 -1.373
6 T8 208 -1.862
6 T8 209 -0.885
6 T8 210 0.092
6 T8 211 0.092
6 T8 212 -1.373
6 T8 213 -2.350
6 T8 214 -2.350
6 T8 215 -1.373
6 T8 216 -0.885
6 T8 217 -0.397
6 T8 218 -1.373
6 T8 219 -2.350
6 T8 220 -2.350
6 T8 221 -1.373
6 T8 222 -1.862
6 T8 223 -3.326
6 T8 224 -6.256
6 T8 225 -8.209
6 T8 226 -8.698
6 T8 227 -8.209
6 T8 228 -6.256
6 T8 229 -4.303
6 T8 230 -3.326
6 T8 231 -3.326
6 T8 232 -4.303
6 T8 233 -6.256
6 T8 234 -7.721
6 T8 235 -8.698
6 T8 236 -7.233
6 T8 237 -5.280
6 T8 238 -3.815
6 T8 239 -3.326
6 T8 240 -3.815
6 T8 241 -4.303
6 T8 242 -2.838
6 T8 243 -0.397
6 T8 244 2.045
6 T8 245 3.021
6 T8 246 2.045
6 T8 247 0.092
6 T8 248 -0.885
6 T8 249 -0.885
6 T8 250 0.580
6 T8 251 1.556
6 T8 252 2.045
6 T8 253 1.556
6 T8 254 1.556
6 T8 255 2.045
# T7 chan 14
6 T7 0 -4.883
6 T7 1 -4.395
6 T7 2 -3.906
6 T7 3 -3.906
6 T7 4 -3.418
6 T7 5 -2.441
6 T7 6 -1.953
6 T7 7 -1.465
6 T7 8 -1.953
6 T7 9 -2.930
6 T7 10 -4.883
6 T7 11 -5.859
6 T7 12 -5.859
6 T7 13 -5.859
6 T7 14 -5.371
6 T7 15 -5.371
6 T7 16 -5.859
6 T7 17 -6.348
6 T7 18 -6.836
6 T7 19 -6.836
6 T7 20 -7.812
6 T7 21 -9.277
6 T7 22 -10.254
6 T7 23 -11.719
6 T7 24 -11.719
6 T7 25 -11.230
6 T7 26 -11.719
6 T7 27 -11.719
6 T7 28 -12.695
6 T7 29 -12.695
6 T7 30 -12.207
6 T7 31 -11.230
6 T7 32 -10.742
6 T7 33 -10.742
6 T7 34 -10.742
6 T7 35 -10.254
6 T7 36 -9.766
6 T7 37 -8.301
6 T7 38 -6.836
6 T7 39 -5.371
6 T7 40 -4.395
6 T7 41 -4.395
6 T7 42 -5.371
6 T7 43 -7.324
6 T7 44 -9.277
6 T7 45 -10.254
6 T7 46 -8.789
6 T7 47 -6.836
6 T7 48 -4.883
6 T7 49 -4.395
6 T7 50 -4.395
6 T7 51 -4.395
6 T7 52 -3.418
6 T7 53 -1.953
6 T7 54 -1.465
6 T7 55 -1.953
6 T7 56 -3.906
6 T7 57 -5.371
6 T7 58 -4.395
6 T7 59 -2.441
6 T7 60 -0.488
6 T7 61 0.000
6 T7 62 -2.441
6 T7 63 -4.883
6 T7 64 -5.371
6 T7 65 -2.930
6 T7 66 1.465
6 T7 67 5.371
6 T7 68 6.836
6 T7 69 5.371
6 T7 70 2.930
6 T7 71 1.465
6 T7 72 0.977
6 T7 73 1.465
6 T7 74 1.953
6 T7 75 1.465
6 T7 76 -0.488
6 T7 77 -1.953
6 T7 78 -1.953
6 T7 79 -1.953
6 T7 80 -1.465
6 T7 81 -1.465
6 T7 82 -2.930
6 T7 83 -4.883
6 T7 84 -6.348
6 T7 85 -6.836
6 T7 86 -6.348
6 T7 87 -4.883
6 T7 88 -3.906
6 T7 89 -3.418
6 T7 90 -3.906
6 T7 91 -4.395
6 T7 92 -3.906
6 T7 93 -1.953
6 T7 94 0.977
6 T7 95 3.906
6 T7 96 6.348
6 T7 97 7.812
6 T7 98 7.324
6 T7 99 6.348
6 T7 100 5.371
6 T7 101 4.395
6 T7 102 3.906
6 T7 103 4.395
6 T7 104 4.395
6 T7 105 4.395
6 T7 106 3.418
6 T7 107 2.441
6 T7 108 1.465
6 T7 109 1.465
6 T7 110 1.953
6 T7 111 2.441
6 T7 112 2.441
6 T7 113 1.465
6 T7 114 0.488
6 T7 115 -0.977
6 T7 116 -1.465
6 T7 117 -1.465
6 T7 118 -0.488
6 T7 119 0.488
6 T7 120 0.977
6 T7 121 1.465
6 T7 122 1.953
6 T7 123 1.953
6 T7 124 1.953
6 T7 125 1.953
6 T7 126 1.953
6 T7 127 2.441
6 T7 128 2.930
6 T7 129 3.418
6 T7 130 2.930
6 T7 131 1.953
6 T7 132 0.000
6 T7 133 -0.977
6 T7 134 -0.488
6 T7 135 0.488
6 T7 136 1.465
6 T7 137 1.465
6 T7 138 0.000
6 T7 139 -0.977
6 T7 140 -0.977
6 T7 141 0.977
6 T7 142 3.418
6 T7 143 4.395
6 T7 144 3.418
6 T7 145 0.977
6 T7 146 -0.977
6 T7 147 -1.465
6 T7 148 -1.465
6 T7 149 -1.953
6 T7 150 -2.441
6 T7 151 -3.418
6 T7 152 -3.906
6 T7 153 -3.418
6 T7 154 -3.418
6 T7 155 -3.418
6 T7 156 -3.418
6 T7 157 -2.441
6 T7 158 -0.488
6 T7 159 0.977
6 T7 160 0.488
6 T7 161 -1.953
6 T7 162 -5.859
6 T7 163 -8.301
6 T7 164 -8.789
6 T7 165 -6.836
6 T7 166 -4.883
6 T7 167 -3.906
6 T7 168 -3.906
6 T7 169 -4.883
6 T7 170 -5.859
6 T7 171 -5.859
6 T7 172 -6.348
6 T7 173 -7.324
6 T7 174 -8.789
6 T7 175 -8.789
6 T7 176 -7.812
6 T7 177 -5.859
6 T7 178 -4.395
6 T7 179 -5.371
6 T7 180 -7.812
6 T7 181 -9.766
6 T7 182 -10.742
6 T7 183 -9.766
6 T7 184 -8.789
6 T7 185 -8.301
6 T7 186 -8.301
6 T7 187 -8.301
6 T7 188 -7.812
6 T7 189 -6.348
6 T7 190 -5.859
6 T7 191 -6.348
6 T7 192 -7.324
6 T7 193 -7.812
6 T7 194 -6.836
6 T7 195 -5.371
6 T7 196 -3.906
6 T7 197 -3.906
6 T7 198 -4.395
6 T7 199 -4.883
6 T7 200 -4.883
6 T7 201 -3.906
6 T7 202 -3.418
6 T7 203 -3.418
6 T7 204 -3.906
6 T7 205 -4.395
6 T7 206 -3.418
6 T7 207 -1.953
6 T7 208 -0.977
6 T7 209 -0.977
6 T7 210 -1.953
6 T7 211 -3.906
6 T7 212 -5.859
6 T7 213 -7.324
6 T7 214 -7.324
6 T7 215 -6.836
6 T7 216 -4.883
6 T7 217 -2.930
6 T7 218 -1.465
6 T7 219 -0.977
6 T7 220 -1.465
6 T7 221 -2.930
6 T7 222 -4.883
6 T7 223 -5.371
6 T7 224 -4.395
6 T7 225 -1.953
6 T7 226 0.488
6 T7 227 1.953
6 T7 228 2.441
6 T7 229 2.441
6 T7 230 0.977
6 T7 231 -0.488
6 T7 232 -1.465
6 T7 233 -2.441
6 T7 234 -1.465
6 T7 235 0.000
6 T7 236 2.441
6 T7 237 3.906
6 T7 238 3.906
6 T7 239 2.930
6 T7 240 1.953
6 T7 241 1.953
6 T7 242 2.930
6 T7 243 4.395
6 T7 244 5.371
6 T7 245 5.371
6 T7 246 4.395
6 T7 247 2.930
6 T7 248 0.977
6 T7 249 -0.977
6 T7 250 -1.953
6 T7 251 -1.465
6 T7 252 0.977
6 T7 253 2.930
6 T7 254 3.906
6 T7 255 2.930
# CZ chan 15
6 CZ 0 4.079
6 CZ 1 5.544
6 CZ 2 6.032
6 CZ 3 5.544
6 CZ 4 3.591
6 CZ 5 1.638
6 CZ 6 0.661
6 CZ 7 1.638
6 CZ 8 3.103
6 CZ 9 5.056
6 CZ 10 5.544
6 CZ 11 6.032
6 CZ 12 6.032
6 CZ 13 5.544
6 CZ 14 4.567
6 CZ 15 2.614
6 CZ 16 1.149
6 CZ 17 0.661
6 CZ 18 0.661
6 CZ 19 1.638
6 CZ 20 1.638
6 CZ 21 0.173
6 CZ 22 -2.757
6 CZ 23 -5.686
6 CZ 24 -8.128
6 CZ 25 -10.569
6 CZ 26 -12.034
6 CZ 27 -13.499
6 CZ 28 -15.452
6 CZ 29 -15.940
6 CZ 30 -15.452
6 CZ 31 -14.476
6 CZ 32 -13.499
6 CZ 33 -13.987
6 CZ 34 -13.987
6 CZ 35 -13.987
6 CZ 36 -13.011
6 CZ 37 -11.546
6 CZ 38 -11.058
6 CZ 39 -11.546
6 CZ 40 -12.034
6 CZ 41 -12.522
6 CZ 42 -11.546
6 CZ 43 -10.569
6 CZ 44 -10.081
6 CZ 45 -10.569
6 CZ 46 -12.522
6 CZ 47 -14.964
6 CZ 48 -17.405
6 CZ 49 -16.429
6 CZ 50 -10.569
6 CZ 51 0.173
6 CZ 52 11.403
6 CZ 53 18.239
6 CZ 54 15.798
6 CZ 55 6.032
6 CZ 56 -4.710
6 CZ 57 -10.569
6 CZ 58 -7.640
6 CZ 59 0.173
6 CZ 60 7.009
6 CZ 61 8.474
6 CZ 62 5.544
6 CZ 63 2.614
6 CZ 64 2.614
6 CZ 65 5.056
6 CZ 66 7.497
6 CZ 67 7.009
6 CZ 68 3.591
6 CZ 69 -1.292
6 CZ 70 -4.222
6 CZ 71 -4.222
6 CZ 72 -2.268
6 CZ 73 0.173
6 CZ 74 3.591
6 CZ 75 6.521
6 CZ 76 8.962
6 CZ 77 10.427
6 CZ 78 10.915
6 CZ 79 9.450
6 CZ 80 7.497
6 CZ 81 5.544
6 CZ 82 4.567
6 CZ 83 3.591
6 CZ 84 3.591
6 CZ 85 3.103
6 CZ 86 2.614
6 CZ 87 2.614
6 CZ 88 3.103
6 CZ 89 4.567
6 CZ 90 7.009
6 CZ 91 9.939
6 CZ 92 12.868
6 CZ 93 14.821
6 CZ 94 15.798
6 CZ 95 15.798
6 CZ 96 16.286
6 CZ 97 16.286
6 CZ 98 15.798
6 CZ 99 14.821
6 CZ 100 12.380
6 CZ 101 10.427
6 CZ 102 9.939
6 CZ 103 10.915
6 CZ 104 11.403
6 CZ 105 10.915
6 CZ 106 8.474
6 CZ 107 5.544
6 CZ 108 4.079
6 CZ 109 4.567
6 CZ 110 6.032
6 CZ 111 6.521
6 CZ 112 5.544
6 CZ 113 4.079
6 CZ 114 4.079
6 CZ 115 6.032
6 CZ 116 8.474
6 CZ 117 9.450
6 CZ 118 7.497
6 CZ 119 4.079
6 CZ 120 1.638
6 CZ 121 2.126
6 CZ 122 5.056
6 CZ 123 8.474
6 CZ 124 11.892
6 CZ 125 13.357
6 CZ 126 13.845
6 CZ 127 13.357
6 CZ 128 12.868
6 CZ 129 11.892
6 CZ 130 9.939
6 CZ 131 7.497
6 CZ 132 5.056
6 CZ 133 4.079
6 CZ 134 5.056
6 CZ 135 7.497
6 CZ 136 10.427
6 CZ 137 12.868
6 CZ 138 13.845
6 CZ 139 15.310
6 CZ 140 17.263
6 CZ 141 19.704
6 CZ 142 21.657
6 CZ 143 21.657
6 CZ 144 20.192
6 CZ 145 17.263
6 CZ 146 14.333
6 CZ 147 13.845
6 CZ 148 13.845
6 CZ 149 13.357
6 CZ 150 12.868
6 CZ 151 11.403
6 CZ 152 9.939
6 CZ 153 9.450
6 CZ 154 10.427
6 CZ 155 12.380
6 CZ 156 13.845
6 CZ 157 14.821
6 CZ 158 14.333
6 CZ 159 13.845
6 CZ 160 12.868
6 CZ 161 10.915
6 CZ 162 8.474
6 CZ 163 7.009
6 CZ 164 6.521
6 CZ 165 7.985
6 CZ 166 9.450
6 CZ 167 10.427
6 CZ 168 9.939
6 CZ 169 7.985
6 CZ 170 6.032
6 CZ 171 4.567
6 CZ 172 4.567
6 CZ 173 4.567
6 CZ 174 4.567
6 CZ 175 4.079
6 CZ 176 3.103
6 CZ 177 2.614
6 CZ 178 2.614
6 CZ 179 2.614
6 CZ 180 2.614
6 CZ 181 2.126
6 CZ 182 1.149
6 CZ 183 -0.315
6 CZ 184 -1.292
6 CZ 185 -1.780
6 CZ 186 -1.292
6 CZ 187 -0.315
6 CZ 188 0.661
6 CZ 189 1.149
6 CZ 190 0.173
6 CZ 191 -1.292
6 CZ 192 -1.292
6 CZ 193 0.661
6 CZ 194 3.591
6 CZ 195 5.544
6 CZ 196 6.521
6 CZ 197 6.032
6 CZ 198 6.032
6 CZ 199 7.497
6 CZ 200 9.450
6 CZ 201 10.915
6 CZ 202 10.915
6 CZ 203 7.985
6 CZ 204 4.567
6 CZ 205 3.103
6 CZ 206 4.079
6 CZ 207 6.032
6 CZ 208 7.985
6 CZ 209 7.985
6 CZ 210 6.032
6 CZ 211 5.056
6 CZ 212 4.567
6 CZ 213 5.056
6 CZ 214 6.032
6 CZ 215 6.032
6 CZ 216 6.032
6 CZ 217 6.032
6 CZ 218 7.497
6 CZ 219 9.450
6 CZ 220 10.915
6 CZ 221 10.427
6 CZ 222 8.474
6 CZ 223 6.521
6 CZ 224 5.056
6 CZ 225 5.544
6 CZ 226 6.521
6 CZ 227 7.985
6 CZ 228 8.474
6 CZ 229 7.497
6 CZ 230 7.009
6 CZ 231 7.009
6 CZ 232 8.962
6 CZ 233 10.915
6 CZ 234 10.915
6 CZ 235 9.450
6 CZ 236 7.009
6 CZ 237 5.544
6 CZ 238 5.544
6 CZ 239 8.474
6 CZ 240 12.380
6 CZ 241 16.286
6 CZ 242 18.239
6 CZ 243 17.751
6 CZ 244 15.798
6 CZ 245 13.357
6 CZ 246 12.380
6 CZ 247 13.357
6 CZ 248 15.310
6 CZ 249 16.774
6 CZ 250 17.263
6 CZ 251 16.286
6 CZ 252 14.821
6 CZ 253 13.845
6 CZ 254 12.380
6 CZ 255 12.380
# C3 chan 16
6 C3 0 -2.045
6 C3 1 -1.068
6 C3 2 -1.068
6 C3 3 -1.068
6 C3 4 -1.068
6 C3 5 -1.068
6 C3 6 -1.556
6 C3 7 -2.533
6 C3 8 -3.021
6 C3 9 -2.533
6 C3 10 -2.045
6 C3 11 -2.533
6 C3 12 -3.021
6 C3 13 -3.510
6 C3 14 -4.486
6 C3 15 -5.463
6 C3 16 -5.951
6 C3 17 -5.463
6 C3 18 -5.951
6 C3 19 -5.951
6 C3 20 -5.951
6 C3 21 -4.974
6 C3 22 -4.974
6 C3 23 -6.439
6 C3 24 -7.904
6 C3 25 -7.904
6 C3 26 -5.951
6 C3 27 -5.463
6 C3 28 -6.439
6 C3 29 -5.951
6 C3 30 -4.486
6 C3 31 -3.510
6 C3 32 -4.486
6 C3 33 -4.974
6 C3 34 -3.510
6 C3 35 -2.533
6 C3 36 -3.021
6 C3 37 -3.021
6 C3 38 -2.045
6 C3 39 -2.045
6 C3 40 -3.998
6 C3 41 -5.463
6 C3 42 -5.463
6 C3 43 -4.974
6 C3 44 -4.974
6 C3 45 -5.463
6 C3 46 -5.463
6 C3 47 -4.486
6 C3 48 -4.486
6 C3 49 -4.486
6 C3 50 -3.998
6 C3 51 -3.510
6 C3 52 -3.510
6 C3 53 -3.998
6 C3 54 -4.974
6 C3 55 -4.974
6 C3 56 -3.510
6 C3 57 -1.556
6 C3 58 -1.068
6 C3 59 -2.045
6 C3 60 -2.533
6 C3 61 -2.533
6 C3 62 -2.045
6 C3 63 -1.068
6 C3 64 -0.580
6 C3 65 1.373
6 C3 66 2.838
6 C3 67 2.838
6 C3 68 3.326
6 C3 69 3.326
6 C3 70 2.350
6 C3 71 0.885
6 C3 72 0.885
6 C3 73 0.397
6 C3 74 -1.068
6 C3 75 -2.533
6 C3 76 -3.021
6 C3 77 -2.533
6 C3 78 -2.533
6 C3 79 -3.998
6 C3 80 -4.486
6 C3 81 -4.486
6 C3 82 -4.974
6 C3 83 -5.463
6 C3 84 -4.974
6 C3 85 -3.998
6 C3 86 -3.021
6 C3 87 -3.021
6 C3 88 -3.510
6 C3 89 -3.510
6 C3 90 -3.021
6 C3 91 -1.556
6 C3 92 -0.580
6 C3 93 -0.092
6 C3 94 0.885
6 C3 95 1.862
6 C3 96 1.862
6 C3 97 0.885
6 C3 98 -0.092
6 C3 99 0.397
6 C3 100 -0.580
6 C3 101 -1.556
6 C3 102 -1.556
6 C3 103 -1.068
6 C3 104 -1.068
6 C3 105 -2.533
6 C3 106 -3.510
6 C3 107 -3.021
6 C3 108 -3.021
6 C3 109 -3.510
6 C3 110 -3.998
6 C3 111 -3.510
6 C3 112 -2.533
6 C3 113 -3.510
6 C3 114 -4.486
6 C3 115 -4.486
6 C3 116 -3.510
6 C3 117 -3.021
6 C3 118 -2.533
6 C3 119 -1.068
6 C3 120 0.397
6 C3 121 -0.092
6 C3 122 -2.045
6 C3 123 -2.045
6 C3 124 -1.068
6 C3 125 -0.092
6 C3 126 -0.580
6 C3 127 -0.580
6 C3 128 -0.092
6 C3 129 -0.580
6 C3 130 -1.556
6 C3 131 -2.045
6 C3 132 -1.556
6 C3 133 -1.068
6 C3 134 -1.068
6 C3 135 -1.556
6 C3 136 -2.045
6 C3 137 -2.045
6 C3 138 -1.556
6 C3 139 -1.068
6 C3 140 -1.556
6 C3 141 -1.556
6 C3 142 -1.068
6 C3 143 0.397
6 C3 144 0.885
6 C3 145 0.397
6 C3 146 -1.068
6 C3 147 -2.045
6 C3 148 -2.533
6 C3 149 -2.045
6 C3 150 -2.045
6 C3 151 -3.021
6 C3 152 -4.974
6 C3 153 -4.974
6 C3 154 -3.021
6 C3 155 -1.068
6 C3 156 -1.068
6 C3 157 -1.068
6 C3 158 -1.068
6 C3 159 -1.068
6 C3 160 -2.045
6 C3 161 -3.021
6 C3 162 -2.533
6 C3 163 -1.068
6 C3 164 -0.580
6 C3 165 -1.068
6 C3 166 -1.068
6 C3 167 -0.580
6 C3 168 -0.580
6 C3 169 -1.068
6 C3 170 -1.556
6 C3 171 -1.556
6 C3 172 -1.556
6 C3 173 -1.068
6 C3 174 -0.580
6 C3 175 0.885
6 C3 176 0.885
6 C3 177 -0.092
6 C3 178 -1.068
6 C3 179 -1.556
6 C3 180 -1.068
6 C3 181 -2.045
6 C3 182 -3.510
6 C3 183 -3.510
6 C3 184 -2.533
6 C3 185 -2.533
6 C3 186 -2.533
6 C3 187 -1.556
6 C3 188 -0.580
6 C3 189 -1.556
6 C3 190 -3.021
6 C3 191 -3.510
6 C3 192 -2.045
6 C3 193 -0.580
6 C3 194 -1.556
6 C3 195 -2.533
6 C3 196 -2.045
6 C3 197 -1.068
6 C3 198 -1.068
6 C3 199 -1.556
6 C3 200 -1.556
6 C3 201 -1.556
6 C3 202 -1.556
6 C3 203 -2.045
6 C3 204 -2.045
6 C3 205 -2.045
6 C3 206 -1.556
6 C3 207 -1.556
6 C3 208 -1.068
6 C3 209 -2.533
6 C3 210 -3.998
6 C3 211 -5.463
6 C3 212 -5.463
6 C3 213 -4.486
6 C3 214 -3.021
6 C3 215 -1.068
6 C3 216 -0.092
6 C3 217 -0.580
6 C3 218 -1.068
6 C3 219 -2.045
6 C3 220 -2.045
6 C3 221 -2.533
6 C3 222 -2.045
6 C3 223 -0.580
6 C3 224 0.885
6 C3 225 1.862
6 C3 226 2.838
6 C3 227 3.326
6 C3 228 2.350
6 C3 229 0.885
6 C3 230 0.397
6 C3 231 1.373
6 C3 232 2.838
6 C3 233 1.862
6 C3 234 1.373
6 C3 235 1.862
6 C3 236 2.350
6 C3 237 1.373
6 C3 238 0.397
6 C3 239 0.397
6 C3 240 0.885
6 C3 241 0.885
6 C3 242 -0.092
6 C3 243 0.397
6 C3 244 0.885
6 C3 245 0.397
6 C3 246 -1.068
6 C3 247 -1.068
6 C3 248 -0.580
6 C3 249 -0.092
6 C3 250 -1.556
6 C3 251 -2.045
6 C3 252 -1.556
6 C3 253 -0.580
6 C3 254 -0.580
6 C3 255 -0.092
# C4 chan 17
6 C4 0 -1.424
6 C4 1 -0.936
6 C4 2 -0.936
6 C4 3 -1.912
6 C4 4 -2.889
6 C4 5 -2.401
6 C4 6 -1.912
6 C4 7 -2.889
6 C4 8 -2.889
6 C4 9 -2.889
6 C4 10 -2.401
6 C4 11 -3.377
6 C4 12 -3.377
6 C4 13 -2.401
6 C4 14 -1.424
6 C4 15 -2.401
6 C4 16 -2.889
6 C4 17 -2.401
6 C4 18 -1.912
6 C4 19 -2.401
6 C4 20 -2.401
6 C4 21 -1.912
6 C4 22 -0.936
6 C4 23 -1.912
6 C4 24 -2.889
6 C4 25 -2.889
6 C4 26 -1.912
6 C4 27 -1.912
6 C4 28 -2.401
6 C4 29 -1.424
6 C4 30 -0.448
6 C4 31 -0.936
6 C4 32 -1.424
6 C4 33 -1.912
6 C4 34 -0.936
6 C4 35 0.529
6 C4 36 1.506
6 C4 37 1.017
6 C4 38 1.017
6 C4 39 1.994
6 C4 40 2.970
6 C4 41 2.970
6 C4 42 2.970
6 C4 43 3.947
6 C4 44 4.435
6 C4 45 3.459
6 C4 46 1.506
6 C4 47 1.017
6 C4 48 0.529
6 C4 49 -0.936
6 C4 50 -1.424
6 C4 51 -0.936
6 C4 52 1.017
6 C4 53 1.994
6 C4 54 1.994
6 C4 55 1.506
6 C4 56 1.017
6 C4 57 0.041
6 C4 58 -0.448
6 C4 59 0.041
6 C4 60 1.017
6 C4 61 1.506
6 C4 62 1.506
6 C4 63 1.017
6 C4 64 0.041
6 C4 65 0.041
6 C4 66 -0.448
6 C4 67 -1.912
6 C4 68 -2.401
6 C4 69 -1.912
6 C4 70 -1.424
6 C4 71 -1.424
6 C4 72 -0.936
6 C4 73 0.529
6 C4 74 1.506
6 C4 75 1.017
6 C4 76 1.017
6 C4 77 0.529
6 C4 78 -0.936
6 C4 79 -2.889
6 C4 80 -2.889
6 C4 81 -1.912
6 C4 82 -1.424
6 C4 83 -1.912
6 C4 84 -1.424
6 C4 85 -0.448
6 C4 86 -0.448
6 C4 87 -1.424
6 C4 88 -1.912
6 C4 89 -2.401
6 C4 90 -1.912
6 C4 91 -0.936
6 C4 92 -0.936
6 C4 93 -0.936
6 C4 94 -0.448
6 C4 95 0.041
6 C4 96 0.041
6 C4 97 -0.936
6 C4 98 -1.424
6 C4 99 -0.448
6 C4 100 1.017
6 C4 101 1.506
6 C4 102 0.529
6 C4 103 -0.448
6 C4 104 -0.448
6 C4 105 -0.448
6 C4 106 -0.936
6 C4 107 -1.424
6 C4 108 -0.936
6 C4 109 -0.448
6 C4 110 0.041
6 C4 111 0.041
6 C4 112 0.041
6 C4 113 -0.448
6 C4 114 0.041
6 C4 115 0.041
6 C4 116 0.041
6 C4 117 -1.424
6 C4 118 -3.377
6 C4 119 -3.866
6 C4 120 -3.866
6 C4 121 -3.866
6 C4 122 -3.377
6 C4 123 -2.889
6 C4 124 -1.912
6 C4 125 -1.912
6 C4 126 -2.889
6 C4 127 -3.377
6 C4 128 -2.889
6 C4 129 -1.424
6 C4 130 -1.424
6 C4 131 -1.912
6 C4 132 -1.912
6 C4 133 -0.448
6 C4 134 1.017
6 C4 135 1.506
6 C4 136 1.994
6 C4 137 2.482
6 C4 138 1.994
6 C4 139 0.529
6 C4 140 -0.448
6 C4 141 0.041
6 C4 142 0.041
6 C4 143 -0.936
6 C4 144 -1.912
6 C4 145 -0.936
6 C4 146 0.529
6 C4 147 1.506
6 C4 148 1.017
6 C4 149 0.041
6 C4 150 0.529
6 C4 151 1.017
6 C4 152 1.017
6 C4 153 1.017
6 C4 154 1.017
6 C4 155 0.529
6 C4 156 -0.448
6 C4 157 -0.448
6 C4 158 -1.424
6 C4 159 -1.912
6 C4 160 -0.936
6 C4 161 0.529
6 C4 162 1.506
6 C4 163 1.017
6 C4 164 0.529
6 C4 165 0.529
6 C4 166 1.017
6 C4 167 0.041
6 C4 168 -0.936
6 C4 169 -0.936
6 C4 170 0.041
6 C4 171 0.529
6 C4 172 -0.448
6 C4 173 -1.424
6 C4 174 -1.912
6 C4 175 -2.401
6 C4 176 -2.401
6 C4 177 -2.889
6 C4 178 -3.866
6 C4 179 -4.842
6 C4 180 -3.377
6 C4 181 -1.912
6 C4 182 -1.424
6 C4 183 -1.912
6 C4 184 -2.401
6 C4 185 -1.912
6 C4 186 -1.912
6 C4 187 -2.401
6 C4 188 -1.912
6 C4 189 -0.936
6 C4 190 0.041
6 C4 191 0.041
6 C4 192 -0.448
6 C4 193 0.529
6 C4 194 1.017
6 C4 195 1.506
6 C4 196 1.994
6 C4 197 2.482
6 C4 198 2.970
6 C4 199 1.994
6 C4 200 1.994
6 C4 201 1.994
6 C4 202 1.994
6 C4 203 1.017
6 C4 204 0.041
6 C4 205 0.041
6 C4 206 1.017
6 C4 207 0.529
6 C4 208 0.041
6 C4 209 0.041
6 C4 210 1.017
6 C4 211 1.994
6 C4 212 1.017
6 C4 213 -0.448
6 C4 214 -0.936
6 C4 215 -0.448
6 C4 216 -0.448
6 C4 217 0.041
6 C4 218 1.017
6 C4 219 1.017
6 C4 220 -0.448
6 C4 221 -2.401
6 C4 222 -2.889
6 C4 223 -2.889
6 C4 224 -3.377
6 C4 225 -3.866
6 C4 226 -2.889
6 C4 227 -2.889
6 C4 228 -3.377
6 C4 229 -3.866
6 C4 230 -3.377
6 C4 231 -1.912
6 C4 232 -1.912
6 C4 233 -2.889
6 C4 234 -2.889
6 C4 235 -2.401
6 C4 236 -2.889
6 C4 237 -3.866
6 C4 238 -3.866
6 C4 239 -2.889
6 C4 240 -1.912
6 C4 241 -0.936
6 C4 242 -0.448
6 C4 243 -0.448
6 C4 244 -0.448
6 C4 245 -1.424
6 C4 246 -1.912
6 C4 247 -2.401
6 C4 248 -1.912
6 C4 249 -1.424
6 C4 250 -1.424
6 C4 251 -1.424
6 C4 252 -0.448
6 C4 253 0.529
6 C4 254 0.529
6 C4 255 0.529
# CP5 chan 18
6 CP5 0 -2.828
6 CP5 1 -2.340
6 CP5 2 -1.363
6 CP5 3 -1.851
6 CP5 4 -3.316
6 CP5 5 -4.293
6 CP5 6 -3.316
6 CP5 7 -3.805
6 CP5 8 -5.269
6 CP5 9 -5.269
6 CP5 10 -2.828
6 CP5 11 -1.851
6 CP5 12 -3.805
6 CP5 13 -6.246
6 CP5 14 -4.781
6 CP5 15 -3.805
6 CP5 16 -5.758
6 CP5 17 -8.687
6 CP5 18 -8.687
6 CP5 19 -6.246
6 CP5 20 -6.246
6 CP5 21 -8.687
6 CP5 22 -9.664
6 CP5 23 -9.664
6 CP5 24 -11.617
6 CP5 25 -13.570
6 CP5 26 -10.640
6 CP5 27 -5.758
6 CP5 28 -3.805
6 CP5 29 -5.269
6 CP5 30 -5.758
6 CP5 31 -3.805
6 CP5 32 -2.340
6 CP5 33 -2.828
6 CP5 34 -3.805
6 CP5 35 -3.316
6 CP5 36 -1.851
6 CP5 37 -0.387
6 CP5 38 0.102
6 CP5 39 -0.387
6 CP5 40 -0.387
6 CP5 41 -1.363
6 CP5 42 -3.316
6 CP5 43 -3.805
6 CP5 44 -2.828
6 CP5 45 -1.363
6 CP5 46 -2.828
6 CP5 47 -4.781
6 CP5 48 -4.781
6 CP5 49 -1.851
6 CP5 50 0.102
6 CP5 51 -0.875
6 CP5 52 -1.363
6 CP5 53 0.102
6 CP5 54 0.102
6 CP5 55 -1.363
6 CP5 56 -1.851
6 CP5 57 -0.387
6 CP5 58 0.590
6 CP5 59 -1.363
6 CP5 60 -2.828
6 CP5 61 -0.875
6 CP5 62 1.567
6 CP5 63 2.543
6 CP5 64 4.008
6 CP5 65 6.938
6 CP5 66 10.356
6 CP5 67 11.332
6 CP5 68 9.867
6 CP5 69 7.914
6 CP5 70 7.426
6 CP5 71 7.426
6 CP5 72 5.473
6 CP5 73 3.520
6 CP5 74 2.055
6 CP5 75 2.055
6 CP5 76 1.078
6 CP5 77 -0.387
6 CP5 78 -0.387
6 CP5 79 -1.363
6 CP5 80 -3.316
6 CP5 81 -6.246
6 CP5 82 -5.758
6 CP5 83 -3.805
6 CP5 84 -3.316
6 CP5 85 -4.293
6 CP5 86 -3.805
6 CP5 87 -2.340
6 CP5 88 -2.828
6 CP5 89 -5.269
6 CP5 90 -4.781
6 CP5 91 -0.387
6 CP5 92 3.520
6 CP5 93 3.520
6 CP5 94 3.031
6 CP5 95 4.496
6 CP5 96 6.938
6 CP5 97 5.961
6 CP5 98 4.496
6 CP5 99 4.496
6 CP5 100 4.985
6 CP5 101 4.496
6 CP5 102 3.031
6 CP5 103 3.031
6 CP5 104 3.520
6 CP5 105 2.543
6 CP5 106 0.102
6 CP5 107 -2.340
6 CP5 108 -2.828
6 CP5 109 -1.851
6 CP5 110 -2.340
6 CP5 111 -3.316
6 CP5 112 -2.340
6 CP5 113 0.102
6 CP5 114 0.590
6 CP5 115 -1.363
6 CP5 116 -2.340
6 CP5 117 -1.851
6 CP5 118 -1.851
6 CP5 119 -2.828
6 CP5 120 -2.828
6 CP5 121 -1.851
6 CP5 122 -0.875
6 CP5 123 -1.363
6 CP5 124 -1.363
6 CP5 125 -0.387
6 CP5 126 1.078
6 CP5 127 1.078
6 CP5 128 0.102
6 CP5 129 -0.875
6 CP5 130 -0.875
6 CP5 131 -0.387
6 CP5 132 0.102
6 CP5 133 0.102
6 CP5 134 1.567
6 CP5 135 1.567
6 CP5 136 0.102
6 CP5 137 -1.363
6 CP5 138 -0.387
6 CP5 139 1.567
6 CP5 140 0.590
6 CP5 141 -0.875
6 CP5 142 0.590
6 CP5 143 2.543
6 CP5 144 2.055
6 CP5 145 -1.363
6 CP5 146 -2.828
6 CP5 147 -1.363
6 CP5 148 -1.851
6 CP5 149 -3.805
6 CP5 150 -4.781
6 CP5 151 -3.805
6 CP5 152 -4.293
6 CP5 153 -5.758
6 CP5 154 -4.781
6 CP5 155 0.590
6 CP5 156 3.520
6 CP5 157 1.078
6 CP5 158 -2.340
6 CP5 159 -2.340
6 CP5 160 -1.851
6 CP5 161 -3.805
6 CP5 162 -5.758
6 CP5 163 -3.805
6 CP5 164 -0.387
6 CP5 165 -1.851
6 CP5 166 -5.758
6 CP5 167 -5.758
6 CP5 168 -2.340
6 CP5 169 -1.851
6 CP5 170 -5.269
6 CP5 171 -7.711
6 CP5 172 -6.734
6 CP5 173 -5.269
6 CP5 174 -6.246
6 CP5 175 -6.734
6 CP5 176 -5.269
6 CP5 177 -4.781
6 CP5 178 -5.758
6 CP5 179 -6.246
6 CP5 180 -5.758
6 CP5 181 -5.758
6 CP5 182 -8.199
6 CP5 183 -9.664
6 CP5 184 -8.199
6 CP5 185 -5.269
6 CP5 186 -3.316
6 CP5 187 -3.805
6 CP5 188 -4.781
6 CP5 189 -3.805
6 CP5 190 -1.851
6 CP5 191 -1.851
6 CP5 192 -3.316
6 CP5 193 -3.805
6 CP5 194 -2.340
6 CP5 195 -1.851
6 CP5 196 -4.293
6 CP5 197 -5.758
6 CP5 198 -3.805
6 CP5 199 -1.851
6 CP5 200 -3.805
6 CP5 201 -5.758
6 CP5 202 -3.805
6 CP5 203 -1.363
6 CP5 204 -2.340
6 CP5 205 -3.805
6 CP5 206 -2.340
6 CP5 207 -0.387
6 CP5 208 -1.363
6 CP5 209 -4.293
6 CP5 210 -4.781
6 CP5 211 -3.316
6 CP5 212 -3.805
6 CP5 213 -4.781
6 CP5 214 -3.805
6 CP5 215 -0.387
6 CP5 216 1.078
6 CP5 217 -1.363
6 CP5 218 -4.781
6 CP5 219 -5.758
6 CP5 220 -4.781
6 CP5 221 -5.269
6 CP5 222 -6.246
6 CP5 223 -3.805
6 CP5 224 0.590
6 CP5 225 2.055
6 CP5 226 0.102
6 CP5 227 -1.363
6 CP5 228 -0.875
6 CP5 229 -1.363
6 CP5 230 -2.340
6 CP5 231 -0.875
6 CP5 232 2.543
6 CP5 233 3.520
6 CP5 234 1.078
6 CP5 235 0.590
6 CP5 236 3.031
6 CP5 237 4.008
6 CP5 238 1.567
6 CP5 239 -0.875
6 CP5 240 0.590
6 CP5 241 3.520
6 CP5 242 2.543
6 CP5 243 0.102
6 CP5 244 0.590
6 CP5 245 2.543
6 CP5 246 1.078
6 CP5 247 -1.851
6 CP5 248 -3.316
6 CP5 249 -2.340
6 CP5 250 -2.828
6 CP5 251 -5.269
6 CP5 252 -5.269
6 CP5 253 -3.316
6 CP5 254 -0.875
6 CP5 255 1.078
# CP6 chan 19
6 CP6 0 -3.448
6 CP6 1 -4.425
6 CP6 2 -2.960
6 CP6 3 -3.448
6 CP6 4 -6.378
6 CP6 5 -7.355
6 CP6 6 -6.378
6 CP6 7 -5.890
6 CP6 8 -6.866
6 CP6 9 -5.890
6 CP6 10 -2.960
6 CP6 11 -0.519
6 CP6 12 -0.519
6 CP6 13 -0.519
6 CP6 14 2.411
6 CP6 15 3.387
6 CP6 16 2.411
6 CP6 17 -0.519
6 CP6 18 -2.472
6 CP6 19 -2.472
6 CP6 20 -2.472
6 CP6 21 -3.937
6 CP6 22 -5.890
6 CP6 23 -6.866
6 CP6 24 -6.378
6 CP6 25 -6.378
6 CP6 26 -6.866
6 CP6 27 -5.890
6 CP6 28 -3.937
6 CP6 29 -2.472
6 CP6 30 -2.960
6 CP6 31 -2.960
6 CP6 32 -1.495
6 CP6 33 -1.495
6 CP6 34 -2.472
6 CP6 35 -1.007
6 CP6 36 1.923
6 CP6 37 2.411
6 CP6 38 -0.519
6 CP6 39 -0.519
6 CP6 40 2.899
6 CP6 41 4.364
6 CP6 42 2.899
6 CP6 43 1.923
6 CP6 44 4.364
6 CP6 45 5.341
6 CP6 46 2.899
6 CP6 47 -1.007
6 CP6 48 -1.984
6 CP6 49 -1.007
6 CP6 50 -0.031
6 CP6 51 -0.031
6 CP6 52 0.458
6 CP6 53 1.923
6 CP6 54 2.899
6 CP6 55 2.411
6 CP6 56 0.458
6 CP6 57 -1.007
6 CP6 58 -0.519
6 CP6 59 0.946
6 CP6 60 1.434
6 CP6 61 2.411
6 CP6 62 3.387
6 CP6 63 3.876
6 CP6 64 2.411
6 CP6 65 1.923
6 CP6 66 2.899
6 CP6 67 3.876
6 CP6 68 2.899
6 CP6 69 1.923
6 CP6 70 4.364
6 CP6 71 7.294
6 CP6 72 7.294
6 CP6 73 4.852
6 CP6 74 4.852
6 CP6 75 6.805
6 CP6 76 6.805
6 CP6 77 3.876
6 CP6 78 1.923
6 CP6 79 1.434
6 CP6 80 -0.031
6 CP6 81 -1.984
6 CP6 82 -2.960
6 CP6 83 -0.519
6 CP6 84 0.458
6 CP6 85 -1.007
6 CP6 86 -1.007
6 CP6 87 0.458
6 CP6 88 0.946
6 CP6 89 -1.495
6 CP6 90 -1.984
6 CP6 91 1.434
6 CP6 92 4.364
6 CP6 93 3.876
6 CP6 94 3.387
6 CP6 95 5.341
6 CP6 96 8.270
6 CP6 97 7.294
6 CP6 98 4.364
6 CP6 99 4.364
6 CP6 100 7.294
6 CP6 101 9.247
6 CP6 102 6.317
6 CP6 103 1.923
6 CP6 104 1.923
6 CP6 105 3.387
6 CP6 106 2.899
6 CP6 107 0.458
6 CP6 108 0.458
6 CP6 109 2.899
6 CP6 110 2.899
6 CP6 111 0.946
6 CP6 112 0.458
6 CP6 113 3.387
6 CP6 114 4.364
6 CP6 115 1.923
6 CP6 116 -0.519
6 CP6 117 -1.984
6 CP6 118 -3.448
6 CP6 119 -6.378
6 CP6 120 -6.866
6 CP6 121 -3.937
6 CP6 122 -1.495
6 CP6 123 -1.495
6 CP6 124 -2.472
6 CP6 125 -1.495
6 CP6 126 -0.519
6 CP6 127 -1.495
6 CP6 128 -2.960
6 CP6 129 -1.984
6 CP6 130 0.458
6 CP6 131 1.434
6 CP6 132 0.946
6 CP6 133 1.434
6 CP6 134 4.364
6 CP6 135 5.829
6 CP6 136 5.341
6 CP6 137 4.364
6 CP6 138 4.364
6 CP6 139 4.852
6 CP6 140 3.876
6 CP6 141 2.411
6 CP6 142 2.411
6 CP6 143 2.411
6 CP6 144 0.946
6 CP6 145 -1.007
6 CP6 146 -0.519
6 CP6 147 2.411
6 CP6 148 2.899
6 CP6 149 0.458
6 CP6 150 -1.007
6 CP6 151 0.946
6 CP6 152 3.387
6 CP6 153 1.434
6 CP6 154 -1.007
6 CP6 155 -0.031
6 CP6 156 2.411
6 CP6 157 2.411
6 CP6 158 -1.495
6 CP6 159 -2.960
6 CP6 160 -0.031
6 CP6 161 2.899
6 CP6 162 1.923
6 CP6 163 -0.519
6 CP6 164 0.458
6 CP6 165 1.923
6 CP6 166 0.946
6 CP6 167 -1.495
6 CP6 168 -1.495
6 CP6 169 0.458
6 CP6 170 0.458
6 CP6 171 -1.007
6 CP6 172 -1.984
6 CP6 173 -2.960
6 CP6 174 -4.913
6 CP6 175 -6.378
6 CP6 176 -5.890
6 CP6 177 -4.913
6 CP6 178 -5.890
6 CP6 179 -8.331
6 CP6 180 -6.866
6 CP6 181 -2.960
6 CP6 182 -1.984
6 CP6 183 -3.937
6 CP6 184 -5.890
6 CP6 185 -5.402
6 CP6 186 -3.937
6 CP6 187 -5.402
6 CP6 188 -7.355
6 CP6 189 -5.890
6 CP6 190 -1.495
6 CP6 191 -0.031
6 CP6 192 -1.984
6 CP6 193 -1.984
6 CP6 194 0.946
6 CP6 195 1.434
6 CP6 196 -0.031
6 CP6 197 -0.031
6 CP6 198 2.899
6 CP6 199 2.899
6 CP6 200 -0.031
6 CP6 201 -1.007
6 CP6 202 1.434
6 CP6 203 2.899
6 CP6 204 0.458
6 CP6 205 -1.495
6 CP6 206 -1.007
6 CP6 207 -0.031
6 CP6 208 -0.519
6 CP6 209 -1.495
6 CP6 210 -0.031
6 CP6 211 2.899
6 CP6 212 1.923
6 CP6 213 -1.495
6 CP6 214 -3.448
6 CP6 215 -2.472
6 CP6 216 -1.984
6 CP6 217 -2.960
6 CP6 218 -3.448
6 CP6 219 -2.472
6 CP6 220 -1.984
6 CP6 221 -4.425
6 CP6 222 -7.355
6 CP6 223 -7.843
6 CP6 224 -5.890
6 CP6 225 -4.913
6 CP6 226 -5.890
6 CP6 227 -6.866
6 CP6 228 -7.843
6 CP6 229 -8.331
6 CP6 230 -8.331
6 CP6 231 -7.355
6 CP6 232 -5.890
6 CP6 233 -4.913
6 CP6 234 -5.890
6 CP6 235 -6.378
6 CP6 236 -5.402
6 CP6 237 -4.913
6 CP6 238 -5.890
6 CP6 239 -6.378
6 CP6 240 -4.913
6 CP6 241 -1.495
6 CP6 242 -0.519
6 CP6 243 -1.984
6 CP6 244 -2.960
6 CP6 245 -2.960
6 CP6 246 -3.448
6 CP6 247 -4.425
6 CP6 248 -4.425
6 CP6 249 -1.984
6 CP6 250 -1.007
6 CP6 251 -1.984
6 CP6 252 -3.448
6 CP6 253 -1.984
6 CP6 254 1.434
6 CP6 255 2.899
# CP1 chan 20
6 CP1 0 -2.207
6 CP1 1 -2.207
6 CP1 2 -1.719
6 CP1 3 -0.743
6 CP1 4 -1.231
6 CP1 5 -1.719
6 CP1 6 -2.207
6 CP1 7 -3.184
6 CP1 8 -3.672
6 CP1 9 -3.672
6 CP1 10 -3.184
6 CP1 11 -2.207
6 CP1 12 -1.719
6 CP1 13 -0.743
6 CP1 14 0.234
6 CP1 15 -0.254
6 CP1 16 -0.743
6 CP1 17 -1.231
6 CP1 18 -2.207
6 CP1 19 -2.696
6 CP1 20 -3.184
6 CP1 21 -3.184
6 CP1 22 -3.184
6 CP1 23 -3.672
6 CP1 24 -3.672
6 CP1 25 -3.672
6 CP1 26 -3.184
6 CP1 27 -3.184
6 CP1 28 -2.696
6 CP1 29 -1.719
6 CP1 30 -1.231
6 CP1 31 -0.743
6 CP1 32 -0.254
6 CP1 33 -0.254
6 CP1 34 -0.254
6 CP1 35 -0.254
6 CP1 36 -0.254
6 CP1 37 0.234
6 CP1 38 0.722
6 CP1 39 1.211
6 CP1 40 1.211
6 CP1 41 0.722
6 CP1 42 0.234
6 CP1 43 -0.254
6 CP1 44 -0.743
6 CP1 45 -0.743
6 CP1 46 -1.231
6 CP1 47 -1.719
6 CP1 48 -2.207
6 CP1 49 -2.207
6 CP1 50 -2.207
6 CP1 51 -1.719
6 CP1 52 -1.231
6 CP1 53 -0.743
6 CP1 54 -0.254
6 CP1 55 -0.254
6 CP1 56 0.234
6 CP1 57 0.234
6 CP1 58 0.234
6 CP1 59 0.722
6 CP1 60 0.722
6 CP1 61 0.234
6 CP1 62 0.234
6 CP1 63 0.234
6 CP1 64 0.722
6 CP1 65 1.211
6 CP1 66 2.187
6 CP1 67 3.652
6 CP1 68 5.605
6 CP1 69 6.582
6 CP1 70 7.070
6 CP1 71 7.070
6 CP1 72 6.093
6 CP1 73 4.629
6 CP1 74 3.652
6 CP1 75 3.164
6 CP1 76 2.187
6 CP1 77 2.187
6 CP1 78 1.699
6 CP1 79 1.699
6 CP1 80 1.211
6 CP1 81 0.722
6 CP1 82 -0.254
6 CP1 83 -1.231
6 CP1 84 -1.719
6 CP1 85 -2.207
6 CP1 86 -1.719
6 CP1 87 -1.231
6 CP1 88 -0.743
6 CP1 89 -0.743
6 CP1 90 -0.743
6 CP1 91 -0.743
6 CP1 92 -0.254
6 CP1 93 0.722
6 CP1 94 1.699
6 CP1 95 3.164
6 CP1 96 4.140
6 CP1 97 5.117
6 CP1 98 5.605
6 CP1 99 6.093
6 CP1 100 5.605
6 CP1 101 5.605
6 CP1 102 4.629
6 CP1 103 4.140
6 CP1 104 3.652
6 CP1 105 3.164
6 CP1 106 3.164
6 CP1 107 2.675
6 CP1 108 1.211
6 CP1 109 0.722
6 CP1 110 -0.254
6 CP1 111 -0.254
6 CP1 112 0.234
6 CP1 113 1.211
6 CP1 114 1.699
6 CP1 115 1.699
6 CP1 116 1.699
6 CP1 117 0.722
6 CP1 118 0.234
6 CP1 119 -0.254
6 CP1 120 -0.254
6 CP1 121 -0.254
6 CP1 122 0.234
6 CP1 123 0.722
6 CP1 124 1.211
6 CP1 125 1.699
6 CP1 126 2.187
6 CP1 127 2.187
6 CP1 128 2.675
6 CP1 129 3.164
6 CP1 130 3.164
6 CP1 131 3.164
6 CP1 132 3.652
6 CP1 133 3.164
6 CP1 134 3.652
6 CP1 135 4.140
6 CP1 136 4.629
6 CP1 137 5.117
6 CP1 138 5.117
6 CP1 139 4.629
6 CP1 140 3.652
6 CP1 141 3.164
6 CP1 142 3.164
6 CP1 143 3.164
6 CP1 144 3.164
6 CP1 145 3.164
6 CP1 146 3.164
6 CP1 147 2.675
6 CP1 148 2.187
6 CP1 149 1.699
6 CP1 150 1.699
6 CP1 151 1.699
6 CP1 152 1.699
6 CP1 153 1.699
6 CP1 154 1.699
6 CP1 155 1.699
6 CP1 156 2.187
6 CP1 157 2.675
6 CP1 158 3.164
6 CP1 159 3.652
6 CP1 160 3.652
6 CP1 161 3.164
6 CP1 162 2.187
6 CP1 163 1.211
6 CP1 164 1.211
6 CP1 165 1.699
6 CP1 166 1.699
6 CP1 167 1.699
6 CP1 168 1.211
6 CP1 169 0.722
6 CP1 170 0.722
6 CP1 171 0.722
6 CP1 172 0.722
6 CP1 173 1.211
6 CP1 174 1.211
6 CP1 175 1.211
6 CP1 176 1.211
6 CP1 177 1.211
6 CP1 178 1.211
6 CP1 179 1.211
6 CP1 180 0.722
6 CP1 181 -0.254
6 CP1 182 -0.743
6 CP1 183 -1.231
6 CP1 184 -0.743
6 CP1 185 -1.231
6 CP1 186 -1.231
6 CP1 187 -1.719
6 CP1 188 -1.231
6 CP1 189 -0.254
6 CP1 190 0.722
6 CP1 191 0.722
6 CP1 192 0.722
6 CP1 193 -0.254
6 CP1 194 -0.743
6 CP1 195 -0.743
6 CP1 196 -1.231
6 CP1 197 -1.719
6 CP1 198 -1.719
6 CP1 199 -2.207
6 CP1 200 -2.207
6 CP1 201 -1.719
6 CP1 202 -1.231
6 CP1 203 -1.231
6 CP1 204 -1.719
6 CP1 205 -2.207
6 CP1 206 -2.696
6 CP1 207 -2.207
6 CP1 208 -0.743
6 CP1 209 0.234
6 CP1 210 0.722
6 CP1 211 0.722
6 CP1 212 0.234
6 CP1 213 -0.254
6 CP1 214 -0.743
6 CP1 215 -0.743
6 CP1 216 -0.743
6 CP1 217 -0.743
6 CP1 218 -0.254
6 CP1 219 -0.254
6 CP1 220 -0.743
6 CP1 221 -1.719
6 CP1 222 -3.184
6 CP1 223 -3.672
6 CP1 224 -3.184
6 CP1 225 -2.207
6 CP1 226 -0.743
6 CP1 227 -0.254
6 CP1 228 0.234
6 CP1 229 -0.254
6 CP1 230 -1.719
6 CP1 231 -2.207
6 CP1 232 -2.696
6 CP1 233 -2.207
6 CP1 234 -1.719
6 CP1 235 -0.743
6 CP1 236 -0.254
6 CP1 237 0.234
6 CP1 238 -0.254
6 CP1 239 -1.231
6 CP1 240 -1.719
6 CP1 241 -2.207
6 CP1 242 -2.207
6 CP1 243 -1.719
6 CP1 244 -1.231
6 CP1 245 -1.231
6 CP1 246 -1.719
6 CP1 247 -2.207
6 CP1 248 -2.696
6 CP1 249 -3.184
6 CP1 250 -3.184
6 CP1 251 -3.184
6 CP1 252 -3.184
6 CP1 253 -3.184
6 CP1 254 -3.672
6 CP1 255 -3.184
# CP2 chan 21
6 CP2 0 -2.045
6 CP2 1 -2.045
6 CP2 2 -2.045
6 CP2 3 -2.533
6 CP2 4 -3.510
6 CP2 5 -3.998
6 CP2 6 -4.486
6 CP2 7 -4.974
6 CP2 8 -4.486
6 CP2 9 -3.998
6 CP2 10 -3.998
6 CP2 11 -3.510
6 CP2 12 -2.045
6 CP2 13 -0.580
6 CP2 14 0.885
6 CP2 15 1.373
6 CP2 16 1.373
6 CP2 17 0.885
6 CP2 18 -0.092
6 CP2 19 -0.580
6 CP2 20 -1.068
6 CP2 21 -1.556
6 CP2 22 -2.533
6 CP2 23 -3.021
6 CP2 24 -3.510
6 CP2 25 -3.021
6 CP2 26 -3.021
6 CP2 27 -2.533
6 CP2 28 -2.045
6 CP2 29 -1.556
6 CP2 30 -1.556
6 CP2 31 -1.068
6 CP2 32 -0.580
6 CP2 33 -0.580
6 CP2 34 -0.580
6 CP2 35 -0.580
6 CP2 36 -0.580
6 CP2 37 0.397
6 CP2 38 0.885
6 CP2 39 1.862
6 CP2 40 1.862
6 CP2 41 1.373
6 CP2 42 1.373
6 CP2 43 0.885
6 CP2 44 1.373
6 CP2 45 1.862
6 CP2 46 1.373
6 CP2 47 0.397
6 CP2 48 -0.580
6 CP2 49 -1.556
6 CP2 50 -2.045
6 CP2 51 -2.533
6 CP2 52 -2.533
6 CP2 53 -1.556
6 CP2 54 -0.580
6 CP2 55 -0.092
6 CP2 56 0.397
6 CP2 57 0.397
6 CP2 58 -0.092
6 CP2 59 -0.580
6 CP2 60 -1.556
6 CP2 61 -1.068
6 CP2 62 -0.580
6 CP2 63 0.397
6 CP2 64 0.885
6 CP2 65 1.373
6 CP2 66 1.862
6 CP2 67 2.350
6 CP2 68 2.838
6 CP2 69 3.326
6 CP2 70 3.326
6 CP2 71 3.326
6 CP2 72 3.326
6 CP2 73 2.838
6 CP2 74 2.838
6 CP2 75 2.838
6 CP2 76 2.350
6 CP2 77 1.373
6 CP2 78 1.373
6 CP2 79 1.862
6 CP2 80 1.862
6 CP2 81 1.862
6 CP2 82 1.373
6 CP2 83 0.885
6 CP2 84 0.397
6 CP2 85 0.397
6 CP2 86 0.885
6 CP2 87 1.373
6 CP2 88 1.373
6 CP2 89 0.885
6 CP2 90 0.397
6 CP2 91 0.397
6 CP2 92 0.397
6 CP2 93 1.373
6 CP2 94 2.350
6 CP2 95 2.838
6 CP2 96 3.815
6 CP2 97 4.791
6 CP2 98 5.280
6 CP2 99 5.768
6 CP2 100 5.768
6 CP2 101 5.768
6 CP2 102 5.280
6 CP2 103 4.791
6 CP2 104 4.791
6 CP2 105 4.303
6 CP2 106 3.815
6 CP2 107 3.326
6 CP2 108 2.350
6 CP2 109 1.862
6 CP2 110 1.373
6 CP2 111 1.862
6 CP2 112 1.862
6 CP2 113 2.350
6 CP2 114 2.350
6 CP2 115 3.326
6 CP2 116 3.326
6 CP2 117 3.326
6 CP2 118 2.350
6 CP2 119 0.885
6 CP2 120 -0.092
6 CP2 121 -1.068
6 CP2 122 -0.580
6 CP2 123 -0.092
6 CP2 124 0.885
6 CP2 125 1.862
6 CP2 126 2.350
6 CP2 127 2.838
6 CP2 128 2.838
6 CP2 129 3.326
6 CP2 130 2.838
6 CP2 131 3.326
6 CP2 132 3.815
6 CP2 133 4.303
6 CP2 134 4.303
6 CP2 135 4.303
6 CP2 136 4.791
6 CP2 137 5.768
6 CP2 138 6.256
6 CP2 139 6.256
6 CP2 140 5.768
6 CP2 141 4.791
6 CP2 142 4.303
6 CP2 143 3.815
6 CP2 144 3.815
6 CP2 145 3.326
6 CP2 146 3.326
6 CP2 147 2.838
6 CP2 148 2.350
6 CP2 149 2.350
6 CP2 150 2.838
6 CP2 151 3.326
6 CP2 152 3.815
6 CP2 153 3.815
6 CP2 154 3.326
6 CP2 155 3.815
6 CP2 156 3.815
6 CP2 157 4.303
6 CP2 158 4.303
6 CP2 159 3.815
6 CP2 160 3.815
6 CP2 161 3.326
6 CP2 162 2.838
6 CP2 163 2.838
6 CP2 164 3.326
6 CP2 165 3.326
6 CP2 166 3.326
6 CP2 167 2.838
6 CP2 168 1.862
6 CP2 169 1.373
6 CP2 170 1.373
6 CP2 171 1.373
6 CP2 172 2.350
6 CP2 173 2.350
6 CP2 174 1.862
6 CP2 175 1.373
6 CP2 176 0.397
6 CP2 177 -0.580
6 CP2 178 -0.580
6 CP2 179 -1.068
6 CP2 180 -0.580
6 CP2 181 -1.068
6 CP2 182 -1.068
6 CP2 183 -0.580
6 CP2 184 -0.092
6 CP2 185 -0.092
6 CP2 186 -0.092
6 CP2 187 -0.580
6 CP2 188 -1.068
6 CP2 189 -1.068
6 CP2 190 -0.580
6 CP2 191 -0.092
6 CP2 192 0.397
6 CP2 193 0.397
6 CP2 194 0.397
6 CP2 195 -0.092
6 CP2 196 -0.092
6 CP2 197 -0.092
6 CP2 198 0.397
6 CP2 199 0.397
6 CP2 200 0.885
6 CP2 201 0.885
6 CP2 202 0.885
6 CP2 203 0.397
6 CP2 204 0.397
6 CP2 205 -0.092
6 CP2 206 -0.092
6 CP2 207 0.397
6 CP2 208 0.397
6 CP2 209 1.373
6 CP2 210 1.862
6 CP2 211 2.350
6 CP2 212 2.838
6 CP2 213 2.838
6 CP2 214 2.350
6 CP2 215 1.373
6 CP2 216 0.885
6 CP2 217 -0.092
6 CP2 218 -0.092
6 CP2 219 -0.092
6 CP2 220 -0.092
6 CP2 221 -0.092
6 CP2 222 -1.068
6 CP2 223 -2.045
6 CP2 224 -2.533
6 CP2 225 -3.021
6 CP2 226 -2.533
6 CP2 227 -2.045
6 CP2 228 -2.045
6 CP2 229 -2.045
6 CP2 230 -2.533
6 CP2 231 -3.510
6 CP2 232 -3.510
6 CP2 233 -3.510
6 CP2 234 -2.533
6 CP2 235 -2.045
6 CP2 236 -1.068
6 CP2 237 -0.580
6 CP2 238 -1.068
6 CP2 239 -1.068
6 CP2 240 -1.556
6 CP2 241 -1.068
6 CP2 242 -1.068
6 CP2 243 -1.068
6 CP2 244 -0.580
6 CP2 245 -0.580
6 CP2 246 -1.556
6 CP2 247 -2.045
6 CP2 248 -2.533
6 CP2 249 -2.533
6 CP2 250 -2.045
6 CP2 251 -1.556
6 CP2 252 -1.068
6 CP2 253 -0.580
6 CP2 254 -0.580
6 CP2 255 -0.580
# P3 chan 22
6 P3 0 -2.116
6 P3 1 -3.092
6 P3 2 -3.092
6 P3 3 -3.092
6 P3 4 -2.604
6 P3 5 -3.581
6 P3 6 -4.557
6 P3 7 -5.534
6 P3 8 -6.022
6 P3 9 -6.022
6 P3 10 -5.046
6 P3 11 -4.069
6 P3 12 -2.604
6 P3 13 -1.139
6 P3 14 -0.163
6 P3 15 0.326
6 P3 16 -0.651
6 P3 17 -1.628
6 P3 18 -3.092
6 P3 19 -4.069
6 P3 20 -4.069
6 P3 21 -3.581
6 P3 22 -2.604
6 P3 23 -2.604
6 P3 24 -3.092
6 P3 25 -4.069
6 P3 26 -5.046
6 P3 27 -5.046
6 P3 28 -4.557
6 P3 29 -3.092
6 P3 30 -2.116
6 P3 31 -0.651
6 P3 32 0.326
6 P3 33 0.814
6 P3 34 1.302
6 P3 35 1.302
6 P3 36 2.279
6 P3 37 3.255
6 P3 38 4.232
6 P3 39 4.720
6 P3 40 4.232
6 P3 41 3.255
6 P3 42 2.767
6 P3 43 1.302
6 P3 44 0.814
6 P3 45 -0.651
6 P3 46 -1.628
6 P3 47 -2.604
6 P3 48 -2.604
6 P3 49 -2.604
6 P3 50 -2.116
6 P3 51 -2.116
6 P3 52 -2.116
6 P3 53 -1.139
6 P3 54 0.326
6 P3 55 1.790
6 P3 56 2.767
6 P3 57 2.767
6 P3 58 2.279
6 P3 59 1.302
6 P3 60 0.814
6 P3 61 0.814
6 P3 62 0.814
6 P3 63 1.302
6 P3 64 1.302
6 P3 65 2.767
6 P3 66 4.720
6 P3 67 7.650
6 P3 68 10.579
6 P3 69 13.021
6 P3 70 13.997
6 P3 71 13.997
6 P3 72 13.021
6 P3 73 11.068
6 P3 74 9.603
6 P3 75 7.650
6 P3 76 5.697
6 P3 77 3.743
6 P3 78 2.767
6 P3 79 1.790
6 P3 80 1.302
6 P3 81 0.326
6 P3 82 -1.139
6 P3 83 -2.116
6 P3 84 -3.092
6 P3 85 -3.581
6 P3 86 -3.092
6 P3 87 -3.092
6 P3 88 -2.604
6 P3 89 -2.116
6 P3 90 -2.116
6 P3 91 -2.116
6 P3 92 -1.139
6 P3 93 -0.163
6 P3 94 1.790
6 P3 95 3.743
6 P3 96 5.697
6 P3 97 7.161
6 P3 98 8.138
6 P3 99 8.626
6 P3 100 8.626
6 P3 101 8.626
6 P3 102 7.650
6 P3 103 6.673
6 P3 104 5.697
6 P3 105 5.208
6 P3 106 4.720
6 P3 107 3.743
6 P3 108 2.767
6 P3 109 1.302
6 P3 110 0.326
6 P3 111 -0.163
6 P3 112 0.814
6 P3 113 1.790
6 P3 114 3.743
6 P3 115 4.720
6 P3 116 5.208
6 P3 117 4.720
6 P3 118 3.743
6 P3 119 2.279
6 P3 120 0.326
6 P3 121 0.326
6 P3 122 0.814
6 P3 123 2.279
6 P3 124 4.720
6 P3 125 6.185
6 P3 126 6.673
6 P3 127 7.161
6 P3 128 7.650
6 P3 129 8.626
6 P3 130 8.626
6 P3 131 8.626
6 P3 132 8.138
6 P3 133 7.161
6 P3 134 7.650
6 P3 135 8.138
6 P3 136 10.091
6 P3 137 11.068
6 P3 138 11.556
6 P3 139 11.556
6 P3 140 10.579
6 P3 141 10.091
6 P3 142 9.603
6 P3 143 9.603
6 P3 144 9.603
6 P3 145 9.115
6 P3 146 8.626
6 P3 147 8.138
6 P3 148 7.161
6 P3 149 6.673
6 P3 150 6.185
6 P3 151 5.697
6 P3 152 5.697
6 P3 153 5.208
6 P3 154 5.697
6 P3 155 6.185
6 P3 156 7.161
6 P3 157 8.138
6 P3 158 8.626
6 P3 159 9.115
6 P3 160 8.626
6 P3 161 7.161
6 P3 162 5.208
6 P3 163 4.232
6 P3 164 4.232
6 P3 165 5.208
6 P3 166 5.697
6 P3 167 5.697
6 P3 168 4.720
6 P3 169 3.743
6 P3 170 2.767
6 P3 171 3.743
6 P3 172 4.232
6 P3 173 4.232
6 P3 174 3.255
6 P3 175 1.790
6 P3 176 0.814
6 P3 177 0.814
6 P3 178 1.302
6 P3 179 1.302
6 P3 180 0.814
6 P3 181 -0.163
6 P3 182 -1.139
6 P3 183 -1.139
6 P3 184 -1.139
6 P3 185 -0.651
6 P3 186 -0.651
6 P3 187 -0.651
6 P3 188 -0.163
6 P3 189 0.814
6 P3 190 1.790
6 P3 191 2.279
6 P3 192 2.279
6 P3 193 2.279
6 P3 194 1.790
6 P3 195 1.302
6 P3 196 0.814
6 P3 197 -0.163
6 P3 198 -1.139
6 P3 199 -1.628
6 P3 200 -2.116
6 P3 201 -1.628
6 P3 202 -1.628
6 P3 203 -1.628
6 P3 204 -1.628
6 P3 205 -1.139
6 P3 206 -0.651
6 P3 207 0.326
6 P3 208 1.302
6 P3 209 1.790
6 P3 210 1.302
6 P3 211 0.814
6 P3 212 0.814
6 P3 213 1.302
6 P3 214 1.302
6 P3 215 1.302
6 P3 216 1.302
6 P3 217 1.790
6 P3 218 2.279
6 P3 219 2.279
6 P3 220 1.302
6 P3 221 -0.651
6 P3 222 -2.116
6 P3 223 -3.581
6 P3 224 -3.092
6 P3 225 -1.139
6 P3 226 0.326
6 P3 227 1.790
6 P3 228 1.790
6 P3 229 1.302
6 P3 230 -0.163
6 P3 231 -1.139
6 P3 232 -1.139
6 P3 233 -0.651
6 P3 234 0.814
6 P3 235 2.767
6 P3 236 3.743
6 P3 237 4.232
6 P3 238 3.743
6 P3 239 2.279
6 P3 240 1.302
6 P3 241 0.326
6 P3 242 -0.163
6 P3 243 0.814
6 P3 244 2.279
6 P3 245 3.255
6 P3 246 3.255
6 P3 247 2.279
6 P3 248 0.326
6 P3 249 -1.139
6 P3 250 -1.628
6 P3 251 -1.628
6 P3 252 -1.628
6 P3 253 -2.116
6 P3 254 -3.092
6 P3 255 -2.604
# P4 chan 23
6 P4 0 -2.879
6 P4 1 -2.879
6 P4 2 -2.879
6 P4 3 -3.367
6 P4 4 -5.320
6 P4 5 -7.273
6 P4 6 -8.738
6 P4 7 -9.226
6 P4 8 -8.250
6 P4 9 -7.762
6 P4 10 -6.297
6 P4 11 -4.344
6 P4 12 -1.414
6 P4 13 2.004
6 P4 14 4.934
6 P4 15 6.887
6 P4 16 7.375
6 P4 17 6.399
6 P4 18 5.422
6 P4 19 3.957
6 P4 20 2.981
6 P4 21 1.027
6 P4 22 -0.926
6 P4 23 -2.879
6 P4 24 -3.855
6 P4 25 -4.832
6 P4 26 -4.832
6 P4 27 -4.344
6 P4 28 -3.367
6 P4 29 -2.391
6 P4 30 -0.926
6 P4 31 0.051
6 P4 32 1.027
6 P4 33 1.516
6 P4 34 1.516
6 P4 35 1.027
6 P4 36 1.516
6 P4 37 2.492
6 P4 38 3.469
6 P4 39 4.445
6 P4 40 4.934
6 P4 41 4.445
6 P4 42 3.957
6 P4 43 3.957
6 P4 44 3.957
6 P4 45 4.445
6 P4 46 3.957
6 P4 47 2.981
6 P4 48 1.516
6 P4 49 0.051
6 P4 50 -1.414
6 P4 51 -2.391
6 P4 52 -1.902
6 P4 53 -0.437
6 P4 54 2.004
6 P4 55 3.957
6 P4 56 4.934
6 P4 57 4.445
6 P4 58 3.469
6 P4 59 2.492
6 P4 60 2.492
6 P4 61 3.957
6 P4 62 5.422
6 P4 63 7.375
6 P4 64 8.352
6 P4 65 8.352
6 P4 66 8.840
6 P4 67 8.840
6 P4 68 9.328
6 P4 69 9.816
6 P4 70 10.305
6 P4 71 10.793
6 P4 72 11.281
6 P4 73 11.281
6 P4 74 11.281
6 P4 75 11.281
6 P4 76 10.305
6 P4 77 8.840
6 P4 78 7.375
6 P4 79 6.399
6 P4 80 6.399
6 P4 81 5.422
6 P4 82 3.957
6 P4 83 2.492
6 P4 84 1.027
6 P4 85 1.027
6 P4 86 2.004
6 P4 87 2.981
6 P4 88 3.957
6 P4 89 3.957
6 P4 90 3.957
6 P4 91 3.957
6 P4 92 4.934
6 P4 93 6.399
6 P4 94 8.352
6 P4 95 10.305
6 P4 96 11.770
6 P4 97 13.234
6 P4 98 14.699
6 P4 99 15.188
6 P4 100 14.699
6 P4 101 13.723
6 P4 102 11.770
6 P4 103 10.793
6 P4 104 10.305
6 P4 105 9.328
6 P4 106 8.352
6 P4 107 6.887
6 P4 108 4.934
6 P4 109 3.957
6 P4 110 3.957
6 P4 111 4.445
6 P4 112 4.934
6 P4 113 5.422
6 P4 114 6.399
6 P4 115 6.399
6 P4 116 6.887
6 P4 117 5.910
6 P4 118 4.445
6 P4 119 1.516
6 P4 120 -0.926
6 P4 121 -1.902
6 P4 122 -1.414
6 P4 123 0.539
6 P4 124 2.492
6 P4 125 3.957
6 P4 126 4.445
6 P4 127 4.445
6 P4 128 4.445
6 P4 129 4.445
6 P4 130 4.445
6 P4 131 4.934
6 P4 132 5.422
6 P4 133 5.422
6 P4 134 6.399
6 P4 135 6.887
6 P4 136 8.352
6 P4 137 9.328
6 P4 138 9.816
6 P4 139 10.305
6 P4 140 9.328
6 P4 141 8.840
6 P4 142 7.863
6 P4 143 7.375
6 P4 144 6.887
6 P4 145 6.399
6 P4 146 5.422
6 P4 147 4.445
6 P4 148 3.957
6 P4 149 3.957
6 P4 150 4.445
6 P4 151 5.910
6 P4 152 6.887
6 P4 153 6.887
6 P4 154 6.887
6 P4 155 6.399
6 P4 156 5.910
6 P4 157 5.910
6 P4 158 5.910
6 P4 159 5.422
6 P4 160 4.934
6 P4 161 3.957
6 P4 162 3.469
6 P4 163 3.957
6 P4 164 4.445
6 P4 165 4.934
6 P4 166 4.934
6 P4 167 4.445
6 P4 168 3.469
6 P4 169 2.981
6 P4 170 2.981
6 P4 171 3.469
6 P4 172 3.957
6 P4 173 3.469
6 P4 174 2.492
6 P4 175 0.539
6 P4 176 -0.437
6 P4 177 -0.437
6 P4 178 -0.437
6 P4 179 -0.437
6 P4 180 -0.926
6 P4 181 -1.902
6 P4 182 -1.902
6 P4 183 -0.926
6 P4 184 0.051
6 P4 185 1.027
6 P4 186 0.539
6 P4 187 -0.926
6 P4 188 -1.902
6 P4 189 -1.902
6 P4 190 -0.926
6 P4 191 0.539
6 P4 192 1.516
6 P4 193 1.516
6 P4 194 1.516
6 P4 195 1.027
6 P4 196 1.027
6 P4 197 1.027
6 P4 198 1.516
6 P4 199 1.516
6 P4 200 1.027
6 P4 201 0.539
6 P4 202 0.539
6 P4 203 0.539
6 P4 204 0.539
6 P4 205 1.027
6 P4 206 1.516
6 P4 207 2.004
6 P4 208 2.004
6 P4 209 2.492
6 P4 210 2.981
6 P4 211 3.957
6 P4 212 4.934
6 P4 213 5.422
6 P4 214 4.934
6 P4 215 3.957
6 P4 216 2.492
6 P4 217 1.027
6 P4 218 0.051
6 P4 219 0.051
6 P4 220 0.539
6 P4 221 -0.437
6 P4 222 -1.414
6 P4 223 -2.391
6 P4 224 -3.367
6 P4 225 -3.367
6 P4 226 -2.879
6 P4 227 -2.391
6 P4 228 -2.391
6 P4 229 -3.367
6 P4 230 -5.320
6 P4 231 -6.785
6 P4 232 -7.273
6 P4 233 -6.297
6 P4 234 -4.344
6 P4 235 -2.391
6 P4 236 -1.414
6 P4 237 -1.902
6 P4 238 -2.879
6 P4 239 -3.367
6 P4 240 -3.367
6 P4 241 -2.879
6 P4 242 -1.414
6 P4 243 0.051
6 P4 244 1.027
6 P4 245 1.516
6 P4 246 0.051
6 P4 247 -1.902
6 P4 248 -3.367
6 P4 249 -3.855
6 P4 250 -2.879
6 P4 251 -1.414
6 P4 252 0.051
6 P4 253 0.539
6 P4 254 0.539
6 P4 255 0.051
# PZ chan 24
6 PZ 0 -2.879
6 PZ 1 -2.391
6 PZ 2 -2.391
6 PZ 3 -2.879
6 PZ 4 -3.855
6 PZ 5 -5.809
6 PZ 6 -6.785
6 PZ 7 -7.762
6 PZ 8 -7.762
6 PZ 9 -7.273
6 PZ 10 -6.297
6 PZ 11 -4.832
6 PZ 12 -1.902
6 PZ 13 1.516
6 PZ 14 3.469
6 PZ 15 3.957
6 PZ 16 3.957
6 PZ 17 2.492
6 PZ 18 1.027
6 PZ 19 0.539
6 PZ 20 -0.437
6 PZ 21 -1.414
6 PZ 22 -2.391
6 PZ 23 -3.855
6 PZ 24 -4.344
6 PZ 25 -4.832
6 PZ 26 -4.344
6 PZ 27 -3.367
6 PZ 28 -2.391
6 PZ 29 -1.414
6 PZ 30 -0.437
6 PZ 31 0.051
6 PZ 32 0.539
6 PZ 33 1.027
6 PZ 34 1.516
6 PZ 35 2.004
6 PZ 36 2.492
6 PZ 37 3.469
6 PZ 38 3.957
6 PZ 39 3.957
6 PZ 40 4.445
6 PZ 41 4.934
6 PZ 42 4.445
6 PZ 43 3.957
6 PZ 44 2.981
6 PZ 45 2.492
6 PZ 46 2.492
6 PZ 47 2.004
6 PZ 48 1.027
6 PZ 49 -0.437
6 PZ 50 -2.391
6 PZ 51 -2.879
6 PZ 52 -2.391
6 PZ 53 0.051
6 PZ 54 2.004
6 PZ 55 2.981
6 PZ 56 2.981
6 PZ 57 2.004
6 PZ 58 1.516
6 PZ 59 1.027
6 PZ 60 1.516
6 PZ 61 1.516
6 PZ 62 2.492
6 PZ 63 2.981
6 PZ 64 4.445
6 PZ 65 5.422
6 PZ 66 6.887
6 PZ 67 7.863
6 PZ 68 9.816
6 PZ 69 10.793
6 PZ 70 11.770
6 PZ 71 11.770
6 PZ 72 11.770
6 PZ 73 10.793
6 PZ 74 9.816
6 PZ 75 8.352
6 PZ 76 7.375
6 PZ 77 6.399
6 PZ 78 6.399
6 PZ 79 6.399
6 PZ 80 6.399
6 PZ 81 5.422
6 PZ 82 4.445
6 PZ 83 2.981
6 PZ 84 2.492
6 PZ 85 2.981
6 PZ 86 3.957
6 PZ 87 4.934
6 PZ 88 4.934
6 PZ 89 4.934
6 PZ 90 4.934
6 PZ 91 5.910
6 PZ 92 6.887
6 PZ 93 7.863
6 PZ 94 9.328
6 PZ 95 10.793
6 PZ 96 12.258
6 PZ 97 14.211
6 PZ 98 15.188
6 PZ 99 16.164
6 PZ 100 16.164
6 PZ 101 15.676
6 PZ 102 14.211
6 PZ 103 13.234
6 PZ 104 12.258
6 PZ 105 11.281
6 PZ 106 9.816
6 PZ 107 8.352
6 PZ 108 7.375
6 PZ 109 6.399
6 PZ 110 6.399
6 PZ 111 6.887
6 PZ 112 7.863
6 PZ 113 8.840
6 PZ 114 9.816
6 PZ 115 10.793
6 PZ 116 10.305
6 PZ 117 8.840
6 PZ 118 6.887
6 PZ 119 5.422
6 PZ 120 4.934
6 PZ 121 4.934
6 PZ 122 5.910
6 PZ 123 7.375
6 PZ 124 8.352
6 PZ 125 9.328
6 PZ 126 9.816
6 PZ 127 9.816
6 PZ 128 10.305
6 PZ 129 9.816
6 PZ 130 9.816
6 PZ 131 10.305
6 PZ 132 10.793
6 PZ 133 10.793
6 PZ 134 10.793
6 PZ 135 11.281
6 PZ 136 12.258
6 PZ 137 13.234
6 PZ 138 14.211
6 PZ 139 13.723
6 PZ 140 12.258
6 PZ 141 10.793
6 PZ 142 10.305
6 PZ 143 10.305
6 PZ 144 10.305
6 PZ 145 9.328
6 PZ 146 7.375
6 PZ 147 5.910
6 PZ 148 5.422
6 PZ 149 5.910
6 PZ 150 6.887
6 PZ 151 7.375
6 PZ 152 7.375
6 PZ 153 7.375
6 PZ 154 7.375
6 PZ 155 7.863
6 PZ 156 8.840
6 PZ 157 9.816
6 PZ 158 10.305
6 PZ 159 10.305
6 PZ 160 9.328
6 PZ 161 7.863
6 PZ 162 7.375
6 PZ 163 6.887
6 PZ 164 6.887
6 PZ 165 7.375
6 PZ 166 6.887
6 PZ 167 6.399
6 PZ 168 5.910
6 PZ 169 5.422
6 PZ 170 5.422
6 PZ 171 5.910
6 PZ 172 5.422
6 PZ 173 4.934
6 PZ 174 4.445
6 PZ 175 3.469
6 PZ 176 2.981
6 PZ 177 2.492
6 PZ 178 2.004
6 PZ 179 1.516
6 PZ 180 0.539
6 PZ 181 0.051
6 PZ 182 0.051
6 PZ 183 0.051
6 PZ 184 0.051
6 PZ 185 0.051
6 PZ 186 0.051
6 PZ 187 0.539
6 PZ 188 1.516
6 PZ 189 2.004
6 PZ 190 2.492
6 PZ 191 2.492
6 PZ 192 2.492
6 PZ 193 2.492
6 PZ 194 2.004
6 PZ 195 1.516
6 PZ 196 0.051
6 PZ 197 -0.437
6 PZ 198 -0.437
6 PZ 199 -0.437
6 PZ 200 0.051
6 PZ 201 0.051
6 PZ 202 0.051
6 PZ 203 -0.437
6 PZ 204 -0.437
6 PZ 205 0.051
6 PZ 206 0.539
6 PZ 207 1.027
6 PZ 208 1.516
6 PZ 209 2.004
6 PZ 210 3.469
6 PZ 211 4.445
6 PZ 212 4.934
6 PZ 213 4.934
6 PZ 214 4.445
6 PZ 215 3.469
6 PZ 216 2.981
6 PZ 217 2.981
6 PZ 218 2.492
6 PZ 219 2.004
6 PZ 220 1.027
6 PZ 221 0.051
6 PZ 222 -1.414
6 PZ 223 -2.391
6 PZ 224 -2.391
6 PZ 225 -1.414
6 PZ 226 -0.926
6 PZ 227 0.051
6 PZ 228 -0.437
6 PZ 229 -1.414
6 PZ 230 -3.855
6 PZ 231 -4.344
6 PZ 232 -4.344
6 PZ 233 -2.879
6 PZ 234 -0.926
6 PZ 235 0.539
6 PZ 236 1.027
6 PZ 237 0.539
6 PZ 238 0.051
6 PZ 239 -0.926
6 PZ 240 -1.414
6 PZ 241 -1.902
6 PZ 242 -1.902
6 PZ 243 -0.926
6 PZ 244 -0.437
6 PZ 245 0.051
6 PZ 246 -0.926
6 PZ 247 -2.391
6 PZ 248 -3.367
6 PZ 249 -3.367
6 PZ 250 -2.879
6 PZ 251 -1.414
6 PZ 252 -1.414
6 PZ 253 -1.414
6 PZ 254 -1.902
6 PZ 255 -1.414
# P8 chan 25
6 P8 0 -1.597
6 P8 1 -2.085
6 P8 2 -3.062
6 P8 3 -5.992
6 P8 4 -8.921
6 P8 5 -10.874
6 P8 6 -12.339
6 P8 7 -12.339
6 P8 8 -12.339
6 P8 9 -11.363
6 P8 10 -9.410
6 P8 11 -5.992
6 P8 12 -2.574
6 P8 13 0.844
6 P8 14 3.286
6 P8 15 4.262
6 P8 16 5.239
6 P8 17 5.239
6 P8 18 4.262
6 P8 19 2.309
6 P8 20 -0.132
6 P8 21 -3.062
6 P8 22 -4.527
6 P8 23 -5.015
6 P8 24 -5.015
6 P8 25 -6.480
6 P8 26 -6.968
6 P8 27 -6.480
6 P8 28 -5.015
6 P8 29 -3.550
6 P8 30 -2.085
6 P8 31 -1.597
6 P8 32 -1.597
6 P8 33 -2.085
6 P8 34 -1.109
6 P8 35 -0.132
6 P8 36 0.844
6 P8 37 1.333
6 P8 38 1.333
6 P8 39 1.333
6 P8 40 0.844
6 P8 41 1.821
6 P8 42 2.797
6 P8 43 3.774
6 P8 44 3.774
6 P8 45 3.286
6 P8 46 2.797
6 P8 47 2.309
6 P8 48 1.821
6 P8 49 1.333
6 P8 50 0.844
6 P8 51 -0.132
6 P8 52 0.356
6 P8 53 1.821
6 P8 54 3.286
6 P8 55 3.286
6 P8 56 2.309
6 P8 57 -0.132
6 P8 58 -1.597
6 P8 59 -1.109
6 P8 60 1.333
6 P8 61 4.751
6 P8 62 7.680
6 P8 63 9.145
6 P8 64 8.169
6 P8 65 7.192
6 P8 66 6.704
6 P8 67 7.192
6 P8 68 8.657
6 P8 69 9.633
6 P8 70 10.610
6 P8 71 10.610
6 P8 72 11.098
6 P8 73 11.098
6 P8 74 11.098
6 P8 75 10.610
6 P8 76 10.122
6 P8 77 10.122
6 P8 78 9.633
6 P8 79 8.169
6 P8 80 5.727
6 P8 81 2.309
6 P8 82 -0.621
6 P8 83 -2.085
6 P8 84 -2.085
6 P8 85 -2.085
6 P8 86 -2.085
6 P8 87 -3.062
6 P8 88 -3.062
6 P8 89 -2.085
6 P8 90 -1.109
6 P8 91 0.356
6 P8 92 0.844
6 P8 93 1.821
6 P8 94 2.797
6 P8 95 5.727
6 P8 96 8.657
6 P8 97 11.587
6 P8 98 12.563
6 P8 99 12.075
6 P8 100 10.610
6 P8 101 8.657
6 P8 102 7.192
6 P8 103 6.215
6 P8 104 6.215
6 P8 105 5.239
6 P8 106 4.262
6 P8 107 2.309
6 P8 108 0.844
6 P8 109 -0.132
6 P8 110 -0.621
6 P8 111 -0.132
6 P8 112 0.356
6 P8 113 1.821
6 P8 114 2.309
6 P8 115 2.797
6 P8 116 2.797
6 P8 117 0.356
6 P8 118 -2.574
6 P8 119 -6.480
6 P8 120 -9.410
6 P8 121 -10.386
6 P8 122 -8.433
6 P8 123 -5.503
6 P8 124 -2.574
6 P8 125 -1.109
6 P8 126 -1.109
6 P8 127 -2.085
6 P8 128 -3.062
6 P8 129 -3.550
6 P8 130 -4.038
6 P8 131 -3.550
6 P8 132 -2.574
6 P8 133 -1.109
6 P8 134 1.333
6 P8 135 3.774
6 P8 136 5.239
6 P8 137 5.727
6 P8 138 5.727
6 P8 139 5.239
6 P8 140 4.751
6 P8 141 4.751
6 P8 142 4.262
6 P8 143 3.286
6 P8 144 2.309
6 P8 145 0.844
6 P8 146 -0.132
6 P8 147 -0.132
6 P8 148 0.356
6 P8 149 0.356
6 P8 150 0.844
6 P8 151 1.333
6 P8 152 1.333
6 P8 153 1.333
6 P8 154 1.333
6 P8 155 0.844
6 P8 156 -0.132
6 P8 157 -0.621
6 P8 158 -0.621
6 P8 159 -0.621
6 P8 160 -1.109
6 P8 161 -1.597
6 P8 162 -2.085
6 P8 163 -2.085
6 P8 164 -1.109
6 P8 165 0.844
6 P8 166 1.821
6 P8 167 1.333
6 P8 168 -0.132
6 P8 169 -2.085
6 P8 170 -3.062
6 P8 171 -3.062
6 P8 172 -3.062
6 P8 173 -3.550
6 P8 174 -6.480
6 P8 175 -8.921
6 P8 176 -10.874
6 P8 177 -10.386
6 P8 178 -9.410
6 P8 179 -9.410
6 P8 180 -10.386
6 P8 181 -11.851
6 P8 182 -12.339
6 P8 183 -10.874
6 P8 184 -8.921
6 P8 185 -8.433
6 P8 186 -9.898
6 P8 187 -11.851
6 P8 188 -13.316
6 P8 189 -13.316
6 P8 190 -11.851
6 P8 191 -10.386
6 P8 192 -9.898
6 P8 193 -9.898
6 P8 194 -9.410
6 P8 195 -7.945
6 P8 196 -5.992
6 P8 197 -4.527
6 P8 198 -2.574
6 P8 199 -2.085
6 P8 200 -2.574
6 P8 201 -3.550
6 P8 202 -4.527
6 P8 203 -4.527
6 P8 204 -4.527
6 P8 205 -4.527
6 P8 206 -4.527
6 P8 207 -5.503
6 P8 208 -5.992
6 P8 209 -5.992
6 P8 210 -5.503
6 P8 211 -4.527
6 P8 212 -3.550
6 P8 213 -2.574
6 P8 214 -2.574
6 P8 215 -4.038
6 P8 216 -5.992
6 P8 217 -8.433
6 P8 218 -9.410
6 P8 219 -8.921
6 P8 220 -6.968
6 P8 221 -5.992
6 P8 222 -6.480
6 P8 223 -8.921
6 P8 224 -11.363
6 P8 225 -12.828
6 P8 226 -12.339
6 P8 227 -10.874
6 P8 228 -9.898
6 P8 229 -10.386
6 P8 230 -12.339
6 P8 231 -13.804
6 P8 232 -14.781
6 P8 233 -12.828
6 P8 234 -10.386
6 P8 235 -7.945
6 P8 236 -6.480
6 P8 237 -6.480
6 P8 238 -7.945
6 P8 239 -9.410
6 P8 240 -9.898
6 P8 241 -8.921
6 P8 242 -7.456
6 P8 243 -5.992
6 P8 244 -5.503
6 P8 245 -5.992
6 P8 246 -7.456
6 P8 247 -9.410
6 P8 248 -10.874
6 P8 249 -10.874
6 P8 250 -10.386
6 P8 251 -8.433
6 P8 252 -6.480
6 P8 253 -4.527
6 P8 254 -3.550
6 P8 255 -2.574
# P7 chan 26
6 P7 0 -4.445
6 P7 1 -3.469
6 P7 2 -2.004
6 P7 3 -0.539
6 P7 4 -1.516
6 P7 5 -3.957
6 P7 6 -6.887
6 P7 7 -9.328
6 P7 8 -9.816
6 P7 9 -8.840
6 P7 10 -7.375
6 P7 11 -5.910
6 P7 12 -4.934
6 P7 13 -3.957
6 P7 14 -2.981
6 P7 15 -2.492
6 P7 16 -2.492
6 P7 17 -2.981
6 P7 18 -3.469
6 P7 19 -2.981
6 P7 20 -2.492
6 P7 21 -2.492
6 P7 22 -2.492
6 P7 23 -2.981
6 P7 24 -3.957
6 P7 25 -5.910
6 P7 26 -7.375
6 P7 27 -8.840
6 P7 28 -8.352
6 P7 29 -5.910
6 P7 30 -2.492
6 P7 31 0.926
6 P7 32 2.879
6 P7 33 2.879
6 P7 34 2.879
6 P7 35 3.855
6 P7 36 5.320
6 P7 37 6.785
6 P7 38 8.738
6 P7 39 8.250
6 P7 40 7.762
6 P7 41 6.297
6 P7 42 4.832
6 P7 43 1.902
6 P7 44 -0.539
6 P7 45 -2.004
6 P7 46 -2.004
6 P7 47 -1.027
6 P7 48 -0.051
6 P7 49 0.437
6 P7 50 -0.051
6 P7 51 -0.539
6 P7 52 -0.051
6 P7 53 0.437
6 P7 54 1.414
6 P7 55 1.902
6 P7 56 2.391
6 P7 57 2.879
6 P7 58 3.855
6 P7 59 3.855
6 P7 60 3.367
6 P7 61 2.391
6 P7 62 1.414
6 P7 63 1.902
6 P7 64 3.855
6 P7 65 6.785
6 P7 66 10.691
6 P7 67 13.621
6 P7 68 16.551
6 P7 69 18.504
6 P7 70 18.504
6 P7 71 16.551
6 P7 72 13.621
6 P7 73 10.691
6 P7 74 8.738
6 P7 75 7.273
6 P7 76 5.809
6 P7 77 3.367
6 P7 78 1.414
6 P7 79 -0.539
6 P7 80 -1.516
6 P7 81 -2.492
6 P7 82 -4.445
6 P7 83 -6.399
6 P7 84 -6.887
6 P7 85 -5.910
6 P7 86 -4.445
6 P7 87 -2.981
6 P7 88 -2.981
6 P7 89 -3.957
6 P7 90 -4.934
6 P7 91 -4.445
6 P7 92 -2.004
6 P7 93 1.902
6 P7 94 5.320
6 P7 95 7.273
6 P7 96 8.250
6 P7 97 8.738
6 P7 98 8.738
6 P7 99 9.226
6 P7 100 10.203
6 P7 101 9.715
6 P7 102 8.738
6 P7 103 7.273
6 P7 104 6.785
6 P7 105 7.273
6 P7 106 7.273
6 P7 107 5.809
6 P7 108 2.391
6 P7 109 -1.027
6 P7 110 -2.492
6 P7 111 -2.004
6 P7 112 0.926
6 P7 113 3.855
6 P7 114 4.832
6 P7 115 4.832
6 P7 116 4.344
6 P7 117 3.855
6 P7 118 2.879
6 P7 119 1.414
6 P7 120 -0.539
6 P7 121 -1.516
6 P7 122 -1.027
6 P7 123 0.437
6 P7 124 2.391
6 P7 125 3.367
6 P7 126 4.344
6 P7 127 4.344
6 P7 128 4.344
6 P7 129 4.344
6 P7 130 3.855
6 P7 131 3.367
6 P7 132 2.879
6 P7 133 2.391
6 P7 134 2.879
6 P7 135 3.855
6 P7 136 4.832
6 P7 137 5.809
6 P7 138 6.297
6 P7 139 6.297
6 P7 140 6.297
6 P7 141 5.809
6 P7 142 5.320
6 P7 143 4.344
6 P7 144 2.879
6 P7 145 2.391
6 P7 146 1.414
6 P7 147 0.926
6 P7 148 0.437
6 P7 149 -0.539
6 P7 150 -0.539
6 P7 151 -1.027
6 P7 152 -1.027
6 P7 153 -1.516
6 P7 154 -2.004
6 P7 155 -1.516
6 P7 156 0.437
6 P7 157 2.879
6 P7 158 4.344
6 P7 159 3.855
6 P7 160 2.391
6 P7 161 -0.051
6 P7 162 -1.516
6 P7 163 -1.516
6 P7 164 -1.027
6 P7 165 -0.051
6 P7 166 -1.027
6 P7 167 -2.004
6 P7 168 -3.469
6 P7 169 -4.445
6 P7 170 -4.934
6 P7 171 -4.934
6 P7 172 -5.910
6 P7 173 -6.887
6 P7 174 -8.352
6 P7 175 -9.328
6 P7 176 -9.328
6 P7 177 -8.840
6 P7 178 -8.840
6 P7 179 -8.840
6 P7 180 -9.328
6 P7 181 -9.328
6 P7 182 -9.328
6 P7 183 -9.816
6 P7 184 -10.793
6 P7 185 -12.258
6 P7 186 -12.746
6 P7 187 -11.770
6 P7 188 -9.816
6 P7 189 -7.375
6 P7 190 -5.910
6 P7 191 -5.910
6 P7 192 -6.399
6 P7 193 -6.399
6 P7 194 -6.399
6 P7 195 -5.910
6 P7 196 -5.422
6 P7 197 -5.422
6 P7 198 -5.422
6 P7 199 -5.910
6 P7 200 -5.910
6 P7 201 -6.399
6 P7 202 -6.887
6 P7 203 -6.399
6 P7 204 -5.422
6 P7 205 -3.469
6 P7 206 -2.004
6 P7 207 -1.027
6 P7 208 -0.539
6 P7 209 -1.027
6 P7 210 -2.004
6 P7 211 -2.981
6 P7 212 -3.469
6 P7 213 -3.469
6 P7 214 -2.981
6 P7 215 -2.492
6 P7 216 -1.516
6 P7 217 -2.004
6 P7 218 -2.492
6 P7 219 -4.445
6 P7 220 -5.910
6 P7 221 -7.375
6 P7 222 -8.840
6 P7 223 -9.328
6 P7 224 -8.840
6 P7 225 -7.863
6 P7 226 -6.399
6 P7 227 -5.422
6 P7 228 -4.934
6 P7 229 -4.934
6 P7 230 -5.422
6 P7 231 -4.934
6 P7 232 -4.445
6 P7 233 -3.469
6 P7 234 -2.492
6 P7 235 -1.516
6 P7 236 -1.027
6 P7 237 -1.027
6 P7 238 -1.027
6 P7 239 -1.516
6 P7 240 -1.516
6 P7 241 -1.516
6 P7 242 -1.027
6 P7 243 -1.027
6 P7 244 -0.539
6 P7 245 -0.539
6 P7 246 -1.027
6 P7 247 -1.516
6 P7 248 -1.516
6 P7 249 -1.027
6 P7 250 -1.516
6 P7 251 -2.981
6 P7 252 -4.934
6 P7 253 -6.887
6 P7 254 -6.887
6 P7 255 -4.934
# PO2 chan 27
6 PO2 0 -2.584
6 PO2 1 -0.631
6 PO2 2 -0.142
6 PO2 3 -1.607
6 PO2 4 -4.049
6 PO2 5 -6.490
6 PO2 6 -7.955
6 PO2 7 -8.931
6 PO2 8 -9.908
6 PO2 9 -9.420
6 PO2 10 -8.443
6 PO2 11 -5.514
6 PO2 12 -1.119
6 PO2 13 2.787
6 PO2 14 6.205
6 PO2 15 7.670
6 PO2 16 7.182
6 PO2 17 5.717
6 PO2 18 3.764
6 PO2 19 1.811
6 PO2 20 -0.631
6 PO2 21 -1.607
6 PO2 22 -2.096
6 PO2 23 -2.584
6 PO2 24 -3.560
6 PO2 25 -5.025
6 PO2 26 -6.002
6 PO2 27 -5.514
6 PO2 28 -4.049
6 PO2 29 -1.119
6 PO2 30 0.834
6 PO2 31 0.834
6 PO2 32 0.346
6 PO2 33 -0.142
6 PO2 34 0.346
6 PO2 35 1.322
6 PO2 36 3.276
6 PO2 37 5.229
6 PO2 38 6.205
6 PO2 39 6.205
6 PO2 40 6.205
6 PO2 41 6.205
6 PO2 42 5.717
6 PO2 43 5.229
6 PO2 44 5.229
6 PO2 45 5.717
6 PO2 46 5.229
6 PO2 47 4.740
6 PO2 48 2.787
6 PO2 49 0.346
6 PO2 50 -1.119
6 PO2 51 -2.096
6 PO2 52 -1.119
6 PO2 53 1.322
6 PO2 54 2.787
6 PO2 55 3.764
6 PO2 56 3.764
6 PO2 57 2.787
6 PO2 58 2.299
6 PO2 59 2.787
6 PO2 60 3.764
6 PO2 61 5.229
6 PO2 62 6.694
6 PO2 63 8.158
6 PO2 64 8.647
6 PO2 65 9.135
6 PO2 66 9.623
6 PO2 67 10.600
6 PO2 68 12.065
6 PO2 69 13.529
6 PO2 70 14.506
6 PO2 71 14.506
6 PO2 72 14.018
6 PO2 73 13.529
6 PO2 74 12.065
6 PO2 75 10.600
6 PO2 76 9.135
6 PO2 77 7.670
6 PO2 78 6.694
6 PO2 79 6.694
6 PO2 80 6.205
6 PO2 81 4.740
6 PO2 82 2.787
6 PO2 83 0.346
6 PO2 84 -0.631
6 PO2 85 -0.631
6 PO2 86 -0.142
6 PO2 87 0.834
6 PO2 88 1.322
6 PO2 89 2.299
6 PO2 90 3.276
6 PO2 91 4.740
6 PO2 92 5.717
6 PO2 93 7.182
6 PO2 94 8.158
6 PO2 95 9.623
6 PO2 96 12.065
6 PO2 97 14.018
6 PO2 98 16.459
6 PO2 99 16.459
6 PO2 100 16.459
6 PO2 101 15.483
6 PO2 102 14.018
6 PO2 103 13.041
6 PO2 104 12.065
6 PO2 105 10.111
6 PO2 106 7.182
6 PO2 107 4.740
6 PO2 108 2.787
6 PO2 109 1.811
6 PO2 110 1.811
6 PO2 111 2.299
6 PO2 112 3.276
6 PO2 113 4.252
6 PO2 114 6.205
6 PO2 115 7.670
6 PO2 116 7.670
6 PO2 117 5.717
6 PO2 118 2.299
6 PO2 119 -1.119
6 PO2 120 -3.072
6 PO2 121 -2.096
6 PO2 122 -0.631
6 PO2 123 1.811
6 PO2 124 3.764
6 PO2 125 5.229
6 PO2 126 6.205
6 PO2 127 6.205
6 PO2 128 5.717
6 PO2 129 5.229
6 PO2 130 4.740
6 PO2 131 4.252
6 PO2 132 4.740
6 PO2 133 5.229
6 PO2 134 5.717
6 PO2 135 6.694
6 PO2 136 7.670
6 PO2 137 9.135
6 PO2 138 9.623
6 PO2 139 9.623
6 PO2 140 8.647
6 PO2 141 7.670
6 PO2 142 6.694
6 PO2 143 6.205
6 PO2 144 6.205
6 PO2 145 5.229
6 PO2 146 3.276
6 PO2 147 1.811
6 PO2 148 0.834
6 PO2 149 1.322
6 PO2 150 1.811
6 PO2 151 2.299
6 PO2 152 2.299
6 PO2 153 2.299
6 PO2 154 2.299
6 PO2 155 3.276
6 PO2 156 4.740
6 PO2 157 5.717
6 PO2 158 6.694
6 PO2 159 6.205
6 PO2 160 5.717
6 PO2 161 4.252
6 PO2 162 3.764
6 PO2 163 3.764
6 PO2 164 4.252
6 PO2 165 4.740
6 PO2 166 4.252
6 PO2 167 3.276
6 PO2 168 2.299
6 PO2 169 2.299
6 PO2 170 2.787
6 PO2 171 2.787
6 PO2 172 2.299
6 PO2 173 0.346
6 PO2 174 -2.096
6 PO2 175 -4.049
6 PO2 176 -5.025
6 PO2 177 -5.514
6 PO2 178 -5.025
6 PO2 179 -5.025
6 PO2 180 -5.514
6 PO2 181 -6.002
6 PO2 182 -5.514
6 PO2 183 -5.025
6 PO2 184 -4.049
6 PO2 185 -4.049
6 PO2 186 -4.537
6 PO2 187 -5.025
6 PO2 188 -5.025
6 PO2 189 -4.537
6 PO2 190 -3.560
6 PO2 191 -2.584
6 PO2 192 -2.584
6 PO2 193 -2.584
6 PO2 194 -2.584
6 PO2 195 -3.072
6 PO2 196 -3.560
6 PO2 197 -3.560
6 PO2 198 -3.072
6 PO2 199 -3.072
6 PO2 200 -3.072
6 PO2 201 -3.560
6 PO2 202 -4.049
6 PO2 203 -4.049
6 PO2 204 -3.560
6 PO2 205 -2.584
6 PO2 206 -1.607
6 PO2 207 -1.607
6 PO2 208 -1.607
6 PO2 209 -1.607
6 PO2 210 -0.631
6 PO2 211 0.834
6 PO2 212 1.811
6 PO2 213 2.787
6 PO2 214 1.811
6 PO2 215 0.834
6 PO2 216 -0.142
6 PO2 217 -0.631
6 PO2 218 -1.119
6 PO2 219 -2.096
6 PO2 220 -2.584
6 PO2 221 -3.560
6 PO2 222 -5.025
6 PO2 223 -6.002
6 PO2 224 -6.002
6 PO2 225 -6.002
6 PO2 226 -5.514
6 PO2 227 -5.514
6 PO2 228 -6.002
6 PO2 229 -7.467
6 PO2 230 -9.420
6 PO2 231 -10.885
6 PO2 232 -10.396
6 PO2 233 -9.420
6 PO2 234 -7.467
6 PO2 235 -5.514
6 PO2 236 -5.025
6 PO2 237 -4.537
6 PO2 238 -5.025
6 PO2 239 -5.514
6 PO2 240 -6.490
6 PO2 241 -6.490
6 PO2 242 -6.002
6 PO2 243 -4.537
6 PO2 244 -3.072
6 PO2 245 -3.072
6 PO2 246 -4.049
6 PO2 247 -5.514
6 PO2 248 -6.490
6 PO2 249 -6.490
6 PO2 250 -6.002
6 PO2 251 -4.537
6 PO2 252 -4.049
6 PO2 253 -3.560
6 PO2 254 -4.049
6 PO2 255 -3.560
# PO1 chan 28
6 PO1 0 -1.292
6 PO1 1 -2.757
6 PO1 2 -4.222
6 PO1 3 -3.733
6 PO1 4 -3.733
6 PO1 5 -4.222
6 PO1 6 -6.175
6 PO1 7 -8.616
6 PO1 8 -10.081
6 PO1 9 -9.593
6 PO1 10 -7.151
6 PO1 11 -4.222
6 PO1 12 -0.804
6 PO1 13 2.126
6 PO1 14 4.079
6 PO1 15 5.056
6 PO1 16 4.567
6 PO1 17 3.103
6 PO1 18 1.638
6 PO1 19 0.661
6 PO1 20 0.173
6 PO1 21 -0.804
6 PO1 22 -2.268
6 PO1 23 -3.733
6 PO1 24 -5.686
6 PO1 25 -6.663
6 PO1 26 -7.151
6 PO1 27 -6.175
6 PO1 28 -4.710
6 PO1 29 -2.757
6 PO1 30 -0.804
6 PO1 31 0.173
6 PO1 32 1.149
6 PO1 33 1.638
6 PO1 34 2.614
6 PO1 35 3.591
6 PO1 36 4.567
6 PO1 37 5.544
6 PO1 38 6.032
6 PO1 39 7.009
6 PO1 40 7.497
6 PO1 41 7.985
6 PO1 42 7.497
6 PO1 43 6.521
6 PO1 44 5.056
6 PO1 45 3.591
6 PO1 46 2.126
6 PO1 47 1.149
6 PO1 48 -0.315
6 PO1 49 -0.804
6 PO1 50 -1.780
6 PO1 51 -1.780
6 PO1 52 -1.292
6 PO1 53 0.661
6 PO1 54 2.614
6 PO1 55 3.591
6 PO1 56 3.591
6 PO1 57 3.103
6 PO1 58 1.638
6 PO1 59 1.149
6 PO1 60 0.661
6 PO1 61 1.149
6 PO1 62 2.126
6 PO1 63 3.103
6 PO1 64 3.591
6 PO1 65 5.056
6 PO1 66 6.521
6 PO1 67 9.450
6 PO1 68 12.868
6 PO1 69 15.798
6 PO1 70 17.263
6 PO1 71 17.263
6 PO1 72 15.798
6 PO1 73 13.357
6 PO1 74 11.403
6 PO1 75 8.962
6 PO1 76 7.009
6 PO1 77 5.056
6 PO1 78 4.079
6 PO1 79 3.103
6 PO1 80 2.126
6 PO1 81 0.661
6 PO1 82 -0.804
6 PO1 83 -2.268
6 PO1 84 -3.733
6 PO1 85 -4.222
6 PO1 86 -3.733
6 PO1 87 -2.757
6 PO1 88 -1.292
6 PO1 89 -0.804
6 PO1 90 -0.315
6 PO1 91 0.173
6 PO1 92 1.149
6 PO1 93 3.103
6 PO1 94 5.544
6 PO1 95 8.962
6 PO1 96 11.892
6 PO1 97 13.845
6 PO1 98 14.821
6 PO1 99 14.821
6 PO1 100 14.333
6 PO1 101 13.357
6 PO1 102 12.380
6 PO1 103 11.403
6 PO1 104 9.939
6 PO1 105 7.985
6 PO1 106 6.521
6 PO1 107 4.567
6 PO1 108 2.126
6 PO1 109 0.661
6 PO1 110 -0.804
6 PO1 111 -1.780
6 PO1 112 -0.804
6 PO1 113 0.661
6 PO1 114 2.614
6 PO1 115 4.079
6 PO1 116 4.567
6 PO1 117 3.591
6 PO1 118 1.638
6 PO1 119 -0.315
6 PO1 120 -1.292
6 PO1 121 -1.292
6 PO1 122 -0.315
6 PO1 123 0.661
6 PO1 124 3.103
6 PO1 125 4.567
6 PO1 126 6.521
6 PO1 127 7.497
6 PO1 128 7.497
6 PO1 129 6.521
6 PO1 130 5.056
6 PO1 131 4.567
6 PO1 132 4.567
6 PO1 133 5.544
6 PO1 134 6.521
6 PO1 135 7.497
6 PO1 136 8.474
6 PO1 137 8.962
6 PO1 138 8.962
6 PO1 139 8.962
6 PO1 140 7.985
6 PO1 141 7.009
6 PO1 142 6.521
6 PO1 143 6.032
6 PO1 144 5.056
6 PO1 145 3.591
6 PO1 146 2.614
6 PO1 147 1.149
6 PO1 148 -0.315
6 PO1 149 -0.804
6 PO1 150 -0.315
6 PO1 151 0.173
6 PO1 152 1.149
6 PO1 153 1.149
6 PO1 154 0.661
6 PO1 155 1.149
6 PO1 156 2.126
6 PO1 157 4.079
6 PO1 158 6.032
6 PO1 159 6.521
6 PO1 160 6.032
6 PO1 161 4.567
6 PO1 162 3.103
6 PO1 163 2.126
6 PO1 164 1.638
6 PO1 165 1.149
6 PO1 166 1.149
6 PO1 167 0.661
6 PO1 168 0.173
6 PO1 169 -0.315
6 PO1 170 0.173
6 PO1 171 0.173
6 PO1 172 0.661
6 PO1 173 0.173
6 PO1 174 -1.292
6 PO1 175 -2.757
6 PO1 176 -3.733
6 PO1 177 -4.222
6 PO1 178 -3.245
6 PO1 179 -3.245
6 PO1 180 -3.733
6 PO1 181 -4.222
6 PO1 182 -4.710
6 PO1 183 -5.686
6 PO1 184 -5.686
6 PO1 185 -6.175
6 PO1 186 -6.175
6 PO1 187 -6.175
6 PO1 188 -5.198
6 PO1 189 -3.733
6 PO1 190 -2.268
6 PO1 191 -1.292
6 PO1 192 -1.780
6 PO1 193 -2.268
6 PO1 194 -3.245
6 PO1 195 -3.733
6 PO1 196 -4.222
6 PO1 197 -4.710
6 PO1 198 -4.710
6 PO1 199 -5.198
6 PO1 200 -4.710
6 PO1 201 -4.222
6 PO1 202 -4.222
6 PO1 203 -3.733
6 PO1 204 -4.222
6 PO1 205 -4.222
6 PO1 206 -3.245
6 PO1 207 -2.757
6 PO1 208 -1.780
6 PO1 209 -1.780
6 PO1 210 -1.780
6 PO1 211 -2.268
6 PO1 212 -2.268
6 PO1 213 -1.780
6 PO1 214 -0.804
6 PO1 215 -0.315
6 PO1 216 0.173
6 PO1 217 -0.804
6 PO1 218 -1.780
6 PO1 219 -3.245
6 PO1 220 -4.222
6 PO1 221 -4.710
6 PO1 222 -5.686
6 PO1 223 -6.175
6 PO1 224 -5.686
6 PO1 225 -5.198
6 PO1 226 -4.222
6 PO1 227 -3.245
6 PO1 228 -3.733
6 PO1 229 -4.710
6 PO1 230 -6.175
6 PO1 231 -7.640
6 PO1 232 -7.640
6 PO1 233 -6.663
6 PO1 234 -4.222
6 PO1 235 -2.268
6 PO1 236 -0.804
6 PO1 237 -1.292
6 PO1 238 -2.268
6 PO1 239 -3.733
6 PO1 240 -5.198
6 PO1 241 -6.175
6 PO1 242 -6.175
6 PO1 243 -5.686
6 PO1 244 -5.198
6 PO1 245 -4.222
6 PO1 246 -3.733
6 PO1 247 -4.222
6 PO1 248 -5.686
6 PO1 249 -7.151
6 PO1 250 -8.128
6 PO1 251 -7.640
6 PO1 252 -7.151
6 PO1 253 -6.175
6 PO1 254 -6.175
6 PO1 255 -5.686
# O2 chan 29
6 O2 0 -0.387
6 O2 1 -0.875
6 O2 2 -1.363
6 O2 3 -1.851
6 O2 4 -2.828
6 O2 5 -4.781
6 O2 6 -7.222
6 O2 7 -9.664
6 O2 8 -11.129
6 O2 9 -10.640
6 O2 10 -9.664
6 O2 11 -7.222
6 O2 12 -3.316
6 O2 13 -0.387
6 O2 14 3.031
6 O2 15 4.496
6 O2 16 4.985
6 O2 17 4.496
6 O2 18 4.008
6 O2 19 4.008
6 O2 20 3.520
6 O2 21 3.031
6 O2 22 1.567
6 O2 23 -0.875
6 O2 24 -3.316
6 O2 25 -5.269
6 O2 26 -6.734
6 O2 27 -7.222
6 O2 28 -6.246
6 O2 29 -4.293
6 O2 30 -1.851
6 O2 31 0.102
6 O2 32 2.055
6 O2 33 2.543
6 O2 34 2.543
6 O2 35 3.031
6 O2 36 3.520
6 O2 37 4.008
6 O2 38 4.496
6 O2 39 4.985
6 O2 40 4.985
6 O2 41 4.496
6 O2 42 4.985
6 O2 43 5.961
6 O2 44 6.938
6 O2 45 7.426
6 O2 46 6.449
6 O2 47 4.985
6 O2 48 3.031
6 O2 49 0.590
6 O2 50 -0.875
6 O2 51 -2.340
6 O2 52 -2.828
6 O2 53 -1.851
6 O2 54 0.102
6 O2 55 1.567
6 O2 56 2.543
6 O2 57 2.055
6 O2 58 0.590
6 O2 59 -0.387
6 O2 60 -0.387
6 O2 61 1.567
6 O2 62 4.008
6 O2 63 5.961
6 O2 64 7.914
6 O2 65 8.403
6 O2 66 9.379
6 O2 67 10.844
6 O2 68 13.285
6 O2 69 15.238
6 O2 70 16.703
6 O2 71 16.703
6 O2 72 15.727
6 O2 73 14.262
6 O2 74 11.820
6 O2 75 9.379
6 O2 76 6.449
6 O2 77 4.008
6 O2 78 2.055
6 O2 79 1.078
6 O2 80 0.102
6 O2 81 -1.363
6 O2 82 -3.316
