# co2a0000379.rd
# 120 trials, 64 chans, 416 samples 368 post_stim samples
# 3.906000 msecs uV
# S2 match , trial 109
# FP1 chan 0
109 FP1 0 4.893
109 FP1 1 2.940
109 FP1 2 5.381
109 FP1 3 5.870
109 FP1 4 0.010
109 FP1 5 -11.220
109 FP1 6 -20.009
109 FP1 7 -19.521
109 FP1 8 -6.826
109 FP1 9 11.241
109 FP1 10 24.913
109 FP1 11 25.889
109 FP1 12 15.635
109 FP1 13 1.963
109 FP1 14 -5.849
109 FP1 15 -3.896
109 FP1 16 1.963
109 FP1 17 4.405
109 FP1 18 -0.966
109 FP1 19 -11.220
109 FP1 20 -20.498
109 FP1 21 -23.427
109 FP1 22 -20.009
109 FP1 23 -14.150
109 FP1 24 -8.779
109 FP1 25 -5.849
109 FP1 26 -3.896
109 FP1 27 -1.943
109 FP1 28 0.498
109 FP1 29 1.475
109 FP1 30 1.475
109 FP1 31 0.498
109 FP1 32 0.987
109 FP1 33 3.916
109 FP1 34 7.823
109 FP1 35 9.288
109 FP1 36 5.870
109 FP1 37 -2.920
109 FP1 38 -10.732
109 FP1 39 -10.732
109 FP1 40 1.475
109 FP1 41 21.006
109 FP1 42 37.120
109 FP1 43 39.561
109 FP1 44 26.377
109 FP1 45 6.358
109 FP1 46 -7.802
109 FP1 47 -11.709
109 FP1 48 -8.291
109 FP1 49 -5.361
109 FP1 50 -7.314
109 FP1 51 -11.220
109 FP1 52 -11.709
109 FP1 53 -7.802
109 FP1 54 -4.873
109 FP1 55 -8.779
109 FP1 56 -19.033
109 FP1 57 -30.263
109 FP1 58 -34.658
109 FP1 59 -31.728
109 FP1 60 -25.380
109 FP1 61 -21.474
109 FP1 62 -20.986
109 FP1 63 -21.962
109 FP1 64 -19.033
109 FP1 65 -14.638
109 FP1 66 -11.709
109 FP1 67 -14.150
109 FP1 68 -20.498
109 FP1 69 -25.869
109 FP1 70 -26.845
109 FP1 71 -24.892
109 FP1 72 -23.916
109 FP1 73 -26.845
109 FP1 74 -31.240
109 FP1 75 -32.216
109 FP1 76 -28.310
109 FP1 77 -22.451
109 FP1 78 -18.545
109 FP1 79 -18.545
109 FP1 80 -20.986
109 FP1 81 -21.474
109 FP1 82 -20.009
109 FP1 83 -18.056
109 FP1 84 -20.009
109 FP1 85 -25.380
109 FP1 86 -32.705
109 FP1 87 -38.076
109 FP1 88 -40.517
109 FP1 89 -41.494
109 FP1 90 -42.470
109 FP1 91 -43.447
109 FP1 92 -41.982
109 FP1 93 -35.634
109 FP1 94 -26.357
109 FP1 95 -17.568
109 FP1 96 -15.127
109 FP1 97 -20.986
109 FP1 98 -32.216
109 FP1 99 -42.470
109 FP1 100 -45.888
109 FP1 101 -41.494
109 FP1 102 -34.658
109 FP1 103 -31.240
109 FP1 104 -34.170
109 FP1 105 -40.517
109 FP1 106 -45.888
109 FP1 107 -46.865
109 FP1 108 -44.423
109 FP1 109 -40.517
109 FP1 110 -37.099
109 FP1 111 -35.146
109 FP1 112 -33.681
109 FP1 113 -34.170
109 FP1 114 -36.123
109 FP1 115 -38.564
109 FP1 116 -38.076
109 FP1 117 -31.728
109 FP1 118 -23.427
109 FP1 119 -19.521
109 FP1 120 -23.916
109 FP1 121 -33.681
109 FP1 122 -40.517
109 FP1 123 -38.076
109 FP1 124 -28.798
109 FP1 125 -21.962
109 FP1 126 -25.869
109 FP1 127 -36.123
109 FP1 128 -43.447
109 FP1 129 -37.587
109 FP1 130 -21.474
109 FP1 131 -6.337
109 FP1 132 -4.384
109 FP1 133 -15.615
109 FP1 134 -28.798
109 FP1 135 -32.216
109 FP1 136 -23.916
109 FP1 137 -13.662
109 FP1 138 -12.685
109 FP1 139 -23.427
109 FP1 140 -37.587
109 FP1 141 -44.912
109 FP1 142 -43.935
109 FP1 143 -41.494
109 FP1 144 -46.377
109 FP1 145 -57.607
109 FP1 146 -63.955
109 FP1 147 -55.654
109 FP1 148 -32.705
109 FP1 149 -9.267
109 FP1 150 0.010
109 FP1 151 -9.755
109 FP1 152 -27.822
109 FP1 153 -38.076
109 FP1 154 -33.193
109 FP1 155 -19.521
109 FP1 156 -9.267
109 FP1 157 -10.732
109 FP1 158 -19.521
109 FP1 159 -24.892
109 FP1 160 -21.474
109 FP1 161 -10.732
109 FP1 162 -1.943
109 FP1 163 -0.478
109 FP1 164 -4.873
109 FP1 165 -8.291
109 FP1 166 -7.314
109 FP1 167 -2.920
109 FP1 168 -0.478
109 FP1 169 -2.431
109 FP1 170 -7.802
109 FP1 171 -10.732
109 FP1 172 -6.826
109 FP1 173 1.963
109 FP1 174 11.729
109 FP1 175 14.659
109 FP1 176 9.288
109 FP1 177 -2.431
109 FP1 178 -12.685
109 FP1 179 -14.638
109 FP1 180 -7.314
109 FP1 181 3.916
109 FP1 182 11.729
109 FP1 183 11.729
109 FP1 184 5.870
109 FP1 185 -0.966
109 FP1 186 -5.361
109 FP1 187 -8.779
109 FP1 188 -12.197
109 FP1 189 -15.615
109 FP1 190 -16.103
109 FP1 191 -12.685
109 FP1 192 -5.849
109 FP1 193 0.010
109 FP1 194 1.475
109 FP1 195 -1.455
109 FP1 196 -5.361
109 FP1 197 -7.314
109 FP1 198 -6.337
109 FP1 199 -3.408
109 FP1 200 -0.966
109 FP1 201 -0.478
109 FP1 202 -0.966
109 FP1 203 -1.943
109 FP1 204 -1.943
109 FP1 205 -0.478
109 FP1 206 2.452
109 FP1 207 5.381
109 FP1 208 8.311
109 FP1 209 8.311
109 FP1 210 4.405
109 FP1 211 -2.431
109 FP1 212 -10.732
109 FP1 213 -15.615
109 FP1 214 -14.150
109 FP1 215 -6.337
109 FP1 216 3.916
109 FP1 217 10.264
109 FP1 218 9.776
109 FP1 219 6.358
109 FP1 220 5.870
109 FP1 221 13.194
109 FP1 222 26.866
109 FP1 223 38.584
109 FP1 224 39.073
109 FP1 225 26.377
109 FP1 226 4.893
109 FP1 227 -14.150
109 FP1 228 -21.962
109 FP1 229 -14.638
109 FP1 230 1.963
109 FP1 231 18.077
109 FP1 232 25.889
109 FP1 233 22.959
109 FP1 234 13.194
109 FP1 235 4.405
109 FP1 236 2.452
109 FP1 237 6.358
109 FP1 238 12.705
109 FP1 239 17.100
109 FP1 240 17.588
109 FP1 241 18.077
109 FP1 242 20.030
109 FP1 243 21.495
109 FP1 244 19.053
109 FP1 245 9.776
109 FP1 246 -4.384
109 FP1 247 -17.080
109 FP1 248 -23.916
109 FP1 249 -22.451
109 FP1 250 -16.103
109 FP1 251 -8.779
109 FP1 252 -1.943
109 FP1 253 4.405
109 FP1 254 11.241
109 FP1 255 18.565
# FP2 chan 1
109 FP2 0 11.210
109 FP2 1 16.581
109 FP2 2 15.116
109 FP2 3 9.257
109 FP2 4 2.909
109 FP2 5 -0.997
109 FP2 6 -2.950
109 FP2 7 -4.903
109 FP2 8 -6.856
109 FP2 9 -6.368
109 FP2 10 -2.462
109 FP2 11 3.398
109 FP2 12 8.769
109 FP2 13 9.745
109 FP2 14 7.304
109 FP2 15 3.398
109 FP2 16 -0.997
109 FP2 17 -4.415
109 FP2 18 -8.809
109 FP2 19 -13.692
109 FP2 20 -18.087
109 FP2 21 -19.552
109 FP2 22 -17.110
109 FP2 23 -11.739
109 FP2 24 -6.856
109 FP2 25 -4.903
109 FP2 26 -6.368
109 FP2 27 -8.809
109 FP2 28 -10.274
109 FP2 29 -9.786
109 FP2 30 -7.345
109 FP2 31 -3.927
109 FP2 32 1.444
109 FP2 33 7.792
109 FP2 34 14.628
109 FP2 35 19.023
109 FP2 36 17.558
109 FP2 37 9.257
109 FP2 38 -2.462
109 FP2 39 -10.274
109 FP2 40 -7.833
109 FP2 41 5.839
109 FP2 42 22.441
109 FP2 43 31.718
109 FP2 44 28.788
109 FP2 45 16.093
109 FP2 46 1.444
109 FP2 47 -6.856
109 FP2 48 -8.321
109 FP2 49 -7.345
109 FP2 50 -10.274
109 FP2 51 -16.622
109 FP2 52 -21.016
109 FP2 53 -20.040
109 FP2 54 -15.645
109 FP2 55 -14.669
109 FP2 56 -21.993
109 FP2 57 -34.200
109 FP2 58 -42.501
109 FP2 59 -39.083
109 FP2 60 -25.899
109 FP2 61 -13.204
109 FP2 62 -9.786
109 FP2 63 -17.598
109 FP2 64 -29.317
109 FP2 65 -32.735
109 FP2 66 -25.899
109 FP2 67 -14.181
109 FP2 68 -8.321
109 FP2 69 -14.669
109 FP2 70 -28.829
109 FP2 71 -41.036
109 FP2 72 -42.989
109 FP2 73 -33.712
109 FP2 74 -21.505
109 FP2 75 -16.134
109 FP2 76 -21.505
109 FP2 77 -32.247
109 FP2 78 -39.083
109 FP2 79 -36.641
109 FP2 80 -26.388
109 FP2 81 -16.134
109 FP2 82 -15.157
109 FP2 83 -23.458
109 FP2 84 -35.665
109 FP2 85 -42.501
109 FP2 86 -41.036
109 FP2 87 -34.200
109 FP2 88 -28.341
109 FP2 89 -26.388
109 FP2 90 -28.341
109 FP2 91 -32.247
109 FP2 92 -34.688
109 FP2 93 -35.665
109 FP2 94 -35.665
109 FP2 95 -36.153
109 FP2 96 -38.106
109 FP2 97 -41.036
109 FP2 98 -45.431
109 FP2 99 -49.825
109 FP2 100 -52.755
109 FP2 101 -50.802
109 FP2 102 -44.942
109 FP2 103 -36.641
109 FP2 104 -31.270
109 FP2 105 -31.759
109 FP2 106 -37.618
109 FP2 107 -45.919
109 FP2 108 -49.825
109 FP2 109 -47.384
109 FP2 110 -41.524
109 FP2 111 -37.618
109 FP2 112 -40.548
109 FP2 113 -48.360
109 FP2 114 -54.708
109 FP2 115 -53.243
109 FP2 116 -41.524
109 FP2 117 -27.364
109 FP2 118 -20.040
109 FP2 119 -25.899
109 FP2 120 -39.571
109 FP2 121 -51.778
109 FP2 122 -51.778
109 FP2 123 -40.059
109 FP2 124 -26.876
109 FP2 125 -21.993
109 FP2 126 -29.317
109 FP2 127 -41.036
109 FP2 128 -46.895
109 FP2 129 -40.548
109 FP2 130 -26.388
109 FP2 131 -15.645
109 FP2 132 -15.157
109 FP2 133 -23.458
109 FP2 134 -33.712
109 FP2 135 -38.106
109 FP2 136 -36.641
109 FP2 137 -33.712
109 FP2 138 -35.665
109 FP2 139 -42.013
109 FP2 140 -47.872
109 FP2 141 -47.384
109 FP2 142 -41.524
109 FP2 143 -35.177
109 FP2 144 -33.223
109 FP2 145 -37.618
109 FP2 146 -43.966
109 FP2 147 -45.919
109 FP2 148 -42.989
109 FP2 149 -37.130
109 FP2 150 -33.223
109 FP2 151 -33.223
109 FP2 152 -33.712
109 FP2 153 -32.247
109 FP2 154 -27.852
109 FP2 155 -24.434
109 FP2 156 -24.434
109 FP2 157 -27.852
109 FP2 158 -29.806
109 FP2 159 -25.899
109 FP2 160 -16.134
109 FP2 161 -5.391
109 FP2 162 -0.509
109 FP2 163 -2.950
109 FP2 164 -9.786
109 FP2 165 -14.181
109 FP2 166 -12.227
109 FP2 167 -5.391
109 FP2 168 -0.509
109 FP2 169 -1.973
109 FP2 170 -8.809
109 FP2 171 -15.157
109 FP2 172 -15.157
109 FP2 173 -7.345
109 FP2 174 1.444
109 FP2 175 5.351
109 FP2 176 -0.509
109 FP2 177 -11.739
109 FP2 178 -20.040
109 FP2 179 -19.552
109 FP2 180 -9.786
109 FP2 181 4.374
109 FP2 182 14.140
109 FP2 183 15.116
109 FP2 184 7.792
109 FP2 185 -3.438
109 FP2 186 -13.692
109 FP2 187 -20.528
109 FP2 188 -23.458
109 FP2 189 -23.458
109 FP2 190 -21.505
109 FP2 191 -18.087
109 FP2 192 -14.181
109 FP2 193 -10.274
109 FP2 194 -7.345
109 FP2 195 -6.856
109 FP2 196 -7.345
109 FP2 197 -6.368
109 FP2 198 -3.438
109 FP2 199 0.468
109 FP2 200 1.933
109 FP2 201 -2.462
109 FP2 202 -12.227
109 FP2 203 -21.505
109 FP2 204 -25.411
109 FP2 205 -21.016
109 FP2 206 -9.786
109 FP2 207 1.933
109 FP2 208 10.234
109 FP2 209 12.187
109 FP2 210 9.257
109 FP2 211 3.886
109 FP2 212 -2.950
109 FP2 213 -8.321
109 FP2 214 -11.251
109 FP2 215 -10.763
109 FP2 216 -8.321
109 FP2 217 -6.368
109 FP2 218 -6.856
109 FP2 219 -8.321
109 FP2 220 -6.368
109 FP2 221 2.421
109 FP2 222 16.093
109 FP2 223 27.812
109 FP2 224 29.765
109 FP2 225 19.999
109 FP2 226 3.398
109 FP2 227 -12.227
109 FP2 228 -19.063
109 FP2 229 -16.622
109 FP2 230 -7.345
109 FP2 231 3.398
109 FP2 232 12.675
109 FP2 233 18.046
109 FP2 234 18.046
109 FP2 235 11.210
109 FP2 236 -0.997
109 FP2 237 -12.227
109 FP2 238 -14.181
109 FP2 239 -3.438
109 FP2 240 17.069
109 FP2 241 36.112
109 FP2 242 42.948
109 FP2 243 32.694
109 FP2 244 9.745
109 FP2 245 -13.204
109 FP2 246 -27.364
109 FP2 247 -30.782
109 FP2 248 -27.364
109 FP2 249 -24.434
109 FP2 250 -22.481
109 FP2 251 -19.552
109 FP2 252 -10.763
109 FP2 253 2.421
109 FP2 254 13.652
109 FP2 255 17.558
# F7 chan 2
109 F7 0 7.426
109 F7 1 5.961
109 F7 2 5.473
109 F7 3 4.985
109 F7 4 4.008
109 F7 5 3.031
109 F7 6 1.567
109 F7 7 2.055
109 F7 8 3.520
109 F7 9 7.426
109 F7 10 11.332
109 F7 11 13.774
109 F7 12 13.774
109 F7 13 11.332
109 F7 14 7.426
109 F7 15 4.496
109 F7 16 2.543
109 F7 17 1.078
109 F7 18 0.102
109 F7 19 -0.875
109 F7 20 0.102
109 F7 21 2.543
109 F7 22 5.961
109 F7 23 7.914
109 F7 24 6.449
109 F7 25 2.055
109 F7 26 -3.805
109 F7 27 -7.222
109 F7 28 -6.734
109 F7 29 -2.828
109 F7 30 3.031
109 F7 31 7.914
109 F7 32 12.309
109 F7 33 15.238
109 F7 34 16.703
109 F7 35 16.215
109 F7 36 12.309
109 F7 37 6.449
109 F7 38 2.055
109 F7 39 2.055
109 F7 40 7.426
109 F7 41 16.703
109 F7 42 24.516
109 F7 43 26.957
109 F7 44 23.051
109 F7 45 16.703
109 F7 46 12.797
109 F7 47 11.820
109 F7 48 11.820
109 F7 49 9.379
109 F7 50 3.031
109 F7 51 -4.781
109 F7 52 -9.176
109 F7 53 -7.711
109 F7 54 -2.828
109 F7 55 0.102
109 F7 56 -1.851
109 F7 57 -8.687
109 F7 58 -15.035
109 F7 59 -16.500
109 F7 60 -13.082
109 F7 61 -8.199
109 F7 62 -5.269
109 F7 63 -4.293
109 F7 64 -4.293
109 F7 65 -1.363
109 F7 66 2.055
109 F7 67 3.520
109 F7 68 0.590
109 F7 69 -6.246
109 F7 70 -13.082
109 F7 71 -16.988
109 F7 72 -16.500
109 F7 73 -14.058
109 F7 74 -11.617
109 F7 75 -10.152
109 F7 76 -8.687
109 F7 77 -6.246
109 F7 78 -3.316
109 F7 79 -2.340
109 F7 80 -3.316
109 F7 81 -5.758
109 F7 82 -6.246
109 F7 83 -3.316
109 F7 84 1.078
109 F7 85 3.520
109 F7 86 0.590
109 F7 87 -7.711
109 F7 88 -16.012
109 F7 89 -20.406
109 F7 90 -19.918
109 F7 91 -17.476
109 F7 92 -16.012
109 F7 93 -16.500
109 F7 94 -15.523
109 F7 95 -12.105
109 F7 96 -7.222
109 F7 97 -5.269
109 F7 98 -9.176
109 F7 99 -16.988
109 F7 100 -22.847
109 F7 101 -22.847
109 F7 102 -17.476
109 F7 103 -11.617
109 F7 104 -11.617
109 F7 105 -17.476
109 F7 106 -25.289
109 F7 107 -29.195
109 F7 108 -25.289
109 F7 109 -16.500
109 F7 110 -9.176
109 F7 111 -7.222
109 F7 112 -10.640
109 F7 113 -16.988
109 F7 114 -20.406
109 F7 115 -20.406
109 F7 116 -18.453
109 F7 117 -16.012
109 F7 118 -14.058
109 F7 119 -11.129
109 F7 120 -7.711
109 F7 121 -3.316
109 F7 122 -1.363
109 F7 123 -3.805
109 F7 124 -8.687
109 F7 125 -14.058
109 F7 126 -16.500
109 F7 127 -14.058
109 F7 128 -8.199
109 F7 129 -2.340
109 F7 130 0.590
109 F7 131 -0.387
109 F7 132 -2.828
109 F7 133 -3.316
109 F7 134 0.590
109 F7 135 5.961
109 F7 136 9.379
109 F7 137 6.449
109 F7 138 -2.340
109 F7 139 -13.082
109 F7 140 -19.430
109 F7 141 -18.453
109 F7 142 -13.082
109 F7 143 -11.129
109 F7 144 -15.035
109 F7 145 -24.312
109 F7 146 -32.125
109 F7 147 -32.125
109 F7 148 -23.336
109 F7 149 -11.129
109 F7 150 -0.875
109 F7 151 3.031
109 F7 152 2.543
109 F7 153 0.590
109 F7 154 -1.851
109 F7 155 -4.293
109 F7 156 -7.711
109 F7 157 -10.152
109 F7 158 -10.640
109 F7 159 -8.199
109 F7 160 -5.269
109 F7 161 -1.851
109 F7 162 1.567
109 F7 163 5.961
109 F7 164 10.844
109 F7 165 14.750
109 F7 166 14.262
109 F7 167 8.891
109 F7 168 1.567
109 F7 169 -3.316
109 F7 170 -2.828
109 F7 171 2.055
109 F7 172 6.449
109 F7 173 8.403
109 F7 174 7.426
109 F7 175 5.473
109 F7 176 4.985
109 F7 177 5.473
109 F7 178 5.961
109 F7 179 5.961
109 F7 180 5.473
109 F7 181 6.449
109 F7 182 8.403
109 F7 183 10.844
109 F7 184 11.332
109 F7 185 8.891
109 F7 186 4.008
109 F7 187 -1.851
109 F7 188 -7.711
109 F7 189 -11.617
109 F7 190 -12.105
109 F7 191 -9.176
109 F7 192 -1.851
109 F7 193 7.426
109 F7 194 14.262
109 F7 195 16.703
109 F7 196 13.774
109 F7 197 8.403
109 F7 198 3.031
109 F7 199 -0.875
109 F7 200 -3.805
109 F7 201 -7.711
109 F7 202 -10.152
109 F7 203 -9.664
109 F7 204 -5.269
109 F7 205 2.055
109 F7 206 7.914
109 F7 207 9.379
109 F7 208 7.426
109 F7 209 4.496
109 F7 210 3.520
109 F7 211 3.520
109 F7 212 2.055
109 F7 213 -1.851
109 F7 214 -6.246
109 F7 215 -7.711
109 F7 216 -4.293
109 F7 217 3.031
109 F7 218 10.356
109 F7 219 16.703
109 F7 220 21.586
109 F7 221 26.469
109 F7 222 31.352
109 F7 223 33.793
109 F7 224 29.887
109 F7 225 19.145
109 F7 226 4.985
109 F7 227 -6.734
109 F7 228 -12.105
109 F7 229 -9.176
109 F7 230 -2.828
109 F7 231 4.008
109 F7 232 7.426
109 F7 233 8.891
109 F7 234 9.379
109 F7 235 9.867
109 F7 236 10.844
109 F7 237 10.356
109 F7 238 9.379
109 F7 239 9.867
109 F7 240 13.285
109 F7 241 19.633
109 F7 242 25.492
109 F7 243 26.469
109 F7 244 20.121
109 F7 245 9.867
109 F7 246 0.102
109 F7 247 -6.246
109 F7 248 -8.687
109 F7 249 -8.687
109 F7 250 -8.199
109 F7 251 -7.222
109 F7 252 -3.316
109 F7 253 4.008
109 F7 254 13.285
109 F7 255 20.121
# F8 chan 3
109 F8 0 14.292
109 F8 1 7.456
109 F8 2 0.621
109 F8 3 -2.309
109 F8 4 -0.844
109 F8 5 3.062
109 F8 6 7.456
109 F8 7 8.921
109 F8 8 6.968
109 F8 9 2.574
109 F8 10 -0.356
109 F8 11 2.085
109 F8 12 11.363
109 F8 13 23.081
109 F8 14 29.429
109 F8 15 26.011
109 F8 16 12.828
109 F8 17 -2.309
109 F8 18 -12.563
109 F8 19 -12.075
109 F8 20 -5.239
109 F8 21 2.574
109 F8 22 4.527
109 F8 23 1.109
109 F8 24 -3.286
109 F8 25 -4.262
109 F8 26 -1.821
109 F8 27 0.621
109 F8 28 -1.333
109 F8 29 -6.215
109 F8 30 -9.145
109 F8 31 -4.751
109 F8 32 6.968
109 F8 33 20.152
109 F8 34 28.453
109 F8 35 28.941
109 F8 36 23.570
109 F8 37 16.734
109 F8 38 12.339
109 F8 39 12.339
109 F8 40 15.757
109 F8 41 20.640
109 F8 42 24.546
109 F8 43 24.546
109 F8 44 20.152
109 F8 45 12.339
109 F8 46 5.992
109 F8 47 3.550
109 F8 48 4.038
109 F8 49 3.550
109 F8 50 -1.333
109 F8 51 -8.657
109 F8 52 -12.075
109 F8 53 -7.680
109 F8 54 1.109
109 F8 55 5.992
109 F8 56 0.621
109 F8 57 -13.051
109 F8 58 -25.258
109 F8 59 -28.188
109 F8 60 -21.840
109 F8 61 -12.563
109 F8 62 -9.145
109 F8 63 -10.610
109 F8 64 -11.098
109 F8 65 -6.215
109 F8 66 2.085
109 F8 67 5.015
109 F8 68 -2.797
109 F8 69 -18.422
109 F8 70 -30.629
109 F8 71 -30.141
109 F8 72 -16.469
109 F8 73 -2.309
109 F8 74 0.132
109 F8 75 -12.075
109 F8 76 -28.676
109 F8 77 -34.536
109 F8 78 -22.329
109 F8 79 0.132
109 F8 80 17.710
109 F8 81 17.710
109 F8 82 2.085
109 F8 83 -15.981
109 F8 84 -23.794
109 F8 85 -16.469
109 F8 86 -2.797
109 F8 87 5.015
109 F8 88 1.597
109 F8 89 -10.122
109 F8 90 -19.887
109 F8 91 -22.329
109 F8 92 -16.958
109 F8 93 -10.122
109 F8 94 -8.169
109 F8 95 -14.028
109 F8 96 -24.282
109 F8 97 -33.559
109 F8 98 -34.536
109 F8 99 -26.235
109 F8 100 -11.587
109 F8 101 -0.844
109 F8 102 0.132
109 F8 103 -10.122
109 F8 104 -24.282
109 F8 105 -32.583
109 F8 106 -31.118
109 F8 107 -24.282
109 F8 108 -18.422
109 F8 109 -19.887
109 F8 110 -25.258
109 F8 111 -30.629
109 F8 112 -30.141
109 F8 113 -24.282
109 F8 114 -17.446
109 F8 115 -13.051
109 F8 116 -12.075
109 F8 117 -12.563
109 F8 118 -13.051
109 F8 119 -14.028
109 F8 120 -15.493
109 F8 121 -17.446
109 F8 122 -18.911
109 F8 123 -19.887
109 F8 124 -19.399
109 F8 125 -18.422
109 F8 126 -17.446
109 F8 127 -15.004
109 F8 128 -13.051
109 F8 129 -10.122
109 F8 130 -9.145
109 F8 131 -9.145
109 F8 132 -9.633
109 F8 133 -9.145
109 F8 134 -6.215
109 F8 135 -2.309
109 F8 136 -0.356
109 F8 137 -3.774
109 F8 138 -13.051
109 F8 139 -23.305
109 F8 140 -29.165
109 F8 141 -27.700
109 F8 142 -20.864
109 F8 143 -14.516
109 F8 144 -14.516
109 F8 145 -21.840
109 F8 146 -30.629
109 F8 147 -35.024
109 F8 148 -31.118
109 F8 149 -21.352
109 F8 150 -12.075
109 F8 151 -8.169
109 F8 152 -8.657
109 F8 153 -10.122
109 F8 154 -7.680
109 F8 155 -1.821
109 F8 156 3.062
109 F8 157 1.597
109 F8 158 -6.704
109 F8 159 -15.004
109 F8 160 -15.981
109 F8 161 -6.704
109 F8 162 7.456
109 F8 163 15.757
109 F8 164 12.828
109 F8 165 0.132
109 F8 166 -13.540
109 F8 167 -18.911
109 F8 168 -14.028
109 F8 169 -2.797
109 F8 170 6.968
109 F8 171 11.363
109 F8 172 10.874
109 F8 173 9.410
109 F8 174 8.921
109 F8 175 7.456
109 F8 176 1.109
109 F8 177 -8.657
109 F8 178 -17.446
109 F8 179 -18.422
109 F8 180 -7.680
109 F8 181 9.410
109 F8 182 22.593
109 F8 183 26.011
109 F8 184 18.199
109 F8 185 4.527
109 F8 186 -8.657
109 F8 187 -17.934
109 F8 188 -21.840
109 F8 189 -20.864
109 F8 190 -16.958
109 F8 191 -10.610
109 F8 192 -5.727
109 F8 193 -5.239
109 F8 194 -8.657
109 F8 195 -13.051
109 F8 196 -15.004
109 F8 197 -11.587
109 F8 198 -6.215
109 F8 199 -3.286
109 F8 200 -4.751
109 F8 201 -10.122
109 F8 202 -15.004
109 F8 203 -15.004
109 F8 204 -10.122
109 F8 205 -1.333
109 F8 206 7.945
109 F8 207 14.292
109 F8 208 16.246
109 F8 209 12.828
109 F8 210 5.503
109 F8 211 -3.286
109 F8 212 -8.169
109 F8 213 -6.215
109 F8 214 1.597
109 F8 215 10.874
109 F8 216 13.316
109 F8 217 5.503
109 F8 218 -8.657
109 F8 219 -20.376
109 F8 220 -19.399
109 F8 221 -5.239
109 F8 222 13.804
109 F8 223 25.523
109 F8 224 23.081
109 F8 225 8.921
109 F8 226 -5.727
109 F8 227 -12.075
109 F8 228 -8.657
109 F8 229 -2.797
109 F8 230 -0.356
109 F8 231 -2.309
109 F8 232 -2.797
109 F8 233 2.574
109 F8 234 11.851
109 F8 235 17.222
109 F8 236 13.804
109 F8 237 4.038
109 F8 238 -4.262
109 F8 239 -2.309
109 F8 240 10.874
109 F8 241 28.453
109 F8 242 39.683
109 F8 243 37.242
109 F8 244 21.128
109 F8 245 -2.797
109 F8 246 -24.282
109 F8 247 -35.024
109 F8 248 -33.559
109 F8 249 -23.305
109 F8 250 -13.540
109 F8 251 -10.122
109 F8 252 -14.516
109 F8 253 -21.840
109 F8 254 -23.305
109 F8 255 -13.540
# AF1 chan 4
109 AF1 0 11.119
109 AF1 1 8.677
109 AF1 2 4.771
109 AF1 3 1.841
109 AF1 4 0.865
109 AF1 5 1.353
109 AF1 6 1.841
109 AF1 7 1.353
109 AF1 8 0.376
109 AF1 9 0.865
109 AF1 10 2.818
109 AF1 11 6.236
109 AF1 12 8.189
109 AF1 13 7.212
109 AF1 14 3.794
109 AF1 15 -0.112
109 AF1 16 -3.530
109 AF1 17 -4.995
109 AF1 18 -4.995
109 AF1 19 -4.506
109 AF1 20 -4.018
109 AF1 21 -4.018
109 AF1 22 -3.530
109 AF1 23 -3.042
109 AF1 24 -2.065
109 AF1 25 -2.553
109 AF1 26 -3.042
109 AF1 27 -3.530
109 AF1 28 -3.530
109 AF1 29 -2.553
109 AF1 30 0.376
109 AF1 31 4.283
109 AF1 32 8.189
109 AF1 33 10.630
109 AF1 34 11.119
109 AF1 35 9.165
109 AF1 36 6.724
109 AF1 37 5.259
109 AF1 38 5.747
109 AF1 39 8.677
109 AF1 40 12.095
109 AF1 41 16.001
109 AF1 42 17.955
109 AF1 43 17.955
109 AF1 44 16.978
109 AF1 45 14.048
109 AF1 46 11.119
109 AF1 47 8.189
109 AF1 48 5.259
109 AF1 49 2.818
109 AF1 50 0.376
109 AF1 51 -3.042
109 AF1 52 -6.460
109 AF1 53 -9.878
109 AF1 54 -11.342
109 AF1 55 -11.831
109 AF1 56 -11.831
109 AF1 57 -12.319
109 AF1 58 -13.784
109 AF1 59 -14.272
109 AF1 60 -13.295
109 AF1 61 -9.878
109 AF1 62 -4.995
109 AF1 63 -1.577
109 AF1 64 -0.112
109 AF1 65 -1.088
109 AF1 66 -2.553
109 AF1 67 -3.530
109 AF1 68 -4.018
109 AF1 69 -4.018
109 AF1 70 -5.483
109 AF1 71 -6.948
109 AF1 72 -8.901
109 AF1 73 -9.389
109 AF1 74 -8.413
109 AF1 75 -7.436
109 AF1 76 -7.436
109 AF1 77 -8.901
109 AF1 78 -10.854
109 AF1 79 -12.319
109 AF1 80 -11.831
109 AF1 81 -10.366
109 AF1 82 -9.389
109 AF1 83 -8.901
109 AF1 84 -10.366
109 AF1 85 -12.319
109 AF1 86 -14.272
109 AF1 87 -15.737
109 AF1 88 -15.737
109 AF1 89 -15.249
109 AF1 90 -14.760
109 AF1 91 -14.272
109 AF1 92 -15.249
109 AF1 93 -15.737
109 AF1 94 -16.713
109 AF1 95 -18.178
109 AF1 96 -19.155
109 AF1 97 -20.131
109 AF1 98 -22.085
109 AF1 99 -23.061
109 AF1 100 -23.061
109 AF1 101 -21.108
109 AF1 102 -18.667
109 AF1 103 -16.225
109 AF1 104 -15.737
109 AF1 105 -17.690
109 AF1 106 -21.108
109 AF1 107 -24.038
109 AF1 108 -25.014
109 AF1 109 -23.549
109 AF1 110 -20.620
109 AF1 111 -18.667
109 AF1 112 -17.202
109 AF1 113 -16.713
109 AF1 114 -17.202
109 AF1 115 -16.225
109 AF1 116 -14.760
109 AF1 117 -12.807
109 AF1 118 -11.831
109 AF1 119 -12.319
109 AF1 120 -13.295
109 AF1 121 -14.272
109 AF1 122 -14.272
109 AF1 123 -12.807
109 AF1 124 -11.342
109 AF1 125 -9.878
109 AF1 126 -8.901
109 AF1 127 -7.924
109 AF1 128 -6.460
109 AF1 129 -4.995
109 AF1 130 -4.018
109 AF1 131 -3.530
109 AF1 132 -3.530
109 AF1 133 -4.018
109 AF1 134 -4.995
109 AF1 135 -5.971
109 AF1 136 -7.436
109 AF1 137 -9.878
109 AF1 138 -12.319
109 AF1 139 -14.760
109 AF1 140 -15.737
109 AF1 141 -16.225
109 AF1 142 -17.202
109 AF1 143 -19.643
109 AF1 144 -23.061
109 AF1 145 -25.014
109 AF1 146 -24.038
109 AF1 147 -20.131
109 AF1 148 -12.807
109 AF1 149 -6.948
109 AF1 150 -4.018
109 AF1 151 -4.018
109 AF1 152 -4.995
109 AF1 153 -5.483
109 AF1 154 -4.506
109 AF1 155 -4.018
109 AF1 156 -4.018
109 AF1 157 -4.995
109 AF1 158 -4.995
109 AF1 159 -2.553
109 AF1 160 1.841
109 AF1 161 5.747
109 AF1 162 7.212
109 AF1 163 4.771
109 AF1 164 2.818
109 AF1 165 1.841
109 AF1 166 3.794
109 AF1 167 7.212
109 AF1 168 8.677
109 AF1 169 7.701
109 AF1 170 4.283
109 AF1 171 1.353
109 AF1 172 0.376
109 AF1 173 2.330
109 AF1 174 6.236
109 AF1 175 10.142
109 AF1 176 12.095
109 AF1 177 11.607
109 AF1 178 8.677
109 AF1 179 5.259
109 AF1 180 2.818
109 AF1 181 3.306
109 AF1 182 6.236
109 AF1 183 10.142
109 AF1 184 12.095
109 AF1 185 10.142
109 AF1 186 4.283
109 AF1 187 -1.577
109 AF1 188 -4.995
109 AF1 189 -4.506
109 AF1 190 0.376
109 AF1 191 6.236
109 AF1 192 9.654
109 AF1 193 10.142
109 AF1 194 9.165
109 AF1 195 7.701
109 AF1 196 7.701
109 AF1 197 9.654
109 AF1 198 12.095
109 AF1 199 14.537
109 AF1 200 15.025
109 AF1 201 13.072
109 AF1 202 9.654
109 AF1 203 6.236
109 AF1 204 4.283
109 AF1 205 4.283
109 AF1 206 6.236
109 AF1 207 8.677
109 AF1 208 10.630
109 AF1 209 11.119
109 AF1 210 9.654
109 AF1 211 7.212
109 AF1 212 4.283
109 AF1 213 1.353
109 AF1 214 0.376
109 AF1 215 1.353
109 AF1 216 4.771
109 AF1 217 9.165
109 AF1 218 13.560
109 AF1 219 17.466
109 AF1 220 20.884
109 AF1 221 24.790
109 AF1 222 28.208
109 AF1 223 30.162
109 AF1 224 28.697
109 AF1 225 23.814
109 AF1 226 17.955
109 AF1 227 13.072
109 AF1 228 11.119
109 AF1 229 11.119
109 AF1 230 12.095
109 AF1 231 12.583
109 AF1 232 12.095
109 AF1 233 12.095
109 AF1 234 13.560
109 AF1 235 14.537
109 AF1 236 16.490
109 AF1 237 16.978
109 AF1 238 17.955
109 AF1 239 20.396
109 AF1 240 22.837
109 AF1 241 24.302
109 AF1 242 22.837
109 AF1 243 17.466
109 AF1 244 10.142
109 AF1 245 3.306
109 AF1 246 -1.577
109 AF1 247 -4.018
109 AF1 248 -4.995
109 AF1 249 -4.506
109 AF1 250 -3.042
109 AF1 251 1.841
109 AF1 252 7.701
109 AF1 253 14.048
109 AF1 254 17.955
109 AF1 255 18.443
# AF2 chan 5
109 AF2 0 9.379
109 AF2 1 8.891
109 AF2 2 5.961
109 AF2 3 2.055
109 AF2 4 -2.340
109 AF2 5 -4.293
109 AF2 6 -4.781
109 AF2 7 -3.316
109 AF2 8 -1.363
109 AF2 9 1.078
109 AF2 10 2.543
109 AF2 11 3.520
109 AF2 12 4.985
109 AF2 13 4.985
109 AF2 14 4.496
109 AF2 15 2.543
109 AF2 16 -0.875
109 AF2 17 -4.781
109 AF2 18 -8.199
109 AF2 19 -10.152
109 AF2 20 -9.664
109 AF2 21 -7.711
109 AF2 22 -5.269
109 AF2 23 -3.805
109 AF2 24 -3.805
109 AF2 25 -4.781
109 AF2 26 -5.758
109 AF2 27 -5.269
109 AF2 28 -3.316
109 AF2 29 0.102
109 AF2 30 3.520
109 AF2 31 6.449
109 AF2 32 7.426
109 AF2 33 7.914
109 AF2 34 7.914
109 AF2 35 7.426
109 AF2 36 7.426
109 AF2 37 7.426
109 AF2 38 7.914
109 AF2 39 8.891
109 AF2 40 11.332
109 AF2 41 14.262
109 AF2 42 16.703
109 AF2 43 17.192
109 AF2 44 15.238
109 AF2 45 11.332
109 AF2 46 6.938
109 AF2 47 3.520
109 AF2 48 2.055
109 AF2 49 1.078
109 AF2 50 -0.875
109 AF2 51 -5.269
109 AF2 52 -10.640
109 AF2 53 -15.035
109 AF2 54 -16.988
109 AF2 55 -16.500
109 AF2 56 -15.523
109 AF2 57 -15.035
109 AF2 58 -16.500
109 AF2 59 -17.476
109 AF2 60 -16.988
109 AF2 61 -13.570
109 AF2 62 -8.199
109 AF2 63 -4.781
109 AF2 64 -4.293
109 AF2 65 -5.758
109 AF2 66 -7.711
109 AF2 67 -8.687
109 AF2 68 -7.222
109 AF2 69 -5.758
109 AF2 70 -5.758
109 AF2 71 -8.199
109 AF2 72 -11.129
109 AF2 73 -13.570
109 AF2 74 -14.058
109 AF2 75 -13.570
109 AF2 76 -12.594
109 AF2 77 -12.105
109 AF2 78 -11.617
109 AF2 79 -11.617
109 AF2 80 -11.617
109 AF2 81 -11.129
109 AF2 82 -11.617
109 AF2 83 -13.570
109 AF2 84 -15.523
109 AF2 85 -17.965
109 AF2 86 -19.918
109 AF2 87 -21.383
109 AF2 88 -20.894
109 AF2 89 -19.918
109 AF2 90 -18.453
109 AF2 91 -16.500
109 AF2 92 -16.500
109 AF2 93 -17.476
109 AF2 94 -20.406
109 AF2 95 -23.336
109 AF2 96 -25.289
109 AF2 97 -25.777
109 AF2 98 -24.801
109 AF2 99 -23.336
109 AF2 100 -21.871
109 AF2 101 -21.383
109 AF2 102 -21.871
109 AF2 103 -23.336
109 AF2 104 -24.312
109 AF2 105 -25.777
109 AF2 106 -26.754
109 AF2 107 -26.754
109 AF2 108 -26.754
109 AF2 109 -25.777
109 AF2 110 -25.289
109 AF2 111 -24.312
109 AF2 112 -24.312
109 AF2 113 -22.847
109 AF2 114 -20.894
109 AF2 115 -17.965
109 AF2 116 -15.523
109 AF2 117 -14.547
109 AF2 118 -15.523
109 AF2 119 -16.988
109 AF2 120 -18.453
109 AF2 121 -18.941
109 AF2 122 -18.453
109 AF2 123 -17.965
109 AF2 124 -17.476
109 AF2 125 -16.500
109 AF2 126 -15.035
109 AF2 127 -12.105
109 AF2 128 -9.664
109 AF2 129 -8.199
109 AF2 130 -7.711
109 AF2 131 -8.199
109 AF2 132 -8.199
109 AF2 133 -7.222
109 AF2 134 -6.734
109 AF2 135 -7.711
109 AF2 136 -10.640
109 AF2 137 -14.547
109 AF2 138 -17.476
109 AF2 139 -18.941
109 AF2 140 -17.965
109 AF2 141 -16.988
109 AF2 142 -17.476
109 AF2 143 -20.894
109 AF2 144 -25.289
109 AF2 145 -27.730
109 AF2 146 -26.754
109 AF2 147 -22.359
109 AF2 148 -16.500
109 AF2 149 -11.617
109 AF2 150 -9.664
109 AF2 151 -9.664
109 AF2 152 -10.152
109 AF2 153 -9.176
109 AF2 154 -7.222
109 AF2 155 -5.758
109 AF2 156 -6.246
109 AF2 157 -7.711
109 AF2 158 -7.711
109 AF2 159 -4.781
109 AF2 160 1.567
109 AF2 161 6.449
109 AF2 162 7.914
109 AF2 163 4.496
109 AF2 164 -0.875
109 AF2 165 -4.293
109 AF2 166 -2.340
109 AF2 167 3.520
109 AF2 168 8.403
109 AF2 169 8.891
109 AF2 170 4.985
109 AF2 171 -1.363
109 AF2 172 -4.781
109 AF2 173 -3.316
109 AF2 174 2.055
109 AF2 175 6.938
109 AF2 176 9.379
109 AF2 177 7.426
109 AF2 178 3.520
109 AF2 179 1.078
109 AF2 180 1.567
109 AF2 181 4.496
109 AF2 182 8.403
109 AF2 183 10.356
109 AF2 184 9.379
109 AF2 185 4.985
109 AF2 186 -0.387
109 AF2 187 -5.758
109 AF2 188 -7.711
109 AF2 189 -6.734
109 AF2 190 -3.805
109 AF2 191 0.590
109 AF2 192 3.031
109 AF2 193 3.031
109 AF2 194 1.567
109 AF2 195 -0.875
109 AF2 196 -1.363
109 AF2 197 1.567
109 AF2 198 5.961
109 AF2 199 10.844
109 AF2 200 13.774
109 AF2 201 13.774
109 AF2 202 10.356
109 AF2 203 6.449
109 AF2 204 3.520
109 AF2 205 2.543
109 AF2 206 4.496
109 AF2 207 8.403
109 AF2 208 11.332
109 AF2 209 11.820
109 AF2 210 9.379
109 AF2 211 4.985
109 AF2 212 0.590
109 AF2 213 -2.340
109 AF2 214 -2.828
109 AF2 215 -1.363
109 AF2 216 0.590
109 AF2 217 2.543
109 AF2 218 5.473
109 AF2 219 10.356
109 AF2 220 16.215
109 AF2 221 22.074
109 AF2 222 25.492
109 AF2 223 24.028
109 AF2 224 18.656
109 AF2 225 12.797
109 AF2 226 7.914
109 AF2 227 6.938
109 AF2 228 8.403
109 AF2 229 9.867
109 AF2 230 9.867
109 AF2 231 7.914
109 AF2 232 6.449
109 AF2 233 6.938
109 AF2 234 9.379
109 AF2 235 13.285
109 AF2 236 16.215
109 AF2 237 17.192
109 AF2 238 17.192
109 AF2 239 16.215
109 AF2 240 17.192
109 AF2 241 18.656
109 AF2 242 18.656
109 AF2 243 15.238
109 AF2 244 7.426
109 AF2 245 -1.851
109 AF2 246 -9.664
109 AF2 247 -13.570
109 AF2 248 -13.082
109 AF2 249 -9.664
109 AF2 250 -5.758
109 AF2 251 -1.851
109 AF2 252 1.567
109 AF2 253 5.473
109 AF2 254 7.914
109 AF2 255 9.379
# FZ chan 6
109 FZ 0 9.196
109 FZ 1 7.243
109 FZ 2 5.290
109 FZ 3 2.848
109 FZ 4 0.895
109 FZ 5 -0.570
109 FZ 6 -2.035
109 FZ 7 -2.523
109 FZ 8 -2.035
109 FZ 9 -0.570
109 FZ 10 1.872
109 FZ 11 4.313
109 FZ 12 5.778
109 FZ 13 5.290
109 FZ 14 3.337
109 FZ 15 0.407
109 FZ 16 -3.011
109 FZ 17 -5.452
109 FZ 18 -6.917
109 FZ 19 -6.429
109 FZ 20 -5.452
109 FZ 21 -4.476
109 FZ 22 -3.011
109 FZ 23 -2.035
109 FZ 24 -1.058
109 FZ 25 -0.081
109 FZ 26 -0.081
109 FZ 27 -0.081
109 FZ 28 -0.081
109 FZ 29 0.895
109 FZ 30 2.848
109 FZ 31 5.778
109 FZ 32 7.731
109 FZ 33 8.219
109 FZ 34 7.243
109 FZ 35 5.290
109 FZ 36 4.313
109 FZ 37 4.801
109 FZ 38 6.266
109 FZ 39 8.708
109 FZ 40 10.661
109 FZ 41 11.637
109 FZ 42 11.637
109 FZ 43 11.637
109 FZ 44 11.637
109 FZ 45 11.149
109 FZ 46 10.173
109 FZ 47 8.219
109 FZ 48 5.778
109 FZ 49 2.848
109 FZ 50 -0.081
109 FZ 51 -2.523
109 FZ 52 -4.964
109 FZ 53 -6.917
109 FZ 54 -8.382
109 FZ 55 -8.382
109 FZ 56 -7.894
109 FZ 57 -7.406
109 FZ 58 -6.917
109 FZ 59 -5.452
109 FZ 60 -3.988
109 FZ 61 -1.058
109 FZ 62 1.383
109 FZ 63 2.360
109 FZ 64 1.872
109 FZ 65 0.407
109 FZ 66 -0.570
109 FZ 67 -0.081
109 FZ 68 1.383
109 FZ 69 3.337
109 FZ 70 3.337
109 FZ 71 1.872
109 FZ 72 -0.081
109 FZ 73 -1.546
109 FZ 74 -2.523
109 FZ 75 -3.011
109 FZ 76 -3.499
109 FZ 77 -3.988
109 FZ 78 -4.964
109 FZ 79 -5.941
109 FZ 80 -6.429
109 FZ 81 -6.429
109 FZ 82 -6.429
109 FZ 83 -6.917
109 FZ 84 -7.894
109 FZ 85 -8.870
109 FZ 86 -9.359
109 FZ 87 -9.359
109 FZ 88 -9.359
109 FZ 89 -9.359
109 FZ 90 -9.359
109 FZ 91 -9.847
109 FZ 92 -10.824
109 FZ 93 -11.312
109 FZ 94 -11.800
109 FZ 95 -12.777
109 FZ 96 -12.777
109 FZ 97 -13.753
109 FZ 98 -14.730
109 FZ 99 -15.218
109 FZ 100 -14.730
109 FZ 101 -13.265
109 FZ 102 -11.800
109 FZ 103 -10.335
109 FZ 104 -10.335
109 FZ 105 -10.824
109 FZ 106 -12.777
109 FZ 107 -15.218
109 FZ 108 -16.683
109 FZ 109 -17.171
109 FZ 110 -16.683
109 FZ 111 -14.730
109 FZ 112 -12.777
109 FZ 113 -10.824
109 FZ 114 -8.870
109 FZ 115 -7.406
109 FZ 116 -6.917
109 FZ 117 -7.406
109 FZ 118 -7.894
109 FZ 119 -8.382
109 FZ 120 -7.894
109 FZ 121 -6.917
109 FZ 122 -5.941
109 FZ 123 -5.452
109 FZ 124 -5.452
109 FZ 125 -4.964
109 FZ 126 -3.988
109 FZ 127 -1.058
109 FZ 128 1.383
109 FZ 129 2.848
109 FZ 130 2.848
109 FZ 131 1.872
109 FZ 132 0.895
109 FZ 133 0.895
109 FZ 134 1.383
109 FZ 135 1.383
109 FZ 136 -0.570
109 FZ 137 -3.499
109 FZ 138 -6.917
109 FZ 139 -7.894
109 FZ 140 -7.894
109 FZ 141 -6.429
109 FZ 142 -6.429
109 FZ 143 -8.382
109 FZ 144 -11.312
109 FZ 145 -12.777
109 FZ 146 -10.824
109 FZ 147 -6.917
109 FZ 148 -2.523
109 FZ 149 -0.081
109 FZ 150 0.407
109 FZ 151 -0.081
109 FZ 152 -0.570
109 FZ 153 -0.081
109 FZ 154 1.383
109 FZ 155 1.872
109 FZ 156 1.383
109 FZ 157 -0.081
109 FZ 158 0.407
109 FZ 159 2.848
109 FZ 160 6.266
109 FZ 161 8.219
109 FZ 162 8.219
109 FZ 163 6.266
109 FZ 164 4.313
109 FZ 165 3.825
109 FZ 166 5.778
109 FZ 167 9.196
109 FZ 168 11.637
109 FZ 169 10.661
109 FZ 170 7.731
109 FZ 171 3.825
109 FZ 172 1.383
109 FZ 173 1.872
109 FZ 174 4.801
109 FZ 175 8.708
109 FZ 176 11.149
109 FZ 177 11.637
109 FZ 178 9.684
109 FZ 179 6.266
109 FZ 180 4.313
109 FZ 181 4.313
109 FZ 182 6.755
109 FZ 183 9.684
109 FZ 184 11.149
109 FZ 185 10.173
109 FZ 186 7.243
109 FZ 187 3.825
109 FZ 188 2.360
109 FZ 189 2.848
109 FZ 190 4.801
109 FZ 191 7.243
109 FZ 192 8.219
109 FZ 193 8.219
109 FZ 194 7.731
109 FZ 195 8.219
109 FZ 196 10.173
109 FZ 197 13.102
109 FZ 198 16.032
109 FZ 199 18.962
109 FZ 200 19.938
109 FZ 201 19.450
109 FZ 202 17.008
109 FZ 203 13.590
109 FZ 204 10.173
109 FZ 205 7.731
109 FZ 206 6.755
109 FZ 207 7.243
109 FZ 208 8.219
109 FZ 209 9.684
109 FZ 210 10.173
109 FZ 211 10.173
109 FZ 212 9.196
109 FZ 213 7.243
109 FZ 214 5.290
109 FZ 215 4.313
109 FZ 216 4.801
109 FZ 217 6.755
109 FZ 218 10.173
109 FZ 219 15.055
109 FZ 220 19.938
109 FZ 221 23.844
109 FZ 222 26.286
109 FZ 223 26.286
109 FZ 224 23.844
109 FZ 225 20.426
109 FZ 226 17.008
109 FZ 227 14.567
109 FZ 228 12.614
109 FZ 229 10.661
109 FZ 230 8.708
109 FZ 231 6.755
109 FZ 232 6.266
109 FZ 233 7.731
109 FZ 234 11.149
109 FZ 235 14.079
109 FZ 236 17.008
109 FZ 237 18.473
109 FZ 238 19.938
109 FZ 239 21.403
109 FZ 240 21.891
109 FZ 241 21.891
109 FZ 242 19.450
109 FZ 243 14.567
109 FZ 244 8.219
109 FZ 245 2.848
109 FZ 246 -2.035
109 FZ 247 -4.476
109 FZ 248 -4.476
109 FZ 249 -2.035
109 FZ 250 1.872
109 FZ 251 5.778
109 FZ 252 10.173
109 FZ 253 12.614
109 FZ 254 13.590
109 FZ 255 13.590
# F4 chan 7
109 F4 0 6.582
109 F4 1 5.117
109 F4 2 3.652
109 F4 3 2.675
109 F4 4 0.722
109 F4 5 -1.719
109 F4 6 -4.161
109 F4 7 -4.649
109 F4 8 -3.184
109 F4 9 -0.254
109 F4 10 2.187
109 F4 11 3.652
109 F4 12 4.628
109 F4 13 5.117
109 F4 14 5.117
109 F4 15 4.140
109 F4 16 1.211
109 F4 17 -2.696
109 F4 18 -6.602
109 F4 19 -7.579
109 F4 20 -7.090
109 F4 21 -5.137
109 F4 22 -3.184
109 F4 23 -1.719
109 F4 24 0.234
109 F4 25 2.187
109 F4 26 4.628
109 F4 27 5.605
109 F4 28 5.117
109 F4 29 3.164
109 F4 30 3.164
109 F4 31 5.117
109 F4 32 8.535
109 F4 33 10.976
109 F4 34 10.488
109 F4 35 7.070
109 F4 36 4.140
109 F4 37 4.140
109 F4 38 7.558
109 F4 39 12.441
109 F4 40 15.371
109 F4 41 15.371
109 F4 42 12.929
109 F4 43 10.488
109 F4 44 10.000
109 F4 45 10.488
109 F4 46 10.000
109 F4 47 8.535
109 F4 48 6.093
109 F4 49 4.628
109 F4 50 3.164
109 F4 51 -0.254
109 F4 52 -6.114
109 F4 53 -12.950
109 F4 54 -18.809
109 F4 55 -20.762
109 F4 56 -17.832
109 F4 57 -12.461
109 F4 58 -7.579
109 F4 59 -5.137
109 F4 60 -5.137
109 F4 61 -6.114
109 F4 62 -7.090
109 F4 63 -7.579
109 F4 64 -7.090
109 F4 65 -5.625
109 F4 66 -3.672
109 F4 67 -1.231
109 F4 68 -0.254
109 F4 69 0.722
109 F4 70 -0.254
109 F4 71 -0.743
109 F4 72 -1.719
109 F4 73 -3.672
109 F4 74 -5.625
109 F4 75 -8.555
109 F4 76 -10.508
109 F4 77 -10.020
109 F4 78 -7.579
109 F4 79 -4.161
109 F4 80 -2.696
109 F4 81 -3.672
109 F4 82 -6.602
109 F4 83 -9.043
109 F4 84 -10.020
109 F4 85 -9.532
109 F4 86 -9.532
109 F4 87 -10.020
109 F4 88 -11.485
109 F4 89 -12.461
109 F4 90 -12.461
109 F4 91 -10.997
109 F4 92 -10.020
109 F4 93 -10.020
109 F4 94 -11.485
109 F4 95 -14.903
109 F4 96 -18.809
109 F4 97 -21.739
109 F4 98 -22.227
109 F4 99 -20.274
109 F4 100 -16.368
109 F4 101 -12.461
109 F4 102 -10.997
109 F4 103 -12.461
109 F4 104 -14.903
109 F4 105 -17.344
109 F4 106 -17.832
109 F4 107 -17.344
109 F4 108 -17.832
109 F4 109 -20.274
109 F4 110 -23.692
109 F4 111 -26.133
109 F4 112 -24.180
109 F4 113 -18.321
109 F4 114 -10.508
109 F4 115 -5.137
109 F4 116 -5.137
109 F4 117 -9.532
109 F4 118 -15.391
109 F4 119 -17.832
109 F4 120 -14.414
109 F4 121 -8.067
109 F4 122 -2.696
109 F4 123 -2.696
109 F4 124 -7.090
109 F4 125 -12.461
109 F4 126 -13.926
109 F4 127 -10.508
109 F4 128 -4.649
109 F4 129 -0.743
109 F4 130 -1.719
109 F4 131 -5.137
109 F4 132 -7.579
109 F4 133 -6.114
109 F4 134 -2.207
109 F4 135 1.211
109 F4 136 0.722
109 F4 137 -2.696
109 F4 138 -5.137
109 F4 139 -4.649
109 F4 140 -3.184
109 F4 141 -4.161
109 F4 142 -9.532
109 F4 143 -16.856
109 F4 144 -20.762
109 F4 145 -18.809
109 F4 146 -11.973
109 F4 147 -6.114
109 F4 148 -4.649
109 F4 149 -7.579
109 F4 150 -10.997
109 F4 151 -10.020
109 F4 152 -3.672
109 F4 153 4.140
109 F4 154 8.535
109 F4 155 7.070
109 F4 156 1.699
109 F4 157 -4.649
109 F4 158 -7.090
109 F4 159 -5.625
109 F4 160 -0.254
109 F4 161 5.117
109 F4 162 8.535
109 F4 163 7.558
109 F4 164 4.628
109 F4 165 1.699
109 F4 166 1.699
109 F4 167 5.605
109 F4 168 10.976
109 F4 169 13.906
109 F4 170 10.488
109 F4 171 3.164
109 F4 172 -5.137
109 F4 173 -8.555
109 F4 174 -5.625
109 F4 175 2.187
109 F4 176 10.000
109 F4 177 13.906
109 F4 178 11.953
109 F4 179 7.070
109 F4 180 3.652
109 F4 181 2.675
109 F4 182 6.093
109 F4 183 9.511
109 F4 184 11.464
109 F4 185 10.976
109 F4 186 7.558
109 F4 187 4.140
109 F4 188 1.699
109 F4 189 -0.743
109 F4 190 -2.207
109 F4 191 -4.161
109 F4 192 -5.137
109 F4 193 -4.649
109 F4 194 -2.207
109 F4 195 0.234
109 F4 196 2.187
109 F4 197 2.187
109 F4 198 1.211
109 F4 199 1.699
109 F4 200 4.140
109 F4 201 9.511
109 F4 202 15.371
109 F4 203 18.300
109 F4 204 17.324
109 F4 205 13.906
109 F4 206 9.511
109 F4 207 7.070
109 F4 208 6.093
109 F4 209 4.628
109 F4 210 2.675
109 F4 211 0.234
109 F4 212 -0.743
109 F4 213 -0.254
109 F4 214 2.187
109 F4 215 3.652
109 F4 216 5.117
109 F4 217 6.582
109 F4 218 10.000
109 F4 219 15.859
109 F4 220 20.253
109 F4 221 20.253
109 F4 222 14.882
109 F4 223 7.070
109 F4 224 1.211
109 F4 225 1.699
109 F4 226 6.582
109 F4 227 11.464
109 F4 228 12.441
109 F4 229 8.535
109 F4 230 3.164
109 F4 231 0.234
109 F4 232 1.211
109 F4 233 5.117
109 F4 234 9.023
109 F4 235 11.953
109 F4 236 15.371
109 F4 237 18.300
109 F4 238 20.253
109 F4 239 19.765
109 F4 240 15.371
109 F4 241 10.000
109 F4 242 5.605
109 F4 243 3.652
109 F4 244 0.722
109 F4 245 -4.161
109 F4 246 -11.973
109 F4 247 -17.832
109 F4 248 -17.832
109 F4 249 -10.020
109 F4 250 0.722
109 F4 251 8.046
109 F4 252 8.046
109 F4 253 3.164
109 F4 254 -1.231
109 F4 255 -1.231
# F3 chan 8
109 F3 0 3.672
109 F3 1 2.207
109 F3 2 2.696
109 F3 3 4.649
109 F3 4 7.090
109 F3 5 7.579
109 F3 6 5.137
109 F3 7 1.719
109 F3 8 -0.234
109 F3 9 0.254
109 F3 10 3.672
109 F3 11 8.555
109 F3 12 11.485
109 F3 13 10.997
109 F3 14 6.602
109 F3 15 0.743
109 F3 16 -4.140
109 F3 17 -5.117
109 F3 18 -2.187
109 F3 19 2.207
109 F3 20 5.625
109 F3 21 7.090
109 F3 22 5.625
109 F3 23 3.184
109 F3 24 1.231
109 F3 25 0.254
109 F3 26 -0.234
109 F3 27 -1.211
109 F3 28 -2.187
109 F3 29 -2.187
109 F3 30 0.254
109 F3 31 4.649
109 F3 32 10.508
109 F3 33 13.438
109 F3 34 12.461
109 F3 35 8.555
109 F3 36 4.649
109 F3 37 3.184
109 F3 38 6.114
109 F3 39 10.020
109 F3 40 12.461
109 F3 41 12.950
109 F3 42 11.973
109 F3 43 12.461
109 F3 44 14.903
109 F3 45 17.832
109 F3 46 18.321
109 F3 47 15.391
109 F3 48 9.043
109 F3 49 2.207
109 F3 50 -2.675
109 F3 51 -3.652
109 F3 52 -2.675
109 F3 53 -2.187
109 F3 54 -2.675
109 F3 55 -3.164
109 F3 56 -3.164
109 F3 57 -2.675
109 F3 58 -1.699
109 F3 59 -0.234
109 F3 60 1.719
109 F3 61 4.161
109 F3 62 6.114
109 F3 63 6.602
109 F3 64 5.137
109 F3 65 2.207
109 F3 66 0.254
109 F3 67 0.254
109 F3 68 2.696
109 F3 69 5.137
109 F3 70 5.625
109 F3 71 3.184
109 F3 72 0.743
109 F3 73 -0.234
109 F3 74 1.719
109 F3 75 5.137
109 F3 76 6.602
109 F3 77 5.137
109 F3 78 1.231
109 F3 79 -2.675
109 F3 80 -5.117
109 F3 81 -5.117
109 F3 82 -3.652
109 F3 83 -1.699
109 F3 84 -0.234
109 F3 85 1.231
109 F3 86 1.231
109 F3 87 0.743
109 F3 88 -1.699
109 F3 89 -4.140
109 F3 90 -6.093
109 F3 91 -6.582
109 F3 92 -5.605
109 F3 93 -4.628
109 F3 94 -4.628
109 F3 95 -6.582
109 F3 96 -9.511
109 F3 97 -11.953
109 F3 98 -12.441
109 F3 99 -11.953
109 F3 100 -10.000
109 F3 101 -7.558
109 F3 102 -5.605
109 F3 103 -4.628
109 F3 104 -4.140
109 F3 105 -5.117
109 F3 106 -8.046
109 F3 107 -11.464
109 F3 108 -14.394
109 F3 109 -14.394
109 F3 110 -12.929
109 F3 111 -9.511
109 F3 112 -7.070
109 F3 113 -5.605
109 F3 114 -5.605
109 F3 115 -5.605
109 F3 116 -5.605
109 F3 117 -5.117
109 F3 118 -4.140
109 F3 119 -2.675
109 F3 120 -1.699
109 F3 121 -1.699
109 F3 122 -2.187
109 F3 123 -4.140
109 F3 124 -5.117
109 F3 125 -4.140
109 F3 126 -1.211
109 F3 127 3.672
109 F3 128 7.579
109 F3 129 9.043
109 F3 130 8.555
109 F3 131 7.090
109 F3 132 6.602
109 F3 133 6.602
109 F3 134 7.090
109 F3 135 5.625
109 F3 136 1.719
109 F3 137 -2.675
109 F3 138 -6.582
109 F3 139 -7.070
109 F3 140 -5.117
109 F3 141 -2.675
109 F3 142 -2.187
109 F3 143 -5.117
109 F3 144 -9.023
109 F3 145 -11.464
109 F3 146 -9.511
109 F3 147 -4.140
109 F3 148 1.719
109 F3 149 5.137
109 F3 150 4.649
109 F3 151 2.207
109 F3 152 0.743
109 F3 153 0.743
109 F3 154 2.207
109 F3 155 3.184
109 F3 156 3.184
109 F3 157 3.184
109 F3 158 4.161
109 F3 159 6.114
109 F3 160 8.067
109 F3 161 9.043
109 F3 162 8.555
109 F3 163 7.579
109 F3 164 7.579
109 F3 165 8.555
109 F3 166 10.997
109 F3 167 12.461
109 F3 168 11.973
109 F3 169 10.508
109 F3 170 9.043
109 F3 171 7.579
109 F3 172 8.067
109 F3 173 8.555
109 F3 174 9.532
109 F3 175 10.997
109 F3 176 12.461
109 F3 177 13.438
109 F3 178 12.950
109 F3 179 10.508
109 F3 180 7.579
109 F3 181 5.625
109 F3 182 6.114
109 F3 183 9.043
109 F3 184 12.461
109 F3 185 13.438
109 F3 186 11.973
109 F3 187 9.043
109 F3 188 7.090
109 F3 189 6.114
109 F3 190 7.090
109 F3 191 8.555
109 F3 192 9.043
109 F3 193 9.532
109 F3 194 10.997
109 F3 195 13.438
109 F3 196 16.368
109 F3 197 19.297
109 F3 198 20.762
109 F3 199 21.250
109 F3 200 19.786
109 F3 201 16.856
109 F3 202 12.461
109 F3 203 8.555
109 F3 204 6.114
109 F3 205 4.649
109 F3 206 4.649
109 F3 207 4.649
109 F3 208 5.137
109 F3 209 6.114
109 F3 210 8.067
109 F3 211 10.997
109 F3 212 12.461
109 F3 213 10.997
109 F3 214 7.579
109 F3 215 5.137
109 F3 216 6.114
109 F3 217 10.508
109 F3 218 17.344
109 F3 219 24.180
109 F3 220 28.575
109 F3 221 30.528
109 F3 222 30.039
109 F3 223 28.575
109 F3 224 26.133
109 F3 225 24.668
109 F3 226 22.715
109 F3 227 21.250
109 F3 228 18.809
109 F3 229 15.391
109 F3 230 10.997
109 F3 231 7.579
109 F3 232 6.602
109 F3 233 9.043
109 F3 234 12.461
109 F3 235 16.368
109 F3 236 18.809
109 F3 237 20.274
109 F3 238 21.250
109 F3 239 23.204
109 F3 240 24.668
109 F3 241 24.668
109 F3 242 21.250
109 F3 243 15.391
109 F3 244 10.020
109 F3 245 7.090
109 F3 246 6.114
109 F3 247 6.114
109 F3 248 5.625
109 F3 249 4.649
109 F3 250 5.137
109 F3 251 7.579
109 F3 252 11.485
109 F3 253 15.391
109 F3 254 17.344
109 F3 255 17.832
# FC6 chan 9
109 FC6 0 0.844
109 FC6 1 8.169
109 FC6 2 11.587
109 FC6 3 9.145
109 FC6 4 2.309
109 FC6 5 -3.062
109 FC6 6 -3.550
109 FC6 7 1.821
109 FC6 8 7.680
109 FC6 9 8.657
109 FC6 10 4.751
109 FC6 11 0.356
109 FC6 12 1.333
109 FC6 13 9.633
109 FC6 14 19.887
109 FC6 15 24.282
109 FC6 16 18.422
109 FC6 17 3.774
109 FC6 18 -10.386
109 FC6 19 -17.710
109 FC6 20 -16.246
109 FC6 21 -9.410
109 FC6 22 -3.062
109 FC6 23 0.844
109 FC6 24 4.262
109 FC6 25 10.122
109 FC6 26 18.422
109 FC6 27 25.258
109 FC6 28 25.258
109 FC6 29 15.493
109 FC6 30 -0.132
109 FC6 31 -13.316
109 FC6 32 -15.757
109 FC6 33 -6.480
109 FC6 34 8.657
109 FC6 35 21.840
109 FC6 36 28.188
109 FC6 37 27.212
109 FC6 38 22.329
109 FC6 39 14.516
109 FC6 40 4.262
109 FC6 41 -4.038
109 FC6 42 -7.456
109 FC6 43 -1.109
109 FC6 44 11.098
109 FC6 45 23.305
109 FC6 46 27.700
109 FC6 47 22.817
109 FC6 48 15.004
109 FC6 49 11.587
109 FC6 50 13.051
109 FC6 51 14.028
109 FC6 52 5.727
109 FC6 53 -12.828
109 FC6 54 -32.847
109 FC6 55 -41.148
109 FC6 56 -30.894
109 FC6 57 -8.921
109 FC6 58 11.587
109 FC6 59 17.934
109 FC6 60 9.145
109 FC6 61 -6.480
109 FC6 62 -16.246
109 FC6 63 -15.757
109 FC6 64 -9.410
109 FC6 65 -2.574
109 FC6 66 -0.621
109 FC6 67 -2.574
109 FC6 68 -3.550
109 FC6 69 -2.085
109 FC6 70 2.309
109 FC6 71 4.751
109 FC6 72 3.286
109 FC6 73 -1.109
109 FC6 74 -7.456
109 FC6 75 -11.851
109 FC6 76 -13.804
109 FC6 77 -11.363
109 FC6 78 -5.503
109 FC6 79 2.309
109 FC6 80 8.657
109 FC6 81 9.145
109 FC6 82 3.774
109 FC6 83 -4.038
109 FC6 84 -9.410
109 FC6 85 -8.433
109 FC6 86 -2.085
109 FC6 87 4.262
109 FC6 88 3.774
109 FC6 89 -3.550
109 FC6 90 -11.851
109 FC6 91 -15.269
109 FC6 92 -9.410
109 FC6 93 0.356
109 FC6 94 5.239
109 FC6 95 -1.109
109 FC6 96 -15.269
109 FC6 97 -26.988
109 FC6 98 -26.988
109 FC6 99 -13.804
109 FC6 100 4.262
109 FC6 101 14.516
109 FC6 102 10.610
109 FC6 103 -5.015
109 FC6 104 -20.152
109 FC6 105 -25.035
109 FC6 106 -18.687
109 FC6 107 -6.968
109 FC6 108 0.356
109 FC6 109 -4.038
109 FC6 110 -17.222
109 FC6 111 -30.894
109 FC6 112 -35.777
109 FC6 113 -28.941
109 FC6 114 -14.781
109 FC6 115 -0.621
109 FC6 116 5.239
109 FC6 117 2.309
109 FC6 118 -4.527
109 FC6 119 -7.945
109 FC6 120 -5.015
109 FC6 121 1.333
109 FC6 122 4.751
109 FC6 123 0.356
109 FC6 124 -12.339
109 FC6 125 -26.011
109 FC6 126 -32.359
109 FC6 127 -27.964
109 FC6 128 -15.269
109 FC6 129 -1.109
109 FC6 130 6.215
109 FC6 131 8.169
109 FC6 132 7.192
109 FC6 133 7.192
109 FC6 134 7.680
109 FC6 135 5.239
109 FC6 136 -2.085
109 FC6 137 -9.410
109 FC6 138 -12.339
109 FC6 139 -7.945
109 FC6 140 -1.597
109 FC6 141 -0.621
109 FC6 142 -7.456
109 FC6 143 -16.246
109 FC6 144 -18.199
109 FC6 145 -11.851
109 FC6 146 -3.062
109 FC6 147 -1.597
109 FC6 148 -9.410
109 FC6 149 -19.175
109 FC6 150 -20.152
109 FC6 151 -10.874
109 FC6 152 3.286
109 FC6 153 10.610
109 FC6 154 7.680
109 FC6 155 -0.132
109 FC6 156 -5.503
109 FC6 157 -5.992
109 FC6 158 -6.480
109 FC6 159 -10.874
109 FC6 160 -15.269
109 FC6 161 -13.316
109 FC6 162 -1.597
109 FC6 163 14.516
109 FC6 164 22.817
109 FC6 165 17.934
109 FC6 166 6.704
109 FC6 167 0.356
109 FC6 168 5.727
109 FC6 169 15.493
109 FC6 170 15.493
109 FC6 171 0.356
109 FC6 172 -21.617
109 FC6 173 -33.824
109 FC6 174 -25.035
109 FC6 175 -1.109
109 FC6 176 20.376
109 FC6 177 25.747
109 FC6 178 14.028
109 FC6 179 -1.109
109 FC6 180 -6.968
109 FC6 181 0.356
109 FC6 182 12.563
109 FC6 183 17.934
109 FC6 184 12.075
109 FC6 185 2.309
109 FC6 186 -2.574
109 FC6 187 1.333
109 FC6 188 7.680
109 FC6 189 8.169
109 FC6 190 -1.109
109 FC6 191 -13.804
109 FC6 192 -20.640
109 FC6 193 -16.246
109 FC6 194 -4.527
109 FC6 195 4.262
109 FC6 196 2.309
109 FC6 197 -11.851
109 FC6 198 -28.453
109 FC6 199 -35.777
109 FC6 200 -26.011
109 FC6 201 -3.550
109 FC6 202 19.887
109 FC6 203 31.118
109 FC6 204 25.747
109 FC6 205 10.122
109 FC6 206 -2.574
109 FC6 207 -4.038
109 FC6 208 2.797
109 FC6 209 8.657
109 FC6 210 7.192
109 FC6 211 -0.621
109 FC6 212 -5.992
109 FC6 213 -3.062
109 FC6 214 5.727
109 FC6 215 13.051
109 FC6 216 12.563
109 FC6 217 5.727
109 FC6 218 0.844
109 FC6 219 2.309
109 FC6 220 8.169
109 FC6 221 10.122
109 FC6 222 3.774
109 FC6 223 -6.968
109 FC6 224 -13.316
109 FC6 225 -8.433
109 FC6 226 5.239
109 FC6 227 16.958
109 FC6 228 16.469
109 FC6 229 2.797
109 FC6 230 -14.292
109 FC6 231 -22.593
109 FC6 232 -16.246
109 FC6 233 -0.621
109 FC6 234 13.540
109 FC6 235 18.911
109 FC6 236 15.004
109 FC6 237 8.657
109 FC6 238 6.215
109 FC6 239 10.610
109 FC6 240 19.399
109 FC6 241 29.165
109 FC6 242 33.559
109 FC6 243 28.188
109 FC6 244 9.633
109 FC6 245 -17.710
109 FC6 246 -43.101
109 FC6 247 -51.890
109 FC6 248 -39.683
109 FC6 249 -13.316
109 FC6 250 9.145
109 FC6 251 14.516
109 FC6 252 1.821
109 FC6 253 -14.781
109 FC6 254 -19.175
109 FC6 255 -7.456
# FC5 chan 10
109 FC5 0 6.195
109 FC5 1 4.730
109 FC5 2 4.242
109 FC5 3 4.730
109 FC5 4 5.707
109 FC5 5 5.707
109 FC5 6 3.754
109 FC5 7 0.824
109 FC5 8 -1.129
109 FC5 9 0.336
109 FC5 10 5.219
109 FC5 11 10.590
109 FC5 12 14.008
109 FC5 13 13.031
109 FC5 14 8.148
109 FC5 15 2.777
109 FC5 16 0.336
109 FC5 17 2.777
109 FC5 18 7.172
109 FC5 19 11.566
109 FC5 20 12.543
109 FC5 21 10.101
109 FC5 22 5.707
109 FC5 23 2.289
109 FC5 24 1.312
109 FC5 25 1.312
109 FC5 26 1.312
109 FC5 27 0.336
109 FC5 28 -2.106
109 FC5 29 -2.594
109 FC5 30 0.336
109 FC5 31 6.195
109 FC5 32 13.031
109 FC5 33 16.449
109 FC5 34 14.984
109 FC5 35 9.125
109 FC5 36 3.265
109 FC5 37 0.824
109 FC5 38 2.289
109 FC5 39 6.683
109 FC5 40 11.078
109 FC5 41 13.519
109 FC5 42 13.519
109 FC5 43 14.008
109 FC5 44 14.496
109 FC5 45 14.984
109 FC5 46 14.496
109 FC5 47 11.078
109 FC5 48 6.195
109 FC5 49 0.824
109 FC5 50 -3.082
109 FC5 51 -4.547
109 FC5 52 -3.571
109 FC5 53 -1.617
109 FC5 54 0.824
109 FC5 55 3.265
109 FC5 56 4.242
109 FC5 57 3.265
109 FC5 58 0.824
109 FC5 59 -1.129
109 FC5 60 -1.617
109 FC5 61 1.312
109 FC5 62 4.730
109 FC5 63 7.660
109 FC5 64 8.636
109 FC5 65 7.660
109 FC5 66 5.707
109 FC5 67 4.242
109 FC5 68 3.265
109 FC5 69 1.801
109 FC5 70 -0.153
109 FC5 71 -1.617
109 FC5 72 -2.106
109 FC5 73 -0.153
109 FC5 74 3.265
109 FC5 75 6.683
109 FC5 76 8.148
109 FC5 77 7.172
109 FC5 78 4.730
109 FC5 79 2.289
109 FC5 80 0.824
109 FC5 81 0.824
109 FC5 82 1.801
109 FC5 83 3.754
109 FC5 84 5.219
109 FC5 85 6.195
109 FC5 86 6.683
109 FC5 87 5.219
109 FC5 88 2.289
109 FC5 89 -1.129
109 FC5 90 -4.059
109 FC5 91 -5.035
109 FC5 92 -4.059
109 FC5 93 -2.594
109 FC5 94 -2.106
109 FC5 95 -3.082
109 FC5 96 -5.524
109 FC5 97 -7.477
109 FC5 98 -7.965
109 FC5 99 -6.989
109 FC5 100 -5.524
109 FC5 101 -4.059
109 FC5 102 -2.594
109 FC5 103 -1.129
109 FC5 104 -1.129
109 FC5 105 -2.594
109 FC5 106 -5.035
109 FC5 107 -7.965
109 FC5 108 -9.430
109 FC5 109 -9.430
109 FC5 110 -6.989
109 FC5 111 -4.547
109 FC5 112 -3.082
109 FC5 113 -3.571
109 FC5 114 -5.035
109 FC5 115 -6.012
109 FC5 116 -5.524
109 FC5 117 -3.082
109 FC5 118 -0.641
109 FC5 119 0.824
109 FC5 120 -0.153
109 FC5 121 -2.106
109 FC5 122 -5.035
109 FC5 123 -6.989
109 FC5 124 -6.989
109 FC5 125 -4.547
109 FC5 126 -1.129
109 FC5 127 3.754
109 FC5 128 7.172
109 FC5 129 8.636
109 FC5 130 9.125
109 FC5 131 8.636
109 FC5 132 8.148
109 FC5 133 8.148
109 FC5 134 7.660
109 FC5 135 7.172
109 FC5 136 5.707
109 FC5 137 2.289
109 FC5 138 -0.641
109 FC5 139 -2.106
109 FC5 140 -1.617
109 FC5 141 0.336
109 FC5 142 0.824
109 FC5 143 -1.129
109 FC5 144 -5.035
109 FC5 145 -8.453
109 FC5 146 -8.942
109 FC5 147 -5.524
109 FC5 148 -0.641
109 FC5 149 3.265
109 FC5 150 4.242
109 FC5 151 2.777
109 FC5 152 1.312
109 FC5 153 0.824
109 FC5 154 1.801
109 FC5 155 1.801
109 FC5 156 1.312
109 FC5 157 0.336
109 FC5 158 1.312
109 FC5 159 3.265
109 FC5 160 5.219
109 FC5 161 5.219
109 FC5 162 2.777
109 FC5 163 0.824
109 FC5 164 1.801
109 FC5 165 5.707
109 FC5 166 9.125
109 FC5 167 10.101
109 FC5 168 7.172
109 FC5 169 3.265
109 FC5 170 0.824
109 FC5 171 2.777
109 FC5 172 7.660
109 FC5 173 11.078
109 FC5 174 12.543
109 FC5 175 11.078
109 FC5 176 9.125
109 FC5 177 7.660
109 FC5 178 6.195
109 FC5 179 4.242
109 FC5 180 1.312
109 FC5 181 -1.129
109 FC5 182 -0.641
109 FC5 183 3.265
109 FC5 184 7.172
109 FC5 185 9.125
109 FC5 186 7.660
109 FC5 187 3.754
109 FC5 188 0.336
109 FC5 189 -0.153
109 FC5 190 1.312
109 FC5 191 3.265
109 FC5 192 4.242
109 FC5 193 4.730
109 FC5 194 6.195
109 FC5 195 9.125
109 FC5 196 13.519
109 FC5 197 15.961
109 FC5 198 14.984
109 FC5 199 10.590
109 FC5 200 4.730
109 FC5 201 -0.641
109 FC5 202 -3.082
109 FC5 203 -4.059
109 FC5 204 -4.059
109 FC5 205 -4.059
109 FC5 206 -5.035
109 FC5 207 -6.012
109 FC5 208 -5.035
109 FC5 209 -2.106
109 FC5 210 0.824
109 FC5 211 2.777
109 FC5 212 2.289
109 FC5 213 -0.153
109 FC5 214 -1.617
109 FC5 215 -0.641
109 FC5 216 4.242
109 FC5 217 10.101
109 FC5 218 15.472
109 FC5 219 19.379
109 FC5 220 20.844
109 FC5 221 21.820
109 FC5 222 22.308
109 FC5 223 21.820
109 FC5 224 20.355
109 FC5 225 18.402
109 FC5 226 14.984
109 FC5 227 11.566
109 FC5 228 7.660
109 FC5 229 2.777
109 FC5 230 -2.106
109 FC5 231 -5.035
109 FC5 232 -5.035
109 FC5 233 -2.106
109 FC5 234 2.289
109 FC5 235 5.707
109 FC5 236 7.660
109 FC5 237 8.636
109 FC5 238 9.613
109 FC5 239 12.054
109 FC5 240 14.984
109 FC5 241 16.449
109 FC5 242 14.984
109 FC5 243 11.078
109 FC5 244 7.172
109 FC5 245 4.730
109 FC5 246 3.265
109 FC5 247 1.801
109 FC5 248 -0.153
109 FC5 249 -1.617
109 FC5 250 -1.617
109 FC5 251 0.336
109 FC5 252 3.754
109 FC5 253 6.683
109 FC5 254 7.660
109 FC5 255 6.683
# FC2 chan 11
109 FC2 0 2.055
109 FC2 1 3.031
109 FC2 2 3.520
109 FC2 3 2.543
109 FC2 4 0.102
109 FC2 5 -2.828
109 FC2 6 -4.293
109 FC2 7 -4.293
109 FC2 8 -2.828
109 FC2 9 -0.875
109 FC2 10 0.590
109 FC2 11 1.078
109 FC2 12 1.078
109 FC2 13 1.567
109 FC2 14 2.055
109 FC2 15 1.567
109 FC2 16 0.590
109 FC2 17 -1.851
109 FC2 18 -4.293
109 FC2 19 -5.269
109 FC2 20 -4.781
109 FC2 21 -3.316
109 FC2 22 -1.363
109 FC2 23 0.102
109 FC2 24 1.567
109 FC2 25 3.031
109 FC2 26 4.985
109 FC2 27 6.938
109 FC2 28 7.426
109 FC2 29 5.961
109 FC2 30 4.008
109 FC2 31 2.543
109 FC2 32 2.055
109 FC2 33 3.031
109 FC2 34 4.496
109 FC2 35 5.473
109 FC2 36 5.473
109 FC2 37 5.473
109 FC2 38 5.473
109 FC2 39 5.473
109 FC2 40 5.473
109 FC2 41 4.496
109 FC2 42 4.008
109 FC2 43 4.496
109 FC2 44 5.961
109 FC2 45 7.426
109 FC2 46 7.914
109 FC2 47 6.449
109 FC2 48 4.496
109 FC2 49 3.031
109 FC2 50 2.543
109 FC2 51 1.567
109 FC2 52 -1.363
109 FC2 53 -4.781
109 FC2 54 -8.687
109 FC2 55 -10.640
109 FC2 56 -9.176
109 FC2 57 -6.246
109 FC2 58 -2.828
109 FC2 59 -0.387
109 FC2 60 -0.387
109 FC2 61 -1.363
109 FC2 62 -1.851
109 FC2 63 -2.340
109 FC2 64 -1.851
109 FC2 65 -0.875
109 FC2 66 0.102
109 FC2 67 1.078
109 FC2 68 1.567
109 FC2 69 2.055
109 FC2 70 2.055
109 FC2 71 1.078
109 FC2 72 0.590
109 FC2 73 -0.387
109 FC2 74 -1.851
109 FC2 75 -3.316
109 FC2 76 -4.293
109 FC2 77 -4.293
109 FC2 78 -3.316
109 FC2 79 -1.851
109 FC2 80 -0.387
109 FC2 81 -0.387
109 FC2 82 -2.340
109 FC2 83 -4.293
109 FC2 84 -5.758
109 FC2 85 -5.758
109 FC2 86 -4.781
109 FC2 87 -3.805
109 FC2 88 -3.805
109 FC2 89 -4.293
109 FC2 90 -5.758
109 FC2 91 -6.246
109 FC2 92 -6.246
109 FC2 93 -5.758
109 FC2 94 -5.758
109 FC2 95 -6.246
109 FC2 96 -8.199
109 FC2 97 -9.664
109 FC2 98 -10.640
109 FC2 99 -9.664
109 FC2 100 -7.711
109 FC2 101 -5.269
109 FC2 102 -4.293
109 FC2 103 -5.269
109 FC2 104 -7.222
109 FC2 105 -9.176
109 FC2 106 -10.152
109 FC2 107 -9.664
109 FC2 108 -9.176
109 FC2 109 -9.176
109 FC2 110 -10.640
109 FC2 111 -11.617
109 FC2 112 -12.105
109 FC2 113 -10.152
109 FC2 114 -6.734
109 FC2 115 -3.805
109 FC2 116 -2.828
109 FC2 117 -4.293
109 FC2 118 -6.246
109 FC2 119 -7.222
109 FC2 120 -6.246
109 FC2 121 -3.316
109 FC2 122 -0.875
109 FC2 123 -0.387
109 FC2 124 -1.851
109 FC2 125 -3.805
109 FC2 126 -4.293
109 FC2 127 -3.316
109 FC2 128 -0.387
109 FC2 129 2.055
109 FC2 130 2.543
109 FC2 131 1.567
109 FC2 132 1.078
109 FC2 133 1.567
109 FC2 134 3.520
109 FC2 135 4.985
109 FC2 136 5.473
109 FC2 137 4.008
109 FC2 138 2.543
109 FC2 139 1.567
109 FC2 140 1.078
109 FC2 141 -0.387
109 FC2 142 -2.340
109 FC2 143 -4.293
109 FC2 144 -4.781
109 FC2 145 -3.316
109 FC2 146 -1.363
109 FC2 147 0.102
109 FC2 148 0.102
109 FC2 149 -1.363
109 FC2 150 -1.363
109 FC2 151 0.102
109 FC2 152 2.543
109 FC2 153 4.008
109 FC2 154 4.008
109 FC2 155 2.055
109 FC2 156 0.102
109 FC2 157 -0.875
109 FC2 158 -0.875
109 FC2 159 0.102
109 FC2 160 2.055
109 FC2 161 2.543
109 FC2 162 3.520
109 FC2 163 4.496
109 FC2 164 4.496
109 FC2 165 4.008
109 FC2 166 4.008
109 FC2 167 5.473
109 FC2 168 7.426
109 FC2 169 8.403
109 FC2 170 6.449
109 FC2 171 2.055
109 FC2 172 -3.316
109 FC2 173 -5.269
109 FC2 174 -3.316
109 FC2 175 1.567
109 FC2 176 6.938
109 FC2 177 9.379
109 FC2 178 8.403
109 FC2 179 5.473
109 FC2 180 3.520
109 FC2 181 4.008
109 FC2 182 6.449
109 FC2 183 8.891
109 FC2 184 9.867
109 FC2 185 8.403
109 FC2 186 6.449
109 FC2 187 5.473
109 FC2 188 4.496
109 FC2 189 3.520
109 FC2 190 2.543
109 FC2 191 1.078
109 FC2 192 -0.387
109 FC2 193 -0.387
109 FC2 194 1.078
109 FC2 195 2.055
109 FC2 196 2.055
109 FC2 197 1.078
109 FC2 198 0.102
109 FC2 199 1.567
109 FC2 200 5.473
109 FC2 201 10.844
109 FC2 202 15.238
109 FC2 203 17.192
109 FC2 204 14.750
109 FC2 205 11.332
109 FC2 206 8.403
109 FC2 207 7.914
109 FC2 208 8.891
109 FC2 209 9.379
109 FC2 210 8.403
109 FC2 211 5.961
109 FC2 212 4.008
109 FC2 213 3.520
109 FC2 214 4.008
109 FC2 215 4.496
109 FC2 216 4.008
109 FC2 217 3.520
109 FC2 218 4.008
109 FC2 219 6.449
109 FC2 220 9.867
109 FC2 221 11.820
109 FC2 222 10.844
109 FC2 223 7.914
109 FC2 224 4.985
109 FC2 225 3.520
109 FC2 226 4.496
109 FC2 227 5.961
109 FC2 228 6.449
109 FC2 229 4.985
109 FC2 230 3.031
109 FC2 231 2.055
109 FC2 232 2.543
109 FC2 233 4.985
109 FC2 234 6.938
109 FC2 235 8.403
109 FC2 236 9.379
109 FC2 237 8.891
109 FC2 238 8.891
109 FC2 239 8.891
109 FC2 240 8.403
109 FC2 241 8.403
109 FC2 242 8.403
109 FC2 243 6.938
109 FC2 244 3.520
109 FC2 245 -2.340
109 FC2 246 -8.687
109 FC2 247 -12.105
109 FC2 248 -10.640
109 FC2 249 -5.269
109 FC2 250 1.078
109 FC2 251 4.985
109 FC2 252 4.985
109 FC2 253 3.031
109 FC2 254 1.567
109 FC2 255 2.543
# FC1 chan 12
109 FC1 0 5.595
109 FC1 1 4.130
109 FC1 2 3.642
109 FC1 3 3.153
109 FC1 4 2.665
109 FC1 5 2.665
109 FC1 6 0.712
109 FC1 7 -0.753
109 FC1 8 -1.241
109 FC1 9 -0.753
109 FC1 10 1.200
109 FC1 11 4.130
109 FC1 12 5.107
109 FC1 13 4.618
109 FC1 14 2.177
109 FC1 15 -0.264
109 FC1 16 -2.218
109 FC1 17 -2.706
109 FC1 18 -2.218
109 FC1 19 -0.753
109 FC1 20 -0.264
109 FC1 21 0.224
109 FC1 22 0.224
109 FC1 23 0.712
109 FC1 24 1.200
109 FC1 25 2.177
109 FC1 26 2.177
109 FC1 27 1.200
109 FC1 28 0.224
109 FC1 29 0.224
109 FC1 30 1.200
109 FC1 31 3.642
109 FC1 32 5.107
109 FC1 33 5.107
109 FC1 34 4.130
109 FC1 35 2.177
109 FC1 36 1.200
109 FC1 37 1.689
109 FC1 38 3.642
109 FC1 39 4.618
109 FC1 40 5.107
109 FC1 41 4.618
109 FC1 42 4.130
109 FC1 43 3.642
109 FC1 44 4.618
109 FC1 45 6.083
109 FC1 46 6.571
109 FC1 47 6.083
109 FC1 48 4.618
109 FC1 49 2.177
109 FC1 50 0.712
109 FC1 51 -0.264
109 FC1 52 -0.753
109 FC1 53 0.224
109 FC1 54 0.224
109 FC1 55 0.712
109 FC1 56 0.712
109 FC1 57 1.200
109 FC1 58 1.200
109 FC1 59 2.665
109 FC1 60 4.130
109 FC1 61 5.595
109 FC1 62 6.571
109 FC1 63 6.571
109 FC1 64 5.595
109 FC1 65 4.130
109 FC1 66 3.153
109 FC1 67 3.642
109 FC1 68 4.618
109 FC1 69 6.083
109 FC1 70 6.083
109 FC1 71 5.595
109 FC1 72 4.130
109 FC1 73 3.153
109 FC1 74 2.665
109 FC1 75 3.153
109 FC1 76 3.642
109 FC1 77 3.153
109 FC1 78 2.177
109 FC1 79 0.224
109 FC1 80 -0.753
109 FC1 81 -0.753
109 FC1 82 -0.753
109 FC1 83 0.224
109 FC1 84 0.712
109 FC1 85 0.712
109 FC1 86 0.712
109 FC1 87 0.712
109 FC1 88 1.200
109 FC1 89 0.712
109 FC1 90 -0.264
109 FC1 91 -1.729
109 FC1 92 -3.194
109 FC1 93 -4.171
109 FC1 94 -4.171
109 FC1 95 -4.171
109 FC1 96 -3.682
109 FC1 97 -3.682
109 FC1 98 -4.659
109 FC1 99 -5.636
109 FC1 100 -6.124
109 FC1 101 -6.124
109 FC1 102 -4.659
109 FC1 103 -2.706
109 FC1 104 -1.241
109 FC1 105 -0.264
109 FC1 106 -1.241
109 FC1 107 -2.706
109 FC1 108 -4.659
109 FC1 109 -6.124
109 FC1 110 -5.636
109 FC1 111 -4.659
109 FC1 112 -2.706
109 FC1 113 -1.241
109 FC1 114 -0.753
109 FC1 115 -0.753
109 FC1 116 -1.241
109 FC1 117 -1.729
109 FC1 118 -1.241
109 FC1 119 -0.753
109 FC1 120 -0.264
109 FC1 121 0.224
109 FC1 122 0.224
109 FC1 123 0.224
109 FC1 124 0.224
109 FC1 125 1.200
109 FC1 126 2.665
109 FC1 127 4.618
109 FC1 128 6.083
109 FC1 129 7.060
109 FC1 130 7.060
109 FC1 131 7.060
109 FC1 132 6.571
109 FC1 133 6.083
109 FC1 134 5.107
109 FC1 135 4.130
109 FC1 136 2.665
109 FC1 137 0.712
109 FC1 138 -0.753
109 FC1 139 -1.241
109 FC1 140 -0.753
109 FC1 141 0.224
109 FC1 142 1.200
109 FC1 143 1.200
109 FC1 144 0.224
109 FC1 145 -0.264
109 FC1 146 0.224
109 FC1 147 2.177
109 FC1 148 5.107
109 FC1 149 7.060
109 FC1 150 7.548
109 FC1 151 6.571
109 FC1 152 4.618
109 FC1 153 3.642
109 FC1 154 2.665
109 FC1 155 2.665
109 FC1 156 2.665
109 FC1 157 2.665
109 FC1 158 3.642
109 FC1 159 5.107
109 FC1 160 6.083
109 FC1 161 6.083
109 FC1 162 4.618
109 FC1 163 3.153
109 FC1 164 2.177
109 FC1 165 3.642
109 FC1 166 6.083
109 FC1 167 8.036
109 FC1 168 9.013
109 FC1 169 7.548
109 FC1 170 6.083
109 FC1 171 5.107
109 FC1 172 5.107
109 FC1 173 5.595
109 FC1 174 7.060
109 FC1 175 7.548
109 FC1 176 7.548
109 FC1 177 7.548
109 FC1 178 6.571
109 FC1 179 4.618
109 FC1 180 2.665
109 FC1 181 1.689
109 FC1 182 2.177
109 FC1 183 3.642
109 FC1 184 5.107
109 FC1 185 6.083
109 FC1 186 5.595
109 FC1 187 4.618
109 FC1 188 4.618
109 FC1 189 5.595
109 FC1 190 6.571
109 FC1 191 8.036
109 FC1 192 8.036
109 FC1 193 7.548
109 FC1 194 7.548
109 FC1 195 8.525
109 FC1 196 10.966
109 FC1 197 14.384
109 FC1 198 16.337
109 FC1 199 16.825
109 FC1 200 15.361
109 FC1 201 11.943
109 FC1 202 8.525
109 FC1 203 5.595
109 FC1 204 3.642
109 FC1 205 2.665
109 FC1 206 1.200
109 FC1 207 1.200
109 FC1 208 1.200
109 FC1 209 2.665
109 FC1 210 5.595
109 FC1 211 8.525
109 FC1 212 9.501
109 FC1 213 8.525
109 FC1 214 6.571
109 FC1 215 4.618
109 FC1 216 4.618
109 FC1 217 6.083
109 FC1 218 9.501
109 FC1 219 12.431
109 FC1 220 15.849
109 FC1 221 18.290
109 FC1 222 20.732
109 FC1 223 22.196
109 FC1 224 22.196
109 FC1 225 20.732
109 FC1 226 17.802
109 FC1 227 14.872
109 FC1 228 11.454
109 FC1 229 7.548
109 FC1 230 3.642
109 FC1 231 0.224
109 FC1 232 -1.729
109 FC1 233 -1.729
109 FC1 234 0.224
109 FC1 235 3.642
109 FC1 236 6.571
109 FC1 237 9.501
109 FC1 238 11.943
109 FC1 239 14.872
109 FC1 240 16.825
109 FC1 241 17.314
109 FC1 242 15.849
109 FC1 243 12.919
109 FC1 244 9.501
109 FC1 245 7.060
109 FC1 246 6.083
109 FC1 247 5.595
109 FC1 248 5.595
109 FC1 249 6.083
109 FC1 250 7.060
109 FC1 251 9.013
109 FC1 252 11.454
109 FC1 253 12.919
109 FC1 254 13.407
109 FC1 255 11.943
# T8 chan 13
109 T8 0 -5.198
109 T8 1 1.149
109 T8 2 2.614
109 T8 3 -3.245
109 T8 4 -11.546
109 T8 5 -14.964
109 T8 6 -10.081
109 T8 7 0.173
109 T8 8 7.985
109 T8 9 7.985
109 T8 10 2.614
109 T8 11 -1.292
109 T8 12 2.614
109 T8 13 13.845
109 T8 14 23.122
109 T8 15 23.122
109 T8 16 13.357
109 T8 17 0.173
109 T8 18 -6.175
109 T8 19 -1.292
109 T8 20 9.450
109 T8 21 17.751
109 T8 22 15.310
109 T8 23 4.079
109 T8 24 -10.081
109 T8 25 -18.870
109 T8 26 -19.847
109 T8 27 -14.964
109 T8 28 -8.128
109 T8 29 -0.804
109 T8 30 6.032
109 T8 31 12.380
109 T8 32 16.774
109 T8 33 17.751
109 T8 34 16.774
109 T8 35 15.798
109 T8 36 14.821
109 T8 37 13.845
109 T8 38 12.380
109 T8 39 11.403
109 T8 40 13.845
109 T8 41 20.681
109 T8 42 28.493
109 T8 43 31.423
109 T8 44 25.075
109 T8 45 11.403
109 T8 46 -2.757
109 T8 47 -10.081
109 T8 48 -9.593
109 T8 49 -4.710
109 T8 50 -0.315
109 T8 51 2.126
109 T8 52 3.591
109 T8 53 6.521
109 T8 54 8.474
109 T8 55 7.009
109 T8 56 0.173
109 T8 57 -11.546
109 T8 58 -22.288
109 T8 59 -25.706
109 T8 60 -20.823
109 T8 61 -9.593
109 T8 62 1.638
109 T8 63 7.009
109 T8 64 4.079
109 T8 65 -6.175
109 T8 66 -18.870
109 T8 67 -27.659
109 T8 68 -29.612
109 T8 69 -25.218
109 T8 70 -18.870
109 T8 71 -13.987
109 T8 72 -12.034
109 T8 73 -12.034
109 T8 74 -10.569
109 T8 75 -4.710
109 T8 76 3.591
109 T8 77 11.403
109 T8 78 13.845
109 T8 79 9.939
109 T8 80 3.591
109 T8 81 -1.780
109 T8 82 -2.268
109 T8 83 -0.315
109 T8 84 1.149
109 T8 85 -0.804
109 T8 86 -5.686
109 T8 87 -11.546
109 T8 88 -14.476
109 T8 89 -15.940
109 T8 90 -15.940
109 T8 91 -14.964
109 T8 92 -10.569
109 T8 93 -2.268
109 T8 94 7.009
109 T8 95 12.380
109 T8 96 8.962
109 T8 97 -2.268
109 T8 98 -14.476
109 T8 99 -20.335
109 T8 100 -17.405
109 T8 101 -12.034
109 T8 102 -9.593
109 T8 103 -11.546
109 T8 104 -13.499
109 T8 105 -8.128
109 T8 106 3.591
109 T8 107 13.357
109 T8 108 11.403
109 T8 109 -6.663
109 T8 110 -31.077
109 T8 111 -48.167
109 T8 112 -46.702
109 T8 113 -29.124
109 T8 114 -7.151
109 T8 115 5.544
109 T8 116 4.079
109 T8 117 -6.175
109 T8 118 -13.011
109 T8 119 -10.569
109 T8 120 -1.780
109 T8 121 4.079
109 T8 122 -0.804
109 T8 123 -14.964
109 T8 124 -29.612
109 T8 125 -35.960
109 T8 126 -32.542
109 T8 127 -23.753
109 T8 128 -16.429
109 T8 129 -13.011
109 T8 130 -10.569
109 T8 131 -4.710
109 T8 132 2.614
109 T8 133 7.009
109 T8 134 3.591
109 T8 135 -6.175
109 T8 136 -14.964
109 T8 137 -16.917
109 T8 138 -11.546
109 T8 139 -3.245
109 T8 140 -0.315
109 T8 141 -4.710
109 T8 142 -14.476
109 T8 143 -24.729
109 T8 144 -31.077
109 T8 145 -32.542
109 T8 146 -28.636
109 T8 147 -19.847
109 T8 148 -10.081
109 T8 149 -3.245
109 T8 150 -3.733
109 T8 151 -11.546
109 T8 152 -18.870
109 T8 153 -19.847
109 T8 154 -9.593
109 T8 155 4.567
109 T8 156 13.845
109 T8 157 11.403
109 T8 158 -0.804
109 T8 159 -13.499
109 T8 160 -19.358
109 T8 161 -16.429
109 T8 162 -11.546
109 T8 163 -11.546
109 T8 164 -16.917
109 T8 165 -21.311
109 T8 166 -16.917
109 T8 167 -3.245
109 T8 168 13.357
109 T8 169 21.657
109 T8 170 18.239
109 T8 171 6.521
109 T8 172 -4.222
109 T8 173 -7.151
109 T8 174 -3.245
109 T8 175 0.661
109 T8 176 -0.804
109 T8 177 -8.128
109 T8 178 -15.452
109 T8 179 -17.893
109 T8 180 -13.011
109 T8 181 -3.245
109 T8 182 6.521
109 T8 183 13.357
109 T8 184 14.333
109 T8 185 8.962
109 T8 186 -1.780
109 T8 187 -14.964
109 T8 188 -24.729
109 T8 189 -26.683
109 T8 190 -19.358
109 T8 191 -7.151
109 T8 192 3.103
109 T8 193 5.056
109 T8 194 -3.245
109 T8 195 -16.429
109 T8 196 -28.147
109 T8 197 -34.495
109 T8 198 -35.472
109 T8 199 -35.472
109 T8 200 -35.472
109 T8 201 -34.495
109 T8 202 -28.147
109 T8 203 -14.476
109 T8 204 3.103
109 T8 205 15.798
109 T8 206 17.751
109 T8 207 8.474
109 T8 208 -3.245
109 T8 209 -9.104
109 T8 210 -6.175
109 T8 211 0.661
109 T8 212 3.591
109 T8 213 -1.292
109 T8 214 -10.081
109 T8 215 -15.940
109 T8 216 -14.964
109 T8 217 -9.104
109 T8 218 -3.733
109 T8 219 -3.245
109 T8 220 -5.198
109 T8 221 -6.175
109 T8 222 -4.710
109 T8 223 -2.268
109 T8 224 -2.757
109 T8 225 -8.616
109 T8 226 -15.940
109 T8 227 -21.800
109 T8 228 -22.288
109 T8 229 -18.382
109 T8 230 -12.034
109 T8 231 -5.686
109 T8 232 -0.804
109 T8 233 2.126
109 T8 234 2.126
109 T8 235 -0.315
109 T8 236 -4.710
109 T8 237 -7.151
109 T8 238 -5.686
109 T8 239 -0.315
109 T8 240 4.079
109 T8 241 6.032
109 T8 242 5.544
109 T8 243 5.544
109 T8 244 7.985
109 T8 245 9.939
109 T8 246 6.032
109 T8 247 -6.663
109 T8 248 -22.288
109 T8 249 -34.007
109 T8 250 -35.472
109 T8 251 -30.101
109 T8 252 -26.194
109 T8 253 -28.636
109 T8 254 -34.007
109 T8 255 -33.030
# T7 chan 14
109 T7 0 2.767
109 T7 1 1.790
109 T7 2 1.790
109 T7 3 2.279
109 T7 4 2.279
109 T7 5 3.255
109 T7 6 4.232
109 T7 7 5.697
109 T7 8 7.650
109 T7 9 10.091
109 T7 10 13.509
109 T7 11 17.415
109 T7 12 20.345
109 T7 13 20.345
109 T7 14 16.927
109 T7 15 11.556
109 T7 16 6.185
109 T7 17 3.255
109 T7 18 3.743
109 T7 19 7.161
109 T7 20 11.068
109 T7 21 13.509
109 T7 22 13.509
109 T7 23 11.556
109 T7 24 8.626
109 T7 25 5.697
109 T7 26 2.767
109 T7 27 -0.163
109 T7 28 -1.628
109 T7 29 -0.651
109 T7 30 3.255
109 T7 31 9.115
109 T7 32 15.462
109 T7 33 19.857
109 T7 34 21.322
109 T7 35 20.345
109 T7 36 16.439
109 T7 37 10.579
109 T7 38 4.232
109 T7 39 0.814
109 T7 40 2.767
109 T7 41 9.603
109 T7 42 17.415
109 T7 43 22.786
109 T7 44 23.275
109 T7 45 20.345
109 T7 46 16.439
109 T7 47 12.533
109 T7 48 9.115
109 T7 49 4.232
109 T7 50 -1.628
109 T7 51 -6.022
109 T7 52 -6.999
109 T7 53 -2.604
109 T7 54 3.255
109 T7 55 7.650
109 T7 56 6.673
109 T7 57 1.302
109 T7 58 -5.046
109 T7 59 -8.952
109 T7 60 -8.952
109 T7 61 -6.510
109 T7 62 -2.604
109 T7 63 1.302
109 T7 64 5.208
109 T7 65 7.650
109 T7 66 8.626
109 T7 67 6.185
109 T7 68 1.302
109 T7 69 -5.046
109 T7 70 -9.928
109 T7 71 -11.393
109 T7 72 -8.952
109 T7 73 -5.046
109 T7 74 -0.163
109 T7 75 3.255
109 T7 76 5.697
109 T7 77 6.673
109 T7 78 6.185
109 T7 79 4.720
109 T7 80 3.743
109 T7 81 4.232
109 T7 82 6.673
109 T7 83 9.603
109 T7 84 10.579
109 T7 85 7.650
109 T7 86 2.767
109 T7 87 -2.604
109 T7 88 -4.557
109 T7 89 -3.581
109 T7 90 -1.139
109 T7 91 -0.651
109 T7 92 -3.581
109 T7 93 -8.464
109 T7 94 -11.393
109 T7 95 -10.905
109 T7 96 -8.464
109 T7 97 -5.046
109 T7 98 -3.092
109 T7 99 -2.604
109 T7 100 -2.116
109 T7 101 -1.139
109 T7 102 0.326
109 T7 103 0.814
109 T7 104 -0.651
109 T7 105 -4.069
109 T7 106 -7.487
109 T7 107 -9.440
109 T7 108 -8.952
109 T7 109 -6.510
109 T7 110 -3.581
109 T7 111 -1.628
109 T7 112 -1.139
109 T7 113 -2.604
109 T7 114 -4.069
109 T7 115 -5.046
109 T7 116 -2.604
109 T7 117 2.279
109 T7 118 7.161
109 T7 119 9.115
109 T7 120 4.720
109 T7 121 -4.069
109 T7 122 -12.370
109 T7 123 -15.299
109 T7 124 -11.882
109 T7 125 -5.046
109 T7 126 0.326
109 T7 127 0.326
109 T7 128 -2.604
109 T7 129 -5.534
109 T7 130 -3.581
109 T7 131 2.279
109 T7 132 8.138
109 T7 133 11.556
109 T7 134 12.044
109 T7 135 11.068
109 T7 136 10.091
109 T7 137 8.138
109 T7 138 5.697
109 T7 139 1.790
109 T7 140 -2.116
109 T7 141 -2.604
109 T7 142 -2.116
109 T7 143 -2.604
109 T7 144 -6.510
109 T7 145 -13.346
109 T7 146 -19.206
109 T7 147 -20.671
109 T7 148 -15.788
109 T7 149 -6.999
109 T7 150 0.326
109 T7 151 3.255
109 T7 152 2.767
109 T7 153 1.302
109 T7 154 0.814
109 T7 155 1.790
109 T7 156 2.279
109 T7 157 0.326
109 T7 158 -4.557
109 T7 159 -9.440
109 T7 160 -12.858
109 T7 161 -11.882
109 T7 162 -6.999
109 T7 163 0.326
109 T7 164 5.697
109 T7 165 8.626
109 T7 166 7.161
109 T7 167 2.767
109 T7 168 -1.628
109 T7 169 -3.581
109 T7 170 -3.092
109 T7 171 -0.651
109 T7 172 2.279
109 T7 173 4.720
109 T7 174 7.161
109 T7 175 8.138
109 T7 176 7.650
109 T7 177 3.743
109 T7 178 -2.604
109 T7 179 -8.464
109 T7 180 -10.417
109 T7 181 -6.510
109 T7 182 1.302
109 T7 183 8.626
109 T7 184 11.556
109 T7 185 9.115
109 T7 186 2.767
109 T7 187 -3.581
109 T7 188 -8.464
109 T7 189 -10.417
109 T7 190 -10.905
109 T7 191 -10.417
109 T7 192 -7.975
109 T7 193 -5.046
109 T7 194 -1.139
109 T7 195 2.767
109 T7 196 6.673
109 T7 197 8.138
109 T7 198 7.650
109 T7 199 3.743
109 T7 200 -3.581
109 T7 201 -12.858
109 T7 202 -21.647
109 T7 203 -26.042
109 T7 204 -24.577
109 T7 205 -18.717
109 T7 206 -11.882
109 T7 207 -7.487
109 T7 208 -6.510
109 T7 209 -6.510
109 T7 210 -5.534
109 T7 211 -3.092
109 T7 212 -0.163
109 T7 213 0.326
109 T7 214 -1.628
109 T7 215 -4.069
109 T7 216 -3.581
109 T7 217 0.814
109 T7 218 7.161
109 T7 219 12.533
109 T7 220 14.974
109 T7 221 14.486
109 T7 222 12.533
109 T7 223 11.068
109 T7 224 10.091
109 T7 225 7.161
109 T7 226 1.302
109 T7 227 -6.022
109 T7 228 -12.370
109 T7 229 -14.323
109 T7 230 -12.858
109 T7 231 -10.417
109 T7 232 -8.952
109 T7 233 -10.417
109 T7 234 -12.858
109 T7 235 -14.323
109 T7 236 -13.346
109 T7 237 -9.440
109 T7 238 -3.581
109 T7 239 3.255
109 T7 240 9.115
109 T7 241 12.044
109 T7 242 10.579
109 T7 243 5.208
109 T7 244 -2.116
109 T7 245 -8.464
109 T7 246 -12.370
109 T7 247 -15.299
109 T7 248 -17.253
109 T7 249 -18.717
109 T7 250 -18.717
109 T7 251 -15.299
109 T7 252 -8.952
109 T7 253 -2.604
109 T7 254 0.326
109 T7 255 -1.139
# CZ chan 15
109 CZ 0 12.655
109 CZ 1 14.119
109 CZ 2 12.655
109 CZ 3 10.701
109 CZ 4 9.237
109 CZ 5 9.725
109 CZ 6 11.190
109 CZ 7 12.166
109 CZ 8 12.166
109 CZ 9 11.190
109 CZ 10 11.678
109 CZ 11 13.631
109 CZ 12 16.561
109 CZ 13 18.026
109 CZ 14 16.561
109 CZ 15 13.143
109 CZ 16 9.725
109 CZ 17 7.772
109 CZ 18 7.284
109 CZ 19 7.284
109 CZ 20 4.842
109 CZ 21 0.448
109 CZ 22 -4.435
109 CZ 23 -7.365
109 CZ 24 -6.877
109 CZ 25 -3.947
109 CZ 26 -1.017
109 CZ 27 -0.041
109 CZ 28 -0.041
109 CZ 29 0.936
109 CZ 30 4.842
109 CZ 31 12.166
109 CZ 32 20.467
109 CZ 33 27.791
109 CZ 34 30.721
109 CZ 35 29.744
109 CZ 36 24.862
109 CZ 37 19.002
109 CZ 38 15.584
109 CZ 39 16.561
109 CZ 40 21.932
109 CZ 41 29.744
109 CZ 42 36.092
109 CZ 43 38.534
109 CZ 44 37.557
109 CZ 45 35.116
109 CZ 46 33.162
109 CZ 47 30.233
109 CZ 48 25.838
109 CZ 49 18.026
109 CZ 50 9.237
109 CZ 51 3.377
109 CZ 52 3.377
109 CZ 53 7.284
109 CZ 54 11.190
109 CZ 55 10.213
109 CZ 56 3.866
109 CZ 57 -5.900
109 CZ 58 -12.736
109 CZ 59 -14.689
109 CZ 60 -11.759
109 CZ 61 -6.877
109 CZ 62 -2.482
109 CZ 63 -0.041
109 CZ 64 1.424
109 CZ 65 1.424
109 CZ 66 -0.041
109 CZ 67 -3.459
109 CZ 68 -8.830
109 CZ 69 -14.689
109 CZ 70 -18.107
109 CZ 71 -18.595
109 CZ 72 -15.666
109 CZ 73 -12.248
109 CZ 74 -8.341
109 CZ 75 -6.877
109 CZ 76 -6.388
109 CZ 77 -6.877
109 CZ 78 -6.388
109 CZ 79 -4.924
109 CZ 80 -1.994
109 CZ 81 2.401
109 CZ 82 5.819
109 CZ 83 7.284
109 CZ 84 5.819
109 CZ 85 0.936
109 CZ 86 -5.412
109 CZ 87 -11.271
109 CZ 88 -14.201
109 CZ 89 -13.713
109 CZ 90 -10.783
109 CZ 91 -7.365
109 CZ 92 -5.412
109 CZ 93 -6.877
109 CZ 94 -10.783
109 CZ 95 -14.689
109 CZ 96 -17.131
109 CZ 97 -16.154
109 CZ 98 -13.224
109 CZ 99 -10.783
109 CZ 100 -8.830
109 CZ 101 -9.806
109 CZ 102 -12.248
109 CZ 103 -15.666
109 CZ 104 -18.107
109 CZ 105 -18.595
109 CZ 106 -18.107
109 CZ 107 -16.642
109 CZ 108 -15.666
109 CZ 109 -15.177
109 CZ 110 -15.177
109 CZ 111 -15.666
109 CZ 112 -15.177
109 CZ 113 -14.201
109 CZ 114 -13.224
109 CZ 115 -12.736
109 CZ 116 -10.783
109 CZ 117 -6.877
109 CZ 118 -2.482
109 CZ 119 0.936
109 CZ 120 0.448
109 CZ 121 -4.435
109 CZ 122 -10.783
109 CZ 123 -14.689
109 CZ 124 -14.201
109 CZ 125 -10.295
109 CZ 126 -6.388
109 CZ 127 -5.900
109 CZ 128 -6.877
109 CZ 129 -8.341
109 CZ 130 -6.388
109 CZ 131 -1.506
109 CZ 132 3.377
109 CZ 133 6.307
109 CZ 134 6.307
109 CZ 135 3.866
109 CZ 136 -0.041
109 CZ 137 -5.412
109 CZ 138 -12.736
109 CZ 139 -21.037
109 CZ 140 -27.384
109 CZ 141 -30.314
109 CZ 142 -30.802
109 CZ 143 -31.779
109 CZ 144 -34.709
109 CZ 145 -39.591
109 CZ 146 -42.033
109 CZ 147 -39.103
109 CZ 148 -30.802
109 CZ 149 -22.013
109 CZ 150 -16.642
109 CZ 151 -18.107
109 CZ 152 -21.525
109 CZ 153 -22.990
109 CZ 154 -20.549
109 CZ 155 -15.666
109 CZ 156 -14.201
109 CZ 157 -17.131
109 CZ 158 -22.013
109 CZ 159 -23.966
109 CZ 160 -21.037
109 CZ 161 -14.689
109 CZ 162 -8.830
109 CZ 163 -6.877
109 CZ 164 -7.853
109 CZ 165 -8.830
109 CZ 166 -9.806
109 CZ 167 -10.783
109 CZ 168 -13.713
109 CZ 169 -18.107
109 CZ 170 -20.549
109 CZ 171 -19.084
109 CZ 172 -13.224
109 CZ 173 -5.900
109 CZ 174 -1.506
109 CZ 175 -1.506
109 CZ 176 -6.388
109 CZ 177 -11.759
109 CZ 178 -15.666
109 CZ 179 -15.666
109 CZ 180 -12.736
109 CZ 181 -7.365
109 CZ 182 -2.482
109 CZ 183 1.424
109 CZ 184 1.912
109 CZ 185 -1.994
109 CZ 186 -9.806
109 CZ 187 -19.572
109 CZ 188 -27.873
109 CZ 189 -32.756
109 CZ 190 -33.244
109 CZ 191 -30.314
109 CZ 192 -26.896
109 CZ 193 -23.478
109 CZ 194 -21.525
109 CZ 195 -20.060
109 CZ 196 -19.572
109 CZ 197 -20.060
109 CZ 198 -21.525
109 CZ 199 -24.455
109 CZ 200 -27.873
109 CZ 201 -30.802
109 CZ 202 -31.779
109 CZ 203 -29.826
109 CZ 204 -24.943
109 CZ 205 -19.084
109 CZ 206 -13.713
109 CZ 207 -8.830
109 CZ 208 -5.900
109 CZ 209 -4.435
109 CZ 210 -6.388
109 CZ 211 -11.271
109 CZ 212 -17.619
109 CZ 213 -24.455
109 CZ 214 -26.896
109 CZ 215 -23.966
109 CZ 216 -17.131
109 CZ 217 -10.295
109 CZ 218 -5.900
109 CZ 219 -5.412
109 CZ 220 -6.388
109 CZ 221 -6.388
109 CZ 222 -4.435
109 CZ 223 -1.506
109 CZ 224 -1.994
109 CZ 225 -6.877
109 CZ 226 -15.666
109 CZ 227 -24.455
109 CZ 228 -29.826
109 CZ 229 -30.314
109 CZ 230 -26.408
109 CZ 231 -20.549
109 CZ 232 -14.201
109 CZ 233 -7.853
109 CZ 234 -1.994
109 CZ 235 0.936
109 CZ 236 0.448
109 CZ 237 -3.947
109 CZ 238 -9.806
109 CZ 239 -12.248
109 CZ 240 -9.806
109 CZ 241 -2.970
109 CZ 242 2.889
109 CZ 243 3.866
109 CZ 244 -2.482
109 CZ 245 -12.248
109 CZ 246 -22.013
109 CZ 247 -27.873
109 CZ 248 -29.826
109 CZ 249 -27.873
109 CZ 250 -24.455
109 CZ 251 -21.037
109 CZ 252 -16.642
109 CZ 253 -13.224
109 CZ 254 -10.783
109 CZ 255 -9.318
# C3 chan 16
109 C3 0 1.200
109 C3 1 -0.264
109 C3 2 -0.264
109 C3 3 1.200
109 C3 4 3.153
109 C3 5 5.107
109 C3 6 5.595
109 C3 7 4.130
109 C3 8 2.665
109 C3 9 2.665
109 C3 10 3.642
109 C3 11 6.083
109 C3 12 7.060
109 C3 13 5.595
109 C3 14 2.665
109 C3 15 -0.753
109 C3 16 -2.706
109 C3 17 -1.729
109 C3 18 1.200
109 C3 19 4.130
109 C3 20 6.083
109 C3 21 6.571
109 C3 22 5.595
109 C3 23 4.130
109 C3 24 3.153
109 C3 25 1.200
109 C3 26 -0.264
109 C3 27 -3.194
109 C3 28 -5.147
109 C3 29 -6.612
109 C3 30 -5.636
109 C3 31 -3.194
109 C3 32 -0.264
109 C3 33 1.689
109 C3 34 1.689
109 C3 35 -0.264
109 C3 36 -3.194
109 C3 37 -4.659
109 C3 38 -4.659
109 C3 39 -2.706
109 C3 40 -0.264
109 C3 41 1.200
109 C3 42 1.200
109 C3 43 0.224
109 C3 44 -1.241
109 C3 45 -2.218
109 C3 46 -2.706
109 C3 47 -3.194
109 C3 48 -3.682
109 C3 49 -4.659
109 C3 50 -4.659
109 C3 51 -3.194
109 C3 52 -0.264
109 C3 53 3.642
109 C3 54 6.083
109 C3 55 6.083
109 C3 56 3.642
109 C3 57 0.712
109 C3 58 -0.753
109 C3 59 -0.753
109 C3 60 0.712
109 C3 61 3.153
109 C3 62 5.107
109 C3 63 6.083
109 C3 64 5.595
109 C3 65 5.107
109 C3 66 3.642
109 C3 67 2.177
109 C3 68 0.224
109 C3 69 -1.241
109 C3 70 -1.729
109 C3 71 -1.241
109 C3 72 0.224
109 C3 73 2.665
109 C3 74 4.618
109 C3 75 6.571
109 C3 76 6.571
109 C3 77 5.595
109 C3 78 3.153
109 C3 79 0.712
109 C3 80 -0.753
109 C3 81 -0.264
109 C3 82 1.200
109 C3 83 3.153
109 C3 84 4.618
109 C3 85 5.107
109 C3 86 4.130
109 C3 87 3.153
109 C3 88 2.177
109 C3 89 1.200
109 C3 90 0.224
109 C3 91 0.224
109 C3 92 -0.264
109 C3 93 -0.753
109 C3 94 -1.241
109 C3 95 -2.218
109 C3 96 -3.194
109 C3 97 -3.682
109 C3 98 -3.682
109 C3 99 -2.706
109 C3 100 -2.218
109 C3 101 -1.729
109 C3 102 -1.241
109 C3 103 -0.264
109 C3 104 0.224
109 C3 105 1.200
109 C3 106 1.689
109 C3 107 2.177
109 C3 108 2.177
109 C3 109 3.153
109 C3 110 4.130
109 C3 111 4.618
109 C3 112 3.642
109 C3 113 1.689
109 C3 114 -0.753
109 C3 115 -2.218
109 C3 116 -2.218
109 C3 117 -1.241
109 C3 118 -0.753
109 C3 119 -1.241
109 C3 120 -3.194
109 C3 121 -6.124
109 C3 122 -8.077
109 C3 123 -8.565
109 C3 124 -8.077
109 C3 125 -6.124
109 C3 126 -3.682
109 C3 127 -1.729
109 C3 128 -0.753
109 C3 129 -0.264
109 C3 130 0.712
109 C3 131 1.200
109 C3 132 1.689
109 C3 133 1.689
109 C3 134 1.200
109 C3 135 -0.264
109 C3 136 -1.729
109 C3 137 -3.194
109 C3 138 -4.659
109 C3 139 -4.659
109 C3 140 -3.682
109 C3 141 -1.241
109 C3 142 0.224
109 C3 143 0.224
109 C3 144 -1.241
109 C3 145 -3.194
109 C3 146 -4.171
109 C3 147 -2.706
109 C3 148 0.224
109 C3 149 2.665
109 C3 150 3.153
109 C3 151 1.689
109 C3 152 0.712
109 C3 153 -0.264
109 C3 154 -0.753
109 C3 155 -1.729
109 C3 156 -2.706
109 C3 157 -3.682
109 C3 158 -3.194
109 C3 159 -2.706
109 C3 160 -1.729
109 C3 161 -1.241
109 C3 162 -1.729
109 C3 163 -2.706
109 C3 164 -2.218
109 C3 165 -0.753
109 C3 166 1.200
109 C3 167 1.689
109 C3 168 0.712
109 C3 169 -0.753
109 C3 170 -1.241
109 C3 171 0.712
109 C3 172 3.642
109 C3 173 6.083
109 C3 174 6.083
109 C3 175 3.642
109 C3 176 -0.264
109 C3 177 -4.171
109 C3 178 -6.124
109 C3 179 -6.124
109 C3 180 -5.636
109 C3 181 -3.682
109 C3 182 -1.729
109 C3 183 -0.264
109 C3 184 0.712
109 C3 185 0.224
109 C3 186 -1.729
109 C3 187 -5.147
109 C3 188 -7.100
109 C3 189 -7.589
109 C3 190 -5.636
109 C3 191 -1.241
109 C3 192 2.665
109 C3 193 6.083
109 C3 194 9.501
109 C3 195 11.943
109 C3 196 13.896
109 C3 197 13.896
109 C3 198 11.454
109 C3 199 5.595
109 C3 200 -3.194
109 C3 201 -11.007
109 C3 202 -16.378
109 C3 203 -18.819
109 C3 204 -17.843
109 C3 205 -16.378
109 C3 206 -15.889
109 C3 207 -15.401
109 C3 208 -14.913
109 C3 209 -12.960
109 C3 210 -10.030
109 C3 211 -7.100
109 C3 212 -5.636
109 C3 213 -5.147
109 C3 214 -5.147
109 C3 215 -3.682
109 C3 216 -0.264
109 C3 217 3.153
109 C3 218 6.083
109 C3 219 7.548
109 C3 220 8.525
109 C3 221 9.501
109 C3 222 11.454
109 C3 223 13.896
109 C3 224 15.361
109 C3 225 15.361
109 C3 226 12.919
109 C3 227 8.525
109 C3 228 4.130
109 C3 229 -0.753
109 C3 230 -5.636
109 C3 231 -10.030
109 C3 232 -13.936
109 C3 233 -17.843
109 C3 234 -19.796
109 C3 235 -20.284
109 C3 236 -18.819
109 C3 237 -14.913
109 C3 238 -10.030
109 C3 239 -4.171
109 C3 240 0.712
109 C3 241 3.642
109 C3 242 5.107
109 C3 243 5.107
109 C3 244 4.618
109 C3 245 4.618
109 C3 246 5.107
109 C3 247 5.107
109 C3 248 4.130
109 C3 249 2.665
109 C3 250 1.689
109 C3 251 2.177
109 C3 252 3.642
109 C3 253 5.595
109 C3 254 5.107
109 C3 255 3.642
# C4 chan 17
109 C4 0 -6.653
109 C4 1 -2.258
109 C4 2 2.136
109 C4 3 3.113
109 C4 4 0.671
109 C4 5 -2.747
109 C4 6 -4.700
109 C4 7 -3.723
109 C4 8 -0.793
109 C4 9 1.648
109 C4 10 1.648
109 C4 11 -0.793
109 C4 12 -2.258
109 C4 13 -1.770
109 C4 14 0.671
109 C4 15 3.113
109 C4 16 3.113
109 C4 17 1.160
109 C4 18 -2.258
109 C4 19 -4.211
109 C4 20 -4.211
109 C4 21 -2.258
109 C4 22 -0.305
109 C4 23 1.648
109 C4 24 4.089
109 C4 25 7.507
109 C4 26 10.925
109 C4 27 13.367
109 C4 28 11.414
109 C4 29 4.578
109 C4 30 -4.211
109 C4 31 -10.559
109 C4 32 -11.047
109 C4 33 -5.188
109 C4 34 3.113
109 C4 35 8.484
109 C4 36 8.972
109 C4 37 6.042
109 C4 38 2.625
109 C4 39 0.183
109 C4 40 -1.282
109 C4 41 -2.747
109 C4 42 -3.723
109 C4 43 -1.770
109 C4 44 2.136
109 C4 45 7.019
109 C4 46 9.949
109 C4 47 9.949
109 C4 48 7.996
109 C4 49 6.042
109 C4 50 4.578
109 C4 51 3.113
109 C4 52 -0.305
109 C4 53 -6.165
109 C4 54 -12.512
109 C4 55 -15.442
109 C4 56 -13.489
109 C4 57 -7.629
109 C4 58 -1.770
109 C4 59 0.671
109 C4 60 -1.770
109 C4 61 -6.165
109 C4 62 -9.094
109 C4 63 -9.094
109 C4 64 -7.141
109 C4 65 -3.723
109 C4 66 -1.282
109 C4 67 -0.793
109 C4 68 -1.282
109 C4 69 -3.235
109 C4 70 -4.700
109 C4 71 -5.188
109 C4 72 -4.211
109 C4 73 -2.258
109 C4 74 -1.770
109 C4 75 -3.235
109 C4 76 -5.676
109 C4 77 -6.653
109 C4 78 -4.700
109 C4 79 -0.305
109 C4 80 3.601
109 C4 81 4.578
109 C4 82 2.136
109 C4 83 -2.258
109 C4 84 -4.700
109 C4 85 -4.211
109 C4 86 -1.282
109 C4 87 0.671
109 C4 88 1.160
109 C4 89 -0.793
109 C4 90 -2.258
109 C4 91 -2.258
109 C4 92 -0.793
109 C4 93 1.648
109 C4 94 2.136
109 C4 95 0.183
109 C4 96 -2.747
109 C4 97 -5.188
109 C4 98 -4.211
109 C4 99 -0.305
109 C4 100 5.066
109 C4 101 8.484
109 C4 102 7.996
109 C4 103 3.113
109 C4 104 -3.723
109 C4 105 -9.583
109 C4 106 -11.536
109 C4 107 -9.094
109 C4 108 -5.188
109 C4 109 -1.770
109 C4 110 -2.747
109 C4 111 -6.653
109 C4 112 -11.047
109 C4 113 -12.512
109 C4 114 -10.559
109 C4 115 -6.653
109 C4 116 -3.723
109 C4 117 -3.723
109 C4 118 -5.676
109 C4 119 -7.141
109 C4 120 -6.653
109 C4 121 -4.211
109 C4 122 -2.747
109 C4 123 -4.211
109 C4 124 -8.118
109 C4 125 -12.512
109 C4 126 -14.954
109 C4 127 -14.465
109 C4 128 -11.536
109 C4 129 -8.606
109 C4 130 -7.629
109 C4 131 -6.653
109 C4 132 -4.700
109 C4 133 -1.770
109 C4 134 1.648
109 C4 135 3.601
109 C4 136 3.601
109 C4 137 3.113
109 C4 138 2.625
109 C4 139 1.648
109 C4 140 -0.793
109 C4 141 -5.188
109 C4 142 -9.094
109 C4 143 -9.583
109 C4 144 -5.676
109 C4 145 -0.305
109 C4 146 1.160
109 C4 147 -3.723
109 C4 148 -11.047
109 C4 149 -15.442
109 C4 150 -12.512
109 C4 151 -3.723
109 C4 152 5.066
109 C4 153 7.019
109 C4 154 2.625
109 C4 155 -4.211
109 C4 156 -8.118
109 C4 157 -7.629
109 C4 158 -5.676
109 C4 159 -5.188
109 C4 160 -6.165
109 C4 161 -6.165
109 C4 162 -2.747
109 C4 163 2.136
109 C4 164 6.042
109 C4 165 5.554
109 C4 166 2.136
109 C4 167 0.183
109 C4 168 0.671
109 C4 169 3.113
109 C4 170 2.625
109 C4 171 -2.258
109 C4 172 -10.559
109 C4 173 -15.930
109 C4 174 -15.930
109 C4 175 -10.071
109 C4 176 -2.258
109 C4 177 1.160
109 C4 178 0.183
109 C4 179 -2.258
109 C4 180 -3.235
109 C4 181 -0.305
109 C4 182 4.089
109 C4 183 7.507
109 C4 184 7.019
109 C4 185 5.066
109 C4 186 3.113
109 C4 187 3.113
109 C4 188 2.136
109 C4 189 -1.282
109 C4 190 -7.141
109 C4 191 -12.512
109 C4 192 -13.977
109 C4 193 -10.559
109 C4 194 -5.188
109 C4 195 -2.747
109 C4 196 -6.653
109 C4 197 -15.442
109 C4 198 -24.231
109 C4 199 -26.672
109 C4 200 -20.325
109 C4 201 -8.606
109 C4 202 3.113
109 C4 203 7.996
109 C4 204 6.042
109 C4 205 1.160
109 C4 206 -0.793
109 C4 207 1.648
109 C4 208 6.531
109 C4 209 7.996
109 C4 210 4.089
109 C4 211 -2.258
109 C4 212 -6.653
109 C4 213 -5.676
109 C4 214 -0.793
109 C4 215 2.625
109 C4 216 2.625
109 C4 217 -0.305
109 C4 218 -2.747
109 C4 219 -2.258
109 C4 220 -0.793
109 C4 221 -1.770
109 C4 222 -6.653
109 C4 223 -13.000
109 C4 224 -16.907
109 C4 225 -15.930
109 C4 226 -11.047
109 C4 227 -6.165
109 C4 228 -4.211
109 C4 229 -4.700
109 C4 230 -5.188
109 C4 231 -2.747
109 C4 232 0.671
109 C4 233 3.113
109 C4 234 3.601
109 C4 235 1.160
109 C4 236 -1.770
109 C4 237 -5.188
109 C4 238 -8.118
109 C4 239 -10.071
109 C4 240 -10.071
109 C4 241 -6.653
109 C4 242 -0.793
109 C4 243 2.625
109 C4 244 0.183
109 C4 245 -9.094
109 C4 246 -20.325
109 C4 247 -26.672
109 C4 248 -23.743
109 C4 249 -14.465
109 C4 250 -5.188
109 C4 251 -1.282
109 C4 252 -4.211
109 C4 253 -8.118
109 C4 254 -9.094
109 C4 255 -5.676
# CP5 chan 18
109 CP5 0 1.282
109 CP5 1 -3.113
109 CP5 2 -5.554
109 CP5 3 -6.042
109 CP5 4 -3.113
109 CP5 5 1.282
109 CP5 6 5.188
109 CP5 7 7.141
109 CP5 8 8.118
109 CP5 9 9.094
109 CP5 10 12.024
109 CP5 11 15.930
109 CP5 12 18.372
109 CP5 13 17.883
109 CP5 14 13.977
109 CP5 15 8.118
109 CP5 16 3.235
109 CP5 17 1.770
109 CP5 18 3.235
109 CP5 19 6.165
109 CP5 20 8.606
109 CP5 21 8.606
109 CP5 22 7.629
109 CP5 23 5.676
109 CP5 24 3.723
109 CP5 25 1.770
109 CP5 26 0.305
109 CP5 27 -1.160
109 CP5 28 -1.648
109 CP5 29 -0.183
109 CP5 30 2.258
109 CP5 31 6.165
109 CP5 32 10.071
109 CP5 33 12.512
109 CP5 34 11.536
109 CP5 35 7.629
109 CP5 36 1.282
109 CP5 37 -5.066
109 CP5 38 -7.996
109 CP5 39 -7.507
109 CP5 40 -2.625
109 CP5 41 2.747
109 CP5 42 6.165
109 CP5 43 5.676
109 CP5 44 2.258
109 CP5 45 -1.160
109 CP5 46 -3.113
109 CP5 47 -3.601
109 CP5 48 -2.625
109 CP5 49 -2.625
109 CP5 50 -2.625
109 CP5 51 -2.136
109 CP5 52 0.305
109 CP5 53 4.211
109 CP5 54 8.118
109 CP5 55 9.094
109 CP5 56 7.629
109 CP5 57 3.235
109 CP5 58 -0.671
109 CP5 59 -2.625
109 CP5 60 -2.136
109 CP5 61 0.305
109 CP5 62 3.235
109 CP5 63 5.188
109 CP5 64 5.676
109 CP5 65 4.211
109 CP5 66 1.770
109 CP5 67 -2.136
109 CP5 68 -5.554
109 CP5 69 -8.484
109 CP5 70 -8.972
109 CP5 71 -7.507
109 CP5 72 -3.601
109 CP5 73 0.793
109 CP5 74 5.188
109 CP5 75 8.118
109 CP5 76 9.583
109 CP5 77 8.606
109 CP5 78 6.165
109 CP5 79 3.235
109 CP5 80 2.258
109 CP5 81 4.211
109 CP5 82 7.141
109 CP5 83 10.071
109 CP5 84 11.047
109 CP5 85 9.094
109 CP5 86 5.188
109 CP5 87 0.793
109 CP5 88 -2.136
109 CP5 89 -3.113
109 CP5 90 -2.625
109 CP5 91 -0.671
109 CP5 92 1.282
109 CP5 93 2.747
109 CP5 94 1.770
109 CP5 95 -0.183
109 CP5 96 -2.625
109 CP5 97 -4.089
109 CP5 98 -4.089
109 CP5 99 -3.113
109 CP5 100 -1.648
109 CP5 101 -0.671
109 CP5 102 -0.671
109 CP5 103 -1.648
109 CP5 104 -2.136
109 CP5 105 -3.113
109 CP5 106 -3.601
109 CP5 107 -3.113
109 CP5 108 -1.648
109 CP5 109 1.282
109 CP5 110 3.235
109 CP5 111 3.723
109 CP5 112 2.258
109 CP5 113 -0.183
109 CP5 114 -2.625
109 CP5 115 -2.625
109 CP5 116 -1.160
109 CP5 117 1.770
109 CP5 118 3.723
109 CP5 119 3.235
109 CP5 120 -0.671
109 CP5 121 -6.531
109 CP5 122 -12.390
109 CP5 123 -15.808
109 CP5 124 -15.808
109 CP5 125 -13.367
109 CP5 126 -10.925
109 CP5 127 -9.949
109 CP5 128 -10.437
109 CP5 129 -10.925
109 CP5 130 -9.949
109 CP5 131 -7.507
109 CP5 132 -4.089
109 CP5 133 -1.648
109 CP5 134 -0.183
109 CP5 135 -0.183
109 CP5 136 -1.648
109 CP5 137 -3.601
109 CP5 138 -5.066
109 CP5 139 -5.554
109 CP5 140 -4.578
109 CP5 141 -3.113
109 CP5 142 -2.625
109 CP5 143 -4.089
109 CP5 144 -7.996
109 CP5 145 -12.390
109 CP5 146 -15.320
109 CP5 147 -15.320
109 CP5 148 -12.878
109 CP5 149 -9.949
109 CP5 150 -7.507
109 CP5 151 -6.531
109 CP5 152 -6.042
109 CP5 153 -5.554
109 CP5 154 -5.066
109 CP5 155 -6.042
109 CP5 156 -7.507
109 CP5 157 -8.972
109 CP5 158 -9.460
109 CP5 159 -8.972
109 CP5 160 -8.484
109 CP5 161 -7.019
109 CP5 162 -6.531
109 CP5 163 -4.578
109 CP5 164 -2.136
109 CP5 165 0.793
109 CP5 166 2.258
109 CP5 167 0.793
109 CP5 168 -3.601
109 CP5 169 -7.996
109 CP5 170 -10.437
109 CP5 171 -9.460
109 CP5 172 -4.578
109 CP5 173 0.793
109 CP5 174 3.723
109 CP5 175 3.235
109 CP5 176 -0.671
109 CP5 177 -5.066
109 CP5 178 -7.996
109 CP5 179 -8.484
109 CP5 180 -6.042
109 CP5 181 -1.648
109 CP5 182 2.747
109 CP5 183 6.165
109 CP5 184 8.606
109 CP5 185 7.141
109 CP5 186 1.770
109 CP5 187 -6.042
109 CP5 188 -14.343
109 CP5 189 -19.226
109 CP5 190 -19.226
109 CP5 191 -13.855
109 CP5 192 -7.019
109 CP5 193 -0.183
109 CP5 194 3.235
109 CP5 195 5.188
109 CP5 196 5.676
109 CP5 197 4.700
109 CP5 198 0.793
109 CP5 199 -6.531
109 CP5 200 -16.785
109 CP5 201 -26.062
109 CP5 202 -31.921
109 CP5 203 -32.898
109 CP5 204 -28.992
109 CP5 205 -23.621
109 CP5 206 -18.738
109 CP5 207 -14.832
109 CP5 208 -12.878
109 CP5 209 -10.925
109 CP5 210 -8.972
109 CP5 211 -8.484
109 CP5 212 -9.460
109 CP5 213 -11.414
109 CP5 214 -12.390
109 CP5 215 -10.437
109 CP5 216 -6.531
109 CP5 217 -2.136
109 CP5 218 0.305
109 CP5 219 0.305
109 CP5 220 -1.648
109 CP5 221 -3.601
109 CP5 222 -3.601
109 CP5 223 -1.160
109 CP5 224 1.282
109 CP5 225 2.258
109 CP5 226 -0.183
109 CP5 227 -4.089
109 CP5 228 -7.996
109 CP5 229 -10.437
109 CP5 230 -10.437
109 CP5 231 -10.925
109 CP5 232 -13.367
109 CP5 233 -16.785
109 CP5 234 -20.203
109 CP5 235 -21.667
109 CP5 236 -18.738
109 CP5 237 -13.367
109 CP5 238 -7.996
109 CP5 239 -3.601
109 CP5 240 -2.625
109 CP5 241 -4.089
109 CP5 242 -7.507
109 CP5 243 -10.437
109 CP5 244 -13.367
109 CP5 245 -14.343
109 CP5 246 -15.320
109 CP5 247 -15.808
109 CP5 248 -17.273
109 CP5 249 -18.250
109 CP5 250 -17.761
109 CP5 251 -15.808
109 CP5 252 -12.390
109 CP5 253 -9.460
109 CP5 254 -7.996
109 CP5 255 -9.460
# CP6 chan 19
109 CP6 0 -7.212
109 CP6 1 -3.794
109 CP6 2 1.088
109 CP6 3 4.506
109 CP6 4 4.506
109 CP6 5 1.577
109 CP6 6 -1.353
109 CP6 7 -1.353
109 CP6 8 2.553
109 CP6 9 6.948
109 CP6 10 9.389
109 CP6 11 7.924
109 CP6 12 4.018
109 CP6 13 0.600
109 CP6 14 -0.376
109 CP6 15 0.600
109 CP6 16 2.065
109 CP6 17 2.553
109 CP6 18 1.577
109 CP6 19 1.088
109 CP6 20 1.088
109 CP6 21 1.088
109 CP6 22 1.088
109 CP6 23 1.088
109 CP6 24 1.577
109 CP6 25 3.530
109 CP6 26 6.948
109 CP6 27 8.413
109 CP6 28 6.460
109 CP6 29 1.088
109 CP6 30 -5.259
109 CP6 31 -6.236
109 CP6 32 -0.865
109 CP6 33 8.413
109 CP6 34 16.225
109 CP6 35 16.713
109 CP6 36 10.366
109 CP6 37 3.042
109 CP6 38 -0.376
109 CP6 39 0.600
109 CP6 40 4.018
109 CP6 41 5.483
109 CP6 42 4.506
109 CP6 43 3.042
109 CP6 44 4.506
109 CP6 45 7.924
109 CP6 46 12.319
109 CP6 47 13.784
109 CP6 48 11.831
109 CP6 49 8.901
109 CP6 50 6.460
109 CP6 51 4.995
109 CP6 52 2.553
109 CP6 53 -1.353
109 CP6 54 -6.236
109 CP6 55 -9.165
109 CP6 56 -8.677
109 CP6 57 -5.259
109 CP6 58 -0.865
109 CP6 59 1.088
109 CP6 60 0.112
109 CP6 61 -2.818
109 CP6 62 -6.724
109 CP6 63 -9.165
109 CP6 64 -9.654
109 CP6 65 -8.189
109 CP6 66 -6.724
109 CP6 67 -5.259
109 CP6 68 -5.747
109 CP6 69 -7.212
109 CP6 70 -8.677
109 CP6 71 -8.189
109 CP6 72 -3.794
109 CP6 73 1.088
109 CP6 74 4.018
109 CP6 75 2.553
109 CP6 76 -1.841
109 CP6 77 -4.771
109 CP6 78 -3.306
109 CP6 79 2.065
109 CP6 80 8.901
109 CP6 81 12.319
109 CP6 82 9.878
109 CP6 83 4.506
109 CP6 84 -0.376
109 CP6 85 -2.330
109 CP6 86 -1.841
109 CP6 87 -0.376
109 CP6 88 0.112
109 CP6 89 1.088
109 CP6 90 2.553
109 CP6 91 4.995
109 CP6 92 6.948
109 CP6 93 7.436
109 CP6 94 4.995
109 CP6 95 1.088
109 CP6 96 -3.306
109 CP6 97 -4.771
109 CP6 98 -1.841
109 CP6 99 2.553
109 CP6 100 7.436
109 CP6 101 9.878
109 CP6 102 7.436
109 CP6 103 2.065
109 CP6 104 -3.794
109 CP6 105 -7.701
109 CP6 106 -8.189
109 CP6 107 -6.236
109 CP6 108 -3.306
109 CP6 109 -1.353
109 CP6 110 -2.330
109 CP6 111 -5.747
109 CP6 112 -9.654
109 CP6 113 -12.583
109 CP6 114 -13.072
109 CP6 115 -10.630
109 CP6 116 -7.701
109 CP6 117 -5.259
109 CP6 118 -4.283
109 CP6 119 -4.771
109 CP6 120 -6.236
109 CP6 121 -8.189
109 CP6 122 -9.654
109 CP6 123 -11.607
109 CP6 124 -13.072
109 CP6 125 -14.537
109 CP6 126 -14.537
109 CP6 127 -14.048
109 CP6 128 -12.583
109 CP6 129 -12.095
109 CP6 130 -13.560
109 CP6 131 -14.537
109 CP6 132 -14.537
109 CP6 133 -12.095
109 CP6 134 -8.189
109 CP6 135 -3.794
109 CP6 136 -1.353
109 CP6 137 -0.376
109 CP6 138 -0.865
109 CP6 139 -2.330
109 CP6 140 -5.259
109 CP6 141 -9.165
109 CP6 142 -12.095
109 CP6 143 -13.560
109 CP6 144 -11.607
109 CP6 145 -9.165
109 CP6 146 -8.677
109 CP6 147 -13.072
109 CP6 148 -19.908
109 CP6 149 -24.302
109 CP6 150 -21.861
109 CP6 151 -13.560
109 CP6 152 -3.306
109 CP6 153 2.065
109 CP6 154 0.112
109 CP6 155 -6.724
109 CP6 156 -13.560
109 CP6 157 -16.001
109 CP6 158 -15.025
109 CP6 159 -11.607
109 CP6 160 -8.677
109 CP6 161 -5.747
109 CP6 162 -1.353
109 CP6 163 3.530
109 CP6 164 6.460
109 CP6 165 5.483
109 CP6 166 0.112
109 CP6 167 -6.236
109 CP6 168 -10.142
109 CP6 169 -9.165
109 CP6 170 -6.236
109 CP6 171 -5.259
109 CP6 172 -8.189
109 CP6 173 -13.560
109 CP6 174 -16.978
109 CP6 175 -16.001
109 CP6 176 -10.142
109 CP6 177 -3.794
109 CP6 178 0.112
109 CP6 179 1.088
109 CP6 180 1.088
109 CP6 181 3.042
109 CP6 182 6.460
109 CP6 183 9.389
109 CP6 184 8.901
109 CP6 185 4.506
109 CP6 186 -0.865
109 CP6 187 -4.771
109 CP6 188 -6.724
109 CP6 189 -7.701
109 CP6 190 -10.142
109 CP6 191 -13.560
109 CP6 192 -16.490
109 CP6 193 -16.978
109 CP6 194 -14.537
109 CP6 195 -13.560
109 CP6 196 -16.001
109 CP6 197 -22.837
109 CP6 198 -30.162
109 CP6 199 -33.091
109 CP6 200 -30.162
109 CP6 201 -22.349
109 CP6 202 -14.537
109 CP6 203 -11.119
109 CP6 204 -11.119
109 CP6 205 -10.630
109 CP6 206 -7.212
109 CP6 207 -0.376
109 CP6 208 4.506
109 CP6 209 4.506
109 CP6 210 -0.865
109 CP6 211 -7.212
109 CP6 212 -10.142
109 CP6 213 -7.701
109 CP6 214 -2.818
109 CP6 215 -0.865
109 CP6 216 -2.330
109 CP6 217 -6.236
109 CP6 218 -7.701
109 CP6 219 -6.236
109 CP6 220 -4.771
109 CP6 221 -5.259
109 CP6 222 -9.654
109 CP6 223 -16.001
109 CP6 224 -21.372
109 CP6 225 -22.837
109 CP6 226 -21.861
109 CP6 227 -20.396
109 CP6 228 -18.931
109 CP6 229 -16.490
109 CP6 230 -12.095
109 CP6 231 -5.259
109 CP6 232 0.600
109 CP6 233 4.506
109 CP6 234 4.995
109 CP6 235 3.530
109 CP6 236 0.600
109 CP6 237 -2.330
109 CP6 238 -5.259
109 CP6 239 -7.212
109 CP6 240 -5.747
109 CP6 241 -0.376
109 CP6 242 6.948
109 CP6 243 9.878
109 CP6 244 4.506
109 CP6 245 -9.654
109 CP6 246 -24.302
109 CP6 247 -32.603
109 CP6 248 -30.162
109 CP6 249 -20.884
109 CP6 250 -12.583
109 CP6 251 -10.630
109 CP6 252 -14.048
109 CP6 253 -17.955
109 CP6 254 -17.955
109 CP6 255 -14.048
# CP1 chan 20
109 CP1 0 -1.119
109 CP1 1 -3.072
109 CP1 2 -4.049
109 CP1 3 -3.560
109 CP1 4 -1.607
109 CP1 5 0.834
109 CP1 6 2.787
109 CP1 7 4.252
109 CP1 8 4.252
109 CP1 9 3.764
109 CP1 10 4.252
109 CP1 11 4.740
109 CP1 12 5.229
109 CP1 13 4.252
109 CP1 14 2.787
109 CP1 15 1.322
109 CP1 16 -0.142
109 CP1 17 -0.142
109 CP1 18 0.834
109 CP1 19 1.811
109 CP1 20 3.276
109 CP1 21 3.764
109 CP1 22 3.276
109 CP1 23 2.299
109 CP1 24 0.834
109 CP1 25 -1.607
109 CP1 26 -4.537
109 CP1 27 -6.978
109 CP1 28 -8.443
109 CP1 29 -8.443
109 CP1 30 -6.978
109 CP1 31 -4.049
109 CP1 32 -1.119
109 CP1 33 0.834
109 CP1 34 0.834
109 CP1 35 -0.631
109 CP1 36 -3.072
109 CP1 37 -5.514
109 CP1 38 -6.490
109 CP1 39 -6.002
109 CP1 40 -4.537
109 CP1 41 -3.072
109 CP1 42 -2.584
109 CP1 43 -4.049
109 CP1 44 -6.490
109 CP1 45 -8.443
109 CP1 46 -8.443
109 CP1 47 -7.467
109 CP1 48 -5.025
109 CP1 49 -4.049
109 CP1 50 -2.584
109 CP1 51 -1.119
109 CP1 52 0.834
109 CP1 53 3.276
109 CP1 54 5.229
109 CP1 55 6.205
109 CP1 56 5.229
109 CP1 57 3.764
109 CP1 58 1.811
109 CP1 59 0.834
109 CP1 60 1.322
109 CP1 61 2.299
109 CP1 62 2.787
109 CP1 63 3.276
109 CP1 64 3.276
109 CP1 65 2.787
109 CP1 66 1.322
109 CP1 67 0.346
109 CP1 68 -1.119
109 CP1 69 -1.607
109 CP1 70 -1.607
109 CP1 71 -1.119
109 CP1 72 0.834
109 CP1 73 2.787
109 CP1 74 5.229
109 CP1 75 6.694
109 CP1 76 7.182
109 CP1 77 6.205
109 CP1 78 3.764
109 CP1 79 1.322
109 CP1 80 0.346
109 CP1 81 1.322
109 CP1 82 3.276
109 CP1 83 5.229
109 CP1 84 5.717
109 CP1 85 4.740
109 CP1 86 2.787
109 CP1 87 1.322
109 CP1 88 0.346
109 CP1 89 0.346
109 CP1 90 1.811
109 CP1 91 3.276
109 CP1 92 4.252
109 CP1 93 4.252
109 CP1 94 3.764
109 CP1 95 2.299
109 CP1 96 0.834
109 CP1 97 0.346
109 CP1 98 0.346
109 CP1 99 1.322
109 CP1 100 2.299
109 CP1 101 2.299
109 CP1 102 2.299
109 CP1 103 1.322
109 CP1 104 0.834
109 CP1 105 0.346
109 CP1 106 0.346
109 CP1 107 1.322
109 CP1 108 2.299
109 CP1 109 4.252
109 CP1 110 5.229
109 CP1 111 5.229
109 CP1 112 4.252
109 CP1 113 2.299
109 CP1 114 0.346
109 CP1 115 -0.631
109 CP1 116 -0.142
109 CP1 117 0.346
109 CP1 118 1.322
109 CP1 119 0.346
109 CP1 120 -1.607
109 CP1 121 -4.537
109 CP1 122 -7.467
109 CP1 123 -9.420
109 CP1 124 -9.420
109 CP1 125 -8.931
109 CP1 126 -7.467
109 CP1 127 -7.467
109 CP1 128 -7.467
109 CP1 129 -7.955
109 CP1 130 -7.955
109 CP1 131 -6.978
109 CP1 132 -6.490
109 CP1 133 -6.002
109 CP1 134 -6.490
109 CP1 135 -6.490
109 CP1 136 -6.490
109 CP1 137 -6.490
109 CP1 138 -6.002
109 CP1 139 -5.514
109 CP1 140 -5.025
109 CP1 141 -4.537
109 CP1 142 -3.560
109 CP1 143 -3.560
109 CP1 144 -4.537
109 CP1 145 -6.002
109 CP1 146 -6.978
109 CP1 147 -6.978
109 CP1 148 -6.490
109 CP1 149 -5.514
109 CP1 150 -5.514
109 CP1 151 -5.514
109 CP1 152 -6.002
109 CP1 153 -6.490
109 CP1 154 -6.002
109 CP1 155 -5.514
109 CP1 156 -5.514
109 CP1 157 -6.002
109 CP1 158 -6.002
109 CP1 159 -5.514
109 CP1 160 -4.537
109 CP1 161 -3.560
109 CP1 162 -3.072
109 CP1 163 -3.072
109 CP1 164 -4.049
109 CP1 165 -4.537
109 CP1 166 -5.514
109 CP1 167 -5.514
109 CP1 168 -6.002
109 CP1 169 -6.978
109 CP1 170 -6.490
109 CP1 171 -4.537
109 CP1 172 -2.096
109 CP1 173 -0.142
109 CP1 174 0.346
109 CP1 175 -0.142
109 CP1 176 -2.096
109 CP1 177 -4.537
109 CP1 178 -5.514
109 CP1 179 -5.514
109 CP1 180 -4.537
109 CP1 181 -4.049
109 CP1 182 -3.072
109 CP1 183 -3.072
109 CP1 184 -3.072
109 CP1 185 -3.560
109 CP1 186 -4.537
109 CP1 187 -6.002
109 CP1 188 -7.467
109 CP1 189 -8.931
109 CP1 190 -7.955
109 CP1 191 -6.002
109 CP1 192 -2.584
109 CP1 193 -0.142
109 CP1 194 1.322
109 CP1 195 1.322
109 CP1 196 0.834
109 CP1 197 -0.631
109 CP1 198 -3.560
109 CP1 199 -7.955
109 CP1 200 -13.326
109 CP1 201 -18.697
109 CP1 202 -22.115
109 CP1 203 -22.603
109 CP1 204 -20.650
109 CP1 205 -17.232
109 CP1 206 -14.303
109 CP1 207 -12.349
109 CP1 208 -11.373
109 CP1 209 -10.396
109 CP1 210 -9.420
109 CP1 211 -8.931
109 CP1 212 -8.443
109 CP1 213 -8.443
109 CP1 214 -8.931
109 CP1 215 -8.443
109 CP1 216 -6.978
109 CP1 217 -5.514
109 CP1 218 -5.514
109 CP1 219 -6.002
109 CP1 220 -7.467
109 CP1 221 -8.443
109 CP1 222 -7.955
109 CP1 223 -6.002
109 CP1 224 -3.560
109 CP1 225 -2.096
109 CP1 226 -1.607
109 CP1 227 -2.584
109 CP1 228 -4.537
109 CP1 229 -5.514
109 CP1 230 -6.978
109 CP1 231 -8.931
109 CP1 232 -10.885
109 CP1 233 -13.814
109 CP1 234 -15.767
109 CP1 235 -15.767
109 CP1 236 -13.326
109 CP1 237 -9.908
109 CP1 238 -6.490
109 CP1 239 -4.537
109 CP1 240 -4.049
109 CP1 241 -4.049
109 CP1 242 -4.537
109 CP1 243 -5.025
109 CP1 244 -4.537
109 CP1 245 -3.560
109 CP1 246 -2.584
109 CP1 247 -2.584
109 CP1 248 -3.560
109 CP1 249 -6.002
109 CP1 250 -8.443
109 CP1 251 -9.420
109 CP1 252 -9.420
109 CP1 253 -9.420
109 CP1 254 -8.931
109 CP1 255 -9.420
# CP2 chan 21
109 CP2 0 -3.143
109 CP2 1 -2.655
109 CP2 2 -2.167
109 CP2 3 -2.167
109 CP2 4 -2.167
109 CP2 5 -1.190
109 CP2 6 -0.214
109 CP2 7 1.251
109 CP2 8 1.740
109 CP2 9 1.740
109 CP2 10 0.275
109 CP2 11 -1.190
109 CP2 12 -2.167
109 CP2 13 -2.655
109 CP2 14 -2.167
109 CP2 15 -1.190
109 CP2 16 -0.214
109 CP2 17 0.275
109 CP2 18 0.275
109 CP2 19 0.763
109 CP2 20 1.251
109 CP2 21 1.740
109 CP2 22 2.228
109 CP2 23 2.716
109 CP2 24 2.716
109 CP2 25 3.204
109 CP2 26 2.716
109 CP2 27 1.740
109 CP2 28 -0.214
109 CP2 29 -3.143
109 CP2 30 -5.585
109 CP2 31 -7.050
109 CP2 32 -5.585
109 CP2 33 -2.655
109 CP2 34 0.275
109 CP2 35 1.740
109 CP2 36 0.763
109 CP2 37 -1.190
109 CP2 38 -3.632
109 CP2 39 -4.608
109 CP2 40 -4.120
109 CP2 41 -2.655
109 CP2 42 -1.678
109 CP2 43 -1.678
109 CP2 44 -1.678
109 CP2 45 -1.678
109 CP2 46 -1.190
109 CP2 47 -0.214
109 CP2 48 1.251
109 CP2 49 1.740
109 CP2 50 2.228
109 CP2 51 2.228
109 CP2 52 2.228
109 CP2 53 1.740
109 CP2 54 1.740
109 CP2 55 1.251
109 CP2 56 1.251
109 CP2 57 0.763
109 CP2 58 0.275
109 CP2 59 -0.702
109 CP2 60 -1.678
109 CP2 61 -2.655
109 CP2 62 -3.143
109 CP2 63 -3.143
109 CP2 64 -2.167
109 CP2 65 -0.702
109 CP2 66 -0.214
109 CP2 67 -0.214
109 CP2 68 -0.702
109 CP2 69 -1.678
109 CP2 70 -2.655
109 CP2 71 -2.655
109 CP2 72 -1.678
109 CP2 73 0.275
109 CP2 74 1.740
109 CP2 75 2.228
109 CP2 76 1.251
109 CP2 77 0.275
109 CP2 78 -0.214
109 CP2 79 0.763
109 CP2 80 1.740
109 CP2 81 2.716
109 CP2 82 3.204
109 CP2 83 3.204
109 CP2 84 2.716
109 CP2 85 2.228
109 CP2 86 1.740
109 CP2 87 0.763
109 CP2 88 0.275
109 CP2 89 0.275
109 CP2 90 1.251
109 CP2 91 2.716
109 CP2 92 4.669
109 CP2 93 5.646
109 CP2 94 5.157
109 CP2 95 3.693
109 CP2 96 2.228
109 CP2 97 1.740
109 CP2 98 2.716
109 CP2 99 5.157
109 CP2 100 7.599
109 CP2 101 8.087
109 CP2 102 7.111
109 CP2 103 5.157
109 CP2 104 2.228
109 CP2 105 -0.214
109 CP2 106 -0.702
109 CP2 107 -0.214
109 CP2 108 1.251
109 CP2 109 2.716
109 CP2 110 2.228
109 CP2 111 0.763
109 CP2 112 -1.190
109 CP2 113 -2.655
109 CP2 114 -3.143
109 CP2 115 -2.167
109 CP2 116 -1.190
109 CP2 117 -0.214
109 CP2 118 0.275
109 CP2 119 0.275
109 CP2 120 -0.702
109 CP2 121 -2.167
109 CP2 122 -3.632
109 CP2 123 -5.585
109 CP2 124 -7.538
109 CP2 125 -9.003
109 CP2 126 -9.491
109 CP2 127 -9.979
109 CP2 128 -9.979
109 CP2 129 -9.979
109 CP2 130 -10.468
109 CP2 131 -9.979
109 CP2 132 -9.003
109 CP2 133 -8.026
109 CP2 134 -6.561
109 CP2 135 -4.608
109 CP2 136 -3.632
109 CP2 137 -2.655
109 CP2 138 -1.678
109 CP2 139 -1.190
109 CP2 140 -1.678
109 CP2 141 -2.655
109 CP2 142 -3.632
109 CP2 143 -4.120
109 CP2 144 -3.632
109 CP2 145 -4.120
109 CP2 146 -5.096
109 CP2 147 -7.538
109 CP2 148 -9.979
109 CP2 149 -11.932
109 CP2 150 -11.932
109 CP2 151 -9.979
109 CP2 152 -6.561
109 CP2 153 -4.608
109 CP2 154 -3.632
109 CP2 155 -5.096
109 CP2 156 -6.073
109 CP2 157 -7.050
109 CP2 158 -7.538
109 CP2 159 -6.561
109 CP2 160 -5.585
109 CP2 161 -3.632
109 CP2 162 -1.678
109 CP2 163 -0.702
109 CP2 164 -0.702
109 CP2 165 -2.167
109 CP2 166 -4.120
109 CP2 167 -5.585
109 CP2 168 -6.073
109 CP2 169 -4.608
109 CP2 170 -4.120
109 CP2 171 -4.120
109 CP2 172 -5.096
109 CP2 173 -6.561
109 CP2 174 -7.050
109 CP2 175 -7.538
109 CP2 176 -7.050
109 CP2 177 -6.561
109 CP2 178 -6.073
109 CP2 179 -5.585
109 CP2 180 -4.608
109 CP2 181 -3.632
109 CP2 182 -2.167
109 CP2 183 -1.190
109 CP2 184 -0.214
109 CP2 185 0.275
109 CP2 186 1.251
109 CP2 187 1.251
109 CP2 188 0.763
109 CP2 189 -1.190
109 CP2 190 -3.632
109 CP2 191 -6.073
109 CP2 192 -8.026
109 CP2 193 -8.514
109 CP2 194 -8.514
109 CP2 195 -8.514
109 CP2 196 -9.979
109 CP2 197 -12.421
109 CP2 198 -15.839
109 CP2 199 -17.303
109 CP2 200 -17.303
109 CP2 201 -15.839
109 CP2 202 -12.909
109 CP2 203 -10.468
109 CP2 204 -9.003
109 CP2 205 -7.050
109 CP2 206 -4.120
109 CP2 207 -1.190
109 CP2 208 1.251
109 CP2 209 1.740
109 CP2 210 0.275
109 CP2 211 -2.167
109 CP2 212 -4.120
109 CP2 213 -4.608
109 CP2 214 -4.608
109 CP2 215 -4.120
109 CP2 216 -4.608
109 CP2 217 -5.585
109 CP2 218 -6.561
109 CP2 219 -7.538
109 CP2 220 -9.003
109 CP2 221 -11.444
109 CP2 222 -14.374
109 CP2 223 -16.815
109 CP2 224 -17.303
109 CP2 225 -16.815
109 CP2 226 -14.374
109 CP2 227 -11.932
109 CP2 228 -9.003
109 CP2 229 -6.561
109 CP2 230 -3.143
109 CP2 231 0.275
109 CP2 232 1.740
109 CP2 233 2.228
109 CP2 234 1.251
109 CP2 235 -0.702
109 CP2 236 -2.167
109 CP2 237 -3.143
109 CP2 238 -5.096
109 CP2 239 -7.050
109 CP2 240 -8.514
109 CP2 241 -9.491
109 CP2 242 -8.026
109 CP2 243 -7.050
109 CP2 244 -6.561
109 CP2 245 -7.538
109 CP2 246 -9.491
109 CP2 247 -11.932
109 CP2 248 -12.421
109 CP2 249 -12.909
109 CP2 250 -12.909
109 CP2 251 -13.885
109 CP2 252 -15.350
109 CP2 253 -16.327
109 CP2 254 -15.839
109 CP2 255 -13.885
# P3 chan 22
109 P3 0 -4.333
109 P3 1 -10.193
109 P3 2 -14.099
109 P3 3 -14.587
109 P3 4 -11.169
109 P3 5 -4.333
109 P3 6 2.502
109 P3 7 6.409
109 P3 8 7.874
109 P3 9 8.362
109 P3 10 9.338
109 P3 11 11.292
109 P3 12 13.733
109 P3 13 13.733
109 P3 14 11.292
109 P3 15 7.385
109 P3 16 3.479
109 P3 17 2.014
109 P3 18 2.502
109 P3 19 3.967
109 P3 20 4.944
109 P3 21 4.456
109 P3 22 2.991
109 P3 23 1.526
109 P3 24 -0.427
109 P3 25 -2.380
109 P3 26 -4.333
109 P3 27 -6.775
109 P3 28 -7.751
109 P3 29 -6.775
109 P3 30 -3.845
109 P3 31 0.061
109 P3 32 3.479
109 P3 33 5.432
109 P3 34 4.944
109 P3 35 1.038
109 P3 36 -5.310
109 P3 37 -11.169
109 P3 38 -14.099
109 P3 39 -13.611
109 P3 40 -10.193
109 P3 41 -5.798
109 P3 42 -4.333
109 P3 43 -6.775
109 P3 44 -10.681
109 P3 45 -14.099
109 P3 46 -13.611
109 P3 47 -10.681
109 P3 48 -5.798
109 P3 49 -2.380
109 P3 50 -0.427
109 P3 51 0.549
109 P3 52 2.502
109 P3 53 5.920
109 P3 54 9.338
109 P3 55 11.292
109 P3 56 10.803
109 P3 57 8.362
109 P3 58 5.432
109 P3 59 3.479
109 P3 60 3.479
109 P3 61 4.456
109 P3 62 4.944
109 P3 63 4.944
109 P3 64 3.479
109 P3 65 2.014
109 P3 66 0.061
109 P3 67 -1.892
109 P3 68 -3.845
109 P3 69 -5.310
109 P3 70 -5.798
109 P3 71 -5.310
109 P3 72 -2.380
109 P3 73 2.014
109 P3 74 7.385
109 P3 75 11.780
109 P3 76 13.245
109 P3 77 11.292
109 P3 78 6.897
109 P3 79 2.502
109 P3 80 1.038
109 P3 81 3.479
109 P3 82 8.362
109 P3 83 12.268
109 P3 84 12.756
109 P3 85 8.850
109 P3 86 2.991
109 P3 87 -2.380
109 P3 88 -4.822
109 P3 89 -3.845
109 P3 90 -0.916
109 P3 91 3.479
109 P3 92 6.409
109 P3 93 7.874
109 P3 94 6.409
109 P3 95 3.479
109 P3 96 0.549
109 P3 97 -1.404
109 P3 98 -1.404
109 P3 99 -0.427
109 P3 100 0.549
109 P3 101 0.549
109 P3 102 0.061
109 P3 103 -1.404
109 P3 104 -3.357
109 P3 105 -5.798
109 P3 106 -7.263
109 P3 107 -6.287
109 P3 108 -3.845
109 P3 109 0.061
109 P3 110 3.479
109 P3 111 3.967
109 P3 112 2.502
109 P3 113 0.549
109 P3 114 -0.916
109 P3 115 -1.404
109 P3 116 -0.427
109 P3 117 0.061
109 P3 118 -0.427
109 P3 119 -2.380
109 P3 120 -5.798
109 P3 121 -10.681
109 P3 122 -16.052
109 P3 123 -20.447
109 P3 124 -22.400
109 P3 125 -21.912
109 P3 126 -19.958
109 P3 127 -18.982
109 P3 128 -18.982
109 P3 129 -20.447
109 P3 130 -20.935
109 P3 131 -20.935
109 P3 132 -18.982
109 P3 133 -17.517
109 P3 134 -15.564
109 P3 135 -14.099
109 P3 136 -12.634
109 P3 137 -11.658
109 P3 138 -11.169
109 P3 139 -10.193
109 P3 140 -9.705
109 P3 141 -9.216
109 P3 142 -9.216
109 P3 143 -10.193
109 P3 144 -13.123
109 P3 145 -17.029
109 P3 146 -19.958
109 P3 147 -20.935
109 P3 148 -19.958
109 P3 149 -18.005
109 P3 150 -16.052
109 P3 151 -15.564
109 P3 152 -15.076
109 P3 153 -14.587
109 P3 154 -14.587
109 P3 155 -14.587
109 P3 156 -15.564
109 P3 157 -16.541
109 P3 158 -16.541
109 P3 159 -16.052
109 P3 160 -13.611
109 P3 161 -11.658
109 P3 162 -10.193
109 P3 163 -9.216
109 P3 164 -8.240
109 P3 165 -7.751
109 P3 166 -7.751
109 P3 167 -8.728
109 P3 168 -11.658
109 P3 169 -15.076
109 P3 170 -17.029
109 P3 171 -16.052
109 P3 172 -11.658
109 P3 173 -6.287
109 P3 174 -2.380
109 P3 175 -2.380
109 P3 176 -5.310
109 P3 177 -8.728
109 P3 178 -10.681
109 P3 179 -10.193
109 P3 180 -7.263
109 P3 181 -4.822
109 P3 182 -3.357
109 P3 183 -2.380
109 P3 184 -0.916
109 P3 185 0.549
109 P3 186 0.061
109 P3 187 -3.357
109 P3 188 -9.216
109 P3 189 -13.611
109 P3 190 -14.587
109 P3 191 -11.169
109 P3 192 -6.287
109 P3 193 -2.380
109 P3 194 -1.892
109 P3 195 -3.357
109 P3 196 -5.798
109 P3 197 -9.216
109 P3 198 -13.611
109 P3 199 -20.447
109 P3 200 -28.748
109 P3 201 -36.072
109 P3 202 -39.978
109 P3 203 -38.025
109 P3 204 -32.654
109 P3 205 -26.306
109 P3 206 -20.447
109 P3 207 -16.052
109 P3 208 -12.146
109 P3 209 -9.216
109 P3 210 -5.798
109 P3 211 -4.822
109 P3 212 -6.775
109 P3 213 -10.193
109 P3 214 -13.123
109 P3 215 -14.099
109 P3 216 -13.123
109 P3 217 -12.634
109 P3 218 -14.587
109 P3 219 -18.982
109 P3 220 -23.865
109 P3 221 -26.306
109 P3 222 -24.353
109 P3 223 -18.494
109 P3 224 -11.658
109 P3 225 -5.798
109 P3 226 -3.845
109 P3 227 -4.822
109 P3 228 -6.287
109 P3 229 -6.775
109 P3 230 -7.263
109 P3 231 -9.216
109 P3 232 -13.123
109 P3 233 -18.005
109 P3 234 -20.935
109 P3 235 -19.470
109 P3 236 -13.611
109 P3 237 -5.798
109 P3 238 -0.427
109 P3 239 0.061
109 P3 240 -3.357
109 P3 241 -8.728
109 P3 242 -14.099
109 P3 243 -17.029
109 P3 244 -18.005
109 P3 245 -17.517
109 P3 246 -18.005
109 P3 247 -18.982
109 P3 248 -21.423
109 P3 249 -24.353
109 P3 250 -25.818
109 P3 251 -25.818
109 P3 252 -24.841
109 P3 253 -23.376
109 P3 254 -21.912
109 P3 255 -21.912
# P4 chan 23
109 P4 0 -2.014
109 P4 1 -2.502
109 P4 2 -3.479
109 P4 3 -3.479
109 P4 4 -2.991
109 P4 5 -0.549
109 P4 6 3.357
109 P4 7 6.287
109 P4 8 7.263
109 P4 9 6.775
109 P4 10 4.822
109 P4 11 2.380
109 P4 12 0.427
109 P4 13 -1.038
109 P4 14 -1.526
109 P4 15 -1.526
109 P4 16 -1.038
109 P4 17 -0.061
109 P4 18 1.892
109 P4 19 3.845
109 P4 20 5.798
109 P4 21 6.287
109 P4 22 6.775
109 P4 23 6.287
109 P4 24 5.798
109 P4 25 4.822
109 P4 26 3.357
109 P4 27 1.404
109 P4 28 -0.549
109 P4 29 -2.502
109 P4 30 -2.991
109 P4 31 -1.038
109 P4 32 1.892
109 P4 33 5.310
109 P4 34 6.775
109 P4 35 4.822
109 P4 36 -0.061
109 P4 37 -5.920
109 P4 38 -8.850
109 P4 39 -8.362
109 P4 40 -5.432
109 P4 41 -1.526
109 P4 42 0.916
109 P4 43 1.404
109 P4 44 0.916
109 P4 45 0.427
109 P4 46 1.404
109 P4 47 3.845
109 P4 48 5.798
109 P4 49 7.751
109 P4 50 8.240
109 P4 51 8.728
109 P4 52 8.240
109 P4 53 7.263
109 P4 54 6.775
109 P4 55 6.287
109 P4 56 5.310
109 P4 57 4.333
109 P4 58 3.357
109 P4 59 1.892
109 P4 60 0.916
109 P4 61 0.427
109 P4 62 0.427
109 P4 63 0.916
109 P4 64 1.404
109 P4 65 1.892
109 P4 66 1.404
109 P4 67 0.427
109 P4 68 -2.014
109 P4 69 -4.456
109 P4 70 -5.920
109 P4 71 -5.432
109 P4 72 -2.991
109 P4 73 0.427
109 P4 74 3.845
109 P4 75 5.310
109 P4 76 4.822
109 P4 77 3.845
109 P4 78 2.869
109 P4 79 3.357
109 P4 80 5.310
109 P4 81 7.263
109 P4 82 8.728
109 P4 83 9.216
109 P4 84 8.240
109 P4 85 5.798
109 P4 86 3.357
109 P4 87 0.427
109 P4 88 -0.549
109 P4 89 -0.061
109 P4 90 1.892
109 P4 91 5.310
109 P4 92 7.751
109 P4 93 9.216
109 P4 94 8.240
109 P4 95 5.798
109 P4 96 3.357
109 P4 97 2.380
109 P4 98 3.845
109 P4 99 6.287
109 P4 100 8.240
109 P4 101 8.728
109 P4 102 7.263
109 P4 103 4.333
109 P4 104 0.916
109 P4 105 -1.038
109 P4 106 -2.014
109 P4 107 -1.038
109 P4 108 -0.061
109 P4 109 0.427
109 P4 110 -0.549
109 P4 111 -2.502
109 P4 112 -4.944
109 P4 113 -6.897
109 P4 114 -7.385
109 P4 115 -6.409
109 P4 116 -3.967
109 P4 117 -2.014
109 P4 118 -1.038
109 P4 119 -1.526
109 P4 120 -3.479
109 P4 121 -7.385
109 P4 122 -11.292
109 P4 123 -14.709
109 P4 124 -16.663
109 P4 125 -16.663
109 P4 126 -16.174
109 P4 127 -15.686
109 P4 128 -16.663
109 P4 129 -17.151
109 P4 130 -18.127
109 P4 131 -17.151
109 P4 132 -15.198
109 P4 133 -12.756
109 P4 134 -10.315
109 P4 135 -8.850
109 P4 136 -6.897
109 P4 137 -5.920
109 P4 138 -5.432
109 P4 139 -5.920
109 P4 140 -6.409
109 P4 141 -7.874
109 P4 142 -8.362
109 P4 143 -8.850
109 P4 144 -8.850
109 P4 145 -10.315
109 P4 146 -12.756
109 P4 147 -16.174
109 P4 148 -20.081
109 P4 149 -22.034
109 P4 150 -21.545
109 P4 151 -18.127
109 P4 152 -13.245
109 P4 153 -9.338
109 P4 154 -8.362
109 P4 155 -10.315
109 P4 156 -14.221
109 P4 157 -17.151
109 P4 158 -17.639
109 P4 159 -15.198
109 P4 160 -10.315
109 P4 161 -5.920
109 P4 162 -2.991
109 P4 163 -2.991
109 P4 164 -4.456
109 P4 165 -6.897
109 P4 166 -8.850
109 P4 167 -9.827
109 P4 168 -10.315
109 P4 169 -9.827
109 P4 170 -9.827
109 P4 171 -9.827
109 P4 172 -9.338
109 P4 173 -9.338
109 P4 174 -9.827
109 P4 175 -10.315
109 P4 176 -10.315
109 P4 177 -9.338
109 P4 178 -7.874
109 P4 179 -4.456
109 P4 180 -1.526
109 P4 181 0.916
109 P4 182 2.380
109 P4 183 3.357
109 P4 184 3.357
109 P4 185 3.845
109 P4 186 3.357
109 P4 187 2.380
109 P4 188 -0.061
109 P4 189 -2.991
109 P4 190 -5.920
109 P4 191 -8.362
109 P4 192 -10.803
109 P4 193 -12.756
109 P4 194 -15.686
109 P4 195 -18.127
109 P4 196 -21.057
109 P4 197 -23.987
109 P4 198 -26.428
109 P4 199 -28.381
109 P4 200 -28.870
109 P4 201 -27.893
109 P4 202 -24.963
109 P4 203 -21.057
109 P4 204 -16.174
109 P4 205 -11.292
109 P4 206 -6.897
109 P4 207 -2.991
109 P4 208 -0.061
109 P4 209 0.916
109 P4 210 -0.061
109 P4 211 -2.014
109 P4 212 -4.456
109 P4 213 -7.385
109 P4 214 -8.850
109 P4 215 -9.827
109 P4 216 -10.315
109 P4 217 -10.315
109 P4 218 -9.827
109 P4 219 -9.827
109 P4 220 -10.803
109 P4 221 -13.245
109 P4 222 -16.174
109 P4 223 -19.104
109 P4 224 -20.569
109 P4 225 -21.057
109 P4 226 -21.545
109 P4 227 -21.057
109 P4 228 -19.104
109 P4 229 -15.198
109 P4 230 -9.338
109 P4 231 -3.479
109 P4 232 0.427
109 P4 233 1.892
109 P4 234 0.916
109 P4 235 -0.061
109 P4 236 -0.061
109 P4 237 -0.061
109 P4 238 -1.038
109 P4 239 -2.991
109 P4 240 -5.432
109 P4 241 -6.897
109 P4 242 -6.409
109 P4 243 -6.409
109 P4 244 -7.874
109 P4 245 -10.803
109 P4 246 -15.198
109 P4 247 -19.104
109 P4 248 -21.057
109 P4 249 -21.057
109 P4 250 -21.545
109 P4 251 -23.010
109 P4 252 -24.963
109 P4 253 -26.917
109 P4 254 -26.917
109 P4 255 -25.452
# PZ chan 24
109 PZ 0 -2.696
109 PZ 1 -5.625
109 PZ 2 -7.579
109 PZ 3 -7.579
109 PZ 4 -5.625
109 PZ 5 -1.231
109 PZ 6 3.652
109 PZ 7 7.558
109 PZ 8 8.535
109 PZ 9 7.558
109 PZ 10 5.117
109 PZ 11 3.164
109 PZ 12 2.675
109 PZ 13 2.675
109 PZ 14 2.675
109 PZ 15 2.187
109 PZ 16 1.699
109 PZ 17 2.187
109 PZ 18 2.675
109 PZ 19 3.652
109 PZ 20 4.140
109 PZ 21 4.140
109 PZ 22 3.652
109 PZ 23 2.187
109 PZ 24 0.234
109 PZ 25 -2.696
109 PZ 26 -6.114
109 PZ 27 -9.532
109 PZ 28 -11.973
109 PZ 29 -12.950
109 PZ 30 -11.973
109 PZ 31 -9.043
109 PZ 32 -5.625
109 PZ 33 -3.184
109 PZ 34 -2.207
109 PZ 35 -3.672
109 PZ 36 -6.114
109 PZ 37 -9.043
109 PZ 38 -11.485
109 PZ 39 -10.997
109 PZ 40 -9.043
109 PZ 41 -6.602
109 PZ 42 -5.137
109 PZ 43 -5.625
109 PZ 44 -8.555
109 PZ 45 -11.485
109 PZ 46 -12.461
109 PZ 47 -10.508
109 PZ 48 -6.602
109 PZ 49 -2.696
109 PZ 50 -0.254
109 PZ 51 1.211
109 PZ 52 2.187
109 PZ 53 4.140
109 PZ 54 6.093
109 PZ 55 8.046
109 PZ 56 8.535
109 PZ 57 7.558
109 PZ 58 5.117
109 PZ 59 3.164
109 PZ 60 3.164
109 PZ 61 3.652
109 PZ 62 4.628
109 PZ 63 5.117
109 PZ 64 5.117
109 PZ 65 3.652
109 PZ 66 2.675
109 PZ 67 1.211
109 PZ 68 -0.254
109 PZ 69 -2.207
109 PZ 70 -3.672
109 PZ 71 -3.672
109 PZ 72 -2.207
109 PZ 73 1.699
109 PZ 74 5.605
109 PZ 75 8.046
109 PZ 76 8.535
109 PZ 77 6.582
109 PZ 78 3.652
109 PZ 79 1.211
109 PZ 80 0.722
109 PZ 81 2.675
109 PZ 82 5.605
109 PZ 83 8.046
109 PZ 84 8.535
109 PZ 85 6.582
109 PZ 86 2.675
109 PZ 87 -0.254
109 PZ 88 -2.207
109 PZ 89 -1.719
109 PZ 90 1.211
109 PZ 91 4.628
109 PZ 92 7.558
109 PZ 93 8.046
109 PZ 94 6.582
109 PZ 95 4.140
109 PZ 96 2.187
109 PZ 97 1.699
109 PZ 98 2.675
109 PZ 99 5.117
109 PZ 100 6.582
109 PZ 101 6.582
109 PZ 102 5.117
109 PZ 103 2.675
109 PZ 104 0.234
109 PZ 105 -1.719
109 PZ 106 -3.184
109 PZ 107 -3.672
109 PZ 108 -3.184
109 PZ 109 -1.719
109 PZ 110 -0.254
109 PZ 111 0.234
109 PZ 112 -0.254
109 PZ 113 -1.719
109 PZ 114 -3.672
109 PZ 115 -4.161
109 PZ 116 -3.672
109 PZ 117 -2.207
109 PZ 118 -0.743
109 PZ 119 -0.743
109 PZ 120 -3.184
109 PZ 121 -7.090
109 PZ 122 -11.973
109 PZ 123 -15.879
109 PZ 124 -17.832
109 PZ 125 -18.321
109 PZ 126 -17.832
109 PZ 127 -17.832
109 PZ 128 -18.321
109 PZ 129 -19.297
109 PZ 130 -19.786
109 PZ 131 -19.786
109 PZ 132 -18.809
109 PZ 133 -17.832
109 PZ 134 -16.856
109 PZ 135 -15.391
109 PZ 136 -13.438
109 PZ 137 -10.997
109 PZ 138 -9.043
109 PZ 139 -8.555
109 PZ 140 -8.555
109 PZ 141 -8.555
109 PZ 142 -8.067
109 PZ 143 -8.067
109 PZ 144 -9.043
109 PZ 145 -11.485
109 PZ 146 -15.391
109 PZ 147 -18.321
109 PZ 148 -20.762
109 PZ 149 -21.250
109 PZ 150 -21.250
109 PZ 151 -20.274
109 PZ 152 -18.321
109 PZ 153 -16.856
109 PZ 154 -15.391
109 PZ 155 -14.414
109 PZ 156 -14.903
109 PZ 157 -15.391
109 PZ 158 -15.391
109 PZ 159 -13.926
109 PZ 160 -10.508
109 PZ 161 -7.090
109 PZ 162 -5.137
109 PZ 163 -5.625
109 PZ 164 -8.067
109 PZ 165 -11.485
109 PZ 166 -14.414
109 PZ 167 -15.391
109 PZ 168 -15.879
109 PZ 169 -15.879
109 PZ 170 -15.879
109 PZ 171 -15.391
109 PZ 172 -13.438
109 PZ 173 -10.997
109 PZ 174 -8.555
109 PZ 175 -7.579
109 PZ 176 -7.579
109 PZ 177 -8.067
109 PZ 178 -7.579
109 PZ 179 -6.114
109 PZ 180 -4.649
109 PZ 181 -4.649
109 PZ 182 -6.114
109 PZ 183 -7.579
109 PZ 184 -8.067
109 PZ 185 -6.602
109 PZ 186 -4.649
109 PZ 187 -3.672
109 PZ 188 -4.161
109 PZ 189 -6.114
109 PZ 190 -8.067
109 PZ 191 -8.555
109 PZ 192 -8.555
109 PZ 193 -8.067
109 PZ 194 -9.043
109 PZ 195 -10.508
109 PZ 196 -12.950
109 PZ 197 -15.391
109 PZ 198 -18.321
109 PZ 199 -21.739
109 PZ 200 -25.645
109 PZ 201 -29.063
109 PZ 202 -30.528
109 PZ 203 -28.575
109 PZ 204 -24.180
109 PZ 205 -17.832
109 PZ 206 -11.485
109 PZ 207 -6.114
109 PZ 208 -2.207
109 PZ 209 0.234
109 PZ 210 0.722
109 PZ 211 -0.743
109 PZ 212 -3.672
109 PZ 213 -7.090
109 PZ 214 -9.532
109 PZ 215 -10.508
109 PZ 216 -10.508
109 PZ 217 -10.508
109 PZ 218 -11.485
109 PZ 219 -13.926
109 PZ 220 -17.344
109 PZ 221 -21.250
109 PZ 222 -23.204
109 PZ 223 -22.715
109 PZ 224 -20.762
109 PZ 225 -17.344
109 PZ 226 -14.903
109 PZ 227 -12.461
109 PZ 228 -10.508
109 PZ 229 -8.067
109 PZ 230 -6.602
109 PZ 231 -6.114
109 PZ 232 -7.579
109 PZ 233 -10.020
109 PZ 234 -10.997
109 PZ 235 -9.532
109 PZ 236 -5.137
109 PZ 237 0.722
109 PZ 238 5.117
109 PZ 239 6.093
109 PZ 240 3.652
109 PZ 241 -0.254
109 PZ 242 -4.649
109 PZ 243 -7.579
109 PZ 244 -9.043
109 PZ 245 -10.508
109 PZ 246 -11.973
109 PZ 247 -13.926
109 PZ 248 -17.344
109 PZ 249 -20.762
109 PZ 250 -24.180
109 PZ 251 -26.133
109 PZ 252 -27.110
109 PZ 253 -27.598
109 PZ 254 -27.110
109 PZ 255 -26.622
# P8 chan 25
109 P8 0 -4.588
109 P8 1 -4.588
109 P8 2 -5.076
109 P8 3 -5.564
109 P8 4 -5.076
109 P8 5 -2.146
109 P8 6 1.760
109 P8 7 5.666
109 P8 8 9.084
109 P8 9 10.549
109 P8 10 11.037
109 P8 11 11.037
109 P8 12 10.061
109 P8 13 9.084
109 P8 14 6.643
109 P8 15 4.201
109 P8 16 2.248
109 P8 17 1.760
109 P8 18 3.713
109 P8 19 6.154
109 P8 20 8.596
109 P8 21 8.108
109 P8 22 5.178
109 P8 23 0.295
109 P8 24 -5.076
109 P8 25 -9.471
109 P8 26 -11.424
109 P8 27 -11.912
109 P8 28 -10.935
109 P8 29 -8.006
109 P8 30 -3.123
109 P8 31 4.690
109 P8 32 13.967
109 P8 33 21.291
109 P8 34 25.197
109 P8 35 23.244
109 P8 36 15.920
109 P8 37 7.619
109 P8 38 1.272
109 P8 39 0.295
109 P8 40 2.736
109 P8 41 7.619
109 P8 42 10.061
109 P8 43 9.572
109 P8 44 7.131
109 P8 45 4.690
109 P8 46 3.225
109 P8 47 4.201
109 P8 48 5.666
109 P8 49 6.643
109 P8 50 6.154
109 P8 51 4.201
109 P8 52 2.248
109 P8 53 1.272
109 P8 54 0.783
109 P8 55 0.783
109 P8 56 0.783
109 P8 57 -0.682
109 P8 58 -3.123
109 P8 59 -5.076
109 P8 60 -5.564
109 P8 61 -4.588
109 P8 62 -3.611
109 P8 63 -2.635
109 P8 64 -3.123
109 P8 65 -6.053
109 P8 66 -9.959
109 P8 67 -15.330
109 P8 68 -19.725
109 P8 69 -22.654
109 P8 70 -22.654
109 P8 71 -19.236
109 P8 72 -13.865
109 P8 73 -8.494
109 P8 74 -4.588
109 P8 75 -3.123
109 P8 76 -3.611
109 P8 77 -4.100
109 P8 78 -3.611
109 P8 79 -2.635
109 P8 80 -1.170
109 P8 81 0.783
109 P8 82 2.736
109 P8 83 3.713
109 P8 84 2.248
109 P8 85 -0.682
109 P8 86 -5.076
109 P8 87 -9.471
109 P8 88 -12.400
109 P8 89 -12.889
109 P8 90 -11.424
109 P8 91 -8.494
109 P8 92 -6.053
109 P8 93 -5.076
109 P8 94 -5.076
109 P8 95 -6.541
109 P8 96 -8.006
109 P8 97 -9.959
109 P8 98 -9.959
109 P8 99 -8.494
109 P8 100 -6.541
109 P8 101 -5.564
109 P8 102 -6.541
109 P8 103 -8.494
109 P8 104 -10.935
109 P8 105 -11.912
109 P8 106 -10.935
109 P8 107 -9.471
109 P8 108 -8.982
109 P8 109 -11.912
109 P8 110 -16.307
109 P8 111 -21.189
109 P8 112 -24.119
109 P8 113 -24.607
109 P8 114 -22.166
109 P8 115 -17.771
109 P8 116 -13.377
109 P8 117 -9.959
109 P8 118 -8.494
109 P8 119 -9.959
109 P8 120 -14.353
109 P8 121 -20.701
109 P8 122 -26.560
109 P8 123 -29.978
109 P8 124 -30.467
109 P8 125 -29.002
109 P8 126 -27.537
109 P8 127 -28.025
109 P8 128 -29.490
109 P8 129 -30.955
109 P8 130 -30.467
109 P8 131 -27.537
109 P8 132 -23.631
109 P8 133 -20.701
109 P8 134 -19.236
109 P8 135 -18.748
109 P8 136 -18.748
109 P8 137 -18.260
109 P8 138 -17.771
109 P8 139 -17.771
109 P8 140 -18.260
109 P8 141 -19.725
109 P8 142 -21.678
109 P8 143 -23.631
109 P8 144 -25.096
109 P8 145 -26.072
109 P8 146 -27.049
109 P8 147 -28.025
109 P8 148 -30.467
109 P8 149 -33.396
109 P8 150 -35.350
109 P8 151 -34.373
109 P8 152 -30.467
109 P8 153 -25.096
109 P8 154 -21.189
109 P8 155 -22.166
109 P8 156 -27.537
109 P8 157 -33.396
109 P8 158 -35.350
109 P8 159 -31.443
109 P8 160 -23.631
109 P8 161 -16.307
109 P8 162 -13.377
109 P8 163 -14.842
109 P8 164 -18.748
109 P8 165 -21.189
109 P8 166 -21.678
109 P8 167 -20.701
109 P8 168 -21.189
109 P8 169 -23.142
109 P8 170 -25.584
109 P8 171 -26.560
109 P8 172 -26.072
109 P8 173 -24.607
109 P8 174 -24.119
109 P8 175 -25.096
109 P8 176 -26.560
109 P8 177 -26.072
109 P8 178 -22.654
109 P8 179 -17.283
109 P8 180 -12.400
109 P8 181 -8.494
109 P8 182 -7.517
109 P8 183 -8.006
109 P8 184 -9.959
109 P8 185 -12.889
109 P8 186 -17.771
109 P8 187 -23.142
109 P8 188 -29.490
109 P8 189 -33.396
109 P8 190 -34.373
109 P8 191 -32.420
109 P8 192 -29.490
109 P8 193 -29.002
109 P8 194 -31.932
109 P8 195 -36.814
109 P8 196 -43.650
109 P8 197 -49.021
109 P8 198 -52.439
109 P8 199 -53.904
109 P8 200 -52.928
109 P8 201 -49.998
109 P8 202 -45.603
109 P8 203 -39.744
109 P8 204 -32.908
109 P8 205 -26.560
109 P8 206 -22.166
109 P8 207 -19.236
109 P8 208 -17.771
109 P8 209 -16.795
109 P8 210 -15.818
109 P8 211 -15.330
109 P8 212 -16.307
109 P8 213 -19.236
109 P8 214 -23.631
109 P8 215 -27.537
109 P8 216 -29.978
109 P8 217 -29.978
109 P8 218 -28.514
109 P8 219 -26.560
109 P8 220 -26.072
109 P8 221 -27.049
109 P8 222 -28.514
109 P8 223 -30.955
109 P8 224 -34.373
109 P8 225 -38.279
109 P8 226 -41.697
109 P8 227 -43.162
109 P8 228 -40.721
109 P8 229 -34.373
109 P8 230 -25.584
109 P8 231 -17.283
109 P8 232 -11.912
109 P8 233 -10.447
109 P8 234 -11.912
109 P8 235 -14.842
109 P8 236 -17.283
109 P8 237 -19.236
109 P8 238 -21.189
109 P8 239 -21.189
109 P8 240 -19.236
109 P8 241 -15.330
109 P8 242 -10.935
109 P8 243 -8.982
109 P8 244 -10.935
109 P8 245 -17.771
109 P8 246 -26.072
109 P8 247 -33.885
109 P8 248 -38.767
109 P8 249 -40.232
109 P8 250 -39.744
109 P8 251 -39.256
109 P8 252 -39.744
109 P8 253 -41.209
109 P8 254 -41.697
109 P8 255 -41.209
# P7 chan 26
109 P7 0 5.544
109 P7 1 -0.804
