# co2a0000378.rd
# 120 trials, 64 chans, 416 samples 368 post_stim samples
# 3.906000 msecs uV
# S2 match , trial 11
# FP1 chan 0
11 FP1 0 2.197
11 FP1 1 1.709
11 FP1 2 1.221
11 FP1 3 1.709
11 FP1 4 2.686
11 FP1 5 3.662
11 FP1 6 3.662
11 FP1 7 2.197
11 FP1 8 -0.244
11 FP1 9 -2.197
11 FP1 10 -3.662
11 FP1 11 -4.639
11 FP1 12 -5.127
11 FP1 13 -5.615
11 FP1 14 -6.104
11 FP1 15 -6.592
11 FP1 16 -6.592
11 FP1 17 -5.615
11 FP1 18 -5.615
11 FP1 19 -5.615
11 FP1 20 -6.104
11 FP1 21 -6.104
11 FP1 22 -5.127
11 FP1 23 -3.174
11 FP1 24 -0.732
11 FP1 25 0.732
11 FP1 26 0.732
11 FP1 27 -1.221
11 FP1 28 -4.150
11 FP1 29 -6.104
11 FP1 30 -6.104
11 FP1 31 -4.639
11 FP1 32 -1.709
11 FP1 33 0.244
11 FP1 34 0.732
11 FP1 35 -0.732
11 FP1 36 -3.174
11 FP1 37 -4.639
11 FP1 38 -4.639
11 FP1 39 -3.662
11 FP1 40 -2.686
11 FP1 41 -2.197
11 FP1 42 -2.686
11 FP1 43 -3.662
11 FP1 44 -4.150
11 FP1 45 -2.686
11 FP1 46 0.244
11 FP1 47 3.174
11 FP1 48 4.150
11 FP1 49 3.174
11 FP1 50 -0.244
11 FP1 51 -3.662
11 FP1 52 -5.127
11 FP1 53 -4.150
11 FP1 54 -1.709
11 FP1 55 1.709
11 FP1 56 3.662
11 FP1 57 3.662
11 FP1 58 2.197
11 FP1 59 -0.732
11 FP1 60 -2.686
11 FP1 61 -3.662
11 FP1 62 -3.662
11 FP1 63 -3.662
11 FP1 64 -2.686
11 FP1 65 -1.709
11 FP1 66 -0.732
11 FP1 67 -0.244
11 FP1 68 0.244
11 FP1 69 1.221
11 FP1 70 1.709
11 FP1 71 2.686
11 FP1 72 2.686
11 FP1 73 2.686
11 FP1 74 2.197
11 FP1 75 2.197
11 FP1 76 2.197
11 FP1 77 2.686
11 FP1 78 3.174
11 FP1 79 3.662
11 FP1 80 3.662
11 FP1 81 3.174
11 FP1 82 1.709
11 FP1 83 -0.732
11 FP1 84 -2.197
11 FP1 85 -2.686
11 FP1 86 -1.709
11 FP1 87 0.244
11 FP1 88 1.221
11 FP1 89 1.709
11 FP1 90 1.221
11 FP1 91 0.732
11 FP1 92 1.221
11 FP1 93 3.174
11 FP1 94 5.615
11 FP1 95 7.568
11 FP1 96 8.057
11 FP1 97 7.568
11 FP1 98 6.104
11 FP1 99 5.615
11 FP1 100 6.592
11 FP1 101 8.545
11 FP1 102 10.498
11 FP1 103 11.475
11 FP1 104 10.986
11 FP1 105 8.057
11 FP1 106 4.639
11 FP1 107 2.197
11 FP1 108 1.221
11 FP1 109 2.686
11 FP1 110 4.150
11 FP1 111 4.639
11 FP1 112 2.686
11 FP1 113 -0.244
11 FP1 114 -2.686
11 FP1 115 -3.662
11 FP1 116 -3.662
11 FP1 117 -3.174
11 FP1 118 -4.150
11 FP1 119 -5.615
11 FP1 120 -7.080
11 FP1 121 -7.568
11 FP1 122 -7.080
11 FP1 123 -7.080
11 FP1 124 -7.568
11 FP1 125 -8.545
11 FP1 126 -9.521
11 FP1 127 -9.521
11 FP1 128 -9.521
11 FP1 129 -10.010
11 FP1 130 -11.963
11 FP1 131 -13.916
11 FP1 132 -15.869
11 FP1 133 -15.869
11 FP1 134 -14.404
11 FP1 135 -11.475
11 FP1 136 -8.545
11 FP1 137 -6.592
11 FP1 138 -6.592
11 FP1 139 -7.568
11 FP1 140 -9.521
11 FP1 141 -11.475
11 FP1 142 -12.451
11 FP1 143 -11.963
11 FP1 144 -10.498
11 FP1 145 -8.057
11 FP1 146 -6.592
11 FP1 147 -6.104
11 FP1 148 -7.080
11 FP1 149 -8.545
11 FP1 150 -9.521
11 FP1 151 -8.545
11 FP1 152 -6.104
11 FP1 153 -4.639
11 FP1 154 -3.662
11 FP1 155 -5.127
11 FP1 156 -6.104
11 FP1 157 -6.592
11 FP1 158 -5.127
11 FP1 159 -3.174
11 FP1 160 -1.709
11 FP1 161 -0.732
11 FP1 162 -1.709
11 FP1 163 -2.686
11 FP1 164 -3.662
11 FP1 165 -3.174
11 FP1 166 -2.686
11 FP1 167 -1.709
11 FP1 168 -1.221
11 FP1 169 -1.709
11 FP1 170 -1.709
11 FP1 171 -2.197
11 FP1 172 -1.709
11 FP1 173 -0.244
11 FP1 174 1.221
11 FP1 175 2.686
11 FP1 176 2.686
11 FP1 177 1.709
11 FP1 178 0.244
11 FP1 179 -1.221
11 FP1 180 -1.709
11 FP1 181 -1.709
11 FP1 182 -1.221
11 FP1 183 -0.732
11 FP1 184 0.244
11 FP1 185 0.732
11 FP1 186 0.732
11 FP1 187 -0.732
11 FP1 188 -2.686
11 FP1 189 -3.662
11 FP1 190 -4.150
11 FP1 191 -3.662
11 FP1 192 -4.150
11 FP1 193 -5.127
11 FP1 194 -6.592
11 FP1 195 -7.568
11 FP1 196 -7.080
11 FP1 197 -5.615
11 FP1 198 -4.150
11 FP1 199 -4.150
11 FP1 200 -4.639
11 FP1 201 -5.615
11 FP1 202 -6.104
11 FP1 203 -6.104
11 FP1 204 -6.592
11 FP1 205 -7.568
11 FP1 206 -8.057
11 FP1 207 -7.568
11 FP1 208 -6.592
11 FP1 209 -5.127
11 FP1 210 -4.639
11 FP1 211 -5.615
11 FP1 212 -7.568
11 FP1 213 -9.033
11 FP1 214 -9.033
11 FP1 215 -8.545
11 FP1 216 -8.057
11 FP1 217 -8.057
11 FP1 218 -6.592
11 FP1 219 -5.127
11 FP1 220 -2.686
11 FP1 221 -0.732
11 FP1 222 -0.732
11 FP1 223 -2.197
11 FP1 224 -4.639
11 FP1 225 -6.104
11 FP1 226 -6.592
11 FP1 227 -6.104
11 FP1 228 -5.127
11 FP1 229 -5.127
11 FP1 230 -6.104
11 FP1 231 -7.080
11 FP1 232 -8.545
11 FP1 233 -9.521
11 FP1 234 -10.010
11 FP1 235 -10.010
11 FP1 236 -10.010
11 FP1 237 -10.010
11 FP1 238 -9.521
11 FP1 239 -9.033
11 FP1 240 -8.545
11 FP1 241 -8.057
11 FP1 242 -8.057
11 FP1 243 -9.033
11 FP1 244 -9.033
11 FP1 245 -8.057
11 FP1 246 -6.592
11 FP1 247 -5.615
11 FP1 248 -6.592
11 FP1 249 -8.545
11 FP1 250 -10.498
11 FP1 251 -11.475
11 FP1 252 -10.498
11 FP1 253 -9.033
11 FP1 254 -8.545
11 FP1 255 -10.010
# FP2 chan 1
11 FP2 0 2.177
11 FP2 1 1.200
11 FP2 2 0.712
11 FP2 3 0.712
11 FP2 4 0.712
11 FP2 5 0.224
11 FP2 6 -0.753
11 FP2 7 -3.194
11 FP2 8 -5.147
11 FP2 9 -6.124
11 FP2 10 -6.612
11 FP2 11 -6.612
11 FP2 12 -7.100
11 FP2 13 -8.565
11 FP2 14 -9.542
11 FP2 15 -9.542
11 FP2 16 -9.054
11 FP2 17 -7.589
11 FP2 18 -7.100
11 FP2 19 -7.100
11 FP2 20 -7.100
11 FP2 21 -7.100
11 FP2 22 -6.124
11 FP2 23 -4.659
11 FP2 24 -3.682
11 FP2 25 -3.194
11 FP2 26 -3.682
11 FP2 27 -4.659
11 FP2 28 -6.124
11 FP2 29 -7.100
11 FP2 30 -6.612
11 FP2 31 -4.659
11 FP2 32 -2.706
11 FP2 33 -0.753
11 FP2 34 -0.264
11 FP2 35 -1.241
11 FP2 36 -3.194
11 FP2 37 -4.659
11 FP2 38 -4.659
11 FP2 39 -4.171
11 FP2 40 -3.194
11 FP2 41 -3.194
11 FP2 42 -4.171
11 FP2 43 -5.147
11 FP2 44 -5.636
11 FP2 45 -5.147
11 FP2 46 -4.659
11 FP2 47 -3.682
11 FP2 48 -4.171
11 FP2 49 -4.659
11 FP2 50 -5.636
11 FP2 51 -6.612
11 FP2 52 -7.100
11 FP2 53 -7.100
11 FP2 54 -6.612
11 FP2 55 -5.636
11 FP2 56 -4.659
11 FP2 57 -3.194
11 FP2 58 -2.706
11 FP2 59 -2.706
11 FP2 60 -3.194
11 FP2 61 -4.171
11 FP2 62 -4.659
11 FP2 63 -3.682
11 FP2 64 -1.729
11 FP2 65 0.224
11 FP2 66 1.200
11 FP2 67 1.200
11 FP2 68 0.224
11 FP2 69 -0.753
11 FP2 70 -0.753
11 FP2 71 0.224
11 FP2 72 1.200
11 FP2 73 2.665
11 FP2 74 3.153
11 FP2 75 3.153
11 FP2 76 3.153
11 FP2 77 3.153
11 FP2 78 3.642
11 FP2 79 4.130
11 FP2 80 4.618
11 FP2 81 4.130
11 FP2 82 2.665
11 FP2 83 0.224
11 FP2 84 -1.729
11 FP2 85 -2.218
11 FP2 86 -1.729
11 FP2 87 -0.753
11 FP2 88 0.224
11 FP2 89 0.224
11 FP2 90 -0.753
11 FP2 91 -1.729
11 FP2 92 -1.241
11 FP2 93 0.712
11 FP2 94 2.665
11 FP2 95 4.130
11 FP2 96 4.618
11 FP2 97 4.130
11 FP2 98 3.153
11 FP2 99 3.642
11 FP2 100 4.618
11 FP2 101 5.595
11 FP2 102 6.571
11 FP2 103 6.571
11 FP2 104 5.595
11 FP2 105 3.642
11 FP2 106 1.200
11 FP2 107 -0.264
11 FP2 108 -0.264
11 FP2 109 1.200
11 FP2 110 4.130
11 FP2 111 5.107
11 FP2 112 3.642
11 FP2 113 0.224
11 FP2 114 -4.171
11 FP2 115 -6.612
11 FP2 116 -7.100
11 FP2 117 -6.124
11 FP2 118 -5.636
11 FP2 119 -6.612
11 FP2 120 -8.077
11 FP2 121 -9.054
11 FP2 122 -9.054
11 FP2 123 -8.565
11 FP2 124 -9.054
11 FP2 125 -10.030
11 FP2 126 -11.495
11 FP2 127 -11.983
11 FP2 128 -11.495
11 FP2 129 -11.007
11 FP2 130 -11.983
11 FP2 131 -13.448
11 FP2 132 -15.401
11 FP2 133 -15.889
11 FP2 134 -13.936
11 FP2 135 -11.983
11 FP2 136 -10.518
11 FP2 137 -10.518
11 FP2 138 -11.495
11 FP2 139 -12.472
11 FP2 140 -12.960
11 FP2 141 -12.960
11 FP2 142 -12.472
11 FP2 143 -11.983
11 FP2 144 -11.007
11 FP2 145 -9.542
11 FP2 146 -8.565
11 FP2 147 -7.589
11 FP2 148 -8.565
11 FP2 149 -10.030
11 FP2 150 -10.518
11 FP2 151 -9.542
11 FP2 152 -7.589
11 FP2 153 -5.636
11 FP2 154 -5.147
11 FP2 155 -6.124
11 FP2 156 -7.589
11 FP2 157 -8.077
11 FP2 158 -6.612
11 FP2 159 -4.171
11 FP2 160 -1.729
11 FP2 161 -1.241
11 FP2 162 -2.218
11 FP2 163 -4.171
11 FP2 164 -5.147
11 FP2 165 -5.147
11 FP2 166 -4.171
11 FP2 167 -3.194
11 FP2 168 -2.218
11 FP2 169 -1.729
11 FP2 170 -1.729
11 FP2 171 -2.218
11 FP2 172 -2.706
11 FP2 173 -2.706
11 FP2 174 -3.194
11 FP2 175 -2.706
11 FP2 176 -1.729
11 FP2 177 -1.241
11 FP2 178 -0.753
11 FP2 179 -1.241
11 FP2 180 -1.241
11 FP2 181 -1.241
11 FP2 182 -0.264
11 FP2 183 0.712
11 FP2 184 1.200
11 FP2 185 1.689
11 FP2 186 0.712
11 FP2 187 -0.264
11 FP2 188 -1.729
11 FP2 189 -2.218
11 FP2 190 -2.218
11 FP2 191 -2.706
11 FP2 192 -3.194
11 FP2 193 -4.659
11 FP2 194 -6.124
11 FP2 195 -7.100
11 FP2 196 -7.100
11 FP2 197 -5.636
11 FP2 198 -4.171
11 FP2 199 -4.171
11 FP2 200 -5.147
11 FP2 201 -6.612
11 FP2 202 -7.589
11 FP2 203 -8.077
11 FP2 204 -7.589
11 FP2 205 -7.589
11 FP2 206 -7.589
11 FP2 207 -7.100
11 FP2 208 -5.636
11 FP2 209 -3.194
11 FP2 210 -1.729
11 FP2 211 -2.218
11 FP2 212 -4.171
11 FP2 213 -6.612
11 FP2 214 -7.589
11 FP2 215 -6.124
11 FP2 216 -4.171
11 FP2 217 -2.706
11 FP2 218 -3.194
11 FP2 219 -4.659
11 FP2 220 -6.124
11 FP2 221 -6.612
11 FP2 222 -5.636
11 FP2 223 -4.171
11 FP2 224 -3.682
11 FP2 225 -5.147
11 FP2 226 -6.612
11 FP2 227 -8.077
11 FP2 228 -7.589
11 FP2 229 -7.100
11 FP2 230 -6.124
11 FP2 231 -6.124
11 FP2 232 -7.100
11 FP2 233 -8.565
11 FP2 234 -9.542
11 FP2 235 -10.030
11 FP2 236 -9.542
11 FP2 237 -9.054
11 FP2 238 -8.565
11 FP2 239 -7.589
11 FP2 240 -7.100
11 FP2 241 -6.124
11 FP2 242 -6.124
11 FP2 243 -6.124
11 FP2 244 -6.124
11 FP2 245 -5.147
11 FP2 246 -4.171
11 FP2 247 -3.194
11 FP2 248 -4.171
11 FP2 249 -6.124
11 FP2 250 -8.077
11 FP2 251 -9.054
11 FP2 252 -7.589
11 FP2 253 -5.636
11 FP2 254 -3.682
11 FP2 255 -4.659
# F7 chan 2
11 F7 0 -1.088
11 F7 1 -4.018
11 F7 2 -4.018
11 F7 3 -1.088
11 F7 4 2.330
11 F7 5 3.794
11 F7 6 2.330
11 F7 7 -0.112
11 F7 8 -2.553
11 F7 9 -3.042
11 F7 10 -2.553
11 F7 11 -2.553
11 F7 12 -3.042
11 F7 13 -4.995
11 F7 14 -5.971
11 F7 15 -6.460
11 F7 16 -6.948
11 F7 17 -7.924
11 F7 18 -8.901
11 F7 19 -8.901
11 F7 20 -7.924
11 F7 21 -6.948
11 F7 22 -7.436
11 F7 23 -9.878
11 F7 24 -12.807
11 F7 25 -14.272
11 F7 26 -13.295
11 F7 27 -10.366
11 F7 28 -7.924
11 F7 29 -7.924
11 F7 30 -9.878
11 F7 31 -12.807
11 F7 32 -15.249
11 F7 33 -15.737
11 F7 34 -14.760
11 F7 35 -12.807
11 F7 36 -11.342
11 F7 37 -9.878
11 F7 38 -8.901
11 F7 39 -8.413
11 F7 40 -6.460
11 F7 41 -4.506
11 F7 42 -3.042
11 F7 43 -2.553
11 F7 44 -3.530
11 F7 45 -4.506
11 F7 46 -4.506
11 F7 47 -3.042
11 F7 48 -1.577
11 F7 49 -1.088
11 F7 50 -1.577
11 F7 51 -3.042
11 F7 52 -2.553
11 F7 53 -1.088
11 F7 54 1.353
11 F7 55 2.330
11 F7 56 2.330
11 F7 57 1.353
11 F7 58 0.376
11 F7 59 0.865
11 F7 60 2.330
11 F7 61 3.794
11 F7 62 4.283
11 F7 63 3.794
11 F7 64 2.818
11 F7 65 3.306
11 F7 66 4.771
11 F7 67 6.724
11 F7 68 7.212
11 F7 69 5.747
11 F7 70 3.794
11 F7 71 2.330
11 F7 72 2.818
11 F7 73 4.283
11 F7 74 4.771
11 F7 75 3.794
11 F7 76 1.353
11 F7 77 -0.112
11 F7 78 1.353
11 F7 79 4.771
11 F7 80 7.212
11 F7 81 6.236
11 F7 82 1.353
11 F7 83 -4.506
11 F7 84 -5.971
11 F7 85 -2.553
11 F7 86 3.306
11 F7 87 7.212
11 F7 88 6.724
11 F7 89 2.330
11 F7 90 -1.577
11 F7 91 -2.065
11 F7 92 1.353
11 F7 93 5.747
11 F7 94 8.677
11 F7 95 9.165
11 F7 96 9.165
11 F7 97 9.165
11 F7 98 9.165
11 F7 99 8.189
11 F7 100 5.747
11 F7 101 3.794
11 F7 102 4.283
11 F7 103 7.701
11 F7 104 13.072
11 F7 105 16.490
11 F7 106 16.490
11 F7 107 14.537
11 F7 108 13.072
11 F7 109 13.072
11 F7 110 13.560
11 F7 111 13.560
11 F7 112 11.119
11 F7 113 7.701
11 F7 114 5.259
11 F7 115 4.771
11 F7 116 5.747
11 F7 117 6.724
11 F7 118 5.747
11 F7 119 4.283
11 F7 120 3.794
11 F7 121 5.259
11 F7 122 7.212
11 F7 123 7.701
11 F7 124 5.259
11 F7 125 0.376
11 F7 126 -4.995
11 F7 127 -8.413
11 F7 128 -8.901
11 F7 129 -7.436
11 F7 130 -6.948
11 F7 131 -8.901
11 F7 132 -13.295
11 F7 133 -18.178
11 F7 134 -20.620
11 F7 135 -19.155
11 F7 136 -15.249
11 F7 137 -11.342
11 F7 138 -9.878
11 F7 139 -11.831
11 F7 140 -15.249
11 F7 141 -17.690
11 F7 142 -17.690
11 F7 143 -14.760
11 F7 144 -11.831
11 F7 145 -9.878
11 F7 146 -8.901
11 F7 147 -9.389
11 F7 148 -9.389
11 F7 149 -8.413
11 F7 150 -6.948
11 F7 151 -5.971
11 F7 152 -5.483
11 F7 153 -6.460
11 F7 154 -7.436
11 F7 155 -7.924
11 F7 156 -7.436
11 F7 157 -5.971
11 F7 158 -4.995
11 F7 159 -3.530
11 F7 160 -3.042
11 F7 161 -2.065
11 F7 162 -2.065
11 F7 163 -1.088
11 F7 164 0.376
11 F7 165 2.818
11 F7 166 5.747
11 F7 167 8.189
11 F7 168 9.165
11 F7 169 7.212
11 F7 170 3.306
11 F7 171 -1.088
11 F7 172 -3.042
11 F7 173 -2.065
11 F7 174 0.376
11 F7 175 1.841
11 F7 176 1.841
11 F7 177 -0.112
11 F7 178 -2.553
11 F7 179 -2.065
11 F7 180 -0.112
11 F7 181 2.818
11 F7 182 5.259
11 F7 183 5.259
11 F7 184 3.794
11 F7 185 1.841
11 F7 186 1.841
11 F7 187 2.330
11 F7 188 1.841
11 F7 189 0.376
11 F7 190 -2.553
11 F7 191 -4.995
11 F7 192 -4.018
11 F7 193 -1.577
11 F7 194 1.841
11 F7 195 3.794
11 F7 196 2.818
11 F7 197 0.865
11 F7 198 -0.600
11 F7 199 -0.112
11 F7 200 0.376
11 F7 201 0.376
11 F7 202 -1.577
11 F7 203 -4.995
11 F7 204 -7.924
11 F7 205 -9.389
11 F7 206 -9.878
11 F7 207 -10.366
11 F7 208 -12.807
11 F7 209 -15.249
11 F7 210 -17.202
11 F7 211 -17.690
11 F7 212 -15.737
11 F7 213 -13.295
11 F7 214 -12.319
11 F7 215 -13.784
11 F7 216 -15.737
11 F7 217 -16.225
11 F7 218 -14.272
11 F7 219 -10.366
11 F7 220 -6.460
11 F7 221 -4.506
11 F7 222 -5.971
11 F7 223 -8.901
11 F7 224 -11.831
11 F7 225 -12.807
11 F7 226 -11.831
11 F7 227 -9.878
11 F7 228 -7.436
11 F7 229 -5.971
11 F7 230 -5.483
11 F7 231 -4.995
11 F7 232 -4.995
11 F7 233 -4.506
11 F7 234 -4.018
11 F7 235 -4.018
11 F7 236 -3.530
11 F7 237 -3.042
11 F7 238 -1.577
11 F7 239 -0.112
11 F7 240 0.376
11 F7 241 -0.112
11 F7 242 -2.065
11 F7 243 -3.042
11 F7 244 -2.553
11 F7 245 -0.600
11 F7 246 1.353
11 F7 247 0.865
11 F7 248 -2.553
11 F7 249 -6.948
11 F7 250 -10.854
11 F7 251 -11.342
11 F7 252 -8.413
11 F7 253 -4.995
11 F7 254 -2.553
11 F7 255 -2.553
# F8 chan 3
11 F8 0 5.564
11 F8 1 4.100
11 F8 2 0.193
11 F8 3 -4.201
11 F8 4 -6.154
11 F8 5 -5.666
11 F8 6 -3.713
11 F8 7 -3.225
11 F8 8 -3.713
11 F8 9 -6.154
11 F8 10 -8.596
11 F8 11 -9.084
11 F8 12 -9.084
11 F8 13 -8.108
11 F8 14 -7.619
11 F8 15 -6.643
11 F8 16 -6.154
11 F8 17 -5.666
11 F8 18 -6.154
11 F8 19 -8.596
11 F8 20 -11.525
11 F8 21 -12.990
11 F8 22 -12.014
11 F8 23 -9.572
11 F8 24 -6.643
11 F8 25 -5.178
11 F8 26 -6.154
11 F8 27 -8.596
11 F8 28 -11.037
11 F8 29 -12.014
11 F8 30 -11.525
11 F8 31 -9.084
11 F8 32 -6.154
11 F8 33 -4.201
11 F8 34 -4.201
11 F8 35 -5.666
11 F8 36 -8.108
11 F8 37 -9.084
11 F8 38 -8.108
11 F8 39 -5.666
11 F8 40 -3.713
11 F8 41 -4.201
11 F8 42 -6.643
11 F8 43 -9.084
11 F8 44 -10.061
11 F8 45 -9.084
11 F8 46 -6.643
11 F8 47 -6.154
11 F8 48 -6.643
11 F8 49 -7.619
11 F8 50 -8.108
11 F8 51 -7.131
11 F8 52 -5.666
11 F8 53 -6.154
11 F8 54 -8.108
11 F8 55 -10.061
11 F8 56 -9.572
11 F8 57 -5.666
11 F8 58 -1.760
11 F8 59 0.193
11 F8 60 -2.248
11 F8 61 -6.154
11 F8 62 -8.596
11 F8 63 -7.619
11 F8 64 -4.201
11 F8 65 -0.783
11 F8 66 -0.295
11 F8 67 -1.760
11 F8 68 -4.201
11 F8 69 -5.178
11 F8 70 -3.713
11 F8 71 -1.272
11 F8 72 0.193
11 F8 73 0.682
11 F8 74 0.682
11 F8 75 0.682
11 F8 76 1.658
11 F8 77 3.123
11 F8 78 3.123
11 F8 79 2.146
11 F8 80 0.193
11 F8 81 -1.272
11 F8 82 -1.760
11 F8 83 -1.272
11 F8 84 -1.272
11 F8 85 -1.760
11 F8 86 -3.225
11 F8 87 -4.201
11 F8 88 -4.690
11 F8 89 -4.690
11 F8 90 -3.713
11 F8 91 -3.713
11 F8 92 -3.713
11 F8 93 -2.736
11 F8 94 -0.295
11 F8 95 2.146
11 F8 96 5.076
11 F8 97 6.541
11 F8 98 6.053
11 F8 99 4.588
11 F8 100 3.611
11 F8 101 4.100
11 F8 102 7.029
11 F8 103 8.982
11 F8 104 9.471
11 F8 105 7.029
11 F8 106 3.123
11 F8 107 0.193
11 F8 108 0.193
11 F8 109 3.123
11 F8 110 7.029
11 F8 111 8.006
11 F8 112 6.541
11 F8 113 3.611
11 F8 114 0.682
11 F8 115 -0.295
11 F8 116 -0.783
11 F8 117 -2.248
11 F8 118 -4.690
11 F8 119 -7.131
11 F8 120 -8.108
11 F8 121 -7.131
11 F8 122 -6.643
11 F8 123 -7.131
11 F8 124 -8.108
11 F8 125 -9.084
11 F8 126 -8.596
11 F8 127 -7.619
11 F8 128 -7.131
11 F8 129 -8.596
11 F8 130 -12.990
11 F8 131 -16.897
11 F8 132 -18.850
11 F8 133 -17.873
11 F8 134 -14.455
11 F8 135 -11.037
11 F8 136 -9.572
11 F8 137 -11.037
11 F8 138 -13.967
11 F8 139 -15.432
11 F8 140 -15.920
11 F8 141 -13.967
11 F8 142 -12.502
11 F8 143 -12.014
11 F8 144 -12.502
11 F8 145 -12.990
11 F8 146 -11.525
11 F8 147 -9.572
11 F8 148 -8.108
11 F8 149 -8.596
11 F8 150 -10.061
11 F8 151 -11.525
11 F8 152 -11.037
11 F8 153 -10.061
11 F8 154 -8.596
11 F8 155 -8.108
11 F8 156 -9.084
11 F8 157 -9.084
11 F8 158 -7.131
11 F8 159 -3.713
11 F8 160 -0.295
11 F8 161 1.170
11 F8 162 0.193
11 F8 163 -2.736
11 F8 164 -4.201
11 F8 165 -5.178
11 F8 166 -4.690
11 F8 167 -4.690
11 F8 168 -4.690
11 F8 169 -4.201
11 F8 170 -3.225
11 F8 171 -2.248
11 F8 172 -2.248
11 F8 173 -3.713
11 F8 174 -5.178
11 F8 175 -5.666
11 F8 176 -4.201
11 F8 177 -1.760
11 F8 178 -0.783
11 F8 179 -0.783
11 F8 180 -2.248
11 F8 181 -2.248
11 F8 182 -1.272
11 F8 183 0.193
11 F8 184 1.170
11 F8 185 0.682
11 F8 186 -1.272
11 F8 187 -2.736
11 F8 188 -3.713
11 F8 189 -3.713
11 F8 190 -3.225
11 F8 191 -3.225
11 F8 192 -4.201
11 F8 193 -6.154
11 F8 194 -7.619
11 F8 195 -8.108
11 F8 196 -6.643
11 F8 197 -4.690
11 F8 198 -3.713
11 F8 199 -4.690
11 F8 200 -6.643
11 F8 201 -8.108
11 F8 202 -8.108
11 F8 203 -6.643
11 F8 204 -6.154
11 F8 205 -7.619
11 F8 206 -9.572
11 F8 207 -10.549
11 F8 208 -7.619
11 F8 209 -3.225
11 F8 210 0.193
11 F8 211 -0.783
11 F8 212 -4.690
11 F8 213 -9.084
11 F8 214 -10.549
11 F8 215 -8.108
11 F8 216 -3.225
11 F8 217 -0.295
11 F8 218 -1.272
11 F8 219 -4.201
11 F8 220 -7.619
11 F8 221 -9.084
11 F8 222 -8.108
11 F8 223 -7.131
11 F8 224 -7.131
11 F8 225 -8.108
11 F8 226 -9.084
11 F8 227 -8.108
11 F8 228 -5.666
11 F8 229 -3.713
11 F8 230 -4.690
11 F8 231 -8.108
11 F8 232 -12.014
11 F8 233 -13.967
11 F8 234 -12.990
11 F8 235 -9.572
11 F8 236 -8.108
11 F8 237 -9.084
11 F8 238 -12.014
11 F8 239 -13.479
11 F8 240 -12.502
11 F8 241 -10.061
11 F8 242 -8.108
11 F8 243 -8.596
11 F8 244 -10.549
11 F8 245 -11.037
11 F8 246 -9.572
11 F8 247 -7.131
11 F8 248 -6.154
11 F8 249 -8.108
11 F8 250 -12.014
11 F8 251 -14.943
11 F8 252 -13.479
11 F8 253 -8.596
11 F8 254 -3.225
11 F8 255 -0.783
# AF1 chan 4
11 AF1 0 3.011
11 AF1 1 2.523
11 AF1 2 2.523
11 AF1 3 3.011
11 AF1 4 3.988
11 AF1 5 3.499
11 AF1 6 1.546
11 AF1 7 -0.895
11 AF1 8 -3.337
11 AF1 9 -3.825
11 AF1 10 -3.337
11 AF1 11 -2.848
11 AF1 12 -3.337
11 AF1 13 -4.801
11 AF1 14 -6.266
11 AF1 15 -6.755
11 AF1 16 -5.778
11 AF1 17 -4.801
11 AF1 18 -4.313
11 AF1 19 -4.313
11 AF1 20 -4.313
11 AF1 21 -3.825
11 AF1 22 -2.848
11 AF1 23 -2.360
11 AF1 24 -2.360
11 AF1 25 -2.848
11 AF1 26 -2.848
11 AF1 27 -2.360
11 AF1 28 -1.872
11 AF1 29 -1.383
11 AF1 30 -1.872
11 AF1 31 -1.872
11 AF1 32 -1.872
11 AF1 33 -1.383
11 AF1 34 -0.407
11 AF1 35 -0.407
11 AF1 36 -0.895
11 AF1 37 -2.360
11 AF1 38 -2.848
11 AF1 39 -2.360
11 AF1 40 -1.383
11 AF1 41 -0.895
11 AF1 42 -0.895
11 AF1 43 -1.872
11 AF1 44 -2.848
11 AF1 45 -2.848
11 AF1 46 -1.872
11 AF1 47 -0.407
11 AF1 48 0.081
11 AF1 49 -0.895
11 AF1 50 -2.848
11 AF1 51 -4.801
11 AF1 52 -5.778
11 AF1 53 -5.778
11 AF1 54 -4.801
11 AF1 55 -3.825
11 AF1 56 -3.337
11 AF1 57 -3.337
11 AF1 58 -3.825
11 AF1 59 -4.801
11 AF1 60 -5.778
11 AF1 61 -6.755
11 AF1 62 -7.243
11 AF1 63 -7.243
11 AF1 64 -5.778
11 AF1 65 -4.801
11 AF1 66 -4.313
11 AF1 67 -3.825
11 AF1 68 -3.825
11 AF1 69 -4.313
11 AF1 70 -4.801
11 AF1 71 -4.801
11 AF1 72 -3.825
11 AF1 73 -2.360
11 AF1 74 -0.895
11 AF1 75 0.081
11 AF1 76 0.081
11 AF1 77 -0.407
11 AF1 78 -0.407
11 AF1 79 0.570
11 AF1 80 2.035
11 AF1 81 3.011
11 AF1 82 2.035
11 AF1 83 0.570
11 AF1 84 -1.383
11 AF1 85 -2.360
11 AF1 86 -1.383
11 AF1 87 0.570
11 AF1 88 2.035
11 AF1 89 2.523
11 AF1 90 2.035
11 AF1 91 1.546
11 AF1 92 2.035
11 AF1 93 3.988
11 AF1 94 5.452
11 AF1 95 6.917
11 AF1 96 6.917
11 AF1 97 6.429
11 AF1 98 6.429
11 AF1 99 6.429
11 AF1 100 7.406
11 AF1 101 7.406
11 AF1 102 6.917
11 AF1 103 5.452
11 AF1 104 3.988
11 AF1 105 3.011
11 AF1 106 2.523
11 AF1 107 2.035
11 AF1 108 2.523
11 AF1 109 3.011
11 AF1 110 3.011
11 AF1 111 2.035
11 AF1 112 1.058
11 AF1 113 -0.895
11 AF1 114 -2.848
11 AF1 115 -3.825
11 AF1 116 -4.313
11 AF1 117 -4.801
11 AF1 118 -5.778
11 AF1 119 -7.243
11 AF1 120 -7.731
11 AF1 121 -7.243
11 AF1 122 -6.755
11 AF1 123 -6.266
11 AF1 124 -6.266
11 AF1 125 -7.731
11 AF1 126 -8.708
11 AF1 127 -9.196
11 AF1 128 -8.708
11 AF1 129 -7.731
11 AF1 130 -7.243
11 AF1 131 -8.708
11 AF1 132 -10.661
11 AF1 133 -13.102
11 AF1 134 -13.590
11 AF1 135 -13.102
11 AF1 136 -11.637
11 AF1 137 -10.173
11 AF1 138 -9.684
11 AF1 139 -10.661
11 AF1 140 -11.637
11 AF1 141 -12.614
11 AF1 142 -12.126
11 AF1 143 -11.149
11 AF1 144 -9.196
11 AF1 145 -8.219
11 AF1 146 -7.731
11 AF1 147 -8.219
11 AF1 148 -9.196
11 AF1 149 -9.684
11 AF1 150 -9.196
11 AF1 151 -7.731
11 AF1 152 -5.778
11 AF1 153 -4.801
11 AF1 154 -5.290
11 AF1 155 -7.243
11 AF1 156 -8.708
11 AF1 157 -8.708
11 AF1 158 -7.731
11 AF1 159 -5.290
11 AF1 160 -3.337
11 AF1 161 -2.848
11 AF1 162 -2.848
11 AF1 163 -3.825
11 AF1 164 -4.313
11 AF1 165 -4.801
11 AF1 166 -4.313
11 AF1 167 -3.337
11 AF1 168 -2.848
11 AF1 169 -1.872
11 AF1 170 -1.383
11 AF1 171 -0.407
11 AF1 172 0.081
11 AF1 173 0.570
11 AF1 174 1.058
11 AF1 175 1.058
11 AF1 176 0.570
11 AF1 177 -0.407
11 AF1 178 -1.872
11 AF1 179 -2.848
11 AF1 180 -3.337
11 AF1 181 -2.848
11 AF1 182 -1.383
11 AF1 183 -0.407
11 AF1 184 0.081
11 AF1 185 0.081
11 AF1 186 -0.407
11 AF1 187 -0.895
11 AF1 188 -1.383
11 AF1 189 -2.360
11 AF1 190 -2.360
11 AF1 191 -2.848
11 AF1 192 -3.337
11 AF1 193 -4.313
11 AF1 194 -5.290
11 AF1 195 -6.266
11 AF1 196 -6.755
11 AF1 197 -6.755
11 AF1 198 -6.755
11 AF1 199 -5.778
11 AF1 200 -6.266
11 AF1 201 -6.755
11 AF1 202 -8.219
11 AF1 203 -9.196
11 AF1 204 -9.196
11 AF1 205 -8.219
11 AF1 206 -7.731
11 AF1 207 -6.755
11 AF1 208 -6.266
11 AF1 209 -6.266
11 AF1 210 -6.755
11 AF1 211 -6.755
11 AF1 212 -6.755
11 AF1 213 -7.243
11 AF1 214 -7.731
11 AF1 215 -7.731
11 AF1 216 -8.219
11 AF1 217 -8.219
11 AF1 218 -8.219
11 AF1 219 -8.219
11 AF1 220 -7.731
11 AF1 221 -7.243
11 AF1 222 -6.755
11 AF1 223 -6.755
11 AF1 224 -6.266
11 AF1 225 -6.266
11 AF1 226 -6.755
11 AF1 227 -7.243
11 AF1 228 -7.731
11 AF1 229 -7.243
11 AF1 230 -6.755
11 AF1 231 -6.266
11 AF1 232 -6.755
11 AF1 233 -7.731
11 AF1 234 -8.219
11 AF1 235 -8.708
11 AF1 236 -9.196
11 AF1 237 -8.708
11 AF1 238 -8.708
11 AF1 239 -8.708
11 AF1 240 -8.708
11 AF1 241 -8.708
11 AF1 242 -8.708
11 AF1 243 -8.708
11 AF1 244 -8.219
11 AF1 245 -7.731
11 AF1 246 -7.243
11 AF1 247 -6.755
11 AF1 248 -6.755
11 AF1 249 -7.731
11 AF1 250 -8.219
11 AF1 251 -8.708
11 AF1 252 -8.708
11 AF1 253 -8.219
11 AF1 254 -8.219
11 AF1 255 -8.219
# AF2 chan 5
11 AF2 0 4.934
11 AF2 1 4.445
11 AF2 2 3.469
11 AF2 3 3.469
11 AF2 4 3.469
11 AF2 5 2.981
11 AF2 6 1.516
11 AF2 7 0.051
11 AF2 8 -0.926
11 AF2 9 -1.902
11 AF2 10 -2.879
11 AF2 11 -3.855
11 AF2 12 -5.320
11 AF2 13 -6.297
11 AF2 14 -6.785
11 AF2 15 -6.297
11 AF2 16 -5.320
11 AF2 17 -3.855
11 AF2 18 -3.367
11 AF2 19 -3.367
11 AF2 20 -3.367
11 AF2 21 -2.879
11 AF2 22 -1.902
11 AF2 23 -0.437
11 AF2 24 1.027
11 AF2 25 2.004
11 AF2 26 1.516
11 AF2 27 0.539
11 AF2 28 -0.437
11 AF2 29 -0.926
11 AF2 30 -0.437
11 AF2 31 1.027
11 AF2 32 2.492
11 AF2 33 2.981
11 AF2 34 2.492
11 AF2 35 1.516
11 AF2 36 0.539
11 AF2 37 -0.437
11 AF2 38 0.051
11 AF2 39 0.051
11 AF2 40 0.051
11 AF2 41 -0.437
11 AF2 42 -0.926
11 AF2 43 -1.414
11 AF2 44 -1.902
11 AF2 45 -0.926
11 AF2 46 -0.437
11 AF2 47 0.051
11 AF2 48 -0.437
11 AF2 49 -0.926
11 AF2 50 -1.902
11 AF2 51 -3.367
11 AF2 52 -4.344
11 AF2 53 -5.809
11 AF2 54 -6.297
11 AF2 55 -5.809
11 AF2 56 -4.832
11 AF2 57 -3.855
11 AF2 58 -2.879
11 AF2 59 -2.879
11 AF2 60 -3.367
11 AF2 61 -4.832
11 AF2 62 -5.320
11 AF2 63 -4.832
11 AF2 64 -3.367
11 AF2 65 -1.902
11 AF2 66 -1.414
11 AF2 67 -1.414
11 AF2 68 -1.902
11 AF2 69 -1.902
11 AF2 70 -1.902
11 AF2 71 -0.926
11 AF2 72 1.027
11 AF2 73 2.492
11 AF2 74 3.957
11 AF2 75 4.445
11 AF2 76 4.934
11 AF2 77 4.445
11 AF2 78 4.445
11 AF2 79 5.422
11 AF2 80 6.399
11 AF2 81 7.375
11 AF2 82 6.887
11 AF2 83 5.422
11 AF2 84 3.469
11 AF2 85 2.492
11 AF2 86 2.981
11 AF2 87 4.445
11 AF2 88 5.910
11 AF2 89 6.887
11 AF2 90 6.887
11 AF2 91 5.422
11 AF2 92 4.934
11 AF2 93 5.422
11 AF2 94 6.887
11 AF2 95 8.352
11 AF2 96 9.816
11 AF2 97 10.305
11 AF2 98 10.793
11 AF2 99 10.793
11 AF2 100 10.793
11 AF2 101 10.793
11 AF2 102 10.793
11 AF2 103 10.305
11 AF2 104 9.328
11 AF2 105 8.352
11 AF2 106 6.887
11 AF2 107 5.422
11 AF2 108 4.934
11 AF2 109 4.445
11 AF2 110 4.934
11 AF2 111 4.445
11 AF2 112 2.981
11 AF2 113 1.027
11 AF2 114 -0.926
11 AF2 115 -2.391
11 AF2 116 -3.367
11 AF2 117 -3.855
11 AF2 118 -4.344
11 AF2 119 -4.832
11 AF2 120 -4.832
11 AF2 121 -5.320
11 AF2 122 -4.832
11 AF2 123 -4.832
11 AF2 124 -5.809
11 AF2 125 -6.785
11 AF2 126 -6.785
11 AF2 127 -6.785
11 AF2 128 -5.809
11 AF2 129 -4.832
11 AF2 130 -5.320
11 AF2 131 -5.809
11 AF2 132 -7.273
11 AF2 133 -8.250
11 AF2 134 -7.762
11 AF2 135 -7.273
11 AF2 136 -6.297
11 AF2 137 -5.809
11 AF2 138 -6.785
11 AF2 139 -7.273
11 AF2 140 -7.762
11 AF2 141 -8.250
11 AF2 142 -8.250
11 AF2 143 -7.762
11 AF2 144 -6.785
11 AF2 145 -5.320
11 AF2 146 -4.832
11 AF2 147 -4.832
11 AF2 148 -5.320
11 AF2 149 -6.785
11 AF2 150 -7.762
11 AF2 151 -7.273
11 AF2 152 -6.297
11 AF2 153 -4.832
11 AF2 154 -4.344
11 AF2 155 -4.832
11 AF2 156 -5.809
11 AF2 157 -6.297
11 AF2 158 -5.809
11 AF2 159 -3.855
11 AF2 160 -1.902
11 AF2 161 -0.926
11 AF2 162 -1.414
11 AF2 163 -2.391
11 AF2 164 -3.855
11 AF2 165 -4.344
11 AF2 166 -3.855
11 AF2 167 -2.879
11 AF2 168 -2.391
11 AF2 169 -1.414
11 AF2 170 -1.414
11 AF2 171 -1.414
11 AF2 172 -1.414
11 AF2 173 -0.926
11 AF2 174 0.051
11 AF2 175 0.539
11 AF2 176 1.027
11 AF2 177 1.516
11 AF2 178 1.027
11 AF2 179 0.539
11 AF2 180 0.051
11 AF2 181 0.051
11 AF2 182 1.027
11 AF2 183 2.004
11 AF2 184 2.981
11 AF2 185 2.981
11 AF2 186 2.004
11 AF2 187 0.539
11 AF2 188 -1.414
11 AF2 189 -2.391
11 AF2 190 -2.879
11 AF2 191 -2.879
11 AF2 192 -3.367
11 AF2 193 -3.855
11 AF2 194 -4.832
11 AF2 195 -5.809
11 AF2 196 -6.297
11 AF2 197 -5.809
11 AF2 198 -4.832
11 AF2 199 -4.344
11 AF2 200 -4.832
11 AF2 201 -6.297
11 AF2 202 -7.273
11 AF2 203 -7.762
11 AF2 204 -7.273
11 AF2 205 -6.785
11 AF2 206 -5.809
11 AF2 207 -5.320
11 AF2 208 -4.344
11 AF2 209 -3.367
11 AF2 210 -1.902
11 AF2 211 -1.902
11 AF2 212 -2.879
11 AF2 213 -4.344
11 AF2 214 -5.320
11 AF2 215 -5.320
11 AF2 216 -4.344
11 AF2 217 -3.367
11 AF2 218 -3.367
11 AF2 219 -3.367
11 AF2 220 -4.344
11 AF2 221 -4.344
11 AF2 222 -4.344
11 AF2 223 -3.855
11 AF2 224 -3.855
11 AF2 225 -4.344
11 AF2 226 -5.320
11 AF2 227 -6.297
11 AF2 228 -6.785
11 AF2 229 -6.297
11 AF2 230 -5.320
11 AF2 231 -5.320
11 AF2 232 -5.320
11 AF2 233 -6.297
11 AF2 234 -6.785
11 AF2 235 -7.762
11 AF2 236 -8.250
11 AF2 237 -8.250
11 AF2 238 -7.762
11 AF2 239 -7.273
11 AF2 240 -6.785
11 AF2 241 -6.297
11 AF2 242 -6.297
11 AF2 243 -6.297
11 AF2 244 -6.297
11 AF2 245 -5.809
11 AF2 246 -4.832
11 AF2 247 -4.344
11 AF2 248 -4.344
11 AF2 249 -5.320
11 AF2 250 -6.785
11 AF2 251 -7.273
11 AF2 252 -6.785
11 AF2 253 -5.809
11 AF2 254 -4.832
11 AF2 255 -4.832
# FZ chan 6
11 FZ 0 2.981
11 FZ 1 2.981
11 FZ 2 2.981
11 FZ 3 2.981
11 FZ 4 2.981
11 FZ 5 2.492
11 FZ 6 1.516
11 FZ 7 0.051
11 FZ 8 -0.926
11 FZ 9 -1.902
11 FZ 10 -2.391
11 FZ 11 -2.391
11 FZ 12 -3.367
11 FZ 13 -3.855
11 FZ 14 -4.832
11 FZ 15 -4.832
11 FZ 16 -4.344
11 FZ 17 -3.855
11 FZ 18 -2.879
11 FZ 19 -2.391
11 FZ 20 -1.902
11 FZ 21 -1.414
11 FZ 22 -0.926
11 FZ 23 0.051
11 FZ 24 0.539
11 FZ 25 1.027
11 FZ 26 1.027
11 FZ 27 1.027
11 FZ 28 0.051
11 FZ 29 -0.437
11 FZ 30 0.051
11 FZ 31 0.539
11 FZ 32 1.516
11 FZ 33 1.516
11 FZ 34 1.516
11 FZ 35 0.539
11 FZ 36 0.051
11 FZ 37 -0.437
11 FZ 38 0.051
11 FZ 39 0.051
11 FZ 40 0.051
11 FZ 41 0.051
11 FZ 42 -0.437
11 FZ 43 -1.414
11 FZ 44 -1.414
11 FZ 45 -1.414
11 FZ 46 -1.414
11 FZ 47 -0.437
11 FZ 48 0.051
11 FZ 49 0.051
11 FZ 50 -1.414
11 FZ 51 -3.367
11 FZ 52 -5.320
11 FZ 53 -6.785
11 FZ 54 -6.297
11 FZ 55 -5.320
11 FZ 56 -4.344
11 FZ 57 -3.855
11 FZ 58 -3.855
11 FZ 59 -4.832
11 FZ 60 -5.320
11 FZ 61 -6.297
11 FZ 62 -6.297
11 FZ 63 -6.297
11 FZ 64 -5.809
11 FZ 65 -5.320
11 FZ 66 -5.320
11 FZ 67 -4.832
11 FZ 68 -4.832
11 FZ 69 -5.320
11 FZ 70 -5.320
11 FZ 71 -4.344
11 FZ 72 -3.367
11 FZ 73 -1.414
11 FZ 74 0.051
11 FZ 75 1.516
11 FZ 76 2.004
11 FZ 77 1.516
11 FZ 78 1.027
11 FZ 79 1.516
11 FZ 80 2.492
11 FZ 81 3.469
11 FZ 82 3.469
11 FZ 83 2.004
11 FZ 84 1.027
11 FZ 85 0.051
11 FZ 86 0.539
11 FZ 87 2.004
11 FZ 88 2.981
11 FZ 89 3.469
11 FZ 90 3.469
11 FZ 91 2.981
11 FZ 92 2.981
11 FZ 93 3.469
11 FZ 94 4.934
11 FZ 95 5.910
11 FZ 96 6.887
11 FZ 97 6.887
11 FZ 98 6.887
11 FZ 99 6.399
11 FZ 100 6.399
11 FZ 101 6.399
11 FZ 102 6.399
11 FZ 103 5.910
11 FZ 104 4.934
11 FZ 105 3.469
11 FZ 106 2.492
11 FZ 107 1.516
11 FZ 108 1.516
11 FZ 109 1.516
11 FZ 110 1.516
11 FZ 111 1.027
11 FZ 112 -0.437
11 FZ 113 -1.902
11 FZ 114 -3.367
11 FZ 115 -4.344
11 FZ 116 -4.344
11 FZ 117 -4.832
11 FZ 118 -5.320
11 FZ 119 -5.809
11 FZ 120 -5.809
11 FZ 121 -5.809
11 FZ 122 -4.832
11 FZ 123 -4.832
11 FZ 124 -5.320
11 FZ 125 -5.809
11 FZ 126 -6.785
11 FZ 127 -6.785
11 FZ 128 -5.809
11 FZ 129 -4.832
11 FZ 130 -4.832
11 FZ 131 -5.320
11 FZ 132 -6.785
11 FZ 133 -7.762
11 FZ 134 -8.250
11 FZ 135 -7.762
11 FZ 136 -7.273
11 FZ 137 -7.273
11 FZ 138 -7.762
11 FZ 139 -8.250
11 FZ 140 -8.738
11 FZ 141 -8.738
11 FZ 142 -8.738
11 FZ 143 -7.762
11 FZ 144 -6.785
11 FZ 145 -5.809
11 FZ 146 -5.320
11 FZ 147 -5.320
11 FZ 148 -6.785
11 FZ 149 -7.762
11 FZ 150 -8.250
11 FZ 151 -7.273
11 FZ 152 -6.297
11 FZ 153 -5.320
11 FZ 154 -5.809
11 FZ 155 -6.785
11 FZ 156 -7.273
11 FZ 157 -7.273
11 FZ 158 -6.297
11 FZ 159 -4.832
11 FZ 160 -3.367
11 FZ 161 -2.391
11 FZ 162 -2.879
11 FZ 163 -3.367
11 FZ 164 -4.344
11 FZ 165 -4.344
11 FZ 166 -3.855
11 FZ 167 -3.855
11 FZ 168 -3.367
11 FZ 169 -2.879
11 FZ 170 -2.879
11 FZ 171 -2.391
11 FZ 172 -1.414
11 FZ 173 -0.926
11 FZ 174 0.051
11 FZ 175 0.051
11 FZ 176 0.539
11 FZ 177 0.051
11 FZ 178 0.051
11 FZ 179 -0.437
11 FZ 180 -0.437
11 FZ 181 -0.437
11 FZ 182 0.051
11 FZ 183 1.027
11 FZ 184 1.027
11 FZ 185 0.539
11 FZ 186 0.051
11 FZ 187 -0.437
11 FZ 188 -1.414
11 FZ 189 -1.902
11 FZ 190 -2.391
11 FZ 191 -2.391
11 FZ 192 -2.879
11 FZ 193 -2.879
11 FZ 194 -3.855
11 FZ 195 -4.344
11 FZ 196 -4.344
11 FZ 197 -4.344
11 FZ 198 -4.344
11 FZ 199 -4.344
11 FZ 200 -4.344
11 FZ 201 -4.344
11 FZ 202 -4.832
11 FZ 203 -4.832
11 FZ 204 -4.832
11 FZ 205 -4.344
11 FZ 206 -3.855
11 FZ 207 -3.367
11 FZ 208 -2.879
11 FZ 209 -2.391
11 FZ 210 -1.902
11 FZ 211 -1.902
11 FZ 212 -2.391
11 FZ 213 -2.879
11 FZ 214 -3.367
11 FZ 215 -3.855
11 FZ 216 -3.855
11 FZ 217 -3.855
11 FZ 218 -3.855
11 FZ 219 -3.855
11 FZ 220 -3.855
11 FZ 221 -3.855
11 FZ 222 -3.367
11 FZ 223 -2.391
11 FZ 224 -1.902
11 FZ 225 -1.902
11 FZ 226 -2.391
11 FZ 227 -3.367
11 FZ 228 -3.367
11 FZ 229 -3.367
11 FZ 230 -2.391
11 FZ 231 -1.902
11 FZ 232 -1.902
11 FZ 233 -2.391
11 FZ 234 -3.855
11 FZ 235 -4.832
11 FZ 236 -5.320
11 FZ 237 -5.320
11 FZ 238 -5.320
11 FZ 239 -5.320
11 FZ 240 -4.832
11 FZ 241 -4.832
11 FZ 242 -4.832
11 FZ 243 -4.832
11 FZ 244 -4.832
11 FZ 245 -4.344
11 FZ 246 -3.367
11 FZ 247 -2.879
11 FZ 248 -2.391
11 FZ 249 -2.879
11 FZ 250 -3.855
11 FZ 251 -4.344
11 FZ 252 -4.344
11 FZ 253 -4.344
11 FZ 254 -3.855
11 FZ 255 -4.344
# F4 chan 7
11 F4 0 2.838
11 F4 1 2.350
11 F4 2 2.350
11 F4 3 2.350
11 F4 4 1.862
11 F4 5 0.885
11 F4 6 -0.580
11 F4 7 -2.045
11 F4 8 -3.021
11 F4 9 -3.998
11 F4 10 -4.486
11 F4 11 -4.974
11 F4 12 -5.951
11 F4 13 -5.951
11 F4 14 -5.463
11 F4 15 -4.974
11 F4 16 -3.998
11 F4 17 -3.998
11 F4 18 -4.486
11 F4 19 -4.974
11 F4 20 -5.463
11 F4 21 -5.463
11 F4 22 -4.974
11 F4 23 -3.510
11 F4 24 -1.556
11 F4 25 -0.580
11 F4 26 -1.068
11 F4 27 -2.045
11 F4 28 -2.533
11 F4 29 -2.533
11 F4 30 -1.068
11 F4 31 0.397
11 F4 32 0.885
11 F4 33 0.397
11 F4 34 -0.580
11 F4 35 -1.556
11 F4 36 -2.045
11 F4 37 -1.556
11 F4 38 -1.068
11 F4 39 -1.556
11 F4 40 -1.556
11 F4 41 -2.533
11 F4 42 -3.021
11 F4 43 -2.533
11 F4 44 -2.533
11 F4 45 -2.045
11 F4 46 -2.045
11 F4 47 -2.045
11 F4 48 -2.533
11 F4 49 -2.533
11 F4 50 -3.021
11 F4 51 -3.998
11 F4 52 -5.463
11 F4 53 -6.439
11 F4 54 -6.927
11 F4 55 -6.927
11 F4 56 -5.951
11 F4 57 -4.974
11 F4 58 -3.998
11 F4 59 -4.486
11 F4 60 -4.974
11 F4 61 -5.951
11 F4 62 -5.951
11 F4 63 -5.463
11 F4 64 -3.998
11 F4 65 -3.021
11 F4 66 -3.021
11 F4 67 -3.021
11 F4 68 -3.021
11 F4 69 -3.021
11 F4 70 -2.533
11 F4 71 -1.556
11 F4 72 -0.092
11 F4 73 1.373
11 F4 74 2.838
11 F4 75 4.303
11 F4 76 5.280
11 F4 77 5.280
11 F4 78 4.791
11 F4 79 4.791
11 F4 80 5.768
11 F4 81 6.744
11 F4 82 7.233
11 F4 83 6.256
11 F4 84 4.791
11 F4 85 3.326
11 F4 86 3.326
11 F4 87 3.815
11 F4 88 5.280
11 F4 89 5.768
11 F4 90 5.768
11 F4 91 5.280
11 F4 92 5.280
11 F4 93 5.768
11 F4 94 7.233
11 F4 95 8.698
11 F4 96 9.674
11 F4 97 9.674
11 F4 98 9.674
11 F4 99 10.162
11 F4 100 10.651
11 F4 101 11.139
11 F4 102 11.139
11 F4 103 10.651
11 F4 104 9.674
11 F4 105 8.209
11 F4 106 7.233
11 F4 107 5.768
11 F4 108 5.280
11 F4 109 5.280
11 F4 110 5.768
11 F4 111 5.768
11 F4 112 5.280
11 F4 113 3.326
11 F4 114 1.373
11 F4 115 -0.580
11 F4 116 -2.045
11 F4 117 -2.533
11 F4 118 -2.533
11 F4 119 -2.533
11 F4 120 -3.021
11 F4 121 -3.021
11 F4 122 -3.510
11 F4 123 -3.510
11 F4 124 -3.998
11 F4 125 -4.974
11 F4 126 -4.974
11 F4 127 -5.463
11 F4 128 -4.974
11 F4 129 -4.974
11 F4 130 -4.486
11 F4 131 -4.974
11 F4 132 -5.463
11 F4 133 -6.439
11 F4 134 -6.439
11 F4 135 -5.951
11 F4 136 -5.951
11 F4 137 -5.463
11 F4 138 -5.951
11 F4 139 -6.439
11 F4 140 -6.439
11 F4 141 -6.439
11 F4 142 -5.951
11 F4 143 -5.463
11 F4 144 -4.486
11 F4 145 -3.510
11 F4 146 -3.021
11 F4 147 -3.021
11 F4 148 -3.998
11 F4 149 -4.974
11 F4 150 -5.463
11 F4 151 -5.463
11 F4 152 -3.998
11 F4 153 -2.533
11 F4 154 -1.556
11 F4 155 -1.556
11 F4 156 -1.556
11 F4 157 -1.556
11 F4 158 -1.068
11 F4 159 0.885
11 F4 160 2.350
11 F4 161 3.326
11 F4 162 2.838
11 F4 163 1.373
11 F4 164 -0.092
11 F4 165 -0.580
11 F4 166 -0.580
11 F4 167 -0.092
11 F4 168 0.397
11 F4 169 0.397
11 F4 170 0.397
11 F4 171 -0.092
11 F4 172 -0.092
11 F4 173 0.397
11 F4 174 0.885
11 F4 175 1.373
11 F4 176 1.862
11 F4 177 2.838
11 F4 178 3.326
11 F4 179 3.815
11 F4 180 4.303
11 F4 181 4.303
11 F4 182 4.791
11 F4 183 5.280
11 F4 184 5.768
11 F4 185 5.768
11 F4 186 4.791
11 F4 187 3.815
11 F4 188 2.350
11 F4 189 1.373
11 F4 190 0.885
11 F4 191 1.373
11 F4 192 1.373
11 F4 193 0.885
11 F4 194 -0.092
11 F4 195 -0.580
11 F4 196 -1.068
11 F4 197 -1.068
11 F4 198 -0.580
11 F4 199 -0.580
11 F4 200 -1.556
11 F4 201 -2.045
11 F4 202 -2.045
11 F4 203 -2.045
11 F4 204 -1.556
11 F4 205 -1.068
11 F4 206 -1.068
11 F4 207 -0.580
11 F4 208 0.397
11 F4 209 2.350
11 F4 210 3.815
11 F4 211 3.815
11 F4 212 2.838
11 F4 213 0.885
11 F4 214 -1.556
11 F4 215 -1.556
11 F4 216 -0.092
11 F4 217 1.373
11 F4 218 2.838
11 F4 219 2.838
11 F4 220 1.862
11 F4 221 0.397
11 F4 222 -0.580
11 F4 223 -1.068
11 F4 224 -0.580
11 F4 225 -0.580
11 F4 226 -0.580
11 F4 227 -1.068
11 F4 228 -1.068
11 F4 229 -1.068
11 F4 230 -0.580
11 F4 231 -0.580
11 F4 232 -0.580
11 F4 233 -1.556
11 F4 234 -2.533
11 F4 235 -3.510
11 F4 236 -4.486
11 F4 237 -4.974
11 F4 238 -4.974
11 F4 239 -4.486
11 F4 240 -3.998
11 F4 241 -3.510
11 F4 242 -3.021
11 F4 243 -3.021
11 F4 244 -2.533
11 F4 245 -2.045
11 F4 246 -1.556
11 F4 247 -1.556
11 F4 248 -2.045
11 F4 249 -3.021
11 F4 250 -3.998
11 F4 251 -3.998
11 F4 252 -3.021
11 F4 253 -1.556
11 F4 254 -0.580
11 F4 255 -1.556
# F3 chan 8
11 F3 0 -1.373
11 F3 1 -2.350
11 F3 2 -1.862
11 F3 3 -0.885
11 F3 4 -0.885
11 F3 5 -0.885
11 F3 6 -1.373
11 F3 7 -1.862
11 F3 8 -2.350
11 F3 9 -2.838
11 F3 10 -3.326
11 F3 11 -3.815
11 F3 12 -4.303
11 F3 13 -5.280
11 F3 14 -5.768
11 F3 15 -7.233
11 F3 16 -9.186
11 F3 17 -10.651
11 F3 18 -10.651
11 F3 19 -8.698
11 F3 20 -5.768
11 F3 21 -3.815
11 F3 22 -3.326
11 F3 23 -4.303
11 F3 24 -5.280
11 F3 25 -4.791
11 F3 26 -3.815
11 F3 27 -3.326
11 F3 28 -4.303
11 F3 29 -6.256
11 F3 30 -8.209
11 F3 31 -7.721
11 F3 32 -5.768
11 F3 33 -3.326
11 F3 34 -2.350
11 F3 35 -2.350
11 F3 36 -3.815
11 F3 37 -4.791
11 F3 38 -4.791
11 F3 39 -4.303
11 F3 40 -4.303
11 F3 41 -4.791
11 F3 42 -4.791
11 F3 43 -4.303
11 F3 44 -3.326
11 F3 45 -1.373
11 F3 46 0.580
11 F3 47 1.556
11 F3 48 1.556
11 F3 49 1.068
11 F3 50 -0.885
11 F3 51 -3.326
11 F3 52 -5.280
11 F3 53 -5.280
11 F3 54 -3.815
11 F3 55 -1.862
11 F3 56 -0.397
11 F3 57 -0.885
11 F3 58 -2.838
11 F3 59 -4.791
11 F3 60 -5.768
11 F3 61 -5.768
11 F3 62 -5.280
11 F3 63 -5.280
11 F3 64 -6.744
11 F3 65 -8.698
11 F3 66 -8.698
11 F3 67 -8.209
11 F3 68 -5.768
11 F3 69 -4.791
11 F3 70 -4.791
11 F3 71 -5.280
11 F3 72 -5.280
11 F3 73 -3.815
11 F3 74 -1.373
11 F3 75 1.068
11 F3 76 1.556
11 F3 77 0.092
11 F3 78 -1.373
11 F3 79 -2.350
11 F3 80 -1.862
11 F3 81 -0.397
11 F3 82 0.092
11 F3 83 -0.397
11 F3 84 -1.373
11 F3 85 -1.373
11 F3 86 -0.397
11 F3 87 1.556
11 F3 88 3.021
11 F3 89 3.510
11 F3 90 3.021
11 F3 91 2.045
11 F3 92 2.045
11 F3 93 2.045
11 F3 94 3.510
11 F3 95 4.974
11 F3 96 5.951
11 F3 97 6.927
11 F3 98 6.927
11 F3 99 5.951
11 F3 100 5.463
11 F3 101 4.974
11 F3 102 4.974
11 F3 103 5.951
11 F3 104 6.927
11 F3 105 6.439
11 F3 106 4.486
11 F3 107 2.533
11 F3 108 1.068
11 F3 109 1.068
11 F3 110 2.045
11 F3 111 3.021
11 F3 112 2.045
11 F3 113 0.092
11 F3 114 -2.350
11 F3 115 -3.815
11 F3 116 -3.815
11 F3 117 -3.326
11 F3 118 -2.838
11 F3 119 -3.815
11 F3 120 -4.303
11 F3 121 -4.791
11 F3 122 -4.791
11 F3 123 -4.303
11 F3 124 -3.815
11 F3 125 -4.303
11 F3 126 -4.791
11 F3 127 -5.768
11 F3 128 -6.256
11 F3 129 -7.721
11 F3 130 -8.209
11 F3 131 -9.674
11 F3 132 -10.162
11 F3 133 -11.139
11 F3 134 -11.627
11 F3 135 -12.115
11 F3 136 -12.604
11 F3 137 -13.092
11 F3 138 -13.092
11 F3 139 -13.092
11 F3 140 -12.604
11 F3 141 -12.115
11 F3 142 -11.627
11 F3 143 -10.651
11 F3 144 -9.674
11 F3 145 -8.698
11 F3 146 -7.721
11 F3 147 -7.721
11 F3 148 -7.721
11 F3 149 -7.721
11 F3 150 -7.721
11 F3 151 -6.744
11 F3 152 -6.256
11 F3 153 -6.256
11 F3 154 -6.744
11 F3 155 -7.233
11 F3 156 -7.721
11 F3 157 -7.233
11 F3 158 -6.256
11 F3 159 -5.280
11 F3 160 -4.303
11 F3 161 -4.303
11 F3 162 -3.815
11 F3 163 -2.838
11 F3 164 -1.862
11 F3 165 -1.373
11 F3 166 -1.373
11 F3 167 -2.838
11 F3 168 -3.815
11 F3 169 -4.303
11 F3 170 -3.326
11 F3 171 -0.885
11 F3 172 1.068
11 F3 173 2.533
11 F3 174 2.533
11 F3 175 2.045
11 F3 176 1.068
11 F3 177 0.580
11 F3 178 0.092
11 F3 179 -0.397
11 F3 180 -0.397
11 F3 181 0.092
11 F3 182 0.092
11 F3 183 0.092
11 F3 184 -0.397
11 F3 185 -0.885
11 F3 186 -1.373
11 F3 187 -0.885
11 F3 188 -0.397
11 F3 189 -0.397
11 F3 190 -1.373
11 F3 191 -2.838
11 F3 192 -3.326
11 F3 193 -3.326
11 F3 194 -2.350
11 F3 195 -1.373
11 F3 196 -1.373
11 F3 197 -2.838
11 F3 198 -4.303
11 F3 199 -5.768
11 F3 200 -5.768
11 F3 201 -5.768
11 F3 202 -5.768
11 F3 203 -6.256
11 F3 204 -6.744
11 F3 205 -7.233
11 F3 206 -6.744
11 F3 207 -6.256
11 F3 208 -5.768
11 F3 209 -5.768
11 F3 210 -5.768
11 F3 211 -5.768
11 F3 212 -6.256
11 F3 213 -6.744
11 F3 214 -7.721
11 F3 215 -8.698
11 F3 216 -9.674
11 F3 217 -9.674
11 F3 218 -8.698
11 F3 219 -7.721
11 F3 220 -6.256
11 F3 221 -5.768
11 F3 222 -5.280
11 F3 223 -4.791
11 F3 224 -3.815
11 F3 225 -3.326
11 F3 226 -3.815
11 F3 227 -4.791
11 F3 228 -6.256
11 F3 229 -7.233
11 F3 230 -6.256
11 F3 231 -4.303
11 F3 232 -3.326
11 F3 233 -3.326
11 F3 234 -4.791
11 F3 235 -6.256
11 F3 236 -7.721
11 F3 237 -8.209
11 F3 238 -7.233
11 F3 239 -6.256
11 F3 240 -5.768
11 F3 241 -6.256
11 F3 242 -7.721
11 F3 243 -9.186
11 F3 244 -9.674
11 F3 245 -9.674
11 F3 246 -8.698
11 F3 247 -7.233
11 F3 248 -6.256
11 F3 249 -6.744
11 F3 250 -7.721
11 F3 251 -9.186
11 F3 252 -10.162
11 F3 253 -9.674
11 F3 254 -8.698
11 F3 255 -8.209
# FC6 chan 9
11 FC6 0 5.259
11 FC6 1 6.236
11 FC6 2 6.724
11 FC6 3 6.724
11 FC6 4 4.771
11 FC6 5 1.841
11 FC6 6 -0.600
11 FC6 7 -2.065
11 FC6 8 -2.553
11 FC6 9 -3.042
11 FC6 10 -4.995
11 FC6 11 -6.948
11 FC6 12 -7.436
11 FC6 13 -4.995
11 FC6 14 -1.088
11 FC6 15 2.330
11 FC6 16 2.818
11 FC6 17 0.376
11 FC6 18 -3.530
11 FC6 19 -5.971
11 FC6 20 -7.436
11 FC6 21 -6.948
11 FC6 22 -5.483
11 FC6 23 -3.530
11 FC6 24 -1.577
11 FC6 25 -1.577
11 FC6 26 -2.553
11 FC6 27 -4.018
11 FC6 28 -4.506
11 FC6 29 -2.553
11 FC6 30 0.376
11 FC6 31 1.841
11 FC6 32 0.376
11 FC6 33 -2.065
11 FC6 34 -3.530
11 FC6 35 -2.065
11 FC6 36 1.841
11 FC6 37 5.259
11 FC6 38 5.259
11 FC6 39 1.841
11 FC6 40 -2.553
11 FC6 41 -4.995
11 FC6 42 -4.506
11 FC6 43 -1.577
11 FC6 44 0.865
11 FC6 45 1.841
11 FC6 46 0.376
11 FC6 47 -0.600
11 FC6 48 -1.577
11 FC6 49 -1.088
11 FC6 50 -1.088
11 FC6 51 -2.065
11 FC6 52 -3.530
11 FC6 53 -4.995
11 FC6 54 -4.995
11 FC6 55 -4.018
11 FC6 56 -2.553
11 FC6 57 -2.553
11 FC6 58 -3.530
11 FC6 59 -4.995
11 FC6 60 -5.483
11 FC6 61 -3.530
11 FC6 62 -0.600
11 FC6 63 1.841
11 FC6 64 3.306
11 FC6 65 2.818
11 FC6 66 1.353
11 FC6 67 0.376
11 FC6 68 0.865
11 FC6 69 2.330
11 FC6 70 2.818
11 FC6 71 2.330
11 FC6 72 0.865
11 FC6 73 0.376
11 FC6 74 1.353
11 FC6 75 3.794
11 FC6 76 5.747
11 FC6 77 5.747
11 FC6 78 3.794
11 FC6 79 2.818
11 FC6 80 2.818
11 FC6 81 3.794
11 FC6 82 4.771
11 FC6 83 3.794
11 FC6 84 1.841
11 FC6 85 -0.600
11 FC6 86 -2.065
11 FC6 87 -1.577
11 FC6 88 -0.112
11 FC6 89 2.330
11 FC6 90 4.283
11 FC6 91 5.259
11 FC6 92 5.747
11 FC6 93 6.724
11 FC6 94 7.212
11 FC6 95 7.212
11 FC6 96 6.724
11 FC6 97 5.747
11 FC6 98 6.724
11 FC6 99 9.165
11 FC6 100 13.560
11 FC6 101 16.490
11 FC6 102 16.978
11 FC6 103 15.025
11 FC6 104 11.607
11 FC6 105 9.654
11 FC6 106 9.165
11 FC6 107 9.654
11 FC6 108 10.630
11 FC6 109 10.630
11 FC6 110 11.119
11 FC6 111 11.607
11 FC6 112 12.095
11 FC6 113 11.607
11 FC6 114 9.165
11 FC6 115 4.771
11 FC6 116 0.376
11 FC6 117 -1.088
11 FC6 118 0.865
11 FC6 119 4.283
11 FC6 120 6.236
11 FC6 121 4.771
11 FC6 122 1.353
11 FC6 123 -2.065
11 FC6 124 -3.530
11 FC6 125 -4.018
11 FC6 126 -4.506
11 FC6 127 -5.971
11 FC6 128 -6.460
11 FC6 129 -5.971
11 FC6 130 -4.506
11 FC6 131 -3.042
11 FC6 132 -4.018
11 FC6 133 -6.948
11 FC6 134 -10.366
11 FC6 135 -12.807
11 FC6 136 -12.807
11 FC6 137 -11.342
11 FC6 138 -8.901
11 FC6 139 -6.948
11 FC6 140 -5.483
11 FC6 141 -4.018
11 FC6 142 -3.530
11 FC6 143 -3.530
11 FC6 144 -4.018
11 FC6 145 -4.995
11 FC6 146 -5.971
11 FC6 147 -5.971
11 FC6 148 -4.995
11 FC6 149 -3.530
11 FC6 150 -3.042
11 FC6 151 -3.042
11 FC6 152 -2.553
11 FC6 153 -1.577
11 FC6 154 0.376
11 FC6 155 2.818
11 FC6 156 3.306
11 FC6 157 2.330
11 FC6 158 0.376
11 FC6 159 0.376
11 FC6 160 2.330
11 FC6 161 6.724
11 FC6 162 9.165
11 FC6 163 8.189
11 FC6 164 4.771
11 FC6 165 0.865
11 FC6 166 -0.600
11 FC6 167 -0.112
11 FC6 168 0.865
11 FC6 169 1.353
11 FC6 170 0.376
11 FC6 171 -1.088
11 FC6 172 -1.088
11 FC6 173 -0.112
11 FC6 174 1.353
11 FC6 175 2.330
11 FC6 176 2.818
11 FC6 177 3.794
11 FC6 178 5.259
11 FC6 179 6.236
11 FC6 180 6.236
11 FC6 181 4.771
11 FC6 182 2.818
11 FC6 183 2.330
11 FC6 184 2.330
11 FC6 185 3.794
11 FC6 186 4.283
11 FC6 187 3.794
11 FC6 188 2.330
11 FC6 189 0.376
11 FC6 190 -0.600
11 FC6 191 -1.577
11 FC6 192 -1.577
11 FC6 193 -0.112
11 FC6 194 1.841
11 FC6 195 2.818
11 FC6 196 3.306
11 FC6 197 1.841
11 FC6 198 -0.112
11 FC6 199 -2.065
11 FC6 200 -3.042
11 FC6 201 -3.530
11 FC6 202 -4.018
11 FC6 203 -4.995
11 FC6 204 -5.971
11 FC6 205 -6.460
11 FC6 206 -5.971
11 FC6 207 -4.506
11 FC6 208 -2.065
11 FC6 209 0.865
11 FC6 210 3.306
11 FC6 211 4.283
11 FC6 212 2.330
11 FC6 213 -1.577
11 FC6 214 -6.460
11 FC6 215 -8.413
11 FC6 216 -5.971
11 FC6 217 -0.112
11 FC6 218 5.747
11 FC6 219 9.165
11 FC6 220 7.212
11 FC6 221 1.353
11 FC6 222 -4.506
11 FC6 223 -8.413
11 FC6 224 -8.901
11 FC6 225 -6.460
11 FC6 226 -3.042
11 FC6 227 -0.600
11 FC6 228 0.376
11 FC6 229 -1.088
11 FC6 230 -2.553
11 FC6 231 -3.042
11 FC6 232 -3.042
11 FC6 233 -2.553
11 FC6 234 -3.530
11 FC6 235 -4.995
11 FC6 236 -6.948
11 FC6 237 -9.389
11 FC6 238 -9.878
11 FC6 239 -8.901
11 FC6 240 -7.924
11 FC6 241 -7.436
11 FC6 242 -5.971
11 FC6 243 -4.506
11 FC6 244 -2.065
11 FC6 245 -0.600
11 FC6 246 -1.577
11 FC6 247 -4.995
11 FC6 248 -8.413
11 FC6 249 -9.389
11 FC6 250 -7.436
11 FC6 251 -2.553
11 FC6 252 1.353
11 FC6 253 2.818
11 FC6 254 1.841
11 FC6 255 -1.088
# FC5 chan 10
11 FC5 0 -0.132
11 FC5 1 -3.550
11 FC5 2 -4.527
11 FC5 3 -2.574
11 FC5 4 0.356
11 FC5 5 2.309
11 FC5 6 1.333
11 FC5 7 -1.109
11 FC5 8 -4.038
11 FC5 9 -5.015
11 FC5 10 -4.527
11 FC5 11 -2.574
11 FC5 12 -0.621
11 FC5 13 0.356
11 FC5 14 -0.621
11 FC5 15 -4.038
11 FC5 16 -8.433
11 FC5 17 -12.339
11 FC5 18 -13.804
11 FC5 19 -10.874
11 FC5 20 -5.992
11 FC5 21 -1.597
11 FC5 22 -1.597
11 FC5 23 -5.015
11 FC5 24 -10.386
11 FC5 25 -13.316
11 FC5 26 -12.339
11 FC5 27 -8.921
11 FC5 28 -5.992
11 FC5 29 -6.480
11 FC5 30 -9.410
11 FC5 31 -11.851
11 FC5 32 -11.851
11 FC5 33 -8.433
11 FC5 34 -4.527
11 FC5 35 -3.062
11 FC5 36 -4.527
11 FC5 37 -6.968
11 FC5 38 -8.433
11 FC5 39 -7.456
11 FC5 40 -5.015
11 FC5 41 -3.550
11 FC5 42 -3.062
11 FC5 43 -4.038
11 FC5 44 -4.527
11 FC5 45 -4.038
11 FC5 46 -2.574
11 FC5 47 -1.109
11 FC5 48 -0.621
11 FC5 49 -1.597
11 FC5 50 -3.062
11 FC5 51 -3.550
11 FC5 52 -2.574
11 FC5 53 -0.621
11 FC5 54 2.309
11 FC5 55 4.262
11 FC5 56 4.262
11 FC5 57 3.774
11 FC5 58 1.821
11 FC5 59 0.356
11 FC5 60 0.356
11 FC5 61 1.333
11 FC5 62 1.333
11 FC5 63 -0.132
11 FC5 64 -2.574
11 FC5 65 -5.015
11 FC5 66 -5.992
11 FC5 67 -4.527
11 FC5 68 -2.574
11 FC5 69 -1.597
11 FC5 70 -2.085
11 FC5 71 -3.062
11 FC5 72 -3.550
11 FC5 73 -2.574
11 FC5 74 -1.109
11 FC5 75 -0.621
11 FC5 76 -1.597
11 FC5 77 -4.038
11 FC5 78 -5.503
11 FC5 79 -5.015
11 FC5 80 -3.550
11 FC5 81 -2.574
11 FC5 82 -3.550
11 FC5 83 -5.015
11 FC5 84 -5.503
11 FC5 85 -3.062
11 FC5 86 -0.132
11 FC5 87 2.309
11 FC5 88 2.309
11 FC5 89 -0.132
11 FC5 90 -2.574
11 FC5 91 -3.062
11 FC5 92 -1.109
11 FC5 93 0.844
11 FC5 94 2.797
11 FC5 95 3.774
11 FC5 96 3.774
11 FC5 97 4.262
11 FC5 98 4.262
11 FC5 99 4.262
11 FC5 100 2.797
11 FC5 101 1.333
11 FC5 102 0.844
11 FC5 103 2.309
11 FC5 104 3.774
11 FC5 105 4.751
11 FC5 106 4.751
11 FC5 107 3.774
11 FC5 108 3.774
11 FC5 109 3.286
11 FC5 110 3.774
11 FC5 111 2.797
11 FC5 112 1.333
11 FC5 113 -1.109
11 FC5 114 -3.062
11 FC5 115 -5.015
11 FC5 116 -5.503
11 FC5 117 -5.015
11 FC5 118 -4.038
11 FC5 119 -2.574
11 FC5 120 -0.621
11 FC5 121 0.844
11 FC5 122 2.309
11 FC5 123 3.286
11 FC5 124 3.286
11 FC5 125 1.821
11 FC5 126 -0.621
11 FC5 127 -4.038
11 FC5 128 -7.456
11 FC5 129 -9.410
11 FC5 130 -9.898
11 FC5 131 -10.386
11 FC5 132 -10.386
11 FC5 133 -11.851
11 FC5 134 -13.804
11 FC5 135 -14.781
11 FC5 136 -14.781
11 FC5 137 -13.804
11 FC5 138 -13.316
11 FC5 139 -14.292
11 FC5 140 -15.757
11 FC5 141 -16.246
11 FC5 142 -15.269
11 FC5 143 -12.828
11 FC5 144 -9.898
11 FC5 145 -9.410
11 FC5 146 -10.386
11 FC5 147 -12.828
11 FC5 148 -14.292
11 FC5 149 -13.316
11 FC5 150 -10.386
11 FC5 151 -7.945
11 FC5 152 -7.456
11 FC5 153 -8.433
11 FC5 154 -9.898
11 FC5 155 -9.410
11 FC5 156 -7.456
11 FC5 157 -4.527
11 FC5 158 -2.574
11 FC5 159 -2.574
11 FC5 160 -4.038
11 FC5 161 -5.503
11 FC5 162 -5.992
11 FC5 163 -5.015
11 FC5 164 -3.550
11 FC5 165 -2.574
11 FC5 166 -3.550
11 FC5 167 -5.015
11 FC5 168 -6.480
11 FC5 169 -6.480
11 FC5 170 -5.992
11 FC5 171 -4.527
11 FC5 172 -4.527
11 FC5 173 -4.527
11 FC5 174 -4.038
11 FC5 175 -3.550
11 FC5 176 -2.574
11 FC5 177 -2.574
11 FC5 178 -3.550
11 FC5 179 -4.527
11 FC5 180 -5.015
11 FC5 181 -4.527
11 FC5 182 -2.574
11 FC5 183 -2.085
11 FC5 184 -2.574
11 FC5 185 -4.038
11 FC5 186 -4.527
11 FC5 187 -3.550
11 FC5 188 -2.085
11 FC5 189 -2.085
11 FC5 190 -3.062
11 FC5 191 -5.992
11 FC5 192 -7.945
11 FC5 193 -8.433
11 FC5 194 -6.968
11 FC5 195 -5.992
11 FC5 196 -6.480
11 FC5 197 -7.945
11 FC5 198 -8.433
11 FC5 199 -7.945
11 FC5 200 -6.480
11 FC5 201 -5.503
11 FC5 202 -6.968
11 FC5 203 -10.386
11 FC5 204 -12.339
11 FC5 205 -12.828
11 FC5 206 -10.874
11 FC5 207 -9.898
11 FC5 208 -10.386
11 FC5 209 -12.828
11 FC5 210 -15.269
11 FC5 211 -15.269
11 FC5 212 -13.316
11 FC5 213 -11.363
11 FC5 214 -11.363
11 FC5 215 -13.316
11 FC5 216 -16.734
11 FC5 217 -18.687
11 FC5 218 -18.687
11 FC5 219 -16.246
11 FC5 220 -13.316
11 FC5 221 -11.363
11 FC5 222 -11.363
11 FC5 223 -12.339
11 FC5 224 -13.804
11 FC5 225 -14.292
11 FC5 226 -14.292
11 FC5 227 -13.804
11 FC5 228 -13.316
11 FC5 229 -13.316
11 FC5 230 -12.339
11 FC5 231 -10.874
11 FC5 232 -9.410
11 FC5 233 -8.921
11 FC5 234 -9.898
11 FC5 235 -11.851
11 FC5 236 -12.828
11 FC5 237 -12.828
11 FC5 238 -11.363
11 FC5 239 -9.410
11 FC5 240 -9.410
11 FC5 241 -10.386
11 FC5 242 -12.828
11 FC5 243 -14.781
11 FC5 244 -14.292
11 FC5 245 -12.339
11 FC5 246 -9.898
11 FC5 247 -8.433
11 FC5 248 -8.433
11 FC5 249 -10.386
11 FC5 250 -12.828
11 FC5 251 -14.781
11 FC5 252 -15.757
11 FC5 253 -15.757
11 FC5 254 -15.269
11 FC5 255 -15.269
# FC2 chan 11
11 FC2 0 1.180
11 FC2 1 1.180
11 FC2 2 1.180
11 FC2 3 1.180
11 FC2 4 1.180
11 FC2 5 0.692
11 FC2 6 -0.285
11 FC2 7 -0.773
11 FC2 8 -1.261
11 FC2 9 -1.750
11 FC2 10 -1.750
11 FC2 11 -2.238
11 FC2 12 -2.726
11 FC2 13 -2.726
11 FC2 14 -2.238
11 FC2 15 -1.750
11 FC2 16 -0.773
11 FC2 17 -0.773
11 FC2 18 -0.285
11 FC2 19 -0.285
11 FC2 20 -0.285
11 FC2 21 -0.285
11 FC2 22 -0.285
11 FC2 23 0.692
11 FC2 24 1.180
11 FC2 25 1.668
11 FC2 26 1.668
11 FC2 27 1.180
11 FC2 28 1.180
11 FC2 29 1.668
11 FC2 30 2.645
11 FC2 31 3.133
11 FC2 32 3.133
11 FC2 33 2.645
11 FC2 34 1.180
11 FC2 35 0.692
11 FC2 36 0.692
11 FC2 37 1.668
11 FC2 38 1.668
11 FC2 39 1.668
11 FC2 40 1.180
11 FC2 41 0.692
11 FC2 42 0.692
11 FC2 43 0.692
11 FC2 44 0.692
11 FC2 45 0.692
11 FC2 46 0.692
11 FC2 47 0.692
11 FC2 48 1.180
11 FC2 49 0.692
11 FC2 50 0.203
11 FC2 51 -0.773
11 FC2 52 -1.261
11 FC2 53 -2.238
11 FC2 54 -2.726
11 FC2 55 -3.215
11 FC2 56 -2.726
11 FC2 57 -1.750
11 FC2 58 -1.750
11 FC2 59 -1.750
11 FC2 60 -1.750
11 FC2 61 -2.238
11 FC2 62 -1.750
11 FC2 63 -1.261
11 FC2 64 -1.261
11 FC2 65 -0.773
11 FC2 66 -0.773
11 FC2 67 -0.773
11 FC2 68 -0.773
11 FC2 69 -0.773
11 FC2 70 -0.773
11 FC2 71 -0.773
11 FC2 72 -0.285
11 FC2 73 0.203
11 FC2 74 1.180
11 FC2 75 2.157
11 FC2 76 3.133
11 FC2 77 3.133
11 FC2 78 3.133
11 FC2 79 2.645
11 FC2 80 3.133
11 FC2 81 3.621
11 FC2 82 4.110
11 FC2 83 4.110
11 FC2 84 3.133
11 FC2 85 2.157
11 FC2 86 1.668
11 FC2 87 1.180
11 FC2 88 1.668
11 FC2 89 1.668
11 FC2 90 1.668
11 FC2 91 1.668
11 FC2 92 1.668
11 FC2 93 2.157
11 FC2 94 3.133
11 FC2 95 4.110
11 FC2 96 4.598
11 FC2 97 4.598
11 FC2 98 4.598
11 FC2 99 4.598
11 FC2 100 4.598
11 FC2 101 5.086
11 FC2 102 5.086
11 FC2 103 4.598
11 FC2 104 4.110
11 FC2 105 3.621
11 FC2 106 3.133
11 FC2 107 2.645
11 FC2 108 3.133
11 FC2 109 3.133
11 FC2 110 3.621
11 FC2 111 3.621
11 FC2 112 3.133
11 FC2 113 2.157
11 FC2 114 1.180
11 FC2 115 0.203
11 FC2 116 0.203
11 FC2 117 0.203
11 FC2 118 0.203
11 FC2 119 0.692
11 FC2 120 0.203
11 FC2 121 0.203
11 FC2 122 -0.285
11 FC2 123 -0.285
11 FC2 124 -0.773
11 FC2 125 -0.773
11 FC2 126 -1.261
11 FC2 127 -1.261
11 FC2 128 -0.773
11 FC2 129 0.203
11 FC2 130 0.692
11 FC2 131 0.692
11 FC2 132 0.692
11 FC2 133 0.203
11 FC2 134 -0.285
11 FC2 135 -0.773
11 FC2 136 -1.261
11 FC2 137 -1.750
11 FC2 138 -1.750
11 FC2 139 -1.750
11 FC2 140 -1.750
11 FC2 141 -1.261
11 FC2 142 -0.773
11 FC2 143 -0.773
11 FC2 144 -0.773
11 FC2 145 -0.285
11 FC2 146 -0.285
11 FC2 147 -0.773
11 FC2 148 -1.261
11 FC2 149 -1.750
11 FC2 150 -2.238
11 FC2 151 -2.726
11 FC2 152 -1.750
11 FC2 153 -0.773
11 FC2 154 -0.285
11 FC2 155 -0.285
11 FC2 156 -0.285
11 FC2 157 -0.773
11 FC2 158 -1.261
11 FC2 159 -1.261
11 FC2 160 -0.285
11 FC2 161 0.203
11 FC2 162 0.692
11 FC2 163 0.692
11 FC2 164 -0.285
11 FC2 165 -0.773
11 FC2 166 -1.261
11 FC2 167 -0.773
11 FC2 168 -0.285
11 FC2 169 -0.285
11 FC2 170 -0.285
11 FC2 171 -0.773
11 FC2 172 -0.773
11 FC2 173 -0.285
11 FC2 174 0.203
11 FC2 175 1.180
11 FC2 176 1.668
11 FC2 177 1.668
11 FC2 178 2.157
11 FC2 179 2.157
11 FC2 180 2.645
11 FC2 181 2.645
11 FC2 182 2.645
11 FC2 183 2.645
11 FC2 184 2.645
11 FC2 185 2.645
11 FC2 186 2.645
11 FC2 187 1.668
11 FC2 188 1.180
11 FC2 189 0.692
11 FC2 190 0.203
11 FC2 191 0.203
11 FC2 192 0.692
11 FC2 193 1.180
11 FC2 194 1.180
11 FC2 195 0.692
11 FC2 196 0.203
11 FC2 197 -0.285
11 FC2 198 -0.773
11 FC2 199 -0.285
11 FC2 200 -0.285
11 FC2 201 -0.285
11 FC2 202 -0.285
11 FC2 203 -0.285
11 FC2 204 -0.773
11 FC2 205 -0.285
11 FC2 206 0.203
11 FC2 207 0.692
11 FC2 208 1.180
11 FC2 209 2.157
11 FC2 210 3.133
11 FC2 211 3.621
11 FC2 212 3.621
11 FC2 213 2.645
11 FC2 214 1.180
11 FC2 215 0.203
11 FC2 216 -0.285
11 FC2 217 0.203
11 FC2 218 1.180
11 FC2 219 2.157
11 FC2 220 2.645
11 FC2 221 1.668
11 FC2 222 0.203
11 FC2 223 0.203
11 FC2 224 0.203
11 FC2 225 0.692
11 FC2 226 0.692
11 FC2 227 0.692
11 FC2 228 0.692
11 FC2 229 0.203
11 FC2 230 0.692
11 FC2 231 1.180
11 FC2 232 1.668
11 FC2 233 1.180
11 FC2 234 -0.285
11 FC2 235 -1.750
11 FC2 236 -2.238
11 FC2 237 -2.726
11 FC2 238 -2.238
11 FC2 239 -1.750
11 FC2 240 -1.750
11 FC2 241 -1.750
11 FC2 242 -2.238
11 FC2 243 -1.750
11 FC2 244 -1.261
11 FC2 245 -0.773
11 FC2 246 -0.773
11 FC2 247 -0.773
11 FC2 248 -0.773
11 FC2 249 -1.261
11 FC2 250 -0.773
11 FC2 251 -0.285
11 FC2 252 0.692
11 FC2 253 0.692
11 FC2 254 0.692
11 FC2 255 0.203
# FC1 chan 12
11 FC1 0 0.763
11 FC1 1 0.275
11 FC1 2 0.275
11 FC1 3 0.763
11 FC1 4 1.251
11 FC1 5 1.740
11 FC1 6 1.740
11 FC1 7 1.740
11 FC1 8 1.251
11 FC1 9 0.763
11 FC1 10 0.763
11 FC1 11 1.251
11 FC1 12 1.251
11 FC1 13 0.763
11 FC1 14 0.275
11 FC1 15 -0.214
11 FC1 16 -0.702
11 FC1 17 -1.190
11 FC1 18 -1.190
11 FC1 19 -0.214
11 FC1 20 0.763
11 FC1 21 1.740
11 FC1 22 2.228
11 FC1 23 2.716
11 FC1 24 3.204
11 FC1 25 3.204
11 FC1 26 2.716
11 FC1 27 2.228
11 FC1 28 1.740
11 FC1 29 1.251
11 FC1 30 0.275
11 FC1 31 -0.214
11 FC1 32 -0.702
11 FC1 33 -0.214
11 FC1 34 0.763
11 FC1 35 1.251
11 FC1 36 1.740
11 FC1 37 1.740
11 FC1 38 1.251
11 FC1 39 1.251
11 FC1 40 1.251
11 FC1 41 1.251
11 FC1 42 0.763
11 FC1 43 0.763
11 FC1 44 0.275
11 FC1 45 0.763
11 FC1 46 1.740
11 FC1 47 2.228
11 FC1 48 2.716
11 FC1 49 2.716
11 FC1 50 2.228
11 FC1 51 1.251
11 FC1 52 0.275
11 FC1 53 -0.214
11 FC1 54 -0.214
11 FC1 55 0.275
11 FC1 56 0.763
11 FC1 57 0.763
11 FC1 58 -0.214
11 FC1 59 -1.190
11 FC1 60 -1.678
11 FC1 61 -2.167
11 FC1 62 -2.167
11 FC1 63 -1.678
11 FC1 64 -2.167
11 FC1 65 -2.655
11 FC1 66 -3.632
11 FC1 67 -4.120
11 FC1 68 -4.120
11 FC1 69 -3.632
11 FC1 70 -3.143
11 FC1 71 -2.167
11 FC1 72 -1.190
11 FC1 73 -0.214
11 FC1 74 0.275
11 FC1 75 0.763
11 FC1 76 0.275
11 FC1 77 0.275
11 FC1 78 -0.214
11 FC1 79 0.275
11 FC1 80 0.275
11 FC1 81 0.763
11 FC1 82 0.763
11 FC1 83 0.763
11 FC1 84 -0.214
11 FC1 85 0.275
11 FC1 86 0.763
11 FC1 87 1.251
11 FC1 88 1.740
11 FC1 89 1.251
11 FC1 90 1.251
11 FC1 91 0.763
11 FC1 92 0.763
11 FC1 93 0.763
11 FC1 94 1.251
11 FC1 95 1.740
11 FC1 96 2.228
11 FC1 97 1.740
11 FC1 98 1.251
11 FC1 99 0.275
11 FC1 100 -0.702
11 FC1 101 -1.678
11 FC1 102 -1.190
11 FC1 103 -0.214
11 FC1 104 -0.214
11 FC1 105 -0.214
11 FC1 106 -0.702
11 FC1 107 -1.678
11 FC1 108 -2.655
11 FC1 109 -2.655
11 FC1 110 -2.167
11 FC1 111 -2.655
11 FC1 112 -3.143
11 FC1 113 -4.120
11 FC1 114 -4.608
11 FC1 115 -4.608
11 FC1 116 -4.120
11 FC1 117 -4.608
11 FC1 118 -4.608
11 FC1 119 -5.096
11 FC1 120 -5.585
11 FC1 121 -4.608
11 FC1 122 -3.632
11 FC1 123 -3.143
11 FC1 124 -3.143
11 FC1 125 -3.632
11 FC1 126 -4.120
11 FC1 127 -4.120
11 FC1 128 -4.120
11 FC1 129 -4.608
11 FC1 130 -5.585
11 FC1 131 -6.073
11 FC1 132 -6.561
11 FC1 133 -7.050
11 FC1 134 -7.050
11 FC1 135 -7.050
11 FC1 136 -7.538
11 FC1 137 -8.514
11 FC1 138 -9.491
11 FC1 139 -9.979
11 FC1 140 -9.979
11 FC1 141 -9.491
11 FC1 142 -8.514
11 FC1 143 -7.050
11 FC1 144 -6.073
11 FC1 145 -5.585
11 FC1 146 -5.585
11 FC1 147 -6.561
11 FC1 148 -7.050
11 FC1 149 -7.538
11 FC1 150 -7.050
11 FC1 151 -6.561
11 FC1 152 -5.585
11 FC1 153 -6.073
11 FC1 154 -6.561
11 FC1 155 -7.538
11 FC1 156 -8.026
11 FC1 157 -8.026
11 FC1 158 -7.050
11 FC1 159 -6.561
11 FC1 160 -6.561
11 FC1 161 -7.050
11 FC1 162 -8.026
11 FC1 163 -8.026
11 FC1 164 -8.026
11 FC1 165 -7.538
11 FC1 166 -7.050
11 FC1 167 -7.050
11 FC1 168 -7.538
11 FC1 169 -7.050
11 FC1 170 -6.073
11 FC1 171 -5.096
11 FC1 172 -4.120
11 FC1 173 -3.632
11 FC1 174 -3.632
11 FC1 175 -4.120
11 FC1 176 -4.120
11 FC1 177 -4.608
11 FC1 178 -5.096
11 FC1 179 -5.585
11 FC1 180 -5.585
11 FC1 181 -5.585
11 FC1 182 -5.585
11 FC1 183 -5.096
11 FC1 184 -5.096
11 FC1 185 -4.608
11 FC1 186 -4.608
11 FC1 187 -4.120
11 FC1 188 -4.608
11 FC1 189 -5.096
11 FC1 190 -6.073
11 FC1 191 -6.561
11 FC1 192 -7.050
11 FC1 193 -7.050
11 FC1 194 -7.050
11 FC1 195 -7.538
11 FC1 196 -8.514
11 FC1 197 -9.491
11 FC1 198 -9.979
11 FC1 199 -9.491
11 FC1 200 -9.003
11 FC1 201 -8.514
11 FC1 202 -8.514
11 FC1 203 -8.514
11 FC1 204 -8.514
11 FC1 205 -8.026
11 FC1 206 -7.050
11 FC1 207 -6.561
11 FC1 208 -6.561
11 FC1 209 -7.050
11 FC1 210 -7.538
11 FC1 211 -8.026
11 FC1 212 -8.026
11 FC1 213 -8.026
11 FC1 214 -8.514
11 FC1 215 -9.491
11 FC1 216 -10.468
11 FC1 217 -11.444
11 FC1 218 -10.956
11 FC1 219 -10.956
11 FC1 220 -9.979
11 FC1 221 -9.979
11 FC1 222 -9.979
11 FC1 223 -10.468
11 FC1 224 -10.468
11 FC1 225 -10.956
11 FC1 226 -11.444
11 FC1 227 -11.932
11 FC1 228 -11.932
11 FC1 229 -11.932
11 FC1 230 -11.444
11 FC1 231 -11.444
11 FC1 232 -11.444
11 FC1 233 -11.932
11 FC1 234 -12.421
11 FC1 235 -12.909
11 FC1 236 -13.397
11 FC1 237 -13.885
11 FC1 238 -13.397
11 FC1 239 -13.397
11 FC1 240 -12.909
11 FC1 241 -12.909
11 FC1 242 -13.397
11 FC1 243 -13.397
11 FC1 244 -13.397
11 FC1 245 -12.909
11 FC1 246 -11.932
11 FC1 247 -11.444
11 FC1 248 -10.956
11 FC1 249 -11.444
11 FC1 250 -12.421
11 FC1 251 -13.885
11 FC1 252 -15.350
11 FC1 253 -15.350
11 FC1 254 -15.350
11 FC1 255 -15.350
# T8 chan 13
11 T8 0 8.026
11 T8 1 15.350
11 T8 2 17.303
11 T8 3 10.956
11 T8 4 0.214
11 T8 5 -8.087
11 T8 6 -8.575
11 T8 7 -2.716
11 T8 8 3.632
11 T8 9 4.120
11 T8 10 -0.763
11 T8 11 -5.646
11 T8 12 -4.669
11 T8 13 2.167
11 T8 14 9.003
11 T8 15 10.956
11 T8 16 6.561
11 T8 17 -1.251
11 T8 18 -6.134
11 T8 19 -7.599
11 T8 20 -7.599
11 T8 21 -11.017
11 T8 22 -17.853
11 T8 23 -23.712
11 T8 24 -24.200
11 T8 25 -17.365
11 T8 26 -7.111
11 T8 27 -0.275
11 T8 28 -0.763
11 T8 29 -5.157
11 T8 30 -8.087
11 T8 31 -5.646
11 T8 32 0.702
11 T8 33 4.608
11 T8 34 2.655
11 T8 35 -4.669
11 T8 36 -9.552
11 T8 37 -8.087
11 T8 38 -0.275
11 T8 39 7.538
11 T8 40 8.026
11 T8 41 0.214
11 T8 42 -11.017
11 T8 43 -17.853
11 T8 44 -16.876
11 T8 45 -9.064
11 T8 46 -1.740
11 T8 47 -0.275
11 T8 48 -4.181
11 T8 49 -9.552
11 T8 50 -9.552
11 T8 51 -4.181
11 T8 52 4.120
11 T8 53 7.538
11 T8 54 5.585
11 T8 55 -0.763
11 T8 56 -5.646
11 T8 57 -5.157
11 T8 58 -1.251
11 T8 59 2.655
11 T8 60 3.143
11 T8 61 -0.763
11 T8 62 -5.157
11 T8 63 -7.599
11 T8 64 -7.111
11 T8 65 -5.157
11 T8 66 -2.228
11 T8 67 1.190
11 T8 68 4.120
11 T8 69 5.096
11 T8 70 2.655
11 T8 71 -2.228
11 T8 72 -5.646
11 T8 73 -4.669
11 T8 74 -0.275
11 T8 75 3.632
11 T8 76 1.190
11 T8 77 -9.064
11 T8 78 -20.782
11 T8 79 -26.154
11 T8 80 -20.294
11 T8 81 -5.157
11 T8 82 8.514
11 T8 83 13.397
11 T8 84 7.050
11 T8 85 -4.669
11 T8 86 -12.970
11 T8 87 -13.458
11 T8 88 -8.087
11 T8 89 -2.716
11 T8 90 -2.228
11 T8 91 -6.134
11 T8 92 -9.552
11 T8 93 -9.064
11 T8 94 -2.228
11 T8 95 7.050
11 T8 96 15.350
11 T8 97 18.768
11 T8 98 15.839
11 T8 99 9.979
11 T8 100 5.096
11 T8 101 3.632
11 T8 102 7.050
11 T8 103 11.444
11 T8 104 13.885
11 T8 105 11.444
11 T8 106 4.608
11 T8 107 -3.204
11 T8 108 -5.157
11 T8 109 -0.275
11 T8 110 9.979
11 T8 111 19.745
11 T8 112 22.675
11 T8 113 19.257
11 T8 114 11.932
11 T8 115 6.073
11 T8 116 4.608
11 T8 117 6.073
11 T8 118 8.514
11 T8 119 7.050
11 T8 120 2.167
11 T8 121 -3.693
11 T8 122 -7.599
11 T8 123 -9.064
11 T8 124 -8.087
11 T8 125 -7.111
11 T8 126 -6.134
11 T8 127 -6.134
11 T8 128 -5.646
11 T8 129 -5.646
11 T8 130 -7.599
11 T8 131 -11.993
11 T8 132 -16.876
11 T8 133 -18.341
11 T8 134 -15.411
11 T8 135 -10.040
11 T8 136 -6.622
11 T8 137 -8.575
11 T8 138 -14.923
11 T8 139 -19.806
11 T8 140 -19.806
11 T8 141 -13.947
11 T8 142 -8.087
11 T8 143 -6.622
11 T8 144 -10.529
11 T8 145 -14.923
11 T8 146 -13.947
11 T8 147 -6.622
11 T8 148 1.190
11 T8 149 4.120
11 T8 150 -1.251
11 T8 151 -10.040
11 T8 152 -14.923
11 T8 153 -11.993
11 T8 154 -4.669
11 T8 155 0.702
11 T8 156 1.190
11 T8 157 -1.740
11 T8 158 -3.204
11 T8 159 -0.763
11 T8 160 3.143
11 T8 161 2.655
11 T8 162 -3.204
11 T8 163 -10.529
11 T8 164 -11.993
11 T8 165 -4.669
11 T8 166 8.026
11 T8 167 16.815
11 T8 168 14.862
11 T8 169 5.096
11 T8 170 -5.157
11 T8 171 -8.087
11 T8 172 -3.204
11 T8 173 3.632
11 T8 174 5.096
11 T8 175 0.702
11 T8 176 -4.669
11 T8 177 -5.646
11 T8 178 -1.251
11 T8 179 3.632
11 T8 180 3.632
11 T8 181 -2.716
11 T8 182 -9.552
11 T8 183 -11.017
11 T8 184 -4.181
11 T8 185 6.561
11 T8 186 12.421
11 T8 187 8.514
11 T8 188 -2.228
11 T8 189 -13.458
11 T8 190 -17.853
11 T8 191 -12.482
11 T8 192 -2.716
11 T8 193 5.096
11 T8 194 7.050
11 T8 195 2.655
11 T8 196 -4.669
11 T8 197 -11.017
11 T8 198 -13.947
11 T8 199 -13.947
11 T8 200 -11.017
11 T8 201 -6.134
11 T8 202 -0.275
11 T8 203 3.632
11 T8 204 2.655
11 T8 205 -2.716
11 T8 206 -9.064
11 T8 207 -12.482
11 T8 208 -10.529
11 T8 209 -4.181
11 T8 210 0.702
11 T8 211 0.702
11 T8 212 -3.693
11 T8 213 -9.064
11 T8 214 -11.505
11 T8 215 -10.529
11 T8 216 -8.575
11 T8 217 -8.575
11 T8 218 -9.552
11 T8 219 -8.575
11 T8 220 -3.204
11 T8 221 4.120
11 T8 222 8.026
11 T8 223 4.120
11 T8 224 -6.622
11 T8 225 -15.900
11 T8 226 -17.365
11 T8 227 -9.064
11 T8 228 1.678
11 T8 229 6.561
11 T8 230 0.702
11 T8 231 -10.040
11 T8 232 -17.853
11 T8 233 -17.853
11 T8 234 -10.040
11 T8 235 -2.228
11 T8 236 -0.275
11 T8 237 -2.716
11 T8 238 -6.622
11 T8 239 -8.087
11 T8 240 -7.111
11 T8 241 -5.157
11 T8 242 -5.157
11 T8 243 -6.622
11 T8 244 -8.575
11 T8 245 -9.552
11 T8 246 -10.040
11 T8 247 -11.993
11 T8 248 -14.923
11 T8 249 -17.365
11 T8 250 -16.876
11 T8 251 -13.947
11 T8 252 -8.575
11 T8 253 -2.716
11 T8 254 2.167
11 T8 255 4.608
# T7 chan 14
11 T7 0 -2.370
11 T7 1 -5.788
11 T7 2 -5.788
11 T7 3 -3.347
11 T7 4 -0.905
11 T7 5 0.559
11 T7 6 -0.905
11 T7 7 -4.323
11 T7 8 -7.253
11 T7 9 -9.206
11 T7 10 -8.718
11 T7 11 -6.765
11 T7 12 -4.323
11 T7 13 -3.347
11 T7 14 -4.323
11 T7 15 -6.765
11 T7 16 -10.183
11 T7 17 -11.648
11 T7 18 -10.671
11 T7 19 -7.741
11 T7 20 -4.812
11 T7 21 -3.835
11 T7 22 -5.300
11 T7 23 -9.206
11 T7 24 -12.624
11 T7 25 -13.601
11 T7 26 -13.112
11 T7 27 -11.159
11 T7 28 -10.671
11 T7 29 -12.624
11 T7 30 -16.042
11 T7 31 -17.995
11 T7 32 -17.019
11 T7 33 -12.624
11 T7 34 -7.253
11 T7 35 -4.812
11 T7 36 -6.276
11 T7 37 -11.159
11 T7 38 -15.066
11 T7 39 -16.530
11 T7 40 -15.554
11 T7 41 -12.136
11 T7 42 -9.206
11 T7 43 -8.230
11 T7 44 -8.230
11 T7 45 -9.206
11 T7 46 -11.159
11 T7 47 -12.136
11 T7 48 -11.159
11 T7 49 -7.741
11 T7 50 -3.347
11 T7 51 0.559
11 T7 52 2.024
11 T7 53 2.024
11 T7 54 1.048
11 T7 55 1.048
11 T7 56 2.513
11 T7 57 4.466
11 T7 58 3.977
11 T7 59 1.048
11 T7 60 -3.347
11 T7 61 -7.253
11 T7 62 -9.206
11 T7 63 -9.206
11 T7 64 -7.741
11 T7 65 -6.276
11 T7 66 -5.300
11 T7 67 -6.276
11 T7 68 -8.230
11 T7 69 -11.159
11 T7 70 -13.112
11 T7 71 -12.624
11 T7 72 -9.694
11 T7 73 -6.765
11 T7 74 -5.788
11 T7 75 -7.741
11 T7 76 -11.648
11 T7 77 -15.554
11 T7 78 -17.995
11 T7 79 -18.483
11 T7 80 -17.507
11 T7 81 -15.554
11 T7 82 -13.112
11 T7 83 -10.671
11 T7 84 -8.230
11 T7 85 -6.765
11 T7 86 -6.765
11 T7 87 -8.230
11 T7 88 -10.671
11 T7 89 -11.648
11 T7 90 -11.648
11 T7 91 -9.206
11 T7 92 -7.253
11 T7 93 -5.300
11 T7 94 -3.835
11 T7 95 -1.882
11 T7 96 -0.417
11 T7 97 0.559
11 T7 98 -0.417
11 T7 99 -1.882
11 T7 100 -2.370
11 T7 101 -0.905
11 T7 102 2.024
11 T7 103 4.466
11 T7 104 4.466
11 T7 105 3.001
11 T7 106 1.536
11 T7 107 2.024
11 T7 108 3.489
11 T7 109 4.466
11 T7 110 3.489
11 T7 111 0.071
11 T7 112 -2.858
11 T7 113 -4.812
11 T7 114 -3.835
11 T7 115 -1.394
11 T7 116 0.071
11 T7 117 0.071
11 T7 118 -1.394
11 T7 119 -2.858
11 T7 120 -2.370
11 T7 121 -0.417
11 T7 122 1.536
11 T7 123 3.001
11 T7 124 2.513
11 T7 125 0.559
11 T7 126 -2.858
11 T7 127 -6.765
11 T7 128 -11.159
11 T7 129 -14.577
11 T7 130 -17.507
11 T7 131 -18.972
11 T7 132 -19.460
11 T7 133 -18.972
11 T7 134 -18.483
11 T7 135 -18.483
11 T7 136 -17.995
11 T7 137 -17.019
11 T7 138 -16.042
11 T7 139 -16.042
11 T7 140 -16.530
11 T7 141 -17.019
11 T7 142 -16.530
11 T7 143 -15.066
11 T7 144 -13.112
11 T7 145 -12.624
11 T7 146 -14.577
11 T7 147 -17.995
11 T7 148 -21.413
11 T7 149 -21.413
11 T7 150 -18.483
11 T7 151 -14.089
11 T7 152 -11.159
11 T7 153 -10.183
11 T7 154 -10.671
11 T7 155 -10.671
11 T7 156 -8.718
11 T7 157 -5.788
11 T7 158 -2.858
11 T7 159 -2.370
11 T7 160 -3.347
11 T7 161 -4.812
11 T7 162 -4.323
11 T7 163 -1.882
11 T7 164 0.071
11 T7 165 -0.417
11 T7 166 -4.323
11 T7 167 -9.206
11 T7 168 -12.624
11 T7 169 -12.624
11 T7 170 -9.206
11 T7 171 -6.276
11 T7 172 -5.788
11 T7 173 -7.253
11 T7 174 -8.230
11 T7 175 -8.230
11 T7 176 -6.765
11 T7 177 -6.276
11 T7 178 -7.253
11 T7 179 -9.206
11 T7 180 -10.671
11 T7 181 -10.671
11 T7 182 -9.206
11 T7 183 -8.718
11 T7 184 -10.671
11 T7 185 -12.136
11 T7 186 -11.648
11 T7 187 -8.230
11 T7 188 -3.835
11 T7 189 -2.370
11 T7 190 -5.300
11 T7 191 -10.671
11 T7 192 -15.554
11 T7 193 -16.530
11 T7 194 -13.601
11 T7 195 -10.183
11 T7 196 -7.741
11 T7 197 -7.741
11 T7 198 -8.230
11 T7 199 -7.741
11 T7 200 -7.253
11 T7 201 -8.718
11 T7 202 -12.136
11 T7 203 -16.042
11 T7 204 -17.019
11 T7 205 -15.066
11 T7 206 -12.136
11 T7 207 -11.159
11 T7 208 -13.601
11 T7 209 -17.507
11 T7 210 -19.948
11 T7 211 -18.483
11 T7 212 -15.066
11 T7 213 -12.624
11 T7 214 -13.601
11 T7 215 -17.507
11 T7 216 -21.413
11 T7 217 -22.390
11 T7 218 -20.925
11 T7 219 -17.507
11 T7 220 -15.554
11 T7 221 -15.066
11 T7 222 -16.530
11 T7 223 -18.972
11 T7 224 -19.460
11 T7 225 -19.460
11 T7 226 -17.507
11 T7 227 -15.066
11 T7 228 -13.112
11 T7 229 -10.671
11 T7 230 -8.718
11 T7 231 -7.741
11 T7 232 -9.206
11 T7 233 -12.136
11 T7 234 -16.042
11 T7 235 -17.507
11 T7 236 -16.042
11 T7 237 -12.624
11 T7 238 -8.718
11 T7 239 -7.253
11 T7 240 -8.230
11 T7 241 -11.159
11 T7 242 -12.624
11 T7 243 -12.136
11 T7 244 -10.183
11 T7 245 -8.230
11 T7 246 -7.253
11 T7 247 -8.718
11 T7 248 -11.648
11 T7 249 -14.577
11 T7 250 -17.995
11 T7 251 -20.925
11 T7 252 -22.390
11 T7 253 -22.390
11 T7 254 -20.437
11 T7 255 -17.507
# CZ chan 15
11 CZ 0 5.636
11 CZ 1 4.659
11 CZ 2 3.682
11 CZ 3 2.706
11 CZ 4 2.706
11 CZ 5 3.194
11 CZ 6 2.706
11 CZ 7 0.264
11 CZ 8 -3.642
11 CZ 9 -7.548
11 CZ 10 -9.013
11 CZ 11 -7.548
11 CZ 12 -4.618
11 CZ 13 -2.665
11 CZ 14 -2.665
11 CZ 15 -4.130
11 CZ 16 -6.083
11 CZ 17 -7.060
11 CZ 18 -7.548
11 CZ 19 -7.060
11 CZ 20 -7.060
11 CZ 21 -8.525
11 CZ 22 -9.989
11 CZ 23 -10.966
11 CZ 24 -11.454
11 CZ 25 -10.966
11 CZ 26 -10.966
11 CZ 27 -11.454
11 CZ 28 -13.896
11 CZ 29 -15.849
11 CZ 30 -15.849
11 CZ 31 -13.407
11 CZ 32 -9.501
11 CZ 33 -5.107
11 CZ 34 -3.153
11 CZ 35 -4.618
11 CZ 36 -7.060
11 CZ 37 -9.013
11 CZ 38 -8.525
11 CZ 39 -7.060
11 CZ 40 -4.618
11 CZ 41 -3.642
11 CZ 42 -4.130
11 CZ 43 -5.107
11 CZ 44 -6.083
11 CZ 45 -5.595
11 CZ 46 -4.618
11 CZ 47 -3.642
11 CZ 48 -2.177
11 CZ 49 -1.200
11 CZ 50 -0.224
11 CZ 51 -0.224
11 CZ 52 -1.200
11 CZ 53 -2.177
11 CZ 54 -2.665
11 CZ 55 -1.689
11 CZ 56 1.241
11 CZ 57 4.171
11 CZ 58 6.124
11 CZ 59 6.612
11 CZ 60 5.636
11 CZ 61 4.659
11 CZ 62 3.682
11 CZ 63 4.171
11 CZ 64 5.147
11 CZ 65 5.636
11 CZ 66 6.124
11 CZ 67 6.124
11 CZ 68 5.147
11 CZ 69 3.682
11 CZ 70 2.218
11 CZ 71 1.241
11 CZ 72 1.241
11 CZ 73 1.729
11 CZ 74 1.241
11 CZ 75 -0.712
11 CZ 76 -3.642
11 CZ 77 -7.060
11 CZ 78 -9.013
11 CZ 79 -9.013
11 CZ 80 -8.525
11 CZ 81 -9.013
11 CZ 82 -10.478
11 CZ 83 -12.431
11 CZ 84 -14.384
11 CZ 85 -13.896
11 CZ 86 -12.431
11 CZ 87 -10.966
11 CZ 88 -10.966
11 CZ 89 -12.431
11 CZ 90 -14.384
11 CZ 91 -14.872
11 CZ 92 -13.896
11 CZ 93 -11.454
11 CZ 94 -9.501
11 CZ 95 -8.525
11 CZ 96 -7.548
11 CZ 97 -6.571
11 CZ 98 -5.107
11 CZ 99 -3.642
11 CZ 100 -3.642
11 CZ 101 -4.618
11 CZ 102 -5.595
11 CZ 103 -5.595
11 CZ 104 -4.618
11 CZ 105 -2.665
11 CZ 106 -3.153
11 CZ 107 -5.107
11 CZ 108 -7.548
11 CZ 109 -9.013
11 CZ 110 -9.013
11 CZ 111 -8.036
11 CZ 112 -8.036
11 CZ 113 -9.501
11 CZ 114 -11.454
11 CZ 115 -12.431
11 CZ 116 -11.454
11 CZ 117 -10.478
11 CZ 118 -9.501
11 CZ 119 -10.478
11 CZ 120 -12.919
11 CZ 121 -14.872
11 CZ 122 -16.825
11 CZ 123 -17.314
11 CZ 124 -17.314
11 CZ 125 -16.337
11 CZ 126 -14.872
11 CZ 127 -14.384
11 CZ 128 -16.337
11 CZ 129 -20.732
11 CZ 130 -26.591
11 CZ 131 -31.962
11 CZ 132 -34.403
11 CZ 133 -33.915
11 CZ 134 -30.986
11 CZ 135 -28.056
11 CZ 136 -27.079
11 CZ 137 -28.056
11 CZ 138 -30.009
11 CZ 139 -31.474
11 CZ 140 -30.497
11 CZ 141 -29.521
11 CZ 142 -28.056
11 CZ 143 -28.056
11 CZ 144 -28.056
11 CZ 145 -27.568
11 CZ 146 -26.103
11 CZ 147 -24.150
11 CZ 148 -22.196
11 CZ 149 -21.708
11 CZ 150 -21.220
11 CZ 151 -20.243
11 CZ 152 -18.778
11 CZ 153 -17.802
11 CZ 154 -18.290
11 CZ 155 -20.243
11 CZ 156 -21.220
11 CZ 157 -19.755
11 CZ 158 -15.849
11 CZ 159 -12.431
11 CZ 160 -11.454
11 CZ 161 -12.919
11 CZ 162 -14.872
11 CZ 163 -15.849
11 CZ 164 -14.384
11 CZ 165 -12.431
11 CZ 166 -11.943
11 CZ 167 -13.407
11 CZ 168 -16.337
11 CZ 169 -17.802
11 CZ 170 -16.825
11 CZ 171 -14.384
11 CZ 172 -12.919
11 CZ 173 -13.896
11 CZ 174 -16.825
11 CZ 175 -18.778
11 CZ 176 -18.778
11 CZ 177 -16.825
11 CZ 178 -13.896
11 CZ 179 -13.407
11 CZ 180 -14.384
11 CZ 181 -15.849
11 CZ 182 -16.825
11 CZ 183 -15.361
11 CZ 184 -13.896
11 CZ 185 -13.896
11 CZ 186 -15.361
11 CZ 187 -16.825
11 CZ 188 -18.290
11 CZ 189 -17.802
11 CZ 190 -15.849
11 CZ 191 -14.384
11 CZ 192 -14.384
11 CZ 193 -15.361
11 CZ 194 -16.825
11 CZ 195 -16.825
11 CZ 196 -15.361
11 CZ 197 -12.919
11 CZ 198 -11.454
11 CZ 199 -11.943
11 CZ 200 -13.896
11 CZ 201 -16.337
11 CZ 202 -18.290
11 CZ 203 -19.755
11 CZ 204 -21.220
11 CZ 205 -22.685
11 CZ 206 -23.661
11 CZ 207 -22.685
11 CZ 208 -20.732
11 CZ 209 -19.267
11 CZ 210 -19.267
11 CZ 211 -21.708
11 CZ 212 -25.614
11 CZ 213 -28.544
11 CZ 214 -28.544
11 CZ 215 -26.103
11 CZ 216 -23.661
11 CZ 217 -22.196
11 CZ 218 -23.173
11 CZ 219 -25.614
11 CZ 220 -28.056
11 CZ 221 -29.032
11 CZ 222 -28.056
11 CZ 223 -26.591
11 CZ 224 -26.103
11 CZ 225 -26.591
11 CZ 226 -28.056
11 CZ 227 -29.521
11 CZ 228 -29.032
11 CZ 229 -28.056
11 CZ 230 -27.568
11 CZ 231 -29.032
11 CZ 232 -31.474
11 CZ 233 -33.427
11 CZ 234 -33.427
11 CZ 235 -32.450
11 CZ 236 -31.474
11 CZ 237 -30.986
11 CZ 238 -30.986
11 CZ 239 -30.986
11 CZ 240 -29.032
11 CZ 241 -27.079
11 CZ 242 -25.614
11 CZ 243 -25.126
11 CZ 244 -25.614
11 CZ 245 -25.614
11 CZ 246 -24.638
11 CZ 247 -23.661
11 CZ 248 -24.638
11 CZ 249 -28.056
11 CZ 250 -32.450
11 CZ 251 -34.892
11 CZ 252 -33.915
11 CZ 253 -29.521
11 CZ 254 -25.614
11 CZ 255 -24.150
# C3 chan 16
11 C3 0 2.126
11 C3 1 0.173
11 C3 2 -0.804
11 C3 3 -0.804
11 C3 4 -0.315
11 C3 5 0.173
11 C3 6 0.173
11 C3 7 0.173
11 C3 8 0.173
11 C3 9 -0.315
11 C3 10 0.173
11 C3 11 0.661
11 C3 12 1.149
11 C3 13 1.149
11 C3 14 1.149
11 C3 15 0.173
11 C3 16 -1.292
11 C3 17 -2.268
11 C3 18 -2.268
11 C3 19 -0.804
11 C3 20 0.661
11 C3 21 1.638
11 C3 22 0.661
11 C3 23 -1.292
11 C3 24 -3.245
11 C3 25 -4.710
11 C3 26 -4.222
11 C3 27 -2.757
11 C3 28 -1.780
11 C3 29 -1.780
11 C3 30 -3.245
11 C3 31 -3.733
11 C3 32 -3.245
11 C3 33 -1.292
11 C3 34 1.149
11 C3 35 2.614
11 C3 36 2.614
11 C3 37 1.638
11 C3 38 0.661
11 C3 39 0.173
11 C3 40 0.173
11 C3 41 1.149
11 C3 42 2.126
11 C3 43 2.614
11 C3 44 3.103
11 C3 45 3.103
11 C3 46 3.103
11 C3 47 3.591
11 C3 48 4.079
11 C3 49 4.567
11 C3 50 5.544
11 C3 51 5.544
11 C3 52 5.544
11 C3 53 5.544
11 C3 54 6.032
11 C3 55 6.032
11 C3 56 6.032
11 C3 57 5.544
11 C3 58 4.567
11 C3 59 3.103
11 C3 60 2.126
11 C3 61 1.149
11 C3 62 0.661
11 C3 63 -0.315
11 C3 64 -1.780
11 C3 65 -2.268
11 C3 66 -2.757
11 C3 67 -1.780
11 C3 68 -0.804
11 C3 69 -0.315
11 C3 70 0.173
11 C3 71 0.173
11 C3 72 0.661
11 C3 73 1.638
11 C3 74 2.126
11 C3 75 1.149
11 C3 76 -0.315
11 C3 77 -1.780
11 C3 78 -1.780
11 C3 79 -0.315
11 C3 80 1.638
11 C3 81 3.103
11 C3 82 3.591
11 C3 83 3.591
11 C3 84 4.079
11 C3 85 5.544
11 C3 86 7.497
11 C3 87 7.985
11 C3 88 7.497
11 C3 89 6.032
11 C3 90 5.544
11 C3 91 6.032
11 C3 92 6.521
11 C3 93 7.497
11 C3 94 8.474
11 C3 95 8.962
11 C3 96 9.450
11 C3 97 9.939
11 C3 98 9.939
11 C3 99 9.939
11 C3 100 9.450
11 C3 101 8.474
11 C3 102 8.474
11 C3 103 7.985
11 C3 104 7.497
11 C3 105 6.521
11 C3 106 5.544
11 C3 107 5.056
11 C3 108 5.056
11 C3 109 6.032
11 C3 110 6.032
11 C3 111 6.032
11 C3 112 4.567
11 C3 113 3.103
11 C3 114 1.638
11 C3 115 1.149
11 C3 116 1.149
11 C3 117 1.149
11 C3 118 2.126
11 C3 119 2.126
11 C3 120 2.614
11 C3 121 3.591
11 C3 122 4.567
11 C3 123 5.544
11 C3 124 6.032
11 C3 125 5.544
11 C3 126 4.567
11 C3 127 3.103
11 C3 128 1.638
11 C3 129 0.661
11 C3 130 -0.315
11 C3 131 -1.292
11 C3 132 -2.268
11 C3 133 -3.245
11 C3 134 -4.222
11 C3 135 -4.222
11 C3 136 -4.222
11 C3 137 -4.222
11 C3 138 -5.198
11 C3 139 -6.175
11 C3 140 -6.663
11 C3 141 -7.151
11 C3 142 -6.175
11 C3 143 -4.710
11 C3 144 -3.245
11 C3 145 -2.268
11 C3 146 -2.757
11 C3 147 -3.733
11 C3 148 -4.222
11 C3 149 -4.222
11 C3 150 -2.757
11 C3 151 -1.292
11 C3 152 0.173
11 C3 153 1.149
11 C3 154 1.638
11 C3 155 2.126
11 C3 156 2.614
11 C3 157 2.614
11 C3 158 2.614
11 C3 159 1.638
11 C3 160 0.173
11 C3 161 -0.804
11 C3 162 -0.315
11 C3 163 1.638
11 C3 164 3.591
11 C3 165 5.056
11 C3 166 5.056
11 C3 167 3.591
11 C3 168 2.614
11 C3 169 2.126
11 C3 170 2.614
11 C3 171 3.103
11 C3 172 3.591
11 C3 173 3.103
11 C3 174 2.126
11 C3 175 2.126
11 C3 176 2.126
11 C3 177 1.638
11 C3 178 1.149
11 C3 179 0.661
11 C3 180 0.173
11 C3 181 0.173
11 C3 182 0.173
11 C3 183 0.661
11 C3 184 1.149
11 C3 185 2.126
11 C3 186 2.614
11 C3 187 4.079
11 C3 188 4.567
11 C3 189 4.079
11 C3 190 2.614
11 C3 191 0.661
11 C3 192 -1.292
11 C3 193 -2.268
11 C3 194 -1.780
11 C3 195 -1.292
11 C3 196 -0.315
11 C3 197 0.661
11 C3 198 1.149
11 C3 199 1.638
11 C3 200 1.149
11 C3 201 0.661
11 C3 202 -0.804
11 C3 203 -1.780
11 C3 204 -2.757
11 C3 205 -2.757
11 C3 206 -2.757
11 C3 207 -3.733
11 C3 208 -5.198
11 C3 209 -6.663
11 C3 210 -7.640
11 C3 211 -7.640
11 C3 212 -6.663
11 C3 213 -5.198
11 C3 214 -4.710
11 C3 215 -4.710
11 C3 216 -5.686
11 C3 217 -6.663
11 C3 218 -7.151
11 C3 219 -6.663
11 C3 220 -5.686
11 C3 221 -4.710
11 C3 222 -4.222
11 C3 223 -4.222
11 C3 224 -4.710
11 C3 225 -5.198
11 C3 226 -5.686
11 C3 227 -5.686
11 C3 228 -5.686
11 C3 229 -4.710
11 C3 230 -3.245
11 C3 231 -1.780
11 C3 232 -0.315
11 C3 233 0.173
11 C3 234 0.173
11 C3 235 -0.315
11 C3 236 -1.292
11 C3 237 -2.268
11 C3 238 -2.268
11 C3 239 -2.268
11 C3 240 -1.780
11 C3 241 -0.804
11 C3 242 0.173
11 C3 243 1.149
11 C3 244 1.638
11 C3 245 1.638
11 C3 246 1.638
11 C3 247 1.149
11 C3 248 1.149
11 C3 249 0.173
11 C3 250 -1.292
11 C3 251 -2.757
11 C3 252 -3.733
11 C3 253 -4.222
11 C3 254 -4.222
11 C3 255 -3.733
# C4 chan 17
11 C4 0 2.177
11 C4 1 2.177
11 C4 2 2.665
11 C4 3 2.177
11 C4 4 1.689
11 C4 5 -0.264
11 C4 6 -1.729
11 C4 7 -2.706
11 C4 8 -2.706
11 C4 9 -2.706
11 C4 10 -3.194
11 C4 11 -4.171
11 C4 12 -4.659
11 C4 13 -3.194
11 C4 14 -1.729
11 C4 15 -0.753
11 C4 16 -0.753
11 C4 17 -1.729
11 C4 18 -2.706
11 C4 19 -4.171
11 C4 20 -5.147
11 C4 21 -6.124
11 C4 22 -6.612
11 C4 23 -6.612
11 C4 24 -6.612
11 C4 25 -6.124
11 C4 26 -6.612
11 C4 27 -7.100
11 C4 28 -6.612
11 C4 29 -5.636
11 C4 30 -3.682
11 C4 31 -2.706
11 C4 32 -2.706
11 C4 33 -4.171
11 C4 34 -5.147
11 C4 35 -4.171
11 C4 36 -2.218
11 C4 37 -0.264
11 C4 38 -0.753
11 C4 39 -2.706
11 C4 40 -4.659
11 C4 41 -5.636
11 C4 42 -5.147
11 C4 43 -3.194
11 C4 44 -1.729
11 C4 45 -1.241
11 C4 46 -1.729
11 C4 47 -2.706
11 C4 48 -2.706
11 C4 49 -2.218
11 C4 50 -1.729
11 C4 51 -1.729
11 C4 52 -2.706
11 C4 53 -3.194
11 C4 54 -3.682
11 C4 55 -3.194
11 C4 56 -2.706
11 C4 57 -2.218
11 C4 58 -2.706
11 C4 59 -3.682
11 C4 60 -3.682
11 C4 61 -3.194
11 C4 62 -1.729
11 C4 63 -0.264
11 C4 64 0.224
11 C4 65 0.224
11 C4 66 -0.753
11 C4 67 -0.753
11 C4 68 -0.753
11 C4 69 0.224
11 C4 70 -0.264
11 C4 71 -1.729
11 C4 72 -4.171
11 C4 73 -5.147
11 C4 74 -4.659
11 C4 75 -2.706
11 C4 76 -0.753
11 C4 77 0.224
11 C4 78 -0.753
11 C4 79 -1.729
11 C4 80 -2.218
11 C4 81 -0.753
11 C4 82 1.200
11 C4 83 2.177
11 C4 84 1.689
11 C4 85 -0.264
11 C4 86 -1.729
11 C4 87 -2.218
11 C4 88 -1.241
11 C4 89 0.712
11 C4 90 2.665
11 C4 91 2.665
11 C4 92 2.665
11 C4 93 2.665
11 C4 94 3.153
11 C4 95 3.642
11 C4 96 4.130
11 C4 97 4.130
11 C4 98 4.130
11 C4 99 5.595
11 C4 100 7.548
11 C4 101 9.501
11 C4 102 9.989
11 C4 103 8.525
11 C4 104 7.060
11 C4 105 6.083
11 C4 106 6.571
11 C4 107 7.548
11 C4 108 9.013
11 C4 109 9.013
11 C4 110 9.013
11 C4 111 9.013
11 C4 112 9.013
11 C4 113 9.013
11 C4 114 8.036
11 C4 115 6.083
11 C4 116 4.130
11 C4 117 3.153
11 C4 118 4.130
11 C4 119 5.107
11 C4 120 5.595
11 C4 121 4.618
11 C4 122 2.665
11 C4 123 1.689
11 C4 124 0.712
11 C4 125 0.224
11 C4 126 -0.753
11 C4 127 -1.729
11 C4 128 -2.218
11 C4 129 -1.241
11 C4 130 0.224
11 C4 131 1.200
11 C4 132 1.200
11 C4 133 -0.264
11 C4 134 -2.218
11 C4 135 -3.682
11 C4 136 -4.171
11 C4 137 -3.194
11 C4 138 -2.218
11 C4 139 -1.241
11 C4 140 -0.264
11 C4 141 0.712
11 C4 142 1.200
11 C4 143 0.712
11 C4 144 0.224
11 C4 145 -0.264
11 C4 146 -0.264
11 C4 147 0.224
11 C4 148 1.200
11 C4 149 2.177
11 C4 150 2.177
11 C4 151 1.689
11 C4 152 1.689
11 C4 153 2.177
11 C4 154 3.642
11 C4 155 5.107
11 C4 156 5.107
11 C4 157 4.618
11 C4 158 3.153
11 C4 159 3.153
11 C4 160 4.130
11 C4 161 5.595
11 C4 162 6.571
11 C4 163 6.083
11 C4 164 4.618
11 C4 165 3.153
11 C4 166 2.177
11 C4 167 2.665
11 C4 168 3.153
11 C4 169 3.153
11 C4 170 1.200
11 C4 171 0.224
11 C4 172 -0.264
11 C4 173 0.224
11 C4 174 1.200
11 C4 175 2.177
11 C4 176 2.177
11 C4 177 2.177
11 C4 178 3.153
11 C4 179 4.130
11 C4 180 4.618
11 C4 181 4.618
11 C4 182 3.642
11 C4 183 2.665
11 C4 184 2.177
11 C4 185 2.177
11 C4 186 2.177
11 C4 187 2.177
11 C4 188 1.689
11 C4 189 1.200
11 C4 190 0.712
11 C4 191 0.712
11 C4 192 1.200
11 C4 193 1.200
11 C4 194 1.689
11 C4 195 1.689
11 C4 196 1.200
11 C4 197 0.224
11 C4 198 -0.264
11 C4 199 -0.753
11 C4 200 -0.264
11 C4 201 0.224
11 C4 202 0.712
11 C4 203 1.200
11 C4 204 0.712
11 C4 205 -0.264
11 C4 206 -0.753
11 C4 207 -1.241
11 C4 208 -0.264
11 C4 209 1.200
11 C4 210 2.665
11 C4 211 3.642
11 C4 212 3.153
11 C4 213 1.200
11 C4 214 -1.241
11 C4 215 -2.218
11 C4 216 -0.753
11 C4 217 2.177
11 C4 218 5.107
11 C4 219 6.571
11 C4 220 5.107
11 C4 221 1.689
11 C4 222 -1.241
11 C4 223 -3.194
11 C4 224 -2.706
11 C4 225 -1.241
11 C4 226 0.712
11 C4 227 1.689
11 C4 228 2.177
11 C4 229 2.177
11 C4 230 1.200
11 C4 231 0.224
11 C4 232 -0.264
11 C4 233 -0.753
11 C4 234 -1.241
11 C4 235 -1.729
11 C4 236 -1.729
11 C4 237 -1.241
11 C4 238 -0.753
11 C4 239 -0.753
11 C4 240 -1.241
11 C4 241 -2.218
11 C4 242 -2.218
11 C4 243 -1.241
11 C4 244 -0.264
11 C4 245 0.224
11 C4 246 -0.264
11 C4 247 -2.218
11 C4 248 -4.171
11 C4 249 -4.171
11 C4 250 -2.218
11 C4 251 0.224
11 C4 252 2.177
11 C4 253 2.665
11 C4 254 2.177
11 C4 255 0.712
# CP5 chan 18
11 CP5 0 4.751
11 CP5 1 2.309
11 CP5 2 0.844
11 CP5 3 -0.132
11 CP5 4 0.356
11 CP5 5 0.844
11 CP5 6 0.844
11 CP5 7 -0.132
11 CP5 8 -1.597
11 CP5 9 -2.574
11 CP5 10 -3.062
11 CP5 11 -1.597
11 CP5 12 0.356
11 CP5 13 2.797
11 CP5 14 3.286
11 CP5 15 2.797
11 CP5 16 0.844
11 CP5 17 -0.621
11 CP5 18 -2.085
11 CP5 19 -1.109
11 CP5 20 -0.132
11 CP5 21 0.844
11 CP5 22 0.356
11 CP5 23 -1.109
11 CP5 24 -3.550
11 CP5 25 -5.015
11 CP5 26 -5.015
11 CP5 27 -4.038
11 CP5 28 -3.550
11 CP5 29 -4.038
11 CP5 30 -5.015
11 CP5 31 -5.992
11 CP5 32 -5.503
11 CP5 33 -3.550
11 CP5 34 -1.597
11 CP5 35 -0.621
11 CP5 36 -2.085
11 CP5 37 -4.038
11 CP5 38 -5.992
11 CP5 39 -6.968
11 CP5 40 -7.456
11 CP5 41 -7.456
11 CP5 42 -7.456
11 CP5 43 -6.968
11 CP5 44 -6.480
11 CP5 45 -5.992
11 CP5 46 -5.015
11 CP5 47 -4.038
11 CP5 48 -3.550
11 CP5 49 -2.085
11 CP5 50 -0.132
11 CP5 51 0.844
11 CP5 52 2.309
11 CP5 53 3.286
11 CP5 54 4.751
11 CP5 55 5.727
11 CP5 56 7.680
11 CP5 57 8.657
11 CP5 58 8.657
11 CP5 59 6.704
11 CP5 60 4.751
11 CP5 61 1.821
11 CP5 62 -0.132
11 CP5 63 -1.109
11 CP5 64 -1.109
11 CP5 65 -1.109
11 CP5 66 -1.597
11 CP5 67 -2.574
11 CP5 68 -4.038
11 CP5 69 -4.527
11 CP5 70 -4.527
11 CP5 71 -4.038
11 CP5 72 -3.062
11 CP5 73 -2.574
11 CP5 74 -3.550
11 CP5 75 -5.015
11 CP5 76 -6.480
11 CP5 77 -6.968
11 CP5 78 -6.480
11 CP5 79 -5.503
11 CP5 80 -4.527
11 CP5 81 -4.038
11 CP5 82 -3.062
11 CP5 83 -1.597
11 CP5 84 0.356
11 CP5 85 2.309
11 CP5 86 4.262
11 CP5 87 4.751
11 CP5 88 4.262
11 CP5 89 3.286
11 CP5 90 2.309
11 CP5 91 2.309
11 CP5 92 2.797
11 CP5 93 4.262
11 CP5 94 5.727
11 CP5 95 7.192
11 CP5 96 8.657
11 CP5 97 9.145
11 CP5 98 9.633
11 CP5 99 9.145
11 CP5 100 9.145
11 CP5 101 8.657
11 CP5 102 8.657
11 CP5 103 8.169
11 CP5 104 7.680
11 CP5 105 7.192
11 CP5 106 6.704
11 CP5 107 6.704
11 CP5 108 6.215
11 CP5 109 6.215
11 CP5 110 5.239
11 CP5 111 4.262
11 CP5 112 3.286
11 CP5 113 3.286
11 CP5 114 3.286
11 CP5 115 3.286
11 CP5 116 3.774
11 CP5 117 3.774
11 CP5 118 3.286
11 CP5 119 3.286
11 CP5 120 2.797
11 CP5 121 3.286
11 CP5 122 4.262
11 CP5 123 4.751
11 CP5 124 5.239
11 CP5 125 4.751
11 CP5 126 3.286
11 CP5 127 0.844
11 CP5 128 -1.109
11 CP5 129 -4.038
11 CP5 130 -5.503
11 CP5 131 -6.480
11 CP5 132 -6.968
11 CP5 133 -7.456
11 CP5 134 -7.945
11 CP5 135 -7.945
11 CP5 136 -6.968
11 CP5 137 -5.992
11 CP5 138 -5.015
11 CP5 139 -5.015
11 CP5 140 -6.968
11 CP5 141 -8.433
11 CP5 142 -9.410
11 CP5 143 -8.433
11 CP5 144 -6.480
11 CP5 145 -5.015
11 CP5 146 -5.015
11 CP5 147 -5.992
11 CP5 148 -6.968
11 CP5 149 -6.968
11 CP5 150 -5.503
11 CP5 151 -4.038
11 CP5 152 -3.062
11 CP5 153 -3.550
11 CP5 154 -3.550
11 CP5 155 -3.062
11 CP5 156 -2.085
11 CP5 157 -1.109
11 CP5 158 -0.621
11 CP5 159 -1.597
11 CP5 160 -2.574
11 CP5 161 -2.574
11 CP5 162 -1.109
11 CP5 163 0.844
11 CP5 164 3.286
11 CP5 165 4.262
11 CP5 166 2.309
11 CP5 167 -0.621
11 CP5 168 -3.550
11 CP5 169 -5.015
11 CP5 170 -5.015
11 CP5 171 -4.527
11 CP5 172 -4.527
11 CP5 173 -5.015
11 CP5 174 -5.015
11 CP5 175 -5.015
11 CP5 176 -4.527
11 CP5 177 -4.527
11 CP5 178 -4.527
11 CP5 179 -5.015
11 CP5 180 -5.503
11 CP5 181 -5.015
11 CP5 182 -4.038
11 CP5 183 -3.550
11 CP5 184 -2.574
11 CP5 185 -1.597
11 CP5 186 -1.109
11 CP5 187 -0.132
11 CP5 188 -0.132
11 CP5 189 -1.597
11 CP5 190 -3.062
11 CP5 191 -5.015
11 CP5 192 -7.456
11 CP5 193 -8.921
11 CP5 194 -9.410
11 CP5 195 -8.921
11 CP5 196 -7.456
11 CP5 197 -5.992
11 CP5 198 -4.038
11 CP5 199 -3.062
11 CP5 200 -2.574
11 CP5 201 -3.550
11 CP5 202 -4.527
11 CP5 203 -5.992
11 CP5 204 -6.480
11 CP5 205 -7.456
11 CP5 206 -8.433
11 CP5 207 -9.898
11 CP5 208 -12.339
11 CP5 209 -15.269
11 CP5 210 -16.734
11 CP5 211 -16.734
11 CP5 212 -15.269
11 CP5 213 -13.316
11 CP5 214 -11.363
11 CP5 215 -10.386
11 CP5 216 -9.898
11 CP5 217 -10.386
11 CP5 218 -10.874
11 CP5 219 -11.851
11 CP5 220 -12.339
11 CP5 221 -13.316
11 CP5 222 -13.804
11 CP5 223 -13.804
11 CP5 224 -13.804
11 CP5 225 -13.316
11 CP5 226 -13.316
11 CP5 227 -12.828
11 CP5 228 -11.363
11 CP5 229 -9.898
11 CP5 230 -7.456
11 CP5 231 -5.503
11 CP5 232 -4.527
11 CP5 233 -5.503
11 CP5 234 -6.968
11 CP5 235 -7.945
11 CP5 236 -8.433
11 CP5 237 -7.945
11 CP5 238 -6.480
11 CP5 239 -5.992
11 CP5 240 -5.992
11 CP5 241 -6.480
11 CP5 242 -5.992
11 CP5 243 -5.015
11 CP5 244 -3.550
11 CP5 245 -2.085
11 CP5 246 -2.085
11 CP5 247 -3.550
11 CP5 248 -5.992
11 CP5 249 -8.921
11 CP5 250 -11.363
11 CP5 251 -12.339
11 CP5 252 -12.339
11 CP5 253 -10.874
11 CP5 254 -9.410
11 CP5 255 -8.921
# CP6 chan 19
11 CP6 0 5.137
11 CP6 1 5.137
11 CP6 2 5.137
11 CP6 3 5.137
11 CP6 4 4.161
11 CP6 5 2.696
11 CP6 6 1.231
11 CP6 7 0.254
11 CP6 8 0.254
11 CP6 9 0.254
11 CP6 10 -0.722
11 CP6 11 -1.699
11 CP6 12 -1.211
11 CP6 13 0.254
11 CP6 14 2.207
11 CP6 15 2.696
11 CP6 16 2.207
11 CP6 17 -0.234
11 CP6 18 -2.187
11 CP6 19 -3.652
11 CP6 20 -4.628
11 CP6 21 -5.605
11 CP6 22 -6.582
11 CP6 23 -8.046
11 CP6 24 -8.535
11 CP6 25 -8.535
11 CP6 26 -8.535
11 CP6 27 -8.046
11 CP6 28 -8.046
11 CP6 29 -7.558
11 CP6 30 -6.582
11 CP6 31 -5.605
11 CP6 32 -5.117
11 CP6 33 -4.628
11 CP6 34 -4.140
11 CP6 35 -3.164
11 CP6 36 -1.211
11 CP6 37 -0.722
11 CP6 38 -1.211
11 CP6 39 -3.164
11 CP6 40 -5.605
11 CP6 41 -7.558
11 CP6 42 -8.535
11 CP6 43 -8.046
11 CP6 44 -7.070
11 CP6 45 -6.093
11 CP6 46 -5.117
11 CP6 47 -5.117
11 CP6 48 -5.117
11 CP6 49 -5.117
11 CP6 50 -4.140
11 CP6 51 -3.652
11 CP6 52 -3.164
11 CP6 53 -3.164
11 CP6 54 -3.164
11 CP6 55 -2.675
11 CP6 56 -2.187
11 CP6 57 -1.211
11 CP6 58 -1.211
11 CP6 59 -1.211
11 CP6 60 -1.211
11 CP6 61 -1.211
11 CP6 62 -1.211
11 CP6 63 -0.722
11 CP6 64 0.254
11 CP6 65 1.231
11 CP6 66 1.719
11 CP6 67 1.719
11 CP6 68 1.231
11 CP6 69 0.743
11 CP6 70 -0.722
11 CP6 71 -2.675
11 CP6 72 -5.117
11 CP6 73 -6.093
11 CP6 74 -5.117
11 CP6 75 -2.675
11 CP6 76 -0.722
11 CP6 77 -0.234
11 CP6 78 -1.211
11 CP6 79 -3.164
11 CP6 80 -3.652
11 CP6 81 -2.675
11 CP6 82 -0.234
11 CP6 83 1.719
11 CP6 84 2.696
11 CP6 85 1.719
11 CP6 86 1.231
11 CP6 87 1.231
11 CP6 88 2.207
11 CP6 89 3.672
11 CP6 90 5.137
11 CP6 91 5.625
11 CP6 92 5.137
11 CP6 93 5.625
11 CP6 94 6.114
11 CP6 95 7.579
11 CP6 96 8.555
11 CP6 97 8.555
11 CP6 98 9.043
11 CP6 99 10.020
11 CP6 100 10.997
11 CP6 101 12.461
11 CP6 102 12.950
11 CP6 103 12.461
11 CP6 104 11.485
11 CP6 105 10.997
11 CP6 106 11.485
11 CP6 107 11.973
11 CP6 108 11.973
11 CP6 109 11.973
11 CP6 110 11.973
11 CP6 111 12.461
11 CP6 112 12.461
11 CP6 113 11.973
11 CP6 114 10.020
11 CP6 115 8.067
11 CP6 116 6.114
11 CP6 117 5.625
11 CP6 118 5.625
11 CP6 119 6.114
11 CP6 120 5.137
11 CP6 121 3.184
11 CP6 122 0.743
11 CP6 123 -0.722
11 CP6 124 -1.211
11 CP6 125 -0.722
11 CP6 126 -1.699
11 CP6 127 -3.164
11 CP6 128 -4.628
11 CP6 129 -5.605
11 CP6 130 -6.093
11 CP6 131 -6.093
11 CP6 132 -6.093
11 CP6 133 -6.582
11 CP6 134 -7.070
11 CP6 135 -7.558
11 CP6 136 -7.070
11 CP6 137 -6.093
11 CP6 138 -4.628
11 CP6 139 -3.652
11 CP6 140 -2.675
11 CP6 141 -3.164
11 CP6 142 -3.652
11 CP6 143 -4.140
11 CP6 144 -4.628
11 CP6 145 -3.652
11 CP6 146 -1.699
11 CP6 147 0.254
11 CP6 148 1.719
11 CP6 149 2.207
11 CP6 150 1.719
11 CP6 151 1.231
11 CP6 152 1.231
11 CP6 153 1.231
11 CP6 154 2.207
11 CP6 155 2.696
11 CP6 156 2.696
11 CP6 157 2.696
11 CP6 158 2.207
11 CP6 159 2.207
11 CP6 160 2.696
11 CP6 161 3.672
11 CP6 162 4.161
11 CP6 163 4.161
11 CP6 164 3.184
11 CP6 165 2.207
11 CP6 166 1.231
11 CP6 167 0.743
11 CP6 168 0.254
11 CP6 169 -0.234
11 CP6 170 -0.722
11 CP6 171 -1.211
11 CP6 172 -1.211
11 CP6 173 -1.211
11 CP6 174 -1.211
11 CP6 175 -2.187
11 CP6 176 -2.675
11 CP6 177 -2.187
11 CP6 178 -1.211
11 CP6 179 0.743
11 CP6 180 1.231
11 CP6 181 0.743
11 CP6 182 -0.722
11 CP6 183 -1.699
11 CP6 184 -1.699
11 CP6 185 -1.211
11 CP6 186 -1.211
11 CP6 187 -1.699
11 CP6 188 -2.675
11 CP6 189 -3.164
11 CP6 190 -2.675
11 CP6 191 -1.699
11 CP6 192 -1.211
11 CP6 193 -1.699
11 CP6 194 -2.187
11 CP6 195 -2.675
11 CP6 196 -3.164
11 CP6 197 -3.164
11 CP6 198 -3.652
11 CP6 199 -4.628
11 CP6 200 -5.117
11 CP6 201 -4.628
11 CP6 202 -3.164
11 CP6 203 -2.187
11 CP6 204 -2.675
11 CP6 205 -4.140
11 CP6 206 -7.070
11 CP6 207 -8.535
11 CP6 208 -9.023
11 CP6 209 -6.582
11 CP6 210 -3.652
11 CP6 211 -2.187
11 CP6 212 -2.187
11 CP6 213 -3.652
11 CP6 214 -5.117
11 CP6 215 -5.117
11 CP6 216 -3.164
11 CP6 217 -0.234
11 CP6 218 2.207
11 CP6 219 1.719
11 CP6 220 0.254
11 CP6 221 -2.675
11 CP6 222 -5.117
11 CP6 223 -7.070
11 CP6 224 -8.046
11 CP6 225 -7.558
11 CP6 226 -5.605
11 CP6 227 -3.164
11 CP6 228 -1.211
11 CP6 229 -1.211
11 CP6 230 -2.675
11 CP6 231 -5.117
11 CP6 232 -8.046
11 CP6 233 -9.023
11 CP6 234 -9.023
11 CP6 235 -7.558
11 CP6 236 -5.605
11 CP6 237 -4.140
11 CP6 238 -4.140
11 CP6 239 -4.628
11 CP6 240 -5.117
11 CP6 241 -6.093
11 CP6 242 -6.093
11 CP6 243 -5.605
11 CP6 244 -5.117
11 CP6 245 -5.117
11 CP6 246 -7.070
11 CP6 247 -9.023
11 CP6 248 -10.000
11 CP6 249 -10.000
11 CP6 250 -9.023
11 CP6 251 -6.582
11 CP6 252 -4.140
11 CP6 253 -2.675
11 CP6 254 -1.699
11 CP6 255 -1.699
# CP1 chan 20
11 CP1 0 2.177
11 CP1 1 1.689
11 CP1 2 1.200
11 CP1 3 1.689
11 CP1 4 1.200
11 CP1 5 2.177
11 CP1 6 2.665
11 CP1 7 2.665
11 CP1 8 2.665
11 CP1 9 1.689
11 CP1 10 1.200
11 CP1 11 1.200
11 CP1 12 1.200
11 CP1 13 1.689
11 CP1 14 2.177
11 CP1 15 1.689
11 CP1 16 1.200
11 CP1 17 0.712
11 CP1 18 0.224
11 CP1 19 0.712
11 CP1 20 1.689
11 CP1 21 2.177
11 CP1 22 1.689
11 CP1 23 0.712
11 CP1 24 -0.753
11 CP1 25 -1.729
11 CP1 26 -2.218
11 CP1 27 -2.218
11 CP1 28 -2.218
11 CP1 29 -2.706
11 CP1 30 -3.194
11 CP1 31 -3.682
11 CP1 32 -3.194
11 CP1 33 -1.729
11 CP1 34 -0.264
11 CP1 35 0.224
11 CP1 36 0.224
11 CP1 37 -0.264
11 CP1 38 -1.241
11 CP1 39 -2.218
11 CP1 40 -2.706
11 CP1 41 -2.706
11 CP1 42 -2.218
11 CP1 43 -1.241
11 CP1 44 -0.753
11 CP1 45 -0.753
11 CP1 46 -0.753
11 CP1 47 -1.241
11 CP1 48 -1.241
11 CP1 49 -0.753
11 CP1 50 0.224
11 CP1 51 1.200
11 CP1 52 2.177
11 CP1 53 2.665
11 CP1 54 3.153
11 CP1 55 3.642
11 CP1 56 4.618
11 CP1 57 5.107
11 CP1 58 5.107
11 CP1 59 4.130
11 CP1 60 2.665
11 CP1 61 1.689
11 CP1 62 0.712
11 CP1 63 0.712
11 CP1 64 0.712
11 CP1 65 1.200
11 CP1 66 1.689
11 CP1 67 1.689
11 CP1 68 1.689
11 CP1 69 1.200
11 CP1 70 0.712
11 CP1 71 0.712
11 CP1 72 0.712
11 CP1 73 0.712
11 CP1 74 0.712
11 CP1 75 0.224
11 CP1 76 -0.753
11 CP1 77 -1.241
11 CP1 78 -1.241
11 CP1 79 -0.264
11 CP1 80 0.712
11 CP1 81 1.200
11 CP1 82 1.200
11 CP1 83 1.689
11 CP1 84 1.689
11 CP1 85 2.665
11 CP1 86 4.130
11 CP1 87 5.107
11 CP1 88 4.618
11 CP1 89 4.618
11 CP1 90 4.130
11 CP1 91 4.130
11 CP1 92 4.130
11 CP1 93 4.618
11 CP1 94 4.618
11 CP1 95 4.618
11 CP1 96 4.130
11 CP1 97 4.130
11 CP1 98 4.618
11 CP1 99 4.618
11 CP1 100 5.107
11 CP1 101 4.618
11 CP1 102 4.618
11 CP1 103 4.618
11 CP1 104 4.618
11 CP1 105 4.618
11 CP1 106 4.618
11 CP1 107 4.618
11 CP1 108 4.130
11 CP1 109 3.642
11 CP1 110 3.153
11 CP1 111 2.665
11 CP1 112 2.665
11 CP1 113 2.665
11 CP1 114 2.665
11 CP1 115 2.177
11 CP1 116 2.177
11 CP1 117 2.177
11 CP1 118 2.665
11 CP1 119 3.153
11 CP1 120 3.642
11 CP1 121 3.642
11 CP1 122 3.642
11 CP1 123 4.130
11 CP1 124 4.618
11 CP1 125 4.618
11 CP1 126 4.618
11 CP1 127 3.642
11 CP1 128 2.177
11 CP1 129 0.224
11 CP1 130 -0.753
11 CP1 131 -1.241
11 CP1 132 -1.241
11 CP1 133 -0.753
11 CP1 134 -0.264
11 CP1 135 0.712
11 CP1 136 1.689
11 CP1 137 1.689
11 CP1 138 2.177
11 CP1 139 1.689
11 CP1 140 0.712
11 CP1 141 -0.264
11 CP1 142 -0.753
11 CP1 143 -0.753
11 CP1 144 0.224
11 CP1 145 0.712
11 CP1 146 0.712
11 CP1 147 0.712
11 CP1 148 0.224
11 CP1 149 0.224
11 CP1 150 0.712
11 CP1 151 0.712
11 CP1 152 0.712
11 CP1 153 0.712
11 CP1 154 0.712
11 CP1 155 1.200
11 CP1 156 2.177
11 CP1 157 2.665
11 CP1 158 2.665
11 CP1 159 1.689
11 CP1 160 1.200
11 CP1 161 0.712
11 CP1 162 1.689
11 CP1 163 2.665
11 CP1 164 3.153
11 CP1 165 3.642
11 CP1 166 2.665
11 CP1 167 1.689
11 CP1 168 0.712
11 CP1 169 1.200
11 CP1 170 1.689
11 CP1 171 1.689
11 CP1 172 1.689
11 CP1 173 0.712
11 CP1 174 -0.264
11 CP1 175 -1.241
11 CP1 176 -1.729
11 CP1 177 -1.241
11 CP1 178 -1.241
11 CP1 179 -0.753
11 CP1 180 -0.753
11 CP1 181 -0.753
11 CP1 182 -0.264
11 CP1 183 0.224
11 CP1 184 1.200
11 CP1 185 1.689
11 CP1 186 1.200
11 CP1 187 0.712
11 CP1 188 0.224
11 CP1 189 0.224
11 CP1 190 0.712
11 CP1 191 0.712
11 CP1 192 -0.264
11 CP1 193 -1.241
11 CP1 194 -1.729
11 CP1 195 -1.729
11 CP1 196 -0.753
11 CP1 197 0.224
11 CP1 198 1.200
11 CP1 199 1.200
11 CP1 200 0.712
11 CP1 201 0.224
11 CP1 202 0.224
11 CP1 203 0.712
11 CP1 204 0.712
11 CP1 205 0.224
11 CP1 206 -0.753
11 CP1 207 -1.729
11 CP1 208 -3.194
11 CP1 209 -4.659
11 CP1 210 -5.147
11 CP1 211 -5.147
11 CP1 212 -5.147
11 CP1 213 -3.682
11 CP1 214 -2.706
11 CP1 215 -2.218
11 CP1 216 -1.729
11 CP1 217 -2.218
11 CP1 218 -2.706
11 CP1 219 -3.194
11 CP1 220 -3.194
11 CP1 221 -2.706
11 CP1 222 -3.194
11 CP1 223 -3.682
11 CP1 224 -4.171
11 CP1 225 -4.171
11 CP1 226 -4.171
11 CP1 227 -3.194
11 CP1 228 -2.706
11 CP1 229 -2.218
11 CP1 230 -2.218
11 CP1 231 -2.218
11 CP1 232 -1.729
11 CP1 233 -1.241
11 CP1 234 -0.753
11 CP1 235 -0.264
11 CP1 236 -0.753
11 CP1 237 -1.241
11 CP1 238 -1.729
11 CP1 239 -1.241
11 CP1 240 -0.753
11 CP1 241 0.224
11 CP1 242 0.712
11 CP1 243 0.712
11 CP1 244 0.712
11 CP1 245 0.224
11 CP1 246 -0.264
11 CP1 247 -1.241
11 CP1 248 -1.241
11 CP1 249 -1.729
11 CP1 250 -1.729
11 CP1 251 -1.729
11 CP1 252 -1.241
11 CP1 253 -0.753
11 CP1 254 -0.264
11 CP1 255 0.224
# CP2 chan 21
11 CP2 0 1.302
11 CP2 1 1.302
11 CP2 2 0.814
11 CP2 3 0.814
11 CP2 4 0.814
11 CP2 5 0.814
11 CP2 6 0.814
11 CP2 7 0.814
11 CP2 8 1.302
11 CP2 9 0.814
11 CP2 10 0.814
11 CP2 11 0.814
11 CP2 12 0.814
11 CP2 13 1.302
11 CP2 14 1.790
11 CP2 15 1.790
11 CP2 16 1.790
11 CP2 17 1.302
11 CP2 18 0.326
11 CP2 19 -0.651
11 CP2 20 -1.628
11 CP2 21 -2.604
11 CP2 22 -3.581
11 CP2 23 -4.069
11 CP2 24 -4.557
11 CP2 25 -4.557
11 CP2 26 -4.069
11 CP2 27 -4.069
11 CP2 28 -4.069
11 CP2 29 -4.069
11 CP2 30 -3.581
11 CP2 31 -3.581
11 CP2 32 -3.092
11 CP2 33 -2.604
11 CP2 34 -2.604
11 CP2 35 -2.116
11 CP2 36 -2.116
11 CP2 37 -2.116
11 CP2 38 -2.604
11 CP2 39 -3.581
11 CP2 40 -4.557
11 CP2 41 -4.557
11 CP2 42 -4.557
11 CP2 43 -4.069
11 CP2 44 -3.581
11 CP2 45 -2.604
11 CP2 46 -2.604
11 CP2 47 -2.604
11 CP2 48 -2.604
11 CP2 49 -2.604
11 CP2 50 -1.628
11 CP2 51 -0.163
11 CP2 52 0.814
11 CP2 53 1.302
11 CP2 54 0.814
11 CP2 55 0.326
11 CP2 56 0.326
11 CP2 57 0.814
11 CP2 58 1.302
11 CP2 59 1.790
11 CP2 60 1.302
11 CP2 61 0.814
11 CP2 62 0.326
11 CP2 63 0.326
11 CP2 64 0.814
11 CP2 65 1.790
11 CP2 66 1.790
11 CP2 67 1.790
11 CP2 68 1.302
11 CP2 69 0.814
11 CP2 70 0.326
11 CP2 71 -0.163
11 CP2 72 -1.139
11 CP2 73 -1.628
11 CP2 74 -2.116
11 CP2 75 -1.628
11 CP2 76 -1.139
11 CP2 77 -0.651
11 CP2 78 -0.651
11 CP2 79 -1.139
11 CP2 80 -1.139
11 CP2 81 -0.163
11 CP2 82 0.326
11 CP2 83 1.302
11 CP2 84 1.302
11 CP2 85 1.302
11 CP2 86 1.302
11 CP2 87 1.302
11 CP2 88 2.279
11 CP2 89 3.255
11 CP2 90 4.232
11 CP2 91 4.232
11 CP2 92 4.232
11 CP2 93 4.232
11 CP2 94 4.232
11 CP2 95 4.232
11 CP2 96 4.720
11 CP2 97 5.208
11 CP2 98 5.697
11 CP2 99 6.185
11 CP2 100 7.161
11 CP2 101 7.650
11 CP2 102 7.650
11 CP2 103 7.161
11 CP2 104 7.161
11 CP2 105 7.161
11 CP2 106 7.650
11 CP2 107 8.626
11 CP2 108 8.626
11 CP2 109 8.138
11 CP2 110 7.650
11 CP2 111 6.673
11 CP2 112 6.185
11 CP2 113 6.185
11 CP2 114 6.185
11 CP2 115 5.697
11 CP2 116 5.208
11 CP2 117 5.208
11 CP2 118 4.720
11 CP2 119 4.232
11 CP2 120 3.743
11 CP2 121 2.767
11 CP2 122 2.279
11 CP2 123 2.279
11 CP2 124 2.767
11 CP2 125 2.767
11 CP2 126 2.279
11 CP2 127 1.302
11 CP2 128 0.326
11 CP2 129 0.326
11 CP2 130 0.326
11 CP2 131 0.814
11 CP2 132 1.302
11 CP2 133 1.302
11 CP2 134 0.814
11 CP2 135 0.814
11 CP2 136 0.814
11 CP2 137 1.302
11 CP2 138 1.790
11 CP2 139 2.279
11 CP2 140 2.279
11 CP2 141 2.279
11 CP2 142 1.790
11 CP2 143 1.790
11 CP2 144 1.790
11 CP2 145 1.790
11 CP2 146 2.279
11 CP2 147 2.767
11 CP2 148 3.743
11 CP2 149 4.232
11 CP2 150 4.232
11 CP2 151 4.232
11 CP2 152 4.232
11 CP2 153 4.232
11 CP2 154 4.232
11 CP2 155 4.232
11 CP2 156 4.232
11 CP2 157 3.743
11 CP2 158 3.255
11 CP2 159 3.255
11 CP2 160 3.255
11 CP2 161 3.743
11 CP2 162 3.743
11 CP2 163 3.743
11 CP2 164 3.255
11 CP2 165 2.767
11 CP2 166 2.767
11 CP2 167 2.767
11 CP2 168 2.279
11 CP2 169 1.790
11 CP2 170 1.302
11 CP2 171 0.814
11 CP2 172 0.814
11 CP2 173 0.326
11 CP2 174 -0.163
11 CP2 175 -0.163
11 CP2 176 -1.139
11 CP2 177 -0.651
11 CP2 178 0.326
11 CP2 179 0.814
11 CP2 180 1.302
11 CP2 181 1.302
11 CP2 182 0.814
11 CP2 183 0.326
11 CP2 184 0.326
11 CP2 185 0.814
11 CP2 186 0.814
11 CP2 187 0.814
11 CP2 188 0.326
11 CP2 189 0.326
11 CP2 190 0.814
11 CP2 191 0.814
11 CP2 192 1.302
11 CP2 193 1.302
11 CP2 194 0.814
11 CP2 195 0.814
11 CP2 196 0.326
11 CP2 197 0.326
11 CP2 198 0.326
11 CP2 199 -0.163
11 CP2 200 -0.163
11 CP2 201 0.326
11 CP2 202 0.814
11 CP2 203 1.302
11 CP2 204 1.302
11 CP2 205 0.326
11 CP2 206 -1.139
11 CP2 207 -1.139
11 CP2 208 -1.628
11 CP2 209 -1.139
11 CP2 210 -0.163
11 CP2 211 0.326
11 CP2 212 -0.163
11 CP2 213 -0.163
11 CP2 214 -0.163
11 CP2 215 0.326
11 CP2 216 1.302
11 CP2 217 1.790
11 CP2 218 1.790
11 CP2 219 1.790
11 CP2 220 1.302
11 CP2 221 0.326
11 CP2 222 -1.139
11 CP2 223 -1.628
11 CP2 224 -2.604
11 CP2 225 -2.604
11 CP2 226 -1.628
11 CP2 227 -0.651
11 CP2 228 0.326
11 CP2 229 -0.163
11 CP2 230 -1.139
11 CP2 231 -2.116
11 CP2 232 -3.581
11 CP2 233 -3.581
11 CP2 234 -3.581
11 CP2 235 -2.116
11 CP2 236 -1.139
11 CP2 237 0.326
11 CP2 238 0.814
11 CP2 239 0.814
11 CP2 240 0.326
11 CP2 241 -0.163
11 CP2 242 -0.163
11 CP2 243 -0.163
11 CP2 244 -0.163
11 CP2 245 -0.163
11 CP2 246 -1.139
11 CP2 247 -1.628
11 CP2 248 -1.628
11 CP2 249 -1.628
11 CP2 250 -1.139
11 CP2 251 -0.163
11 CP2 252 0.814
11 CP2 253 1.302
11 CP2 254 1.790
11 CP2 255 2.279
# P3 chan 22
11 P3 0 2.787
11 P3 1 1.322
11 P3 2 -0.142
11 P3 3 -1.607
11 P3 4 -2.096
11 P3 5 -2.096
11 P3 6 -1.119
11 P3 7 -0.631
11 P3 8 -1.119
11 P3 9 -1.607
11 P3 10 -2.096
11 P3 11 -2.096
11 P3 12 -0.631
11 P3 13 0.834
11 P3 14 2.299
11 P3 15 2.299
11 P3 16 1.811
11 P3 17 0.346
11 P3 18 -0.631
11 P3 19 -1.119
11 P3 20 -1.119
11 P3 21 -1.119
11 P3 22 -2.096
11 P3 23 -3.560
11 P3 24 -5.514
11 P3 25 -6.002
11 P3 26 -6.002
11 P3 27 -5.025
11 P3 28 -4.537
11 P3 29 -5.514
11 P3 30 -6.490
11 P3 31 -6.978
11 P3 32 -6.490
11 P3 33 -5.025
11 P3 34 -3.072
11 P3 35 -3.072
11 P3 36 -3.560
11 P3 37 -5.025
11 P3 38 -6.002
11 P3 39 -6.978
11 P3 40 -7.955
11 P3 41 -8.443
11 P3 42 -8.443
11 P3 43 -7.467
11 P3 44 -6.002
11 P3 45 -5.025
11 P3 46 -4.049
11 P3 47 -4.537
11 P3 48 -5.025
11 P3 49 -4.049
11 P3 50 -2.096
11 P3 51 0.346
11 P3 52 2.787
11 P3 53 4.252
11 P3 54 5.717
11 P3 55 6.694
11 P3 56 7.670
11 P3 57 8.647
11 P3 58 9.135
11 P3 59 8.647
11 P3 60 6.694
11 P3 61 4.252
11 P3 62 2.299
11 P3 63 1.322
11 P3 64 1.322
11 P3 65 1.811
11 P3 66 1.322
11 P3 67 0.834
11 P3 68 -0.631
11 P3 69 -1.607
11 P3 70 -2.096
11 P3 71 -2.096
11 P3 72 -1.607
11 P3 73 -1.119
11 P3 74 -2.096
11 P3 75 -3.072
11 P3 76 -4.049
11 P3 77 -4.537
11 P3 78 -4.537
11 P3 79 -3.560
11 P3 80 -3.072
11 P3 81 -2.096
11 P3 82 -0.631
11 P3 83 0.346
11 P3 84 2.299
11 P3 85 3.276
11 P3 86 4.740
11 P3 87 5.229
11 P3 88 5.717
11 P3 89 5.229
11 P3 90 5.229
11 P3 91 5.229
11 P3 92 5.229
11 P3 93 5.717
11 P3 94 6.205
11 P3 95 6.694
11 P3 96 6.694
11 P3 97 7.182
11 P3 98 8.158
11 P3 99 9.135
11 P3 100 9.623
11 P3 101 9.623
11 P3 102 9.623
11 P3 103 8.647
11 P3 104 8.158
11 P3 105 8.158
11 P3 106 8.647
11 P3 107 9.135
11 P3 108 8.647
11 P3 109 7.670
11 P3 110 6.694
11 P3 111 5.229
11 P3 112 4.252
11 P3 113 4.252
11 P3 114 3.764
11 P3 115 3.764
11 P3 116 3.764
11 P3 117 3.764
11 P3 118 3.764
11 P3 119 3.764
11 P3 120 3.764
11 P3 121 3.764
11 P3 122 4.252
11 P3 123 4.252
11 P3 124 4.740
11 P3 125 4.740
11 P3 126 3.764
11 P3 127 2.299
11 P3 128 0.346
11 P3 129 -1.119
11 P3 130 -2.584
11 P3 131 -3.560
11 P3 132 -4.049
11 P3 133 -3.560
11 P3 134 -3.072
11 P3 135 -1.607
11 P3 136 -0.142
11 P3 137 1.322
11 P3 138 1.811
11 P3 139 1.322
11 P3 140 -1.119
11 P3 141 -3.072
11 P3 142 -4.049
11 P3 143 -3.560
11 P3 144 -3.072
11 P3 145 -2.096
11 P3 146 -1.607
11 P3 147 -2.096
11 P3 148 -1.607
11 P3 149 -1.119
11 P3 150 -0.142
11 P3 151 0.346
11 P3 152 0.346
11 P3 153 -0.142
11 P3 154 -0.142
11 P3 155 -0.142
11 P3 156 0.834
11 P3 157 1.322
11 P3 158 1.322
11 P3 159 0.346
11 P3 160 -0.631
11 P3 161 -0.142
11 P3 162 1.322
11 P3 163 3.276
11 P3 164 4.252
11 P3 165 4.740
11 P3 166 3.276
11 P3 167 1.811
11 P3 168 0.834
11 P3 169 -0.142
11 P3 170 -0.631
11 P3 171 -1.119
11 P3 172 -2.584
11 P3 173 -4.049
11 P3 174 -5.514
11 P3 175 -6.490
11 P3 176 -6.490
11 P3 177 -6.002
11 P3 178 -5.514
11 P3 179 -4.537
11 P3 180 -3.560
11 P3 181 -3.072
11 P3 182 -2.096
11 P3 183 -1.119
11 P3 184 0.346
11 P3 185 1.322
11 P3 186 1.811
11 P3 187 1.811
11 P3 188 0.834
11 P3 189 -0.631
11 P3 190 -2.584
11 P3 191 -4.537
11 P3 192 -6.490
11 P3 193 -8.443
11 P3 194 -9.420
11 P3 195 -8.931
11 P3 196 -7.467
11 P3 197 -5.514
11 P3 198 -3.560
11 P3 199 -2.584
11 P3 200 -2.096
11 P3 201 -2.096
11 P3 202 -1.607
11 P3 203 -2.096
11 P3 204 -3.072
11 P3 205 -5.025
11 P3 206 -6.978
11 P3 207 -8.443
11 P3 208 -10.396
11 P3 209 -11.861
11 P3 210 -13.326
11 P3 211 -14.303
11 P3 212 -13.814
11 P3 213 -11.861
11 P3 214 -9.420
11 P3 215 -6.978
11 P3 216 -5.514
11 P3 217 -5.514
11 P3 218 -6.002
11 P3 219 -6.490
11 P3 220 -6.490
11 P3 221 -6.490
11 P3 222 -6.978
11 P3 223 -7.955
11 P3 224 -9.908
11 P3 225 -10.885
11 P3 226 -10.885
11 P3 227 -9.908
11 P3 228 -8.931
11 P3 229 -7.955
11 P3 230 -7.467
11 P3 231 -6.978
11 P3 232 -6.490
11 P3 233 -6.002
11 P3 234 -6.002
11 P3 235 -6.002
11 P3 236 -6.490
11 P3 237 -6.978
11 P3 238 -6.978
11 P3 239 -6.002
11 P3 240 -4.537
11 P3 241 -3.072
11 P3 242 -1.607
11 P3 243 -0.631
11 P3 244 -0.142
11 P3 245 -0.631
11 P3 246 -1.119
11 P3 247 -2.096
11 P3 248 -3.560
11 P3 249 -5.025
11 P3 250 -5.514
11 P3 251 -5.514
11 P3 252 -4.537
11 P3 253 -3.072
11 P3 254 -1.607
11 P3 255 -0.142
# P4 chan 23
11 P4 0 4.425
11 P4 1 3.937
11 P4 2 2.960
11 P4 3 2.472
11 P4 4 1.495
11 P4 5 1.495
11 P4 6 1.495
11 P4 7 1.984
11 P4 8 2.472
11 P4 9 2.960
11 P4 10 3.448
11 P4 11 3.448
11 P4 12 3.937
11 P4 13 4.425
11 P4 14 5.402
11 P4 15 5.402
11 P4 16 4.913
11 P4 17 3.937
11 P4 18 2.472
11 P4 19 1.007
11 P4 20 0.031
11 P4 21 -1.434
11 P4 22 -2.899
11 P4 23 -4.364
11 P4 24 -5.341
11 P4 25 -5.341
11 P4 26 -4.852
11 P4 27 -3.876
11 P4 28 -3.387
11 P4 29 -3.387
11 P4 30 -3.876
11 P4 31 -3.876
11 P4 32 -3.387
11 P4 33 -1.923
11 P4 34 -0.946
11 P4 35 -0.946
11 P4 36 -0.946
11 P4 37 -1.923
11 P4 38 -2.411
11 P4 39 -3.876
11 P4 40 -4.852
11 P4 41 -6.317
11 P4 42 -7.294
11 P4 43 -6.805
11 P4 44 -5.829
11 P4 45 -4.852
11 P4 46 -3.876
11 P4 47 -3.876
11 P4 48 -4.364
11 P4 49 -3.387
11 P4 50 -1.923
11 P4 51 0.519
11 P4 52 2.472
11 P4 53 3.448
11 P4 54 2.960
11 P4 55 2.472
11 P4 56 2.960
11 P4 57 3.937
11 P4 58 5.890
11 P4 59 6.378
11 P4 60 5.402
11 P4 61 3.448
11 P4 62 1.495
11 P4 63 1.007
11 P4 64 1.495
11 P4 65 2.960
11 P4 66 3.937
11 P4 67 3.937
11 P4 68 2.960
11 P4 69 1.984
11 P4 70 0.519
11 P4 71 -0.458
11 P4 72 -1.434
11 P4 73 -1.923
11 P4 74 -1.434
11 P4 75 -0.458
11 P4 76 0.031
11 P4 77 0.519
11 P4 78 0.519
11 P4 79 0.519
11 P4 80 1.007
11 P4 81 1.984
11 P4 82 2.960
11 P4 83 3.937
11 P4 84 4.425
11 P4 85 4.913
11 P4 86 4.913
11 P4 87 5.890
11 P4 88 7.355
11 P4 89 8.820
11 P4 90 9.796
11 P4 91 10.284
11 P4 92 9.796
11 P4 93 9.308
11 P4 94 9.308
11 P4 95 9.308
11 P4 96 9.796
11 P4 97 10.284
11 P4 98 11.749
11 P4 99 13.214
11 P4 100 14.191
11 P4 101 14.191
11 P4 102 13.702
11 P4 103 13.214
11 P4 104 12.726
11 P4 105 13.214
11 P4 106 14.679
11 P4 107 15.167
11 P4 108 15.167
11 P4 109 14.191
11 P4 110 12.726
11 P4 111 11.749
11 P4 112 10.773
11 P4 113 10.284
11 P4 114 9.308
11 P4 115 8.331
11 P4 116 7.843
11 P4 117 7.355
11 P4 118 6.866
11 P4 119 5.890
11 P4 120 4.913
11 P4 121 3.448
11 P4 122 2.960
11 P4 123 2.960
11 P4 124 2.960
11 P4 125 2.960
11 P4 126 2.472
11 P4 127 1.007
11 P4 128 -0.458
11 P4 129 -1.923
11 P4 130 -2.899
11 P4 131 -3.387
11 P4 132 -3.387
11 P4 133 -3.387
11 P4 134 -2.899
11 P4 135 -1.923
11 P4 136 0.031
11 P4 137 1.495
11 P4 138 1.984
11 P4 139 2.472
11 P4 140 1.984
11 P4 141 1.007
11 P4 142 0.031
11 P4 143 0.031
11 P4 144 0.031
11 P4 145 0.519
11 P4 146 1.007
11 P4 147 1.984
11 P4 148 2.960
11 P4 149 3.937
11 P4 150 4.425
11 P4 151 4.425
11 P4 152 3.937
11 P4 153 3.937
11 P4 154 3.448
11 P4 155 3.448
11 P4 156 3.448
11 P4 157 3.448
11 P4 158 2.960
11 P4 159 3.448
11 P4 160 3.448
11 P4 161 4.425
11 P4 162 4.425
11 P4 163 4.425
11 P4 164 3.448
11 P4 165 2.472
11 P4 166 1.495
11 P4 167 1.007
11 P4 168 0.031
11 P4 169 0.031
11 P4 170 -0.458
11 P4 171 0.031
11 P4 172 -0.458
11 P4 173 -0.458
11 P4 174 -1.923
11 P4 175 -2.411
11 P4 176 -3.387
11 P4 177 -2.899
11 P4 178 -1.923
11 P4 179 -0.458
11 P4 180 0.031
11 P4 181 -0.458
11 P4 182 -0.946
11 P4 183 -0.946
11 P4 184 -0.946
11 P4 185 0.031
11 P4 186 0.031
11 P4 187 0.031
11 P4 188 0.031
11 P4 189 -0.458
11 P4 190 -0.458
11 P4 191 -0.458
11 P4 192 -0.458
11 P4 193 -1.434
11 P4 194 -1.923
11 P4 195 -2.411
11 P4 196 -1.923
11 P4 197 -1.923
11 P4 198 -1.923
11 P4 199 -2.899
11 P4 200 -3.387
11 P4 201 -2.899
11 P4 202 -1.923
11 P4 203 -0.946
11 P4 204 -1.923
11 P4 205 -3.387
11 P4 206 -5.829
11 P4 207 -7.294
11 P4 208 -7.294
11 P4 209 -6.317
11 P4 210 -4.852
11 P4 211 -4.364
11 P4 212 -4.364
11 P4 213 -3.876
11 P4 214 -2.899
11 P4 215 -1.434
11 P4 216 0.031
11 P4 217 0.519
11 P4 218 0.519
11 P4 219 0.031
11 P4 220 -0.946
11 P4 221 -2.899
11 P4 222 -4.364
11 P4 223 -5.829
11 P4 224 -6.805
11 P4 225 -6.317
11 P4 226 -4.852
11 P4 227 -3.387
11 P4 228 -2.411
11 P4 229 -2.899
11 P4 230 -4.852
11 P4 231 -6.805
11 P4 232 -8.270
11 P4 233 -9.247
11 P4 234 -8.759
11 P4 235 -7.294
11 P4 236 -5.829
11 P4 237 -4.364
11 P4 238 -2.899
11 P4 239 -2.411
11 P4 240 -2.411
11 P4 241 -1.923
11 P4 242 -1.923
11 P4 243 -1.923
11 P4 244 -2.411
11 P4 245 -3.387
11 P4 246 -4.364
11 P4 247 -5.341
11 P4 248 -5.829
11 P4 249 -5.829
11 P4 250 -4.852
11 P4 251 -3.876
11 P4 252 -1.923
11 P4 253 -0.458
11 P4 254 0.519
11 P4 255 1.007
# PZ chan 24
11 PZ 0 1.892
11 PZ 1 0.916
11 PZ 2 0.427
11 PZ 3 -0.549
11 PZ 4 -1.038
11 PZ 5 -1.038
11 PZ 6 -0.549
11 PZ 7 -0.061
11 PZ 8 0.427
11 PZ 9 0.427
11 PZ 10 -0.061
11 PZ 11 -0.061
11 PZ 12 -0.061
11 PZ 13 0.916
11 PZ 14 1.404
11 PZ 15 1.404
11 PZ 16 0.916
11 PZ 17 0.427
11 PZ 18 -0.549
11 PZ 19 -1.038
11 PZ 20 -1.526
11 PZ 21 -2.014
11 PZ 22 -3.479
11 PZ 23 -4.944
11 PZ 24 -5.920
11 PZ 25 -5.920
11 PZ 26 -5.432
11 PZ 27 -4.944
11 PZ 28 -4.456
11 PZ 29 -4.944
11 PZ 30 -5.920
11 PZ 31 -6.409
11 PZ 32 -5.920
11 PZ 33 -4.456
11 PZ 34 -3.479
11 PZ 35 -2.502
11 PZ 36 -2.991
11 PZ 37 -3.479
11 PZ 38 -4.456
11 PZ 39 -5.432
11 PZ 40 -5.920
11 PZ 41 -6.409
11 PZ 42 -6.409
11 PZ 43 -5.920
11 PZ 44 -5.432
11 PZ 45 -4.456
11 PZ 46 -4.456
11 PZ 47 -4.944
11 PZ 48 -5.432
11 PZ 49 -4.944
11 PZ 50 -3.479
11 PZ 51 -1.038
11 PZ 52 0.916
11 PZ 53 1.892
11 PZ 54 1.892
11 PZ 55 1.404
11 PZ 56 1.892
11 PZ 57 2.380
11 PZ 58 3.357
11 PZ 59 3.845
11 PZ 60 2.869
11 PZ 61 0.916
11 PZ 62 -0.549
11 PZ 63 -1.038
11 PZ 64 -1.038
11 PZ 65 -0.549
11 PZ 66 -0.061
11 PZ 67 -0.549
11 PZ 68 -1.526
11 PZ 69 -2.502
11 PZ 70 -3.479
11 PZ 71 -3.967
11 PZ 72 -3.967
11 PZ 73 -3.967
11 PZ 74 -4.456
11 PZ 75 -4.456
11 PZ 76 -4.944
11 PZ 77 -4.456
11 PZ 78 -3.967
11 PZ 79 -3.479
11 PZ 80 -3.479
11 PZ 81 -2.502
11 PZ 82 -2.014
11 PZ 83 -1.526
11 PZ 84 -0.549
11 PZ 85 0.427
11 PZ 86 1.404
11 PZ 87 1.892
11 PZ 88 2.380
11 PZ 89 2.869
11 PZ 90 3.845
11 PZ 91 4.333
11 PZ 92 4.333
11 PZ 93 3.845
11 PZ 94 3.357
11 PZ 95 3.357
11 PZ 96 3.357
11 PZ 97 3.845
11 PZ 98 4.822
11 PZ 99 5.798
11 PZ 100 6.775
11 PZ 101 6.775
11 PZ 102 6.775
11 PZ 103 6.287
11 PZ 104 6.287
11 PZ 105 6.775
11 PZ 106 7.263
11 PZ 107 7.751
11 PZ 108 7.263
11 PZ 109 6.287
11 PZ 110 5.310
11 PZ 111 3.845
11 PZ 112 3.357
11 PZ 113 2.869
11 PZ 114 2.869
11 PZ 115 2.869
11 PZ 116 2.380
11 PZ 117 2.380
11 PZ 118 1.892
11 PZ 119 1.404
11 PZ 120 0.916
11 PZ 121 0.916
11 PZ 122 0.916
11 PZ 123 1.404
11 PZ 124 1.892
11 PZ 125 1.892
11 PZ 126 1.404
11 PZ 127 0.427
11 PZ 128 -1.038
11 PZ 129 -2.502
11 PZ 130 -3.967
11 PZ 131 -4.456
11 PZ 132 -4.456
11 PZ 133 -3.479
11 PZ 134 -2.502
11 PZ 135 -1.526
11 PZ 136 0.427
11 PZ 137 0.916
11 PZ 138 1.892
11 PZ 139 1.404
11 PZ 140 0.916
11 PZ 141 -0.549
11 PZ 142 -1.038
11 PZ 143 -1.526
11 PZ 144 -1.526
11 PZ 145 -1.038
11 PZ 146 -0.549
11 PZ 147 -0.549
11 PZ 148 0.427
11 PZ 149 0.916
11 PZ 150 1.404
11 PZ 151 1.892
11 PZ 152 1.892
11 PZ 153 1.404
11 PZ 154 1.404
11 PZ 155 0.916
11 PZ 156 1.404
11 PZ 157 1.404
11 PZ 158 1.404
11 PZ 159 1.404
11 PZ 160 1.404
11 PZ 161 1.404
11 PZ 162 1.892
11 PZ 163 2.869
11 PZ 164 3.357
11 PZ 165 3.357
11 PZ 166 2.869
11 PZ 167 1.892
11 PZ 168 0.916
11 PZ 169 0.427
11 PZ 170 0.427
11 PZ 171 0.427
11 PZ 172 -0.061
11 PZ 173 -1.038
11 PZ 174 -2.014
11 PZ 175 -2.991
11 PZ 176 -3.967
11 PZ 177 -3.479
11 PZ 178 -2.502
11 PZ 179 -2.014
11 PZ 180 -1.038
11 PZ 181 -1.038
11 PZ 182 -0.549
11 PZ 183 -0.549
11 PZ 184 0.427
11 PZ 185 0.916
11 PZ 186 0.916
11 PZ 187 1.404
11 PZ 188 0.427
11 PZ 189 0.427
11 PZ 190 -0.061
11 PZ 191 -0.061
11 PZ 192 -1.038
11 PZ 193 -2.014
11 PZ 194 -2.991
11 PZ 195 -3.479
11 PZ 196 -2.502
11 PZ 197 -2.014
11 PZ 198 -1.526
11 PZ 199 -1.038
11 PZ 200 -1.038
11 PZ 201 -1.038
11 PZ 202 -0.061
11 PZ 203 -0.061
11 PZ 204 -0.061
11 PZ 205 -0.549
11 PZ 206 -2.014
11 PZ 207 -3.479
11 PZ 208 -3.967
11 PZ 209 -4.456
11 PZ 210 -4.456
11 PZ 211 -4.944
11 PZ 212 -4.944
11 PZ 213 -4.456
11 PZ 214 -2.502
11 PZ 215 -1.526
11 PZ 216 -0.549
11 PZ 217 -0.549
11 PZ 218 -0.549
11 PZ 219 -1.038
11 PZ 220 -1.038
11 PZ 221 -1.038
11 PZ 222 -1.526
11 PZ 223 -2.991
11 PZ 224 -4.456
11 PZ 225 -4.944
11 PZ 226 -4.944
11 PZ 227 -3.967
11 PZ 228 -2.502
11 PZ 229 -2.014
11 PZ 230 -2.991
11 PZ 231 -3.967
11 PZ 232 -5.432
11 PZ 233 -5.432
11 PZ 234 -4.944
11 PZ 235 -3.479
11 PZ 236 -2.014
11 PZ 237 -1.038
11 PZ 238 -0.549
11 PZ 239 -0.061
11 PZ 240 0.916
11 PZ 241 1.892
11 PZ 242 2.380
11 PZ 243 2.869
11 PZ 244 2.869
11 PZ 245 1.892
11 PZ 246 0.916
11 PZ 247 0.427
11 PZ 248 -0.061
11 PZ 249 -0.061
11 PZ 250 -0.061
11 PZ 251 -0.061
11 PZ 252 0.916
11 PZ 253 1.892
11 PZ 254 3.357
11 PZ 255 4.333
# P8 chan 25
11 P8 0 9.613
11 P8 1 9.613
11 P8 2 8.148
11 P8 3 6.195
11 P8 4 4.242
11 P8 5 2.777
11 P8 6 2.289
11 P8 7 1.801
11 P8 8 1.801
11 P8 9 1.312
11 P8 10 1.312
11 P8 11 1.801
11 P8 12 2.777
11 P8 13 4.242
11 P8 14 5.707
11 P8 15 6.683
11 P8 16 6.195
11 P8 17 4.730
11 P8 18 3.265
11 P8 19 1.312
11 P8 20 0.336
11 P8 21 -0.641
11 P8 22 -2.106
11 P8 23 -4.059
11 P8 24 -5.035
11 P8 25 -6.012
11 P8 26 -5.035
11 P8 27 -3.571
11 P8 28 -3.082
11 P8 29 -3.571
11 P8 30 -4.547
11 P8 31 -4.547
11 P8 32 -4.059
11 P8 33 -2.594
11 P8 34 -1.129
11 P8 35 -0.641
11 P8 36 -1.129
11 P8 37 -2.106
11 P8 38 -3.082
11 P8 39 -4.547
11 P8 40 -6.012
11 P8 41 -7.965
11 P8 42 -8.942
11 P8 43 -9.430
11 P8 44 -8.942
11 P8 45 -7.965
11 P8 46 -6.989
11 P8 47 -6.989
11 P8 48 -7.477
11 P8 49 -6.989
11 P8 50 -5.035
11 P8 51 -1.617
11 P8 52 0.336
11 P8 53 1.312
11 P8 54 0.336
11 P8 55 -0.153
11 P8 56 0.336
11 P8 57 2.777
11 P8 58 5.219
11 P8 59 6.195
11 P8 60 5.219
11 P8 61 3.265
11 P8 62 1.312
11 P8 63 0.336
11 P8 64 0.824
11 P8 65 2.289
11 P8 66 3.754
11 P8 67 4.242
11 P8 68 3.265
11 P8 69 1.312
11 P8 70 -1.129
11 P8 71 -2.594
11 P8 72 -4.059
11 P8 73 -4.059
11 P8 74 -4.059
11 P8 75 -3.082
11 P8 76 -3.082
11 P8 77 -3.082
11 P8 78 -3.082
11 P8 79 -3.082
11 P8 80 -3.082
11 P8 81 -2.594
11 P8 82 -1.617
11 P8 83 -1.129
11 P8 84 0.336
11 P8 85 1.801
11 P8 86 3.754
11 P8 87 4.730
11 P8 88 5.707
11 P8 89 5.707
11 P8 90 5.707
11 P8 91 5.707
11 P8 92 6.195
11 P8 93 6.683
11 P8 94 7.172
11 P8 95 7.660
11 P8 96 8.148
11 P8 97 9.613
11 P8 98 12.054
11 P8 99 14.496
11 P8 100 15.961
11 P8 101 15.472
11 P8 102 14.008
11 P8 103 12.543
11 P8 104 12.054
11 P8 105 12.054
11 P8 106 13.031
11 P8 107 13.519
11 P8 108 13.519
11 P8 109 13.031
11 P8 110 12.543
11 P8 111 12.054
11 P8 112 11.078
11 P8 113 10.590
11 P8 114 9.613
11 P8 115 9.125
11 P8 116 8.636
11 P8 117 8.148
11 P8 118 6.683
11 P8 119 4.242
11 P8 120 2.777
11 P8 121 1.312
11 P8 122 0.824
11 P8 123 0.824
11 P8 124 0.824
11 P8 125 0.824
11 P8 126 -0.641
11 P8 127 -3.082
11 P8 128 -5.524
11 P8 129 -8.453
11 P8 130 -11.383
11 P8 131 -13.824
11 P8 132 -14.801
11 P8 133 -13.824
11 P8 134 -11.871
11 P8 135 -8.942
11 P8 136 -6.500
11 P8 137 -5.035
11 P8 138 -5.035
11 P8 139 -5.035
11 P8 140 -6.012
11 P8 141 -6.500
11 P8 142 -6.989
11 P8 143 -6.989
11 P8 144 -6.500
11 P8 145 -6.012
11 P8 146 -5.035
11 P8 147 -4.059
11 P8 148 -2.106
11 P8 149 -0.641
11 P8 150 -0.153
11 P8 151 0.336
11 P8 152 -0.153
11 P8 153 -0.641
11 P8 154 -1.129
11 P8 155 -1.129
11 P8 156 -0.641
11 P8 157 0.336
11 P8 158 0.824
11 P8 159 1.312
11 P8 160 1.801
11 P8 161 2.777
11 P8 162 2.777
11 P8 163 2.777
11 P8 164 2.289
11 P8 165 0.824
11 P8 166 -0.641
11 P8 167 -2.106
11 P8 168 -3.571
11 P8 169 -3.571
11 P8 170 -2.594
11 P8 171 -2.106
11 P8 172 -2.106
11 P8 173 -3.082
11 P8 174 -4.547
11 P8 175 -6.012
11 P8 176 -6.012
11 P8 177 -5.524
11 P8 178 -4.059
11 P8 179 -3.082
11 P8 180 -3.082
11 P8 181 -3.571
11 P8 182 -5.035
11 P8 183 -5.524
11 P8 184 -5.035
11 P8 185 -3.571
11 P8 186 -3.571
11 P8 187 -4.059
11 P8 188 -4.547
11 P8 189 -5.035
11 P8 190 -5.524
11 P8 191 -5.035
11 P8 192 -5.524
11 P8 193 -6.012
11 P8 194 -6.500
11 P8 195 -6.989
11 P8 196 -6.500
11 P8 197 -6.012
11 P8 198 -5.524
11 P8 199 -5.524
11 P8 200 -6.012
11 P8 201 -6.012
11 P8 202 -5.524
11 P8 203 -5.524
11 P8 204 -6.989
11 P8 205 -9.430
11 P8 206 -12.848
11 P8 207 -15.289
11 P8 208 -15.289
11 P8 209 -13.336
11 P8 210 -10.895
11 P8 211 -8.942
11 P8 212 -7.965
11 P8 213 -7.477
11 P8 214 -6.012
11 P8 215 -4.059
11 P8 216 -1.129
11 P8 217 -0.153
11 P8 218 -0.153
11 P8 219 -1.617
11 P8 220 -4.059
11 P8 221 -6.012
11 P8 222 -6.989
11 P8 223 -7.965
11 P8 224 -7.965
11 P8 225 -7.965
11 P8 226 -6.989
11 P8 227 -5.524
11 P8 228 -4.059
11 P8 229 -3.571
11 P8 230 -5.035
11 P8 231 -8.453
11 P8 232 -11.871
11 P8 233 -14.313
11 P8 234 -14.801
11 P8 235 -13.336
11 P8 236 -11.383
11 P8 237 -9.430
11 P8 238 -7.965
11 P8 239 -6.989
11 P8 240 -6.989
11 P8 241 -6.012
11 P8 242 -5.524
11 P8 243 -5.524
11 P8 244 -6.012
11 P8 245 -6.989
11 P8 246 -8.453
11 P8 247 -9.918
11 P8 248 -10.895
11 P8 249 -11.871
11 P8 250 -12.360
11 P8 251 -11.383
11 P8 252 -9.430
11 P8 253 -6.500
11 P8 254 -3.571
11 P8 255 -2.106
# P7 chan 26
11 P7 0 9.979
11 P7 1 7.538
11 P7 2 3.632
11 P7 3 -0.275
11 P7 4 -2.228
11 P7 5 -2.716
11 P7 6 -2.228
11 P7 7 -2.228
11 P7 8 -3.693
11 P7 9 -5.157
11 P7 10 -6.622
11 P7 11 -5.157
11 P7 12 -2.716
11 P7 13 0.702
11 P7 14 3.143
11 P7 15 3.632
11 P7 16 2.655
11 P7 17 0.214
11 P7 18 -1.740
11 P7 19 -2.716
11 P7 20 -2.228
11 P7 21 -0.763
11 P7 22 -0.275
11 P7 23 -1.251
11 P7 24 -3.204
11 P7 25 -4.669
11 P7 26 -6.134
11 P7 27 -6.134
11 P7 28 -6.622
11 P7 29 -7.111
11 P7 30 -7.599
11 P7 31 -8.087
11 P7 32 -7.111
11 P7 33 -5.157
11 P7 34 -3.693
11 P7 35 -3.693
11 P7 36 -5.157
11 P7 37 -7.599
11 P7 38 -10.529
11 P7 39 -13.458
11 P7 40 -15.900
11 P7 41 -16.876
11 P7 42 -16.876
11 P7 43 -14.923
11 P7 44 -11.993
11 P7 45 -9.064
11 P7 46 -7.599
11 P7 47 -7.111
11 P7 48 -6.622
11 P7 49 -6.134
11 P7 50 -4.181
11 P7 51 -1.740
11 P7 52 1.190
11 P7 53 3.143
11 P7 54 4.608
11 P7 55 5.585
11 P7 56 6.561
11 P7 57 8.514
11 P7 58 9.491
11 P7 59 8.514
11 P7 60 5.585
11 P7 61 1.678
11 P7 62 -2.228
11 P7 63 -4.181
11 P7 64 -3.693
11 P7 65 -2.716
11 P7 66 -2.228
11 P7 67 -3.204
11 P7 68 -6.134
11 P7 69 -8.575
11 P7 70 -10.040
11 P7 71 -9.552
11 P7 72 -7.599
11 P7 73 -6.134
11 P7 74 -5.646
11 P7 75 -6.622
11 P7 76 -8.087
11 P7 77 -9.064
11 P7 78 -9.064
11 P7 79 -9.064
11 P7 80 -9.064
11 P7 81 -9.064
11 P7 82 -8.087
11 P7 83 -6.134
11 P7 84 -3.204
11 P7 85 0.214
11 P7 86 2.655
11 P7 87 3.632
11 P7 88 2.655
11 P7 89 0.702
11 P7 90 -1.740
11 P7 91 -3.204
11 P7 92 -3.693
11 P7 93 -2.228
11 P7 94 0.214
11 P7 95 3.143
11 P7 96 5.585
11 P7 97 7.538
11 P7 98 8.514
11 P7 99 8.514
11 P7 100 8.026
11 P7 101 7.538
11 P7 102 7.050
11 P7 103 7.050
11 P7 104 7.050
11 P7 105 7.050
11 P7 106 7.050
11 P7 107 6.561
11 P7 108 5.585
11 P7 109 4.608
11 P7 110 3.632
11 P7 111 3.632
11 P7 112 3.632
11 P7 113 3.632
11 P7 114 3.143
11 P7 115 2.167
11 P7 116 1.190
11 P7 117 0.214
11 P7 118 0.214
11 P7 119 0.702
11 P7 120 2.167
11 P7 121 3.143
11 P7 122 3.632
11 P7 123 3.143
11 P7 124 2.655
11 P7 125 1.190
11 P7 126 -0.275
11 P7 127 -1.740
11 P7 128 -2.716
11 P7 129 -4.181
11 P7 130 -6.134
11 P7 131 -8.087
11 P7 132 -9.552
11 P7 133 -10.529
11 P7 134 -10.529
11 P7 135 -9.552
11 P7 136 -8.087
11 P7 137 -6.134
11 P7 138 -4.669
11 P7 139 -5.157
11 P7 140 -6.622
11 P7 141 -8.087
11 P7 142 -9.064
11 P7 143 -9.064
11 P7 144 -7.599
11 P7 145 -5.646
11 P7 146 -4.181
11 P7 147 -4.181
11 P7 148 -4.181
11 P7 149 -4.669
11 P7 150 -4.181
11 P7 151 -3.693
11 P7 152 -3.204
11 P7 153 -2.716
11 P7 154 -1.740
11 P7 155 -1.740
11 P7 156 -1.740
11 P7 157 -2.228
11 P7 158 -3.204
11 P7 159 -4.181
11 P7 160 -4.181
11 P7 161 -2.228
11 P7 162 1.190
11 P7 163 4.608
11 P7 164 6.073
11 P7 165 4.608
11 P7 166 0.702
11 P7 167 -3.693
11 P7 168 -7.111
11 P7 169 -8.087
11 P7 170 -7.599
11 P7 171 -7.111
11 P7 172 -7.599
11 P7 173 -8.575
11 P7 174 -10.040
11 P7 175 -10.529
11 P7 176 -11.017
11 P7 177 -10.529
11 P7 178 -10.040
11 P7 179 -8.575
11 P7 180 -6.622
11 P7 181 -4.181
11 P7 182 -2.228
11 P7 183 -1.251
11 P7 184 -0.763
11 P7 185 -0.763
11 P7 186 -0.763
11 P7 187 -1.740
11 P7 188 -3.204
11 P7 189 -5.646
11 P7 190 -9.064
11 P7 191 -12.970
11 P7 192 -15.900
11 P7 193 -17.365
11 P7 194 -16.876
11 P7 195 -15.411
11 P7 196 -12.970
11 P7 197 -10.040
11 P7 198 -8.087
11 P7 199 -6.622
11 P7 200 -6.134
11 P7 201 -6.622
11 P7 202 -7.599
11 P7 203 -9.064
11 P7 204 -11.017
11 P7 205 -13.947
11 P7 206 -16.876
11 P7 207 -20.782
11 P7 208 -23.712
11 P7 209 -25.665
11 P7 210 -26.642
11 P7 211 -26.154
11 P7 212 -24.200
11 P7 213 -21.759
11 P7 214 -18.829
11 P7 215 -15.900
11 P7 216 -13.947
11 P7 217 -12.970
11 P7 218 -12.970
11 P7 219 -13.947
11 P7 220 -14.923
11 P7 221 -16.876
11 P7 222 -17.853
11 P7 223 -18.829
11 P7 224 -19.318
11 P7 225 -18.829
11 P7 226 -18.341
11 P7 227 -16.876
11 P7 228 -15.411
11 P7 229 -13.458
11 P7 230 -11.505
11 P7 231 -10.040
11 P7 232 -9.552
11 P7 233 -10.529
11 P7 234 -12.482
11 P7 235 -14.923
11 P7 236 -17.365
11 P7 237 -18.829
11 P7 238 -19.318
11 P7 239 -19.318
11 P7 240 -18.829
11 P7 241 -17.853
11 P7 242 -16.876
11 P7 243 -14.923
11 P7 244 -12.970
11 P7 245 -10.529
11 P7 246 -9.064
11 P7 247 -9.064
11 P7 248 -11.017
11 P7 249 -13.458
11 P7 250 -16.388
11 P7 251 -17.365
11 P7 252 -15.900
11 P7 253 -12.970
11 P7 254 -9.552
11 P7 255 -7.111
# PO2 chan 27
11 PO2 0 4.069
11 PO2 1 2.116
11 PO2 2 0.163
11 PO2 3 -1.302
11 PO2 4 -1.790
11 PO2 5 -1.302
11 PO2 6 -0.326
11 PO2 7 0.651
11 PO2 8 1.139
11 PO2 9 1.139
11 PO2 10 1.139
11 PO2 11 1.628
11 PO2 12 2.604
11 PO2 13 4.557
11 PO2 14 6.022
11 PO2 15 6.022
11 PO2 16 5.534
11 PO2 17 4.069
11 PO2 18 2.604
11 PO2 19 1.139
11 PO2 20 0.163
11 PO2 21 -0.814
11 PO2 22 -2.767
11 PO2 23 -5.208
11 PO2 24 -7.650
11 PO2 25 -8.626
11 PO2 26 -8.138
11 PO2 27 -7.161
11 PO2 28 -6.673
11 PO2 29 -7.650
11 PO2 30 -8.626
11 PO2 31 -9.603
11 PO2 32 -9.115
11 PO2 33 -7.161
11 PO2 34 -5.208
11 PO2 35 -4.232
11 PO2 36 -4.232
11 PO2 37 -4.232
11 PO2 38 -4.232
11 PO2 39 -4.232
11 PO2 40 -4.720
11 PO2 41 -5.697
11 PO2 42 -7.161
11 PO2 43 -7.650
11 PO2 44 -7.161
11 PO2 45 -6.185
11 PO2 46 -5.697
11 PO2 47 -5.697
11 PO2 48 -6.185
11 PO2 49 -5.697
11 PO2 50 -3.743
11 PO2 51 -0.814
11 PO2 52 2.604
11 PO2 53 5.046
11 PO2 54 5.046
11 PO2 55 4.557
11 PO2 56 4.557
11 PO2 57 5.534
11 PO2 58 6.999
11 PO2 59 7.975
11 PO2 60 6.999
11 PO2 61 5.046
11 PO2 62 2.116
11 PO2 63 0.651
11 PO2 64 0.163
11 PO2 65 1.139
11 PO2 66 1.628
11 PO2 67 1.139
11 PO2 68 0.163
11 PO2 69 -1.302
11 PO2 70 -2.767
11 PO2 71 -3.743
11 PO2 72 -3.743
11 PO2 73 -3.743
11 PO2 74 -3.743
11 PO2 75 -3.255
11 PO2 76 -2.767
11 PO2 77 -2.767
11 PO2 78 -2.279
11 PO2 79 -2.279
11 PO2 80 -1.790
11 PO2 81 -1.302
11 PO2 82 -0.814
11 PO2 83 -0.326
11 PO2 84 0.651
11 PO2 85 1.139
11 PO2 86 1.628
11 PO2 87 2.604
11 PO2 88 3.581
11 PO2 89 5.046
11 PO2 90 6.510
11 PO2 91 6.510
11 PO2 92 6.022
11 PO2 93 5.046
11 PO2 94 4.069
11 PO2 95 3.581
11 PO2 96 4.069
11 PO2 97 5.046
11 PO2 98 6.510
11 PO2 99 8.464
11 PO2 100 9.928
11 PO2 101 10.417
11 PO2 102 10.417
11 PO2 103 9.440
11 PO2 104 8.952
11 PO2 105 8.952
11 PO2 106 9.440
11 PO2 107 10.417
11 PO2 108 11.393
11 PO2 109 11.393
11 PO2 110 9.928
11 PO2 111 7.975
11 PO2 112 6.022
11 PO2 113 4.557
11 PO2 114 4.069
11 PO2 115 4.557
11 PO2 116 5.046
11 PO2 117 4.557
11 PO2 118 3.092
11 PO2 119 1.139
11 PO2 120 -0.326
11 PO2 121 -1.302
11 PO2 122 -1.790
11 PO2 123 -1.302
11 PO2 124 -0.814
11 PO2 125 0.163
11 PO2 126 0.163
11 PO2 127 -0.814
11 PO2 128 -2.767
11 PO2 129 -5.208
11 PO2 130 -7.650
11 PO2 131 -9.603
11 PO2 132 -10.579
11 PO2 133 -9.603
11 PO2 134 -7.650
11 PO2 135 -5.208
11 PO2 136 -3.255
11 PO2 137 -0.814
11 PO2 138 0.651
11 PO2 139 0.163
11 PO2 140 -0.814
11 PO2 141 -3.255
11 PO2 142 -4.720
11 PO2 143 -4.720
11 PO2 144 -3.743
11 PO2 145 -3.255
11 PO2 146 -2.767
11 PO2 147 -2.767
11 PO2 148 -2.279
11 PO2 149 -1.790
11 PO2 150 -0.814
11 PO2 151 0.163
11 PO2 152 0.651
11 PO2 153 0.163
11 PO2 154 -0.814
11 PO2 155 -1.302
11 PO2 156 -1.302
11 PO2 157 -0.814
11 PO2 158 0.163
11 PO2 159 0.651
11 PO2 160 0.651
11 PO2 161 1.139
11 PO2 162 1.139
11 PO2 163 1.628
11 PO2 164 1.139
11 PO2 165 -0.326
11 PO2 166 -2.279
11 PO2 167 -4.232
11 PO2 168 -5.697
11 PO2 169 -6.185
11 PO2 170 -6.673
11 PO2 171 -6.673
11 PO2 172 -7.161
11 PO2 173 -7.650
11 PO2 174 -9.115
11 PO2 175 -9.603
11 PO2 176 -10.091
11 PO2 177 -9.603
11 PO2 178 -8.138
11 PO2 179 -6.185
11 PO2 180 -4.720
11 PO2 181 -3.743
11 PO2 182 -3.743
11 PO2 183 -4.232
11 PO2 184 -4.232
11 PO2 185 -3.255
11 PO2 186 -2.279
11 PO2 187 -1.790
11 PO2 188 -1.790
11 PO2 189 -2.767
11 PO2 190 -4.720
11 PO2 191 -6.185
11 PO2 192 -7.650
11 PO2 193 -8.626
11 PO2 194 -9.115
11 PO2 195 -9.115
11 PO2 196 -8.138
11 PO2 197 -8.138
11 PO2 198 -7.650
11 PO2 199 -8.138
11 PO2 200 -7.650
11 PO2 201 -7.161
11 PO2 202 -5.697
