# co2a0000439.rd
# 120 trials, 64 chans, 416 samples 368 post_stim samples
# 3.906000 msecs uV
# S2 match err , trial 77
# FP1 chan 0
77 FP1 0 6.287
77 FP1 1 6.775
77 FP1 2 7.751
77 FP1 3 7.751
77 FP1 4 7.263
77 FP1 5 7.263
77 FP1 6 8.240
77 FP1 7 8.240
77 FP1 8 7.263
77 FP1 9 3.845
77 FP1 10 -0.549
77 FP1 11 -2.991
77 FP1 12 0.427
77 FP1 13 9.216
77 FP1 14 19.958
77 FP1 15 26.794
77 FP1 16 25.330
77 FP1 17 17.029
77 FP1 18 6.775
77 FP1 19 1.404
77 FP1 20 0.916
77 FP1 21 3.845
77 FP1 22 5.798
77 FP1 23 4.822
77 FP1 24 2.380
77 FP1 25 0.916
77 FP1 26 1.892
77 FP1 27 3.845
77 FP1 28 5.310
77 FP1 29 5.798
77 FP1 30 6.775
77 FP1 31 8.240
77 FP1 32 8.728
77 FP1 33 7.751
77 FP1 34 4.822
77 FP1 35 1.404
77 FP1 36 -1.038
77 FP1 37 -2.014
77 FP1 38 -2.502
77 FP1 39 -3.967
77 FP1 40 -6.897
77 FP1 41 -8.362
77 FP1 42 -7.874
77 FP1 43 -5.920
77 FP1 44 -3.479
77 FP1 45 -1.038
77 FP1 46 0.427
77 FP1 47 -0.061
77 FP1 48 -1.526
77 FP1 49 -4.456
77 FP1 50 -7.385
77 FP1 51 -7.385
77 FP1 52 -4.456
77 FP1 53 -0.061
77 FP1 54 3.357
77 FP1 55 2.869
77 FP1 56 -0.061
77 FP1 57 -2.502
77 FP1 58 -2.502
77 FP1 59 0.916
77 FP1 60 4.333
77 FP1 61 4.333
77 FP1 62 0.427
77 FP1 63 -3.967
77 FP1 64 -4.456
77 FP1 65 0.916
77 FP1 66 9.705
77 FP1 67 17.029
77 FP1 68 16.541
77 FP1 69 8.240
77 FP1 70 -3.479
77 FP1 71 -10.803
77 FP1 72 -7.874
77 FP1 73 5.310
77 FP1 74 21.423
77 FP1 75 30.701
77 FP1 76 27.771
77 FP1 77 16.052
77 FP1 78 4.822
77 FP1 79 1.404
77 FP1 80 6.287
77 FP1 81 14.587
77 FP1 82 18.005
77 FP1 83 14.587
77 FP1 84 8.728
77 FP1 85 6.287
77 FP1 86 9.216
77 FP1 87 14.099
77 FP1 88 15.076
77 FP1 89 12.146
77 FP1 90 8.728
77 FP1 91 10.193
77 FP1 92 15.564
77 FP1 93 20.447
77 FP1 94 18.982
77 FP1 95 11.658
77 FP1 96 3.357
77 FP1 97 0.427
77 FP1 98 4.333
77 FP1 99 11.658
77 FP1 100 16.541
77 FP1 101 16.052
77 FP1 102 10.681
77 FP1 103 3.845
77 FP1 104 -2.014
77 FP1 105 -3.967
77 FP1 106 -1.038
77 FP1 107 6.775
77 FP1 108 17.517
77 FP1 109 25.818
77 FP1 110 26.794
77 FP1 111 19.958
77 FP1 112 9.216
77 FP1 113 1.892
77 FP1 114 1.892
77 FP1 115 8.240
77 FP1 116 14.587
77 FP1 117 15.076
77 FP1 118 8.728
77 FP1 119 0.427
77 FP1 120 -4.456
77 FP1 121 -3.479
77 FP1 122 0.916
77 FP1 123 4.333
77 FP1 124 5.310
77 FP1 125 4.333
77 FP1 126 5.310
77 FP1 127 8.728
77 FP1 128 12.634
77 FP1 129 12.634
77 FP1 130 6.775
77 FP1 131 -2.991
77 FP1 132 -8.850
77 FP1 133 -7.385
77 FP1 134 1.404
77 FP1 135 10.681
77 FP1 136 14.099
77 FP1 137 9.216
77 FP1 138 0.427
77 FP1 139 -4.944
77 FP1 140 -2.502
77 FP1 141 5.310
77 FP1 142 12.634
77 FP1 143 13.123
77 FP1 144 6.775
77 FP1 145 -0.549
77 FP1 146 -1.038
77 FP1 147 6.775
77 FP1 148 18.005
77 FP1 149 23.865
77 FP1 150 20.447
77 FP1 151 10.681
77 FP1 152 2.380
77 FP1 153 0.427
77 FP1 154 4.333
77 FP1 155 8.728
77 FP1 156 8.728
77 FP1 157 5.798
77 FP1 158 2.869
77 FP1 159 4.333
77 FP1 160 9.216
77 FP1 161 13.611
77 FP1 162 14.099
77 FP1 163 10.681
77 FP1 164 4.822
77 FP1 165 0.427
77 FP1 166 -1.526
77 FP1 167 -1.038
77 FP1 168 -0.061
77 FP1 169 -0.549
77 FP1 170 -3.967
77 FP1 171 -8.850
77 FP1 172 -11.780
77 FP1 173 -10.803
77 FP1 174 -2.991
77 FP1 175 6.287
77 FP1 176 12.146
77 FP1 177 8.728
77 FP1 178 -1.038
77 FP1 179 -11.292
77 FP1 180 -15.198
77 FP1 181 -10.803
77 FP1 182 -2.502
77 FP1 183 2.869
77 FP1 184 1.404
77 FP1 185 -2.502
77 FP1 186 -3.479
77 FP1 187 1.892
77 FP1 188 10.681
77 FP1 189 15.564
77 FP1 190 12.634
77 FP1 191 4.333
77 FP1 192 -2.014
77 FP1 193 -2.014
77 FP1 194 3.845
77 FP1 195 9.216
77 FP1 196 9.705
77 FP1 197 5.310
77 FP1 198 0.427
77 FP1 199 -2.502
77 FP1 200 -3.967
77 FP1 201 -4.456
77 FP1 202 -4.944
77 FP1 203 -2.502
77 FP1 204 3.357
77 FP1 205 9.216
77 FP1 206 9.216
77 FP1 207 2.380
77 FP1 208 -7.385
77 FP1 209 -10.803
77 FP1 210 -3.479
77 FP1 211 9.705
77 FP1 212 18.005
77 FP1 213 13.611
77 FP1 214 -2.502
77 FP1 215 -18.616
77 FP1 216 -22.522
77 FP1 217 -11.292
77 FP1 218 6.287
77 FP1 219 18.005
77 FP1 220 15.076
77 FP1 221 1.892
77 FP1 222 -11.292
77 FP1 223 -15.198
77 FP1 224 -8.850
77 FP1 225 0.916
77 FP1 226 6.287
77 FP1 227 5.798
77 FP1 228 1.404
77 FP1 229 -1.526
77 FP1 230 -2.014
77 FP1 231 -1.038
77 FP1 232 0.427
77 FP1 233 2.380
77 FP1 234 6.287
77 FP1 235 13.123
77 FP1 236 18.005
77 FP1 237 17.517
77 FP1 238 11.169
77 FP1 239 2.869
77 FP1 240 -1.526
77 FP1 241 0.427
77 FP1 242 6.287
77 FP1 243 11.169
77 FP1 244 11.658
77 FP1 245 9.705
77 FP1 246 9.216
77 FP1 247 11.658
77 FP1 248 15.076
77 FP1 249 14.587
77 FP1 250 8.728
77 FP1 251 3.845
77 FP1 252 6.775
77 FP1 253 20.447
77 FP1 254 38.025
77 FP1 255 44.861
# FP2 chan 1
77 FP2 0 -1.343
77 FP2 1 2.563
77 FP2 2 8.423
77 FP2 3 10.864
77 FP2 4 7.935
77 FP2 5 1.587
77 FP2 6 -3.296
77 FP2 7 -3.296
77 FP2 8 1.099
77 FP2 9 5.005
77 FP2 10 5.981
77 FP2 11 4.517
77 FP2 12 3.540
77 FP2 13 5.981
77 FP2 14 9.888
77 FP2 15 13.306
77 FP2 16 11.841
77 FP2 17 6.470
77 FP2 18 1.587
77 FP2 19 0.122
77 FP2 20 2.075
77 FP2 21 5.005
77 FP2 22 4.517
77 FP2 23 0.610
77 FP2 24 -4.272
77 FP2 25 -6.714
77 FP2 26 -5.249
77 FP2 27 -0.854
77 FP2 28 2.075
77 FP2 29 3.052
77 FP2 30 1.099
77 FP2 31 -1.343
77 FP2 32 -2.319
77 FP2 33 -2.319
77 FP2 34 -1.343
77 FP2 35 -1.831
77 FP2 36 -4.272
77 FP2 37 -9.155
77 FP2 38 -13.062
77 FP2 39 -14.526
77 FP2 40 -12.085
77 FP2 41 -7.690
77 FP2 42 -3.296
77 FP2 43 -1.831
77 FP2 44 -2.808
77 FP2 45 -5.249
77 FP2 46 -6.226
77 FP2 47 -6.226
77 FP2 48 -7.202
77 FP2 49 -9.644
77 FP2 50 -12.573
77 FP2 51 -12.573
77 FP2 52 -7.202
77 FP2 53 2.075
77 FP2 54 9.888
77 FP2 55 12.329
77 FP2 56 7.446
77 FP2 57 -1.343
77 FP2 58 -9.155
77 FP2 59 -11.597
77 FP2 60 -9.155
77 FP2 61 -5.249
77 FP2 62 -2.808
77 FP2 63 -3.784
77 FP2 64 -5.249
77 FP2 65 -3.784
77 FP2 66 0.610
77 FP2 67 6.470
77 FP2 68 10.376
77 FP2 69 8.423
77 FP2 70 3.052
77 FP2 71 -2.319
77 FP2 72 -2.808
77 FP2 73 3.540
77 FP2 74 12.817
77 FP2 75 18.677
77 FP2 76 16.724
77 FP2 77 7.935
77 FP2 78 -1.831
77 FP2 79 -7.202
77 FP2 80 -4.272
77 FP2 81 3.540
77 FP2 82 10.864
77 FP2 83 14.771
77 FP2 84 12.817
77 FP2 85 8.423
77 FP2 86 5.493
77 FP2 87 4.028
77 FP2 88 4.028
77 FP2 89 3.052
77 FP2 90 1.099
77 FP2 91 -1.343
77 FP2 92 -1.831
77 FP2 93 0.122
77 FP2 94 3.052
77 FP2 95 5.005
77 FP2 96 4.028
77 FP2 97 1.099
77 FP2 98 -0.854
77 FP2 99 0.610
77 FP2 100 5.493
77 FP2 101 11.353
77 FP2 102 13.306
77 FP2 103 8.911
77 FP2 104 1.099
77 FP2 105 -4.761
77 FP2 106 -4.761
77 FP2 107 1.587
77 FP2 108 10.376
77 FP2 109 15.259
77 FP2 110 13.794
77 FP2 111 6.958
77 FP2 112 -0.366
77 FP2 113 -3.784
77 FP2 114 -1.831
77 FP2 115 3.052
77 FP2 116 7.935
77 FP2 117 11.353
77 FP2 118 11.353
77 FP2 119 9.399
77 FP2 120 6.958
77 FP2 121 5.493
77 FP2 122 4.028
77 FP2 123 2.075
77 FP2 124 -1.343
77 FP2 125 -4.272
77 FP2 126 -6.714
77 FP2 127 -7.202
77 FP2 128 -5.737
77 FP2 129 -4.272
77 FP2 130 -4.761
77 FP2 131 -6.226
77 FP2 132 -7.202
77 FP2 133 -5.737
77 FP2 134 -1.343
77 FP2 135 2.563
77 FP2 136 2.563
77 FP2 137 -1.343
77 FP2 138 -7.202
77 FP2 139 -10.132
77 FP2 140 -7.202
77 FP2 141 1.099
77 FP2 142 8.911
77 FP2 143 10.864
77 FP2 144 5.493
77 FP2 145 -1.831
77 FP2 146 -6.226
77 FP2 147 -2.808
77 FP2 148 5.493
77 FP2 149 13.306
77 FP2 150 15.747
77 FP2 151 12.329
77 FP2 152 6.470
77 FP2 153 2.075
77 FP2 154 0.610
77 FP2 155 0.122
77 FP2 156 -2.319
77 FP2 157 -6.226
77 FP2 158 -7.690
77 FP2 159 -4.272
77 FP2 160 3.540
77 FP2 161 11.841
77 FP2 162 13.306
77 FP2 163 6.958
77 FP2 164 -4.272
77 FP2 165 -13.062
77 FP2 166 -14.526
77 FP2 167 -9.155
77 FP2 168 -2.808
77 FP2 169 -2.808
77 FP2 170 -9.155
77 FP2 171 -17.944
77 FP2 172 -21.851
77 FP2 173 -17.944
77 FP2 174 -9.644
77 FP2 175 -2.808
77 FP2 176 -1.831
77 FP2 177 -4.761
77 FP2 178 -7.690
77 FP2 179 -7.202
77 FP2 180 -4.272
77 FP2 181 -3.296
77 FP2 182 -6.226
77 FP2 183 -10.620
77 FP2 184 -11.108
77 FP2 185 -5.737
77 FP2 186 4.517
77 FP2 187 12.329
77 FP2 188 12.329
77 FP2 189 4.517
77 FP2 190 -6.226
77 FP2 191 -13.062
77 FP2 192 -12.085
77 FP2 193 -4.272
77 FP2 194 5.005
77 FP2 195 11.353
77 FP2 196 11.841
77 FP2 197 6.470
77 FP2 198 -1.343
77 FP2 199 -8.179
77 FP2 200 -11.108
77 FP2 201 -10.620
77 FP2 202 -6.714
77 FP2 203 -3.296
77 FP2 204 -2.319
77 FP2 205 -5.249
77 FP2 206 -8.667
77 FP2 207 -10.620
77 FP2 208 -8.667
77 FP2 209 -4.272
77 FP2 210 1.099
77 FP2 211 4.028
77 FP2 212 4.517
77 FP2 213 2.563
77 FP2 214 -0.854
77 FP2 215 -5.249
77 FP2 216 -9.155
77 FP2 217 -10.132
77 FP2 218 -8.179
77 FP2 219 -3.296
77 FP2 220 0.610
77 FP2 221 1.099
77 FP2 222 -2.808
77 FP2 223 -7.690
77 FP2 224 -10.132
77 FP2 225 -8.667
77 FP2 226 -4.761
77 FP2 227 -1.831
77 FP2 228 -0.854
77 FP2 229 -0.854
77 FP2 230 -1.343
77 FP2 231 -1.343
77 FP2 232 -1.831
77 FP2 233 -2.319
77 FP2 234 -2.808
77 FP2 235 -1.831
77 FP2 236 1.099
77 FP2 237 3.540
77 FP2 238 3.052
77 FP2 239 -0.854
77 FP2 240 -5.249
77 FP2 241 -6.714
77 FP2 242 -3.784
77 FP2 243 2.563
77 FP2 244 8.423
77 FP2 245 11.841
77 FP2 246 12.817
77 FP2 247 12.329
77 FP2 248 10.864
77 FP2 249 7.935
77 FP2 250 2.563
77 FP2 251 -2.319
77 FP2 252 -1.831
77 FP2 253 5.005
77 FP2 254 16.235
77 FP2 255 23.071
# F7 chan 2
77 F7 0 6.297
77 F7 1 2.879
77 F7 2 0.437
77 F7 3 -1.027
77 F7 4 -2.004
77 F7 5 -0.539
77 F7 6 3.855
77 F7 7 10.203
77 F7 8 15.086
77 F7 9 15.574
77 F7 10 11.180
77 F7 11 5.809
77 F7 12 1.902
77 F7 13 2.879
77 F7 14 8.250
77 F7 15 12.644
77 F7 16 14.598
77 F7 17 12.156
77 F7 18 9.226
77 F7 19 8.250
77 F7 20 9.226
77 F7 21 10.691
77 F7 22 10.203
77 F7 23 7.273
77 F7 24 3.855
77 F7 25 2.879
77 F7 26 5.320
77 F7 27 9.226
77 F7 28 12.644
77 F7 29 12.644
77 F7 30 10.691
77 F7 31 7.273
77 F7 32 5.809
77 F7 33 5.320
77 F7 34 6.297
77 F7 35 6.785
77 F7 36 4.832
77 F7 37 0.926
77 F7 38 -2.492
77 F7 39 -3.957
77 F7 40 -2.004
77 F7 41 0.926
77 F7 42 2.391
77 F7 43 1.414
77 F7 44 -2.004
77 F7 45 -5.910
77 F7 46 -6.887
77 F7 47 -5.422
77 F7 48 -2.492
77 F7 49 -1.516
77 F7 50 -2.004
77 F7 51 -3.469
77 F7 52 -3.469
77 F7 53 -1.027
77 F7 54 2.391
77 F7 55 5.809
77 F7 56 5.809
77 F7 57 3.855
77 F7 58 1.414
77 F7 59 0.437
77 F7 60 0.926
77 F7 61 2.879
77 F7 62 4.344
77 F7 63 5.320
77 F7 64 5.809
77 F7 65 6.785
77 F7 66 8.738
77 F7 67 10.691
77 F7 68 12.156
77 F7 69 12.156
77 F7 70 11.180
77 F7 71 10.691
77 F7 72 10.691
77 F7 73 12.156
77 F7 74 14.598
77 F7 75 16.062
77 F7 76 17.527
77 F7 77 18.504
77 F7 78 18.504
77 F7 79 18.016
77 F7 80 15.574
77 F7 81 13.133
77 F7 82 11.180
77 F7 83 11.180
77 F7 84 14.109
77 F7 85 18.016
77 F7 86 20.945
77 F7 87 21.922
77 F7 88 20.457
77 F7 89 18.016
77 F7 90 16.062
77 F7 91 16.062
77 F7 92 16.551
77 F7 93 16.551
77 F7 94 15.086
77 F7 95 13.133
77 F7 96 11.180
77 F7 97 9.715
77 F7 98 9.715
77 F7 99 10.203
77 F7 100 12.156
77 F7 101 13.621
77 F7 102 14.109
77 F7 103 13.621
77 F7 104 11.668
77 F7 105 9.715
77 F7 106 9.715
77 F7 107 12.156
77 F7 108 15.574
77 F7 109 18.016
77 F7 110 18.504
77 F7 111 17.039
77 F7 112 15.086
77 F7 113 14.598
77 F7 114 16.062
77 F7 115 17.527
77 F7 116 17.039
77 F7 117 15.574
77 F7 118 13.621
77 F7 119 14.109
77 F7 120 17.039
77 F7 121 20.945
77 F7 122 21.922
77 F7 123 18.016
77 F7 124 11.180
77 F7 125 4.832
77 F7 126 2.391
77 F7 127 5.809
77 F7 128 10.691
77 F7 129 14.109
77 F7 130 12.156
77 F7 131 7.273
77 F7 132 2.879
77 F7 133 2.879
77 F7 134 6.785
77 F7 135 12.156
77 F7 136 14.598
77 F7 137 12.644
77 F7 138 9.226
77 F7 139 6.785
77 F7 140 7.762
77 F7 141 10.691
77 F7 142 12.644
77 F7 143 12.156
77 F7 144 9.715
77 F7 145 7.273
77 F7 146 6.785
77 F7 147 8.250
77 F7 148 9.715
77 F7 149 10.691
77 F7 150 10.203
77 F7 151 9.715
77 F7 152 9.715
77 F7 153 10.691
77 F7 154 12.156
77 F7 155 13.133
77 F7 156 12.644
77 F7 157 11.180
77 F7 158 9.226
77 F7 159 8.738
77 F7 160 9.715
77 F7 161 11.668
77 F7 162 13.133
77 F7 163 12.156
77 F7 164 8.738
77 F7 165 3.855
77 F7 166 1.414
77 F7 167 2.879
77 F7 168 8.250
77 F7 169 12.156
77 F7 170 11.180
77 F7 171 4.832
77 F7 172 -2.981
77 F7 173 -6.887
77 F7 174 -4.445
77 F7 175 2.391
77 F7 176 8.738
77 F7 177 10.691
77 F7 178 8.250
77 F7 179 3.855
77 F7 180 1.414
77 F7 181 2.391
77 F7 182 4.832
77 F7 183 7.273
77 F7 184 8.250
77 F7 185 8.738
77 F7 186 10.203
77 F7 187 12.644
77 F7 188 16.062
77 F7 189 18.504
77 F7 190 19.480
77 F7 191 18.016
77 F7 192 15.086
77 F7 193 11.180
77 F7 194 8.250
77 F7 195 7.762
77 F7 196 8.738
77 F7 197 10.691
77 F7 198 12.156
77 F7 199 12.156
77 F7 200 9.715
77 F7 201 7.762
77 F7 202 6.297
77 F7 203 6.297
77 F7 204 6.785
77 F7 205 6.785
77 F7 206 6.297
77 F7 207 5.809
77 F7 208 4.832
77 F7 209 4.832
77 F7 210 5.320
77 F7 211 5.809
77 F7 212 6.297
77 F7 213 6.297
77 F7 214 5.809
77 F7 215 4.832
77 F7 216 3.367
77 F7 217 2.879
77 F7 218 3.855
77 F7 219 5.809
77 F7 220 7.273
77 F7 221 8.250
77 F7 222 7.273
77 F7 223 5.809
77 F7 224 4.832
77 F7 225 4.344
77 F7 226 5.320
77 F7 227 6.785
77 F7 228 7.273
77 F7 229 7.273
77 F7 230 6.297
77 F7 231 6.297
77 F7 232 8.738
77 F7 233 12.644
77 F7 234 16.551
77 F7 235 17.527
77 F7 236 15.574
77 F7 237 11.180
77 F7 238 7.273
77 F7 239 6.297
77 F7 240 6.785
77 F7 241 8.250
77 F7 242 9.226
77 F7 243 10.203
77 F7 244 12.644
77 F7 245 17.039
77 F7 246 21.922
77 F7 247 23.387
77 F7 248 19.969
77 F7 249 13.133
77 F7 250 7.273
77 F7 251 7.273
77 F7 252 13.621
77 F7 253 24.363
77 F7 254 32.176
77 F7 255 32.176
# F8 chan 3
77 F8 0 -4.557
77 F8 1 -3.581
77 F8 2 -0.651
77 F8 3 2.279
77 F8 4 2.767
77 F8 5 -0.163
77 F8 6 -4.557
77 F8 7 -6.999
77 F8 8 -5.534
77 F8 9 -2.116
77 F8 10 0.326
77 F8 11 0.326
77 F8 12 -0.651
77 F8 13 0.814
77 F8 14 5.208
77 F8 15 11.068
77 F8 16 13.509
77 F8 17 10.579
77 F8 18 4.720
77 F8 19 0.326
77 F8 20 0.326
77 F8 21 2.767
77 F8 22 4.232
77 F8 23 2.279
77 F8 24 -2.604
77 F8 25 -5.534
77 F8 26 -3.581
77 F8 27 3.255
77 F8 28 8.626
77 F8 29 9.115
77 F8 30 2.767
77 F8 31 -5.046
77 F8 32 -9.440
77 F8 33 -7.487
77 F8 34 -2.116
77 F8 35 -0.163
77 F8 36 -5.046
77 F8 37 -14.811
77 F8 38 -24.089
77 F8 39 -26.042
77 F8 40 -21.159
77 F8 41 -13.346
77 F8 42 -7.487
77 F8 43 -6.510
77 F8 44 -9.440
77 F8 45 -11.393
77 F8 46 -10.905
77 F8 47 -7.975
77 F8 48 -5.046
77 F8 49 -5.046
77 F8 50 -6.999
77 F8 51 -9.440
77 F8 52 -9.440
77 F8 53 -6.999
77 F8 54 -3.092
77 F8 55 -0.651
77 F8 56 -0.163
77 F8 57 -1.628
77 F8 58 -4.069
77 F8 59 -6.022
77 F8 60 -6.510
77 F8 61 -6.022
77 F8 62 -4.557
77 F8 63 -3.092
77 F8 64 -1.628
77 F8 65 -0.163
77 F8 66 2.279
77 F8 67 6.185
77 F8 68 11.068
77 F8 69 13.021
77 F8 70 12.044
77 F8 71 7.161
77 F8 72 2.279
77 F8 73 0.814
77 F8 74 4.720
77 F8 75 10.091
77 F8 76 13.997
77 F8 77 13.021
77 F8 78 8.138
77 F8 79 3.743
77 F8 80 3.255
77 F8 81 7.161
77 F8 82 12.533
77 F8 83 15.462
77 F8 84 12.533
77 F8 85 6.185
77 F8 86 -0.163
77 F8 87 -2.604
77 F8 88 -2.116
77 F8 89 -0.651
77 F8 90 -0.163
77 F8 91 -0.651
77 F8 92 -0.163
77 F8 93 2.279
77 F8 94 5.208
77 F8 95 6.185
77 F8 96 3.255
77 F8 97 -3.581
77 F8 98 -9.440
77 F8 99 -11.393
77 F8 100 -6.999
77 F8 101 0.326
77 F8 102 5.697
77 F8 103 5.697
77 F8 104 1.790
77 F8 105 -3.581
77 F8 106 -6.022
77 F8 107 -4.069
77 F8 108 0.814
77 F8 109 5.208
77 F8 110 6.673
77 F8 111 5.697
77 F8 112 3.743
77 F8 113 2.279
77 F8 114 1.790
77 F8 115 2.279
77 F8 116 3.255
77 F8 117 3.743
77 F8 118 3.743
77 F8 119 2.279
77 F8 120 0.326
77 F8 121 -1.139
77 F8 122 -2.604
77 F8 123 -3.581
77 F8 124 -4.557
77 F8 125 -4.557
77 F8 126 -4.069
77 F8 127 -4.557
77 F8 128 -5.534
77 F8 129 -8.464
77 F8 130 -11.882
77 F8 131 -14.811
77 F8 132 -14.323
77 F8 133 -10.905
77 F8 134 -6.510
77 F8 135 -3.092
77 F8 136 -3.581
77 F8 137 -5.534
77 F8 138 -7.975
77 F8 139 -8.464
77 F8 140 -7.975
77 F8 141 -6.510
77 F8 142 -6.022
77 F8 143 -6.022
77 F8 144 -5.046
77 F8 145 -2.116
77 F8 146 2.767
77 F8 147 7.161
77 F8 148 8.626
77 F8 149 6.185
77 F8 150 1.790
77 F8 151 -1.139
77 F8 152 -1.139
77 F8 153 0.814
77 F8 154 2.767
77 F8 155 2.279
77 F8 156 -1.139
77 F8 157 -4.557
77 F8 158 -6.510
77 F8 159 -6.022
77 F8 160 -3.092
77 F8 161 -0.163
77 F8 162 1.302
77 F8 163 0.814
77 F8 164 -2.116
77 F8 165 -6.510
77 F8 166 -9.928
77 F8 167 -11.393
77 F8 168 -10.417
77 F8 169 -7.975
77 F8 170 -7.975
77 F8 171 -10.905
77 F8 172 -16.276
77 F8 173 -19.206
77 F8 174 -17.253
77 F8 175 -10.905
77 F8 176 -4.069
77 F8 177 -0.163
77 F8 178 -0.163
77 F8 179 -1.628
77 F8 180 -2.116
77 F8 181 -0.651
77 F8 182 0.326
77 F8 183 -0.163
77 F8 184 -2.604
77 F8 185 -3.581
77 F8 186 -2.116
77 F8 187 1.302
77 F8 188 6.185
77 F8 189 8.138
77 F8 190 7.161
77 F8 191 4.232
77 F8 192 1.790
77 F8 193 1.790
77 F8 194 2.767
77 F8 195 2.767
77 F8 196 1.790
77 F8 197 -1.628
77 F8 198 -6.022
77 F8 199 -9.928
77 F8 200 -11.393
77 F8 201 -9.928
77 F8 202 -6.510
77 F8 203 -3.581
77 F8 204 -3.581
77 F8 205 -6.999
77 F8 206 -10.417
77 F8 207 -10.417
77 F8 208 -5.046
77 F8 209 3.255
77 F8 210 9.603
77 F8 211 10.091
77 F8 212 5.208
77 F8 213 -1.628
77 F8 214 -6.510
77 F8 215 -7.487
77 F8 216 -5.534
77 F8 217 -2.604
77 F8 218 -0.651
77 F8 219 0.326
77 F8 220 0.326
77 F8 221 -0.651
77 F8 222 -2.604
77 F8 223 -5.046
77 F8 224 -6.022
77 F8 225 -5.534
77 F8 226 -3.092
77 F8 227 -0.651
77 F8 228 0.814
77 F8 229 1.302
77 F8 230 1.790
77 F8 231 2.279
77 F8 232 2.279
77 F8 233 0.326
77 F8 234 -2.604
77 F8 235 -5.046
77 F8 236 -4.557
77 F8 237 -2.116
77 F8 238 0.814
77 F8 239 1.302
77 F8 240 -2.116
77 F8 241 -6.510
77 F8 242 -9.440
77 F8 243 -6.510
77 F8 244 -0.163
77 F8 245 5.697
77 F8 246 8.138
77 F8 247 4.720
77 F8 248 -3.092
77 F8 249 -11.882
77 F8 250 -17.253
77 F8 251 -16.764
77 F8 252 -10.417
77 F8 253 -0.163
77 F8 254 8.626
77 F8 255 11.556
# AF1 chan 4
77 AF1 0 9.847
77 AF1 1 9.359
77 AF1 2 6.917
77 AF1 3 3.988
77 AF1 4 2.523
77 AF1 5 3.011
77 AF1 6 5.452
77 AF1 7 8.382
77 AF1 8 9.847
77 AF1 9 9.847
77 AF1 10 8.382
77 AF1 11 5.941
77 AF1 12 4.476
77 AF1 13 4.476
77 AF1 14 5.941
77 AF1 15 7.894
77 AF1 16 9.359
77 AF1 17 8.870
77 AF1 18 6.429
77 AF1 19 3.499
77 AF1 20 1.058
77 AF1 21 1.546
77 AF1 22 3.988
77 AF1 23 6.429
77 AF1 24 6.917
77 AF1 25 4.476
77 AF1 26 2.523
77 AF1 27 1.546
77 AF1 28 3.499
77 AF1 29 6.917
77 AF1 30 8.870
77 AF1 31 7.406
77 AF1 32 4.476
77 AF1 33 2.035
77 AF1 34 2.035
77 AF1 35 4.476
77 AF1 36 6.429
77 AF1 37 5.941
77 AF1 38 3.011
77 AF1 39 0.570
77 AF1 40 -0.407
77 AF1 41 1.058
77 AF1 42 3.011
77 AF1 43 2.523
77 AF1 44 0.570
77 AF1 45 -2.360
77 AF1 46 -3.337
77 AF1 47 -2.360
77 AF1 48 -0.407
77 AF1 49 0.570
77 AF1 50 0.570
77 AF1 51 0.081
77 AF1 52 0.570
77 AF1 53 2.523
77 AF1 54 3.988
77 AF1 55 4.476
77 AF1 56 2.523
77 AF1 57 -0.895
77 AF1 58 -4.313
77 AF1 59 -5.290
77 AF1 60 -4.313
77 AF1 61 -1.383
77 AF1 62 1.058
77 AF1 63 3.011
77 AF1 64 3.988
77 AF1 65 3.988
77 AF1 66 3.499
77 AF1 67 2.523
77 AF1 68 3.011
77 AF1 69 4.964
77 AF1 70 8.382
77 AF1 71 11.312
77 AF1 72 11.800
77 AF1 73 9.847
77 AF1 74 7.894
77 AF1 75 7.894
77 AF1 76 10.824
77 AF1 77 14.730
77 AF1 78 16.195
77 AF1 79 14.242
77 AF1 80 9.359
77 AF1 81 5.941
77 AF1 82 6.429
77 AF1 83 9.847
77 AF1 84 13.265
77 AF1 85 13.753
77 AF1 86 11.312
77 AF1 87 8.870
77 AF1 88 8.382
77 AF1 89 10.824
77 AF1 90 14.730
77 AF1 91 16.683
77 AF1 92 15.706
77 AF1 93 12.777
77 AF1 94 10.335
77 AF1 95 8.382
77 AF1 96 7.406
77 AF1 97 5.941
77 AF1 98 4.476
77 AF1 99 4.476
77 AF1 100 6.429
77 AF1 101 8.870
77 AF1 102 11.312
77 AF1 103 11.800
77 AF1 104 10.824
77 AF1 105 9.847
77 AF1 106 9.847
77 AF1 107 10.335
77 AF1 108 10.824
77 AF1 109 9.359
77 AF1 110 6.429
77 AF1 111 3.011
77 AF1 112 1.058
77 AF1 113 1.546
77 AF1 114 3.988
77 AF1 115 7.406
77 AF1 116 9.847
77 AF1 117 11.312
77 AF1 118 11.312
77 AF1 119 9.359
77 AF1 120 6.429
77 AF1 121 3.011
77 AF1 122 0.570
77 AF1 123 -0.895
77 AF1 124 -0.895
77 AF1 125 1.058
77 AF1 126 3.988
77 AF1 127 6.917
77 AF1 128 8.382
77 AF1 129 8.870
77 AF1 130 8.870
77 AF1 131 8.382
77 AF1 132 7.894
77 AF1 133 7.894
77 AF1 134 6.917
77 AF1 135 6.429
77 AF1 136 6.429
77 AF1 137 7.894
77 AF1 138 10.824
77 AF1 139 12.777
77 AF1 140 12.288
77 AF1 141 9.359
77 AF1 142 5.941
77 AF1 143 4.964
77 AF1 144 6.917
77 AF1 145 11.312
77 AF1 146 14.730
77 AF1 147 15.218
77 AF1 148 12.777
77 AF1 149 11.312
77 AF1 150 11.800
77 AF1 151 14.242
77 AF1 152 15.218
77 AF1 153 13.753
77 AF1 154 9.847
77 AF1 155 6.917
77 AF1 156 7.406
77 AF1 157 10.824
77 AF1 158 13.753
77 AF1 159 13.753
77 AF1 160 9.847
77 AF1 161 5.452
77 AF1 162 3.011
77 AF1 163 4.476
77 AF1 164 5.941
77 AF1 165 5.941
77 AF1 166 3.499
77 AF1 167 0.081
77 AF1 168 -0.895
77 AF1 169 0.081
77 AF1 170 3.011
77 AF1 171 3.499
77 AF1 172 1.546
77 AF1 173 -1.872
77 AF1 174 -3.825
77 AF1 175 -2.848
77 AF1 176 1.058
77 AF1 177 3.011
77 AF1 178 2.523
77 AF1 179 -0.407
77 AF1 180 -3.825
77 AF1 181 -5.290
77 AF1 182 -4.313
77 AF1 183 -0.895
77 AF1 184 2.035
77 AF1 185 3.499
77 AF1 186 3.499
77 AF1 187 2.523
77 AF1 188 2.523
77 AF1 189 3.011
77 AF1 190 3.988
77 AF1 191 5.452
77 AF1 192 6.429
77 AF1 193 6.917
77 AF1 194 6.917
77 AF1 195 6.917
77 AF1 196 5.941
77 AF1 197 3.988
77 AF1 198 2.523
77 AF1 199 1.058
77 AF1 200 1.058
77 AF1 201 1.058
77 AF1 202 0.570
77 AF1 203 -0.407
77 AF1 204 -1.383
77 AF1 205 -1.383
77 AF1 206 -0.895
77 AF1 207 -0.407
77 AF1 208 -0.895
77 AF1 209 -1.383
77 AF1 210 -1.872
77 AF1 211 -0.407
77 AF1 212 2.035
77 AF1 213 3.011
77 AF1 214 1.058
77 AF1 215 -3.825
77 AF1 216 -8.219
77 AF1 217 -9.196
77 AF1 218 -6.266
77 AF1 219 -1.383
77 AF1 220 1.058
77 AF1 221 0.081
77 AF1 222 -3.825
77 AF1 223 -6.266
77 AF1 224 -6.266
77 AF1 225 -3.825
77 AF1 226 -1.383
77 AF1 227 -0.407
77 AF1 228 -0.895
77 AF1 229 -0.895
77 AF1 230 -0.407
77 AF1 231 2.035
77 AF1 232 5.941
77 AF1 233 9.359
77 AF1 234 11.800
77 AF1 235 12.288
77 AF1 236 10.335
77 AF1 237 6.429
77 AF1 238 3.011
77 AF1 239 1.546
77 AF1 240 2.035
77 AF1 241 4.964
77 AF1 242 6.917
77 AF1 243 8.382
77 AF1 244 9.359
77 AF1 245 11.312
77 AF1 246 14.242
77 AF1 247 17.171
77 AF1 248 17.171
77 AF1 249 12.777
77 AF1 250 5.452
77 AF1 251 0.081
77 AF1 252 1.058
77 AF1 253 8.382
77 AF1 254 17.660
77 AF1 255 21.077
# AF2 chan 5
77 AF2 0 4.008
77 AF2 1 5.473
77 AF2 2 5.961
77 AF2 3 4.985
77 AF2 4 2.543
77 AF2 5 -0.387
77 AF2 6 -2.340
77 AF2 7 -1.851
77 AF2 8 1.567
77 AF2 9 5.961
77 AF2 10 9.379
77 AF2 11 9.867
77 AF2 12 8.403
77 AF2 13 4.985
77 AF2 14 3.031
77 AF2 15 3.031
77 AF2 16 4.008
77 AF2 17 2.543
77 AF2 18 -0.387
77 AF2 19 -4.781
77 AF2 20 -7.222
77 AF2 21 -4.781
77 AF2 22 0.590
77 AF2 23 4.985
77 AF2 24 4.985
77 AF2 25 0.590
77 AF2 26 -4.781
77 AF2 27 -6.734
77 AF2 28 -4.293
77 AF2 29 0.102
77 AF2 30 2.543
77 AF2 31 1.078
77 AF2 32 -2.340
77 AF2 33 -4.293
77 AF2 34 -2.828
77 AF2 35 0.590
77 AF2 36 2.543
77 AF2 37 0.590
77 AF2 38 -2.828
77 AF2 39 -5.758
77 AF2 40 -5.269
77 AF2 41 -2.340
77 AF2 42 1.078
77 AF2 43 2.543
77 AF2 44 1.567
77 AF2 45 -0.387
77 AF2 46 -1.851
77 AF2 47 -1.363
77 AF2 48 0.590
77 AF2 49 1.078
77 AF2 50 1.078
77 AF2 51 0.102
77 AF2 52 0.102
77 AF2 53 1.078
77 AF2 54 1.567
77 AF2 55 2.055
77 AF2 56 1.567
77 AF2 57 0.102
77 AF2 58 -0.875
77 AF2 59 -1.363
77 AF2 60 -1.851
77 AF2 61 -2.340
77 AF2 62 -2.340
77 AF2 63 -1.363
77 AF2 64 0.590
77 AF2 65 3.520
77 AF2 66 5.473
77 AF2 67 5.961
77 AF2 68 5.961
77 AF2 69 6.449
77 AF2 70 7.426
77 AF2 71 8.403
77 AF2 72 9.379
77 AF2 73 9.379
77 AF2 74 9.379
77 AF2 75 10.356
77 AF2 76 11.820
77 AF2 77 13.285
77 AF2 78 12.797
77 AF2 79 10.844
77 AF2 80 8.403
77 AF2 81 6.938
77 AF2 82 8.403
77 AF2 83 10.356
77 AF2 84 12.309
77 AF2 85 11.820
77 AF2 86 9.867
77 AF2 87 7.426
77 AF2 88 6.449
77 AF2 89 6.449
77 AF2 90 6.449
77 AF2 91 6.449
77 AF2 92 7.426
77 AF2 93 9.379
77 AF2 94 11.332
77 AF2 95 12.797
77 AF2 96 11.820
77 AF2 97 8.403
77 AF2 98 4.496
77 AF2 99 1.567
77 AF2 100 1.078
77 AF2 101 3.520
77 AF2 102 6.449
77 AF2 103 8.403
77 AF2 104 7.914
77 AF2 105 6.449
77 AF2 106 4.496
77 AF2 107 4.496
77 AF2 108 6.449
77 AF2 109 9.379
77 AF2 110 11.332
77 AF2 111 10.844
77 AF2 112 7.426
77 AF2 113 3.031
77 AF2 114 0.102
77 AF2 115 -0.387
77 AF2 116 1.567
77 AF2 117 4.496
77 AF2 118 5.961
77 AF2 119 4.985
77 AF2 120 1.078
77 AF2 121 -2.340
77 AF2 122 -5.758
77 AF2 123 -6.246
77 AF2 124 -5.269
77 AF2 125 -3.316
77 AF2 126 -1.363
77 AF2 127 0.590
77 AF2 128 2.055
77 AF2 129 2.543
77 AF2 130 1.078
77 AF2 131 -1.363
77 AF2 132 -3.316
77 AF2 133 -4.293
77 AF2 134 -2.828
77 AF2 135 -0.875
77 AF2 136 0.590
77 AF2 137 1.078
77 AF2 138 1.567
77 AF2 139 1.567
77 AF2 140 2.543
77 AF2 141 3.520
77 AF2 142 4.008
77 AF2 143 3.520
77 AF2 144 3.520
77 AF2 145 4.008
77 AF2 146 5.473
77 AF2 147 7.426
77 AF2 148 8.403
77 AF2 149 7.914
77 AF2 150 6.449
77 AF2 151 4.496
77 AF2 152 3.520
77 AF2 153 4.985
77 AF2 154 6.938
77 AF2 155 8.403
77 AF2 156 7.914
77 AF2 157 5.473
77 AF2 158 2.055
77 AF2 159 0.590
77 AF2 160 1.078
77 AF2 161 3.031
77 AF2 162 4.008
77 AF2 163 4.008
77 AF2 164 1.567
77 AF2 165 -1.851
77 AF2 166 -4.293
77 AF2 167 -4.781
77 AF2 168 -2.828
77 AF2 169 -0.875
77 AF2 170 -0.387
77 AF2 171 -2.340
77 AF2 172 -6.246
77 AF2 173 -9.664
77 AF2 174 -11.129
77 AF2 175 -9.664
77 AF2 176 -6.246
77 AF2 177 -2.828
77 AF2 178 -1.363
77 AF2 179 -2.828
77 AF2 180 -4.781
77 AF2 181 -5.269
77 AF2 182 -4.781
77 AF2 183 -2.340
77 AF2 184 -0.387
77 AF2 185 -0.387
77 AF2 186 -1.363
77 AF2 187 -2.828
77 AF2 188 -2.828
77 AF2 189 -0.875
77 AF2 190 1.567
77 AF2 191 3.520
77 AF2 192 4.496
77 AF2 193 3.520
77 AF2 194 2.543
77 AF2 195 1.567
77 AF2 196 0.102
77 AF2 197 -1.851
77 AF2 198 -3.316
77 AF2 199 -4.293
77 AF2 200 -3.316
77 AF2 201 -1.363
77 AF2 202 0.102
77 AF2 203 -0.387
77 AF2 204 -2.340
77 AF2 205 -4.781
77 AF2 206 -6.246
77 AF2 207 -5.269
77 AF2 208 -2.340
77 AF2 209 0.102
77 AF2 210 1.567
77 AF2 211 1.567
77 AF2 212 0.102
77 AF2 213 -1.363
77 AF2 214 -1.851
77 AF2 215 -1.851
77 AF2 216 -1.851
77 AF2 217 -2.340
77 AF2 218 -2.828
77 AF2 219 -2.828
77 AF2 220 -2.828
77 AF2 221 -2.828
77 AF2 222 -3.316
77 AF2 223 -3.805
77 AF2 224 -5.269
77 AF2 225 -6.734
77 AF2 226 -6.246
77 AF2 227 -3.805
77 AF2 228 0.102
77 AF2 229 4.496
77 AF2 230 6.938
77 AF2 231 6.938
77 AF2 232 5.961
77 AF2 233 4.985
77 AF2 234 4.985
77 AF2 235 6.449
77 AF2 236 7.426
77 AF2 237 6.938
77 AF2 238 4.985
77 AF2 239 4.008
77 AF2 240 4.008
77 AF2 241 5.473
77 AF2 242 6.938
77 AF2 243 7.426
77 AF2 244 7.426
77 AF2 245 8.403
77 AF2 246 9.867
77 AF2 247 10.356
77 AF2 248 8.403
77 AF2 249 3.520
77 AF2 250 -1.851
77 AF2 251 -2.828
77 AF2 252 2.543
77 AF2 253 12.309
77 AF2 254 19.633
77 AF2 255 18.656
# FZ chan 6
77 FZ 0 3.001
77 FZ 1 3.977
77 FZ 2 3.977
77 FZ 3 3.489
77 FZ 4 1.536
77 FZ 5 -0.417
77 FZ 6 -0.417
77 FZ 7 1.536
77 FZ 8 4.466
77 FZ 9 6.419
77 FZ 10 5.931
77 FZ 11 3.001
77 FZ 12 0.071
77 FZ 13 -0.905
77 FZ 14 0.071
77 FZ 15 2.024
77 FZ 16 2.513
77 FZ 17 1.048
77 FZ 18 -1.394
77 FZ 19 -2.858
77 FZ 20 -2.858
77 FZ 21 -0.905
77 FZ 22 0.559
77 FZ 23 0.559
77 FZ 24 -0.905
77 FZ 25 -2.858
77 FZ 26 -2.858
77 FZ 27 -1.394
77 FZ 28 1.048
77 FZ 29 3.001
77 FZ 30 3.001
77 FZ 31 1.536
77 FZ 32 1.048
77 FZ 33 1.048
77 FZ 34 3.001
77 FZ 35 4.466
77 FZ 36 4.466
77 FZ 37 3.001
77 FZ 38 1.048
77 FZ 39 -0.417
77 FZ 40 -0.417
77 FZ 41 1.048
77 FZ 42 3.977
77 FZ 43 5.442
77 FZ 44 5.931
77 FZ 45 4.954
77 FZ 46 3.001
77 FZ 47 1.048
77 FZ 48 0.071
77 FZ 49 -0.417
77 FZ 50 0.071
77 FZ 51 1.048
77 FZ 52 2.024
77 FZ 53 2.513
77 FZ 54 2.024
77 FZ 55 1.048
77 FZ 56 -0.417
77 FZ 57 -0.905
77 FZ 58 -0.905
77 FZ 59 -0.417
77 FZ 60 0.071
77 FZ 61 -0.417
77 FZ 62 -1.882
77 FZ 63 -2.370
77 FZ 64 -1.882
77 FZ 65 0.071
77 FZ 66 2.513
77 FZ 67 4.954
77 FZ 68 5.931
77 FZ 69 5.442
77 FZ 70 5.442
77 FZ 71 5.442
77 FZ 72 6.419
77 FZ 73 7.884
77 FZ 74 8.860
77 FZ 75 9.349
77 FZ 76 8.860
77 FZ 77 7.884
77 FZ 78 6.907
77 FZ 79 5.931
77 FZ 80 5.442
77 FZ 81 5.442
77 FZ 82 5.931
77 FZ 83 6.419
77 FZ 84 6.907
77 FZ 85 7.395
77 FZ 86 7.395
77 FZ 87 7.884
77 FZ 88 8.372
77 FZ 89 7.884
77 FZ 90 6.907
77 FZ 91 6.907
77 FZ 92 7.884
77 FZ 93 9.349
77 FZ 94 11.302
77 FZ 95 11.302
77 FZ 96 9.349
77 FZ 97 6.907
77 FZ 98 5.442
77 FZ 99 5.442
77 FZ 100 6.419
77 FZ 101 7.395
77 FZ 102 7.884
77 FZ 103 7.395
77 FZ 104 6.907
77 FZ 105 6.419
77 FZ 106 7.395
77 FZ 107 7.884
77 FZ 108 7.884
77 FZ 109 6.419
77 FZ 110 3.489
77 FZ 111 0.559
77 FZ 112 -1.394
77 FZ 113 -0.417
77 FZ 114 1.048
77 FZ 115 3.001
77 FZ 116 3.001
77 FZ 117 1.048
77 FZ 118 -1.394
77 FZ 119 -3.347
77 FZ 120 -3.347
77 FZ 121 -2.858
77 FZ 122 -1.882
77 FZ 123 -2.370
77 FZ 124 -3.835
77 FZ 125 -4.323
77 FZ 126 -2.858
77 FZ 127 0.559
77 FZ 128 3.977
77 FZ 129 5.442
77 FZ 130 4.466
77 FZ 131 2.513
77 FZ 132 0.559
77 FZ 133 -0.417
77 FZ 134 0.559
77 FZ 135 2.024
77 FZ 136 3.489
77 FZ 137 4.466
77 FZ 138 5.931
77 FZ 139 6.907
77 FZ 140 7.395
77 FZ 141 6.907
77 FZ 142 5.931
77 FZ 143 5.442
77 FZ 144 5.442
77 FZ 145 6.907
77 FZ 146 7.884
77 FZ 147 7.395
77 FZ 148 6.419
77 FZ 149 4.466
77 FZ 150 3.977
77 FZ 151 3.977
77 FZ 152 4.954
77 FZ 153 4.954
77 FZ 154 3.977
77 FZ 155 2.513
77 FZ 156 2.024
77 FZ 157 3.001
77 FZ 158 4.466
77 FZ 159 4.954
77 FZ 160 3.977
77 FZ 161 2.024
77 FZ 162 0.071
77 FZ 163 -0.417
77 FZ 164 0.071
77 FZ 165 0.559
77 FZ 166 0.559
77 FZ 167 0.071
77 FZ 168 -0.417
77 FZ 169 -0.417
77 FZ 170 0.071
77 FZ 171 -0.905
77 FZ 172 -2.370
77 FZ 173 -4.323
77 FZ 174 -5.300
77 FZ 175 -4.323
77 FZ 176 -2.370
77 FZ 177 -1.394
77 FZ 178 -1.882
77 FZ 179 -3.347
77 FZ 180 -4.812
77 FZ 181 -4.812
77 FZ 182 -3.347
77 FZ 183 -1.394
77 FZ 184 -0.417
77 FZ 185 0.071
77 FZ 186 -0.417
77 FZ 187 -0.905
77 FZ 188 -0.417
77 FZ 189 0.071
77 FZ 190 0.071
77 FZ 191 0.559
77 FZ 192 1.536
77 FZ 193 2.513
77 FZ 194 3.489
77 FZ 195 3.977
77 FZ 196 2.513
77 FZ 197 0.559
77 FZ 198 -0.905
77 FZ 199 -1.394
77 FZ 200 0.071
77 FZ 201 1.048
77 FZ 202 1.048
77 FZ 203 0.071
77 FZ 204 -2.370
77 FZ 205 -3.347
77 FZ 206 -2.858
77 FZ 207 -1.394
77 FZ 208 -0.417
77 FZ 209 -0.417
77 FZ 210 -1.394
77 FZ 211 -3.347
77 FZ 212 -4.323
77 FZ 213 -3.835
77 FZ 214 -2.858
77 FZ 215 -2.370
77 FZ 216 -2.858
77 FZ 217 -4.323
77 FZ 218 -5.300
77 FZ 219 -5.300
77 FZ 220 -3.835
77 FZ 221 -2.858
77 FZ 222 -2.370
77 FZ 223 -2.858
77 FZ 224 -4.323
77 FZ 225 -5.300
77 FZ 226 -5.300
77 FZ 227 -3.347
77 FZ 228 -0.905
77 FZ 229 2.024
77 FZ 230 3.977
77 FZ 231 3.977
77 FZ 232 4.466
77 FZ 233 5.442
77 FZ 234 7.884
77 FZ 235 10.325
77 FZ 236 10.325
77 FZ 237 7.395
77 FZ 238 3.977
77 FZ 239 1.536
77 FZ 240 3.001
77 FZ 241 5.442
77 FZ 242 7.884
77 FZ 243 7.395
77 FZ 244 5.442
77 FZ 245 4.954
77 FZ 246 6.419
77 FZ 247 9.349
77 FZ 248 10.325
77 FZ 249 7.884
77 FZ 250 3.001
77 FZ 251 -0.417
77 FZ 252 0.559
77 FZ 253 4.954
77 FZ 254 9.349
77 FZ 255 9.837
# F4 chan 7
77 F4 0 -2.380
77 F4 1 -0.916
77 F4 2 0.549
77 F4 3 1.526
77 F4 4 0.549
77 F4 5 -0.427
77 F4 6 0.549
77 F4 7 3.479
77 F4 8 6.409
77 F4 9 7.385
77 F4 10 5.432
77 F4 11 2.991
77 F4 12 1.526
77 F4 13 2.014
77 F4 14 3.479
77 F4 15 3.967
77 F4 16 1.526
77 F4 17 -0.916
77 F4 18 -1.404
77 F4 19 0.549
77 F4 20 3.479
77 F4 21 3.479
77 F4 22 -0.916
77 F4 23 -6.775
77 F4 24 -10.681
77 F4 25 -9.705
77 F4 26 -4.333
77 F4 27 1.038
77 F4 28 2.991
77 F4 29 1.038
77 F4 30 -1.892
77 F4 31 -3.357
77 F4 32 -2.869
77 F4 33 -1.404
77 F4 34 -1.892
77 F4 35 -3.845
77 F4 36 -7.263
77 F4 37 -8.240
77 F4 38 -6.775
77 F4 39 -3.845
77 F4 40 -0.916
77 F4 41 1.038
77 F4 42 1.526
77 F4 43 2.014
77 F4 44 2.502
77 F4 45 1.038
77 F4 46 -0.916
77 F4 47 -3.845
77 F4 48 -5.310
77 F4 49 -3.845
77 F4 50 0.061
77 F4 51 4.456
77 F4 52 6.897
77 F4 53 6.409
77 F4 54 2.991
77 F4 55 -0.916
77 F4 56 -3.357
77 F4 57 -3.357
77 F4 58 -1.892
77 F4 59 -0.427
77 F4 60 0.549
77 F4 61 -0.427
77 F4 62 -1.404
77 F4 63 -1.892
77 F4 64 0.549
77 F4 65 3.967
77 F4 66 7.385
77 F4 67 8.850
77 F4 68 8.362
77 F4 69 7.385
77 F4 70 7.385
77 F4 71 7.874
77 F4 72 8.362
77 F4 73 8.362
77 F4 74 8.362
77 F4 75 8.362
77 F4 76 8.850
77 F4 77 10.315
77 F4 78 11.292
77 F4 79 10.803
77 F4 80 9.338
77 F4 81 7.385
77 F4 82 6.409
77 F4 83 5.432
77 F4 84 5.920
77 F4 85 6.409
77 F4 86 7.385
77 F4 87 7.874
77 F4 88 7.874
77 F4 89 6.409
77 F4 90 4.944
77 F4 91 4.456
77 F4 92 5.920
77 F4 93 8.362
77 F4 94 10.315
77 F4 95 10.315
77 F4 96 6.897
77 F4 97 2.502
77 F4 98 -0.427
77 F4 99 -1.892
77 F4 100 0.061
77 F4 101 2.502
77 F4 102 5.432
77 F4 103 6.409
77 F4 104 5.920
77 F4 105 4.456
77 F4 106 2.991
77 F4 107 2.014
77 F4 108 1.526
77 F4 109 1.526
77 F4 110 1.526
77 F4 111 1.038
77 F4 112 1.526
77 F4 113 2.991
77 F4 114 3.967
77 F4 115 3.967
77 F4 116 1.526
77 F4 117 -2.380
77 F4 118 -5.310
77 F4 119 -6.287
77 F4 120 -5.310
77 F4 121 -3.357
77 F4 122 -2.869
77 F4 123 -3.357
77 F4 124 -3.357
77 F4 125 -2.380
77 F4 126 -0.427
77 F4 127 1.038
77 F4 128 0.061
77 F4 129 -2.869
77 F4 130 -6.287
77 F4 131 -8.728
77 F4 132 -9.216
77 F4 133 -8.240
77 F4 134 -7.751
77 F4 135 -7.751
77 F4 136 -6.775
77 F4 137 -4.333
77 F4 138 -0.916
77 F4 139 2.502
77 F4 140 3.479
77 F4 141 2.014
77 F4 142 -0.916
77 F4 143 -2.380
77 F4 144 -1.404
77 F4 145 2.014
77 F4 146 4.456
77 F4 147 4.456
77 F4 148 2.991
77 F4 149 2.014
77 F4 150 2.502
77 F4 151 4.456
77 F4 152 4.944
77 F4 153 2.991
77 F4 154 -0.916
77 F4 155 -2.869
77 F4 156 -0.427
77 F4 157 4.944
77 F4 158 10.315
77 F4 159 10.803
77 F4 160 5.920
77 F4 161 -1.404
77 F4 162 -6.287
77 F4 163 -7.263
77 F4 164 -4.333
77 F4 165 -1.892
77 F4 166 -1.404
77 F4 167 -2.869
77 F4 168 -4.822
77 F4 169 -5.310
77 F4 170 -4.822
77 F4 171 -4.333
77 F4 172 -5.310
77 F4 173 -7.263
77 F4 174 -8.240
77 F4 175 -7.751
77 F4 176 -6.287
77 F4 177 -5.310
77 F4 178 -5.310
77 F4 179 -6.775
77 F4 180 -7.751
77 F4 181 -6.775
77 F4 182 -3.845
77 F4 183 -0.427
77 F4 184 2.014
77 F4 185 2.991
77 F4 186 2.502
77 F4 187 1.038
77 F4 188 -0.916
77 F4 189 -2.869
77 F4 190 -3.357
77 F4 191 -2.380
77 F4 192 -0.427
77 F4 193 1.526
77 F4 194 2.502
77 F4 195 2.014
77 F4 196 0.549
77 F4 197 -1.404
77 F4 198 -2.380
77 F4 199 -2.869
77 F4 200 -2.380
77 F4 201 -1.892
77 F4 202 -2.380
77 F4 203 -3.357
77 F4 204 -4.822
77 F4 205 -5.798
77 F4 206 -4.822
77 F4 207 -2.869
77 F4 208 -0.427
77 F4 209 1.038
77 F4 210 1.038
77 F4 211 -0.427
77 F4 212 -1.404
77 F4 213 -1.892
77 F4 214 -0.427
77 F4 215 0.549
77 F4 216 0.549
77 F4 217 -0.427
77 F4 218 -1.892
77 F4 219 -1.892
77 F4 220 -1.892
77 F4 221 -1.404
77 F4 222 -1.892
77 F4 223 -3.357
77 F4 224 -5.310
77 F4 225 -6.287
77 F4 226 -5.310
77 F4 227 -2.869
77 F4 228 0.061
77 F4 229 2.502
77 F4 230 3.967
77 F4 231 4.456
77 F4 232 3.479
77 F4 233 2.014
77 F4 234 1.038
77 F4 235 0.549
77 F4 236 0.549
77 F4 237 1.526
77 F4 238 2.502
77 F4 239 3.479
77 F4 240 4.456
77 F4 241 3.479
77 F4 242 1.526
77 F4 243 0.061
77 F4 244 0.549
77 F4 245 3.479
77 F4 246 6.409
77 F4 247 7.385
77 F4 248 5.432
77 F4 249 1.526
77 F4 250 -0.427
77 F4 251 1.526
77 F4 252 5.432
77 F4 253 7.874
77 F4 254 5.920
77 F4 255 0.061
# F3 chan 8
77 F3 0 2.686
77 F3 1 4.150
77 F3 2 6.104
77 F3 3 6.592
77 F3 4 4.150
77 F3 5 1.709
77 F3 6 1.709
77 F3 7 5.127
77 F3 8 10.010
77 F3 9 12.451
77 F3 10 10.010
77 F3 11 3.662
77 F3 12 -2.197
77 F3 13 -3.174
77 F3 14 -0.244
77 F3 15 4.150
77 F3 16 6.592
77 F3 17 5.615
77 F3 18 3.174
77 F3 19 2.197
77 F3 20 2.197
77 F3 21 3.174
77 F3 22 2.197
77 F3 23 -0.244
77 F3 24 -2.197
77 F3 25 -2.197
77 F3 26 0.732
77 F3 27 4.639
77 F3 28 7.080
77 F3 29 6.592
77 F3 30 4.150
77 F3 31 1.709
77 F3 32 1.221
77 F3 33 3.174
77 F3 34 5.615
77 F3 35 6.592
77 F3 36 5.615
77 F3 37 3.662
77 F3 38 1.221
77 F3 39 -0.244
77 F3 40 -0.732
77 F3 41 -0.732
77 F3 42 -0.732
77 F3 43 -0.732
77 F3 44 -0.244
77 F3 45 -0.244
77 F3 46 -0.732
77 F3 47 -3.174
77 F3 48 -6.104
77 F3 49 -8.545
77 F3 50 -8.057
77 F3 51 -3.662
77 F3 52 1.221
77 F3 53 3.662
77 F3 54 1.709
77 F3 55 -3.174
77 F3 56 -7.568
77 F3 57 -8.545
77 F3 58 -5.127
77 F3 59 0.244
77 F3 60 3.174
77 F3 61 2.686
77 F3 62 -1.221
77 F3 63 -5.127
77 F3 64 -5.615
77 F3 65 -3.174
77 F3 66 0.732
77 F3 67 3.174
77 F3 68 4.150
77 F3 69 4.150
77 F3 70 4.150
77 F3 71 5.127
77 F3 72 7.080
77 F3 73 8.057
77 F3 74 7.568
77 F3 75 6.104
77 F3 76 5.127
77 F3 77 5.615
77 F3 78 7.080
77 F3 79 8.545
77 F3 80 8.545
77 F3 81 7.568
77 F3 82 7.080
77 F3 83 7.080
77 F3 84 7.568
77 F3 85 8.545
77 F3 86 9.033
77 F3 87 8.057
77 F3 88 7.080
77 F3 89 6.592
77 F3 90 7.080
77 F3 91 9.033
77 F3 92 10.498
77 F3 93 11.475
77 F3 94 10.986
77 F3 95 9.521
77 F3 96 7.568
77 F3 97 6.104
77 F3 98 5.615
77 F3 99 5.615
77 F3 100 6.592
77 F3 101 6.592
77 F3 102 6.104
77 F3 103 5.127
77 F3 104 5.127
77 F3 105 6.592
77 F3 106 9.521
77 F3 107 11.963
77 F3 108 11.963
77 F3 109 9.033
77 F3 110 4.150
77 F3 111 0.732
77 F3 112 0.732
77 F3 113 4.639
77 F3 114 9.521
77 F3 115 11.475
77 F3 116 9.521
77 F3 117 4.639
77 F3 118 0.244
77 F3 119 -1.221
77 F3 120 0.732
77 F3 121 3.662
77 F3 122 4.639
77 F3 123 3.174
77 F3 124 1.221
77 F3 125 1.221
77 F3 126 4.150
77 F3 127 8.057
77 F3 128 10.986
77 F3 129 10.498
77 F3 130 7.568
77 F3 131 3.662
77 F3 132 0.732
77 F3 133 -0.244
77 F3 134 1.709
77 F3 135 5.127
77 F3 136 8.545
77 F3 137 10.986
77 F3 138 11.475
77 F3 139 10.498
77 F3 140 8.057
77 F3 141 5.615
77 F3 142 3.662
77 F3 143 3.662
77 F3 144 4.150
77 F3 145 6.104
77 F3 146 7.568
77 F3 147 8.545
77 F3 148 7.568
77 F3 149 5.127
77 F3 150 2.686
77 F3 151 1.709
77 F3 152 1.709
77 F3 153 2.197
77 F3 154 2.686
77 F3 155 2.686
77 F3 156 2.197
77 F3 157 2.686
77 F3 158 4.150
77 F3 159 5.615
77 F3 160 5.615
77 F3 161 3.662
77 F3 162 1.221
77 F3 163 0.244
77 F3 164 1.221
77 F3 165 4.150
77 F3 166 6.592
77 F3 167 6.104
77 F3 168 3.662
77 F3 169 0.244
77 F3 170 -3.174
77 F3 171 -4.639
77 F3 172 -5.127
77 F3 173 -4.150
77 F3 174 -3.662
77 F3 175 -2.686
77 F3 176 -2.197
77 F3 177 -2.197
77 F3 178 -2.686
77 F3 179 -3.174
77 F3 180 -3.662
77 F3 181 -4.150
77 F3 182 -3.662
77 F3 183 -2.686
77 F3 184 -0.732
77 F3 185 1.709
77 F3 186 3.174
77 F3 187 3.174
77 F3 188 2.197
77 F3 189 -0.244
77 F3 190 -1.709
77 F3 191 -1.709
77 F3 192 -0.244
77 F3 193 1.709
77 F3 194 3.174
77 F3 195 3.662
77 F3 196 4.150
77 F3 197 4.639
77 F3 198 6.104
77 F3 199 6.592
77 F3 200 4.639
77 F3 201 1.221
77 F3 202 -3.174
77 F3 203 -5.615
77 F3 204 -5.615
77 F3 205 -3.662
77 F3 206 -1.709
77 F3 207 -1.709
77 F3 208 -3.174
77 F3 209 -5.127
77 F3 210 -6.104
77 F3 211 -5.127
77 F3 212 -2.686
77 F3 213 -0.732
77 F3 214 -0.732
77 F3 215 -2.686
77 F3 216 -5.127
77 F3 217 -6.592
77 F3 218 -6.104
77 F3 219 -4.639
77 F3 220 -3.174
77 F3 221 -2.686
77 F3 222 -3.174
77 F3 223 -5.127
77 F3 224 -7.080
77 F3 225 -9.033
77 F3 226 -8.545
77 F3 227 -5.615
77 F3 228 -1.221
77 F3 229 2.197
77 F3 230 2.197
77 F3 231 -0.732
77 F3 232 -1.709
77 F3 233 1.221
77 F3 234 9.033
77 F3 235 16.357
77 F3 236 17.822
77 F3 237 11.475
77 F3 238 1.221
77 F3 239 -7.568
77 F3 240 -9.521
77 F3 241 -4.639
77 F3 242 1.221
77 F3 243 4.639
77 F3 244 4.639
77 F3 245 3.662
77 F3 246 5.127
77 F3 247 8.057
77 F3 248 10.010
77 F3 249 9.033
77 F3 250 5.127
77 F3 251 3.174
77 F3 252 4.639
77 F3 253 9.521
77 F3 254 11.963
77 F3 255 9.521
# FC6 chan 9
77 FC6 0 -0.305
77 FC6 1 -1.282
77 FC6 2 -1.770
77 FC6 3 -1.770
77 FC6 4 -1.770
77 FC6 5 -2.258
77 FC6 6 -2.747
77 FC6 7 -3.235
77 FC6 8 -2.258
77 FC6 9 -0.793
77 FC6 10 1.648
77 FC6 11 4.089
77 FC6 12 5.066
77 FC6 13 5.066
77 FC6 14 4.089
77 FC6 15 3.113
77 FC6 16 2.625
77 FC6 17 2.625
77 FC6 18 2.625
77 FC6 19 3.601
77 FC6 20 5.066
77 FC6 21 6.042
77 FC6 22 6.042
77 FC6 23 4.578
77 FC6 24 2.136
77 FC6 25 0.183
77 FC6 26 -0.305
77 FC6 27 0.671
77 FC6 28 1.160
77 FC6 29 1.160
77 FC6 30 -0.793
77 FC6 31 -3.723
77 FC6 32 -5.676
77 FC6 33 -4.700
77 FC6 34 -3.235
77 FC6 35 -3.235
77 FC6 36 -6.653
77 FC6 37 -12.024
77 FC6 38 -17.395
77 FC6 39 -18.860
77 FC6 40 -15.930
77 FC6 41 -11.047
77 FC6 42 -7.629
77 FC6 43 -7.629
77 FC6 44 -9.094
77 FC6 45 -9.583
77 FC6 46 -7.629
77 FC6 47 -4.211
77 FC6 48 -1.282
77 FC6 49 -1.770
77 FC6 50 -3.723
77 FC6 51 -6.165
77 FC6 52 -5.676
77 FC6 53 -3.235
77 FC6 54 -1.282
77 FC6 55 -2.258
77 FC6 56 -5.188
77 FC6 57 -8.118
77 FC6 58 -7.141
77 FC6 59 -3.235
77 FC6 60 1.648
77 FC6 61 3.601
77 FC6 62 1.648
77 FC6 63 -2.258
77 FC6 64 -4.211
77 FC6 65 -2.258
77 FC6 66 2.625
77 FC6 67 7.996
77 FC6 68 10.925
77 FC6 69 10.437
77 FC6 70 7.996
77 FC6 71 6.042
77 FC6 72 5.066
77 FC6 73 6.042
77 FC6 74 7.019
77 FC6 75 7.507
77 FC6 76 7.019
77 FC6 77 6.531
77 FC6 78 6.042
77 FC6 79 5.066
77 FC6 80 4.089
77 FC6 81 3.113
77 FC6 82 2.625
77 FC6 83 2.625
77 FC6 84 4.578
77 FC6 85 6.531
77 FC6 86 7.507
77 FC6 87 6.042
77 FC6 88 2.136
77 FC6 89 -1.282
77 FC6 90 -2.747
77 FC6 91 -1.770
77 FC6 92 0.671
77 FC6 93 2.136
77 FC6 94 1.160
77 FC6 95 -1.282
77 FC6 96 -4.211
77 FC6 97 -5.676
77 FC6 98 -5.676
77 FC6 99 -4.700
77 FC6 100 -3.235
77 FC6 101 -1.770
77 FC6 102 -0.793
77 FC6 103 0.671
77 FC6 104 0.183
77 FC6 105 -1.282
77 FC6 106 -3.723
77 FC6 107 -5.188
77 FC6 108 -3.723
77 FC6 109 -0.305
77 FC6 110 3.601
77 FC6 111 4.089
77 FC6 112 2.136
77 FC6 113 -0.793
77 FC6 114 -3.235
77 FC6 115 -3.723
77 FC6 116 -1.770
77 FC6 117 -0.305
77 FC6 118 0.183
77 FC6 119 -0.793
77 FC6 120 -2.747
77 FC6 121 -4.211
77 FC6 122 -4.700
77 FC6 123 -4.700
77 FC6 124 -4.211
77 FC6 125 -3.723
77 FC6 126 -2.747
77 FC6 127 -2.747
77 FC6 128 -3.723
77 FC6 129 -6.653
77 FC6 130 -10.559
77 FC6 131 -14.954
77 FC6 132 -16.907
77 FC6 133 -14.954
77 FC6 134 -10.071
77 FC6 135 -4.700
77 FC6 136 -1.770
77 FC6 137 -2.258
77 FC6 138 -5.188
77 FC6 139 -7.629
77 FC6 140 -8.118
77 FC6 141 -6.653
77 FC6 142 -5.188
77 FC6 143 -5.188
77 FC6 144 -6.165
77 FC6 145 -6.165
77 FC6 146 -3.235
77 FC6 147 1.648
77 FC6 148 6.042
77 FC6 149 7.019
77 FC6 150 4.578
77 FC6 151 0.671
77 FC6 152 -1.770
77 FC6 153 -1.770
77 FC6 154 -0.793
77 FC6 155 -0.305
77 FC6 156 -1.282
77 FC6 157 -2.258
77 FC6 158 -3.235
77 FC6 159 -2.747
77 FC6 160 -1.770
77 FC6 161 -1.282
77 FC6 162 -2.747
77 FC6 163 -4.700
77 FC6 164 -7.141
77 FC6 165 -7.629
77 FC6 166 -7.141
77 FC6 167 -6.653
77 FC6 168 -7.141
77 FC6 169 -9.094
77 FC6 170 -11.536
77 FC6 171 -13.000
77 FC6 172 -12.512
77 FC6 173 -10.559
77 FC6 174 -8.606
77 FC6 175 -6.165
77 FC6 176 -4.700
77 FC6 177 -3.723
77 FC6 178 -3.235
77 FC6 179 -3.235
77 FC6 180 -4.211
77 FC6 181 -5.676
77 FC6 182 -7.141
77 FC6 183 -6.165
77 FC6 184 -2.258
77 FC6 185 2.625
77 FC6 186 5.554
77 FC6 187 5.066
77 FC6 188 1.648
77 FC6 189 -1.770
77 FC6 190 -2.747
77 FC6 191 -0.793
77 FC6 192 2.136
77 FC6 193 3.601
77 FC6 194 1.160
77 FC6 195 -2.747
77 FC6 196 -5.676
77 FC6 197 -5.676
77 FC6 198 -3.723
77 FC6 199 -2.258
77 FC6 200 -3.723
77 FC6 201 -7.141
77 FC6 202 -9.583
77 FC6 203 -9.583
77 FC6 204 -8.606
77 FC6 205 -8.118
77 FC6 206 -8.606
77 FC6 207 -9.094
77 FC6 208 -8.118
77 FC6 209 -3.723
77 FC6 210 0.671
77 FC6 211 3.113
77 FC6 212 1.648
77 FC6 213 -1.282
77 FC6 214 -4.211
77 FC6 215 -4.700
77 FC6 216 -3.235
77 FC6 217 -2.258
77 FC6 218 -2.747
77 FC6 219 -4.211
77 FC6 220 -6.165
77 FC6 221 -7.629
77 FC6 222 -8.118
77 FC6 223 -8.606
77 FC6 224 -9.583
77 FC6 225 -9.583
77 FC6 226 -8.118
77 FC6 227 -4.211
77 FC6 228 -0.305
77 FC6 229 2.136
77 FC6 230 1.648
77 FC6 231 -0.793
77 FC6 232 -3.723
77 FC6 233 -4.700
77 FC6 234 -4.211
77 FC6 235 -3.723
77 FC6 236 -3.723
77 FC6 237 -3.235
77 FC6 238 -3.235
77 FC6 239 -2.747
77 FC6 240 -3.723
77 FC6 241 -6.653
77 FC6 242 -9.583
77 FC6 243 -11.047
77 FC6 244 -9.583
77 FC6 245 -5.188
77 FC6 246 -1.770
77 FC6 247 -2.258
77 FC6 248 -6.653
77 FC6 249 -10.559
77 FC6 250 -10.559
77 FC6 251 -5.676
77 FC6 252 -0.305
77 FC6 253 1.648
77 FC6 254 -2.258
77 FC6 255 -9.583
# FC5 chan 10
77 FC5 0 9.959
77 FC5 1 11.424
77 FC5 2 8.494
77 FC5 3 1.170
77 FC5 4 -5.666
77 FC5 5 -7.619
77 FC5 6 -2.248
77 FC5 7 7.029
77 FC5 8 15.330
77 FC5 9 17.283
77 FC5 10 11.912
77 FC5 11 2.635
77 FC5 12 -4.201
77 FC5 13 -5.666
77 FC5 14 -2.248
77 FC5 15 3.123
77 FC5 16 7.517
77 FC5 17 8.006
77 FC5 18 6.053
77 FC5 19 3.611
77 FC5 20 2.635
77 FC5 21 2.146
77 FC5 22 1.170
77 FC5 23 -0.295
77 FC5 24 -1.272
77 FC5 25 0.193
77 FC5 26 5.564
77 FC5 27 11.424
77 FC5 28 16.307
77 FC5 29 16.307
77 FC5 30 10.935
77 FC5 31 4.100
77 FC5 32 -2.248
77 FC5 33 -3.713
77 FC5 34 -1.760
77 FC5 35 2.146
77 FC5 36 5.076
77 FC5 37 5.076
77 FC5 38 3.611
77 FC5 39 1.170
77 FC5 40 -0.783
77 FC5 41 -1.760
77 FC5 42 -3.225
77 FC5 43 -5.178
77 FC5 44 -8.108
77 FC5 45 -10.061
77 FC5 46 -11.037
77 FC5 47 -11.037
77 FC5 48 -10.061
77 FC5 49 -10.061
77 FC5 50 -9.084
77 FC5 51 -6.643
77 FC5 52 -2.736
77 FC5 53 -0.295
77 FC5 54 -1.272
77 FC5 55 -4.201
77 FC5 56 -7.131
77 FC5 57 -6.154
77 FC5 58 -1.272
77 FC5 59 4.588
77 FC5 60 7.029
77 FC5 61 3.611
77 FC5 62 -3.713
77 FC5 63 -9.084
77 FC5 64 -9.572
77 FC5 65 -5.178
77 FC5 66 0.682
77 FC5 67 4.588
77 FC5 68 5.564
77 FC5 69 4.588
77 FC5 70 3.611
77 FC5 71 4.588
77 FC5 72 6.053
77 FC5 73 6.541
77 FC5 74 5.564
77 FC5 75 3.123
77 FC5 76 0.682
77 FC5 77 -1.272
77 FC5 78 -1.272
77 FC5 79 0.193
77 FC5 80 2.635
77 FC5 81 5.076
77 FC5 82 5.564
77 FC5 83 4.588
77 FC5 84 3.123
77 FC5 85 3.123
77 FC5 86 4.588
77 FC5 87 7.517
77 FC5 88 8.982
77 FC5 89 8.494
77 FC5 90 6.541
77 FC5 91 5.076
77 FC5 92 5.076
77 FC5 93 6.541
77 FC5 94 8.006
77 FC5 95 7.517
77 FC5 96 5.564
77 FC5 97 2.635
77 FC5 98 1.658
77 FC5 99 2.635
77 FC5 100 4.588
77 FC5 101 5.564
77 FC5 102 5.076
77 FC5 103 3.611
77 FC5 104 3.123
77 FC5 105 4.588
77 FC5 106 7.029
77 FC5 107 8.494
77 FC5 108 8.494
77 FC5 109 7.517
77 FC5 110 6.053
77 FC5 111 6.053
77 FC5 112 7.517
77 FC5 113 10.447
77 FC5 114 12.889
77 FC5 115 14.353
77 FC5 116 13.865
77 FC5 117 11.424
77 FC5 118 8.494
77 FC5 119 5.076
77 FC5 120 4.588
77 FC5 121 6.053
77 FC5 122 9.471
77 FC5 123 11.912
77 FC5 124 12.400
77 FC5 125 10.935
77 FC5 126 8.494
77 FC5 127 7.029
77 FC5 128 7.029
77 FC5 129 8.006
77 FC5 130 8.006
77 FC5 131 7.029
77 FC5 132 6.541
77 FC5 133 6.541
77 FC5 134 7.029
77 FC5 135 6.541
77 FC5 136 4.588
77 FC5 137 1.658
77 FC5 138 0.193
77 FC5 139 2.146
77 FC5 140 7.029
77 FC5 141 11.424
77 FC5 142 12.400
77 FC5 143 8.494
77 FC5 144 2.635
77 FC5 145 -0.783
77 FC5 146 0.193
77 FC5 147 3.611
77 FC5 148 5.076
77 FC5 149 2.635
77 FC5 150 -2.736
77 FC5 151 -5.666
77 FC5 152 -3.225
77 FC5 153 3.611
77 FC5 154 10.935
77 FC5 155 13.377
77 FC5 156 10.447
77 FC5 157 5.076
77 FC5 158 1.170
77 FC5 159 0.193
77 FC5 160 2.146
77 FC5 161 3.611
77 FC5 162 3.123
77 FC5 163 2.146
77 FC5 164 1.658
77 FC5 165 3.123
77 FC5 166 5.076
77 FC5 167 6.541
77 FC5 168 5.564
77 FC5 169 3.611
77 FC5 170 1.658
77 FC5 171 1.170
77 FC5 172 0.682
77 FC5 173 -1.760
77 FC5 174 -5.666
77 FC5 175 -9.084
77 FC5 176 -8.596
77 FC5 177 -3.713
77 FC5 178 3.123
77 FC5 179 7.029
77 FC5 180 6.541
77 FC5 181 1.658
77 FC5 182 -2.736
77 FC5 183 -3.713
77 FC5 184 -0.783
77 FC5 185 3.123
77 FC5 186 4.100
77 FC5 187 2.635
77 FC5 188 0.682
77 FC5 189 1.170
77 FC5 190 4.588
77 FC5 191 7.517
77 FC5 192 7.517
77 FC5 193 3.611
77 FC5 194 -1.272
77 FC5 195 -3.713
77 FC5 196 -2.248
77 FC5 197 1.170
77 FC5 198 4.588
77 FC5 199 6.053
77 FC5 200 5.076
77 FC5 201 2.635
77 FC5 202 -0.783
77 FC5 203 -4.690
77 FC5 204 -8.108
77 FC5 205 -10.061
77 FC5 206 -8.108
77 FC5 207 -3.225
77 FC5 208 1.658
77 FC5 209 4.100
77 FC5 210 2.146
77 FC5 211 -2.736
77 FC5 212 -6.643
77 FC5 213 -6.643
77 FC5 214 -4.201
77 FC5 215 -1.760
77 FC5 216 -2.736
77 FC5 217 -6.643
77 FC5 218 -11.525
77 FC5 219 -13.479
77 FC5 220 -10.549
77 FC5 221 -6.643
77 FC5 222 -3.225
77 FC5 223 -3.713
77 FC5 224 -7.131
77 FC5 225 -9.572
77 FC5 226 -9.084
77 FC5 227 -4.201
77 FC5 228 1.170
77 FC5 229 4.100
77 FC5 230 2.635
77 FC5 231 -0.295
77 FC5 232 -2.248
77 FC5 233 -1.272
77 FC5 234 2.146
77 FC5 235 5.076
77 FC5 236 5.564
77 FC5 237 2.635
77 FC5 238 -2.248
77 FC5 239 -6.643
77 FC5 240 -9.572
77 FC5 241 -11.525
77 FC5 242 -11.037
77 FC5 243 -8.596
77 FC5 244 -3.713
77 FC5 245 1.658
77 FC5 246 7.029
77 FC5 247 10.447
77 FC5 248 11.424
77 FC5 249 10.447
77 FC5 250 8.982
77 FC5 251 8.006
77 FC5 252 7.029
77 FC5 253 6.541
77 FC5 254 4.100
77 FC5 255 1.170
# FC2 chan 11
77 FC2 0 0.326
77 FC2 1 0.326
77 FC2 2 0.326
77 FC2 3 -0.163
77 FC2 4 -1.139
77 FC2 5 -1.628
77 FC2 6 -1.628
77 FC2 7 -0.651
77 FC2 8 0.814
77 FC2 9 1.790
77 FC2 10 2.279
77 FC2 11 1.790
77 FC2 12 1.302
77 FC2 13 0.814
77 FC2 14 0.814
77 FC2 15 0.326
77 FC2 16 -0.163
77 FC2 17 -1.139
77 FC2 18 -0.651
77 FC2 19 0.326
77 FC2 20 0.814
77 FC2 21 0.326
77 FC2 22 -2.116
77 FC2 23 -4.557
77 FC2 24 -6.022
77 FC2 25 -5.534
77 FC2 26 -3.092
77 FC2 27 -1.139
77 FC2 28 -0.651
77 FC2 29 -1.628
77 FC2 30 -2.604
77 FC2 31 -3.092
77 FC2 32 -2.116
77 FC2 33 -1.139
77 FC2 34 -1.139
77 FC2 35 -2.116
77 FC2 36 -4.069
77 FC2 37 -4.557
77 FC2 38 -3.581
77 FC2 39 -2.116
77 FC2 40 -1.139
77 FC2 41 -0.163
77 FC2 42 0.814
77 FC2 43 1.790
77 FC2 44 3.255
77 FC2 45 3.743
77 FC2 46 3.255
77 FC2 47 1.790
77 FC2 48 -0.163
77 FC2 49 -1.139
77 FC2 50 -0.651
77 FC2 51 1.790
77 FC2 52 3.255
77 FC2 53 3.743
77 FC2 54 2.279
77 FC2 55 -0.163
77 FC2 56 -2.116
77 FC2 57 -2.604
77 FC2 58 -1.628
77 FC2 59 -0.163
77 FC2 60 0.326
77 FC2 61 -0.163
77 FC2 62 -1.628
77 FC2 63 -2.116
77 FC2 64 -1.628
77 FC2 65 0.326
77 FC2 66 2.279
77 FC2 67 3.743
77 FC2 68 4.232
77 FC2 69 4.232
77 FC2 70 4.720
77 FC2 71 4.720
77 FC2 72 5.208
77 FC2 73 5.208
77 FC2 74 4.232
77 FC2 75 4.232
77 FC2 76 4.232
77 FC2 77 4.232
77 FC2 78 4.720
77 FC2 79 3.743
77 FC2 80 2.767
77 FC2 81 2.279
77 FC2 82 1.790
77 FC2 83 2.279
77 FC2 84 3.743
77 FC2 85 5.208
77 FC2 86 5.697
77 FC2 87 4.720
77 FC2 88 3.255
77 FC2 89 1.790
77 FC2 90 0.326
77 FC2 91 1.302
77 FC2 92 2.279
77 FC2 93 4.232
77 FC2 94 5.697
77 FC2 95 5.697
77 FC2 96 4.232
77 FC2 97 2.767
77 FC2 98 1.302
77 FC2 99 0.814
77 FC2 100 0.814
77 FC2 101 1.302
77 FC2 102 1.302
77 FC2 103 1.302
77 FC2 104 1.302
77 FC2 105 1.302
77 FC2 106 0.326
77 FC2 107 -0.651
77 FC2 108 -2.116
77 FC2 109 -3.092
77 FC2 110 -3.581
77 FC2 111 -3.581
77 FC2 112 -3.092
77 FC2 113 -2.604
77 FC2 114 -2.116
77 FC2 115 -2.604
77 FC2 116 -4.069
77 FC2 117 -5.534
77 FC2 118 -6.999
77 FC2 119 -6.999
77 FC2 120 -6.510
77 FC2 121 -6.022
77 FC2 122 -6.510
77 FC2 123 -7.487
77 FC2 124 -8.464
77 FC2 125 -7.975
77 FC2 126 -5.534
77 FC2 127 -3.092
77 FC2 128 -1.628
77 FC2 129 -2.116
77 FC2 130 -4.069
77 FC2 131 -6.022
77 FC2 132 -6.510
77 FC2 133 -6.510
77 FC2 134 -5.534
77 FC2 135 -4.557
77 FC2 136 -3.581
77 FC2 137 -2.116
77 FC2 138 -0.651
77 FC2 139 0.814
77 FC2 140 0.814
77 FC2 141 0.326
77 FC2 142 -0.651
77 FC2 143 -1.139
77 FC2 144 -0.651
77 FC2 145 1.302
77 FC2 146 2.279
77 FC2 147 2.279
77 FC2 148 0.814
77 FC2 149 0.326
77 FC2 150 1.302
77 FC2 151 2.767
77 FC2 152 3.255
77 FC2 153 2.767
77 FC2 154 0.814
77 FC2 155 -0.651
77 FC2 156 -0.651
77 FC2 157 1.302
77 FC2 158 3.255
77 FC2 159 3.743
77 FC2 160 2.279
77 FC2 161 -0.163
77 FC2 162 -2.116
77 FC2 163 -2.116
77 FC2 164 -1.628
77 FC2 165 -0.651
77 FC2 166 -1.139
77 FC2 167 -2.116
77 FC2 168 -3.092
77 FC2 169 -3.092
77 FC2 170 -2.604
77 FC2 171 -2.116
77 FC2 172 -3.092
77 FC2 173 -4.557
77 FC2 174 -5.534
77 FC2 175 -5.046
77 FC2 176 -4.557
77 FC2 177 -3.092
77 FC2 178 -3.092
77 FC2 179 -3.581
77 FC2 180 -4.557
77 FC2 181 -4.557
77 FC2 182 -4.557
77 FC2 183 -2.604
77 FC2 184 -1.139
77 FC2 185 0.326
77 FC2 186 0.814
77 FC2 187 0.326
77 FC2 188 -1.139
77 FC2 189 -2.116
77 FC2 190 -2.604
77 FC2 191 -1.628
77 FC2 192 -0.163
77 FC2 193 1.302
77 FC2 194 1.790
77 FC2 195 0.814
77 FC2 196 -1.139
77 FC2 197 -2.604
77 FC2 198 -4.069
77 FC2 199 -4.069
77 FC2 200 -3.092
77 FC2 201 -1.628
77 FC2 202 -0.651
77 FC2 203 -1.139
77 FC2 204 -1.628
77 FC2 205 -2.116
77 FC2 206 -2.116
77 FC2 207 -1.628
77 FC2 208 -0.651
77 FC2 209 -0.163
77 FC2 210 -0.651
77 FC2 211 -1.628
77 FC2 212 -3.092
77 FC2 213 -3.581
77 FC2 214 -3.092
77 FC2 215 -2.116
77 FC2 216 -1.628
77 FC2 217 -2.116
77 FC2 218 -3.581
77 FC2 219 -4.069
77 FC2 220 -4.069
77 FC2 221 -3.092
77 FC2 222 -2.116
77 FC2 223 -2.116
77 FC2 224 -3.092
77 FC2 225 -4.557
77 FC2 226 -5.534
77 FC2 227 -5.046
77 FC2 228 -3.092
77 FC2 229 -0.163
77 FC2 230 1.790
77 FC2 231 2.279
77 FC2 232 2.279
77 FC2 233 1.790
77 FC2 234 1.302
77 FC2 235 1.302
77 FC2 236 1.302
77 FC2 237 0.814
77 FC2 238 1.302
77 FC2 239 2.767
77 FC2 240 3.743
77 FC2 241 4.232
77 FC2 242 3.255
77 FC2 243 1.302
77 FC2 244 -0.163
77 FC2 245 -0.651
77 FC2 246 0.814
77 FC2 247 2.279
77 FC2 248 2.279
77 FC2 249 0.814
77 FC2 250 -1.139
77 FC2 251 -1.139
77 FC2 252 -0.163
77 FC2 253 1.302
77 FC2 254 1.302
77 FC2 255 -0.651
# FC1 chan 12
77 FC1 0 2.604
77 FC1 1 3.581
77 FC1 2 4.069
77 FC1 3 3.581
77 FC1 4 1.628
77 FC1 5 0.651
77 FC1 6 0.651
77 FC1 7 2.604
77 FC1 8 5.046
77 FC1 9 5.534
77 FC1 10 4.069
77 FC1 11 1.139
77 FC1 12 -1.790
77 FC1 13 -2.767
77 FC1 14 -1.790
77 FC1 15 0.163
77 FC1 16 1.139
77 FC1 17 0.163
77 FC1 18 -1.302
77 FC1 19 -2.279
77 FC1 20 -1.302
77 FC1 21 0.163
77 FC1 22 0.651
77 FC1 23 0.163
77 FC1 24 -1.302
77 FC1 25 -1.790
77 FC1 26 -0.814
77 FC1 27 1.628
77 FC1 28 4.069
77 FC1 29 5.046
77 FC1 30 4.069
77 FC1 31 2.604
77 FC1 32 2.116
77 FC1 33 3.092
77 FC1 34 5.534
77 FC1 35 6.999
77 FC1 36 6.999
77 FC1 37 5.534
77 FC1 38 4.069
77 FC1 39 2.604
77 FC1 40 2.116
77 FC1 41 2.116
77 FC1 42 2.604
77 FC1 43 2.604
77 FC1 44 2.116
77 FC1 45 1.139
77 FC1 46 0.651
77 FC1 47 -0.326
77 FC1 48 -1.790
77 FC1 49 -2.767
77 FC1 50 -2.767
77 FC1 51 -0.814
77 FC1 52 0.651
77 FC1 53 1.628
77 FC1 54 1.139
77 FC1 55 -0.814
77 FC1 56 -2.279
77 FC1 57 -2.767
77 FC1 58 -1.302
77 FC1 59 1.139
77 FC1 60 2.116
77 FC1 61 1.139
77 FC1 62 -0.814
77 FC1 63 -2.767
77 FC1 64 -2.767
77 FC1 65 -0.814
77 FC1 66 2.116
77 FC1 67 4.069
77 FC1 68 4.557
77 FC1 69 4.069
77 FC1 70 3.092
77 FC1 71 3.092
77 FC1 72 4.069
77 FC1 73 5.534
77 FC1 74 6.022
77 FC1 75 5.046
77 FC1 76 4.069
77 FC1 77 2.604
77 FC1 78 2.604
77 FC1 79 3.092
77 FC1 80 3.581
77 FC1 81 3.581
77 FC1 82 2.604
77 FC1 83 2.116
77 FC1 84 2.604
77 FC1 85 3.581
77 FC1 86 5.046
77 FC1 87 6.022
77 FC1 88 6.022
77 FC1 89 5.046
77 FC1 90 4.069
77 FC1 91 3.581
77 FC1 92 4.557
77 FC1 93 5.534
77 FC1 94 6.999
77 FC1 95 6.999
77 FC1 96 6.510
77 FC1 97 5.534
77 FC1 98 5.046
77 FC1 99 5.046
77 FC1 100 5.534
77 FC1 101 5.534
77 FC1 102 5.534
77 FC1 103 5.534
77 FC1 104 5.534
77 FC1 105 6.022
77 FC1 106 6.999
77 FC1 107 7.487
77 FC1 108 6.999
77 FC1 109 5.046
77 FC1 110 2.116
77 FC1 111 -0.814
77 FC1 112 -1.790
77 FC1 113 -0.326
77 FC1 114 1.628
77 FC1 115 3.581
77 FC1 116 4.069
77 FC1 117 2.604
77 FC1 118 0.163
77 FC1 119 -1.302
77 FC1 120 -1.302
77 FC1 121 -0.326
77 FC1 122 0.651
77 FC1 123 1.139
77 FC1 124 0.651
77 FC1 125 0.651
77 FC1 126 1.139
77 FC1 127 2.604
77 FC1 128 4.557
77 FC1 129 5.046
77 FC1 130 5.046
77 FC1 131 4.069
77 FC1 132 3.581
77 FC1 133 3.581
77 FC1 134 4.557
77 FC1 135 5.534
77 FC1 136 6.022
77 FC1 137 6.510
77 FC1 138 6.510
77 FC1 139 6.999
77 FC1 140 6.999
77 FC1 141 6.510
77 FC1 142 5.534
77 FC1 143 4.557
77 FC1 144 4.069
77 FC1 145 4.557
77 FC1 146 5.046
77 FC1 147 5.046
77 FC1 148 4.557
77 FC1 149 3.092
77 FC1 150 1.628
77 FC1 151 1.628
77 FC1 152 1.628
77 FC1 153 2.604
77 FC1 154 2.116
77 FC1 155 1.628
77 FC1 156 1.139
77 FC1 157 1.139
77 FC1 158 1.628
77 FC1 159 2.604
77 FC1 160 2.604
77 FC1 161 2.116
77 FC1 162 1.628
77 FC1 163 1.628
77 FC1 164 2.116
77 FC1 165 3.092
77 FC1 166 3.092
77 FC1 167 3.092
77 FC1 168 2.604
77 FC1 169 2.116
77 FC1 170 1.628
77 FC1 171 1.139
77 FC1 172 1.139
77 FC1 173 0.163
77 FC1 174 -0.814
77 FC1 175 -1.302
77 FC1 176 -1.302
77 FC1 177 -0.814
77 FC1 178 -0.814
77 FC1 179 -0.814
77 FC1 180 -0.326
77 FC1 181 -0.326
77 FC1 182 0.163
77 FC1 183 0.651
77 FC1 184 0.651
77 FC1 185 0.651
77 FC1 186 0.651
77 FC1 187 0.651
77 FC1 188 1.139
77 FC1 189 2.116
77 FC1 190 2.116
77 FC1 191 2.116
77 FC1 192 1.628
77 FC1 193 2.116
77 FC1 194 3.092
77 FC1 195 4.069
77 FC1 196 5.046
77 FC1 197 5.046
77 FC1 198 5.046
77 FC1 199 4.069
77 FC1 200 3.581
77 FC1 201 3.092
77 FC1 202 2.604
77 FC1 203 1.628
77 FC1 204 0.163
77 FC1 205 0.163
77 FC1 206 0.163
77 FC1 207 0.651
77 FC1 208 1.139
77 FC1 209 1.139
77 FC1 210 0.163
77 FC1 211 -0.326
77 FC1 212 -0.326
77 FC1 213 -0.326
77 FC1 214 0.651
77 FC1 215 0.163
77 FC1 216 -0.326
77 FC1 217 -1.790
77 FC1 218 -2.279
77 FC1 219 -2.279
77 FC1 220 -2.279
77 FC1 221 -1.790
77 FC1 222 -1.790
77 FC1 223 -1.790
77 FC1 224 -2.279
77 FC1 225 -2.767
77 FC1 226 -2.279
77 FC1 227 -1.790
77 FC1 228 -0.814
77 FC1 229 -0.326
77 FC1 230 0.163
77 FC1 231 0.651
77 FC1 232 2.604
77 FC1 233 5.046
77 FC1 234 7.975
77 FC1 235 9.440
77 FC1 236 8.464
77 FC1 237 5.046
77 FC1 238 1.139
77 FC1 239 -0.814
77 FC1 240 -0.814
77 FC1 241 1.139
77 FC1 242 3.092
77 FC1 243 3.581
77 FC1 244 3.581
77 FC1 245 3.581
77 FC1 246 4.557
77 FC1 247 6.022
77 FC1 248 6.022
77 FC1 249 4.557
77 FC1 250 1.628
77 FC1 251 -0.326
77 FC1 252 0.651
77 FC1 253 3.581
77 FC1 254 6.510
77 FC1 255 6.999
# T8 chan 13
77 T8 0 0.783
77 T8 1 -1.658
77 T8 2 -2.146
77 T8 3 -1.658
77 T8 4 -1.170
77 T8 5 -1.658
77 T8 6 -3.611
77 T8 7 -5.564
77 T8 8 -6.053
77 T8 9 -5.076
77 T8 10 -2.635
77 T8 11 -0.682
77 T8 12 0.783
77 T8 13 2.248
77 T8 14 3.225
77 T8 15 3.713
77 T8 16 4.201
77 T8 17 4.201
77 T8 18 4.690
77 T8 19 6.643
77 T8 20 8.596
77 T8 21 9.084
77 T8 22 7.619
77 T8 23 4.690
77 T8 24 1.272
77 T8 25 0.295
77 T8 26 1.760
77 T8 27 4.690
77 T8 28 6.154
77 T8 29 5.666
77 T8 30 3.713
77 T8 31 1.272
77 T8 32 -1.170
77 T8 33 -3.123
77 T8 34 -6.053
77 T8 35 -10.447
77 T8 36 -15.818
77 T8 37 -20.701
77 T8 38 -24.119
77 T8 39 -25.584
77 T8 40 -24.607
77 T8 41 -21.678
77 T8 42 -17.771
77 T8 43 -13.377
77 T8 44 -10.447
77 T8 45 -8.982
77 T8 46 -9.959
77 T8 47 -11.912
77 T8 48 -12.889
77 T8 49 -11.912
77 T8 50 -9.959
77 T8 51 -8.006
77 T8 52 -7.517
77 T8 53 -8.982
77 T8 54 -9.471
77 T8 55 -8.006
77 T8 56 -4.588
77 T8 57 -1.658
77 T8 58 -0.682
77 T8 59 -2.635
77 T8 60 -5.076
77 T8 61 -6.541
77 T8 62 -5.076
77 T8 63 -2.146
77 T8 64 -0.682
77 T8 65 0.295
77 T8 66 0.783
77 T8 67 2.248
77 T8 68 4.690
77 T8 69 6.154
77 T8 70 4.690
77 T8 71 -0.193
77 T8 72 -5.076
77 T8 73 -6.541
77 T8 74 -3.123
77 T8 75 2.736
77 T8 76 7.619
77 T8 77 7.131
77 T8 78 2.248
77 T8 79 -3.123
77 T8 80 -4.588
77 T8 81 -1.658
77 T8 82 3.225
77 T8 83 5.666
77 T8 84 3.713
77 T8 85 -2.146
77 T8 86 -7.517
77 T8 87 -10.447
77 T8 88 -9.959
77 T8 89 -7.029
77 T8 90 -3.611
77 T8 91 -2.635
77 T8 92 -3.123
77 T8 93 -5.564
77 T8 94 -8.006
77 T8 95 -9.959
77 T8 96 -10.935
77 T8 97 -10.447
77 T8 98 -9.471
77 T8 99 -8.006
77 T8 100 -7.517
77 T8 101 -7.029
77 T8 102 -6.541
77 T8 103 -6.053
77 T8 104 -6.053
77 T8 105 -7.029
77 T8 106 -8.494
77 T8 107 -8.982
77 T8 108 -7.029
77 T8 109 -3.611
77 T8 110 0.783
77 T8 111 3.225
77 T8 112 2.736
77 T8 113 -0.682
77 T8 114 -4.100
77 T8 115 -5.564
77 T8 116 -4.588
77 T8 117 -2.635
77 T8 118 -1.170
77 T8 119 -1.170
77 T8 120 -2.146
77 T8 121 -3.123
77 T8 122 -2.635
77 T8 123 -1.658
77 T8 124 -1.658
77 T8 125 -2.635
77 T8 126 -5.076
77 T8 127 -7.029
77 T8 128 -8.982
77 T8 129 -10.935
77 T8 130 -12.889
77 T8 131 -14.842
77 T8 132 -15.818
77 T8 133 -14.842
77 T8 134 -12.889
77 T8 135 -9.471
77 T8 136 -7.517
77 T8 137 -7.029
77 T8 138 -8.982
77 T8 139 -9.959
77 T8 140 -9.471
77 T8 141 -7.517
77 T8 142 -5.564
77 T8 143 -4.588
77 T8 144 -5.564
77 T8 145 -6.053
77 T8 146 -5.076
77 T8 147 -3.123
77 T8 148 -0.193
77 T8 149 0.783
77 T8 150 0.783
77 T8 151 -0.193
77 T8 152 -1.170
77 T8 153 -2.146
77 T8 154 -3.611
77 T8 155 -5.076
77 T8 156 -5.564
77 T8 157 -5.076
77 T8 158 -3.123
77 T8 159 -2.146
77 T8 160 -2.146
77 T8 161 -5.076
77 T8 162 -8.494
77 T8 163 -10.935
77 T8 164 -12.400
77 T8 165 -13.377
77 T8 166 -13.865
77 T8 167 -13.865
77 T8 168 -11.912
77 T8 169 -9.471
77 T8 170 -7.029
77 T8 171 -7.029
77 T8 172 -10.447
77 T8 173 -14.842
77 T8 174 -17.283
77 T8 175 -15.818
77 T8 176 -10.447
77 T8 177 -3.611
77 T8 178 -0.193
77 T8 179 -0.682
77 T8 180 -3.611
77 T8 181 -6.541
77 T8 182 -6.541
77 T8 183 -3.123
77 T8 184 0.295
77 T8 185 2.248
77 T8 186 1.760
77 T8 187 -0.682
77 T8 188 -2.635
77 T8 189 -2.635
77 T8 190 0.295
77 T8 191 3.713
77 T8 192 5.178
77 T8 193 3.225
77 T8 194 -1.170
77 T8 195 -6.053
77 T8 196 -9.959
77 T8 197 -11.912
77 T8 198 -12.889
77 T8 199 -13.377
77 T8 200 -13.865
77 T8 201 -13.865
77 T8 202 -12.400
77 T8 203 -10.935
77 T8 204 -10.447
77 T8 205 -11.912
77 T8 206 -13.865
77 T8 207 -14.842
77 T8 208 -12.889
77 T8 209 -7.517
77 T8 210 -3.123
77 T8 211 -1.658
77 T8 212 -4.100
77 T8 213 -8.006
77 T8 214 -10.935
77 T8 215 -10.447
77 T8 216 -8.006
77 T8 217 -6.053
77 T8 218 -6.053
77 T8 219 -8.006
77 T8 220 -10.935
77 T8 221 -11.424
77 T8 222 -10.935
77 T8 223 -9.471
77 T8 224 -8.982
77 T8 225 -9.959
77 T8 226 -10.447
77 T8 227 -9.471
77 T8 228 -7.029
77 T8 229 -5.076
77 T8 230 -4.588
77 T8 231 -6.053
77 T8 232 -8.006
77 T8 233 -9.959
77 T8 234 -10.935
77 T8 235 -10.935
77 T8 236 -10.447
77 T8 237 -10.447
77 T8 238 -10.935
77 T8 239 -11.912
77 T8 240 -13.865
77 T8 241 -16.307
77 T8 242 -17.283
77 T8 243 -16.307
77 T8 244 -12.889
77 T8 245 -8.006
77 T8 246 -6.053
77 T8 247 -8.494
77 T8 248 -14.842
77 T8 249 -22.166
77 T8 250 -25.096
77 T8 251 -22.654
77 T8 252 -15.818
77 T8 253 -9.471
77 T8 254 -7.029
77 T8 255 -9.471
# T7 chan 14
77 T7 0 5.381
77 T7 1 3.916
77 T7 2 5.381
77 T7 3 6.358
77 T7 4 5.381
77 T7 5 3.916
77 T7 6 2.452
77 T7 7 3.916
77 T7 8 6.358
77 T7 9 7.334
77 T7 10 4.893
77 T7 11 0.498
77 T7 12 -2.920
77 T7 13 -1.943
77 T7 14 3.916
77 T7 15 10.264
77 T7 16 12.705
77 T7 17 11.241
77 T7 18 5.870
77 T7 19 1.963
77 T7 20 0.987
77 T7 21 2.452
77 T7 22 3.428
77 T7 23 3.428
77 T7 24 2.940
77 T7 25 5.870
77 T7 26 11.729
77 T7 27 18.565
77 T7 28 22.471
77 T7 29 20.518
77 T7 30 14.170
77 T7 31 7.334
77 T7 32 3.428
77 T7 33 4.405
77 T7 34 7.823
77 T7 35 9.776
77 T7 36 8.799
77 T7 37 4.893
77 T7 38 0.987
77 T7 39 -1.943
77 T7 40 -3.408
77 T7 41 -4.873
77 T7 42 -7.314
77 T7 43 -9.755
77 T7 44 -12.197
77 T7 45 -13.173
77 T7 46 -12.685
77 T7 47 -11.709
77 T7 48 -11.220
77 T7 49 -10.732
77 T7 50 -9.267
77 T7 51 -7.314
77 T7 52 -5.361
77 T7 53 -3.896
77 T7 54 -3.408
77 T7 55 -2.431
77 T7 56 -0.966
77 T7 57 1.475
77 T7 58 2.452
77 T7 59 0.010
77 T7 60 -5.849
77 T7 61 -10.732
77 T7 62 -11.709
77 T7 63 -6.826
77 T7 64 1.475
77 T7 65 8.311
77 T7 66 10.264
77 T7 67 7.334
77 T7 68 2.940
77 T7 69 0.010
77 T7 70 -0.478
77 T7 71 -0.966
77 T7 72 -3.408
77 T7 73 -6.337
77 T7 74 -7.314
77 T7 75 -4.873
77 T7 76 1.475
77 T7 77 7.334
77 T7 78 9.288
77 T7 79 7.334
77 T7 80 2.940
77 T7 81 -0.478
77 T7 82 -1.943
77 T7 83 -0.478
77 T7 84 0.010
77 T7 85 -0.966
77 T7 86 -1.455
77 T7 87 -0.966
77 T7 88 0.987
77 T7 89 3.428
77 T7 90 4.893
77 T7 91 4.405
77 T7 92 3.428
77 T7 93 2.452
77 T7 94 2.452
77 T7 95 2.452
77 T7 96 0.498
77 T7 97 -3.408
77 T7 98 -6.337
77 T7 99 -7.314
77 T7 100 -4.873
77 T7 101 0.010
77 T7 102 3.428
77 T7 103 2.940
77 T7 104 -0.966
77 T7 105 -4.384
77 T7 106 -3.896
77 T7 107 0.987
77 T7 108 7.823
77 T7 109 12.705
77 T7 110 13.682
77 T7 111 11.729
77 T7 112 9.288
77 T7 113 6.846
77 T7 114 6.358
77 T7 115 6.358
77 T7 116 6.358
77 T7 117 6.846
77 T7 118 7.823
77 T7 119 9.288
77 T7 120 11.241
77 T7 121 11.729
77 T7 122 10.752
77 T7 123 7.334
77 T7 124 3.916
77 T7 125 1.475
77 T7 126 0.987
77 T7 127 2.452
77 T7 128 4.405
77 T7 129 4.893
77 T7 130 2.940
77 T7 131 -1.943
77 T7 132 -5.361
77 T7 133 -6.337
77 T7 134 -3.408
77 T7 135 0.987
77 T7 136 2.452
77 T7 137 0.498
77 T7 138 -4.873
77 T7 139 -9.755
77 T7 140 -10.732
77 T7 141 -7.314
77 T7 142 -1.943
77 T7 143 1.963
77 T7 144 2.940
77 T7 145 1.475
77 T7 146 0.987
77 T7 147 1.963
77 T7 148 2.940
77 T7 149 1.475
77 T7 150 -2.920
77 T7 151 -7.802
77 T7 152 -9.755
77 T7 153 -6.826
77 T7 154 0.010
77 T7 155 5.381
77 T7 156 5.870
77 T7 157 1.963
77 T7 158 -2.920
77 T7 159 -3.896
77 T7 160 -0.966
77 T7 161 3.428
77 T7 162 5.381
77 T7 163 2.940
77 T7 164 -2.920
77 T7 165 -8.291
77 T7 166 -9.755
77 T7 167 -6.826
77 T7 168 0.010
77 T7 169 5.870
77 T7 170 7.334
77 T7 171 3.428
77 T7 172 -3.408
77 T7 173 -9.267
77 T7 174 -10.732
77 T7 175 -7.314
77 T7 176 -2.431
77 T7 177 -0.478
77 T7 178 -2.431
77 T7 179 -6.337
77 T7 180 -8.779
77 T7 181 -7.314
77 T7 182 -3.896
77 T7 183 -0.478
77 T7 184 0.987
77 T7 185 0.987
77 T7 186 1.963
77 T7 187 4.405
77 T7 188 7.334
77 T7 189 8.799
77 T7 190 8.311
77 T7 191 5.381
77 T7 192 2.940
77 T7 193 1.475
77 T7 194 0.987
77 T7 195 0.498
77 T7 196 -0.478
77 T7 197 -1.943
77 T7 198 -3.408
77 T7 199 -4.873
77 T7 200 -6.337
77 T7 201 -7.314
77 T7 202 -6.337
77 T7 203 -3.408
77 T7 204 0.010
77 T7 205 1.963
77 T7 206 0.987
77 T7 207 -3.408
77 T7 208 -8.291
77 T7 209 -10.732
77 T7 210 -8.779
77 T7 211 -4.873
77 T7 212 -2.431
77 T7 213 -3.896
77 T7 214 -8.291
77 T7 215 -13.173
77 T7 216 -14.150
77 T7 217 -10.244
77 T7 218 -3.408
77 T7 219 0.987
77 T7 220 1.475
77 T7 221 -2.431
77 T7 222 -7.314
77 T7 223 -9.755
77 T7 224 -9.755
77 T7 225 -7.802
77 T7 226 -5.849
77 T7 227 -5.361
77 T7 228 -5.361
77 T7 229 -5.361
77 T7 230 -4.873
77 T7 231 -4.384
77 T7 232 -4.384
77 T7 233 -4.384
77 T7 234 -4.384
77 T7 235 -2.431
77 T7 236 0.010
77 T7 237 0.498
77 T7 238 -0.966
77 T7 239 -5.849
77 T7 240 -11.709
77 T7 241 -15.127
77 T7 242 -15.127
77 T7 243 -10.732
77 T7 244 -4.873
77 T7 245 0.498
77 T7 246 3.916
77 T7 247 3.916
77 T7 248 0.987
77 T7 249 -2.431
77 T7 250 -5.361
77 T7 251 -4.873
77 T7 252 -0.966
77 T7 253 5.870
77 T7 254 11.241
77 T7 255 12.217
# CZ chan 15
77 CZ 0 -1.699
77 CZ 1 -2.187
77 CZ 2 -2.675
77 CZ 3 -2.675
77 CZ 4 -3.164
77 CZ 5 -2.675
77 CZ 6 -1.211
77 CZ 7 0.743
77 CZ 8 1.719
77 CZ 9 1.719
77 CZ 10 0.254
77 CZ 11 -0.234
77 CZ 12 1.231
77 CZ 13 4.161
77 CZ 14 7.090
77 CZ 15 9.043
77 CZ 16 9.532
77 CZ 17 10.020
77 CZ 18 9.532
77 CZ 19 9.043
77 CZ 20 9.043
77 CZ 21 9.043
77 CZ 22 9.532
77 CZ 23 10.020
77 CZ 24 10.020
77 CZ 25 10.020
77 CZ 26 10.020
77 CZ 27 10.508
77 CZ 28 10.997
77 CZ 29 10.020
77 CZ 30 7.579
77 CZ 31 4.161
77 CZ 32 1.231
77 CZ 33 0.254
77 CZ 34 0.743
77 CZ 35 -0.234
77 CZ 36 -5.117
77 CZ 37 -13.906
77 CZ 38 -22.695
77 CZ 39 -26.601
77 CZ 40 -24.160
77 CZ 41 -17.812
77 CZ 42 -11.953
77 CZ 43 -10.488
77 CZ 44 -12.929
77 CZ 45 -17.812
77 CZ 46 -20.742
77 CZ 47 -20.253
77 CZ 48 -16.836
77 CZ 49 -13.906
77 CZ 50 -11.953
77 CZ 51 -10.488
77 CZ 52 -9.023
77 CZ 53 -5.605
77 CZ 54 -1.699
77 CZ 55 1.231
77 CZ 56 0.743
77 CZ 57 -3.164
77 CZ 58 -8.535
77 CZ 59 -13.418
77 CZ 60 -13.906
77 CZ 61 -10.000
77 CZ 62 -2.675
77 CZ 63 4.161
77 CZ 64 8.067
77 CZ 65 6.602
77 CZ 66 2.207
77 CZ 67 -2.675
77 CZ 68 -5.117
77 CZ 69 -4.140
77 CZ 70 -1.211
77 CZ 71 1.231
77 CZ 72 2.696
77 CZ 73 3.184
77 CZ 74 2.696
77 CZ 75 2.696
77 CZ 76 2.696
77 CZ 77 1.719
77 CZ 78 0.743
77 CZ 79 -0.234
77 CZ 80 1.231
77 CZ 81 3.184
77 CZ 82 5.625
77 CZ 83 5.625
77 CZ 84 2.207
77 CZ 85 -2.675
77 CZ 86 -6.582
77 CZ 87 -7.070
77 CZ 88 -4.140
77 CZ 89 0.743
77 CZ 90 3.672
77 CZ 91 3.672
77 CZ 92 0.743
77 CZ 93 -2.675
77 CZ 94 -6.093
77 CZ 95 -8.046
77 CZ 96 -10.976
77 CZ 97 -15.371
77 CZ 98 -19.277
77 CZ 99 -20.742
77 CZ 100 -16.347
77 CZ 101 -8.046
77 CZ 102 1.231
77 CZ 103 4.649
77 CZ 104 0.743
77 CZ 105 -7.558
77 CZ 106 -14.882
77 CZ 107 -15.371
77 CZ 108 -8.535
77 CZ 109 1.719
77 CZ 110 8.067
77 CZ 111 7.090
77 CZ 112 0.743
77 CZ 113 -5.117
77 CZ 114 -6.093
77 CZ 115 -1.699
77 CZ 116 4.161
77 CZ 117 7.579
77 CZ 118 5.625
77 CZ 119 1.719
77 CZ 120 -1.699
77 CZ 121 -1.699
77 CZ 122 -0.234
77 CZ 123 0.743
77 CZ 124 -1.211
77 CZ 125 -6.582
77 CZ 126 -12.441
77 CZ 127 -16.347
77 CZ 128 -16.836
77 CZ 129 -15.371
77 CZ 130 -14.882
77 CZ 131 -14.882
77 CZ 132 -16.347
77 CZ 133 -16.347
77 CZ 134 -14.882
77 CZ 135 -12.441
77 CZ 136 -11.953
77 CZ 137 -13.418
77 CZ 138 -15.371
77 CZ 139 -15.859
77 CZ 140 -12.929
77 CZ 141 -8.046
77 CZ 142 -4.140
77 CZ 143 -2.675
77 CZ 144 -4.140
77 CZ 145 -5.605
77 CZ 146 -4.628
77 CZ 147 -1.699
77 CZ 148 0.743
77 CZ 149 0.743
77 CZ 150 -2.187
77 CZ 151 -5.605
77 CZ 152 -7.070
77 CZ 153 -6.093
77 CZ 154 -4.140
77 CZ 155 -4.140
77 CZ 156 -5.605
77 CZ 157 -8.046
77 CZ 158 -8.535
77 CZ 159 -5.605
77 CZ 160 -2.187
77 CZ 161 -0.234
77 CZ 162 -2.675
77 CZ 163 -7.558
77 CZ 164 -12.441
77 CZ 165 -14.882
77 CZ 166 -12.929
77 CZ 167 -9.023
77 CZ 168 -6.093
77 CZ 169 -6.582
77 CZ 170 -10.000
77 CZ 171 -14.882
77 CZ 172 -17.324
77 CZ 173 -16.347
77 CZ 174 -12.441
77 CZ 175 -8.535
77 CZ 176 -5.605
77 CZ 177 -5.117
77 CZ 178 -5.605
77 CZ 179 -5.605
77 CZ 180 -3.652
77 CZ 181 -0.722
77 CZ 182 1.231
77 CZ 183 1.719
77 CZ 184 1.231
77 CZ 185 1.231
77 CZ 186 2.207
77 CZ 187 3.672
77 CZ 188 4.649
77 CZ 189 5.137
77 CZ 190 5.137
77 CZ 191 5.625
77 CZ 192 6.114
77 CZ 193 6.602
77 CZ 194 5.625
77 CZ 195 3.672
77 CZ 196 0.743
77 CZ 197 -2.187
77 CZ 198 -4.628
77 CZ 199 -6.582
77 CZ 200 -8.046
77 CZ 201 -9.511
77 CZ 202 -10.488
77 CZ 203 -10.976
77 CZ 204 -10.488
77 CZ 205 -10.000
77 CZ 206 -9.023
77 CZ 207 -7.558
77 CZ 208 -6.093
77 CZ 209 -4.628
77 CZ 210 -2.675
77 CZ 211 -1.211
77 CZ 212 0.254
77 CZ 213 1.231
77 CZ 214 0.254
77 CZ 215 -2.675
77 CZ 216 -5.605
77 CZ 217 -7.070
77 CZ 218 -5.117
77 CZ 219 -1.211
77 CZ 220 1.719
77 CZ 221 2.207
77 CZ 222 -1.211
77 CZ 223 -5.605
77 CZ 224 -9.023
77 CZ 225 -10.000
77 CZ 226 -8.046
77 CZ 227 -4.140
77 CZ 228 0.254
77 CZ 229 3.672
77 CZ 230 4.161
77 CZ 231 0.743
77 CZ 232 -5.117
77 CZ 233 -11.464
77 CZ 234 -14.394
77 CZ 235 -12.929
77 CZ 236 -8.046
77 CZ 237 -4.140
77 CZ 238 -4.628
77 CZ 239 -10.000
77 CZ 240 -17.324
77 CZ 241 -22.695
77 CZ 242 -22.207
77 CZ 243 -16.836
77 CZ 244 -10.488
77 CZ 245 -6.582
77 CZ 246 -7.558
77 CZ 247 -11.464
77 CZ 248 -15.859
77 CZ 249 -19.277
77 CZ 250 -21.230
77 CZ 251 -22.207
77 CZ 252 -22.207
77 CZ 253 -20.742
77 CZ 254 -17.324
77 CZ 255 -12.929
# C3 chan 16
77 C3 0 6.093
77 C3 1 5.117
77 C3 2 3.652
77 C3 3 2.187
77 C3 4 2.187
77 C3 5 3.164
77 C3 6 4.140
77 C3 7 5.117
77 C3 8 4.628
77 C3 9 3.164
77 C3 10 1.211
77 C3 11 -1.231
77 C3 12 -3.184
77 C3 13 -3.672
77 C3 14 -3.184
77 C3 15 -1.231
77 C3 16 0.722
77 C3 17 2.187
77 C3 18 3.164
77 C3 19 3.164
77 C3 20 2.675
77 C3 21 2.187
77 C3 22 1.699
77 C3 23 0.722
77 C3 24 0.234
77 C3 25 1.211
77 C3 26 3.652
77 C3 27 7.070
77 C3 28 9.511
77 C3 29 10.000
77 C3 30 7.558
77 C3 31 5.117
77 C3 32 3.164
77 C3 33 3.164
77 C3 34 5.117
77 C3 35 6.582
77 C3 36 7.070
77 C3 37 6.093
77 C3 38 4.140
77 C3 39 1.699
77 C3 40 -0.743
77 C3 41 -2.696
77 C3 42 -4.649
77 C3 43 -6.602
77 C3 44 -7.579
77 C3 45 -8.067
77 C3 46 -7.090
77 C3 47 -6.114
77 C3 48 -6.114
77 C3 49 -6.602
77 C3 50 -6.114
77 C3 51 -5.137
77 C3 52 -3.184
77 C3 53 -2.207
77 C3 54 -2.207
77 C3 55 -3.672
77 C3 56 -4.161
77 C3 57 -3.672
77 C3 58 -0.743
77 C3 59 2.187
77 C3 60 3.652
77 C3 61 2.187
77 C3 62 -1.231
77 C3 63 -4.161
77 C3 64 -4.649
77 C3 65 -2.696
77 C3 66 1.699
77 C3 67 4.628
77 C3 68 5.117
77 C3 69 3.652
77 C3 70 1.211
77 C3 71 0.722
77 C3 72 1.699
77 C3 73 3.652
77 C3 74 4.628
77 C3 75 3.652
77 C3 76 1.699
77 C3 77 -0.254
77 C3 78 -0.743
77 C3 79 -0.743
77 C3 80 0.234
77 C3 81 0.722
77 C3 82 0.234
77 C3 83 -0.254
77 C3 84 -0.254
77 C3 85 0.722
77 C3 86 1.699
77 C3 87 2.675
77 C3 88 3.164
77 C3 89 3.652
77 C3 90 4.140
77 C3 91 4.140
77 C3 92 4.628
77 C3 93 3.652
77 C3 94 2.675
77 C3 95 1.699
77 C3 96 1.211
77 C3 97 1.699
77 C3 98 1.699
77 C3 99 2.187
77 C3 100 2.187
77 C3 101 2.187
77 C3 102 3.164
77 C3 103 4.140
77 C3 104 4.628
77 C3 105 4.628
77 C3 106 5.117
77 C3 107 5.605
77 C3 108 6.582
77 C3 109 7.070
77 C3 110 7.070
77 C3 111 6.093
77 C3 112 5.117
77 C3 113 5.117
77 C3 114 6.582
77 C3 115 7.558
77 C3 116 8.535
77 C3 117 8.535
77 C3 118 8.046
77 C3 119 8.046
77 C3 120 8.535
77 C3 121 9.023
77 C3 122 10.000
77 C3 123 10.976
77 C3 124 10.976
77 C3 125 10.488
77 C3 126 9.511
77 C3 127 8.535
77 C3 128 7.070
77 C3 129 5.117
77 C3 130 4.140
77 C3 131 4.140
77 C3 132 5.605
77 C3 133 7.558
77 C3 134 9.023
77 C3 135 8.535
77 C3 136 6.582
77 C3 137 4.628
77 C3 138 3.652
77 C3 139 4.140
77 C3 140 5.117
77 C3 141 6.582
77 C3 142 6.582
77 C3 143 5.605
77 C3 144 4.140
77 C3 145 3.652
77 C3 146 3.164
77 C3 147 2.675
77 C3 148 1.699
77 C3 149 -0.254
77 C3 150 -1.231
77 C3 151 -0.743
77 C3 152 1.211
77 C3 153 2.675
77 C3 154 3.164
77 C3 155 2.187
77 C3 156 0.234
77 C3 157 -1.231
77 C3 158 -1.231
77 C3 159 0.234
77 C3 160 1.699
77 C3 161 2.675
77 C3 162 3.164
77 C3 163 3.652
77 C3 164 4.628
77 C3 165 5.605
77 C3 166 5.605
77 C3 167 4.628
77 C3 168 2.187
77 C3 169 -0.254
77 C3 170 -2.207
77 C3 171 -2.696
77 C3 172 -1.719
77 C3 173 -0.743
77 C3 174 -0.743
77 C3 175 -1.719
77 C3 176 -2.207
77 C3 177 -1.719
77 C3 178 -0.743
77 C3 179 0.722
77 C3 180 1.699
77 C3 181 2.187
77 C3 182 2.675
77 C3 183 2.675
77 C3 184 1.699
77 C3 185 0.234
77 C3 186 -1.231
77 C3 187 -1.719
77 C3 188 -0.254
77 C3 189 2.187
77 C3 190 3.652
77 C3 191 3.652
77 C3 192 1.699
77 C3 193 -0.743
77 C3 194 -1.231
77 C3 195 0.234
77 C3 196 2.187
77 C3 197 3.652
77 C3 198 4.140
77 C3 199 3.652
77 C3 200 3.652
77 C3 201 3.164
77 C3 202 1.699
77 C3 203 -0.254
77 C3 204 -2.207
77 C3 205 -3.184
77 C3 206 -2.696
77 C3 207 -1.719
77 C3 208 -1.231
77 C3 209 -2.696
77 C3 210 -4.161
77 C3 211 -4.649
77 C3 212 -3.672
77 C3 213 -1.719
77 C3 214 -0.254
77 C3 215 -1.231
77 C3 216 -3.672
77 C3 217 -5.625
77 C3 218 -6.602
77 C3 219 -6.114
77 C3 220 -4.649
77 C3 221 -4.649
77 C3 222 -5.137
77 C3 223 -5.625
77 C3 224 -5.137
77 C3 225 -3.672
77 C3 226 -1.719
77 C3 227 -0.743
77 C3 228 -0.743
77 C3 229 -2.207
77 C3 230 -4.649
77 C3 231 -6.602
77 C3 232 -5.625
77 C3 233 -3.672
77 C3 234 -0.254
77 C3 235 2.675
77 C3 236 3.164
77 C3 237 1.699
77 C3 238 -1.719
77 C3 239 -5.625
77 C3 240 -9.043
77 C3 241 -10.020
77 C3 242 -8.555
77 C3 243 -5.137
77 C3 244 -0.743
77 C3 245 2.675
77 C3 246 4.628
77 C3 247 4.628
77 C3 248 2.675
77 C3 249 0.234
77 C3 250 -1.231
77 C3 251 -0.254
77 C3 252 2.187
77 C3 253 5.117
77 C3 254 6.582
77 C3 255 5.117
# C4 chan 17
77 C4 0 -1.058
77 C4 1 -2.523
77 C4 2 -3.499
77 C4 3 -3.499
77 C4 4 -2.035
77 C4 5 -1.058
77 C4 6 -0.570
77 C4 7 -1.546
77 C4 8 -2.523
77 C4 9 -2.523
77 C4 10 -0.570
77 C4 11 1.872
77 C4 12 3.825
77 C4 13 3.825
77 C4 14 1.383
77 C4 15 -0.081
77 C4 16 -0.570
77 C4 17 0.895
77 C4 18 3.825
77 C4 19 6.266
77 C4 20 5.778
77 C4 21 3.825
77 C4 22 0.895
77 C4 23 -1.546
77 C4 24 -2.035
77 C4 25 -1.058
77 C4 26 -0.081
77 C4 27 -0.081
77 C4 28 -1.546
77 C4 29 -2.523
77 C4 30 -3.988
77 C4 31 -4.476
77 C4 32 -4.476
77 C4 33 -5.452
77 C4 34 -6.917
77 C4 35 -9.847
77 C4 36 -11.800
77 C4 37 -12.777
77 C4 38 -12.288
77 C4 39 -11.312
77 C4 40 -9.847
77 C4 41 -8.382
77 C4 42 -6.429
77 C4 43 -3.988
77 C4 44 -2.523
77 C4 45 -2.523
77 C4 46 -3.499
77 C4 47 -5.452
77 C4 48 -6.917
77 C4 49 -5.941
77 C4 50 -3.988
77 C4 51 -1.546
77 C4 52 -0.570
77 C4 53 -1.058
77 C4 54 -2.523
77 C4 55 -4.476
77 C4 56 -5.452
77 C4 57 -4.964
77 C4 58 -3.988
77 C4 59 -3.011
77 C4 60 -3.011
77 C4 61 -3.011
77 C4 62 -3.011
77 C4 63 -2.523
77 C4 64 -2.035
77 C4 65 -1.058
77 C4 66 0.407
77 C4 67 1.383
77 C4 68 2.848
77 C4 69 4.801
77 C4 70 5.290
77 C4 71 4.801
77 C4 72 3.337
77 C4 73 0.895
77 C4 74 -0.570
77 C4 75 -1.058
77 C4 76 -0.081
77 C4 77 1.872
77 C4 78 2.848
77 C4 79 2.848
77 C4 80 2.360
77 C4 81 1.872
77 C4 82 2.360
77 C4 83 3.825
77 C4 84 4.313
77 C4 85 3.337
77 C4 86 0.407
77 C4 87 -2.523
77 C4 88 -4.964
77 C4 89 -4.964
77 C4 90 -3.499
77 C4 91 -2.035
77 C4 92 -1.546
77 C4 93 -2.035
77 C4 94 -3.011
77 C4 95 -4.476
77 C4 96 -4.964
77 C4 97 -4.964
77 C4 98 -4.964
77 C4 99 -4.964
77 C4 100 -4.476
77 C4 101 -3.988
77 C4 102 -3.499
77 C4 103 -3.499
77 C4 104 -3.988
77 C4 105 -4.964
77 C4 106 -5.941
77 C4 107 -6.917
77 C4 108 -6.917
77 C4 109 -5.941
77 C4 110 -3.988
77 C4 111 -2.523
77 C4 112 -1.546
77 C4 113 -2.035
77 C4 114 -3.499
77 C4 115 -5.941
77 C4 116 -7.894
77 C4 117 -7.894
77 C4 118 -6.917
77 C4 119 -4.964
77 C4 120 -3.988
77 C4 121 -4.964
77 C4 122 -6.429
77 C4 123 -8.382
77 C4 124 -8.382
77 C4 125 -6.917
77 C4 126 -4.476
77 C4 127 -3.011
77 C4 128 -3.988
77 C4 129 -6.429
77 C4 130 -8.870
77 C4 131 -9.847
77 C4 132 -8.870
77 C4 133 -6.917
77 C4 134 -5.452
77 C4 135 -5.452
77 C4 136 -6.429
77 C4 137 -7.406
77 C4 138 -6.917
77 C4 139 -5.941
77 C4 140 -4.964
77 C4 141 -4.964
77 C4 142 -5.452
77 C4 143 -5.941
77 C4 144 -5.941
77 C4 145 -5.452
77 C4 146 -4.964
77 C4 147 -3.988
77 C4 148 -3.499
77 C4 149 -2.523
77 C4 150 -0.570
77 C4 151 0.407
77 C4 152 0.895
77 C4 153 0.407
77 C4 154 -1.546
77 C4 155 -3.499
77 C4 156 -3.499
77 C4 157 -2.523
77 C4 158 -1.058
77 C4 159 -1.058
77 C4 160 -2.035
77 C4 161 -3.499
77 C4 162 -4.964
77 C4 163 -5.941
77 C4 164 -5.452
77 C4 165 -5.452
77 C4 166 -5.452
77 C4 167 -6.429
77 C4 168 -6.917
77 C4 169 -6.429
77 C4 170 -5.941
77 C4 171 -5.941
77 C4 172 -6.917
77 C4 173 -7.894
77 C4 174 -7.894
77 C4 175 -6.917
77 C4 176 -4.964
77 C4 177 -3.011
77 C4 178 -3.011
77 C4 179 -3.988
77 C4 180 -5.941
77 C4 181 -6.429
77 C4 182 -5.941
77 C4 183 -3.988
77 C4 184 -1.058
77 C4 185 0.407
77 C4 186 0.407
77 C4 187 -0.570
77 C4 188 -2.523
77 C4 189 -3.011
77 C4 190 -3.011
77 C4 191 -2.035
77 C4 192 -0.570
77 C4 193 -0.081
77 C4 194 -1.546
77 C4 195 -3.988
77 C4 196 -6.429
77 C4 197 -8.382
77 C4 198 -9.359
77 C4 199 -8.870
77 C4 200 -8.870
77 C4 201 -8.382
77 C4 202 -7.406
77 C4 203 -5.941
77 C4 204 -4.964
77 C4 205 -4.964
77 C4 206 -4.964
77 C4 207 -4.964
77 C4 208 -4.476
77 C4 209 -3.499
77 C4 210 -3.499
77 C4 211 -4.964
77 C4 212 -6.429
77 C4 213 -7.406
77 C4 214 -7.406
77 C4 215 -5.941
77 C4 216 -3.988
77 C4 217 -3.011
77 C4 218 -3.499
77 C4 219 -5.452
77 C4 220 -6.429
77 C4 221 -5.941
77 C4 222 -4.964
77 C4 223 -4.476
77 C4 224 -4.964
77 C4 225 -5.452
77 C4 226 -5.452
77 C4 227 -3.988
77 C4 228 -2.035
77 C4 229 -0.570
77 C4 230 -0.081
77 C4 231 -1.058
77 C4 232 -2.523
77 C4 233 -4.476
77 C4 234 -5.452
77 C4 235 -5.941
77 C4 236 -5.452
77 C4 237 -3.988
77 C4 238 -2.035
77 C4 239 -1.058
77 C4 240 -1.546
77 C4 241 -3.499
77 C4 242 -6.429
77 C4 243 -7.406
77 C4 244 -6.429
77 C4 245 -3.988
77 C4 246 -2.035
77 C4 247 -3.011
77 C4 248 -5.941
77 C4 249 -8.382
77 C4 250 -8.382
77 C4 251 -6.429
77 C4 252 -3.011
77 C4 253 -3.011
77 C4 254 -6.429
77 C4 255 -10.335
# CP5 chan 18
77 CP5 0 8.860
77 CP5 1 5.442
77 CP5 2 3.489
77 CP5 3 2.513
77 CP5 4 3.001
77 CP5 5 3.001
77 CP5 6 3.489
77 CP5 7 3.489
77 CP5 8 3.977
77 CP5 9 3.489
77 CP5 10 1.536
77 CP5 11 -1.394
77 CP5 12 -2.858
77 CP5 13 -2.370
77 CP5 14 0.071
77 CP5 15 3.001
77 CP5 16 3.977
77 CP5 17 2.513
77 CP5 18 1.048
77 CP5 19 0.559
77 CP5 20 2.024
77 CP5 21 4.466
77 CP5 22 5.931
77 CP5 23 5.442
77 CP5 24 3.977
77 CP5 25 3.977
77 CP5 26 6.907
77 CP5 27 12.278
77 CP5 28 17.161
77 CP5 29 18.138
77 CP5 30 14.720
77 CP5 31 8.860
77 CP5 32 3.489
77 CP5 33 2.024
77 CP5 34 3.977
77 CP5 35 6.907
77 CP5 36 7.395
77 CP5 37 4.466
77 CP5 38 -0.417
77 CP5 39 -5.788
77 CP5 40 -9.206
77 CP5 41 -11.159
77 CP5 42 -13.112
77 CP5 43 -15.554
77 CP5 44 -17.019
77 CP5 45 -17.019
77 CP5 46 -14.089
77 CP5 47 -10.183
77 CP5 48 -6.765
77 CP5 49 -6.276
77 CP5 50 -9.206
77 CP5 51 -11.648
77 CP5 52 -12.624
77 CP5 53 -10.671
77 CP5 54 -6.276
77 CP5 55 -2.858
77 CP5 56 -0.905
77 CP5 57 -1.394
77 CP5 58 -2.370
77 CP5 59 -1.882
77 CP5 60 0.559
77 CP5 61 1.536
77 CP5 62 1.536
77 CP5 63 -0.905
77 CP5 64 -3.347
77 CP5 65 -3.835
77 CP5 66 -1.882
77 CP5 67 1.536
77 CP5 68 3.001
77 CP5 69 1.048
77 CP5 70 -2.858
77 CP5 71 -7.253
77 CP5 72 -7.741
77 CP5 73 -4.812
77 CP5 74 -0.417
77 CP5 75 3.489
77 CP5 76 3.977
77 CP5 77 2.024
77 CP5 78 -0.417
77 CP5 79 -2.370
77 CP5 80 -3.347
77 CP5 81 -3.835
77 CP5 82 -4.323
77 CP5 83 -5.300
77 CP5 84 -5.788
77 CP5 85 -5.300
77 CP5 86 -3.835
77 CP5 87 -0.905
77 CP5 88 2.024
77 CP5 89 4.466
77 CP5 90 5.442
77 CP5 91 3.977
77 CP5 92 1.536
77 CP5 93 -0.905
77 CP5 94 -2.370
77 CP5 95 -2.858
77 CP5 96 -2.858
77 CP5 97 -3.347
77 CP5 98 -4.812
77 CP5 99 -5.300
77 CP5 100 -4.812
77 CP5 101 -2.858
77 CP5 102 -1.394
77 CP5 103 -0.905
77 CP5 104 -2.370
77 CP5 105 -3.347
77 CP5 106 -2.370
77 CP5 107 2.513
77 CP5 108 8.860
77 CP5 109 13.743
77 CP5 110 14.720
77 CP5 111 11.790
77 CP5 112 7.395
77 CP5 113 4.954
77 CP5 114 4.954
77 CP5 115 7.884
77 CP5 116 10.813
77 CP5 117 12.278
77 CP5 118 11.790
77 CP5 119 9.837
77 CP5 120 8.860
77 CP5 121 9.349
77 CP5 122 9.837
77 CP5 123 9.837
77 CP5 124 9.349
77 CP5 125 7.884
77 CP5 126 6.419
77 CP5 127 4.954
77 CP5 128 2.513
77 CP5 129 0.071
77 CP5 130 -1.394
77 CP5 131 -1.882
77 CP5 132 0.559
77 CP5 133 3.977
77 CP5 134 5.931
77 CP5 135 5.442
77 CP5 136 1.536
77 CP5 137 -3.347
77 CP5 138 -6.765
77 CP5 139 -7.741
77 CP5 140 -5.300
77 CP5 141 -1.882
77 CP5 142 2.513
77 CP5 143 6.419
77 CP5 144 8.860
77 CP5 145 9.349
77 CP5 146 7.395
77 CP5 147 3.489
77 CP5 148 -1.882
77 CP5 149 -6.765
77 CP5 150 -9.206
77 CP5 151 -8.230
77 CP5 152 -5.300
77 CP5 153 -1.394
77 CP5 154 1.536
77 CP5 155 3.001
77 CP5 156 2.513
77 CP5 157 0.559
77 CP5 158 -2.370
77 CP5 159 -4.323
77 CP5 160 -3.835
77 CP5 161 -1.882
77 CP5 162 0.071
77 CP5 163 -0.417
77 CP5 164 -2.370
77 CP5 165 -5.300
77 CP5 166 -6.276
77 CP5 167 -5.300
77 CP5 168 -2.858
77 CP5 169 -1.882
77 CP5 170 -3.347
77 CP5 171 -6.765
77 CP5 172 -9.694
77 CP5 173 -10.671
77 CP5 174 -9.206
77 CP5 175 -5.788
77 CP5 176 -2.858
77 CP5 177 -2.370
77 CP5 178 -3.347
77 CP5 179 -5.300
77 CP5 180 -5.788
77 CP5 181 -3.347
77 CP5 182 -0.417
77 CP5 183 1.536
77 CP5 184 -0.417
77 CP5 185 -4.323
77 CP5 186 -8.230
77 CP5 187 -7.741
77 CP5 188 -2.858
77 CP5 189 3.001
77 CP5 190 5.931
77 CP5 191 3.489
77 CP5 192 -1.882
77 CP5 193 -7.253
77 CP5 194 -7.741
77 CP5 195 -4.812
77 CP5 196 -0.905
77 CP5 197 0.559
77 CP5 198 -0.417
77 CP5 199 -3.835
77 CP5 200 -5.788
77 CP5 201 -5.788
77 CP5 202 -3.347
77 CP5 203 -0.905
77 CP5 204 -0.417
77 CP5 205 -1.882
77 CP5 206 -4.812
77 CP5 207 -8.230
77 CP5 208 -10.183
77 CP5 209 -10.671
77 CP5 210 -9.694
77 CP5 211 -7.253
77 CP5 212 -4.812
77 CP5 213 -3.835
77 CP5 214 -6.276
77 CP5 215 -9.694
77 CP5 216 -12.136
77 CP5 217 -11.648
77 CP5 218 -8.230
77 CP5 219 -4.812
77 CP5 220 -2.370
77 CP5 221 -3.835
77 CP5 222 -7.253
77 CP5 223 -10.183
77 CP5 224 -10.183
77 CP5 225 -7.253
77 CP5 226 -3.347
77 CP5 227 -1.394
77 CP5 228 -1.882
77 CP5 229 -4.812
77 CP5 230 -9.206
77 CP5 231 -12.136
77 CP5 232 -12.624
77 CP5 233 -11.159
77 CP5 234 -7.253
77 CP5 235 -3.835
77 CP5 236 -2.370
77 CP5 237 -2.858
77 CP5 238 -5.788
77 CP5 239 -9.694
77 CP5 240 -13.601
77 CP5 241 -15.554
77 CP5 242 -14.577
77 CP5 243 -11.159
77 CP5 244 -6.276
77 CP5 245 -1.882
77 CP5 246 0.559
77 CP5 247 0.071
77 CP5 248 -2.370
77 CP5 249 -4.812
77 CP5 250 -4.323
77 CP5 251 -1.394
77 CP5 252 3.977
77 CP5 253 8.372
77 CP5 254 9.349
77 CP5 255 6.419
# CP6 chan 19
77 CP6 0 3.204
77 CP6 1 1.251
77 CP6 2 -0.214
77 CP6 3 0.275
77 CP6 4 0.763
77 CP6 5 0.275
77 CP6 6 -1.678
77 CP6 7 -5.096
77 CP6 8 -8.026
77 CP6 9 -8.514
77 CP6 10 -6.561
77 CP6 11 -2.167
77 CP6 12 2.228
77 CP6 13 5.157
77 CP6 14 5.646
77 CP6 15 4.669
77 CP6 16 4.181
77 CP6 17 5.157
77 CP6 18 6.622
77 CP6 19 8.087
77 CP6 20 8.575
77 CP6 21 8.575
77 CP6 22 7.599
77 CP6 23 6.622
77 CP6 24 6.134
77 CP6 25 5.646
77 CP6 26 5.157
77 CP6 27 4.181
77 CP6 28 3.693
77 CP6 29 2.716
77 CP6 30 1.740
77 CP6 31 -0.214
77 CP6 32 -3.143
77 CP6 33 -5.096
77 CP6 34 -7.538
77 CP6 35 -9.003
77 CP6 36 -10.956
77 CP6 37 -14.374
77 CP6 38 -17.792
77 CP6 39 -20.721
77 CP6 40 -21.698
77 CP6 41 -19.745
77 CP6 42 -16.327
77 CP6 43 -11.932
77 CP6 44 -9.491
77 CP6 45 -9.491
77 CP6 46 -10.956
77 CP6 47 -11.932
77 CP6 48 -10.956
77 CP6 49 -9.003
77 CP6 50 -6.561
77 CP6 51 -6.561
77 CP6 52 -8.026
77 CP6 53 -9.491
77 CP6 54 -9.003
77 CP6 55 -6.073
77 CP6 56 -2.655
77 CP6 57 -0.702
77 CP6 58 -1.678
77 CP6 59 -4.608
77 CP6 60 -7.538
77 CP6 61 -7.050
77 CP6 62 -4.608
77 CP6 63 -1.678
77 CP6 64 -0.214
77 CP6 65 -0.702
77 CP6 66 -1.678
77 CP6 67 -1.678
77 CP6 68 -0.702
77 CP6 69 0.763
77 CP6 70 0.763
77 CP6 71 -1.190
77 CP6 72 -3.143
77 CP6 73 -4.120
77 CP6 74 -3.143
77 CP6 75 -0.702
77 CP6 76 0.763
77 CP6 77 1.251
77 CP6 78 -0.214
77 CP6 79 -2.167
77 CP6 80 -3.632
77 CP6 81 -2.655
77 CP6 82 -0.702
77 CP6 83 0.763
77 CP6 84 -0.214
77 CP6 85 -3.143
77 CP6 86 -6.561
77 CP6 87 -9.003
77 CP6 88 -9.003
77 CP6 89 -7.538
77 CP6 90 -6.073
77 CP6 91 -6.073
77 CP6 92 -7.538
77 CP6 93 -9.003
77 CP6 94 -9.979
77 CP6 95 -9.491
77 CP6 96 -8.514
77 CP6 97 -8.026
77 CP6 98 -8.514
77 CP6 99 -9.979
77 CP6 100 -10.468
77 CP6 101 -9.003
77 CP6 102 -6.561
77 CP6 103 -4.120
77 CP6 104 -3.143
77 CP6 105 -4.120
77 CP6 106 -7.050
77 CP6 107 -8.026
77 CP6 108 -6.561
77 CP6 109 -2.167
77 CP6 110 3.204
77 CP6 111 6.134
77 CP6 112 6.134
77 CP6 113 3.204
77 CP6 114 -0.702
77 CP6 115 -3.632
77 CP6 116 -3.632
77 CP6 117 -1.678
77 CP6 118 -0.214
77 CP6 119 0.763
77 CP6 120 0.763
77 CP6 121 0.763
77 CP6 122 1.251
77 CP6 123 2.228
77 CP6 124 2.228
77 CP6 125 1.251
77 CP6 126 -1.678
77 CP6 127 -4.120
77 CP6 128 -5.585
77 CP6 129 -6.561
77 CP6 130 -6.561
77 CP6 131 -7.050
77 CP6 132 -8.026
77 CP6 133 -9.003
77 CP6 134 -9.003
77 CP6 135 -8.514
77 CP6 136 -7.050
77 CP6 137 -5.096
77 CP6 138 -4.120
77 CP6 139 -3.143
77 CP6 140 -2.655
77 CP6 141 -2.655
77 CP6 142 -3.143
77 CP6 143 -4.120
77 CP6 144 -5.585
77 CP6 145 -6.073
77 CP6 146 -6.073
77 CP6 147 -4.120
77 CP6 148 -1.678
77 CP6 149 -0.702
77 CP6 150 -0.702
77 CP6 151 -1.678
77 CP6 152 -3.143
77 CP6 153 -4.120
77 CP6 154 -4.608
77 CP6 155 -5.096
77 CP6 156 -6.561
77 CP6 157 -7.538
77 CP6 158 -8.026
77 CP6 159 -7.538
77 CP6 160 -6.561
77 CP6 161 -6.073
77 CP6 162 -6.073
77 CP6 163 -8.026
77 CP6 164 -10.956
77 CP6 165 -13.885
77 CP6 166 -15.350
77 CP6 167 -14.374
77 CP6 168 -11.932
77 CP6 169 -9.003
77 CP6 170 -7.538
77 CP6 171 -8.514
77 CP6 172 -11.444
77 CP6 173 -13.397
77 CP6 174 -12.909
77 CP6 175 -10.956
77 CP6 176 -8.026
77 CP6 177 -6.073
77 CP6 178 -5.096
77 CP6 179 -5.096
77 CP6 180 -5.096
77 CP6 181 -4.608
77 CP6 182 -4.120
77 CP6 183 -4.608
77 CP6 184 -4.120
77 CP6 185 -3.632
77 CP6 186 -2.655
77 CP6 187 -1.678
77 CP6 188 -1.190
77 CP6 189 -1.190
77 CP6 190 -1.678
77 CP6 191 -2.167
77 CP6 192 -3.143
77 CP6 193 -4.608
77 CP6 194 -7.050
77 CP6 195 -9.979
77 CP6 196 -11.932
77 CP6 197 -13.397
77 CP6 198 -14.374
77 CP6 199 -14.374
77 CP6 200 -14.862
77 CP6 201 -14.862
77 CP6 202 -13.885
77 CP6 203 -11.932
77 CP6 204 -9.979
77 CP6 205 -8.514
77 CP6 206 -9.003
77 CP6 207 -9.979
77 CP6 208 -10.956
77 CP6 209 -10.468
77 CP6 210 -9.003
77 CP6 211 -7.050
77 CP6 212 -6.561
77 CP6 213 -6.561
77 CP6 214 -8.514
77 CP6 215 -9.979
77 CP6 216 -10.956
77 CP6 217 -10.468
77 CP6 218 -8.514
77 CP6 219 -6.561
77 CP6 220 -4.608
77 CP6 221 -5.096
77 CP6 222 -8.026
77 CP6 223 -11.444
77 CP6 224 -14.374
77 CP6 225 -14.374
77 CP6 226 -11.444
77 CP6 227 -7.050
77 CP6 228 -4.120
77 CP6 229 -4.120
77 CP6 230 -6.073
77 CP6 231 -9.003
77 CP6 232 -10.468
77 CP6 233 -10.956
77 CP6 234 -11.444
77 CP6 235 -11.444
77 CP6 236 -11.444
77 CP6 237 -10.468
77 CP6 238 -9.003
77 CP6 239 -9.003
77 CP6 240 -10.956
77 CP6 241 -14.862
77 CP6 242 -18.280
77 CP6 243 -19.257
77 CP6 244 -16.815
77 CP6 245 -13.397
77 CP6 246 -10.956
77 CP6 247 -12.421
77 CP6 248 -16.327
77 CP6 249 -19.257
77 CP6 250 -19.257
77 CP6 251 -15.350
77 CP6 252 -11.444
77 CP6 253 -10.468
77 CP6 254 -12.421
77 CP6 255 -15.839
# CP1 chan 20
77 CP1 0 2.584
77 CP1 1 1.607
77 CP1 2 0.142
77 CP1 3 -0.834
77 CP1 4 -0.834
77 CP1 5 -0.346
77 CP1 6 -0.346
77 CP1 7 -0.346
77 CP1 8 -1.322
77 CP1 9 -2.299
77 CP1 10 -3.276
77 CP1 11 -3.276
77 CP1 12 -2.787
77 CP1 13 -1.811
77 CP1 14 -1.322
77 CP1 15 -0.834
77 CP1 16 -0.834
77 CP1 17 -0.834
77 CP1 18 -0.834
77 CP1 19 -0.834
77 CP1 20 -0.834
77 CP1 21 -0.834
77 CP1 22 -0.346
77 CP1 23 0.142
77 CP1 24 0.631
77 CP1 25 1.607
77 CP1 26 2.584
77 CP1 27 3.560
77 CP1 28 4.537
77 CP1 29 4.537
77 CP1 30 3.560
77 CP1 31 2.096
77 CP1 32 0.631
77 CP1 33 -0.346
77 CP1 34 0.142
77 CP1 35 1.119
77 CP1 36 1.607
77 CP1 37 1.119
77 CP1 38 0.142
77 CP1 39 -1.322
77 CP1 40 -3.276
77 CP1 41 -4.740
77 CP1 42 -6.205
77 CP1 43 -6.694
77 CP1 44 -7.670
77 CP1 45 -7.182
77 CP1 46 -6.205
77 CP1 47 -5.229
77 CP1 48 -4.252
77 CP1 49 -3.276
77 CP1 50 -3.764
77 CP1 51 -4.252
77 CP1 52 -4.252
77 CP1 53 -4.252
77 CP1 54 -3.276
77 CP1 55 -2.787
77 CP1 56 -1.811
77 CP1 57 -1.322
77 CP1 58 -0.834
77 CP1 59 -0.346
77 CP1 60 0.142
77 CP1 61 0.142
77 CP1 62 0.142
77 CP1 63 -0.346
77 CP1 64 -0.346
77 CP1 65 0.142
77 CP1 66 0.142
77 CP1 67 0.631
77 CP1 68 0.142
77 CP1 69 -0.834
77 CP1 70 -1.811
77 CP1 71 -2.787
77 CP1 72 -2.787
77 CP1 73 -2.299
77 CP1 74 -1.322
77 CP1 75 -0.834
77 CP1 76 -1.322
77 CP1 77 -1.322
77 CP1 78 -1.811
77 CP1 79 -1.811
77 CP1 80 -2.299
77 CP1 81 -2.787
77 CP1 82 -3.276
77 CP1 83 -3.276
77 CP1 84 -3.764
77 CP1 85 -3.764
77 CP1 86 -3.764
77 CP1 87 -3.276
77 CP1 88 -1.811
77 CP1 89 -0.834
77 CP1 90 -0.346
77 CP1 91 -0.346
77 CP1 92 -1.322
77 CP1 93 -3.276
77 CP1 94 -4.252
77 CP1 95 -4.740
77 CP1 96 -4.252
77 CP1 97 -4.252
77 CP1 98 -3.276
77 CP1 99 -2.787
77 CP1 100 -1.811
77 CP1 101 -0.834
77 CP1 102 0.142
77 CP1 103 0.631
77 CP1 104 0.631
77 CP1 105 0.631
77 CP1 106 1.119
77 CP1 107 2.096
77 CP1 108 3.560
77 CP1 109 5.025
77 CP1 110 5.514
77 CP1 111 5.514
77 CP1 112 5.025
77 CP1 113 5.025
77 CP1 114 5.025
77 CP1 115 6.002
77 CP1 116 6.978
77 CP1 117 7.955
77 CP1 118 8.931
77 CP1 119 8.931
77 CP1 120 8.443
77 CP1 121 8.443
77 CP1 122 7.955
77 CP1 123 7.955
77 CP1 124 7.467
77 CP1 125 6.978
77 CP1 126 6.002
77 CP1 127 4.537
77 CP1 128 3.560
77 CP1 129 2.584
77 CP1 130 3.072
77 CP1 131 3.560
77 CP1 132 4.537
77 CP1 133 5.025
77 CP1 134 4.537
77 CP1 135 4.049
77 CP1 136 2.584
77 CP1 137 1.119
77 CP1 138 -0.346
77 CP1 139 -0.834
77 CP1 140 -0.346
77 CP1 141 0.142
77 CP1 142 1.119
77 CP1 143 1.119
77 CP1 144 1.119
77 CP1 145 0.631
77 CP1 146 0.631
77 CP1 147 0.631
77 CP1 148 0.631
77 CP1 149 -0.346
77 CP1 150 -1.811
77 CP1 151 -2.787
77 CP1 152 -2.787
77 CP1 153 -1.811
77 CP1 154 -0.834
77 CP1 155 -0.834
77 CP1 156 -1.811
77 CP1 157 -3.276
77 CP1 158 -4.252
77 CP1 159 -4.740
77 CP1 160 -3.764
77 CP1 161 -2.787
77 CP1 162 -1.811
77 CP1 163 -1.811
77 CP1 164 -1.811
77 CP1 165 -2.299
77 CP1 166 -2.299
77 CP1 167 -2.299
77 CP1 168 -2.787
77 CP1 169 -3.764
77 CP1 170 -4.740
77 CP1 171 -5.717
77 CP1 172 -5.717
77 CP1 173 -5.229
77 CP1 174 -4.740
77 CP1 175 -4.252
77 CP1 176 -3.276
77 CP1 177 -2.787
77 CP1 178 -2.299
77 CP1 179 -2.299
77 CP1 180 -2.299
77 CP1 181 -1.811
77 CP1 182 -1.811
77 CP1 183 -1.322
77 CP1 184 -1.811
77 CP1 185 -3.276
77 CP1 186 -4.740
77 CP1 187 -5.229
77 CP1 188 -4.252
77 CP1 189 -2.787
77 CP1 190 -1.811
77 CP1 191 -1.811
77 CP1 192 -2.787
77 CP1 193 -4.740
77 CP1 194 -5.229
77 CP1 195 -4.740
77 CP1 196 -3.764
77 CP1 197 -2.787
77 CP1 198 -2.299
77 CP1 199 -2.299
77 CP1 200 -2.787
77 CP1 201 -2.787
77 CP1 202 -2.787
77 CP1 203 -2.299
77 CP1 204 -2.299
77 CP1 205 -2.299
77 CP1 206 -2.787
77 CP1 207 -4.252
77 CP1 208 -5.717
77 CP1 209 -6.694
77 CP1 210 -7.182
77 CP1 211 -6.205
77 CP1 212 -4.740
77 CP1 213 -3.764
77 CP1 214 -3.764
77 CP1 215 -4.252
77 CP1 216 -5.717
77 CP1 217 -5.717
77 CP1 218 -4.740
77 CP1 219 -3.276
77 CP1 220 -1.811
77 CP1 221 -1.811
77 CP1 222 -3.276
77 CP1 223 -4.740
77 CP1 224 -4.740
77 CP1 225 -3.764
77 CP1 226 -1.811
77 CP1 227 -0.834
77 CP1 228 -1.322
77 CP1 229 -4.252
77 CP1 230 -6.694
77 CP1 231 -9.135
77 CP1 232 -9.623
77 CP1 233 -8.647
77 CP1 234 -7.182
77 CP1 235 -4.740
77 CP1 236 -3.276
77 CP1 237 -2.299
77 CP1 238 -3.764
77 CP1 239 -6.205
77 CP1 240 -9.623
77 CP1 241 -11.576
77 CP1 242 -11.088
77 CP1 243 -8.158
77 CP1 244 -4.740
77 CP1 245 -1.811
77 CP1 246 -0.834
77 CP1 247 -1.811
77 CP1 248 -3.276
77 CP1 249 -4.252
77 CP1 250 -4.740
77 CP1 251 -3.764
77 CP1 252 -2.299
77 CP1 253 -0.834
77 CP1 254 0.631
77 CP1 255 0.142
# CP2 chan 21
77 CP2 0 -0.641
77 CP2 1 -1.617
77 CP2 2 -2.106
77 CP2 3 -2.106
77 CP2 4 -1.129
77 CP2 5 -1.129
77 CP2 6 -1.129
77 CP2 7 -2.594
77 CP2 8 -4.059
77 CP2 9 -4.547
77 CP2 10 -4.059
77 CP2 11 -1.617
77 CP2 12 0.336
77 CP2 13 1.312
77 CP2 14 0.824
77 CP2 15 0.336
77 CP2 16 -0.153
77 CP2 17 0.336
77 CP2 18 1.312
77 CP2 19 2.777
77 CP2 20 3.265
77 CP2 21 2.777
77 CP2 22 1.801
77 CP2 23 1.801
77 CP2 24 1.801
77 CP2 25 1.801
77 CP2 26 1.312
77 CP2 27 -0.153
77 CP2 28 -1.617
77 CP2 29 -2.594
77 CP2 30 -3.082
77 CP2 31 -3.082
77 CP2 32 -3.571
77 CP2 33 -4.547
77 CP2 34 -5.524
77 CP2 35 -6.989
77 CP2 36 -7.477
77 CP2 37 -7.477
77 CP2 38 -7.477
77 CP2 39 -7.477
77 CP2 40 -7.965
77 CP2 41 -7.965
77 CP2 42 -6.989
77 CP2 43 -6.012
77 CP2 44 -5.524
77 CP2 45 -5.035
77 CP2 46 -5.035
77 CP2 47 -5.035
77 CP2 48 -5.035
77 CP2 49 -4.059
77 CP2 50 -3.082
77 CP2 51 -2.106
77 CP2 52 -2.594
77 CP2 53 -3.571
77 CP2 54 -4.059
77 CP2 55 -3.571
77 CP2 56 -2.594
77 CP2 57 -2.106
77 CP2 58 -1.617
77 CP2 59 -2.594
77 CP2 60 -2.594
77 CP2 61 -2.594
77 CP2 62 -1.617
77 CP2 63 -0.641
77 CP2 64 -0.153
77 CP2 65 -0.641
77 CP2 66 -1.129
77 CP2 67 -1.617
77 CP2 68 -1.617
77 CP2 69 -1.129
77 CP2 70 -0.641
77 CP2 71 -1.129
77 CP2 72 -2.594
77 CP2 73 -4.059
77 CP2 74 -4.059
77 CP2 75 -3.571
77 CP2 76 -2.594
77 CP2 77 -1.129
77 CP2 78 -0.641
77 CP2 79 -0.641
77 CP2 80 -1.129
77 CP2 81 -1.617
77 CP2 82 -1.129
77 CP2 83 -1.129
77 CP2 84 -1.617
77 CP2 85 -3.082
77 CP2 86 -4.547
77 CP2 87 -6.012
77 CP2 88 -6.500
77 CP2 89 -6.012
77 CP2 90 -5.035
77 CP2 91 -4.059
77 CP2 92 -4.547
77 CP2 93 -5.524
77 CP2 94 -6.500
77 CP2 95 -6.989
77 CP2 96 -6.500
77 CP2 97 -6.012
77 CP2 98 -5.524
77 CP2 99 -5.524
77 CP2 100 -5.035
77 CP2 101 -4.059
77 CP2 102 -2.594
77 CP2 103 -1.617
77 CP2 104 -1.617
77 CP2 105 -2.106
77 CP2 106 -3.082
77 CP2 107 -3.082
77 CP2 108 -1.617
77 CP2 109 0.336
77 CP2 110 2.777
77 CP2 111 4.242
77 CP2 112 4.730
77 CP2 113 3.754
77 CP2 114 2.289
77 CP2 115 0.824
77 CP2 116 0.824
77 CP2 117 1.312
77 CP2 118 2.289
77 CP2 119 3.265
77 CP2 120 3.265
77 CP2 121 2.777
77 CP2 122 2.777
77 CP2 123 2.777
77 CP2 124 3.265
77 CP2 125 3.265
77 CP2 126 2.289
77 CP2 127 0.824
77 CP2 128 -0.641
77 CP2 129 -1.129
77 CP2 130 -0.641
77 CP2 131 0.336
77 CP2 132 0.824
77 CP2 133 0.824
77 CP2 134 -0.153
77 CP2 135 -1.129
77 CP2 136 -2.594
77 CP2 137 -3.082
77 CP2 138 -3.571
77 CP2 139 -3.571
77 CP2 140 -3.082
77 CP2 141 -3.082
77 CP2 142 -2.594
77 CP2 143 -2.594
77 CP2 144 -3.082
77 CP2 145 -3.082
77 CP2 146 -3.082
77 CP2 147 -3.082
77 CP2 148 -1.617
77 CP2 149 -1.129
77 CP2 150 -1.129
77 CP2 151 -1.617
77 CP2 152 -2.106
77 CP2 153 -2.594
77 CP2 154 -2.594
77 CP2 155 -2.594
77 CP2 156 -3.082
77 CP2 157 -4.059
77 CP2 158 -4.547
77 CP2 159 -4.547
77 CP2 160 -4.547
77 CP2 161 -4.547
77 CP2 162 -4.547
77 CP2 163 -5.524
77 CP2 164 -6.500
77 CP2 165 -6.989
77 CP2 166 -6.989
77 CP2 167 -6.989
77 CP2 168 -6.012
77 CP2 169 -5.524
77 CP2 170 -5.035
77 CP2 171 -5.035
77 CP2 172 -5.524
77 CP2 173 -5.524
77 CP2 174 -5.035
77 CP2 175 -4.059
77 CP2 176 -3.082
77 CP2 177 -2.106
77 CP2 178 -2.106
77 CP2 179 -2.594
77 CP2 180 -3.082
77 CP2 181 -3.571
77 CP2 182 -3.571
77 CP2 183 -3.082
77 CP2 184 -2.594
77 CP2 185 -2.106
77 CP2 186 -2.594
77 CP2 187 -3.082
77 CP2 188 -3.082
77 CP2 189 -3.082
77 CP2 190 -3.082
77 CP2 191 -3.082
77 CP2 192 -3.571
77 CP2 193 -4.059
77 CP2 194 -5.035
77 CP2 195 -6.012
77 CP2 196 -6.500
77 CP2 197 -6.989
77 CP2 198 -6.989
77 CP2 199 -7.477
77 CP2 200 -7.477
77 CP2 201 -6.989
77 CP2 202 -6.012
77 CP2 203 -5.035
77 CP2 204 -4.059
77 CP2 205 -3.082
77 CP2 206 -3.082
77 CP2 207 -3.571
77 CP2 208 -4.059
77 CP2 209 -4.547
77 CP2 210 -5.035
77 CP2 211 -5.035
77 CP2 212 -5.035
77 CP2 213 -5.035
77 CP2 214 -4.547
77 CP2 215 -4.547
77 CP2 216 -4.059
77 CP2 217 -3.571
77 CP2 218 -3.082
77 CP2 219 -2.594
77 CP2 220 -1.617
77 CP2 221 -1.129
77 CP2 222 -2.106
77 CP2 223 -3.082
77 CP2 224 -3.571
77 CP2 225 -3.571
77 CP2 226 -2.106
77 CP2 227 -0.641
77 CP2 228 -0.153
77 CP2 229 -0.641
77 CP2 230 -3.082
77 CP2 231 -5.035
77 CP2 232 -7.477
77 CP2 233 -8.453
77 CP2 234 -7.965
77 CP2 235 -7.477
77 CP2 236 -6.012
77 CP2 237 -4.059
77 CP2 238 -3.082
77 CP2 239 -3.571
77 CP2 240 -4.547
77 CP2 241 -6.500
77 CP2 242 -7.965
77 CP2 243 -7.965
77 CP2 244 -6.989
77 CP2 245 -5.524
77 CP2 246 -5.035
77 CP2 247 -5.035
77 CP2 248 -6.012
77 CP2 249 -6.012
77 CP2 250 -6.012
77 CP2 251 -5.035
77 CP2 252 -5.035
77 CP2 253 -6.012
77 CP2 254 -7.477
77 CP2 255 -8.453
# P3 chan 22
77 P3 0 5.290
77 P3 1 2.848
77 P3 2 0.895
77 P3 3 -0.081
77 P3 4 0.407
77 P3 5 0.407
77 P3 6 0.407
77 P3 7 -0.081
77 P3 8 -1.058
77 P3 9 -2.523
77 P3 10 -3.988
77 P3 11 -5.452
77 P3 12 -5.452
77 P3 13 -4.964
77 P3 14 -3.499
77 P3 15 -1.546
77 P3 16 -1.058
77 P3 17 -1.058
77 P3 18 -1.546
77 P3 19 -1.546
77 P3 20 -1.058
77 P3 21 -0.570
77 P3 22 0.407
77 P3 23 0.407
77 P3 24 1.383
77 P3 25 2.848
77 P3 26 5.290
77 P3 27 8.219
77 P3 28 10.173
77 P3 29 10.173
77 P3 30 8.219
77 P3 31 4.801
77 P3 32 1.872
77 P3 33 0.407
77 P3 34 0.895
77 P3 35 1.872
77 P3 36 2.360
77 P3 37 1.383
77 P3 38 -1.546
77 P3 39 -5.452
77 P3 40 -9.359
77 P3 41 -11.800
77 P3 42 -14.242
77 P3 43 -16.683
77 P3 44 -17.660
77 P3 45 -17.171
77 P3 46 -15.218
77 P3 47 -11.800
77 P3 48 -9.359
77 P3 49 -8.382
77 P3 50 -8.870
77 P3 51 -10.335
77 P3 52 -10.335
77 P3 53 -8.870
77 P3 54 -6.917
77 P3 55 -4.964
77 P3 56 -3.988
77 P3 57 -3.988
77 P3 58 -3.499
77 P3 59 -2.523
77 P3 60 -2.035
77 P3 61 -1.058
77 P3 62 -1.058
77 P3 63 -1.058
77 P3 64 -1.546
77 P3 65 -1.058
77 P3 66 -0.570
77 P3 67 -0.570
77 P3 68 -2.035
77 P3 69 -3.988
77 P3 70 -5.941
77 P3 71 -7.894
77 P3 72 -8.382
77 P3 73 -8.382
77 P3 74 -7.894
77 P3 75 -7.406
77 P3 76 -6.917
77 P3 77 -6.429
77 P3 78 -6.429
77 P3 79 -6.917
77 P3 80 -8.382
77 P3 81 -9.847
77 P3 82 -10.335
77 P3 83 -10.335
77 P3 84 -9.847
77 P3 85 -9.847
77 P3 86 -9.847
77 P3 87 -8.870
77 P3 88 -6.429
77 P3 89 -3.988
77 P3 90 -2.035
77 P3 91 -2.035
77 P3 92 -3.988
77 P3 93 -7.406
77 P3 94 -9.847
77 P3 95 -10.824
77 P3 96 -10.824
77 P3 97 -10.335
77 P3 98 -9.847
77 P3 99 -9.847
77 P3 100 -9.359
77 P3 101 -7.406
77 P3 102 -4.964
77 P3 103 -4.476
77 P3 104 -4.476
77 P3 105 -4.964
77 P3 106 -4.964
77 P3 107 -3.011
77 P3 108 -0.081
77 P3 109 3.825
77 P3 110 6.266
77 P3 111 7.243
77 P3 112 5.778
77 P3 113 4.801
77 P3 114 4.313
77 P3 115 5.290
77 P3 116 6.755
77 P3 117 9.196
77 P3 118 10.661
77 P3 119 10.661
77 P3 120 9.196
77 P3 121 7.243
77 P3 122 5.778
77 P3 123 5.290
77 P3 124 5.290
77 P3 125 4.801
77 P3 126 3.337
77 P3 127 1.383
77 P3 128 -1.058
77 P3 129 -2.523
77 P3 130 -2.523
77 P3 131 -1.546
77 P3 132 0.407
77 P3 133 1.872
77 P3 134 2.360
77 P3 135 1.383
77 P3 136 -1.546
77 P3 137 -4.476
77 P3 138 -7.406
77 P3 139 -8.382
77 P3 140 -7.406
77 P3 141 -5.941
77 P3 142 -4.964
77 P3 143 -4.476
77 P3 144 -4.964
77 P3 145 -3.988
77 P3 146 -3.011
77 P3 147 -2.035
77 P3 148 -2.523
77 P3 149 -5.452
77 P3 150 -9.359
77 P3 151 -11.312
77 P3 152 -10.824
77 P3 153 -7.894
77 P3 154 -4.964
77 P3 155 -4.476
77 P3 156 -6.429
77 P3 157 -9.359
77 P3 158 -11.800
77 P3 159 -11.312
77 P3 160 -9.847
77 P3 161 -7.406
77 P3 162 -6.917
77 P3 163 -7.894
77 P3 164 -9.359
77 P3 165 -10.335
77 P3 166 -10.335
77 P3 167 -10.335
77 P3 168 -10.335
77 P3 169 -10.824
77 P3 170 -12.777
77 P3 171 -13.753
77 P3 172 -14.730
77 P3 173 -14.730
77 P3 174 -13.753
77 P3 175 -11.800
77 P3 176 -9.359
77 P3 177 -6.917
77 P3 178 -6.429
77 P3 179 -7.406
77 P3 180 -7.894
77 P3 181 -8.870
77 P3 182 -8.870
77 P3 183 -8.382
77 P3 184 -8.382
77 P3 185 -9.847
77 P3 186 -11.312
77 P3 187 -11.312
77 P3 188 -9.847
77 P3 189 -7.406
77 P3 190 -5.941
77 P3 191 -6.917
77 P3 192 -9.359
77 P3 193 -12.777
77 P3 194 -14.242
77 P3 195 -13.265
77 P3 196 -11.312
77 P3 197 -9.847
77 P3 198 -9.359
77 P3 199 -9.847
77 P3 200 -10.335
77 P3 201 -10.335
77 P3 202 -9.359
77 P3 203 -7.894
77 P3 204 -7.406
77 P3 205 -7.406
77 P3 206 -8.870
77 P3 207 -10.824
77 P3 208 -13.753
77 P3 209 -15.706
77 P3 210 -16.683
77 P3 211 -15.218
77 P3 212 -12.777
77 P3 213 -10.824
77 P3 214 -10.335
77 P3 215 -11.312
77 P3 216 -12.288
77 P3 217 -12.288
77 P3 218 -10.824
77 P3 219 -7.894
77 P3 220 -5.941
77 P3 221 -6.429
77 P3 222 -9.359
77 P3 223 -12.288
77 P3 224 -12.777
77 P3 225 -11.312
77 P3 226 -8.382
77 P3 227 -5.941
77 P3 228 -5.941
77 P3 229 -8.870
77 P3 230 -13.265
77 P3 231 -17.171
77 P3 232 -19.124
77 P3 233 -18.636
77 P3 234 -15.706
77 P3 235 -10.824
77 P3 236 -6.917
77 P3 237 -4.964
77 P3 238 -6.429
77 P3 239 -10.824
77 P3 240 -16.683
77 P3 241 -20.101
77 P3 242 -19.613
77 P3 243 -15.706
77 P3 244 -10.335
77 P3 245 -5.452
77 P3 246 -3.011
77 P3 247 -3.011
77 P3 248 -4.964
77 P3 249 -6.429
77 P3 250 -6.917
77 P3 251 -5.941
77 P3 252 -3.011
77 P3 253 -0.570
77 P3 254 0.895
77 P3 255 0.407
# P4 chan 23
77 P4 0 1.231
77 P4 1 -1.211
77 P4 2 -2.675
77 P4 3 -3.164
77 P4 4 -2.675
77 P4 5 -2.187
77 P4 6 -3.164
77 P4 7 -5.117
77 P4 8 -7.558
77 P4 9 -9.023
77 P4 10 -8.046
77 P4 11 -5.117
77 P4 12 -1.699
77 P4 13 0.743
77 P4 14 1.231
77 P4 15 1.231
77 P4 16 1.231
77 P4 17 2.207
77 P4 18 4.649
77 P4 19 6.602
77 P4 20 7.090
77 P4 21 6.602
77 P4 22 5.625
77 P4 23 4.649
77 P4 24 4.649
77 P4 25 4.649
77 P4 26 4.161
77 P4 27 3.184
77 P4 28 1.719
77 P4 29 0.743
77 P4 30 0.254
77 P4 31 -0.722
77 P4 32 -2.187
77 P4 33 -4.628
77 P4 34 -7.070
77 P4 35 -9.023
77 P4 36 -10.000
77 P4 37 -10.976
77 P4 38 -12.441
77 P4 39 -14.394
77 P4 40 -15.859
77 P4 41 -16.347
77 P4 42 -15.371
77 P4 43 -12.929
77 P4 44 -11.464
77 P4 45 -11.464
77 P4 46 -11.953
77 P4 47 -12.441
77 P4 48 -11.464
77 P4 49 -9.511
77 P4 50 -7.558
77 P4 51 -6.582
77 P4 52 -7.558
77 P4 53 -9.023
77 P4 54 -9.511
77 P4 55 -8.046
77 P4 56 -6.582
77 P4 57 -5.117
77 P4 58 -5.605
77 P4 59 -6.582
77 P4 60 -7.070
77 P4 61 -6.093
77 P4 62 -4.140
77 P4 63 -2.187
77 P4 64 -1.699
77 P4 65 -2.187
77 P4 66 -3.652
77 P4 67 -4.140
77 P4 68 -3.652
77 P4 69 -2.675
77 P4 70 -2.187
77 P4 71 -4.140
77 P4 72 -6.093
77 P4 73 -8.046
77 P4 74 -9.023
77 P4 75 -8.046
77 P4 76 -6.582
77 P4 77 -5.605
77 P4 78 -5.117
77 P4 79 -5.605
77 P4 80 -6.582
77 P4 81 -6.582
77 P4 82 -5.605
77 P4 83 -4.628
77 P4 84 -5.117
77 P4 85 -7.558
77 P4 86 -10.000
77 P4 87 -12.441
77 P4 88 -12.441
77 P4 89 -10.488
77 P4 90 -8.535
77 P4 91 -8.046
77 P4 92 -9.511
77 P4 93 -12.441
77 P4 94 -13.906
77 P4 95 -13.906
77 P4 96 -12.441
77 P4 97 -10.976
77 P4 98 -10.000
77 P4 99 -10.000
77 P4 100 -10.000
77 P4 101 -9.023
77 P4 102 -7.558
77 P4 103 -6.093
77 P4 104 -5.605
77 P4 105 -6.093
77 P4 106 -7.070
77 P4 107 -7.070
77 P4 108 -4.140
77 P4 109 0.254
77 P4 110 4.649
77 P4 111 7.579
77 P4 112 7.579
77 P4 113 5.625
77 P4 114 2.207
77 P4 115 0.254
77 P4 116 0.743
77 P4 117 2.207
77 P4 118 3.184
77 P4 119 3.672
77 P4 120 3.184
77 P4 121 2.207
77 P4 122 2.207
77 P4 123 3.184
77 P4 124 4.161
77 P4 125 3.184
77 P4 126 1.231
77 P4 127 -2.187
77 P4 128 -4.628
77 P4 129 -5.117
77 P4 130 -3.652
77 P4 131 -2.187
77 P4 132 -1.211
77 P4 133 -1.699
77 P4 134 -3.164
77 P4 135 -4.628
77 P4 136 -6.093
77 P4 137 -6.582
77 P4 138 -7.558
77 P4 139 -7.558
77 P4 140 -7.558
77 P4 141 -6.582
77 P4 142 -5.605
77 P4 143 -5.117
77 P4 144 -6.093
77 P4 145 -7.558
77 P4 146 -8.046
77 P4 147 -7.070
77 P4 148 -5.605
77 P4 149 -5.117
77 P4 150 -5.605
77 P4 151 -7.070
77 P4 152 -8.535
77 P4 153 -9.023
77 P4 154 -8.535
77 P4 155 -8.535
77 P4 156 -9.023
77 P4 157 -10.488
77 P4 158 -11.953
77 P4 159 -12.441
77 P4 160 -11.464
77 P4 161 -11.464
77 P4 162 -11.953
77 P4 163 -13.906
77 P4 164 -16.347
77 P4 165 -18.300
77 P4 166 -18.789
77 P4 167 -17.324
77 P4 168 -14.882
77 P4 169 -12.441
77 P4 170 -11.953
77 P4 171 -12.929
77 P4 172 -14.882
77 P4 173 -15.371
77 P4 174 -14.394
77 P4 175 -11.464
77 P4 176 -8.535
77 P4 177 -7.070
77 P4 178 -7.070
77 P4 179 -8.046
77 P4 180 -8.535
77 P4 181 -8.535
77 P4 182 -8.046
77 P4 183 -7.070
77 P4 184 -7.558
77 P4 185 -8.046
77 P4 186 -9.023
77 P4 187 -9.511
77 P4 188 -8.535
77 P4 189 -7.070
77 P4 190 -6.582
77 P4 191 -7.070
77 P4 192 -8.535
77 P4 193 -10.000
77 P4 194 -11.953
77 P4 195 -13.418
77 P4 196 -13.906
77 P4 197 -14.882
77 P4 198 -15.371
77 P4 199 -16.347
77 P4 200 -16.836
77 P4 201 -16.347
77 P4 202 -14.882
77 P4 203 -12.441
77 P4 204 -10.000
77 P4 205 -8.046
77 P4 206 -7.558
77 P4 207 -8.535
77 P4 208 -9.511
77 P4 209 -10.488
77 P4 210 -11.464
77 P4 211 -11.464
77 P4 212 -10.976
77 P4 213 -10.000
77 P4 214 -10.000
77 P4 215 -10.000
77 P4 216 -10.000
77 P4 217 -9.511
77 P4 218 -8.535
77 P4 219 -6.582
77 P4 220 -5.117
77 P4 221 -4.628
77 P4 222 -6.093
77 P4 223 -9.511
77 P4 224 -11.464
77 P4 225 -11.464
77 P4 226 -9.023
77 P4 227 -5.605
77 P4 228 -3.652
77 P4 229 -5.117
77 P4 230 -9.023
77 P4 231 -13.418
77 P4 232 -16.836
77 P4 233 -18.300
77 P4 234 -17.324
77 P4 235 -14.882
77 P4 236 -12.441
77 P4 237 -10.488
77 P4 238 -10.000
77 P4 239 -11.464
77 P4 240 -13.906
77 P4 241 -16.836
77 P4 242 -18.300
77 P4 243 -17.812
77 P4 244 -15.371
77 P4 245 -12.929
77 P4 246 -11.464
77 P4 247 -11.953
77 P4 248 -13.418
77 P4 249 -13.906
77 P4 250 -13.418
77 P4 251 -12.441
77 P4 252 -12.441
77 P4 253 -13.906
77 P4 254 -16.347
77 P4 255 -16.836
# PZ chan 24
77 PZ 0 0.549
77 PZ 1 -1.404
77 PZ 2 -2.380
77 PZ 3 -2.869
77 PZ 4 -2.380
77 PZ 5 -1.892
77 PZ 6 -1.892
77 PZ 7 -3.845
77 PZ 8 -6.287
77 PZ 9 -8.240
77 PZ 10 -9.216
77 PZ 11 -8.728
77 PZ 12 -7.263
77 PZ 13 -5.310
77 PZ 14 -3.357
77 PZ 15 -2.380
77 PZ 16 -1.892
77 PZ 17 -1.404
77 PZ 18 -1.404
77 PZ 19 -0.916
77 PZ 20 -0.916
77 PZ 21 -0.916
77 PZ 22 -0.916
77 PZ 23 -0.916
77 PZ 24 0.061
77 PZ 25 0.061
77 PZ 26 0.061
77 PZ 27 0.061
77 PZ 28 -0.427
77 PZ 29 -0.916
77 PZ 30 -1.404
77 PZ 31 -2.869
77 PZ 32 -4.822
77 PZ 33 -6.775
77 PZ 34 -8.240
77 PZ 35 -9.216
77 PZ 36 -9.216
77 PZ 37 -9.216
77 PZ 38 -10.681
77 PZ 39 -12.634
77 PZ 40 -15.076
77 PZ 41 -16.052
77 PZ 42 -16.052
77 PZ 43 -15.076
77 PZ 44 -14.587
77 PZ 45 -14.587
77 PZ 46 -14.099
77 PZ 47 -13.123
77 PZ 48 -11.169
77 PZ 49 -9.705
77 PZ 50 -8.728
77 PZ 51 -9.705
77 PZ 52 -10.681
77 PZ 53 -11.169
77 PZ 54 -10.681
77 PZ 55 -8.240
77 PZ 56 -6.287
77 PZ 57 -5.798
77 PZ 58 -5.798
77 PZ 59 -6.775
77 PZ 60 -7.263
77 PZ 61 -6.775
77 PZ 62 -5.310
77 PZ 63 -4.333
77 PZ 64 -3.845
77 PZ 65 -4.333
77 PZ 66 -5.310
77 PZ 67 -6.287
77 PZ 68 -6.775
77 PZ 69 -7.751
77 PZ 70 -8.728
77 PZ 71 -10.193
77 PZ 72 -12.146
77 PZ 73 -13.123
77 PZ 74 -13.123
77 PZ 75 -12.634
77 PZ 76 -11.169
77 PZ 77 -10.193
77 PZ 78 -9.705
77 PZ 79 -9.705
77 PZ 80 -10.193
77 PZ 81 -10.681
77 PZ 82 -10.681
77 PZ 83 -11.169
77 PZ 84 -11.658
77 PZ 85 -12.634
77 PZ 86 -13.611
77 PZ 87 -14.099
77 PZ 88 -13.123
77 PZ 89 -11.658
77 PZ 90 -10.193
77 PZ 91 -10.193
77 PZ 92 -12.146
77 PZ 93 -15.076
77 PZ 94 -17.029
77 PZ 95 -18.005
77 PZ 96 -17.029
77 PZ 97 -15.564
77 PZ 98 -14.099
77 PZ 99 -13.123
77 PZ 100 -12.146
77 PZ 101 -10.681
77 PZ 102 -8.240
77 PZ 103 -7.263
77 PZ 104 -7.263
77 PZ 105 -8.240
77 PZ 106 -9.216
77 PZ 107 -8.240
77 PZ 108 -5.310
77 PZ 109 -0.916
77 PZ 110 3.479
77 PZ 111 5.920
77 PZ 112 5.432
77 PZ 113 2.991
77 PZ 114 1.038
77 PZ 115 0.061
77 PZ 116 1.038
77 PZ 117 2.991
77 PZ 118 4.456
77 PZ 119 4.944
77 PZ 120 3.967
77 PZ 121 2.991
77 PZ 122 2.502
77 PZ 123 2.991
77 PZ 124 3.479
77 PZ 125 2.991
77 PZ 126 1.038
77 PZ 127 -1.892
77 PZ 128 -3.845
77 PZ 129 -4.333
77 PZ 130 -2.869
77 PZ 131 -0.916
77 PZ 132 0.061
77 PZ 133 -0.427
77 PZ 134 -2.380
77 PZ 135 -4.822
77 PZ 136 -6.775
77 PZ 137 -8.240
77 PZ 138 -8.728
77 PZ 139 -9.216
77 PZ 140 -8.728
77 PZ 141 -7.263
77 PZ 142 -6.287
77 PZ 143 -5.310
77 PZ 144 -4.822
77 PZ 145 -4.822
77 PZ 146 -4.333
77 PZ 147 -3.845
77 PZ 148 -2.869
77 PZ 149 -3.357
77 PZ 150 -4.822
77 PZ 151 -6.287
77 PZ 152 -7.263
77 PZ 153 -7.263
77 PZ 154 -5.798
77 PZ 155 -5.310
77 PZ 156 -5.798
77 PZ 157 -7.751
77 PZ 158 -9.216
77 PZ 159 -9.705
77 PZ 160 -8.728
77 PZ 161 -7.263
77 PZ 162 -7.263
77 PZ 163 -8.728
77 PZ 164 -10.681
77 PZ 165 -12.146
77 PZ 166 -12.634
77 PZ 167 -12.146
77 PZ 168 -11.169
77 PZ 169 -11.169
77 PZ 170 -11.658
77 PZ 171 -12.634
77 PZ 172 -13.123
77 PZ 173 -12.634
77 PZ 174 -11.169
77 PZ 175 -9.216
77 PZ 176 -7.263
77 PZ 177 -5.798
77 PZ 178 -5.798
77 PZ 179 -6.287
77 PZ 180 -7.263
77 PZ 181 -7.751
77 PZ 182 -7.751
77 PZ 183 -7.751
77 PZ 184 -7.751
77 PZ 185 -8.728
77 PZ 186 -10.193
77 PZ 187 -11.658
77 PZ 188 -12.146
77 PZ 189 -11.658
77 PZ 190 -10.193
77 PZ 191 -9.705
77 PZ 192 -10.193
77 PZ 193 -11.658
77 PZ 194 -13.611
77 PZ 195 -15.076
77 PZ 196 -15.076
77 PZ 197 -14.099
77 PZ 198 -13.611
77 PZ 199 -13.611
77 PZ 200 -13.611
77 PZ 201 -14.099
77 PZ 202 -13.123
77 PZ 203 -12.146
77 PZ 204 -9.705
77 PZ 205 -8.728
77 PZ 206 -8.240
77 PZ 207 -9.216
77 PZ 208 -11.169
77 PZ 209 -12.634
77 PZ 210 -13.123
77 PZ 211 -13.123
77 PZ 212 -12.634
77 PZ 213 -12.634
77 PZ 214 -13.123
77 PZ 215 -13.611
77 PZ 216 -13.123
77 PZ 217 -12.146
77 PZ 218 -9.705
77 PZ 219 -6.287
77 PZ 220 -4.333
77 PZ 221 -3.357
77 PZ 222 -5.310
77 PZ 223 -8.240
77 PZ 224 -10.681
77 PZ 225 -10.681
77 PZ 226 -8.240
77 PZ 227 -6.287
77 PZ 228 -5.310
77 PZ 229 -7.263
77 PZ 230 -11.169
77 PZ 231 -16.052
77 PZ 232 -19.470
77 PZ 233 -20.935
77 PZ 234 -19.958
77 PZ 235 -16.541
77 PZ 236 -13.123
77 PZ 237 -10.681
77 PZ 238 -11.169
77 PZ 239 -13.611
77 PZ 240 -17.029
77 PZ 241 -19.470
77 PZ 242 -19.470
77 PZ 243 -17.029
77 PZ 244 -13.611
77 PZ 245 -10.681
77 PZ 246 -9.216
77 PZ 247 -9.216
77 PZ 248 -9.705
77 PZ 249 -10.193
77 PZ 250 -10.193
77 PZ 251 -10.681
77 PZ 252 -10.681
77 PZ 253 -10.681
77 PZ 254 -10.193
77 PZ 255 -10.193
# P8 chan 25
77 P8 0 8.677
77 P8 1 4.771
77 P8 2 -0.112
77 P8 3 -4.018
77 P8 4 -4.506
77 P8 5 -2.553
77 P8 6 -0.600
77 P8 7 -2.065
77 P8 8 -5.483
77 P8 9 -9.878
77 P8 10 -9.878
77 P8 11 -4.995
77 P8 12 2.818
77 P8 13 9.165
77 P8 14 10.142
77 P8 15 6.724
77 P8 16 2.330
77 P8 17 0.376
77 P8 18 2.818
77 P8 19 7.212
77 P8 20 11.119
77 P8 21 11.119
77 P8 22 8.189
77 P8 23 4.771
77 P8 24 3.794
77 P8 25 5.747
77 P8 26 9.165
77 P8 27 12.095
77 P8 28 13.560
77 P8 29 13.072
77 P8 30 10.630
77 P8 31 6.236
77 P8 32 1.353
77 P8 33 -4.018
77 P8 34 -8.901
77 P8 35 -11.831
77 P8 36 -13.784
77 P8 37 -16.713
77 P8 38 -20.131
77 P8 39 -23.549
77 P8 40 -26.967
77 P8 41 -27.456
77 P8 42 -25.503
77 P8 43 -22.085
77 P8 44 -19.643
77 P8 45 -18.667
77 P8 46 -19.155
77 P8 47 -19.643
77 P8 48 -18.178
77 P8 49 -14.760
77 P8 50 -11.342
77 P8 51 -9.389
77 P8 52 -9.389
77 P8 53 -10.366
77 P8 54 -10.854
77 P8 55 -10.366
77 P8 56 -9.389
77 P8 57 -9.878
77 P8 58 -11.342
77 P8 59 -11.831
77 P8 60 -9.878
77 P8 61 -5.971
77 P8 62 -3.042
77 P8 63 -3.042
77 P8 64 -5.971
77 P8 65 -8.901
77 P8 66 -8.901
77 P8 67 -5.971
77 P8 68 -3.042
77 P8 69 -2.065
77 P8 70 -5.483
77 P8 71 -10.854
77 P8 72 -14.272
77 P8 73 -13.784
77 P8 74 -7.924
77 P8 75 -2.065
77 P8 76 1.353
77 P8 77 -1.088
77 P8 78 -7.924
77 P8 79 -16.225
77 P8 80 -21.108
77 P8 81 -19.643
77 P8 82 -13.784
77 P8 83 -6.460
77 P8 84 -3.530
77 P8 85 -6.460
77 P8 86 -13.784
77 P8 87 -20.131
77 P8 88 -21.108
77 P8 89 -16.713
77 P8 90 -10.854
77 P8 91 -7.924
77 P8 92 -11.342
77 P8 93 -18.178
77 P8 94 -25.014
77 P8 95 -26.967
77 P8 96 -24.038
77 P8 97 -19.155
77 P8 98 -14.760
77 P8 99 -13.295
77 P8 100 -13.784
77 P8 101 -14.272
77 P8 102 -13.784
77 P8 103 -13.295
77 P8 104 -13.784
77 P8 105 -15.249
77 P8 106 -17.202
77 P8 107 -16.713
77 P8 108 -13.295
77 P8 109 -7.436
77 P8 110 -1.088
77 P8 111 3.306
77 P8 112 3.794
77 P8 113 1.841
77 P8 114 -2.553
77 P8 115 -6.460
77 P8 116 -8.901
77 P8 117 -7.924
77 P8 118 -5.971
77 P8 119 -4.018
77 P8 120 -3.042
77 P8 121 -3.042
77 P8 122 -3.530
77 P8 123 -3.530
77 P8 124 -3.042
77 P8 125 -3.530
77 P8 126 -5.483
77 P8 127 -8.901
77 P8 128 -12.807
77 P8 129 -15.737
77 P8 130 -17.690
77 P8 131 -17.690
77 P8 132 -16.713
77 P8 133 -16.225
77 P8 134 -15.737
77 P8 135 -15.249
77 P8 136 -14.272
77 P8 137 -13.784
77 P8 138 -12.807
77 P8 139 -12.319
77 P8 140 -11.342
77 P8 141 -9.878
77 P8 142 -9.389
77 P8 143 -10.366
77 P8 144 -12.319
77 P8 145 -14.272
77 P8 146 -13.784
77 P8 147 -10.854
77 P8 148 -7.436
77 P8 149 -4.995
77 P8 150 -5.971
77 P8 151 -9.878
77 P8 152 -13.295
77 P8 153 -15.249
77 P8 154 -14.760
77 P8 155 -13.784
77 P8 156 -13.295
77 P8 157 -13.295
77 P8 158 -13.784
77 P8 159 -12.807
77 P8 160 -11.342
77 P8 161 -10.366
77 P8 162 -12.319
77 P8 163 -17.202
77 P8 164 -22.085
77 P8 165 -26.479
77 P8 166 -26.967
77 P8 167 -24.526
77 P8 168 -20.131
77 P8 169 -16.225
77 P8 170 -15.737
77 P8 171 -19.155
77 P8 172 -24.038
77 P8 173 -27.456
77 P8 174 -26.967
77 P8 175 -22.085
77 P8 176 -15.737
77 P8 177 -11.831
77 P8 178 -11.342
77 P8 179 -13.784
77 P8 180 -15.737
77 P8 181 -14.760
77 P8 182 -10.854
77 P8 183 -6.948
77 P8 184 -5.483
77 P8 185 -7.924
77 P8 186 -12.319
77 P8 187 -14.760
77 P8 188 -13.295
77 P8 189 -8.901
77 P8 190 -3.530
77 P8 191 -0.600
77 P8 192 -2.553
77 P8 193 -8.413
77 P8 194 -14.760
77 P8 195 -20.131
77 P8 196 -22.085
77 P8 197 -21.596
77 P8 198 -20.620
77 P8 199 -20.620
77 P8 200 -22.573
77 P8 201 -25.503
77 P8 202 -25.991
77 P8 203 -23.549
77 P8 204 -18.178
77 P8 205 -12.807
77 P8 206 -10.854
77 P8 207 -12.807
77 P8 208 -17.202
77 P8 209 -20.620
77 P8 210 -20.131
77 P8 211 -16.713
77 P8 212 -12.319
77 P8 213 -9.878
77 P8 214 -9.878
77 P8 215 -12.807
77 P8 216 -15.249
77 P8 217 -15.737
77 P8 218 -13.784
77 P8 219 -10.854
77 P8 220 -9.389
77 P8 221 -10.366
77 P8 222 -13.295
77 P8 223 -16.225
77 P8 224 -17.202
77 P8 225 -15.737
77 P8 226 -12.319
77 P8 227 -9.389
77 P8 228 -7.924
77 P8 229 -9.389
77 P8 230 -12.807
77 P8 231 -17.202
77 P8 232 -20.131
77 P8 233 -22.085
77 P8 234 -21.108
77 P8 235 -18.667
77 P8 236 -15.737
77 P8 237 -13.295
77 P8 238 -13.295
77 P8 239 -15.249
77 P8 240 -19.155
77 P8 241 -23.549
77 P8 242 -27.456
77 P8 243 -28.432
77 P8 244 -25.991
77 P8 245 -21.108
77 P8 246 -17.202
77 P8 247 -15.737
77 P8 248 -17.202
77 P8 249 -20.620
77 P8 250 -22.573
77 P8 251 -22.573
77 P8 252 -20.131
77 P8 253 -19.643
77 P8 254 -21.596
77 P8 255 -25.014
# P7 chan 26
77 P7 0 7.772
77 P7 1 3.866
77 P7 2 1.912
77 P7 3 1.912
77 P7 4 4.354
77 P7 5 7.284
77 P7 6 9.237
77 P7 7 9.237
77 P7 8 6.795
77 P7 9 2.889
77 P7 10 -1.506
77 P7 11 -4.924
77 P7 12 -6.388
77 P7 13 -4.435
77 P7 14 -0.529
77 P7 15 3.866
77 P7 16 5.819
77 P7 17 5.330
77 P7 18 2.401
77 P7 19 0.936
77 P7 20 1.424
77 P7 21 4.354
77 P7 22 7.772
77 P7 23 8.748
77 P7 24 8.260
77 P7 25 6.795
77 P7 26 9.237
77 P7 27 14.608
77 P7 28 21.444
77 P7 29 24.862
77 P7 30 20.955
77 P7 31 11.678
77 P7 32 1.424
77 P7 33 -4.435
77 P7 34 -3.459
77 P7 35 1.424
77 P7 36 5.819
77 P7 37 5.819
77 P7 38 2.889
77 P7 39 -2.482
77 P7 40 -7.365
77 P7 41 -12.736
77 P7 42 -19.572
77 P7 43 -26.896
77 P7 44 -32.267
77 P7 45 -32.267
77 P7 46 -25.920
77 P7 47 -17.619
77 P7 48 -11.759
77 P7 49 -11.759
77 P7 50 -15.666
77 P7 51 -18.107
77 P7 52 -17.131
77 P7 53 -11.759
77 P7 54 -5.900
77 P7 55 -3.459
77 P7 56 -5.412
77 P7 57 -8.341
77 P7 58 -8.341
77 P7 59 -4.924
77 P7 60 -0.041
77 P7 61 2.401
77 P7 62 0.936
77 P7 63 -2.482
77 P7 64 -5.412
77 P7 65 -5.412
77 P7 66 -3.459
77 P7 67 -2.482
77 P7 68 -4.924
77 P7 69 -9.318
77 P7 70 -13.713
77 P7 71 -14.689
77 P7 72 -12.736
77 P7 73 -8.341
77 P7 74 -4.435
77 P7 75 -2.970
77 P7 76 -3.459
77 P7 77 -5.900
77 P7 78 -8.830
77 P7 79 -12.248
77 P7 80 -14.689
77 P7 81 -15.666
77 P7 82 -15.177
77 P7 83 -13.713
77 P7 84 -11.759
77 P7 85 -10.783
77 P7 86 -9.318
77 P7 87 -7.853
77 P7 88 -5.900
77 P7 89 -3.947
77 P7 90 -3.459
77 P7 91 -4.924
77 P7 92 -7.853
77 P7 93 -10.295
77 P7 94 -11.271
77 P7 95 -11.271
77 P7 96 -11.271
77 P7 97 -12.736
77 P7 98 -15.666
77 P7 99 -17.619
77 P7 100 -18.107
77 P7 101 -16.642
77 P7 102 -14.689
77 P7 103 -14.201
77 P7 104 -15.666
77 P7 105 -16.642
77 P7 106 -14.689
77 P7 107 -8.830
77 P7 108 -0.041
77 P7 109 7.772
77 P7 110 12.166
77 P7 111 12.166
77 P7 112 7.772
77 P7 113 2.889
77 P7 114 -1.017
77 P7 115 -1.017
77 P7 116 0.936
77 P7 117 3.866
77 P7 118 5.819
77 P7 119 5.819
77 P7 120 3.377
77 P7 121 -0.041
77 P7 122 -2.482
77 P7 123 -3.459
77 P7 124 -3.459
77 P7 125 -2.970
77 P7 126 -2.970
77 P7 127 -3.947
77 P7 128 -5.900
77 P7 129 -8.830
77 P7 130 -12.248
77 P7 131 -15.177
77 P7 132 -16.154
77 P7 133 -13.713
77 P7 134 -9.806
77 P7 135 -5.900
77 P7 136 -5.900
77 P7 137 -10.295
77 P7 138 -16.642
77 P7 139 -22.013
77 P7 140 -22.990
77 P7 141 -19.572
77 P7 142 -14.201
77 P7 143 -9.318
77 P7 144 -5.900
77 P7 145 -3.459
77 P7 146 -2.482
77 P7 147 -3.947
77 P7 148 -7.365
77 P7 149 -13.713
77 P7 150 -20.060
77 P7 151 -22.502
77 P7 152 -21.037
77 P7 153 -15.666
77 P7 154 -11.271
77 P7 155 -9.806
77 P7 156 -13.224
77 P7 157 -17.131
77 P7 158 -19.572
77 P7 159 -18.107
77 P7 160 -14.201
77 P7 161 -10.295
77 P7 162 -9.806
77 P7 163 -11.759
77 P7 164 -14.689
77 P7 165 -15.666
77 P7 166 -14.201
77 P7 167 -11.759
77 P7 168 -10.295
77 P7 169 -12.248
77 P7 170 -16.154
77 P7 171 -21.037
77 P7 172 -23.966
77 P7 173 -23.966
77 P7 174 -21.525
77 P7 175 -17.619
77 P7 176 -14.689
77 P7 177 -13.224
77 P7 178 -13.224
77 P7 179 -13.713
77 P7 180 -13.224
77 P7 181 -11.271
77 P7 182 -8.341
77 P7 183 -6.388
77 P7 184 -6.388
77 P7 185 -8.341
77 P7 186 -10.295
77 P7 187 -10.295
77 P7 188 -6.877
77 P7 189 -2.970
77 P7 190 -0.529
77 P7 191 -2.482
77 P7 192 -7.365
77 P7 193 -12.248
77 P7 194 -14.201
77 P7 195 -12.736
77 P7 196 -11.271
77 P7 197 -10.783
77 P7 198 -12.736
77 P7 199 -15.177
77 P7 200 -15.666
77 P7 201 -13.713
77 P7 202 -10.783
77 P7 203 -8.830
77 P7 204 -10.295
77 P7 205 -12.736
77 P7 206 -15.177
77 P7 207 -16.642
77 P7 208 -17.131
77 P7 209 -17.131
77 P7 210 -16.154
77 P7 211 -14.201
77 P7 212 -11.759
77 P7 213 -9.318
77 P7 214 -8.341
77 P7 215 -9.318
77 P7 216 -10.783
77 P7 217 -11.271
77 P7 218 -10.783
77 P7 219 -9.806
77 P7 220 -10.295
77 P7 221 -13.224
77 P7 222 -17.619
77 P7 223 -20.060
77 P7 224 -19.572
77 P7 225 -15.666
77 P7 226 -10.783
77 P7 227 -7.853
77 P7 228 -7.853
77 P7 229 -11.271
77 P7 230 -15.666
77 P7 231 -19.084
77 P7 232 -20.060
77 P7 233 -19.572
77 P7 234 -17.131
77 P7 235 -13.713
77 P7 236 -10.783
77 P7 237 -9.806
77 P7 238 -11.759
77 P7 239 -15.666
77 P7 240 -21.525
77 P7 241 -25.431
77 P7 242 -25.920
77 P7 243 -22.013
77 P7 244 -15.666
77 P7 245 -8.830
77 P7 246 -3.947
77 P7 247 -2.970
77 P7 248 -5.900
77 P7 249 -10.295
77 P7 250 -12.736
77 P7 251 -10.783
77 P7 252 -4.924
77 P7 253 1.912
77 P7 254 5.330
77 P7 255 2.401
# PO2 chan 27
77 PO2 0 2.014
77 PO2 1 -0.427
77 PO2 2 -2.869
77 PO2 3 -3.357
77 PO2 4 -2.869
77 PO2 5 -1.892
77 PO2 6 -2.380
77 PO2 7 -4.333
77 PO2 8 -7.263
77 PO2 9 -9.705
77 PO2 10 -10.193
77 PO2 11 -9.216
77 PO2 12 -6.287
77 PO2 13 -2.869
77 PO2 14 -0.427
77 PO2 15 1.038
77 PO2 16 2.014
77 PO2 17 3.479
77 PO2 18 4.944
77 PO2 19 5.920
77 PO2 20 5.920
77 PO2 21 5.432
77 PO2 22 4.944
77 PO2 23 4.944
77 PO2 24 5.432
77 PO2 25 5.432
77 PO2 26 4.944
77 PO2 27 4.456
77 PO2 28 3.967
77 PO2 29 3.967
77 PO2 30 3.479
77 PO2 31 1.526
77 PO2 32 -1.404
77 PO2 33 -4.822
77 PO2 34 -7.263
77 PO2 35 -8.728
77 PO2 36 -8.240
77 PO2 37 -8.728
77 PO2 38 -11.169
77 PO2 39 -14.587
77 PO2 40 -18.494
77 PO2 41 -19.958
77 PO2 42 -18.494
77 PO2 43 -16.052
77 PO2 44 -14.099
77 PO2 45 -14.099
77 PO2 46 -15.564
77 PO2 47 -15.564
77 PO2 48 -13.611
77 PO2 49 -10.193
77 PO2 50 -7.751
77 PO2 51 -7.751
77 PO2 52 -10.193
77 PO2 53 -12.146
77 PO2 54 -12.634
77 PO2 55 -10.193
77 PO2 56 -6.775
77 PO2 57 -5.310
77 PO2 58 -5.310
77 PO2 59 -7.263
77 PO2 60 -8.728
77 PO2 61 -7.751
77 PO2 62 -5.310
77 PO2 63 -2.380
77 PO2 64 -0.916
77 PO2 65 -1.404
77 PO2 66 -2.869
77 PO2 67 -4.333
77 PO2 68 -4.822
77 PO2 69 -4.822
77 PO2 70 -5.310
77 PO2 71 -7.263
77 PO2 72 -9.705
77 PO2 73 -12.634
77 PO2 74 -14.099
77 PO2 75 -13.611
77 PO2 76 -12.634
77 PO2 77 -11.658
77 PO2 78 -10.681
77 PO2 79 -10.681
77 PO2 80 -11.169
77 PO2 81 -11.169
77 PO2 82 -10.681
77 PO2 83 -10.681
77 PO2 84 -11.169
77 PO2 85 -12.634
77 PO2 86 -14.587
77 PO2 87 -16.052
77 PO2 88 -15.564
77 PO2 89 -13.611
77 PO2 90 -11.169
77 PO2 91 -10.681
77 PO2 92 -12.146
77 PO2 93 -15.076
77 PO2 94 -18.005
77 PO2 95 -18.494
77 PO2 96 -17.517
77 PO2 97 -15.076
77 PO2 98 -13.123
77 PO2 99 -12.634
77 PO2 100 -12.146
77 PO2 101 -11.658
77 PO2 102 -9.705
77 PO2 103 -8.728
77 PO2 104 -8.240
77 PO2 105 -8.728
77 PO2 106 -9.705
77 PO2 107 -8.728
77 PO2 108 -4.822
77 PO2 109 0.549
77 PO2 110 5.920
77 PO2 111 9.338
77 PO2 112 9.338
77 PO2 113 6.409
77 PO2 114 3.479
77 PO2 115 1.526
77 PO2 116 2.014
77 PO2 117 3.479
77 PO2 118 4.456
77 PO2 119 4.456
77 PO2 120 2.991
77 PO2 121 2.014
77 PO2 122 1.526
77 PO2 123 2.502
77 PO2 124 3.479
77 PO2 125 2.502
77 PO2 126 0.549
77 PO2 127 -2.869
77 PO2 128 -4.822
77 PO2 129 -5.310
77 PO2 130 -3.845
77 PO2 131 -1.892
77 PO2 132 -0.916
77 PO2 133 -1.892
77 PO2 134 -4.333
77 PO2 135 -6.287
77 PO2 136 -8.728
77 PO2 137 -10.193
77 PO2 138 -11.658
77 PO2 139 -11.658
77 PO2 140 -11.169
77 PO2 141 -9.216
77 PO2 142 -7.751
77 PO2 143 -7.263
77 PO2 144 -8.240
77 PO2 145 -9.216
77 PO2 146 -9.705
77 PO2 147 -8.728
77 PO2 148 -6.775
77 PO2 149 -6.775
77 PO2 150 -8.728
77 PO2 151 -11.169
77 PO2 152 -13.123
77 PO2 153 -13.123
77 PO2 154 -11.658
77 PO2 155 -11.169
77 PO2 156 -12.146
77 PO2 157 -14.099
77 PO2 158 -16.052
77 PO2 159 -16.541
77 PO2 160 -15.564
77 PO2 161 -14.099
77 PO2 162 -15.076
77 PO2 163 -18.005
77 PO2 164 -21.423
77 PO2 165 -24.353
77 PO2 166 -24.841
77 PO2 167 -22.400
77 PO2 168 -19.470
77 PO2 169 -17.029
77 PO2 170 -16.052
77 PO2 171 -17.517
77 PO2 172 -19.470
77 PO2 173 -19.958
77 PO2 174 -18.005
77 PO2 175 -14.587
77 PO2 176 -11.169
77 PO2 177 -8.728
77 PO2 178 -8.240
77 PO2 179 -9.705
77 PO2 180 -11.169
77 PO2 181 -11.658
77 PO2 182 -12.146
77 PO2 183 -11.169
77 PO2 184 -11.658
77 PO2 185 -12.634
77 PO2 186 -14.099
77 PO2 187 -15.076
77 PO2 188 -15.076
77 PO2 189 -13.611
77 PO2 190 -12.146
77 PO2 191 -11.169
77 PO2 192 -12.146
77 PO2 193 -14.099
77 PO2 194 -17.029
77 PO2 195 -18.982
77 PO2 196 -18.982
77 PO2 197 -18.494
77 PO2 198 -18.005
77 PO2 199 -18.494
