# co2a0000418.rd
# 120 trials, 64 chans, 416 samples 368 post_stim samples
# 3.906000 msecs uV
# S1 obj , trial 118
# FP1 chan 0
118 FP1 0 -5.432
118 FP1 1 -2.991
118 FP1 2 0.916
118 FP1 3 4.333
118 FP1 4 7.263
118 FP1 5 9.216
118 FP1 6 11.169
118 FP1 7 12.146
118 FP1 8 11.658
118 FP1 9 8.728
118 FP1 10 3.845
118 FP1 11 -0.549
118 FP1 12 -2.991
118 FP1 13 -2.502
118 FP1 14 -0.549
118 FP1 15 0.427
118 FP1 16 -1.038
118 FP1 17 -3.967
118 FP1 18 -6.897
118 FP1 19 -8.850
118 FP1 20 -9.827
118 FP1 21 -10.315
118 FP1 22 -10.803
118 FP1 23 -11.292
118 FP1 24 -10.803
118 FP1 25 -7.874
118 FP1 26 -3.967
118 FP1 27 -0.061
118 FP1 28 2.869
118 FP1 29 5.310
118 FP1 30 7.751
118 FP1 31 10.193
118 FP1 32 13.123
118 FP1 33 14.587
118 FP1 34 13.611
118 FP1 35 11.169
118 FP1 36 8.728
118 FP1 37 6.287
118 FP1 38 4.333
118 FP1 39 2.380
118 FP1 40 -0.549
118 FP1 41 -3.967
118 FP1 42 -6.409
118 FP1 43 -6.897
118 FP1 44 -6.409
118 FP1 45 -5.920
118 FP1 46 -6.897
118 FP1 47 -8.850
118 FP1 48 -11.780
118 FP1 49 -13.245
118 FP1 50 -12.756
118 FP1 51 -10.803
118 FP1 52 -7.385
118 FP1 53 -5.920
118 FP1 54 -6.409
118 FP1 55 -7.874
118 FP1 56 -7.874
118 FP1 57 -4.456
118 FP1 58 2.380
118 FP1 59 10.681
118 FP1 60 17.517
118 FP1 61 18.982
118 FP1 62 16.541
118 FP1 63 11.169
118 FP1 64 7.263
118 FP1 65 5.310
118 FP1 66 6.287
118 FP1 67 7.751
118 FP1 68 7.751
118 FP1 69 6.775
118 FP1 70 4.333
118 FP1 71 2.380
118 FP1 72 1.404
118 FP1 73 0.427
118 FP1 74 0.427
118 FP1 75 0.916
118 FP1 76 1.404
118 FP1 77 2.380
118 FP1 78 3.845
118 FP1 79 5.310
118 FP1 80 6.775
118 FP1 81 7.263
118 FP1 82 5.798
118 FP1 83 3.357
118 FP1 84 0.916
118 FP1 85 -1.526
118 FP1 86 -2.502
118 FP1 87 -1.526
118 FP1 88 -0.061
118 FP1 89 0.916
118 FP1 90 0.916
118 FP1 91 -1.038
118 FP1 92 -4.456
118 FP1 93 -9.338
118 FP1 94 -13.245
118 FP1 95 -14.709
118 FP1 96 -13.245
118 FP1 97 -9.827
118 FP1 98 -5.920
118 FP1 99 -2.502
118 FP1 100 -0.549
118 FP1 101 0.427
118 FP1 102 0.916
118 FP1 103 1.404
118 FP1 104 2.869
118 FP1 105 4.822
118 FP1 106 7.263
118 FP1 107 9.216
118 FP1 108 9.216
118 FP1 109 8.728
118 FP1 110 6.287
118 FP1 111 3.845
118 FP1 112 1.404
118 FP1 113 -0.549
118 FP1 114 -2.502
118 FP1 115 -4.456
118 FP1 116 -4.944
118 FP1 117 -3.967
118 FP1 118 -1.038
118 FP1 119 3.845
118 FP1 120 8.728
118 FP1 121 11.658
118 FP1 122 11.169
118 FP1 123 8.240
118 FP1 124 4.333
118 FP1 125 1.892
118 FP1 126 1.892
118 FP1 127 2.380
118 FP1 128 2.380
118 FP1 129 0.427
118 FP1 130 -2.014
118 FP1 131 -3.479
118 FP1 132 -2.502
118 FP1 133 1.404
118 FP1 134 4.333
118 FP1 135 5.798
118 FP1 136 6.287
118 FP1 137 6.775
118 FP1 138 10.193
118 FP1 139 16.541
118 FP1 140 24.353
118 FP1 141 32.654
118 FP1 142 40.466
118 FP1 143 48.767
118 FP1 144 57.068
118 FP1 145 64.392
118 FP1 146 69.763
118 FP1 147 70.251
118 FP1 148 67.810
118 FP1 149 63.416
118 FP1 150 60.974
118 FP1 151 61.462
118 FP1 152 64.392
118 FP1 153 67.322
118 FP1 154 68.298
118 FP1 155 65.369
118 FP1 156 59.998
118 FP1 157 53.650
118 FP1 158 48.767
118 FP1 159 45.837
118 FP1 160 43.884
118 FP1 161 41.443
118 FP1 162 39.001
118 FP1 163 36.072
118 FP1 164 34.119
118 FP1 165 33.142
118 FP1 166 33.142
118 FP1 167 33.142
118 FP1 168 32.654
118 FP1 169 30.212
118 FP1 170 27.283
118 FP1 171 24.353
118 FP1 172 22.400
118 FP1 173 21.423
118 FP1 174 20.935
118 FP1 175 20.935
118 FP1 176 20.935
118 FP1 177 20.935
118 FP1 178 20.447
118 FP1 179 19.470
118 FP1 180 18.005
118 FP1 181 16.052
118 FP1 182 14.587
118 FP1 183 14.099
118 FP1 184 13.611
118 FP1 185 13.611
118 FP1 186 11.658
118 FP1 187 9.216
118 FP1 188 6.775
118 FP1 189 5.310
118 FP1 190 5.310
118 FP1 191 5.798
118 FP1 192 5.310
118 FP1 193 3.357
118 FP1 194 0.916
118 FP1 195 -0.549
118 FP1 196 -0.061
118 FP1 197 3.845
118 FP1 198 8.728
118 FP1 199 13.123
118 FP1 200 15.076
118 FP1 201 14.587
118 FP1 202 11.658
118 FP1 203 7.751
118 FP1 204 3.357
118 FP1 205 -0.061
118 FP1 206 -1.526
118 FP1 207 -1.526
118 FP1 208 -0.061
118 FP1 209 1.892
118 FP1 210 2.380
118 FP1 211 -0.061
118 FP1 212 -4.944
118 FP1 213 -9.338
118 FP1 214 -11.780
118 FP1 215 -10.315
118 FP1 216 -5.920
118 FP1 217 -1.038
118 FP1 218 2.869
118 FP1 219 4.822
118 FP1 220 5.310
118 FP1 221 4.822
118 FP1 222 3.845
118 FP1 223 2.380
118 FP1 224 1.404
118 FP1 225 0.916
118 FP1 226 0.427
118 FP1 227 0.427
118 FP1 228 -0.061
118 FP1 229 0.427
118 FP1 230 1.404
118 FP1 231 2.869
118 FP1 232 3.357
118 FP1 233 2.869
118 FP1 234 0.916
118 FP1 235 -1.526
118 FP1 236 -2.502
118 FP1 237 -1.526
118 FP1 238 1.404
118 FP1 239 5.798
118 FP1 240 9.216
118 FP1 241 12.146
118 FP1 242 14.099
118 FP1 243 15.076
118 FP1 244 16.052
118 FP1 245 16.052
118 FP1 246 14.099
118 FP1 247 12.146
118 FP1 248 11.169
118 FP1 249 12.146
118 FP1 250 15.564
118 FP1 251 19.958
118 FP1 252 24.353
118 FP1 253 27.771
118 FP1 254 30.701
118 FP1 255 34.607
# FP2 chan 1
118 FP2 0 -2.696
118 FP2 1 -0.254
118 FP2 2 2.675
118 FP2 3 6.093
118 FP2 4 9.023
118 FP2 5 11.464
118 FP2 6 11.953
118 FP2 7 9.511
118 FP2 8 5.117
118 FP2 9 0.722
118 FP2 10 -2.207
118 FP2 11 -3.672
118 FP2 12 -3.184
118 FP2 13 -1.719
118 FP2 14 -0.254
118 FP2 15 -0.254
118 FP2 16 -1.719
118 FP2 17 -5.137
118 FP2 18 -9.532
118 FP2 19 -12.950
118 FP2 20 -13.926
118 FP2 21 -12.461
118 FP2 22 -8.555
118 FP2 23 -3.672
118 FP2 24 0.722
118 FP2 25 3.164
118 FP2 26 3.652
118 FP2 27 3.652
118 FP2 28 4.140
118 FP2 29 5.605
118 FP2 30 9.023
118 FP2 31 12.929
118 FP2 32 16.347
118 FP2 33 17.324
118 FP2 34 16.836
118 FP2 35 14.882
118 FP2 36 12.441
118 FP2 37 10.000
118 FP2 38 7.558
118 FP2 39 3.652
118 FP2 40 -1.231
118 FP2 41 -4.649
118 FP2 42 -6.602
118 FP2 43 -5.625
118 FP2 44 -3.672
118 FP2 45 -2.696
118 FP2 46 -4.161
118 FP2 47 -8.555
118 FP2 48 -12.950
118 FP2 49 -14.903
118 FP2 50 -13.438
118 FP2 51 -11.485
118 FP2 52 -10.020
118 FP2 53 -10.996
118 FP2 54 -11.973
118 FP2 55 -10.996
118 FP2 56 -5.625
118 FP2 57 2.675
118 FP2 58 10.976
118 FP2 59 16.836
118 FP2 60 18.789
118 FP2 61 18.300
118 FP2 62 16.347
118 FP2 63 14.882
118 FP2 64 13.418
118 FP2 65 12.441
118 FP2 66 11.464
118 FP2 67 11.464
118 FP2 68 10.488
118 FP2 69 9.023
118 FP2 70 6.582
118 FP2 71 5.117
118 FP2 72 3.652
118 FP2 73 3.652
118 FP2 74 4.140
118 FP2 75 3.164
118 FP2 76 2.187
118 FP2 77 0.722
118 FP2 78 1.211
118 FP2 79 2.675
118 FP2 80 5.605
118 FP2 81 8.046
118 FP2 82 9.511
118 FP2 83 8.535
118 FP2 84 5.605
118 FP2 85 1.211
118 FP2 86 -3.184
118 FP2 87 -6.602
118 FP2 88 -8.067
118 FP2 89 -7.090
118 FP2 90 -4.161
118 FP2 91 -1.719
118 FP2 92 -1.231
118 FP2 93 -3.184
118 FP2 94 -6.602
118 FP2 95 -9.043
118 FP2 96 -9.043
118 FP2 97 -6.114
118 FP2 98 -2.696
118 FP2 99 -0.743
118 FP2 100 -1.719
118 FP2 101 -2.696
118 FP2 102 -2.696
118 FP2 103 0.234
118 FP2 104 4.140
118 FP2 105 8.046
118 FP2 106 10.000
118 FP2 107 10.000
118 FP2 108 10.976
118 FP2 109 12.441
118 FP2 110 12.929
118 FP2 111 10.976
118 FP2 112 6.582
118 FP2 113 0.722
118 FP2 114 -3.184
118 FP2 115 -4.649
118 FP2 116 -3.184
118 FP2 117 -1.231
118 FP2 118 0.722
118 FP2 119 1.211
118 FP2 120 1.699
118 FP2 121 2.675
118 FP2 122 4.140
118 FP2 123 5.605
118 FP2 124 5.605
118 FP2 125 5.117
118 FP2 126 4.140
118 FP2 127 3.164
118 FP2 128 2.675
118 FP2 129 2.187
118 FP2 130 1.699
118 FP2 131 1.211
118 FP2 132 0.234
118 FP2 133 -0.254
118 FP2 134 0.234
118 FP2 135 3.164
118 FP2 136 6.582
118 FP2 137 10.488
118 FP2 138 14.882
118 FP2 139 19.765
118 FP2 140 25.136
118 FP2 141 32.461
118 FP2 142 41.250
118 FP2 143 49.550
118 FP2 144 56.875
118 FP2 145 62.246
118 FP2 146 64.687
118 FP2 147 64.687
118 FP2 148 63.222
118 FP2 149 61.757
118 FP2 150 61.757
118 FP2 151 62.734
118 FP2 152 64.687
118 FP2 153 66.152
118 FP2 154 64.687
118 FP2 155 61.269
118 FP2 156 55.898
118 FP2 157 51.015
118 FP2 158 48.086
118 FP2 159 47.597
118 FP2 160 47.109
118 FP2 161 46.621
118 FP2 162 44.179
118 FP2 163 40.761
118 FP2 164 36.855
118 FP2 165 33.925
118 FP2 166 31.972
118 FP2 167 30.019
118 FP2 168 28.554
118 FP2 169 26.601
118 FP2 170 25.625
118 FP2 171 25.136
118 FP2 172 25.136
118 FP2 173 25.136
118 FP2 174 24.160
118 FP2 175 22.207
118 FP2 176 20.254
118 FP2 177 18.300
118 FP2 178 17.812
118 FP2 179 17.812
118 FP2 180 18.789
118 FP2 181 20.742
118 FP2 182 21.718
118 FP2 183 21.230
118 FP2 184 18.789
118 FP2 185 14.882
118 FP2 186 11.464
118 FP2 187 10.000
118 FP2 188 10.976
118 FP2 189 12.929
118 FP2 190 14.394
118 FP2 191 14.394
118 FP2 192 12.929
118 FP2 193 11.464
118 FP2 194 10.488
118 FP2 195 10.000
118 FP2 196 9.023
118 FP2 197 7.558
118 FP2 198 6.093
118 FP2 199 6.093
118 FP2 200 8.535
118 FP2 201 12.929
118 FP2 202 16.347
118 FP2 203 16.836
118 FP2 204 13.906
118 FP2 205 9.023
118 FP2 206 4.140
118 FP2 207 1.211
118 FP2 208 0.234
118 FP2 209 -0.254
118 FP2 210 -1.231
118 FP2 211 -3.184
118 FP2 212 -5.625
118 FP2 213 -6.602
118 FP2 214 -6.114
118 FP2 215 -3.672
118 FP2 216 -0.743
118 FP2 217 1.211
118 FP2 218 2.675
118 FP2 219 4.140
118 FP2 220 6.093
118 FP2 221 8.535
118 FP2 222 10.976
118 FP2 223 13.418
118 FP2 224 14.882
118 FP2 225 13.418
118 FP2 226 10.976
118 FP2 227 7.558
118 FP2 228 3.652
118 FP2 229 1.699
118 FP2 230 2.187
118 FP2 231 4.140
118 FP2 232 6.582
118 FP2 233 8.046
118 FP2 234 7.558
118 FP2 235 5.117
118 FP2 236 3.164
118 FP2 237 2.675
118 FP2 238 3.652
118 FP2 239 6.093
118 FP2 240 8.535
118 FP2 241 10.488
118 FP2 242 13.418
118 FP2 243 15.859
118 FP2 244 17.812
118 FP2 245 18.789
118 FP2 246 17.812
118 FP2 247 15.859
118 FP2 248 14.394
118 FP2 249 15.371
118 FP2 250 18.300
118 FP2 251 22.695
118 FP2 252 26.113
118 FP2 253 27.578
118 FP2 254 28.066
118 FP2 255 30.019
# F7 chan 2
118 F7 0 -2.045
118 F7 1 -1.556
118 F7 2 -0.580
118 F7 3 1.373
118 F7 4 3.326
118 F7 5 6.256
118 F7 6 9.674
118 F7 7 11.627
118 F7 8 11.627
118 F7 9 8.698
118 F7 10 4.303
118 F7 11 0.885
118 F7 12 -1.068
118 F7 13 -1.556
118 F7 14 -2.533
118 F7 15 -4.974
118 F7 16 -7.904
118 F7 17 -10.345
118 F7 18 -10.345
118 F7 19 -9.369
118 F7 20 -8.392
118 F7 21 -7.416
118 F7 22 -7.416
118 F7 23 -6.927
118 F7 24 -5.951
118 F7 25 -4.974
118 F7 26 -4.486
118 F7 27 -5.951
118 F7 28 -7.904
118 F7 29 -9.369
118 F7 30 -8.881
118 F7 31 -4.974
118 F7 32 0.885
118 F7 33 6.744
118 F7 34 10.162
118 F7 35 10.162
118 F7 36 8.209
118 F7 37 4.791
118 F7 38 2.350
118 F7 39 0.885
118 F7 40 1.373
118 F7 41 2.350
118 F7 42 3.326
118 F7 43 3.815
118 F7 44 2.838
118 F7 45 0.885
118 F7 46 -1.556
118 F7 47 -4.486
118 F7 48 -5.951
118 F7 49 -5.951
118 F7 50 -4.486
118 F7 51 -3.021
118 F7 52 -3.510
118 F7 53 -5.951
118 F7 54 -9.857
118 F7 55 -12.299
118 F7 56 -11.810
118 F7 57 -8.392
118 F7 58 -3.021
118 F7 59 2.350
118 F7 60 6.256
118 F7 61 8.209
118 F7 62 7.721
118 F7 63 5.280
118 F7 64 1.862
118 F7 65 -1.068
118 F7 66 -2.045
118 F7 67 -0.580
118 F7 68 1.862
118 F7 69 4.303
118 F7 70 4.303
118 F7 71 2.350
118 F7 72 -1.068
118 F7 73 -3.998
118 F7 74 -5.463
118 F7 75 -4.486
118 F7 76 -0.092
118 F7 77 5.280
118 F7 78 10.651
118 F7 79 13.580
118 F7 80 13.580
118 F7 81 11.627
118 F7 82 9.186
118 F7 83 7.233
118 F7 84 6.256
118 F7 85 5.768
118 F7 86 4.791
118 F7 87 4.303
118 F7 88 5.280
118 F7 89 7.233
118 F7 90 7.721
118 F7 91 6.744
118 F7 92 1.373
118 F7 93 -5.463
118 F7 94 -11.322
118 F7 95 -13.763
118 F7 96 -12.787
118 F7 97 -9.857
118 F7 98 -5.951
118 F7 99 -3.510
118 F7 100 -1.068
118 F7 101 1.373
118 F7 102 3.815
118 F7 103 5.280
118 F7 104 5.280
118 F7 105 3.326
118 F7 106 0.397
118 F7 107 -2.533
118 F7 108 -4.974
118 F7 109 -6.927
118 F7 110 -7.416
118 F7 111 -7.416
118 F7 112 -6.439
118 F7 113 -4.974
118 F7 114 -3.510
118 F7 115 -1.556
118 F7 116 0.397
118 F7 117 2.350
118 F7 118 3.815
118 F7 119 5.280
118 F7 120 6.744
118 F7 121 9.186
118 F7 122 11.139
118 F7 123 12.115
118 F7 124 12.604
118 F7 125 11.627
118 F7 126 10.162
118 F7 127 8.698
118 F7 128 8.209
118 F7 129 7.721
118 F7 130 6.744
118 F7 131 5.768
118 F7 132 4.303
118 F7 133 3.815
118 F7 134 4.303
118 F7 135 5.280
118 F7 136 5.280
118 F7 137 4.791
118 F7 138 4.303
118 F7 139 4.791
118 F7 140 7.233
118 F7 141 11.139
118 F7 142 16.022
118 F7 143 21.393
118 F7 144 25.787
118 F7 145 29.205
118 F7 146 30.670
118 F7 147 29.205
118 F7 148 25.787
118 F7 149 21.881
118 F7 150 19.440
118 F7 151 19.928
118 F7 152 22.858
118 F7 153 25.787
118 F7 154 26.764
118 F7 155 24.323
118 F7 156 20.905
118 F7 157 18.463
118 F7 158 18.463
118 F7 159 19.928
118 F7 160 21.393
118 F7 161 21.881
118 F7 162 21.393
118 F7 163 20.905
118 F7 164 20.905
118 F7 165 21.881
118 F7 166 21.393
118 F7 167 19.928
118 F7 168 17.975
118 F7 169 16.022
118 F7 170 16.510
118 F7 171 17.487
118 F7 172 18.463
118 F7 173 17.975
118 F7 174 16.022
118 F7 175 14.069
118 F7 176 12.604
118 F7 177 12.115
118 F7 178 12.115
118 F7 179 11.627
118 F7 180 10.651
118 F7 181 8.698
118 F7 182 6.256
118 F7 183 3.326
118 F7 184 0.885
118 F7 185 -0.092
118 F7 186 -1.068
118 F7 187 -1.556
118 F7 188 -1.556
118 F7 189 -2.045
118 F7 190 -1.556
118 F7 191 -1.068
118 F7 192 -0.580
118 F7 193 -1.068
118 F7 194 -1.556
118 F7 195 -1.556
118 F7 196 -0.580
118 F7 197 2.350
118 F7 198 5.280
118 F7 199 7.233
118 F7 200 7.233
118 F7 201 5.280
118 F7 202 2.838
118 F7 203 0.885
118 F7 204 -0.092
118 F7 205 -0.580
118 F7 206 -1.068
118 F7 207 -0.580
118 F7 208 0.885
118 F7 209 2.350
118 F7 210 3.815
118 F7 211 4.303
118 F7 212 2.838
118 F7 213 0.885
118 F7 214 -0.092
118 F7 215 0.885
118 F7 216 3.815
118 F7 217 7.233
118 F7 218 8.698
118 F7 219 7.233
118 F7 220 4.791
118 F7 221 2.350
118 F7 222 0.885
118 F7 223 0.885
118 F7 224 2.350
118 F7 225 2.838
118 F7 226 2.350
118 F7 227 1.373
118 F7 228 0.397
118 F7 229 -0.580
118 F7 230 -0.092
118 F7 231 0.885
118 F7 232 1.373
118 F7 233 0.885
118 F7 234 0.397
118 F7 235 -0.580
118 F7 236 0.397
118 F7 237 2.350
118 F7 238 5.280
118 F7 239 7.721
118 F7 240 8.698
118 F7 241 8.209
118 F7 242 7.721
118 F7 243 8.209
118 F7 244 11.139
118 F7 245 14.069
118 F7 246 15.533
118 F7 247 14.069
118 F7 248 11.139
118 F7 249 8.209
118 F7 250 8.209
118 F7 251 10.651
118 F7 252 13.580
118 F7 253 16.022
118 F7 254 16.510
118 F7 255 17.975
# F8 chan 3
118 F8 0 -0.946
118 F8 1 0.031
118 F8 2 1.984
118 F8 3 3.937
118 F8 4 4.913
118 F8 5 4.913
118 F8 6 4.425
118 F8 7 2.960
118 F8 8 1.495
118 F8 9 0.031
118 F8 10 -2.899
118 F8 11 -5.341
118 F8 12 -6.805
118 F8 13 -7.294
118 F8 14 -6.805
118 F8 15 -5.829
118 F8 16 -5.341
118 F8 17 -6.805
118 F8 18 -9.735
118 F8 19 -13.641
118 F8 20 -16.571
118 F8 21 -17.548
118 F8 22 -16.083
118 F8 23 -12.665
118 F8 24 -7.782
118 F8 25 -2.411
118 F8 26 1.984
118 F8 27 4.913
118 F8 28 6.866
118 F8 29 8.331
118 F8 30 10.284
118 F8 31 12.238
118 F8 32 13.214
118 F8 33 11.261
118 F8 34 7.843
118 F8 35 4.425
118 F8 36 1.984
118 F8 37 1.984
118 F8 38 3.448
118 F8 39 4.425
118 F8 40 2.960
118 F8 41 -0.946
118 F8 42 -5.341
118 F8 43 -8.270
118 F8 44 -8.759
118 F8 45 -7.782
118 F8 46 -6.317
118 F8 47 -6.805
118 F8 48 -8.759
118 F8 49 -11.200
118 F8 50 -13.153
118 F8 51 -14.130
118 F8 52 -14.618
118 F8 53 -15.594
118 F8 54 -16.571
118 F8 55 -16.571
118 F8 56 -13.641
118 F8 57 -8.270
118 F8 58 -1.923
118 F8 59 2.960
118 F8 60 5.402
118 F8 61 4.913
118 F8 62 3.448
118 F8 63 3.448
118 F8 64 4.913
118 F8 65 7.355
118 F8 66 8.820
118 F8 67 7.843
118 F8 68 3.937
118 F8 69 -0.946
118 F8 70 -4.364
118 F8 71 -4.364
118 F8 72 -2.899
118 F8 73 -1.434
118 F8 74 -2.411
118 F8 75 -4.852
118 F8 76 -7.294
118 F8 77 -7.782
118 F8 78 -4.852
118 F8 79 -0.946
118 F8 80 1.495
118 F8 81 2.472
118 F8 82 1.984
118 F8 83 1.984
118 F8 84 3.448
118 F8 85 3.937
118 F8 86 1.984
118 F8 87 -1.923
118 F8 88 -6.317
118 F8 89 -8.270
118 F8 90 -7.782
118 F8 91 -4.852
118 F8 92 -3.876
118 F8 93 -5.829
118 F8 94 -9.247
118 F8 95 -12.177
118 F8 96 -12.177
118 F8 97 -10.712
118 F8 98 -8.270
118 F8 99 -7.782
118 F8 100 -8.759
118 F8 101 -10.223
118 F8 102 -9.735
118 F8 103 -8.270
118 F8 104 -6.805
118 F8 105 -5.829
118 F8 106 -4.364
118 F8 107 -1.923
118 F8 108 1.007
118 F8 109 3.448
118 F8 110 2.960
118 F8 111 -0.458
118 F8 112 -6.805
118 F8 113 -12.665
118 F8 114 -17.059
118 F8 115 -17.548
118 F8 116 -16.571
118 F8 117 -15.106
118 F8 118 -13.153
118 F8 119 -10.712
118 F8 120 -7.782
118 F8 121 -4.364
118 F8 122 -1.434
118 F8 123 0.031
118 F8 124 0.519
118 F8 125 1.007
118 F8 126 1.495
118 F8 127 1.984
118 F8 128 1.984
118 F8 129 0.519
118 F8 130 -0.946
118 F8 131 -2.411
118 F8 132 -2.899
118 F8 133 -3.387
118 F8 134 -3.876
118 F8 135 -4.852
118 F8 136 -4.852
118 F8 137 -3.387
118 F8 138 0.031
118 F8 139 4.425
118 F8 140 8.820
118 F8 141 12.238
118 F8 142 14.679
118 F8 143 16.632
118 F8 144 18.585
118 F8 145 19.562
118 F8 146 19.562
118 F8 147 18.585
118 F8 148 16.632
118 F8 149 15.167
118 F8 150 14.679
118 F8 151 14.679
118 F8 152 15.167
118 F8 153 15.656
118 F8 154 15.167
118 F8 155 13.702
118 F8 156 10.773
118 F8 157 7.355
118 F8 158 5.402
118 F8 159 5.402
118 F8 160 8.331
118 F8 161 12.238
118 F8 162 15.167
118 F8 163 14.679
118 F8 164 11.749
118 F8 165 8.331
118 F8 166 5.402
118 F8 167 4.913
118 F8 168 5.890
118 F8 169 7.355
118 F8 170 7.843
118 F8 171 7.355
118 F8 172 5.402
118 F8 173 2.960
118 F8 174 1.495
118 F8 175 -0.458
118 F8 176 -1.434
118 F8 177 -1.923
118 F8 178 -1.923
118 F8 179 -0.946
118 F8 180 -0.946
118 F8 181 -0.946
118 F8 182 -1.923
118 F8 183 -3.387
118 F8 184 -4.852
118 F8 185 -4.364
118 F8 186 -3.387
118 F8 187 -1.434
118 F8 188 0.031
118 F8 189 0.519
118 F8 190 -0.946
118 F8 191 -2.411
118 F8 192 -3.876
118 F8 193 -4.364
118 F8 194 -4.852
118 F8 195 -4.852
118 F8 196 -6.317
118 F8 197 -7.294
118 F8 198 -8.270
118 F8 199 -8.759
118 F8 200 -8.270
118 F8 201 -7.782
118 F8 202 -7.294
118 F8 203 -7.294
118 F8 204 -7.294
118 F8 205 -7.782
118 F8 206 -7.782
118 F8 207 -6.805
118 F8 208 -5.341
118 F8 209 -3.876
118 F8 210 -3.876
118 F8 211 -5.829
118 F8 212 -10.223
118 F8 213 -15.594
118 F8 214 -19.501
118 F8 215 -20.477
118 F8 216 -17.548
118 F8 217 -11.688
118 F8 218 -4.852
118 F8 219 0.031
118 F8 220 1.984
118 F8 221 1.007
118 F8 222 -0.458
118 F8 223 -1.434
118 F8 224 -0.458
118 F8 225 0.519
118 F8 226 1.495
118 F8 227 0.031
118 F8 228 -3.387
118 F8 229 -6.805
118 F8 230 -9.247
118 F8 231 -9.735
118 F8 232 -8.759
118 F8 233 -7.782
118 F8 234 -7.294
118 F8 235 -8.270
118 F8 236 -9.735
118 F8 237 -10.712
118 F8 238 -10.712
118 F8 239 -10.223
118 F8 240 -9.247
118 F8 241 -7.782
118 F8 242 -6.317
118 F8 243 -3.876
118 F8 244 -1.434
118 F8 245 0.519
118 F8 246 1.495
118 F8 247 1.007
118 F8 248 0.031
118 F8 249 -0.458
118 F8 250 -0.946
118 F8 251 -0.946
118 F8 252 -1.434
118 F8 253 -3.387
118 F8 254 -6.805
118 F8 255 -9.247
# AF1 chan 4
118 AF1 0 -3.957
118 AF1 1 -3.469
118 AF1 2 -2.492
118 AF1 3 -0.051
118 AF1 4 4.344
118 AF1 5 8.738
118 AF1 6 12.156
118 AF1 7 13.621
118 AF1 8 12.644
118 AF1 9 10.691
118 AF1 10 8.738
118 AF1 11 7.762
118 AF1 12 6.785
118 AF1 13 5.809
118 AF1 14 3.855
118 AF1 15 1.414
118 AF1 16 -1.027
118 AF1 17 -2.004
118 AF1 18 -2.981
118 AF1 19 -2.981
118 AF1 20 -3.957
118 AF1 21 -4.445
118 AF1 22 -4.445
118 AF1 23 -2.981
118 AF1 24 -1.027
118 AF1 25 1.414
118 AF1 26 3.367
118 AF1 27 3.855
118 AF1 28 3.855
118 AF1 29 3.855
118 AF1 30 5.320
118 AF1 31 7.762
118 AF1 32 10.203
118 AF1 33 12.156
118 AF1 34 12.156
118 AF1 35 11.180
118 AF1 36 9.715
118 AF1 37 7.273
118 AF1 38 4.344
118 AF1 39 1.414
118 AF1 40 -1.516
118 AF1 41 -3.957
118 AF1 42 -5.910
118 AF1 43 -5.910
118 AF1 44 -5.422
118 AF1 45 -5.422
118 AF1 46 -5.422
118 AF1 47 -5.910
118 AF1 48 -5.910
118 AF1 49 -4.445
118 AF1 50 -2.492
118 AF1 51 -0.051
118 AF1 52 1.414
118 AF1 53 1.902
118 AF1 54 1.902
118 AF1 55 2.879
118 AF1 56 5.809
118 AF1 57 10.203
118 AF1 58 15.574
118 AF1 59 19.480
118 AF1 60 21.922
118 AF1 61 20.945
118 AF1 62 18.992
118 AF1 63 16.062
118 AF1 64 12.644
118 AF1 65 10.203
118 AF1 66 7.762
118 AF1 67 6.297
118 AF1 68 5.809
118 AF1 69 5.809
118 AF1 70 5.809
118 AF1 71 5.809
118 AF1 72 4.344
118 AF1 73 1.414
118 AF1 74 -1.027
118 AF1 75 -3.469
118 AF1 76 -3.957
118 AF1 77 -2.004
118 AF1 78 0.437
118 AF1 79 2.391
118 AF1 80 1.902
118 AF1 81 -0.051
118 AF1 82 -2.492
118 AF1 83 -3.957
118 AF1 84 -3.469
118 AF1 85 -2.981
118 AF1 86 -2.004
118 AF1 87 -2.004
118 AF1 88 -2.981
118 AF1 89 -3.469
118 AF1 90 -2.981
118 AF1 91 -1.516
118 AF1 92 -1.027
118 AF1 93 -0.539
118 AF1 94 -1.027
118 AF1 95 -1.027
118 AF1 96 0.437
118 AF1 97 2.879
118 AF1 98 5.809
118 AF1 99 7.762
118 AF1 100 8.738
118 AF1 101 9.226
118 AF1 102 9.715
118 AF1 103 11.180
118 AF1 104 12.156
118 AF1 105 12.644
118 AF1 106 12.156
118 AF1 107 10.691
118 AF1 108 8.738
118 AF1 109 7.273
118 AF1 110 6.785
118 AF1 111 6.297
118 AF1 112 5.809
118 AF1 113 4.832
118 AF1 114 3.367
118 AF1 115 2.879
118 AF1 116 3.367
118 AF1 117 3.855
118 AF1 118 3.855
118 AF1 119 2.879
118 AF1 120 1.414
118 AF1 121 -0.051
118 AF1 122 -1.027
118 AF1 123 -1.027
118 AF1 124 -0.051
118 AF1 125 0.437
118 AF1 126 0.926
118 AF1 127 0.926
118 AF1 128 1.414
118 AF1 129 0.926
118 AF1 130 -0.051
118 AF1 131 -1.516
118 AF1 132 -2.492
118 AF1 133 -2.004
118 AF1 134 -1.027
118 AF1 135 0.926
118 AF1 136 2.879
118 AF1 137 4.344
118 AF1 138 6.297
118 AF1 139 9.226
118 AF1 140 13.133
118 AF1 141 18.992
118 AF1 142 25.340
118 AF1 143 32.664
118 AF1 144 39.500
118 AF1 145 44.871
118 AF1 146 47.801
118 AF1 147 47.801
118 AF1 148 45.848
118 AF1 149 42.918
118 AF1 150 40.476
118 AF1 151 38.523
118 AF1 152 37.547
118 AF1 153 37.059
118 AF1 154 35.594
118 AF1 155 33.152
118 AF1 156 29.734
118 AF1 157 25.828
118 AF1 158 21.922
118 AF1 159 18.504
118 AF1 160 16.551
118 AF1 161 15.574
118 AF1 162 14.598
118 AF1 163 14.109
118 AF1 164 13.621
118 AF1 165 13.621
118 AF1 166 13.133
118 AF1 167 11.668
118 AF1 168 9.226
118 AF1 169 6.785
118 AF1 170 4.832
118 AF1 171 4.344
118 AF1 172 6.297
118 AF1 173 8.250
118 AF1 174 9.226
118 AF1 175 8.738
118 AF1 176 7.762
118 AF1 177 6.785
118 AF1 178 7.762
118 AF1 179 10.203
118 AF1 180 12.644
118 AF1 181 14.598
118 AF1 182 14.109
118 AF1 183 12.644
118 AF1 184 9.715
118 AF1 185 7.273
118 AF1 186 5.320
118 AF1 187 2.879
118 AF1 188 0.437
118 AF1 189 -1.516
118 AF1 190 -2.981
118 AF1 191 -2.004
118 AF1 192 -0.051
118 AF1 193 2.391
118 AF1 194 4.344
118 AF1 195 5.320
118 AF1 196 5.320
118 AF1 197 5.320
118 AF1 198 5.809
118 AF1 199 7.762
118 AF1 200 9.226
118 AF1 201 10.691
118 AF1 202 11.180
118 AF1 203 10.691
118 AF1 204 8.250
118 AF1 205 4.344
118 AF1 206 0.437
118 AF1 207 -2.981
118 AF1 208 -4.934
118 AF1 209 -5.422
118 AF1 210 -4.934
118 AF1 211 -5.422
118 AF1 212 -5.910
118 AF1 213 -6.887
118 AF1 214 -7.375
118 AF1 215 -6.399
118 AF1 216 -3.957
118 AF1 217 -1.027
118 AF1 218 1.414
118 AF1 219 2.879
118 AF1 220 4.344
118 AF1 221 5.809
118 AF1 222 7.762
118 AF1 223 9.226
118 AF1 224 8.738
118 AF1 225 6.297
118 AF1 226 2.391
118 AF1 227 -1.027
118 AF1 228 -2.492
118 AF1 229 -2.004
118 AF1 230 -0.539
118 AF1 231 1.414
118 AF1 232 1.902
118 AF1 233 1.902
118 AF1 234 0.926
118 AF1 235 0.926
118 AF1 236 0.926
118 AF1 237 2.391
118 AF1 238 4.832
118 AF1 239 7.273
118 AF1 240 9.226
118 AF1 241 9.715
118 AF1 242 8.738
118 AF1 243 7.273
118 AF1 244 5.809
118 AF1 245 5.320
118 AF1 246 5.809
118 AF1 247 6.785
118 AF1 248 8.250
118 AF1 249 10.203
118 AF1 250 12.156
118 AF1 251 13.621
118 AF1 252 14.109
118 AF1 253 15.086
118 AF1 254 16.062
118 AF1 255 18.504
# AF2 chan 5
118 AF2 0 -4.486
118 AF2 1 -4.486
118 AF2 2 -3.510
118 AF2 3 -1.068
118 AF2 4 2.350
118 AF2 5 6.744
118 AF2 6 9.674
118 AF2 7 10.651
118 AF2 8 9.186
118 AF2 9 6.744
118 AF2 10 3.326
118 AF2 11 1.373
118 AF2 12 0.885
118 AF2 13 0.885
118 AF2 14 1.373
118 AF2 15 0.397
118 AF2 16 -1.556
118 AF2 17 -3.998
118 AF2 18 -5.463
118 AF2 19 -6.439
118 AF2 20 -6.927
118 AF2 21 -6.927
118 AF2 22 -6.439
118 AF2 23 -4.486
118 AF2 24 -1.556
118 AF2 25 1.862
118 AF2 26 4.791
118 AF2 27 7.233
118 AF2 28 8.209
118 AF2 29 8.698
118 AF2 30 10.162
118 AF2 31 12.115
118 AF2 32 14.069
118 AF2 33 15.045
118 AF2 34 14.069
118 AF2 35 11.627
118 AF2 36 8.698
118 AF2 37 5.768
118 AF2 38 3.815
118 AF2 39 1.862
118 AF2 40 -1.068
118 AF2 41 -3.998
118 AF2 42 -6.439
118 AF2 43 -8.392
118 AF2 44 -9.369
118 AF2 45 -9.857
118 AF2 46 -9.857
118 AF2 47 -9.857
118 AF2 48 -9.857
118 AF2 49 -9.369
118 AF2 50 -7.904
118 AF2 51 -6.439
118 AF2 52 -4.486
118 AF2 53 -3.021
118 AF2 54 -1.556
118 AF2 55 0.397
118 AF2 56 3.326
118 AF2 57 8.209
118 AF2 58 13.092
118 AF2 59 16.998
118 AF2 60 18.951
118 AF2 61 18.951
118 AF2 62 17.487
118 AF2 63 15.045
118 AF2 64 13.092
118 AF2 65 11.139
118 AF2 66 9.186
118 AF2 67 7.233
118 AF2 68 4.791
118 AF2 69 3.326
118 AF2 70 2.350
118 AF2 71 1.373
118 AF2 72 0.397
118 AF2 73 -1.068
118 AF2 74 -3.510
118 AF2 75 -5.951
118 AF2 76 -6.927
118 AF2 77 -6.439
118 AF2 78 -5.463
118 AF2 79 -3.998
118 AF2 80 -3.998
118 AF2 81 -3.998
118 AF2 82 -4.486
118 AF2 83 -3.998
118 AF2 84 -2.533
118 AF2 85 -1.556
118 AF2 86 -2.045
118 AF2 87 -3.021
118 AF2 88 -4.974
118 AF2 89 -6.927
118 AF2 90 -7.416
118 AF2 91 -6.439
118 AF2 92 -4.974
118 AF2 93 -3.510
118 AF2 94 -1.556
118 AF2 95 -0.092
118 AF2 96 1.862
118 AF2 97 3.326
118 AF2 98 4.791
118 AF2 99 5.768
118 AF2 100 6.256
118 AF2 101 6.256
118 AF2 102 6.256
118 AF2 103 6.256
118 AF2 104 6.744
118 AF2 105 7.721
118 AF2 106 9.186
118 AF2 107 10.651
118 AF2 108 11.627
118 AF2 109 11.627
118 AF2 110 10.162
118 AF2 111 8.209
118 AF2 112 5.280
118 AF2 113 2.838
118 AF2 114 0.885
118 AF2 115 -1.068
118 AF2 116 -2.045
118 AF2 117 -2.533
118 AF2 118 -2.045
118 AF2 119 -1.556
118 AF2 120 -1.068
118 AF2 121 -1.068
118 AF2 122 -1.556
118 AF2 123 -1.556
118 AF2 124 -1.556
118 AF2 125 -0.580
118 AF2 126 0.397
118 AF2 127 0.885
118 AF2 128 0.397
118 AF2 129 -0.580
118 AF2 130 -2.533
118 AF2 131 -3.510
118 AF2 132 -3.510
118 AF2 133 -2.045
118 AF2 134 -1.068
118 AF2 135 0.397
118 AF2 136 1.862
118 AF2 137 3.326
118 AF2 138 5.768
118 AF2 139 9.674
118 AF2 140 14.557
118 AF2 141 19.440
118 AF2 142 24.811
118 AF2 143 30.670
118 AF2 144 36.041
118 AF2 145 40.436
118 AF2 146 43.365
118 AF2 147 43.854
118 AF2 148 42.389
118 AF2 149 39.459
118 AF2 150 36.530
118 AF2 151 34.576
118 AF2 152 32.623
118 AF2 153 31.158
118 AF2 154 29.694
118 AF2 155 27.740
118 AF2 156 24.323
118 AF2 157 20.416
118 AF2 158 16.510
118 AF2 159 13.580
118 AF2 160 12.604
118 AF2 161 13.092
118 AF2 162 14.069
118 AF2 163 14.557
118 AF2 164 14.069
118 AF2 165 13.092
118 AF2 166 12.115
118 AF2 167 10.162
118 AF2 168 8.698
118 AF2 169 6.744
118 AF2 170 4.791
118 AF2 171 3.815
118 AF2 172 3.326
118 AF2 173 4.303
118 AF2 174 4.303
118 AF2 175 3.815
118 AF2 176 3.326
118 AF2 177 2.350
118 AF2 178 2.838
118 AF2 179 4.791
118 AF2 180 7.721
118 AF2 181 10.162
118 AF2 182 11.627
118 AF2 183 11.139
118 AF2 184 9.674
118 AF2 185 8.209
118 AF2 186 6.744
118 AF2 187 5.280
118 AF2 188 3.815
118 AF2 189 1.862
118 AF2 190 1.373
118 AF2 191 1.373
118 AF2 192 1.862
118 AF2 193 2.350
118 AF2 194 2.350
118 AF2 195 2.350
118 AF2 196 2.350
118 AF2 197 3.326
118 AF2 198 4.791
118 AF2 199 6.256
118 AF2 200 7.721
118 AF2 201 9.186
118 AF2 202 9.186
118 AF2 203 8.698
118 AF2 204 6.256
118 AF2 205 2.350
118 AF2 206 -2.533
118 AF2 207 -5.951
118 AF2 208 -7.416
118 AF2 209 -6.927
118 AF2 210 -5.951
118 AF2 211 -6.439
118 AF2 212 -8.392
118 AF2 213 -10.834
118 AF2 214 -12.299
118 AF2 215 -11.322
118 AF2 216 -7.904
118 AF2 217 -3.998
118 AF2 218 -0.092
118 AF2 219 2.350
118 AF2 220 4.303
118 AF2 221 6.256
118 AF2 222 8.698
118 AF2 223 10.162
118 AF2 224 10.162
118 AF2 225 7.721
118 AF2 226 3.815
118 AF2 227 0.397
118 AF2 228 -2.533
118 AF2 229 -2.533
118 AF2 230 -1.556
118 AF2 231 0.397
118 AF2 232 0.885
118 AF2 233 0.885
118 AF2 234 -0.580
118 AF2 235 -1.068
118 AF2 236 -1.068
118 AF2 237 -0.092
118 AF2 238 1.862
118 AF2 239 3.815
118 AF2 240 5.768
118 AF2 241 6.744
118 AF2 242 6.744
118 AF2 243 6.256
118 AF2 244 4.791
118 AF2 245 3.815
118 AF2 246 3.326
118 AF2 247 4.303
118 AF2 248 5.768
118 AF2 249 7.721
118 AF2 250 8.698
118 AF2 251 9.186
118 AF2 252 9.186
118 AF2 253 9.186
118 AF2 254 9.186
118 AF2 255 10.651
# FZ chan 6
118 FZ 0 -2.787
118 FZ 1 -2.299
118 FZ 2 -1.322
118 FZ 3 0.142
118 FZ 4 3.072
118 FZ 5 6.490
118 FZ 6 10.396
118 FZ 7 12.349
118 FZ 8 12.349
118 FZ 9 10.396
118 FZ 10 7.955
118 FZ 11 6.002
118 FZ 12 5.025
118 FZ 13 5.025
118 FZ 14 4.537
118 FZ 15 3.560
118 FZ 16 1.119
118 FZ 17 -0.834
118 FZ 18 -2.299
118 FZ 19 -3.276
118 FZ 20 -3.764
118 FZ 21 -4.252
118 FZ 22 -4.252
118 FZ 23 -2.787
118 FZ 24 -0.346
118 FZ 25 2.584
118 FZ 26 5.514
118 FZ 27 6.490
118 FZ 28 6.002
118 FZ 29 6.002
118 FZ 30 6.002
118 FZ 31 6.978
118 FZ 32 8.443
118 FZ 33 8.931
118 FZ 34 8.443
118 FZ 35 6.978
118 FZ 36 5.514
118 FZ 37 4.537
118 FZ 38 3.560
118 FZ 39 2.584
118 FZ 40 0.631
118 FZ 41 -1.322
118 FZ 42 -3.276
118 FZ 43 -4.252
118 FZ 44 -4.252
118 FZ 45 -3.764
118 FZ 46 -3.764
118 FZ 47 -3.764
118 FZ 48 -3.276
118 FZ 49 -1.811
118 FZ 50 0.631
118 FZ 51 3.072
118 FZ 52 5.025
118 FZ 53 5.514
118 FZ 54 6.002
118 FZ 55 6.978
118 FZ 56 9.420
118 FZ 57 13.326
118 FZ 58 17.232
118 FZ 59 20.162
118 FZ 60 20.650
118 FZ 61 19.185
118 FZ 62 16.744
118 FZ 63 14.303
118 FZ 64 11.861
118 FZ 65 9.908
118 FZ 66 7.955
118 FZ 67 5.514
118 FZ 68 3.560
118 FZ 69 2.096
118 FZ 70 1.119
118 FZ 71 0.631
118 FZ 72 -0.346
118 FZ 73 -2.299
118 FZ 74 -4.252
118 FZ 75 -6.205
118 FZ 76 -6.694
118 FZ 77 -5.717
118 FZ 78 -3.764
118 FZ 79 -2.299
118 FZ 80 -2.299
118 FZ 81 -3.276
118 FZ 82 -4.252
118 FZ 83 -4.252
118 FZ 84 -3.276
118 FZ 85 -0.834
118 FZ 86 1.119
118 FZ 87 1.119
118 FZ 88 0.631
118 FZ 89 0.142
118 FZ 90 0.631
118 FZ 91 1.607
118 FZ 92 3.072
118 FZ 93 4.049
118 FZ 94 5.025
118 FZ 95 5.514
118 FZ 96 6.490
118 FZ 97 7.955
118 FZ 98 9.908
118 FZ 99 10.885
118 FZ 100 11.373
118 FZ 101 11.373
118 FZ 102 9.908
118 FZ 103 9.420
118 FZ 104 8.931
118 FZ 105 9.420
118 FZ 106 9.908
118 FZ 107 11.373
118 FZ 108 11.861
118 FZ 109 10.885
118 FZ 110 9.908
118 FZ 111 8.443
118 FZ 112 6.490
118 FZ 113 5.025
118 FZ 114 3.560
118 FZ 115 1.607
118 FZ 116 0.631
118 FZ 117 -0.346
118 FZ 118 -0.346
118 FZ 119 -0.834
118 FZ 120 -0.346
118 FZ 121 -0.834
118 FZ 122 -1.811
118 FZ 123 -2.787
118 FZ 124 -3.764
118 FZ 125 -2.787
118 FZ 126 -1.811
118 FZ 127 -0.834
118 FZ 128 -0.346
118 FZ 129 -0.346
118 FZ 130 -0.834
118 FZ 131 -0.834
118 FZ 132 -0.834
118 FZ 133 0.631
118 FZ 134 1.119
118 FZ 135 1.607
118 FZ 136 2.096
118 FZ 137 2.096
118 FZ 138 3.560
118 FZ 139 5.025
118 FZ 140 7.955
118 FZ 141 11.861
118 FZ 142 15.767
118 FZ 143 20.162
118 FZ 144 24.068
118 FZ 145 27.486
118 FZ 146 29.439
118 FZ 147 28.951
118 FZ 148 26.998
118 FZ 149 24.068
118 FZ 150 21.627
118 FZ 151 19.674
118 FZ 152 17.721
118 FZ 153 16.744
118 FZ 154 15.279
118 FZ 155 13.326
118 FZ 156 10.885
118 FZ 157 7.467
118 FZ 158 4.537
118 FZ 159 2.096
118 FZ 160 0.631
118 FZ 161 1.119
118 FZ 162 2.096
118 FZ 163 3.560
118 FZ 164 4.049
118 FZ 165 4.049
118 FZ 166 3.072
118 FZ 167 1.607
118 FZ 168 -0.346
118 FZ 169 -2.299
118 FZ 170 -3.764
118 FZ 171 -3.764
118 FZ 172 -2.787
118 FZ 173 -0.834
118 FZ 174 0.631
118 FZ 175 1.119
118 FZ 176 1.119
118 FZ 177 0.142
118 FZ 178 1.119
118 FZ 179 2.584
118 FZ 180 5.514
118 FZ 181 7.955
118 FZ 182 8.931
118 FZ 183 8.443
118 FZ 184 6.490
118 FZ 185 4.537
118 FZ 186 2.096
118 FZ 187 0.142
118 FZ 188 -2.299
118 FZ 189 -4.252
118 FZ 190 -5.229
118 FZ 191 -4.740
118 FZ 192 -2.787
118 FZ 193 -0.834
118 FZ 194 0.631
118 FZ 195 1.607
118 FZ 196 2.096
118 FZ 197 3.072
118 FZ 198 4.049
118 FZ 199 5.025
118 FZ 200 6.002
118 FZ 201 7.467
118 FZ 202 7.955
118 FZ 203 7.955
118 FZ 204 6.002
118 FZ 205 3.072
118 FZ 206 -0.346
118 FZ 207 -4.252
118 FZ 208 -5.717
118 FZ 209 -5.717
118 FZ 210 -4.252
118 FZ 211 -3.764
118 FZ 212 -3.764
118 FZ 213 -5.229
118 FZ 214 -6.205
118 FZ 215 -6.205
118 FZ 216 -5.229
118 FZ 217 -3.276
118 FZ 218 -0.834
118 FZ 219 1.607
118 FZ 220 4.049
118 FZ 221 6.490
118 FZ 222 8.931
118 FZ 223 10.396
118 FZ 224 9.908
118 FZ 225 6.978
118 FZ 226 2.584
118 FZ 227 -1.322
118 FZ 228 -4.252
118 FZ 229 -4.740
118 FZ 230 -3.764
118 FZ 231 -1.322
118 FZ 232 0.142
118 FZ 233 0.631
118 FZ 234 0.631
118 FZ 235 0.142
118 FZ 236 0.142
118 FZ 237 1.119
118 FZ 238 2.584
118 FZ 239 4.049
118 FZ 240 4.537
118 FZ 241 4.049
118 FZ 242 3.072
118 FZ 243 2.096
118 FZ 244 1.119
118 FZ 245 0.631
118 FZ 246 1.607
118 FZ 247 3.072
118 FZ 248 5.025
118 FZ 249 6.490
118 FZ 250 7.467
118 FZ 251 7.955
118 FZ 252 7.467
118 FZ 253 7.467
118 FZ 254 7.467
118 FZ 255 8.443
# F4 chan 7
118 F4 0 -2.797
118 F4 1 -1.821
118 F4 2 0.132
118 F4 3 3.062
118 F4 4 6.480
118 F4 5 9.898
118 F4 6 11.363
118 F4 7 10.386
118 F4 8 7.456
118 F4 9 3.550
118 F4 10 -0.844
118 F4 11 -2.309
118 F4 12 -1.821
118 F4 13 -0.844
118 F4 14 -0.356
118 F4 15 -1.333
118 F4 16 -3.286
118 F4 17 -5.727
118 F4 18 -7.680
118 F4 19 -9.145
118 F4 20 -10.122
118 F4 21 -11.098
118 F4 22 -10.610
118 F4 23 -8.169
118 F4 24 -3.774
118 F4 25 2.085
118 F4 26 6.968
118 F4 27 9.898
118 F4 28 10.874
118 F4 29 10.874
118 F4 30 11.363
118 F4 31 12.828
118 F4 32 14.292
118 F4 33 13.804
118 F4 34 12.339
118 F4 35 9.410
118 F4 36 7.456
118 F4 37 6.480
118 F4 38 5.992
118 F4 39 5.015
118 F4 40 3.062
118 F4 41 0.132
118 F4 42 -2.309
118 F4 43 -3.774
118 F4 44 -3.774
118 F4 45 -3.774
118 F4 46 -4.751
118 F4 47 -5.727
118 F4 48 -6.704
118 F4 49 -6.704
118 F4 50 -6.215
118 F4 51 -5.727
118 F4 52 -5.239
118 F4 53 -4.751
118 F4 54 -3.774
118 F4 55 -1.821
118 F4 56 1.597
118 F4 57 6.480
118 F4 58 10.874
118 F4 59 13.316
118 F4 60 13.804
118 F4 61 12.828
118 F4 62 11.363
118 F4 63 10.386
118 F4 64 9.410
118 F4 65 8.433
118 F4 66 6.480
118 F4 67 3.550
118 F4 68 0.621
118 F4 69 -2.309
118 F4 70 -3.774
118 F4 71 -4.751
118 F4 72 -5.727
118 F4 73 -7.192
118 F4 74 -8.657
118 F4 75 -9.145
118 F4 76 -10.122
118 F4 77 -9.633
118 F4 78 -9.145
118 F4 79 -8.657
118 F4 80 -9.145
118 F4 81 -8.657
118 F4 82 -7.192
118 F4 83 -4.751
118 F4 84 -1.821
118 F4 85 0.621
118 F4 86 1.109
118 F4 87 -0.356
118 F4 88 -2.797
118 F4 89 -4.751
118 F4 90 -5.727
118 F4 91 -4.262
118 F4 92 -2.309
118 F4 93 0.621
118 F4 94 2.574
118 F4 95 3.550
118 F4 96 3.550
118 F4 97 3.550
118 F4 98 3.550
118 F4 99 3.550
118 F4 100 3.062
118 F4 101 1.597
118 F4 102 0.132
118 F4 103 -1.333
118 F4 104 -1.333
118 F4 105 -0.356
118 F4 106 3.062
118 F4 107 6.968
118 F4 108 10.386
118 F4 109 10.874
118 F4 110 8.433
118 F4 111 4.527
118 F4 112 0.132
118 F4 113 -3.286
118 F4 114 -5.727
118 F4 115 -7.192
118 F4 116 -7.680
118 F4 117 -7.680
118 F4 118 -6.215
118 F4 119 -4.262
118 F4 120 -1.821
118 F4 121 -0.356
118 F4 122 0.132
118 F4 123 -0.356
118 F4 124 -1.333
118 F4 125 -1.821
118 F4 126 -0.844
118 F4 127 -0.356
118 F4 128 0.621
118 F4 129 0.621
118 F4 130 0.621
118 F4 131 0.621
118 F4 132 0.621
118 F4 133 1.109
118 F4 134 0.132
118 F4 135 -0.844
118 F4 136 -1.821
118 F4 137 -1.821
118 F4 138 -0.356
118 F4 139 2.085
118 F4 140 5.503
118 F4 141 8.433
118 F4 142 11.851
118 F4 143 15.757
118 F4 144 19.175
118 F4 145 22.105
118 F4 146 23.570
118 F4 147 23.081
118 F4 148 21.128
118 F4 149 18.687
118 F4 150 16.246
118 F4 151 13.804
118 F4 152 11.851
118 F4 153 9.898
118 F4 154 8.433
118 F4 155 6.968
118 F4 156 4.527
118 F4 157 1.109
118 F4 158 -2.797
118 F4 159 -4.751
118 F4 160 -4.262
118 F4 161 -0.844
118 F4 162 3.550
118 F4 163 7.456
118 F4 164 8.433
118 F4 165 7.945
118 F4 166 5.992
118 F4 167 4.038
118 F4 168 3.062
118 F4 169 2.085
118 F4 170 1.109
118 F4 171 0.621
118 F4 172 0.132
118 F4 173 -0.356
118 F4 174 -0.356
118 F4 175 -1.333
118 F4 176 -2.797
118 F4 177 -3.774
118 F4 178 -3.774
118 F4 179 -1.333
118 F4 180 2.574
118 F4 181 5.992
118 F4 182 7.945
118 F4 183 8.433
118 F4 184 7.456
118 F4 185 5.992
118 F4 186 5.015
118 F4 187 3.550
118 F4 188 2.085
118 F4 189 0.132
118 F4 190 -1.821
118 F4 191 -3.286
118 F4 192 -3.774
118 F4 193 -3.774
118 F4 194 -3.286
118 F4 195 -2.797
118 F4 196 -1.333
118 F4 197 0.132
118 F4 198 1.597
118 F4 199 2.574
118 F4 200 4.038
118 F4 201 5.992
118 F4 202 6.968
118 F4 203 6.968
118 F4 204 5.015
118 F4 205 1.597
118 F4 206 -2.797
118 F4 207 -6.215
118 F4 208 -6.704
118 F4 209 -6.215
118 F4 210 -4.751
118 F4 211 -4.262
118 F4 212 -5.727
118 F4 213 -7.680
118 F4 214 -9.145
118 F4 215 -8.657
118 F4 216 -6.704
118 F4 217 -4.262
118 F4 218 -1.333
118 F4 219 1.597
118 F4 220 5.015
118 F4 221 9.410
118 F4 222 12.828
118 F4 223 14.292
118 F4 224 13.316
118 F4 225 9.410
118 F4 226 3.550
118 F4 227 -1.821
118 F4 228 -5.239
118 F4 229 -6.704
118 F4 230 -6.215
118 F4 231 -4.751
118 F4 232 -3.774
118 F4 233 -2.797
118 F4 234 -2.797
118 F4 235 -2.797
118 F4 236 -2.309
118 F4 237 -2.309
118 F4 238 -2.309
118 F4 239 -2.309
118 F4 240 -2.309
118 F4 241 -1.333
118 F4 242 -0.844
118 F4 243 -0.844
118 F4 244 -1.333
118 F4 245 -1.821
118 F4 246 -1.821
118 F4 247 -0.844
118 F4 248 0.621
118 F4 249 2.085
118 F4 250 3.062
118 F4 251 3.062
118 F4 252 1.597
118 F4 253 -0.356
118 F4 254 -1.821
118 F4 255 -2.797
# F3 chan 8
118 F3 0 -1.607
118 F3 1 -1.119
118 F3 2 0.346
118 F3 3 2.299
118 F3 4 5.717
118 F3 5 10.111
118 F3 6 14.506
118 F3 7 17.436
118 F3 8 18.412
118 F3 9 16.947
118 F3 10 14.018
118 F3 11 10.111
118 F3 12 7.182
118 F3 13 5.717
118 F3 14 4.740
118 F3 15 3.764
118 F3 16 2.787
118 F3 17 1.322
118 F3 18 0.346
118 F3 19 -0.142
118 F3 20 -0.631
118 F3 21 -1.119
118 F3 22 -1.119
118 F3 23 -1.119
118 F3 24 -0.631
118 F3 25 0.346
118 F3 26 1.322
118 F3 27 1.322
118 F3 28 0.346
118 F3 29 -0.631
118 F3 30 -1.119
118 F3 31 -0.142
118 F3 32 1.811
118 F3 33 3.764
118 F3 34 5.229
118 F3 35 6.694
118 F3 36 7.182
118 F3 37 7.182
118 F3 38 6.205
118 F3 39 4.252
118 F3 40 1.322
118 F3 41 -1.119
118 F3 42 -2.584
118 F3 43 -2.584
118 F3 44 -1.119
118 F3 45 0.834
118 F3 46 2.299
118 F3 47 3.764
118 F3 48 4.740
118 F3 49 6.205
118 F3 50 7.182
118 F3 51 7.182
118 F3 52 6.205
118 F3 53 4.740
118 F3 54 2.787
118 F3 55 3.276
118 F3 56 5.717
118 F3 57 10.600
118 F3 58 15.971
118 F3 59 19.389
118 F3 60 19.877
118 F3 61 17.436
118 F3 62 13.041
118 F3 63 8.158
118 F3 64 4.252
118 F3 65 2.299
118 F3 66 1.322
118 F3 67 1.811
118 F3 68 2.787
118 F3 69 3.764
118 F3 70 3.764
118 F3 71 2.787
118 F3 72 0.346
118 F3 73 -3.072
118 F3 74 -6.002
118 F3 75 -7.467
118 F3 76 -5.025
118 F3 77 -0.631
118 F3 78 3.764
118 F3 79 5.717
118 F3 80 3.764
118 F3 81 -0.142
118 F3 82 -5.025
118 F3 83 -7.955
118 F3 84 -7.955
118 F3 85 -5.025
118 F3 86 -1.119
118 F3 87 2.299
118 F3 88 5.229
118 F3 89 7.182
118 F3 90 8.158
118 F3 91 8.158
118 F3 92 6.694
118 F3 93 4.252
118 F3 94 0.834
118 F3 95 -2.096
118 F3 96 -2.096
118 F3 97 0.346
118 F3 98 4.252
118 F3 99 9.135
118 F3 100 12.553
118 F3 101 14.018
118 F3 102 14.506
118 F3 103 14.506
118 F3 104 14.018
118 F3 105 13.529
118 F3 106 11.088
118 F3 107 7.182
118 F3 108 1.322
118 F3 109 -4.049
118 F3 110 -6.490
118 F3 111 -5.514
118 F3 112 -2.096
118 F3 113 1.811
118 F3 114 5.229
118 F3 115 6.694
118 F3 116 7.182
118 F3 117 7.182
118 F3 118 6.205
118 F3 119 4.740
118 F3 120 1.811
118 F3 121 -1.607
118 F3 122 -5.025
118 F3 123 -6.490
118 F3 124 -6.490
118 F3 125 -4.049
118 F3 126 -1.119
118 F3 127 1.811
118 F3 128 3.764
118 F3 129 5.717
118 F3 130 6.205
118 F3 131 6.205
118 F3 132 5.717
118 F3 133 4.252
118 F3 134 3.276
118 F3 135 2.299
118 F3 136 0.834
118 F3 137 -0.631
118 F3 138 -2.096
118 F3 139 -3.560
118 F3 140 -4.049
118 F3 141 -1.119
118 F3 142 4.252
118 F3 143 12.065
118 F3 144 20.365
118 F3 145 27.201
118 F3 146 30.619
118 F3 147 29.643
118 F3 148 26.713
118 F3 149 22.807
118 F3 150 19.389
118 F3 151 17.924
118 F3 152 17.924
118 F3 153 17.924
118 F3 154 17.924
118 F3 155 16.459
118 F3 156 14.018
118 F3 157 9.623
118 F3 158 5.229
118 F3 159 0.834
118 F3 160 -1.607
118 F3 161 -2.096
118 F3 162 -0.142
118 F3 163 2.299
118 F3 164 5.717
118 F3 165 7.670
118 F3 166 7.670
118 F3 167 6.205
118 F3 168 2.787
118 F3 169 -0.631
118 F3 170 -3.560
118 F3 171 -4.537
118 F3 172 -2.584
118 F3 173 -0.631
118 F3 174 1.811
118 F3 175 3.276
118 F3 176 3.764
118 F3 177 3.764
118 F3 178 4.740
118 F3 179 7.182
118 F3 180 9.135
118 F3 181 10.111
118 F3 182 9.623
118 F3 183 7.670
118 F3 184 3.764
118 F3 185 -0.631
118 F3 186 -5.025
118 F3 187 -8.931
118 F3 188 -12.838
118 F3 189 -15.767
118 F3 190 -16.744
118 F3 191 -16.256
118 F3 192 -14.303
118 F3 193 -10.885
118 F3 194 -7.467
118 F3 195 -3.072
118 F3 196 0.834
118 F3 197 3.764
118 F3 198 6.205
118 F3 199 7.182
118 F3 200 7.670
118 F3 201 7.670
118 F3 202 7.670
118 F3 203 7.182
118 F3 204 5.717
118 F3 205 2.299
118 F3 206 -1.607
118 F3 207 -5.025
118 F3 208 -6.002
118 F3 209 -5.025
118 F3 210 -2.096
118 F3 211 -0.631
118 F3 212 -0.631
118 F3 213 -2.584
118 F3 214 -5.025
118 F3 215 -5.514
118 F3 216 -4.049
118 F3 217 -1.119
118 F3 218 1.811
118 F3 219 3.764
118 F3 220 4.740
118 F3 221 5.229
118 F3 222 5.717
118 F3 223 6.205
118 F3 224 5.229
118 F3 225 2.299
118 F3 226 -1.607
118 F3 227 -6.002
118 F3 228 -8.931
118 F3 229 -8.931
118 F3 230 -6.978
118 F3 231 -4.049
118 F3 232 -2.096
118 F3 233 -1.607
118 F3 234 -1.607
118 F3 235 -1.607
118 F3 236 -0.142
118 F3 237 2.299
118 F3 238 5.229
118 F3 239 7.670
118 F3 240 8.647
118 F3 241 7.670
118 F3 242 4.740
118 F3 243 1.322
118 F3 244 -1.607
118 F3 245 -2.584
118 F3 246 -1.119
118 F3 247 1.811
118 F3 248 6.694
118 F3 249 10.600
118 F3 250 13.529
118 F3 251 14.506
118 F3 252 14.018
118 F3 253 13.529
118 F3 254 14.506
118 F3 255 15.971
# FC6 chan 9
118 FC6 0 -2.492
118 FC6 1 -2.492
118 FC6 2 -1.027
118 FC6 3 1.414
118 FC6 4 4.832
118 FC6 5 7.762
118 FC6 6 8.738
118 FC6 7 7.273
118 FC6 8 4.344
118 FC6 9 1.414
118 FC6 10 -1.027
118 FC6 11 -2.492
118 FC6 12 -2.981
118 FC6 13 -3.469
118 FC6 14 -4.934
118 FC6 15 -6.399
118 FC6 16 -7.375
118 FC6 17 -7.375
118 FC6 18 -7.375
118 FC6 19 -5.910
118 FC6 20 -5.422
118 FC6 21 -5.422
118 FC6 22 -4.934
118 FC6 23 -4.445
118 FC6 24 -3.469
118 FC6 25 -2.004
118 FC6 26 -0.539
118 FC6 27 1.902
118 FC6 28 4.344
118 FC6 29 6.785
118 FC6 30 9.715
118 FC6 31 12.156
118 FC6 32 13.621
118 FC6 33 13.621
118 FC6 34 11.668
118 FC6 35 9.226
118 FC6 36 5.809
118 FC6 37 2.879
118 FC6 38 0.926
118 FC6 39 -0.539
118 FC6 40 -1.027
118 FC6 41 -1.027
118 FC6 42 -0.539
118 FC6 43 -0.051
118 FC6 44 0.437
118 FC6 45 0.926
118 FC6 46 0.437
118 FC6 47 -0.539
118 FC6 48 -2.004
118 FC6 49 -3.957
118 FC6 50 -5.422
118 FC6 51 -6.399
118 FC6 52 -7.375
118 FC6 53 -8.352
118 FC6 54 -8.352
118 FC6 55 -7.375
118 FC6 56 -4.934
118 FC6 57 -2.004
118 FC6 58 1.902
118 FC6 59 5.809
118 FC6 60 8.738
118 FC6 61 10.691
118 FC6 62 11.668
118 FC6 63 11.668
118 FC6 64 11.180
118 FC6 65 10.203
118 FC6 66 8.738
118 FC6 67 6.785
118 FC6 68 5.320
118 FC6 69 3.367
118 FC6 70 1.414
118 FC6 71 -0.051
118 FC6 72 -1.027
118 FC6 73 -1.516
118 FC6 74 -1.027
118 FC6 75 -0.539
118 FC6 76 -0.051
118 FC6 77 -0.539
118 FC6 78 -1.516
118 FC6 79 -1.516
118 FC6 80 -0.539
118 FC6 81 0.926
118 FC6 82 2.391
118 FC6 83 4.344
118 FC6 84 5.320
118 FC6 85 5.320
118 FC6 86 4.832
118 FC6 87 3.367
118 FC6 88 1.414
118 FC6 89 -0.539
118 FC6 90 -1.516
118 FC6 91 -1.516
118 FC6 92 -1.027
118 FC6 93 -0.539
118 FC6 94 -0.539
118 FC6 95 -1.516
118 FC6 96 -2.981
118 FC6 97 -3.957
118 FC6 98 -4.445
118 FC6 99 -4.934
118 FC6 100 -4.445
118 FC6 101 -3.469
118 FC6 102 -2.492
118 FC6 103 -1.516
118 FC6 104 -0.051
118 FC6 105 1.414
118 FC6 106 3.855
118 FC6 107 5.809
118 FC6 108 7.273
118 FC6 109 7.273
118 FC6 110 5.320
118 FC6 111 1.902
118 FC6 112 -1.516
118 FC6 113 -3.469
118 FC6 114 -3.957
118 FC6 115 -3.957
118 FC6 116 -3.469
118 FC6 117 -2.981
118 FC6 118 -2.492
118 FC6 119 -0.539
118 FC6 120 1.414
118 FC6 121 3.367
118 FC6 122 3.855
118 FC6 123 3.367
118 FC6 124 3.855
118 FC6 125 5.320
118 FC6 126 7.762
118 FC6 127 8.738
118 FC6 128 8.250
118 FC6 129 6.785
118 FC6 130 4.344
118 FC6 131 2.879
118 FC6 132 2.391
118 FC6 133 1.902
118 FC6 134 -0.051
118 FC6 135 -2.492
118 FC6 136 -4.445
118 FC6 137 -4.445
118 FC6 138 -2.004
118 FC6 139 1.414
118 FC6 140 4.344
118 FC6 141 6.785
118 FC6 142 7.762
118 FC6 143 8.250
118 FC6 144 9.226
118 FC6 145 10.203
118 FC6 146 10.691
118 FC6 147 10.203
118 FC6 148 9.226
118 FC6 149 7.762
118 FC6 150 7.273
118 FC6 151 6.785
118 FC6 152 6.785
118 FC6 153 6.785
118 FC6 154 5.809
118 FC6 155 4.344
118 FC6 156 2.391
118 FC6 157 0.437
118 FC6 158 -0.539
118 FC6 159 0.437
118 FC6 160 2.879
118 FC6 161 6.297
118 FC6 162 8.738
118 FC6 163 9.226
118 FC6 164 8.250
118 FC6 165 6.297
118 FC6 166 5.320
118 FC6 167 5.320
118 FC6 168 6.297
118 FC6 169 6.785
118 FC6 170 6.297
118 FC6 171 4.832
118 FC6 172 2.879
118 FC6 173 1.414
118 FC6 174 0.437
118 FC6 175 0.437
118 FC6 176 0.437
118 FC6 177 0.437
118 FC6 178 0.437
118 FC6 179 0.926
118 FC6 180 1.414
118 FC6 181 0.926
118 FC6 182 0.926
118 FC6 183 0.926
118 FC6 184 1.414
118 FC6 185 2.879
118 FC6 186 3.855
118 FC6 187 5.320
118 FC6 188 5.809
118 FC6 189 6.297
118 FC6 190 6.297
118 FC6 191 5.320
118 FC6 192 4.344
118 FC6 193 2.879
118 FC6 194 0.926
118 FC6 195 -0.539
118 FC6 196 -1.516
118 FC6 197 -2.981
118 FC6 198 -3.469
118 FC6 199 -3.469
118 FC6 200 -1.516
118 FC6 201 1.414
118 FC6 202 4.344
118 FC6 203 5.320
118 FC6 204 3.855
118 FC6 205 1.414
118 FC6 206 -0.539
118 FC6 207 -1.027
118 FC6 208 0.437
118 FC6 209 2.391
118 FC6 210 2.879
118 FC6 211 1.414
118 FC6 212 -1.516
118 FC6 213 -4.445
118 FC6 214 -6.399
118 FC6 215 -6.399
118 FC6 216 -5.422
118 FC6 217 -2.981
118 FC6 218 -0.539
118 FC6 219 1.414
118 FC6 220 3.367
118 FC6 221 5.320
118 FC6 222 7.273
118 FC6 223 9.226
118 FC6 224 10.203
118 FC6 225 9.715
118 FC6 226 7.273
118 FC6 227 4.832
118 FC6 228 2.391
118 FC6 229 0.437
118 FC6 230 -0.539
118 FC6 231 -2.004
118 FC6 232 -3.469
118 FC6 233 -4.934
118 FC6 234 -4.934
118 FC6 235 -3.469
118 FC6 236 -2.492
118 FC6 237 -2.004
118 FC6 238 -3.469
118 FC6 239 -4.445
118 FC6 240 -3.957
118 FC6 241 -2.004
118 FC6 242 1.414
118 FC6 243 4.832
118 FC6 244 6.297
118 FC6 245 6.785
118 FC6 246 6.297
118 FC6 247 5.320
118 FC6 248 4.344
118 FC6 249 2.391
118 FC6 250 0.437
118 FC6 251 -1.516
118 FC6 252 -3.469
118 FC6 253 -5.422
118 FC6 254 -7.375
118 FC6 255 -9.328
# FC5 chan 10
118 FC5 0 0.804
118 FC5 1 1.292
118 FC5 2 1.780
118 FC5 3 2.268
118 FC5 4 2.757
118 FC5 5 3.245
118 FC5 6 3.733
118 FC5 7 4.710
118 FC5 8 4.710
118 FC5 9 2.757
118 FC5 10 -0.661
118 FC5 11 -4.079
118 FC5 12 -6.032
118 FC5 13 -5.544
118 FC5 14 -3.591
118 FC5 15 -2.126
118 FC5 16 -1.638
118 FC5 17 -2.126
118 FC5 18 -1.638
118 FC5 19 -1.149
118 FC5 20 -1.149
118 FC5 21 -2.126
118 FC5 22 -4.567
118 FC5 23 -7.009
118 FC5 24 -7.009
118 FC5 25 -5.056
118 FC5 26 -2.126
118 FC5 27 -0.661
118 FC5 28 -1.638
118 FC5 29 -3.591
118 FC5 30 -5.056
118 FC5 31 -4.567
118 FC5 32 -2.126
118 FC5 33 0.315
118 FC5 34 1.780
118 FC5 35 2.757
118 FC5 36 4.222
118 FC5 37 6.663
118 FC5 38 8.616
118 FC5 39 8.616
118 FC5 40 6.175
118 FC5 41 2.268
118 FC5 42 -0.173
118 FC5 43 -1.149
118 FC5 44 -0.173
118 FC5 45 0.804
118 FC5 46 0.804
118 FC5 47 0.315
118 FC5 48 0.315
118 FC5 49 1.780
118 FC5 50 3.733
118 FC5 51 3.733
118 FC5 52 1.292
118 FC5 53 -2.614
118 FC5 54 -6.521
118 FC5 55 -8.474
118 FC5 56 -7.985
118 FC5 57 -6.032
118 FC5 58 -3.591
118 FC5 59 -1.149
118 FC5 60 1.292
118 FC5 61 3.245
118 FC5 62 4.710
118 FC5 63 4.222
118 FC5 64 2.757
118 FC5 65 0.315
118 FC5 66 -0.661
118 FC5 67 -0.173
118 FC5 68 1.292
118 FC5 69 2.757
118 FC5 70 2.757
118 FC5 71 1.292
118 FC5 72 -0.173
118 FC5 73 -0.661
118 FC5 74 -0.661
118 FC5 75 0.315
118 FC5 76 1.780
118 FC5 77 3.733
118 FC5 78 5.686
118 FC5 79 7.151
118 FC5 80 7.640
118 FC5 81 5.686
118 FC5 82 3.245
118 FC5 83 0.804
118 FC5 84 -0.173
118 FC5 85 0.804
118 FC5 86 2.757
118 FC5 87 4.222
118 FC5 88 4.710
118 FC5 89 4.222
118 FC5 90 2.757
118 FC5 91 1.292
118 FC5 92 -1.149
118 FC5 93 -4.079
118 FC5 94 -7.009
118 FC5 95 -9.450
118 FC5 96 -9.450
118 FC5 97 -7.009
118 FC5 98 -3.591
118 FC5 99 -0.661
118 FC5 100 0.804
118 FC5 101 1.292
118 FC5 102 1.292
118 FC5 103 1.780
118 FC5 104 1.292
118 FC5 105 0.315
118 FC5 106 -1.638
118 FC5 107 -4.079
118 FC5 108 -6.521
118 FC5 109 -7.497
118 FC5 110 -7.497
118 FC5 111 -7.497
118 FC5 112 -7.009
118 FC5 113 -6.032
118 FC5 114 -4.567
118 FC5 115 -1.638
118 FC5 116 1.780
118 FC5 117 4.222
118 FC5 118 5.686
118 FC5 119 6.175
118 FC5 120 6.663
118 FC5 121 7.151
118 FC5 122 7.640
118 FC5 123 7.151
118 FC5 124 5.686
118 FC5 125 4.222
118 FC5 126 3.245
118 FC5 127 3.245
118 FC5 128 4.222
118 FC5 129 4.710
118 FC5 130 4.710
118 FC5 131 3.733
118 FC5 132 2.268
118 FC5 133 0.804
118 FC5 134 0.315
118 FC5 135 0.315
118 FC5 136 -0.173
118 FC5 137 -0.661
118 FC5 138 -1.638
118 FC5 139 -2.614
118 FC5 140 -3.591
118 FC5 141 -4.079
118 FC5 142 -3.591
118 FC5 143 -2.126
118 FC5 144 0.315
118 FC5 145 3.245
118 FC5 146 5.686
118 FC5 147 6.175
118 FC5 148 4.222
118 FC5 149 1.292
118 FC5 150 -1.149
118 FC5 151 -1.638
118 FC5 152 0.315
118 FC5 153 3.733
118 FC5 154 6.663
118 FC5 155 7.640
118 FC5 156 6.663
118 FC5 157 4.710
118 FC5 158 2.757
118 FC5 159 2.268
118 FC5 160 2.268
118 FC5 161 3.245
118 FC5 162 3.245
118 FC5 163 3.733
118 FC5 164 3.733
118 FC5 165 4.222
118 FC5 166 3.245
118 FC5 167 2.268
118 FC5 168 1.292
118 FC5 169 0.804
118 FC5 170 1.292
118 FC5 171 2.268
118 FC5 172 3.733
118 FC5 173 4.222
118 FC5 174 4.710
118 FC5 175 5.686
118 FC5 176 6.663
118 FC5 177 7.640
118 FC5 178 7.640
118 FC5 179 5.686
118 FC5 180 3.245
118 FC5 181 1.292
118 FC5 182 -0.661
118 FC5 183 -2.126
118 FC5 184 -4.567
118 FC5 185 -7.985
118 FC5 186 -10.915
118 FC5 187 -12.868
118 FC5 188 -11.892
118 FC5 189 -9.939
118 FC5 190 -7.497
118 FC5 191 -7.009
118 FC5 192 -7.009
118 FC5 193 -7.497
118 FC5 194 -7.009
118 FC5 195 -6.032
118 FC5 196 -4.567
118 FC5 197 -3.591
118 FC5 198 -3.103
118 FC5 199 -2.614
118 FC5 200 -0.661
118 FC5 201 1.780
118 FC5 202 3.733
118 FC5 203 3.733
118 FC5 204 1.292
118 FC5 205 -2.126
118 FC5 206 -5.056
118 FC5 207 -5.544
118 FC5 208 -3.591
118 FC5 209 -2.126
118 FC5 210 -1.149
118 FC5 211 -2.126
118 FC5 212 -3.103
118 FC5 213 -3.103
118 FC5 214 -2.614
118 FC5 215 -1.149
118 FC5 216 0.804
118 FC5 217 1.780
118 FC5 218 2.268
118 FC5 219 2.268
118 FC5 220 1.780
118 FC5 221 0.804
118 FC5 222 -1.638
118 FC5 223 -3.103
118 FC5 224 -4.079
118 FC5 225 -4.079
118 FC5 226 -4.079
118 FC5 227 -4.079
118 FC5 228 -4.567
118 FC5 229 -4.567
118 FC5 230 -4.079
118 FC5 231 -2.126
118 FC5 232 -0.173
118 FC5 233 0.315
118 FC5 234 -0.661
118 FC5 235 -2.614
118 FC5 236 -3.591
118 FC5 237 -3.103
118 FC5 238 -0.661
118 FC5 239 2.268
118 FC5 240 4.222
118 FC5 241 4.710
118 FC5 242 3.733
118 FC5 243 2.268
118 FC5 244 1.292
118 FC5 245 1.292
118 FC5 246 1.292
118 FC5 247 1.780
118 FC5 248 1.780
118 FC5 249 1.292
118 FC5 250 1.780
118 FC5 251 2.268
118 FC5 252 2.757
118 FC5 253 2.757
118 FC5 254 2.757
118 FC5 255 3.245
# FC2 chan 11
118 FC2 0 -2.268
118 FC2 1 -1.780
118 FC2 2 -0.804
118 FC2 3 1.149
118 FC2 4 3.591
118 FC2 5 5.544
118 FC2 6 7.009
118 FC2 7 7.497
118 FC2 8 6.521
118 FC2 9 4.567
118 FC2 10 2.614
118 FC2 11 0.661
118 FC2 12 0.173
118 FC2 13 0.173
118 FC2 14 0.173
118 FC2 15 -0.315
118 FC2 16 -0.804
118 FC2 17 -1.292
118 FC2 18 -2.268
118 FC2 19 -3.245
118 FC2 20 -4.222
118 FC2 21 -4.222
118 FC2 22 -4.222
118 FC2 23 -3.245
118 FC2 24 -0.804
118 FC2 25 1.638
118 FC2 26 4.079
118 FC2 27 5.056
118 FC2 28 5.544
118 FC2 29 5.544
118 FC2 30 5.544
118 FC2 31 6.032
118 FC2 32 6.521
118 FC2 33 6.032
118 FC2 34 5.056
118 FC2 35 3.591
118 FC2 36 3.103
118 FC2 37 3.103
118 FC2 38 3.103
118 FC2 39 3.103
118 FC2 40 2.614
118 FC2 41 1.638
118 FC2 42 0.173
118 FC2 43 -0.804
118 FC2 44 -1.292
118 FC2 45 -2.268
118 FC2 46 -2.757
118 FC2 47 -2.757
118 FC2 48 -2.757
118 FC2 49 -1.780
118 FC2 50 -1.292
118 FC2 51 -0.315
118 FC2 52 -0.315
118 FC2 53 0.173
118 FC2 54 0.661
118 FC2 55 2.126
118 FC2 56 3.591
118 FC2 57 5.544
118 FC2 58 7.497
118 FC2 59 8.474
118 FC2 60 8.962
118 FC2 61 9.450
118 FC2 62 8.962
118 FC2 63 8.474
118 FC2 64 7.985
118 FC2 65 6.521
118 FC2 66 5.056
118 FC2 67 3.103
118 FC2 68 1.149
118 FC2 69 -0.315
118 FC2 70 -1.292
118 FC2 71 -1.780
118 FC2 72 -1.780
118 FC2 73 -2.268
118 FC2 74 -3.245
118 FC2 75 -3.733
118 FC2 76 -3.733
118 FC2 77 -3.733
118 FC2 78 -3.733
118 FC2 79 -3.733
118 FC2 80 -3.245
118 FC2 81 -3.245
118 FC2 82 -2.268
118 FC2 83 -0.804
118 FC2 84 1.149
118 FC2 85 2.614
118 FC2 86 3.591
118 FC2 87 3.103
118 FC2 88 2.126
118 FC2 89 0.661
118 FC2 90 0.173
118 FC2 91 0.661
118 FC2 92 2.126
118 FC2 93 3.103
118 FC2 94 3.591
118 FC2 95 3.591
118 FC2 96 3.591
118 FC2 97 3.591
118 FC2 98 3.591
118 FC2 99 3.591
118 FC2 100 3.591
118 FC2 101 3.103
118 FC2 102 2.126
118 FC2 103 1.638
118 FC2 104 1.638
118 FC2 105 2.614
118 FC2 106 3.591
118 FC2 107 5.544
118 FC2 108 6.521
118 FC2 109 7.009
118 FC2 110 6.521
118 FC2 111 5.544
118 FC2 112 4.079
118 FC2 113 2.614
118 FC2 114 1.149
118 FC2 115 0.173
118 FC2 116 -0.315
118 FC2 117 -0.315
118 FC2 118 -0.315
118 FC2 119 0.173
118 FC2 120 0.661
118 FC2 121 1.149
118 FC2 122 1.149
118 FC2 123 1.638
118 FC2 124 2.614
118 FC2 125 3.591
118 FC2 126 5.056
118 FC2 127 6.032
118 FC2 128 6.032
118 FC2 129 5.544
118 FC2 130 5.056
118 FC2 131 4.567
118 FC2 132 4.079
118 FC2 133 4.079
118 FC2 134 3.591
118 FC2 135 3.103
118 FC2 136 2.614
118 FC2 137 2.126
118 FC2 138 3.103
118 FC2 139 4.079
118 FC2 140 5.544
118 FC2 141 7.497
118 FC2 142 9.939
118 FC2 143 11.892
118 FC2 144 14.333
118 FC2 145 15.310
118 FC2 146 15.310
118 FC2 147 14.821
118 FC2 148 13.845
118 FC2 149 12.380
118 FC2 150 10.915
118 FC2 151 10.427
118 FC2 152 9.450
118 FC2 153 8.474
118 FC2 154 7.985
118 FC2 155 7.009
118 FC2 156 5.056
118 FC2 157 3.103
118 FC2 158 1.638
118 FC2 159 0.661
118 FC2 160 0.661
118 FC2 161 2.126
118 FC2 162 3.591
118 FC2 163 4.567
118 FC2 164 5.544
118 FC2 165 5.544
118 FC2 166 5.544
118 FC2 167 5.056
118 FC2 168 4.079
118 FC2 169 3.591
118 FC2 170 3.103
118 FC2 171 2.126
118 FC2 172 2.126
118 FC2 173 2.614
118 FC2 174 2.614
118 FC2 175 2.126
118 FC2 176 1.638
118 FC2 177 1.149
118 FC2 178 1.638
118 FC2 179 2.126
118 FC2 180 3.591
118 FC2 181 4.567
118 FC2 182 5.544
118 FC2 183 6.032
118 FC2 184 5.544
118 FC2 185 5.544
118 FC2 186 5.056
118 FC2 187 4.079
118 FC2 188 3.591
118 FC2 189 2.614
118 FC2 190 2.126
118 FC2 191 2.126
118 FC2 192 2.614
118 FC2 193 3.591
118 FC2 194 4.079
118 FC2 195 4.079
118 FC2 196 3.591
118 FC2 197 3.103
118 FC2 198 3.103
118 FC2 199 3.591
118 FC2 200 5.056
118 FC2 201 6.032
118 FC2 202 7.497
118 FC2 203 7.985
118 FC2 204 7.497
118 FC2 205 5.544
118 FC2 206 3.103
118 FC2 207 1.149
118 FC2 208 0.173
118 FC2 209 0.661
118 FC2 210 2.126
118 FC2 211 3.103
118 FC2 212 2.614
118 FC2 213 1.638
118 FC2 214 0.173
118 FC2 215 -0.804
118 FC2 216 -0.804
118 FC2 217 0.173
118 FC2 218 1.149
118 FC2 219 2.614
118 FC2 220 5.056
118 FC2 221 7.009
118 FC2 222 9.450
118 FC2 223 10.915
118 FC2 224 10.915
118 FC2 225 8.962
118 FC2 226 6.032
118 FC2 227 3.103
118 FC2 228 0.661
118 FC2 229 -0.315
118 FC2 230 -0.315
118 FC2 231 0.661
118 FC2 232 1.638
118 FC2 233 1.638
118 FC2 234 1.149
118 FC2 235 1.149
118 FC2 236 1.149
118 FC2 237 0.661
118 FC2 238 1.149
118 FC2 239 1.149
118 FC2 240 1.149
118 FC2 241 1.638
118 FC2 242 2.614
118 FC2 243 3.103
118 FC2 244 3.103
118 FC2 245 3.591
118 FC2 246 3.103
118 FC2 247 3.591
118 FC2 248 3.591
118 FC2 249 4.079
118 FC2 250 4.079
118 FC2 251 3.591
118 FC2 252 2.614
118 FC2 253 1.638
118 FC2 254 1.149
118 FC2 255 1.149
# FC1 chan 12
118 FC1 0 -0.854
118 FC1 1 -0.854
118 FC1 2 -0.854
118 FC1 3 -0.366
118 FC1 4 0.610
118 FC1 5 2.075
118 FC1 6 4.028
118 FC1 7 5.005
118 FC1 8 5.493
118 FC1 9 4.517
118 FC1 10 2.563
118 FC1 11 1.099
118 FC1 12 0.122
118 FC1 13 -0.366
118 FC1 14 -0.854
118 FC1 15 -1.343
118 FC1 16 -1.831
118 FC1 17 -2.808
118 FC1 18 -2.808
118 FC1 19 -3.296
118 FC1 20 -3.296
118 FC1 21 -2.808
118 FC1 22 -2.808
118 FC1 23 -2.319
118 FC1 24 -1.831
118 FC1 25 -1.343
118 FC1 26 -0.854
118 FC1 27 -0.366
118 FC1 28 -0.366
118 FC1 29 -0.854
118 FC1 30 -1.343
118 FC1 31 -0.854
118 FC1 32 -0.854
118 FC1 33 -0.366
118 FC1 34 -0.366
118 FC1 35 0.122
118 FC1 36 0.122
118 FC1 37 0.610
118 FC1 38 0.610
118 FC1 39 -0.366
118 FC1 40 -1.343
118 FC1 41 -2.319
118 FC1 42 -3.296
118 FC1 43 -3.296
118 FC1 44 -2.808
118 FC1 45 -1.831
118 FC1 46 -0.854
118 FC1 47 -0.366
118 FC1 48 0.122
118 FC1 49 1.099
118 FC1 50 1.587
118 FC1 51 2.075
118 FC1 52 2.075
118 FC1 53 1.099
118 FC1 54 -0.366
118 FC1 55 -1.343
118 FC1 56 -0.854
118 FC1 57 1.587
118 FC1 58 4.028
118 FC1 59 6.470
118 FC1 60 6.958
118 FC1 61 5.493
118 FC1 62 3.052
118 FC1 63 0.610
118 FC1 64 -1.343
118 FC1 65 -2.808
118 FC1 66 -3.784
118 FC1 67 -4.272
118 FC1 68 -4.272
118 FC1 69 -3.784
118 FC1 70 -2.808
118 FC1 71 -2.319
118 FC1 72 -2.808
118 FC1 73 -4.761
118 FC1 74 -6.714
118 FC1 75 -8.179
118 FC1 76 -7.690
118 FC1 77 -6.226
118 FC1 78 -4.272
118 FC1 79 -3.296
118 FC1 80 -3.296
118 FC1 81 -4.761
118 FC1 82 -6.714
118 FC1 83 -7.202
118 FC1 84 -6.226
118 FC1 85 -4.761
118 FC1 86 -2.808
118 FC1 87 -1.831
118 FC1 88 -1.343
118 FC1 89 -0.366
118 FC1 90 0.122
118 FC1 91 0.610
118 FC1 92 1.099
118 FC1 93 0.122
118 FC1 94 -0.854
118 FC1 95 -1.831
118 FC1 96 -1.831
118 FC1 97 -0.854
118 FC1 98 0.610
118 FC1 99 1.587
118 FC1 100 2.075
118 FC1 101 1.587
118 FC1 102 1.587
118 FC1 103 1.587
118 FC1 104 1.587
118 FC1 105 1.587
118 FC1 106 1.587
118 FC1 107 0.610
118 FC1 108 -0.366
118 FC1 109 -1.343
118 FC1 110 -1.831
118 FC1 111 -1.831
118 FC1 112 -0.854
118 FC1 113 0.122
118 FC1 114 0.610
118 FC1 115 0.610
118 FC1 116 -0.366
118 FC1 117 -0.854
118 FC1 118 -0.854
118 FC1 119 -0.854
118 FC1 120 -0.854
118 FC1 121 -1.343
118 FC1 122 -1.831
118 FC1 123 -2.808
118 FC1 124 -2.808
118 FC1 125 -2.808
118 FC1 126 -1.831
118 FC1 127 -0.366
118 FC1 128 0.610
118 FC1 129 1.099
118 FC1 130 1.587
118 FC1 131 2.075
118 FC1 132 2.563
118 FC1 133 2.563
118 FC1 134 2.563
118 FC1 135 1.587
118 FC1 136 0.610
118 FC1 137 0.122
118 FC1 138 -0.366
118 FC1 139 -0.366
118 FC1 140 0.122
118 FC1 141 1.099
118 FC1 142 3.052
118 FC1 143 5.005
118 FC1 144 7.446
118 FC1 145 9.888
118 FC1 146 10.864
118 FC1 147 10.864
118 FC1 148 9.399
118 FC1 149 7.446
118 FC1 150 6.470
118 FC1 151 5.493
118 FC1 152 5.493
118 FC1 153 5.493
118 FC1 154 5.005
118 FC1 155 4.028
118 FC1 156 2.563
118 FC1 157 1.099
118 FC1 158 -0.854
118 FC1 159 -2.319
118 FC1 160 -2.808
118 FC1 161 -2.808
118 FC1 162 -1.831
118 FC1 163 -0.854
118 FC1 164 -0.366
118 FC1 165 -0.366
118 FC1 166 -0.854
118 FC1 167 -2.319
118 FC1 168 -4.272
118 FC1 169 -6.226
118 FC1 170 -6.714
118 FC1 171 -6.226
118 FC1 172 -4.272
118 FC1 173 -2.319
118 FC1 174 -0.854
118 FC1 175 -0.366
118 FC1 176 0.122
118 FC1 177 0.122
118 FC1 178 0.122
118 FC1 179 1.099
118 FC1 180 1.587
118 FC1 181 1.587
118 FC1 182 1.099
118 FC1 183 -0.366
118 FC1 184 -2.319
118 FC1 185 -3.784
118 FC1 186 -5.249
118 FC1 187 -7.202
118 FC1 188 -8.667
118 FC1 189 -10.132
118 FC1 190 -10.620
118 FC1 191 -10.132
118 FC1 192 -9.155
118 FC1 193 -7.202
118 FC1 194 -5.737
118 FC1 195 -4.272
118 FC1 196 -2.319
118 FC1 197 -1.343
118 FC1 198 -0.366
118 FC1 199 0.610
118 FC1 200 1.099
118 FC1 201 1.099
118 FC1 202 1.587
118 FC1 203 1.587
118 FC1 204 1.587
118 FC1 205 0.122
118 FC1 206 -1.343
118 FC1 207 -3.296
118 FC1 208 -4.761
118 FC1 209 -4.761
118 FC1 210 -3.784
118 FC1 211 -2.808
118 FC1 212 -2.808
118 FC1 213 -3.784
118 FC1 214 -5.249
118 FC1 215 -5.737
118 FC1 216 -5.249
118 FC1 217 -4.272
118 FC1 218 -2.808
118 FC1 219 -1.343
118 FC1 220 -0.854
118 FC1 221 0.122
118 FC1 222 1.099
118 FC1 223 1.099
118 FC1 224 0.610
118 FC1 225 -0.854
118 FC1 226 -3.784
118 FC1 227 -6.714
118 FC1 228 -8.667
118 FC1 229 -8.667
118 FC1 230 -7.202
118 FC1 231 -5.249
118 FC1 232 -3.784
118 FC1 233 -3.296
118 FC1 234 -3.296
118 FC1 235 -3.784
118 FC1 236 -3.296
118 FC1 237 -2.319
118 FC1 238 -1.343
118 FC1 239 -0.366
118 FC1 240 0.122
118 FC1 241 -0.366
118 FC1 242 -1.343
118 FC1 243 -3.296
118 FC1 244 -4.761
118 FC1 245 -4.761
118 FC1 246 -3.296
118 FC1 247 -1.343
118 FC1 248 0.610
118 FC1 249 1.587
118 FC1 250 2.075
118 FC1 251 2.075
118 FC1 252 2.075
118 FC1 253 2.075
118 FC1 254 3.052
118 FC1 255 3.540
# T8 chan 13
118 T8 0 4.883
118 T8 1 6.836
118 T8 2 6.836
118 T8 3 6.348
118 T8 4 5.371
118 T8 5 3.906
118 T8 6 2.930
118 T8 7 2.441
118 T8 8 1.465
118 T8 9 0.488
118 T8 10 -0.488
118 T8 11 -1.953
118 T8 12 -2.930
118 T8 13 -4.395
118 T8 14 -5.371
118 T8 15 -5.859
118 T8 16 -5.859
118 T8 17 -5.859
118 T8 18 -5.371
118 T8 19 -5.371
118 T8 20 -6.836
118 T8 21 -8.301
118 T8 22 -8.789
118 T8 23 -8.301
118 T8 24 -5.371
118 T8 25 -2.441
118 T8 26 0.488
118 T8 27 1.953
118 T8 28 3.418
118 T8 29 5.371
118 T8 30 7.812
118 T8 31 9.766
118 T8 32 10.254
118 T8 33 9.766
118 T8 34 8.301
118 T8 35 7.812
118 T8 36 7.324
118 T8 37 5.859
118 T8 38 2.930
118 T8 39 -0.977
118 T8 40 -4.395
118 T8 41 -4.883
118 T8 42 -2.930
118 T8 43 -0.977
118 T8 44 -0.488
118 T8 45 -1.465
118 T8 46 -3.418
118 T8 47 -3.418
118 T8 48 -2.441
118 T8 49 -0.977
118 T8 50 -1.953
118 T8 51 -5.859
118 T8 52 -11.230
118 T8 53 -15.625
118 T8 54 -16.602
118 T8 55 -14.160
118 T8 56 -9.766
118 T8 57 -5.371
118 T8 58 -1.953
118 T8 59 0.977
118 T8 60 4.395
118 T8 61 8.301
118 T8 62 12.207
118 T8 63 13.672
118 T8 64 12.207
118 T8 65 9.277
118 T8 66 5.859
118 T8 67 3.906
118 T8 68 3.906
118 T8 69 3.906
118 T8 70 3.418
118 T8 71 1.465
118 T8 72 -0.488
118 T8 73 -0.977
118 T8 74 0.000
118 T8 75 1.953
118 T8 76 3.906
118 T8 77 4.395
118 T8 78 3.906
118 T8 79 2.930
118 T8 80 2.441
118 T8 81 3.418
118 T8 82 4.883
118 T8 83 5.859
118 T8 84 5.859
118 T8 85 4.883
118 T8 86 2.930
118 T8 87 0.977
118 T8 88 0.000
118 T8 89 -0.977
118 T8 90 -1.465
118 T8 91 -2.441
118 T8 92 -3.906
118 T8 93 -5.371
118 T8 94 -7.812
118 T8 95 -10.254
118 T8 96 -12.207
118 T8 97 -14.160
118 T8 98 -15.137
118 T8 99 -14.648
118 T8 100 -13.184
118 T8 101 -10.742
118 T8 102 -8.301
118 T8 103 -4.883
118 T8 104 -1.953
118 T8 105 0.488
118 T8 106 1.953
118 T8 107 2.441
118 T8 108 1.953
118 T8 109 1.465
118 T8 110 0.977
118 T8 111 0.977
118 T8 112 0.000
118 T8 113 -1.465
118 T8 114 -2.441
118 T8 115 -3.418
118 T8 116 -2.930
118 T8 117 -2.441
118 T8 118 -1.953
118 T8 119 -1.465
118 T8 120 -0.488
118 T8 121 0.977
118 T8 122 2.441
118 T8 123 3.418
118 T8 124 4.395
118 T8 125 4.883
118 T8 126 6.348
118 T8 127 7.812
118 T8 128 8.789
118 T8 129 7.324
118 T8 130 4.395
118 T8 131 1.953
118 T8 132 -0.488
118 T8 133 -1.953
118 T8 134 -3.906
118 T8 135 -6.836
118 T8 136 -10.254
118 T8 137 -11.719
118 T8 138 -10.254
118 T8 139 -6.348
118 T8 140 -2.441
118 T8 141 -0.977
118 T8 142 -2.441
118 T8 143 -4.395
118 T8 144 -4.883
118 T8 145 -3.418
118 T8 146 -1.465
118 T8 147 -1.465
118 T8 148 -3.418
118 T8 149 -6.348
118 T8 150 -8.789
118 T8 151 -8.789
118 T8 152 -7.812
118 T8 153 -7.324
118 T8 154 -7.324
118 T8 155 -7.812
118 T8 156 -6.348
118 T8 157 -3.418
118 T8 158 0.488
118 T8 159 2.930
118 T8 160 2.930
118 T8 161 1.465
118 T8 162 0.000
118 T8 163 -0.488
118 T8 164 -0.488
118 T8 165 0.000
118 T8 166 -0.488
118 T8 167 -1.465
118 T8 168 -1.465
118 T8 169 0.488
118 T8 170 3.418
118 T8 171 5.859
118 T8 172 5.371
118 T8 173 2.930
118 T8 174 -0.488
118 T8 175 -3.906
118 T8 176 -4.883
118 T8 177 -3.906
118 T8 178 -3.418
118 T8 179 -2.930
118 T8 180 -2.930
118 T8 181 -2.930
118 T8 182 -1.953
118 T8 183 -0.488
118 T8 184 0.977
118 T8 185 0.977
118 T8 186 0.000
118 T8 187 -1.465
118 T8 188 -2.441
118 T8 189 -0.977
118 T8 190 1.953
118 T8 191 5.371
118 T8 192 6.348
118 T8 193 5.371
118 T8 194 2.441
118 T8 195 0.000
118 T8 196 -1.465
118 T8 197 -1.953
118 T8 198 -2.930
118 T8 199 -3.906
118 T8 200 -4.883
118 T8 201 -4.883
118 T8 202 -3.418
118 T8 203 -1.465
118 T8 204 0.000
118 T8 205 1.465
118 T8 206 2.930
118 T8 207 4.883
118 T8 208 6.836
118 T8 209 8.301
118 T8 210 6.836
118 T8 211 2.441
118 T8 212 -3.418
118 T8 213 -7.812
118 T8 214 -7.812
118 T8 215 -4.395
118 T8 216 0.977
118 T8 217 4.395
118 T8 218 5.371
118 T8 219 3.906
118 T8 220 2.930
118 T8 221 3.418
118 T8 222 4.883
118 T8 223 5.371
118 T8 224 3.906
118 T8 225 1.465
118 T8 226 0.488
118 T8 227 1.953
118 T8 228 4.883
118 T8 229 5.859
118 T8 230 3.906
118 T8 231 0.000
118 T8 232 -4.395
118 T8 233 -6.348
118 T8 234 -6.348
118 T8 235 -5.859
118 T8 236 -6.836
118 T8 237 -9.766
118 T8 238 -11.719
118 T8 239 -12.207
118 T8 240 -9.277
118 T8 241 -4.395
118 T8 242 0.000
118 T8 243 3.906
118 T8 244 7.812
118 T8 245 11.719
118 T8 246 14.160
118 T8 247 14.160
118 T8 248 10.254
118 T8 249 4.395
118 T8 250 -2.441
118 T8 251 -7.812
118 T8 252 -12.207
118 T8 253 -15.625
118 T8 254 -18.066
118 T8 255 -19.043
# T7 chan 14
118 T7 0 7.121
118 T7 1 3.703
118 T7 2 -0.692
118 T7 3 -4.110
118 T7 4 -5.575
118 T7 5 -5.086
118 T7 6 -4.110
118 T7 7 -4.110
118 T7 8 -5.086
118 T7 9 -6.551
118 T7 10 -7.528
118 T7 11 -8.016
118 T7 12 -8.504
118 T7 13 -9.481
118 T7 14 -10.457
118 T7 15 -9.969
118 T7 16 -8.016
118 T7 17 -4.110
118 T7 18 -0.692
118 T7 19 0.773
118 T7 20 0.285
118 T7 21 -2.645
118 T7 22 -6.551
118 T7 23 -8.504
118 T7 24 -8.993
118 T7 25 -7.528
118 T7 26 -5.575
118 T7 27 -4.598
118 T7 28 -4.598
118 T7 29 -5.575
118 T7 30 -7.039
118 T7 31 -7.039
118 T7 32 -6.063
118 T7 33 -3.133
118 T7 34 0.773
118 T7 35 4.191
118 T7 36 6.632
118 T7 37 7.609
118 T7 38 7.609
118 T7 39 6.632
118 T7 40 4.679
118 T7 41 3.215
118 T7 42 1.261
118 T7 43 -0.692
118 T7 44 -2.645
118 T7 45 -4.598
118 T7 46 -5.575
118 T7 47 -6.551
118 T7 48 -6.551
118 T7 49 -6.551
118 T7 50 -6.551
118 T7 51 -6.063
118 T7 52 -6.063
118 T7 53 -6.551
118 T7 54 -7.528
118 T7 55 -9.481
118 T7 56 -11.434
118 T7 57 -12.899
118 T7 58 -11.922
118 T7 59 -9.481
118 T7 60 -5.086
118 T7 61 -0.692
118 T7 62 2.238
118 T7 63 2.238
118 T7 64 0.773
118 T7 65 -0.203
118 T7 66 0.285
118 T7 67 2.238
118 T7 68 3.703
118 T7 69 3.703
118 T7 70 2.238
118 T7 71 -0.203
118 T7 72 -2.157
118 T7 73 -1.668
118 T7 74 0.773
118 T7 75 3.215
118 T7 76 4.679
118 T7 77 5.656
118 T7 78 6.632
118 T7 79 8.097
118 T7 80 10.050
118 T7 81 10.539
118 T7 82 9.562
118 T7 83 7.121
118 T7 84 5.656
118 T7 85 4.679
118 T7 86 4.679
118 T7 87 4.191
118 T7 88 3.215
118 T7 89 1.750
118 T7 90 -0.203
118 T7 91 -2.157
118 T7 92 -4.598
118 T7 93 -8.016
118 T7 94 -11.922
118 T7 95 -15.340
118 T7 96 -16.805
118 T7 97 -16.317
118 T7 98 -12.899
118 T7 99 -9.481
118 T7 100 -6.551
118 T7 101 -5.086
118 T7 102 -4.598
118 T7 103 -4.598
118 T7 104 -5.086
118 T7 105 -5.575
118 T7 106 -6.063
118 T7 107 -7.039
118 T7 108 -7.528
118 T7 109 -8.504
118 T7 110 -8.504
118 T7 111 -8.504
118 T7 112 -7.528
118 T7 113 -6.063
118 T7 114 -4.110
118 T7 115 -1.668
118 T7 116 0.285
118 T7 117 1.261
118 T7 118 2.238
118 T7 119 3.215
118 T7 120 5.656
118 T7 121 8.097
118 T7 122 10.050
118 T7 123 10.050
118 T7 124 8.586
118 T7 125 5.656
118 T7 126 3.215
118 T7 127 1.750
118 T7 128 0.773
118 T7 129 0.773
118 T7 130 0.285
118 T7 131 0.285
118 T7 132 -0.203
118 T7 133 -0.203
118 T7 134 -0.203
118 T7 135 -1.180
118 T7 136 -3.133
118 T7 137 -5.086
118 T7 138 -7.039
118 T7 139 -8.016
118 T7 140 -8.504
118 T7 141 -8.993
118 T7 142 -10.457
118 T7 143 -12.899
118 T7 144 -14.852
118 T7 145 -15.828
118 T7 146 -14.364
118 T7 147 -12.410
118 T7 148 -10.946
118 T7 149 -9.969
118 T7 150 -9.481
118 T7 151 -8.016
118 T7 152 -6.063
118 T7 153 -3.133
118 T7 154 -1.668
118 T7 155 -1.180
118 T7 156 -1.180
118 T7 157 -1.180
118 T7 158 0.285
118 T7 159 2.238
118 T7 160 4.191
118 T7 161 4.191
118 T7 162 2.726
118 T7 163 0.773
118 T7 164 -0.692
118 T7 165 -1.668
118 T7 166 -2.645
118 T7 167 -4.110
118 T7 168 -4.598
118 T7 169 -4.598
118 T7 170 -1.668
118 T7 171 2.726
118 T7 172 6.144
118 T7 173 8.586
118 T7 174 8.586
118 T7 175 7.609
118 T7 176 6.632
118 T7 177 6.632
118 T7 178 5.656
118 T7 179 3.703
118 T7 180 0.773
118 T7 181 -1.668
118 T7 182 -3.621
118 T7 183 -4.598
118 T7 184 -6.063
118 T7 185 -8.504
118 T7 186 -11.922
118 T7 187 -14.852
118 T7 188 -14.852
118 T7 189 -11.922
118 T7 190 -6.551
118 T7 191 -2.157
118 T7 192 -0.692
118 T7 193 -2.645
118 T7 194 -6.063
118 T7 195 -8.504
118 T7 196 -8.993
118 T7 197 -7.528
118 T7 198 -6.063
118 T7 199 -5.575
118 T7 200 -5.575
118 T7 201 -6.063
118 T7 202 -6.551
118 T7 203 -6.551
118 T7 204 -6.063
118 T7 205 -5.575
118 T7 206 -4.598
118 T7 207 -3.621
118 T7 208 -2.645
118 T7 209 -3.133
118 T7 210 -3.621
118 T7 211 -4.110
118 T7 212 -4.598
118 T7 213 -5.086
118 T7 214 -5.086
118 T7 215 -5.575
118 T7 216 -5.575
118 T7 217 -5.086
118 T7 218 -3.621
118 T7 219 -1.180
118 T7 220 -0.203
118 T7 221 -1.180
118 T7 222 -3.621
118 T7 223 -6.551
118 T7 224 -8.504
118 T7 225 -8.016
118 T7 226 -6.063
118 T7 227 -4.110
118 T7 228 -3.621
118 T7 229 -3.621
118 T7 230 -4.110
118 T7 231 -3.621
118 T7 232 -3.133
118 T7 233 -3.133
118 T7 234 -3.133
118 T7 235 -4.110
118 T7 236 -5.575
118 T7 237 -6.551
118 T7 238 -7.039
118 T7 239 -6.551
118 T7 240 -6.063
118 T7 241 -5.086
118 T7 242 -3.621
118 T7 243 -2.157
118 T7 244 -0.692
118 T7 245 -0.203
118 T7 246 -0.203
118 T7 247 -1.668
118 T7 248 -4.110
118 T7 249 -6.551
118 T7 250 -8.504
118 T7 251 -9.969
118 T7 252 -9.969
118 T7 253 -9.969
118 T7 254 -9.969
118 T7 255 -9.481
# CZ chan 15
118 CZ 0 4.344
118 CZ 1 4.832
118 CZ 2 3.855
118 CZ 3 2.879
118 CZ 4 2.391
118 CZ 5 3.855
118 CZ 6 6.297
118 CZ 7 8.250
118 CZ 8 7.273
118 CZ 9 2.391
118 CZ 10 -3.957
118 CZ 11 -8.840
118 CZ 12 -10.305
118 CZ 13 -9.328
118 CZ 14 -8.352
118 CZ 15 -9.328
118 CZ 16 -11.770
118 CZ 17 -14.211
118 CZ 18 -14.211
118 CZ 19 -12.258
118 CZ 20 -10.305
118 CZ 21 -9.328
118 CZ 22 -9.816
118 CZ 23 -10.793
118 CZ 24 -10.793
118 CZ 25 -8.840
118 CZ 26 -5.910
118 CZ 27 -3.957
118 CZ 28 -2.492
118 CZ 29 -1.516
118 CZ 30 -0.051
118 CZ 31 3.855
118 CZ 32 7.273
118 CZ 33 10.691
118 CZ 34 13.133
118 CZ 35 13.621
118 CZ 36 13.621
118 CZ 37 13.133
118 CZ 38 11.668
118 CZ 39 9.226
118 CZ 40 5.809
118 CZ 41 1.902
118 CZ 42 -0.539
118 CZ 43 -2.004
118 CZ 44 -3.469
118 CZ 45 -4.934
118 CZ 46 -7.375
118 CZ 47 -10.305
118 CZ 48 -12.746
118 CZ 49 -14.699
118 CZ 50 -16.652
118 CZ 51 -19.582
118 CZ 52 -24.465
118 CZ 53 -30.324
118 CZ 54 -35.695
118 CZ 55 -38.137
118 CZ 56 -36.672
118 CZ 57 -30.324
118 CZ 58 -20.070
118 CZ 59 -9.328
118 CZ 60 -0.051
118 CZ 61 6.297
118 CZ 62 8.738
118 CZ 63 8.250
118 CZ 64 6.297
118 CZ 65 4.832
118 CZ 66 4.344
118 CZ 67 5.320
118 CZ 68 5.320
118 CZ 69 4.832
118 CZ 70 3.855
118 CZ 71 2.879
118 CZ 72 2.391
118 CZ 73 3.367
118 CZ 74 4.832
118 CZ 75 5.809
118 CZ 76 6.297
118 CZ 77 6.297
118 CZ 78 6.785
118 CZ 79 8.738
118 CZ 80 10.691
118 CZ 81 12.644
118 CZ 82 13.621
118 CZ 83 13.133
118 CZ 84 11.668
118 CZ 85 10.203
118 CZ 86 8.738
118 CZ 87 6.297
118 CZ 88 3.855
118 CZ 89 0.926
118 CZ 90 -1.027
118 CZ 91 -2.004
118 CZ 92 -3.957
118 CZ 93 -7.375
118 CZ 94 -13.234
118 CZ 95 -19.582
118 CZ 96 -24.465
118 CZ 97 -26.418
118 CZ 98 -25.441
118 CZ 99 -22.024
118 CZ 100 -19.582
118 CZ 101 -16.652
118 CZ 102 -15.188
118 CZ 103 -13.234
118 CZ 104 -10.793
118 CZ 105 -8.352
118 CZ 106 -5.910
118 CZ 107 -2.981
118 CZ 108 -1.516
118 CZ 109 -0.051
118 CZ 110 -0.539
118 CZ 111 -3.469
118 CZ 112 -7.863
118 CZ 113 -13.723
118 CZ 114 -18.117
118 CZ 115 -20.070
118 CZ 116 -19.094
118 CZ 117 -16.164
118 CZ 118 -12.258
118 CZ 119 -9.328
118 CZ 120 -6.399
118 CZ 121 -4.445
118 CZ 122 -2.004
118 CZ 123 0.437
118 CZ 124 1.902
118 CZ 125 2.391
118 CZ 126 0.926
118 CZ 127 -1.516
118 CZ 128 -5.422
118 CZ 129 -9.816
118 CZ 130 -15.676
118 CZ 131 -21.047
118 CZ 132 -25.441
118 CZ 133 -28.371
118 CZ 134 -28.859
118 CZ 135 -27.395
118 CZ 136 -24.953
118 CZ 137 -22.512
118 CZ 138 -23.000
118 CZ 139 -25.930
118 CZ 140 -30.324
118 CZ 141 -34.719
118 CZ 142 -37.649
118 CZ 143 -39.113
118 CZ 144 -41.066
118 CZ 145 -43.996
118 CZ 146 -47.902
118 CZ 147 -51.809
118 CZ 148 -53.762
118 CZ 149 -53.762
118 CZ 150 -53.274
118 CZ 151 -52.297
118 CZ 152 -52.297
118 CZ 153 -50.832
118 CZ 154 -47.902
118 CZ 155 -43.508
118 CZ 156 -39.602
118 CZ 157 -37.160
118 CZ 158 -35.695
118 CZ 159 -35.207
118 CZ 160 -34.719
118 CZ 161 -33.742
118 CZ 162 -33.254
118 CZ 163 -33.254
118 CZ 164 -33.254
118 CZ 165 -32.277
118 CZ 166 -29.836
118 CZ 167 -26.906
118 CZ 168 -24.953
118 CZ 169 -23.977
118 CZ 170 -23.488
118 CZ 171 -21.535
118 CZ 172 -18.117
118 CZ 173 -13.234
118 CZ 174 -10.305
118 CZ 175 -10.305
118 CZ 176 -12.746
118 CZ 177 -16.164
118 CZ 178 -17.629
118 CZ 179 -18.117
118 CZ 180 -17.141
118 CZ 181 -16.652
118 CZ 182 -17.141
118 CZ 183 -17.629
118 CZ 184 -17.629
118 CZ 185 -15.676
118 CZ 186 -13.234
118 CZ 187 -11.770
118 CZ 188 -10.793
118 CZ 189 -9.816
118 CZ 190 -7.863
118 CZ 191 -5.422
118 CZ 192 -2.492
118 CZ 193 -1.516
118 CZ 194 -3.469
118 CZ 195 -6.887
118 CZ 196 -10.305
118 CZ 197 -12.258
118 CZ 198 -11.770
118 CZ 199 -10.305
118 CZ 200 -7.863
118 CZ 201 -5.910
118 CZ 202 -4.445
118 CZ 203 -3.957
118 CZ 204 -4.934
118 CZ 205 -6.399
118 CZ 206 -7.863
118 CZ 207 -8.352
118 CZ 208 -7.863
118 CZ 209 -5.910
118 CZ 210 -2.981
118 CZ 211 -2.004
118 CZ 212 -2.492
118 CZ 213 -4.445
118 CZ 214 -6.399
118 CZ 215 -7.375
118 CZ 216 -5.910
118 CZ 217 -2.492
118 CZ 218 -0.051
118 CZ 219 1.414
118 CZ 220 0.437
118 CZ 221 -1.516
118 CZ 222 -3.469
118 CZ 223 -3.957
118 CZ 224 -2.981
118 CZ 225 -0.539
118 CZ 226 2.391
118 CZ 227 5.320
118 CZ 228 7.762
118 CZ 229 10.203
118 CZ 230 10.691
118 CZ 231 9.715
118 CZ 232 7.762
118 CZ 233 5.809
118 CZ 234 4.832
118 CZ 235 3.367
118 CZ 236 1.902
118 CZ 237 -0.539
118 CZ 238 -2.981
118 CZ 239 -3.957
118 CZ 240 -1.516
118 CZ 241 3.367
118 CZ 242 8.738
118 CZ 243 12.156
118 CZ 244 12.644
118 CZ 245 11.180
118 CZ 246 8.250
118 CZ 247 4.344
118 CZ 248 -0.539
118 CZ 249 -6.399
118 CZ 250 -12.258
118 CZ 251 -17.141
118 CZ 252 -20.070
118 CZ 253 -22.512
118 CZ 254 -25.930
118 CZ 255 -29.836
# C3 chan 16
118 C3 0 5.503
118 C3 1 5.015
118 C3 2 3.062
118 C3 3 1.597
118 C3 4 -0.356
118 C3 5 -1.821
118 C3 6 -2.309
118 C3 7 -3.286
118 C3 8 -3.774
118 C3 9 -4.262
118 C3 10 -4.751
118 C3 11 -4.262
118 C3 12 -3.774
118 C3 13 -3.774
118 C3 14 -3.774
118 C3 15 -3.286
118 C3 16 -1.821
118 C3 17 0.132
118 C3 18 2.085
118 C3 19 4.038
118 C3 20 4.038
118 C3 21 4.038
118 C3 22 3.062
118 C3 23 2.085
118 C3 24 0.621
118 C3 25 -0.356
118 C3 26 -0.844
118 C3 27 -1.333
118 C3 28 -1.821
118 C3 29 -1.821
118 C3 30 -2.309
118 C3 31 -3.286
118 C3 32 -4.262
118 C3 33 -5.239
118 C3 34 -5.239
118 C3 35 -4.751
118 C3 36 -3.286
118 C3 37 -1.821
118 C3 38 -0.356
118 C3 39 0.621
118 C3 40 1.109
118 C3 41 1.109
118 C3 42 1.109
118 C3 43 1.109
118 C3 44 1.109
118 C3 45 0.621
118 C3 46 0.621
118 C3 47 0.621
118 C3 48 0.621
118 C3 49 1.597
118 C3 50 2.085
118 C3 51 2.085
118 C3 52 1.597
118 C3 53 0.132
118 C3 54 -1.821
118 C3 55 -4.262
118 C3 56 -5.727
118 C3 57 -6.215
118 C3 58 -5.727
118 C3 59 -4.262
118 C3 60 -3.286
118 C3 61 -2.797
118 C3 62 -3.286
118 C3 63 -3.774
118 C3 64 -3.774
118 C3 65 -3.286
118 C3 66 -2.309
118 C3 67 -0.844
118 C3 68 0.621
118 C3 69 2.085
118 C3 70 2.574
118 C3 71 2.574
118 C3 72 2.085
118 C3 73 1.109
118 C3 74 0.132
118 C3 75 0.132
118 C3 76 0.132
118 C3 77 0.621
118 C3 78 1.597
118 C3 79 1.597
118 C3 80 1.597
118 C3 81 1.109
118 C3 82 0.621
118 C3 83 0.132
118 C3 84 -0.356
118 C3 85 -0.356
118 C3 86 0.132
118 C3 87 0.621
118 C3 88 1.597
118 C3 89 2.085
118 C3 90 1.597
118 C3 91 0.132
118 C3 92 -1.821
118 C3 93 -3.774
118 C3 94 -4.751
118 C3 95 -5.239
118 C3 96 -5.239
118 C3 97 -4.751
118 C3 98 -3.774
118 C3 99 -3.286
118 C3 100 -2.797
118 C3 101 -2.309
118 C3 102 -2.797
118 C3 103 -3.286
118 C3 104 -4.262
118 C3 105 -4.751
118 C3 106 -5.239
118 C3 107 -5.727
118 C3 108 -6.215
118 C3 109 -6.704
118 C3 110 -7.192
118 C3 111 -6.215
118 C3 112 -5.239
118 C3 113 -3.774
118 C3 114 -2.797
118 C3 115 -1.333
118 C3 116 -0.356
118 C3 117 1.109
118 C3 118 2.085
118 C3 119 3.062
118 C3 120 3.062
118 C3 121 2.574
118 C3 122 1.597
118 C3 123 0.621
118 C3 124 -0.356
118 C3 125 -1.333
118 C3 126 -2.309
118 C3 127 -2.797
118 C3 128 -2.797
118 C3 129 -1.821
118 C3 130 -0.844
118 C3 131 0.132
118 C3 132 0.621
118 C3 133 0.621
118 C3 134 0.621
118 C3 135 0.621
118 C3 136 0.132
118 C3 137 -0.844
118 C3 138 -2.797
118 C3 139 -5.239
118 C3 140 -8.169
118 C3 141 -9.633
118 C3 142 -11.098
118 C3 143 -11.098
118 C3 144 -10.610
118 C3 145 -9.633
118 C3 146 -8.169
118 C3 147 -6.704
118 C3 148 -5.727
118 C3 149 -5.239
118 C3 150 -4.751
118 C3 151 -4.262
118 C3 152 -3.286
118 C3 153 -2.797
118 C3 154 -1.821
118 C3 155 -1.333
118 C3 156 -0.844
118 C3 157 -0.844
118 C3 158 -1.333
118 C3 159 -1.821
118 C3 160 -2.309
118 C3 161 -2.309
118 C3 162 -2.309
118 C3 163 -2.797
118 C3 164 -2.797
118 C3 165 -3.774
118 C3 166 -4.751
118 C3 167 -6.215
118 C3 168 -6.704
118 C3 169 -6.704
118 C3 170 -5.239
118 C3 171 -3.286
118 C3 172 -1.333
118 C3 173 0.132
118 C3 174 1.109
118 C3 175 1.597
118 C3 176 2.085
118 C3 177 1.597
118 C3 178 1.597
118 C3 179 0.132
118 C3 180 -0.356
118 C3 181 -1.333
118 C3 182 -2.309
118 C3 183 -3.774
118 C3 184 -6.215
118 C3 185 -8.169
118 C3 186 -10.122
118 C3 187 -11.098
118 C3 188 -11.098
118 C3 189 -10.610
118 C3 190 -9.633
118 C3 191 -9.633
118 C3 192 -10.122
118 C3 193 -10.610
118 C3 194 -10.610
118 C3 195 -10.122
118 C3 196 -8.657
118 C3 197 -6.704
118 C3 198 -5.727
118 C3 199 -3.774
118 C3 200 -3.286
118 C3 201 -2.797
118 C3 202 -2.797
118 C3 203 -3.286
118 C3 204 -3.774
118 C3 205 -4.262
118 C3 206 -4.262
118 C3 207 -4.262
118 C3 208 -4.751
118 C3 209 -5.239
118 C3 210 -5.727
118 C3 211 -5.727
118 C3 212 -5.727
118 C3 213 -5.727
118 C3 214 -6.215
118 C3 215 -6.704
118 C3 216 -6.704
118 C3 217 -5.727
118 C3 218 -4.751
118 C3 219 -4.751
118 C3 220 -4.751
118 C3 221 -6.215
118 C3 222 -8.169
118 C3 223 -8.657
118 C3 224 -8.657
118 C3 225 -7.680
118 C3 226 -6.704
118 C3 227 -6.215
118 C3 228 -5.727
118 C3 229 -5.727
118 C3 230 -5.239
118 C3 231 -4.751
118 C3 232 -3.774
118 C3 233 -3.774
118 C3 234 -3.774
118 C3 235 -4.262
118 C3 236 -4.262
118 C3 237 -4.262
118 C3 238 -3.774
118 C3 239 -3.774
118 C3 240 -4.262
118 C3 241 -4.751
118 C3 242 -5.727
118 C3 243 -6.215
118 C3 244 -6.704
118 C3 245 -6.704
118 C3 246 -7.192
118 C3 247 -7.192
118 C3 248 -6.704
118 C3 249 -6.215
118 C3 250 -5.727
118 C3 251 -4.751
118 C3 252 -4.262
118 C3 253 -3.286
118 C3 254 -2.797
118 C3 255 -2.309
# C4 chan 17
118 C4 0 -2.035
118 C4 1 -2.035
118 C4 2 -1.546
118 C4 3 -0.570
118 C4 4 -0.081
118 C4 5 0.407
118 C4 6 0.895
118 C4 7 0.895
118 C4 8 1.383
118 C4 9 0.895
118 C4 10 -0.081
118 C4 11 -1.546
118 C4 12 -3.499
118 C4 13 -4.476
118 C4 14 -4.964
118 C4 15 -4.476
118 C4 16 -3.499
118 C4 17 -2.523
118 C4 18 -2.035
118 C4 19 -2.523
118 C4 20 -3.499
118 C4 21 -3.988
118 C4 22 -3.499
118 C4 23 -3.499
118 C4 24 -3.011
118 C4 25 -2.523
118 C4 26 -2.035
118 C4 27 -1.058
118 C4 28 -0.570
118 C4 29 0.407
118 C4 30 0.895
118 C4 31 0.895
118 C4 32 0.407
118 C4 33 -0.570
118 C4 34 -1.058
118 C4 35 -1.546
118 C4 36 -2.035
118 C4 37 -2.523
118 C4 38 -2.523
118 C4 39 -2.523
118 C4 40 -2.035
118 C4 41 -2.035
118 C4 42 -2.523
118 C4 43 -3.011
118 C4 44 -3.499
118 C4 45 -3.499
118 C4 46 -3.499
118 C4 47 -3.011
118 C4 48 -3.011
118 C4 49 -3.499
118 C4 50 -3.988
118 C4 51 -4.476
118 C4 52 -4.964
118 C4 53 -5.452
118 C4 54 -5.452
118 C4 55 -5.452
118 C4 56 -5.452
118 C4 57 -4.964
118 C4 58 -3.988
118 C4 59 -3.011
118 C4 60 -1.546
118 C4 61 0.407
118 C4 62 1.872
118 C4 63 3.337
118 C4 64 4.313
118 C4 65 3.825
118 C4 66 2.360
118 C4 67 0.407
118 C4 68 -2.035
118 C4 69 -3.499
118 C4 70 -4.964
118 C4 71 -4.964
118 C4 72 -4.964
118 C4 73 -4.964
118 C4 74 -4.476
118 C4 75 -3.988
118 C4 76 -3.988
118 C4 77 -3.988
118 C4 78 -4.964
118 C4 79 -5.452
118 C4 80 -5.941
118 C4 81 -5.452
118 C4 82 -3.988
118 C4 83 -2.035
118 C4 84 -0.081
118 C4 85 0.407
118 C4 86 -0.081
118 C4 87 -1.546
118 C4 88 -3.499
118 C4 89 -4.964
118 C4 90 -6.429
118 C4 91 -7.406
118 C4 92 -7.406
118 C4 93 -7.406
118 C4 94 -7.406
118 C4 95 -7.406
118 C4 96 -7.406
118 C4 97 -7.894
118 C4 98 -8.382
118 C4 99 -8.382
118 C4 100 -8.382
118 C4 101 -7.406
118 C4 102 -5.941
118 C4 103 -4.476
118 C4 104 -3.499
118 C4 105 -3.011
118 C4 106 -2.035
118 C4 107 -1.058
118 C4 108 -0.081
118 C4 109 0.895
118 C4 110 0.895
118 C4 111 0.407
118 C4 112 -1.546
118 C4 113 -3.499
118 C4 114 -4.964
118 C4 115 -5.941
118 C4 116 -5.941
118 C4 117 -5.941
118 C4 118 -6.429
118 C4 119 -6.429
118 C4 120 -6.429
118 C4 121 -5.941
118 C4 122 -4.964
118 C4 123 -3.499
118 C4 124 -2.035
118 C4 125 -0.081
118 C4 126 1.383
118 C4 127 2.360
118 C4 128 2.848
118 C4 129 1.872
118 C4 130 0.407
118 C4 131 -1.546
118 C4 132 -3.011
118 C4 133 -4.476
118 C4 134 -5.941
118 C4 135 -6.917
118 C4 136 -7.406
118 C4 137 -7.894
118 C4 138 -6.917
118 C4 139 -5.941
118 C4 140 -4.476
118 C4 141 -3.011
118 C4 142 -2.035
118 C4 143 -1.546
118 C4 144 -1.546
118 C4 145 -1.546
118 C4 146 -2.035
118 C4 147 -2.523
118 C4 148 -2.523
118 C4 149 -2.523
118 C4 150 -2.523
118 C4 151 -3.011
118 C4 152 -3.499
118 C4 153 -3.988
118 C4 154 -4.476
118 C4 155 -4.964
118 C4 156 -5.941
118 C4 157 -6.917
118 C4 158 -7.894
118 C4 159 -7.894
118 C4 160 -6.429
118 C4 161 -3.988
118 C4 162 -1.546
118 C4 163 -0.570
118 C4 164 -0.081
118 C4 165 -0.570
118 C4 166 -0.570
118 C4 167 -0.570
118 C4 168 0.407
118 C4 169 0.407
118 C4 170 0.407
118 C4 171 -0.570
118 C4 172 -2.035
118 C4 173 -3.499
118 C4 174 -4.476
118 C4 175 -5.452
118 C4 176 -5.941
118 C4 177 -5.941
118 C4 178 -5.941
118 C4 179 -6.429
118 C4 180 -7.406
118 C4 181 -8.382
118 C4 182 -8.382
118 C4 183 -6.429
118 C4 184 -3.499
118 C4 185 -0.570
118 C4 186 1.383
118 C4 187 1.872
118 C4 188 1.383
118 C4 189 0.895
118 C4 190 0.407
118 C4 191 0.407
118 C4 192 0.407
118 C4 193 -0.570
118 C4 194 -2.035
118 C4 195 -3.499
118 C4 196 -4.964
118 C4 197 -5.941
118 C4 198 -6.917
118 C4 199 -6.429
118 C4 200 -4.964
118 C4 201 -3.499
118 C4 202 -1.546
118 C4 203 -0.570
118 C4 204 -0.570
118 C4 205 -1.058
118 C4 206 -2.035
118 C4 207 -2.035
118 C4 208 -1.546
118 C4 209 -0.570
118 C4 210 -0.570
118 C4 211 -1.546
118 C4 212 -3.988
118 C4 213 -5.941
118 C4 214 -6.917
118 C4 215 -6.917
118 C4 216 -5.941
118 C4 217 -4.964
118 C4 218 -4.476
118 C4 219 -4.476
118 C4 220 -3.988
118 C4 221 -3.499
118 C4 222 -2.523
118 C4 223 -1.546
118 C4 224 -0.570
118 C4 225 -0.570
118 C4 226 -0.570
118 C4 227 -1.058
118 C4 228 -2.035
118 C4 229 -3.499
118 C4 230 -4.964
118 C4 231 -5.941
118 C4 232 -7.406
118 C4 233 -7.894
118 C4 234 -7.894
118 C4 235 -7.894
118 C4 236 -8.382
118 C4 237 -8.870
118 C4 238 -9.847
118 C4 239 -9.847
118 C4 240 -8.870
118 C4 241 -7.406
118 C4 242 -4.476
118 C4 243 -2.035
118 C4 244 0.407
118 C4 245 1.872
118 C4 246 1.872
118 C4 247 0.895
118 C4 248 -1.058
118 C4 249 -3.011
118 C4 250 -4.964
118 C4 251 -6.917
118 C4 252 -9.359
118 C4 253 -11.312
118 C4 254 -12.777
118 C4 255 -13.265
# CP5 chan 18
118 CP5 0 8.474
118 CP5 1 6.032
118 CP5 2 2.614
118 CP5 3 -0.804
118 CP5 4 -3.245
118 CP5 5 -5.198
118 CP5 6 -7.151
118 CP5 7 -8.616
118 CP5 8 -10.081
118 CP5 9 -10.081
118 CP5 10 -9.104
118 CP5 11 -7.640
118 CP5 12 -7.151
118 CP5 13 -7.151
118 CP5 14 -6.663
118 CP5 15 -5.686
118 CP5 16 -3.245
118 CP5 17 -0.804
118 CP5 18 1.638
118 CP5 19 2.614
118 CP5 20 2.614
118 CP5 21 2.126
118 CP5 22 1.638
118 CP5 23 0.661
118 CP5 24 -0.315
118 CP5 25 -1.292
118 CP5 26 -2.268
118 CP5 27 -2.757
118 CP5 28 -3.733
118 CP5 29 -4.222
118 CP5 30 -5.198
118 CP5 31 -6.175
118 CP5 32 -6.175
118 CP5 33 -5.198
118 CP5 34 -3.245
118 CP5 35 -1.292
118 CP5 36 0.173
118 CP5 37 1.149
118 CP5 38 1.149
118 CP5 39 0.661
118 CP5 40 1.149
118 CP5 41 1.149
118 CP5 42 0.661
118 CP5 43 -0.315
118 CP5 44 -2.268
118 CP5 45 -4.222
118 CP5 46 -5.198
118 CP5 47 -5.686
118 CP5 48 -6.175
118 CP5 49 -6.175
118 CP5 50 -5.198
118 CP5 51 -4.710
118 CP5 52 -3.245
118 CP5 53 -2.757
118 CP5 54 -3.245
118 CP5 55 -5.198
118 CP5 56 -7.640
118 CP5 57 -10.081
118 CP5 58 -11.546
118 CP5 59 -11.546
118 CP5 60 -10.569
118 CP5 61 -8.616
118 CP5 62 -6.663
118 CP5 63 -5.198
118 CP5 64 -3.245
118 CP5 65 -1.292
118 CP5 66 0.661
118 CP5 67 2.126
118 CP5 68 3.103
118 CP5 69 3.591
118 CP5 70 2.126
118 CP5 71 0.661
118 CP5 72 -0.804
118 CP5 73 -1.780
118 CP5 74 -1.780
118 CP5 75 -0.804
118 CP5 76 0.173
118 CP5 77 0.661
118 CP5 78 1.149
118 CP5 79 1.638
118 CP5 80 2.614
118 CP5 81 3.103
118 CP5 82 3.103
118 CP5 83 2.614
118 CP5 84 1.638
118 CP5 85 0.173
118 CP5 86 -0.804
118 CP5 87 -0.315
118 CP5 88 0.173
118 CP5 89 0.173
118 CP5 90 -1.292
118 CP5 91 -4.710
118 CP5 92 -8.616
118 CP5 93 -12.034
118 CP5 94 -13.987
118 CP5 95 -14.476
118 CP5 96 -13.011
118 CP5 97 -12.034
118 CP5 98 -11.058
118 CP5 99 -10.569
118 CP5 100 -9.593
118 CP5 101 -9.104
118 CP5 102 -8.616
118 CP5 103 -8.616
118 CP5 104 -9.104
118 CP5 105 -10.081
118 CP5 106 -10.569
118 CP5 107 -10.081
118 CP5 108 -9.593
118 CP5 109 -8.616
118 CP5 110 -7.151
118 CP5 111 -6.175
118 CP5 112 -4.710
118 CP5 113 -3.733
118 CP5 114 -3.245
118 CP5 115 -2.757
118 CP5 116 -2.268
118 CP5 117 -1.292
118 CP5 118 -0.315
118 CP5 119 0.173
118 CP5 120 0.661
118 CP5 121 1.149
118 CP5 122 0.661
118 CP5 123 0.661
118 CP5 124 -0.315
118 CP5 125 -1.292
118 CP5 126 -2.757
118 CP5 127 -4.710
118 CP5 128 -5.686
118 CP5 129 -5.198
118 CP5 130 -4.222
118 CP5 131 -3.245
118 CP5 132 -2.757
118 CP5 133 -2.268
118 CP5 134 -2.268
118 CP5 135 -1.780
118 CP5 136 -1.780
118 CP5 137 -2.268
118 CP5 138 -4.710
118 CP5 139 -7.151
118 CP5 140 -10.569
118 CP5 141 -13.499
118 CP5 142 -16.429
118 CP5 143 -19.358
118 CP5 144 -21.311
118 CP5 145 -21.800
118 CP5 146 -19.847
118 CP5 147 -15.940
118 CP5 148 -11.546
118 CP5 149 -8.616
118 CP5 150 -7.640
118 CP5 151 -8.616
118 CP5 152 -9.593
118 CP5 153 -9.593
118 CP5 154 -8.128
118 CP5 155 -6.663
118 CP5 156 -4.710
118 CP5 157 -3.245
118 CP5 158 -2.268
118 CP5 159 -1.292
118 CP5 160 -0.804
118 CP5 161 -1.292
118 CP5 162 -2.268
118 CP5 163 -3.245
118 CP5 164 -5.198
118 CP5 165 -7.151
118 CP5 166 -8.128
118 CP5 167 -8.616
118 CP5 168 -7.151
118 CP5 169 -4.710
118 CP5 170 -1.292
118 CP5 171 2.126
118 CP5 172 3.591
118 CP5 173 4.567
118 CP5 174 4.079
118 CP5 175 4.079
118 CP5 176 4.567
118 CP5 177 4.567
118 CP5 178 3.591
118 CP5 179 1.638
118 CP5 180 -0.315
118 CP5 181 -1.780
118 CP5 182 -2.757
118 CP5 183 -4.222
118 CP5 184 -6.175
118 CP5 185 -8.616
118 CP5 186 -11.546
118 CP5 187 -12.034
118 CP5 188 -10.569
118 CP5 189 -8.128
118 CP5 190 -5.198
118 CP5 191 -3.733
118 CP5 192 -4.710
118 CP5 193 -6.663
118 CP5 194 -9.593
118 CP5 195 -11.058
118 CP5 196 -11.058
118 CP5 197 -9.593
118 CP5 198 -8.128
118 CP5 199 -6.175
118 CP5 200 -5.198
118 CP5 201 -4.710
118 CP5 202 -5.686
118 CP5 203 -6.175
118 CP5 204 -6.663
118 CP5 205 -6.175
118 CP5 206 -4.710
118 CP5 207 -3.733
118 CP5 208 -2.757
118 CP5 209 -2.757
118 CP5 210 -3.245
118 CP5 211 -3.733
118 CP5 212 -4.710
118 CP5 213 -5.198
118 CP5 214 -6.663
118 CP5 215 -7.640
118 CP5 216 -8.616
118 CP5 217 -7.640
118 CP5 218 -5.198
118 CP5 219 -2.757
118 CP5 220 -2.268
118 CP5 221 -3.733
118 CP5 222 -6.175
118 CP5 223 -8.616
118 CP5 224 -8.616
118 CP5 225 -6.663
118 CP5 226 -4.222
118 CP5 227 -2.757
118 CP5 228 -2.757
118 CP5 229 -3.245
118 CP5 230 -4.222
118 CP5 231 -4.710
118 CP5 232 -4.222
118 CP5 233 -4.222
118 CP5 234 -4.222
118 CP5 235 -3.733
118 CP5 236 -3.733
118 CP5 237 -4.222
118 CP5 238 -5.198
118 CP5 239 -6.663
118 CP5 240 -7.640
118 CP5 241 -8.128
118 CP5 242 -7.151
118 CP5 243 -5.686
118 CP5 244 -3.733
118 CP5 245 -3.245
118 CP5 246 -4.222
118 CP5 247 -5.686
118 CP5 248 -7.151
118 CP5 249 -8.128
118 CP5 250 -8.128
118 CP5 251 -7.640
118 CP5 252 -6.663
118 CP5 253 -6.175
118 CP5 254 -5.686
118 CP5 255 -4.710
# CP6 chan 19
118 CP6 0 0.671
118 CP6 1 1.648
118 CP6 2 2.625
118 CP6 3 3.113
118 CP6 4 2.136
118 CP6 5 1.160
118 CP6 6 0.671
118 CP6 7 0.671
118 CP6 8 1.160
118 CP6 9 2.136
118 CP6 10 1.648
118 CP6 11 0.183
118 CP6 12 -1.282
118 CP6 13 -2.258
118 CP6 14 -1.282
118 CP6 15 -0.305
118 CP6 16 0.671
118 CP6 17 0.671
118 CP6 18 -0.793
118 CP6 19 -1.770
118 CP6 20 -2.747
118 CP6 21 -2.258
118 CP6 22 -1.770
118 CP6 23 -1.770
118 CP6 24 -2.258
118 CP6 25 -2.258
118 CP6 26 -0.793
118 CP6 27 1.160
118 CP6 28 3.601
118 CP6 29 5.554
118 CP6 30 6.042
118 CP6 31 6.042
118 CP6 32 5.554
118 CP6 33 5.554
118 CP6 34 6.042
118 CP6 35 5.554
118 CP6 36 4.578
118 CP6 37 2.625
118 CP6 38 1.160
118 CP6 39 0.183
118 CP6 40 -0.305
118 CP6 41 -0.305
118 CP6 42 -0.305
118 CP6 43 -0.793
118 CP6 44 -1.282
118 CP6 45 -1.770
118 CP6 46 -1.770
118 CP6 47 -1.282
118 CP6 48 -1.770
118 CP6 49 -2.258
118 CP6 50 -3.723
118 CP6 51 -5.188
118 CP6 52 -6.165
118 CP6 53 -6.165
118 CP6 54 -5.676
118 CP6 55 -4.700
118 CP6 56 -3.235
118 CP6 57 -2.258
118 CP6 58 -1.282
118 CP6 59 0.183
118 CP6 60 1.648
118 CP6 61 3.601
118 CP6 62 6.042
118 CP6 63 7.507
118 CP6 64 7.996
118 CP6 65 7.019
118 CP6 66 4.578
118 CP6 67 1.648
118 CP6 68 -0.305
118 CP6 69 -1.282
118 CP6 70 -1.282
118 CP6 71 -0.305
118 CP6 72 1.160
118 CP6 73 2.625
118 CP6 74 4.089
118 CP6 75 5.554
118 CP6 76 6.042
118 CP6 77 6.042
118 CP6 78 5.066
118 CP6 79 2.625
118 CP6 80 1.160
118 CP6 81 1.160
118 CP6 82 2.136
118 CP6 83 4.578
118 CP6 84 6.042
118 CP6 85 6.042
118 CP6 86 4.578
118 CP6 87 2.625
118 CP6 88 0.671
118 CP6 89 -1.770
118 CP6 90 -3.723
118 CP6 91 -5.676
118 CP6 92 -6.653
118 CP6 93 -7.141
118 CP6 94 -7.141
118 CP6 95 -7.141
118 CP6 96 -7.141
118 CP6 97 -8.118
118 CP6 98 -9.094
118 CP6 99 -9.583
118 CP6 100 -9.094
118 CP6 101 -7.141
118 CP6 102 -4.700
118 CP6 103 -2.258
118 CP6 104 -0.305
118 CP6 105 0.671
118 CP6 106 1.160
118 CP6 107 1.160
118 CP6 108 1.648
118 CP6 109 2.625
118 CP6 110 3.113
118 CP6 111 3.113
118 CP6 112 2.136
118 CP6 113 0.671
118 CP6 114 -0.793
118 CP6 115 -1.770
118 CP6 116 -1.770
118 CP6 117 -2.258
118 CP6 118 -2.258
118 CP6 119 -3.235
118 CP6 120 -3.723
118 CP6 121 -3.235
118 CP6 122 -2.258
118 CP6 123 -0.305
118 CP6 124 1.160
118 CP6 125 2.136
118 CP6 126 2.625
118 CP6 127 3.113
118 CP6 128 2.625
118 CP6 129 1.648
118 CP6 130 0.183
118 CP6 131 -1.282
118 CP6 132 -2.747
118 CP6 133 -4.211
118 CP6 134 -6.165
118 CP6 135 -8.118
118 CP6 136 -9.583
118 CP6 137 -10.071
118 CP6 138 -9.583
118 CP6 139 -8.118
118 CP6 140 -6.653
118 CP6 141 -5.188
118 CP6 142 -4.700
118 CP6 143 -5.188
118 CP6 144 -5.676
118 CP6 145 -6.165
118 CP6 146 -6.165
118 CP6 147 -6.165
118 CP6 148 -6.165
118 CP6 149 -6.165
118 CP6 150 -6.653
118 CP6 151 -6.653
118 CP6 152 -7.141
118 CP6 153 -6.653
118 CP6 154 -6.165
118 CP6 155 -5.676
118 CP6 156 -5.188
118 CP6 157 -5.188
118 CP6 158 -4.700
118 CP6 159 -3.723
118 CP6 160 -2.258
118 CP6 161 -0.793
118 CP6 162 0.183
118 CP6 163 1.160
118 CP6 164 1.160
118 CP6 165 1.160
118 CP6 166 1.648
118 CP6 167 2.625
118 CP6 168 3.113
118 CP6 169 4.089
118 CP6 170 4.578
118 CP6 171 4.089
118 CP6 172 2.625
118 CP6 173 0.183
118 CP6 174 -2.258
118 CP6 175 -4.211
118 CP6 176 -4.700
118 CP6 177 -3.723
118 CP6 178 -3.235
118 CP6 179 -3.723
118 CP6 180 -4.700
118 CP6 181 -5.676
118 CP6 182 -5.188
118 CP6 183 -2.747
118 CP6 184 0.671
118 CP6 185 4.089
118 CP6 186 4.578
118 CP6 187 4.089
118 CP6 188 3.113
118 CP6 189 3.113
118 CP6 190 3.601
118 CP6 191 4.578
118 CP6 192 4.578
118 CP6 193 3.113
118 CP6 194 0.671
118 CP6 195 -1.282
118 CP6 196 -3.235
118 CP6 197 -5.188
118 CP6 198 -6.165
118 CP6 199 -6.653
118 CP6 200 -6.165
118 CP6 201 -5.188
118 CP6 202 -3.723
118 CP6 203 -2.747
118 CP6 204 -2.747
118 CP6 205 -3.235
118 CP6 206 -2.258
118 CP6 207 -0.793
118 CP6 208 1.160
118 CP6 209 2.625
118 CP6 210 1.648
118 CP6 211 -0.305
118 CP6 212 -3.723
118 CP6 213 -5.676
118 CP6 214 -5.676
118 CP6 215 -4.211
118 CP6 216 -1.770
118 CP6 217 0.183
118 CP6 218 0.183
118 CP6 219 -0.305
118 CP6 220 -0.793
118 CP6 221 -1.282
118 CP6 222 -1.770
118 CP6 223 -1.770
118 CP6 224 -2.258
118 CP6 225 -1.770
118 CP6 226 -1.282
118 CP6 227 0.183
118 CP6 228 0.671
118 CP6 229 0.671
118 CP6 230 -0.793
118 CP6 231 -2.258
118 CP6 232 -3.723
118 CP6 233 -4.700
118 CP6 234 -5.188
118 CP6 235 -5.676
118 CP6 236 -7.141
118 CP6 237 -9.094
118 CP6 238 -12.024
118 CP6 239 -13.977
118 CP6 240 -14.465
118 CP6 241 -12.512
118 CP6 242 -8.118
118 CP6 243 -1.770
118 CP6 244 5.066
118 CP6 245 10.437
118 CP6 246 12.390
118 CP6 247 11.414
118 CP6 248 8.484
118 CP6 249 3.601
118 CP6 250 -0.793
118 CP6 251 -5.676
118 CP6 252 -10.071
118 CP6 253 -14.465
118 CP6 254 -17.883
118 CP6 255 -20.325
# CP1 chan 20
118 CP1 0 5.391
118 CP1 1 5.391
118 CP1 2 3.927
118 CP1 3 1.973
118 CP1 4 0.020
118 CP1 5 -1.933
118 CP1 6 -3.398
118 CP1 7 -4.862
118 CP1 8 -5.351
118 CP1 9 -5.351
118 CP1 10 -5.351
118 CP1 11 -4.862
118 CP1 12 -3.886
118 CP1 13 -3.398
118 CP1 14 -2.909
118 CP1 15 -2.421
118 CP1 16 -1.444
118 CP1 17 0.020
118 CP1 18 1.973
118 CP1 19 2.950
118 CP1 20 3.927
118 CP1 21 4.415
118 CP1 22 4.415
118 CP1 23 3.927
118 CP1 24 3.438
118 CP1 25 2.462
118 CP1 26 1.485
118 CP1 27 0.997
118 CP1 28 0.509
118 CP1 29 -0.468
118 CP1 30 -1.933
118 CP1 31 -3.398
118 CP1 32 -4.374
118 CP1 33 -5.351
118 CP1 34 -4.862
118 CP1 35 -4.862
118 CP1 36 -3.886
118 CP1 37 -3.886
118 CP1 38 -3.398
118 CP1 39 -2.909
118 CP1 40 -2.421
118 CP1 41 -1.444
118 CP1 42 -0.956
118 CP1 43 -0.468
118 CP1 44 0.509
118 CP1 45 0.997
118 CP1 46 1.485
118 CP1 47 1.973
118 CP1 48 1.485
118 CP1 49 1.485
118 CP1 50 0.509
118 CP1 51 0.509
118 CP1 52 0.020
118 CP1 53 0.020
118 CP1 54 -0.468
118 CP1 55 -1.933
118 CP1 56 -3.886
118 CP1 57 -6.327
118 CP1 58 -7.304
118 CP1 59 -8.280
118 CP1 60 -8.280
118 CP1 61 -7.304
118 CP1 62 -6.327
118 CP1 63 -5.351
118 CP1 64 -3.886
118 CP1 65 -2.909
118 CP1 66 -1.444
118 CP1 67 -0.468
118 CP1 68 0.997
118 CP1 69 1.485
118 CP1 70 1.973
118 CP1 71 2.462
118 CP1 72 1.973
118 CP1 73 1.973
118 CP1 74 1.973
118 CP1 75 1.973
118 CP1 76 2.462
118 CP1 77 1.973
118 CP1 78 1.485
118 CP1 79 0.997
118 CP1 80 0.997
118 CP1 81 1.485
118 CP1 82 0.997
118 CP1 83 0.509
118 CP1 84 -0.956
118 CP1 85 -1.933
118 CP1 86 -1.933
118 CP1 87 -1.444
118 CP1 88 -0.956
118 CP1 89 -0.468
118 CP1 90 -0.956
118 CP1 91 -1.933
118 CP1 92 -2.421
118 CP1 93 -2.421
118 CP1 94 -2.421
118 CP1 95 -2.421
118 CP1 96 -3.398
118 CP1 97 -3.886
118 CP1 98 -4.374
118 CP1 99 -3.886
118 CP1 100 -3.398
118 CP1 101 -3.398
118 CP1 102 -3.398
118 CP1 103 -3.886
118 CP1 104 -4.374
118 CP1 105 -4.862
118 CP1 106 -5.351
118 CP1 107 -5.351
118 CP1 108 -5.839
118 CP1 109 -5.839
118 CP1 110 -5.351
118 CP1 111 -4.374
118 CP1 112 -3.398
118 CP1 113 -2.421
118 CP1 114 -2.421
118 CP1 115 -1.933
118 CP1 116 -1.444
118 CP1 117 -0.468
118 CP1 118 0.020
118 CP1 119 0.509
118 CP1 120 0.020
118 CP1 121 -0.468
118 CP1 122 -1.444
118 CP1 123 -1.933
118 CP1 124 -2.421
118 CP1 125 -3.398
118 CP1 126 -4.374
118 CP1 127 -5.351
118 CP1 128 -6.327
118 CP1 129 -5.839
118 CP1 130 -4.862
118 CP1 131 -3.398
118 CP1 132 -2.421
118 CP1 133 -1.444
118 CP1 134 -0.956
118 CP1 135 0.509
118 CP1 136 0.509
118 CP1 137 0.020
118 CP1 138 -1.444
118 CP1 139 -3.398
118 CP1 140 -5.839
118 CP1 141 -7.792
118 CP1 142 -10.234
118 CP1 143 -11.698
118 CP1 144 -13.163
118 CP1 145 -13.163
118 CP1 146 -12.187
118 CP1 147 -10.234
118 CP1 148 -7.792
118 CP1 149 -6.327
118 CP1 150 -5.839
118 CP1 151 -5.839
118 CP1 152 -6.327
118 CP1 153 -5.839
118 CP1 154 -4.862
118 CP1 155 -3.398
118 CP1 156 -2.421
118 CP1 157 -1.444
118 CP1 158 -0.468
118 CP1 159 -0.468
118 CP1 160 -0.956
118 CP1 161 -0.956
118 CP1 162 -0.956
118 CP1 163 -0.956
118 CP1 164 -1.444
118 CP1 165 -1.933
118 CP1 166 -2.421
118 CP1 167 -2.909
118 CP1 168 -2.909
118 CP1 169 -1.444
118 CP1 170 0.020
118 CP1 171 1.485
118 CP1 172 1.485
118 CP1 173 0.997
118 CP1 174 0.020
118 CP1 175 -0.956
118 CP1 176 -0.956
118 CP1 177 -0.956
118 CP1 178 -0.956
118 CP1 179 -0.956
118 CP1 180 -1.444
118 CP1 181 -1.444
118 CP1 182 -0.956
118 CP1 183 -0.956
118 CP1 184 -1.444
118 CP1 185 -2.421
118 CP1 186 -3.398
118 CP1 187 -4.374
118 CP1 188 -3.886
118 CP1 189 -2.909
118 CP1 190 -2.421
118 CP1 191 -2.421
118 CP1 192 -3.398
118 CP1 193 -4.374
118 CP1 194 -5.351
118 CP1 195 -4.862
118 CP1 196 -4.374
118 CP1 197 -3.886
118 CP1 198 -3.398
118 CP1 199 -3.398
118 CP1 200 -2.909
118 CP1 201 -2.909
118 CP1 202 -2.909
118 CP1 203 -3.398
118 CP1 204 -3.398
118 CP1 205 -2.909
118 CP1 206 -1.933
118 CP1 207 -0.956
118 CP1 208 -0.468
118 CP1 209 -0.468
118 CP1 210 -0.956
118 CP1 211 -1.933
118 CP1 212 -2.421
118 CP1 213 -2.421
118 CP1 214 -2.909
118 CP1 215 -2.421
118 CP1 216 -2.421
118 CP1 217 -1.933
118 CP1 218 -1.444
118 CP1 219 -1.444
118 CP1 220 -2.421
118 CP1 221 -3.886
118 CP1 222 -5.351
118 CP1 223 -5.351
118 CP1 224 -5.351
118 CP1 225 -3.398
118 CP1 226 -1.444
118 CP1 227 0.509
118 CP1 228 1.485
118 CP1 229 1.485
118 CP1 230 0.997
118 CP1 231 0.020
118 CP1 232 -0.468
118 CP1 233 -0.468
118 CP1 234 -0.468
118 CP1 235 -0.468
118 CP1 236 -0.956
118 CP1 237 -1.444
118 CP1 238 -1.933
118 CP1 239 -2.909
118 CP1 240 -2.909
118 CP1 241 -3.398
118 CP1 242 -3.398
118 CP1 243 -3.398
118 CP1 244 -3.398
118 CP1 245 -3.398
118 CP1 246 -3.398
118 CP1 247 -3.886
118 CP1 248 -3.398
118 CP1 249 -3.398
118 CP1 250 -2.909
118 CP1 251 -2.421
118 CP1 252 -0.956
118 CP1 253 0.020
118 CP1 254 0.020
118 CP1 255 -0.468
# CP2 chan 21
118 CP2 0 1.404
118 CP2 1 1.404
118 CP2 2 0.916
118 CP2 3 0.427
118 CP2 4 -0.549
118 CP2 5 -1.038
118 CP2 6 -1.526
118 CP2 7 -1.038
118 CP2 8 -0.061
118 CP2 9 0.916
118 CP2 10 1.404
118 CP2 11 1.404
118 CP2 12 0.916
118 CP2 13 -0.061
118 CP2 14 -0.549
118 CP2 15 -0.549
118 CP2 16 -0.061
118 CP2 17 0.427
118 CP2 18 0.916
118 CP2 19 1.404
118 CP2 20 1.404
118 CP2 21 2.380
118 CP2 22 2.380
118 CP2 23 2.869
118 CP2 24 2.869
118 CP2 25 2.380
118 CP2 26 1.892
118 CP2 27 1.892
118 CP2 28 1.404
118 CP2 29 0.916
118 CP2 30 0.427
118 CP2 31 0.427
118 CP2 32 -0.061
118 CP2 33 0.427
118 CP2 34 -0.061
118 CP2 35 0.427
118 CP2 36 0.427
118 CP2 37 -0.061
118 CP2 38 -0.549
118 CP2 39 -0.549
118 CP2 40 -0.549
118 CP2 41 -0.549
118 CP2 42 -0.549
118 CP2 43 -0.549
118 CP2 44 -0.549
118 CP2 45 -0.061
118 CP2 46 0.916
118 CP2 47 1.404
118 CP2 48 1.404
118 CP2 49 0.916
118 CP2 50 -0.549
118 CP2 51 -1.526
118 CP2 52 -1.526
118 CP2 53 -1.038
118 CP2 54 -0.549
118 CP2 55 -0.549
118 CP2 56 -0.549
118 CP2 57 -2.014
118 CP2 58 -2.991
118 CP2 59 -3.479
118 CP2 60 -3.479
118 CP2 61 -2.014
118 CP2 62 -1.038
118 CP2 63 0.427
118 CP2 64 1.404
118 CP2 65 1.892
118 CP2 66 1.404
118 CP2 67 1.404
118 CP2 68 1.404
118 CP2 69 0.916
118 CP2 70 1.404
118 CP2 71 1.892
118 CP2 72 2.380
118 CP2 73 3.357
118 CP2 74 4.333
118 CP2 75 4.822
118 CP2 76 4.822
118 CP2 77 4.333
118 CP2 78 3.845
118 CP2 79 3.357
118 CP2 80 2.869
118 CP2 81 2.869
118 CP2 82 2.869
118 CP2 83 2.869
118 CP2 84 2.380
118 CP2 85 1.892
118 CP2 86 1.404
118 CP2 87 0.916
118 CP2 88 0.427
118 CP2 89 -0.061
118 CP2 90 -1.038
118 CP2 91 -1.038
118 CP2 92 -1.526
118 CP2 93 -1.038
118 CP2 94 -0.549
118 CP2 95 -0.549
118 CP2 96 -1.526
118 CP2 97 -2.502
118 CP2 98 -2.991
118 CP2 99 -2.991
118 CP2 100 -2.014
118 CP2 101 -1.038
118 CP2 102 -0.061
118 CP2 103 0.427
118 CP2 104 0.916
118 CP2 105 0.916
118 CP2 106 0.427
118 CP2 107 -0.061
118 CP2 108 -0.061
118 CP2 109 -0.061
118 CP2 110 0.427
118 CP2 111 0.427
118 CP2 112 -0.061
118 CP2 113 -0.061
118 CP2 114 -0.549
118 CP2 115 -0.061
118 CP2 116 0.427
118 CP2 117 0.427
118 CP2 118 -0.061
118 CP2 119 -1.038
118 CP2 120 -1.526
118 CP2 121 -1.526
118 CP2 122 -1.038
118 CP2 123 -0.549
118 CP2 124 0.427
118 CP2 125 0.916
118 CP2 126 1.404
118 CP2 127 0.427
118 CP2 128 -0.061
118 CP2 129 -1.038
118 CP2 130 -1.526
118 CP2 131 -1.526
118 CP2 132 -1.526
118 CP2 133 -1.526
118 CP2 134 -1.526
118 CP2 135 -1.038
118 CP2 136 -0.549
118 CP2 137 -1.038
118 CP2 138 -1.038
118 CP2 139 -1.038
118 CP2 140 -1.526
118 CP2 141 -2.014
118 CP2 142 -2.991
118 CP2 143 -3.967
118 CP2 144 -4.944
118 CP2 145 -5.432
118 CP2 146 -5.432
118 CP2 147 -4.944
118 CP2 148 -4.456
118 CP2 149 -3.967
118 CP2 150 -3.967
118 CP2 151 -4.456
118 CP2 152 -4.456
118 CP2 153 -4.456
118 CP2 154 -3.967
118 CP2 155 -2.991
118 CP2 156 -2.014
118 CP2 157 -1.526
118 CP2 158 -0.549
118 CP2 159 -0.061
118 CP2 160 0.427
118 CP2 161 0.916
118 CP2 162 1.404
118 CP2 163 1.892
118 CP2 164 1.892
118 CP2 165 2.380
118 CP2 166 2.869
118 CP2 167 3.357
118 CP2 168 3.845
118 CP2 169 4.333
118 CP2 170 4.822
118 CP2 171 3.845
118 CP2 172 2.380
118 CP2 173 0.916
118 CP2 174 -1.038
118 CP2 175 -1.526
118 CP2 176 -2.014
118 CP2 177 -2.014
118 CP2 178 -2.014
118 CP2 179 -2.502
118 CP2 180 -2.502
118 CP2 181 -2.502
118 CP2 182 -1.526
118 CP2 183 -0.061
118 CP2 184 1.892
118 CP2 185 2.869
118 CP2 186 3.845
118 CP2 187 3.845
118 CP2 188 4.333
118 CP2 189 4.333
118 CP2 190 4.822
118 CP2 191 4.822
118 CP2 192 4.333
118 CP2 193 3.357
118 CP2 194 2.380
118 CP2 195 1.404
118 CP2 196 0.427
118 CP2 197 -0.549
118 CP2 198 -1.526
118 CP2 199 -1.526
118 CP2 200 -1.038
118 CP2 201 -0.549
118 CP2 202 -0.549
118 CP2 203 -1.038
118 CP2 204 -2.014
118 CP2 205 -2.014
118 CP2 206 -1.526
118 CP2 207 0.427
118 CP2 208 1.892
118 CP2 209 1.892
118 CP2 210 1.404
118 CP2 211 0.427
118 CP2 212 -0.061
118 CP2 213 -0.061
118 CP2 214 0.427
118 CP2 215 0.916
118 CP2 216 1.892
118 CP2 217 2.380
118 CP2 218 1.892
118 CP2 219 1.404
118 CP2 220 0.916
118 CP2 221 -0.061
118 CP2 222 -1.038
118 CP2 223 -1.526
118 CP2 224 -1.038
118 CP2 225 -0.061
118 CP2 226 1.404
118 CP2 227 2.869
118 CP2 228 3.357
118 CP2 229 2.869
118 CP2 230 1.892
118 CP2 231 0.427
118 CP2 232 0.427
118 CP2 233 0.427
118 CP2 234 0.427
118 CP2 235 0.916
118 CP2 236 0.427
118 CP2 237 -0.549
118 CP2 238 -1.526
118 CP2 239 -2.502
118 CP2 240 -2.502
118 CP2 241 -2.014
118 CP2 242 -1.038
118 CP2 243 0.427
118 CP2 244 1.404
118 CP2 245 2.869
118 CP2 246 3.357
118 CP2 247 2.869
118 CP2 248 1.892
118 CP2 249 0.427
118 CP2 250 -1.038
118 CP2 251 -1.526
118 CP2 252 -2.502
118 CP2 253 -2.991
118 CP2 254 -3.479
118 CP2 255 -4.456
# P3 chan 22
118 P3 0 10.783
118 P3 1 9.318
118 P3 2 5.900
118 P3 3 1.994
118 P3 4 -1.912
118 P3 5 -5.330
118 P3 6 -7.772
118 P3 7 -9.725
118 P3 8 -10.213
118 P3 9 -9.237
118 P3 10 -7.772
118 P3 11 -5.819
118 P3 12 -5.330
118 P3 13 -4.842
118 P3 14 -3.866
118 P3 15 -2.401
118 P3 16 0.041
118 P3 17 2.482
118 P3 18 3.947
118 P3 19 4.924
118 P3 20 5.412
118 P3 21 6.388
118 P3 22 6.877
118 P3 23 6.877
118 P3 24 5.412
118 P3 25 3.459
118 P3 26 1.994
118 P3 27 1.017
118 P3 28 0.529
118 P3 29 -0.936
118 P3 30 -2.889
118 P3 31 -4.842
118 P3 32 -5.819
118 P3 33 -5.330
118 P3 34 -3.377
118 P3 35 -1.424
118 P3 36 -0.448
118 P3 37 0.041
118 P3 38 0.041
118 P3 39 0.529
118 P3 40 1.506
118 P3 41 1.994
118 P3 42 1.506
118 P3 43 0.529
118 P3 44 -0.448
118 P3 45 -0.936
118 P3 46 -0.936
118 P3 47 -1.424
118 P3 48 -2.401
118 P3 49 -4.842
118 P3 50 -5.819
118 P3 51 -5.819
118 P3 52 -4.354
118 P3 53 -2.401
118 P3 54 -1.424
118 P3 55 -2.401
118 P3 56 -4.842
118 P3 57 -7.772
118 P3 58 -11.190
118 P3 59 -13.143
118 P3 60 -13.143
118 P3 61 -11.678
118 P3 62 -8.748
118 P3 63 -5.819
118 P3 64 -3.377
118 P3 65 -0.936
118 P3 66 1.017
118 P3 67 2.482
118 P3 68 2.970
118 P3 69 2.970
118 P3 70 2.482
118 P3 71 1.017
118 P3 72 0.041
118 P3 73 0.041
118 P3 74 1.017
118 P3 75 1.994
118 P3 76 1.994
118 P3 77 1.017
118 P3 78 0.041
118 P3 79 0.529
118 P3 80 1.994
118 P3 81 3.459
118 P3 82 3.459
118 P3 83 2.482
118 P3 84 0.529
118 P3 85 -0.936
118 P3 86 -1.424
118 P3 87 0.041
118 P3 88 1.506
118 P3 89 1.017
118 P3 90 -0.936
118 P3 91 -3.866
118 P3 92 -6.795
118 P3 93 -8.748
118 P3 94 -9.725
118 P3 95 -9.725
118 P3 96 -10.213
118 P3 97 -10.701
118 P3 98 -11.190
118 P3 99 -11.190
118 P3 100 -10.213
118 P3 101 -8.748
118 P3 102 -8.260
118 P3 103 -8.260
118 P3 104 -9.237
118 P3 105 -10.701
118 P3 106 -10.701
118 P3 107 -10.213
118 P3 108 -8.748
118 P3 109 -6.307
118 P3 110 -4.354
118 P3 111 -2.889
118 P3 112 -1.912
118 P3 113 -1.912
118 P3 114 -2.401
118 P3 115 -2.889
118 P3 116 -2.889
118 P3 117 -2.401
118 P3 118 -1.912
118 P3 119 -1.912
118 P3 120 -1.912
118 P3 121 -1.912
118 P3 122 -1.424
118 P3 123 -1.424
118 P3 124 -2.401
118 P3 125 -4.354
118 P3 126 -6.795
118 P3 127 -9.237
118 P3 128 -10.213
118 P3 129 -9.237
118 P3 130 -7.772
118 P3 131 -6.307
118 P3 132 -4.842
118 P3 133 -3.377
118 P3 134 -1.912
118 P3 135 0.529
118 P3 136 1.506
118 P3 137 1.017
118 P3 138 -1.424
118 P3 139 -5.330
118 P3 140 -9.237
118 P3 141 -12.655
118 P3 142 -16.561
118 P3 143 -19.979
118 P3 144 -22.420
118 P3 145 -22.909
118 P3 146 -20.467
118 P3 147 -16.073
118 P3 148 -10.701
118 P3 149 -7.772
118 P3 150 -7.284
118 P3 151 -9.237
118 P3 152 -12.166
118 P3 153 -12.655
118 P3 154 -11.190
118 P3 155 -7.772
118 P3 156 -3.866
118 P3 157 -0.936
118 P3 158 0.529
118 P3 159 0.529
118 P3 160 0.041
118 P3 161 -0.936
118 P3 162 -1.424
118 P3 163 -2.401
118 P3 164 -3.377
118 P3 165 -4.354
118 P3 166 -4.842
118 P3 167 -3.866
118 P3 168 -0.936
118 P3 169 2.970
118 P3 170 6.877
118 P3 171 8.341
118 P3 172 6.877
118 P3 173 3.947
118 P3 174 1.017
118 P3 175 0.041
118 P3 176 0.529
118 P3 177 0.529
118 P3 178 -0.448
118 P3 179 -1.912
118 P3 180 -3.377
118 P3 181 -2.401
118 P3 182 -0.936
118 P3 183 -0.448
118 P3 184 -1.424
118 P3 185 -3.866
118 P3 186 -5.819
118 P3 187 -6.795
118 P3 188 -5.330
118 P3 189 -3.377
118 P3 190 -1.424
118 P3 191 -0.936
118 P3 192 -2.401
118 P3 193 -4.354
118 P3 194 -6.307
118 P3 195 -7.284
118 P3 196 -7.284
118 P3 197 -6.795
118 P3 198 -5.330
118 P3 199 -4.354
118 P3 200 -3.377
118 P3 201 -3.377
118 P3 202 -5.330
118 P3 203 -6.795
118 P3 204 -7.284
118 P3 205 -5.819
118 P3 206 -2.889
118 P3 207 0.041
118 P3 208 1.017
118 P3 209 1.017
118 P3 210 0.529
118 P3 211 -0.448
118 P3 212 -1.424
118 P3 213 -2.889
118 P3 214 -3.866
118 P3 215 -4.842
118 P3 216 -4.842
118 P3 217 -3.377
118 P3 218 -1.424
118 P3 219 0.529
118 P3 220 0.041
118 P3 221 -2.401
118 P3 222 -4.354
118 P3 223 -5.819
118 P3 224 -4.354
118 P3 225 -1.424
118 P3 226 1.994
118 P3 227 4.435
118 P3 228 5.412
118 P3 229 3.947
118 P3 230 1.994
118 P3 231 0.041
118 P3 232 -1.424
118 P3 233 -1.912
118 P3 234 -1.424
118 P3 235 -0.936
118 P3 236 -1.424
118 P3 237 -2.889
118 P3 238 -5.330
118 P3 239 -6.795
118 P3 240 -6.795
118 P3 241 -5.819
118 P3 242 -3.866
118 P3 243 -1.912
118 P3 244 -0.936
118 P3 245 -0.448
118 P3 246 -1.424
118 P3 247 -2.889
118 P3 248 -4.354
118 P3 249 -5.819
118 P3 250 -6.307
118 P3 251 -5.330
118 P3 252 -3.377
118 P3 253 -0.936
118 P3 254 -0.448
118 P3 255 -0.936
# P4 chan 23
118 P4 0 2.370
118 P4 1 3.347
118 P4 2 3.347
118 P4 3 2.370
118 P4 4 0.905
118 P4 5 -0.559
118 P4 6 -0.559
118 P4 7 -0.071
118 P4 8 1.882
118 P4 9 3.347
118 P4 10 4.323
118 P4 11 4.323
118 P4 12 3.347
118 P4 13 2.370
118 P4 14 1.882
118 P4 15 0.905
118 P4 16 -0.071
118 P4 17 -0.559
118 P4 18 -0.071
118 P4 19 0.905
118 P4 20 2.370
118 P4 21 3.347
118 P4 22 3.347
118 P4 23 3.347
118 P4 24 2.858
118 P4 25 2.370
118 P4 26 2.858
118 P4 27 3.347
118 P4 28 2.858
118 P4 29 1.882
118 P4 30 0.905
118 P4 31 0.417
118 P4 32 0.905
118 P4 33 2.370
118 P4 34 3.347
118 P4 35 4.323
118 P4 36 4.323
118 P4 37 3.835
118 P4 38 3.347
118 P4 39 2.370
118 P4 40 1.882
118 P4 41 1.394
118 P4 42 0.417
118 P4 43 -0.559
118 P4 44 -1.048
118 P4 45 -1.048
118 P4 46 -0.559
118 P4 47 -0.559
118 P4 48 -1.536
118 P4 49 -3.001
118 P4 50 -4.954
118 P4 51 -5.931
118 P4 52 -5.442
118 P4 53 -3.489
118 P4 54 -1.536
118 P4 55 -0.559
118 P4 56 -1.048
118 P4 57 -2.513
118 P4 58 -3.977
118 P4 59 -4.954
118 P4 60 -3.977
118 P4 61 -2.513
118 P4 62 -0.559
118 P4 63 1.394
118 P4 64 1.882
118 P4 65 1.882
118 P4 66 0.417
118 P4 67 -1.048
118 P4 68 -2.024
118 P4 69 -2.024
118 P4 70 -1.048
118 P4 71 0.905
118 P4 72 2.858
118 P4 73 4.812
118 P4 74 6.765
118 P4 75 8.230
118 P4 76 8.230
118 P4 77 7.741
118 P4 78 6.276
118 P4 79 4.323
118 P4 80 2.858
118 P4 81 2.858
118 P4 82 3.835
118 P4 83 4.323
118 P4 84 4.323
118 P4 85 3.347
118 P4 86 1.394
118 P4 87 0.417
118 P4 88 -1.048
118 P4 89 -2.513
118 P4 90 -4.954
118 P4 91 -6.907
118 P4 92 -7.884
118 P4 93 -7.395
118 P4 94 -6.419
118 P4 95 -5.931
118 P4 96 -6.907
118 P4 97 -8.860
118 P4 98 -10.325
118 P4 99 -10.325
118 P4 100 -8.372
118 P4 101 -5.931
118 P4 102 -3.489
118 P4 103 -2.024
118 P4 104 -1.048
118 P4 105 -1.048
118 P4 106 -1.536
118 P4 107 -1.536
118 P4 108 -2.024
118 P4 109 -2.024
118 P4 110 -1.536
118 P4 111 -1.048
118 P4 112 -1.536
118 P4 113 -1.536
118 P4 114 -2.024
118 P4 115 -2.513
118 P4 116 -2.513
118 P4 117 -2.513
118 P4 118 -3.489
118 P4 119 -4.466
118 P4 120 -5.442
118 P4 121 -4.954
118 P4 122 -4.466
118 P4 123 -3.001
118 P4 124 -2.024
118 P4 125 -2.024
118 P4 126 -2.513
118 P4 127 -3.977
118 P4 128 -4.466
118 P4 129 -4.954
118 P4 130 -5.442
118 P4 131 -4.954
118 P4 132 -4.466
118 P4 133 -3.977
118 P4 134 -3.977
118 P4 135 -4.466
118 P4 136 -4.954
118 P4 137 -5.931
118 P4 138 -5.931
118 P4 139 -5.442
118 P4 140 -4.954
118 P4 141 -4.954
118 P4 142 -5.931
118 P4 143 -8.372
118 P4 144 -10.813
118 P4 145 -12.278
118 P4 146 -11.790
118 P4 147 -10.813
118 P4 148 -9.837
118 P4 149 -9.349
118 P4 150 -9.349
118 P4 151 -9.837
118 P4 152 -9.349
118 P4 153 -8.860
118 P4 154 -7.395
118 P4 155 -5.931
118 P4 156 -4.466
118 P4 157 -3.489
118 P4 158 -2.024
118 P4 159 -1.048
118 P4 160 0.417
118 P4 161 1.394
118 P4 162 2.370
118 P4 163 2.858
118 P4 164 2.858
118 P4 165 2.858
118 P4 166 2.858
118 P4 167 3.347
118 P4 168 3.835
118 P4 169 4.812
118 P4 170 4.812
118 P4 171 3.835
118 P4 172 1.882
118 P4 173 -1.048
118 P4 174 -3.489
118 P4 175 -3.977
118 P4 176 -3.001
118 P4 177 -1.536
118 P4 178 -1.048
118 P4 179 -2.513
118 P4 180 -4.466
118 P4 181 -4.954
118 P4 182 -3.001
118 P4 183 0.417
118 P4 184 3.835
118 P4 185 5.788
118 P4 186 5.788
118 P4 187 5.300
118 P4 188 5.300
118 P4 189 5.788
118 P4 190 6.765
118 P4 191 7.253
118 P4 192 6.276
118 P4 193 4.812
118 P4 194 2.858
118 P4 195 1.394
118 P4 196 -0.559
118 P4 197 -2.513
118 P4 198 -3.977
118 P4 199 -3.489
118 P4 200 -2.513
118 P4 201 -0.559
118 P4 202 -1.048
118 P4 203 -2.513
118 P4 204 -4.954
118 P4 205 -5.931
118 P4 206 -4.954
118 P4 207 -2.513
118 P4 208 0.417
118 P4 209 0.905
118 P4 210 -0.071
118 P4 211 -2.024
118 P4 212 -3.489
118 P4 213 -3.001
118 P4 214 -1.536
118 P4 215 0.417
118 P4 216 1.882
118 P4 217 2.370
118 P4 218 2.370
118 P4 219 1.394
118 P4 220 -0.071
118 P4 221 -1.536
118 P4 222 -2.513
118 P4 223 -3.489
118 P4 224 -3.489
118 P4 225 -1.536
118 P4 226 0.417
118 P4 227 2.858
118 P4 228 2.858
118 P4 229 1.882
118 P4 230 -0.559
118 P4 231 -2.024
118 P4 232 -2.024
118 P4 233 -1.536
118 P4 234 -1.048
118 P4 235 -1.048
118 P4 236 -2.513
118 P4 237 -4.954
118 P4 238 -7.395
118 P4 239 -9.837
118 P4 240 -10.813
118 P4 241 -10.325
118 P4 242 -7.395
118 P4 243 -2.513
118 P4 244 3.347
118 P4 245 8.230
118 P4 246 11.159
118 P4 247 11.159
118 P4 248 9.206
118 P4 249 5.788
118 P4 250 1.882
118 P4 251 -2.513
118 P4 252 -6.419
118 P4 253 -9.837
118 P4 254 -12.767
118 P4 255 -14.720
# PZ chan 24
118 PZ 0 5.371
118 PZ 1 6.348
118 PZ 2 5.859
118 PZ 3 3.906
118 PZ 4 1.953
118 PZ 5 -0.488
118 PZ 6 -2.441
118 PZ 7 -3.906
118 PZ 8 -3.906
118 PZ 9 -3.418
118 PZ 10 -2.930
118 PZ 11 -2.441
118 PZ 12 -2.930
118 PZ 13 -3.418
118 PZ 14 -3.906
118 PZ 15 -4.395
118 PZ 16 -3.906
118 PZ 17 -2.930
118 PZ 18 -1.953
118 PZ 19 -0.488
118 PZ 20 0.977
118 PZ 21 2.441
118 PZ 22 3.906
118 PZ 23 4.883
118 PZ 24 5.371
118 PZ 25 5.371
118 PZ 26 4.883
118 PZ 27 4.395
118 PZ 28 3.418
118 PZ 29 2.441
118 PZ 30 0.488
118 PZ 31 -1.465
118 PZ 32 -2.930
118 PZ 33 -3.906
118 PZ 34 -3.906
118 PZ 35 -3.906
118 PZ 36 -3.906
118 PZ 37 -4.395
118 PZ 38 -5.371
118 PZ 39 -6.348
118 PZ 40 -6.836
118 PZ 41 -6.348
118 PZ 42 -5.859
118 PZ 43 -4.883
118 PZ 44 -3.418
118 PZ 45 -1.465
118 PZ 46 0.488
118 PZ 47 1.953
118 PZ 48 2.441
118 PZ 49 1.465
118 PZ 50 0.000
118 PZ 51 -0.977
118 PZ 52 -0.977
118 PZ 53 0.000
118 PZ 54 0.488
118 PZ 55 0.000
118 PZ 56 -2.441
118 PZ 57 -5.859
118 PZ 58 -8.789
118 PZ 59 -10.742
118 PZ 60 -10.742
118 PZ 61 -9.766
118 PZ 62 -7.812
118 PZ 63 -6.348
118 PZ 64 -4.883
118 PZ 65 -3.418
118 PZ 66 -2.441
118 PZ 67 -0.977
118 PZ 68 0.000
118 PZ 69 0.977
118 PZ 70 2.441
118 PZ 71 3.418
118 PZ 72 4.883
118 PZ 73 6.348
118 PZ 74 7.324
118 PZ 75 8.301
118 PZ 76 7.812
118 PZ 77 6.836
118 PZ 78 5.371
118 PZ 79 4.395
118 PZ 80 2.930
118 PZ 81 2.441
118 PZ 82 1.953
118 PZ 83 0.977
118 PZ 84 -0.977
118 PZ 85 -2.930
118 PZ 86 -3.906
118 PZ 87 -3.906
118 PZ 88 -3.418
118 PZ 89 -3.418
118 PZ 90 -3.418
118 PZ 91 -3.906
118 PZ 92 -4.395
118 PZ 93 -4.395
118 PZ 94 -3.418
118 PZ 95 -3.418
118 PZ 96 -3.418
118 PZ 97 -4.395
118 PZ 98 -5.371
118 PZ 99 -4.883
118 PZ 100 -4.395
118 PZ 101 -2.930
118 PZ 102 -1.953
118 PZ 103 -1.953
118 PZ 104 -2.441
118 PZ 105 -2.930
118 PZ 106 -3.906
118 PZ 107 -4.395
118 PZ 108 -4.883
118 PZ 109 -4.395
118 PZ 110 -3.906
118 PZ 111 -2.441
118 PZ 112 -1.953
118 PZ 113 -0.977
118 PZ 114 -0.488
118 PZ 115 0.000
118 PZ 116 0.488
118 PZ 117 1.465
118 PZ 118 1.953
118 PZ 119 1.953
118 PZ 120 1.953
118 PZ 121 1.465
118 PZ 122 0.977
118 PZ 123 0.977
118 PZ 124 0.977
118 PZ 125 0.000
118 PZ 126 -1.953
118 PZ 127 -3.906
118 PZ 128 -5.371
118 PZ 129 -6.348
118 PZ 130 -5.859
118 PZ 131 -4.883
118 PZ 132 -3.418
118 PZ 133 -1.465
118 PZ 134 0.488
118 PZ 135 1.953
118 PZ 136 2.930
118 PZ 137 3.418
118 PZ 138 2.441
118 PZ 139 0.977
118 PZ 140 -0.977
118 PZ 141 -2.930
118 PZ 142 -5.371
118 PZ 143 -7.812
118 PZ 144 -9.766
118 PZ 145 -10.742
118 PZ 146 -10.742
118 PZ 147 -9.766
118 PZ 148 -7.812
118 PZ 149 -6.348
118 PZ 150 -5.859
118 PZ 151 -6.348
118 PZ 152 -6.836
118 PZ 153 -6.836
118 PZ 154 -5.859
118 PZ 155 -3.906
118 PZ 156 -1.465
118 PZ 157 0.488
118 PZ 158 1.953
118 PZ 159 3.418
118 PZ 160 4.395
118 PZ 161 5.371
118 PZ 162 6.348
118 PZ 163 6.836
118 PZ 164 6.836
118 PZ 165 6.348
118 PZ 166 5.859
118 PZ 167 5.859
118 PZ 168 6.836
118 PZ 169 7.812
118 PZ 170 8.789
118 PZ 171 8.301
118 PZ 172 5.859
118 PZ 173 2.930
118 PZ 174 0.000
118 PZ 175 -1.465
118 PZ 176 -1.465
118 PZ 177 -0.977
118 PZ 178 -0.488
118 PZ 179 -0.977
118 PZ 180 -1.465
118 PZ 181 -0.488
118 PZ 182 1.465
118 PZ 183 3.418
118 PZ 184 4.883
118 PZ 185 4.883
118 PZ 186 4.395
118 PZ 187 4.395
118 PZ 188 4.883
118 PZ 189 5.859
118 PZ 190 6.836
118 PZ 191 6.836
118 PZ 192 5.859
118 PZ 193 3.906
118 PZ 194 2.930
118 PZ 195 1.953
118 PZ 196 1.953
118 PZ 197 1.465
118 PZ 198 0.977
118 PZ 199 0.488
118 PZ 200 0.488
118 PZ 201 0.000
118 PZ 202 -0.977
118 PZ 203 -1.953
118 PZ 204 -2.930
118 PZ 205 -2.441
118 PZ 206 -0.977
118 PZ 207 2.441
118 PZ 208 4.883
118 PZ 209 5.371
118 PZ 210 4.395
118 PZ 211 2.930
118 PZ 212 0.977
118 PZ 213 0.977
118 PZ 214 1.465
118 PZ 215 2.930
118 PZ 216 3.906
118 PZ 217 4.395
118 PZ 218 4.883
118 PZ 219 4.395
118 PZ 220 3.418
118 PZ 221 1.953
118 PZ 222 0.488
118 PZ 223 -0.977
118 PZ 224 -0.488
118 PZ 225 1.465
118 PZ 226 3.906
118 PZ 227 6.348
118 PZ 228 7.324
118 PZ 229 6.836
118 PZ 230 4.883
118 PZ 231 2.441
118 PZ 232 0.977
118 PZ 233 0.977
118 PZ 234 1.465
118 PZ 235 1.465
118 PZ 236 1.465
118 PZ 237 0.488
118 PZ 238 0.000
118 PZ 239 -0.977
118 PZ 240 -1.953
118 PZ 241 -1.953
118 PZ 242 -1.465
118 PZ 243 0.000
118 PZ 244 0.977
118 PZ 245 2.930
118 PZ 246 3.418
118 PZ 247 3.418
118 PZ 248 2.441
118 PZ 249 0.977
118 PZ 250 0.000
118 PZ 251 -0.488
118 PZ 252 -0.488
118 PZ 253 0.000
118 PZ 254 -0.977
118 PZ 255 -1.953
# P8 chan 25
118 P8 0 5.432
118 P8 1 7.385
118 P8 2 8.362
118 P8 3 7.874
118 P8 4 6.409
118 P8 5 4.944
118 P8 6 2.991
118 P8 7 1.038
118 P8 8 0.061
118 P8 9 -0.427
118 P8 10 -0.427
118 P8 11 -0.427
118 P8 12 0.549
118 P8 13 2.014
118 P8 14 3.479
118 P8 15 2.991
118 P8 16 2.502
118 P8 17 0.549
118 P8 18 -0.427
118 P8 19 -0.916
118 P8 20 -0.916
118 P8 21 -1.892
118 P8 22 -2.869
118 P8 23 -4.333
118 P8 24 -5.310
118 P8 25 -3.845
118 P8 26 -0.427
118 P8 27 3.967
118 P8 28 7.385
118 P8 29 9.827
118 P8 30 10.803
118 P8 31 11.292
118 P8 32 12.268
118 P8 33 13.733
118 P8 34 15.686
118 P8 35 15.686
118 P8 36 15.198
118 P8 37 13.245
118 P8 38 10.803
118 P8 39 8.850
118 P8 40 6.409
118 P8 41 3.967
118 P8 42 1.526
118 P8 43 -0.427
118 P8 44 -1.404
118 P8 45 -1.404
118 P8 46 -0.916
118 P8 47 -0.427
118 P8 48 -1.892
118 P8 49 -4.333
118 P8 50 -7.263
118 P8 51 -9.216
118 P8 52 -8.728
118 P8 53 -5.798
118 P8 54 -2.380
118 P8 55 0.549
118 P8 56 2.502
118 P8 57 2.502
118 P8 58 2.014
118 P8 59 2.014
118 P8 60 2.991
118 P8 61 4.944
118 P8 62 7.385
118 P8 63 8.362
118 P8 64 7.874
118 P8 65 5.432
118 P8 66 2.502
118 P8 67 0.549
118 P8 68 -0.427
118 P8 69 0.549
118 P8 70 2.502
118 P8 71 4.456
118 P8 72 5.432
118 P8 73 6.409
118 P8 74 7.385
118 P8 75 9.338
118 P8 76 11.292
118 P8 77 12.268
118 P8 78 11.780
118 P8 79 9.827
118 P8 80 7.874
118 P8 81 6.897
118 P8 82 7.385
118 P8 83 8.850
118 P8 84 9.827
118 P8 85 9.827
118 P8 86 8.850
118 P8 87 7.385
118 P8 88 5.920
118 P8 89 3.967
118 P8 90 1.526
118 P8 91 -1.404
118 P8 92 -3.845
118 P8 93 -5.798
118 P8 94 -6.287
118 P8 95 -7.263
118 P8 96 -8.240
118 P8 97 -10.681
118 P8 98 -12.634
118 P8 99 -13.611
118 P8 100 -13.123
118 P8 101 -11.169
118 P8 102 -7.751
118 P8 103 -4.822
118 P8 104 -2.380
118 P8 105 -0.916
118 P8 106 -0.916
118 P8 107 -0.427
118 P8 108 1.038
118 P8 109 2.502
118 P8 110 3.967
118 P8 111 3.967
118 P8 112 2.502
118 P8 113 0.061
118 P8 114 -2.380
118 P8 115 -3.845
118 P8 116 -4.333
118 P8 117 -4.822
118 P8 118 -4.822
118 P8 119 -5.310
118 P8 120 -5.310
118 P8 121 -3.357
118 P8 122 -0.916
118 P8 123 2.014
118 P8 124 4.456
118 P8 125 5.920
118 P8 126 4.944
118 P8 127 2.991
118 P8 128 0.549
118 P8 129 -1.892
118 P8 130 -3.357
118 P8 131 -4.333
118 P8 132 -4.822
118 P8 133 -5.310
118 P8 134 -6.287
118 P8 135 -7.751
118 P8 136 -9.216
118 P8 137 -9.705
118 P8 138 -9.216
118 P8 139 -7.751
118 P8 140 -6.287
118 P8 141 -5.798
118 P8 142 -6.287
118 P8 143 -7.751
118 P8 144 -9.216
118 P8 145 -9.705
118 P8 146 -8.728
118 P8 147 -7.751
118 P8 148 -7.263
118 P8 149 -8.240
118 P8 150 -9.216
118 P8 151 -10.193
118 P8 152 -10.193
118 P8 153 -8.240
118 P8 154 -5.798
118 P8 155 -3.357
118 P8 156 -1.404
118 P8 157 -0.427
118 P8 158 1.038
118 P8 159 2.991
118 P8 160 4.456
118 P8 161 4.944
118 P8 162 4.456
118 P8 163 3.479
118 P8 164 2.502
118 P8 165 2.502
118 P8 166 2.991
118 P8 167 3.967
118 P8 168 5.432
118 P8 169 7.385
118 P8 170 8.850
118 P8 171 9.338
118 P8 172 8.850
118 P8 173 6.897
118 P8 174 4.456
118 P8 175 2.991
118 P8 176 3.967
118 P8 177 5.432
118 P8 178 6.897
118 P8 179 6.409
118 P8 180 4.944
118 P8 181 3.479
118 P8 182 3.479
118 P8 183 5.920
118 P8 184 8.362
118 P8 185 9.827
118 P8 186 9.338
118 P8 187 7.874
118 P8 188 6.897
118 P8 189 7.874
118 P8 190 10.315
118 P8 191 12.268
118 P8 192 13.245
118 P8 193 12.756
118 P8 194 11.292
118 P8 195 8.850
118 P8 196 6.409
118 P8 197 3.967
118 P8 198 2.502
118 P8 199 1.526
118 P8 200 2.502
118 P8 201 3.967
118 P8 202 4.944
118 P8 203 3.479
118 P8 204 0.061
118 P8 205 -2.380
118 P8 206 -1.892
118 P8 207 1.038
118 P8 208 5.920
118 P8 209 8.850
118 P8 210 8.850
118 P8 211 5.920
118 P8 212 2.014
118 P8 213 0.061
118 P8 214 1.526
118 P8 215 4.944
118 P8 216 9.338
118 P8 217 11.780
118 P8 218 12.756
118 P8 219 11.292
118 P8 220 9.338
118 P8 221 6.409
118 P8 222 3.479
118 P8 223 1.038
118 P8 224 0.061
118 P8 225 1.526
118 P8 226 4.456
118 P8 227 7.385
118 P8 228 9.338
118 P8 229 9.338
118 P8 230 8.362
118 P8 231 7.385
118 P8 232 6.409
118 P8 233 5.920
118 P8 234 4.944
118 P8 235 2.502
118 P8 236 -0.427
118 P8 237 -3.845
118 P8 238 -7.263
118 P8 239 -10.681
118 P8 240 -12.146
118 P8 241 -11.658
118 P8 242 -7.263
118 P8 243 1.526
118 P8 244 12.268
118 P8 245 23.010
118 P8 246 28.870
118 P8 247 29.358
118 P8 248 25.452
118 P8 249 18.616
118 P8 250 11.292
118 P8 251 4.944
118 P8 252 -2.380
118 P8 253 -9.705
118 P8 254 -16.541
118 P8 255 -21.912
# P7 chan 26
118 P7 0 9.135
118 P7 1 7.670
118 P7 2 4.252
118 P7 3 0.346
118 P7 4 -3.560
118 P7 5 -6.978
118 P7 6 -10.396
118 P7 7 -12.838
118 P7 8 -13.814
118 P7 9 -12.838
118 P7 10 -10.885
118 P7 11 -8.443
118 P7 12 -6.490
118 P7 13 -5.514
118 P7 14 -5.025
118 P7 15 -4.049
118 P7 16 -2.096
118 P7 17 -0.142
118 P7 18 0.834
118 P7 19 1.811
118 P7 20 2.299
118 P7 21 2.787
118 P7 22 3.276
118 P7 23 3.276
118 P7 24 2.787
118 P7 25 1.811
118 P7 26 0.834
118 P7 27 0.346
118 P7 28 -1.119
118 P7 29 -2.584
118 P7 30 -4.537
118 P7 31 -6.490
118 P7 32 -6.490
118 P7 33 -4.537
118 P7 34 -0.631
118 P7 35 2.787
118 P7 36 5.717
118 P7 37 7.182
118 P7 38 7.182
118 P7 39 6.694
118 P7 40 5.717
118 P7 41 4.252
118 P7 42 1.811
118 P7 43 -1.119
118 P7 44 -4.049
118 P7 45 -6.978
118 P7 46 -7.955
118 P7 47 -7.955
118 P7 48 -7.467
118 P7 49 -6.490
118 P7 50 -6.002
118 P7 51 -5.514
118 P7 52 -4.049
118 P7 53 -2.096
118 P7 54 0.346
118 P7 55 1.322
118 P7 56 0.346
118 P7 57 -2.584
118 P7 58 -6.978
118 P7 59 -10.885
118 P7 60 -12.349
118 P7 61 -10.885
118 P7 62 -7.467
118 P7 63 -2.096
118 P7 64 1.811
118 P7 65 4.740
118 P7 66 6.205
118 P7 67 6.694
118 P7 68 7.182
118 P7 69 7.182
118 P7 70 5.717
118 P7 71 3.276
118 P7 72 0.834
118 P7 73 -0.631
118 P7 74 -0.142
118 P7 75 1.322
118 P7 76 2.787
118 P7 77 3.764
118 P7 78 4.252
118 P7 79 5.229
118 P7 80 6.205
118 P7 81 7.670
118 P7 82 8.158
118 P7 83 6.694
118 P7 84 3.764
118 P7 85 1.322
118 P7 86 0.834
118 P7 87 2.299
118 P7 88 4.740
118 P7 89 6.205
118 P7 90 4.252
118 P7 91 -0.142
118 P7 92 -6.490
118 P7 93 -11.373
118 P7 94 -14.303
118 P7 95 -14.791
118 P7 96 -13.814
118 P7 97 -12.838
118 P7 98 -12.838
118 P7 99 -13.326
118 P7 100 -12.838
118 P7 101 -11.373
118 P7 102 -9.420
118 P7 103 -7.955
118 P7 104 -7.467
118 P7 105 -7.955
118 P7 106 -8.443
118 P7 107 -7.955
118 P7 108 -6.490
