# co2a0000412.rd
# 120 trials, 64 chans, 416 samples 368 post_stim samples
# 3.906000 msecs uV
# S1 obj , trial 42
# FP1 chan 0
42 FP1 0 1.556
42 FP1 1 2.045
42 FP1 2 2.533
42 FP1 3 3.021
42 FP1 4 3.021
42 FP1 5 3.021
42 FP1 6 2.533
42 FP1 7 2.045
42 FP1 8 1.556
42 FP1 9 1.556
42 FP1 10 2.045
42 FP1 11 3.021
42 FP1 12 3.021
42 FP1 13 2.533
42 FP1 14 2.045
42 FP1 15 2.045
42 FP1 16 2.045
42 FP1 17 3.021
42 FP1 18 3.510
42 FP1 19 3.021
42 FP1 20 2.045
42 FP1 21 0.580
42 FP1 22 -0.397
42 FP1 23 -0.397
42 FP1 24 0.580
42 FP1 25 2.533
42 FP1 26 4.486
42 FP1 27 4.974
42 FP1 28 4.486
42 FP1 29 3.021
42 FP1 30 1.556
42 FP1 31 0.092
42 FP1 32 -0.885
42 FP1 33 -1.373
42 FP1 34 -1.373
42 FP1 35 -1.373
42 FP1 36 -1.373
42 FP1 37 -0.885
42 FP1 38 -0.397
42 FP1 39 0.580
42 FP1 40 1.068
42 FP1 41 0.580
42 FP1 42 0.092
42 FP1 43 -1.373
42 FP1 44 -2.838
42 FP1 45 -4.791
42 FP1 46 -6.744
42 FP1 47 -7.233
42 FP1 48 -6.256
42 FP1 49 -4.303
42 FP1 50 -1.373
42 FP1 51 1.068
42 FP1 52 1.556
42 FP1 53 0.580
42 FP1 54 -1.862
42 FP1 55 -4.303
42 FP1 56 -6.744
42 FP1 57 -8.209
42 FP1 58 -8.698
42 FP1 59 -8.209
42 FP1 60 -7.721
42 FP1 61 -6.256
42 FP1 62 -5.280
42 FP1 63 -4.303
42 FP1 64 -4.791
42 FP1 65 -5.280
42 FP1 66 -6.256
42 FP1 67 -6.744
42 FP1 68 -6.744
42 FP1 69 -6.744
42 FP1 70 -5.768
42 FP1 71 -5.768
42 FP1 72 -5.280
42 FP1 73 -4.791
42 FP1 74 -4.303
42 FP1 75 -3.815
42 FP1 76 -3.815
42 FP1 77 -4.303
42 FP1 78 -5.280
42 FP1 79 -6.256
42 FP1 80 -7.233
42 FP1 81 -7.721
42 FP1 82 -7.233
42 FP1 83 -6.744
42 FP1 84 -5.280
42 FP1 85 -3.815
42 FP1 86 -2.838
42 FP1 87 -1.862
42 FP1 88 -1.862
42 FP1 89 -2.350
42 FP1 90 -3.326
42 FP1 91 -3.815
42 FP1 92 -4.791
42 FP1 93 -4.303
42 FP1 94 -3.326
42 FP1 95 -1.862
42 FP1 96 -0.397
42 FP1 97 0.580
42 FP1 98 0.092
42 FP1 99 -0.885
42 FP1 100 -1.862
42 FP1 101 -2.838
42 FP1 102 -2.838
42 FP1 103 -3.326
42 FP1 104 -3.326
42 FP1 105 -3.815
42 FP1 106 -3.815
42 FP1 107 -2.838
42 FP1 108 -2.350
42 FP1 109 -1.862
42 FP1 110 -2.838
42 FP1 111 -6.256
42 FP1 112 -9.186
42 FP1 113 -11.627
42 FP1 114 -11.627
42 FP1 115 -10.162
42 FP1 116 -8.209
42 FP1 117 -6.256
42 FP1 118 -5.280
42 FP1 119 -4.791
42 FP1 120 -4.791
42 FP1 121 -5.280
42 FP1 122 -5.768
42 FP1 123 -6.256
42 FP1 124 -7.233
42 FP1 125 -8.209
42 FP1 126 -7.721
42 FP1 127 -6.256
42 FP1 128 -4.791
42 FP1 129 -4.303
42 FP1 130 -5.280
42 FP1 131 -6.744
42 FP1 132 -7.721
42 FP1 133 -8.209
42 FP1 134 -7.233
42 FP1 135 -6.744
42 FP1 136 -6.744
42 FP1 137 -7.233
42 FP1 138 -8.209
42 FP1 139 -8.698
42 FP1 140 -8.209
42 FP1 141 -7.233
42 FP1 142 -6.744
42 FP1 143 -7.233
42 FP1 144 -8.209
42 FP1 145 -9.186
42 FP1 146 -9.186
42 FP1 147 -8.698
42 FP1 148 -8.209
42 FP1 149 -7.233
42 FP1 150 -6.744
42 FP1 151 -6.256
42 FP1 152 -5.768
42 FP1 153 -5.768
42 FP1 154 -5.768
42 FP1 155 -5.768
42 FP1 156 -4.791
42 FP1 157 -4.791
42 FP1 158 -5.280
42 FP1 159 -6.256
42 FP1 160 -7.721
42 FP1 161 -9.186
42 FP1 162 -10.162
42 FP1 163 -10.651
42 FP1 164 -11.627
42 FP1 165 -12.604
42 FP1 166 -13.580
42 FP1 167 -13.580
42 FP1 168 -13.092
42 FP1 169 -11.627
42 FP1 170 -10.162
42 FP1 171 -10.162
42 FP1 172 -10.651
42 FP1 173 -12.115
42 FP1 174 -12.115
42 FP1 175 -11.139
42 FP1 176 -8.698
42 FP1 177 -6.744
42 FP1 178 -6.256
42 FP1 179 -6.744
42 FP1 180 -7.233
42 FP1 181 -7.721
42 FP1 182 -7.721
42 FP1 183 -7.233
42 FP1 184 -7.233
42 FP1 185 -8.209
42 FP1 186 -9.674
42 FP1 187 -11.139
42 FP1 188 -12.115
42 FP1 189 -11.627
42 FP1 190 -11.139
42 FP1 191 -9.674
42 FP1 192 -8.209
42 FP1 193 -6.744
42 FP1 194 -6.744
42 FP1 195 -7.233
42 FP1 196 -8.698
42 FP1 197 -10.162
42 FP1 198 -10.651
42 FP1 199 -11.139
42 FP1 200 -10.162
42 FP1 201 -9.186
42 FP1 202 -8.209
42 FP1 203 -7.721
42 FP1 204 -7.721
42 FP1 205 -8.209
42 FP1 206 -8.698
42 FP1 207 -9.674
42 FP1 208 -11.627
42 FP1 209 -13.092
42 FP1 210 -14.557
42 FP1 211 -15.533
42 FP1 212 -14.557
42 FP1 213 -12.604
42 FP1 214 -10.651
42 FP1 215 -9.186
42 FP1 216 -8.698
42 FP1 217 -7.721
42 FP1 218 -6.744
42 FP1 219 -4.791
42 FP1 220 -2.350
42 FP1 221 0.580
42 FP1 222 3.510
42 FP1 223 5.951
42 FP1 224 8.392
42 FP1 225 11.322
42 FP1 226 13.763
42 FP1 227 16.693
42 FP1 228 19.135
42 FP1 229 21.088
42 FP1 230 23.041
42 FP1 231 24.506
42 FP1 232 25.482
42 FP1 233 26.459
42 FP1 234 27.924
42 FP1 235 28.900
42 FP1 236 29.388
42 FP1 237 29.388
42 FP1 238 29.388
42 FP1 239 28.900
42 FP1 240 28.412
42 FP1 241 28.412
42 FP1 242 27.924
42 FP1 243 26.947
42 FP1 244 24.506
42 FP1 245 22.064
42 FP1 246 20.599
42 FP1 247 19.135
42 FP1 248 19.135
42 FP1 249 18.646
42 FP1 250 17.670
42 FP1 251 15.717
42 FP1 252 13.275
42 FP1 253 10.834
42 FP1 254 9.369
42 FP1 255 8.881
# FP2 chan 1
42 FP2 0 2.411
42 FP2 1 2.899
42 FP2 2 3.387
42 FP2 3 3.387
42 FP2 4 3.387
42 FP2 5 2.899
42 FP2 6 1.923
42 FP2 7 1.434
42 FP2 8 1.434
42 FP2 9 1.434
42 FP2 10 1.923
42 FP2 11 2.899
42 FP2 12 3.876
42 FP2 13 3.387
42 FP2 14 2.899
42 FP2 15 1.923
42 FP2 16 1.434
42 FP2 17 1.434
42 FP2 18 1.434
42 FP2 19 1.434
42 FP2 20 0.946
42 FP2 21 -0.519
42 FP2 22 -1.984
42 FP2 23 -1.984
42 FP2 24 -0.519
42 FP2 25 1.434
42 FP2 26 3.387
42 FP2 27 4.364
42 FP2 28 4.364
42 FP2 29 2.411
42 FP2 30 0.946
42 FP2 31 -0.519
42 FP2 32 -1.007
42 FP2 33 -1.495
42 FP2 34 -1.984
42 FP2 35 -1.984
42 FP2 36 -1.984
42 FP2 37 -1.007
42 FP2 38 -1.007
42 FP2 39 -0.519
42 FP2 40 -0.519
42 FP2 41 -1.007
42 FP2 42 -1.495
42 FP2 43 -2.472
42 FP2 44 -3.937
42 FP2 45 -5.402
42 FP2 46 -7.355
42 FP2 47 -7.843
42 FP2 48 -6.866
42 FP2 49 -4.425
42 FP2 50 -1.495
42 FP2 51 0.458
42 FP2 52 0.946
42 FP2 53 -0.519
42 FP2 54 -2.960
42 FP2 55 -5.402
42 FP2 56 -7.355
42 FP2 57 -8.820
42 FP2 58 -8.820
42 FP2 59 -8.820
42 FP2 60 -8.331
42 FP2 61 -7.355
42 FP2 62 -7.355
42 FP2 63 -6.866
42 FP2 64 -7.355
42 FP2 65 -7.355
42 FP2 66 -7.355
42 FP2 67 -7.355
42 FP2 68 -6.866
42 FP2 69 -6.866
42 FP2 70 -7.355
42 FP2 71 -7.355
42 FP2 72 -6.866
42 FP2 73 -5.890
42 FP2 74 -5.402
42 FP2 75 -4.913
42 FP2 76 -5.402
42 FP2 77 -6.378
42 FP2 78 -7.843
42 FP2 79 -8.331
42 FP2 80 -8.820
42 FP2 81 -9.308
42 FP2 82 -9.308
42 FP2 83 -9.308
42 FP2 84 -8.331
42 FP2 85 -7.355
42 FP2 86 -5.402
42 FP2 87 -4.913
42 FP2 88 -4.913
42 FP2 89 -5.890
42 FP2 90 -6.378
42 FP2 91 -6.866
42 FP2 92 -6.378
42 FP2 93 -5.890
42 FP2 94 -4.913
42 FP2 95 -4.425
42 FP2 96 -3.448
42 FP2 97 -2.960
42 FP2 98 -2.960
42 FP2 99 -3.448
42 FP2 100 -3.937
42 FP2 101 -4.425
42 FP2 102 -3.937
42 FP2 103 -3.448
42 FP2 104 -2.960
42 FP2 105 -2.472
42 FP2 106 -2.472
42 FP2 107 -2.960
42 FP2 108 -3.937
42 FP2 109 -4.913
42 FP2 110 -6.378
42 FP2 111 -8.820
42 FP2 112 -10.773
42 FP2 113 -12.238
42 FP2 114 -12.238
42 FP2 115 -10.773
42 FP2 116 -8.820
42 FP2 117 -6.378
42 FP2 118 -5.402
42 FP2 119 -4.913
42 FP2 120 -4.913
42 FP2 121 -5.402
42 FP2 122 -6.378
42 FP2 123 -6.866
42 FP2 124 -7.843
42 FP2 125 -8.331
42 FP2 126 -7.843
42 FP2 127 -6.866
42 FP2 128 -6.378
42 FP2 129 -6.378
42 FP2 130 -7.355
42 FP2 131 -8.331
42 FP2 132 -8.820
42 FP2 133 -8.331
42 FP2 134 -7.355
42 FP2 135 -7.355
42 FP2 136 -7.355
42 FP2 137 -8.820
42 FP2 138 -9.796
42 FP2 139 -10.284
42 FP2 140 -9.796
42 FP2 141 -8.820
42 FP2 142 -7.355
42 FP2 143 -7.843
42 FP2 144 -8.331
42 FP2 145 -9.308
42 FP2 146 -9.796
42 FP2 147 -9.308
42 FP2 148 -8.331
42 FP2 149 -7.355
42 FP2 150 -6.866
42 FP2 151 -6.866
42 FP2 152 -6.866
42 FP2 153 -6.866
42 FP2 154 -6.378
42 FP2 155 -5.890
42 FP2 156 -5.402
42 FP2 157 -5.890
42 FP2 158 -6.378
42 FP2 159 -7.843
42 FP2 160 -9.308
42 FP2 161 -10.773
42 FP2 162 -11.749
42 FP2 163 -12.726
42 FP2 164 -13.214
42 FP2 165 -14.191
42 FP2 166 -14.191
42 FP2 167 -13.214
42 FP2 168 -12.238
42 FP2 169 -11.261
42 FP2 170 -10.284
42 FP2 171 -10.773
42 FP2 172 -12.238
42 FP2 173 -12.726
42 FP2 174 -12.726
42 FP2 175 -11.749
42 FP2 176 -10.284
42 FP2 177 -8.820
42 FP2 178 -7.843
42 FP2 179 -8.331
42 FP2 180 -8.820
42 FP2 181 -9.796
42 FP2 182 -9.796
42 FP2 183 -10.284
42 FP2 184 -10.284
42 FP2 185 -10.773
42 FP2 186 -11.261
42 FP2 187 -11.749
42 FP2 188 -12.238
42 FP2 189 -12.238
42 FP2 190 -11.261
42 FP2 191 -9.308
42 FP2 192 -7.843
42 FP2 193 -6.378
42 FP2 194 -5.890
42 FP2 195 -6.378
42 FP2 196 -6.866
42 FP2 197 -7.843
42 FP2 198 -8.820
42 FP2 199 -9.796
42 FP2 200 -9.796
42 FP2 201 -9.796
42 FP2 202 -9.308
42 FP2 203 -9.308
42 FP2 204 -9.308
42 FP2 205 -9.796
42 FP2 206 -10.284
42 FP2 207 -10.773
42 FP2 208 -12.238
42 FP2 209 -14.191
42 FP2 210 -15.167
42 FP2 211 -15.167
42 FP2 212 -13.702
42 FP2 213 -10.773
42 FP2 214 -8.331
42 FP2 215 -6.866
42 FP2 216 -6.866
42 FP2 217 -6.866
42 FP2 218 -5.402
42 FP2 219 -3.448
42 FP2 220 -0.031
42 FP2 221 2.899
42 FP2 222 4.852
42 FP2 223 7.294
42 FP2 224 9.735
42 FP2 225 13.153
42 FP2 226 16.571
42 FP2 227 19.989
42 FP2 228 22.430
42 FP2 229 23.895
42 FP2 230 25.848
42 FP2 231 27.802
42 FP2 232 30.243
42 FP2 233 32.196
42 FP2 234 33.661
42 FP2 235 34.149
42 FP2 236 34.149
42 FP2 237 33.661
42 FP2 238 33.173
42 FP2 239 32.684
42 FP2 240 32.196
42 FP2 241 31.708
42 FP2 242 31.219
42 FP2 243 30.243
42 FP2 244 29.266
42 FP2 245 26.825
42 FP2 246 24.384
42 FP2 247 21.454
42 FP2 248 19.989
42 FP2 249 19.501
42 FP2 250 19.989
42 FP2 251 19.501
42 FP2 252 18.036
42 FP2 253 15.594
42 FP2 254 12.665
42 FP2 255 10.712
# F7 chan 2
42 F7 0 3.703
42 F7 1 4.191
42 F7 2 3.703
42 F7 3 3.703
42 F7 4 4.679
42 F7 5 5.656
42 F7 6 6.144
42 F7 7 5.168
42 F7 8 4.191
42 F7 9 3.215
42 F7 10 3.703
42 F7 11 5.168
42 F7 12 6.144
42 F7 13 5.656
42 F7 14 4.191
42 F7 15 2.238
42 F7 16 1.750
42 F7 17 2.726
42 F7 18 4.679
42 F7 19 5.656
42 F7 20 5.168
42 F7 21 3.703
42 F7 22 2.726
42 F7 23 2.726
42 F7 24 3.703
42 F7 25 5.656
42 F7 26 6.144
42 F7 27 6.144
42 F7 28 5.168
42 F7 29 4.191
42 F7 30 3.703
42 F7 31 3.215
42 F7 32 2.726
42 F7 33 1.261
42 F7 34 -0.203
42 F7 35 -1.180
42 F7 36 -1.668
42 F7 37 -0.692
42 F7 38 1.261
42 F7 39 1.750
42 F7 40 2.238
42 F7 41 2.238
42 F7 42 1.750
42 F7 43 0.773
42 F7 44 -0.692
42 F7 45 -2.645
42 F7 46 -4.598
42 F7 47 -5.086
42 F7 48 -4.110
42 F7 49 -2.157
42 F7 50 0.773
42 F7 51 2.238
42 F7 52 2.726
42 F7 53 2.238
42 F7 54 1.261
42 F7 55 -1.180
42 F7 56 -3.133
42 F7 57 -5.086
42 F7 58 -6.551
42 F7 59 -7.039
42 F7 60 -5.575
42 F7 61 -3.621
42 F7 62 -1.668
42 F7 63 -0.692
42 F7 64 -1.668
42 F7 65 -2.645
42 F7 66 -3.621
42 F7 67 -3.621
42 F7 68 -3.133
42 F7 69 -2.645
42 F7 70 -2.157
42 F7 71 -1.668
42 F7 72 -1.668
42 F7 73 -0.692
42 F7 74 0.285
42 F7 75 1.261
42 F7 76 1.261
42 F7 77 0.773
42 F7 78 -0.203
42 F7 79 -1.180
42 F7 80 -1.180
42 F7 81 -0.692
42 F7 82 0.285
42 F7 83 1.261
42 F7 84 2.238
42 F7 85 3.215
42 F7 86 3.703
42 F7 87 4.679
42 F7 88 5.168
42 F7 89 5.168
42 F7 90 4.679
42 F7 91 4.191
42 F7 92 4.191
42 F7 93 4.679
42 F7 94 6.144
42 F7 95 7.609
42 F7 96 9.074
42 F7 97 9.074
42 F7 98 8.097
42 F7 99 7.121
42 F7 100 6.632
42 F7 101 6.144
42 F7 102 5.656
42 F7 103 4.679
42 F7 104 3.215
42 F7 105 2.238
42 F7 106 2.238
42 F7 107 4.191
42 F7 108 6.144
42 F7 109 7.121
42 F7 110 6.144
42 F7 111 2.238
42 F7 112 -1.668
42 F7 113 -5.575
42 F7 114 -7.039
42 F7 115 -5.575
42 F7 116 -2.645
42 F7 117 0.773
42 F7 118 3.215
42 F7 119 5.168
42 F7 120 5.168
42 F7 121 4.191
42 F7 122 2.726
42 F7 123 1.261
42 F7 124 -0.203
42 F7 125 -0.692
42 F7 126 -0.692
42 F7 127 0.285
42 F7 128 1.261
42 F7 129 1.750
42 F7 130 1.750
42 F7 131 1.261
42 F7 132 0.285
42 F7 133 -0.203
42 F7 134 0.285
42 F7 135 0.285
42 F7 136 0.285
42 F7 137 -0.203
42 F7 138 -0.692
42 F7 139 -1.668
42 F7 140 -1.180
42 F7 141 -0.692
42 F7 142 0.773
42 F7 143 1.261
42 F7 144 1.261
42 F7 145 1.261
42 F7 146 1.261
42 F7 147 1.750
42 F7 148 2.238
42 F7 149 3.215
42 F7 150 3.703
42 F7 151 3.215
42 F7 152 2.238
42 F7 153 1.261
42 F7 154 1.261
42 F7 155 1.750
42 F7 156 2.726
42 F7 157 3.215
42 F7 158 3.215
42 F7 159 2.238
42 F7 160 0.773
42 F7 161 0.285
42 F7 162 0.285
42 F7 163 0.773
42 F7 164 -0.203
42 F7 165 -1.668
42 F7 166 -4.110
42 F7 167 -5.086
42 F7 168 -4.110
42 F7 169 -1.668
42 F7 170 -0.203
42 F7 171 -0.203
42 F7 172 -1.668
42 F7 173 -3.621
42 F7 174 -4.110
42 F7 175 -3.133
42 F7 176 -1.180
42 F7 177 -0.203
42 F7 178 -0.692
42 F7 179 -2.157
42 F7 180 -3.133
42 F7 181 -2.645
42 F7 182 -0.203
42 F7 183 2.238
42 F7 184 3.703
42 F7 185 3.215
42 F7 186 1.261
42 F7 187 -1.668
42 F7 188 -2.645
42 F7 189 -3.133
42 F7 190 -2.645
42 F7 191 -1.668
42 F7 192 -1.180
42 F7 193 -0.692
42 F7 194 -0.692
42 F7 195 -0.203
42 F7 196 -0.692
42 F7 197 -1.180
42 F7 198 -1.668
42 F7 199 -1.668
42 F7 200 -1.180
42 F7 201 -0.203
42 F7 202 0.285
42 F7 203 0.773
42 F7 204 -0.203
42 F7 205 -1.180
42 F7 206 -2.157
42 F7 207 -2.645
42 F7 208 -3.621
42 F7 209 -4.598
42 F7 210 -6.063
42 F7 211 -7.528
42 F7 212 -8.016
42 F7 213 -8.016
42 F7 214 -7.528
42 F7 215 -6.551
42 F7 216 -5.086
42 F7 217 -3.621
42 F7 218 -2.157
42 F7 219 -0.692
42 F7 220 0.285
42 F7 221 2.238
42 F7 222 3.215
42 F7 223 4.191
42 F7 224 5.168
42 F7 225 5.656
42 F7 226 7.121
42 F7 227 9.074
42 F7 228 11.027
42 F7 229 12.492
42 F7 230 12.980
42 F7 231 12.492
42 F7 232 11.027
42 F7 233 10.539
42 F7 234 12.004
42 F7 235 13.957
42 F7 236 15.910
42 F7 237 17.863
42 F7 238 18.840
42 F7 239 19.328
42 F7 240 19.816
42 F7 241 19.816
42 F7 242 19.328
42 F7 243 17.863
42 F7 244 15.910
42 F7 245 14.445
42 F7 246 14.445
42 F7 247 14.445
42 F7 248 14.933
42 F7 249 13.957
42 F7 250 11.515
42 F7 251 9.562
42 F7 252 7.609
42 F7 253 6.632
42 F7 254 6.144
42 F7 255 5.656
# F8 chan 3
42 F8 0 5.351
42 F8 1 6.816
42 F8 2 6.816
42 F8 3 6.327
42 F8 4 5.839
42 F8 5 5.351
42 F8 6 5.351
42 F8 7 5.351
42 F8 8 5.839
42 F8 9 6.327
42 F8 10 6.816
42 F8 11 7.304
42 F8 12 5.839
42 F8 13 4.374
42 F8 14 2.909
42 F8 15 1.933
42 F8 16 2.421
42 F8 17 3.398
42 F8 18 4.374
42 F8 19 4.862
42 F8 20 4.374
42 F8 21 2.909
42 F8 22 1.444
42 F8 23 0.956
42 F8 24 1.444
42 F8 25 2.909
42 F8 26 4.862
42 F8 27 5.839
42 F8 28 6.327
42 F8 29 4.862
42 F8 30 3.398
42 F8 31 1.444
42 F8 32 -0.020
42 F8 33 -0.020
42 F8 34 -0.020
42 F8 35 0.956
42 F8 36 0.956
42 F8 37 0.468
42 F8 38 -0.997
42 F8 39 -2.462
42 F8 40 -2.462
42 F8 41 -2.462
42 F8 42 -1.485
42 F8 43 -1.485
42 F8 44 -1.973
42 F8 45 -3.438
42 F8 46 -4.415
42 F8 47 -3.927
42 F8 48 -2.950
42 F8 49 -0.997
42 F8 50 -0.020
42 F8 51 0.468
42 F8 52 -0.020
42 F8 53 -1.485
42 F8 54 -3.438
42 F8 55 -4.415
42 F8 56 -5.391
42 F8 57 -5.880
42 F8 58 -6.368
42 F8 59 -6.856
42 F8 60 -7.345
42 F8 61 -7.833
42 F8 62 -7.833
42 F8 63 -7.345
42 F8 64 -6.856
42 F8 65 -5.391
42 F8 66 -3.927
42 F8 67 -2.950
42 F8 68 -2.462
42 F8 69 -2.950
42 F8 70 -3.927
42 F8 71 -4.415
42 F8 72 -4.415
42 F8 73 -3.438
42 F8 74 -2.462
42 F8 75 -1.485
42 F8 76 -2.462
42 F8 77 -3.927
42 F8 78 -5.391
42 F8 79 -6.368
42 F8 80 -6.368
42 F8 81 -5.391
42 F8 82 -4.903
42 F8 83 -4.415
42 F8 84 -3.927
42 F8 85 -3.927
42 F8 86 -3.438
42 F8 87 -3.438
42 F8 88 -2.950
42 F8 89 -2.950
42 F8 90 -2.950
42 F8 91 -2.462
42 F8 92 -2.462
42 F8 93 -1.973
42 F8 94 -1.485
42 F8 95 -0.997
42 F8 96 -0.509
42 F8 97 0.468
42 F8 98 0.956
42 F8 99 1.444
42 F8 100 1.444
42 F8 101 1.444
42 F8 102 1.933
42 F8 103 2.421
42 F8 104 3.886
42 F8 105 4.374
42 F8 106 3.886
42 F8 107 2.421
42 F8 108 0.468
42 F8 109 -1.485
42 F8 110 -3.927
42 F8 111 -5.391
42 F8 112 -6.856
42 F8 113 -7.345
42 F8 114 -6.368
42 F8 115 -4.415
42 F8 116 -1.485
42 F8 117 0.956
42 F8 118 2.421
42 F8 119 2.909
42 F8 120 2.421
42 F8 121 1.444
42 F8 122 1.444
42 F8 123 0.468
42 F8 124 -0.997
42 F8 125 -2.462
42 F8 126 -2.950
42 F8 127 -2.462
42 F8 128 -1.973
42 F8 129 -0.997
42 F8 130 -1.485
42 F8 131 -1.973
42 F8 132 -2.950
42 F8 133 -3.438
42 F8 134 -3.438
42 F8 135 -3.438
42 F8 136 -3.927
42 F8 137 -4.903
42 F8 138 -5.391
42 F8 139 -4.903
42 F8 140 -3.927
42 F8 141 -1.485
42 F8 142 0.956
42 F8 143 1.933
42 F8 144 1.933
42 F8 145 0.956
42 F8 146 -0.509
42 F8 147 -0.997
42 F8 148 -0.997
42 F8 149 -0.509
42 F8 150 0.956
42 F8 151 1.444
42 F8 152 1.444
42 F8 153 1.444
42 F8 154 0.956
42 F8 155 0.956
42 F8 156 0.956
42 F8 157 0.956
42 F8 158 -0.509
42 F8 159 -1.485
42 F8 160 -2.950
42 F8 161 -3.438
42 F8 162 -3.438
42 F8 163 -2.950
42 F8 164 -2.462
42 F8 165 -2.950
42 F8 166 -3.927
42 F8 167 -3.927
42 F8 168 -2.950
42 F8 169 -1.485
42 F8 170 -0.020
42 F8 171 -0.509
42 F8 172 -1.485
42 F8 173 -3.438
42 F8 174 -4.415
42 F8 175 -4.415
42 F8 176 -3.438
42 F8 177 -1.973
42 F8 178 -1.485
42 F8 179 -1.973
42 F8 180 -2.462
42 F8 181 -2.950
42 F8 182 -2.950
42 F8 183 -2.950
42 F8 184 -2.950
42 F8 185 -3.438
42 F8 186 -3.438
42 F8 187 -3.438
42 F8 188 -3.438
42 F8 189 -2.462
42 F8 190 -0.997
42 F8 191 1.444
42 F8 192 3.398
42 F8 193 5.351
42 F8 194 5.839
42 F8 195 5.351
42 F8 196 4.374
42 F8 197 2.909
42 F8 198 1.933
42 F8 199 0.956
42 F8 200 -0.020
42 F8 201 -0.020
42 F8 202 -0.020
42 F8 203 -0.020
42 F8 204 -0.020
42 F8 205 -0.509
42 F8 206 -1.485
42 F8 207 -2.462
42 F8 208 -3.438
42 F8 209 -4.415
42 F8 210 -3.927
42 F8 211 -2.462
42 F8 212 -0.020
42 F8 213 2.421
42 F8 214 4.374
42 F8 215 4.374
42 F8 216 3.398
42 F8 217 2.909
42 F8 218 2.909
42 F8 219 3.886
42 F8 220 5.351
42 F8 221 6.327
42 F8 222 7.304
42 F8 223 8.280
42 F8 224 10.234
42 F8 225 12.187
42 F8 226 13.652
42 F8 227 15.116
42 F8 228 14.140
42 F8 229 13.652
42 F8 230 14.628
42 F8 231 16.093
42 F8 232 18.046
42 F8 233 19.999
42 F8 234 20.976
42 F8 235 20.976
42 F8 236 20.976
42 F8 237 20.487
42 F8 238 19.999
42 F8 239 19.023
42 F8 240 18.534
42 F8 241 19.023
42 F8 242 19.999
42 F8 243 20.976
42 F8 244 20.487
42 F8 245 19.023
42 F8 246 16.093
42 F8 247 14.140
42 F8 248 13.163
42 F8 249 14.628
42 F8 250 16.093
42 F8 251 16.093
42 F8 252 14.628
42 F8 253 12.675
42 F8 254 11.210
42 F8 255 10.234
# AF1 chan 4
42 AF1 0 1.750
42 AF1 1 2.238
42 AF1 2 2.238
42 AF1 3 1.750
42 AF1 4 2.238
42 AF1 5 2.238
42 AF1 6 2.726
42 AF1 7 2.238
42 AF1 8 2.238
42 AF1 9 1.750
42 AF1 10 2.238
42 AF1 11 2.726
42 AF1 12 3.215
42 AF1 13 3.703
42 AF1 14 2.726
42 AF1 15 2.726
42 AF1 16 2.726
42 AF1 17 2.726
42 AF1 18 3.215
42 AF1 19 2.726
42 AF1 20 1.750
42 AF1 21 0.773
42 AF1 22 0.285
42 AF1 23 0.773
42 AF1 24 1.750
42 AF1 25 2.726
42 AF1 26 4.191
42 AF1 27 4.191
42 AF1 28 3.703
42 AF1 29 2.238
42 AF1 30 1.750
42 AF1 31 0.285
42 AF1 32 0.285
42 AF1 33 -0.203
42 AF1 34 -0.203
42 AF1 35 -0.203
42 AF1 36 -0.203
42 AF1 37 0.285
42 AF1 38 0.773
42 AF1 39 1.261
42 AF1 40 1.261
42 AF1 41 0.773
42 AF1 42 0.773
42 AF1 43 -0.203
42 AF1 44 -1.180
42 AF1 45 -2.645
42 AF1 46 -4.110
42 AF1 47 -4.598
42 AF1 48 -4.110
42 AF1 49 -2.157
42 AF1 50 0.773
42 AF1 51 2.726
42 AF1 52 3.215
42 AF1 53 1.750
42 AF1 54 -0.692
42 AF1 55 -3.133
42 AF1 56 -4.598
42 AF1 57 -5.575
42 AF1 58 -5.086
42 AF1 59 -5.086
42 AF1 60 -4.598
42 AF1 61 -4.110
42 AF1 62 -3.133
42 AF1 63 -2.645
42 AF1 64 -2.645
42 AF1 65 -3.133
42 AF1 66 -3.621
42 AF1 67 -3.621
42 AF1 68 -3.621
42 AF1 69 -3.621
42 AF1 70 -3.133
42 AF1 71 -3.133
42 AF1 72 -2.645
42 AF1 73 -2.645
42 AF1 74 -2.157
42 AF1 75 -1.668
42 AF1 76 -2.157
42 AF1 77 -2.645
42 AF1 78 -3.133
42 AF1 79 -4.110
42 AF1 80 -4.110
42 AF1 81 -4.598
42 AF1 82 -4.598
42 AF1 83 -4.598
42 AF1 84 -3.621
42 AF1 85 -2.645
42 AF1 86 -1.668
42 AF1 87 -0.692
42 AF1 88 -0.692
42 AF1 89 -1.180
42 AF1 90 -1.668
42 AF1 91 -2.157
42 AF1 92 -2.645
42 AF1 93 -2.645
42 AF1 94 -2.157
42 AF1 95 -0.692
42 AF1 96 0.285
42 AF1 97 1.261
42 AF1 98 0.773
42 AF1 99 -0.203
42 AF1 100 -1.180
42 AF1 101 -2.157
42 AF1 102 -2.645
42 AF1 103 -2.645
42 AF1 104 -2.645
42 AF1 105 -2.645
42 AF1 106 -2.157
42 AF1 107 -2.157
42 AF1 108 -1.668
42 AF1 109 -1.668
42 AF1 110 -2.157
42 AF1 111 -4.110
42 AF1 112 -6.063
42 AF1 113 -7.528
42 AF1 114 -8.016
42 AF1 115 -7.039
42 AF1 116 -6.063
42 AF1 117 -4.598
42 AF1 118 -4.110
42 AF1 119 -3.621
42 AF1 120 -3.621
42 AF1 121 -4.110
42 AF1 122 -4.110
42 AF1 123 -4.598
42 AF1 124 -4.598
42 AF1 125 -4.598
42 AF1 126 -3.621
42 AF1 127 -2.157
42 AF1 128 -1.668
42 AF1 129 -1.668
42 AF1 130 -2.645
42 AF1 131 -3.621
42 AF1 132 -4.598
42 AF1 133 -4.598
42 AF1 134 -4.110
42 AF1 135 -3.621
42 AF1 136 -3.621
42 AF1 137 -4.110
42 AF1 138 -5.086
42 AF1 139 -6.063
42 AF1 140 -6.063
42 AF1 141 -6.063
42 AF1 142 -6.063
42 AF1 143 -6.551
42 AF1 144 -6.551
42 AF1 145 -7.039
42 AF1 146 -6.551
42 AF1 147 -6.063
42 AF1 148 -5.575
42 AF1 149 -5.086
42 AF1 150 -5.086
42 AF1 151 -4.598
42 AF1 152 -4.598
42 AF1 153 -4.598
42 AF1 154 -4.110
42 AF1 155 -3.621
42 AF1 156 -3.621
42 AF1 157 -3.133
42 AF1 158 -3.133
42 AF1 159 -3.621
42 AF1 160 -5.086
42 AF1 161 -6.063
42 AF1 162 -7.039
42 AF1 163 -7.528
42 AF1 164 -8.016
42 AF1 165 -8.993
42 AF1 166 -9.481
42 AF1 167 -9.481
42 AF1 168 -8.016
42 AF1 169 -6.063
42 AF1 170 -5.086
42 AF1 171 -5.086
42 AF1 172 -6.063
42 AF1 173 -7.528
42 AF1 174 -7.528
42 AF1 175 -6.063
42 AF1 176 -4.110
42 AF1 177 -2.645
42 AF1 178 -2.157
42 AF1 179 -2.645
42 AF1 180 -3.133
42 AF1 181 -3.133
42 AF1 182 -2.645
42 AF1 183 -2.157
42 AF1 184 -3.133
42 AF1 185 -4.110
42 AF1 186 -5.575
42 AF1 187 -6.551
42 AF1 188 -7.528
42 AF1 189 -7.528
42 AF1 190 -7.039
42 AF1 191 -6.063
42 AF1 192 -5.086
42 AF1 193 -3.621
42 AF1 194 -3.133
42 AF1 195 -3.621
42 AF1 196 -5.086
42 AF1 197 -6.551
42 AF1 198 -7.528
42 AF1 199 -7.528
42 AF1 200 -6.551
42 AF1 201 -5.575
42 AF1 202 -4.598
42 AF1 203 -4.110
42 AF1 204 -4.598
42 AF1 205 -5.086
42 AF1 206 -5.575
42 AF1 207 -6.063
42 AF1 208 -7.039
42 AF1 209 -8.504
42 AF1 210 -9.969
42 AF1 211 -10.946
42 AF1 212 -10.457
42 AF1 213 -9.969
42 AF1 214 -8.504
42 AF1 215 -8.016
42 AF1 216 -7.528
42 AF1 217 -7.039
42 AF1 218 -6.063
42 AF1 219 -5.086
42 AF1 220 -3.621
42 AF1 221 -1.668
42 AF1 222 0.285
42 AF1 223 2.238
42 AF1 224 4.191
42 AF1 225 5.656
42 AF1 226 7.121
42 AF1 227 8.586
42 AF1 228 10.539
42 AF1 229 12.004
42 AF1 230 13.468
42 AF1 231 14.445
42 AF1 232 14.933
42 AF1 233 15.422
42 AF1 234 15.422
42 AF1 235 16.398
42 AF1 236 16.886
42 AF1 237 17.375
42 AF1 238 17.375
42 AF1 239 16.398
42 AF1 240 15.422
42 AF1 241 14.445
42 AF1 242 14.445
42 AF1 243 14.445
42 AF1 244 14.445
42 AF1 245 13.468
42 AF1 246 12.004
42 AF1 247 10.050
42 AF1 248 9.074
42 AF1 249 8.097
42 AF1 250 8.097
42 AF1 251 7.609
42 AF1 252 6.632
42 AF1 253 5.656
42 AF1 254 4.191
42 AF1 255 3.215
# AF2 chan 5
42 AF2 0 2.391
42 AF2 1 2.391
42 AF2 2 2.391
42 AF2 3 2.879
42 AF2 4 2.879
42 AF2 5 2.879
42 AF2 6 2.879
42 AF2 7 2.391
42 AF2 8 1.902
42 AF2 9 1.902
42 AF2 10 2.391
42 AF2 11 3.367
42 AF2 12 4.344
42 AF2 13 4.344
42 AF2 14 3.367
42 AF2 15 2.879
42 AF2 16 2.391
42 AF2 17 2.391
42 AF2 18 2.879
42 AF2 19 2.879
42 AF2 20 1.902
42 AF2 21 0.926
42 AF2 22 -0.051
42 AF2 23 -0.051
42 AF2 24 0.926
42 AF2 25 2.879
42 AF2 26 4.344
42 AF2 27 5.320
42 AF2 28 4.832
42 AF2 29 3.855
42 AF2 30 2.391
42 AF2 31 1.414
42 AF2 32 0.437
42 AF2 33 -0.051
42 AF2 34 0.437
42 AF2 35 0.437
42 AF2 36 0.926
42 AF2 37 1.414
42 AF2 38 1.414
42 AF2 39 1.414
42 AF2 40 0.926
42 AF2 41 0.926
42 AF2 42 0.437
42 AF2 43 0.437
42 AF2 44 -0.539
42 AF2 45 -2.004
42 AF2 46 -3.469
42 AF2 47 -3.957
42 AF2 48 -2.492
42 AF2 49 -0.539
42 AF2 50 1.902
42 AF2 51 2.879
42 AF2 52 3.367
42 AF2 53 1.902
42 AF2 54 -0.051
42 AF2 55 -2.004
42 AF2 56 -3.469
42 AF2 57 -3.957
42 AF2 58 -3.957
42 AF2 59 -3.957
42 AF2 60 -3.957
42 AF2 61 -3.469
42 AF2 62 -2.981
42 AF2 63 -2.492
42 AF2 64 -2.492
42 AF2 65 -2.492
42 AF2 66 -2.981
42 AF2 67 -2.981
42 AF2 68 -2.492
42 AF2 69 -2.492
42 AF2 70 -2.492
42 AF2 71 -2.492
42 AF2 72 -2.492
42 AF2 73 -2.004
42 AF2 74 -1.516
42 AF2 75 -1.027
42 AF2 76 -1.027
42 AF2 77 -2.004
42 AF2 78 -2.981
42 AF2 79 -3.957
42 AF2 80 -4.445
42 AF2 81 -4.445
42 AF2 82 -4.445
42 AF2 83 -3.469
42 AF2 84 -3.469
42 AF2 85 -2.981
42 AF2 86 -2.004
42 AF2 87 -1.516
42 AF2 88 -1.027
42 AF2 89 -1.027
42 AF2 90 -1.027
42 AF2 91 -1.516
42 AF2 92 -2.004
42 AF2 93 -2.004
42 AF2 94 -1.516
42 AF2 95 -1.027
42 AF2 96 -0.051
42 AF2 97 0.437
42 AF2 98 -0.051
42 AF2 99 -0.539
42 AF2 100 -1.027
42 AF2 101 -1.516
42 AF2 102 -1.516
42 AF2 103 -1.027
42 AF2 104 -0.539
42 AF2 105 -0.539
42 AF2 106 -1.027
42 AF2 107 -1.027
42 AF2 108 -2.004
42 AF2 109 -2.492
42 AF2 110 -3.469
42 AF2 111 -4.445
42 AF2 112 -5.910
42 AF2 113 -6.887
42 AF2 114 -7.375
42 AF2 115 -6.399
42 AF2 116 -5.422
42 AF2 117 -3.957
42 AF2 118 -3.469
42 AF2 119 -2.981
42 AF2 120 -3.469
42 AF2 121 -3.957
42 AF2 122 -3.957
42 AF2 123 -4.445
42 AF2 124 -3.957
42 AF2 125 -3.469
42 AF2 126 -2.981
42 AF2 127 -2.004
42 AF2 128 -1.516
42 AF2 129 -2.004
42 AF2 130 -2.492
42 AF2 131 -3.469
42 AF2 132 -3.957
42 AF2 133 -3.957
42 AF2 134 -3.469
42 AF2 135 -3.469
42 AF2 136 -3.957
42 AF2 137 -4.934
42 AF2 138 -5.910
42 AF2 139 -6.399
42 AF2 140 -5.910
42 AF2 141 -5.422
42 AF2 142 -4.934
42 AF2 143 -4.934
42 AF2 144 -5.422
42 AF2 145 -5.910
42 AF2 146 -5.910
42 AF2 147 -5.910
42 AF2 148 -5.422
42 AF2 149 -4.445
42 AF2 150 -4.445
42 AF2 151 -3.957
42 AF2 152 -3.957
42 AF2 153 -3.469
42 AF2 154 -3.469
42 AF2 155 -2.981
42 AF2 156 -2.492
42 AF2 157 -2.492
42 AF2 158 -2.981
42 AF2 159 -3.957
42 AF2 160 -5.422
42 AF2 161 -6.399
42 AF2 162 -7.375
42 AF2 163 -8.352
42 AF2 164 -8.840
42 AF2 165 -9.328
42 AF2 166 -9.328
42 AF2 167 -8.352
42 AF2 168 -6.887
42 AF2 169 -5.910
42 AF2 170 -4.934
42 AF2 171 -4.934
42 AF2 172 -5.910
42 AF2 173 -6.887
42 AF2 174 -7.375
42 AF2 175 -6.399
42 AF2 176 -4.445
42 AF2 177 -2.981
42 AF2 178 -2.492
42 AF2 179 -2.492
42 AF2 180 -2.981
42 AF2 181 -3.469
42 AF2 182 -3.957
42 AF2 183 -3.957
42 AF2 184 -4.445
42 AF2 185 -5.422
42 AF2 186 -6.399
42 AF2 187 -7.375
42 AF2 188 -7.863
42 AF2 189 -7.863
42 AF2 190 -7.375
42 AF2 191 -5.910
42 AF2 192 -4.445
42 AF2 193 -2.981
42 AF2 194 -2.492
42 AF2 195 -2.492
42 AF2 196 -3.469
42 AF2 197 -4.934
42 AF2 198 -6.399
42 AF2 199 -6.887
42 AF2 200 -6.887
42 AF2 201 -5.910
42 AF2 202 -5.422
42 AF2 203 -4.445
42 AF2 204 -4.445
42 AF2 205 -4.934
42 AF2 206 -5.422
42 AF2 207 -6.399
42 AF2 208 -7.375
42 AF2 209 -8.352
42 AF2 210 -9.816
42 AF2 211 -10.305
42 AF2 212 -9.816
42 AF2 213 -8.352
42 AF2 214 -6.887
42 AF2 215 -5.910
42 AF2 216 -5.422
42 AF2 217 -5.422
42 AF2 218 -5.422
42 AF2 219 -4.445
42 AF2 220 -2.981
42 AF2 221 -1.516
42 AF2 222 0.437
42 AF2 223 2.391
42 AF2 224 3.855
42 AF2 225 5.809
42 AF2 226 7.762
42 AF2 227 9.715
42 AF2 228 11.180
42 AF2 229 13.133
42 AF2 230 14.109
42 AF2 231 14.598
42 AF2 232 16.062
42 AF2 233 16.551
42 AF2 234 17.039
42 AF2 235 17.527
42 AF2 236 17.527
42 AF2 237 17.527
42 AF2 238 17.039
42 AF2 239 16.062
42 AF2 240 15.574
42 AF2 241 15.086
42 AF2 242 15.574
42 AF2 243 15.574
42 AF2 244 15.086
42 AF2 245 14.109
42 AF2 246 11.668
42 AF2 247 10.203
42 AF2 248 9.226
42 AF2 249 8.738
42 AF2 250 8.738
42 AF2 251 8.738
42 AF2 252 7.762
42 AF2 253 6.297
42 AF2 254 5.320
42 AF2 255 4.344
# FZ chan 6
42 FZ 0 1.455
42 FZ 1 1.455
42 FZ 2 1.943
42 FZ 3 1.943
42 FZ 4 1.943
42 FZ 5 2.431
42 FZ 6 2.431
42 FZ 7 1.943
42 FZ 8 1.455
42 FZ 9 1.943
42 FZ 10 2.431
42 FZ 11 2.920
42 FZ 12 3.408
42 FZ 13 3.408
42 FZ 14 2.920
42 FZ 15 2.920
42 FZ 16 2.431
42 FZ 17 2.920
42 FZ 18 2.920
42 FZ 19 2.920
42 FZ 20 1.943
42 FZ 21 1.455
42 FZ 22 1.455
42 FZ 23 1.943
42 FZ 24 2.920
42 FZ 25 3.896
42 FZ 26 4.873
42 FZ 27 4.873
42 FZ 28 4.384
42 FZ 29 3.896
42 FZ 30 2.920
42 FZ 31 1.943
42 FZ 32 1.455
42 FZ 33 1.455
42 FZ 34 1.455
42 FZ 35 1.455
42 FZ 36 1.943
42 FZ 37 2.431
42 FZ 38 2.920
42 FZ 39 2.920
42 FZ 40 2.431
42 FZ 41 1.943
42 FZ 42 1.943
42 FZ 43 1.455
42 FZ 44 0.966
42 FZ 45 -0.010
42 FZ 46 -0.987
42 FZ 47 -1.475
42 FZ 48 -0.987
42 FZ 49 0.966
42 FZ 50 2.920
42 FZ 51 3.896
42 FZ 52 4.384
42 FZ 53 3.408
42 FZ 54 1.455
42 FZ 55 -0.010
42 FZ 56 -0.987
42 FZ 57 -1.963
42 FZ 58 -1.475
42 FZ 59 -1.963
42 FZ 60 -1.475
42 FZ 61 -0.498
42 FZ 62 -0.010
42 FZ 63 0.478
42 FZ 64 0.966
42 FZ 65 0.478
42 FZ 66 -0.010
42 FZ 67 -0.498
42 FZ 68 -0.498
42 FZ 69 -0.498
42 FZ 70 -0.010
42 FZ 71 -0.010
42 FZ 72 -0.010
42 FZ 73 -0.010
42 FZ 74 -0.010
42 FZ 75 0.478
42 FZ 76 0.966
42 FZ 77 0.478
42 FZ 78 -0.498
42 FZ 79 -0.987
42 FZ 80 -1.475
42 FZ 81 -1.963
42 FZ 82 -1.475
42 FZ 83 -0.987
42 FZ 84 -0.498
42 FZ 85 -0.498
42 FZ 86 -0.010
42 FZ 87 0.478
42 FZ 88 1.455
42 FZ 89 1.455
42 FZ 90 0.966
42 FZ 91 0.478
42 FZ 92 -0.010
42 FZ 93 -0.498
42 FZ 94 -0.498
42 FZ 95 0.478
42 FZ 96 0.966
42 FZ 97 1.455
42 FZ 98 1.943
42 FZ 99 1.455
42 FZ 100 0.478
42 FZ 101 -0.010
42 FZ 102 -0.010
42 FZ 103 -0.498
42 FZ 104 -0.498
42 FZ 105 -0.010
42 FZ 106 -0.010
42 FZ 107 -0.010
42 FZ 108 -0.010
42 FZ 109 -0.010
42 FZ 110 -0.987
42 FZ 111 -1.963
42 FZ 112 -2.940
42 FZ 113 -3.428
42 FZ 114 -3.916
42 FZ 115 -3.428
42 FZ 116 -2.940
42 FZ 117 -2.452
42 FZ 118 -1.963
42 FZ 119 -1.475
42 FZ 120 -1.963
42 FZ 121 -1.963
42 FZ 122 -1.963
42 FZ 123 -1.963
42 FZ 124 -0.987
42 FZ 125 -0.010
42 FZ 126 0.966
42 FZ 127 1.455
42 FZ 128 1.943
42 FZ 129 1.455
42 FZ 130 0.478
42 FZ 131 -0.010
42 FZ 132 -0.498
42 FZ 133 -0.987
42 FZ 134 -0.987
42 FZ 135 -0.987
42 FZ 136 -1.475
42 FZ 137 -1.963
42 FZ 138 -2.452
42 FZ 139 -2.940
42 FZ 140 -3.428
42 FZ 141 -3.428
42 FZ 142 -3.428
42 FZ 143 -3.428
42 FZ 144 -3.916
42 FZ 145 -3.916
42 FZ 146 -3.916
42 FZ 147 -3.428
42 FZ 148 -2.940
42 FZ 149 -2.452
42 FZ 150 -2.452
42 FZ 151 -2.452
42 FZ 152 -2.452
42 FZ 153 -2.452
42 FZ 154 -1.963
42 FZ 155 -1.475
42 FZ 156 -0.987
42 FZ 157 -0.498
42 FZ 158 -0.987
42 FZ 159 -1.475
42 FZ 160 -1.963
42 FZ 161 -2.940
42 FZ 162 -3.428
42 FZ 163 -3.916
42 FZ 164 -4.893
42 FZ 165 -5.870
42 FZ 166 -5.870
42 FZ 167 -5.381
42 FZ 168 -3.916
42 FZ 169 -2.452
42 FZ 170 -1.475
42 FZ 171 -1.475
42 FZ 172 -2.452
42 FZ 173 -2.940
42 FZ 174 -2.940
42 FZ 175 -1.963
42 FZ 176 -0.498
42 FZ 177 0.478
42 FZ 178 1.455
42 FZ 179 1.455
42 FZ 180 1.455
42 FZ 181 1.455
42 FZ 182 0.966
42 FZ 183 0.478
42 FZ 184 -0.010
42 FZ 185 -0.987
42 FZ 186 -1.963
42 FZ 187 -2.452
42 FZ 188 -2.940
42 FZ 189 -3.428
42 FZ 190 -3.428
42 FZ 191 -2.452
42 FZ 192 -1.475
42 FZ 193 -0.010
42 FZ 194 0.478
42 FZ 195 0.478
42 FZ 196 -0.987
42 FZ 197 -2.452
42 FZ 198 -3.428
42 FZ 199 -3.916
42 FZ 200 -2.940
42 FZ 201 -1.963
42 FZ 202 -0.987
42 FZ 203 -0.010
42 FZ 204 -0.498
42 FZ 205 -0.498
42 FZ 206 -1.475
42 FZ 207 -1.963
42 FZ 208 -2.940
42 FZ 209 -4.405
42 FZ 210 -5.381
42 FZ 211 -6.358
42 FZ 212 -6.358
42 FZ 213 -5.870
42 FZ 214 -4.893
42 FZ 215 -3.916
42 FZ 216 -3.428
42 FZ 217 -3.916
42 FZ 218 -3.916
42 FZ 219 -3.428
42 FZ 220 -2.452
42 FZ 221 -0.987
42 FZ 222 0.478
42 FZ 223 1.943
42 FZ 224 2.920
42 FZ 225 3.896
42 FZ 226 4.873
42 FZ 227 5.849
42 FZ 228 7.314
42 FZ 229 8.779
42 FZ 230 9.755
42 FZ 231 10.244
42 FZ 232 10.732
42 FZ 233 10.244
42 FZ 234 10.244
42 FZ 235 10.244
42 FZ 236 10.732
42 FZ 237 10.732
42 FZ 238 10.732
42 FZ 239 9.755
42 FZ 240 9.267
42 FZ 241 9.267
42 FZ 242 9.755
42 FZ 243 9.755
42 FZ 244 9.755
42 FZ 245 8.779
42 FZ 246 7.802
42 FZ 247 6.826
42 FZ 248 5.849
42 FZ 249 5.361
42 FZ 250 5.361
42 FZ 251 5.361
42 FZ 252 4.873
42 FZ 253 3.896
42 FZ 254 2.920
42 FZ 255 2.431
# F4 chan 7
42 F4 0 2.167
42 F4 1 2.655
42 F4 2 2.655
42 F4 3 2.655
42 F4 4 2.655
42 F4 5 2.655
42 F4 6 2.655
42 F4 7 2.167
42 F4 8 1.678
42 F4 9 1.678
42 F4 10 2.655
42 F4 11 3.632
42 F4 12 4.120
42 F4 13 4.120
42 F4 14 3.143
42 F4 15 2.167
42 F4 16 1.678
42 F4 17 1.678
42 F4 18 2.167
42 F4 19 2.167
42 F4 20 2.167
42 F4 21 1.190
42 F4 22 0.702
42 F4 23 0.702
42 F4 24 1.190
42 F4 25 3.143
42 F4 26 4.120
42 F4 27 4.608
42 F4 28 4.608
42 F4 29 3.143
42 F4 30 2.167
42 F4 31 0.702
42 F4 32 -0.275
42 F4 33 -0.275
42 F4 34 -0.763
42 F4 35 0.214
42 F4 36 0.702
42 F4 37 0.702
42 F4 38 0.702
42 F4 39 0.214
42 F4 40 -0.275
42 F4 41 -0.763
42 F4 42 -0.275
42 F4 43 -0.275
42 F4 44 -0.763
42 F4 45 -1.251
42 F4 46 -2.228
42 F4 47 -2.716
42 F4 48 -1.740
42 F4 49 0.214
42 F4 50 1.678
42 F4 51 2.167
42 F4 52 2.167
42 F4 53 0.702
42 F4 54 -0.763
42 F4 55 -1.251
42 F4 56 -1.740
42 F4 57 -2.228
42 F4 58 -2.228
42 F4 59 -2.716
42 F4 60 -2.716
42 F4 61 -2.716
42 F4 62 -2.716
42 F4 63 -2.228
42 F4 64 -1.740
42 F4 65 -1.740
42 F4 66 -1.740
42 F4 67 -1.251
42 F4 68 -1.740
42 F4 69 -1.740
42 F4 70 -1.740
42 F4 71 -2.228
42 F4 72 -1.740
42 F4 73 -1.251
42 F4 74 -0.763
42 F4 75 -0.275
42 F4 76 -0.275
42 F4 77 -1.251
42 F4 78 -2.716
42 F4 79 -3.693
42 F4 80 -4.181
42 F4 81 -4.181
42 F4 82 -3.204
42 F4 83 -2.716
42 F4 84 -2.228
42 F4 85 -2.716
42 F4 86 -2.228
42 F4 87 -1.740
42 F4 88 -1.251
42 F4 89 -0.763
42 F4 90 -0.275
42 F4 91 -0.275
42 F4 92 -0.763
42 F4 93 -1.251
42 F4 94 -1.740
42 F4 95 -1.251
42 F4 96 -0.763
42 F4 97 -0.275
42 F4 98 -0.763
42 F4 99 -0.275
42 F4 100 -0.275
42 F4 101 -0.763
42 F4 102 -0.275
42 F4 103 0.214
42 F4 104 0.214
42 F4 105 0.702
42 F4 106 0.214
42 F4 107 -0.275
42 F4 108 -1.251
42 F4 109 -2.228
42 F4 110 -2.716
42 F4 111 -3.693
42 F4 112 -4.669
42 F4 113 -5.157
42 F4 114 -4.669
42 F4 115 -4.181
42 F4 116 -2.716
42 F4 117 -1.740
42 F4 118 -0.763
42 F4 119 -0.763
42 F4 120 -1.740
42 F4 121 -2.716
42 F4 122 -2.716
42 F4 123 -3.204
42 F4 124 -2.716
42 F4 125 -2.716
42 F4 126 -1.740
42 F4 127 -0.763
42 F4 128 -0.275
42 F4 129 -0.275
42 F4 130 -0.763
42 F4 131 -1.740
42 F4 132 -2.228
42 F4 133 -2.228
42 F4 134 -2.228
42 F4 135 -2.716
42 F4 136 -3.693
42 F4 137 -4.669
42 F4 138 -5.157
42 F4 139 -4.669
42 F4 140 -4.181
42 F4 141 -3.204
42 F4 142 -2.716
42 F4 143 -2.716
42 F4 144 -2.716
42 F4 145 -3.693
42 F4 146 -4.181
42 F4 147 -4.181
42 F4 148 -4.181
42 F4 149 -3.693
42 F4 150 -3.204
42 F4 151 -2.716
42 F4 152 -2.228
42 F4 153 -2.228
42 F4 154 -2.228
42 F4 155 -1.740
42 F4 156 -1.740
42 F4 157 -1.740
42 F4 158 -2.228
42 F4 159 -3.204
42 F4 160 -4.181
42 F4 161 -5.157
42 F4 162 -6.134
42 F4 163 -6.134
42 F4 164 -6.622
42 F4 165 -6.622
42 F4 166 -6.622
42 F4 167 -5.157
42 F4 168 -3.693
42 F4 169 -2.228
42 F4 170 -1.740
42 F4 171 -2.228
42 F4 172 -3.693
42 F4 173 -4.669
42 F4 174 -4.669
42 F4 175 -3.204
42 F4 176 -1.740
42 F4 177 -0.275
42 F4 178 0.214
42 F4 179 -0.275
42 F4 180 -0.763
42 F4 181 -1.251
42 F4 182 -1.740
42 F4 183 -2.228
42 F4 184 -2.716
42 F4 185 -3.204
42 F4 186 -4.181
42 F4 187 -5.157
42 F4 188 -5.646
42 F4 189 -5.157
42 F4 190 -4.181
42 F4 191 -2.716
42 F4 192 -0.763
42 F4 193 0.702
42 F4 194 1.678
42 F4 195 1.190
42 F4 196 0.214
42 F4 197 -1.740
42 F4 198 -3.693
42 F4 199 -4.669
42 F4 200 -4.669
42 F4 201 -3.693
42 F4 202 -2.716
42 F4 203 -1.740
42 F4 204 -1.740
42 F4 205 -2.228
42 F4 206 -2.716
42 F4 207 -3.693
42 F4 208 -4.181
42 F4 209 -5.646
42 F4 210 -6.622
42 F4 211 -7.599
42 F4 212 -7.111
42 F4 213 -5.646
42 F4 214 -4.181
42 F4 215 -3.204
42 F4 216 -3.204
42 F4 217 -3.204
42 F4 218 -3.204
42 F4 219 -2.716
42 F4 220 -1.740
42 F4 221 -0.763
42 F4 222 0.702
42 F4 223 2.167
42 F4 224 3.143
42 F4 225 4.608
42 F4 226 6.073
42 F4 227 7.538
42 F4 228 9.003
42 F4 229 9.979
42 F4 230 10.468
42 F4 231 11.444
42 F4 232 11.932
42 F4 233 11.932
42 F4 234 12.421
42 F4 235 12.909
42 F4 236 13.397
42 F4 237 13.397
42 F4 238 12.909
42 F4 239 11.932
42 F4 240 11.444
42 F4 241 11.444
42 F4 242 11.932
42 F4 243 12.421
42 F4 244 12.421
42 F4 245 11.444
42 F4 246 9.491
42 F4 247 8.026
42 F4 248 7.050
42 F4 249 7.050
42 F4 250 7.050
42 F4 251 7.538
42 F4 252 7.050
42 F4 253 6.561
42 F4 254 5.585
42 F4 255 4.608
# F3 chan 8
42 F3 0 1.149
42 F3 1 1.149
42 F3 2 1.149
42 F3 3 1.638
42 F3 4 2.126
42 F3 5 2.614
42 F3 6 2.614
42 F3 7 2.614
42 F3 8 2.126
42 F3 9 2.126
42 F3 10 2.126
42 F3 11 2.614
42 F3 12 2.614
42 F3 13 2.614
42 F3 14 2.614
42 F3 15 2.614
42 F3 16 2.614
42 F3 17 3.591
42 F3 18 3.591
42 F3 19 3.591
42 F3 20 2.614
42 F3 21 1.638
42 F3 22 1.149
42 F3 23 1.638
42 F3 24 2.614
42 F3 25 3.591
42 F3 26 4.079
42 F3 27 3.591
42 F3 28 3.103
42 F3 29 2.126
42 F3 30 1.638
42 F3 31 1.149
42 F3 32 0.661
42 F3 33 0.661
42 F3 34 0.173
42 F3 35 0.173
42 F3 36 0.173
42 F3 37 0.661
42 F3 38 1.149
42 F3 39 1.638
42 F3 40 2.126
42 F3 41 2.614
42 F3 42 2.126
42 F3 43 1.149
42 F3 44 -0.315
42 F3 45 -1.780
42 F3 46 -3.733
42 F3 47 -4.222
42 F3 48 -2.757
42 F3 49 -0.804
42 F3 50 2.126
42 F3 51 3.591
42 F3 52 4.079
42 F3 53 3.103
42 F3 54 0.661
42 F3 55 -1.292
42 F3 56 -2.757
42 F3 57 -3.733
42 F3 58 -4.222
42 F3 59 -4.222
42 F3 60 -3.733
42 F3 61 -2.757
42 F3 62 -1.292
42 F3 63 -0.315
42 F3 64 0.173
42 F3 65 -0.804
42 F3 66 -1.780
42 F3 67 -2.757
42 F3 68 -2.757
42 F3 69 -1.780
42 F3 70 -0.804
42 F3 71 -0.315
42 F3 72 -0.315
42 F3 73 -0.315
42 F3 74 -0.315
42 F3 75 0.173
42 F3 76 0.173
42 F3 77 0.661
42 F3 78 0.173
42 F3 79 -0.315
42 F3 80 -0.804
42 F3 81 -1.292
42 F3 82 -1.292
42 F3 83 -0.804
42 F3 84 -0.315
42 F3 85 0.661
42 F3 86 1.149
42 F3 87 2.126
42 F3 88 2.614
42 F3 89 2.126
42 F3 90 1.638
42 F3 91 0.661
42 F3 92 0.173
42 F3 93 0.173
42 F3 94 0.661
42 F3 95 1.638
42 F3 96 3.103
42 F3 97 3.591
42 F3 98 3.591
42 F3 99 2.614
42 F3 100 1.638
42 F3 101 0.173
42 F3 102 0.173
42 F3 103 -0.315
42 F3 104 -0.315
42 F3 105 -0.315
42 F3 106 0.173
42 F3 107 1.149
42 F3 108 1.638
42 F3 109 2.126
42 F3 110 2.126
42 F3 111 0.173
42 F3 112 -1.780
42 F3 113 -3.733
42 F3 114 -4.710
42 F3 115 -4.222
42 F3 116 -3.245
42 F3 117 -2.268
42 F3 118 -1.292
42 F3 119 -0.804
42 F3 120 -0.315
42 F3 121 -0.804
42 F3 122 -1.292
42 F3 123 -1.292
42 F3 124 -1.292
42 F3 125 -0.804
42 F3 126 -0.315
42 F3 127 0.661
42 F3 128 0.661
42 F3 129 0.661
42 F3 130 0.173
42 F3 131 -0.315
42 F3 132 -0.804
42 F3 133 -0.804
42 F3 134 -0.804
42 F3 135 -0.804
42 F3 136 -1.292
42 F3 137 -1.780
42 F3 138 -2.268
42 F3 139 -2.268
42 F3 140 -2.757
42 F3 141 -2.757
42 F3 142 -3.245
42 F3 143 -3.733
42 F3 144 -4.222
42 F3 145 -3.733
42 F3 146 -2.757
42 F3 147 -1.780
42 F3 148 -0.804
42 F3 149 -0.315
42 F3 150 -0.315
42 F3 151 0.173
42 F3 152 -0.315
42 F3 153 -0.315
42 F3 154 -0.804
42 F3 155 -0.804
42 F3 156 -0.804
42 F3 157 -0.315
42 F3 158 0.173
42 F3 159 0.173
42 F3 160 -0.804
42 F3 161 -1.292
42 F3 162 -2.757
42 F3 163 -3.245
42 F3 164 -3.733
42 F3 165 -4.222
42 F3 166 -4.710
42 F3 167 -4.710
42 F3 168 -3.733
42 F3 169 -2.757
42 F3 170 -2.268
42 F3 171 -1.780
42 F3 172 -2.757
42 F3 173 -3.245
42 F3 174 -3.245
42 F3 175 -3.245
42 F3 176 -2.268
42 F3 177 -1.292
42 F3 178 -0.804
42 F3 179 -0.315
42 F3 180 -0.315
42 F3 181 0.661
42 F3 182 0.661
42 F3 183 1.149
42 F3 184 0.661
42 F3 185 -0.315
42 F3 186 -1.780
42 F3 187 -2.757
42 F3 188 -3.733
42 F3 189 -4.710
42 F3 190 -4.222
42 F3 191 -3.733
42 F3 192 -2.268
42 F3 193 -1.292
42 F3 194 -1.292
42 F3 195 -1.780
42 F3 196 -3.245
42 F3 197 -4.710
42 F3 198 -4.710
42 F3 199 -4.222
42 F3 200 -3.245
42 F3 201 -1.780
42 F3 202 -1.292
42 F3 203 -1.292
42 F3 204 -1.780
42 F3 205 -2.268
42 F3 206 -2.757
42 F3 207 -3.245
42 F3 208 -4.222
42 F3 209 -5.686
42 F3 210 -6.663
42 F3 211 -7.640
42 F3 212 -8.128
42 F3 213 -7.640
42 F3 214 -6.663
42 F3 215 -5.686
42 F3 216 -5.198
42 F3 217 -4.710
42 F3 218 -4.222
42 F3 219 -3.245
42 F3 220 -2.268
42 F3 221 -0.804
42 F3 222 0.661
42 F3 223 1.638
42 F3 224 2.126
42 F3 225 3.103
42 F3 226 3.103
42 F3 227 4.567
42 F3 228 6.032
42 F3 229 7.009
42 F3 230 7.985
42 F3 231 8.474
42 F3 232 8.474
42 F3 233 7.985
42 F3 234 7.985
42 F3 235 8.474
42 F3 236 9.450
42 F3 237 10.427
42 F3 238 10.915
42 F3 239 10.915
42 F3 240 10.427
42 F3 241 9.939
42 F3 242 9.450
42 F3 243 9.450
42 F3 244 8.962
42 F3 245 8.474
42 F3 246 7.497
42 F3 247 6.521
42 F3 248 5.544
42 F3 249 5.056
42 F3 250 5.056
42 F3 251 4.567
42 F3 252 4.079
42 F3 253 3.103
42 F3 254 2.126
42 F3 255 1.149
# FC6 chan 9
42 FC6 0 4.720
42 FC6 1 4.232
42 FC6 2 3.743
42 FC6 3 3.255
42 FC6 4 3.743
42 FC6 5 4.232
42 FC6 6 4.720
42 FC6 7 4.232
42 FC6 8 4.232
42 FC6 9 4.232
42 FC6 10 4.232
42 FC6 11 5.208
42 FC6 12 5.208
42 FC6 13 4.720
42 FC6 14 3.743
42 FC6 15 2.279
42 FC6 16 1.790
42 FC6 17 1.790
42 FC6 18 2.767
42 FC6 19 2.767
42 FC6 20 2.767
42 FC6 21 1.790
42 FC6 22 0.814
42 FC6 23 0.814
42 FC6 24 1.790
42 FC6 25 3.743
42 FC6 26 5.208
42 FC6 27 5.697
42 FC6 28 5.697
42 FC6 29 4.232
42 FC6 30 2.767
42 FC6 31 1.302
42 FC6 32 -0.163
42 FC6 33 -0.163
42 FC6 34 -0.163
42 FC6 35 0.326
42 FC6 36 0.326
42 FC6 37 -0.163
42 FC6 38 -0.651
42 FC6 39 -1.139
42 FC6 40 -1.139
42 FC6 41 -1.628
42 FC6 42 -1.139
42 FC6 43 -0.651
42 FC6 44 -0.163
42 FC6 45 -0.163
42 FC6 46 -0.651
42 FC6 47 -0.163
42 FC6 48 0.326
42 FC6 49 0.814
42 FC6 50 1.302
42 FC6 51 1.302
42 FC6 52 0.814
42 FC6 53 -0.163
42 FC6 54 -0.651
42 FC6 55 -1.628
42 FC6 56 -2.116
42 FC6 57 -1.628
42 FC6 58 -2.116
42 FC6 59 -2.116
42 FC6 60 -2.116
42 FC6 61 -2.604
42 FC6 62 -2.604
42 FC6 63 -3.092
42 FC6 64 -2.604
42 FC6 65 -2.116
42 FC6 66 -1.139
42 FC6 67 -0.651
42 FC6 68 -0.163
42 FC6 69 -0.163
42 FC6 70 -0.163
42 FC6 71 -0.163
42 FC6 72 0.326
42 FC6 73 0.814
42 FC6 74 1.302
42 FC6 75 1.790
42 FC6 76 1.790
42 FC6 77 0.814
42 FC6 78 -1.139
42 FC6 79 -2.604
42 FC6 80 -3.092
42 FC6 81 -3.092
42 FC6 82 -1.628
42 FC6 83 -0.651
42 FC6 84 0.326
42 FC6 85 0.326
42 FC6 86 0.326
42 FC6 87 -0.163
42 FC6 88 -0.651
42 FC6 89 -0.163
42 FC6 90 0.814
42 FC6 91 1.790
42 FC6 92 2.279
42 FC6 93 2.767
42 FC6 94 2.767
42 FC6 95 2.279
42 FC6 96 2.279
42 FC6 97 1.790
42 FC6 98 1.790
42 FC6 99 1.790
42 FC6 100 2.279
42 FC6 101 2.767
42 FC6 102 3.743
42 FC6 103 4.720
42 FC6 104 5.208
42 FC6 105 5.208
42 FC6 106 4.232
42 FC6 107 3.255
42 FC6 108 1.790
42 FC6 109 0.326
42 FC6 110 -1.139
42 FC6 111 -3.092
42 FC6 112 -4.069
42 FC6 113 -4.069
42 FC6 114 -2.604
42 FC6 115 -0.163
42 FC6 116 2.767
42 FC6 117 4.720
42 FC6 118 5.208
42 FC6 119 5.208
42 FC6 120 4.720
42 FC6 121 3.743
42 FC6 122 3.743
42 FC6 123 3.255
42 FC6 124 2.279
42 FC6 125 1.302
42 FC6 126 0.814
42 FC6 127 0.814
42 FC6 128 1.302
42 FC6 129 1.790
42 FC6 130 1.790
42 FC6 131 1.790
42 FC6 132 1.302
42 FC6 133 0.814
42 FC6 134 0.814
42 FC6 135 -0.163
42 FC6 136 -1.139
42 FC6 137 -1.139
42 FC6 138 -1.628
42 FC6 139 -0.651
42 FC6 140 0.814
42 FC6 141 2.279
42 FC6 142 3.743
42 FC6 143 4.232
42 FC6 144 4.720
42 FC6 145 4.720
42 FC6 146 3.743
42 FC6 147 3.255
42 FC6 148 2.767
42 FC6 149 2.279
42 FC6 150 2.767
42 FC6 151 3.255
42 FC6 152 3.743
42 FC6 153 4.232
42 FC6 154 3.743
42 FC6 155 3.255
42 FC6 156 2.279
42 FC6 157 1.790
42 FC6 158 0.814
42 FC6 159 0.326
42 FC6 160 -0.163
42 FC6 161 -1.139
42 FC6 162 -1.139
42 FC6 163 -0.651
42 FC6 164 -0.163
42 FC6 165 0.326
42 FC6 166 1.302
42 FC6 167 1.790
42 FC6 168 2.767
42 FC6 169 3.743
42 FC6 170 3.255
42 FC6 171 1.790
42 FC6 172 0.326
42 FC6 173 -1.139
42 FC6 174 -1.139
42 FC6 175 -0.651
42 FC6 176 0.814
42 FC6 177 1.302
42 FC6 178 1.302
42 FC6 179 0.326
42 FC6 180 -1.139
42 FC6 181 -1.628
42 FC6 182 -2.116
42 FC6 183 -2.116
42 FC6 184 -2.116
42 FC6 185 -2.604
42 FC6 186 -3.581
42 FC6 187 -4.069
42 FC6 188 -3.581
42 FC6 189 -1.628
42 FC6 190 0.814
42 FC6 191 3.255
42 FC6 192 5.208
42 FC6 193 6.185
42 FC6 194 6.673
42 FC6 195 6.673
42 FC6 196 5.697
42 FC6 197 4.720
42 FC6 198 3.255
42 FC6 199 1.302
42 FC6 200 -0.163
42 FC6 201 -0.163
42 FC6 202 -0.163
42 FC6 203 0.326
42 FC6 204 0.814
42 FC6 205 0.814
42 FC6 206 -0.163
42 FC6 207 -1.139
42 FC6 208 -2.116
42 FC6 209 -3.092
42 FC6 210 -3.092
42 FC6 211 -2.116
42 FC6 212 -0.651
42 FC6 213 0.814
42 FC6 214 1.790
42 FC6 215 1.790
42 FC6 216 1.302
42 FC6 217 0.326
42 FC6 218 0.326
42 FC6 219 1.302
42 FC6 220 2.279
42 FC6 221 3.743
42 FC6 222 4.720
42 FC6 223 5.208
42 FC6 224 5.697
42 FC6 225 5.697
42 FC6 226 6.185
42 FC6 227 6.673
42 FC6 228 6.673
42 FC6 229 7.161
42 FC6 230 8.138
42 FC6 231 9.115
42 FC6 232 9.603
42 FC6 233 9.603
42 FC6 234 10.091
42 FC6 235 10.579
42 FC6 236 10.579
42 FC6 237 10.579
42 FC6 238 10.091
42 FC6 239 9.603
42 FC6 240 9.603
42 FC6 241 9.603
42 FC6 242 10.091
42 FC6 243 10.579
42 FC6 244 10.091
42 FC6 245 9.115
42 FC6 246 7.650
42 FC6 247 6.673
42 FC6 248 6.185
42 FC6 249 6.673
42 FC6 250 7.650
42 FC6 251 7.650
42 FC6 252 7.650
42 FC6 253 6.673
42 FC6 254 5.697
42 FC6 255 5.208
# FC5 chan 10
42 FC5 0 1.668
42 FC5 1 2.157
42 FC5 2 2.645
42 FC5 3 3.133
42 FC5 4 2.645
42 FC5 5 3.133
42 FC5 6 3.133
42 FC5 7 3.133
42 FC5 8 3.133
42 FC5 9 2.645
42 FC5 10 2.645
42 FC5 11 2.645
42 FC5 12 2.645
42 FC5 13 2.157
42 FC5 14 1.668
42 FC5 15 2.157
42 FC5 16 2.157
42 FC5 17 2.645
42 FC5 18 3.133
42 FC5 19 3.133
42 FC5 20 2.645
42 FC5 21 2.157
42 FC5 22 1.668
42 FC5 23 2.157
42 FC5 24 2.157
42 FC5 25 3.621
42 FC5 26 3.621
42 FC5 27 3.621
42 FC5 28 3.621
42 FC5 29 2.645
42 FC5 30 1.668
42 FC5 31 1.180
42 FC5 32 0.692
42 FC5 33 0.203
42 FC5 34 0.203
42 FC5 35 -0.285
42 FC5 36 -0.773
42 FC5 37 -0.285
42 FC5 38 0.692
42 FC5 39 1.668
42 FC5 40 2.645
42 FC5 41 3.133
42 FC5 42 2.645
42 FC5 43 1.668
42 FC5 44 0.203
42 FC5 45 -1.750
42 FC5 46 -3.215
42 FC5 47 -3.703
42 FC5 48 -3.215
42 FC5 49 -1.261
42 FC5 50 0.692
42 FC5 51 2.645
42 FC5 52 3.133
42 FC5 53 2.157
42 FC5 54 1.180
42 FC5 55 -0.773
42 FC5 56 -2.238
42 FC5 57 -3.703
42 FC5 58 -4.191
42 FC5 59 -4.679
42 FC5 60 -4.679
42 FC5 61 -3.703
42 FC5 62 -2.238
42 FC5 63 -1.261
42 FC5 64 -1.261
42 FC5 65 -1.261
42 FC5 66 -1.750
42 FC5 67 -2.238
42 FC5 68 -2.238
42 FC5 69 -1.750
42 FC5 70 -0.773
42 FC5 71 -0.285
42 FC5 72 -0.285
42 FC5 73 -0.285
42 FC5 74 -0.285
42 FC5 75 0.203
42 FC5 76 0.692
42 FC5 77 1.180
42 FC5 78 0.692
42 FC5 79 0.203
42 FC5 80 0.203
42 FC5 81 0.692
42 FC5 82 1.180
42 FC5 83 2.157
42 FC5 84 2.645
42 FC5 85 3.621
42 FC5 86 3.621
42 FC5 87 3.621
42 FC5 88 3.133
42 FC5 89 2.645
42 FC5 90 2.157
42 FC5 91 1.668
42 FC5 92 1.180
42 FC5 93 1.180
42 FC5 94 2.157
42 FC5 95 3.621
42 FC5 96 5.575
42 FC5 97 6.551
42 FC5 98 6.063
42 FC5 99 4.598
42 FC5 100 3.133
42 FC5 101 2.157
42 FC5 102 2.157
42 FC5 103 2.157
42 FC5 104 1.668
42 FC5 105 1.668
42 FC5 106 1.668
42 FC5 107 2.157
42 FC5 108 3.133
42 FC5 109 4.598
42 FC5 110 4.598
42 FC5 111 3.133
42 FC5 112 0.692
42 FC5 113 -2.238
42 FC5 114 -3.703
42 FC5 115 -3.215
42 FC5 116 -1.750
42 FC5 117 -0.285
42 FC5 118 1.668
42 FC5 119 2.645
42 FC5 120 3.621
42 FC5 121 3.133
42 FC5 122 2.645
42 FC5 123 1.668
42 FC5 124 0.692
42 FC5 125 0.692
42 FC5 126 0.203
42 FC5 127 0.692
42 FC5 128 0.692
42 FC5 129 0.203
42 FC5 130 -0.285
42 FC5 131 -0.285
42 FC5 132 -0.285
42 FC5 133 0.203
42 FC5 134 0.203
42 FC5 135 -0.285
42 FC5 136 -0.773
42 FC5 137 -1.261
42 FC5 138 -1.750
42 FC5 139 -1.261
42 FC5 140 -0.773
42 FC5 141 -0.285
42 FC5 142 -0.285
42 FC5 143 -0.773
42 FC5 144 -0.773
42 FC5 145 -0.285
42 FC5 146 0.692
42 FC5 147 1.668
42 FC5 148 2.645
42 FC5 149 3.133
42 FC5 150 3.133
42 FC5 151 3.133
42 FC5 152 2.645
42 FC5 153 2.157
42 FC5 154 1.668
42 FC5 155 1.668
42 FC5 156 1.668
42 FC5 157 1.668
42 FC5 158 1.668
42 FC5 159 1.180
42 FC5 160 0.692
42 FC5 161 0.692
42 FC5 162 0.692
42 FC5 163 0.692
42 FC5 164 0.692
42 FC5 165 -0.285
42 FC5 166 -1.261
42 FC5 167 -2.238
42 FC5 168 -2.238
42 FC5 169 -1.261
42 FC5 170 -0.773
42 FC5 171 -0.773
42 FC5 172 -1.261
42 FC5 173 -1.750
42 FC5 174 -2.238
42 FC5 175 -1.750
42 FC5 176 -1.261
42 FC5 177 -1.261
42 FC5 178 -0.773
42 FC5 179 -0.773
42 FC5 180 -0.285
42 FC5 181 0.203
42 FC5 182 1.180
42 FC5 183 2.157
42 FC5 184 2.157
42 FC5 185 1.668
42 FC5 186 0.692
42 FC5 187 -0.773
42 FC5 188 -1.750
42 FC5 189 -2.238
42 FC5 190 -2.238
42 FC5 191 -1.261
42 FC5 192 -0.285
42 FC5 193 0.203
42 FC5 194 0.203
42 FC5 195 -0.773
42 FC5 196 -1.750
42 FC5 197 -2.238
42 FC5 198 -1.750
42 FC5 199 -0.773
42 FC5 200 0.203
42 FC5 201 0.692
42 FC5 202 0.692
42 FC5 203 0.203
42 FC5 204 -0.285
42 FC5 205 -0.773
42 FC5 206 -1.261
42 FC5 207 -1.750
42 FC5 208 -2.726
42 FC5 209 -3.215
42 FC5 210 -3.703
42 FC5 211 -4.679
42 FC5 212 -5.168
42 FC5 213 -5.168
42 FC5 214 -5.168
42 FC5 215 -5.168
42 FC5 216 -4.191
42 FC5 217 -3.215
42 FC5 218 -2.238
42 FC5 219 -1.261
42 FC5 220 -0.773
42 FC5 221 -0.285
42 FC5 222 0.203
42 FC5 223 0.203
42 FC5 224 -0.285
42 FC5 225 -0.285
42 FC5 226 -0.773
42 FC5 227 -0.773
42 FC5 228 0.203
42 FC5 229 1.180
42 FC5 230 1.668
42 FC5 231 1.668
42 FC5 232 1.180
42 FC5 233 0.692
42 FC5 234 0.692
42 FC5 235 1.668
42 FC5 236 3.133
42 FC5 237 4.598
42 FC5 238 5.575
42 FC5 239 6.063
42 FC5 240 5.575
42 FC5 241 5.086
42 FC5 242 4.598
42 FC5 243 4.110
42 FC5 244 4.110
42 FC5 245 3.621
42 FC5 246 2.645
42 FC5 247 2.645
42 FC5 248 2.157
42 FC5 249 2.645
42 FC5 250 2.645
42 FC5 251 2.157
42 FC5 252 1.668
42 FC5 253 0.692
42 FC5 254 -0.773
42 FC5 255 -0.285
# FC2 chan 11
42 FC2 0 2.024
42 FC2 1 1.536
42 FC2 2 1.048
42 FC2 3 1.536
42 FC2 4 1.536
42 FC2 5 2.024
42 FC2 6 2.024
42 FC2 7 1.536
42 FC2 8 1.048
42 FC2 9 1.048
42 FC2 10 1.536
42 FC2 11 2.513
42 FC2 12 3.001
42 FC2 13 3.001
42 FC2 14 2.513
42 FC2 15 2.024
42 FC2 16 1.536
42 FC2 17 1.048
42 FC2 18 1.536
42 FC2 19 1.536
42 FC2 20 1.536
42 FC2 21 1.536
42 FC2 22 1.536
42 FC2 23 1.536
42 FC2 24 2.024
42 FC2 25 2.513
42 FC2 26 3.001
42 FC2 27 3.001
42 FC2 28 2.513
42 FC2 29 2.024
42 FC2 30 1.048
42 FC2 31 0.559
42 FC2 32 0.559
42 FC2 33 0.559
42 FC2 34 0.559
42 FC2 35 1.048
42 FC2 36 1.536
42 FC2 37 1.536
42 FC2 38 1.048
42 FC2 39 0.559
42 FC2 40 0.071
42 FC2 41 -0.417
42 FC2 42 0.071
42 FC2 43 0.559
42 FC2 44 0.559
42 FC2 45 0.559
42 FC2 46 0.071
42 FC2 47 0.071
42 FC2 48 0.559
42 FC2 49 1.048
42 FC2 50 1.536
42 FC2 51 2.024
42 FC2 52 2.024
42 FC2 53 1.536
42 FC2 54 0.559
42 FC2 55 0.071
42 FC2 56 0.071
42 FC2 57 0.071
42 FC2 58 0.559
42 FC2 59 0.559
42 FC2 60 0.559
42 FC2 61 0.559
42 FC2 62 0.559
42 FC2 63 0.559
42 FC2 64 0.071
42 FC2 65 0.559
42 FC2 66 0.559
42 FC2 67 0.559
42 FC2 68 0.559
42 FC2 69 0.559
42 FC2 70 0.071
42 FC2 71 0.071
42 FC2 72 0.071
42 FC2 73 0.071
42 FC2 74 0.559
42 FC2 75 1.048
42 FC2 76 1.048
42 FC2 77 0.559
42 FC2 78 -0.417
42 FC2 79 -0.905
42 FC2 80 -1.394
42 FC2 81 -0.905
42 FC2 82 -0.905
42 FC2 83 -0.905
42 FC2 84 -0.905
42 FC2 85 -0.905
42 FC2 86 -0.417
42 FC2 87 -0.417
42 FC2 88 0.071
42 FC2 89 0.559
42 FC2 90 0.559
42 FC2 91 0.559
42 FC2 92 0.559
42 FC2 93 0.071
42 FC2 94 -0.417
42 FC2 95 -0.417
42 FC2 96 -0.905
42 FC2 97 -0.905
42 FC2 98 -0.905
42 FC2 99 -0.417
42 FC2 100 0.071
42 FC2 101 0.071
42 FC2 102 0.071
42 FC2 103 0.559
42 FC2 104 1.048
42 FC2 105 1.048
42 FC2 106 0.559
42 FC2 107 0.071
42 FC2 108 -0.417
42 FC2 109 -1.394
42 FC2 110 -2.370
42 FC2 111 -2.858
42 FC2 112 -2.858
42 FC2 113 -2.858
42 FC2 114 -2.370
42 FC2 115 -1.394
42 FC2 116 -0.905
42 FC2 117 0.071
42 FC2 118 0.071
42 FC2 119 -0.417
42 FC2 120 -0.905
42 FC2 121 -1.882
42 FC2 122 -2.370
42 FC2 123 -1.882
42 FC2 124 -1.882
42 FC2 125 -1.394
42 FC2 126 -0.417
42 FC2 127 0.071
42 FC2 128 0.071
42 FC2 129 0.559
42 FC2 130 0.071
42 FC2 131 -0.417
42 FC2 132 -0.905
42 FC2 133 -1.394
42 FC2 134 -1.882
42 FC2 135 -1.882
42 FC2 136 -2.370
42 FC2 137 -2.858
42 FC2 138 -2.858
42 FC2 139 -2.858
42 FC2 140 -2.858
42 FC2 141 -2.370
42 FC2 142 -1.882
42 FC2 143 -1.394
42 FC2 144 -1.394
42 FC2 145 -1.882
42 FC2 146 -2.370
42 FC2 147 -2.370
42 FC2 148 -2.858
42 FC2 149 -2.858
42 FC2 150 -2.858
42 FC2 151 -2.370
42 FC2 152 -2.370
42 FC2 153 -2.370
42 FC2 154 -2.370
42 FC2 155 -2.858
42 FC2 156 -2.858
42 FC2 157 -2.858
42 FC2 158 -2.858
42 FC2 159 -3.347
42 FC2 160 -3.347
42 FC2 161 -3.835
42 FC2 162 -3.835
42 FC2 163 -4.323
42 FC2 164 -4.323
42 FC2 165 -3.835
42 FC2 166 -2.858
42 FC2 167 -1.882
42 FC2 168 -0.417
42 FC2 169 0.071
42 FC2 170 0.559
42 FC2 171 0.071
42 FC2 172 -0.905
42 FC2 173 -0.905
42 FC2 174 -0.905
42 FC2 175 -0.417
42 FC2 176 0.559
42 FC2 177 1.048
42 FC2 178 1.048
42 FC2 179 0.559
42 FC2 180 0.071
42 FC2 181 -0.417
42 FC2 182 -0.905
42 FC2 183 -1.394
42 FC2 184 -1.882
42 FC2 185 -2.370
42 FC2 186 -2.858
42 FC2 187 -3.347
42 FC2 188 -2.858
42 FC2 189 -2.370
42 FC2 190 -1.394
42 FC2 191 -0.417
42 FC2 192 1.048
42 FC2 193 2.024
42 FC2 194 2.024
42 FC2 195 1.536
42 FC2 196 1.048
42 FC2 197 0.071
42 FC2 198 -0.905
42 FC2 199 -1.394
42 FC2 200 -0.905
42 FC2 201 -0.417
42 FC2 202 0.071
42 FC2 203 0.559
42 FC2 204 0.559
42 FC2 205 0.559
42 FC2 206 0.071
42 FC2 207 0.071
42 FC2 208 -0.417
42 FC2 209 -1.394
42 FC2 210 -1.882
42 FC2 211 -2.370
42 FC2 212 -2.370
42 FC2 213 -1.882
42 FC2 214 -1.394
42 FC2 215 -0.417
42 FC2 216 -0.417
42 FC2 217 -0.905
42 FC2 218 -0.905
42 FC2 219 -0.905
42 FC2 220 -0.905
42 FC2 221 -0.417
42 FC2 222 0.559
42 FC2 223 1.536
42 FC2 224 2.513
42 FC2 225 3.001
42 FC2 226 3.001
42 FC2 227 3.489
42 FC2 228 3.977
42 FC2 229 3.977
42 FC2 230 4.954
42 FC2 231 5.442
42 FC2 232 5.931
42 FC2 233 5.931
42 FC2 234 5.931
42 FC2 235 5.931
42 FC2 236 5.442
42 FC2 237 5.442
42 FC2 238 5.442
42 FC2 239 5.442
42 FC2 240 5.442
42 FC2 241 5.442
42 FC2 242 5.442
42 FC2 243 5.931
42 FC2 244 5.931
42 FC2 245 5.931
42 FC2 246 4.954
42 FC2 247 3.977
42 FC2 248 3.489
42 FC2 249 3.001
42 FC2 250 3.489
42 FC2 251 3.489
42 FC2 252 3.977
42 FC2 253 3.489
42 FC2 254 3.001
42 FC2 255 2.024
# FC1 chan 12
42 FC1 0 0.203
42 FC1 1 -0.285
42 FC1 2 -0.285
42 FC1 3 0.203
42 FC1 4 0.692
42 FC1 5 0.692
42 FC1 6 1.180
42 FC1 7 0.692
42 FC1 8 0.692
42 FC1 9 0.203
42 FC1 10 0.203
42 FC1 11 0.203
42 FC1 12 0.692
42 FC1 13 1.180
42 FC1 14 1.180
42 FC1 15 1.180
42 FC1 16 1.180
42 FC1 17 1.180
42 FC1 18 1.180
42 FC1 19 1.180
42 FC1 20 0.692
42 FC1 21 0.692
42 FC1 22 0.203
42 FC1 23 0.692
42 FC1 24 0.692
42 FC1 25 1.180
42 FC1 26 1.668
42 FC1 27 1.180
42 FC1 28 1.180
42 FC1 29 0.692
42 FC1 30 0.203
42 FC1 31 0.203
42 FC1 32 -0.285
42 FC1 33 0.203
42 FC1 34 -0.285
42 FC1 35 -0.285
42 FC1 36 0.203
42 FC1 37 0.692
42 FC1 38 1.180
42 FC1 39 1.668
42 FC1 40 1.668
42 FC1 41 1.180
42 FC1 42 1.180
42 FC1 43 0.203
42 FC1 44 -0.773
42 FC1 45 -1.750
42 FC1 46 -2.238
42 FC1 47 -3.215
42 FC1 48 -2.238
42 FC1 49 -0.773
42 FC1 50 0.692
42 FC1 51 2.157
42 FC1 52 2.645
42 FC1 53 2.157
42 FC1 54 0.203
42 FC1 55 -1.261
42 FC1 56 -2.238
42 FC1 57 -2.726
42 FC1 58 -2.726
42 FC1 59 -2.238
42 FC1 60 -1.750
42 FC1 61 -1.261
42 FC1 62 -0.773
42 FC1 63 -0.285
42 FC1 64 -0.285
42 FC1 65 -0.285
42 FC1 66 -1.261
42 FC1 67 -1.261
42 FC1 68 -0.773
42 FC1 69 -0.285
42 FC1 70 0.203
42 FC1 71 0.203
42 FC1 72 0.203
42 FC1 73 -0.285
42 FC1 74 -0.773
42 FC1 75 -0.773
42 FC1 76 -0.285
42 FC1 77 -0.285
42 FC1 78 -0.285
42 FC1 79 -0.285
42 FC1 80 -0.285
42 FC1 81 -0.773
42 FC1 82 -0.773
42 FC1 83 -0.773
42 FC1 84 -0.773
42 FC1 85 -0.773
42 FC1 86 -0.285
42 FC1 87 0.203
42 FC1 88 0.692
42 FC1 89 0.692
42 FC1 90 0.692
42 FC1 91 -0.285
42 FC1 92 -0.773
42 FC1 93 -1.261
42 FC1 94 -1.261
42 FC1 95 -0.773
42 FC1 96 0.203
42 FC1 97 0.692
42 FC1 98 0.692
42 FC1 99 0.203
42 FC1 100 -0.285
42 FC1 101 -0.773
42 FC1 102 -1.261
42 FC1 103 -1.261
42 FC1 104 -1.261
42 FC1 105 -1.261
42 FC1 106 -0.773
42 FC1 107 -0.773
42 FC1 108 -0.285
42 FC1 109 0.203
42 FC1 110 0.203
42 FC1 111 -0.285
42 FC1 112 -0.773
42 FC1 113 -1.750
42 FC1 114 -2.238
42 FC1 115 -2.726
42 FC1 116 -2.238
42 FC1 117 -2.238
42 FC1 118 -2.238
42 FC1 119 -1.750
42 FC1 120 -1.750
42 FC1 121 -1.750
42 FC1 122 -1.261
42 FC1 123 -1.261
42 FC1 124 -0.773
42 FC1 125 -0.285
42 FC1 126 0.203
42 FC1 127 0.692
42 FC1 128 1.180
42 FC1 129 0.692
42 FC1 130 0.203
42 FC1 131 -0.285
42 FC1 132 -0.773
42 FC1 133 -0.773
42 FC1 134 -0.773
42 FC1 135 -0.773
42 FC1 136 -0.773
42 FC1 137 -1.261
42 FC1 138 -1.261
42 FC1 139 -1.750
42 FC1 140 -2.238
42 FC1 141 -2.726
42 FC1 142 -2.726
42 FC1 143 -3.215
42 FC1 144 -3.215
42 FC1 145 -2.726
42 FC1 146 -2.238
42 FC1 147 -1.750
42 FC1 148 -1.750
42 FC1 149 -1.261
42 FC1 150 -1.261
42 FC1 151 -1.261
42 FC1 152 -1.261
42 FC1 153 -0.773
42 FC1 154 -0.773
42 FC1 155 -0.773
42 FC1 156 -0.285
42 FC1 157 -0.285
42 FC1 158 -0.285
42 FC1 159 -0.285
42 FC1 160 -0.285
42 FC1 161 -0.773
42 FC1 162 -1.261
42 FC1 163 -2.238
42 FC1 164 -2.726
42 FC1 165 -3.215
42 FC1 166 -3.215
42 FC1 167 -3.215
42 FC1 168 -2.238
42 FC1 169 -1.261
42 FC1 170 -0.285
42 FC1 171 -0.285
42 FC1 172 -0.285
42 FC1 173 -0.773
42 FC1 174 -0.773
42 FC1 175 -0.773
42 FC1 176 -0.285
42 FC1 177 0.203
42 FC1 178 0.692
42 FC1 179 1.180
42 FC1 180 1.180
42 FC1 181 1.668
42 FC1 182 1.668
42 FC1 183 1.668
42 FC1 184 1.180
42 FC1 185 0.692
42 FC1 186 -0.285
42 FC1 187 -1.261
42 FC1 188 -2.238
42 FC1 189 -2.726
42 FC1 190 -2.726
42 FC1 191 -2.726
42 FC1 192 -2.238
42 FC1 193 -1.261
42 FC1 194 -1.261
42 FC1 195 -1.261
42 FC1 196 -1.750
42 FC1 197 -2.726
42 FC1 198 -3.215
42 FC1 199 -2.726
42 FC1 200 -2.238
42 FC1 201 -1.261
42 FC1 202 -0.285
42 FC1 203 0.203
42 FC1 204 0.203
42 FC1 205 -0.285
42 FC1 206 -0.773
42 FC1 207 -1.750
42 FC1 208 -2.238
42 FC1 209 -2.726
42 FC1 210 -3.215
42 FC1 211 -3.703
42 FC1 212 -4.191
42 FC1 213 -4.191
42 FC1 214 -3.703
42 FC1 215 -3.215
42 FC1 216 -2.726
42 FC1 217 -2.726
42 FC1 218 -2.726
42 FC1 219 -2.726
42 FC1 220 -2.726
42 FC1 221 -2.238
42 FC1 222 -1.261
42 FC1 223 -0.773
42 FC1 224 0.203
42 FC1 225 0.692
42 FC1 226 0.692
42 FC1 227 1.180
42 FC1 228 1.668
42 FC1 229 1.668
42 FC1 230 2.157
42 FC1 231 2.645
42 FC1 232 2.645
42 FC1 233 2.645
42 FC1 234 2.157
42 FC1 235 2.157
42 FC1 236 2.645
42 FC1 237 3.133
42 FC1 238 3.133
42 FC1 239 3.133
42 FC1 240 3.133
42 FC1 241 2.645
42 FC1 242 2.645
42 FC1 243 2.645
42 FC1 244 2.645
42 FC1 245 2.645
42 FC1 246 2.645
42 FC1 247 1.668
42 FC1 248 1.180
42 FC1 249 0.692
42 FC1 250 0.692
42 FC1 251 0.203
42 FC1 252 0.203
42 FC1 253 0.203
42 FC1 254 -0.285
42 FC1 255 -0.285
# T8 chan 13
42 T8 0 6.165
42 T8 1 6.653
42 T8 2 6.165
42 T8 3 6.165
42 T8 4 5.676
42 T8 5 5.188
42 T8 6 5.676
42 T8 7 6.165
42 T8 8 6.653
42 T8 9 6.653
42 T8 10 6.653
42 T8 11 6.165
42 T8 12 5.676
42 T8 13 4.700
42 T8 14 3.235
42 T8 15 2.258
42 T8 16 1.282
42 T8 17 1.282
42 T8 18 2.258
42 T8 19 2.747
42 T8 20 3.235
42 T8 21 2.747
42 T8 22 2.258
42 T8 23 2.258
42 T8 24 2.747
42 T8 25 4.211
42 T8 26 6.165
42 T8 27 7.141
42 T8 28 7.629
42 T8 29 6.165
42 T8 30 4.700
42 T8 31 2.747
42 T8 32 1.770
42 T8 33 1.282
42 T8 34 1.770
42 T8 35 1.770
42 T8 36 0.793
42 T8 37 -0.183
42 T8 38 -1.160
42 T8 39 -1.648
42 T8 40 -2.136
42 T8 41 -1.648
42 T8 42 -0.671
42 T8 43 -0.183
42 T8 44 0.305
42 T8 45 0.793
42 T8 46 0.793
42 T8 47 0.793
42 T8 48 0.305
42 T8 49 -1.160
42 T8 50 -1.648
42 T8 51 -2.136
42 T8 52 -1.648
42 T8 53 -1.160
42 T8 54 -0.671
42 T8 55 -0.671
42 T8 56 -1.160
42 T8 57 -1.648
42 T8 58 -2.136
42 T8 59 -2.625
42 T8 60 -3.113
42 T8 61 -3.601
42 T8 62 -4.089
42 T8 63 -4.089
42 T8 64 -3.601
42 T8 65 -2.136
42 T8 66 -0.183
42 T8 67 1.282
42 T8 68 2.258
42 T8 69 2.258
42 T8 70 2.747
42 T8 71 2.747
42 T8 72 3.235
42 T8 73 3.723
42 T8 74 3.723
42 T8 75 3.235
42 T8 76 2.747
42 T8 77 1.770
42 T8 78 0.793
42 T8 79 -0.183
42 T8 80 -0.671
42 T8 81 -0.671
42 T8 82 -0.183
42 T8 83 0.793
42 T8 84 1.282
42 T8 85 1.770
42 T8 86 1.770
42 T8 87 0.793
42 T8 88 0.305
42 T8 89 -0.183
42 T8 90 0.305
42 T8 91 1.282
42 T8 92 2.747
42 T8 93 4.211
42 T8 94 4.700
42 T8 95 5.188
42 T8 96 5.188
42 T8 97 4.700
42 T8 98 4.700
42 T8 99 4.700
42 T8 100 4.211
42 T8 101 4.700
42 T8 102 5.188
42 T8 103 5.676
42 T8 104 6.165
42 T8 105 6.165
42 T8 106 5.188
42 T8 107 3.723
42 T8 108 2.258
42 T8 109 0.793
42 T8 110 -1.160
42 T8 111 -2.625
42 T8 112 -3.601
42 T8 113 -3.601
42 T8 114 -2.136
42 T8 115 0.793
42 T8 116 4.211
42 T8 117 7.629
42 T8 118 9.094
42 T8 119 9.583
42 T8 120 9.583
42 T8 121 8.606
42 T8 122 8.118
42 T8 123 6.653
42 T8 124 4.211
42 T8 125 1.282
42 T8 126 -1.160
42 T8 127 -3.113
42 T8 128 -3.601
42 T8 129 -2.625
42 T8 130 -1.160
42 T8 131 -0.183
42 T8 132 -0.183
42 T8 133 -0.183
42 T8 134 -0.671
42 T8 135 -1.160
42 T8 136 -1.648
42 T8 137 -1.648
42 T8 138 -1.160
42 T8 139 -0.183
42 T8 140 0.793
42 T8 141 2.747
42 T8 142 4.700
42 T8 143 6.165
42 T8 144 8.118
42 T8 145 9.094
42 T8 146 8.606
42 T8 147 7.629
42 T8 148 6.653
42 T8 149 5.676
42 T8 150 5.188
42 T8 151 6.165
42 T8 152 6.653
42 T8 153 6.653
42 T8 154 6.165
42 T8 155 4.700
42 T8 156 3.235
42 T8 157 2.258
42 T8 158 1.282
42 T8 159 1.282
42 T8 160 1.282
42 T8 161 1.770
42 T8 162 1.770
42 T8 163 2.747
42 T8 164 3.723
42 T8 165 4.211
42 T8 166 4.211
42 T8 167 4.211
42 T8 168 4.700
42 T8 169 4.211
42 T8 170 3.723
42 T8 171 2.747
42 T8 172 1.282
42 T8 173 0.305
42 T8 174 0.305
42 T8 175 0.793
42 T8 176 2.258
42 T8 177 2.747
42 T8 178 2.747
42 T8 179 1.282
42 T8 180 -1.160
42 T8 181 -2.625
42 T8 182 -3.113
42 T8 183 -2.625
42 T8 184 -2.136
42 T8 185 -1.648
42 T8 186 -1.648
42 T8 187 -1.160
42 T8 188 0.305
42 T8 189 3.235
42 T8 190 6.653
42 T8 191 9.094
42 T8 192 10.071
42 T8 193 10.559
42 T8 194 10.071
42 T8 195 10.071
42 T8 196 10.559
42 T8 197 10.559
42 T8 198 10.071
42 T8 199 8.118
42 T8 200 5.676
42 T8 201 3.723
42 T8 202 2.747
42 T8 203 2.747
42 T8 204 2.747
42 T8 205 3.235
42 T8 206 2.747
42 T8 207 2.258
42 T8 208 2.258
42 T8 209 2.258
42 T8 210 3.235
42 T8 211 4.211
42 T8 212 5.676
42 T8 213 6.653
42 T8 214 6.165
42 T8 215 5.676
42 T8 216 3.723
42 T8 217 2.747
42 T8 218 2.747
42 T8 219 4.211
42 T8 220 5.676
42 T8 221 6.165
42 T8 222 6.653
42 T8 223 5.676
42 T8 224 5.188
42 T8 225 4.211
42 T8 226 3.723
42 T8 227 3.723
42 T8 228 3.723
42 T8 229 4.211
42 T8 230 4.700
42 T8 231 5.676
42 T8 232 6.165
42 T8 233 6.653
42 T8 234 6.653
42 T8 235 6.165
42 T8 236 6.165
42 T8 237 6.165
42 T8 238 6.653
42 T8 239 7.141
42 T8 240 7.629
42 T8 241 7.629
42 T8 242 8.118
42 T8 243 8.118
42 T8 244 7.629
42 T8 245 7.629
42 T8 246 6.653
42 T8 247 7.141
42 T8 248 6.165
42 T8 249 6.165
42 T8 250 6.653
42 T8 251 6.653
42 T8 252 6.165
42 T8 253 5.188
42 T8 254 4.700
42 T8 255 4.211
# T7 chan 14
42 T7 0 3.052
42 T7 1 4.028
42 T7 2 5.493
42 T7 3 5.493
42 T7 4 5.493
42 T7 5 5.005
42 T7 6 4.517
42 T7 7 4.028
42 T7 8 4.028
42 T7 9 4.028
42 T7 10 4.028
42 T7 11 4.028
42 T7 12 4.028
42 T7 13 4.028
42 T7 14 3.052
42 T7 15 2.563
42 T7 16 2.563
42 T7 17 3.052
42 T7 18 4.028
42 T7 19 4.517
42 T7 20 4.517
42 T7 21 3.540
42 T7 22 2.563
42 T7 23 2.563
42 T7 24 3.052
42 T7 25 4.028
42 T7 26 5.005
42 T7 27 5.493
42 T7 28 5.005
42 T7 29 4.028
42 T7 30 3.540
42 T7 31 3.052
42 T7 32 3.052
42 T7 33 3.052
42 T7 34 2.075
42 T7 35 1.099
42 T7 36 0.122
42 T7 37 -0.366
42 T7 38 0.122
42 T7 39 1.099
42 T7 40 2.075
42 T7 41 3.052
42 T7 42 3.052
42 T7 43 2.075
42 T7 44 1.099
42 T7 45 0.122
42 T7 46 -0.854
42 T7 47 -1.831
42 T7 48 -2.319
42 T7 49 -2.319
42 T7 50 -1.831
42 T7 51 -0.366
42 T7 52 1.099
42 T7 53 2.075
42 T7 54 2.075
42 T7 55 0.610
42 T7 56 -0.854
42 T7 57 -2.319
42 T7 58 -3.296
42 T7 59 -3.784
42 T7 60 -3.784
42 T7 61 -3.784
42 T7 62 -3.296
42 T7 63 -2.808
42 T7 64 -2.319
42 T7 65 -1.831
42 T7 66 -1.831
42 T7 67 -1.831
42 T7 68 -1.831
42 T7 69 -1.343
42 T7 70 -0.366
42 T7 71 0.610
42 T7 72 1.099
42 T7 73 1.099
42 T7 74 1.099
42 T7 75 1.587
42 T7 76 1.587
42 T7 77 1.587
42 T7 78 1.587
42 T7 79 0.610
42 T7 80 0.122
42 T7 81 0.610
42 T7 82 1.587
42 T7 83 3.052
42 T7 84 4.517
42 T7 85 5.005
42 T7 86 4.517
42 T7 87 3.540
42 T7 88 3.052
42 T7 89 2.563
42 T7 90 2.075
42 T7 91 1.587
42 T7 92 1.587
42 T7 93 2.563
42 T7 94 4.028
42 T7 95 6.470
42 T7 96 8.423
42 T7 97 9.888
42 T7 98 9.399
42 T7 99 7.935
42 T7 100 5.981
42 T7 101 4.517
42 T7 102 3.540
42 T7 103 3.052
42 T7 104 3.052
42 T7 105 2.563
42 T7 106 2.075
42 T7 107 3.052
42 T7 108 4.028
42 T7 109 5.005
42 T7 110 5.005
42 T7 111 3.540
42 T7 112 0.610
42 T7 113 -2.319
42 T7 114 -3.784
42 T7 115 -3.784
42 T7 116 -1.831
42 T7 117 1.099
42 T7 118 3.540
42 T7 119 5.981
42 T7 120 7.446
42 T7 121 7.446
42 T7 122 5.981
42 T7 123 3.540
42 T7 124 1.099
42 T7 125 -0.854
42 T7 126 -1.831
42 T7 127 -2.319
42 T7 128 -2.319
42 T7 129 -1.831
42 T7 130 -1.343
42 T7 131 -0.854
42 T7 132 -0.854
42 T7 133 -0.854
42 T7 134 -0.854
42 T7 135 -0.854
42 T7 136 -1.343
42 T7 137 -1.343
42 T7 138 -0.854
42 T7 139 0.122
42 T7 140 1.099
42 T7 141 2.075
42 T7 142 3.052
42 T7 143 3.052
42 T7 144 3.540
42 T7 145 4.028
42 T7 146 4.028
42 T7 147 4.517
42 T7 148 5.005
42 T7 149 5.005
42 T7 150 4.517
42 T7 151 5.005
42 T7 152 4.517
42 T7 153 4.028
42 T7 154 3.540
42 T7 155 3.540
42 T7 156 3.540
42 T7 157 3.052
42 T7 158 2.563
42 T7 159 2.075
42 T7 160 2.075
42 T7 161 2.075
42 T7 162 3.052
42 T7 163 3.540
42 T7 164 3.540
42 T7 165 2.563
42 T7 166 1.587
42 T7 167 0.610
42 T7 168 0.610
42 T7 169 0.610
42 T7 170 1.099
42 T7 171 0.610
42 T7 172 0.122
42 T7 173 0.122
42 T7 174 0.122
42 T7 175 0.610
42 T7 176 1.587
42 T7 177 1.587
42 T7 178 1.099
42 T7 179 0.122
42 T7 180 -0.366
42 T7 181 -0.366
42 T7 182 0.610
42 T7 183 2.563
42 T7 184 4.028
42 T7 185 4.517
42 T7 186 4.028
42 T7 187 3.052
42 T7 188 2.075
42 T7 189 1.587
42 T7 190 1.587
42 T7 191 2.075
42 T7 192 2.563
42 T7 193 2.563
42 T7 194 2.075
42 T7 195 1.587
42 T7 196 1.099
42 T7 197 1.587
42 T7 198 2.075
42 T7 199 3.052
42 T7 200 3.052
42 T7 201 2.563
42 T7 202 2.075
42 T7 203 2.075
42 T7 204 2.075
42 T7 205 2.075
42 T7 206 1.099
42 T7 207 0.610
42 T7 208 0.122
42 T7 209 0.122
42 T7 210 -0.366
42 T7 211 -0.854
42 T7 212 -1.831
42 T7 213 -2.808
42 T7 214 -3.784
42 T7 215 -3.784
42 T7 216 -2.808
42 T7 217 -1.343
42 T7 218 0.122
42 T7 219 1.587
42 T7 220 2.075
42 T7 221 2.075
42 T7 222 1.587
42 T7 223 0.122
42 T7 224 -1.343
42 T7 225 -2.808
42 T7 226 -3.784
42 T7 227 -3.784
42 T7 228 -2.808
42 T7 229 -2.319
42 T7 230 -2.319
42 T7 231 -2.808
42 T7 232 -3.784
42 T7 233 -3.784
42 T7 234 -3.296
42 T7 235 -1.831
42 T7 236 0.122
42 T7 237 1.587
42 T7 238 2.563
42 T7 239 3.540
42 T7 240 4.028
42 T7 241 3.540
42 T7 242 3.052
42 T7 243 2.563
42 T7 244 1.587
42 T7 245 1.099
42 T7 246 0.610
42 T7 247 0.610
42 T7 248 0.610
42 T7 249 1.099
42 T7 250 1.099
42 T7 251 0.610
42 T7 252 -0.366
42 T7 253 -1.343
42 T7 254 -1.831
42 T7 255 -1.831
# CZ chan 15
42 CZ 0 15.015
42 CZ 1 15.991
42 CZ 2 16.479
42 CZ 3 16.479
42 CZ 4 15.991
42 CZ 5 15.991
42 CZ 6 16.479
42 CZ 7 17.456
42 CZ 8 18.433
42 CZ 9 17.944
42 CZ 10 16.968
42 CZ 11 15.503
42 CZ 12 14.526
42 CZ 13 14.526
42 CZ 14 15.015
42 CZ 15 16.968
42 CZ 16 18.433
42 CZ 17 20.386
42 CZ 18 20.386
42 CZ 19 19.409
42 CZ 20 16.968
42 CZ 21 14.526
42 CZ 22 12.573
42 CZ 23 13.062
42 CZ 24 15.503
42 CZ 25 19.409
42 CZ 26 22.339
42 CZ 27 23.315
42 CZ 28 22.339
42 CZ 29 19.409
42 CZ 30 15.991
42 CZ 31 14.526
42 CZ 32 15.015
42 CZ 33 15.503
42 CZ 34 15.503
42 CZ 35 14.526
42 CZ 36 12.573
42 CZ 37 11.597
42 CZ 38 11.597
42 CZ 39 13.062
42 CZ 40 15.015
42 CZ 41 15.503
42 CZ 42 14.038
42 CZ 43 11.597
42 CZ 44 8.179
42 CZ 45 5.249
42 CZ 46 4.272
42 CZ 47 3.784
42 CZ 48 4.272
42 CZ 49 5.737
42 CZ 50 7.690
42 CZ 51 9.644
42 CZ 52 11.597
42 CZ 53 11.597
42 CZ 54 10.132
42 CZ 55 7.202
42 CZ 56 4.272
42 CZ 57 1.343
42 CZ 58 -0.122
42 CZ 59 -1.099
42 CZ 60 -0.610
42 CZ 61 0.366
42 CZ 62 2.319
42 CZ 63 2.808
42 CZ 64 1.831
42 CZ 65 -0.122
42 CZ 66 -2.075
42 CZ 67 -2.075
42 CZ 68 0.366
42 CZ 69 4.272
42 CZ 70 7.202
42 CZ 71 8.667
42 CZ 72 8.179
42 CZ 73 7.202
42 CZ 74 6.714
42 CZ 75 6.714
42 CZ 76 7.202
42 CZ 77 6.714
42 CZ 78 4.761
42 CZ 79 2.808
42 CZ 80 1.343
42 CZ 81 0.854
42 CZ 82 1.343
42 CZ 83 3.296
42 CZ 84 5.737
42 CZ 85 8.667
42 CZ 86 11.108
42 CZ 87 11.597
42 CZ 88 10.132
42 CZ 89 7.690
42 CZ 90 4.761
42 CZ 91 4.272
42 CZ 92 5.249
42 CZ 93 7.202
42 CZ 94 9.644
42 CZ 95 11.597
42 CZ 96 13.062
42 CZ 97 14.038
42 CZ 98 15.015
42 CZ 99 15.015
42 CZ 100 14.526
42 CZ 101 14.038
42 CZ 102 14.526
42 CZ 103 15.503
42 CZ 104 15.991
42 CZ 105 16.479
42 CZ 106 15.991
42 CZ 107 15.015
42 CZ 108 12.573
42 CZ 109 9.644
42 CZ 110 5.737
42 CZ 111 0.366
42 CZ 112 -4.028
42 CZ 113 -5.493
42 CZ 114 -3.540
42 CZ 115 2.808
42 CZ 116 10.620
42 CZ 117 16.479
42 CZ 118 19.409
42 CZ 119 19.897
42 CZ 120 18.921
42 CZ 121 17.944
42 CZ 122 18.433
42 CZ 123 18.433
42 CZ 124 17.456
42 CZ 125 14.526
42 CZ 126 11.597
42 CZ 127 9.155
42 CZ 128 8.667
42 CZ 129 8.667
42 CZ 130 8.667
42 CZ 131 8.179
42 CZ 132 8.179
42 CZ 133 9.155
42 CZ 134 10.620
42 CZ 135 12.573
42 CZ 136 13.062
42 CZ 137 12.085
42 CZ 138 11.597
42 CZ 139 11.597
42 CZ 140 13.550
42 CZ 141 16.479
42 CZ 142 18.433
42 CZ 143 18.921
42 CZ 144 18.433
42 CZ 145 17.944
42 CZ 146 17.456
42 CZ 147 17.944
42 CZ 148 17.944
42 CZ 149 17.944
42 CZ 150 17.456
42 CZ 151 16.968
42 CZ 152 16.968
42 CZ 153 16.968
42 CZ 154 16.968
42 CZ 155 17.456
42 CZ 156 18.433
42 CZ 157 19.409
42 CZ 158 20.386
42 CZ 159 20.386
42 CZ 160 19.409
42 CZ 161 17.944
42 CZ 162 15.991
42 CZ 163 15.015
42 CZ 164 14.526
42 CZ 165 15.015
42 CZ 166 15.991
42 CZ 167 16.479
42 CZ 168 16.479
42 CZ 169 16.479
42 CZ 170 15.991
42 CZ 171 14.526
42 CZ 172 13.062
42 CZ 173 11.597
42 CZ 174 10.620
42 CZ 175 10.620
42 CZ 176 12.085
42 CZ 177 13.550
42 CZ 178 14.526
42 CZ 179 14.038
42 CZ 180 12.573
42 CZ 181 11.108
42 CZ 182 11.108
42 CZ 183 13.062
42 CZ 184 15.991
42 CZ 185 18.433
42 CZ 186 18.921
42 CZ 187 17.944
42 CZ 188 15.991
42 CZ 189 15.503
42 CZ 190 15.991
42 CZ 191 17.944
42 CZ 192 18.921
42 CZ 193 19.897
42 CZ 194 20.874
42 CZ 195 21.362
42 CZ 196 21.851
42 CZ 197 22.339
42 CZ 198 21.851
42 CZ 199 20.386
42 CZ 200 19.409
42 CZ 201 18.433
42 CZ 202 19.409
42 CZ 203 20.874
42 CZ 204 21.362
42 CZ 205 20.874
42 CZ 206 19.409
42 CZ 207 17.944
42 CZ 208 15.991
42 CZ 209 14.526
42 CZ 210 13.062
42 CZ 211 12.573
42 CZ 212 13.550
42 CZ 213 15.015
42 CZ 214 15.991
42 CZ 215 15.015
42 CZ 216 12.573
42 CZ 217 10.132
42 CZ 218 9.155
42 CZ 219 10.620
42 CZ 220 12.573
42 CZ 221 13.062
42 CZ 222 11.108
42 CZ 223 8.179
42 CZ 224 4.761
42 CZ 225 2.319
42 CZ 226 0.366
42 CZ 227 -1.099
42 CZ 228 -3.052
42 CZ 229 -5.493
42 CZ 230 -6.958
42 CZ 231 -7.935
42 CZ 232 -8.911
42 CZ 233 -9.399
42 CZ 234 -9.888
42 CZ 235 -9.888
42 CZ 236 -8.423
42 CZ 237 -5.981
42 CZ 238 -3.052
42 CZ 239 -1.587
42 CZ 240 -1.587
42 CZ 241 -1.587
42 CZ 242 -1.099
42 CZ 243 0.366
42 CZ 244 2.319
42 CZ 245 3.296
42 CZ 246 2.319
42 CZ 247 0.366
42 CZ 248 -0.610
42 CZ 249 1.343
42 CZ 250 4.761
42 CZ 251 8.179
42 CZ 252 8.667
42 CZ 253 5.737
42 CZ 254 0.366
42 CZ 255 -3.540
# C3 chan 16
42 C3 0 0.865
42 C3 1 1.353
42 C3 2 1.353
42 C3 3 1.841
42 C3 4 1.841
42 C3 5 1.841
42 C3 6 1.841
42 C3 7 1.353
42 C3 8 1.353
42 C3 9 0.865
42 C3 10 0.376
42 C3 11 0.376
42 C3 12 -0.112
42 C3 13 0.376
42 C3 14 0.376
42 C3 15 0.376
42 C3 16 0.865
42 C3 17 0.865
42 C3 18 1.353
42 C3 19 1.353
42 C3 20 0.865
42 C3 21 0.376
42 C3 22 -0.112
42 C3 23 -0.600
42 C3 24 -0.600
42 C3 25 0.376
42 C3 26 0.376
42 C3 27 0.376
42 C3 28 0.376
42 C3 29 0.376
42 C3 30 0.376
42 C3 31 0.376
42 C3 32 0.376
42 C3 33 0.376
42 C3 34 -0.112
42 C3 35 -0.600
42 C3 36 -1.088
42 C3 37 -1.577
42 C3 38 -1.088
42 C3 39 -0.112
42 C3 40 0.865
42 C3 41 1.841
42 C3 42 1.353
42 C3 43 0.865
42 C3 44 -0.600
42 C3 45 -1.577
42 C3 46 -2.553
42 C3 47 -3.042
42 C3 48 -3.042
42 C3 49 -2.065
42 C3 50 -1.088
42 C3 51 -0.112
42 C3 52 0.376
42 C3 53 0.376
42 C3 54 -0.112
42 C3 55 -1.088
42 C3 56 -2.553
42 C3 57 -3.530
42 C3 58 -4.018
42 C3 59 -4.506
42 C3 60 -4.506
42 C3 61 -4.018
42 C3 62 -3.042
42 C3 63 -2.553
42 C3 64 -2.553
42 C3 65 -2.553
42 C3 66 -2.553
42 C3 67 -2.553
42 C3 68 -2.553
42 C3 69 -2.065
42 C3 70 -1.577
42 C3 71 -1.088
42 C3 72 -1.577
42 C3 73 -1.577
42 C3 74 -1.577
42 C3 75 -1.577
42 C3 76 -1.088
42 C3 77 -0.600
42 C3 78 -0.600
42 C3 79 -0.600
42 C3 80 -0.600
42 C3 81 -0.112
42 C3 82 0.865
42 C3 83 1.353
42 C3 84 1.353
42 C3 85 1.353
42 C3 86 0.865
42 C3 87 0.376
42 C3 88 0.376
42 C3 89 -0.112
42 C3 90 -0.600
42 C3 91 -0.600
42 C3 92 -1.088
42 C3 93 -0.600
42 C3 94 -0.112
42 C3 95 0.865
42 C3 96 1.841
42 C3 97 2.330
42 C3 98 1.841
42 C3 99 0.865
42 C3 100 0.376
42 C3 101 -0.600
42 C3 102 -0.600
42 C3 103 -0.600
42 C3 104 -0.112
42 C3 105 -0.600
42 C3 106 -0.600
42 C3 107 0.376
42 C3 108 0.865
42 C3 109 2.330
42 C3 110 2.330
42 C3 111 2.330
42 C3 112 0.865
42 C3 113 -0.600
42 C3 114 -1.577
42 C3 115 -2.065
42 C3 116 -2.065
42 C3 117 -1.088
42 C3 118 -0.600
42 C3 119 0.376
42 C3 120 1.353
42 C3 121 1.353
42 C3 122 1.353
42 C3 123 0.865
42 C3 124 -0.112
42 C3 125 -1.088
42 C3 126 -2.065
42 C3 127 -2.553
42 C3 128 -3.042
42 C3 129 -3.042
42 C3 130 -2.553
42 C3 131 -2.065
42 C3 132 -1.577
42 C3 133 -1.577
42 C3 134 -1.088
42 C3 135 -1.577
42 C3 136 -1.577
42 C3 137 -2.065
42 C3 138 -2.065
42 C3 139 -2.065
42 C3 140 -1.577
42 C3 141 -1.577
42 C3 142 -1.088
42 C3 143 -0.600
42 C3 144 -0.600
42 C3 145 -0.112
42 C3 146 0.376
42 C3 147 0.865
42 C3 148 0.865
42 C3 149 0.865
42 C3 150 0.865
42 C3 151 0.376
42 C3 152 0.376
42 C3 153 0.376
42 C3 154 0.376
42 C3 155 0.376
42 C3 156 0.376
42 C3 157 0.376
42 C3 158 0.376
42 C3 159 0.376
42 C3 160 -0.112
42 C3 161 -0.600
42 C3 162 -0.600
42 C3 163 -0.600
42 C3 164 -0.600
42 C3 165 -0.600
42 C3 166 -1.088
42 C3 167 -1.577
42 C3 168 -1.577
42 C3 169 -1.577
42 C3 170 -1.577
42 C3 171 -1.577
42 C3 172 -1.577
42 C3 173 -2.065
42 C3 174 -2.065
42 C3 175 -2.065
42 C3 176 -2.553
42 C3 177 -2.065
42 C3 178 -2.065
42 C3 179 -2.065
42 C3 180 -1.577
42 C3 181 -1.088
42 C3 182 -0.600
42 C3 183 0.376
42 C3 184 0.865
42 C3 185 1.353
42 C3 186 1.353
42 C3 187 0.376
42 C3 188 -0.600
42 C3 189 -1.577
42 C3 190 -1.577
42 C3 191 -1.577
42 C3 192 -1.577
42 C3 193 -1.577
42 C3 194 -2.065
42 C3 195 -2.553
42 C3 196 -2.553
42 C3 197 -2.065
42 C3 198 -1.577
42 C3 199 -1.088
42 C3 200 -0.600
42 C3 201 -0.600
42 C3 202 -0.600
42 C3 203 -0.600
42 C3 204 -1.088
42 C3 205 -1.088
42 C3 206 -1.577
42 C3 207 -1.577
42 C3 208 -1.577
42 C3 209 -1.577
42 C3 210 -2.065
42 C3 211 -2.065
42 C3 212 -2.553
42 C3 213 -2.553
42 C3 214 -2.553
42 C3 215 -2.065
42 C3 216 -1.577
42 C3 217 -1.088
42 C3 218 -0.600
42 C3 219 -0.600
42 C3 220 -0.600
42 C3 221 -1.088
42 C3 222 -1.088
42 C3 223 -1.577
42 C3 224 -2.553
42 C3 225 -3.042
42 C3 226 -3.530
42 C3 227 -3.042
42 C3 228 -2.553
42 C3 229 -2.065
42 C3 230 -1.577
42 C3 231 -2.065
42 C3 232 -2.553
42 C3 233 -2.553
42 C3 234 -3.042
42 C3 235 -2.553
42 C3 236 -1.577
42 C3 237 -0.600
42 C3 238 0.376
42 C3 239 0.865
42 C3 240 0.865
42 C3 241 0.865
42 C3 242 0.376
42 C3 243 -0.112
42 C3 244 -0.600
42 C3 245 -1.088
42 C3 246 -1.577
42 C3 247 -1.577
42 C3 248 -1.577
42 C3 249 -1.088
42 C3 250 -1.088
42 C3 251 -0.600
42 C3 252 -1.088
42 C3 253 -1.577
42 C3 254 -2.065
42 C3 255 -2.065
# C4 chan 17
42 C4 0 2.858
42 C4 1 2.370
42 C4 2 1.882
42 C4 3 1.882
42 C4 4 2.370
42 C4 5 2.858
42 C4 6 2.858
42 C4 7 2.858
42 C4 8 2.858
42 C4 9 2.858
42 C4 10 2.858
42 C4 11 2.858
42 C4 12 2.858
42 C4 13 2.858
42 C4 14 2.370
42 C4 15 1.882
42 C4 16 1.394
42 C4 17 1.394
42 C4 18 1.394
42 C4 19 1.394
42 C4 20 1.394
42 C4 21 1.394
42 C4 22 1.394
42 C4 23 1.394
42 C4 24 1.394
42 C4 25 1.882
42 C4 26 2.370
42 C4 27 2.370
42 C4 28 2.370
42 C4 29 1.882
42 C4 30 1.394
42 C4 31 -0.071
42 C4 32 -0.559
42 C4 33 -0.559
42 C4 34 -0.071
42 C4 35 0.905
42 C4 36 0.905
42 C4 37 0.417
42 C4 38 -0.071
42 C4 39 -0.559
42 C4 40 -1.048
42 C4 41 -1.048
42 C4 42 -0.559
42 C4 43 0.417
42 C4 44 1.882
42 C4 45 2.858
42 C4 46 3.347
42 C4 47 2.858
42 C4 48 2.370
42 C4 49 1.394
42 C4 50 0.417
42 C4 51 -0.071
42 C4 52 -0.559
42 C4 53 -0.071
42 C4 54 0.417
42 C4 55 0.905
42 C4 56 0.905
42 C4 57 1.394
42 C4 58 1.394
42 C4 59 1.394
42 C4 60 0.905
42 C4 61 -0.071
42 C4 62 -0.559
42 C4 63 -0.559
42 C4 64 -0.071
42 C4 65 0.417
42 C4 66 0.905
42 C4 67 1.394
42 C4 68 1.394
42 C4 69 0.905
42 C4 70 0.905
42 C4 71 0.905
42 C4 72 0.905
42 C4 73 1.394
42 C4 74 1.882
42 C4 75 1.882
42 C4 76 1.882
42 C4 77 1.394
42 C4 78 0.417
42 C4 79 -0.071
42 C4 80 -0.071
42 C4 81 -0.559
42 C4 82 -0.071
42 C4 83 0.417
42 C4 84 0.417
42 C4 85 0.417
42 C4 86 0.417
42 C4 87 -0.071
42 C4 88 -0.071
42 C4 89 -0.071
42 C4 90 0.905
42 C4 91 1.394
42 C4 92 2.370
42 C4 93 2.370
42 C4 94 2.370
42 C4 95 1.882
42 C4 96 0.905
42 C4 97 0.905
42 C4 98 1.394
42 C4 99 1.394
42 C4 100 1.882
42 C4 101 2.370
42 C4 102 2.858
42 C4 103 3.347
42 C4 104 3.347
42 C4 105 3.347
42 C4 106 2.858
42 C4 107 1.882
42 C4 108 -0.071
42 C4 109 -1.536
42 C4 110 -2.024
42 C4 111 -2.513
42 C4 112 -2.513
42 C4 113 -2.024
42 C4 114 -0.559
42 C4 115 1.394
42 C4 116 2.858
42 C4 117 4.323
42 C4 118 4.323
42 C4 119 4.323
42 C4 120 4.323
42 C4 121 3.347
42 C4 122 2.858
42 C4 123 1.882
42 C4 124 0.905
42 C4 125 0.417
42 C4 126 -0.071
42 C4 127 -0.559
42 C4 128 -0.071
42 C4 129 -0.071
42 C4 130 0.417
42 C4 131 0.905
42 C4 132 0.905
42 C4 133 0.905
42 C4 134 0.417
42 C4 135 -0.071
42 C4 136 -0.559
42 C4 137 -1.048
42 C4 138 -0.559
42 C4 139 -0.071
42 C4 140 0.417
42 C4 141 1.394
42 C4 142 2.370
42 C4 143 3.347
42 C4 144 3.835
42 C4 145 3.835
42 C4 146 3.835
42 C4 147 2.858
42 C4 148 2.370
42 C4 149 1.394
42 C4 150 1.394
42 C4 151 1.394
42 C4 152 1.394
42 C4 153 1.394
42 C4 154 1.394
42 C4 155 0.417
42 C4 156 -0.559
42 C4 157 -1.048
42 C4 158 -1.048
42 C4 159 -1.536
42 C4 160 -1.536
42 C4 161 -1.048
42 C4 162 -0.559
42 C4 163 0.905
42 C4 164 1.882
42 C4 165 2.370
42 C4 166 2.858
42 C4 167 2.858
42 C4 168 3.347
42 C4 169 3.347
42 C4 170 2.858
42 C4 171 2.370
42 C4 172 1.394
42 C4 173 0.905
42 C4 174 0.905
42 C4 175 0.905
42 C4 176 0.905
42 C4 177 0.905
42 C4 178 -0.071
42 C4 179 -1.536
42 C4 180 -2.513
42 C4 181 -3.489
42 C4 182 -3.489
42 C4 183 -3.489
42 C4 184 -2.513
42 C4 185 -2.513
42 C4 186 -2.024
42 C4 187 -2.024
42 C4 188 -1.536
42 C4 189 0.417
42 C4 190 2.370
42 C4 191 4.323
42 C4 192 5.300
42 C4 193 5.788
42 C4 194 5.300
42 C4 195 4.812
42 C4 196 4.323
42 C4 197 3.835
42 C4 198 2.858
42 C4 199 1.882
42 C4 200 0.905
42 C4 201 -0.071
42 C4 202 -0.071
42 C4 203 -0.559
42 C4 204 -0.071
42 C4 205 -0.071
42 C4 206 -0.071
42 C4 207 -0.071
42 C4 208 -0.071
42 C4 209 -0.071
42 C4 210 -0.071
42 C4 211 -0.071
42 C4 212 0.417
42 C4 213 0.905
42 C4 214 1.394
42 C4 215 1.394
42 C4 216 0.905
42 C4 217 0.417
42 C4 218 0.417
42 C4 219 0.905
42 C4 220 1.394
42 C4 221 2.370
42 C4 222 2.858
42 C4 223 2.370
42 C4 224 2.370
42 C4 225 1.882
42 C4 226 1.882
42 C4 227 1.882
42 C4 228 2.370
42 C4 229 2.370
42 C4 230 2.858
42 C4 231 3.347
42 C4 232 3.835
42 C4 233 3.835
42 C4 234 3.835
42 C4 235 3.835
42 C4 236 3.835
42 C4 237 3.835
42 C4 238 3.835
42 C4 239 3.835
42 C4 240 3.835
42 C4 241 3.835
42 C4 242 3.347
42 C4 243 3.347
42 C4 244 3.347
42 C4 245 3.347
42 C4 246 3.347
42 C4 247 3.347
42 C4 248 2.858
42 C4 249 2.858
42 C4 250 2.858
42 C4 251 2.858
42 C4 252 2.858
42 C4 253 2.858
42 C4 254 2.370
42 C4 255 2.370
# CP5 chan 18
42 CP5 0 1.444
42 CP5 1 2.421
42 CP5 2 2.909
42 CP5 3 3.398
42 CP5 4 3.398
42 CP5 5 2.421
42 CP5 6 1.933
42 CP5 7 1.933
42 CP5 8 1.933
42 CP5 9 1.933
42 CP5 10 1.444
42 CP5 11 1.444
42 CP5 12 0.956
42 CP5 13 0.956
42 CP5 14 0.468
42 CP5 15 0.468
42 CP5 16 0.468
42 CP5 17 0.468
42 CP5 18 1.444
42 CP5 19 1.933
42 CP5 20 1.933
42 CP5 21 1.444
42 CP5 22 0.468
42 CP5 23 -0.020
42 CP5 24 -0.509
42 CP5 25 -0.020
42 CP5 26 0.468
42 CP5 27 1.444
42 CP5 28 1.444
42 CP5 29 1.933
42 CP5 30 1.933
42 CP5 31 1.933
42 CP5 32 2.421
42 CP5 33 1.933
42 CP5 34 1.444
42 CP5 35 0.468
42 CP5 36 -0.509
42 CP5 37 -1.485
42 CP5 38 -0.997
42 CP5 39 -0.020
42 CP5 40 1.444
42 CP5 41 1.933
42 CP5 42 2.421
42 CP5 43 1.444
42 CP5 44 0.956
42 CP5 45 -0.020
42 CP5 46 -0.997
42 CP5 47 -1.485
42 CP5 48 -1.973
42 CP5 49 -2.462
42 CP5 50 -1.973
42 CP5 51 -0.997
42 CP5 52 0.468
42 CP5 53 1.444
42 CP5 54 1.444
42 CP5 55 0.956
42 CP5 56 -0.020
42 CP5 57 -1.485
42 CP5 58 -2.462
42 CP5 59 -2.950
42 CP5 60 -3.438
42 CP5 61 -3.438
42 CP5 62 -2.950
42 CP5 63 -2.462
42 CP5 64 -1.973
42 CP5 65 -1.485
42 CP5 66 -1.485
42 CP5 67 -1.485
42 CP5 68 -0.997
42 CP5 69 -0.020
42 CP5 70 0.468
42 CP5 71 1.444
42 CP5 72 1.444
42 CP5 73 0.956
42 CP5 74 1.444
42 CP5 75 1.933
42 CP5 76 2.421
42 CP5 77 2.909
42 CP5 78 2.421
42 CP5 79 2.421
42 CP5 80 2.421
42 CP5 81 2.909
42 CP5 82 3.886
42 CP5 83 5.351
42 CP5 84 5.839
42 CP5 85 5.351
42 CP5 86 3.886
42 CP5 87 2.421
42 CP5 88 1.933
42 CP5 89 1.933
42 CP5 90 1.933
42 CP5 91 2.421
42 CP5 92 2.421
42 CP5 93 2.909
42 CP5 94 3.886
42 CP5 95 5.351
42 CP5 96 6.327
42 CP5 97 7.304
42 CP5 98 6.816
42 CP5 99 5.351
42 CP5 100 4.374
42 CP5 101 3.398
42 CP5 102 2.909
42 CP5 103 2.909
42 CP5 104 2.909
42 CP5 105 2.909
42 CP5 106 2.909
42 CP5 107 3.398
42 CP5 108 4.374
42 CP5 109 5.839
42 CP5 110 6.327
42 CP5 111 6.327
42 CP5 112 4.374
42 CP5 113 2.909
42 CP5 114 1.444
42 CP5 115 0.956
42 CP5 116 1.444
42 CP5 117 3.398
42 CP5 118 5.351
42 CP5 119 6.816
42 CP5 120 8.280
42 CP5 121 7.792
42 CP5 122 7.304
42 CP5 123 4.374
42 CP5 124 1.933
42 CP5 125 -0.020
42 CP5 126 -1.485
42 CP5 127 -1.973
42 CP5 128 -2.462
42 CP5 129 -1.973
42 CP5 130 -1.485
42 CP5 131 -0.509
42 CP5 132 -0.020
42 CP5 133 0.468
42 CP5 134 -0.020
42 CP5 135 -0.020
42 CP5 136 -0.020
42 CP5 137 -0.020
42 CP5 138 0.468
42 CP5 139 0.956
42 CP5 140 1.933
42 CP5 141 2.909
42 CP5 142 3.886
42 CP5 143 4.374
42 CP5 144 4.862
42 CP5 145 5.351
42 CP5 146 5.351
42 CP5 147 4.862
42 CP5 148 5.351
42 CP5 149 5.351
42 CP5 150 5.351
42 CP5 151 5.351
42 CP5 152 5.351
42 CP5 153 4.862
42 CP5 154 4.374
42 CP5 155 3.886
42 CP5 156 3.886
42 CP5 157 3.398
42 CP5 158 2.909
42 CP5 159 1.933
42 CP5 160 1.444
42 CP5 161 1.444
42 CP5 162 1.444
42 CP5 163 2.421
42 CP5 164 2.421
42 CP5 165 2.421
42 CP5 166 1.444
42 CP5 167 0.956
42 CP5 168 0.468
42 CP5 169 -0.020
42 CP5 170 -0.020
42 CP5 171 -0.509
42 CP5 172 -1.485
42 CP5 173 -1.485
42 CP5 174 -1.485
42 CP5 175 -0.997
42 CP5 176 -0.997
42 CP5 177 -1.485
42 CP5 178 -1.973
42 CP5 179 -2.950
42 CP5 180 -3.438
42 CP5 181 -2.950
42 CP5 182 -1.973
42 CP5 183 -0.509
42 CP5 184 1.444
42 CP5 185 1.933
42 CP5 186 2.421
42 CP5 187 1.444
42 CP5 188 0.468
42 CP5 189 0.468
42 CP5 190 -0.020
42 CP5 191 -0.020
42 CP5 192 -0.509
42 CP5 193 -1.485
42 CP5 194 -2.462
42 CP5 195 -2.462
42 CP5 196 -1.973
42 CP5 197 -0.997
42 CP5 198 -0.020
42 CP5 199 0.468
42 CP5 200 -0.020
42 CP5 201 -0.509
42 CP5 202 -1.485
42 CP5 203 -1.485
42 CP5 204 -0.997
42 CP5 205 -0.997
42 CP5 206 -1.485
42 CP5 207 -1.973
42 CP5 208 -1.973
42 CP5 209 -1.973
42 CP5 210 -1.973
42 CP5 211 -1.973
42 CP5 212 -2.950
42 CP5 213 -3.927
42 CP5 214 -4.415
42 CP5 215 -4.415
42 CP5 216 -3.927
42 CP5 217 -2.462
42 CP5 218 -1.485
42 CP5 219 -0.509
42 CP5 220 -0.997
42 CP5 221 -1.485
42 CP5 222 -1.973
42 CP5 223 -3.438
42 CP5 224 -5.391
42 CP5 225 -7.345
42 CP5 226 -8.321
42 CP5 227 -8.321
42 CP5 228 -7.345
42 CP5 229 -6.856
42 CP5 230 -6.368
42 CP5 231 -6.368
42 CP5 232 -6.856
42 CP5 233 -7.345
42 CP5 234 -6.856
42 CP5 235 -5.880
42 CP5 236 -4.415
42 CP5 237 -3.438
42 CP5 238 -2.462
42 CP5 239 -1.973
42 CP5 240 -1.973
42 CP5 241 -1.973
42 CP5 242 -2.462
42 CP5 243 -3.438
42 CP5 244 -3.927
42 CP5 245 -4.903
42 CP5 246 -4.903
42 CP5 247 -4.903
42 CP5 248 -4.415
42 CP5 249 -3.438
42 CP5 250 -3.438
42 CP5 251 -3.438
42 CP5 252 -3.927
42 CP5 253 -4.415
42 CP5 254 -4.415
42 CP5 255 -3.927
# CP6 chan 19
42 CP6 0 3.174
42 CP6 1 4.150
42 CP6 2 4.150
42 CP6 3 4.639
42 CP6 4 4.150
42 CP6 5 4.639
42 CP6 6 4.639
42 CP6 7 5.127
42 CP6 8 5.615
42 CP6 9 6.104
42 CP6 10 6.104
42 CP6 11 5.615
42 CP6 12 5.127
42 CP6 13 4.639
42 CP6 14 4.150
42 CP6 15 3.174
42 CP6 16 2.197
42 CP6 17 1.709
42 CP6 18 1.709
42 CP6 19 1.709
42 CP6 20 2.197
42 CP6 21 2.197
42 CP6 22 1.709
42 CP6 23 1.709
42 CP6 24 1.709
42 CP6 25 2.197
42 CP6 26 3.174
42 CP6 27 4.150
42 CP6 28 4.639
42 CP6 29 4.150
42 CP6 30 3.174
42 CP6 31 1.709
42 CP6 32 1.221
42 CP6 33 0.732
42 CP6 34 1.221
42 CP6 35 1.709
42 CP6 36 1.221
42 CP6 37 0.244
42 CP6 38 -1.221
42 CP6 39 -1.709
42 CP6 40 -1.221
42 CP6 41 -0.244
42 CP6 42 0.732
42 CP6 43 1.709
42 CP6 44 2.686
42 CP6 45 3.174
42 CP6 46 3.662
42 CP6 47 3.662
42 CP6 48 2.686
42 CP6 49 0.732
42 CP6 50 -0.732
42 CP6 51 -1.709
42 CP6 52 -1.221
42 CP6 53 -0.244
42 CP6 54 1.221
42 CP6 55 2.197
42 CP6 56 2.686
42 CP6 57 2.197
42 CP6 58 2.197
42 CP6 59 1.709
42 CP6 60 0.732
42 CP6 61 -0.244
42 CP6 62 -1.221
42 CP6 63 -1.221
42 CP6 64 -0.732
42 CP6 65 0.732
42 CP6 66 2.197
42 CP6 67 3.662
42 CP6 68 3.662
42 CP6 69 3.662
42 CP6 70 3.662
42 CP6 71 3.662
42 CP6 72 4.150
42 CP6 73 4.150
42 CP6 74 4.150
42 CP6 75 4.150
42 CP6 76 3.662
42 CP6 77 3.662
42 CP6 78 3.174
42 CP6 79 2.686
42 CP6 80 2.686
42 CP6 81 2.686
42 CP6 82 3.174
42 CP6 83 3.662
42 CP6 84 4.150
42 CP6 85 4.150
42 CP6 86 3.174
42 CP6 87 2.197
42 CP6 88 1.221
42 CP6 89 1.221
42 CP6 90 1.709
42 CP6 91 2.686
42 CP6 92 3.662
42 CP6 93 4.639
42 CP6 94 5.615
42 CP6 95 6.104
42 CP6 96 6.104
42 CP6 97 6.104
42 CP6 98 5.615
42 CP6 99 5.127
42 CP6 100 4.639
42 CP6 101 4.639
42 CP6 102 5.127
42 CP6 103 5.615
42 CP6 104 6.104
42 CP6 105 5.615
42 CP6 106 4.639
42 CP6 107 4.150
42 CP6 108 3.174
42 CP6 109 2.686
42 CP6 110 2.686
42 CP6 111 2.197
42 CP6 112 2.197
42 CP6 113 2.686
42 CP6 114 3.662
42 CP6 115 5.615
42 CP6 116 7.568
42 CP6 117 8.545
42 CP6 118 9.033
42 CP6 119 10.010
42 CP6 120 10.498
42 CP6 121 10.498
42 CP6 122 9.521
42 CP6 123 8.545
42 CP6 124 5.127
42 CP6 125 2.197
42 CP6 126 -0.244
42 CP6 127 -1.221
42 CP6 128 -1.709
42 CP6 129 -0.732
42 CP6 130 0.244
42 CP6 131 1.709
42 CP6 132 2.686
42 CP6 133 2.686
42 CP6 134 2.686
42 CP6 135 1.709
42 CP6 136 1.709
42 CP6 137 1.709
42 CP6 138 2.197
42 CP6 139 3.174
42 CP6 140 4.150
42 CP6 141 5.127
42 CP6 142 6.592
42 CP6 143 8.057
42 CP6 144 9.521
42 CP6 145 10.498
42 CP6 146 10.010
42 CP6 147 9.033
42 CP6 148 7.568
42 CP6 149 6.592
42 CP6 150 6.592
42 CP6 151 7.080
42 CP6 152 7.080
42 CP6 153 7.080
42 CP6 154 6.104
42 CP6 155 4.639
42 CP6 156 3.662
42 CP6 157 3.174
42 CP6 158 3.174
42 CP6 159 3.174
42 CP6 160 3.662
42 CP6 161 4.150
42 CP6 162 5.127
42 CP6 163 6.104
42 CP6 164 6.592
42 CP6 165 7.080
42 CP6 166 7.080
42 CP6 167 6.592
42 CP6 168 6.104
42 CP6 169 5.127
42 CP6 170 4.150
42 CP6 171 2.686
42 CP6 172 1.221
42 CP6 173 0.732
42 CP6 174 0.732
42 CP6 175 1.221
42 CP6 176 1.709
42 CP6 177 0.732
42 CP6 178 -0.244
42 CP6 179 -2.686
42 CP6 180 -4.150
42 CP6 181 -5.127
42 CP6 182 -5.127
42 CP6 183 -4.150
42 CP6 184 -2.686
42 CP6 185 -1.709
42 CP6 186 -1.221
42 CP6 187 -0.244
42 CP6 188 1.221
42 CP6 189 3.662
42 CP6 190 6.104
42 CP6 191 8.057
42 CP6 192 8.057
42 CP6 193 7.568
42 CP6 194 6.592
42 CP6 195 6.104
42 CP6 196 6.104
42 CP6 197 6.104
42 CP6 198 5.615
42 CP6 199 3.662
42 CP6 200 1.709
42 CP6 201 -0.244
42 CP6 202 -1.221
42 CP6 203 -1.221
42 CP6 204 -1.221
42 CP6 205 -0.244
42 CP6 206 0.244
42 CP6 207 1.221
42 CP6 208 2.197
42 CP6 209 2.686
42 CP6 210 3.662
42 CP6 211 4.150
42 CP6 212 4.150
42 CP6 213 4.150
42 CP6 214 3.662
42 CP6 215 2.686
42 CP6 216 1.221
42 CP6 217 1.221
42 CP6 218 1.709
42 CP6 219 2.686
42 CP6 220 3.662
42 CP6 221 4.150
42 CP6 222 4.150
42 CP6 223 3.662
42 CP6 224 2.197
42 CP6 225 1.221
42 CP6 226 0.244
42 CP6 227 0.244
42 CP6 228 0.244
42 CP6 229 0.732
42 CP6 230 1.709
42 CP6 231 2.197
42 CP6 232 2.686
42 CP6 233 2.686
42 CP6 234 2.197
42 CP6 235 2.197
42 CP6 236 2.197
42 CP6 237 2.197
42 CP6 238 2.686
42 CP6 239 3.174
42 CP6 240 3.174
42 CP6 241 2.686
42 CP6 242 2.686
42 CP6 243 2.686
42 CP6 244 2.686
42 CP6 245 2.686
42 CP6 246 2.686
42 CP6 247 2.686
42 CP6 248 2.686
42 CP6 249 2.686
42 CP6 250 2.686
42 CP6 251 2.197
42 CP6 252 2.197
42 CP6 253 2.197
42 CP6 254 2.686
42 CP6 255 3.662
# CP1 chan 20
42 CP1 0 -0.173
42 CP1 1 0.315
42 CP1 2 0.804
42 CP1 3 1.292
42 CP1 4 1.292
42 CP1 5 1.292
42 CP1 6 1.292
42 CP1 7 0.804
42 CP1 8 0.804
42 CP1 9 0.804
42 CP1 10 0.315
42 CP1 11 0.315
42 CP1 12 0.315
42 CP1 13 -0.173
42 CP1 14 -0.173
42 CP1 15 -0.173
42 CP1 16 -0.173
42 CP1 17 -0.173
42 CP1 18 -0.173
42 CP1 19 0.315
42 CP1 20 -0.173
42 CP1 21 -0.173
42 CP1 22 -1.149
42 CP1 23 -1.638
42 CP1 24 -1.638
42 CP1 25 -1.638
42 CP1 26 -1.149
42 CP1 27 -0.173
42 CP1 28 0.315
42 CP1 29 0.315
42 CP1 30 0.804
42 CP1 31 0.804
42 CP1 32 0.804
42 CP1 33 1.292
42 CP1 34 0.804
42 CP1 35 0.315
42 CP1 36 -0.173
42 CP1 37 -0.661
42 CP1 38 -0.661
42 CP1 39 -0.173
42 CP1 40 0.804
42 CP1 41 1.292
42 CP1 42 1.780
42 CP1 43 2.268
42 CP1 44 1.780
42 CP1 45 1.780
42 CP1 46 0.804
42 CP1 47 0.804
42 CP1 48 0.315
42 CP1 49 -0.173
42 CP1 50 -0.173
42 CP1 51 -0.173
42 CP1 52 0.315
42 CP1 53 0.804
42 CP1 54 0.804
42 CP1 55 0.804
42 CP1 56 0.804
42 CP1 57 0.315
42 CP1 58 0.315
42 CP1 59 -0.173
42 CP1 60 -0.173
42 CP1 61 -0.173
42 CP1 62 -0.661
42 CP1 63 -0.173
42 CP1 64 0.315
42 CP1 65 0.804
42 CP1 66 0.804
42 CP1 67 1.292
42 CP1 68 1.780
42 CP1 69 1.780
42 CP1 70 2.268
42 CP1 71 2.268
42 CP1 72 1.780
42 CP1 73 1.780
42 CP1 74 2.268
42 CP1 75 2.757
42 CP1 76 2.757
42 CP1 77 3.245
42 CP1 78 3.245
42 CP1 79 3.245
42 CP1 80 3.245
42 CP1 81 3.733
42 CP1 82 4.710
42 CP1 83 5.686
42 CP1 84 5.686
42 CP1 85 4.710
42 CP1 86 3.733
42 CP1 87 3.245
42 CP1 88 2.268
42 CP1 89 2.268
42 CP1 90 2.757
42 CP1 91 2.757
42 CP1 92 3.245
42 CP1 93 3.733
42 CP1 94 4.222
42 CP1 95 5.198
42 CP1 96 5.686
42 CP1 97 5.686
42 CP1 98 5.686
42 CP1 99 4.710
42 CP1 100 4.222
42 CP1 101 3.245
42 CP1 102 3.245
42 CP1 103 3.245
42 CP1 104 3.733
42 CP1 105 4.222
42 CP1 106 4.222
42 CP1 107 4.710
42 CP1 108 5.198
42 CP1 109 6.175
42 CP1 110 6.663
42 CP1 111 6.175
42 CP1 112 6.175
42 CP1 113 5.686
42 CP1 114 4.710
42 CP1 115 4.710
42 CP1 116 4.222
42 CP1 117 4.710
42 CP1 118 5.686
42 CP1 119 7.151
42 CP1 120 8.128
42 CP1 121 8.128
42 CP1 122 7.640
42 CP1 123 6.175
42 CP1 124 4.222
42 CP1 125 2.757
42 CP1 126 1.780
42 CP1 127 1.292
42 CP1 128 1.292
42 CP1 129 1.780
42 CP1 130 2.757
42 CP1 131 3.245
42 CP1 132 3.733
42 CP1 133 3.733
42 CP1 134 3.733
42 CP1 135 3.733
42 CP1 136 3.733
42 CP1 137 4.222
42 CP1 138 4.222
42 CP1 139 4.710
42 CP1 140 5.198
42 CP1 141 5.686
42 CP1 142 6.175
42 CP1 143 6.663
42 CP1 144 7.151
42 CP1 145 7.640
42 CP1 146 7.640
42 CP1 147 7.640
42 CP1 148 7.640
42 CP1 149 7.640
42 CP1 150 7.640
42 CP1 151 7.151
42 CP1 152 7.151
42 CP1 153 6.663
42 CP1 154 6.663
42 CP1 155 6.663
42 CP1 156 6.663
42 CP1 157 6.175
42 CP1 158 6.175
42 CP1 159 5.198
42 CP1 160 5.198
42 CP1 161 5.198
42 CP1 162 5.686
42 CP1 163 5.686
42 CP1 164 6.175
42 CP1 165 6.175
42 CP1 166 5.686
42 CP1 167 5.198
42 CP1 168 4.710
42 CP1 169 4.222
42 CP1 170 3.733
42 CP1 171 3.245
42 CP1 172 3.245
42 CP1 173 3.733
42 CP1 174 3.733
42 CP1 175 3.245
42 CP1 176 3.245
42 CP1 177 2.757
42 CP1 178 2.757
42 CP1 179 2.268
42 CP1 180 1.780
42 CP1 181 1.780
42 CP1 182 2.268
42 CP1 183 3.733
42 CP1 184 5.198
42 CP1 185 6.175
42 CP1 186 6.175
42 CP1 187 5.686
42 CP1 188 4.710
42 CP1 189 4.222
42 CP1 190 4.222
42 CP1 191 4.222
42 CP1 192 3.733
42 CP1 193 2.757
42 CP1 194 2.268
42 CP1 195 1.780
42 CP1 196 2.268
42 CP1 197 3.733
42 CP1 198 4.710
42 CP1 199 4.710
42 CP1 200 4.710
42 CP1 201 3.733
42 CP1 202 3.245
42 CP1 203 3.245
42 CP1 204 3.245
42 CP1 205 3.733
42 CP1 206 3.245
42 CP1 207 3.733
42 CP1 208 3.733
42 CP1 209 3.733
42 CP1 210 4.222
42 CP1 211 4.222
42 CP1 212 4.222
42 CP1 213 3.733
42 CP1 214 3.733
42 CP1 215 3.733
42 CP1 216 3.733
42 CP1 217 4.222
42 CP1 218 4.710
42 CP1 219 4.222
42 CP1 220 4.222
42 CP1 221 3.733
42 CP1 222 3.245
42 CP1 223 2.268
42 CP1 224 1.292
42 CP1 225 0.315
42 CP1 226 -0.173
42 CP1 227 -0.173
42 CP1 228 0.315
42 CP1 229 0.315
42 CP1 230 0.804
42 CP1 231 0.315
42 CP1 232 -0.173
42 CP1 233 -0.173
42 CP1 234 0.315
42 CP1 235 0.315
42 CP1 236 1.292
42 CP1 237 1.780
42 CP1 238 2.268
42 CP1 239 2.757
42 CP1 240 3.245
42 CP1 241 2.757
42 CP1 242 1.780
42 CP1 243 0.804
42 CP1 244 0.315
42 CP1 245 0.315
42 CP1 246 0.315
42 CP1 247 0.804
42 CP1 248 1.292
42 CP1 249 1.780
42 CP1 250 1.780
42 CP1 251 1.780
42 CP1 252 1.780
42 CP1 253 2.268
42 CP1 254 2.268
42 CP1 255 3.245
# CP2 chan 21
42 CP2 0 0.081
42 CP2 1 0.081
42 CP2 2 0.081
42 CP2 3 0.081
42 CP2 4 0.081
42 CP2 5 0.081
42 CP2 6 0.570
42 CP2 7 0.570
42 CP2 8 1.546
42 CP2 9 1.546
42 CP2 10 1.546
42 CP2 11 1.058
42 CP2 12 1.058
42 CP2 13 1.058
42 CP2 14 0.570
42 CP2 15 0.081
42 CP2 16 -0.407
42 CP2 17 -0.895
42 CP2 18 -0.895
42 CP2 19 -0.407
42 CP2 20 -0.407
42 CP2 21 -0.895
42 CP2 22 -1.872
42 CP2 23 -2.360
42 CP2 24 -2.848
42 CP2 25 -2.360
42 CP2 26 -1.383
42 CP2 27 -0.895
42 CP2 28 -0.407
42 CP2 29 -0.895
42 CP2 30 -0.895
42 CP2 31 -1.383
42 CP2 32 -1.872
42 CP2 33 -1.383
42 CP2 34 -0.895
42 CP2 35 -0.407
42 CP2 36 -0.895
42 CP2 37 -0.895
42 CP2 38 -1.872
42 CP2 39 -1.872
42 CP2 40 -1.872
42 CP2 41 -1.872
42 CP2 42 -0.895
42 CP2 43 0.081
42 CP2 44 1.058
42 CP2 45 1.546
42 CP2 46 2.035
42 CP2 47 1.546
42 CP2 48 0.570
42 CP2 49 -0.895
42 CP2 50 -2.360
42 CP2 51 -3.337
42 CP2 52 -3.337
42 CP2 53 -2.360
42 CP2 54 -1.872
42 CP2 55 -0.895
42 CP2 56 -0.407
42 CP2 57 0.081
42 CP2 58 0.081
42 CP2 59 0.081
42 CP2 60 -0.895
42 CP2 61 -1.872
42 CP2 62 -2.360
42 CP2 63 -2.360
42 CP2 64 -1.872
42 CP2 65 -0.895
42 CP2 66 -0.407
42 CP2 67 -0.407
42 CP2 68 -0.407
42 CP2 69 -0.895
42 CP2 70 -1.383
42 CP2 71 -1.383
42 CP2 72 -1.872
42 CP2 73 -1.383
42 CP2 74 -0.895
42 CP2 75 -0.895
42 CP2 76 -0.407
42 CP2 77 -0.895
42 CP2 78 -1.872
42 CP2 79 -2.360
42 CP2 80 -2.360
42 CP2 81 -1.872
42 CP2 82 -0.895
42 CP2 83 0.081
42 CP2 84 0.081
42 CP2 85 -0.895
42 CP2 86 -1.872
42 CP2 87 -2.848
42 CP2 88 -3.337
42 CP2 89 -3.337
42 CP2 90 -2.848
42 CP2 91 -1.872
42 CP2 92 -0.895
42 CP2 93 -0.407
42 CP2 94 -0.407
42 CP2 95 -0.407
42 CP2 96 -0.895
42 CP2 97 -0.895
42 CP2 98 -1.383
42 CP2 99 -1.872
42 CP2 100 -1.872
42 CP2 101 -2.360
42 CP2 102 -2.360
42 CP2 103 -2.360
42 CP2 104 -2.360
42 CP2 105 -2.360
42 CP2 106 -2.360
42 CP2 107 -2.360
42 CP2 108 -2.848
42 CP2 109 -2.848
42 CP2 110 -2.848
42 CP2 111 -2.848
42 CP2 112 -2.360
42 CP2 113 -1.872
42 CP2 114 -1.872
42 CP2 115 -0.895
42 CP2 116 -0.895
42 CP2 117 -0.895
42 CP2 118 -0.895
42 CP2 119 -0.407
42 CP2 120 0.081
42 CP2 121 0.570
42 CP2 122 0.081
42 CP2 123 -1.383
42 CP2 124 -2.848
42 CP2 125 -4.801
42 CP2 126 -5.778
42 CP2 127 -6.266
42 CP2 128 -6.755
42 CP2 129 -6.266
42 CP2 130 -5.778
42 CP2 131 -4.801
42 CP2 132 -3.825
42 CP2 133 -3.825
42 CP2 134 -3.825
42 CP2 135 -3.825
42 CP2 136 -4.313
42 CP2 137 -3.337
42 CP2 138 -2.848
42 CP2 139 -2.848
42 CP2 140 -1.872
42 CP2 141 -2.360
42 CP2 142 -2.360
42 CP2 143 -1.872
42 CP2 144 -0.895
42 CP2 145 -0.407
42 CP2 146 -0.407
42 CP2 147 -1.383
42 CP2 148 -2.360
42 CP2 149 -2.360
42 CP2 150 -2.848
42 CP2 151 -2.360
42 CP2 152 -2.360
42 CP2 153 -2.360
42 CP2 154 -2.848
42 CP2 155 -3.337
42 CP2 156 -3.825
42 CP2 157 -3.825
42 CP2 158 -4.313
42 CP2 159 -4.313
42 CP2 160 -4.313
42 CP2 161 -3.825
42 CP2 162 -2.848
42 CP2 163 -1.872
42 CP2 164 -0.895
42 CP2 165 -0.895
42 CP2 166 -0.895
42 CP2 167 -1.383
42 CP2 168 -1.383
42 CP2 169 -1.872
42 CP2 170 -2.360
42 CP2 171 -2.848
42 CP2 172 -3.337
42 CP2 173 -3.337
42 CP2 174 -3.337
42 CP2 175 -2.848
42 CP2 176 -2.848
42 CP2 177 -3.337
42 CP2 178 -4.313
42 CP2 179 -5.778
42 CP2 180 -6.755
42 CP2 181 -6.755
42 CP2 182 -6.266
42 CP2 183 -4.801
42 CP2 184 -3.337
42 CP2 185 -2.848
42 CP2 186 -2.360
42 CP2 187 -1.872
42 CP2 188 -1.383
42 CP2 189 -0.407
42 CP2 190 1.058
42 CP2 191 1.546
42 CP2 192 1.546
42 CP2 193 0.570
42 CP2 194 0.081
42 CP2 195 -0.407
42 CP2 196 0.081
42 CP2 197 0.570
42 CP2 198 0.570
42 CP2 199 0.081
42 CP2 200 -1.383
42 CP2 201 -2.848
42 CP2 202 -3.337
42 CP2 203 -3.337
42 CP2 204 -2.848
42 CP2 205 -1.872
42 CP2 206 -1.383
42 CP2 207 -0.895
42 CP2 208 -0.407
42 CP2 209 0.081
42 CP2 210 1.058
42 CP2 211 1.058
42 CP2 212 0.570
42 CP2 213 0.570
42 CP2 214 0.081
42 CP2 215 0.081
42 CP2 216 -0.407
42 CP2 217 -0.407
42 CP2 218 0.081
42 CP2 219 0.081
42 CP2 220 0.570
42 CP2 221 0.570
42 CP2 222 0.081
42 CP2 223 -0.407
42 CP2 224 -0.895
42 CP2 225 -0.895
42 CP2 226 -1.872
42 CP2 227 -1.872
42 CP2 228 -1.872
42 CP2 229 -1.872
42 CP2 230 -1.872
42 CP2 231 -2.360
42 CP2 232 -2.360
42 CP2 233 -2.360
42 CP2 234 -2.360
42 CP2 235 -2.360
42 CP2 236 -1.872
42 CP2 237 -1.872
42 CP2 238 -1.383
42 CP2 239 -1.872
42 CP2 240 -1.872
42 CP2 241 -2.848
42 CP2 242 -3.337
42 CP2 243 -3.337
42 CP2 244 -3.337
42 CP2 245 -2.848
42 CP2 246 -2.848
42 CP2 247 -2.848
42 CP2 248 -2.848
42 CP2 249 -2.360
42 CP2 250 -2.360
42 CP2 251 -2.360
42 CP2 252 -1.872
42 CP2 253 -1.872
42 CP2 254 -1.383
42 CP2 255 -0.895
# P3 chan 22
42 P3 0 0.041
42 P3 1 1.506
42 P3 2 1.994
42 P3 3 2.482
42 P3 4 1.994
42 P3 5 1.506
42 P3 6 1.506
42 P3 7 1.506
42 P3 8 1.994
42 P3 9 1.506
42 P3 10 1.506
42 P3 11 1.506
42 P3 12 1.506
42 P3 13 1.506
42 P3 14 1.506
42 P3 15 0.529
42 P3 16 0.041
42 P3 17 0.041
42 P3 18 0.529
42 P3 19 1.017
42 P3 20 0.529
42 P3 21 -0.448
42 P3 22 -1.912
42 P3 23 -3.377
42 P3 24 -3.866
42 P3 25 -3.377
42 P3 26 -2.401
42 P3 27 -0.936
42 P3 28 -0.448
42 P3 29 0.041
42 P3 30 0.529
42 P3 31 0.529
42 P3 32 1.017
42 P3 33 1.017
42 P3 34 0.041
42 P3 35 -0.448
42 P3 36 -1.424
42 P3 37 -1.912
42 P3 38 -1.424
42 P3 39 -0.936
42 P3 40 0.041
42 P3 41 0.529
42 P3 42 0.529
42 P3 43 1.017
42 P3 44 1.017
42 P3 45 1.017
42 P3 46 0.529
42 P3 47 0.041
42 P3 48 -1.424
42 P3 49 -2.401
42 P3 50 -2.889
42 P3 51 -2.401
42 P3 52 -1.424
42 P3 53 0.041
42 P3 54 1.017
42 P3 55 0.529
42 P3 56 0.529
42 P3 57 -0.448
42 P3 58 -0.936
42 P3 59 -1.424
42 P3 60 -1.912
42 P3 61 -2.401
42 P3 62 -2.401
42 P3 63 -2.401
42 P3 64 -2.401
42 P3 65 -1.912
42 P3 66 -1.424
42 P3 67 -0.448
42 P3 68 0.041
42 P3 69 1.017
42 P3 70 1.506
42 P3 71 1.994
42 P3 72 1.994
42 P3 73 1.994
42 P3 74 1.994
42 P3 75 2.482
42 P3 76 2.970
42 P3 77 2.970
42 P3 78 2.482
42 P3 79 1.994
42 P3 80 2.482
42 P3 81 3.459
42 P3 82 4.924
42 P3 83 5.900
42 P3 84 5.900
42 P3 85 4.924
42 P3 86 2.970
42 P3 87 1.506
42 P3 88 1.017
42 P3 89 0.529
42 P3 90 1.017
42 P3 91 1.994
42 P3 92 2.482
42 P3 93 3.459
42 P3 94 3.947
42 P3 95 5.412
42 P3 96 6.388
42 P3 97 6.388
42 P3 98 5.900
42 P3 99 4.924
42 P3 100 3.947
42 P3 101 2.970
42 P3 102 2.482
42 P3 103 1.994
42 P3 104 1.994
42 P3 105 1.994
42 P3 106 2.482
42 P3 107 3.459
42 P3 108 4.924
42 P3 109 6.388
42 P3 110 7.365
42 P3 111 7.853
42 P3 112 7.365
42 P3 113 6.388
42 P3 114 5.412
42 P3 115 4.435
42 P3 116 4.435
42 P3 117 4.924
42 P3 118 5.900
42 P3 119 8.341
42 P3 120 9.318
42 P3 121 9.318
42 P3 122 7.853
42 P3 123 4.924
42 P3 124 1.994
42 P3 125 -0.448
42 P3 126 -1.912
42 P3 127 -2.889
42 P3 128 -2.889
42 P3 129 -1.912
42 P3 130 -0.936
42 P3 131 0.041
42 P3 132 1.017
42 P3 133 0.529
42 P3 134 0.529
42 P3 135 0.041
42 P3 136 0.529
42 P3 137 1.017
42 P3 138 1.994
42 P3 139 2.482
42 P3 140 2.970
42 P3 141 3.459
42 P3 142 4.924
42 P3 143 5.412
42 P3 144 6.877
42 P3 145 6.877
42 P3 146 6.877
42 P3 147 6.388
42 P3 148 6.388
42 P3 149 6.877
42 P3 150 6.877
42 P3 151 6.388
42 P3 152 5.412
42 P3 153 4.435
42 P3 154 3.947
42 P3 155 3.947
42 P3 156 4.435
42 P3 157 3.947
42 P3 158 2.970
42 P3 159 1.506
42 P3 160 1.017
42 P3 161 1.017
42 P3 162 1.994
42 P3 163 2.970
42 P3 164 3.459
42 P3 165 3.459
42 P3 166 3.459
42 P3 167 2.970
42 P3 168 2.482
42 P3 169 1.994
42 P3 170 1.017
42 P3 171 0.041
42 P3 172 -0.448
42 P3 173 -0.448
42 P3 174 0.529
42 P3 175 1.017
42 P3 176 1.017
42 P3 177 0.041
42 P3 178 -1.424
42 P3 179 -2.889
42 P3 180 -3.866
42 P3 181 -3.866
42 P3 182 -2.401
42 P3 183 -0.448
42 P3 184 1.994
42 P3 185 3.459
42 P3 186 3.947
42 P3 187 3.947
42 P3 188 3.459
42 P3 189 3.459
42 P3 190 3.459
42 P3 191 3.459
42 P3 192 2.482
42 P3 193 0.529
42 P3 194 -0.936
42 P3 195 -0.936
42 P3 196 0.041
42 P3 197 1.994
42 P3 198 2.970
42 P3 199 2.970
42 P3 200 1.506
42 P3 201 0.529
42 P3 202 -0.448
42 P3 203 0.041
42 P3 204 0.529
42 P3 205 1.017
42 P3 206 1.506
42 P3 207 1.506
42 P3 208 1.994
42 P3 209 2.482
42 P3 210 2.970
42 P3 211 2.482
42 P3 212 1.506
42 P3 213 0.041
42 P3 214 -0.448
42 P3 215 -0.448
42 P3 216 0.041
42 P3 217 0.529
42 P3 218 1.506
42 P3 219 1.506
42 P3 220 1.506
42 P3 221 1.017
42 P3 222 0.041
42 P3 223 -1.912
42 P3 224 -3.866
42 P3 225 -5.330
42 P3 226 -6.307
42 P3 227 -5.819
42 P3 228 -5.330
42 P3 229 -4.842
42 P3 230 -4.842
42 P3 231 -4.842
42 P3 232 -4.842
42 P3 233 -5.330
42 P3 234 -4.842
42 P3 235 -4.354
42 P3 236 -3.377
42 P3 237 -1.912
42 P3 238 -1.424
42 P3 239 -0.936
42 P3 240 -0.936
42 P3 241 -1.912
42 P3 242 -2.889
42 P3 243 -4.354
42 P3 244 -5.330
42 P3 245 -4.842
42 P3 246 -4.354
42 P3 247 -3.866
42 P3 248 -3.377
42 P3 249 -3.377
42 P3 250 -2.889
42 P3 251 -2.889
42 P3 252 -2.889
42 P3 253 -2.401
42 P3 254 -1.912
42 P3 255 -0.936
# P4 chan 23
42 P4 0 1.292
42 P4 1 2.268
42 P4 2 2.268
42 P4 3 2.268
42 P4 4 1.780
42 P4 5 1.780
42 P4 6 2.757
42 P4 7 4.222
42 P4 8 5.198
42 P4 9 5.198
42 P4 10 5.198
42 P4 11 4.222
42 P4 12 4.222
42 P4 13 4.222
42 P4 14 3.733
42 P4 15 2.757
42 P4 16 1.292
42 P4 17 0.804
42 P4 18 0.804
42 P4 19 1.292
42 P4 20 1.292
42 P4 21 0.315
42 P4 22 -1.149
42 P4 23 -2.126
42 P4 24 -2.126
42 P4 25 -0.661
42 P4 26 0.315
42 P4 27 1.292
42 P4 28 1.292
42 P4 29 0.804
42 P4 30 0.315
42 P4 31 -0.173
42 P4 32 -0.173
42 P4 33 0.315
42 P4 34 0.315
42 P4 35 -0.173
42 P4 36 -0.661
42 P4 37 -1.149
42 P4 38 -1.638
42 P4 39 -2.126
42 P4 40 -1.638
42 P4 41 -0.661
42 P4 42 0.315
42 P4 43 1.780
42 P4 44 2.757
42 P4 45 3.733
42 P4 46 3.733
42 P4 47 2.757
42 P4 48 1.292
42 P4 49 -1.149
42 P4 50 -2.614
42 P4 51 -3.591
42 P4 52 -2.614
42 P4 53 -1.149
42 P4 54 0.804
42 P4 55 1.780
42 P4 56 2.268
42 P4 57 1.780
42 P4 58 1.780
42 P4 59 0.804
42 P4 60 -0.173
42 P4 61 -1.149
42 P4 62 -2.126
42 P4 63 -2.126
42 P4 64 -1.149
42 P4 65 0.315
42 P4 66 1.780
42 P4 67 2.268
42 P4 68 2.268
42 P4 69 1.780
42 P4 70 2.268
42 P4 71 2.268
42 P4 72 2.268
42 P4 73 2.757
42 P4 74 2.268
42 P4 75 2.268
42 P4 76 2.268
42 P4 77 2.268
42 P4 78 2.268
42 P4 79 2.268
42 P4 80 1.780
42 P4 81 1.780
42 P4 82 2.268
42 P4 83 3.245
42 P4 84 3.733
42 P4 85 3.733
42 P4 86 2.757
42 P4 87 1.292
42 P4 88 -0.661
42 P4 89 -1.149
42 P4 90 -0.173
42 P4 91 1.292
42 P4 92 3.245
42 P4 93 4.710
42 P4 94 5.198
42 P4 95 5.198
42 P4 96 5.198
42 P4 97 5.198
42 P4 98 4.710
42 P4 99 4.222
42 P4 100 3.245
42 P4 101 2.757
42 P4 102 2.268
42 P4 103 2.757
42 P4 104 2.757
42 P4 105 2.757
42 P4 106 2.268
42 P4 107 2.268
42 P4 108 2.757
42 P4 109 3.245
42 P4 110 3.245
42 P4 111 3.733
42 P4 112 3.733
42 P4 113 3.733
42 P4 114 4.710
42 P4 115 5.686
42 P4 116 6.175
42 P4 117 7.151
42 P4 118 7.151
42 P4 119 7.640
42 P4 120 8.128
42 P4 121 8.128
42 P4 122 7.151
42 P4 123 5.198
42 P4 124 2.757
42 P4 125 -0.173
42 P4 126 -2.614
42 P4 127 -3.591
42 P4 128 -3.591
42 P4 129 -2.126
42 P4 130 -0.173
42 P4 131 1.292
42 P4 132 2.268
42 P4 133 2.268
42 P4 134 1.780
42 P4 135 1.292
42 P4 136 1.780
42 P4 137 2.268
42 P4 138 3.245
42 P4 139 3.245
42 P4 140 3.245
42 P4 141 3.733
42 P4 142 5.198
42 P4 143 6.663
42 P4 144 8.128
42 P4 145 9.104
42 P4 146 9.104
42 P4 147 8.128
42 P4 148 7.151
42 P4 149 7.151
42 P4 150 7.151
42 P4 151 7.151
42 P4 152 6.663
42 P4 153 5.686
42 P4 154 4.710
42 P4 155 3.733
42 P4 156 3.245
42 P4 157 2.757
42 P4 158 2.268
42 P4 159 1.780
42 P4 160 2.268
42 P4 161 3.245
42 P4 162 4.222
42 P4 163 5.198
42 P4 164 5.198
42 P4 165 5.198
42 P4 166 5.198
42 P4 167 5.198
42 P4 168 4.710
42 P4 169 3.733
42 P4 170 1.780
42 P4 171 0.315
42 P4 172 -0.661
42 P4 173 -0.173
42 P4 174 0.804
42 P4 175 1.292
42 P4 176 0.804
42 P4 177 -0.661
42 P4 178 -2.614
42 P4 179 -4.567
42 P4 180 -6.032
42 P4 181 -6.521
42 P4 182 -6.032
42 P4 183 -4.567
42 P4 184 -2.614
42 P4 185 -0.661
42 P4 186 0.315
42 P4 187 1.292
42 P4 188 2.268
42 P4 189 3.733
42 P4 190 5.198
42 P4 191 6.175
42 P4 192 6.175
42 P4 193 4.710
42 P4 194 3.245
42 P4 195 2.757
42 P4 196 2.757
42 P4 197 3.733
42 P4 198 3.733
42 P4 199 2.268
42 P4 200 0.315
42 P4 201 -1.638
42 P4 202 -3.103
42 P4 203 -2.614
42 P4 204 -1.638
42 P4 205 -0.661
42 P4 206 0.315
42 P4 207 0.804
42 P4 208 1.780
42 P4 209 3.245
42 P4 210 4.222
42 P4 211 4.222
42 P4 212 3.245
42 P4 213 2.268
42 P4 214 1.292
42 P4 215 0.315
42 P4 216 -0.173
42 P4 217 -0.173
42 P4 218 0.315
42 P4 219 0.804
42 P4 220 1.780
42 P4 221 2.268
42 P4 222 2.268
42 P4 223 1.292
42 P4 224 -0.661
42 P4 225 -2.126
42 P4 226 -3.103
42 P4 227 -2.614
42 P4 228 -1.638
42 P4 229 -1.149
42 P4 230 -1.149
42 P4 231 -1.149
42 P4 232 -1.638
42 P4 233 -1.638
42 P4 234 -1.149
42 P4 235 -1.149
42 P4 236 -0.661
42 P4 237 -1.149
42 P4 238 -1.149
42 P4 239 -1.149
42 P4 240 -0.661
42 P4 241 -0.661
42 P4 242 -1.149
42 P4 243 -1.638
42 P4 244 -2.126
42 P4 245 -2.126
42 P4 246 -1.638
42 P4 247 -1.149
42 P4 248 -0.661
42 P4 249 -0.661
42 P4 250 -1.149
42 P4 251 -1.638
42 P4 252 -1.638
42 P4 253 -1.149
42 P4 254 -0.173
42 P4 255 0.804
# PZ chan 24
42 PZ 0 0.600
42 PZ 1 0.600
42 PZ 2 1.577
42 PZ 3 2.065
42 PZ 4 2.065
42 PZ 5 2.065
42 PZ 6 2.065
42 PZ 7 2.553
42 PZ 8 3.042
42 PZ 9 4.018
42 PZ 10 4.018
42 PZ 11 4.018
42 PZ 12 3.530
42 PZ 13 3.530
42 PZ 14 3.042
42 PZ 15 3.042
42 PZ 16 2.553
42 PZ 17 2.553
42 PZ 18 2.065
42 PZ 19 2.065
42 PZ 20 1.577
42 PZ 21 0.600
42 PZ 22 -0.865
42 PZ 23 -2.330
42 PZ 24 -3.306
42 PZ 25 -3.306
42 PZ 26 -1.841
42 PZ 27 -0.865
42 PZ 28 0.600
42 PZ 29 1.088
42 PZ 30 1.088
42 PZ 31 1.088
42 PZ 32 1.088
42 PZ 33 1.088
42 PZ 34 1.577
42 PZ 35 1.088
42 PZ 36 0.600
42 PZ 37 0.112
42 PZ 38 0.112
42 PZ 39 0.112
42 PZ 40 1.088
42 PZ 41 2.065
42 PZ 42 2.553
42 PZ 43 3.530
42 PZ 44 4.506
42 PZ 45 4.995
42 PZ 46 5.971
42 PZ 47 4.995
42 PZ 48 3.530
42 PZ 49 1.577
42 PZ 50 0.112
42 PZ 51 -0.865
42 PZ 52 -0.376
42 PZ 53 1.088
42 PZ 54 2.553
42 PZ 55 3.042
42 PZ 56 3.530
42 PZ 57 3.042
42 PZ 58 2.553
42 PZ 59 2.065
42 PZ 60 1.577
42 PZ 61 1.088
42 PZ 62 0.600
42 PZ 63 0.600
42 PZ 64 0.600
42 PZ 65 1.577
42 PZ 66 2.065
42 PZ 67 3.042
42 PZ 68 3.042
42 PZ 69 3.530
42 PZ 70 4.018
42 PZ 71 4.018
42 PZ 72 4.506
42 PZ 73 4.995
42 PZ 74 4.995
42 PZ 75 4.995
42 PZ 76 4.995
42 PZ 77 5.483
42 PZ 78 4.995
42 PZ 79 4.995
42 PZ 80 4.995
42 PZ 81 5.483
42 PZ 82 6.460
42 PZ 83 7.436
42 PZ 84 7.924
42 PZ 85 7.436
42 PZ 86 5.971
42 PZ 87 4.506
42 PZ 88 3.530
42 PZ 89 3.042
42 PZ 90 4.018
42 PZ 91 4.995
42 PZ 92 6.460
42 PZ 93 7.436
42 PZ 94 7.924
42 PZ 95 8.413
42 PZ 96 8.413
42 PZ 97 8.901
42 PZ 98 8.413
42 PZ 99 7.436
42 PZ 100 6.948
42 PZ 101 5.971
42 PZ 102 5.483
42 PZ 103 4.995
42 PZ 104 5.483
42 PZ 105 5.971
42 PZ 106 6.460
42 PZ 107 6.948
42 PZ 108 7.924
42 PZ 109 8.413
42 PZ 110 9.389
42 PZ 111 9.389
42 PZ 112 9.878
42 PZ 113 9.389
42 PZ 114 9.389
42 PZ 115 9.389
42 PZ 116 9.389
42 PZ 117 9.878
42 PZ 118 10.366
42 PZ 119 11.342
42 PZ 120 12.319
42 PZ 121 12.319
42 PZ 122 11.831
42 PZ 123 9.878
42 PZ 124 7.436
42 PZ 125 4.995
42 PZ 126 3.042
42 PZ 127 2.553
42 PZ 128 2.553
42 PZ 129 3.042
42 PZ 130 4.506
42 PZ 131 6.460
42 PZ 132 6.948
42 PZ 133 7.924
42 PZ 134 7.924
42 PZ 135 7.436
42 PZ 136 7.436
42 PZ 137 8.413
42 PZ 138 8.901
42 PZ 139 9.878
42 PZ 140 10.366
42 PZ 141 10.366
42 PZ 142 10.854
42 PZ 143 11.342
42 PZ 144 12.319
42 PZ 145 13.295
42 PZ 146 13.784
42 PZ 147 13.295
42 PZ 148 12.807
42 PZ 149 12.319
42 PZ 150 12.319
42 PZ 151 12.319
42 PZ 152 12.319
42 PZ 153 11.342
42 PZ 154 10.366
42 PZ 155 9.878
42 PZ 156 9.878
42 PZ 157 9.878
42 PZ 158 9.389
42 PZ 159 9.389
42 PZ 160 8.901
42 PZ 161 8.901
42 PZ 162 9.389
42 PZ 163 10.366
42 PZ 164 11.342
42 PZ 165 11.831
42 PZ 166 11.342
42 PZ 167 10.854
42 PZ 168 10.366
42 PZ 169 9.389
42 PZ 170 8.901
42 PZ 171 8.413
42 PZ 172 7.924
42 PZ 173 7.924
42 PZ 174 7.924
42 PZ 175 8.413
42 PZ 176 8.413
42 PZ 177 7.436
42 PZ 178 6.460
42 PZ 179 4.995
42 PZ 180 4.018
42 PZ 181 4.018
42 PZ 182 4.995
42 PZ 183 6.948
42 PZ 184 9.389
42 PZ 185 10.854
42 PZ 186 11.342
42 PZ 187 11.831
42 PZ 188 11.831
42 PZ 189 12.807
42 PZ 190 13.295
42 PZ 191 13.295
42 PZ 192 12.319
42 PZ 193 10.854
42 PZ 194 9.389
42 PZ 195 8.901
42 PZ 196 9.878
42 PZ 197 11.342
42 PZ 198 12.319
42 PZ 199 11.831
42 PZ 200 10.366
42 PZ 201 8.901
42 PZ 202 7.924
42 PZ 203 8.413
42 PZ 204 9.389
42 PZ 205 10.854
42 PZ 206 11.831
42 PZ 207 11.831
42 PZ 208 12.807
42 PZ 209 13.295
42 PZ 210 13.784
42 PZ 211 13.784
42 PZ 212 13.784
42 PZ 213 12.807
42 PZ 214 11.831
42 PZ 215 11.342
42 PZ 216 10.854
42 PZ 217 11.342
42 PZ 218 11.831
42 PZ 219 12.319
42 PZ 220 12.807
42 PZ 221 12.807
42 PZ 222 12.319
42 PZ 223 10.854
42 PZ 224 9.878
42 PZ 225 8.413
42 PZ 226 7.924
42 PZ 227 7.436
42 PZ 228 7.924
42 PZ 229 8.413
42 PZ 230 8.413
42 PZ 231 8.413
42 PZ 232 7.924
42 PZ 233 7.924
42 PZ 234 7.924
42 PZ 235 8.413
42 PZ 236 8.901
42 PZ 237 9.389
42 PZ 238 9.878
42 PZ 239 9.878
42 PZ 240 9.878
42 PZ 241 9.389
42 PZ 242 8.413
42 PZ 243 7.436
42 PZ 244 6.948
42 PZ 245 6.948
42 PZ 246 6.948
42 PZ 247 7.436
42 PZ 248 7.924
42 PZ 249 8.901
42 PZ 250 8.901
42 PZ 251 8.901
42 PZ 252 8.901
42 PZ 253 9.389
42 PZ 254 10.366
42 PZ 255 11.342
# P8 chan 25
42 P8 0 3.215
42 P8 1 4.191
42 P8 2 5.168
42 P8 3 5.168
42 P8 4 4.679
42 P8 5 4.679
42 P8 6 5.168
42 P8 7 6.632
42 P8 8 8.097
42 P8 9 8.586
42 P8 10 8.097
42 P8 11 7.121
42 P8 12 5.656
42 P8 13 4.679
42 P8 14 3.703
42 P8 15 3.215
42 P8 16 2.238
42 P8 17 1.261
42 P8 18 0.773
42 P8 19 1.261
42 P8 20 1.750
42 P8 21 2.238
42 P8 22 1.750
42 P8 23 1.261
42 P8 24 1.261
42 P8 25 2.238
42 P8 26 4.191
42 P8 27 6.144
42 P8 28 6.632
42 P8 29 6.144
42 P8 30 4.679
42 P8 31 2.726
42 P8 32 1.750
42 P8 33 2.238
42 P8 34 2.726
42 P8 35 2.726
42 P8 36 1.261
42 P8 37 -0.203
42 P8 38 -2.157
42 P8 39 -2.157
42 P8 40 -1.180
42 P8 41 -0.203
42 P8 42 1.261
42 P8 43 1.750
42 P8 44 1.750
42 P8 45 1.750
42 P8 46 1.750
42 P8 47 2.238
42 P8 48 1.261
42 P8 49 -0.692
42 P8 50 -2.645
42 P8 51 -3.621
42 P8 52 -2.645
42 P8 53 -0.692
42 P8 54 1.750
42 P8 55 2.726
42 P8 56 2.238
42 P8 57 1.750
42 P8 58 0.773
42 P8 59 -0.203
42 P8 60 -0.203
42 P8 61 -0.692
42 P8 62 -1.180
42 P8 63 -1.180
42 P8 64 -0.203
42 P8 65 1.261
42 P8 66 3.215
42 P8 67 4.679
42 P8 68 4.679
42 P8 69 4.191
42 P8 70 4.191
42 P8 71 4.679
42 P8 72 5.168
42 P8 73 5.656
42 P8 74 5.656
42 P8 75 5.168
42 P8 76 4.679
42 P8 77 4.191
42 P8 78 3.703
42 P8 79 3.215
42 P8 80 2.726
42 P8 81 2.726
42 P8 82 3.703
42 P8 83 4.191
42 P8 84 5.168
42 P8 85 5.168
42 P8 86 4.191
42 P8 87 2.726
42 P8 88 1.261
42 P8 89 0.773
42 P8 90 1.261
42 P8 91 2.238
42 P8 92 3.703
42 P8 93 5.168
42 P8 94 6.144
42 P8 95 7.121
42 P8 96 7.609
42 P8 97 7.609
42 P8 98 7.121
42 P8 99 6.632
42 P8 100 6.632
42 P8 101 6.144
42 P8 102 6.632
42 P8 103 6.632
42 P8 104 6.144
42 P8 105 5.168
42 P8 106 4.679
42 P8 107 4.679
42 P8 108 4.679
42 P8 109 5.168
42 P8 110 6.144
42 P8 111 6.144
42 P8 112 6.632
42 P8 113 7.609
42 P8 114 8.586
42 P8 115 10.050
42 P8 116 11.027
42 P8 117 11.515
42 P8 118 11.515
42 P8 119 11.515
42 P8 120 12.492
42 P8 121 12.004
42 P8 122 11.515
42 P8 123 9.074
42 P8 124 5.656
42 P8 125 1.750
42 P8 126 -0.692
42 P8 127 -2.645
42 P8 128 -3.133
42 P8 129 -2.157
42 P8 130 -0.692
42 P8 131 1.261
42 P8 132 2.238
42 P8 133 2.726
42 P8 134 2.238
42 P8 135 1.261
42 P8 136 0.773
42 P8 137 0.773
42 P8 138 1.750
42 P8 139 3.703
42 P8 140 5.168
42 P8 141 6.632
42 P8 142 8.097
42 P8 143 9.562
42 P8 144 11.027
42 P8 145 12.004
42 P8 146 12.492
42 P8 147 12.004
42 P8 148 11.027
42 P8 149 10.050
42 P8 150 9.562
42 P8 151 9.562
42 P8 152 9.562
42 P8 153 9.074
42 P8 154 8.097
42 P8 155 6.632
42 P8 156 5.656
42 P8 157 4.679
42 P8 158 4.679
42 P8 159 5.168
42 P8 160 5.168
42 P8 161 6.144
42 P8 162 6.632
42 P8 163 7.121
42 P8 164 7.609
42 P8 165 7.121
42 P8 166 7.121
42 P8 167 6.144
42 P8 168 5.656
42 P8 169 5.168
42 P8 170 3.703
42 P8 171 1.750
42 P8 172 0.773
42 P8 173 0.773
42 P8 174 0.773
42 P8 175 1.750
42 P8 176 2.238
42 P8 177 1.750
42 P8 178 0.773
42 P8 179 -1.180
42 P8 180 -3.133
42 P8 181 -4.598
42 P8 182 -4.598
42 P8 183 -3.133
42 P8 184 -1.180
42 P8 185 0.285
42 P8 186 1.261
42 P8 187 1.261
42 P8 188 2.238
42 P8 189 4.191
42 P8 190 6.632
42 P8 191 8.586
42 P8 192 9.074
42 P8 193 8.097
42 P8 194 7.121
42 P8 195 6.632
42 P8 196 7.121
42 P8 197 7.609
42 P8 198 7.121
42 P8 199 5.656
42 P8 200 3.215
42 P8 201 0.773
42 P8 202 -0.692
42 P8 203 -0.692
42 P8 204 0.285
42 P8 205 1.750
42 P8 206 2.726
42 P8 207 3.703
42 P8 208 4.679
42 P8 209 5.656
42 P8 210 6.632
42 P8 211 6.632
42 P8 212 6.144
42 P8 213 5.168
42 P8 214 3.703
42 P8 215 2.238
42 P8 216 0.773
42 P8 217 0.773
42 P8 218 1.750
42 P8 219 2.726
42 P8 220 4.191
42 P8 221 4.679
42 P8 222 4.191
42 P8 223 2.726
42 P8 224 0.773
42 P8 225 -1.180
42 P8 226 -2.157
42 P8 227 -2.645
42 P8 228 -2.645
42 P8 229 -2.157
42 P8 230 -1.180
42 P8 231 -0.692
42 P8 232 -0.203
42 P8 233 0.285
42 P8 234 0.285
42 P8 235 -0.203
42 P8 236 -0.203
42 P8 237 -0.203
42 P8 238 0.773
42 P8 239 1.261
42 P8 240 1.750
42 P8 241 2.238
42 P8 242 2.238
42 P8 243 2.238
42 P8 244 2.238
42 P8 245 2.238
42 P8 246 2.238
42 P8 247 2.726
42 P8 248 2.726
42 P8 249 2.726
42 P8 250 2.238
42 P8 251 1.750
42 P8 252 1.750
42 P8 253 1.750
42 P8 254 2.726
42 P8 255 3.703
# P7 chan 26
42 P7 0 0.804
42 P7 1 2.268
42 P7 2 3.733
42 P7 3 4.222
42 P7 4 3.733
42 P7 5 3.245
42 P7 6 2.757
42 P7 7 2.757
42 P7 8 2.757
42 P7 9 2.757
42 P7 10 2.757
42 P7 11 2.757
42 P7 12 2.757
42 P7 13 2.268
42 P7 14 1.780
42 P7 15 1.292
42 P7 16 0.804
42 P7 17 1.292
42 P7 18 1.780
42 P7 19 2.268
42 P7 20 2.757
42 P7 21 2.268
42 P7 22 0.315
42 P7 23 -0.661
42 P7 24 -1.149
42 P7 25 -0.661
42 P7 26 0.804
42 P7 27 1.780
42 P7 28 2.757
42 P7 29 2.757
42 P7 30 2.757
42 P7 31 2.268
42 P7 32 2.757
42 P7 33 2.268
42 P7 34 1.780
42 P7 35 0.315
42 P7 36 -0.661
42 P7 37 -1.638
42 P7 38 -1.149
42 P7 39 -0.661
42 P7 40 0.315
42 P7 41 0.804
42 P7 42 1.292
42 P7 43 0.804
42 P7 44 0.804
42 P7 45 0.315
42 P7 46 -0.173
42 P7 47 -1.149
42 P7 48 -2.126
42 P7 49 -2.614
42 P7 50 -3.103
42 P7 51 -2.126
42 P7 52 -0.661
42 P7 53 0.804
42 P7 54 2.268
42 P7 55 2.268
42 P7 56 0.804
42 P7 57 -0.173
42 P7 58 -1.638
42 P7 59 -2.614
42 P7 60 -2.614
42 P7 61 -2.614
42 P7 62 -2.126
42 P7 63 -2.126
42 P7 64 -2.126
42 P7 65 -1.638
42 P7 66 -1.149
42 P7 67 -0.661
42 P7 68 0.315
42 P7 69 1.292
42 P7 70 1.780
42 P7 71 2.268
42 P7 72 2.268
42 P7 73 1.780
42 P7 74 2.268
42 P7 75 2.757
42 P7 76 3.245
42 P7 77 3.245
42 P7 78 2.268
42 P7 79 1.780
42 P7 80 1.780
42 P7 81 2.268
42 P7 82 4.222
42 P7 83 5.686
42 P7 84 6.175
42 P7 85 5.198
42 P7 86 3.733
42 P7 87 1.780
42 P7 88 0.804
42 P7 89 0.315
42 P7 90 0.804
42 P7 91 1.780
42 P7 92 2.268
42 P7 93 3.733
42 P7 94 5.198
42 P7 95 7.151
42 P7 96 8.616
42 P7 97 9.104
42 P7 98 8.128
42 P7 99 7.151
42 P7 100 5.198
42 P7 101 3.733
42 P7 102 2.757
42 P7 103 1.780
42 P7 104 1.292
42 P7 105 1.292
42 P7 106 1.292
42 P7 107 2.757
42 P7 108 4.710
42 P7 109 7.151
42 P7 110 8.616
42 P7 111 8.616
42 P7 112 8.128
42 P7 113 6.663
42 P7 114 5.686
42 P7 115 4.710
42 P7 116 4.222
42 P7 117 4.710
42 P7 118 6.663
42 P7 119 8.616
42 P7 120 10.569
42 P7 121 10.081
42 P7 122 8.128
42 P7 123 4.710
42 P7 124 0.804
42 P7 125 -2.126
42 P7 126 -3.591
42 P7 127 -4.567
42 P7 128 -5.056
42 P7 129 -4.567
42 P7 130 -3.591
42 P7 131 -2.126
42 P7 132 -1.149
42 P7 133 -0.661
42 P7 134 -1.149
42 P7 135 -1.149
42 P7 136 -1.638
42 P7 137 -1.149
42 P7 138 -0.173
42 P7 139 0.804
42 P7 140 1.780
42 P7 141 2.757
42 P7 142 3.733
42 P7 143 4.710
42 P7 144 5.198
42 P7 145 5.198
42 P7 146 5.198
42 P7 147 5.198
42 P7 148 4.710
42 P7 149 4.710
42 P7 150 4.710
42 P7 151 4.222
42 P7 152 3.733
42 P7 153 2.757
42 P7 154 2.268
42 P7 155 1.780
42 P7 156 1.780
42 P7 157 1.292
42 P7 158 0.315
42 P7 159 -0.661
42 P7 160 -1.638
42 P7 161 -1.149
42 P7 162 -0.173
42 P7 163 1.780
42 P7 164 2.757
42 P7 165 2.268
42 P7 166 1.780
42 P7 167 1.292
42 P7 168 0.804
42 P7 169 0.804
42 P7 170 0.804
42 P7 171 -0.173
42 P7 172 -0.661
42 P7 173 -1.149
42 P7 174 -0.661
42 P7 175 -0.173
42 P7 176 0.315
42 P7 177 -0.173
42 P7 178 -1.638
42 P7 179 -3.103
42 P7 180 -4.567
42 P7 181 -4.567
42 P7 182 -3.591
42 P7 183 -1.149
42 P7 184 1.292
42 P7 185 2.757
42 P7 186 2.757
42 P7 187 2.268
42 P7 188 1.780
42 P7 189 1.780
42 P7 190 2.268
42 P7 191 2.757
42 P7 192 2.268
42 P7 193 1.292
42 P7 194 -0.173
42 P7 195 -0.173
42 P7 196 0.804
42 P7 197 2.757
42 P7 198 3.733
42 P7 199 3.733
42 P7 200 2.268
42 P7 201 0.804
42 P7 202 -0.173
42 P7 203 0.315
42 P7 204 0.804
42 P7 205 1.292
42 P7 206 1.292
42 P7 207 1.292
42 P7 208 1.292
42 P7 209 2.268
42 P7 210 2.757
42 P7 211 2.268
42 P7 212 0.804
42 P7 213 -0.661
42 P7 214 -2.126
42 P7 215 -2.614
42 P7 216 -2.126
42 P7 217 -1.149
42 P7 218 -0.173
42 P7 219 1.292
42 P7 220 1.780
42 P7 221 0.804
42 P7 222 -1.149
42 P7 223 -2.614
42 P7 224 -5.544
42 P7 225 -7.497
42 P7 226 -9.450
42 P7 227 -9.450
42 P7 228 -8.962
42 P7 229 -7.985
42 P7 230 -7.497
42 P7 231 -7.497
42 P7 232 -7.985
42 P7 233 -7.985
42 P7 234 -7.009
42 P7 235 -6.032
42 P7 236 -4.567
42 P7 237 -3.591
42 P7 238 -2.614
42 P7 239 -2.126
42 P7 240 -2.126
42 P7 241 -2.126
42 P7 242 -3.103
42 P7 243 -4.079
42 P7 244 -5.056
42 P7 245 -5.544
42 P7 246 -5.544
42 P7 247 -4.567
42 P7 248 -4.079
42 P7 249 -3.591
42 P7 250 -3.591
42 P7 251 -3.591
42 P7 252 -3.591
42 P7 253 -4.079
42 P7 254 -3.591
42 P7 255 -2.614
# PO2 chan 27
42 PO2 0 -0.641
42 PO2 1 -0.153
42 PO2 2 0.824
42 PO2 3 1.312
42 PO2 4 1.312
42 PO2 5 1.312
42 PO2 6 1.801
42 PO2 7 3.265
42 PO2 8 4.730
42 PO2 9 5.707
42 PO2 10 5.707
42 PO2 11 5.219
42 PO2 12 4.730
42 PO2 13 4.242
42 PO2 14 4.242
42 PO2 15 3.754
42 PO2 16 3.265
42 PO2 17 2.289
42 PO2 18 1.312
42 PO2 19 1.312
42 PO2 20 0.824
42 PO2 21 -0.153
42 PO2 22 -1.617
42 PO2 23 -3.082
42 PO2 24 -4.059
42 PO2 25 -4.059
42 PO2 26 -2.594
42 PO2 27 -1.129
42 PO2 28 -0.153
42 PO2 29 0.336
42 PO2 30 0.336
42 PO2 31 -0.641
42 PO2 32 -0.641
42 PO2 33 -0.153
42 PO2 34 -0.153
42 PO2 35 -0.153
42 PO2 36 -1.129
42 PO2 37 -1.617
42 PO2 38 -2.106
42 PO2 39 -2.106
42 PO2 40 -1.617
42 PO2 41 -1.129
42 PO2 42 -0.153
42 PO2 43 0.336
42 PO2 44 1.312
42 PO2 45 2.289
42 PO2 46 2.777
42 PO2 47 2.289
42 PO2 48 0.824
42 PO2 49 -1.617
42 PO2 50 -4.059
42 PO2 51 -4.547
42 PO2 52 -3.571
42 PO2 53 -2.106
42 PO2 54 -0.153
42 PO2 55 0.824
42 PO2 56 0.824
42 PO2 57 0.336
42 PO2 58 -0.153
42 PO2 59 -0.641
42 PO2 60 -1.617
42 PO2 61 -2.106
42 PO2 62 -3.082
42 PO2 63 -3.082
42 PO2 64 -2.594
42 PO2 65 -1.129
42 PO2 66 -0.153
42 PO2 67 0.824
42 PO2 68 1.312
42 PO2 69 1.312
42 PO2 70 0.824
42 PO2 71 1.312
42 PO2 72 1.801
42 PO2 73 2.289
42 PO2 74 2.289
42 PO2 75 2.289
42 PO2 76 2.289
42 PO2 77 1.801
42 PO2 78 1.801
42 PO2 79 1.312
42 PO2 80 0.824
42 PO2 81 1.312
42 PO2 82 2.289
42 PO2 83 3.754
42 PO2 84 4.242
42 PO2 85 4.242
42 PO2 86 2.289
42 PO2 87 0.336
42 PO2 88 -1.129
42 PO2 89 -2.106
42 PO2 90 -1.617
42 PO2 91 -0.641
42 PO2 92 0.824
42 PO2 93 2.289
42 PO2 94 3.265
42 PO2 95 4.242
42 PO2 96 4.730
42 PO2 97 4.730
42 PO2 98 3.754
42 PO2 99 3.265
42 PO2 100 2.289
42 PO2 101 1.801
42 PO2 102 1.312
42 PO2 103 0.824
42 PO2 104 0.336
42 PO2 105 0.336
42 PO2 106 0.336
42 PO2 107 1.801
42 PO2 108 3.265
42 PO2 109 4.242
42 PO2 110 5.219
42 PO2 111 5.707
42 PO2 112 6.195
42 PO2 113 6.195
42 PO2 114 6.683
42 PO2 115 6.683
42 PO2 116 6.683
42 PO2 117 6.683
42 PO2 118 7.172
42 PO2 119 8.148
42 PO2 120 9.125
42 PO2 121 9.125
42 PO2 122 8.148
42 PO2 123 5.707
42 PO2 124 2.289
42 PO2 125 -0.641
42 PO2 126 -3.082
42 PO2 127 -4.547
42 PO2 128 -5.035
42 PO2 129 -4.059
42 PO2 130 -2.594
42 PO2 131 -0.641
42 PO2 132 0.824
42 PO2 133 1.312
42 PO2 134 0.824
42 PO2 135 0.336
42 PO2 136 0.336
42 PO2 137 0.824
42 PO2 138 1.312
42 PO2 139 2.289
42 PO2 140 2.777
42 PO2 141 3.265
42 PO2 142 4.242
42 PO2 143 5.707
42 PO2 144 7.660
42 PO2 145 8.636
42 PO2 146 9.125
42 PO2 147 8.148
42 PO2 148 7.660
42 PO2 149 7.660
42 PO2 150 7.660
42 PO2 151 8.148
42 PO2 152 7.172
42 PO2 153 6.195
42 PO2 154 4.730
42 PO2 155 3.265
42 PO2 156 3.265
42 PO2 157 3.265
42 PO2 158 3.265
42 PO2 159 2.777
42 PO2 160 2.777
42 PO2 161 2.777
42 PO2 162 3.265
42 PO2 163 4.242
42 PO2 164 5.219
42 PO2 165 4.730
42 PO2 166 4.730
42 PO2 167 4.242
42 PO2 168 3.754
42 PO2 169 3.265
42 PO2 170 2.289
42 PO2 171 0.824
42 PO2 172 -0.641
42 PO2 173 -0.641
42 PO2 174 -0.153
42 PO2 175 0.824
42 PO2 176 0.824
42 PO2 177 -0.153
42 PO2 178 -2.106
42 PO2 179 -4.547
42 PO2 180 -6.500
42 PO2 181 -6.989
42 PO2 182 -6.012
42 PO2 183 -4.059
42 PO2 184 -1.617
42 PO2 185 0.336
42 PO2 186 1.801
42 PO2 187 2.289
42 PO2 188 2.777
42 PO2 189 4.242
42 PO2 190 5.707
42 PO2 191 6.683
42 PO2 192 5.707
42 PO2 193 4.242
42 PO2 194 2.289
42 PO2 195 1.801
42 PO2 196 2.289
42 PO2 197 3.265
42 PO2 198 3.265
42 PO2 199 1.801
42 PO2 200 -0.153
42 PO2 201 -2.106
42 PO2 202 -3.082
42 PO2 203 -2.594
42 PO2 204 -1.129
42 PO2 205 0.336
42 PO2 206 1.801
42 PO2 207 2.289
42 PO2 208 3.265
42 PO2 209 3.754
42 PO2 210 4.730
42 PO2 211 4.730
42 PO2 212 4.242
42 PO2 213 2.777
42 PO2 214 1.312
42 PO2 215 -0.153
42 PO2 216 -0.641
42 PO2 217 -0.153
42 PO2 218 0.824
42 PO2 219 1.801
42 PO2 220 2.777
42 PO2 221 2.289
42 PO2 222 1.312
42 PO2 223 -0.153
42 PO2 224 -1.617
42 PO2 225 -3.571
42 PO2 226 -4.059
42 PO2 227 -4.059
42 PO2 228 -3.571
42 PO2 229 -3.571
42 PO2 230 -3.082
42 PO2 231 -3.082
42 PO2 232 -3.082
42 PO2 233 -3.082
42 PO2 234 -3.082
42 PO2 235 -3.082
42 PO2 236 -2.594
42 PO2 237 -2.106
42 PO2 238 -1.617
42 PO2 239 -1.617
42 PO2 240 -1.617
42 PO2 241 -2.106
42 PO2 242 -3.082
42 PO2 243 -3.571
42 PO2 244 -4.059
42 PO2 245 -3.571
42 PO2 246 -3.082
42 PO2 247 -2.594
42 PO2 248 -2.106
42 PO2 249 -2.106
42 PO2 250 -2.106
42 PO2 251 -1.617
42 PO2 252 -1.617
42 PO2 253 -1.129
42 PO2 254 -0.641
42 PO2 255 0.336
# PO1 chan 28
42 PO1 0 -0.804
42 PO1 1 0.173
42 PO1 2 0.661
42 PO1 3 1.149
42 PO1 4 1.149
42 PO1 5 1.149
42 PO1 6 1.638
42 PO1 7 2.126
42 PO1 8 3.103
42 PO1 9 3.591
42 PO1 10 4.079
42 PO1 11 4.079
42 PO1 12 4.079
42 PO1 13 4.079
42 PO1 14 3.591
42 PO1 15 3.103
42 PO1 16 2.614
42 PO1 17 2.126
42 PO1 18 2.126
42 PO1 19 2.126
42 PO1 20 1.638
42 PO1 21 0.173
42 PO1 22 -2.268
42 PO1 23 -4.222
42 PO1 24 -5.198
42 PO1 25 -5.198
42 PO1 26 -3.245
42 PO1 27 -1.780
42 PO1 28 -0.315
42 PO1 29 0.661
42 PO1 30 1.149
42 PO1 31 1.149
42 PO1 32 1.638
42 PO1 33 1.638
42 PO1 34 1.149
42 PO1 35 0.661
42 PO1 36 0.173
42 PO1 37 -0.315
42 PO1 38 -0.315
42 PO1 39 0.173
42 PO1 40 0.661
42 PO1 41 1.149
42 PO1 42 1.149
42 PO1 43 1.638
42 PO1 44 2.126
42 PO1 45 2.614
42 PO1 46 2.614
42 PO1 47 1.638
42 PO1 48 -0.315
42 PO1 49 -2.268
42 PO1 50 -3.245
42 PO1 51 -3.245
42 PO1 52 -2.268
42 PO1 53 -0.315
42 PO1 54 0.173
42 PO1 55 0.661
42 PO1 56 0.173
42 PO1 57 -0.315
42 PO1 58 -0.804
42 PO1 59 -1.292
42 PO1 60 -1.292
42 PO1 61 -1.780
42 PO1 62 -2.268
