# co2c0000387.rd
# 120 trials, 64 chans, 416 samples 368 post_stim samples
# 3.906000 msecs uV
# S2 match , trial 79
# FP1 chan 0
79 FP1 0 -37.242
79 FP1 1 -33.824
79 FP1 2 -28.941
79 FP1 3 -24.546
79 FP1 4 -21.128
79 FP1 5 -19.663
79 FP1 6 -19.175
79 FP1 7 -19.663
79 FP1 8 -18.687
79 FP1 9 -17.222
79 FP1 10 -15.757
79 FP1 11 -16.246
79 FP1 12 -17.710
79 FP1 13 -20.640
79 FP1 14 -22.593
79 FP1 15 -22.593
79 FP1 16 -22.105
79 FP1 17 -21.128
79 FP1 18 -20.640
79 FP1 19 -20.152
79 FP1 20 -20.152
79 FP1 21 -19.175
79 FP1 22 -17.710
79 FP1 23 -16.246
79 FP1 24 -16.246
79 FP1 25 -16.734
79 FP1 26 -17.222
79 FP1 27 -17.710
79 FP1 28 -18.199
79 FP1 29 -18.687
79 FP1 30 -19.663
79 FP1 31 -20.640
79 FP1 32 -21.128
79 FP1 33 -21.617
79 FP1 34 -22.105
79 FP1 35 -24.058
79 FP1 36 -26.988
79 FP1 37 -29.429
79 FP1 38 -30.894
79 FP1 39 -30.406
79 FP1 40 -26.988
79 FP1 41 -21.617
79 FP1 42 -16.734
79 FP1 43 -12.339
79 FP1 44 -10.874
79 FP1 45 -10.386
79 FP1 46 -11.363
79 FP1 47 -11.851
79 FP1 48 -12.339
79 FP1 49 -12.828
79 FP1 50 -13.804
79 FP1 51 -15.269
79 FP1 52 -16.734
79 FP1 53 -17.710
79 FP1 54 -16.734
79 FP1 55 -15.757
79 FP1 56 -14.781
79 FP1 57 -13.804
79 FP1 58 -14.292
79 FP1 59 -14.781
79 FP1 60 -14.781
79 FP1 61 -14.292
79 FP1 62 -14.292
79 FP1 63 -15.269
79 FP1 64 -17.222
79 FP1 65 -19.663
79 FP1 66 -21.128
79 FP1 67 -21.128
79 FP1 68 -20.152
79 FP1 69 -19.663
79 FP1 70 -20.152
79 FP1 71 -23.570
79 FP1 72 -26.988
79 FP1 73 -29.429
79 FP1 74 -29.429
79 FP1 75 -26.988
79 FP1 76 -24.058
79 FP1 77 -22.593
79 FP1 78 -22.105
79 FP1 79 -23.570
79 FP1 80 -26.011
79 FP1 81 -29.429
79 FP1 82 -33.824
79 FP1 83 -38.218
79 FP1 84 -41.636
79 FP1 85 -42.124
79 FP1 86 -39.195
79 FP1 87 -35.288
79 FP1 88 -31.871
79 FP1 89 -29.917
79 FP1 90 -29.917
79 FP1 91 -30.406
79 FP1 92 -29.429
79 FP1 93 -27.964
79 FP1 94 -26.499
79 FP1 95 -24.546
79 FP1 96 -23.570
79 FP1 97 -22.593
79 FP1 98 -21.617
79 FP1 99 -21.617
79 FP1 100 -23.570
79 FP1 101 -26.988
79 FP1 102 -30.406
79 FP1 103 -31.382
79 FP1 104 -29.429
79 FP1 105 -25.523
79 FP1 106 -21.617
79 FP1 107 -19.175
79 FP1 108 -18.199
79 FP1 109 -18.687
79 FP1 110 -19.175
79 FP1 111 -19.663
79 FP1 112 -20.640
79 FP1 113 -21.617
79 FP1 114 -22.593
79 FP1 115 -22.593
79 FP1 116 -21.617
79 FP1 117 -21.617
79 FP1 118 -22.593
79 FP1 119 -25.035
79 FP1 120 -26.499
79 FP1 121 -25.035
79 FP1 122 -20.152
79 FP1 123 -13.316
79 FP1 124 -8.921
79 FP1 125 -7.945
79 FP1 126 -9.898
79 FP1 127 -12.828
79 FP1 128 -13.316
79 FP1 129 -12.339
79 FP1 130 -10.386
79 FP1 131 -9.898
79 FP1 132 -11.363
79 FP1 133 -12.828
79 FP1 134 -11.851
79 FP1 135 -8.433
79 FP1 136 -3.062
79 FP1 137 -0.132
79 FP1 138 0.356
79 FP1 139 -0.621
79 FP1 140 -2.085
79 FP1 141 -1.597
79 FP1 142 -0.621
79 FP1 143 0.844
79 FP1 144 0.356
79 FP1 145 -0.621
79 FP1 146 -1.109
79 FP1 147 -0.621
79 FP1 148 0.356
79 FP1 149 -0.132
79 FP1 150 -2.574
79 FP1 151 -6.480
79 FP1 152 -9.898
79 FP1 153 -11.851
79 FP1 154 -11.851
79 FP1 155 -10.386
79 FP1 156 -7.945
79 FP1 157 -5.015
79 FP1 158 -3.062
79 FP1 159 -2.085
79 FP1 160 -2.574
79 FP1 161 -5.015
79 FP1 162 -8.433
79 FP1 163 -10.386
79 FP1 164 -11.851
79 FP1 165 -12.828
79 FP1 166 -13.316
79 FP1 167 -14.292
79 FP1 168 -14.781
79 FP1 169 -13.316
79 FP1 170 -10.386
79 FP1 171 -6.480
79 FP1 172 -2.574
79 FP1 173 -0.132
79 FP1 174 0.844
79 FP1 175 0.844
79 FP1 176 -0.132
79 FP1 177 -0.621
79 FP1 178 -1.109
79 FP1 179 -2.085
79 FP1 180 -3.062
79 FP1 181 -4.527
79 FP1 182 -5.992
79 FP1 183 -7.456
79 FP1 184 -7.945
79 FP1 185 -7.945
79 FP1 186 -7.945
79 FP1 187 -7.456
79 FP1 188 -8.433
79 FP1 189 -9.410
79 FP1 190 -9.898
79 FP1 191 -9.410
79 FP1 192 -8.433
79 FP1 193 -6.480
79 FP1 194 -4.527
79 FP1 195 -3.550
79 FP1 196 -3.062
79 FP1 197 -3.550
79 FP1 198 -6.480
79 FP1 199 -10.386
79 FP1 200 -15.269
79 FP1 201 -19.663
79 FP1 202 -21.617
79 FP1 203 -20.640
79 FP1 204 -17.710
79 FP1 205 -13.804
79 FP1 206 -10.874
79 FP1 207 -10.386
79 FP1 208 -10.386
79 FP1 209 -9.898
79 FP1 210 -8.921
79 FP1 211 -6.968
79 FP1 212 -6.480
79 FP1 213 -7.945
79 FP1 214 -10.874
79 FP1 215 -14.781
79 FP1 216 -18.199
79 FP1 217 -19.175
79 FP1 218 -18.687
79 FP1 219 -17.222
79 FP1 220 -16.246
79 FP1 221 -14.781
79 FP1 222 -12.828
79 FP1 223 -9.898
79 FP1 224 -7.456
79 FP1 225 -6.968
79 FP1 226 -7.945
79 FP1 227 -10.874
79 FP1 228 -12.828
79 FP1 229 -14.292
79 FP1 230 -15.757
79 FP1 231 -18.199
79 FP1 232 -22.593
79 FP1 233 -27.476
79 FP1 234 -30.406
79 FP1 235 -29.917
79 FP1 236 -25.523
79 FP1 237 -19.663
79 FP1 238 -14.781
79 FP1 239 -11.851
79 FP1 240 -10.874
79 FP1 241 -10.386
79 FP1 242 -8.433
79 FP1 243 -4.527
79 FP1 244 1.333
79 FP1 245 8.169
79 FP1 246 15.981
79 FP1 247 24.770
79 FP1 248 34.536
79 FP1 249 45.278
79 FP1 250 55.532
79 FP1 251 67.251
79 FP1 252 79.458
79 FP1 253 92.153
79 FP1 254 103.872
79 FP1 255 113.637
# FP2 chan 1
79 FP2 0 -34.760
79 FP2 1 -31.830
79 FP2 2 -27.435
79 FP2 3 -22.552
79 FP2 4 -18.158
79 FP2 5 -15.717
79 FP2 6 -14.740
79 FP2 7 -15.228
79 FP2 8 -16.205
79 FP2 9 -16.693
79 FP2 10 -16.693
79 FP2 11 -16.693
79 FP2 12 -17.670
79 FP2 13 -19.135
79 FP2 14 -20.599
79 FP2 15 -21.088
79 FP2 16 -20.599
79 FP2 17 -19.135
79 FP2 18 -17.181
79 FP2 19 -15.228
79 FP2 20 -13.763
79 FP2 21 -12.787
79 FP2 22 -12.787
79 FP2 23 -13.275
79 FP2 24 -14.252
79 FP2 25 -15.228
79 FP2 26 -15.228
79 FP2 27 -15.228
79 FP2 28 -15.228
79 FP2 29 -15.717
79 FP2 30 -17.181
79 FP2 31 -18.158
79 FP2 32 -18.646
79 FP2 33 -18.646
79 FP2 34 -19.135
79 FP2 35 -20.599
79 FP2 36 -23.041
79 FP2 37 -25.482
79 FP2 38 -27.924
79 FP2 39 -28.412
79 FP2 40 -27.435
79 FP2 41 -24.506
79 FP2 42 -20.599
79 FP2 43 -16.693
79 FP2 44 -14.252
79 FP2 45 -13.763
79 FP2 46 -14.740
79 FP2 47 -15.228
79 FP2 48 -14.252
79 FP2 49 -12.787
79 FP2 50 -10.834
79 FP2 51 -10.345
79 FP2 52 -11.322
79 FP2 53 -13.275
79 FP2 54 -14.252
79 FP2 55 -15.228
79 FP2 56 -14.740
79 FP2 57 -13.763
79 FP2 58 -14.252
79 FP2 59 -15.228
79 FP2 60 -15.717
79 FP2 61 -15.717
79 FP2 62 -15.228
79 FP2 63 -14.252
79 FP2 64 -14.252
79 FP2 65 -16.205
79 FP2 66 -18.158
79 FP2 67 -19.135
79 FP2 68 -20.111
79 FP2 69 -20.111
79 FP2 70 -21.088
79 FP2 71 -23.529
79 FP2 72 -25.970
79 FP2 73 -27.924
79 FP2 74 -27.924
79 FP2 75 -25.970
79 FP2 76 -23.529
79 FP2 77 -21.576
79 FP2 78 -21.088
79 FP2 79 -22.552
79 FP2 80 -25.482
79 FP2 81 -29.388
79 FP2 82 -33.783
79 FP2 83 -38.177
79 FP2 84 -40.619
79 FP2 85 -40.131
79 FP2 86 -37.201
79 FP2 87 -33.295
79 FP2 88 -30.853
79 FP2 89 -30.365
79 FP2 90 -31.830
79 FP2 91 -32.806
79 FP2 92 -31.830
79 FP2 93 -28.412
79 FP2 94 -23.529
79 FP2 95 -19.623
79 FP2 96 -18.158
79 FP2 97 -18.158
79 FP2 98 -19.623
79 FP2 99 -21.088
79 FP2 100 -23.041
79 FP2 101 -24.994
79 FP2 102 -26.459
79 FP2 103 -27.435
79 FP2 104 -26.947
79 FP2 105 -24.017
79 FP2 106 -20.111
79 FP2 107 -16.693
79 FP2 108 -14.252
79 FP2 109 -14.740
79 FP2 110 -16.205
79 FP2 111 -17.670
79 FP2 112 -18.646
79 FP2 113 -19.135
79 FP2 114 -19.135
79 FP2 115 -20.111
79 FP2 116 -21.576
79 FP2 117 -22.064
79 FP2 118 -21.088
79 FP2 119 -19.135
79 FP2 120 -17.181
79 FP2 121 -14.740
79 FP2 122 -13.275
79 FP2 123 -12.299
79 FP2 124 -10.834
79 FP2 125 -9.857
79 FP2 126 -9.857
79 FP2 127 -10.834
79 FP2 128 -12.299
79 FP2 129 -13.275
79 FP2 130 -14.252
79 FP2 131 -14.740
79 FP2 132 -14.252
79 FP2 133 -12.299
79 FP2 134 -8.392
79 FP2 135 -3.510
79 FP2 136 0.885
79 FP2 137 3.326
79 FP2 138 2.350
79 FP2 139 0.885
79 FP2 140 0.397
79 FP2 141 2.350
79 FP2 142 4.303
79 FP2 143 3.815
79 FP2 144 0.397
79 FP2 145 -5.463
79 FP2 146 -8.392
79 FP2 147 -7.416
79 FP2 148 -3.021
79 FP2 149 0.885
79 FP2 150 1.373
79 FP2 151 -2.533
79 FP2 152 -8.392
79 FP2 153 -12.787
79 FP2 154 -13.763
79 FP2 155 -10.345
79 FP2 156 -6.439
79 FP2 157 -2.533
79 FP2 158 -1.068
79 FP2 159 -1.556
79 FP2 160 -3.510
79 FP2 161 -6.439
79 FP2 162 -9.369
79 FP2 163 -10.834
79 FP2 164 -12.299
79 FP2 165 -13.275
79 FP2 166 -13.275
79 FP2 167 -13.275
79 FP2 168 -12.299
79 FP2 169 -10.834
79 FP2 170 -9.857
79 FP2 171 -7.904
79 FP2 172 -4.974
79 FP2 173 -1.068
79 FP2 174 2.350
79 FP2 175 4.303
79 FP2 176 3.815
79 FP2 177 1.373
79 FP2 178 -1.556
79 FP2 179 -2.533
79 FP2 180 -2.045
79 FP2 181 -1.068
79 FP2 182 -2.045
79 FP2 183 -4.486
79 FP2 184 -7.904
79 FP2 185 -9.857
79 FP2 186 -10.834
79 FP2 187 -9.857
79 FP2 188 -8.881
79 FP2 189 -8.881
79 FP2 190 -8.392
79 FP2 191 -7.416
79 FP2 192 -4.974
79 FP2 193 -2.045
79 FP2 194 -0.092
79 FP2 195 0.397
79 FP2 196 -1.556
79 FP2 197 -4.486
79 FP2 198 -6.927
79 FP2 199 -9.369
79 FP2 200 -11.322
79 FP2 201 -12.787
79 FP2 202 -13.763
79 FP2 203 -13.275
79 FP2 204 -11.810
79 FP2 205 -10.345
79 FP2 206 -9.857
79 FP2 207 -11.322
79 FP2 208 -13.763
79 FP2 209 -15.228
79 FP2 210 -14.252
79 FP2 211 -10.834
79 FP2 212 -6.439
79 FP2 213 -3.998
79 FP2 214 -5.951
79 FP2 215 -11.322
79 FP2 216 -17.670
79 FP2 217 -22.552
79 FP2 218 -23.529
79 FP2 219 -22.064
79 FP2 220 -18.646
79 FP2 221 -15.228
79 FP2 222 -12.787
79 FP2 223 -10.834
79 FP2 224 -9.857
79 FP2 225 -9.369
79 FP2 226 -10.345
79 FP2 227 -12.299
79 FP2 228 -14.252
79 FP2 229 -15.228
79 FP2 230 -15.717
79 FP2 231 -17.670
79 FP2 232 -22.064
79 FP2 233 -26.947
79 FP2 234 -29.877
79 FP2 235 -26.947
79 FP2 236 -19.135
79 FP2 237 -9.369
79 FP2 238 -3.021
79 FP2 239 -1.068
79 FP2 240 -2.045
79 FP2 241 -2.533
79 FP2 242 0.885
79 FP2 243 8.698
79 FP2 244 19.440
79 FP2 245 30.670
79 FP2 246 41.901
79 FP2 247 54.108
79 FP2 248 68.268
79 FP2 249 84.869
79 FP2 250 100.983
79 FP2 251 117.584
79 FP2 252 133.209
79 FP2 253 148.834
79 FP2 254 163.971
79 FP2 255 177.155
# F7 chan 2
79 F7 0 -29.500
79 F7 1 -27.547
79 F7 2 -23.153
79 F7 3 -18.758
79 F7 4 -15.340
79 F7 5 -14.852
79 F7 6 -16.317
79 F7 7 -17.782
79 F7 8 -18.270
79 F7 9 -15.828
79 F7 10 -13.387
79 F7 11 -12.410
79 F7 12 -15.828
79 F7 13 -20.711
79 F7 14 -23.153
79 F7 15 -21.688
79 F7 16 -15.340
79 F7 17 -8.016
79 F7 18 -3.621
79 F7 19 -4.110
79 F7 20 -7.528
79 F7 21 -10.946
79 F7 22 -12.899
79 F7 23 -13.387
79 F7 24 -13.875
79 F7 25 -14.364
79 F7 26 -12.899
79 F7 27 -8.993
79 F7 28 -4.598
79 F7 29 -1.668
79 F7 30 -2.645
79 F7 31 -7.039
79 F7 32 -10.946
79 F7 33 -11.434
79 F7 34 -8.993
79 F7 35 -7.039
79 F7 36 -8.993
79 F7 37 -14.852
79 F7 38 -20.223
79 F7 39 -21.200
79 F7 40 -16.317
79 F7 41 -8.016
79 F7 42 -1.668
79 F7 43 0.285
79 F7 44 -1.180
79 F7 45 -3.621
79 F7 46 -5.086
79 F7 47 -6.063
79 F7 48 -8.016
79 F7 49 -10.946
79 F7 50 -12.899
79 F7 51 -11.434
79 F7 52 -7.039
79 F7 53 -3.621
79 F7 54 -3.621
79 F7 55 -8.016
79 F7 56 -13.875
79 F7 57 -16.805
79 F7 58 -14.852
79 F7 59 -10.457
79 F7 60 -7.039
79 F7 61 -7.528
79 F7 62 -10.946
79 F7 63 -13.387
79 F7 64 -12.899
79 F7 65 -8.993
79 F7 66 -6.551
79 F7 67 -6.551
79 F7 68 -10.457
79 F7 69 -14.852
79 F7 70 -17.782
79 F7 71 -18.758
79 F7 72 -19.735
79 F7 73 -21.200
79 F7 74 -22.664
79 F7 75 -22.664
79 F7 76 -20.223
79 F7 77 -15.828
79 F7 78 -12.410
79 F7 79 -11.922
79 F7 80 -15.340
79 F7 81 -21.200
79 F7 82 -26.082
79 F7 83 -29.012
79 F7 84 -29.500
79 F7 85 -28.524
79 F7 86 -27.547
79 F7 87 -26.082
79 F7 88 -24.618
79 F7 89 -21.200
79 F7 90 -17.782
79 F7 91 -15.828
79 F7 92 -16.317
79 F7 93 -18.270
79 F7 94 -20.711
79 F7 95 -20.223
79 F7 96 -16.805
79 F7 97 -12.410
79 F7 98 -9.969
79 F7 99 -11.434
79 F7 100 -16.317
79 F7 101 -22.176
79 F7 102 -26.082
79 F7 103 -26.571
79 F7 104 -24.129
79 F7 105 -20.223
79 F7 106 -17.293
79 F7 107 -14.852
79 F7 108 -13.387
79 F7 109 -11.922
79 F7 110 -10.457
79 F7 111 -8.993
79 F7 112 -7.528
79 F7 113 -7.528
79 F7 114 -8.504
79 F7 115 -11.434
79 F7 116 -13.875
79 F7 117 -15.828
79 F7 118 -15.340
79 F7 119 -13.387
79 F7 120 -10.946
79 F7 121 -9.969
79 F7 122 -10.457
79 F7 123 -10.457
79 F7 124 -9.969
79 F7 125 -8.504
79 F7 126 -7.039
79 F7 127 -6.551
79 F7 128 -7.528
79 F7 129 -9.481
79 F7 130 -13.387
79 F7 131 -16.805
79 F7 132 -19.735
79 F7 133 -19.735
79 F7 134 -15.340
79 F7 135 -8.504
79 F7 136 -2.645
79 F7 137 -1.180
79 F7 138 -4.110
79 F7 139 -8.993
79 F7 140 -11.922
79 F7 141 -10.457
79 F7 142 -6.551
79 F7 143 -3.621
79 F7 144 -4.110
79 F7 145 -6.551
79 F7 146 -8.504
79 F7 147 -7.039
79 F7 148 -3.621
79 F7 149 -0.692
79 F7 150 -2.157
79 F7 151 -8.504
79 F7 152 -16.317
79 F7 153 -21.200
79 F7 154 -21.200
79 F7 155 -16.805
79 F7 156 -10.457
79 F7 157 -5.086
79 F7 158 -2.645
79 F7 159 -3.133
79 F7 160 -4.598
79 F7 161 -7.039
79 F7 162 -9.969
79 F7 163 -12.899
79 F7 164 -16.317
79 F7 165 -19.246
79 F7 166 -20.223
79 F7 167 -19.735
79 F7 168 -18.270
79 F7 169 -16.317
79 F7 170 -14.364
79 F7 171 -11.922
79 F7 172 -8.504
79 F7 173 -3.621
79 F7 174 0.773
79 F7 175 2.726
79 F7 176 1.261
79 F7 177 -2.645
79 F7 178 -7.039
79 F7 179 -10.457
79 F7 180 -10.946
79 F7 181 -10.946
79 F7 182 -10.946
79 F7 183 -11.434
79 F7 184 -11.434
79 F7 185 -10.457
79 F7 186 -7.528
79 F7 187 -4.110
79 F7 188 -1.668
79 F7 189 -3.621
79 F7 190 -7.039
79 F7 191 -9.969
79 F7 192 -9.481
79 F7 193 -5.575
79 F7 194 -1.180
79 F7 195 1.261
79 F7 196 -0.692
79 F7 197 -5.575
79 F7 198 -10.457
79 F7 199 -13.387
79 F7 200 -14.364
79 F7 201 -14.852
79 F7 202 -15.828
79 F7 203 -16.805
79 F7 204 -16.317
79 F7 205 -13.387
79 F7 206 -8.993
79 F7 207 -6.551
79 F7 208 -6.551
79 F7 209 -7.528
79 F7 210 -8.016
79 F7 211 -5.086
79 F7 212 -0.692
79 F7 213 1.261
79 F7 214 -0.203
79 F7 215 -6.063
79 F7 216 -12.410
79 F7 217 -15.340
79 F7 218 -14.364
79 F7 219 -10.946
79 F7 220 -8.016
79 F7 221 -7.039
79 F7 222 -7.528
79 F7 223 -7.039
79 F7 224 -5.575
79 F7 225 -4.110
79 F7 226 -4.598
79 F7 227 -7.528
79 F7 228 -10.946
79 F7 229 -13.875
79 F7 230 -15.340
79 F7 231 -16.805
79 F7 232 -19.246
79 F7 233 -21.688
79 F7 234 -23.153
79 F7 235 -23.153
79 F7 236 -20.711
79 F7 237 -17.782
79 F7 238 -15.828
79 F7 239 -14.852
79 F7 240 -15.340
79 F7 241 -16.805
79 F7 242 -19.246
79 F7 243 -21.688
79 F7 244 -24.618
79 F7 245 -26.082
79 F7 246 -25.106
79 F7 247 -22.664
79 F7 248 -19.735
79 F7 249 -18.270
79 F7 250 -18.270
79 F7 251 -18.758
79 F7 252 -18.270
79 F7 253 -16.805
79 F7 254 -15.340
79 F7 255 -14.852
# F8 chan 3
79 F8 0 -18.717
79 F8 1 -17.253
79 F8 2 -16.276
79 F8 3 -15.788
79 F8 4 -15.299
79 F8 5 -14.811
79 F8 6 -13.346
79 F8 7 -12.370
79 F8 8 -11.882
79 F8 9 -12.370
79 F8 10 -12.858
79 F8 11 -13.346
79 F8 12 -13.346
79 F8 13 -12.370
79 F8 14 -10.417
79 F8 15 -8.464
79 F8 16 -6.510
79 F8 17 -4.557
79 F8 18 -3.581
79 F8 19 -2.116
79 F8 20 -1.139
79 F8 21 -0.651
79 F8 22 -0.651
79 F8 23 -2.116
79 F8 24 -3.092
79 F8 25 -3.581
79 F8 26 -2.116
79 F8 27 -0.163
79 F8 28 2.767
79 F8 29 4.720
79 F8 30 5.208
79 F8 31 4.720
79 F8 32 2.767
79 F8 33 0.814
79 F8 34 -0.651
79 F8 35 -1.628
79 F8 36 -2.604
79 F8 37 -4.557
79 F8 38 -6.510
79 F8 39 -8.464
79 F8 40 -9.928
79 F8 41 -8.952
79 F8 42 -6.999
79 F8 43 -5.046
79 F8 44 -2.604
79 F8 45 -1.628
79 F8 46 -0.651
79 F8 47 -0.163
79 F8 48 0.814
79 F8 49 1.302
79 F8 50 1.790
79 F8 51 0.814
79 F8 52 -0.163
79 F8 53 -0.651
79 F8 54 -0.163
79 F8 55 0.326
79 F8 56 0.814
79 F8 57 0.814
79 F8 58 -0.163
79 F8 59 -0.651
79 F8 60 -0.651
79 F8 61 -1.139
79 F8 62 -1.628
79 F8 63 -1.628
79 F8 64 -2.116
79 F8 65 -2.604
79 F8 66 -2.604
79 F8 67 -2.116
79 F8 68 -2.116
79 F8 69 -2.116
79 F8 70 -2.604
79 F8 71 -4.069
79 F8 72 -4.557
79 F8 73 -5.534
79 F8 74 -6.022
79 F8 75 -6.510
79 F8 76 -6.999
79 F8 77 -6.999
79 F8 78 -7.487
79 F8 79 -7.975
79 F8 80 -8.952
79 F8 81 -11.393
79 F8 82 -14.323
79 F8 83 -17.253
79 F8 84 -18.717
79 F8 85 -18.717
79 F8 86 -16.764
79 F8 87 -15.299
79 F8 88 -15.788
79 F8 89 -16.276
79 F8 90 -17.741
79 F8 91 -17.253
79 F8 92 -15.299
79 F8 93 -12.370
79 F8 94 -8.952
79 F8 95 -6.022
79 F8 96 -5.046
79 F8 97 -4.069
79 F8 98 -4.069
79 F8 99 -4.069
79 F8 100 -3.581
79 F8 101 -3.581
79 F8 102 -3.581
79 F8 103 -3.581
79 F8 104 -3.092
79 F8 105 -1.628
79 F8 106 0.326
79 F8 107 2.767
79 F8 108 4.720
79 F8 109 5.208
79 F8 110 4.720
79 F8 111 3.743
79 F8 112 3.255
79 F8 113 3.743
79 F8 114 4.720
79 F8 115 4.720
79 F8 116 4.232
79 F8 117 2.279
79 F8 118 0.814
79 F8 119 -0.163
79 F8 120 0.326
79 F8 121 1.302
79 F8 122 2.767
79 F8 123 4.232
79 F8 124 5.208
79 F8 125 5.697
79 F8 126 5.208
79 F8 127 3.743
79 F8 128 1.302
79 F8 129 -1.139
79 F8 130 -3.092
79 F8 131 -3.581
79 F8 132 -3.581
79 F8 133 -2.116
79 F8 134 -1.139
79 F8 135 0.326
79 F8 136 0.814
79 F8 137 -0.163
79 F8 138 -1.628
79 F8 139 -3.092
79 F8 140 -3.092
79 F8 141 -2.604
79 F8 142 -2.604
79 F8 143 -3.581
79 F8 144 -5.534
79 F8 145 -7.487
79 F8 146 -6.999
79 F8 147 -4.069
79 F8 148 -0.651
79 F8 149 0.326
79 F8 150 -1.139
79 F8 151 -4.557
79 F8 152 -6.999
79 F8 153 -7.487
79 F8 154 -5.534
79 F8 155 -2.604
79 F8 156 -0.651
79 F8 157 -0.163
79 F8 158 -0.651
79 F8 159 -1.139
79 F8 160 -2.116
79 F8 161 -3.581
79 F8 162 -6.022
79 F8 163 -8.464
79 F8 164 -10.417
79 F8 165 -10.417
79 F8 166 -9.440
79 F8 167 -7.975
79 F8 168 -6.999
79 F8 169 -5.534
79 F8 170 -4.557
79 F8 171 -2.604
79 F8 172 -0.651
79 F8 173 1.302
79 F8 174 2.279
79 F8 175 3.255
79 F8 176 2.767
79 F8 177 2.279
79 F8 178 1.790
79 F8 179 1.790
79 F8 180 1.790
79 F8 181 2.767
79 F8 182 3.255
79 F8 183 3.255
79 F8 184 1.790
79 F8 185 -0.163
79 F8 186 -1.139
79 F8 187 -0.651
79 F8 188 0.326
79 F8 189 1.790
79 F8 190 2.279
79 F8 191 2.767
79 F8 192 2.767
79 F8 193 3.255
79 F8 194 4.232
79 F8 195 4.720
79 F8 196 4.232
79 F8 197 2.767
79 F8 198 0.326
79 F8 199 -2.116
79 F8 200 -3.581
79 F8 201 -3.581
79 F8 202 -1.628
79 F8 203 0.814
79 F8 204 2.767
79 F8 205 2.767
79 F8 206 0.814
79 F8 207 -2.604
79 F8 208 -5.046
79 F8 209 -6.022
79 F8 210 -4.557
79 F8 211 -3.092
79 F8 212 -2.604
79 F8 213 -3.581
79 F8 214 -6.022
79 F8 215 -9.440
79 F8 216 -12.858
79 F8 217 -14.811
79 F8 218 -15.788
79 F8 219 -14.811
79 F8 220 -11.882
79 F8 221 -7.487
79 F8 222 -3.581
79 F8 223 0.326
79 F8 224 2.279
79 F8 225 3.743
79 F8 226 3.743
79 F8 227 3.255
79 F8 228 1.790
79 F8 229 -1.139
79 F8 230 -6.022
79 F8 231 -10.905
79 F8 232 -15.299
79 F8 233 -18.229
79 F8 234 -18.229
79 F8 235 -15.788
79 F8 236 -11.393
79 F8 237 -6.510
79 F8 238 -3.092
79 F8 239 -1.628
79 F8 240 -1.628
79 F8 241 -1.139
79 F8 242 0.326
79 F8 243 2.767
79 F8 244 6.673
79 F8 245 11.556
79 F8 246 16.439
79 F8 247 21.810
79 F8 248 28.158
79 F8 249 35.970
79 F8 250 44.271
79 F8 251 52.572
79 F8 252 60.872
79 F8 253 68.685
79 F8 254 76.009
79 F8 255 83.333
# AF1 chan 4
79 AF1 0 -33.986
79 AF1 1 -32.522
79 AF1 2 -30.568
79 AF1 3 -27.639
79 AF1 4 -24.221
79 AF1 5 -20.803
79 AF1 6 -18.361
79 AF1 7 -16.897
79 AF1 8 -16.408
79 AF1 9 -16.408
79 AF1 10 -16.897
79 AF1 11 -17.873
79 AF1 12 -19.826
79 AF1 13 -22.268
79 AF1 14 -25.197
79 AF1 15 -26.662
79 AF1 16 -26.662
79 AF1 17 -24.709
79 AF1 18 -22.756
79 AF1 19 -20.803
79 AF1 20 -19.338
79 AF1 21 -18.850
79 AF1 22 -18.361
79 AF1 23 -17.385
79 AF1 24 -15.920
79 AF1 25 -14.943
79 AF1 26 -14.455
79 AF1 27 -14.943
79 AF1 28 -15.920
79 AF1 29 -18.361
79 AF1 30 -20.315
79 AF1 31 -21.779
79 AF1 32 -22.268
79 AF1 33 -22.268
79 AF1 34 -22.268
79 AF1 35 -22.268
79 AF1 36 -22.756
79 AF1 37 -24.221
79 AF1 38 -24.709
79 AF1 39 -24.221
79 AF1 40 -21.779
79 AF1 41 -18.361
79 AF1 42 -14.455
79 AF1 43 -11.525
79 AF1 44 -9.572
79 AF1 45 -9.084
79 AF1 46 -9.572
79 AF1 47 -10.061
79 AF1 48 -11.037
79 AF1 49 -11.037
79 AF1 50 -12.014
79 AF1 51 -12.502
79 AF1 52 -12.990
79 AF1 53 -13.967
79 AF1 54 -13.967
79 AF1 55 -13.967
79 AF1 56 -14.455
79 AF1 57 -14.455
79 AF1 58 -14.455
79 AF1 59 -13.479
79 AF1 60 -12.502
79 AF1 61 -12.014
79 AF1 62 -12.502
79 AF1 63 -14.455
79 AF1 64 -16.897
79 AF1 65 -19.338
79 AF1 66 -20.315
79 AF1 67 -19.826
79 AF1 68 -18.850
79 AF1 69 -18.850
79 AF1 70 -19.826
79 AF1 71 -21.779
79 AF1 72 -22.756
79 AF1 73 -22.756
79 AF1 74 -21.779
79 AF1 75 -20.315
79 AF1 76 -19.338
79 AF1 77 -17.873
79 AF1 78 -17.873
79 AF1 79 -18.850
79 AF1 80 -20.803
79 AF1 81 -25.197
79 AF1 82 -29.104
79 AF1 83 -32.522
79 AF1 84 -33.986
79 AF1 85 -33.498
79 AF1 86 -30.568
79 AF1 87 -27.639
79 AF1 88 -25.197
79 AF1 89 -23.244
79 AF1 90 -21.779
79 AF1 91 -20.315
79 AF1 92 -18.850
79 AF1 93 -17.385
79 AF1 94 -16.897
79 AF1 95 -16.897
79 AF1 96 -16.408
79 AF1 97 -15.920
79 AF1 98 -15.920
79 AF1 99 -16.897
79 AF1 100 -18.850
79 AF1 101 -21.779
79 AF1 102 -24.221
79 AF1 103 -25.197
79 AF1 104 -24.709
79 AF1 105 -23.244
79 AF1 106 -21.291
79 AF1 107 -18.850
79 AF1 108 -16.897
79 AF1 109 -15.432
79 AF1 110 -14.943
79 AF1 111 -15.432
79 AF1 112 -16.897
79 AF1 113 -18.850
79 AF1 114 -20.315
79 AF1 115 -20.803
79 AF1 116 -21.291
79 AF1 117 -21.291
79 AF1 118 -21.779
79 AF1 119 -21.291
79 AF1 120 -20.315
79 AF1 121 -17.873
79 AF1 122 -14.943
79 AF1 123 -12.502
79 AF1 124 -11.037
79 AF1 125 -10.061
79 AF1 126 -10.061
79 AF1 127 -9.572
79 AF1 128 -9.084
79 AF1 129 -9.084
79 AF1 130 -9.084
79 AF1 131 -10.061
79 AF1 132 -11.037
79 AF1 133 -11.525
79 AF1 134 -11.037
79 AF1 135 -9.572
79 AF1 136 -7.131
79 AF1 137 -5.666
79 AF1 138 -4.690
79 AF1 139 -5.178
79 AF1 140 -5.178
79 AF1 141 -4.201
79 AF1 142 -3.225
79 AF1 143 -2.736
79 AF1 144 -2.736
79 AF1 145 -4.201
79 AF1 146 -5.178
79 AF1 147 -6.154
79 AF1 148 -6.643
79 AF1 149 -7.619
79 AF1 150 -8.596
79 AF1 151 -10.061
79 AF1 152 -10.549
79 AF1 153 -10.549
79 AF1 154 -9.084
79 AF1 155 -8.108
79 AF1 156 -6.643
79 AF1 157 -5.666
79 AF1 158 -4.201
79 AF1 159 -3.713
79 AF1 160 -4.201
79 AF1 161 -5.666
79 AF1 162 -7.131
79 AF1 163 -9.084
79 AF1 164 -10.061
79 AF1 165 -11.037
79 AF1 166 -11.525
79 AF1 167 -12.990
79 AF1 168 -13.479
79 AF1 169 -13.479
79 AF1 170 -12.014
79 AF1 171 -9.572
79 AF1 172 -7.131
79 AF1 173 -4.201
79 AF1 174 -2.736
79 AF1 175 -1.760
79 AF1 176 -1.760
79 AF1 177 -1.760
79 AF1 178 -2.736
79 AF1 179 -4.690
79 AF1 180 -6.154
79 AF1 181 -6.643
79 AF1 182 -6.643
79 AF1 183 -6.643
79 AF1 184 -6.643
79 AF1 185 -7.131
79 AF1 186 -7.619
79 AF1 187 -7.619
79 AF1 188 -6.154
79 AF1 189 -4.690
79 AF1 190 -3.225
79 AF1 191 -1.760
79 AF1 192 -1.272
79 AF1 193 -0.295
79 AF1 194 0.682
79 AF1 195 1.658
79 AF1 196 2.146
79 AF1 197 0.682
79 AF1 198 -1.760
79 AF1 199 -6.154
79 AF1 200 -10.061
79 AF1 201 -12.014
79 AF1 202 -12.014
79 AF1 203 -10.061
79 AF1 204 -7.131
79 AF1 205 -4.690
79 AF1 206 -3.713
79 AF1 207 -2.736
79 AF1 208 -1.272
79 AF1 209 -0.295
79 AF1 210 1.170
79 AF1 211 1.170
79 AF1 212 -0.295
79 AF1 213 -4.201
79 AF1 214 -8.108
79 AF1 215 -11.037
79 AF1 216 -12.502
79 AF1 217 -12.990
79 AF1 218 -12.502
79 AF1 219 -12.014
79 AF1 220 -11.525
79 AF1 221 -10.549
79 AF1 222 -8.108
79 AF1 223 -5.666
79 AF1 224 -3.713
79 AF1 225 -3.713
79 AF1 226 -5.178
79 AF1 227 -7.131
79 AF1 228 -9.084
79 AF1 229 -10.061
79 AF1 230 -11.037
79 AF1 231 -12.014
79 AF1 232 -13.967
79 AF1 233 -15.920
79 AF1 234 -17.385
79 AF1 235 -17.385
79 AF1 236 -15.920
79 AF1 237 -12.990
79 AF1 238 -9.572
79 AF1 239 -7.619
79 AF1 240 -7.131
79 AF1 241 -7.619
79 AF1 242 -8.596
79 AF1 243 -8.596
79 AF1 244 -6.154
79 AF1 245 -1.760
79 AF1 246 4.100
79 AF1 247 9.959
79 AF1 248 15.330
79 AF1 249 19.725
79 AF1 250 23.631
79 AF1 251 27.537
79 AF1 252 32.420
79 AF1 253 37.303
79 AF1 254 42.674
79 AF1 255 47.068
# AF2 chan 5
79 AF2 0 -30.141
79 AF2 1 -28.676
79 AF2 2 -27.212
79 AF2 3 -25.258
79 AF2 4 -22.329
79 AF2 5 -19.887
79 AF2 6 -17.934
79 AF2 7 -16.958
79 AF2 8 -15.981
79 AF2 9 -15.981
79 AF2 10 -16.469
79 AF2 11 -16.958
79 AF2 12 -17.934
79 AF2 13 -19.399
79 AF2 14 -20.864
79 AF2 15 -21.840
79 AF2 16 -21.352
79 AF2 17 -19.887
79 AF2 18 -17.934
79 AF2 19 -15.981
79 AF2 20 -14.028
79 AF2 21 -13.051
79 AF2 22 -13.051
79 AF2 23 -13.540
79 AF2 24 -14.516
79 AF2 25 -14.028
79 AF2 26 -13.540
79 AF2 27 -12.563
79 AF2 28 -12.563
79 AF2 29 -13.540
79 AF2 30 -15.493
79 AF2 31 -16.958
79 AF2 32 -17.934
79 AF2 33 -17.446
79 AF2 34 -16.958
79 AF2 35 -17.446
79 AF2 36 -17.934
79 AF2 37 -19.399
79 AF2 38 -20.864
79 AF2 39 -21.352
79 AF2 40 -20.376
79 AF2 41 -17.934
79 AF2 42 -15.493
79 AF2 43 -13.540
79 AF2 44 -12.563
79 AF2 45 -12.075
79 AF2 46 -11.098
79 AF2 47 -10.122
79 AF2 48 -9.145
79 AF2 49 -8.657
79 AF2 50 -8.657
79 AF2 51 -9.145
79 AF2 52 -10.122
79 AF2 53 -10.122
79 AF2 54 -10.122
79 AF2 55 -9.633
79 AF2 56 -9.633
79 AF2 57 -10.122
79 AF2 58 -10.122
79 AF2 59 -10.122
79 AF2 60 -10.122
79 AF2 61 -10.610
79 AF2 62 -11.587
79 AF2 63 -13.051
79 AF2 64 -14.516
79 AF2 65 -15.981
79 AF2 66 -15.981
79 AF2 67 -15.981
79 AF2 68 -15.981
79 AF2 69 -15.981
79 AF2 70 -16.469
79 AF2 71 -17.446
79 AF2 72 -18.422
79 AF2 73 -18.911
79 AF2 74 -18.911
79 AF2 75 -18.422
79 AF2 76 -17.446
79 AF2 77 -16.469
79 AF2 78 -15.493
79 AF2 79 -16.469
79 AF2 80 -17.934
79 AF2 81 -21.352
79 AF2 82 -24.770
79 AF2 83 -27.212
79 AF2 84 -28.676
79 AF2 85 -28.676
79 AF2 86 -27.212
79 AF2 87 -25.258
79 AF2 88 -23.305
79 AF2 89 -21.352
79 AF2 90 -19.399
79 AF2 91 -17.934
79 AF2 92 -16.958
79 AF2 93 -15.981
79 AF2 94 -15.004
79 AF2 95 -14.516
79 AF2 96 -13.540
79 AF2 97 -13.051
79 AF2 98 -13.051
79 AF2 99 -13.051
79 AF2 100 -14.516
79 AF2 101 -15.981
79 AF2 102 -17.446
79 AF2 103 -17.446
79 AF2 104 -16.958
79 AF2 105 -15.981
79 AF2 106 -15.004
79 AF2 107 -13.540
79 AF2 108 -12.563
79 AF2 109 -11.587
79 AF2 110 -11.098
79 AF2 111 -11.098
79 AF2 112 -12.563
79 AF2 113 -13.051
79 AF2 114 -13.540
79 AF2 115 -14.028
79 AF2 116 -13.540
79 AF2 117 -14.028
79 AF2 118 -14.516
79 AF2 119 -14.516
79 AF2 120 -14.028
79 AF2 121 -11.587
79 AF2 122 -8.657
79 AF2 123 -6.704
79 AF2 124 -5.239
79 AF2 125 -5.239
79 AF2 126 -5.727
79 AF2 127 -6.215
79 AF2 128 -5.727
79 AF2 129 -5.727
79 AF2 130 -6.215
79 AF2 131 -7.192
79 AF2 132 -8.169
79 AF2 133 -8.169
79 AF2 134 -6.704
79 AF2 135 -4.262
79 AF2 136 -2.309
79 AF2 137 -1.333
79 AF2 138 -1.333
79 AF2 139 -2.309
79 AF2 140 -2.797
79 AF2 141 -2.797
79 AF2 142 -2.309
79 AF2 143 -2.309
79 AF2 144 -2.309
79 AF2 145 -3.774
79 AF2 146 -5.239
79 AF2 147 -6.704
79 AF2 148 -7.192
79 AF2 149 -7.192
79 AF2 150 -6.704
79 AF2 151 -6.215
79 AF2 152 -5.727
79 AF2 153 -5.239
79 AF2 154 -4.262
79 AF2 155 -2.797
79 AF2 156 -1.821
79 AF2 157 -1.333
79 AF2 158 -1.333
79 AF2 159 -3.286
79 AF2 160 -5.239
79 AF2 161 -7.192
79 AF2 162 -8.169
79 AF2 163 -7.680
79 AF2 164 -7.192
79 AF2 165 -7.192
79 AF2 166 -8.169
79 AF2 167 -9.145
79 AF2 168 -10.122
79 AF2 169 -9.145
79 AF2 170 -7.680
79 AF2 171 -5.727
79 AF2 172 -4.262
79 AF2 173 -3.286
79 AF2 174 -2.309
79 AF2 175 -0.356
79 AF2 176 1.109
79 AF2 177 1.597
79 AF2 178 1.109
79 AF2 179 -0.356
79 AF2 180 -1.333
79 AF2 181 -2.309
79 AF2 182 -1.821
79 AF2 183 -1.821
79 AF2 184 -2.797
79 AF2 185 -3.774
79 AF2 186 -4.751
79 AF2 187 -5.239
79 AF2 188 -4.262
79 AF2 189 -2.309
79 AF2 190 -1.333
79 AF2 191 -0.356
79 AF2 192 0.132
79 AF2 193 0.621
79 AF2 194 2.085
79 AF2 195 3.550
79 AF2 196 4.527
79 AF2 197 3.550
79 AF2 198 0.621
79 AF2 199 -3.286
79 AF2 200 -6.215
79 AF2 201 -6.704
79 AF2 202 -5.239
79 AF2 203 -2.309
79 AF2 204 -0.356
79 AF2 205 0.132
79 AF2 206 -0.844
79 AF2 207 -2.309
79 AF2 208 -2.309
79 AF2 209 -1.333
79 AF2 210 0.621
79 AF2 211 0.621
79 AF2 212 -0.844
79 AF2 213 -4.262
79 AF2 214 -7.680
79 AF2 215 -10.610
79 AF2 216 -12.075
79 AF2 217 -12.563
79 AF2 218 -12.075
79 AF2 219 -11.587
79 AF2 220 -10.122
79 AF2 221 -8.169
79 AF2 222 -5.727
79 AF2 223 -2.797
79 AF2 224 -1.333
79 AF2 225 -0.356
79 AF2 226 -1.333
79 AF2 227 -3.286
79 AF2 228 -4.751
79 AF2 229 -6.215
79 AF2 230 -7.192
79 AF2 231 -8.169
79 AF2 232 -8.657
79 AF2 233 -9.633
79 AF2 234 -10.122
79 AF2 235 -10.122
79 AF2 236 -8.657
79 AF2 237 -6.215
79 AF2 238 -3.774
79 AF2 239 -2.309
79 AF2 240 -2.309
79 AF2 241 -2.797
79 AF2 242 -2.797
79 AF2 243 -1.333
79 AF2 244 2.574
79 AF2 245 8.433
79 AF2 246 15.269
79 AF2 247 22.593
79 AF2 248 29.917
79 AF2 249 36.753
79 AF2 250 43.101
79 AF2 251 49.937
79 AF2 252 56.773
79 AF2 253 63.609
79 AF2 254 70.445
79 AF2 255 76.792
# FZ chan 6
79 FZ 0 -26.143
79 FZ 1 -25.655
79 FZ 2 -24.679
79 FZ 3 -23.214
79 FZ 4 -20.772
79 FZ 5 -18.331
79 FZ 6 -16.378
79 FZ 7 -15.889
79 FZ 8 -15.401
79 FZ 9 -15.889
79 FZ 10 -15.889
79 FZ 11 -16.866
79 FZ 12 -17.843
79 FZ 13 -19.307
79 FZ 14 -20.772
79 FZ 15 -21.261
79 FZ 16 -21.749
79 FZ 17 -20.772
79 FZ 18 -18.819
79 FZ 19 -17.354
79 FZ 20 -16.378
79 FZ 21 -15.889
79 FZ 22 -15.401
79 FZ 23 -14.913
79 FZ 24 -14.913
79 FZ 25 -13.936
79 FZ 26 -13.448
79 FZ 27 -13.448
79 FZ 28 -13.936
79 FZ 29 -15.889
79 FZ 30 -17.354
79 FZ 31 -18.819
79 FZ 32 -19.307
79 FZ 33 -19.307
79 FZ 34 -18.819
79 FZ 35 -18.819
79 FZ 36 -19.796
79 FZ 37 -20.284
79 FZ 38 -20.772
79 FZ 39 -19.796
79 FZ 40 -18.331
79 FZ 41 -16.866
79 FZ 42 -14.425
79 FZ 43 -12.960
79 FZ 44 -11.495
79 FZ 45 -11.007
79 FZ 46 -10.518
79 FZ 47 -10.518
79 FZ 48 -10.518
79 FZ 49 -10.030
79 FZ 50 -10.030
79 FZ 51 -10.030
79 FZ 52 -10.518
79 FZ 53 -10.518
79 FZ 54 -11.495
79 FZ 55 -11.983
79 FZ 56 -12.472
79 FZ 57 -12.472
79 FZ 58 -12.960
79 FZ 59 -12.960
79 FZ 60 -12.960
79 FZ 61 -12.960
79 FZ 62 -13.936
79 FZ 63 -15.401
79 FZ 64 -16.866
79 FZ 65 -17.843
79 FZ 66 -17.354
79 FZ 67 -16.866
79 FZ 68 -15.889
79 FZ 69 -15.401
79 FZ 70 -16.378
79 FZ 71 -17.354
79 FZ 72 -18.331
79 FZ 73 -18.819
79 FZ 74 -17.354
79 FZ 75 -15.889
79 FZ 76 -14.425
79 FZ 77 -13.936
79 FZ 78 -14.425
79 FZ 79 -15.401
79 FZ 80 -17.354
79 FZ 81 -19.796
79 FZ 82 -22.237
79 FZ 83 -24.190
79 FZ 84 -25.167
79 FZ 85 -24.679
79 FZ 86 -22.725
79 FZ 87 -20.284
79 FZ 88 -17.843
79 FZ 89 -16.378
79 FZ 90 -14.913
79 FZ 91 -13.936
79 FZ 92 -13.448
79 FZ 93 -13.448
79 FZ 94 -12.960
79 FZ 95 -12.472
79 FZ 96 -12.472
79 FZ 97 -12.472
79 FZ 98 -13.448
79 FZ 99 -14.425
79 FZ 100 -15.889
79 FZ 101 -17.843
79 FZ 102 -18.819
79 FZ 103 -19.796
79 FZ 104 -19.307
79 FZ 105 -18.819
79 FZ 106 -17.354
79 FZ 107 -16.378
79 FZ 108 -15.401
79 FZ 109 -14.425
79 FZ 110 -13.936
79 FZ 111 -14.425
79 FZ 112 -14.913
79 FZ 113 -15.889
79 FZ 114 -16.378
79 FZ 115 -15.889
79 FZ 116 -15.401
79 FZ 117 -14.425
79 FZ 118 -13.936
79 FZ 119 -13.936
79 FZ 120 -13.448
79 FZ 121 -12.472
79 FZ 122 -11.007
79 FZ 123 -10.030
79 FZ 124 -8.565
79 FZ 125 -8.077
79 FZ 126 -7.589
79 FZ 127 -8.077
79 FZ 128 -8.077
79 FZ 129 -7.589
79 FZ 130 -7.100
79 FZ 131 -7.100
79 FZ 132 -7.589
79 FZ 133 -8.077
79 FZ 134 -8.077
79 FZ 135 -7.100
79 FZ 136 -6.124
79 FZ 137 -5.147
79 FZ 138 -4.659
79 FZ 139 -5.147
79 FZ 140 -5.147
79 FZ 141 -5.147
79 FZ 142 -5.147
79 FZ 143 -5.147
79 FZ 144 -5.636
79 FZ 145 -6.612
79 FZ 146 -7.589
79 FZ 147 -8.565
79 FZ 148 -8.077
79 FZ 149 -7.589
79 FZ 150 -7.589
79 FZ 151 -7.589
79 FZ 152 -7.589
79 FZ 153 -7.589
79 FZ 154 -7.100
79 FZ 155 -6.124
79 FZ 156 -4.659
79 FZ 157 -4.171
79 FZ 158 -3.194
79 FZ 159 -3.682
79 FZ 160 -4.659
79 FZ 161 -5.636
79 FZ 162 -6.612
79 FZ 163 -7.589
79 FZ 164 -8.077
79 FZ 165 -8.565
79 FZ 166 -9.054
79 FZ 167 -10.030
79 FZ 168 -10.518
79 FZ 169 -11.007
79 FZ 170 -10.030
79 FZ 171 -9.054
79 FZ 172 -8.077
79 FZ 173 -6.124
79 FZ 174 -4.659
79 FZ 175 -3.194
79 FZ 176 -2.706
79 FZ 177 -2.706
79 FZ 178 -3.682
79 FZ 179 -4.659
79 FZ 180 -5.147
79 FZ 181 -5.147
79 FZ 182 -5.147
79 FZ 183 -4.659
79 FZ 184 -4.659
79 FZ 185 -4.659
79 FZ 186 -5.147
79 FZ 187 -5.147
79 FZ 188 -4.659
79 FZ 189 -3.682
79 FZ 190 -2.706
79 FZ 191 -1.729
79 FZ 192 -0.753
79 FZ 193 0.224
79 FZ 194 0.712
79 FZ 195 1.689
79 FZ 196 1.689
79 FZ 197 1.200
79 FZ 198 -0.753
79 FZ 199 -3.194
79 FZ 200 -5.147
79 FZ 201 -5.636
79 FZ 202 -4.659
79 FZ 203 -3.194
79 FZ 204 -1.729
79 FZ 205 -1.241
79 FZ 206 -1.241
79 FZ 207 -1.241
79 FZ 208 -0.753
79 FZ 209 0.224
79 FZ 210 1.200
79 FZ 211 0.712
79 FZ 212 -0.753
79 FZ 213 -3.682
79 FZ 214 -7.100
79 FZ 215 -9.054
79 FZ 216 -10.030
79 FZ 217 -9.542
79 FZ 218 -9.054
79 FZ 219 -9.054
79 FZ 220 -8.565
79 FZ 221 -8.077
79 FZ 222 -6.612
79 FZ 223 -5.147
79 FZ 224 -4.171
79 FZ 225 -3.682
79 FZ 226 -4.659
79 FZ 227 -6.612
79 FZ 228 -7.100
79 FZ 229 -7.100
79 FZ 230 -6.612
79 FZ 231 -5.636
79 FZ 232 -5.636
79 FZ 233 -6.124
79 FZ 234 -7.100
79 FZ 235 -7.100
79 FZ 236 -7.100
79 FZ 237 -6.612
79 FZ 238 -5.636
79 FZ 239 -5.636
79 FZ 240 -6.124
79 FZ 241 -7.589
79 FZ 242 -9.054
79 FZ 243 -9.542
79 FZ 244 -8.077
79 FZ 245 -5.147
79 FZ 246 -0.753
79 FZ 247 4.130
79 FZ 248 8.525
79 FZ 249 11.454
79 FZ 250 13.407
79 FZ 251 14.384
79 FZ 252 15.849
79 FZ 253 16.825
79 FZ 254 18.778
79 FZ 255 21.220
# F4 chan 7
79 F4 0 -23.122
79 F4 1 -21.657
79 F4 2 -20.192
79 F4 3 -18.728
79 F4 4 -17.263
79 F4 5 -16.286
79 F4 6 -16.286
79 F4 7 -16.286
79 F4 8 -16.774
79 F4 9 -16.286
79 F4 10 -15.310
79 F4 11 -14.821
79 F4 12 -15.310
79 F4 13 -15.798
79 F4 14 -16.286
79 F4 15 -15.798
79 F4 16 -14.333
79 F4 17 -12.868
79 F4 18 -10.427
79 F4 19 -8.962
79 F4 20 -7.497
79 F4 21 -7.009
79 F4 22 -7.009
79 F4 23 -7.497
79 F4 24 -7.985
79 F4 25 -7.985
79 F4 26 -7.497
79 F4 27 -6.521
79 F4 28 -6.032
79 F4 29 -6.521
79 F4 30 -7.985
79 F4 31 -8.962
79 F4 32 -9.450
79 F4 33 -9.939
79 F4 34 -9.450
79 F4 35 -9.450
79 F4 36 -10.915
79 F4 37 -12.380
79 F4 38 -12.868
79 F4 39 -13.357
79 F4 40 -12.380
79 F4 41 -11.403
79 F4 42 -9.939
79 F4 43 -8.962
79 F4 44 -7.985
79 F4 45 -7.009
79 F4 46 -6.032
79 F4 47 -5.056
79 F4 48 -4.567
79 F4 49 -4.079
79 F4 50 -3.591
79 F4 51 -3.103
79 F4 52 -3.103
79 F4 53 -3.103
79 F4 54 -3.591
79 F4 55 -3.591
79 F4 56 -4.079
79 F4 57 -4.567
79 F4 58 -4.567
79 F4 59 -4.567
79 F4 60 -4.567
79 F4 61 -5.544
79 F4 62 -6.521
79 F4 63 -7.497
79 F4 64 -8.474
79 F4 65 -8.962
79 F4 66 -8.962
79 F4 67 -8.474
79 F4 68 -7.985
79 F4 69 -7.985
79 F4 70 -8.474
79 F4 71 -9.450
79 F4 72 -9.939
79 F4 73 -9.939
79 F4 74 -9.939
79 F4 75 -8.962
79 F4 76 -8.474
79 F4 77 -8.474
79 F4 78 -8.474
79 F4 79 -9.450
79 F4 80 -10.427
79 F4 81 -12.380
79 F4 82 -15.310
79 F4 83 -17.263
79 F4 84 -18.728
79 F4 85 -18.728
79 F4 86 -17.263
79 F4 87 -14.333
79 F4 88 -12.380
79 F4 89 -11.403
79 F4 90 -11.403
79 F4 91 -11.403
79 F4 92 -10.915
79 F4 93 -9.450
79 F4 94 -7.985
79 F4 95 -6.521
79 F4 96 -5.544
79 F4 97 -5.544
79 F4 98 -5.544
79 F4 99 -6.032
79 F4 100 -7.009
79 F4 101 -7.985
79 F4 102 -9.450
79 F4 103 -9.939
79 F4 104 -9.939
79 F4 105 -8.474
79 F4 106 -7.009
79 F4 107 -5.544
79 F4 108 -3.591
79 F4 109 -2.614
79 F4 110 -3.103
79 F4 111 -3.591
79 F4 112 -5.056
79 F4 113 -5.544
79 F4 114 -5.544
79 F4 115 -4.567
79 F4 116 -4.079
79 F4 117 -4.079
79 F4 118 -4.079
79 F4 119 -4.567
79 F4 120 -3.591
79 F4 121 -2.614
79 F4 122 -1.149
79 F4 123 -0.173
79 F4 124 0.315
79 F4 125 -0.173
79 F4 126 -0.661
79 F4 127 -0.661
79 F4 128 -0.661
79 F4 129 -0.173
79 F4 130 -0.661
79 F4 131 -1.638
79 F4 132 -2.126
79 F4 133 -3.103
79 F4 134 -2.126
79 F4 135 -1.149
79 F4 136 0.315
79 F4 137 0.804
79 F4 138 0.804
79 F4 139 -0.173
79 F4 140 -0.661
79 F4 141 -0.661
79 F4 142 -1.149
79 F4 143 -1.638
79 F4 144 -3.591
79 F4 145 -5.056
79 F4 146 -6.032
79 F4 147 -5.544
79 F4 148 -4.567
79 F4 149 -2.614
79 F4 150 -1.638
79 F4 151 -1.638
79 F4 152 -1.638
79 F4 153 -1.149
79 F4 154 -0.661
79 F4 155 0.804
79 F4 156 1.780
79 F4 157 1.780
79 F4 158 0.804
79 F4 159 -0.661
79 F4 160 -2.126
79 F4 161 -3.591
79 F4 162 -4.567
79 F4 163 -5.056
79 F4 164 -5.544
79 F4 165 -6.032
79 F4 166 -6.032
79 F4 167 -5.544
79 F4 168 -5.056
79 F4 169 -4.079
79 F4 170 -3.591
79 F4 171 -3.103
79 F4 172 -3.103
79 F4 173 -1.638
79 F4 174 -0.173
79 F4 175 2.268
79 F4 176 3.733
79 F4 177 4.710
79 F4 178 4.222
79 F4 179 3.245
79 F4 180 2.757
79 F4 181 2.268
79 F4 182 2.268
79 F4 183 1.780
79 F4 184 0.804
79 F4 185 -0.173
79 F4 186 -0.661
79 F4 187 0.315
79 F4 188 1.292
79 F4 189 3.245
79 F4 190 3.733
79 F4 191 3.733
79 F4 192 3.245
79 F4 193 2.757
79 F4 194 3.245
79 F4 195 4.222
79 F4 196 5.198
79 F4 197 4.222
79 F4 198 2.268
79 F4 199 0.315
79 F4 200 -0.661
79 F4 201 -0.173
79 F4 202 1.780
79 F4 203 4.222
79 F4 204 4.710
79 F4 205 3.733
79 F4 206 1.292
79 F4 207 -0.173
79 F4 208 -0.661
79 F4 209 0.804
79 F4 210 2.757
79 F4 211 3.245
79 F4 212 1.780
79 F4 213 -1.638
79 F4 214 -5.056
79 F4 215 -7.985
79 F4 216 -9.450
79 F4 217 -9.450
79 F4 218 -8.474
79 F4 219 -7.009
79 F4 220 -4.567
79 F4 221 -1.638
79 F4 222 1.780
79 F4 223 4.222
79 F4 224 5.686
79 F4 225 5.198
79 F4 226 3.245
79 F4 227 1.292
79 F4 228 -0.661
79 F4 229 -1.638
79 F4 230 -1.638
79 F4 231 -1.638
79 F4 232 -2.126
79 F4 233 -2.614
79 F4 234 -3.591
79 F4 235 -3.591
79 F4 236 -2.126
79 F4 237 -0.173
79 F4 238 1.780
79 F4 239 2.268
79 F4 240 1.292
79 F4 241 -1.149
79 F4 242 -2.614
79 F4 243 -2.614
79 F4 244 -0.661
79 F4 245 3.245
79 F4 246 8.128
79 F4 247 13.987
79 F4 248 18.870
79 F4 249 23.753
79 F4 250 28.147
79 F4 251 32.054
79 F4 252 35.960
79 F4 253 40.354
79 F4 254 44.749
79 F4 255 49.143
# F3 chan 8
79 F3 0 -28.585
79 F3 1 -28.585
79 F3 2 -27.608
79 F3 3 -25.655
79 F3 4 -23.214
79 F3 5 -19.307
79 F3 6 -16.378
79 F3 7 -14.425
79 F3 8 -13.448
79 F3 9 -14.425
79 F3 10 -15.401
79 F3 11 -16.866
79 F3 12 -18.819
79 F3 13 -20.772
79 F3 14 -22.725
79 F3 15 -23.214
79 F3 16 -23.702
79 F3 17 -22.725
79 F3 18 -21.261
79 F3 19 -19.796
79 F3 20 -17.843
79 F3 21 -16.378
79 F3 22 -14.913
79 F3 23 -12.960
79 F3 24 -11.495
79 F3 25 -10.030
79 F3 26 -9.542
79 F3 27 -9.542
79 F3 28 -11.007
79 F3 29 -12.472
79 F3 30 -14.913
79 F3 31 -16.378
79 F3 32 -17.354
79 F3 33 -17.843
79 F3 34 -18.331
79 F3 35 -18.331
79 F3 36 -18.819
79 F3 37 -18.331
79 F3 38 -17.843
79 F3 39 -16.378
79 F3 40 -13.448
79 F3 41 -10.518
79 F3 42 -7.589
79 F3 43 -6.124
79 F3 44 -5.147
79 F3 45 -5.636
79 F3 46 -6.612
79 F3 47 -7.100
79 F3 48 -8.077
79 F3 49 -8.077
79 F3 50 -8.565
79 F3 51 -9.542
79 F3 52 -10.518
79 F3 53 -11.495
79 F3 54 -12.472
79 F3 55 -13.448
79 F3 56 -13.936
79 F3 57 -14.425
79 F3 58 -13.936
79 F3 59 -12.472
79 F3 60 -11.007
79 F3 61 -9.542
79 F3 62 -9.542
79 F3 63 -11.007
79 F3 64 -13.936
79 F3 65 -15.889
79 F3 66 -16.866
79 F3 67 -15.889
79 F3 68 -15.401
79 F3 69 -14.913
79 F3 70 -15.889
79 F3 71 -16.866
79 F3 72 -17.843
79 F3 73 -17.354
79 F3 74 -16.378
79 F3 75 -14.913
79 F3 76 -12.960
79 F3 77 -12.472
79 F3 78 -12.960
79 F3 79 -13.936
79 F3 80 -16.866
79 F3 81 -20.284
79 F3 82 -23.702
79 F3 83 -26.143
79 F3 84 -27.120
79 F3 85 -26.143
79 F3 86 -24.190
79 F3 87 -21.749
79 F3 88 -19.307
79 F3 89 -16.866
79 F3 90 -14.425
79 F3 91 -11.983
79 F3 92 -10.518
79 F3 93 -9.542
79 F3 94 -10.030
79 F3 95 -11.495
79 F3 96 -11.983
79 F3 97 -12.960
79 F3 98 -13.448
79 F3 99 -14.425
79 F3 100 -16.378
79 F3 101 -18.331
79 F3 102 -20.284
79 F3 103 -21.261
79 F3 104 -20.772
79 F3 105 -18.819
79 F3 106 -16.866
79 F3 107 -14.913
79 F3 108 -12.472
79 F3 109 -11.007
79 F3 110 -10.030
79 F3 111 -10.518
79 F3 112 -11.495
79 F3 113 -12.472
79 F3 114 -13.448
79 F3 115 -13.936
79 F3 116 -14.913
79 F3 117 -15.401
79 F3 118 -15.889
79 F3 119 -15.889
79 F3 120 -14.913
79 F3 121 -12.960
79 F3 122 -11.007
79 F3 123 -9.054
79 F3 124 -7.100
79 F3 125 -6.124
79 F3 126 -5.147
79 F3 127 -5.147
79 F3 128 -5.147
79 F3 129 -5.636
79 F3 130 -5.636
79 F3 131 -6.124
79 F3 132 -7.100
79 F3 133 -8.077
79 F3 134 -9.054
79 F3 135 -9.054
79 F3 136 -7.589
79 F3 137 -6.124
79 F3 138 -4.659
79 F3 139 -4.171
79 F3 140 -4.171
79 F3 141 -3.194
79 F3 142 -2.218
79 F3 143 -0.264
79 F3 144 1.200
79 F3 145 1.689
79 F3 146 1.200
79 F3 147 -0.264
79 F3 148 -2.706
79 F3 149 -5.147
79 F3 150 -7.100
79 F3 151 -8.077
79 F3 152 -8.565
79 F3 153 -8.077
79 F3 154 -7.100
79 F3 155 -6.124
79 F3 156 -4.171
79 F3 157 -1.729
79 F3 158 0.712
79 F3 159 1.689
79 F3 160 1.200
79 F3 161 -0.264
79 F3 162 -3.194
79 F3 163 -5.147
79 F3 164 -6.124
79 F3 165 -7.100
79 F3 166 -8.565
79 F3 167 -10.030
79 F3 168 -11.495
79 F3 169 -11.007
79 F3 170 -9.542
79 F3 171 -7.100
79 F3 172 -4.659
79 F3 173 -2.706
79 F3 174 -1.241
79 F3 175 0.224
79 F3 176 0.712
79 F3 177 0.712
79 F3 178 -0.264
79 F3 179 -2.218
79 F3 180 -4.171
79 F3 181 -5.147
79 F3 182 -4.659
79 F3 183 -4.171
79 F3 184 -3.194
79 F3 185 -3.682
79 F3 186 -4.171
79 F3 187 -5.147
79 F3 188 -4.171
79 F3 189 -2.218
79 F3 190 0.224
79 F3 191 2.177
79 F3 192 3.642
79 F3 193 4.618
79 F3 194 4.618
79 F3 195 5.595
79 F3 196 5.595
79 F3 197 4.130
79 F3 198 0.712
79 F3 199 -4.171
79 F3 200 -9.542
79 F3 201 -12.472
79 F3 202 -12.472
79 F3 203 -10.030
79 F3 204 -6.124
79 F3 205 -2.706
79 F3 206 0.224
79 F3 207 2.665
79 F3 208 5.595
79 F3 209 7.548
79 F3 210 8.036
79 F3 211 7.060
79 F3 212 3.642
79 F3 213 -1.241
79 F3 214 -5.147
79 F3 215 -7.589
79 F3 216 -8.077
79 F3 217 -7.589
79 F3 218 -7.100
79 F3 219 -7.100
79 F3 220 -7.100
79 F3 221 -6.612
79 F3 222 -4.659
79 F3 223 -2.218
79 F3 224 -0.753
79 F3 225 -0.264
79 F3 226 -1.241
79 F3 227 -3.194
79 F3 228 -5.636
79 F3 229 -8.077
79 F3 230 -9.542
79 F3 231 -11.007
79 F3 232 -11.983
79 F3 233 -12.960
79 F3 234 -13.936
79 F3 235 -13.448
79 F3 236 -12.472
79 F3 237 -10.030
79 F3 238 -7.100
79 F3 239 -4.171
79 F3 240 -3.194
79 F3 241 -3.682
79 F3 242 -6.124
79 F3 243 -8.077
79 F3 244 -8.565
79 F3 245 -7.100
79 F3 246 -4.659
79 F3 247 -1.729
79 F3 248 0.224
79 F3 249 1.689
79 F3 250 2.665
79 F3 251 3.642
79 F3 252 5.107
79 F3 253 6.083
79 F3 254 6.571
79 F3 255 7.060
# FC6 chan 9
79 FC6 0 -12.339
79 FC6 1 -11.363
79 FC6 2 -10.386
79 FC6 3 -9.898
79 FC6 4 -9.410
79 FC6 5 -9.898
79 FC6 6 -11.363
79 FC6 7 -12.339
79 FC6 8 -13.316
79 FC6 9 -12.828
79 FC6 10 -10.874
79 FC6 11 -9.410
79 FC6 12 -7.945
79 FC6 13 -7.456
79 FC6 14 -6.480
79 FC6 15 -4.527
79 FC6 16 -2.574
79 FC6 17 -0.621
79 FC6 18 0.356
79 FC6 19 0.844
79 FC6 20 0.844
79 FC6 21 0.844
79 FC6 22 0.356
79 FC6 23 0.356
79 FC6 24 -0.132
79 FC6 25 -0.621
79 FC6 26 -0.132
79 FC6 27 1.821
79 FC6 28 3.774
79 FC6 29 5.239
79 FC6 30 5.239
79 FC6 31 4.751
79 FC6 32 3.286
79 FC6 33 2.797
79 FC6 34 2.797
79 FC6 35 2.797
79 FC6 36 1.821
79 FC6 37 0.356
79 FC6 38 -2.085
79 FC6 39 -4.038
79 FC6 40 -4.527
79 FC6 41 -3.550
79 FC6 42 -2.085
79 FC6 43 -1.109
79 FC6 44 -0.621
79 FC6 45 -0.621
79 FC6 46 -0.132
79 FC6 47 0.356
79 FC6 48 1.333
79 FC6 49 2.797
79 FC6 50 3.286
79 FC6 51 3.286
79 FC6 52 3.286
79 FC6 53 3.286
79 FC6 54 3.286
79 FC6 55 3.286
79 FC6 56 3.286
79 FC6 57 3.774
79 FC6 58 4.262
79 FC6 59 4.751
79 FC6 60 4.262
79 FC6 61 2.797
79 FC6 62 1.821
79 FC6 63 1.333
79 FC6 64 1.821
79 FC6 65 2.309
79 FC6 66 3.286
79 FC6 67 3.774
79 FC6 68 3.774
79 FC6 69 3.286
79 FC6 70 3.286
79 FC6 71 3.286
79 FC6 72 3.286
79 FC6 73 2.797
79 FC6 74 1.821
79 FC6 75 0.844
79 FC6 76 -0.621
79 FC6 77 -1.597
79 FC6 78 -1.597
79 FC6 79 -1.597
79 FC6 80 -1.597
79 FC6 81 -2.085
79 FC6 82 -3.062
79 FC6 83 -5.015
79 FC6 84 -6.480
79 FC6 85 -6.968
79 FC6 86 -5.992
79 FC6 87 -4.527
79 FC6 88 -3.062
79 FC6 89 -3.062
79 FC6 90 -4.038
79 FC6 91 -5.015
79 FC6 92 -4.527
79 FC6 93 -3.550
79 FC6 94 -2.085
79 FC6 95 -0.132
79 FC6 96 0.844
79 FC6 97 1.333
79 FC6 98 1.333
79 FC6 99 1.333
79 FC6 100 1.333
79 FC6 101 1.333
79 FC6 102 0.844
79 FC6 103 0.356
79 FC6 104 0.844
79 FC6 105 2.309
79 FC6 106 4.262
79 FC6 107 6.215
79 FC6 108 7.680
79 FC6 109 7.680
79 FC6 110 7.192
79 FC6 111 6.215
79 FC6 112 5.727
79 FC6 113 6.215
79 FC6 114 6.704
79 FC6 115 7.192
79 FC6 116 6.704
79 FC6 117 5.727
79 FC6 118 4.751
79 FC6 119 3.774
79 FC6 120 4.262
79 FC6 121 5.239
79 FC6 122 6.215
79 FC6 123 7.192
79 FC6 124 7.680
79 FC6 125 7.192
79 FC6 126 5.727
79 FC6 127 4.262
79 FC6 128 3.286
79 FC6 129 3.286
79 FC6 130 3.286
79 FC6 131 2.797
79 FC6 132 1.821
79 FC6 133 1.333
79 FC6 134 1.333
79 FC6 135 1.821
79 FC6 136 3.286
79 FC6 137 3.774
79 FC6 138 3.286
79 FC6 139 1.821
79 FC6 140 0.356
79 FC6 141 -0.132
79 FC6 142 -0.621
79 FC6 143 -1.109
79 FC6 144 -2.085
79 FC6 145 -3.550
79 FC6 146 -3.062
79 FC6 147 -1.109
79 FC6 148 0.844
79 FC6 149 2.797
79 FC6 150 2.797
79 FC6 151 1.333
79 FC6 152 -0.132
79 FC6 153 0.356
79 FC6 154 1.821
79 FC6 155 3.286
79 FC6 156 4.262
79 FC6 157 3.286
79 FC6 158 2.309
79 FC6 159 1.333
79 FC6 160 0.844
79 FC6 161 -0.132
79 FC6 162 -1.597
79 FC6 163 -3.062
79 FC6 164 -4.038
79 FC6 165 -4.527
79 FC6 166 -4.038
79 FC6 167 -3.062
79 FC6 168 -2.085
79 FC6 169 -1.109
79 FC6 170 -0.621
79 FC6 171 0.356
79 FC6 172 1.821
79 FC6 173 3.286
79 FC6 174 5.239
79 FC6 175 6.704
79 FC6 176 7.680
79 FC6 177 8.169
79 FC6 178 8.169
79 FC6 179 7.192
79 FC6 180 6.215
79 FC6 181 5.239
79 FC6 182 4.262
79 FC6 183 3.774
79 FC6 184 3.286
79 FC6 185 3.286
79 FC6 186 3.774
79 FC6 187 4.262
79 FC6 188 4.751
79 FC6 189 5.727
79 FC6 190 5.727
79 FC6 191 5.239
79 FC6 192 4.751
79 FC6 193 4.262
79 FC6 194 4.262
79 FC6 195 4.262
79 FC6 196 3.774
79 FC6 197 2.309
79 FC6 198 0.356
79 FC6 199 -1.109
79 FC6 200 -0.621
79 FC6 201 1.333
79 FC6 202 4.262
79 FC6 203 6.215
79 FC6 204 6.215
79 FC6 205 3.774
79 FC6 206 0.844
79 FC6 207 -1.597
79 FC6 208 -2.574
79 FC6 209 -2.085
79 FC6 210 -0.621
79 FC6 211 0.844
79 FC6 212 1.333
79 FC6 213 0.356
79 FC6 214 -2.085
79 FC6 215 -5.015
79 FC6 216 -8.433
79 FC6 217 -10.386
79 FC6 218 -10.386
79 FC6 219 -8.433
79 FC6 220 -4.527
79 FC6 221 -0.132
79 FC6 222 3.286
79 FC6 223 5.727
79 FC6 224 7.192
79 FC6 225 7.192
79 FC6 226 7.192
79 FC6 227 6.704
79 FC6 228 5.239
79 FC6 229 2.797
79 FC6 230 -0.621
79 FC6 231 -3.550
79 FC6 232 -5.992
79 FC6 233 -6.968
79 FC6 234 -6.968
79 FC6 235 -5.015
79 FC6 236 -3.062
79 FC6 237 -1.109
79 FC6 238 0.356
79 FC6 239 0.844
79 FC6 240 0.356
79 FC6 241 -1.109
79 FC6 242 -2.085
79 FC6 243 -2.085
79 FC6 244 -1.109
79 FC6 245 0.844
79 FC6 246 3.286
79 FC6 247 4.751
79 FC6 248 7.192
79 FC6 249 9.145
79 FC6 250 12.075
79 FC6 251 16.469
79 FC6 252 21.352
79 FC6 253 26.235
79 FC6 254 31.118
79 FC6 255 35.512
# FC5 chan 10
79 FC5 0 -18.280
79 FC5 1 -19.257
79 FC5 2 -19.745
79 FC5 3 -19.257
79 FC5 4 -17.792
79 FC5 5 -15.839
79 FC5 6 -13.885
79 FC5 7 -12.909
79 FC5 8 -12.909
79 FC5 9 -13.397
79 FC5 10 -13.885
79 FC5 11 -13.885
79 FC5 12 -14.862
79 FC5 13 -15.839
79 FC5 14 -16.327
79 FC5 15 -16.327
79 FC5 16 -14.862
79 FC5 17 -11.932
79 FC5 18 -9.003
79 FC5 19 -7.050
79 FC5 20 -6.561
79 FC5 21 -7.538
79 FC5 22 -8.514
79 FC5 23 -8.514
79 FC5 24 -7.538
79 FC5 25 -6.561
79 FC5 26 -6.073
79 FC5 27 -6.561
79 FC5 28 -7.050
79 FC5 29 -7.538
79 FC5 30 -7.050
79 FC5 31 -6.073
79 FC5 32 -5.585
79 FC5 33 -6.073
79 FC5 34 -7.050
79 FC5 35 -9.003
79 FC5 36 -9.979
79 FC5 37 -10.468
79 FC5 38 -9.979
79 FC5 39 -8.514
79 FC5 40 -7.538
79 FC5 41 -6.561
79 FC5 42 -6.073
79 FC5 43 -6.073
79 FC5 44 -6.073
79 FC5 45 -6.561
79 FC5 46 -7.538
79 FC5 47 -7.538
79 FC5 48 -8.026
79 FC5 49 -8.026
79 FC5 50 -7.538
79 FC5 51 -8.026
79 FC5 52 -8.026
79 FC5 53 -8.514
79 FC5 54 -9.003
79 FC5 55 -9.979
79 FC5 56 -10.956
79 FC5 57 -12.421
79 FC5 58 -12.909
79 FC5 59 -11.444
79 FC5 60 -9.003
79 FC5 61 -7.050
79 FC5 62 -5.585
79 FC5 63 -6.073
79 FC5 64 -7.050
79 FC5 65 -8.514
79 FC5 66 -9.003
79 FC5 67 -9.491
79 FC5 68 -9.979
79 FC5 69 -11.444
79 FC5 70 -12.909
79 FC5 71 -14.374
79 FC5 72 -15.350
79 FC5 73 -15.839
79 FC5 74 -16.327
79 FC5 75 -16.327
79 FC5 76 -15.839
79 FC5 77 -15.350
79 FC5 78 -14.374
79 FC5 79 -13.885
79 FC5 80 -14.374
79 FC5 81 -15.839
79 FC5 82 -16.815
79 FC5 83 -17.792
79 FC5 84 -17.792
79 FC5 85 -16.815
79 FC5 86 -16.327
79 FC5 87 -16.327
79 FC5 88 -16.327
79 FC5 89 -15.839
79 FC5 90 -14.862
79 FC5 91 -12.909
79 FC5 92 -10.956
79 FC5 93 -9.979
79 FC5 94 -10.468
79 FC5 95 -11.444
79 FC5 96 -12.909
79 FC5 97 -12.909
79 FC5 98 -11.932
79 FC5 99 -10.956
79 FC5 100 -11.932
79 FC5 101 -13.885
79 FC5 102 -16.815
79 FC5 103 -17.792
79 FC5 104 -17.792
79 FC5 105 -15.839
79 FC5 106 -12.909
79 FC5 107 -9.979
79 FC5 108 -8.514
79 FC5 109 -7.538
79 FC5 110 -7.050
79 FC5 111 -6.561
79 FC5 112 -6.561
79 FC5 113 -6.073
79 FC5 114 -6.073
79 FC5 115 -6.561
79 FC5 116 -8.514
79 FC5 117 -10.468
79 FC5 118 -11.932
79 FC5 119 -11.932
79 FC5 120 -11.932
79 FC5 121 -10.956
79 FC5 122 -10.956
79 FC5 123 -10.468
79 FC5 124 -9.491
79 FC5 125 -8.026
79 FC5 126 -7.050
79 FC5 127 -7.050
79 FC5 128 -7.538
79 FC5 129 -9.003
79 FC5 130 -10.468
79 FC5 131 -10.956
79 FC5 132 -10.956
79 FC5 133 -11.444
79 FC5 134 -12.421
79 FC5 135 -13.885
79 FC5 136 -14.862
79 FC5 137 -15.350
79 FC5 138 -14.862
79 FC5 139 -13.885
79 FC5 140 -13.397
79 FC5 141 -11.932
79 FC5 142 -9.979
79 FC5 143 -7.538
79 FC5 144 -4.608
79 FC5 145 -2.655
79 FC5 146 -1.190
79 FC5 147 -2.167
79 FC5 148 -4.120
79 FC5 149 -6.561
79 FC5 150 -9.003
79 FC5 151 -10.468
79 FC5 152 -12.421
79 FC5 153 -13.397
79 FC5 154 -13.885
79 FC5 155 -13.885
79 FC5 156 -11.932
79 FC5 157 -9.491
79 FC5 158 -6.561
79 FC5 159 -4.608
79 FC5 160 -4.120
79 FC5 161 -5.585
79 FC5 162 -7.538
79 FC5 163 -9.003
79 FC5 164 -9.979
79 FC5 165 -10.956
79 FC5 166 -12.421
79 FC5 167 -13.885
79 FC5 168 -15.350
79 FC5 169 -14.862
79 FC5 170 -12.909
79 FC5 171 -9.979
79 FC5 172 -6.561
79 FC5 173 -4.120
79 FC5 174 -2.655
79 FC5 175 -2.167
79 FC5 176 -2.167
79 FC5 177 -2.167
79 FC5 178 -3.143
79 FC5 179 -5.096
79 FC5 180 -7.050
79 FC5 181 -8.026
79 FC5 182 -7.538
79 FC5 183 -6.073
79 FC5 184 -5.096
79 FC5 185 -5.096
79 FC5 186 -6.561
79 FC5 187 -8.514
79 FC5 188 -8.514
79 FC5 189 -7.050
79 FC5 190 -5.585
79 FC5 191 -4.120
79 FC5 192 -4.120
79 FC5 193 -4.608
79 FC5 194 -4.120
79 FC5 195 -2.655
79 FC5 196 -0.702
79 FC5 197 -0.702
79 FC5 198 -3.143
79 FC5 199 -8.026
79 FC5 200 -13.397
79 FC5 201 -16.327
79 FC5 202 -16.815
79 FC5 203 -14.862
79 FC5 204 -11.932
79 FC5 205 -9.003
79 FC5 206 -6.073
79 FC5 207 -3.143
79 FC5 208 0.275
79 FC5 209 3.204
79 FC5 210 4.669
79 FC5 211 2.716
79 FC5 212 -1.190
79 FC5 213 -5.096
79 FC5 214 -8.026
79 FC5 215 -8.514
79 FC5 216 -7.050
79 FC5 217 -6.073
79 FC5 218 -5.585
79 FC5 219 -6.561
79 FC5 220 -7.050
79 FC5 221 -7.538
79 FC5 222 -6.561
79 FC5 223 -5.096
79 FC5 224 -3.632
79 FC5 225 -2.655
79 FC5 226 -3.143
79 FC5 227 -5.096
79 FC5 228 -8.026
79 FC5 229 -11.932
79 FC5 230 -14.862
79 FC5 231 -16.815
79 FC5 232 -17.792
79 FC5 233 -18.280
79 FC5 234 -18.768
79 FC5 235 -19.745
79 FC5 236 -19.745
79 FC5 237 -17.303
79 FC5 238 -13.885
79 FC5 239 -10.468
79 FC5 240 -8.514
79 FC5 241 -9.491
79 FC5 242 -12.421
79 FC5 243 -15.839
79 FC5 244 -18.768
79 FC5 245 -19.745
79 FC5 246 -20.233
79 FC5 247 -20.233
79 FC5 248 -20.233
79 FC5 249 -20.233
79 FC5 250 -19.745
79 FC5 251 -19.745
79 FC5 252 -19.745
79 FC5 253 -20.233
79 FC5 254 -21.698
79 FC5 255 -23.651
# FC2 chan 11
79 FC2 0 -11.546
79 FC2 1 -11.058
79 FC2 2 -10.081
79 FC2 3 -9.104
79 FC2 4 -8.616
79 FC2 5 -8.128
79 FC2 6 -7.640
79 FC2 7 -8.128
79 FC2 8 -8.128
79 FC2 9 -8.128
79 FC2 10 -8.128
79 FC2 11 -7.151
79 FC2 12 -7.151
79 FC2 13 -7.151
79 FC2 14 -7.151
79 FC2 15 -7.151
79 FC2 16 -7.151
79 FC2 17 -6.663
79 FC2 18 -6.175
79 FC2 19 -5.198
79 FC2 20 -5.198
79 FC2 21 -4.710
79 FC2 22 -4.710
79 FC2 23 -4.222
79 FC2 24 -4.222
79 FC2 25 -4.222
79 FC2 26 -4.222
79 FC2 27 -3.733
79 FC2 28 -4.222
79 FC2 29 -4.222
79 FC2 30 -5.198
79 FC2 31 -5.686
79 FC2 32 -6.175
79 FC2 33 -6.175
79 FC2 34 -5.686
79 FC2 35 -5.686
79 FC2 36 -6.175
79 FC2 37 -7.151
79 FC2 38 -7.640
79 FC2 39 -8.128
79 FC2 40 -8.128
79 FC2 41 -7.151
79 FC2 42 -5.686
79 FC2 43 -4.710
79 FC2 44 -4.710
79 FC2 45 -4.222
79 FC2 46 -3.733
79 FC2 47 -3.733
79 FC2 48 -3.245
79 FC2 49 -2.268
79 FC2 50 -2.268
79 FC2 51 -1.780
79 FC2 52 -1.780
79 FC2 53 -2.268
79 FC2 54 -2.268
79 FC2 55 -2.268
79 FC2 56 -1.780
79 FC2 57 -1.780
79 FC2 58 -2.268
79 FC2 59 -2.757
79 FC2 60 -3.245
79 FC2 61 -3.733
79 FC2 62 -4.222
79 FC2 63 -5.198
79 FC2 64 -5.198
79 FC2 65 -5.198
79 FC2 66 -4.710
79 FC2 67 -3.733
79 FC2 68 -3.733
79 FC2 69 -3.245
79 FC2 70 -3.733
79 FC2 71 -4.710
79 FC2 72 -5.198
79 FC2 73 -5.686
79 FC2 74 -5.198
79 FC2 75 -4.222
79 FC2 76 -3.733
79 FC2 77 -3.733
79 FC2 78 -4.222
79 FC2 79 -4.710
79 FC2 80 -5.686
79 FC2 81 -6.175
79 FC2 82 -7.151
79 FC2 83 -7.640
79 FC2 84 -8.616
79 FC2 85 -8.128
79 FC2 86 -7.640
79 FC2 87 -6.175
79 FC2 88 -4.710
79 FC2 89 -4.222
79 FC2 90 -4.710
79 FC2 91 -4.710
79 FC2 92 -4.222
79 FC2 93 -3.733
79 FC2 94 -2.268
79 FC2 95 -1.780
79 FC2 96 -1.292
79 FC2 97 -1.780
79 FC2 98 -2.268
79 FC2 99 -2.757
79 FC2 100 -3.245
79 FC2 101 -4.222
79 FC2 102 -4.710
79 FC2 103 -5.198
79 FC2 104 -5.198
79 FC2 105 -4.710
79 FC2 106 -4.222
79 FC2 107 -3.245
79 FC2 108 -2.268
79 FC2 109 -1.780
79 FC2 110 -1.780
79 FC2 111 -1.780
79 FC2 112 -2.268
79 FC2 113 -2.757
79 FC2 114 -2.757
79 FC2 115 -2.268
79 FC2 116 -1.780
79 FC2 117 -1.780
79 FC2 118 -1.292
79 FC2 119 -1.780
79 FC2 120 -1.292
79 FC2 121 -0.315
79 FC2 122 0.173
79 FC2 123 0.661
79 FC2 124 0.661
79 FC2 125 0.173
79 FC2 126 -0.315
79 FC2 127 -0.315
79 FC2 128 0.173
79 FC2 129 0.661
79 FC2 130 0.661
79 FC2 131 0.661
79 FC2 132 0.173
79 FC2 133 0.173
79 FC2 134 0.173
79 FC2 135 0.661
79 FC2 136 1.638
79 FC2 137 1.638
79 FC2 138 1.149
79 FC2 139 0.661
79 FC2 140 0.173
79 FC2 141 0.173
79 FC2 142 0.173
79 FC2 143 -0.315
79 FC2 144 -0.804
79 FC2 145 -1.780
79 FC2 146 -2.268
79 FC2 147 -1.780
79 FC2 148 -0.804
79 FC2 149 0.173
79 FC2 150 0.661
79 FC2 151 0.661
79 FC2 152 0.661
79 FC2 153 0.661
79 FC2 154 1.149
79 FC2 155 1.638
79 FC2 156 2.126
79 FC2 157 2.126
79 FC2 158 1.638
79 FC2 159 1.149
79 FC2 160 0.173
79 FC2 161 -0.804
79 FC2 162 -1.780
79 FC2 163 -2.268
79 FC2 164 -2.268
79 FC2 165 -2.268
79 FC2 166 -2.757
79 FC2 167 -2.757
79 FC2 168 -2.757
79 FC2 169 -2.757
79 FC2 170 -2.757
79 FC2 171 -2.268
79 FC2 172 -1.780
79 FC2 173 -0.804
79 FC2 174 0.173
79 FC2 175 1.149
79 FC2 176 2.126
79 FC2 177 2.126
79 FC2 178 2.126
79 FC2 179 1.638
79 FC2 180 1.149
79 FC2 181 1.638
79 FC2 182 1.638
79 FC2 183 1.638
79 FC2 184 1.638
79 FC2 185 1.149
79 FC2 186 1.149
79 FC2 187 1.149
79 FC2 188 1.149
79 FC2 189 1.638
79 FC2 190 1.638
79 FC2 191 1.638
79 FC2 192 1.149
79 FC2 193 1.149
79 FC2 194 1.149
79 FC2 195 1.638
79 FC2 196 2.126
79 FC2 197 1.638
79 FC2 198 1.149
79 FC2 199 0.173
79 FC2 200 0.173
79 FC2 201 1.149
79 FC2 202 2.126
79 FC2 203 2.614
79 FC2 204 2.614
79 FC2 205 1.638
79 FC2 206 0.173
79 FC2 207 -0.804
79 FC2 208 -1.292
79 FC2 209 -0.804
79 FC2 210 0.173
79 FC2 211 0.661
79 FC2 212 0.173
79 FC2 213 -0.804
79 FC2 214 -2.268
79 FC2 215 -3.733
79 FC2 216 -4.710
79 FC2 217 -5.198
79 FC2 218 -5.198
79 FC2 219 -4.222
79 FC2 220 -2.268
79 FC2 221 0.173
79 FC2 222 2.126
79 FC2 223 3.591
79 FC2 224 3.591
79 FC2 225 3.103
79 FC2 226 1.638
79 FC2 227 0.661
79 FC2 228 0.173
79 FC2 229 -0.315
79 FC2 230 -0.315
79 FC2 231 -0.315
79 FC2 232 -0.315
79 FC2 233 -0.315
79 FC2 234 -0.315
79 FC2 235 0.173
79 FC2 236 1.149
79 FC2 237 1.638
79 FC2 238 1.638
79 FC2 239 1.149
79 FC2 240 -0.315
79 FC2 241 -2.268
79 FC2 242 -3.733
79 FC2 243 -4.710
79 FC2 244 -4.222
79 FC2 245 -1.780
79 FC2 246 0.661
79 FC2 247 3.103
79 FC2 248 5.056
79 FC2 249 7.009
79 FC2 250 7.985
79 FC2 251 8.962
79 FC2 252 10.427
79 FC2 253 11.892
79 FC2 254 13.845
79 FC2 255 15.798
# FC1 chan 12
79 FC1 0 -15.483
79 FC1 1 -15.483
79 FC1 2 -15.971
79 FC1 3 -14.994
79 FC1 4 -14.018
79 FC1 5 -12.553
79 FC1 6 -11.088
79 FC1 7 -10.111
79 FC1 8 -9.623
79 FC1 9 -10.111
79 FC1 10 -10.600
79 FC1 11 -11.576
79 FC1 12 -13.041
79 FC1 13 -14.018
79 FC1 14 -14.994
79 FC1 15 -15.483
79 FC1 16 -15.483
79 FC1 17 -14.994
79 FC1 18 -14.018
79 FC1 19 -12.553
79 FC1 20 -11.576
79 FC1 21 -11.088
79 FC1 22 -10.600
79 FC1 23 -10.111
79 FC1 24 -9.135
79 FC1 25 -8.647
79 FC1 26 -7.182
79 FC1 27 -7.182
79 FC1 28 -7.670
79 FC1 29 -8.647
79 FC1 30 -10.111
79 FC1 31 -11.088
79 FC1 32 -11.576
79 FC1 33 -12.065
79 FC1 34 -12.553
79 FC1 35 -13.041
79 FC1 36 -13.041
79 FC1 37 -13.041
79 FC1 38 -12.553
79 FC1 39 -11.576
79 FC1 40 -10.111
79 FC1 41 -8.647
79 FC1 42 -7.182
79 FC1 43 -6.205
79 FC1 44 -5.717
79 FC1 45 -5.717
79 FC1 46 -6.694
79 FC1 47 -7.182
79 FC1 48 -7.182
79 FC1 49 -7.670
79 FC1 50 -7.182
79 FC1 51 -7.182
79 FC1 52 -7.670
79 FC1 53 -8.158
79 FC1 54 -9.135
79 FC1 55 -10.600
79 FC1 56 -11.576
79 FC1 57 -12.553
79 FC1 58 -13.041
79 FC1 59 -12.553
79 FC1 60 -11.576
79 FC1 61 -10.600
79 FC1 62 -10.111
79 FC1 63 -10.600
79 FC1 64 -11.088
79 FC1 65 -12.065
79 FC1 66 -12.065
79 FC1 67 -11.576
79 FC1 68 -11.576
79 FC1 69 -11.088
79 FC1 70 -11.576
79 FC1 71 -12.553
79 FC1 72 -13.529
79 FC1 73 -13.529
79 FC1 74 -12.553
79 FC1 75 -11.576
79 FC1 76 -10.600
79 FC1 77 -10.111
79 FC1 78 -10.111
79 FC1 79 -10.600
79 FC1 80 -11.576
79 FC1 81 -13.041
79 FC1 82 -14.506
79 FC1 83 -15.971
79 FC1 84 -16.459
79 FC1 85 -15.483
79 FC1 86 -14.506
79 FC1 87 -13.529
79 FC1 88 -12.065
79 FC1 89 -11.088
79 FC1 90 -10.111
79 FC1 91 -8.647
79 FC1 92 -7.670
79 FC1 93 -7.670
79 FC1 94 -8.158
79 FC1 95 -9.135
79 FC1 96 -9.623
79 FC1 97 -10.600
79 FC1 98 -10.600
79 FC1 99 -11.088
79 FC1 100 -12.065
79 FC1 101 -13.529
79 FC1 102 -14.506
79 FC1 103 -14.994
79 FC1 104 -14.506
79 FC1 105 -13.529
79 FC1 106 -13.041
79 FC1 107 -12.065
79 FC1 108 -11.576
79 FC1 109 -11.088
79 FC1 110 -10.600
79 FC1 111 -10.111
79 FC1 112 -10.111
79 FC1 113 -10.111
79 FC1 114 -10.111
79 FC1 115 -10.600
79 FC1 116 -10.111
79 FC1 117 -10.111
79 FC1 118 -10.111
79 FC1 119 -10.111
79 FC1 120 -10.111
79 FC1 121 -10.111
79 FC1 122 -9.623
79 FC1 123 -8.647
79 FC1 124 -7.670
79 FC1 125 -6.694
79 FC1 126 -6.205
79 FC1 127 -5.717
79 FC1 128 -5.717
79 FC1 129 -5.717
79 FC1 130 -5.717
79 FC1 131 -5.717
79 FC1 132 -6.205
79 FC1 133 -6.694
79 FC1 134 -7.182
79 FC1 135 -7.182
79 FC1 136 -6.694
79 FC1 137 -5.717
79 FC1 138 -4.740
79 FC1 139 -3.764
79 FC1 140 -3.276
79 FC1 141 -2.787
79 FC1 142 -2.299
79 FC1 143 -1.811
79 FC1 144 -1.322
79 FC1 145 -1.322
79 FC1 146 -1.322
79 FC1 147 -1.811
79 FC1 148 -2.787
79 FC1 149 -3.764
79 FC1 150 -4.740
79 FC1 151 -5.229
79 FC1 152 -6.205
79 FC1 153 -6.205
79 FC1 154 -5.717
79 FC1 155 -4.740
79 FC1 156 -3.764
79 FC1 157 -2.299
79 FC1 158 -1.322
79 FC1 159 -0.834
79 FC1 160 -0.834
79 FC1 161 -1.811
79 FC1 162 -3.276
79 FC1 163 -4.252
79 FC1 164 -4.740
79 FC1 165 -5.229
79 FC1 166 -5.717
79 FC1 167 -6.694
79 FC1 168 -7.670
79 FC1 169 -8.158
79 FC1 170 -7.670
79 FC1 171 -6.694
79 FC1 172 -5.229
79 FC1 173 -3.276
79 FC1 174 -2.299
79 FC1 175 -1.811
79 FC1 176 -1.322
79 FC1 177 -1.322
79 FC1 178 -1.811
79 FC1 179 -2.787
79 FC1 180 -3.764
79 FC1 181 -3.764
79 FC1 182 -3.276
79 FC1 183 -2.787
79 FC1 184 -1.811
79 FC1 185 -1.811
79 FC1 186 -2.787
79 FC1 187 -3.764
79 FC1 188 -4.252
79 FC1 189 -3.764
79 FC1 190 -2.787
79 FC1 191 -1.322
79 FC1 192 0.142
79 FC1 193 1.119
79 FC1 194 1.607
79 FC1 195 2.584
79 FC1 196 3.072
79 FC1 197 2.096
79 FC1 198 0.142
79 FC1 199 -1.811
79 FC1 200 -4.740
79 FC1 201 -6.205
79 FC1 202 -6.205
79 FC1 203 -5.229
79 FC1 204 -3.764
79 FC1 205 -2.299
79 FC1 206 -0.834
79 FC1 207 1.119
79 FC1 208 2.584
79 FC1 209 3.560
79 FC1 210 4.049
79 FC1 211 3.072
79 FC1 212 1.119
79 FC1 213 -1.322
79 FC1 214 -3.276
79 FC1 215 -4.252
79 FC1 216 -4.252
79 FC1 217 -3.764
79 FC1 218 -3.276
79 FC1 219 -4.252
79 FC1 220 -5.229
79 FC1 221 -6.205
79 FC1 222 -6.205
79 FC1 223 -5.229
79 FC1 224 -3.764
79 FC1 225 -2.787
79 FC1 226 -2.787
79 FC1 227 -3.276
79 FC1 228 -4.740
79 FC1 229 -5.717
79 FC1 230 -6.205
79 FC1 231 -6.694
79 FC1 232 -6.694
79 FC1 233 -7.182
79 FC1 234 -7.182
79 FC1 235 -7.670
79 FC1 236 -7.182
79 FC1 237 -6.205
79 FC1 238 -4.740
79 FC1 239 -3.764
79 FC1 240 -3.276
79 FC1 241 -3.764
79 FC1 242 -4.740
79 FC1 243 -5.717
79 FC1 244 -6.205
79 FC1 245 -5.717
79 FC1 246 -4.740
79 FC1 247 -2.787
79 FC1 248 -1.322
79 FC1 249 0.142
79 FC1 250 1.119
79 FC1 251 0.631
79 FC1 252 0.142
79 FC1 253 -0.834
79 FC1 254 -1.322
79 FC1 255 -1.811
# T8 chan 13
79 T8 0 -7.538
79 T8 1 -8.026
79 T8 2 -9.491
79 T8 3 -11.444
79 T8 4 -11.932
79 T8 5 -11.444
79 T8 6 -10.956
79 T8 7 -10.468
79 T8 8 -10.468
79 T8 9 -10.468
79 T8 10 -10.468
79 T8 11 -9.491
79 T8 12 -7.050
79 T8 13 -4.120
79 T8 14 -2.167
79 T8 15 -0.214
79 T8 16 0.763
79 T8 17 1.251
79 T8 18 2.228
79 T8 19 3.204
79 T8 20 4.181
79 T8 21 5.157
79 T8 22 4.669
79 T8 23 3.693
79 T8 24 2.716
79 T8 25 2.228
79 T8 26 3.204
79 T8 27 5.646
79 T8 28 9.552
79 T8 29 12.970
79 T8 30 14.923
79 T8 31 14.435
79 T8 32 12.970
79 T8 33 11.017
79 T8 34 9.552
79 T8 35 8.087
79 T8 36 5.646
79 T8 37 2.228
79 T8 38 -0.702
79 T8 39 -1.190
79 T8 40 -0.214
79 T8 41 1.740
79 T8 42 1.740
79 T8 43 0.275
79 T8 44 -1.678
79 T8 45 -1.190
79 T8 46 1.740
79 T8 47 5.646
79 T8 48 8.575
79 T8 49 8.575
79 T8 50 5.157
79 T8 51 0.275
79 T8 52 -3.143
79 T8 53 -3.632
79 T8 54 -1.678
79 T8 55 2.716
79 T8 56 6.622
79 T8 57 9.552
79 T8 58 10.040
79 T8 59 9.552
79 T8 60 9.064
79 T8 61 9.552
79 T8 62 10.529
79 T8 63 11.993
79 T8 64 12.482
79 T8 65 10.529
79 T8 66 8.087
79 T8 67 6.134
79 T8 68 6.622
79 T8 69 9.064
79 T8 70 11.017
79 T8 71 11.505
79 T8 72 9.552
79 T8 73 6.622
79 T8 74 4.181
79 T8 75 3.693
79 T8 76 4.181
79 T8 77 4.669
79 T8 78 4.181
79 T8 79 2.716
79 T8 80 1.251
79 T8 81 0.763
79 T8 82 1.251
79 T8 83 1.251
79 T8 84 1.251
79 T8 85 1.251
79 T8 86 0.275
79 T8 87 0.275
79 T8 88 0.275
79 T8 89 0.275
79 T8 90 0.275
79 T8 91 -1.678
79 T8 92 -3.632
79 T8 93 -5.585
79 T8 94 -6.073
79 T8 95 -4.608
79 T8 96 -1.190
79 T8 97 2.228
79 T8 98 5.157
79 T8 99 6.622
79 T8 100 6.134
79 T8 101 6.134
79 T8 102 6.134
79 T8 103 6.622
79 T8 104 8.087
79 T8 105 9.064
79 T8 106 9.552
79 T8 107 10.529
79 T8 108 11.993
79 T8 109 13.458
79 T8 110 14.435
79 T8 111 13.947
79 T8 112 12.970
79 T8 113 11.993
79 T8 114 12.482
79 T8 115 13.458
79 T8 116 14.435
79 T8 117 13.458
79 T8 118 10.529
79 T8 119 7.599
79 T8 120 6.134
79 T8 121 7.599
79 T8 122 10.529
79 T8 123 12.970
79 T8 124 13.947
79 T8 125 12.970
79 T8 126 10.529
79 T8 127 9.064
79 T8 128 8.087
79 T8 129 8.575
79 T8 130 8.575
79 T8 131 7.599
79 T8 132 4.181
79 T8 133 0.275
79 T8 134 -2.655
79 T8 135 -3.143
79 T8 136 -1.678
79 T8 137 0.275
79 T8 138 1.740
79 T8 139 0.763
79 T8 140 -2.167
79 T8 141 -4.608
79 T8 142 -5.585
79 T8 143 -3.632
79 T8 144 -1.678
79 T8 145 -0.702
79 T8 146 -1.678
79 T8 147 -3.632
79 T8 148 -4.608
79 T8 149 -2.655
79 T8 150 0.275
79 T8 151 1.740
79 T8 152 2.228
79 T8 153 0.275
79 T8 154 -2.167
79 T8 155 -2.655
79 T8 156 -2.167
79 T8 157 -0.702
79 T8 158 -0.214
79 T8 159 -1.678
79 T8 160 -3.632
79 T8 161 -5.096
79 T8 162 -5.585
79 T8 163 -4.120
79 T8 164 -3.143
79 T8 165 -3.632
79 T8 166 -4.608
79 T8 167 -5.585
79 T8 168 -4.608
79 T8 169 -1.190
79 T8 170 2.716
79 T8 171 5.157
79 T8 172 5.646
79 T8 173 4.669
79 T8 174 3.693
79 T8 175 4.669
79 T8 176 6.622
79 T8 177 8.087
79 T8 178 7.599
79 T8 179 5.646
79 T8 180 3.204
79 T8 181 1.740
79 T8 182 2.228
79 T8 183 3.693
79 T8 184 4.669
79 T8 185 4.669
79 T8 186 4.181
79 T8 187 3.693
79 T8 188 4.181
79 T8 189 5.157
79 T8 190 5.646
79 T8 191 5.646
79 T8 192 5.157
79 T8 193 4.181
79 T8 194 3.204
79 T8 195 2.716
79 T8 196 2.228
79 T8 197 1.251
79 T8 198 -0.702
79 T8 199 -3.143
79 T8 200 -5.096
79 T8 201 -4.608
79 T8 202 -2.167
79 T8 203 1.740
79 T8 204 3.693
79 T8 205 3.204
79 T8 206 -0.214
79 T8 207 -4.120
79 T8 208 -5.096
79 T8 209 -3.632
79 T8 210 0.275
79 T8 211 2.228
79 T8 212 1.251
79 T8 213 -3.143
79 T8 214 -9.003
79 T8 215 -13.885
79 T8 216 -15.839
79 T8 217 -15.350
79 T8 218 -13.885
79 T8 219 -11.444
79 T8 220 -7.538
79 T8 221 -3.143
79 T8 222 2.228
79 T8 223 5.646
79 T8 224 6.622
79 T8 225 5.646
79 T8 226 4.669
79 T8 227 4.181
79 T8 228 3.693
79 T8 229 2.228
79 T8 230 -1.678
79 T8 231 -7.050
79 T8 232 -12.909
79 T8 233 -16.815
79 T8 234 -17.303
79 T8 235 -14.862
79 T8 236 -10.468
79 T8 237 -6.073
79 T8 238 -2.655
79 T8 239 -1.190
79 T8 240 -0.702
79 T8 241 -2.167
79 T8 242 -3.143
79 T8 243 -5.096
79 T8 244 -6.073
79 T8 245 -6.561
79 T8 246 -6.561
79 T8 247 -6.561
79 T8 248 -7.050
79 T8 249 -6.561
79 T8 250 -5.585
79 T8 251 -3.632
79 T8 252 -0.214
79 T8 253 3.693
79 T8 254 8.087
79 T8 255 11.993
# T7 chan 14
79 T7 0 -20.447
79 T7 1 -17.517
79 T7 2 -16.052
79 T7 3 -14.587
79 T7 4 -12.634
79 T7 5 -9.216
79 T7 6 -5.798
79 T7 7 -4.822
79 T7 8 -7.263
79 T7 9 -14.099
79 T7 10 -21.423
79 T7 11 -26.794
79 T7 12 -27.283
79 T7 13 -23.376
79 T7 14 -16.052
79 T7 15 -8.240
79 T7 16 -2.380
79 T7 17 0.549
79 T7 18 0.549
79 T7 19 -1.892
79 T7 20 -3.845
79 T7 21 -4.333
79 T7 22 -3.845
79 T7 23 -3.845
79 T7 24 -6.287
79 T7 25 -10.681
79 T7 26 -14.099
79 T7 27 -13.611
79 T7 28 -7.751
79 T7 29 0.549
79 T7 30 5.920
79 T7 31 5.432
79 T7 32 0.549
79 T7 33 -4.822
79 T7 34 -6.287
79 T7 35 -2.869
79 T7 36 1.038
79 T7 37 0.549
79 T7 38 -5.310
79 T7 39 -13.611
79 T7 40 -19.470
79 T7 41 -18.494
79 T7 42 -11.169
79 T7 43 -1.892
79 T7 44 5.432
79 T7 45 6.897
79 T7 46 1.526
79 T7 47 -8.240
79 T7 48 -17.029
79 T7 49 -20.935
79 T7 50 -17.517
79 T7 51 -9.216
79 T7 52 0.061
79 T7 53 2.991
79 T7 54 -1.892
79 T7 55 -12.146
79 T7 56 -20.447
79 T7 57 -20.935
79 T7 58 -12.146
79 T7 59 1.038
79 T7 60 9.338
79 T7 61 7.385
79 T7 62 -1.892
79 T7 63 -11.169
79 T7 64 -12.146
79 T7 65 -4.822
79 T7 66 5.432
79 T7 67 9.338
79 T7 68 4.456
79 T7 69 -7.263
79 T7 70 -17.517
79 T7 71 -21.912
79 T7 72 -20.935
79 T7 73 -18.494
79 T7 74 -18.494
79 T7 75 -20.447
79 T7 76 -19.958
79 T7 77 -15.564
79 T7 78 -8.240
79 T7 79 -2.380
79 T7 80 -1.892
79 T7 81 -5.310
79 T7 82 -8.728
79 T7 83 -9.216
79 T7 84 -6.775
79 T7 85 -6.775
79 T7 86 -11.658
79 T7 87 -19.958
79 T7 88 -26.306
79 T7 89 -24.353
79 T7 90 -14.099
79 T7 91 -2.869
79 T7 92 2.014
79 T7 93 -4.333
79 T7 94 -15.564
79 T7 95 -22.400
79 T7 96 -17.517
79 T7 97 -2.380
79 T7 98 11.292
79 T7 99 15.198
79 T7 100 5.432
79 T7 101 -10.681
79 T7 102 -22.400
79 T7 103 -23.865
79 T7 104 -17.517
79 T7 105 -9.705
79 T7 106 -6.287
79 T7 107 -6.775
79 T7 108 -8.728
79 T7 109 -6.775
79 T7 110 -2.380
79 T7 111 2.502
79 T7 112 4.456
79 T7 113 2.991
79 T7 114 -1.404
79 T7 115 -4.822
79 T7 116 -8.240
79 T7 117 -10.193
79 T7 118 -12.146
79 T7 119 -13.123
79 T7 120 -12.634
79 T7 121 -10.193
79 T7 122 -7.263
79 T7 123 -4.333
79 T7 124 -3.357
79 T7 125 -4.333
79 T7 126 -7.263
79 T7 127 -11.169
79 T7 128 -14.587
79 T7 129 -17.029
79 T7 130 -17.517
79 T7 131 -17.517
79 T7 132 -17.029
79 T7 133 -16.052
79 T7 134 -15.076
79 T7 135 -14.587
79 T7 136 -15.076
79 T7 137 -18.494
79 T7 138 -22.400
79 T7 139 -25.818
79 T7 140 -25.330
79 T7 141 -20.447
79 T7 142 -14.099
79 T7 143 -10.681
79 T7 144 -11.658
79 T7 145 -14.099
79 T7 146 -14.587
79 T7 147 -11.169
79 T7 148 -4.822
79 T7 149 -0.916
79 T7 150 -3.357
79 T7 151 -10.681
79 T7 152 -18.005
79 T7 153 -21.912
79 T7 154 -21.912
79 T7 155 -20.935
79 T7 156 -19.958
79 T7 157 -18.982
79 T7 158 -16.052
79 T7 159 -12.146
79 T7 160 -8.240
79 T7 161 -6.775
79 T7 162 -8.728
79 T7 163 -12.146
79 T7 164 -14.587
79 T7 165 -16.052
79 T7 166 -18.005
79 T7 167 -20.447
79 T7 168 -22.400
79 T7 169 -20.935
79 T7 170 -15.564
79 T7 171 -9.216
79 T7 172 -3.357
79 T7 173 -0.916
79 T7 174 -0.916
79 T7 175 -1.892
79 T7 176 -2.869
79 T7 177 -4.822
79 T7 178 -7.751
79 T7 179 -10.193
79 T7 180 -11.169
79 T7 181 -8.728
79 T7 182 -4.822
79 T7 183 -3.845
79 T7 184 -7.263
79 T7 185 -13.123
79 T7 186 -16.052
79 T7 187 -13.123
79 T7 188 -6.287
79 T7 189 -1.892
79 T7 190 -4.333
79 T7 191 -12.146
79 T7 192 -18.982
79 T7 193 -18.494
79 T7 194 -10.193
79 T7 195 -0.916
79 T7 196 2.014
79 T7 197 -2.869
79 T7 198 -10.193
79 T7 199 -14.587
79 T7 200 -13.123
79 T7 201 -9.705
79 T7 202 -8.728
79 T7 203 -11.658
79 T7 204 -14.587
79 T7 205 -14.587
79 T7 206 -10.681
79 T7 207 -5.310
79 T7 208 -2.380
79 T7 209 -2.869
79 T7 210 -3.845
79 T7 211 -2.380
79 T7 212 0.549
79 T7 213 2.991
79 T7 214 1.038
79 T7 215 -4.333
79 T7 216 -10.193
79 T7 217 -12.634
79 T7 218 -11.169
79 T7 219 -9.216
79 T7 220 -8.728
79 T7 221 -10.193
79 T7 222 -9.705
79 T7 223 -5.310
79 T7 224 1.526
79 T7 225 6.897
79 T7 226 5.432
79 T7 227 -3.357
79 T7 228 -14.099
79 T7 229 -21.423
79 T7 230 -22.888
79 T7 231 -20.447
79 T7 232 -17.517
79 T7 233 -16.052
79 T7 234 -16.541
79 T7 235 -16.541
79 T7 236 -15.076
79 T7 237 -13.123
79 T7 238 -12.634
79 T7 239 -13.123
79 T7 240 -13.611
79 T7 241 -13.123
79 T7 242 -11.169
79 T7 243 -10.681
79 T7 244 -13.611
79 T7 245 -20.935
79 T7 246 -29.236
79 T7 247 -35.095
79 T7 248 -36.560
79 T7 249 -33.630
79 T7 250 -29.724
79 T7 251 -27.283
79 T7 252 -28.259
79 T7 253 -31.677
79 T7 254 -36.072
79 T7 255 -40.955
# CZ chan 15
79 CZ 0 -18.239
79 CZ 1 -14.821
79 CZ 2 -13.357
79 CZ 3 -13.357
79 CZ 4 -14.821
79 CZ 5 -14.821
79 CZ 6 -13.357
79 CZ 7 -10.427
79 CZ 8 -7.009
79 CZ 9 -5.056
79 CZ 10 -4.567
79 CZ 11 -5.544
79 CZ 12 -7.497
79 CZ 13 -8.474
79 CZ 14 -8.474
79 CZ 15 -7.497
79 CZ 16 -6.032
79 CZ 17 -5.056
79 CZ 18 -5.056
79 CZ 19 -5.544
79 CZ 20 -6.032
79 CZ 21 -6.521
79 CZ 22 -7.009
79 CZ 23 -7.497
79 CZ 24 -7.985
79 CZ 25 -7.009
79 CZ 26 -5.056
79 CZ 27 -2.614
79 CZ 28 -1.149
79 CZ 29 -2.614
79 CZ 30 -5.056
79 CZ 31 -7.497
79 CZ 32 -7.497
79 CZ 33 -5.544
79 CZ 34 -3.591
79 CZ 35 -3.591
79 CZ 36 -7.497
79 CZ 37 -13.845
79 CZ 38 -19.704
79 CZ 39 -22.146
79 CZ 40 -20.681
79 CZ 41 -16.286
79 CZ 42 -10.915
79 CZ 43 -7.009
79 CZ 44 -5.544
79 CZ 45 -5.056
79 CZ 46 -3.591
79 CZ 47 -1.149
79 CZ 48 2.268
79 CZ 49 5.198
79 CZ 50 5.198
79 CZ 51 2.268
79 CZ 52 -3.103
79 CZ 53 -7.497
79 CZ 54 -9.450
79 CZ 55 -7.497
79 CZ 56 -4.079
79 CZ 57 -0.661
79 CZ 58 0.804
79 CZ 59 0.804
79 CZ 60 0.315
79 CZ 61 0.315
79 CZ 62 1.780
79 CZ 63 3.245
79 CZ 64 3.245
79 CZ 65 1.780
79 CZ 66 -0.661
79 CZ 67 -2.614
79 CZ 68 -4.567
79 CZ 69 -7.009
79 CZ 70 -9.939
79 CZ 71 -14.333
79 CZ 72 -18.728
79 CZ 73 -21.169
79 CZ 74 -20.681
79 CZ 75 -19.216
79 CZ 76 -16.286
79 CZ 77 -14.821
79 CZ 78 -14.821
79 CZ 79 -16.286
79 CZ 80 -17.751
79 CZ 81 -20.192
79 CZ 82 -21.657
79 CZ 83 -23.122
79 CZ 84 -24.099
79 CZ 85 -24.099
79 CZ 86 -22.634
79 CZ 87 -21.657
79 CZ 88 -20.681
79 CZ 89 -20.681
79 CZ 90 -20.681
79 CZ 91 -20.681
79 CZ 92 -20.192
79 CZ 93 -18.239
79 CZ 94 -15.798
79 CZ 95 -12.380
79 CZ 96 -8.474
79 CZ 97 -4.079
79 CZ 98 -0.661
79 CZ 99 0.804
79 CZ 100 -0.173
79 CZ 101 -3.103
79 CZ 102 -6.521
79 CZ 103 -7.497
79 CZ 104 -6.032
79 CZ 105 -2.614
79 CZ 106 2.268
79 CZ 107 6.175
79 CZ 108 8.616
79 CZ 109 10.081
79 CZ 110 11.058
79 CZ 111 12.034
79 CZ 112 14.476
79 CZ 113 17.405
79 CZ 114 19.847
79 CZ 115 20.823
79 CZ 116 19.358
79 CZ 117 14.964
79 CZ 118 9.593
79 CZ 119 5.686
79 CZ 120 5.198
79 CZ 121 7.151
79 CZ 122 10.569
79 CZ 123 12.522
79 CZ 124 11.546
79 CZ 125 9.104
79 CZ 126 4.710
79 CZ 127 0.315
79 CZ 128 -3.103
79 CZ 129 -7.009
79 CZ 130 -11.403
79 CZ 131 -16.774
79 CZ 132 -21.657
79 CZ 133 -24.587
79 CZ 134 -25.075
79 CZ 135 -22.634
79 CZ 136 -19.704
79 CZ 137 -18.239
79 CZ 138 -19.704
79 CZ 139 -23.122
79 CZ 140 -26.540
79 CZ 141 -27.517
79 CZ 142 -27.517
79 CZ 143 -27.028
79 CZ 144 -27.517
79 CZ 145 -28.982
79 CZ 146 -29.470
79 CZ 147 -28.493
79 CZ 148 -26.540
79 CZ 149 -25.564
79 CZ 150 -27.517
79 CZ 151 -30.446
79 CZ 152 -33.864
79 CZ 153 -34.353
79 CZ 154 -32.888
79 CZ 155 -30.446
79 CZ 156 -28.005
79 CZ 157 -27.028
79 CZ 158 -27.028
79 CZ 159 -27.517
79 CZ 160 -27.517
79 CZ 161 -27.517
79 CZ 162 -28.005
79 CZ 163 -28.982
79 CZ 164 -30.935
79 CZ 165 -31.911
79 CZ 166 -31.423
79 CZ 167 -28.493
79 CZ 168 -24.099
79 CZ 169 -19.216
79 CZ 170 -14.333
79 CZ 171 -10.915
79 CZ 172 -8.962
79 CZ 173 -7.985
79 CZ 174 -7.497
79 CZ 175 -7.009
79 CZ 176 -6.032
79 CZ 177 -4.567
79 CZ 178 -3.591
79 CZ 179 -2.614
79 CZ 180 -2.126
79 CZ 181 -2.126
79 CZ 182 -2.614
79 CZ 183 -3.103
79 CZ 184 -4.079
79 CZ 185 -5.056
79 CZ 186 -5.056
79 CZ 187 -4.079
79 CZ 188 -1.638
79 CZ 189 -0.173
79 CZ 190 -0.173
79 CZ 191 -0.661
79 CZ 192 -1.149
79 CZ 193 -0.661
79 CZ 194 1.292
79 CZ 195 3.733
79 CZ 196 4.710
79 CZ 197 3.245
79 CZ 198 -0.173
79 CZ 199 -5.056
79 CZ 200 -8.962
79 CZ 201 -11.403
79 CZ 202 -9.939
79 CZ 203 -5.544
79 CZ 204 -1.149
79 CZ 205 2.757
79 CZ 206 3.245
79 CZ 207 1.292
79 CZ 208 -1.638
79 CZ 209 -3.591
79 CZ 210 -3.103
79 CZ 211 -1.638
79 CZ 212 -0.661
79 CZ 213 -1.149
79 CZ 214 -3.103
79 CZ 215 -5.056
79 CZ 216 -6.521
79 CZ 217 -7.009
79 CZ 218 -7.009
79 CZ 219 -6.521
79 CZ 220 -6.521
79 CZ 221 -6.032
79 CZ 222 -4.567
79 CZ 223 -2.126
79 CZ 224 0.804
79 CZ 225 2.268
79 CZ 226 2.268
79 CZ 227 1.292
79 CZ 228 -1.149
79 CZ 229 -3.591
79 CZ 230 -7.497
79 CZ 231 -14.333
79 CZ 232 -23.122
79 CZ 233 -31.911
79 CZ 234 -38.747
79 CZ 235 -39.724
79 CZ 236 -36.306
79 CZ 237 -32.399
79 CZ 238 -31.911
79 CZ 239 -36.794
79 CZ 240 -45.583
79 CZ 241 -53.884
79 CZ 242 -57.790
79 CZ 243 -58.278
79 CZ 244 -57.302
79 CZ 245 -58.278
79 CZ 246 -62.673
79 CZ 247 -68.044
79 CZ 248 -71.950
79 CZ 249 -74.880
79 CZ 250 -77.321
79 CZ 251 -80.739
79 CZ 252 -84.646
79 CZ 253 -88.552
79 CZ 254 -91.482
79 CZ 255 -95.388
# C3 chan 16
79 C3 0 -6.602
79 C3 1 -6.602
79 C3 2 -7.090
79 C3 3 -7.090
79 C3 4 -7.090
79 C3 5 -6.602
79 C3 6 -6.602
79 C3 7 -6.114
79 C3 8 -6.602
79 C3 9 -7.579
79 C3 10 -8.555
79 C3 11 -9.532
79 C3 12 -10.020
79 C3 13 -10.508
79 C3 14 -10.508
79 C3 15 -10.020
79 C3 16 -8.555
79 C3 17 -6.114
79 C3 18 -3.672
79 C3 19 -2.696
79 C3 20 -2.207
79 C3 21 -2.696
79 C3 22 -3.672
79 C3 23 -4.161
79 C3 24 -3.672
79 C3 25 -3.184
79 C3 26 -2.696
79 C3 27 -2.696
79 C3 28 -2.207
79 C3 29 -1.719
79 C3 30 -0.743
79 C3 31 -0.254
79 C3 32 -0.743
79 C3 33 -1.719
79 C3 34 -3.184
79 C3 35 -4.161
79 C3 36 -4.161
79 C3 37 -3.672
79 C3 38 -3.184
79 C3 39 -2.696
79 C3 40 -2.696
79 C3 41 -3.184
79 C3 42 -3.672
79 C3 43 -4.161
79 C3 44 -4.649
79 C3 45 -5.137
79 C3 46 -5.137
79 C3 47 -5.625
79 C3 48 -5.625
79 C3 49 -5.625
79 C3 50 -5.625
79 C3 51 -5.137
79 C3 52 -5.625
79 C3 53 -6.114
79 C3 54 -7.090
79 C3 55 -8.555
79 C3 56 -10.020
79 C3 57 -10.997
79 C3 58 -10.997
79 C3 59 -9.532
79 C3 60 -7.579
79 C3 61 -5.137
79 C3 62 -3.672
79 C3 63 -3.184
79 C3 64 -3.184
79 C3 65 -3.672
79 C3 66 -4.161
79 C3 67 -5.137
79 C3 68 -6.602
79 C3 69 -8.067
79 C3 70 -9.532
79 C3 71 -10.020
79 C3 72 -10.020
79 C3 73 -10.020
79 C3 74 -10.020
79 C3 75 -10.020
79 C3 76 -10.020
79 C3 77 -8.555
79 C3 78 -7.579
79 C3 79 -6.602
79 C3 80 -6.602
79 C3 81 -6.602
79 C3 82 -7.090
79 C3 83 -7.579
79 C3 84 -7.579
79 C3 85 -7.579
79 C3 86 -7.579
79 C3 87 -8.555
79 C3 88 -9.043
79 C3 89 -9.043
79 C3 90 -8.067
79 C3 91 -6.602
79 C3 92 -5.137
79 C3 93 -5.137
79 C3 94 -6.114
79 C3 95 -7.090
79 C3 96 -7.579
79 C3 97 -7.090
79 C3 98 -6.602
79 C3 99 -6.114
79 C3 100 -6.602
79 C3 101 -8.067
79 C3 102 -9.043
79 C3 103 -9.532
79 C3 104 -8.555
79 C3 105 -7.579
79 C3 106 -6.114
79 C3 107 -5.137
79 C3 108 -4.649
79 C3 109 -4.161
79 C3 110 -3.672
79 C3 111 -3.672
79 C3 112 -3.184
79 C3 113 -2.696
79 C3 114 -2.207
79 C3 115 -2.696
79 C3 116 -3.184
79 C3 117 -4.161
79 C3 118 -4.649
79 C3 119 -4.649
79 C3 120 -5.137
79 C3 121 -5.625
79 C3 122 -5.625
79 C3 123 -5.625
79 C3 124 -5.137
79 C3 125 -4.649
79 C3 126 -3.672
79 C3 127 -4.161
79 C3 128 -4.649
79 C3 129 -6.114
79 C3 130 -6.602
79 C3 131 -7.090
79 C3 132 -7.090
79 C3 133 -7.579
79 C3 134 -8.555
79 C3 135 -9.532
79 C3 136 -10.020
79 C3 137 -9.532
79 C3 138 -9.043
79 C3 139 -8.555
79 C3 140 -8.067
79 C3 141 -7.579
79 C3 142 -6.602
79 C3 143 -4.649
79 C3 144 -2.696
79 C3 145 -0.743
79 C3 146 -0.254
79 C3 147 -0.743
79 C3 148 -2.207
79 C3 149 -4.161
79 C3 150 -5.625
79 C3 151 -7.090
79 C3 152 -8.555
79 C3 153 -9.043
79 C3 154 -9.532
79 C3 155 -9.043
79 C3 156 -8.067
79 C3 157 -6.602
79 C3 158 -4.161
79 C3 159 -2.696
79 C3 160 -1.719
79 C3 161 -2.207
79 C3 162 -2.696
79 C3 163 -3.672
79 C3 164 -3.672
79 C3 165 -4.161
79 C3 166 -4.649
79 C3 167 -5.137
79 C3 168 -6.602
79 C3 169 -7.090
79 C3 170 -6.602
79 C3 171 -5.137
79 C3 172 -3.184
79 C3 173 -1.719
79 C3 174 -0.743
79 C3 175 -0.254
79 C3 176 -0.254
79 C3 177 -0.743
79 C3 178 -1.231
79 C3 179 -2.207
79 C3 180 -3.184
79 C3 181 -3.672
79 C3 182 -3.184
79 C3 183 -2.207
79 C3 184 -1.231
79 C3 185 -1.719
79 C3 186 -3.184
79 C3 187 -5.625
79 C3 188 -7.579
79 C3 189 -8.067
79 C3 190 -7.579
79 C3 191 -6.602
79 C3 192 -6.114
79 C3 193 -4.649
79 C3 194 -3.184
79 C3 195 -0.743
79 C3 196 1.211
79 C3 197 2.187
79 C3 198 0.722
79 C3 199 -2.207
79 C3 200 -5.625
79 C3 201 -8.067
79 C3 202 -9.043
79 C3 203 -8.555
79 C3 204 -7.579
79 C3 205 -5.625
79 C3 206 -3.672
79 C3 207 -1.231
79 C3 208 1.211
79 C3 209 3.652
79 C3 210 5.117
79 C3 211 4.628
79 C3 212 3.164
79 C3 213 1.211
79 C3 214 -0.254
79 C3 215 -0.743
79 C3 216 -0.254
79 C3 217 0.234
79 C3 218 0.722
79 C3 219 -0.743
79 C3 220 -3.184
79 C3 221 -5.625
79 C3 222 -6.602
79 C3 223 -6.114
79 C3 224 -4.161
79 C3 225 -1.719
79 C3 226 -0.743
79 C3 227 -0.743
79 C3 228 -3.184
79 C3 229 -6.114
79 C3 230 -8.555
79 C3 231 -10.508
79 C3 232 -11.485
79 C3 233 -11.973
79 C3 234 -11.973
79 C3 235 -11.973
79 C3 236 -10.997
79 C3 237 -8.555
79 C3 238 -5.625
79 C3 239 -2.696
79 C3 240 0.234
79 C3 241 1.211
79 C3 242 0.722
79 C3 243 -1.231
79 C3 244 -4.649
79 C3 245 -7.579
79 C3 246 -10.508
79 C3 247 -11.485
79 C3 248 -10.997
79 C3 249 -10.020
79 C3 250 -9.043
79 C3 251 -9.532
79 C3 252 -10.020
79 C3 253 -10.997
79 C3 254 -11.485
79 C3 255 -12.461
# C4 chan 17
79 C4 0 -4.405
79 C4 1 -3.916
79 C4 2 -3.428
79 C4 3 -2.940
79 C4 4 -2.452
79 C4 5 -2.452
79 C4 6 -2.940
79 C4 7 -3.916
79 C4 8 -3.916
79 C4 9 -3.916
79 C4 10 -3.428
79 C4 11 -1.963
79 C4 12 -0.498
79 C4 13 0.966
79 C4 14 2.431
79 C4 15 2.920
79 C4 16 3.408
79 C4 17 3.408
79 C4 18 2.431
79 C4 19 1.943
79 C4 20 1.943
79 C4 21 1.455
79 C4 22 1.943
79 C4 23 2.431
79 C4 24 2.431
79 C4 25 2.920
79 C4 26 2.920
79 C4 27 3.408
79 C4 28 4.873
79 C4 29 5.361
79 C4 30 6.337
79 C4 31 5.849
79 C4 32 5.361
79 C4 33 5.361
79 C4 34 5.361
79 C4 35 5.361
79 C4 36 4.873
79 C4 37 3.896
79 C4 38 2.431
79 C4 39 0.966
79 C4 40 -0.010
79 C4 41 0.478
79 C4 42 0.478
79 C4 43 0.478
79 C4 44 -0.010
79 C4 45 -0.010
79 C4 46 -0.010
79 C4 47 0.966
79 C4 48 2.431
79 C4 49 2.920
79 C4 50 2.920
79 C4 51 2.431
79 C4 52 2.431
79 C4 53 2.431
79 C4 54 3.896
79 C4 55 4.873
79 C4 56 5.849
79 C4 57 6.826
79 C4 58 6.826
79 C4 59 6.337
79 C4 60 5.849
79 C4 61 5.361
79 C4 62 4.873
79 C4 63 4.384
79 C4 64 4.384
79 C4 65 4.873
79 C4 66 5.361
79 C4 67 5.849
79 C4 68 5.849
79 C4 69 6.337
79 C4 70 6.337
79 C4 71 6.337
79 C4 72 6.337
79 C4 73 5.361
79 C4 74 4.873
79 C4 75 3.896
79 C4 76 2.920
79 C4 77 1.943
79 C4 78 1.455
79 C4 79 1.455
79 C4 80 1.943
79 C4 81 2.431
79 C4 82 2.431
79 C4 83 2.431
79 C4 84 2.431
79 C4 85 1.943
79 C4 86 2.431
79 C4 87 2.431
79 C4 88 2.431
79 C4 89 2.431
79 C4 90 1.455
79 C4 91 0.478
79 C4 92 -0.010
79 C4 93 0.478
79 C4 94 1.455
79 C4 95 2.431
79 C4 96 3.408
79 C4 97 3.408
79 C4 98 3.408
79 C4 99 3.408
79 C4 100 3.896
79 C4 101 4.384
79 C4 102 4.384
79 C4 103 3.896
79 C4 104 3.896
79 C4 105 3.408
79 C4 106 4.384
79 C4 107 5.361
79 C4 108 6.337
79 C4 109 6.826
79 C4 110 6.337
79 C4 111 5.849
79 C4 112 4.873
79 C4 113 5.361
79 C4 114 5.849
79 C4 115 5.849
79 C4 116 5.849
79 C4 117 4.873
79 C4 118 3.896
79 C4 119 3.896
79 C4 120 4.384
79 C4 121 5.849
79 C4 122 6.337
79 C4 123 6.826
79 C4 124 6.337
79 C4 125 4.873
79 C4 126 3.896
79 C4 127 3.408
79 C4 128 3.896
79 C4 129 4.384
79 C4 130 4.384
79 C4 131 4.384
79 C4 132 4.384
79 C4 133 3.896
79 C4 134 3.896
79 C4 135 3.896
79 C4 136 4.384
79 C4 137 3.896
79 C4 138 3.408
79 C4 139 1.943
79 C4 140 0.966
79 C4 141 0.478
79 C4 142 -0.010
79 C4 143 -0.010
79 C4 144 -0.010
79 C4 145 -0.010
79 C4 146 0.478
79 C4 147 0.966
79 C4 148 1.943
79 C4 149 2.431
79 C4 150 3.408
79 C4 151 2.920
79 C4 152 2.431
79 C4 153 2.431
79 C4 154 2.920
79 C4 155 3.408
79 C4 156 3.896
79 C4 157 3.408
79 C4 158 2.920
79 C4 159 1.943
79 C4 160 1.943
79 C4 161 1.455
79 C4 162 1.455
79 C4 163 1.455
79 C4 164 1.455
79 C4 165 0.478
79 C4 166 0.478
79 C4 167 -0.010
79 C4 168 -0.010
79 C4 169 0.478
79 C4 170 0.478
79 C4 171 0.478
79 C4 172 1.455
79 C4 173 2.431
79 C4 174 2.920
79 C4 175 3.408
79 C4 176 3.896
79 C4 177 3.896
79 C4 178 4.384
79 C4 179 4.873
79 C4 180 5.361
79 C4 181 4.873
79 C4 182 3.896
79 C4 183 3.408
79 C4 184 3.408
79 C4 185 3.896
79 C4 186 5.361
79 C4 187 5.849
79 C4 188 6.337
79 C4 189 5.361
79 C4 190 4.384
79 C4 191 2.920
79 C4 192 1.455
79 C4 193 0.478
79 C4 194 -0.010
79 C4 195 -0.010
79 C4 196 0.478
79 C4 197 0.478
79 C4 198 0.478
79 C4 199 0.966
79 C4 200 1.943
79 C4 201 3.896
79 C4 202 5.361
79 C4 203 6.337
79 C4 204 5.361
79 C4 205 3.896
79 C4 206 1.455
79 C4 207 -1.475
79 C4 208 -2.940
79 C4 209 -3.428
79 C4 210 -3.428
79 C4 211 -2.452
79 C4 212 -1.475
79 C4 213 -0.498
79 C4 214 -0.498
79 C4 215 -0.987
79 C4 216 -2.940
79 C4 217 -3.916
79 C4 218 -4.405
79 C4 219 -2.940
79 C4 220 -0.498
79 C4 221 2.920
79 C4 222 5.849
79 C4 223 7.314
79 C4 224 6.826
79 C4 225 5.849
79 C4 226 4.873
79 C4 227 4.384
79 C4 228 3.896
79 C4 229 1.943
79 C4 230 0.478
79 C4 231 -1.963
79 C4 232 -2.452
79 C4 233 -1.963
79 C4 234 -0.498
79 C4 235 1.455
79 C4 236 2.920
79 C4 237 3.896
79 C4 238 3.408
79 C4 239 2.431
79 C4 240 1.455
79 C4 241 -0.498
79 C4 242 -1.963
79 C4 243 -2.452
79 C4 244 -2.452
79 C4 245 -1.475
79 C4 246 -0.498
79 C4 247 -0.498
79 C4 248 -0.498
79 C4 249 -0.987
79 C4 250 -0.498
79 C4 251 1.455
79 C4 252 4.873
79 C4 253 8.291
79 C4 254 11.220
79 C4 255 13.173
# CP5 chan 18
79 CP5 0 -5.015
79 CP5 1 -5.503
79 CP5 2 -5.503
79 CP5 3 -5.503
79 CP5 4 -5.503
79 CP5 5 -5.503
79 CP5 6 -5.503
79 CP5 7 -6.480
79 CP5 8 -8.433
79 CP5 9 -10.874
79 CP5 10 -12.828
79 CP5 11 -13.804
79 CP5 12 -13.316
79 CP5 13 -12.828
79 CP5 14 -11.363
79 CP5 15 -8.921
79 CP5 16 -5.992
79 CP5 17 -2.574
79 CP5 18 0.844
79 CP5 19 2.797
79 CP5 20 2.797
79 CP5 21 1.821
79 CP5 22 0.844
79 CP5 23 -0.621
79 CP5 24 -1.597
79 CP5 25 -2.574
79 CP5 26 -3.550
79 CP5 27 -3.550
79 CP5 28 -2.085
79 CP5 29 0.356
79 CP5 30 2.797
79 CP5 31 4.751
79 CP5 32 5.239
79 CP5 33 4.751
79 CP5 34 3.286
79 CP5 35 2.309
79 CP5 36 1.333
79 CP5 37 0.356
79 CP5 38 -0.621
79 CP5 39 -2.085
79 CP5 40 -3.550
79 CP5 41 -4.527
79 CP5 42 -5.015
79 CP5 43 -5.992
79 CP5 44 -5.992
79 CP5 45 -6.480
79 CP5 46 -7.456
79 CP5 47 -8.433
79 CP5 48 -8.921
79 CP5 49 -8.433
79 CP5 50 -7.456
79 CP5 51 -6.968
79 CP5 52 -6.968
79 CP5 53 -6.968
79 CP5 54 -7.945
79 CP5 55 -8.433
79 CP5 56 -8.433
79 CP5 57 -7.456
79 CP5 58 -5.992
79 CP5 59 -3.550
79 CP5 60 -1.109
79 CP5 61 0.844
79 CP5 62 3.286
79 CP5 63 4.262
79 CP5 64 4.751
79 CP5 65 4.262
79 CP5 66 2.309
79 CP5 67 -0.132
79 CP5 68 -3.062
79 CP5 69 -5.992
79 CP5 70 -8.433
79 CP5 71 -9.898
79 CP5 72 -10.386
79 CP5 73 -10.386
79 CP5 74 -10.386
79 CP5 75 -9.898
79 CP5 76 -9.410
79 CP5 77 -7.945
79 CP5 78 -6.968
79 CP5 79 -5.503
79 CP5 80 -4.527
79 CP5 81 -4.038
79 CP5 82 -3.550
79 CP5 83 -3.062
79 CP5 84 -3.062
79 CP5 85 -3.550
79 CP5 86 -5.015
79 CP5 87 -6.480
79 CP5 88 -7.945
79 CP5 89 -8.433
79 CP5 90 -7.945
79 CP5 91 -6.968
79 CP5 92 -5.992
79 CP5 93 -5.992
79 CP5 94 -5.992
79 CP5 95 -6.480
79 CP5 96 -5.992
79 CP5 97 -5.503
79 CP5 98 -4.527
79 CP5 99 -4.527
79 CP5 100 -5.015
79 CP5 101 -5.992
79 CP5 102 -7.456
79 CP5 103 -7.945
79 CP5 104 -6.968
79 CP5 105 -5.503
79 CP5 106 -2.574
79 CP5 107 -0.132
79 CP5 108 1.821
79 CP5 109 2.309
79 CP5 110 1.821
79 CP5 111 1.333
79 CP5 112 0.844
79 CP5 113 1.333
79 CP5 114 1.333
79 CP5 115 0.356
79 CP5 116 -1.597
79 CP5 117 -4.527
79 CP5 118 -6.480
79 CP5 119 -7.456
79 CP5 120 -7.456
79 CP5 121 -6.968
79 CP5 122 -6.480
79 CP5 123 -5.992
79 CP5 124 -5.992
79 CP5 125 -5.503
79 CP5 126 -5.015
79 CP5 127 -5.503
79 CP5 128 -5.992
79 CP5 129 -6.968
79 CP5 130 -8.921
79 CP5 131 -9.898
79 CP5 132 -10.874
79 CP5 133 -12.339
79 CP5 134 -13.804
79 CP5 135 -15.757
79 CP5 136 -16.734
79 CP5 137 -17.222
79 CP5 138 -17.222
79 CP5 139 -17.710
79 CP5 140 -17.222
79 CP5 141 -16.246
79 CP5 142 -14.292
79 CP5 143 -10.874
79 CP5 144 -8.433
79 CP5 145 -5.992
79 CP5 146 -5.503
79 CP5 147 -5.992
79 CP5 148 -6.968
79 CP5 149 -7.945
79 CP5 150 -9.898
79 CP5 151 -11.851
79 CP5 152 -13.316
79 CP5 153 -14.781
79 CP5 154 -15.757
79 CP5 155 -15.757
79 CP5 156 -14.292
79 CP5 157 -12.339
79 CP5 158 -9.410
79 CP5 159 -7.456
79 CP5 160 -5.992
79 CP5 161 -5.503
79 CP5 162 -5.992
79 CP5 163 -6.480
79 CP5 164 -7.456
79 CP5 165 -7.456
79 CP5 166 -7.945
79 CP5 167 -8.433
79 CP5 168 -8.921
79 CP5 169 -9.410
79 CP5 170 -8.921
79 CP5 171 -7.456
79 CP5 172 -5.503
79 CP5 173 -3.550
79 CP5 174 -2.085
79 CP5 175 -2.085
79 CP5 176 -2.085
79 CP5 177 -1.597
79 CP5 178 -1.597
79 CP5 179 -2.085
79 CP5 180 -2.574
79 CP5 181 -3.550
79 CP5 182 -4.527
79 CP5 183 -4.527
79 CP5 184 -4.527
79 CP5 185 -5.015
79 CP5 186 -6.968
79 CP5 187 -9.898
79 CP5 188 -11.851
79 CP5 189 -12.828
79 CP5 190 -12.828
79 CP5 191 -11.851
79 CP5 192 -10.874
79 CP5 193 -8.921
79 CP5 194 -6.480
79 CP5 195 -3.550
79 CP5 196 -0.621
79 CP5 197 0.356
79 CP5 198 -1.109
79 CP5 199 -5.015
79 CP5 200 -8.433
79 CP5 201 -11.363
79 CP5 202 -11.851
79 CP5 203 -11.363
79 CP5 204 -10.386
79 CP5 205 -8.433
79 CP5 206 -5.992
79 CP5 207 -3.550
79 CP5 208 -0.132
79 CP5 209 3.286
79 CP5 210 5.727
79 CP5 211 6.704
79 CP5 212 5.727
79 CP5 213 3.286
79 CP5 214 0.356
79 CP5 215 -1.597
79 CP5 216 -2.574
79 CP5 217 -2.085
79 CP5 218 -0.621
79 CP5 219 -0.132
79 CP5 220 -1.109
79 CP5 221 -3.062
79 CP5 222 -4.527
79 CP5 223 -4.527
79 CP5 224 -2.574
79 CP5 225 -0.132
79 CP5 226 1.821
79 CP5 227 0.844
79 CP5 228 -1.597
79 CP5 229 -5.503
79 CP5 230 -8.433
79 CP5 231 -10.874
79 CP5 232 -13.316
79 CP5 233 -14.781
79 CP5 234 -16.734
79 CP5 235 -17.222
79 CP5 236 -16.246
79 CP5 237 -13.316
79 CP5 238 -9.410
79 CP5 239 -5.015
79 CP5 240 -1.109
79 CP5 241 1.333
79 CP5 242 1.333
79 CP5 243 -0.621
79 CP5 244 -4.527
79 CP5 245 -8.921
79 CP5 246 -14.292
79 CP5 247 -17.222
79 CP5 248 -19.175
79 CP5 249 -19.663
79 CP5 250 -19.663
79 CP5 251 -20.640
79 CP5 252 -21.617
79 CP5 253 -22.593
79 CP5 254 -22.105
79 CP5 255 -21.617
# CP6 chan 19
79 CP6 0 -0.529
79 CP6 1 -1.506
79 CP6 2 -2.482
79 CP6 3 -3.459
79 CP6 4 -3.947
79 CP6 5 -4.435
79 CP6 6 -4.924
79 CP6 7 -5.412
79 CP6 8 -5.412
79 CP6 9 -5.412
79 CP6 10 -3.947
79 CP6 11 -1.994
79 CP6 12 0.936
79 CP6 13 3.866
79 CP6 14 5.330
79 CP6 15 7.284
79 CP6 16 7.772
79 CP6 17 7.284
79 CP6 18 6.307
79 CP6 19 4.842
79 CP6 20 2.889
79 CP6 21 1.912
79 CP6 22 1.424
79 CP6 23 1.912
79 CP6 24 2.889
79 CP6 25 4.354
79 CP6 26 6.795
79 CP6 27 9.237
79 CP6 28 11.678
79 CP6 29 13.631
79 CP6 30 14.119
79 CP6 31 13.631
79 CP6 32 12.655
79 CP6 33 11.678
79 CP6 34 11.190
79 CP6 35 10.701
79 CP6 36 9.725
79 CP6 37 8.260
79 CP6 38 6.307
79 CP6 39 3.866
79 CP6 40 2.401
79 CP6 41 0.936
79 CP6 42 -0.041
79 CP6 43 -1.017
79 CP6 44 -1.994
79 CP6 45 -1.994
79 CP6 46 -1.994
79 CP6 47 -1.017
79 CP6 48 -0.041
79 CP6 49 0.448
79 CP6 50 -0.529
79 CP6 51 -1.994
79 CP6 52 -2.482
79 CP6 53 -1.994
79 CP6 54 -0.529
79 CP6 55 1.912
79 CP6 56 4.354
79 CP6 57 6.307
79 CP6 58 7.284
79 CP6 59 7.772
79 CP6 60 7.284
79 CP6 61 7.284
79 CP6 62 7.772
79 CP6 63 8.260
79 CP6 64 9.237
79 CP6 65 9.725
79 CP6 66 9.237
79 CP6 67 8.748
79 CP6 68 7.772
79 CP6 69 7.772
79 CP6 70 8.260
79 CP6 71 8.260
79 CP6 72 8.748
79 CP6 73 7.772
79 CP6 74 6.795
79 CP6 75 5.330
79 CP6 76 3.866
79 CP6 77 2.889
79 CP6 78 2.401
79 CP6 79 2.401
79 CP6 80 2.889
79 CP6 81 4.354
79 CP6 82 5.330
79 CP6 83 5.819
79 CP6 84 5.819
79 CP6 85 5.330
79 CP6 86 4.842
79 CP6 87 3.866
79 CP6 88 3.377
79 CP6 89 1.912
79 CP6 90 -0.041
79 CP6 91 -1.506
79 CP6 92 -2.482
79 CP6 93 -2.482
79 CP6 94 -1.994
79 CP6 95 -1.017
79 CP6 96 -0.041
79 CP6 97 0.448
79 CP6 98 1.424
79 CP6 99 2.889
79 CP6 100 4.842
79 CP6 101 5.819
79 CP6 102 6.307
79 CP6 103 6.307
79 CP6 104 5.819
79 CP6 105 5.819
79 CP6 106 6.795
79 CP6 107 8.260
79 CP6 108 9.725
79 CP6 109 10.213
79 CP6 110 9.237
79 CP6 111 8.748
79 CP6 112 8.260
79 CP6 113 8.748
79 CP6 114 9.237
79 CP6 115 9.237
79 CP6 116 8.260
79 CP6 117 5.819
79 CP6 118 4.354
79 CP6 119 3.866
79 CP6 120 4.842
79 CP6 121 7.284
79 CP6 122 8.748
79 CP6 123 9.237
79 CP6 124 8.260
79 CP6 125 6.795
79 CP6 126 4.842
79 CP6 127 3.866
79 CP6 128 3.377
79 CP6 129 3.377
79 CP6 130 2.889
79 CP6 131 1.912
79 CP6 132 0.936
79 CP6 133 0.936
79 CP6 134 0.448
79 CP6 135 0.936
79 CP6 136 0.936
79 CP6 137 -0.041
79 CP6 138 -1.506
79 CP6 139 -3.947
79 CP6 140 -5.900
79 CP6 141 -6.388
79 CP6 142 -5.900
79 CP6 143 -4.924
79 CP6 144 -4.435
79 CP6 145 -4.435
79 CP6 146 -4.435
79 CP6 147 -4.435
79 CP6 148 -3.459
79 CP6 149 -2.970
79 CP6 150 -2.970
79 CP6 151 -3.459
79 CP6 152 -3.947
79 CP6 153 -3.947
79 CP6 154 -3.459
79 CP6 155 -2.482
79 CP6 156 -1.994
79 CP6 157 -1.994
79 CP6 158 -2.970
79 CP6 159 -3.947
79 CP6 160 -3.947
79 CP6 161 -2.970
79 CP6 162 -2.482
79 CP6 163 -1.994
79 CP6 164 -2.482
79 CP6 165 -3.947
79 CP6 166 -5.412
79 CP6 167 -5.412
79 CP6 168 -4.924
79 CP6 169 -3.459
79 CP6 170 -1.994
79 CP6 171 -0.529
79 CP6 172 0.448
79 CP6 173 0.936
79 CP6 174 0.936
79 CP6 175 -0.041
79 CP6 176 -0.041
79 CP6 177 0.448
79 CP6 178 1.424
79 CP6 179 2.401
79 CP6 180 2.401
79 CP6 181 1.424
79 CP6 182 -0.041
79 CP6 183 -1.506
79 CP6 184 -1.994
79 CP6 185 -0.529
79 CP6 186 0.936
79 CP6 187 2.889
79 CP6 188 3.377
79 CP6 189 2.889
79 CP6 190 1.912
79 CP6 191 0.448
79 CP6 192 -1.506
79 CP6 193 -2.970
79 CP6 194 -3.947
79 CP6 195 -4.924
79 CP6 196 -5.412
79 CP6 197 -5.412
79 CP6 198 -4.924
79 CP6 199 -4.435
79 CP6 200 -2.970
79 CP6 201 -1.506
79 CP6 202 1.424
79 CP6 203 3.377
79 CP6 204 4.354
79 CP6 205 3.377
79 CP6 206 1.424
79 CP6 207 -1.994
79 CP6 208 -3.947
79 CP6 209 -4.924
79 CP6 210 -3.947
79 CP6 211 -2.970
79 CP6 212 -2.482
79 CP6 213 -2.970
79 CP6 214 -4.924
79 CP6 215 -7.365
79 CP6 216 -9.318
79 CP6 217 -10.295
79 CP6 218 -9.806
79 CP6 219 -8.341
79 CP6 220 -5.412
79 CP6 221 -1.994
79 CP6 222 0.936
79 CP6 223 3.377
79 CP6 224 3.866
79 CP6 225 3.377
79 CP6 226 1.912
79 CP6 227 0.936
79 CP6 228 -0.041
79 CP6 229 -1.994
79 CP6 230 -4.924
79 CP6 231 -7.853
79 CP6 232 -10.295
79 CP6 233 -10.783
79 CP6 234 -9.318
79 CP6 235 -5.900
79 CP6 236 -1.994
79 CP6 237 0.936
79 CP6 238 2.401
79 CP6 239 2.401
79 CP6 240 1.424
79 CP6 241 -1.017
79 CP6 242 -3.459
79 CP6 243 -6.388
79 CP6 244 -9.318
79 CP6 245 -11.759
79 CP6 246 -13.224
79 CP6 247 -14.689
79 CP6 248 -15.666
79 CP6 249 -15.666
79 CP6 250 -15.177
79 CP6 251 -12.736
79 CP6 252 -9.318
79 CP6 253 -4.924
79 CP6 254 -1.994
79 CP6 255 -0.529
# CP1 chan 20
79 CP1 0 8.260
79 CP1 1 7.284
79 CP1 2 6.307
79 CP1 3 4.354
79 CP1 4 2.889
79 CP1 5 1.912
79 CP1 6 0.936
79 CP1 7 0.448
79 CP1 8 0.448
79 CP1 9 -0.041
79 CP1 10 -0.529
79 CP1 11 -0.041
79 CP1 12 0.448
79 CP1 13 1.424
79 CP1 14 1.912
79 CP1 15 2.889
79 CP1 16 4.354
79 CP1 17 5.819
79 CP1 18 6.795
79 CP1 19 7.284
79 CP1 20 6.795
79 CP1 21 5.819
79 CP1 22 4.842
79 CP1 23 4.354
79 CP1 24 3.377
79 CP1 25 2.889
79 CP1 26 2.401
79 CP1 27 2.401
79 CP1 28 2.889
79 CP1 29 4.354
79 CP1 30 5.330
79 CP1 31 6.795
79 CP1 32 7.284
79 CP1 33 6.795
79 CP1 34 6.307
79 CP1 35 5.819
79 CP1 36 5.819
79 CP1 37 5.819
79 CP1 38 5.819
79 CP1 39 5.330
79 CP1 40 3.866
79 CP1 41 2.401
79 CP1 42 1.424
79 CP1 43 0.936
79 CP1 44 -0.041
79 CP1 45 -0.041
79 CP1 46 -1.017
79 CP1 47 -1.506
79 CP1 48 -1.506
79 CP1 49 -1.017
79 CP1 50 -0.529
79 CP1 51 -1.017
79 CP1 52 -1.017
79 CP1 53 -1.506
79 CP1 54 -1.506
79 CP1 55 -1.506
79 CP1 56 -1.506
79 CP1 57 -1.017
79 CP1 58 -0.529
79 CP1 59 -0.041
79 CP1 60 1.424
79 CP1 61 3.377
79 CP1 62 4.842
79 CP1 63 5.819
79 CP1 64 5.819
79 CP1 65 5.330
79 CP1 66 4.354
79 CP1 67 3.377
79 CP1 68 1.424
79 CP1 69 0.448
79 CP1 70 -0.041
79 CP1 71 -0.041
79 CP1 72 -0.041
79 CP1 73 0.448
79 CP1 74 0.448
79 CP1 75 -0.041
79 CP1 76 -0.529
79 CP1 77 -0.041
79 CP1 78 -0.041
79 CP1 79 0.936
79 CP1 80 1.424
79 CP1 81 1.912
79 CP1 82 2.889
79 CP1 83 3.377
79 CP1 84 3.377
79 CP1 85 2.889
79 CP1 86 1.912
79 CP1 87 0.448
79 CP1 88 -0.041
79 CP1 89 -0.529
79 CP1 90 -0.041
79 CP1 91 0.448
79 CP1 92 0.448
79 CP1 93 -0.529
79 CP1 94 -1.506
79 CP1 95 -1.506
79 CP1 96 -1.994
79 CP1 97 -1.506
79 CP1 98 -0.529
79 CP1 99 -0.529
79 CP1 100 -0.041
79 CP1 101 -0.041
79 CP1 102 -0.529
79 CP1 103 -0.041
79 CP1 104 0.448
79 CP1 105 0.936
79 CP1 106 1.424
79 CP1 107 2.401
79 CP1 108 3.377
79 CP1 109 3.866
79 CP1 110 3.866
79 CP1 111 3.377
79 CP1 112 3.377
79 CP1 113 3.377
79 CP1 114 3.866
79 CP1 115 3.377
79 CP1 116 3.377
79 CP1 117 2.401
79 CP1 118 1.424
79 CP1 119 1.424
79 CP1 120 1.912
79 CP1 121 1.912
79 CP1 122 1.912
79 CP1 123 1.424
79 CP1 124 1.424
79 CP1 125 0.936
79 CP1 126 0.936
79 CP1 127 0.448
79 CP1 128 -0.041
79 CP1 129 -1.506
79 CP1 130 -1.994
79 CP1 131 -2.482
79 CP1 132 -2.482
79 CP1 133 -2.970
79 CP1 134 -3.459
79 CP1 135 -3.947
79 CP1 136 -3.947
79 CP1 137 -4.435
79 CP1 138 -3.947
79 CP1 139 -3.947
79 CP1 140 -4.435
79 CP1 141 -4.924
79 CP1 142 -4.435
79 CP1 143 -3.459
79 CP1 144 -1.994
79 CP1 145 -1.017
79 CP1 146 -0.529
79 CP1 147 -1.017
79 CP1 148 -1.994
79 CP1 149 -2.970
79 CP1 150 -3.947
79 CP1 151 -4.435
79 CP1 152 -4.924
79 CP1 153 -4.924
79 CP1 154 -5.412
79 CP1 155 -5.412
79 CP1 156 -5.412
79 CP1 157 -5.412
79 CP1 158 -4.924
79 CP1 159 -4.435
79 CP1 160 -2.970
79 CP1 161 -1.994
79 CP1 162 -1.017
79 CP1 163 -0.529
79 CP1 164 -0.041
79 CP1 165 -0.041
79 CP1 166 -0.041
79 CP1 167 -0.529
79 CP1 168 -0.529
79 CP1 169 -1.017
79 CP1 170 -1.017
79 CP1 171 -1.017
79 CP1 172 -0.529
79 CP1 173 -0.041
79 CP1 174 -0.041
79 CP1 175 -0.529
79 CP1 176 -1.017
79 CP1 177 -1.017
79 CP1 178 -1.017
79 CP1 179 -1.017
79 CP1 180 -1.017
79 CP1 181 -1.506
79 CP1 182 -1.994
79 CP1 183 -1.506
79 CP1 184 -1.506
79 CP1 185 -1.506
79 CP1 186 -1.994
79 CP1 187 -3.459
79 CP1 188 -4.435
79 CP1 189 -5.412
79 CP1 190 -5.900
79 CP1 191 -5.412
79 CP1 192 -4.924
79 CP1 193 -3.947
79 CP1 194 -2.970
79 CP1 195 -1.506
79 CP1 196 -0.041
79 CP1 197 0.936
79 CP1 198 0.936
79 CP1 199 -0.529
79 CP1 200 -2.482
79 CP1 201 -4.435
79 CP1 202 -5.412
79 CP1 203 -5.412
79 CP1 204 -4.435
79 CP1 205 -3.459
79 CP1 206 -1.994
79 CP1 207 -0.041
79 CP1 208 1.424
79 CP1 209 3.377
79 CP1 210 4.354
79 CP1 211 4.842
79 CP1 212 4.842
79 CP1 213 4.842
79 CP1 214 4.354
79 CP1 215 3.866
79 CP1 216 3.377
79 CP1 217 3.866
79 CP1 218 4.354
79 CP1 219 4.354
79 CP1 220 2.401
79 CP1 221 -0.041
79 CP1 222 -1.994
79 CP1 223 -2.970
79 CP1 224 -2.482
79 CP1 225 -0.529
79 CP1 226 0.936
79 CP1 227 1.424
79 CP1 228 -0.041
79 CP1 229 -1.506
79 CP1 230 -2.482
79 CP1 231 -3.459
79 CP1 232 -2.970
79 CP1 233 -2.970
79 CP1 234 -3.459
79 CP1 235 -3.947
79 CP1 236 -3.459
79 CP1 237 -1.994
79 CP1 238 0.448
79 CP1 239 2.401
79 CP1 240 4.842
79 CP1 241 6.795
79 CP1 242 7.284
79 CP1 243 5.819
79 CP1 244 3.377
79 CP1 245 0.448
79 CP1 246 -2.970
79 CP1 247 -5.412
79 CP1 248 -5.900
79 CP1 249 -5.900
79 CP1 250 -5.412
79 CP1 251 -5.412
79 CP1 252 -5.900
79 CP1 253 -5.900
79 CP1 254 -5.900
79 CP1 255 -5.900
# CP2 chan 21
79 CP2 0 6.897
79 CP2 1 5.920
79 CP2 2 4.456
79 CP2 3 2.991
79 CP2 4 2.014
79 CP2 5 1.526
79 CP2 6 1.526
79 CP2 7 2.014
79 CP2 8 2.014
79 CP2 9 2.014
79 CP2 10 2.502
79 CP2 11 2.991
79 CP2 12 4.456
79 CP2 13 6.409
79 CP2 14 7.874
79 CP2 15 9.338
79 CP2 16 9.827
79 CP2 17 9.338
79 CP2 18 8.362
79 CP2 19 7.385
79 CP2 20 6.409
79 CP2 21 5.432
79 CP2 22 5.432
79 CP2 23 5.432
79 CP2 24 5.432
79 CP2 25 4.944
79 CP2 26 4.944
79 CP2 27 4.944
79 CP2 28 6.409
79 CP2 29 7.385
79 CP2 30 7.874
79 CP2 31 8.850
79 CP2 32 8.850
79 CP2 33 8.850
79 CP2 34 8.850
79 CP2 35 8.850
79 CP2 36 8.362
79 CP2 37 7.874
79 CP2 38 6.897
79 CP2 39 5.920
79 CP2 40 4.944
79 CP2 41 3.967
79 CP2 42 2.991
79 CP2 43 1.526
79 CP2 44 0.549
79 CP2 45 -0.427
79 CP2 46 0.061
79 CP2 47 1.038
79 CP2 48 1.526
79 CP2 49 2.014
79 CP2 50 1.526
79 CP2 51 1.038
79 CP2 52 0.549
79 CP2 53 1.038
79 CP2 54 2.014
79 CP2 55 2.991
79 CP2 56 4.456
79 CP2 57 5.920
79 CP2 58 6.409
79 CP2 59 6.897
79 CP2 60 6.897
79 CP2 61 6.897
79 CP2 62 6.897
79 CP2 63 6.897
79 CP2 64 7.385
79 CP2 65 7.385
79 CP2 66 6.897
79 CP2 67 6.897
79 CP2 68 6.897
79 CP2 69 7.385
79 CP2 70 7.874
79 CP2 71 8.362
79 CP2 72 8.850
79 CP2 73 7.874
79 CP2 74 6.897
79 CP2 75 5.920
79 CP2 76 4.944
79 CP2 77 3.967
79 CP2 78 3.967
79 CP2 79 3.967
79 CP2 80 4.944
79 CP2 81 5.920
79 CP2 82 7.385
79 CP2 83 7.874
79 CP2 84 7.874
79 CP2 85 7.385
79 CP2 86 6.409
79 CP2 87 6.409
79 CP2 88 5.432
79 CP2 89 4.944
79 CP2 90 4.456
79 CP2 91 3.967
79 CP2 92 2.991
79 CP2 93 2.502
79 CP2 94 2.014
79 CP2 95 2.014
79 CP2 96 2.014
79 CP2 97 2.991
79 CP2 98 3.479
79 CP2 99 4.456
79 CP2 100 5.432
79 CP2 101 6.409
79 CP2 102 6.409
79 CP2 103 5.920
79 CP2 104 5.920
79 CP2 105 5.432
79 CP2 106 5.920
79 CP2 107 6.409
79 CP2 108 7.385
79 CP2 109 7.874
79 CP2 110 7.385
79 CP2 111 7.385
79 CP2 112 6.897
79 CP2 113 7.874
79 CP2 114 7.874
79 CP2 115 7.874
79 CP2 116 7.385
79 CP2 117 6.409
79 CP2 118 5.432
79 CP2 119 4.944
79 CP2 120 5.920
79 CP2 121 6.897
79 CP2 122 7.385
79 CP2 123 7.385
79 CP2 124 6.409
79 CP2 125 4.944
79 CP2 126 3.967
79 CP2 127 3.479
79 CP2 128 2.991
79 CP2 129 2.991
79 CP2 130 2.502
79 CP2 131 2.991
79 CP2 132 2.991
79 CP2 133 2.991
79 CP2 134 2.991
79 CP2 135 2.991
79 CP2 136 2.502
79 CP2 137 1.526
79 CP2 138 0.549
79 CP2 139 -0.427
79 CP2 140 -1.404
79 CP2 141 -1.404
79 CP2 142 -1.892
79 CP2 143 -0.916
79 CP2 144 -0.427
79 CP2 145 -0.427
79 CP2 146 -0.427
79 CP2 147 -0.427
79 CP2 148 -0.916
79 CP2 149 -0.427
79 CP2 150 -0.916
79 CP2 151 -0.916
79 CP2 152 -0.916
79 CP2 153 -0.916
79 CP2 154 -0.427
79 CP2 155 0.061
79 CP2 156 0.061
79 CP2 157 -0.427
79 CP2 158 -0.916
79 CP2 159 -0.916
79 CP2 160 -0.427
79 CP2 161 0.549
79 CP2 162 1.038
79 CP2 163 1.038
79 CP2 164 0.549
79 CP2 165 -0.427
79 CP2 166 -0.427
79 CP2 167 -0.916
79 CP2 168 -0.427
79 CP2 169 -0.427
79 CP2 170 0.061
79 CP2 171 1.038
79 CP2 172 1.526
79 CP2 173 2.014
79 CP2 174 2.014
79 CP2 175 1.038
79 CP2 176 0.061
79 CP2 177 0.061
79 CP2 178 0.549
79 CP2 179 1.038
79 CP2 180 1.526
79 CP2 181 0.549
79 CP2 182 -0.427
79 CP2 183 -1.404
79 CP2 184 -1.404
79 CP2 185 0.061
79 CP2 186 1.526
79 CP2 187 2.502
79 CP2 188 2.991
79 CP2 189 2.014
79 CP2 190 1.526
79 CP2 191 0.549
79 CP2 192 -0.427
79 CP2 193 -0.916
79 CP2 194 -2.380
79 CP2 195 -2.869
79 CP2 196 -2.869
79 CP2 197 -1.892
79 CP2 198 -0.916
79 CP2 199 -0.427
79 CP2 200 0.549
79 CP2 201 1.038
79 CP2 202 2.014
79 CP2 203 2.502
79 CP2 204 2.502
79 CP2 205 2.502
79 CP2 206 1.038
79 CP2 207 -0.427
79 CP2 208 -1.404
79 CP2 209 -1.892
79 CP2 210 -1.892
79 CP2 211 -0.916
79 CP2 212 0.061
79 CP2 213 0.549
79 CP2 214 1.038
79 CP2 215 1.038
79 CP2 216 0.549
79 CP2 217 0.061
79 CP2 218 0.549
79 CP2 219 1.038
79 CP2 220 1.526
79 CP2 221 2.502
79 CP2 222 2.014
79 CP2 223 1.526
79 CP2 224 0.549
79 CP2 225 0.061
79 CP2 226 0.061
79 CP2 227 0.061
79 CP2 228 0.061
79 CP2 229 0.061
79 CP2 230 -0.427
79 CP2 231 -0.916
79 CP2 232 -1.404
79 CP2 233 -1.404
79 CP2 234 -0.916
79 CP2 235 0.061
79 CP2 236 1.038
79 CP2 237 1.526
79 CP2 238 2.502
79 CP2 239 2.014
79 CP2 240 1.038
79 CP2 241 0.061
79 CP2 242 -0.916
79 CP2 243 -1.892
79 CP2 244 -2.869
79 CP2 245 -3.357
79 CP2 246 -3.845
79 CP2 247 -5.310
79 CP2 248 -6.287
79 CP2 249 -6.775
79 CP2 250 -6.287
79 CP2 251 -5.310
79 CP2 252 -3.845
79 CP2 253 -2.380
79 CP2 254 -1.404
79 CP2 255 -0.916
# P3 chan 22
79 P3 0 13.153
79 P3 1 11.200
79 P3 2 8.759
79 P3 3 5.341
79 P3 4 2.411
79 P3 5 -0.031
79 P3 6 -1.495
79 P3 7 -1.984
79 P3 8 -3.448
79 P3 9 -4.913
79 P3 10 -5.402
79 P3 11 -4.913
79 P3 12 -2.960
79 P3 13 -0.031
79 P3 14 2.411
79 P3 15 4.852
79 P3 16 7.782
79 P3 17 10.223
79 P3 18 11.688
79 P3 19 12.177
79 P3 20 10.712
79 P3 21 8.759
79 P3 22 6.805
79 P3 23 4.852
79 P3 24 3.876
79 P3 25 2.411
79 P3 26 1.434
79 P3 27 0.946
79 P3 28 1.434
79 P3 29 3.876
79 P3 30 6.805
79 P3 31 9.735
79 P3 32 11.200
79 P3 33 11.688
79 P3 34 11.200
79 P3 35 10.223
79 P3 36 9.735
79 P3 37 9.247
79 P3 38 8.270
79 P3 39 5.829
79 P3 40 2.411
79 P3 41 -0.519
79 P3 42 -2.472
79 P3 43 -3.937
79 P3 44 -4.913
79 P3 45 -5.890
79 P3 46 -6.378
79 P3 47 -6.378
79 P3 48 -5.402
79 P3 49 -4.425
79 P3 50 -3.448
79 P3 51 -3.937
79 P3 52 -4.913
79 P3 53 -5.890
79 P3 54 -5.402
79 P3 55 -3.448
79 P3 56 -1.007
79 P3 57 0.458
79 P3 58 1.434
79 P3 59 2.411
79 P3 60 4.364
79 P3 61 7.782
79 P3 62 10.712
79 P3 63 12.665
79 P3 64 13.153
79 P3 65 11.200
79 P3 66 8.270
79 P3 67 5.341
79 P3 68 2.411
79 P3 69 -0.031
79 P3 70 -1.495
79 P3 71 -2.472
79 P3 72 -1.984
79 P3 73 -1.495
79 P3 74 -1.007
79 P3 75 -1.495
79 P3 76 -1.984
79 P3 77 -1.984
79 P3 78 -1.495
79 P3 79 -1.007
79 P3 80 0.458
79 P3 81 1.923
79 P3 82 2.899
79 P3 83 3.876
79 P3 84 3.876
79 P3 85 2.411
79 P3 86 0.458
79 P3 87 -1.495
79 P3 88 -3.448
79 P3 89 -4.425
79 P3 90 -4.425
79 P3 91 -4.425
79 P3 92 -4.913
79 P3 93 -5.890
79 P3 94 -6.378
79 P3 95 -6.378
79 P3 96 -6.378
79 P3 97 -5.890
79 P3 98 -4.913
79 P3 99 -3.937
79 P3 100 -3.448
79 P3 101 -2.472
79 P3 102 -2.472
79 P3 103 -2.472
79 P3 104 -2.472
79 P3 105 -1.495
79 P3 106 0.946
79 P3 107 3.387
79 P3 108 5.341
79 P3 109 6.317
79 P3 110 5.829
79 P3 111 4.852
79 P3 112 3.876
79 P3 113 3.876
79 P3 114 3.387
79 P3 115 2.411
79 P3 116 0.458
79 P3 117 -1.495
79 P3 118 -2.472
79 P3 119 -2.472
79 P3 120 -1.495
79 P3 121 -0.519
79 P3 122 -0.519
79 P3 123 -1.007
79 P3 124 -1.495
79 P3 125 -1.495
79 P3 126 -1.984
79 P3 127 -2.960
79 P3 128 -3.937
79 P3 129 -5.402
79 P3 130 -5.890
79 P3 131 -5.890
79 P3 132 -6.378
79 P3 133 -7.355
79 P3 134 -8.331
79 P3 135 -10.284
79 P3 136 -10.773
79 P3 137 -11.749
79 P3 138 -12.726
79 P3 139 -14.191
79 P3 140 -15.656
79 P3 141 -16.144
79 P3 142 -15.167
79 P3 143 -12.238
79 P3 144 -9.308
79 P3 145 -6.378
79 P3 146 -5.890
79 P3 147 -6.866
79 P3 148 -8.820
79 P3 149 -10.284
79 P3 150 -11.261
79 P3 151 -11.261
79 P3 152 -11.261
79 P3 153 -11.261
79 P3 154 -11.261
79 P3 155 -11.261
79 P3 156 -11.749
79 P3 157 -12.238
79 P3 158 -11.749
79 P3 159 -10.773
79 P3 160 -9.308
79 P3 161 -7.843
79 P3 162 -6.378
79 P3 163 -5.402
79 P3 164 -4.425
79 P3 165 -3.937
79 P3 166 -3.448
79 P3 167 -3.448
79 P3 168 -3.937
79 P3 169 -4.425
79 P3 170 -4.425
79 P3 171 -4.425
79 P3 172 -3.937
79 P3 173 -3.937
79 P3 174 -4.913
79 P3 175 -5.890
79 P3 176 -5.890
79 P3 177 -5.402
79 P3 178 -3.937
79 P3 179 -2.960
79 P3 180 -2.960
79 P3 181 -3.937
79 P3 182 -4.913
79 P3 183 -5.402
79 P3 184 -5.402
79 P3 185 -5.402
79 P3 186 -6.866
79 P3 187 -8.820
79 P3 188 -11.261
79 P3 189 -13.214
79 P3 190 -14.191
79 P3 191 -14.191
79 P3 192 -13.702
79 P3 193 -11.749
79 P3 194 -9.796
79 P3 195 -6.378
79 P3 196 -3.448
79 P3 197 -1.495
79 P3 198 -1.984
79 P3 199 -4.913
79 P3 200 -8.820
79 P3 201 -11.749
79 P3 202 -12.726
79 P3 203 -11.749
79 P3 204 -10.284
79 P3 205 -8.331
79 P3 206 -5.890
79 P3 207 -3.448
79 P3 208 -0.031
79 P3 209 3.387
79 P3 210 5.829
79 P3 211 6.317
79 P3 212 5.341
79 P3 213 2.899
79 P3 214 0.458
79 P3 215 -1.495
79 P3 216 -1.495
79 P3 217 -0.031
79 P3 218 1.923
79 P3 219 3.387
79 P3 220 2.899
79 P3 221 0.458
79 P3 222 -1.984
79 P3 223 -3.448
79 P3 224 -2.960
79 P3 225 -1.007
79 P3 226 0.946
79 P3 227 0.946
79 P3 228 -0.519
79 P3 229 -2.472
79 P3 230 -4.425
79 P3 231 -5.890
79 P3 232 -6.378
79 P3 233 -6.866
79 P3 234 -7.843
79 P3 235 -8.331
79 P3 236 -7.843
79 P3 237 -5.890
79 P3 238 -1.984
79 P3 239 2.411
79 P3 240 6.317
79 P3 241 8.759
79 P3 242 8.759
79 P3 243 6.805
79 P3 244 2.411
79 P3 245 -2.472
79 P3 246 -7.843
79 P3 247 -10.773
79 P3 248 -12.238
79 P3 249 -12.726
79 P3 250 -12.726
79 P3 251 -13.702
79 P3 252 -15.167
79 P3 253 -15.167
79 P3 254 -14.679
79 P3 255 -13.702
# P4 chan 23
79 P4 0 9.725
79 P4 1 6.795
79 P4 2 3.377
79 P4 3 0.448
79 P4 4 -1.994
79 P4 5 -3.459
79 P4 6 -3.947
79 P4 7 -4.435
79 P4 8 -3.947
79 P4 9 -3.947
79 P4 10 -2.482
79 P4 11 0.448
79 P4 12 3.377
79 P4 13 7.772
79 P4 14 11.190
79 P4 15 13.631
79 P4 16 15.096
79 P4 17 14.608
79 P4 18 12.655
79 P4 19 9.725
79 P4 20 6.307
79 P4 21 3.377
79 P4 22 1.912
79 P4 23 1.424
79 P4 24 2.401
79 P4 25 3.866
79 P4 26 4.842
79 P4 27 6.307
79 P4 28 7.772
79 P4 29 9.237
79 P4 30 10.701
79 P4 31 11.190
79 P4 32 11.678
79 P4 33 12.166
79 P4 34 12.655
79 P4 35 13.143
79 P4 36 12.655
79 P4 37 11.678
79 P4 38 10.213
79 P4 39 7.772
79 P4 40 5.330
79 P4 41 2.889
79 P4 42 -0.041
79 P4 43 -2.482
79 P4 44 -4.924
79 P4 45 -5.412
79 P4 46 -4.924
79 P4 47 -3.459
79 P4 48 -2.482
79 P4 49 -2.482
79 P4 50 -3.459
79 P4 51 -4.435
79 P4 52 -5.412
79 P4 53 -4.924
79 P4 54 -3.459
79 P4 55 -0.529
79 P4 56 1.912
79 P4 57 4.354
79 P4 58 5.819
79 P4 59 6.795
79 P4 60 7.284
79 P4 61 8.260
79 P4 62 9.237
79 P4 63 9.725
79 P4 64 10.213
79 P4 65 9.725
79 P4 66 8.748
79 P4 67 7.284
79 P4 68 6.795
79 P4 69 6.795
79 P4 70 7.284
79 P4 71 7.772
79 P4 72 7.284
79 P4 73 6.307
79 P4 74 4.842
79 P4 75 3.377
79 P4 76 1.912
79 P4 77 0.448
79 P4 78 -0.529
79 P4 79 -0.529
79 P4 80 0.936
79 P4 81 3.377
79 P4 82 5.819
79 P4 83 6.795
79 P4 84 6.795
79 P4 85 5.819
79 P4 86 4.354
79 P4 87 3.377
79 P4 88 2.889
79 P4 89 1.912
79 P4 90 0.448
79 P4 91 -1.017
79 P4 92 -2.482
79 P4 93 -3.459
79 P4 94 -4.435
79 P4 95 -4.924
79 P4 96 -4.435
79 P4 97 -3.459
79 P4 98 -1.506
79 P4 99 0.448
79 P4 100 2.889
79 P4 101 4.354
79 P4 102 4.354
79 P4 103 3.377
79 P4 104 2.401
79 P4 105 1.912
79 P4 106 2.889
79 P4 107 4.354
79 P4 108 6.307
79 P4 109 6.795
79 P4 110 7.284
79 P4 111 6.795
79 P4 112 6.795
79 P4 113 7.284
79 P4 114 7.284
79 P4 115 6.795
79 P4 116 5.330
79 P4 117 2.889
79 P4 118 1.912
79 P4 119 1.912
79 P4 120 3.377
79 P4 121 4.842
79 P4 122 6.307
79 P4 123 5.819
79 P4 124 4.354
79 P4 125 2.401
79 P4 126 0.448
79 P4 127 -1.017
79 P4 128 -1.994
79 P4 129 -1.994
79 P4 130 -1.994
79 P4 131 -1.994
79 P4 132 -2.482
79 P4 133 -2.970
79 P4 134 -3.459
79 P4 135 -3.947
79 P4 136 -4.435
79 P4 137 -5.412
79 P4 138 -6.877
79 P4 139 -8.830
79 P4 140 -10.295
79 P4 141 -10.783
79 P4 142 -10.295
79 P4 143 -9.318
79 P4 144 -8.341
79 P4 145 -7.853
79 P4 146 -8.341
79 P4 147 -8.830
79 P4 148 -8.830
79 P4 149 -9.318
79 P4 150 -9.806
79 P4 151 -10.295
79 P4 152 -10.295
79 P4 153 -9.806
79 P4 154 -8.830
79 P4 155 -7.853
79 P4 156 -7.365
79 P4 157 -8.341
79 P4 158 -9.806
79 P4 159 -9.806
79 P4 160 -9.318
79 P4 161 -7.365
79 P4 162 -5.900
79 P4 163 -5.900
79 P4 164 -6.877
79 P4 165 -8.341
79 P4 166 -9.318
79 P4 167 -9.806
79 P4 168 -9.806
79 P4 169 -8.830
79 P4 170 -6.877
79 P4 171 -4.924
79 P4 172 -2.970
79 P4 173 -2.482
79 P4 174 -2.970
79 P4 175 -4.924
79 P4 176 -6.388
79 P4 177 -6.877
79 P4 178 -6.388
79 P4 179 -4.924
79 P4 180 -5.412
79 P4 181 -6.388
79 P4 182 -8.341
79 P4 183 -9.806
79 P4 184 -9.318
79 P4 185 -7.853
79 P4 186 -5.412
79 P4 187 -3.947
79 P4 188 -2.482
79 P4 189 -2.482
79 P4 190 -2.482
79 P4 191 -2.970
79 P4 192 -4.924
79 P4 193 -6.388
79 P4 194 -8.341
79 P4 195 -9.318
79 P4 196 -9.318
79 P4 197 -8.830
79 P4 198 -7.853
79 P4 199 -7.853
79 P4 200 -6.877
79 P4 201 -5.412
79 P4 202 -3.459
79 P4 203 -1.017
79 P4 204 0.448
79 P4 205 0.448
79 P4 206 -0.529
79 P4 207 -1.994
79 P4 208 -2.970
79 P4 209 -3.459
79 P4 210 -2.970
79 P4 211 -2.482
79 P4 212 -2.970
79 P4 213 -3.947
79 P4 214 -5.900
79 P4 215 -6.877
79 P4 216 -6.877
79 P4 217 -6.388
79 P4 218 -4.924
79 P4 219 -3.459
79 P4 220 -2.482
79 P4 221 -1.994
79 P4 222 -1.506
79 P4 223 -1.994
79 P4 224 -2.482
79 P4 225 -3.459
79 P4 226 -4.435
79 P4 227 -5.412
79 P4 228 -5.900
79 P4 229 -6.388
79 P4 230 -7.365
79 P4 231 -8.341
79 P4 232 -9.806
79 P4 233 -9.806
79 P4 234 -8.830
79 P4 235 -6.388
79 P4 236 -3.947
79 P4 237 -1.017
79 P4 238 1.424
79 P4 239 1.912
79 P4 240 0.936
79 P4 241 -1.017
79 P4 242 -3.947
79 P4 243 -7.853
79 P4 244 -11.271
79 P4 245 -14.201
79 P4 246 -16.642
79 P4 247 -18.107
79 P4 248 -19.572
79 P4 249 -19.572
79 P4 250 -19.084
79 P4 251 -17.131
79 P4 252 -14.689
79 P4 253 -12.736
79 P4 254 -11.271
79 P4 255 -11.271
# PZ chan 24
79 PZ 0 22.563
79 PZ 1 20.610
79 PZ 2 17.680
79 PZ 3 12.797
79 PZ 4 8.403
79 PZ 5 4.985
79 PZ 6 3.520
79 PZ 7 3.031
79 PZ 8 2.543
79 PZ 9 3.031
79 PZ 10 3.520
79 PZ 11 4.985
79 PZ 12 6.449
79 PZ 13 8.891
79 PZ 14 11.332
79 PZ 15 13.285
79 PZ 16 15.238
79 PZ 17 17.192
79 PZ 18 18.656
79 PZ 19 18.656
79 PZ 20 17.680
79 PZ 21 16.215
79 PZ 22 14.262
79 PZ 23 12.797
79 PZ 24 10.844
79 PZ 25 9.867
79 PZ 26 7.914
79 PZ 27 6.449
79 PZ 28 6.449
79 PZ 29 6.938
79 PZ 30 8.403
79 PZ 31 10.356
79 PZ 32 11.820
79 PZ 33 13.285
79 PZ 34 13.774
79 PZ 35 14.750
79 PZ 36 14.750
79 PZ 37 15.238
79 PZ 38 15.238
79 PZ 39 13.774
79 PZ 40 11.820
79 PZ 41 9.379
79 PZ 42 6.938
79 PZ 43 4.985
79 PZ 44 3.520
79 PZ 45 3.031
79 PZ 46 2.543
79 PZ 47 2.055
79 PZ 48 2.055
79 PZ 49 2.055
79 PZ 50 1.567
79 PZ 51 1.078
79 PZ 52 0.590
79 PZ 53 0.102
79 PZ 54 1.078
79 PZ 55 3.031
79 PZ 56 5.473
79 PZ 57 6.938
79 PZ 58 7.914
79 PZ 59 8.891
79 PZ 60 10.356
79 PZ 61 11.820
79 PZ 62 13.774
79 PZ 63 14.750
79 PZ 64 14.750
79 PZ 65 14.262
79 PZ 66 12.797
79 PZ 67 10.844
79 PZ 68 9.867
79 PZ 69 8.891
79 PZ 70 8.891
79 PZ 71 9.379
79 PZ 72 9.379
79 PZ 73 9.379
79 PZ 74 8.891
79 PZ 75 7.914
79 PZ 76 5.961
79 PZ 77 4.985
79 PZ 78 4.496
79 PZ 79 4.496
79 PZ 80 5.961
79 PZ 81 7.426
79 PZ 82 9.379
79 PZ 83 10.356
79 PZ 84 10.844
79 PZ 85 9.867
79 PZ 86 8.403
79 PZ 87 6.938
79 PZ 88 5.961
79 PZ 89 5.473
79 PZ 90 5.473
79 PZ 91 5.473
79 PZ 92 4.496
79 PZ 93 3.031
79 PZ 94 1.567
79 PZ 95 1.078
79 PZ 96 1.567
79 PZ 97 2.055
79 PZ 98 3.031
79 PZ 99 4.008
79 PZ 100 4.985
79 PZ 101 5.473
79 PZ 102 5.961
79 PZ 103 5.961
79 PZ 104 5.961
79 PZ 105 5.961
79 PZ 106 6.449
79 PZ 107 7.426
79 PZ 108 8.891
79 PZ 109 10.356
79 PZ 110 10.844
79 PZ 111 10.844
79 PZ 112 10.844
79 PZ 113 10.356
79 PZ 114 10.356
79 PZ 115 9.379
79 PZ 116 7.914
79 PZ 117 6.449
79 PZ 118 5.961
79 PZ 119 5.961
79 PZ 120 6.938
79 PZ 121 7.914
79 PZ 122 8.403
79 PZ 123 8.403
79 PZ 124 7.914
79 PZ 125 6.449
79 PZ 126 4.985
79 PZ 127 3.520
79 PZ 128 1.567
79 PZ 129 0.102
79 PZ 130 -0.875
79 PZ 131 -0.875
79 PZ 132 -0.875
79 PZ 133 -0.387
79 PZ 134 0.102
79 PZ 135 -0.875
79 PZ 136 -1.851
79 PZ 137 -2.828
79 PZ 138 -4.293
79 PZ 139 -5.269
79 PZ 140 -6.246
79 PZ 141 -6.734
79 PZ 142 -6.734
79 PZ 143 -5.758
79 PZ 144 -4.781
79 PZ 145 -4.293
79 PZ 146 -4.781
79 PZ 147 -5.269
79 PZ 148 -6.734
79 PZ 149 -8.199
79 PZ 150 -9.176
79 PZ 151 -9.176
79 PZ 152 -8.687
79 PZ 153 -7.222
79 PZ 154 -5.758
79 PZ 155 -5.269
79 PZ 156 -5.269
79 PZ 157 -6.734
79 PZ 158 -7.711
79 PZ 159 -8.199
79 PZ 160 -6.734
79 PZ 161 -4.781
79 PZ 162 -2.828
79 PZ 163 -1.851
79 PZ 164 -1.851
79 PZ 165 -2.340
79 PZ 166 -2.340
79 PZ 167 -1.851
79 PZ 168 -1.363
79 PZ 169 -0.875
79 PZ 170 0.102
79 PZ 171 1.567
79 PZ 172 2.055
79 PZ 173 2.543
79 PZ 174 1.567
79 PZ 175 -0.387
79 PZ 176 -2.340
79 PZ 177 -3.805
79 PZ 178 -3.805
79 PZ 179 -3.805
79 PZ 180 -3.805
79 PZ 181 -4.293
79 PZ 182 -5.269
79 PZ 183 -5.758
79 PZ 184 -5.269
79 PZ 185 -3.805
79 PZ 186 -1.363
79 PZ 187 0.102
79 PZ 188 0.102
79 PZ 189 0.102
79 PZ 190 -0.387
79 PZ 191 -0.875
79 PZ 192 -1.851
79 PZ 193 -2.340
79 PZ 194 -3.316
79 PZ 195 -3.316
79 PZ 196 -2.828
79 PZ 197 -2.828
79 PZ 198 -2.340
79 PZ 199 -2.828
79 PZ 200 -3.805
79 PZ 201 -4.781
79 PZ 202 -4.293
79 PZ 203 -2.828
79 PZ 204 -0.875
79 PZ 205 1.078
79 PZ 206 2.055
79 PZ 207 3.031
79 PZ 208 3.520
79 PZ 209 4.008
79 PZ 210 4.985
79 PZ 211 4.985
79 PZ 212 4.496
79 PZ 213 3.520
79 PZ 214 2.055
79 PZ 215 1.078
79 PZ 216 1.567
79 PZ 217 3.520
79 PZ 218 5.473
79 PZ 219 6.449
79 PZ 220 5.961
79 PZ 221 4.008
79 PZ 222 1.078
79 PZ 223 -1.363
79 PZ 224 -2.340
79 PZ 225 -2.340
79 PZ 226 -1.363
79 PZ 227 -0.875
79 PZ 228 -0.875
79 PZ 229 -1.363
79 PZ 230 -1.363
79 PZ 231 -0.875
79 PZ 232 -0.387
79 PZ 233 0.102
79 PZ 234 0.590
79 PZ 235 1.567
79 PZ 236 2.543
79 PZ 237 4.008
79 PZ 238 5.961
79 PZ 239 7.914
79 PZ 240 8.891
79 PZ 241 8.403
79 PZ 242 6.938
79 PZ 243 4.496
79 PZ 244 1.567
79 PZ 245 -1.851
79 PZ 246 -5.269
79 PZ 247 -7.711
79 PZ 248 -9.176
79 PZ 249 -9.664
79 PZ 250 -8.687
79 PZ 251 -7.711
79 PZ 252 -6.734
79 PZ 253 -5.758
79 PZ 254 -5.758
79 PZ 255 -6.246
# P8 chan 25
79 P8 0 5.117
79 P8 1 2.187
79 P8 2 -0.743
79 P8 3 -3.184
79 P8 4 -5.137
79 P8 5 -5.625
79 P8 6 -6.602
79 P8 7 -7.579
79 P8 8 -9.043
79 P8 9 -8.555
79 P8 10 -7.090
79 P8 11 -3.672
79 P8 12 0.234
79 P8 13 4.140
79 P8 14 7.070
79 P8 15 8.535
79 P8 16 9.023
79 P8 17 8.535
79 P8 18 6.582
79 P8 19 3.164
79 P8 20 -1.231
79 P8 21 -5.137
79 P8 22 -7.090
79 P8 23 -6.602
79 P8 24 -3.672
79 P8 25 0.722
79 P8 26 6.582
79 P8 27 11.464
79 P8 28 15.859
79 P8 29 18.300
79 P8 30 19.765
79 P8 31 19.277
79 P8 32 17.812
79 P8 33 16.836
79 P8 34 16.347
79 P8 35 15.859
79 P8 36 14.882
79 P8 37 12.929
79 P8 38 10.000
79 P8 39 6.093
79 P8 40 2.187
79 P8 41 -0.743
79 P8 42 -3.184
79 P8 43 -5.137
79 P8 44 -7.090
79 P8 45 -8.067
79 P8 46 -8.555
79 P8 47 -7.579
79 P8 48 -6.602
79 P8 49 -6.602
79 P8 50 -8.067
79 P8 51 -10.020
79 P8 52 -11.973
79 P8 53 -11.485
79 P8 54 -9.532
79 P8 55 -6.114
79 P8 56 -2.696
79 P8 57 -0.254
79 P8 58 1.699
79 P8 59 3.164
79 P8 60 4.628
79 P8 61 5.605
79 P8 62 6.582
79 P8 63 7.070
79 P8 64 8.046
79 P8 65 8.535
79 P8 66 8.046
79 P8 67 6.582
79 P8 68 5.117
79 P8 69 3.164
79 P8 70 2.187
79 P8 71 1.699
79 P8 72 1.211
79 P8 73 0.722
79 P8 74 -0.254
79 P8 75 -1.231
79 P8 76 -2.207
79 P8 77 -3.672
79 P8 78 -4.649
79 P8 79 -5.137
79 P8 80 -4.649
79 P8 81 -3.672
79 P8 82 -1.231
79 P8 83 0.234
79 P8 84 0.722
79 P8 85 -0.254
79 P8 86 -2.207
79 P8 87 -3.672
79 P8 88 -5.137
79 P8 89 -6.602
79 P8 90 -8.067
79 P8 91 -10.020
79 P8 92 -11.973
79 P8 93 -12.950
79 P8 94 -13.438
79 P8 95 -12.461
79 P8 96 -11.485
79 P8 97 -9.532
79 P8 98 -7.579
79 P8 99 -5.137
79 P8 100 -2.207
79 P8 101 -0.254
79 P8 102 1.211
79 P8 103 0.722
79 P8 104 -0.254
79 P8 105 -0.743
79 P8 106 0.234
79 P8 107 2.675
79 P8 108 5.117
79 P8 109 7.558
79 P8 110 8.046
79 P8 111 8.046
79 P8 112 7.558
79 P8 113 8.046
79 P8 114 9.023
79 P8 115 8.535
79 P8 116 6.582
79 P8 117 2.675
79 P8 118 -0.254
79 P8 119 -1.719
79 P8 120 -0.743
79 P8 121 2.187
79 P8 122 3.652
79 P8 123 3.652
79 P8 124 2.187
79 P8 125 -0.743
79 P8 126 -2.696
79 P8 127 -4.161
79 P8 128 -4.161
79 P8 129 -4.161
79 P8 130 -4.649
79 P8 131 -5.625
79 P8 132 -6.602
79 P8 133 -8.067
79 P8 134 -9.043
79 P8 135 -9.532
79 P8 136 -10.020
79 P8 137 -10.997
79 P8 138 -12.950
79 P8 139 -15.391
79 P8 140 -17.832
79 P8 141 -18.321
79 P8 142 -17.832
79 P8 143 -15.879
79 P8 144 -13.438
79 P8 145 -12.461
79 P8 146 -12.461
79 P8 147 -13.438
79 P8 148 -14.414
79 P8 149 -14.903
79 P8 150 -15.391
79 P8 151 -15.391
79 P8 152 -15.391
79 P8 153 -14.903
79 P8 154 -13.438
79 P8 155 -11.973
79 P8 156 -11.485
79 P8 157 -12.461
79 P8 158 -14.903
79 P8 159 -16.856
79 P8 160 -17.344
79 P8 161 -15.391
79 P8 162 -12.461
79 P8 163 -9.532
79 P8 164 -9.043
79 P8 165 -10.997
79 P8 166 -13.926
79 P8 167 -16.368
79 P8 168 -16.368
79 P8 169 -14.414
79 P8 170 -10.508
79 P8 171 -7.090
79 P8 172 -6.114
79 P8 173 -6.114
79 P8 174 -7.579
79 P8 175 -9.532
79 P8 176 -10.020
79 P8 177 -8.555
79 P8 178 -6.602
79 P8 179 -4.649
79 P8 180 -4.649
79 P8 181 -6.602
79 P8 182 -9.532
79 P8 183 -11.485
79 P8 184 -12.950
79 P8 185 -11.973
79 P8 186 -9.043
79 P8 187 -6.602
79 P8 188 -4.649
79 P8 189 -4.161
79 P8 190 -4.649
79 P8 191 -5.625
79 P8 192 -8.067
79 P8 193 -10.020
79 P8 194 -11.973
79 P8 195 -13.438
79 P8 196 -13.926
79 P8 197 -13.438
79 P8 198 -12.461
79 P8 199 -11.973
79 P8 200 -10.997
79 P8 201 -9.043
79 P8 202 -6.602
79 P8 203 -3.184
79 P8 204 -0.254
79 P8 205 1.211
79 P8 206 0.234
79 P8 207 -2.207
79 P8 208 -4.649
79 P8 209 -6.114
79 P8 210 -6.114
79 P8 211 -5.625
79 P8 212 -5.625
79 P8 213 -7.579
79 P8 214 -10.997
79 P8 215 -14.414
79 P8 216 -16.856
79 P8 217 -17.344
79 P8 218 -15.879
79 P8 219 -13.438
79 P8 220 -10.020
79 P8 221 -6.602
79 P8 222 -2.696
79 P8 223 0.234
79 P8 224 0.722
79 P8 225 -0.743
79 P8 226 -3.184
79 P8 227 -6.114
79 P8 228 -8.067
79 P8 229 -9.532
79 P8 230 -11.485
79 P8 231 -14.414
79 P8 232 -17.832
79 P8 233 -19.297
79 P8 234 -18.321
79 P8 235 -14.414
79 P8 236 -7.090
79 P8 237 -1.231
79 P8 238 2.675
79 P8 239 4.140
79 P8 240 2.675
79 P8 241 -1.231
79 P8 242 -6.114
79 P8 243 -12.950
79 P8 244 -19.297
79 P8 245 -25.645
79 P8 246 -30.039
79 P8 247 -31.993
79 P8 248 -32.481
79 P8 249 -31.504
79 P8 250 -29.551
79 P8 251 -27.110
79 P8 252 -23.204
79 P8 253 -20.274
79 P8 254 -18.321
79 P8 255 -19.297
# P7 chan 26
79 P7 0 -0.732
79 P7 1 -1.221
79 P7 2 -1.709
79 P7 3 -1.221
79 P7 4 -1.709
79 P7 5 -2.197
79 P7 6 -3.174
79 P7 7 -5.127
79 P7 8 -7.080
79 P7 9 -9.521
79 P7 10 -11.475
79 P7 11 -11.963
79 P7 12 -11.475
79 P7 13 -9.521
79 P7 14 -7.568
79 P7 15 -4.639
79 P7 16 -0.732
79 P7 17 3.174
79 P7 18 6.104
79 P7 19 7.080
79 P7 20 6.592
79 P7 21 5.127
79 P7 22 3.174
79 P7 23 1.221
79 P7 24 -0.244
79 P7 25 -1.709
79 P7 26 -3.174
79 P7 27 -3.662
79 P7 28 -2.197
79 P7 29 0.732
79 P7 30 4.639
79 P7 31 9.033
79 P7 32 11.963
79 P7 33 12.451
79 P7 34 10.986
79 P7 35 8.545
79 P7 36 6.104
79 P7 37 3.174
79 P7 38 0.244
79 P7 39 -3.174
79 P7 40 -6.592
79 P7 41 -9.033
79 P7 42 -10.498
79 P7 43 -10.498
79 P7 44 -10.986
79 P7 45 -11.963
79 P7 46 -14.893
79 P7 47 -16.846
79 P7 48 -17.334
79 P7 49 -15.869
79 P7 50 -13.428
79 P7 51 -12.451
79 P7 52 -12.939
79 P7 53 -14.404
79 P7 54 -14.893
79 P7 55 -12.451
79 P7 56 -9.033
79 P7 57 -5.615
79 P7 58 -3.174
79 P7 59 -2.197
79 P7 60 -0.244
79 P7 61 3.174
79 P7 62 6.592
79 P7 63 9.033
79 P7 64 9.521
79 P7 65 7.568
79 P7 66 3.662
79 P7 67 -0.732
79 P7 68 -4.639
79 P7 69 -8.057
79 P7 70 -10.498
79 P7 71 -12.451
79 P7 72 -13.916
79 P7 73 -13.916
79 P7 74 -12.939
79 P7 75 -11.963
79 P7 76 -10.498
79 P7 77 -10.010
79 P7 78 -9.033
79 P7 79 -8.057
79 P7 80 -6.592
79 P7 81 -5.615
79 P7 82 -4.150
79 P7 83 -3.662
79 P7 84 -3.662
79 P7 85 -4.639
79 P7 86 -6.104
79 P7 87 -8.057
79 P7 88 -9.521
79 P7 89 -10.010
79 P7 90 -10.498
79 P7 91 -10.986
79 P7 92 -11.963
79 P7 93 -12.939
79 P7 94 -12.939
79 P7 95 -11.963
79 P7 96 -10.498
79 P7 97 -9.521
79 P7 98 -9.521
79 P7 99 -9.521
79 P7 100 -9.521
79 P7 101 -9.033
79 P7 102 -8.545
79 P7 103 -8.057
79 P7 104 -8.057
79 P7 105 -7.080
79 P7 106 -4.150
79 P7 107 -0.244
79 P7 108 3.662
79 P7 109 6.104
79 P7 110 6.592
79 P7 111 5.127
79 P7 112 3.174
79 P7 113 1.221
79 P7 114 -0.244
79 P7 115 -3.174
79 P7 116 -6.592
79 P7 117 -10.986
79 P7 118 -13.916
79 P7 119 -14.893
79 P7 120 -13.916
79 P7 121 -12.451
79 P7 122 -10.986
79 P7 123 -10.010
79 P7 124 -10.010
79 P7 125 -10.010
79 P7 126 -10.010
79 P7 127 -10.010
79 P7 128 -10.986
79 P7 129 -12.451
79 P7 130 -13.916
79 P7 131 -15.381
79 P7 132 -17.334
79 P7 133 -18.799
79 P7 134 -21.240
79 P7 135 -23.682
79 P7 136 -25.146
79 P7 137 -27.100
79 P7 138 -27.588
79 P7 139 -27.588
79 P7 140 -27.588
79 P7 141 -26.123
79 P7 142 -23.682
79 P7 143 -20.264
79 P7 144 -16.846
79 P7 145 -14.404
79 P7 146 -13.428
79 P7 147 -13.916
79 P7 148 -14.893
79 P7 149 -16.357
79 P7 150 -17.822
79 P7 151 -19.287
79 P7 152 -20.752
79 P7 153 -21.729
79 P7 154 -21.729
79 P7 155 -20.752
79 P7 156 -19.775
79 P7 157 -18.799
79 P7 158 -17.822
79 P7 159 -16.846
79 P7 160 -15.381
79 P7 161 -14.893
79 P7 162 -14.404
79 P7 163 -14.893
79 P7 164 -14.893
79 P7 165 -15.381
79 P7 166 -15.381
79 P7 167 -15.381
79 P7 168 -14.893
79 P7 169 -14.404
79 P7 170 -13.428
79 P7 171 -11.963
79 P7 172 -10.010
79 P7 173 -8.057
79 P7 174 -7.080
79 P7 175 -6.592
79 P7 176 -5.615
79 P7 177 -4.639
79 P7 178 -3.174
79 P7 179 -2.686
79 P7 180 -3.174
79 P7 181 -4.639
79 P7 182 -6.592
79 P7 183 -7.568
79 P7 184 -8.545
79 P7 185 -10.498
79 P7 186 -13.428
79 P7 187 -17.334
79 P7 188 -20.752
79 P7 189 -22.705
79 P7 190 -22.217
79 P7 191 -20.264
79 P7 192 -16.846
79 P7 193 -13.428
79 P7 194 -10.010
79 P7 195 -6.592
79 P7 196 -3.662
79 P7 197 -2.197
79 P7 198 -3.662
79 P7 199 -7.080
79 P7 200 -11.963
79 P7 201 -14.893
79 P7 202 -15.869
79 P7 203 -14.404
79 P7 204 -11.963
79 P7 205 -9.521
79 P7 206 -8.545
79 P7 207 -7.080
79 P7 208 -4.150
79 P7 209 -0.732
79 P7 210 2.197
79 P7 211 3.174
79 P7 212 1.221
79 P7 213 -3.174
79 P7 214 -8.545
79 P7 215 -12.939
79 P7 216 -13.916
79 P7 217 -11.475
79 P7 218 -7.568
79 P7 219 -4.150
79 P7 220 -2.686
79 P7 221 -2.686
79 P7 222 -3.662
79 P7 223 -4.150
79 P7 224 -2.686
79 P7 225 -0.732
79 P7 226 0.732
79 P7 227 0.244
79 P7 228 -2.197
79 P7 229 -6.104
79 P7 230 -9.521
79 P7 231 -12.451
79 P7 232 -15.381
79 P7 233 -17.822
79 P7 234 -20.264
79 P7 235 -22.217
79 P7 236 -21.729
79 P7 237 -19.287
79 P7 238 -14.404
79 P7 239 -9.033
79 P7 240 -4.639
79 P7 241 -1.709
79 P7 242 -1.221
79 P7 243 -3.174
79 P7 244 -8.057
79 P7 245 -13.916
79 P7 246 -19.287
79 P7 247 -22.705
79 P7 248 -24.658
79 P7 249 -25.146
79 P7 250 -26.123
79 P7 251 -28.564
79 P7 252 -31.494
79 P7 253 -32.471
79 P7 254 -31.494
79 P7 255 -30.029
# PO2 chan 27
79 PO2 0 19.653
79 PO2 1 16.235
79 PO2 2 10.864
79 PO2 3 5.493
79 PO2 4 0.610
79 PO2 5 -3.296
79 PO2 6 -5.249
79 PO2 7 -5.737
79 PO2 8 -5.737
79 PO2 9 -5.737
79 PO2 10 -4.761
79 PO2 11 -2.319
79 PO2 12 1.587
79 PO2 13 6.470
79 PO2 14 11.353
79 PO2 15 15.259
79 PO2 16 18.677
79 PO2 17 20.630
79 PO2 18 20.142
79 PO2 19 17.700
79 PO2 20 13.306
79 PO2 21 8.911
79 PO2 22 5.005
79 PO2 23 3.052
79 PO2 24 2.075
79 PO2 25 1.587
79 PO2 26 1.099
79 PO2 27 0.610
79 PO2 28 1.099
79 PO2 29 2.563
79 PO2 30 4.517
79 PO2 31 7.935
79 PO2 32 10.864
79 PO2 33 12.817
79 PO2 34 14.282
79 PO2 35 15.259
79 PO2 36 15.747
79 PO2 37 15.747
79 PO2 38 14.282
79 PO2 39 11.353
79 PO2 40 7.935
79 PO2 41 4.028
79 PO2 42 0.610
79 PO2 43 -2.319
79 PO2 44 -4.272
79 PO2 45 -5.737
79 PO2 46 -6.714
79 PO2 47 -6.714
79 PO2 48 -5.737
79 PO2 49 -4.761
79 PO2 50 -4.761
79 PO2 51 -5.249
79 PO2 52 -6.226
79 PO2 53 -7.202
79 PO2 54 -6.226
79 PO2 55 -3.784
79 PO2 56 -0.366
79 PO2 57 2.563
79 PO2 58 5.005
79 PO2 59 6.470
79 PO2 60 8.423
79 PO2 61 10.376
79 PO2 62 12.817
79 PO2 63 14.282
79 PO2 64 14.771
79 PO2 65 13.306
79 PO2 66 11.841
79 PO2 67 9.888
79 PO2 68 8.423
79 PO2 69 7.446
79 PO2 70 6.958
79 PO2 71 6.470
79 PO2 72 6.470
79 PO2 73 5.493
79 PO2 74 4.028
79 PO2 75 2.563
79 PO2 76 0.122
79 PO2 77 -1.343
79 PO2 78 -2.319
79 PO2 79 -2.319
79 PO2 80 -0.366
79 PO2 81 1.587
79 PO2 82 3.540
79 PO2 83 5.005
79 PO2 84 5.005
79 PO2 85 4.028
79 PO2 86 2.075
79 PO2 87 0.610
79 PO2 88 -0.366
79 PO2 89 -0.854
79 PO2 90 -1.343
79 PO2 91 -2.319
79 PO2 92 -3.784
79 PO2 93 -5.737
79 PO2 94 -7.202
79 PO2 95 -8.179
79 PO2 96 -7.202
79 PO2 97 -5.737
79 PO2 98 -3.784
79 PO2 99 -1.343
79 PO2 100 0.610
