# co2c0000381.rd
# 120 trials, 64 chans, 416 samples 368 post_stim samples
# 3.906000 msecs uV
# S1 obj , trial 44
# FP1 chan 0
44 FP1 0 -12.756
44 FP1 1 -7.385
44 FP1 2 1.404
44 FP1 3 8.240
44 FP1 4 11.169
44 FP1 5 10.193
44 FP1 6 6.287
44 FP1 7 2.869
44 FP1 8 1.892
44 FP1 9 2.869
44 FP1 10 2.869
44 FP1 11 1.404
44 FP1 12 -0.061
44 FP1 13 -0.549
44 FP1 14 0.427
44 FP1 15 2.380
44 FP1 16 2.869
44 FP1 17 1.892
44 FP1 18 -0.061
44 FP1 19 0.427
44 FP1 20 2.869
44 FP1 21 5.310
44 FP1 22 4.822
44 FP1 23 0.427
44 FP1 24 -5.432
44 FP1 25 -7.385
44 FP1 26 -4.456
44 FP1 27 1.892
44 FP1 28 5.798
44 FP1 29 4.822
44 FP1 30 -1.038
44 FP1 31 -6.897
44 FP1 32 -7.385
44 FP1 33 -2.014
44 FP1 34 4.822
44 FP1 35 7.751
44 FP1 36 4.822
44 FP1 37 -1.038
44 FP1 38 -4.944
44 FP1 39 -4.944
44 FP1 40 -0.549
44 FP1 41 3.845
44 FP1 42 5.310
44 FP1 43 2.869
44 FP1 44 -0.549
44 FP1 45 -2.991
44 FP1 46 -2.991
44 FP1 47 -1.526
44 FP1 48 -0.061
44 FP1 49 0.916
44 FP1 50 0.916
44 FP1 51 0.916
44 FP1 52 0.916
44 FP1 53 -0.061
44 FP1 54 -2.014
44 FP1 55 -3.967
44 FP1 56 -5.432
44 FP1 57 -4.456
44 FP1 58 -1.526
44 FP1 59 0.916
44 FP1 60 1.892
44 FP1 61 -0.549
44 FP1 62 -4.456
44 FP1 63 -7.874
44 FP1 64 -9.338
44 FP1 65 -7.874
44 FP1 66 -4.944
44 FP1 67 -2.014
44 FP1 68 -0.061
44 FP1 69 1.404
44 FP1 70 1.892
44 FP1 71 2.869
44 FP1 72 3.845
44 FP1 73 5.310
44 FP1 74 6.775
44 FP1 75 7.751
44 FP1 76 7.751
44 FP1 77 8.240
44 FP1 78 9.216
44 FP1 79 10.681
44 FP1 80 11.658
44 FP1 81 8.728
44 FP1 82 2.869
44 FP1 83 -2.991
44 FP1 84 -5.432
44 FP1 85 -2.014
44 FP1 86 5.798
44 FP1 87 12.146
44 FP1 88 12.634
44 FP1 89 6.775
44 FP1 90 -1.038
44 FP1 91 -6.409
44 FP1 92 -6.409
44 FP1 93 -2.014
44 FP1 94 3.845
44 FP1 95 10.193
44 FP1 96 16.052
44 FP1 97 20.447
44 FP1 98 21.912
44 FP1 99 18.494
44 FP1 100 11.658
44 FP1 101 4.333
44 FP1 102 0.916
44 FP1 103 2.380
44 FP1 104 7.263
44 FP1 105 11.169
44 FP1 106 11.658
44 FP1 107 9.216
44 FP1 108 5.798
44 FP1 109 2.869
44 FP1 110 1.892
44 FP1 111 2.380
44 FP1 112 3.845
44 FP1 113 7.751
44 FP1 114 12.634
44 FP1 115 16.052
44 FP1 116 14.587
44 FP1 117 8.240
44 FP1 118 -0.061
44 FP1 119 -5.920
44 FP1 120 -6.409
44 FP1 121 -2.014
44 FP1 122 4.333
44 FP1 123 9.216
44 FP1 124 10.681
44 FP1 125 9.705
44 FP1 126 7.263
44 FP1 127 5.798
44 FP1 128 6.287
44 FP1 129 7.751
44 FP1 130 9.216
44 FP1 131 9.705
44 FP1 132 8.728
44 FP1 133 8.240
44 FP1 134 8.728
44 FP1 135 10.681
44 FP1 136 11.658
44 FP1 137 11.658
44 FP1 138 8.728
44 FP1 139 3.845
44 FP1 140 -1.526
44 FP1 141 -5.432
44 FP1 142 -7.385
44 FP1 143 -5.920
44 FP1 144 -1.038
44 FP1 145 5.798
44 FP1 146 11.169
44 FP1 147 11.169
44 FP1 148 4.822
44 FP1 149 -5.432
44 FP1 150 -12.268
44 FP1 151 -10.315
44 FP1 152 -0.549
44 FP1 153 11.169
44 FP1 154 15.564
44 FP1 155 10.193
44 FP1 156 -1.526
44 FP1 157 -10.315
44 FP1 158 -12.268
44 FP1 159 -9.338
44 FP1 160 -6.409
44 FP1 161 -6.897
44 FP1 162 -8.850
44 FP1 163 -6.409
44 FP1 164 0.916
44 FP1 165 11.169
44 FP1 166 16.541
44 FP1 167 14.099
44 FP1 168 6.775
44 FP1 169 0.916
44 FP1 170 -0.061
44 FP1 171 2.869
44 FP1 172 4.333
44 FP1 173 0.916
44 FP1 174 -5.432
44 FP1 175 -10.315
44 FP1 176 -8.850
44 FP1 177 -2.014
44 FP1 178 5.798
44 FP1 179 10.193
44 FP1 180 7.751
44 FP1 181 0.427
44 FP1 182 -9.338
44 FP1 183 -16.663
44 FP1 184 -20.569
44 FP1 185 -19.592
44 FP1 186 -13.733
44 FP1 187 -5.920
44 FP1 188 1.892
44 FP1 189 5.798
44 FP1 190 4.333
44 FP1 191 -1.038
44 FP1 192 -7.385
44 FP1 193 -11.292
44 FP1 194 -11.292
44 FP1 195 -8.362
44 FP1 196 -4.944
44 FP1 197 -3.479
44 FP1 198 -4.456
44 FP1 199 -7.385
44 FP1 200 -9.338
44 FP1 201 -9.338
44 FP1 202 -6.897
44 FP1 203 -4.944
44 FP1 204 -4.456
44 FP1 205 -5.920
44 FP1 206 -7.874
44 FP1 207 -8.850
44 FP1 208 -8.850
44 FP1 209 -8.850
44 FP1 210 -9.827
44 FP1 211 -10.803
44 FP1 212 -9.827
44 FP1 213 -4.944
44 FP1 214 0.916
44 FP1 215 5.310
44 FP1 216 3.845
44 FP1 217 -2.014
44 FP1 218 -8.362
44 FP1 219 -10.315
44 FP1 220 -6.409
44 FP1 221 0.427
44 FP1 222 5.310
44 FP1 223 4.822
44 FP1 224 -0.061
44 FP1 225 -6.409
44 FP1 226 -11.780
44 FP1 227 -14.221
44 FP1 228 -15.686
44 FP1 229 -16.174
44 FP1 230 -16.663
44 FP1 231 -16.663
44 FP1 232 -15.686
44 FP1 233 -14.709
44 FP1 234 -15.686
44 FP1 235 -19.104
44 FP1 236 -23.987
44 FP1 237 -27.405
44 FP1 238 -27.893
44 FP1 239 -23.987
44 FP1 240 -17.639
44 FP1 241 -11.780
44 FP1 242 -8.850
44 FP1 243 -8.850
44 FP1 244 -11.292
44 FP1 245 -12.756
44 FP1 246 -12.268
44 FP1 247 -9.827
44 FP1 248 -6.897
44 FP1 249 -5.920
44 FP1 250 -7.385
44 FP1 251 -10.803
44 FP1 252 -13.733
44 FP1 253 -15.686
44 FP1 254 -15.686
44 FP1 255 -14.221
# FP2 chan 1
44 FP2 0 1.526
44 FP2 1 2.014
44 FP2 2 -0.427
44 FP2 3 -4.333
44 FP2 4 -6.775
44 FP2 5 -6.775
44 FP2 6 -3.357
44 FP2 7 0.061
44 FP2 8 2.502
44 FP2 9 3.479
44 FP2 10 2.991
44 FP2 11 3.479
44 FP2 12 5.432
44 FP2 13 7.874
44 FP2 14 7.874
44 FP2 15 5.920
44 FP2 16 2.991
44 FP2 17 0.549
44 FP2 18 0.061
44 FP2 19 0.549
44 FP2 20 1.038
44 FP2 21 -0.916
44 FP2 22 -4.333
44 FP2 23 -5.798
44 FP2 24 -3.845
44 FP2 25 2.502
44 FP2 26 9.338
44 FP2 27 12.268
44 FP2 28 9.827
44 FP2 29 2.991
44 FP2 30 -2.380
44 FP2 31 -3.357
44 FP2 32 -0.427
44 FP2 33 3.967
44 FP2 34 5.920
44 FP2 35 4.456
44 FP2 36 1.038
44 FP2 37 -0.427
44 FP2 38 1.526
44 FP2 39 5.920
44 FP2 40 10.315
44 FP2 41 11.780
44 FP2 42 9.338
44 FP2 43 4.456
44 FP2 44 -0.427
44 FP2 45 -4.822
44 FP2 46 -6.775
44 FP2 47 -6.775
44 FP2 48 -4.333
44 FP2 49 -0.427
44 FP2 50 3.479
44 FP2 51 5.920
44 FP2 52 6.409
44 FP2 53 5.432
44 FP2 54 4.944
44 FP2 55 5.432
44 FP2 56 6.897
44 FP2 57 7.385
44 FP2 58 4.944
44 FP2 59 -0.427
44 FP2 60 -6.287
44 FP2 61 -10.193
44 FP2 62 -10.193
44 FP2 63 -5.310
44 FP2 64 1.526
44 FP2 65 6.897
44 FP2 66 8.850
44 FP2 67 6.409
44 FP2 68 1.526
44 FP2 69 -2.869
44 FP2 70 -4.333
44 FP2 71 -1.404
44 FP2 72 2.991
44 FP2 73 6.897
44 FP2 74 7.874
44 FP2 75 7.385
44 FP2 76 7.385
44 FP2 77 10.315
44 FP2 78 15.198
44 FP2 79 19.592
44 FP2 80 20.081
44 FP2 81 17.151
44 FP2 82 11.780
44 FP2 83 7.385
44 FP2 84 3.967
44 FP2 85 1.038
44 FP2 86 -1.892
44 FP2 87 -4.333
44 FP2 88 -4.333
44 FP2 89 -0.427
44 FP2 90 5.432
44 FP2 91 10.315
44 FP2 92 10.803
44 FP2 93 7.385
44 FP2 94 3.967
44 FP2 95 4.456
44 FP2 96 10.803
44 FP2 97 20.569
44 FP2 98 28.381
44 FP2 99 30.823
44 FP2 100 26.428
44 FP2 101 17.639
44 FP2 102 8.850
44 FP2 103 3.479
44 FP2 104 2.502
44 FP2 105 5.920
44 FP2 106 10.803
44 FP2 107 15.686
44 FP2 108 18.616
44 FP2 109 18.127
44 FP2 110 15.198
44 FP2 111 9.827
44 FP2 112 4.944
44 FP2 113 1.526
44 FP2 114 0.549
44 FP2 115 3.479
44 FP2 116 8.850
44 FP2 117 14.709
44 FP2 118 18.127
44 FP2 119 17.639
44 FP2 120 14.221
44 FP2 121 10.315
44 FP2 122 9.338
44 FP2 123 11.780
44 FP2 124 15.686
44 FP2 125 17.639
44 FP2 126 15.198
44 FP2 127 10.315
44 FP2 128 5.432
44 FP2 129 4.456
44 FP2 130 7.874
44 FP2 131 13.245
44 FP2 132 17.639
44 FP2 133 20.569
44 FP2 134 21.545
44 FP2 135 20.569
44 FP2 136 18.616
44 FP2 137 14.709
44 FP2 138 11.292
44 FP2 139 9.827
44 FP2 140 10.803
44 FP2 141 14.221
44 FP2 142 17.151
44 FP2 143 17.639
44 FP2 144 14.221
44 FP2 145 9.338
44 FP2 146 6.409
44 FP2 147 5.920
44 FP2 148 8.850
44 FP2 149 12.268
44 FP2 150 14.709
44 FP2 151 15.198
44 FP2 152 14.221
44 FP2 153 11.292
44 FP2 154 7.874
44 FP2 155 3.967
44 FP2 156 2.502
44 FP2 157 3.967
44 FP2 158 8.362
44 FP2 159 12.268
44 FP2 160 13.733
44 FP2 161 11.292
44 FP2 162 7.385
44 FP2 163 4.456
44 FP2 164 5.920
44 FP2 165 11.292
44 FP2 166 18.127
44 FP2 167 23.010
44 FP2 168 23.499
44 FP2 169 20.081
44 FP2 170 14.221
44 FP2 171 9.338
44 FP2 172 6.897
44 FP2 173 7.385
44 FP2 174 9.338
44 FP2 175 12.268
44 FP2 176 14.221
44 FP2 177 14.709
44 FP2 178 12.756
44 FP2 179 9.338
44 FP2 180 4.944
44 FP2 181 1.526
44 FP2 182 -0.427
44 FP2 183 0.061
44 FP2 184 2.502
44 FP2 185 5.920
44 FP2 186 8.850
44 FP2 187 9.338
44 FP2 188 7.874
44 FP2 189 5.432
44 FP2 190 3.967
44 FP2 191 4.944
44 FP2 192 6.897
44 FP2 193 8.362
44 FP2 194 7.385
44 FP2 195 3.479
44 FP2 196 -0.427
44 FP2 197 -1.404
44 FP2 198 0.549
44 FP2 199 4.456
44 FP2 200 7.385
44 FP2 201 5.432
44 FP2 202 2.014
44 FP2 203 -1.404
44 FP2 204 -1.404
44 FP2 205 1.526
44 FP2 206 5.432
44 FP2 207 7.874
44 FP2 208 8.362
44 FP2 209 7.385
44 FP2 210 6.409
44 FP2 211 6.897
44 FP2 212 7.385
44 FP2 213 7.385
44 FP2 214 5.920
44 FP2 215 3.479
44 FP2 216 2.502
44 FP2 217 2.991
44 FP2 218 5.432
44 FP2 219 8.362
44 FP2 220 10.315
44 FP2 221 11.292
44 FP2 222 10.315
44 FP2 223 8.362
44 FP2 224 4.944
44 FP2 225 1.038
44 FP2 226 -3.357
44 FP2 227 -6.775
44 FP2 228 -7.751
44 FP2 229 -5.310
44 FP2 230 -0.916
44 FP2 231 3.967
44 FP2 232 5.920
44 FP2 233 3.479
44 FP2 234 -1.404
44 FP2 235 -6.287
44 FP2 236 -8.240
44 FP2 237 -7.263
44 FP2 238 -4.333
44 FP2 239 -0.427
44 FP2 240 2.502
44 FP2 241 5.432
44 FP2 242 6.409
44 FP2 243 3.479
44 FP2 244 -2.380
44 FP2 245 -9.705
44 FP2 246 -13.123
44 FP2 247 -11.169
44 FP2 248 -3.357
44 FP2 249 5.432
44 FP2 250 10.315
44 FP2 251 8.850
44 FP2 252 3.479
44 FP2 253 -2.380
44 FP2 254 -4.822
44 FP2 255 -3.357
# F7 chan 2
44 F7 0 -9.013
44 F7 1 -7.548
44 F7 2 -3.642
44 F7 3 2.218
44 F7 4 9.542
44 F7 5 14.913
44 F7 6 15.889
44 F7 7 11.983
44 F7 8 4.659
44 F7 9 -1.200
44 F7 10 -2.665
44 F7 11 0.753
44 F7 12 5.636
44 F7 13 8.077
44 F7 14 6.612
44 F7 15 3.682
44 F7 16 2.218
44 F7 17 3.682
44 F7 18 7.589
44 F7 19 10.518
44 F7 20 11.007
44 F7 21 8.565
44 F7 22 5.147
44 F7 23 2.218
44 F7 24 0.753
44 F7 25 0.753
44 F7 26 1.241
44 F7 27 -0.224
44 F7 28 -1.689
44 F7 29 -3.642
44 F7 30 -3.153
44 F7 31 -0.224
44 F7 32 6.124
44 F7 33 12.960
44 F7 34 16.866
44 F7 35 14.913
44 F7 36 7.100
44 F7 37 -2.665
44 F7 38 -9.013
44 F7 39 -9.013
44 F7 40 -1.689
44 F7 41 7.589
44 F7 42 12.960
44 F7 43 11.983
44 F7 44 6.124
44 F7 45 0.264
44 F7 46 -1.200
44 F7 47 1.729
44 F7 48 6.612
44 F7 49 9.542
44 F7 50 8.565
44 F7 51 5.147
44 F7 52 0.264
44 F7 53 -3.642
44 F7 54 -5.107
44 F7 55 -4.618
44 F7 56 -1.200
44 F7 57 3.682
44 F7 58 9.542
44 F7 59 12.472
44 F7 60 10.518
44 F7 61 4.171
44 F7 62 -2.177
44 F7 63 -4.618
44 F7 64 -1.689
44 F7 65 4.659
44 F7 66 10.030
44 F7 67 10.518
44 F7 68 8.077
44 F7 69 6.124
44 F7 70 6.612
44 F7 71 10.518
44 F7 72 14.425
44 F7 73 15.889
44 F7 74 13.936
44 F7 75 10.030
44 F7 76 6.612
44 F7 77 5.147
44 F7 78 7.589
44 F7 79 13.448
44 F7 80 18.819
44 F7 81 21.261
44 F7 82 17.843
44 F7 83 9.542
44 F7 84 -0.224
44 F7 85 -5.107
44 F7 86 -4.130
44 F7 87 2.218
44 F7 88 9.054
44 F7 89 13.448
44 F7 90 12.960
44 F7 91 10.030
44 F7 92 6.612
44 F7 93 6.124
44 F7 94 7.100
44 F7 95 8.077
44 F7 96 8.565
44 F7 97 8.565
44 F7 98 9.542
44 F7 99 12.472
44 F7 100 16.866
44 F7 101 20.284
44 F7 102 20.772
44 F7 103 17.843
44 F7 104 13.448
44 F7 105 9.054
44 F7 106 5.147
44 F7 107 2.218
44 F7 108 0.264
44 F7 109 1.729
44 F7 110 8.077
44 F7 111 18.819
44 F7 112 30.050
44 F7 113 34.932
44 F7 114 31.514
44 F7 115 20.284
44 F7 116 9.542
44 F7 117 4.659
44 F7 118 5.636
44 F7 119 9.054
44 F7 120 10.030
44 F7 121 8.077
44 F7 122 4.659
44 F7 123 5.147
44 F7 124 9.054
44 F7 125 14.913
44 F7 126 17.843
44 F7 127 16.378
44 F7 128 11.495
44 F7 129 6.124
44 F7 130 2.706
44 F7 131 2.706
44 F7 132 6.612
44 F7 133 13.448
44 F7 134 21.749
44 F7 135 28.097
44 F7 136 28.585
44 F7 137 21.261
44 F7 138 10.518
44 F7 139 -0.224
44 F7 140 -4.130
44 F7 141 -1.689
44 F7 142 5.147
44 F7 143 11.495
44 F7 144 14.913
44 F7 145 15.401
44 F7 146 14.913
44 F7 147 13.448
44 F7 148 11.495
44 F7 149 7.100
44 F7 150 1.729
44 F7 151 -1.200
44 F7 152 0.753
44 F7 153 7.100
44 F7 154 13.448
44 F7 155 16.378
44 F7 156 13.936
44 F7 157 9.054
44 F7 158 5.147
44 F7 159 2.706
44 F7 160 2.218
44 F7 161 0.753
44 F7 162 -0.224
44 F7 163 2.218
44 F7 164 9.054
44 F7 165 18.331
44 F7 166 24.679
44 F7 167 23.702
44 F7 168 14.425
44 F7 169 3.682
44 F7 170 -2.177
44 F7 171 0.264
44 F7 172 9.542
44 F7 173 17.354
44 F7 174 19.307
44 F7 175 14.913
44 F7 176 9.054
44 F7 177 7.100
44 F7 178 11.007
44 F7 179 16.866
44 F7 180 18.331
44 F7 181 11.983
44 F7 182 0.264
44 F7 183 -10.966
44 F7 184 -16.825
44 F7 185 -14.384
44 F7 186 -6.083
44 F7 187 3.194
44 F7 188 10.518
44 F7 189 14.425
44 F7 190 15.401
44 F7 191 14.425
44 F7 192 11.983
44 F7 193 7.100
44 F7 194 2.218
44 F7 195 -1.689
44 F7 196 -2.177
44 F7 197 0.753
44 F7 198 4.171
44 F7 199 5.636
44 F7 200 3.682
44 F7 201 0.753
44 F7 202 0.753
44 F7 203 4.659
44 F7 204 11.495
44 F7 205 15.889
44 F7 206 15.401
44 F7 207 10.030
44 F7 208 4.171
44 F7 209 -0.224
44 F7 210 -2.177
44 F7 211 -2.665
44 F7 212 -3.153
44 F7 213 -2.177
44 F7 214 1.241
44 F7 215 6.612
44 F7 216 11.007
44 F7 217 11.495
44 F7 218 9.054
44 F7 219 6.124
44 F7 220 5.636
44 F7 221 7.589
44 F7 222 10.030
44 F7 223 10.030
44 F7 224 6.612
44 F7 225 1.729
44 F7 226 -2.177
44 F7 227 -3.642
44 F7 228 -3.153
44 F7 229 -1.200
44 F7 230 1.241
44 F7 231 4.171
44 F7 232 7.589
44 F7 233 8.077
44 F7 234 6.124
44 F7 235 -0.224
44 F7 236 -7.548
44 F7 237 -12.431
44 F7 238 -12.431
44 F7 239 -7.060
44 F7 240 -2.177
44 F7 241 -1.200
44 F7 242 -6.083
44 F7 243 -11.943
44 F7 244 -12.919
44 F7 245 -5.595
44 F7 246 7.100
44 F7 247 17.843
44 F7 248 19.796
44 F7 249 11.495
44 F7 250 -2.177
44 F7 251 -11.454
44 F7 252 -12.431
44 F7 253 -5.595
44 F7 254 4.171
44 F7 255 11.495
# F8 chan 3
44 F8 0 1.180
44 F8 1 -0.285
44 F8 2 -2.726
44 F8 3 -3.703
44 F8 4 -1.750
44 F8 5 1.668
44 F8 6 5.086
44 F8 7 6.551
44 F8 8 7.039
44 F8 9 7.039
44 F8 10 7.528
44 F8 11 7.039
44 F8 12 6.551
44 F8 13 5.575
44 F8 14 5.575
44 F8 15 7.528
44 F8 16 10.457
44 F8 17 11.922
44 F8 18 12.410
44 F8 19 9.481
44 F8 20 6.063
44 F8 21 2.645
44 F8 22 1.180
44 F8 23 2.157
44 F8 24 4.110
44 F8 25 6.551
44 F8 26 8.016
44 F8 27 8.016
44 F8 28 7.039
44 F8 29 6.551
44 F8 30 7.039
44 F8 31 8.993
44 F8 32 11.922
44 F8 33 14.364
44 F8 34 15.340
44 F8 35 15.340
44 F8 36 14.364
44 F8 37 12.899
44 F8 38 11.434
44 F8 39 9.969
44 F8 40 8.504
44 F8 41 7.039
44 F8 42 5.086
44 F8 43 4.110
44 F8 44 3.621
44 F8 45 4.110
44 F8 46 5.086
44 F8 47 6.063
44 F8 48 6.551
44 F8 49 6.063
44 F8 50 5.086
44 F8 51 4.598
44 F8 52 5.575
44 F8 53 7.528
44 F8 54 9.481
44 F8 55 9.481
44 F8 56 7.528
44 F8 57 3.133
44 F8 58 0.203
44 F8 59 -1.261
44 F8 60 0.203
44 F8 61 2.157
44 F8 62 2.645
44 F8 63 2.157
44 F8 64 1.180
44 F8 65 0.203
44 F8 66 1.180
44 F8 67 3.133
44 F8 68 5.575
44 F8 69 7.528
44 F8 70 8.993
44 F8 71 9.481
44 F8 72 8.504
44 F8 73 8.504
44 F8 74 8.993
44 F8 75 9.481
44 F8 76 10.457
44 F8 77 11.434
44 F8 78 12.899
44 F8 79 13.875
44 F8 80 14.852
44 F8 81 14.852
44 F8 82 12.899
44 F8 83 8.993
44 F8 84 4.598
44 F8 85 1.668
44 F8 86 1.668
44 F8 87 4.598
44 F8 88 8.504
44 F8 89 9.481
44 F8 90 8.016
44 F8 91 4.598
44 F8 92 2.157
44 F8 93 3.621
44 F8 94 8.993
44 F8 95 15.340
44 F8 96 20.223
44 F8 97 21.688
44 F8 98 21.200
44 F8 99 19.246
44 F8 100 17.782
44 F8 101 17.293
44 F8 102 16.317
44 F8 103 14.852
44 F8 104 13.387
44 F8 105 11.922
44 F8 106 10.457
44 F8 107 6.551
44 F8 108 1.668
44 F8 109 -2.238
44 F8 110 -1.261
44 F8 111 4.598
44 F8 112 14.364
44 F8 113 23.641
44 F8 114 27.059
44 F8 115 24.618
44 F8 116 18.270
44 F8 117 12.410
44 F8 118 8.504
44 F8 119 7.039
44 F8 120 6.063
44 F8 121 6.063
44 F8 122 8.016
44 F8 123 12.410
44 F8 124 17.293
44 F8 125 20.223
44 F8 126 17.782
44 F8 127 12.410
44 F8 128 8.993
44 F8 129 9.969
44 F8 130 16.317
44 F8 131 24.129
44 F8 132 28.035
44 F8 133 26.571
44 F8 134 22.664
44 F8 135 18.758
44 F8 136 16.805
44 F8 137 16.317
44 F8 138 14.364
44 F8 139 10.946
44 F8 140 7.039
44 F8 141 5.575
44 F8 142 7.039
44 F8 143 10.457
44 F8 144 13.387
44 F8 145 14.364
44 F8 146 13.387
44 F8 147 12.410
44 F8 148 13.387
44 F8 149 15.340
44 F8 150 17.293
44 F8 151 16.317
44 F8 152 13.875
44 F8 153 10.457
44 F8 154 9.481
44 F8 155 9.481
44 F8 156 11.434
44 F8 157 11.922
44 F8 158 11.434
44 F8 159 10.457
44 F8 160 9.481
44 F8 161 9.481
44 F8 162 9.969
44 F8 163 10.946
44 F8 164 12.410
44 F8 165 15.340
44 F8 166 20.223
44 F8 167 25.594
44 F8 168 28.035
44 F8 169 25.106
44 F8 170 17.782
44 F8 171 9.969
44 F8 172 5.575
44 F8 173 6.551
44 F8 174 10.946
44 F8 175 13.875
44 F8 176 13.875
44 F8 177 11.434
44 F8 178 10.457
44 F8 179 12.410
44 F8 180 15.828
44 F8 181 17.782
44 F8 182 15.340
44 F8 183 9.481
44 F8 184 2.645
44 F8 185 -0.773
44 F8 186 0.203
44 F8 187 4.598
44 F8 188 9.969
44 F8 189 13.387
44 F8 190 14.852
44 F8 191 13.875
44 F8 192 11.922
44 F8 193 8.993
44 F8 194 6.063
44 F8 195 3.133
44 F8 196 1.668
44 F8 197 1.668
44 F8 198 2.645
44 F8 199 3.621
44 F8 200 4.598
44 F8 201 6.063
44 F8 202 7.528
44 F8 203 9.481
44 F8 204 10.457
44 F8 205 10.946
44 F8 206 10.457
44 F8 207 9.969
44 F8 208 9.969
44 F8 209 9.481
44 F8 210 8.504
44 F8 211 5.086
44 F8 212 1.180
44 F8 213 -0.285
44 F8 214 2.157
44 F8 215 8.504
44 F8 216 15.828
44 F8 217 19.246
44 F8 218 16.317
44 F8 219 8.993
44 F8 220 1.180
44 F8 221 -3.215
44 F8 222 -3.215
44 F8 223 0.203
44 F8 224 5.086
44 F8 225 9.481
44 F8 226 11.922
44 F8 227 12.410
44 F8 228 10.457
44 F8 229 6.551
44 F8 230 2.157
44 F8 231 -0.285
44 F8 232 0.203
44 F8 233 2.645
44 F8 234 5.086
44 F8 235 4.598
44 F8 236 0.203
44 F8 237 -6.144
44 F8 238 -10.539
44 F8 239 -9.562
44 F8 240 -4.679
44 F8 241 1.668
44 F8 242 5.575
44 F8 243 5.575
44 F8 244 4.110
44 F8 245 2.157
44 F8 246 1.180
44 F8 247 0.692
44 F8 248 -1.261
44 F8 249 -3.703
44 F8 250 -5.168
44 F8 251 -3.703
44 F8 252 -0.285
44 F8 253 2.157
44 F8 254 2.157
44 F8 255 -0.773
# AF1 chan 4
44 AF1 0 8.799
44 AF1 1 5.381
44 AF1 2 1.963
44 AF1 3 -0.966
44 AF1 4 -3.408
44 AF1 5 -4.384
44 AF1 6 -3.896
44 AF1 7 -1.455
44 AF1 8 2.452
44 AF1 9 5.381
44 AF1 10 6.846
44 AF1 11 5.870
44 AF1 12 3.428
44 AF1 13 0.987
44 AF1 14 -1.455
44 AF1 15 -2.920
44 AF1 16 -3.896
44 AF1 17 -3.408
44 AF1 18 -1.943
44 AF1 19 -0.966
44 AF1 20 0.010
44 AF1 21 -0.966
44 AF1 22 -2.920
44 AF1 23 -3.896
44 AF1 24 -2.920
44 AF1 25 0.010
44 AF1 26 2.452
44 AF1 27 3.428
44 AF1 28 2.452
44 AF1 29 0.010
44 AF1 30 -1.943
44 AF1 31 -1.455
44 AF1 32 -0.966
44 AF1 33 0.010
44 AF1 34 -0.478
44 AF1 35 -0.966
44 AF1 36 -1.455
44 AF1 37 -0.478
44 AF1 38 1.475
44 AF1 39 3.428
44 AF1 40 4.893
44 AF1 41 4.893
44 AF1 42 4.893
44 AF1 43 3.916
44 AF1 44 3.428
44 AF1 45 1.475
44 AF1 46 -0.966
44 AF1 47 -3.408
44 AF1 48 -2.920
44 AF1 49 0.010
44 AF1 50 4.893
44 AF1 51 8.799
44 AF1 52 10.752
44 AF1 53 10.752
44 AF1 54 10.264
44 AF1 55 10.752
44 AF1 56 10.264
44 AF1 57 8.311
44 AF1 58 3.916
44 AF1 59 -1.943
44 AF1 60 -6.826
44 AF1 61 -8.291
44 AF1 62 -6.826
44 AF1 63 -2.920
44 AF1 64 0.987
44 AF1 65 3.428
44 AF1 66 4.405
44 AF1 67 4.405
44 AF1 68 3.428
44 AF1 69 1.475
44 AF1 70 -0.478
44 AF1 71 -1.455
44 AF1 72 0.010
44 AF1 73 3.428
44 AF1 74 7.823
44 AF1 75 11.729
44 AF1 76 14.659
44 AF1 77 15.635
44 AF1 78 13.682
44 AF1 79 10.264
44 AF1 80 6.358
44 AF1 81 4.405
44 AF1 82 6.358
44 AF1 83 10.264
44 AF1 84 13.194
44 AF1 85 11.729
44 AF1 86 4.893
44 AF1 87 -3.408
44 AF1 88 -8.291
44 AF1 89 -6.337
44 AF1 90 1.475
44 AF1 91 10.264
44 AF1 92 15.635
44 AF1 93 16.123
44 AF1 94 13.682
44 AF1 95 11.729
44 AF1 96 11.241
44 AF1 97 12.705
44 AF1 98 13.682
44 AF1 99 13.194
44 AF1 100 11.241
44 AF1 101 9.288
44 AF1 102 6.846
44 AF1 103 5.381
44 AF1 104 5.870
44 AF1 105 8.799
44 AF1 106 15.635
44 AF1 107 23.448
44 AF1 108 28.330
44 AF1 109 26.866
44 AF1 110 18.077
44 AF1 111 5.381
44 AF1 112 -3.896
44 AF1 113 -5.361
44 AF1 114 0.498
44 AF1 115 10.264
44 AF1 116 17.588
44 AF1 117 20.518
44 AF1 118 19.541
44 AF1 119 16.612
44 AF1 120 14.659
44 AF1 121 13.194
44 AF1 122 12.705
44 AF1 123 12.217
44 AF1 124 11.729
44 AF1 125 12.705
44 AF1 126 14.170
44 AF1 127 14.659
44 AF1 128 14.170
44 AF1 129 12.217
44 AF1 130 10.752
44 AF1 131 11.241
44 AF1 132 12.705
44 AF1 133 14.170
44 AF1 134 14.170
44 AF1 135 12.705
44 AF1 136 10.752
44 AF1 137 9.776
44 AF1 138 10.752
44 AF1 139 12.705
44 AF1 140 15.635
44 AF1 141 18.565
44 AF1 142 20.518
44 AF1 143 20.518
44 AF1 144 17.588
44 AF1 145 11.729
44 AF1 146 3.916
44 AF1 147 -0.478
44 AF1 148 0.498
44 AF1 149 6.358
44 AF1 150 13.194
44 AF1 151 16.612
44 AF1 152 14.170
44 AF1 153 8.799
44 AF1 154 4.405
44 AF1 155 3.916
44 AF1 156 6.846
44 AF1 157 8.799
44 AF1 158 8.799
44 AF1 159 6.846
44 AF1 160 5.870
44 AF1 161 7.334
44 AF1 162 10.752
44 AF1 163 12.217
44 AF1 164 10.264
44 AF1 165 6.358
44 AF1 166 5.381
44 AF1 167 8.311
44 AF1 168 14.659
44 AF1 169 19.541
44 AF1 170 20.030
44 AF1 171 15.147
44 AF1 172 8.799
44 AF1 173 4.893
44 AF1 174 6.846
44 AF1 175 12.217
44 AF1 176 16.612
44 AF1 177 15.635
44 AF1 178 8.799
44 AF1 179 0.010
44 AF1 180 -5.849
44 AF1 181 -4.873
44 AF1 182 2.940
44 AF1 183 11.729
44 AF1 184 17.588
44 AF1 185 16.612
44 AF1 186 10.264
44 AF1 187 1.963
44 AF1 188 -3.896
44 AF1 189 -6.337
44 AF1 190 -4.384
44 AF1 191 0.498
44 AF1 192 5.870
44 AF1 193 9.776
44 AF1 194 11.729
44 AF1 195 10.752
44 AF1 196 7.823
44 AF1 197 5.381
44 AF1 198 4.405
44 AF1 199 4.405
44 AF1 200 3.428
44 AF1 201 -0.966
44 AF1 202 -6.826
44 AF1 203 -11.709
44 AF1 204 -10.732
44 AF1 205 -3.408
44 AF1 206 6.846
44 AF1 207 14.170
44 AF1 208 16.612
44 AF1 209 15.147
44 AF1 210 12.705
44 AF1 211 10.752
44 AF1 212 9.776
44 AF1 213 6.846
44 AF1 214 2.452
44 AF1 215 -0.966
44 AF1 216 -1.455
44 AF1 217 2.940
44 AF1 218 8.799
44 AF1 219 13.682
44 AF1 220 14.170
44 AF1 221 11.241
44 AF1 222 6.846
44 AF1 223 2.940
44 AF1 224 -0.966
44 AF1 225 -4.873
44 AF1 226 -8.779
44 AF1 227 -10.732
44 AF1 228 -9.267
44 AF1 229 -4.384
44 AF1 230 1.963
44 AF1 231 6.358
44 AF1 232 7.334
44 AF1 233 4.405
44 AF1 234 0.010
44 AF1 235 -3.896
44 AF1 236 -5.361
44 AF1 237 -4.873
44 AF1 238 -2.920
44 AF1 239 0.010
44 AF1 240 3.428
44 AF1 241 5.870
44 AF1 242 5.381
44 AF1 243 0.010
44 AF1 244 -7.802
44 AF1 245 -14.638
44 AF1 246 -15.615
44 AF1 247 -9.267
44 AF1 248 1.963
44 AF1 249 12.217
44 AF1 250 16.123
44 AF1 251 13.682
44 AF1 252 7.823
44 AF1 253 2.452
44 AF1 254 -0.478
44 AF1 255 -1.455
# AF2 chan 5
44 AF2 0 5.778
44 AF2 1 3.825
44 AF2 2 -0.081
44 AF2 3 -3.499
44 AF2 4 -4.964
44 AF2 5 -3.988
44 AF2 6 -1.058
44 AF2 7 2.360
44 AF2 8 4.801
44 AF2 9 6.266
44 AF2 10 6.266
44 AF2 11 5.778
44 AF2 12 4.801
44 AF2 13 3.337
44 AF2 14 0.895
44 AF2 15 -1.058
44 AF2 16 -2.523
44 AF2 17 -2.523
44 AF2 18 -1.058
44 AF2 19 0.407
44 AF2 20 0.407
44 AF2 21 -0.570
44 AF2 22 -3.499
44 AF2 23 -4.476
44 AF2 24 -3.011
44 AF2 25 0.895
44 AF2 26 4.313
44 AF2 27 5.778
44 AF2 28 4.313
44 AF2 29 1.383
44 AF2 30 -1.546
44 AF2 31 -1.546
44 AF2 32 0.407
44 AF2 33 2.360
44 AF2 34 2.848
44 AF2 35 1.872
44 AF2 36 0.895
44 AF2 37 1.383
44 AF2 38 3.337
44 AF2 39 6.266
44 AF2 40 8.219
44 AF2 41 7.731
44 AF2 42 5.778
44 AF2 43 3.825
44 AF2 44 1.872
44 AF2 45 -0.081
44 AF2 46 -1.546
44 AF2 47 -3.011
44 AF2 48 -2.523
44 AF2 49 -0.081
44 AF2 50 3.337
44 AF2 51 6.266
44 AF2 52 7.731
44 AF2 53 7.243
44 AF2 54 6.266
44 AF2 55 6.755
44 AF2 56 7.731
44 AF2 57 8.219
44 AF2 58 5.778
44 AF2 59 -0.081
44 AF2 60 -6.917
44 AF2 61 -11.800
44 AF2 62 -12.777
44 AF2 63 -8.382
44 AF2 64 -2.035
44 AF2 65 3.337
44 AF2 66 4.801
44 AF2 67 2.848
44 AF2 68 -2.035
44 AF2 69 -5.452
44 AF2 70 -5.452
44 AF2 71 -2.523
44 AF2 72 2.360
44 AF2 73 5.778
44 AF2 74 6.755
44 AF2 75 6.755
44 AF2 76 7.243
44 AF2 77 9.196
44 AF2 78 11.149
44 AF2 79 11.637
44 AF2 80 9.196
44 AF2 81 5.778
44 AF2 82 3.825
44 AF2 83 4.313
44 AF2 84 6.266
44 AF2 85 6.266
44 AF2 86 2.360
44 AF2 87 -2.523
44 AF2 88 -6.429
44 AF2 89 -5.452
44 AF2 90 0.407
44 AF2 91 6.266
44 AF2 92 9.684
44 AF2 93 8.219
44 AF2 94 5.290
44 AF2 95 3.825
44 AF2 96 5.290
44 AF2 97 10.173
44 AF2 98 14.079
44 AF2 99 14.079
44 AF2 100 10.661
44 AF2 101 5.778
44 AF2 102 2.360
44 AF2 103 1.872
44 AF2 104 3.825
44 AF2 105 8.219
44 AF2 106 13.102
44 AF2 107 17.497
44 AF2 108 20.426
44 AF2 109 19.938
44 AF2 110 15.055
44 AF2 111 6.755
44 AF2 112 -2.035
44 AF2 113 -6.917
44 AF2 114 -4.476
44 AF2 115 2.848
44 AF2 116 12.126
44 AF2 117 18.473
44 AF2 118 19.450
44 AF2 119 16.032
44 AF2 120 10.661
44 AF2 121 7.243
44 AF2 122 6.755
44 AF2 123 8.708
44 AF2 124 11.637
44 AF2 125 13.102
44 AF2 126 11.637
44 AF2 127 8.219
44 AF2 128 5.290
44 AF2 129 4.313
44 AF2 130 6.266
44 AF2 131 11.149
44 AF2 132 15.544
44 AF2 133 18.473
44 AF2 134 17.008
44 AF2 135 11.637
44 AF2 136 5.778
44 AF2 137 1.872
44 AF2 138 1.872
44 AF2 139 5.778
44 AF2 140 11.149
44 AF2 141 15.544
44 AF2 142 17.008
44 AF2 143 15.544
44 AF2 144 12.126
44 AF2 145 7.731
44 AF2 146 3.337
44 AF2 147 0.407
44 AF2 148 0.407
44 AF2 149 4.313
44 AF2 150 10.173
44 AF2 151 15.055
44 AF2 152 15.055
44 AF2 153 10.173
44 AF2 154 3.825
44 AF2 155 -0.081
44 AF2 156 1.383
44 AF2 157 6.266
44 AF2 158 11.637
44 AF2 159 13.102
44 AF2 160 10.173
44 AF2 161 6.755
44 AF2 162 4.801
44 AF2 163 5.778
44 AF2 164 8.219
44 AF2 165 11.149
44 AF2 166 13.102
44 AF2 167 14.079
44 AF2 168 15.055
44 AF2 169 15.544
44 AF2 170 14.079
44 AF2 171 9.684
44 AF2 172 5.290
44 AF2 173 2.848
44 AF2 174 3.825
44 AF2 175 7.731
44 AF2 176 11.637
44 AF2 177 13.102
44 AF2 178 10.661
44 AF2 179 4.801
44 AF2 180 -0.570
44 AF2 181 -3.011
44 AF2 182 -1.058
44 AF2 183 4.313
44 AF2 184 9.684
44 AF2 185 11.637
44 AF2 186 9.196
44 AF2 187 3.337
44 AF2 188 -3.011
44 AF2 189 -6.429
44 AF2 190 -3.499
44 AF2 191 2.848
44 AF2 192 8.708
44 AF2 193 10.173
44 AF2 194 7.243
44 AF2 195 0.895
44 AF2 196 -2.523
44 AF2 197 -1.546
44 AF2 198 2.848
44 AF2 199 6.755
44 AF2 200 6.755
44 AF2 201 1.872
44 AF2 202 -3.988
44 AF2 203 -6.917
44 AF2 204 -4.476
44 AF2 205 1.872
44 AF2 206 7.243
44 AF2 207 8.708
44 AF2 208 6.266
44 AF2 209 3.337
44 AF2 210 2.360
44 AF2 211 4.313
44 AF2 212 6.266
44 AF2 213 6.755
44 AF2 214 3.825
44 AF2 215 -0.081
44 AF2 216 -1.546
44 AF2 217 0.895
44 AF2 218 6.266
44 AF2 219 12.126
44 AF2 220 15.055
44 AF2 221 13.590
44 AF2 222 9.196
44 AF2 223 3.337
44 AF2 224 -2.035
44 AF2 225 -5.452
44 AF2 226 -6.917
44 AF2 227 -6.917
44 AF2 228 -4.964
44 AF2 229 -1.546
44 AF2 230 1.872
44 AF2 231 3.337
44 AF2 232 2.848
44 AF2 233 -0.570
44 AF2 234 -4.964
44 AF2 235 -7.406
44 AF2 236 -7.406
44 AF2 237 -4.964
44 AF2 238 -2.035
44 AF2 239 0.895
44 AF2 240 2.848
44 AF2 241 4.313
44 AF2 242 4.313
44 AF2 243 1.872
44 AF2 244 -3.988
44 AF2 245 -9.847
44 AF2 246 -12.288
44 AF2 247 -8.870
44 AF2 248 -0.570
44 AF2 249 8.219
44 AF2 250 11.637
44 AF2 251 9.196
44 AF2 252 2.360
44 AF2 253 -4.476
44 AF2 254 -7.406
44 AF2 255 -5.941
# FZ chan 6
44 FZ 0 8.169
44 FZ 1 6.704
44 FZ 2 4.751
44 FZ 3 2.797
44 FZ 4 0.356
44 FZ 5 -0.132
44 FZ 6 0.356
44 FZ 7 1.821
44 FZ 8 3.774
44 FZ 9 5.727
44 FZ 10 6.215
44 FZ 11 5.239
44 FZ 12 3.286
44 FZ 13 0.844
44 FZ 14 -1.597
44 FZ 15 -3.550
44 FZ 16 -4.527
44 FZ 17 -4.527
44 FZ 18 -3.062
44 FZ 19 -1.597
44 FZ 20 -0.132
44 FZ 21 -0.132
44 FZ 22 -1.109
44 FZ 23 -3.062
44 FZ 24 -4.038
44 FZ 25 -4.038
44 FZ 26 -2.574
44 FZ 27 -1.109
44 FZ 28 -1.109
44 FZ 29 -2.574
44 FZ 30 -3.550
44 FZ 31 -4.038
44 FZ 32 -2.574
44 FZ 33 -0.132
44 FZ 34 1.821
44 FZ 35 2.797
44 FZ 36 1.821
44 FZ 37 0.356
44 FZ 38 -0.132
44 FZ 39 -0.132
44 FZ 40 1.333
44 FZ 41 2.797
44 FZ 42 3.286
44 FZ 43 3.286
44 FZ 44 2.309
44 FZ 45 2.309
44 FZ 46 2.309
44 FZ 47 2.309
44 FZ 48 2.797
44 FZ 49 4.262
44 FZ 50 5.727
44 FZ 51 7.192
44 FZ 52 8.169
44 FZ 53 8.169
44 FZ 54 8.169
44 FZ 55 8.169
44 FZ 56 8.657
44 FZ 57 7.680
44 FZ 58 5.727
44 FZ 59 1.821
44 FZ 60 -2.085
44 FZ 61 -5.503
44 FZ 62 -6.480
44 FZ 63 -4.527
44 FZ 64 -2.085
44 FZ 65 0.844
44 FZ 66 2.309
44 FZ 67 1.821
44 FZ 68 -0.132
44 FZ 69 -2.085
44 FZ 70 -3.062
44 FZ 71 -3.062
44 FZ 72 -1.109
44 FZ 73 1.333
44 FZ 74 3.286
44 FZ 75 5.239
44 FZ 76 6.215
44 FZ 77 7.192
44 FZ 78 7.680
44 FZ 79 7.192
44 FZ 80 5.727
44 FZ 81 3.774
44 FZ 82 3.286
44 FZ 83 3.774
44 FZ 84 4.751
44 FZ 85 4.262
44 FZ 86 1.821
44 FZ 87 -2.085
44 FZ 88 -4.527
44 FZ 89 -4.527
44 FZ 90 -2.085
44 FZ 91 1.333
44 FZ 92 3.286
44 FZ 93 3.286
44 FZ 94 2.309
44 FZ 95 1.821
44 FZ 96 2.797
44 FZ 97 4.751
44 FZ 98 5.727
44 FZ 99 5.239
44 FZ 100 2.797
44 FZ 101 -0.132
44 FZ 102 -2.085
44 FZ 103 -2.085
44 FZ 104 -0.621
44 FZ 105 1.821
44 FZ 106 4.751
44 FZ 107 7.680
44 FZ 108 10.122
44 FZ 109 10.610
44 FZ 110 8.169
44 FZ 111 3.774
44 FZ 112 0.356
44 FZ 113 -0.132
44 FZ 114 2.797
44 FZ 115 7.680
44 FZ 116 12.563
44 FZ 117 14.516
44 FZ 118 14.028
44 FZ 119 12.075
44 FZ 120 10.122
44 FZ 121 9.145
44 FZ 122 8.657
44 FZ 123 9.145
44 FZ 124 8.657
44 FZ 125 8.169
44 FZ 126 6.704
44 FZ 127 5.727
44 FZ 128 4.751
44 FZ 129 4.751
44 FZ 130 4.751
44 FZ 131 5.727
44 FZ 132 6.215
44 FZ 133 6.704
44 FZ 134 5.727
44 FZ 135 4.262
44 FZ 136 2.309
44 FZ 137 1.821
44 FZ 138 2.309
44 FZ 139 4.262
44 FZ 140 6.215
44 FZ 141 8.169
44 FZ 142 8.657
44 FZ 143 8.169
44 FZ 144 6.704
44 FZ 145 4.262
44 FZ 146 1.821
44 FZ 147 -0.132
44 FZ 148 -0.132
44 FZ 149 1.821
44 FZ 150 5.239
44 FZ 151 8.169
44 FZ 152 9.633
44 FZ 153 8.169
44 FZ 154 5.727
44 FZ 155 4.262
44 FZ 156 4.751
44 FZ 157 5.727
44 FZ 158 6.704
44 FZ 159 6.704
44 FZ 160 5.239
44 FZ 161 4.262
44 FZ 162 4.262
44 FZ 163 5.727
44 FZ 164 7.192
44 FZ 165 7.680
44 FZ 166 8.169
44 FZ 167 9.145
44 FZ 168 10.122
44 FZ 169 11.098
44 FZ 170 10.122
44 FZ 171 8.169
44 FZ 172 4.751
44 FZ 173 2.797
44 FZ 174 2.309
44 FZ 175 4.262
44 FZ 176 6.215
44 FZ 177 6.215
44 FZ 178 4.262
44 FZ 179 0.844
44 FZ 180 -1.597
44 FZ 181 -2.085
44 FZ 182 -0.132
44 FZ 183 3.286
44 FZ 184 6.215
44 FZ 185 6.704
44 FZ 186 5.239
44 FZ 187 1.821
44 FZ 188 -0.621
44 FZ 189 -2.085
44 FZ 190 -1.109
44 FZ 191 1.821
44 FZ 192 4.751
44 FZ 193 6.215
44 FZ 194 5.727
44 FZ 195 2.797
44 FZ 196 0.844
44 FZ 197 -0.132
44 FZ 198 0.844
44 FZ 199 2.797
44 FZ 200 3.286
44 FZ 201 1.821
44 FZ 202 -0.621
44 FZ 203 -2.085
44 FZ 204 -1.109
44 FZ 205 1.821
44 FZ 206 5.727
44 FZ 207 8.169
44 FZ 208 7.680
44 FZ 209 6.215
44 FZ 210 5.239
44 FZ 211 5.239
44 FZ 212 5.727
44 FZ 213 5.727
44 FZ 214 4.262
44 FZ 215 2.797
44 FZ 216 2.309
44 FZ 217 3.774
44 FZ 218 6.704
44 FZ 219 9.633
44 FZ 220 10.122
44 FZ 221 8.657
44 FZ 222 5.727
44 FZ 223 2.797
44 FZ 224 0.356
44 FZ 225 -1.597
44 FZ 226 -2.574
44 FZ 227 -3.550
44 FZ 228 -3.062
44 FZ 229 -1.597
44 FZ 230 0.844
44 FZ 231 2.797
44 FZ 232 3.774
44 FZ 233 2.309
44 FZ 234 0.356
44 FZ 235 -2.574
44 FZ 236 -4.038
44 FZ 237 -4.527
44 FZ 238 -3.550
44 FZ 239 -2.085
44 FZ 240 -0.132
44 FZ 241 1.333
44 FZ 242 1.333
44 FZ 243 -0.621
44 FZ 244 -3.062
44 FZ 245 -5.992
44 FZ 246 -6.480
44 FZ 247 -4.038
44 FZ 248 0.356
44 FZ 249 4.751
44 FZ 250 6.704
44 FZ 251 4.751
44 FZ 252 1.333
44 FZ 253 -2.085
44 FZ 254 -3.550
44 FZ 255 -3.062
# F4 chan 7
44 F4 0 4.934
44 F4 1 4.445
44 F4 2 1.516
44 F4 3 -0.926
44 F4 4 -2.879
44 F4 5 -1.902
44 F4 6 1.027
44 F4 7 3.957
44 F4 8 6.887
44 F4 9 7.863
44 F4 10 8.352
44 F4 11 7.375
44 F4 12 5.422
44 F4 13 2.981
44 F4 14 0.539
44 F4 15 -1.414
44 F4 16 -2.391
44 F4 17 -1.902
44 F4 18 -0.437
44 F4 19 0.539
44 F4 20 1.027
44 F4 21 0.051
44 F4 22 -1.414
44 F4 23 -1.902
44 F4 24 -1.414
44 F4 25 0.539
44 F4 26 2.492
44 F4 27 3.469
44 F4 28 2.492
44 F4 29 0.539
44 F4 30 -0.437
44 F4 31 0.051
44 F4 32 1.516
44 F4 33 3.469
44 F4 34 3.957
44 F4 35 4.445
44 F4 36 3.957
44 F4 37 4.445
44 F4 38 5.910
44 F4 39 7.375
44 F4 40 7.863
44 F4 41 6.887
44 F4 42 5.910
44 F4 43 4.934
44 F4 44 4.445
44 F4 45 3.469
44 F4 46 2.492
44 F4 47 1.516
44 F4 48 0.539
44 F4 49 1.516
44 F4 50 3.957
44 F4 51 6.887
44 F4 52 8.352
44 F4 53 8.352
44 F4 54 7.375
44 F4 55 7.863
44 F4 56 8.352
44 F4 57 8.352
44 F4 58 6.399
44 F4 59 2.004
44 F4 60 -3.855
44 F4 61 -8.250
44 F4 62 -9.715
44 F4 63 -6.785
44 F4 64 -1.414
44 F4 65 3.957
44 F4 66 5.910
44 F4 67 4.445
44 F4 68 1.027
44 F4 69 -1.414
44 F4 70 -1.414
44 F4 71 1.027
44 F4 72 3.957
44 F4 73 5.910
44 F4 74 5.910
44 F4 75 5.422
44 F4 76 6.887
44 F4 77 9.816
44 F4 78 12.746
44 F4 79 13.723
44 F4 80 11.770
44 F4 81 7.863
44 F4 82 4.934
44 F4 83 4.934
44 F4 84 5.910
44 F4 85 6.887
44 F4 86 4.934
44 F4 87 2.004
44 F4 88 -0.437
44 F4 89 -0.437
44 F4 90 2.004
44 F4 91 5.422
44 F4 92 7.863
44 F4 93 7.375
44 F4 94 6.887
44 F4 95 6.399
44 F4 96 8.352
44 F4 97 11.281
44 F4 98 12.746
44 F4 99 11.770
44 F4 100 8.352
44 F4 101 4.934
44 F4 102 3.469
44 F4 103 3.957
44 F4 104 6.399
44 F4 105 8.840
44 F4 106 11.281
44 F4 107 14.211
44 F4 108 16.164
44 F4 109 16.164
44 F4 110 12.746
44 F4 111 6.399
44 F4 112 0.051
44 F4 113 -2.391
44 F4 114 -0.437
44 F4 115 6.887
44 F4 116 14.211
44 F4 117 18.606
44 F4 118 18.606
44 F4 119 14.211
44 F4 120 10.305
44 F4 121 7.863
44 F4 122 8.840
44 F4 123 11.281
44 F4 124 13.234
44 F4 125 13.234
44 F4 126 11.281
44 F4 127 8.352
44 F4 128 5.422
44 F4 129 5.422
44 F4 130 7.863
44 F4 131 12.258
44 F4 132 16.164
44 F4 133 17.629
44 F4 134 15.676
44 F4 135 10.793
44 F4 136 5.422
44 F4 137 2.492
44 F4 138 2.981
44 F4 139 6.399
44 F4 140 10.793
44 F4 141 13.723
44 F4 142 14.211
44 F4 143 12.746
44 F4 144 10.305
44 F4 145 7.863
44 F4 146 5.422
44 F4 147 2.492
44 F4 148 1.516
44 F4 149 3.469
44 F4 150 7.375
44 F4 151 11.281
44 F4 152 12.258
44 F4 153 8.840
44 F4 154 3.469
44 F4 155 0.539
44 F4 156 2.004
44 F4 157 6.887
44 F4 158 11.770
44 F4 159 13.234
44 F4 160 9.816
44 F4 161 5.910
44 F4 162 3.469
44 F4 163 4.445
44 F4 164 8.352
44 F4 165 11.281
44 F4 166 13.723
44 F4 167 14.211
44 F4 168 14.211
44 F4 169 13.723
44 F4 170 12.258
44 F4 171 9.328
44 F4 172 5.422
44 F4 173 2.981
44 F4 174 2.981
44 F4 175 5.910
44 F4 176 9.816
44 F4 177 12.258
44 F4 178 11.281
44 F4 179 7.863
44 F4 180 3.469
44 F4 181 1.027
44 F4 182 2.004
44 F4 183 5.910
44 F4 184 10.305
44 F4 185 12.258
44 F4 186 9.328
44 F4 187 3.469
44 F4 188 -2.391
44 F4 189 -4.344
44 F4 190 -0.926
44 F4 191 5.422
44 F4 192 10.305
44 F4 193 10.793
44 F4 194 6.399
44 F4 195 0.539
44 F4 196 -1.902
44 F4 197 0.539
44 F4 198 5.422
44 F4 199 8.840
44 F4 200 7.863
44 F4 201 2.981
44 F4 202 -1.902
44 F4 203 -3.367
44 F4 204 -0.437
44 F4 205 4.445
44 F4 206 8.352
44 F4 207 8.352
44 F4 208 4.934
44 F4 209 1.516
44 F4 210 0.539
44 F4 211 2.492
44 F4 212 5.422
44 F4 213 5.910
44 F4 214 3.957
44 F4 215 1.027
44 F4 216 0.051
44 F4 217 2.004
44 F4 218 6.887
44 F4 219 11.281
44 F4 220 13.234
44 F4 221 12.258
44 F4 222 8.352
44 F4 223 2.981
44 F4 224 -0.926
44 F4 225 -3.855
44 F4 226 -4.832
44 F4 227 -4.344
44 F4 228 -2.391
44 F4 229 0.051
44 F4 230 2.492
44 F4 231 2.981
44 F4 232 1.516
44 F4 233 -1.414
44 F4 234 -3.855
44 F4 235 -5.320
44 F4 236 -3.855
44 F4 237 -2.391
44 F4 238 -0.437
44 F4 239 0.539
44 F4 240 2.004
44 F4 241 3.957
44 F4 242 4.445
44 F4 243 2.492
44 F4 244 -1.414
44 F4 245 -6.297
44 F4 246 -7.762
44 F4 247 -5.809
44 F4 248 0.051
44 F4 249 6.399
44 F4 250 9.328
44 F4 251 7.375
44 F4 252 2.492
44 F4 253 -2.879
44 F4 254 -4.832
44 F4 255 -3.855
# F3 chan 8
44 F3 0 7.345
44 F3 1 6.856
44 F3 2 6.368
44 F3 3 5.880
44 F3 4 4.415
44 F3 5 1.485
44 F3 6 0.020
44 F3 7 0.997
44 F3 8 3.438
44 F3 9 6.368
44 F3 10 7.833
44 F3 11 6.368
44 F3 12 3.438
44 F3 13 0.997
44 F3 14 -0.956
44 F3 15 -1.444
44 F3 16 -1.444
44 F3 17 -1.444
44 F3 18 -0.468
44 F3 19 0.997
44 F3 20 1.973
44 F3 21 1.973
44 F3 22 0.509
44 F3 23 -1.444
44 F3 24 -1.444
44 F3 25 -0.468
44 F3 26 1.485
44 F3 27 1.973
44 F3 28 0.997
44 F3 29 -0.956
44 F3 30 -1.444
44 F3 31 -0.956
44 F3 32 0.509
44 F3 33 1.973
44 F3 34 1.485
44 F3 35 0.997
44 F3 36 1.485
44 F3 37 2.950
44 F3 38 3.927
44 F3 39 3.438
44 F3 40 1.485
44 F3 41 -0.468
44 F3 42 0.020
44 F3 43 2.950
44 F3 44 5.880
44 F3 45 6.856
44 F3 46 4.903
44 F3 47 1.485
44 F3 48 0.020
44 F3 49 2.950
44 F3 50 7.833
44 F3 51 12.716
44 F3 52 14.669
44 F3 53 13.204
44 F3 54 10.763
44 F3 55 9.298
44 F3 56 8.809
44 F3 57 7.345
44 F3 58 4.415
44 F3 59 0.997
44 F3 60 -1.444
44 F3 61 -0.956
44 F3 62 0.997
44 F3 63 3.927
44 F3 64 5.391
44 F3 65 6.368
44 F3 66 7.345
44 F3 67 8.809
44 F3 68 9.786
44 F3 69 8.809
44 F3 70 6.368
44 F3 71 3.927
44 F3 72 4.415
44 F3 73 7.345
44 F3 74 12.227
44 F3 75 16.134
44 F3 76 17.598
44 F3 77 17.110
44 F3 78 15.645
44 F3 79 13.692
44 F3 80 11.739
44 F3 81 11.251
44 F3 82 12.227
44 F3 83 14.181
44 F3 84 16.134
44 F3 85 15.645
44 F3 86 12.716
44 F3 87 8.321
44 F3 88 5.391
44 F3 89 5.391
44 F3 90 8.321
44 F3 91 12.227
44 F3 92 13.692
44 F3 93 13.204
44 F3 94 12.227
44 F3 95 12.227
44 F3 96 14.669
44 F3 97 16.622
44 F3 98 17.598
44 F3 99 16.134
44 F3 100 11.739
44 F3 101 8.321
44 F3 102 5.880
44 F3 103 5.880
44 F3 104 7.345
44 F3 105 11.251
44 F3 106 15.157
44 F3 107 19.063
44 F3 108 20.528
44 F3 109 17.598
44 F3 110 11.251
44 F3 111 4.415
44 F3 112 1.973
44 F3 113 4.903
44 F3 114 11.739
44 F3 115 17.598
44 F3 116 19.063
44 F3 117 17.110
44 F3 118 13.692
44 F3 119 11.739
44 F3 120 11.739
44 F3 121 11.739
44 F3 122 10.763
44 F3 123 8.809
44 F3 124 7.833
44 F3 125 8.809
44 F3 126 11.251
44 F3 127 13.204
44 F3 128 13.204
44 F3 129 11.739
44 F3 130 10.274
44 F3 131 9.786
44 F3 132 8.809
44 F3 133 7.833
44 F3 134 5.880
44 F3 135 5.391
44 F3 136 6.856
44 F3 137 10.274
44 F3 138 14.181
44 F3 139 15.157
44 F3 140 13.692
44 F3 141 11.739
44 F3 142 10.763
44 F3 143 11.251
44 F3 144 11.251
44 F3 145 9.298
44 F3 146 5.391
44 F3 147 2.462
44 F3 148 3.438
44 F3 149 7.833
44 F3 150 12.227
44 F3 151 13.692
44 F3 152 11.251
44 F3 153 6.368
44 F3 154 3.927
44 F3 155 3.927
44 F3 156 6.368
44 F3 157 8.321
44 F3 158 8.321
44 F3 159 7.345
44 F3 160 6.368
44 F3 161 6.368
44 F3 162 6.856
44 F3 163 5.391
44 F3 164 3.438
44 F3 165 1.973
44 F3 166 3.927
44 F3 167 9.786
44 F3 168 16.622
44 F3 169 21.505
44 F3 170 21.505
44 F3 171 16.622
44 F3 172 9.298
44 F3 173 4.415
44 F3 174 4.415
44 F3 175 7.833
44 F3 176 11.739
44 F3 177 11.739
44 F3 178 8.321
44 F3 179 2.950
44 F3 180 0.020
44 F3 181 1.973
44 F3 182 8.809
44 F3 183 15.157
44 F3 184 18.087
44 F3 185 15.157
44 F3 186 8.809
44 F3 187 1.973
44 F3 188 -2.421
44 F3 189 -3.398
44 F3 190 -1.444
44 F3 191 1.485
44 F3 192 5.391
44 F3 193 9.298
44 F3 194 13.204
44 F3 195 14.181
44 F3 196 13.204
44 F3 197 9.298
44 F3 198 4.903
44 F3 199 1.973
44 F3 200 0.020
44 F3 201 -1.444
44 F3 202 -3.398
44 F3 203 -5.351
44 F3 204 -3.886
44 F3 205 0.509
44 F3 206 7.345
44 F3 207 13.204
44 F3 208 16.134
44 F3 209 15.645
44 F3 210 14.181
44 F3 211 12.227
44 F3 212 10.763
44 F3 213 8.321
44 F3 214 4.903
44 F3 215 2.462
44 F3 216 1.973
44 F3 217 3.927
44 F3 218 6.856
44 F3 219 8.321
44 F3 220 7.833
44 F3 221 5.880
44 F3 222 3.927
44 F3 223 2.462
44 F3 224 0.509
44 F3 225 -1.933
44 F3 226 -4.374
44 F3 227 -5.351
44 F3 228 -4.374
44 F3 229 -1.444
44 F3 230 2.950
44 F3 231 6.368
44 F3 232 7.345
44 F3 233 6.856
44 F3 234 5.391
44 F3 235 3.438
44 F3 236 1.485
44 F3 237 0.020
44 F3 238 -1.444
44 F3 239 -1.444
44 F3 240 0.020
44 F3 241 2.462
44 F3 242 3.927
44 F3 243 2.462
44 F3 244 -2.421
44 F3 245 -7.792
44 F3 246 -9.745
44 F3 247 -5.351
44 F3 248 3.438
44 F3 249 13.204
44 F3 250 18.087
44 F3 251 17.110
44 F3 252 11.251
44 F3 253 4.415
44 F3 254 -0.468
44 F3 255 -1.933
# FC6 chan 9
44 FC6 0 -1.506
44 FC6 1 -1.017
44 FC6 2 -1.994
44 FC6 3 -3.459
44 FC6 4 -3.947
44 FC6 5 -3.459
44 FC6 6 -1.017
44 FC6 7 1.424
44 FC6 8 3.377
44 FC6 9 4.354
44 FC6 10 4.354
44 FC6 11 4.354
44 FC6 12 3.866
44 FC6 13 3.866
44 FC6 14 4.354
44 FC6 15 4.354
44 FC6 16 3.866
44 FC6 17 3.377
44 FC6 18 1.912
44 FC6 19 0.936
44 FC6 20 -0.529
44 FC6 21 -1.017
44 FC6 22 -1.506
44 FC6 23 -1.506
44 FC6 24 -0.041
44 FC6 25 2.401
44 FC6 26 4.354
44 FC6 27 5.330
44 FC6 28 4.354
44 FC6 29 2.401
44 FC6 30 0.936
44 FC6 31 0.448
44 FC6 32 1.912
44 FC6 33 3.866
44 FC6 34 4.842
44 FC6 35 4.842
44 FC6 36 4.354
44 FC6 37 4.354
44 FC6 38 5.330
44 FC6 39 6.795
44 FC6 40 7.772
44 FC6 41 6.795
44 FC6 42 5.330
44 FC6 43 3.866
44 FC6 44 2.401
44 FC6 45 1.424
44 FC6 46 0.448
44 FC6 47 -0.529
44 FC6 48 -1.017
44 FC6 49 -0.529
44 FC6 50 1.424
44 FC6 51 3.377
44 FC6 52 4.842
44 FC6 53 5.819
44 FC6 54 4.842
44 FC6 55 4.354
44 FC6 56 3.377
44 FC6 57 2.401
44 FC6 58 1.912
44 FC6 59 -0.041
44 FC6 60 -1.994
44 FC6 61 -3.947
44 FC6 62 -4.435
44 FC6 63 -3.459
44 FC6 64 -0.041
44 FC6 65 3.377
44 FC6 66 5.330
44 FC6 67 4.842
44 FC6 68 2.889
44 FC6 69 1.424
44 FC6 70 1.424
44 FC6 71 2.401
44 FC6 72 3.377
44 FC6 73 3.866
44 FC6 74 3.866
44 FC6 75 4.842
44 FC6 76 7.284
44 FC6 77 10.701
44 FC6 78 13.143
44 FC6 79 13.631
44 FC6 80 11.190
44 FC6 81 7.284
44 FC6 82 4.354
44 FC6 83 2.889
44 FC6 84 2.889
44 FC6 85 3.377
44 FC6 86 3.866
44 FC6 87 4.354
44 FC6 88 4.842
44 FC6 89 4.842
44 FC6 90 4.842
44 FC6 91 4.842
44 FC6 92 4.354
44 FC6 93 4.842
44 FC6 94 6.795
44 FC6 95 10.213
44 FC6 96 14.608
44 FC6 97 16.561
44 FC6 98 16.561
44 FC6 99 14.119
44 FC6 100 11.190
44 FC6 101 9.237
44 FC6 102 9.725
44 FC6 103 11.190
44 FC6 104 12.166
44 FC6 105 12.166
44 FC6 106 11.678
44 FC6 107 11.190
44 FC6 108 10.701
44 FC6 109 10.213
44 FC6 110 8.748
44 FC6 111 6.307
44 FC6 112 4.354
44 FC6 113 4.354
44 FC6 114 6.795
44 FC6 115 9.725
44 FC6 116 12.655
44 FC6 117 13.143
44 FC6 118 11.190
44 FC6 119 7.772
44 FC6 120 5.819
44 FC6 121 5.330
44 FC6 122 7.284
44 FC6 123 10.213
44 FC6 124 11.678
44 FC6 125 11.678
44 FC6 126 9.725
44 FC6 127 7.284
44 FC6 128 6.795
44 FC6 129 7.772
44 FC6 130 11.190
44 FC6 131 16.073
44 FC6 132 19.491
44 FC6 133 20.955
44 FC6 134 19.002
44 FC6 135 14.608
44 FC6 136 10.213
44 FC6 137 7.284
44 FC6 138 6.795
44 FC6 139 8.260
44 FC6 140 10.213
44 FC6 141 11.190
44 FC6 142 10.701
44 FC6 143 10.213
44 FC6 144 9.237
44 FC6 145 8.748
44 FC6 146 7.772
44 FC6 147 6.795
44 FC6 148 6.795
44 FC6 149 8.260
44 FC6 150 10.213
44 FC6 151 11.678
44 FC6 152 10.701
44 FC6 153 7.772
44 FC6 154 4.354
44 FC6 155 2.889
44 FC6 156 4.842
44 FC6 157 8.748
44 FC6 158 12.166
44 FC6 159 12.166
44 FC6 160 9.725
44 FC6 161 5.819
44 FC6 162 3.866
44 FC6 163 4.842
44 FC6 164 7.772
44 FC6 165 11.678
44 FC6 166 15.096
44 FC6 167 17.049
44 FC6 168 17.049
44 FC6 169 16.073
44 FC6 170 12.655
44 FC6 171 9.237
44 FC6 172 5.819
44 FC6 173 4.354
44 FC6 174 4.842
44 FC6 175 6.307
44 FC6 176 7.772
44 FC6 177 8.748
44 FC6 178 9.237
44 FC6 179 8.260
44 FC6 180 7.284
44 FC6 181 6.307
44 FC6 182 5.330
44 FC6 183 5.330
44 FC6 184 6.307
44 FC6 185 6.307
44 FC6 186 5.330
44 FC6 187 2.401
44 FC6 188 -0.529
44 FC6 189 -1.017
44 FC6 190 1.424
44 FC6 191 6.307
44 FC6 192 9.237
44 FC6 193 8.260
44 FC6 194 4.354
44 FC6 195 -0.529
44 FC6 196 -2.482
44 FC6 197 0.448
44 FC6 198 5.330
44 FC6 199 8.260
44 FC6 200 6.795
44 FC6 201 2.889
44 FC6 202 -0.529
44 FC6 203 -1.506
44 FC6 204 1.424
44 FC6 205 5.819
44 FC6 206 8.748
44 FC6 207 8.748
44 FC6 208 6.307
44 FC6 209 3.377
44 FC6 210 2.401
44 FC6 211 3.377
44 FC6 212 4.842
44 FC6 213 5.330
44 FC6 214 4.842
44 FC6 215 3.866
44 FC6 216 4.354
44 FC6 217 6.795
44 FC6 218 9.725
44 FC6 219 11.678
44 FC6 220 11.190
44 FC6 221 8.748
44 FC6 222 5.819
44 FC6 223 3.377
44 FC6 224 1.912
44 FC6 225 1.424
44 FC6 226 1.424
44 FC6 227 1.912
44 FC6 228 2.401
44 FC6 229 2.889
44 FC6 230 3.866
44 FC6 231 3.866
44 FC6 232 3.377
44 FC6 233 1.424
44 FC6 234 -0.041
44 FC6 235 -0.529
44 FC6 236 -0.529
44 FC6 237 -0.041
44 FC6 238 0.448
44 FC6 239 1.424
44 FC6 240 2.401
44 FC6 241 4.354
44 FC6 242 5.330
44 FC6 243 4.842
44 FC6 244 1.912
44 FC6 245 -1.017
44 FC6 246 -2.970
44 FC6 247 -1.506
44 FC6 248 2.401
44 FC6 249 6.795
44 FC6 250 8.748
44 FC6 251 8.260
44 FC6 252 5.330
44 FC6 253 2.401
44 FC6 254 1.424
44 FC6 255 1.912
# FC5 chan 10
44 FC5 0 -0.661
44 FC5 1 -0.661
44 FC5 2 1.780
44 FC5 3 5.198
44 FC5 4 6.663
44 FC5 5 6.175
44 FC5 6 3.245
44 FC5 7 0.804
44 FC5 8 0.315
44 FC5 9 1.780
44 FC5 10 2.757
44 FC5 11 3.245
44 FC5 12 2.757
44 FC5 13 1.780
44 FC5 14 1.780
44 FC5 15 2.268
44 FC5 16 3.245
44 FC5 17 3.245
44 FC5 18 3.245
44 FC5 19 3.733
44 FC5 20 4.710
44 FC5 21 5.198
44 FC5 22 5.198
44 FC5 23 4.710
44 FC5 24 4.222
44 FC5 25 4.710
44 FC5 26 5.198
44 FC5 27 4.710
44 FC5 28 4.222
44 FC5 29 3.245
44 FC5 30 3.245
44 FC5 31 4.710
44 FC5 32 6.175
44 FC5 33 7.151
44 FC5 34 6.175
44 FC5 35 4.222
44 FC5 36 2.757
44 FC5 37 2.268
44 FC5 38 2.268
44 FC5 39 2.757
44 FC5 40 3.245
44 FC5 41 3.733
44 FC5 42 4.710
44 FC5 43 6.175
44 FC5 44 6.663
44 FC5 45 5.686
44 FC5 46 2.757
44 FC5 47 0.315
44 FC5 48 -0.173
44 FC5 49 2.268
44 FC5 50 6.663
44 FC5 51 9.593
44 FC5 52 10.569
44 FC5 53 9.104
44 FC5 54 6.663
44 FC5 55 5.198
44 FC5 56 4.710
44 FC5 57 5.198
44 FC5 58 4.710
44 FC5 59 4.222
44 FC5 60 2.757
44 FC5 61 1.780
44 FC5 62 2.268
44 FC5 63 3.733
44 FC5 64 6.175
44 FC5 65 9.593
44 FC5 66 12.034
44 FC5 67 13.011
44 FC5 68 11.546
44 FC5 69 8.616
44 FC5 70 6.175
44 FC5 71 5.198
44 FC5 72 6.663
44 FC5 73 10.081
44 FC5 74 13.011
44 FC5 75 14.476
44 FC5 76 14.476
44 FC5 77 13.499
44 FC5 78 13.011
44 FC5 79 13.011
44 FC5 80 13.011
44 FC5 81 12.034
44 FC5 82 10.569
44 FC5 83 9.104
44 FC5 84 8.128
44 FC5 85 7.151
44 FC5 86 6.663
44 FC5 87 6.175
44 FC5 88 6.663
44 FC5 89 8.128
44 FC5 90 10.081
44 FC5 91 11.058
44 FC5 92 10.569
44 FC5 93 8.616
44 FC5 94 6.663
44 FC5 95 5.686
44 FC5 96 8.128
44 FC5 97 11.058
44 FC5 98 13.499
44 FC5 99 14.476
44 FC5 100 13.011
44 FC5 101 10.081
44 FC5 102 8.128
44 FC5 103 8.128
44 FC5 104 9.593
44 FC5 105 11.058
44 FC5 106 12.034
44 FC5 107 11.058
44 FC5 108 9.104
44 FC5 109 6.175
44 FC5 110 4.222
44 FC5 111 5.686
44 FC5 112 9.104
44 FC5 113 13.987
44 FC5 114 17.405
44 FC5 115 16.917
44 FC5 116 13.987
44 FC5 117 10.081
44 FC5 118 8.128
44 FC5 119 8.128
44 FC5 120 8.128
44 FC5 121 6.663
44 FC5 122 3.245
44 FC5 123 1.292
44 FC5 124 2.268
44 FC5 125 7.151
44 FC5 126 12.522
44 FC5 127 14.964
44 FC5 128 14.476
44 FC5 129 11.058
44 FC5 130 8.616
44 FC5 131 7.151
44 FC5 132 7.151
44 FC5 133 7.151
44 FC5 134 7.640
44 FC5 135 8.616
44 FC5 136 11.058
44 FC5 137 13.011
44 FC5 138 12.522
44 FC5 139 10.081
44 FC5 140 6.175
44 FC5 141 4.710
44 FC5 142 6.663
44 FC5 143 10.081
44 FC5 144 13.011
44 FC5 145 12.522
44 FC5 146 9.593
44 FC5 147 7.151
44 FC5 148 6.175
44 FC5 149 8.128
44 FC5 150 10.081
44 FC5 151 11.058
44 FC5 152 10.081
44 FC5 153 8.616
44 FC5 154 7.640
44 FC5 155 7.151
44 FC5 156 7.151
44 FC5 157 6.663
44 FC5 158 6.175
44 FC5 159 6.663
44 FC5 160 6.175
44 FC5 161 5.686
44 FC5 162 5.198
44 FC5 163 4.710
44 FC5 164 5.686
44 FC5 165 8.128
44 FC5 166 11.546
44 FC5 167 14.476
44 FC5 168 15.940
44 FC5 169 14.964
44 FC5 170 13.011
44 FC5 171 11.058
44 FC5 172 10.081
44 FC5 173 9.104
44 FC5 174 9.104
44 FC5 175 9.593
44 FC5 176 9.593
44 FC5 177 9.104
44 FC5 178 8.616
44 FC5 179 7.640
44 FC5 180 6.663
44 FC5 181 7.151
44 FC5 182 8.616
44 FC5 183 9.593
44 FC5 184 9.593
44 FC5 185 7.151
44 FC5 186 3.733
44 FC5 187 1.292
44 FC5 188 0.315
44 FC5 189 1.780
44 FC5 190 4.222
44 FC5 191 7.151
44 FC5 192 9.593
44 FC5 193 11.546
44 FC5 194 13.011
44 FC5 195 13.499
44 FC5 196 13.011
44 FC5 197 10.569
44 FC5 198 7.640
44 FC5 199 4.710
44 FC5 200 1.780
44 FC5 201 0.315
44 FC5 202 -0.173
44 FC5 203 0.804
44 FC5 204 3.245
44 FC5 205 6.663
44 FC5 206 10.081
44 FC5 207 12.034
44 FC5 208 13.011
44 FC5 209 12.034
44 FC5 210 10.569
44 FC5 211 8.616
44 FC5 212 7.151
44 FC5 213 6.175
44 FC5 214 6.175
44 FC5 215 6.663
44 FC5 216 6.663
44 FC5 217 6.175
44 FC5 218 4.710
44 FC5 219 3.733
44 FC5 220 3.245
44 FC5 221 4.222
44 FC5 222 5.198
44 FC5 223 5.198
44 FC5 224 3.245
44 FC5 225 0.315
44 FC5 226 -2.126
44 FC5 227 -3.103
44 FC5 228 -2.126
44 FC5 229 0.315
44 FC5 230 4.222
44 FC5 231 7.640
44 FC5 232 10.081
44 FC5 233 11.546
44 FC5 234 11.058
44 FC5 235 9.104
44 FC5 236 5.686
44 FC5 237 2.268
44 FC5 238 -0.661
44 FC5 239 -1.638
44 FC5 240 -0.661
44 FC5 241 1.780
44 FC5 242 3.245
44 FC5 243 3.245
44 FC5 244 0.804
44 FC5 245 -1.638
44 FC5 246 -1.638
44 FC5 247 2.268
44 FC5 248 8.616
44 FC5 249 14.964
44 FC5 250 17.893
44 FC5 251 16.429
44 FC5 252 11.058
44 FC5 253 5.686
44 FC5 254 2.757
44 FC5 255 2.757
# FC2 chan 11
44 FC2 0 3.082
44 FC2 1 2.594
44 FC2 2 1.129
44 FC2 3 -0.336
44 FC2 4 -1.312
44 FC2 5 -0.824
44 FC2 6 0.641
44 FC2 7 2.106
44 FC2 8 3.571
44 FC2 9 4.059
44 FC2 10 4.059
44 FC2 11 3.571
44 FC2 12 2.594
44 FC2 13 1.129
44 FC2 14 -0.336
44 FC2 15 -1.801
44 FC2 16 -2.777
44 FC2 17 -2.777
44 FC2 18 -2.289
44 FC2 19 -0.824
44 FC2 20 -0.336
44 FC2 21 -0.336
44 FC2 22 -0.824
44 FC2 23 -1.312
44 FC2 24 -1.801
44 FC2 25 -1.801
44 FC2 26 -1.801
44 FC2 27 -1.312
44 FC2 28 -1.801
44 FC2 29 -2.289
44 FC2 30 -2.777
44 FC2 31 -3.265
44 FC2 32 -2.777
44 FC2 33 -1.801
44 FC2 34 -0.336
44 FC2 35 0.153
44 FC2 36 0.153
44 FC2 37 0.153
44 FC2 38 0.153
44 FC2 39 0.641
44 FC2 40 1.129
44 FC2 41 1.129
44 FC2 42 1.129
44 FC2 43 0.641
44 FC2 44 0.641
44 FC2 45 0.641
44 FC2 46 1.129
44 FC2 47 1.617
44 FC2 48 2.106
44 FC2 49 2.106
44 FC2 50 2.594
44 FC2 51 2.594
44 FC2 52 3.082
44 FC2 53 3.571
44 FC2 54 5.035
44 FC2 55 5.524
44 FC2 56 6.012
44 FC2 57 5.035
44 FC2 58 3.082
44 FC2 59 0.641
44 FC2 60 -1.801
44 FC2 61 -2.777
44 FC2 62 -3.265
44 FC2 63 -2.289
44 FC2 64 -0.824
44 FC2 65 1.129
44 FC2 66 1.617
44 FC2 67 1.129
44 FC2 68 0.153
44 FC2 69 -1.312
44 FC2 70 -1.801
44 FC2 71 -1.801
44 FC2 72 -0.824
44 FC2 73 0.153
44 FC2 74 1.129
44 FC2 75 2.106
44 FC2 76 3.082
44 FC2 77 4.059
44 FC2 78 5.524
44 FC2 79 5.035
44 FC2 80 4.059
44 FC2 81 2.594
44 FC2 82 1.129
44 FC2 83 1.129
44 FC2 84 1.129
44 FC2 85 1.129
44 FC2 86 0.641
44 FC2 87 0.153
44 FC2 88 -0.824
44 FC2 89 -0.336
44 FC2 90 0.641
44 FC2 91 1.129
44 FC2 92 1.617
44 FC2 93 2.106
44 FC2 94 2.594
44 FC2 95 3.082
44 FC2 96 4.059
44 FC2 97 4.547
44 FC2 98 4.547
44 FC2 99 3.082
44 FC2 100 1.617
44 FC2 101 0.641
44 FC2 102 0.641
44 FC2 103 1.129
44 FC2 104 2.106
44 FC2 105 2.594
44 FC2 106 3.082
44 FC2 107 4.059
44 FC2 108 4.547
44 FC2 109 4.547
44 FC2 110 3.571
44 FC2 111 2.106
44 FC2 112 0.153
44 FC2 113 0.153
44 FC2 114 2.106
44 FC2 115 4.547
44 FC2 116 6.989
44 FC2 117 7.965
44 FC2 118 7.965
44 FC2 119 6.989
44 FC2 120 6.012
44 FC2 121 5.524
44 FC2 122 5.524
44 FC2 123 6.012
44 FC2 124 6.012
44 FC2 125 5.524
44 FC2 126 4.547
44 FC2 127 3.571
44 FC2 128 3.082
44 FC2 129 3.082
44 FC2 130 4.059
44 FC2 131 5.524
44 FC2 132 6.989
44 FC2 133 7.477
44 FC2 134 6.500
44 FC2 135 4.547
44 FC2 136 2.594
44 FC2 137 1.129
44 FC2 138 1.617
44 FC2 139 2.594
44 FC2 140 4.547
44 FC2 141 5.035
44 FC2 142 5.035
44 FC2 143 4.547
44 FC2 144 4.059
44 FC2 145 3.571
44 FC2 146 2.594
44 FC2 147 1.617
44 FC2 148 1.617
44 FC2 149 2.106
44 FC2 150 4.059
44 FC2 151 5.524
44 FC2 152 6.012
44 FC2 153 5.035
44 FC2 154 3.082
44 FC2 155 2.106
44 FC2 156 3.082
44 FC2 157 4.059
44 FC2 158 5.035
44 FC2 159 5.035
44 FC2 160 3.571
44 FC2 161 2.594
44 FC2 162 2.106
44 FC2 163 3.082
44 FC2 164 4.547
44 FC2 165 5.524
44 FC2 166 6.012
44 FC2 167 6.500
44 FC2 168 6.500
44 FC2 169 6.500
44 FC2 170 5.035
44 FC2 171 3.082
44 FC2 172 1.129
44 FC2 173 -0.336
44 FC2 174 -0.336
44 FC2 175 0.641
44 FC2 176 2.106
44 FC2 177 2.594
44 FC2 178 2.106
44 FC2 179 1.129
44 FC2 180 0.153
44 FC2 181 -0.336
44 FC2 182 0.153
44 FC2 183 1.129
44 FC2 184 2.594
44 FC2 185 3.082
44 FC2 186 2.106
44 FC2 187 0.153
44 FC2 188 -2.289
44 FC2 189 -3.265
44 FC2 190 -2.777
44 FC2 191 -0.336
44 FC2 192 2.106
44 FC2 193 2.106
44 FC2 194 0.641
44 FC2 195 -2.289
44 FC2 196 -3.754
44 FC2 197 -3.754
44 FC2 198 -1.312
44 FC2 199 0.641
44 FC2 200 1.129
44 FC2 201 -0.336
44 FC2 202 -1.801
44 FC2 203 -2.289
44 FC2 204 -1.312
44 FC2 205 1.129
44 FC2 206 2.594
44 FC2 207 3.082
44 FC2 208 1.617
44 FC2 209 0.153
44 FC2 210 -0.336
44 FC2 211 0.153
44 FC2 212 1.617
44 FC2 213 2.106
44 FC2 214 1.617
44 FC2 215 0.641
44 FC2 216 0.153
44 FC2 217 1.129
44 FC2 218 2.594
44 FC2 219 4.059
44 FC2 220 3.571
44 FC2 221 2.594
44 FC2 222 0.641
44 FC2 223 -1.312
44 FC2 224 -2.777
44 FC2 225 -2.777
44 FC2 226 -3.265
44 FC2 227 -2.777
44 FC2 228 -2.777
44 FC2 229 -2.289
44 FC2 230 -1.312
44 FC2 231 -0.824
44 FC2 232 -1.312
44 FC2 233 -2.777
44 FC2 234 -3.754
44 FC2 235 -5.219
44 FC2 236 -5.219
44 FC2 237 -4.730
44 FC2 238 -3.754
44 FC2 239 -3.265
44 FC2 240 -2.777
44 FC2 241 -2.289
44 FC2 242 -2.289
44 FC2 243 -3.265
44 FC2 244 -4.242
44 FC2 245 -5.707
44 FC2 246 -5.707
44 FC2 247 -4.242
44 FC2 248 -2.289
44 FC2 249 -0.336
44 FC2 250 0.153
44 FC2 251 -0.336
44 FC2 252 -1.312
44 FC2 253 -2.289
44 FC2 254 -2.777
44 FC2 255 -2.777
# FC1 chan 12
44 FC1 0 2.920
44 FC1 1 1.943
44 FC1 2 1.455
44 FC1 3 0.966
44 FC1 4 0.478
44 FC1 5 -0.010
44 FC1 6 -0.498
44 FC1 7 -0.498
44 FC1 8 0.478
44 FC1 9 1.455
44 FC1 10 2.431
44 FC1 11 1.943
44 FC1 12 0.966
44 FC1 13 -0.498
44 FC1 14 -1.475
44 FC1 15 -1.963
44 FC1 16 -2.452
44 FC1 17 -2.452
44 FC1 18 -2.452
44 FC1 19 -1.963
44 FC1 20 -1.475
44 FC1 21 -1.475
44 FC1 22 -1.963
44 FC1 23 -2.452
44 FC1 24 -3.428
44 FC1 25 -2.940
44 FC1 26 -2.452
44 FC1 27 -1.963
44 FC1 28 -1.475
44 FC1 29 -1.963
44 FC1 30 -2.452
44 FC1 31 -1.963
44 FC1 32 -1.475
44 FC1 33 -0.498
44 FC1 34 -0.010
44 FC1 35 -0.987
44 FC1 36 -1.475
44 FC1 37 -2.452
44 FC1 38 -2.940
44 FC1 39 -2.940
44 FC1 40 -2.452
44 FC1 41 -1.963
44 FC1 42 -0.987
44 FC1 43 0.478
44 FC1 44 0.966
44 FC1 45 1.455
44 FC1 46 1.455
44 FC1 47 0.478
44 FC1 48 0.966
44 FC1 49 1.455
44 FC1 50 3.408
44 FC1 51 4.873
44 FC1 52 5.361
44 FC1 53 4.873
44 FC1 54 4.384
44 FC1 55 3.896
44 FC1 56 3.408
44 FC1 57 2.920
44 FC1 58 1.943
44 FC1 59 0.478
44 FC1 60 -1.475
44 FC1 61 -2.452
44 FC1 62 -2.452
44 FC1 63 -1.475
44 FC1 64 -0.498
44 FC1 65 0.478
44 FC1 66 0.966
44 FC1 67 1.455
44 FC1 68 0.478
44 FC1 69 -0.498
44 FC1 70 -1.475
44 FC1 71 -2.452
44 FC1 72 -1.475
44 FC1 73 0.478
44 FC1 74 1.943
44 FC1 75 2.920
44 FC1 76 3.408
44 FC1 77 2.920
44 FC1 78 2.920
44 FC1 79 2.920
44 FC1 80 2.920
44 FC1 81 3.408
44 FC1 82 4.384
44 FC1 83 4.384
44 FC1 84 4.384
44 FC1 85 3.408
44 FC1 86 0.966
44 FC1 87 -0.987
44 FC1 88 -2.452
44 FC1 89 -1.963
44 FC1 90 -0.498
44 FC1 91 0.966
44 FC1 92 1.455
44 FC1 93 0.966
44 FC1 94 -0.498
44 FC1 95 -0.987
44 FC1 96 -0.498
44 FC1 97 0.966
44 FC1 98 2.431
44 FC1 99 2.920
44 FC1 100 1.455
44 FC1 101 -0.010
44 FC1 102 -1.475
44 FC1 103 -1.963
44 FC1 104 -0.987
44 FC1 105 0.966
44 FC1 106 2.920
44 FC1 107 3.896
44 FC1 108 3.896
44 FC1 109 2.920
44 FC1 110 1.455
44 FC1 111 -0.498
44 FC1 112 -0.987
44 FC1 113 0.478
44 FC1 114 2.431
44 FC1 115 4.384
44 FC1 116 5.849
44 FC1 117 6.337
44 FC1 118 5.849
44 FC1 119 5.361
44 FC1 120 4.384
44 FC1 121 3.896
44 FC1 122 2.920
44 FC1 123 1.943
44 FC1 124 1.455
44 FC1 125 1.943
44 FC1 126 2.920
44 FC1 127 3.896
44 FC1 128 3.408
44 FC1 129 2.920
44 FC1 130 1.455
44 FC1 131 0.478
44 FC1 132 -0.010
44 FC1 133 -0.010
44 FC1 134 -0.010
44 FC1 135 0.478
44 FC1 136 1.455
44 FC1 137 2.431
44 FC1 138 2.920
44 FC1 139 2.920
44 FC1 140 2.431
44 FC1 141 2.431
44 FC1 142 2.431
44 FC1 143 2.920
44 FC1 144 3.408
44 FC1 145 2.920
44 FC1 146 1.943
44 FC1 147 0.966
44 FC1 148 0.478
44 FC1 149 0.966
44 FC1 150 1.943
44 FC1 151 2.920
44 FC1 152 3.896
44 FC1 153 3.896
44 FC1 154 3.408
44 FC1 155 2.920
44 FC1 156 2.431
44 FC1 157 1.455
44 FC1 158 0.478
44 FC1 159 -0.987
44 FC1 160 -0.987
44 FC1 161 -0.498
44 FC1 162 -0.010
44 FC1 163 0.966
44 FC1 164 1.455
44 FC1 165 1.455
44 FC1 166 2.431
44 FC1 167 3.408
44 FC1 168 5.361
44 FC1 169 6.337
44 FC1 170 6.337
44 FC1 171 5.361
44 FC1 172 2.920
44 FC1 173 1.455
44 FC1 174 0.478
44 FC1 175 1.455
44 FC1 176 1.943
44 FC1 177 1.943
44 FC1 178 0.966
44 FC1 179 -0.498
44 FC1 180 -1.475
44 FC1 181 -0.987
44 FC1 182 0.478
44 FC1 183 1.943
44 FC1 184 2.920
44 FC1 185 1.943
44 FC1 186 -0.010
44 FC1 187 -1.963
44 FC1 188 -2.940
44 FC1 189 -3.428
44 FC1 190 -2.940
44 FC1 191 -1.963
44 FC1 192 -0.498
44 FC1 193 0.478
44 FC1 194 0.966
44 FC1 195 0.966
44 FC1 196 0.478
44 FC1 197 -0.010
44 FC1 198 -0.987
44 FC1 199 -1.475
44 FC1 200 -2.452
44 FC1 201 -3.428
44 FC1 202 -3.916
44 FC1 203 -4.405
44 FC1 204 -3.428
44 FC1 205 -1.475
44 FC1 206 0.478
44 FC1 207 1.943
44 FC1 208 1.943
44 FC1 209 0.966
44 FC1 210 -0.010
44 FC1 211 -0.987
44 FC1 212 -0.987
44 FC1 213 -0.987
44 FC1 214 -0.987
44 FC1 215 -1.475
44 FC1 216 -0.987
44 FC1 217 -0.987
44 FC1 218 -0.498
44 FC1 219 -0.987
44 FC1 220 -1.475
44 FC1 221 -2.452
44 FC1 222 -3.916
44 FC1 223 -4.893
44 FC1 224 -5.381
44 FC1 225 -5.870
44 FC1 226 -6.358
44 FC1 227 -6.846
44 FC1 228 -6.846
44 FC1 229 -5.870
44 FC1 230 -3.916
44 FC1 231 -2.452
44 FC1 232 -0.987
44 FC1 233 -0.987
44 FC1 234 -1.963
44 FC1 235 -3.428
44 FC1 236 -4.405
44 FC1 237 -5.381
44 FC1 238 -5.870
44 FC1 239 -5.870
44 FC1 240 -5.870
44 FC1 241 -5.870
44 FC1 242 -5.381
44 FC1 243 -5.870
44 FC1 244 -5.870
44 FC1 245 -6.358
44 FC1 246 -6.358
44 FC1 247 -4.405
44 FC1 248 -1.475
44 FC1 249 0.966
44 FC1 250 1.943
44 FC1 251 0.966
44 FC1 252 -1.475
44 FC1 253 -4.405
44 FC1 254 -5.870
44 FC1 255 -6.358
# T8 chan 13
44 T8 0 -2.665
44 T8 1 -0.224
44 T8 2 0.264
44 T8 3 -0.224
44 T8 4 -1.200
44 T8 5 -2.177
44 T8 6 -2.177
44 T8 7 -1.689
44 T8 8 -1.200
44 T8 9 -0.224
44 T8 10 1.241
44 T8 11 2.706
44 T8 12 4.659
44 T8 13 5.636
44 T8 14 6.612
44 T8 15 7.100
44 T8 16 7.100
44 T8 17 7.100
44 T8 18 6.124
44 T8 19 4.659
44 T8 20 3.194
44 T8 21 2.706
44 T8 22 3.682
44 T8 23 6.124
44 T8 24 8.565
44 T8 25 11.007
44 T8 26 11.495
44 T8 27 11.007
44 T8 28 9.542
44 T8 29 7.589
44 T8 30 5.636
44 T8 31 4.659
44 T8 32 5.636
44 T8 33 8.077
44 T8 34 10.518
44 T8 35 11.983
44 T8 36 11.495
44 T8 37 9.542
44 T8 38 8.077
44 T8 39 8.077
44 T8 40 9.542
44 T8 41 11.495
44 T8 42 11.983
44 T8 43 10.030
44 T8 44 7.589
44 T8 45 4.659
44 T8 46 3.194
44 T8 47 2.218
44 T8 48 1.729
44 T8 49 1.241
44 T8 50 1.241
44 T8 51 2.706
44 T8 52 4.659
44 T8 53 7.100
44 T8 54 7.589
44 T8 55 6.124
44 T8 56 3.194
44 T8 57 0.264
44 T8 58 -1.689
44 T8 59 -1.689
44 T8 60 -1.200
44 T8 61 -0.712
44 T8 62 -0.712
44 T8 63 -1.200
44 T8 64 -0.712
44 T8 65 0.753
44 T8 66 2.706
44 T8 67 4.659
44 T8 68 5.636
44 T8 69 5.147
44 T8 70 4.171
44 T8 71 3.682
44 T8 72 2.706
44 T8 73 2.706
44 T8 74 3.682
44 T8 75 5.636
44 T8 76 8.565
44 T8 77 11.495
44 T8 78 13.448
44 T8 79 13.448
44 T8 80 11.983
44 T8 81 8.565
44 T8 82 5.147
44 T8 83 2.218
44 T8 84 0.753
44 T8 85 1.241
44 T8 86 2.706
44 T8 87 5.636
44 T8 88 7.100
44 T8 89 7.100
44 T8 90 5.636
44 T8 91 3.194
44 T8 92 2.706
44 T8 93 3.682
44 T8 94 7.589
44 T8 95 12.472
44 T8 96 16.378
44 T8 97 18.819
44 T8 98 18.819
44 T8 99 17.354
44 T8 100 15.401
44 T8 101 14.425
44 T8 102 13.936
44 T8 103 13.936
44 T8 104 13.936
44 T8 105 12.960
44 T8 106 11.007
44 T8 107 8.565
44 T8 108 6.612
44 T8 109 6.124
44 T8 110 6.124
44 T8 111 6.612
44 T8 112 8.077
44 T8 113 10.030
44 T8 114 11.983
44 T8 115 13.936
44 T8 116 13.936
44 T8 117 12.472
44 T8 118 8.565
44 T8 119 4.171
44 T8 120 1.241
44 T8 121 1.241
44 T8 122 4.171
44 T8 123 7.100
44 T8 124 8.077
44 T8 125 7.100
44 T8 126 4.659
44 T8 127 2.218
44 T8 128 3.194
44 T8 129 6.124
44 T8 130 11.007
44 T8 131 14.913
44 T8 132 17.354
44 T8 133 17.354
44 T8 134 15.889
44 T8 135 12.960
44 T8 136 10.518
44 T8 137 8.565
44 T8 138 7.589
44 T8 139 7.589
44 T8 140 7.589
44 T8 141 7.589
44 T8 142 7.589
44 T8 143 7.589
44 T8 144 8.077
44 T8 145 9.054
44 T8 146 10.030
44 T8 147 10.030
44 T8 148 10.518
44 T8 149 11.007
44 T8 150 11.983
44 T8 151 12.472
44 T8 152 12.472
44 T8 153 10.518
44 T8 154 8.077
44 T8 155 6.124
44 T8 156 5.636
44 T8 157 7.100
44 T8 158 8.565
44 T8 159 9.542
44 T8 160 9.054
44 T8 161 7.100
44 T8 162 5.636
44 T8 163 6.124
44 T8 164 8.077
44 T8 165 11.983
44 T8 166 14.913
44 T8 167 17.354
44 T8 168 17.354
44 T8 169 15.401
44 T8 170 11.495
44 T8 171 8.565
44 T8 172 6.612
44 T8 173 6.124
44 T8 174 7.100
44 T8 175 7.589
44 T8 176 7.100
44 T8 177 6.612
44 T8 178 7.100
44 T8 179 8.077
44 T8 180 9.054
44 T8 181 8.565
44 T8 182 5.636
44 T8 183 2.218
44 T8 184 -0.712
44 T8 185 -0.712
44 T8 186 0.753
44 T8 187 3.682
44 T8 188 6.124
44 T8 189 8.077
44 T8 190 9.542
44 T8 191 10.518
44 T8 192 10.518
44 T8 193 8.565
44 T8 194 5.147
44 T8 195 1.241
44 T8 196 -1.689
44 T8 197 -1.200
44 T8 198 1.729
44 T8 199 5.147
44 T8 200 6.612
44 T8 201 5.636
44 T8 202 3.682
44 T8 203 3.194
44 T8 204 4.659
44 T8 205 8.077
44 T8 206 11.007
44 T8 207 12.472
44 T8 208 11.007
44 T8 209 8.565
44 T8 210 6.124
44 T8 211 5.636
44 T8 212 6.124
44 T8 213 7.100
44 T8 214 8.077
44 T8 215 9.542
44 T8 216 11.007
44 T8 217 13.448
44 T8 218 14.913
44 T8 219 14.913
44 T8 220 13.448
44 T8 221 11.495
44 T8 222 10.030
44 T8 223 9.054
44 T8 224 9.054
44 T8 225 9.542
44 T8 226 10.030
44 T8 227 9.054
44 T8 228 8.565
44 T8 229 8.077
44 T8 230 8.077
44 T8 231 8.565
44 T8 232 9.054
44 T8 233 9.542
44 T8 234 9.542
44 T8 235 8.077
44 T8 236 6.124
44 T8 237 3.682
44 T8 238 1.729
44 T8 239 2.218
44 T8 240 4.171
44 T8 241 7.100
44 T8 242 8.565
44 T8 243 8.077
44 T8 244 6.124
44 T8 245 4.171
44 T8 246 2.706
44 T8 247 2.706
44 T8 248 3.682
44 T8 249 4.659
44 T8 250 6.124
44 T8 251 7.589
44 T8 252 10.030
44 T8 253 12.960
44 T8 254 14.425
44 T8 255 14.425
# T7 chan 14
44 T7 0 -9.094
44 T7 1 -11.536
44 T7 2 -10.071
44 T7 3 -4.700
44 T7 4 2.625
44 T7 5 8.972
44 T7 6 11.414
44 T7 7 8.972
44 T7 8 2.625
44 T7 9 -4.700
44 T7 10 -9.583
44 T7 11 -10.071
44 T7 12 -6.165
44 T7 13 -0.305
44 T7 14 4.089
44 T7 15 6.042
44 T7 16 4.578
44 T7 17 2.136
44 T7 18 0.671
44 T7 19 1.648
44 T7 20 4.578
44 T7 21 6.531
44 T7 22 7.019
44 T7 23 6.042
44 T7 24 4.089
44 T7 25 3.113
44 T7 26 2.136
44 T7 27 1.648
44 T7 28 0.671
44 T7 29 -0.305
44 T7 30 -0.305
44 T7 31 0.671
44 T7 32 2.136
44 T7 33 3.601
44 T7 34 4.089
44 T7 35 3.601
44 T7 36 3.601
44 T7 37 3.601
44 T7 38 3.601
44 T7 39 3.601
44 T7 40 3.113
44 T7 41 3.113
44 T7 42 3.601
44 T7 43 3.113
44 T7 44 2.136
44 T7 45 0.671
44 T7 46 -0.793
44 T7 47 0.183
44 T7 48 2.625
44 T7 49 6.042
44 T7 50 8.972
44 T7 51 9.949
44 T7 52 7.996
44 T7 53 5.554
44 T7 54 2.625
44 T7 55 0.671
44 T7 56 0.183
44 T7 57 2.136
44 T7 58 5.554
44 T7 59 8.484
44 T7 60 9.460
44 T7 61 7.507
44 T7 62 5.066
44 T7 63 4.578
44 T7 64 7.507
44 T7 65 12.878
44 T7 66 16.785
44 T7 67 16.296
44 T7 68 12.390
44 T7 69 7.507
44 T7 70 6.042
44 T7 71 8.972
44 T7 72 14.832
44 T7 73 19.714
44 T7 74 20.691
44 T7 75 17.761
44 T7 76 12.390
44 T7 77 8.484
44 T7 78 6.531
44 T7 79 6.531
44 T7 80 7.507
44 T7 81 9.460
44 T7 82 11.902
44 T7 83 14.832
44 T7 84 15.808
44 T7 85 12.878
44 T7 86 7.019
44 T7 87 1.160
44 T7 88 -1.282
44 T7 89 1.648
44 T7 90 7.996
44 T7 91 14.832
44 T7 92 18.738
44 T7 93 19.226
44 T7 94 15.808
44 T7 95 11.414
44 T7 96 7.507
44 T7 97 5.066
44 T7 98 5.066
44 T7 99 7.996
44 T7 100 12.878
44 T7 101 17.273
44 T7 102 18.250
44 T7 103 15.320
44 T7 104 9.460
44 T7 105 5.066
44 T7 106 4.089
44 T7 107 6.042
44 T7 108 8.484
44 T7 109 10.437
44 T7 110 11.414
44 T7 111 13.367
44 T7 112 16.785
44 T7 113 21.179
44 T7 114 23.621
44 T7 115 21.667
44 T7 116 15.808
44 T7 117 9.460
44 T7 118 6.042
44 T7 119 7.019
44 T7 120 8.972
44 T7 121 9.949
44 T7 122 7.507
44 T7 123 4.089
44 T7 124 2.625
44 T7 125 6.042
44 T7 126 12.878
44 T7 127 18.738
44 T7 128 20.203
44 T7 129 16.785
44 T7 130 10.925
44 T7 131 6.531
44 T7 132 6.531
44 T7 133 10.925
44 T7 134 16.296
44 T7 135 18.738
44 T7 136 17.273
44 T7 137 11.902
44 T7 138 6.042
44 T7 139 2.136
44 T7 140 1.648
44 T7 141 5.066
44 T7 142 9.460
44 T7 143 13.367
44 T7 144 14.832
44 T7 145 12.878
44 T7 146 10.437
44 T7 147 7.996
44 T7 148 8.484
44 T7 149 10.925
44 T7 150 14.832
44 T7 151 17.273
44 T7 152 17.273
44 T7 153 14.832
44 T7 154 10.925
44 T7 155 6.531
44 T7 156 4.089
44 T7 157 4.089
44 T7 158 6.531
44 T7 159 9.460
44 T7 160 10.925
44 T7 161 9.949
44 T7 162 7.996
44 T7 163 7.996
44 T7 164 11.414
44 T7 165 17.273
44 T7 166 22.644
44 T7 167 23.132
44 T7 168 18.738
44 T7 169 11.902
44 T7 170 7.507
44 T7 171 7.996
44 T7 172 12.878
44 T7 173 18.250
44 T7 174 20.691
44 T7 175 19.226
44 T7 176 16.296
44 T7 177 13.855
44 T7 178 12.878
44 T7 179 12.878
44 T7 180 11.414
44 T7 181 8.972
44 T7 182 6.531
44 T7 183 4.578
44 T7 184 4.578
44 T7 185 5.066
44 T7 186 6.042
44 T7 187 7.996
44 T7 188 9.460
44 T7 189 10.925
44 T7 190 12.390
44 T7 191 13.855
44 T7 192 14.343
44 T7 193 15.320
44 T7 194 16.785
44 T7 195 19.226
44 T7 196 21.179
44 T7 197 21.179
44 T7 198 18.738
44 T7 199 13.367
44 T7 200 7.507
44 T7 201 3.601
44 T7 202 3.113
44 T7 203 5.554
44 T7 204 9.460
44 T7 205 11.902
44 T7 206 13.855
44 T7 207 15.808
44 T7 208 18.250
44 T7 209 20.691
44 T7 210 21.667
44 T7 211 19.714
44 T7 212 14.832
44 T7 213 10.437
44 T7 214 7.507
44 T7 215 7.507
44 T7 216 7.996
44 T7 217 7.996
44 T7 218 7.019
44 T7 219 6.042
44 T7 220 7.019
44 T7 221 9.949
44 T7 222 12.390
44 T7 223 12.390
44 T7 224 8.972
44 T7 225 4.578
44 T7 226 1.648
44 T7 227 1.648
44 T7 228 5.066
44 T7 229 9.460
44 T7 230 12.878
44 T7 231 14.832
44 T7 232 15.320
44 T7 233 15.808
44 T7 234 16.785
44 T7 235 18.250
44 T7 236 18.250
44 T7 237 15.808
44 T7 238 11.414
44 T7 239 7.019
44 T7 240 3.601
44 T7 241 2.625
44 T7 242 4.578
44 T7 243 7.996
44 T7 244 11.414
44 T7 245 14.832
44 T7 246 16.296
44 T7 247 17.273
44 T7 248 17.273
44 T7 249 16.785
44 T7 250 16.296
44 T7 251 16.785
44 T7 252 17.761
44 T7 253 19.226
44 T7 254 20.691
44 T7 255 22.156
# CZ chan 15
44 CZ 0 9.542
44 CZ 1 10.518
44 CZ 2 6.124
44 CZ 3 0.753
44 CZ 4 -2.665
44 CZ 5 -0.712
44 CZ 6 5.636
44 CZ 7 12.472
44 CZ 8 16.378
44 CZ 9 15.889
44 CZ 10 12.472
44 CZ 11 9.542
44 CZ 12 9.054
44 CZ 13 11.983
44 CZ 14 16.378
44 CZ 15 19.307
44 CZ 16 20.284
44 CZ 17 19.307
44 CZ 18 17.843
44 CZ 19 17.843
44 CZ 20 18.331
44 CZ 21 18.331
44 CZ 22 17.843
44 CZ 23 17.354
44 CZ 24 17.354
44 CZ 25 18.331
44 CZ 26 18.819
44 CZ 27 18.331
44 CZ 28 16.866
44 CZ 29 16.378
44 CZ 30 18.819
44 CZ 31 24.679
44 CZ 32 31.026
44 CZ 33 34.932
44 CZ 34 34.444
44 CZ 35 30.050
44 CZ 36 24.190
44 CZ 37 19.307
44 CZ 38 16.866
44 CZ 39 16.378
44 CZ 40 17.354
44 CZ 41 18.819
44 CZ 42 21.749
44 CZ 43 24.190
44 CZ 44 25.167
44 CZ 45 24.679
44 CZ 46 21.749
44 CZ 47 18.331
44 CZ 48 15.401
44 CZ 49 14.913
44 CZ 50 17.354
44 CZ 51 21.261
44 CZ 52 26.143
44 CZ 53 29.073
44 CZ 54 30.538
44 CZ 55 29.561
44 CZ 56 27.608
44 CZ 57 24.679
44 CZ 58 22.725
44 CZ 59 21.749
44 CZ 60 21.749
44 CZ 61 21.749
44 CZ 62 21.749
44 CZ 63 21.261
44 CZ 64 22.237
44 CZ 65 25.167
44 CZ 66 30.538
44 CZ 67 36.886
44 CZ 68 41.768
44 CZ 69 43.722
44 CZ 70 42.257
44 CZ 71 39.327
44 CZ 72 36.397
44 CZ 73 35.421
44 CZ 74 36.397
44 CZ 75 38.350
44 CZ 76 41.280
44 CZ 77 44.698
44 CZ 78 47.628
44 CZ 79 49.093
44 CZ 80 48.116
44 CZ 81 45.675
44 CZ 82 41.768
44 CZ 83 37.374
44 CZ 84 34.932
44 CZ 85 33.956
44 CZ 86 35.421
44 CZ 87 38.350
44 CZ 88 41.280
44 CZ 89 41.768
44 CZ 90 39.815
44 CZ 91 35.909
44 CZ 92 32.491
44 CZ 93 33.956
44 CZ 94 40.792
44 CZ 95 50.557
44 CZ 96 59.835
44 CZ 97 64.718
44 CZ 98 63.741
44 CZ 99 59.347
44 CZ 100 54.464
44 CZ 101 51.534
44 CZ 102 51.046
44 CZ 103 52.511
44 CZ 104 52.999
44 CZ 105 52.022
44 CZ 106 49.581
44 CZ 107 46.163
44 CZ 108 42.745
44 CZ 109 40.304
44 CZ 110 39.815
44 CZ 111 42.745
44 CZ 112 48.116
44 CZ 113 54.952
44 CZ 114 60.323
44 CZ 115 60.811
44 CZ 116 56.905
44 CZ 117 49.581
44 CZ 118 42.257
44 CZ 119 37.862
44 CZ 120 36.886
44 CZ 121 38.839
44 CZ 122 40.792
44 CZ 123 42.257
44 CZ 124 42.257
44 CZ 125 42.257
44 CZ 126 43.722
44 CZ 127 47.139
44 CZ 128 51.534
44 CZ 129 54.952
44 CZ 130 56.905
44 CZ 131 56.417
44 CZ 132 55.929
44 CZ 133 55.929
44 CZ 134 56.905
44 CZ 135 57.393
44 CZ 136 57.393
44 CZ 137 55.440
44 CZ 138 52.022
44 CZ 139 48.604
44 CZ 140 47.139
44 CZ 141 47.628
44 CZ 142 48.116
44 CZ 143 48.604
44 CZ 144 48.116
44 CZ 145 47.139
44 CZ 146 47.139
44 CZ 147 48.604
44 CZ 148 50.557
44 CZ 149 51.046
44 CZ 150 48.116
44 CZ 151 44.210
44 CZ 152 41.280
44 CZ 153 42.257
44 CZ 154 44.698
44 CZ 155 46.651
44 CZ 156 45.675
44 CZ 157 41.768
44 CZ 158 37.374
44 CZ 159 35.909
44 CZ 160 36.397
44 CZ 161 37.862
44 CZ 162 37.374
44 CZ 163 36.886
44 CZ 164 37.374
44 CZ 165 42.257
44 CZ 166 49.581
44 CZ 167 55.929
44 CZ 168 57.882
44 CZ 169 53.975
44 CZ 170 46.651
44 CZ 171 40.792
44 CZ 172 39.327
44 CZ 173 41.768
44 CZ 174 44.698
44 CZ 175 46.163
44 CZ 176 44.698
44 CZ 177 41.768
44 CZ 178 39.327
44 CZ 179 37.862
44 CZ 180 36.886
44 CZ 181 35.421
44 CZ 182 32.979
44 CZ 183 30.538
44 CZ 184 29.073
44 CZ 185 29.561
44 CZ 186 31.026
44 CZ 187 32.491
44 CZ 188 33.956
44 CZ 189 33.956
44 CZ 190 32.491
44 CZ 191 31.514
44 CZ 192 30.050
44 CZ 193 28.585
44 CZ 194 28.097
44 CZ 195 28.097
44 CZ 196 29.561
44 CZ 197 31.514
44 CZ 198 32.491
44 CZ 199 32.003
44 CZ 200 29.561
44 CZ 201 26.632
44 CZ 202 24.190
44 CZ 203 24.190
44 CZ 204 26.632
44 CZ 205 30.538
44 CZ 206 34.932
44 CZ 207 37.862
44 CZ 208 38.350
44 CZ 209 34.932
44 CZ 210 30.050
44 CZ 211 25.655
44 CZ 212 24.679
44 CZ 213 26.632
44 CZ 214 31.026
44 CZ 215 34.932
44 CZ 216 36.886
44 CZ 217 35.909
44 CZ 218 33.468
44 CZ 219 31.514
44 CZ 220 30.538
44 CZ 221 30.538
44 CZ 222 29.561
44 CZ 223 28.097
44 CZ 224 26.143
44 CZ 225 25.167
44 CZ 226 25.655
44 CZ 227 28.585
44 CZ 228 31.514
44 CZ 229 33.468
44 CZ 230 33.468
44 CZ 231 32.491
44 CZ 232 31.026
44 CZ 233 29.073
44 CZ 234 26.143
44 CZ 235 20.772
44 CZ 236 13.936
44 CZ 237 8.077
44 CZ 238 5.147
44 CZ 239 7.589
44 CZ 240 13.936
44 CZ 241 22.237
44 CZ 242 27.608
44 CZ 243 29.073
44 CZ 244 28.097
44 CZ 245 26.143
44 CZ 246 26.632
44 CZ 247 29.073
44 CZ 248 32.491
44 CZ 249 33.956
44 CZ 250 33.468
44 CZ 251 31.026
44 CZ 252 28.585
44 CZ 253 28.097
44 CZ 254 29.561
44 CZ 255 31.514
# C3 chan 16
44 C3 0 -3.011
44 C3 1 -3.011
44 C3 2 -1.546
44 C3 3 0.407
44 C3 4 1.383
44 C3 5 1.383
44 C3 6 0.407
44 C3 7 -1.058
44 C3 8 -2.035
44 C3 9 -2.523
44 C3 10 -2.523
44 C3 11 -2.523
44 C3 12 -2.035
44 C3 13 -1.058
44 C3 14 -0.081
44 C3 15 0.407
44 C3 16 0.407
44 C3 17 -0.570
44 C3 18 -1.058
44 C3 19 -1.546
44 C3 20 -0.570
44 C3 21 -0.081
44 C3 22 0.407
44 C3 23 0.407
44 C3 24 0.895
44 C3 25 1.872
44 C3 26 3.337
44 C3 27 4.313
44 C3 28 3.825
44 C3 29 2.848
44 C3 30 1.383
44 C3 31 1.383
44 C3 32 1.872
44 C3 33 2.360
44 C3 34 2.360
44 C3 35 1.872
44 C3 36 0.895
44 C3 37 -0.081
44 C3 38 -0.570
44 C3 39 -0.570
44 C3 40 0.407
44 C3 41 0.895
44 C3 42 1.872
44 C3 43 2.360
44 C3 44 2.848
44 C3 45 1.872
44 C3 46 0.407
44 C3 47 -0.570
44 C3 48 0.407
44 C3 49 2.360
44 C3 50 5.290
44 C3 51 7.243
44 C3 52 7.243
44 C3 53 6.266
44 C3 54 4.313
44 C3 55 3.337
44 C3 56 2.848
44 C3 57 3.337
44 C3 58 4.313
44 C3 59 4.801
44 C3 60 4.313
44 C3 61 3.825
44 C3 62 3.825
44 C3 63 4.313
44 C3 64 5.290
44 C3 65 7.243
44 C3 66 9.196
44 C3 67 9.684
44 C3 68 8.219
44 C3 69 6.266
44 C3 70 4.313
44 C3 71 3.825
44 C3 72 5.778
44 C3 73 8.708
44 C3 74 10.661
44 C3 75 11.149
44 C3 76 10.173
44 C3 77 8.708
44 C3 78 7.731
44 C3 79 7.731
44 C3 80 8.219
44 C3 81 8.708
44 C3 82 8.708
44 C3 83 7.731
44 C3 84 7.243
44 C3 85 6.755
44 C3 86 5.778
44 C3 87 5.778
44 C3 88 5.778
44 C3 89 7.243
44 C3 90 8.219
44 C3 91 9.196
44 C3 92 9.196
44 C3 93 8.219
44 C3 94 5.778
44 C3 95 4.313
44 C3 96 3.825
44 C3 97 4.313
44 C3 98 5.778
44 C3 99 6.755
44 C3 100 7.243
44 C3 101 7.243
44 C3 102 6.755
44 C3 103 6.755
44 C3 104 6.266
44 C3 105 5.778
44 C3 106 5.290
44 C3 107 4.801
44 C3 108 4.313
44 C3 109 3.337
44 C3 110 2.360
44 C3 111 2.360
44 C3 112 3.337
44 C3 113 5.290
44 C3 114 7.243
44 C3 115 8.219
44 C3 116 7.243
44 C3 117 4.801
44 C3 118 2.848
44 C3 119 1.383
44 C3 120 0.407
44 C3 121 0.407
44 C3 122 -1.058
44 C3 123 -1.546
44 C3 124 -1.546
44 C3 125 0.895
44 C3 126 3.337
44 C3 127 5.290
44 C3 128 5.290
44 C3 129 4.313
44 C3 130 2.360
44 C3 131 0.895
44 C3 132 0.407
44 C3 133 0.895
44 C3 134 1.872
44 C3 135 3.337
44 C3 136 4.801
44 C3 137 5.290
44 C3 138 4.801
44 C3 139 3.337
44 C3 140 0.895
44 C3 141 0.407
44 C3 142 0.895
44 C3 143 3.337
44 C3 144 4.801
44 C3 145 4.801
44 C3 146 4.313
44 C3 147 2.360
44 C3 148 1.383
44 C3 149 1.872
44 C3 150 2.360
44 C3 151 2.848
44 C3 152 2.848
44 C3 153 3.337
44 C3 154 3.337
44 C3 155 2.848
44 C3 156 1.383
44 C3 157 -0.570
44 C3 158 -3.011
44 C3 159 -3.988
44 C3 160 -3.988
44 C3 161 -3.011
44 C3 162 -2.523
44 C3 163 -1.546
44 C3 164 -0.570
44 C3 165 0.407
44 C3 166 2.360
44 C3 167 3.825
44 C3 168 4.313
44 C3 169 3.337
44 C3 170 2.848
44 C3 171 1.872
44 C3 172 2.360
44 C3 173 2.360
44 C3 174 2.360
44 C3 175 1.383
44 C3 176 0.407
44 C3 177 -0.570
44 C3 178 -0.570
44 C3 179 -1.058
44 C3 180 -1.058
44 C3 181 -1.058
44 C3 182 -1.058
44 C3 183 -1.546
44 C3 184 -1.546
44 C3 185 -2.523
44 C3 186 -3.011
44 C3 187 -3.499
44 C3 188 -3.011
44 C3 189 -2.523
44 C3 190 -1.546
44 C3 191 -0.570
44 C3 192 -0.081
44 C3 193 0.895
44 C3 194 1.872
44 C3 195 2.848
44 C3 196 3.337
44 C3 197 2.848
44 C3 198 1.383
44 C3 199 -1.058
44 C3 200 -3.499
44 C3 201 -5.452
44 C3 202 -6.429
44 C3 203 -6.429
44 C3 204 -5.452
44 C3 205 -3.988
44 C3 206 -2.035
44 C3 207 -0.570
44 C3 208 0.895
44 C3 209 0.895
44 C3 210 0.407
44 C3 211 -1.058
44 C3 212 -2.523
44 C3 213 -3.011
44 C3 214 -2.523
44 C3 215 -2.035
44 C3 216 -1.546
44 C3 217 -2.523
44 C3 218 -4.476
44 C3 219 -5.452
44 C3 220 -6.429
44 C3 221 -5.452
44 C3 222 -4.476
44 C3 223 -3.499
44 C3 224 -4.476
44 C3 225 -5.941
44 C3 226 -7.406
44 C3 227 -7.894
44 C3 228 -7.406
44 C3 229 -5.941
44 C3 230 -3.988
44 C3 231 -1.058
44 C3 232 1.383
44 C3 233 3.337
44 C3 234 4.801
44 C3 235 4.313
44 C3 236 2.360
44 C3 237 -0.570
44 C3 238 -3.499
44 C3 239 -5.452
44 C3 240 -6.917
44 C3 241 -7.406
44 C3 242 -7.406
44 C3 243 -7.406
44 C3 244 -6.917
44 C3 245 -6.429
44 C3 246 -4.964
44 C3 247 -3.011
44 C3 248 -0.570
44 C3 249 1.872
44 C3 250 2.848
44 C3 251 2.848
44 C3 252 0.895
44 C3 253 -1.546
44 C3 254 -3.499
44 C3 255 -4.476
# C4 chan 17
44 C4 0 -3.489
44 C4 1 -3.001
44 C4 2 -3.489
44 C4 3 -4.466
44 C4 4 -4.954
44 C4 5 -4.466
44 C4 6 -3.001
44 C4 7 -1.536
44 C4 8 -0.559
44 C4 9 0.417
44 C4 10 0.905
44 C4 11 1.394
44 C4 12 1.394
44 C4 13 1.394
44 C4 14 0.905
44 C4 15 0.417
44 C4 16 -0.071
44 C4 17 -0.559
44 C4 18 -0.559
44 C4 19 -1.048
44 C4 20 -1.048
44 C4 21 -0.559
44 C4 22 -0.559
44 C4 23 0.417
44 C4 24 0.905
44 C4 25 1.882
44 C4 26 2.370
44 C4 27 1.882
44 C4 28 0.905
44 C4 29 -0.559
44 C4 30 -2.513
44 C4 31 -3.489
44 C4 32 -3.489
44 C4 33 -2.024
44 C4 34 0.417
44 C4 35 2.370
44 C4 36 3.835
44 C4 37 3.835
44 C4 38 4.323
44 C4 39 3.835
44 C4 40 3.835
44 C4 41 3.835
44 C4 42 3.347
44 C4 43 1.882
44 C4 44 -0.071
44 C4 45 -1.536
44 C4 46 -2.513
44 C4 47 -3.489
44 C4 48 -3.489
44 C4 49 -3.001
44 C4 50 -1.536
44 C4 51 -0.071
44 C4 52 1.394
44 C4 53 1.882
44 C4 54 1.394
44 C4 55 0.905
44 C4 56 -0.071
44 C4 57 -0.559
44 C4 58 -0.559
44 C4 59 -1.048
44 C4 60 -1.536
44 C4 61 -2.024
44 C4 62 -2.513
44 C4 63 -2.024
44 C4 64 -1.048
44 C4 65 0.417
44 C4 66 0.905
44 C4 67 1.394
44 C4 68 0.905
44 C4 69 0.905
44 C4 70 0.905
44 C4 71 0.417
44 C4 72 -0.071
44 C4 73 -0.559
44 C4 74 -0.559
44 C4 75 0.905
44 C4 76 3.347
44 C4 77 5.788
44 C4 78 7.253
44 C4 79 6.765
44 C4 80 4.812
44 C4 81 1.882
44 C4 82 -0.071
44 C4 83 -1.536
44 C4 84 -1.048
44 C4 85 -0.071
44 C4 86 1.394
44 C4 87 3.347
44 C4 88 3.835
44 C4 89 3.835
44 C4 90 3.347
44 C4 91 2.370
44 C4 92 0.905
44 C4 93 0.905
44 C4 94 1.882
44 C4 95 3.835
44 C4 96 5.788
44 C4 97 7.253
44 C4 98 6.276
44 C4 99 5.300
44 C4 100 4.323
44 C4 101 4.812
44 C4 102 5.300
44 C4 103 6.276
44 C4 104 6.276
44 C4 105 5.788
44 C4 106 4.323
44 C4 107 2.858
44 C4 108 2.370
44 C4 109 1.882
44 C4 110 1.882
44 C4 111 1.882
44 C4 112 1.882
44 C4 113 2.370
44 C4 114 3.835
44 C4 115 4.323
44 C4 116 4.812
44 C4 117 3.347
44 C4 118 0.905
44 C4 119 -1.048
44 C4 120 -1.536
44 C4 121 -0.559
44 C4 122 1.394
44 C4 123 3.347
44 C4 124 3.835
44 C4 125 2.370
44 C4 126 0.417
44 C4 127 -1.048
44 C4 128 -1.048
44 C4 129 0.417
44 C4 130 3.347
44 C4 131 6.276
44 C4 132 8.718
44 C4 133 9.694
44 C4 134 8.718
44 C4 135 6.765
44 C4 136 3.835
44 C4 137 1.882
44 C4 138 0.905
44 C4 139 0.905
44 C4 140 1.394
44 C4 141 0.905
44 C4 142 -0.071
44 C4 143 -0.559
44 C4 144 -0.559
44 C4 145 0.417
44 C4 146 1.882
44 C4 147 2.370
44 C4 148 2.370
44 C4 149 2.370
44 C4 150 2.858
44 C4 151 3.835
44 C4 152 3.835
44 C4 153 2.858
44 C4 154 1.394
44 C4 155 -0.559
44 C4 156 -0.559
44 C4 157 0.417
44 C4 158 1.882
44 C4 159 2.370
44 C4 160 0.905
44 C4 161 -1.048
44 C4 162 -2.513
44 C4 163 -3.001
44 C4 164 -1.536
44 C4 165 0.417
44 C4 166 2.370
44 C4 167 4.323
44 C4 168 4.812
44 C4 169 4.323
44 C4 170 2.370
44 C4 171 -0.071
44 C4 172 -2.513
44 C4 173 -3.489
44 C4 174 -3.489
44 C4 175 -2.024
44 C4 176 -1.048
44 C4 177 -0.559
44 C4 178 -0.071
44 C4 179 -0.559
44 C4 180 -1.536
44 C4 181 -2.513
44 C4 182 -3.489
44 C4 183 -4.466
44 C4 184 -4.466
44 C4 185 -4.466
44 C4 186 -3.977
44 C4 187 -4.466
44 C4 188 -5.442
44 C4 189 -5.931
44 C4 190 -5.442
44 C4 191 -3.977
44 C4 192 -2.513
44 C4 193 -3.001
44 C4 194 -4.954
44 C4 195 -7.395
44 C4 196 -8.860
44 C4 197 -8.372
44 C4 198 -5.442
44 C4 199 -3.001
44 C4 200 -1.536
44 C4 201 -3.001
44 C4 202 -4.954
44 C4 203 -6.419
44 C4 204 -5.931
44 C4 205 -4.466
44 C4 206 -2.513
44 C4 207 -2.513
44 C4 208 -4.466
44 C4 209 -6.419
44 C4 210 -6.907
44 C4 211 -5.931
44 C4 212 -3.977
44 C4 213 -2.513
44 C4 214 -2.024
44 C4 215 -2.513
44 C4 216 -2.513
44 C4 217 -2.024
44 C4 218 -1.048
44 C4 219 -0.559
44 C4 220 -0.559
44 C4 221 -1.536
44 C4 222 -3.001
44 C4 223 -4.466
44 C4 224 -4.954
44 C4 225 -5.442
44 C4 226 -5.442
44 C4 227 -4.954
44 C4 228 -4.466
44 C4 229 -3.977
44 C4 230 -3.977
44 C4 231 -3.977
44 C4 232 -4.466
44 C4 233 -4.954
44 C4 234 -4.466
44 C4 235 -4.466
44 C4 236 -3.977
44 C4 237 -4.466
44 C4 238 -4.954
44 C4 239 -5.442
44 C4 240 -5.442
44 C4 241 -4.954
44 C4 242 -4.954
44 C4 243 -5.442
44 C4 244 -6.419
44 C4 245 -7.884
44 C4 246 -7.884
44 C4 247 -6.907
44 C4 248 -5.442
44 C4 249 -3.489
44 C4 250 -2.513
44 C4 251 -2.513
44 C4 252 -2.513
44 C4 253 -3.001
44 C4 254 -3.489
44 C4 255 -3.489
# CP5 chan 18
44 CP5 0 -4.303
44 CP5 1 -4.303
44 CP5 2 -1.373
44 CP5 3 3.510
44 CP5 4 7.904
44 CP5 5 10.345
44 CP5 6 9.369
44 CP5 7 6.439
44 CP5 8 3.021
44 CP5 9 0.092
44 CP5 10 -0.397
44 CP5 11 0.580
44 CP5 12 3.021
44 CP5 13 5.463
44 CP5 14 7.904
44 CP5 15 8.881
44 CP5 16 8.881
44 CP5 17 8.392
44 CP5 18 8.392
44 CP5 19 9.369
44 CP5 20 10.345
44 CP5 21 10.834
44 CP5 22 10.834
44 CP5 23 10.834
44 CP5 24 11.322
44 CP5 25 12.299
44 CP5 26 13.763
44 CP5 27 14.252
44 CP5 28 14.252
44 CP5 29 13.275
44 CP5 30 12.299
44 CP5 31 12.299
44 CP5 32 12.787
44 CP5 33 12.787
44 CP5 34 12.299
44 CP5 35 12.299
44 CP5 36 12.299
44 CP5 37 12.787
44 CP5 38 13.275
44 CP5 39 12.787
44 CP5 40 12.299
44 CP5 41 11.810
44 CP5 42 11.810
44 CP5 43 11.810
44 CP5 44 9.857
44 CP5 45 6.927
44 CP5 46 3.510
44 CP5 47 1.556
44 CP5 48 3.021
44 CP5 49 6.927
44 CP5 50 11.322
44 CP5 51 14.740
44 CP5 52 14.740
44 CP5 53 13.275
44 CP5 54 10.345
44 CP5 55 8.881
44 CP5 56 8.881
44 CP5 57 10.834
44 CP5 58 12.787
44 CP5 59 14.252
44 CP5 60 13.763
44 CP5 61 11.810
44 CP5 62 9.857
44 CP5 63 9.369
44 CP5 64 11.810
44 CP5 65 15.717
44 CP5 66 19.623
44 CP5 67 20.599
44 CP5 68 18.646
44 CP5 69 15.228
44 CP5 70 12.299
44 CP5 71 12.787
44 CP5 72 15.228
44 CP5 73 19.135
44 CP5 74 21.576
44 CP5 75 20.599
44 CP5 76 17.670
44 CP5 77 15.228
44 CP5 78 13.763
44 CP5 79 14.740
44 CP5 80 16.205
44 CP5 81 17.181
44 CP5 82 16.205
44 CP5 83 14.740
44 CP5 84 12.299
44 CP5 85 10.345
44 CP5 86 9.369
44 CP5 87 8.881
44 CP5 88 9.857
44 CP5 89 11.322
44 CP5 90 13.275
44 CP5 91 15.228
44 CP5 92 16.205
44 CP5 93 15.717
44 CP5 94 14.252
44 CP5 95 12.299
44 CP5 96 10.345
44 CP5 97 10.345
44 CP5 98 11.322
44 CP5 99 13.763
44 CP5 100 15.717
44 CP5 101 17.181
44 CP5 102 16.693
44 CP5 103 14.740
44 CP5 104 12.299
44 CP5 105 10.345
44 CP5 106 9.857
44 CP5 107 9.857
44 CP5 108 9.857
44 CP5 109 9.369
44 CP5 110 9.369
44 CP5 111 10.834
44 CP5 112 13.763
44 CP5 113 16.693
44 CP5 114 18.646
44 CP5 115 17.670
44 CP5 116 14.740
44 CP5 117 11.322
44 CP5 118 8.881
44 CP5 119 8.392
44 CP5 120 7.904
44 CP5 121 6.439
44 CP5 122 3.998
44 CP5 123 2.533
44 CP5 124 3.998
44 CP5 125 7.904
44 CP5 126 12.787
44 CP5 127 16.205
44 CP5 128 16.205
44 CP5 129 13.275
44 CP5 130 10.345
44 CP5 131 8.392
44 CP5 132 8.392
44 CP5 133 10.345
44 CP5 134 13.275
44 CP5 135 14.740
44 CP5 136 15.228
44 CP5 137 13.763
44 CP5 138 10.345
44 CP5 139 6.927
44 CP5 140 4.974
44 CP5 141 4.974
44 CP5 142 7.416
44 CP5 143 11.322
44 CP5 144 14.252
44 CP5 145 15.228
44 CP5 146 14.740
44 CP5 147 13.763
44 CP5 148 12.787
44 CP5 149 12.787
44 CP5 150 13.275
44 CP5 151 13.275
44 CP5 152 13.275
44 CP5 153 13.763
44 CP5 154 14.252
44 CP5 155 13.275
44 CP5 156 11.810
44 CP5 157 9.857
44 CP5 158 8.392
44 CP5 159 8.881
44 CP5 160 9.857
44 CP5 161 10.345
44 CP5 162 10.834
44 CP5 163 10.834
44 CP5 164 11.810
44 CP5 165 13.763
44 CP5 166 16.205
44 CP5 167 16.205
44 CP5 168 14.740
44 CP5 169 12.299
44 CP5 170 11.322
44 CP5 171 12.299
44 CP5 172 14.252
44 CP5 173 15.717
44 CP5 174 15.228
44 CP5 175 13.275
44 CP5 176 10.834
44 CP5 177 9.857
44 CP5 178 9.857
44 CP5 179 9.857
44 CP5 180 9.857
44 CP5 181 9.369
44 CP5 182 7.416
44 CP5 183 5.951
44 CP5 184 4.486
44 CP5 185 4.486
44 CP5 186 4.974
44 CP5 187 7.416
44 CP5 188 9.857
44 CP5 189 11.810
44 CP5 190 12.787
44 CP5 191 12.787
44 CP5 192 13.275
44 CP5 193 13.763
44 CP5 194 15.717
44 CP5 195 17.670
44 CP5 196 18.158
44 CP5 197 17.181
44 CP5 198 13.763
44 CP5 199 8.881
44 CP5 200 3.998
44 CP5 201 1.068
44 CP5 202 0.092
44 CP5 203 2.045
44 CP5 204 3.998
44 CP5 205 6.439
44 CP5 206 7.904
44 CP5 207 8.881
44 CP5 208 9.857
44 CP5 209 11.810
44 CP5 210 12.299
44 CP5 211 11.810
44 CP5 212 10.345
44 CP5 213 8.881
44 CP5 214 7.904
44 CP5 215 7.416
44 CP5 216 5.951
44 CP5 217 3.510
44 CP5 218 1.068
44 CP5 219 0.092
44 CP5 220 0.580
44 CP5 221 3.510
44 CP5 222 6.927
44 CP5 223 7.904
44 CP5 224 6.927
44 CP5 225 4.486
44 CP5 226 2.533
44 CP5 227 1.556
44 CP5 228 2.533
44 CP5 229 5.463
44 CP5 230 8.881
44 CP5 231 12.299
44 CP5 232 15.717
44 CP5 233 18.158
44 CP5 234 19.135
44 CP5 235 19.135
44 CP5 236 16.693
44 CP5 237 13.275
44 CP5 238 8.881
44 CP5 239 5.463
44 CP5 240 2.533
44 CP5 241 1.556
44 CP5 242 2.045
44 CP5 243 3.021
44 CP5 244 4.486
44 CP5 245 5.951
44 CP5 246 7.904
44 CP5 247 9.857
44 CP5 248 12.787
44 CP5 249 15.228
44 CP5 250 17.181
44 CP5 251 18.158
44 CP5 252 17.181
44 CP5 253 14.740
44 CP5 254 12.299
44 CP5 255 10.834
# CP6 chan 19
44 CP6 0 -5.788
44 CP6 1 -4.323
44 CP6 2 -3.835
44 CP6 3 -4.812
44 CP6 4 -5.788
44 CP6 5 -5.788
44 CP6 6 -4.812
44 CP6 7 -3.347
44 CP6 8 -2.370
44 CP6 9 -1.882
44 CP6 10 -1.882
44 CP6 11 -0.905
44 CP6 12 0.559
44 CP6 13 2.024
44 CP6 14 3.001
44 CP6 15 3.001
44 CP6 16 2.513
44 CP6 17 2.024
44 CP6 18 2.024
44 CP6 19 1.048
44 CP6 20 0.559
44 CP6 21 1.048
44 CP6 22 2.024
44 CP6 23 3.977
44 CP6 24 6.907
44 CP6 25 9.349
44 CP6 26 11.302
44 CP6 27 11.302
44 CP6 28 9.837
44 CP6 29 6.907
44 CP6 30 4.466
44 CP6 31 3.001
44 CP6 32 3.489
44 CP6 33 5.931
44 CP6 34 8.860
44 CP6 35 10.325
44 CP6 36 9.837
44 CP6 37 8.372
44 CP6 38 6.907
44 CP6 39 6.907
44 CP6 40 7.884
44 CP6 41 7.884
44 CP6 42 6.907
44 CP6 43 5.442
44 CP6 44 3.001
44 CP6 45 1.048
44 CP6 46 -1.882
44 CP6 47 -3.347
44 CP6 48 -4.812
44 CP6 49 -4.323
44 CP6 50 -2.370
44 CP6 51 0.559
44 CP6 52 3.489
44 CP6 53 4.954
44 CP6 54 3.977
44 CP6 55 2.513
44 CP6 56 1.048
44 CP6 57 0.071
44 CP6 58 0.071
44 CP6 59 0.071
44 CP6 60 0.071
44 CP6 61 0.071
44 CP6 62 0.559
44 CP6 63 0.559
44 CP6 64 1.048
44 CP6 65 1.536
44 CP6 66 1.536
44 CP6 67 2.024
44 CP6 68 2.513
44 CP6 69 3.001
44 CP6 70 2.513
44 CP6 71 1.536
44 CP6 72 -0.417
44 CP6 73 -1.394
44 CP6 74 -0.905
44 CP6 75 1.536
44 CP6 76 4.954
44 CP6 77 7.884
44 CP6 78 8.860
44 CP6 79 7.884
44 CP6 80 5.931
44 CP6 81 3.977
44 CP6 82 2.024
44 CP6 83 1.048
44 CP6 84 0.559
44 CP6 85 0.559
44 CP6 86 1.536
44 CP6 87 3.489
44 CP6 88 4.466
44 CP6 89 4.466
44 CP6 90 3.001
44 CP6 91 0.559
44 CP6 92 -0.417
44 CP6 93 0.071
44 CP6 94 2.513
44 CP6 95 5.931
44 CP6 96 7.884
44 CP6 97 8.372
44 CP6 98 7.884
44 CP6 99 6.907
44 CP6 100 6.419
44 CP6 101 6.907
44 CP6 102 7.395
44 CP6 103 7.395
44 CP6 104 6.419
44 CP6 105 3.977
44 CP6 106 1.536
44 CP6 107 -0.417
44 CP6 108 -1.394
44 CP6 109 -1.394
44 CP6 110 -0.905
44 CP6 111 0.559
44 CP6 112 2.024
44 CP6 113 4.466
44 CP6 114 5.931
44 CP6 115 6.907
44 CP6 116 5.442
44 CP6 117 2.024
44 CP6 118 -1.882
44 CP6 119 -5.300
44 CP6 120 -6.765
44 CP6 121 -5.788
44 CP6 122 -3.347
44 CP6 123 -0.417
44 CP6 124 0.559
44 CP6 125 0.071
44 CP6 126 -1.882
44 CP6 127 -3.347
44 CP6 128 -2.858
44 CP6 129 -0.417
44 CP6 130 3.489
44 CP6 131 7.395
44 CP6 132 10.325
44 CP6 133 11.302
44 CP6 134 9.837
44 CP6 135 7.395
44 CP6 136 3.977
44 CP6 137 1.048
44 CP6 138 -0.905
44 CP6 139 -1.882
44 CP6 140 -2.858
44 CP6 141 -3.347
44 CP6 142 -4.323
44 CP6 143 -4.323
44 CP6 144 -2.858
44 CP6 145 -0.417
44 CP6 146 2.513
44 CP6 147 4.466
44 CP6 148 4.954
44 CP6 149 4.466
44 CP6 150 3.489
44 CP6 151 2.513
44 CP6 152 1.048
44 CP6 153 -0.417
44 CP6 154 -2.370
44 CP6 155 -3.835
44 CP6 156 -3.347
44 CP6 157 -1.882
44 CP6 158 0.559
44 CP6 159 2.024
44 CP6 160 2.024
44 CP6 161 0.559
44 CP6 162 -1.882
44 CP6 163 -3.347
44 CP6 164 -3.347
44 CP6 165 -0.905
44 CP6 166 3.001
44 CP6 167 6.419
44 CP6 168 7.395
44 CP6 169 6.907
44 CP6 170 3.977
44 CP6 171 1.048
44 CP6 172 -0.417
44 CP6 173 -0.417
44 CP6 174 0.071
44 CP6 175 -0.417
44 CP6 176 -0.905
44 CP6 177 -1.882
44 CP6 178 -1.882
44 CP6 179 -1.394
44 CP6 180 -0.417
44 CP6 181 -0.905
44 CP6 182 -3.347
44 CP6 183 -6.276
44 CP6 184 -7.741
44 CP6 185 -7.253
44 CP6 186 -5.788
44 CP6 187 -3.835
44 CP6 188 -2.858
44 CP6 189 -2.370
44 CP6 190 -1.394
44 CP6 191 -0.417
44 CP6 192 0.071
44 CP6 193 -0.905
44 CP6 194 -4.323
44 CP6 195 -8.230
44 CP6 196 -10.183
44 CP6 197 -9.206
44 CP6 198 -6.276
44 CP6 199 -3.347
44 CP6 200 -2.858
44 CP6 201 -4.323
44 CP6 202 -6.765
44 CP6 203 -8.230
44 CP6 204 -6.765
44 CP6 205 -3.835
44 CP6 206 -0.905
44 CP6 207 -0.417
44 CP6 208 -1.882
44 CP6 209 -3.835
44 CP6 210 -4.812
44 CP6 211 -4.323
44 CP6 212 -2.858
44 CP6 213 -0.905
44 CP6 214 0.559
44 CP6 215 1.048
44 CP6 216 2.024
44 CP6 217 3.001
44 CP6 218 3.489
44 CP6 219 3.489
44 CP6 220 2.024
44 CP6 221 0.559
44 CP6 222 -0.905
44 CP6 223 -1.882
44 CP6 224 -2.858
44 CP6 225 -2.858
44 CP6 226 -1.882
44 CP6 227 -1.394
44 CP6 228 -0.417
44 CP6 229 0.559
44 CP6 230 0.559
44 CP6 231 0.559
44 CP6 232 0.559
44 CP6 233 0.559
44 CP6 234 0.559
44 CP6 235 -0.417
44 CP6 236 -1.394
44 CP6 237 -2.858
44 CP6 238 -3.347
44 CP6 239 -2.370
44 CP6 240 -1.394
44 CP6 241 -1.394
44 CP6 242 -1.882
44 CP6 243 -3.835
44 CP6 244 -5.788
44 CP6 245 -6.276
44 CP6 246 -5.300
44 CP6 247 -3.347
44 CP6 248 -1.394
44 CP6 249 -0.417
44 CP6 250 0.559
44 CP6 251 3.001
44 CP6 252 4.954
44 CP6 253 6.419
44 CP6 254 6.419
44 CP6 255 4.954
# CP1 chan 20
44 CP1 0 -5.076
44 CP1 1 -4.588
44 CP1 2 -3.611
44 CP1 3 -2.146
44 CP1 4 -1.170
44 CP1 5 -1.170
44 CP1 6 -2.146
44 CP1 7 -3.123
44 CP1 8 -4.100
44 CP1 9 -5.076
44 CP1 10 -5.076
44 CP1 11 -4.100
44 CP1 12 -2.635
44 CP1 13 -1.170
44 CP1 14 -0.193
44 CP1 15 0.295
44 CP1 16 0.295
44 CP1 17 0.295
44 CP1 18 0.295
44 CP1 19 -0.193
44 CP1 20 -0.193
44 CP1 21 -0.682
44 CP1 22 -0.682
44 CP1 23 -0.682
44 CP1 24 0.295
44 CP1 25 1.760
44 CP1 26 3.225
44 CP1 27 3.713
44 CP1 28 3.713
44 CP1 29 2.736
44 CP1 30 2.248
44 CP1 31 2.248
44 CP1 32 2.736
44 CP1 33 4.201
44 CP1 34 4.690
44 CP1 35 4.201
44 CP1 36 3.713
44 CP1 37 2.248
44 CP1 38 0.783
44 CP1 39 -0.193
44 CP1 40 -0.193
44 CP1 41 0.295
44 CP1 42 0.783
44 CP1 43 0.783
44 CP1 44 0.295
44 CP1 45 -1.170
44 CP1 46 -2.635
44 CP1 47 -4.100
44 CP1 48 -3.611
44 CP1 49 -1.658
44 CP1 50 0.295
44 CP1 51 1.760
44 CP1 52 1.760
44 CP1 53 0.295
44 CP1 54 -1.170
44 CP1 55 -2.635
44 CP1 56 -2.146
44 CP1 57 -0.193
44 CP1 58 1.272
44 CP1 59 2.248
44 CP1 60 2.248
44 CP1 61 1.760
44 CP1 62 0.783
44 CP1 63 0.295
44 CP1 64 0.783
44 CP1 65 1.760
44 CP1 66 2.736
44 CP1 67 3.713
44 CP1 68 3.713
44 CP1 69 3.225
44 CP1 70 2.736
44 CP1 71 2.248
44 CP1 72 2.248
44 CP1 73 2.736
44 CP1 74 3.713
44 CP1 75 4.201
44 CP1 76 4.690
44 CP1 77 3.713
44 CP1 78 3.225
44 CP1 79 3.225
44 CP1 80 3.225
44 CP1 81 3.713
44 CP1 82 3.713
44 CP1 83 3.225
44 CP1 84 2.736
44 CP1 85 2.248
44 CP1 86 2.736
44 CP1 87 3.225
44 CP1 88 3.225
44 CP1 89 3.225
44 CP1 90 3.225
44 CP1 91 2.736
44 CP1 92 2.248
44 CP1 93 1.760
44 CP1 94 1.272
44 CP1 95 1.272
44 CP1 96 1.272
44 CP1 97 1.272
44 CP1 98 2.248
44 CP1 99 2.736
44 CP1 100 3.225
44 CP1 101 3.713
44 CP1 102 3.225
44 CP1 103 2.248
44 CP1 104 1.760
44 CP1 105 0.783
44 CP1 106 0.295
44 CP1 107 -0.193
44 CP1 108 -0.682
44 CP1 109 -0.682
44 CP1 110 -0.682
44 CP1 111 -0.193
44 CP1 112 0.295
44 CP1 113 1.272
44 CP1 114 1.760
44 CP1 115 1.272
44 CP1 116 -0.193
44 CP1 117 -2.635
44 CP1 118 -5.564
44 CP1 119 -7.029
44 CP1 120 -8.006
44 CP1 121 -7.517
44 CP1 122 -7.029
44 CP1 123 -6.053
44 CP1 124 -5.076
44 CP1 125 -3.611
44 CP1 126 -2.635
44 CP1 127 -2.146
44 CP1 128 -2.146
44 CP1 129 -2.635
44 CP1 130 -3.123
44 CP1 131 -2.635
44 CP1 132 -2.635
44 CP1 133 -1.658
44 CP1 134 -1.170
44 CP1 135 -0.682
44 CP1 136 -0.193
44 CP1 137 -0.682
44 CP1 138 -2.146
44 CP1 139 -3.611
44 CP1 140 -5.076
44 CP1 141 -5.564
44 CP1 142 -5.076
44 CP1 143 -3.611
44 CP1 144 -2.146
44 CP1 145 -1.170
44 CP1 146 -1.170
44 CP1 147 -1.658
44 CP1 148 -2.146
44 CP1 149 -3.123
44 CP1 150 -3.611
44 CP1 151 -4.100
44 CP1 152 -4.100
44 CP1 153 -3.123
44 CP1 154 -2.146
44 CP1 155 -2.146
44 CP1 156 -3.123
44 CP1 157 -4.588
44 CP1 158 -5.564
44 CP1 159 -6.053
44 CP1 160 -6.541
44 CP1 161 -7.517
44 CP1 162 -8.006
44 CP1 163 -8.982
44 CP1 164 -8.494
44 CP1 165 -7.517
44 CP1 166 -5.564
44 CP1 167 -4.100
44 CP1 168 -3.611
44 CP1 169 -4.100
44 CP1 170 -4.100
44 CP1 171 -3.611
44 CP1 172 -2.635
44 CP1 173 -2.146
44 CP1 174 -2.146
44 CP1 175 -3.123
44 CP1 176 -4.588
44 CP1 177 -5.564
44 CP1 178 -5.564
44 CP1 179 -5.076
44 CP1 180 -5.076
44 CP1 181 -5.076
44 CP1 182 -5.564
44 CP1 183 -6.541
44 CP1 184 -7.029
44 CP1 185 -7.517
44 CP1 186 -7.517
44 CP1 187 -6.053
44 CP1 188 -5.076
44 CP1 189 -4.588
44 CP1 190 -4.588
44 CP1 191 -5.076
44 CP1 192 -6.053
44 CP1 193 -6.541
44 CP1 194 -6.053
44 CP1 195 -5.076
44 CP1 196 -4.100
44 CP1 197 -3.611
44 CP1 198 -4.100
44 CP1 199 -5.076
44 CP1 200 -7.029
44 CP1 201 -8.982
44 CP1 202 -10.447
44 CP1 203 -10.935
44 CP1 204 -10.935
44 CP1 205 -10.935
44 CP1 206 -10.447
44 CP1 207 -9.959
44 CP1 208 -8.982
44 CP1 209 -8.494
44 CP1 210 -8.494
44 CP1 211 -8.494
44 CP1 212 -8.982
44 CP1 213 -8.982
44 CP1 214 -8.006
44 CP1 215 -7.517
44 CP1 216 -7.517
44 CP1 217 -8.494
44 CP1 218 -9.959
44 CP1 219 -11.424
44 CP1 220 -11.912
44 CP1 221 -10.935
44 CP1 222 -9.959
44 CP1 223 -8.982
44 CP1 224 -8.494
44 CP1 225 -8.494
44 CP1 226 -8.982
44 CP1 227 -8.982
44 CP1 228 -8.494
44 CP1 229 -8.006
44 CP1 230 -7.029
44 CP1 231 -5.564
44 CP1 232 -4.100
44 CP1 233 -3.123
44 CP1 234 -2.146
44 CP1 235 -2.146
44 CP1 236 -2.635
44 CP1 237 -4.588
44 CP1 238 -6.541
44 CP1 239 -8.494
44 CP1 240 -9.959
44 CP1 241 -10.935
44 CP1 242 -10.935
44 CP1 243 -9.959
44 CP1 244 -8.982
44 CP1 245 -7.517
44 CP1 246 -6.541
44 CP1 247 -5.076
44 CP1 248 -4.588
44 CP1 249 -3.611
44 CP1 250 -3.611
44 CP1 251 -4.100
44 CP1 252 -5.076
44 CP1 253 -6.541
44 CP1 254 -7.517
44 CP1 255 -8.006
# CP2 chan 21
44 CP2 0 -6.429
44 CP2 1 -4.964
44 CP2 2 -4.476
44 CP2 3 -4.964
44 CP2 4 -5.452
44 CP2 5 -5.941
44 CP2 6 -6.429
44 CP2 7 -6.429
44 CP2 8 -6.917
44 CP2 9 -7.406
44 CP2 10 -6.917
44 CP2 11 -5.452
44 CP2 12 -3.988
44 CP2 13 -2.523
44 CP2 14 -2.523
44 CP2 15 -2.523
44 CP2 16 -2.523
44 CP2 17 -2.035
44 CP2 18 -2.035
44 CP2 19 -2.035
44 CP2 20 -2.035
44 CP2 21 -2.035
44 CP2 22 -2.035
44 CP2 23 -1.058
44 CP2 24 -0.081
44 CP2 25 0.407
44 CP2 26 0.895
44 CP2 27 0.407
44 CP2 28 -0.570
44 CP2 29 -1.546
44 CP2 30 -3.011
44 CP2 31 -3.499
44 CP2 32 -3.011
44 CP2 33 -1.058
44 CP2 34 0.895
44 CP2 35 1.872
44 CP2 36 1.383
44 CP2 37 0.407
44 CP2 38 -1.546
44 CP2 39 -2.035
44 CP2 40 -2.035
44 CP2 41 -1.546
44 CP2 42 -2.035
44 CP2 43 -3.011
44 CP2 44 -4.964
44 CP2 45 -6.917
44 CP2 46 -8.382
44 CP2 47 -9.359
44 CP2 48 -9.847
44 CP2 49 -8.870
44 CP2 50 -7.894
44 CP2 51 -6.917
44 CP2 52 -6.429
44 CP2 53 -6.429
44 CP2 54 -7.406
44 CP2 55 -7.894
44 CP2 56 -7.406
44 CP2 57 -6.429
44 CP2 58 -5.452
44 CP2 59 -4.964
44 CP2 60 -4.964
44 CP2 61 -5.452
44 CP2 62 -5.941
44 CP2 63 -5.941
44 CP2 64 -5.452
44 CP2 65 -4.964
44 CP2 66 -4.476
44 CP2 67 -4.476
44 CP2 68 -3.988
44 CP2 69 -3.011
44 CP2 70 -3.011
44 CP2 71 -3.499
44 CP2 72 -4.964
44 CP2 73 -6.429
44 CP2 74 -6.429
44 CP2 75 -4.964
44 CP2 76 -3.011
44 CP2 77 -1.546
44 CP2 78 -1.546
44 CP2 79 -2.523
44 CP2 80 -3.499
44 CP2 81 -4.476
44 CP2 82 -5.941
44 CP2 83 -5.941
44 CP2 84 -5.941
44 CP2 85 -4.964
44 CP2 86 -3.499
44 CP2 87 -1.546
44 CP2 88 -0.570
44 CP2 89 -0.570
44 CP2 90 -1.546
44 CP2 91 -3.499
44 CP2 92 -4.476
44 CP2 93 -4.964
44 CP2 94 -3.988
44 CP2 95 -3.011
44 CP2 96 -2.523
44 CP2 97 -2.035
44 CP2 98 -2.523
44 CP2 99 -2.523
44 CP2 100 -2.523
44 CP2 101 -2.035
44 CP2 102 -1.546
44 CP2 103 -1.546
44 CP2 104 -2.523
44 CP2 105 -3.988
44 CP2 106 -5.452
44 CP2 107 -6.917
44 CP2 108 -7.406
44 CP2 109 -6.917
44 CP2 110 -5.941
44 CP2 111 -4.964
44 CP2 112 -4.964
44 CP2 113 -4.476
44 CP2 114 -4.964
44 CP2 115 -5.941
44 CP2 116 -7.894
44 CP2 117 -11.312
44 CP2 118 -14.730
44 CP2 119 -17.171
44 CP2 120 -18.148
44 CP2 121 -16.195
44 CP2 122 -13.265
44 CP2 123 -10.335
44 CP2 124 -9.359
44 CP2 125 -9.359
44 CP2 126 -10.335
44 CP2 127 -11.800
44 CP2 128 -11.312
44 CP2 129 -10.335
44 CP2 130 -8.382
44 CP2 131 -6.429
44 CP2 132 -4.964
44 CP2 133 -3.988
44 CP2 134 -3.988
44 CP2 135 -4.964
44 CP2 136 -6.429
44 CP2 137 -7.894
44 CP2 138 -9.359
44 CP2 139 -10.824
44 CP2 140 -11.800
44 CP2 141 -12.288
44 CP2 142 -12.777
44 CP2 143 -12.777
44 CP2 144 -11.800
44 CP2 145 -10.335
44 CP2 146 -8.870
44 CP2 147 -7.894
44 CP2 148 -7.894
44 CP2 149 -8.382
44 CP2 150 -8.870
44 CP2 151 -9.359
44 CP2 152 -9.359
44 CP2 153 -9.847
44 CP2 154 -10.335
44 CP2 155 -10.335
44 CP2 156 -10.335
44 CP2 157 -9.359
44 CP2 158 -8.870
44 CP2 159 -9.359
44 CP2 160 -9.847
44 CP2 161 -12.777
44 CP2 162 -14.730
44 CP2 163 -17.171
44 CP2 164 -17.660
44 CP2 165 -17.171
44 CP2 166 -15.218
44 CP2 167 -13.753
44 CP2 168 -12.777
44 CP2 169 -13.265
44 CP2 170 -14.242
44 CP2 171 -15.218
44 CP2 172 -16.195
44 CP2 173 -16.683
44 CP2 174 -16.195
44 CP2 175 -16.683
44 CP2 176 -16.683
44 CP2 177 -16.683
44 CP2 178 -16.195
44 CP2 179 -16.195
44 CP2 180 -16.195
44 CP2 181 -16.683
44 CP2 182 -17.660
44 CP2 183 -18.636
44 CP2 184 -19.124
44 CP2 185 -18.636
44 CP2 186 -18.148
44 CP2 187 -17.660
44 CP2 188 -17.660
44 CP2 189 -17.660
44 CP2 190 -17.660
44 CP2 191 -17.660
44 CP2 192 -17.660
44 CP2 193 -18.636
44 CP2 194 -19.613
44 CP2 195 -20.589
44 CP2 196 -20.589
44 CP2 197 -19.124
44 CP2 198 -18.148
44 CP2 199 -17.171
44 CP2 200 -17.660
44 CP2 201 -19.124
44 CP2 202 -20.589
44 CP2 203 -22.054
44 CP2 204 -22.054
44 CP2 205 -22.054
44 CP2 206 -21.077
44 CP2 207 -21.077
44 CP2 208 -21.077
44 CP2 209 -21.077
44 CP2 210 -21.077
44 CP2 211 -20.589
44 CP2 212 -19.613
44 CP2 213 -19.124
44 CP2 214 -18.148
44 CP2 215 -18.148
44 CP2 216 -17.660
44 CP2 217 -17.171
44 CP2 218 -17.171
44 CP2 219 -17.660
44 CP2 220 -18.148
44 CP2 221 -19.124
44 CP2 222 -19.124
44 CP2 223 -19.124
44 CP2 224 -18.636
44 CP2 225 -18.148
44 CP2 226 -18.148
44 CP2 227 -17.660
44 CP2 228 -17.171
44 CP2 229 -17.171
44 CP2 230 -17.171
44 CP2 231 -16.683
44 CP2 232 -17.171
44 CP2 233 -17.171
44 CP2 234 -16.683
44 CP2 235 -16.195
44 CP2 236 -15.706
44 CP2 237 -15.706
44 CP2 238 -16.683
44 CP2 239 -17.171
44 CP2 240 -18.148
44 CP2 241 -18.148
44 CP2 242 -17.660
44 CP2 243 -17.171
44 CP2 244 -17.171
44 CP2 245 -16.683
44 CP2 246 -17.171
44 CP2 247 -17.171
44 CP2 248 -17.660
44 CP2 249 -17.660
44 CP2 250 -17.660
44 CP2 251 -16.683
44 CP2 252 -15.706
44 CP2 253 -15.218
44 CP2 254 -14.730
44 CP2 255 -14.730
# P3 chan 22
44 P3 0 -5.005
44 P3 1 -3.540
44 P3 2 -1.587
44 P3 3 -0.122
44 P3 4 0.854
44 P3 5 1.343
44 P3 6 0.854
44 P3 7 -1.099
44 P3 8 -3.540
44 P3 9 -5.493
44 P3 10 -5.493
44 P3 11 -4.028
44 P3 12 -0.610
44 P3 13 2.808
44 P3 14 4.761
44 P3 15 5.249
44 P3 16 5.249
44 P3 17 4.761
44 P3 18 5.249
44 P3 19 5.249
44 P3 20 5.737
44 P3 21 6.226
44 P3 22 6.714
44 P3 23 8.179
44 P3 24 10.132
44 P3 25 13.062
44 P3 26 15.991
44 P3 27 17.456
44 P3 28 17.456
44 P3 29 15.991
44 P3 30 14.526
44 P3 31 13.550
44 P3 32 14.526
44 P3 33 15.991
44 P3 34 17.456
44 P3 35 17.944
44 P3 36 16.479
44 P3 37 14.038
44 P3 38 11.108
44 P3 39 9.155
44 P3 40 8.179
44 P3 41 7.690
44 P3 42 7.690
44 P3 43 6.714
44 P3 44 4.272
44 P3 45 0.854
44 P3 46 -2.075
44 P3 47 -4.028
44 P3 48 -3.540
44 P3 49 -0.610
44 P3 50 3.296
44 P3 51 6.714
44 P3 52 7.690
44 P3 53 5.737
44 P3 54 3.296
44 P3 55 1.831
44 P3 56 2.808
44 P3 57 5.249
44 P3 58 8.179
44 P3 59 9.155
44 P3 60 8.667
44 P3 61 6.714
44 P3 62 5.249
44 P3 63 5.737
44 P3 64 7.690
44 P3 65 10.132
44 P3 66 12.085
44 P3 67 13.062
44 P3 68 12.573
44 P3 69 11.108
44 P3 70 9.644
44 P3 71 8.667
44 P3 72 7.690
44 P3 73 8.179
44 P3 74 9.155
44 P3 75 10.620
44 P3 76 11.597
44 P3 77 11.108
44 P3 78 10.132
44 P3 79 9.644
44 P3 80 9.155
44 P3 81 8.667
44 P3 82 7.690
44 P3 83 5.249
44 P3 84 2.808
44 P3 85 1.343
44 P3 86 1.343
44 P3 87 2.808
44 P3 88 4.272
44 P3 89 5.737
44 P3 90 5.737
44 P3 91 5.737
44 P3 92 5.249
44 P3 93 5.737
44 P3 94 6.226
44 P3 95 5.737
44 P3 96 5.249
44 P3 97 4.761
44 P3 98 4.272
44 P3 99 4.761
44 P3 100 5.737
44 P3 101 6.226
44 P3 102 5.737
44 P3 103 4.272
44 P3 104 2.319
44 P3 105 0.366
44 P3 106 -1.587
44 P3 107 -2.563
44 P3 108 -2.563
44 P3 109 -1.587
44 P3 110 -0.610
44 P3 111 1.343
44 P3 112 3.296
44 P3 113 4.761
44 P3 114 5.249
44 P3 115 4.272
44 P3 116 1.831
44 P3 117 -2.075
44 P3 118 -5.981
44 P3 119 -9.399
44 P3 120 -9.888
44 P3 121 -8.423
44 P3 122 -5.981
44 P3 123 -3.540
44 P3 124 -1.587
44 P3 125 -0.610
44 P3 126 -0.610
44 P3 127 -1.099
44 P3 128 -1.099
44 P3 129 -0.610
44 P3 130 -0.122
44 P3 131 1.343
44 P3 132 2.808
44 P3 133 3.784
44 P3 134 3.784
44 P3 135 3.784
44 P3 136 2.319
44 P3 137 0.854
44 P3 138 -1.099
44 P3 139 -3.540
44 P3 140 -5.005
44 P3 141 -5.005
44 P3 142 -4.028
44 P3 143 -2.563
44 P3 144 -1.099
44 P3 145 0.366
44 P3 146 1.831
44 P3 147 2.319
44 P3 148 1.831
44 P3 149 0.366
44 P3 150 -2.075
44 P3 151 -4.028
44 P3 152 -4.028
44 P3 153 -2.563
44 P3 154 -0.122
44 P3 155 0.366
44 P3 156 -0.122
44 P3 157 -2.563
44 P3 158 -4.517
44 P3 159 -5.005
44 P3 160 -4.517
44 P3 161 -3.540
44 P3 162 -4.028
44 P3 163 -4.517
44 P3 164 -4.517
44 P3 165 -2.563
44 P3 166 0.366
44 P3 167 2.319
44 P3 168 2.319
44 P3 169 1.343
44 P3 170 0.854
44 P3 171 2.319
44 P3 172 4.272
44 P3 173 5.249
44 P3 174 3.784
44 P3 175 0.854
44 P3 176 -1.587
44 P3 177 -2.563
44 P3 178 -1.587
44 P3 179 -0.610
44 P3 180 -0.610
44 P3 181 -2.075
44 P3 182 -4.517
44 P3 183 -5.981
44 P3 184 -7.446
44 P3 185 -6.958
44 P3 186 -5.493
44 P3 187 -3.052
44 P3 188 -0.610
44 P3 189 2.319
44 P3 190 3.296
44 P3 191 3.296
44 P3 192 2.319
44 P3 193 1.343
44 P3 194 1.343
44 P3 195 2.808
44 P3 196 4.272
44 P3 197 4.272
44 P3 198 2.808
44 P3 199 -0.122
44 P3 200 -3.540
44 P3 201 -6.470
44 P3 202 -7.446
44 P3 203 -6.958
44 P3 204 -5.493
44 P3 205 -4.517
44 P3 206 -3.540
44 P3 207 -2.563
44 P3 208 -1.587
44 P3 209 -0.610
44 P3 210 -0.122
44 P3 211 0.854
44 P3 212 1.343
44 P3 213 1.831
44 P3 214 1.831
44 P3 215 1.343
44 P3 216 0.366
44 P3 217 -1.099
44 P3 218 -2.563
44 P3 219 -3.540
44 P3 220 -3.052
44 P3 221 -2.075
44 P3 222 -0.610
44 P3 223 0.366
44 P3 224 1.343
44 P3 225 1.343
44 P3 226 0.854
44 P3 227 0.854
44 P3 228 0.366
44 P3 229 1.343
44 P3 230 2.808
44 P3 231 5.249
44 P3 232 8.179
44 P3 233 11.597
44 P3 234 14.038
44 P3 235 14.526
44 P3 236 13.062
44 P3 237 9.644
44 P3 238 4.761
44 P3 239 -0.122
44 P3 240 -4.028
44 P3 241 -5.981
44 P3 242 -5.493
44 P3 243 -4.028
44 P3 244 -0.610
44 P3 245 2.319
44 P3 246 5.249
44 P3 247 7.202
44 P3 248 9.155
44 P3 249 10.132
44 P3 250 10.620
44 P3 251 10.132
44 P3 252 8.667
44 P3 253 7.202
44 P3 254 5.249
44 P3 255 5.249
# P4 chan 23
44 P4 0 -5.961
44 P4 1 -3.031
44 P4 2 -3.031
44 P4 3 -4.008
44 P4 4 -4.985
44 P4 5 -5.473
44 P4 6 -4.496
44 P4 7 -4.496
44 P4 8 -5.473
44 P4 9 -5.961
44 P4 10 -5.473
44 P4 11 -3.031
44 P4 12 -0.102
44 P4 13 1.363
44 P4 14 1.851
44 P4 15 1.851
44 P4 16 1.363
44 P4 17 1.851
44 P4 18 2.828
44 P4 19 2.828
44 P4 20 3.805
44 P4 21 4.293
44 P4 22 5.758
44 P4 23 7.711
44 P4 24 10.152
44 P4 25 13.082
44 P4 26 15.035
44 P4 27 16.012
44 P4 28 15.523
44 P4 29 13.082
44 P4 30 10.152
44 P4 31 8.199
44 P4 32 8.687
44 P4 33 11.617
44 P4 34 16.012
44 P4 35 17.965
44 P4 36 17.476
44 P4 37 14.547
44 P4 38 11.617
44 P4 39 9.664
44 P4 40 9.664
44 P4 41 10.152
44 P4 42 9.664
44 P4 43 7.711
44 P4 44 4.781
44 P4 45 2.340
44 P4 46 0.387
44 P4 47 -1.078
44 P4 48 -0.590
44 P4 49 0.875
44 P4 50 2.828
44 P4 51 5.269
44 P4 52 6.734
44 P4 53 7.222
44 P4 54 6.734
44 P4 55 6.246
44 P4 56 6.246
44 P4 57 7.222
44 P4 58 7.711
44 P4 59 7.711
44 P4 60 7.711
44 P4 61 7.711
44 P4 62 7.711
44 P4 63 7.711
44 P4 64 7.711
44 P4 65 7.711
44 P4 66 8.199
44 P4 67 8.687
44 P4 68 10.640
44 P4 69 11.617
44 P4 70 11.617
44 P4 71 9.664
44 P4 72 7.222
44 P4 73 5.269
44 P4 74 6.246
44 P4 75 9.176
44 P4 76 12.105
44 P4 77 14.058
44 P4 78 14.058
44 P4 79 13.082
44 P4 80 12.594
44 P4 81 12.105
44 P4 82 12.105
44 P4 83 11.617
44 P4 84 11.129
44 P4 85 11.129
44 P4 86 12.594
44 P4 87 14.547
44 P4 88 15.035
44 P4 89 14.547
44 P4 90 11.617
44 P4 91 8.687
44 P4 92 6.734
44 P4 93 7.222
44 P4 94 9.176
44 P4 95 11.129
44 P4 96 12.105
44 P4 97 11.617
44 P4 98 11.129
44 P4 99 11.129
44 P4 100 11.617
44 P4 101 12.594
44 P4 102 13.570
44 P4 103 13.082
44 P4 104 11.129
44 P4 105 8.199
44 P4 106 5.269
44 P4 107 3.805
44 P4 108 3.316
44 P4 109 4.781
44 P4 110 6.246
44 P4 111 7.711
44 P4 112 9.176
44 P4 113 10.640
44 P4 114 11.129
44 P4 115 10.152
44 P4 116 7.222
44 P4 117 1.851
44 P4 118 -4.008
44 P4 119 -7.914
44 P4 120 -7.914
44 P4 121 -4.496
44 P4 122 0.875
44 P4 123 5.269
44 P4 124 6.734
44 P4 125 5.269
44 P4 126 2.828
44 P4 127 0.875
44 P4 128 1.363
44 P4 129 4.293
44 P4 130 8.199
44 P4 131 12.594
44 P4 132 16.012
44 P4 133 16.988
44 P4 134 15.523
44 P4 135 12.594
44 P4 136 9.664
44 P4 137 7.222
44 P4 138 5.269
44 P4 139 4.293
44 P4 140 2.828
44 P4 141 1.363
44 P4 142 -0.102
44 P4 143 0.387
44 P4 144 2.828
44 P4 145 7.222
44 P4 146 11.129
44 P4 147 13.570
44 P4 148 13.570
44 P4 149 11.617
44 P4 150 10.152
44 P4 151 8.687
44 P4 152 8.687
44 P4 153 8.199
44 P4 154 7.711
44 P4 155 7.222
44 P4 156 7.222
44 P4 157 7.711
44 P4 158 8.687
44 P4 159 8.687
44 P4 160 7.222
44 P4 161 4.293
44 P4 162 1.851
44 P4 163 0.387
44 P4 164 0.875
44 P4 165 3.316
44 P4 166 6.246
44 P4 167 9.176
44 P4 168 10.152
44 P4 169 9.664
44 P4 170 8.687
44 P4 171 7.711
44 P4 172 7.222
44 P4 173 7.222
44 P4 174 6.734
44 P4 175 5.758
44 P4 176 4.781
44 P4 177 4.293
44 P4 178 4.781
44 P4 179 6.246
44 P4 180 6.734
44 P4 181 5.269
44 P4 182 2.340
44 P4 183 -0.590
44 P4 184 -1.078
44 P4 185 -0.590
44 P4 186 1.363
44 P4 187 2.340
44 P4 188 2.340
44 P4 189 2.340
44 P4 190 2.828
44 P4 191 3.805
44 P4 192 3.805
44 P4 193 3.316
44 P4 194 1.363
44 P4 195 -0.590
44 P4 196 -1.567
44 P4 197 -1.567
44 P4 198 -0.102
44 P4 199 0.875
44 P4 200 0.875
44 P4 201 -1.078
44 P4 202 -3.031
44 P4 203 -4.008
44 P4 204 -3.031
44 P4 205 -1.567
44 P4 206 0.875
44 P4 207 0.875
44 P4 208 0.387
44 P4 209 -1.078
44 P4 210 -2.055
44 P4 211 -2.543
44 P4 212 -1.567
44 P4 213 0.387
44 P4 214 2.340
44 P4 215 4.781
44 P4 216 6.734
44 P4 217 7.711
44 P4 218 7.222
44 P4 219 5.758
44 P4 220 4.781
44 P4 221 3.805
44 P4 222 3.805
44 P4 223 3.316
44 P4 224 2.828
44 P4 225 2.828
44 P4 226 3.316
44 P4 227 4.781
44 P4 228 5.758
44 P4 229 7.222
44 P4 230 7.711
44 P4 231 8.199
44 P4 232 8.687
44 P4 233 9.664
44 P4 234 10.152
44 P4 235 9.664
44 P4 236 9.176
44 P4 237 7.711
44 P4 238 6.734
44 P4 239 5.758
44 P4 240 5.269
44 P4 241 4.293
44 P4 242 3.316
44 P4 243 2.828
44 P4 244 3.805
44 P4 245 5.269
44 P4 246 7.222
44 P4 247 8.199
44 P4 248 8.199
44 P4 249 9.176
44 P4 250 10.640
44 P4 251 13.570
44 P4 252 15.523
44 P4 253 15.523
44 P4 254 14.547
44 P4 255 12.105
# PZ chan 24
44 PZ 0 -3.866
44 PZ 1 -1.912
44 PZ 2 -0.936
44 PZ 3 -1.424
44 PZ 4 -2.401
44 PZ 5 -2.889
44 PZ 6 -3.377
44 PZ 7 -4.842
44 PZ 8 -6.307
44 PZ 9 -8.260
44 PZ 10 -8.748
44 PZ 11 -7.772
44 PZ 12 -5.330
44 PZ 13 -3.377
44 PZ 14 -2.401
44 PZ 15 -1.912
44 PZ 16 -2.401
44 PZ 17 -1.912
44 PZ 18 -1.424
44 PZ 19 -0.936
44 PZ 20 -0.448
44 PZ 21 -0.936
44 PZ 22 -0.448
44 PZ 23 0.041
44 PZ 24 2.482
44 PZ 25 4.924
44 PZ 26 7.365
44 PZ 27 8.830
44 PZ 28 8.830
44 PZ 29 7.853
44 PZ 30 6.388
44 PZ 31 5.900
44 PZ 32 7.853
44 PZ 33 11.271
44 PZ 34 15.177
44 PZ 35 17.131
44 PZ 36 17.131
44 PZ 37 14.201
44 PZ 38 10.783
44 PZ 39 8.830
44 PZ 40 8.830
44 PZ 41 9.806
44 PZ 42 10.295
44 PZ 43 9.806
44 PZ 44 7.853
44 PZ 45 4.924
44 PZ 46 2.482
44 PZ 47 1.017
44 PZ 48 1.994
44 PZ 49 3.947
44 PZ 50 6.877
44 PZ 51 10.295
44 PZ 52 11.759
44 PZ 53 12.248
44 PZ 54 11.759
44 PZ 55 11.759
44 PZ 56 12.736
44 PZ 57 15.177
44 PZ 58 18.107
44 PZ 59 20.060
44 PZ 60 20.549
44 PZ 61 20.060
44 PZ 62 19.572
44 PZ 63 19.572
44 PZ 64 19.572
44 PZ 65 20.060
44 PZ 66 21.037
44 PZ 67 22.502
44 PZ 68 24.455
44 PZ 69 25.920
44 PZ 70 26.408
44 PZ 71 25.431
44 PZ 72 23.478
44 PZ 73 21.525
44 PZ 74 21.525
44 PZ 75 23.478
44 PZ 76 25.920
44 PZ 77 27.384
44 PZ 78 27.384
44 PZ 79 26.408
44 PZ 80 25.431
44 PZ 81 24.943
44 PZ 82 24.455
44 PZ 83 24.455
44 PZ 84 23.966
44 PZ 85 23.966
44 PZ 86 24.455
44 PZ 87 25.920
44 PZ 88 27.384
44 PZ 89 27.873
44 PZ 90 26.896
44 PZ 91 25.431
44 PZ 92 23.966
44 PZ 93 23.966
44 PZ 94 24.455
44 PZ 95 25.431
44 PZ 96 26.408
44 PZ 97 26.896
44 PZ 98 27.384
44 PZ 99 28.361
44 PZ 100 29.338
44 PZ 101 30.314
44 PZ 102 29.826
44 PZ 103 28.849
44 PZ 104 26.408
44 PZ 105 23.966
44 PZ 106 21.525
44 PZ 107 20.060
44 PZ 108 20.060
44 PZ 109 21.525
44 PZ 110 22.990
44 PZ 111 24.943
44 PZ 112 26.408
44 PZ 113 26.896
44 PZ 114 27.384
44 PZ 115 25.920
44 PZ 116 22.990
44 PZ 117 18.595
44 PZ 118 13.713
44 PZ 119 9.806
44 PZ 120 9.318
44 PZ 121 11.759
44 PZ 122 15.666
44 PZ 123 19.572
44 PZ 124 21.525
44 PZ 125 21.037
44 PZ 126 20.060
44 PZ 127 18.595
44 PZ 128 18.595
44 PZ 129 20.060
44 PZ 130 22.013
44 PZ 131 24.455
44 PZ 132 26.408
44 PZ 133 27.873
44 PZ 134 27.384
44 PZ 135 26.408
44 PZ 136 24.455
44 PZ 137 22.502
44 PZ 138 20.549
44 PZ 139 18.595
44 PZ 140 16.642
44 PZ 141 15.177
44 PZ 142 14.689
44 PZ 143 15.177
44 PZ 144 16.642
44 PZ 145 18.595
44 PZ 146 20.549
44 PZ 147 21.525
44 PZ 148 21.525
44 PZ 149 20.060
44 PZ 150 18.595
44 PZ 151 18.107
44 PZ 152 17.619
44 PZ 153 18.595
44 PZ 154 19.084
44 PZ 155 19.572
44 PZ 156 19.572
44 PZ 157 19.084
44 PZ 158 19.084
44 PZ 159 18.595
44 PZ 160 17.619
44 PZ 161 16.154
44 PZ 162 13.713
44 PZ 163 11.759
44 PZ 164 10.783
44 PZ 165 12.248
44 PZ 166 14.689
44 PZ 167 17.619
44 PZ 168 19.572
44 PZ 169 19.572
44 PZ 170 19.572
44 PZ 171 19.572
44 PZ 172 20.549
44 PZ 173 21.525
44 PZ 174 22.013
44 PZ 175 20.549
44 PZ 176 18.595
44 PZ 177 17.131
44 PZ 178 17.131
44 PZ 179 17.619
44 PZ 180 18.107
44 PZ 181 17.131
44 PZ 182 15.177
44 PZ 183 12.736
44 PZ 184 11.271
44 PZ 185 10.783
44 PZ 186 12.248
44 PZ 187 14.201
44 PZ 188 16.154
44 PZ 189 17.619
44 PZ 190 18.595
44 PZ 191 18.595
44 PZ 192 18.595
44 PZ 193 18.595
44 PZ 194 18.107
44 PZ 195 18.107
44 PZ 196 18.595
44 PZ 197 19.084
44 PZ 198 19.572
44 PZ 199 19.572
44 PZ 200 19.572
44 PZ 201 19.084
44 PZ 202 18.107
44 PZ 203 18.107
44 PZ 204 18.595
44 PZ 205 19.572
44 PZ 206 20.549
44 PZ 207 21.037
44 PZ 208 21.525
44 PZ 209 21.525
44 PZ 210 21.525
44 PZ 211 22.013
44 PZ 212 22.502
44 PZ 213 23.478
44 PZ 214 24.455
44 PZ 215 24.943
44 PZ 216 24.455
44 PZ 217 24.455
44 PZ 218 22.990
44 PZ 219 21.525
44 PZ 220 20.549
44 PZ 221 19.572
44 PZ 222 19.572
44 PZ 223 19.572
44 PZ 224 19.572
44 PZ 225 19.572
44 PZ 226 19.572
44 PZ 227 19.572
44 PZ 228 19.084
44 PZ 229 19.084
44 PZ 230 18.595
44 PZ 231 18.595
44 PZ 232 19.084
44 PZ 233 19.572
44 PZ 234 21.037
44 PZ 235 21.525
44 PZ 236 21.525
44 PZ 237 20.549
44 PZ 238 18.107
44 PZ 239 15.666
44 PZ 240 13.713
44 PZ 241 12.736
44 PZ 242 12.736
44 PZ 243 14.201
44 PZ 244 16.642
44 PZ 245 18.595
44 PZ 246 20.549
44 PZ 247 22.502
44 PZ 248 22.990
44 PZ 249 23.478
44 PZ 250 23.966
44 PZ 251 24.455
44 PZ 252 24.943
44 PZ 253 25.431
44 PZ 254 26.408
44 PZ 255 26.896
# P8 chan 25
44 P8 0 -6.816
44 P8 1 -2.421
44 P8 2 -0.468
44 P8 3 -1.444
44 P8 4 -3.886
44 P8 5 -4.374
44 P8 6 -3.886
44 P8 7 -3.398
44 P8 8 -3.398
44 P8 9 -3.886
44 P8 10 -2.909
44 P8 11 -0.468
44 P8 12 2.950
44 P8 13 6.368
44 P8 14 7.833
44 P8 15 6.856
44 P8 16 4.903
44 P8 17 2.950
44 P8 18 1.973
44 P8 19 1.485
44 P8 20 0.997
44 P8 21 1.973
44 P8 22 3.438
44 P8 23 6.368
44 P8 24 10.763
44 P8 25 15.157
44 P8 26 19.063
44 P8 27 20.528
44 P8 28 19.063
44 P8 29 14.669
44 P8 30 8.809
44 P8 31 4.415
44 P8 32 2.950
44 P8 33 5.880
44 P8 34 10.763
44 P8 35 14.669
44 P8 36 16.134
44 P8 37 15.157
44 P8 38 13.204
44 P8 39 11.739
44 P8 40 11.739
44 P8 41 12.227
44 P8 42 11.251
44 P8 43 9.298
44 P8 44 6.368
44 P8 45 3.438
44 P8 46 -0.468
44 P8 47 -3.398
44 P8 48 -5.351
44 P8 49 -5.839
44 P8 50 -3.886
44 P8 51 -0.468
44 P8 52 3.438
44 P8 53 5.880
44 P8 54 5.880
44 P8 55 3.927
44 P8 56 1.973
44 P8 57 0.020
44 P8 58 -0.468
44 P8 59 0.509
44 P8 60 1.485
44 P8 61 2.462
44 P8 62 2.462
44 P8 63 1.973
44 P8 64 0.997
44 P8 65 0.997
44 P8 66 1.973
44 P8 67 3.438
44 P8 68 5.391
44 P8 69 6.368
44 P8 70 5.391
44 P8 71 3.927
44 P8 72 1.485
44 P8 73 0.509
44 P8 74 0.997
44 P8 75 3.927
44 P8 76 7.345
44 P8 77 9.298
44 P8 78 10.274
44 P8 79 9.298
44 P8 80 8.321
44 P8 81 7.345
44 P8 82 5.880
44 P8 83 4.415
44 P8 84 2.950
44 P8 85 1.485
44 P8 86 1.485
44 P8 87 2.462
44 P8 88 5.391
44 P8 89 6.368
44 P8 90 6.368
44 P8 91 4.415
44 P8 92 2.950
44 P8 93 3.927
44 P8 94 6.368
44 P8 95 10.274
44 P8 96 13.692
44 P8 97 15.645
44 P8 98 15.645
44 P8 99 15.157
44 P8 100 14.181
44 P8 101 13.204
44 P8 102 12.227
44 P8 103 10.763
44 P8 104 8.321
44 P8 105 5.880
44 P8 106 2.462
44 P8 107 0.020
44 P8 108 -1.933
44 P8 109 -1.933
44 P8 110 -0.956
44 P8 111 0.997
44 P8 112 3.927
44 P8 113 6.368
44 P8 114 8.809
44 P8 115 9.786
44 P8 116 8.321
44 P8 117 4.415
44 P8 118 -1.933
44 P8 119 -7.304
44 P8 120 -9.257
44 P8 121 -6.816
44 P8 122 -1.933
44 P8 123 3.438
44 P8 124 5.880
44 P8 125 3.927
44 P8 126 0.020
44 P8 127 -3.398
44 P8 128 -3.398
44 P8 129 0.997
44 P8 130 7.833
44 P8 131 14.669
44 P8 132 18.575
44 P8 133 19.063
44 P8 134 15.645
44 P8 135 10.763
44 P8 136 5.880
44 P8 137 2.462
44 P8 138 1.973
44 P8 139 2.950
44 P8 140 3.438
44 P8 141 2.462
44 P8 142 0.509
44 P8 143 -0.956
44 P8 144 0.020
44 P8 145 3.927
44 P8 146 8.321
44 P8 147 12.227
44 P8 148 12.716
44 P8 149 10.274
44 P8 150 6.368
44 P8 151 3.438
44 P8 152 1.485
44 P8 153 1.485
44 P8 154 1.485
44 P8 155 0.997
44 P8 156 0.509
44 P8 157 0.509
44 P8 158 1.973
44 P8 159 3.927
44 P8 160 4.903
44 P8 161 4.415
44 P8 162 3.438
44 P8 163 2.462
44 P8 164 3.927
44 P8 165 6.368
44 P8 166 9.786
44 P8 167 11.739
44 P8 168 11.251
44 P8 169 8.809
44 P8 170 6.368
44 P8 171 5.391
44 P8 172 5.391
44 P8 173 6.368
44 P8 174 6.856
44 P8 175 6.368
44 P8 176 5.880
44 P8 177 5.880
44 P8 178 6.368
44 P8 179 6.856
44 P8 180 5.880
44 P8 181 3.438
44 P8 182 -0.468
44 P8 183 -4.862
44 P8 184 -7.792
44 P8 185 -8.280
44 P8 186 -6.816
44 P8 187 -3.886
44 P8 188 -1.444
44 P8 189 0.997
44 P8 190 2.462
44 P8 191 2.950
44 P8 192 2.950
44 P8 193 1.485
44 P8 194 -1.444
44 P8 195 -4.862
44 P8 196 -7.792
44 P8 197 -9.257
44 P8 198 -8.280
44 P8 199 -6.327
44 P8 200 -4.374
44 P8 201 -3.886
44 P8 202 -4.862
44 P8 203 -6.327
44 P8 204 -6.327
44 P8 205 -4.374
44 P8 206 -1.933
44 P8 207 0.509
44 P8 208 0.997
44 P8 209 0.020
44 P8 210 -1.444
44 P8 211 -1.933
44 P8 212 -1.444
44 P8 213 0.509
44 P8 214 2.462
44 P8 215 5.391
44 P8 216 7.833
44 P8 217 9.298
44 P8 218 9.298
44 P8 219 8.321
44 P8 220 5.391
44 P8 221 2.950
44 P8 222 1.485
44 P8 223 0.509
44 P8 224 0.997
44 P8 225 0.997
44 P8 226 0.997
44 P8 227 0.997
44 P8 228 1.485
44 P8 229 2.462
44 P8 230 3.927
44 P8 231 5.391
44 P8 232 6.368
44 P8 233 6.368
44 P8 234 6.368
44 P8 235 5.391
44 P8 236 4.415
44 P8 237 2.462
44 P8 238 0.997
44 P8 239 -0.956
44 P8 240 -2.909
44 P8 241 -4.862
44 P8 242 -7.304
44 P8 243 -7.304
44 P8 244 -5.839
44 P8 245 -2.421
44 P8 246 1.485
44 P8 247 2.950
44 P8 248 2.950
44 P8 249 1.973
44 P8 250 2.950
44 P8 251 5.880
44 P8 252 10.274
44 P8 253 12.716
44 P8 254 12.227
44 P8 255 10.274
# P7 chan 26
44 P7 0 -12.492
44 P7 1 -11.515
44 P7 2 -6.144
44 P7 3 1.668
44 P7 4 8.016
44 P7 5 9.969
44 P7 6 8.016
44 P7 7 3.621
44 P7 8 -1.261
44 P7 9 -4.679
44 P7 10 -6.144
44 P7 11 -5.168
44 P7 12 -2.726
44 P7 13 0.692
44 P7 14 4.110
44 P7 15 7.039
44 P7 16 7.528
44 P7 17 6.551
44 P7 18 5.575
44 P7 19 5.575
44 P7 20 6.063
44 P7 21 7.039
44 P7 22 7.039
44 P7 23 7.039
44 P7 24 8.504
44 P7 25 9.969
44 P7 26 11.434
44 P7 27 11.922
44 P7 28 11.434
44 P7 29 9.969
44 P7 30 9.481
44 P7 31 8.504
44 P7 32 7.528
44 P7 33 6.551
44 P7 34 6.063
44 P7 35 7.039
44 P7 36 8.504
44 P7 37 9.969
44 P7 38 10.457
44 P7 39 9.481
44 P7 40 8.504
44 P7 41 7.528
44 P7 42 7.039
44 P7 43 6.063
44 P7 44 2.645
44 P7 45 -2.726
44 P7 46 -7.609
44 P7 47 -10.539
44 P7 48 -9.074
44 P7 49 -4.679
44 P7 50 0.692
44 P7 51 4.110
44 P7 52 5.086
44 P7 53 3.621
44 P7 54 1.668
44 P7 55 -0.773
44 P7 56 -1.750
44 P7 57 -0.773
44 P7 58 1.180
44 P7 59 2.645
44 P7 60 2.645
44 P7 61 0.203
44 P7 62 -2.238
44 P7 63 -1.750
44 P7 64 2.157
44 P7 65 8.504
44 P7 66 13.875
44 P7 67 15.340
44 P7 68 11.434
44 P7 69 5.086
44 P7 70 0.692
44 P7 71 0.692
44 P7 72 5.086
44 P7 73 10.457
44 P7 74 12.410
44 P7 75 9.969
44 P7 76 4.598
44 P7 77 -0.285
44 P7 78 -1.750
44 P7 79 0.203
44 P7 80 3.621
44 P7 81 5.575
44 P7 82 4.110
44 P7 83 0.203
44 P7 84 -3.703
44 P7 85 -7.121
44 P7 86 -8.097
44 P7 87 -7.121
44 P7 88 -5.656
44 P7 89 -3.215
44 P7 90 -0.285
44 P7 91 1.668
44 P7 92 3.133
44 P7 93 3.133
44 P7 94 1.668
44 P7 95 -0.285
44 P7 96 -2.726
44 P7 97 -4.191
44 P7 98 -3.703
44 P7 99 -1.750
44 P7 100 1.668
44 P7 101 4.110
44 P7 102 4.110
44 P7 103 1.668
44 P7 104 -2.238
44 P7 105 -6.144
44 P7 106 -8.097
44 P7 107 -8.586
44 P7 108 -8.586
44 P7 109 -8.586
44 P7 110 -7.609
44 P7 111 -4.679
44 P7 112 -0.773
44 P7 113 3.133
44 P7 114 3.621
44 P7 115 1.180
44 P7 116 -3.215
44 P7 117 -7.121
44 P7 118 -7.609
44 P7 119 -6.632
44 P7 120 -6.632
44 P7 121 -10.050
44 P7 122 -15.422
44 P7 123 -18.840
44 P7 124 -17.375
44 P7 125 -10.050
44 P7 126 -1.750
44 P7 127 3.133
44 P7 128 2.645
44 P7 129 -1.750
44 P7 130 -6.632
44 P7 131 -9.074
44 P7 132 -8.586
44 P7 133 -5.656
44 P7 134 -2.726
44 P7 135 -1.261
44 P7 136 -1.750
44 P7 137 -4.191
44 P7 138 -9.074
44 P7 139 -14.445
44 P7 140 -18.351
44 P7 141 -17.863
44 P7 142 -14.445
44 P7 143 -9.074
44 P7 144 -5.168
44 P7 145 -3.703
44 P7 146 -4.191
44 P7 147 -5.656
44 P7 148 -5.656
44 P7 149 -5.168
44 P7 150 -5.168
44 P7 151 -5.168
44 P7 152 -5.168
44 P7 153 -4.679
44 P7 154 -4.679
44 P7 155 -5.168
44 P7 156 -7.609
44 P7 157 -9.562
44 P7 158 -10.050
44 P7 159 -8.586
44 P7 160 -7.121
44 P7 161 -6.144
44 P7 162 -6.632
44 P7 163 -6.632
44 P7 164 -5.168
44 P7 165 -2.238
44 P7 166 -1.261
44 P7 167 -2.238
44 P7 168 -5.656
44 P7 169 -8.097
44 P7 170 -8.097
44 P7 171 -5.656
44 P7 172 -2.726
44 P7 173 -1.750
44 P7 174 -3.703
44 P7 175 -6.144
44 P7 176 -7.609
44 P7 177 -7.121
44 P7 178 -5.656
44 P7 179 -5.168
44 P7 180 -6.632
44 P7 181 -9.562
44 P7 182 -12.492
44 P7 183 -14.933
44 P7 184 -16.398
44 P7 185 -17.375
44 P7 186 -16.886
44 P7 187 -14.445
44 P7 188 -11.027
44 P7 189 -7.121
44 P7 190 -5.168
44 P7 191 -4.679
44 P7 192 -5.168
44 P7 193 -4.191
44 P7 194 -3.215
44 P7 195 -0.773
44 P7 196 0.692
44 P7 197 -0.285
44 P7 198 -5.168
44 P7 199 -12.004
44 P7 200 -18.840
44 P7 201 -22.257
44 P7 202 -22.257
44 P7 203 -18.840
44 P7 204 -15.422
44 P7 205 -13.957
44 P7 206 -13.957
44 P7 207 -13.468
44 P7 208 -10.539
44 P7 209 -6.144
44 P7 210 -2.726
44 P7 211 -2.726
44 P7 212 -5.168
44 P7 213 -9.074
44 P7 214 -11.515
44 P7 215 -12.980
44 P7 216 -14.445
44 P7 217 -16.886
44 P7 218 -20.304
44 P7 219 -22.257
44 P7 220 -20.304
44 P7 221 -14.933
44 P7 222 -9.074
44 P7 223 -6.632
44 P7 224 -9.074
44 P7 225 -13.957
44 P7 226 -18.351
44 P7 227 -19.816
44 P7 228 -18.351
44 P7 229 -14.933
44 P7 230 -11.515
44 P7 231 -8.097
44 P7 232 -4.679
44 P7 233 0.203
44 P7 234 4.110
44 P7 235 6.063
44 P7 236 5.086
44 P7 237 0.692
44 P7 238 -5.168
44 P7 239 -11.027
44 P7 240 -15.422
44 P7 241 -17.375
44 P7 242 -17.375
44 P7 243 -16.398
44 P7 244 -14.445
44 P7 245 -12.980
44 P7 246 -11.515
44 P7 247 -9.562
44 P7 248 -7.121
44 P7 249 -3.703
44 P7 250 -0.773
44 P7 251 0.203
44 P7 252 -0.773
44 P7 253 -4.191
44 P7 254 -7.121
44 P7 255 -7.121
# PO2 chan 27
44 PO2 0 -6.195
44 PO2 1 -1.312
44 PO2 2 -0.336
44 PO2 3 -1.801
44 PO2 4 -3.754
44 PO2 5 -4.730
44 PO2 6 -4.730
44 PO2 7 -5.219
44 PO2 8 -6.683
44 PO2 9 -8.148
44 PO2 10 -9.125
44 PO2 11 -7.172
44 PO2 12 -3.754
44 PO2 13 -0.824
44 PO2 14 0.641
44 PO2 15 1.129
44 PO2 16 1.129
44 PO2 17 2.106
44 PO2 18 3.571
44 PO2 19 4.059
44 PO2 20 3.571
44 PO2 21 2.594
44 PO2 22 2.106
44 PO2 23 3.082
44 PO2 24 6.500
44 PO2 25 10.895
44 PO2 26 14.801
44 PO2 27 16.266
44 PO2 28 15.289
44 PO2 29 11.871
44 PO2 30 7.477
44 PO2 31 5.035
44 PO2 32 6.012
44 PO2 33 10.406
44 PO2 34 15.778
44 PO2 35 18.707
44 PO2 36 18.219
44 PO2 37 15.289
44 PO2 38 10.895
44 PO2 39 7.477
44 PO2 40 6.012
44 PO2 41 6.012
44 PO2 42 5.524
44 PO2 43 4.059
44 PO2 44 1.617
44 PO2 45 -1.312
44 PO2 46 -4.242
44 PO2 47 -6.195
44 PO2 48 -6.683
44 PO2 49 -5.219
44 PO2 50 -2.777
44 PO2 51 0.153
44 PO2 52 1.617
44 PO2 53 1.617
44 PO2 54 0.641
44 PO2 55 -0.824
44 PO2 56 -0.824
44 PO2 57 0.153
44 PO2 58 1.617
44 PO2 59 2.594
44 PO2 60 3.082
44 PO2 61 3.082
44 PO2 62 2.594
44 PO2 63 2.106
44 PO2 64 2.106
44 PO2 65 2.106
44 PO2 66 3.082
44 PO2 67 4.547
44 PO2 68 6.012
44 PO2 69 7.477
44 PO2 70 7.477
44 PO2 71 4.547
44 PO2 72 1.129
44 PO2 73 -1.312
44 PO2 74 -0.824
44 PO2 75 2.594
44 PO2 76 6.500
44 PO2 77 8.942
44 PO2 78 8.942
44 PO2 79 6.500
44 PO2 80 4.547
44 PO2 81 3.082
44 PO2 82 3.082
44 PO2 83 3.082
44 PO2 84 2.106
44 PO2 85 1.129
44 PO2 86 1.617
44 PO2 87 3.082
44 PO2 88 5.524
44 PO2 89 6.500
44 PO2 90 5.524
44 PO2 91 3.571
44 PO2 92 1.617
44 PO2 93 1.617
44 PO2 94 3.571
44 PO2 95 6.012
44 PO2 96 7.965
44 PO2 97 7.965
44 PO2 98 7.965
44 PO2 99 7.477
44 PO2 100 8.453
44 PO2 101 9.918
44 PO2 102 10.406
44 PO2 103 9.430
44 PO2 104 6.500
44 PO2 105 2.106
44 PO2 106 -1.801
44 PO2 107 -4.730
44 PO2 108 -4.730
44 PO2 109 -4.242
44 PO2 110 -1.801
44 PO2 111 0.641
44 PO2 112 3.082
44 PO2 113 5.035
44 PO2 114 6.989
44 PO2 115 6.989
44 PO2 116 4.059
44 PO2 117 -1.801
44 PO2 118 -8.636
44 PO2 119 -13.519
44 PO2 120 -14.496
44 PO2 121 -10.101
44 PO2 122 -3.754
44 PO2 123 2.106
44 PO2 124 4.547
44 PO2 125 2.594
44 PO2 126 -1.312
44 PO2 127 -4.730
44 PO2 128 -4.730
44 PO2 129 -1.312
44 PO2 130 4.059
44 PO2 131 9.430
44 PO2 132 12.360
44 PO2 133 13.336
44 PO2 134 10.895
44 PO2 135 7.965
44 PO2 136 4.547
44 PO2 137 1.617
44 PO2 138 0.153
44 PO2 139 -1.312
44 PO2 140 -3.265
44 PO2 141 -5.219
44 PO2 142 -6.683
44 PO2 143 -6.683
44 PO2 144 -4.730
44 PO2 145 -0.336
44 PO2 146 4.059
44 PO2 147 6.989
44 PO2 148 7.965
44 PO2 149 6.012
44 PO2 150 3.082
44 PO2 151 0.641
44 PO2 152 -0.824
44 PO2 153 -0.336
44 PO2 154 0.153
44 PO2 155 1.129
44 PO2 156 1.617
44 PO2 157 1.129
44 PO2 158 0.641
44 PO2 159 0.153
44 PO2 160 -1.312
44 PO2 161 -2.777
44 PO2 162 -4.730
44 PO2 163 -5.707
44 PO2 164 -5.219
44 PO2 165 -3.265
44 PO2 166 0.153
44 PO2 167 2.594
44 PO2 168 4.059
44 PO2 169 3.571
44 PO2 170 2.106
44 PO2 171 1.129
44 PO2 172 0.641
44 PO2 173 0.641
44 PO2 174 0.641
44 PO2 175 -0.336
44 PO2 176 -1.312
44 PO2 177 -2.289
44 PO2 178 -1.801
44 PO2 179 -1.312
44 PO2 180 -1.312
44 PO2 181 -2.777
44 PO2 182 -6.195
44 PO2 183 -9.125
44 PO2 184 -11.566
44 PO2 185 -12.054
44 PO2 186 -10.590
44 PO2 187 -8.636
44 PO2 188 -6.683
44 PO2 189 -4.730
44 PO2 190 -3.265
44 PO2 191 -1.312
44 PO2 192 -0.336
44 PO2 193 -0.336
44 PO2 194 -1.312
44 PO2 195 -3.754
44 PO2 196 -6.195
44 PO2 197 -8.148
44 PO2 198 -9.125
44 PO2 199 -8.636
44 PO2 200 -8.636
44 PO2 201 -9.125
44 PO2 202 -10.101
44 PO2 203 -10.101
44 PO2 204 -9.613
44 PO2 205 -7.660
44 PO2 206 -5.707
44 PO2 207 -4.730
44 PO2 208 -5.219
44 PO2 209 -6.195
44 PO2 210 -7.172
44 PO2 211 -6.683
44 PO2 212 -5.219
44 PO2 213 -3.265
44 PO2 214 -2.289
44 PO2 215 -1.312
44 PO2 216 -0.336
44 PO2 217 1.129
44 PO2 218 1.617
44 PO2 219 2.106
44 PO2 220 0.641
44 PO2 221 -1.312
44 PO2 222 -2.777
44 PO2 223 -2.777
44 PO2 224 -2.289
44 PO2 225 -0.824
44 PO2 226 0.153
44 PO2 227 0.641
44 PO2 228 0.641
44 PO2 229 0.641
44 PO2 230 1.129
44 PO2 231 1.617
44 PO2 232 3.082
44 PO2 233 5.035
44 PO2 234 6.989
44 PO2 235 8.453
44 PO2 236 9.430
44 PO2 237 8.453
44 PO2 238 6.012
44 PO2 239 2.594
44 PO2 240 -1.312
44 PO2 241 -3.754
44 PO2 242 -5.219
44 PO2 243 -4.730
44 PO2 244 -2.289
44 PO2 245 0.641
44 PO2 246 3.082
44 PO2 247 4.547
44 PO2 248 5.524
44 PO2 249 6.500
44 PO2 250 6.989
44 PO2 251 8.942
44 PO2 252 9.918
44 PO2 253 9.430
44 PO2 254 8.453
44 PO2 255 6.989
# PO1 chan 28
44 PO1 0 -3.143
44 PO1 1 0.763
44 PO1 2 1.740
44 PO1 3 0.275
44 PO1 4 -1.190
44 PO1 5 -1.190
44 PO1 6 -1.190
44 PO1 7 -2.655
44 PO1 8 -6.073
44 PO1 9 -9.491
44 PO1 10 -10.468
44 PO1 11 -7.538
44 PO1 12 -2.655
44 PO1 13 1.251
44 PO1 14 3.204
44 PO1 15 3.693
44 PO1 16 3.693
44 PO1 17 4.669
44 PO1 18 6.134
44 PO1 19 6.622
44 PO1 20 4.669
44 PO1 21 1.740
44 PO1 22 0.763
44 PO1 23 2.228
44 PO1 24 5.646
44 PO1 25 11.017
44 PO1 26 14.923
44 PO1 27 16.876
44 PO1 28 15.900
44 PO1 29 13.458
44 PO1 30 11.505
44 PO1 31 11.017
44 PO1 32 12.970
44 PO1 33 16.388
44 PO1 34 19.806
