# co2c0000344.rd
# 120 trials, 64 chans, 416 samples 368 post_stim samples
# 3.906000 msecs uV
# S1 obj , trial 104
# FP1 chan 0
104 FP1 0 -5.747
104 FP1 1 -4.283
104 FP1 2 -2.330
104 FP1 3 -0.865
104 FP1 4 0.600
104 FP1 5 1.577
104 FP1 6 2.553
104 FP1 7 3.042
104 FP1 8 4.018
104 FP1 9 4.018
104 FP1 10 4.018
104 FP1 11 3.530
104 FP1 12 3.042
104 FP1 13 2.065
104 FP1 14 2.065
104 FP1 15 1.088
104 FP1 16 1.088
104 FP1 17 1.088
104 FP1 18 2.065
104 FP1 19 3.042
104 FP1 20 4.995
104 FP1 21 6.948
104 FP1 22 8.413
104 FP1 23 8.413
104 FP1 24 6.948
104 FP1 25 4.995
104 FP1 26 3.042
104 FP1 27 2.553
104 FP1 28 3.042
104 FP1 29 4.018
104 FP1 30 4.506
104 FP1 31 4.506
104 FP1 32 4.018
104 FP1 33 4.018
104 FP1 34 3.530
104 FP1 35 3.530
104 FP1 36 2.553
104 FP1 37 1.577
104 FP1 38 1.088
104 FP1 39 1.577
104 FP1 40 2.065
104 FP1 41 2.553
104 FP1 42 2.065
104 FP1 43 1.088
104 FP1 44 0.600
104 FP1 45 1.577
104 FP1 46 4.018
104 FP1 47 6.948
104 FP1 48 8.413
104 FP1 49 7.924
104 FP1 50 5.971
104 FP1 51 4.506
104 FP1 52 4.995
104 FP1 53 7.436
104 FP1 54 9.389
104 FP1 55 10.366
104 FP1 56 8.901
104 FP1 57 7.924
104 FP1 58 8.413
104 FP1 59 9.878
104 FP1 60 11.831
104 FP1 61 11.342
104 FP1 62 8.413
104 FP1 63 4.506
104 FP1 64 1.088
104 FP1 65 0.112
104 FP1 66 1.088
104 FP1 67 3.530
104 FP1 68 4.506
104 FP1 69 4.018
104 FP1 70 2.553
104 FP1 71 0.600
104 FP1 72 -0.865
104 FP1 73 -1.353
104 FP1 74 -1.841
104 FP1 75 -2.818
104 FP1 76 -3.794
104 FP1 77 -5.747
104 FP1 78 -6.236
104 FP1 79 -5.259
104 FP1 80 -3.306
104 FP1 81 -1.353
104 FP1 82 -0.376
104 FP1 83 -0.865
104 FP1 84 -2.818
104 FP1 85 -3.794
104 FP1 86 -3.794
104 FP1 87 -2.818
104 FP1 88 -1.841
104 FP1 89 -0.865
104 FP1 90 -1.353
104 FP1 91 -3.306
104 FP1 92 -5.747
104 FP1 93 -8.189
104 FP1 94 -8.189
104 FP1 95 -6.236
104 FP1 96 -1.353
104 FP1 97 3.042
104 FP1 98 4.018
104 FP1 99 2.065
104 FP1 100 -2.330
104 FP1 101 -6.236
104 FP1 102 -6.724
104 FP1 103 -5.259
104 FP1 104 -1.841
104 FP1 105 0.600
104 FP1 106 4.018
104 FP1 107 6.948
104 FP1 108 10.366
104 FP1 109 12.807
104 FP1 110 14.272
104 FP1 111 14.272
104 FP1 112 13.295
104 FP1 113 13.295
104 FP1 114 13.784
104 FP1 115 14.760
104 FP1 116 15.249
104 FP1 117 15.249
104 FP1 118 14.760
104 FP1 119 14.760
104 FP1 120 14.760
104 FP1 121 14.272
104 FP1 122 13.295
104 FP1 123 11.342
104 FP1 124 9.389
104 FP1 125 7.924
104 FP1 126 6.948
104 FP1 127 5.971
104 FP1 128 4.506
104 FP1 129 4.018
104 FP1 130 3.042
104 FP1 131 2.553
104 FP1 132 2.065
104 FP1 133 1.577
104 FP1 134 1.577
104 FP1 135 2.553
104 FP1 136 4.995
104 FP1 137 7.436
104 FP1 138 9.878
104 FP1 139 9.878
104 FP1 140 8.901
104 FP1 141 6.948
104 FP1 142 4.995
104 FP1 143 4.018
104 FP1 144 3.042
104 FP1 145 2.553
104 FP1 146 3.042
104 FP1 147 3.530
104 FP1 148 4.018
104 FP1 149 4.018
104 FP1 150 2.553
104 FP1 151 2.065
104 FP1 152 2.553
104 FP1 153 5.483
104 FP1 154 10.366
104 FP1 155 14.272
104 FP1 156 15.249
104 FP1 157 13.784
104 FP1 158 10.854
104 FP1 159 8.901
104 FP1 160 8.413
104 FP1 161 8.901
104 FP1 162 9.389
104 FP1 163 9.878
104 FP1 164 9.878
104 FP1 165 9.878
104 FP1 166 10.366
104 FP1 167 10.366
104 FP1 168 10.854
104 FP1 169 11.831
104 FP1 170 13.295
104 FP1 171 15.249
104 FP1 172 16.225
104 FP1 173 15.737
104 FP1 174 13.784
104 FP1 175 11.342
104 FP1 176 10.366
104 FP1 177 10.854
104 FP1 178 11.831
104 FP1 179 12.807
104 FP1 180 12.807
104 FP1 181 11.831
104 FP1 182 10.854
104 FP1 183 10.366
104 FP1 184 10.854
104 FP1 185 11.342
104 FP1 186 11.831
104 FP1 187 12.319
104 FP1 188 13.295
104 FP1 189 14.760
104 FP1 190 17.690
104 FP1 191 19.643
104 FP1 192 21.108
104 FP1 193 21.596
104 FP1 194 20.620
104 FP1 195 19.643
104 FP1 196 18.667
104 FP1 197 17.690
104 FP1 198 16.713
104 FP1 199 14.760
104 FP1 200 13.295
104 FP1 201 11.831
104 FP1 202 12.319
104 FP1 203 13.784
104 FP1 204 15.249
104 FP1 205 16.713
104 FP1 206 16.713
104 FP1 207 15.737
104 FP1 208 14.760
104 FP1 209 13.784
104 FP1 210 13.784
104 FP1 211 13.295
104 FP1 212 12.807
104 FP1 213 11.831
104 FP1 214 11.831
104 FP1 215 12.807
104 FP1 216 13.784
104 FP1 217 14.272
104 FP1 218 13.784
104 FP1 219 12.319
104 FP1 220 11.342
104 FP1 221 11.342
104 FP1 222 12.807
104 FP1 223 15.249
104 FP1 224 17.202
104 FP1 225 18.178
104 FP1 226 18.178
104 FP1 227 17.690
104 FP1 228 17.690
104 FP1 229 18.178
104 FP1 230 18.667
104 FP1 231 19.155
104 FP1 232 19.155
104 FP1 233 17.690
104 FP1 234 16.225
104 FP1 235 16.225
104 FP1 236 19.643
104 FP1 237 25.503
104 FP1 238 31.362
104 FP1 239 33.803
104 FP1 240 31.362
104 FP1 241 24.526
104 FP1 242 16.225
104 FP1 243 10.854
104 FP1 244 8.901
104 FP1 245 9.878
104 FP1 246 11.831
104 FP1 247 12.807
104 FP1 248 13.295
104 FP1 249 13.295
104 FP1 250 12.807
104 FP1 251 12.319
104 FP1 252 12.319
104 FP1 253 12.319
104 FP1 254 14.272
104 FP1 255 16.713
# FP2 chan 1
104 FP2 0 -6.032
104 FP2 1 -5.544
104 FP2 2 -4.079
104 FP2 3 -2.126
104 FP2 4 -0.173
104 FP2 5 1.292
104 FP2 6 3.245
104 FP2 7 3.245
104 FP2 8 3.733
104 FP2 9 3.733
104 FP2 10 4.222
104 FP2 11 4.710
104 FP2 12 4.222
104 FP2 13 3.245
104 FP2 14 1.292
104 FP2 15 -0.173
104 FP2 16 -0.173
104 FP2 17 0.315
104 FP2 18 2.268
104 FP2 19 4.222
104 FP2 20 5.686
104 FP2 21 6.663
104 FP2 22 7.640
104 FP2 23 8.128
104 FP2 24 7.151
104 FP2 25 5.198
104 FP2 26 3.245
104 FP2 27 2.757
104 FP2 28 3.733
104 FP2 29 6.663
104 FP2 30 8.616
104 FP2 31 9.593
104 FP2 32 8.128
104 FP2 33 6.175
104 FP2 34 5.198
104 FP2 35 5.198
104 FP2 36 5.198
104 FP2 37 4.710
104 FP2 38 3.245
104 FP2 39 2.268
104 FP2 40 2.268
104 FP2 41 2.757
104 FP2 42 2.268
104 FP2 43 1.780
104 FP2 44 1.292
104 FP2 45 1.780
104 FP2 46 4.222
104 FP2 47 7.640
104 FP2 48 10.569
104 FP2 49 10.569
104 FP2 50 7.151
104 FP2 51 4.222
104 FP2 52 2.268
104 FP2 53 2.757
104 FP2 54 5.198
104 FP2 55 7.640
104 FP2 56 8.616
104 FP2 57 7.640
104 FP2 58 6.663
104 FP2 59 6.175
104 FP2 60 6.175
104 FP2 61 6.663
104 FP2 62 6.175
104 FP2 63 4.710
104 FP2 64 3.245
104 FP2 65 1.780
104 FP2 66 1.292
104 FP2 67 1.780
104 FP2 68 2.268
104 FP2 69 1.780
104 FP2 70 -0.173
104 FP2 71 -2.126
104 FP2 72 -3.103
104 FP2 73 -2.614
104 FP2 74 -1.638
104 FP2 75 -1.638
104 FP2 76 -3.591
104 FP2 77 -6.521
104 FP2 78 -8.962
104 FP2 79 -9.939
104 FP2 80 -7.985
104 FP2 81 -5.056
104 FP2 82 -2.614
104 FP2 83 -1.149
104 FP2 84 -1.638
104 FP2 85 -2.614
104 FP2 86 -3.591
104 FP2 87 -4.079
104 FP2 88 -4.567
104 FP2 89 -5.056
104 FP2 90 -5.056
104 FP2 91 -5.544
104 FP2 92 -7.009
104 FP2 93 -8.962
104 FP2 94 -10.427
104 FP2 95 -10.915
104 FP2 96 -9.939
104 FP2 97 -7.985
104 FP2 98 -6.032
104 FP2 99 -5.056
104 FP2 100 -6.032
104 FP2 101 -7.985
104 FP2 102 -9.450
104 FP2 103 -9.450
104 FP2 104 -7.497
104 FP2 105 -4.567
104 FP2 106 -0.661
104 FP2 107 4.222
104 FP2 108 8.128
104 FP2 109 11.058
104 FP2 110 11.546
104 FP2 111 10.081
104 FP2 112 7.640
104 FP2 113 6.175
104 FP2 114 6.175
104 FP2 115 7.640
104 FP2 116 8.128
104 FP2 117 8.616
104 FP2 118 8.616
104 FP2 119 8.616
104 FP2 120 9.104
104 FP2 121 9.593
104 FP2 122 9.104
104 FP2 123 7.151
104 FP2 124 4.710
104 FP2 125 2.757
104 FP2 126 1.780
104 FP2 127 2.268
104 FP2 128 2.757
104 FP2 129 3.245
104 FP2 130 3.245
104 FP2 131 3.733
104 FP2 132 3.733
104 FP2 133 4.710
104 FP2 134 5.198
104 FP2 135 5.686
104 FP2 136 6.175
104 FP2 137 6.175
104 FP2 138 6.663
104 FP2 139 7.640
104 FP2 140 8.616
104 FP2 141 9.593
104 FP2 142 9.104
104 FP2 143 7.151
104 FP2 144 4.222
104 FP2 145 1.780
104 FP2 146 0.315
104 FP2 147 0.804
104 FP2 148 1.780
104 FP2 149 1.780
104 FP2 150 0.315
104 FP2 151 -1.149
104 FP2 152 -0.173
104 FP2 153 3.245
104 FP2 154 8.128
104 FP2 155 12.034
104 FP2 156 12.522
104 FP2 157 11.058
104 FP2 158 9.104
104 FP2 159 8.616
104 FP2 160 10.081
104 FP2 161 12.034
104 FP2 162 13.011
104 FP2 163 12.522
104 FP2 164 12.522
104 FP2 165 13.011
104 FP2 166 13.987
104 FP2 167 13.987
104 FP2 168 13.499
104 FP2 169 13.499
104 FP2 170 14.476
104 FP2 171 17.405
104 FP2 172 19.358
104 FP2 173 19.358
104 FP2 174 16.429
104 FP2 175 11.546
104 FP2 176 7.640
104 FP2 177 6.663
104 FP2 178 7.151
104 FP2 179 9.104
104 FP2 180 10.081
104 FP2 181 10.569
104 FP2 182 11.058
104 FP2 183 12.034
104 FP2 184 13.011
104 FP2 185 13.011
104 FP2 186 12.522
104 FP2 187 12.034
104 FP2 188 13.011
104 FP2 189 15.940
104 FP2 190 18.870
104 FP2 191 21.311
104 FP2 192 22.288
104 FP2 193 21.311
104 FP2 194 20.335
104 FP2 195 19.358
104 FP2 196 18.382
104 FP2 197 17.893
104 FP2 198 16.917
104 FP2 199 15.452
104 FP2 200 14.476
104 FP2 201 13.499
104 FP2 202 13.499
104 FP2 203 13.987
104 FP2 204 14.964
104 FP2 205 16.429
104 FP2 206 16.917
104 FP2 207 16.917
104 FP2 208 15.452
104 FP2 209 13.499
104 FP2 210 12.522
104 FP2 211 13.011
104 FP2 212 14.964
104 FP2 213 16.917
104 FP2 214 17.893
104 FP2 215 17.893
104 FP2 216 16.429
104 FP2 217 14.476
104 FP2 218 13.499
104 FP2 219 13.011
104 FP2 220 13.499
104 FP2 221 14.476
104 FP2 222 15.452
104 FP2 223 16.429
104 FP2 224 17.405
104 FP2 225 17.405
104 FP2 226 17.405
104 FP2 227 17.405
104 FP2 228 17.405
104 FP2 229 18.382
104 FP2 230 20.335
104 FP2 231 21.800
104 FP2 232 21.311
104 FP2 233 19.358
104 FP2 234 16.917
104 FP2 235 15.452
104 FP2 236 17.893
104 FP2 237 22.776
104 FP2 238 28.636
104 FP2 239 31.077
104 FP2 240 28.636
104 FP2 241 22.288
104 FP2 242 14.964
104 FP2 243 10.569
104 FP2 244 9.104
104 FP2 245 9.593
104 FP2 246 10.569
104 FP2 247 10.081
104 FP2 248 9.593
104 FP2 249 9.593
104 FP2 250 10.081
104 FP2 251 10.569
104 FP2 252 10.569
104 FP2 253 10.569
104 FP2 254 11.546
104 FP2 255 13.499
# F7 chan 2
104 F7 0 -9.003
104 F7 1 -7.538
104 F7 2 -6.073
104 F7 3 -4.608
104 F7 4 -3.143
104 F7 5 -2.655
104 F7 6 -1.678
104 F7 7 -0.702
104 F7 8 0.275
104 F7 9 0.763
104 F7 10 1.740
104 F7 11 1.251
104 F7 12 0.763
104 F7 13 0.275
104 F7 14 -0.214
104 F7 15 0.275
104 F7 16 1.251
104 F7 17 2.716
104 F7 18 4.181
104 F7 19 4.669
104 F7 20 4.669
104 F7 21 4.669
104 F7 22 4.669
104 F7 23 4.669
104 F7 24 5.157
104 F7 25 4.181
104 F7 26 3.204
104 F7 27 2.716
104 F7 28 2.228
104 F7 29 1.740
104 F7 30 1.251
104 F7 31 -0.214
104 F7 32 -1.190
104 F7 33 -2.167
104 F7 34 -2.167
104 F7 35 -1.190
104 F7 36 -0.702
104 F7 37 0.275
104 F7 38 0.763
104 F7 39 0.275
104 F7 40 0.275
104 F7 41 -0.702
104 F7 42 -1.190
104 F7 43 -2.167
104 F7 44 -1.678
104 F7 45 -1.190
104 F7 46 0.275
104 F7 47 1.251
104 F7 48 1.740
104 F7 49 1.740
104 F7 50 1.251
104 F7 51 0.763
104 F7 52 2.228
104 F7 53 4.181
104 F7 54 7.111
104 F7 55 9.064
104 F7 56 10.529
104 F7 57 11.017
104 F7 58 11.505
104 F7 59 11.993
104 F7 60 11.505
104 F7 61 10.040
104 F7 62 6.622
104 F7 63 3.204
104 F7 64 1.251
104 F7 65 0.763
104 F7 66 2.716
104 F7 67 4.669
104 F7 68 5.646
104 F7 69 6.134
104 F7 70 5.646
104 F7 71 5.646
104 F7 72 5.157
104 F7 73 3.693
104 F7 74 2.716
104 F7 75 0.275
104 F7 76 -2.167
104 F7 77 -3.632
104 F7 78 -4.120
104 F7 79 -2.167
104 F7 80 -0.214
104 F7 81 2.228
104 F7 82 3.693
104 F7 83 3.693
104 F7 84 2.716
104 F7 85 1.740
104 F7 86 0.763
104 F7 87 -0.214
104 F7 88 -0.214
104 F7 89 0.275
104 F7 90 0.275
104 F7 91 -0.702
104 F7 92 -1.678
104 F7 93 -2.655
104 F7 94 -1.678
104 F7 95 1.740
104 F7 96 6.134
104 F7 97 8.575
104 F7 98 7.599
104 F7 99 2.716
104 F7 100 -2.167
104 F7 101 -4.608
104 F7 102 -3.632
104 F7 103 -0.214
104 F7 104 2.716
104 F7 105 4.669
104 F7 106 6.134
104 F7 107 7.599
104 F7 108 10.040
104 F7 109 12.482
104 F7 110 13.458
104 F7 111 13.458
104 F7 112 12.482
104 F7 113 12.970
104 F7 114 14.435
104 F7 115 16.388
104 F7 116 17.365
104 F7 117 16.876
104 F7 118 16.388
104 F7 119 16.388
104 F7 120 16.388
104 F7 121 15.900
104 F7 122 14.435
104 F7 123 12.482
104 F7 124 11.017
104 F7 125 10.040
104 F7 126 9.552
104 F7 127 9.552
104 F7 128 8.575
104 F7 129 7.599
104 F7 130 6.622
104 F7 131 6.134
104 F7 132 6.134
104 F7 133 6.134
104 F7 134 6.622
104 F7 135 7.599
104 F7 136 9.064
104 F7 137 10.529
104 F7 138 10.040
104 F7 139 8.575
104 F7 140 6.134
104 F7 141 4.181
104 F7 142 2.716
104 F7 143 1.740
104 F7 144 0.763
104 F7 145 0.763
104 F7 146 1.740
104 F7 147 3.693
104 F7 148 5.646
104 F7 149 7.111
104 F7 150 6.622
104 F7 151 5.646
104 F7 152 6.134
104 F7 153 8.575
104 F7 154 11.505
104 F7 155 13.458
104 F7 156 13.947
104 F7 157 11.993
104 F7 158 10.040
104 F7 159 9.064
104 F7 160 8.087
104 F7 161 8.087
104 F7 162 7.111
104 F7 163 6.622
104 F7 164 6.622
104 F7 165 7.111
104 F7 166 7.599
104 F7 167 7.599
104 F7 168 7.111
104 F7 169 7.599
104 F7 170 9.064
104 F7 171 10.529
104 F7 172 11.505
104 F7 173 10.529
104 F7 174 8.575
104 F7 175 6.622
104 F7 176 6.134
104 F7 177 6.622
104 F7 178 8.087
104 F7 179 9.552
104 F7 180 9.552
104 F7 181 9.552
104 F7 182 9.552
104 F7 183 9.552
104 F7 184 10.040
104 F7 185 9.552
104 F7 186 9.552
104 F7 187 9.552
104 F7 188 10.040
104 F7 189 11.505
104 F7 190 13.458
104 F7 191 15.900
104 F7 192 17.853
104 F7 193 18.829
104 F7 194 19.318
104 F7 195 18.341
104 F7 196 16.388
104 F7 197 14.435
104 F7 198 12.970
104 F7 199 12.482
104 F7 200 11.993
104 F7 201 12.482
104 F7 202 12.482
104 F7 203 13.458
104 F7 204 13.947
104 F7 205 14.435
104 F7 206 14.435
104 F7 207 13.458
104 F7 208 11.993
104 F7 209 11.017
104 F7 210 10.529
104 F7 211 10.529
104 F7 212 10.529
104 F7 213 10.529
104 F7 214 9.552
104 F7 215 10.040
104 F7 216 11.017
104 F7 217 11.993
104 F7 218 12.482
104 F7 219 11.017
104 F7 220 9.552
104 F7 221 9.064
104 F7 222 10.040
104 F7 223 12.482
104 F7 224 14.923
104 F7 225 17.365
104 F7 226 18.341
104 F7 227 17.853
104 F7 228 16.876
104 F7 229 16.388
104 F7 230 16.388
104 F7 231 16.388
104 F7 232 16.388
104 F7 233 16.388
104 F7 234 15.900
104 F7 235 17.365
104 F7 236 20.294
104 F7 237 25.177
104 F7 238 29.572
104 F7 239 30.548
104 F7 240 27.618
104 F7 241 22.247
104 F7 242 15.900
104 F7 243 11.993
104 F7 244 11.505
104 F7 245 12.970
104 F7 246 14.923
104 F7 247 16.876
104 F7 248 18.341
104 F7 249 18.341
104 F7 250 18.829
104 F7 251 17.853
104 F7 252 16.388
104 F7 253 15.411
104 F7 254 14.923
104 F7 255 15.411
# F8 chan 3
104 F8 0 -4.862
104 F8 1 -5.351
104 F8 2 -3.886
104 F8 3 -2.421
104 F8 4 -0.956
104 F8 5 0.509
104 F8 6 1.485
104 F8 7 2.462
104 F8 8 3.438
104 F8 9 3.927
104 F8 10 3.927
104 F8 11 3.438
104 F8 12 2.950
104 F8 13 2.462
104 F8 14 1.973
104 F8 15 1.973
104 F8 16 1.973
104 F8 17 2.462
104 F8 18 2.950
104 F8 19 2.950
104 F8 20 2.950
104 F8 21 2.462
104 F8 22 2.462
104 F8 23 2.462
104 F8 24 2.462
104 F8 25 2.462
104 F8 26 2.462
104 F8 27 2.950
104 F8 28 3.927
104 F8 29 5.391
104 F8 30 7.345
104 F8 31 7.345
104 F8 32 7.345
104 F8 33 5.880
104 F8 34 5.391
104 F8 35 5.391
104 F8 36 6.368
104 F8 37 6.368
104 F8 38 4.903
104 F8 39 3.438
104 F8 40 1.485
104 F8 41 0.997
104 F8 42 0.997
104 F8 43 0.997
104 F8 44 1.485
104 F8 45 1.973
104 F8 46 3.927
104 F8 47 5.880
104 F8 48 7.345
104 F8 49 7.833
104 F8 50 6.856
104 F8 51 5.391
104 F8 52 4.903
104 F8 53 5.880
104 F8 54 6.856
104 F8 55 7.345
104 F8 56 6.368
104 F8 57 5.391
104 F8 58 4.415
104 F8 59 4.415
104 F8 60 5.391
104 F8 61 6.368
104 F8 62 6.368
104 F8 63 4.415
104 F8 64 2.462
104 F8 65 0.509
104 F8 66 0.020
104 F8 67 0.509
104 F8 68 0.997
104 F8 69 1.485
104 F8 70 0.997
104 F8 71 0.509
104 F8 72 0.509
104 F8 73 0.509
104 F8 74 1.485
104 F8 75 0.997
104 F8 76 0.509
104 F8 77 -0.468
104 F8 78 -0.956
104 F8 79 0.020
104 F8 80 1.973
104 F8 81 4.415
104 F8 82 6.856
104 F8 83 7.833
104 F8 84 7.345
104 F8 85 6.856
104 F8 86 6.368
104 F8 87 5.391
104 F8 88 5.391
104 F8 89 3.927
104 F8 90 1.973
104 F8 91 -0.956
104 F8 92 -3.398
104 F8 93 -5.351
104 F8 94 -6.327
104 F8 95 -7.304
104 F8 96 -8.280
104 F8 97 -9.257
104 F8 98 -9.745
104 F8 99 -9.745
104 F8 100 -8.280
104 F8 101 -7.304
104 F8 102 -6.327
104 F8 103 -5.351
104 F8 104 -3.398
104 F8 105 -0.956
104 F8 106 2.462
104 F8 107 5.880
104 F8 108 8.321
104 F8 109 9.786
104 F8 110 9.298
104 F8 111 9.298
104 F8 112 8.321
104 F8 113 7.345
104 F8 114 5.880
104 F8 115 4.903
104 F8 116 4.415
104 F8 117 4.415
104 F8 118 4.903
104 F8 119 5.880
104 F8 120 6.368
104 F8 121 6.368
104 F8 122 5.391
104 F8 123 3.927
104 F8 124 2.950
104 F8 125 2.462
104 F8 126 3.438
104 F8 127 5.391
104 F8 128 7.345
104 F8 129 8.809
104 F8 130 9.298
104 F8 131 9.298
104 F8 132 9.298
104 F8 133 8.809
104 F8 134 8.321
104 F8 135 8.321
104 F8 136 9.298
104 F8 137 10.274
104 F8 138 11.251
104 F8 139 11.251
104 F8 140 10.763
104 F8 141 8.809
104 F8 142 6.368
104 F8 143 4.415
104 F8 144 1.973
104 F8 145 0.020
104 F8 146 -0.956
104 F8 147 -0.956
104 F8 148 -0.468
104 F8 149 -0.468
104 F8 150 -0.468
104 F8 151 0.020
104 F8 152 2.462
104 F8 153 6.368
104 F8 154 10.763
104 F8 155 13.204
104 F8 156 12.227
104 F8 157 9.786
104 F8 158 7.833
104 F8 159 8.321
104 F8 160 10.274
104 F8 161 13.204
104 F8 162 14.181
104 F8 163 13.692
104 F8 164 13.204
104 F8 165 13.204
104 F8 166 13.692
104 F8 167 12.716
104 F8 168 10.763
104 F8 169 9.298
104 F8 170 8.809
104 F8 171 10.274
104 F8 172 11.739
104 F8 173 11.251
104 F8 174 8.321
104 F8 175 4.415
104 F8 176 1.485
104 F8 177 0.020
104 F8 178 0.509
104 F8 179 1.485
104 F8 180 1.973
104 F8 181 3.438
104 F8 182 5.391
104 F8 183 8.321
104 F8 184 11.739
104 F8 185 13.204
104 F8 186 12.716
104 F8 187 11.739
104 F8 188 11.739
104 F8 189 13.204
104 F8 190 16.134
104 F8 191 18.575
104 F8 192 19.552
104 F8 193 18.575
104 F8 194 17.110
104 F8 195 15.157
104 F8 196 13.692
104 F8 197 12.227
104 F8 198 11.251
104 F8 199 11.251
104 F8 200 11.251
104 F8 201 11.739
104 F8 202 12.227
104 F8 203 11.251
104 F8 204 10.274
104 F8 205 9.786
104 F8 206 9.786
104 F8 207 11.251
104 F8 208 12.227
104 F8 209 12.716
104 F8 210 12.716
104 F8 211 13.692
104 F8 212 14.669
104 F8 213 16.134
104 F8 214 17.110
104 F8 215 16.622
104 F8 216 15.645
104 F8 217 15.157
104 F8 218 14.669
104 F8 219 15.157
104 F8 220 16.134
104 F8 221 16.622
104 F8 222 17.598
104 F8 223 18.087
104 F8 224 19.063
104 F8 225 20.040
104 F8 226 20.040
104 F8 227 20.528
104 F8 228 20.040
104 F8 229 20.040
104 F8 230 20.528
104 F8 231 21.016
104 F8 232 19.552
104 F8 233 17.110
104 F8 234 13.692
104 F8 235 12.716
104 F8 236 14.181
104 F8 237 18.087
104 F8 238 22.481
104 F8 239 23.458
104 F8 240 20.528
104 F8 241 15.645
104 F8 242 10.763
104 F8 243 8.809
104 F8 244 9.298
104 F8 245 10.763
104 F8 246 11.251
104 F8 247 10.763
104 F8 248 9.298
104 F8 249 8.809
104 F8 250 9.786
104 F8 251 10.274
104 F8 252 10.763
104 F8 253 10.274
104 F8 254 10.763
104 F8 255 11.739
# AF1 chan 4
104 AF1 0 -2.035
104 AF1 1 -1.546
104 AF1 2 -0.570
104 AF1 3 0.407
104 AF1 4 1.872
104 AF1 5 3.337
104 AF1 6 5.290
104 AF1 7 6.266
104 AF1 8 6.266
104 AF1 9 6.266
104 AF1 10 5.290
104 AF1 11 4.801
104 AF1 12 4.313
104 AF1 13 3.337
104 AF1 14 2.360
104 AF1 15 1.872
104 AF1 16 2.360
104 AF1 17 3.337
104 AF1 18 4.313
104 AF1 19 4.801
104 AF1 20 5.778
104 AF1 21 7.243
104 AF1 22 8.219
104 AF1 23 9.196
104 AF1 24 9.196
104 AF1 25 8.708
104 AF1 26 7.731
104 AF1 27 7.243
104 AF1 28 7.731
104 AF1 29 7.731
104 AF1 30 8.219
104 AF1 31 7.731
104 AF1 32 7.243
104 AF1 33 7.731
104 AF1 34 8.219
104 AF1 35 9.196
104 AF1 36 9.196
104 AF1 37 8.219
104 AF1 38 7.243
104 AF1 39 6.755
104 AF1 40 6.266
104 AF1 41 6.755
104 AF1 42 6.755
104 AF1 43 6.266
104 AF1 44 6.266
104 AF1 45 7.243
104 AF1 46 8.708
104 AF1 47 9.684
104 AF1 48 9.684
104 AF1 49 8.708
104 AF1 50 6.755
104 AF1 51 5.290
104 AF1 52 5.290
104 AF1 53 6.755
104 AF1 54 8.708
104 AF1 55 9.684
104 AF1 56 9.684
104 AF1 57 9.684
104 AF1 58 9.684
104 AF1 59 10.173
104 AF1 60 10.173
104 AF1 61 9.196
104 AF1 62 7.243
104 AF1 63 4.801
104 AF1 64 3.337
104 AF1 65 2.360
104 AF1 66 2.848
104 AF1 67 3.825
104 AF1 68 3.825
104 AF1 69 3.337
104 AF1 70 1.872
104 AF1 71 0.407
104 AF1 72 -0.570
104 AF1 73 -0.570
104 AF1 74 -1.058
104 AF1 75 -2.035
104 AF1 76 -3.499
104 AF1 77 -5.452
104 AF1 78 -6.429
104 AF1 79 -5.452
104 AF1 80 -3.499
104 AF1 81 -1.058
104 AF1 82 0.407
104 AF1 83 0.407
104 AF1 84 -0.570
104 AF1 85 -2.523
104 AF1 86 -3.988
104 AF1 87 -4.476
104 AF1 88 -4.476
104 AF1 89 -3.499
104 AF1 90 -3.499
104 AF1 91 -3.499
104 AF1 92 -3.499
104 AF1 93 -3.988
104 AF1 94 -3.499
104 AF1 95 -2.035
104 AF1 96 0.407
104 AF1 97 2.360
104 AF1 98 2.848
104 AF1 99 1.383
104 AF1 100 -1.058
104 AF1 101 -3.011
104 AF1 102 -3.499
104 AF1 103 -3.011
104 AF1 104 -1.058
104 AF1 105 1.383
104 AF1 106 4.313
104 AF1 107 6.755
104 AF1 108 9.196
104 AF1 109 11.637
104 AF1 110 12.126
104 AF1 111 12.126
104 AF1 112 10.661
104 AF1 113 10.173
104 AF1 114 10.173
104 AF1 115 10.661
104 AF1 116 11.637
104 AF1 117 12.126
104 AF1 118 12.126
104 AF1 119 12.126
104 AF1 120 12.614
104 AF1 121 13.102
104 AF1 122 13.102
104 AF1 123 12.126
104 AF1 124 10.173
104 AF1 125 8.219
104 AF1 126 6.266
104 AF1 127 4.801
104 AF1 128 3.825
104 AF1 129 2.848
104 AF1 130 2.360
104 AF1 131 2.360
104 AF1 132 2.848
104 AF1 133 3.337
104 AF1 134 3.825
104 AF1 135 4.313
104 AF1 136 4.801
104 AF1 137 6.266
104 AF1 138 7.243
104 AF1 139 8.219
104 AF1 140 8.708
104 AF1 141 8.219
104 AF1 142 7.243
104 AF1 143 6.266
104 AF1 144 5.290
104 AF1 145 4.313
104 AF1 146 4.313
104 AF1 147 4.313
104 AF1 148 4.801
104 AF1 149 4.801
104 AF1 150 4.313
104 AF1 151 3.825
104 AF1 152 3.825
104 AF1 153 5.290
104 AF1 154 7.731
104 AF1 155 9.684
104 AF1 156 10.661
104 AF1 157 9.684
104 AF1 158 8.219
104 AF1 159 6.755
104 AF1 160 6.266
104 AF1 161 6.266
104 AF1 162 6.755
104 AF1 163 7.243
104 AF1 164 8.219
104 AF1 165 9.196
104 AF1 166 9.684
104 AF1 167 10.173
104 AF1 168 10.173
104 AF1 169 10.173
104 AF1 170 11.149
104 AF1 171 12.614
104 AF1 172 14.079
104 AF1 173 13.590
104 AF1 174 12.126
104 AF1 175 10.173
104 AF1 176 8.708
104 AF1 177 8.708
104 AF1 178 9.684
104 AF1 179 10.661
104 AF1 180 11.149
104 AF1 181 10.661
104 AF1 182 10.173
104 AF1 183 9.196
104 AF1 184 8.708
104 AF1 185 8.219
104 AF1 186 7.731
104 AF1 187 8.219
104 AF1 188 8.708
104 AF1 189 11.149
104 AF1 190 13.590
104 AF1 191 16.032
104 AF1 192 17.497
104 AF1 193 17.497
104 AF1 194 16.520
104 AF1 195 15.055
104 AF1 196 13.590
104 AF1 197 12.126
104 AF1 198 10.661
104 AF1 199 9.196
104 AF1 200 8.219
104 AF1 201 8.219
104 AF1 202 8.708
104 AF1 203 10.173
104 AF1 204 12.126
104 AF1 205 13.590
104 AF1 206 13.102
104 AF1 207 12.614
104 AF1 208 11.149
104 AF1 209 9.684
104 AF1 210 8.708
104 AF1 211 8.708
104 AF1 212 9.196
104 AF1 213 9.196
104 AF1 214 9.196
104 AF1 215 9.196
104 AF1 216 9.196
104 AF1 217 8.708
104 AF1 218 8.219
104 AF1 219 7.731
104 AF1 220 7.731
104 AF1 221 8.219
104 AF1 222 10.173
104 AF1 223 12.126
104 AF1 224 13.590
104 AF1 225 15.055
104 AF1 226 15.055
104 AF1 227 15.055
104 AF1 228 14.079
104 AF1 229 13.590
104 AF1 230 13.590
104 AF1 231 14.079
104 AF1 232 15.055
104 AF1 233 15.055
104 AF1 234 15.055
104 AF1 235 15.544
104 AF1 236 17.008
104 AF1 237 19.938
104 AF1 238 23.356
104 AF1 239 23.844
104 AF1 240 21.403
104 AF1 241 16.520
104 AF1 242 10.661
104 AF1 243 6.755
104 AF1 244 4.801
104 AF1 245 4.313
104 AF1 246 4.801
104 AF1 247 4.801
104 AF1 248 5.290
104 AF1 249 5.290
104 AF1 250 5.290
104 AF1 251 5.778
104 AF1 252 6.266
104 AF1 253 6.755
104 AF1 254 7.731
104 AF1 255 9.684
# AF2 chan 5
104 AF2 0 -3.306
104 AF2 1 -3.306
104 AF2 2 -2.818
104 AF2 3 -1.841
104 AF2 4 0.112
104 AF2 5 2.553
104 AF2 6 4.018
104 AF2 7 4.506
104 AF2 8 4.995
104 AF2 9 4.995
104 AF2 10 4.506
104 AF2 11 4.506
104 AF2 12 3.042
104 AF2 13 1.577
104 AF2 14 -0.376
104 AF2 15 -1.353
104 AF2 16 -0.376
104 AF2 17 1.088
104 AF2 18 2.553
104 AF2 19 3.530
104 AF2 20 4.018
104 AF2 21 4.995
104 AF2 22 5.483
104 AF2 23 6.460
104 AF2 24 6.460
104 AF2 25 5.971
104 AF2 26 4.506
104 AF2 27 4.506
104 AF2 28 4.995
104 AF2 29 6.460
104 AF2 30 7.924
104 AF2 31 8.413
104 AF2 32 8.901
104 AF2 33 8.901
104 AF2 34 8.413
104 AF2 35 8.413
104 AF2 36 8.413
104 AF2 37 7.924
104 AF2 38 6.948
104 AF2 39 5.971
104 AF2 40 5.483
104 AF2 41 5.483
104 AF2 42 4.506
104 AF2 43 4.018
104 AF2 44 4.506
104 AF2 45 4.995
104 AF2 46 6.948
104 AF2 47 8.901
104 AF2 48 9.389
104 AF2 49 8.901
104 AF2 50 6.948
104 AF2 51 4.995
104 AF2 52 4.018
104 AF2 53 4.995
104 AF2 54 5.971
104 AF2 55 6.460
104 AF2 56 6.460
104 AF2 57 5.971
104 AF2 58 5.483
104 AF2 59 5.971
104 AF2 60 6.460
104 AF2 61 6.460
104 AF2 62 5.483
104 AF2 63 3.530
104 AF2 64 2.065
104 AF2 65 0.600
104 AF2 66 0.112
104 AF2 67 0.112
104 AF2 68 -0.376
104 AF2 69 -0.865
104 AF2 70 -2.330
104 AF2 71 -3.306
104 AF2 72 -4.283
104 AF2 73 -4.283
104 AF2 74 -4.283
104 AF2 75 -4.771
104 AF2 76 -5.747
104 AF2 77 -7.212
104 AF2 78 -8.189
104 AF2 79 -8.189
104 AF2 80 -7.701
104 AF2 81 -6.236
104 AF2 82 -4.771
104 AF2 83 -3.794
104 AF2 84 -3.306
104 AF2 85 -3.794
104 AF2 86 -4.283
104 AF2 87 -5.747
104 AF2 88 -6.724
104 AF2 89 -6.724
104 AF2 90 -6.724
104 AF2 91 -6.724
104 AF2 92 -7.212
104 AF2 93 -7.701
104 AF2 94 -8.189
104 AF2 95 -7.701
104 AF2 96 -6.724
104 AF2 97 -4.771
104 AF2 98 -3.794
104 AF2 99 -3.794
104 AF2 100 -5.259
104 AF2 101 -6.724
104 AF2 102 -6.724
104 AF2 103 -6.724
104 AF2 104 -4.771
104 AF2 105 -2.330
104 AF2 106 1.088
104 AF2 107 4.506
104 AF2 108 7.924
104 AF2 109 10.366
104 AF2 110 10.366
104 AF2 111 8.901
104 AF2 112 6.460
104 AF2 113 4.506
104 AF2 114 4.018
104 AF2 115 4.506
104 AF2 116 5.971
104 AF2 117 6.460
104 AF2 118 6.948
104 AF2 119 6.948
104 AF2 120 7.436
104 AF2 121 8.413
104 AF2 122 8.413
104 AF2 123 6.948
104 AF2 124 4.506
104 AF2 125 2.553
104 AF2 126 1.088
104 AF2 127 1.088
104 AF2 128 1.088
104 AF2 129 1.088
104 AF2 130 1.577
104 AF2 131 1.577
104 AF2 132 2.065
104 AF2 133 2.065
104 AF2 134 2.065
104 AF2 135 2.065
104 AF2 136 2.553
104 AF2 137 3.530
104 AF2 138 4.995
104 AF2 139 6.460
104 AF2 140 6.948
104 AF2 141 6.948
104 AF2 142 5.971
104 AF2 143 4.018
104 AF2 144 2.065
104 AF2 145 0.600
104 AF2 146 0.112
104 AF2 147 0.600
104 AF2 148 1.577
104 AF2 149 2.065
104 AF2 150 1.577
104 AF2 151 0.600
104 AF2 152 0.600
104 AF2 153 1.577
104 AF2 154 4.506
104 AF2 155 6.460
104 AF2 156 7.924
104 AF2 157 7.436
104 AF2 158 5.971
104 AF2 159 5.971
104 AF2 160 6.460
104 AF2 161 7.436
104 AF2 162 7.924
104 AF2 163 8.413
104 AF2 164 8.901
104 AF2 165 9.878
104 AF2 166 10.854
104 AF2 167 10.854
104 AF2 168 10.366
104 AF2 169 9.878
104 AF2 170 10.366
104 AF2 171 11.831
104 AF2 172 13.295
104 AF2 173 12.807
104 AF2 174 10.854
104 AF2 175 7.924
104 AF2 176 4.995
104 AF2 177 4.506
104 AF2 178 5.483
104 AF2 179 6.460
104 AF2 180 7.436
104 AF2 181 7.436
104 AF2 182 7.436
104 AF2 183 7.436
104 AF2 184 6.948
104 AF2 185 6.948
104 AF2 186 6.948
104 AF2 187 6.948
104 AF2 188 8.413
104 AF2 189 10.366
104 AF2 190 12.807
104 AF2 191 14.760
104 AF2 192 15.737
104 AF2 193 15.249
104 AF2 194 13.784
104 AF2 195 12.319
104 AF2 196 10.854
104 AF2 197 9.878
104 AF2 198 9.389
104 AF2 199 8.901
104 AF2 200 8.413
104 AF2 201 8.413
104 AF2 202 8.413
104 AF2 203 8.413
104 AF2 204 8.901
104 AF2 205 9.878
104 AF2 206 10.366
104 AF2 207 10.854
104 AF2 208 9.878
104 AF2 209 8.413
104 AF2 210 6.948
104 AF2 211 6.948
104 AF2 212 7.436
104 AF2 213 8.901
104 AF2 214 10.366
104 AF2 215 10.854
104 AF2 216 9.878
104 AF2 217 9.389
104 AF2 218 8.413
104 AF2 219 8.413
104 AF2 220 8.413
104 AF2 221 9.389
104 AF2 222 9.878
104 AF2 223 10.366
104 AF2 224 11.831
104 AF2 225 12.807
104 AF2 226 13.295
104 AF2 227 13.295
104 AF2 228 13.295
104 AF2 229 13.784
104 AF2 230 14.272
104 AF2 231 15.249
104 AF2 232 15.249
104 AF2 233 14.272
104 AF2 234 12.807
104 AF2 235 12.319
104 AF2 236 13.295
104 AF2 237 15.737
104 AF2 238 18.667
104 AF2 239 19.643
104 AF2 240 18.178
104 AF2 241 13.784
104 AF2 242 8.901
104 AF2 243 5.483
104 AF2 244 3.530
104 AF2 245 3.042
104 AF2 246 2.553
104 AF2 247 1.577
104 AF2 248 1.088
104 AF2 249 1.088
104 AF2 250 1.577
104 AF2 251 3.042
104 AF2 252 4.018
104 AF2 253 5.971
104 AF2 254 7.436
104 AF2 255 9.389
# FZ chan 6
104 FZ 0 -0.966
104 FZ 1 -0.966
104 FZ 2 0.010
104 FZ 3 0.987
104 FZ 4 1.963
104 FZ 5 3.428
104 FZ 6 4.893
104 FZ 7 5.381
104 FZ 8 6.358
104 FZ 9 6.358
104 FZ 10 6.846
104 FZ 11 5.870
104 FZ 12 4.893
104 FZ 13 3.428
104 FZ 14 2.940
104 FZ 15 2.940
104 FZ 16 3.916
104 FZ 17 5.381
104 FZ 18 6.846
104 FZ 19 7.334
104 FZ 20 7.823
104 FZ 21 8.311
104 FZ 22 8.799
104 FZ 23 9.776
104 FZ 24 9.776
104 FZ 25 9.288
104 FZ 26 8.799
104 FZ 27 8.799
104 FZ 28 9.776
104 FZ 29 9.776
104 FZ 30 10.752
104 FZ 31 10.752
104 FZ 32 10.752
104 FZ 33 10.752
104 FZ 34 10.752
104 FZ 35 11.241
104 FZ 36 11.241
104 FZ 37 10.752
104 FZ 38 9.776
104 FZ 39 9.288
104 FZ 40 9.288
104 FZ 41 9.288
104 FZ 42 9.776
104 FZ 43 9.776
104 FZ 44 9.776
104 FZ 45 9.288
104 FZ 46 9.776
104 FZ 47 10.264
104 FZ 48 10.264
104 FZ 49 9.288
104 FZ 50 7.823
104 FZ 51 6.846
104 FZ 52 6.358
104 FZ 53 6.846
104 FZ 54 7.334
104 FZ 55 8.311
104 FZ 56 7.823
104 FZ 57 8.311
104 FZ 58 9.288
104 FZ 59 9.776
104 FZ 60 10.264
104 FZ 61 10.264
104 FZ 62 8.311
104 FZ 63 6.358
104 FZ 64 4.405
104 FZ 65 3.916
104 FZ 66 3.916
104 FZ 67 4.405
104 FZ 68 4.405
104 FZ 69 4.405
104 FZ 70 3.428
104 FZ 71 2.452
104 FZ 72 1.963
104 FZ 73 1.475
104 FZ 74 1.475
104 FZ 75 0.498
104 FZ 76 0.010
104 FZ 77 -0.966
104 FZ 78 -1.943
104 FZ 79 -1.943
104 FZ 80 -1.455
104 FZ 81 0.010
104 FZ 82 0.987
104 FZ 83 1.963
104 FZ 84 1.475
104 FZ 85 0.498
104 FZ 86 -0.966
104 FZ 87 -2.431
104 FZ 88 -2.920
104 FZ 89 -2.920
104 FZ 90 -2.431
104 FZ 91 -0.966
104 FZ 92 -0.478
104 FZ 93 0.498
104 FZ 94 1.963
104 FZ 95 2.940
104 FZ 96 3.916
104 FZ 97 4.405
104 FZ 98 3.916
104 FZ 99 3.428
104 FZ 100 1.963
104 FZ 101 0.987
104 FZ 102 0.498
104 FZ 103 1.475
104 FZ 104 2.940
104 FZ 105 4.893
104 FZ 106 6.846
104 FZ 107 8.799
104 FZ 108 10.264
104 FZ 109 11.241
104 FZ 110 11.729
104 FZ 111 11.241
104 FZ 112 9.776
104 FZ 113 8.799
104 FZ 114 7.823
104 FZ 115 8.311
104 FZ 116 9.288
104 FZ 117 9.776
104 FZ 118 9.776
104 FZ 119 10.264
104 FZ 120 10.752
104 FZ 121 11.729
104 FZ 122 12.217
104 FZ 123 11.729
104 FZ 124 9.776
104 FZ 125 7.334
104 FZ 126 5.381
104 FZ 127 4.405
104 FZ 128 3.916
104 FZ 129 3.916
104 FZ 130 3.916
104 FZ 131 4.405
104 FZ 132 5.381
104 FZ 133 5.870
104 FZ 134 6.358
104 FZ 135 6.358
104 FZ 136 6.358
104 FZ 137 7.334
104 FZ 138 7.823
104 FZ 139 9.288
104 FZ 140 10.264
104 FZ 141 10.264
104 FZ 142 9.776
104 FZ 143 9.288
104 FZ 144 8.311
104 FZ 145 7.334
104 FZ 146 7.334
104 FZ 147 7.823
104 FZ 148 8.311
104 FZ 149 8.799
104 FZ 150 8.311
104 FZ 151 7.334
104 FZ 152 6.846
104 FZ 153 7.334
104 FZ 154 7.823
104 FZ 155 9.288
104 FZ 156 10.264
104 FZ 157 10.264
104 FZ 158 10.264
104 FZ 159 8.799
104 FZ 160 7.334
104 FZ 161 6.846
104 FZ 162 6.846
104 FZ 163 7.334
104 FZ 164 8.311
104 FZ 165 9.776
104 FZ 166 10.752
104 FZ 167 10.752
104 FZ 168 10.264
104 FZ 169 10.752
104 FZ 170 11.241
104 FZ 171 12.217
104 FZ 172 12.705
104 FZ 173 12.705
104 FZ 174 11.241
104 FZ 175 9.776
104 FZ 176 8.799
104 FZ 177 8.311
104 FZ 178 9.288
104 FZ 179 10.264
104 FZ 180 11.241
104 FZ 181 10.752
104 FZ 182 9.776
104 FZ 183 7.823
104 FZ 184 6.358
104 FZ 185 5.381
104 FZ 186 5.870
104 FZ 187 6.358
104 FZ 188 7.334
104 FZ 189 8.799
104 FZ 190 10.264
104 FZ 191 11.241
104 FZ 192 12.217
104 FZ 193 11.729
104 FZ 194 9.776
104 FZ 195 7.823
104 FZ 196 6.846
104 FZ 197 6.846
104 FZ 198 6.846
104 FZ 199 7.334
104 FZ 200 7.334
104 FZ 201 7.334
104 FZ 202 7.823
104 FZ 203 8.311
104 FZ 204 9.288
104 FZ 205 9.288
104 FZ 206 9.288
104 FZ 207 8.799
104 FZ 208 8.311
104 FZ 209 7.823
104 FZ 210 7.823
104 FZ 211 7.823
104 FZ 212 7.823
104 FZ 213 7.823
104 FZ 214 7.823
104 FZ 215 7.823
104 FZ 216 7.334
104 FZ 217 7.823
104 FZ 218 7.823
104 FZ 219 7.334
104 FZ 220 7.823
104 FZ 221 7.823
104 FZ 222 8.799
104 FZ 223 10.264
104 FZ 224 11.241
104 FZ 225 12.705
104 FZ 226 12.705
104 FZ 227 12.705
104 FZ 228 11.729
104 FZ 229 10.752
104 FZ 230 10.752
104 FZ 231 10.752
104 FZ 232 11.241
104 FZ 233 11.241
104 FZ 234 11.241
104 FZ 235 10.752
104 FZ 236 11.241
104 FZ 237 12.217
104 FZ 238 13.682
104 FZ 239 13.682
104 FZ 240 12.217
104 FZ 241 9.288
104 FZ 242 6.358
104 FZ 243 3.916
104 FZ 244 1.963
104 FZ 245 0.987
104 FZ 246 0.010
104 FZ 247 -0.966
104 FZ 248 -0.966
104 FZ 249 -0.478
104 FZ 250 0.498
104 FZ 251 2.452
104 FZ 252 3.916
104 FZ 253 5.381
104 FZ 254 6.358
104 FZ 255 7.823
# F4 chan 7
104 F4 0 -1.434
104 F4 1 -1.923
104 F4 2 -1.434
104 F4 3 0.031
104 F4 4 1.495
104 F4 5 3.448
104 F4 6 4.425
104 F4 7 4.913
104 F4 8 4.913
104 F4 9 4.425
104 F4 10 3.937
104 F4 11 3.448
104 F4 12 2.472
104 F4 13 1.007
104 F4 14 -0.458
104 F4 15 -0.946
104 F4 16 -0.458
104 F4 17 0.519
104 F4 18 1.495
104 F4 19 2.472
104 F4 20 2.472
104 F4 21 2.960
104 F4 22 2.960
104 F4 23 3.448
104 F4 24 3.937
104 F4 25 3.937
104 F4 26 3.937
104 F4 27 3.448
104 F4 28 4.425
104 F4 29 5.402
104 F4 30 6.378
104 F4 31 7.355
104 F4 32 7.843
104 F4 33 7.355
104 F4 34 6.866
104 F4 35 6.866
104 F4 36 7.355
104 F4 37 7.355
104 F4 38 7.355
104 F4 39 6.866
104 F4 40 6.378
104 F4 41 5.890
104 F4 42 5.402
104 F4 43 5.402
104 F4 44 5.402
104 F4 45 6.378
104 F4 46 7.355
104 F4 47 8.820
104 F4 48 8.820
104 F4 49 8.820
104 F4 50 7.355
104 F4 51 6.378
104 F4 52 5.402
104 F4 53 5.402
104 F4 54 5.890
104 F4 55 5.890
104 F4 56 4.913
104 F4 57 4.425
104 F4 58 4.425
104 F4 59 4.913
104 F4 60 5.402
104 F4 61 5.890
104 F4 62 5.402
104 F4 63 3.937
104 F4 64 1.984
104 F4 65 0.519
104 F4 66 -0.458
104 F4 67 -0.946
104 F4 68 -1.434
104 F4 69 -1.434
104 F4 70 -1.923
104 F4 71 -2.899
104 F4 72 -2.899
104 F4 73 -3.387
104 F4 74 -2.899
104 F4 75 -3.387
104 F4 76 -3.387
104 F4 77 -4.364
104 F4 78 -4.852
104 F4 79 -4.852
104 F4 80 -4.364
104 F4 81 -2.411
104 F4 82 -0.946
104 F4 83 0.519
104 F4 84 1.007
104 F4 85 0.519
104 F4 86 -0.946
104 F4 87 -1.923
104 F4 88 -2.899
104 F4 89 -3.387
104 F4 90 -3.876
104 F4 91 -4.364
104 F4 92 -4.364
104 F4 93 -4.852
104 F4 94 -5.341
104 F4 95 -5.829
104 F4 96 -5.341
104 F4 97 -4.852
104 F4 98 -4.852
104 F4 99 -4.364
104 F4 100 -4.364
104 F4 101 -4.364
104 F4 102 -3.876
104 F4 103 -3.876
104 F4 104 -2.899
104 F4 105 -1.434
104 F4 106 0.519
104 F4 107 2.960
104 F4 108 5.402
104 F4 109 6.378
104 F4 110 6.378
104 F4 111 5.402
104 F4 112 3.448
104 F4 113 1.495
104 F4 114 1.007
104 F4 115 0.519
104 F4 116 0.519
104 F4 117 1.007
104 F4 118 1.007
104 F4 119 1.984
104 F4 120 2.960
104 F4 121 3.448
104 F4 122 2.960
104 F4 123 1.495
104 F4 124 -0.458
104 F4 125 -1.434
104 F4 126 -1.923
104 F4 127 -0.946
104 F4 128 0.031
104 F4 129 1.007
104 F4 130 0.519
104 F4 131 0.519
104 F4 132 0.519
104 F4 133 0.031
104 F4 134 0.519
104 F4 135 0.031
104 F4 136 0.031
104 F4 137 0.519
104 F4 138 1.495
104 F4 139 2.960
104 F4 140 3.937
104 F4 141 3.937
104 F4 142 2.960
104 F4 143 1.007
104 F4 144 -0.458
104 F4 145 -1.434
104 F4 146 -0.946
104 F4 147 0.031
104 F4 148 1.007
104 F4 149 1.007
104 F4 150 0.031
104 F4 151 -0.946
104 F4 152 -1.434
104 F4 153 0.031
104 F4 154 1.984
104 F4 155 3.448
104 F4 156 4.425
104 F4 157 3.937
104 F4 158 3.937
104 F4 159 3.937
104 F4 160 4.425
104 F4 161 4.913
104 F4 162 5.402
104 F4 163 5.890
104 F4 164 6.866
104 F4 165 6.866
104 F4 166 6.866
104 F4 167 5.890
104 F4 168 5.402
104 F4 169 4.913
104 F4 170 5.402
104 F4 171 6.866
104 F4 172 7.355
104 F4 173 6.866
104 F4 174 4.913
104 F4 175 1.984
104 F4 176 0.031
104 F4 177 -0.946
104 F4 178 -0.458
104 F4 179 1.007
104 F4 180 1.984
104 F4 181 1.984
104 F4 182 2.472
104 F4 183 2.472
104 F4 184 2.472
104 F4 185 2.960
104 F4 186 3.448
104 F4 187 4.425
104 F4 188 4.913
104 F4 189 6.866
104 F4 190 8.331
104 F4 191 9.796
104 F4 192 10.284
104 F4 193 9.308
104 F4 194 7.355
104 F4 195 4.913
104 F4 196 2.960
104 F4 197 1.984
104 F4 198 1.495
104 F4 199 1.495
104 F4 200 2.472
104 F4 201 3.448
104 F4 202 3.448
104 F4 203 2.960
104 F4 204 1.984
104 F4 205 2.472
104 F4 206 2.472
104 F4 207 3.448
104 F4 208 3.937
104 F4 209 4.425
104 F4 210 4.425
104 F4 211 4.913
104 F4 212 5.890
104 F4 213 6.866
104 F4 214 7.843
104 F4 215 7.843
104 F4 216 6.866
104 F4 217 5.890
104 F4 218 5.402
104 F4 219 5.402
104 F4 220 5.890
104 F4 221 5.890
104 F4 222 5.890
104 F4 223 6.378
104 F4 224 7.355
104 F4 225 8.331
104 F4 226 8.820
104 F4 227 8.820
104 F4 228 8.820
104 F4 229 8.820
104 F4 230 9.308
104 F4 231 9.796
104 F4 232 9.308
104 F4 233 7.843
104 F4 234 5.402
104 F4 235 3.937
104 F4 236 3.937
104 F4 237 5.402
104 F4 238 7.843
104 F4 239 8.820
104 F4 240 7.843
104 F4 241 5.402
104 F4 242 2.472
104 F4 243 1.007
104 F4 244 0.519
104 F4 245 -0.458
104 F4 246 -1.434
104 F4 247 -3.876
104 F4 248 -5.341
104 F4 249 -5.829
104 F4 250 -4.364
104 F4 251 -1.434
104 F4 252 1.495
104 F4 253 3.448
104 F4 254 4.913
104 F4 255 5.890
# F3 chan 8
104 F3 0 -4.415
104 F3 1 -3.927
104 F3 2 -2.950
104 F3 3 -1.973
104 F3 4 -1.485
104 F3 5 -0.509
104 F3 6 0.468
104 F3 7 0.956
104 F3 8 1.444
104 F3 9 0.956
104 F3 10 0.956
104 F3 11 0.468
104 F3 12 0.468
104 F3 13 -0.020
104 F3 14 -0.997
104 F3 15 -0.997
104 F3 16 -0.020
104 F3 17 0.956
104 F3 18 1.933
104 F3 19 2.909
104 F3 20 3.398
104 F3 21 4.374
104 F3 22 4.862
104 F3 23 5.351
104 F3 24 5.839
104 F3 25 5.351
104 F3 26 4.862
104 F3 27 4.374
104 F3 28 4.374
104 F3 29 4.374
104 F3 30 3.886
104 F3 31 3.398
104 F3 32 2.909
104 F3 33 3.886
104 F3 34 5.839
104 F3 35 7.304
104 F3 36 7.792
104 F3 37 6.816
104 F3 38 5.351
104 F3 39 3.886
104 F3 40 3.398
104 F3 41 2.909
104 F3 42 3.398
104 F3 43 2.909
104 F3 44 2.909
104 F3 45 2.909
104 F3 46 3.398
104 F3 47 3.886
104 F3 48 3.886
104 F3 49 2.909
104 F3 50 1.444
104 F3 51 -0.020
104 F3 52 -0.020
104 F3 53 0.956
104 F3 54 2.909
104 F3 55 4.862
104 F3 56 5.839
104 F3 57 6.327
104 F3 58 7.304
104 F3 59 7.792
104 F3 60 7.792
104 F3 61 6.327
104 F3 62 3.398
104 F3 63 0.468
104 F3 64 -1.485
104 F3 65 -0.997
104 F3 66 0.956
104 F3 67 2.909
104 F3 68 3.886
104 F3 69 3.886
104 F3 70 3.398
104 F3 71 2.421
104 F3 72 1.444
104 F3 73 -0.020
104 F3 74 -0.997
104 F3 75 -2.950
104 F3 76 -3.927
104 F3 77 -4.903
104 F3 78 -4.903
104 F3 79 -3.438
104 F3 80 -1.485
104 F3 81 0.468
104 F3 82 1.444
104 F3 83 0.956
104 F3 84 -0.020
104 F3 85 -1.973
104 F3 86 -4.415
104 F3 87 -5.391
104 F3 88 -5.391
104 F3 89 -4.415
104 F3 90 -2.950
104 F3 91 -1.973
104 F3 92 -1.973
104 F3 93 -1.485
104 F3 94 -0.997
104 F3 95 0.468
104 F3 96 1.933
104 F3 97 2.909
104 F3 98 1.933
104 F3 99 -0.020
104 F3 100 -2.950
104 F3 101 -4.903
104 F3 102 -5.391
104 F3 103 -4.903
104 F3 104 -3.438
104 F3 105 -1.485
104 F3 106 0.468
104 F3 107 2.909
104 F3 108 5.351
104 F3 109 6.816
104 F3 110 6.816
104 F3 111 6.816
104 F3 112 6.327
104 F3 113 6.327
104 F3 114 6.816
104 F3 115 8.280
104 F3 116 9.745
104 F3 117 9.745
104 F3 118 10.234
104 F3 119 9.745
104 F3 120 8.769
104 F3 121 8.280
104 F3 122 7.792
104 F3 123 6.816
104 F3 124 6.327
104 F3 125 5.839
104 F3 126 4.374
104 F3 127 3.398
104 F3 128 2.421
104 F3 129 1.444
104 F3 130 0.956
104 F3 131 0.956
104 F3 132 1.444
104 F3 133 1.933
104 F3 134 1.933
104 F3 135 2.909
104 F3 136 3.886
104 F3 137 4.374
104 F3 138 4.374
104 F3 139 4.374
104 F3 140 3.886
104 F3 141 3.886
104 F3 142 3.886
104 F3 143 3.886
104 F3 144 3.886
104 F3 145 3.886
104 F3 146 3.886
104 F3 147 4.374
104 F3 148 4.862
104 F3 149 4.862
104 F3 150 3.886
104 F3 151 2.909
104 F3 152 1.933
104 F3 153 2.421
104 F3 154 3.886
104 F3 155 5.839
104 F3 156 6.816
104 F3 157 6.327
104 F3 158 5.351
104 F3 159 2.909
104 F3 160 1.444
104 F3 161 0.468
104 F3 162 0.468
104 F3 163 1.444
104 F3 164 2.909
104 F3 165 3.886
104 F3 166 5.351
104 F3 167 6.327
104 F3 168 6.816
104 F3 169 6.816
104 F3 170 7.304
104 F3 171 7.304
104 F3 172 7.792
104 F3 173 7.304
104 F3 174 6.327
104 F3 175 4.862
104 F3 176 3.886
104 F3 177 4.374
104 F3 178 5.839
104 F3 179 7.792
104 F3 180 9.257
104 F3 181 9.257
104 F3 182 8.769
104 F3 183 6.816
104 F3 184 5.351
104 F3 185 3.886
104 F3 186 2.909
104 F3 187 2.909
104 F3 188 3.886
104 F3 189 5.839
104 F3 190 8.769
104 F3 191 11.210
104 F3 192 12.675
104 F3 193 12.187
104 F3 194 10.722
104 F3 195 8.769
104 F3 196 7.304
104 F3 197 6.327
104 F3 198 5.839
104 F3 199 5.351
104 F3 200 5.351
104 F3 201 5.351
104 F3 202 6.327
104 F3 203 7.304
104 F3 204 7.792
104 F3 205 8.280
104 F3 206 7.304
104 F3 207 6.327
104 F3 208 5.351
104 F3 209 4.862
104 F3 210 4.862
104 F3 211 5.351
104 F3 212 5.351
104 F3 213 4.862
104 F3 214 3.886
104 F3 215 3.886
104 F3 216 3.886
104 F3 217 4.374
104 F3 218 4.374
104 F3 219 4.374
104 F3 220 3.886
104 F3 221 3.886
104 F3 222 4.374
104 F3 223 6.327
104 F3 224 8.280
104 F3 225 10.722
104 F3 226 11.698
104 F3 227 11.698
104 F3 228 11.210
104 F3 229 10.722
104 F3 230 10.722
104 F3 231 11.698
104 F3 232 12.675
104 F3 233 12.675
104 F3 234 12.187
104 F3 235 12.187
104 F3 236 13.163
104 F3 237 15.116
104 F3 238 17.558
104 F3 239 17.558
104 F3 240 15.605
104 F3 241 11.698
104 F3 242 6.816
104 F3 243 3.886
104 F3 244 2.421
104 F3 245 2.421
104 F3 246 2.421
104 F3 247 2.909
104 F3 248 3.398
104 F3 249 4.862
104 F3 250 5.839
104 F3 251 5.839
104 F3 252 5.839
104 F3 253 4.862
104 F3 254 5.351
104 F3 255 6.816
# FC6 chan 9
104 FC6 0 1.689
104 FC6 1 1.200
104 FC6 2 1.689
104 FC6 3 2.665
104 FC6 4 3.642
104 FC6 5 4.130
104 FC6 6 4.618
104 FC6 7 5.595
104 FC6 8 6.083
104 FC6 9 6.083
104 FC6 10 6.571
104 FC6 11 6.571
104 FC6 12 7.060
104 FC6 13 7.060
104 FC6 14 7.548
104 FC6 15 6.571
104 FC6 16 5.595
104 FC6 17 4.618
104 FC6 18 3.642
104 FC6 19 3.153
104 FC6 20 3.642
104 FC6 21 3.153
104 FC6 22 3.153
104 FC6 23 3.153
104 FC6 24 3.153
104 FC6 25 3.153
104 FC6 26 3.153
104 FC6 27 3.642
104 FC6 28 4.130
104 FC6 29 4.618
104 FC6 30 6.083
104 FC6 31 6.571
104 FC6 32 6.571
104 FC6 33 6.083
104 FC6 34 5.595
104 FC6 35 6.083
104 FC6 36 6.571
104 FC6 37 7.548
104 FC6 38 7.548
104 FC6 39 6.083
104 FC6 40 4.618
104 FC6 41 3.153
104 FC6 42 2.177
104 FC6 43 2.177
104 FC6 44 3.153
104 FC6 45 4.618
104 FC6 46 5.595
104 FC6 47 7.060
104 FC6 48 8.036
104 FC6 49 8.525
104 FC6 50 8.036
104 FC6 51 7.548
104 FC6 52 7.548
104 FC6 53 7.548
104 FC6 54 7.548
104 FC6 55 7.060
104 FC6 56 6.083
104 FC6 57 5.595
104 FC6 58 5.595
104 FC6 59 6.571
104 FC6 60 8.036
104 FC6 61 8.525
104 FC6 62 8.036
104 FC6 63 6.083
104 FC6 64 4.618
104 FC6 65 2.665
104 FC6 66 1.689
104 FC6 67 1.200
104 FC6 68 1.200
104 FC6 69 1.689
104 FC6 70 1.689
104 FC6 71 1.200
104 FC6 72 0.712
104 FC6 73 -0.264
104 FC6 74 0.224
104 FC6 75 1.200
104 FC6 76 2.177
104 FC6 77 3.153
104 FC6 78 3.642
104 FC6 79 4.130
104 FC6 80 4.618
104 FC6 81 6.083
104 FC6 82 7.548
104 FC6 83 9.013
104 FC6 84 9.501
104 FC6 85 9.989
104 FC6 86 9.989
104 FC6 87 9.501
104 FC6 88 9.013
104 FC6 89 8.525
104 FC6 90 6.571
104 FC6 91 4.130
104 FC6 92 1.689
104 FC6 93 -0.264
104 FC6 94 -1.241
104 FC6 95 -2.218
104 FC6 96 -2.706
104 FC6 97 -3.682
104 FC6 98 -4.171
104 FC6 99 -3.194
104 FC6 100 -0.753
104 FC6 101 1.689
104 FC6 102 4.130
104 FC6 103 5.107
104 FC6 104 5.595
104 FC6 105 6.571
104 FC6 106 8.525
104 FC6 107 10.478
104 FC6 108 11.943
104 FC6 109 12.431
104 FC6 110 11.943
104 FC6 111 10.966
104 FC6 112 10.478
104 FC6 113 9.501
104 FC6 114 8.525
104 FC6 115 7.060
104 FC6 116 5.595
104 FC6 117 5.107
104 FC6 118 5.107
104 FC6 119 5.595
104 FC6 120 6.571
104 FC6 121 6.571
104 FC6 122 6.083
104 FC6 123 4.130
104 FC6 124 3.642
104 FC6 125 4.130
104 FC6 126 5.595
104 FC6 127 8.525
104 FC6 128 10.966
104 FC6 129 12.431
104 FC6 130 12.919
104 FC6 131 11.454
104 FC6 132 10.478
104 FC6 133 9.013
104 FC6 134 8.525
104 FC6 135 8.036
104 FC6 136 8.036
104 FC6 137 8.525
104 FC6 138 9.013
104 FC6 139 9.013
104 FC6 140 8.525
104 FC6 141 8.036
104 FC6 142 6.571
104 FC6 143 4.618
104 FC6 144 3.153
104 FC6 145 2.665
104 FC6 146 2.177
104 FC6 147 2.665
104 FC6 148 3.153
104 FC6 149 4.130
104 FC6 150 5.107
104 FC6 151 6.571
104 FC6 152 7.548
104 FC6 153 9.013
104 FC6 154 9.989
104 FC6 155 10.966
104 FC6 156 10.966
104 FC6 157 9.989
104 FC6 158 9.501
104 FC6 159 9.501
104 FC6 160 10.478
104 FC6 161 12.431
104 FC6 162 13.896
104 FC6 163 15.361
104 FC6 164 16.337
104 FC6 165 16.337
104 FC6 166 15.361
104 FC6 167 13.896
104 FC6 168 11.454
104 FC6 169 9.989
104 FC6 170 9.501
104 FC6 171 9.989
104 FC6 172 10.478
104 FC6 173 9.501
104 FC6 174 8.036
104 FC6 175 5.595
104 FC6 176 3.642
104 FC6 177 2.177
104 FC6 178 2.177
104 FC6 179 2.665
104 FC6 180 3.642
104 FC6 181 5.595
104 FC6 182 9.013
104 FC6 183 11.454
104 FC6 184 13.896
104 FC6 185 13.896
104 FC6 186 12.919
104 FC6 187 11.454
104 FC6 188 11.454
104 FC6 189 13.407
104 FC6 190 15.361
104 FC6 191 17.314
104 FC6 192 18.290
104 FC6 193 17.802
104 FC6 194 16.825
104 FC6 195 15.849
104 FC6 196 14.384
104 FC6 197 12.431
104 FC6 198 10.966
104 FC6 199 10.478
104 FC6 200 9.989
104 FC6 201 10.478
104 FC6 202 10.966
104 FC6 203 10.478
104 FC6 204 9.501
104 FC6 205 9.013
104 FC6 206 9.501
104 FC6 207 10.478
104 FC6 208 11.454
104 FC6 209 11.454
104 FC6 210 11.943
104 FC6 211 12.919
104 FC6 212 14.384
104 FC6 213 16.337
104 FC6 214 17.314
104 FC6 215 17.314
104 FC6 216 16.337
104 FC6 217 15.361
104 FC6 218 15.849
104 FC6 219 16.825
104 FC6 220 17.802
104 FC6 221 17.802
104 FC6 222 16.825
104 FC6 223 15.849
104 FC6 224 15.361
104 FC6 225 16.337
104 FC6 226 16.825
104 FC6 227 17.314
104 FC6 228 17.802
104 FC6 229 17.802
104 FC6 230 17.802
104 FC6 231 18.290
104 FC6 232 17.802
104 FC6 233 16.337
104 FC6 234 13.896
104 FC6 235 12.431
104 FC6 236 12.431
104 FC6 237 13.407
104 FC6 238 15.361
104 FC6 239 15.361
104 FC6 240 14.384
104 FC6 241 12.431
104 FC6 242 10.966
104 FC6 243 10.966
104 FC6 244 12.431
104 FC6 245 13.407
104 FC6 246 12.919
104 FC6 247 11.943
104 FC6 248 10.478
104 FC6 249 9.989
104 FC6 250 10.478
104 FC6 251 11.454
104 FC6 252 12.919
104 FC6 253 13.896
104 FC6 254 15.361
104 FC6 255 16.337
# FC5 chan 10
104 FC5 0 -8.128
104 FC5 1 -6.663
104 FC5 2 -4.222
104 FC5 3 -3.733
104 FC5 4 -3.245
104 FC5 5 -2.757
104 FC5 6 -2.268
104 FC5 7 -1.292
104 FC5 8 -0.315
104 FC5 9 0.173
104 FC5 10 0.661
104 FC5 11 0.661
104 FC5 12 0.173
104 FC5 13 -0.315
104 FC5 14 -0.315
104 FC5 15 0.173
104 FC5 16 1.149
104 FC5 17 2.614
104 FC5 18 3.591
104 FC5 19 4.079
104 FC5 20 4.567
104 FC5 21 4.567
104 FC5 22 4.079
104 FC5 23 3.591
104 FC5 24 2.614
104 FC5 25 2.126
104 FC5 26 1.638
104 FC5 27 1.149
104 FC5 28 1.149
104 FC5 29 0.173
104 FC5 30 -0.804
104 FC5 31 -2.757
104 FC5 32 -4.222
104 FC5 33 -4.710
104 FC5 34 -3.733
104 FC5 35 -2.268
104 FC5 36 -0.804
104 FC5 37 0.173
104 FC5 38 0.173
104 FC5 39 -0.804
104 FC5 40 -2.268
104 FC5 41 -3.733
104 FC5 42 -4.222
104 FC5 43 -4.222
104 FC5 44 -3.733
104 FC5 45 -3.245
104 FC5 46 -2.757
104 FC5 47 -2.268
104 FC5 48 -2.268
104 FC5 49 -2.757
104 FC5 50 -3.733
104 FC5 51 -3.733
104 FC5 52 -3.245
104 FC5 53 -1.292
104 FC5 54 1.638
104 FC5 55 4.079
104 FC5 56 5.544
104 FC5 57 6.521
104 FC5 58 6.521
104 FC5 59 6.032
104 FC5 60 5.056
104 FC5 61 3.103
104 FC5 62 0.173
104 FC5 63 -1.780
104 FC5 64 -2.757
104 FC5 65 -2.268
104 FC5 66 -0.804
104 FC5 67 1.638
104 FC5 68 3.103
104 FC5 69 3.103
104 FC5 70 2.614
104 FC5 71 1.638
104 FC5 72 1.149
104 FC5 73 -0.315
104 FC5 74 -1.292
104 FC5 75 -3.245
104 FC5 76 -5.198
104 FC5 77 -6.663
104 FC5 78 -6.663
104 FC5 79 -4.710
104 FC5 80 -2.268
104 FC5 81 0.661
104 FC5 82 1.638
104 FC5 83 1.149
104 FC5 84 -0.315
104 FC5 85 -2.268
104 FC5 86 -3.733
104 FC5 87 -4.710
104 FC5 88 -4.222
104 FC5 89 -3.245
104 FC5 90 -2.757
104 FC5 91 -2.268
104 FC5 92 -2.268
104 FC5 93 -2.268
104 FC5 94 -1.780
104 FC5 95 -0.804
104 FC5 96 0.173
104 FC5 97 0.661
104 FC5 98 -0.315
104 FC5 99 -2.757
104 FC5 100 -4.710
104 FC5 101 -5.686
104 FC5 102 -5.686
104 FC5 103 -4.222
104 FC5 104 -2.757
104 FC5 105 -1.292
104 FC5 106 0.173
104 FC5 107 1.638
104 FC5 108 3.103
104 FC5 109 3.591
104 FC5 110 3.591
104 FC5 111 3.103
104 FC5 112 3.591
104 FC5 113 5.056
104 FC5 114 6.521
104 FC5 115 7.985
104 FC5 116 8.962
104 FC5 117 8.962
104 FC5 118 8.474
104 FC5 119 8.474
104 FC5 120 7.497
104 FC5 121 6.032
104 FC5 122 5.056
104 FC5 123 4.079
104 FC5 124 3.591
104 FC5 125 4.079
104 FC5 126 4.079
104 FC5 127 3.591
104 FC5 128 2.126
104 FC5 129 1.149
104 FC5 130 0.173
104 FC5 131 0.173
104 FC5 132 0.173
104 FC5 133 0.661
104 FC5 134 1.149
104 FC5 135 1.638
104 FC5 136 2.614
104 FC5 137 3.103
104 FC5 138 2.126
104 FC5 139 0.661
104 FC5 140 -0.804
104 FC5 141 -2.757
104 FC5 142 -3.733
104 FC5 143 -4.222
104 FC5 144 -4.222
104 FC5 145 -3.733
104 FC5 146 -2.268
104 FC5 147 -0.315
104 FC5 148 2.126
104 FC5 149 4.079
104 FC5 150 4.079
104 FC5 151 2.614
104 FC5 152 1.149
104 FC5 153 1.638
104 FC5 154 2.614
104 FC5 155 4.567
104 FC5 156 6.032
104 FC5 157 6.032
104 FC5 158 4.567
104 FC5 159 2.614
104 FC5 160 1.149
104 FC5 161 0.661
104 FC5 162 0.661
104 FC5 163 1.149
104 FC5 164 1.638
104 FC5 165 2.614
104 FC5 166 3.103
104 FC5 167 3.103
104 FC5 168 3.103
104 FC5 169 3.103
104 FC5 170 3.103
104 FC5 171 3.103
104 FC5 172 2.614
104 FC5 173 2.126
104 FC5 174 0.661
104 FC5 175 -0.315
104 FC5 176 -0.804
104 FC5 177 -0.315
104 FC5 178 0.661
104 FC5 179 2.126
104 FC5 180 3.103
104 FC5 181 4.079
104 FC5 182 4.567
104 FC5 183 4.079
104 FC5 184 3.591
104 FC5 185 2.614
104 FC5 186 1.638
104 FC5 187 1.149
104 FC5 188 0.661
104 FC5 189 2.126
104 FC5 190 4.567
104 FC5 191 7.009
104 FC5 192 9.450
104 FC5 193 10.427
104 FC5 194 10.915
104 FC5 195 9.939
104 FC5 196 8.962
104 FC5 197 7.985
104 FC5 198 7.009
104 FC5 199 6.521
104 FC5 200 6.521
104 FC5 201 6.032
104 FC5 202 6.521
104 FC5 203 6.521
104 FC5 204 7.009
104 FC5 205 7.497
104 FC5 206 7.497
104 FC5 207 6.521
104 FC5 208 5.056
104 FC5 209 4.079
104 FC5 210 2.614
104 FC5 211 2.126
104 FC5 212 1.638
104 FC5 213 1.638
104 FC5 214 1.149
104 FC5 215 1.149
104 FC5 216 2.126
104 FC5 217 3.103
104 FC5 218 4.079
104 FC5 219 4.079
104 FC5 220 3.103
104 FC5 221 2.614
104 FC5 222 2.614
104 FC5 223 4.079
104 FC5 224 6.521
104 FC5 225 8.962
104 FC5 226 9.939
104 FC5 227 9.450
104 FC5 228 8.474
104 FC5 229 7.497
104 FC5 230 7.985
104 FC5 231 7.985
104 FC5 232 8.474
104 FC5 233 8.474
104 FC5 234 8.474
104 FC5 235 8.962
104 FC5 236 10.915
104 FC5 237 13.357
104 FC5 238 15.798
104 FC5 239 15.798
104 FC5 240 13.845
104 FC5 241 10.427
104 FC5 242 6.521
104 FC5 243 4.567
104 FC5 244 4.567
104 FC5 245 6.032
104 FC5 246 7.985
104 FC5 247 9.450
104 FC5 248 10.915
104 FC5 249 11.892
104 FC5 250 11.403
104 FC5 251 10.427
104 FC5 252 8.474
104 FC5 253 7.497
104 FC5 254 7.009
104 FC5 255 6.521
# FC2 chan 11
104 FC2 0 1.363
104 FC2 1 -0.102
104 FC2 2 -1.078
104 FC2 3 -1.078
104 FC2 4 -0.590
104 FC2 5 0.875
104 FC2 6 1.851
104 FC2 7 1.851
104 FC2 8 1.851
104 FC2 9 1.851
104 FC2 10 1.851
104 FC2 11 1.851
104 FC2 12 1.363
104 FC2 13 0.875
104 FC2 14 -0.102
104 FC2 15 -0.102
104 FC2 16 -0.102
104 FC2 17 0.387
104 FC2 18 0.387
104 FC2 19 -0.102
104 FC2 20 -0.102
104 FC2 21 -0.590
104 FC2 22 -1.078
104 FC2 23 -1.078
104 FC2 24 -1.078
104 FC2 25 -1.078
104 FC2 26 -1.078
104 FC2 27 -0.590
104 FC2 28 -0.590
104 FC2 29 -0.102
104 FC2 30 0.387
104 FC2 31 0.875
104 FC2 32 1.363
104 FC2 33 1.363
104 FC2 34 1.363
104 FC2 35 1.851
104 FC2 36 2.340
104 FC2 37 2.340
104 FC2 38 2.340
104 FC2 39 1.851
104 FC2 40 1.851
104 FC2 41 1.851
104 FC2 42 1.851
104 FC2 43 1.851
104 FC2 44 1.851
104 FC2 45 1.851
104 FC2 46 1.851
104 FC2 47 1.851
104 FC2 48 1.851
104 FC2 49 1.851
104 FC2 50 0.875
104 FC2 51 0.387
104 FC2 52 -0.590
104 FC2 53 -1.078
104 FC2 54 -2.055
104 FC2 55 -2.055
104 FC2 56 -2.543
104 FC2 57 -2.543
104 FC2 58 -2.055
104 FC2 59 -2.055
104 FC2 60 -1.567
104 FC2 61 -1.078
104 FC2 62 -1.567
104 FC2 63 -3.031
104 FC2 64 -4.008
104 FC2 65 -4.496
104 FC2 66 -4.985
104 FC2 67 -4.985
104 FC2 68 -4.496
104 FC2 69 -4.496
104 FC2 70 -4.496
104 FC2 71 -4.985
104 FC2 72 -5.473
104 FC2 73 -5.473
104 FC2 74 -4.985
104 FC2 75 -4.985
104 FC2 76 -4.496
104 FC2 77 -4.496
104 FC2 78 -4.496
104 FC2 79 -4.985
104 FC2 80 -4.985
104 FC2 81 -4.985
104 FC2 82 -4.496
104 FC2 83 -4.008
104 FC2 84 -4.008
104 FC2 85 -4.496
104 FC2 86 -4.985
104 FC2 87 -5.961
104 FC2 88 -6.938
104 FC2 89 -6.938
104 FC2 90 -6.938
104 FC2 91 -6.449
104 FC2 92 -5.473
104 FC2 93 -4.985
104 FC2 94 -4.496
104 FC2 95 -4.496
104 FC2 96 -4.496
104 FC2 97 -4.008
104 FC2 98 -4.008
104 FC2 99 -4.008
104 FC2 100 -3.520
104 FC2 101 -3.520
104 FC2 102 -3.031
104 FC2 103 -3.031
104 FC2 104 -2.543
104 FC2 105 -2.055
104 FC2 106 -0.590
104 FC2 107 0.387
104 FC2 108 0.875
104 FC2 109 0.387
104 FC2 110 -0.590
104 FC2 111 -2.055
104 FC2 112 -3.031
104 FC2 113 -3.031
104 FC2 114 -3.520
104 FC2 115 -4.008
104 FC2 116 -4.496
104 FC2 117 -4.985
104 FC2 118 -4.496
104 FC2 119 -4.496
104 FC2 120 -3.031
104 FC2 121 -2.543
104 FC2 122 -2.055
104 FC2 123 -2.543
104 FC2 124 -4.008
104 FC2 125 -4.496
104 FC2 126 -4.985
104 FC2 127 -4.985
104 FC2 128 -4.985
104 FC2 129 -4.985
104 FC2 130 -4.985
104 FC2 131 -4.985
104 FC2 132 -4.985
104 FC2 133 -4.496
104 FC2 134 -4.008
104 FC2 135 -4.008
104 FC2 136 -4.008
104 FC2 137 -3.520
104 FC2 138 -3.031
104 FC2 139 -2.543
104 FC2 140 -2.055
104 FC2 141 -2.055
104 FC2 142 -3.031
104 FC2 143 -3.520
104 FC2 144 -4.496
104 FC2 145 -4.985
104 FC2 146 -4.496
104 FC2 147 -4.008
104 FC2 148 -3.031
104 FC2 149 -3.520
104 FC2 150 -4.008
104 FC2 151 -4.985
104 FC2 152 -5.473
104 FC2 153 -5.473
104 FC2 154 -4.496
104 FC2 155 -4.008
104 FC2 156 -3.031
104 FC2 157 -3.520
104 FC2 158 -4.008
104 FC2 159 -4.496
104 FC2 160 -4.985
104 FC2 161 -4.985
104 FC2 162 -4.008
104 FC2 163 -3.031
104 FC2 164 -2.055
104 FC2 165 -1.078
104 FC2 166 -1.078
104 FC2 167 -1.078
104 FC2 168 -2.055
104 FC2 169 -3.031
104 FC2 170 -3.031
104 FC2 171 -3.031
104 FC2 172 -2.543
104 FC2 173 -2.543
104 FC2 174 -3.031
104 FC2 175 -4.008
104 FC2 176 -4.496
104 FC2 177 -4.985
104 FC2 178 -4.985
104 FC2 179 -4.496
104 FC2 180 -4.008
104 FC2 181 -3.520
104 FC2 182 -4.008
104 FC2 183 -4.008
104 FC2 184 -4.496
104 FC2 185 -4.008
104 FC2 186 -3.520
104 FC2 187 -3.031
104 FC2 188 -2.543
104 FC2 189 -1.567
104 FC2 190 -1.567
104 FC2 191 -1.078
104 FC2 192 -1.078
104 FC2 193 -1.567
104 FC2 194 -3.031
104 FC2 195 -4.008
104 FC2 196 -4.985
104 FC2 197 -5.473
104 FC2 198 -5.961
104 FC2 199 -5.961
104 FC2 200 -5.961
104 FC2 201 -5.473
104 FC2 202 -5.473
104 FC2 203 -4.985
104 FC2 204 -4.985
104 FC2 205 -4.496
104 FC2 206 -4.008
104 FC2 207 -3.031
104 FC2 208 -2.543
104 FC2 209 -2.543
104 FC2 210 -2.055
104 FC2 211 -2.055
104 FC2 212 -1.567
104 FC2 213 -1.078
104 FC2 214 -1.078
104 FC2 215 -1.567
104 FC2 216 -2.055
104 FC2 217 -2.543
104 FC2 218 -3.031
104 FC2 219 -3.031
104 FC2 220 -3.031
104 FC2 221 -3.031
104 FC2 222 -3.520
104 FC2 223 -3.520
104 FC2 224 -3.520
104 FC2 225 -3.031
104 FC2 226 -2.543
104 FC2 227 -2.055
104 FC2 228 -1.567
104 FC2 229 -1.567
104 FC2 230 -1.078
104 FC2 231 -1.078
104 FC2 232 -1.078
104 FC2 233 -2.543
104 FC2 234 -4.008
104 FC2 235 -4.985
104 FC2 236 -4.985
104 FC2 237 -4.008
104 FC2 238 -2.055
104 FC2 239 -1.078
104 FC2 240 -0.590
104 FC2 241 -1.567
104 FC2 242 -3.031
104 FC2 243 -4.496
104 FC2 244 -5.961
104 FC2 245 -6.938
104 FC2 246 -7.914
104 FC2 247 -9.379
104 FC2 248 -9.867
104 FC2 249 -9.867
104 FC2 250 -8.403
104 FC2 251 -5.473
104 FC2 252 -3.031
104 FC2 253 -1.078
104 FC2 254 -0.102
104 FC2 255 -0.102
# FC1 chan 12
104 FC1 0 -1.902
104 FC1 1 -0.926
104 FC1 2 -0.437
104 FC1 3 -0.926
104 FC1 4 -0.437
104 FC1 5 -0.437
104 FC1 6 0.051
104 FC1 7 0.539
104 FC1 8 1.027
104 FC1 9 1.516
104 FC1 10 1.027
104 FC1 11 1.027
104 FC1 12 0.051
104 FC1 13 0.051
104 FC1 14 -0.437
104 FC1 15 -0.926
104 FC1 16 -0.437
104 FC1 17 0.051
104 FC1 18 1.516
104 FC1 19 2.492
104 FC1 20 3.469
104 FC1 21 4.445
104 FC1 22 4.934
104 FC1 23 4.934
104 FC1 24 4.934
104 FC1 25 4.445
104 FC1 26 3.957
104 FC1 27 3.469
104 FC1 28 3.469
104 FC1 29 2.492
104 FC1 30 2.004
104 FC1 31 1.516
104 FC1 32 1.516
104 FC1 33 2.004
104 FC1 34 2.981
104 FC1 35 3.469
104 FC1 36 3.469
104 FC1 37 2.981
104 FC1 38 2.004
104 FC1 39 1.516
104 FC1 40 1.027
104 FC1 41 1.516
104 FC1 42 2.004
104 FC1 43 2.004
104 FC1 44 1.516
104 FC1 45 1.516
104 FC1 46 1.027
104 FC1 47 1.027
104 FC1 48 0.051
104 FC1 49 -0.437
104 FC1 50 -1.902
104 FC1 51 -2.391
104 FC1 52 -1.902
104 FC1 53 -0.926
104 FC1 54 0.051
104 FC1 55 0.539
104 FC1 56 1.027
104 FC1 57 1.027
104 FC1 58 1.027
104 FC1 59 2.004
104 FC1 60 1.516
104 FC1 61 1.027
104 FC1 62 -0.437
104 FC1 63 -1.902
104 FC1 64 -2.879
104 FC1 65 -2.391
104 FC1 66 -1.414
104 FC1 67 -0.437
104 FC1 68 0.051
104 FC1 69 0.051
104 FC1 70 -0.437
104 FC1 71 -0.926
104 FC1 72 -1.902
104 FC1 73 -2.391
104 FC1 74 -2.879
104 FC1 75 -3.367
104 FC1 76 -3.855
104 FC1 77 -3.855
104 FC1 78 -3.855
104 FC1 79 -3.855
104 FC1 80 -2.879
104 FC1 81 -2.391
104 FC1 82 -1.414
104 FC1 83 -1.414
104 FC1 84 -1.902
104 FC1 85 -3.367
104 FC1 86 -3.855
104 FC1 87 -4.344
104 FC1 88 -4.832
104 FC1 89 -4.344
104 FC1 90 -3.855
104 FC1 91 -2.879
104 FC1 92 -1.414
104 FC1 93 -0.437
104 FC1 94 0.051
104 FC1 95 -0.437
104 FC1 96 -0.437
104 FC1 97 -0.437
104 FC1 98 -0.926
104 FC1 99 -1.902
104 FC1 100 -3.367
104 FC1 101 -5.320
104 FC1 102 -5.809
104 FC1 103 -5.809
104 FC1 104 -4.832
104 FC1 105 -2.879
104 FC1 106 -2.391
104 FC1 107 -1.414
104 FC1 108 -0.926
104 FC1 109 -0.437
104 FC1 110 0.051
104 FC1 111 -0.437
104 FC1 112 -0.926
104 FC1 113 -0.926
104 FC1 114 0.051
104 FC1 115 1.027
104 FC1 116 2.492
104 FC1 117 2.981
104 FC1 118 2.492
104 FC1 119 1.516
104 FC1 120 1.027
104 FC1 121 1.516
104 FC1 122 1.516
104 FC1 123 1.516
104 FC1 124 1.027
104 FC1 125 0.539
104 FC1 126 0.051
104 FC1 127 0.051
104 FC1 128 -0.926
104 FC1 129 -1.902
104 FC1 130 -2.391
104 FC1 131 -1.902
104 FC1 132 -0.437
104 FC1 133 0.539
104 FC1 134 1.027
104 FC1 135 1.027
104 FC1 136 1.027
104 FC1 137 1.516
104 FC1 138 2.004
104 FC1 139 2.004
104 FC1 140 2.004
104 FC1 141 1.027
104 FC1 142 1.027
104 FC1 143 0.539
104 FC1 144 0.539
104 FC1 145 1.027
104 FC1 146 1.027
104 FC1 147 1.516
104 FC1 148 1.516
104 FC1 149 1.027
104 FC1 150 1.027
104 FC1 151 0.051
104 FC1 152 -0.437
104 FC1 153 -0.926
104 FC1 154 -0.437
104 FC1 155 0.539
104 FC1 156 1.027
104 FC1 157 1.516
104 FC1 158 0.539
104 FC1 159 -0.926
104 FC1 160 -2.391
104 FC1 161 -3.367
104 FC1 162 -3.855
104 FC1 163 -3.367
104 FC1 164 -2.391
104 FC1 165 -0.926
104 FC1 166 0.051
104 FC1 167 0.539
104 FC1 168 0.539
104 FC1 169 0.539
104 FC1 170 1.027
104 FC1 171 1.027
104 FC1 172 1.516
104 FC1 173 1.516
104 FC1 174 0.539
104 FC1 175 -0.437
104 FC1 176 -0.926
104 FC1 177 -0.437
104 FC1 178 1.027
104 FC1 179 2.492
104 FC1 180 3.469
104 FC1 181 3.469
104 FC1 182 2.492
104 FC1 183 0.539
104 FC1 184 -1.414
104 FC1 185 -2.391
104 FC1 186 -2.391
104 FC1 187 -1.902
104 FC1 188 -0.926
104 FC1 189 0.051
104 FC1 190 1.516
104 FC1 191 2.492
104 FC1 192 2.981
104 FC1 193 2.492
104 FC1 194 1.516
104 FC1 195 0.051
104 FC1 196 -0.437
104 FC1 197 -0.437
104 FC1 198 0.539
104 FC1 199 1.027
104 FC1 200 1.027
104 FC1 201 0.051
104 FC1 202 0.051
104 FC1 203 0.051
104 FC1 204 1.027
104 FC1 205 1.516
104 FC1 206 1.027
104 FC1 207 -0.437
104 FC1 208 -1.414
104 FC1 209 -1.414
104 FC1 210 -0.926
104 FC1 211 -0.437
104 FC1 212 0.051
104 FC1 213 -0.437
104 FC1 214 -0.926
104 FC1 215 -1.902
104 FC1 216 -2.391
104 FC1 217 -2.391
104 FC1 218 -1.902
104 FC1 219 -2.391
104 FC1 220 -2.391
104 FC1 221 -2.879
104 FC1 222 -1.902
104 FC1 223 -0.437
104 FC1 224 1.027
104 FC1 225 2.492
104 FC1 226 2.981
104 FC1 227 2.492
104 FC1 228 2.004
104 FC1 229 1.516
104 FC1 230 2.004
104 FC1 231 2.492
104 FC1 232 2.981
104 FC1 233 2.981
104 FC1 234 3.469
104 FC1 235 3.469
104 FC1 236 3.957
104 FC1 237 4.445
104 FC1 238 3.957
104 FC1 239 3.957
104 FC1 240 2.981
104 FC1 241 1.027
104 FC1 242 -0.926
104 FC1 243 -2.391
104 FC1 244 -3.367
104 FC1 245 -3.855
104 FC1 246 -3.367
104 FC1 247 -2.391
104 FC1 248 -1.902
104 FC1 249 -0.926
104 FC1 250 -0.437
104 FC1 251 -0.437
104 FC1 252 -0.437
104 FC1 253 -0.926
104 FC1 254 -0.926
104 FC1 255 -1.414
# T8 chan 13
104 T8 0 -2.991
104 T8 1 -2.502
104 T8 2 -0.549
104 T8 3 0.916
104 T8 4 0.427
104 T8 5 -1.526
104 T8 6 -3.967
104 T8 7 -4.456
104 T8 8 -2.502
104 T8 9 1.404
104 T8 10 5.798
104 T8 11 8.240
104 T8 12 8.240
104 T8 13 6.775
104 T8 14 4.333
104 T8 15 2.869
104 T8 16 1.892
104 T8 17 1.892
104 T8 18 2.380
104 T8 19 1.892
104 T8 20 0.916
104 T8 21 -1.038
104 T8 22 -2.502
104 T8 23 -2.502
104 T8 24 -0.549
104 T8 25 1.404
104 T8 26 2.869
104 T8 27 3.845
104 T8 28 3.845
104 T8 29 3.357
104 T8 30 4.333
104 T8 31 5.310
104 T8 32 5.310
104 T8 33 5.310
104 T8 34 3.845
104 T8 35 1.892
104 T8 36 0.916
104 T8 37 0.916
104 T8 38 0.916
104 T8 39 1.892
104 T8 40 2.869
104 T8 41 1.892
104 T8 42 -0.061
104 T8 43 -2.991
104 T8 44 -4.456
104 T8 45 -3.967
104 T8 46 -1.526
104 T8 47 1.892
104 T8 48 3.845
104 T8 49 4.333
104 T8 50 4.822
104 T8 51 5.798
104 T8 52 7.751
104 T8 53 10.193
104 T8 54 11.169
104 T8 55 10.681
104 T8 56 8.240
104 T8 57 6.287
104 T8 58 4.333
104 T8 59 1.892
104 T8 60 -0.061
104 T8 61 -2.014
104 T8 62 -2.014
104 T8 63 0.427
104 T8 64 4.333
104 T8 65 6.775
104 T8 66 6.287
104 T8 67 3.357
104 T8 68 -0.061
104 T8 69 -2.014
104 T8 70 -2.014
104 T8 71 -0.549
104 T8 72 0.427
104 T8 73 0.916
104 T8 74 1.404
104 T8 75 2.869
104 T8 76 4.333
104 T8 77 5.310
104 T8 78 4.822
104 T8 79 4.822
104 T8 80 5.798
104 T8 81 8.240
104 T8 82 11.169
104 T8 83 13.123
104 T8 84 13.611
104 T8 85 12.634
104 T8 86 12.146
104 T8 87 11.658
104 T8 88 10.681
104 T8 89 8.240
104 T8 90 3.845
104 T8 91 -1.038
104 T8 92 -3.967
104 T8 93 -3.967
104 T8 94 -3.479
104 T8 95 -2.502
104 T8 96 -3.967
104 T8 97 -6.409
104 T8 98 -9.338
104 T8 99 -10.315
104 T8 100 -8.362
104 T8 101 -4.944
104 T8 102 -1.038
104 T8 103 1.892
104 T8 104 3.845
104 T8 105 5.310
104 T8 106 7.263
104 T8 107 9.216
104 T8 108 10.193
104 T8 109 10.193
104 T8 110 9.705
104 T8 111 9.705
104 T8 112 9.705
104 T8 113 9.705
104 T8 114 8.240
104 T8 115 6.775
104 T8 116 4.822
104 T8 117 3.357
104 T8 118 3.357
104 T8 119 4.333
104 T8 120 5.310
104 T8 121 5.798
104 T8 122 4.333
104 T8 123 2.869
104 T8 124 1.404
104 T8 125 0.916
104 T8 126 1.404
104 T8 127 2.380
104 T8 128 2.380
104 T8 129 3.357
104 T8 130 5.798
104 T8 131 9.216
104 T8 132 12.634
104 T8 133 13.123
104 T8 134 10.193
104 T8 135 6.287
104 T8 136 3.357
104 T8 137 3.845
104 T8 138 5.310
104 T8 139 5.798
104 T8 140 4.333
104 T8 141 1.404
104 T8 142 -1.038
104 T8 143 -1.526
104 T8 144 -1.526
104 T8 145 -1.038
104 T8 146 -1.526
104 T8 147 -2.991
104 T8 148 -2.991
104 T8 149 -1.526
104 T8 150 0.916
104 T8 151 3.357
104 T8 152 4.333
104 T8 153 5.798
104 T8 154 6.775
104 T8 155 7.751
104 T8 156 8.728
104 T8 157 7.751
104 T8 158 6.287
104 T8 159 5.310
104 T8 160 4.822
104 T8 161 5.310
104 T8 162 5.310
104 T8 163 6.775
104 T8 164 9.705
104 T8 165 13.123
104 T8 166 15.076
104 T8 167 14.099
104 T8 168 9.705
104 T8 169 5.310
104 T8 170 3.357
104 T8 171 3.845
104 T8 172 4.822
104 T8 173 4.333
104 T8 174 1.404
104 T8 175 -2.991
104 T8 176 -5.432
104 T8 177 -6.409
104 T8 178 -5.920
104 T8 179 -4.456
104 T8 180 -2.502
104 T8 181 -0.549
104 T8 182 2.380
104 T8 183 6.287
104 T8 184 9.216
104 T8 185 10.681
104 T8 186 9.705
104 T8 187 8.240
104 T8 188 6.775
104 T8 189 6.287
104 T8 190 6.775
104 T8 191 7.751
104 T8 192 8.240
104 T8 193 8.728
104 T8 194 9.705
104 T8 195 11.658
104 T8 196 13.611
104 T8 197 15.076
104 T8 198 13.611
104 T8 199 10.193
104 T8 200 6.775
104 T8 201 4.333
104 T8 202 3.357
104 T8 203 4.333
104 T8 204 5.310
104 T8 205 5.798
104 T8 206 5.798
104 T8 207 5.310
104 T8 208 5.798
104 T8 209 6.287
104 T8 210 7.263
104 T8 211 7.751
104 T8 212 9.216
104 T8 213 10.193
104 T8 214 11.658
104 T8 215 12.634
104 T8 216 12.634
104 T8 217 12.634
104 T8 218 12.146
104 T8 219 12.634
104 T8 220 13.123
104 T8 221 14.099
104 T8 222 15.564
104 T8 223 17.029
104 T8 224 17.517
104 T8 225 16.541
104 T8 226 14.099
104 T8 227 11.169
104 T8 228 8.728
104 T8 229 7.751
104 T8 230 8.728
104 T8 231 10.681
104 T8 232 12.634
104 T8 233 13.123
104 T8 234 11.658
104 T8 235 9.216
104 T8 236 7.263
104 T8 237 7.263
104 T8 238 8.728
104 T8 239 10.193
104 T8 240 10.193
104 T8 241 8.240
104 T8 242 5.798
104 T8 243 5.310
104 T8 244 7.263
104 T8 245 9.705
104 T8 246 11.658
104 T8 247 11.658
104 T8 248 10.681
104 T8 249 10.193
104 T8 250 10.681
104 T8 251 11.658
104 T8 252 11.658
104 T8 253 10.193
104 T8 254 7.751
104 T8 255 6.287
# T7 chan 14
104 T7 0 -8.993
104 T7 1 -7.039
104 T7 2 -5.575
104 T7 3 -5.086
104 T7 4 -5.086
104 T7 5 -4.598
104 T7 6 -3.621
104 T7 7 -2.157
104 T7 8 -0.203
104 T7 9 1.261
104 T7 10 2.238
104 T7 11 2.238
104 T7 12 1.750
104 T7 13 1.750
104 T7 14 2.238
104 T7 15 3.215
104 T7 16 3.703
104 T7 17 4.679
104 T7 18 5.656
104 T7 19 7.121
104 T7 20 7.609
104 T7 21 7.121
104 T7 22 5.656
104 T7 23 3.215
104 T7 24 0.285
104 T7 25 -0.692
104 T7 26 -0.203
104 T7 27 1.261
104 T7 28 1.750
104 T7 29 -0.203
104 T7 30 -3.133
104 T7 31 -6.063
104 T7 32 -8.016
104 T7 33 -8.016
104 T7 34 -6.551
104 T7 35 -4.598
104 T7 36 -3.621
104 T7 37 -3.133
104 T7 38 -3.621
104 T7 39 -4.110
104 T7 40 -5.086
104 T7 41 -5.575
104 T7 42 -5.575
104 T7 43 -5.575
104 T7 44 -5.575
104 T7 45 -5.575
104 T7 46 -5.086
104 T7 47 -3.621
104 T7 48 -2.645
104 T7 49 -1.668
104 T7 50 -1.668
104 T7 51 -2.157
104 T7 52 -2.157
104 T7 53 -0.692
104 T7 54 2.238
104 T7 55 5.168
104 T7 56 8.097
104 T7 57 8.586
104 T7 58 7.609
104 T7 59 6.144
104 T7 60 5.168
104 T7 61 4.679
104 T7 62 3.703
104 T7 63 2.238
104 T7 64 0.285
104 T7 65 -1.180
104 T7 66 -0.692
104 T7 67 1.261
104 T7 68 3.703
104 T7 69 5.168
104 T7 70 5.656
104 T7 71 5.168
104 T7 72 3.703
104 T7 73 2.238
104 T7 74 0.773
104 T7 75 -0.692
104 T7 76 -2.645
104 T7 77 -4.598
104 T7 78 -5.086
104 T7 79 -4.110
104 T7 80 -1.180
104 T7 81 2.238
104 T7 82 4.191
104 T7 83 4.191
104 T7 84 2.238
104 T7 85 0.285
104 T7 86 -0.692
104 T7 87 0.285
104 T7 88 1.750
104 T7 89 2.726
104 T7 90 2.726
104 T7 91 1.750
104 T7 92 0.773
104 T7 93 0.285
104 T7 94 0.285
104 T7 95 0.773
104 T7 96 1.261
104 T7 97 0.773
104 T7 98 0.285
104 T7 99 -1.668
104 T7 100 -3.133
104 T7 101 -4.598
104 T7 102 -3.621
104 T7 103 -2.645
104 T7 104 -1.668
104 T7 105 0.285
104 T7 106 1.750
104 T7 107 4.191
104 T7 108 5.656
104 T7 109 6.632
104 T7 110 6.144
104 T7 111 5.656
104 T7 112 5.656
104 T7 113 7.609
104 T7 114 10.050
104 T7 115 12.004
104 T7 116 12.004
104 T7 117 11.027
104 T7 118 9.074
104 T7 119 7.121
104 T7 120 6.144
104 T7 121 5.168
104 T7 122 4.679
104 T7 123 3.703
104 T7 124 3.215
104 T7 125 3.215
104 T7 126 3.703
104 T7 127 4.191
104 T7 128 3.703
104 T7 129 3.215
104 T7 130 2.726
104 T7 131 2.726
104 T7 132 3.215
104 T7 133 3.215
104 T7 134 3.215
104 T7 135 2.726
104 T7 136 1.750
104 T7 137 0.773
104 T7 138 -0.203
104 T7 139 -1.180
104 T7 140 -2.157
104 T7 141 -3.621
104 T7 142 -4.598
104 T7 143 -6.063
104 T7 144 -7.039
104 T7 145 -7.039
104 T7 146 -4.598
104 T7 147 -1.180
104 T7 148 2.726
104 T7 149 5.656
104 T7 150 8.097
104 T7 151 8.586
104 T7 152 8.097
104 T7 153 7.609
104 T7 154 6.632
104 T7 155 6.144
104 T7 156 6.144
104 T7 157 5.656
104 T7 158 5.168
104 T7 159 4.191
104 T7 160 3.215
104 T7 161 2.238
104 T7 162 1.750
104 T7 163 2.238
104 T7 164 4.191
104 T7 165 5.656
104 T7 166 5.656
104 T7 167 4.679
104 T7 168 3.215
104 T7 169 2.238
104 T7 170 2.726
104 T7 171 4.191
104 T7 172 4.191
104 T7 173 3.215
104 T7 174 1.261
104 T7 175 -0.203
104 T7 176 -1.180
104 T7 177 -0.692
104 T7 178 -0.203
104 T7 179 0.285
104 T7 180 1.261
104 T7 181 2.238
104 T7 182 3.703
104 T7 183 5.656
104 T7 184 6.632
104 T7 185 6.632
104 T7 186 6.144
104 T7 187 5.168
104 T7 188 3.703
104 T7 189 3.703
104 T7 190 4.679
104 T7 191 6.632
104 T7 192 9.074
104 T7 193 12.004
104 T7 194 13.957
104 T7 195 14.933
104 T7 196 15.422
104 T7 197 14.445
104 T7 198 13.468
104 T7 199 12.492
104 T7 200 12.004
104 T7 201 11.027
104 T7 202 10.050
104 T7 203 10.050
104 T7 204 10.050
104 T7 205 10.539
104 T7 206 11.027
104 T7 207 10.539
104 T7 208 9.562
104 T7 209 8.097
104 T7 210 7.121
104 T7 211 6.144
104 T7 212 5.656
104 T7 213 4.679
104 T7 214 4.679
104 T7 215 5.168
104 T7 216 7.121
104 T7 217 9.074
104 T7 218 10.539
104 T7 219 10.050
104 T7 220 8.586
104 T7 221 8.097
104 T7 222 8.586
104 T7 223 11.515
104 T7 224 14.445
104 T7 225 15.910
104 T7 226 15.910
104 T7 227 13.957
104 T7 228 12.492
104 T7 229 11.515
104 T7 230 11.027
104 T7 231 10.050
104 T7 232 9.562
104 T7 233 9.562
104 T7 234 11.027
104 T7 235 13.468
104 T7 236 15.910
104 T7 237 18.351
104 T7 238 19.328
104 T7 239 18.351
104 T7 240 16.398
104 T7 241 13.468
104 T7 242 11.027
104 T7 243 10.539
104 T7 244 11.027
104 T7 245 13.468
104 T7 246 15.910
104 T7 247 18.351
104 T7 248 19.328
104 T7 249 18.840
104 T7 250 17.863
104 T7 251 16.398
104 T7 252 15.422
104 T7 253 14.445
104 T7 254 13.468
104 T7 255 12.492
# CZ chan 15
104 CZ 0 -11.393
104 CZ 1 -9.928
104 CZ 2 -8.464
104 CZ 3 -7.487
104 CZ 4 -7.975
104 CZ 5 -7.487
104 CZ 6 -4.557
104 CZ 7 -0.163
104 CZ 8 4.232
104 CZ 9 7.161
104 CZ 10 6.185
104 CZ 11 3.255
104 CZ 12 0.814
104 CZ 13 0.326
104 CZ 14 3.255
104 CZ 15 6.673
104 CZ 16 8.138
104 CZ 17 7.650
104 CZ 18 6.673
104 CZ 19 6.185
104 CZ 20 8.138
104 CZ 21 10.091
104 CZ 22 11.556
104 CZ 23 10.091
104 CZ 24 7.161
104 CZ 25 5.208
104 CZ 26 5.208
104 CZ 27 7.161
104 CZ 28 10.091
104 CZ 29 10.579
104 CZ 30 7.650
104 CZ 31 3.255
104 CZ 32 -0.163
104 CZ 33 -1.628
104 CZ 34 -0.651
104 CZ 35 2.279
104 CZ 36 4.232
104 CZ 37 5.697
104 CZ 38 5.208
104 CZ 39 3.255
104 CZ 40 -0.163
104 CZ 41 -2.604
104 CZ 42 -3.092
104 CZ 43 -1.628
104 CZ 44 1.302
104 CZ 45 4.232
104 CZ 46 6.673
104 CZ 47 7.650
104 CZ 48 8.138
104 CZ 49 7.161
104 CZ 50 5.697
104 CZ 51 5.208
104 CZ 52 6.185
104 CZ 53 9.115
104 CZ 54 13.509
104 CZ 55 17.415
104 CZ 56 19.857
104 CZ 57 19.857
104 CZ 58 17.415
104 CZ 59 15.951
104 CZ 60 14.974
104 CZ 61 15.951
104 CZ 62 16.927
104 CZ 63 16.927
104 CZ 64 16.439
104 CZ 65 15.951
104 CZ 66 15.462
104 CZ 67 14.974
104 CZ 68 13.997
104 CZ 69 13.509
104 CZ 70 13.997
104 CZ 71 15.462
104 CZ 72 18.392
104 CZ 73 20.345
104 CZ 74 19.857
104 CZ 75 15.951
104 CZ 76 11.068
104 CZ 77 7.650
104 CZ 78 8.138
104 CZ 79 11.068
104 CZ 80 13.997
104 CZ 81 15.462
104 CZ 82 14.486
104 CZ 83 13.997
104 CZ 84 14.974
104 CZ 85 17.415
104 CZ 86 19.368
104 CZ 87 18.880
104 CZ 88 15.951
104 CZ 89 13.021
104 CZ 90 11.556
104 CZ 91 11.068
104 CZ 92 10.091
104 CZ 93 7.161
104 CZ 94 3.255
104 CZ 95 1.790
104 CZ 96 3.743
104 CZ 97 7.161
104 CZ 98 9.115
104 CZ 99 6.185
104 CZ 100 1.302
104 CZ 101 -3.092
104 CZ 102 -2.116
104 CZ 103 2.279
104 CZ 104 7.650
104 CZ 105 11.556
104 CZ 106 13.021
104 CZ 107 13.021
104 CZ 108 13.997
104 CZ 109 15.951
104 CZ 110 17.904
104 CZ 111 19.857
104 CZ 112 22.298
104 CZ 113 23.763
104 CZ 114 25.228
104 CZ 115 25.228
104 CZ 116 23.275
104 CZ 117 21.810
104 CZ 118 21.810
104 CZ 119 24.740
104 CZ 120 28.158
104 CZ 121 28.646
104 CZ 122 24.740
104 CZ 123 18.880
104 CZ 124 14.486
104 CZ 125 13.997
104 CZ 126 14.974
104 CZ 127 15.951
104 CZ 128 15.462
104 CZ 129 13.997
104 CZ 130 13.509
104 CZ 131 14.486
104 CZ 132 15.951
104 CZ 133 15.951
104 CZ 134 13.021
104 CZ 135 11.068
104 CZ 136 11.556
104 CZ 137 14.486
104 CZ 138 16.927
104 CZ 139 16.927
104 CZ 140 13.997
104 CZ 141 11.556
104 CZ 142 11.068
104 CZ 143 12.533
104 CZ 144 13.021
104 CZ 145 11.556
104 CZ 146 8.138
104 CZ 147 5.697
104 CZ 148 4.720
104 CZ 149 5.208
104 CZ 150 6.185
104 CZ 151 8.138
104 CZ 152 11.068
104 CZ 153 16.439
104 CZ 154 22.786
104 CZ 155 26.693
104 CZ 156 25.716
104 CZ 157 20.833
104 CZ 158 14.974
104 CZ 159 11.556
104 CZ 160 12.044
104 CZ 161 13.997
104 CZ 162 14.974
104 CZ 163 14.974
104 CZ 164 14.974
104 CZ 165 15.462
104 CZ 166 15.462
104 CZ 167 13.997
104 CZ 168 12.533
104 CZ 169 11.556
104 CZ 170 13.509
104 CZ 171 17.415
104 CZ 172 19.857
104 CZ 173 19.857
104 CZ 174 17.415
104 CZ 175 13.997
104 CZ 176 11.556
104 CZ 177 11.068
104 CZ 178 10.579
104 CZ 179 9.603
104 CZ 180 8.138
104 CZ 181 7.650
104 CZ 182 9.115
104 CZ 183 12.044
104 CZ 184 14.486
104 CZ 185 15.951
104 CZ 186 16.927
104 CZ 187 16.927
104 CZ 188 16.927
104 CZ 189 17.904
104 CZ 190 19.368
104 CZ 191 21.810
104 CZ 192 24.740
104 CZ 193 26.204
104 CZ 194 26.204
104 CZ 195 23.763
104 CZ 196 20.833
104 CZ 197 18.392
104 CZ 198 17.415
104 CZ 199 17.904
104 CZ 200 18.880
104 CZ 201 19.857
104 CZ 202 21.322
104 CZ 203 23.275
104 CZ 204 25.716
104 CZ 205 28.158
104 CZ 206 27.669
104 CZ 207 26.204
104 CZ 208 25.228
104 CZ 209 24.740
104 CZ 210 26.204
104 CZ 211 26.693
104 CZ 212 26.693
104 CZ 213 26.204
104 CZ 214 26.693
104 CZ 215 28.646
104 CZ 216 30.599
104 CZ 217 31.087
104 CZ 218 28.646
104 CZ 219 24.740
104 CZ 220 21.810
104 CZ 221 20.833
104 CZ 222 22.786
104 CZ 223 25.716
104 CZ 224 29.622
104 CZ 225 31.576
104 CZ 226 31.576
104 CZ 227 30.599
104 CZ 228 28.646
104 CZ 229 25.716
104 CZ 230 24.251
104 CZ 231 23.275
104 CZ 232 24.251
104 CZ 233 24.740
104 CZ 234 25.228
104 CZ 235 27.181
104 CZ 236 32.064
104 CZ 237 39.876
104 CZ 238 47.689
104 CZ 239 51.107
104 CZ 240 47.201
104 CZ 241 36.458
104 CZ 242 25.716
104 CZ 243 19.857
104 CZ 244 20.345
104 CZ 245 25.228
104 CZ 246 29.134
104 CZ 247 29.134
104 CZ 248 27.181
104 CZ 249 24.740
104 CZ 250 24.251
104 CZ 251 23.763
104 CZ 252 22.298
104 CZ 253 18.880
104 CZ 254 16.439
104 CZ 255 16.927
# C3 chan 16
104 C3 0 -0.203
104 C3 1 0.773
104 C3 2 0.773
104 C3 3 0.285
104 C3 4 2.726
104 C3 5 1.261
104 C3 6 2.238
104 C3 7 1.261
104 C3 8 1.261
104 C3 9 0.773
104 C3 10 -0.692
104 C3 11 -0.692
104 C3 12 1.261
104 C3 13 1.750
104 C3 14 3.703
104 C3 15 3.215
104 C3 16 3.215
104 C3 17 4.679
104 C3 18 4.679
104 C3 19 3.215
104 C3 20 1.261
104 C3 21 4.191
104 C3 22 2.726
104 C3 23 1.261
104 C3 24 0.285
104 C3 25 -2.645
104 C3 26 -2.645
104 C3 27 -3.133
104 C3 28 -5.086
104 C3 29 -5.086
104 C3 30 -2.645
104 C3 31 -3.133
104 C3 32 -3.133
104 C3 33 -3.621
104 C3 34 -4.110
104 C3 35 -3.621
104 C3 36 -4.110
104 C3 37 -4.110
104 C3 38 -4.598
104 C3 39 -3.621
104 C3 40 -3.133
104 C3 41 -3.621
104 C3 42 -3.621
104 C3 43 -5.086
104 C3 44 -5.575
104 C3 45 -6.551
104 C3 46 -4.110
104 C3 47 -4.110
104 C3 48 -3.621
104 C3 49 -1.668
104 C3 50 -0.692
104 C3 51 1.261
104 C3 52 1.261
104 C3 53 -0.203
104 C3 54 -2.157
104 C3 55 -2.645
104 C3 56 -5.575
104 C3 57 -5.575
104 C3 58 -5.086
104 C3 59 -4.598
104 C3 60 -0.692
104 C3 61 -0.203
104 C3 62 0.773
104 C3 63 3.703
104 C3 64 3.703
104 C3 65 2.238
104 C3 66 -0.203
104 C3 67 0.773
104 C3 68 -0.692
104 C3 69 -0.203
104 C3 70 -2.157
104 C3 71 -3.621
104 C3 72 -2.645
104 C3 73 -3.621
104 C3 74 -1.668
104 C3 75 -2.157
104 C3 76 -0.203
104 C3 77 -0.692
104 C3 78 -2.157
104 C3 79 -4.110
104 C3 80 -5.086
104 C3 81 -3.621
104 C3 82 -5.086
104 C3 83 -3.133
104 C3 84 -2.645
104 C3 85 1.261
104 C3 86 3.215
104 C3 87 0.773
104 C3 88 -1.180
104 C3 89 -0.692
104 C3 90 1.750
104 C3 91 -1.180
104 C3 92 -2.157
104 C3 93 -4.110
104 C3 94 -3.133
104 C3 95 -3.621
104 C3 96 -5.086
104 C3 97 -5.086
104 C3 98 -6.063
104 C3 99 -5.086
104 C3 100 -5.575
104 C3 101 -3.621
104 C3 102 -2.157
104 C3 103 -2.157
104 C3 104 -1.180
104 C3 105 -2.645
104 C3 106 -1.180
104 C3 107 0.285
104 C3 108 -0.203
104 C3 109 0.773
104 C3 110 1.750
104 C3 111 2.238
104 C3 112 4.191
104 C3 113 4.679
104 C3 114 2.238
104 C3 115 0.773
104 C3 116 2.238
104 C3 117 -1.668
104 C3 118 -0.692
104 C3 119 0.285
104 C3 120 -0.203
104 C3 121 -0.692
104 C3 122 -1.668
104 C3 123 -0.692
104 C3 124 -0.692
104 C3 125 -0.203
104 C3 126 -2.157
104 C3 127 -1.180
104 C3 128 -1.668
104 C3 129 -0.692
104 C3 130 -1.668
104 C3 131 -1.180
104 C3 132 0.285
104 C3 133 -1.180
104 C3 134 -1.180
104 C3 135 -3.133
104 C3 136 -4.598
104 C3 137 -6.063
104 C3 138 -5.575
104 C3 139 -6.551
104 C3 140 -6.063
104 C3 141 -2.157
104 C3 142 -2.157
104 C3 143 -0.692
104 C3 144 -0.203
104 C3 145 0.285
104 C3 146 1.261
104 C3 147 1.261
104 C3 148 -0.692
104 C3 149 -0.692
104 C3 150 2.238
104 C3 151 1.750
104 C3 152 0.773
104 C3 153 0.773
104 C3 154 0.773
104 C3 155 0.285
104 C3 156 -0.692
104 C3 157 -1.180
104 C3 158 -0.692
104 C3 159 -0.203
104 C3 160 -1.180
104 C3 161 -1.180
104 C3 162 -0.692
104 C3 163 -1.180
104 C3 164 -1.180
104 C3 165 -2.645
104 C3 166 -0.203
104 C3 167 -0.692
104 C3 168 -0.203
104 C3 169 -2.645
104 C3 170 -3.133
104 C3 171 -2.645
104 C3 172 -1.180
104 C3 173 -0.692
104 C3 174 0.285
104 C3 175 -0.203
104 C3 176 1.261
104 C3 177 1.750
104 C3 178 2.726
104 C3 179 0.285
104 C3 180 -0.692
104 C3 181 -2.157
104 C3 182 -1.668
104 C3 183 -3.133
104 C3 184 -1.668
104 C3 185 -1.180
104 C3 186 -0.692
104 C3 187 1.261
104 C3 188 2.238
104 C3 189 2.238
104 C3 190 1.750
104 C3 191 3.215
104 C3 192 4.191
104 C3 193 3.703
104 C3 194 2.238
104 C3 195 2.726
104 C3 196 2.238
104 C3 197 1.261
104 C3 198 2.726
104 C3 199 2.726
104 C3 200 3.215
104 C3 201 2.238
104 C3 202 -0.203
104 C3 203 -1.668
104 C3 204 -2.645
104 C3 205 -3.133
104 C3 206 -3.621
104 C3 207 -4.598
104 C3 208 -2.645
104 C3 209 -3.133
104 C3 210 -1.668
104 C3 211 -0.692
104 C3 212 1.261
104 C3 213 0.773
104 C3 214 -0.203
104 C3 215 -0.203
104 C3 216 -1.180
104 C3 217 -0.203
104 C3 218 1.750
104 C3 219 1.750
104 C3 220 2.726
104 C3 221 2.726
104 C3 222 0.773
104 C3 223 0.773
104 C3 224 -0.203
104 C3 225 -0.203
104 C3 226 0.773
104 C3 227 2.238
104 C3 228 0.285
104 C3 229 1.261
104 C3 230 2.238
104 C3 231 4.191
104 C3 232 5.168
104 C3 233 3.703
104 C3 234 5.168
104 C3 235 4.191
104 C3 236 3.703
104 C3 237 0.285
104 C3 238 1.750
104 C3 239 2.238
104 C3 240 0.773
104 C3 241 3.215
104 C3 242 5.656
104 C3 243 6.632
104 C3 244 5.656
104 C3 245 5.168
104 C3 246 3.215
104 C3 247 3.703
104 C3 248 1.750
104 C3 249 1.261
104 C3 250 -0.203
104 C3 251 -1.668
104 C3 252 -0.203
104 C3 253 -0.203
104 C3 254 -2.645
104 C3 255 -0.692
# C4 chan 17
104 C4 0 3.418
104 C4 1 0.977
104 C4 2 1.953
104 C4 3 2.441
104 C4 4 1.465
104 C4 5 2.441
104 C4 6 1.953
104 C4 7 3.418
104 C4 8 2.930
104 C4 9 4.395
104 C4 10 3.906
104 C4 11 2.441
104 C4 12 2.441
104 C4 13 0.488
104 C4 14 0.488
104 C4 15 -0.977
104 C4 16 -2.441
104 C4 17 -4.395
104 C4 18 -2.930
104 C4 19 -2.441
104 C4 20 -3.906
104 C4 21 -2.441
104 C4 22 -1.465
104 C4 23 0.488
104 C4 24 0.000
104 C4 25 0.977
104 C4 26 -0.488
104 C4 27 -0.488
104 C4 28 0.488
104 C4 29 1.465
104 C4 30 1.953
104 C4 31 1.465
104 C4 32 2.441
104 C4 33 2.441
104 C4 34 3.418
104 C4 35 1.465
104 C4 36 0.977
104 C4 37 0.488
104 C4 38 0.000
104 C4 39 0.488
104 C4 40 0.000
104 C4 41 0.488
104 C4 42 2.441
104 C4 43 1.465
104 C4 44 3.418
104 C4 45 2.441
104 C4 46 3.906
104 C4 47 4.395
104 C4 48 3.418
104 C4 49 2.441
104 C4 50 1.953
104 C4 51 2.930
104 C4 52 1.465
104 C4 53 1.465
104 C4 54 1.953
104 C4 55 2.441
104 C4 56 3.418
104 C4 57 2.930
104 C4 58 0.977
104 C4 59 0.488
104 C4 60 -0.488
104 C4 61 -1.465
104 C4 62 -2.930
104 C4 63 -1.465
104 C4 64 -2.930
104 C4 65 -2.930
104 C4 66 -3.906
104 C4 67 -3.418
104 C4 68 -1.953
104 C4 69 -0.488
104 C4 70 0.488
104 C4 71 0.488
104 C4 72 3.418
104 C4 73 4.395
104 C4 74 2.441
104 C4 75 2.930
104 C4 76 4.883
104 C4 77 5.371
104 C4 78 5.371
104 C4 79 4.395
104 C4 80 3.906
104 C4 81 3.906
104 C4 82 3.906
104 C4 83 2.441
104 C4 84 0.488
104 C4 85 -0.488
104 C4 86 -2.441
104 C4 87 -3.418
104 C4 88 -4.395
104 C4 89 -4.883
104 C4 90 -1.953
104 C4 91 -2.930
104 C4 92 -3.906
104 C4 93 -1.465
104 C4 94 0.977
104 C4 95 1.953
104 C4 96 3.418
104 C4 97 3.418
104 C4 98 4.395
104 C4 99 6.348
104 C4 100 6.348
104 C4 101 5.371
104 C4 102 5.859
104 C4 103 4.883
104 C4 104 4.395
104 C4 105 3.418
104 C4 106 2.930
104 C4 107 1.953
104 C4 108 1.465
104 C4 109 0.000
104 C4 110 -0.977
104 C4 111 -0.488
104 C4 112 -2.930
104 C4 113 -1.465
104 C4 114 -0.488
104 C4 115 -1.465
104 C4 116 -0.488
104 C4 117 -1.465
104 C4 118 -2.441
104 C4 119 -2.441
104 C4 120 -1.465
104 C4 121 -1.465
104 C4 122 0.488
104 C4 123 2.930
104 C4 124 3.906
104 C4 125 3.418
104 C4 126 1.953
104 C4 127 2.441
104 C4 128 0.488
104 C4 129 -0.977
104 C4 130 -1.465
104 C4 131 -1.953
104 C4 132 -1.465
104 C4 133 -1.465
104 C4 134 -1.465
104 C4 135 -1.465
104 C4 136 -1.465
104 C4 137 -1.465
104 C4 138 -2.441
104 C4 139 -3.418
104 C4 140 -4.395
104 C4 141 -2.930
104 C4 142 -3.418
104 C4 143 -2.441
104 C4 144 -1.953
104 C4 145 -1.953
104 C4 146 -1.465
104 C4 147 1.465
104 C4 148 2.930
104 C4 149 0.977
104 C4 150 1.953
104 C4 151 0.488
104 C4 152 -0.488
104 C4 153 0.488
104 C4 154 0.488
104 C4 155 0.000
104 C4 156 0.488
104 C4 157 3.906
104 C4 158 6.348
104 C4 159 4.883
104 C4 160 4.395
104 C4 161 2.930
104 C4 162 0.977
104 C4 163 0.000
104 C4 164 -2.441
104 C4 165 -3.418
104 C4 166 -3.418
104 C4 167 -3.906
104 C4 168 -3.906
104 C4 169 -3.906
104 C4 170 -3.418
104 C4 171 -3.418
104 C4 172 -4.883
104 C4 173 -5.371
104 C4 174 -5.859
104 C4 175 -5.371
104 C4 176 -4.395
104 C4 177 -1.953
104 C4 178 0.000
104 C4 179 0.977
104 C4 180 2.441
104 C4 181 0.977
104 C4 182 0.488
104 C4 183 0.977
104 C4 184 1.953
104 C4 185 0.000
104 C4 186 0.977
104 C4 187 1.953
104 C4 188 1.953
104 C4 189 1.465
104 C4 190 0.000
104 C4 191 -0.488
104 C4 192 -1.953
104 C4 193 -3.906
104 C4 194 -4.395
104 C4 195 -4.883
104 C4 196 -4.395
104 C4 197 -5.371
104 C4 198 -6.836
104 C4 199 -5.859
104 C4 200 -2.930
104 C4 201 -4.395
104 C4 202 -3.906
104 C4 203 -3.418
104 C4 204 -1.465
104 C4 205 -0.488
104 C4 206 -1.953
104 C4 207 0.488
104 C4 208 2.441
104 C4 209 3.418
104 C4 210 3.418
104 C4 211 3.418
104 C4 212 4.883
104 C4 213 3.906
104 C4 214 4.395
104 C4 215 3.906
104 C4 216 2.930
104 C4 217 2.930
104 C4 218 1.953
104 C4 219 0.000
104 C4 220 0.000
104 C4 221 0.000
104 C4 222 -0.488
104 C4 223 0.977
104 C4 224 0.488
104 C4 225 0.977
104 C4 226 -0.977
104 C4 227 0.977
104 C4 228 -1.465
104 C4 229 -2.441
104 C4 230 -3.418
104 C4 231 -4.395
104 C4 232 -4.883
104 C4 233 -3.906
104 C4 234 -3.418
104 C4 235 -2.930
104 C4 236 -0.977
104 C4 237 -0.977
104 C4 238 1.465
104 C4 239 0.977
104 C4 240 1.465
104 C4 241 0.488
104 C4 242 0.000
104 C4 243 0.000
104 C4 244 -0.977
104 C4 245 -1.465
104 C4 246 -0.488
104 C4 247 0.000
104 C4 248 1.465
104 C4 249 1.465
104 C4 250 1.465
104 C4 251 3.906
104 C4 252 3.418
104 C4 253 0.977
104 C4 254 0.000
104 C4 255 -0.488
# CP5 chan 18
104 CP5 0 -3.306
104 CP5 1 -0.376
104 CP5 2 0.600
104 CP5 3 0.600
104 CP5 4 1.577
104 CP5 5 0.600
104 CP5 6 3.042
104 CP5 7 1.088
104 CP5 8 -0.376
104 CP5 9 -0.376
104 CP5 10 0.112
104 CP5 11 0.112
104 CP5 12 0.112
104 CP5 13 1.088
104 CP5 14 4.506
104 CP5 15 1.577
104 CP5 16 2.065
104 CP5 17 3.042
104 CP5 18 4.018
104 CP5 19 1.577
104 CP5 20 1.088
104 CP5 21 2.553
104 CP5 22 1.577
104 CP5 23 1.088
104 CP5 24 0.600
104 CP5 25 -4.771
104 CP5 26 -5.747
104 CP5 27 -5.259
104 CP5 28 -7.212
104 CP5 29 -9.654
104 CP5 30 -9.165
104 CP5 31 -7.212
104 CP5 32 -6.236
104 CP5 33 -7.212
104 CP5 34 -7.701
104 CP5 35 -6.724
104 CP5 36 -7.701
104 CP5 37 -8.189
104 CP5 38 -11.119
104 CP5 39 -10.630
104 CP5 40 -9.165
104 CP5 41 -10.142
104 CP5 42 -12.095
104 CP5 43 -10.142
104 CP5 44 -7.701
104 CP5 45 -8.189
104 CP5 46 -8.677
104 CP5 47 -6.236
104 CP5 48 -5.747
104 CP5 49 -2.330
104 CP5 50 -2.818
104 CP5 51 0.112
104 CP5 52 1.088
104 CP5 53 0.600
104 CP5 54 -0.376
104 CP5 55 -3.306
104 CP5 56 -4.771
104 CP5 57 -3.306
104 CP5 58 -2.818
104 CP5 59 -5.259
104 CP5 60 -2.330
104 CP5 61 0.600
104 CP5 62 2.065
104 CP5 63 3.042
104 CP5 64 3.530
104 CP5 65 3.530
104 CP5 66 2.065
104 CP5 67 2.065
104 CP5 68 -0.865
104 CP5 69 -1.353
104 CP5 70 -1.841
104 CP5 71 -7.212
104 CP5 72 -8.677
104 CP5 73 -9.165
104 CP5 74 -3.794
104 CP5 75 -4.283
104 CP5 76 -1.841
104 CP5 77 -1.841
104 CP5 78 -0.865
104 CP5 79 -2.330
104 CP5 80 -4.771
104 CP5 81 -3.306
104 CP5 82 -2.330
104 CP5 83 -0.865
104 CP5 84 -2.330
104 CP5 85 -0.865
104 CP5 86 1.088
104 CP5 87 -0.865
104 CP5 88 -2.818
104 CP5 89 -4.771
104 CP5 90 -3.794
104 CP5 91 -5.747
104 CP5 92 -7.701
104 CP5 93 -11.119
104 CP5 94 -10.630
104 CP5 95 -8.677
104 CP5 96 -11.607
104 CP5 97 -10.630
104 CP5 98 -10.630
104 CP5 99 -8.677
104 CP5 100 -7.701
104 CP5 101 -4.283
104 CP5 102 -5.259
104 CP5 103 -5.747
104 CP5 104 -4.283
104 CP5 105 -5.747
104 CP5 106 -5.747
104 CP5 107 -3.306
104 CP5 108 -1.353
104 CP5 109 -1.841
104 CP5 110 -1.841
104 CP5 111 -1.353
104 CP5 112 1.088
104 CP5 113 1.577
104 CP5 114 -1.841
104 CP5 115 -2.818
104 CP5 116 -2.330
104 CP5 117 -5.259
104 CP5 118 -5.259
104 CP5 119 -8.677
104 CP5 120 -7.212
104 CP5 121 -6.724
104 CP5 122 -5.259
104 CP5 123 -5.747
104 CP5 124 -5.259
104 CP5 125 -2.818
104 CP5 126 -3.794
104 CP5 127 -5.747
104 CP5 128 -5.259
104 CP5 129 -4.283
104 CP5 130 -5.747
104 CP5 131 -6.724
104 CP5 132 -5.747
104 CP5 133 -6.724
104 CP5 134 -6.236
104 CP5 135 -10.142
104 CP5 136 -13.560
104 CP5 137 -13.560
104 CP5 138 -11.607
104 CP5 139 -12.583
104 CP5 140 -12.583
104 CP5 141 -9.165
104 CP5 142 -5.259
104 CP5 143 -4.771
104 CP5 144 -3.306
104 CP5 145 -1.841
104 CP5 146 -1.841
104 CP5 147 0.112
104 CP5 148 -1.841
104 CP5 149 -4.283
104 CP5 150 -2.818
104 CP5 151 -1.353
104 CP5 152 -3.306
104 CP5 153 -5.747
104 CP5 154 -6.236
104 CP5 155 -3.306
104 CP5 156 -4.283
104 CP5 157 -4.771
104 CP5 158 -3.794
104 CP5 159 -1.841
104 CP5 160 -3.306
104 CP5 161 -5.259
104 CP5 162 -5.259
104 CP5 163 -5.747
104 CP5 164 -3.794
104 CP5 165 -8.189
104 CP5 166 -7.701
104 CP5 167 -6.236
104 CP5 168 -3.794
104 CP5 169 -6.236
104 CP5 170 -9.165
104 CP5 171 -8.189
104 CP5 172 -6.724
104 CP5 173 -8.677
104 CP5 174 -9.654
104 CP5 175 -9.165
104 CP5 176 -3.794
104 CP5 177 -3.306
104 CP5 178 -0.865
104 CP5 179 -1.353
104 CP5 180 -0.865
104 CP5 181 -2.818
104 CP5 182 -2.330
104 CP5 183 -7.212
104 CP5 184 -5.259
104 CP5 185 -3.306
104 CP5 186 -1.841
104 CP5 187 0.112
104 CP5 188 1.088
104 CP5 189 3.042
104 CP5 190 4.018
104 CP5 191 4.995
104 CP5 192 6.460
104 CP5 193 7.436
104 CP5 194 5.483
104 CP5 195 4.995
104 CP5 196 2.065
104 CP5 197 0.112
104 CP5 198 3.042
104 CP5 199 2.065
104 CP5 200 -0.376
104 CP5 201 -0.376
104 CP5 202 -0.865
104 CP5 203 -1.353
104 CP5 204 -3.794
104 CP5 205 -5.259
104 CP5 206 -6.236
104 CP5 207 -5.259
104 CP5 208 -6.236
104 CP5 209 -3.794
104 CP5 210 -1.353
104 CP5 211 0.600
104 CP5 212 2.065
104 CP5 213 0.600
104 CP5 214 0.112
104 CP5 215 1.577
104 CP5 216 2.065
104 CP5 217 1.577
104 CP5 218 4.018
104 CP5 219 5.483
104 CP5 220 5.483
104 CP5 221 3.042
104 CP5 222 1.088
104 CP5 223 -0.865
104 CP5 224 -1.841
104 CP5 225 -3.306
104 CP5 226 -1.353
104 CP5 227 1.088
104 CP5 228 1.088
104 CP5 229 4.018
104 CP5 230 3.042
104 CP5 231 4.018
104 CP5 232 6.948
104 CP5 233 5.483
104 CP5 234 4.018
104 CP5 235 2.065
104 CP5 236 3.530
104 CP5 237 0.600
104 CP5 238 0.600
104 CP5 239 2.553
104 CP5 240 3.042
104 CP5 241 7.436
104 CP5 242 9.878
104 CP5 243 10.366
104 CP5 244 9.389
104 CP5 245 9.389
104 CP5 246 6.460
104 CP5 247 4.995
104 CP5 248 2.065
104 CP5 249 4.995
104 CP5 250 1.577
104 CP5 251 -1.353
104 CP5 252 0.600
104 CP5 253 4.018
104 CP5 254 1.577
104 CP5 255 1.088
# CP6 chan 19
104 CP6 0 2.523
104 CP6 1 2.035
104 CP6 2 4.476
104 CP6 3 3.499
104 CP6 4 1.546
104 CP6 5 3.011
104 CP6 6 4.964
104 CP6 7 5.452
104 CP6 8 2.035
104 CP6 9 3.988
104 CP6 10 5.941
104 CP6 11 4.476
104 CP6 12 2.035
104 CP6 13 0.081
104 CP6 14 2.035
104 CP6 15 -0.407
104 CP6 16 -2.360
104 CP6 17 -3.337
104 CP6 18 -1.383
104 CP6 19 -1.383
104 CP6 20 0.081
104 CP6 21 -0.895
104 CP6 22 2.523
104 CP6 23 5.941
104 CP6 24 5.452
104 CP6 25 3.988
104 CP6 26 3.011
104 CP6 27 3.988
104 CP6 28 6.429
104 CP6 29 4.964
104 CP6 30 4.964
104 CP6 31 4.964
104 CP6 32 4.476
104 CP6 33 3.011
104 CP6 34 2.523
104 CP6 35 0.081
104 CP6 36 -0.407
104 CP6 37 -1.383
104 CP6 38 -4.313
104 CP6 39 -5.778
104 CP6 40 -2.848
104 CP6 41 -2.360
104 CP6 42 -4.801
104 CP6 43 -2.360
104 CP6 44 2.523
104 CP6 45 3.011
104 CP6 46 2.523
104 CP6 47 5.452
104 CP6 48 6.429
104 CP6 49 7.894
104 CP6 50 7.406
104 CP6 51 8.382
104 CP6 52 5.941
104 CP6 53 8.382
104 CP6 54 6.917
104 CP6 55 5.452
104 CP6 56 8.382
104 CP6 57 8.870
104 CP6 58 8.382
104 CP6 59 5.941
104 CP6 60 3.988
104 CP6 61 4.476
104 CP6 62 2.523
104 CP6 63 2.523
104 CP6 64 0.570
104 CP6 65 -0.407
104 CP6 66 -2.360
104 CP6 67 -1.383
104 CP6 68 0.570
104 CP6 69 -1.383
104 CP6 70 2.523
104 CP6 71 1.546
104 CP6 72 3.499
104 CP6 73 4.476
104 CP6 74 6.429
104 CP6 75 7.894
104 CP6 76 7.406
104 CP6 77 9.359
104 CP6 78 10.824
104 CP6 79 10.335
104 CP6 80 9.359
104 CP6 81 10.335
104 CP6 82 12.288
104 CP6 83 11.312
104 CP6 84 8.382
104 CP6 85 4.476
104 CP6 86 2.035
104 CP6 87 0.570
104 CP6 88 -0.895
104 CP6 89 -5.778
104 CP6 90 -2.360
104 CP6 91 -3.337
104 CP6 92 -5.290
104 CP6 93 -4.801
104 CP6 94 -2.848
104 CP6 95 0.570
104 CP6 96 0.081
104 CP6 97 2.035
104 CP6 98 3.499
104 CP6 99 6.917
104 CP6 100 7.894
104 CP6 101 5.941
104 CP6 102 4.964
104 CP6 103 5.452
104 CP6 104 6.429
104 CP6 105 6.917
104 CP6 106 4.964
104 CP6 107 4.476
104 CP6 108 5.452
104 CP6 109 3.988
104 CP6 110 1.546
104 CP6 111 2.035
104 CP6 112 0.081
104 CP6 113 2.523
104 CP6 114 2.523
104 CP6 115 -0.895
104 CP6 116 -0.895
104 CP6 117 -0.407
104 CP6 118 -2.360
104 CP6 119 -8.219
104 CP6 120 -4.313
104 CP6 121 -1.383
104 CP6 122 1.058
104 CP6 123 1.546
104 CP6 124 3.499
104 CP6 125 6.429
104 CP6 126 5.452
104 CP6 127 3.011
104 CP6 128 1.546
104 CP6 129 -0.407
104 CP6 130 -1.383
104 CP6 131 -2.848
104 CP6 132 -2.848
104 CP6 133 -3.825
104 CP6 134 -2.848
104 CP6 135 -4.313
104 CP6 136 -4.801
104 CP6 137 -4.801
104 CP6 138 -3.825
104 CP6 139 -4.801
104 CP6 140 -8.219
104 CP6 141 -5.778
104 CP6 142 -3.825
104 CP6 143 -0.895
104 CP6 144 -3.337
104 CP6 145 -3.337
104 CP6 146 -3.337
104 CP6 147 2.523
104 CP6 148 2.523
104 CP6 149 -0.895
104 CP6 150 -0.895
104 CP6 151 0.570
104 CP6 152 0.570
104 CP6 153 0.570
104 CP6 154 0.570
104 CP6 155 1.546
104 CP6 156 2.035
104 CP6 157 4.476
104 CP6 158 6.429
104 CP6 159 5.452
104 CP6 160 3.499
104 CP6 161 1.058
104 CP6 162 -1.383
104 CP6 163 -0.895
104 CP6 164 -2.848
104 CP6 165 -3.825
104 CP6 166 -6.266
104 CP6 167 -5.290
104 CP6 168 -4.801
104 CP6 169 -4.801
104 CP6 170 -8.219
104 CP6 171 -7.243
104 CP6 172 -7.243
104 CP6 173 -9.684
104 CP6 174 -11.637
104 CP6 175 -10.661
104 CP6 176 -6.266
104 CP6 177 -2.848
104 CP6 178 -0.407
104 CP6 179 0.081
104 CP6 180 1.546
104 CP6 181 1.546
104 CP6 182 2.035
104 CP6 183 -0.895
104 CP6 184 0.570
104 CP6 185 1.058
104 CP6 186 2.035
104 CP6 187 1.546
104 CP6 188 2.035
104 CP6 189 3.988
104 CP6 190 4.964
104 CP6 191 2.523
104 CP6 192 1.058
104 CP6 193 -0.407
104 CP6 194 1.546
104 CP6 195 -0.407
104 CP6 196 -3.337
104 CP6 197 -4.313
104 CP6 198 -4.801
104 CP6 199 -5.290
104 CP6 200 -6.266
104 CP6 201 -4.801
104 CP6 202 -2.360
104 CP6 203 -1.383
104 CP6 204 -2.848
104 CP6 205 -2.848
104 CP6 206 -1.872
104 CP6 207 1.546
104 CP6 208 2.523
104 CP6 209 3.988
104 CP6 210 5.941
104 CP6 211 6.429
104 CP6 212 9.359
104 CP6 213 6.429
104 CP6 214 7.406
104 CP6 215 8.870
104 CP6 216 7.406
104 CP6 217 5.452
104 CP6 218 5.941
104 CP6 219 5.452
104 CP6 220 5.452
104 CP6 221 1.546
104 CP6 222 1.058
104 CP6 223 1.546
104 CP6 224 2.035
104 CP6 225 2.035
104 CP6 226 1.546
104 CP6 227 2.523
104 CP6 228 2.523
104 CP6 229 2.523
104 CP6 230 1.058
104 CP6 231 -1.872
104 CP6 232 1.546
104 CP6 233 0.081
104 CP6 234 -2.848
104 CP6 235 -4.313
104 CP6 236 -0.895
104 CP6 237 -2.360
104 CP6 238 1.058
104 CP6 239 0.570
104 CP6 240 3.499
104 CP6 241 4.476
104 CP6 242 4.964
104 CP6 243 4.964
104 CP6 244 4.476
104 CP6 245 3.988
104 CP6 246 5.941
104 CP6 247 1.058
104 CP6 248 1.058
104 CP6 249 1.546
104 CP6 250 0.081
104 CP6 251 2.523
104 CP6 252 3.499
104 CP6 253 3.011
104 CP6 254 2.523
104 CP6 255 2.523
# CP1 chan 20
104 CP1 0 -3.510
104 CP1 1 -2.533
104 CP1 2 -2.045
104 CP1 3 -1.556
104 CP1 4 -1.068
104 CP1 5 -1.556
104 CP1 6 -1.556
104 CP1 7 -1.556
104 CP1 8 -0.580
104 CP1 9 -0.580
104 CP1 10 -0.092
104 CP1 11 -0.092
104 CP1 12 -0.092
104 CP1 13 -0.580
104 CP1 14 -1.068
104 CP1 15 -1.556
104 CP1 16 -2.045
104 CP1 17 -2.533
104 CP1 18 -2.045
104 CP1 19 -1.556
104 CP1 20 -1.068
104 CP1 21 -1.068
104 CP1 22 -1.068
104 CP1 23 -1.068
104 CP1 24 -1.068
104 CP1 25 -1.068
104 CP1 26 -0.580
104 CP1 27 -0.580
104 CP1 28 -0.092
104 CP1 29 -0.580
104 CP1 30 -1.068
104 CP1 31 -2.045
104 CP1 32 -3.021
104 CP1 33 -3.998
104 CP1 34 -4.486
104 CP1 35 -4.486
104 CP1 36 -4.486
104 CP1 37 -4.974
104 CP1 38 -4.486
104 CP1 39 -4.486
104 CP1 40 -4.486
104 CP1 41 -4.486
104 CP1 42 -4.974
104 CP1 43 -4.974
104 CP1 44 -5.463
104 CP1 45 -5.463
104 CP1 46 -5.463
104 CP1 47 -5.463
104 CP1 48 -4.974
104 CP1 49 -4.486
104 CP1 50 -3.998
104 CP1 51 -3.998
104 CP1 52 -3.998
104 CP1 53 -3.510
104 CP1 54 -3.021
104 CP1 55 -2.533
104 CP1 56 -2.045
104 CP1 57 -1.556
104 CP1 58 -1.556
104 CP1 59 -2.533
104 CP1 60 -3.998
104 CP1 61 -4.486
104 CP1 62 -4.974
104 CP1 63 -4.486
104 CP1 64 -3.021
104 CP1 65 -1.068
104 CP1 66 0.397
104 CP1 67 1.862
104 CP1 68 2.350
104 CP1 69 2.350
104 CP1 70 1.862
104 CP1 71 1.373
104 CP1 72 0.397
104 CP1 73 -0.092
104 CP1 74 -0.092
104 CP1 75 -0.580
104 CP1 76 -1.068
104 CP1 77 -2.045
104 CP1 78 -3.510
104 CP1 79 -3.998
104 CP1 80 -3.510
104 CP1 81 -2.533
104 CP1 82 -2.045
104 CP1 83 -2.533
104 CP1 84 -3.021
104 CP1 85 -3.510
104 CP1 86 -3.021
104 CP1 87 -2.045
104 CP1 88 -0.580
104 CP1 89 0.397
104 CP1 90 0.885
104 CP1 91 0.397
104 CP1 92 -0.580
104 CP1 93 -1.556
104 CP1 94 -2.533
104 CP1 95 -3.510
104 CP1 96 -4.486
104 CP1 97 -4.974
104 CP1 98 -5.463
104 CP1 99 -5.951
104 CP1 100 -5.951
104 CP1 101 -5.951
104 CP1 102 -5.951
104 CP1 103 -5.951
104 CP1 104 -5.951
104 CP1 105 -5.951
104 CP1 106 -5.951
104 CP1 107 -5.951
104 CP1 108 -5.951
104 CP1 109 -5.951
104 CP1 110 -5.951
104 CP1 111 -4.974
104 CP1 112 -4.486
104 CP1 113 -3.510
104 CP1 114 -2.533
104 CP1 115 -2.045
104 CP1 116 -2.045
104 CP1 117 -2.045
104 CP1 118 -2.045
104 CP1 119 -2.533
104 CP1 120 -3.998
104 CP1 121 -4.974
104 CP1 122 -5.951
104 CP1 123 -6.927
104 CP1 124 -6.927
104 CP1 125 -6.439
104 CP1 126 -5.463
104 CP1 127 -4.974
104 CP1 128 -4.486
104 CP1 129 -3.998
104 CP1 130 -3.510
104 CP1 131 -3.510
104 CP1 132 -3.510
104 CP1 133 -3.998
104 CP1 134 -4.974
104 CP1 135 -5.463
104 CP1 136 -5.463
104 CP1 137 -4.974
104 CP1 138 -5.463
104 CP1 139 -5.951
104 CP1 140 -7.416
104 CP1 141 -8.392
104 CP1 142 -8.881
104 CP1 143 -8.881
104 CP1 144 -7.904
104 CP1 145 -6.927
104 CP1 146 -5.951
104 CP1 147 -5.463
104 CP1 148 -4.974
104 CP1 149 -4.486
104 CP1 150 -3.510
104 CP1 151 -3.510
104 CP1 152 -3.510
104 CP1 153 -3.510
104 CP1 154 -3.998
104 CP1 155 -4.486
104 CP1 156 -4.486
104 CP1 157 -4.486
104 CP1 158 -3.998
104 CP1 159 -3.998
104 CP1 160 -3.998
104 CP1 161 -3.998
104 CP1 162 -4.486
104 CP1 163 -4.486
104 CP1 164 -4.974
104 CP1 165 -5.951
104 CP1 166 -6.439
104 CP1 167 -7.416
104 CP1 168 -7.416
104 CP1 169 -7.416
104 CP1 170 -6.927
104 CP1 171 -6.439
104 CP1 172 -5.951
104 CP1 173 -5.951
104 CP1 174 -5.951
104 CP1 175 -5.951
104 CP1 176 -5.951
104 CP1 177 -5.951
104 CP1 178 -5.463
104 CP1 179 -4.974
104 CP1 180 -4.974
104 CP1 181 -4.974
104 CP1 182 -4.486
104 CP1 183 -3.998
104 CP1 184 -3.510
104 CP1 185 -3.998
104 CP1 186 -4.486
104 CP1 187 -5.463
104 CP1 188 -6.439
104 CP1 189 -7.416
104 CP1 190 -6.927
104 CP1 191 -5.951
104 CP1 192 -4.974
104 CP1 193 -3.998
104 CP1 194 -3.510
104 CP1 195 -2.533
104 CP1 196 -1.556
104 CP1 197 -0.580
104 CP1 198 -0.092
104 CP1 199 -0.580
104 CP1 200 -1.068
104 CP1 201 -2.045
104 CP1 202 -3.021
104 CP1 203 -3.021
104 CP1 204 -3.510
104 CP1 205 -3.510
104 CP1 206 -3.998
104 CP1 207 -4.486
104 CP1 208 -4.974
104 CP1 209 -6.439
104 CP1 210 -7.416
104 CP1 211 -7.416
104 CP1 212 -7.416
104 CP1 213 -6.439
104 CP1 214 -5.463
104 CP1 215 -4.486
104 CP1 216 -3.998
104 CP1 217 -3.510
104 CP1 218 -3.510
104 CP1 219 -3.998
104 CP1 220 -4.974
104 CP1 221 -5.463
104 CP1 222 -5.463
104 CP1 223 -4.974
104 CP1 224 -4.486
104 CP1 225 -4.486
104 CP1 226 -4.974
104 CP1 227 -5.463
104 CP1 228 -6.439
104 CP1 229 -6.439
104 CP1 230 -6.439
104 CP1 231 -6.439
104 CP1 232 -5.951
104 CP1 233 -4.974
104 CP1 234 -3.998
104 CP1 235 -3.021
104 CP1 236 -2.533
104 CP1 237 -2.045
104 CP1 238 -2.533
104 CP1 239 -3.021
104 CP1 240 -3.510
104 CP1 241 -3.998
104 CP1 242 -3.998
104 CP1 243 -3.510
104 CP1 244 -3.510
104 CP1 245 -3.021
104 CP1 246 -2.533
104 CP1 247 -2.045
104 CP1 248 -1.068
104 CP1 249 -1.068
104 CP1 250 -2.533
104 CP1 251 -3.998
104 CP1 252 -4.974
104 CP1 253 -6.439
104 CP1 254 -6.927
104 CP1 255 -7.416
# CP2 chan 21
104 CP2 0 1.149
104 CP2 1 0.173
104 CP2 2 -0.315
104 CP2 3 -0.315
104 CP2 4 -0.315
104 CP2 5 -0.315
104 CP2 6 -0.315
104 CP2 7 -0.315
104 CP2 8 -0.804
104 CP2 9 -0.804
104 CP2 10 -0.804
104 CP2 11 -0.315
104 CP2 12 0.661
104 CP2 13 1.638
104 CP2 14 2.614
104 CP2 15 3.103
104 CP2 16 2.126
104 CP2 17 1.638
104 CP2 18 0.173
104 CP2 19 -0.315
104 CP2 20 -0.804
104 CP2 21 -0.804
104 CP2 22 -1.292
104 CP2 23 -2.268
104 CP2 24 -2.268
104 CP2 25 -1.780
104 CP2 26 0.173
104 CP2 27 1.638
104 CP2 28 3.103
104 CP2 29 3.591
104 CP2 30 3.591
104 CP2 31 2.614
104 CP2 32 2.126
104 CP2 33 2.614
104 CP2 34 3.103
104 CP2 35 3.591
104 CP2 36 3.591
104 CP2 37 3.591
104 CP2 38 3.591
104 CP2 39 3.103
104 CP2 40 2.614
104 CP2 41 2.614
104 CP2 42 1.638
104 CP2 43 1.149
104 CP2 44 0.661
104 CP2 45 1.149
104 CP2 46 2.126
104 CP2 47 3.591
104 CP2 48 4.567
104 CP2 49 5.056
104 CP2 50 5.544
104 CP2 51 6.032
104 CP2 52 6.521
104 CP2 53 6.521
104 CP2 54 6.521
104 CP2 55 6.521
104 CP2 56 6.521
104 CP2 57 7.009
104 CP2 58 7.497
104 CP2 59 7.497
104 CP2 60 7.497
104 CP2 61 7.009
104 CP2 62 6.521
104 CP2 63 6.032
104 CP2 64 6.521
104 CP2 65 6.521
104 CP2 66 6.521
104 CP2 67 6.521
104 CP2 68 6.521
104 CP2 69 6.032
104 CP2 70 6.032
104 CP2 71 6.521
104 CP2 72 7.009
104 CP2 73 7.497
104 CP2 74 7.985
104 CP2 75 8.474
104 CP2 76 8.962
104 CP2 77 8.962
104 CP2 78 8.962
104 CP2 79 9.450
104 CP2 80 9.939
104 CP2 81 10.915
104 CP2 82 11.403
104 CP2 83 11.403
104 CP2 84 11.403
104 CP2 85 11.403
104 CP2 86 11.403
104 CP2 87 11.403
104 CP2 88 11.403
104 CP2 89 9.939
104 CP2 90 7.985
104 CP2 91 6.521
104 CP2 92 5.056
104 CP2 93 4.079
104 CP2 94 4.567
104 CP2 95 5.544
104 CP2 96 7.009
104 CP2 97 8.474
104 CP2 98 9.450
104 CP2 99 9.939
104 CP2 100 10.427
104 CP2 101 10.427
104 CP2 102 10.427
104 CP2 103 10.915
104 CP2 104 10.915
104 CP2 105 10.915
104 CP2 106 10.915
104 CP2 107 10.427
104 CP2 108 10.427
104 CP2 109 9.939
104 CP2 110 9.450
104 CP2 111 9.450
104 CP2 112 9.450
104 CP2 113 8.962
104 CP2 114 7.985
104 CP2 115 6.521
104 CP2 116 5.544
104 CP2 117 4.079
104 CP2 118 4.079
104 CP2 119 4.567
104 CP2 120 5.056
104 CP2 121 5.544
104 CP2 122 5.056
104 CP2 123 4.079
104 CP2 124 4.079
104 CP2 125 4.567
104 CP2 126 5.544
104 CP2 127 7.009
104 CP2 128 8.474
104 CP2 129 9.939
104 CP2 130 10.427
104 CP2 131 9.939
104 CP2 132 8.962
104 CP2 133 7.497
104 CP2 134 6.032
104 CP2 135 5.544
104 CP2 136 5.056
104 CP2 137 5.544
104 CP2 138 5.544
104 CP2 139 4.567
104 CP2 140 3.591
104 CP2 141 2.614
104 CP2 142 2.614
104 CP2 143 3.591
104 CP2 144 5.056
104 CP2 145 6.032
104 CP2 146 6.521
104 CP2 147 7.009
104 CP2 148 8.474
104 CP2 149 9.939
104 CP2 150 10.915
104 CP2 151 11.403
104 CP2 152 10.915
104 CP2 153 9.450
104 CP2 154 8.474
104 CP2 155 7.497
104 CP2 156 7.497
104 CP2 157 7.985
104 CP2 158 7.985
104 CP2 159 7.985
104 CP2 160 7.497
104 CP2 161 7.985
104 CP2 162 7.985
104 CP2 163 8.474
104 CP2 164 8.962
104 CP2 165 8.962
104 CP2 166 8.474
104 CP2 167 7.497
104 CP2 168 6.521
104 CP2 169 6.032
104 CP2 170 5.544
104 CP2 171 6.032
104 CP2 172 6.521
104 CP2 173 6.521
104 CP2 174 6.521
104 CP2 175 6.521
104 CP2 176 6.521
104 CP2 177 6.521
104 CP2 178 7.009
104 CP2 179 7.009
104 CP2 180 7.009
104 CP2 181 7.497
104 CP2 182 7.985
104 CP2 183 9.450
104 CP2 184 11.403
104 CP2 185 12.868
104 CP2 186 13.845
104 CP2 187 13.357
104 CP2 188 11.892
104 CP2 189 10.915
104 CP2 190 9.939
104 CP2 191 9.450
104 CP2 192 9.450
104 CP2 193 9.450
104 CP2 194 9.939
104 CP2 195 9.939
104 CP2 196 10.915
104 CP2 197 11.403
104 CP2 198 11.403
104 CP2 199 10.427
104 CP2 200 8.962
104 CP2 201 7.985
104 CP2 202 7.009
104 CP2 203 7.009
104 CP2 204 7.009
104 CP2 205 7.497
104 CP2 206 7.985
104 CP2 207 7.985
104 CP2 208 8.474
104 CP2 209 8.962
104 CP2 210 9.450
104 CP2 211 9.450
104 CP2 212 10.427
104 CP2 213 10.915
104 CP2 214 11.403
104 CP2 215 12.868
104 CP2 216 13.357
104 CP2 217 13.845
104 CP2 218 13.357
104 CP2 219 12.868
104 CP2 220 11.892
104 CP2 221 11.403
104 CP2 222 10.915
104 CP2 223 10.427
104 CP2 224 9.939
104 CP2 225 8.962
104 CP2 226 7.497
104 CP2 227 7.009
104 CP2 228 7.009
104 CP2 229 7.497
104 CP2 230 8.474
104 CP2 231 8.962
104 CP2 232 9.450
104 CP2 233 8.474
104 CP2 234 7.985
104 CP2 235 7.009
104 CP2 236 6.032
104 CP2 237 5.544
104 CP2 238 4.567
104 CP2 239 5.056
104 CP2 240 6.032
104 CP2 241 7.497
104 CP2 242 8.962
104 CP2 243 10.427
104 CP2 244 11.403
104 CP2 245 12.380
104 CP2 246 12.868
104 CP2 247 12.868
104 CP2 248 12.380
104 CP2 249 11.892
104 CP2 250 11.403
104 CP2 251 10.915
104 CP2 252 10.427
104 CP2 253 9.939
104 CP2 254 10.427
104 CP2 255 10.915
# P3 chan 22
104 P3 0 -5.473
104 P3 1 -4.496
104 P3 2 -3.520
104 P3 3 -2.543
104 P3 4 -2.543
104 P3 5 -1.567
104 P3 6 -1.078
104 P3 7 -0.102
104 P3 8 0.387
104 P3 9 1.363
104 P3 10 0.875
104 P3 11 0.875
104 P3 12 0.875
104 P3 13 0.387
104 P3 14 0.387
104 P3 15 -0.590
104 P3 16 -1.567
104 P3 17 -2.055
104 P3 18 -1.078
104 P3 19 -0.590
104 P3 20 0.387
104 P3 21 0.387
104 P3 22 0.387
104 P3 23 -0.102
104 P3 24 -0.590
104 P3 25 0.387
104 P3 26 1.363
104 P3 27 1.851
104 P3 28 1.851
104 P3 29 0.387
104 P3 30 -1.078
104 P3 31 -3.520
104 P3 32 -4.985
104 P3 33 -6.449
104 P3 34 -7.914
104 P3 35 -8.403
104 P3 36 -8.891
104 P3 37 -8.891
104 P3 38 -8.403
104 P3 39 -7.914
104 P3 40 -7.914
104 P3 41 -8.891
104 P3 42 -9.867
104 P3 43 -10.844
104 P3 44 -11.820
104 P3 45 -11.820
104 P3 46 -11.332
104 P3 47 -10.844
104 P3 48 -10.356
104 P3 49 -8.891
104 P3 50 -7.914
104 P3 51 -6.938
104 P3 52 -5.961
104 P3 53 -5.473
104 P3 54 -4.496
104 P3 55 -3.031
104 P3 56 -1.078
104 P3 57 0.387
104 P3 58 0.875
104 P3 59 -0.102
104 P3 60 -1.567
104 P3 61 -3.031
104 P3 62 -3.520
104 P3 63 -3.031
104 P3 64 -1.567
104 P3 65 0.387
104 P3 66 2.340
104 P3 67 3.316
104 P3 68 4.293
104 P3 69 4.293
104 P3 70 3.316
104 P3 71 2.340
104 P3 72 0.875
104 P3 73 -0.102
104 P3 74 -1.078
104 P3 75 -2.543
104 P3 76 -4.496
104 P3 77 -6.449
104 P3 78 -7.426
104 P3 79 -6.938
104 P3 80 -4.985
104 P3 81 -2.543
104 P3 82 -1.078
104 P3 83 -1.078
104 P3 84 -2.055
104 P3 85 -3.031
104 P3 86 -2.543
104 P3 87 -2.055
104 P3 88 -1.078
104 P3 89 -0.102
104 P3 90 -0.590
104 P3 91 -1.078
104 P3 92 -2.543
104 P3 93 -4.008
104 P3 94 -5.473
104 P3 95 -6.938
104 P3 96 -8.403
104 P3 97 -8.891
104 P3 98 -9.867
104 P3 99 -11.332
104 P3 100 -11.332
104 P3 101 -11.820
104 P3 102 -11.332
104 P3 103 -10.844
104 P3 104 -9.867
104 P3 105 -8.891
104 P3 106 -7.914
104 P3 107 -7.426
104 P3 108 -7.914
104 P3 109 -7.914
104 P3 110 -8.403
104 P3 111 -7.914
104 P3 112 -6.938
104 P3 113 -5.473
104 P3 114 -4.496
104 P3 115 -3.031
104 P3 116 -2.543
104 P3 117 -2.543
104 P3 118 -3.031
104 P3 119 -4.496
104 P3 120 -5.961
104 P3 121 -7.426
104 P3 122 -9.867
104 P3 123 -11.332
104 P3 124 -12.309
104 P3 125 -11.820
104 P3 126 -10.844
104 P3 127 -8.403
104 P3 128 -6.938
104 P3 129 -4.985
104 P3 130 -4.008
104 P3 131 -4.008
104 P3 132 -4.496
104 P3 133 -5.961
104 P3 134 -6.938
104 P3 135 -7.426
104 P3 136 -7.914
104 P3 137 -7.914
104 P3 138 -8.403
104 P3 139 -9.867
104 P3 140 -11.820
104 P3 141 -13.285
104 P3 142 -14.262
104 P3 143 -13.774
104 P3 144 -11.820
104 P3 145 -10.356
104 P3 146 -7.914
104 P3 147 -6.938
104 P3 148 -5.473
104 P3 149 -4.496
104 P3 150 -3.520
104 P3 151 -2.543
104 P3 152 -3.031
104 P3 153 -3.520
104 P3 154 -4.985
104 P3 155 -5.961
104 P3 156 -6.449
104 P3 157 -6.449
104 P3 158 -6.449
104 P3 159 -5.961
104 P3 160 -5.961
104 P3 161 -5.961
104 P3 162 -5.473
104 P3 163 -5.473
104 P3 164 -5.961
104 P3 165 -7.426
104 P3 166 -8.891
104 P3 167 -9.867
104 P3 168 -10.844
104 P3 169 -10.356
104 P3 170 -10.356
104 P3 171 -9.867
104 P3 172 -9.867
104 P3 173 -9.379
104 P3 174 -8.891
104 P3 175 -8.891
104 P3 176 -9.379
104 P3 177 -9.379
104 P3 178 -9.867
104 P3 179 -9.867
104 P3 180 -9.379
104 P3 181 -8.403
104 P3 182 -6.938
104 P3 183 -5.961
104 P3 184 -4.985
104 P3 185 -4.985
104 P3 186 -5.961
104 P3 187 -7.426
104 P3 188 -8.403
104 P3 189 -8.891
104 P3 190 -8.403
104 P3 191 -6.938
104 P3 192 -4.985
104 P3 193 -3.520
104 P3 194 -1.567
104 P3 195 -0.102
104 P3 196 1.851
104 P3 197 3.316
104 P3 198 3.805
104 P3 199 3.805
104 P3 200 2.828
104 P3 201 0.875
104 P3 202 -1.567
104 P3 203 -3.031
104 P3 204 -3.520
104 P3 205 -3.031
104 P3 206 -2.543
104 P3 207 -2.543
104 P3 208 -4.008
104 P3 209 -5.473
104 P3 210 -6.938
104 P3 211 -7.426
104 P3 212 -6.938
104 P3 213 -6.449
104 P3 214 -4.985
104 P3 215 -3.520
104 P3 216 -2.055
104 P3 217 -1.078
104 P3 218 -1.567
104 P3 219 -3.031
104 P3 220 -4.496
104 P3 221 -5.473
104 P3 222 -4.985
104 P3 223 -3.520
104 P3 224 -2.055
104 P3 225 -1.567
104 P3 226 -3.031
104 P3 227 -4.496
104 P3 228 -5.961
104 P3 229 -6.938
104 P3 230 -6.449
104 P3 231 -5.961
104 P3 232 -4.008
104 P3 233 -2.055
104 P3 234 0.387
104 P3 235 2.340
104 P3 236 2.828
104 P3 237 1.851
104 P3 238 0.387
104 P3 239 -1.078
104 P3 240 -1.567
104 P3 241 -2.055
104 P3 242 -1.567
104 P3 243 -1.567
104 P3 244 -1.078
104 P3 245 -0.102
104 P3 246 1.851
104 P3 247 3.805
104 P3 248 4.293
104 P3 249 3.805
104 P3 250 1.363
104 P3 251 -1.078
104 P3 252 -3.031
104 P3 253 -4.496
104 P3 254 -4.496
104 P3 255 -4.496
# P4 chan 23
104 P4 0 1.068
104 P4 1 0.580
104 P4 2 0.092
104 P4 3 -0.397
104 P4 4 -1.373
104 P4 5 -1.373
104 P4 6 -1.862
104 P4 7 -2.350
104 P4 8 -2.350
104 P4 9 -2.350
104 P4 10 -2.350
104 P4 11 -1.862
104 P4 12 -0.885
104 P4 13 0.092
104 P4 14 1.068
104 P4 15 1.556
104 P4 16 1.068
104 P4 17 0.092
104 P4 18 -0.885
104 P4 19 -1.862
104 P4 20 -1.862
104 P4 21 -2.838
104 P4 22 -3.815
104 P4 23 -4.303
104 P4 24 -4.791
104 P4 25 -4.303
104 P4 26 -2.838
104 P4 27 -0.885
104 P4 28 1.068
104 P4 29 2.045
104 P4 30 2.045
104 P4 31 2.045
104 P4 32 1.556
104 P4 33 1.068
104 P4 34 0.092
104 P4 35 -0.397
104 P4 36 -1.373
104 P4 37 -2.350
104 P4 38 -3.326
104 P4 39 -4.303
104 P4 40 -5.280
104 P4 41 -6.256
104 P4 42 -7.233
104 P4 43 -8.209
104 P4 44 -9.186
104 P4 45 -9.186
104 P4 46 -8.698
104 P4 47 -7.233
104 P4 48 -5.280
104 P4 49 -2.838
104 P4 50 -0.397
104 P4 51 1.068
104 P4 52 3.021
104 P4 53 4.974
104 P4 54 6.439
104 P4 55 7.904
104 P4 56 8.392
104 P4 57 8.392
104 P4 58 7.416
104 P4 59 6.439
104 P4 60 5.951
104 P4 61 5.463
104 P4 62 4.974
104 P4 63 5.463
104 P4 64 4.974
104 P4 65 4.974
104 P4 66 4.486
104 P4 67 3.510
104 P4 68 3.021
104 P4 69 2.533
104 P4 70 2.045
104 P4 71 1.556
104 P4 72 1.068
104 P4 73 0.580
104 P4 74 0.092
104 P4 75 -0.397
104 P4 76 -0.885
104 P4 77 -0.885
104 P4 78 -0.397
104 P4 79 1.556
104 P4 80 3.021
104 P4 81 4.486
104 P4 82 5.463
104 P4 83 5.951
104 P4 84 6.439
104 P4 85 7.416
104 P4 86 8.392
104 P4 87 8.881
104 P4 88 8.392
104 P4 89 6.439
104 P4 90 3.998
104 P4 91 1.068
104 P4 92 -0.885
104 P4 93 -2.350
104 P4 94 -2.838
104 P4 95 -2.350
104 P4 96 -1.862
104 P4 97 -1.373
104 P4 98 -0.397
104 P4 99 -0.397
104 P4 100 0.092
104 P4 101 0.580
104 P4 102 1.556
104 P4 103 2.045
104 P4 104 2.533
104 P4 105 2.045
104 P4 106 1.556
104 P4 107 0.092
104 P4 108 -1.862
104 P4 109 -2.838
104 P4 110 -2.350
104 P4 111 -0.885
104 P4 112 0.092
104 P4 113 0.580
104 P4 114 -0.397
104 P4 115 -1.373
104 P4 116 -1.862
104 P4 117 -1.862
104 P4 118 -1.373
104 P4 119 -1.373
104 P4 120 -2.838
104 P4 121 -4.791
104 P4 122 -7.233
104 P4 123 -8.209
104 P4 124 -8.698
104 P4 125 -7.233
104 P4 126 -5.280
104 P4 127 -2.838
104 P4 128 -0.397
104 P4 129 1.068
104 P4 130 1.556
104 P4 131 1.068
104 P4 132 -0.397
104 P4 133 -2.350
104 P4 134 -3.815
104 P4 135 -4.791
104 P4 136 -5.280
104 P4 137 -4.791
104 P4 138 -5.280
104 P4 139 -5.768
104 P4 140 -6.744
104 P4 141 -7.233
104 P4 142 -7.233
104 P4 143 -6.744
104 P4 144 -5.768
104 P4 145 -5.280
104 P4 146 -4.791
104 P4 147 -4.303
104 P4 148 -3.326
104 P4 149 -2.350
104 P4 150 -1.373
104 P4 151 -0.885
104 P4 152 -1.373
104 P4 153 -1.862
104 P4 154 -2.838
104 P4 155 -3.326
104 P4 156 -3.326
104 P4 157 -3.815
104 P4 158 -3.815
104 P4 159 -3.815
104 P4 160 -2.838
104 P4 161 -2.350
104 P4 162 -2.350
104 P4 163 -2.838
104 P4 164 -3.815
104 P4 165 -4.791
104 P4 166 -6.256
104 P4 167 -7.233
104 P4 168 -8.698
104 P4 169 -8.698
104 P4 170 -9.186
104 P4 171 -8.698
104 P4 172 -8.209
104 P4 173 -7.721
104 P4 174 -7.721
104 P4 175 -7.721
104 P4 176 -7.233
104 P4 177 -6.744
104 P4 178 -6.256
104 P4 179 -6.256
104 P4 180 -6.744
104 P4 181 -6.744
104 P4 182 -5.768
104 P4 183 -4.303
104 P4 184 -2.350
104 P4 185 -1.373
104 P4 186 -1.373
104 P4 187 -1.862
104 P4 188 -2.838
104 P4 189 -3.326
104 P4 190 -3.815
104 P4 191 -4.791
104 P4 192 -4.791
104 P4 193 -4.791
104 P4 194 -3.815
104 P4 195 -1.862
104 P4 196 -0.397
104 P4 197 0.092
104 P4 198 -0.885
104 P4 199 -1.862
104 P4 200 -3.326
104 P4 201 -5.280
104 P4 202 -7.233
104 P4 203 -8.698
104 P4 204 -9.674
104 P4 205 -9.186
104 P4 206 -7.721
104 P4 207 -5.768
104 P4 208 -4.303
104 P4 209 -4.303
104 P4 210 -4.791
104 P4 211 -4.791
104 P4 212 -3.815
104 P4 213 -1.862
104 P4 214 0.580
104 P4 215 3.021
104 P4 216 4.486
104 P4 217 4.486
104 P4 218 3.021
104 P4 219 2.045
104 P4 220 1.068
104 P4 221 0.580
104 P4 222 0.580
104 P4 223 0.580
104 P4 224 -0.397
104 P4 225 -2.350
104 P4 226 -3.815
104 P4 227 -4.791
104 P4 228 -5.280
104 P4 229 -4.791
104 P4 230 -4.303
104 P4 231 -3.326
104 P4 232 -1.862
104 P4 233 -0.885
104 P4 234 -0.885
104 P4 235 -1.373
104 P4 236 -2.350
104 P4 237 -3.815
104 P4 238 -5.280
104 P4 239 -5.768
104 P4 240 -5.280
104 P4 241 -4.303
104 P4 242 -3.326
104 P4 243 -1.862
104 P4 244 -0.397
104 P4 245 0.580
104 P4 246 1.556
104 P4 247 2.533
104 P4 248 2.533
104 P4 249 1.556
104 P4 250 0.580
104 P4 251 -0.885
104 P4 252 -1.373
104 P4 253 -1.862
104 P4 254 -1.862
104 P4 255 -1.373
# PZ chan 24
104 PZ 0 -4.364
104 PZ 1 -3.387
104 PZ 2 -2.899
104 PZ 3 -2.411
104 PZ 4 -2.411
104 PZ 5 -2.411
104 PZ 6 -1.923
104 PZ 7 -1.434
104 PZ 8 -0.458
104 PZ 9 0.031
104 PZ 10 0.519
104 PZ 11 0.031
104 PZ 12 0.519
104 PZ 13 0.519
104 PZ 14 0.031
104 PZ 15 -1.434
104 PZ 16 -2.899
104 PZ 17 -3.876
104 PZ 18 -3.876
104 PZ 19 -3.876
104 PZ 20 -4.364
104 PZ 21 -5.341
104 PZ 22 -6.317
104 PZ 23 -6.317
104 PZ 24 -5.829
104 PZ 25 -3.876
104 PZ 26 -2.411
104 PZ 27 -0.458
104 PZ 28 0.519
104 PZ 29 0.519
104 PZ 30 1.007
104 PZ 31 0.519
104 PZ 32 0.031
104 PZ 33 -0.458
104 PZ 34 -0.946
104 PZ 35 -2.411
104 PZ 36 -2.899
104 PZ 37 -3.876
104 PZ 38 -3.876
104 PZ 39 -4.364
104 PZ 40 -4.364
104 PZ 41 -5.341
104 PZ 42 -6.317
104 PZ 43 -6.805
104 PZ 44 -7.782
104 PZ 45 -7.294
104 PZ 46 -6.805
104 PZ 47 -6.317
104 PZ 48 -5.341
104 PZ 49 -3.876
104 PZ 50 -2.411
104 PZ 51 -1.434
104 PZ 52 -0.946
104 PZ 53 -0.458
104 PZ 54 0.031
104 PZ 55 0.519
104 PZ 56 1.007
104 PZ 57 1.007
104 PZ 58 0.519
104 PZ 59 -0.458
104 PZ 60 -1.923
104 PZ 61 -2.411
104 PZ 62 -1.923
104 PZ 63 -0.946
104 PZ 64 0.031
104 PZ 65 1.007
104 PZ 66 1.984
104 PZ 67 2.960
104 PZ 68 3.937
104 PZ 69 3.937
104 PZ 70 3.937
104 PZ 71 3.448
104 PZ 72 3.448
104 PZ 73 3.937
104 PZ 74 3.448
104 PZ 75 1.984
104 PZ 76 0.031
104 PZ 77 -1.434
104 PZ 78 -2.411
104 PZ 79 -1.923
104 PZ 80 -0.946
104 PZ 81 0.031
104 PZ 82 0.519
104 PZ 83 0.519
104 PZ 84 1.495
104 PZ 85 2.472
104 PZ 86 3.937
104 PZ 87 4.913
104 PZ 88 4.913
104 PZ 89 4.425
104 PZ 90 3.448
104 PZ 91 1.984
104 PZ 92 0.519
104 PZ 93 -0.946
104 PZ 94 -1.923
104 PZ 95 -2.411
104 PZ 96 -2.899
104 PZ 97 -2.899
104 PZ 98 -2.899
104 PZ 99 -3.387
104 PZ 100 -3.387
104 PZ 101 -2.899
104 PZ 102 -2.411
104 PZ 103 -1.923
104 PZ 104 -1.923
104 PZ 105 -2.411
104 PZ 106 -3.387
104 PZ 107 -4.852
104 PZ 108 -5.829
104 PZ 109 -5.829
104 PZ 110 -5.341
104 PZ 111 -4.364
104 PZ 112 -2.899
104 PZ 113 -1.923
104 PZ 114 -0.946
104 PZ 115 0.031
104 PZ 116 0.519
104 PZ 117 0.519
104 PZ 118 0.519
104 PZ 119 -0.458
104 PZ 120 -1.923
104 PZ 121 -4.364
104 PZ 122 -6.317
104 PZ 123 -7.294
104 PZ 124 -6.805
104 PZ 125 -5.829
104 PZ 126 -3.876
104 PZ 127 -1.923
104 PZ 128 -0.458
104 PZ 129 0.519
104 PZ 130 1.007
104 PZ 131 0.519
104 PZ 132 -0.458
104 PZ 133 -1.923
104 PZ 134 -2.899
104 PZ 135 -3.876
104 PZ 136 -4.364
104 PZ 137 -4.364
104 PZ 138 -5.341
104 PZ 139 -6.805
104 PZ 140 -8.270
104 PZ 141 -8.759
104 PZ 142 -7.782
104 PZ 143 -5.341
104 PZ 144 -3.387
104 PZ 145 -1.923
104 PZ 146 -1.434
104 PZ 147 -1.434
104 PZ 148 -0.946
104 PZ 149 0.031
104 PZ 150 0.519
104 PZ 151 1.007
104 PZ 152 0.519
104 PZ 153 -0.458
104 PZ 154 -1.923
104 PZ 155 -2.411
104 PZ 156 -2.411
104 PZ 157 -2.411
104 PZ 158 -2.411
104 PZ 159 -1.923
104 PZ 160 -1.434
104 PZ 161 -0.458
104 PZ 162 -0.458
104 PZ 163 -0.946
104 PZ 164 -1.923
104 PZ 165 -3.387
104 PZ 166 -4.852
104 PZ 167 -5.829
104 PZ 168 -6.317
104 PZ 169 -5.829
104 PZ 170 -5.341
104 PZ 171 -4.852
104 PZ 172 -4.364
104 PZ 173 -3.876
104 PZ 174 -4.364
104 PZ 175 -4.364
104 PZ 176 -3.876
104 PZ 177 -2.899
104 PZ 178 -2.899
104 PZ 179 -2.899
104 PZ 180 -3.387
104 PZ 181 -3.387
104 PZ 182 -2.899
104 PZ 183 -1.434
104 PZ 184 -0.946
104 PZ 185 -0.458
104 PZ 186 -1.434
104 PZ 187 -1.923
104 PZ 188 -2.899
104 PZ 189 -3.876
104 PZ 190 -4.364
104 PZ 191 -4.364
104 PZ 192 -4.364
104 PZ 193 -2.899
104 PZ 194 -0.946
104 PZ 195 1.495
104 PZ 196 2.960
104 PZ 197 3.937
104 PZ 198 3.448
104 PZ 199 2.472
104 PZ 200 1.007
104 PZ 201 -0.458
104 PZ 202 -1.923
104 PZ 203 -2.411
104 PZ 204 -2.411
104 PZ 205 -1.434
104 PZ 206 -0.458
104 PZ 207 0.031
104 PZ 208 0.031
104 PZ 209 -0.946
104 PZ 210 -1.923
104 PZ 211 -2.899
104 PZ 212 -2.899
104 PZ 213 -2.411
104 PZ 214 -0.946
104 PZ 215 0.031
104 PZ 216 0.519
104 PZ 217 0.031
104 PZ 218 -0.946
104 PZ 219 -1.923
104 PZ 220 -2.411
104 PZ 221 -2.899
104 PZ 222 -2.411
104 PZ 223 -2.899
104 PZ 224 -3.876
104 PZ 225 -4.852
104 PZ 226 -5.829
104 PZ 227 -6.805
104 PZ 228 -6.805
104 PZ 229 -7.294
104 PZ 230 -6.805
104 PZ 231 -5.829
104 PZ 232 -4.364
104 PZ 233 -1.923
104 PZ 234 0.031
104 PZ 235 0.519
104 PZ 236 0.031
104 PZ 237 -1.434
104 PZ 238 -2.411
104 PZ 239 -2.899
104 PZ 240 -1.923
104 PZ 241 -0.946
104 PZ 242 0.031
104 PZ 243 -0.458
104 PZ 244 -0.458
104 PZ 245 0.031
104 PZ 246 1.007
104 PZ 247 1.007
104 PZ 248 0.519
104 PZ 249 -1.434
104 PZ 250 -3.387
104 PZ 251 -4.852
104 PZ 252 -5.829
104 PZ 253 -5.829
104 PZ 254 -5.829
104 PZ 255 -5.341
# P8 chan 25
104 P8 0 -0.793
104 P8 1 -1.282
104 P8 2 -0.793
104 P8 3 -0.793
104 P8 4 -0.793
104 P8 5 -0.305
104 P8 6 0.183
104 P8 7 1.160
104 P8 8 1.648
104 P8 9 1.648
104 P8 10 0.671
104 P8 11 0.671
104 P8 12 2.136
104 P8 13 3.601
104 P8 14 5.066
104 P8 15 4.578
104 P8 16 2.625
104 P8 17 1.648
104 P8 18 1.160
104 P8 19 1.648
104 P8 20 1.648
104 P8 21 1.160
104 P8 22 0.183
104 P8 23 -0.305
104 P8 24 0.671
104 P8 25 2.625
104 P8 26 5.066
104 P8 27 7.507
104 P8 28 8.484
104 P8 29 8.972
104 P8 30 7.996
104 P8 31 7.019
104 P8 32 6.042
104 P8 33 5.066
104 P8 34 5.066
104 P8 35 4.089
104 P8 36 3.113
104 P8 37 1.160
104 P8 38 -0.793
104 P8 39 -2.258
104 P8 40 -2.747
104 P8 41 -3.235
104 P8 42 -5.188
104 P8 43 -7.141
104 P8 44 -8.118
104 P8 45 -8.118
104 P8 46 -6.653
104 P8 47 -4.700
104 P8 48 -2.258
104 P8 49 -0.305
104 P8 50 2.136
104 P8 51 4.578
104 P8 52 7.019
104 P8 53 8.972
104 P8 54 9.949
104 P8 55 10.437
104 P8 56 10.437
104 P8 57 10.437
104 P8 58 9.460
104 P8 59 8.484
104 P8 60 7.507
104 P8 61 7.507
104 P8 62 7.507
104 P8 63 8.484
104 P8 64 7.996
104 P8 65 6.531
104 P8 66 5.066
104 P8 67 4.089
104 P8 68 3.601
104 P8 69 3.601
104 P8 70 3.601
104 P8 71 2.625
104 P8 72 2.136
104 P8 73 2.625
104 P8 74 3.601
104 P8 75 4.578
104 P8 76 4.578
104 P8 77 4.578
104 P8 78 5.554
104 P8 79 8.484
104 P8 80 10.437
104 P8 81 12.390
104 P8 82 12.390
104 P8 83 12.390
104 P8 84 13.367
104 P8 85 14.343
104 P8 86 15.320
104 P8 87 15.808
104 P8 88 14.343
104 P8 89 11.902
104 P8 90 8.484
104 P8 91 5.066
104 P8 92 2.136
104 P8 93 0.183
104 P8 94 -1.282
104 P8 95 -1.770
104 P8 96 -2.747
104 P8 97 -3.235
104 P8 98 -3.723
104 P8 99 -4.211
104 P8 100 -3.235
104 P8 101 -1.282
104 P8 102 1.160
104 P8 103 3.113
104 P8 104 5.066
104 P8 105 6.042
104 P8 106 5.554
104 P8 107 3.601
104 P8 108 2.136
104 P8 109 2.136
104 P8 110 3.601
104 P8 111 6.042
104 P8 112 7.996
104 P8 113 7.996
104 P8 114 6.042
104 P8 115 4.089
104 P8 116 2.625
104 P8 117 3.113
104 P8 118 3.601
104 P8 119 2.625
104 P8 120 0.671
104 P8 121 -2.258
104 P8 122 -5.188
104 P8 123 -6.653
104 P8 124 -6.165
104 P8 125 -4.700
104 P8 126 -2.747
104 P8 127 -0.305
104 P8 128 2.625
104 P8 129 4.578
104 P8 130 6.042
104 P8 131 6.042
104 P8 132 4.089
104 P8 133 0.671
104 P8 134 -2.258
104 P8 135 -3.723
104 P8 136 -4.211
104 P8 137 -3.723
104 P8 138 -3.235
104 P8 139 -3.235
104 P8 140 -4.211
104 P8 141 -4.700
104 P8 142 -4.700
104 P8 143 -4.211
104 P8 144 -4.211
104 P8 145 -4.700
104 P8 146 -4.700
104 P8 147 -4.211
104 P8 148 -2.258
104 P8 149 -0.305
104 P8 150 1.648
104 P8 151 2.625
104 P8 152 2.625
104 P8 153 3.113
104 P8 154 3.601
104 P8 155 3.601
104 P8 156 3.113
104 P8 157 2.625
104 P8 158 2.625
104 P8 159 3.113
104 P8 160 4.578
104 P8 161 5.554
104 P8 162 5.554
104 P8 163 5.554
104 P8 164 4.578
104 P8 165 3.601
104 P8 166 2.136
104 P8 167 0.183
104 P8 168 -1.770
104 P8 169 -2.747
104 P8 170 -3.235
104 P8 171 -3.235
104 P8 172 -3.235
104 P8 173 -3.723
104 P8 174 -3.723
104 P8 175 -4.211
104 P8 176 -4.211
104 P8 177 -3.723
104 P8 178 -4.700
104 P8 179 -5.676
104 P8 180 -6.165
104 P8 181 -4.700
104 P8 182 -1.770
104 P8 183 1.648
104 P8 184 3.601
104 P8 185 4.089
104 P8 186 2.625
104 P8 187 1.648
104 P8 188 1.648
104 P8 189 2.625
104 P8 190 3.601
104 P8 191 4.578
104 P8 192 5.554
104 P8 193 6.531
104 P8 194 8.484
104 P8 195 9.949
104 P8 196 10.437
104 P8 197 9.949
104 P8 198 7.996
104 P8 199 6.042
104 P8 200 4.578
104 P8 201 3.113
104 P8 202 1.160
104 P8 203 -0.793
104 P8 204 -2.258
104 P8 205 -1.770
104 P8 206 -0.305
104 P8 207 1.648
104 P8 208 2.136
104 P8 209 2.625
104 P8 210 2.625
104 P8 211 4.089
104 P8 212 6.042
104 P8 213 8.484
104 P8 214 9.949
104 P8 215 10.925
104 P8 216 10.437
104 P8 217 9.949
104 P8 218 9.460
104 P8 219 9.460
104 P8 220 9.460
104 P8 221 9.949
104 P8 222 9.949
104 P8 223 10.437
104 P8 224 9.949
104 P8 225 9.460
104 P8 226 8.972
104 P8 227 7.996
104 P8 228 7.507
104 P8 229 7.507
104 P8 230 7.507
104 P8 231 7.507
104 P8 232 7.507
104 P8 233 7.507
104 P8 234 7.507
104 P8 235 7.507
104 P8 236 7.019
104 P8 237 6.531
104 P8 238 5.554
104 P8 239 4.578
104 P8 240 3.601
104 P8 241 3.601
104 P8 242 3.601
104 P8 243 4.578
104 P8 244 6.042
104 P8 245 7.507
104 P8 246 8.972
104 P8 247 10.437
104 P8 248 10.925
104 P8 249 9.949
104 P8 250 8.484
104 P8 251 7.019
104 P8 252 5.554
104 P8 253 4.578
104 P8 254 4.578
104 P8 255 5.554
# P7 chan 26
104 P7 0 -8.108
104 P7 1 -7.619
104 P7 2 -8.596
104 P7 3 -8.596
104 P7 4 -7.619
104 P7 5 -5.666
104 P7 6 -2.736
104 P7 7 -0.783
104 P7 8 -0.295
104 P7 9 -0.783
104 P7 10 -0.783
104 P7 11 -0.783
104 P7 12 -0.783
104 P7 13 -0.783
104 P7 14 -1.760
104 P7 15 -2.248
104 P7 16 -2.736
104 P7 17 -1.760
104 P7 18 -0.295
104 P7 19 1.170
104 P7 20 1.658
104 P7 21 1.170
104 P7 22 -0.295
104 P7 23 -0.783
104 P7 24 0.193
104 P7 25 1.170
104 P7 26 2.635
104 P7 27 1.658
104 P7 28 0.193
104 P7 29 -3.225
104 P7 30 -6.643
104 P7 31 -8.596
104 P7 32 -10.549
104 P7 33 -11.525
104 P7 34 -12.990
104 P7 35 -13.479
104 P7 36 -12.502
104 P7 37 -11.037
104 P7 38 -9.572
104 P7 39 -9.084
104 P7 40 -10.549
104 P7 41 -12.502
104 P7 42 -13.967
104 P7 43 -14.943
104 P7 44 -15.432
104 P7 45 -15.432
104 P7 46 -15.432
104 P7 47 -14.455
104 P7 48 -12.990
104 P7 49 -12.014
104 P7 50 -10.549
104 P7 51 -9.084
104 P7 52 -8.108
104 P7 53 -6.154
104 P7 54 -3.713
104 P7 55 -0.783
104 P7 56 0.682
104 P7 57 1.658
104 P7 58 1.170
104 P7 59 1.170
104 P7 60 0.193
104 P7 61 -0.783
104 P7 62 -1.760
104 P7 63 -2.248
104 P7 64 -1.760
104 P7 65 -0.783
104 P7 66 0.682
104 P7 67 1.658
104 P7 68 2.635
104 P7 69 2.635
104 P7 70 1.658
104 P7 71 0.682
104 P7 72 -0.295
104 P7 73 -1.760
104 P7 74 -2.736
104 P7 75 -5.178
104 P7 76 -7.619
104 P7 77 -9.572
104 P7 78 -9.572
104 P7 79 -7.131
104 P7 80 -3.713
104 P7 81 -0.783
104 P7 82 0.193
104 P7 83 -0.295
104 P7 84 -1.760
104 P7 85 -2.736
104 P7 86 -2.736
104 P7 87 -1.760
104 P7 88 -2.248
104 P7 89 -2.248
104 P7 90 -3.225
104 P7 91 -4.690
104 P7 92 -6.154
104 P7 93 -7.619
104 P7 94 -9.572
104 P7 95 -11.525
104 P7 96 -12.990
104 P7 97 -13.967
104 P7 98 -14.943
104 P7 99 -15.920
104 P7 100 -15.920
104 P7 101 -15.432
104 P7 102 -13.967
104 P7 103 -12.014
104 P7 104 -10.549
104 P7 105 -9.572
104 P7 106 -9.084
104 P7 107 -8.596
104 P7 108 -8.596
104 P7 109 -8.596
104 P7 110 -8.596
104 P7 111 -8.108
104 P7 112 -6.643
104 P7 113 -4.690
104 P7 114 -3.225
104 P7 115 -2.736
104 P7 116 -3.713
104 P7 117 -4.690
104 P7 118 -5.178
104 P7 119 -5.666
104 P7 120 -6.643
104 P7 121 -9.084
104 P7 122 -12.014
104 P7 123 -14.455
104 P7 124 -14.943
104 P7 125 -13.967
104 P7 126 -12.502
104 P7 127 -10.549
104 P7 128 -9.084
104 P7 129 -7.619
104 P7 130 -6.643
104 P7 131 -7.131
104 P7 132 -8.108
104 P7 133 -9.572
104 P7 134 -10.549
104 P7 135 -10.549
104 P7 136 -9.572
104 P7 137 -9.572
104 P7 138 -10.549
104 P7 139 -12.502
104 P7 140 -14.455
104 P7 141 -16.408
104 P7 142 -16.897
104 P7 143 -16.408
104 P7 144 -13.967
104 P7 145 -11.525
104 P7 146 -9.572
104 P7 147 -7.131
104 P7 148 -5.178
104 P7 149 -2.736
104 P7 150 -1.760
104 P7 151 -1.760
104 P7 152 -2.248
104 P7 153 -3.713
104 P7 154 -5.178
104 P7 155 -5.666
104 P7 156 -6.154
104 P7 157 -6.154
