# co3a0000461.rd
# 120 trials, 64 chans, 416 samples 368 post_stim samples
# 3.906000 msecs uV
# S1 obj , trial 62
# FP1 chan 0
62 FP1 0 3.215
62 FP1 1 6.144
62 FP1 2 8.097
62 FP1 3 10.050
62 FP1 4 12.004
62 FP1 5 12.980
62 FP1 6 12.980
62 FP1 7 12.004
62 FP1 8 10.539
62 FP1 9 8.097
62 FP1 10 6.632
62 FP1 11 5.656
62 FP1 12 5.656
62 FP1 13 5.656
62 FP1 14 7.121
62 FP1 15 8.097
62 FP1 16 8.586
62 FP1 17 8.097
62 FP1 18 7.121
62 FP1 19 5.656
62 FP1 20 4.679
62 FP1 21 4.679
62 FP1 22 5.656
62 FP1 23 8.097
62 FP1 24 10.539
62 FP1 25 13.468
62 FP1 26 15.422
62 FP1 27 15.910
62 FP1 28 14.933
62 FP1 29 12.980
62 FP1 30 11.027
62 FP1 31 10.050
62 FP1 32 10.539
62 FP1 33 12.004
62 FP1 34 13.468
62 FP1 35 13.957
62 FP1 36 12.980
62 FP1 37 12.004
62 FP1 38 10.539
62 FP1 39 10.050
62 FP1 40 9.562
62 FP1 41 10.050
62 FP1 42 10.539
62 FP1 43 12.492
62 FP1 44 15.422
62 FP1 45 18.840
62 FP1 46 20.793
62 FP1 47 21.769
62 FP1 48 20.304
62 FP1 49 17.863
62 FP1 50 15.422
62 FP1 51 13.957
62 FP1 52 13.957
62 FP1 53 14.933
62 FP1 54 16.886
62 FP1 55 19.328
62 FP1 56 21.769
62 FP1 57 23.722
62 FP1 58 24.699
62 FP1 59 25.187
62 FP1 60 25.675
62 FP1 61 26.164
62 FP1 62 26.652
62 FP1 63 27.140
62 FP1 64 26.164
62 FP1 65 24.699
62 FP1 66 22.746
62 FP1 67 21.769
62 FP1 68 21.769
62 FP1 69 23.234
62 FP1 70 24.699
62 FP1 71 25.675
62 FP1 72 25.675
62 FP1 73 25.187
62 FP1 74 25.187
62 FP1 75 26.652
62 FP1 76 28.605
62 FP1 77 31.047
62 FP1 78 32.511
62 FP1 79 32.023
62 FP1 80 29.093
62 FP1 81 24.699
62 FP1 82 19.816
62 FP1 83 14.933
62 FP1 84 12.004
62 FP1 85 11.027
62 FP1 86 10.539
62 FP1 87 11.027
62 FP1 88 10.050
62 FP1 89 8.586
62 FP1 90 6.144
62 FP1 91 4.679
62 FP1 92 4.191
62 FP1 93 4.679
62 FP1 94 6.144
62 FP1 95 6.632
62 FP1 96 6.144
62 FP1 97 4.191
62 FP1 98 1.261
62 FP1 99 -0.692
62 FP1 100 -1.668
62 FP1 101 -1.180
62 FP1 102 0.773
62 FP1 103 2.726
62 FP1 104 4.679
62 FP1 105 6.144
62 FP1 106 7.121
62 FP1 107 8.586
62 FP1 108 10.050
62 FP1 109 12.004
62 FP1 110 13.957
62 FP1 111 14.933
62 FP1 112 15.910
62 FP1 113 17.375
62 FP1 114 18.840
62 FP1 115 20.793
62 FP1 116 21.769
62 FP1 117 22.257
62 FP1 118 22.257
62 FP1 119 22.257
62 FP1 120 22.257
62 FP1 121 22.257
62 FP1 122 22.746
62 FP1 123 23.234
62 FP1 124 23.234
62 FP1 125 23.722
62 FP1 126 24.211
62 FP1 127 24.211
62 FP1 128 23.722
62 FP1 129 21.769
62 FP1 130 19.328
62 FP1 131 16.886
62 FP1 132 16.398
62 FP1 133 17.863
62 FP1 134 21.769
62 FP1 135 26.164
62 FP1 136 29.582
62 FP1 137 31.047
62 FP1 138 31.047
62 FP1 139 30.558
62 FP1 140 29.093
62 FP1 141 27.140
62 FP1 142 25.187
62 FP1 143 22.257
62 FP1 144 19.328
62 FP1 145 16.398
62 FP1 146 14.445
62 FP1 147 12.980
62 FP1 148 12.004
62 FP1 149 10.539
62 FP1 150 8.586
62 FP1 151 7.121
62 FP1 152 7.121
62 FP1 153 8.097
62 FP1 154 9.562
62 FP1 155 10.539
62 FP1 156 11.027
62 FP1 157 11.027
62 FP1 158 12.004
62 FP1 159 14.445
62 FP1 160 16.398
62 FP1 161 18.351
62 FP1 162 18.840
62 FP1 163 18.351
62 FP1 164 18.351
62 FP1 165 19.328
62 FP1 166 21.769
62 FP1 167 24.699
62 FP1 168 26.164
62 FP1 169 26.652
62 FP1 170 24.699
62 FP1 171 21.769
62 FP1 172 18.840
62 FP1 173 16.398
62 FP1 174 15.422
62 FP1 175 15.910
62 FP1 176 16.886
62 FP1 177 18.351
62 FP1 178 18.840
62 FP1 179 18.351
62 FP1 180 17.863
62 FP1 181 17.375
62 FP1 182 17.375
62 FP1 183 17.863
62 FP1 184 17.863
62 FP1 185 17.375
62 FP1 186 16.398
62 FP1 187 16.398
62 FP1 188 16.886
62 FP1 189 17.863
62 FP1 190 19.328
62 FP1 191 19.816
62 FP1 192 19.816
62 FP1 193 19.328
62 FP1 194 19.816
62 FP1 195 20.304
62 FP1 196 20.793
62 FP1 197 20.793
62 FP1 198 20.304
62 FP1 199 19.816
62 FP1 200 21.281
62 FP1 201 22.746
62 FP1 202 25.187
62 FP1 203 27.140
62 FP1 204 28.117
62 FP1 205 29.582
62 FP1 206 32.023
62 FP1 207 35.929
62 FP1 208 40.324
62 FP1 209 45.207
62 FP1 210 49.113
62 FP1 211 52.531
62 FP1 212 55.949
62 FP1 213 59.855
62 FP1 214 64.250
62 FP1 215 69.621
62 FP1 216 75.480
62 FP1 217 81.340
62 FP1 218 87.199
62 FP1 219 92.570
62 FP1 220 98.429
62 FP1 221 103.312
62 FP1 222 107.218
62 FP1 223 111.125
62 FP1 224 114.054
62 FP1 225 115.519
62 FP1 226 116.984
62 FP1 227 117.961
62 FP1 228 118.449
62 FP1 229 118.937
62 FP1 230 119.914
62 FP1 231 119.914
62 FP1 232 120.402
62 FP1 233 119.914
62 FP1 234 118.937
62 FP1 235 117.472
62 FP1 236 115.031
62 FP1 237 112.101
62 FP1 238 109.172
62 FP1 239 107.218
62 FP1 240 105.754
62 FP1 241 104.289
62 FP1 242 103.800
62 FP1 243 103.312
62 FP1 244 103.312
62 FP1 245 102.824
62 FP1 246 103.312
62 FP1 247 104.289
62 FP1 248 106.242
62 FP1 249 108.683
62 FP1 250 112.101
62 FP1 251 114.054
62 FP1 252 115.031
62 FP1 253 115.031
62 FP1 254 115.519
62 FP1 255 118.937
# FP2 chan 1
62 FP2 0 -2.248
62 FP2 1 -0.295
62 FP2 2 1.658
62 FP2 3 3.611
62 FP2 4 6.541
62 FP2 5 8.494
62 FP2 6 9.471
62 FP2 7 8.982
62 FP2 8 6.541
62 FP2 9 4.100
62 FP2 10 2.146
62 FP2 11 1.170
62 FP2 12 1.170
62 FP2 13 1.658
62 FP2 14 3.123
62 FP2 15 3.123
62 FP2 16 2.146
62 FP2 17 -0.295
62 FP2 18 -3.225
62 FP2 19 -5.178
62 FP2 20 -5.178
62 FP2 21 -3.713
62 FP2 22 -1.272
62 FP2 23 0.682
62 FP2 24 2.146
62 FP2 25 3.123
62 FP2 26 3.611
62 FP2 27 4.100
62 FP2 28 3.611
62 FP2 29 2.146
62 FP2 30 0.193
62 FP2 31 -1.760
62 FP2 32 -1.760
62 FP2 33 -0.783
62 FP2 34 0.682
62 FP2 35 1.658
62 FP2 36 1.658
62 FP2 37 0.682
62 FP2 38 -0.783
62 FP2 39 -1.760
62 FP2 40 -2.248
62 FP2 41 -1.760
62 FP2 42 -0.295
62 FP2 43 1.658
62 FP2 44 4.588
62 FP2 45 6.541
62 FP2 46 8.006
62 FP2 47 8.006
62 FP2 48 7.029
62 FP2 49 4.588
62 FP2 50 1.658
62 FP2 51 -0.295
62 FP2 52 -1.272
62 FP2 53 0.193
62 FP2 54 3.123
62 FP2 55 7.029
62 FP2 56 9.959
62 FP2 57 11.424
62 FP2 58 11.424
62 FP2 59 9.471
62 FP2 60 8.982
62 FP2 61 8.982
62 FP2 62 9.959
62 FP2 63 10.447
62 FP2 64 9.471
62 FP2 65 7.517
62 FP2 66 5.564
62 FP2 67 4.588
62 FP2 68 5.564
62 FP2 69 7.029
62 FP2 70 8.982
62 FP2 71 10.447
62 FP2 72 11.424
62 FP2 73 10.935
62 FP2 74 10.935
62 FP2 75 10.935
62 FP2 76 11.424
62 FP2 77 12.400
62 FP2 78 12.889
62 FP2 79 12.400
62 FP2 80 10.447
62 FP2 81 6.541
62 FP2 82 1.658
62 FP2 83 -2.736
62 FP2 84 -5.178
62 FP2 85 -6.643
62 FP2 86 -6.643
62 FP2 87 -6.154
62 FP2 88 -7.131
62 FP2 89 -9.084
62 FP2 90 -10.549
62 FP2 91 -12.014
62 FP2 92 -12.014
62 FP2 93 -11.525
62 FP2 94 -10.549
62 FP2 95 -10.061
62 FP2 96 -10.061
62 FP2 97 -11.525
62 FP2 98 -13.479
62 FP2 99 -15.920
62 FP2 100 -18.361
62 FP2 101 -18.850
62 FP2 102 -18.361
62 FP2 103 -17.385
62 FP2 104 -15.920
62 FP2 105 -14.455
62 FP2 106 -13.967
62 FP2 107 -13.479
62 FP2 108 -12.990
62 FP2 109 -11.525
62 FP2 110 -10.061
62 FP2 111 -8.108
62 FP2 112 -6.643
62 FP2 113 -5.178
62 FP2 114 -3.713
62 FP2 115 -3.225
62 FP2 116 -3.225
62 FP2 117 -3.713
62 FP2 118 -4.201
62 FP2 119 -3.713
62 FP2 120 -4.690
62 FP2 121 -5.666
62 FP2 122 -6.643
62 FP2 123 -7.131
62 FP2 124 -8.108
62 FP2 125 -7.619
62 FP2 126 -6.643
62 FP2 127 -6.154
62 FP2 128 -6.643
62 FP2 129 -8.108
62 FP2 130 -10.061
62 FP2 131 -10.549
62 FP2 132 -9.572
62 FP2 133 -6.154
62 FP2 134 -2.248
62 FP2 135 1.658
62 FP2 136 4.100
62 FP2 137 5.076
62 FP2 138 4.588
62 FP2 139 2.635
62 FP2 140 0.193
62 FP2 141 -2.736
62 FP2 142 -4.690
62 FP2 143 -7.131
62 FP2 144 -8.596
62 FP2 145 -10.061
62 FP2 146 -11.525
62 FP2 147 -12.990
62 FP2 148 -14.455
62 FP2 149 -16.408
62 FP2 150 -18.361
62 FP2 151 -19.338
62 FP2 152 -19.826
62 FP2 153 -19.338
62 FP2 154 -18.361
62 FP2 155 -17.873
62 FP2 156 -17.385
62 FP2 157 -16.897
62 FP2 158 -15.432
62 FP2 159 -13.479
62 FP2 160 -11.037
62 FP2 161 -10.061
62 FP2 162 -9.572
62 FP2 163 -10.061
62 FP2 164 -11.037
62 FP2 165 -11.037
62 FP2 166 -9.084
62 FP2 167 -6.643
62 FP2 168 -4.690
62 FP2 169 -4.201
62 FP2 170 -4.690
62 FP2 171 -7.131
62 FP2 172 -10.549
62 FP2 173 -12.990
62 FP2 174 -14.455
62 FP2 175 -14.943
62 FP2 176 -13.967
62 FP2 177 -12.990
62 FP2 178 -12.990
62 FP2 179 -13.967
62 FP2 180 -14.943
62 FP2 181 -16.408
62 FP2 182 -15.920
62 FP2 183 -15.432
62 FP2 184 -14.943
62 FP2 185 -14.455
62 FP2 186 -14.943
62 FP2 187 -15.432
62 FP2 188 -15.432
62 FP2 189 -14.943
62 FP2 190 -13.967
62 FP2 191 -13.479
62 FP2 192 -13.967
62 FP2 193 -13.967
62 FP2 194 -14.455
62 FP2 195 -14.455
62 FP2 196 -14.455
62 FP2 197 -14.455
62 FP2 198 -14.943
62 FP2 199 -14.455
62 FP2 200 -12.990
62 FP2 201 -11.525
62 FP2 202 -9.084
62 FP2 203 -7.131
62 FP2 204 -6.154
62 FP2 205 -4.690
62 FP2 206 -2.248
62 FP2 207 1.170
62 FP2 208 6.053
62 FP2 209 10.935
62 FP2 210 14.353
62 FP2 211 17.771
62 FP2 212 20.701
62 FP2 213 24.607
62 FP2 214 29.978
62 FP2 215 36.326
62 FP2 216 43.162
62 FP2 217 49.510
62 FP2 218 54.881
62 FP2 219 60.252
62 FP2 220 65.135
62 FP2 221 69.529
62 FP2 222 73.435
62 FP2 223 76.853
62 FP2 224 79.295
62 FP2 225 81.736
62 FP2 226 84.178
62 FP2 227 85.642
62 FP2 228 86.131
62 FP2 229 85.642
62 FP2 230 84.666
62 FP2 231 84.666
62 FP2 232 85.154
62 FP2 233 85.642
62 FP2 234 85.642
62 FP2 235 83.689
62 FP2 236 80.760
62 FP2 237 77.830
62 FP2 238 75.389
62 FP2 239 73.924
62 FP2 240 72.947
62 FP2 241 71.482
62 FP2 242 70.017
62 FP2 243 69.529
62 FP2 244 69.041
62 FP2 245 69.041
62 FP2 246 69.529
62 FP2 247 70.506
62 FP2 248 72.459
62 FP2 249 74.900
62 FP2 250 77.830
62 FP2 251 79.295
62 FP2 252 79.783
62 FP2 253 78.807
62 FP2 254 79.295
62 FP2 255 82.225
# F7 chan 2
62 F7 0 2.177
62 F7 1 6.571
62 F7 2 9.501
62 F7 3 9.989
62 F7 4 9.501
62 F7 5 8.525
62 F7 6 7.548
62 F7 7 6.083
62 F7 8 4.130
62 F7 9 1.200
62 F7 10 -1.241
62 F7 11 -2.706
62 F7 12 -2.706
62 F7 13 -1.241
62 F7 14 1.200
62 F7 15 3.153
62 F7 16 4.618
62 F7 17 4.618
62 F7 18 3.642
62 F7 19 2.665
62 F7 20 1.200
62 F7 21 0.224
62 F7 22 -0.753
62 F7 23 -2.218
62 F7 24 -2.218
62 F7 25 -0.753
62 F7 26 1.200
62 F7 27 3.642
62 F7 28 4.130
62 F7 29 3.153
62 F7 30 1.689
62 F7 31 0.712
62 F7 32 1.689
62 F7 33 3.153
62 F7 34 4.130
62 F7 35 4.618
62 F7 36 3.642
62 F7 37 3.153
62 F7 38 3.642
62 F7 39 4.130
62 F7 40 4.130
62 F7 41 3.153
62 F7 42 2.177
62 F7 43 1.689
62 F7 44 3.642
62 F7 45 7.060
62 F7 46 10.478
62 F7 47 11.943
62 F7 48 10.966
62 F7 49 7.548
62 F7 50 3.642
62 F7 51 0.712
62 F7 52 -0.264
62 F7 53 1.689
62 F7 54 4.130
62 F7 55 7.060
62 F7 56 9.501
62 F7 57 10.478
62 F7 58 10.478
62 F7 59 10.478
62 F7 60 10.966
62 F7 61 11.943
62 F7 62 12.919
62 F7 63 13.407
62 F7 64 12.431
62 F7 65 10.478
62 F7 66 8.525
62 F7 67 6.571
62 F7 68 6.571
62 F7 69 8.036
62 F7 70 10.966
62 F7 71 13.407
62 F7 72 14.384
62 F7 73 13.896
62 F7 74 13.407
62 F7 75 14.384
62 F7 76 17.314
62 F7 77 20.243
62 F7 78 22.196
62 F7 79 21.220
62 F7 80 18.290
62 F7 81 14.872
62 F7 82 11.454
62 F7 83 8.525
62 F7 84 6.571
62 F7 85 3.153
62 F7 86 -0.264
62 F7 87 -3.682
62 F7 88 -5.636
62 F7 89 -6.124
62 F7 90 -5.636
62 F7 91 -5.147
62 F7 92 -5.147
62 F7 93 -5.147
62 F7 94 -5.147
62 F7 95 -4.659
62 F7 96 -4.171
62 F7 97 -4.171
62 F7 98 -5.636
62 F7 99 -7.589
62 F7 100 -9.542
62 F7 101 -11.007
62 F7 102 -11.007
62 F7 103 -9.542
62 F7 104 -7.589
62 F7 105 -6.124
62 F7 106 -4.659
62 F7 107 -3.194
62 F7 108 -1.241
62 F7 109 1.200
62 F7 110 3.642
62 F7 111 5.107
62 F7 112 4.618
62 F7 113 3.153
62 F7 114 2.177
62 F7 115 3.153
62 F7 116 5.595
62 F7 117 9.013
62 F7 118 10.966
62 F7 119 11.454
62 F7 120 9.989
62 F7 121 9.013
62 F7 122 9.013
62 F7 123 9.989
62 F7 124 11.454
62 F7 125 11.454
62 F7 126 9.501
62 F7 127 6.571
62 F7 128 2.665
62 F7 129 -1.241
62 F7 130 -4.171
62 F7 131 -7.100
62 F7 132 -9.054
62 F7 133 -9.054
62 F7 134 -7.589
62 F7 135 -4.171
62 F7 136 -0.264
62 F7 137 1.689
62 F7 138 1.689
62 F7 139 0.224
62 F7 140 -1.241
62 F7 141 -1.241
62 F7 142 -0.264
62 F7 143 0.712
62 F7 144 -0.264
62 F7 145 -2.706
62 F7 146 -6.612
62 F7 147 -11.007
62 F7 148 -13.936
62 F7 149 -15.889
62 F7 150 -15.889
62 F7 151 -14.913
62 F7 152 -13.448
62 F7 153 -11.495
62 F7 154 -10.030
62 F7 155 -8.077
62 F7 156 -6.124
62 F7 157 -4.659
62 F7 158 -2.706
62 F7 159 -2.218
62 F7 160 -2.218
62 F7 161 -3.682
62 F7 162 -4.659
62 F7 163 -5.147
62 F7 164 -4.659
62 F7 165 -3.682
62 F7 166 -2.706
62 F7 167 -2.218
62 F7 168 -2.218
62 F7 169 -2.218
62 F7 170 -3.194
62 F7 171 -4.659
62 F7 172 -6.612
62 F7 173 -8.077
62 F7 174 -9.542
62 F7 175 -9.054
62 F7 176 -8.077
62 F7 177 -7.100
62 F7 178 -7.589
62 F7 179 -10.030
62 F7 180 -12.472
62 F7 181 -13.936
62 F7 182 -13.936
62 F7 183 -11.983
62 F7 184 -10.030
62 F7 185 -9.054
62 F7 186 -9.054
62 F7 187 -8.565
62 F7 188 -7.589
62 F7 189 -6.124
62 F7 190 -5.147
62 F7 191 -5.147
62 F7 192 -6.612
62 F7 193 -8.077
62 F7 194 -8.565
62 F7 195 -8.077
62 F7 196 -7.589
62 F7 197 -7.589
62 F7 198 -7.589
62 F7 199 -7.589
62 F7 200 -7.100
62 F7 201 -5.147
62 F7 202 -3.194
62 F7 203 -2.218
62 F7 204 -2.706
62 F7 205 -3.194
62 F7 206 -3.682
62 F7 207 -2.706
62 F7 208 -0.753
62 F7 209 1.689
62 F7 210 2.665
62 F7 211 2.665
62 F7 212 2.177
62 F7 213 2.177
62 F7 214 3.642
62 F7 215 6.571
62 F7 216 10.966
62 F7 217 15.361
62 F7 218 17.802
62 F7 219 19.755
62 F7 220 19.755
62 F7 221 20.243
62 F7 222 20.732
62 F7 223 22.196
62 F7 224 24.638
62 F7 225 27.079
62 F7 226 29.032
62 F7 227 30.009
62 F7 228 29.521
62 F7 229 28.056
62 F7 230 26.591
62 F7 231 26.103
62 F7 232 26.103
62 F7 233 28.056
62 F7 234 29.521
62 F7 235 29.521
62 F7 236 27.568
62 F7 237 24.638
62 F7 238 21.220
62 F7 239 19.267
62 F7 240 19.267
62 F7 241 20.732
62 F7 242 21.708
62 F7 243 22.196
62 F7 244 22.196
62 F7 245 22.685
62 F7 246 23.661
62 F7 247 25.614
62 F7 248 27.079
62 F7 249 27.568
62 F7 250 27.568
62 F7 251 27.079
62 F7 252 26.103
62 F7 253 25.614
62 F7 254 25.614
62 F7 255 26.103
# F8 chan 3
62 F8 0 -1.831
62 F8 1 0.122
62 F8 2 2.563
62 F8 3 4.028
62 F8 4 5.005
62 F8 5 5.005
62 F8 6 4.517
62 F8 7 3.052
62 F8 8 0.610
62 F8 9 -1.831
62 F8 10 -3.784
62 F8 11 -5.249
62 F8 12 -5.737
62 F8 13 -5.737
62 F8 14 -6.226
62 F8 15 -7.202
62 F8 16 -8.667
62 F8 17 -10.620
62 F8 18 -12.085
62 F8 19 -12.573
62 F8 20 -11.108
62 F8 21 -8.667
62 F8 22 -5.249
62 F8 23 -2.319
62 F8 24 -0.854
62 F8 25 -0.854
62 F8 26 -1.343
62 F8 27 -2.319
62 F8 28 -2.319
62 F8 29 -2.319
62 F8 30 -2.808
62 F8 31 -4.272
62 F8 32 -5.249
62 F8 33 -5.737
62 F8 34 -5.737
62 F8 35 -3.784
62 F8 36 -2.319
62 F8 37 -1.831
62 F8 38 -2.319
62 F8 39 -3.784
62 F8 40 -5.249
62 F8 41 -5.737
62 F8 42 -5.249
62 F8 43 -3.784
62 F8 44 -1.831
62 F8 45 0.122
62 F8 46 1.587
62 F8 47 2.075
62 F8 48 2.075
62 F8 49 0.122
62 F8 50 -1.831
62 F8 51 -4.761
62 F8 52 -6.226
62 F8 53 -5.249
62 F8 54 -2.808
62 F8 55 0.610
62 F8 56 3.052
62 F8 57 3.540
62 F8 58 2.563
62 F8 59 0.122
62 F8 60 -0.366
62 F8 61 0.122
62 F8 62 2.075
62 F8 63 3.540
62 F8 64 4.028
62 F8 65 4.028
62 F8 66 4.028
62 F8 67 4.517
62 F8 68 5.981
62 F8 69 7.935
62 F8 70 8.911
62 F8 71 9.399
62 F8 72 9.888
62 F8 73 10.864
62 F8 74 12.329
62 F8 75 12.817
62 F8 76 12.817
62 F8 77 11.353
62 F8 78 9.888
62 F8 79 8.911
62 F8 80 6.958
62 F8 81 4.028
62 F8 82 0.122
62 F8 83 -4.272
62 F8 84 -7.202
62 F8 85 -8.179
62 F8 86 -7.202
62 F8 87 -6.226
62 F8 88 -6.226
62 F8 89 -7.202
62 F8 90 -9.644
62 F8 91 -11.108
62 F8 92 -12.085
62 F8 93 -11.108
62 F8 94 -9.644
62 F8 95 -6.714
62 F8 96 -4.761
62 F8 97 -4.272
62 F8 98 -6.226
62 F8 99 -10.132
62 F8 100 -14.038
62 F8 101 -15.991
62 F8 102 -16.479
62 F8 103 -15.015
62 F8 104 -13.550
62 F8 105 -13.062
62 F8 106 -12.573
62 F8 107 -11.597
62 F8 108 -9.644
62 F8 109 -6.714
62 F8 110 -4.272
62 F8 111 -1.831
62 F8 112 0.122
62 F8 113 2.075
62 F8 114 3.540
62 F8 115 5.005
62 F8 116 5.005
62 F8 117 3.540
62 F8 118 2.075
62 F8 119 0.122
62 F8 120 -1.343
62 F8 121 -2.319
62 F8 122 -3.784
62 F8 123 -5.737
62 F8 124 -7.690
62 F8 125 -9.155
62 F8 126 -9.644
62 F8 127 -9.155
62 F8 128 -9.155
62 F8 129 -9.644
62 F8 130 -11.108
62 F8 131 -12.085
62 F8 132 -11.597
62 F8 133 -10.132
62 F8 134 -7.202
62 F8 135 -3.784
62 F8 136 -0.854
62 F8 137 0.610
62 F8 138 0.610
62 F8 139 -1.343
62 F8 140 -3.784
62 F8 141 -7.202
62 F8 142 -9.155
62 F8 143 -9.155
62 F8 144 -8.179
62 F8 145 -6.714
62 F8 146 -6.714
62 F8 147 -8.667
62 F8 148 -11.597
62 F8 149 -14.526
62 F8 150 -16.479
62 F8 151 -16.479
62 F8 152 -16.479
62 F8 153 -15.991
62 F8 154 -15.991
62 F8 155 -15.991
62 F8 156 -15.503
62 F8 157 -13.550
62 F8 158 -9.644
62 F8 159 -4.761
62 F8 160 -1.343
62 F8 161 -0.854
62 F8 162 -1.831
62 F8 163 -3.296
62 F8 164 -4.272
62 F8 165 -3.296
62 F8 166 -1.343
62 F8 167 0.122
62 F8 168 0.122
62 F8 169 -1.343
62 F8 170 -3.784
62 F8 171 -6.714
62 F8 172 -8.179
62 F8 173 -9.155
62 F8 174 -10.620
62 F8 175 -11.597
62 F8 176 -12.573
62 F8 177 -13.062
62 F8 178 -14.038
62 F8 179 -14.526
62 F8 180 -15.503
62 F8 181 -15.503
62 F8 182 -14.038
62 F8 183 -12.573
62 F8 184 -10.620
62 F8 185 -9.644
62 F8 186 -9.644
62 F8 187 -9.644
62 F8 188 -9.644
62 F8 189 -10.132
62 F8 190 -10.132
62 F8 191 -10.620
62 F8 192 -11.597
62 F8 193 -12.573
62 F8 194 -14.038
62 F8 195 -14.526
62 F8 196 -15.015
62 F8 197 -15.991
62 F8 198 -16.479
62 F8 199 -16.479
62 F8 200 -15.015
62 F8 201 -12.573
62 F8 202 -9.644
62 F8 203 -7.690
62 F8 204 -7.202
62 F8 205 -7.690
62 F8 206 -7.202
62 F8 207 -6.226
62 F8 208 -4.272
62 F8 209 -2.319
62 F8 210 -1.831
62 F8 211 -2.319
62 F8 212 -3.296
62 F8 213 -3.784
62 F8 214 -3.296
62 F8 215 -1.343
62 F8 216 1.099
62 F8 217 3.540
62 F8 218 5.981
62 F8 219 8.911
62 F8 220 11.841
62 F8 221 15.259
62 F8 222 17.700
62 F8 223 19.653
62 F8 224 20.630
62 F8 225 22.095
62 F8 226 22.583
62 F8 227 22.583
62 F8 228 22.095
62 F8 229 21.118
62 F8 230 20.630
62 F8 231 21.118
62 F8 232 22.583
62 F8 233 23.560
62 F8 234 23.560
62 F8 235 23.071
62 F8 236 22.095
62 F8 237 22.095
62 F8 238 22.583
62 F8 239 23.071
62 F8 240 22.583
62 F8 241 21.118
62 F8 242 20.142
62 F8 243 19.653
62 F8 244 20.630
62 F8 245 21.606
62 F8 246 21.606
62 F8 247 21.118
62 F8 248 20.630
62 F8 249 21.606
62 F8 250 22.095
62 F8 251 22.583
62 F8 252 20.630
62 F8 253 17.212
62 F8 254 13.794
62 F8 255 13.794
# AF1 chan 4
62 AF1 0 -2.492
62 AF1 1 -0.539
62 AF1 2 1.414
62 AF1 3 2.879
62 AF1 4 4.344
62 AF1 5 5.809
62 AF1 6 6.297
62 AF1 7 5.809
62 AF1 8 4.344
62 AF1 9 2.391
62 AF1 10 0.437
62 AF1 11 -0.051
62 AF1 12 -0.051
62 AF1 13 0.437
62 AF1 14 1.414
62 AF1 15 1.414
62 AF1 16 0.926
62 AF1 17 -0.539
62 AF1 18 -2.981
62 AF1 19 -5.910
62 AF1 20 -8.352
62 AF1 21 -9.328
62 AF1 22 -8.352
62 AF1 23 -5.422
62 AF1 24 -2.004
62 AF1 25 0.437
62 AF1 26 1.414
62 AF1 27 1.414
62 AF1 28 -0.051
62 AF1 29 -1.516
62 AF1 30 -3.957
62 AF1 31 -5.422
62 AF1 32 -5.422
62 AF1 33 -4.934
62 AF1 34 -3.957
62 AF1 35 -3.469
62 AF1 36 -3.469
62 AF1 37 -4.445
62 AF1 38 -4.934
62 AF1 39 -5.910
62 AF1 40 -6.399
62 AF1 41 -6.399
62 AF1 42 -5.910
62 AF1 43 -5.422
62 AF1 44 -3.469
62 AF1 45 -1.027
62 AF1 46 1.414
62 AF1 47 2.879
62 AF1 48 2.879
62 AF1 49 1.414
62 AF1 50 -1.027
62 AF1 51 -3.469
62 AF1 52 -4.445
62 AF1 53 -4.445
62 AF1 54 -3.957
62 AF1 55 -2.981
62 AF1 56 -1.516
62 AF1 57 -0.539
62 AF1 58 0.437
62 AF1 59 0.926
62 AF1 60 0.926
62 AF1 61 -0.051
62 AF1 62 -0.539
62 AF1 63 -1.027
62 AF1 64 -1.516
62 AF1 65 -2.492
62 AF1 66 -3.469
62 AF1 67 -4.934
62 AF1 68 -5.422
62 AF1 69 -5.422
62 AF1 70 -4.934
62 AF1 71 -3.469
62 AF1 72 -2.004
62 AF1 73 -1.516
62 AF1 74 -1.027
62 AF1 75 -1.027
62 AF1 76 -0.051
62 AF1 77 1.414
62 AF1 78 3.367
62 AF1 79 3.855
62 AF1 80 2.391
62 AF1 81 -0.539
62 AF1 82 -3.957
62 AF1 83 -6.887
62 AF1 84 -8.840
62 AF1 85 -10.793
62 AF1 86 -12.746
62 AF1 87 -15.188
62 AF1 88 -17.629
62 AF1 89 -19.582
62 AF1 90 -21.047
62 AF1 91 -21.535
62 AF1 92 -22.024
62 AF1 93 -22.024
62 AF1 94 -22.024
62 AF1 95 -21.535
62 AF1 96 -21.047
62 AF1 97 -21.535
62 AF1 98 -23.000
62 AF1 99 -25.441
62 AF1 100 -27.883
62 AF1 101 -28.371
62 AF1 102 -27.395
62 AF1 103 -24.953
62 AF1 104 -22.512
62 AF1 105 -21.535
62 AF1 106 -21.535
62 AF1 107 -22.024
62 AF1 108 -22.024
62 AF1 109 -21.047
62 AF1 110 -20.559
62 AF1 111 -20.070
62 AF1 112 -20.559
62 AF1 113 -21.047
62 AF1 114 -21.047
62 AF1 115 -20.070
62 AF1 116 -18.606
62 AF1 117 -17.141
62 AF1 118 -16.164
62 AF1 119 -15.676
62 AF1 120 -15.188
62 AF1 121 -14.699
62 AF1 122 -14.699
62 AF1 123 -15.188
62 AF1 124 -15.676
62 AF1 125 -15.676
62 AF1 126 -15.188
62 AF1 127 -14.211
62 AF1 128 -14.699
62 AF1 129 -16.164
62 AF1 130 -18.606
62 AF1 131 -21.047
62 AF1 132 -22.024
62 AF1 133 -20.559
62 AF1 134 -17.629
62 AF1 135 -13.723
62 AF1 136 -10.305
62 AF1 137 -7.863
62 AF1 138 -7.863
62 AF1 139 -8.840
62 AF1 140 -10.793
62 AF1 141 -13.234
62 AF1 142 -15.676
62 AF1 143 -17.141
62 AF1 144 -19.094
62 AF1 145 -21.047
62 AF1 146 -22.512
62 AF1 147 -24.465
62 AF1 148 -26.906
62 AF1 149 -29.836
62 AF1 150 -31.301
62 AF1 151 -32.277
62 AF1 152 -31.789
62 AF1 153 -30.813
62 AF1 154 -30.324
62 AF1 155 -29.836
62 AF1 156 -30.324
62 AF1 157 -30.813
62 AF1 158 -30.324
62 AF1 159 -29.348
62 AF1 160 -27.883
62 AF1 161 -26.418
62 AF1 162 -25.930
62 AF1 163 -26.418
62 AF1 164 -26.906
62 AF1 165 -26.418
62 AF1 166 -25.930
62 AF1 167 -24.465
62 AF1 168 -22.512
62 AF1 169 -21.535
62 AF1 170 -21.047
62 AF1 171 -22.512
62 AF1 172 -24.953
62 AF1 173 -27.395
62 AF1 174 -29.348
62 AF1 175 -29.348
62 AF1 176 -28.371
62 AF1 177 -27.395
62 AF1 178 -26.906
62 AF1 179 -26.906
62 AF1 180 -28.371
62 AF1 181 -28.859
62 AF1 182 -28.859
62 AF1 183 -28.371
62 AF1 184 -27.883
62 AF1 185 -28.371
62 AF1 186 -29.348
62 AF1 187 -30.324
62 AF1 188 -30.324
62 AF1 189 -30.324
62 AF1 190 -29.348
62 AF1 191 -28.371
62 AF1 192 -27.883
62 AF1 193 -27.883
62 AF1 194 -28.371
62 AF1 195 -28.859
62 AF1 196 -29.836
62 AF1 197 -30.813
62 AF1 198 -30.813
62 AF1 199 -30.813
62 AF1 200 -29.348
62 AF1 201 -27.395
62 AF1 202 -25.930
62 AF1 203 -24.953
62 AF1 204 -25.441
62 AF1 205 -25.441
62 AF1 206 -24.465
62 AF1 207 -22.024
62 AF1 208 -18.606
62 AF1 209 -14.211
62 AF1 210 -11.281
62 AF1 211 -9.816
62 AF1 212 -9.328
62 AF1 213 -8.352
62 AF1 214 -5.910
62 AF1 215 -2.492
62 AF1 216 1.414
62 AF1 217 5.320
62 AF1 218 7.762
62 AF1 219 10.691
62 AF1 220 13.133
62 AF1 221 15.574
62 AF1 222 18.504
62 AF1 223 20.457
62 AF1 224 22.898
62 AF1 225 23.875
62 AF1 226 25.340
62 AF1 227 26.316
62 AF1 228 26.316
62 AF1 229 25.828
62 AF1 230 25.340
62 AF1 231 25.340
62 AF1 232 25.828
62 AF1 233 26.805
62 AF1 234 26.316
62 AF1 235 25.340
62 AF1 236 22.898
62 AF1 237 20.945
62 AF1 238 18.504
62 AF1 239 17.039
62 AF1 240 16.551
62 AF1 241 16.062
62 AF1 242 16.062
62 AF1 243 16.062
62 AF1 244 16.551
62 AF1 245 17.527
62 AF1 246 18.504
62 AF1 247 19.969
62 AF1 248 20.945
62 AF1 249 22.410
62 AF1 250 23.387
62 AF1 251 23.875
62 AF1 252 23.875
62 AF1 253 23.387
62 AF1 254 22.898
62 AF1 255 23.875
# AF2 chan 5
62 AF2 0 -1.190
62 AF2 1 0.275
62 AF2 2 2.228
62 AF2 3 4.669
62 AF2 4 7.111
62 AF2 5 10.040
62 AF2 6 11.993
62 AF2 7 11.505
62 AF2 8 9.552
62 AF2 9 7.111
62 AF2 10 4.669
62 AF2 11 3.693
62 AF2 12 4.669
62 AF2 13 5.646
62 AF2 14 6.134
62 AF2 15 5.157
62 AF2 16 3.693
62 AF2 17 1.740
62 AF2 18 -0.702
62 AF2 19 -2.655
62 AF2 20 -3.632
62 AF2 21 -3.632
62 AF2 22 -2.167
62 AF2 23 0.275
62 AF2 24 3.204
62 AF2 25 5.157
62 AF2 26 5.646
62 AF2 27 5.157
62 AF2 28 3.693
62 AF2 29 2.228
62 AF2 30 1.251
62 AF2 31 0.763
62 AF2 32 1.251
62 AF2 33 1.740
62 AF2 34 1.251
62 AF2 35 0.763
62 AF2 36 0.763
62 AF2 37 0.275
62 AF2 38 0.275
62 AF2 39 -0.214
62 AF2 40 -1.190
62 AF2 41 -1.678
62 AF2 42 -1.190
62 AF2 43 0.275
62 AF2 44 2.716
62 AF2 45 4.669
62 AF2 46 6.622
62 AF2 47 6.622
62 AF2 48 6.134
62 AF2 49 4.669
62 AF2 50 2.716
62 AF2 51 0.275
62 AF2 52 -1.190
62 AF2 53 -0.702
62 AF2 54 0.275
62 AF2 55 3.204
62 AF2 56 5.646
62 AF2 57 6.622
62 AF2 58 6.622
62 AF2 59 6.134
62 AF2 60 5.646
62 AF2 61 5.646
62 AF2 62 5.646
62 AF2 63 6.134
62 AF2 64 6.134
62 AF2 65 5.157
62 AF2 66 4.181
62 AF2 67 3.204
62 AF2 68 3.204
62 AF2 69 3.204
62 AF2 70 3.693
62 AF2 71 4.669
62 AF2 72 5.646
62 AF2 73 7.111
62 AF2 74 8.087
62 AF2 75 9.064
62 AF2 76 10.040
62 AF2 77 11.017
62 AF2 78 11.505
62 AF2 79 10.529
62 AF2 80 8.575
62 AF2 81 5.157
62 AF2 82 1.251
62 AF2 83 -2.167
62 AF2 84 -5.096
62 AF2 85 -6.561
62 AF2 86 -7.538
62 AF2 87 -9.003
62 AF2 88 -9.979
62 AF2 89 -11.444
62 AF2 90 -12.909
62 AF2 91 -13.885
62 AF2 92 -14.862
62 AF2 93 -15.350
62 AF2 94 -14.374
62 AF2 95 -12.909
62 AF2 96 -11.932
62 AF2 97 -11.932
62 AF2 98 -14.374
62 AF2 99 -18.280
62 AF2 100 -21.698
62 AF2 101 -23.163
62 AF2 102 -21.698
62 AF2 103 -18.280
62 AF2 104 -15.350
62 AF2 105 -14.374
62 AF2 106 -14.862
62 AF2 107 -16.327
62 AF2 108 -16.327
62 AF2 109 -15.839
62 AF2 110 -13.397
62 AF2 111 -11.932
62 AF2 112 -10.468
62 AF2 113 -9.979
62 AF2 114 -10.468
62 AF2 115 -10.468
62 AF2 116 -10.956
62 AF2 117 -10.468
62 AF2 118 -9.979
62 AF2 119 -9.491
62 AF2 120 -8.026
62 AF2 121 -7.050
62 AF2 122 -6.561
62 AF2 123 -6.561
62 AF2 124 -7.050
62 AF2 125 -6.073
62 AF2 126 -5.585
62 AF2 127 -4.608
62 AF2 128 -4.120
62 AF2 129 -5.096
62 AF2 130 -6.561
62 AF2 131 -7.538
62 AF2 132 -7.050
62 AF2 133 -4.608
62 AF2 134 -1.190
62 AF2 135 2.716
62 AF2 136 5.646
62 AF2 137 7.599
62 AF2 138 6.622
62 AF2 139 4.669
62 AF2 140 1.740
62 AF2 141 -1.190
62 AF2 142 -3.143
62 AF2 143 -4.120
62 AF2 144 -5.096
62 AF2 145 -5.096
62 AF2 146 -5.585
62 AF2 147 -7.050
62 AF2 148 -8.514
62 AF2 149 -10.468
62 AF2 150 -12.421
62 AF2 151 -13.397
62 AF2 152 -14.374
62 AF2 153 -14.862
62 AF2 154 -14.862
62 AF2 155 -14.862
62 AF2 156 -14.374
62 AF2 157 -13.397
62 AF2 158 -10.956
62 AF2 159 -8.026
62 AF2 160 -4.608
62 AF2 161 -3.632
62 AF2 162 -4.120
62 AF2 163 -5.585
62 AF2 164 -7.050
62 AF2 165 -6.073
62 AF2 166 -5.096
62 AF2 167 -2.655
62 AF2 168 -0.702
62 AF2 169 0.275
62 AF2 170 0.275
62 AF2 171 -1.190
62 AF2 172 -3.143
62 AF2 173 -5.585
62 AF2 174 -6.561
62 AF2 175 -7.050
62 AF2 176 -6.073
62 AF2 177 -5.096
62 AF2 178 -4.608
62 AF2 179 -5.096
62 AF2 180 -6.561
62 AF2 181 -8.514
62 AF2 182 -9.979
62 AF2 183 -10.468
62 AF2 184 -10.468
62 AF2 185 -9.979
62 AF2 186 -9.979
62 AF2 187 -9.979
62 AF2 188 -9.979
62 AF2 189 -9.979
62 AF2 190 -9.979
62 AF2 191 -10.468
62 AF2 192 -10.956
62 AF2 193 -10.956
62 AF2 194 -10.468
62 AF2 195 -9.979
62 AF2 196 -8.514
62 AF2 197 -7.538
62 AF2 198 -7.050
62 AF2 199 -7.050
62 AF2 200 -6.073
62 AF2 201 -5.096
62 AF2 202 -3.143
62 AF2 203 -1.678
62 AF2 204 -0.702
62 AF2 205 -1.190
62 AF2 206 -0.702
62 AF2 207 -0.214
62 AF2 208 1.740
62 AF2 209 4.669
62 AF2 210 6.622
62 AF2 211 8.087
62 AF2 212 9.552
62 AF2 213 11.017
62 AF2 214 14.435
62 AF2 215 18.341
62 AF2 216 22.247
62 AF2 217 25.665
62 AF2 218 28.107
62 AF2 219 30.060
62 AF2 220 31.525
62 AF2 221 33.966
62 AF2 222 35.919
62 AF2 223 38.361
62 AF2 224 40.802
62 AF2 225 43.243
62 AF2 226 45.197
62 AF2 227 46.661
62 AF2 228 46.661
62 AF2 229 45.685
62 AF2 230 44.708
62 AF2 231 43.732
62 AF2 232 44.220
62 AF2 233 44.708
62 AF2 234 45.197
62 AF2 235 44.220
62 AF2 236 42.267
62 AF2 237 39.825
62 AF2 238 37.872
62 AF2 239 36.896
62 AF2 240 36.896
62 AF2 241 35.919
62 AF2 242 34.943
62 AF2 243 33.478
62 AF2 244 32.013
62 AF2 245 32.013
62 AF2 246 32.013
62 AF2 247 32.990
62 AF2 248 34.943
62 AF2 249 37.384
62 AF2 250 38.849
62 AF2 251 39.337
62 AF2 252 37.872
62 AF2 253 35.431
62 AF2 254 33.966
62 AF2 255 33.966
# FZ chan 6
62 FZ 0 -2.787
62 FZ 1 -1.811
62 FZ 2 0.142
62 FZ 3 2.584
62 FZ 4 5.514
62 FZ 5 7.467
62 FZ 6 8.931
62 FZ 7 8.931
62 FZ 8 7.467
62 FZ 9 5.514
62 FZ 10 4.049
62 FZ 11 3.072
62 FZ 12 2.584
62 FZ 13 2.584
62 FZ 14 3.072
62 FZ 15 4.049
62 FZ 16 4.537
62 FZ 17 4.537
62 FZ 18 3.072
62 FZ 19 0.631
62 FZ 20 -2.299
62 FZ 21 -4.740
62 FZ 22 -4.252
62 FZ 23 -2.299
62 FZ 24 1.119
62 FZ 25 4.537
62 FZ 26 6.002
62 FZ 27 5.514
62 FZ 28 4.049
62 FZ 29 2.584
62 FZ 30 1.607
62 FZ 31 1.119
62 FZ 32 0.631
62 FZ 33 0.142
62 FZ 34 -1.322
62 FZ 35 -2.299
62 FZ 36 -1.811
62 FZ 37 -1.322
62 FZ 38 -0.346
62 FZ 39 -0.346
62 FZ 40 -0.346
62 FZ 41 -0.834
62 FZ 42 -1.322
62 FZ 43 -0.834
62 FZ 44 -0.346
62 FZ 45 0.631
62 FZ 46 1.119
62 FZ 47 1.607
62 FZ 48 1.607
62 FZ 49 1.119
62 FZ 50 -0.346
62 FZ 51 -2.299
62 FZ 52 -4.252
62 FZ 53 -5.229
62 FZ 54 -4.740
62 FZ 55 -2.787
62 FZ 56 -0.346
62 FZ 57 1.119
62 FZ 58 2.584
62 FZ 59 3.072
62 FZ 60 3.560
62 FZ 61 4.049
62 FZ 62 4.049
62 FZ 63 3.072
62 FZ 64 1.607
62 FZ 65 0.142
62 FZ 66 -0.834
62 FZ 67 -1.322
62 FZ 68 -1.322
62 FZ 69 -0.834
62 FZ 70 -0.834
62 FZ 71 -0.834
62 FZ 72 0.631
62 FZ 73 2.096
62 FZ 74 3.560
62 FZ 75 4.537
62 FZ 76 6.002
62 FZ 77 6.490
62 FZ 78 6.978
62 FZ 79 7.467
62 FZ 80 6.490
62 FZ 81 4.537
62 FZ 82 2.096
62 FZ 83 -0.346
62 FZ 84 -1.811
62 FZ 85 -2.787
62 FZ 86 -3.276
62 FZ 87 -5.229
62 FZ 88 -7.182
62 FZ 89 -10.111
62 FZ 90 -11.576
62 FZ 91 -12.553
62 FZ 92 -12.065
62 FZ 93 -11.576
62 FZ 94 -11.088
62 FZ 95 -11.088
62 FZ 96 -11.088
62 FZ 97 -11.576
62 FZ 98 -12.553
62 FZ 99 -14.018
62 FZ 100 -15.483
62 FZ 101 -15.971
62 FZ 102 -14.506
62 FZ 103 -13.041
62 FZ 104 -11.576
62 FZ 105 -11.576
62 FZ 106 -13.529
62 FZ 107 -15.483
62 FZ 108 -16.459
62 FZ 109 -15.483
62 FZ 110 -14.018
62 FZ 111 -13.041
62 FZ 112 -13.041
62 FZ 113 -13.529
62 FZ 114 -14.018
62 FZ 115 -13.041
62 FZ 116 -11.576
62 FZ 117 -10.111
62 FZ 118 -9.135
62 FZ 119 -8.158
62 FZ 120 -8.158
62 FZ 121 -8.158
62 FZ 122 -8.158
62 FZ 123 -8.647
62 FZ 124 -9.135
62 FZ 125 -9.135
62 FZ 126 -8.158
62 FZ 127 -7.182
62 FZ 128 -6.694
62 FZ 129 -7.182
62 FZ 130 -8.647
62 FZ 131 -10.111
62 FZ 132 -11.088
62 FZ 133 -10.111
62 FZ 134 -8.647
62 FZ 135 -5.717
62 FZ 136 -3.764
62 FZ 137 -2.299
62 FZ 138 -2.299
62 FZ 139 -2.787
62 FZ 140 -4.252
62 FZ 141 -5.717
62 FZ 142 -7.182
62 FZ 143 -8.647
62 FZ 144 -9.623
62 FZ 145 -10.600
62 FZ 146 -11.088
62 FZ 147 -12.065
62 FZ 148 -13.041
62 FZ 149 -14.994
62 FZ 150 -16.459
62 FZ 151 -17.436
62 FZ 152 -17.924
62 FZ 153 -17.436
62 FZ 154 -17.436
62 FZ 155 -17.436
62 FZ 156 -17.436
62 FZ 157 -17.924
62 FZ 158 -16.947
62 FZ 159 -15.483
62 FZ 160 -14.018
62 FZ 161 -12.553
62 FZ 162 -12.065
62 FZ 163 -12.553
62 FZ 164 -13.529
62 FZ 165 -14.018
62 FZ 166 -13.529
62 FZ 167 -12.065
62 FZ 168 -10.111
62 FZ 169 -8.158
62 FZ 170 -6.694
62 FZ 171 -6.694
62 FZ 172 -7.670
62 FZ 173 -9.135
62 FZ 174 -9.623
62 FZ 175 -9.623
62 FZ 176 -9.135
62 FZ 177 -8.647
62 FZ 178 -8.647
62 FZ 179 -9.623
62 FZ 180 -10.600
62 FZ 181 -12.065
62 FZ 182 -13.041
62 FZ 183 -13.529
62 FZ 184 -14.018
62 FZ 185 -13.529
62 FZ 186 -13.529
62 FZ 187 -13.041
62 FZ 188 -12.065
62 FZ 189 -12.065
62 FZ 190 -11.576
62 FZ 191 -11.576
62 FZ 192 -12.065
62 FZ 193 -12.553
62 FZ 194 -13.529
62 FZ 195 -14.018
62 FZ 196 -14.506
62 FZ 197 -14.994
62 FZ 198 -15.483
62 FZ 199 -14.994
62 FZ 200 -13.529
62 FZ 201 -11.576
62 FZ 202 -10.600
62 FZ 203 -10.111
62 FZ 204 -10.111
62 FZ 205 -10.600
62 FZ 206 -10.600
62 FZ 207 -9.623
62 FZ 208 -8.158
62 FZ 209 -6.694
62 FZ 210 -4.740
62 FZ 211 -3.764
62 FZ 212 -2.787
62 FZ 213 -2.299
62 FZ 214 -1.322
62 FZ 215 0.142
62 FZ 216 2.096
62 FZ 217 4.537
62 FZ 218 5.514
62 FZ 219 6.490
62 FZ 220 6.978
62 FZ 221 7.467
62 FZ 222 8.931
62 FZ 223 10.885
62 FZ 224 13.326
62 FZ 225 14.791
62 FZ 226 15.767
62 FZ 227 16.256
62 FZ 228 15.767
62 FZ 229 16.256
62 FZ 230 17.232
62 FZ 231 18.209
62 FZ 232 18.697
62 FZ 233 19.185
62 FZ 234 19.185
62 FZ 235 18.209
62 FZ 236 17.721
62 FZ 237 16.744
62 FZ 238 16.256
62 FZ 239 14.791
62 FZ 240 13.814
62 FZ 241 12.838
62 FZ 242 12.349
62 FZ 243 12.838
62 FZ 244 13.814
62 FZ 245 14.791
62 FZ 246 15.279
62 FZ 247 16.256
62 FZ 248 17.232
62 FZ 249 17.721
62 FZ 250 18.697
62 FZ 251 17.721
62 FZ 252 16.256
62 FZ 253 14.303
62 FZ 254 12.838
62 FZ 255 13.326
# F4 chan 7
62 F4 0 -5.524
62 F4 1 -4.547
62 F4 2 -3.571
62 F4 3 -1.617
62 F4 4 0.336
62 F4 5 2.289
62 F4 6 2.777
62 F4 7 2.289
62 F4 8 0.824
62 F4 9 -1.129
62 F4 10 -3.082
62 F4 11 -4.547
62 F4 12 -5.035
62 F4 13 -5.035
62 F4 14 -4.547
62 F4 15 -4.059
62 F4 16 -4.059
62 F4 17 -5.035
62 F4 18 -6.500
62 F4 19 -7.477
62 F4 20 -8.453
62 F4 21 -8.453
62 F4 22 -7.965
62 F4 23 -7.477
62 F4 24 -6.989
62 F4 25 -6.500
62 F4 26 -6.012
62 F4 27 -5.035
62 F4 28 -5.524
62 F4 29 -6.500
62 F4 30 -7.965
62 F4 31 -9.918
62 F4 32 -11.383
62 F4 33 -11.383
62 F4 34 -10.895
62 F4 35 -9.430
62 F4 36 -8.453
62 F4 37 -7.965
62 F4 38 -8.453
62 F4 39 -8.942
62 F4 40 -8.942
62 F4 41 -7.965
62 F4 42 -6.012
62 F4 43 -4.547
62 F4 44 -4.059
62 F4 45 -5.524
62 F4 46 -6.989
62 F4 47 -8.453
62 F4 48 -8.942
62 F4 49 -9.430
62 F4 50 -9.918
62 F4 51 -10.895
62 F4 52 -10.895
62 F4 53 -9.430
62 F4 54 -6.989
62 F4 55 -4.059
62 F4 56 -1.129
62 F4 57 -0.153
62 F4 58 -1.129
62 F4 59 -2.594
62 F4 60 -4.059
62 F4 61 -5.524
62 F4 62 -6.500
62 F4 63 -7.477
62 F4 64 -8.942
62 F4 65 -10.406
62 F4 66 -10.895
62 F4 67 -10.895
62 F4 68 -10.406
62 F4 69 -9.430
62 F4 70 -7.965
62 F4 71 -6.012
62 F4 72 -3.571
62 F4 73 -1.129
62 F4 74 -0.153
62 F4 75 -0.153
62 F4 76 -0.641
62 F4 77 -0.153
62 F4 78 1.312
62 F4 79 1.312
62 F4 80 -0.641
62 F4 81 -4.547
62 F4 82 -9.430
62 F4 83 -12.848
62 F4 84 -13.336
62 F4 85 -11.871
62 F4 86 -10.406
62 F4 87 -9.918
62 F4 88 -10.895
62 F4 89 -12.848
62 F4 90 -13.824
62 F4 91 -14.801
62 F4 92 -15.289
62 F4 93 -15.778
62 F4 94 -15.778
62 F4 95 -15.778
62 F4 96 -15.289
62 F4 97 -14.801
62 F4 98 -15.289
62 F4 99 -17.731
62 F4 100 -20.660
62 F4 101 -23.102
62 F4 102 -23.102
62 F4 103 -21.149
62 F4 104 -18.707
62 F4 105 -17.731
62 F4 106 -19.684
62 F4 107 -21.637
62 F4 108 -23.102
62 F4 109 -22.125
62 F4 110 -19.684
62 F4 111 -18.219
62 F4 112 -17.731
62 F4 113 -18.219
62 F4 114 -18.219
62 F4 115 -17.242
62 F4 116 -15.778
62 F4 117 -15.289
62 F4 118 -15.778
62 F4 119 -16.754
62 F4 120 -17.242
62 F4 121 -16.266
62 F4 122 -14.801
62 F4 123 -13.336
62 F4 124 -13.336
62 F4 125 -13.824
62 F4 126 -14.313
62 F4 127 -12.848
62 F4 128 -10.406
62 F4 129 -7.965
62 F4 130 -6.500
62 F4 131 -6.500
62 F4 132 -6.500
62 F4 133 -6.012
62 F4 134 -3.571
62 F4 135 -1.129
62 F4 136 0.336
62 F4 137 -0.153
62 F4 138 -2.106
62 F4 139 -5.035
62 F4 140 -7.477
62 F4 141 -8.453
62 F4 142 -8.942
62 F4 143 -8.942
62 F4 144 -9.430
62 F4 145 -9.430
62 F4 146 -8.942
62 F4 147 -8.942
62 F4 148 -9.918
62 F4 149 -12.848
62 F4 150 -17.242
62 F4 151 -21.149
62 F4 152 -23.590
62 F4 153 -24.078
62 F4 154 -23.102
62 F4 155 -21.637
62 F4 156 -20.660
62 F4 157 -19.684
62 F4 158 -16.754
62 F4 159 -13.336
62 F4 160 -9.918
62 F4 161 -8.453
62 F4 162 -8.942
62 F4 163 -11.383
62 F4 164 -14.313
62 F4 165 -16.266
62 F4 166 -16.754
62 F4 167 -14.313
62 F4 168 -11.383
62 F4 169 -8.942
62 F4 170 -6.989
62 F4 171 -6.989
62 F4 172 -8.942
62 F4 173 -10.895
62 F4 174 -12.848
62 F4 175 -12.848
62 F4 176 -11.871
62 F4 177 -10.895
62 F4 178 -10.895
62 F4 179 -12.848
62 F4 180 -15.778
62 F4 181 -18.219
62 F4 182 -19.684
62 F4 183 -18.707
62 F4 184 -16.754
62 F4 185 -15.289
62 F4 186 -14.313
62 F4 187 -14.313
62 F4 188 -13.824
62 F4 189 -13.824
62 F4 190 -13.824
62 F4 191 -14.801
62 F4 192 -16.754
62 F4 193 -18.219
62 F4 194 -18.707
62 F4 195 -18.219
62 F4 196 -17.242
62 F4 197 -16.754
62 F4 198 -16.754
62 F4 199 -17.242
62 F4 200 -17.242
62 F4 201 -15.778
62 F4 202 -13.824
62 F4 203 -11.383
62 F4 204 -9.918
62 F4 205 -8.942
62 F4 206 -7.965
62 F4 207 -6.500
62 F4 208 -4.059
62 F4 209 -2.594
62 F4 210 -2.594
62 F4 211 -3.571
62 F4 212 -5.035
62 F4 213 -5.524
62 F4 214 -4.059
62 F4 215 -1.129
62 F4 216 1.312
62 F4 217 2.777
62 F4 218 4.242
62 F4 219 5.219
62 F4 220 5.707
62 F4 221 6.683
62 F4 222 7.660
62 F4 223 8.636
62 F4 224 10.101
62 F4 225 12.054
62 F4 226 14.984
62 F4 227 15.961
62 F4 228 16.449
62 F4 229 15.472
62 F4 230 14.984
62 F4 231 15.961
62 F4 232 17.426
62 F4 233 18.890
62 F4 234 18.890
62 F4 235 17.914
62 F4 236 16.449
62 F4 237 14.984
62 F4 238 14.984
62 F4 239 14.984
62 F4 240 14.496
62 F4 241 13.519
62 F4 242 13.519
62 F4 243 13.519
62 F4 244 14.496
62 F4 245 15.961
62 F4 246 16.449
62 F4 247 15.961
62 F4 248 15.472
62 F4 249 15.961
62 F4 250 17.426
62 F4 251 19.379
62 F4 252 19.379
62 F4 253 17.426
62 F4 254 14.496
62 F4 255 12.543
# F3 chan 8
62 F3 0 -0.549
62 F3 1 0.916
62 F3 2 2.869
62 F3 3 4.822
62 F3 4 7.263
62 F3 5 9.216
62 F3 6 10.681
62 F3 7 10.681
62 F3 8 9.705
62 F3 9 7.751
62 F3 10 6.287
62 F3 11 4.822
62 F3 12 4.822
62 F3 13 4.822
62 F3 14 6.287
62 F3 15 7.263
62 F3 16 8.240
62 F3 17 8.240
62 F3 18 6.775
62 F3 19 4.333
62 F3 20 1.892
62 F3 21 0.427
62 F3 22 0.916
62 F3 23 2.869
62 F3 24 5.798
62 F3 25 8.240
62 F3 26 8.728
62 F3 27 7.751
62 F3 28 6.287
62 F3 29 4.822
62 F3 30 3.845
62 F3 31 3.845
62 F3 32 3.845
62 F3 33 4.333
62 F3 34 4.333
62 F3 35 4.333
62 F3 36 3.845
62 F3 37 3.357
62 F3 38 3.357
62 F3 39 2.869
62 F3 40 2.380
62 F3 41 1.892
62 F3 42 1.892
62 F3 43 2.380
62 F3 44 3.357
62 F3 45 5.310
62 F3 46 7.263
62 F3 47 8.240
62 F3 48 7.751
62 F3 49 6.287
62 F3 50 3.357
62 F3 51 0.916
62 F3 52 0.427
62 F3 53 0.916
62 F3 54 2.869
62 F3 55 5.310
62 F3 56 7.263
62 F3 57 8.728
62 F3 58 9.705
62 F3 59 10.681
62 F3 60 10.681
62 F3 61 10.681
62 F3 62 9.705
62 F3 63 8.728
62 F3 64 7.751
62 F3 65 6.287
62 F3 66 5.310
62 F3 67 4.333
62 F3 68 3.845
62 F3 69 3.357
62 F3 70 4.333
62 F3 71 5.798
62 F3 72 7.751
62 F3 73 9.216
62 F3 74 9.705
62 F3 75 10.193
62 F3 76 11.658
62 F3 77 14.099
62 F3 78 16.541
62 F3 79 18.494
62 F3 80 18.005
62 F3 81 15.564
62 F3 82 12.146
62 F3 83 9.216
62 F3 84 6.775
62 F3 85 5.310
62 F3 86 3.845
62 F3 87 1.404
62 F3 88 -1.038
62 F3 89 -3.479
62 F3 90 -5.432
62 F3 91 -5.920
62 F3 92 -5.920
62 F3 93 -5.432
62 F3 94 -4.456
62 F3 95 -3.479
62 F3 96 -2.991
62 F3 97 -4.456
62 F3 98 -7.385
62 F3 99 -10.315
62 F3 100 -12.268
62 F3 101 -11.292
62 F3 102 -7.874
62 F3 103 -4.944
62 F3 104 -2.014
62 F3 105 -1.526
62 F3 106 -2.502
62 F3 107 -3.479
62 F3 108 -3.479
62 F3 109 -2.502
62 F3 110 -2.014
62 F3 111 -1.526
62 F3 112 -1.526
62 F3 113 -2.014
62 F3 114 -2.014
62 F3 115 -1.526
62 F3 116 -1.038
62 F3 117 0.427
62 F3 118 1.892
62 F3 119 3.845
62 F3 120 5.310
62 F3 121 6.775
62 F3 122 6.775
62 F3 123 6.775
62 F3 124 7.263
62 F3 125 8.240
62 F3 126 9.216
62 F3 127 9.705
62 F3 128 7.751
62 F3 129 4.822
62 F3 130 1.404
62 F3 131 -1.038
62 F3 132 -1.526
62 F3 133 -0.061
62 F3 134 2.869
62 F3 135 5.798
62 F3 136 7.751
62 F3 137 9.216
62 F3 138 10.193
62 F3 139 10.681
62 F3 140 10.193
62 F3 141 9.216
62 F3 142 7.263
62 F3 143 5.310
62 F3 144 3.357
62 F3 145 2.380
62 F3 146 0.916
62 F3 147 -0.549
62 F3 148 -2.502
62 F3 149 -4.456
62 F3 150 -6.409
62 F3 151 -7.385
62 F3 152 -7.385
62 F3 153 -6.897
62 F3 154 -6.409
62 F3 155 -6.409
62 F3 156 -6.409
62 F3 157 -5.920
62 F3 158 -4.456
62 F3 159 -2.991
62 F3 160 -1.526
62 F3 161 -0.549
62 F3 162 -0.061
62 F3 163 0.427
62 F3 164 0.427
62 F3 165 0.916
62 F3 166 1.404
62 F3 167 2.380
62 F3 168 3.357
62 F3 169 4.333
62 F3 170 4.333
62 F3 171 3.357
62 F3 172 1.892
62 F3 173 0.427
62 F3 174 -0.549
62 F3 175 -0.061
62 F3 176 0.916
62 F3 177 1.892
62 F3 178 2.380
62 F3 179 1.892
62 F3 180 0.916
62 F3 181 -0.061
62 F3 182 -0.549
62 F3 183 -0.061
62 F3 184 -0.061
62 F3 185 -0.061
62 F3 186 -0.061
62 F3 187 -0.061
62 F3 188 0.916
62 F3 189 1.404
62 F3 190 1.892
62 F3 191 1.404
62 F3 192 0.427
62 F3 193 -0.061
62 F3 194 -1.038
62 F3 195 -0.549
62 F3 196 -0.549
62 F3 197 -0.549
62 F3 198 -0.061
62 F3 199 -0.061
62 F3 200 0.427
62 F3 201 1.404
62 F3 202 1.404
62 F3 203 1.404
62 F3 204 0.916
62 F3 205 0.916
62 F3 206 1.892
62 F3 207 3.357
62 F3 208 5.310
62 F3 209 7.263
62 F3 210 8.728
62 F3 211 10.193
62 F3 212 10.681
62 F3 213 10.681
62 F3 214 12.146
62 F3 215 13.611
62 F3 216 16.052
62 F3 217 18.982
62 F3 218 21.423
62 F3 219 23.376
62 F3 220 24.353
62 F3 221 25.330
62 F3 222 26.794
62 F3 223 28.748
62 F3 224 30.212
62 F3 225 30.701
62 F3 226 31.189
62 F3 227 30.701
62 F3 228 30.701
62 F3 229 31.189
62 F3 230 31.677
62 F3 231 32.166
62 F3 232 33.142
62 F3 233 33.630
62 F3 234 33.142
62 F3 235 32.654
62 F3 236 30.701
62 F3 237 28.259
62 F3 238 26.306
62 F3 239 25.330
62 F3 240 25.330
62 F3 241 25.818
62 F3 242 26.306
62 F3 243 25.818
62 F3 244 25.818
62 F3 245 25.818
62 F3 246 27.283
62 F3 247 28.748
62 F3 248 30.701
62 F3 249 32.166
62 F3 250 32.654
62 F3 251 32.166
62 F3 252 31.189
62 F3 253 30.701
62 F3 254 30.212
62 F3 255 30.212
# FC6 chan 9
62 FC6 0 0.478
62 FC6 1 1.455
62 FC6 2 2.920
62 FC6 3 3.896
62 FC6 4 5.361
62 FC6 5 6.337
62 FC6 6 7.802
62 FC6 7 8.779
62 FC6 8 9.267
62 FC6 9 8.291
62 FC6 10 7.802
62 FC6 11 6.337
62 FC6 12 5.849
62 FC6 13 5.849
62 FC6 14 5.361
62 FC6 15 4.384
62 FC6 16 3.896
62 FC6 17 4.384
62 FC6 18 4.873
62 FC6 19 5.849
62 FC6 20 6.337
62 FC6 21 5.361
62 FC6 22 4.384
62 FC6 23 3.408
62 FC6 24 2.920
62 FC6 25 3.408
62 FC6 26 3.408
62 FC6 27 3.896
62 FC6 28 3.896
62 FC6 29 3.896
62 FC6 30 3.408
62 FC6 31 2.431
62 FC6 32 0.966
62 FC6 33 -0.010
62 FC6 34 -0.498
62 FC6 35 0.478
62 FC6 36 1.943
62 FC6 37 3.896
62 FC6 38 4.873
62 FC6 39 4.873
62 FC6 40 4.384
62 FC6 41 4.384
62 FC6 42 4.873
62 FC6 43 6.337
62 FC6 44 6.337
62 FC6 45 5.849
62 FC6 46 5.361
62 FC6 47 5.361
62 FC6 48 5.849
62 FC6 49 6.826
62 FC6 50 6.826
62 FC6 51 6.337
62 FC6 52 4.873
62 FC6 53 4.384
62 FC6 54 4.873
62 FC6 55 6.337
62 FC6 56 7.802
62 FC6 57 8.779
62 FC6 58 8.291
62 FC6 59 6.337
62 FC6 60 4.873
62 FC6 61 3.896
62 FC6 62 3.896
62 FC6 63 4.873
62 FC6 64 5.849
62 FC6 65 7.802
62 FC6 66 10.244
62 FC6 67 13.662
62 FC6 68 16.103
62 FC6 69 17.080
62 FC6 70 16.103
62 FC6 71 14.638
62 FC6 72 13.662
62 FC6 73 14.150
62 FC6 74 16.103
62 FC6 75 17.568
62 FC6 76 17.568
62 FC6 77 16.103
62 FC6 78 13.662
62 FC6 79 11.220
62 FC6 80 9.755
62 FC6 81 8.779
62 FC6 82 7.802
62 FC6 83 5.849
62 FC6 84 4.873
62 FC6 85 5.361
62 FC6 86 7.314
62 FC6 87 9.267
62 FC6 88 10.732
62 FC6 89 10.244
62 FC6 90 8.291
62 FC6 91 6.337
62 FC6 92 4.873
62 FC6 93 5.361
62 FC6 94 7.802
62 FC6 95 10.244
62 FC6 96 11.709
62 FC6 97 12.197
62 FC6 98 10.732
62 FC6 99 7.802
62 FC6 100 4.384
62 FC6 101 1.455
62 FC6 102 -0.498
62 FC6 103 -0.498
62 FC6 104 0.966
62 FC6 105 3.896
62 FC6 106 6.337
62 FC6 107 7.314
62 FC6 108 6.826
62 FC6 109 5.361
62 FC6 110 4.384
62 FC6 111 4.384
62 FC6 112 5.361
62 FC6 113 6.826
62 FC6 114 8.779
62 FC6 115 9.755
62 FC6 116 10.244
62 FC6 117 10.244
62 FC6 118 9.755
62 FC6 119 8.779
62 FC6 120 6.826
62 FC6 121 4.873
62 FC6 122 3.408
62 FC6 123 2.431
62 FC6 124 2.431
62 FC6 125 2.920
62 FC6 126 3.896
62 FC6 127 4.873
62 FC6 128 5.361
62 FC6 129 5.849
62 FC6 130 5.849
62 FC6 131 6.337
62 FC6 132 6.826
62 FC6 133 7.314
62 FC6 134 7.802
62 FC6 135 8.779
62 FC6 136 9.755
62 FC6 137 9.267
62 FC6 138 8.291
62 FC6 139 5.849
62 FC6 140 2.920
62 FC6 141 0.966
62 FC6 142 0.966
62 FC6 143 1.943
62 FC6 144 3.408
62 FC6 145 4.384
62 FC6 146 3.896
62 FC6 147 2.920
62 FC6 148 1.455
62 FC6 149 -0.010
62 FC6 150 -1.963
62 FC6 151 -3.916
62 FC6 152 -5.381
62 FC6 153 -5.381
62 FC6 154 -3.916
62 FC6 155 -0.987
62 FC6 156 1.455
62 FC6 157 3.408
62 FC6 158 4.384
62 FC6 159 5.361
62 FC6 160 7.314
62 FC6 161 9.755
62 FC6 162 11.709
62 FC6 163 11.220
62 FC6 164 9.267
62 FC6 165 6.826
62 FC6 166 7.314
62 FC6 167 9.755
62 FC6 168 13.662
62 FC6 169 16.591
62 FC6 170 17.080
62 FC6 171 14.638
62 FC6 172 11.220
62 FC6 173 8.291
62 FC6 174 6.826
62 FC6 175 6.337
62 FC6 176 5.849
62 FC6 177 4.873
62 FC6 178 4.384
62 FC6 179 4.384
62 FC6 180 4.873
62 FC6 181 6.826
62 FC6 182 8.779
62 FC6 183 10.732
62 FC6 184 11.220
62 FC6 185 11.709
62 FC6 186 12.197
62 FC6 187 12.685
62 FC6 188 13.662
62 FC6 189 14.638
62 FC6 190 15.127
62 FC6 191 16.103
62 FC6 192 16.103
62 FC6 193 16.103
62 FC6 194 15.127
62 FC6 195 14.150
62 FC6 196 13.173
62 FC6 197 12.197
62 FC6 198 12.197
62 FC6 199 13.173
62 FC6 200 14.150
62 FC6 201 15.615
62 FC6 202 16.103
62 FC6 203 17.080
62 FC6 204 17.568
62 FC6 205 17.568
62 FC6 206 17.080
62 FC6 207 16.591
62 FC6 208 17.080
62 FC6 209 18.056
62 FC6 210 18.545
62 FC6 211 19.033
62 FC6 212 19.033
62 FC6 213 18.545
62 FC6 214 18.056
62 FC6 215 18.056
62 FC6 216 19.033
62 FC6 217 20.498
62 FC6 218 21.962
62 FC6 219 23.427
62 FC6 220 23.916
62 FC6 221 24.892
62 FC6 222 25.869
62 FC6 223 26.357
62 FC6 224 27.334
62 FC6 225 27.822
62 FC6 226 28.310
62 FC6 227 29.287
62 FC6 228 29.287
62 FC6 229 29.775
62 FC6 230 29.775
62 FC6 231 29.775
62 FC6 232 30.263
62 FC6 233 30.752
62 FC6 234 32.216
62 FC6 235 33.193
62 FC6 236 33.681
62 FC6 237 33.681
62 FC6 238 33.193
62 FC6 239 32.216
62 FC6 240 30.752
62 FC6 241 30.263
62 FC6 242 30.752
62 FC6 243 31.728
62 FC6 244 33.193
62 FC6 245 34.170
62 FC6 246 34.170
62 FC6 247 33.193
62 FC6 248 31.240
62 FC6 249 29.775
62 FC6 250 29.287
62 FC6 251 29.287
62 FC6 252 27.822
62 FC6 253 25.380
62 FC6 254 22.451
62 FC6 255 20.498
# FC5 chan 10
62 FC5 0 0.366
62 FC5 1 1.343
62 FC5 2 1.831
62 FC5 3 3.296
62 FC5 4 5.249
62 FC5 5 7.202
62 FC5 6 7.690
62 FC5 7 7.202
62 FC5 8 5.249
62 FC5 9 3.784
62 FC5 10 3.296
62 FC5 11 2.808
62 FC5 12 2.808
62 FC5 13 2.808
62 FC5 14 3.296
62 FC5 15 4.272
62 FC5 16 5.249
62 FC5 17 6.714
62 FC5 18 7.202
62 FC5 19 6.714
62 FC5 20 5.737
62 FC5 21 5.249
62 FC5 22 5.737
62 FC5 23 6.714
62 FC5 24 8.667
62 FC5 25 9.644
62 FC5 26 10.132
62 FC5 27 9.644
62 FC5 28 9.155
62 FC5 29 8.179
62 FC5 30 7.690
62 FC5 31 7.202
62 FC5 32 7.690
62 FC5 33 8.667
62 FC5 34 9.155
62 FC5 35 9.644
62 FC5 36 9.644
62 FC5 37 9.155
62 FC5 38 8.667
62 FC5 39 8.179
62 FC5 40 7.202
62 FC5 41 5.737
62 FC5 42 4.272
62 FC5 43 3.296
62 FC5 44 3.296
62 FC5 45 4.272
62 FC5 46 5.737
62 FC5 47 7.202
62 FC5 48 6.714
62 FC5 49 5.249
62 FC5 50 2.808
62 FC5 51 1.343
62 FC5 52 1.343
62 FC5 53 2.319
62 FC5 54 3.784
62 FC5 55 5.249
62 FC5 56 6.226
62 FC5 57 7.202
62 FC5 58 8.179
62 FC5 59 10.132
62 FC5 60 11.597
62 FC5 61 13.550
62 FC5 62 14.526
62 FC5 63 15.015
62 FC5 64 15.015
62 FC5 65 14.038
62 FC5 66 13.062
62 FC5 67 11.597
62 FC5 68 10.620
62 FC5 69 10.132
62 FC5 70 10.132
62 FC5 71 10.620
62 FC5 72 12.085
62 FC5 73 13.550
62 FC5 74 15.015
62 FC5 75 15.503
62 FC5 76 16.479
62 FC5 77 17.456
62 FC5 78 18.921
62 FC5 79 20.386
62 FC5 80 20.386
62 FC5 81 19.897
62 FC5 82 18.433
62 FC5 83 15.991
62 FC5 84 13.550
62 FC5 85 10.620
62 FC5 86 7.690
62 FC5 87 5.737
62 FC5 88 4.761
62 FC5 89 4.272
62 FC5 90 4.761
62 FC5 91 4.272
62 FC5 92 4.272
62 FC5 93 4.272
62 FC5 94 4.761
62 FC5 95 4.761
62 FC5 96 5.249
62 FC5 97 4.761
62 FC5 98 3.784
62 FC5 99 2.319
62 FC5 100 1.343
62 FC5 101 1.343
62 FC5 102 2.808
62 FC5 103 4.272
62 FC5 104 4.761
62 FC5 105 4.761
62 FC5 106 4.761
62 FC5 107 5.737
62 FC5 108 7.202
62 FC5 109 9.155
62 FC5 110 10.620
62 FC5 111 11.108
62 FC5 112 10.620
62 FC5 113 10.620
62 FC5 114 11.597
62 FC5 115 12.573
62 FC5 116 14.038
62 FC5 117 15.015
62 FC5 118 15.991
62 FC5 119 16.968
62 FC5 120 18.433
62 FC5 121 19.897
62 FC5 122 20.874
62 FC5 123 20.874
62 FC5 124 20.386
62 FC5 125 19.409
62 FC5 126 17.456
62 FC5 127 15.991
62 FC5 128 14.038
62 FC5 129 11.597
62 FC5 130 9.155
62 FC5 131 6.714
62 FC5 132 5.249
62 FC5 133 5.249
62 FC5 134 6.714
62 FC5 135 10.132
62 FC5 136 13.062
62 FC5 137 15.503
62 FC5 138 16.479
62 FC5 139 16.968
62 FC5 140 16.968
62 FC5 141 16.968
62 FC5 142 16.968
62 FC5 143 16.479
62 FC5 144 15.503
62 FC5 145 14.038
62 FC5 146 12.085
62 FC5 147 10.620
62 FC5 148 8.667
62 FC5 149 7.690
62 FC5 150 7.202
62 FC5 151 7.202
62 FC5 152 7.690
62 FC5 153 8.179
62 FC5 154 7.690
62 FC5 155 7.690
62 FC5 156 7.202
62 FC5 157 7.690
62 FC5 158 8.667
62 FC5 159 9.644
62 FC5 160 11.108
62 FC5 161 12.085
62 FC5 162 12.573
62 FC5 163 13.062
62 FC5 164 13.550
62 FC5 165 13.062
62 FC5 166 12.573
62 FC5 167 12.573
62 FC5 168 12.573
62 FC5 169 13.550
62 FC5 170 14.038
62 FC5 171 13.550
62 FC5 172 11.597
62 FC5 173 9.644
62 FC5 174 8.667
62 FC5 175 8.667
62 FC5 176 9.644
62 FC5 177 10.620
62 FC5 178 11.108
62 FC5 179 10.132
62 FC5 180 8.667
62 FC5 181 8.179
62 FC5 182 8.179
62 FC5 183 9.155
62 FC5 184 9.644
62 FC5 185 9.644
62 FC5 186 8.667
62 FC5 187 7.690
62 FC5 188 7.690
62 FC5 189 7.690
62 FC5 190 8.179
62 FC5 191 8.667
62 FC5 192 8.179
62 FC5 193 7.690
62 FC5 194 7.202
62 FC5 195 6.714
62 FC5 196 6.714
62 FC5 197 6.714
62 FC5 198 7.202
62 FC5 199 8.179
62 FC5 200 9.155
62 FC5 201 10.132
62 FC5 202 10.620
62 FC5 203 11.108
62 FC5 204 11.108
62 FC5 205 11.108
62 FC5 206 11.108
62 FC5 207 11.597
62 FC5 208 11.108
62 FC5 209 10.132
62 FC5 210 8.667
62 FC5 211 8.179
62 FC5 212 7.690
62 FC5 213 8.179
62 FC5 214 9.155
62 FC5 215 9.644
62 FC5 216 10.620
62 FC5 217 12.085
62 FC5 218 13.550
62 FC5 219 14.526
62 FC5 220 15.503
62 FC5 221 15.991
62 FC5 222 15.991
62 FC5 223 16.479
62 FC5 224 17.944
62 FC5 225 18.433
62 FC5 226 18.433
62 FC5 227 17.944
62 FC5 228 16.968
62 FC5 229 16.968
62 FC5 230 17.456
62 FC5 231 18.921
62 FC5 232 19.897
62 FC5 233 19.409
62 FC5 234 18.921
62 FC5 235 17.944
62 FC5 236 16.968
62 FC5 237 16.479
62 FC5 238 15.991
62 FC5 239 15.991
62 FC5 240 15.991
62 FC5 241 15.991
62 FC5 242 16.479
62 FC5 243 16.968
62 FC5 244 16.968
62 FC5 245 16.968
62 FC5 246 17.456
62 FC5 247 18.433
62 FC5 248 19.897
62 FC5 249 20.874
62 FC5 250 20.874
62 FC5 251 19.897
62 FC5 252 18.921
62 FC5 253 17.944
62 FC5 254 17.944
62 FC5 255 17.944
# FC2 chan 11
62 FC2 0 -2.553
62 FC2 1 -2.065
62 FC2 2 -1.088
62 FC2 3 0.865
62 FC2 4 2.818
62 FC2 5 4.771
62 FC2 6 5.747
62 FC2 7 6.236
62 FC2 8 5.259
62 FC2 9 4.283
62 FC2 10 3.306
62 FC2 11 2.330
62 FC2 12 1.353
62 FC2 13 0.376
62 FC2 14 -0.112
62 FC2 15 -0.112
62 FC2 16 -0.112
62 FC2 17 0.376
62 FC2 18 -0.112
62 FC2 19 -0.112
62 FC2 20 -1.088
62 FC2 21 -2.065
62 FC2 22 -2.065
62 FC2 23 -1.577
62 FC2 24 -1.088
62 FC2 25 -0.112
62 FC2 26 0.865
62 FC2 27 1.841
62 FC2 28 2.330
62 FC2 29 2.818
62 FC2 30 3.794
62 FC2 31 3.306
62 FC2 32 3.306
62 FC2 33 2.330
62 FC2 34 1.841
62 FC2 35 1.353
62 FC2 36 1.353
62 FC2 37 1.353
62 FC2 38 1.841
62 FC2 39 2.330
62 FC2 40 2.818
62 FC2 41 3.794
62 FC2 42 3.794
62 FC2 43 3.794
62 FC2 44 3.306
62 FC2 45 2.330
62 FC2 46 1.841
62 FC2 47 2.330
62 FC2 48 3.794
62 FC2 49 4.771
62 FC2 50 4.771
62 FC2 51 3.794
62 FC2 52 1.841
62 FC2 53 0.376
62 FC2 54 0.376
62 FC2 55 1.353
62 FC2 56 2.818
62 FC2 57 4.283
62 FC2 58 4.771
62 FC2 59 4.771
62 FC2 60 3.794
62 FC2 61 3.306
62 FC2 62 2.818
62 FC2 63 2.330
62 FC2 64 1.841
62 FC2 65 1.353
62 FC2 66 1.353
62 FC2 67 1.841
62 FC2 68 2.818
62 FC2 69 3.794
62 FC2 70 3.794
62 FC2 71 3.794
62 FC2 72 3.794
62 FC2 73 3.794
62 FC2 74 4.283
62 FC2 75 4.771
62 FC2 76 4.771
62 FC2 77 5.259
62 FC2 78 5.259
62 FC2 79 5.259
62 FC2 80 4.771
62 FC2 81 4.283
62 FC2 82 3.306
62 FC2 83 1.841
62 FC2 84 0.865
62 FC2 85 -0.112
62 FC2 86 -0.112
62 FC2 87 0.865
62 FC2 88 1.353
62 FC2 89 1.353
62 FC2 90 -0.112
62 FC2 91 -2.065
62 FC2 92 -4.018
62 FC2 93 -4.995
62 FC2 94 -4.506
62 FC2 95 -3.042
62 FC2 96 -2.065
62 FC2 97 -1.577
62 FC2 98 -2.553
62 FC2 99 -4.018
62 FC2 100 -5.483
62 FC2 101 -5.483
62 FC2 102 -4.018
62 FC2 103 -2.553
62 FC2 104 -1.577
62 FC2 105 -1.088
62 FC2 106 -1.577
62 FC2 107 -2.553
62 FC2 108 -3.042
62 FC2 109 -3.042
62 FC2 110 -3.042
62 FC2 111 -3.042
62 FC2 112 -2.553
62 FC2 113 -3.042
62 FC2 114 -2.553
62 FC2 115 -1.577
62 FC2 116 -1.088
62 FC2 117 -0.600
62 FC2 118 -1.088
62 FC2 119 -1.088
62 FC2 120 -2.065
62 FC2 121 -2.553
62 FC2 122 -3.042
62 FC2 123 -3.530
62 FC2 124 -4.506
62 FC2 125 -4.506
62 FC2 126 -4.018
62 FC2 127 -2.553
62 FC2 128 -1.088
62 FC2 129 0.376
62 FC2 130 1.841
62 FC2 131 2.330
62 FC2 132 1.841
62 FC2 133 1.353
62 FC2 134 0.865
62 FC2 135 1.353
62 FC2 136 1.841
62 FC2 137 3.306
62 FC2 138 4.283
62 FC2 139 4.283
62 FC2 140 3.794
62 FC2 141 2.330
62 FC2 142 1.353
62 FC2 143 0.865
62 FC2 144 0.376
62 FC2 145 0.865
62 FC2 146 0.865
62 FC2 147 0.865
62 FC2 148 -0.112
62 FC2 149 -1.088
62 FC2 150 -2.553
62 FC2 151 -3.530
62 FC2 152 -4.018
62 FC2 153 -3.530
62 FC2 154 -3.042
62 FC2 155 -2.553
62 FC2 156 -2.553
62 FC2 157 -3.042
62 FC2 158 -3.042
62 FC2 159 -2.553
62 FC2 160 -1.088
62 FC2 161 -0.112
62 FC2 162 0.865
62 FC2 163 1.353
62 FC2 164 0.865
62 FC2 165 0.376
62 FC2 166 0.376
62 FC2 167 0.865
62 FC2 168 1.353
62 FC2 169 1.841
62 FC2 170 2.330
62 FC2 171 2.818
62 FC2 172 2.818
62 FC2 173 2.818
62 FC2 174 2.818
62 FC2 175 2.330
62 FC2 176 1.353
62 FC2 177 0.865
62 FC2 178 0.376
62 FC2 179 -0.600
62 FC2 180 -1.577
62 FC2 181 -2.065
62 FC2 182 -2.065
62 FC2 183 -1.577
62 FC2 184 -0.600
62 FC2 185 -0.112
62 FC2 186 -0.112
62 FC2 187 -0.600
62 FC2 188 -1.577
62 FC2 189 -2.065
62 FC2 190 -1.577
62 FC2 191 -1.088
62 FC2 192 -0.112
62 FC2 193 0.376
62 FC2 194 0.376
62 FC2 195 -0.112
62 FC2 196 -0.112
62 FC2 197 -0.600
62 FC2 198 -0.600
62 FC2 199 -0.112
62 FC2 200 0.376
62 FC2 201 0.376
62 FC2 202 0.376
62 FC2 203 -0.112
62 FC2 204 -0.600
62 FC2 205 -1.088
62 FC2 206 -1.088
62 FC2 207 -1.088
62 FC2 208 -0.112
62 FC2 209 0.865
62 FC2 210 1.841
62 FC2 211 2.330
62 FC2 212 1.841
62 FC2 213 0.865
62 FC2 214 -0.112
62 FC2 215 -0.600
62 FC2 216 -0.112
62 FC2 217 1.353
62 FC2 218 2.818
62 FC2 219 3.794
62 FC2 220 4.283
62 FC2 221 4.771
62 FC2 222 5.259
62 FC2 223 5.747
62 FC2 224 6.724
62 FC2 225 7.212
62 FC2 226 8.189
62 FC2 227 8.189
62 FC2 228 8.677
62 FC2 229 8.189
62 FC2 230 7.701
62 FC2 231 7.212
62 FC2 232 6.724
62 FC2 233 6.724
62 FC2 234 8.189
62 FC2 235 9.654
62 FC2 236 10.630
62 FC2 237 11.119
62 FC2 238 10.142
62 FC2 239 8.677
62 FC2 240 8.189
62 FC2 241 7.701
62 FC2 242 8.189
62 FC2 243 9.165
62 FC2 244 9.654
62 FC2 245 9.654
62 FC2 246 9.654
62 FC2 247 9.165
62 FC2 248 9.654
62 FC2 249 9.654
62 FC2 250 9.654
62 FC2 251 9.165
62 FC2 252 8.189
62 FC2 253 7.212
62 FC2 254 6.724
62 FC2 255 6.724
# FC1 chan 12
62 FC1 0 -2.228
62 FC1 1 -1.251
62 FC1 2 -0.275
62 FC1 3 1.190
62 FC1 4 2.655
62 FC1 5 4.120
62 FC1 6 5.585
62 FC1 7 6.073
62 FC1 8 6.073
62 FC1 9 4.608
62 FC1 10 3.143
62 FC1 11 1.678
62 FC1 12 0.214
62 FC1 13 -0.275
62 FC1 14 0.214
62 FC1 15 0.702
62 FC1 16 1.678
62 FC1 17 2.167
62 FC1 18 2.655
62 FC1 19 1.678
62 FC1 20 0.214
62 FC1 21 -1.251
62 FC1 22 -1.251
62 FC1 23 -0.763
62 FC1 24 1.190
62 FC1 25 3.632
62 FC1 26 4.608
62 FC1 27 5.096
62 FC1 28 4.608
62 FC1 29 3.632
62 FC1 30 3.143
62 FC1 31 3.143
62 FC1 32 3.143
62 FC1 33 2.655
62 FC1 34 2.167
62 FC1 35 2.167
62 FC1 36 2.655
62 FC1 37 2.655
62 FC1 38 3.143
62 FC1 39 2.167
62 FC1 40 1.678
62 FC1 41 0.214
62 FC1 42 -0.763
62 FC1 43 -1.740
62 FC1 44 -1.740
62 FC1 45 -1.251
62 FC1 46 -0.275
62 FC1 47 0.702
62 FC1 48 1.190
62 FC1 49 1.190
62 FC1 50 0.702
62 FC1 51 -0.275
62 FC1 52 -1.251
62 FC1 53 -2.228
62 FC1 54 -2.716
62 FC1 55 -2.716
62 FC1 56 -1.740
62 FC1 57 -0.763
62 FC1 58 0.702
62 FC1 59 1.678
62 FC1 60 2.655
62 FC1 61 3.143
62 FC1 62 2.655
62 FC1 63 1.190
62 FC1 64 -0.275
62 FC1 65 -1.740
62 FC1 66 -3.204
62 FC1 67 -3.693
62 FC1 68 -4.181
62 FC1 69 -4.669
62 FC1 70 -4.669
62 FC1 71 -4.181
62 FC1 72 -3.204
62 FC1 73 -2.716
62 FC1 74 -1.251
62 FC1 75 -0.763
62 FC1 76 0.214
62 FC1 77 1.190
62 FC1 78 2.655
62 FC1 79 3.632
62 FC1 80 4.120
62 FC1 81 3.632
62 FC1 82 2.655
62 FC1 83 1.190
62 FC1 84 0.214
62 FC1 85 -0.763
62 FC1 86 -1.251
62 FC1 87 -2.716
62 FC1 88 -4.181
62 FC1 89 -5.157
62 FC1 90 -6.134
62 FC1 91 -6.622
62 FC1 92 -7.111
62 FC1 93 -7.111
62 FC1 94 -6.622
62 FC1 95 -6.622
62 FC1 96 -6.134
62 FC1 97 -6.622
62 FC1 98 -7.111
62 FC1 99 -8.575
62 FC1 100 -8.575
62 FC1 101 -7.599
62 FC1 102 -6.134
62 FC1 103 -4.669
62 FC1 104 -4.181
62 FC1 105 -4.669
62 FC1 106 -6.134
62 FC1 107 -6.622
62 FC1 108 -6.622
62 FC1 109 -6.134
62 FC1 110 -5.646
62 FC1 111 -6.134
62 FC1 112 -6.622
62 FC1 113 -7.599
62 FC1 114 -7.599
62 FC1 115 -6.622
62 FC1 116 -5.646
62 FC1 117 -4.669
62 FC1 118 -3.693
62 FC1 119 -2.716
62 FC1 120 -1.740
62 FC1 121 -0.763
62 FC1 122 -0.275
62 FC1 123 -0.763
62 FC1 124 -1.251
62 FC1 125 -2.228
62 FC1 126 -2.228
62 FC1 127 -1.740
62 FC1 128 -1.251
62 FC1 129 -1.251
62 FC1 130 -2.228
62 FC1 131 -3.204
62 FC1 132 -5.157
62 FC1 133 -6.134
62 FC1 134 -6.622
62 FC1 135 -6.134
62 FC1 136 -4.181
62 FC1 137 -2.228
62 FC1 138 -0.275
62 FC1 139 0.702
62 FC1 140 0.702
62 FC1 141 -0.275
62 FC1 142 -1.251
62 FC1 143 -2.228
62 FC1 144 -2.228
62 FC1 145 -2.228
62 FC1 146 -2.716
62 FC1 147 -3.693
62 FC1 148 -5.157
62 FC1 149 -6.134
62 FC1 150 -6.622
62 FC1 151 -6.622
62 FC1 152 -6.622
62 FC1 153 -6.622
62 FC1 154 -6.622
62 FC1 155 -7.599
62 FC1 156 -8.575
62 FC1 157 -9.064
62 FC1 158 -9.064
62 FC1 159 -8.087
62 FC1 160 -5.646
62 FC1 161 -3.693
62 FC1 162 -1.740
62 FC1 163 -1.251
62 FC1 164 -1.740
62 FC1 165 -2.716
62 FC1 166 -3.693
62 FC1 167 -4.181
62 FC1 168 -3.693
62 FC1 169 -3.693
62 FC1 170 -3.204
62 FC1 171 -3.693
62 FC1 172 -4.669
62 FC1 173 -5.646
62 FC1 174 -6.622
62 FC1 175 -7.111
62 FC1 176 -7.111
62 FC1 177 -6.134
62 FC1 178 -5.646
62 FC1 179 -5.646
62 FC1 180 -6.622
62 FC1 181 -8.087
62 FC1 182 -9.064
62 FC1 183 -9.064
62 FC1 184 -8.575
62 FC1 185 -7.599
62 FC1 186 -7.599
62 FC1 187 -8.087
62 FC1 188 -8.087
62 FC1 189 -7.599
62 FC1 190 -6.622
62 FC1 191 -5.157
62 FC1 192 -4.181
62 FC1 193 -4.669
62 FC1 194 -5.157
62 FC1 195 -6.134
62 FC1 196 -6.622
62 FC1 197 -6.134
62 FC1 198 -6.134
62 FC1 199 -5.646
62 FC1 200 -6.134
62 FC1 201 -6.134
62 FC1 202 -6.134
62 FC1 203 -5.646
62 FC1 204 -5.646
62 FC1 205 -5.157
62 FC1 206 -4.669
62 FC1 207 -4.181
62 FC1 208 -3.204
62 FC1 209 -1.740
62 FC1 210 -1.740
62 FC1 211 -1.740
62 FC1 212 -2.716
62 FC1 213 -3.693
62 FC1 214 -4.669
62 FC1 215 -4.181
62 FC1 216 -3.204
62 FC1 217 -1.740
62 FC1 218 -0.763
62 FC1 219 0.214
62 FC1 220 0.702
62 FC1 221 1.190
62 FC1 222 1.190
62 FC1 223 2.167
62 FC1 224 3.143
62 FC1 225 4.120
62 FC1 226 5.096
62 FC1 227 5.585
62 FC1 228 5.585
62 FC1 229 5.096
62 FC1 230 4.608
62 FC1 231 4.608
62 FC1 232 4.608
62 FC1 233 5.096
62 FC1 234 6.073
62 FC1 235 7.050
62 FC1 236 6.561
62 FC1 237 5.585
62 FC1 238 3.632
62 FC1 239 2.167
62 FC1 240 1.190
62 FC1 241 1.190
62 FC1 242 1.678
62 FC1 243 2.167
62 FC1 244 3.143
62 FC1 245 3.632
62 FC1 246 3.632
62 FC1 247 4.608
62 FC1 248 5.096
62 FC1 249 5.585
62 FC1 250 6.073
62 FC1 251 6.561
62 FC1 252 7.050
62 FC1 253 6.561
62 FC1 254 6.561
62 FC1 255 5.585
# T8 chan 13
62 T8 0 1.740
62 T8 1 1.740
62 T8 2 1.740
62 T8 3 1.251
62 T8 4 0.763
62 T8 5 0.763
62 T8 6 1.740
62 T8 7 2.228
62 T8 8 2.228
62 T8 9 0.763
62 T8 10 -0.702
62 T8 11 -2.167
62 T8 12 -3.143
62 T8 13 -4.608
62 T8 14 -5.096
62 T8 15 -5.096
62 T8 16 -4.608
62 T8 17 -4.120
62 T8 18 -2.655
62 T8 19 -1.190
62 T8 20 0.275
62 T8 21 1.251
62 T8 22 3.204
62 T8 23 1.740
62 T8 24 1.251
62 T8 25 1.251
62 T8 26 1.251
62 T8 27 2.228
62 T8 28 2.228
62 T8 29 2.228
62 T8 30 1.251
62 T8 31 0.275
62 T8 32 0.275
62 T8 33 0.763
62 T8 34 2.228
62 T8 35 3.204
62 T8 36 3.204
62 T8 37 2.228
62 T8 38 0.763
62 T8 39 -0.214
62 T8 40 -0.702
62 T8 41 -0.214
62 T8 42 -0.214
62 T8 43 -0.702
62 T8 44 -1.190
62 T8 45 -1.190
62 T8 46 -0.702
62 T8 47 0.275
62 T8 48 0.763
62 T8 49 1.251
62 T8 50 0.275
62 T8 51 -0.702
62 T8 52 -1.678
62 T8 53 -0.702
62 T8 54 0.763
62 T8 55 3.693
62 T8 56 5.646
62 T8 57 6.622
62 T8 58 5.646
62 T8 59 2.716
62 T8 60 0.275
62 T8 61 -0.702
62 T8 62 -0.214
62 T8 63 2.228
62 T8 64 5.157
62 T8 65 8.087
62 T8 66 11.505
62 T8 67 14.923
62 T8 68 17.853
62 T8 69 19.318
62 T8 70 19.806
62 T8 71 19.318
62 T8 72 18.341
62 T8 73 18.829
62 T8 74 19.318
62 T8 75 19.318
62 T8 76 17.853
62 T8 77 15.900
62 T8 78 12.970
62 T8 79 10.529
62 T8 80 8.575
62 T8 81 7.599
62 T8 82 6.134
62 T8 83 4.669
62 T8 84 4.669
62 T8 85 5.646
62 T8 86 8.087
62 T8 87 11.017
62 T8 88 12.970
62 T8 89 13.947
62 T8 90 12.970
62 T8 91 11.505
62 T8 92 10.040
62 T8 93 9.552
62 T8 94 10.040
62 T8 95 11.017
62 T8 96 11.505
62 T8 97 11.017
62 T8 98 9.552
62 T8 99 5.646
62 T8 100 1.740
62 T8 101 -2.167
62 T8 102 -4.608
62 T8 103 -5.585
62 T8 104 -5.096
62 T8 105 -3.143
62 T8 106 -0.702
62 T8 107 1.740
62 T8 108 4.181
62 T8 109 6.134
62 T8 110 8.575
62 T8 111 10.529
62 T8 112 12.970
62 T8 113 14.435
62 T8 114 15.900
62 T8 115 15.900
62 T8 116 15.900
62 T8 117 14.923
62 T8 118 12.970
62 T8 119 10.529
62 T8 120 8.087
62 T8 121 5.157
62 T8 122 3.693
62 T8 123 2.716
62 T8 124 2.716
62 T8 125 2.716
62 T8 126 2.716
62 T8 127 1.740
62 T8 128 0.763
62 T8 129 0.275
62 T8 130 0.763
62 T8 131 2.228
62 T8 132 4.669
62 T8 133 8.087
62 T8 134 10.529
62 T8 135 12.482
62 T8 136 12.970
62 T8 137 12.482
62 T8 138 11.505
62 T8 139 10.529
62 T8 140 9.064
62 T8 141 8.087
62 T8 142 8.087
62 T8 143 8.575
62 T8 144 9.064
62 T8 145 9.064
62 T8 146 8.087
62 T8 147 6.622
62 T8 148 4.181
62 T8 149 2.716
62 T8 150 1.740
62 T8 151 1.740
62 T8 152 2.228
62 T8 153 2.716
62 T8 154 3.204
62 T8 155 4.181
62 T8 156 4.669
62 T8 157 5.646
62 T8 158 7.111
62 T8 159 8.575
62 T8 160 10.040
62 T8 161 11.505
62 T8 162 11.505
62 T8 163 11.017
62 T8 164 10.529
62 T8 165 10.529
62 T8 166 10.529
62 T8 167 11.017
62 T8 168 11.505
62 T8 169 11.017
62 T8 170 10.040
62 T8 171 8.575
62 T8 172 7.111
62 T8 173 5.646
62 T8 174 4.669
62 T8 175 3.204
62 T8 176 1.251
62 T8 177 -0.214
62 T8 178 -0.214
62 T8 179 0.763
62 T8 180 3.204
62 T8 181 6.622
62 T8 182 9.064
62 T8 183 11.017
62 T8 184 11.993
62 T8 185 12.482
62 T8 186 12.970
62 T8 187 13.458
62 T8 188 12.482
62 T8 189 10.529
62 T8 190 7.599
62 T8 191 4.669
62 T8 192 2.716
62 T8 193 1.740
62 T8 194 2.228
62 T8 195 2.228
62 T8 196 1.740
62 T8 197 0.275
62 T8 198 -0.702
62 T8 199 -0.214
62 T8 200 1.740
62 T8 201 4.181
62 T8 202 6.622
62 T8 203 8.087
62 T8 204 7.599
62 T8 205 7.111
62 T8 206 6.134
62 T8 207 6.134
62 T8 208 6.134
62 T8 209 6.134
62 T8 210 5.157
62 T8 211 3.693
62 T8 212 0.763
62 T8 213 -1.678
62 T8 214 -3.143
62 T8 215 -4.608
62 T8 216 -5.096
62 T8 217 -4.608
62 T8 218 -4.120
62 T8 219 -2.655
62 T8 220 -1.678
62 T8 221 -1.190
62 T8 222 -0.702
62 T8 223 -1.190
62 T8 224 -1.190
62 T8 225 -0.702
62 T8 226 0.275
62 T8 227 1.740
62 T8 228 1.740
62 T8 229 0.763
62 T8 230 -0.214
62 T8 231 -0.702
62 T8 232 0.275
62 T8 233 2.228
62 T8 234 4.181
62 T8 235 5.646
62 T8 236 6.622
62 T8 237 6.622
62 T8 238 6.622
62 T8 239 6.134
62 T8 240 5.157
62 T8 241 4.669
62 T8 242 4.669
62 T8 243 6.134
62 T8 244 8.575
62 T8 245 10.529
62 T8 246 10.040
62 T8 247 7.599
62 T8 248 4.669
62 T8 249 1.740
62 T8 250 0.275
62 T8 251 -0.214
62 T8 252 -0.214
62 T8 253 -1.190
62 T8 254 -3.143
62 T8 255 -3.632
# T7 chan 14
62 T7 0 4.364
62 T7 1 5.341
62 T7 2 5.829
62 T7 3 5.829
62 T7 4 6.317
62 T7 5 7.294
62 T7 6 6.805
62 T7 7 5.341
62 T7 8 2.411
62 T7 9 -0.031
62 T7 10 -0.519
62 T7 11 0.458
62 T7 12 1.923
62 T7 13 2.411
62 T7 14 2.411
62 T7 15 2.411
62 T7 16 2.899
62 T7 17 4.852
62 T7 18 6.805
62 T7 19 8.270
62 T7 20 9.247
62 T7 21 8.270
62 T7 22 7.782
62 T7 23 7.294
62 T7 24 7.294
62 T7 25 7.782
62 T7 26 8.270
62 T7 27 7.782
62 T7 28 6.317
62 T7 29 4.852
62 T7 30 3.876
62 T7 31 3.876
62 T7 32 4.852
62 T7 33 5.829
62 T7 34 5.829
62 T7 35 5.829
62 T7 36 5.829
62 T7 37 5.829
62 T7 38 5.829
62 T7 39 5.341
62 T7 40 4.364
62 T7 41 2.899
62 T7 42 1.923
62 T7 43 1.923
62 T7 44 2.411
62 T7 45 3.387
62 T7 46 3.876
62 T7 47 3.876
62 T7 48 3.387
62 T7 49 2.899
62 T7 50 2.411
62 T7 51 2.411
62 T7 52 3.387
62 T7 53 4.364
62 T7 54 5.341
62 T7 55 6.805
62 T7 56 7.782
62 T7 57 8.759
62 T7 58 9.247
62 T7 59 9.735
62 T7 60 9.735
62 T7 61 10.223
62 T7 62 10.712
62 T7 63 11.200
62 T7 64 11.200
62 T7 65 10.712
62 T7 66 9.247
62 T7 67 7.782
62 T7 68 7.782
62 T7 69 8.759
62 T7 70 10.712
62 T7 71 13.641
62 T7 72 16.083
62 T7 73 17.548
62 T7 74 18.524
62 T7 75 19.501
62 T7 76 20.966
62 T7 77 22.430
62 T7 78 23.407
62 T7 79 22.919
62 T7 80 20.966
62 T7 81 17.548
62 T7 82 14.130
62 T7 83 10.223
62 T7 84 6.805
62 T7 85 3.876
62 T7 86 2.411
62 T7 87 1.923
62 T7 88 2.411
62 T7 89 3.876
62 T7 90 5.341
62 T7 91 6.805
62 T7 92 8.270
62 T7 93 8.759
62 T7 94 9.735
62 T7 95 10.223
62 T7 96 10.223
62 T7 97 10.223
62 T7 98 9.247
62 T7 99 7.782
62 T7 100 6.317
62 T7 101 5.341
62 T7 102 4.852
62 T7 103 4.852
62 T7 104 4.852
62 T7 105 4.364
62 T7 106 2.899
62 T7 107 2.411
62 T7 108 2.899
62 T7 109 5.341
62 T7 110 8.759
62 T7 111 12.177
62 T7 112 14.618
62 T7 113 16.083
62 T7 114 16.083
62 T7 115 16.571
62 T7 116 18.036
62 T7 117 20.477
62 T7 118 23.407
62 T7 119 25.360
62 T7 120 26.337
62 T7 121 25.848
62 T7 122 25.360
62 T7 123 24.872
62 T7 124 25.360
62 T7 125 24.872
62 T7 126 23.895
62 T7 127 21.454
62 T7 128 17.548
62 T7 129 13.641
62 T7 130 9.735
62 T7 131 6.805
62 T7 132 5.341
62 T7 133 5.341
62 T7 134 6.317
62 T7 135 8.270
62 T7 136 9.735
62 T7 137 10.712
62 T7 138 11.200
62 T7 139 11.200
62 T7 140 10.712
62 T7 141 10.223
62 T7 142 9.735
62 T7 143 9.247
62 T7 144 8.759
62 T7 145 7.782
62 T7 146 6.805
62 T7 147 4.852
62 T7 148 2.899
62 T7 149 1.434
62 T7 150 2.411
62 T7 151 4.364
62 T7 152 7.294
62 T7 153 9.247
62 T7 154 9.247
62 T7 155 7.294
62 T7 156 5.829
62 T7 157 4.852
62 T7 158 6.317
62 T7 159 7.782
62 T7 160 9.247
62 T7 161 10.223
62 T7 162 10.712
62 T7 163 11.688
62 T7 164 13.153
62 T7 165 14.130
62 T7 166 14.130
62 T7 167 13.153
62 T7 168 12.177
62 T7 169 11.688
62 T7 170 11.688
62 T7 171 11.688
62 T7 172 10.223
62 T7 173 7.782
62 T7 174 5.341
62 T7 175 4.364
62 T7 176 5.341
62 T7 177 6.805
62 T7 178 7.782
62 T7 179 6.805
62 T7 180 4.364
62 T7 181 2.899
62 T7 182 2.899
62 T7 183 4.852
62 T7 184 6.805
62 T7 185 8.270
62 T7 186 8.270
62 T7 187 7.294
62 T7 188 6.317
62 T7 189 5.829
62 T7 190 5.829
62 T7 191 6.317
62 T7 192 6.317
62 T7 193 5.829
62 T7 194 5.829
62 T7 195 6.317
62 T7 196 7.294
62 T7 197 8.270
62 T7 198 9.247
62 T7 199 10.223
62 T7 200 11.200
62 T7 201 13.153
62 T7 202 15.106
62 T7 203 17.059
62 T7 204 18.036
62 T7 205 17.548
62 T7 206 16.571
62 T7 207 15.106
62 T7 208 13.641
62 T7 209 12.177
62 T7 210 10.712
62 T7 211 9.735
62 T7 212 8.270
62 T7 213 7.294
62 T7 214 6.317
62 T7 215 5.829
62 T7 216 6.317
62 T7 217 8.270
62 T7 218 9.247
62 T7 219 10.712
62 T7 220 11.200
62 T7 221 10.712
62 T7 222 10.223
62 T7 223 10.223
62 T7 224 10.712
62 T7 225 11.688
62 T7 226 11.688
62 T7 227 10.712
62 T7 228 8.759
62 T7 229 6.805
62 T7 230 5.829
62 T7 231 6.317
62 T7 232 8.270
62 T7 233 9.247
62 T7 234 10.223
62 T7 235 10.223
62 T7 236 9.735
62 T7 237 9.247
62 T7 238 9.735
62 T7 239 10.712
62 T7 240 11.200
62 T7 241 11.200
62 T7 242 10.223
62 T7 243 8.270
62 T7 244 7.294
62 T7 245 7.294
62 T7 246 8.270
62 T7 247 10.223
62 T7 248 11.688
62 T7 249 12.177
62 T7 250 12.177
62 T7 251 10.712
62 T7 252 9.247
62 T7 253 8.270
62 T7 254 8.270
62 T7 255 9.247
# CZ chan 15
62 CZ 0 4.435
62 CZ 1 4.435
62 CZ 2 4.435
62 CZ 3 4.435
62 CZ 4 5.412
62 CZ 5 6.388
62 CZ 6 5.412
62 CZ 7 2.970
62 CZ 8 0.041
62 CZ 9 -2.889
62 CZ 10 -2.889
62 CZ 11 -1.912
62 CZ 12 0.529
62 CZ 13 2.482
62 CZ 14 2.970
62 CZ 15 1.506
62 CZ 16 -0.936
62 CZ 17 -3.866
62 CZ 18 -5.330
62 CZ 19 -3.866
62 CZ 20 0.041
62 CZ 21 3.947
62 CZ 22 6.388
62 CZ 23 5.900
62 CZ 24 2.970
62 CZ 25 1.994
62 CZ 26 3.947
62 CZ 27 8.830
62 CZ 28 12.248
62 CZ 29 11.271
62 CZ 30 6.388
62 CZ 31 1.017
62 CZ 32 -0.448
62 CZ 33 1.994
62 CZ 34 6.388
62 CZ 35 8.341
62 CZ 36 6.877
62 CZ 37 2.482
62 CZ 38 -0.936
62 CZ 39 -1.424
62 CZ 40 0.041
62 CZ 41 1.506
62 CZ 42 1.506
62 CZ 43 1.506
62 CZ 44 2.482
62 CZ 45 6.388
62 CZ 46 10.783
62 CZ 47 13.224
62 CZ 48 12.248
62 CZ 49 7.853
62 CZ 50 2.970
62 CZ 51 0.041
62 CZ 52 1.017
62 CZ 53 4.435
62 CZ 54 8.341
62 CZ 55 11.271
62 CZ 56 13.713
62 CZ 57 15.666
62 CZ 58 18.595
62 CZ 59 22.013
62 CZ 60 23.478
62 CZ 61 22.502
62 CZ 62 18.595
62 CZ 63 14.201
62 CZ 64 10.783
62 CZ 65 10.295
62 CZ 66 12.248
62 CZ 67 17.131
62 CZ 68 23.478
62 CZ 69 30.314
62 CZ 70 35.685
62 CZ 71 36.662
62 CZ 72 33.244
62 CZ 73 26.408
62 CZ 74 21.525
62 CZ 75 21.037
62 CZ 76 25.920
62 CZ 77 32.756
62 CZ 78 35.685
62 CZ 79 30.802
62 CZ 80 19.084
62 CZ 81 6.388
62 CZ 82 -1.912
62 CZ 83 -4.842
62 CZ 84 -3.866
62 CZ 85 -1.912
62 CZ 86 -1.912
62 CZ 87 -2.889
62 CZ 88 -2.889
62 CZ 89 -1.912
62 CZ 90 -1.424
62 CZ 91 -2.889
62 CZ 92 -6.795
62 CZ 93 -10.701
62 CZ 94 -10.701
62 CZ 95 -6.795
62 CZ 96 -0.936
62 CZ 97 2.482
62 CZ 98 0.041
62 CZ 99 -6.795
62 CZ 100 -13.631
62 CZ 101 -15.584
62 CZ 102 -12.166
62 CZ 103 -5.819
62 CZ 104 -0.936
62 CZ 105 1.017
62 CZ 106 0.041
62 CZ 107 0.529
62 CZ 108 2.970
62 CZ 109 8.341
62 CZ 110 12.736
62 CZ 111 15.666
62 CZ 112 17.619
62 CZ 113 19.572
62 CZ 114 23.966
62 CZ 115 29.338
62 CZ 116 32.267
62 CZ 117 30.802
62 CZ 118 25.431
62 CZ 119 18.107
62 CZ 120 12.736
62 CZ 121 11.759
62 CZ 122 15.177
62 CZ 123 19.572
62 CZ 124 22.013
62 CZ 125 20.549
62 CZ 126 16.154
62 CZ 127 10.295
62 CZ 128 4.924
62 CZ 129 1.017
62 CZ 130 0.041
62 CZ 131 0.041
62 CZ 132 2.970
62 CZ 133 6.877
62 CZ 134 10.783
62 CZ 135 13.224
62 CZ 136 13.224
62 CZ 137 11.759
62 CZ 138 9.806
62 CZ 139 8.341
62 CZ 140 7.853
62 CZ 141 7.853
62 CZ 142 8.341
62 CZ 143 7.365
62 CZ 144 6.388
62 CZ 145 3.947
62 CZ 146 1.506
62 CZ 147 -1.912
62 CZ 148 -4.354
62 CZ 149 -5.330
62 CZ 150 -3.866
62 CZ 151 -1.424
62 CZ 152 1.017
62 CZ 153 1.994
62 CZ 154 1.994
62 CZ 155 1.017
62 CZ 156 1.506
62 CZ 157 2.970
62 CZ 158 4.924
62 CZ 159 8.341
62 CZ 160 11.759
62 CZ 161 14.689
62 CZ 162 16.642
62 CZ 163 16.154
62 CZ 164 13.224
62 CZ 165 9.318
62 CZ 166 5.900
62 CZ 167 5.412
62 CZ 168 6.877
62 CZ 169 8.830
62 CZ 170 10.783
62 CZ 171 10.295
62 CZ 172 8.341
62 CZ 173 4.924
62 CZ 174 1.994
62 CZ 175 -0.936
62 CZ 176 -2.889
62 CZ 177 -4.842
62 CZ 178 -6.307
62 CZ 179 -7.772
62 CZ 180 -7.284
62 CZ 181 -5.819
62 CZ 182 -3.866
62 CZ 183 -2.889
62 CZ 184 -3.866
62 CZ 185 -5.330
62 CZ 186 -6.795
62 CZ 187 -7.772
62 CZ 188 -7.772
62 CZ 189 -8.260
62 CZ 190 -10.213
62 CZ 191 -12.655
62 CZ 192 -14.119
62 CZ 193 -12.166
62 CZ 194 -8.260
62 CZ 195 -3.377
62 CZ 196 0.041
62 CZ 197 -0.448
62 CZ 198 -2.889
62 CZ 199 -6.795
62 CZ 200 -10.213
62 CZ 201 -12.166
62 CZ 202 -12.655
62 CZ 203 -12.655
62 CZ 204 -12.655
62 CZ 205 -11.190
62 CZ 206 -9.237
62 CZ 207 -7.772
62 CZ 208 -8.260
62 CZ 209 -12.655
62 CZ 210 -19.979
62 CZ 211 -27.791
62 CZ 212 -33.651
62 CZ 213 -35.604
62 CZ 214 -35.116
62 CZ 215 -35.116
62 CZ 216 -37.069
62 CZ 217 -41.463
62 CZ 218 -46.346
62 CZ 219 -49.764
62 CZ 220 -50.741
62 CZ 221 -49.764
62 CZ 222 -47.811
62 CZ 223 -46.834
62 CZ 224 -44.881
62 CZ 225 -42.440
62 CZ 226 -39.998
62 CZ 227 -39.998
62 CZ 228 -42.928
62 CZ 229 -48.787
62 CZ 230 -54.159
62 CZ 231 -55.623
62 CZ 232 -51.717
62 CZ 233 -44.881
62 CZ 234 -38.534
62 CZ 235 -36.092
62 CZ 236 -38.045
62 CZ 237 -40.487
62 CZ 238 -40.487
62 CZ 239 -37.557
62 CZ 240 -33.162
62 CZ 241 -31.209
62 CZ 242 -31.698
62 CZ 243 -34.627
62 CZ 244 -37.069
62 CZ 245 -37.557
62 CZ 246 -37.069
62 CZ 247 -34.627
62 CZ 248 -31.698
62 CZ 249 -29.256
62 CZ 250 -28.280
62 CZ 251 -30.233
62 CZ 252 -34.627
62 CZ 253 -40.487
62 CZ 254 -44.881
62 CZ 255 -46.346
# C3 chan 16
62 C3 0 -1.719
62 C3 1 -2.207
62 C3 2 -0.743
62 C3 3 0.722
62 C3 4 2.675
62 C3 5 4.140
62 C3 6 4.140
62 C3 7 2.675
62 C3 8 1.699
62 C3 9 1.211
62 C3 10 1.211
62 C3 11 1.211
62 C3 12 1.211
62 C3 13 0.722
62 C3 14 0.234
62 C3 15 0.234
62 C3 16 1.211
62 C3 17 3.164
62 C3 18 4.628
62 C3 19 5.605
62 C3 20 5.605
62 C3 21 3.652
62 C3 22 2.675
62 C3 23 1.699
62 C3 24 1.211
62 C3 25 1.699
62 C3 26 2.187
62 C3 27 2.675
62 C3 28 2.675
62 C3 29 1.699
62 C3 30 0.722
62 C3 31 -1.231
62 C3 32 -2.207
62 C3 33 -2.696
62 C3 34 -2.207
62 C3 35 -0.743
62 C3 36 0.234
62 C3 37 1.211
62 C3 38 0.722
62 C3 39 -0.254
62 C3 40 -1.231
62 C3 41 -2.696
62 C3 42 -3.672
62 C3 43 -4.161
62 C3 44 -4.649
62 C3 45 -4.161
62 C3 46 -3.184
62 C3 47 -1.719
62 C3 48 -1.231
62 C3 49 -1.719
62 C3 50 -2.207
62 C3 51 -3.184
62 C3 52 -4.161
62 C3 53 -4.649
62 C3 54 -5.625
62 C3 55 -6.602
62 C3 56 -7.090
62 C3 57 -7.090
62 C3 58 -6.114
62 C3 59 -3.672
62 C3 60 -0.743
62 C3 61 1.699
62 C3 62 2.675
62 C3 63 3.164
62 C3 64 2.187
62 C3 65 1.211
62 C3 66 0.722
62 C3 67 -0.743
62 C3 68 -2.207
62 C3 69 -3.672
62 C3 70 -4.649
62 C3 71 -4.649
62 C3 72 -4.161
62 C3 73 -3.184
62 C3 74 -2.207
62 C3 75 -2.207
62 C3 76 -2.207
62 C3 77 -2.207
62 C3 78 -1.231
62 C3 79 -0.254
62 C3 80 1.211
62 C3 81 2.187
62 C3 82 2.675
62 C3 83 2.187
62 C3 84 0.234
62 C3 85 -1.719
62 C3 86 -3.184
62 C3 87 -4.649
62 C3 88 -5.625
62 C3 89 -5.625
62 C3 90 -5.625
62 C3 91 -6.114
62 C3 92 -6.602
62 C3 93 -7.090
62 C3 94 -7.579
62 C3 95 -7.090
62 C3 96 -6.114
62 C3 97 -5.137
62 C3 98 -4.649
62 C3 99 -4.161
62 C3 100 -4.161
62 C3 101 -3.184
62 C3 102 -2.696
62 C3 103 -2.696
62 C3 104 -3.184
62 C3 105 -4.649
62 C3 106 -5.625
62 C3 107 -5.137
62 C3 108 -3.672
62 C3 109 -2.696
62 C3 110 -2.696
62 C3 111 -3.672
62 C3 112 -5.137
62 C3 113 -6.602
62 C3 114 -7.090
62 C3 115 -8.067
62 C3 116 -7.579
62 C3 117 -7.090
62 C3 118 -5.625
62 C3 119 -3.184
62 C3 120 -0.743
62 C3 121 1.211
62 C3 122 1.699
62 C3 123 1.211
62 C3 124 0.234
62 C3 125 0.234
62 C3 126 0.722
62 C3 127 1.699
62 C3 128 2.187
62 C3 129 1.699
62 C3 130 0.722
62 C3 131 -0.743
62 C3 132 -2.207
62 C3 133 -3.184
62 C3 134 -4.161
62 C3 135 -4.649
62 C3 136 -4.649
62 C3 137 -3.672
62 C3 138 -1.231
62 C3 139 0.722
62 C3 140 2.187
62 C3 141 2.187
62 C3 142 0.722
62 C3 143 -0.254
62 C3 144 -1.231
62 C3 145 -1.719
62 C3 146 -1.719
62 C3 147 -2.696
62 C3 148 -4.161
62 C3 149 -6.114
62 C3 150 -7.579
62 C3 151 -8.067
62 C3 152 -8.067
62 C3 153 -8.067
62 C3 154 -8.555
62 C3 155 -9.532
62 C3 156 -10.508
62 C3 157 -11.485
62 C3 158 -11.485
62 C3 159 -10.508
62 C3 160 -9.043
62 C3 161 -6.602
62 C3 162 -3.672
62 C3 163 -1.719
62 C3 164 -1.231
62 C3 165 -2.696
62 C3 166 -5.137
62 C3 167 -7.090
62 C3 168 -7.579
62 C3 169 -5.625
62 C3 170 -3.672
62 C3 171 -2.207
62 C3 172 -3.184
62 C3 173 -5.137
62 C3 174 -7.090
62 C3 175 -8.067
62 C3 176 -8.067
62 C3 177 -7.579
62 C3 178 -6.602
62 C3 179 -6.602
62 C3 180 -7.090
62 C3 181 -7.579
62 C3 182 -8.067
62 C3 183 -8.555
62 C3 184 -9.043
62 C3 185 -9.043
62 C3 186 -9.532
62 C3 187 -9.532
62 C3 188 -9.043
62 C3 189 -9.043
62 C3 190 -9.043
62 C3 191 -9.043
62 C3 192 -8.555
62 C3 193 -7.579
62 C3 194 -6.602
62 C3 195 -5.625
62 C3 196 -5.137
62 C3 197 -5.625
62 C3 198 -6.602
62 C3 199 -7.090
62 C3 200 -8.067
62 C3 201 -8.067
62 C3 202 -8.067
62 C3 203 -7.579
62 C3 204 -6.114
62 C3 205 -5.137
62 C3 206 -4.161
62 C3 207 -4.161
62 C3 208 -5.137
62 C3 209 -5.625
62 C3 210 -6.602
62 C3 211 -6.114
62 C3 212 -5.625
62 C3 213 -6.114
62 C3 214 -6.114
62 C3 215 -6.114
62 C3 216 -5.625
62 C3 217 -4.649
62 C3 218 -3.184
62 C3 219 -2.207
62 C3 220 -2.696
62 C3 221 -4.649
62 C3 222 -6.114
62 C3 223 -6.602
62 C3 224 -6.114
62 C3 225 -5.625
62 C3 226 -6.114
62 C3 227 -7.579
62 C3 228 -8.067
62 C3 229 -8.067
62 C3 230 -6.602
62 C3 231 -4.161
62 C3 232 -2.207
62 C3 233 -2.207
62 C3 234 -2.207
62 C3 235 -2.696
62 C3 236 -3.184
62 C3 237 -3.184
62 C3 238 -3.184
62 C3 239 -3.672
62 C3 240 -3.672
62 C3 241 -3.672
62 C3 242 -3.184
62 C3 243 -3.672
62 C3 244 -4.649
62 C3 245 -5.137
62 C3 246 -4.649
62 C3 247 -3.184
62 C3 248 -1.719
62 C3 249 -0.743
62 C3 250 -1.231
62 C3 251 -1.719
62 C3 252 -2.207
62 C3 253 -1.719
62 C3 254 -0.743
62 C3 255 -0.743
# C4 chan 17
62 C4 0 -0.956
62 C4 1 -1.933
62 C4 2 -1.933
62 C4 3 -0.956
62 C4 4 0.020
62 C4 5 0.509
62 C4 6 0.997
62 C4 7 0.997
62 C4 8 0.509
62 C4 9 0.020
62 C4 10 -0.468
62 C4 11 -1.444
62 C4 12 -2.421
62 C4 13 -3.398
62 C4 14 -4.374
62 C4 15 -4.862
62 C4 16 -4.374
62 C4 17 -2.909
62 C4 18 -1.444
62 C4 19 -0.468
62 C4 20 0.020
62 C4 21 0.509
62 C4 22 0.020
62 C4 23 0.020
62 C4 24 0.020
62 C4 25 -0.956
62 C4 26 -1.444
62 C4 27 -1.444
62 C4 28 -1.444
62 C4 29 -0.956
62 C4 30 -0.956
62 C4 31 -1.444
62 C4 32 -1.933
62 C4 33 -2.909
62 C4 34 -2.909
62 C4 35 -1.933
62 C4 36 -0.468
62 C4 37 0.997
62 C4 38 1.973
62 C4 39 1.973
62 C4 40 1.973
62 C4 41 0.997
62 C4 42 0.020
62 C4 43 -0.468
62 C4 44 -0.468
62 C4 45 -0.468
62 C4 46 0.020
62 C4 47 0.997
62 C4 48 1.485
62 C4 49 1.485
62 C4 50 1.973
62 C4 51 0.997
62 C4 52 -0.468
62 C4 53 -1.444
62 C4 54 -1.444
62 C4 55 -0.956
62 C4 56 0.509
62 C4 57 1.485
62 C4 58 0.997
62 C4 59 -0.956
62 C4 60 -2.421
62 C4 61 -2.909
62 C4 62 -2.421
62 C4 63 -0.956
62 C4 64 0.997
62 C4 65 2.462
62 C4 66 5.391
62 C4 67 8.321
62 C4 68 10.763
62 C4 69 12.227
62 C4 70 11.739
62 C4 71 9.298
62 C4 72 7.345
62 C4 73 6.856
62 C4 74 7.833
62 C4 75 9.298
62 C4 76 9.786
62 C4 77 9.298
62 C4 78 8.321
62 C4 79 7.345
62 C4 80 6.856
62 C4 81 6.368
62 C4 82 5.391
62 C4 83 4.903
62 C4 84 4.415
62 C4 85 4.415
62 C4 86 6.368
62 C4 87 8.321
62 C4 88 9.786
62 C4 89 9.786
62 C4 90 8.321
62 C4 91 6.368
62 C4 92 4.903
62 C4 93 3.927
62 C4 94 4.415
62 C4 95 5.880
62 C4 96 6.856
62 C4 97 7.345
62 C4 98 6.856
62 C4 99 5.391
62 C4 100 3.438
62 C4 101 1.973
62 C4 102 0.997
62 C4 103 0.997
62 C4 104 2.462
62 C4 105 3.438
62 C4 106 4.415
62 C4 107 4.415
62 C4 108 3.927
62 C4 109 3.927
62 C4 110 4.415
62 C4 111 5.391
62 C4 112 6.856
62 C4 113 7.833
62 C4 114 8.321
62 C4 115 8.321
62 C4 116 7.833
62 C4 117 6.856
62 C4 118 5.880
62 C4 119 4.903
62 C4 120 3.438
62 C4 121 2.462
62 C4 122 1.973
62 C4 123 2.950
62 C4 124 3.927
62 C4 125 4.415
62 C4 126 4.415
62 C4 127 4.415
62 C4 128 4.415
62 C4 129 4.903
62 C4 130 5.880
62 C4 131 5.880
62 C4 132 5.880
62 C4 133 5.391
62 C4 134 4.903
62 C4 135 4.903
62 C4 136 4.903
62 C4 137 4.903
62 C4 138 3.927
62 C4 139 1.973
62 C4 140 0.509
62 C4 141 0.020
62 C4 142 0.997
62 C4 143 3.438
62 C4 144 5.880
62 C4 145 7.833
62 C4 146 8.321
62 C4 147 7.345
62 C4 148 6.368
62 C4 149 5.391
62 C4 150 4.903
62 C4 151 4.415
62 C4 152 3.438
62 C4 153 2.950
62 C4 154 2.950
62 C4 155 3.438
62 C4 156 4.415
62 C4 157 5.391
62 C4 158 5.391
62 C4 159 4.903
62 C4 160 3.927
62 C4 161 3.438
62 C4 162 4.415
62 C4 163 5.391
62 C4 164 6.368
62 C4 165 6.368
62 C4 166 5.391
62 C4 167 4.415
62 C4 168 3.927
62 C4 169 4.415
62 C4 170 5.391
62 C4 171 6.368
62 C4 172 6.856
62 C4 173 5.880
62 C4 174 3.927
62 C4 175 2.462
62 C4 176 1.485
62 C4 177 0.997
62 C4 178 1.485
62 C4 179 1.973
62 C4 180 2.950
62 C4 181 3.438
62 C4 182 3.927
62 C4 183 4.415
62 C4 184 4.415
62 C4 185 5.391
62 C4 186 6.368
62 C4 187 7.345
62 C4 188 8.321
62 C4 189 8.809
62 C4 190 7.833
62 C4 191 5.880
62 C4 192 3.927
62 C4 193 1.973
62 C4 194 0.997
62 C4 195 0.509
62 C4 196 0.997
62 C4 197 1.485
62 C4 198 1.973
62 C4 199 2.462
62 C4 200 3.438
62 C4 201 3.927
62 C4 202 4.903
62 C4 203 5.391
62 C4 204 5.391
62 C4 205 3.438
62 C4 206 1.973
62 C4 207 0.020
62 C4 208 -0.956
62 C4 209 -0.956
62 C4 210 0.020
62 C4 211 0.997
62 C4 212 0.997
62 C4 213 0.509
62 C4 214 0.020
62 C4 215 -0.468
62 C4 216 -0.468
62 C4 217 -0.468
62 C4 218 -0.956
62 C4 219 -0.956
62 C4 220 -1.444
62 C4 221 -0.956
62 C4 222 -0.468
62 C4 223 0.020
62 C4 224 0.509
62 C4 225 0.997
62 C4 226 1.485
62 C4 227 1.973
62 C4 228 1.973
62 C4 229 1.973
62 C4 230 0.997
62 C4 231 0.509
62 C4 232 0.020
62 C4 233 -0.468
62 C4 234 -0.956
62 C4 235 -1.444
62 C4 236 -1.444
62 C4 237 -0.956
62 C4 238 -0.956
62 C4 239 -0.468
62 C4 240 -0.468
62 C4 241 -0.468
62 C4 242 0.020
62 C4 243 1.485
62 C4 244 2.462
62 C4 245 2.950
62 C4 246 2.462
62 C4 247 1.485
62 C4 248 0.020
62 C4 249 -0.468
62 C4 250 -0.468
62 C4 251 0.509
62 C4 252 0.997
62 C4 253 0.509
62 C4 254 0.509
62 C4 255 0.020
# CP5 chan 18
62 CP5 0 0.326
62 CP5 1 1.790
62 CP5 2 2.767
62 CP5 3 3.743
62 CP5 4 4.720
62 CP5 5 4.720
62 CP5 6 4.232
62 CP5 7 2.767
62 CP5 8 1.790
62 CP5 9 1.302
62 CP5 10 1.790
62 CP5 11 2.279
62 CP5 12 2.767
62 CP5 13 2.279
62 CP5 14 0.814
62 CP5 15 -0.651
62 CP5 16 -1.139
62 CP5 17 0.326
62 CP5 18 2.279
62 CP5 19 4.720
62 CP5 20 6.185
62 CP5 21 6.185
62 CP5 22 5.208
62 CP5 23 3.743
62 CP5 24 2.767
62 CP5 25 2.767
62 CP5 26 3.255
62 CP5 27 4.232
62 CP5 28 4.720
62 CP5 29 4.232
62 CP5 30 3.255
62 CP5 31 2.767
62 CP5 32 2.767
62 CP5 33 2.767
62 CP5 34 2.279
62 CP5 35 1.790
62 CP5 36 0.814
62 CP5 37 0.814
62 CP5 38 1.302
62 CP5 39 1.302
62 CP5 40 0.814
62 CP5 41 -1.139
62 CP5 42 -4.069
62 CP5 43 -6.022
62 CP5 44 -6.510
62 CP5 45 -5.534
62 CP5 46 -4.069
62 CP5 47 -4.069
62 CP5 48 -4.557
62 CP5 49 -6.022
62 CP5 50 -6.999
62 CP5 51 -6.999
62 CP5 52 -6.022
62 CP5 53 -4.069
62 CP5 54 -2.604
62 CP5 55 -2.116
62 CP5 56 -2.604
62 CP5 57 -3.092
62 CP5 58 -3.092
62 CP5 59 -2.116
62 CP5 60 0.326
62 CP5 61 3.255
62 CP5 62 4.720
62 CP5 63 5.208
62 CP5 64 4.720
62 CP5 65 2.767
62 CP5 66 1.302
62 CP5 67 -0.651
62 CP5 68 -2.116
62 CP5 69 -3.092
62 CP5 70 -3.092
62 CP5 71 -2.116
62 CP5 72 -0.163
62 CP5 73 2.767
62 CP5 74 4.720
62 CP5 75 6.673
62 CP5 76 7.650
62 CP5 77 7.650
62 CP5 78 8.138
62 CP5 79 9.115
62 CP5 80 10.091
62 CP5 81 10.091
62 CP5 82 9.603
62 CP5 83 8.626
62 CP5 84 6.673
62 CP5 85 5.208
62 CP5 86 3.255
62 CP5 87 1.790
62 CP5 88 0.326
62 CP5 89 -0.651
62 CP5 90 -1.139
62 CP5 91 -1.139
62 CP5 92 -1.139
62 CP5 93 -0.651
62 CP5 94 -0.163
62 CP5 95 0.814
62 CP5 96 2.279
62 CP5 97 4.232
62 CP5 98 5.208
62 CP5 99 5.697
62 CP5 100 5.697
62 CP5 101 5.697
62 CP5 102 5.208
62 CP5 103 4.720
62 CP5 104 4.232
62 CP5 105 2.767
62 CP5 106 0.814
62 CP5 107 -0.651
62 CP5 108 -2.116
62 CP5 109 -2.116
62 CP5 110 -1.628
62 CP5 111 -1.139
62 CP5 112 0.326
62 CP5 113 1.790
62 CP5 114 2.767
62 CP5 115 4.232
62 CP5 116 5.208
62 CP5 117 6.185
62 CP5 118 8.138
62 CP5 119 10.579
62 CP5 120 13.509
62 CP5 121 15.951
62 CP5 122 17.415
62 CP5 123 17.415
62 CP5 124 15.951
62 CP5 125 13.997
62 CP5 126 11.556
62 CP5 127 9.603
62 CP5 128 8.138
62 CP5 129 5.697
62 CP5 130 3.255
62 CP5 131 0.326
62 CP5 132 -2.604
62 CP5 133 -4.069
62 CP5 134 -4.557
62 CP5 135 -3.092
62 CP5 136 -1.628
62 CP5 137 -0.163
62 CP5 138 0.814
62 CP5 139 1.790
62 CP5 140 3.255
62 CP5 141 4.720
62 CP5 142 5.208
62 CP5 143 4.232
62 CP5 144 2.279
62 CP5 145 0.326
62 CP5 146 -1.628
62 CP5 147 -2.604
62 CP5 148 -3.581
62 CP5 149 -4.557
62 CP5 150 -5.534
62 CP5 151 -6.022
62 CP5 152 -5.534
62 CP5 153 -5.046
62 CP5 154 -6.022
62 CP5 155 -7.975
62 CP5 156 -10.417
62 CP5 157 -11.882
62 CP5 158 -10.905
62 CP5 159 -7.975
62 CP5 160 -4.557
62 CP5 161 -1.628
62 CP5 162 -0.163
62 CP5 163 0.326
62 CP5 164 0.326
62 CP5 165 0.326
62 CP5 166 -0.163
62 CP5 167 -0.651
62 CP5 168 -1.139
62 CP5 169 -1.628
62 CP5 170 -1.628
62 CP5 171 -3.092
62 CP5 172 -4.557
62 CP5 173 -6.999
62 CP5 174 -9.440
62 CP5 175 -9.928
62 CP5 176 -9.440
62 CP5 177 -7.975
62 CP5 178 -6.022
62 CP5 179 -5.046
62 CP5 180 -4.557
62 CP5 181 -4.557
62 CP5 182 -5.046
62 CP5 183 -5.046
62 CP5 184 -5.534
62 CP5 185 -6.022
62 CP5 186 -6.022
62 CP5 187 -6.510
62 CP5 188 -6.510
62 CP5 189 -6.510
62 CP5 190 -6.022
62 CP5 191 -6.022
62 CP5 192 -5.534
62 CP5 193 -5.534
62 CP5 194 -5.534
62 CP5 195 -6.022
62 CP5 196 -6.999
62 CP5 197 -7.487
62 CP5 198 -7.487
62 CP5 199 -6.510
62 CP5 200 -5.534
62 CP5 201 -4.069
62 CP5 202 -2.116
62 CP5 203 -1.139
62 CP5 204 -0.163
62 CP5 205 0.326
62 CP5 206 0.326
62 CP5 207 0.326
62 CP5 208 -1.139
62 CP5 209 -2.604
62 CP5 210 -5.046
62 CP5 211 -6.999
62 CP5 212 -8.952
62 CP5 213 -9.928
62 CP5 214 -9.928
62 CP5 215 -8.952
62 CP5 216 -8.464
62 CP5 217 -7.975
62 CP5 218 -8.952
62 CP5 219 -10.417
62 CP5 220 -12.370
62 CP5 221 -13.835
62 CP5 222 -14.811
62 CP5 223 -14.811
62 CP5 224 -14.323
62 CP5 225 -13.835
62 CP5 226 -14.323
62 CP5 227 -14.323
62 CP5 228 -14.323
62 CP5 229 -13.346
62 CP5 230 -11.882
62 CP5 231 -9.928
62 CP5 232 -8.464
62 CP5 233 -7.487
62 CP5 234 -6.510
62 CP5 235 -6.022
62 CP5 236 -5.534
62 CP5 237 -5.046
62 CP5 238 -5.046
62 CP5 239 -6.022
62 CP5 240 -6.510
62 CP5 241 -6.999
62 CP5 242 -6.999
62 CP5 243 -6.999
62 CP5 244 -7.487
62 CP5 245 -7.975
62 CP5 246 -8.464
62 CP5 247 -8.464
62 CP5 248 -8.464
62 CP5 249 -8.952
62 CP5 250 -9.928
62 CP5 251 -10.905
62 CP5 252 -11.393
62 CP5 253 -11.393
62 CP5 254 -10.905
62 CP5 255 -10.905
# CP6 chan 19
62 CP6 0 3.326
62 CP6 1 2.350
62 CP6 2 1.373
62 CP6 3 -0.092
62 CP6 4 -0.580
62 CP6 5 -0.580
62 CP6 6 -0.580
62 CP6 7 -1.068
62 CP6 8 -2.045
62 CP6 9 -3.510
62 CP6 10 -4.974
62 CP6 11 -7.416
62 CP6 12 -8.881
62 CP6 13 -10.345
62 CP6 14 -9.857
62 CP6 15 -7.904
62 CP6 16 -5.463
62 CP6 17 -3.021
62 CP6 18 -1.068
62 CP6 19 -0.092
62 CP6 20 0.397
62 CP6 21 0.397
62 CP6 22 0.397
62 CP6 23 0.397
62 CP6 24 -0.092
62 CP6 25 -1.556
62 CP6 26 -3.021
62 CP6 27 -3.998
62 CP6 28 -4.486
62 CP6 29 -4.974
62 CP6 30 -5.463
62 CP6 31 -6.927
62 CP6 32 -8.392
62 CP6 33 -8.881
62 CP6 34 -8.881
62 CP6 35 -7.416
62 CP6 36 -5.951
62 CP6 37 -4.486
62 CP6 38 -3.998
62 CP6 39 -3.998
62 CP6 40 -4.486
62 CP6 41 -5.951
62 CP6 42 -8.392
62 CP6 43 -10.834
62 CP6 44 -12.787
62 CP6 45 -13.275
62 CP6 46 -12.299
62 CP6 47 -10.345
62 CP6 48 -8.392
62 CP6 49 -7.904
62 CP6 50 -7.904
62 CP6 51 -8.392
62 CP6 52 -9.369
62 CP6 53 -8.881
62 CP6 54 -8.392
62 CP6 55 -6.927
62 CP6 56 -5.463
62 CP6 57 -5.463
62 CP6 58 -6.439
62 CP6 59 -8.881
62 CP6 60 -11.322
62 CP6 61 -12.787
62 CP6 62 -13.275
62 CP6 63 -11.810
62 CP6 64 -8.881
62 CP6 65 -4.486
62 CP6 66 -0.092
62 CP6 67 3.815
62 CP6 68 6.744
62 CP6 69 7.721
62 CP6 70 6.744
62 CP6 71 4.791
62 CP6 72 3.815
62 CP6 73 4.303
62 CP6 74 4.791
62 CP6 75 5.280
62 CP6 76 4.791
62 CP6 77 3.326
62 CP6 78 2.350
62 CP6 79 1.373
62 CP6 80 0.885
62 CP6 81 -0.092
62 CP6 82 -1.556
62 CP6 83 -3.021
62 CP6 84 -3.510
62 CP6 85 -1.556
62 CP6 86 0.885
62 CP6 87 3.815
62 CP6 88 5.280
62 CP6 89 4.791
62 CP6 90 3.326
62 CP6 91 1.862
62 CP6 92 1.862
62 CP6 93 2.838
62 CP6 94 4.303
62 CP6 95 4.791
62 CP6 96 4.303
62 CP6 97 2.838
62 CP6 98 0.397
62 CP6 99 -1.556
62 CP6 100 -3.998
62 CP6 101 -6.927
62 CP6 102 -9.857
62 CP6 103 -11.810
62 CP6 104 -11.810
62 CP6 105 -9.369
62 CP6 106 -6.439
62 CP6 107 -3.510
62 CP6 108 -2.045
62 CP6 109 -1.556
62 CP6 110 -1.068
62 CP6 111 0.397
62 CP6 112 2.350
62 CP6 113 4.791
62 CP6 114 5.768
62 CP6 115 5.280
62 CP6 116 4.303
62 CP6 117 2.838
62 CP6 118 1.862
62 CP6 119 1.373
62 CP6 120 0.397
62 CP6 121 -0.580
62 CP6 122 -0.580
62 CP6 123 0.397
62 CP6 124 1.373
62 CP6 125 2.350
62 CP6 126 1.862
62 CP6 127 0.397
62 CP6 128 -1.556
62 CP6 129 -2.045
62 CP6 130 -2.045
62 CP6 131 -0.580
62 CP6 132 1.373
62 CP6 133 2.838
62 CP6 134 4.303
62 CP6 135 5.280
62 CP6 136 5.768
62 CP6 137 5.280
62 CP6 138 3.815
62 CP6 139 1.862
62 CP6 140 -0.092
62 CP6 141 -0.580
62 CP6 142 0.397
62 CP6 143 2.838
62 CP6 144 4.303
62 CP6 145 4.791
62 CP6 146 3.815
62 CP6 147 1.862
62 CP6 148 0.397
62 CP6 149 -0.580
62 CP6 150 -1.556
62 CP6 151 -2.533
62 CP6 152 -3.998
62 CP6 153 -4.974
62 CP6 154 -4.974
62 CP6 155 -3.998
62 CP6 156 -2.533
62 CP6 157 -1.556
62 CP6 158 -1.556
62 CP6 159 -1.556
62 CP6 160 -1.068
62 CP6 161 0.397
62 CP6 162 2.350
62 CP6 163 3.326
62 CP6 164 3.326
62 CP6 165 2.838
62 CP6 166 2.350
62 CP6 167 1.373
62 CP6 168 1.373
62 CP6 169 1.373
62 CP6 170 1.373
62 CP6 171 1.373
62 CP6 172 1.373
62 CP6 173 1.373
62 CP6 174 0.885
62 CP6 175 -0.092
62 CP6 176 -1.556
62 CP6 177 -3.021
62 CP6 178 -3.510
62 CP6 179 -2.533
62 CP6 180 -0.092
62 CP6 181 3.326
62 CP6 182 5.768
62 CP6 183 7.721
62 CP6 184 8.698
62 CP6 185 9.674
62 CP6 186 10.651
62 CP6 187 10.651
62 CP6 188 10.651
62 CP6 189 9.186
62 CP6 190 6.744
62 CP6 191 4.303
62 CP6 192 2.350
62 CP6 193 0.885
62 CP6 194 0.397
62 CP6 195 -0.092
62 CP6 196 -0.580
62 CP6 197 -0.580
62 CP6 198 -0.580
62 CP6 199 -0.092
62 CP6 200 0.397
62 CP6 201 1.373
62 CP6 202 1.862
62 CP6 203 2.350
62 CP6 204 2.350
62 CP6 205 0.885
62 CP6 206 0.397
62 CP6 207 -0.580
62 CP6 208 -1.068
62 CP6 209 -1.068
62 CP6 210 -1.068
62 CP6 211 -1.068
62 CP6 212 -2.045
62 CP6 213 -3.510
62 CP6 214 -4.974
62 CP6 215 -6.439
62 CP6 216 -6.439
62 CP6 217 -6.439
62 CP6 218 -5.951
62 CP6 219 -5.463
62 CP6 220 -5.463
62 CP6 221 -5.463
62 CP6 222 -5.951
62 CP6 223 -6.927
62 CP6 224 -7.416
62 CP6 225 -7.416
62 CP6 226 -5.463
62 CP6 227 -3.998
62 CP6 228 -3.021
62 CP6 229 -3.021
62 CP6 230 -3.998
62 CP6 231 -4.974
62 CP6 232 -4.974
62 CP6 233 -4.486
62 CP6 234 -3.510
62 CP6 235 -3.021
62 CP6 236 -3.021
62 CP6 237 -3.021
62 CP6 238 -3.021
62 CP6 239 -2.533
62 CP6 240 -2.045
62 CP6 241 -1.556
62 CP6 242 -0.580
62 CP6 243 0.885
62 CP6 244 2.350
62 CP6 245 2.838
62 CP6 246 2.350
62 CP6 247 0.397
62 CP6 248 -2.045
62 CP6 249 -3.510
62 CP6 250 -3.998
62 CP6 251 -3.998
62 CP6 252 -3.998
62 CP6 253 -5.463
62 CP6 254 -6.927
62 CP6 255 -8.392
# CP1 chan 20
62 CP1 0 -3.164
62 CP1 1 -3.164
62 CP1 2 -2.187
62 CP1 3 -1.211
62 CP1 4 -0.234
62 CP1 5 -0.234
62 CP1 6 -0.234
62 CP1 7 -0.234
62 CP1 8 0.254
62 CP1 9 0.743
62 CP1 10 0.743
62 CP1 11 0.254
62 CP1 12 -1.211
62 CP1 13 -2.675
62 CP1 14 -3.652
62 CP1 15 -3.652
62 CP1 16 -3.164
62 CP1 17 -2.187
62 CP1 18 -1.211
62 CP1 19 -0.722
62 CP1 20 -0.722
62 CP1 21 -1.211
62 CP1 22 -1.699
62 CP1 23 -1.699
62 CP1 24 -2.187
62 CP1 25 -2.187
62 CP1 26 -3.164
62 CP1 27 -3.164
62 CP1 28 -3.164
62 CP1 29 -3.164
62 CP1 30 -3.164
62 CP1 31 -3.652
62 CP1 32 -4.628
62 CP1 33 -6.093
62 CP1 34 -6.582
62 CP1 35 -6.093
62 CP1 36 -4.628
62 CP1 37 -3.164
62 CP1 38 -2.187
62 CP1 39 -1.211
62 CP1 40 -1.211
62 CP1 41 -2.187
62 CP1 42 -4.140
62 CP1 43 -6.582
62 CP1 44 -8.535
62 CP1 45 -9.511
62 CP1 46 -9.511
62 CP1 47 -8.535
62 CP1 48 -7.558
62 CP1 49 -7.558
62 CP1 50 -7.558
62 CP1 51 -8.046
62 CP1 52 -8.046
62 CP1 53 -8.046
62 CP1 54 -8.535
62 CP1 55 -9.023
62 CP1 56 -9.511
62 CP1 57 -9.023
62 CP1 58 -7.070
62 CP1 59 -5.605
62 CP1 60 -3.652
62 CP1 61 -2.675
62 CP1 62 -2.675
62 CP1 63 -2.187
62 CP1 64 -1.699
62 CP1 65 -0.722
62 CP1 66 -0.234
62 CP1 67 -0.722
62 CP1 68 -1.699
62 CP1 69 -2.675
62 CP1 70 -4.140
62 CP1 71 -5.117
62 CP1 72 -5.117
62 CP1 73 -5.117
62 CP1 74 -4.140
62 CP1 75 -3.164
62 CP1 76 -1.211
62 CP1 77 -0.234
62 CP1 78 0.743
62 CP1 79 1.231
62 CP1 80 2.207
62 CP1 81 3.672
62 CP1 82 5.625
62 CP1 83 6.114
62 CP1 84 5.625
62 CP1 85 3.184
62 CP1 86 1.231
62 CP1 87 -0.234
62 CP1 88 -0.722
62 CP1 89 0.254
62 CP1 90 0.254
62 CP1 91 0.254
62 CP1 92 -0.722
62 CP1 93 -1.211
62 CP1 94 -1.211
62 CP1 95 -0.722
62 CP1 96 0.254
62 CP1 97 0.743
62 CP1 98 1.231
62 CP1 99 1.719
62 CP1 100 2.207
62 CP1 101 3.184
62 CP1 102 3.184
62 CP1 103 2.696
62 CP1 104 1.719
62 CP1 105 0.743
62 CP1 106 -0.722
62 CP1 107 -1.211
62 CP1 108 -1.699
62 CP1 109 -1.211
62 CP1 110 -0.722
62 CP1 111 -0.234
62 CP1 112 0.254
62 CP1 113 0.743
62 CP1 114 1.231
62 CP1 115 1.719
62 CP1 116 2.207
62 CP1 117 2.696
62 CP1 118 3.184
62 CP1 119 3.672
62 CP1 120 5.137
62 CP1 121 6.114
62 CP1 122 7.579
62 CP1 123 8.067
62 CP1 124 7.579
62 CP1 125 7.090
62 CP1 126 5.625
62 CP1 127 5.137
62 CP1 128 4.649
62 CP1 129 5.137
62 CP1 130 5.137
62 CP1 131 4.161
62 CP1 132 3.672
62 CP1 133 2.207
62 CP1 134 1.231
62 CP1 135 0.743
62 CP1 136 0.743
62 CP1 137 0.743
62 CP1 138 1.719
62 CP1 139 2.696
62 CP1 140 4.649
62 CP1 141 5.625
62 CP1 142 5.625
62 CP1 143 5.137
62 CP1 144 4.649
62 CP1 145 4.649
62 CP1 146 4.649
62 CP1 147 4.649
62 CP1 148 3.672
62 CP1 149 2.207
62 CP1 150 0.743
62 CP1 151 -0.722
62 CP1 152 -0.722
62 CP1 153 -0.722
62 CP1 154 -1.211
62 CP1 155 -3.164
62 CP1 156 -5.117
62 CP1 157 -6.582
62 CP1 158 -6.582
62 CP1 159 -5.117
62 CP1 160 -3.164
62 CP1 161 -1.211
62 CP1 162 0.254
62 CP1 163 1.231
62 CP1 164 0.743
62 CP1 165 0.743
62 CP1 166 0.254
62 CP1 167 0.254
62 CP1 168 -0.234
62 CP1 169 0.254
62 CP1 170 0.254
62 CP1 171 0.254
62 CP1 172 -0.722
62 CP1 173 -2.187
62 CP1 174 -3.652
62 CP1 175 -4.628
62 CP1 176 -4.628
62 CP1 177 -3.164
62 CP1 178 -1.211
62 CP1 179 0.254
62 CP1 180 0.743
62 CP1 181 -0.722
62 CP1 182 -3.164
62 CP1 183 -4.628
62 CP1 184 -5.117
62 CP1 185 -4.140
62 CP1 186 -3.164
62 CP1 187 -2.675
62 CP1 188 -3.652
62 CP1 189 -4.628
62 CP1 190 -5.605
62 CP1 191 -5.605
62 CP1 192 -5.605
62 CP1 193 -5.605
62 CP1 194 -6.093
62 CP1 195 -6.093
62 CP1 196 -5.605
62 CP1 197 -4.140
62 CP1 198 -2.675
62 CP1 199 -2.675
62 CP1 200 -3.164
62 CP1 201 -5.117
62 CP1 202 -6.582
62 CP1 203 -6.582
62 CP1 204 -6.093
62 CP1 205 -4.628
62 CP1 206 -3.164
62 CP1 207 -2.187
62 CP1 208 -1.699
62 CP1 209 -1.699
62 CP1 210 -2.187
62 CP1 211 -2.187
62 CP1 212 -2.675
62 CP1 213 -3.652
62 CP1 214 -4.628
62 CP1 215 -4.628
62 CP1 216 -3.652
62 CP1 217 -2.675
62 CP1 218 -2.675
62 CP1 219 -2.675
62 CP1 220 -4.628
62 CP1 221 -5.605
62 CP1 222 -6.582
62 CP1 223 -6.582
62 CP1 224 -6.582
62 CP1 225 -7.558
62 CP1 226 -8.535
62 CP1 227 -9.511
62 CP1 228 -9.511
62 CP1 229 -8.046
62 CP1 230 -6.582
62 CP1 231 -5.605
62 CP1 232 -5.117
62 CP1 233 -5.117
62 CP1 234 -4.140
62 CP1 235 -2.675
62 CP1 236 -1.699
62 CP1 237 -1.211
62 CP1 238 -1.699
62 CP1 239 -2.187
62 CP1 240 -2.187
62 CP1 241 -1.699
62 CP1 242 -2.187
62 CP1 243 -4.140
62 CP1 244 -6.582
62 CP1 245 -9.023
62 CP1 246 -10.000
62 CP1 247 -8.535
62 CP1 248 -6.582
62 CP1 249 -4.628
62 CP1 250 -3.652
62 CP1 251 -3.164
62 CP1 252 -2.675
62 CP1 253 -2.187
62 CP1 254 -2.187
62 CP1 255 -3.164
# CP2 chan 21
62 CP2 0 2.014
62 CP2 1 2.502
62 CP2 2 2.502
62 CP2 3 1.526
62 CP2 4 0.549
62 CP2 5 -0.427
62 CP2 6 -0.916
62 CP2 7 -0.916
62 CP2 8 -0.916
62 CP2 9 -0.427
62 CP2 10 -1.404
62 CP2 11 -2.380
62 CP2 12 -4.333
62 CP2 13 -5.798
62 CP2 14 -6.287
62 CP2 15 -6.287
62 CP2 16 -5.310
62 CP2 17 -3.357
62 CP2 18 -2.380
62 CP2 19 -0.916
62 CP2 20 -0.427
62 CP2 21 0.061
62 CP2 22 -0.427
62 CP2 23 -0.916
62 CP2 24 -1.404
62 CP2 25 -2.380
62 CP2 26 -3.357
62 CP2 27 -4.333
62 CP2 28 -4.333
62 CP2 29 -4.333
62 CP2 30 -4.333
62 CP2 31 -5.310
62 CP2 32 -6.287
62 CP2 33 -7.751
62 CP2 34 -8.728
62 CP2 35 -8.240
62 CP2 36 -7.263
62 CP2 37 -6.287
62 CP2 38 -5.798
62 CP2 39 -5.798
62 CP2 40 -5.798
62 CP2 41 -5.798
62 CP2 42 -6.287
62 CP2 43 -7.263
62 CP2 44 -7.751
62 CP2 45 -8.728
62 CP2 46 -8.240
62 CP2 47 -7.751
62 CP2 48 -6.775
62 CP2 49 -6.287
62 CP2 50 -7.263
62 CP2 51 -8.728
62 CP2 52 -9.216
62 CP2 53 -8.728
62 CP2 54 -7.263
62 CP2 55 -5.310
62 CP2 56 -4.333
62 CP2 57 -4.822
62 CP2 58 -6.287
62 CP2 59 -8.728
62 CP2 60 -10.193
62 CP2 61 -10.193
62 CP2 62 -9.705
62 CP2 63 -8.728
62 CP2 64 -7.263
62 CP2 65 -5.310
62 CP2 66 -2.380
62 CP2 67 0.061
62 CP2 68 2.014
62 CP2 69 1.526
62 CP2 70 -0.427
62 CP2 71 -2.869
62 CP2 72 -4.333
62 CP2 73 -4.333
62 CP2 74 -3.357
62 CP2 75 -2.869
62 CP2 76 -2.869
62 CP2 77 -3.357
62 CP2 78 -3.357
62 CP2 79 -3.357
62 CP2 80 -2.380
62 CP2 81 -0.916
62 CP2 82 -0.427
62 CP2 83 -0.427
62 CP2 84 -0.427
62 CP2 85 -0.916
62 CP2 86 0.061
62 CP2 87 1.038
62 CP2 88 2.014
62 CP2 89 2.991
62 CP2 90 3.479
62 CP2 91 3.479
62 CP2 92 2.502
62 CP2 93 1.526
62 CP2 94 1.038
62 CP2 95 1.038
62 CP2 96 2.502
62 CP2 97 3.967
62 CP2 98 5.432
62 CP2 99 6.409
62 CP2 100 6.409
62 CP2 101 4.944
62 CP2 102 2.502
62 CP2 103 0.061
62 CP2 104 -1.404
62 CP2 105 -1.892
62 CP2 106 -0.916
62 CP2 107 0.549
62 CP2 108 1.038
62 CP2 109 0.061
62 CP2 110 -0.916
62 CP2 111 -1.892
62 CP2 112 -1.892
62 CP2 113 0.061
62 CP2 114 1.526
62 CP2 115 2.991
62 CP2 116 2.991
62 CP2 117 2.502
62 CP2 118 1.526
62 CP2 119 1.526
62 CP2 120 1.526
62 CP2 121 2.014
62 CP2 122 2.991
62 CP2 123 3.479
62 CP2 124 3.479
62 CP2 125 3.967
62 CP2 126 3.967
62 CP2 127 3.967
62 CP2 128 4.456
62 CP2 129 5.432
62 CP2 130 5.432
62 CP2 131 5.432
62 CP2 132 4.456
62 CP2 133 3.479
62 CP2 134 1.526
62 CP2 135 1.038
62 CP2 136 0.549
62 CP2 137 1.038
62 CP2 138 2.502
62 CP2 139 3.479
62 CP2 140 3.967
62 CP2 141 4.456
62 CP2 142 4.456
62 CP2 143 5.920
62 CP2 144 7.385
62 CP2 145 9.338
62 CP2 146 9.827
62 CP2 147 9.827
62 CP2 148 9.338
62 CP2 149 8.362
62 CP2 150 7.385
62 CP2 151 6.409
62 CP2 152 4.456
62 CP2 153 2.502
62 CP2 154 0.549
62 CP2 155 -0.916
62 CP2 156 -1.404
62 CP2 157 -1.404
62 CP2 158 -0.916
62 CP2 159 -1.404
62 CP2 160 -1.892
62 CP2 161 -1.892
62 CP2 162 -0.916
62 CP2 163 0.061
62 CP2 164 1.038
62 CP2 165 0.549
62 CP2 166 -0.427
62 CP2 167 -1.892
62 CP2 168 -2.380
62 CP2 169 -2.380
62 CP2 170 -1.404
62 CP2 171 -0.427
62 CP2 172 -0.427
62 CP2 173 -1.404
62 CP2 174 -3.357
62 CP2 175 -5.310
62 CP2 176 -5.798
62 CP2 177 -5.310
62 CP2 178 -4.333
62 CP2 179 -2.380
62 CP2 180 -0.427
62 CP2 181 0.549
62 CP2 182 1.038
62 CP2 183 1.526
62 CP2 184 2.014
62 CP2 185 2.502
62 CP2 186 3.479
62 CP2 187 3.967
62 CP2 188 3.967
62 CP2 189 2.991
62 CP2 190 2.502
62 CP2 191 2.014
62 CP2 192 1.526
62 CP2 193 1.526
62 CP2 194 2.014
62 CP2 195 2.502
62 CP2 196 2.991
62 CP2 197 2.991
62 CP2 198 2.502
62 CP2 199 2.014
62 CP2 200 0.549
62 CP2 201 0.061
62 CP2 202 0.549
62 CP2 203 2.014
62 CP2 204 3.479
62 CP2 205 4.456
62 CP2 206 3.967
62 CP2 207 2.502
62 CP2 208 1.526
62 CP2 209 1.038
62 CP2 210 2.014
62 CP2 211 2.991
62 CP2 212 2.991
62 CP2 213 1.526
62 CP2 214 -0.427
62 CP2 215 -2.869
62 CP2 216 -3.357
62 CP2 217 -2.869
62 CP2 218 -1.892
62 CP2 219 -0.916
62 CP2 220 -0.916
62 CP2 221 -1.404
62 CP2 222 -2.380
62 CP2 223 -1.892
62 CP2 224 -1.404
62 CP2 225 -0.427
62 CP2 226 -0.427
62 CP2 227 -0.916
62 CP2 228 -1.404
62 CP2 229 -1.892
62 CP2 230 -1.404
62 CP2 231 -0.427
62 CP2 232 0.061
62 CP2 233 0.061
62 CP2 234 0.061
62 CP2 235 0.061
62 CP2 236 0.061
62 CP2 237 0.549
62 CP2 238 0.549
62 CP2 239 0.549
62 CP2 240 -0.427
62 CP2 241 -1.404
62 CP2 242 -1.404
62 CP2 243 -1.404
62 CP2 244 -0.916
62 CP2 245 -1.404
62 CP2 246 -2.869
62 CP2 247 -4.333
62 CP2 248 -5.310
62 CP2 249 -5.798
62 CP2 250 -5.310
62 CP2 251 -3.845
62 CP2 252 -2.380
62 CP2 253 -1.892
62 CP2 254 -2.380
62 CP2 255 -3.357
# P3 chan 22
62 P3 0 -4.100
62 P3 1 -3.123
62 P3 2 -1.658
62 P3 3 -1.658
62 P3 4 -3.123
62 P3 5 -5.076
62 P3 6 -6.053
62 P3 7 -6.053
62 P3 8 -5.076
62 P3 9 -5.076
62 P3 10 -5.076
62 P3 11 -5.564
62 P3 12 -6.541
62 P3 13 -7.029
62 P3 14 -8.006
62 P3 15 -8.006
62 P3 16 -8.494
62 P3 17 -7.029
62 P3 18 -5.076
62 P3 19 -3.123
62 P3 20 -1.658
62 P3 21 -2.146
62 P3 22 -2.635
62 P3 23 -3.123
62 P3 24 -3.611
62 P3 25 -3.123
62 P3 26 -3.611
62 P3 27 -4.100
62 P3 28 -5.076
62 P3 29 -5.564
62 P3 30 -6.053
62 P3 31 -6.541
62 P3 32 -8.006
62 P3 33 -9.959
62 P3 34 -11.424
62 P3 35 -11.424
62 P3 36 -10.447
62 P3 37 -9.471
62 P3 38 -8.982
62 P3 39 -10.447
62 P3 40 -12.889
62 P3 41 -16.307
62 P3 42 -19.725
62 P3 43 -20.701
62 P3 44 -19.725
62 P3 45 -17.771
62 P3 46 -16.307
62 P3 47 -15.330
62 P3 48 -15.330
62 P3 49 -15.330
62 P3 50 -13.865
62 P3 51 -12.400
62 P3 52 -10.447
62 P3 53 -9.471
62 P3 54 -9.471
62 P3 55 -9.959
62 P3 56 -10.447
62 P3 57 -10.935
62 P3 58 -9.471
62 P3 59 -8.006
62 P3 60 -6.053
62 P3 61 -4.588
62 P3 62 -4.100
62 P3 63 -3.611
62 P3 64 -3.123
62 P3 65 -2.635
62 P3 66 -2.146
62 P3 67 -3.123
62 P3 68 -4.100
62 P3 69 -5.564
62 P3 70 -5.564
62 P3 71 -5.076
62 P3 72 -3.611
62 P3 73 -2.146
62 P3 74 -0.682
62 P3 75 0.295
62 P3 76 0.783
62 P3 77 0.783
62 P3 78 0.295
62 P3 79 0.295
62 P3 80 1.272
62 P3 81 2.736
62 P3 82 3.713
62 P3 83 4.201
62 P3 84 3.225
62 P3 85 1.272
62 P3 86 -0.193
62 P3 87 -1.170
62 P3 88 -1.170
62 P3 89 -1.170
62 P3 90 -0.682
62 P3 91 -0.193
62 P3 92 1.272
62 P3 93 2.248
62 P3 94 3.225
62 P3 95 3.713
62 P3 96 3.225
62 P3 97 2.736
62 P3 98 3.713
62 P3 99 5.178
62 P3 100 6.154
62 P3 101 5.666
62 P3 102 4.201
62 P3 103 1.272
62 P3 104 -1.658
62 P3 105 -4.100
62 P3 106 -5.076
62 P3 107 -5.564
62 P3 108 -5.564
62 P3 109 -5.076
62 P3 110 -4.588
62 P3 111 -4.100
62 P3 112 -3.611
62 P3 113 -2.635
62 P3 114 -2.146
62 P3 115 -1.658
62 P3 116 -0.682
62 P3 117 0.295
62 P3 118 1.272
62 P3 119 2.248
62 P3 120 3.225
62 P3 121 4.690
62 P3 122 5.178
62 P3 123 5.178
62 P3 124 4.201
62 P3 125 3.225
62 P3 126 1.272
62 P3 127 0.295
62 P3 128 0.295
62 P3 129 0.783
62 P3 130 0.295
62 P3 131 -0.682
62 P3 132 -2.146
62 P3 133 -4.100
62 P3 134 -5.076
62 P3 135 -5.564
62 P3 136 -5.076
62 P3 137 -4.588
62 P3 138 -4.100
62 P3 139 -3.123
62 P3 140 -2.635
62 P3 141 -1.658
62 P3 142 -1.170
62 P3 143 -1.170
62 P3 144 -0.682
62 P3 145 0.295
62 P3 146 -0.193
62 P3 147 -1.170
62 P3 148 -3.123
62 P3 149 -4.588
62 P3 150 -6.053
62 P3 151 -6.541
62 P3 152 -7.029
62 P3 153 -8.006
62 P3 154 -9.471
62 P3 155 -10.935
62 P3 156 -12.400
62 P3 157 -12.400
62 P3 158 -11.912
62 P3 159 -10.447
62 P3 160 -8.982
62 P3 161 -7.517
62 P3 162 -5.564
62 P3 163 -4.588
62 P3 164 -3.611
62 P3 165 -3.123
62 P3 166 -2.635
62 P3 167 -1.658
62 P3 168 -1.658
62 P3 169 -1.658
62 P3 170 -2.146
62 P3 171 -2.635
62 P3 172 -3.611
62 P3 173 -5.564
62 P3 174 -7.029
62 P3 175 -8.982
62 P3 176 -9.959
62 P3 177 -9.471
62 P3 178 -7.029
62 P3 179 -4.100
62 P3 180 -1.658
62 P3 181 -1.170
62 P3 182 -3.123
62 P3 183 -5.564
62 P3 184 -6.541
62 P3 185 -6.053
62 P3 186 -4.588
62 P3 187 -3.611
62 P3 188 -4.588
62 P3 189 -6.541
62 P3 190 -7.517
62 P3 191 -8.006
62 P3 192 -7.517
62 P3 193 -7.029
62 P3 194 -7.517
62 P3 195 -8.006
62 P3 196 -8.006
62 P3 197 -6.541
62 P3 198 -4.588
62 P3 199 -3.123
62 P3 200 -3.611
62 P3 201 -4.100
62 P3 202 -5.076
62 P3 203 -4.100
62 P3 204 -2.146
62 P3 205 -0.193
62 P3 206 0.295
62 P3 207 -0.682
62 P3 208 -2.635
62 P3 209 -5.076
62 P3 210 -7.029
62 P3 211 -8.006
62 P3 212 -8.982
62 P3 213 -9.471
62 P3 214 -9.959
62 P3 215 -9.959
62 P3 216 -9.471
62 P3 217 -8.494
62 P3 218 -9.471
62 P3 219 -10.935
62 P3 220 -13.865
62 P3 221 -15.818
62 P3 222 -16.795
62 P3 223 -16.307
62 P3 224 -15.818
62 P3 225 -16.307
62 P3 226 -17.283
62 P3 227 -17.283
62 P3 228 -15.818
62 P3 229 -13.377
62 P3 230 -11.424
62 P3 231 -10.935
62 P3 232 -12.400
62 P3 233 -12.889
62 P3 234 -12.400
62 P3 235 -9.959
62 P3 236 -8.006
62 P3 237 -7.517
62 P3 238 -8.982
62 P3 239 -10.447
62 P3 240 -10.935
62 P3 241 -10.935
62 P3 242 -10.935
62 P3 243 -11.912
62 P3 244 -13.377
62 P3 245 -14.842
62 P3 246 -14.353
62 P3 247 -12.889
62 P3 248 -11.424
62 P3 249 -11.424
62 P3 250 -13.377
62 P3 251 -14.842
62 P3 252 -14.842
62 P3 253 -13.865
62 P3 254 -12.400
62 P3 255 -12.400
# P4 chan 23
62 P4 0 5.544
62 P4 1 5.056
62 P4 2 3.591
62 P4 3 1.638
62 P4 4 -0.315
62 P4 5 -2.268
62 P4 6 -3.733
62 P4 7 -4.710
62 P4 8 -6.175
62 P4 9 -7.640
62 P4 10 -9.593
62 P4 11 -11.546
62 P4 12 -12.522
62 P4 13 -12.522
62 P4 14 -12.034
62 P4 15 -10.569
62 P4 16 -9.104
62 P4 17 -6.663
62 P4 18 -3.733
62 P4 19 -1.292
62 P4 20 0.661
62 P4 21 0.661
62 P4 22 0.661
62 P4 23 -0.315
62 P4 24 -1.780
62 P4 25 -3.733
62 P4 26 -5.198
62 P4 27 -6.663
62 P4 28 -6.663
62 P4 29 -6.663
62 P4 30 -6.663
62 P4 31 -8.128
62 P4 32 -9.593
62 P4 33 -11.058
62 P4 34 -11.546
62 P4 35 -10.569
62 P4 36 -9.104
62 P4 37 -8.128
62 P4 38 -8.128
62 P4 39 -9.104
62 P4 40 -10.081
62 P4 41 -11.058
62 P4 42 -12.522
62 P4 43 -13.499
62 P4 44 -14.964
62 P4 45 -15.940
62 P4 46 -15.452
62 P4 47 -14.476
62 P4 48 -13.011
62 P4 49 -11.546
62 P4 50 -10.569
62 P4 51 -10.081
62 P4 52 -10.081
62 P4 53 -10.081
62 P4 54 -9.104
62 P4 55 -8.128
62 P4 56 -7.151
62 P4 57 -6.663
62 P4 58 -7.151
62 P4 59 -9.104
62 P4 60 -11.058
62 P4 61 -13.011
62 P4 62 -13.499
62 P4 63 -12.522
62 P4 64 -9.104
62 P4 65 -4.222
62 P4 66 0.173
62 P4 67 3.591
62 P4 68 5.544
62 P4 69 4.567
62 P4 70 3.103
62 P4 71 1.638
62 P4 72 1.638
62 P4 73 3.103
62 P4 74 4.079
62 P4 75 4.567
62 P4 76 3.591
62 P4 77 1.149
62 P4 78 -0.315
62 P4 79 -1.292
62 P4 80 -1.780
62 P4 81 -1.292
62 P4 82 -0.804
62 P4 83 0.173
62 P4 84 1.149
62 P4 85 2.614
62 P4 86 4.079
62 P4 87 4.567
62 P4 88 5.056
62 P4 89 4.567
62 P4 90 3.591
62 P4 91 3.591
62 P4 92 4.567
62 P4 93 5.056
62 P4 94 6.032
62 P4 95 5.544
62 P4 96 5.056
62 P4 97 4.567
62 P4 98 4.079
62 P4 99 4.567
62 P4 100 3.591
62 P4 101 0.661
62 P4 102 -3.245
62 P4 103 -6.663
62 P4 104 -8.616
62 P4 105 -7.151
62 P4 106 -4.710
62 P4 107 -2.268
62 P4 108 -1.780
62 P4 109 -2.268
62 P4 110 -3.245
62 P4 111 -3.245
62 P4 112 -1.780
62 P4 113 0.173
62 P4 114 1.149
62 P4 115 1.149
62 P4 116 0.661
62 P4 117 0.661
62 P4 118 0.661
62 P4 119 0.661
62 P4 120 0.661
62 P4 121 0.661
62 P4 122 0.661
62 P4 123 0.661
62 P4 124 0.661
62 P4 125 1.149
62 P4 126 1.149
62 P4 127 0.661
62 P4 128 -0.315
62 P4 129 -0.804
62 P4 130 -1.780
62 P4 131 -2.268
62 P4 132 -3.245
62 P4 133 -4.222
62 P4 134 -5.198
62 P4 135 -6.175
62 P4 136 -6.175
62 P4 137 -6.175
62 P4 138 -5.686
62 P4 139 -5.198
62 P4 140 -5.198
62 P4 141 -4.222
62 P4 142 -3.245
62 P4 143 -1.780
62 P4 144 -0.315
62 P4 145 0.661
62 P4 146 0.173
62 P4 147 -1.292
62 P4 148 -2.757
62 P4 149 -3.245
62 P4 150 -3.245
62 P4 151 -2.757
62 P4 152 -3.733
62 P4 153 -6.175
62 P4 154 -8.128
62 P4 155 -9.593
62 P4 156 -10.081
62 P4 157 -10.081
62 P4 158 -10.569
62 P4 159 -11.058
62 P4 160 -11.058
62 P4 161 -10.081
62 P4 162 -7.640
62 P4 163 -5.686
62 P4 164 -5.198
62 P4 165 -5.686
62 P4 166 -6.175
62 P4 167 -6.175
62 P4 168 -5.686
62 P4 169 -4.710
62 P4 170 -4.222
62 P4 171 -5.198
62 P4 172 -5.686
62 P4 173 -5.686
62 P4 174 -5.686
62 P4 175 -6.175
62 P4 176 -7.151
62 P4 177 -8.616
62 P4 178 -9.104
62 P4 179 -9.104
62 P4 180 -7.151
62 P4 181 -5.198
62 P4 182 -3.245
62 P4 183 -2.268
62 P4 184 -1.292
62 P4 185 0.173
62 P4 186 1.638
62 P4 187 1.638
62 P4 188 1.149
62 P4 189 -0.804
62 P4 190 -3.245
62 P4 191 -5.198
62 P4 192 -6.663
62 P4 193 -7.640
62 P4 194 -8.128
62 P4 195 -8.616
62 P4 196 -8.128
62 P4 197 -7.151
62 P4 198 -6.175
62 P4 199 -5.198
62 P4 200 -5.198
62 P4 201 -4.710
62 P4 202 -4.222
62 P4 203 -2.757
62 P4 204 -2.268
62 P4 205 -2.268
62 P4 206 -2.757
62 P4 207 -4.222
62 P4 208 -5.198
62 P4 209 -5.198
62 P4 210 -5.198
62 P4 211 -5.198
62 P4 212 -5.686
62 P4 213 -6.663
62 P4 214 -7.640
62 P4 215 -9.104
62 P4 216 -10.081
62 P4 217 -11.058
62 P4 218 -11.546
62 P4 219 -12.522
62 P4 220 -13.011
62 P4 221 -13.987
62 P4 222 -14.476
62 P4 223 -14.476
62 P4 224 -13.499
62 P4 225 -12.034
62 P4 226 -11.058
62 P4 227 -10.569
62 P4 228 -11.058
62 P4 229 -12.034
62 P4 230 -12.034
62 P4 231 -11.546
62 P4 232 -11.058
62 P4 233 -11.058
62 P4 234 -11.058
62 P4 235 -11.546
62 P4 236 -11.546
62 P4 237 -11.546
62 P4 238 -11.546
62 P4 239 -11.546
62 P4 240 -11.546
62 P4 241 -11.058
62 P4 242 -10.569
62 P4 243 -9.593
62 P4 244 -8.616
62 P4 245 -8.616
62 P4 246 -10.081
62 P4 247 -12.034
62 P4 248 -14.476
62 P4 249 -15.940
62 P4 250 -16.429
62 P4 251 -16.429
62 P4 252 -15.940
62 P4 253 -16.429
62 P4 254 -17.893
62 P4 255 -19.358
# PZ chan 24
62 PZ 0 2.899
62 PZ 1 3.387
62 PZ 2 5.341
62 PZ 3 6.317
62 PZ 4 5.829
62 PZ 5 3.876
62 PZ 6 1.434
62 PZ 7 -0.519
62 PZ 8 -1.495
62 PZ 9 -1.495
62 PZ 10 -1.007
62 PZ 11 -1.495
62 PZ 12 -1.984
62 PZ 13 -2.960
62 PZ 14 -3.448
62 PZ 15 -3.937
62 PZ 16 -3.937
62 PZ 17 -2.960
62 PZ 18 -1.007
62 PZ 19 -0.031
62 PZ 20 1.434
62 PZ 21 0.946
62 PZ 22 -0.519
62 PZ 23 -2.472
62 PZ 24 -3.937
62 PZ 25 -4.913
62 PZ 26 -5.402
62 PZ 27 -4.913
62 PZ 28 -4.913
62 PZ 29 -4.913
62 PZ 30 -5.402
62 PZ 31 -5.890
62 PZ 32 -5.890
62 PZ 33 -6.378
62 PZ 34 -6.866
62 PZ 35 -7.355
62 PZ 36 -7.843
62 PZ 37 -7.843
62 PZ 38 -7.843
62 PZ 39 -7.843
62 PZ 40 -7.843
62 PZ 41 -9.308
62 PZ 42 -11.749
62 PZ 43 -13.702
62 PZ 44 -15.167
62 PZ 45 -15.167
62 PZ 46 -14.191
62 PZ 47 -12.726
62 PZ 48 -11.749
62 PZ 49 -11.261
62 PZ 50 -10.773
62 PZ 51 -10.284
62 PZ 52 -9.308
62 PZ 53 -8.820
62 PZ 54 -8.820
62 PZ 55 -8.820
62 PZ 56 -8.820
62 PZ 57 -8.331
62 PZ 58 -8.331
62 PZ 59 -8.331
62 PZ 60 -9.308
62 PZ 61 -10.284
62 PZ 62 -10.773
62 PZ 63 -9.796
62 PZ 64 -7.843
62 PZ 65 -4.913
62 PZ 66 -2.472
62 PZ 67 -1.007
62 PZ 68 -0.031
62 PZ 69 0.458
62 PZ 70 0.946
62 PZ 71 0.946
62 PZ 72 1.434
62 PZ 73 1.434
62 PZ 74 1.434
62 PZ 75 0.458
62 PZ 76 -0.519
62 PZ 77 -1.495
62 PZ 78 -2.472
62 PZ 79 -2.472
62 PZ 80 -1.984
62 PZ 81 -0.031
62 PZ 82 2.411
62 PZ 83 4.852
62 PZ 84 6.317
62 PZ 85 7.294
62 PZ 86 6.805
62 PZ 87 6.805
62 PZ 88 6.317
62 PZ 89 5.829
62 PZ 90 5.829
62 PZ 91 5.829
62 PZ 92 5.341
62 PZ 93 4.852
62 PZ 94 4.364
62 PZ 95 3.876
62 PZ 96 3.387
62 PZ 97 3.876
62 PZ 98 4.852
62 PZ 99 6.317
62 PZ 100 7.294
62 PZ 101 7.782
62 PZ 102 6.317
62 PZ 103 3.387
62 PZ 104 0.946
62 PZ 105 -0.519
62 PZ 106 -0.519
62 PZ 107 0.458
62 PZ 108 1.434
62 PZ 109 1.434
62 PZ 110 1.434
62 PZ 111 1.923
62 PZ 112 3.876
62 PZ 113 5.829
62 PZ 114 6.805
62 PZ 115 6.805
62 PZ 116 5.829
62 PZ 117 5.341
62 PZ 118 4.852
62 PZ 119 5.829
62 PZ 120 7.294
62 PZ 121 7.782
62 PZ 122 7.782
62 PZ 123 7.294
62 PZ 124 6.317
62 PZ 125 6.317
62 PZ 126 6.805
62 PZ 127 7.782
62 PZ 128 7.782
62 PZ 129 7.294
62 PZ 130 6.317
62 PZ 131 4.364
62 PZ 132 2.899
62 PZ 133 1.434
62 PZ 134 0.458
62 PZ 135 -1.007
62 PZ 136 -1.984
62 PZ 137 -1.984
62 PZ 138 -1.007
62 PZ 139 -0.031
62 PZ 140 2.411
62 PZ 141 3.876
62 PZ 142 5.829
62 PZ 143 7.294
62 PZ 144 8.759
62 PZ 145 9.735
62 PZ 146 10.712
62 PZ 147 10.223
62 PZ 148 9.247
62 PZ 149 7.294
62 PZ 150 5.829
62 PZ 151 4.364
62 PZ 152 2.899
62 PZ 153 0.946
62 PZ 154 -1.007
62 PZ 155 -2.960
62 PZ 156 -3.937
62 PZ 157 -4.425
62 PZ 158 -4.425
62 PZ 159 -3.937
62 PZ 160 -1.984
62 PZ 161 -0.031
62 PZ 162 1.923
62 PZ 163 3.387
62 PZ 164 3.387
62 PZ 165 2.899
62 PZ 166 2.411
62 PZ 167 2.411
62 PZ 168 2.411
62 PZ 169 2.899
62 PZ 170 3.876
62 PZ 171 3.876
62 PZ 172 2.899
62 PZ 173 2.411
62 PZ 174 1.434
62 PZ 175 0.458
62 PZ 176 -0.519
62 PZ 177 -0.519
62 PZ 178 0.946
62 PZ 179 2.899
62 PZ 180 4.852
62 PZ 181 6.805
62 PZ 182 7.782
62 PZ 183 8.759
62 PZ 184 9.247
62 PZ 185 10.712
62 PZ 186 11.200
62 PZ 187 11.200
62 PZ 188 10.223
62 PZ 189 8.270
62 PZ 190 7.294
62 PZ 191 6.317
62 PZ 192 5.829
62 PZ 193 5.341
62 PZ 194 3.876
62 PZ 195 2.411
62 PZ 196 1.923
62 PZ 197 2.411
62 PZ 198 3.387
62 PZ 199 3.876
62 PZ 200 3.876
62 PZ 201 3.387
62 PZ 202 3.387
62 PZ 203 4.364
62 PZ 204 6.317
62 PZ 205 7.782
62 PZ 206 8.270
62 PZ 207 7.782
62 PZ 208 6.317
62 PZ 209 4.852
62 PZ 210 3.876
62 PZ 211 2.899
62 PZ 212 1.923
62 PZ 213 0.458
62 PZ 214 -1.007
62 PZ 215 -1.984
62 PZ 216 -1.984
62 PZ 217 -1.495
62 PZ 218 -1.495
62 PZ 219 -2.472
62 PZ 220 -4.425
62 PZ 221 -5.402
62 PZ 222 -5.402
62 PZ 223 -4.425
62 PZ 224 -3.448
62 PZ 225 -2.960
62 PZ 226 -3.937
62 PZ 227 -4.913
62 PZ 228 -5.402
62 PZ 229 -4.913
62 PZ 230 -3.937
62 PZ 231 -3.448
62 PZ 232 -3.448
62 PZ 233 -3.937
62 PZ 234 -3.448
62 PZ 235 -2.472
62 PZ 236 -0.519
62 PZ 237 0.946
62 PZ 238 1.434
62 PZ 239 1.434
62 PZ 240 0.458
62 PZ 241 -0.519
62 PZ 242 -1.495
62 PZ 243 -1.984
62 PZ 244 -1.984
62 PZ 245 -1.984
62 PZ 246 -2.960
62 PZ 247 -2.472
62 PZ 248 -3.448
62 PZ 249 -4.425
62 PZ 250 -5.890
62 PZ 251 -6.378
62 PZ 252 -6.378
62 PZ 253 -5.890
62 PZ 254 -5.402
62 PZ 255 -5.890
# P8 chan 25
62 P8 0 16.968
62 P8 1 13.062
62 P8 2 10.132
62 P8 3 8.667
62 P8 4 9.644
62 P8 5 10.132
62 P8 6 9.644
62 P8 7 7.690
62 P8 8 3.784
62 P8 9 -0.610
62 P8 10 -4.028
62 P8 11 -5.981
62 P8 12 -7.446
62 P8 13 -6.958
62 P8 14 -5.493
62 P8 15 -2.075
62 P8 16 2.319
62 P8 17 6.714
62 P8 18 9.155
62 P8 19 9.155
62 P8 20 7.202
62 P8 21 5.249
62 P8 22 5.249
62 P8 23 6.714
62 P8 24 8.179
62 P8 25 8.667
62 P8 26 7.690
62 P8 27 6.714
62 P8 28 5.737
62 P8 29 6.226
62 P8 30 6.226
62 P8 31 4.761
62 P8 32 1.343
62 P8 33 -2.563
62 P8 34 -5.493
62 P8 35 -5.493
62 P8 36 -2.563
62 P8 37 1.831
62 P8 38 4.761
62 P8 39 5.737
62 P8 40 3.784
62 P8 41 0.854
62 P8 42 -3.540
62 P8 43 -7.446
62 P8 44 -9.888
62 P8 45 -10.864
62 P8 46 -9.888
62 P8 47 -7.446
62 P8 48 -4.028
62 P8 49 -2.075
62 P8 50 -0.610
62 P8 51 -0.122
62 P8 52 -0.122
62 P8 53 0.854
62 P8 54 3.296
62 P8 55 6.714
62 P8 56 8.667
62 P8 57 8.667
62 P8 58 5.737
62 P8 59 0.854
62 P8 60 -4.517
62 P8 61 -6.958
62 P8 62 -6.470
62 P8 63 -4.028
62 P8 64 0.854
62 P8 65 6.714
62 P8 66 12.573
62 P8 67 17.456
62 P8 68 20.386
62 P8 69 21.851
62 P8 70 21.362
62 P8 71 20.386
62 P8 72 21.362
62 P8 73 22.827
62 P8 74 23.804
62 P8 75 22.339
62 P8 76 20.386
62 P8 77 18.433
62 P8 78 17.944
62 P8 79 18.921
62 P8 80 19.409
62 P8 81 17.944
62 P8 82 15.015
62 P8 83 12.085
62 P8 84 12.573
62 P8 85 15.991
62 P8 86 21.362
62 P8 87 26.245
62 P8 88 27.710
62 P8 89 25.269
62 P8 90 20.874
62 P8 91 17.944
62 P8 92 17.456
62 P8 93 19.897
62 P8 94 23.315
62 P8 95 25.269
62 P8 96 24.780
62 P8 97 21.851
62 P8 98 19.409
62 P8 99 18.433
62 P8 100 17.944
62 P8 101 15.503
62 P8 102 11.108
62 P8 103 4.761
62 P8 104 -0.122
62 P8 105 -0.610
62 P8 106 3.296
62 P8 107 8.667
62 P8 108 12.085
62 P8 109 14.038
62 P8 110 14.526
62 P8 111 15.015
62 P8 112 16.479
62 P8 113 18.433
62 P8 114 18.921
62 P8 115 18.921
62 P8 116 19.409
62 P8 117 20.874
62 P8 118 23.804
62 P8 119 25.757
62 P8 120 24.292
62 P8 121 20.386
62 P8 122 16.479
62 P8 123 14.526
62 P8 124 14.526
62 P8 125 16.479
62 P8 126 16.479
62 P8 127 14.526
62 P8 128 10.132
62 P8 129 7.202
62 P8 130 7.202
62 P8 131 10.132
62 P8 132 15.015
62 P8 133 17.944
62 P8 134 17.944
62 P8 135 15.503
62 P8 136 12.573
62 P8 137 10.132
62 P8 138 9.644
62 P8 139 9.155
62 P8 140 8.667
62 P8 141 8.179
62 P8 142 9.155
62 P8 143 11.597
62 P8 144 15.015
62 P8 145 16.968
62 P8 146 16.479
62 P8 147 13.550
62 P8 148 10.620
62 P8 149 9.155
62 P8 150 10.132
62 P8 151 11.597
62 P8 152 11.108
62 P8 153 9.155
62 P8 154 7.690
62 P8 155 8.667
62 P8 156 11.597
62 P8 157 14.526
62 P8 158 15.503
62 P8 159 14.038
62 P8 160 12.573
62 P8 161 12.573
62 P8 162 14.038
62 P8 163 16.479
62 P8 164 17.456
62 P8 165 16.479
62 P8 166 15.503
62 P8 167 15.503
62 P8 168 17.456
62 P8 169 19.409
62 P8 170 19.897
62 P8 171 18.433
62 P8 172 15.991
62 P8 173 15.015
62 P8 174 15.503
62 P8 175 17.456
62 P8 176 17.944
62 P8 177 15.991
62 P8 178 12.573
62 P8 179 9.644
62 P8 180 10.132
62 P8 181 14.038
62 P8 182 18.433
62 P8 183 21.362
62 P8 184 21.851
62 P8 185 21.362
62 P8 186 21.851
62 P8 187 23.315
62 P8 188 24.292
62 P8 189 23.804
62 P8 190 21.362
62 P8 191 17.456
62 P8 192 15.015
62 P8 193 14.526
62 P8 194 14.526
62 P8 195 14.526
62 P8 196 14.526
62 P8 197 14.526
62 P8 198 15.503
62 P8 199 17.944
62 P8 200 20.386
62 P8 201 21.851
62 P8 202 21.851
62 P8 203 21.362
62 P8 204 20.874
62 P8 205 20.874
62 P8 206 21.851
62 P8 207 21.851
62 P8 208 21.362
62 P8 209 19.409
62 P8 210 17.456
62 P8 211 15.015
62 P8 212 12.085
62 P8 213 9.155
62 P8 214 7.202
62 P8 215 6.226
62 P8 216 7.202
62 P8 217 10.132
62 P8 218 13.550
62 P8 219 15.991
62 P8 220 16.479
62 P8 221 14.038
62 P8 222 9.155
62 P8 223 3.296
62 P8 224 -0.122
62 P8 225 -0.122
62 P8 226 3.784
62 P8 227 8.667
62 P8 228 10.620
62 P8 229 8.667
62 P8 230 5.249
62 P8 231 3.296
62 P8 232 4.272
62 P8 233 8.179
62 P8 234 12.085
62 P8 235 12.573
62 P8 236 11.108
62 P8 237 8.179
62 P8 238 6.714
62 P8 239 6.714
62 P8 240 6.714
62 P8 241 5.737
62 P8 242 5.737
62 P8 243 6.714
62 P8 244 9.155
62 P8 245 11.597
62 P8 246 11.108
62 P8 247 7.202
62 P8 248 2.808
62 P8 249 -0.122
62 P8 250 -0.122
62 P8 251 1.831
62 P8 252 2.319
62 P8 253 -0.610
62 P8 254 -5.005
62 P8 255 -8.423
# P7 chan 26
62 P7 0 -0.458
62 P7 1 1.984
62 P7 2 4.425
62 P7 3 6.866
62 P7 4 7.355
62 P7 5 5.890
62 P7 6 3.448
62 P7 7 0.031
62 P7 8 -2.411
62 P7 9 -3.876
62 P7 10 -3.876
62 P7 11 -3.876
62 P7 12 -4.364
62 P7 13 -5.829
62 P7 14 -8.270
62 P7 15 -10.223
62 P7 16 -11.200
62 P7 17 -10.223
62 P7 18 -7.782
62 P7 19 -4.364
62 P7 20 -1.923
62 P7 21 -0.946
62 P7 22 -0.946
62 P7 23 -1.434
62 P7 24 -1.923
62 P7 25 -0.946
62 P7 26 0.519
62 P7 27 1.984
62 P7 28 1.984
62 P7 29 1.495
62 P7 30 1.007
62 P7 31 1.007
62 P7 32 1.007
62 P7 33 1.007
62 P7 34 0.031
62 P7 35 -1.923
62 P7 36 -3.387
62 P7 37 -3.876
62 P7 38 -4.364
62 P7 39 -5.341
62 P7 40 -7.782
62 P7 41 -11.200
62 P7 42 -14.618
62 P7 43 -16.083
62 P7 44 -15.594
62 P7 45 -13.641
62 P7 46 -11.200
62 P7 47 -9.735
62 P7 48 -8.759
62 P7 49 -8.270
62 P7 50 -6.805
62 P7 51 -5.829
62 P7 52 -4.364
62 P7 53 -2.411
62 P7 54 -1.434
62 P7 55 -1.434
62 P7 56 -1.923
62 P7 57 -3.387
62 P7 58 -4.364
62 P7 59 -4.364
62 P7 60 -4.364
62 P7 61 -2.899
62 P7 62 -0.946
62 P7 63 1.007
62 P7 64 2.472
62 P7 65 2.472
62 P7 66 1.007
62 P7 67 -0.946
62 P7 68 -1.923
62 P7 69 -1.923
62 P7 70 0.031
62 P7 71 2.472
62 P7 72 5.402
62 P7 73 7.843
62 P7 74 9.796
62 P7 75 10.773
62 P7 76 11.261
62 P7 77 10.773
62 P7 78 10.773
62 P7 79 10.284
62 P7 80 10.284
62 P7 81 9.308
62 P7 82 8.331
62 P7 83 6.378
62 P7 84 4.913
62 P7 85 2.960
62 P7 86 1.984
62 P7 87 1.495
62 P7 88 1.007
62 P7 89 1.495
62 P7 90 1.984
62 P7 91 3.937
62 P7 92 5.890
62 P7 93 7.355
62 P7 94 7.843
62 P7 95 5.890
62 P7 96 3.448
62 P7 97 1.984
62 P7 98 2.472
62 P7 99 4.425
62 P7 100 6.378
62 P7 101 6.866
62 P7 102 5.402
62 P7 103 2.960
62 P7 104 0.519
62 P7 105 -0.458
62 P7 106 -0.458
62 P7 107 -0.946
62 P7 108 -1.434
62 P7 109 -1.923
62 P7 110 -1.923
62 P7 111 -0.458
62 P7 112 2.960
62 P7 113 6.378
62 P7 114 8.820
62 P7 115 9.308
62 P7 116 8.820
62 P7 117 7.355
62 P7 118 6.866
62 P7 119 6.866
62 P7 120 7.355
62 P7 121 8.820
62 P7 122 10.284
62 P7 123 11.261
62 P7 124 11.749
62 P7 125 11.261
62 P7 126 8.820
62 P7 127 6.378
62 P7 128 4.425
62 P7 129 2.960
62 P7 130 1.495
62 P7 131 -0.458
62 P7 132 -2.899
62 P7 133 -5.341
62 P7 134 -6.317
62 P7 135 -5.829
62 P7 136 -4.364
62 P7 137 -2.899
62 P7 138 -1.923
62 P7 139 -1.434
62 P7 140 -1.434
62 P7 141 -0.458
62 P7 142 0.031
62 P7 143 0.031
62 P7 144 -1.434
62 P7 145 -3.387
62 P7 146 -5.341
62 P7 147 -7.294
62 P7 148 -9.247
62 P7 149 -10.223
62 P7 150 -10.223
62 P7 151 -8.759
62 P7 152 -7.294
62 P7 153 -6.805
62 P7 154 -7.782
62 P7 155 -10.223
62 P7 156 -13.641
62 P7 157 -15.594
62 P7 158 -15.106
62 P7 159 -12.177
62 P7 160 -10.223
62 P7 161 -8.759
62 P7 162 -8.759
62 P7 163 -9.247
62 P7 164 -9.247
62 P7 165 -8.270
62 P7 166 -7.294
62 P7 167 -6.805
62 P7 168 -6.805
62 P7 169 -7.294
62 P7 170 -7.782
62 P7 171 -7.782
62 P7 172 -8.270
62 P7 173 -8.759
62 P7 174 -10.223
62 P7 175 -11.200
62 P7 176 -11.200
62 P7 177 -10.223
62 P7 178 -7.294
62 P7 179 -4.364
62 P7 180 -2.899
62 P7 181 -2.899
62 P7 182 -4.364
62 P7 183 -5.341
62 P7 184 -5.829
62 P7 185 -5.341
62 P7 186 -4.364
62 P7 187 -4.364
62 P7 188 -4.364
62 P7 189 -5.341
62 P7 190 -6.317
62 P7 191 -6.805
62 P7 192 -7.294
62 P7 193 -8.270
62 P7 194 -10.223
62 P7 195 -12.177
62 P7 196 -13.641
62 P7 197 -14.130
62 P7 198 -13.153
62 P7 199 -11.688
62 P7 200 -10.712
62 P7 201 -9.247
62 P7 202 -7.782
62 P7 203 -5.829
62 P7 204 -3.876
62 P7 205 -2.411
62 P7 206 -1.923
62 P7 207 -2.411
62 P7 208 -3.876
62 P7 209 -5.341
62 P7 210 -7.782
62 P7 211 -10.223
62 P7 212 -12.665
62 P7 213 -14.618
62 P7 214 -15.106
62 P7 215 -15.106
62 P7 216 -14.618
62 P7 217 -15.594
62 P7 218 -18.524
62 P7 219 -22.430
62 P7 220 -26.337
62 P7 221 -27.802
62 P7 222 -27.313
62 P7 223 -25.360
62 P7 224 -24.384
62 P7 225 -25.848
62 P7 226 -27.802
62 P7 227 -29.266
62 P7 228 -28.290
62 P7 229 -24.872
62 P7 230 -21.454
62 P7 231 -19.012
62 P7 232 -18.036
62 P7 233 -18.524
62 P7 234 -18.524
62 P7 235 -18.524
62 P7 236 -18.036
62 P7 237 -18.036
62 P7 238 -18.036
62 P7 239 -17.548
62 P7 240 -16.083
62 P7 241 -14.618
62 P7 242 -13.641
62 P7 243 -15.106
62 P7 244 -17.548
62 P7 245 -19.501
62 P7 246 -19.989
62 P7 247 -19.501
62 P7 248 -19.501
62 P7 249 -20.966
62 P7 250 -24.384
62 P7 251 -28.290
62 P7 252 -30.731
62 P7 253 -31.219
62 P7 254 -30.243
62 P7 255 -28.778
# PO2 chan 27
62 PO2 0 7.385
62 PO2 1 7.874
62 PO2 2 8.850
62 PO2 3 8.362
62 PO2 4 5.920
62 PO2 5 2.991
62 PO2 6 -0.427
62 PO2 7 -3.357
62 PO2 8 -5.798
62 PO2 9 -7.263
62 PO2 10 -7.751
62 PO2 11 -8.728
62 PO2 12 -8.728
62 PO2 13 -9.216
62 PO2 14 -9.216
62 PO2 15 -8.728
62 PO2 16 -7.751
62 PO2 17 -5.310
62 PO2 18 -1.892
62 PO2 19 1.526
62 PO2 20 3.967
62 PO2 21 5.432
62 PO2 22 5.432
62 PO2 23 3.967
62 PO2 24 1.526
62 PO2 25 -0.916
62 PO2 26 -2.869
62 PO2 27 -4.333
62 PO2 28 -4.822
62 PO2 29 -4.822
62 PO2 30 -4.822
62 PO2 31 -6.287
62 PO2 32 -7.751
62 PO2 33 -9.705
62 PO2 34 -10.193
62 PO2 35 -9.705
62 PO2 36 -9.216
62 PO2 37 -8.240
62 PO2 38 -7.751
62 PO2 39 -8.240
62 PO2 40 -9.705
62 PO2 41 -11.169
62 PO2 42 -12.634
62 PO2 43 -15.076
62 PO2 44 -17.029
62 PO2 45 -17.517
62 PO2 46 -16.541
62 PO2 47 -14.099
62 PO2 48 -10.681
62 PO2 49 -8.728
62 PO2 50 -7.751
62 PO2 51 -7.263
62 PO2 52 -6.775
62 PO2 53 -5.798
62 PO2 54 -4.333
62 PO2 55 -3.357
62 PO2 56 -2.380
62 PO2 57 -2.380
62 PO2 58 -2.869
62 PO2 59 -4.333
62 PO2 60 -6.775
62 PO2 61 -9.705
62 PO2 62 -11.658
62 PO2 63 -11.658
62 PO2 64 -8.728
62 PO2 65 -3.845
62 PO2 66 2.014
62 PO2 67 5.920
62 PO2 68 7.874
62 PO2 69 7.385
62 PO2 70 6.897
62 PO2 71 6.897
62 PO2 72 8.362
62 PO2 73 9.827
62 PO2 74 10.803
62 PO2 75 10.315
62 PO2 76 8.362
62 PO2 77 6.409
62 PO2 78 5.432
62 PO2 79 4.456
62 PO2 80 4.944
62 PO2 81 5.920
62 PO2 82 7.385
62 PO2 83 8.850
62 PO2 84 10.315
62 PO2 85 12.268
62 PO2 86 13.245
62 PO2 87 13.245
62 PO2 88 13.245
62 PO2 89 12.756
62 PO2 90 12.268
62 PO2 91 12.756
62 PO2 92 13.733
62 PO2 93 14.709
62 PO2 94 14.709
62 PO2 95 13.245
62 PO2 96 10.803
62 PO2 97 9.827
62 PO2 98 9.827
62 PO2 99 11.780
62 PO2 100 12.756
62 PO2 101 11.780
62 PO2 102 7.874
62 PO2 103 2.502
62 PO2 104 -0.916
62 PO2 105 -1.404
62 PO2 106 0.549
62 PO2 107 2.991
62 PO2 108 4.944
62 PO2 109 5.432
62 PO2 110 5.920
62 PO2 111 6.897
62 PO2 112 9.827
62 PO2 113 12.756
62 PO2 114 15.198
62 PO2 115 15.198
62 PO2 116 13.733
62 PO2 117 12.268
62 PO2 118 11.780
62 PO2 119 12.268
62 PO2 120 12.756
62 PO2 121 13.245
62 PO2 122 12.268
62 PO2 123 11.780
62 PO2 124 10.803
62 PO2 125 10.803
62 PO2 126 11.292
62 PO2 127 11.292
62 PO2 128 10.803
62 PO2 129 10.315
62 PO2 130 9.338
62 PO2 131 7.385
62 PO2 132 5.920
62 PO2 133 4.456
62 PO2 134 3.479
62 PO2 135 2.991
62 PO2 136 2.991
62 PO2 137 3.479
62 PO2 138 3.967
62 PO2 139 4.456
62 PO2 140 4.944
62 PO2 141 5.920
62 PO2 142 7.874
62 PO2 143 9.827
62 PO2 144 11.780
62 PO2 145 12.268
62 PO2 146 11.292
62 PO2 147 8.850
62 PO2 148 6.897
62 PO2 149 5.432
62 PO2 150 4.944
62 PO2 151 4.456
62 PO2 152 3.479
62 PO2 153 2.014
62 PO2 154 -0.427
62 PO2 155 -1.892
62 PO2 156 -2.380
62 PO2 157 -2.869
62 PO2 158 -3.357
62 PO2 159 -3.357
62 PO2 160 -3.357
62 PO2 161 -2.380
62 PO2 162 -0.427
62 PO2 163 1.038
62 PO2 164 1.526
62 PO2 165 1.526
62 PO2 166 1.038
62 PO2 167 1.038
62 PO2 168 1.526
62 PO2 169 2.502
62 PO2 170 2.502
62 PO2 171 2.502
62 PO2 172 1.038
62 PO2 173 0.061
62 PO2 174 -1.404
62 PO2 175 -1.892
62 PO2 176 -1.892
62 PO2 177 -1.404
62 PO2 178 0.549
62 PO2 179 2.014
62 PO2 180 3.479
62 PO2 181 4.456
62 PO2 182 4.944
62 PO2 183 5.432
62 PO2 184 5.920
62 PO2 185 6.897
62 PO2 186 7.385
62 PO2 187 6.897
62 PO2 188 5.432
62 PO2 189 2.991
62 PO2 190 1.038
62 PO2 191 0.061
62 PO2 192 -0.916
62 PO2 193 -1.892
62 PO2 194 -3.845
62 PO2 195 -5.798
62 PO2 196 -6.775
62 PO2 197 -5.798
62 PO2 198 -3.845
62 PO2 199 -1.404
62 PO2 200 -0.427
62 PO2 201 -0.916
62 PO2 202 -1.404
62 PO2 203 -0.916
62 PO2 204 0.549
62 PO2 205 2.014
