# co3a0000461.rd
# 120 trials, 64 chans, 416 samples 368 post_stim samples
# 3.906000 msecs uV
# S1 obj , trial 38
# FP1 chan 0
38 FP1 0 6.205
38 FP1 1 4.740
38 FP1 2 3.276
38 FP1 3 1.811
38 FP1 4 0.346
38 FP1 5 -0.142
38 FP1 6 0.834
38 FP1 7 2.787
38 FP1 8 4.252
38 FP1 9 5.717
38 FP1 10 5.717
38 FP1 11 4.740
38 FP1 12 3.764
38 FP1 13 3.764
38 FP1 14 4.740
38 FP1 15 8.158
38 FP1 16 11.576
38 FP1 17 14.018
38 FP1 18 14.506
38 FP1 19 13.041
38 FP1 20 10.600
38 FP1 21 9.135
38 FP1 22 9.135
38 FP1 23 9.135
38 FP1 24 8.158
38 FP1 25 4.252
38 FP1 26 -1.607
38 FP1 27 -6.490
38 FP1 28 -7.955
38 FP1 29 -6.002
38 FP1 30 -2.096
38 FP1 31 0.346
38 FP1 32 0.346
38 FP1 33 -1.607
38 FP1 34 -2.584
38 FP1 35 -2.096
38 FP1 36 0.834
38 FP1 37 4.252
38 FP1 38 6.694
38 FP1 39 6.694
38 FP1 40 5.229
38 FP1 41 3.764
38 FP1 42 2.299
38 FP1 43 1.322
38 FP1 44 0.346
38 FP1 45 -0.631
38 FP1 46 -1.607
38 FP1 47 -3.072
38 FP1 48 -4.537
38 FP1 49 -5.514
38 FP1 50 -6.978
38 FP1 51 -7.467
38 FP1 52 -7.955
38 FP1 53 -6.002
38 FP1 54 -2.584
38 FP1 55 1.811
38 FP1 56 6.694
38 FP1 57 9.623
38 FP1 58 10.111
38 FP1 59 7.670
38 FP1 60 3.764
38 FP1 61 0.834
38 FP1 62 -0.142
38 FP1 63 0.834
38 FP1 64 1.811
38 FP1 65 1.322
38 FP1 66 -1.119
38 FP1 67 -4.049
38 FP1 68 -6.490
38 FP1 69 -6.978
38 FP1 70 -5.514
38 FP1 71 -2.096
38 FP1 72 0.346
38 FP1 73 2.299
38 FP1 74 2.299
38 FP1 75 1.322
38 FP1 76 0.834
38 FP1 77 1.322
38 FP1 78 2.787
38 FP1 79 4.740
38 FP1 80 6.205
38 FP1 81 6.694
38 FP1 82 6.205
38 FP1 83 4.740
38 FP1 84 4.252
38 FP1 85 3.764
38 FP1 86 4.740
38 FP1 87 4.740
38 FP1 88 4.740
38 FP1 89 4.252
38 FP1 90 3.764
38 FP1 91 3.764
38 FP1 92 4.740
38 FP1 93 5.717
38 FP1 94 6.694
38 FP1 95 8.647
38 FP1 96 10.600
38 FP1 97 12.553
38 FP1 98 13.529
38 FP1 99 12.553
38 FP1 100 10.600
38 FP1 101 8.158
38 FP1 102 6.694
38 FP1 103 7.182
38 FP1 104 8.647
38 FP1 105 9.135
38 FP1 106 8.647
38 FP1 107 6.694
38 FP1 108 3.764
38 FP1 109 2.299
38 FP1 110 1.322
38 FP1 111 1.322
38 FP1 112 1.322
38 FP1 113 1.811
38 FP1 114 1.811
38 FP1 115 2.787
38 FP1 116 3.764
38 FP1 117 3.764
38 FP1 118 3.764
38 FP1 119 2.299
38 FP1 120 0.834
38 FP1 121 -0.142
38 FP1 122 -1.119
38 FP1 123 -1.607
38 FP1 124 -2.096
38 FP1 125 -3.560
38 FP1 126 -4.537
38 FP1 127 -5.514
38 FP1 128 -6.490
38 FP1 129 -7.955
38 FP1 130 -10.396
38 FP1 131 -12.838
38 FP1 132 -15.279
38 FP1 133 -15.767
38 FP1 134 -14.791
38 FP1 135 -13.326
38 FP1 136 -11.861
38 FP1 137 -10.885
38 FP1 138 -9.420
38 FP1 139 -8.443
38 FP1 140 -7.955
38 FP1 141 -7.955
38 FP1 142 -9.420
38 FP1 143 -11.373
38 FP1 144 -12.838
38 FP1 145 -13.326
38 FP1 146 -13.326
38 FP1 147 -13.814
38 FP1 148 -14.303
38 FP1 149 -14.303
38 FP1 150 -13.326
38 FP1 151 -11.373
38 FP1 152 -10.396
38 FP1 153 -10.885
38 FP1 154 -12.349
38 FP1 155 -13.814
38 FP1 156 -14.791
38 FP1 157 -13.814
38 FP1 158 -12.349
38 FP1 159 -10.396
38 FP1 160 -9.908
38 FP1 161 -9.420
38 FP1 162 -9.420
38 FP1 163 -9.908
38 FP1 164 -10.396
38 FP1 165 -10.885
38 FP1 166 -11.861
38 FP1 167 -12.349
38 FP1 168 -11.861
38 FP1 169 -10.885
38 FP1 170 -9.908
38 FP1 171 -9.908
38 FP1 172 -10.885
38 FP1 173 -12.349
38 FP1 174 -13.814
38 FP1 175 -13.326
38 FP1 176 -12.349
38 FP1 177 -10.885
38 FP1 178 -10.885
38 FP1 179 -11.373
38 FP1 180 -12.349
38 FP1 181 -12.349
38 FP1 182 -11.373
38 FP1 183 -9.420
38 FP1 184 -7.955
38 FP1 185 -6.002
38 FP1 186 -5.514
38 FP1 187 -5.025
38 FP1 188 -5.025
38 FP1 189 -5.514
38 FP1 190 -6.490
38 FP1 191 -7.467
38 FP1 192 -7.467
38 FP1 193 -5.514
38 FP1 194 -4.049
38 FP1 195 -2.584
38 FP1 196 -1.607
38 FP1 197 -1.607
38 FP1 198 -1.607
38 FP1 199 -1.607
38 FP1 200 -2.096
38 FP1 201 -2.584
38 FP1 202 -3.560
38 FP1 203 -4.049
38 FP1 204 -4.537
38 FP1 205 -4.049
38 FP1 206 -4.049
38 FP1 207 -5.025
38 FP1 208 -6.002
38 FP1 209 -6.490
38 FP1 210 -5.025
38 FP1 211 -2.584
38 FP1 212 -0.631
38 FP1 213 -0.142
38 FP1 214 -2.096
38 FP1 215 -4.049
38 FP1 216 -5.025
38 FP1 217 -3.560
38 FP1 218 -1.607
38 FP1 219 -0.142
38 FP1 220 -0.631
38 FP1 221 -2.096
38 FP1 222 -4.049
38 FP1 223 -5.025
38 FP1 224 -6.002
38 FP1 225 -6.002
38 FP1 226 -5.514
38 FP1 227 -4.049
38 FP1 228 -1.607
38 FP1 229 0.834
38 FP1 230 3.276
38 FP1 231 3.276
38 FP1 232 2.299
38 FP1 233 1.322
38 FP1 234 0.834
38 FP1 235 1.322
38 FP1 236 1.811
38 FP1 237 1.811
38 FP1 238 1.322
38 FP1 239 1.811
38 FP1 240 3.276
38 FP1 241 5.717
38 FP1 242 7.670
38 FP1 243 8.158
38 FP1 244 7.182
38 FP1 245 5.229
38 FP1 246 3.276
38 FP1 247 2.299
38 FP1 248 1.811
38 FP1 249 1.322
38 FP1 250 1.322
38 FP1 251 1.322
38 FP1 252 1.811
38 FP1 253 2.787
38 FP1 254 3.276
38 FP1 255 3.764
# FP2 chan 1
38 FP2 0 5.646
38 FP2 1 4.181
38 FP2 2 2.716
38 FP2 3 1.740
38 FP2 4 0.763
38 FP2 5 0.275
38 FP2 6 0.275
38 FP2 7 1.740
38 FP2 8 2.716
38 FP2 9 3.693
38 FP2 10 3.693
38 FP2 11 2.716
38 FP2 12 1.740
38 FP2 13 1.740
38 FP2 14 4.181
38 FP2 15 7.111
38 FP2 16 9.064
38 FP2 17 10.040
38 FP2 18 9.064
38 FP2 19 7.111
38 FP2 20 5.157
38 FP2 21 4.181
38 FP2 22 3.693
38 FP2 23 3.204
38 FP2 24 1.251
38 FP2 25 -2.167
38 FP2 26 -5.585
38 FP2 27 -7.050
38 FP2 28 -6.073
38 FP2 29 -3.632
38 FP2 30 -1.190
38 FP2 31 0.275
38 FP2 32 0.275
38 FP2 33 -0.214
38 FP2 34 0.275
38 FP2 35 2.716
38 FP2 36 5.157
38 FP2 37 8.087
38 FP2 38 9.064
38 FP2 39 8.087
38 FP2 40 6.134
38 FP2 41 3.693
38 FP2 42 1.251
38 FP2 43 -0.214
38 FP2 44 -0.214
38 FP2 45 -0.214
38 FP2 46 0.275
38 FP2 47 -0.214
38 FP2 48 -1.678
38 FP2 49 -4.120
38 FP2 50 -7.050
38 FP2 51 -8.514
38 FP2 52 -8.026
38 FP2 53 -5.096
38 FP2 54 -0.214
38 FP2 55 5.157
38 FP2 56 9.552
38 FP2 57 10.529
38 FP2 58 9.552
38 FP2 59 6.622
38 FP2 60 2.716
38 FP2 61 0.275
38 FP2 62 -1.190
38 FP2 63 -0.702
38 FP2 64 -0.214
38 FP2 65 -0.214
38 FP2 66 -1.190
38 FP2 67 -3.632
38 FP2 68 -6.073
38 FP2 69 -7.538
38 FP2 70 -7.050
38 FP2 71 -5.096
38 FP2 72 -2.655
38 FP2 73 -0.702
38 FP2 74 -0.702
38 FP2 75 -1.190
38 FP2 76 -1.678
38 FP2 77 -0.702
38 FP2 78 1.251
38 FP2 79 4.181
38 FP2 80 5.646
38 FP2 81 6.134
38 FP2 82 5.157
38 FP2 83 3.693
38 FP2 84 2.716
38 FP2 85 2.228
38 FP2 86 1.740
38 FP2 87 -0.214
38 FP2 88 -2.655
38 FP2 89 -4.608
38 FP2 90 -5.096
38 FP2 91 -5.096
38 FP2 92 -3.632
38 FP2 93 -2.655
38 FP2 94 -1.678
38 FP2 95 0.275
38 FP2 96 3.204
38 FP2 97 6.622
38 FP2 98 8.575
38 FP2 99 8.087
38 FP2 100 6.622
38 FP2 101 4.669
38 FP2 102 3.693
38 FP2 103 4.669
38 FP2 104 6.134
38 FP2 105 6.622
38 FP2 106 5.157
38 FP2 107 3.204
38 FP2 108 1.251
38 FP2 109 -0.702
38 FP2 110 -1.678
38 FP2 111 -2.655
38 FP2 112 -2.655
38 FP2 113 -2.167
38 FP2 114 -1.190
38 FP2 115 1.251
38 FP2 116 2.228
38 FP2 117 2.228
38 FP2 118 1.251
38 FP2 119 -1.190
38 FP2 120 -2.167
38 FP2 121 -2.167
38 FP2 122 -1.678
38 FP2 123 -1.190
38 FP2 124 -2.655
38 FP2 125 -5.096
38 FP2 126 -7.538
38 FP2 127 -8.514
38 FP2 128 -9.003
38 FP2 129 -9.491
38 FP2 130 -11.444
38 FP2 131 -14.862
38 FP2 132 -17.792
38 FP2 133 -19.257
38 FP2 134 -18.280
38 FP2 135 -15.839
38 FP2 136 -13.397
38 FP2 137 -11.932
38 FP2 138 -11.444
38 FP2 139 -11.444
38 FP2 140 -11.444
38 FP2 141 -11.444
38 FP2 142 -12.421
38 FP2 143 -13.885
38 FP2 144 -15.350
38 FP2 145 -17.303
38 FP2 146 -18.280
38 FP2 147 -18.280
38 FP2 148 -17.303
38 FP2 149 -15.839
38 FP2 150 -13.397
38 FP2 151 -11.932
38 FP2 152 -11.444
38 FP2 153 -12.421
38 FP2 154 -13.885
38 FP2 155 -15.350
38 FP2 156 -16.815
38 FP2 157 -16.815
38 FP2 158 -16.327
38 FP2 159 -15.350
38 FP2 160 -14.374
38 FP2 161 -13.397
38 FP2 162 -12.909
38 FP2 163 -12.909
38 FP2 164 -13.885
38 FP2 165 -14.862
38 FP2 166 -15.839
38 FP2 167 -15.350
38 FP2 168 -13.885
38 FP2 169 -11.932
38 FP2 170 -10.956
38 FP2 171 -11.932
38 FP2 172 -13.397
38 FP2 173 -15.350
38 FP2 174 -16.815
38 FP2 175 -16.327
38 FP2 176 -15.839
38 FP2 177 -14.862
38 FP2 178 -14.862
38 FP2 179 -14.862
38 FP2 180 -14.374
38 FP2 181 -13.397
38 FP2 182 -12.909
38 FP2 183 -11.932
38 FP2 184 -10.956
38 FP2 185 -9.979
38 FP2 186 -9.003
38 FP2 187 -7.538
38 FP2 188 -8.026
38 FP2 189 -9.979
38 FP2 190 -12.421
38 FP2 191 -14.374
38 FP2 192 -13.397
38 FP2 193 -11.444
38 FP2 194 -8.514
38 FP2 195 -6.561
38 FP2 196 -6.073
38 FP2 197 -6.073
38 FP2 198 -5.585
38 FP2 199 -4.120
38 FP2 200 -2.655
38 FP2 201 -2.655
38 FP2 202 -3.632
38 FP2 203 -5.585
38 FP2 204 -6.073
38 FP2 205 -6.073
38 FP2 206 -5.096
38 FP2 207 -5.096
38 FP2 208 -6.073
38 FP2 209 -7.050
38 FP2 210 -7.050
38 FP2 211 -5.585
38 FP2 212 -4.120
38 FP2 213 -4.120
38 FP2 214 -5.585
38 FP2 215 -8.026
38 FP2 216 -9.003
38 FP2 217 -8.514
38 FP2 218 -7.050
38 FP2 219 -5.585
38 FP2 220 -5.096
38 FP2 221 -5.585
38 FP2 222 -6.561
38 FP2 223 -7.050
38 FP2 224 -7.538
38 FP2 225 -7.538
38 FP2 226 -7.538
38 FP2 227 -6.561
38 FP2 228 -5.096
38 FP2 229 -3.143
38 FP2 230 -1.678
38 FP2 231 -1.190
38 FP2 232 -1.678
38 FP2 233 -3.143
38 FP2 234 -3.632
38 FP2 235 -2.655
38 FP2 236 -1.678
38 FP2 237 -1.190
38 FP2 238 -0.702
38 FP2 239 -1.190
38 FP2 240 -1.678
38 FP2 241 -0.702
38 FP2 242 1.251
38 FP2 243 3.204
38 FP2 244 4.181
38 FP2 245 3.693
38 FP2 246 2.228
38 FP2 247 0.275
38 FP2 248 -1.678
38 FP2 249 -3.143
38 FP2 250 -3.632
38 FP2 251 -3.143
38 FP2 252 -3.143
38 FP2 253 -2.655
38 FP2 254 -2.655
38 FP2 255 -2.167
# F7 chan 2
38 F7 0 7.812
38 F7 1 7.324
38 F7 2 6.348
38 F7 3 3.906
38 F7 4 1.465
38 F7 5 -0.977
38 F7 6 -0.488
38 F7 7 1.953
38 F7 8 4.883
38 F7 9 6.348
38 F7 10 5.859
38 F7 11 2.930
38 F7 12 0.000
38 F7 13 -2.441
38 F7 14 -2.930
38 F7 15 -0.977
38 F7 16 2.441
38 F7 17 6.836
38 F7 18 9.277
38 F7 19 8.789
38 F7 20 5.859
38 F7 21 2.930
38 F7 22 2.441
38 F7 23 4.883
38 F7 24 8.301
38 F7 25 9.766
38 F7 26 5.859
38 F7 27 -0.977
38 F7 28 -7.324
38 F7 29 -9.766
38 F7 30 -7.324
38 F7 31 -3.906
38 F7 32 -2.441
38 F7 33 -4.395
38 F7 34 -7.324
38 F7 35 -8.301
38 F7 36 -6.836
38 F7 37 -3.418
38 F7 38 -1.953
38 F7 39 -2.930
38 F7 40 -5.371
38 F7 41 -6.836
38 F7 42 -6.836
38 F7 43 -5.859
38 F7 44 -6.348
38 F7 45 -7.812
38 F7 46 -10.254
38 F7 47 -11.719
38 F7 48 -11.230
38 F7 49 -10.254
38 F7 50 -9.766
38 F7 51 -11.230
38 F7 52 -13.672
38 F7 53 -14.160
38 F7 54 -12.207
38 F7 55 -7.324
38 F7 56 -1.465
38 F7 57 2.441
38 F7 58 2.930
38 F7 59 0.488
38 F7 60 -3.906
38 F7 61 -7.812
38 F7 62 -9.766
38 F7 63 -10.742
38 F7 64 -10.254
38 F7 65 -9.766
38 F7 66 -9.766
38 F7 67 -10.742
38 F7 68 -12.207
38 F7 69 -14.160
38 F7 70 -15.625
38 F7 71 -15.137
38 F7 72 -13.184
38 F7 73 -10.254
38 F7 74 -7.324
38 F7 75 -6.348
38 F7 76 -6.348
38 F7 77 -7.812
38 F7 78 -7.812
38 F7 79 -6.836
38 F7 80 -5.371
38 F7 81 -4.395
38 F7 82 -4.883
38 F7 83 -5.371
38 F7 84 -5.371
38 F7 85 -3.906
38 F7 86 -2.441
38 F7 87 -3.418
38 F7 88 -6.836
38 F7 89 -11.230
38 F7 90 -14.160
38 F7 91 -13.672
38 F7 92 -10.742
38 F7 93 -8.301
38 F7 94 -6.836
38 F7 95 -6.348
38 F7 96 -5.371
38 F7 97 -3.418
38 F7 98 -0.977
38 F7 99 -0.488
38 F7 100 -2.930
38 F7 101 -7.812
38 F7 102 -11.719
38 F7 103 -13.184
38 F7 104 -12.207
38 F7 105 -10.254
38 F7 106 -8.789
38 F7 107 -8.789
38 F7 108 -9.766
38 F7 109 -11.230
38 F7 110 -11.719
38 F7 111 -12.207
38 F7 112 -12.695
38 F7 113 -13.672
38 F7 114 -14.160
38 F7 115 -14.160
38 F7 116 -14.648
38 F7 117 -16.113
38 F7 118 -19.043
38 F7 119 -21.484
38 F7 120 -23.438
38 F7 121 -24.414
38 F7 122 -24.414
38 F7 123 -24.902
38 F7 124 -26.367
38 F7 125 -27.832
38 F7 126 -27.832
38 F7 127 -26.855
38 F7 128 -24.902
38 F7 129 -23.926
38 F7 130 -24.902
38 F7 131 -26.367
38 F7 132 -28.320
38 F7 133 -29.297
38 F7 134 -29.785
38 F7 135 -29.297
38 F7 136 -29.297
38 F7 137 -28.320
38 F7 138 -26.855
38 F7 139 -25.879
38 F7 140 -25.879
38 F7 141 -28.320
38 F7 142 -31.738
38 F7 143 -34.180
38 F7 144 -34.668
38 F7 145 -32.715
38 F7 146 -31.250
38 F7 147 -31.250
38 F7 148 -31.738
38 F7 149 -31.738
38 F7 150 -30.273
38 F7 151 -27.344
38 F7 152 -25.391
38 F7 153 -26.367
38 F7 154 -29.297
38 F7 155 -32.227
38 F7 156 -32.715
38 F7 157 -30.762
38 F7 158 -27.344
38 F7 159 -24.902
38 F7 160 -24.414
38 F7 161 -25.391
38 F7 162 -26.367
38 F7 163 -25.879
38 F7 164 -24.414
38 F7 165 -23.438
38 F7 166 -23.926
38 F7 167 -24.414
38 F7 168 -24.902
38 F7 169 -24.902
38 F7 170 -23.926
38 F7 171 -23.926
38 F7 172 -24.902
38 F7 173 -26.855
38 F7 174 -27.832
38 F7 175 -26.367
38 F7 176 -23.438
38 F7 177 -20.996
38 F7 178 -21.484
38 F7 179 -23.926
38 F7 180 -27.832
38 F7 181 -28.809
38 F7 182 -26.367
38 F7 183 -21.973
38 F7 184 -17.578
38 F7 185 -16.602
38 F7 186 -18.066
38 F7 187 -19.531
38 F7 188 -20.020
38 F7 189 -18.555
38 F7 190 -17.090
38 F7 191 -17.578
38 F7 192 -19.531
38 F7 193 -20.996
38 F7 194 -20.020
38 F7 195 -17.090
38 F7 196 -14.160
38 F7 197 -12.207
38 F7 198 -12.207
38 F7 199 -12.695
38 F7 200 -12.695
38 F7 201 -12.207
38 F7 202 -11.719
38 F7 203 -12.695
38 F7 204 -13.672
38 F7 205 -14.648
38 F7 206 -14.648
38 F7 207 -14.160
38 F7 208 -12.695
38 F7 209 -11.230
38 F7 210 -10.254
38 F7 211 -9.277
38 F7 212 -9.277
38 F7 213 -10.254
38 F7 214 -12.207
38 F7 215 -13.184
38 F7 216 -13.184
38 F7 217 -11.230
38 F7 218 -8.789
38 F7 219 -8.301
38 F7 220 -9.277
38 F7 221 -10.742
38 F7 222 -12.207
38 F7 223 -12.695
38 F7 224 -12.207
38 F7 225 -12.695
38 F7 226 -14.160
38 F7 227 -15.625
38 F7 228 -15.137
38 F7 229 -13.672
38 F7 230 -10.742
38 F7 231 -8.789
38 F7 232 -8.301
38 F7 233 -9.277
38 F7 234 -10.254
38 F7 235 -10.742
38 F7 236 -10.742
38 F7 237 -11.719
38 F7 238 -13.184
38 F7 239 -15.625
38 F7 240 -17.090
38 F7 241 -17.578
38 F7 242 -16.113
38 F7 243 -13.184
38 F7 244 -9.766
38 F7 245 -7.324
38 F7 246 -6.348
38 F7 247 -7.324
38 F7 248 -9.277
38 F7 249 -10.742
38 F7 250 -12.207
38 F7 251 -12.695
38 F7 252 -12.695
38 F7 253 -12.695
38 F7 254 -11.719
38 F7 255 -10.742
# F8 chan 3
38 F8 0 4.384
38 F8 1 1.455
38 F8 2 -1.963
38 F8 3 -3.916
38 F8 4 -4.893
38 F8 5 -4.405
38 F8 6 -2.452
38 F8 7 -0.498
38 F8 8 0.478
38 F8 9 -0.010
38 F8 10 -0.987
38 F8 11 -2.452
38 F8 12 -2.940
38 F8 13 -1.475
38 F8 14 0.478
38 F8 15 2.920
38 F8 16 3.896
38 F8 17 3.408
38 F8 18 1.455
38 F8 19 -0.987
38 F8 20 -2.452
38 F8 21 -2.940
38 F8 22 -3.428
38 F8 23 -5.870
38 F8 24 -9.776
38 F8 25 -15.147
38 F8 26 -18.565
38 F8 27 -18.077
38 F8 28 -14.170
38 F8 29 -9.288
38 F8 30 -5.870
38 F8 31 -5.381
38 F8 32 -5.870
38 F8 33 -4.893
38 F8 34 -2.452
38 F8 35 0.966
38 F8 36 2.431
38 F8 37 2.431
38 F8 38 0.478
38 F8 39 -1.963
38 F8 40 -2.452
38 F8 41 -2.940
38 F8 42 -4.405
38 F8 43 -6.846
38 F8 44 -9.776
38 F8 45 -11.729
38 F8 46 -11.729
38 F8 47 -10.752
38 F8 48 -9.776
38 F8 49 -10.264
38 F8 50 -11.729
38 F8 51 -12.217
38 F8 52 -10.264
38 F8 53 -5.870
38 F8 54 -0.010
38 F8 55 5.361
38 F8 56 7.802
38 F8 57 8.291
38 F8 58 6.826
38 F8 59 4.384
38 F8 60 1.943
38 F8 61 -0.987
38 F8 62 -3.916
38 F8 63 -4.893
38 F8 64 -5.381
38 F8 65 -5.870
38 F8 66 -6.358
38 F8 67 -8.799
38 F8 68 -11.729
38 F8 69 -13.682
38 F8 70 -12.705
38 F8 71 -9.776
38 F8 72 -6.358
38 F8 73 -3.916
38 F8 74 -3.916
38 F8 75 -4.893
38 F8 76 -4.893
38 F8 77 -2.940
38 F8 78 0.478
38 F8 79 2.920
38 F8 80 2.920
38 F8 81 1.455
38 F8 82 -0.498
38 F8 83 -1.475
38 F8 84 -0.987
38 F8 85 -0.498
38 F8 86 -2.452
38 F8 87 -5.870
38 F8 88 -9.776
38 F8 89 -12.705
38 F8 90 -13.194
38 F8 91 -11.729
38 F8 92 -10.264
38 F8 93 -8.799
38 F8 94 -7.823
38 F8 95 -5.870
38 F8 96 -2.452
38 F8 97 0.966
38 F8 98 2.431
38 F8 99 1.943
38 F8 100 -0.010
38 F8 101 -0.987
38 F8 102 -0.498
38 F8 103 1.455
38 F8 104 2.431
38 F8 105 1.455
38 F8 106 -0.498
38 F8 107 -1.963
38 F8 108 -2.452
38 F8 109 -1.963
38 F8 110 -2.940
38 F8 111 -5.381
38 F8 112 -8.799
38 F8 113 -9.776
38 F8 114 -7.334
38 F8 115 -2.940
38 F8 116 0.966
38 F8 117 0.966
38 F8 118 -1.963
38 F8 119 -5.870
38 F8 120 -6.846
38 F8 121 -4.893
38 F8 122 -0.987
38 F8 123 -0.010
38 F8 124 -3.428
38 F8 125 -8.799
38 F8 126 -12.217
38 F8 127 -12.217
38 F8 128 -9.776
38 F8 129 -7.823
38 F8 130 -8.799
38 F8 131 -12.705
38 F8 132 -17.100
38 F8 133 -18.077
38 F8 134 -15.635
38 F8 135 -11.729
38 F8 136 -8.799
38 F8 137 -8.311
38 F8 138 -10.752
38 F8 139 -13.194
38 F8 140 -14.170
38 F8 141 -14.170
38 F8 142 -12.705
38 F8 143 -12.217
38 F8 144 -12.705
38 F8 145 -13.682
38 F8 146 -14.659
38 F8 147 -15.635
38 F8 148 -15.635
38 F8 149 -16.123
38 F8 150 -15.635
38 F8 151 -15.147
38 F8 152 -14.659
38 F8 153 -14.659
38 F8 154 -14.659
38 F8 155 -16.123
38 F8 156 -17.100
38 F8 157 -18.565
38 F8 158 -19.541
38 F8 159 -19.541
38 F8 160 -19.541
38 F8 161 -19.053
38 F8 162 -17.588
38 F8 163 -16.612
38 F8 164 -15.635
38 F8 165 -15.635
38 F8 166 -16.123
38 F8 167 -16.612
38 F8 168 -16.612
38 F8 169 -15.635
38 F8 170 -14.170
38 F8 171 -13.194
38 F8 172 -13.682
38 F8 173 -13.682
38 F8 174 -14.170
38 F8 175 -13.682
38 F8 176 -13.682
38 F8 177 -14.170
38 F8 178 -15.147
38 F8 179 -16.123
38 F8 180 -16.612
38 F8 181 -15.635
38 F8 182 -14.170
38 F8 183 -13.194
38 F8 184 -12.705
38 F8 185 -13.194
38 F8 186 -13.194
38 F8 187 -12.705
38 F8 188 -12.705
38 F8 189 -12.217
38 F8 190 -12.217
38 F8 191 -12.217
38 F8 192 -11.241
38 F8 193 -10.264
38 F8 194 -9.776
38 F8 195 -9.288
38 F8 196 -8.799
38 F8 197 -7.334
38 F8 198 -5.381
38 F8 199 -2.940
38 F8 200 -2.452
38 F8 201 -3.916
38 F8 202 -6.846
38 F8 203 -8.311
38 F8 204 -7.823
38 F8 205 -6.358
38 F8 206 -5.870
38 F8 207 -7.334
38 F8 208 -10.264
38 F8 209 -12.217
38 F8 210 -12.217
38 F8 211 -11.241
38 F8 212 -10.264
38 F8 213 -11.241
38 F8 214 -15.147
38 F8 215 -19.541
38 F8 216 -22.471
38 F8 217 -22.959
38 F8 218 -21.983
38 F8 219 -21.495
38 F8 220 -21.495
38 F8 221 -21.983
38 F8 222 -20.518
38 F8 223 -17.588
38 F8 224 -13.682
38 F8 225 -11.241
38 F8 226 -11.241
38 F8 227 -12.705
38 F8 228 -13.682
38 F8 229 -13.682
38 F8 230 -12.705
38 F8 231 -11.729
38 F8 232 -11.241
38 F8 233 -11.729
38 F8 234 -11.729
38 F8 235 -11.729
38 F8 236 -10.752
38 F8 237 -9.776
38 F8 238 -9.288
38 F8 239 -8.799
38 F8 240 -8.311
38 F8 241 -7.334
38 F8 242 -6.358
38 F8 243 -5.381
38 F8 244 -4.893
38 F8 245 -5.381
38 F8 246 -6.358
38 F8 247 -7.334
38 F8 248 -8.311
38 F8 249 -9.288
38 F8 250 -10.264
38 F8 251 -11.729
38 F8 252 -13.194
38 F8 253 -13.682
38 F8 254 -13.194
38 F8 255 -12.217
# AF1 chan 4
38 AF1 0 5.615
38 AF1 1 3.662
38 AF1 2 2.686
38 AF1 3 2.197
38 AF1 4 1.709
38 AF1 5 1.709
38 AF1 6 1.709
38 AF1 7 2.686
38 AF1 8 4.150
38 AF1 9 6.104
38 AF1 10 7.080
38 AF1 11 6.592
38 AF1 12 5.615
38 AF1 13 5.615
38 AF1 14 6.104
38 AF1 15 8.545
38 AF1 16 10.986
38 AF1 17 12.939
38 AF1 18 13.428
38 AF1 19 11.475
38 AF1 20 9.033
38 AF1 21 6.592
38 AF1 22 5.127
38 AF1 23 4.150
38 AF1 24 3.174
38 AF1 25 0.732
38 AF1 26 -1.709
38 AF1 27 -4.150
38 AF1 28 -4.639
38 AF1 29 -3.662
38 AF1 30 -1.709
38 AF1 31 -0.732
38 AF1 32 -0.244
38 AF1 33 -0.244
38 AF1 34 0.244
38 AF1 35 2.686
38 AF1 36 5.615
38 AF1 37 7.568
38 AF1 38 7.568
38 AF1 39 6.104
38 AF1 40 4.639
38 AF1 41 3.174
38 AF1 42 2.686
38 AF1 43 1.709
38 AF1 44 0.244
38 AF1 45 -1.709
38 AF1 46 -3.174
38 AF1 47 -4.639
38 AF1 48 -5.127
38 AF1 49 -5.127
38 AF1 50 -5.127
38 AF1 51 -5.615
38 AF1 52 -5.615
38 AF1 53 -4.639
38 AF1 54 -1.221
38 AF1 55 3.174
38 AF1 56 8.057
38 AF1 57 11.475
38 AF1 58 11.963
38 AF1 59 10.010
38 AF1 60 6.592
38 AF1 61 3.662
38 AF1 62 2.197
38 AF1 63 2.197
38 AF1 64 2.197
38 AF1 65 1.221
38 AF1 66 -0.244
38 AF1 67 -2.197
38 AF1 68 -3.662
38 AF1 69 -3.174
38 AF1 70 -1.709
38 AF1 71 -0.244
38 AF1 72 0.244
38 AF1 73 0.244
38 AF1 74 -0.244
38 AF1 75 -0.732
38 AF1 76 -0.732
38 AF1 77 0.732
38 AF1 78 2.686
38 AF1 79 4.639
38 AF1 80 6.592
38 AF1 81 8.057
38 AF1 82 8.057
38 AF1 83 6.592
38 AF1 84 5.615
38 AF1 85 5.127
38 AF1 86 5.615
38 AF1 87 6.104
38 AF1 88 5.615
38 AF1 89 3.662
38 AF1 90 1.709
38 AF1 91 0.244
38 AF1 92 0.244
38 AF1 93 1.221
38 AF1 94 2.686
38 AF1 95 4.639
38 AF1 96 7.080
38 AF1 97 9.521
38 AF1 98 10.010
38 AF1 99 10.010
38 AF1 100 8.057
38 AF1 101 5.615
38 AF1 102 4.150
38 AF1 103 4.150
38 AF1 104 6.104
38 AF1 105 8.057
38 AF1 106 9.033
38 AF1 107 9.033
38 AF1 108 7.080
38 AF1 109 4.150
38 AF1 110 2.197
38 AF1 111 0.732
38 AF1 112 0.244
38 AF1 113 0.732
38 AF1 114 1.709
38 AF1 115 2.686
38 AF1 116 3.174
38 AF1 117 3.174
38 AF1 118 2.197
38 AF1 119 1.221
38 AF1 120 0.244
38 AF1 121 0.244
38 AF1 122 1.221
38 AF1 123 1.709
38 AF1 124 1.221
38 AF1 125 -0.732
38 AF1 126 -3.174
38 AF1 127 -5.127
38 AF1 128 -6.592
38 AF1 129 -7.568
38 AF1 130 -8.545
38 AF1 131 -9.521
38 AF1 132 -10.986
38 AF1 133 -11.963
38 AF1 134 -11.963
38 AF1 135 -10.986
38 AF1 136 -10.010
38 AF1 137 -8.545
38 AF1 138 -8.057
38 AF1 139 -7.568
38 AF1 140 -7.080
38 AF1 141 -7.568
38 AF1 142 -8.545
38 AF1 143 -9.033
38 AF1 144 -9.033
38 AF1 145 -9.033
38 AF1 146 -8.545
38 AF1 147 -9.033
38 AF1 148 -9.033
38 AF1 149 -9.033
38 AF1 150 -8.545
38 AF1 151 -7.080
38 AF1 152 -6.104
38 AF1 153 -6.592
38 AF1 154 -8.057
38 AF1 155 -10.010
38 AF1 156 -11.475
38 AF1 157 -11.475
38 AF1 158 -10.010
38 AF1 159 -8.545
38 AF1 160 -7.080
38 AF1 161 -6.592
38 AF1 162 -7.080
38 AF1 163 -7.568
38 AF1 164 -8.057
38 AF1 165 -8.545
38 AF1 166 -9.033
38 AF1 167 -8.545
38 AF1 168 -7.080
38 AF1 169 -5.615
38 AF1 170 -4.639
38 AF1 171 -4.150
38 AF1 172 -5.127
38 AF1 173 -6.104
38 AF1 174 -6.592
38 AF1 175 -6.104
38 AF1 176 -5.127
38 AF1 177 -4.150
38 AF1 178 -4.150
38 AF1 179 -4.150
38 AF1 180 -4.639
38 AF1 181 -3.662
38 AF1 182 -2.197
38 AF1 183 -0.732
38 AF1 184 0.732
38 AF1 185 1.221
38 AF1 186 1.221
38 AF1 187 0.244
38 AF1 188 -0.732
38 AF1 189 -2.197
38 AF1 190 -3.174
38 AF1 191 -2.686
38 AF1 192 -1.221
38 AF1 193 0.732
38 AF1 194 3.174
38 AF1 195 3.662
38 AF1 196 2.686
38 AF1 197 1.221
38 AF1 198 0.732
38 AF1 199 1.221
38 AF1 200 2.686
38 AF1 201 3.662
38 AF1 202 3.662
38 AF1 203 2.686
38 AF1 204 1.221
38 AF1 205 0.244
38 AF1 206 0.244
38 AF1 207 0.732
38 AF1 208 0.732
38 AF1 209 0.732
38 AF1 210 1.221
38 AF1 211 1.709
38 AF1 212 2.197
38 AF1 213 2.686
38 AF1 214 2.197
38 AF1 215 1.709
38 AF1 216 1.709
38 AF1 217 1.709
38 AF1 218 2.197
38 AF1 219 2.197
38 AF1 220 1.709
38 AF1 221 1.221
38 AF1 222 1.221
38 AF1 223 1.221
38 AF1 224 0.732
38 AF1 225 0.244
38 AF1 226 -0.244
38 AF1 227 0.244
38 AF1 228 2.686
38 AF1 229 5.127
38 AF1 230 6.592
38 AF1 231 6.592
38 AF1 232 4.150
38 AF1 233 2.686
38 AF1 234 1.709
38 AF1 235 2.686
38 AF1 236 4.150
38 AF1 237 4.639
38 AF1 238 4.150
38 AF1 239 4.150
38 AF1 240 4.150
38 AF1 241 5.615
38 AF1 242 6.592
38 AF1 243 7.080
38 AF1 244 6.592
38 AF1 245 5.127
38 AF1 246 4.150
38 AF1 247 3.174
38 AF1 248 2.686
38 AF1 249 1.221
38 AF1 250 0.732
38 AF1 251 -0.244
38 AF1 252 0.244
38 AF1 253 0.732
38 AF1 254 2.197
38 AF1 255 2.686
# AF2 chan 5
38 AF2 0 9.603
38 AF2 1 8.626
38 AF2 2 8.626
38 AF2 3 9.115
38 AF2 4 9.603
38 AF2 5 10.091
38 AF2 6 10.091
38 AF2 7 10.579
38 AF2 8 11.068
38 AF2 9 12.533
38 AF2 10 13.509
38 AF2 11 12.533
38 AF2 12 11.556
38 AF2 13 10.091
38 AF2 14 10.091
38 AF2 15 12.044
38 AF2 16 14.974
38 AF2 17 18.392
38 AF2 18 19.857
38 AF2 19 18.880
38 AF2 20 16.439
38 AF2 21 14.486
38 AF2 22 12.533
38 AF2 23 11.556
38 AF2 24 9.603
38 AF2 25 6.673
38 AF2 26 3.743
38 AF2 27 2.279
38 AF2 28 2.279
38 AF2 29 4.232
38 AF2 30 6.673
38 AF2 31 8.138
38 AF2 32 9.115
38 AF2 33 10.091
38 AF2 34 11.068
38 AF2 35 13.509
38 AF2 36 15.951
38 AF2 37 17.415
38 AF2 38 17.415
38 AF2 39 15.951
38 AF2 40 14.486
38 AF2 41 13.021
38 AF2 42 11.556
38 AF2 43 11.068
38 AF2 44 10.091
38 AF2 45 9.603
38 AF2 46 9.115
38 AF2 47 8.626
38 AF2 48 7.161
38 AF2 49 5.697
38 AF2 50 3.255
38 AF2 51 1.790
38 AF2 52 1.790
38 AF2 53 3.255
38 AF2 54 6.673
38 AF2 55 10.579
38 AF2 56 13.997
38 AF2 57 15.951
38 AF2 58 17.415
38 AF2 59 16.439
38 AF2 60 15.462
38 AF2 61 13.509
38 AF2 62 12.044
38 AF2 63 11.556
38 AF2 64 11.068
38 AF2 65 10.579
38 AF2 66 10.091
38 AF2 67 9.115
38 AF2 68 7.650
38 AF2 69 7.161
38 AF2 70 6.673
38 AF2 71 7.161
38 AF2 72 7.650
38 AF2 73 8.138
38 AF2 74 8.138
38 AF2 75 8.138
38 AF2 76 8.626
38 AF2 77 10.091
38 AF2 78 12.044
38 AF2 79 13.509
38 AF2 80 14.486
38 AF2 81 14.486
38 AF2 82 13.997
38 AF2 83 13.021
38 AF2 84 11.556
38 AF2 85 10.579
38 AF2 86 9.603
38 AF2 87 8.626
38 AF2 88 7.650
38 AF2 89 7.161
38 AF2 90 7.650
38 AF2 91 9.115
38 AF2 92 10.091
38 AF2 93 11.556
38 AF2 94 13.021
38 AF2 95 14.486
38 AF2 96 16.927
38 AF2 97 18.880
38 AF2 98 19.368
38 AF2 99 18.392
38 AF2 100 16.927
38 AF2 101 15.462
38 AF2 102 15.462
38 AF2 103 16.439
38 AF2 104 17.415
38 AF2 105 17.415
38 AF2 106 15.462
38 AF2 107 13.997
38 AF2 108 12.044
38 AF2 109 11.068
38 AF2 110 10.579
38 AF2 111 9.603
38 AF2 112 9.603
38 AF2 113 9.603
38 AF2 114 10.579
38 AF2 115 13.021
38 AF2 116 14.486
38 AF2 117 15.462
38 AF2 118 14.486
38 AF2 119 13.021
38 AF2 120 12.044
38 AF2 121 11.556
38 AF2 122 11.556
38 AF2 123 12.044
38 AF2 124 11.068
38 AF2 125 9.115
38 AF2 126 7.161
38 AF2 127 5.697
38 AF2 128 3.743
38 AF2 129 1.790
38 AF2 130 -0.651
38 AF2 131 -3.092
38 AF2 132 -5.046
38 AF2 133 -5.534
38 AF2 134 -4.557
38 AF2 135 -2.604
38 AF2 136 -1.139
38 AF2 137 0.326
38 AF2 138 0.814
38 AF2 139 1.790
38 AF2 140 2.767
38 AF2 141 3.255
38 AF2 142 2.767
38 AF2 143 1.302
38 AF2 144 0.326
38 AF2 145 -0.651
38 AF2 146 -0.651
38 AF2 147 -0.651
38 AF2 148 -0.651
38 AF2 149 -0.651
38 AF2 150 -0.651
38 AF2 151 0.326
38 AF2 152 1.790
38 AF2 153 2.279
38 AF2 154 2.279
38 AF2 155 1.302
38 AF2 156 -0.163
38 AF2 157 -0.651
38 AF2 158 -0.651
38 AF2 159 0.326
38 AF2 160 0.326
38 AF2 161 1.302
38 AF2 162 1.302
38 AF2 163 1.790
38 AF2 164 1.790
38 AF2 165 1.302
38 AF2 166 0.814
38 AF2 167 0.814
38 AF2 168 1.302
38 AF2 169 2.767
38 AF2 170 4.232
38 AF2 171 4.720
38 AF2 172 3.743
38 AF2 173 2.767
38 AF2 174 1.302
38 AF2 175 0.814
38 AF2 176 1.302
38 AF2 177 1.790
38 AF2 178 1.790
38 AF2 179 2.279
38 AF2 180 2.767
38 AF2 181 4.720
38 AF2 182 6.673
38 AF2 183 8.138
38 AF2 184 9.115
38 AF2 185 8.626
38 AF2 186 8.138
38 AF2 187 7.161
38 AF2 188 6.673
38 AF2 189 5.697
38 AF2 190 4.232
38 AF2 191 4.232
38 AF2 192 4.720
38 AF2 193 5.697
38 AF2 194 7.161
38 AF2 195 8.138
38 AF2 196 7.650
38 AF2 197 8.138
38 AF2 198 9.115
38 AF2 199 11.068
38 AF2 200 12.533
38 AF2 201 12.044
38 AF2 202 10.091
38 AF2 203 7.650
38 AF2 204 6.673
38 AF2 205 6.673
38 AF2 206 7.650
38 AF2 207 9.115
38 AF2 208 9.115
38 AF2 209 8.138
38 AF2 210 7.650
38 AF2 211 7.650
38 AF2 212 8.626
38 AF2 213 9.115
38 AF2 214 8.626
38 AF2 215 7.161
38 AF2 216 5.697
38 AF2 217 5.697
38 AF2 218 6.673
38 AF2 219 7.650
38 AF2 220 8.626
38 AF2 221 7.650
38 AF2 222 7.161
38 AF2 223 6.673
38 AF2 224 6.185
38 AF2 225 6.673
38 AF2 226 6.673
38 AF2 227 7.650
38 AF2 228 8.626
38 AF2 229 10.579
38 AF2 230 12.044
38 AF2 231 13.021
38 AF2 232 13.021
38 AF2 233 12.533
38 AF2 234 12.044
38 AF2 235 13.021
38 AF2 236 13.997
38 AF2 237 14.974
38 AF2 238 15.462
38 AF2 239 14.974
38 AF2 240 14.974
38 AF2 241 15.951
38 AF2 242 16.439
38 AF2 243 16.927
38 AF2 244 16.439
38 AF2 245 15.462
38 AF2 246 14.486
38 AF2 247 13.509
38 AF2 248 13.509
38 AF2 249 13.509
38 AF2 250 13.021
38 AF2 251 13.021
38 AF2 252 13.509
38 AF2 253 13.997
38 AF2 254 15.462
38 AF2 255 15.951
# FZ chan 6
38 FZ 0 3.459
38 FZ 1 3.459
38 FZ 2 3.459
38 FZ 3 2.482
38 FZ 4 1.994
38 FZ 5 1.506
38 FZ 6 1.017
38 FZ 7 1.506
38 FZ 8 1.994
38 FZ 9 3.459
38 FZ 10 4.924
38 FZ 11 5.900
38 FZ 12 6.877
38 FZ 13 6.877
38 FZ 14 6.877
38 FZ 15 7.365
38 FZ 16 7.853
38 FZ 17 8.341
38 FZ 18 8.830
38 FZ 19 8.341
38 FZ 20 7.365
38 FZ 21 6.877
38 FZ 22 5.900
38 FZ 23 4.924
38 FZ 24 3.459
38 FZ 25 1.506
38 FZ 26 -0.936
38 FZ 27 -2.889
38 FZ 28 -3.377
38 FZ 29 -2.401
38 FZ 30 -0.936
38 FZ 31 -0.936
38 FZ 32 -0.936
38 FZ 33 -0.936
38 FZ 34 0.041
38 FZ 35 2.482
38 FZ 36 5.412
38 FZ 37 7.365
38 FZ 38 7.853
38 FZ 39 6.877
38 FZ 40 5.900
38 FZ 41 4.924
38 FZ 42 4.924
38 FZ 43 4.435
38 FZ 44 3.459
38 FZ 45 2.970
38 FZ 46 1.994
38 FZ 47 1.017
38 FZ 48 0.529
38 FZ 49 -1.424
38 FZ 50 -2.889
38 FZ 51 -4.354
38 FZ 52 -3.866
38 FZ 53 -2.401
38 FZ 54 -0.448
38 FZ 55 2.970
38 FZ 56 5.900
38 FZ 57 7.853
38 FZ 58 9.318
38 FZ 59 9.318
38 FZ 60 8.341
38 FZ 61 7.365
38 FZ 62 5.412
38 FZ 63 3.947
38 FZ 64 1.994
38 FZ 65 0.529
38 FZ 66 -1.424
38 FZ 67 -2.889
38 FZ 68 -3.866
38 FZ 69 -4.354
38 FZ 70 -3.866
38 FZ 71 -2.889
38 FZ 72 -1.912
38 FZ 73 -1.424
38 FZ 74 -0.936
38 FZ 75 -0.448
38 FZ 76 0.041
38 FZ 77 0.529
38 FZ 78 1.017
38 FZ 79 1.994
38 FZ 80 2.482
38 FZ 81 2.482
38 FZ 82 2.482
38 FZ 83 1.506
38 FZ 84 0.529
38 FZ 85 0.041
38 FZ 86 -0.448
38 FZ 87 -0.936
38 FZ 88 -1.424
38 FZ 89 -1.912
38 FZ 90 -1.912
38 FZ 91 -1.424
38 FZ 92 -0.936
38 FZ 93 0.041
38 FZ 94 1.506
38 FZ 95 3.459
38 FZ 96 5.900
38 FZ 97 7.365
38 FZ 98 8.341
38 FZ 99 7.853
38 FZ 100 6.388
38 FZ 101 4.435
38 FZ 102 3.947
38 FZ 103 3.947
38 FZ 104 4.435
38 FZ 105 3.947
38 FZ 106 2.970
38 FZ 107 1.994
38 FZ 108 0.529
38 FZ 109 0.529
38 FZ 110 0.041
38 FZ 111 0.041
38 FZ 112 -0.448
38 FZ 113 -1.424
38 FZ 114 -1.424
38 FZ 115 -1.424
38 FZ 116 -1.424
38 FZ 117 -1.424
38 FZ 118 -1.424
38 FZ 119 -2.401
38 FZ 120 -2.401
38 FZ 121 -1.912
38 FZ 122 -1.912
38 FZ 123 -2.401
38 FZ 124 -4.354
38 FZ 125 -5.819
38 FZ 126 -7.772
38 FZ 127 -9.237
38 FZ 128 -9.725
38 FZ 129 -10.213
38 FZ 130 -11.190
38 FZ 131 -12.166
38 FZ 132 -12.655
38 FZ 133 -12.655
38 FZ 134 -11.678
38 FZ 135 -10.213
38 FZ 136 -8.748
38 FZ 137 -7.284
38 FZ 138 -6.307
38 FZ 139 -5.330
38 FZ 140 -5.330
38 FZ 141 -5.330
38 FZ 142 -6.307
38 FZ 143 -7.284
38 FZ 144 -8.748
38 FZ 145 -9.237
38 FZ 146 -9.725
38 FZ 147 -9.725
38 FZ 148 -10.213
38 FZ 149 -10.213
38 FZ 150 -9.237
38 FZ 151 -8.260
38 FZ 152 -6.795
38 FZ 153 -6.307
38 FZ 154 -7.284
38 FZ 155 -9.237
38 FZ 156 -10.701
38 FZ 157 -11.190
38 FZ 158 -10.213
38 FZ 159 -8.748
38 FZ 160 -8.260
38 FZ 161 -8.260
38 FZ 162 -8.260
38 FZ 163 -8.748
38 FZ 164 -8.748
38 FZ 165 -8.260
38 FZ 166 -7.772
38 FZ 167 -7.772
38 FZ 168 -8.260
38 FZ 169 -8.748
38 FZ 170 -8.748
38 FZ 171 -8.748
38 FZ 172 -8.260
38 FZ 173 -8.748
38 FZ 174 -8.260
38 FZ 175 -8.260
38 FZ 176 -7.284
38 FZ 177 -6.307
38 FZ 178 -6.795
38 FZ 179 -7.284
38 FZ 180 -8.260
38 FZ 181 -8.260
38 FZ 182 -6.795
38 FZ 183 -4.842
38 FZ 184 -1.912
38 FZ 185 -0.448
38 FZ 186 -0.448
38 FZ 187 -1.424
38 FZ 188 -3.377
38 FZ 189 -4.842
38 FZ 190 -5.819
38 FZ 191 -5.819
38 FZ 192 -4.354
38 FZ 193 -2.889
38 FZ 194 -2.401
38 FZ 195 -2.401
38 FZ 196 -2.889
38 FZ 197 -3.866
38 FZ 198 -3.866
38 FZ 199 -2.401
38 FZ 200 -1.424
38 FZ 201 -0.448
38 FZ 202 -0.448
38 FZ 203 -1.424
38 FZ 204 -2.401
38 FZ 205 -3.377
38 FZ 206 -3.377
38 FZ 207 -3.377
38 FZ 208 -2.889
38 FZ 209 -2.889
38 FZ 210 -2.889
38 FZ 211 -2.889
38 FZ 212 -2.401
38 FZ 213 -2.401
38 FZ 214 -3.377
38 FZ 215 -3.866
38 FZ 216 -4.842
38 FZ 217 -5.330
38 FZ 218 -4.842
38 FZ 219 -4.354
38 FZ 220 -3.377
38 FZ 221 -3.377
38 FZ 222 -3.377
38 FZ 223 -4.354
38 FZ 224 -4.354
38 FZ 225 -4.842
38 FZ 226 -4.354
38 FZ 227 -3.377
38 FZ 228 -1.912
38 FZ 229 0.529
38 FZ 230 1.994
38 FZ 231 2.970
38 FZ 232 2.970
38 FZ 233 1.994
38 FZ 234 1.017
38 FZ 235 1.017
38 FZ 236 1.506
38 FZ 237 2.482
38 FZ 238 3.459
38 FZ 239 2.970
38 FZ 240 1.994
38 FZ 241 1.017
38 FZ 242 0.529
38 FZ 243 1.506
38 FZ 244 1.994
38 FZ 245 2.970
38 FZ 246 2.482
38 FZ 247 1.506
38 FZ 248 0.041
38 FZ 249 -0.936
38 FZ 250 -0.936
38 FZ 251 -0.448
38 FZ 252 0.041
38 FZ 253 0.529
38 FZ 254 1.017
38 FZ 255 0.529
# F4 chan 7
38 F4 0 4.710
38 F4 1 3.245
38 F4 2 1.780
38 F4 3 0.315
38 F4 4 -0.173
38 F4 5 -0.173
38 F4 6 1.780
38 F4 7 4.222
38 F4 8 6.663
38 F4 9 7.640
38 F4 10 6.663
38 F4 11 4.710
38 F4 12 3.733
38 F4 13 4.222
38 F4 14 6.663
38 F4 15 10.081
38 F4 16 12.034
38 F4 17 12.522
38 F4 18 11.058
38 F4 19 9.593
38 F4 20 8.616
38 F4 21 8.128
38 F4 22 7.640
38 F4 23 6.663
38 F4 24 4.222
38 F4 25 1.780
38 F4 26 -0.173
38 F4 27 0.315
38 F4 28 1.780
38 F4 29 3.245
38 F4 30 3.733
38 F4 31 2.757
38 F4 32 1.292
38 F4 33 1.292
38 F4 34 2.757
38 F4 35 5.198
38 F4 36 7.151
38 F4 37 8.616
38 F4 38 8.616
38 F4 39 8.128
38 F4 40 6.663
38 F4 41 5.198
38 F4 42 4.710
38 F4 43 4.710
38 F4 44 4.710
38 F4 45 5.198
38 F4 46 5.198
38 F4 47 5.198
38 F4 48 4.222
38 F4 49 3.733
38 F4 50 3.245
38 F4 51 3.245
38 F4 52 3.733
38 F4 53 5.198
38 F4 54 7.151
38 F4 55 9.104
38 F4 56 11.058
38 F4 57 13.011
38 F4 58 14.476
38 F4 59 15.452
38 F4 60 14.476
38 F4 61 13.011
38 F4 62 10.081
38 F4 63 7.640
38 F4 64 6.175
38 F4 65 6.175
38 F4 66 7.151
38 F4 67 7.640
38 F4 68 7.640
38 F4 69 7.640
38 F4 70 7.640
38 F4 71 8.128
38 F4 72 8.128
38 F4 73 7.640
38 F4 74 6.663
38 F4 75 5.686
38 F4 76 5.686
38 F4 77 6.175
38 F4 78 8.128
38 F4 79 10.081
38 F4 80 11.546
38 F4 81 13.011
38 F4 82 14.476
38 F4 83 14.964
38 F4 84 14.964
38 F4 85 13.499
38 F4 86 11.058
38 F4 87 8.128
38 F4 88 4.710
38 F4 89 2.757
38 F4 90 1.780
38 F4 91 2.268
38 F4 92 3.245
38 F4 93 4.222
38 F4 94 6.175
38 F4 95 8.128
38 F4 96 10.081
38 F4 97 11.546
38 F4 98 12.034
38 F4 99 11.546
38 F4 100 10.569
38 F4 101 10.081
38 F4 102 9.593
38 F4 103 9.593
38 F4 104 8.616
38 F4 105 7.640
38 F4 106 5.686
38 F4 107 4.710
38 F4 108 3.245
38 F4 109 2.757
38 F4 110 1.780
38 F4 111 0.804
38 F4 112 1.292
38 F4 113 2.268
38 F4 114 4.222
38 F4 115 5.686
38 F4 116 5.686
38 F4 117 4.222
38 F4 118 1.292
38 F4 119 -0.173
38 F4 120 -0.173
38 F4 121 1.292
38 F4 122 3.245
38 F4 123 4.710
38 F4 124 4.222
38 F4 125 2.757
38 F4 126 1.292
38 F4 127 0.804
38 F4 128 0.804
38 F4 129 0.315
38 F4 130 -0.173
38 F4 131 -1.149
38 F4 132 -2.614
38 F4 133 -3.591
38 F4 134 -4.079
38 F4 135 -3.103
38 F4 136 -2.126
38 F4 137 -0.661
38 F4 138 0.804
38 F4 139 1.780
38 F4 140 1.780
38 F4 141 0.804
38 F4 142 -1.149
38 F4 143 -2.126
38 F4 144 -2.614
38 F4 145 -2.126
38 F4 146 -1.149
38 F4 147 -0.661
38 F4 148 -0.173
38 F4 149 -0.661
38 F4 150 -1.149
38 F4 151 -0.661
38 F4 152 -0.173
38 F4 153 0.804
38 F4 154 0.315
38 F4 155 -1.149
38 F4 156 -3.591
38 F4 157 -6.032
38 F4 158 -7.009
38 F4 159 -6.521
38 F4 160 -5.056
38 F4 161 -4.079
38 F4 162 -3.591
38 F4 163 -3.591
38 F4 164 -4.079
38 F4 165 -3.591
38 F4 166 -2.126
38 F4 167 -1.638
38 F4 168 -1.638
38 F4 169 -2.614
38 F4 170 -4.567
38 F4 171 -5.056
38 F4 172 -4.567
38 F4 173 -3.591
38 F4 174 -2.126
38 F4 175 -2.614
38 F4 176 -4.079
38 F4 177 -5.544
38 F4 178 -6.521
38 F4 179 -6.032
38 F4 180 -4.079
38 F4 181 -3.103
38 F4 182 -2.614
38 F4 183 -3.103
38 F4 184 -3.103
38 F4 185 -3.103
38 F4 186 -2.126
38 F4 187 -1.638
38 F4 188 -1.638
38 F4 189 -2.126
38 F4 190 -2.614
38 F4 191 -3.103
38 F4 192 -2.126
38 F4 193 -0.661
38 F4 194 0.315
38 F4 195 0.804
38 F4 196 0.804
38 F4 197 -0.173
38 F4 198 -0.173
38 F4 199 1.292
38 F4 200 3.245
38 F4 201 4.710
38 F4 202 4.222
38 F4 203 2.757
38 F4 204 0.804
38 F4 205 -0.173
38 F4 206 1.292
38 F4 207 3.733
38 F4 208 6.175
38 F4 209 7.640
38 F4 210 7.151
38 F4 211 5.686
38 F4 212 3.733
38 F4 213 2.268
38 F4 214 0.804
38 F4 215 -0.661
38 F4 216 -3.103
38 F4 217 -5.056
38 F4 218 -6.032
38 F4 219 -5.544
38 F4 220 -4.079
38 F4 221 -3.103
38 F4 222 -2.614
38 F4 223 -3.103
38 F4 224 -3.103
38 F4 225 -3.591
38 F4 226 -4.079
38 F4 227 -3.591
38 F4 228 -3.103
38 F4 229 -2.614
38 F4 230 -1.149
38 F4 231 0.804
38 F4 232 3.245
38 F4 233 4.710
38 F4 234 5.198
38 F4 235 5.686
38 F4 236 6.175
38 F4 237 6.663
38 F4 238 6.663
38 F4 239 6.175
38 F4 240 4.710
38 F4 241 3.733
38 F4 242 3.245
38 F4 243 3.733
38 F4 244 4.710
38 F4 245 5.198
38 F4 246 5.198
38 F4 247 3.733
38 F4 248 2.757
38 F4 249 2.268
38 F4 250 2.268
38 F4 251 2.757
38 F4 252 3.245
38 F4 253 4.222
38 F4 254 5.686
38 F4 255 6.663
# F3 chan 8
38 F3 0 5.758
38 F3 1 5.269
38 F3 2 5.269
38 F3 3 4.293
38 F3 4 3.316
38 F3 5 2.828
38 F3 6 2.828
38 F3 7 3.316
38 F3 8 4.781
38 F3 9 5.758
38 F3 10 5.758
38 F3 11 5.269
38 F3 12 5.269
38 F3 13 5.269
38 F3 14 6.246
38 F3 15 7.222
38 F3 16 8.687
38 F3 17 9.176
38 F3 18 10.152
38 F3 19 10.152
38 F3 20 9.176
38 F3 21 8.687
38 F3 22 7.711
38 F3 23 6.734
38 F3 24 5.269
38 F3 25 3.805
38 F3 26 1.851
38 F3 27 -0.102
38 F3 28 -0.590
38 F3 29 -0.590
38 F3 30 0.875
38 F3 31 1.851
38 F3 32 2.340
38 F3 33 2.828
38 F3 34 3.316
38 F3 35 4.293
38 F3 36 6.246
38 F3 37 8.199
38 F3 38 9.176
38 F3 39 9.176
38 F3 40 9.176
38 F3 41 9.176
38 F3 42 8.687
38 F3 43 7.711
38 F3 44 5.758
38 F3 45 4.293
38 F3 46 2.340
38 F3 47 1.851
38 F3 48 1.363
38 F3 49 1.363
38 F3 50 0.875
38 F3 51 -0.102
38 F3 52 -0.590
38 F3 53 0.875
38 F3 54 2.828
38 F3 55 6.246
38 F3 56 9.664
38 F3 57 11.617
38 F3 58 12.594
38 F3 59 11.129
38 F3 60 9.176
38 F3 61 6.734
38 F3 62 5.269
38 F3 63 4.293
38 F3 64 4.293
38 F3 65 3.805
38 F3 66 3.316
38 F3 67 1.851
38 F3 68 0.875
38 F3 69 0.387
38 F3 70 0.875
38 F3 71 1.851
38 F3 72 2.340
38 F3 73 2.340
38 F3 74 2.340
38 F3 75 2.828
38 F3 76 2.340
38 F3 77 2.828
38 F3 78 2.828
38 F3 79 3.805
38 F3 80 5.269
38 F3 81 6.734
38 F3 82 7.222
38 F3 83 5.758
38 F3 84 4.293
38 F3 85 3.805
38 F3 86 4.781
38 F3 87 6.734
38 F3 88 8.199
38 F3 89 8.199
38 F3 90 6.734
38 F3 91 4.781
38 F3 92 4.293
38 F3 93 5.269
38 F3 94 7.222
38 F3 95 8.687
38 F3 96 9.664
38 F3 97 10.152
38 F3 98 10.640
38 F3 99 10.640
38 F3 100 10.640
38 F3 101 9.176
38 F3 102 7.711
38 F3 103 6.734
38 F3 104 6.734
38 F3 105 7.222
38 F3 106 7.711
38 F3 107 7.222
38 F3 108 5.269
38 F3 109 2.340
38 F3 110 0.875
38 F3 111 0.387
38 F3 112 0.875
38 F3 113 1.851
38 F3 114 2.340
38 F3 115 1.851
38 F3 116 0.875
38 F3 117 0.387
38 F3 118 -0.102
38 F3 119 -0.590
38 F3 120 -1.567
38 F3 121 -2.543
38 F3 122 -3.520
38 F3 123 -3.520
38 F3 124 -3.520
38 F3 125 -3.520
38 F3 126 -3.520
38 F3 127 -4.496
38 F3 128 -4.985
38 F3 129 -6.449
38 F3 130 -6.449
38 F3 131 -7.426
38 F3 132 -7.426
38 F3 133 -7.914
38 F3 134 -7.914
38 F3 135 -7.914
38 F3 136 -7.914
38 F3 137 -7.914
38 F3 138 -6.938
38 F3 139 -6.449
38 F3 140 -4.985
38 F3 141 -4.496
38 F3 142 -4.496
38 F3 143 -4.985
38 F3 144 -5.473
38 F3 145 -5.961
38 F3 146 -5.473
38 F3 147 -5.473
38 F3 148 -4.985
38 F3 149 -4.496
38 F3 150 -3.520
38 F3 151 -2.543
38 F3 152 -2.543
38 F3 153 -3.520
38 F3 154 -5.473
38 F3 155 -6.938
38 F3 156 -7.914
38 F3 157 -6.938
38 F3 158 -4.985
38 F3 159 -2.543
38 F3 160 -1.567
38 F3 161 -1.078
38 F3 162 -1.567
38 F3 163 -2.543
38 F3 164 -3.520
38 F3 165 -4.985
38 F3 166 -4.985
38 F3 167 -4.496
38 F3 168 -4.008
38 F3 169 -3.031
38 F3 170 -2.543
38 F3 171 -2.543
38 F3 172 -3.520
38 F3 173 -3.520
38 F3 174 -3.031
38 F3 175 -2.055
38 F3 176 -1.078
38 F3 177 -0.590
38 F3 178 -1.078
38 F3 179 -2.055
38 F3 180 -3.031
38 F3 181 -3.031
38 F3 182 -2.055
38 F3 183 -0.102
38 F3 184 2.340
38 F3 185 3.316
38 F3 186 3.805
38 F3 187 2.340
38 F3 188 0.387
38 F3 189 -1.078
38 F3 190 -2.055
38 F3 191 -1.078
38 F3 192 0.875
38 F3 193 3.316
38 F3 194 5.269
38 F3 195 5.758
38 F3 196 5.269
38 F3 197 4.293
38 F3 198 2.828
38 F3 199 2.828
38 F3 200 3.316
38 F3 201 4.293
38 F3 202 4.293
38 F3 203 3.805
38 F3 204 2.340
38 F3 205 1.851
38 F3 206 1.851
38 F3 207 2.828
38 F3 208 3.805
38 F3 209 4.781
38 F3 210 5.269
38 F3 211 5.269
38 F3 212 4.781
38 F3 213 4.293
38 F3 214 3.805
38 F3 215 3.316
38 F3 216 3.316
38 F3 217 3.805
38 F3 218 5.269
38 F3 219 6.246
38 F3 220 6.246
38 F3 221 5.269
38 F3 222 3.316
38 F3 223 2.340
38 F3 224 1.363
38 F3 225 1.363
38 F3 226 1.851
38 F3 227 3.316
38 F3 228 5.269
38 F3 229 6.734
38 F3 230 8.199
38 F3 231 7.711
38 F3 232 7.222
38 F3 233 6.246
38 F3 234 5.758
38 F3 235 6.246
38 F3 236 6.734
38 F3 237 6.734
38 F3 238 6.246
38 F3 239 5.758
38 F3 240 5.758
38 F3 241 6.734
38 F3 242 7.711
38 F3 243 8.199
38 F3 244 8.199
38 F3 245 8.199
38 F3 246 8.687
38 F3 247 9.176
38 F3 248 8.687
38 F3 249 8.199
38 F3 250 7.222
38 F3 251 5.758
38 F3 252 4.781
38 F3 253 5.269
38 F3 254 6.246
38 F3 255 6.734
# FC6 chan 9
38 FC6 0 1.912
38 FC6 1 1.424
38 FC6 2 0.448
38 FC6 3 0.448
38 FC6 4 0.448
38 FC6 5 0.936
38 FC6 6 1.912
38 FC6 7 2.889
38 FC6 8 3.866
38 FC6 9 4.842
38 FC6 10 5.330
38 FC6 11 4.842
38 FC6 12 3.866
38 FC6 13 3.377
38 FC6 14 2.889
38 FC6 15 3.377
38 FC6 16 3.866
38 FC6 17 4.842
38 FC6 18 5.819
38 FC6 19 6.307
38 FC6 20 5.819
38 FC6 21 4.354
38 FC6 22 0.448
38 FC6 23 -4.435
38 FC6 24 -8.830
38 FC6 25 -11.271
38 FC6 26 -10.783
38 FC6 27 -7.853
38 FC6 28 -4.924
38 FC6 29 -3.459
38 FC6 30 -3.459
38 FC6 31 -4.435
38 FC6 32 -4.435
38 FC6 33 -2.482
38 FC6 34 -0.041
38 FC6 35 1.424
38 FC6 36 0.936
38 FC6 37 -1.506
38 FC6 38 -4.435
38 FC6 39 -6.388
38 FC6 40 -6.877
38 FC6 41 -5.900
38 FC6 42 -4.924
38 FC6 43 -4.924
38 FC6 44 -5.412
38 FC6 45 -6.388
38 FC6 46 -6.877
38 FC6 47 -6.388
38 FC6 48 -4.435
38 FC6 49 -2.970
38 FC6 50 -1.506
38 FC6 51 -1.017
38 FC6 52 -1.017
38 FC6 53 -0.041
38 FC6 54 1.424
38 FC6 55 2.401
38 FC6 56 2.889
38 FC6 57 3.377
38 FC6 58 3.377
38 FC6 59 3.377
38 FC6 60 2.889
38 FC6 61 0.936
38 FC6 62 -1.017
38 FC6 63 -2.482
38 FC6 64 -2.970
38 FC6 65 -1.994
38 FC6 66 -1.506
38 FC6 67 -1.994
38 FC6 68 -3.947
38 FC6 69 -6.388
38 FC6 70 -7.853
38 FC6 71 -7.365
38 FC6 72 -6.388
38 FC6 73 -6.388
38 FC6 74 -6.877
38 FC6 75 -7.853
38 FC6 76 -7.365
38 FC6 77 -4.924
38 FC6 78 -1.994
38 FC6 79 0.936
38 FC6 80 0.936
38 FC6 81 -1.017
38 FC6 82 -3.947
38 FC6 83 -6.388
38 FC6 84 -7.365
38 FC6 85 -6.877
38 FC6 86 -6.388
38 FC6 87 -6.877
38 FC6 88 -7.365
38 FC6 89 -7.853
38 FC6 90 -6.877
38 FC6 91 -5.412
38 FC6 92 -3.947
38 FC6 93 -2.482
38 FC6 94 -1.506
38 FC6 95 0.448
38 FC6 96 2.401
38 FC6 97 4.842
38 FC6 98 6.307
38 FC6 99 6.307
38 FC6 100 4.842
38 FC6 101 2.889
38 FC6 102 1.912
38 FC6 103 2.401
38 FC6 104 2.889
38 FC6 105 2.889
38 FC6 106 1.912
38 FC6 107 1.912
38 FC6 108 1.912
38 FC6 109 1.912
38 FC6 110 1.424
38 FC6 111 -0.041
38 FC6 112 -2.482
38 FC6 113 -3.459
38 FC6 114 -2.970
38 FC6 115 -0.529
38 FC6 116 1.424
38 FC6 117 2.401
38 FC6 118 1.912
38 FC6 119 0.936
38 FC6 120 0.448
38 FC6 121 1.424
38 FC6 122 3.377
38 FC6 123 3.866
38 FC6 124 2.401
38 FC6 125 -0.041
38 FC6 126 -1.506
38 FC6 127 -1.994
38 FC6 128 -0.041
38 FC6 129 1.912
38 FC6 130 1.912
38 FC6 131 -0.529
38 FC6 132 -3.947
38 FC6 133 -6.388
38 FC6 134 -6.388
38 FC6 135 -4.924
38 FC6 136 -2.970
38 FC6 137 -1.994
38 FC6 138 -1.994
38 FC6 139 -2.970
38 FC6 140 -3.947
38 FC6 141 -4.435
38 FC6 142 -4.435
38 FC6 143 -3.459
38 FC6 144 -2.970
38 FC6 145 -2.482
38 FC6 146 -2.482
38 FC6 147 -2.970
38 FC6 148 -4.435
38 FC6 149 -5.900
38 FC6 150 -6.388
38 FC6 151 -5.900
38 FC6 152 -3.947
38 FC6 153 -1.017
38 FC6 154 1.912
38 FC6 155 2.401
38 FC6 156 2.401
38 FC6 157 0.936
38 FC6 158 -1.017
38 FC6 159 -2.482
38 FC6 160 -2.970
38 FC6 161 -3.459
38 FC6 162 -3.459
38 FC6 163 -3.459
38 FC6 164 -2.970
38 FC6 165 -2.482
38 FC6 166 -1.506
38 FC6 167 -1.017
38 FC6 168 -1.017
38 FC6 169 -1.506
38 FC6 170 -1.994
38 FC6 171 -2.482
38 FC6 172 -1.994
38 FC6 173 -1.994
38 FC6 174 -2.482
38 FC6 175 -2.970
38 FC6 176 -4.435
38 FC6 177 -4.924
38 FC6 178 -5.412
38 FC6 179 -4.435
38 FC6 180 -2.970
38 FC6 181 -1.017
38 FC6 182 0.936
38 FC6 183 2.401
38 FC6 184 2.889
38 FC6 185 1.912
38 FC6 186 1.424
38 FC6 187 0.936
38 FC6 188 0.448
38 FC6 189 0.448
38 FC6 190 -0.041
38 FC6 191 -0.529
38 FC6 192 -1.017
38 FC6 193 -0.529
38 FC6 194 -0.529
38 FC6 195 -1.017
38 FC6 196 -1.506
38 FC6 197 -1.994
38 FC6 198 -1.994
38 FC6 199 -0.529
38 FC6 200 0.936
38 FC6 201 1.912
38 FC6 202 2.401
38 FC6 203 2.401
38 FC6 204 2.401
38 FC6 205 3.866
38 FC6 206 4.354
38 FC6 207 3.866
38 FC6 208 1.912
38 FC6 209 -1.017
38 FC6 210 -1.994
38 FC6 211 -1.994
38 FC6 212 -1.017
38 FC6 213 -1.017
38 FC6 214 -1.994
38 FC6 215 -4.435
38 FC6 216 -6.877
38 FC6 217 -8.341
38 FC6 218 -8.341
38 FC6 219 -7.853
38 FC6 220 -7.853
38 FC6 221 -8.341
38 FC6 222 -9.318
38 FC6 223 -9.806
38 FC6 224 -10.295
38 FC6 225 -10.295
38 FC6 226 -10.783
38 FC6 227 -10.783
38 FC6 228 -10.783
38 FC6 229 -9.806
38 FC6 230 -8.830
38 FC6 231 -7.365
38 FC6 232 -6.877
38 FC6 233 -6.388
38 FC6 234 -6.388
38 FC6 235 -6.877
38 FC6 236 -6.388
38 FC6 237 -5.900
38 FC6 238 -5.412
38 FC6 239 -4.924
38 FC6 240 -4.435
38 FC6 241 -4.924
38 FC6 242 -5.900
38 FC6 243 -6.877
38 FC6 244 -8.341
38 FC6 245 -9.318
38 FC6 246 -8.830
38 FC6 247 -7.365
38 FC6 248 -5.900
38 FC6 249 -5.900
38 FC6 250 -6.388
38 FC6 251 -7.365
38 FC6 252 -8.341
38 FC6 253 -7.853
38 FC6 254 -6.877
38 FC6 255 -6.388
# FC5 chan 10
38 FC5 0 4.323
38 FC5 1 4.812
38 FC5 2 4.323
38 FC5 3 2.858
38 FC5 4 0.417
38 FC5 5 -1.048
38 FC5 6 -1.048
38 FC5 7 0.417
38 FC5 8 1.394
38 FC5 9 1.394
38 FC5 10 -0.559
38 FC5 11 -3.001
38 FC5 12 -3.977
38 FC5 13 -3.977
38 FC5 14 -3.001
38 FC5 15 -2.024
38 FC5 16 -0.559
38 FC5 17 0.417
38 FC5 18 1.394
38 FC5 19 1.882
38 FC5 20 1.882
38 FC5 21 1.394
38 FC5 22 0.905
38 FC5 23 1.394
38 FC5 24 1.882
38 FC5 25 1.882
38 FC5 26 -0.071
38 FC5 27 -2.513
38 FC5 28 -4.466
38 FC5 29 -5.442
38 FC5 30 -4.466
38 FC5 31 -3.489
38 FC5 32 -3.489
38 FC5 33 -3.977
38 FC5 34 -4.466
38 FC5 35 -3.977
38 FC5 36 -2.513
38 FC5 37 -2.513
38 FC5 38 -3.489
38 FC5 39 -4.954
38 FC5 40 -5.442
38 FC5 41 -4.466
38 FC5 42 -2.513
38 FC5 43 -1.048
38 FC5 44 -2.024
38 FC5 45 -4.466
38 FC5 46 -6.419
38 FC5 47 -6.419
38 FC5 48 -4.466
38 FC5 49 -2.513
38 FC5 50 -2.513
38 FC5 51 -4.466
38 FC5 52 -6.419
38 FC5 53 -6.907
38 FC5 54 -4.466
38 FC5 55 -0.071
38 FC5 56 3.835
38 FC5 57 6.276
38 FC5 58 6.276
38 FC5 59 3.835
38 FC5 60 0.905
38 FC5 61 -2.024
38 FC5 62 -3.001
38 FC5 63 -2.513
38 FC5 64 -1.536
38 FC5 65 -1.048
38 FC5 66 -1.536
38 FC5 67 -2.024
38 FC5 68 -3.001
38 FC5 69 -3.489
38 FC5 70 -4.466
38 FC5 71 -5.442
38 FC5 72 -5.931
38 FC5 73 -4.954
38 FC5 74 -2.513
38 FC5 75 -0.071
38 FC5 76 0.417
38 FC5 77 -1.048
38 FC5 78 -3.001
38 FC5 79 -3.489
38 FC5 80 -0.559
38 FC5 81 2.370
38 FC5 82 3.835
38 FC5 83 1.882
38 FC5 84 -1.048
38 FC5 85 -2.024
38 FC5 86 0.417
38 FC5 87 4.323
38 FC5 88 5.300
38 FC5 89 2.858
38 FC5 90 -1.536
38 FC5 91 -4.954
38 FC5 92 -3.977
38 FC5 93 -1.048
38 FC5 94 1.882
38 FC5 95 1.394
38 FC5 96 -1.536
38 FC5 97 -4.466
38 FC5 98 -4.466
38 FC5 99 -2.513
38 FC5 100 -0.071
38 FC5 101 -0.071
38 FC5 102 -2.513
38 FC5 103 -4.954
38 FC5 104 -4.954
38 FC5 105 -2.513
38 FC5 106 -0.071
38 FC5 107 -0.071
38 FC5 108 -3.001
38 FC5 109 -6.907
38 FC5 110 -8.372
38 FC5 111 -6.907
38 FC5 112 -3.977
38 FC5 113 -2.024
38 FC5 114 -3.001
38 FC5 115 -5.442
38 FC5 116 -7.395
38 FC5 117 -7.884
38 FC5 118 -6.419
38 FC5 119 -5.931
38 FC5 120 -8.372
38 FC5 121 -11.790
38 FC5 122 -15.208
38 FC5 123 -16.184
38 FC5 124 -14.231
38 FC5 125 -11.302
38 FC5 126 -9.349
38 FC5 127 -9.837
38 FC5 128 -11.302
38 FC5 129 -13.255
38 FC5 130 -14.720
38 FC5 131 -15.208
38 FC5 132 -15.208
38 FC5 133 -16.184
38 FC5 134 -17.161
38 FC5 135 -17.649
38 FC5 136 -18.626
38 FC5 137 -18.626
38 FC5 138 -18.626
38 FC5 139 -18.626
38 FC5 140 -18.138
38 FC5 141 -17.649
38 FC5 142 -16.184
38 FC5 143 -14.720
38 FC5 144 -14.231
38 FC5 145 -14.720
38 FC5 146 -16.184
38 FC5 147 -17.649
38 FC5 148 -17.649
38 FC5 149 -16.184
38 FC5 150 -13.743
38 FC5 151 -12.278
38 FC5 152 -13.255
38 FC5 153 -15.696
38 FC5 154 -19.114
38 FC5 155 -21.067
38 FC5 156 -21.067
38 FC5 157 -18.138
38 FC5 158 -15.208
38 FC5 159 -12.278
38 FC5 160 -10.813
38 FC5 161 -10.325
38 FC5 162 -10.325
38 FC5 163 -11.302
38 FC5 164 -13.255
38 FC5 165 -15.696
38 FC5 166 -17.649
38 FC5 167 -18.626
38 FC5 168 -17.649
38 FC5 169 -15.696
38 FC5 170 -13.743
38 FC5 171 -13.255
38 FC5 172 -13.255
38 FC5 173 -14.231
38 FC5 174 -14.231
38 FC5 175 -13.743
38 FC5 176 -12.278
38 FC5 177 -10.813
38 FC5 178 -10.325
38 FC5 179 -10.813
38 FC5 180 -12.278
38 FC5 181 -13.255
38 FC5 182 -13.255
38 FC5 183 -11.790
38 FC5 184 -9.349
38 FC5 185 -6.419
38 FC5 186 -5.442
38 FC5 187 -6.419
38 FC5 188 -8.860
38 FC5 189 -11.790
38 FC5 190 -13.255
38 FC5 191 -12.278
38 FC5 192 -9.837
38 FC5 193 -7.395
38 FC5 194 -4.954
38 FC5 195 -3.977
38 FC5 196 -4.466
38 FC5 197 -5.442
38 FC5 198 -6.907
38 FC5 199 -6.907
38 FC5 200 -5.931
38 FC5 201 -4.466
38 FC5 202 -3.977
38 FC5 203 -4.954
38 FC5 204 -6.907
38 FC5 205 -8.372
38 FC5 206 -8.372
38 FC5 207 -6.907
38 FC5 208 -5.442
38 FC5 209 -4.954
38 FC5 210 -5.442
38 FC5 211 -5.931
38 FC5 212 -6.419
38 FC5 213 -5.931
38 FC5 214 -5.931
38 FC5 215 -5.442
38 FC5 216 -4.954
38 FC5 217 -3.977
38 FC5 218 -3.489
38 FC5 219 -3.001
38 FC5 220 -3.977
38 FC5 221 -5.931
38 FC5 222 -7.395
38 FC5 223 -7.395
38 FC5 224 -6.419
38 FC5 225 -4.466
38 FC5 226 -4.466
38 FC5 227 -4.466
38 FC5 228 -4.466
38 FC5 229 -3.977
38 FC5 230 -3.001
38 FC5 231 -3.001
38 FC5 232 -3.977
38 FC5 233 -5.442
38 FC5 234 -6.419
38 FC5 235 -6.419
38 FC5 236 -5.931
38 FC5 237 -5.931
38 FC5 238 -6.419
38 FC5 239 -6.907
38 FC5 240 -6.907
38 FC5 241 -5.442
38 FC5 242 -4.466
38 FC5 243 -3.489
38 FC5 244 -3.489
38 FC5 245 -3.489
38 FC5 246 -2.024
38 FC5 247 -1.536
38 FC5 248 -1.536
38 FC5 249 -3.001
38 FC5 250 -5.442
38 FC5 251 -8.372
38 FC5 252 -9.837
38 FC5 253 -9.837
38 FC5 254 -8.860
38 FC5 255 -7.884
# FC2 chan 11
38 FC2 0 0.407
38 FC2 1 0.407
38 FC2 2 0.895
38 FC2 3 1.383
38 FC2 4 1.383
38 FC2 5 1.383
38 FC2 6 1.383
38 FC2 7 2.360
38 FC2 8 3.337
38 FC2 9 4.801
38 FC2 10 5.778
38 FC2 11 5.778
38 FC2 12 4.801
38 FC2 13 3.825
38 FC2 14 2.848
38 FC2 15 2.848
38 FC2 16 3.825
38 FC2 17 5.290
38 FC2 18 6.755
38 FC2 19 6.266
38 FC2 20 6.755
38 FC2 21 5.778
38 FC2 22 4.801
38 FC2 23 3.825
38 FC2 24 2.848
38 FC2 25 1.872
38 FC2 26 0.895
38 FC2 27 1.383
38 FC2 28 2.360
38 FC2 29 2.848
38 FC2 30 2.848
38 FC2 31 2.360
38 FC2 32 2.360
38 FC2 33 3.337
38 FC2 34 5.290
38 FC2 35 7.243
38 FC2 36 7.731
38 FC2 37 7.243
38 FC2 38 5.778
38 FC2 39 4.801
38 FC2 40 4.801
38 FC2 41 5.290
38 FC2 42 5.778
38 FC2 43 5.778
38 FC2 44 5.290
38 FC2 45 4.801
38 FC2 46 4.313
38 FC2 47 3.825
38 FC2 48 3.337
38 FC2 49 2.360
38 FC2 50 1.383
38 FC2 51 1.872
38 FC2 52 2.360
38 FC2 53 3.337
38 FC2 54 3.337
38 FC2 55 3.337
38 FC2 56 3.337
38 FC2 57 4.801
38 FC2 58 7.243
38 FC2 59 9.684
38 FC2 60 10.173
38 FC2 61 9.196
38 FC2 62 6.755
38 FC2 63 4.313
38 FC2 64 3.825
38 FC2 65 4.313
38 FC2 66 5.290
38 FC2 67 5.778
38 FC2 68 4.801
38 FC2 69 3.825
38 FC2 70 2.848
38 FC2 71 2.360
38 FC2 72 2.360
38 FC2 73 2.360
38 FC2 74 2.360
38 FC2 75 2.360
38 FC2 76 3.825
38 FC2 77 5.778
38 FC2 78 6.755
38 FC2 79 6.755
38 FC2 80 5.778
38 FC2 81 3.825
38 FC2 82 3.825
38 FC2 83 3.825
38 FC2 84 4.801
38 FC2 85 5.290
38 FC2 86 4.313
38 FC2 87 2.848
38 FC2 88 0.895
38 FC2 89 0.407
38 FC2 90 0.895
38 FC2 91 2.360
38 FC2 92 3.337
38 FC2 93 3.825
38 FC2 94 4.313
38 FC2 95 5.290
38 FC2 96 6.755
38 FC2 97 7.731
38 FC2 98 7.731
38 FC2 99 6.755
38 FC2 100 4.801
38 FC2 101 3.825
38 FC2 102 3.337
38 FC2 103 4.313
38 FC2 104 5.290
38 FC2 105 5.290
38 FC2 106 5.290
38 FC2 107 4.801
38 FC2 108 3.825
38 FC2 109 3.337
38 FC2 110 2.848
38 FC2 111 1.872
38 FC2 112 1.872
38 FC2 113 2.360
38 FC2 114 3.337
38 FC2 115 4.313
38 FC2 116 5.290
38 FC2 117 4.801
38 FC2 118 3.825
38 FC2 119 2.848
38 FC2 120 2.360
38 FC2 121 2.360
38 FC2 122 2.360
38 FC2 123 1.872
38 FC2 124 0.407
38 FC2 125 -1.546
38 FC2 126 -2.523
38 FC2 127 -3.011
38 FC2 128 -2.035
38 FC2 129 -1.546
38 FC2 130 -1.546
38 FC2 131 -2.523
38 FC2 132 -3.499
38 FC2 133 -4.476
38 FC2 134 -4.964
38 FC2 135 -3.988
38 FC2 136 -2.523
38 FC2 137 -0.570
38 FC2 138 0.407
38 FC2 139 0.407
38 FC2 140 -0.081
38 FC2 141 -1.058
38 FC2 142 -2.035
38 FC2 143 -2.523
38 FC2 144 -2.035
38 FC2 145 -1.546
38 FC2 146 -1.058
38 FC2 147 -1.058
38 FC2 148 -2.035
38 FC2 149 -3.499
38 FC2 150 -4.476
38 FC2 151 -4.476
38 FC2 152 -3.499
38 FC2 153 -2.035
38 FC2 154 -2.035
38 FC2 155 -2.523
38 FC2 156 -3.988
38 FC2 157 -5.452
38 FC2 158 -5.941
38 FC2 159 -5.941
38 FC2 160 -6.429
38 FC2 161 -6.429
38 FC2 162 -6.429
38 FC2 163 -5.941
38 FC2 164 -5.452
38 FC2 165 -4.964
38 FC2 166 -4.476
38 FC2 167 -4.476
38 FC2 168 -4.476
38 FC2 169 -3.988
38 FC2 170 -3.499
38 FC2 171 -3.011
38 FC2 172 -3.011
38 FC2 173 -3.499
38 FC2 174 -3.988
38 FC2 175 -4.476
38 FC2 176 -4.476
38 FC2 177 -4.476
38 FC2 178 -4.476
38 FC2 179 -5.452
38 FC2 180 -5.941
38 FC2 181 -5.452
38 FC2 182 -4.476
38 FC2 183 -2.523
38 FC2 184 -1.546
38 FC2 185 -2.035
38 FC2 186 -3.011
38 FC2 187 -3.988
38 FC2 188 -5.452
38 FC2 189 -5.941
38 FC2 190 -5.941
38 FC2 191 -5.941
38 FC2 192 -5.941
38 FC2 193 -5.941
38 FC2 194 -6.429
38 FC2 195 -6.429
38 FC2 196 -5.941
38 FC2 197 -4.964
38 FC2 198 -3.499
38 FC2 199 -2.035
38 FC2 200 -0.570
38 FC2 201 -0.081
38 FC2 202 -1.058
38 FC2 203 -2.523
38 FC2 204 -3.499
38 FC2 205 -2.523
38 FC2 206 -1.058
38 FC2 207 0.895
38 FC2 208 1.383
38 FC2 209 0.407
38 FC2 210 -0.570
38 FC2 211 -1.058
38 FC2 212 -0.570
38 FC2 213 0.407
38 FC2 214 0.407
38 FC2 215 -1.058
38 FC2 216 -3.011
38 FC2 217 -3.988
38 FC2 218 -4.476
38 FC2 219 -3.499
38 FC2 220 -3.011
38 FC2 221 -3.011
38 FC2 222 -3.499
38 FC2 223 -4.476
38 FC2 224 -4.964
38 FC2 225 -5.452
38 FC2 226 -5.941
38 FC2 227 -6.429
38 FC2 228 -6.429
38 FC2 229 -5.452
38 FC2 230 -3.988
38 FC2 231 -2.523
38 FC2 232 -2.035
38 FC2 233 -2.035
38 FC2 234 -2.523
38 FC2 235 -2.035
38 FC2 236 -1.546
38 FC2 237 -0.570
38 FC2 238 0.895
38 FC2 239 1.872
38 FC2 240 2.848
38 FC2 241 3.337
38 FC2 242 3.337
38 FC2 243 2.848
38 FC2 244 2.848
38 FC2 245 2.360
38 FC2 246 3.337
38 FC2 247 3.337
38 FC2 248 3.337
38 FC2 249 3.337
38 FC2 250 2.848
38 FC2 251 3.337
38 FC2 252 3.825
38 FC2 253 5.290
38 FC2 254 6.266
38 FC2 255 6.266
# FC1 chan 12
38 FC1 0 3.479
38 FC1 1 4.944
38 FC1 2 5.432
38 FC1 3 5.920
38 FC1 4 5.432
38 FC1 5 3.967
38 FC1 6 3.967
38 FC1 7 4.456
38 FC1 8 5.432
38 FC1 9 6.409
38 FC1 10 7.385
38 FC1 11 7.385
38 FC1 12 6.897
38 FC1 13 6.409
38 FC1 14 6.409
38 FC1 15 6.897
38 FC1 16 7.874
38 FC1 17 8.362
38 FC1 18 8.850
38 FC1 19 8.362
38 FC1 20 8.362
38 FC1 21 7.874
38 FC1 22 7.874
38 FC1 23 7.874
38 FC1 24 8.362
38 FC1 25 8.362
38 FC1 26 7.874
38 FC1 27 7.385
38 FC1 28 6.897
38 FC1 29 6.409
38 FC1 30 6.409
38 FC1 31 6.409
38 FC1 32 5.920
38 FC1 33 5.432
38 FC1 34 5.432
38 FC1 35 5.920
38 FC1 36 6.409
38 FC1 37 6.897
38 FC1 38 7.874
38 FC1 39 8.362
38 FC1 40 8.850
38 FC1 41 9.827
38 FC1 42 10.315
38 FC1 43 10.803
38 FC1 44 9.827
38 FC1 45 8.362
38 FC1 46 6.897
38 FC1 47 5.920
38 FC1 48 4.456
38 FC1 49 3.479
38 FC1 50 2.991
38 FC1 51 2.014
38 FC1 52 1.038
38 FC1 53 1.526
38 FC1 54 2.014
38 FC1 55 3.479
38 FC1 56 4.944
38 FC1 57 6.409
38 FC1 58 7.385
38 FC1 59 7.874
38 FC1 60 7.874
38 FC1 61 7.874
38 FC1 62 7.385
38 FC1 63 6.409
38 FC1 64 5.920
38 FC1 65 4.456
38 FC1 66 3.479
38 FC1 67 2.991
38 FC1 68 2.502
38 FC1 69 2.014
38 FC1 70 2.014
38 FC1 71 1.526
38 FC1 72 1.038
38 FC1 73 1.038
38 FC1 74 0.549
38 FC1 75 0.549
38 FC1 76 0.061
38 FC1 77 -0.427
38 FC1 78 -0.427
38 FC1 79 0.061
38 FC1 80 1.038
38 FC1 81 1.526
38 FC1 82 2.014
38 FC1 83 1.526
38 FC1 84 1.038
38 FC1 85 1.038
38 FC1 86 1.526
38 FC1 87 1.526
38 FC1 88 0.549
38 FC1 89 -0.427
38 FC1 90 -1.892
38 FC1 91 -2.380
38 FC1 92 -1.892
38 FC1 93 -1.404
38 FC1 94 -0.427
38 FC1 95 0.549
38 FC1 96 0.549
38 FC1 97 0.549
38 FC1 98 0.549
38 FC1 99 0.549
38 FC1 100 0.549
38 FC1 101 0.061
38 FC1 102 0.061
38 FC1 103 0.061
38 FC1 104 0.061
38 FC1 105 0.549
38 FC1 106 0.549
38 FC1 107 0.549
38 FC1 108 0.061
38 FC1 109 -1.404
38 FC1 110 -1.892
38 FC1 111 -2.869
38 FC1 112 -3.357
38 FC1 113 -3.357
38 FC1 114 -2.869
38 FC1 115 -2.380
38 FC1 116 -1.892
38 FC1 117 -1.892
38 FC1 118 -1.404
38 FC1 119 -1.892
38 FC1 120 -2.380
38 FC1 121 -3.357
38 FC1 122 -4.333
38 FC1 123 -5.310
38 FC1 124 -5.798
38 FC1 125 -5.310
38 FC1 126 -5.798
38 FC1 127 -5.798
38 FC1 128 -6.287
38 FC1 129 -6.775
38 FC1 130 -6.775
38 FC1 131 -6.287
38 FC1 132 -5.798
38 FC1 133 -5.798
38 FC1 134 -6.287
38 FC1 135 -7.263
38 FC1 136 -8.728
38 FC1 137 -9.705
38 FC1 138 -9.705
38 FC1 139 -9.216
38 FC1 140 -8.240
38 FC1 141 -7.751
38 FC1 142 -7.751
38 FC1 143 -8.240
38 FC1 144 -9.216
38 FC1 145 -9.216
38 FC1 146 -8.728
38 FC1 147 -7.751
38 FC1 148 -7.263
38 FC1 149 -6.775
38 FC1 150 -6.287
38 FC1 151 -6.287
38 FC1 152 -6.287
38 FC1 153 -6.287
38 FC1 154 -7.751
38 FC1 155 -8.240
38 FC1 156 -9.216
38 FC1 157 -8.728
38 FC1 158 -7.751
38 FC1 159 -6.775
38 FC1 160 -6.287
38 FC1 161 -6.287
38 FC1 162 -6.775
38 FC1 163 -7.263
38 FC1 164 -7.751
38 FC1 165 -7.751
38 FC1 166 -7.751
38 FC1 167 -7.263
38 FC1 168 -7.263
38 FC1 169 -7.751
38 FC1 170 -8.240
38 FC1 171 -8.240
38 FC1 172 -8.240
38 FC1 173 -7.751
38 FC1 174 -7.263
38 FC1 175 -6.775
38 FC1 176 -6.775
38 FC1 177 -6.287
38 FC1 178 -6.775
38 FC1 179 -7.263
38 FC1 180 -7.263
38 FC1 181 -6.775
38 FC1 182 -5.798
38 FC1 183 -4.333
38 FC1 184 -2.380
38 FC1 185 -1.404
38 FC1 186 -1.404
38 FC1 187 -3.357
38 FC1 188 -5.310
38 FC1 189 -6.287
38 FC1 190 -6.775
38 FC1 191 -5.310
38 FC1 192 -3.357
38 FC1 193 -1.404
38 FC1 194 -0.916
38 FC1 195 -0.916
38 FC1 196 -1.404
38 FC1 197 -1.892
38 FC1 198 -1.404
38 FC1 199 -0.916
38 FC1 200 0.061
38 FC1 201 0.061
38 FC1 202 -0.916
38 FC1 203 -2.380
38 FC1 204 -3.845
38 FC1 205 -4.822
38 FC1 206 -4.333
38 FC1 207 -3.845
38 FC1 208 -2.380
38 FC1 209 -1.892
38 FC1 210 -1.892
38 FC1 211 -1.404
38 FC1 212 -0.916
38 FC1 213 -0.427
38 FC1 214 -0.427
38 FC1 215 -0.427
38 FC1 216 -0.916
38 FC1 217 -1.404
38 FC1 218 -1.892
38 FC1 219 -1.892
38 FC1 220 -1.892
38 FC1 221 -2.380
38 FC1 222 -2.380
38 FC1 223 -2.869
38 FC1 224 -2.869
38 FC1 225 -2.869
38 FC1 226 -2.869
38 FC1 227 -2.380
38 FC1 228 -1.404
38 FC1 229 -0.427
38 FC1 230 1.038
38 FC1 231 1.526
38 FC1 232 1.038
38 FC1 233 0.061
38 FC1 234 -0.427
38 FC1 235 -0.427
38 FC1 236 0.061
38 FC1 237 0.549
38 FC1 238 1.038
38 FC1 239 1.038
38 FC1 240 1.526
38 FC1 241 2.014
38 FC1 242 2.502
38 FC1 243 2.991
38 FC1 244 3.479
38 FC1 245 3.479
38 FC1 246 3.967
38 FC1 247 3.967
38 FC1 248 3.479
38 FC1 249 2.991
38 FC1 250 2.502
38 FC1 251 2.014
38 FC1 252 2.014
38 FC1 253 1.526
38 FC1 254 1.526
38 FC1 255 1.038
# T8 chan 13
38 T8 0 -1.272
38 T8 1 -2.736
38 T8 2 -4.201
38 T8 3 -5.178
38 T8 4 -4.690
38 T8 5 -3.225
38 T8 6 -2.248
38 T8 7 -0.783
38 T8 8 -0.295
38 T8 9 -0.783
38 T8 10 -1.760
38 T8 11 -3.225
38 T8 12 -5.178
38 T8 13 -5.666
38 T8 14 -5.666
38 T8 15 -5.666
38 T8 16 -6.643
38 T8 17 -8.108
38 T8 18 -10.061
38 T8 19 -11.525
38 T8 20 -11.037
38 T8 21 -10.061
38 T8 22 -8.596
38 T8 23 -8.596
38 T8 24 -9.572
38 T8 25 -11.037
38 T8 26 -11.037
38 T8 27 -10.061
38 T8 28 -8.108
38 T8 29 -7.131
38 T8 30 -6.643
38 T8 31 -6.643
38 T8 32 -5.666
38 T8 33 -3.713
38 T8 34 -1.760
38 T8 35 -0.295
38 T8 36 -0.783
38 T8 37 -1.272
38 T8 38 -1.272
38 T8 39 -0.295
38 T8 40 -0.295
38 T8 41 -1.272
38 T8 42 -4.201
38 T8 43 -8.108
38 T8 44 -11.037
38 T8 45 -12.502
38 T8 46 -12.014
38 T8 47 -11.037
38 T8 48 -10.549
38 T8 49 -10.061
38 T8 50 -9.084
38 T8 51 -7.619
38 T8 52 -5.178
38 T8 53 -3.225
38 T8 54 -1.760
38 T8 55 -0.783
38 T8 56 -0.783
38 T8 57 -0.783
38 T8 58 -1.760
38 T8 59 -3.225
38 T8 60 -4.690
38 T8 61 -6.154
38 T8 62 -7.131
38 T8 63 -7.131
38 T8 64 -7.131
38 T8 65 -6.154
38 T8 66 -5.178
38 T8 67 -5.178
38 T8 68 -4.690
38 T8 69 -4.690
38 T8 70 -4.201
38 T8 71 -3.225
38 T8 72 -3.225
38 T8 73 -3.225
38 T8 74 -4.201
38 T8 75 -4.201
38 T8 76 -3.713
38 T8 77 -2.248
38 T8 78 -0.295
38 T8 79 0.193
38 T8 80 0.193
38 T8 81 -0.295
38 T8 82 0.193
38 T8 83 1.658
38 T8 84 2.635
38 T8 85 2.146
38 T8 86 -0.783
38 T8 87 -4.690
38 T8 88 -7.619
38 T8 89 -8.596
38 T8 90 -7.131
38 T8 91 -5.178
38 T8 92 -3.225
38 T8 93 -2.736
38 T8 94 -1.760
38 T8 95 -0.783
38 T8 96 1.170
38 T8 97 3.123
38 T8 98 4.100
38 T8 99 3.123
38 T8 100 1.170
38 T8 101 0.193
38 T8 102 0.193
38 T8 103 0.682
38 T8 104 0.193
38 T8 105 -1.272
38 T8 106 -2.248
38 T8 107 -2.736
38 T8 108 -2.248
38 T8 109 -2.248
38 T8 110 -4.201
38 T8 111 -7.619
38 T8 112 -11.037
38 T8 113 -12.502
38 T8 114 -10.061
38 T8 115 -6.643
38 T8 116 -3.225
38 T8 117 -2.248
38 T8 118 -3.713
38 T8 119 -5.666
38 T8 120 -6.643
38 T8 121 -5.666
38 T8 122 -4.690
38 T8 123 -5.178
38 T8 124 -7.131
38 T8 125 -10.549
38 T8 126 -12.014
38 T8 127 -11.525
38 T8 128 -9.084
38 T8 129 -6.154
38 T8 130 -5.178
38 T8 131 -7.619
38 T8 132 -11.037
38 T8 133 -13.967
38 T8 134 -15.432
38 T8 135 -14.943
38 T8 136 -13.479
38 T8 137 -12.990
38 T8 138 -13.479
38 T8 139 -14.943
38 T8 140 -15.432
38 T8 141 -15.432
38 T8 142 -14.943
38 T8 143 -13.967
38 T8 144 -13.967
38 T8 145 -13.967
38 T8 146 -13.967
38 T8 147 -13.967
38 T8 148 -13.967
38 T8 149 -13.967
38 T8 150 -14.455
38 T8 151 -14.943
38 T8 152 -14.943
38 T8 153 -13.479
38 T8 154 -11.525
38 T8 155 -10.061
38 T8 156 -10.061
38 T8 157 -11.525
38 T8 158 -13.479
38 T8 159 -15.432
38 T8 160 -16.408
38 T8 161 -16.408
38 T8 162 -15.432
38 T8 163 -14.943
38 T8 164 -13.967
38 T8 165 -13.479
38 T8 166 -12.990
38 T8 167 -12.014
38 T8 168 -11.525
38 T8 169 -11.037
38 T8 170 -10.549
38 T8 171 -9.084
38 T8 172 -8.596
38 T8 173 -7.619
38 T8 174 -7.619
38 T8 175 -8.596
38 T8 176 -9.572
38 T8 177 -11.037
38 T8 178 -12.014
38 T8 179 -12.502
38 T8 180 -12.014
38 T8 181 -10.549
38 T8 182 -9.572
38 T8 183 -8.596
38 T8 184 -9.084
38 T8 185 -10.061
38 T8 186 -10.549
38 T8 187 -11.037
38 T8 188 -10.549
38 T8 189 -10.061
38 T8 190 -9.084
38 T8 191 -8.108
38 T8 192 -7.131
38 T8 193 -6.154
38 T8 194 -5.178
38 T8 195 -4.201
38 T8 196 -3.225
38 T8 197 -2.736
38 T8 198 -1.760
38 T8 199 -1.272
38 T8 200 -1.272
38 T8 201 -2.248
38 T8 202 -3.225
38 T8 203 -4.201
38 T8 204 -3.713
38 T8 205 -1.760
38 T8 206 0.193
38 T8 207 1.170
38 T8 208 0.193
38 T8 209 -2.736
38 T8 210 -5.666
38 T8 211 -7.131
38 T8 212 -7.619
38 T8 213 -7.131
38 T8 214 -7.131
38 T8 215 -9.084
38 T8 216 -11.037
38 T8 217 -12.990
38 T8 218 -13.967
38 T8 219 -13.479
38 T8 220 -12.990
38 T8 221 -12.502
38 T8 222 -12.014
38 T8 223 -11.037
38 T8 224 -10.549
38 T8 225 -9.084
38 T8 226 -9.084
38 T8 227 -9.572
38 T8 228 -9.572
38 T8 229 -10.061
38 T8 230 -9.572
38 T8 231 -8.596
38 T8 232 -8.108
38 T8 233 -8.108
38 T8 234 -9.084
38 T8 235 -10.061
38 T8 236 -10.549
38 T8 237 -10.061
38 T8 238 -8.596
38 T8 239 -6.643
38 T8 240 -4.690
38 T8 241 -4.201
38 T8 242 -4.690
38 T8 243 -5.178
38 T8 244 -6.154
38 T8 245 -6.643
38 T8 246 -7.131
38 T8 247 -7.131
38 T8 248 -7.619
38 T8 249 -8.108
38 T8 250 -8.596
38 T8 251 -8.596
38 T8 252 -8.108
38 T8 253 -7.131
38 T8 254 -6.154
38 T8 255 -5.666
# T7 chan 14
38 T7 0 7.019
38 T7 1 4.578
38 T7 2 2.625
38 T7 3 1.160
38 T7 4 1.648
38 T7 5 3.601
38 T7 6 5.066
38 T7 7 6.531
38 T7 8 5.554
38 T7 9 3.113
38 T7 10 -0.305
38 T7 11 -4.211
38 T7 12 -6.653
38 T7 13 -7.629
38 T7 14 -8.118
38 T7 15 -8.118
38 T7 16 -7.629
38 T7 17 -7.629
38 T7 18 -7.629
38 T7 19 -8.606
38 T7 20 -9.094
38 T7 21 -8.606
38 T7 22 -5.676
38 T7 23 -0.793
38 T7 24 5.066
38 T7 25 8.972
38 T7 26 8.484
38 T7 27 5.066
38 T7 28 -0.793
38 T7 29 -4.700
38 T7 30 -5.676
38 T7 31 -4.700
38 T7 32 -3.235
38 T7 33 -2.747
38 T7 34 -2.747
38 T7 35 -2.747
38 T7 36 -1.282
38 T7 37 0.671
38 T7 38 1.648
38 T7 39 1.160
38 T7 40 -1.282
38 T7 41 -3.723
38 T7 42 -4.211
38 T7 43 -3.235
38 T7 44 -1.282
38 T7 45 0.183
38 T7 46 0.671
38 T7 47 -0.305
38 T7 48 -0.793
38 T7 49 -1.282
38 T7 50 -1.770
38 T7 51 -2.747
38 T7 52 -4.211
38 T7 53 -5.188
38 T7 54 -4.700
38 T7 55 -1.770
38 T7 56 2.625
38 T7 57 5.554
38 T7 58 6.042
38 T7 59 4.089
38 T7 60 0.183
38 T7 61 -2.258
38 T7 62 -3.235
38 T7 63 -2.258
38 T7 64 -2.258
38 T7 65 -2.747
38 T7 66 -4.211
38 T7 67 -5.188
38 T7 68 -4.700
38 T7 69 -4.211
38 T7 70 -4.211
38 T7 71 -3.723
38 T7 72 -3.235
38 T7 73 -1.282
38 T7 74 1.648
38 T7 75 4.578
38 T7 76 5.066
38 T7 77 3.113
38 T7 78 -0.305
38 T7 79 -0.793
38 T7 80 1.648
38 T7 81 6.042
38 T7 82 9.460
38 T7 83 9.949
38 T7 84 8.972
38 T7 85 7.507
38 T7 86 8.484
38 T7 87 10.925
38 T7 88 12.390
38 T7 89 11.902
38 T7 90 9.949
38 T7 91 7.507
38 T7 92 7.019
38 T7 93 6.531
38 T7 94 6.042
38 T7 95 4.089
38 T7 96 1.648
38 T7 97 0.183
38 T7 98 1.160
38 T7 99 3.601
38 T7 100 5.066
38 T7 101 5.066
38 T7 102 3.113
38 T7 103 0.183
38 T7 104 -0.793
38 T7 105 -0.793
38 T7 106 -0.305
38 T7 107 0.183
38 T7 108 0.183
38 T7 109 1.160
38 T7 110 3.113
38 T7 111 6.042
38 T7 112 7.996
38 T7 113 8.972
38 T7 114 7.996
38 T7 115 6.531
38 T7 116 5.554
38 T7 117 4.578
38 T7 118 3.601
38 T7 119 1.160
38 T7 120 -2.258
38 T7 121 -6.165
38 T7 122 -9.583
38 T7 123 -10.559
38 T7 124 -9.583
38 T7 125 -7.141
38 T7 126 -4.700
38 T7 127 -3.723
38 T7 128 -4.211
38 T7 129 -5.676
38 T7 130 -7.629
38 T7 131 -9.094
38 T7 132 -10.559
38 T7 133 -13.000
38 T7 134 -15.930
38 T7 135 -18.372
38 T7 136 -18.860
38 T7 137 -16.907
38 T7 138 -13.489
38 T7 139 -10.071
38 T7 140 -9.583
38 T7 141 -10.071
38 T7 142 -11.047
38 T7 143 -10.071
38 T7 144 -7.141
38 T7 145 -4.211
38 T7 146 -4.700
38 T7 147 -7.629
38 T7 148 -12.024
38 T7 149 -14.465
38 T7 150 -13.489
38 T7 151 -10.071
38 T7 152 -7.629
38 T7 153 -6.653
38 T7 154 -8.606
38 T7 155 -10.559
38 T7 156 -11.047
38 T7 157 -9.583
38 T7 158 -7.141
38 T7 159 -4.700
38 T7 160 -2.747
38 T7 161 -2.747
38 T7 162 -2.747
38 T7 163 -3.235
38 T7 164 -3.723
38 T7 165 -4.211
38 T7 166 -5.188
38 T7 167 -5.188
38 T7 168 -4.700
38 T7 169 -3.723
38 T7 170 -2.258
38 T7 171 -1.770
38 T7 172 -1.770
38 T7 173 -1.770
38 T7 174 -0.305
38 T7 175 2.136
38 T7 176 4.578
38 T7 177 5.554
38 T7 178 4.578
38 T7 179 1.160
38 T7 180 -2.747
38 T7 181 -4.700
38 T7 182 -4.700
38 T7 183 -2.747
38 T7 184 -1.282
38 T7 185 -1.282
38 T7 186 -2.258
38 T7 187 -3.723
38 T7 188 -4.211
38 T7 189 -3.235
38 T7 190 -1.770
38 T7 191 -0.305
38 T7 192 0.183
38 T7 193 0.183
38 T7 194 2.136
38 T7 195 5.066
38 T7 196 7.996
38 T7 197 10.925
38 T7 198 11.414
38 T7 199 9.949
38 T7 200 7.996
38 T7 201 6.042
38 T7 202 5.554
38 T7 203 5.554
38 T7 204 6.042
38 T7 205 6.042
38 T7 206 4.578
38 T7 207 3.113
38 T7 208 2.136
38 T7 209 1.160
38 T7 210 1.160
38 T7 211 1.160
38 T7 212 0.671
38 T7 213 0.183
38 T7 214 0.183
38 T7 215 2.136
38 T7 216 5.554
38 T7 217 8.972
38 T7 218 10.925
38 T7 219 10.437
38 T7 220 7.507
38 T7 221 4.578
38 T7 222 3.113
38 T7 223 3.113
38 T7 224 3.113
38 T7 225 4.089
38 T7 226 5.066
38 T7 227 7.019
38 T7 228 9.460
38 T7 229 11.902
38 T7 230 12.878
38 T7 231 11.902
38 T7 232 9.949
38 T7 233 7.507
38 T7 234 6.042
38 T7 235 5.066
38 T7 236 4.089
38 T7 237 3.113
38 T7 238 2.136
38 T7 239 1.160
38 T7 240 1.648
38 T7 241 2.625
38 T7 242 4.578
38 T7 243 7.019
38 T7 244 9.949
38 T7 245 11.902
38 T7 246 13.855
38 T7 247 13.367
38 T7 248 11.414
38 T7 249 8.484
38 T7 250 6.042
38 T7 251 5.066
38 T7 252 5.066
38 T7 253 5.066
38 T7 254 4.089
38 T7 255 2.136
# CZ chan 15
38 CZ 0 1.770
38 CZ 1 -4.578
38 CZ 2 -6.531
38 CZ 3 -4.578
38 CZ 4 -2.136
38 CZ 5 -4.089
38 CZ 6 -10.437
38 CZ 7 -16.785
38 CZ 8 -20.691
38 CZ 9 -19.714
38 CZ 10 -16.785
38 CZ 11 -14.832
38 CZ 12 -15.808
38 CZ 13 -17.273
38 CZ 14 -15.320
38 CZ 15 -9.460
38 CZ 16 -3.113
38 CZ 17 -1.648
38 CZ 18 -7.507
38 CZ 19 -19.714
38 CZ 20 -30.457
38 CZ 21 -34.851
38 CZ 22 -31.921
38 CZ 23 -27.527
38 CZ 24 -28.015
38 CZ 25 -36.804
38 CZ 26 -50.476
38 CZ 27 -61.218
38 CZ 28 -63.171
38 CZ 29 -56.335
38 CZ 30 -47.058
38 CZ 31 -41.199
38 CZ 32 -42.664
38 CZ 33 -48.035
38 CZ 34 -53.406
38 CZ 35 -53.894
38 CZ 36 -49.988
38 CZ 37 -43.152
38 CZ 38 -37.781
38 CZ 39 -35.339
38 CZ 40 -36.316
38 CZ 41 -39.734
38 CZ 42 -43.152
38 CZ 43 -45.105
38 CZ 44 -45.593
38 CZ 45 -44.617
38 CZ 46 -43.152
38 CZ 47 -42.664
38 CZ 48 -43.640
38 CZ 49 -44.617
38 CZ 50 -46.082
38 CZ 51 -47.058
38 CZ 52 -48.035
38 CZ 53 -49.500
38 CZ 54 -49.500
38 CZ 55 -47.546
38 CZ 56 -44.617
38 CZ 57 -42.175
38 CZ 58 -43.152
38 CZ 59 -48.523
38 CZ 60 -56.824
38 CZ 61 -63.660
38 CZ 62 -65.613
38 CZ 63 -61.707
38 CZ 64 -54.382
38 CZ 65 -47.546
38 CZ 66 -45.105
38 CZ 67 -48.035
38 CZ 68 -53.894
38 CZ 69 -57.800
38 CZ 70 -56.824
38 CZ 71 -50.476
38 CZ 72 -42.175
38 CZ 73 -37.292
38 CZ 74 -37.292
38 CZ 75 -42.175
38 CZ 76 -47.058
38 CZ 77 -48.523
38 CZ 78 -46.570
38 CZ 79 -42.175
38 CZ 80 -39.246
38 CZ 81 -39.246
38 CZ 82 -41.687
38 CZ 83 -44.128
38 CZ 84 -45.593
38 CZ 85 -47.058
38 CZ 86 -48.523
38 CZ 87 -51.453
38 CZ 88 -54.382
38 CZ 89 -55.359
38 CZ 90 -54.382
38 CZ 91 -53.406
38 CZ 92 -55.359
38 CZ 93 -60.730
38 CZ 94 -66.589
38 CZ 95 -68.054
38 CZ 96 -63.660
38 CZ 97 -53.406
38 CZ 98 -44.128
38 CZ 99 -40.222
38 CZ 100 -44.128
38 CZ 101 -53.894
38 CZ 102 -62.683
38 CZ 103 -66.589
38 CZ 104 -64.148
38 CZ 105 -59.265
38 CZ 106 -56.335
38 CZ 107 -57.312
38 CZ 108 -61.218
38 CZ 109 -64.636
38 CZ 110 -67.078
38 CZ 111 -68.542
38 CZ 112 -70.984
38 CZ 113 -74.402
38 CZ 114 -75.867
38 CZ 115 -73.425
38 CZ 116 -67.566
38 CZ 117 -63.171
38 CZ 118 -64.148
38 CZ 119 -71.960
38 CZ 120 -82.703
38 CZ 121 -91.003
38 CZ 122 -91.980
38 CZ 123 -88.074
38 CZ 124 -83.191
38 CZ 125 -80.750
38 CZ 126 -81.238
38 CZ 127 -81.238
38 CZ 128 -80.261
38 CZ 129 -79.773
38 CZ 130 -81.726
38 CZ 131 -86.121
38 CZ 132 -90.515
38 CZ 133 -91.980
38 CZ 134 -89.050
38 CZ 135 -85.144
38 CZ 136 -83.191
38 CZ 137 -84.167
38 CZ 138 -85.632
38 CZ 139 -85.632
38 CZ 140 -83.191
38 CZ 141 -80.261
38 CZ 142 -80.750
38 CZ 143 -85.144
38 CZ 144 -91.492
38 CZ 145 -97.351
38 CZ 146 -99.792
38 CZ 147 -99.792
38 CZ 148 -98.328
38 CZ 149 -96.375
38 CZ 150 -94.421
38 CZ 151 -92.957
38 CZ 152 -92.468
38 CZ 153 -91.980
38 CZ 154 -92.468
38 CZ 155 -93.445
38 CZ 156 -94.421
38 CZ 157 -94.910
38 CZ 158 -95.886
38 CZ 159 -96.375
38 CZ 160 -95.886
38 CZ 161 -93.933
38 CZ 162 -91.492
38 CZ 163 -89.050
38 CZ 164 -88.562
38 CZ 165 -89.539
38 CZ 166 -91.492
38 CZ 167 -92.957
38 CZ 168 -92.957
38 CZ 169 -91.003
38 CZ 170 -89.050
38 CZ 171 -88.074
38 CZ 172 -89.050
38 CZ 173 -91.003
38 CZ 174 -92.957
38 CZ 175 -94.421
38 CZ 176 -95.886
38 CZ 177 -96.863
38 CZ 178 -98.816
38 CZ 179 -99.792
38 CZ 180 -99.792
38 CZ 181 -97.839
38 CZ 182 -95.398
38 CZ 183 -94.421
38 CZ 184 -95.398
38 CZ 185 -96.375
38 CZ 186 -94.910
38 CZ 187 -91.492
38 CZ 188 -87.585
38 CZ 189 -86.609
38 CZ 190 -88.074
38 CZ 191 -90.027
38 CZ 192 -88.562
38 CZ 193 -83.191
38 CZ 194 -75.378
38 CZ 195 -68.542
38 CZ 196 -65.125
38 CZ 197 -64.148
38 CZ 198 -64.148
38 CZ 199 -64.148
38 CZ 200 -65.125
38 CZ 201 -68.054
38 CZ 202 -71.960
38 CZ 203 -73.914
38 CZ 204 -72.937
38 CZ 205 -70.496
38 CZ 206 -69.519
38 CZ 207 -72.937
38 CZ 208 -78.308
38 CZ 209 -81.726
38 CZ 210 -80.261
38 CZ 211 -73.425
38 CZ 212 -66.101
38 CZ 213 -61.707
38 CZ 214 -61.707
38 CZ 215 -64.148
38 CZ 216 -67.078
38 CZ 217 -69.031
38 CZ 218 -70.984
38 CZ 219 -72.449
38 CZ 220 -72.449
38 CZ 221 -69.519
38 CZ 222 -64.636
38 CZ 223 -61.218
38 CZ 224 -61.707
38 CZ 225 -66.101
38 CZ 226 -70.984
38 CZ 227 -71.960
38 CZ 228 -67.566
38 CZ 229 -61.707
38 CZ 230 -57.800
38 CZ 231 -59.753
38 CZ 232 -65.613
38 CZ 233 -70.007
38 CZ 234 -70.984
38 CZ 235 -68.054
38 CZ 236 -64.636
38 CZ 237 -65.125
38 CZ 238 -68.054
38 CZ 239 -71.960
38 CZ 240 -72.937
38 CZ 241 -70.007
38 CZ 242 -64.636
38 CZ 243 -59.753
38 CZ 244 -57.800
38 CZ 245 -58.289
38 CZ 246 -61.218
38 CZ 247 -64.148
38 CZ 248 -65.613
38 CZ 249 -66.589
38 CZ 250 -67.078
38 CZ 251 -68.054
38 CZ 252 -70.496
38 CZ 253 -72.937
38 CZ 254 -74.402
38 CZ 255 -74.402
# C3 chan 16
38 C3 0 1.841
38 C3 1 3.306
38 C3 2 3.794
38 C3 3 3.794
38 C3 4 2.818
38 C3 5 2.818
38 C3 6 2.818
38 C3 7 3.794
38 C3 8 4.771
38 C3 9 4.283
38 C3 10 3.306
38 C3 11 1.353
38 C3 12 -0.112
38 C3 13 -1.088
38 C3 14 -1.577
38 C3 15 -1.577
38 C3 16 -1.088
38 C3 17 -1.088
38 C3 18 -1.088
38 C3 19 -1.088
38 C3 20 -1.088
38 C3 21 -1.088
38 C3 22 0.376
38 C3 23 1.841
38 C3 24 3.794
38 C3 25 5.259
38 C3 26 5.259
38 C3 27 3.794
38 C3 28 1.353
38 C3 29 -0.600
38 C3 30 -1.088
38 C3 31 -0.600
38 C3 32 -0.112
38 C3 33 -0.600
38 C3 34 -3.042
38 C3 35 -5.971
38 C3 36 -8.413
38 C3 37 -9.389
38 C3 38 -8.901
38 C3 39 -7.436
38 C3 40 -5.971
38 C3 41 -4.995
38 C3 42 -5.483
38 C3 43 -6.460
38 C3 44 -7.436
38 C3 45 -7.436
38 C3 46 -6.948
38 C3 47 -5.971
38 C3 48 -5.483
38 C3 49 -4.995
38 C3 50 -5.971
38 C3 51 -7.436
38 C3 52 -9.389
38 C3 53 -10.366
38 C3 54 -10.854
38 C3 55 -9.878
38 C3 56 -7.924
38 C3 57 -5.483
38 C3 58 -3.530
38 C3 59 -2.553
38 C3 60 -3.042
38 C3 61 -4.506
38 C3 62 -5.971
38 C3 63 -6.460
38 C3 64 -6.460
38 C3 65 -5.483
38 C3 66 -4.506
38 C3 67 -4.506
38 C3 68 -5.483
38 C3 69 -6.948
38 C3 70 -8.413
38 C3 71 -9.389
38 C3 72 -9.389
38 C3 73 -8.901
38 C3 74 -8.413
38 C3 75 -8.901
38 C3 76 -10.366
38 C3 77 -12.807
38 C3 78 -15.249
38 C3 79 -15.249
38 C3 80 -13.784
38 C3 81 -10.854
38 C3 82 -8.413
38 C3 83 -6.948
38 C3 84 -6.460
38 C3 85 -6.460
38 C3 86 -5.971
38 C3 87 -5.971
38 C3 88 -6.460
38 C3 89 -6.948
38 C3 90 -7.924
38 C3 91 -7.924
38 C3 92 -7.436
38 C3 93 -6.948
38 C3 94 -6.948
38 C3 95 -7.924
38 C3 96 -9.389
38 C3 97 -9.878
38 C3 98 -10.366
38 C3 99 -10.366
38 C3 100 -9.389
38 C3 101 -9.389
38 C3 102 -8.901
38 C3 103 -7.924
38 C3 104 -6.948
38 C3 105 -6.460
38 C3 106 -6.948
38 C3 107 -8.901
38 C3 108 -10.366
38 C3 109 -11.831
38 C3 110 -11.831
38 C3 111 -11.342
38 C3 112 -10.854
38 C3 113 -11.342
38 C3 114 -12.319
38 C3 115 -12.807
38 C3 116 -13.295
38 C3 117 -12.807
38 C3 118 -12.807
38 C3 119 -13.784
38 C3 120 -15.249
38 C3 121 -17.202
38 C3 122 -17.690
38 C3 123 -16.713
38 C3 124 -15.737
38 C3 125 -14.760
38 C3 126 -14.760
38 C3 127 -14.760
38 C3 128 -14.760
38 C3 129 -14.272
38 C3 130 -13.295
38 C3 131 -12.807
38 C3 132 -12.807
38 C3 133 -14.760
38 C3 134 -17.202
38 C3 135 -20.131
38 C3 136 -22.085
38 C3 137 -24.038
38 C3 138 -24.526
38 C3 139 -24.526
38 C3 140 -24.038
38 C3 141 -23.549
38 C3 142 -23.549
38 C3 143 -24.038
38 C3 144 -24.526
38 C3 145 -24.526
38 C3 146 -24.038
38 C3 147 -23.549
38 C3 148 -23.061
38 C3 149 -23.061
38 C3 150 -23.061
38 C3 151 -24.038
38 C3 152 -24.526
38 C3 153 -25.014
38 C3 154 -25.503
38 C3 155 -25.014
38 C3 156 -24.038
38 C3 157 -22.573
38 C3 158 -21.108
38 C3 159 -20.131
38 C3 160 -20.131
38 C3 161 -21.108
38 C3 162 -22.085
38 C3 163 -23.061
38 C3 164 -23.549
38 C3 165 -24.526
38 C3 166 -25.014
38 C3 167 -25.991
38 C3 168 -25.503
38 C3 169 -24.038
38 C3 170 -23.061
38 C3 171 -22.085
38 C3 172 -22.085
38 C3 173 -22.085
38 C3 174 -22.085
38 C3 175 -21.108
38 C3 176 -19.643
38 C3 177 -18.667
38 C3 178 -18.178
38 C3 179 -19.155
38 C3 180 -21.596
38 C3 181 -24.038
38 C3 182 -25.503
38 C3 183 -25.014
38 C3 184 -23.549
38 C3 185 -21.596
38 C3 186 -20.620
38 C3 187 -20.620
38 C3 188 -21.596
38 C3 189 -22.573
38 C3 190 -22.085
38 C3 191 -21.108
38 C3 192 -19.643
38 C3 193 -18.178
38 C3 194 -17.690
38 C3 195 -18.178
38 C3 196 -19.643
38 C3 197 -20.620
38 C3 198 -21.108
38 C3 199 -20.620
38 C3 200 -19.155
38 C3 201 -17.202
38 C3 202 -17.202
38 C3 203 -18.178
38 C3 204 -20.620
38 C3 205 -22.573
38 C3 206 -23.061
38 C3 207 -21.596
38 C3 208 -20.131
38 C3 209 -19.155
38 C3 210 -20.131
38 C3 211 -21.108
38 C3 212 -21.596
38 C3 213 -21.108
38 C3 214 -20.620
38 C3 215 -20.131
38 C3 216 -21.108
38 C3 217 -22.085
38 C3 218 -22.573
38 C3 219 -21.596
38 C3 220 -21.108
38 C3 221 -21.108
38 C3 222 -22.085
38 C3 223 -23.549
38 C3 224 -24.038
38 C3 225 -23.549
38 C3 226 -22.085
38 C3 227 -21.108
38 C3 228 -20.620
38 C3 229 -20.620
38 C3 230 -20.131
38 C3 231 -20.131
38 C3 232 -20.131
38 C3 233 -20.620
38 C3 234 -22.085
38 C3 235 -23.549
38 C3 236 -24.526
38 C3 237 -24.526
38 C3 238 -24.038
38 C3 239 -23.549
38 C3 240 -23.549
38 C3 241 -23.061
38 C3 242 -23.549
38 C3 243 -23.549
38 C3 244 -23.061
38 C3 245 -22.085
38 C3 246 -20.620
38 C3 247 -19.643
38 C3 248 -19.643
38 C3 249 -21.108
38 C3 250 -22.573
38 C3 251 -23.549
38 C3 252 -23.549
38 C3 253 -23.549
38 C3 254 -23.549
38 C3 255 -25.014
# C4 chan 17
38 C4 0 3.876
38 C4 1 3.387
38 C4 2 1.923
38 C4 3 0.458
38 C4 4 -0.031
38 C4 5 -0.519
38 C4 6 -0.519
38 C4 7 -1.007
38 C4 8 -1.007
38 C4 9 -1.007
38 C4 10 -0.031
38 C4 11 0.946
38 C4 12 2.411
38 C4 13 3.387
38 C4 14 3.387
38 C4 15 2.899
38 C4 16 2.411
38 C4 17 1.923
38 C4 18 1.923
38 C4 19 2.411
38 C4 20 2.899
38 C4 21 2.899
38 C4 22 2.899
38 C4 23 2.411
38 C4 24 1.923
38 C4 25 2.899
38 C4 26 4.852
38 C4 27 6.805
38 C4 28 7.782
38 C4 29 6.805
38 C4 30 4.852
38 C4 31 2.899
38 C4 32 2.899
38 C4 33 4.852
38 C4 34 6.805
38 C4 35 7.782
38 C4 36 7.294
38 C4 37 5.829
38 C4 38 4.852
38 C4 39 4.364
38 C4 40 4.852
38 C4 41 5.341
38 C4 42 4.852
38 C4 43 4.364
38 C4 44 3.387
38 C4 45 3.387
38 C4 46 3.876
38 C4 47 4.364
38 C4 48 4.364
38 C4 49 4.852
38 C4 50 5.341
38 C4 51 6.317
38 C4 52 7.294
38 C4 53 7.294
38 C4 54 6.317
38 C4 55 4.852
38 C4 56 2.899
38 C4 57 2.899
38 C4 58 4.364
38 C4 59 6.317
38 C4 60 7.782
38 C4 61 7.782
38 C4 62 6.805
38 C4 63 5.341
38 C4 64 5.829
38 C4 65 6.805
38 C4 66 8.759
38 C4 67 10.223
38 C4 68 10.223
38 C4 69 9.735
38 C4 70 8.759
38 C4 71 7.782
38 C4 72 6.805
38 C4 73 6.805
38 C4 74 6.317
38 C4 75 6.805
38 C4 76 7.294
38 C4 77 7.782
38 C4 78 8.270
38 C4 79 7.782
38 C4 80 6.805
38 C4 81 5.829
38 C4 82 4.852
38 C4 83 4.852
38 C4 84 5.341
38 C4 85 4.852
38 C4 86 3.876
38 C4 87 2.899
38 C4 88 2.411
38 C4 89 2.411
38 C4 90 3.387
38 C4 91 3.876
38 C4 92 4.364
38 C4 93 4.852
38 C4 94 6.317
38 C4 95 8.759
38 C4 96 10.223
38 C4 97 11.200
38 C4 98 10.712
38 C4 99 8.759
38 C4 100 7.782
38 C4 101 7.294
38 C4 102 7.782
38 C4 103 7.782
38 C4 104 7.294
38 C4 105 5.829
38 C4 106 4.852
38 C4 107 4.852
38 C4 108 5.829
38 C4 109 7.294
38 C4 110 7.294
38 C4 111 6.317
38 C4 112 5.341
38 C4 113 4.852
38 C4 114 5.829
38 C4 115 7.294
38 C4 116 7.782
38 C4 117 7.294
38 C4 118 6.317
38 C4 119 5.341
38 C4 120 5.341
38 C4 121 5.341
38 C4 122 5.829
38 C4 123 5.829
38 C4 124 5.341
38 C4 125 4.364
38 C4 126 4.364
38 C4 127 5.341
38 C4 128 6.805
38 C4 129 8.270
38 C4 130 8.759
38 C4 131 7.782
38 C4 132 5.829
38 C4 133 3.876
38 C4 134 3.387
38 C4 135 3.876
38 C4 136 4.852
38 C4 137 5.829
38 C4 138 5.829
38 C4 139 4.852
38 C4 140 3.876
38 C4 141 3.387
38 C4 142 3.387
38 C4 143 3.387
38 C4 144 3.876
38 C4 145 3.876
38 C4 146 4.364
38 C4 147 3.876
38 C4 148 3.387
38 C4 149 1.434
38 C4 150 -0.031
38 C4 151 -0.519
38 C4 152 0.458
38 C4 153 2.411
38 C4 154 4.364
38 C4 155 5.341
38 C4 156 4.852
38 C4 157 3.876
38 C4 158 2.899
38 C4 159 1.923
38 C4 160 1.434
38 C4 161 1.434
38 C4 162 1.923
38 C4 163 2.411
38 C4 164 3.876
38 C4 165 4.852
38 C4 166 5.829
38 C4 167 6.317
38 C4 168 6.317
38 C4 169 6.317
38 C4 170 6.317
38 C4 171 6.317
38 C4 172 6.805
38 C4 173 6.317
38 C4 174 6.317
38 C4 175 5.829
38 C4 176 5.829
38 C4 177 5.829
38 C4 178 6.317
38 C4 179 6.317
38 C4 180 6.317
38 C4 181 6.805
38 C4 182 6.805
38 C4 183 7.294
38 C4 184 7.294
38 C4 185 6.805
38 C4 186 5.829
38 C4 187 5.341
38 C4 188 4.852
38 C4 189 5.829
38 C4 190 6.805
38 C4 191 7.782
38 C4 192 8.270
38 C4 193 7.294
38 C4 194 6.805
38 C4 195 5.829
38 C4 196 5.341
38 C4 197 5.829
38 C4 198 6.805
38 C4 199 7.782
38 C4 200 8.270
38 C4 201 8.270
38 C4 202 7.782
38 C4 203 7.294
38 C4 204 7.294
38 C4 205 8.759
38 C4 206 10.223
38 C4 207 11.200
38 C4 208 11.200
38 C4 209 9.735
38 C4 210 7.294
38 C4 211 5.829
38 C4 212 5.829
38 C4 213 6.805
38 C4 214 6.805
38 C4 215 6.317
38 C4 216 4.852
38 C4 217 3.387
38 C4 218 2.899
38 C4 219 3.876
38 C4 220 4.852
38 C4 221 5.829
38 C4 222 5.341
38 C4 223 4.364
38 C4 224 3.387
38 C4 225 2.899
38 C4 226 3.387
38 C4 227 3.387
38 C4 228 3.387
38 C4 229 3.387
38 C4 230 3.876
38 C4 231 4.852
38 C4 232 5.829
38 C4 233 6.805
38 C4 234 6.317
38 C4 235 5.829
38 C4 236 5.829
38 C4 237 6.317
38 C4 238 7.782
38 C4 239 8.759
38 C4 240 9.735
38 C4 241 9.735
38 C4 242 9.247
38 C4 243 8.270
38 C4 244 7.782
38 C4 245 7.782
38 C4 246 8.270
38 C4 247 9.247
38 C4 248 10.223
38 C4 249 10.712
38 C4 250 10.223
38 C4 251 9.247
38 C4 252 8.270
38 C4 253 7.782
38 C4 254 8.270
38 C4 255 9.247
# CP5 chan 18
38 CP5 0 1.851
38 CP5 1 1.851
38 CP5 2 1.851
38 CP5 3 1.363
38 CP5 4 1.851
38 CP5 5 1.851
38 CP5 6 2.340
38 CP5 7 2.340
38 CP5 8 1.851
38 CP5 9 -0.102
38 CP5 10 -2.543
38 CP5 11 -4.496
38 CP5 12 -4.985
38 CP5 13 -4.985
38 CP5 14 -4.985
38 CP5 15 -5.473
38 CP5 16 -5.961
38 CP5 17 -6.449
38 CP5 18 -6.449
38 CP5 19 -4.985
38 CP5 20 -2.543
38 CP5 21 -0.590
38 CP5 22 0.875
38 CP5 23 1.851
38 CP5 24 3.316
38 CP5 25 4.293
38 CP5 26 4.781
38 CP5 27 4.293
38 CP5 28 2.828
38 CP5 29 0.387
38 CP5 30 -1.078
38 CP5 31 -2.055
38 CP5 32 -2.055
38 CP5 33 -1.567
38 CP5 34 -2.543
38 CP5 35 -4.496
38 CP5 36 -6.449
38 CP5 37 -8.891
38 CP5 38 -9.379
38 CP5 39 -9.379
38 CP5 40 -8.403
38 CP5 41 -7.426
38 CP5 42 -7.426
38 CP5 43 -6.938
38 CP5 44 -7.426
38 CP5 45 -7.426
38 CP5 46 -6.938
38 CP5 47 -6.449
38 CP5 48 -5.473
38 CP5 49 -4.496
38 CP5 50 -4.496
38 CP5 51 -4.985
38 CP5 52 -6.449
38 CP5 53 -6.938
38 CP5 54 -6.938
38 CP5 55 -5.473
38 CP5 56 -2.543
38 CP5 57 0.387
38 CP5 58 1.363
38 CP5 59 -0.102
38 CP5 60 -3.031
38 CP5 61 -5.961
38 CP5 62 -7.426
38 CP5 63 -6.938
38 CP5 64 -6.449
38 CP5 65 -5.473
38 CP5 66 -5.473
38 CP5 67 -5.473
38 CP5 68 -5.473
38 CP5 69 -5.473
38 CP5 70 -5.473
38 CP5 71 -5.961
38 CP5 72 -6.449
38 CP5 73 -5.961
38 CP5 74 -4.008
38 CP5 75 -3.031
38 CP5 76 -3.031
38 CP5 77 -4.008
38 CP5 78 -4.985
38 CP5 79 -4.985
38 CP5 80 -3.031
38 CP5 81 -0.590
38 CP5 82 1.363
38 CP5 83 1.363
38 CP5 84 0.875
38 CP5 85 0.875
38 CP5 86 2.340
38 CP5 87 3.805
38 CP5 88 4.293
38 CP5 89 4.293
38 CP5 90 3.316
38 CP5 91 2.828
38 CP5 92 3.316
38 CP5 93 3.316
38 CP5 94 1.851
38 CP5 95 -1.567
38 CP5 96 -5.961
38 CP5 97 -9.379
38 CP5 98 -10.356
38 CP5 99 -8.403
38 CP5 100 -5.961
38 CP5 101 -4.008
38 CP5 102 -3.031
38 CP5 103 -3.031
38 CP5 104 -3.520
38 CP5 105 -4.008
38 CP5 106 -4.985
38 CP5 107 -4.985
38 CP5 108 -5.473
38 CP5 109 -4.496
38 CP5 110 -2.543
38 CP5 111 -0.590
38 CP5 112 0.875
38 CP5 113 -0.102
38 CP5 114 -1.567
38 CP5 115 -3.520
38 CP5 116 -4.008
38 CP5 117 -4.008
38 CP5 118 -4.496
38 CP5 119 -5.473
38 CP5 120 -7.426
38 CP5 121 -9.867
38 CP5 122 -11.332
38 CP5 123 -11.332
38 CP5 124 -10.356
38 CP5 125 -8.403
38 CP5 126 -6.449
38 CP5 127 -5.961
38 CP5 128 -6.938
38 CP5 129 -7.426
38 CP5 130 -8.403
38 CP5 131 -8.403
38 CP5 132 -8.403
38 CP5 133 -8.891
38 CP5 134 -10.844
38 CP5 135 -12.797
38 CP5 136 -15.238
38 CP5 137 -16.703
38 CP5 138 -16.703
38 CP5 139 -15.727
38 CP5 140 -14.750
38 CP5 141 -13.774
38 CP5 142 -13.285
38 CP5 143 -12.309
38 CP5 144 -11.332
38 CP5 145 -10.356
38 CP5 146 -9.867
38 CP5 147 -10.356
38 CP5 148 -11.332
38 CP5 149 -11.332
38 CP5 150 -10.844
38 CP5 151 -8.891
38 CP5 152 -8.403
38 CP5 153 -8.403
38 CP5 154 -9.379
38 CP5 155 -10.356
38 CP5 156 -10.356
38 CP5 157 -9.379
38 CP5 158 -8.891
38 CP5 159 -8.403
38 CP5 160 -7.914
38 CP5 161 -7.426
38 CP5 162 -6.938
38 CP5 163 -5.961
38 CP5 164 -5.961
38 CP5 165 -6.449
38 CP5 166 -7.426
38 CP5 167 -8.403
38 CP5 168 -9.379
38 CP5 169 -8.891
38 CP5 170 -8.403
38 CP5 171 -5.961
38 CP5 172 -4.008
38 CP5 173 -2.055
38 CP5 174 -1.078
38 CP5 175 -1.567
38 CP5 176 -2.543
38 CP5 177 -3.520
38 CP5 178 -4.496
38 CP5 179 -4.008
38 CP5 180 -3.520
38 CP5 181 -3.520
38 CP5 182 -4.496
38 CP5 183 -5.473
38 CP5 184 -5.473
38 CP5 185 -5.473
38 CP5 186 -4.008
38 CP5 187 -3.031
38 CP5 188 -2.543
38 CP5 189 -1.567
38 CP5 190 -0.590
38 CP5 191 1.851
38 CP5 192 3.805
38 CP5 193 4.781
38 CP5 194 4.293
38 CP5 195 3.316
38 CP5 196 2.340
38 CP5 197 2.340
38 CP5 198 2.828
38 CP5 199 3.316
38 CP5 200 3.316
38 CP5 201 2.828
38 CP5 202 2.340
38 CP5 203 2.340
38 CP5 204 2.828
38 CP5 205 2.828
38 CP5 206 2.340
38 CP5 207 1.363
38 CP5 208 0.387
38 CP5 209 0.387
38 CP5 210 0.875
38 CP5 211 1.363
38 CP5 212 2.340
38 CP5 213 2.340
38 CP5 214 2.340
38 CP5 215 1.363
38 CP5 216 1.363
38 CP5 217 1.363
38 CP5 218 2.828
38 CP5 219 3.805
38 CP5 220 4.781
38 CP5 221 3.805
38 CP5 222 1.851
38 CP5 223 -0.590
38 CP5 224 -1.567
38 CP5 225 -1.078
38 CP5 226 0.875
38 CP5 227 2.340
38 CP5 228 2.828
38 CP5 229 1.363
38 CP5 230 -0.102
38 CP5 231 -2.055
38 CP5 232 -3.031
38 CP5 233 -3.520
38 CP5 234 -4.008
38 CP5 235 -4.496
38 CP5 236 -4.496
38 CP5 237 -4.008
38 CP5 238 -3.520
38 CP5 239 -3.031
38 CP5 240 -3.520
38 CP5 241 -4.985
38 CP5 242 -5.961
38 CP5 243 -5.961
38 CP5 244 -3.520
38 CP5 245 0.387
38 CP5 246 3.805
38 CP5 247 4.781
38 CP5 248 3.805
38 CP5 249 0.875
38 CP5 250 -1.567
38 CP5 251 -2.543
38 CP5 252 -2.543
38 CP5 253 -2.055
38 CP5 254 -2.055
38 CP5 255 -3.520
# CP6 chan 19
38 CP6 0 -1.322
38 CP6 1 -1.811
38 CP6 2 -3.276
38 CP6 3 -5.717
38 CP6 4 -6.694
38 CP6 5 -7.182
38 CP6 6 -6.694
38 CP6 7 -6.205
38 CP6 8 -6.694
38 CP6 9 -7.670
38 CP6 10 -8.158
38 CP6 11 -7.670
38 CP6 12 -6.694
38 CP6 13 -5.717
38 CP6 14 -5.229
38 CP6 15 -6.205
38 CP6 16 -8.158
38 CP6 17 -10.111
38 CP6 18 -11.088
38 CP6 19 -11.088
38 CP6 20 -9.623
38 CP6 21 -8.647
38 CP6 22 -8.647
38 CP6 23 -9.623
38 CP6 24 -9.623
38 CP6 25 -8.647
38 CP6 26 -6.205
38 CP6 27 -3.764
38 CP6 28 -2.787
38 CP6 29 -3.276
38 CP6 30 -4.740
38 CP6 31 -5.717
38 CP6 32 -5.229
38 CP6 33 -3.764
38 CP6 34 -3.276
38 CP6 35 -3.764
38 CP6 36 -6.205
38 CP6 37 -7.182
38 CP6 38 -7.670
38 CP6 39 -6.694
38 CP6 40 -5.229
38 CP6 41 -5.717
38 CP6 42 -8.158
38 CP6 43 -10.600
38 CP6 44 -12.553
38 CP6 45 -13.041
38 CP6 46 -12.065
38 CP6 47 -10.600
38 CP6 48 -9.135
38 CP6 49 -8.647
38 CP6 50 -7.182
38 CP6 51 -5.717
38 CP6 52 -3.764
38 CP6 53 -2.299
38 CP6 54 -2.299
38 CP6 55 -3.276
38 CP6 56 -4.252
38 CP6 57 -5.717
38 CP6 58 -6.205
38 CP6 59 -6.205
38 CP6 60 -5.717
38 CP6 61 -5.717
38 CP6 62 -7.182
38 CP6 63 -7.670
38 CP6 64 -7.670
38 CP6 65 -6.205
38 CP6 66 -3.276
38 CP6 67 -0.834
38 CP6 68 1.119
38 CP6 69 1.607
38 CP6 70 0.631
38 CP6 71 -0.346
38 CP6 72 -1.811
38 CP6 73 -2.299
38 CP6 74 -1.322
38 CP6 75 0.142
38 CP6 76 2.096
38 CP6 77 2.584
38 CP6 78 1.607
38 CP6 79 -0.346
38 CP6 80 -2.299
38 CP6 81 -2.787
38 CP6 82 -2.299
38 CP6 83 -0.346
38 CP6 84 0.142
38 CP6 85 -0.834
38 CP6 86 -2.787
38 CP6 87 -4.740
38 CP6 88 -5.717
38 CP6 89 -4.740
38 CP6 90 -3.276
38 CP6 91 -2.299
38 CP6 92 -1.811
38 CP6 93 -0.834
38 CP6 94 0.142
38 CP6 95 0.631
38 CP6 96 1.607
38 CP6 97 0.631
38 CP6 98 -0.346
38 CP6 99 -1.322
38 CP6 100 -1.322
38 CP6 101 -0.346
38 CP6 102 0.631
38 CP6 103 0.631
38 CP6 104 -0.346
38 CP6 105 -1.811
38 CP6 106 -2.299
38 CP6 107 -1.811
38 CP6 108 -0.346
38 CP6 109 0.142
38 CP6 110 -0.834
38 CP6 111 -2.299
38 CP6 112 -3.764
38 CP6 113 -4.252
38 CP6 114 -3.276
38 CP6 115 -2.299
38 CP6 116 -1.811
38 CP6 117 -1.811
38 CP6 118 -1.811
38 CP6 119 -1.811
38 CP6 120 -1.322
38 CP6 121 -1.322
38 CP6 122 -1.811
38 CP6 123 -3.276
38 CP6 124 -5.229
38 CP6 125 -7.182
38 CP6 126 -8.647
38 CP6 127 -8.647
38 CP6 128 -7.670
38 CP6 129 -5.717
38 CP6 130 -4.740
38 CP6 131 -5.229
38 CP6 132 -6.694
38 CP6 133 -8.647
38 CP6 134 -10.111
38 CP6 135 -10.111
38 CP6 136 -9.135
38 CP6 137 -8.158
38 CP6 138 -7.670
38 CP6 139 -8.647
38 CP6 140 -10.111
38 CP6 141 -10.111
38 CP6 142 -9.623
38 CP6 143 -8.158
38 CP6 144 -7.182
38 CP6 145 -6.694
38 CP6 146 -6.694
38 CP6 147 -7.182
38 CP6 148 -7.670
38 CP6 149 -8.647
38 CP6 150 -9.135
38 CP6 151 -9.135
38 CP6 152 -8.647
38 CP6 153 -6.694
38 CP6 154 -4.252
38 CP6 155 -2.299
38 CP6 156 -1.322
38 CP6 157 -2.299
38 CP6 158 -4.252
38 CP6 159 -6.694
38 CP6 160 -8.158
38 CP6 161 -7.670
38 CP6 162 -7.182
38 CP6 163 -5.229
38 CP6 164 -3.764
38 CP6 165 -2.787
38 CP6 166 -2.299
38 CP6 167 -1.811
38 CP6 168 -1.811
38 CP6 169 -1.322
38 CP6 170 -0.346
38 CP6 171 0.631
38 CP6 172 0.631
38 CP6 173 0.142
38 CP6 174 -1.811
38 CP6 175 -3.276
38 CP6 176 -4.252
38 CP6 177 -4.740
38 CP6 178 -4.252
38 CP6 179 -3.276
38 CP6 180 -1.322
38 CP6 181 0.142
38 CP6 182 1.607
38 CP6 183 1.607
38 CP6 184 0.631
38 CP6 185 -0.834
38 CP6 186 -1.811
38 CP6 187 -1.811
38 CP6 188 0.142
38 CP6 189 1.607
38 CP6 190 2.584
38 CP6 191 2.584
38 CP6 192 1.607
38 CP6 193 0.631
38 CP6 194 0.142
38 CP6 195 0.631
38 CP6 196 1.119
38 CP6 197 2.096
38 CP6 198 1.607
38 CP6 199 1.119
38 CP6 200 0.631
38 CP6 201 0.631
38 CP6 202 1.119
38 CP6 203 1.607
38 CP6 204 2.584
38 CP6 205 3.072
38 CP6 206 3.072
38 CP6 207 2.584
38 CP6 208 1.119
38 CP6 209 -0.834
38 CP6 210 -3.276
38 CP6 211 -5.229
38 CP6 212 -6.205
38 CP6 213 -6.694
38 CP6 214 -6.694
38 CP6 215 -6.694
38 CP6 216 -7.670
38 CP6 217 -8.158
38 CP6 218 -8.158
38 CP6 219 -7.670
38 CP6 220 -6.205
38 CP6 221 -4.740
38 CP6 222 -4.740
38 CP6 223 -5.229
38 CP6 224 -5.717
38 CP6 225 -6.694
38 CP6 226 -6.694
38 CP6 227 -7.182
38 CP6 228 -7.182
38 CP6 229 -7.670
38 CP6 230 -7.182
38 CP6 231 -6.694
38 CP6 232 -5.717
38 CP6 233 -4.740
38 CP6 234 -5.229
38 CP6 235 -6.205
38 CP6 236 -7.670
38 CP6 237 -8.158
38 CP6 238 -7.670
38 CP6 239 -6.205
38 CP6 240 -5.229
38 CP6 241 -4.740
38 CP6 242 -4.740
38 CP6 243 -5.229
38 CP6 244 -5.717
38 CP6 245 -6.205
38 CP6 246 -6.205
38 CP6 247 -5.229
38 CP6 248 -3.764
38 CP6 249 -2.787
38 CP6 250 -2.299
38 CP6 251 -2.787
38 CP6 252 -3.764
38 CP6 253 -4.740
38 CP6 254 -4.740
38 CP6 255 -4.252
# CP1 chan 20
38 CP1 0 1.068
38 CP1 1 1.556
38 CP1 2 1.556
38 CP1 3 1.556
38 CP1 4 1.556
38 CP1 5 1.556
38 CP1 6 1.068
38 CP1 7 0.092
38 CP1 8 -0.885
38 CP1 9 -1.862
38 CP1 10 -2.350
38 CP1 11 -2.350
38 CP1 12 -2.350
38 CP1 13 -3.326
38 CP1 14 -4.303
38 CP1 15 -4.791
38 CP1 16 -5.280
38 CP1 17 -3.815
38 CP1 18 -1.862
38 CP1 19 0.092
38 CP1 20 2.045
38 CP1 21 2.533
38 CP1 22 3.021
38 CP1 23 3.021
38 CP1 24 3.510
38 CP1 25 4.486
38 CP1 26 5.463
38 CP1 27 5.463
38 CP1 28 5.463
38 CP1 29 5.463
38 CP1 30 5.463
38 CP1 31 5.463
38 CP1 32 4.974
38 CP1 33 3.510
38 CP1 34 1.068
38 CP1 35 -1.373
38 CP1 36 -3.815
38 CP1 37 -4.791
38 CP1 38 -4.303
38 CP1 39 -3.815
38 CP1 40 -2.838
38 CP1 41 -2.838
38 CP1 42 -3.326
38 CP1 43 -3.815
38 CP1 44 -4.303
38 CP1 45 -4.303
38 CP1 46 -4.791
38 CP1 47 -4.791
38 CP1 48 -4.791
38 CP1 49 -4.303
38 CP1 50 -4.303
38 CP1 51 -3.815
38 CP1 52 -3.815
38 CP1 53 -3.815
38 CP1 54 -4.303
38 CP1 55 -3.326
38 CP1 56 -2.350
38 CP1 57 -0.885
38 CP1 58 0.580
38 CP1 59 1.556
38 CP1 60 1.068
38 CP1 61 0.580
38 CP1 62 -0.397
38 CP1 63 -0.885
38 CP1 64 -0.885
38 CP1 65 -0.885
38 CP1 66 0.092
38 CP1 67 1.068
38 CP1 68 1.556
38 CP1 69 1.556
38 CP1 70 1.068
38 CP1 71 0.092
38 CP1 72 -0.885
38 CP1 73 -0.885
38 CP1 74 0.092
38 CP1 75 0.580
38 CP1 76 0.580
38 CP1 77 -0.397
38 CP1 78 -1.373
38 CP1 79 -1.373
38 CP1 80 -0.397
38 CP1 81 1.556
38 CP1 82 3.510
38 CP1 83 4.974
38 CP1 84 5.951
38 CP1 85 5.951
38 CP1 86 5.951
38 CP1 87 5.951
38 CP1 88 4.974
38 CP1 89 3.998
38 CP1 90 3.510
38 CP1 91 3.510
38 CP1 92 3.510
38 CP1 93 3.510
38 CP1 94 3.510
38 CP1 95 2.045
38 CP1 96 -0.885
38 CP1 97 -3.326
38 CP1 98 -4.791
38 CP1 99 -4.791
38 CP1 100 -3.326
38 CP1 101 -1.373
38 CP1 102 0.580
38 CP1 103 0.580
38 CP1 104 0.092
38 CP1 105 -0.397
38 CP1 106 -0.885
38 CP1 107 -0.397
38 CP1 108 0.092
38 CP1 109 0.580
38 CP1 110 0.580
38 CP1 111 0.580
38 CP1 112 1.068
38 CP1 113 1.068
38 CP1 114 2.045
38 CP1 115 2.533
38 CP1 116 2.533
38 CP1 117 2.533
38 CP1 118 2.045
38 CP1 119 1.556
38 CP1 120 0.580
38 CP1 121 -0.397
38 CP1 122 -0.885
38 CP1 123 -0.397
38 CP1 124 0.092
38 CP1 125 1.068
38 CP1 126 1.556
38 CP1 127 1.068
38 CP1 128 0.092
38 CP1 129 -0.397
38 CP1 130 0.092
38 CP1 131 1.068
38 CP1 132 2.533
38 CP1 133 3.021
38 CP1 134 1.556
38 CP1 135 0.092
38 CP1 136 -1.373
38 CP1 137 -1.862
38 CP1 138 -1.862
38 CP1 139 -1.862
38 CP1 140 -1.373
38 CP1 141 -1.862
38 CP1 142 -2.350
38 CP1 143 -1.862
38 CP1 144 -1.373
38 CP1 145 -0.397
38 CP1 146 0.580
38 CP1 147 1.068
38 CP1 148 0.580
38 CP1 149 0.092
38 CP1 150 -0.397
38 CP1 151 -0.397
38 CP1 152 0.580
38 CP1 153 1.068
38 CP1 154 2.045
38 CP1 155 2.533
38 CP1 156 3.021
38 CP1 157 3.021
38 CP1 158 3.021
38 CP1 159 3.021
38 CP1 160 3.021
38 CP1 161 3.998
38 CP1 162 4.486
38 CP1 163 4.486
38 CP1 164 3.998
38 CP1 165 3.021
38 CP1 166 2.045
38 CP1 167 1.556
38 CP1 168 1.556
38 CP1 169 2.045
38 CP1 170 2.533
38 CP1 171 3.998
38 CP1 172 4.486
38 CP1 173 4.974
38 CP1 174 5.463
38 CP1 175 5.951
38 CP1 176 6.927
38 CP1 177 7.416
38 CP1 178 7.416
38 CP1 179 6.439
38 CP1 180 5.463
38 CP1 181 3.998
38 CP1 182 2.533
38 CP1 183 2.533
38 CP1 184 2.533
38 CP1 185 2.533
38 CP1 186 2.045
38 CP1 187 1.556
38 CP1 188 2.045
38 CP1 189 3.021
38 CP1 190 3.998
38 CP1 191 5.463
38 CP1 192 5.463
38 CP1 193 5.463
38 CP1 194 4.974
38 CP1 195 4.974
38 CP1 196 4.974
38 CP1 197 4.974
38 CP1 198 4.974
38 CP1 199 4.974
38 CP1 200 5.951
38 CP1 201 7.416
38 CP1 202 8.392
38 CP1 203 8.392
38 CP1 204 7.904
38 CP1 205 6.927
38 CP1 206 5.951
38 CP1 207 6.439
38 CP1 208 7.416
38 CP1 209 7.904
38 CP1 210 7.416
38 CP1 211 6.927
38 CP1 212 6.927
38 CP1 213 7.904
38 CP1 214 8.881
38 CP1 215 9.369
38 CP1 216 9.369
38 CP1 217 8.881
38 CP1 218 8.881
38 CP1 219 9.369
38 CP1 220 9.369
38 CP1 221 8.881
38 CP1 222 7.416
38 CP1 223 6.927
38 CP1 224 7.416
38 CP1 225 8.881
38 CP1 226 9.857
38 CP1 227 10.345
38 CP1 228 9.857
38 CP1 229 9.857
38 CP1 230 10.345
38 CP1 231 10.834
38 CP1 232 11.810
38 CP1 233 11.322
38 CP1 234 9.369
38 CP1 235 7.416
38 CP1 236 6.439
38 CP1 237 6.439
38 CP1 238 7.416
38 CP1 239 7.904
38 CP1 240 7.416
38 CP1 241 5.951
38 CP1 242 4.974
38 CP1 243 5.463
38 CP1 244 6.439
38 CP1 245 8.881
38 CP1 246 10.834
38 CP1 247 11.810
38 CP1 248 11.322
38 CP1 249 10.834
38 CP1 250 10.345
38 CP1 251 10.834
38 CP1 252 10.834
38 CP1 253 10.834
38 CP1 254 9.857
38 CP1 255 8.392
# CP2 chan 21
38 CP2 0 0.702
38 CP2 1 0.214
38 CP2 2 -1.251
38 CP2 3 -2.228
38 CP2 4 -2.228
38 CP2 5 -1.740
38 CP2 6 -1.251
38 CP2 7 -1.251
38 CP2 8 -1.740
38 CP2 9 -1.740
38 CP2 10 -1.740
38 CP2 11 -0.763
38 CP2 12 0.214
38 CP2 13 0.214
38 CP2 14 0.214
38 CP2 15 -1.251
38 CP2 16 -1.740
38 CP2 17 -1.740
38 CP2 18 -0.763
38 CP2 19 0.702
38 CP2 20 2.167
38 CP2 21 2.167
38 CP2 22 1.678
38 CP2 23 0.702
38 CP2 24 0.702
38 CP2 25 2.167
38 CP2 26 4.120
38 CP2 27 5.096
38 CP2 28 4.120
38 CP2 29 2.167
38 CP2 30 0.214
38 CP2 31 0.214
38 CP2 32 1.190
38 CP2 33 2.655
38 CP2 34 4.120
38 CP2 35 3.632
38 CP2 36 3.143
38 CP2 37 2.655
38 CP2 38 2.655
38 CP2 39 3.143
38 CP2 40 2.655
38 CP2 41 2.167
38 CP2 42 1.190
38 CP2 43 0.702
38 CP2 44 0.214
38 CP2 45 0.702
38 CP2 46 0.702
38 CP2 47 0.214
38 CP2 48 -0.275
38 CP2 49 -0.275
38 CP2 50 0.702
38 CP2 51 2.655
38 CP2 52 3.632
38 CP2 53 3.632
38 CP2 54 2.167
38 CP2 55 -0.763
38 CP2 56 -2.228
38 CP2 57 -2.228
38 CP2 58 -0.275
38 CP2 59 2.167
38 CP2 60 3.143
38 CP2 61 2.655
38 CP2 62 0.214
38 CP2 63 -1.251
38 CP2 64 -1.740
38 CP2 65 -0.763
38 CP2 66 1.190
38 CP2 67 2.655
38 CP2 68 2.655
38 CP2 69 2.167
38 CP2 70 1.678
38 CP2 71 1.190
38 CP2 72 0.702
38 CP2 73 -0.275
38 CP2 74 -1.740
38 CP2 75 -3.204
38 CP2 76 -3.693
38 CP2 77 -3.693
38 CP2 78 -4.181
38 CP2 79 -5.157
38 CP2 80 -6.622
38 CP2 81 -7.599
38 CP2 82 -6.622
38 CP2 83 -5.646
38 CP2 84 -4.181
38 CP2 85 -3.204
38 CP2 86 -3.693
38 CP2 87 -3.693
38 CP2 88 -3.693
38 CP2 89 -2.716
38 CP2 90 -1.740
38 CP2 91 -2.228
38 CP2 92 -3.693
38 CP2 93 -5.157
38 CP2 94 -5.157
38 CP2 95 -4.181
38 CP2 96 -2.716
38 CP2 97 -1.740
38 CP2 98 -2.228
38 CP2 99 -3.204
38 CP2 100 -4.181
38 CP2 101 -3.693
38 CP2 102 -2.716
38 CP2 103 -2.716
38 CP2 104 -2.716
38 CP2 105 -4.181
38 CP2 106 -4.181
38 CP2 107 -3.204
38 CP2 108 -0.763
38 CP2 109 1.190
38 CP2 110 2.167
38 CP2 111 1.190
38 CP2 112 -0.275
38 CP2 113 -1.740
38 CP2 114 -2.716
38 CP2 115 -2.228
38 CP2 116 -1.740
38 CP2 117 -1.251
38 CP2 118 -0.763
38 CP2 119 -0.275
38 CP2 120 0.702
38 CP2 121 1.678
38 CP2 122 2.167
38 CP2 123 1.190
38 CP2 124 -0.763
38 CP2 125 -2.716
38 CP2 126 -3.693
38 CP2 127 -3.693
38 CP2 128 -2.228
38 CP2 129 -0.275
38 CP2 130 0.702
38 CP2 131 0.214
38 CP2 132 -1.740
38 CP2 133 -3.693
38 CP2 134 -4.669
38 CP2 135 -3.693
38 CP2 136 -2.228
38 CP2 137 -0.763
38 CP2 138 -0.275
38 CP2 139 -0.763
38 CP2 140 -1.740
38 CP2 141 -2.228
38 CP2 142 -2.228
38 CP2 143 -1.740
38 CP2 144 -1.251
38 CP2 145 -0.763
38 CP2 146 -0.763
38 CP2 147 -0.763
38 CP2 148 -1.740
38 CP2 149 -3.693
38 CP2 150 -5.646
38 CP2 151 -7.111
38 CP2 152 -6.622
38 CP2 153 -5.157
38 CP2 154 -3.204
38 CP2 155 -1.740
38 CP2 156 -1.251
38 CP2 157 -2.716
38 CP2 158 -4.181
38 CP2 159 -5.646
38 CP2 160 -7.111
38 CP2 161 -7.599
38 CP2 162 -7.599
38 CP2 163 -7.111
38 CP2 164 -6.622
38 CP2 165 -6.622
38 CP2 166 -6.622
38 CP2 167 -6.622
38 CP2 168 -6.622
38 CP2 169 -6.134
38 CP2 170 -5.646
38 CP2 171 -5.157
38 CP2 172 -4.669
38 CP2 173 -4.181
38 CP2 174 -3.693
38 CP2 175 -3.204
38 CP2 176 -2.716
38 CP2 177 -3.204
38 CP2 178 -4.181
38 CP2 179 -4.669
38 CP2 180 -4.669
38 CP2 181 -4.181
38 CP2 182 -3.693
38 CP2 183 -3.204
38 CP2 184 -3.693
38 CP2 185 -4.669
38 CP2 186 -4.669
38 CP2 187 -3.693
38 CP2 188 -2.228
38 CP2 189 -0.763
38 CP2 190 -0.763
38 CP2 191 -1.740
38 CP2 192 -3.693
38 CP2 193 -5.157
38 CP2 194 -6.134
38 CP2 195 -5.157
38 CP2 196 -4.181
38 CP2 197 -3.204
38 CP2 198 -2.716
38 CP2 199 -3.204
38 CP2 200 -3.693
38 CP2 201 -4.181
38 CP2 202 -4.669
38 CP2 203 -4.669
38 CP2 204 -4.669
38 CP2 205 -4.181
38 CP2 206 -3.693
38 CP2 207 -3.204
38 CP2 208 -3.693
38 CP2 209 -5.646
38 CP2 210 -7.599
38 CP2 211 -9.552
38 CP2 212 -9.552
38 CP2 213 -9.064
38 CP2 214 -9.064
38 CP2 215 -9.552
38 CP2 216 -10.529
38 CP2 217 -11.993
38 CP2 218 -12.482
38 CP2 219 -12.482
38 CP2 220 -12.482
38 CP2 221 -11.993
38 CP2 222 -11.505
38 CP2 223 -11.017
38 CP2 224 -10.529
38 CP2 225 -10.529
38 CP2 226 -11.505
38 CP2 227 -11.993
38 CP2 228 -11.505
38 CP2 229 -10.529
38 CP2 230 -8.575
38 CP2 231 -7.111
38 CP2 232 -6.622
38 CP2 233 -7.111
38 CP2 234 -8.087
38 CP2 235 -8.575
38 CP2 236 -9.064
38 CP2 237 -9.064
38 CP2 238 -9.064
38 CP2 239 -9.552
38 CP2 240 -10.040
38 CP2 241 -11.017
38 CP2 242 -11.993
38 CP2 243 -11.993
38 CP2 244 -12.482
38 CP2 245 -11.993
38 CP2 246 -11.017
38 CP2 247 -10.040
38 CP2 248 -9.064
38 CP2 249 -8.575
38 CP2 250 -9.064
38 CP2 251 -9.552
38 CP2 252 -10.040
38 CP2 253 -10.529
38 CP2 254 -11.017
38 CP2 255 -11.017
# P3 chan 22
38 P3 0 -1.780
38 P3 1 -1.780
38 P3 2 -1.780
38 P3 3 -1.780
38 P3 4 -1.780
38 P3 5 -1.780
38 P3 6 -2.757
38 P3 7 -3.733
38 P3 8 -5.686
38 P3 9 -6.175
38 P3 10 -6.663
38 P3 11 -6.175
38 P3 12 -6.175
38 P3 13 -6.175
38 P3 14 -6.175
38 P3 15 -6.663
38 P3 16 -6.663
38 P3 17 -5.686
38 P3 18 -3.733
38 P3 19 -0.804
38 P3 20 2.614
38 P3 21 5.544
38 P3 22 7.009
38 P3 23 7.497
38 P3 24 7.985
38 P3 25 7.985
38 P3 26 8.474
38 P3 27 8.474
38 P3 28 7.009
38 P3 29 5.056
38 P3 30 3.591
38 P3 31 3.103
38 P3 32 2.126
38 P3 33 1.149
38 P3 34 -1.780
38 P3 35 -4.710
38 P3 36 -6.663
38 P3 37 -6.175
38 P3 38 -4.222
38 P3 39 -2.757
38 P3 40 -2.757
38 P3 41 -4.222
38 P3 42 -6.175
38 P3 43 -7.640
38 P3 44 -7.151
38 P3 45 -6.663
38 P3 46 -6.663
38 P3 47 -7.640
38 P3 48 -8.128
38 P3 49 -8.128
38 P3 50 -6.175
38 P3 51 -3.733
38 P3 52 -3.733
38 P3 53 -5.198
38 P3 54 -7.151
38 P3 55 -8.616
38 P3 56 -7.151
38 P3 57 -4.710
38 P3 58 -2.268
38 P3 59 -0.804
38 P3 60 -1.292
38 P3 61 -2.757
38 P3 62 -3.245
38 P3 63 -2.757
38 P3 64 -1.780
38 P3 65 -1.292
38 P3 66 -0.804
38 P3 67 -0.804
38 P3 68 -1.292
38 P3 69 -2.268
38 P3 70 -3.245
38 P3 71 -4.710
38 P3 72 -5.686
38 P3 73 -5.686
38 P3 74 -6.175
38 P3 75 -6.663
38 P3 76 -7.640
38 P3 77 -9.104
38 P3 78 -10.569
38 P3 79 -11.058
38 P3 80 -11.058
38 P3 81 -9.104
38 P3 82 -7.151
38 P3 83 -5.686
38 P3 84 -4.222
38 P3 85 -3.733
38 P3 86 -2.757
38 P3 87 -1.292
38 P3 88 0.173
38 P3 89 1.149
38 P3 90 1.149
38 P3 91 0.661
38 P3 92 -1.292
38 P3 93 -3.245
38 P3 94 -5.198
38 P3 95 -7.151
38 P3 96 -9.593
38 P3 97 -11.546
38 P3 98 -12.522
38 P3 99 -11.546
38 P3 100 -9.593
38 P3 101 -7.640
38 P3 102 -6.663
38 P3 103 -6.663
38 P3 104 -6.663
38 P3 105 -6.175
38 P3 106 -6.175
38 P3 107 -6.175
38 P3 108 -6.663
38 P3 109 -6.175
38 P3 110 -4.710
38 P3 111 -2.757
38 P3 112 -1.292
38 P3 113 -1.292
38 P3 114 -2.757
38 P3 115 -4.710
38 P3 116 -5.686
38 P3 117 -5.686
38 P3 118 -4.710
38 P3 119 -4.710
38 P3 120 -5.686
38 P3 121 -8.128
38 P3 122 -9.593
38 P3 123 -10.569
38 P3 124 -9.593
38 P3 125 -7.640
38 P3 126 -6.175
38 P3 127 -6.175
38 P3 128 -6.175
38 P3 129 -6.663
38 P3 130 -6.175
38 P3 131 -5.686
38 P3 132 -5.686
38 P3 133 -5.686
38 P3 134 -6.663
38 P3 135 -7.151
38 P3 136 -8.128
38 P3 137 -9.104
38 P3 138 -9.593
38 P3 139 -10.081
38 P3 140 -10.081
38 P3 141 -9.104
38 P3 142 -7.640
38 P3 143 -6.663
38 P3 144 -6.175
38 P3 145 -6.175
38 P3 146 -6.663
38 P3 147 -8.128
38 P3 148 -8.616
38 P3 149 -9.104
38 P3 150 -9.104
38 P3 151 -9.104
38 P3 152 -9.104
38 P3 153 -8.616
38 P3 154 -7.640
38 P3 155 -6.663
38 P3 156 -5.686
38 P3 157 -5.198
38 P3 158 -4.710
38 P3 159 -4.710
38 P3 160 -5.198
38 P3 161 -5.686
38 P3 162 -6.175
38 P3 163 -6.175
38 P3 164 -5.686
38 P3 165 -4.710
38 P3 166 -4.222
38 P3 167 -4.222
38 P3 168 -5.198
38 P3 169 -6.175
38 P3 170 -6.663
38 P3 171 -5.686
38 P3 172 -4.222
38 P3 173 -2.757
38 P3 174 -1.780
38 P3 175 -1.780
38 P3 176 -1.780
38 P3 177 -1.780
38 P3 178 -1.292
38 P3 179 -1.292
38 P3 180 -1.780
38 P3 181 -2.757
38 P3 182 -3.245
38 P3 183 -3.733
38 P3 184 -4.222
38 P3 185 -4.710
38 P3 186 -5.686
38 P3 187 -5.686
38 P3 188 -4.222
38 P3 189 -2.268
38 P3 190 -0.315
38 P3 191 -0.315
38 P3 192 -1.292
38 P3 193 -3.245
38 P3 194 -3.733
38 P3 195 -2.268
38 P3 196 0.173
38 P3 197 2.614
38 P3 198 3.103
38 P3 199 2.126
38 P3 200 0.661
38 P3 201 -0.315
38 P3 202 0.173
38 P3 203 0.661
38 P3 204 1.149
38 P3 205 0.173
38 P3 206 -0.804
38 P3 207 -1.292
38 P3 208 -1.780
38 P3 209 -1.780
38 P3 210 -1.780
38 P3 211 -2.757
38 P3 212 -4.222
38 P3 213 -5.198
38 P3 214 -4.710
38 P3 215 -3.733
38 P3 216 -2.268
38 P3 217 -0.804
38 P3 218 -0.315
38 P3 219 0.173
38 P3 220 -0.804
38 P3 221 -1.780
38 P3 222 -3.245
38 P3 223 -3.245
38 P3 224 -2.268
38 P3 225 -0.315
38 P3 226 1.638
38 P3 227 2.614
38 P3 228 2.126
38 P3 229 0.661
38 P3 230 -0.315
38 P3 231 -1.292
38 P3 232 -1.292
38 P3 233 -1.780
38 P3 234 -2.757
38 P3 235 -4.710
38 P3 236 -5.686
38 P3 237 -6.175
38 P3 238 -6.175
38 P3 239 -6.175
38 P3 240 -7.151
38 P3 241 -8.128
38 P3 242 -8.128
38 P3 243 -6.663
38 P3 244 -3.245
38 P3 245 -0.315
38 P3 246 2.126
38 P3 247 3.103
38 P3 248 3.103
38 P3 249 2.126
38 P3 250 1.638
38 P3 251 1.149
38 P3 252 0.173
38 P3 253 -1.292
38 P3 254 -2.757
38 P3 255 -4.710
# P4 chan 23
38 P4 0 4.567
38 P4 1 4.079
38 P4 2 2.614
38 P4 3 0.661
38 P4 4 -0.315
38 P4 5 -0.315
38 P4 6 -1.292
38 P4 7 -2.757
38 P4 8 -4.222
38 P4 9 -5.198
38 P4 10 -4.710
38 P4 11 -3.733
38 P4 12 -2.268
38 P4 13 -1.292
38 P4 14 -1.780
38 P4 15 -2.268
38 P4 16 -3.733
38 P4 17 -3.733
38 P4 18 -3.733
38 P4 19 -2.757
38 P4 20 -2.268
38 P4 21 -2.268
38 P4 22 -3.245
38 P4 23 -4.222
38 P4 24 -3.733
38 P4 25 -1.292
38 P4 26 1.638
38 P4 27 3.591
38 P4 28 3.591
38 P4 29 2.614
38 P4 30 1.149
38 P4 31 1.638
38 P4 32 3.103
38 P4 33 4.567
38 P4 34 4.079
38 P4 35 2.126
38 P4 36 0.173
38 P4 37 -1.292
38 P4 38 -0.315
38 P4 39 1.149
38 P4 40 1.638
38 P4 41 0.661
38 P4 42 -1.780
38 P4 43 -4.222
38 P4 44 -5.686
38 P4 45 -6.175
38 P4 46 -5.686
38 P4 47 -5.198
38 P4 48 -4.222
38 P4 49 -2.268
38 P4 50 0.173
38 P4 51 3.103
38 P4 52 5.056
38 P4 53 6.032
38 P4 54 5.056
38 P4 55 3.591
38 P4 56 2.614
38 P4 57 1.638
38 P4 58 1.638
38 P4 59 1.638
38 P4 60 1.638
38 P4 61 0.661
38 P4 62 -0.804
38 P4 63 -2.268
38 P4 64 -1.780
38 P4 65 -0.315
38 P4 66 1.638
38 P4 67 3.591
38 P4 68 4.567
38 P4 69 5.056
38 P4 70 4.567
38 P4 71 3.591
38 P4 72 2.126
38 P4 73 1.149
38 P4 74 0.661
38 P4 75 0.661
38 P4 76 1.638
38 P4 77 1.638
38 P4 78 0.173
38 P4 79 -2.268
38 P4 80 -4.710
38 P4 81 -4.710
38 P4 82 -3.245
38 P4 83 -1.292
38 P4 84 -0.315
38 P4 85 -2.268
38 P4 86 -4.710
38 P4 87 -6.663
38 P4 88 -6.663
38 P4 89 -4.710
38 P4 90 -3.245
38 P4 91 -2.757
38 P4 92 -3.245
38 P4 93 -3.733
38 P4 94 -3.245
38 P4 95 -3.245
38 P4 96 -4.222
38 P4 97 -6.663
38 P4 98 -8.616
38 P4 99 -8.128
38 P4 100 -6.175
38 P4 101 -3.733
38 P4 102 -2.757
38 P4 103 -4.710
38 P4 104 -7.640
38 P4 105 -9.104
38 P4 106 -8.616
38 P4 107 -5.686
38 P4 108 -3.245
38 P4 109 -2.757
38 P4 110 -3.245
38 P4 111 -4.222
38 P4 112 -4.710
38 P4 113 -4.710
38 P4 114 -4.222
38 P4 115 -4.222
38 P4 116 -4.710
38 P4 117 -4.710
38 P4 118 -4.222
38 P4 119 -3.245
38 P4 120 -3.733
38 P4 121 -4.710
38 P4 122 -6.663
38 P4 123 -8.128
38 P4 124 -9.104
38 P4 125 -8.616
38 P4 126 -8.128
38 P4 127 -7.640
38 P4 128 -7.640
38 P4 129 -7.151
38 P4 130 -6.663
38 P4 131 -7.151
38 P4 132 -8.616
38 P4 133 -10.081
38 P4 134 -11.058
38 P4 135 -11.058
38 P4 136 -9.104
38 P4 137 -7.640
38 P4 138 -7.151
38 P4 139 -8.128
38 P4 140 -9.104
38 P4 141 -9.104
38 P4 142 -8.616
38 P4 143 -7.640
38 P4 144 -7.151
38 P4 145 -6.663
38 P4 146 -7.640
38 P4 147 -9.104
38 P4 148 -10.569
38 P4 149 -12.034
38 P4 150 -12.522
38 P4 151 -12.034
38 P4 152 -10.569
38 P4 153 -7.640
38 P4 154 -4.222
38 P4 155 -1.780
38 P4 156 -0.804
38 P4 157 -2.268
38 P4 158 -4.710
38 P4 159 -7.151
38 P4 160 -8.616
38 P4 161 -8.616
38 P4 162 -7.640
38 P4 163 -6.663
38 P4 164 -5.686
38 P4 165 -6.175
38 P4 166 -7.151
38 P4 167 -7.151
38 P4 168 -7.151
38 P4 169 -5.686
38 P4 170 -4.710
38 P4 171 -3.733
38 P4 172 -3.733
38 P4 173 -3.733
38 P4 174 -4.222
38 P4 175 -4.710
38 P4 176 -4.710
38 P4 177 -5.198
38 P4 178 -5.198
38 P4 179 -5.198
38 P4 180 -4.710
38 P4 181 -3.733
38 P4 182 -3.245
38 P4 183 -3.245
38 P4 184 -4.710
38 P4 185 -6.663
38 P4 186 -7.151
38 P4 187 -6.663
38 P4 188 -4.222
38 P4 189 -2.268
38 P4 190 -1.292
38 P4 191 -1.780
38 P4 192 -3.733
38 P4 193 -5.198
38 P4 194 -6.175
38 P4 195 -5.686
38 P4 196 -5.198
38 P4 197 -4.222
38 P4 198 -4.222
38 P4 199 -4.222
38 P4 200 -4.222
38 P4 201 -4.222
38 P4 202 -3.245
38 P4 203 -2.757
38 P4 204 -1.780
38 P4 205 -1.292
38 P4 206 -1.780
38 P4 207 -2.268
38 P4 208 -3.733
38 P4 209 -6.175
38 P4 210 -9.104
38 P4 211 -12.522
38 P4 212 -14.476
38 P4 213 -14.964
38 P4 214 -14.964
38 P4 215 -14.476
38 P4 216 -13.499
38 P4 217 -13.011
38 P4 218 -12.522
38 P4 219 -11.546
38 P4 220 -10.569
38 P4 221 -10.569
38 P4 222 -10.569
38 P4 223 -11.058
38 P4 224 -11.058
38 P4 225 -10.569
38 P4 226 -10.081
38 P4 227 -9.593
38 P4 228 -10.081
38 P4 229 -10.569
38 P4 230 -10.569
38 P4 231 -10.081
38 P4 232 -9.104
38 P4 233 -8.616
38 P4 234 -9.104
38 P4 235 -9.593
38 P4 236 -10.569
38 P4 237 -10.569
38 P4 238 -11.058
38 P4 239 -11.546
38 P4 240 -12.034
38 P4 241 -12.034
38 P4 242 -11.058
38 P4 243 -9.593
38 P4 244 -8.128
38 P4 245 -7.640
38 P4 246 -7.151
38 P4 247 -6.663
38 P4 248 -4.710
38 P4 249 -3.245
38 P4 250 -1.780
38 P4 251 -1.780
38 P4 252 -3.245
38 P4 253 -4.222
38 P4 254 -4.710
38 P4 255 -5.198
# PZ chan 24
38 PZ 0 -0.427
38 PZ 1 -0.427
38 PZ 2 -0.916
38 PZ 3 -1.892
38 PZ 4 -2.380
38 PZ 5 -3.357
38 PZ 6 -3.357
38 PZ 7 -3.845
38 PZ 8 -3.845
38 PZ 9 -4.333
38 PZ 10 -4.822
38 PZ 11 -5.310
38 PZ 12 -5.310
38 PZ 13 -5.310
38 PZ 14 -5.310
38 PZ 15 -5.798
38 PZ 16 -6.775
38 PZ 17 -7.751
38 PZ 18 -7.751
38 PZ 19 -6.287
38 PZ 20 -4.333
38 PZ 21 -2.869
38 PZ 22 -2.380
38 PZ 23 -2.380
38 PZ 24 -1.892
38 PZ 25 -0.916
38 PZ 26 0.549
38 PZ 27 2.014
38 PZ 28 2.502
38 PZ 29 1.038
38 PZ 30 0.061
38 PZ 31 -0.916
38 PZ 32 -0.916
38 PZ 33 -0.427
38 PZ 34 -0.916
38 PZ 35 -2.380
38 PZ 36 -3.845
38 PZ 37 -4.333
38 PZ 38 -3.357
38 PZ 39 -1.892
38 PZ 40 -0.916
38 PZ 41 -1.404
38 PZ 42 -3.357
38 PZ 43 -5.798
38 PZ 44 -6.775
38 PZ 45 -7.263
38 PZ 46 -6.775
38 PZ 47 -6.287
38 PZ 48 -5.798
38 PZ 49 -5.310
38 PZ 50 -2.869
38 PZ 51 -0.427
38 PZ 52 1.038
38 PZ 53 1.038
38 PZ 54 -0.916
38 PZ 55 -2.380
38 PZ 56 -3.357
38 PZ 57 -2.380
38 PZ 58 -0.427
38 PZ 59 1.038
38 PZ 60 0.549
38 PZ 61 -0.427
38 PZ 62 -1.404
38 PZ 63 -1.892
38 PZ 64 -0.427
38 PZ 65 1.038
38 PZ 66 2.991
38 PZ 67 3.967
38 PZ 68 3.967
38 PZ 69 3.479
38 PZ 70 2.502
38 PZ 71 2.014
38 PZ 72 1.526
38 PZ 73 1.038
38 PZ 74 1.038
38 PZ 75 1.038
38 PZ 76 1.038
38 PZ 77 0.549
38 PZ 78 -0.916
38 PZ 79 -1.892
38 PZ 80 -1.892
38 PZ 81 -0.427
38 PZ 82 2.014
38 PZ 83 4.456
38 PZ 84 5.920
38 PZ 85 4.944
38 PZ 86 3.479
38 PZ 87 2.014
38 PZ 88 2.014
38 PZ 89 3.479
38 PZ 90 5.432
38 PZ 91 6.409
38 PZ 92 6.409
38 PZ 93 4.944
38 PZ 94 4.456
38 PZ 95 3.967
38 PZ 96 3.479
38 PZ 97 2.991
38 PZ 98 2.502
38 PZ 99 2.014
38 PZ 100 2.991
38 PZ 101 3.967
38 PZ 102 5.432
38 PZ 103 5.432
38 PZ 104 4.456
38 PZ 105 3.479
38 PZ 106 2.991
38 PZ 107 4.456
38 PZ 108 6.409
38 PZ 109 8.850
38 PZ 110 10.315
38 PZ 111 10.803
38 PZ 112 9.827
38 PZ 113 7.874
38 PZ 114 6.409
38 PZ 115 5.432
38 PZ 116 4.944
38 PZ 117 5.432
38 PZ 118 6.409
38 PZ 119 6.897
38 PZ 120 6.897
38 PZ 121 6.897
38 PZ 122 6.409
38 PZ 123 5.920
38 PZ 124 5.920
38 PZ 125 5.920
38 PZ 126 6.409
38 PZ 127 5.920
38 PZ 128 6.409
38 PZ 129 6.897
38 PZ 130 7.385
38 PZ 131 6.897
38 PZ 132 6.897
38 PZ 133 5.920
38 PZ 134 4.456
38 PZ 135 3.967
38 PZ 136 3.479
38 PZ 137 2.991
38 PZ 138 2.991
38 PZ 139 2.502
38 PZ 140 2.014
38 PZ 141 2.502
38 PZ 142 2.991
38 PZ 143 3.479
38 PZ 144 3.479
38 PZ 145 3.479
38 PZ 146 3.479
38 PZ 147 3.479
38 PZ 148 2.991
38 PZ 149 2.502
38 PZ 150 2.502
38 PZ 151 2.991
38 PZ 152 3.967
38 PZ 153 5.920
38 PZ 154 7.874
38 PZ 155 9.338
38 PZ 156 9.827
38 PZ 157 8.850
38 PZ 158 7.874
38 PZ 159 6.409
38 PZ 160 5.920
38 PZ 161 6.409
38 PZ 162 6.897
38 PZ 163 7.385
38 PZ 164 6.897
38 PZ 165 5.920
38 PZ 166 4.456
38 PZ 167 2.991
38 PZ 168 2.502
38 PZ 169 2.991
38 PZ 170 4.456
38 PZ 171 5.920
38 PZ 172 7.385
38 PZ 173 8.850
38 PZ 174 9.827
38 PZ 175 9.338
38 PZ 176 8.850
38 PZ 177 8.362
38 PZ 178 8.362
38 PZ 179 7.874
38 PZ 180 7.874
38 PZ 181 7.874
38 PZ 182 6.897
38 PZ 183 5.920
38 PZ 184 4.944
38 PZ 185 3.479
38 PZ 186 2.991
38 PZ 187 3.479
38 PZ 188 4.944
38 PZ 189 7.385
38 PZ 190 9.338
38 PZ 191 9.338
38 PZ 192 8.362
38 PZ 193 5.920
38 PZ 194 3.967
38 PZ 195 3.479
38 PZ 196 4.456
38 PZ 197 6.409
38 PZ 198 6.897
38 PZ 199 5.920
38 PZ 200 3.967
38 PZ 201 2.502
38 PZ 202 2.502
38 PZ 203 3.967
38 PZ 204 5.920
38 PZ 205 6.897
38 PZ 206 5.920
38 PZ 207 4.456
38 PZ 208 2.991
38 PZ 209 2.502
38 PZ 210 2.014
38 PZ 211 2.014
38 PZ 212 1.526
38 PZ 213 1.038
38 PZ 214 0.061
38 PZ 215 0.061
38 PZ 216 0.061
38 PZ 217 1.526
38 PZ 218 2.991
38 PZ 219 4.456
38 PZ 220 5.432
38 PZ 221 4.456
38 PZ 222 3.479
38 PZ 223 2.502
38 PZ 224 2.014
38 PZ 225 2.991
38 PZ 226 4.456
38 PZ 227 4.944
38 PZ 228 4.456
38 PZ 229 2.991
38 PZ 230 2.014
38 PZ 231 1.526
38 PZ 232 2.014
38 PZ 233 2.502
38 PZ 234 2.014
38 PZ 235 1.526
38 PZ 236 1.038
38 PZ 237 1.526
38 PZ 238 2.014
38 PZ 239 2.991
38 PZ 240 2.991
38 PZ 241 2.502
38 PZ 242 2.014
38 PZ 243 2.502
38 PZ 244 4.456
38 PZ 245 5.920
38 PZ 246 7.874
38 PZ 247 7.874
38 PZ 248 8.362
38 PZ 249 7.874
38 PZ 250 8.362
38 PZ 251 8.362
38 PZ 252 7.874
38 PZ 253 6.409
38 PZ 254 4.456
38 PZ 255 2.502
# P8 chan 25
38 P8 0 0.590
38 P8 1 2.543
38 P8 2 1.567
38 P8 3 -1.363
38 P8 4 -2.828
38 P8 5 -2.828
38 P8 6 -1.851
38 P8 7 -1.851
38 P8 8 -3.805
38 P8 9 -7.222
38 P8 10 -10.152
38 P8 11 -11.617
38 P8 12 -11.617
38 P8 13 -9.664
38 P8 14 -7.711
38 P8 15 -6.734
38 P8 16 -7.222
38 P8 17 -9.664
38 P8 18 -12.594
38 P8 19 -13.570
38 P8 20 -12.105
38 P8 21 -9.176
38 P8 22 -6.246
38 P8 23 -4.781
38 P8 24 -3.805
38 P8 25 -2.340
38 P8 26 0.102
38 P8 27 3.520
38 P8 28 5.473
38 P8 29 5.473
38 P8 30 4.496
38 P8 31 3.031
38 P8 32 3.031
38 P8 33 4.496
38 P8 34 4.985
38 P8 35 4.008
38 P8 36 1.078
38 P8 37 -2.828
38 P8 38 -5.758
38 P8 39 -6.246
38 P8 40 -5.758
38 P8 41 -5.758
38 P8 42 -7.711
38 P8 43 -11.129
38 P8 44 -13.570
38 P8 45 -14.547
38 P8 46 -12.105
38 P8 47 -8.687
38 P8 48 -6.246
38 P8 49 -5.758
38 P8 50 -6.246
38 P8 51 -6.246
38 P8 52 -4.781
38 P8 53 -1.851
38 P8 54 1.078
38 P8 55 2.055
38 P8 56 0.590
38 P8 57 -1.851
38 P8 58 -2.340
38 P8 59 -0.875
38 P8 60 2.055
38 P8 61 4.496
38 P8 62 3.520
38 P8 63 0.102
38 P8 64 -3.805
38 P8 65 -5.269
38 P8 66 -3.316
38 P8 67 0.590
38 P8 68 4.985
38 P8 69 6.938
38 P8 70 6.449
38 P8 71 5.473
38 P8 72 4.496
38 P8 73 5.961
38 P8 74 7.914
38 P8 75 10.356
38 P8 76 10.844
38 P8 77 9.867
38 P8 78 7.426
38 P8 79 4.496
38 P8 80 2.055
38 P8 81 2.055
38 P8 82 4.496
38 P8 83 6.938
38 P8 84 9.379
38 P8 85 9.379
38 P8 86 7.914
38 P8 87 5.473
38 P8 88 4.496
38 P8 89 4.496
38 P8 90 4.008
38 P8 91 3.520
38 P8 92 3.031
38 P8 93 3.031
38 P8 94 4.496
38 P8 95 5.961
38 P8 96 5.473
38 P8 97 2.543
38 P8 98 -1.363
38 P8 99 -3.316
38 P8 100 -2.340
38 P8 101 1.078
38 P8 102 4.985
38 P8 103 6.449
38 P8 104 5.473
38 P8 105 3.520
38 P8 106 3.031
38 P8 107 4.008
38 P8 108 5.961
38 P8 109 5.961
38 P8 110 3.520
38 P8 111 0.102
38 P8 112 -2.828
38 P8 113 -3.805
38 P8 114 -2.828
38 P8 115 -1.363
38 P8 116 -0.387
38 P8 117 1.078
38 P8 118 3.031
38 P8 119 4.496
38 P8 120 4.496
38 P8 121 3.031
38 P8 122 -0.387
38 P8 123 -3.805
38 P8 124 -5.758
38 P8 125 -6.246
38 P8 126 -6.246
38 P8 127 -7.222
38 P8 128 -8.199
38 P8 129 -8.687
38 P8 130 -6.734
38 P8 131 -3.805
38 P8 132 -1.363
38 P8 133 -1.851
38 P8 134 -4.781
38 P8 135 -7.711
38 P8 136 -8.687
38 P8 137 -8.199
38 P8 138 -7.222
38 P8 139 -7.222
38 P8 140 -9.664
38 P8 141 -11.617
38 P8 142 -13.082
38 P8 143 -12.594
38 P8 144 -11.129
38 P8 145 -10.640
38 P8 146 -10.640
38 P8 147 -12.105
38 P8 148 -13.082
38 P8 149 -13.082
38 P8 150 -12.105
38 P8 151 -10.640
38 P8 152 -9.176
38 P8 153 -7.222
38 P8 154 -5.269
38 P8 155 -3.805
38 P8 156 -2.828
38 P8 157 -3.316
38 P8 158 -5.758
38 P8 159 -8.199
38 P8 160 -10.152
38 P8 161 -11.129
38 P8 162 -10.640
38 P8 163 -9.176
38 P8 164 -7.711
38 P8 165 -6.246
38 P8 166 -5.269
38 P8 167 -5.269
38 P8 168 -4.293
38 P8 169 -2.828
38 P8 170 -0.875
38 P8 171 2.055
38 P8 172 4.008
38 P8 173 4.496
38 P8 174 3.031
38 P8 175 0.102
38 P8 176 -4.293
38 P8 177 -7.711
38 P8 178 -9.664
38 P8 179 -9.664
38 P8 180 -8.199
38 P8 181 -5.758
38 P8 182 -3.805
38 P8 183 -3.805
38 P8 184 -5.758
38 P8 185 -7.711
38 P8 186 -8.199
38 P8 187 -6.734
38 P8 188 -3.805
38 P8 189 -1.363
38 P8 190 -1.363
38 P8 191 -3.316
38 P8 192 -6.246
38 P8 193 -8.199
38 P8 194 -8.687
38 P8 195 -7.222
38 P8 196 -5.269
38 P8 197 -4.293
38 P8 198 -4.293
38 P8 199 -5.758
38 P8 200 -6.734
38 P8 201 -7.222
38 P8 202 -6.246
38 P8 203 -4.781
38 P8 204 -3.316
38 P8 205 -3.316
38 P8 206 -4.781
38 P8 207 -6.734
38 P8 208 -9.176
38 P8 209 -11.129
38 P8 210 -12.594
38 P8 211 -14.058
38 P8 212 -15.035
38 P8 213 -15.035
38 P8 214 -15.035
38 P8 215 -15.035
38 P8 216 -14.547
38 P8 217 -14.547
38 P8 218 -14.058
38 P8 219 -13.082
38 P8 220 -11.129
38 P8 221 -10.152
38 P8 222 -9.664
38 P8 223 -10.152
38 P8 224 -11.129
38 P8 225 -10.640
38 P8 226 -9.176
38 P8 227 -6.734
38 P8 228 -5.269
38 P8 229 -5.269
38 P8 230 -6.246
38 P8 231 -8.687
38 P8 232 -10.152
38 P8 233 -12.594
38 P8 234 -15.035
38 P8 235 -17.476
38 P8 236 -19.918
38 P8 237 -19.918
38 P8 238 -17.965
38 P8 239 -15.035
38 P8 240 -12.594
38 P8 241 -10.640
38 P8 242 -10.152
38 P8 243 -9.664
38 P8 244 -10.152
38 P8 245 -10.152
38 P8 246 -10.640
38 P8 247 -10.640
38 P8 248 -9.176
38 P8 249 -7.222
38 P8 250 -6.246
38 P8 251 -6.246
38 P8 252 -7.711
38 P8 253 -9.664
38 P8 254 -10.152
38 P8 255 -10.152
# P7 chan 26
38 P7 0 -1.190
38 P7 1 -2.167
38 P7 2 -4.120
38 P7 3 -5.585
38 P7 4 -5.585
38 P7 5 -3.632
38 P7 6 -1.678
38 P7 7 -1.190
38 P7 8 -3.143
38 P7 9 -7.050
38 P7 10 -10.468
38 P7 11 -12.421
38 P7 12 -12.909
38 P7 13 -12.421
38 P7 14 -12.421
38 P7 15 -14.862
38 P7 16 -15.839
38 P7 17 -17.303
38 P7 18 -16.327
38 P7 19 -11.932
38 P7 20 -6.073
38 P7 21 -0.214
38 P7 22 3.204
38 P7 23 3.693
38 P7 24 3.204
38 P7 25 2.228
38 P7 26 2.228
38 P7 27 2.716
38 P7 28 2.228
38 P7 29 0.763
38 P7 30 -0.702
38 P7 31 -1.190
38 P7 32 -1.678
38 P7 33 -1.678
38 P7 34 -3.143
38 P7 35 -4.608
38 P7 36 -7.050
38 P7 37 -8.026
38 P7 38 -9.003
38 P7 39 -9.491
38 P7 40 -10.956
38 P7 41 -13.397
38 P7 42 -15.350
38 P7 43 -16.327
38 P7 44 -15.839
38 P7 45 -14.374
38 P7 46 -13.397
38 P7 47 -13.397
38 P7 48 -13.397
38 P7 49 -12.909
38 P7 50 -10.956
38 P7 51 -8.514
38 P7 52 -6.561
38 P7 53 -6.073
38 P7 54 -6.073
38 P7 55 -5.585
38 P7 56 -4.608
38 P7 57 -3.143
38 P7 58 -2.655
38 P7 59 -4.120
38 P7 60 -7.050
38 P7 61 -9.491
38 P7 62 -9.979
38 P7 63 -9.003
38 P7 64 -7.538
38 P7 65 -8.026
38 P7 66 -9.003
38 P7 67 -9.979
38 P7 68 -9.491
38 P7 69 -8.026
38 P7 70 -6.561
38 P7 71 -6.073
38 P7 72 -7.538
38 P7 73 -8.514
38 P7 74 -8.026
38 P7 75 -7.050
38 P7 76 -6.561
38 P7 77 -6.561
38 P7 78 -7.050
38 P7 79 -7.538
38 P7 80 -6.561
38 P7 81 -4.608
38 P7 82 -4.120
38 P7 83 -4.120
38 P7 84 -5.585
38 P7 85 -6.073
38 P7 86 -6.073
38 P7 87 -4.608
38 P7 88 -3.632
38 P7 89 -3.143
38 P7 90 -2.655
38 P7 91 -1.678
38 P7 92 -0.214
38 P7 93 0.275
38 P7 94 -1.678
38 P7 95 -6.073
38 P7 96 -12.909
38 P7 97 -17.792
38 P7 98 -20.233
38 P7 99 -19.257
38 P7 100 -16.327
38 P7 101 -13.397
38 P7 102 -10.956
38 P7 103 -9.979
38 P7 104 -9.003
38 P7 105 -8.514
38 P7 106 -9.003
38 P7 107 -10.468
38 P7 108 -12.421
38 P7 109 -13.397
38 P7 110 -11.932
38 P7 111 -8.514
38 P7 112 -5.585
38 P7 113 -4.120
38 P7 114 -5.096
38 P7 115 -7.050
38 P7 116 -9.003
38 P7 117 -9.491
38 P7 118 -9.003
38 P7 119 -9.003
38 P7 120 -11.444
38 P7 121 -14.374
38 P7 122 -16.815
38 P7 123 -17.303
38 P7 124 -15.839
38 P7 125 -12.909
38 P7 126 -11.444
38 P7 127 -10.956
38 P7 128 -11.932
38 P7 129 -13.397
38 P7 130 -14.374
38 P7 131 -14.374
38 P7 132 -14.374
38 P7 133 -14.862
38 P7 134 -16.327
38 P7 135 -18.768
38 P7 136 -20.721
38 P7 137 -22.675
38 P7 138 -23.651
38 P7 139 -24.139
38 P7 140 -24.139
38 P7 141 -23.651
38 P7 142 -21.698
38 P7 143 -19.745
38 P7 144 -17.792
38 P7 145 -16.327
38 P7 146 -15.839
38 P7 147 -16.327
38 P7 148 -17.303
38 P7 149 -18.280
38 P7 150 -18.768
38 P7 151 -19.745
38 P7 152 -20.233
38 P7 153 -20.233
38 P7 154 -19.745
38 P7 155 -19.257
38 P7 156 -18.768
38 P7 157 -19.257
38 P7 158 -20.233
38 P7 159 -20.721
38 P7 160 -20.721
38 P7 161 -18.768
38 P7 162 -16.815
38 P7 163 -14.862
38 P7 164 -14.374
38 P7 165 -14.374
38 P7 166 -14.374
38 P7 167 -14.374
38 P7 168 -14.862
38 P7 169 -15.350
38 P7 170 -16.327
38 P7 171 -16.327
38 P7 172 -14.862
38 P7 173 -12.421
38 P7 174 -9.491
38 P7 175 -8.514
38 P7 176 -9.003
38 P7 177 -10.468
38 P7 178 -10.956
38 P7 179 -9.979
38 P7 180 -9.491
38 P7 181 -10.468
38 P7 182 -12.909
38 P7 183 -16.327
38 P7 184 -17.792
38 P7 185 -17.792
38 P7 186 -16.327
38 P7 187 -14.862
38 P7 188 -13.885
38 P7 189 -13.885
38 P7 190 -13.397
38 P7 191 -12.421
38 P7 192 -11.932
38 P7 193 -12.421
38 P7 194 -13.397
38 P7 195 -13.885
38 P7 196 -13.397
38 P7 197 -11.932
38 P7 198 -11.444
38 P7 199 -12.421
38 P7 200 -13.885
38 P7 201 -14.862
38 P7 202 -14.374
38 P7 203 -12.421
38 P7 204 -10.468
38 P7 205 -10.956
38 P7 206 -13.397
38 P7 207 -16.327
38 P7 208 -17.792
38 P7 209 -16.815
38 P7 210 -15.350
38 P7 211 -14.862
38 P7 212 -15.839
38 P7 213 -17.792
38 P7 214 -18.768
38 P7 215 -18.280
38 P7 216 -16.815
38 P7 217 -14.862
38 P7 218 -13.885
38 P7 219 -13.885
38 P7 220 -14.862
38 P7 221 -15.839
38 P7 222 -16.327
38 P7 223 -15.839
38 P7 224 -14.862
38 P7 225 -12.909
38 P7 226 -10.956
38 P7 227 -9.979
38 P7 228 -10.468
38 P7 229 -12.909
38 P7 230 -15.839
38 P7 231 -18.768
38 P7 232 -20.233
38 P7 233 -21.210
38 P7 234 -21.210
38 P7 235 -20.721
38 P7 236 -20.721
38 P7 237 -21.210
38 P7 238 -21.210
38 P7 239 -21.698
38 P7 240 -22.675
38 P7 241 -24.139
38 P7 242 -24.628
38 P7 243 -23.651
38 P7 244 -20.233
38 P7 245 -15.350
38 P7 246 -11.444
38 P7 247 -9.491
38 P7 248 -10.468
38 P7 249 -12.909
38 P7 250 -14.862
38 P7 251 -15.839
38 P7 252 -15.350
38 P7 253 -15.839
38 P7 254 -17.792
38 P7 255 -20.721
# PO2 chan 27
38 PO2 0 0.417
38 PO2 1 -0.071
38 PO2 2 -1.048
38 PO2 3 -3.001
38 PO2 4 -3.977
38 PO2 5 -3.977
38 PO2 6 -3.977
38 PO2 7 -4.954
38 PO2 8 -6.419
38 PO2 9 -7.884
38 PO2 10 -7.884
38 PO2 11 -6.907
38 PO2 12 -5.442
38 PO2 13 -4.466
38 PO2 14 -4.954
38 PO2 15 -5.931
38 PO2 16 -7.884
38 PO2 17 -7.884
38 PO2 18 -6.907
38 PO2 19 -4.954
38 PO2 20 -3.001
38 PO2 21 -2.513
38 PO2 22 -3.001
38 PO2 23 -3.489
38 PO2 24 -3.001
38 PO2 25 -1.048
38 PO2 26 1.882
38 PO2 27 3.347
38 PO2 28 3.347
38 PO2 29 1.394
38 PO2 30 -0.559
38 PO2 31 -1.048
38 PO2 32 0.417
38 PO2 33 1.394
38 PO2 34 1.394
38 PO2 35 -0.559
38 PO2 36 -2.513
38 PO2 37 -3.489
38 PO2 38 -2.513
38 PO2 39 -1.048
38 PO2 40 -0.559
38 PO2 41 -2.513
38 PO2 42 -5.442
38 PO2 43 -7.884
38 PO2 44 -9.349
38 PO2 45 -8.860
38 PO2 46 -8.372
38 PO2 47 -8.372
38 PO2 48 -7.884
38 PO2 49 -6.419
38 PO2 50 -3.489
38 PO2 51 0.417
38 PO2 52 3.835
38 PO2 53 5.300
38 PO2 54 3.835
38 PO2 55 1.882
38 PO2 56 -0.071
38 PO2 57 -0.071
38 PO2 58 1.394
38 PO2 59 2.858
38 PO2 60 3.347
38 PO2 61 2.370
38 PO2 62 0.905
38 PO2 63 -0.559
38 PO2 64 -0.559
38 PO2 65 0.417
38 PO2 66 1.882
38 PO2 67 2.370
38 PO2 68 2.370
38 PO2 69 1.394
38 PO2 70 -0.071
38 PO2 71 -0.559
38 PO2 72 -1.048
38 PO2 73 -0.559
38 PO2 74 -0.071
38 PO2 75 0.905
38 PO2 76 1.882
38 PO2 77 1.394
38 PO2 78 -0.071
38 PO2 79 -2.513
38 PO2 80 -4.466
38 PO2 81 -3.977
38 PO2 82 -1.536
38 PO2 83 1.394
38 PO2 84 1.882
38 PO2 85 0.417
38 PO2 86 -3.001
38 PO2 87 -4.466
38 PO2 88 -3.489
38 PO2 89 -0.559
38 PO2 90 2.370
38 PO2 91 3.347
38 PO2 92 2.858
38 PO2 93 1.394
38 PO2 94 0.905
38 PO2 95 -0.071
38 PO2 96 -2.024
38 PO2 97 -5.442
38 PO2 98 -7.884
38 PO2 99 -8.372
38 PO2 100 -5.442
38 PO2 101 -2.024
38 PO2 102 0.417
38 PO2 103 -0.071
38 PO2 104 -3.001
38 PO2 105 -5.442
38 PO2 106 -5.931
38 PO2 107 -3.977
38 PO2 108 -1.536
38 PO2 109 -0.071
38 PO2 110 -0.071
38 PO2 111 -1.048
38 PO2 112 -1.048
38 PO2 113 -1.048
38 PO2 114 -0.559
38 PO2 115 -1.048
38 PO2 116 -1.536
38 PO2 117 -1.536
38 PO2 118 -0.559
38 PO2 119 0.905
38 PO2 120 1.394
38 PO2 121 0.417
38 PO2 122 -1.536
38 PO2 123 -3.489
38 PO2 124 -3.977
38 PO2 125 -3.001
38 PO2 126 -2.513
38 PO2 127 -2.024
38 PO2 128 -2.024
38 PO2 129 -2.513
38 PO2 130 -2.024
38 PO2 131 -1.536
38 PO2 132 -1.536
38 PO2 133 -3.001
38 PO2 134 -4.466
38 PO2 135 -5.931
38 PO2 136 -6.419
38 PO2 137 -5.442
38 PO2 138 -5.442
38 PO2 139 -6.419
38 PO2 140 -7.884
38 PO2 141 -8.860
38 PO2 142 -8.372
38 PO2 143 -7.395
38 PO2 144 -6.419
38 PO2 145 -5.931
38 PO2 146 -6.419
38 PO2 147 -7.884
38 PO2 148 -8.860
38 PO2 149 -9.349
38 PO2 150 -8.860
38 PO2 151 -7.884
38 PO2 152 -6.419
38 PO2 153 -4.466
38 PO2 154 -2.024
38 PO2 155 -0.071
38 PO2 156 -0.071
38 PO2 157 -1.536
38 PO2 158 -3.977
38 PO2 159 -6.419
38 PO2 160 -7.395
38 PO2 161 -6.419
38 PO2 162 -4.954
38 PO2 163 -3.001
38 PO2 164 -2.513
38 PO2 165 -2.513
38 PO2 166 -3.001
38 PO2 167 -3.489
38 PO2 168 -3.489
38 PO2 169 -3.489
38 PO2 170 -2.024
38 PO2 171 -0.071
38 PO2 172 1.882
38 PO2 173 3.347
38 PO2 174 3.347
38 PO2 175 2.370
38 PO2 176 0.417
38 PO2 177 -0.559
