# co2a0000439.rd
# 120 trials, 64 chans, 416 samples 368 post_stim samples
# 3.906000 msecs uV
# S2 nomatch, trial 69
# FP1 chan 0
69 FP1 0 -8.433
69 FP1 1 -7.945
69 FP1 2 -5.503
69 FP1 3 -2.574
69 FP1 4 -0.132
69 FP1 5 2.309
69 FP1 6 4.262
69 FP1 7 6.215
69 FP1 8 7.192
69 FP1 9 3.286
69 FP1 10 -4.038
69 FP1 11 -11.363
69 FP1 12 -13.804
69 FP1 13 -8.921
69 FP1 14 0.844
69 FP1 15 6.704
69 FP1 16 3.774
69 FP1 17 -6.480
69 FP1 18 -16.734
69 FP1 19 -19.663
69 FP1 20 -13.804
69 FP1 21 -4.038
69 FP1 22 2.309
69 FP1 23 1.821
69 FP1 24 -1.597
69 FP1 25 -5.015
69 FP1 26 -5.503
69 FP1 27 -5.503
69 FP1 28 -7.456
69 FP1 29 -9.410
69 FP1 30 -7.456
69 FP1 31 -0.621
69 FP1 32 7.192
69 FP1 33 9.633
69 FP1 34 4.751
69 FP1 35 -3.550
69 FP1 36 -7.945
69 FP1 37 -4.038
69 FP1 38 6.215
69 FP1 39 14.028
69 FP1 40 14.516
69 FP1 41 7.192
69 FP1 42 -2.085
69 FP1 43 -7.456
69 FP1 44 -6.968
69 FP1 45 -3.550
69 FP1 46 0.356
69 FP1 47 2.309
69 FP1 48 2.797
69 FP1 49 2.797
69 FP1 50 3.286
69 FP1 51 4.262
69 FP1 52 4.751
69 FP1 53 3.774
69 FP1 54 -0.621
69 FP1 55 -7.456
69 FP1 56 -14.292
69 FP1 57 -18.199
69 FP1 58 -16.246
69 FP1 59 -9.410
69 FP1 60 -0.132
69 FP1 61 6.704
69 FP1 62 9.633
69 FP1 63 9.145
69 FP1 64 6.704
69 FP1 65 5.727
69 FP1 66 6.215
69 FP1 67 5.727
69 FP1 68 4.751
69 FP1 69 3.286
69 FP1 70 2.309
69 FP1 71 2.797
69 FP1 72 3.774
69 FP1 73 3.774
69 FP1 74 1.821
69 FP1 75 -0.132
69 FP1 76 0.356
69 FP1 77 4.751
69 FP1 78 10.610
69 FP1 79 14.028
69 FP1 80 11.587
69 FP1 81 5.239
69 FP1 82 -1.597
69 FP1 83 -4.527
69 FP1 84 -1.597
69 FP1 85 3.774
69 FP1 86 8.169
69 FP1 87 11.098
69 FP1 88 11.587
69 FP1 89 11.587
69 FP1 90 10.610
69 FP1 91 7.192
69 FP1 92 0.844
69 FP1 93 -5.015
69 FP1 94 -6.480
69 FP1 95 -2.574
69 FP1 96 5.239
69 FP1 97 11.587
69 FP1 98 14.516
69 FP1 99 14.516
69 FP1 100 14.028
69 FP1 101 15.493
69 FP1 102 16.958
69 FP1 103 15.981
69 FP1 104 10.610
69 FP1 105 3.286
69 FP1 106 -0.132
69 FP1 107 2.797
69 FP1 108 11.587
69 FP1 109 21.352
69 FP1 110 26.723
69 FP1 111 25.258
69 FP1 112 18.422
69 FP1 113 10.610
69 FP1 114 7.680
69 FP1 115 9.633
69 FP1 116 13.051
69 FP1 117 13.540
69 FP1 118 9.633
69 FP1 119 2.309
69 FP1 120 -3.062
69 FP1 121 -3.062
69 FP1 122 2.797
69 FP1 123 9.633
69 FP1 124 12.563
69 FP1 125 7.680
69 FP1 126 -2.085
69 FP1 127 -11.363
69 FP1 128 -13.804
69 FP1 129 -7.945
69 FP1 130 1.821
69 FP1 131 9.633
69 FP1 132 10.610
69 FP1 133 6.704
69 FP1 134 1.821
69 FP1 135 0.356
69 FP1 136 1.821
69 FP1 137 3.286
69 FP1 138 2.309
69 FP1 139 -0.621
69 FP1 140 -2.574
69 FP1 141 0.356
69 FP1 142 8.169
69 FP1 143 15.981
69 FP1 144 19.399
69 FP1 145 15.981
69 FP1 146 8.169
69 FP1 147 0.844
69 FP1 148 -2.574
69 FP1 149 0.356
69 FP1 150 6.704
69 FP1 151 15.004
69 FP1 152 21.840
69 FP1 153 24.282
69 FP1 154 20.864
69 FP1 155 13.051
69 FP1 156 3.774
69 FP1 157 -1.597
69 FP1 158 -2.085
69 FP1 159 0.844
69 FP1 160 2.309
69 FP1 161 1.333
69 FP1 162 -1.597
69 FP1 163 -3.062
69 FP1 164 -2.085
69 FP1 165 0.356
69 FP1 166 0.844
69 FP1 167 -1.597
69 FP1 168 -5.015
69 FP1 169 -6.480
69 FP1 170 -5.015
69 FP1 171 -1.109
69 FP1 172 3.286
69 FP1 173 7.192
69 FP1 174 9.633
69 FP1 175 10.122
69 FP1 176 9.145
69 FP1 177 7.192
69 FP1 178 4.751
69 FP1 179 2.797
69 FP1 180 1.821
69 FP1 181 1.333
69 FP1 182 0.356
69 FP1 183 -1.109
69 FP1 184 -3.062
69 FP1 185 -3.550
69 FP1 186 -2.574
69 FP1 187 0.356
69 FP1 188 4.262
69 FP1 189 6.704
69 FP1 190 7.192
69 FP1 191 5.727
69 FP1 192 3.286
69 FP1 193 0.844
69 FP1 194 -2.085
69 FP1 195 -5.992
69 FP1 196 -10.386
69 FP1 197 -11.363
69 FP1 198 -6.480
69 FP1 199 3.774
69 FP1 200 14.516
69 FP1 201 20.376
69 FP1 202 17.446
69 FP1 203 8.657
69 FP1 204 1.821
69 FP1 205 0.844
69 FP1 206 6.215
69 FP1 207 12.075
69 FP1 208 11.098
69 FP1 209 3.286
69 FP1 210 -7.456
69 FP1 211 -14.781
69 FP1 212 -14.292
69 FP1 213 -7.456
69 FP1 214 1.333
69 FP1 215 5.239
69 FP1 216 3.774
69 FP1 217 -0.621
69 FP1 218 -4.038
69 FP1 219 -3.062
69 FP1 220 1.333
69 FP1 221 4.751
69 FP1 222 4.262
69 FP1 223 -0.132
69 FP1 224 -5.015
69 FP1 225 -6.480
69 FP1 226 -3.062
69 FP1 227 1.821
69 FP1 228 6.215
69 FP1 229 7.680
69 FP1 230 6.215
69 FP1 231 3.774
69 FP1 232 -0.621
69 FP1 233 -6.480
69 FP1 234 -14.292
69 FP1 235 -21.617
69 FP1 236 -26.011
69 FP1 237 -24.058
69 FP1 238 -14.781
69 FP1 239 -2.574
69 FP1 240 6.215
69 FP1 241 7.192
69 FP1 242 0.844
69 FP1 243 -8.433
69 FP1 244 -13.316
69 FP1 245 -10.386
69 FP1 246 -3.062
69 FP1 247 2.797
69 FP1 248 2.797
69 FP1 249 -2.574
69 FP1 250 -7.945
69 FP1 251 -9.410
69 FP1 252 -5.015
69 FP1 253 0.844
69 FP1 254 2.797
69 FP1 255 -1.109
# FP2 chan 1
69 FP2 0 -8.199
69 FP2 1 -8.199
69 FP2 2 -4.781
69 FP2 3 0.102
69 FP2 4 3.520
69 FP2 5 4.496
69 FP2 6 2.543
69 FP2 7 0.102
69 FP2 8 -1.363
69 FP2 9 -1.363
69 FP2 10 -0.387
69 FP2 11 -0.387
69 FP2 12 -1.363
69 FP2 13 -2.828
69 FP2 14 -2.340
69 FP2 15 -0.387
69 FP2 16 0.102
69 FP2 17 -2.340
69 FP2 18 -8.199
69 FP2 19 -14.547
69 FP2 20 -16.500
69 FP2 21 -11.617
69 FP2 22 -3.316
69 FP2 23 3.031
69 FP2 24 3.520
69 FP2 25 -1.851
69 FP2 26 -8.199
69 FP2 27 -10.152
69 FP2 28 -6.246
69 FP2 29 -0.387
69 FP2 30 2.055
69 FP2 31 -1.363
69 FP2 32 -7.711
69 FP2 33 -11.129
69 FP2 34 -7.711
69 FP2 35 1.078
69 FP2 36 8.403
69 FP2 37 9.867
69 FP2 38 5.961
69 FP2 39 1.078
69 FP2 40 0.102
69 FP2 41 3.520
69 FP2 42 7.426
69 FP2 43 7.914
69 FP2 44 4.496
69 FP2 45 -1.363
69 FP2 46 -4.781
69 FP2 47 -4.293
69 FP2 48 -1.363
69 FP2 49 0.102
69 FP2 50 1.567
69 FP2 51 2.543
69 FP2 52 4.008
69 FP2 53 4.985
69 FP2 54 3.520
69 FP2 55 -0.875
69 FP2 56 -6.734
69 FP2 57 -9.176
69 FP2 58 -6.734
69 FP2 59 -0.387
69 FP2 60 4.008
69 FP2 61 4.496
69 FP2 62 1.078
69 FP2 63 -0.875
69 FP2 64 1.078
69 FP2 65 6.449
69 FP2 66 10.356
69 FP2 67 8.891
69 FP2 68 3.031
69 FP2 69 -2.340
69 FP2 70 -2.340
69 FP2 71 2.543
69 FP2 72 7.426
69 FP2 73 8.403
69 FP2 74 4.008
69 FP2 75 -0.875
69 FP2 76 -1.851
69 FP2 77 2.543
69 FP2 78 8.891
69 FP2 79 11.820
69 FP2 80 9.867
69 FP2 81 4.496
69 FP2 82 1.078
69 FP2 83 1.567
69 FP2 84 4.496
69 FP2 85 7.426
69 FP2 86 7.914
69 FP2 87 8.403
69 FP2 88 10.356
69 FP2 89 14.262
69 FP2 90 17.192
69 FP2 91 17.192
69 FP2 92 13.774
69 FP2 93 9.379
69 FP2 94 6.938
69 FP2 95 6.938
69 FP2 96 8.891
69 FP2 97 10.844
69 FP2 98 11.332
69 FP2 99 11.820
69 FP2 100 13.285
69 FP2 101 14.750
69 FP2 102 16.703
69 FP2 103 17.192
69 FP2 104 16.215
69 FP2 105 13.285
69 FP2 106 11.332
69 FP2 107 10.844
69 FP2 108 12.797
69 FP2 109 17.192
69 FP2 110 22.563
69 FP2 111 25.492
69 FP2 112 25.004
69 FP2 113 21.586
69 FP2 114 15.727
69 FP2 115 9.867
69 FP2 116 4.496
69 FP2 117 0.590
69 FP2 118 -1.363
69 FP2 119 -0.875
69 FP2 120 3.031
69 FP2 121 8.891
69 FP2 122 13.285
69 FP2 123 13.774
69 FP2 124 9.379
69 FP2 125 1.567
69 FP2 126 -4.781
69 FP2 127 -6.734
69 FP2 128 -3.316
69 FP2 129 2.543
69 FP2 130 7.914
69 FP2 131 10.356
69 FP2 132 10.844
69 FP2 133 9.867
69 FP2 134 9.379
69 FP2 135 8.891
69 FP2 136 7.914
69 FP2 137 5.961
69 FP2 138 2.543
69 FP2 139 -0.875
69 FP2 140 -1.851
69 FP2 141 0.102
69 FP2 142 5.961
69 FP2 143 12.309
69 FP2 144 16.215
69 FP2 145 15.238
69 FP2 146 9.379
69 FP2 147 3.520
69 FP2 148 2.055
69 FP2 149 5.961
69 FP2 150 13.774
69 FP2 151 19.633
69 FP2 152 21.586
69 FP2 153 18.656
69 FP2 154 14.262
69 FP2 155 9.867
69 FP2 156 7.914
69 FP2 157 6.449
69 FP2 158 5.473
69 FP2 159 3.520
69 FP2 160 1.078
69 FP2 161 -0.387
69 FP2 162 0.102
69 FP2 163 1.567
69 FP2 164 3.031
69 FP2 165 2.055
69 FP2 166 0.102
69 FP2 167 -2.828
69 FP2 168 -4.781
69 FP2 169 -4.293
69 FP2 170 -1.851
69 FP2 171 1.078
69 FP2 172 4.008
69 FP2 173 4.985
69 FP2 174 6.449
69 FP2 175 7.914
69 FP2 176 9.379
69 FP2 177 8.891
69 FP2 178 6.449
69 FP2 179 2.543
69 FP2 180 -1.363
69 FP2 181 -2.828
69 FP2 182 -2.340
69 FP2 183 0.102
69 FP2 184 3.031
69 FP2 185 6.938
69 FP2 186 9.379
69 FP2 187 10.356
69 FP2 188 8.403
69 FP2 189 4.008
69 FP2 190 -1.363
69 FP2 191 -4.293
69 FP2 192 -1.851
69 FP2 193 4.008
69 FP2 194 10.356
69 FP2 195 12.797
69 FP2 196 9.867
69 FP2 197 4.496
69 FP2 198 1.078
69 FP2 199 2.055
69 FP2 200 5.473
69 FP2 201 8.891
69 FP2 202 9.379
69 FP2 203 7.914
69 FP2 204 6.938
69 FP2 205 7.914
69 FP2 206 10.356
69 FP2 207 10.844
69 FP2 208 6.938
69 FP2 209 0.590
69 FP2 210 -5.269
69 FP2 211 -8.199
69 FP2 212 -7.222
69 FP2 213 -4.293
69 FP2 214 -0.875
69 FP2 215 1.078
69 FP2 216 1.567
69 FP2 217 -0.875
69 FP2 218 -4.781
69 FP2 219 -10.152
69 FP2 220 -13.570
69 FP2 221 -13.082
69 FP2 222 -7.711
69 FP2 223 0.102
69 FP2 224 5.961
69 FP2 225 5.961
69 FP2 226 1.078
69 FP2 227 -4.781
69 FP2 228 -7.711
69 FP2 229 -6.246
69 FP2 230 -2.828
69 FP2 231 -2.340
69 FP2 232 -6.734
69 FP2 233 -12.105
69 FP2 234 -15.035
69 FP2 235 -13.082
69 FP2 236 -8.199
69 FP2 237 -5.269
69 FP2 238 -5.269
69 FP2 239 -7.222
69 FP2 240 -8.199
69 FP2 241 -7.222
69 FP2 242 -5.758
69 FP2 243 -5.269
69 FP2 244 -5.758
69 FP2 245 -3.316
69 FP2 246 3.520
69 FP2 247 12.309
69 FP2 248 16.703
69 FP2 249 11.820
69 FP2 250 1.567
69 FP2 251 -7.222
69 FP2 252 -7.711
69 FP2 253 0.102
69 FP2 254 8.891
69 FP2 255 10.844
# F7 chan 2
69 F7 0 -0.834
69 F7 1 1.119
69 F7 2 1.119
69 F7 3 -1.322
69 F7 4 -3.764
69 F7 5 -6.694
69 F7 6 -7.670
69 F7 7 -6.205
69 F7 8 -3.276
69 F7 9 -0.346
69 F7 10 0.631
69 F7 11 -1.322
69 F7 12 -4.252
69 F7 13 -7.182
69 F7 14 -8.158
69 F7 15 -8.647
69 F7 16 -10.111
69 F7 17 -13.041
69 F7 18 -16.459
69 F7 19 -18.412
69 F7 20 -16.947
69 F7 21 -12.065
69 F7 22 -7.182
69 F7 23 -4.740
69 F7 24 -5.229
69 F7 25 -7.182
69 F7 26 -8.158
69 F7 27 -6.694
69 F7 28 -2.299
69 F7 29 2.096
69 F7 30 5.025
69 F7 31 5.514
69 F7 32 4.537
69 F7 33 4.049
69 F7 34 4.049
69 F7 35 5.025
69 F7 36 6.490
69 F7 37 6.978
69 F7 38 7.467
69 F7 39 6.978
69 F7 40 7.467
69 F7 41 7.467
69 F7 42 6.978
69 F7 43 4.537
69 F7 44 0.142
69 F7 45 -4.740
69 F7 46 -8.158
69 F7 47 -9.135
69 F7 48 -9.623
69 F7 49 -10.600
69 F7 50 -12.065
69 F7 51 -14.018
69 F7 52 -15.971
69 F7 53 -16.459
69 F7 54 -16.947
69 F7 55 -18.412
69 F7 56 -20.854
69 F7 57 -23.295
69 F7 58 -23.295
69 F7 59 -19.877
69 F7 60 -13.041
69 F7 61 -5.717
69 F7 62 -0.346
69 F7 63 2.584
69 F7 64 2.584
69 F7 65 0.631
69 F7 66 -1.811
69 F7 67 -3.276
69 F7 68 -2.787
69 F7 69 -0.346
69 F7 70 2.584
69 F7 71 5.025
69 F7 72 4.537
69 F7 73 2.096
69 F7 74 -1.811
69 F7 75 -4.740
69 F7 76 -5.229
69 F7 77 -2.787
69 F7 78 2.096
69 F7 79 6.002
69 F7 80 7.467
69 F7 81 5.025
69 F7 82 0.631
69 F7 83 -3.276
69 F7 84 -4.740
69 F7 85 -3.276
69 F7 86 0.142
69 F7 87 3.072
69 F7 88 2.584
69 F7 89 -0.346
69 F7 90 -4.740
69 F7 91 -8.647
69 F7 92 -9.135
69 F7 93 -7.182
69 F7 94 -3.276
69 F7 95 -0.834
69 F7 96 -0.346
69 F7 97 -2.299
69 F7 98 -3.764
69 F7 99 -3.276
69 F7 100 -1.322
69 F7 101 0.631
69 F7 102 1.119
69 F7 103 -1.811
69 F7 104 -5.229
69 F7 105 -7.182
69 F7 106 -5.229
69 F7 107 -0.834
69 F7 108 4.049
69 F7 109 6.490
69 F7 110 6.490
69 F7 111 4.537
69 F7 112 3.072
69 F7 113 1.607
69 F7 114 -0.346
69 F7 115 -2.787
69 F7 116 -7.182
69 F7 117 -11.088
69 F7 118 -13.041
69 F7 119 -11.088
69 F7 120 -6.694
69 F7 121 -1.811
69 F7 122 0.631
69 F7 123 -1.322
69 F7 124 -5.717
69 F7 125 -11.088
69 F7 126 -15.971
69 F7 127 -18.901
69 F7 128 -19.877
69 F7 129 -18.901
69 F7 130 -14.018
69 F7 131 -8.158
69 F7 132 -3.276
69 F7 133 -1.322
69 F7 134 -4.252
69 F7 135 -9.135
69 F7 136 -12.553
69 F7 137 -12.065
69 F7 138 -8.647
69 F7 139 -4.740
69 F7 140 -3.276
69 F7 141 -4.252
69 F7 142 -5.229
69 F7 143 -3.764
69 F7 144 -0.834
69 F7 145 1.119
69 F7 146 -0.346
69 F7 147 -5.229
69 F7 148 -9.135
69 F7 149 -11.088
69 F7 150 -9.135
69 F7 151 -5.717
69 F7 152 -3.764
69 F7 153 -5.229
69 F7 154 -9.135
69 F7 155 -12.065
69 F7 156 -12.553
69 F7 157 -10.600
69 F7 158 -7.670
69 F7 159 -6.694
69 F7 160 -7.670
69 F7 161 -10.111
69 F7 162 -13.041
69 F7 163 -14.994
69 F7 164 -15.971
69 F7 165 -14.506
69 F7 166 -13.041
69 F7 167 -11.576
69 F7 168 -10.600
69 F7 169 -9.623
69 F7 170 -9.135
69 F7 171 -6.694
69 F7 172 -3.764
69 F7 173 0.142
69 F7 174 2.584
69 F7 175 3.072
69 F7 176 1.607
69 F7 177 -0.834
69 F7 178 -1.811
69 F7 179 -1.811
69 F7 180 -0.346
69 F7 181 1.119
69 F7 182 2.096
69 F7 183 2.584
69 F7 184 2.584
69 F7 185 3.072
69 F7 186 2.096
69 F7 187 0.142
69 F7 188 -3.276
69 F7 189 -6.205
69 F7 190 -6.694
69 F7 191 -3.764
69 F7 192 -0.346
69 F7 193 1.119
69 F7 194 -1.322
69 F7 195 -6.205
69 F7 196 -9.135
69 F7 197 -6.694
69 F7 198 -0.346
69 F7 199 6.002
69 F7 200 7.955
69 F7 201 3.560
69 F7 202 -2.787
69 F7 203 -7.182
69 F7 204 -6.205
69 F7 205 -2.787
69 F7 206 0.142
69 F7 207 -0.346
69 F7 208 -3.276
69 F7 209 -6.205
69 F7 210 -7.182
69 F7 211 -5.717
69 F7 212 -5.229
69 F7 213 -5.717
69 F7 214 -6.694
69 F7 215 -6.205
69 F7 216 -3.764
69 F7 217 -0.346
69 F7 218 1.607
69 F7 219 -0.346
69 F7 220 -4.252
69 F7 221 -7.670
69 F7 222 -7.182
69 F7 223 -2.787
69 F7 224 3.072
69 F7 225 6.978
69 F7 226 6.002
69 F7 227 1.119
69 F7 228 -4.252
69 F7 229 -6.694
69 F7 230 -5.717
69 F7 231 -4.740
69 F7 232 -6.694
69 F7 233 -13.041
69 F7 234 -21.342
69 F7 235 -27.201
69 F7 236 -27.690
69 F7 237 -23.295
69 F7 238 -16.947
69 F7 239 -12.553
69 F7 240 -12.065
69 F7 241 -15.483
69 F7 242 -18.901
69 F7 243 -19.877
69 F7 244 -18.412
69 F7 245 -15.483
69 F7 246 -13.529
69 F7 247 -13.041
69 F7 248 -13.529
69 F7 249 -14.018
69 F7 250 -13.041
69 F7 251 -10.600
69 F7 252 -7.670
69 F7 253 -4.740
69 F7 254 -2.787
69 F7 255 -1.811
# F8 chan 3
69 F8 0 -4.476
69 F8 1 0.407
69 F8 2 4.801
69 F8 3 5.778
69 F8 4 2.360
69 F8 5 -2.523
69 F8 6 -4.964
69 F8 7 -3.988
69 F8 8 -0.570
69 F8 9 2.360
69 F8 10 2.848
69 F8 11 0.407
69 F8 12 -2.523
69 F8 13 -3.988
69 F8 14 -3.011
69 F8 15 -2.035
69 F8 16 -3.011
69 F8 17 -6.429
69 F8 18 -10.824
69 F8 19 -13.265
69 F8 20 -11.800
69 F8 21 -6.917
69 F8 22 -1.546
69 F8 23 0.895
69 F8 24 -0.570
69 F8 25 -3.988
69 F8 26 -5.941
69 F8 27 -4.476
69 F8 28 -1.058
69 F8 29 1.872
69 F8 30 1.872
69 F8 31 -1.058
69 F8 32 -2.523
69 F8 33 -1.058
69 F8 34 3.825
69 F8 35 10.173
69 F8 36 14.079
69 F8 37 13.590
69 F8 38 9.196
69 F8 39 5.290
69 F8 40 3.825
69 F8 41 5.778
69 F8 42 9.196
69 F8 43 11.149
69 F8 44 10.661
69 F8 45 7.243
69 F8 46 3.337
69 F8 47 0.895
69 F8 48 -2.035
69 F8 49 -3.499
69 F8 50 -3.988
69 F8 51 -2.523
69 F8 52 0.895
69 F8 53 4.801
69 F8 54 5.778
69 F8 55 2.360
69 F8 56 -3.988
69 F8 57 -10.335
69 F8 58 -12.288
69 F8 59 -9.359
69 F8 60 -3.988
69 F8 61 0.407
69 F8 62 2.360
69 F8 63 3.825
69 F8 64 5.290
69 F8 65 7.731
69 F8 66 8.708
69 F8 67 6.755
69 F8 68 2.848
69 F8 69 -0.570
69 F8 70 -1.546
69 F8 71 -0.081
69 F8 72 1.383
69 F8 73 1.872
69 F8 74 0.407
69 F8 75 -0.570
69 F8 76 0.407
69 F8 77 2.848
69 F8 78 4.801
69 F8 79 5.290
69 F8 80 3.825
69 F8 81 1.872
69 F8 82 1.383
69 F8 83 3.337
69 F8 84 6.266
69 F8 85 9.684
69 F8 86 12.126
69 F8 87 14.079
69 F8 88 14.567
69 F8 89 14.079
69 F8 90 13.102
69 F8 91 10.661
69 F8 92 8.219
69 F8 93 5.290
69 F8 94 2.848
69 F8 95 1.872
69 F8 96 2.848
69 F8 97 6.266
69 F8 98 11.149
69 F8 99 15.055
69 F8 100 16.032
69 F8 101 13.102
69 F8 102 8.708
69 F8 103 4.801
69 F8 104 2.360
69 F8 105 0.895
69 F8 106 -0.081
69 F8 107 -1.058
69 F8 108 -0.081
69 F8 109 4.313
69 F8 110 11.149
69 F8 111 17.008
69 F8 112 17.008
69 F8 113 10.661
69 F8 114 1.872
69 F8 115 -4.964
69 F8 116 -7.406
69 F8 117 -6.429
69 F8 118 -3.988
69 F8 119 -3.011
69 F8 120 -2.523
69 F8 121 -2.035
69 F8 122 -0.081
69 F8 123 1.872
69 F8 124 1.872
69 F8 125 0.407
69 F8 126 -2.035
69 F8 127 -3.499
69 F8 128 -2.523
69 F8 129 -0.081
69 F8 130 3.825
69 F8 131 7.243
69 F8 132 10.173
69 F8 133 11.149
69 F8 134 10.661
69 F8 135 7.731
69 F8 136 3.337
69 F8 137 -1.058
69 F8 138 -4.476
69 F8 139 -6.429
69 F8 140 -7.406
69 F8 141 -6.429
69 F8 142 -3.988
69 F8 143 -1.058
69 F8 144 0.895
69 F8 145 0.895
69 F8 146 -0.570
69 F8 147 -1.546
69 F8 148 -1.546
69 F8 149 -0.570
69 F8 150 0.407
69 F8 151 0.407
69 F8 152 -0.570
69 F8 153 -1.546
69 F8 154 -2.035
69 F8 155 -1.546
69 F8 156 -2.035
69 F8 157 -3.499
69 F8 158 -5.941
69 F8 159 -8.382
69 F8 160 -9.359
69 F8 161 -9.359
69 F8 162 -8.870
69 F8 163 -9.359
69 F8 164 -11.312
69 F8 165 -13.265
69 F8 166 -13.753
69 F8 167 -12.777
69 F8 168 -10.824
69 F8 169 -8.382
69 F8 170 -7.894
69 F8 171 -7.894
69 F8 172 -7.894
69 F8 173 -4.964
69 F8 174 0.407
69 F8 175 6.266
69 F8 176 10.661
69 F8 177 12.126
69 F8 178 9.684
69 F8 179 5.778
69 F8 180 2.848
69 F8 181 0.895
69 F8 182 -0.081
69 F8 183 -0.081
69 F8 184 -0.081
69 F8 185 1.383
69 F8 186 3.337
69 F8 187 4.801
69 F8 188 3.825
69 F8 189 -0.081
69 F8 190 -4.476
69 F8 191 -5.941
69 F8 192 -2.523
69 F8 193 2.848
69 F8 194 7.243
69 F8 195 8.219
69 F8 196 5.778
69 F8 197 2.360
69 F8 198 0.895
69 F8 199 1.383
69 F8 200 2.360
69 F8 201 2.360
69 F8 202 1.383
69 F8 203 1.872
69 F8 204 4.801
69 F8 205 8.708
69 F8 206 11.637
69 F8 207 11.637
69 F8 208 8.708
69 F8 209 4.313
69 F8 210 0.895
69 F8 211 -2.035
69 F8 212 -4.476
69 F8 213 -5.941
69 F8 214 -6.429
69 F8 215 -4.476
69 F8 216 -2.035
69 F8 217 0.407
69 F8 218 -0.081
69 F8 219 -3.011
69 F8 220 -6.917
69 F8 221 -7.894
69 F8 222 -5.941
69 F8 223 -2.035
69 F8 224 0.895
69 F8 225 1.383
69 F8 226 -0.081
69 F8 227 -1.546
69 F8 228 -0.570
69 F8 229 0.895
69 F8 230 0.895
69 F8 231 -3.011
69 F8 232 -8.382
69 F8 233 -12.777
69 F8 234 -12.777
69 F8 235 -8.382
69 F8 236 -3.988
69 F8 237 -1.546
69 F8 238 -2.035
69 F8 239 -3.499
69 F8 240 -3.499
69 F8 241 -2.035
69 F8 242 -0.081
69 F8 243 0.407
69 F8 244 0.407
69 F8 245 1.383
69 F8 246 4.313
69 F8 247 9.196
69 F8 248 11.637
69 F8 249 10.173
69 F8 250 5.290
69 F8 251 0.895
69 F8 252 1.383
69 F8 253 5.778
69 F8 254 10.173
69 F8 255 11.149
# AF1 chan 4
69 AF1 0 -0.997
69 AF1 1 -3.927
69 AF1 2 -4.415
69 AF1 3 -1.973
69 AF1 4 0.956
69 AF1 5 2.421
69 AF1 6 0.956
69 AF1 7 -0.997
69 AF1 8 -0.997
69 AF1 9 1.444
69 AF1 10 4.374
69 AF1 11 5.351
69 AF1 12 3.886
69 AF1 13 1.444
69 AF1 14 -0.020
69 AF1 15 -0.020
69 AF1 16 -0.509
69 AF1 17 -3.927
69 AF1 18 -10.763
69 AF1 19 -16.622
69 AF1 20 -18.575
69 AF1 21 -13.692
69 AF1 22 -5.880
69 AF1 23 0.468
69 AF1 24 1.444
69 AF1 25 -1.973
69 AF1 26 -6.368
69 AF1 27 -7.345
69 AF1 28 -4.903
69 AF1 29 -0.997
69 AF1 30 0.468
69 AF1 31 -1.485
69 AF1 32 -5.391
69 AF1 33 -7.345
69 AF1 34 -5.880
69 AF1 35 -0.997
69 AF1 36 4.374
69 AF1 37 6.327
69 AF1 38 4.862
69 AF1 39 0.956
69 AF1 40 -1.973
69 AF1 41 -2.950
69 AF1 42 -0.997
69 AF1 43 1.933
69 AF1 44 3.886
69 AF1 45 3.886
69 AF1 46 2.909
69 AF1 47 1.444
69 AF1 48 0.468
69 AF1 49 -0.509
69 AF1 50 -0.997
69 AF1 51 -0.020
69 AF1 52 1.444
69 AF1 53 3.398
69 AF1 54 3.886
69 AF1 55 2.421
69 AF1 56 -0.509
69 AF1 57 -4.415
69 AF1 58 -5.880
69 AF1 59 -4.903
69 AF1 60 -0.997
69 AF1 61 3.398
69 AF1 62 7.304
69 AF1 63 9.745
69 AF1 64 10.234
69 AF1 65 9.745
69 AF1 66 7.304
69 AF1 67 4.374
69 AF1 68 1.444
69 AF1 69 -0.020
69 AF1 70 0.468
69 AF1 71 2.421
69 AF1 72 4.374
69 AF1 73 4.862
69 AF1 74 3.886
69 AF1 75 2.909
69 AF1 76 3.398
69 AF1 77 5.351
69 AF1 78 7.304
69 AF1 79 8.280
69 AF1 80 6.816
69 AF1 81 4.862
69 AF1 82 2.909
69 AF1 83 3.398
69 AF1 84 4.862
69 AF1 85 5.839
69 AF1 86 6.327
69 AF1 87 5.839
69 AF1 88 5.351
69 AF1 89 5.351
69 AF1 90 4.862
69 AF1 91 3.886
69 AF1 92 3.398
69 AF1 93 3.398
69 AF1 94 4.862
69 AF1 95 7.792
69 AF1 96 10.234
69 AF1 97 12.187
69 AF1 98 12.187
69 AF1 99 11.698
69 AF1 100 12.187
69 AF1 101 13.652
69 AF1 102 14.628
69 AF1 103 14.628
69 AF1 104 13.163
69 AF1 105 11.698
69 AF1 106 12.187
69 AF1 107 14.140
69 AF1 108 17.069
69 AF1 109 18.534
69 AF1 110 19.023
69 AF1 111 18.534
69 AF1 112 18.534
69 AF1 113 19.999
69 AF1 114 20.487
69 AF1 115 19.023
69 AF1 116 14.140
69 AF1 117 7.792
69 AF1 118 2.909
69 AF1 119 1.933
69 AF1 120 4.862
69 AF1 121 9.745
69 AF1 122 12.187
69 AF1 123 11.210
69 AF1 124 6.816
69 AF1 125 0.956
69 AF1 126 -3.438
69 AF1 127 -5.391
69 AF1 128 -4.903
69 AF1 129 -3.438
69 AF1 130 -0.020
69 AF1 131 4.374
69 AF1 132 9.257
69 AF1 133 11.698
69 AF1 134 10.234
69 AF1 135 4.374
69 AF1 136 -2.950
69 AF1 137 -6.856
69 AF1 138 -5.391
69 AF1 139 0.468
69 AF1 140 5.839
69 AF1 141 8.769
69 AF1 142 9.745
69 AF1 143 10.722
69 AF1 144 13.652
69 AF1 145 17.558
69 AF1 146 18.534
69 AF1 147 16.093
69 AF1 148 11.210
69 AF1 149 8.280
69 AF1 150 10.234
69 AF1 151 15.116
69 AF1 152 19.023
69 AF1 153 18.534
69 AF1 154 14.628
69 AF1 155 9.745
69 AF1 156 7.304
69 AF1 157 8.769
69 AF1 158 11.210
69 AF1 159 11.698
69 AF1 160 9.257
69 AF1 161 4.862
69 AF1 162 1.444
69 AF1 163 -1.485
69 AF1 164 -3.438
69 AF1 165 -5.880
69 AF1 166 -7.345
69 AF1 167 -6.368
69 AF1 168 -3.438
69 AF1 169 0.468
69 AF1 170 2.421
69 AF1 171 2.421
69 AF1 172 0.468
69 AF1 173 -0.997
69 AF1 174 -0.997
69 AF1 175 0.956
69 AF1 176 2.909
69 AF1 177 3.398
69 AF1 178 1.444
69 AF1 179 -0.509
69 AF1 180 -1.485
69 AF1 181 -1.973
69 AF1 182 -1.973
69 AF1 183 -3.438
69 AF1 184 -5.391
69 AF1 185 -6.856
69 AF1 186 -6.368
69 AF1 187 -3.927
69 AF1 188 -1.973
69 AF1 189 -2.462
69 AF1 190 -4.415
69 AF1 191 -6.368
69 AF1 192 -5.880
69 AF1 193 -3.438
69 AF1 194 -0.020
69 AF1 195 0.956
69 AF1 196 -0.020
69 AF1 197 -2.462
69 AF1 198 -2.950
69 AF1 199 -0.020
69 AF1 200 3.886
69 AF1 201 5.839
69 AF1 202 3.886
69 AF1 203 -2.462
69 AF1 204 -7.833
69 AF1 205 -9.298
69 AF1 206 -6.368
69 AF1 207 -0.997
69 AF1 208 2.909
69 AF1 209 2.421
69 AF1 210 -2.462
69 AF1 211 -7.345
69 AF1 212 -10.274
69 AF1 213 -9.786
69 AF1 214 -7.833
69 AF1 215 -5.391
69 AF1 216 -4.903
69 AF1 217 -5.391
69 AF1 218 -6.368
69 AF1 219 -6.856
69 AF1 220 -6.368
69 AF1 221 -5.391
69 AF1 222 -2.462
69 AF1 223 0.956
69 AF1 224 3.886
69 AF1 225 4.374
69 AF1 226 1.933
69 AF1 227 -2.950
69 AF1 228 -6.856
69 AF1 229 -7.345
69 AF1 230 -6.368
69 AF1 231 -4.903
69 AF1 232 -5.391
69 AF1 233 -8.321
69 AF1 234 -12.227
69 AF1 235 -14.181
69 AF1 236 -13.204
69 AF1 237 -11.251
69 AF1 238 -9.786
69 AF1 239 -10.274
69 AF1 240 -11.251
69 AF1 241 -11.739
69 AF1 242 -11.739
69 AF1 243 -10.763
69 AF1 244 -9.298
69 AF1 245 -7.345
69 AF1 246 -5.391
69 AF1 247 -2.950
69 AF1 248 -2.462
69 AF1 249 -3.438
69 AF1 250 -6.368
69 AF1 251 -8.809
69 AF1 252 -8.809
69 AF1 253 -6.856
69 AF1 254 -3.438
69 AF1 255 -1.973
# AF2 chan 5
69 AF2 0 -4.628
69 AF2 1 -2.675
69 AF2 2 1.231
69 AF2 3 4.649
69 AF2 4 5.137
69 AF2 5 4.161
69 AF2 6 3.184
69 AF2 7 3.184
69 AF2 8 4.161
69 AF2 9 5.137
69 AF2 10 4.649
69 AF2 11 2.207
69 AF2 12 -0.722
69 AF2 13 -2.675
69 AF2 14 -2.675
69 AF2 15 -1.211
69 AF2 16 -0.234
69 AF2 17 -1.699
69 AF2 18 -5.117
69 AF2 19 -8.535
69 AF2 20 -9.511
69 AF2 21 -7.558
69 AF2 22 -4.140
69 AF2 23 -1.211
69 AF2 24 -1.211
69 AF2 25 -4.140
69 AF2 26 -7.558
69 AF2 27 -9.511
69 AF2 28 -8.046
69 AF2 29 -4.628
69 AF2 30 -2.187
69 AF2 31 -1.699
69 AF2 32 -4.628
69 AF2 33 -8.535
69 AF2 34 -10.976
69 AF2 35 -9.511
69 AF2 36 -5.605
69 AF2 37 -1.211
69 AF2 38 1.231
69 AF2 39 0.743
69 AF2 40 -1.211
69 AF2 41 -3.652
69 AF2 42 -4.140
69 AF2 43 -2.675
69 AF2 44 -0.722
69 AF2 45 2.207
69 AF2 46 4.161
69 AF2 47 5.137
69 AF2 48 4.161
69 AF2 49 1.719
69 AF2 50 -1.211
69 AF2 51 -2.187
69 AF2 52 -1.211
69 AF2 53 1.231
69 AF2 54 3.184
69 AF2 55 3.184
69 AF2 56 1.231
69 AF2 57 -2.187
69 AF2 58 -4.140
69 AF2 59 -4.628
69 AF2 60 -3.652
69 AF2 61 -1.211
69 AF2 62 1.231
69 AF2 63 4.161
69 AF2 64 6.602
69 AF2 65 7.579
69 AF2 66 6.602
69 AF2 67 4.161
69 AF2 68 1.231
69 AF2 69 -0.234
69 AF2 70 -0.234
69 AF2 71 0.743
69 AF2 72 0.743
69 AF2 73 -1.211
69 AF2 74 -3.652
69 AF2 75 -5.605
69 AF2 76 -4.628
69 AF2 77 -2.187
69 AF2 78 0.254
69 AF2 79 1.719
69 AF2 80 1.719
69 AF2 81 0.254
69 AF2 82 -0.722
69 AF2 83 -0.722
69 AF2 84 0.254
69 AF2 85 0.743
69 AF2 86 0.743
69 AF2 87 1.231
69 AF2 88 1.719
69 AF2 89 2.696
69 AF2 90 3.672
69 AF2 91 4.161
69 AF2 92 3.672
69 AF2 93 3.184
69 AF2 94 3.184
69 AF2 95 4.161
69 AF2 96 5.625
69 AF2 97 7.090
69 AF2 98 8.555
69 AF2 99 10.508
69 AF2 100 13.438
69 AF2 101 15.879
69 AF2 102 17.344
69 AF2 103 15.879
69 AF2 104 11.973
69 AF2 105 8.555
69 AF2 106 6.114
69 AF2 107 6.602
69 AF2 108 10.020
69 AF2 109 14.414
69 AF2 110 17.832
69 AF2 111 19.786
69 AF2 112 19.297
69 AF2 113 16.856
69 AF2 114 13.926
69 AF2 115 11.485
69 AF2 116 8.555
69 AF2 117 6.602
69 AF2 118 4.161
69 AF2 119 2.207
69 AF2 120 2.207
69 AF2 121 3.672
69 AF2 122 5.625
69 AF2 123 6.114
69 AF2 124 4.161
69 AF2 125 -0.234
69 AF2 126 -5.605
69 AF2 127 -8.046
69 AF2 128 -7.070
69 AF2 129 -3.652
69 AF2 130 1.231
69 AF2 131 4.649
69 AF2 132 7.090
69 AF2 133 8.067
69 AF2 134 8.067
69 AF2 135 6.602
69 AF2 136 3.184
69 AF2 137 -0.234
69 AF2 138 -2.675
69 AF2 139 -2.675
69 AF2 140 -1.211
69 AF2 141 0.743
69 AF2 142 1.719
69 AF2 143 2.207
69 AF2 144 3.184
69 AF2 145 4.649
69 AF2 146 7.090
69 AF2 147 10.020
69 AF2 148 11.485
69 AF2 149 11.485
69 AF2 150 10.508
69 AF2 151 10.508
69 AF2 152 10.997
69 AF2 153 11.973
69 AF2 154 12.461
69 AF2 155 11.485
69 AF2 156 9.532
69 AF2 157 7.090
69 AF2 158 5.625
69 AF2 159 4.649
69 AF2 160 4.161
69 AF2 161 3.184
69 AF2 162 1.231
69 AF2 163 -1.699
69 AF2 164 -4.140
69 AF2 165 -6.093
69 AF2 166 -6.582
69 AF2 167 -6.093
69 AF2 168 -4.628
69 AF2 169 -3.652
69 AF2 170 -2.187
69 AF2 171 -2.187
69 AF2 172 -1.211
69 AF2 173 -0.234
69 AF2 174 0.743
69 AF2 175 1.719
69 AF2 176 3.184
69 AF2 177 4.649
69 AF2 178 6.114
69 AF2 179 5.625
69 AF2 180 3.184
69 AF2 181 -0.722
69 AF2 182 -5.117
69 AF2 183 -7.558
69 AF2 184 -7.070
69 AF2 185 -3.652
69 AF2 186 0.743
69 AF2 187 2.207
69 AF2 188 0.254
69 AF2 189 -3.652
69 AF2 190 -6.093
69 AF2 191 -5.117
69 AF2 192 -0.722
69 AF2 193 4.161
69 AF2 194 6.602
69 AF2 195 4.161
69 AF2 196 -0.234
69 AF2 197 -3.652
69 AF2 198 -3.164
69 AF2 199 1.231
69 AF2 200 5.137
69 AF2 201 6.114
69 AF2 202 3.184
69 AF2 203 -1.211
69 AF2 204 -2.675
69 AF2 205 -0.722
69 AF2 206 3.672
69 AF2 207 6.602
69 AF2 208 5.625
69 AF2 209 1.231
69 AF2 210 -5.117
69 AF2 211 -10.000
69 AF2 212 -11.464
69 AF2 213 -10.488
69 AF2 214 -7.558
69 AF2 215 -5.605
69 AF2 216 -4.140
69 AF2 217 -4.140
69 AF2 218 -4.628
69 AF2 219 -6.093
69 AF2 220 -7.070
69 AF2 221 -8.046
69 AF2 222 -8.046
69 AF2 223 -8.046
69 AF2 224 -7.558
69 AF2 225 -7.558
69 AF2 226 -7.070
69 AF2 227 -5.605
69 AF2 228 -4.140
69 AF2 229 -4.140
69 AF2 230 -5.605
69 AF2 231 -9.511
69 AF2 232 -13.418
69 AF2 233 -16.347
69 AF2 234 -17.324
69 AF2 235 -15.371
69 AF2 236 -12.929
69 AF2 237 -9.511
69 AF2 238 -7.070
69 AF2 239 -5.605
69 AF2 240 -5.117
69 AF2 241 -5.605
69 AF2 242 -7.558
69 AF2 243 -9.023
69 AF2 244 -9.023
69 AF2 245 -6.582
69 AF2 246 -3.652
69 AF2 247 -0.722
69 AF2 248 0.254
69 AF2 249 -0.722
69 AF2 250 -2.675
69 AF2 251 -3.652
69 AF2 252 -2.675
69 AF2 253 -1.699
69 AF2 254 -1.699
69 AF2 255 -3.164
# FZ chan 6
69 FZ 0 0.275
69 FZ 1 -1.190
69 FZ 2 -0.702
69 FZ 3 1.251
69 FZ 4 3.693
69 FZ 5 6.134
69 FZ 6 7.599
69 FZ 7 8.087
69 FZ 8 6.622
69 FZ 9 4.669
69 FZ 10 2.228
69 FZ 11 1.251
69 FZ 12 1.740
69 FZ 13 4.181
69 FZ 14 6.134
69 FZ 15 6.622
69 FZ 16 3.693
69 FZ 17 -0.702
69 FZ 18 -5.585
69 FZ 19 -8.514
69 FZ 20 -8.514
69 FZ 21 -5.585
69 FZ 22 -2.655
69 FZ 23 -0.702
69 FZ 24 -0.702
69 FZ 25 -2.655
69 FZ 26 -4.608
69 FZ 27 -5.585
69 FZ 28 -5.096
69 FZ 29 -4.120
69 FZ 30 -3.632
69 FZ 31 -4.608
69 FZ 32 -6.561
69 FZ 33 -9.003
69 FZ 34 -9.491
69 FZ 35 -9.003
69 FZ 36 -6.561
69 FZ 37 -3.632
69 FZ 38 -1.678
69 FZ 39 -1.190
69 FZ 40 -2.167
69 FZ 41 -2.655
69 FZ 42 -2.655
69 FZ 43 -1.190
69 FZ 44 0.763
69 FZ 45 2.716
69 FZ 46 4.669
69 FZ 47 5.646
69 FZ 48 5.646
69 FZ 49 4.669
69 FZ 50 3.204
69 FZ 51 2.228
69 FZ 52 1.740
69 FZ 53 2.228
69 FZ 54 3.204
69 FZ 55 3.693
69 FZ 56 4.181
69 FZ 57 3.693
69 FZ 58 3.204
69 FZ 59 2.716
69 FZ 60 3.204
69 FZ 61 3.693
69 FZ 62 4.669
69 FZ 63 5.646
69 FZ 64 5.646
69 FZ 65 4.669
69 FZ 66 3.693
69 FZ 67 2.228
69 FZ 68 1.740
69 FZ 69 2.228
69 FZ 70 2.228
69 FZ 71 1.740
69 FZ 72 -0.214
69 FZ 73 -2.655
69 FZ 74 -4.120
69 FZ 75 -4.608
69 FZ 76 -3.143
69 FZ 77 -1.678
69 FZ 78 -0.214
69 FZ 79 0.275
69 FZ 80 0.763
69 FZ 81 0.275
69 FZ 82 -0.214
69 FZ 83 -1.190
69 FZ 84 -2.167
69 FZ 85 -2.655
69 FZ 86 -2.655
69 FZ 87 -1.678
69 FZ 88 -0.702
69 FZ 89 1.251
69 FZ 90 2.228
69 FZ 91 3.204
69 FZ 92 4.181
69 FZ 93 5.157
69 FZ 94 6.134
69 FZ 95 7.111
69 FZ 96 7.599
69 FZ 97 7.599
69 FZ 98 7.599
69 FZ 99 7.111
69 FZ 100 8.087
69 FZ 101 9.552
69 FZ 102 11.017
69 FZ 103 11.993
69 FZ 104 11.505
69 FZ 105 9.552
69 FZ 106 8.087
69 FZ 107 8.087
69 FZ 108 9.552
69 FZ 109 12.482
69 FZ 110 14.435
69 FZ 111 14.923
69 FZ 112 13.458
69 FZ 113 11.993
69 FZ 114 11.017
69 FZ 115 10.529
69 FZ 116 9.552
69 FZ 117 8.087
69 FZ 118 5.157
69 FZ 119 3.204
69 FZ 120 2.716
69 FZ 121 3.693
69 FZ 122 4.669
69 FZ 123 4.181
69 FZ 124 1.740
69 FZ 125 -2.167
69 FZ 126 -5.096
69 FZ 127 -6.073
69 FZ 128 -5.096
69 FZ 129 -3.143
69 FZ 130 -0.702
69 FZ 131 0.763
69 FZ 132 2.228
69 FZ 133 3.204
69 FZ 134 3.693
69 FZ 135 3.204
69 FZ 136 1.251
69 FZ 137 -0.702
69 FZ 138 -1.190
69 FZ 139 0.275
69 FZ 140 2.228
69 FZ 141 4.181
69 FZ 142 5.157
69 FZ 143 6.134
69 FZ 144 6.622
69 FZ 145 8.575
69 FZ 146 10.529
69 FZ 147 11.505
69 FZ 148 11.505
69 FZ 149 11.505
69 FZ 150 11.505
69 FZ 151 11.993
69 FZ 152 13.458
69 FZ 153 13.458
69 FZ 154 12.970
69 FZ 155 11.017
69 FZ 156 9.064
69 FZ 157 8.575
69 FZ 158 8.575
69 FZ 159 8.575
69 FZ 160 7.111
69 FZ 161 4.669
69 FZ 162 1.251
69 FZ 163 -1.190
69 FZ 164 -3.143
69 FZ 165 -4.120
69 FZ 166 -4.120
69 FZ 167 -4.608
69 FZ 168 -5.096
69 FZ 169 -4.608
69 FZ 170 -3.632
69 FZ 171 -2.655
69 FZ 172 -1.190
69 FZ 173 -1.190
69 FZ 174 -2.167
69 FZ 175 -3.632
69 FZ 176 -4.120
69 FZ 177 -3.632
69 FZ 178 -2.167
69 FZ 179 -0.702
69 FZ 180 -0.702
69 FZ 181 -3.143
69 FZ 182 -6.561
69 FZ 183 -8.514
69 FZ 184 -8.026
69 FZ 185 -4.608
69 FZ 186 -1.190
69 FZ 187 -0.214
69 FZ 188 -2.167
69 FZ 189 -4.608
69 FZ 190 -6.561
69 FZ 191 -5.585
69 FZ 192 -3.143
69 FZ 193 -0.702
69 FZ 194 -0.702
69 FZ 195 -3.143
69 FZ 196 -6.073
69 FZ 197 -6.561
69 FZ 198 -3.632
69 FZ 199 1.740
69 FZ 200 5.157
69 FZ 201 5.646
69 FZ 202 2.716
69 FZ 203 -1.190
69 FZ 204 -4.120
69 FZ 205 -4.120
69 FZ 206 -2.167
69 FZ 207 0.275
69 FZ 208 0.275
69 FZ 209 -2.167
69 FZ 210 -5.096
69 FZ 211 -7.538
69 FZ 212 -7.538
69 FZ 213 -6.561
69 FZ 214 -4.608
69 FZ 215 -4.120
69 FZ 216 -4.608
69 FZ 217 -5.585
69 FZ 218 -5.585
69 FZ 219 -5.096
69 FZ 220 -4.608
69 FZ 221 -3.632
69 FZ 222 -3.143
69 FZ 223 -3.143
69 FZ 224 -3.143
69 FZ 225 -3.632
69 FZ 226 -3.632
69 FZ 227 -4.120
69 FZ 228 -4.608
69 FZ 229 -4.608
69 FZ 230 -5.096
69 FZ 231 -5.585
69 FZ 232 -6.561
69 FZ 233 -8.026
69 FZ 234 -9.003
69 FZ 235 -9.491
69 FZ 236 -8.514
69 FZ 237 -7.050
69 FZ 238 -6.073
69 FZ 239 -5.096
69 FZ 240 -5.096
69 FZ 241 -5.585
69 FZ 242 -6.561
69 FZ 243 -7.050
69 FZ 244 -6.561
69 FZ 245 -5.096
69 FZ 246 -3.143
69 FZ 247 -1.190
69 FZ 248 -0.702
69 FZ 249 -1.190
69 FZ 250 -2.655
69 FZ 251 -4.120
69 FZ 252 -4.608
69 FZ 253 -4.608
69 FZ 254 -5.096
69 FZ 255 -5.096
# F4 chan 7
69 F4 0 1.740
69 F4 1 -0.214
69 F4 2 -0.702
69 F4 3 0.763
69 F4 4 2.228
69 F4 5 3.204
69 F4 6 3.204
69 F4 7 2.228
69 F4 8 1.251
69 F4 9 0.763
69 F4 10 0.763
69 F4 11 1.740
69 F4 12 3.693
69 F4 13 5.646
69 F4 14 6.134
69 F4 15 3.204
69 F4 16 -2.167
69 F4 17 -9.003
69 F4 18 -13.397
69 F4 19 -13.397
69 F4 20 -9.491
69 F4 21 -4.120
69 F4 22 -0.214
69 F4 23 0.763
69 F4 24 -0.702
69 F4 25 -2.655
69 F4 26 -4.608
69 F4 27 -5.096
69 F4 28 -5.096
69 F4 29 -5.096
69 F4 30 -4.608
69 F4 31 -3.632
69 F4 32 -3.143
69 F4 33 -3.143
69 F4 34 -4.120
69 F4 35 -4.608
69 F4 36 -4.120
69 F4 37 -2.655
69 F4 38 -1.190
69 F4 39 -0.702
69 F4 40 -1.190
69 F4 41 -2.167
69 F4 42 -1.678
69 F4 43 1.251
69 F4 44 5.157
69 F4 45 6.622
69 F4 46 5.157
69 F4 47 0.275
69 F4 48 -4.608
69 F4 49 -5.585
69 F4 50 -1.678
69 F4 51 3.693
69 F4 52 7.111
69 F4 53 6.134
69 F4 54 1.740
69 F4 55 -2.655
69 F4 56 -4.608
69 F4 57 -4.120
69 F4 58 -2.167
69 F4 59 -1.190
69 F4 60 -1.678
69 F4 61 -1.678
69 F4 62 -0.214
69 F4 63 2.228
69 F4 64 4.669
69 F4 65 5.646
69 F4 66 4.181
69 F4 67 1.740
69 F4 68 0.275
69 F4 69 -0.702
69 F4 70 -0.702
69 F4 71 -0.702
69 F4 72 -0.702
69 F4 73 -1.190
69 F4 74 -2.167
69 F4 75 -4.608
69 F4 76 -7.050
69 F4 77 -8.026
69 F4 78 -6.561
69 F4 79 -2.655
69 F4 80 1.740
69 F4 81 3.693
69 F4 82 2.716
69 F4 83 0.763
69 F4 84 -0.214
69 F4 85 0.275
69 F4 86 1.251
69 F4 87 1.251
69 F4 88 -0.214
69 F4 89 -1.678
69 F4 90 -0.214
69 F4 91 3.693
69 F4 92 7.599
69 F4 93 9.064
69 F4 94 6.622
69 F4 95 2.716
69 F4 96 0.763
69 F4 97 3.204
69 F4 98 8.575
69 F4 99 13.458
69 F4 100 15.411
69 F4 101 14.435
69 F4 102 12.482
69 F4 103 10.040
69 F4 104 8.087
69 F4 105 6.622
69 F4 106 6.134
69 F4 107 6.622
69 F4 108 8.575
69 F4 109 11.017
69 F4 110 11.993
69 F4 111 11.993
69 F4 112 10.529
69 F4 113 9.552
69 F4 114 9.552
69 F4 115 10.529
69 F4 116 10.040
69 F4 117 8.087
69 F4 118 4.669
69 F4 119 1.740
69 F4 120 0.275
69 F4 121 0.763
69 F4 122 1.740
69 F4 123 3.204
69 F4 124 3.204
69 F4 125 2.228
69 F4 126 0.763
69 F4 127 -0.702
69 F4 128 -1.190
69 F4 129 -0.214
69 F4 130 1.740
69 F4 131 5.157
69 F4 132 7.599
69 F4 133 8.575
69 F4 134 7.111
69 F4 135 3.693
69 F4 136 0.763
69 F4 137 -2.167
69 F4 138 -2.167
69 F4 139 -1.678
69 F4 140 -1.190
69 F4 141 -2.167
69 F4 142 -4.608
69 F4 143 -6.073
69 F4 144 -5.096
69 F4 145 -1.190
69 F4 146 3.693
69 F4 147 6.622
69 F4 148 6.134
69 F4 149 3.693
69 F4 150 1.251
69 F4 151 1.251
69 F4 152 2.716
69 F4 153 4.181
69 F4 154 4.669
69 F4 155 3.204
69 F4 156 1.740
69 F4 157 0.763
69 F4 158 1.251
69 F4 159 2.228
69 F4 160 2.228
69 F4 161 0.275
69 F4 162 -2.167
69 F4 163 -6.073
69 F4 164 -8.514
69 F4 165 -10.468
69 F4 166 -10.956
69 F4 167 -10.468
69 F4 168 -9.003
69 F4 169 -7.050
69 F4 170 -5.585
69 F4 171 -4.608
69 F4 172 -3.632
69 F4 173 -3.632
69 F4 174 -3.143
69 F4 175 -2.655
69 F4 176 -1.678
69 F4 177 -0.214
69 F4 178 1.251
69 F4 179 0.763
69 F4 180 -1.190
69 F4 181 -4.608
69 F4 182 -7.050
69 F4 183 -7.050
69 F4 184 -5.096
69 F4 185 -2.167
69 F4 186 -0.214
69 F4 187 0.275
69 F4 188 -0.702
69 F4 189 -1.678
69 F4 190 -2.167
69 F4 191 -1.190
69 F4 192 -0.214
69 F4 193 -0.702
69 F4 194 -2.655
69 F4 195 -5.096
69 F4 196 -7.050
69 F4 197 -6.073
69 F4 198 -1.678
69 F4 199 3.693
69 F4 200 7.111
69 F4 201 7.111
69 F4 202 3.204
69 F4 203 -1.678
69 F4 204 -3.632
69 F4 205 -2.167
69 F4 206 0.763
69 F4 207 2.716
69 F4 208 1.251
69 F4 209 -2.167
69 F4 210 -4.608
69 F4 211 -4.608
69 F4 212 -3.143
69 F4 213 -1.678
69 F4 214 -2.167
69 F4 215 -5.096
69 F4 216 -8.026
69 F4 217 -9.979
69 F4 218 -9.491
69 F4 219 -7.538
69 F4 220 -5.585
69 F4 221 -5.096
69 F4 222 -6.073
69 F4 223 -7.538
69 F4 224 -8.514
69 F4 225 -8.026
69 F4 226 -7.538
69 F4 227 -8.026
69 F4 228 -8.514
69 F4 229 -9.003
69 F4 230 -8.026
69 F4 231 -7.050
69 F4 232 -6.073
69 F4 233 -7.050
69 F4 234 -9.491
69 F4 235 -11.932
69 F4 236 -12.421
69 F4 237 -10.468
69 F4 238 -8.026
69 F4 239 -6.561
69 F4 240 -6.561
69 F4 241 -8.026
69 F4 242 -9.491
69 F4 243 -9.003
69 F4 244 -6.561
69 F4 245 -2.655
69 F4 246 0.763
69 F4 247 2.228
69 F4 248 2.228
69 F4 249 1.740
69 F4 250 1.740
69 F4 251 1.251
69 F4 252 0.275
69 F4 253 -2.167
69 F4 254 -5.096
69 F4 255 -7.050
# F3 chan 8
69 F3 0 -3.906
69 F3 1 -1.953
69 F3 2 0.977
69 F3 3 4.395
69 F3 4 6.348
69 F3 5 7.324
69 F3 6 6.348
69 F3 7 3.906
69 F3 8 1.465
69 F3 9 -1.465
69 F3 10 -1.465
69 F3 11 -0.488
69 F3 12 1.953
69 F3 13 4.395
69 F3 14 4.395
69 F3 15 2.441
69 F3 16 -1.953
69 F3 17 -7.324
69 F3 18 -12.207
69 F3 19 -14.648
69 F3 20 -14.160
69 F3 21 -10.742
69 F3 22 -5.859
69 F3 23 -1.465
69 F3 24 0.488
69 F3 25 -0.977
69 F3 26 -2.930
69 F3 27 -3.906
69 F3 28 -2.441
69 F3 29 0.488
69 F3 30 1.953
69 F3 31 0.977
69 F3 32 -1.953
69 F3 33 -3.906
69 F3 34 -2.930
69 F3 35 0.488
69 F3 36 3.906
69 F3 37 5.371
69 F3 38 5.371
69 F3 39 3.906
69 F3 40 3.418
69 F3 41 4.395
69 F3 42 5.371
69 F3 43 4.883
69 F3 44 3.418
69 F3 45 0.977
69 F3 46 0.977
69 F3 47 2.441
69 F3 48 4.395
69 F3 49 3.906
69 F3 50 0.488
69 F3 51 -5.371
69 F3 52 -10.254
69 F3 53 -11.230
69 F3 54 -8.789
69 F3 55 -5.371
69 F3 56 -2.930
69 F3 57 -1.953
69 F3 58 -1.465
69 F3 59 -1.465
69 F3 60 0.488
69 F3 61 1.953
69 F3 62 2.930
69 F3 63 2.441
69 F3 64 2.441
69 F3 65 2.930
69 F3 66 5.371
69 F3 67 7.812
69 F3 68 9.277
69 F3 69 7.812
69 F3 70 3.906
69 F3 71 0.977
69 F3 72 -0.488
69 F3 73 0.488
69 F3 74 2.930
69 F3 75 4.883
69 F3 76 4.883
69 F3 77 3.906
69 F3 78 2.930
69 F3 79 3.418
69 F3 80 4.883
69 F3 81 5.859
69 F3 82 5.371
69 F3 83 3.418
69 F3 84 2.441
69 F3 85 2.441
69 F3 86 3.906
69 F3 87 5.371
69 F3 88 4.395
69 F3 89 1.953
69 F3 90 -1.465
69 F3 91 -2.441
69 F3 92 -0.488
69 F3 93 3.906
69 F3 94 8.301
69 F3 95 10.742
69 F3 96 10.742
69 F3 97 8.301
69 F3 98 4.883
69 F3 99 2.441
69 F3 100 1.953
69 F3 101 3.906
69 F3 102 7.324
69 F3 103 10.254
69 F3 104 10.254
69 F3 105 8.301
69 F3 106 5.371
69 F3 107 4.883
69 F3 108 7.812
69 F3 109 13.672
69 F3 110 18.555
69 F3 111 20.020
69 F3 112 17.090
69 F3 113 12.207
69 F3 114 8.301
69 F3 115 7.324
69 F3 116 6.836
69 F3 117 6.348
69 F3 118 2.930
69 F3 119 0.000
69 F3 120 0.000
69 F3 121 3.418
69 F3 122 8.301
69 F3 123 9.277
69 F3 124 5.859
69 F3 125 -1.465
69 F3 126 -7.812
69 F3 127 -9.766
69 F3 128 -7.324
69 F3 129 -4.395
69 F3 130 -2.930
69 F3 131 -3.906
69 F3 132 -4.395
69 F3 133 -2.930
69 F3 134 0.977
69 F3 135 4.395
69 F3 136 4.395
69 F3 137 1.953
69 F3 138 -1.465
69 F3 139 -0.977
69 F3 140 2.930
69 F3 141 7.812
69 F3 142 11.230
69 F3 143 10.742
69 F3 144 8.301
69 F3 145 5.859
69 F3 146 6.348
69 F3 147 8.789
69 F3 148 10.742
69 F3 149 11.230
69 F3 150 9.766
69 F3 151 7.324
69 F3 152 5.859
69 F3 153 5.371
69 F3 154 4.883
69 F3 155 3.906
69 F3 156 3.418
69 F3 157 3.906
69 F3 158 5.371
69 F3 159 6.836
69 F3 160 6.836
69 F3 161 4.395
69 F3 162 0.488
69 F3 163 -4.395
69 F3 164 -7.324
69 F3 165 -8.301
69 F3 166 -7.324
69 F3 167 -6.348
69 F3 168 -4.395
69 F3 169 -2.441
69 F3 170 -0.488
69 F3 171 1.465
69 F3 172 3.418
69 F3 173 4.395
69 F3 174 4.395
69 F3 175 3.418
69 F3 176 1.465
69 F3 177 -1.465
69 F3 178 -2.930
69 F3 179 -2.930
69 F3 180 -0.977
69 F3 181 1.465
69 F3 182 2.930
69 F3 183 2.930
69 F3 184 1.953
69 F3 185 0.977
69 F3 186 0.977
69 F3 187 1.953
69 F3 188 2.930
69 F3 189 2.930
69 F3 190 1.953
69 F3 191 0.488
69 F3 192 0.000
69 F3 193 -0.488
69 F3 194 -0.977
69 F3 195 -1.953
69 F3 196 -2.930
69 F3 197 -2.930
69 F3 198 0.000
69 F3 199 3.906
69 F3 200 6.836
69 F3 201 7.324
69 F3 202 4.395
69 F3 203 0.488
69 F3 204 -2.441
69 F3 205 -2.441
69 F3 206 0.000
69 F3 207 2.441
69 F3 208 1.953
69 F3 209 -1.953
69 F3 210 -7.324
69 F3 211 -10.254
69 F3 212 -8.789
69 F3 213 -4.883
69 F3 214 -1.465
69 F3 215 -0.488
69 F3 216 -3.418
69 F3 217 -6.348
69 F3 218 -7.324
69 F3 219 -4.395
69 F3 220 0.488
69 F3 221 4.395
69 F3 222 5.371
69 F3 223 3.418
69 F3 224 0.488
69 F3 225 0.000
69 F3 226 1.953
69 F3 227 4.883
69 F3 228 6.348
69 F3 229 5.371
69 F3 230 2.441
69 F3 231 0.000
69 F3 232 -2.441
69 F3 233 -4.395
69 F3 234 -6.836
69 F3 235 -10.254
69 F3 236 -12.695
69 F3 237 -13.184
69 F3 238 -10.742
69 F3 239 -6.348
69 F3 240 -2.930
69 F3 241 -2.441
69 F3 242 -4.883
69 F3 243 -7.324
69 F3 244 -8.789
69 F3 245 -7.812
69 F3 246 -6.348
69 F3 247 -4.883
69 F3 248 -4.883
69 F3 249 -5.371
69 F3 250 -5.859
69 F3 251 -5.371
69 F3 252 -4.395
69 F3 253 -3.906
69 F3 254 -2.930
69 F3 255 -2.441
# FC6 chan 9
69 FC6 0 2.024
69 FC6 1 0.559
69 FC6 2 -0.905
69 FC6 3 -2.370
69 FC6 4 -2.858
69 FC6 5 -2.370
69 FC6 6 -0.905
69 FC6 7 -0.417
69 FC6 8 0.071
69 FC6 9 -0.905
69 FC6 10 -1.394
69 FC6 11 -0.905
69 FC6 12 1.048
69 FC6 13 2.024
69 FC6 14 1.536
69 FC6 15 -1.394
69 FC6 16 -4.812
69 FC6 17 -7.253
69 FC6 18 -8.230
69 FC6 19 -7.741
69 FC6 20 -7.253
69 FC6 21 -7.253
69 FC6 22 -7.741
69 FC6 23 -7.253
69 FC6 24 -4.812
69 FC6 25 -2.370
69 FC6 26 -0.417
69 FC6 27 -0.417
69 FC6 28 -1.882
69 FC6 29 -3.347
69 FC6 30 -4.323
69 FC6 31 -3.347
69 FC6 32 -1.394
69 FC6 33 1.536
69 FC6 34 4.466
69 FC6 35 6.419
69 FC6 36 7.395
69 FC6 37 6.907
69 FC6 38 4.954
69 FC6 39 2.513
69 FC6 40 0.559
69 FC6 41 1.048
69 FC6 42 3.489
69 FC6 43 6.907
69 FC6 44 8.860
69 FC6 45 7.395
69 FC6 46 3.977
69 FC6 47 -0.417
69 FC6 48 -3.835
69 FC6 49 -5.788
69 FC6 50 -4.812
69 FC6 51 -2.370
69 FC6 52 0.071
69 FC6 53 1.536
69 FC6 54 1.048
69 FC6 55 -1.394
69 FC6 56 -4.812
69 FC6 57 -8.230
69 FC6 58 -8.718
69 FC6 59 -7.253
69 FC6 60 -4.812
69 FC6 61 -2.858
69 FC6 62 -1.882
69 FC6 63 -0.905
69 FC6 64 0.071
69 FC6 65 2.024
69 FC6 66 3.489
69 FC6 67 3.489
69 FC6 68 1.048
69 FC6 69 -1.882
69 FC6 70 -3.835
69 FC6 71 -3.835
69 FC6 72 -1.882
69 FC6 73 -0.905
69 FC6 74 -1.394
69 FC6 75 -4.323
69 FC6 76 -7.253
69 FC6 77 -8.230
69 FC6 78 -5.788
69 FC6 79 -0.905
69 FC6 80 3.977
69 FC6 81 6.419
69 FC6 82 5.442
69 FC6 83 2.513
69 FC6 84 0.559
69 FC6 85 1.536
69 FC6 86 4.954
69 FC6 87 9.349
69 FC6 88 11.302
69 FC6 89 9.837
69 FC6 90 6.419
69 FC6 91 3.489
69 FC6 92 3.001
69 FC6 93 4.954
69 FC6 94 6.907
69 FC6 95 6.419
69 FC6 96 3.489
69 FC6 97 0.559
69 FC6 98 1.048
69 FC6 99 4.954
69 FC6 100 9.837
69 FC6 101 12.278
69 FC6 102 9.837
69 FC6 103 3.977
69 FC6 104 -0.417
69 FC6 105 -1.394
69 FC6 106 0.559
69 FC6 107 2.513
69 FC6 108 2.513
69 FC6 109 1.048
69 FC6 110 -0.417
69 FC6 111 0.559
69 FC6 112 3.489
69 FC6 113 5.931
69 FC6 114 4.954
69 FC6 115 2.024
69 FC6 116 -1.882
69 FC6 117 -3.835
69 FC6 118 -4.323
69 FC6 119 -3.835
69 FC6 120 -4.323
69 FC6 121 -5.788
69 FC6 122 -5.788
69 FC6 123 -4.323
69 FC6 124 -1.882
69 FC6 125 -0.417
69 FC6 126 -0.905
69 FC6 127 -3.347
69 FC6 128 -5.788
69 FC6 129 -4.812
69 FC6 130 -0.905
69 FC6 131 3.977
69 FC6 132 7.884
69 FC6 133 8.372
69 FC6 134 6.419
69 FC6 135 3.001
69 FC6 136 0.071
69 FC6 137 -2.858
69 FC6 138 -5.300
69 FC6 139 -8.718
69 FC6 140 -11.648
69 FC6 141 -13.112
69 FC6 142 -12.624
69 FC6 143 -10.183
69 FC6 144 -7.253
69 FC6 145 -5.788
69 FC6 146 -5.300
69 FC6 147 -5.788
69 FC6 148 -5.788
69 FC6 149 -5.788
69 FC6 150 -4.812
69 FC6 151 -4.323
69 FC6 152 -3.835
69 FC6 153 -4.323
69 FC6 154 -5.300
69 FC6 155 -7.253
69 FC6 156 -9.206
69 FC6 157 -10.183
69 FC6 158 -9.694
69 FC6 159 -8.718
69 FC6 160 -7.741
69 FC6 161 -8.230
69 FC6 162 -10.671
69 FC6 163 -13.601
69 FC6 164 -16.530
69 FC6 165 -17.507
69 FC6 166 -17.019
69 FC6 167 -15.066
69 FC6 168 -12.624
69 FC6 169 -10.671
69 FC6 170 -8.718
69 FC6 171 -6.765
69 FC6 172 -4.323
69 FC6 173 -2.858
69 FC6 174 -1.394
69 FC6 175 -0.905
69 FC6 176 0.559
69 FC6 177 1.536
69 FC6 178 2.024
69 FC6 179 1.536
69 FC6 180 -0.417
69 FC6 181 -3.347
69 FC6 182 -6.276
69 FC6 183 -6.276
69 FC6 184 -3.347
69 FC6 185 0.559
69 FC6 186 3.001
69 FC6 187 3.001
69 FC6 188 0.071
69 FC6 189 -3.835
69 FC6 190 -6.276
69 FC6 191 -4.812
69 FC6 192 -1.394
69 FC6 193 2.024
69 FC6 194 2.513
69 FC6 195 -0.417
69 FC6 196 -4.812
69 FC6 197 -6.276
69 FC6 198 -2.370
69 FC6 199 3.489
69 FC6 200 8.372
69 FC6 201 8.372
69 FC6 202 4.466
69 FC6 203 0.071
69 FC6 204 -0.417
69 FC6 205 3.001
69 FC6 206 7.884
69 FC6 207 9.349
69 FC6 208 6.419
69 FC6 209 1.048
69 FC6 210 -3.347
69 FC6 211 -4.323
69 FC6 212 -2.370
69 FC6 213 -1.394
69 FC6 214 -1.394
69 FC6 215 -2.858
69 FC6 216 -4.323
69 FC6 217 -4.812
69 FC6 218 -4.812
69 FC6 219 -4.812
69 FC6 220 -5.300
69 FC6 221 -5.300
69 FC6 222 -4.323
69 FC6 223 -2.858
69 FC6 224 -2.370
69 FC6 225 -3.835
69 FC6 226 -5.300
69 FC6 227 -5.788
69 FC6 228 -3.835
69 FC6 229 -0.905
69 FC6 230 1.048
69 FC6 231 -0.905
69 FC6 232 -5.788
69 FC6 233 -10.671
69 FC6 234 -11.648
69 FC6 235 -9.206
69 FC6 236 -5.788
69 FC6 237 -3.347
69 FC6 238 -4.812
69 FC6 239 -7.253
69 FC6 240 -8.230
69 FC6 241 -7.253
69 FC6 242 -4.812
69 FC6 243 -1.882
69 FC6 244 0.559
69 FC6 245 2.024
69 FC6 246 3.489
69 FC6 247 4.466
69 FC6 248 3.977
69 FC6 249 2.513
69 FC6 250 0.559
69 FC6 251 0.071
69 FC6 252 1.048
69 FC6 253 2.513
69 FC6 254 3.001
69 FC6 255 1.536
# FC5 chan 10
69 FC5 0 2.330
69 FC5 1 4.283
69 FC5 2 6.724
69 FC5 3 7.701
69 FC5 4 6.724
69 FC5 5 2.818
69 FC5 6 -2.065
69 FC5 7 -4.506
69 FC5 8 -3.042
69 FC5 9 0.865
69 FC5 10 3.794
69 FC5 11 4.283
69 FC5 12 3.306
69 FC5 13 2.330
69 FC5 14 3.306
69 FC5 15 4.771
69 FC5 16 3.306
69 FC5 17 -3.042
69 FC5 18 -11.342
69 FC5 19 -16.713
69 FC5 20 -15.249
69 FC5 21 -6.948
69 FC5 22 2.330
69 FC5 23 6.236
69 FC5 24 2.818
69 FC5 25 -3.530
69 FC5 26 -6.948
69 FC5 27 -4.018
69 FC5 28 3.306
69 FC5 29 10.630
69 FC5 30 13.072
69 FC5 31 11.607
69 FC5 32 8.677
69 FC5 33 8.677
69 FC5 34 11.607
69 FC5 35 15.513
69 FC5 36 16.978
69 FC5 37 15.025
69 FC5 38 12.095
69 FC5 39 10.630
69 FC5 40 12.095
69 FC5 41 15.025
69 FC5 42 16.978
69 FC5 43 16.978
69 FC5 44 14.537
69 FC5 45 11.607
69 FC5 46 7.701
69 FC5 47 3.306
69 FC5 48 -1.088
69 FC5 49 -5.971
69 FC5 50 -10.854
69 FC5 51 -13.295
69 FC5 52 -13.784
69 FC5 53 -11.831
69 FC5 54 -8.901
69 FC5 55 -6.460
69 FC5 56 -5.483
69 FC5 57 -6.460
69 FC5 58 -8.413
69 FC5 59 -9.389
69 FC5 60 -6.460
69 FC5 61 -1.088
69 FC5 62 5.747
69 FC5 63 11.607
69 FC5 64 14.048
69 FC5 65 11.607
69 FC5 66 6.724
69 FC5 67 2.330
69 FC5 68 1.353
69 FC5 69 4.283
69 FC5 70 8.677
69 FC5 71 12.095
69 FC5 72 13.072
69 FC5 73 11.119
69 FC5 74 8.189
69 FC5 75 5.259
69 FC5 76 3.794
69 FC5 77 3.306
69 FC5 78 3.794
69 FC5 79 4.771
69 FC5 80 6.724
69 FC5 81 9.165
69 FC5 82 10.630
69 FC5 83 11.119
69 FC5 84 11.119
69 FC5 85 10.142
69 FC5 86 9.654
69 FC5 87 8.189
69 FC5 88 5.747
69 FC5 89 3.306
69 FC5 90 3.306
69 FC5 91 5.259
69 FC5 92 7.701
69 FC5 93 7.701
69 FC5 94 4.283
69 FC5 95 -0.112
69 FC5 96 -3.042
69 FC5 97 -2.065
69 FC5 98 1.353
69 FC5 99 5.747
69 FC5 100 9.165
69 FC5 101 11.119
69 FC5 102 12.095
69 FC5 103 12.095
69 FC5 104 9.654
69 FC5 105 4.771
69 FC5 106 -0.600
69 FC5 107 -3.530
69 FC5 108 -1.577
69 FC5 109 4.771
69 FC5 110 11.119
69 FC5 111 15.513
69 FC5 112 14.537
69 FC5 113 11.607
69 FC5 114 8.677
69 FC5 115 7.701
69 FC5 116 7.212
69 FC5 117 5.747
69 FC5 118 1.353
69 FC5 119 -3.530
69 FC5 120 -6.948
69 FC5 121 -6.460
69 FC5 122 -3.530
69 FC5 123 0.865
69 FC5 124 3.306
69 FC5 125 3.306
69 FC5 126 0.865
69 FC5 127 -1.577
69 FC5 128 -4.018
69 FC5 129 -5.971
69 FC5 130 -6.948
69 FC5 131 -6.948
69 FC5 132 -6.460
69 FC5 133 -4.506
69 FC5 134 -1.088
69 FC5 135 2.818
69 FC5 136 6.236
69 FC5 137 8.189
69 FC5 138 7.701
69 FC5 139 5.747
69 FC5 140 2.330
69 FC5 141 -0.112
69 FC5 142 -0.600
69 FC5 143 0.865
69 FC5 144 4.771
69 FC5 145 8.189
69 FC5 146 11.607
69 FC5 147 13.560
69 FC5 148 13.072
69 FC5 149 10.142
69 FC5 150 5.259
69 FC5 151 -1.088
69 FC5 152 -7.924
69 FC5 153 -11.831
69 FC5 154 -12.807
69 FC5 155 -9.389
69 FC5 156 -3.530
69 FC5 157 2.330
69 FC5 158 6.724
69 FC5 159 7.701
69 FC5 160 5.747
69 FC5 161 2.818
69 FC5 162 -0.112
69 FC5 163 -2.553
69 FC5 164 -3.530
69 FC5 165 -2.553
69 FC5 166 -0.600
69 FC5 167 2.330
69 FC5 168 4.283
69 FC5 169 4.771
69 FC5 170 3.306
69 FC5 171 2.818
69 FC5 172 5.259
69 FC5 173 10.142
69 FC5 174 15.025
69 FC5 175 16.001
69 FC5 176 11.607
69 FC5 177 4.771
69 FC5 178 -0.112
69 FC5 179 0.376
69 FC5 180 6.236
69 FC5 181 12.583
69 FC5 182 15.513
69 FC5 183 14.048
69 FC5 184 11.607
69 FC5 185 11.119
69 FC5 186 14.537
69 FC5 187 16.978
69 FC5 188 15.513
69 FC5 189 10.142
69 FC5 190 3.306
69 FC5 191 0.376
69 FC5 192 2.330
69 FC5 193 6.724
69 FC5 194 8.677
69 FC5 195 8.189
69 FC5 196 6.724
69 FC5 197 7.701
69 FC5 198 11.607
69 FC5 199 16.490
69 FC5 200 18.931
69 FC5 201 15.513
69 FC5 202 8.677
69 FC5 203 2.818
69 FC5 204 1.353
69 FC5 205 3.794
69 FC5 206 7.701
69 FC5 207 8.677
69 FC5 208 5.747
69 FC5 209 0.376
69 FC5 210 -4.018
69 FC5 211 -4.506
69 FC5 212 -0.600
69 FC5 213 5.259
69 FC5 214 9.654
69 FC5 215 10.142
69 FC5 216 6.724
69 FC5 217 3.306
69 FC5 218 2.818
69 FC5 219 6.236
69 FC5 220 11.607
69 FC5 221 15.025
69 FC5 222 14.537
69 FC5 223 10.630
69 FC5 224 6.236
69 FC5 225 5.259
69 FC5 226 8.189
69 FC5 227 13.560
69 FC5 228 16.978
69 FC5 229 16.490
69 FC5 230 12.583
69 FC5 231 7.212
69 FC5 232 4.771
69 FC5 233 3.794
69 FC5 234 3.794
69 FC5 235 1.353
69 FC5 236 -3.042
69 FC5 237 -6.460
69 FC5 238 -6.460
69 FC5 239 -2.553
69 FC5 240 2.330
69 FC5 241 4.771
69 FC5 242 2.818
69 FC5 243 -1.088
69 FC5 244 -4.018
69 FC5 245 -4.018
69 FC5 246 -1.088
69 FC5 247 2.330
69 FC5 248 4.283
69 FC5 249 4.771
69 FC5 250 5.747
69 FC5 251 7.701
69 FC5 252 9.654
69 FC5 253 10.142
69 FC5 254 9.165
69 FC5 255 6.724
# FC2 chan 11
69 FC2 0 1.475
69 FC2 1 -0.478
69 FC2 2 -1.455
69 FC2 3 -1.455
69 FC2 4 0.498
69 FC2 5 2.940
69 FC2 6 4.893
69 FC2 7 4.893
69 FC2 8 2.940
69 FC2 9 0.987
69 FC2 10 -0.478
69 FC2 11 0.498
69 FC2 12 2.452
69 FC2 13 4.405
69 FC2 14 4.893
69 FC2 15 3.428
69 FC2 16 0.498
69 FC2 17 -2.431
69 FC2 18 -3.896
69 FC2 19 -4.384
69 FC2 20 -3.408
69 FC2 21 -2.920
69 FC2 22 -2.431
69 FC2 23 -1.943
69 FC2 24 -1.455
69 FC2 25 -0.966
69 FC2 26 -0.478
69 FC2 27 -1.455
69 FC2 28 -2.431
69 FC2 29 -3.408
69 FC2 30 -3.896
69 FC2 31 -3.408
69 FC2 32 -3.408
69 FC2 33 -3.408
69 FC2 34 -4.384
69 FC2 35 -4.384
69 FC2 36 -3.896
69 FC2 37 -2.431
69 FC2 38 -0.966
69 FC2 39 -0.478
69 FC2 40 -0.966
69 FC2 41 -1.943
69 FC2 42 -1.455
69 FC2 43 0.010
69 FC2 44 2.452
69 FC2 45 4.405
69 FC2 46 4.405
69 FC2 47 2.452
69 FC2 48 0.498
69 FC2 49 -0.478
69 FC2 50 0.498
69 FC2 51 2.940
69 FC2 52 4.893
69 FC2 53 4.893
69 FC2 54 3.428
69 FC2 55 1.963
69 FC2 56 0.987
69 FC2 57 1.475
69 FC2 58 1.963
69 FC2 59 1.963
69 FC2 60 0.987
69 FC2 61 -0.478
69 FC2 62 -0.478
69 FC2 63 0.987
69 FC2 64 2.452
69 FC2 65 3.428
69 FC2 66 3.428
69 FC2 67 1.963
69 FC2 68 0.498
69 FC2 69 -0.478
69 FC2 70 -1.455
69 FC2 71 -0.966
69 FC2 72 -0.966
69 FC2 73 -2.431
69 FC2 74 -3.408
69 FC2 75 -4.384
69 FC2 76 -4.873
69 FC2 77 -3.896
69 FC2 78 -1.943
69 FC2 79 0.010
69 FC2 80 0.987
69 FC2 81 0.498
69 FC2 82 -0.478
69 FC2 83 -1.943
69 FC2 84 -2.431
69 FC2 85 -1.943
69 FC2 86 -0.966
69 FC2 87 -0.966
69 FC2 88 -0.966
69 FC2 89 -0.966
69 FC2 90 -0.478
69 FC2 91 1.475
69 FC2 92 3.428
69 FC2 93 5.381
69 FC2 94 5.381
69 FC2 95 4.893
69 FC2 96 3.916
69 FC2 97 3.916
69 FC2 98 4.893
69 FC2 99 6.358
69 FC2 100 7.334
69 FC2 101 6.846
69 FC2 102 5.870
69 FC2 103 4.405
69 FC2 104 2.940
69 FC2 105 2.452
69 FC2 106 2.452
69 FC2 107 3.916
69 FC2 108 5.381
69 FC2 109 6.358
69 FC2 110 6.846
69 FC2 111 6.358
69 FC2 112 5.870
69 FC2 113 5.381
69 FC2 114 5.870
69 FC2 115 6.358
69 FC2 116 6.846
69 FC2 117 5.870
69 FC2 118 3.916
69 FC2 119 1.963
69 FC2 120 0.498
69 FC2 121 0.498
69 FC2 122 1.475
69 FC2 123 1.963
69 FC2 124 1.475
69 FC2 125 -0.478
69 FC2 126 -2.431
69 FC2 127 -3.408
69 FC2 128 -2.431
69 FC2 129 -0.966
69 FC2 130 1.475
69 FC2 131 2.940
69 FC2 132 3.916
69 FC2 133 3.916
69 FC2 134 2.940
69 FC2 135 1.963
69 FC2 136 0.010
69 FC2 137 -1.943
69 FC2 138 -3.408
69 FC2 139 -3.896
69 FC2 140 -4.384
69 FC2 141 -4.384
69 FC2 142 -4.384
69 FC2 143 -4.384
69 FC2 144 -3.896
69 FC2 145 -1.943
69 FC2 146 0.010
69 FC2 147 1.963
69 FC2 148 2.452
69 FC2 149 1.963
69 FC2 150 1.475
69 FC2 151 1.475
69 FC2 152 1.963
69 FC2 153 2.940
69 FC2 154 3.428
69 FC2 155 2.940
69 FC2 156 2.452
69 FC2 157 1.963
69 FC2 158 1.963
69 FC2 159 1.963
69 FC2 160 1.963
69 FC2 161 0.498
69 FC2 162 -2.431
69 FC2 163 -4.873
69 FC2 164 -6.826
69 FC2 165 -7.314
69 FC2 166 -7.314
69 FC2 167 -6.826
69 FC2 168 -6.826
69 FC2 169 -7.314
69 FC2 170 -7.802
69 FC2 171 -6.826
69 FC2 172 -5.849
69 FC2 173 -5.361
69 FC2 174 -5.361
69 FC2 175 -6.337
69 FC2 176 -6.826
69 FC2 177 -5.361
69 FC2 178 -3.896
69 FC2 179 -3.408
69 FC2 180 -4.384
69 FC2 181 -7.314
69 FC2 182 -9.755
69 FC2 183 -10.732
69 FC2 184 -9.267
69 FC2 185 -7.314
69 FC2 186 -5.849
69 FC2 187 -6.337
69 FC2 188 -7.314
69 FC2 189 -7.802
69 FC2 190 -6.337
69 FC2 191 -4.384
69 FC2 192 -2.920
69 FC2 193 -3.408
69 FC2 194 -5.361
69 FC2 195 -7.802
69 FC2 196 -8.779
69 FC2 197 -7.802
69 FC2 198 -4.873
69 FC2 199 -1.943
69 FC2 200 -0.478
69 FC2 201 -0.966
69 FC2 202 -2.431
69 FC2 203 -3.408
69 FC2 204 -3.896
69 FC2 205 -2.920
69 FC2 206 -2.431
69 FC2 207 -2.431
69 FC2 208 -3.896
69 FC2 209 -5.361
69 FC2 210 -5.849
69 FC2 211 -5.361
69 FC2 212 -4.384
69 FC2 213 -4.384
69 FC2 214 -4.873
69 FC2 215 -6.337
69 FC2 216 -7.314
69 FC2 217 -7.314
69 FC2 218 -6.337
69 FC2 219 -4.873
69 FC2 220 -4.873
69 FC2 221 -5.361
69 FC2 222 -5.849
69 FC2 223 -5.849
69 FC2 224 -4.873
69 FC2 225 -4.384
69 FC2 226 -5.361
69 FC2 227 -6.826
69 FC2 228 -7.802
69 FC2 229 -7.314
69 FC2 230 -6.337
69 FC2 231 -4.873
69 FC2 232 -4.384
69 FC2 233 -5.361
69 FC2 234 -7.314
69 FC2 235 -8.291
69 FC2 236 -7.802
69 FC2 237 -6.337
69 FC2 238 -4.384
69 FC2 239 -3.896
69 FC2 240 -4.384
69 FC2 241 -5.361
69 FC2 242 -6.337
69 FC2 243 -5.849
69 FC2 244 -4.384
69 FC2 245 -2.431
69 FC2 246 -0.966
69 FC2 247 0.010
69 FC2 248 0.010
69 FC2 249 -0.478
69 FC2 250 -1.455
69 FC2 251 -1.943
69 FC2 252 -2.920
69 FC2 253 -4.384
69 FC2 254 -4.873
69 FC2 255 -5.361
# FC1 chan 12
69 FC1 0 0.376
69 FC1 1 0.865
69 FC1 2 1.353
69 FC1 3 1.841
69 FC1 4 2.330
69 FC1 5 2.818
69 FC1 6 3.306
69 FC1 7 4.283
69 FC1 8 4.283
69 FC1 9 3.794
69 FC1 10 2.818
69 FC1 11 1.353
69 FC1 12 1.353
69 FC1 13 1.841
69 FC1 14 3.306
69 FC1 15 3.306
69 FC1 16 1.841
69 FC1 17 -1.088
69 FC1 18 -4.506
69 FC1 19 -6.460
69 FC1 20 -6.460
69 FC1 21 -4.995
69 FC1 22 -2.553
69 FC1 23 -1.088
69 FC1 24 -1.088
69 FC1 25 -1.577
69 FC1 26 -2.065
69 FC1 27 -2.065
69 FC1 28 -1.088
69 FC1 29 0.376
69 FC1 30 0.865
69 FC1 31 0.376
69 FC1 32 -1.088
69 FC1 33 -2.065
69 FC1 34 -2.065
69 FC1 35 -1.088
69 FC1 36 0.865
69 FC1 37 2.818
69 FC1 38 3.794
69 FC1 39 4.283
69 FC1 40 3.794
69 FC1 41 2.330
69 FC1 42 1.841
69 FC1 43 1.841
69 FC1 44 2.330
69 FC1 45 3.306
69 FC1 46 4.771
69 FC1 47 4.771
69 FC1 48 4.283
69 FC1 49 2.818
69 FC1 50 0.865
69 FC1 51 -1.088
69 FC1 52 -2.553
69 FC1 53 -2.553
69 FC1 54 -2.065
69 FC1 55 -0.600
69 FC1 56 0.376
69 FC1 57 1.353
69 FC1 58 2.330
69 FC1 59 3.306
69 FC1 60 4.283
69 FC1 61 4.771
69 FC1 62 5.259
69 FC1 63 4.771
69 FC1 64 4.283
69 FC1 65 3.306
69 FC1 66 2.330
69 FC1 67 2.818
69 FC1 68 3.306
69 FC1 69 3.306
69 FC1 70 2.818
69 FC1 71 1.353
69 FC1 72 0.376
69 FC1 73 -0.600
69 FC1 74 -0.112
69 FC1 75 0.865
69 FC1 76 1.353
69 FC1 77 1.841
69 FC1 78 1.353
69 FC1 79 1.353
69 FC1 80 1.353
69 FC1 81 1.841
69 FC1 82 1.841
69 FC1 83 0.865
69 FC1 84 -0.600
69 FC1 85 -1.088
69 FC1 86 -1.088
69 FC1 87 0.376
69 FC1 88 1.841
69 FC1 89 2.330
69 FC1 90 2.330
69 FC1 91 2.330
69 FC1 92 2.818
69 FC1 93 3.306
69 FC1 94 4.771
69 FC1 95 5.259
69 FC1 96 5.259
69 FC1 97 4.771
69 FC1 98 3.306
69 FC1 99 2.818
69 FC1 100 2.818
69 FC1 101 4.283
69 FC1 102 5.747
69 FC1 103 6.724
69 FC1 104 6.236
69 FC1 105 4.771
69 FC1 106 3.306
69 FC1 107 3.794
69 FC1 108 5.747
69 FC1 109 8.189
69 FC1 110 10.142
69 FC1 111 11.119
69 FC1 112 10.142
69 FC1 113 9.165
69 FC1 114 8.189
69 FC1 115 7.701
69 FC1 116 6.724
69 FC1 117 5.747
69 FC1 118 3.794
69 FC1 119 2.818
69 FC1 120 3.306
69 FC1 121 4.283
69 FC1 122 4.771
69 FC1 123 4.283
69 FC1 124 2.330
69 FC1 125 -0.112
69 FC1 126 -1.088
69 FC1 127 -1.577
69 FC1 128 -1.088
69 FC1 129 -1.088
69 FC1 130 -1.088
69 FC1 131 -1.088
69 FC1 132 -0.112
69 FC1 133 1.353
69 FC1 134 3.306
69 FC1 135 3.794
69 FC1 136 3.306
69 FC1 137 1.841
69 FC1 138 1.841
69 FC1 139 2.818
69 FC1 140 4.771
69 FC1 141 6.724
69 FC1 142 7.212
69 FC1 143 6.724
69 FC1 144 6.724
69 FC1 145 7.212
69 FC1 146 8.677
69 FC1 147 10.142
69 FC1 148 10.630
69 FC1 149 10.142
69 FC1 150 8.677
69 FC1 151 7.212
69 FC1 152 6.236
69 FC1 153 5.747
69 FC1 154 5.747
69 FC1 155 5.747
69 FC1 156 5.747
69 FC1 157 6.236
69 FC1 158 6.236
69 FC1 159 6.724
69 FC1 160 5.747
69 FC1 161 4.283
69 FC1 162 2.818
69 FC1 163 1.353
69 FC1 164 0.865
69 FC1 165 0.376
69 FC1 166 0.376
69 FC1 167 -0.112
69 FC1 168 -0.600
69 FC1 169 -1.088
69 FC1 170 -0.600
69 FC1 171 0.376
69 FC1 172 1.841
69 FC1 173 2.818
69 FC1 174 2.818
69 FC1 175 1.353
69 FC1 176 -0.600
69 FC1 177 -2.065
69 FC1 178 -2.553
69 FC1 179 -1.577
69 FC1 180 -0.112
69 FC1 181 0.865
69 FC1 182 0.376
69 FC1 183 -0.112
69 FC1 184 -0.600
69 FC1 185 -0.112
69 FC1 186 0.865
69 FC1 187 1.353
69 FC1 188 0.376
69 FC1 189 -1.088
69 FC1 190 -2.065
69 FC1 191 -1.577
69 FC1 192 -0.600
69 FC1 193 -0.112
69 FC1 194 -0.600
69 FC1 195 -2.065
69 FC1 196 -2.553
69 FC1 197 -1.577
69 FC1 198 1.353
69 FC1 199 4.283
69 FC1 200 6.236
69 FC1 201 5.747
69 FC1 202 2.818
69 FC1 203 0.376
69 FC1 204 -1.577
69 FC1 205 -1.577
69 FC1 206 -0.112
69 FC1 207 1.353
69 FC1 208 0.865
69 FC1 209 -1.088
69 FC1 210 -3.530
69 FC1 211 -4.506
69 FC1 212 -4.506
69 FC1 213 -3.042
69 FC1 214 -1.577
69 FC1 215 -2.065
69 FC1 216 -2.553
69 FC1 217 -3.530
69 FC1 218 -3.530
69 FC1 219 -2.065
69 FC1 220 -0.600
69 FC1 221 0.865
69 FC1 222 0.865
69 FC1 223 0.376
69 FC1 224 -0.112
69 FC1 225 0.376
69 FC1 226 1.353
69 FC1 227 1.841
69 FC1 228 1.353
69 FC1 229 0.376
69 FC1 230 -1.088
69 FC1 231 -2.065
69 FC1 232 -3.042
69 FC1 233 -3.530
69 FC1 234 -4.506
69 FC1 235 -5.483
69 FC1 236 -5.971
69 FC1 237 -5.971
69 FC1 238 -5.483
69 FC1 239 -4.506
69 FC1 240 -4.018
69 FC1 241 -4.018
69 FC1 242 -4.018
69 FC1 243 -4.506
69 FC1 244 -4.506
69 FC1 245 -4.506
69 FC1 246 -4.018
69 FC1 247 -4.018
69 FC1 248 -3.530
69 FC1 249 -3.042
69 FC1 250 -2.553
69 FC1 251 -3.530
69 FC1 252 -4.018
69 FC1 253 -4.506
69 FC1 254 -4.506
69 FC1 255 -3.530
# T8 chan 13
69 T8 0 -2.635
69 T8 1 -2.635
69 T8 2 -0.193
69 T8 3 1.272
69 T8 4 0.783
69 T8 5 -2.146
69 T8 6 -4.100
69 T8 7 -3.611
69 T8 8 -0.682
69 T8 9 1.760
69 T8 10 2.248
69 T8 11 -0.193
69 T8 12 -2.146
69 T8 13 -2.146
69 T8 14 -0.193
69 T8 15 0.783
69 T8 16 -1.658
69 T8 17 -7.517
69 T8 18 -12.889
69 T8 19 -14.842
69 T8 20 -12.400
69 T8 21 -7.517
69 T8 22 -3.123
69 T8 23 -2.146
69 T8 24 -3.611
69 T8 25 -5.564
69 T8 26 -5.564
69 T8 27 -3.123
69 T8 28 -0.682
69 T8 29 0.295
69 T8 30 -0.193
69 T8 31 -0.682
69 T8 32 0.295
69 T8 33 3.713
69 T8 34 8.596
69 T8 35 12.990
69 T8 36 14.455
69 T8 37 12.502
69 T8 38 8.596
69 T8 39 5.666
69 T8 40 4.690
69 T8 41 5.666
69 T8 42 7.619
69 T8 43 8.596
69 T8 44 7.619
69 T8 45 4.690
69 T8 46 1.272
69 T8 47 -2.146
69 T8 48 -4.588
69 T8 49 -5.076
69 T8 50 -4.100
69 T8 51 -1.658
69 T8 52 0.295
69 T8 53 1.760
69 T8 54 0.295
69 T8 55 -2.635
69 T8 56 -7.029
69 T8 57 -10.447
69 T8 58 -10.935
69 T8 59 -8.982
69 T8 60 -6.053
69 T8 61 -2.635
69 T8 62 -0.682
69 T8 63 -0.193
69 T8 64 1.272
69 T8 65 2.248
69 T8 66 3.713
69 T8 67 3.713
69 T8 68 2.248
69 T8 69 -1.170
69 T8 70 -5.076
69 T8 71 -6.541
69 T8 72 -6.053
69 T8 73 -4.588
69 T8 74 -3.123
69 T8 75 -3.123
69 T8 76 -3.123
69 T8 77 -2.635
69 T8 78 -0.682
69 T8 79 2.248
69 T8 80 4.201
69 T8 81 4.690
69 T8 82 4.201
69 T8 83 4.201
69 T8 84 5.666
69 T8 85 8.596
69 T8 86 12.014
69 T8 87 13.967
69 T8 88 14.455
69 T8 89 12.502
69 T8 90 10.061
69 T8 91 7.131
69 T8 92 5.178
69 T8 93 2.736
69 T8 94 0.783
69 T8 95 -0.193
69 T8 96 -0.193
69 T8 97 1.760
69 T8 98 5.178
69 T8 99 8.596
69 T8 100 10.549
69 T8 101 9.572
69 T8 102 5.666
69 T8 103 -0.193
69 T8 104 -4.588
69 T8 105 -5.564
69 T8 106 -4.588
69 T8 107 -1.658
69 T8 108 -0.682
69 T8 109 -0.682
69 T8 110 -1.170
69 T8 111 -0.682
69 T8 112 0.295
69 T8 113 -0.193
69 T8 114 -2.146
69 T8 115 -6.541
69 T8 116 -11.424
69 T8 117 -14.353
69 T8 118 -14.353
69 T8 119 -12.889
69 T8 120 -11.424
69 T8 121 -10.447
69 T8 122 -9.959
69 T8 123 -8.982
69 T8 124 -7.517
69 T8 125 -7.029
69 T8 126 -7.029
69 T8 127 -8.982
69 T8 128 -9.959
69 T8 129 -8.494
69 T8 130 -4.588
69 T8 131 0.295
69 T8 132 3.713
69 T8 133 3.713
69 T8 134 0.783
69 T8 135 -2.635
69 T8 136 -6.541
69 T8 137 -9.959
69 T8 138 -13.377
69 T8 139 -15.818
69 T8 140 -16.307
69 T8 141 -14.353
69 T8 142 -9.959
69 T8 143 -6.053
69 T8 144 -5.564
69 T8 145 -8.006
69 T8 146 -11.912
69 T8 147 -14.353
69 T8 148 -14.353
69 T8 149 -13.377
69 T8 150 -11.912
69 T8 151 -10.935
69 T8 152 -9.959
69 T8 153 -8.494
69 T8 154 -6.541
69 T8 155 -6.541
69 T8 156 -8.494
69 T8 157 -11.912
69 T8 158 -16.307
69 T8 159 -19.236
69 T8 160 -20.701
69 T8 161 -21.189
69 T8 162 -20.701
69 T8 163 -20.213
69 T8 164 -18.748
69 T8 165 -15.818
69 T8 166 -12.400
69 T8 167 -9.959
69 T8 168 -8.494
69 T8 169 -8.982
69 T8 170 -10.935
69 T8 171 -11.424
69 T8 172 -9.959
69 T8 173 -5.564
69 T8 174 -0.682
69 T8 175 3.713
69 T8 176 6.643
69 T8 177 6.643
69 T8 178 4.201
69 T8 179 1.272
69 T8 180 -1.658
69 T8 181 -2.635
69 T8 182 -2.146
69 T8 183 -0.193
69 T8 184 2.248
69 T8 185 4.201
69 T8 186 4.690
69 T8 187 2.736
69 T8 188 -0.682
69 T8 189 -5.076
69 T8 190 -8.494
69 T8 191 -9.471
69 T8 192 -8.006
69 T8 193 -3.611
69 T8 194 -0.193
69 T8 195 1.272
69 T8 196 0.783
69 T8 197 -0.193
69 T8 198 -0.682
69 T8 199 1.272
69 T8 200 2.736
69 T8 201 3.713
69 T8 202 3.225
69 T8 203 2.736
69 T8 204 4.201
69 T8 205 6.154
69 T8 206 8.108
69 T8 207 7.131
69 T8 208 4.201
69 T8 209 0.783
69 T8 210 -1.170
69 T8 211 -0.193
69 T8 212 0.783
69 T8 213 1.760
69 T8 214 1.272
69 T8 215 -0.193
69 T8 216 -1.170
69 T8 217 -1.658
69 T8 218 -2.146
69 T8 219 -3.123
69 T8 220 -4.588
69 T8 221 -4.588
69 T8 222 -2.635
69 T8 223 -0.193
69 T8 224 1.272
69 T8 225 0.783
69 T8 226 -2.146
69 T8 227 -4.100
69 T8 228 -3.123
69 T8 229 -0.193
69 T8 230 1.760
69 T8 231 0.295
69 T8 232 -4.588
69 T8 233 -9.959
69 T8 234 -12.889
69 T8 235 -10.447
69 T8 236 -5.564
69 T8 237 -1.170
69 T8 238 -0.682
69 T8 239 -3.123
69 T8 240 -6.541
69 T8 241 -7.517
69 T8 242 -5.076
69 T8 243 -2.146
69 T8 244 -0.193
69 T8 245 0.783
69 T8 246 1.272
69 T8 247 3.225
69 T8 248 5.666
69 T8 249 7.619
69 T8 250 8.108
69 T8 251 5.666
69 T8 252 3.225
69 T8 253 1.760
69 T8 254 1.760
69 T8 255 2.736
# T7 chan 14
69 T7 0 -0.702
69 T7 1 1.251
69 T7 2 1.740
69 T7 3 -0.214
69 T7 4 -2.167
69 T7 5 -3.632
69 T7 6 -1.678
69 T7 7 2.228
69 T7 8 7.111
69 T7 9 10.040
69 T7 10 9.552
69 T7 11 5.646
69 T7 12 0.763
69 T7 13 -3.143
69 T7 14 -3.632
69 T7 15 -2.655
69 T7 16 -2.167
69 T7 17 -4.120
69 T7 18 -8.026
69 T7 19 -11.932
69 T7 20 -12.909
69 T7 21 -9.491
69 T7 22 -3.143
69 T7 23 2.716
69 T7 24 5.646
69 T7 25 5.646
69 T7 26 4.669
69 T7 27 4.181
69 T7 28 6.134
69 T7 29 9.552
69 T7 30 12.970
69 T7 31 12.970
69 T7 32 11.017
69 T7 33 9.552
69 T7 34 11.017
69 T7 35 15.411
69 T7 36 20.782
69 T7 37 23.224
69 T7 38 21.759
69 T7 39 18.341
69 T7 40 16.388
69 T7 41 16.388
69 T7 42 17.365
69 T7 43 14.435
69 T7 44 8.087
69 T7 45 0.763
69 T7 46 -4.120
69 T7 47 -4.120
69 T7 48 -2.167
69 T7 49 -2.167
69 T7 50 -6.561
69 T7 51 -13.397
69 T7 52 -17.792
69 T7 53 -17.792
69 T7 54 -14.862
69 T7 55 -11.932
69 T7 56 -12.421
69 T7 57 -15.839
69 T7 58 -18.280
69 T7 59 -16.327
69 T7 60 -9.491
69 T7 61 -1.678
69 T7 62 4.669
69 T7 63 7.111
69 T7 64 6.622
69 T7 65 5.646
69 T7 66 5.646
69 T7 67 6.134
69 T7 68 6.622
69 T7 69 6.622
69 T7 70 5.646
69 T7 71 5.157
69 T7 72 5.646
69 T7 73 6.134
69 T7 74 4.669
69 T7 75 3.204
69 T7 76 1.740
69 T7 77 1.740
69 T7 78 3.693
69 T7 79 5.646
69 T7 80 6.134
69 T7 81 4.669
69 T7 82 1.740
69 T7 83 -0.702
69 T7 84 -0.702
69 T7 85 1.251
69 T7 86 4.669
69 T7 87 7.599
69 T7 88 8.575
69 T7 89 7.599
69 T7 90 3.693
69 T7 91 -1.190
69 T7 92 -5.096
69 T7 93 -7.538
69 T7 94 -6.073
69 T7 95 -2.167
69 T7 96 2.228
69 T7 97 5.157
69 T7 98 5.646
69 T7 99 4.669
69 T7 100 4.181
69 T7 101 4.669
69 T7 102 5.646
69 T7 103 4.669
69 T7 104 1.740
69 T7 105 -1.678
69 T7 106 -4.120
69 T7 107 -3.632
69 T7 108 0.275
69 T7 109 5.157
69 T7 110 7.599
69 T7 111 7.111
69 T7 112 3.204
69 T7 113 -1.190
69 T7 114 -5.096
69 T7 115 -7.538
69 T7 116 -9.491
69 T7 117 -9.979
69 T7 118 -9.491
69 T7 119 -8.514
69 T7 120 -7.050
69 T7 121 -5.096
69 T7 122 -3.632
69 T7 123 -3.143
69 T7 124 -4.120
69 T7 125 -6.073
69 T7 126 -9.491
69 T7 127 -12.421
69 T7 128 -14.374
69 T7 129 -13.885
69 T7 130 -10.956
69 T7 131 -8.026
69 T7 132 -6.073
69 T7 133 -7.050
69 T7 134 -8.514
69 T7 135 -9.003
69 T7 136 -8.026
69 T7 137 -5.585
69 T7 138 -3.632
69 T7 139 -4.120
69 T7 140 -5.585
69 T7 141 -6.073
69 T7 142 -4.120
69 T7 143 0.275
69 T7 144 4.181
69 T7 145 5.646
69 T7 146 3.204
69 T7 147 -1.190
69 T7 148 -5.585
69 T7 149 -7.538
69 T7 150 -7.538
69 T7 151 -8.026
69 T7 152 -9.491
69 T7 153 -12.909
69 T7 154 -15.350
69 T7 155 -15.350
69 T7 156 -13.397
69 T7 157 -9.979
69 T7 158 -7.538
69 T7 159 -7.050
69 T7 160 -7.050
69 T7 161 -7.538
69 T7 162 -6.561
69 T7 163 -5.096
69 T7 164 -3.143
69 T7 165 -3.143
69 T7 166 -4.120
69 T7 167 -6.073
69 T7 168 -6.561
69 T7 169 -6.073
69 T7 170 -4.120
69 T7 171 -1.190
69 T7 172 1.251
69 T7 173 4.181
69 T7 174 6.622
69 T7 175 9.064
69 T7 176 11.017
69 T7 177 11.505
69 T7 178 10.040
69 T7 179 7.111
69 T7 180 3.693
69 T7 181 1.251
69 T7 182 1.740
69 T7 183 3.693
69 T7 184 6.622
69 T7 185 8.575
69 T7 186 8.087
69 T7 187 5.646
69 T7 188 2.716
69 T7 189 2.228
69 T7 190 4.181
69 T7 191 8.087
69 T7 192 11.505
69 T7 193 11.017
69 T7 194 6.622
69 T7 195 1.251
69 T7 196 -2.167
69 T7 197 -0.702
69 T7 198 3.204
69 T7 199 6.622
69 T7 200 6.134
69 T7 201 3.204
69 T7 202 0.275
69 T7 203 0.763
69 T7 204 4.181
69 T7 205 7.599
69 T7 206 7.599
69 T7 207 5.157
69 T7 208 1.251
69 T7 209 -0.702
69 T7 210 -1.190
69 T7 211 -1.678
69 T7 212 -3.143
69 T7 213 -5.096
69 T7 214 -5.096
69 T7 215 -2.167
69 T7 216 1.251
69 T7 217 3.693
69 T7 218 2.228
69 T7 219 -1.190
69 T7 220 -2.167
69 T7 221 1.251
69 T7 222 9.552
69 T7 223 18.341
69 T7 224 22.736
69 T7 225 19.806
69 T7 226 13.458
69 T7 227 7.111
69 T7 228 5.646
69 T7 229 8.087
69 T7 230 10.529
69 T7 231 8.575
69 T7 232 2.228
69 T7 233 -7.050
69 T7 234 -13.885
69 T7 235 -16.327
69 T7 236 -13.885
69 T7 237 -7.538
69 T7 238 -1.678
69 T7 239 2.228
69 T7 240 2.228
69 T7 241 -1.190
69 T7 242 -5.585
69 T7 243 -8.514
69 T7 244 -8.026
69 T7 245 -5.096
69 T7 246 -2.167
69 T7 247 -2.167
69 T7 248 -4.120
69 T7 249 -5.096
69 T7 250 -2.655
69 T7 251 3.693
69 T7 252 11.505
69 T7 253 15.900
69 T7 254 15.411
69 T7 255 10.529
# CZ chan 15
69 CZ 0 -7.161
69 CZ 1 -6.673
69 CZ 2 -4.232
69 CZ 3 -1.790
69 CZ 4 -1.302
69 CZ 5 -3.255
69 CZ 6 -5.697
69 CZ 7 -6.673
69 CZ 8 -5.697
69 CZ 9 -3.743
69 CZ 10 -4.232
69 CZ 11 -6.673
69 CZ 12 -10.091
69 CZ 13 -11.556
69 CZ 14 -9.603
69 CZ 15 -5.208
69 CZ 16 -2.279
69 CZ 17 -4.232
69 CZ 18 -9.115
69 CZ 19 -13.997
69 CZ 20 -14.486
69 CZ 21 -9.603
69 CZ 22 -2.279
69 CZ 23 2.604
69 CZ 24 2.116
69 CZ 25 -1.790
69 CZ 26 -4.720
69 CZ 27 -2.767
69 CZ 28 3.092
69 CZ 29 9.928
69 CZ 30 12.370
69 CZ 31 10.417
69 CZ 32 7.487
69 CZ 33 7.487
69 CZ 34 11.882
69 CZ 35 17.741
69 CZ 36 22.135
69 CZ 37 21.159
69 CZ 38 17.741
69 CZ 39 15.299
69 CZ 40 16.276
69 CZ 41 19.694
69 CZ 42 21.159
69 CZ 43 17.741
69 CZ 44 9.928
69 CZ 45 2.116
69 CZ 46 -2.279
69 CZ 47 -1.302
69 CZ 48 1.139
69 CZ 49 1.628
69 CZ 50 -1.302
69 CZ 51 -5.208
69 CZ 52 -7.161
69 CZ 53 -6.185
69 CZ 54 -3.743
69 CZ 55 -2.279
69 CZ 56 -3.743
69 CZ 57 -6.673
69 CZ 58 -7.650
69 CZ 59 -5.697
69 CZ 60 -0.814
69 CZ 61 5.046
69 CZ 62 8.952
69 CZ 63 11.393
69 CZ 64 12.858
69 CZ 65 13.346
69 CZ 66 13.346
69 CZ 67 10.905
69 CZ 68 7.975
69 CZ 69 5.534
69 CZ 70 5.046
69 CZ 71 6.022
69 CZ 72 7.487
69 CZ 73 7.975
69 CZ 74 7.487
69 CZ 75 6.510
69 CZ 76 6.022
69 CZ 77 6.022
69 CZ 78 6.022
69 CZ 79 6.022
69 CZ 80 6.510
69 CZ 81 8.464
69 CZ 82 11.882
69 CZ 83 15.299
69 CZ 84 18.229
69 CZ 85 18.229
69 CZ 86 16.276
69 CZ 87 14.323
69 CZ 88 14.323
69 CZ 89 15.299
69 CZ 90 15.788
69 CZ 91 13.346
69 CZ 92 8.464
69 CZ 93 3.581
69 CZ 94 1.628
69 CZ 95 3.581
69 CZ 96 8.464
69 CZ 97 12.370
69 CZ 98 12.858
69 CZ 99 9.928
69 CZ 100 6.022
69 CZ 101 4.557
69 CZ 102 5.534
69 CZ 103 6.999
69 CZ 104 6.510
69 CZ 105 4.069
69 CZ 106 0.163
69 CZ 107 -2.279
69 CZ 108 -0.814
69 CZ 109 3.581
69 CZ 110 8.464
69 CZ 111 10.905
69 CZ 112 9.440
69 CZ 113 5.534
69 CZ 114 -0.326
69 CZ 115 -4.720
69 CZ 116 -9.115
69 CZ 117 -11.556
69 CZ 118 -12.044
69 CZ 119 -10.579
69 CZ 120 -6.185
69 CZ 121 -1.790
69 CZ 122 1.139
69 CZ 123 0.651
69 CZ 124 -3.255
69 CZ 125 -9.115
69 CZ 126 -13.021
69 CZ 127 -13.509
69 CZ 128 -11.556
69 CZ 129 -8.138
69 CZ 130 -4.720
69 CZ 131 -3.255
69 CZ 132 -1.790
69 CZ 133 -1.302
69 CZ 134 -0.814
69 CZ 135 -0.814
69 CZ 136 -0.814
69 CZ 137 -0.326
69 CZ 138 0.163
69 CZ 139 0.651
69 CZ 140 -1.302
69 CZ 141 -3.743
69 CZ 142 -6.185
69 CZ 143 -7.161
69 CZ 144 -5.697
69 CZ 145 -2.767
69 CZ 146 0.163
69 CZ 147 1.139
69 CZ 148 0.163
69 CZ 149 -1.790
69 CZ 150 -4.232
69 CZ 151 -6.185
69 CZ 152 -7.650
69 CZ 153 -9.115
69 CZ 154 -10.091
69 CZ 155 -10.091
69 CZ 156 -10.091
69 CZ 157 -10.091
69 CZ 158 -11.068
69 CZ 159 -13.509
69 CZ 160 -16.439
69 CZ 161 -19.368
69 CZ 162 -21.810
69 CZ 163 -22.786
69 CZ 164 -21.322
69 CZ 165 -17.904
69 CZ 166 -13.509
69 CZ 167 -9.603
69 CZ 168 -9.115
69 CZ 169 -11.556
69 CZ 170 -16.439
69 CZ 171 -19.368
69 CZ 172 -17.415
69 CZ 173 -9.115
69 CZ 174 2.116
69 CZ 175 10.417
69 CZ 176 11.882
69 CZ 177 6.999
69 CZ 178 -0.814
69 CZ 179 -4.720
69 CZ 180 -3.743
69 CZ 181 0.651
69 CZ 182 4.557
69 CZ 183 4.069
69 CZ 184 1.139
69 CZ 185 -1.790
69 CZ 186 -1.302
69 CZ 187 2.116
69 CZ 188 5.046
69 CZ 189 4.069
69 CZ 190 -1.790
69 CZ 191 -9.603
69 CZ 192 -14.486
69 CZ 193 -13.509
69 CZ 194 -8.138
69 CZ 195 -1.302
69 CZ 196 3.092
69 CZ 197 4.557
69 CZ 198 4.069
69 CZ 199 2.604
69 CZ 200 1.139
69 CZ 201 0.163
69 CZ 202 -0.326
69 CZ 203 1.628
69 CZ 204 5.046
69 CZ 205 8.952
69 CZ 206 9.928
69 CZ 207 7.487
69 CZ 208 2.116
69 CZ 209 -3.255
69 CZ 210 -6.185
69 CZ 211 -4.720
69 CZ 212 -0.814
69 CZ 213 2.604
69 CZ 214 4.069
69 CZ 215 3.092
69 CZ 216 1.628
69 CZ 217 -0.326
69 CZ 218 -2.767
69 CZ 219 -4.720
69 CZ 220 -6.185
69 CZ 221 -6.185
69 CZ 222 -2.767
69 CZ 223 2.116
69 CZ 224 6.022
69 CZ 225 6.999
69 CZ 226 4.069
69 CZ 227 -0.326
69 CZ 228 -4.232
69 CZ 229 -6.185
69 CZ 230 -5.697
69 CZ 231 -5.697
69 CZ 232 -8.138
69 CZ 233 -12.044
69 CZ 234 -14.974
69 CZ 235 -16.439
69 CZ 236 -15.462
69 CZ 237 -13.997
69 CZ 238 -13.021
69 CZ 239 -13.509
69 CZ 240 -15.462
69 CZ 241 -16.927
69 CZ 242 -16.439
69 CZ 243 -13.021
69 CZ 244 -8.138
69 CZ 245 -2.767
69 CZ 246 1.139
69 CZ 247 2.604
69 CZ 248 1.628
69 CZ 249 -0.326
69 CZ 250 -2.279
69 CZ 251 -2.767
69 CZ 252 -2.279
69 CZ 253 -2.279
69 CZ 254 -5.208
69 CZ 255 -11.068
# C3 chan 16
69 C3 0 -2.289
69 C3 1 -1.312
69 C3 2 1.129
69 C3 3 3.082
69 C3 4 3.082
69 C3 5 0.641
69 C3 6 -1.312
69 C3 7 -1.801
69 C3 8 0.153
69 C3 9 3.571
69 C3 10 5.035
69 C3 11 4.059
69 C3 12 2.106
69 C3 13 1.129
69 C3 14 1.129
69 C3 15 2.106
69 C3 16 2.106
69 C3 17 -0.336
69 C3 18 -4.242
69 C3 19 -7.172
69 C3 20 -6.683
69 C3 21 -3.265
69 C3 22 0.641
69 C3 23 2.594
69 C3 24 2.106
69 C3 25 0.153
69 C3 26 -1.312
69 C3 27 0.153
69 C3 28 3.571
69 C3 29 6.500
69 C3 30 7.477
69 C3 31 6.012
69 C3 32 4.547
69 C3 33 4.059
69 C3 34 6.989
69 C3 35 10.895
69 C3 36 14.313
69 C3 37 15.289
69 C3 38 13.824
69 C3 39 11.383
69 C3 40 9.918
69 C3 41 9.918
69 C3 42 10.406
69 C3 43 9.918
69 C3 44 7.965
69 C3 45 5.524
69 C3 46 3.571
69 C3 47 2.594
69 C3 48 2.106
69 C3 49 1.129
69 C3 50 -2.289
69 C3 51 -6.683
69 C3 52 -11.078
69 C3 53 -12.054
69 C3 54 -10.101
69 C3 55 -6.683
69 C3 56 -4.242
69 C3 57 -3.265
69 C3 58 -3.754
69 C3 59 -3.265
69 C3 60 -1.312
69 C3 61 2.594
69 C3 62 6.012
69 C3 63 7.477
69 C3 64 6.500
69 C3 65 4.547
69 C3 66 3.571
69 C3 67 4.059
69 C3 68 6.012
69 C3 69 7.477
69 C3 70 6.989
69 C3 71 4.059
69 C3 72 1.129
69 C3 73 -0.336
69 C3 74 0.641
69 C3 75 2.106
69 C3 76 3.571
69 C3 77 3.082
69 C3 78 1.617
69 C3 79 1.129
69 C3 80 1.617
69 C3 81 3.082
69 C3 82 4.547
69 C3 83 4.059
69 C3 84 3.082
69 C3 85 1.617
69 C3 86 2.106
69 C3 87 3.571
69 C3 88 5.035
69 C3 89 5.524
69 C3 90 4.547
69 C3 91 4.059
69 C3 92 3.571
69 C3 93 4.059
69 C3 94 3.571
69 C3 95 2.594
69 C3 96 1.129
69 C3 97 0.153
69 C3 98 0.641
69 C3 99 2.106
69 C3 100 3.571
69 C3 101 4.547
69 C3 102 5.524
69 C3 103 5.524
69 C3 104 5.524
69 C3 105 5.035
69 C3 106 3.571
69 C3 107 3.082
69 C3 108 3.082
69 C3 109 4.059
69 C3 110 6.012
69 C3 111 7.477
69 C3 112 7.477
69 C3 113 6.012
69 C3 114 4.059
69 C3 115 3.082
69 C3 116 2.106
69 C3 117 2.106
69 C3 118 1.617
69 C3 119 1.617
69 C3 120 1.129
69 C3 121 1.129
69 C3 122 1.617
69 C3 123 1.617
69 C3 124 1.617
69 C3 125 1.129
69 C3 126 0.641
69 C3 127 0.153
69 C3 128 -0.824
69 C3 129 -2.289
69 C3 130 -3.265
69 C3 131 -4.242
69 C3 132 -4.242
69 C3 133 -3.265
69 C3 134 -1.312
69 C3 135 1.129
69 C3 136 2.594
69 C3 137 3.082
69 C3 138 3.082
69 C3 139 3.571
69 C3 140 4.059
69 C3 141 4.547
69 C3 142 4.547
69 C3 143 4.547
69 C3 144 4.547
69 C3 145 5.035
69 C3 146 6.012
69 C3 147 6.500
69 C3 148 6.012
69 C3 149 4.547
69 C3 150 2.106
69 C3 151 0.153
69 C3 152 -1.801
69 C3 153 -3.265
69 C3 154 -4.242
69 C3 155 -4.730
69 C3 156 -4.242
69 C3 157 -2.289
69 C3 158 0.153
69 C3 159 2.106
69 C3 160 2.594
69 C3 161 1.617
69 C3 162 1.129
69 C3 163 1.617
69 C3 164 3.571
69 C3 165 5.524
69 C3 166 6.989
69 C3 167 6.500
69 C3 168 5.035
69 C3 169 3.571
69 C3 170 3.571
69 C3 171 5.035
69 C3 172 7.477
69 C3 173 10.406
69 C3 174 11.871
69 C3 175 10.895
69 C3 176 8.453
69 C3 177 5.035
69 C3 178 3.082
69 C3 179 4.059
69 C3 180 6.989
69 C3 181 9.918
69 C3 182 10.895
69 C3 183 9.918
69 C3 184 8.942
69 C3 185 8.453
69 C3 186 9.430
69 C3 187 10.895
69 C3 188 11.383
69 C3 189 9.918
69 C3 190 8.453
69 C3 191 7.965
69 C3 192 7.477
69 C3 193 6.500
69 C3 194 5.524
69 C3 195 4.547
69 C3 196 5.035
69 C3 197 6.989
69 C3 198 10.406
69 C3 199 12.848
69 C3 200 12.360
69 C3 201 9.430
69 C3 202 5.524
69 C3 203 3.571
69 C3 204 3.571
69 C3 205 6.012
69 C3 206 7.477
69 C3 207 6.500
69 C3 208 2.594
69 C3 209 -0.824
69 C3 210 -2.777
69 C3 211 -0.824
69 C3 212 2.594
69 C3 213 6.012
69 C3 214 6.500
69 C3 215 5.035
69 C3 216 3.082
69 C3 217 2.594
69 C3 218 4.547
69 C3 219 6.989
69 C3 220 8.942
69 C3 221 8.453
69 C3 222 6.500
69 C3 223 5.035
69 C3 224 5.035
69 C3 225 6.989
69 C3 226 10.406
69 C3 227 13.336
69 C3 228 13.336
69 C3 229 10.895
69 C3 230 7.477
69 C3 231 4.547
69 C3 232 3.571
69 C3 233 4.059
69 C3 234 4.547
69 C3 235 4.059
69 C3 236 1.617
69 C3 237 -1.312
69 C3 238 -4.242
69 C3 239 -4.730
69 C3 240 -3.754
69 C3 241 -0.824
69 C3 242 2.106
69 C3 243 3.082
69 C3 244 2.106
69 C3 245 0.153
69 C3 246 -1.801
69 C3 247 -1.801
69 C3 248 0.153
69 C3 249 3.082
69 C3 250 5.035
69 C3 251 5.035
69 C3 252 3.571
69 C3 253 2.106
69 C3 254 2.594
69 C3 255 4.547
# C4 chan 17
69 C4 0 -2.401
69 C4 1 -3.377
69 C4 2 -2.889
69 C4 3 -1.424
69 C4 4 -0.448
69 C4 5 0.041
69 C4 6 0.041
69 C4 7 -0.936
69 C4 8 -1.912
69 C4 9 -1.912
69 C4 10 -1.424
69 C4 11 0.041
69 C4 12 1.017
69 C4 13 1.017
69 C4 14 0.041
69 C4 15 -1.424
69 C4 16 -3.377
69 C4 17 -4.354
69 C4 18 -4.354
69 C4 19 -3.866
69 C4 20 -2.889
69 C4 21 -2.889
69 C4 22 -3.377
69 C4 23 -3.866
69 C4 24 -3.377
69 C4 25 -1.912
69 C4 26 -0.936
69 C4 27 -0.936
69 C4 28 -1.424
69 C4 29 -2.889
69 C4 30 -3.866
69 C4 31 -2.889
69 C4 32 -1.912
69 C4 33 -0.448
69 C4 34 0.529
69 C4 35 0.529
69 C4 36 -0.448
69 C4 37 -1.424
69 C4 38 -1.912
69 C4 39 -2.401
69 C4 40 -1.912
69 C4 41 -0.936
69 C4 42 0.529
69 C4 43 1.506
69 C4 44 1.994
69 C4 45 1.994
69 C4 46 0.529
69 C4 47 -1.912
69 C4 48 -4.354
69 C4 49 -5.330
69 C4 50 -4.354
69 C4 51 -1.424
69 C4 52 1.017
69 C4 53 2.482
69 C4 54 1.017
69 C4 55 -1.912
69 C4 56 -4.842
69 C4 57 -6.795
69 C4 58 -6.795
69 C4 59 -6.307
69 C4 60 -5.330
69 C4 61 -4.842
69 C4 62 -3.866
69 C4 63 -1.912
69 C4 64 0.529
69 C4 65 2.482
69 C4 66 3.459
69 C4 67 1.994
69 C4 68 -0.936
69 C4 69 -3.866
69 C4 70 -5.330
69 C4 71 -4.354
69 C4 72 -2.889
69 C4 73 -2.401
69 C4 74 -2.889
69 C4 75 -4.354
69 C4 76 -5.330
69 C4 77 -4.354
69 C4 78 -1.912
69 C4 79 0.529
69 C4 80 1.506
69 C4 81 1.017
69 C4 82 -0.936
69 C4 83 -1.424
69 C4 84 -0.448
69 C4 85 1.994
69 C4 86 3.459
69 C4 87 3.459
69 C4 88 1.506
69 C4 89 -0.448
69 C4 90 -0.448
69 C4 91 0.529
69 C4 92 2.482
69 C4 93 2.970
69 C4 94 2.482
69 C4 95 0.529
69 C4 96 -0.448
69 C4 97 0.041
69 C4 98 1.994
69 C4 99 3.947
69 C4 100 5.412
69 C4 101 4.924
69 C4 102 2.970
69 C4 103 1.017
69 C4 104 -0.448
69 C4 105 -0.448
69 C4 106 1.017
69 C4 107 1.994
69 C4 108 1.506
69 C4 109 0.041
69 C4 110 -1.424
69 C4 111 -2.889
69 C4 112 -2.401
69 C4 113 -0.936
69 C4 114 0.529
69 C4 115 1.506
69 C4 116 1.017
69 C4 117 0.041
69 C4 118 -1.424
69 C4 119 -2.401
69 C4 120 -2.889
69 C4 121 -3.377
69 C4 122 -3.866
69 C4 123 -4.354
69 C4 124 -5.330
69 C4 125 -4.842
69 C4 126 -4.354
69 C4 127 -3.377
69 C4 128 -1.912
69 C4 129 -0.936
69 C4 130 0.041
69 C4 131 0.529
69 C4 132 1.017
69 C4 133 1.506
69 C4 134 1.017
69 C4 135 0.529
69 C4 136 -1.424
69 C4 137 -4.354
69 C4 138 -7.284
69 C4 139 -10.213
69 C4 140 -11.678
69 C4 141 -12.166
69 C4 142 -12.166
69 C4 143 -12.166
69 C4 144 -12.166
69 C4 145 -11.678
69 C4 146 -11.190
69 C4 147 -10.213
69 C4 148 -9.725
69 C4 149 -9.725
69 C4 150 -9.725
69 C4 151 -9.725
69 C4 152 -8.748
69 C4 153 -7.284
69 C4 154 -6.307
69 C4 155 -5.819
69 C4 156 -6.307
69 C4 157 -6.795
69 C4 158 -7.284
69 C4 159 -7.284
69 C4 160 -7.772
69 C4 161 -8.748
69 C4 162 -9.725
69 C4 163 -11.190
69 C4 164 -11.678
69 C4 165 -11.678
69 C4 166 -10.701
69 C4 167 -10.213
69 C4 168 -9.725
69 C4 169 -9.237
69 C4 170 -9.237
69 C4 171 -8.748
69 C4 172 -8.260
69 C4 173 -7.284
69 C4 174 -6.307
69 C4 175 -5.330
69 C4 176 -4.354
69 C4 177 -3.377
69 C4 178 -2.889
69 C4 179 -3.866
69 C4 180 -5.819
69 C4 181 -7.772
69 C4 182 -7.772
69 C4 183 -6.307
69 C4 184 -4.842
69 C4 185 -3.866
69 C4 186 -5.330
69 C4 187 -6.795
69 C4 188 -8.260
69 C4 189 -7.772
69 C4 190 -5.819
69 C4 191 -3.866
69 C4 192 -2.889
69 C4 193 -2.401
69 C4 194 -3.377
69 C4 195 -3.866
69 C4 196 -3.377
69 C4 197 -2.401
69 C4 198 -1.424
69 C4 199 -0.448
69 C4 200 -0.448
69 C4 201 -0.448
69 C4 202 -0.936
69 C4 203 -0.448
69 C4 204 0.529
69 C4 205 1.994
69 C4 206 1.994
69 C4 207 1.017
69 C4 208 -0.936
69 C4 209 -2.401
69 C4 210 -2.401
69 C4 211 -0.936
69 C4 212 0.529
69 C4 213 0.529
69 C4 214 -0.936
69 C4 215 -3.377
69 C4 216 -4.842
69 C4 217 -4.842
69 C4 218 -4.354
69 C4 219 -4.354
69 C4 220 -4.842
69 C4 221 -5.819
69 C4 222 -5.819
69 C4 223 -4.354
69 C4 224 -2.889
69 C4 225 -2.401
69 C4 226 -3.866
69 C4 227 -5.330
69 C4 228 -6.307
69 C4 229 -5.330
69 C4 230 -4.354
69 C4 231 -3.866
69 C4 232 -5.330
69 C4 233 -7.284
69 C4 234 -7.772
69 C4 235 -6.795
69 C4 236 -5.330
69 C4 237 -3.866
69 C4 238 -3.866
69 C4 239 -5.330
69 C4 240 -6.795
69 C4 241 -7.284
69 C4 242 -7.772
69 C4 243 -6.795
69 C4 244 -5.330
69 C4 245 -3.866
69 C4 246 -2.401
69 C4 247 -1.424
69 C4 248 -0.936
69 C4 249 -0.936
69 C4 250 -0.936
69 C4 251 -1.424
69 C4 252 -1.424
69 C4 253 -2.401
69 C4 254 -3.866
69 C4 255 -5.330
# CP5 chan 18
69 CP5 0 -4.486
69 CP5 1 -5.463
69 CP5 2 -4.486
69 CP5 3 -2.533
69 CP5 4 -1.556
69 CP5 5 -1.556
69 CP5 6 -2.533
69 CP5 7 -2.533
69 CP5 8 0.397
69 CP5 9 5.280
69 CP5 10 9.186
69 CP5 11 9.186
69 CP5 12 5.280
69 CP5 13 0.885
69 CP5 14 -1.068
69 CP5 15 -0.092
69 CP5 16 1.862
69 CP5 17 1.373
69 CP5 18 -2.045
69 CP5 19 -5.951
69 CP5 20 -7.904
69 CP5 21 -4.486
69 CP5 22 1.862
69 CP5 23 7.233
69 CP5 24 8.209
69 CP5 25 5.768
69 CP5 26 2.350
69 CP5 27 1.373
69 CP5 28 3.815
69 CP5 29 8.209
69 CP5 30 11.627
69 CP5 31 12.115
69 CP5 32 10.162
69 CP5 33 8.698
69 CP5 34 9.674
69 CP5 35 14.069
69 CP5 36 18.463
69 CP5 37 20.905
69 CP5 38 19.928
69 CP5 39 16.998
69 CP5 40 14.557
69 CP5 41 13.580
69 CP5 42 13.580
69 CP5 43 11.627
69 CP5 44 8.209
69 CP5 45 3.326
69 CP5 46 0.885
69 CP5 47 0.397
69 CP5 48 1.373
69 CP5 49 0.397
69 CP5 50 -3.510
69 CP5 51 -8.881
69 CP5 52 -13.275
69 CP5 53 -13.275
69 CP5 54 -11.322
69 CP5 55 -8.392
69 CP5 56 -6.927
69 CP5 57 -7.416
69 CP5 58 -6.927
69 CP5 59 -4.486
69 CP5 60 -0.580
69 CP5 61 3.326
69 CP5 62 5.280
69 CP5 63 6.256
69 CP5 64 6.256
69 CP5 65 7.233
69 CP5 66 9.186
69 CP5 67 11.139
69 CP5 68 11.139
69 CP5 69 9.674
69 CP5 70 6.744
69 CP5 71 4.303
69 CP5 72 2.838
69 CP5 73 2.350
69 CP5 74 2.350
69 CP5 75 2.350
69 CP5 76 1.373
69 CP5 77 0.397
69 CP5 78 -1.068
69 CP5 79 -1.556
69 CP5 80 -1.556
69 CP5 81 -0.092
69 CP5 82 0.885
69 CP5 83 1.862
69 CP5 84 3.326
69 CP5 85 4.791
69 CP5 86 6.744
69 CP5 87 8.209
69 CP5 88 8.698
69 CP5 89 7.233
69 CP5 90 3.815
69 CP5 91 0.885
69 CP5 92 -1.556
69 CP5 93 -2.045
69 CP5 94 -2.045
69 CP5 95 -1.556
69 CP5 96 -1.556
69 CP5 97 -0.580
69 CP5 98 2.350
69 CP5 99 5.768
69 CP5 100 8.698
69 CP5 101 9.674
69 CP5 102 7.233
69 CP5 103 2.838
69 CP5 104 -1.556
69 CP5 105 -3.021
69 CP5 106 -2.045
69 CP5 107 0.885
69 CP5 108 2.838
69 CP5 109 3.815
69 CP5 110 3.815
69 CP5 111 3.815
69 CP5 112 3.815
69 CP5 113 3.326
69 CP5 114 2.350
69 CP5 115 -0.580
69 CP5 116 -4.486
69 CP5 117 -8.392
69 CP5 118 -11.322
69 CP5 119 -11.810
69 CP5 120 -9.857
69 CP5 121 -6.927
69 CP5 122 -3.998
69 CP5 123 -2.533
69 CP5 124 -3.510
69 CP5 125 -4.974
69 CP5 126 -6.439
69 CP5 127 -6.439
69 CP5 128 -5.463
69 CP5 129 -3.998
69 CP5 130 -3.510
69 CP5 131 -4.486
69 CP5 132 -6.439
69 CP5 133 -7.904
69 CP5 134 -8.881
69 CP5 135 -8.392
69 CP5 136 -7.416
69 CP5 137 -5.951
69 CP5 138 -3.998
69 CP5 139 -1.556
69 CP5 140 0.885
69 CP5 141 3.326
69 CP5 142 6.256
69 CP5 143 7.721
69 CP5 144 7.233
69 CP5 145 4.791
69 CP5 146 0.885
69 CP5 147 -3.021
69 CP5 148 -5.951
69 CP5 149 -7.416
69 CP5 150 -6.927
69 CP5 151 -6.439
69 CP5 152 -5.463
69 CP5 153 -5.463
69 CP5 154 -6.439
69 CP5 155 -7.904
69 CP5 156 -10.345
69 CP5 157 -11.322
69 CP5 158 -11.322
69 CP5 159 -9.369
69 CP5 160 -7.904
69 CP5 161 -5.951
69 CP5 162 -4.486
69 CP5 163 -3.021
69 CP5 164 -0.092
69 CP5 165 2.838
69 CP5 166 5.280
69 CP5 167 6.744
69 CP5 168 6.744
69 CP5 169 5.768
69 CP5 170 4.791
69 CP5 171 5.768
69 CP5 172 7.721
69 CP5 173 10.651
69 CP5 174 12.604
69 CP5 175 12.604
69 CP5 176 10.651
69 CP5 177 7.721
69 CP5 178 6.256
69 CP5 179 7.233
69 CP5 180 9.674
69 CP5 181 12.115
69 CP5 182 12.604
69 CP5 183 11.627
69 CP5 184 10.651
69 CP5 185 11.139
69 CP5 186 12.115
69 CP5 187 12.604
69 CP5 188 11.139
69 CP5 189 9.674
69 CP5 190 8.698
69 CP5 191 9.674
69 CP5 192 11.139
69 CP5 193 11.627
69 CP5 194 9.674
69 CP5 195 7.233
69 CP5 196 5.280
69 CP5 197 6.744
69 CP5 198 9.186
69 CP5 199 11.139
69 CP5 200 10.162
69 CP5 201 6.744
69 CP5 202 4.303
69 CP5 203 4.303
69 CP5 204 7.721
69 CP5 205 12.115
69 CP5 206 13.580
69 CP5 207 11.627
69 CP5 208 6.256
69 CP5 209 0.885
69 CP5 210 -2.533
69 CP5 211 -3.021
69 CP5 212 -1.556
69 CP5 213 0.397
69 CP5 214 1.373
69 CP5 215 1.373
69 CP5 216 2.838
69 CP5 217 5.280
69 CP5 218 8.698
69 CP5 219 11.627
69 CP5 220 13.092
69 CP5 221 13.092
69 CP5 222 12.115
69 CP5 223 11.139
69 CP5 224 11.139
69 CP5 225 11.627
69 CP5 226 12.604
69 CP5 227 12.604
69 CP5 228 11.139
69 CP5 229 8.698
69 CP5 230 6.744
69 CP5 231 5.280
69 CP5 232 6.256
69 CP5 233 7.721
69 CP5 234 8.698
69 CP5 235 8.209
69 CP5 236 4.791
69 CP5 237 1.373
69 CP5 238 -2.045
69 CP5 239 -3.998
69 CP5 240 -4.974
69 CP5 241 -3.998
69 CP5 242 -2.533
69 CP5 243 -0.580
69 CP5 244 1.862
69 CP5 245 4.791
69 CP5 246 6.744
69 CP5 247 8.209
69 CP5 248 7.721
69 CP5 249 6.744
69 CP5 250 5.768
69 CP5 251 6.256
69 CP5 252 7.721
69 CP5 253 10.162
69 CP5 254 12.604
69 CP5 255 14.069
# CP6 chan 19
69 CP6 0 -2.096
69 CP6 1 -1.119
69 CP6 2 -0.142
69 CP6 3 -1.607
69 CP6 4 -3.560
69 CP6 5 -5.514
69 CP6 6 -5.025
69 CP6 7 -3.072
69 CP6 8 -0.631
69 CP6 9 0.346
69 CP6 10 -0.142
69 CP6 11 -1.119
69 CP6 12 -1.607
69 CP6 13 -1.119
69 CP6 14 -0.631
69 CP6 15 -0.631
69 CP6 16 -2.096
69 CP6 17 -4.537
69 CP6 18 -6.978
69 CP6 19 -7.955
69 CP6 20 -6.978
69 CP6 21 -5.025
69 CP6 22 -3.072
69 CP6 23 -2.096
69 CP6 24 -2.584
69 CP6 25 -3.560
69 CP6 26 -3.560
69 CP6 27 -2.096
69 CP6 28 -0.631
69 CP6 29 0.834
69 CP6 30 0.346
69 CP6 31 -0.142
69 CP6 32 0.346
69 CP6 33 2.299
69 CP6 34 5.229
69 CP6 35 7.182
69 CP6 36 7.182
69 CP6 37 5.229
69 CP6 38 3.764
69 CP6 39 3.276
69 CP6 40 4.740
69 CP6 41 6.694
69 CP6 42 6.694
69 CP6 43 5.229
69 CP6 44 1.811
69 CP6 45 -2.096
69 CP6 46 -5.025
69 CP6 47 -7.955
69 CP6 48 -8.931
69 CP6 49 -8.443
69 CP6 50 -6.490
69 CP6 51 -3.072
69 CP6 52 0.346
69 CP6 53 1.811
69 CP6 54 0.834
69 CP6 55 -2.584
69 CP6 56 -6.978
69 CP6 57 -10.885
69 CP6 58 -12.349
69 CP6 59 -11.861
69 CP6 60 -9.420
69 CP6 61 -7.467
69 CP6 62 -5.514
69 CP6 63 -4.049
69 CP6 64 -2.096
69 CP6 65 1.811
69 CP6 66 4.252
69 CP6 67 5.229
69 CP6 68 2.299
69 CP6 69 -2.584
69 CP6 70 -6.978
69 CP6 71 -8.443
69 CP6 72 -6.978
69 CP6 73 -5.025
69 CP6 74 -4.049
69 CP6 75 -5.025
69 CP6 76 -5.514
69 CP6 77 -4.537
69 CP6 78 -2.096
69 CP6 79 0.346
69 CP6 80 0.834
69 CP6 81 -0.142
69 CP6 82 -2.096
69 CP6 83 -1.119
69 CP6 84 1.811
69 CP6 85 6.205
69 CP6 86 9.135
69 CP6 87 10.111
69 CP6 88 9.135
69 CP6 89 7.670
69 CP6 90 6.205
69 CP6 91 4.252
69 CP6 92 1.322
69 CP6 93 -2.096
69 CP6 94 -5.025
69 CP6 95 -5.514
69 CP6 96 -4.049
69 CP6 97 -1.607
69 CP6 98 0.834
69 CP6 99 1.811
69 CP6 100 0.834
69 CP6 101 -0.631
69 CP6 102 -1.607
69 CP6 103 -1.607
69 CP6 104 -1.119
69 CP6 105 -1.607
69 CP6 106 -3.072
69 CP6 107 -4.537
69 CP6 108 -6.002
69 CP6 109 -6.002
69 CP6 110 -4.537
69 CP6 111 -3.072
69 CP6 112 -3.072
69 CP6 113 -5.025
69 CP6 114 -7.955
69 CP6 115 -10.885
69 CP6 116 -11.861
69 CP6 117 -12.349
69 CP6 118 -12.838
69 CP6 119 -13.814
69 CP6 120 -15.279
69 CP6 121 -15.767
69 CP6 122 -14.791
69 CP6 123 -12.838
69 CP6 124 -10.396
69 CP6 125 -8.931
69 CP6 126 -7.955
69 CP6 127 -7.467
69 CP6 128 -6.490
69 CP6 129 -5.514
69 CP6 130 -4.537
69 CP6 131 -4.537
69 CP6 132 -5.025
69 CP6 133 -6.002
69 CP6 134 -6.002
69 CP6 135 -6.490
69 CP6 136 -7.955
69 CP6 137 -10.396
69 CP6 138 -12.838
69 CP6 139 -14.303
69 CP6 140 -14.791
69 CP6 141 -12.349
69 CP6 142 -9.420
69 CP6 143 -7.955
69 CP6 144 -8.443
69 CP6 145 -10.885
69 CP6 146 -14.303
69 CP6 147 -17.232
69 CP6 148 -18.697
69 CP6 149 -18.209
69 CP6 150 -15.767
69 CP6 151 -13.326
69 CP6 152 -11.373
69 CP6 153 -10.396
69 CP6 154 -10.885
69 CP6 155 -12.349
69 CP6 156 -14.303
69 CP6 157 -16.256
69 CP6 158 -17.721
69 CP6 159 -18.209
69 CP6 160 -18.209
69 CP6 161 -18.209
69 CP6 162 -18.209
69 CP6 163 -17.721
69 CP6 164 -16.744
69 CP6 165 -14.791
69 CP6 166 -11.861
69 CP6 167 -8.931
69 CP6 168 -7.955
69 CP6 169 -8.931
69 CP6 170 -10.396
69 CP6 171 -11.373
69 CP6 172 -9.420
69 CP6 173 -5.025
69 CP6 174 -0.631
69 CP6 175 2.787
69 CP6 176 3.764
69 CP6 177 2.787
69 CP6 178 -0.142
69 CP6 179 -2.584
69 CP6 180 -4.537
69 CP6 181 -5.514
69 CP6 182 -4.537
69 CP6 183 -2.584
69 CP6 184 0.346
69 CP6 185 2.787
69 CP6 186 2.299
69 CP6 187 -0.142
69 CP6 188 -4.049
69 CP6 189 -7.467
69 CP6 190 -7.955
69 CP6 191 -5.514
69 CP6 192 -2.096
69 CP6 193 0.346
69 CP6 194 0.346
69 CP6 195 -1.607
69 CP6 196 -4.049
69 CP6 197 -4.537
69 CP6 198 -2.584
69 CP6 199 0.834
69 CP6 200 3.764
69 CP6 201 3.764
69 CP6 202 2.299
69 CP6 203 0.834
69 CP6 204 1.322
69 CP6 205 2.787
69 CP6 206 4.740
69 CP6 207 5.717
69 CP6 208 4.252
69 CP6 209 2.787
69 CP6 210 1.322
69 CP6 211 0.834
69 CP6 212 0.346
69 CP6 213 -0.631
69 CP6 214 -2.096
69 CP6 215 -3.072
69 CP6 216 -2.584
69 CP6 217 -1.119
69 CP6 218 -0.631
69 CP6 219 -1.119
69 CP6 220 -3.072
69 CP6 221 -4.049
69 CP6 222 -3.560
69 CP6 223 -2.096
69 CP6 224 -0.631
69 CP6 225 -0.631
69 CP6 226 -1.607
69 CP6 227 -2.584
69 CP6 228 -3.072
69 CP6 229 -3.072
69 CP6 230 -4.049
69 CP6 231 -6.002
69 CP6 232 -8.443
69 CP6 233 -9.420
69 CP6 234 -8.443
69 CP6 235 -6.002
69 CP6 236 -4.049
69 CP6 237 -3.560
69 CP6 238 -4.537
69 CP6 239 -5.514
69 CP6 240 -6.978
69 CP6 241 -8.443
69 CP6 242 -9.908
69 CP6 243 -11.373
69 CP6 244 -10.885
69 CP6 245 -7.467
69 CP6 246 -2.096
69 CP6 247 2.299
69 CP6 248 4.252
69 CP6 249 3.276
69 CP6 250 1.322
69 CP6 251 1.322
69 CP6 252 3.276
69 CP6 253 4.252
69 CP6 254 3.764
69 CP6 255 0.834
# CP1 chan 20
69 CP1 0 -2.157
69 CP1 1 -1.668
69 CP1 2 -0.203
69 CP1 3 0.285
69 CP1 4 -0.203
69 CP1 5 -2.645
69 CP1 6 -4.598
69 CP1 7 -5.086
69 CP1 8 -3.621
69 CP1 9 -1.180
69 CP1 10 0.773
69 CP1 11 1.261
69 CP1 12 -0.692
69 CP1 13 -2.157
69 CP1 14 -3.133
69 CP1 15 -2.157
69 CP1 16 -0.692
69 CP1 17 0.285
69 CP1 18 -0.692
69 CP1 19 -2.157
69 CP1 20 -2.157
69 CP1 21 -1.180
69 CP1 22 0.285
69 CP1 23 1.750
69 CP1 24 2.238
69 CP1 25 1.261
69 CP1 26 0.285
69 CP1 27 0.285
69 CP1 28 1.750
69 CP1 29 3.215
69 CP1 30 4.191
69 CP1 31 3.703
69 CP1 32 2.726
69 CP1 33 2.238
69 CP1 34 3.215
69 CP1 35 4.679
69 CP1 36 6.144
69 CP1 37 6.144
69 CP1 38 5.656
69 CP1 39 4.679
69 CP1 40 5.168
69 CP1 41 5.656
69 CP1 42 6.144
69 CP1 43 5.168
69 CP1 44 2.238
69 CP1 45 -0.203
69 CP1 46 -1.668
69 CP1 47 -0.692
69 CP1 48 1.261
69 CP1 49 1.750
69 CP1 50 0.773
69 CP1 51 -2.157
69 CP1 52 -4.110
69 CP1 53 -5.086
69 CP1 54 -4.110
69 CP1 55 -2.645
69 CP1 56 -1.180
69 CP1 57 -1.180
69 CP1 58 -1.668
69 CP1 59 -1.668
69 CP1 60 -0.692
69 CP1 61 0.773
69 CP1 62 1.750
69 CP1 63 1.750
69 CP1 64 0.773
69 CP1 65 0.773
69 CP1 66 0.773
69 CP1 67 1.750
69 CP1 68 2.238
69 CP1 69 2.238
69 CP1 70 1.750
69 CP1 71 0.773
69 CP1 72 0.285
69 CP1 73 -0.203
69 CP1 74 0.285
69 CP1 75 0.285
69 CP1 76 0.285
69 CP1 77 0.285
69 CP1 78 -0.692
69 CP1 79 -1.180
69 CP1 80 -0.692
69 CP1 81 -0.203
69 CP1 82 1.261
69 CP1 83 2.238
69 CP1 84 3.215
69 CP1 85 4.191
69 CP1 86 4.679
69 CP1 87 5.168
69 CP1 88 5.168
69 CP1 89 4.191
69 CP1 90 3.215
69 CP1 91 1.261
69 CP1 92 0.285
69 CP1 93 -1.180
69 CP1 94 -1.668
69 CP1 95 -1.668
69 CP1 96 -1.668
69 CP1 97 -1.180
69 CP1 98 -0.692
69 CP1 99 0.285
69 CP1 100 1.750
69 CP1 101 2.238
69 CP1 102 2.726
69 CP1 103 2.726
69 CP1 104 2.238
69 CP1 105 2.238
69 CP1 106 2.238
69 CP1 107 2.238
69 CP1 108 1.750
69 CP1 109 0.285
69 CP1 110 -0.203
69 CP1 111 -0.692
69 CP1 112 -0.692
69 CP1 113 -0.692
69 CP1 114 -1.668
69 CP1 115 -2.645
69 CP1 116 -4.110
69 CP1 117 -4.598
69 CP1 118 -4.598
69 CP1 119 -3.621
69 CP1 120 -3.133
69 CP1 121 -2.157
69 CP1 122 -1.668
69 CP1 123 -1.180
69 CP1 124 -0.203
69 CP1 125 -0.203
69 CP1 126 0.285
69 CP1 127 0.285
69 CP1 128 -0.203
69 CP1 129 -1.180
69 CP1 130 -1.668
69 CP1 131 -2.157
69 CP1 132 -2.645
69 CP1 133 -3.621
69 CP1 134 -4.110
69 CP1 135 -3.621
69 CP1 136 -2.157
69 CP1 137 -0.692
69 CP1 138 0.773
69 CP1 139 1.261
69 CP1 140 1.261
69 CP1 141 1.750
69 CP1 142 2.238
69 CP1 143 2.726
69 CP1 144 3.215
69 CP1 145 3.215
69 CP1 146 2.238
69 CP1 147 1.261
69 CP1 148 -0.203
69 CP1 149 -1.180
69 CP1 150 -1.668
69 CP1 151 -2.157
69 CP1 152 -3.133
69 CP1 153 -4.110
69 CP1 154 -5.086
69 CP1 155 -5.086
69 CP1 156 -5.086
69 CP1 157 -4.110
69 CP1 158 -3.133
69 CP1 159 -3.133
69 CP1 160 -2.645
69 CP1 161 -2.157
69 CP1 162 -0.692
69 CP1 163 1.750
69 CP1 164 3.703
69 CP1 165 5.168
69 CP1 166 5.656
69 CP1 167 5.168
69 CP1 168 4.191
69 CP1 169 3.703
69 CP1 170 3.703
69 CP1 171 3.703
69 CP1 172 4.191
69 CP1 173 5.168
69 CP1 174 6.144
69 CP1 175 6.632
69 CP1 176 7.121
69 CP1 177 6.144
69 CP1 178 5.656
69 CP1 179 5.168
69 CP1 180 6.144
69 CP1 181 8.097
69 CP1 182 9.074
69 CP1 183 9.074
69 CP1 184 8.586
69 CP1 185 7.609
69 CP1 186 7.609
69 CP1 187 8.097
69 CP1 188 8.097
69 CP1 189 8.097
69 CP1 190 7.121
69 CP1 191 6.632
69 CP1 192 6.144
69 CP1 193 6.144
69 CP1 194 6.632
69 CP1 195 6.632
69 CP1 196 6.632
69 CP1 197 6.144
69 CP1 198 6.144
69 CP1 199 5.168
69 CP1 200 4.679
69 CP1 201 4.191
69 CP1 202 3.703
69 CP1 203 3.215
69 CP1 204 3.215
69 CP1 205 4.191
69 CP1 206 4.679
69 CP1 207 4.679
69 CP1 208 4.191
69 CP1 209 3.703
69 CP1 210 3.215
69 CP1 211 3.703
69 CP1 212 4.191
69 CP1 213 4.679
69 CP1 214 4.679
69 CP1 215 4.191
69 CP1 216 4.191
69 CP1 217 3.703
69 CP1 218 3.703
69 CP1 219 4.191
69 CP1 220 4.191
69 CP1 221 4.679
69 CP1 222 4.679
69 CP1 223 4.679
69 CP1 224 4.679
69 CP1 225 5.168
69 CP1 226 6.144
69 CP1 227 6.632
69 CP1 228 6.632
69 CP1 229 5.656
69 CP1 230 4.191
69 CP1 231 3.215
69 CP1 232 2.726
69 CP1 233 3.215
69 CP1 234 4.191
69 CP1 235 4.191
69 CP1 236 3.215
69 CP1 237 1.261
69 CP1 238 -0.692
69 CP1 239 -1.668
69 CP1 240 -1.180
69 CP1 241 -0.203
69 CP1 242 1.261
69 CP1 243 1.261
69 CP1 244 0.773
69 CP1 245 -0.203
69 CP1 246 -1.180
69 CP1 247 -1.668
69 CP1 248 -1.180
69 CP1 249 -0.692
69 CP1 250 0.285
69 CP1 251 0.773
69 CP1 252 1.750
69 CP1 253 2.726
69 CP1 254 4.191
69 CP1 255 4.679
# CP2 chan 21
69 CP2 0 -2.543
69 CP2 1 -2.543
69 CP2 2 -2.055
69 CP2 3 -1.078
69 CP2 4 -1.567
69 CP2 5 -2.543
69 CP2 6 -3.520
69 CP2 7 -4.496
69 CP2 8 -4.008
69 CP2 9 -3.031
69 CP2 10 -1.567
69 CP2 11 -1.567
69 CP2 12 -1.567
69 CP2 13 -2.543
69 CP2 14 -3.031
69 CP2 15 -3.031
69 CP2 16 -2.055
69 CP2 17 -1.567
69 CP2 18 -0.102
69 CP2 19 0.387
69 CP2 20 0.387
69 CP2 21 0.387
69 CP2 22 -0.102
69 CP2 23 -0.102
69 CP2 24 -0.102
69 CP2 25 -0.102
69 CP2 26 -0.102
69 CP2 27 -0.102
69 CP2 28 0.387
69 CP2 29 -0.102
69 CP2 30 -0.590
69 CP2 31 -1.078
69 CP2 32 -1.567
69 CP2 33 -0.590
69 CP2 34 -0.102
69 CP2 35 0.875
69 CP2 36 0.387
69 CP2 37 -0.590
69 CP2 38 -1.567
69 CP2 39 -1.567
69 CP2 40 -0.590
69 CP2 41 0.387
69 CP2 42 0.875
69 CP2 43 0.387
69 CP2 44 -0.590
69 CP2 45 -2.055
69 CP2 46 -3.031
69 CP2 47 -3.520
69 CP2 48 -3.031
69 CP2 49 -2.543
69 CP2 50 -1.567
69 CP2 51 -0.590
69 CP2 52 0.387
69 CP2 53 1.363
69 CP2 54 1.363
69 CP2 55 0.387
69 CP2 56 -1.078
69 CP2 57 -3.031
69 CP2 58 -4.008
69 CP2 59 -4.496
69 CP2 60 -4.008
69 CP2 61 -4.008
69 CP2 62 -3.520
69 CP2 63 -3.031
69 CP2 64 -2.055
69 CP2 65 -1.078
69 CP2 66 0.387
69 CP2 67 0.387
69 CP2 68 -0.102
69 CP2 69 -1.567
69 CP2 70 -2.543
69 CP2 71 -2.543
69 CP2 72 -2.055
69 CP2 73 -1.078
69 CP2 74 -0.590
69 CP2 75 -1.078
69 CP2 76 -1.567
69 CP2 77 -1.567
69 CP2 78 -0.590
69 CP2 79 -0.102
69 CP2 80 0.387
69 CP2 81 -0.102
69 CP2 82 -0.590
69 CP2 83 -0.590
69 CP2 84 0.875
69 CP2 85 2.340
69 CP2 86 3.316
69 CP2 87 3.316
69 CP2 88 2.340
69 CP2 89 0.875
69 CP2 90 -0.102
69 CP2 91 -1.078
69 CP2 92 -1.567
69 CP2 93 -2.055
69 CP2 94 -3.031
69 CP2 95 -3.520
69 CP2 96 -3.031
69 CP2 97 -2.543
69 CP2 98 -0.590
69 CP2 99 0.875
69 CP2 100 1.363
69 CP2 101 1.363
69 CP2 102 0.875
69 CP2 103 -0.102
69 CP2 104 -0.102
69 CP2 105 0.387
69 CP2 106 0.875
69 CP2 107 0.875
69 CP2 108 -0.590
69 CP2 109 -2.543
69 CP2 110 -4.985
69 CP2 111 -5.961
69 CP2 112 -5.961
69 CP2 113 -5.473
69 CP2 114 -4.985
69 CP2 115 -4.985
69 CP2 116 -4.985
69 CP2 117 -4.985
69 CP2 118 -4.985
69 CP2 119 -4.496
69 CP2 120 -4.496
69 CP2 121 -4.496
69 CP2 122 -4.985
69 CP2 123 -4.496
69 CP2 124 -3.520
69 CP2 125 -3.031
69 CP2 126 -2.055
69 CP2 127 -1.567
69 CP2 128 -1.567
69 CP2 129 -2.055
69 CP2 130 -2.055
69 CP2 131 -3.031
69 CP2 132 -3.520
69 CP2 133 -4.008
69 CP2 134 -4.496
69 CP2 135 -4.008
69 CP2 136 -3.031
69 CP2 137 -3.031
69 CP2 138 -3.031
69 CP2 139 -4.008
69 CP2 140 -4.496
69 CP2 141 -4.985
69 CP2 142 -4.496
69 CP2 143 -4.008
69 CP2 144 -4.496
69 CP2 145 -4.985
69 CP2 146 -6.449
69 CP2 147 -7.914
69 CP2 148 -8.403
69 CP2 149 -8.403
69 CP2 150 -7.914
69 CP2 151 -7.914
69 CP2 152 -7.914
69 CP2 153 -7.914
69 CP2 154 -7.914
69 CP2 155 -7.426
69 CP2 156 -6.938
69 CP2 157 -6.449
69 CP2 158 -6.938
69 CP2 159 -7.914
69 CP2 160 -8.403
69 CP2 161 -8.403
69 CP2 162 -7.426
69 CP2 163 -6.449
69 CP2 164 -5.473
69 CP2 165 -4.985
69 CP2 166 -4.496
69 CP2 167 -4.008
69 CP2 168 -3.031
69 CP2 169 -3.031
69 CP2 170 -2.543
69 CP2 171 -2.543
69 CP2 172 -2.543
69 CP2 173 -2.055
69 CP2 174 -1.567
69 CP2 175 -0.102
69 CP2 176 0.387
69 CP2 177 0.387
69 CP2 178 -0.102
69 CP2 179 -1.567
69 CP2 180 -1.567
69 CP2 181 -1.567
69 CP2 182 -0.102
69 CP2 183 0.875
69 CP2 184 1.363
69 CP2 185 0.875
69 CP2 186 0.387
69 CP2 187 -0.102
69 CP2 188 -0.102
69 CP2 189 0.387
69 CP2 190 0.387
69 CP2 191 -0.102
69 CP2 192 -0.102
69 CP2 193 0.387
69 CP2 194 0.387
69 CP2 195 0.875
69 CP2 196 0.875
69 CP2 197 0.387
69 CP2 198 -0.590
69 CP2 199 -0.590
69 CP2 200 -0.590
69 CP2 201 -0.102
69 CP2 202 0.875
69 CP2 203 1.363
69 CP2 204 1.851
69 CP2 205 2.340
69 CP2 206 1.851
69 CP2 207 1.851
69 CP2 208 1.363
69 CP2 209 0.875
69 CP2 210 0.875
69 CP2 211 1.363
69 CP2 212 1.363
69 CP2 213 1.851
69 CP2 214 1.363
69 CP2 215 0.875
69 CP2 216 0.387
69 CP2 217 -0.102
69 CP2 218 -0.102
69 CP2 219 -0.590
69 CP2 220 -1.567
69 CP2 221 -1.567
69 CP2 222 -2.055
69 CP2 223 -1.567
69 CP2 224 -1.567
69 CP2 225 -2.055
69 CP2 226 -2.543
69 CP2 227 -3.031
69 CP2 228 -2.543
69 CP2 229 -2.543
69 CP2 230 -2.055
69 CP2 231 -2.543
69 CP2 232 -2.543
69 CP2 233 -2.543
69 CP2 234 -1.567
69 CP2 235 -0.590
69 CP2 236 -0.590
69 CP2 237 -1.078
69 CP2 238 -2.055
69 CP2 239 -2.543
69 CP2 240 -3.031
69 CP2 241 -3.031
69 CP2 242 -3.520
69 CP2 243 -4.008
69 CP2 244 -4.496
69 CP2 245 -4.008
69 CP2 246 -3.031
69 CP2 247 -2.055
69 CP2 248 -1.078
69 CP2 249 -1.078
69 CP2 250 -1.567
69 CP2 251 -0.590
69 CP2 252 0.387
69 CP2 253 1.363
69 CP2 254 1.363
69 CP2 255 0.387
# P3 chan 22
69 P3 0 -7.894
69 P3 1 -8.382
69 P3 2 -6.917
69 P3 3 -5.941
69 P3 4 -6.429
69 P3 5 -8.382
69 P3 6 -10.824
69 P3 7 -11.312
69 P3 8 -8.870
69 P3 9 -4.476
69 P3 10 -0.570
69 P3 11 0.407
69 P3 12 -1.058
69 P3 13 -3.988
69 P3 14 -4.964
69 P3 15 -3.988
69 P3 16 -2.523
69 P3 17 -1.546
69 P3 18 -3.011
69 P3 19 -5.452
69 P3 20 -5.941
69 P3 21 -4.476
69 P3 22 -1.546
69 P3 23 0.895
69 P3 24 1.383
69 P3 25 0.407
69 P3 26 -0.570
69 P3 27 -0.570
69 P3 28 0.895
69 P3 29 1.872
69 P3 30 1.872
69 P3 31 0.407
69 P3 32 0.407
69 P3 33 1.872
69 P3 34 5.290
69 P3 35 9.196
69 P3 36 11.149
69 P3 37 10.173
69 P3 38 7.243
69 P3 39 5.290
69 P3 40 6.266
69 P3 41 8.219
69 P3 42 8.708
69 P3 43 5.778
69 P3 44 -0.570
69 P3 45 -6.429
69 P3 46 -8.870
69 P3 47 -7.406
69 P3 48 -4.476
69 P3 49 -3.011
69 P3 50 -5.452
69 P3 51 -10.335
69 P3 52 -14.242
69 P3 53 -14.730
69 P3 54 -12.777
69 P3 55 -9.359
69 P3 56 -7.406
69 P3 57 -7.406
69 P3 58 -7.406
69 P3 59 -6.429
69 P3 60 -3.988
69 P3 61 -1.058
69 P3 62 0.407
69 P3 63 1.383
69 P3 64 1.383
69 P3 65 1.872
69 P3 66 2.848
69 P3 67 4.313
69 P3 68 4.801
69 P3 69 3.825
69 P3 70 1.383
69 P3 71 -1.546
69 P3 72 -3.988
69 P3 73 -4.476
69 P3 74 -3.988
69 P3 75 -3.499
69 P3 76 -3.988
69 P3 77 -4.964
69 P3 78 -6.917
69 P3 79 -8.382
69 P3 80 -7.894
69 P3 81 -5.941
69 P3 82 -3.499
69 P3 83 -1.058
69 P3 84 0.895
69 P3 85 2.848
69 P3 86 4.313
69 P3 87 5.778
69 P3 88 6.266
69 P3 89 4.801
69 P3 90 1.872
69 P3 91 -1.546
69 P3 92 -3.988
69 P3 93 -4.964
69 P3 94 -4.964
69 P3 95 -4.964
69 P3 96 -5.452
69 P3 97 -5.452
69 P3 98 -4.476
69 P3 99 -2.035
69 P3 100 0.895
69 P3 101 2.848
69 P3 102 2.360
69 P3 103 0.895
69 P3 104 -0.570
69 P3 105 -1.546
69 P3 106 -1.058
69 P3 107 -0.570
69 P3 108 -1.058
69 P3 109 -2.035
69 P3 110 -3.988
69 P3 111 -4.964
69 P3 112 -5.941
69 P3 113 -6.917
69 P3 114 -7.894
69 P3 115 -9.359
69 P3 116 -11.312
69 P3 117 -12.777
69 P3 118 -14.242
69 P3 119 -14.242
69 P3 120 -13.753
69 P3 121 -11.800
69 P3 122 -8.870
69 P3 123 -6.429
69 P3 124 -5.452
69 P3 125 -6.429
69 P3 126 -8.870
69 P3 127 -10.824
69 P3 128 -10.824
69 P3 129 -9.847
69 P3 130 -7.894
69 P3 131 -6.917
69 P3 132 -7.894
69 P3 133 -9.847
69 P3 134 -11.800
69 P3 135 -11.800
69 P3 136 -10.335
69 P3 137 -8.382
69 P3 138 -5.941
69 P3 139 -5.452
69 P3 140 -4.964
69 P3 141 -4.476
69 P3 142 -2.523
69 P3 143 -0.570
69 P3 144 -0.081
69 P3 145 -0.570
69 P3 146 -3.499
69 P3 147 -5.941
69 P3 148 -8.382
69 P3 149 -9.847
69 P3 150 -10.335
69 P3 151 -10.824
69 P3 152 -11.800
69 P3 153 -13.265
69 P3 154 -14.242
69 P3 155 -14.242
69 P3 156 -14.242
69 P3 157 -13.265
69 P3 158 -12.777
69 P3 159 -12.288
69 P3 160 -12.288
69 P3 161 -10.824
69 P3 162 -8.382
69 P3 163 -4.476
69 P3 164 -1.058
69 P3 165 0.895
69 P3 166 1.383
69 P3 167 0.895
69 P3 168 -0.081
69 P3 169 -0.570
69 P3 170 -0.570
69 P3 171 -0.081
69 P3 172 0.895
69 P3 173 2.360
69 P3 174 4.313
69 P3 175 5.290
69 P3 176 4.801
69 P3 177 2.848
69 P3 178 1.872
69 P3 179 1.872
69 P3 180 4.313
69 P3 181 6.755
69 P3 182 8.708
69 P3 183 8.708
69 P3 184 7.243
69 P3 185 5.290
69 P3 186 4.313
69 P3 187 4.801
69 P3 188 4.801
69 P3 189 3.825
69 P3 190 1.872
69 P3 191 0.895
69 P3 192 0.895
69 P3 193 1.872
69 P3 194 3.337
69 P3 195 4.313
69 P3 196 4.313
69 P3 197 3.337
69 P3 198 2.848
69 P3 199 1.872
69 P3 200 1.383
69 P3 201 -0.081
69 P3 202 -0.570
69 P3 203 -0.570
69 P3 204 0.407
69 P3 205 1.383
69 P3 206 1.872
69 P3 207 0.895
69 P3 208 -2.035
69 P3 209 -4.476
69 P3 210 -5.941
69 P3 211 -4.476
69 P3 212 -3.011
69 P3 213 -1.058
69 P3 214 -0.081
69 P3 215 0.407
69 P3 216 -0.081
69 P3 217 -0.570
69 P3 218 -1.058
69 P3 219 -0.570
69 P3 220 -0.570
69 P3 221 -0.081
69 P3 222 0.895
69 P3 223 2.360
69 P3 224 3.825
69 P3 225 4.801
69 P3 226 5.290
69 P3 227 4.801
69 P3 228 3.337
69 P3 229 0.895
69 P3 230 -1.546
69 P3 231 -2.523
69 P3 232 -2.523
69 P3 233 -1.546
69 P3 234 -0.570
69 P3 235 -1.546
69 P3 236 -3.499
69 P3 237 -6.917
69 P3 238 -8.870
69 P3 239 -9.847
69 P3 240 -8.870
69 P3 241 -6.917
69 P3 242 -5.941
69 P3 243 -5.452
69 P3 244 -5.452
69 P3 245 -5.941
69 P3 246 -5.452
69 P3 247 -4.476
69 P3 248 -3.988
69 P3 249 -3.499
69 P3 250 -3.011
69 P3 251 -2.035
69 P3 252 0.407
69 P3 253 2.360
69 P3 254 4.313
69 P3 255 4.313
# P4 chan 23
69 P4 0 -4.547
69 P4 1 -4.547
69 P4 2 -3.571
69 P4 3 -2.594
69 P4 4 -3.571
69 P4 5 -5.524
69 P4 6 -7.477
69 P4 7 -8.453
69 P4 8 -6.989
69 P4 9 -5.035
69 P4 10 -3.082
69 P4 11 -2.106
69 P4 12 -3.082
69 P4 13 -4.547
69 P4 14 -5.035
69 P4 15 -4.547
69 P4 16 -3.082
69 P4 17 -1.617
69 P4 18 -1.129
69 P4 19 -0.641
69 P4 20 -0.641
69 P4 21 -0.153
69 P4 22 0.336
69 P4 23 -0.153
69 P4 24 -0.641
69 P4 25 -1.129
69 P4 26 -0.641
69 P4 27 0.336
69 P4 28 1.312
69 P4 29 1.312
69 P4 30 0.336
69 P4 31 -1.129
69 P4 32 -1.617
69 P4 33 -0.641
69 P4 34 1.801
69 P4 35 4.730
69 P4 36 5.219
69 P4 37 3.754
69 P4 38 1.312
69 P4 39 -0.641
69 P4 40 -0.153
69 P4 41 1.312
69 P4 42 1.801
69 P4 43 0.336
69 P4 44 -3.082
69 P4 45 -6.989
69 P4 46 -9.430
69 P4 47 -9.430
69 P4 48 -8.453
69 P4 49 -7.477
69 P4 50 -6.500
69 P4 51 -5.035
69 P4 52 -3.571
69 P4 53 -2.106
69 P4 54 -1.617
69 P4 55 -3.082
69 P4 56 -5.524
69 P4 57 -8.453
69 P4 58 -9.918
69 P4 59 -9.918
69 P4 60 -8.453
69 P4 61 -6.989
69 P4 62 -6.500
69 P4 63 -6.012
69 P4 64 -4.547
69 P4 65 -2.594
69 P4 66 -0.153
69 P4 67 1.312
69 P4 68 0.824
69 P4 69 -1.129
69 P4 70 -4.059
69 P4 71 -6.012
69 P4 72 -6.500
69 P4 73 -5.524
69 P4 74 -5.035
69 P4 75 -4.547
69 P4 76 -4.547
69 P4 77 -4.547
69 P4 78 -3.571
69 P4 79 -3.082
69 P4 80 -2.594
69 P4 81 -3.082
69 P4 82 -3.082
69 P4 83 -2.106
69 P4 84 0.336
69 P4 85 3.265
69 P4 86 5.707
69 P4 87 6.195
69 P4 88 5.707
69 P4 89 3.754
69 P4 90 1.312
69 P4 91 -1.129
69 P4 92 -4.059
69 P4 93 -6.500
69 P4 94 -7.965
69 P4 95 -8.942
69 P4 96 -8.453
69 P4 97 -6.500
69 P4 98 -4.059
69 P4 99 -1.129
69 P4 100 -0.153
69 P4 101 -0.153
69 P4 102 -1.129
69 P4 103 -2.594
69 P4 104 -3.082
69 P4 105 -3.082
69 P4 106 -2.106
69 P4 107 -2.106
69 P4 108 -4.059
69 P4 109 -6.500
69 P4 110 -8.942
69 P4 111 -10.406
69 P4 112 -10.406
69 P4 113 -10.406
69 P4 114 -10.895
69 P4 115 -12.360
69 P4 116 -13.824
69 P4 117 -14.313
69 P4 118 -14.313
69 P4 119 -13.824
69 P4 120 -13.824
69 P4 121 -13.824
69 P4 122 -13.336
69 P4 123 -12.360
69 P4 124 -10.406
69 P4 125 -8.453
69 P4 126 -6.989
69 P4 127 -6.500
69 P4 128 -6.989
69 P4 129 -7.965
69 P4 130 -8.453
69 P4 131 -9.430
69 P4 132 -10.406
69 P4 133 -11.383
69 P4 134 -10.895
69 P4 135 -10.406
69 P4 136 -8.942
69 P4 137 -7.965
69 P4 138 -7.965
69 P4 139 -8.453
69 P4 140 -8.942
69 P4 141 -7.965
69 P4 142 -6.500
69 P4 143 -5.035
69 P4 144 -5.035
69 P4 145 -6.989
69 P4 146 -9.918
69 P4 147 -12.848
69 P4 148 -13.824
69 P4 149 -13.824
69 P4 150 -13.336
69 P4 151 -13.824
69 P4 152 -14.313
69 P4 153 -15.289
69 P4 154 -14.801
69 P4 155 -13.336
69 P4 156 -11.871
69 P4 157 -11.383
69 P4 158 -12.848
69 P4 159 -15.778
69 P4 160 -18.219
69 P4 161 -18.219
69 P4 162 -16.266
69 P4 163 -12.848
69 P4 164 -9.918
69 P4 165 -7.965
69 P4 166 -6.989
69 P4 167 -6.500
69 P4 168 -6.500
69 P4 169 -6.012
69 P4 170 -5.524
69 P4 171 -5.035
69 P4 172 -4.547
69 P4 173 -2.594
69 P4 174 0.336
69 P4 175 2.777
69 P4 176 3.265
69 P4 177 2.289
69 P4 178 -0.641
69 P4 179 -2.594
69 P4 180 -3.082
69 P4 181 -1.617
69 P4 182 1.312
69 P4 183 3.265
69 P4 184 4.242
69 P4 185 3.265
69 P4 186 1.801
69 P4 187 -0.153
69 P4 188 -1.129
69 P4 189 -1.617
69 P4 190 -1.617
69 P4 191 -1.129
69 P4 192 -0.641
69 P4 193 0.336
69 P4 194 0.824
69 P4 195 0.824
69 P4 196 0.336
69 P4 197 -0.641
69 P4 198 -1.129
69 P4 199 -0.641
69 P4 200 -0.153
69 P4 201 0.824
69 P4 202 1.801
69 P4 203 2.289
69 P4 204 3.265
69 P4 205 3.754
69 P4 206 3.754
69 P4 207 3.265
69 P4 208 2.289
69 P4 209 1.312
69 P4 210 0.336
69 P4 211 0.336
69 P4 212 0.824
69 P4 213 1.312
69 P4 214 1.801
69 P4 215 1.801
69 P4 216 1.312
69 P4 217 0.824
69 P4 218 -0.153
69 P4 219 -1.617
69 P4 220 -3.082
69 P4 221 -3.571
69 P4 222 -3.082
69 P4 223 -2.594
69 P4 224 -2.106
69 P4 225 -3.082
69 P4 226 -3.082
69 P4 227 -3.082
69 P4 228 -2.594
69 P4 229 -2.594
69 P4 230 -3.571
69 P4 231 -4.547
69 P4 232 -6.012
69 P4 233 -5.524
69 P4 234 -4.059
69 P4 235 -2.106
69 P4 236 -2.106
69 P4 237 -3.082
69 P4 238 -4.547
69 P4 239 -5.524
69 P4 240 -5.524
69 P4 241 -6.500
69 P4 242 -7.965
69 P4 243 -10.895
69 P4 244 -12.360
69 P4 245 -11.383
69 P4 246 -7.965
69 P4 247 -4.059
69 P4 248 -1.617
69 P4 249 -1.129
69 P4 250 -1.617
69 P4 251 -0.641
69 P4 252 1.312
69 P4 253 3.754
69 P4 254 4.242
69 P4 255 2.777
# PZ chan 24
69 PZ 0 -4.374
69 PZ 1 -3.886
69 PZ 2 -1.933
69 PZ 3 -0.956
69 PZ 4 -1.444
69 PZ 5 -4.374
69 PZ 6 -7.304
69 PZ 7 -8.769
69 PZ 8 -7.792
69 PZ 9 -4.862
69 PZ 10 -1.933
69 PZ 11 -1.444
69 PZ 12 -2.909
69 PZ 13 -5.839
69 PZ 14 -7.792
69 PZ 15 -6.816
69 PZ 16 -4.862
69 PZ 17 -2.421
69 PZ 18 -0.956
69 PZ 19 -0.956
69 PZ 20 -1.444
69 PZ 21 -0.956
69 PZ 22 0.020
69 PZ 23 0.509
69 PZ 24 0.997
69 PZ 25 0.997
69 PZ 26 0.997
69 PZ 27 2.462
69 PZ 28 3.438
69 PZ 29 3.927
69 PZ 30 3.438
69 PZ 31 1.485
69 PZ 32 0.020
69 PZ 33 0.509
69 PZ 34 2.462
69 PZ 35 4.903
69 PZ 36 5.391
69 PZ 37 4.415
69 PZ 38 2.950
69 PZ 39 1.973
69 PZ 40 2.950
69 PZ 41 4.903
69 PZ 42 5.391
69 PZ 43 2.950
69 PZ 44 -1.444
69 PZ 45 -5.839
69 PZ 46 -7.304
69 PZ 47 -6.327
69 PZ 48 -2.909
69 PZ 49 -0.468
69 PZ 50 0.020
69 PZ 51 -0.956
69 PZ 52 -1.933
69 PZ 53 -1.444
69 PZ 54 -0.468
69 PZ 55 0.509
69 PZ 56 -0.468
69 PZ 57 -1.933
69 PZ 58 -3.886
69 PZ 59 -4.374
69 PZ 60 -3.886
69 PZ 61 -2.909
69 PZ 62 -2.421
69 PZ 63 -2.909
69 PZ 64 -2.909
69 PZ 65 -2.421
69 PZ 66 -0.468
69 PZ 67 0.509
69 PZ 68 0.020
69 PZ 69 -0.468
69 PZ 70 -2.421
69 PZ 71 -3.398
69 PZ 72 -3.398
69 PZ 73 -2.421
69 PZ 74 -1.933
69 PZ 75 -1.444
69 PZ 76 -1.933
69 PZ 77 -1.933
69 PZ 78 -1.933
69 PZ 79 -2.421
69 PZ 80 -2.421
69 PZ 81 -1.933
69 PZ 82 -1.444
69 PZ 83 0.997
69 PZ 84 2.950
69 PZ 85 5.391
69 PZ 86 6.856
69 PZ 87 7.345
69 PZ 88 6.856
69 PZ 89 5.880
69 PZ 90 3.927
69 PZ 91 1.485
69 PZ 92 -1.444
69 PZ 93 -3.886
69 PZ 94 -5.839
69 PZ 95 -6.816
69 PZ 96 -6.816
69 PZ 97 -5.351
69 PZ 98 -3.398
69 PZ 99 -0.468
69 PZ 100 1.973
69 PZ 101 3.438
69 PZ 102 3.438
69 PZ 103 2.462
69 PZ 104 1.973
69 PZ 105 1.973
69 PZ 106 2.462
69 PZ 107 2.950
69 PZ 108 1.485
69 PZ 109 -0.956
69 PZ 110 -3.886
69 PZ 111 -6.327
69 PZ 112 -7.792
69 PZ 113 -8.769
69 PZ 114 -10.234
69 PZ 115 -12.187
69 PZ 116 -13.652
69 PZ 117 -14.628
69 PZ 118 -14.140
69 PZ 119 -12.675
69 PZ 120 -10.722
69 PZ 121 -8.280
69 PZ 122 -5.839
69 PZ 123 -3.886
69 PZ 124 -2.421
69 PZ 125 -2.421
69 PZ 126 -2.421
69 PZ 127 -3.398
69 PZ 128 -3.398
69 PZ 129 -3.886
69 PZ 130 -3.886
69 PZ 131 -5.351
69 PZ 132 -7.792
69 PZ 133 -10.234
69 PZ 134 -11.210
69 PZ 135 -11.210
69 PZ 136 -8.769
69 PZ 137 -6.327
69 PZ 138 -4.374
69 PZ 139 -4.374
69 PZ 140 -4.374
69 PZ 141 -4.374
69 PZ 142 -3.398
69 PZ 143 -1.444
69 PZ 144 0.020
69 PZ 145 0.020
69 PZ 146 -1.933
69 PZ 147 -4.862
69 PZ 148 -7.304
69 PZ 149 -9.257
69 PZ 150 -10.234
69 PZ 151 -11.210
69 PZ 152 -12.187
69 PZ 153 -13.163
69 PZ 154 -13.163
69 PZ 155 -12.187
69 PZ 156 -10.234
69 PZ 157 -9.745
69 PZ 158 -10.234
69 PZ 159 -11.210
69 PZ 160 -12.187
69 PZ 161 -11.210
69 PZ 162 -8.280
69 PZ 163 -4.374
69 PZ 164 -0.468
69 PZ 165 0.997
69 PZ 166 0.509
69 PZ 167 0.020
69 PZ 168 -0.468
69 PZ 169 -0.468
69 PZ 170 0.020
69 PZ 171 -0.468
69 PZ 172 -0.468
69 PZ 173 0.020
69 PZ 174 2.462
69 PZ 175 4.415
69 PZ 176 5.880
69 PZ 177 4.903
69 PZ 178 3.438
69 PZ 179 1.485
69 PZ 180 1.485
69 PZ 181 3.927
69 PZ 182 6.368
69 PZ 183 7.833
69 PZ 184 7.345
69 PZ 185 6.368
69 PZ 186 5.391
69 PZ 187 5.391
69 PZ 188 5.880
69 PZ 189 5.391
69 PZ 190 4.415
69 PZ 191 2.462
69 PZ 192 1.485
69 PZ 193 2.462
69 PZ 194 4.415
69 PZ 195 5.391
69 PZ 196 4.903
69 PZ 197 3.438
69 PZ 198 0.997
69 PZ 199 0.020
69 PZ 200 0.509
69 PZ 201 0.997
69 PZ 202 1.973
69 PZ 203 1.973
69 PZ 204 0.997
69 PZ 205 1.485
69 PZ 206 2.462
69 PZ 207 2.950
69 PZ 208 3.438
69 PZ 209 2.462
69 PZ 210 0.997
69 PZ 211 0.997
69 PZ 212 1.973
69 PZ 213 3.438
69 PZ 214 4.415
69 PZ 215 3.927
69 PZ 216 2.462
69 PZ 217 0.997
69 PZ 218 0.020
69 PZ 219 0.020
69 PZ 220 0.509
69 PZ 221 0.997
69 PZ 222 1.485
69 PZ 223 0.997
69 PZ 224 0.509
69 PZ 225 0.509
69 PZ 226 0.509
69 PZ 227 0.509
69 PZ 228 0.509
69 PZ 229 0.020
69 PZ 230 -0.956
69 PZ 231 -1.444
69 PZ 232 -1.444
69 PZ 233 -0.468
69 PZ 234 0.997
69 PZ 235 0.997
69 PZ 236 0.020
69 PZ 237 -1.933
69 PZ 238 -3.886
69 PZ 239 -4.374
69 PZ 240 -4.374
69 PZ 241 -3.398
69 PZ 242 -3.398
69 PZ 243 -4.862
69 PZ 244 -5.839
69 PZ 245 -6.327
69 PZ 246 -5.839
69 PZ 247 -4.374
69 PZ 248 -3.398
69 PZ 249 -2.421
69 PZ 250 -2.421
69 PZ 251 -0.956
69 PZ 252 0.997
69 PZ 253 3.438
69 PZ 254 4.903
69 PZ 255 4.903
# P8 chan 25
69 P8 0 -6.948
69 P8 1 -4.995
69 P8 2 -2.065
69 P8 3 -0.600
69 P8 4 -1.088
69 P8 5 -2.553
69 P8 6 -2.553
69 P8 7 -0.600
69 P8 8 0.865
69 P8 9 -0.112
69 P8 10 -3.042
69 P8 11 -5.971
69 P8 12 -5.971
69 P8 13 -2.065
69 P8 14 3.306
69 P8 15 6.724
69 P8 16 5.259
69 P8 17 -0.112
69 P8 18 -6.948
69 P8 19 -11.342
69 P8 20 -12.319
69 P8 21 -10.366
69 P8 22 -7.436
69 P8 23 -4.506
69 P8 24 -3.042
69 P8 25 -2.065
69 P8 26 -1.577
69 P8 27 -0.600
69 P8 28 -0.112
69 P8 29 -0.112
69 P8 30 -0.112
69 P8 31 0.865
69 P8 32 3.794
69 P8 33 9.165
69 P8 34 14.537
69 P8 35 18.443
69 P8 36 18.931
69 P8 37 15.513
69 P8 38 11.119
69 P8 39 7.701
69 P8 40 6.724
69 P8 41 7.212
69 P8 42 7.212
69 P8 43 4.771
69 P8 44 0.376
69 P8 45 -4.506
69 P8 46 -8.413
69 P8 47 -10.854
69 P8 48 -11.342
69 P8 49 -11.342
69 P8 50 -10.366
69 P8 51 -9.389
69 P8 52 -7.436
69 P8 53 -5.483
69 P8 54 -4.506
69 P8 55 -6.460
69 P8 56 -9.878
69 P8 57 -13.784
69 P8 58 -15.249
69 P8 59 -13.784
69 P8 60 -8.901
69 P8 61 -4.506
69 P8 62 -2.553
69 P8 63 -2.553
69 P8 64 -3.042
69 P8 65 -2.065
69 P8 66 1.841
69 P8 67 5.259
69 P8 68 5.747
69 P8 69 2.330
69 P8 70 -4.506
69 P8 71 -10.854
69 P8 72 -14.272
69 P8 73 -14.272
69 P8 74 -11.342
69 P8 75 -7.924
69 P8 76 -4.995
69 P8 77 -3.042
69 P8 78 -1.577
69 P8 79 -0.112
69 P8 80 0.376
69 P8 81 -0.112
69 P8 82 -2.065
69 P8 83 -2.553
69 P8 84 -1.577
69 P8 85 2.330
69 P8 86 7.212
69 P8 87 11.119
69 P8 88 12.095
69 P8 89 10.630
69 P8 90 7.701
69 P8 91 4.771
69 P8 92 1.353
69 P8 93 -2.553
69 P8 94 -8.413
69 P8 95 -12.807
69 P8 96 -14.272
69 P8 97 -12.319
69 P8 98 -8.413
69 P8 99 -4.995
69 P8 100 -3.530
69 P8 101 -4.018
69 P8 102 -5.483
69 P8 103 -6.460
69 P8 104 -6.948
69 P8 105 -7.924
69 P8 106 -10.854
69 P8 107 -14.760
69 P8 108 -17.690
69 P8 109 -17.690
69 P8 110 -14.760
69 P8 111 -11.342
69 P8 112 -9.389
69 P8 113 -10.366
69 P8 114 -14.272
69 P8 115 -19.155
69 P8 116 -24.038
69 P8 117 -26.479
69 P8 118 -27.944
69 P8 119 -27.456
69 P8 120 -26.967
69 P8 121 -26.479
69 P8 122 -25.991
69 P8 123 -24.526
69 P8 124 -22.085
69 P8 125 -18.667
69 P8 126 -15.249
69 P8 127 -13.295
69 P8 128 -13.295
69 P8 129 -15.737
69 P8 130 -19.643
69 P8 131 -22.573
69 P8 132 -22.573
69 P8 133 -19.643
69 P8 134 -15.737
69 P8 135 -12.319
69 P8 136 -12.807
69 P8 137 -16.713
69 P8 138 -22.085
69 P8 139 -25.503
69 P8 140 -25.503
69 P8 141 -21.596
69 P8 142 -16.713
69 P8 143 -12.319
69 P8 144 -11.831
69 P8 145 -14.272
69 P8 146 -18.667
69 P8 147 -23.061
69 P8 148 -26.479
69 P8 149 -26.967
69 P8 150 -25.503
69 P8 151 -23.061
69 P8 152 -20.620
69 P8 153 -18.667
69 P8 154 -18.667
69 P8 155 -18.667
69 P8 156 -20.620
69 P8 157 -23.061
69 P8 158 -26.479
69 P8 159 -30.385
69 P8 160 -32.827
69 P8 161 -33.803
69 P8 162 -31.850
69 P8 163 -28.920
69 P8 164 -25.014
69 P8 165 -21.596
69 P8 166 -18.667
69 P8 167 -16.225
69 P8 168 -15.249
69 P8 169 -15.249
69 P8 170 -15.737
69 P8 171 -15.249
69 P8 172 -13.295
69 P8 173 -9.389
69 P8 174 -4.995
69 P8 175 -2.553
69 P8 176 -2.065
69 P8 177 -3.530
69 P8 178 -5.971
69 P8 179 -8.413
69 P8 180 -10.366
69 P8 181 -10.854
69 P8 182 -10.854
69 P8 183 -8.413
69 P8 184 -5.971
69 P8 185 -4.018
69 P8 186 -4.995
69 P8 187 -7.924
69 P8 188 -11.831
69 P8 189 -14.760
69 P8 190 -14.272
69 P8 191 -12.319
69 P8 192 -9.878
69 P8 193 -9.389
69 P8 194 -11.342
69 P8 195 -13.784
69 P8 196 -14.272
69 P8 197 -11.831
69 P8 198 -8.413
69 P8 199 -5.971
69 P8 200 -6.460
69 P8 201 -8.901
69 P8 202 -10.854
69 P8 203 -10.854
69 P8 204 -7.436
69 P8 205 -3.530
69 P8 206 -2.065
69 P8 207 -2.553
69 P8 208 -4.506
69 P8 209 -6.460
69 P8 210 -6.948
69 P8 211 -6.460
69 P8 212 -5.971
69 P8 213 -5.971
69 P8 214 -5.483
69 P8 215 -4.506
69 P8 216 -3.042
69 P8 217 -1.577
69 P8 218 -1.577
69 P8 219 -3.530
69 P8 220 -6.460
69 P8 221 -8.901
69 P8 222 -9.389
69 P8 223 -8.901
69 P8 224 -7.436
69 P8 225 -6.460
69 P8 226 -5.483
69 P8 227 -3.530
69 P8 228 -0.600
69 P8 229 0.865
69 P8 230 -0.600
69 P8 231 -5.483
69 P8 232 -11.831
69 P8 233 -16.225
69 P8 234 -16.225
69 P8 235 -11.831
69 P8 236 -6.948
69 P8 237 -4.995
69 P8 238 -5.483
69 P8 239 -7.924
69 P8 240 -10.366
69 P8 241 -11.342
69 P8 242 -11.831
69 P8 243 -11.831
69 P8 244 -10.854
69 P8 245 -8.901
69 P8 246 -4.506
69 P8 247 -0.600
69 P8 248 1.353
69 P8 249 0.865
69 P8 250 -0.600
69 P8 251 -1.088
69 P8 252 -0.112
69 P8 253 1.841
69 P8 254 2.818
69 P8 255 0.865
# P7 chan 26
69 P7 0 -5.798
69 P7 1 -7.263
69 P7 2 -6.775
69 P7 3 -4.333
69 P7 4 -1.892
69 P7 5 -0.427
69 P7 6 -0.427
69 P7 7 -0.427
69 P7 8 1.038
69 P7 9 3.479
69 P7 10 4.944
69 P7 11 4.456
69 P7 12 2.991
69 P7 13 2.502
69 P7 14 4.456
69 P7 15 7.874
69 P7 16 8.850
69 P7 17 4.456
69 P7 18 -4.333
69 P7 19 -11.658
69 P7 20 -13.123
69 P7 21 -6.287
69 P7 22 3.967
69 P7 23 11.780
69 P7 24 12.756
69 P7 25 8.850
69 P7 26 2.991
69 P7 27 1.526
69 P7 28 4.456
69 P7 29 9.338
69 P7 30 12.268
69 P7 31 11.292
69 P7 32 8.850
69 P7 33 8.362
69 P7 34 12.268
69 P7 35 18.127
69 P7 36 22.522
69 P7 37 23.010
69 P7 38 20.081
69 P7 39 15.686
69 P7 40 13.245
69 P7 41 13.245
69 P7 42 13.245
69 P7 43 11.292
69 P7 44 6.897
69 P7 45 2.014
69 P7 46 -0.916
69 P7 47 -1.892
69 P7 48 -1.892
69 P7 49 -3.845
69 P7 50 -8.728
69 P7 51 -14.099
69 P7 52 -17.029
69 P7 53 -15.076
69 P7 54 -11.658
69 P7 55 -8.728
69 P7 56 -8.728
69 P7 57 -10.681
69 P7 58 -10.681
69 P7 59 -7.263
69 P7 60 -0.916
69 P7 61 3.967
69 P7 62 5.920
69 P7 63 5.432
69 P7 64 5.432
69 P7 65 6.897
69 P7 66 10.315
69 P7 67 13.245
69 P7 68 14.221
69 P7 69 11.780
69 P7 70 6.897
69 P7 71 1.526
69 P7 72 -2.380
69 P7 73 -4.822
69 P7 74 -4.822
69 P7 75 -3.357
69 P7 76 -1.892
69 P7 77 -0.916
69 P7 78 -2.380
69 P7 79 -4.333
69 P7 80 -4.333
69 P7 81 -2.380
69 P7 82 2.014
69 P7 83 5.432
69 P7 84 6.897
69 P7 85 4.944
69 P7 86 2.014
69 P7 87 1.038
69 P7 88 2.502
69 P7 89 4.944
69 P7 90 5.920
69 P7 91 3.967
69 P7 92 0.549
69 P7 93 -1.892
69 P7 94 -2.380
69 P7 95 -0.916
69 P7 96 0.549
69 P7 97 0.061
69 P7 98 -1.404
69 P7 99 -2.380
69 P7 100 -1.404
69 P7 101 1.526
69 P7 102 3.479
69 P7 103 2.991
69 P7 104 -0.916
69 P7 105 -5.310
69 P7 106 -8.240
69 P7 107 -7.263
69 P7 108 -4.333
69 P7 109 -1.892
69 P7 110 -0.916
69 P7 111 -2.380
69 P7 112 -5.798
69 P7 113 -8.728
69 P7 114 -11.169
69 P7 115 -11.658
69 P7 116 -12.146
69 P7 117 -12.634
69 P7 118 -15.076
69 P7 119 -18.005
69 P7 120 -19.958
69 P7 121 -19.470
69 P7 122 -14.587
69 P7 123 -8.728
69 P7 124 -4.822
69 P7 125 -6.287
69 P7 126 -12.146
69 P7 127 -18.982
69 P7 128 -22.400
69 P7 129 -20.447
69 P7 130 -14.099
69 P7 131 -9.216
69 P7 132 -8.240
69 P7 133 -11.169
69 P7 134 -15.564
69 P7 135 -17.517
69 P7 136 -16.052
69 P7 137 -13.123
69 P7 138 -11.169
69 P7 139 -10.193
69 P7 140 -9.216
69 P7 141 -5.798
69 P7 142 -1.892
69 P7 143 1.038
69 P7 144 0.061
69 P7 145 -4.822
69 P7 146 -10.681
69 P7 147 -14.587
69 P7 148 -14.099
69 P7 149 -10.193
69 P7 150 -5.310
69 P7 151 -3.357
69 P7 152 -5.310
69 P7 153 -11.658
69 P7 154 -19.470
69 P7 155 -26.794
69 P7 156 -29.236
69 P7 157 -26.794
69 P7 158 -20.447
69 P7 159 -14.099
69 P7 160 -9.705
69 P7 161 -8.728
69 P7 162 -8.240
69 P7 163 -6.287
69 P7 164 -2.380
69 P7 165 1.526
69 P7 166 3.967
69 P7 167 3.479
69 P7 168 0.061
69 P7 169 -3.845
69 P7 170 -6.287
69 P7 171 -5.798
69 P7 172 -2.380
69 P7 173 2.502
69 P7 174 6.897
69 P7 175 9.338
69 P7 176 7.874
69 P7 177 3.967
69 P7 178 0.061
69 P7 179 -1.404
69 P7 180 1.038
69 P7 181 5.432
69 P7 182 8.850
69 P7 183 9.338
69 P7 184 7.385
69 P7 185 5.432
69 P7 186 4.944
69 P7 187 4.944
69 P7 188 3.479
69 P7 189 0.549
69 P7 190 -2.380
69 P7 191 -3.845
69 P7 192 -2.380
69 P7 193 0.061
69 P7 194 2.502
69 P7 195 2.991
69 P7 196 2.991
69 P7 197 3.479
69 P7 198 4.944
69 P7 199 5.920
69 P7 200 4.456
69 P7 201 1.526
69 P7 202 -0.916
69 P7 203 -0.427
69 P7 204 2.014
69 P7 205 4.944
69 P7 206 4.944
69 P7 207 1.526
69 P7 208 -3.845
69 P7 209 -8.728
69 P7 210 -9.216
69 P7 211 -6.287
69 P7 212 -2.869
69 P7 213 0.549
69 P7 214 2.014
69 P7 215 2.014
69 P7 216 2.014
69 P7 217 2.502
69 P7 218 3.967
69 P7 219 5.920
69 P7 220 6.409
69 P7 221 6.897
69 P7 222 5.920
69 P7 223 6.409
69 P7 224 8.362
69 P7 225 10.803
69 P7 226 12.756
69 P7 227 12.268
69 P7 228 9.827
69 P7 229 5.920
69 P7 230 2.991
69 P7 231 1.526
69 P7 232 2.014
69 P7 233 3.479
69 P7 234 3.967
69 P7 235 3.479
69 P7 236 2.014
69 P7 237 -1.404
69 P7 238 -5.798
69 P7 239 -10.193
69 P7 240 -13.123
69 P7 241 -13.123
69 P7 242 -10.681
69 P7 243 -5.798
69 P7 244 -1.892
69 P7 245 1.038
69 P7 246 2.502
69 P7 247 3.479
69 P7 248 3.967
69 P7 249 4.944
69 P7 250 5.920
69 P7 251 7.385
69 P7 252 8.850
69 P7 253 10.803
69 P7 254 11.780
69 P7 255 11.780
# PO2 chan 27
69 PO2 0 -5.341
69 PO2 1 -4.852
69 PO2 2 -3.876
69 PO2 3 -2.899
69 PO2 4 -3.387
69 PO2 5 -5.829
69 PO2 6 -8.759
69 PO2 7 -10.223
69 PO2 8 -9.247
69 PO2 9 -6.317
69 PO2 10 -2.899
69 PO2 11 -1.434
69 PO2 12 -2.899
69 PO2 13 -5.341
69 PO2 14 -7.294
69 PO2 15 -7.294
69 PO2 16 -4.852
69 PO2 17 -1.923
69 PO2 18 0.031
69 PO2 19 0.519
69 PO2 20 0.519
69 PO2 21 1.007
69 PO2 22 1.495
69 PO2 23 1.495
69 PO2 24 1.495
69 PO2 25 1.007
69 PO2 26 1.495
69 PO2 27 2.960
69 PO2 28 4.913
69 PO2 29 6.378
69 PO2 30 4.913
69 PO2 31 2.960
69 PO2 32 1.007
69 PO2 33 1.495
69 PO2 34 4.425
69 PO2 35 7.843
69 PO2 36 9.796
69 PO2 37 8.820
69 PO2 38 5.890
69 PO2 39 3.448
69 PO2 40 2.960
69 PO2 41 3.937
69 PO2 42 3.937
69 PO2 43 1.007
69 PO2 44 -4.364
69 PO2 45 -9.247
69 PO2 46 -12.177
69 PO2 47 -11.200
69 PO2 48 -8.270
69 PO2 49 -5.829
69 PO2 50 -5.341
69 PO2 51 -5.341
69 PO2 52 -4.852
69 PO2 53 -3.876
69 PO2 54 -1.923
69 PO2 55 -1.434
69 PO2 56 -3.387
69 PO2 57 -5.829
69 PO2 58 -7.782
69 PO2 59 -8.270
69 PO2 60 -6.805
69 PO2 61 -4.852
69 PO2 62 -3.387
69 PO2 63 -3.387
69 PO2 64 -2.411
69 PO2 65 -0.946
69 PO2 66 1.495
69 PO2 67 3.448
69 PO2 68 3.937
69 PO2 69 1.984
69 PO2 70 -1.434
69 PO2 71 -3.876
69 PO2 72 -4.852
69 PO2 73 -4.852
69 PO2 74 -4.364
69 PO2 75 -3.876
69 PO2 76 -3.876
69 PO2 77 -4.364
69 PO2 78 -4.364
69 PO2 79 -4.364
69 PO2 80 -4.364
69 PO2 81 -4.364
69 PO2 82 -3.387
69 PO2 83 -0.458
69 PO2 84 2.960
69 PO2 85 6.866
69 PO2 86 9.308
69 PO2 87 10.284
69 PO2 88 8.820
69 PO2 89 6.378
69 PO2 90 3.448
69 PO2 91 0.031
69 PO2 92 -2.899
69 PO2 93 -5.829
69 PO2 94 -8.270
69 PO2 95 -10.223
69 PO2 96 -10.712
69 PO2 97 -9.247
69 PO2 98 -6.805
69 PO2 99 -3.387
69 PO2 100 -0.946
69 PO2 101 0.031
69 PO2 102 -0.946
69 PO2 103 -3.387
69 PO2 104 -4.852
69 PO2 105 -4.852
69 PO2 106 -3.876
69 PO2 107 -2.899
69 PO2 108 -3.876
69 PO2 109 -5.829
69 PO2 110 -8.270
69 PO2 111 -9.735
69 PO2 112 -10.223
69 PO2 113 -11.200
69 PO2 114 -13.641
69 PO2 115 -17.059
69 PO2 116 -20.966
69 PO2 117 -23.407
69 PO2 118 -22.919
69 PO2 119 -20.477
69 PO2 120 -18.036
69 PO2 121 -15.594
69 PO2 122 -13.641
69 PO2 123 -11.200
69 PO2 124 -8.759
69 PO2 125 -6.805
69 PO2 126 -6.317
69 PO2 127 -7.294
69 PO2 128 -8.270
69 PO2 129 -9.735
69 PO2 130 -10.223
69 PO2 131 -10.712
69 PO2 132 -11.688
69 PO2 133 -13.153
69 PO2 134 -14.130
69 PO2 135 -13.641
69 PO2 136 -12.177
69 PO2 137 -9.735
69 PO2 138 -8.270
69 PO2 139 -8.270
69 PO2 140 -8.759
69 PO2 141 -8.270
69 PO2 142 -6.317
69 PO2 143 -3.876
69 PO2 144 -1.923
69 PO2 145 -2.899
69 PO2 146 -5.341
69 PO2 147 -8.270
69 PO2 148 -9.735
69 PO2 149 -10.712
69 PO2 150 -11.688
69 PO2 151 -13.153
69 PO2 152 -15.594
69 PO2 153 -17.548
69 PO2 154 -17.548
69 PO2 155 -14.618
69 PO2 156 -11.200
69 PO2 157 -9.735
69 PO2 158 -11.688
69 PO2 159 -16.571
69 PO2 160 -20.477
69 PO2 161 -20.966
69 PO2 162 -17.548
69 PO2 163 -11.688
69 PO2 164 -5.829
69 PO2 165 -3.387
69 PO2 166 -2.899
69 PO2 167 -3.876
69 PO2 168 -4.852
69 PO2 169 -4.852
69 PO2 170 -4.364
69 PO2 171 -4.364
69 PO2 172 -3.387
69 PO2 173 -1.434
69 PO2 174 1.984
69 PO2 175 4.913
69 PO2 176 6.378
69 PO2 177 4.913
69 PO2 178 1.495
69 PO2 179 -1.434
69 PO2 180 -1.923
69 PO2 181 0.519
69 PO2 182 3.937
69 PO2 183 6.866
69 PO2 184 7.355
69 PO2 185 5.890
69 PO2 186 3.448
69 PO2 187 1.984
69 PO2 188 1.007
69 PO2 189 0.031
69 PO2 190 -1.434
69 PO2 191 -1.923
69 PO2 192 -1.434
69 PO2 193 0.031
69 PO2 194 1.984
69 PO2 195 3.448
69 PO2 196 2.472
69 PO2 197 0.031
69 PO2 198 -2.411
69 PO2 199 -3.387
69 PO2 200 -1.923
69 PO2 201 0.031
69 PO2 202 1.495
69 PO2 203 2.472
69 PO2 204 1.984
69 PO2 205 1.984
69 PO2 206 1.984
69 PO2 207 2.472
69 PO2 208 1.984
69 PO2 209 1.007
69 PO2 210 -0.458
69 PO2 211 -1.923
69 PO2 212 -0.946
69 PO2 213 0.519
69 PO2 214 1.984
69 PO2 215 2.472
69 PO2 216 1.984
69 PO2 217 0.519
69 PO2 218 -1.434
69 PO2 219 -1.923
69 PO2 220 -1.923
69 PO2 221 -1.434
69 PO2 222 -0.946
69 PO2 223 -1.434
69 PO2 224 -1.923
69 PO2 225 -2.411
69 PO2 226 -1.923
69 PO2 227 -0.458
69 PO2 228 1.495
69 PO2 229 1.984
69 PO2 230 1.007
69 PO2 231 -0.946
69 PO2 232 -2.411
69 PO2 233 -1.923
69 PO2 234 -0.458
