# co2a0000382.rd
# 120 trials, 64 chans, 416 samples 368 post_stim samples
# 3.906000 msecs uV
# S2 match , trial 65
# FP1 chan 0
65 FP1 0 1.292
65 FP1 1 0.315
65 FP1 2 -1.149
65 FP1 3 -2.126
65 FP1 4 -2.614
65 FP1 5 -2.126
65 FP1 6 -1.149
65 FP1 7 0.315
65 FP1 8 0.315
65 FP1 9 -0.661
65 FP1 10 -2.126
65 FP1 11 -2.614
65 FP1 12 -2.614
65 FP1 13 -1.638
65 FP1 14 -1.149
65 FP1 15 -1.149
65 FP1 16 -1.638
65 FP1 17 -2.126
65 FP1 18 -2.126
65 FP1 19 -1.638
65 FP1 20 -0.661
65 FP1 21 -0.173
65 FP1 22 -0.661
65 FP1 23 -1.149
65 FP1 24 -1.638
65 FP1 25 -1.149
65 FP1 26 -1.149
65 FP1 27 -1.638
65 FP1 28 -3.103
65 FP1 29 -6.032
65 FP1 30 -8.962
65 FP1 31 -10.427
65 FP1 32 -9.939
65 FP1 33 -8.962
65 FP1 34 -7.497
65 FP1 35 -6.521
65 FP1 36 -5.544
65 FP1 37 -4.567
65 FP1 38 -4.567
65 FP1 39 -5.544
65 FP1 40 -7.009
65 FP1 41 -8.474
65 FP1 42 -9.450
65 FP1 43 -9.450
65 FP1 44 -8.962
65 FP1 45 -8.474
65 FP1 46 -7.497
65 FP1 47 -7.009
65 FP1 48 -6.521
65 FP1 49 -6.032
65 FP1 50 -5.544
65 FP1 51 -5.056
65 FP1 52 -4.567
65 FP1 53 -3.591
65 FP1 54 -3.103
65 FP1 55 -2.614
65 FP1 56 -3.103
65 FP1 57 -4.567
65 FP1 58 -5.056
65 FP1 59 -4.567
65 FP1 60 -3.591
65 FP1 61 -3.103
65 FP1 62 -3.103
65 FP1 63 -3.591
65 FP1 64 -3.591
65 FP1 65 -2.614
65 FP1 66 -0.661
65 FP1 67 1.292
65 FP1 68 1.292
65 FP1 69 -0.173
65 FP1 70 -2.126
65 FP1 71 -3.103
65 FP1 72 -2.614
65 FP1 73 -1.149
65 FP1 74 0.804
65 FP1 75 1.780
65 FP1 76 2.268
65 FP1 77 2.268
65 FP1 78 2.757
65 FP1 79 3.245
65 FP1 80 3.733
65 FP1 81 4.222
65 FP1 82 5.198
65 FP1 83 6.175
65 FP1 84 7.151
65 FP1 85 8.128
65 FP1 86 8.616
65 FP1 87 8.616
65 FP1 88 8.128
65 FP1 89 7.640
65 FP1 90 7.640
65 FP1 91 8.128
65 FP1 92 9.104
65 FP1 93 10.081
65 FP1 94 11.058
65 FP1 95 11.058
65 FP1 96 11.058
65 FP1 97 11.058
65 FP1 98 11.546
65 FP1 99 12.522
65 FP1 100 13.987
65 FP1 101 15.452
65 FP1 102 16.429
65 FP1 103 17.405
65 FP1 104 18.382
65 FP1 105 19.358
65 FP1 106 19.847
65 FP1 107 19.847
65 FP1 108 18.382
65 FP1 109 15.940
65 FP1 110 12.522
65 FP1 111 9.104
65 FP1 112 6.175
65 FP1 113 5.198
65 FP1 114 5.198
65 FP1 115 6.663
65 FP1 116 8.128
65 FP1 117 8.616
65 FP1 118 8.616
65 FP1 119 8.128
65 FP1 120 7.640
65 FP1 121 7.151
65 FP1 122 7.151
65 FP1 123 7.151
65 FP1 124 7.151
65 FP1 125 6.175
65 FP1 126 5.686
65 FP1 127 5.198
65 FP1 128 5.686
65 FP1 129 7.151
65 FP1 130 8.616
65 FP1 131 9.593
65 FP1 132 9.593
65 FP1 133 8.128
65 FP1 134 5.686
65 FP1 135 3.245
65 FP1 136 1.780
65 FP1 137 1.780
65 FP1 138 3.245
65 FP1 139 4.222
65 FP1 140 4.710
65 FP1 141 4.222
65 FP1 142 2.757
65 FP1 143 2.268
65 FP1 144 1.780
65 FP1 145 2.268
65 FP1 146 2.757
65 FP1 147 3.733
65 FP1 148 4.222
65 FP1 149 4.222
65 FP1 150 4.222
65 FP1 151 2.757
65 FP1 152 0.804
65 FP1 153 -1.638
65 FP1 154 -3.591
65 FP1 155 -4.079
65 FP1 156 -3.591
65 FP1 157 -2.614
65 FP1 158 -2.126
65 FP1 159 -1.638
65 FP1 160 -2.126
65 FP1 161 -2.126
65 FP1 162 -2.614
65 FP1 163 -3.591
65 FP1 164 -4.079
65 FP1 165 -4.079
65 FP1 166 -4.079
65 FP1 167 -3.591
65 FP1 168 -3.591
65 FP1 169 -3.591
65 FP1 170 -4.567
65 FP1 171 -4.567
65 FP1 172 -3.591
65 FP1 173 -1.638
65 FP1 174 0.804
65 FP1 175 2.268
65 FP1 176 1.780
65 FP1 177 1.292
65 FP1 178 0.315
65 FP1 179 -0.173
65 FP1 180 0.804
65 FP1 181 2.268
65 FP1 182 2.757
65 FP1 183 3.245
65 FP1 184 2.757
65 FP1 185 1.780
65 FP1 186 1.292
65 FP1 187 1.780
65 FP1 188 1.780
65 FP1 189 1.780
65 FP1 190 0.804
65 FP1 191 -1.638
65 FP1 192 -4.079
65 FP1 193 -5.544
65 FP1 194 -6.521
65 FP1 195 -5.544
65 FP1 196 -3.591
65 FP1 197 -2.614
65 FP1 198 -2.614
65 FP1 199 -3.103
65 FP1 200 -3.591
65 FP1 201 -4.079
65 FP1 202 -3.591
65 FP1 203 -3.591
65 FP1 204 -5.056
65 FP1 205 -7.009
65 FP1 206 -9.450
65 FP1 207 -10.915
65 FP1 208 -10.915
65 FP1 209 -10.427
65 FP1 210 -8.474
65 FP1 211 -7.009
65 FP1 212 -5.544
65 FP1 213 -4.567
65 FP1 214 -4.079
65 FP1 215 -4.079
65 FP1 216 -4.079
65 FP1 217 -4.079
65 FP1 218 -3.591
65 FP1 219 -3.591
65 FP1 220 -3.591
65 FP1 221 -4.079
65 FP1 222 -6.032
65 FP1 223 -8.474
65 FP1 224 -10.427
65 FP1 225 -11.403
65 FP1 226 -11.403
65 FP1 227 -10.915
65 FP1 228 -9.939
65 FP1 229 -10.427
65 FP1 230 -9.939
65 FP1 231 -9.939
65 FP1 232 -9.450
65 FP1 233 -8.962
65 FP1 234 -8.474
65 FP1 235 -8.474
65 FP1 236 -8.962
65 FP1 237 -8.962
65 FP1 238 -8.474
65 FP1 239 -7.497
65 FP1 240 -6.521
65 FP1 241 -6.032
65 FP1 242 -5.544
65 FP1 243 -4.079
65 FP1 244 -2.614
65 FP1 245 -1.149
65 FP1 246 -0.173
65 FP1 247 -0.661
65 FP1 248 -1.149
65 FP1 249 -1.149
65 FP1 250 -0.661
65 FP1 251 0.804
65 FP1 252 2.268
65 FP1 253 2.268
65 FP1 254 0.804
65 FP1 255 -0.661
# FP2 chan 1
65 FP2 0 2.330
65 FP2 1 1.353
65 FP2 2 0.376
65 FP2 3 -0.112
65 FP2 4 -1.088
65 FP2 5 -1.577
65 FP2 6 -1.088
65 FP2 7 -0.600
65 FP2 8 -0.112
65 FP2 9 -0.112
65 FP2 10 -1.088
65 FP2 11 -1.577
65 FP2 12 -2.553
65 FP2 13 -2.553
65 FP2 14 -1.577
65 FP2 15 -1.088
65 FP2 16 -1.577
65 FP2 17 -2.553
65 FP2 18 -3.042
65 FP2 19 -3.042
65 FP2 20 -2.553
65 FP2 21 -0.600
65 FP2 22 0.376
65 FP2 23 0.376
65 FP2 24 -0.600
65 FP2 25 -1.577
65 FP2 26 -2.553
65 FP2 27 -3.042
65 FP2 28 -4.018
65 FP2 29 -5.483
65 FP2 30 -7.436
65 FP2 31 -8.901
65 FP2 32 -9.389
65 FP2 33 -8.901
65 FP2 34 -6.948
65 FP2 35 -4.995
65 FP2 36 -3.530
65 FP2 37 -3.042
65 FP2 38 -3.530
65 FP2 39 -4.995
65 FP2 40 -6.460
65 FP2 41 -7.436
65 FP2 42 -8.413
65 FP2 43 -8.413
65 FP2 44 -7.924
65 FP2 45 -7.924
65 FP2 46 -6.948
65 FP2 47 -5.971
65 FP2 48 -4.995
65 FP2 49 -4.018
65 FP2 50 -3.042
65 FP2 51 -3.530
65 FP2 52 -3.530
65 FP2 53 -3.042
65 FP2 54 -3.042
65 FP2 55 -3.042
65 FP2 56 -3.042
65 FP2 57 -4.018
65 FP2 58 -4.018
65 FP2 59 -3.042
65 FP2 60 -2.065
65 FP2 61 -1.577
65 FP2 62 -2.065
65 FP2 63 -3.042
65 FP2 64 -4.018
65 FP2 65 -3.530
65 FP2 66 -1.577
65 FP2 67 0.376
65 FP2 68 1.841
65 FP2 69 0.376
65 FP2 70 -1.577
65 FP2 71 -4.018
65 FP2 72 -4.995
65 FP2 73 -4.018
65 FP2 74 -2.065
65 FP2 75 -0.112
65 FP2 76 1.841
65 FP2 77 2.330
65 FP2 78 2.330
65 FP2 79 2.330
65 FP2 80 2.330
65 FP2 81 3.306
65 FP2 82 4.771
65 FP2 83 6.236
65 FP2 84 8.189
65 FP2 85 10.142
65 FP2 86 11.607
65 FP2 87 12.095
65 FP2 88 11.607
65 FP2 89 10.142
65 FP2 90 8.677
65 FP2 91 7.701
65 FP2 92 7.701
65 FP2 93 9.654
65 FP2 94 11.119
65 FP2 95 12.583
65 FP2 96 13.072
65 FP2 97 13.072
65 FP2 98 13.560
65 FP2 99 14.048
65 FP2 100 15.025
65 FP2 101 16.001
65 FP2 102 16.001
65 FP2 103 16.490
65 FP2 104 16.978
65 FP2 105 17.955
65 FP2 106 19.419
65 FP2 107 19.419
65 FP2 108 17.955
65 FP2 109 15.513
65 FP2 110 12.583
65 FP2 111 9.654
65 FP2 112 7.212
65 FP2 113 6.724
65 FP2 114 6.724
65 FP2 115 7.701
65 FP2 116 8.189
65 FP2 117 8.677
65 FP2 118 7.701
65 FP2 119 7.212
65 FP2 120 6.724
65 FP2 121 7.212
65 FP2 122 8.189
65 FP2 123 8.189
65 FP2 124 7.212
65 FP2 125 5.747
65 FP2 126 4.771
65 FP2 127 4.283
65 FP2 128 4.771
65 FP2 129 6.236
65 FP2 130 7.701
65 FP2 131 8.677
65 FP2 132 8.189
65 FP2 133 6.724
65 FP2 134 4.771
65 FP2 135 2.818
65 FP2 136 1.353
65 FP2 137 0.865
65 FP2 138 1.841
65 FP2 139 1.841
65 FP2 140 2.330
65 FP2 141 1.353
65 FP2 142 0.376
65 FP2 143 -0.112
65 FP2 144 -0.112
65 FP2 145 1.353
65 FP2 146 2.818
65 FP2 147 3.794
65 FP2 148 4.283
65 FP2 149 3.794
65 FP2 150 2.330
65 FP2 151 0.865
65 FP2 152 -0.600
65 FP2 153 -1.577
65 FP2 154 -2.553
65 FP2 155 -3.042
65 FP2 156 -3.042
65 FP2 157 -2.065
65 FP2 158 -1.577
65 FP2 159 -1.577
65 FP2 160 -2.065
65 FP2 161 -3.042
65 FP2 162 -4.018
65 FP2 163 -4.995
65 FP2 164 -4.995
65 FP2 165 -4.506
65 FP2 166 -3.530
65 FP2 167 -2.553
65 FP2 168 -3.042
65 FP2 169 -3.042
65 FP2 170 -4.018
65 FP2 171 -4.018
65 FP2 172 -3.042
65 FP2 173 -2.065
65 FP2 174 -0.112
65 FP2 175 1.353
65 FP2 176 1.841
65 FP2 177 1.841
65 FP2 178 0.865
65 FP2 179 -0.112
65 FP2 180 -0.112
65 FP2 181 0.376
65 FP2 182 1.841
65 FP2 183 2.818
65 FP2 184 3.306
65 FP2 185 3.306
65 FP2 186 2.330
65 FP2 187 1.353
65 FP2 188 -0.112
65 FP2 189 -2.065
65 FP2 190 -4.995
65 FP2 191 -7.924
65 FP2 192 -10.854
65 FP2 193 -11.342
65 FP2 194 -9.389
65 FP2 195 -6.460
65 FP2 196 -4.018
65 FP2 197 -3.042
65 FP2 198 -4.018
65 FP2 199 -5.483
65 FP2 200 -5.971
65 FP2 201 -5.971
65 FP2 202 -4.995
65 FP2 203 -4.995
65 FP2 204 -5.971
65 FP2 205 -8.413
65 FP2 206 -10.366
65 FP2 207 -11.342
65 FP2 208 -10.854
65 FP2 209 -10.366
65 FP2 210 -8.901
65 FP2 211 -7.924
65 FP2 212 -6.948
65 FP2 213 -5.971
65 FP2 214 -5.483
65 FP2 215 -4.995
65 FP2 216 -4.995
65 FP2 217 -4.995
65 FP2 218 -5.483
65 FP2 219 -4.995
65 FP2 220 -4.018
65 FP2 221 -3.530
65 FP2 222 -4.506
65 FP2 223 -6.460
65 FP2 224 -9.389
65 FP2 225 -11.831
65 FP2 226 -12.807
65 FP2 227 -12.319
65 FP2 228 -11.831
65 FP2 229 -10.854
65 FP2 230 -10.854
65 FP2 231 -10.366
65 FP2 232 -9.878
65 FP2 233 -8.901
65 FP2 234 -8.901
65 FP2 235 -9.389
65 FP2 236 -10.854
65 FP2 237 -11.831
65 FP2 238 -11.831
65 FP2 239 -10.854
65 FP2 240 -8.901
65 FP2 241 -7.436
65 FP2 242 -6.460
65 FP2 243 -5.483
65 FP2 244 -4.018
65 FP2 245 -2.553
65 FP2 246 -1.577
65 FP2 247 -2.065
65 FP2 248 -3.042
65 FP2 249 -4.018
65 FP2 250 -3.530
65 FP2 251 -2.553
65 FP2 252 -1.577
65 FP2 253 -1.088
65 FP2 254 -2.065
65 FP2 255 -2.553
# F7 chan 2
65 F7 0 0.743
65 F7 1 0.254
65 F7 2 -1.211
65 F7 3 -2.187
65 F7 4 -3.164
65 F7 5 -2.675
65 F7 6 -1.211
65 F7 7 1.231
65 F7 8 2.207
65 F7 9 1.231
65 F7 10 -0.722
65 F7 11 -2.187
65 F7 12 -2.187
65 F7 13 -1.211
65 F7 14 -0.722
65 F7 15 -1.211
65 F7 16 -2.675
65 F7 17 -2.675
65 F7 18 -0.722
65 F7 19 3.184
65 F7 20 5.625
65 F7 21 5.137
65 F7 22 2.207
65 F7 23 -1.699
65 F7 24 -3.164
65 F7 25 -2.187
65 F7 26 0.254
65 F7 27 1.719
65 F7 28 0.254
65 F7 29 -3.164
65 F7 30 -6.582
65 F7 31 -9.023
65 F7 32 -9.023
65 F7 33 -8.535
65 F7 34 -8.046
65 F7 35 -7.558
65 F7 36 -6.582
65 F7 37 -4.628
65 F7 38 -2.187
65 F7 39 -1.211
65 F7 40 -3.164
65 F7 41 -6.582
65 F7 42 -10.976
65 F7 43 -12.929
65 F7 44 -11.953
65 F7 45 -10.000
65 F7 46 -8.535
65 F7 47 -7.558
65 F7 48 -8.046
65 F7 49 -8.046
65 F7 50 -6.093
65 F7 51 -4.140
65 F7 52 -2.675
65 F7 53 -2.187
65 F7 54 -2.675
65 F7 55 -4.140
65 F7 56 -4.628
65 F7 57 -5.117
65 F7 58 -4.628
65 F7 59 -4.628
65 F7 60 -4.628
65 F7 61 -4.628
65 F7 62 -4.140
65 F7 63 -3.164
65 F7 64 -2.187
65 F7 65 -1.699
65 F7 66 -2.675
65 F7 67 -4.140
65 F7 68 -5.605
65 F7 69 -5.605
65 F7 70 -4.140
65 F7 71 -0.722
65 F7 72 2.696
65 F7 73 4.649
65 F7 74 4.161
65 F7 75 1.719
65 F7 76 -1.211
65 F7 77 -2.187
65 F7 78 -0.722
65 F7 79 2.207
65 F7 80 4.649
65 F7 81 5.625
65 F7 82 6.114
65 F7 83 6.114
65 F7 84 7.090
65 F7 85 7.579
65 F7 86 8.067
65 F7 87 7.579
65 F7 88 6.602
65 F7 89 7.090
65 F7 90 8.555
65 F7 91 10.508
65 F7 92 11.973
65 F7 93 11.973
65 F7 94 10.997
65 F7 95 9.043
65 F7 96 8.067
65 F7 97 8.067
65 F7 98 8.555
65 F7 99 10.997
65 F7 100 12.461
65 F7 101 14.414
65 F7 102 15.879
65 F7 103 15.879
65 F7 104 15.879
65 F7 105 15.879
65 F7 106 16.368
65 F7 107 14.903
65 F7 108 12.950
65 F7 109 8.555
65 F7 110 3.672
65 F7 111 0.254
65 F7 112 0.254
65 F7 113 2.207
65 F7 114 4.161
65 F7 115 3.672
65 F7 116 1.719
65 F7 117 0.254
65 F7 118 0.743
65 F7 119 3.184
65 F7 120 6.602
65 F7 121 7.579
65 F7 122 6.114
65 F7 123 2.696
65 F7 124 0.254
65 F7 125 -0.722
65 F7 126 0.254
65 F7 127 0.254
65 F7 128 -0.722
65 F7 129 -2.187
65 F7 130 -2.675
65 F7 131 -1.211
65 F7 132 1.231
65 F7 133 2.207
65 F7 134 1.231
65 F7 135 -1.211
65 F7 136 -3.652
65 F7 137 -3.652
65 F7 138 -2.187
65 F7 139 0.254
65 F7 140 1.231
65 F7 141 0.254
65 F7 142 -1.211
65 F7 143 -1.699
65 F7 144 -1.699
65 F7 145 -1.211
65 F7 146 -0.722
65 F7 147 -0.234
65 F7 148 0.743
65 F7 149 1.231
65 F7 150 1.231
65 F7 151 -0.722
65 F7 152 -4.140
65 F7 153 -7.558
65 F7 154 -9.023
65 F7 155 -7.558
65 F7 156 -5.117
65 F7 157 -2.675
65 F7 158 -1.699
65 F7 159 -1.699
65 F7 160 -2.187
65 F7 161 -1.699
65 F7 162 -1.211
65 F7 163 -1.211
65 F7 164 -3.164
65 F7 165 -6.093
65 F7 166 -9.023
65 F7 167 -10.976
65 F7 168 -10.488
65 F7 169 -8.046
65 F7 170 -6.093
65 F7 171 -4.140
65 F7 172 -3.164
65 F7 173 -1.699
65 F7 174 0.743
65 F7 175 2.696
65 F7 176 3.184
65 F7 177 1.231
65 F7 178 -2.187
65 F7 179 -5.117
65 F7 180 -4.628
65 F7 181 -2.187
65 F7 182 1.719
65 F7 183 3.672
65 F7 184 2.696
65 F7 185 0.743
65 F7 186 -1.211
65 F7 187 -0.234
65 F7 188 2.207
65 F7 189 4.649
65 F7 190 5.137
65 F7 191 2.207
65 F7 192 -1.699
65 F7 193 -4.140
65 F7 194 -4.628
65 F7 195 -2.187
65 F7 196 0.743
65 F7 197 2.207
65 F7 198 2.207
65 F7 199 0.743
65 F7 200 -1.211
65 F7 201 -2.187
65 F7 202 -2.187
65 F7 203 -2.675
65 F7 204 -3.652
65 F7 205 -4.628
65 F7 206 -6.093
65 F7 207 -6.093
65 F7 208 -5.117
65 F7 209 -3.652
65 F7 210 -2.187
65 F7 211 -3.164
65 F7 212 -4.628
65 F7 213 -6.582
65 F7 214 -6.582
65 F7 215 -5.117
65 F7 216 -3.164
65 F7 217 -1.699
65 F7 218 -0.722
65 F7 219 -0.722
65 F7 220 -1.211
65 F7 221 -1.211
65 F7 222 -2.187
65 F7 223 -4.140
65 F7 224 -6.582
65 F7 225 -8.046
65 F7 226 -9.023
65 F7 227 -9.023
65 F7 228 -9.023
65 F7 229 -8.535
65 F7 230 -8.535
65 F7 231 -8.046
65 F7 232 -6.582
65 F7 233 -4.628
65 F7 234 -3.164
65 F7 235 -1.699
65 F7 236 -1.211
65 F7 237 -1.211
65 F7 238 -1.211
65 F7 239 -1.211
65 F7 240 -1.699
65 F7 241 -2.187
65 F7 242 -2.675
65 F7 243 -1.699
65 F7 244 0.254
65 F7 245 2.696
65 F7 246 4.161
65 F7 247 4.161
65 F7 248 3.672
65 F7 249 3.184
65 F7 250 3.672
65 F7 251 4.161
65 F7 252 4.161
65 F7 253 2.696
65 F7 254 -0.234
65 F7 255 -2.187
# F8 chan 3
65 F8 0 -0.071
65 F8 1 -0.071
65 F8 2 -0.559
65 F8 3 -1.048
65 F8 4 -1.536
65 F8 5 -1.536
65 F8 6 0.417
65 F8 7 1.394
65 F8 8 1.394
65 F8 9 -0.559
65 F8 10 -3.001
65 F8 11 -4.466
65 F8 12 -3.977
65 F8 13 -2.513
65 F8 14 -1.048
65 F8 15 -0.559
65 F8 16 -2.024
65 F8 17 -4.466
65 F8 18 -5.931
65 F8 19 -4.954
65 F8 20 -3.001
65 F8 21 0.417
65 F8 22 2.858
65 F8 23 2.858
65 F8 24 0.905
65 F8 25 -1.048
65 F8 26 -3.001
65 F8 27 -3.977
65 F8 28 -3.977
65 F8 29 -3.489
65 F8 30 -3.977
65 F8 31 -4.954
65 F8 32 -5.442
65 F8 33 -5.442
65 F8 34 -3.977
65 F8 35 -1.536
65 F8 36 0.417
65 F8 37 0.905
65 F8 38 -1.048
65 F8 39 -3.001
65 F8 40 -4.954
65 F8 41 -4.954
65 F8 42 -3.489
65 F8 43 -2.513
65 F8 44 -2.024
65 F8 45 -2.024
65 F8 46 -2.024
65 F8 47 -1.048
65 F8 48 0.417
65 F8 49 1.394
65 F8 50 0.417
65 F8 51 -1.536
65 F8 52 -3.001
65 F8 53 -3.489
65 F8 54 -2.513
65 F8 55 -1.048
65 F8 56 -0.071
65 F8 57 0.905
65 F8 58 0.905
65 F8 59 1.394
65 F8 60 0.905
65 F8 61 -0.071
65 F8 62 -1.536
65 F8 63 -2.513
65 F8 64 -2.024
65 F8 65 -0.559
65 F8 66 1.394
65 F8 67 1.882
65 F8 68 0.417
65 F8 69 -2.024
65 F8 70 -3.489
65 F8 71 -3.489
65 F8 72 -2.024
65 F8 73 -1.048
65 F8 74 -0.559
65 F8 75 -0.071
65 F8 76 0.417
65 F8 77 1.882
65 F8 78 2.858
65 F8 79 4.323
65 F8 80 5.300
65 F8 81 6.276
65 F8 82 7.253
65 F8 83 8.718
65 F8 84 10.183
65 F8 85 12.136
65 F8 86 13.112
65 F8 87 14.089
65 F8 88 13.601
65 F8 89 11.648
65 F8 90 8.718
65 F8 91 6.276
65 F8 92 6.276
65 F8 93 8.718
65 F8 94 12.624
65 F8 95 15.066
65 F8 96 15.066
65 F8 97 13.601
65 F8 98 11.648
65 F8 99 11.159
65 F8 100 12.624
65 F8 101 15.066
65 F8 102 15.554
65 F8 103 14.577
65 F8 104 11.648
65 F8 105 10.183
65 F8 106 10.183
65 F8 107 11.648
65 F8 108 13.112
65 F8 109 12.624
65 F8 110 9.694
65 F8 111 5.300
65 F8 112 1.882
65 F8 113 0.905
65 F8 114 1.882
65 F8 115 3.835
65 F8 116 4.323
65 F8 117 3.347
65 F8 118 1.394
65 F8 119 -0.071
65 F8 120 0.417
65 F8 121 1.394
65 F8 122 2.370
65 F8 123 1.882
65 F8 124 0.905
65 F8 125 -0.559
65 F8 126 -0.559
65 F8 127 0.905
65 F8 128 1.882
65 F8 129 2.370
65 F8 130 2.370
65 F8 131 2.370
65 F8 132 2.370
65 F8 133 2.370
65 F8 134 2.370
65 F8 135 1.394
65 F8 136 -0.559
65 F8 137 -2.513
65 F8 138 -4.466
65 F8 139 -5.442
65 F8 140 -5.931
65 F8 141 -5.931
65 F8 142 -5.442
65 F8 143 -3.977
65 F8 144 -2.024
65 F8 145 -0.559
65 F8 146 0.905
65 F8 147 1.394
65 F8 148 0.905
65 F8 149 -0.559
65 F8 150 -3.489
65 F8 151 -5.442
65 F8 152 -5.931
65 F8 153 -5.442
65 F8 154 -3.001
65 F8 155 -1.048
65 F8 156 -1.048
65 F8 157 -2.024
65 F8 158 -3.977
65 F8 159 -4.466
65 F8 160 -3.977
65 F8 161 -2.024
65 F8 162 -1.048
65 F8 163 -1.536
65 F8 164 -3.001
65 F8 165 -4.466
65 F8 166 -4.954
65 F8 167 -3.489
65 F8 168 -2.513
65 F8 169 -2.024
65 F8 170 -1.536
65 F8 171 -1.536
65 F8 172 -1.048
65 F8 173 0.905
65 F8 174 1.882
65 F8 175 1.882
65 F8 176 0.417
65 F8 177 -1.536
65 F8 178 -2.024
65 F8 179 -1.536
65 F8 180 0.905
65 F8 181 1.882
65 F8 182 1.882
65 F8 183 0.417
65 F8 184 -1.048
65 F8 185 -1.536
65 F8 186 -1.536
65 F8 187 -2.024
65 F8 188 -3.977
65 F8 189 -8.372
65 F8 190 -13.255
65 F8 191 -17.161
65 F8 192 -18.626
65 F8 193 -17.161
65 F8 194 -13.743
65 F8 195 -9.837
65 F8 196 -5.442
65 F8 197 -2.024
65 F8 198 -1.048
65 F8 199 -1.536
65 F8 200 -3.001
65 F8 201 -4.954
65 F8 202 -5.931
65 F8 203 -4.954
65 F8 204 -3.977
65 F8 205 -3.977
65 F8 206 -5.442
65 F8 207 -6.419
65 F8 208 -6.907
65 F8 209 -6.419
65 F8 210 -5.442
65 F8 211 -4.954
65 F8 212 -5.931
65 F8 213 -6.907
65 F8 214 -7.395
65 F8 215 -5.931
65 F8 216 -4.954
65 F8 217 -3.977
65 F8 218 -3.977
65 F8 219 -3.977
65 F8 220 -3.001
65 F8 221 -0.559
65 F8 222 0.905
65 F8 223 -0.071
65 F8 224 -3.489
65 F8 225 -8.372
65 F8 226 -11.790
65 F8 227 -12.767
65 F8 228 -10.325
65 F8 229 -6.907
65 F8 230 -3.489
65 F8 231 -2.024
65 F8 232 -1.048
65 F8 233 -0.071
65 F8 234 0.417
65 F8 235 -0.559
65 F8 236 -2.513
65 F8 237 -5.442
65 F8 238 -7.395
65 F8 239 -7.884
65 F8 240 -5.931
65 F8 241 -3.489
65 F8 242 -1.536
65 F8 243 -0.559
65 F8 244 -1.048
65 F8 245 -2.024
65 F8 246 -2.513
65 F8 247 -2.513
65 F8 248 -2.024
65 F8 249 -1.536
65 F8 250 -1.048
65 F8 251 -1.048
65 F8 252 -1.048
65 F8 253 -1.536
65 F8 254 -1.536
65 F8 255 -1.048
# AF1 chan 4
65 AF1 0 1.211
65 AF1 1 0.722
65 AF1 2 -0.743
65 AF1 3 -1.719
65 AF1 4 -1.719
65 AF1 5 -1.231
65 AF1 6 0.234
65 AF1 7 1.699
65 AF1 8 2.187
65 AF1 9 1.211
65 AF1 10 -0.254
65 AF1 11 -1.231
65 AF1 12 -1.719
65 AF1 13 -1.719
65 AF1 14 -0.254
65 AF1 15 0.234
65 AF1 16 0.722
65 AF1 17 0.722
65 AF1 18 0.722
65 AF1 19 0.722
65 AF1 20 0.722
65 AF1 21 0.722
65 AF1 22 0.722
65 AF1 23 0.722
65 AF1 24 1.211
65 AF1 25 2.187
65 AF1 26 2.187
65 AF1 27 1.211
65 AF1 28 -0.254
65 AF1 29 -2.696
65 AF1 30 -4.649
65 AF1 31 -6.114
65 AF1 32 -6.114
65 AF1 33 -5.137
65 AF1 34 -4.161
65 AF1 35 -2.696
65 AF1 36 -2.207
65 AF1 37 -1.719
65 AF1 38 -2.207
65 AF1 39 -3.184
65 AF1 40 -4.161
65 AF1 41 -5.137
65 AF1 42 -5.625
65 AF1 43 -5.625
65 AF1 44 -5.137
65 AF1 45 -5.137
65 AF1 46 -4.649
65 AF1 47 -4.161
65 AF1 48 -3.672
65 AF1 49 -2.696
65 AF1 50 -2.207
65 AF1 51 -1.719
65 AF1 52 -1.231
65 AF1 53 -0.743
65 AF1 54 -0.254
65 AF1 55 -0.254
65 AF1 56 -0.254
65 AF1 57 -0.254
65 AF1 58 -0.743
65 AF1 59 -0.254
65 AF1 60 0.234
65 AF1 61 0.234
65 AF1 62 0.234
65 AF1 63 0.234
65 AF1 64 0.234
65 AF1 65 0.722
65 AF1 66 1.211
65 AF1 67 2.187
65 AF1 68 2.187
65 AF1 69 0.722
65 AF1 70 -0.254
65 AF1 71 -1.231
65 AF1 72 -0.743
65 AF1 73 0.234
65 AF1 74 1.699
65 AF1 75 2.187
65 AF1 76 2.187
65 AF1 77 1.699
65 AF1 78 1.211
65 AF1 79 1.699
65 AF1 80 2.187
65 AF1 81 2.675
65 AF1 82 2.675
65 AF1 83 3.652
65 AF1 84 4.628
65 AF1 85 5.605
65 AF1 86 6.093
65 AF1 87 6.093
65 AF1 88 5.117
65 AF1 89 4.140
65 AF1 90 3.652
65 AF1 91 4.140
65 AF1 92 5.117
65 AF1 93 6.582
65 AF1 94 7.558
65 AF1 95 7.558
65 AF1 96 7.558
65 AF1 97 7.070
65 AF1 98 7.558
65 AF1 99 8.535
65 AF1 100 10.488
65 AF1 101 11.953
65 AF1 102 12.929
65 AF1 103 13.418
65 AF1 104 13.906
65 AF1 105 14.394
65 AF1 106 15.371
65 AF1 107 15.371
65 AF1 108 14.882
65 AF1 109 12.929
65 AF1 110 9.511
65 AF1 111 6.093
65 AF1 112 3.652
65 AF1 113 3.164
65 AF1 114 3.652
65 AF1 115 4.628
65 AF1 116 6.093
65 AF1 117 6.582
65 AF1 118 6.582
65 AF1 119 6.093
65 AF1 120 5.117
65 AF1 121 4.628
65 AF1 122 4.628
65 AF1 123 4.628
65 AF1 124 4.140
65 AF1 125 4.140
65 AF1 126 4.140
65 AF1 127 3.652
65 AF1 128 3.652
65 AF1 129 4.140
65 AF1 130 5.117
65 AF1 131 5.605
65 AF1 132 5.605
65 AF1 133 4.628
65 AF1 134 3.652
65 AF1 135 2.187
65 AF1 136 1.211
65 AF1 137 1.699
65 AF1 138 2.675
65 AF1 139 3.164
65 AF1 140 3.164
65 AF1 141 2.675
65 AF1 142 1.699
65 AF1 143 1.211
65 AF1 144 0.722
65 AF1 145 1.211
65 AF1 146 1.211
65 AF1 147 1.699
65 AF1 148 2.187
65 AF1 149 3.164
65 AF1 150 3.164
65 AF1 151 2.675
65 AF1 152 1.211
65 AF1 153 -0.254
65 AF1 154 -1.719
65 AF1 155 -2.207
65 AF1 156 -2.207
65 AF1 157 -2.207
65 AF1 158 -1.719
65 AF1 159 -1.719
65 AF1 160 -2.207
65 AF1 161 -2.207
65 AF1 162 -2.207
65 AF1 163 -2.207
65 AF1 164 -2.696
65 AF1 165 -3.184
65 AF1 166 -3.184
65 AF1 167 -3.672
65 AF1 168 -3.672
65 AF1 169 -4.649
65 AF1 170 -5.137
65 AF1 171 -5.625
65 AF1 172 -5.625
65 AF1 173 -4.161
65 AF1 174 -2.207
65 AF1 175 -1.231
65 AF1 176 -0.254
65 AF1 177 -1.231
65 AF1 178 -1.719
65 AF1 179 -2.207
65 AF1 180 -1.719
65 AF1 181 -1.231
65 AF1 182 -0.254
65 AF1 183 0.234
65 AF1 184 -0.254
65 AF1 185 -0.743
65 AF1 186 -0.743
65 AF1 187 -0.743
65 AF1 188 -0.254
65 AF1 189 0.234
65 AF1 190 -0.254
65 AF1 191 -1.719
65 AF1 192 -3.672
65 AF1 193 -5.137
65 AF1 194 -6.114
65 AF1 195 -5.625
65 AF1 196 -4.649
65 AF1 197 -4.161
65 AF1 198 -3.672
65 AF1 199 -4.161
65 AF1 200 -4.161
65 AF1 201 -4.161
65 AF1 202 -4.649
65 AF1 203 -5.137
65 AF1 204 -6.114
65 AF1 205 -8.067
65 AF1 206 -10.020
65 AF1 207 -11.485
65 AF1 208 -11.973
65 AF1 209 -11.973
65 AF1 210 -10.508
65 AF1 211 -9.043
65 AF1 212 -7.579
65 AF1 213 -6.114
65 AF1 214 -5.137
65 AF1 215 -4.649
65 AF1 216 -4.649
65 AF1 217 -4.649
65 AF1 218 -4.649
65 AF1 219 -4.161
65 AF1 220 -3.672
65 AF1 221 -4.161
65 AF1 222 -5.137
65 AF1 223 -7.090
65 AF1 224 -8.555
65 AF1 225 -10.020
65 AF1 226 -10.020
65 AF1 227 -9.532
65 AF1 228 -8.555
65 AF1 229 -8.555
65 AF1 230 -9.043
65 AF1 231 -9.043
65 AF1 232 -9.532
65 AF1 233 -9.043
65 AF1 234 -9.043
65 AF1 235 -8.555
65 AF1 236 -8.067
65 AF1 237 -7.579
65 AF1 238 -7.090
65 AF1 239 -7.090
65 AF1 240 -7.090
65 AF1 241 -6.602
65 AF1 242 -6.602
65 AF1 243 -5.625
65 AF1 244 -4.161
65 AF1 245 -2.696
65 AF1 246 -1.719
65 AF1 247 -1.719
65 AF1 248 -1.719
65 AF1 249 -2.207
65 AF1 250 -1.719
65 AF1 251 -0.743
65 AF1 252 -0.254
65 AF1 253 -0.254
65 AF1 254 -1.231
65 AF1 255 -2.207
# AF2 chan 5
65 AF2 0 1.821
65 AF2 1 0.356
65 AF2 2 -0.132
65 AF2 3 -1.109
65 AF2 4 -1.597
65 AF2 5 -1.109
65 AF2 6 -0.132
65 AF2 7 0.844
65 AF2 8 1.821
65 AF2 9 1.333
65 AF2 10 -0.132
65 AF2 11 -1.109
65 AF2 12 -2.085
65 AF2 13 -2.574
65 AF2 14 -2.085
65 AF2 15 -1.109
65 AF2 16 -0.621
65 AF2 17 -0.621
65 AF2 18 -0.621
65 AF2 19 -0.621
65 AF2 20 -0.132
65 AF2 21 0.356
65 AF2 22 0.844
65 AF2 23 1.333
65 AF2 24 0.844
65 AF2 25 0.356
65 AF2 26 -0.132
65 AF2 27 -1.109
65 AF2 28 -2.085
65 AF2 29 -3.062
65 AF2 30 -4.527
65 AF2 31 -5.015
65 AF2 32 -5.503
65 AF2 33 -5.015
65 AF2 34 -4.038
65 AF2 35 -3.062
65 AF2 36 -1.597
65 AF2 37 -1.109
65 AF2 38 -1.597
65 AF2 39 -2.574
65 AF2 40 -3.550
65 AF2 41 -4.038
65 AF2 42 -4.038
65 AF2 43 -3.550
65 AF2 44 -3.062
65 AF2 45 -3.062
65 AF2 46 -3.062
65 AF2 47 -2.085
65 AF2 48 -1.109
65 AF2 49 -0.132
65 AF2 50 -0.132
65 AF2 51 0.356
65 AF2 52 0.356
65 AF2 53 0.356
65 AF2 54 0.844
65 AF2 55 0.844
65 AF2 56 0.356
65 AF2 57 0.356
65 AF2 58 0.356
65 AF2 59 1.333
65 AF2 60 1.821
65 AF2 61 2.309
65 AF2 62 1.821
65 AF2 63 1.333
65 AF2 64 0.844
65 AF2 65 1.333
65 AF2 66 2.309
65 AF2 67 3.286
65 AF2 68 2.797
65 AF2 69 1.821
65 AF2 70 -0.621
65 AF2 71 -2.085
65 AF2 72 -2.085
65 AF2 73 -1.109
65 AF2 74 -0.132
65 AF2 75 1.333
65 AF2 76 1.821
65 AF2 77 1.821
65 AF2 78 1.821
65 AF2 79 1.821
65 AF2 80 2.309
65 AF2 81 2.797
65 AF2 82 3.286
65 AF2 83 3.774
65 AF2 84 4.751
65 AF2 85 5.727
65 AF2 86 7.192
65 AF2 87 7.680
65 AF2 88 7.192
65 AF2 89 5.727
65 AF2 90 4.262
65 AF2 91 3.774
65 AF2 92 3.774
65 AF2 93 4.751
65 AF2 94 6.215
65 AF2 95 7.192
65 AF2 96 8.169
65 AF2 97 8.169
65 AF2 98 8.657
65 AF2 99 9.633
65 AF2 100 10.610
65 AF2 101 11.098
65 AF2 102 11.587
65 AF2 103 11.587
65 AF2 104 11.587
65 AF2 105 12.563
65 AF2 106 13.540
65 AF2 107 14.516
65 AF2 108 14.028
65 AF2 109 12.563
65 AF2 110 10.122
65 AF2 111 7.680
65 AF2 112 5.239
65 AF2 113 3.774
65 AF2 114 4.262
65 AF2 115 5.239
65 AF2 116 6.215
65 AF2 117 7.192
65 AF2 118 6.704
65 AF2 119 5.727
65 AF2 120 5.239
65 AF2 121 4.751
65 AF2 122 5.239
65 AF2 123 5.239
65 AF2 124 4.751
65 AF2 125 4.262
65 AF2 126 3.774
65 AF2 127 3.774
65 AF2 128 3.774
65 AF2 129 4.751
65 AF2 130 5.727
65 AF2 131 5.727
65 AF2 132 5.727
65 AF2 133 4.751
65 AF2 134 3.774
65 AF2 135 2.797
65 AF2 136 2.309
65 AF2 137 2.309
65 AF2 138 2.797
65 AF2 139 2.797
65 AF2 140 1.821
65 AF2 141 1.333
65 AF2 142 0.356
65 AF2 143 -0.132
65 AF2 144 -0.132
65 AF2 145 0.356
65 AF2 146 1.333
65 AF2 147 2.797
65 AF2 148 2.797
65 AF2 149 2.797
65 AF2 150 2.309
65 AF2 151 1.333
65 AF2 152 -0.132
65 AF2 153 -0.621
65 AF2 154 -1.109
65 AF2 155 -1.109
65 AF2 156 -0.621
65 AF2 157 -0.621
65 AF2 158 -1.109
65 AF2 159 -1.109
65 AF2 160 -1.597
65 AF2 161 -2.085
65 AF2 162 -3.062
65 AF2 163 -3.062
65 AF2 164 -3.550
65 AF2 165 -3.062
65 AF2 166 -2.574
65 AF2 167 -2.085
65 AF2 168 -2.085
65 AF2 169 -2.574
65 AF2 170 -3.062
65 AF2 171 -4.038
65 AF2 172 -4.038
65 AF2 173 -3.550
65 AF2 174 -2.085
65 AF2 175 -1.109
65 AF2 176 -0.132
65 AF2 177 -0.621
65 AF2 178 -1.109
65 AF2 179 -1.597
65 AF2 180 -1.597
65 AF2 181 -0.621
65 AF2 182 0.356
65 AF2 183 0.356
65 AF2 184 0.844
65 AF2 185 0.356
65 AF2 186 -0.132
65 AF2 187 -0.621
65 AF2 188 -1.109
65 AF2 189 -2.085
65 AF2 190 -3.550
65 AF2 191 -5.503
65 AF2 192 -6.968
65 AF2 193 -7.945
65 AF2 194 -7.456
65 AF2 195 -5.992
65 AF2 196 -4.527
65 AF2 197 -3.550
65 AF2 198 -4.038
65 AF2 199 -5.015
65 AF2 200 -5.992
65 AF2 201 -6.480
65 AF2 202 -6.480
65 AF2 203 -6.480
65 AF2 204 -7.456
65 AF2 205 -8.921
65 AF2 206 -10.874
65 AF2 207 -12.339
65 AF2 208 -12.828
65 AF2 209 -12.339
65 AF2 210 -10.874
65 AF2 211 -9.898
65 AF2 212 -7.945
65 AF2 213 -6.480
65 AF2 214 -5.503
65 AF2 215 -5.503
65 AF2 216 -5.503
65 AF2 217 -5.992
65 AF2 218 -6.480
65 AF2 219 -5.992
65 AF2 220 -5.015
65 AF2 221 -3.550
65 AF2 222 -3.550
65 AF2 223 -4.527
65 AF2 224 -6.480
65 AF2 225 -7.945
65 AF2 226 -9.410
65 AF2 227 -9.410
65 AF2 228 -9.410
65 AF2 229 -8.921
65 AF2 230 -8.921
65 AF2 231 -9.410
65 AF2 232 -8.921
65 AF2 233 -8.921
65 AF2 234 -8.921
65 AF2 235 -8.921
65 AF2 236 -8.921
65 AF2 237 -9.410
65 AF2 238 -9.410
65 AF2 239 -9.410
65 AF2 240 -8.433
65 AF2 241 -7.456
65 AF2 242 -6.480
65 AF2 243 -5.503
65 AF2 244 -5.015
65 AF2 245 -4.038
65 AF2 246 -3.550
65 AF2 247 -3.062
65 AF2 248 -3.062
65 AF2 249 -3.062
65 AF2 250 -3.062
65 AF2 251 -2.574
65 AF2 252 -2.085
65 AF2 253 -2.085
65 AF2 254 -2.085
65 AF2 255 -2.574
# FZ chan 6
65 FZ 0 2.533
65 FZ 1 1.556
65 FZ 2 0.580
65 FZ 3 -0.885
65 FZ 4 -1.373
65 FZ 5 -0.397
65 FZ 6 1.068
65 FZ 7 3.021
65 FZ 8 3.510
65 FZ 9 3.510
65 FZ 10 2.045
65 FZ 11 0.092
65 FZ 12 -0.397
65 FZ 13 -0.885
65 FZ 14 0.092
65 FZ 15 1.068
65 FZ 16 2.045
65 FZ 17 2.533
65 FZ 18 3.021
65 FZ 19 3.021
65 FZ 20 2.533
65 FZ 21 2.533
65 FZ 22 2.045
65 FZ 23 2.533
65 FZ 24 3.021
65 FZ 25 3.510
65 FZ 26 3.510
65 FZ 27 2.533
65 FZ 28 1.068
65 FZ 29 -0.397
65 FZ 30 -1.373
65 FZ 31 -1.862
65 FZ 32 -1.373
65 FZ 33 -0.397
65 FZ 34 0.580
65 FZ 35 1.068
65 FZ 36 1.556
65 FZ 37 1.068
65 FZ 38 0.580
65 FZ 39 -0.397
65 FZ 40 -0.885
65 FZ 41 -0.885
65 FZ 42 -0.885
65 FZ 43 -0.885
65 FZ 44 -0.885
65 FZ 45 -0.885
65 FZ 46 -0.397
65 FZ 47 0.092
65 FZ 48 1.068
65 FZ 49 2.045
65 FZ 50 2.045
65 FZ 51 2.045
65 FZ 52 2.045
65 FZ 53 2.533
65 FZ 54 3.021
65 FZ 55 3.021
65 FZ 56 3.510
65 FZ 57 3.510
65 FZ 58 3.998
65 FZ 59 3.998
65 FZ 60 4.486
65 FZ 61 3.998
65 FZ 62 3.998
65 FZ 63 3.510
65 FZ 64 3.510
65 FZ 65 3.998
65 FZ 66 4.974
65 FZ 67 4.974
65 FZ 68 3.998
65 FZ 69 2.533
65 FZ 70 1.068
65 FZ 71 0.580
65 FZ 72 1.068
65 FZ 73 2.533
65 FZ 74 3.021
65 FZ 75 3.021
65 FZ 76 2.533
65 FZ 77 2.533
65 FZ 78 2.045
65 FZ 79 2.045
65 FZ 80 2.045
65 FZ 81 2.045
65 FZ 82 2.045
65 FZ 83 2.045
65 FZ 84 2.045
65 FZ 85 3.021
65 FZ 86 3.510
65 FZ 87 3.998
65 FZ 88 3.021
65 FZ 89 2.045
65 FZ 90 1.068
65 FZ 91 1.068
65 FZ 92 1.556
65 FZ 93 3.021
65 FZ 94 3.510
65 FZ 95 3.998
65 FZ 96 3.998
65 FZ 97 4.486
65 FZ 98 5.463
65 FZ 99 6.439
65 FZ 100 7.904
65 FZ 101 8.392
65 FZ 102 8.392
65 FZ 103 8.392
65 FZ 104 8.881
65 FZ 105 9.857
65 FZ 106 10.834
65 FZ 107 11.322
65 FZ 108 10.834
65 FZ 109 8.881
65 FZ 110 6.927
65 FZ 111 4.486
65 FZ 112 3.021
65 FZ 113 2.533
65 FZ 114 3.021
65 FZ 115 3.510
65 FZ 116 4.486
65 FZ 117 4.974
65 FZ 118 4.486
65 FZ 119 3.998
65 FZ 120 3.021
65 FZ 121 2.533
65 FZ 122 2.533
65 FZ 123 2.045
65 FZ 124 2.533
65 FZ 125 2.533
65 FZ 126 2.533
65 FZ 127 2.533
65 FZ 128 2.045
65 FZ 129 2.533
65 FZ 130 2.533
65 FZ 131 2.533
65 FZ 132 2.533
65 FZ 133 2.045
65 FZ 134 1.556
65 FZ 135 1.068
65 FZ 136 1.068
65 FZ 137 1.068
65 FZ 138 1.068
65 FZ 139 1.068
65 FZ 140 1.068
65 FZ 141 0.580
65 FZ 142 0.092
65 FZ 143 0.092
65 FZ 144 -0.397
65 FZ 145 -0.397
65 FZ 146 -0.397
65 FZ 147 0.092
65 FZ 148 0.580
65 FZ 149 1.068
65 FZ 150 1.556
65 FZ 151 1.556
65 FZ 152 1.068
65 FZ 153 0.092
65 FZ 154 -0.397
65 FZ 155 -0.397
65 FZ 156 -0.397
65 FZ 157 0.092
65 FZ 158 -0.397
65 FZ 159 -0.397
65 FZ 160 -0.885
65 FZ 161 -0.885
65 FZ 162 -1.373
65 FZ 163 -1.373
65 FZ 164 -2.350
65 FZ 165 -2.350
65 FZ 166 -2.350
65 FZ 167 -2.350
65 FZ 168 -2.350
65 FZ 169 -2.350
65 FZ 170 -3.326
65 FZ 171 -3.815
65 FZ 172 -4.303
65 FZ 173 -3.815
65 FZ 174 -3.326
65 FZ 175 -2.350
65 FZ 176 -1.862
65 FZ 177 -2.350
65 FZ 178 -2.838
65 FZ 179 -3.326
65 FZ 180 -2.838
65 FZ 181 -2.350
65 FZ 182 -1.862
65 FZ 183 -1.862
65 FZ 184 -1.862
65 FZ 185 -1.373
65 FZ 186 -1.862
65 FZ 187 -1.862
65 FZ 188 -1.862
65 FZ 189 -2.350
65 FZ 190 -3.326
65 FZ 191 -4.303
65 FZ 192 -4.791
65 FZ 193 -5.280
65 FZ 194 -5.768
65 FZ 195 -5.280
65 FZ 196 -5.280
65 FZ 197 -4.791
65 FZ 198 -4.791
65 FZ 199 -5.768
65 FZ 200 -6.256
65 FZ 201 -6.256
65 FZ 202 -6.744
65 FZ 203 -7.233
65 FZ 204 -8.209
65 FZ 205 -9.186
65 FZ 206 -10.651
65 FZ 207 -12.115
65 FZ 208 -12.604
65 FZ 209 -12.604
65 FZ 210 -11.627
65 FZ 211 -10.162
65 FZ 212 -8.209
65 FZ 213 -6.256
65 FZ 214 -5.280
65 FZ 215 -4.791
65 FZ 216 -5.280
65 FZ 217 -5.768
65 FZ 218 -5.768
65 FZ 219 -5.280
65 FZ 220 -4.303
65 FZ 221 -3.326
65 FZ 222 -3.326
65 FZ 223 -3.326
65 FZ 224 -4.303
65 FZ 225 -4.791
65 FZ 226 -5.768
65 FZ 227 -6.256
65 FZ 228 -6.744
65 FZ 229 -7.233
65 FZ 230 -7.721
65 FZ 231 -8.209
65 FZ 232 -8.209
65 FZ 233 -7.721
65 FZ 234 -7.233
65 FZ 235 -6.256
65 FZ 236 -6.256
65 FZ 237 -6.256
65 FZ 238 -6.256
65 FZ 239 -6.744
65 FZ 240 -6.744
65 FZ 241 -6.744
65 FZ 242 -5.768
65 FZ 243 -4.791
65 FZ 244 -3.326
65 FZ 245 -2.350
65 FZ 246 -2.350
65 FZ 247 -2.838
65 FZ 248 -2.838
65 FZ 249 -2.350
65 FZ 250 -2.350
65 FZ 251 -1.373
65 FZ 252 -1.373
65 FZ 253 -1.373
65 FZ 254 -1.373
65 FZ 255 -1.373
# F4 chan 7
65 F4 0 1.862
65 F4 1 1.373
65 F4 2 0.885
65 F4 3 -0.092
65 F4 4 -0.580
65 F4 5 -1.068
65 F4 6 -0.092
65 F4 7 0.397
65 F4 8 1.373
65 F4 9 1.373
65 F4 10 0.397
65 F4 11 -0.580
65 F4 12 -2.045
65 F4 13 -3.021
65 F4 14 -2.533
65 F4 15 -2.045
65 F4 16 -1.556
65 F4 17 -1.556
65 F4 18 -1.556
65 F4 19 -1.556
65 F4 20 -0.580
65 F4 21 0.397
65 F4 22 1.373
65 F4 23 1.862
65 F4 24 1.373
65 F4 25 0.397
65 F4 26 -0.580
65 F4 27 -1.556
65 F4 28 -2.045
65 F4 29 -3.021
65 F4 30 -3.510
65 F4 31 -3.998
65 F4 32 -4.486
65 F4 33 -4.486
65 F4 34 -3.998
65 F4 35 -2.533
65 F4 36 -1.556
65 F4 37 -0.580
65 F4 38 -1.068
65 F4 39 -2.045
65 F4 40 -3.021
65 F4 41 -3.510
65 F4 42 -3.510
65 F4 43 -3.021
65 F4 44 -3.021
65 F4 45 -2.045
65 F4 46 -1.556
65 F4 47 -0.580
65 F4 48 -0.092
65 F4 49 -0.092
65 F4 50 -0.092
65 F4 51 -0.580
65 F4 52 -0.092
65 F4 53 -0.092
65 F4 54 0.397
65 F4 55 -0.092
65 F4 56 -0.580
65 F4 57 -1.068
65 F4 58 -0.580
65 F4 59 0.397
65 F4 60 0.885
65 F4 61 1.373
65 F4 62 0.885
65 F4 63 0.397
65 F4 64 -0.580
65 F4 65 -0.580
65 F4 66 0.397
65 F4 67 0.397
65 F4 68 -0.092
65 F4 69 -1.068
65 F4 70 -2.533
65 F4 71 -3.510
65 F4 72 -3.998
65 F4 73 -3.021
65 F4 74 -2.045
65 F4 75 -1.556
65 F4 76 -1.556
65 F4 77 -1.556
65 F4 78 -0.580
65 F4 79 -0.580
65 F4 80 0.397
65 F4 81 0.885
65 F4 82 1.373
65 F4 83 1.862
65 F4 84 2.350
65 F4 85 3.326
65 F4 86 4.303
65 F4 87 5.280
65 F4 88 4.791
65 F4 89 3.815
65 F4 90 2.350
65 F4 91 1.373
65 F4 92 0.885
65 F4 93 2.350
65 F4 94 3.815
65 F4 95 4.791
65 F4 96 5.280
65 F4 97 5.280
65 F4 98 5.280
65 F4 99 5.768
65 F4 100 5.768
65 F4 101 5.768
65 F4 102 5.768
65 F4 103 5.768
65 F4 104 6.256
65 F4 105 7.233
65 F4 106 8.209
65 F4 107 8.698
65 F4 108 7.721
65 F4 109 7.233
65 F4 110 5.280
65 F4 111 3.326
65 F4 112 1.373
65 F4 113 -0.092
65 F4 114 -0.580
65 F4 115 -0.092
65 F4 116 0.885
65 F4 117 1.862
65 F4 118 1.862
65 F4 119 1.373
65 F4 120 0.885
65 F4 121 0.397
65 F4 122 0.397
65 F4 123 0.885
65 F4 124 0.397
65 F4 125 0.397
65 F4 126 -0.580
65 F4 127 -0.580
65 F4 128 -0.092
65 F4 129 1.373
65 F4 130 1.862
65 F4 131 1.862
65 F4 132 1.373
65 F4 133 0.397
65 F4 134 -0.580
65 F4 135 -1.068
65 F4 136 -1.068
65 F4 137 -1.068
65 F4 138 -0.580
65 F4 139 -1.068
65 F4 140 -2.045
65 F4 141 -3.021
65 F4 142 -3.998
65 F4 143 -4.974
65 F4 144 -4.974
65 F4 145 -3.998
65 F4 146 -2.533
65 F4 147 -1.068
65 F4 148 -0.580
65 F4 149 -1.556
65 F4 150 -2.533
65 F4 151 -3.510
65 F4 152 -3.998
65 F4 153 -3.998
65 F4 154 -2.533
65 F4 155 -1.556
65 F4 156 -1.556
65 F4 157 -1.556
65 F4 158 -2.533
65 F4 159 -3.021
65 F4 160 -3.510
65 F4 161 -3.998
65 F4 162 -3.998
65 F4 163 -3.998
65 F4 164 -4.486
65 F4 165 -3.998
65 F4 166 -3.510
65 F4 167 -3.021
65 F4 168 -2.533
65 F4 169 -2.533
65 F4 170 -3.021
65 F4 171 -3.021
65 F4 172 -3.510
65 F4 173 -3.510
65 F4 174 -3.021
65 F4 175 -2.533
65 F4 176 -2.533
65 F4 177 -3.021
65 F4 178 -3.510
65 F4 179 -3.998
65 F4 180 -3.510
65 F4 181 -2.533
65 F4 182 -1.556
65 F4 183 -1.556
65 F4 184 -1.556
65 F4 185 -2.045
65 F4 186 -3.021
65 F4 187 -3.510
65 F4 188 -4.486
65 F4 189 -6.439
65 F4 190 -8.392
65 F4 191 -10.834
65 F4 192 -11.810
65 F4 193 -11.322
65 F4 194 -9.857
65 F4 195 -7.416
65 F4 196 -4.974
65 F4 197 -4.486
65 F4 198 -4.974
65 F4 199 -5.951
65 F4 200 -6.927
65 F4 201 -7.904
65 F4 202 -7.904
65 F4 203 -7.904
65 F4 204 -8.392
65 F4 205 -9.369
65 F4 206 -10.345
65 F4 207 -11.322
65 F4 208 -11.322
65 F4 209 -10.834
65 F4 210 -9.857
65 F4 211 -8.881
65 F4 212 -8.392
65 F4 213 -7.416
65 F4 214 -7.416
65 F4 215 -7.416
65 F4 216 -7.416
65 F4 217 -7.904
65 F4 218 -7.416
65 F4 219 -5.951
65 F4 220 -4.486
65 F4 221 -2.533
65 F4 222 -2.045
65 F4 223 -2.045
65 F4 224 -3.998
65 F4 225 -5.951
65 F4 226 -7.904
65 F4 227 -8.881
65 F4 228 -8.392
65 F4 229 -7.904
65 F4 230 -6.927
65 F4 231 -6.439
65 F4 232 -5.463
65 F4 233 -5.463
65 F4 234 -5.463
65 F4 235 -6.439
65 F4 236 -7.416
65 F4 237 -8.392
65 F4 238 -8.881
65 F4 239 -8.881
65 F4 240 -7.416
65 F4 241 -5.951
65 F4 242 -4.974
65 F4 243 -4.486
65 F4 244 -4.486
65 F4 245 -3.998
65 F4 246 -3.998
65 F4 247 -3.998
65 F4 248 -3.998
65 F4 249 -3.998
65 F4 250 -3.998
65 F4 251 -4.486
65 F4 252 -4.486
65 F4 253 -4.486
65 F4 254 -4.486
65 F4 255 -3.998
# F3 chan 8
65 F3 0 2.268
65 F3 1 1.780
65 F3 2 0.804
65 F3 3 -0.173
65 F3 4 -0.661
65 F3 5 -0.173
65 F3 6 1.292
65 F3 7 2.757
65 F3 8 3.245
65 F3 9 2.757
65 F3 10 1.292
65 F3 11 0.315
65 F3 12 -0.173
65 F3 13 0.315
65 F3 14 0.804
65 F3 15 1.780
65 F3 16 1.780
65 F3 17 2.268
65 F3 18 2.757
65 F3 19 2.757
65 F3 20 2.757
65 F3 21 2.757
65 F3 22 2.757
65 F3 23 2.757
65 F3 24 3.245
65 F3 25 3.733
65 F3 26 3.733
65 F3 27 3.245
65 F3 28 1.292
65 F3 29 -0.661
65 F3 30 -2.126
65 F3 31 -3.103
65 F3 32 -3.591
65 F3 33 -2.614
65 F3 34 -1.638
65 F3 35 -0.661
65 F3 36 0.315
65 F3 37 0.315
65 F3 38 -0.173
65 F3 39 -1.149
65 F3 40 -2.614
65 F3 41 -4.079
65 F3 42 -4.567
65 F3 43 -4.567
65 F3 44 -4.079
65 F3 45 -3.591
65 F3 46 -2.614
65 F3 47 -2.126
65 F3 48 -1.638
65 F3 49 -1.638
65 F3 50 -1.638
65 F3 51 -1.149
65 F3 52 -0.661
65 F3 53 -0.661
65 F3 54 0.315
65 F3 55 0.804
65 F3 56 0.804
65 F3 57 0.804
65 F3 58 0.315
65 F3 59 0.315
65 F3 60 0.315
65 F3 61 0.804
65 F3 62 0.804
65 F3 63 0.804
65 F3 64 0.804
65 F3 65 1.292
65 F3 66 1.780
65 F3 67 1.780
65 F3 68 1.780
65 F3 69 0.804
65 F3 70 0.315
65 F3 71 0.315
65 F3 72 0.804
65 F3 73 1.780
65 F3 74 2.268
65 F3 75 2.757
65 F3 76 2.268
65 F3 77 1.780
65 F3 78 1.292
65 F3 79 1.780
65 F3 80 1.780
65 F3 81 1.780
65 F3 82 1.780
65 F3 83 2.268
65 F3 84 3.245
65 F3 85 4.222
65 F3 86 4.710
65 F3 87 4.710
65 F3 88 4.222
65 F3 89 3.245
65 F3 90 2.757
65 F3 91 3.245
65 F3 92 4.222
65 F3 93 5.686
65 F3 94 6.175
65 F3 95 6.175
65 F3 96 5.686
65 F3 97 5.198
65 F3 98 5.198
65 F3 99 5.686
65 F3 100 7.151
65 F3 101 9.104
65 F3 102 10.081
65 F3 103 11.058
65 F3 104 11.546
65 F3 105 11.546
65 F3 106 11.546
65 F3 107 11.058
65 F3 108 10.081
65 F3 109 8.128
65 F3 110 5.198
65 F3 111 2.757
65 F3 112 0.804
65 F3 113 0.315
65 F3 114 0.804
65 F3 115 1.780
65 F3 116 2.757
65 F3 117 2.757
65 F3 118 2.757
65 F3 119 2.757
65 F3 120 2.268
65 F3 121 1.780
65 F3 122 1.780
65 F3 123 1.780
65 F3 124 1.292
65 F3 125 0.804
65 F3 126 0.315
65 F3 127 -0.173
65 F3 128 -0.661
65 F3 129 -0.661
65 F3 130 -0.173
65 F3 131 0.315
65 F3 132 0.804
65 F3 133 0.315
65 F3 134 -0.661
65 F3 135 -1.638
65 F3 136 -2.126
65 F3 137 -1.638
65 F3 138 -0.661
65 F3 139 0.804
65 F3 140 0.804
65 F3 141 0.804
65 F3 142 0.315
65 F3 143 -0.173
65 F3 144 -0.661
65 F3 145 -1.149
65 F3 146 -1.149
65 F3 147 -1.149
65 F3 148 -0.173
65 F3 149 0.315
65 F3 150 0.804
65 F3 151 0.315
65 F3 152 -0.661
65 F3 153 -2.126
65 F3 154 -2.614
65 F3 155 -3.103
65 F3 156 -2.614
65 F3 157 -2.126
65 F3 158 -2.614
65 F3 159 -3.103
65 F3 160 -3.103
65 F3 161 -3.103
65 F3 162 -3.103
65 F3 163 -2.614
65 F3 164 -2.614
65 F3 165 -3.103
65 F3 166 -4.079
65 F3 167 -5.056
65 F3 168 -5.544
65 F3 169 -6.521
65 F3 170 -6.521
65 F3 171 -6.521
65 F3 172 -6.032
65 F3 173 -5.056
65 F3 174 -3.591
65 F3 175 -3.103
65 F3 176 -3.103
65 F3 177 -3.591
65 F3 178 -3.591
65 F3 179 -3.591
65 F3 180 -3.591
65 F3 181 -2.614
65 F3 182 -2.126
65 F3 183 -2.126
65 F3 184 -2.614
65 F3 185 -2.614
65 F3 186 -3.103
65 F3 187 -3.103
65 F3 188 -2.614
65 F3 189 -1.638
65 F3 190 -1.638
65 F3 191 -2.126
65 F3 192 -3.103
65 F3 193 -4.567
65 F3 194 -5.544
65 F3 195 -6.032
65 F3 196 -5.544
65 F3 197 -5.056
65 F3 198 -4.079
65 F3 199 -4.079
65 F3 200 -4.567
65 F3 201 -5.544
65 F3 202 -5.544
65 F3 203 -6.521
65 F3 204 -7.009
65 F3 205 -7.985
65 F3 206 -9.450
65 F3 207 -10.427
65 F3 208 -10.915
65 F3 209 -10.427
65 F3 210 -9.450
65 F3 211 -8.474
65 F3 212 -7.009
65 F3 213 -5.544
65 F3 214 -5.056
65 F3 215 -4.567
65 F3 216 -4.567
65 F3 217 -4.567
65 F3 218 -4.079
65 F3 219 -3.591
65 F3 220 -2.614
65 F3 221 -2.614
65 F3 222 -3.591
65 F3 223 -5.056
65 F3 224 -6.521
65 F3 225 -7.497
65 F3 226 -7.985
65 F3 227 -7.497
65 F3 228 -7.009
65 F3 229 -6.521
65 F3 230 -6.521
65 F3 231 -7.009
65 F3 232 -7.497
65 F3 233 -7.985
65 F3 234 -7.497
65 F3 235 -7.009
65 F3 236 -6.032
65 F3 237 -5.056
65 F3 238 -4.079
65 F3 239 -4.079
65 F3 240 -4.567
65 F3 241 -5.544
65 F3 242 -5.544
65 F3 243 -4.567
65 F3 244 -3.103
65 F3 245 -1.638
65 F3 246 -0.661
65 F3 247 -1.149
65 F3 248 -1.638
65 F3 249 -1.638
65 F3 250 -1.638
65 F3 251 -0.661
65 F3 252 -0.661
65 F3 253 -0.661
65 F3 254 -1.638
65 F3 255 -2.614
# FC6 chan 9
65 FC6 0 0.793
65 FC6 1 1.282
65 FC6 2 1.770
65 FC6 3 2.258
65 FC6 4 1.282
65 FC6 5 0.305
65 FC6 6 -0.183
65 FC6 7 0.305
65 FC6 8 0.793
65 FC6 9 0.793
65 FC6 10 -0.183
65 FC6 11 -1.648
65 FC6 12 -3.113
65 FC6 13 -3.601
65 FC6 14 -2.625
65 FC6 15 -2.136
65 FC6 16 -2.136
65 FC6 17 -3.113
65 FC6 18 -3.601
65 FC6 19 -3.601
65 FC6 20 -2.136
65 FC6 21 -0.671
65 FC6 22 0.793
65 FC6 23 1.282
65 FC6 24 0.793
65 FC6 25 0.305
65 FC6 26 -1.160
65 FC6 27 -2.136
65 FC6 28 -3.113
65 FC6 29 -3.601
65 FC6 30 -3.601
65 FC6 31 -2.625
65 FC6 32 -2.136
65 FC6 33 -1.648
65 FC6 34 -1.160
65 FC6 35 -1.160
65 FC6 36 -1.648
65 FC6 37 -1.648
65 FC6 38 -2.136
65 FC6 39 -2.136
65 FC6 40 -2.136
65 FC6 41 -1.648
65 FC6 42 -1.160
65 FC6 43 -1.160
65 FC6 44 -1.160
65 FC6 45 -0.183
65 FC6 46 0.793
65 FC6 47 1.282
65 FC6 48 0.793
65 FC6 49 0.305
65 FC6 50 -0.671
65 FC6 51 -0.671
65 FC6 52 -0.183
65 FC6 53 1.282
65 FC6 54 1.770
65 FC6 55 1.282
65 FC6 56 -0.183
65 FC6 57 -2.136
65 FC6 58 -2.625
65 FC6 59 -1.648
65 FC6 60 0.305
65 FC6 61 1.770
65 FC6 62 1.770
65 FC6 63 0.793
65 FC6 64 -0.671
65 FC6 65 -1.160
65 FC6 66 -0.671
65 FC6 67 0.793
65 FC6 68 1.282
65 FC6 69 0.793
65 FC6 70 -0.183
65 FC6 71 -1.160
65 FC6 72 -1.160
65 FC6 73 -0.671
65 FC6 74 -0.671
65 FC6 75 -0.671
65 FC6 76 -1.160
65 FC6 77 -1.160
65 FC6 78 -0.671
65 FC6 79 1.770
65 FC6 80 3.723
65 FC6 81 5.188
65 FC6 82 5.676
65 FC6 83 5.676
65 FC6 84 6.165
65 FC6 85 6.653
65 FC6 86 8.118
65 FC6 87 9.583
65 FC6 88 9.583
65 FC6 89 9.583
65 FC6 90 8.606
65 FC6 91 8.118
65 FC6 92 7.141
65 FC6 93 6.165
65 FC6 94 6.165
65 FC6 95 6.653
65 FC6 96 8.118
65 FC6 97 9.094
65 FC6 98 9.583
65 FC6 99 8.606
65 FC6 100 7.141
65 FC6 101 6.165
65 FC6 102 6.165
65 FC6 103 7.629
65 FC6 104 9.094
65 FC6 105 10.071
65 FC6 106 9.583
65 FC6 107 8.606
65 FC6 108 7.629
65 FC6 109 6.165
65 FC6 110 5.188
65 FC6 111 3.723
65 FC6 112 2.258
65 FC6 113 0.793
65 FC6 114 0.305
65 FC6 115 0.305
65 FC6 116 0.305
65 FC6 117 -0.183
65 FC6 118 -1.160
65 FC6 119 -1.648
65 FC6 120 -1.648
65 FC6 121 -1.160
65 FC6 122 -0.183
65 FC6 123 0.305
65 FC6 124 0.305
65 FC6 125 -0.671
65 FC6 126 -1.648
65 FC6 127 -1.648
65 FC6 128 -1.160
65 FC6 129 0.793
65 FC6 130 1.770
65 FC6 131 1.770
65 FC6 132 1.282
65 FC6 133 -0.183
65 FC6 134 -1.160
65 FC6 135 -1.160
65 FC6 136 -1.160
65 FC6 137 -0.671
65 FC6 138 -0.671
65 FC6 139 -1.160
65 FC6 140 -1.648
65 FC6 141 -2.136
65 FC6 142 -3.601
65 FC6 143 -4.578
65 FC6 144 -4.578
65 FC6 145 -3.113
65 FC6 146 -1.160
65 FC6 147 0.793
65 FC6 148 1.282
65 FC6 149 -0.183
65 FC6 150 -2.625
65 FC6 151 -4.578
65 FC6 152 -5.066
65 FC6 153 -4.089
65 FC6 154 -2.136
65 FC6 155 -0.671
65 FC6 156 -0.183
65 FC6 157 -1.160
65 FC6 158 -2.136
65 FC6 159 -2.625
65 FC6 160 -2.136
65 FC6 161 -1.648
65 FC6 162 -1.648
65 FC6 163 -2.136
65 FC6 164 -3.601
65 FC6 165 -4.089
65 FC6 166 -3.601
65 FC6 167 -2.136
65 FC6 168 -1.160
65 FC6 169 -0.671
65 FC6 170 -0.671
65 FC6 171 -1.160
65 FC6 172 -1.160
65 FC6 173 -0.671
65 FC6 174 -0.183
65 FC6 175 -0.183
65 FC6 176 -0.671
65 FC6 177 -1.648
65 FC6 178 -2.625
65 FC6 179 -3.113
65 FC6 180 -3.601
65 FC6 181 -2.625
65 FC6 182 -2.625
65 FC6 183 -2.136
65 FC6 184 -2.136
65 FC6 185 -1.648
65 FC6 186 -1.648
65 FC6 187 -2.625
65 FC6 188 -5.554
65 FC6 189 -9.460
65 FC6 190 -13.367
65 FC6 191 -16.296
65 FC6 192 -16.296
65 FC6 193 -13.855
65 FC6 194 -10.437
65 FC6 195 -6.531
65 FC6 196 -4.089
65 FC6 197 -3.113
65 FC6 198 -3.601
65 FC6 199 -4.089
65 FC6 200 -4.578
65 FC6 201 -5.554
65 FC6 202 -6.042
65 FC6 203 -5.554
65 FC6 204 -5.554
65 FC6 205 -5.066
65 FC6 206 -5.066
65 FC6 207 -5.554
65 FC6 208 -5.554
65 FC6 209 -5.066
65 FC6 210 -4.578
65 FC6 211 -4.089
65 FC6 212 -4.578
65 FC6 213 -5.554
65 FC6 214 -7.019
65 FC6 215 -7.996
65 FC6 216 -7.507
65 FC6 217 -6.531
65 FC6 218 -5.066
65 FC6 219 -3.601
65 FC6 220 -2.136
65 FC6 221 -1.160
65 FC6 222 -0.671
65 FC6 223 -1.648
65 FC6 224 -3.113
65 FC6 225 -5.554
65 FC6 226 -7.996
65 FC6 227 -8.972
65 FC6 228 -7.996
65 FC6 229 -6.042
65 FC6 230 -3.113
65 FC6 231 -1.648
65 FC6 232 -1.160
65 FC6 233 -1.648
65 FC6 234 -2.136
65 FC6 235 -3.601
65 FC6 236 -5.066
65 FC6 237 -7.019
65 FC6 238 -7.996
65 FC6 239 -7.019
65 FC6 240 -5.066
65 FC6 241 -2.136
65 FC6 242 -0.183
65 FC6 243 0.305
65 FC6 244 -0.183
65 FC6 245 -1.160
65 FC6 246 -1.648
65 FC6 247 -2.136
65 FC6 248 -1.648
65 FC6 249 -2.136
65 FC6 250 -2.136
65 FC6 251 -2.625
65 FC6 252 -3.113
65 FC6 253 -3.601
65 FC6 254 -3.601
65 FC6 255 -3.601
# FC5 chan 10
65 FC5 0 1.729
65 FC5 1 1.241
65 FC5 2 0.753
65 FC5 3 -0.224
65 FC5 4 -0.712
65 FC5 5 -0.224
65 FC5 6 -0.224
65 FC5 7 -0.224
65 FC5 8 -0.712
65 FC5 9 -1.200
65 FC5 10 -0.712
65 FC5 11 0.753
65 FC5 12 1.729
65 FC5 13 2.218
65 FC5 14 1.729
65 FC5 15 0.753
65 FC5 16 0.264
65 FC5 17 0.264
65 FC5 18 0.264
65 FC5 19 0.753
65 FC5 20 1.241
65 FC5 21 1.729
65 FC5 22 2.706
65 FC5 23 3.194
65 FC5 24 3.682
65 FC5 25 3.682
65 FC5 26 2.218
65 FC5 27 -0.224
65 FC5 28 -2.177
65 FC5 29 -3.642
65 FC5 30 -5.107
65 FC5 31 -5.595
65 FC5 32 -5.595
65 FC5 33 -4.618
65 FC5 34 -3.642
65 FC5 35 -2.665
65 FC5 36 -1.200
65 FC5 37 -1.200
65 FC5 38 -1.689
65 FC5 39 -3.153
65 FC5 40 -4.618
65 FC5 41 -6.083
65 FC5 42 -7.060
65 FC5 43 -7.060
65 FC5 44 -6.083
65 FC5 45 -5.107
65 FC5 46 -4.130
65 FC5 47 -3.642
65 FC5 48 -4.130
65 FC5 49 -4.130
65 FC5 50 -4.618
65 FC5 51 -4.618
65 FC5 52 -3.642
65 FC5 53 -2.177
65 FC5 54 -1.200
65 FC5 55 -0.712
65 FC5 56 -0.712
65 FC5 57 -1.689
65 FC5 58 -2.665
65 FC5 59 -3.153
65 FC5 60 -3.153
65 FC5 61 -3.153
65 FC5 62 -2.665
65 FC5 63 -2.177
65 FC5 64 -2.177
65 FC5 65 -1.689
65 FC5 66 -1.200
65 FC5 67 -1.200
65 FC5 68 -1.200
65 FC5 69 -1.689
65 FC5 70 -1.689
65 FC5 71 -1.200
65 FC5 72 -0.224
65 FC5 73 1.241
65 FC5 74 2.218
65 FC5 75 2.218
65 FC5 76 1.729
65 FC5 77 1.729
65 FC5 78 1.729
65 FC5 79 1.729
65 FC5 80 2.706
65 FC5 81 2.706
65 FC5 82 3.194
65 FC5 83 3.682
65 FC5 84 4.171
65 FC5 85 5.147
65 FC5 86 6.124
65 FC5 87 6.124
65 FC5 88 6.124
65 FC5 89 6.124
65 FC5 90 6.124
65 FC5 91 6.612
65 FC5 92 7.100
65 FC5 93 7.589
65 FC5 94 7.589
65 FC5 95 7.589
65 FC5 96 6.612
65 FC5 97 6.124
65 FC5 98 5.636
65 FC5 99 6.124
65 FC5 100 6.612
65 FC5 101 8.077
65 FC5 102 9.542
65 FC5 103 10.518
65 FC5 104 11.007
65 FC5 105 10.518
65 FC5 106 9.542
65 FC5 107 7.589
65 FC5 108 5.636
65 FC5 109 3.682
65 FC5 110 1.729
65 FC5 111 -0.224
65 FC5 112 -1.200
65 FC5 113 -2.665
65 FC5 114 -2.665
65 FC5 115 -2.177
65 FC5 116 -1.200
65 FC5 117 -0.224
65 FC5 118 0.753
65 FC5 119 0.753
65 FC5 120 0.753
65 FC5 121 0.264
65 FC5 122 0.753
65 FC5 123 0.753
65 FC5 124 0.264
65 FC5 125 -0.712
65 FC5 126 -2.665
65 FC5 127 -3.642
65 FC5 128 -4.130
65 FC5 129 -3.642
65 FC5 130 -2.665
65 FC5 131 -1.689
65 FC5 132 -2.177
65 FC5 133 -2.665
65 FC5 134 -3.153
65 FC5 135 -3.642
65 FC5 136 -3.153
65 FC5 137 -2.177
65 FC5 138 -1.200
65 FC5 139 -0.224
65 FC5 140 0.753
65 FC5 141 1.241
65 FC5 142 1.241
65 FC5 143 1.241
65 FC5 144 0.753
65 FC5 145 -0.224
65 FC5 146 -1.200
65 FC5 147 -1.200
65 FC5 148 -0.712
65 FC5 149 -0.224
65 FC5 150 -0.712
65 FC5 151 -1.200
65 FC5 152 -2.177
65 FC5 153 -3.153
65 FC5 154 -3.642
65 FC5 155 -3.153
65 FC5 156 -2.665
65 FC5 157 -2.177
65 FC5 158 -2.665
65 FC5 159 -3.153
65 FC5 160 -3.153
65 FC5 161 -3.153
65 FC5 162 -2.665
65 FC5 163 -2.177
65 FC5 164 -2.665
65 FC5 165 -3.642
65 FC5 166 -5.595
65 FC5 167 -7.060
65 FC5 168 -7.548
65 FC5 169 -7.548
65 FC5 170 -6.083
65 FC5 171 -4.618
65 FC5 172 -3.153
65 FC5 173 -1.689
65 FC5 174 -1.200
65 FC5 175 -1.689
65 FC5 176 -2.665
65 FC5 177 -3.153
65 FC5 178 -3.642
65 FC5 179 -3.642
65 FC5 180 -3.153
65 FC5 181 -2.665
65 FC5 182 -1.689
65 FC5 183 -1.200
65 FC5 184 -1.200
65 FC5 185 -1.689
65 FC5 186 -2.177
65 FC5 187 -2.177
65 FC5 188 -1.200
65 FC5 189 1.241
65 FC5 190 3.194
65 FC5 191 4.171
65 FC5 192 4.171
65 FC5 193 2.218
65 FC5 194 -0.712
65 FC5 195 -3.153
65 FC5 196 -3.642
65 FC5 197 -2.665
65 FC5 198 -1.200
65 FC5 199 0.264
65 FC5 200 0.264
65 FC5 201 -1.200
65 FC5 202 -2.665
65 FC5 203 -3.642
65 FC5 204 -4.618
65 FC5 205 -4.130
65 FC5 206 -4.130
65 FC5 207 -4.130
65 FC5 208 -4.130
65 FC5 209 -4.618
65 FC5 210 -4.618
65 FC5 211 -4.130
65 FC5 212 -3.642
65 FC5 213 -3.153
65 FC5 214 -3.153
65 FC5 215 -3.153
65 FC5 216 -3.153
65 FC5 217 -3.153
65 FC5 218 -2.177
65 FC5 219 -1.200
65 FC5 220 -0.712
65 FC5 221 -0.712
65 FC5 222 -1.689
65 FC5 223 -3.642
65 FC5 224 -5.595
65 FC5 225 -7.060
65 FC5 226 -7.060
65 FC5 227 -6.571
65 FC5 228 -5.107
65 FC5 229 -4.618
65 FC5 230 -4.130
65 FC5 231 -4.618
65 FC5 232 -5.595
65 FC5 233 -6.083
65 FC5 234 -6.083
65 FC5 235 -5.107
65 FC5 236 -3.642
65 FC5 237 -2.177
65 FC5 238 -1.200
65 FC5 239 -1.200
65 FC5 240 -1.689
65 FC5 241 -2.665
65 FC5 242 -2.665
65 FC5 243 -1.689
65 FC5 244 -0.224
65 FC5 245 1.241
65 FC5 246 2.218
65 FC5 247 1.729
65 FC5 248 0.753
65 FC5 249 0.753
65 FC5 250 0.753
65 FC5 251 1.241
65 FC5 252 0.753
65 FC5 253 -0.712
65 FC5 254 -2.177
65 FC5 255 -3.642
# FC2 chan 11
65 FC2 0 1.058
65 FC2 1 0.570
65 FC2 2 0.570
65 FC2 3 0.081
65 FC2 4 -0.407
65 FC2 5 -0.407
65 FC2 6 0.081
65 FC2 7 1.058
65 FC2 8 1.546
65 FC2 9 1.546
65 FC2 10 1.058
65 FC2 11 0.081
65 FC2 12 -0.895
65 FC2 13 -0.895
65 FC2 14 -0.895
65 FC2 15 -0.895
65 FC2 16 -0.407
65 FC2 17 -0.407
65 FC2 18 -0.407
65 FC2 19 0.081
65 FC2 20 0.081
65 FC2 21 0.570
65 FC2 22 1.058
65 FC2 23 1.058
65 FC2 24 1.058
65 FC2 25 1.058
65 FC2 26 0.570
65 FC2 27 0.081
65 FC2 28 -0.407
65 FC2 29 -0.407
65 FC2 30 -0.407
65 FC2 31 -0.895
65 FC2 32 -0.895
65 FC2 33 -0.895
65 FC2 34 -0.407
65 FC2 35 0.081
65 FC2 36 0.570
65 FC2 37 0.570
65 FC2 38 0.570
65 FC2 39 0.081
65 FC2 40 -0.407
65 FC2 41 -0.895
65 FC2 42 -0.407
65 FC2 43 -0.407
65 FC2 44 -0.407
65 FC2 45 0.570
65 FC2 46 1.546
65 FC2 47 2.523
65 FC2 48 2.523
65 FC2 49 2.523
65 FC2 50 2.035
65 FC2 51 1.058
65 FC2 52 1.058
65 FC2 53 1.546
65 FC2 54 1.546
65 FC2 55 1.546
65 FC2 56 1.546
65 FC2 57 1.058
65 FC2 58 1.546
65 FC2 59 2.035
65 FC2 60 2.035
65 FC2 61 2.523
65 FC2 62 2.035
65 FC2 63 2.035
65 FC2 64 1.546
65 FC2 65 1.546
65 FC2 66 1.546
65 FC2 67 1.546
65 FC2 68 1.058
65 FC2 69 0.570
65 FC2 70 -0.407
65 FC2 71 -0.407
65 FC2 72 -0.407
65 FC2 73 -0.895
65 FC2 74 -0.407
65 FC2 75 -0.407
65 FC2 76 0.081
65 FC2 77 -0.407
65 FC2 78 0.081
65 FC2 79 0.081
65 FC2 80 0.570
65 FC2 81 0.570
65 FC2 82 0.570
65 FC2 83 0.570
65 FC2 84 1.058
65 FC2 85 1.546
65 FC2 86 2.035
65 FC2 87 2.523
65 FC2 88 2.523
65 FC2 89 2.035
65 FC2 90 1.546
65 FC2 91 0.570
65 FC2 92 0.570
65 FC2 93 1.058
65 FC2 94 1.546
65 FC2 95 2.035
65 FC2 96 2.523
65 FC2 97 3.011
65 FC2 98 3.011
65 FC2 99 3.011
65 FC2 100 3.011
65 FC2 101 2.523
65 FC2 102 2.523
65 FC2 103 2.523
65 FC2 104 3.011
65 FC2 105 3.988
65 FC2 106 4.476
65 FC2 107 4.476
65 FC2 108 3.988
65 FC2 109 3.499
65 FC2 110 3.011
65 FC2 111 1.546
65 FC2 112 0.570
65 FC2 113 -0.407
65 FC2 114 -0.407
65 FC2 115 -0.407
65 FC2 116 0.081
65 FC2 117 0.081
65 FC2 118 0.081
65 FC2 119 -0.407
65 FC2 120 -0.895
65 FC2 121 -0.895
65 FC2 122 -0.895
65 FC2 123 -0.895
65 FC2 124 -0.407
65 FC2 125 -0.895
65 FC2 126 -0.895
65 FC2 127 -0.895
65 FC2 128 -0.895
65 FC2 129 -0.407
65 FC2 130 0.570
65 FC2 131 0.570
65 FC2 132 0.570
65 FC2 133 -0.407
65 FC2 134 -0.895
65 FC2 135 -0.895
65 FC2 136 -0.407
65 FC2 137 0.081
65 FC2 138 0.081
65 FC2 139 -0.407
65 FC2 140 -0.895
65 FC2 141 -1.383
65 FC2 142 -2.360
65 FC2 143 -2.360
65 FC2 144 -2.360
65 FC2 145 -1.872
65 FC2 146 -1.872
65 FC2 147 -0.895
65 FC2 148 -0.895
65 FC2 149 -0.895
65 FC2 150 -0.895
65 FC2 151 -1.383
65 FC2 152 -1.383
65 FC2 153 -1.383
65 FC2 154 -0.895
65 FC2 155 -0.407
65 FC2 156 0.081
65 FC2 157 -0.407
65 FC2 158 -0.407
65 FC2 159 -0.407
65 FC2 160 -0.895
65 FC2 161 -0.895
65 FC2 162 -1.383
65 FC2 163 -1.872
65 FC2 164 -1.872
65 FC2 165 -1.872
65 FC2 166 -1.872
65 FC2 167 -0.895
65 FC2 168 -0.895
65 FC2 169 -0.895
65 FC2 170 -0.895
65 FC2 171 -1.383
65 FC2 172 -1.872
65 FC2 173 -2.360
65 FC2 174 -1.872
65 FC2 175 -1.872
65 FC2 176 -1.872
65 FC2 177 -1.872
65 FC2 178 -2.360
65 FC2 179 -2.848
65 FC2 180 -2.848
65 FC2 181 -2.360
65 FC2 182 -2.360
65 FC2 183 -1.872
65 FC2 184 -1.872
65 FC2 185 -1.872
65 FC2 186 -1.872
65 FC2 187 -2.360
65 FC2 188 -3.337
65 FC2 189 -4.801
65 FC2 190 -5.778
65 FC2 191 -6.755
65 FC2 192 -7.243
65 FC2 193 -6.755
65 FC2 194 -5.778
65 FC2 195 -4.313
65 FC2 196 -3.337
65 FC2 197 -2.848
65 FC2 198 -3.337
65 FC2 199 -3.825
65 FC2 200 -4.801
65 FC2 201 -5.290
65 FC2 202 -5.290
65 FC2 203 -5.290
65 FC2 204 -5.778
65 FC2 205 -6.266
65 FC2 206 -7.243
65 FC2 207 -7.731
65 FC2 208 -7.731
65 FC2 209 -7.243
65 FC2 210 -6.266
65 FC2 211 -5.290
65 FC2 212 -4.801
65 FC2 213 -4.313
65 FC2 214 -4.801
65 FC2 215 -4.801
65 FC2 216 -4.801
65 FC2 217 -4.801
65 FC2 218 -4.313
65 FC2 219 -3.825
65 FC2 220 -2.848
65 FC2 221 -1.383
65 FC2 222 -0.895
65 FC2 223 -0.895
65 FC2 224 -0.895
65 FC2 225 -1.872
65 FC2 226 -2.848
65 FC2 227 -3.337
65 FC2 228 -3.825
65 FC2 229 -3.825
65 FC2 230 -3.825
65 FC2 231 -3.337
65 FC2 232 -2.848
65 FC2 233 -2.848
65 FC2 234 -2.848
65 FC2 235 -2.848
65 FC2 236 -3.825
65 FC2 237 -4.313
65 FC2 238 -4.313
65 FC2 239 -4.313
65 FC2 240 -3.825
65 FC2 241 -2.848
65 FC2 242 -1.872
65 FC2 243 -1.383
65 FC2 244 -1.872
65 FC2 245 -1.872
65 FC2 246 -1.872
65 FC2 247 -2.360
65 FC2 248 -1.872
65 FC2 249 -1.872
65 FC2 250 -1.383
65 FC2 251 -0.895
65 FC2 252 -0.895
65 FC2 253 -0.895
65 FC2 254 -0.895
65 FC2 255 -0.895
# FC1 chan 12
65 FC1 0 2.207
65 FC1 1 1.719
65 FC1 2 1.231
65 FC1 3 0.254
65 FC1 4 0.254
65 FC1 5 0.743
65 FC1 6 1.719
65 FC1 7 2.207
65 FC1 8 2.696
65 FC1 9 2.207
65 FC1 10 1.719
65 FC1 11 1.231
65 FC1 12 0.743
65 FC1 13 0.743
65 FC1 14 0.743
65 FC1 15 1.231
65 FC1 16 2.207
65 FC1 17 2.696
65 FC1 18 3.184
65 FC1 19 3.184
65 FC1 20 3.184
65 FC1 21 3.184
65 FC1 22 2.696
65 FC1 23 2.696
65 FC1 24 3.184
65 FC1 25 3.184
65 FC1 26 3.184
65 FC1 27 2.696
65 FC1 28 1.719
65 FC1 29 0.743
65 FC1 30 -0.234
65 FC1 31 -0.722
65 FC1 32 -0.722
65 FC1 33 -0.234
65 FC1 34 0.254
65 FC1 35 0.743
65 FC1 36 1.719
65 FC1 37 2.207
65 FC1 38 1.719
65 FC1 39 0.743
65 FC1 40 0.254
65 FC1 41 -0.722
65 FC1 42 -1.211
65 FC1 43 -1.211
65 FC1 44 -1.211
65 FC1 45 -0.722
65 FC1 46 -0.722
65 FC1 47 -0.234
65 FC1 48 -0.234
65 FC1 49 0.254
65 FC1 50 0.743
65 FC1 51 0.743
65 FC1 52 0.743
65 FC1 53 1.231
65 FC1 54 1.719
65 FC1 55 2.207
65 FC1 56 2.696
65 FC1 57 2.696
65 FC1 58 2.696
65 FC1 59 2.207
65 FC1 60 1.719
65 FC1 61 1.719
65 FC1 62 1.719
65 FC1 63 1.719
65 FC1 64 2.207
65 FC1 65 2.207
65 FC1 66 2.696
65 FC1 67 2.696
65 FC1 68 2.207
65 FC1 69 1.719
65 FC1 70 1.231
65 FC1 71 1.231
65 FC1 72 1.719
65 FC1 73 2.696
65 FC1 74 2.696
65 FC1 75 2.696
65 FC1 76 2.207
65 FC1 77 1.719
65 FC1 78 1.719
65 FC1 79 1.719
65 FC1 80 1.719
65 FC1 81 1.231
65 FC1 82 0.743
65 FC1 83 0.743
65 FC1 84 0.743
65 FC1 85 1.719
65 FC1 86 2.207
65 FC1 87 2.207
65 FC1 88 1.719
65 FC1 89 0.743
65 FC1 90 0.254
65 FC1 91 0.743
65 FC1 92 1.719
65 FC1 93 2.696
65 FC1 94 3.184
65 FC1 95 2.696
65 FC1 96 2.696
65 FC1 97 2.207
65 FC1 98 2.207
65 FC1 99 2.696
65 FC1 100 3.672
65 FC1 101 4.649
65 FC1 102 5.137
65 FC1 103 5.625
65 FC1 104 6.114
65 FC1 105 6.114
65 FC1 106 6.114
65 FC1 107 5.625
65 FC1 108 4.649
65 FC1 109 3.672
65 FC1 110 2.207
65 FC1 111 0.743
65 FC1 112 -0.234
65 FC1 113 -0.722
65 FC1 114 -0.234
65 FC1 115 0.254
65 FC1 116 0.743
65 FC1 117 0.743
65 FC1 118 0.743
65 FC1 119 0.743
65 FC1 120 0.743
65 FC1 121 0.743
65 FC1 122 0.254
65 FC1 123 0.254
65 FC1 124 -0.234
65 FC1 125 -0.234
65 FC1 126 -0.234
65 FC1 127 -0.722
65 FC1 128 -0.722
65 FC1 129 -0.722
65 FC1 130 -0.722
65 FC1 131 -0.722
65 FC1 132 -0.722
65 FC1 133 -1.211
65 FC1 134 -1.211
65 FC1 135 -1.699
65 FC1 136 -1.699
65 FC1 137 -1.211
65 FC1 138 -0.722
65 FC1 139 -0.722
65 FC1 140 -0.234
65 FC1 141 -0.234
65 FC1 142 -0.722
65 FC1 143 -0.722
65 FC1 144 -1.211
65 FC1 145 -1.211
65 FC1 146 -1.699
65 FC1 147 -1.699
65 FC1 148 -1.211
65 FC1 149 -0.722
65 FC1 150 -0.234
65 FC1 151 -0.234
65 FC1 152 -0.722
65 FC1 153 -1.211
65 FC1 154 -1.699
65 FC1 155 -1.699
65 FC1 156 -1.211
65 FC1 157 -1.211
65 FC1 158 -1.211
65 FC1 159 -1.699
65 FC1 160 -2.187
65 FC1 161 -2.187
65 FC1 162 -1.699
65 FC1 163 -1.211
65 FC1 164 -1.211
65 FC1 165 -1.699
65 FC1 166 -2.675
65 FC1 167 -3.164
65 FC1 168 -3.652
65 FC1 169 -3.652
65 FC1 170 -3.652
65 FC1 171 -3.652
65 FC1 172 -3.652
65 FC1 173 -3.652
65 FC1 174 -3.164
65 FC1 175 -2.675
65 FC1 176 -2.675
65 FC1 177 -2.675
65 FC1 178 -3.164
65 FC1 179 -3.164
65 FC1 180 -2.675
65 FC1 181 -2.675
65 FC1 182 -2.187
65 FC1 183 -2.187
65 FC1 184 -2.675
65 FC1 185 -2.675
65 FC1 186 -3.164
65 FC1 187 -3.164
65 FC1 188 -2.675
65 FC1 189 -2.187
65 FC1 190 -1.699
65 FC1 191 -1.699
65 FC1 192 -2.187
65 FC1 193 -2.675
65 FC1 194 -3.652
65 FC1 195 -4.140
65 FC1 196 -4.140
65 FC1 197 -4.140
65 FC1 198 -3.652
65 FC1 199 -3.652
65 FC1 200 -3.652
65 FC1 201 -4.140
65 FC1 202 -4.140
65 FC1 203 -4.628
65 FC1 204 -5.117
65 FC1 205 -5.605
65 FC1 206 -6.582
65 FC1 207 -7.070
65 FC1 208 -7.070
65 FC1 209 -6.582
65 FC1 210 -6.582
65 FC1 211 -5.605
65 FC1 212 -4.628
65 FC1 213 -3.164
65 FC1 214 -2.675
65 FC1 215 -2.187
65 FC1 216 -2.187
65 FC1 217 -2.675
65 FC1 218 -2.187
65 FC1 219 -1.699
65 FC1 220 -0.722
65 FC1 221 -0.234
65 FC1 222 -0.234
65 FC1 223 -0.722
65 FC1 224 -1.699
65 FC1 225 -2.187
65 FC1 226 -2.675
65 FC1 227 -2.187
65 FC1 228 -2.187
65 FC1 229 -2.187
65 FC1 230 -2.675
65 FC1 231 -3.164
65 FC1 232 -3.652
65 FC1 233 -4.140
65 FC1 234 -3.652
65 FC1 235 -3.164
65 FC1 236 -2.675
65 FC1 237 -1.699
65 FC1 238 -1.211
65 FC1 239 -1.211
65 FC1 240 -1.699
65 FC1 241 -2.187
65 FC1 242 -2.187
65 FC1 243 -1.699
65 FC1 244 -0.722
65 FC1 245 0.254
65 FC1 246 0.743
65 FC1 247 0.254
65 FC1 248 -0.234
65 FC1 249 -0.234
65 FC1 250 -0.234
65 FC1 251 0.254
65 FC1 252 0.254
65 FC1 253 -0.234
65 FC1 254 -0.234
65 FC1 255 -0.722
# T8 chan 13
65 T8 0 2.330
65 T8 1 2.330
65 T8 2 2.818
65 T8 3 3.794
65 T8 4 3.794
65 T8 5 3.306
65 T8 6 1.841
65 T8 7 0.865
65 T8 8 0.376
65 T8 9 -0.112
65 T8 10 -0.112
65 T8 11 0.376
65 T8 12 0.376
65 T8 13 1.353
65 T8 14 1.841
65 T8 15 1.353
65 T8 16 -1.088
65 T8 17 -2.553
65 T8 18 -4.018
65 T8 19 -3.530
65 T8 20 -2.553
65 T8 21 -0.112
65 T8 22 0.865
65 T8 23 1.841
65 T8 24 1.841
65 T8 25 1.841
65 T8 26 0.865
65 T8 27 -0.112
65 T8 28 -2.553
65 T8 29 -4.018
65 T8 30 -4.506
65 T8 31 -3.530
65 T8 32 -1.577
65 T8 33 -0.600
65 T8 34 -0.112
65 T8 35 -1.088
65 T8 36 -1.577
65 T8 37 -1.577
65 T8 38 -1.577
65 T8 39 -1.577
65 T8 40 -2.065
65 T8 41 -2.553
65 T8 42 -3.042
65 T8 43 -2.553
65 T8 44 -1.577
65 T8 45 -0.600
65 T8 46 -0.112
65 T8 47 -0.600
65 T8 48 -1.088
65 T8 49 -1.577
65 T8 50 -1.577
65 T8 51 -1.577
65 T8 52 -1.577
65 T8 53 -0.600
65 T8 54 -0.112
65 T8 55 -0.112
65 T8 56 -0.600
65 T8 57 -2.065
65 T8 58 -3.530
65 T8 59 -3.042
65 T8 60 -2.065
65 T8 61 -0.600
65 T8 62 0.865
65 T8 63 1.353
65 T8 64 -0.112
65 T8 65 -1.577
65 T8 66 -2.065
65 T8 67 -1.577
65 T8 68 -0.112
65 T8 69 0.865
65 T8 70 0.376
65 T8 71 -1.577
65 T8 72 -3.530
65 T8 73 -4.506
65 T8 74 -4.506
65 T8 75 -2.553
65 T8 76 -0.112
65 T8 77 1.353
65 T8 78 1.841
65 T8 79 2.330
65 T8 80 2.818
65 T8 81 3.794
65 T8 82 5.259
65 T8 83 7.701
65 T8 84 9.165
65 T8 85 10.142
65 T8 86 10.630
65 T8 87 11.119
65 T8 88 11.607
65 T8 89 12.095
65 T8 90 12.583
65 T8 91 12.095
65 T8 92 11.119
65 T8 93 10.142
65 T8 94 10.142
65 T8 95 10.630
65 T8 96 11.607
65 T8 97 12.095
65 T8 98 11.607
65 T8 99 10.142
65 T8 100 9.165
65 T8 101 8.677
65 T8 102 9.165
65 T8 103 10.630
65 T8 104 11.607
65 T8 105 11.607
65 T8 106 11.119
65 T8 107 10.630
65 T8 108 10.142
65 T8 109 9.654
65 T8 110 8.189
65 T8 111 6.236
65 T8 112 4.283
65 T8 113 2.818
65 T8 114 1.841
65 T8 115 1.353
65 T8 116 0.376
65 T8 117 -0.600
65 T8 118 -1.088
65 T8 119 -1.088
65 T8 120 -0.112
65 T8 121 0.376
65 T8 122 -0.112
65 T8 123 -1.577
65 T8 124 -3.042
65 T8 125 -4.506
65 T8 126 -4.506
65 T8 127 -4.018
65 T8 128 -3.042
65 T8 129 -1.088
65 T8 130 0.865
65 T8 131 2.330
65 T8 132 3.306
65 T8 133 2.818
65 T8 134 1.841
65 T8 135 -0.112
65 T8 136 -1.577
65 T8 137 -2.065
65 T8 138 -1.088
65 T8 139 -0.600
65 T8 140 -0.112
65 T8 141 -0.600
65 T8 142 -1.577
65 T8 143 -2.553
65 T8 144 -2.065
65 T8 145 -1.088
65 T8 146 0.376
65 T8 147 0.865
65 T8 148 0.376
65 T8 149 -1.088
65 T8 150 -2.065
65 T8 151 -2.553
65 T8 152 -2.065
65 T8 153 -1.577
65 T8 154 -1.577
65 T8 155 -2.065
65 T8 156 -3.042
65 T8 157 -3.530
65 T8 158 -3.042
65 T8 159 -2.065
65 T8 160 -1.088
65 T8 161 -0.600
65 T8 162 -1.088
65 T8 163 -2.065
65 T8 164 -2.553
65 T8 165 -2.553
65 T8 166 -1.577
65 T8 167 -0.600
65 T8 168 -0.112
65 T8 169 -0.600
65 T8 170 -1.088
65 T8 171 -1.088
65 T8 172 -1.088
65 T8 173 -0.112
65 T8 174 0.865
65 T8 175 1.353
65 T8 176 0.865
65 T8 177 0.376
65 T8 178 -0.112
65 T8 179 -1.088
65 T8 180 -2.065
65 T8 181 -3.042
65 T8 182 -3.530
65 T8 183 -3.530
65 T8 184 -2.065
65 T8 185 -0.600
65 T8 186 -0.112
65 T8 187 -2.065
65 T8 188 -6.460
65 T8 189 -12.319
65 T8 190 -18.178
65 T8 191 -21.596
65 T8 192 -21.596
65 T8 193 -18.667
65 T8 194 -13.295
65 T8 195 -7.436
65 T8 196 -2.553
65 T8 197 -0.112
65 T8 198 -0.112
65 T8 199 -2.553
65 T8 200 -4.506
65 T8 201 -5.483
65 T8 202 -4.995
65 T8 203 -3.530
65 T8 204 -2.553
65 T8 205 -2.065
65 T8 206 -2.553
65 T8 207 -2.553
65 T8 208 -2.553
65 T8 209 -2.065
65 T8 210 -1.577
65 T8 211 -1.577
65 T8 212 -2.553
65 T8 213 -4.506
65 T8 214 -5.971
65 T8 215 -6.948
65 T8 216 -6.948
65 T8 217 -6.460
65 T8 218 -4.995
65 T8 219 -4.506
65 T8 220 -4.018
65 T8 221 -3.530
65 T8 222 -3.042
65 T8 223 -2.553
65 T8 224 -3.042
65 T8 225 -4.018
65 T8 226 -5.971
65 T8 227 -7.436
65 T8 228 -7.436
65 T8 229 -6.460
65 T8 230 -4.506
65 T8 231 -2.553
65 T8 232 -1.088
65 T8 233 -1.088
65 T8 234 -2.553
65 T8 235 -4.018
65 T8 236 -5.971
65 T8 237 -6.948
65 T8 238 -6.948
65 T8 239 -4.995
65 T8 240 -2.553
65 T8 241 0.376
65 T8 242 1.841
65 T8 243 1.841
65 T8 244 0.376
65 T8 245 -1.088
65 T8 246 -2.065
65 T8 247 -2.553
65 T8 248 -3.042
65 T8 249 -3.530
65 T8 250 -3.530
65 T8 251 -3.530
65 T8 252 -3.530
65 T8 253 -3.530
65 T8 254 -4.506
65 T8 255 -4.995
# T7 chan 14
65 T7 0 0.163
65 T7 1 -0.814
65 T7 2 -1.790
65 T7 3 -1.790
65 T7 4 -0.814
65 T7 5 0.163
65 T7 6 -0.814
65 T7 7 -2.767
65 T7 8 -4.232
65 T7 9 -3.743
65 T7 10 -1.790
65 T7 11 0.163
65 T7 12 2.116
65 T7 13 1.139
65 T7 14 0.163
65 T7 15 -0.326
65 T7 16 0.163
65 T7 17 0.651
65 T7 18 0.651
65 T7 19 0.163
65 T7 20 -0.814
65 T7 21 -0.814
65 T7 22 1.139
65 T7 23 3.581
65 T7 24 4.557
65 T7 25 3.092
65 T7 26 0.163
65 T7 27 -3.743
65 T7 28 -7.161
65 T7 29 -8.626
65 T7 30 -8.626
65 T7 31 -8.138
65 T7 32 -7.161
65 T7 33 -6.673
65 T7 34 -5.697
65 T7 35 -3.743
65 T7 36 -1.790
65 T7 37 -0.326
65 T7 38 -1.302
65 T7 39 -4.232
65 T7 40 -8.626
65 T7 41 -11.556
65 T7 42 -11.556
65 T7 43 -8.138
65 T7 44 -4.232
65 T7 45 -2.279
65 T7 46 -3.255
65 T7 47 -5.697
65 T7 48 -9.115
65 T7 49 -10.091
65 T7 50 -9.115
65 T7 51 -7.650
65 T7 52 -5.697
65 T7 53 -4.232
65 T7 54 -2.767
65 T7 55 -1.790
65 T7 56 -1.302
65 T7 57 -2.279
65 T7 58 -3.743
65 T7 59 -5.697
65 T7 60 -6.673
65 T7 61 -7.161
65 T7 62 -7.650
65 T7 63 -7.650
65 T7 64 -7.650
65 T7 65 -7.161
65 T7 66 -5.697
65 T7 67 -4.232
65 T7 68 -2.767
65 T7 69 -2.767
65 T7 70 -4.232
65 T7 71 -6.673
65 T7 72 -7.650
65 T7 73 -7.161
65 T7 74 -4.720
65 T7 75 -1.302
65 T7 76 0.651
65 T7 77 1.139
65 T7 78 0.163
65 T7 79 -0.326
65 T7 80 0.163
65 T7 81 1.628
65 T7 82 2.604
65 T7 83 2.116
65 T7 84 0.651
65 T7 85 0.651
65 T7 86 1.139
65 T7 87 3.581
65 T7 88 5.046
65 T7 89 5.046
65 T7 90 4.557
65 T7 91 3.581
65 T7 92 5.046
65 T7 93 6.999
65 T7 94 7.975
65 T7 95 7.975
65 T7 96 6.510
65 T7 97 5.046
65 T7 98 5.046
65 T7 99 5.534
65 T7 100 6.022
65 T7 101 5.046
65 T7 102 4.069
65 T7 103 3.581
65 T7 104 5.046
65 T7 105 6.999
65 T7 106 7.975
65 T7 107 6.510
65 T7 108 3.581
65 T7 109 1.139
65 T7 110 0.163
65 T7 111 0.163
65 T7 112 -0.814
65 T7 113 -3.743
65 T7 114 -7.650
65 T7 115 -10.579
65 T7 116 -10.579
65 T7 117 -8.138
65 T7 118 -4.232
65 T7 119 -0.814
65 T7 120 0.651
65 T7 121 0.651
65 T7 122 0.163
65 T7 123 -1.790
65 T7 124 -3.743
65 T7 125 -6.185
65 T7 126 -7.650
65 T7 127 -7.650
65 T7 128 -6.185
65 T7 129 -5.208
65 T7 130 -5.697
65 T7 131 -6.673
65 T7 132 -6.673
65 T7 133 -5.697
65 T7 134 -2.279
65 T7 135 0.163
65 T7 136 0.651
65 T7 137 -1.302
65 T7 138 -3.743
65 T7 139 -4.720
65 T7 140 -3.255
65 T7 141 -1.302
65 T7 142 -0.326
65 T7 143 -0.326
65 T7 144 -0.814
65 T7 145 -0.326
65 T7 146 1.139
65 T7 147 1.628
65 T7 148 0.163
65 T7 149 -3.255
65 T7 150 -5.697
65 T7 151 -5.697
65 T7 152 -4.720
65 T7 153 -2.767
65 T7 154 -2.767
65 T7 155 -3.743
65 T7 156 -4.720
65 T7 157 -3.255
65 T7 158 -1.790
65 T7 159 -1.302
65 T7 160 -2.279
65 T7 161 -5.697
65 T7 162 -7.161
65 T7 163 -7.161
65 T7 164 -6.673
65 T7 165 -6.673
65 T7 166 -7.650
65 T7 167 -9.115
65 T7 168 -8.138
65 T7 169 -5.697
65 T7 170 -2.767
65 T7 171 -1.790
65 T7 172 -2.767
65 T7 173 -4.720
65 T7 174 -5.208
65 T7 175 -3.255
65 T7 176 -0.814
65 T7 177 0.163
65 T7 178 -1.302
65 T7 179 -3.743
65 T7 180 -5.697
65 T7 181 -4.720
65 T7 182 -1.790
65 T7 183 1.139
65 T7 184 2.116
65 T7 185 0.163
65 T7 186 -2.279
65 T7 187 -2.279
65 T7 188 -0.326
65 T7 189 4.069
65 T7 190 7.487
65 T7 191 8.464
65 T7 192 7.487
65 T7 193 5.534
65 T7 194 4.557
65 T7 195 4.557
65 T7 196 4.557
65 T7 197 3.092
65 T7 198 1.139
65 T7 199 -0.326
65 T7 200 -0.814
65 T7 201 -0.326
65 T7 202 0.163
65 T7 203 -1.302
65 T7 204 -3.255
65 T7 205 -4.720
65 T7 206 -4.232
65 T7 207 -2.767
65 T7 208 -1.790
65 T7 209 -1.790
65 T7 210 -2.767
65 T7 211 -3.255
65 T7 212 -1.790
65 T7 213 -0.326
65 T7 214 0.163
65 T7 215 -1.790
65 T7 216 -3.743
65 T7 217 -4.720
65 T7 218 -2.767
65 T7 219 0.163
65 T7 220 1.628
65 T7 221 0.651
65 T7 222 -3.255
65 T7 223 -7.650
65 T7 224 -10.579
65 T7 225 -10.579
65 T7 226 -9.115
65 T7 227 -7.161
65 T7 228 -4.720
65 T7 229 -3.255
65 T7 230 -2.767
65 T7 231 -2.767
65 T7 232 -4.232
65 T7 233 -4.720
65 T7 234 -5.697
65 T7 235 -5.208
65 T7 236 -4.232
65 T7 237 -3.255
65 T7 238 -2.279
65 T7 239 -1.790
65 T7 240 -1.790
65 T7 241 -1.790
65 T7 242 -1.790
65 T7 243 -1.790
65 T7 244 -2.279
65 T7 245 -1.790
65 T7 246 -0.814
65 T7 247 -0.326
65 T7 248 0.163
65 T7 249 0.163
65 T7 250 -0.814
65 T7 251 -1.302
65 T7 252 -1.790
65 T7 253 -2.279
65 T7 254 -3.255
65 T7 255 -4.720
# CZ chan 15
65 CZ 0 1.444
65 CZ 1 2.421
65 CZ 2 2.909
65 CZ 3 1.933
65 CZ 4 -0.020
65 CZ 5 -2.462
65 CZ 6 -4.903
65 CZ 7 -6.856
65 CZ 8 -7.345
65 CZ 9 -5.880
65 CZ 10 -1.973
65 CZ 11 2.421
65 CZ 12 6.327
65 CZ 13 6.816
65 CZ 14 3.886
65 CZ 15 -0.509
65 CZ 16 -4.903
65 CZ 17 -6.368
65 CZ 18 -5.391
65 CZ 19 -2.462
65 CZ 20 -0.020
65 CZ 21 -0.020
65 CZ 22 -1.485
65 CZ 23 -3.438
65 CZ 24 -4.415
65 CZ 25 -3.927
65 CZ 26 -3.438
65 CZ 27 -3.438
65 CZ 28 -5.391
65 CZ 29 -8.809
65 CZ 30 -12.227
65 CZ 31 -13.692
65 CZ 32 -12.227
65 CZ 33 -9.298
65 CZ 34 -6.368
65 CZ 35 -3.927
65 CZ 36 -2.462
65 CZ 37 -1.973
65 CZ 38 -2.462
65 CZ 39 -3.927
65 CZ 40 -6.368
65 CZ 41 -8.321
65 CZ 42 -9.298
65 CZ 43 -9.298
65 CZ 44 -9.298
65 CZ 45 -10.274
65 CZ 46 -11.251
65 CZ 47 -11.739
65 CZ 48 -11.739
65 CZ 49 -9.786
65 CZ 50 -8.321
65 CZ 51 -6.856
65 CZ 52 -6.856
65 CZ 53 -7.345
65 CZ 54 -7.345
65 CZ 55 -7.833
65 CZ 56 -8.809
65 CZ 57 -9.786
65 CZ 58 -10.763
65 CZ 59 -10.274
65 CZ 60 -8.809
65 CZ 61 -7.345
65 CZ 62 -6.856
65 CZ 63 -7.833
65 CZ 64 -9.298
65 CZ 65 -8.809
65 CZ 66 -6.368
65 CZ 67 -3.438
65 CZ 68 -1.973
65 CZ 69 -3.927
65 CZ 70 -7.833
65 CZ 71 -11.739
65 CZ 72 -13.204
65 CZ 73 -11.251
65 CZ 74 -6.856
65 CZ 75 -2.462
65 CZ 76 0.468
65 CZ 77 1.444
65 CZ 78 0.468
65 CZ 79 -0.020
65 CZ 80 0.468
65 CZ 81 1.933
65 CZ 82 3.886
65 CZ 83 6.327
65 CZ 84 8.280
65 CZ 85 10.234
65 CZ 86 12.187
65 CZ 87 14.140
65 CZ 88 15.605
65 CZ 89 17.069
65 CZ 90 17.069
65 CZ 91 16.093
65 CZ 92 14.628
65 CZ 93 14.140
65 CZ 94 14.628
65 CZ 95 17.069
65 CZ 96 20.487
65 CZ 97 23.417
65 CZ 98 23.905
65 CZ 99 21.952
65 CZ 100 19.999
65 CZ 101 19.023
65 CZ 102 19.511
65 CZ 103 21.952
65 CZ 104 23.417
65 CZ 105 23.905
65 CZ 106 22.441
65 CZ 107 20.487
65 CZ 108 18.046
65 CZ 109 15.605
65 CZ 110 12.675
65 CZ 111 8.769
65 CZ 112 4.374
65 CZ 113 1.444
65 CZ 114 1.444
65 CZ 115 3.398
65 CZ 116 6.816
65 CZ 117 8.280
65 CZ 118 7.304
65 CZ 119 3.886
65 CZ 120 1.444
65 CZ 121 0.956
65 CZ 122 3.398
65 CZ 123 6.327
65 CZ 124 7.304
65 CZ 125 4.862
65 CZ 126 1.933
65 CZ 127 -0.509
65 CZ 128 -0.509
65 CZ 129 1.444
65 CZ 130 3.398
65 CZ 131 3.886
65 CZ 132 2.421
65 CZ 133 0.468
65 CZ 134 -0.997
65 CZ 135 -1.485
65 CZ 136 -1.485
65 CZ 137 -1.973
65 CZ 138 -3.438
65 CZ 139 -4.415
65 CZ 140 -4.415
65 CZ 141 -4.415
65 CZ 142 -3.438
65 CZ 143 -2.950
65 CZ 144 -3.438
65 CZ 145 -3.927
65 CZ 146 -3.438
65 CZ 147 -2.462
65 CZ 148 -1.485
65 CZ 149 -0.997
65 CZ 150 -1.973
65 CZ 151 -4.415
65 CZ 152 -6.368
65 CZ 153 -8.321
65 CZ 154 -8.809
65 CZ 155 -8.809
65 CZ 156 -9.298
65 CZ 157 -9.298
65 CZ 158 -10.763
65 CZ 159 -11.251
65 CZ 160 -10.763
65 CZ 161 -9.786
65 CZ 162 -9.298
65 CZ 163 -8.809
65 CZ 164 -8.809
65 CZ 165 -8.321
65 CZ 166 -7.833
65 CZ 167 -7.345
65 CZ 168 -7.345
65 CZ 169 -7.833
65 CZ 170 -7.833
65 CZ 171 -6.856
65 CZ 172 -3.438
65 CZ 173 0.468
65 CZ 174 4.374
65 CZ 175 5.839
65 CZ 176 5.351
65 CZ 177 2.909
65 CZ 178 0.956
65 CZ 179 0.468
65 CZ 180 1.444
65 CZ 181 3.886
65 CZ 182 4.862
65 CZ 183 5.351
65 CZ 184 4.374
65 CZ 185 3.398
65 CZ 186 1.444
65 CZ 187 -0.020
65 CZ 188 -1.973
65 CZ 189 -4.903
65 CZ 190 -8.809
65 CZ 191 -13.204
65 CZ 192 -16.622
65 CZ 193 -17.598
65 CZ 194 -16.622
65 CZ 195 -13.204
65 CZ 196 -10.274
65 CZ 197 -8.809
65 CZ 198 -8.809
65 CZ 199 -9.298
65 CZ 200 -9.298
65 CZ 201 -7.833
65 CZ 202 -5.391
65 CZ 203 -3.438
65 CZ 204 -2.462
65 CZ 205 -3.927
65 CZ 206 -6.368
65 CZ 207 -7.833
65 CZ 208 -7.833
65 CZ 209 -6.368
65 CZ 210 -4.415
65 CZ 211 -2.950
65 CZ 212 -3.927
65 CZ 213 -5.880
65 CZ 214 -7.345
65 CZ 215 -7.345
65 CZ 216 -5.880
65 CZ 217 -3.438
65 CZ 218 -3.438
65 CZ 219 -4.903
65 CZ 220 -7.345
65 CZ 221 -9.298
65 CZ 222 -9.786
65 CZ 223 -9.298
65 CZ 224 -9.298
65 CZ 225 -10.763
65 CZ 226 -13.204
65 CZ 227 -16.134
65 CZ 228 -17.598
65 CZ 229 -17.598
65 CZ 230 -16.134
65 CZ 231 -13.692
65 CZ 232 -10.763
65 CZ 233 -8.321
65 CZ 234 -6.368
65 CZ 235 -5.880
65 CZ 236 -5.880
65 CZ 237 -6.856
65 CZ 238 -6.856
65 CZ 239 -6.856
65 CZ 240 -6.856
65 CZ 241 -6.368
65 CZ 242 -6.368
65 CZ 243 -6.368
65 CZ 244 -5.880
65 CZ 245 -4.415
65 CZ 246 -2.462
65 CZ 247 -0.997
65 CZ 248 -0.020
65 CZ 249 0.468
65 CZ 250 -0.509
65 CZ 251 -1.485
65 CZ 252 -3.438
65 CZ 253 -5.391
65 CZ 254 -8.809
65 CZ 255 -11.251
# C3 chan 16
65 C3 0 0.631
65 C3 1 1.119
65 C3 2 0.631
65 C3 3 0.631
65 C3 4 0.631
65 C3 5 0.142
65 C3 6 0.631
65 C3 7 0.142
65 C3 8 0.142
65 C3 9 0.142
65 C3 10 0.142
65 C3 11 0.631
65 C3 12 1.119
65 C3 13 1.119
65 C3 14 1.119
65 C3 15 0.631
65 C3 16 0.631
65 C3 17 0.142
65 C3 18 0.631
65 C3 19 0.631
65 C3 20 1.119
65 C3 21 1.119
65 C3 22 1.607
65 C3 23 2.096
65 C3 24 2.584
65 C3 25 2.584
65 C3 26 2.096
65 C3 27 1.119
65 C3 28 -0.346
65 C3 29 -1.811
65 C3 30 -2.787
65 C3 31 -3.276
65 C3 32 -3.276
65 C3 33 -2.787
65 C3 34 -1.811
65 C3 35 -0.834
65 C3 36 -0.346
65 C3 37 0.142
65 C3 38 0.142
65 C3 39 -0.834
65 C3 40 -2.299
65 C3 41 -3.764
65 C3 42 -3.764
65 C3 43 -3.276
65 C3 44 -2.787
65 C3 45 -2.299
65 C3 46 -2.787
65 C3 47 -3.276
65 C3 48 -3.764
65 C3 49 -3.764
65 C3 50 -3.276
65 C3 51 -2.299
65 C3 52 -1.811
65 C3 53 -1.322
65 C3 54 -0.346
65 C3 55 -0.346
65 C3 56 -0.346
65 C3 57 -1.322
65 C3 58 -2.299
65 C3 59 -3.276
65 C3 60 -3.276
65 C3 61 -3.276
65 C3 62 -2.787
65 C3 63 -2.299
65 C3 64 -2.299
65 C3 65 -2.299
65 C3 66 -1.322
65 C3 67 -1.322
65 C3 68 -1.322
65 C3 69 -1.811
65 C3 70 -1.811
65 C3 71 -1.322
65 C3 72 -0.346
65 C3 73 0.631
65 C3 74 1.607
65 C3 75 1.607
65 C3 76 0.631
65 C3 77 0.142
65 C3 78 -0.834
65 C3 79 -0.834
65 C3 80 -0.834
65 C3 81 -0.346
65 C3 82 0.631
65 C3 83 0.631
65 C3 84 1.119
65 C3 85 1.607
65 C3 86 2.096
65 C3 87 2.096
65 C3 88 2.096
65 C3 89 2.096
65 C3 90 2.096
65 C3 91 2.096
65 C3 92 2.584
65 C3 93 3.072
65 C3 94 3.072
65 C3 95 2.096
65 C3 96 1.119
65 C3 97 0.142
65 C3 98 -0.346
65 C3 99 0.142
65 C3 100 0.631
65 C3 101 1.607
65 C3 102 1.607
65 C3 103 1.607
65 C3 104 1.119
65 C3 105 1.119
65 C3 106 1.119
65 C3 107 0.631
65 C3 108 -0.346
65 C3 109 -1.811
65 C3 110 -2.787
65 C3 111 -3.764
65 C3 112 -4.252
65 C3 113 -4.252
65 C3 114 -4.252
65 C3 115 -4.252
65 C3 116 -3.764
65 C3 117 -3.276
65 C3 118 -2.787
65 C3 119 -2.787
65 C3 120 -2.299
65 C3 121 -2.299
65 C3 122 -2.787
65 C3 123 -2.299
65 C3 124 -2.299
65 C3 125 -3.276
65 C3 126 -3.764
65 C3 127 -4.252
65 C3 128 -4.252
65 C3 129 -3.764
65 C3 130 -3.764
65 C3 131 -3.276
65 C3 132 -3.276
65 C3 133 -3.764
65 C3 134 -3.764
65 C3 135 -3.276
65 C3 136 -2.787
65 C3 137 -2.299
65 C3 138 -1.811
65 C3 139 -0.834
65 C3 140 -0.346
65 C3 141 0.142
65 C3 142 0.142
65 C3 143 -0.346
65 C3 144 -0.834
65 C3 145 -0.834
65 C3 146 -1.322
65 C3 147 -0.834
65 C3 148 -0.834
65 C3 149 -1.322
65 C3 150 -1.811
65 C3 151 -2.787
65 C3 152 -3.764
65 C3 153 -4.252
65 C3 154 -4.252
65 C3 155 -3.764
65 C3 156 -3.276
65 C3 157 -2.787
65 C3 158 -3.276
65 C3 159 -3.764
65 C3 160 -3.764
65 C3 161 -3.764
65 C3 162 -2.787
65 C3 163 -2.299
65 C3 164 -2.299
65 C3 165 -3.276
65 C3 166 -4.740
65 C3 167 -6.205
65 C3 168 -7.182
65 C3 169 -6.694
65 C3 170 -5.717
65 C3 171 -4.252
65 C3 172 -3.764
65 C3 173 -3.276
65 C3 174 -2.787
65 C3 175 -2.787
65 C3 176 -2.787
65 C3 177 -2.787
65 C3 178 -2.787
65 C3 179 -2.787
65 C3 180 -2.787
65 C3 181 -2.299
65 C3 182 -2.299
65 C3 183 -1.811
65 C3 184 -1.811
65 C3 185 -1.811
65 C3 186 -2.299
65 C3 187 -1.811
65 C3 188 -0.346
65 C3 189 1.607
65 C3 190 3.560
65 C3 191 5.025
65 C3 192 5.025
65 C3 193 3.560
65 C3 194 1.119
65 C3 195 -0.834
65 C3 196 -2.299
65 C3 197 -2.299
65 C3 198 -1.322
65 C3 199 -0.346
65 C3 200 0.142
65 C3 201 0.142
65 C3 202 -0.834
65 C3 203 -1.811
65 C3 204 -2.299
65 C3 205 -2.299
65 C3 206 -1.322
65 C3 207 -0.346
65 C3 208 -0.346
65 C3 209 -0.834
65 C3 210 -1.322
65 C3 211 -2.299
65 C3 212 -1.811
65 C3 213 -1.811
65 C3 214 -1.322
65 C3 215 -0.834
65 C3 216 -1.322
65 C3 217 -1.322
65 C3 218 -0.834
65 C3 219 -0.346
65 C3 220 -0.346
65 C3 221 -0.346
65 C3 222 -1.322
65 C3 223 -2.787
65 C3 224 -4.252
65 C3 225 -4.740
65 C3 226 -4.740
65 C3 227 -4.252
65 C3 228 -3.764
65 C3 229 -3.764
65 C3 230 -3.764
65 C3 231 -4.252
65 C3 232 -4.740
65 C3 233 -5.229
65 C3 234 -5.229
65 C3 235 -4.740
65 C3 236 -3.764
65 C3 237 -2.299
65 C3 238 -1.811
65 C3 239 -1.811
65 C3 240 -1.811
65 C3 241 -2.299
65 C3 242 -2.299
65 C3 243 -1.811
65 C3 244 -0.834
65 C3 245 -0.346
65 C3 246 0.142
65 C3 247 -0.346
65 C3 248 -0.346
65 C3 249 -0.834
65 C3 250 -0.834
65 C3 251 -0.834
65 C3 252 -1.322
65 C3 253 -2.299
65 C3 254 -3.276
65 C3 255 -4.252
# C4 chan 17
65 C4 0 0.926
65 C4 1 1.902
65 C4 2 2.879
65 C4 3 3.367
65 C4 4 2.879
65 C4 5 1.902
65 C4 6 0.926
65 C4 7 0.437
65 C4 8 0.437
65 C4 9 0.926
65 C4 10 0.437
65 C4 11 0.437
65 C4 12 -0.051
65 C4 13 -0.051
65 C4 14 -0.539
65 C4 15 -1.516
65 C4 16 -2.492
65 C4 17 -3.957
65 C4 18 -4.934
65 C4 19 -4.934
65 C4 20 -3.957
65 C4 21 -2.492
65 C4 22 -1.027
65 C4 23 0.437
65 C4 24 0.926
65 C4 25 0.437
65 C4 26 -0.539
65 C4 27 -1.027
65 C4 28 -2.004
65 C4 29 -2.004
65 C4 30 -1.516
65 C4 31 -1.027
65 C4 32 -1.027
65 C4 33 -1.027
65 C4 34 -1.027
65 C4 35 -1.027
65 C4 36 -1.027
65 C4 37 -1.027
65 C4 38 -1.027
65 C4 39 -1.027
65 C4 40 -1.027
65 C4 41 -1.027
65 C4 42 -1.027
65 C4 43 -1.027
65 C4 44 -0.051
65 C4 45 0.926
65 C4 46 1.902
65 C4 47 2.391
65 C4 48 2.391
65 C4 49 1.902
65 C4 50 0.926
65 C4 51 -0.051
65 C4 52 -0.539
65 C4 53 -0.539
65 C4 54 -0.051
65 C4 55 -0.539
65 C4 56 -0.539
65 C4 57 -1.027
65 C4 58 -0.539
65 C4 59 -0.051
65 C4 60 0.926
65 C4 61 1.902
65 C4 62 1.902
65 C4 63 0.926
65 C4 64 -0.051
65 C4 65 -0.539
65 C4 66 -0.051
65 C4 67 0.926
65 C4 68 1.902
65 C4 69 1.902
65 C4 70 1.414
65 C4 71 -0.051
65 C4 72 -1.516
65 C4 73 -2.492
65 C4 74 -2.492
65 C4 75 -2.492
65 C4 76 -1.516
65 C4 77 -0.539
65 C4 78 -0.051
65 C4 79 0.926
65 C4 80 1.902
65 C4 81 2.391
65 C4 82 3.367
65 C4 83 3.855
65 C4 84 3.855
65 C4 85 4.344
65 C4 86 4.832
65 C4 87 5.809
65 C4 88 6.297
65 C4 89 6.785
65 C4 90 6.297
65 C4 91 5.320
65 C4 92 4.344
65 C4 93 3.855
65 C4 94 3.855
65 C4 95 3.855
65 C4 96 4.344
65 C4 97 4.832
65 C4 98 4.832
65 C4 99 3.855
65 C4 100 3.367
65 C4 101 2.391
65 C4 102 1.902
65 C4 103 2.391
65 C4 104 2.879
65 C4 105 3.367
65 C4 106 3.367
65 C4 107 3.367
65 C4 108 3.367
65 C4 109 3.367
65 C4 110 3.367
65 C4 111 2.879
65 C4 112 2.391
65 C4 113 1.414
65 C4 114 -0.051
65 C4 115 -0.539
65 C4 116 -0.539
65 C4 117 -0.539
65 C4 118 -1.027
65 C4 119 -1.516
65 C4 120 -2.004
65 C4 121 -2.492
65 C4 122 -2.492
65 C4 123 -2.004
65 C4 124 -2.004
65 C4 125 -2.492
65 C4 126 -2.981
65 C4 127 -3.469
65 C4 128 -2.981
65 C4 129 -1.516
65 C4 130 -0.051
65 C4 131 0.926
65 C4 132 1.414
65 C4 133 0.926
65 C4 134 -0.051
65 C4 135 -0.539
65 C4 136 -0.539
65 C4 137 0.437
65 C4 138 0.926
65 C4 139 0.926
65 C4 140 -0.051
65 C4 141 -1.027
65 C4 142 -2.004
65 C4 143 -2.492
65 C4 144 -2.492
65 C4 145 -1.027
65 C4 146 -0.539
65 C4 147 0.437
65 C4 148 0.437
65 C4 149 -0.539
65 C4 150 -1.516
65 C4 151 -2.004
65 C4 152 -2.004
65 C4 153 -2.004
65 C4 154 -2.004
65 C4 155 -2.004
65 C4 156 -1.516
65 C4 157 -1.027
65 C4 158 -1.027
65 C4 159 -0.051
65 C4 160 -0.051
65 C4 161 -0.539
65 C4 162 -1.516
65 C4 163 -2.981
65 C4 164 -3.469
65 C4 165 -2.981
65 C4 166 -2.492
65 C4 167 -1.027
65 C4 168 -0.539
65 C4 169 -0.051
65 C4 170 -0.051
65 C4 171 -0.539
65 C4 172 -1.027
65 C4 173 -1.516
65 C4 174 -1.516
65 C4 175 -1.516
65 C4 176 -1.516
65 C4 177 -1.027
65 C4 178 -1.516
65 C4 179 -2.004
65 C4 180 -2.492
65 C4 181 -2.981
65 C4 182 -2.981
65 C4 183 -2.492
65 C4 184 -2.004
65 C4 185 -1.027
65 C4 186 -1.027
65 C4 187 -2.492
65 C4 188 -4.445
65 C4 189 -7.375
65 C4 190 -9.816
65 C4 191 -11.281
65 C4 192 -11.281
65 C4 193 -9.816
65 C4 194 -6.887
65 C4 195 -4.445
65 C4 196 -1.516
65 C4 197 -0.539
65 C4 198 -0.051
65 C4 199 -1.027
65 C4 200 -2.492
65 C4 201 -3.469
65 C4 202 -3.469
65 C4 203 -2.981
65 C4 204 -2.492
65 C4 205 -2.492
65 C4 206 -2.981
65 C4 207 -2.981
65 C4 208 -2.492
65 C4 209 -1.516
65 C4 210 -0.539
65 C4 211 -0.539
65 C4 212 -2.004
65 C4 213 -3.469
65 C4 214 -4.934
65 C4 215 -5.422
65 C4 216 -5.422
65 C4 217 -4.934
65 C4 218 -3.957
65 C4 219 -3.469
65 C4 220 -2.981
65 C4 221 -2.492
65 C4 222 -1.516
65 C4 223 -1.516
65 C4 224 -2.492
65 C4 225 -2.981
65 C4 226 -3.957
65 C4 227 -4.445
65 C4 228 -4.445
65 C4 229 -3.957
65 C4 230 -2.492
65 C4 231 -2.004
65 C4 232 -1.027
65 C4 233 -1.027
65 C4 234 -1.027
65 C4 235 -2.492
65 C4 236 -3.957
65 C4 237 -4.934
65 C4 238 -5.422
65 C4 239 -4.934
65 C4 240 -2.981
65 C4 241 -1.027
65 C4 242 -0.051
65 C4 243 -0.051
65 C4 244 -0.539
65 C4 245 -2.004
65 C4 246 -2.492
65 C4 247 -2.981
65 C4 248 -2.981
65 C4 249 -2.981
65 C4 250 -3.469
65 C4 251 -3.469
65 C4 252 -3.469
65 C4 253 -2.981
65 C4 254 -2.981
65 C4 255 -2.981
# CP5 chan 18
65 CP5 0 -1.933
65 CP5 1 -1.444
65 CP5 2 -0.956
65 CP5 3 -0.468
65 CP5 4 -0.468
65 CP5 5 -0.468
65 CP5 6 -0.468
65 CP5 7 -1.444
65 CP5 8 -1.933
65 CP5 9 -2.421
65 CP5 10 -1.444
65 CP5 11 -0.468
65 CP5 12 0.020
65 CP5 13 0.020
65 CP5 14 -0.956
65 CP5 15 -1.933
65 CP5 16 -1.933
65 CP5 17 -1.444
65 CP5 18 -1.444
65 CP5 19 -0.956
65 CP5 20 -0.956
65 CP5 21 -0.956
65 CP5 22 0.020
65 CP5 23 1.485
65 CP5 24 2.950
65 CP5 25 2.950
65 CP5 26 1.973
65 CP5 27 0.020
65 CP5 28 -2.421
65 CP5 29 -5.351
65 CP5 30 -6.816
65 CP5 31 -7.304
65 CP5 32 -6.816
65 CP5 33 -5.839
65 CP5 34 -3.886
65 CP5 35 -2.421
65 CP5 36 -0.956
65 CP5 37 -0.468
65 CP5 38 -0.956
65 CP5 39 -2.421
65 CP5 40 -4.862
65 CP5 41 -6.327
65 CP5 42 -6.816
65 CP5 43 -5.839
65 CP5 44 -4.374
65 CP5 45 -3.886
65 CP5 46 -3.886
65 CP5 47 -5.351
65 CP5 48 -6.816
65 CP5 49 -6.327
65 CP5 50 -5.839
65 CP5 51 -4.374
65 CP5 52 -3.398
65 CP5 53 -2.421
65 CP5 54 -1.933
65 CP5 55 -1.933
65 CP5 56 -1.933
65 CP5 57 -2.909
65 CP5 58 -3.886
65 CP5 59 -5.351
65 CP5 60 -6.327
65 CP5 61 -6.816
65 CP5 62 -6.816
65 CP5 63 -5.839
65 CP5 64 -5.351
65 CP5 65 -4.862
65 CP5 66 -4.374
65 CP5 67 -3.886
65 CP5 68 -3.886
65 CP5 69 -3.886
65 CP5 70 -3.886
65 CP5 71 -3.398
65 CP5 72 -2.421
65 CP5 73 -1.444
65 CP5 74 -0.956
65 CP5 75 -1.444
65 CP5 76 -2.421
65 CP5 77 -3.398
65 CP5 78 -3.886
65 CP5 79 -3.398
65 CP5 80 -2.421
65 CP5 81 -0.956
65 CP5 82 0.020
65 CP5 83 0.997
65 CP5 84 1.485
65 CP5 85 1.973
65 CP5 86 1.973
65 CP5 87 2.462
65 CP5 88 2.462
65 CP5 89 1.973
65 CP5 90 1.973
65 CP5 91 2.462
65 CP5 92 2.950
65 CP5 93 3.438
65 CP5 94 3.438
65 CP5 95 2.462
65 CP5 96 0.997
65 CP5 97 0.020
65 CP5 98 -0.468
65 CP5 99 0.020
65 CP5 100 0.509
65 CP5 101 0.509
65 CP5 102 0.509
65 CP5 103 0.509
65 CP5 104 0.020
65 CP5 105 0.509
65 CP5 106 0.997
65 CP5 107 0.509
65 CP5 108 0.020
65 CP5 109 -1.444
65 CP5 110 -2.909
65 CP5 111 -3.886
65 CP5 112 -5.351
65 CP5 113 -5.839
65 CP5 114 -6.816
65 CP5 115 -7.304
65 CP5 116 -6.816
65 CP5 117 -6.327
65 CP5 118 -5.351
65 CP5 119 -4.862
65 CP5 120 -5.351
65 CP5 121 -5.839
65 CP5 122 -5.839
65 CP5 123 -5.839
65 CP5 124 -5.839
65 CP5 125 -6.327
65 CP5 126 -6.816
65 CP5 127 -7.792
65 CP5 128 -7.792
65 CP5 129 -6.327
65 CP5 130 -5.351
65 CP5 131 -3.886
65 CP5 132 -3.398
65 CP5 133 -2.421
65 CP5 134 -2.421
65 CP5 135 -2.421
65 CP5 136 -1.933
65 CP5 137 -1.933
65 CP5 138 -1.444
65 CP5 139 -0.956
65 CP5 140 -0.468
65 CP5 141 0.020
65 CP5 142 0.020
65 CP5 143 -0.468
65 CP5 144 0.020
65 CP5 145 0.509
65 CP5 146 0.997
65 CP5 147 1.485
65 CP5 148 0.997
65 CP5 149 -0.468
65 CP5 150 -2.421
65 CP5 151 -4.374
65 CP5 152 -5.351
65 CP5 153 -5.839
65 CP5 154 -5.351
65 CP5 155 -4.862
65 CP5 156 -3.886
65 CP5 157 -3.398
65 CP5 158 -3.398
65 CP5 159 -3.886
65 CP5 160 -4.374
65 CP5 161 -4.374
65 CP5 162 -4.374
65 CP5 163 -3.886
65 CP5 164 -4.374
65 CP5 165 -5.839
65 CP5 166 -7.304
65 CP5 167 -8.769
65 CP5 168 -9.745
65 CP5 169 -8.769
65 CP5 170 -6.816
65 CP5 171 -4.374
65 CP5 172 -3.398
65 CP5 173 -3.398
65 CP5 174 -3.398
65 CP5 175 -2.909
65 CP5 176 -2.909
65 CP5 177 -2.909
65 CP5 178 -3.398
65 CP5 179 -4.374
65 CP5 180 -5.351
65 CP5 181 -3.886
65 CP5 182 -2.909
65 CP5 183 -1.444
65 CP5 184 -0.956
65 CP5 185 -1.444
65 CP5 186 -2.421
65 CP5 187 -1.933
65 CP5 188 0.509
65 CP5 189 4.415
65 CP5 190 8.321
65 CP5 191 11.251
65 CP5 192 11.739
65 CP5 193 9.786
65 CP5 194 6.368
65 CP5 195 2.462
65 CP5 196 -0.956
65 CP5 197 -2.421
65 CP5 198 -2.909
65 CP5 199 -1.444
65 CP5 200 -0.468
65 CP5 201 0.020
65 CP5 202 -0.956
65 CP5 203 -2.421
65 CP5 204 -3.398
65 CP5 205 -3.398
65 CP5 206 -1.933
65 CP5 207 0.020
65 CP5 208 0.509
65 CP5 209 0.020
65 CP5 210 -1.933
65 CP5 211 -3.398
65 CP5 212 -4.374
65 CP5 213 -4.374
65 CP5 214 -3.886
65 CP5 215 -3.886
65 CP5 216 -3.886
65 CP5 217 -3.886
65 CP5 218 -3.398
65 CP5 219 -2.909
65 CP5 220 -1.933
65 CP5 221 -2.421
65 CP5 222 -3.886
65 CP5 223 -5.839
65 CP5 224 -7.792
65 CP5 225 -9.257
65 CP5 226 -9.745
65 CP5 227 -8.769
65 CP5 228 -7.792
65 CP5 229 -6.816
65 CP5 230 -6.816
65 CP5 231 -6.816
65 CP5 232 -7.792
65 CP5 233 -7.792
65 CP5 234 -7.792
65 CP5 235 -6.816
65 CP5 236 -5.839
65 CP5 237 -4.862
65 CP5 238 -5.351
65 CP5 239 -5.839
65 CP5 240 -6.327
65 CP5 241 -5.839
65 CP5 242 -4.862
65 CP5 243 -3.886
65 CP5 244 -2.909
65 CP5 245 -2.421
65 CP5 246 -2.421
65 CP5 247 -2.421
65 CP5 248 -2.909
65 CP5 249 -3.398
65 CP5 250 -3.886
65 CP5 251 -4.862
65 CP5 252 -5.351
65 CP5 253 -5.839
65 CP5 254 -6.327
65 CP5 255 -6.816
# CP6 chan 19
65 CP6 0 2.380
65 CP6 1 3.357
65 CP6 2 4.333
65 CP6 3 4.822
65 CP6 4 4.333
65 CP6 5 3.357
65 CP6 6 1.892
65 CP6 7 1.404
65 CP6 8 0.916
65 CP6 9 0.427
65 CP6 10 0.427
65 CP6 11 0.427
65 CP6 12 0.916
65 CP6 13 1.892
65 CP6 14 1.892
65 CP6 15 0.916
65 CP6 16 -0.549
65 CP6 17 -2.991
65 CP6 18 -4.456
65 CP6 19 -4.456
65 CP6 20 -2.991
65 CP6 21 -1.038
65 CP6 22 1.404
65 CP6 23 2.380
65 CP6 24 2.869
65 CP6 25 2.869
65 CP6 26 1.404
65 CP6 27 -0.061
65 CP6 28 -1.038
65 CP6 29 -1.526
65 CP6 30 -1.526
65 CP6 31 -1.038
65 CP6 32 -0.549
65 CP6 33 -0.061
65 CP6 34 0.427
65 CP6 35 0.427
65 CP6 36 -0.061
65 CP6 37 -0.549
65 CP6 38 -1.038
65 CP6 39 -2.014
65 CP6 40 -2.502
65 CP6 41 -2.991
65 CP6 42 -2.502
65 CP6 43 -2.014
65 CP6 44 -1.038
65 CP6 45 -0.549
65 CP6 46 -0.549
65 CP6 47 -0.061
65 CP6 48 -0.549
65 CP6 49 -0.549
65 CP6 50 -1.526
65 CP6 51 -2.502
65 CP6 52 -2.991
65 CP6 53 -2.502
65 CP6 54 -2.014
65 CP6 55 -2.014
65 CP6 56 -2.014
65 CP6 57 -2.014
65 CP6 58 -2.502
65 CP6 59 -2.014
65 CP6 60 -1.526
65 CP6 61 -0.061
65 CP6 62 0.427
65 CP6 63 0.916
65 CP6 64 -0.061
65 CP6 65 -0.549
65 CP6 66 -1.038
65 CP6 67 -0.061
65 CP6 68 0.916
65 CP6 69 1.404
65 CP6 70 0.916
65 CP6 71 -0.549
65 CP6 72 -2.502
65 CP6 73 -3.967
65 CP6 74 -4.456
65 CP6 75 -3.967
65 CP6 76 -2.502
65 CP6 77 -1.526
65 CP6 78 -1.038
65 CP6 79 -0.549
65 CP6 80 -0.061
65 CP6 81 1.404
65 CP6 82 2.869
65 CP6 83 4.333
65 CP6 84 5.798
65 CP6 85 6.775
65 CP6 86 7.263
65 CP6 87 8.240
65 CP6 88 8.728
65 CP6 89 9.705
65 CP6 90 9.705
65 CP6 91 9.216
65 CP6 92 8.728
65 CP6 93 7.751
65 CP6 94 7.263
65 CP6 95 7.263
65 CP6 96 6.775
65 CP6 97 6.287
65 CP6 98 5.310
65 CP6 99 4.822
65 CP6 100 4.333
65 CP6 101 3.845
65 CP6 102 4.333
65 CP6 103 5.310
65 CP6 104 6.287
65 CP6 105 6.775
65 CP6 106 6.775
65 CP6 107 6.775
65 CP6 108 6.775
65 CP6 109 6.287
65 CP6 110 5.798
65 CP6 111 5.798
65 CP6 112 4.822
65 CP6 113 3.845
65 CP6 114 2.869
65 CP6 115 0.916
65 CP6 116 -0.549
65 CP6 117 -1.038
65 CP6 118 -2.014
65 CP6 119 -2.502
65 CP6 120 -2.991
65 CP6 121 -3.479
65 CP6 122 -3.967
65 CP6 123 -4.456
65 CP6 124 -5.432
65 CP6 125 -5.920
65 CP6 126 -6.409
65 CP6 127 -6.409
65 CP6 128 -5.432
65 CP6 129 -3.479
65 CP6 130 -0.549
65 CP6 131 0.916
65 CP6 132 1.892
65 CP6 133 1.892
65 CP6 134 0.427
65 CP6 135 -0.549
65 CP6 136 -1.038
65 CP6 137 -1.038
65 CP6 138 -1.038
65 CP6 139 -0.549
65 CP6 140 -0.549
65 CP6 141 -1.038
65 CP6 142 -1.526
65 CP6 143 -2.014
65 CP6 144 -1.526
65 CP6 145 -0.061
65 CP6 146 0.916
65 CP6 147 1.404
65 CP6 148 0.916
65 CP6 149 -0.549
65 CP6 150 -1.526
65 CP6 151 -2.502
65 CP6 152 -2.502
65 CP6 153 -2.502
65 CP6 154 -3.479
65 CP6 155 -3.479
65 CP6 156 -4.456
65 CP6 157 -3.967
65 CP6 158 -2.991
65 CP6 159 -1.526
65 CP6 160 -0.549
65 CP6 161 -1.038
65 CP6 162 -2.014
65 CP6 163 -3.479
65 CP6 164 -3.479
65 CP6 165 -3.479
65 CP6 166 -2.014
65 CP6 167 -1.526
65 CP6 168 -1.526
65 CP6 169 -1.526
65 CP6 170 -1.038
65 CP6 171 -1.038
65 CP6 172 -0.549
65 CP6 173 -0.549
65 CP6 174 -1.038
65 CP6 175 -1.038
65 CP6 176 -1.526
65 CP6 177 -1.526
65 CP6 178 -1.526
65 CP6 179 -2.502
65 CP6 180 -3.479
65 CP6 181 -3.967
65 CP6 182 -3.967
65 CP6 183 -3.479
65 CP6 184 -2.014
65 CP6 185 -1.526
65 CP6 186 -1.526
65 CP6 187 -3.479
65 CP6 188 -6.897
65 CP6 189 -10.803
65 CP6 190 -14.221
65 CP6 191 -16.174
65 CP6 192 -15.198
65 CP6 193 -13.245
65 CP6 194 -9.338
65 CP6 195 -5.920
65 CP6 196 -2.502
65 CP6 197 -0.549
65 CP6 198 -0.549
65 CP6 199 -2.014
65 CP6 200 -3.479
65 CP6 201 -4.456
65 CP6 202 -4.456
65 CP6 203 -3.967
65 CP6 204 -2.502
65 CP6 205 -2.014
65 CP6 206 -2.014
65 CP6 207 -1.526
65 CP6 208 -0.549
65 CP6 209 0.427
65 CP6 210 0.427
65 CP6 211 -0.549
65 CP6 212 -2.502
65 CP6 213 -4.456
65 CP6 214 -5.920
65 CP6 215 -6.409
65 CP6 216 -5.920
65 CP6 217 -5.432
65 CP6 218 -5.432
65 CP6 219 -4.944
65 CP6 220 -4.456
65 CP6 221 -3.967
65 CP6 222 -3.479
65 CP6 223 -3.479
65 CP6 224 -3.967
65 CP6 225 -4.944
65 CP6 226 -5.920
65 CP6 227 -6.409
65 CP6 228 -6.897
65 CP6 229 -6.409
65 CP6 230 -5.432
65 CP6 231 -4.456
65 CP6 232 -3.479
65 CP6 233 -2.991
65 CP6 234 -3.479
65 CP6 235 -4.944
65 CP6 236 -6.409
65 CP6 237 -7.385
65 CP6 238 -7.385
65 CP6 239 -6.409
65 CP6 240 -4.456
65 CP6 241 -2.014
65 CP6 242 -1.526
65 CP6 243 -1.526
65 CP6 244 -2.502
65 CP6 245 -3.479
65 CP6 246 -4.456
65 CP6 247 -4.944
65 CP6 248 -5.432
65 CP6 249 -5.432
65 CP6 250 -5.920
65 CP6 251 -5.920
65 CP6 252 -5.920
65 CP6 253 -5.920
65 CP6 254 -6.409
65 CP6 255 -6.897
# CP1 chan 20
65 CP1 0 -0.163
65 CP1 1 -0.163
65 CP1 2 0.326
65 CP1 3 0.326
65 CP1 4 0.326
65 CP1 5 -0.163
65 CP1 6 0.326
65 CP1 7 -0.163
65 CP1 8 -0.651
65 CP1 9 -1.139
65 CP1 10 -1.139
65 CP1 11 -0.651
65 CP1 12 -0.163
65 CP1 13 0.326
65 CP1 14 0.326
65 CP1 15 0.326
65 CP1 16 -0.163
65 CP1 17 -1.139
65 CP1 18 -1.139
65 CP1 19 -1.628
65 CP1 20 -1.139
65 CP1 21 -0.651
65 CP1 22 -0.163
65 CP1 23 0.326
65 CP1 24 0.326
65 CP1 25 0.326
65 CP1 26 -0.163
65 CP1 27 -0.163
65 CP1 28 -1.139
65 CP1 29 -1.628
65 CP1 30 -2.116
65 CP1 31 -2.604
65 CP1 32 -2.116
65 CP1 33 -2.116
65 CP1 34 -1.628
65 CP1 35 -1.139
65 CP1 36 -0.651
65 CP1 37 -0.163
65 CP1 38 -0.163
65 CP1 39 -0.163
65 CP1 40 -0.163
65 CP1 41 -0.651
65 CP1 42 -1.139
65 CP1 43 -0.651
65 CP1 44 -0.651
65 CP1 45 -0.163
65 CP1 46 -0.651
65 CP1 47 -0.651
65 CP1 48 -1.628
65 CP1 49 -1.628
65 CP1 50 -1.139
65 CP1 51 -0.651
65 CP1 52 -0.651
65 CP1 53 -0.163
65 CP1 54 -0.163
65 CP1 55 -0.651
65 CP1 56 -0.651
65 CP1 57 -1.628
65 CP1 58 -2.604
65 CP1 59 -3.092
65 CP1 60 -3.581
65 CP1 61 -3.092
65 CP1 62 -2.604
65 CP1 63 -2.116
65 CP1 64 -2.116
65 CP1 65 -2.116
65 CP1 66 -1.628
65 CP1 67 -1.139
65 CP1 68 -1.139
65 CP1 69 -0.651
65 CP1 70 -0.163
65 CP1 71 -0.163
65 CP1 72 0.326
65 CP1 73 0.814
65 CP1 74 0.814
65 CP1 75 0.814
65 CP1 76 0.326
65 CP1 77 -0.651
65 CP1 78 -1.628
65 CP1 79 -2.116
65 CP1 80 -1.628
65 CP1 81 -0.651
65 CP1 82 -0.163
65 CP1 83 0.814
65 CP1 84 0.814
65 CP1 85 0.814
65 CP1 86 0.814
65 CP1 87 0.814
65 CP1 88 1.302
65 CP1 89 1.790
65 CP1 90 1.790
65 CP1 91 1.790
65 CP1 92 2.279
65 CP1 93 2.279
65 CP1 94 1.790
65 CP1 95 0.814
65 CP1 96 -0.651
65 CP1 97 -1.139
65 CP1 98 -2.116
65 CP1 99 -1.628
65 CP1 100 -1.139
65 CP1 101 -1.139
65 CP1 102 -1.139
65 CP1 103 -1.139
65 CP1 104 -1.139
65 CP1 105 -1.139
65 CP1 106 -1.139
65 CP1 107 -1.628
65 CP1 108 -1.628
65 CP1 109 -2.116
65 CP1 110 -2.116
65 CP1 111 -2.116
65 CP1 112 -2.116
65 CP1 113 -2.116
65 CP1 114 -2.604
65 CP1 115 -3.092
65 CP1 116 -3.581
65 CP1 117 -3.092
65 CP1 118 -3.092
65 CP1 119 -3.092
65 CP1 120 -3.581
65 CP1 121 -4.069
65 CP1 122 -4.069
65 CP1 123 -4.069
65 CP1 124 -4.069
65 CP1 125 -4.069
65 CP1 126 -4.069
65 CP1 127 -4.069
65 CP1 128 -3.581
65 CP1 129 -3.581
65 CP1 130 -3.092
65 CP1 131 -2.604
65 CP1 132 -2.116
65 CP1 133 -1.628
65 CP1 134 -1.139
65 CP1 135 -1.139
65 CP1 136 -1.139
65 CP1 137 -1.139
65 CP1 138 -1.139
65 CP1 139 -1.139
65 CP1 140 -0.651
65 CP1 141 -0.163
65 CP1 142 -0.163
65 CP1 143 -0.163
65 CP1 144 -0.163
65 CP1 145 -0.163
65 CP1 146 0.326
65 CP1 147 0.326
65 CP1 148 -0.163
65 CP1 149 -1.139
65 CP1 150 -2.116
65 CP1 151 -2.604
65 CP1 152 -3.092
65 CP1 153 -3.092
65 CP1 154 -3.581
65 CP1 155 -3.581
65 CP1 156 -4.069
65 CP1 157 -3.581
65 CP1 158 -3.092
65 CP1 159 -3.092
65 CP1 160 -3.092
65 CP1 161 -3.092
65 CP1 162 -3.092
65 CP1 163 -2.604
65 CP1 164 -2.116
65 CP1 165 -2.604
65 CP1 166 -3.581
65 CP1 167 -4.069
65 CP1 168 -4.557
65 CP1 169 -4.069
65 CP1 170 -3.581
65 CP1 171 -3.092
65 CP1 172 -2.604
65 CP1 173 -2.604
65 CP1 174 -2.604
65 CP1 175 -2.116
65 CP1 176 -1.628
65 CP1 177 -1.139
65 CP1 178 -0.651
65 CP1 179 -0.651
65 CP1 180 -0.651
65 CP1 181 -1.139
65 CP1 182 -0.651
65 CP1 183 -0.651
65 CP1 184 -0.651
65 CP1 185 -0.651
65 CP1 186 -0.651
65 CP1 187 -0.163
65 CP1 188 0.326
65 CP1 189 2.279
65 CP1 190 4.232
65 CP1 191 5.208
65 CP1 192 5.208
65 CP1 193 4.232
65 CP1 194 2.767
65 CP1 195 1.302
65 CP1 196 -0.163
65 CP1 197 -0.163
65 CP1 198 -0.163
65 CP1 199 0.326
65 CP1 200 0.326
65 CP1 201 0.326
65 CP1 202 -0.163
65 CP1 203 -0.163
65 CP1 204 -0.163
65 CP1 205 0.814
65 CP1 206 1.302
65 CP1 207 1.790
65 CP1 208 2.279
65 CP1 209 1.790
65 CP1 210 0.814
65 CP1 211 -0.163
65 CP1 212 -1.139
65 CP1 213 -1.628
65 CP1 214 -1.628
65 CP1 215 -1.628
65 CP1 216 -1.139
65 CP1 217 -1.628
65 CP1 218 -1.628
65 CP1 219 -1.628
65 CP1 220 -2.116
65 CP1 221 -2.604
65 CP1 222 -3.581
65 CP1 223 -4.557
65 CP1 224 -5.046
65 CP1 225 -5.046
65 CP1 226 -5.046
65 CP1 227 -5.046
65 CP1 228 -4.557
65 CP1 229 -4.069
65 CP1 230 -4.069
65 CP1 231 -4.069
65 CP1 232 -4.069
65 CP1 233 -4.069
65 CP1 234 -4.557
65 CP1 235 -4.557
65 CP1 236 -4.557
65 CP1 237 -4.557
65 CP1 238 -4.069
65 CP1 239 -3.581
65 CP1 240 -3.581
65 CP1 241 -3.092
65 CP1 242 -3.092
65 CP1 243 -2.604
65 CP1 244 -2.604
65 CP1 245 -2.116
65 CP1 246 -2.116
65 CP1 247 -2.116
65 CP1 248 -2.116
65 CP1 249 -2.604
65 CP1 250 -3.092
65 CP1 251 -3.581
65 CP1 252 -4.069
65 CP1 253 -4.069
65 CP1 254 -4.557
65 CP1 255 -4.557
# CP2 chan 21
65 CP2 0 1.119
65 CP2 1 1.607
65 CP2 2 2.096
65 CP2 3 2.584
65 CP2 4 2.096
65 CP2 5 1.607
65 CP2 6 1.119
65 CP2 7 0.142
65 CP2 8 0.142
65 CP2 9 0.142
65 CP2 10 0.142
65 CP2 11 0.142
65 CP2 12 0.631
65 CP2 13 0.631
65 CP2 14 0.631
65 CP2 15 0.142
65 CP2 16 -1.322
65 CP2 17 -2.787
65 CP2 18 -3.764
65 CP2 19 -3.764
65 CP2 20 -3.276
65 CP2 21 -2.299
65 CP2 22 -1.322
65 CP2 23 -0.346
65 CP2 24 0.142
65 CP2 25 -0.346
65 CP2 26 -0.834
65 CP2 27 -0.834
65 CP2 28 -0.834
65 CP2 29 -0.834
65 CP2 30 -0.346
65 CP2 31 -0.346
65 CP2 32 0.142
65 CP2 33 -0.346
65 CP2 34 -0.346
65 CP2 35 -0.346
65 CP2 36 -0.834
65 CP2 37 -1.322
65 CP2 38 -1.811
65 CP2 39 -1.811
65 CP2 40 -1.322
65 CP2 41 -0.834
65 CP2 42 -0.346
65 CP2 43 0.142
65 CP2 44 0.631
65 CP2 45 1.119
65 CP2 46 1.607
65 CP2 47 1.607
65 CP2 48 1.607
65 CP2 49 1.119
65 CP2 50 0.142
65 CP2 51 -0.346
65 CP2 52 -0.834
65 CP2 53 -0.346
65 CP2 54 -0.346
65 CP2 55 0.142
65 CP2 56 -0.346
65 CP2 57 -0.346
65 CP2 58 -0.834
65 CP2 59 -0.834
65 CP2 60 -0.834
65 CP2 61 -0.346
65 CP2 62 0.142
65 CP2 63 0.142
65 CP2 64 0.142
65 CP2 65 0.142
65 CP2 66 0.142
65 CP2 67 0.631
65 CP2 68 1.119
65 CP2 69 1.607
65 CP2 70 1.607
65 CP2 71 0.631
65 CP2 72 -0.834
65 CP2 73 -1.811
65 CP2 74 -2.299
65 CP2 75 -2.299
65 CP2 76 -2.299
65 CP2 77 -2.299
65 CP2 78 -2.299
65 CP2 79 -1.811
65 CP2 80 -1.322
65 CP2 81 -0.346
65 CP2 82 0.631
65 CP2 83 1.607
65 CP2 84 2.096
65 CP2 85 2.096
65 CP2 86 2.096
65 CP2 87 2.584
65 CP2 88 3.072
65 CP2 89 3.560
65 CP2 90 4.049
65 CP2 91 4.049
65 CP2 92 3.560
65 CP2 93 3.072
65 CP2 94 2.584
65 CP2 95 2.096
65 CP2 96 1.607
65 CP2 97 1.119
65 CP2 98 0.631
65 CP2 99 0.142
65 CP2 100 -0.346
65 CP2 101 -0.834
65 CP2 102 -0.834
65 CP2 103 -0.346
65 CP2 104 -0.346
65 CP2 105 0.142
65 CP2 106 0.631
65 CP2 107 0.631
65 CP2 108 0.631
65 CP2 109 1.119
65 CP2 110 1.607
65 CP2 111 2.096
65 CP2 112 2.096
65 CP2 113 1.607
65 CP2 114 1.119
65 CP2 115 0.142
65 CP2 116 -0.834
65 CP2 117 -1.322
65 CP2 118 -1.811
65 CP2 119 -2.299
65 CP2 120 -2.787
65 CP2 121 -3.276
65 CP2 122 -3.276
65 CP2 123 -3.764
65 CP2 124 -3.764
65 CP2 125 -3.764
65 CP2 126 -3.764
65 CP2 127 -3.764
65 CP2 128 -2.787
65 CP2 129 -1.811
65 CP2 130 -0.834
65 CP2 131 0.142
65 CP2 132 0.631
65 CP2 133 0.631
65 CP2 134 0.631
65 CP2 135 0.631
65 CP2 136 0.631
65 CP2 137 0.631
65 CP2 138 0.631
65 CP2 139 0.631
65 CP2 140 0.631
65 CP2 141 0.631
65 CP2 142 0.142
65 CP2 143 0.142
65 CP2 144 0.142
65 CP2 145 0.631
65 CP2 146 1.607
65 CP2 147 1.607
65 CP2 148 1.119
65 CP2 149 0.142
65 CP2 150 -0.834
65 CP2 151 -1.322
65 CP2 152 -1.322
65 CP2 153 -1.322
65 CP2 154 -1.322
65 CP2 155 -1.811
65 CP2 156 -2.299
65 CP2 157 -2.299
65 CP2 158 -1.322
65 CP2 159 -0.834
65 CP2 160 -0.346
65 CP2 161 -0.834
65 CP2 162 -1.322
65 CP2 163 -1.811
65 CP2 164 -1.811
65 CP2 165 -1.811
65 CP2 166 -1.322
65 CP2 167 -1.322
65 CP2 168 -1.322
65 CP2 169 -0.834
65 CP2 170 -0.346
65 CP2 171 0.142
65 CP2 172 0.142
65 CP2 173 0.142
65 CP2 174 -0.346
65 CP2 175 -0.346
65 CP2 176 -0.834
65 CP2 177 -0.834
65 CP2 178 -0.346
65 CP2 179 -0.834
65 CP2 180 -0.834
65 CP2 181 -1.322
65 CP2 182 -1.322
65 CP2 183 -0.834
65 CP2 184 0.142
65 CP2 185 0.631
65 CP2 186 0.631
65 CP2 187 0.142
65 CP2 188 -1.322
65 CP2 189 -2.299
65 CP2 190 -3.276
65 CP2 191 -3.276
65 CP2 192 -3.276
65 CP2 193 -2.299
65 CP2 194 -1.322
65 CP2 195 -0.346
65 CP2 196 0.142
65 CP2 197 0.142
65 CP2 198 0.142
65 CP2 199 0.142
65 CP2 200 -0.346
65 CP2 201 -0.346
65 CP2 202 -0.346
65 CP2 203 0.142
65 CP2 204 1.119
65 CP2 205 1.607
65 CP2 206 1.607
65 CP2 207 2.096
65 CP2 208 2.584
65 CP2 209 2.584
65 CP2 210 2.096
65 CP2 211 1.607
65 CP2 212 0.142
65 CP2 213 -1.811
65 CP2 214 -2.787
65 CP2 215 -3.276
65 CP2 216 -3.276
65 CP2 217 -2.787
65 CP2 218 -2.299
65 CP2 219 -2.787
65 CP2 220 -2.787
65 CP2 221 -3.276
65 CP2 222 -3.276
65 CP2 223 -3.276
65 CP2 224 -3.276
65 CP2 225 -3.276
65 CP2 226 -3.276
65 CP2 227 -3.276
65 CP2 228 -3.276
65 CP2 229 -3.276
65 CP2 230 -2.299
65 CP2 231 -1.811
65 CP2 232 -1.322
65 CP2 233 -1.322
65 CP2 234 -1.811
65 CP2 235 -2.299
65 CP2 236 -3.276
65 CP2 237 -3.764
65 CP2 238 -3.764
65 CP2 239 -3.276
65 CP2 240 -2.299
65 CP2 241 -1.811
65 CP2 242 -1.811
65 CP2 243 -1.811
65 CP2 244 -2.299
65 CP2 245 -2.787
65 CP2 246 -3.276
65 CP2 247 -3.764
65 CP2 248 -3.764
65 CP2 249 -3.764
65 CP2 250 -4.252
65 CP2 251 -3.764
65 CP2 252 -3.764
65 CP2 253 -3.276
65 CP2 254 -3.764
65 CP2 255 -4.252
# P3 chan 22
65 P3 0 -0.692
65 P3 1 -0.203
65 P3 2 -0.203
65 P3 3 -0.203
65 P3 4 -0.203
65 P3 5 -0.203
65 P3 6 -0.203
65 P3 7 -0.692
65 P3 8 -1.180
65 P3 9 -2.157
65 P3 10 -2.645
65 P3 11 -2.157
65 P3 12 -0.692
65 P3 13 0.285
65 P3 14 0.773
65 P3 15 0.285
65 P3 16 -0.203
65 P3 17 -1.668
65 P3 18 -2.157
65 P3 19 -2.157
65 P3 20 -1.668
65 P3 21 -0.692
65 P3 22 0.773
65 P3 23 2.238
65 P3 24 2.238
65 P3 25 2.238
65 P3 26 1.261
65 P3 27 0.285
65 P3 28 -1.180
65 P3 29 -2.157
65 P3 30 -3.621
65 P3 31 -4.598
65 P3 32 -4.598
65 P3 33 -4.110
65 P3 34 -2.645
65 P3 35 -1.180
65 P3 36 -0.203
65 P3 37 0.285
65 P3 38 -0.203
65 P3 39 -1.180
65 P3 40 -2.645
65 P3 41 -3.133
65 P3 42 -3.133
65 P3 43 -2.645
65 P3 44 -1.668
65 P3 45 -1.668
65 P3 46 -2.157
65 P3 47 -2.645
65 P3 48 -3.133
65 P3 49 -2.645
65 P3 50 -2.157
65 P3 51 -1.668
65 P3 52 -1.180
65 P3 53 -1.180
65 P3 54 -0.692
65 P3 55 -0.692
65 P3 56 -1.668
65 P3 57 -3.133
65 P3 58 -4.598
65 P3 59 -6.063
65 P3 60 -6.551
65 P3 61 -6.063
65 P3 62 -5.575
65 P3 63 -4.110
65 P3 64 -3.621
65 P3 65 -3.621
65 P3 66 -3.621
65 P3 67 -3.133
65 P3 68 -2.645
65 P3 69 -2.157
65 P3 70 -1.668
65 P3 71 -1.668
65 P3 72 -2.157
65 P3 73 -2.157
65 P3 74 -2.157
65 P3 75 -2.645
65 P3 76 -3.133
65 P3 77 -4.598
65 P3 78 -5.575
65 P3 79 -6.551
65 P3 80 -5.575
65 P3 81 -4.598
65 P3 82 -2.645
65 P3 83 -1.180
65 P3 84 -0.203
65 P3 85 0.285
65 P3 86 -0.203
65 P3 87 0.285
65 P3 88 0.285
65 P3 89 0.773
65 P3 90 1.261
65 P3 91 1.261
65 P3 92 1.750
65 P3 93 1.750
65 P3 94 1.261
65 P3 95 -0.203
65 P3 96 -1.668
65 P3 97 -3.621
65 P3 98 -4.598
65 P3 99 -4.598
65 P3 100 -4.110
65 P3 101 -3.133
65 P3 102 -2.645
65 P3 103 -2.645
65 P3 104 -2.157
65 P3 105 -1.180
65 P3 106 -0.692
65 P3 107 -0.692
65 P3 108 -1.668
65 P3 109 -2.645
65 P3 110 -4.110
65 P3 111 -4.598
65 P3 112 -5.086
65 P3 113 -5.575
65 P3 114 -7.039
65 P3 115 -7.528
65 P3 116 -8.016
65 P3 117 -7.528
65 P3 118 -7.528
65 P3 119 -8.016
65 P3 120 -8.504
65 P3 121 -9.481
65 P3 122 -9.481
65 P3 123 -9.481
65 P3 124 -8.993
65 P3 125 -8.993
65 P3 126 -8.993
65 P3 127 -8.993
65 P3 128 -8.504
65 P3 129 -7.039
65 P3 130 -6.063
65 P3 131 -4.598
65 P3 132 -3.621
65 P3 133 -2.645
65 P3 134 -1.668
65 P3 135 -1.668
65 P3 136 -1.668
65 P3 137 -2.157
65 P3 138 -2.157
65 P3 139 -2.157
65 P3 140 -1.180
65 P3 141 -0.203
65 P3 142 0.285
65 P3 143 -0.203
65 P3 144 -0.692
65 P3 145 -0.203
65 P3 146 -0.203
65 P3 147 0.285
65 P3 148 -0.692
65 P3 149 -1.668
65 P3 150 -3.133
65 P3 151 -4.110
65 P3 152 -4.598
65 P3 153 -4.598
65 P3 154 -5.086
65 P3 155 -5.575
65 P3 156 -5.575
65 P3 157 -5.575
65 P3 158 -5.086
65 P3 159 -4.598
65 P3 160 -4.598
65 P3 161 -5.086
65 P3 162 -5.086
65 P3 163 -5.086
65 P3 164 -5.086
65 P3 165 -5.575
65 P3 166 -6.551
65 P3 167 -7.528
65 P3 168 -7.528
65 P3 169 -6.551
65 P3 170 -5.086
65 P3 171 -4.110
65 P3 172 -3.621
65 P3 173 -4.110
65 P3 174 -4.110
65 P3 175 -3.621
65 P3 176 -2.645
65 P3 177 -2.157
65 P3 178 -1.668
65 P3 179 -1.668
65 P3 180 -2.157
65 P3 181 -2.157
65 P3 182 -2.157
65 P3 183 -1.668
65 P3 184 -1.668
65 P3 185 -2.157
65 P3 186 -2.645
65 P3 187 -1.668
65 P3 188 0.285
65 P3 189 3.703
65 P3 190 7.121
65 P3 191 9.562
65 P3 192 10.539
65 P3 193 8.586
65 P3 194 5.656
65 P3 195 2.238
65 P3 196 0.285
65 P3 197 -1.180
65 P3 198 -0.692
65 P3 199 -0.203
65 P3 200 -0.692
65 P3 201 -1.180
65 P3 202 -2.157
65 P3 203 -2.645
65 P3 204 -2.157
65 P3 205 -1.180
65 P3 206 0.285
65 P3 207 1.261
65 P3 208 1.750
65 P3 209 0.773
65 P3 210 -0.203
65 P3 211 -1.668
65 P3 212 -3.133
65 P3 213 -4.110
65 P3 214 -4.598
65 P3 215 -4.598
65 P3 216 -4.110
65 P3 217 -4.110
65 P3 218 -3.133
65 P3 219 -3.133
65 P3 220 -4.110
65 P3 221 -5.086
65 P3 222 -6.551
65 P3 223 -8.016
65 P3 224 -8.993
65 P3 225 -9.481
65 P3 226 -8.993
65 P3 227 -8.016
65 P3 228 -7.528
65 P3 229 -7.528
65 P3 230 -8.016
65 P3 231 -8.016
65 P3 232 -7.528
65 P3 233 -7.528
65 P3 234 -7.528
65 P3 235 -7.528
65 P3 236 -8.016
65 P3 237 -8.504
65 P3 238 -8.504
65 P3 239 -8.504
65 P3 240 -7.528
65 P3 241 -6.551
65 P3 242 -5.575
65 P3 243 -5.575
65 P3 244 -6.063
65 P3 245 -6.063
65 P3 246 -6.551
65 P3 247 -6.551
65 P3 248 -6.551
65 P3 249 -7.528
65 P3 250 -8.504
65 P3 251 -8.993
65 P3 252 -9.481
65 P3 253 -9.481
65 P3 254 -9.969
65 P3 255 -10.457
# P4 chan 23
65 P4 0 2.065
65 P4 1 2.553
65 P4 2 3.042
65 P4 3 3.530
65 P4 4 3.530
65 P4 5 3.042
65 P4 6 2.065
65 P4 7 1.088
65 P4 8 0.112
65 P4 9 -0.376
65 P4 10 -0.376
65 P4 11 0.112
65 P4 12 1.088
65 P4 13 1.577
65 P4 14 2.065
65 P4 15 0.600
65 P4 16 -0.865
65 P4 17 -3.306
65 P4 18 -4.771
65 P4 19 -4.771
65 P4 20 -3.306
65 P4 21 -1.353
65 P4 22 0.600
65 P4 23 2.065
65 P4 24 2.553
65 P4 25 2.553
65 P4 26 1.577
65 P4 27 0.600
65 P4 28 0.112
65 P4 29 -0.376
65 P4 30 -0.865
65 P4 31 -0.865
65 P4 32 -0.376
65 P4 33 -0.376
65 P4 34 0.112
65 P4 35 0.112
65 P4 36 -0.865
65 P4 37 -1.353
65 P4 38 -2.818
65 P4 39 -3.794
65 P4 40 -3.794
65 P4 41 -3.306
65 P4 42 -2.330
65 P4 43 -1.841
65 P4 44 -0.865
65 P4 45 -0.376
65 P4 46 -0.376
65 P4 47 -0.376
65 P4 48 -0.865
65 P4 49 -1.353
65 P4 50 -1.841
65 P4 51 -2.818
65 P4 52 -3.306
65 P4 53 -2.818
65 P4 54 -2.330
65 P4 55 -1.353
65 P4 56 -1.353
65 P4 57 -1.841
65 P4 58 -2.818
65 P4 59 -3.306
65 P4 60 -2.330
65 P4 61 -1.353
65 P4 62 -0.376
65 P4 63 0.600
65 P4 64 0.112
65 P4 65 -0.376
65 P4 66 -0.376
65 P4 67 0.112
65 P4 68 1.088
65 P4 69 2.065
65 P4 70 1.577
65 P4 71 0.112
65 P4 72 -1.841
65 P4 73 -3.794
65 P4 74 -4.283
65 P4 75 -4.283
65 P4 76 -4.283
65 P4 77 -3.794
65 P4 78 -3.794
65 P4 79 -3.306
65 P4 80 -2.330
65 P4 81 -0.865
65 P4 82 0.600
65 P4 83 2.553
65 P4 84 3.530
65 P4 85 4.018
65 P4 86 4.506
65 P4 87 5.483
65 P4 88 5.971
65 P4 89 6.948
65 P4 90 7.436
65 P4 91 6.948
65 P4 92 6.460
65 P4 93 5.483
65 P4 94 4.995
65 P4 95 4.018
65 P4 96 2.553
65 P4 97 1.577
65 P4 98 0.600
65 P4 99 -0.376
65 P4 100 -0.376
65 P4 101 -0.376
65 P4 102 0.112
65 P4 103 1.088
65 P4 104 2.065
65 P4 105 3.042
65 P4 106 4.018
65 P4 107 4.018
65 P4 108 3.530
65 P4 109 3.530
65 P4 110 4.018
65 P4 111 4.018
65 P4 112 4.018
65 P4 113 3.042
65 P4 114 1.577
65 P4 115 0.112
65 P4 116 -1.353
65 P4 117 -2.330
65 P4 118 -3.306
65 P4 119 -3.794
65 P4 120 -4.771
65 P4 121 -5.747
65 P4 122 -6.236
65 P4 123 -6.724
65 P4 124 -7.212
65 P4 125 -7.701
65 P4 126 -7.701
65 P4 127 -7.701
65 P4 128 -6.236
65 P4 129 -4.771
65 P4 130 -2.818
65 P4 131 -0.865
65 P4 132 0.112
65 P4 133 0.600
65 P4 134 0.600
65 P4 135 0.112
65 P4 136 -0.376
65 P4 137 -0.865
65 P4 138 -0.376
65 P4 139 -0.376
65 P4 140 0.112
65 P4 141 0.112
65 P4 142 -0.376
65 P4 143 -0.376
65 P4 144 -0.376
65 P4 145 1.088
65 P4 146 1.577
65 P4 147 2.065
65 P4 148 1.088
65 P4 149 -0.376
65 P4 150 -1.841
65 P4 151 -2.330
65 P4 152 -2.330
65 P4 153 -2.330
65 P4 154 -3.306
65 P4 155 -4.283
65 P4 156 -4.771
65 P4 157 -4.771
65 P4 158 -3.306
65 P4 159 -1.841
65 P4 160 -1.353
65 P4 161 -1.841
65 P4 162 -2.818
65 P4 163 -3.794
65 P4 164 -3.794
65 P4 165 -3.306
65 P4 166 -2.818
65 P4 167 -2.330
65 P4 168 -1.841
65 P4 169 -1.841
65 P4 170 -0.865
65 P4 171 -0.376
65 P4 172 0.112
65 P4 173 0.112
65 P4 174 -0.376
65 P4 175 -0.865
65 P4 176 -1.841
65 P4 177 -1.841
65 P4 178 -1.841
65 P4 179 -2.330
65 P4 180 -3.306
65 P4 181 -3.794
65 P4 182 -3.306
65 P4 183 -2.330
65 P4 184 -1.353
65 P4 185 -0.376
65 P4 186 -0.865
65 P4 187 -2.330
65 P4 188 -4.771
65 P4 189 -6.724
65 P4 190 -7.701
65 P4 191 -7.701
65 P4 192 -7.212
65 P4 193 -5.747
65 P4 194 -4.771
65 P4 195 -3.306
65 P4 196 -1.841
65 P4 197 -0.376
65 P4 198 0.112
65 P4 199 -0.376
65 P4 200 -1.353
65 P4 201 -2.818
65 P4 202 -3.306
65 P4 203 -2.818
65 P4 204 -1.353
65 P4 205 -0.376
65 P4 206 0.600
65 P4 207 1.088
65 P4 208 1.577
65 P4 209 2.065
65 P4 210 1.577
65 P4 211 0.600
65 P4 212 -1.353
65 P4 213 -3.794
65 P4 214 -5.259
65 P4 215 -5.747
65 P4 216 -5.259
65 P4 217 -4.771
65 P4 218 -4.283
65 P4 219 -4.771
65 P4 220 -4.771
65 P4 221 -4.771
65 P4 222 -4.771
65 P4 223 -5.259
65 P4 224 -5.747
65 P4 225 -6.236
65 P4 226 -6.236
65 P4 227 -6.236
65 P4 228 -5.747
65 P4 229 -5.747
65 P4 230 -5.259
65 P4 231 -4.771
65 P4 232 -3.794
65 P4 233 -3.794
65 P4 234 -4.283
65 P4 235 -5.259
65 P4 236 -6.724
65 P4 237 -7.701
65 P4 238 -7.701
65 P4 239 -6.724
65 P4 240 -5.747
65 P4 241 -5.259
65 P4 242 -4.771
65 P4 243 -5.259
65 P4 244 -6.236
65 P4 245 -6.236
65 P4 246 -6.236
65 P4 247 -6.236
65 P4 248 -6.724
65 P4 249 -7.212
65 P4 250 -7.701
65 P4 251 -8.189
65 P4 252 -7.701
65 P4 253 -7.701
65 P4 254 -8.677
65 P4 255 -9.654
# PZ chan 24
65 PZ 0 -0.010
65 PZ 1 0.478
65 PZ 2 0.966
65 PZ 3 0.966
65 PZ 4 0.966
65 PZ 5 0.966
65 PZ 6 0.478
65 PZ 7 -0.010
65 PZ 8 -0.987
65 PZ 9 -1.475
65 PZ 10 -1.475
65 PZ 11 -0.987
65 PZ 12 -0.010
65 PZ 13 0.478
65 PZ 14 1.455
65 PZ 15 0.966
65 PZ 16 -0.498
65 PZ 17 -1.963
65 PZ 18 -3.428
65 PZ 19 -3.428
65 PZ 20 -2.452
65 PZ 21 -1.475
65 PZ 22 -0.498
65 PZ 23 -0.010
65 PZ 24 -0.010
65 PZ 25 -0.498
65 PZ 26 -0.498
65 PZ 27 -0.987
65 PZ 28 -0.987
65 PZ 29 -1.475
65 PZ 30 -1.963
65 PZ 31 -2.940
65 PZ 32 -3.428
65 PZ 33 -2.940
65 PZ 34 -1.963
65 PZ 35 -1.475
65 PZ 36 -0.987
65 PZ 37 -0.987
65 PZ 38 -0.987
65 PZ 39 -1.475
65 PZ 40 -0.987
65 PZ 41 -0.987
65 PZ 42 -0.498
65 PZ 43 -0.010
65 PZ 44 -0.010
65 PZ 45 0.478
65 PZ 46 0.478
65 PZ 47 0.478
65 PZ 48 0.478
65 PZ 49 0.478
65 PZ 50 -0.010
65 PZ 51 -0.010
65 PZ 52 -0.010
65 PZ 53 -0.010
65 PZ 54 -0.010
65 PZ 55 -0.010
65 PZ 56 -0.498
65 PZ 57 -1.475
65 PZ 58 -2.452
65 PZ 59 -3.428
65 PZ 60 -3.916
65 PZ 61 -3.916
65 PZ 62 -3.428
65 PZ 63 -2.452
65 PZ 64 -1.963
65 PZ 65 -1.963
65 PZ 66 -2.452
65 PZ 67 -1.475
65 PZ 68 -0.498
65 PZ 69 0.478
65 PZ 70 0.966
65 PZ 71 0.966
65 PZ 72 -0.010
65 PZ 73 -0.987
65 PZ 74 -1.963
65 PZ 75 -1.963
65 PZ 76 -2.452
65 PZ 77 -3.428
65 PZ 78 -4.405
65 PZ 79 -4.405
65 PZ 80 -4.405
65 PZ 81 -3.428
65 PZ 82 -1.963
65 PZ 83 -0.987
65 PZ 84 -0.498
65 PZ 85 -0.498
65 PZ 86 -0.010
65 PZ 87 0.478
65 PZ 88 1.455
65 PZ 89 2.431
65 PZ 90 2.920
65 PZ 91 3.408
65 PZ 92 3.408
65 PZ 93 3.408
65 PZ 94 2.920
65 PZ 95 1.455
65 PZ 96 -0.010
65 PZ 97 -1.475
65 PZ 98 -2.452
65 PZ 99 -2.940
65 PZ 100 -2.940
65 PZ 101 -2.452
65 PZ 102 -1.963
65 PZ 103 -1.963
65 PZ 104 -1.475
65 PZ 105 -1.475
65 PZ 106 -0.987
65 PZ 107 -0.987
65 PZ 108 -0.987
65 PZ 109 -0.987
65 PZ 110 -0.010
65 PZ 111 0.478
65 PZ 112 0.478
65 PZ 113 0.478
65 PZ 114 -0.498
65 PZ 115 -1.963
65 PZ 116 -2.940
65 PZ 117 -3.428
65 PZ 118 -3.428
65 PZ 119 -4.405
65 PZ 120 -5.381
65 PZ 121 -6.358
65 PZ 122 -6.846
65 PZ 123 -6.846
65 PZ 124 -6.358
65 PZ 125 -6.358
65 PZ 126 -6.358
65 PZ 127 -5.870
65 PZ 128 -5.870
65 PZ 129 -4.893
65 PZ 130 -3.428
65 PZ 131 -2.452
65 PZ 132 -0.987
65 PZ 133 -0.498
65 PZ 134 -0.010
65 PZ 135 -0.010
65 PZ 136 -0.010
65 PZ 137 -0.498
65 PZ 138 -0.498
65 PZ 139 -0.010
65 PZ 140 0.478
65 PZ 141 0.478
65 PZ 142 0.478
65 PZ 143 -0.010
65 PZ 144 -0.010
65 PZ 145 0.478
65 PZ 146 0.966
65 PZ 147 1.455
65 PZ 148 0.966
65 PZ 149 -0.498
65 PZ 150 -1.963
65 PZ 151 -2.452
65 PZ 152 -2.452
65 PZ 153 -2.940
65 PZ 154 -2.940
65 PZ 155 -3.916
65 PZ 156 -4.405
65 PZ 157 -4.405
65 PZ 158 -3.916
65 PZ 159 -2.940
65 PZ 160 -2.452
65 PZ 161 -2.452
65 PZ 162 -3.428
65 PZ 163 -3.916
65 PZ 164 -3.916
65 PZ 165 -3.916
65 PZ 166 -3.916
65 PZ 167 -3.916
65 PZ 168 -3.916
65 PZ 169 -3.428
65 PZ 170 -2.452
65 PZ 171 -1.475
65 PZ 172 -0.498
65 PZ 173 -0.987
65 PZ 174 -1.475
65 PZ 175 -1.963
65 PZ 176 -1.963
65 PZ 177 -1.963
65 PZ 178 -1.475
65 PZ 179 -0.987
65 PZ 180 -1.475
65 PZ 181 -1.963
65 PZ 182 -1.963
65 PZ 183 -1.475
65 PZ 184 -0.987
65 PZ 185 -0.498
65 PZ 186 -0.498
65 PZ 187 -0.987
65 PZ 188 -0.987
65 PZ 189 -0.498
65 PZ 190 0.478
65 PZ 191 1.943
65 PZ 192 2.431
65 PZ 193 1.943
65 PZ 194 1.455
65 PZ 195 0.478
65 PZ 196 -0.010
65 PZ 197 -0.498
65 PZ 198 -0.010
65 PZ 199 -0.010
65 PZ 200 -0.498
65 PZ 201 -0.987
65 PZ 202 -0.987
65 PZ 203 -0.498
65 PZ 204 -0.010
65 PZ 205 0.966
65 PZ 206 1.943
65 PZ 207 2.431
65 PZ 208 2.920
65 PZ 209 2.431
65 PZ 210 1.455
65 PZ 211 -0.010
65 PZ 212 -1.963
65 PZ 213 -3.916
65 PZ 214 -4.893
65 PZ 215 -4.893
65 PZ 216 -3.916
65 PZ 217 -3.428
65 PZ 218 -2.940
65 PZ 219 -3.428
65 PZ 220 -4.405
65 PZ 221 -4.893
65 PZ 222 -5.870
65 PZ 223 -6.846
65 PZ 224 -7.334
65 PZ 225 -7.823
65 PZ 226 -7.823
65 PZ 227 -7.334
65 PZ 228 -6.846
65 PZ 229 -6.846
65 PZ 230 -5.870
65 PZ 231 -5.381
65 PZ 232 -4.893
65 PZ 233 -4.405
65 PZ 234 -4.405
65 PZ 235 -4.893
65 PZ 236 -5.870
65 PZ 237 -6.358
65 PZ 238 -6.846
65 PZ 239 -6.846
65 PZ 240 -6.358
65 PZ 241 -5.870
65 PZ 242 -5.381
65 PZ 243 -5.870
65 PZ 244 -6.358
65 PZ 245 -6.846
65 PZ 246 -6.846
65 PZ 247 -6.358
65 PZ 248 -6.358
65 PZ 249 -6.846
65 PZ 250 -7.334
65 PZ 251 -8.311
65 PZ 252 -8.311
65 PZ 253 -8.311
65 PZ 254 -8.799
65 PZ 255 -9.288
# P8 chan 25
65 P8 0 2.920
65 P8 1 2.431
65 P8 2 2.431
65 P8 3 2.920
65 P8 4 3.408
65 P8 5 3.408
65 P8 6 2.920
65 P8 7 1.943
65 P8 8 0.966
65 P8 9 0.478
65 P8 10 -0.010
65 P8 11 -0.010
65 P8 12 0.478
65 P8 13 1.943
65 P8 14 2.920
65 P8 15 2.920
65 P8 16 1.455
65 P8 17 -1.475
65 P8 18 -3.428
65 P8 19 -3.428
65 P8 20 -1.963
65 P8 21 0.478
65 P8 22 2.431
65 P8 23 3.896
65 P8 24 3.896
65 P8 25 3.408
65 P8 26 2.920
65 P8 27 1.455
65 P8 28 -0.010
65 P8 29 -1.475
65 P8 30 -2.452
65 P8 31 -2.452
65 P8 32 -0.498
65 P8 33 0.966
65 P8 34 1.943
65 P8 35 1.943
65 P8 36 0.966
65 P8 37 -0.498
65 P8 38 -1.963
65 P8 39 -3.428
65 P8 40 -4.405
65 P8 41 -4.405
65 P8 42 -3.916
65 P8 43 -3.428
65 P8 44 -2.940
65 P8 45 -2.452
65 P8 46 -1.963
65 P8 47 -2.452
65 P8 48 -2.452
65 P8 49 -2.940
65 P8 50 -3.916
65 P8 51 -4.405
65 P8 52 -4.893
65 P8 53 -4.893
65 P8 54 -3.916
65 P8 55 -2.940
65 P8 56 -2.452
65 P8 57 -3.428
65 P8 58 -4.405
65 P8 59 -5.381
65 P8 60 -5.381
65 P8 61 -3.916
65 P8 62 -2.452
65 P8 63 -1.475
65 P8 64 -0.987
65 P8 65 -1.963
65 P8 66 -2.452
65 P8 67 -1.963
65 P8 68 -0.987
65 P8 69 -0.010
65 P8 70 -0.010
65 P8 71 -1.475
65 P8 72 -3.428
65 P8 73 -5.381
65 P8 74 -5.870
65 P8 75 -4.893
65 P8 76 -3.916
65 P8 77 -2.940
65 P8 78 -2.452
65 P8 79 -1.963
65 P8 80 -1.475
65 P8 81 -0.498
65 P8 82 1.455
65 P8 83 3.408
65 P8 84 5.849
65 P8 85 7.314
65 P8 86 8.291
65 P8 87 9.267
65 P8 88 9.755
65 P8 89 10.244
65 P8 90 10.244
65 P8 91 9.755
65 P8 92 9.267
65 P8 93 8.291
65 P8 94 7.802
65 P8 95 7.314
65 P8 96 6.337
65 P8 97 5.361
65 P8 98 4.873
65 P8 99 3.896
65 P8 100 3.896
65 P8 101 4.384
65 P8 102 5.361
65 P8 103 6.337
65 P8 104 7.314
65 P8 105 7.802
65 P8 106 8.291
65 P8 107 8.779
65 P8 108 8.779
65 P8 109 7.802
65 P8 110 6.826
65 P8 111 5.849
65 P8 112 4.384
65 P8 113 3.408
65 P8 114 1.943
65 P8 115 0.478
65 P8 116 -0.987
65 P8 117 -2.452
65 P8 118 -3.916
65 P8 119 -4.893
65 P8 120 -5.870
65 P8 121 -6.358
65 P8 122 -7.334
65 P8 123 -8.311
65 P8 124 -9.288
65 P8 125 -10.264
65 P8 126 -10.752
65 P8 127 -10.264
65 P8 128 -8.311
65 P8 129 -5.870
65 P8 130 -3.916
65 P8 131 -1.963
65 P8 132 -0.987
65 P8 133 -0.498
65 P8 134 -0.987
65 P8 135 -2.452
65 P8 136 -3.916
65 P8 137 -4.893
65 P8 138 -4.405
65 P8 139 -3.916
65 P8 140 -2.940
65 P8 141 -2.940
65 P8 142 -2.940
65 P8 143 -3.428
65 P8 144 -2.940
65 P8 145 -2.452
65 P8 146 -0.498
65 P8 147 -0.010
65 P8 148 -0.010
65 P8 149 -1.475
65 P8 150 -2.940
65 P8 151 -3.916
65 P8 152 -4.893
65 P8 153 -5.381
65 P8 154 -6.358
65 P8 155 -7.334
65 P8 156 -7.823
65 P8 157 -7.334
65 P8 158 -5.870
65 P8 159 -4.405
65 P8 160 -3.428
65 P8 161 -3.428
65 P8 162 -4.405
65 P8 163 -5.870
65 P8 164 -5.870
65 P8 165 -5.870
65 P8 166 -5.381
65 P8 167 -5.381
65 P8 168 -4.893
65 P8 169 -4.893
65 P8 170 -4.405
65 P8 171 -3.428
65 P8 172 -2.452
65 P8 173 -2.452
65 P8 174 -2.940
65 P8 175 -3.916
65 P8 176 -4.405
65 P8 177 -4.405
65 P8 178 -4.405
65 P8 179 -4.893
65 P8 180 -5.870
65 P8 181 -6.846
65 P8 182 -7.334
65 P8 183 -6.846
65 P8 184 -5.381
65 P8 185 -4.405
65 P8 186 -4.893
65 P8 187 -7.334
65 P8 188 -11.729
65 P8 189 -16.612
65 P8 190 -20.518
65 P8 191 -21.983
65 P8 192 -21.495
65 P8 193 -19.053
65 P8 194 -15.147
65 P8 195 -10.752
65 P8 196 -5.870
65 P8 197 -2.940
65 P8 198 -1.963
65 P8 199 -2.940
65 P8 200 -5.381
65 P8 201 -7.823
65 P8 202 -8.799
65 P8 203 -7.823
65 P8 204 -6.358
65 P8 205 -4.893
65 P8 206 -3.916
65 P8 207 -2.940
65 P8 208 -2.452
65 P8 209 -1.963
65 P8 210 -1.963
65 P8 211 -3.428
65 P8 212 -5.870
65 P8 213 -8.311
65 P8 214 -9.776
65 P8 215 -9.776
65 P8 216 -9.288
65 P8 217 -8.311
65 P8 218 -7.823
65 P8 219 -6.846
65 P8 220 -6.358
65 P8 221 -5.870
65 P8 222 -5.870
65 P8 223 -5.870
65 P8 224 -6.846
65 P8 225 -8.311
65 P8 226 -9.776
65 P8 227 -10.264
65 P8 228 -10.752
65 P8 229 -10.264
65 P8 230 -9.776
65 P8 231 -8.799
65 P8 232 -7.334
65 P8 233 -6.846
65 P8 234 -7.334
65 P8 235 -9.288
65 P8 236 -11.241
65 P8 237 -12.217
65 P8 238 -12.217
65 P8 239 -10.264
65 P8 240 -7.823
65 P8 241 -5.870
65 P8 242 -5.381
65 P8 243 -5.870
65 P8 244 -6.846
65 P8 245 -7.334
65 P8 246 -7.823
65 P8 247 -7.823
65 P8 248 -8.311
65 P8 249 -9.288
65 P8 250 -10.264
65 P8 251 -10.752
65 P8 252 -10.752
65 P8 253 -11.241
65 P8 254 -12.217
65 P8 255 -14.170
# P7 chan 26
65 P7 0 -0.183
65 P7 1 -0.671
65 P7 2 -2.136
65 P7 3 -4.089
65 P7 4 -4.089
65 P7 5 -3.113
65 P7 6 -2.136
65 P7 7 -1.648
65 P7 8 -3.113
65 P7 9 -5.066
65 P7 10 -6.042
65 P7 11 -5.066
65 P7 12 -2.625
65 P7 13 -0.183
65 P7 14 0.793
65 P7 15 0.793
65 P7 16 -0.671
65 P7 17 -2.625
65 P7 18 -3.601
65 P7 19 -3.601
65 P7 20 -2.625
65 P7 21 -0.671
65 P7 22 0.793
65 P7 23 1.770
65 P7 24 1.770
65 P7 25 1.282
65 P7 26 -0.671
65 P7 27 -2.136
65 P7 28 -3.601
65 P7 29 -4.578
65 P7 30 -5.066
65 P7 31 -5.554
65 P7 32 -5.066
65 P7 33 -5.066
65 P7 34 -4.089
65 P7 35 -2.625
65 P7 36 -0.671
65 P7 37 -0.183
65 P7 38 -0.671
65 P7 39 -3.113
65 P7 40 -6.042
65 P7 41 -7.996
65 P7 42 -8.484
65 P7 43 -7.019
65 P7 44 -5.554
65 P7 45 -4.578
65 P7 46 -5.066
65 P7 47 -6.042
65 P7 48 -6.531
65 P7 49 -6.531
65 P7 50 -5.554
65 P7 51 -4.578
65 P7 52 -3.113
65 P7 53 -1.648
65 P7 54 -0.671
65 P7 55 -0.671
65 P7 56 -1.648
65 P7 57 -4.089
65 P7 58 -7.019
65 P7 59 -9.460
65 P7 60 -10.437
65 P7 61 -9.460
65 P7 62 -7.507
65 P7 63 -6.042
65 P7 64 -4.578
65 P7 65 -5.066
65 P7 66 -5.066
65 P7 67 -5.554
65 P7 68 -5.066
65 P7 69 -5.066
65 P7 70 -5.066
65 P7 71 -5.554
65 P7 72 -6.531
65 P7 73 -6.531
65 P7 74 -5.066
65 P7 75 -3.601
65 P7 76 -2.625
65 P7 77 -3.113
65 P7 78 -4.578
65 P7 79 -6.042
65 P7 80 -6.042
65 P7 81 -4.578
65 P7 82 -2.136
65 P7 83 -0.671
65 P7 84 0.793
65 P7 85 1.282
65 P7 86 0.793
65 P7 87 0.793
65 P7 88 1.282
65 P7 89 1.770
65 P7 90 1.770
65 P7 91 1.770
65 P7 92 2.258
65 P7 93 2.747
65 P7 94 2.747
65 P7 95 2.258
65 P7 96 0.793
65 P7 97 -1.648
65 P7 98 -3.113
65 P7 99 -3.601
65 P7 100 -3.113
65 P7 101 -2.136
65 P7 102 -1.160
65 P7 103 -0.183
65 P7 104 0.793
65 P7 105 2.747
65 P7 106 3.723
65 P7 107 2.747
65 P7 108 0.793
65 P7 109 -1.648
65 P7 110 -4.089
65 P7 111 -5.554
65 P7 112 -6.531
65 P7 113 -8.484
65 P7 114 -10.437
65 P7 115 -11.902
65 P7 116 -11.902
65 P7 117 -10.437
65 P7 118 -8.484
65 P7 119 -7.507
65 P7 120 -7.996
65 P7 121 -9.460
65 P7 122 -11.414
65 P7 123 -11.902
65 P7 124 -12.390
65 P7 125 -11.902
65 P7 126 -11.902
65 P7 127 -11.414
65 P7 128 -10.925
65 P7 129 -9.460
65 P7 130 -8.484
65 P7 131 -7.507
65 P7 132 -6.531
65 P7 133 -5.554
65 P7 134 -4.089
65 P7 135 -2.625
65 P7 136 -2.136
65 P7 137 -3.113
65 P7 138 -4.089
65 P7 139 -4.089
65 P7 140 -3.113
65 P7 141 -1.160
65 P7 142 -0.183
65 P7 143 -0.671
65 P7 144 -2.136
65 P7 145 -3.113
65 P7 146 -3.113
65 P7 147 -2.625
65 P7 148 -2.136
65 P7 149 -2.625
65 P7 150 -3.601
65 P7 151 -4.578
65 P7 152 -4.089
65 P7 153 -3.601
65 P7 154 -3.601
65 P7 155 -4.578
65 P7 156 -6.042
65 P7 157 -6.531
65 P7 158 -6.042
65 P7 159 -5.066
65 P7 160 -4.578
65 P7 161 -4.089
65 P7 162 -5.066
65 P7 163 -5.554
65 P7 164 -7.019
65 P7 165 -8.484
65 P7 166 -9.949
65 P7 167 -10.925
65 P7 168 -10.925
65 P7 169 -9.460
65 P7 170 -7.019
65 P7 171 -5.554
65 P7 172 -5.066
65 P7 173 -5.554
65 P7 174 -5.066
65 P7 175 -4.578
65 P7 176 -3.113
65 P7 177 -2.136
65 P7 178 -2.136
65 P7 179 -3.113
65 P7 180 -3.601
65 P7 181 -4.089
65 P7 182 -3.601
65 P7 183 -3.601
65 P7 184 -4.089
65 P7 185 -5.066
65 P7 186 -5.066
65 P7 187 -3.601
65 P7 188 0.793
65 P7 189 7.141
65 P7 190 13.977
65 P7 191 17.883
65 P7 192 18.372
65 P7 193 14.954
65 P7 194 9.583
65 P7 195 3.723
65 P7 196 -0.183
65 P7 197 -2.136
65 P7 198 -1.648
65 P7 199 -0.671
65 P7 200 -0.671
65 P7 201 -1.648
65 P7 202 -3.113
65 P7 203 -4.578
65 P7 204 -5.066
65 P7 205 -4.578
65 P7 206 -3.113
65 P7 207 -2.625
65 P7 208 -2.136
65 P7 209 -2.136
65 P7 210 -2.136
65 P7 211 -2.625
65 P7 212 -3.601
65 P7 213 -5.066
65 P7 214 -6.042
65 P7 215 -7.019
65 P7 216 -6.531
65 P7 217 -5.554
65 P7 218 -4.578
65 P7 219 -4.089
65 P7 220 -5.066
65 P7 221 -7.019
65 P7 222 -8.972
65 P7 223 -10.437
65 P7 224 -10.437
65 P7 225 -8.972
65 P7 226 -7.996
65 P7 227 -7.507
65 P7 228 -8.484
65 P7 229 -10.437
65 P7 230 -11.902
65 P7 231 -11.902
65 P7 232 -10.925
65 P7 233 -9.949
65 P7 234 -9.949
65 P7 235 -10.437
65 P7 236 -10.925
65 P7 237 -10.925
65 P7 238 -10.437
65 P7 239 -8.484
65 P7 240 -5.554
65 P7 241 -3.601
65 P7 242 -3.601
65 P7 243 -4.089
65 P7 244 -5.554
65 P7 245 -6.042
65 P7 246 -5.554
65 P7 247 -5.066
65 P7 248 -5.066
65 P7 249 -6.531
65 P7 250 -7.996
65 P7 251 -9.460
65 P7 252 -10.437
65 P7 253 -10.437
65 P7 254 -10.437
65 P7 255 -10.925
# PO2 chan 27
65 PO2 0 1.088
65 PO2 1 1.088
65 PO2 2 1.577
65 PO2 3 2.065
65 PO2 4 2.553
65 PO2 5 2.553
65 PO2 6 1.577
65 PO2 7 0.112
65 PO2 8 -1.353
65 PO2 9 -2.330
65 PO2 10 -2.330
65 PO2 11 -1.353
65 PO2 12 0.112
65 PO2 13 1.577
65 PO2 14 1.577
65 PO2 15 0.600
65 PO2 16 -1.841
65 PO2 17 -3.794
65 PO2 18 -4.771
65 PO2 19 -3.794
65 PO2 20 -1.841
65 PO2 21 0.112
65 PO2 22 2.065
65 PO2 23 3.042
65 PO2 24 3.042
65 PO2 25 3.042
65 PO2 26 2.553
65 PO2 27 2.553
65 PO2 28 1.577
65 PO2 29 0.600
65 PO2 30 -0.865
65 PO2 31 -1.841
65 PO2 32 -2.330
65 PO2 33 -1.353
65 PO2 34 -0.376
65 PO2 35 0.600
65 PO2 36 0.112
65 PO2 37 -1.353
65 PO2 38 -2.818
65 PO2 39 -3.794
65 PO2 40 -3.794
65 PO2 41 -3.306
65 PO2 42 -1.841
65 PO2 43 -0.865
65 PO2 44 -0.865
65 PO2 45 -1.353
65 PO2 46 -1.353
65 PO2 47 -0.865
65 PO2 48 -0.376
65 PO2 49 0.112
65 PO2 50 -0.376
65 PO2 51 -1.841
65 PO2 52 -2.818
65 PO2 53 -3.306
65 PO2 54 -2.330
65 PO2 55 -0.865
65 PO2 56 -0.376
65 PO2 57 -0.865
65 PO2 58 -2.330
65 PO2 59 -4.283
65 PO2 60 -5.259
65 PO2 61 -4.283
65 PO2 62 -1.841
65 PO2 63 -0.376
65 PO2 64 0.600
65 PO2 65 0.112
65 PO2 66 -0.376
65 PO2 67 -0.376
65 PO2 68 0.600
65 PO2 69 2.065
65 PO2 70 2.553
65 PO2 71 2.065
65 PO2 72 -0.376
65 PO2 73 -2.330
65 PO2 74 -4.283
65 PO2 75 -4.771
65 PO2 76 -4.771
65 PO2 77 -4.771
65 PO2 78 -4.771
65 PO2 79 -5.259
65 PO2 80 -4.771
65 PO2 81 -3.794
65 PO2 82 -1.841
65 PO2 83 -0.376
65 PO2 84 1.088
65 PO2 85 2.065
65 PO2 86 3.042
65 PO2 87 4.506
65 PO2 88 5.483
65 PO2 89 6.460
65 PO2 90 6.460
65 PO2 91 5.971
65 PO2 92 5.971
65 PO2 93 5.483
65 PO2 94 4.995
65 PO2 95 3.530
65 PO2 96 1.088
65 PO2 97 -1.353
65 PO2 98 -3.794
65 PO2 99 -4.771
65 PO2 100 -4.283
65 PO2 101 -2.818
65 PO2 102 -1.841
65 PO2 103 -0.376
65 PO2 104 1.088
65 PO2 105 2.065
65 PO2 106 3.042
65 PO2 107 3.530
65 PO2 108 3.530
65 PO2 109 3.530
65 PO2 110 3.530
65 PO2 111 4.018
65 PO2 112 3.530
65 PO2 113 3.042
65 PO2 114 1.088
65 PO2 115 -0.376
65 PO2 116 -2.330
65 PO2 117 -3.306
65 PO2 118 -4.283
65 PO2 119 -5.747
65 PO2 120 -7.212
65 PO2 121 -8.677
65 PO2 122 -9.165
65 PO2 123 -9.165
65 PO2 124 -8.677
65 PO2 125 -8.677
65 PO2 126 -9.165
65 PO2 127 -9.165
65 PO2 128 -8.189
65 PO2 129 -6.724
65 PO2 130 -4.283
65 PO2 131 -1.353
65 PO2 132 0.600
65 PO2 133 2.065
65 PO2 134 2.065
65 PO2 135 1.088
65 PO2 136 0.112
65 PO2 137 -0.376
65 PO2 138 -0.376
65 PO2 139 0.600
65 PO2 140 1.577
65 PO2 141 1.577
65 PO2 142 0.600
65 PO2 143 0.112
65 PO2 144 0.112
65 PO2 145 1.577
65 PO2 146 3.042
65 PO2 147 3.530
65 PO2 148 2.553
65 PO2 149 0.112
65 PO2 150 -1.841
65 PO2 151 -2.330
65 PO2 152 -2.330
65 PO2 153 -1.841
65 PO2 154 -2.330
65 PO2 155 -4.283
65 PO2 156 -5.747
65 PO2 157 -5.747
65 PO2 158 -4.283
65 PO2 159 -2.330
65 PO2 160 -1.353
65 PO2 161 -1.353
65 PO2 162 -2.818
65 PO2 163 -4.283
65 PO2 164 -5.259
65 PO2 165 -5.259
65 PO2 166 -4.771
65 PO2 167 -4.283
65 PO2 168 -3.794
65 PO2 169 -2.818
65 PO2 170 -1.841
65 PO2 171 -0.865
65 PO2 172 -0.376
65 PO2 173 -0.865
65 PO2 174 -1.353
65 PO2 175 -2.330
65 PO2 176 -2.330
65 PO2 177 -2.818
65 PO2 178 -3.306
65 PO2 179 -3.306
65 PO2 180 -4.283
65 PO2 181 -4.771
65 PO2 182 -4.283
65 PO2 183 -3.306
65 PO2 184 -1.841
65 PO2 185 -1.353
65 PO2 186 -1.841
65 PO2 187 -3.794
65 PO2 188 -5.259
65 PO2 189 -6.236
65 PO2 190 -5.259
65 PO2 191 -3.306
65 PO2 192 -1.841
65 PO2 193 -1.841
65 PO2 194 -2.330
65 PO2 195 -3.306
65 PO2 196 -3.306
65 PO2 197 -1.841
65 PO2 198 -0.865
65 PO2 199 -0.376
65 PO2 200 -1.841
65 PO2 201 -3.794
65 PO2 202 -5.259
65 PO2 203 -5.259
65 PO2 204 -3.794
65 PO2 205 -1.841
65 PO2 206 0.112
65 PO2 207 0.600
65 PO2 208 1.577
65 PO2 209 1.088
65 PO2 210 0.112
65 PO2 211 -1.841
65 PO2 212 -4.283
65 PO2 213 -6.236
65 PO2 214 -7.701
65 PO2 215 -7.701
65 PO2 216 -6.724
65 PO2 217 -6.724
65 PO2 218 -6.236
