# co2a0000415.rd
# 120 trials, 64 chans, 416 samples 368 post_stim samples
# 3.906000 msecs uV
# S2 nomatch, trial 53
# FP1 chan 0
53 FP1 0 3.662
53 FP1 1 5.127
53 FP1 2 6.592
53 FP1 3 7.080
53 FP1 4 6.104
53 FP1 5 5.127
53 FP1 6 5.127
53 FP1 7 5.127
53 FP1 8 5.615
53 FP1 9 4.639
53 FP1 10 3.174
53 FP1 11 0.244
53 FP1 12 -2.686
53 FP1 13 -3.174
53 FP1 14 -0.732
53 FP1 15 4.150
53 FP1 16 9.033
53 FP1 17 12.939
53 FP1 18 12.939
53 FP1 19 10.498
53 FP1 20 7.080
53 FP1 21 4.639
53 FP1 22 3.662
53 FP1 23 4.639
53 FP1 24 5.615
53 FP1 25 5.615
53 FP1 26 4.639
53 FP1 27 2.197
53 FP1 28 0.244
53 FP1 29 -1.221
53 FP1 30 -2.686
53 FP1 31 -2.686
53 FP1 32 -2.686
53 FP1 33 -0.732
53 FP1 34 1.221
53 FP1 35 2.686
53 FP1 36 3.174
53 FP1 37 2.686
53 FP1 38 2.197
53 FP1 39 2.197
53 FP1 40 2.686
53 FP1 41 3.174
53 FP1 42 3.174
53 FP1 43 3.174
53 FP1 44 3.174
53 FP1 45 4.150
53 FP1 46 6.592
53 FP1 47 8.057
53 FP1 48 9.033
53 FP1 49 9.521
53 FP1 50 9.033
53 FP1 51 9.033
53 FP1 52 9.033
53 FP1 53 10.010
53 FP1 54 10.498
53 FP1 55 10.498
53 FP1 56 9.521
53 FP1 57 8.545
53 FP1 58 8.057
53 FP1 59 7.568
53 FP1 60 7.568
53 FP1 61 8.057
53 FP1 62 8.545
53 FP1 63 10.010
53 FP1 64 10.498
53 FP1 65 10.498
53 FP1 66 10.010
53 FP1 67 10.010
53 FP1 68 10.498
53 FP1 69 12.451
53 FP1 70 14.404
53 FP1 71 15.869
53 FP1 72 16.357
53 FP1 73 15.869
53 FP1 74 14.893
53 FP1 75 14.404
53 FP1 76 15.381
53 FP1 77 16.357
53 FP1 78 17.334
53 FP1 79 17.334
53 FP1 80 16.846
53 FP1 81 16.357
53 FP1 82 15.869
53 FP1 83 15.381
53 FP1 84 14.404
53 FP1 85 12.451
53 FP1 86 10.010
53 FP1 87 8.057
53 FP1 88 6.592
53 FP1 89 6.592
53 FP1 90 7.568
53 FP1 91 8.057
53 FP1 92 8.545
53 FP1 93 9.033
53 FP1 94 9.033
53 FP1 95 8.057
53 FP1 96 7.568
53 FP1 97 5.615
53 FP1 98 3.662
53 FP1 99 2.197
53 FP1 100 1.221
53 FP1 101 1.221
53 FP1 102 1.221
53 FP1 103 1.221
53 FP1 104 1.221
53 FP1 105 0.732
53 FP1 106 0.732
53 FP1 107 0.732
53 FP1 108 0.732
53 FP1 109 1.221
53 FP1 110 2.197
53 FP1 111 3.662
53 FP1 112 5.127
53 FP1 113 7.080
53 FP1 114 9.033
53 FP1 115 10.010
53 FP1 116 10.986
53 FP1 117 11.963
53 FP1 118 12.451
53 FP1 119 12.451
53 FP1 120 12.939
53 FP1 121 12.451
53 FP1 122 12.451
53 FP1 123 12.451
53 FP1 124 12.939
53 FP1 125 13.428
53 FP1 126 14.404
53 FP1 127 14.893
53 FP1 128 14.404
53 FP1 129 14.404
53 FP1 130 13.916
53 FP1 131 12.939
53 FP1 132 11.475
53 FP1 133 9.033
53 FP1 134 8.545
53 FP1 135 7.568
53 FP1 136 7.080
53 FP1 137 6.592
53 FP1 138 6.592
53 FP1 139 6.592
53 FP1 140 6.592
53 FP1 141 7.568
53 FP1 142 8.057
53 FP1 143 8.057
53 FP1 144 6.592
53 FP1 145 5.127
53 FP1 146 4.150
53 FP1 147 3.662
53 FP1 148 5.127
53 FP1 149 7.080
53 FP1 150 8.545
53 FP1 151 8.545
53 FP1 152 7.568
53 FP1 153 5.615
53 FP1 154 3.662
53 FP1 155 2.197
53 FP1 156 1.221
53 FP1 157 0.732
53 FP1 158 0.732
53 FP1 159 1.221
53 FP1 160 3.174
53 FP1 161 5.127
53 FP1 162 7.080
53 FP1 163 8.545
53 FP1 164 8.545
53 FP1 165 7.568
53 FP1 166 6.104
53 FP1 167 5.127
53 FP1 168 4.150
53 FP1 169 3.174
53 FP1 170 1.221
53 FP1 171 -0.244
53 FP1 172 -1.709
53 FP1 173 -1.709
53 FP1 174 -1.709
53 FP1 175 -0.732
53 FP1 176 -0.732
53 FP1 177 -0.244
53 FP1 178 -0.244
53 FP1 179 0.732
53 FP1 180 2.686
53 FP1 181 5.127
53 FP1 182 7.568
53 FP1 183 9.033
53 FP1 184 10.010
53 FP1 185 9.521
53 FP1 186 8.057
53 FP1 187 5.615
53 FP1 188 4.150
53 FP1 189 3.662
53 FP1 190 5.127
53 FP1 191 8.057
53 FP1 192 11.963
53 FP1 193 13.916
53 FP1 194 13.916
53 FP1 195 12.451
53 FP1 196 10.986
53 FP1 197 10.498
53 FP1 198 10.986
53 FP1 199 10.986
53 FP1 200 10.010
53 FP1 201 8.057
53 FP1 202 7.080
53 FP1 203 7.568
53 FP1 204 9.521
53 FP1 205 10.498
53 FP1 206 10.498
53 FP1 207 8.545
53 FP1 208 5.615
53 FP1 209 3.662
53 FP1 210 2.686
53 FP1 211 1.709
53 FP1 212 1.221
53 FP1 213 0.244
53 FP1 214 -0.732
53 FP1 215 -1.221
53 FP1 216 -0.244
53 FP1 217 0.732
53 FP1 218 1.221
53 FP1 219 0.732
53 FP1 220 -0.244
53 FP1 221 -1.709
53 FP1 222 -2.197
53 FP1 223 -1.709
53 FP1 224 -1.709
53 FP1 225 -2.197
53 FP1 226 -2.686
53 FP1 227 -2.686
53 FP1 228 -1.709
53 FP1 229 -0.732
53 FP1 230 -0.244
53 FP1 231 0.244
53 FP1 232 0.732
53 FP1 233 0.732
53 FP1 234 0.732
53 FP1 235 0.732
53 FP1 236 0.732
53 FP1 237 0.732
53 FP1 238 0.732
53 FP1 239 2.197
53 FP1 240 3.662
53 FP1 241 5.127
53 FP1 242 4.639
53 FP1 243 2.197
53 FP1 244 -0.732
53 FP1 245 -2.686
53 FP1 246 -2.197
53 FP1 247 0.244
53 FP1 248 2.686
53 FP1 249 3.662
53 FP1 250 2.686
53 FP1 251 1.221
53 FP1 252 1.221
53 FP1 253 3.174
53 FP1 254 6.104
53 FP1 255 9.033
# FP2 chan 1
53 FP2 0 4.201
53 FP2 1 5.666
53 FP2 2 6.154
53 FP2 3 6.154
53 FP2 4 4.690
53 FP2 5 3.225
53 FP2 6 2.248
53 FP2 7 2.248
53 FP2 8 2.248
53 FP2 9 2.248
53 FP2 10 0.295
53 FP2 11 -2.635
53 FP2 12 -5.076
53 FP2 13 -5.564
53 FP2 14 -1.658
53 FP2 15 5.178
53 FP2 16 12.502
53 FP2 17 16.897
53 FP2 18 16.408
53 FP2 19 13.479
53 FP2 20 9.572
53 FP2 21 7.131
53 FP2 22 7.131
53 FP2 23 8.108
53 FP2 24 9.084
53 FP2 25 7.619
53 FP2 26 5.666
53 FP2 27 3.225
53 FP2 28 0.783
53 FP2 29 -1.170
53 FP2 30 -2.635
53 FP2 31 -3.611
53 FP2 32 -3.611
53 FP2 33 -2.635
53 FP2 34 -1.170
53 FP2 35 0.295
53 FP2 36 0.783
53 FP2 37 0.295
53 FP2 38 -0.682
53 FP2 39 -0.682
53 FP2 40 -2.146
53 FP2 41 -2.635
53 FP2 42 -3.611
53 FP2 43 -4.100
53 FP2 44 -3.123
53 FP2 45 -1.658
53 FP2 46 0.783
53 FP2 47 2.248
53 FP2 48 2.736
53 FP2 49 2.736
53 FP2 50 2.736
53 FP2 51 2.736
53 FP2 52 3.713
53 FP2 53 4.201
53 FP2 54 3.225
53 FP2 55 1.760
53 FP2 56 -0.193
53 FP2 57 -2.146
53 FP2 58 -2.635
53 FP2 59 -2.635
53 FP2 60 -1.170
53 FP2 61 0.295
53 FP2 62 1.760
53 FP2 63 2.248
53 FP2 64 1.760
53 FP2 65 0.295
53 FP2 66 -1.658
53 FP2 67 -2.146
53 FP2 68 -0.682
53 FP2 69 2.248
53 FP2 70 5.666
53 FP2 71 7.131
53 FP2 72 6.643
53 FP2 73 5.666
53 FP2 74 4.690
53 FP2 75 4.690
53 FP2 76 5.666
53 FP2 77 6.154
53 FP2 78 6.154
53 FP2 79 6.154
53 FP2 80 5.666
53 FP2 81 5.666
53 FP2 82 4.690
53 FP2 83 2.736
53 FP2 84 0.783
53 FP2 85 -1.658
53 FP2 86 -3.123
53 FP2 87 -3.123
53 FP2 88 -2.635
53 FP2 89 -1.658
53 FP2 90 -0.682
53 FP2 91 -0.193
53 FP2 92 0.295
53 FP2 93 1.272
53 FP2 94 1.760
53 FP2 95 1.272
53 FP2 96 0.295
53 FP2 97 -1.658
53 FP2 98 -3.611
53 FP2 99 -5.076
53 FP2 100 -6.541
53 FP2 101 -8.006
53 FP2 102 -9.471
53 FP2 103 -11.424
53 FP2 104 -12.889
53 FP2 105 -12.889
53 FP2 106 -11.912
53 FP2 107 -10.447
53 FP2 108 -9.471
53 FP2 109 -8.494
53 FP2 110 -7.517
53 FP2 111 -7.029
53 FP2 112 -6.541
53 FP2 113 -6.053
53 FP2 114 -5.564
53 FP2 115 -5.564
53 FP2 116 -5.076
53 FP2 117 -4.588
53 FP2 118 -3.611
53 FP2 119 -2.635
53 FP2 120 -2.146
53 FP2 121 -1.170
53 FP2 122 -0.193
53 FP2 123 0.783
53 FP2 124 1.272
53 FP2 125 2.248
53 FP2 126 3.225
53 FP2 127 3.225
53 FP2 128 3.713
53 FP2 129 3.713
53 FP2 130 2.736
53 FP2 131 1.760
53 FP2 132 0.295
53 FP2 133 -1.658
53 FP2 134 -3.611
53 FP2 135 -5.076
53 FP2 136 -5.076
53 FP2 137 -4.100
53 FP2 138 -3.123
53 FP2 139 -2.146
53 FP2 140 -1.658
53 FP2 141 -1.658
53 FP2 142 -1.658
53 FP2 143 -2.635
53 FP2 144 -4.100
53 FP2 145 -5.564
53 FP2 146 -7.029
53 FP2 147 -7.517
53 FP2 148 -6.541
53 FP2 149 -5.076
53 FP2 150 -3.123
53 FP2 151 -1.658
53 FP2 152 -1.658
53 FP2 153 -3.123
53 FP2 154 -5.564
53 FP2 155 -8.494
53 FP2 156 -10.447
53 FP2 157 -11.912
53 FP2 158 -12.400
53 FP2 159 -12.889
53 FP2 160 -12.400
53 FP2 161 -11.424
53 FP2 162 -10.447
53 FP2 163 -9.471
53 FP2 164 -9.471
53 FP2 165 -9.471
53 FP2 166 -9.959
53 FP2 167 -10.447
53 FP2 168 -10.935
53 FP2 169 -10.935
53 FP2 170 -11.424
53 FP2 171 -10.935
53 FP2 172 -10.447
53 FP2 173 -10.447
53 FP2 174 -9.959
53 FP2 175 -10.447
53 FP2 176 -10.935
53 FP2 177 -11.424
53 FP2 178 -10.935
53 FP2 179 -9.959
53 FP2 180 -8.006
53 FP2 181 -5.076
53 FP2 182 -2.146
53 FP2 183 -0.193
53 FP2 184 0.295
53 FP2 185 -1.658
53 FP2 186 -5.076
53 FP2 187 -8.494
53 FP2 188 -11.424
53 FP2 189 -12.889
53 FP2 190 -12.400
53 FP2 191 -10.935
53 FP2 192 -8.006
53 FP2 193 -6.053
53 FP2 194 -5.076
53 FP2 195 -6.053
53 FP2 196 -8.494
53 FP2 197 -9.959
53 FP2 198 -11.424
53 FP2 199 -11.912
53 FP2 200 -11.912
53 FP2 201 -11.912
53 FP2 202 -12.400
53 FP2 203 -11.912
53 FP2 204 -12.400
53 FP2 205 -12.400
53 FP2 206 -13.865
53 FP2 207 -15.818
53 FP2 208 -17.283
53 FP2 209 -18.748
53 FP2 210 -19.725
53 FP2 211 -20.213
53 FP2 212 -20.213
53 FP2 213 -21.189
53 FP2 214 -21.189
53 FP2 215 -21.189
53 FP2 216 -21.189
53 FP2 217 -20.701
53 FP2 218 -20.701
53 FP2 219 -21.189
53 FP2 220 -21.678
53 FP2 221 -23.142
53 FP2 222 -24.119
53 FP2 223 -24.607
53 FP2 224 -24.607
53 FP2 225 -24.119
53 FP2 226 -23.631
53 FP2 227 -23.142
53 FP2 228 -22.654
53 FP2 229 -22.654
53 FP2 230 -23.142
53 FP2 231 -23.631
53 FP2 232 -23.631
53 FP2 233 -23.142
53 FP2 234 -23.631
53 FP2 235 -24.119
53 FP2 236 -24.607
53 FP2 237 -25.096
53 FP2 238 -25.096
53 FP2 239 -24.119
53 FP2 240 -22.654
53 FP2 241 -21.678
53 FP2 242 -22.654
53 FP2 243 -24.119
53 FP2 244 -25.584
53 FP2 245 -25.096
53 FP2 246 -22.166
53 FP2 247 -18.260
53 FP2 248 -14.842
53 FP2 249 -13.865
53 FP2 250 -15.330
53 FP2 251 -16.795
53 FP2 252 -16.795
53 FP2 253 -14.842
53 FP2 254 -11.912
53 FP2 255 -9.471
# F7 chan 2
53 F7 0 0.326
53 F7 1 1.302
53 F7 2 1.790
53 F7 3 2.279
53 F7 4 2.279
53 F7 5 2.767
53 F7 6 4.232
53 F7 7 6.673
53 F7 8 8.138
53 F7 9 8.626
53 F7 10 6.673
53 F7 11 3.743
53 F7 12 -0.163
53 F7 13 -2.604
53 F7 14 -2.604
53 F7 15 -0.651
53 F7 16 2.767
53 F7 17 5.697
53 F7 18 5.697
53 F7 19 3.743
53 F7 20 1.302
53 F7 21 -0.163
53 F7 22 0.814
53 F7 23 3.255
53 F7 24 5.208
53 F7 25 5.697
53 F7 26 4.232
53 F7 27 2.279
53 F7 28 1.302
53 F7 29 1.790
53 F7 30 2.767
53 F7 31 3.743
53 F7 32 3.743
53 F7 33 2.279
53 F7 34 1.302
53 F7 35 0.814
53 F7 36 1.302
53 F7 37 2.279
53 F7 38 3.255
53 F7 39 3.255
53 F7 40 2.279
53 F7 41 0.814
53 F7 42 -0.651
53 F7 43 -1.628
53 F7 44 -2.604
53 F7 45 -2.604
53 F7 46 -1.628
53 F7 47 0.326
53 F7 48 1.790
53 F7 49 3.255
53 F7 50 4.232
53 F7 51 5.208
53 F7 52 7.161
53 F7 53 9.603
53 F7 54 12.044
53 F7 55 13.997
53 F7 56 14.486
53 F7 57 14.486
53 F7 58 13.509
53 F7 59 13.997
53 F7 60 14.486
53 F7 61 14.974
53 F7 62 15.462
53 F7 63 15.951
53 F7 64 15.951
53 F7 65 16.439
53 F7 66 16.439
53 F7 67 15.951
53 F7 68 15.951
53 F7 69 15.462
53 F7 70 15.462
53 F7 71 14.974
53 F7 72 14.486
53 F7 73 13.997
53 F7 74 13.509
53 F7 75 13.021
53 F7 76 12.044
53 F7 77 11.068
53 F7 78 9.603
53 F7 79 7.650
53 F7 80 5.697
53 F7 81 3.255
53 F7 82 0.326
53 F7 83 -1.628
53 F7 84 -2.604
53 F7 85 -3.092
53 F7 86 -3.092
53 F7 87 -2.604
53 F7 88 -2.116
53 F7 89 -1.628
53 F7 90 -2.116
53 F7 91 -2.116
53 F7 92 -3.581
53 F7 93 -4.557
53 F7 94 -5.534
53 F7 95 -5.534
53 F7 96 -5.046
53 F7 97 -4.069
53 F7 98 -3.581
53 F7 99 -3.581
53 F7 100 -4.557
53 F7 101 -5.534
53 F7 102 -5.534
53 F7 103 -5.046
53 F7 104 -4.069
53 F7 105 -2.604
53 F7 106 -2.116
53 F7 107 -2.604
53 F7 108 -3.092
53 F7 109 -4.069
53 F7 110 -4.557
53 F7 111 -4.069
53 F7 112 -2.604
53 F7 113 -0.651
53 F7 114 1.790
53 F7 115 3.743
53 F7 116 5.697
53 F7 117 7.161
53 F7 118 7.650
53 F7 119 8.626
53 F7 120 8.626
53 F7 121 8.626
53 F7 122 8.138
53 F7 123 8.138
53 F7 124 7.650
53 F7 125 7.161
53 F7 126 6.673
53 F7 127 6.185
53 F7 128 5.697
53 F7 129 6.185
53 F7 130 6.185
53 F7 131 6.185
53 F7 132 4.232
53 F7 133 1.790
53 F7 134 -1.139
53 F7 135 -2.116
53 F7 136 -2.116
53 F7 137 -0.651
53 F7 138 1.302
53 F7 139 2.279
53 F7 140 3.255
53 F7 141 4.232
53 F7 142 4.720
53 F7 143 4.720
53 F7 144 3.743
53 F7 145 3.255
53 F7 146 2.279
53 F7 147 3.255
53 F7 148 4.720
53 F7 149 5.697
53 F7 150 6.185
53 F7 151 5.697
53 F7 152 4.720
53 F7 153 3.743
53 F7 154 3.255
53 F7 155 2.767
53 F7 156 1.302
53 F7 157 -0.651
53 F7 158 -2.116
53 F7 159 -1.628
53 F7 160 0.326
53 F7 161 3.743
53 F7 162 6.185
53 F7 163 7.650
53 F7 164 8.138
53 F7 165 6.673
53 F7 166 5.697
53 F7 167 4.720
53 F7 168 4.720
53 F7 169 5.208
53 F7 170 5.208
53 F7 171 4.720
53 F7 172 4.232
53 F7 173 2.279
53 F7 174 0.814
53 F7 175 -0.163
53 F7 176 -0.651
53 F7 177 -1.139
53 F7 178 -0.651
53 F7 179 -0.163
53 F7 180 0.326
53 F7 181 0.814
53 F7 182 1.790
53 F7 183 3.743
53 F7 184 5.697
53 F7 185 6.185
53 F7 186 4.720
53 F7 187 1.302
53 F7 188 -1.628
53 F7 189 -2.604
53 F7 190 -1.139
53 F7 191 3.255
53 F7 192 6.673
53 F7 193 7.650
53 F7 194 4.720
53 F7 195 0.326
53 F7 196 -3.092
53 F7 197 -4.069
53 F7 198 -3.092
53 F7 199 -1.628
53 F7 200 -1.628
53 F7 201 -3.092
53 F7 202 -3.581
53 F7 203 -3.092
53 F7 204 -0.651
53 F7 205 1.790
53 F7 206 3.255
53 F7 207 3.743
53 F7 208 3.255
53 F7 209 1.790
53 F7 210 -0.651
53 F7 211 -3.581
53 F7 212 -6.510
53 F7 213 -7.975
53 F7 214 -7.487
53 F7 215 -5.534
53 F7 216 -2.604
53 F7 217 -0.651
53 F7 218 -0.651
53 F7 219 -2.116
53 F7 220 -4.069
53 F7 221 -5.534
53 F7 222 -6.022
53 F7 223 -6.022
53 F7 224 -6.022
53 F7 225 -6.999
53 F7 226 -8.952
53 F7 227 -10.417
53 F7 228 -11.393
53 F7 229 -10.905
53 F7 230 -9.440
53 F7 231 -7.487
53 F7 232 -5.534
53 F7 233 -3.581
53 F7 234 -3.092
53 F7 235 -3.581
53 F7 236 -3.581
53 F7 237 -2.604
53 F7 238 -1.628
53 F7 239 0.326
53 F7 240 1.790
53 F7 241 1.790
53 F7 242 1.302
53 F7 243 0.326
53 F7 244 -0.651
53 F7 245 -1.628
53 F7 246 -2.116
53 F7 247 -2.116
53 F7 248 -1.139
53 F7 249 -0.163
53 F7 250 0.814
53 F7 251 0.814
53 F7 252 1.302
53 F7 253 2.279
53 F7 254 4.720
53 F7 255 8.138
# F8 chan 3
53 F8 0 6.409
53 F8 1 5.920
53 F8 2 5.432
53 F8 3 3.967
53 F8 4 2.014
53 F8 5 1.038
53 F8 6 0.549
53 F8 7 1.038
53 F8 8 2.014
53 F8 9 1.526
53 F8 10 -0.427
53 F8 11 -3.357
53 F8 12 -5.798
53 F8 13 -6.287
53 F8 14 -4.822
53 F8 15 -1.404
53 F8 16 1.526
53 F8 17 2.991
53 F8 18 2.014
53 F8 19 0.061
53 F8 20 -1.404
53 F8 21 -1.404
53 F8 22 -0.427
53 F8 23 0.061
53 F8 24 -0.427
53 F8 25 -1.892
53 F8 26 -3.845
53 F8 27 -4.822
53 F8 28 -5.310
53 F8 29 -5.798
53 F8 30 -7.263
53 F8 31 -9.216
53 F8 32 -11.169
53 F8 33 -11.169
53 F8 34 -9.705
53 F8 35 -7.263
53 F8 36 -5.310
53 F8 37 -4.333
53 F8 38 -4.822
53 F8 39 -6.287
53 F8 40 -8.240
53 F8 41 -9.705
53 F8 42 -10.193
53 F8 43 -10.193
53 F8 44 -9.705
53 F8 45 -8.728
53 F8 46 -7.751
53 F8 47 -6.287
53 F8 48 -5.310
53 F8 49 -4.333
53 F8 50 -3.357
53 F8 51 -3.357
53 F8 52 -3.845
53 F8 53 -4.822
53 F8 54 -5.310
53 F8 55 -5.310
53 F8 56 -5.798
53 F8 57 -5.310
53 F8 58 -5.310
53 F8 59 -5.798
53 F8 60 -6.287
53 F8 61 -6.287
53 F8 62 -5.798
53 F8 63 -5.310
53 F8 64 -4.822
53 F8 65 -4.333
53 F8 66 -4.822
53 F8 67 -4.822
53 F8 68 -4.822
53 F8 69 -4.333
53 F8 70 -3.845
53 F8 71 -4.333
53 F8 72 -3.845
53 F8 73 -3.845
53 F8 74 -3.357
53 F8 75 -2.869
53 F8 76 -2.380
53 F8 77 -2.380
53 F8 78 -2.380
53 F8 79 -2.380
53 F8 80 -2.869
53 F8 81 -3.357
53 F8 82 -3.845
53 F8 83 -4.822
53 F8 84 -5.798
53 F8 85 -6.287
53 F8 86 -6.775
53 F8 87 -6.287
53 F8 88 -5.310
53 F8 89 -3.845
53 F8 90 -2.380
53 F8 91 -0.427
53 F8 92 1.038
53 F8 93 2.502
53 F8 94 2.991
53 F8 95 2.502
53 F8 96 1.038
53 F8 97 -0.427
53 F8 98 -1.892
53 F8 99 -2.380
53 F8 100 -2.380
53 F8 101 -2.869
53 F8 102 -3.845
53 F8 103 -5.310
53 F8 104 -7.751
53 F8 105 -9.705
53 F8 106 -10.681
53 F8 107 -9.705
53 F8 108 -7.263
53 F8 109 -3.845
53 F8 110 -0.427
53 F8 111 1.038
53 F8 112 0.061
53 F8 113 -1.892
53 F8 114 -3.357
53 F8 115 -3.357
53 F8 116 -2.380
53 F8 117 0.061
53 F8 118 2.014
53 F8 119 2.991
53 F8 120 3.967
53 F8 121 3.967
53 F8 122 4.944
53 F8 123 5.920
53 F8 124 7.385
53 F8 125 8.850
53 F8 126 10.315
53 F8 127 11.780
53 F8 128 12.268
53 F8 129 12.268
53 F8 130 11.780
53 F8 131 10.315
53 F8 132 9.338
53 F8 133 8.850
53 F8 134 7.874
53 F8 135 6.897
53 F8 136 5.920
53 F8 137 5.432
53 F8 138 5.432
53 F8 139 5.920
53 F8 140 6.409
53 F8 141 5.920
53 F8 142 4.944
53 F8 143 3.967
53 F8 144 2.991
53 F8 145 2.991
53 F8 146 3.479
53 F8 147 4.456
53 F8 148 5.432
53 F8 149 5.920
53 F8 150 5.920
53 F8 151 5.920
53 F8 152 4.944
53 F8 153 3.479
53 F8 154 1.526
53 F8 155 -0.916
53 F8 156 -2.380
53 F8 157 -4.333
53 F8 158 -5.310
53 F8 159 -5.798
53 F8 160 -5.798
53 F8 161 -4.822
53 F8 162 -2.869
53 F8 163 -1.404
53 F8 164 0.061
53 F8 165 0.549
53 F8 166 0.061
53 F8 167 0.061
53 F8 168 0.061
53 F8 169 -0.427
53 F8 170 -1.404
53 F8 171 -1.892
53 F8 172 -2.869
53 F8 173 -2.869
53 F8 174 -2.380
53 F8 175 -1.892
53 F8 176 -2.380
53 F8 177 -3.357
53 F8 178 -4.822
53 F8 179 -5.798
53 F8 180 -4.822
53 F8 181 -2.380
53 F8 182 0.549
53 F8 183 2.991
53 F8 184 3.967
53 F8 185 3.479
53 F8 186 1.526
53 F8 187 -0.427
53 F8 188 -2.380
53 F8 189 -4.333
53 F8 190 -4.822
53 F8 191 -5.310
53 F8 192 -4.822
53 F8 193 -3.357
53 F8 194 -2.380
53 F8 195 -1.404
53 F8 196 -1.404
53 F8 197 -1.892
53 F8 198 -3.357
53 F8 199 -4.333
53 F8 200 -5.310
53 F8 201 -6.287
53 F8 202 -7.751
53 F8 203 -9.216
53 F8 204 -10.193
53 F8 205 -10.681
53 F8 206 -11.169
53 F8 207 -11.658
53 F8 208 -11.658
53 F8 209 -12.146
53 F8 210 -13.611
53 F8 211 -14.099
53 F8 212 -14.587
53 F8 213 -14.099
53 F8 214 -14.099
53 F8 215 -13.611
53 F8 216 -13.611
53 F8 217 -12.634
53 F8 218 -12.146
53 F8 219 -10.681
53 F8 220 -10.681
53 F8 221 -11.169
53 F8 222 -12.146
53 F8 223 -13.123
53 F8 224 -12.634
53 F8 225 -11.169
53 F8 226 -9.216
53 F8 227 -8.240
53 F8 228 -7.751
53 F8 229 -8.728
53 F8 230 -10.193
53 F8 231 -10.681
53 F8 232 -10.681
53 F8 233 -11.169
53 F8 234 -12.634
53 F8 235 -14.587
53 F8 236 -16.052
53 F8 237 -16.052
53 F8 238 -15.076
53 F8 239 -13.123
53 F8 240 -12.146
53 F8 241 -12.146
53 F8 242 -14.099
53 F8 243 -16.541
53 F8 244 -17.517
53 F8 245 -15.564
53 F8 246 -12.146
53 F8 247 -8.240
53 F8 248 -6.287
53 F8 249 -7.263
53 F8 250 -10.681
53 F8 251 -13.123
53 F8 252 -12.634
53 F8 253 -8.728
53 F8 254 -4.333
53 F8 255 -0.916
# AF1 chan 4
53 AF1 0 0.092
53 AF1 1 1.068
53 AF1 2 2.045
53 AF1 3 2.045
53 AF1 4 1.556
53 AF1 5 1.068
53 AF1 6 1.068
53 AF1 7 2.045
53 AF1 8 3.021
53 AF1 9 3.510
53 AF1 10 3.510
53 AF1 11 2.045
53 AF1 12 1.068
53 AF1 13 1.068
53 AF1 14 2.045
53 AF1 15 3.998
53 AF1 16 7.416
53 AF1 17 8.881
53 AF1 18 9.857
53 AF1 19 9.369
53 AF1 20 7.904
53 AF1 21 6.927
53 AF1 22 7.416
53 AF1 23 7.904
53 AF1 24 8.392
53 AF1 25 8.392
53 AF1 26 7.416
53 AF1 27 5.951
53 AF1 28 3.998
53 AF1 29 2.045
53 AF1 30 1.068
53 AF1 31 1.068
53 AF1 32 1.556
53 AF1 33 3.021
53 AF1 34 4.486
53 AF1 35 4.974
53 AF1 36 4.974
53 AF1 37 4.486
53 AF1 38 4.486
53 AF1 39 4.486
53 AF1 40 4.974
53 AF1 41 4.974
53 AF1 42 3.998
53 AF1 43 3.021
53 AF1 44 2.045
53 AF1 45 3.021
53 AF1 46 3.998
53 AF1 47 5.463
53 AF1 48 5.951
53 AF1 49 5.951
53 AF1 50 5.951
53 AF1 51 6.439
53 AF1 52 6.927
53 AF1 53 7.416
53 AF1 54 6.927
53 AF1 55 5.951
53 AF1 56 3.998
53 AF1 57 2.533
53 AF1 58 1.556
53 AF1 59 1.556
53 AF1 60 2.045
53 AF1 61 3.021
53 AF1 62 3.998
53 AF1 63 4.974
53 AF1 64 5.951
53 AF1 65 5.463
53 AF1 66 4.486
53 AF1 67 3.998
53 AF1 68 3.998
53 AF1 69 6.439
53 AF1 70 8.392
53 AF1 71 9.369
53 AF1 72 9.369
53 AF1 73 8.392
53 AF1 74 7.904
53 AF1 75 7.416
53 AF1 76 7.904
53 AF1 77 8.392
53 AF1 78 8.881
53 AF1 79 8.392
53 AF1 80 7.904
53 AF1 81 7.416
53 AF1 82 6.927
53 AF1 83 6.439
53 AF1 84 5.463
53 AF1 85 3.998
53 AF1 86 2.045
53 AF1 87 1.556
53 AF1 88 1.556
53 AF1 89 2.533
53 AF1 90 3.510
53 AF1 91 3.998
53 AF1 92 4.486
53 AF1 93 3.998
53 AF1 94 3.510
53 AF1 95 3.510
53 AF1 96 3.021
53 AF1 97 2.533
53 AF1 98 1.556
53 AF1 99 0.092
53 AF1 100 -0.885
53 AF1 101 -1.862
53 AF1 102 -2.350
53 AF1 103 -1.862
53 AF1 104 -1.862
53 AF1 105 -1.373
53 AF1 106 -1.862
53 AF1 107 -1.862
53 AF1 108 -1.373
53 AF1 109 -0.885
53 AF1 110 0.092
53 AF1 111 1.068
53 AF1 112 1.556
53 AF1 113 2.045
53 AF1 114 2.533
53 AF1 115 3.510
53 AF1 116 4.486
53 AF1 117 5.463
53 AF1 118 5.463
53 AF1 119 5.463
53 AF1 120 5.463
53 AF1 121 5.951
53 AF1 122 6.439
53 AF1 123 7.416
53 AF1 124 7.904
53 AF1 125 8.392
53 AF1 126 8.881
53 AF1 127 8.881
53 AF1 128 8.881
53 AF1 129 8.392
53 AF1 130 7.904
53 AF1 131 6.927
53 AF1 132 4.974
53 AF1 133 3.510
53 AF1 134 2.045
53 AF1 135 1.068
53 AF1 136 1.556
53 AF1 137 2.045
53 AF1 138 3.021
53 AF1 139 3.998
53 AF1 140 4.974
53 AF1 141 5.951
53 AF1 142 6.439
53 AF1 143 5.951
53 AF1 144 4.486
53 AF1 145 3.021
53 AF1 146 1.068
53 AF1 147 1.068
53 AF1 148 1.556
53 AF1 149 3.510
53 AF1 150 4.974
53 AF1 151 5.951
53 AF1 152 5.463
53 AF1 153 4.486
53 AF1 154 3.021
53 AF1 155 2.045
53 AF1 156 1.068
53 AF1 157 0.580
53 AF1 158 0.092
53 AF1 159 0.092
53 AF1 160 0.092
53 AF1 161 1.556
53 AF1 162 3.021
53 AF1 163 3.998
53 AF1 164 3.998
53 AF1 165 3.021
53 AF1 166 2.045
53 AF1 167 1.556
53 AF1 168 1.556
53 AF1 169 1.556
53 AF1 170 0.580
53 AF1 171 -0.397
53 AF1 172 -1.862
53 AF1 173 -2.838
53 AF1 174 -2.838
53 AF1 175 -2.350
53 AF1 176 -1.373
53 AF1 177 -0.885
53 AF1 178 -0.885
53 AF1 179 -0.885
53 AF1 180 -0.397
53 AF1 181 0.092
53 AF1 182 2.045
53 AF1 183 3.998
53 AF1 184 4.974
53 AF1 185 4.486
53 AF1 186 2.533
53 AF1 187 0.580
53 AF1 188 -0.397
53 AF1 189 -0.397
53 AF1 190 0.580
53 AF1 191 1.556
53 AF1 192 2.045
53 AF1 193 2.045
53 AF1 194 1.068
53 AF1 195 0.580
53 AF1 196 -0.397
53 AF1 197 -0.397
53 AF1 198 -0.397
53 AF1 199 -0.885
53 AF1 200 -1.862
53 AF1 201 -2.350
53 AF1 202 -2.838
53 AF1 203 -2.838
53 AF1 204 -1.862
53 AF1 205 -1.373
53 AF1 206 -1.373
53 AF1 207 -1.373
53 AF1 208 -1.862
53 AF1 209 -2.838
53 AF1 210 -3.815
53 AF1 211 -4.791
53 AF1 212 -5.768
53 AF1 213 -6.256
53 AF1 214 -6.744
53 AF1 215 -6.744
53 AF1 216 -6.256
53 AF1 217 -5.280
53 AF1 218 -4.303
53 AF1 219 -3.815
53 AF1 220 -4.303
53 AF1 221 -4.791
53 AF1 222 -5.768
53 AF1 223 -6.744
53 AF1 224 -7.233
53 AF1 225 -7.233
53 AF1 226 -7.233
53 AF1 227 -7.721
53 AF1 228 -6.744
53 AF1 229 -6.256
53 AF1 230 -5.280
53 AF1 231 -4.791
53 AF1 232 -4.303
53 AF1 233 -4.791
53 AF1 234 -5.280
53 AF1 235 -5.768
53 AF1 236 -6.256
53 AF1 237 -5.768
53 AF1 238 -4.791
53 AF1 239 -3.326
53 AF1 240 -2.350
53 AF1 241 -1.862
53 AF1 242 -2.350
53 AF1 243 -3.326
53 AF1 244 -4.791
53 AF1 245 -5.768
53 AF1 246 -5.280
53 AF1 247 -4.303
53 AF1 248 -3.326
53 AF1 249 -2.838
53 AF1 250 -3.815
53 AF1 251 -4.303
53 AF1 252 -4.303
53 AF1 253 -3.815
53 AF1 254 -2.350
53 AF1 255 -0.885
# AF2 chan 5
53 AF2 0 3.042
53 AF2 1 3.530
53 AF2 2 4.506
53 AF2 3 4.506
53 AF2 4 4.018
53 AF2 5 2.553
53 AF2 6 1.577
53 AF2 7 1.577
53 AF2 8 2.065
53 AF2 9 2.065
53 AF2 10 1.577
53 AF2 11 0.600
53 AF2 12 -0.376
53 AF2 13 -0.376
53 AF2 14 1.088
53 AF2 15 4.018
53 AF2 16 6.460
53 AF2 17 8.413
53 AF2 18 8.413
53 AF2 19 7.436
53 AF2 20 5.483
53 AF2 21 4.995
53 AF2 22 5.483
53 AF2 23 5.483
53 AF2 24 5.971
53 AF2 25 5.483
53 AF2 26 4.506
53 AF2 27 3.530
53 AF2 28 2.553
53 AF2 29 1.088
53 AF2 30 0.112
53 AF2 31 -0.865
53 AF2 32 -0.376
53 AF2 33 0.600
53 AF2 34 2.553
53 AF2 35 3.530
53 AF2 36 4.018
53 AF2 37 3.530
53 AF2 38 3.042
53 AF2 39 2.553
53 AF2 40 2.553
53 AF2 41 2.065
53 AF2 42 1.577
53 AF2 43 0.600
53 AF2 44 0.600
53 AF2 45 1.088
53 AF2 46 2.553
53 AF2 47 4.018
53 AF2 48 5.483
53 AF2 49 6.460
53 AF2 50 6.460
53 AF2 51 6.460
53 AF2 52 5.971
53 AF2 53 4.995
53 AF2 54 3.530
53 AF2 55 2.065
53 AF2 56 1.088
53 AF2 57 0.600
53 AF2 58 0.600
53 AF2 59 0.600
53 AF2 60 1.088
53 AF2 61 1.577
53 AF2 62 3.042
53 AF2 63 4.018
53 AF2 64 4.506
53 AF2 65 3.530
53 AF2 66 2.553
53 AF2 67 1.577
53 AF2 68 2.065
53 AF2 69 4.018
53 AF2 70 6.460
53 AF2 71 7.924
53 AF2 72 7.924
53 AF2 73 6.948
53 AF2 74 6.460
53 AF2 75 6.948
53 AF2 76 8.413
53 AF2 77 9.389
53 AF2 78 9.389
53 AF2 79 8.413
53 AF2 80 6.948
53 AF2 81 6.460
53 AF2 82 5.971
53 AF2 83 5.483
53 AF2 84 4.506
53 AF2 85 3.530
53 AF2 86 2.065
53 AF2 87 1.577
53 AF2 88 2.065
53 AF2 89 3.530
53 AF2 90 4.506
53 AF2 91 4.995
53 AF2 92 4.995
53 AF2 93 4.506
53 AF2 94 4.995
53 AF2 95 4.995
53 AF2 96 5.483
53 AF2 97 4.506
53 AF2 98 3.042
53 AF2 99 1.088
53 AF2 100 -0.376
53 AF2 101 -1.841
53 AF2 102 -2.818
53 AF2 103 -2.818
53 AF2 104 -3.306
53 AF2 105 -3.306
53 AF2 106 -3.306
53 AF2 107 -2.818
53 AF2 108 -1.841
53 AF2 109 -0.865
53 AF2 110 0.112
53 AF2 111 1.088
53 AF2 112 1.577
53 AF2 113 1.088
53 AF2 114 1.088
53 AF2 115 1.088
53 AF2 116 1.088
53 AF2 117 1.577
53 AF2 118 2.065
53 AF2 119 3.042
53 AF2 120 4.018
53 AF2 121 4.995
53 AF2 122 5.971
53 AF2 123 6.460
53 AF2 124 6.948
53 AF2 125 7.924
53 AF2 126 8.413
53 AF2 127 9.389
53 AF2 128 9.878
53 AF2 129 9.389
53 AF2 130 8.413
53 AF2 131 7.436
53 AF2 132 5.483
53 AF2 133 4.018
53 AF2 134 3.042
53 AF2 135 2.553
53 AF2 136 2.553
53 AF2 137 2.553
53 AF2 138 2.553
53 AF2 139 3.042
53 AF2 140 3.530
53 AF2 141 4.018
53 AF2 142 4.506
53 AF2 143 3.530
53 AF2 144 2.065
53 AF2 145 0.112
53 AF2 146 -1.841
53 AF2 147 -2.330
53 AF2 148 -1.353
53 AF2 149 1.088
53 AF2 150 3.530
53 AF2 151 4.995
53 AF2 152 4.995
53 AF2 153 3.042
53 AF2 154 1.088
53 AF2 155 -0.376
53 AF2 156 -1.353
53 AF2 157 -1.841
53 AF2 158 -1.841
53 AF2 159 -2.330
53 AF2 160 -2.330
53 AF2 161 -2.330
53 AF2 162 -1.353
53 AF2 163 -0.865
53 AF2 164 -0.376
53 AF2 165 -0.376
53 AF2 166 -0.865
53 AF2 167 -0.865
53 AF2 168 -0.376
53 AF2 169 -0.376
53 AF2 170 -0.865
53 AF2 171 -1.353
53 AF2 172 -2.818
53 AF2 173 -3.306
53 AF2 174 -3.306
53 AF2 175 -3.306
53 AF2 176 -2.818
53 AF2 177 -2.330
53 AF2 178 -2.330
53 AF2 179 -2.330
53 AF2 180 -1.841
53 AF2 181 -0.376
53 AF2 182 2.065
53 AF2 183 3.530
53 AF2 184 4.018
53 AF2 185 3.042
53 AF2 186 0.600
53 AF2 187 -1.841
53 AF2 188 -3.306
53 AF2 189 -3.306
53 AF2 190 -2.818
53 AF2 191 -1.841
53 AF2 192 -1.353
53 AF2 193 -0.376
53 AF2 194 -0.376
53 AF2 195 -0.865
53 AF2 196 -1.353
53 AF2 197 -2.330
53 AF2 198 -3.306
53 AF2 199 -3.794
53 AF2 200 -3.794
53 AF2 201 -4.283
53 AF2 202 -4.283
53 AF2 203 -4.771
53 AF2 204 -5.259
53 AF2 205 -5.259
53 AF2 206 -6.236
53 AF2 207 -6.236
53 AF2 208 -6.236
53 AF2 209 -7.212
53 AF2 210 -8.189
53 AF2 211 -8.677
53 AF2 212 -9.654
53 AF2 213 -10.142
53 AF2 214 -10.630
53 AF2 215 -10.630
53 AF2 216 -10.142
53 AF2 217 -9.654
53 AF2 218 -8.677
53 AF2 219 -8.189
53 AF2 220 -8.189
53 AF2 221 -8.189
53 AF2 222 -8.677
53 AF2 223 -8.677
53 AF2 224 -8.677
53 AF2 225 -8.189
53 AF2 226 -7.212
53 AF2 227 -6.724
53 AF2 228 -6.236
53 AF2 229 -6.724
53 AF2 230 -6.724
53 AF2 231 -7.212
53 AF2 232 -7.212
53 AF2 233 -7.701
53 AF2 234 -8.189
53 AF2 235 -9.165
53 AF2 236 -10.142
53 AF2 237 -10.630
53 AF2 238 -10.142
53 AF2 239 -8.677
53 AF2 240 -6.724
53 AF2 241 -5.259
53 AF2 242 -5.259
53 AF2 243 -6.236
53 AF2 244 -7.701
53 AF2 245 -8.677
53 AF2 246 -8.189
53 AF2 247 -6.724
53 AF2 248 -5.259
53 AF2 249 -4.771
53 AF2 250 -5.259
53 AF2 251 -6.236
53 AF2 252 -5.747
53 AF2 253 -5.259
53 AF2 254 -3.306
53 AF2 255 -2.330
# FZ chan 6
53 FZ 0 0.031
53 FZ 1 0.519
53 FZ 2 1.495
53 FZ 3 1.984
53 FZ 4 1.984
53 FZ 5 1.495
53 FZ 6 1.495
53 FZ 7 1.984
53 FZ 8 2.960
53 FZ 9 2.960
53 FZ 10 2.960
53 FZ 11 1.984
53 FZ 12 1.495
53 FZ 13 1.495
53 FZ 14 2.472
53 FZ 15 2.960
53 FZ 16 3.937
53 FZ 17 4.425
53 FZ 18 4.425
53 FZ 19 5.402
53 FZ 20 5.890
53 FZ 21 6.378
53 FZ 22 6.378
53 FZ 23 5.890
53 FZ 24 5.402
53 FZ 25 4.425
53 FZ 26 3.937
53 FZ 27 3.937
53 FZ 28 3.937
53 FZ 29 3.937
53 FZ 30 3.937
53 FZ 31 3.937
53 FZ 32 4.913
53 FZ 33 5.890
53 FZ 34 7.355
53 FZ 35 7.843
53 FZ 36 7.355
53 FZ 37 6.866
53 FZ 38 6.378
53 FZ 39 6.378
53 FZ 40 6.378
53 FZ 41 5.890
53 FZ 42 5.402
53 FZ 43 3.448
53 FZ 44 1.984
53 FZ 45 1.495
53 FZ 46 1.495
53 FZ 47 2.472
53 FZ 48 3.448
53 FZ 49 4.425
53 FZ 50 4.913
53 FZ 51 4.913
53 FZ 52 4.425
53 FZ 53 3.448
53 FZ 54 1.984
53 FZ 55 1.007
53 FZ 56 0.031
53 FZ 57 0.031
53 FZ 58 0.031
53 FZ 59 0.031
53 FZ 60 0.031
53 FZ 61 0.519
53 FZ 62 1.984
53 FZ 63 3.448
53 FZ 64 4.425
53 FZ 65 4.913
53 FZ 66 4.425
53 FZ 67 3.448
53 FZ 68 3.937
53 FZ 69 5.402
53 FZ 70 7.843
53 FZ 71 9.308
53 FZ 72 9.308
53 FZ 73 7.843
53 FZ 74 6.866
53 FZ 75 6.378
53 FZ 76 7.355
53 FZ 77 7.843
53 FZ 78 8.820
53 FZ 79 8.820
53 FZ 80 8.820
53 FZ 81 8.331
53 FZ 82 8.331
53 FZ 83 7.843
53 FZ 84 6.378
53 FZ 85 4.913
53 FZ 86 3.448
53 FZ 87 2.960
53 FZ 88 3.448
53 FZ 89 4.913
53 FZ 90 5.890
53 FZ 91 6.378
53 FZ 92 5.890
53 FZ 93 5.402
53 FZ 94 5.402
53 FZ 95 5.890
53 FZ 96 6.378
53 FZ 97 6.378
53 FZ 98 5.402
53 FZ 99 3.448
53 FZ 100 1.984
53 FZ 101 1.007
53 FZ 102 1.007
53 FZ 103 1.007
53 FZ 104 1.495
53 FZ 105 1.495
53 FZ 106 1.495
53 FZ 107 1.984
53 FZ 108 1.984
53 FZ 109 2.960
53 FZ 110 3.448
53 FZ 111 4.425
53 FZ 112 4.913
53 FZ 113 5.402
53 FZ 114 5.402
53 FZ 115 5.402
53 FZ 116 5.890
53 FZ 117 5.890
53 FZ 118 6.866
53 FZ 119 7.355
53 FZ 120 8.331
53 FZ 121 8.331
53 FZ 122 8.331
53 FZ 123 8.331
53 FZ 124 8.331
53 FZ 125 8.820
53 FZ 126 9.796
53 FZ 127 10.284
53 FZ 128 10.284
53 FZ 129 9.796
53 FZ 130 8.820
53 FZ 131 7.355
53 FZ 132 5.890
53 FZ 133 4.425
53 FZ 134 3.448
53 FZ 135 3.448
53 FZ 136 3.937
53 FZ 137 4.425
53 FZ 138 5.402
53 FZ 139 6.378
53 FZ 140 6.866
53 FZ 141 7.843
53 FZ 142 8.331
53 FZ 143 7.843
53 FZ 144 6.378
53 FZ 145 4.913
53 FZ 146 3.448
53 FZ 147 3.448
53 FZ 148 4.913
53 FZ 149 6.866
53 FZ 150 8.820
53 FZ 151 9.796
53 FZ 152 8.820
53 FZ 153 7.843
53 FZ 154 6.866
53 FZ 155 5.890
53 FZ 156 5.890
53 FZ 157 5.402
53 FZ 158 4.913
53 FZ 159 4.425
53 FZ 160 4.425
53 FZ 161 4.913
53 FZ 162 5.890
53 FZ 163 6.378
53 FZ 164 6.378
53 FZ 165 5.890
53 FZ 166 4.913
53 FZ 167 3.937
53 FZ 168 3.937
53 FZ 169 3.937
53 FZ 170 3.937
53 FZ 171 3.448
53 FZ 172 1.984
53 FZ 173 1.007
53 FZ 174 0.031
53 FZ 175 0.031
53 FZ 176 1.007
53 FZ 177 1.495
53 FZ 178 1.984
53 FZ 179 1.984
53 FZ 180 1.495
53 FZ 181 1.495
53 FZ 182 1.984
53 FZ 183 2.472
53 FZ 184 2.960
53 FZ 185 2.960
53 FZ 186 2.472
53 FZ 187 1.984
53 FZ 188 1.495
53 FZ 189 1.984
53 FZ 190 1.984
53 FZ 191 1.984
53 FZ 192 1.984
53 FZ 193 1.984
53 FZ 194 1.984
53 FZ 195 1.984
53 FZ 196 1.984
53 FZ 197 1.495
53 FZ 198 0.519
53 FZ 199 -0.458
53 FZ 200 -0.946
53 FZ 201 -1.434
53 FZ 202 -1.434
53 FZ 203 -1.434
53 FZ 204 -1.434
53 FZ 205 -1.434
53 FZ 206 -0.946
53 FZ 207 -0.458
53 FZ 208 -0.458
53 FZ 209 -0.458
53 FZ 210 -0.458
53 FZ 211 -0.946
53 FZ 212 -1.923
53 FZ 213 -2.899
53 FZ 214 -3.876
53 FZ 215 -5.341
53 FZ 216 -5.829
53 FZ 217 -5.341
53 FZ 218 -4.364
53 FZ 219 -3.387
53 FZ 220 -2.899
53 FZ 221 -2.899
53 FZ 222 -2.899
53 FZ 223 -2.899
53 FZ 224 -2.899
53 FZ 225 -2.411
53 FZ 226 -1.923
53 FZ 227 -1.434
53 FZ 228 -0.946
53 FZ 229 -0.458
53 FZ 230 0.031
53 FZ 231 0.519
53 FZ 232 0.031
53 FZ 233 -0.458
53 FZ 234 -1.434
53 FZ 235 -1.923
53 FZ 236 -2.411
53 FZ 237 -2.411
53 FZ 238 -2.411
53 FZ 239 -1.923
53 FZ 240 -1.923
53 FZ 241 -1.923
53 FZ 242 -2.899
53 FZ 243 -3.387
53 FZ 244 -4.364
53 FZ 245 -4.364
53 FZ 246 -4.852
53 FZ 247 -4.364
53 FZ 248 -3.876
53 FZ 249 -3.876
53 FZ 250 -4.364
53 FZ 251 -4.852
53 FZ 252 -4.852
53 FZ 253 -4.364
53 FZ 254 -3.387
53 FZ 255 -1.923
# F4 chan 7
53 F4 0 0.539
53 F4 1 1.516
53 F4 2 2.004
53 F4 3 1.516
53 F4 4 0.051
53 F4 5 -1.414
53 F4 6 -1.902
53 F4 7 -1.902
53 F4 8 -0.926
53 F4 9 -0.437
53 F4 10 -0.926
53 F4 11 -1.414
53 F4 12 -1.902
53 F4 13 -1.902
53 F4 14 -0.926
53 F4 15 1.027
53 F4 16 2.492
53 F4 17 3.469
53 F4 18 3.469
53 F4 19 3.469
53 F4 20 2.981
53 F4 21 2.492
53 F4 22 2.492
53 F4 23 2.492
53 F4 24 2.004
53 F4 25 1.516
53 F4 26 1.027
53 F4 27 0.051
53 F4 28 -0.926
53 F4 29 -1.902
53 F4 30 -2.391
53 F4 31 -2.879
53 F4 32 -2.391
53 F4 33 -1.414
53 F4 34 0.051
53 F4 35 1.516
53 F4 36 1.516
53 F4 37 1.516
53 F4 38 1.027
53 F4 39 0.539
53 F4 40 0.051
53 F4 41 -0.437
53 F4 42 -0.437
53 F4 43 -0.926
53 F4 44 -0.437
53 F4 45 0.051
53 F4 46 0.539
53 F4 47 1.027
53 F4 48 1.516
53 F4 49 2.004
53 F4 50 2.492
53 F4 51 2.492
53 F4 52 1.516
53 F4 53 0.539
53 F4 54 -0.437
53 F4 55 -1.414
53 F4 56 -1.902
53 F4 57 -1.902
53 F4 58 -1.902
53 F4 59 -1.902
53 F4 60 -1.902
53 F4 61 -1.414
53 F4 62 -0.437
53 F4 63 0.539
53 F4 64 0.539
53 F4 65 0.051
53 F4 66 -0.926
53 F4 67 -0.926
53 F4 68 0.051
53 F4 69 1.516
53 F4 70 2.981
53 F4 71 3.957
53 F4 72 3.469
53 F4 73 2.981
53 F4 74 2.981
53 F4 75 3.469
53 F4 76 3.957
53 F4 77 4.934
53 F4 78 4.934
53 F4 79 4.934
53 F4 80 4.934
53 F4 81 4.445
53 F4 82 3.469
53 F4 83 2.981
53 F4 84 1.516
53 F4 85 1.027
53 F4 86 0.539
53 F4 87 1.027
53 F4 88 2.004
53 F4 89 2.981
53 F4 90 3.957
53 F4 91 4.445
53 F4 92 4.934
53 F4 93 5.422
53 F4 94 5.910
53 F4 95 5.910
53 F4 96 5.910
53 F4 97 4.934
53 F4 98 3.469
53 F4 99 2.004
53 F4 100 1.027
53 F4 101 0.051
53 F4 102 -0.437
53 F4 103 -0.926
53 F4 104 -1.414
53 F4 105 -1.414
53 F4 106 -0.926
53 F4 107 0.051
53 F4 108 1.516
53 F4 109 2.492
53 F4 110 3.469
53 F4 111 3.957
53 F4 112 3.469
53 F4 113 2.492
53 F4 114 2.492
53 F4 115 2.492
53 F4 116 2.981
53 F4 117 3.957
53 F4 118 4.934
53 F4 119 5.910
53 F4 120 6.887
53 F4 121 7.375
53 F4 122 7.863
53 F4 123 7.863
53 F4 124 8.352
53 F4 125 9.328
53 F4 126 10.793
53 F4 127 11.770
53 F4 128 12.258
53 F4 129 11.281
53 F4 130 10.793
53 F4 131 9.328
53 F4 132 8.840
53 F4 133 8.352
53 F4 134 8.352
53 F4 135 7.863
53 F4 136 7.375
53 F4 137 6.399
53 F4 138 6.399
53 F4 139 6.887
53 F4 140 7.863
53 F4 141 8.840
53 F4 142 9.328
53 F4 143 8.840
53 F4 144 7.375
53 F4 145 5.910
53 F4 146 4.445
53 F4 147 3.957
53 F4 148 4.445
53 F4 149 6.399
53 F4 150 8.352
53 F4 151 9.328
53 F4 152 8.352
53 F4 153 6.887
53 F4 154 4.934
53 F4 155 3.469
53 F4 156 2.492
53 F4 157 2.004
53 F4 158 1.027
53 F4 159 0.051
53 F4 160 -0.437
53 F4 161 0.539
53 F4 162 2.004
53 F4 163 2.981
53 F4 164 3.957
53 F4 165 3.469
53 F4 166 2.981
53 F4 167 2.492
53 F4 168 2.492
53 F4 169 2.492
53 F4 170 2.004
53 F4 171 1.027
53 F4 172 0.539
53 F4 173 0.051
53 F4 174 0.539
53 F4 175 1.516
53 F4 176 2.004
53 F4 177 2.004
53 F4 178 1.027
53 F4 179 0.539
53 F4 180 0.539
53 F4 181 1.516
53 F4 182 2.981
53 F4 183 3.957
53 F4 184 3.469
53 F4 185 2.492
53 F4 186 1.027
53 F4 187 0.051
53 F4 188 -0.437
53 F4 189 -0.926
53 F4 190 -1.414
53 F4 191 -1.902
53 F4 192 -2.391
53 F4 193 -1.414
53 F4 194 0.051
53 F4 195 1.027
53 F4 196 1.027
53 F4 197 0.051
53 F4 198 -1.414
53 F4 199 -2.391
53 F4 200 -2.879
53 F4 201 -2.391
53 F4 202 -2.391
53 F4 203 -2.391
53 F4 204 -3.367
53 F4 205 -3.367
53 F4 206 -3.855
53 F4 207 -3.855
53 F4 208 -4.344
53 F4 209 -5.320
53 F4 210 -5.809
53 F4 211 -6.297
53 F4 212 -6.785
53 F4 213 -6.785
53 F4 214 -6.785
53 F4 215 -7.273
53 F4 216 -7.273
53 F4 217 -7.273
53 F4 218 -5.809
53 F4 219 -5.320
53 F4 220 -4.344
53 F4 221 -4.832
53 F4 222 -5.320
53 F4 223 -5.809
53 F4 224 -5.809
53 F4 225 -4.832
53 F4 226 -3.367
53 F4 227 -2.391
53 F4 228 -2.391
53 F4 229 -3.367
53 F4 230 -3.855
53 F4 231 -4.344
53 F4 232 -4.344
53 F4 233 -4.832
53 F4 234 -5.809
53 F4 235 -7.273
53 F4 236 -8.250
53 F4 237 -8.738
53 F4 238 -8.250
53 F4 239 -7.273
53 F4 240 -6.297
53 F4 241 -6.297
53 F4 242 -6.785
53 F4 243 -7.273
53 F4 244 -7.762
53 F4 245 -7.762
53 F4 246 -6.785
53 F4 247 -5.809
53 F4 248 -5.320
53 F4 249 -6.297
53 F4 250 -7.273
53 F4 251 -7.762
53 F4 252 -7.273
53 F4 253 -5.809
53 F4 254 -4.344
53 F4 255 -3.367
# F3 chan 8
53 F3 0 -1.526
53 F3 1 -2.014
53 F3 2 -1.526
53 F3 3 -1.526
53 F3 4 -1.526
53 F3 5 -1.038
53 F3 6 -0.549
53 F3 7 -0.061
53 F3 8 0.916
53 F3 9 1.892
53 F3 10 2.380
53 F3 11 1.892
53 F3 12 0.916
53 F3 13 -0.061
53 F3 14 -0.061
53 F3 15 1.404
53 F3 16 3.357
53 F3 17 4.822
53 F3 18 5.310
53 F3 19 5.310
53 F3 20 3.845
53 F3 21 2.869
53 F3 22 2.380
53 F3 23 2.380
53 F3 24 2.380
53 F3 25 2.380
53 F3 26 1.892
53 F3 27 1.404
53 F3 28 0.916
53 F3 29 0.916
53 F3 30 0.916
53 F3 31 1.404
53 F3 32 1.892
53 F3 33 1.892
53 F3 34 1.892
53 F3 35 2.380
53 F3 36 2.380
53 F3 37 2.380
53 F3 38 2.869
53 F3 39 3.845
53 F3 40 3.845
53 F3 41 2.869
53 F3 42 1.404
53 F3 43 -0.549
53 F3 44 -2.014
53 F3 45 -2.502
53 F3 46 -2.014
53 F3 47 -1.526
53 F3 48 -0.061
53 F3 49 0.427
53 F3 50 1.404
53 F3 51 1.892
53 F3 52 2.380
53 F3 53 2.869
53 F3 54 2.380
53 F3 55 2.380
53 F3 56 1.404
53 F3 57 0.427
53 F3 58 -1.038
53 F3 59 -2.014
53 F3 60 -2.014
53 F3 61 -1.526
53 F3 62 -0.549
53 F3 63 0.916
53 F3 64 1.892
53 F3 65 2.869
53 F3 66 3.357
53 F3 67 3.357
53 F3 68 4.333
53 F3 69 5.310
53 F3 70 6.287
53 F3 71 6.287
53 F3 72 5.798
53 F3 73 4.333
53 F3 74 3.845
53 F3 75 2.869
53 F3 76 2.869
53 F3 77 2.869
53 F3 78 3.357
53 F3 79 3.357
53 F3 80 3.357
53 F3 81 2.869
53 F3 82 2.380
53 F3 83 1.892
53 F3 84 0.916
53 F3 85 -0.061
53 F3 86 -1.038
53 F3 87 -1.526
53 F3 88 -0.549
53 F3 89 0.427
53 F3 90 0.916
53 F3 91 1.404
53 F3 92 0.427
53 F3 93 -1.038
53 F3 94 -2.014
53 F3 95 -2.014
53 F3 96 -1.038
53 F3 97 -0.061
53 F3 98 -0.061
53 F3 99 -0.549
53 F3 100 -2.014
53 F3 101 -2.991
53 F3 102 -3.967
53 F3 103 -3.479
53 F3 104 -3.479
53 F3 105 -2.502
53 F3 106 -2.502
53 F3 107 -2.502
53 F3 108 -2.502
53 F3 109 -2.502
53 F3 110 -2.014
53 F3 111 -1.038
53 F3 112 -0.549
53 F3 113 -0.061
53 F3 114 -0.061
53 F3 115 -0.061
53 F3 116 -0.549
53 F3 117 -0.061
53 F3 118 0.427
53 F3 119 1.892
53 F3 120 2.869
53 F3 121 2.869
53 F3 122 2.869
53 F3 123 2.869
53 F3 124 3.357
53 F3 125 4.333
53 F3 126 5.310
53 F3 127 5.798
53 F3 128 5.798
53 F3 129 5.798
53 F3 130 5.310
53 F3 131 4.822
53 F3 132 2.869
53 F3 133 0.916
53 F3 134 -1.526
53 F3 135 -2.991
53 F3 136 -2.991
53 F3 137 -2.991
53 F3 138 -1.038
53 F3 139 0.427
53 F3 140 2.380
53 F3 141 3.845
53 F3 142 4.333
53 F3 143 3.845
53 F3 144 1.892
53 F3 145 0.427
53 F3 146 -1.038
53 F3 147 -1.038
53 F3 148 -0.061
53 F3 149 1.892
53 F3 150 2.869
53 F3 151 3.357
53 F3 152 3.357
53 F3 153 2.869
53 F3 154 2.869
53 F3 155 3.357
53 F3 156 3.357
53 F3 157 3.357
53 F3 158 3.845
53 F3 159 3.845
53 F3 160 5.310
53 F3 161 6.775
53 F3 162 7.751
53 F3 163 8.240
53 F3 164 7.751
53 F3 165 6.287
53 F3 166 4.822
53 F3 167 4.333
53 F3 168 4.822
53 F3 169 5.798
53 F3 170 6.287
53 F3 171 5.798
53 F3 172 4.822
53 F3 173 2.869
53 F3 174 1.892
53 F3 175 0.916
53 F3 176 1.892
53 F3 177 2.869
53 F3 178 3.845
53 F3 179 4.333
53 F3 180 4.333
53 F3 181 4.333
53 F3 182 4.333
53 F3 183 4.822
53 F3 184 5.798
53 F3 185 5.798
53 F3 186 5.310
53 F3 187 4.822
53 F3 188 4.333
53 F3 189 3.845
53 F3 190 4.333
53 F3 191 4.822
53 F3 192 5.798
53 F3 193 6.287
53 F3 194 6.287
53 F3 195 5.310
53 F3 196 4.333
53 F3 197 3.357
53 F3 198 2.869
53 F3 199 2.869
53 F3 200 2.380
53 F3 201 2.380
53 F3 202 1.892
53 F3 203 1.404
53 F3 204 1.892
53 F3 205 2.380
53 F3 206 3.845
53 F3 207 4.333
53 F3 208 3.845
53 F3 209 3.357
53 F3 210 2.380
53 F3 211 1.892
53 F3 212 0.916
53 F3 213 0.427
53 F3 214 -0.061
53 F3 215 -1.038
53 F3 216 -2.014
53 F3 217 -2.502
53 F3 218 -2.014
53 F3 219 -1.038
53 F3 220 0.427
53 F3 221 1.404
53 F3 222 1.404
53 F3 223 0.916
53 F3 224 -0.549
53 F3 225 -2.014
53 F3 226 -2.991
53 F3 227 -3.479
53 F3 228 -2.502
53 F3 229 -1.038
53 F3 230 -0.061
53 F3 231 0.916
53 F3 232 0.427
53 F3 233 -0.549
53 F3 234 -1.038
53 F3 235 -1.526
53 F3 236 -1.526
53 F3 237 -1.038
53 F3 238 0.427
53 F3 239 0.916
53 F3 240 1.404
53 F3 241 1.404
53 F3 242 0.916
53 F3 243 0.427
53 F3 244 -0.549
53 F3 245 -1.038
53 F3 246 -1.038
53 F3 247 -1.038
53 F3 248 -1.038
53 F3 249 -1.038
53 F3 250 -1.526
53 F3 251 -2.014
53 F3 252 -2.014
53 F3 253 -2.014
53 F3 254 -1.038
53 F3 255 -0.061
# FC6 chan 9
53 FC6 0 2.696
53 FC6 1 2.207
53 FC6 2 1.719
53 FC6 3 1.719
53 FC6 4 1.719
53 FC6 5 0.743
53 FC6 6 -0.234
53 FC6 7 -1.211
53 FC6 8 -1.699
53 FC6 9 -2.187
53 FC6 10 -3.164
53 FC6 11 -3.652
53 FC6 12 -4.629
53 FC6 13 -5.117
53 FC6 14 -5.117
53 FC6 15 -5.117
53 FC6 16 -4.140
53 FC6 17 -3.652
53 FC6 18 -3.164
53 FC6 19 -2.675
53 FC6 20 -2.187
53 FC6 21 -2.187
53 FC6 22 -2.675
53 FC6 23 -3.652
53 FC6 24 -4.629
53 FC6 25 -5.605
53 FC6 26 -6.093
53 FC6 27 -7.070
53 FC6 28 -7.558
53 FC6 29 -8.046
53 FC6 30 -9.023
53 FC6 31 -9.511
53 FC6 32 -9.023
53 FC6 33 -8.046
53 FC6 34 -6.093
53 FC6 35 -5.117
53 FC6 36 -4.629
53 FC6 37 -4.629
53 FC6 38 -5.605
53 FC6 39 -6.093
53 FC6 40 -7.070
53 FC6 41 -8.046
53 FC6 42 -8.535
53 FC6 43 -8.535
53 FC6 44 -8.535
53 FC6 45 -7.558
53 FC6 46 -6.093
53 FC6 47 -5.605
53 FC6 48 -4.629
53 FC6 49 -4.140
53 FC6 50 -4.140
53 FC6 51 -4.629
53 FC6 52 -6.093
53 FC6 53 -7.558
53 FC6 54 -8.535
53 FC6 55 -8.535
53 FC6 56 -8.046
53 FC6 57 -6.582
53 FC6 58 -5.605
53 FC6 59 -5.605
53 FC6 60 -6.093
53 FC6 61 -7.070
53 FC6 62 -7.558
53 FC6 63 -8.046
53 FC6 64 -8.535
53 FC6 65 -9.023
53 FC6 66 -9.023
53 FC6 67 -8.535
53 FC6 68 -7.558
53 FC6 69 -6.582
53 FC6 70 -5.605
53 FC6 71 -5.117
53 FC6 72 -4.629
53 FC6 73 -4.629
53 FC6 74 -4.140
53 FC6 75 -4.140
53 FC6 76 -4.140
53 FC6 77 -4.140
53 FC6 78 -4.140
53 FC6 79 -4.140
53 FC6 80 -4.629
53 FC6 81 -5.117
53 FC6 82 -5.117
53 FC6 83 -5.117
53 FC6 84 -5.117
53 FC6 85 -5.117
53 FC6 86 -4.140
53 FC6 87 -3.652
53 FC6 88 -2.675
53 FC6 89 -2.187
53 FC6 90 -1.211
53 FC6 91 -1.211
53 FC6 92 -0.722
53 FC6 93 -0.234
53 FC6 94 0.254
53 FC6 95 0.254
53 FC6 96 -0.722
53 FC6 97 -1.699
53 FC6 98 -3.164
53 FC6 99 -4.629
53 FC6 100 -5.117
53 FC6 101 -4.629
53 FC6 102 -4.629
53 FC6 103 -4.140
53 FC6 104 -3.652
53 FC6 105 -4.140
53 FC6 106 -4.140
53 FC6 107 -3.652
53 FC6 108 -2.675
53 FC6 109 -1.699
53 FC6 110 -1.211
53 FC6 111 -0.722
53 FC6 112 -1.211
53 FC6 113 -2.187
53 FC6 114 -2.675
53 FC6 115 -3.164
53 FC6 116 -3.164
53 FC6 117 -2.675
53 FC6 118 -1.699
53 FC6 119 -0.234
53 FC6 120 1.231
53 FC6 121 1.719
53 FC6 122 1.719
53 FC6 123 1.231
53 FC6 124 1.719
53 FC6 125 3.184
53 FC6 126 5.137
53 FC6 127 6.602
53 FC6 128 6.602
53 FC6 129 5.137
53 FC6 130 4.161
53 FC6 131 3.184
53 FC6 132 2.696
53 FC6 133 2.696
53 FC6 134 1.719
53 FC6 135 0.743
53 FC6 136 -0.234
53 FC6 137 -1.211
53 FC6 138 -1.211
53 FC6 139 -1.211
53 FC6 140 -0.722
53 FC6 141 -0.722
53 FC6 142 -0.722
53 FC6 143 -0.722
53 FC6 144 -0.234
53 FC6 145 -0.234
53 FC6 146 -0.234
53 FC6 147 -0.722
53 FC6 148 -1.211
53 FC6 149 -0.234
53 FC6 150 1.231
53 FC6 151 1.719
53 FC6 152 1.719
53 FC6 153 -0.234
53 FC6 154 -2.675
53 FC6 155 -5.117
53 FC6 156 -7.558
53 FC6 157 -9.023
53 FC6 158 -10.000
53 FC6 159 -10.488
53 FC6 160 -10.488
53 FC6 161 -9.511
53 FC6 162 -8.046
53 FC6 163 -6.093
53 FC6 164 -5.117
53 FC6 165 -4.629
53 FC6 166 -4.140
53 FC6 167 -4.140
53 FC6 168 -4.629
53 FC6 169 -5.605
53 FC6 170 -6.093
53 FC6 171 -7.070
53 FC6 172 -7.070
53 FC6 173 -6.093
53 FC6 174 -5.605
53 FC6 175 -5.605
53 FC6 176 -6.582
53 FC6 177 -8.046
53 FC6 178 -10.000
53 FC6 179 -10.488
53 FC6 180 -10.488
53 FC6 181 -8.535
53 FC6 182 -7.070
53 FC6 183 -6.093
53 FC6 184 -6.093
53 FC6 185 -7.070
53 FC6 186 -8.535
53 FC6 187 -10.488
53 FC6 188 -12.441
53 FC6 189 -13.906
53 FC6 190 -14.882
53 FC6 191 -14.882
53 FC6 192 -13.906
53 FC6 193 -11.953
53 FC6 194 -9.511
53 FC6 195 -8.046
53 FC6 196 -7.558
53 FC6 197 -8.535
53 FC6 198 -9.511
53 FC6 199 -10.000
53 FC6 200 -10.000
53 FC6 201 -10.000
53 FC6 202 -10.488
53 FC6 203 -10.976
53 FC6 204 -11.464
53 FC6 205 -11.953
53 FC6 206 -12.441
53 FC6 207 -12.929
53 FC6 208 -13.906
53 FC6 209 -14.882
53 FC6 210 -15.371
53 FC6 211 -15.371
53 FC6 212 -14.882
53 FC6 213 -13.906
53 FC6 214 -13.418
53 FC6 215 -13.418
53 FC6 216 -13.418
53 FC6 217 -13.418
53 FC6 218 -12.929
53 FC6 219 -12.441
53 FC6 220 -12.441
53 FC6 221 -12.929
53 FC6 222 -13.906
53 FC6 223 -14.394
53 FC6 224 -13.906
53 FC6 225 -12.929
53 FC6 226 -11.953
53 FC6 227 -11.464
53 FC6 228 -11.953
53 FC6 229 -12.929
53 FC6 230 -14.394
53 FC6 231 -14.882
53 FC6 232 -15.371
53 FC6 233 -16.347
53 FC6 234 -16.836
53 FC6 235 -18.789
53 FC6 236 -20.742
53 FC6 237 -21.718
53 FC6 238 -21.718
53 FC6 239 -20.742
53 FC6 240 -19.277
53 FC6 241 -18.300
53 FC6 242 -17.812
53 FC6 243 -17.812
53 FC6 244 -17.812
53 FC6 245 -16.836
53 FC6 246 -14.882
53 FC6 247 -12.929
53 FC6 248 -11.953
53 FC6 249 -12.929
53 FC6 250 -14.394
53 FC6 251 -15.371
53 FC6 252 -14.882
53 FC6 253 -12.929
53 FC6 254 -10.976
53 FC6 255 -10.000
# FC5 chan 10
53 FC5 0 -0.814
53 FC5 1 -1.302
53 FC5 2 -1.302
53 FC5 3 -1.302
53 FC5 4 -1.302
53 FC5 5 -0.814
53 FC5 6 -0.326
53 FC5 7 0.651
53 FC5 8 1.628
53 FC5 9 2.604
53 FC5 10 3.092
53 FC5 11 2.116
53 FC5 12 1.139
53 FC5 13 -0.326
53 FC5 14 -1.302
53 FC5 15 -0.814
53 FC5 16 0.651
53 FC5 17 1.628
53 FC5 18 2.604
53 FC5 19 2.604
53 FC5 20 1.628
53 FC5 21 1.139
53 FC5 22 1.139
53 FC5 23 1.628
53 FC5 24 3.092
53 FC5 25 3.581
53 FC5 26 3.092
53 FC5 27 2.604
53 FC5 28 1.139
53 FC5 29 0.651
53 FC5 30 1.139
53 FC5 31 1.139
53 FC5 32 1.139
53 FC5 33 0.651
53 FC5 34 -0.326
53 FC5 35 -0.814
53 FC5 36 -0.814
53 FC5 37 -0.326
53 FC5 38 -0.326
53 FC5 39 -0.814
53 FC5 40 -1.790
53 FC5 41 -3.743
53 FC5 42 -5.697
53 FC5 43 -7.161
53 FC5 44 -8.138
53 FC5 45 -8.626
53 FC5 46 -8.626
53 FC5 47 -8.138
53 FC5 48 -7.161
53 FC5 49 -6.185
53 FC5 50 -4.720
53 FC5 51 -2.767
53 FC5 52 -1.790
53 FC5 53 -0.814
53 FC5 54 0.163
53 FC5 55 0.163
53 FC5 56 -0.326
53 FC5 57 -1.790
53 FC5 58 -2.767
53 FC5 59 -3.255
53 FC5 60 -3.255
53 FC5 61 -2.279
53 FC5 62 -0.814
53 FC5 63 0.651
53 FC5 64 1.628
53 FC5 65 2.116
53 FC5 66 2.604
53 FC5 67 3.092
53 FC5 68 4.069
53 FC5 69 4.557
53 FC5 70 5.046
53 FC5 71 4.557
53 FC5 72 4.069
53 FC5 73 4.069
53 FC5 74 4.069
53 FC5 75 3.581
53 FC5 76 3.092
53 FC5 77 2.116
53 FC5 78 2.116
53 FC5 79 2.116
53 FC5 80 1.139
53 FC5 81 0.163
53 FC5 82 -1.790
53 FC5 83 -3.255
53 FC5 84 -3.743
53 FC5 85 -4.232
53 FC5 86 -3.743
53 FC5 87 -3.255
53 FC5 88 -2.767
53 FC5 89 -2.279
53 FC5 90 -2.767
53 FC5 91 -2.767
53 FC5 92 -3.743
53 FC5 93 -4.720
53 FC5 94 -5.697
53 FC5 95 -6.185
53 FC5 96 -5.697
53 FC5 97 -5.208
53 FC5 98 -4.720
53 FC5 99 -4.232
53 FC5 100 -4.720
53 FC5 101 -4.720
53 FC5 102 -4.232
53 FC5 103 -3.255
53 FC5 104 -2.279
53 FC5 105 -2.767
53 FC5 106 -3.255
53 FC5 107 -4.720
53 FC5 108 -5.697
53 FC5 109 -6.185
53 FC5 110 -5.208
53 FC5 111 -4.232
53 FC5 112 -3.255
53 FC5 113 -2.767
53 FC5 114 -2.767
53 FC5 115 -2.767
53 FC5 116 -2.279
53 FC5 117 -1.790
53 FC5 118 -1.302
53 FC5 119 -0.326
53 FC5 120 0.163
53 FC5 121 0.163
53 FC5 122 0.163
53 FC5 123 1.139
53 FC5 124 1.139
53 FC5 125 1.628
53 FC5 126 1.628
53 FC5 127 2.116
53 FC5 128 2.116
53 FC5 129 2.604
53 FC5 130 3.092
53 FC5 131 3.092
53 FC5 132 2.604
53 FC5 133 1.139
53 FC5 134 -0.814
53 FC5 135 -2.279
53 FC5 136 -3.255
53 FC5 137 -2.767
53 FC5 138 -1.790
53 FC5 139 -0.814
53 FC5 140 0.651
53 FC5 141 1.628
53 FC5 142 2.116
53 FC5 143 2.116
53 FC5 144 2.116
53 FC5 145 2.116
53 FC5 146 2.116
53 FC5 147 2.604
53 FC5 148 3.092
53 FC5 149 3.581
53 FC5 150 3.581
53 FC5 151 3.581
53 FC5 152 3.581
53 FC5 153 4.069
53 FC5 154 5.046
53 FC5 155 5.046
53 FC5 156 5.046
53 FC5 157 4.069
53 FC5 158 4.069
53 FC5 159 4.557
53 FC5 160 6.022
53 FC5 161 7.487
53 FC5 162 8.464
53 FC5 163 8.464
53 FC5 164 6.999
53 FC5 165 5.534
53 FC5 166 4.557
53 FC5 167 4.069
53 FC5 168 4.557
53 FC5 169 5.046
53 FC5 170 6.022
53 FC5 171 5.534
53 FC5 172 4.557
53 FC5 173 2.604
53 FC5 174 1.628
53 FC5 175 1.139
53 FC5 176 2.116
53 FC5 177 3.092
53 FC5 178 4.069
53 FC5 179 4.069
53 FC5 180 3.581
53 FC5 181 3.581
53 FC5 182 4.069
53 FC5 183 5.046
53 FC5 184 6.510
53 FC5 185 6.999
53 FC5 186 6.022
53 FC5 187 5.046
53 FC5 188 3.581
53 FC5 189 3.581
53 FC5 190 4.557
53 FC5 191 5.534
53 FC5 192 6.510
53 FC5 193 6.510
53 FC5 194 5.534
53 FC5 195 3.581
53 FC5 196 1.139
53 FC5 197 0.163
53 FC5 198 -0.326
53 FC5 199 -0.326
53 FC5 200 0.163
53 FC5 201 0.651
53 FC5 202 1.139
53 FC5 203 2.116
53 FC5 204 3.581
53 FC5 205 4.557
53 FC5 206 5.046
53 FC5 207 4.557
53 FC5 208 3.581
53 FC5 209 2.604
53 FC5 210 2.116
53 FC5 211 0.651
53 FC5 212 0.163
53 FC5 213 -0.814
53 FC5 214 -1.302
53 FC5 215 -1.302
53 FC5 216 -0.326
53 FC5 217 0.163
53 FC5 218 1.139
53 FC5 219 1.139
53 FC5 220 1.139
53 FC5 221 0.651
53 FC5 222 0.163
53 FC5 223 -0.814
53 FC5 224 -2.279
53 FC5 225 -2.767
53 FC5 226 -3.743
53 FC5 227 -4.232
53 FC5 228 -4.232
53 FC5 229 -3.255
53 FC5 230 -2.279
53 FC5 231 -1.302
53 FC5 232 -0.326
53 FC5 233 0.163
53 FC5 234 0.163
53 FC5 235 -0.326
53 FC5 236 0.163
53 FC5 237 0.651
53 FC5 238 2.116
53 FC5 239 3.092
53 FC5 240 2.604
53 FC5 241 2.116
53 FC5 242 1.139
53 FC5 243 0.651
53 FC5 244 0.651
53 FC5 245 1.628
53 FC5 246 2.116
53 FC5 247 2.604
53 FC5 248 2.604
53 FC5 249 3.092
53 FC5 250 3.092
53 FC5 251 3.581
53 FC5 252 3.092
53 FC5 253 3.092
53 FC5 254 3.092
53 FC5 255 3.581
# FC2 chan 11
53 FC2 0 2.014
53 FC2 1 2.014
53 FC2 2 2.502
53 FC2 3 2.502
53 FC2 4 2.502
53 FC2 5 1.526
53 FC2 6 1.038
53 FC2 7 0.549
53 FC2 8 0.549
53 FC2 9 0.549
53 FC2 10 0.549
53 FC2 11 0.549
53 FC2 12 0.061
53 FC2 13 0.061
53 FC2 14 0.549
53 FC2 15 1.526
53 FC2 16 2.014
53 FC2 17 2.991
53 FC2 18 3.479
53 FC2 19 3.479
53 FC2 20 3.479
53 FC2 21 2.502
53 FC2 22 1.526
53 FC2 23 0.549
53 FC2 24 0.061
53 FC2 25 -0.427
53 FC2 26 -0.427
53 FC2 27 -0.916
53 FC2 28 -1.892
53 FC2 29 -2.380
53 FC2 30 -1.892
53 FC2 31 -1.404
53 FC2 32 -0.427
53 FC2 33 0.549
53 FC2 34 1.038
53 FC2 35 1.526
53 FC2 36 1.038
53 FC2 37 1.038
53 FC2 38 1.038
53 FC2 39 1.038
53 FC2 40 0.549
53 FC2 41 0.549
53 FC2 42 0.061
53 FC2 43 -0.427
53 FC2 44 0.061
53 FC2 45 0.061
53 FC2 46 0.061
53 FC2 47 0.061
53 FC2 48 -0.427
53 FC2 49 -0.916
53 FC2 50 -0.916
53 FC2 51 -1.404
53 FC2 52 -1.892
53 FC2 53 -2.380
53 FC2 54 -2.380
53 FC2 55 -2.380
53 FC2 56 -2.380
53 FC2 57 -1.892
53 FC2 58 -1.404
53 FC2 59 -1.404
53 FC2 60 -1.404
53 FC2 61 -1.404
53 FC2 62 -1.404
53 FC2 63 -1.404
53 FC2 64 -1.892
53 FC2 65 -2.380
53 FC2 66 -2.869
53 FC2 67 -2.869
53 FC2 68 -1.404
53 FC2 69 0.061
53 FC2 70 1.038
53 FC2 71 2.014
53 FC2 72 1.526
53 FC2 73 1.038
53 FC2 74 0.549
53 FC2 75 1.038
53 FC2 76 1.526
53 FC2 77 2.502
53 FC2 78 2.991
53 FC2 79 2.502
53 FC2 80 2.502
53 FC2 81 2.014
53 FC2 82 1.526
53 FC2 83 1.526
53 FC2 84 1.526
53 FC2 85 1.526
53 FC2 86 1.526
53 FC2 87 1.038
53 FC2 88 1.526
53 FC2 89 2.014
53 FC2 90 2.014
53 FC2 91 2.502
53 FC2 92 2.502
53 FC2 93 2.502
53 FC2 94 2.991
53 FC2 95 2.991
53 FC2 96 2.991
53 FC2 97 2.502
53 FC2 98 1.038
53 FC2 99 0.061
53 FC2 100 -0.916
53 FC2 101 -1.404
53 FC2 102 -1.404
53 FC2 103 -1.892
53 FC2 104 -2.380
53 FC2 105 -2.380
53 FC2 106 -2.869
53 FC2 107 -2.380
53 FC2 108 -1.404
53 FC2 109 -0.916
53 FC2 110 -0.427
53 FC2 111 -0.427
53 FC2 112 -0.916
53 FC2 113 -1.892
53 FC2 114 -1.892
53 FC2 115 -0.916
53 FC2 116 -0.427
53 FC2 117 0.061
53 FC2 118 0.549
53 FC2 119 0.549
53 FC2 120 1.038
53 FC2 121 1.038
53 FC2 122 1.526
53 FC2 123 2.014
53 FC2 124 2.014
53 FC2 125 2.014
53 FC2 126 2.502
53 FC2 127 3.479
53 FC2 128 3.967
53 FC2 129 3.967
53 FC2 130 2.991
53 FC2 131 2.502
53 FC2 132 2.014
53 FC2 133 2.014
53 FC2 134 2.502
53 FC2 135 2.502
53 FC2 136 2.014
53 FC2 137 1.526
53 FC2 138 1.038
53 FC2 139 1.526
53 FC2 140 2.502
53 FC2 141 3.479
53 FC2 142 3.967
53 FC2 143 3.967
53 FC2 144 3.479
53 FC2 145 2.502
53 FC2 146 2.014
53 FC2 147 2.014
53 FC2 148 2.502
53 FC2 149 2.991
53 FC2 150 3.967
53 FC2 151 4.456
53 FC2 152 3.967
53 FC2 153 2.991
53 FC2 154 2.991
53 FC2 155 2.014
53 FC2 156 2.014
53 FC2 157 1.038
53 FC2 158 0.061
53 FC2 159 -1.404
53 FC2 160 -2.380
53 FC2 161 -2.380
53 FC2 162 -1.892
53 FC2 163 -0.916
53 FC2 164 -0.427
53 FC2 165 -0.427
53 FC2 166 -0.916
53 FC2 167 -0.916
53 FC2 168 -0.427
53 FC2 169 0.061
53 FC2 170 0.061
53 FC2 171 -0.916
53 FC2 172 -1.892
53 FC2 173 -2.869
53 FC2 174 -2.869
53 FC2 175 -2.869
53 FC2 176 -2.380
53 FC2 177 -2.380
53 FC2 178 -3.357
53 FC2 179 -3.845
53 FC2 180 -4.822
53 FC2 181 -5.310
53 FC2 182 -5.310
53 FC2 183 -5.310
53 FC2 184 -4.822
53 FC2 185 -4.822
53 FC2 186 -4.822
53 FC2 187 -4.333
53 FC2 188 -4.333
53 FC2 189 -4.333
53 FC2 190 -4.822
53 FC2 191 -5.798
53 FC2 192 -5.798
53 FC2 193 -5.310
53 FC2 194 -3.357
53 FC2 195 -1.404
53 FC2 196 -0.916
53 FC2 197 -0.916
53 FC2 198 -1.892
53 FC2 199 -2.869
53 FC2 200 -3.357
53 FC2 201 -3.845
53 FC2 202 -3.845
53 FC2 203 -4.333
53 FC2 204 -4.822
53 FC2 205 -4.822
53 FC2 206 -4.822
53 FC2 207 -4.333
53 FC2 208 -3.845
53 FC2 209 -3.357
53 FC2 210 -3.845
53 FC2 211 -3.845
53 FC2 212 -4.822
53 FC2 213 -5.310
53 FC2 214 -5.310
53 FC2 215 -5.798
53 FC2 216 -5.798
53 FC2 217 -6.287
53 FC2 218 -5.798
53 FC2 219 -5.310
53 FC2 220 -4.822
53 FC2 221 -4.822
53 FC2 222 -4.822
53 FC2 223 -5.310
53 FC2 224 -5.310
53 FC2 225 -4.333
53 FC2 226 -3.845
53 FC2 227 -3.357
53 FC2 228 -3.357
53 FC2 229 -4.333
53 FC2 230 -5.798
53 FC2 231 -6.287
53 FC2 232 -6.287
53 FC2 233 -5.798
53 FC2 234 -5.798
53 FC2 235 -5.798
53 FC2 236 -7.263
53 FC2 237 -8.240
53 FC2 238 -8.240
53 FC2 239 -7.751
53 FC2 240 -7.751
53 FC2 241 -7.751
53 FC2 242 -8.240
53 FC2 243 -9.216
53 FC2 244 -9.705
53 FC2 245 -9.705
53 FC2 246 -10.193
53 FC2 247 -9.705
53 FC2 248 -9.705
53 FC2 249 -9.705
53 FC2 250 -10.193
53 FC2 251 -10.193
53 FC2 252 -9.705
53 FC2 253 -8.728
53 FC2 254 -8.240
53 FC2 255 -7.751
# FC1 chan 12
53 FC1 0 -1.160
53 FC1 1 -0.671
53 FC1 2 -0.183
53 FC1 3 0.305
53 FC1 4 0.793
53 FC1 5 0.305
53 FC1 6 0.305
53 FC1 7 0.305
53 FC1 8 0.793
53 FC1 9 1.282
53 FC1 10 1.282
53 FC1 11 1.282
53 FC1 12 1.282
53 FC1 13 0.793
53 FC1 14 0.793
53 FC1 15 0.305
53 FC1 16 0.793
53 FC1 17 1.770
53 FC1 18 2.258
53 FC1 19 3.235
53 FC1 20 3.723
53 FC1 21 3.723
53 FC1 22 3.235
53 FC1 23 3.235
53 FC1 24 3.235
53 FC1 25 2.747
53 FC1 26 2.747
53 FC1 27 2.747
53 FC1 28 1.770
53 FC1 29 1.282
53 FC1 30 1.282
53 FC1 31 1.770
53 FC1 32 2.747
53 FC1 33 3.723
53 FC1 34 3.723
53 FC1 35 3.723
53 FC1 36 3.235
53 FC1 37 3.235
53 FC1 38 3.235
53 FC1 39 3.235
53 FC1 40 2.747
53 FC1 41 1.770
53 FC1 42 0.305
53 FC1 43 -1.160
53 FC1 44 -2.625
53 FC1 45 -3.113
53 FC1 46 -3.113
53 FC1 47 -3.113
53 FC1 48 -2.625
53 FC1 49 -2.625
53 FC1 50 -1.648
53 FC1 51 -1.160
53 FC1 52 0.305
53 FC1 53 0.793
53 FC1 54 0.793
53 FC1 55 0.793
53 FC1 56 0.305
53 FC1 57 -0.183
53 FC1 58 -0.671
53 FC1 59 -0.671
53 FC1 60 -0.671
53 FC1 61 -0.183
53 FC1 62 0.305
53 FC1 63 1.282
53 FC1 64 2.258
53 FC1 65 2.747
53 FC1 66 2.747
53 FC1 67 2.258
53 FC1 68 2.747
53 FC1 69 3.235
53 FC1 70 3.723
53 FC1 71 4.211
53 FC1 72 4.211
53 FC1 73 3.723
53 FC1 74 3.235
53 FC1 75 2.258
53 FC1 76 2.258
53 FC1 77 2.258
53 FC1 78 2.258
53 FC1 79 1.770
53 FC1 80 1.770
53 FC1 81 1.282
53 FC1 82 0.793
53 FC1 83 0.305
53 FC1 84 -0.183
53 FC1 85 -0.671
53 FC1 86 -1.160
53 FC1 87 -1.160
53 FC1 88 -0.183
53 FC1 89 0.305
53 FC1 90 0.793
53 FC1 91 0.305
53 FC1 92 -0.183
53 FC1 93 -1.160
53 FC1 94 -1.160
53 FC1 95 -0.671
53 FC1 96 -0.183
53 FC1 97 0.305
53 FC1 98 -0.183
53 FC1 99 -1.160
53 FC1 100 -1.648
53 FC1 101 -1.648
53 FC1 102 -1.648
53 FC1 103 -1.160
53 FC1 104 -0.671
53 FC1 105 -0.671
53 FC1 106 -2.136
53 FC1 107 -2.136
53 FC1 108 -2.136
53 FC1 109 -1.648
53 FC1 110 -1.160
53 FC1 111 -0.671
53 FC1 112 -0.671
53 FC1 113 -1.160
53 FC1 114 -1.160
53 FC1 115 -1.160
53 FC1 116 -0.671
53 FC1 117 -0.671
53 FC1 118 -0.183
53 FC1 119 -0.183
53 FC1 120 -0.183
53 FC1 121 -0.183
53 FC1 122 -0.183
53 FC1 123 -0.183
53 FC1 124 0.305
53 FC1 125 0.793
53 FC1 126 0.793
53 FC1 127 0.793
53 FC1 128 0.793
53 FC1 129 0.793
53 FC1 130 0.793
53 FC1 131 0.305
53 FC1 132 -0.671
53 FC1 133 -1.160
53 FC1 134 -2.136
53 FC1 135 -2.625
53 FC1 136 -2.625
53 FC1 137 -2.625
53 FC1 138 -2.136
53 FC1 139 -1.648
53 FC1 140 -0.671
53 FC1 141 0.305
53 FC1 142 0.305
53 FC1 143 0.793
53 FC1 144 0.305
53 FC1 145 -0.671
53 FC1 146 -1.648
53 FC1 147 -2.136
53 FC1 148 -1.648
53 FC1 149 -1.160
53 FC1 150 -0.183
53 FC1 151 0.305
53 FC1 152 0.793
53 FC1 153 0.793
53 FC1 154 0.793
53 FC1 155 0.793
53 FC1 156 0.793
53 FC1 157 0.793
53 FC1 158 0.305
53 FC1 159 -0.183
53 FC1 160 -0.183
53 FC1 161 -0.183
53 FC1 162 -0.183
53 FC1 163 -0.183
53 FC1 164 -0.671
53 FC1 165 -1.648
53 FC1 166 -2.136
53 FC1 167 -2.136
53 FC1 168 -1.648
53 FC1 169 -1.160
53 FC1 170 -1.160
53 FC1 171 -1.648
53 FC1 172 -2.625
53 FC1 173 -3.601
53 FC1 174 -4.089
53 FC1 175 -4.089
53 FC1 176 -3.113
53 FC1 177 -2.136
53 FC1 178 -1.648
53 FC1 179 -1.648
53 FC1 180 -1.648
53 FC1 181 -2.136
53 FC1 182 -2.136
53 FC1 183 -2.136
53 FC1 184 -1.648
53 FC1 185 -0.671
53 FC1 186 -0.671
53 FC1 187 -0.671
53 FC1 188 -0.671
53 FC1 189 -0.671
53 FC1 190 -0.671
53 FC1 191 -0.671
53 FC1 192 -0.671
53 FC1 193 -0.671
53 FC1 194 -1.160
53 FC1 195 -1.160
53 FC1 196 -1.648
53 FC1 197 -2.136
53 FC1 198 -2.625
53 FC1 199 -2.625
53 FC1 200 -2.625
53 FC1 201 -2.136
53 FC1 202 -2.136
53 FC1 203 -2.136
53 FC1 204 -2.136
53 FC1 205 -1.648
53 FC1 206 -1.648
53 FC1 207 -0.671
53 FC1 208 -0.671
53 FC1 209 -0.183
53 FC1 210 -0.183
53 FC1 211 -0.183
53 FC1 212 -0.671
53 FC1 213 -1.160
53 FC1 214 -2.136
53 FC1 215 -3.113
53 FC1 216 -3.113
53 FC1 217 -3.601
53 FC1 218 -2.625
53 FC1 219 -2.136
53 FC1 220 -1.648
53 FC1 221 -1.648
53 FC1 222 -1.648
53 FC1 223 -2.625
53 FC1 224 -3.113
53 FC1 225 -3.113
53 FC1 226 -3.601
53 FC1 227 -3.113
53 FC1 228 -2.625
53 FC1 229 -2.136
53 FC1 230 -1.160
53 FC1 231 -1.160
53 FC1 232 -1.160
53 FC1 233 -1.648
53 FC1 234 -2.136
53 FC1 235 -2.625
53 FC1 236 -3.113
53 FC1 237 -2.625
53 FC1 238 -2.136
53 FC1 239 -1.160
53 FC1 240 -0.671
53 FC1 241 -0.671
53 FC1 242 -1.160
53 FC1 243 -2.136
53 FC1 244 -3.113
53 FC1 245 -3.113
53 FC1 246 -3.113
53 FC1 247 -3.113
53 FC1 248 -2.625
53 FC1 249 -2.625
53 FC1 250 -2.625
53 FC1 251 -3.113
53 FC1 252 -3.601
53 FC1 253 -4.089
53 FC1 254 -4.578
53 FC1 255 -4.089
# T8 chan 13
53 T8 0 6.114
53 T8 1 5.625
53 T8 2 5.137
53 T8 3 3.672
53 T8 4 2.207
53 T8 5 1.231
53 T8 6 0.743
53 T8 7 0.743
53 T8 8 0.254
53 T8 9 -0.722
53 T8 10 -2.675
53 T8 11 -5.117
53 T8 12 -7.070
53 T8 13 -9.023
53 T8 14 -10.000
53 T8 15 -10.976
53 T8 16 -11.464
53 T8 17 -11.953
53 T8 18 -11.953
53 T8 19 -11.953
53 T8 20 -11.464
53 T8 21 -10.488
53 T8 22 -10.000
53 T8 23 -10.000
53 T8 24 -10.976
53 T8 25 -11.953
53 T8 26 -12.929
53 T8 27 -13.418
53 T8 28 -13.418
53 T8 29 -13.418
53 T8 30 -13.906
53 T8 31 -15.371
53 T8 32 -16.836
53 T8 33 -17.812
53 T8 34 -17.324
53 T8 35 -16.347
53 T8 36 -15.371
53 T8 37 -15.859
53 T8 38 -17.812
53 T8 39 -20.254
53 T8 40 -23.671
53 T8 41 -25.625
53 T8 42 -25.625
53 T8 43 -24.648
53 T8 44 -22.695
53 T8 45 -21.230
53 T8 46 -20.254
53 T8 47 -20.254
53 T8 48 -19.277
53 T8 49 -18.789
53 T8 50 -17.812
53 T8 51 -17.324
53 T8 52 -16.347
53 T8 53 -16.347
53 T8 54 -16.347
53 T8 55 -15.859
53 T8 56 -15.859
53 T8 57 -16.347
53 T8 58 -16.347
53 T8 59 -16.836
53 T8 60 -16.347
53 T8 61 -16.347
53 T8 62 -16.836
53 T8 63 -17.812
53 T8 64 -18.789
53 T8 65 -19.765
53 T8 66 -19.277
53 T8 67 -18.300
53 T8 68 -16.836
53 T8 69 -15.859
53 T8 70 -15.371
53 T8 71 -15.859
53 T8 72 -16.347
53 T8 73 -16.836
53 T8 74 -16.836
53 T8 75 -16.836
53 T8 76 -16.347
53 T8 77 -16.836
53 T8 78 -16.836
53 T8 79 -17.812
53 T8 80 -18.300
53 T8 81 -18.300
53 T8 82 -17.812
53 T8 83 -17.324
53 T8 84 -17.324
53 T8 85 -17.812
53 T8 86 -18.789
53 T8 87 -19.277
53 T8 88 -18.789
53 T8 89 -16.836
53 T8 90 -14.394
53 T8 91 -11.953
53 T8 92 -10.488
53 T8 93 -10.976
53 T8 94 -11.464
53 T8 95 -12.441
53 T8 96 -13.906
53 T8 97 -14.882
53 T8 98 -15.371
53 T8 99 -14.882
53 T8 100 -14.882
53 T8 101 -14.882
53 T8 102 -15.859
53 T8 103 -17.324
53 T8 104 -18.789
53 T8 105 -19.277
53 T8 106 -18.789
53 T8 107 -16.836
53 T8 108 -15.371
53 T8 109 -14.394
53 T8 110 -14.394
53 T8 111 -15.371
53 T8 112 -14.882
53 T8 113 -13.906
53 T8 114 -12.929
53 T8 115 -12.441
53 T8 116 -12.929
53 T8 117 -13.906
53 T8 118 -14.394
53 T8 119 -13.418
53 T8 120 -11.464
53 T8 121 -9.511
53 T8 122 -8.046
53 T8 123 -8.046
53 T8 124 -8.046
53 T8 125 -7.558
53 T8 126 -6.093
53 T8 127 -4.629
53 T8 128 -4.140
53 T8 129 -4.629
53 T8 130 -6.582
53 T8 131 -8.046
53 T8 132 -8.535
53 T8 133 -8.046
53 T8 134 -6.093
53 T8 135 -4.629
53 T8 136 -3.652
53 T8 137 -3.652
53 T8 138 -4.629
53 T8 139 -6.582
53 T8 140 -8.535
53 T8 141 -10.000
53 T8 142 -10.976
53 T8 143 -10.488
53 T8 144 -9.511
53 T8 145 -8.535
53 T8 146 -8.046
53 T8 147 -8.046
53 T8 148 -8.046
53 T8 149 -7.070
53 T8 150 -5.605
53 T8 151 -4.140
53 T8 152 -4.140
53 T8 153 -5.605
53 T8 154 -8.535
53 T8 155 -11.464
53 T8 156 -13.906
53 T8 157 -15.371
53 T8 158 -15.859
53 T8 159 -16.347
53 T8 160 -16.347
53 T8 161 -16.347
53 T8 162 -15.859
53 T8 163 -14.394
53 T8 164 -12.929
53 T8 165 -10.488
53 T8 166 -8.046
53 T8 167 -6.093
53 T8 168 -5.117
53 T8 169 -6.582
53 T8 170 -9.511
53 T8 171 -12.929
53 T8 172 -14.394
53 T8 173 -14.394
53 T8 174 -12.441
53 T8 175 -10.488
53 T8 176 -10.488
53 T8 177 -11.953
53 T8 178 -14.394
53 T8 179 -16.347
53 T8 180 -16.836
53 T8 181 -15.859
53 T8 182 -13.906
53 T8 183 -11.953
53 T8 184 -10.488
53 T8 185 -10.976
53 T8 186 -11.953
53 T8 187 -13.906
53 T8 188 -15.371
53 T8 189 -16.347
53 T8 190 -15.859
53 T8 191 -15.859
53 T8 192 -15.371
53 T8 193 -15.371
53 T8 194 -15.859
53 T8 195 -14.882
53 T8 196 -13.418
53 T8 197 -12.441
53 T8 198 -12.441
53 T8 199 -13.418
53 T8 200 -15.371
53 T8 201 -16.836
53 T8 202 -17.812
53 T8 203 -18.789
53 T8 204 -19.765
53 T8 205 -20.742
53 T8 206 -21.718
53 T8 207 -22.695
53 T8 208 -22.207
53 T8 209 -22.207
53 T8 210 -22.695
53 T8 211 -23.671
53 T8 212 -23.671
53 T8 213 -22.695
53 T8 214 -20.742
53 T8 215 -18.789
53 T8 216 -17.812
53 T8 217 -18.300
53 T8 218 -19.765
53 T8 219 -20.742
53 T8 220 -21.230
53 T8 221 -20.742
53 T8 222 -19.765
53 T8 223 -19.277
53 T8 224 -19.277
53 T8 225 -19.765
53 T8 226 -19.765
53 T8 227 -20.742
53 T8 228 -21.718
53 T8 229 -23.183
53 T8 230 -23.671
53 T8 231 -23.671
53 T8 232 -23.671
53 T8 233 -23.671
53 T8 234 -24.160
53 T8 235 -25.136
53 T8 236 -26.113
53 T8 237 -25.625
53 T8 238 -23.183
53 T8 239 -20.742
53 T8 240 -19.277
53 T8 241 -19.277
53 T8 242 -21.230
53 T8 243 -23.183
53 T8 244 -23.671
53 T8 245 -22.207
53 T8 246 -18.789
53 T8 247 -15.859
53 T8 248 -14.882
53 T8 249 -16.347
53 T8 250 -19.277
53 T8 251 -21.230
53 T8 252 -19.765
53 T8 253 -16.836
53 T8 254 -13.418
53 T8 255 -11.464
# T7 chan 14
53 T7 0 1.617
53 T7 1 1.617
53 T7 2 1.129
53 T7 3 0.153
53 T7 4 -0.336
53 T7 5 -0.824
53 T7 6 -0.336
53 T7 7 0.641
53 T7 8 1.617
53 T7 9 3.082
53 T7 10 3.082
53 T7 11 2.594
53 T7 12 0.641
53 T7 13 -1.312
53 T7 14 -2.289
53 T7 15 -2.289
53 T7 16 -1.312
53 T7 17 0.641
53 T7 18 1.617
53 T7 19 2.106
53 T7 20 0.641
53 T7 21 -0.824
53 T7 22 -1.801
53 T7 23 -1.312
53 T7 24 -0.336
53 T7 25 1.129
53 T7 26 2.106
53 T7 27 2.106
53 T7 28 1.129
53 T7 29 0.153
53 T7 30 -0.336
53 T7 31 -1.312
53 T7 32 -2.289
53 T7 33 -3.265
53 T7 34 -4.242
53 T7 35 -4.730
53 T7 36 -5.219
53 T7 37 -5.219
53 T7 38 -5.219
53 T7 39 -5.219
53 T7 40 -6.195
53 T7 41 -7.172
53 T7 42 -8.636
53 T7 43 -10.101
53 T7 44 -11.566
53 T7 45 -13.031
53 T7 46 -12.543
53 T7 47 -11.078
53 T7 48 -9.125
53 T7 49 -7.172
53 T7 50 -5.219
53 T7 51 -4.242
53 T7 52 -3.265
53 T7 53 -2.289
53 T7 54 -0.824
53 T7 55 -0.336
53 T7 56 0.153
53 T7 57 0.153
53 T7 58 -0.336
53 T7 59 -1.312
53 T7 60 -1.801
53 T7 61 -1.312
53 T7 62 0.153
53 T7 63 1.617
53 T7 64 3.082
53 T7 65 4.059
53 T7 66 4.059
53 T7 67 4.059
53 T7 68 4.547
53 T7 69 4.059
53 T7 70 3.571
53 T7 71 3.082
53 T7 72 2.106
53 T7 73 2.106
53 T7 74 2.106
53 T7 75 1.617
53 T7 76 1.129
53 T7 77 0.641
53 T7 78 0.641
53 T7 79 0.641
53 T7 80 0.153
53 T7 81 -0.824
53 T7 82 -2.777
53 T7 83 -4.730
53 T7 84 -5.707
53 T7 85 -5.219
53 T7 86 -4.730
53 T7 87 -4.242
53 T7 88 -4.242
53 T7 89 -4.730
53 T7 90 -4.730
53 T7 91 -4.730
53 T7 92 -4.730
53 T7 93 -5.707
53 T7 94 -7.172
53 T7 95 -8.148
53 T7 96 -9.125
53 T7 97 -8.148
53 T7 98 -6.683
53 T7 99 -5.707
53 T7 100 -4.730
53 T7 101 -4.242
53 T7 102 -3.265
53 T7 103 -2.289
53 T7 104 -0.824
53 T7 105 -0.336
53 T7 106 -0.824
53 T7 107 -2.777
53 T7 108 -4.730
53 T7 109 -6.195
53 T7 110 -6.195
53 T7 111 -5.707
53 T7 112 -5.219
53 T7 113 -5.219
53 T7 114 -5.219
53 T7 115 -4.730
53 T7 116 -3.265
53 T7 117 -1.312
53 T7 118 0.641
53 T7 119 1.617
53 T7 120 1.129
53 T7 121 0.641
53 T7 122 -0.336
53 T7 123 -0.336
53 T7 124 0.153
53 T7 125 0.641
53 T7 126 1.129
53 T7 127 0.641
53 T7 128 0.153
53 T7 129 0.641
53 T7 130 2.106
53 T7 131 3.571
53 T7 132 4.547
53 T7 133 4.059
53 T7 134 2.106
53 T7 135 -0.336
53 T7 136 -1.801
53 T7 137 -1.801
53 T7 138 -0.336
53 T7 139 1.617
53 T7 140 3.571
53 T7 141 5.035
53 T7 142 5.035
53 T7 143 4.547
53 T7 144 3.571
53 T7 145 3.571
53 T7 146 4.547
53 T7 147 5.524
53 T7 148 6.012
53 T7 149 6.012
53 T7 150 5.035
53 T7 151 4.547
53 T7 152 3.571
53 T7 153 4.059
53 T7 154 5.035
53 T7 155 5.524
53 T7 156 4.547
53 T7 157 3.571
53 T7 158 3.082
53 T7 159 4.547
53 T7 160 7.477
53 T7 161 10.406
53 T7 162 12.360
53 T7 163 11.871
53 T7 164 10.406
53 T7 165 7.965
53 T7 166 6.012
53 T7 167 5.524
53 T7 168 6.012
53 T7 169 6.500
53 T7 170 6.989
53 T7 171 7.477
53 T7 172 6.989
53 T7 173 5.524
53 T7 174 4.059
53 T7 175 3.082
53 T7 176 2.594
53 T7 177 2.594
53 T7 178 3.082
53 T7 179 3.082
53 T7 180 2.594
53 T7 181 1.617
53 T7 182 1.617
53 T7 183 1.617
53 T7 184 3.082
53 T7 185 4.547
53 T7 186 5.035
53 T7 187 5.035
53 T7 188 4.547
53 T7 189 4.059
53 T7 190 4.547
53 T7 191 6.012
53 T7 192 7.477
53 T7 193 6.989
53 T7 194 5.035
53 T7 195 1.617
53 T7 196 -2.289
53 T7 197 -4.730
53 T7 198 -5.707
53 T7 199 -4.730
53 T7 200 -3.265
53 T7 201 -2.289
53 T7 202 -0.336
53 T7 203 1.617
53 T7 204 3.571
53 T7 205 5.524
53 T7 206 6.500
53 T7 207 6.012
53 T7 208 4.547
53 T7 209 1.617
53 T7 210 -0.824
53 T7 211 -3.265
53 T7 212 -5.219
53 T7 213 -6.195
53 T7 214 -6.195
53 T7 215 -5.219
53 T7 216 -4.242
53 T7 217 -2.777
53 T7 218 -2.289
53 T7 219 -2.289
53 T7 220 -2.289
53 T7 221 -2.289
53 T7 222 -2.289
53 T7 223 -2.777
53 T7 224 -3.754
53 T7 225 -5.707
53 T7 226 -7.660
53 T7 227 -9.125
53 T7 228 -10.101
53 T7 229 -10.101
53 T7 230 -9.125
53 T7 231 -7.660
53 T7 232 -6.195
53 T7 233 -4.242
53 T7 234 -2.777
53 T7 235 -2.289
53 T7 236 -1.801
53 T7 237 -1.312
53 T7 238 -0.336
53 T7 239 0.641
53 T7 240 2.106
53 T7 241 2.594
53 T7 242 2.106
53 T7 243 1.129
53 T7 244 0.641
53 T7 245 1.129
53 T7 246 2.106
53 T7 247 3.082
53 T7 248 4.547
53 T7 249 5.524
53 T7 250 6.500
53 T7 251 6.989
53 T7 252 6.500
53 T7 253 5.524
53 T7 254 5.035
53 T7 255 5.035
# CZ chan 15
53 CZ 0 9.247
53 CZ 1 10.712
53 CZ 2 11.688
53 CZ 3 11.688
53 CZ 4 10.712
53 CZ 5 9.735
53 CZ 6 9.735
53 CZ 7 11.200
53 CZ 8 13.153
53 CZ 9 13.641
53 CZ 10 11.200
53 CZ 11 4.852
53 CZ 12 -1.984
53 CZ 13 -6.378
53 CZ 14 -5.402
53 CZ 15 -0.519
53 CZ 16 5.341
53 CZ 17 7.294
53 CZ 18 4.852
53 CZ 19 -0.031
53 CZ 20 -3.937
53 CZ 21 -3.937
53 CZ 22 -1.495
53 CZ 23 1.434
53 CZ 24 1.923
53 CZ 25 -0.519
53 CZ 26 -2.960
53 CZ 27 -4.425
53 CZ 28 -4.913
53 CZ 29 -5.402
53 CZ 30 -7.355
53 CZ 31 -9.796
53 CZ 32 -12.238
53 CZ 33 -13.214
53 CZ 34 -12.726
53 CZ 35 -11.749
53 CZ 36 -11.749
53 CZ 37 -12.238
53 CZ 38 -12.726
53 CZ 39 -12.238
53 CZ 40 -11.749
53 CZ 41 -12.726
53 CZ 42 -14.191
53 CZ 43 -16.632
53 CZ 44 -17.609
53 CZ 45 -16.632
53 CZ 46 -14.679
53 CZ 47 -13.214
53 CZ 48 -12.238
53 CZ 49 -12.726
53 CZ 50 -12.726
53 CZ 51 -10.773
53 CZ 52 -8.331
53 CZ 53 -5.890
53 CZ 54 -5.402
53 CZ 55 -6.378
53 CZ 56 -6.866
53 CZ 57 -5.890
53 CZ 58 -3.448
53 CZ 59 -1.495
53 CZ 60 -1.007
53 CZ 61 -1.984
53 CZ 62 -3.448
53 CZ 63 -3.448
53 CZ 64 -2.472
53 CZ 65 -1.495
53 CZ 66 -1.495
53 CZ 67 -1.984
53 CZ 68 -2.472
53 CZ 69 -1.984
53 CZ 70 -0.031
53 CZ 71 1.434
53 CZ 72 1.923
53 CZ 73 1.434
53 CZ 74 -0.031
53 CZ 75 -1.007
53 CZ 76 -1.495
53 CZ 77 -1.984
53 CZ 78 -1.007
53 CZ 79 -0.519
53 CZ 80 -0.519
53 CZ 81 -1.007
53 CZ 82 -2.472
53 CZ 83 -4.425
53 CZ 84 -6.866
53 CZ 85 -8.820
53 CZ 86 -10.284
53 CZ 87 -11.749
53 CZ 88 -12.238
53 CZ 89 -13.214
53 CZ 90 -14.679
53 CZ 91 -15.656
53 CZ 92 -16.144
53 CZ 93 -15.167
53 CZ 94 -14.191
53 CZ 95 -13.214
53 CZ 96 -13.702
53 CZ 97 -15.167
53 CZ 98 -17.120
53 CZ 99 -18.585
53 CZ 100 -18.585
53 CZ 101 -18.585
53 CZ 102 -19.073
53 CZ 103 -21.027
53 CZ 104 -24.445
53 CZ 105 -27.374
53 CZ 106 -29.816
53 CZ 107 -30.304
53 CZ 108 -29.816
53 CZ 109 -27.374
53 CZ 110 -23.956
53 CZ 111 -19.562
53 CZ 112 -14.679
53 CZ 113 -10.284
53 CZ 114 -7.355
53 CZ 115 -6.378
53 CZ 116 -6.378
53 CZ 117 -6.866
53 CZ 118 -5.890
53 CZ 119 -3.937
53 CZ 120 -1.495
53 CZ 121 -0.031
53 CZ 122 -0.031
53 CZ 123 -0.031
53 CZ 124 -0.031
53 CZ 125 0.946
53 CZ 126 2.899
53 CZ 127 4.364
53 CZ 128 4.364
53 CZ 129 3.387
53 CZ 130 2.411
53 CZ 131 0.946
53 CZ 132 0.458
53 CZ 133 -0.031
53 CZ 134 -1.007
53 CZ 135 -1.984
53 CZ 136 -2.472
53 CZ 137 -2.472
53 CZ 138 -1.495
53 CZ 139 -0.519
53 CZ 140 -0.031
53 CZ 141 -0.519
53 CZ 142 -1.984
53 CZ 143 -3.937
53 CZ 144 -4.913
53 CZ 145 -4.913
53 CZ 146 -4.425
53 CZ 147 -3.937
53 CZ 148 -3.937
53 CZ 149 -3.448
53 CZ 150 -1.984
53 CZ 151 -0.031
53 CZ 152 0.458
53 CZ 153 -0.519
53 CZ 154 -4.425
53 CZ 155 -9.308
53 CZ 156 -13.214
53 CZ 157 -15.167
53 CZ 158 -14.679
53 CZ 159 -12.726
53 CZ 160 -10.284
53 CZ 161 -8.331
53 CZ 162 -7.843
53 CZ 163 -8.331
53 CZ 164 -9.796
53 CZ 165 -11.261
53 CZ 166 -13.214
53 CZ 167 -15.167
53 CZ 168 -16.144
53 CZ 169 -16.144
53 CZ 170 -16.144
53 CZ 171 -16.144
53 CZ 172 -17.120
53 CZ 173 -19.073
53 CZ 174 -21.515
53 CZ 175 -22.980
53 CZ 176 -23.468
53 CZ 177 -22.980
53 CZ 178 -22.491
53 CZ 179 -22.491
53 CZ 180 -22.003
53 CZ 181 -19.562
53 CZ 182 -15.656
53 CZ 183 -12.238
53 CZ 184 -10.284
53 CZ 185 -11.749
53 CZ 186 -15.656
53 CZ 187 -21.027
53 CZ 188 -25.421
53 CZ 189 -26.398
53 CZ 190 -23.468
53 CZ 191 -18.585
53 CZ 192 -14.191
53 CZ 193 -11.749
53 CZ 194 -12.726
53 CZ 195 -15.167
53 CZ 196 -17.609
53 CZ 197 -18.097
53 CZ 198 -17.120
53 CZ 199 -16.144
53 CZ 200 -15.656
53 CZ 201 -16.632
53 CZ 202 -16.632
53 CZ 203 -15.656
53 CZ 204 -13.702
53 CZ 205 -12.726
53 CZ 206 -13.702
53 CZ 207 -15.656
53 CZ 208 -18.097
53 CZ 209 -19.562
53 CZ 210 -20.538
53 CZ 211 -22.003
53 CZ 212 -24.933
53 CZ 213 -27.374
53 CZ 214 -28.351
53 CZ 215 -26.886
53 CZ 216 -23.956
53 CZ 217 -20.538
53 CZ 218 -19.073
53 CZ 219 -20.050
53 CZ 220 -22.003
53 CZ 221 -23.468
53 CZ 222 -24.445
53 CZ 223 -24.445
53 CZ 224 -24.933
53 CZ 225 -25.421
53 CZ 226 -25.421
53 CZ 227 -24.933
53 CZ 228 -24.445
53 CZ 229 -24.445
53 CZ 230 -24.933
53 CZ 231 -25.909
53 CZ 232 -25.909
53 CZ 233 -24.933
53 CZ 234 -22.491
53 CZ 235 -20.050
53 CZ 236 -18.585
53 CZ 237 -17.609
53 CZ 238 -16.632
53 CZ 239 -15.167
53 CZ 240 -13.214
53 CZ 241 -11.261
53 CZ 242 -11.261
53 CZ 243 -12.238
53 CZ 244 -13.702
53 CZ 245 -12.238
53 CZ 246 -7.355
53 CZ 247 -1.007
53 CZ 248 3.876
53 CZ 249 3.876
53 CZ 250 -0.519
53 CZ 251 -5.890
53 CZ 252 -8.820
53 CZ 253 -10.284
53 CZ 254 -11.749
53 CZ 255 -16.144
# C3 chan 16
53 C3 0 -3.113
53 C3 1 -2.625
53 C3 2 -2.136
53 C3 3 -1.648
53 C3 4 -0.671
53 C3 5 -0.183
53 C3 6 -0.183
53 C3 7 -0.671
53 C3 8 -0.671
53 C3 9 -0.183
53 C3 10 -0.183
53 C3 11 0.305
53 C3 12 -0.183
53 C3 13 -1.160
53 C3 14 -1.648
53 C3 15 -2.136
53 C3 16 -2.136
53 C3 17 -0.671
53 C3 18 0.793
53 C3 19 1.770
53 C3 20 1.770
53 C3 21 0.793
53 C3 22 -0.183
53 C3 23 -0.671
53 C3 24 -0.183
53 C3 25 0.305
53 C3 26 0.793
53 C3 27 0.793
53 C3 28 0.305
53 C3 29 -0.183
53 C3 30 -0.183
53 C3 31 0.305
53 C3 32 0.793
53 C3 33 0.793
53 C3 34 0.793
53 C3 35 -0.183
53 C3 36 -1.160
53 C3 37 -1.160
53 C3 38 -1.648
53 C3 39 -2.136
53 C3 40 -2.625
53 C3 41 -3.601
53 C3 42 -5.066
53 C3 43 -6.531
53 C3 44 -7.996
53 C3 45 -8.484
53 C3 46 -8.484
53 C3 47 -7.507
53 C3 48 -6.531
53 C3 49 -5.554
53 C3 50 -4.578
53 C3 51 -3.113
53 C3 52 -2.136
53 C3 53 -0.183
53 C3 54 0.305
53 C3 55 1.282
53 C3 56 1.282
53 C3 57 0.305
53 C3 58 -0.183
53 C3 59 -1.160
53 C3 60 -1.648
53 C3 61 -1.160
53 C3 62 -0.671
53 C3 63 0.793
53 C3 64 2.258
53 C3 65 3.235
53 C3 66 3.723
53 C3 67 4.211
53 C3 68 4.211
53 C3 69 3.723
53 C3 70 3.235
53 C3 71 2.747
53 C3 72 2.747
53 C3 73 2.747
53 C3 74 2.747
53 C3 75 2.258
53 C3 76 1.770
53 C3 77 1.282
53 C3 78 0.793
53 C3 79 0.793
53 C3 80 0.305
53 C3 81 -0.183
53 C3 82 -1.648
53 C3 83 -2.625
53 C3 84 -3.113
53 C3 85 -3.113
53 C3 86 -2.625
53 C3 87 -2.136
53 C3 88 -1.648
53 C3 89 -1.648
53 C3 90 -2.136
53 C3 91 -2.625
53 C3 92 -3.601
53 C3 93 -4.578
53 C3 94 -5.554
53 C3 95 -5.066
53 C3 96 -4.578
53 C3 97 -3.113
53 C3 98 -2.136
53 C3 99 -1.648
53 C3 100 -1.648
53 C3 101 -1.160
53 C3 102 -0.671
53 C3 103 0.305
53 C3 104 0.305
53 C3 105 0.305
53 C3 106 -0.671
53 C3 107 -1.160
53 C3 108 -1.648
53 C3 109 -1.648
53 C3 110 -1.160
53 C3 111 -1.160
53 C3 112 -1.648
53 C3 113 -2.625
53 C3 114 -3.601
53 C3 115 -3.601
53 C3 116 -3.601
53 C3 117 -2.625
53 C3 118 -2.136
53 C3 119 -1.648
53 C3 120 -1.160
53 C3 121 -1.160
53 C3 122 -0.671
53 C3 123 -0.671
53 C3 124 -0.671
53 C3 125 -0.671
53 C3 126 -1.160
53 C3 127 -1.160
53 C3 128 -0.671
53 C3 129 0.305
53 C3 130 0.793
53 C3 131 1.770
53 C3 132 1.770
53 C3 133 0.793
53 C3 134 -0.183
53 C3 135 -1.648
53 C3 136 -2.136
53 C3 137 -2.136
53 C3 138 -1.648
53 C3 139 0.305
53 C3 140 1.770
53 C3 141 2.747
53 C3 142 3.235
53 C3 143 3.235
53 C3 144 2.258
53 C3 145 1.770
53 C3 146 1.282
53 C3 147 1.282
53 C3 148 1.282
53 C3 149 0.793
53 C3 150 0.793
53 C3 151 0.793
53 C3 152 1.282
53 C3 153 2.258
53 C3 154 3.723
53 C3 155 4.700
53 C3 156 5.188
53 C3 157 4.700
53 C3 158 4.700
53 C3 159 4.211
53 C3 160 4.700
53 C3 161 4.700
53 C3 162 4.700
53 C3 163 4.700
53 C3 164 3.723
53 C3 165 2.747
53 C3 166 1.770
53 C3 167 1.770
53 C3 168 2.747
53 C3 169 3.723
53 C3 170 4.211
53 C3 171 4.700
53 C3 172 4.211
53 C3 173 3.235
53 C3 174 2.258
53 C3 175 1.770
53 C3 176 2.258
53 C3 177 2.747
53 C3 178 3.723
53 C3 179 3.723
53 C3 180 3.235
53 C3 181 2.258
53 C3 182 1.770
53 C3 183 1.770
53 C3 184 2.747
53 C3 185 3.723
53 C3 186 4.211
53 C3 187 4.700
53 C3 188 4.211
53 C3 189 4.211
53 C3 190 4.211
53 C3 191 4.211
53 C3 192 4.211
53 C3 193 3.723
53 C3 194 2.747
53 C3 195 0.793
53 C3 196 -1.160
53 C3 197 -3.113
53 C3 198 -4.089
53 C3 199 -4.089
53 C3 200 -3.601
53 C3 201 -2.625
53 C3 202 -2.136
53 C3 203 -1.648
53 C3 204 -1.160
53 C3 205 -0.671
53 C3 206 -0.671
53 C3 207 -0.671
53 C3 208 -0.671
53 C3 209 -0.671
53 C3 210 -0.671
53 C3 211 -1.160
53 C3 212 -1.160
53 C3 213 -1.648
53 C3 214 -2.625
53 C3 215 -3.113
53 C3 216 -3.113
53 C3 217 -3.113
53 C3 218 -2.625
53 C3 219 -3.113
53 C3 220 -3.113
53 C3 221 -3.113
53 C3 222 -3.113
53 C3 223 -3.601
53 C3 224 -4.089
53 C3 225 -4.578
53 C3 226 -5.066
53 C3 227 -5.066
53 C3 228 -4.089
53 C3 229 -3.113
53 C3 230 -2.625
53 C3 231 -2.136
53 C3 232 -2.136
53 C3 233 -1.648
53 C3 234 -1.648
53 C3 235 -1.648
53 C3 236 -1.648
53 C3 237 -1.160
53 C3 238 -0.671
53 C3 239 -0.183
53 C3 240 0.793
53 C3 241 0.793
53 C3 242 0.793
53 C3 243 1.282
53 C3 244 1.770
53 C3 245 2.258
53 C3 246 2.747
53 C3 247 2.747
53 C3 248 3.235
53 C3 249 3.235
53 C3 250 3.235
53 C3 251 2.258
53 C3 252 1.282
53 C3 253 -0.183
53 C3 254 -1.160
53 C3 255 -1.160
# C4 chan 17
53 C4 0 2.157
53 C4 1 2.645
53 C4 2 2.645
53 C4 3 2.157
53 C4 4 1.668
53 C4 5 0.203
53 C4 6 -0.773
53 C4 7 -1.750
53 C4 8 -1.750
53 C4 9 -1.750
53 C4 10 -1.750
53 C4 11 -1.261
53 C4 12 -1.750
53 C4 13 -2.238
53 C4 14 -3.215
53 C4 15 -4.191
53 C4 16 -4.679
53 C4 17 -4.679
53 C4 18 -3.703
53 C4 19 -2.726
53 C4 20 -1.750
53 C4 21 -2.238
53 C4 22 -2.726
53 C4 23 -3.703
53 C4 24 -3.703
53 C4 25 -3.703
53 C4 26 -3.215
53 C4 27 -2.726
53 C4 28 -2.726
53 C4 29 -3.215
53 C4 30 -3.703
53 C4 31 -3.703
53 C4 32 -3.215
53 C4 33 -3.215
53 C4 34 -3.215
53 C4 35 -2.726
53 C4 36 -2.726
53 C4 37 -2.726
53 C4 38 -2.726
53 C4 39 -3.215
53 C4 40 -3.703
53 C4 41 -4.679
53 C4 42 -4.679
53 C4 43 -4.679
53 C4 44 -4.679
53 C4 45 -4.679
53 C4 46 -4.679
53 C4 47 -4.679
53 C4 48 -4.679
53 C4 49 -4.679
53 C4 50 -5.168
53 C4 51 -6.144
53 C4 52 -6.632
53 C4 53 -7.121
53 C4 54 -7.609
53 C4 55 -6.632
53 C4 56 -5.656
53 C4 57 -4.679
53 C4 58 -4.679
53 C4 59 -5.168
53 C4 60 -5.656
53 C4 61 -6.632
53 C4 62 -6.632
53 C4 63 -7.121
53 C4 64 -7.609
53 C4 65 -7.609
53 C4 66 -7.121
53 C4 67 -6.632
53 C4 68 -5.168
53 C4 69 -3.703
53 C4 70 -3.215
53 C4 71 -3.703
53 C4 72 -4.191
53 C4 73 -4.679
53 C4 74 -4.679
53 C4 75 -4.679
53 C4 76 -4.679
53 C4 77 -4.679
53 C4 78 -4.679
53 C4 79 -4.191
53 C4 80 -3.703
53 C4 81 -2.726
53 C4 82 -2.238
53 C4 83 -2.238
53 C4 84 -2.238
53 C4 85 -2.726
53 C4 86 -3.215
53 C4 87 -2.726
53 C4 88 -1.750
53 C4 89 -1.261
53 C4 90 -0.285
53 C4 91 -0.285
53 C4 92 -0.285
53 C4 93 -0.285
53 C4 94 -0.285
53 C4 95 -0.285
53 C4 96 -0.285
53 C4 97 -0.773
53 C4 98 -1.750
53 C4 99 -2.238
53 C4 100 -2.726
53 C4 101 -2.726
53 C4 102 -2.726
53 C4 103 -3.215
53 C4 104 -3.215
53 C4 105 -3.215
53 C4 106 -3.215
53 C4 107 -2.726
53 C4 108 -2.238
53 C4 109 -2.238
53 C4 110 -2.238
53 C4 111 -2.726
53 C4 112 -2.726
53 C4 113 -2.726
53 C4 114 -1.750
53 C4 115 -1.261
53 C4 116 -1.261
53 C4 117 -1.750
53 C4 118 -1.750
53 C4 119 -1.261
53 C4 120 -0.773
53 C4 121 0.692
53 C4 122 1.180
53 C4 123 1.668
53 C4 124 1.668
53 C4 125 2.157
53 C4 126 2.645
53 C4 127 3.133
53 C4 128 3.621
53 C4 129 3.133
53 C4 130 2.157
53 C4 131 1.668
53 C4 132 1.180
53 C4 133 1.668
53 C4 134 2.645
53 C4 135 2.645
53 C4 136 2.645
53 C4 137 2.157
53 C4 138 1.180
53 C4 139 0.692
53 C4 140 0.692
53 C4 141 0.692
53 C4 142 0.692
53 C4 143 0.692
53 C4 144 0.203
53 C4 145 0.203
53 C4 146 0.203
53 C4 147 1.180
53 C4 148 1.668
53 C4 149 2.645
53 C4 150 3.621
53 C4 151 3.621
53 C4 152 3.133
53 C4 153 2.645
53 C4 154 1.668
53 C4 155 1.180
53 C4 156 0.203
53 C4 157 -1.261
53 C4 158 -2.726
53 C4 159 -4.191
53 C4 160 -4.679
53 C4 161 -5.168
53 C4 162 -4.679
53 C4 163 -3.215
53 C4 164 -2.238
53 C4 165 -1.261
53 C4 166 0.203
53 C4 167 0.692
53 C4 168 1.180
53 C4 169 1.180
53 C4 170 0.203
53 C4 171 -0.285
53 C4 172 -0.285
53 C4 173 0.203
53 C4 174 0.203
53 C4 175 0.692
53 C4 176 0.203
53 C4 177 -1.261
53 C4 178 -2.726
53 C4 179 -4.679
53 C4 180 -5.168
53 C4 181 -5.168
53 C4 182 -4.679
53 C4 183 -4.191
53 C4 184 -3.215
53 C4 185 -3.215
53 C4 186 -3.703
53 C4 187 -4.679
53 C4 188 -4.679
53 C4 189 -4.679
53 C4 190 -5.168
53 C4 191 -5.656
53 C4 192 -6.144
53 C4 193 -6.144
53 C4 194 -5.168
53 C4 195 -3.703
53 C4 196 -3.215
53 C4 197 -3.215
53 C4 198 -4.679
53 C4 199 -6.144
53 C4 200 -6.144
53 C4 201 -6.632
53 C4 202 -6.632
53 C4 203 -7.609
53 C4 204 -8.097
53 C4 205 -8.586
53 C4 206 -8.586
53 C4 207 -8.097
53 C4 208 -8.586
53 C4 209 -8.586
53 C4 210 -9.074
53 C4 211 -9.074
53 C4 212 -8.586
53 C4 213 -7.609
53 C4 214 -7.121
53 C4 215 -7.121
53 C4 216 -7.609
53 C4 217 -8.097
53 C4 218 -8.586
53 C4 219 -8.586
53 C4 220 -8.097
53 C4 221 -7.609
53 C4 222 -7.609
53 C4 223 -7.121
53 C4 224 -6.632
53 C4 225 -6.144
53 C4 226 -5.656
53 C4 227 -5.656
53 C4 228 -6.144
53 C4 229 -7.121
53 C4 230 -7.609
53 C4 231 -8.097
53 C4 232 -8.097
53 C4 233 -8.097
53 C4 234 -9.074
53 C4 235 -10.050
53 C4 236 -11.027
53 C4 237 -11.515
53 C4 238 -11.027
53 C4 239 -10.539
53 C4 240 -10.050
53 C4 241 -9.562
53 C4 242 -10.050
53 C4 243 -10.050
53 C4 244 -9.562
53 C4 245 -8.586
53 C4 246 -7.609
53 C4 247 -7.121
53 C4 248 -7.121
53 C4 249 -7.609
53 C4 250 -8.097
53 C4 251 -8.586
53 C4 252 -8.097
53 C4 253 -7.609
53 C4 254 -6.632
53 C4 255 -6.632
# CP5 chan 18
53 CP5 0 -2.004
53 CP5 1 -2.492
53 CP5 2 -2.981
53 CP5 3 -2.492
53 CP5 4 -2.004
53 CP5 5 -1.027
53 CP5 6 -0.539
53 CP5 7 -0.051
53 CP5 8 0.437
53 CP5 9 1.414
53 CP5 10 1.414
53 CP5 11 1.414
53 CP5 12 0.437
53 CP5 13 -1.027
53 CP5 14 -2.981
53 CP5 15 -3.957
53 CP5 16 -4.445
53 CP5 17 -3.469
53 CP5 18 -2.492
53 CP5 19 -1.516
53 CP5 20 -1.516
53 CP5 21 -2.004
53 CP5 22 -2.492
53 CP5 23 -2.492
53 CP5 24 -2.004
53 CP5 25 -0.539
53 CP5 26 0.437
53 CP5 27 1.414
53 CP5 28 0.437
53 CP5 29 -0.051
53 CP5 30 -1.027
53 CP5 31 -2.004
53 CP5 32 -2.492
53 CP5 33 -2.981
53 CP5 34 -3.957
53 CP5 35 -4.934
53 CP5 36 -5.910
53 CP5 37 -7.375
53 CP5 38 -7.863
53 CP5 39 -8.352
53 CP5 40 -8.840
53 CP5 41 -9.328
53 CP5 42 -11.281
53 CP5 43 -12.746
53 CP5 44 -14.211
53 CP5 45 -15.188
53 CP5 46 -14.211
53 CP5 47 -12.258
53 CP5 48 -9.816
53 CP5 49 -7.863
53 CP5 50 -6.399
53 CP5 51 -4.934
53 CP5 52 -3.469
53 CP5 53 -2.004
53 CP5 54 -0.051
53 CP5 55 1.902
53 CP5 56 2.391
53 CP5 57 2.391
53 CP5 58 1.414
53 CP5 59 0.437
53 CP5 60 -0.051
53 CP5 61 -0.539
53 CP5 62 -0.051
53 CP5 63 0.926
53 CP5 64 2.391
53 CP5 65 3.855
53 CP5 66 4.832
53 CP5 67 5.320
53 CP5 68 4.832
53 CP5 69 3.855
53 CP5 70 2.879
53 CP5 71 2.391
53 CP5 72 1.902
53 CP5 73 1.902
53 CP5 74 1.902
53 CP5 75 0.926
53 CP5 76 0.437
53 CP5 77 -0.539
53 CP5 78 -0.539
53 CP5 79 -0.539
53 CP5 80 -0.539
53 CP5 81 -1.027
53 CP5 82 -2.492
53 CP5 83 -3.469
53 CP5 84 -3.469
53 CP5 85 -2.492
53 CP5 86 -1.027
53 CP5 87 -0.051
53 CP5 88 0.437
53 CP5 89 -0.539
53 CP5 90 -2.004
53 CP5 91 -3.957
53 CP5 92 -5.422
53 CP5 93 -6.399
53 CP5 94 -6.887
53 CP5 95 -6.887
53 CP5 96 -5.910
53 CP5 97 -5.422
53 CP5 98 -4.934
53 CP5 99 -4.445
53 CP5 100 -4.445
53 CP5 101 -3.957
53 CP5 102 -2.492
53 CP5 103 -1.516
53 CP5 104 -0.539
53 CP5 105 -0.051
53 CP5 106 -0.539
53 CP5 107 -1.516
53 CP5 108 -2.492
53 CP5 109 -3.469
53 CP5 110 -4.934
53 CP5 111 -6.399
53 CP5 112 -7.863
53 CP5 113 -9.328
53 CP5 114 -9.816
53 CP5 115 -8.840
53 CP5 116 -7.863
53 CP5 117 -5.910
53 CP5 118 -5.422
53 CP5 119 -4.934
53 CP5 120 -5.910
53 CP5 121 -6.399
53 CP5 122 -6.399
53 CP5 123 -5.910
53 CP5 124 -5.910
53 CP5 125 -5.910
53 CP5 126 -5.910
53 CP5 127 -6.399
53 CP5 128 -5.422
53 CP5 129 -4.445
53 CP5 130 -3.469
53 CP5 131 -2.492
53 CP5 132 -2.492
53 CP5 133 -3.469
53 CP5 134 -4.934
53 CP5 135 -5.422
53 CP5 136 -5.910
53 CP5 137 -4.934
53 CP5 138 -3.469
53 CP5 139 -2.004
53 CP5 140 -0.051
53 CP5 141 1.414
53 CP5 142 1.414
53 CP5 143 0.437
53 CP5 144 -1.027
53 CP5 145 -1.516
53 CP5 146 -1.027
53 CP5 147 -0.051
53 CP5 148 -0.051
53 CP5 149 -0.539
53 CP5 150 -1.516
53 CP5 151 -2.492
53 CP5 152 -2.492
53 CP5 153 -1.027
53 CP5 154 0.437
53 CP5 155 1.414
53 CP5 156 1.414
53 CP5 157 1.414
53 CP5 158 1.414
53 CP5 159 1.902
53 CP5 160 2.879
53 CP5 161 3.367
53 CP5 162 2.879
53 CP5 163 2.391
53 CP5 164 1.414
53 CP5 165 0.926
53 CP5 166 0.926
53 CP5 167 0.437
53 CP5 168 0.926
53 CP5 169 0.926
53 CP5 170 0.926
53 CP5 171 1.414
53 CP5 172 1.902
53 CP5 173 1.414
53 CP5 174 0.926
53 CP5 175 -0.051
53 CP5 176 -0.539
53 CP5 177 -0.539
53 CP5 178 -1.027
53 CP5 179 -1.516
53 CP5 180 -2.981
53 CP5 181 -3.957
53 CP5 182 -4.445
53 CP5 183 -3.957
53 CP5 184 -2.981
53 CP5 185 -2.004
53 CP5 186 -1.027
53 CP5 187 -0.051
53 CP5 188 0.926
53 CP5 189 1.414
53 CP5 190 1.902
53 CP5 191 1.902
53 CP5 192 0.926
53 CP5 193 -1.027
53 CP5 194 -3.469
53 CP5 195 -6.887
53 CP5 196 -9.816
53 CP5 197 -11.770
53 CP5 198 -12.746
53 CP5 199 -11.770
53 CP5 200 -10.305
53 CP5 201 -8.352
53 CP5 202 -6.887
53 CP5 203 -5.422
53 CP5 204 -4.445
53 CP5 205 -3.469
53 CP5 206 -3.957
53 CP5 207 -5.422
53 CP5 208 -6.887
53 CP5 209 -8.840
53 CP5 210 -9.816
53 CP5 211 -10.793
53 CP5 212 -11.281
53 CP5 213 -11.770
53 CP5 214 -12.746
53 CP5 215 -11.770
53 CP5 216 -10.793
53 CP5 217 -9.816
53 CP5 218 -8.352
53 CP5 219 -8.352
53 CP5 220 -8.840
53 CP5 221 -8.840
53 CP5 222 -9.328
53 CP5 223 -9.328
53 CP5 224 -10.305
53 CP5 225 -11.281
53 CP5 226 -11.770
53 CP5 227 -12.746
53 CP5 228 -12.258
53 CP5 229 -12.258
53 CP5 230 -11.281
53 CP5 231 -10.305
53 CP5 232 -8.352
53 CP5 233 -6.887
53 CP5 234 -5.422
53 CP5 235 -5.422
53 CP5 236 -5.422
53 CP5 237 -5.422
53 CP5 238 -5.422
53 CP5 239 -4.445
53 CP5 240 -2.981
53 CP5 241 -1.516
53 CP5 242 -0.051
53 CP5 243 1.414
53 CP5 244 2.391
53 CP5 245 3.367
53 CP5 246 3.367
53 CP5 247 3.367
53 CP5 248 2.879
53 CP5 249 3.367
53 CP5 250 3.367
53 CP5 251 2.879
53 CP5 252 1.414
53 CP5 253 -1.027
53 CP5 254 -2.981
53 CP5 255 -3.957
# CP6 chan 19
53 CP6 0 3.448
53 CP6 1 1.984
53 CP6 2 1.495
53 CP6 3 1.495
53 CP6 4 1.495
53 CP6 5 1.984
53 CP6 6 1.984
53 CP6 7 1.495
53 CP6 8 1.007
53 CP6 9 0.519
53 CP6 10 0.031
53 CP6 11 -0.946
53 CP6 12 -1.923
53 CP6 13 -3.387
53 CP6 14 -5.341
53 CP6 15 -6.805
53 CP6 16 -7.782
53 CP6 17 -7.782
53 CP6 18 -7.294
53 CP6 19 -6.317
53 CP6 20 -5.829
53 CP6 21 -5.829
53 CP6 22 -6.317
53 CP6 23 -6.317
53 CP6 24 -6.317
53 CP6 25 -4.852
53 CP6 26 -3.876
53 CP6 27 -2.899
53 CP6 28 -2.899
53 CP6 29 -2.899
53 CP6 30 -3.876
53 CP6 31 -4.364
53 CP6 32 -4.852
53 CP6 33 -5.829
53 CP6 34 -6.317
53 CP6 35 -7.294
53 CP6 36 -7.782
53 CP6 37 -8.270
53 CP6 38 -9.247
53 CP6 39 -10.223
53 CP6 40 -11.688
53 CP6 41 -12.177
53 CP6 42 -11.688
53 CP6 43 -10.712
53 CP6 44 -9.247
53 CP6 45 -8.759
53 CP6 46 -8.759
53 CP6 47 -8.759
53 CP6 48 -9.247
53 CP6 49 -9.247
53 CP6 50 -8.759
53 CP6 51 -9.247
53 CP6 52 -9.735
53 CP6 53 -11.200
53 CP6 54 -11.200
53 CP6 55 -10.712
53 CP6 56 -9.247
53 CP6 57 -7.782
53 CP6 58 -6.805
53 CP6 59 -6.805
53 CP6 60 -6.805
53 CP6 61 -7.294
53 CP6 62 -7.782
53 CP6 63 -8.270
53 CP6 64 -8.759
53 CP6 65 -9.247
53 CP6 66 -9.247
53 CP6 67 -9.247
53 CP6 68 -8.759
53 CP6 69 -8.759
53 CP6 70 -9.247
53 CP6 71 -9.735
53 CP6 72 -9.735
53 CP6 73 -8.759
53 CP6 74 -8.270
53 CP6 75 -8.270
53 CP6 76 -8.270
53 CP6 77 -8.759
53 CP6 78 -9.247
53 CP6 79 -9.247
53 CP6 80 -8.270
53 CP6 81 -7.294
53 CP6 82 -5.829
53 CP6 83 -4.364
53 CP6 84 -4.364
53 CP6 85 -4.364
53 CP6 86 -4.364
53 CP6 87 -4.364
53 CP6 88 -3.387
53 CP6 89 -2.899
53 CP6 90 -2.411
53 CP6 91 -2.411
53 CP6 92 -2.411
53 CP6 93 -2.899
53 CP6 94 -2.899
53 CP6 95 -3.387
53 CP6 96 -3.387
53 CP6 97 -3.876
53 CP6 98 -4.364
53 CP6 99 -4.852
53 CP6 100 -4.852
53 CP6 101 -4.364
53 CP6 102 -4.364
53 CP6 103 -4.364
53 CP6 104 -4.852
53 CP6 105 -4.852
53 CP6 106 -4.852
53 CP6 107 -4.364
53 CP6 108 -3.387
53 CP6 109 -2.899
53 CP6 110 -3.387
53 CP6 111 -3.876
53 CP6 112 -4.364
53 CP6 113 -4.364
53 CP6 114 -3.876
53 CP6 115 -3.387
53 CP6 116 -3.387
53 CP6 117 -4.852
53 CP6 118 -5.829
53 CP6 119 -5.829
53 CP6 120 -4.852
53 CP6 121 -3.387
53 CP6 122 -2.411
53 CP6 123 -1.923
53 CP6 124 -2.899
53 CP6 125 -2.411
53 CP6 126 -1.923
53 CP6 127 -0.458
53 CP6 128 0.031
53 CP6 129 -0.458
53 CP6 130 -1.434
53 CP6 131 -2.899
53 CP6 132 -2.899
53 CP6 133 -2.411
53 CP6 134 -1.434
53 CP6 135 -0.458
53 CP6 136 0.031
53 CP6 137 -0.458
53 CP6 138 -0.946
53 CP6 139 -1.923
53 CP6 140 -2.899
53 CP6 141 -3.387
53 CP6 142 -3.876
53 CP6 143 -2.899
53 CP6 144 -1.923
53 CP6 145 -0.946
53 CP6 146 -0.458
53 CP6 147 -0.458
53 CP6 148 0.031
53 CP6 149 0.519
53 CP6 150 1.984
53 CP6 151 2.960
53 CP6 152 3.448
53 CP6 153 2.960
53 CP6 154 1.984
53 CP6 155 0.031
53 CP6 156 -1.434
53 CP6 157 -2.899
53 CP6 158 -4.364
53 CP6 159 -5.829
53 CP6 160 -6.317
53 CP6 161 -6.805
53 CP6 162 -6.805
53 CP6 163 -6.317
53 CP6 164 -5.341
53 CP6 165 -3.876
53 CP6 166 -1.923
53 CP6 167 0.031
53 CP6 168 1.495
53 CP6 169 1.495
53 CP6 170 0.519
53 CP6 171 0.031
53 CP6 172 0.031
53 CP6 173 1.007
53 CP6 174 2.472
53 CP6 175 2.472
53 CP6 176 1.007
53 CP6 177 -1.434
53 CP6 178 -3.876
53 CP6 179 -5.829
53 CP6 180 -6.317
53 CP6 181 -5.829
53 CP6 182 -4.852
53 CP6 183 -3.387
53 CP6 184 -1.923
53 CP6 185 -0.946
53 CP6 186 -1.434
53 CP6 187 -2.411
53 CP6 188 -3.876
53 CP6 189 -4.852
53 CP6 190 -5.829
53 CP6 191 -6.805
53 CP6 192 -6.805
53 CP6 193 -6.317
53 CP6 194 -5.341
53 CP6 195 -4.364
53 CP6 196 -3.387
53 CP6 197 -2.899
53 CP6 198 -3.387
53 CP6 199 -3.876
53 CP6 200 -4.364
53 CP6 201 -5.341
53 CP6 202 -6.317
53 CP6 203 -7.782
53 CP6 204 -8.759
53 CP6 205 -8.759
53 CP6 206 -8.759
53 CP6 207 -8.270
53 CP6 208 -7.782
53 CP6 209 -8.270
53 CP6 210 -8.759
53 CP6 211 -9.247
53 CP6 212 -8.759
53 CP6 213 -7.782
53 CP6 214 -6.805
53 CP6 215 -5.829
53 CP6 216 -6.317
53 CP6 217 -6.805
53 CP6 218 -7.294
53 CP6 219 -7.294
53 CP6 220 -6.805
53 CP6 221 -5.829
53 CP6 222 -5.341
53 CP6 223 -4.364
53 CP6 224 -3.387
53 CP6 225 -1.923
53 CP6 226 -1.434
53 CP6 227 -1.923
53 CP6 228 -3.876
53 CP6 229 -6.317
53 CP6 230 -7.782
53 CP6 231 -8.759
53 CP6 232 -8.270
53 CP6 233 -7.782
53 CP6 234 -8.270
53 CP6 235 -9.247
53 CP6 236 -10.223
53 CP6 237 -10.712
53 CP6 238 -9.735
53 CP6 239 -8.759
53 CP6 240 -7.294
53 CP6 241 -6.317
53 CP6 242 -5.341
53 CP6 243 -4.852
53 CP6 244 -3.876
53 CP6 245 -2.899
53 CP6 246 -1.923
53 CP6 247 -0.946
53 CP6 248 -1.434
53 CP6 249 -2.411
53 CP6 250 -3.876
53 CP6 251 -4.364
53 CP6 252 -3.876
53 CP6 253 -2.899
53 CP6 254 -0.946
53 CP6 255 0.031
# CP1 chan 20
53 CP1 0 -0.712
53 CP1 1 -0.712
53 CP1 2 -0.224
53 CP1 3 -0.224
53 CP1 4 -0.224
53 CP1 5 -1.200
53 CP1 6 -2.177
53 CP1 7 -2.665
53 CP1 8 -2.177
53 CP1 9 -0.712
53 CP1 10 0.264
53 CP1 11 1.241
53 CP1 12 1.241
53 CP1 13 -0.224
53 CP1 14 -1.689
53 CP1 15 -2.665
53 CP1 16 -2.665
53 CP1 17 -1.689
53 CP1 18 -1.200
53 CP1 19 -0.712
53 CP1 20 -1.200
53 CP1 21 -2.665
53 CP1 22 -4.130
53 CP1 23 -4.618
53 CP1 24 -4.130
53 CP1 25 -2.665
53 CP1 26 -1.689
53 CP1 27 -1.200
53 CP1 28 -1.200
53 CP1 29 -0.712
53 CP1 30 -0.224
53 CP1 31 -0.224
53 CP1 32 0.264
53 CP1 33 0.264
53 CP1 34 -0.224
53 CP1 35 -1.200
53 CP1 36 -2.177
53 CP1 37 -2.665
53 CP1 38 -3.642
53 CP1 39 -3.642
53 CP1 40 -3.642
53 CP1 41 -4.130
53 CP1 42 -4.130
53 CP1 43 -4.618
53 CP1 44 -5.595
53 CP1 45 -5.595
53 CP1 46 -5.595
53 CP1 47 -5.595
53 CP1 48 -4.618
53 CP1 49 -4.618
53 CP1 50 -4.618
53 CP1 51 -4.618
53 CP1 52 -3.642
53 CP1 53 -2.177
53 CP1 54 -1.689
53 CP1 55 -1.200
53 CP1 56 -1.689
53 CP1 57 -2.177
53 CP1 58 -2.177
53 CP1 59 -2.665
53 CP1 60 -2.177
53 CP1 61 -2.177
53 CP1 62 -2.177
53 CP1 63 -2.177
53 CP1 64 -1.689
53 CP1 65 -0.712
53 CP1 66 0.264
53 CP1 67 0.753
53 CP1 68 0.753
53 CP1 69 -0.224
53 CP1 70 -1.200
53 CP1 71 -1.689
53 CP1 72 -1.689
53 CP1 73 -0.712
53 CP1 74 -0.712
53 CP1 75 -0.712
53 CP1 76 -0.712
53 CP1 77 -1.200
53 CP1 78 -1.200
53 CP1 79 -1.200
53 CP1 80 -1.689
53 CP1 81 -2.665
53 CP1 82 -3.642
53 CP1 83 -4.130
53 CP1 84 -4.130
53 CP1 85 -4.130
53 CP1 86 -3.642
53 CP1 87 -3.153
53 CP1 88 -3.153
53 CP1 89 -3.153
53 CP1 90 -3.642
53 CP1 91 -4.130
53 CP1 92 -5.107
53 CP1 93 -6.083
53 CP1 94 -5.595
53 CP1 95 -5.107
53 CP1 96 -3.642
53 CP1 97 -2.177
53 CP1 98 -1.689
53 CP1 99 -2.177
53 CP1 100 -2.665
53 CP1 101 -2.665
53 CP1 102 -2.177
53 CP1 103 -1.689
53 CP1 104 -1.689
53 CP1 105 -1.689
53 CP1 106 -2.665
53 CP1 107 -3.153
53 CP1 108 -3.642
53 CP1 109 -3.642
53 CP1 110 -3.642
53 CP1 111 -3.642
53 CP1 112 -4.618
53 CP1 113 -5.595
53 CP1 114 -6.083
53 CP1 115 -6.571
53 CP1 116 -6.571
53 CP1 117 -6.571
53 CP1 118 -6.571
53 CP1 119 -6.083
53 CP1 120 -5.595
53 CP1 121 -5.595
53 CP1 122 -4.618
53 CP1 123 -4.618
53 CP1 124 -5.107
53 CP1 125 -5.595
53 CP1 126 -6.083
53 CP1 127 -5.595
53 CP1 128 -4.130
53 CP1 129 -3.153
53 CP1 130 -2.177
53 CP1 131 -1.689
53 CP1 132 -1.200
53 CP1 133 -1.200
53 CP1 134 -1.689
53 CP1 135 -2.665
53 CP1 136 -3.153
53 CP1 137 -3.642
53 CP1 138 -3.153
53 CP1 139 -2.177
53 CP1 140 -0.712
53 CP1 141 0.264
53 CP1 142 0.753
53 CP1 143 0.264
53 CP1 144 -0.224
53 CP1 145 -0.712
53 CP1 146 -0.224
53 CP1 147 -0.224
53 CP1 148 -0.224
53 CP1 149 -0.712
53 CP1 150 -1.689
53 CP1 151 -1.689
53 CP1 152 -1.200
53 CP1 153 0.264
53 CP1 154 2.706
53 CP1 155 3.682
53 CP1 156 3.682
53 CP1 157 2.706
53 CP1 158 1.729
53 CP1 159 0.753
53 CP1 160 -0.224
53 CP1 161 -0.712
53 CP1 162 -1.200
53 CP1 163 -1.200
53 CP1 164 -1.689
53 CP1 165 -2.177
53 CP1 166 -2.665
53 CP1 167 -3.153
53 CP1 168 -2.665
53 CP1 169 -2.177
53 CP1 170 -1.689
53 CP1 171 -1.200
53 CP1 172 -1.200
53 CP1 173 -1.689
53 CP1 174 -1.689
53 CP1 175 -2.177
53 CP1 176 -2.177
53 CP1 177 -2.177
53 CP1 178 -2.177
53 CP1 179 -2.665
53 CP1 180 -3.642
53 CP1 181 -5.107
53 CP1 182 -6.083
53 CP1 183 -7.060
53 CP1 184 -7.060
53 CP1 185 -5.595
53 CP1 186 -4.130
53 CP1 187 -2.177
53 CP1 188 -1.689
53 CP1 189 -1.689
53 CP1 190 -3.153
53 CP1 191 -3.642
53 CP1 192 -4.130
53 CP1 193 -3.642
53 CP1 194 -3.153
53 CP1 195 -4.130
53 CP1 196 -5.595
53 CP1 197 -7.548
53 CP1 198 -8.525
53 CP1 199 -9.013
53 CP1 200 -8.525
53 CP1 201 -8.036
53 CP1 202 -8.036
53 CP1 203 -8.036
53 CP1 204 -7.548
53 CP1 205 -6.083
53 CP1 206 -5.107
53 CP1 207 -4.618
53 CP1 208 -4.618
53 CP1 209 -5.595
53 CP1 210 -6.083
53 CP1 211 -6.571
53 CP1 212 -6.571
53 CP1 213 -7.060
53 CP1 214 -7.548
53 CP1 215 -7.548
53 CP1 216 -7.548
53 CP1 217 -7.548
53 CP1 218 -7.060
53 CP1 219 -7.060
53 CP1 220 -7.060
53 CP1 221 -6.571
53 CP1 222 -6.571
53 CP1 223 -6.083
53 CP1 224 -6.571
53 CP1 225 -7.060
53 CP1 226 -7.548
53 CP1 227 -7.548
53 CP1 228 -6.571
53 CP1 229 -6.083
53 CP1 230 -6.083
53 CP1 231 -5.595
53 CP1 232 -5.595
53 CP1 233 -4.618
53 CP1 234 -3.642
53 CP1 235 -2.665
53 CP1 236 -1.689
53 CP1 237 -1.689
53 CP1 238 -1.200
53 CP1 239 -1.200
53 CP1 240 -1.200
53 CP1 241 -0.712
53 CP1 242 0.264
53 CP1 243 1.729
53 CP1 244 2.706
53 CP1 245 3.682
53 CP1 246 3.682
53 CP1 247 3.194
53 CP1 248 3.194
53 CP1 249 2.706
53 CP1 250 2.706
53 CP1 251 1.729
53 CP1 252 0.264
53 CP1 253 -2.177
53 CP1 254 -3.642
53 CP1 255 -4.130
# CP2 chan 21
53 CP2 0 0.193
53 CP2 1 0.193
53 CP2 2 -0.295
53 CP2 3 -0.295
53 CP2 4 -0.783
53 CP2 5 -1.760
53 CP2 6 -3.225
53 CP2 7 -4.201
53 CP2 8 -4.690
53 CP2 9 -4.201
53 CP2 10 -2.736
53 CP2 11 -1.272
53 CP2 12 -0.783
53 CP2 13 -1.272
53 CP2 14 -2.736
53 CP2 15 -4.201
53 CP2 16 -5.178
53 CP2 17 -5.178
53 CP2 18 -4.690
53 CP2 19 -3.713
53 CP2 20 -3.713
53 CP2 21 -4.201
53 CP2 22 -5.666
53 CP2 23 -6.643
53 CP2 24 -6.154
53 CP2 25 -5.666
53 CP2 26 -4.201
53 CP2 27 -3.225
53 CP2 28 -2.736
53 CP2 29 -2.248
53 CP2 30 -2.248
53 CP2 31 -2.248
53 CP2 32 -1.760
53 CP2 33 -1.760
53 CP2 34 -2.248
53 CP2 35 -3.225
53 CP2 36 -3.713
53 CP2 37 -3.713
53 CP2 38 -3.713
53 CP2 39 -3.713
53 CP2 40 -3.713
53 CP2 41 -4.690
53 CP2 42 -5.178
53 CP2 43 -6.154
53 CP2 44 -6.154
53 CP2 45 -6.154
53 CP2 46 -5.666
53 CP2 47 -5.666
53 CP2 48 -5.178
53 CP2 49 -5.178
53 CP2 50 -5.666
53 CP2 51 -5.666
53 CP2 52 -5.178
53 CP2 53 -4.690
53 CP2 54 -3.713
53 CP2 55 -3.225
53 CP2 56 -2.736
53 CP2 57 -2.736
53 CP2 58 -2.736
53 CP2 59 -3.225
53 CP2 60 -3.225
53 CP2 61 -4.201
53 CP2 62 -4.690
53 CP2 63 -5.178
53 CP2 64 -5.178
53 CP2 65 -5.178
53 CP2 66 -4.201
53 CP2 67 -3.713
53 CP2 68 -3.225
53 CP2 69 -3.713
53 CP2 70 -4.201
53 CP2 71 -4.201
53 CP2 72 -4.690
53 CP2 73 -4.201
53 CP2 74 -4.201
53 CP2 75 -4.690
53 CP2 76 -4.690
53 CP2 77 -5.178
53 CP2 78 -5.178
53 CP2 79 -5.178
53 CP2 80 -4.690
53 CP2 81 -5.178
53 CP2 82 -4.201
53 CP2 83 -4.201
53 CP2 84 -3.713
53 CP2 85 -3.713
53 CP2 86 -3.713
53 CP2 87 -3.713
53 CP2 88 -3.713
53 CP2 89 -3.713
53 CP2 90 -3.225
53 CP2 91 -2.736
53 CP2 92 -3.225
53 CP2 93 -2.736
53 CP2 94 -3.225
53 CP2 95 -2.736
53 CP2 96 -2.736
53 CP2 97 -3.225
53 CP2 98 -3.225
53 CP2 99 -3.225
53 CP2 100 -2.736
53 CP2 101 -2.736
53 CP2 102 -2.248
53 CP2 103 -2.248
53 CP2 104 -2.736
53 CP2 105 -2.736
53 CP2 106 -2.736
53 CP2 107 -2.736
53 CP2 108 -2.736
53 CP2 109 -3.225
53 CP2 110 -4.201
53 CP2 111 -4.690
53 CP2 112 -5.178
53 CP2 113 -4.690
53 CP2 114 -4.201
53 CP2 115 -3.225
53 CP2 116 -3.225
53 CP2 117 -4.201
53 CP2 118 -4.690
53 CP2 119 -4.201
53 CP2 120 -3.225
53 CP2 121 -2.248
53 CP2 122 -1.272
53 CP2 123 -1.272
53 CP2 124 -1.272
53 CP2 125 -1.272
53 CP2 126 -0.783
53 CP2 127 -0.295
53 CP2 128 0.193
53 CP2 129 -0.295
53 CP2 130 -0.783
53 CP2 131 -0.295
53 CP2 132 -0.295
53 CP2 133 0.682
53 CP2 134 1.170
53 CP2 135 1.170
53 CP2 136 0.682
53 CP2 137 -0.295
53 CP2 138 -0.295
53 CP2 139 -0.295
53 CP2 140 -0.295
53 CP2 141 -0.295
53 CP2 142 -0.295
53 CP2 143 -0.295
53 CP2 144 -0.783
53 CP2 145 -0.295
53 CP2 146 0.682
53 CP2 147 0.682
53 CP2 148 1.658
53 CP2 149 1.658
53 CP2 150 2.146
53 CP2 151 2.635
53 CP2 152 2.635
53 CP2 153 3.123
53 CP2 154 3.611
53 CP2 155 3.123
53 CP2 156 2.146
53 CP2 157 1.170
53 CP2 158 -0.295
53 CP2 159 -2.248
53 CP2 160 -3.225
53 CP2 161 -4.201
53 CP2 162 -4.201
53 CP2 163 -3.713
53 CP2 164 -2.736
53 CP2 165 -2.248
53 CP2 166 -1.272
53 CP2 167 -0.295
53 CP2 168 0.682
53 CP2 169 1.170
53 CP2 170 1.170
53 CP2 171 1.170
53 CP2 172 1.170
53 CP2 173 1.170
53 CP2 174 1.170
53 CP2 175 1.170
53 CP2 176 0.682
53 CP2 177 -0.295
53 CP2 178 -1.760
53 CP2 179 -2.736
53 CP2 180 -4.201
53 CP2 181 -5.178
53 CP2 182 -5.178
53 CP2 183 -4.690
53 CP2 184 -4.201
53 CP2 185 -3.225
53 CP2 186 -3.225
53 CP2 187 -2.736
53 CP2 188 -3.225
53 CP2 189 -3.713
53 CP2 190 -4.690
53 CP2 191 -5.178
53 CP2 192 -5.666
53 CP2 193 -5.178
53 CP2 194 -4.690
53 CP2 195 -3.713
53 CP2 196 -4.201
53 CP2 197 -5.666
53 CP2 198 -7.131
53 CP2 199 -8.596
53 CP2 200 -9.084
53 CP2 201 -10.061
53 CP2 202 -10.061
53 CP2 203 -10.549
53 CP2 204 -10.549
53 CP2 205 -10.061
53 CP2 206 -9.084
53 CP2 207 -8.108
53 CP2 208 -8.108
53 CP2 209 -8.596
53 CP2 210 -9.084
53 CP2 211 -9.572
53 CP2 212 -9.084
53 CP2 213 -9.084
53 CP2 214 -9.084
53 CP2 215 -9.084
53 CP2 216 -9.572
53 CP2 217 -10.061
53 CP2 218 -9.572
53 CP2 219 -9.084
53 CP2 220 -9.084
53 CP2 221 -8.596
53 CP2 222 -8.596
53 CP2 223 -8.108
53 CP2 224 -7.131
53 CP2 225 -6.154
53 CP2 226 -5.666
53 CP2 227 -6.154
53 CP2 228 -6.154
53 CP2 229 -7.131
53 CP2 230 -8.108
53 CP2 231 -8.108
53 CP2 232 -8.108
53 CP2 233 -7.619
53 CP2 234 -7.131
53 CP2 235 -6.643
53 CP2 236 -6.643
53 CP2 237 -6.643
53 CP2 238 -7.131
53 CP2 239 -7.619
53 CP2 240 -7.619
53 CP2 241 -7.131
53 CP2 242 -6.643
53 CP2 243 -5.178
53 CP2 244 -4.201
53 CP2 245 -4.201
53 CP2 246 -3.713
53 CP2 247 -3.713
53 CP2 248 -3.713
53 CP2 249 -3.225
53 CP2 250 -3.225
53 CP2 251 -3.713
53 CP2 252 -4.690
53 CP2 253 -5.666
53 CP2 254 -6.643
53 CP2 255 -6.643
# P3 chan 22
53 P3 0 0.753
53 P3 1 -0.224
53 P3 2 -0.224
53 P3 3 0.264
53 P3 4 0.753
53 P3 5 1.241
53 P3 6 0.753
53 P3 7 0.264
53 P3 8 0.264
53 P3 9 1.241
53 P3 10 2.706
53 P3 11 3.194
53 P3 12 3.194
53 P3 13 2.218
53 P3 14 0.264
53 P3 15 -0.712
53 P3 16 -1.200
53 P3 17 -1.200
53 P3 18 -0.712
53 P3 19 -1.200
53 P3 20 -2.665
53 P3 21 -3.642
53 P3 22 -4.618
53 P3 23 -4.618
53 P3 24 -3.642
53 P3 25 -2.177
53 P3 26 -1.200
53 P3 27 -0.224
53 P3 28 0.264
53 P3 29 0.264
53 P3 30 0.264
53 P3 31 -0.224
53 P3 32 -1.200
53 P3 33 -2.665
53 P3 34 -3.642
53 P3 35 -5.107
53 P3 36 -5.595
53 P3 37 -6.083
53 P3 38 -7.060
53 P3 39 -8.525
53 P3 40 -9.989
53 P3 41 -10.966
53 P3 42 -11.943
53 P3 43 -11.943
53 P3 44 -12.431
53 P3 45 -11.943
53 P3 46 -11.454
53 P3 47 -9.989
53 P3 48 -8.036
53 P3 49 -6.571
53 P3 50 -4.618
53 P3 51 -3.153
53 P3 52 -1.689
53 P3 53 0.264
53 P3 54 2.218
53 P3 55 4.171
53 P3 56 5.147
53 P3 57 5.636
53 P3 58 5.147
53 P3 59 4.171
53 P3 60 3.194
53 P3 61 3.194
53 P3 62 3.194
53 P3 63 3.194
53 P3 64 3.682
53 P3 65 4.171
53 P3 66 5.147
53 P3 67 4.659
53 P3 68 4.171
53 P3 69 2.706
53 P3 70 0.753
53 P3 71 0.264
53 P3 72 0.264
53 P3 73 0.753
53 P3 74 1.241
53 P3 75 0.753
53 P3 76 -1.200
53 P3 77 -2.665
53 P3 78 -3.153
53 P3 79 -2.665
53 P3 80 -2.665
53 P3 81 -2.665
53 P3 82 -3.153
53 P3 83 -3.153
53 P3 84 -2.665
53 P3 85 -1.200
53 P3 86 0.264
53 P3 87 1.241
53 P3 88 1.729
53 P3 89 1.241
53 P3 90 0.264
53 P3 91 -0.224
53 P3 92 -0.712
53 P3 93 -1.200
53 P3 94 -1.200
53 P3 95 -1.200
53 P3 96 -1.200
53 P3 97 -0.712
53 P3 98 -0.712
53 P3 99 -0.224
53 P3 100 -0.224
53 P3 101 0.753
53 P3 102 2.218
53 P3 103 2.706
53 P3 104 2.706
53 P3 105 2.706
53 P3 106 2.218
53 P3 107 2.218
53 P3 108 2.218
53 P3 109 1.729
53 P3 110 -0.224
53 P3 111 -2.665
53 P3 112 -5.107
53 P3 113 -6.083
53 P3 114 -6.083
53 P3 115 -5.595
53 P3 116 -4.618
53 P3 117 -4.618
53 P3 118 -4.618
53 P3 119 -4.130
53 P3 120 -3.642
53 P3 121 -3.153
53 P3 122 -3.153
53 P3 123 -3.153
53 P3 124 -3.642
53 P3 125 -3.642
53 P3 126 -3.642
53 P3 127 -2.665
53 P3 128 -1.689
53 P3 129 -1.200
53 P3 130 -0.712
53 P3 131 -0.224
53 P3 132 -0.712
53 P3 133 -1.200
53 P3 134 -1.689
53 P3 135 -2.177
53 P3 136 -2.177
53 P3 137 -0.712
53 P3 138 1.241
53 P3 139 3.682
53 P3 140 5.636
53 P3 141 6.124
53 P3 142 5.636
53 P3 143 4.659
53 P3 144 3.682
53 P3 145 2.706
53 P3 146 2.706
53 P3 147 3.194
53 P3 148 2.706
53 P3 149 2.218
53 P3 150 1.729
53 P3 151 1.729
53 P3 152 2.218
53 P3 153 3.682
53 P3 154 4.659
53 P3 155 5.636
53 P3 156 5.636
53 P3 157 5.636
53 P3 158 5.147
53 P3 159 4.659
53 P3 160 4.171
53 P3 161 3.194
53 P3 162 1.729
53 P3 163 0.753
53 P3 164 0.264
53 P3 165 -0.224
53 P3 166 -0.224
53 P3 167 -0.712
53 P3 168 -0.712
53 P3 169 -0.224
53 P3 170 0.753
53 P3 171 1.729
53 P3 172 2.218
53 P3 173 2.706
53 P3 174 2.218
53 P3 175 1.729
53 P3 176 1.729
53 P3 177 1.729
53 P3 178 0.753
53 P3 179 -1.200
53 P3 180 -3.153
53 P3 181 -5.595
53 P3 182 -6.083
53 P3 183 -6.083
53 P3 184 -4.618
53 P3 185 -2.177
53 P3 186 -0.224
53 P3 187 0.753
53 P3 188 0.753
53 P3 189 0.753
53 P3 190 -0.224
53 P3 191 -0.712
53 P3 192 -1.689
53 P3 193 -2.665
53 P3 194 -4.618
53 P3 195 -6.571
53 P3 196 -9.501
53 P3 197 -11.454
53 P3 198 -12.431
53 P3 199 -11.943
53 P3 200 -10.966
53 P3 201 -9.501
53 P3 202 -8.036
53 P3 203 -6.083
53 P3 204 -5.107
53 P3 205 -4.130
53 P3 206 -4.130
53 P3 207 -5.595
53 P3 208 -6.571
53 P3 209 -8.036
53 P3 210 -9.501
53 P3 211 -10.478
53 P3 212 -11.454
53 P3 213 -12.431
53 P3 214 -12.919
53 P3 215 -12.431
53 P3 216 -10.966
53 P3 217 -9.989
53 P3 218 -9.013
53 P3 219 -8.525
53 P3 220 -8.525
53 P3 221 -8.525
53 P3 222 -8.036
53 P3 223 -8.036
53 P3 224 -8.036
53 P3 225 -8.036
53 P3 226 -8.525
53 P3 227 -9.013
53 P3 228 -9.013
53 P3 229 -9.013
53 P3 230 -8.525
53 P3 231 -7.548
53 P3 232 -6.083
53 P3 233 -4.618
53 P3 234 -3.153
53 P3 235 -2.665
53 P3 236 -2.177
53 P3 237 -2.665
53 P3 238 -3.153
53 P3 239 -2.177
53 P3 240 -1.689
53 P3 241 0.264
53 P3 242 1.729
53 P3 243 4.171
53 P3 244 6.124
53 P3 245 7.589
53 P3 246 7.589
53 P3 247 7.100
53 P3 248 6.612
53 P3 249 6.124
53 P3 250 5.147
53 P3 251 4.171
53 P3 252 2.218
53 P3 253 -0.224
53 P3 254 -1.689
53 P3 255 -2.665
# P4 chan 23
53 P4 0 2.126
53 P4 1 1.149
53 P4 2 0.173
53 P4 3 0.173
53 P4 4 0.661
53 P4 5 1.149
53 P4 6 0.661
53 P4 7 -0.315
53 P4 8 -1.292
53 P4 9 -1.292
53 P4 10 0.173
53 P4 11 1.638
53 P4 12 2.614
53 P4 13 1.638
53 P4 14 -0.804
53 P4 15 -3.733
53 P4 16 -5.198
53 P4 17 -5.686
53 P4 18 -5.198
53 P4 19 -5.198
53 P4 20 -5.686
53 P4 21 -7.151
53 P4 22 -8.128
53 P4 23 -8.128
53 P4 24 -8.128
53 P4 25 -6.175
53 P4 26 -4.710
53 P4 27 -3.733
53 P4 28 -2.757
53 P4 29 -1.780
53 P4 30 -1.292
53 P4 31 -1.292
53 P4 32 -2.268
53 P4 33 -3.733
53 P4 34 -6.175
53 P4 35 -7.640
53 P4 36 -8.616
53 P4 37 -9.104
53 P4 38 -10.081
53 P4 39 -11.546
53 P4 40 -13.011
53 P4 41 -14.964
53 P4 42 -14.964
53 P4 43 -13.987
53 P4 44 -13.011
53 P4 45 -12.522
53 P4 46 -12.522
53 P4 47 -12.522
53 P4 48 -12.034
53 P4 49 -11.058
53 P4 50 -9.593
53 P4 51 -8.616
53 P4 52 -7.151
53 P4 53 -5.686
53 P4 54 -5.198
53 P4 55 -4.222
53 P4 56 -4.710
53 P4 57 -4.710
53 P4 58 -5.198
53 P4 59 -5.198
53 P4 60 -4.222
53 P4 61 -4.222
53 P4 62 -4.710
53 P4 63 -6.175
53 P4 64 -7.640
53 P4 65 -8.128
53 P4 66 -7.151
53 P4 67 -6.663
53 P4 68 -6.663
53 P4 69 -6.663
53 P4 70 -8.128
53 P4 71 -8.128
53 P4 72 -8.616
53 P4 73 -8.128
53 P4 74 -8.616
53 P4 75 -9.593
53 P4 76 -9.593
53 P4 77 -9.593
53 P4 78 -9.104
53 P4 79 -8.128
53 P4 80 -8.616
53 P4 81 -8.616
53 P4 82 -8.616
53 P4 83 -8.616
53 P4 84 -8.616
53 P4 85 -8.128
53 P4 86 -7.640
53 P4 87 -7.151
53 P4 88 -6.663
53 P4 89 -6.663
53 P4 90 -7.640
53 P4 91 -8.128
53 P4 92 -9.104
53 P4 93 -9.104
53 P4 94 -8.616
53 P4 95 -8.616
53 P4 96 -9.104
53 P4 97 -9.593
53 P4 98 -10.081
53 P4 99 -9.104
53 P4 100 -8.128
53 P4 101 -7.640
53 P4 102 -7.640
53 P4 103 -8.616
53 P4 104 -9.104
53 P4 105 -8.616
53 P4 106 -7.640
53 P4 107 -6.663
53 P4 108 -6.663
53 P4 109 -8.128
53 P4 110 -10.569
53 P4 111 -12.522
53 P4 112 -12.522
53 P4 113 -11.546
53 P4 114 -10.081
53 P4 115 -9.593
53 P4 116 -10.569
53 P4 117 -11.546
53 P4 118 -12.522
53 P4 119 -11.546
53 P4 120 -10.081
53 P4 121 -8.128
53 P4 122 -7.151
53 P4 123 -6.663
53 P4 124 -6.663
53 P4 125 -6.175
53 P4 126 -6.175
53 P4 127 -5.686
53 P4 128 -6.175
53 P4 129 -7.151
53 P4 130 -7.151
53 P4 131 -7.151
53 P4 132 -6.663
53 P4 133 -6.175
53 P4 134 -5.686
53 P4 135 -5.686
53 P4 136 -5.198
53 P4 137 -5.198
53 P4 138 -4.710
53 P4 139 -5.198
53 P4 140 -5.198
53 P4 141 -5.198
53 P4 142 -5.198
53 P4 143 -4.710
53 P4 144 -4.710
53 P4 145 -4.222
53 P4 146 -4.222
53 P4 147 -3.245
53 P4 148 -3.245
53 P4 149 -2.757
53 P4 150 -2.268
53 P4 151 -1.780
53 P4 152 -1.292
53 P4 153 -0.804
53 P4 154 -1.292
53 P4 155 -2.268
53 P4 156 -4.710
53 P4 157 -7.151
53 P4 158 -9.104
53 P4 159 -10.569
53 P4 160 -11.546
53 P4 161 -12.034
53 P4 162 -13.011
53 P4 163 -12.522
53 P4 164 -11.058
53 P4 165 -8.616
53 P4 166 -5.198
53 P4 167 -3.245
53 P4 168 -2.757
53 P4 169 -3.245
53 P4 170 -4.222
53 P4 171 -3.733
53 P4 172 -2.268
53 P4 173 -1.292
53 P4 174 -1.292
53 P4 175 -2.757
53 P4 176 -5.198
53 P4 177 -8.128
53 P4 178 -10.569
53 P4 179 -12.522
53 P4 180 -13.987
53 P4 181 -14.476
53 P4 182 -13.987
53 P4 183 -13.011
53 P4 184 -11.546
53 P4 185 -10.569
53 P4 186 -10.081
53 P4 187 -10.569
53 P4 188 -11.546
53 P4 189 -12.522
53 P4 190 -13.499
53 P4 191 -14.476
53 P4 192 -14.476
53 P4 193 -13.499
53 P4 194 -12.522
53 P4 195 -12.034
53 P4 196 -12.034
53 P4 197 -13.499
53 P4 198 -14.476
53 P4 199 -14.964
53 P4 200 -14.476
53 P4 201 -14.476
53 P4 202 -14.476
53 P4 203 -15.452
53 P4 204 -16.429
53 P4 205 -16.429
53 P4 206 -15.452
53 P4 207 -14.476
53 P4 208 -14.476
53 P4 209 -14.964
53 P4 210 -15.940
53 P4 211 -16.429
53 P4 212 -15.940
53 P4 213 -15.452
53 P4 214 -14.964
53 P4 215 -15.452
53 P4 216 -16.429
53 P4 217 -17.405
53 P4 218 -17.405
53 P4 219 -16.917
53 P4 220 -15.940
53 P4 221 -14.964
53 P4 222 -13.987
53 P4 223 -12.522
53 P4 224 -10.569
53 P4 225 -9.104
53 P4 226 -8.616
53 P4 227 -9.104
53 P4 228 -10.569
53 P4 229 -12.034
53 P4 230 -12.034
53 P4 231 -12.034
53 P4 232 -11.058
53 P4 233 -10.569
53 P4 234 -10.081
53 P4 235 -10.569
53 P4 236 -10.569
53 P4 237 -10.081
53 P4 238 -9.593
53 P4 239 -9.104
53 P4 240 -8.128
53 P4 241 -7.151
53 P4 242 -6.175
53 P4 243 -4.710
53 P4 244 -3.245
53 P4 245 -2.268
53 P4 246 -1.780
53 P4 247 -2.268
53 P4 248 -2.268
53 P4 249 -2.757
53 P4 250 -2.757
53 P4 251 -3.733
53 P4 252 -4.222
53 P4 253 -5.198
53 P4 254 -4.710
53 P4 255 -3.733
# PZ chan 24
53 PZ 0 0.773
53 PZ 1 0.285
53 PZ 2 0.285
53 PZ 3 -0.203
53 PZ 4 -1.180
53 PZ 5 -2.157
53 PZ 6 -3.621
53 PZ 7 -4.598
53 PZ 8 -4.598
53 PZ 9 -2.645
53 PZ 10 -0.692
53 PZ 11 1.261
53 PZ 12 1.750
53 PZ 13 0.773
53 PZ 14 -0.692
53 PZ 15 -2.157
53 PZ 16 -3.133
53 PZ 17 -3.133
53 PZ 18 -2.645
53 PZ 19 -2.645
53 PZ 20 -3.621
53 PZ 21 -5.575
53 PZ 22 -7.039
53 PZ 23 -7.528
53 PZ 24 -7.039
53 PZ 25 -5.575
53 PZ 26 -4.110
53 PZ 27 -2.157
53 PZ 28 -0.692
53 PZ 29 0.285
53 PZ 30 1.261
53 PZ 31 1.750
53 PZ 32 1.750
53 PZ 33 1.261
53 PZ 34 0.285
53 PZ 35 -1.180
53 PZ 36 -2.157
53 PZ 37 -2.645
53 PZ 38 -3.133
53 PZ 39 -3.621
53 PZ 40 -4.110
53 PZ 41 -5.086
53 PZ 42 -5.575
53 PZ 43 -6.551
53 PZ 44 -7.039
53 PZ 45 -6.551
53 PZ 46 -6.063
53 PZ 47 -5.086
53 PZ 48 -4.598
53 PZ 49 -4.110
53 PZ 50 -3.621
53 PZ 51 -3.621
53 PZ 52 -2.645
53 PZ 53 -1.668
53 PZ 54 -0.203
53 PZ 55 0.773
53 PZ 56 1.261
53 PZ 57 0.773
53 PZ 58 0.773
53 PZ 59 0.285
53 PZ 60 -0.203
53 PZ 61 -0.203
53 PZ 62 -0.203
53 PZ 63 -0.692
53 PZ 64 -0.203
53 PZ 65 0.285
53 PZ 66 1.261
53 PZ 67 1.750
53 PZ 68 1.261
53 PZ 69 0.285
53 PZ 70 -1.180
53 PZ 71 -2.157
53 PZ 72 -2.157
53 PZ 73 -1.668
53 PZ 74 -1.668
53 PZ 75 -1.668
53 PZ 76 -2.157
53 PZ 77 -2.645
53 PZ 78 -3.133
53 PZ 79 -3.133
53 PZ 80 -3.133
53 PZ 81 -3.133
53 PZ 82 -3.133
53 PZ 83 -3.133
53 PZ 84 -2.645
53 PZ 85 -2.157
53 PZ 86 -1.668
53 PZ 87 -1.668
53 PZ 88 -2.157
53 PZ 89 -2.157
53 PZ 90 -2.645
53 PZ 91 -2.157
53 PZ 92 -2.157
53 PZ 93 -2.645
53 PZ 94 -2.645
53 PZ 95 -2.645
53 PZ 96 -3.133
53 PZ 97 -2.645
53 PZ 98 -2.645
53 PZ 99 -2.157
53 PZ 100 -1.668
53 PZ 101 -0.692
53 PZ 102 -0.203
53 PZ 103 0.285
53 PZ 104 0.285
53 PZ 105 0.285
53 PZ 106 0.285
53 PZ 107 -0.203
53 PZ 108 -0.692
53 PZ 109 -1.668
53 PZ 110 -3.133
53 PZ 111 -4.598
53 PZ 112 -5.086
53 PZ 113 -5.086
53 PZ 114 -4.598
53 PZ 115 -3.621
53 PZ 116 -3.133
53 PZ 117 -3.133
53 PZ 118 -3.621
53 PZ 119 -3.133
53 PZ 120 -2.157
53 PZ 121 -1.180
53 PZ 122 -0.692
53 PZ 123 -0.203
53 PZ 124 -0.692
53 PZ 125 -0.692
53 PZ 126 -1.180
53 PZ 127 -0.692
53 PZ 128 -0.203
53 PZ 129 0.285
53 PZ 130 0.285
53 PZ 131 0.773
53 PZ 132 1.261
53 PZ 133 1.750
53 PZ 134 1.750
53 PZ 135 1.750
53 PZ 136 1.750
53 PZ 137 1.750
53 PZ 138 2.726
53 PZ 139 3.703
53 PZ 140 4.679
53 PZ 141 4.679
53 PZ 142 4.191
53 PZ 143 3.215
53 PZ 144 2.238
53 PZ 145 2.238
53 PZ 146 2.726
53 PZ 147 3.215
53 PZ 148 2.726
53 PZ 149 2.238
53 PZ 150 1.750
53 PZ 151 2.238
53 PZ 152 3.703
53 PZ 153 5.168
53 PZ 154 6.144
53 PZ 155 6.144
53 PZ 156 5.168
53 PZ 157 4.191
53 PZ 158 3.215
53 PZ 159 2.238
53 PZ 160 0.773
53 PZ 161 -0.692
53 PZ 162 -1.180
53 PZ 163 -2.157
53 PZ 164 -1.668
53 PZ 165 -0.692
53 PZ 166 0.285
53 PZ 167 0.773
53 PZ 168 0.773
53 PZ 169 1.261
53 PZ 170 1.750
53 PZ 171 2.238
53 PZ 172 3.215
53 PZ 173 3.703
53 PZ 174 3.703
53 PZ 175 2.726
53 PZ 176 1.261
53 PZ 177 0.773
53 PZ 178 -0.203
53 PZ 179 -1.180
53 PZ 180 -2.157
53 PZ 181 -3.133
53 PZ 182 -4.110
53 PZ 183 -4.110
53 PZ 184 -2.645
53 PZ 185 -1.180
53 PZ 186 -0.203
53 PZ 187 -0.203
53 PZ 188 -0.692
53 PZ 189 -1.668
53 PZ 190 -3.133
53 PZ 191 -4.110
53 PZ 192 -4.598
53 PZ 193 -4.110
53 PZ 194 -3.621
53 PZ 195 -3.621
53 PZ 196 -4.598
53 PZ 197 -5.575
53 PZ 198 -7.528
53 PZ 199 -8.504
53 PZ 200 -9.481
53 PZ 201 -9.969
53 PZ 202 -9.969
53 PZ 203 -9.969
53 PZ 204 -9.481
53 PZ 205 -8.504
53 PZ 206 -7.528
53 PZ 207 -6.551
53 PZ 208 -6.063
53 PZ 209 -6.551
53 PZ 210 -7.039
53 PZ 211 -8.504
53 PZ 212 -9.481
53 PZ 213 -9.969
53 PZ 214 -10.457
53 PZ 215 -10.457
53 PZ 216 -10.457
53 PZ 217 -9.969
53 PZ 218 -8.993
53 PZ 219 -8.504
53 PZ 220 -8.016
53 PZ 221 -7.528
53 PZ 222 -7.039
53 PZ 223 -6.551
53 PZ 224 -6.063
53 PZ 225 -5.575
53 PZ 226 -5.086
53 PZ 227 -4.598
53 PZ 228 -4.598
53 PZ 229 -5.575
53 PZ 230 -6.063
53 PZ 231 -5.575
53 PZ 232 -5.086
53 PZ 233 -3.621
53 PZ 234 -1.668
53 PZ 235 -0.692
53 PZ 236 -0.203
53 PZ 237 -0.692
53 PZ 238 -0.692
53 PZ 239 -1.668
53 PZ 240 -1.668
53 PZ 241 -1.180
53 PZ 242 0.285
53 PZ 243 1.750
53 PZ 244 3.703
53 PZ 245 4.679
53 PZ 246 4.679
53 PZ 247 4.191
53 PZ 248 3.703
53 PZ 249 3.703
53 PZ 250 3.703
53 PZ 251 2.726
53 PZ 252 1.261
53 PZ 253 -0.692
53 PZ 254 -2.157
53 PZ 255 -3.133
# P8 chan 25
53 P8 0 5.219
53 P8 1 4.730
53 P8 2 4.730
53 P8 3 4.730
53 P8 4 5.707
53 P8 5 7.172
53 P8 6 8.636
53 P8 7 9.125
53 P8 8 8.636
53 P8 9 7.660
53 P8 10 5.707
53 P8 11 3.754
53 P8 12 1.801
53 P8 13 -1.129
53 P8 14 -5.035
53 P8 15 -8.453
53 P8 16 -10.895
53 P8 17 -11.871
53 P8 18 -10.406
53 P8 19 -7.965
53 P8 20 -6.012
53 P8 21 -4.547
53 P8 22 -4.547
53 P8 23 -5.035
53 P8 24 -5.035
53 P8 25 -4.059
53 P8 26 -2.594
53 P8 27 -0.641
53 P8 28 -0.153
53 P8 29 -0.641
53 P8 30 -2.106
53 P8 31 -4.547
53 P8 32 -6.500
53 P8 33 -8.453
53 P8 34 -9.918
53 P8 35 -11.383
53 P8 36 -12.848
53 P8 37 -14.801
53 P8 38 -17.731
53 P8 39 -20.172
53 P8 40 -22.614
53 P8 41 -23.590
53 P8 42 -23.102
53 P8 43 -21.149
53 P8 44 -18.707
53 P8 45 -16.754
53 P8 46 -14.801
53 P8 47 -13.824
53 P8 48 -11.871
53 P8 49 -9.430
53 P8 50 -6.989
53 P8 51 -5.035
53 P8 52 -3.571
53 P8 53 -3.082
53 P8 54 -2.594
53 P8 55 -2.106
53 P8 56 -2.594
53 P8 57 -2.594
53 P8 58 -3.082
53 P8 59 -2.594
53 P8 60 -1.617
53 P8 61 -0.153
53 P8 62 0.336
53 P8 63 -0.641
53 P8 64 -2.594
53 P8 65 -4.059
53 P8 66 -4.547
53 P8 67 -5.035
53 P8 68 -5.035
53 P8 69 -6.012
53 P8 70 -7.477
53 P8 71 -8.453
53 P8 72 -8.942
53 P8 73 -8.453
53 P8 74 -7.965
53 P8 75 -7.477
53 P8 76 -7.965
53 P8 77 -8.453
53 P8 78 -8.942
53 P8 79 -9.918
53 P8 80 -10.406
53 P8 81 -9.430
53 P8 82 -8.453
53 P8 83 -7.477
53 P8 84 -6.989
53 P8 85 -6.989
53 P8 86 -7.477
53 P8 87 -7.477
53 P8 88 -6.989
53 P8 89 -5.524
53 P8 90 -4.059
53 P8 91 -3.571
53 P8 92 -4.059
53 P8 93 -5.035
53 P8 94 -5.524
53 P8 95 -6.012
53 P8 96 -6.500
53 P8 97 -6.989
53 P8 98 -7.477
53 P8 99 -7.965
53 P8 100 -7.477
53 P8 101 -6.500
53 P8 102 -6.012
53 P8 103 -5.524
53 P8 104 -5.035
53 P8 105 -5.035
53 P8 106 -4.547
53 P8 107 -3.082
53 P8 108 -2.594
53 P8 109 -2.106
53 P8 110 -4.059
53 P8 111 -6.012
53 P8 112 -7.477
53 P8 113 -7.965
53 P8 114 -6.500
53 P8 115 -5.524
53 P8 116 -5.524
53 P8 117 -6.500
53 P8 118 -8.453
53 P8 119 -8.453
53 P8 120 -6.989
53 P8 121 -4.059
53 P8 122 -2.106
53 P8 123 -1.617
53 P8 124 -1.617
53 P8 125 -1.617
53 P8 126 -1.617
53 P8 127 -1.129
53 P8 128 -1.129
53 P8 129 -2.594
53 P8 130 -3.571
53 P8 131 -5.035
53 P8 132 -5.035
53 P8 133 -4.059
53 P8 134 -3.082
53 P8 135 -1.617
53 P8 136 0.336
53 P8 137 1.801
53 P8 138 2.777
53 P8 139 1.801
53 P8 140 0.336
53 P8 141 -1.617
53 P8 142 -2.106
53 P8 143 -1.129
53 P8 144 0.824
53 P8 145 1.801
53 P8 146 2.289
53 P8 147 1.312
53 P8 148 0.824
53 P8 149 0.824
53 P8 150 1.312
53 P8 151 2.777
53 P8 152 2.777
53 P8 153 1.801
53 P8 154 0.336
53 P8 155 -1.617
53 P8 156 -4.059
53 P8 157 -6.500
53 P8 158 -7.965
53 P8 159 -8.453
53 P8 160 -6.989
53 P8 161 -6.012
53 P8 162 -5.035
53 P8 163 -5.035
53 P8 164 -4.547
53 P8 165 -3.082
53 P8 166 -0.641
53 P8 167 2.777
53 P8 168 4.242
53 P8 169 3.265
53 P8 170 -0.153
53 P8 171 -3.082
53 P8 172 -3.571
53 P8 173 -1.617
53 P8 174 1.801
53 P8 175 2.777
53 P8 176 0.824
53 P8 177 -3.571
53 P8 178 -8.453
53 P8 179 -11.871
53 P8 180 -12.360
53 P8 181 -10.406
53 P8 182 -6.989
53 P8 183 -4.547
53 P8 184 -2.594
53 P8 185 -2.594
53 P8 186 -4.059
53 P8 187 -6.012
53 P8 188 -7.965
53 P8 189 -9.430
53 P8 190 -9.430
53 P8 191 -9.918
53 P8 192 -9.918
53 P8 193 -9.918
53 P8 194 -9.918
53 P8 195 -8.942
53 P8 196 -7.965
53 P8 197 -6.989
53 P8 198 -6.500
53 P8 199 -7.477
53 P8 200 -7.965
53 P8 201 -8.942
53 P8 202 -9.918
53 P8 203 -10.895
53 P8 204 -11.871
53 P8 205 -12.848
53 P8 206 -13.824
53 P8 207 -14.313
53 P8 208 -14.313
53 P8 209 -14.313
53 P8 210 -14.801
53 P8 211 -16.266
53 P8 212 -16.266
53 P8 213 -14.801
53 P8 214 -13.336
53 P8 215 -12.360
53 P8 216 -12.848
53 P8 217 -14.313
53 P8 218 -16.266
53 P8 219 -17.242
53 P8 220 -17.242
53 P8 221 -15.778
53 P8 222 -13.824
53 P8 223 -11.871
53 P8 224 -9.918
53 P8 225 -7.965
53 P8 226 -7.477
53 P8 227 -7.965
53 P8 228 -9.918
53 P8 229 -11.871
53 P8 230 -13.824
53 P8 231 -14.801
53 P8 232 -14.801
53 P8 233 -14.801
53 P8 234 -14.801
53 P8 235 -14.801
53 P8 236 -14.801
53 P8 237 -13.824
53 P8 238 -11.871
53 P8 239 -9.430
53 P8 240 -6.989
53 P8 241 -5.035
53 P8 242 -4.059
53 P8 243 -3.571
53 P8 244 -2.594
53 P8 245 -2.106
53 P8 246 -0.641
53 P8 247 0.336
53 P8 248 -0.153
53 P8 249 -1.617
53 P8 250 -3.571
53 P8 251 -5.035
53 P8 252 -4.547
53 P8 253 -3.082
53 P8 254 -0.641
53 P8 255 1.312
# P7 chan 26
53 P7 0 -3.886
53 P7 1 -5.839
53 P7 2 -6.816
53 P7 3 -6.816
53 P7 4 -5.351
53 P7 5 -3.886
53 P7 6 -1.444
53 P7 7 1.485
53 P7 8 4.415
53 P7 9 5.880
53 P7 10 5.880
53 P7 11 3.438
53 P7 12 -0.468
53 P7 13 -4.374
53 P7 14 -7.304
53 P7 15 -8.769
53 P7 16 -8.769
53 P7 17 -8.280
53 P7 18 -7.304
53 P7 19 -6.327
53 P7 20 -5.839
53 P7 21 -5.351
53 P7 22 -5.351
53 P7 23 -4.374
53 P7 24 -2.421
53 P7 25 0.020
53 P7 26 1.973
53 P7 27 2.950
53 P7 28 2.462
53 P7 29 0.020
53 P7 30 -3.398
53 P7 31 -6.327
53 P7 32 -8.769
53 P7 33 -11.210
53 P7 34 -12.675
53 P7 35 -14.628
53 P7 36 -16.581
53 P7 37 -18.534
53 P7 38 -20.487
53 P7 39 -21.952
53 P7 40 -22.929
53 P7 41 -23.905
53 P7 42 -24.394
53 P7 43 -25.859
53 P7 44 -26.835
53 P7 45 -26.835
53 P7 46 -25.370
53 P7 47 -21.464
53 P7 48 -17.069
53 P7 49 -13.652
53 P7 50 -11.698
53 P7 51 -11.210
53 P7 52 -9.745
53 P7 53 -7.792
53 P7 54 -4.374
53 P7 55 -1.444
53 P7 56 0.020
53 P7 57 0.020
53 P7 58 -1.444
53 P7 59 -3.398
53 P7 60 -4.862
53 P7 61 -4.862
53 P7 62 -4.862
53 P7 63 -4.862
53 P7 64 -3.886
53 P7 65 -1.933
53 P7 66 -0.956
53 P7 67 -0.468
53 P7 68 -1.444
53 P7 69 -3.886
53 P7 70 -6.816
53 P7 71 -8.769
53 P7 72 -9.257
53 P7 73 -8.769
53 P7 74 -8.280
53 P7 75 -9.257
53 P7 76 -10.722
53 P7 77 -12.187
53 P7 78 -12.187
53 P7 79 -11.210
53 P7 80 -10.234
53 P7 81 -10.722
53 P7 82 -11.698
53 P7 83 -13.163
53 P7 84 -13.652
53 P7 85 -11.698
53 P7 86 -8.769
53 P7 87 -6.816
53 P7 88 -6.327
53 P7 89 -7.304
53 P7 90 -9.257
53 P7 91 -11.210
53 P7 92 -13.163
53 P7 93 -14.140
53 P7 94 -14.140
53 P7 95 -14.140
53 P7 96 -13.652
53 P7 97 -13.652
53 P7 98 -14.140
53 P7 99 -14.140
53 P7 100 -13.652
53 P7 101 -12.675
53 P7 102 -10.722
53 P7 103 -8.769
53 P7 104 -7.304
53 P7 105 -6.327
53 P7 106 -6.327
53 P7 107 -6.816
53 P7 108 -8.769
53 P7 109 -11.698
53 P7 110 -14.628
53 P7 111 -17.558
53 P7 112 -19.999
53 P7 113 -21.952
53 P7 114 -21.952
53 P7 115 -21.464
53 P7 116 -19.511
53 P7 117 -17.069
53 P7 118 -15.116
53 P7 119 -14.140
53 P7 120 -14.140
53 P7 121 -15.605
53 P7 122 -16.093
53 P7 123 -16.093
53 P7 124 -16.093
53 P7 125 -15.605
53 P7 126 -15.116
53 P7 127 -14.628
53 P7 128 -14.140
53 P7 129 -12.675
53 P7 130 -12.187
53 P7 131 -12.187
53 P7 132 -13.163
53 P7 133 -14.140
53 P7 134 -15.116
53 P7 135 -14.628
53 P7 136 -13.163
53 P7 137 -11.698
53 P7 138 -9.745
53 P7 139 -8.280
53 P7 140 -6.816
53 P7 141 -5.839
53 P7 142 -6.327
53 P7 143 -8.280
53 P7 144 -9.745
53 P7 145 -10.234
53 P7 146 -9.257
53 P7 147 -7.304
53 P7 148 -6.327
53 P7 149 -6.816
53 P7 150 -8.769
53 P7 151 -9.745
53 P7 152 -9.745
53 P7 153 -8.769
53 P7 154 -7.792
53 P7 155 -8.280
53 P7 156 -9.257
53 P7 157 -10.234
53 P7 158 -9.745
53 P7 159 -8.280
53 P7 160 -6.816
53 P7 161 -7.304
53 P7 162 -8.769
53 P7 163 -10.722
53 P7 164 -10.722
53 P7 165 -10.234
53 P7 166 -9.257
53 P7 167 -9.745
53 P7 168 -11.210
53 P7 169 -12.675
53 P7 170 -13.163
53 P7 171 -12.675
53 P7 172 -11.698
53 P7 173 -12.187
53 P7 174 -13.163
53 P7 175 -14.628
53 P7 176 -15.116
53 P7 177 -14.628
53 P7 178 -14.628
53 P7 179 -15.116
53 P7 180 -17.558
53 P7 181 -19.999
53 P7 182 -20.976
53 P7 183 -21.464
53 P7 184 -19.999
53 P7 185 -18.534
53 P7 186 -17.069
53 P7 187 -15.605
53 P7 188 -14.140
53 P7 189 -12.675
53 P7 190 -12.187
53 P7 191 -12.675
53 P7 192 -14.628
53 P7 193 -18.046
53 P7 194 -22.929
53 P7 195 -27.812
53 P7 196 -31.718
53 P7 197 -34.159
53 P7 198 -34.159
53 P7 199 -32.206
53 P7 200 -29.277
53 P7 201 -25.859
53 P7 202 -22.441
53 P7 203 -19.511
53 P7 204 -17.069
53 P7 205 -15.605
53 P7 206 -16.093
53 P7 207 -18.046
53 P7 208 -21.952
53 P7 209 -25.859
53 P7 210 -29.277
53 P7 211 -31.718
53 P7 212 -33.183
53 P7 213 -33.671
53 P7 214 -33.671
53 P7 215 -32.206
53 P7 216 -29.277
53 P7 217 -25.859
53 P7 218 -22.929
53 P7 219 -21.952
53 P7 220 -22.929
53 P7 221 -24.394
53 P7 222 -26.347
53 P7 223 -26.835
53 P7 224 -27.323
53 P7 225 -27.812
53 P7 226 -28.788
53 P7 227 -29.765
53 P7 228 -30.741
53 P7 229 -31.230
53 P7 230 -30.253
53 P7 231 -28.788
53 P7 232 -26.835
53 P7 233 -25.370
53 P7 234 -24.394
53 P7 235 -23.905
53 P7 236 -23.417
53 P7 237 -23.417
53 P7 238 -22.441
53 P7 239 -21.464
53 P7 240 -19.023
53 P7 241 -15.605
53 P7 242 -12.187
53 P7 243 -9.257
53 P7 244 -7.792
53 P7 245 -8.280
53 P7 246 -10.234
53 P7 247 -11.698
53 P7 248 -12.675
53 P7 249 -12.187
53 P7 250 -11.698
53 P7 251 -12.187
53 P7 252 -13.652
53 P7 253 -15.605
53 P7 254 -16.581
53 P7 255 -16.581
# PO2 chan 27
53 PO2 0 3.672
53 PO2 1 1.719
53 PO2 2 0.254
53 PO2 3 -0.722
53 PO2 4 -0.722
53 PO2 5 -0.234
53 PO2 6 -0.234
53 PO2 7 -0.722
53 PO2 8 -0.722
53 PO2 9 0.254
53 PO2 10 2.207
53 PO2 11 4.649
53 PO2 12 5.137
53 PO2 13 4.161
53 PO2 14 1.719
53 PO2 15 -0.722
53 PO2 16 -3.164
53 PO2 17 -4.140
53 PO2 18 -5.117
53 PO2 19 -6.582
53 PO2 20 -9.511
53 PO2 21 -11.953
53 PO2 22 -13.906
53 PO2 23 -14.394
53 PO2 24 -12.929
53 PO2 25 -10.488
53 PO2 26 -7.558
53 PO2 27 -4.628
53 PO2 28 -2.187
53 PO2 29 -0.722
53 PO2 30 0.254
53 PO2 31 0.254
53 PO2 32 -1.699
53 PO2 33 -4.140
53 PO2 34 -7.558
53 PO2 35 -10.488
53 PO2 36 -12.929
53 PO2 37 -14.394
53 PO2 38 -15.371
53 PO2 39 -16.836
53 PO2 40 -19.277
53 PO2 41 -21.718
53 PO2 42 -23.183
53 PO2 43 -23.671
53 PO2 44 -22.207
53 PO2 45 -20.742
53 PO2 46 -18.789
53 PO2 47 -17.812
53 PO2 48 -16.836
53 PO2 49 -15.371
53 PO2 50 -12.929
53 PO2 51 -10.488
53 PO2 52 -8.046
53 PO2 53 -6.093
53 PO2 54 -4.140
53 PO2 55 -3.164
53 PO2 56 -2.187
53 PO2 57 -1.699
53 PO2 58 -1.699
53 PO2 59 -1.699
53 PO2 60 -1.699
53 PO2 61 -1.699
53 PO2 62 -1.699
53 PO2 63 -2.187
53 PO2 64 -2.187
53 PO2 65 -1.699
53 PO2 66 -1.211
53 PO2 67 -1.211
53 PO2 68 -2.675
53 PO2 69 -4.628
53 PO2 70 -6.093
53 PO2 71 -7.558
53 PO2 72 -8.046
53 PO2 73 -8.046
53 PO2 74 -8.535
53 PO2 75 -9.511
53 PO2 76 -10.000
53 PO2 77 -10.000
53 PO2 78 -10.000
53 PO2 79 -9.511
53 PO2 80 -9.511
53 PO2 81 -9.511
53 PO2 82 -9.511
53 PO2 83 -9.023
53 PO2 84 -7.558
53 PO2 85 -6.582
53 PO2 86 -5.605
53 PO2 87 -5.117
53 PO2 88 -5.117
53 PO2 89 -6.093
53 PO2 90 -7.558
53 PO2 91 -8.046
53 PO2 92 -8.535
53 PO2 93 -8.535
53 PO2 94 -8.535
53 PO2 95 -8.535
53 PO2 96 -9.023
53 PO2 97 -9.023
53 PO2 98 -9.023
53 PO2 99 -8.535
53 PO2 100 -7.070
53 PO2 101 -6.093
53 PO2 102 -5.605
53 PO2 103 -5.605
53 PO2 104 -5.605
53 PO2 105 -5.605
53 PO2 106 -4.140
53 PO2 107 -3.164
53 PO2 108 -3.652
53 PO2 109 -5.117
53 PO2 110 -8.046
53 PO2 111 -10.488
53 PO2 112 -11.953
53 PO2 113 -11.464
53 PO2 114 -9.511
53 PO2 115 -8.535
53 PO2 116 -9.023
53 PO2 117 -10.488
53 PO2 118 -11.953
53 PO2 119 -10.976
53 PO2 120 -8.535
53 PO2 121 -5.605
53 PO2 122 -3.164
53 PO2 123 -2.675
53 PO2 124 -3.164
53 PO2 125 -3.652
53 PO2 126 -3.164
53 PO2 127 -2.675
53 PO2 128 -2.675
53 PO2 129 -3.652
53 PO2 130 -4.628
53 PO2 131 -5.605
53 PO2 132 -5.117
53 PO2 133 -4.140
53 PO2 134 -2.675
53 PO2 135 -1.211
53 PO2 136 -0.722
53 PO2 137 -0.234
53 PO2 138 0.254
53 PO2 139 1.231
53 PO2 140 1.719
53 PO2 141 1.719
53 PO2 142 0.743
53 PO2 143 -0.234
53 PO2 144 -1.211
53 PO2 145 -1.211
53 PO2 146 -0.234
53 PO2 147 0.743
53 PO2 148 1.719
53 PO2 149 2.207
53 PO2 150 2.207
53 PO2 151 2.696
53 PO2 152 3.184
53 PO2 153 4.161
53 PO2 154 3.672
53 PO2 155 2.207
53 PO2 156 -0.234
53 PO2 157 -2.675
53 PO2 158 -4.140
53 PO2 159 -4.628
53 PO2 160 -5.117
53 PO2 161 -5.605
53 PO2 162 -6.582
53 PO2 163 -6.582
53 PO2 164 -5.605
53 PO2 165 -3.652
53 PO2 166 -1.211
53 PO2 167 -0.234
53 PO2 168 -0.234
53 PO2 169 -1.211
53 PO2 170 -1.699
53 PO2 171 -0.722
53 PO2 172 0.743
53 PO2 173 2.207
53 PO2 174 2.696
53 PO2 175 1.719
53 PO2 176 -0.234
53 PO2 177 -2.675
53 PO2 178 -5.117
53 PO2 179 -7.558
53 PO2 180 -9.023
53 PO2 181 -10.488
53 PO2 182 -10.488
53 PO2 183 -9.511
53 PO2 184 -7.558
53 PO2 185 -5.605
53 PO2 186 -5.117
53 PO2 187 -5.605
53 PO2 188 -7.070
53 PO2 189 -8.535
53 PO2 190 -10.000
53 PO2 191 -10.488
