# co2a0000435.rd
# 120 trials, 64 chans, 416 samples 368 post_stim samples
# 3.906000 msecs uV
# S1 obj , trial 24
# FP1 chan 0
24 FP1 0 -4.751
24 FP1 1 -7.680
24 FP1 2 -8.169
24 FP1 3 -7.192
24 FP1 4 -5.727
24 FP1 5 -4.751
24 FP1 6 -3.286
24 FP1 7 -1.333
24 FP1 8 1.109
24 FP1 9 3.062
24 FP1 10 2.574
24 FP1 11 -1.333
24 FP1 12 -5.727
24 FP1 13 -8.657
24 FP1 14 -8.169
24 FP1 15 -4.262
24 FP1 16 0.132
24 FP1 17 2.085
24 FP1 18 1.109
24 FP1 19 -0.844
24 FP1 20 -1.821
24 FP1 21 -0.356
24 FP1 22 1.597
24 FP1 23 2.085
24 FP1 24 0.132
24 FP1 25 -3.286
24 FP1 26 -6.215
24 FP1 27 -6.704
24 FP1 28 -4.751
24 FP1 29 -1.821
24 FP1 30 2.085
24 FP1 31 5.015
24 FP1 32 6.968
24 FP1 33 7.945
24 FP1 34 8.433
24 FP1 35 6.968
24 FP1 36 5.015
24 FP1 37 3.062
24 FP1 38 1.597
24 FP1 39 0.621
24 FP1 40 0.132
24 FP1 41 -0.356
24 FP1 42 -1.333
24 FP1 43 -1.821
24 FP1 44 -0.844
24 FP1 45 1.597
24 FP1 46 4.038
24 FP1 47 5.503
24 FP1 48 5.015
24 FP1 49 2.085
24 FP1 50 -1.333
24 FP1 51 -4.751
24 FP1 52 -7.192
24 FP1 53 -8.169
24 FP1 54 -9.633
24 FP1 55 -10.122
24 FP1 56 -9.633
24 FP1 57 -7.192
24 FP1 58 -3.774
24 FP1 59 -0.844
24 FP1 60 -0.844
24 FP1 61 -3.286
24 FP1 62 -7.192
24 FP1 63 -10.122
24 FP1 64 -10.122
24 FP1 65 -7.192
24 FP1 66 -3.774
24 FP1 67 -2.309
24 FP1 68 -3.774
24 FP1 69 -7.680
24 FP1 70 -12.075
24 FP1 71 -15.493
24 FP1 72 -16.469
24 FP1 73 -15.493
24 FP1 74 -12.563
24 FP1 75 -9.145
24 FP1 76 -6.215
24 FP1 77 -3.774
24 FP1 78 -3.286
24 FP1 79 -5.239
24 FP1 80 -9.145
24 FP1 81 -13.540
24 FP1 82 -16.958
24 FP1 83 -17.934
24 FP1 84 -16.469
24 FP1 85 -13.051
24 FP1 86 -10.122
24 FP1 87 -8.657
24 FP1 88 -7.680
24 FP1 89 -6.704
24 FP1 90 -3.774
24 FP1 91 0.621
24 FP1 92 4.038
24 FP1 93 5.992
24 FP1 94 4.527
24 FP1 95 1.109
24 FP1 96 -2.797
24 FP1 97 -5.239
24 FP1 98 -6.215
24 FP1 99 -7.192
24 FP1 100 -7.680
24 FP1 101 -8.169
24 FP1 102 -7.680
24 FP1 103 -6.215
24 FP1 104 -4.262
24 FP1 105 -2.309
24 FP1 106 -1.333
24 FP1 107 -2.797
24 FP1 108 -4.751
24 FP1 109 -7.192
24 FP1 110 -8.169
24 FP1 111 -7.192
24 FP1 112 -4.751
24 FP1 113 -2.309
24 FP1 114 -1.821
24 FP1 115 -2.797
24 FP1 116 -5.239
24 FP1 117 -7.680
24 FP1 118 -8.657
24 FP1 119 -7.680
24 FP1 120 -5.727
24 FP1 121 -3.286
24 FP1 122 -1.333
24 FP1 123 0.132
24 FP1 124 0.621
24 FP1 125 0.132
24 FP1 126 -1.821
24 FP1 127 -5.727
24 FP1 128 -9.633
24 FP1 129 -11.587
24 FP1 130 -11.587
24 FP1 131 -8.657
24 FP1 132 -5.239
24 FP1 133 -2.309
24 FP1 134 -1.821
24 FP1 135 -3.286
24 FP1 136 -5.239
24 FP1 137 -7.192
24 FP1 138 -8.657
24 FP1 139 -10.610
24 FP1 140 -12.075
24 FP1 141 -13.051
24 FP1 142 -13.540
24 FP1 143 -12.563
24 FP1 144 -10.610
24 FP1 145 -7.680
24 FP1 146 -3.774
24 FP1 147 0.132
24 FP1 148 3.062
24 FP1 149 4.527
24 FP1 150 3.062
24 FP1 151 0.132
24 FP1 152 -3.774
24 FP1 153 -6.215
24 FP1 154 -8.169
24 FP1 155 -9.633
24 FP1 156 -11.098
24 FP1 157 -13.051
24 FP1 158 -14.028
24 FP1 159 -14.028
24 FP1 160 -12.563
24 FP1 161 -9.633
24 FP1 162 -6.704
24 FP1 163 -4.751
24 FP1 164 -3.774
24 FP1 165 -3.286
24 FP1 166 -3.286
24 FP1 167 -2.797
24 FP1 168 -1.333
24 FP1 169 0.132
24 FP1 170 0.132
24 FP1 171 -0.844
24 FP1 172 -2.797
24 FP1 173 -4.751
24 FP1 174 -6.215
24 FP1 175 -6.215
24 FP1 176 -6.215
24 FP1 177 -5.239
24 FP1 178 -4.262
24 FP1 179 -2.309
24 FP1 180 0.132
24 FP1 181 1.597
24 FP1 182 1.597
24 FP1 183 -0.844
24 FP1 184 -4.751
24 FP1 185 -8.169
24 FP1 186 -9.633
24 FP1 187 -8.169
24 FP1 188 -5.727
24 FP1 189 -4.262
24 FP1 190 -4.751
24 FP1 191 -8.657
24 FP1 192 -13.540
24 FP1 193 -19.399
24 FP1 194 -24.282
24 FP1 195 -27.212
24 FP1 196 -27.212
24 FP1 197 -23.305
24 FP1 198 -17.446
24 FP1 199 -11.098
24 FP1 200 -7.192
24 FP1 201 -7.680
24 FP1 202 -11.587
24 FP1 203 -17.934
24 FP1 204 -23.305
24 FP1 205 -25.747
24 FP1 206 -25.258
24 FP1 207 -22.329
24 FP1 208 -19.399
24 FP1 209 -16.469
24 FP1 210 -15.004
24 FP1 211 -15.493
24 FP1 212 -16.958
24 FP1 213 -18.911
24 FP1 214 -21.352
24 FP1 215 -22.329
24 FP1 216 -21.840
24 FP1 217 -19.887
24 FP1 218 -18.422
24 FP1 219 -16.469
24 FP1 220 -14.028
24 FP1 221 -11.587
24 FP1 222 -9.633
24 FP1 223 -8.657
24 FP1 224 -9.633
24 FP1 225 -10.610
24 FP1 226 -10.610
24 FP1 227 -9.633
24 FP1 228 -7.680
24 FP1 229 -6.215
24 FP1 230 -5.727
24 FP1 231 -5.727
24 FP1 232 -3.774
24 FP1 233 -0.844
24 FP1 234 2.085
24 FP1 235 3.062
24 FP1 236 0.621
24 FP1 237 -3.774
24 FP1 238 -7.680
24 FP1 239 -8.169
24 FP1 240 -4.751
24 FP1 241 -0.844
24 FP1 242 2.085
24 FP1 243 2.085
24 FP1 244 -0.356
24 FP1 245 -2.797
24 FP1 246 -4.262
24 FP1 247 -3.286
24 FP1 248 -1.821
24 FP1 249 -1.333
24 FP1 250 -2.309
24 FP1 251 -4.751
24 FP1 252 -6.704
24 FP1 253 -7.192
24 FP1 254 -5.239
24 FP1 255 -2.309
# FP2 chan 1
24 FP2 0 -2.594
24 FP2 1 -6.012
24 FP2 2 -7.965
24 FP2 3 -7.477
24 FP2 4 -5.035
24 FP2 5 -1.129
24 FP2 6 1.801
24 FP2 7 3.265
24 FP2 8 3.265
24 FP2 9 1.312
24 FP2 10 -1.617
24 FP2 11 -4.059
24 FP2 12 -5.035
24 FP2 13 -4.547
24 FP2 14 -2.106
24 FP2 15 0.824
24 FP2 16 2.777
24 FP2 17 2.289
24 FP2 18 -0.153
24 FP2 19 -3.082
24 FP2 20 -4.547
24 FP2 21 -4.547
24 FP2 22 -3.082
24 FP2 23 -0.153
24 FP2 24 1.801
24 FP2 25 1.312
24 FP2 26 -1.129
24 FP2 27 -4.059
24 FP2 28 -5.524
24 FP2 29 -4.059
24 FP2 30 0.336
24 FP2 31 4.730
24 FP2 32 6.683
24 FP2 33 5.707
24 FP2 34 3.265
24 FP2 35 2.289
24 FP2 36 3.754
24 FP2 37 5.707
24 FP2 38 6.195
24 FP2 39 3.265
24 FP2 40 -0.641
24 FP2 41 -3.571
24 FP2 42 -4.547
24 FP2 43 -3.082
24 FP2 44 -1.129
24 FP2 45 1.801
24 FP2 46 4.242
24 FP2 47 6.683
24 FP2 48 7.172
24 FP2 49 5.219
24 FP2 50 0.336
24 FP2 51 -5.035
24 FP2 52 -9.918
24 FP2 53 -11.871
24 FP2 54 -11.383
24 FP2 55 -10.406
24 FP2 56 -8.942
24 FP2 57 -5.524
24 FP2 58 -2.106
24 FP2 59 1.312
24 FP2 60 1.801
24 FP2 61 -1.129
24 FP2 62 -6.500
24 FP2 63 -10.895
24 FP2 64 -11.383
24 FP2 65 -8.942
24 FP2 66 -5.035
24 FP2 67 -3.082
24 FP2 68 -4.547
24 FP2 69 -8.453
24 FP2 70 -13.336
24 FP2 71 -16.754
24 FP2 72 -17.731
24 FP2 73 -16.266
24 FP2 74 -12.848
24 FP2 75 -8.942
24 FP2 76 -5.524
24 FP2 77 -4.059
24 FP2 78 -4.547
24 FP2 79 -7.477
24 FP2 80 -10.406
24 FP2 81 -12.848
24 FP2 82 -14.313
24 FP2 83 -14.313
24 FP2 84 -13.824
24 FP2 85 -12.360
24 FP2 86 -10.895
24 FP2 87 -8.942
24 FP2 88 -6.989
24 FP2 89 -5.035
24 FP2 90 -3.082
24 FP2 91 -0.641
24 FP2 92 1.312
24 FP2 93 2.777
24 FP2 94 2.289
24 FP2 95 -1.129
24 FP2 96 -5.524
24 FP2 97 -8.942
24 FP2 98 -9.430
24 FP2 99 -7.477
24 FP2 100 -4.547
24 FP2 101 -3.082
24 FP2 102 -4.059
24 FP2 103 -6.500
24 FP2 104 -6.989
24 FP2 105 -5.524
24 FP2 106 -3.082
24 FP2 107 -1.617
24 FP2 108 -2.594
24 FP2 109 -6.012
24 FP2 110 -9.430
24 FP2 111 -9.918
24 FP2 112 -6.989
24 FP2 113 -3.082
24 FP2 114 0.336
24 FP2 115 0.824
24 FP2 116 -1.129
24 FP2 117 -3.571
24 FP2 118 -6.012
24 FP2 119 -6.989
24 FP2 120 -7.477
24 FP2 121 -6.500
24 FP2 122 -4.059
24 FP2 123 -0.641
24 FP2 124 3.265
24 FP2 125 5.707
24 FP2 126 4.242
24 FP2 127 -0.641
24 FP2 128 -7.965
24 FP2 129 -14.313
24 FP2 130 -15.778
24 FP2 131 -12.848
24 FP2 132 -6.989
24 FP2 133 -1.129
24 FP2 134 1.312
24 FP2 135 -0.153
24 FP2 136 -4.059
24 FP2 137 -7.965
24 FP2 138 -10.895
24 FP2 139 -13.336
24 FP2 140 -14.313
24 FP2 141 -15.289
24 FP2 142 -15.778
24 FP2 143 -14.801
24 FP2 144 -11.871
24 FP2 145 -7.965
24 FP2 146 -3.571
24 FP2 147 -0.153
24 FP2 148 2.289
24 FP2 149 3.265
24 FP2 150 2.777
24 FP2 151 1.801
24 FP2 152 -1.129
24 FP2 153 -4.547
24 FP2 154 -9.430
24 FP2 155 -14.313
24 FP2 156 -18.219
24 FP2 157 -19.684
24 FP2 158 -17.731
24 FP2 159 -14.801
24 FP2 160 -10.406
24 FP2 161 -6.500
24 FP2 162 -3.571
24 FP2 163 -1.617
24 FP2 164 0.336
24 FP2 165 0.336
24 FP2 166 -0.641
24 FP2 167 -2.594
24 FP2 168 -4.547
24 FP2 169 -5.035
24 FP2 170 -4.547
24 FP2 171 -3.571
24 FP2 172 -3.082
24 FP2 173 -3.082
24 FP2 174 -4.547
24 FP2 175 -5.524
24 FP2 176 -5.524
24 FP2 177 -4.059
24 FP2 178 -2.594
24 FP2 179 -0.641
24 FP2 180 -0.153
24 FP2 181 -0.641
24 FP2 182 -3.082
24 FP2 183 -6.012
24 FP2 184 -7.965
24 FP2 185 -7.965
24 FP2 186 -6.989
24 FP2 187 -4.547
24 FP2 188 -3.571
24 FP2 189 -3.571
24 FP2 190 -5.524
24 FP2 191 -8.942
24 FP2 192 -14.313
24 FP2 193 -20.660
24 FP2 194 -27.496
24 FP2 195 -32.867
24 FP2 196 -33.844
24 FP2 197 -28.961
24 FP2 198 -20.172
24 FP2 199 -10.895
24 FP2 200 -5.524
24 FP2 201 -6.500
24 FP2 202 -12.360
24 FP2 203 -20.172
24 FP2 204 -26.031
24 FP2 205 -27.985
24 FP2 206 -26.520
24 FP2 207 -24.078
24 FP2 208 -20.660
24 FP2 209 -18.219
24 FP2 210 -16.754
24 FP2 211 -16.754
24 FP2 212 -17.731
24 FP2 213 -20.660
24 FP2 214 -22.614
24 FP2 215 -23.590
24 FP2 216 -22.614
24 FP2 217 -20.660
24 FP2 218 -19.196
24 FP2 219 -18.219
24 FP2 220 -16.754
24 FP2 221 -14.313
24 FP2 222 -11.383
24 FP2 223 -8.942
24 FP2 224 -9.430
24 FP2 225 -11.383
24 FP2 226 -12.848
24 FP2 227 -11.871
24 FP2 228 -6.989
24 FP2 229 -2.594
24 FP2 230 0.336
24 FP2 231 -0.153
24 FP2 232 -1.617
24 FP2 233 -2.106
24 FP2 234 -0.641
24 FP2 235 0.336
24 FP2 236 -1.129
24 FP2 237 -5.035
24 FP2 238 -8.453
24 FP2 239 -7.965
24 FP2 240 -3.082
24 FP2 241 3.754
24 FP2 242 7.172
24 FP2 243 5.219
24 FP2 244 -1.129
24 FP2 245 -7.477
24 FP2 246 -8.942
24 FP2 247 -6.012
24 FP2 248 -0.641
24 FP2 249 2.777
24 FP2 250 1.312
24 FP2 251 -3.082
24 FP2 252 -7.965
24 FP2 253 -8.453
24 FP2 254 -4.547
24 FP2 255 1.312
# F7 chan 2
24 F7 0 -4.924
24 F7 1 -8.341
24 F7 2 -8.341
24 F7 3 -5.900
24 F7 4 -2.970
24 F7 5 -1.017
24 F7 6 -1.017
24 F7 7 -1.994
24 F7 8 -1.994
24 F7 9 -1.506
24 F7 10 -1.506
24 F7 11 -1.994
24 F7 12 -2.970
24 F7 13 -3.947
24 F7 14 -4.435
24 F7 15 -4.924
24 F7 16 -5.900
24 F7 17 -6.877
24 F7 18 -5.412
24 F7 19 -1.017
24 F7 20 6.795
24 F7 21 13.631
24 F7 22 15.584
24 F7 23 9.725
24 F7 24 -1.506
24 F7 25 -12.248
24 F7 26 -17.131
24 F7 27 -13.224
24 F7 28 -3.947
24 F7 29 4.842
24 F7 30 9.237
24 F7 31 8.260
24 F7 32 5.330
24 F7 33 3.866
24 F7 34 4.842
24 F7 35 7.284
24 F7 36 7.772
24 F7 37 4.842
24 F7 38 -0.529
24 F7 39 -5.900
24 F7 40 -7.365
24 F7 41 -4.435
24 F7 42 1.424
24 F7 43 6.307
24 F7 44 8.260
24 F7 45 5.819
24 F7 46 0.936
24 F7 47 -4.435
24 F7 48 -6.877
24 F7 49 -6.388
24 F7 50 -3.947
24 F7 51 -1.506
24 F7 52 -1.994
24 F7 53 -5.412
24 F7 54 -10.783
24 F7 55 -14.689
24 F7 56 -14.689
24 F7 57 -11.271
24 F7 58 -5.900
24 F7 59 -3.459
24 F7 60 -3.947
24 F7 61 -6.877
24 F7 62 -7.853
24 F7 63 -4.924
24 F7 64 1.912
24 F7 65 9.237
24 F7 66 12.655
24 F7 67 8.748
24 F7 68 -1.506
24 F7 69 -13.224
24 F7 70 -21.525
24 F7 71 -22.502
24 F7 72 -16.154
24 F7 73 -6.388
24 F7 74 2.401
24 F7 75 5.330
24 F7 76 2.401
24 F7 77 -3.459
24 F7 78 -9.318
24 F7 79 -12.736
24 F7 80 -14.201
24 F7 81 -14.689
24 F7 82 -15.666
24 F7 83 -17.131
24 F7 84 -17.131
24 F7 85 -15.666
24 F7 86 -11.759
24 F7 87 -7.853
24 F7 88 -4.435
24 F7 89 -2.482
24 F7 90 -1.017
24 F7 91 -0.529
24 F7 92 0.448
24 F7 93 1.424
24 F7 94 1.912
24 F7 95 -0.529
24 F7 96 -5.412
24 F7 97 -12.736
24 F7 98 -19.084
24 F7 99 -21.037
24 F7 100 -16.154
24 F7 101 -6.877
24 F7 102 0.936
24 F7 103 2.401
24 F7 104 -3.459
24 F7 105 -11.271
24 F7 106 -15.666
24 F7 107 -13.224
24 F7 108 -5.900
24 F7 109 0.936
24 F7 110 2.401
24 F7 111 -2.970
24 F7 112 -11.759
24 F7 113 -17.131
24 F7 114 -16.154
24 F7 115 -9.806
24 F7 116 -3.459
24 F7 117 -1.994
24 F7 118 -5.412
24 F7 119 -11.271
24 F7 120 -13.713
24 F7 121 -9.806
24 F7 122 -2.482
24 F7 123 3.377
24 F7 124 3.377
24 F7 125 -1.994
24 F7 126 -8.830
24 F7 127 -11.271
24 F7 128 -7.365
24 F7 129 -1.994
24 F7 130 0.448
24 F7 131 -3.459
24 F7 132 -10.295
24 F7 133 -14.689
24 F7 134 -12.248
24 F7 135 -3.459
24 F7 136 5.330
24 F7 137 9.725
24 F7 138 7.284
24 F7 139 1.424
24 F7 140 -5.412
24 F7 141 -10.295
24 F7 142 -15.177
24 F7 143 -18.595
24 F7 144 -20.549
24 F7 145 -17.619
24 F7 146 -10.783
24 F7 147 -1.994
24 F7 148 4.354
24 F7 149 5.330
24 F7 150 1.912
24 F7 151 -2.970
24 F7 152 -6.388
24 F7 153 -6.877
24 F7 154 -6.388
24 F7 155 -6.877
24 F7 156 -7.853
24 F7 157 -9.318
24 F7 158 -8.830
24 F7 159 -6.877
24 F7 160 -5.412
24 F7 161 -5.900
24 F7 162 -7.853
24 F7 163 -8.830
24 F7 164 -7.365
24 F7 165 -2.970
24 F7 166 3.377
24 F7 167 7.772
24 F7 168 8.260
24 F7 169 3.377
24 F7 170 -2.970
24 F7 171 -9.318
24 F7 172 -12.248
24 F7 173 -10.295
24 F7 174 -5.900
24 F7 175 -1.506
24 F7 176 0.448
24 F7 177 -0.041
24 F7 178 -1.017
24 F7 179 -1.017
24 F7 180 0.448
24 F7 181 1.912
24 F7 182 0.936
24 F7 183 -3.459
24 F7 184 -8.830
24 F7 185 -12.248
24 F7 186 -12.736
24 F7 187 -11.271
24 F7 188 -9.318
24 F7 189 -8.830
24 F7 190 -8.830
24 F7 191 -9.318
24 F7 192 -10.295
24 F7 193 -12.248
24 F7 194 -15.666
24 F7 195 -18.595
24 F7 196 -18.595
24 F7 197 -15.177
24 F7 198 -9.806
24 F7 199 -6.388
24 F7 200 -7.853
24 F7 201 -13.713
24 F7 202 -19.572
24 F7 203 -22.013
24 F7 204 -21.037
24 F7 205 -17.131
24 F7 206 -14.689
24 F7 207 -14.201
24 F7 208 -15.177
24 F7 209 -15.177
24 F7 210 -14.689
24 F7 211 -14.201
24 F7 212 -15.177
24 F7 213 -17.131
24 F7 214 -19.572
24 F7 215 -21.037
24 F7 216 -20.549
24 F7 217 -19.572
24 F7 218 -18.595
24 F7 219 -18.595
24 F7 220 -17.131
24 F7 221 -13.224
24 F7 222 -7.365
24 F7 223 -1.994
24 F7 224 -0.529
24 F7 225 -4.435
24 F7 226 -11.759
24 F7 227 -19.084
24 F7 228 -21.037
24 F7 229 -16.642
24 F7 230 -7.365
24 F7 231 2.401
24 F7 232 8.260
24 F7 233 9.237
24 F7 234 5.819
24 F7 235 1.912
24 F7 236 -1.017
24 F7 237 -1.994
24 F7 238 -2.482
24 F7 239 -3.947
24 F7 240 -5.900
24 F7 241 -5.900
24 F7 242 -3.459
24 F7 243 0.936
24 F7 244 4.354
24 F7 245 4.354
24 F7 246 1.912
24 F7 247 -1.506
24 F7 248 -1.994
24 F7 249 -0.529
24 F7 250 1.912
24 F7 251 2.401
24 F7 252 -0.041
24 F7 253 -4.435
24 F7 254 -7.853
24 F7 255 -7.853
# F8 chan 3
24 F8 0 1.719
24 F8 1 -1.211
24 F8 2 -6.582
24 F8 3 -8.046
24 F8 4 -3.652
24 F8 5 5.137
24 F8 6 12.950
24 F8 7 13.926
24 F8 8 9.043
24 F8 9 1.231
24 F8 10 -4.140
24 F8 11 -6.093
24 F8 12 -4.628
24 F8 13 -2.675
24 F8 14 -1.699
24 F8 15 -0.722
24 F8 16 -0.234
24 F8 17 0.254
24 F8 18 -0.234
24 F8 19 -2.187
24 F8 20 -4.628
24 F8 21 -4.628
24 F8 22 -2.187
24 F8 23 1.719
24 F8 24 4.649
24 F8 25 4.161
24 F8 26 0.254
24 F8 27 -4.628
24 F8 28 -7.070
24 F8 29 -6.093
24 F8 30 -3.164
24 F8 31 -0.722
24 F8 32 -0.722
24 F8 33 -1.699
24 F8 34 -1.211
24 F8 35 2.207
24 F8 36 6.602
24 F8 37 9.532
24 F8 38 10.508
24 F8 39 10.020
24 F8 40 9.532
24 F8 41 8.067
24 F8 42 5.137
24 F8 43 0.743
24 F8 44 -3.164
24 F8 45 -5.117
24 F8 46 -3.652
24 F8 47 -0.234
24 F8 48 3.672
24 F8 49 5.625
24 F8 50 4.649
24 F8 51 0.743
24 F8 52 -5.117
24 F8 53 -10.000
24 F8 54 -10.976
24 F8 55 -6.093
24 F8 56 2.207
24 F8 57 10.997
24 F8 58 15.879
24 F8 59 16.368
24 F8 60 11.973
24 F8 61 5.137
24 F8 62 -1.211
24 F8 63 -5.605
24 F8 64 -6.582
24 F8 65 -4.140
24 F8 66 -0.234
24 F8 67 3.184
24 F8 68 3.184
24 F8 69 -0.234
24 F8 70 -7.070
24 F8 71 -13.418
24 F8 72 -17.324
24 F8 73 -15.859
24 F8 74 -9.511
24 F8 75 -1.211
24 F8 76 5.137
24 F8 77 6.602
24 F8 78 2.207
24 F8 79 -3.652
24 F8 80 -9.023
24 F8 81 -10.488
24 F8 82 -10.000
24 F8 83 -8.046
24 F8 84 -7.558
24 F8 85 -8.046
24 F8 86 -9.511
24 F8 87 -10.488
24 F8 88 -10.488
24 F8 89 -9.511
24 F8 90 -6.582
24 F8 91 -2.675
24 F8 92 0.254
24 F8 93 0.254
24 F8 94 -3.652
24 F8 95 -9.023
24 F8 96 -12.929
24 F8 97 -12.929
24 F8 98 -10.488
24 F8 99 -8.046
24 F8 100 -8.535
24 F8 101 -11.464
24 F8 102 -13.906
24 F8 103 -12.929
24 F8 104 -9.023
24 F8 105 -4.140
24 F8 106 -2.187
24 F8 107 -3.652
24 F8 108 -6.093
24 F8 109 -7.558
24 F8 110 -5.605
24 F8 111 -2.675
24 F8 112 -0.722
24 F8 113 -3.164
24 F8 114 -6.582
24 F8 115 -9.511
24 F8 116 -8.535
24 F8 117 -4.628
24 F8 118 0.254
24 F8 119 1.719
24 F8 120 0.254
24 F8 121 -2.187
24 F8 122 -2.187
24 F8 123 -0.234
24 F8 124 1.231
24 F8 125 1.231
24 F8 126 -2.187
24 F8 127 -5.605
24 F8 128 -8.046
24 F8 129 -8.046
24 F8 130 -6.582
24 F8 131 -5.605
24 F8 132 -4.140
24 F8 133 -2.187
24 F8 134 0.743
24 F8 135 3.184
24 F8 136 1.231
24 F8 137 -5.605
24 F8 138 -15.371
24 F8 139 -24.160
24 F8 140 -26.601
24 F8 141 -22.207
24 F8 142 -13.418
24 F8 143 -6.093
24 F8 144 -2.675
24 F8 145 -3.652
24 F8 146 -7.070
24 F8 147 -9.023
24 F8 148 -7.558
24 F8 149 -3.164
24 F8 150 2.696
24 F8 151 6.602
24 F8 152 4.649
24 F8 153 -3.652
24 F8 154 -15.371
24 F8 155 -23.671
24 F8 156 -23.183
24 F8 157 -14.882
24 F8 158 -3.652
24 F8 159 3.672
24 F8 160 4.649
24 F8 161 1.231
24 F8 162 -2.675
24 F8 163 -3.652
24 F8 164 -3.164
24 F8 165 -3.652
24 F8 166 -7.070
24 F8 167 -11.953
24 F8 168 -15.371
24 F8 169 -14.394
24 F8 170 -8.535
24 F8 171 -0.722
24 F8 172 6.114
24 F8 173 10.020
24 F8 174 11.485
24 F8 175 10.508
24 F8 176 8.067
24 F8 177 2.207
24 F8 178 -6.093
24 F8 179 -15.371
24 F8 180 -20.253
24 F8 181 -18.300
24 F8 182 -10.976
24 F8 183 -3.652
24 F8 184 -1.211
24 F8 185 -4.140
24 F8 186 -9.023
24 F8 187 -10.488
24 F8 188 -7.558
24 F8 189 -2.187
24 F8 190 0.254
24 F8 191 -4.140
24 F8 192 -13.906
24 F8 193 -25.136
24 F8 194 -32.949
24 F8 195 -35.390
24 F8 196 -31.972
24 F8 197 -26.113
24 F8 198 -20.253
24 F8 199 -15.371
24 F8 200 -12.929
24 F8 201 -11.953
24 F8 202 -13.418
24 F8 203 -17.812
24 F8 204 -22.695
24 F8 205 -25.625
24 F8 206 -23.671
24 F8 207 -18.300
24 F8 208 -12.441
24 F8 209 -11.464
24 F8 210 -17.812
24 F8 211 -27.089
24 F8 212 -33.437
24 F8 213 -32.461
24 F8 214 -26.113
24 F8 215 -18.300
24 F8 216 -13.906
24 F8 217 -13.906
24 F8 218 -14.394
24 F8 219 -12.441
24 F8 220 -8.046
24 F8 221 -4.628
24 F8 222 -4.140
24 F8 223 -7.070
24 F8 224 -10.000
24 F8 225 -10.976
24 F8 226 -8.535
24 F8 227 -5.117
24 F8 228 -3.652
24 F8 229 -4.628
24 F8 230 -5.117
24 F8 231 -2.675
24 F8 232 3.184
24 F8 233 9.532
24 F8 234 11.973
24 F8 235 8.067
24 F8 236 0.743
24 F8 237 -6.093
24 F8 238 -8.046
24 F8 239 -4.628
24 F8 240 1.231
24 F8 241 7.090
24 F8 242 10.997
24 F8 243 11.485
24 F8 244 9.532
24 F8 245 4.649
24 F8 246 -0.722
24 F8 247 -4.628
24 F8 248 -5.605
24 F8 249 -3.652
24 F8 250 -0.722
24 F8 251 1.231
24 F8 252 2.207
24 F8 253 4.161
24 F8 254 8.067
24 F8 255 11.973
# AF1 chan 4
24 AF1 0 -1.170
24 AF1 1 -3.611
24 AF1 2 -4.588
24 AF1 3 -4.100
24 AF1 4 -2.635
24 AF1 5 -1.658
24 AF1 6 -1.170
24 AF1 7 -0.682
24 AF1 8 0.295
24 AF1 9 1.272
24 AF1 10 1.272
24 AF1 11 -0.193
24 AF1 12 -2.146
24 AF1 13 -3.123
24 AF1 14 -2.146
24 AF1 15 -0.193
24 AF1 16 1.760
24 AF1 17 1.760
24 AF1 18 -0.193
24 AF1 19 -2.146
24 AF1 20 -2.635
24 AF1 21 -1.658
24 AF1 22 -0.193
24 AF1 23 0.783
24 AF1 24 -0.682
24 AF1 25 -2.635
24 AF1 26 -4.100
24 AF1 27 -4.100
24 AF1 28 -2.146
24 AF1 29 0.783
24 AF1 30 3.225
24 AF1 31 4.201
24 AF1 32 4.690
24 AF1 33 5.178
24 AF1 34 5.178
24 AF1 35 5.178
24 AF1 36 4.201
24 AF1 37 1.760
24 AF1 38 0.295
24 AF1 39 -1.170
24 AF1 40 -1.658
24 AF1 41 -1.658
24 AF1 42 -1.658
24 AF1 43 -1.170
24 AF1 44 -0.193
24 AF1 45 1.272
24 AF1 46 3.713
24 AF1 47 5.178
24 AF1 48 6.154
24 AF1 49 4.690
24 AF1 50 2.248
24 AF1 51 -1.170
24 AF1 52 -5.076
24 AF1 53 -8.006
24 AF1 54 -10.447
24 AF1 55 -10.447
24 AF1 56 -8.982
24 AF1 57 -4.588
24 AF1 58 -0.193
24 AF1 59 2.248
24 AF1 60 2.248
24 AF1 61 -0.682
24 AF1 62 -5.076
24 AF1 63 -8.006
24 AF1 64 -8.006
24 AF1 65 -6.053
24 AF1 66 -3.123
24 AF1 67 -1.658
24 AF1 68 -2.635
24 AF1 69 -5.076
24 AF1 70 -8.006
24 AF1 71 -10.935
24 AF1 72 -12.889
24 AF1 73 -12.889
24 AF1 74 -11.424
24 AF1 75 -8.494
24 AF1 76 -5.076
24 AF1 77 -2.146
24 AF1 78 -1.170
24 AF1 79 -2.635
24 AF1 80 -6.053
24 AF1 81 -10.447
24 AF1 82 -13.865
24 AF1 83 -15.330
24 AF1 84 -14.842
24 AF1 85 -12.400
24 AF1 86 -9.471
24 AF1 87 -7.029
24 AF1 88 -4.588
24 AF1 89 -2.146
24 AF1 90 0.783
24 AF1 91 4.201
24 AF1 92 7.131
24 AF1 93 9.084
24 AF1 94 8.108
24 AF1 95 5.178
24 AF1 96 1.272
24 AF1 97 -2.146
24 AF1 98 -4.588
24 AF1 99 -5.076
24 AF1 100 -5.076
24 AF1 101 -4.100
24 AF1 102 -3.123
24 AF1 103 -2.146
24 AF1 104 -2.146
24 AF1 105 -2.146
24 AF1 106 -2.146
24 AF1 107 -2.146
24 AF1 108 -1.658
24 AF1 109 -1.658
24 AF1 110 -1.658
24 AF1 111 -1.658
24 AF1 112 -1.170
24 AF1 113 -0.682
24 AF1 114 -0.193
24 AF1 115 -0.193
24 AF1 116 -1.170
24 AF1 117 -2.635
24 AF1 118 -4.100
24 AF1 119 -4.588
24 AF1 120 -4.100
24 AF1 121 -1.658
24 AF1 122 0.783
24 AF1 123 3.225
24 AF1 124 4.201
24 AF1 125 3.713
24 AF1 126 1.272
24 AF1 127 -1.658
24 AF1 128 -4.588
24 AF1 129 -7.029
24 AF1 130 -8.494
24 AF1 131 -8.006
24 AF1 132 -6.053
24 AF1 133 -3.123
24 AF1 134 -0.193
24 AF1 135 2.248
24 AF1 136 2.736
24 AF1 137 0.783
24 AF1 138 -2.146
24 AF1 139 -6.053
24 AF1 140 -8.982
24 AF1 141 -10.447
24 AF1 142 -10.935
24 AF1 143 -10.935
24 AF1 144 -10.447
24 AF1 145 -8.982
24 AF1 146 -5.564
24 AF1 147 -1.170
24 AF1 148 2.736
24 AF1 149 5.178
24 AF1 150 4.690
24 AF1 151 1.760
24 AF1 152 -1.658
24 AF1 153 -5.564
24 AF1 154 -8.982
24 AF1 155 -11.912
24 AF1 156 -14.353
24 AF1 157 -15.818
24 AF1 158 -15.330
24 AF1 159 -13.377
24 AF1 160 -10.447
24 AF1 161 -7.029
24 AF1 162 -4.100
24 AF1 163 -2.146
24 AF1 164 -1.658
24 AF1 165 -2.146
24 AF1 166 -3.123
24 AF1 167 -4.100
24 AF1 168 -4.588
24 AF1 169 -5.076
24 AF1 170 -5.564
24 AF1 171 -6.541
24 AF1 172 -8.006
24 AF1 173 -8.982
24 AF1 174 -9.959
24 AF1 175 -9.959
24 AF1 176 -8.494
24 AF1 177 -6.053
24 AF1 178 -3.123
24 AF1 179 -0.682
24 AF1 180 1.760
24 AF1 181 3.225
24 AF1 182 3.713
24 AF1 183 2.248
24 AF1 184 -0.193
24 AF1 185 -3.123
24 AF1 186 -5.564
24 AF1 187 -6.541
24 AF1 188 -7.029
24 AF1 189 -6.541
24 AF1 190 -7.029
24 AF1 191 -9.471
24 AF1 192 -12.889
24 AF1 193 -16.795
24 AF1 194 -20.701
24 AF1 195 -22.654
24 AF1 196 -22.166
24 AF1 197 -19.236
24 AF1 198 -13.865
24 AF1 199 -8.494
24 AF1 200 -5.076
24 AF1 201 -5.564
24 AF1 202 -8.982
24 AF1 203 -14.353
24 AF1 204 -18.748
24 AF1 205 -21.189
24 AF1 206 -20.701
24 AF1 207 -18.260
24 AF1 208 -15.330
24 AF1 209 -12.889
24 AF1 210 -11.912
24 AF1 211 -12.400
24 AF1 212 -13.865
24 AF1 213 -16.307
24 AF1 214 -18.260
24 AF1 215 -19.236
24 AF1 216 -19.725
24 AF1 217 -19.236
24 AF1 218 -17.771
24 AF1 219 -15.818
24 AF1 220 -13.865
24 AF1 221 -11.424
24 AF1 222 -9.471
24 AF1 223 -8.006
24 AF1 224 -7.517
24 AF1 225 -7.029
24 AF1 226 -7.029
24 AF1 227 -7.517
24 AF1 228 -8.006
24 AF1 229 -8.494
24 AF1 230 -8.494
24 AF1 231 -7.029
24 AF1 232 -4.588
24 AF1 233 -1.170
24 AF1 234 1.272
24 AF1 235 1.760
24 AF1 236 -0.193
24 AF1 237 -2.635
24 AF1 238 -5.076
24 AF1 239 -5.564
24 AF1 240 -4.100
24 AF1 241 -1.658
24 AF1 242 0.295
24 AF1 243 0.295
24 AF1 244 -1.170
24 AF1 245 -2.635
24 AF1 246 -4.100
24 AF1 247 -4.100
24 AF1 248 -3.611
24 AF1 249 -3.123
24 AF1 250 -3.611
24 AF1 251 -5.564
24 AF1 252 -7.029
24 AF1 253 -6.541
24 AF1 254 -4.588
24 AF1 255 -1.658
# AF2 chan 5
24 AF2 0 -0.651
24 AF2 1 -2.604
24 AF2 2 -3.092
24 AF2 3 -2.116
24 AF2 4 -0.163
24 AF2 5 0.814
24 AF2 6 1.302
24 AF2 7 0.814
24 AF2 8 0.326
24 AF2 9 -0.163
24 AF2 10 -0.651
24 AF2 11 -1.628
24 AF2 12 -2.116
24 AF2 13 -1.628
24 AF2 14 -0.163
24 AF2 15 1.790
24 AF2 16 2.767
24 AF2 17 1.790
24 AF2 18 -0.651
24 AF2 19 -3.092
24 AF2 20 -4.069
24 AF2 21 -4.069
24 AF2 22 -2.604
24 AF2 23 -1.628
24 AF2 24 -1.628
24 AF2 25 -1.628
24 AF2 26 -2.116
24 AF2 27 -2.116
24 AF2 28 -0.651
24 AF2 29 1.302
24 AF2 30 2.767
24 AF2 31 3.743
24 AF2 32 3.743
24 AF2 33 4.232
24 AF2 34 4.232
24 AF2 35 4.720
24 AF2 36 4.232
24 AF2 37 2.767
24 AF2 38 1.302
24 AF2 39 -0.163
24 AF2 40 -1.628
24 AF2 41 -1.628
24 AF2 42 -1.628
24 AF2 43 -1.628
24 AF2 44 -0.651
24 AF2 45 1.790
24 AF2 46 4.232
24 AF2 47 6.673
24 AF2 48 7.650
24 AF2 49 6.673
24 AF2 50 2.767
24 AF2 51 -1.628
24 AF2 52 -6.022
24 AF2 53 -8.952
24 AF2 54 -10.417
24 AF2 55 -8.952
24 AF2 56 -5.534
24 AF2 57 -0.651
24 AF2 58 3.255
24 AF2 59 5.208
24 AF2 60 3.743
24 AF2 61 -0.163
24 AF2 62 -5.534
24 AF2 63 -8.464
24 AF2 64 -8.952
24 AF2 65 -6.999
24 AF2 66 -4.069
24 AF2 67 -1.628
24 AF2 68 -1.139
24 AF2 69 -2.604
24 AF2 70 -5.534
24 AF2 71 -9.440
24 AF2 72 -12.858
24 AF2 73 -14.323
24 AF2 74 -13.835
24 AF2 75 -9.928
24 AF2 76 -5.046
24 AF2 77 -0.651
24 AF2 78 0.814
24 AF2 79 0.326
24 AF2 80 -3.092
24 AF2 81 -6.999
24 AF2 82 -10.417
24 AF2 83 -12.370
24 AF2 84 -12.858
24 AF2 85 -12.370
24 AF2 86 -10.417
24 AF2 87 -7.975
24 AF2 88 -5.046
24 AF2 89 -1.139
24 AF2 90 2.279
24 AF2 91 5.208
24 AF2 92 6.673
24 AF2 93 6.673
24 AF2 94 5.697
24 AF2 95 3.743
24 AF2 96 1.302
24 AF2 97 -0.651
24 AF2 98 -2.116
24 AF2 99 -2.604
24 AF2 100 -2.116
24 AF2 101 -1.628
24 AF2 102 -1.628
24 AF2 103 -1.628
24 AF2 104 -2.604
24 AF2 105 -3.581
24 AF2 106 -3.581
24 AF2 107 -2.116
24 AF2 108 -1.139
24 AF2 109 0.326
24 AF2 110 1.302
24 AF2 111 1.302
24 AF2 112 1.302
24 AF2 113 1.302
24 AF2 114 1.302
24 AF2 115 -0.163
24 AF2 116 -1.628
24 AF2 117 -3.092
24 AF2 118 -4.069
24 AF2 119 -3.581
24 AF2 120 -1.628
24 AF2 121 0.814
24 AF2 122 3.255
24 AF2 123 5.208
24 AF2 124 6.185
24 AF2 125 4.720
24 AF2 126 2.279
24 AF2 127 -1.628
24 AF2 128 -6.022
24 AF2 129 -8.952
24 AF2 130 -9.928
24 AF2 131 -8.464
24 AF2 132 -5.046
24 AF2 133 -0.651
24 AF2 134 2.767
24 AF2 135 4.720
24 AF2 136 4.232
24 AF2 137 1.302
24 AF2 138 -2.604
24 AF2 139 -6.999
24 AF2 140 -9.928
24 AF2 141 -11.393
24 AF2 142 -11.882
24 AF2 143 -11.393
24 AF2 144 -10.905
24 AF2 145 -8.952
24 AF2 146 -5.534
24 AF2 147 -1.139
24 AF2 148 3.255
24 AF2 149 6.185
24 AF2 150 6.673
24 AF2 151 3.743
24 AF2 152 -1.139
24 AF2 153 -6.510
24 AF2 154 -11.882
24 AF2 155 -16.276
24 AF2 156 -18.717
24 AF2 157 -18.229
24 AF2 158 -15.788
24 AF2 159 -11.393
24 AF2 160 -6.999
24 AF2 161 -3.092
24 AF2 162 -1.139
24 AF2 163 0.814
24 AF2 164 0.814
24 AF2 165 -0.163
24 AF2 166 -2.604
24 AF2 167 -5.534
24 AF2 168 -7.975
24 AF2 169 -8.952
24 AF2 170 -8.952
24 AF2 171 -8.464
24 AF2 172 -7.487
24 AF2 173 -7.487
24 AF2 174 -7.487
24 AF2 175 -7.487
24 AF2 176 -6.999
24 AF2 177 -5.046
24 AF2 178 -3.092
24 AF2 179 -1.139
24 AF2 180 0.326
24 AF2 181 1.790
24 AF2 182 2.279
24 AF2 183 1.790
24 AF2 184 0.326
24 AF2 185 -1.628
24 AF2 186 -3.092
24 AF2 187 -4.069
24 AF2 188 -4.069
24 AF2 189 -4.069
24 AF2 190 -5.534
24 AF2 191 -8.464
24 AF2 192 -13.346
24 AF2 193 -18.229
24 AF2 194 -23.112
24 AF2 195 -25.553
24 AF2 196 -25.065
24 AF2 197 -21.647
24 AF2 198 -15.788
24 AF2 199 -9.440
24 AF2 200 -5.046
24 AF2 201 -4.069
24 AF2 202 -6.510
24 AF2 203 -12.370
24 AF2 204 -18.229
24 AF2 205 -21.647
24 AF2 206 -22.135
24 AF2 207 -19.206
24 AF2 208 -15.299
24 AF2 209 -12.370
24 AF2 210 -11.393
24 AF2 211 -12.858
24 AF2 212 -14.811
24 AF2 213 -16.276
24 AF2 214 -17.253
24 AF2 215 -17.253
24 AF2 216 -17.253
24 AF2 217 -17.253
24 AF2 218 -16.764
24 AF2 219 -15.788
24 AF2 220 -13.835
24 AF2 221 -11.393
24 AF2 222 -9.928
24 AF2 223 -8.464
24 AF2 224 -7.487
24 AF2 225 -6.022
24 AF2 226 -4.069
24 AF2 227 -3.581
24 AF2 228 -4.069
24 AF2 229 -5.534
24 AF2 230 -6.999
24 AF2 231 -6.510
24 AF2 232 -4.069
24 AF2 233 -0.163
24 AF2 234 2.767
24 AF2 235 2.767
24 AF2 236 0.814
24 AF2 237 -2.116
24 AF2 238 -4.557
24 AF2 239 -4.069
24 AF2 240 -1.628
24 AF2 241 1.302
24 AF2 242 2.767
24 AF2 243 2.767
24 AF2 244 1.790
24 AF2 245 -0.163
24 AF2 246 -1.628
24 AF2 247 -2.116
24 AF2 248 -2.116
24 AF2 249 -2.604
24 AF2 250 -3.092
24 AF2 251 -4.069
24 AF2 252 -4.557
24 AF2 253 -3.092
24 AF2 254 -0.651
24 AF2 255 2.767
# FZ chan 6
24 FZ 0 3.621
24 FZ 1 3.621
24 FZ 2 3.621
24 FZ 3 3.133
24 FZ 4 2.645
24 FZ 5 1.180
24 FZ 6 -0.773
24 FZ 7 -2.238
24 FZ 8 -2.238
24 FZ 9 -0.773
24 FZ 10 0.692
24 FZ 11 1.668
24 FZ 12 1.668
24 FZ 13 2.157
24 FZ 14 3.621
24 FZ 15 5.086
24 FZ 16 6.063
24 FZ 17 4.598
24 FZ 18 0.692
24 FZ 19 -3.703
24 FZ 20 -6.632
24 FZ 21 -7.121
24 FZ 22 -5.656
24 FZ 23 -3.215
24 FZ 24 -1.261
24 FZ 25 -0.285
24 FZ 26 0.692
24 FZ 27 1.180
24 FZ 28 2.157
24 FZ 29 3.133
24 FZ 30 2.645
24 FZ 31 1.668
24 FZ 32 1.180
24 FZ 33 1.180
24 FZ 34 1.668
24 FZ 35 2.157
24 FZ 36 2.157
24 FZ 37 1.180
24 FZ 38 0.203
24 FZ 39 -0.773
24 FZ 40 -1.261
24 FZ 41 -2.238
24 FZ 42 -2.726
24 FZ 43 -3.215
24 FZ 44 -2.238
24 FZ 45 0.203
24 FZ 46 3.133
24 FZ 47 6.063
24 FZ 48 7.528
24 FZ 49 6.551
24 FZ 50 4.110
24 FZ 51 0.203
24 FZ 52 -4.191
24 FZ 53 -8.097
24 FZ 54 -10.050
24 FZ 55 -10.050
24 FZ 56 -7.121
24 FZ 57 -2.238
24 FZ 58 2.157
24 FZ 59 5.086
24 FZ 60 4.598
24 FZ 61 1.668
24 FZ 62 -1.750
24 FZ 63 -5.168
24 FZ 64 -6.144
24 FZ 65 -5.168
24 FZ 66 -3.215
24 FZ 67 -1.750
24 FZ 68 -1.261
24 FZ 69 -1.261
24 FZ 70 -3.215
24 FZ 71 -5.656
24 FZ 72 -8.097
24 FZ 73 -10.050
24 FZ 74 -9.562
24 FZ 75 -7.609
24 FZ 76 -4.191
24 FZ 77 -0.773
24 FZ 78 0.203
24 FZ 79 -0.773
24 FZ 80 -3.703
24 FZ 81 -7.609
24 FZ 82 -10.539
24 FZ 83 -12.004
24 FZ 84 -12.004
24 FZ 85 -10.539
24 FZ 86 -8.097
24 FZ 87 -5.656
24 FZ 88 -2.726
24 FZ 89 -0.773
24 FZ 90 1.668
24 FZ 91 4.598
24 FZ 92 7.528
24 FZ 93 8.993
24 FZ 94 8.993
24 FZ 95 7.039
24 FZ 96 3.621
24 FZ 97 -0.285
24 FZ 98 -2.726
24 FZ 99 -3.703
24 FZ 100 -2.726
24 FZ 101 -1.261
24 FZ 102 -0.285
24 FZ 103 0.203
24 FZ 104 -0.773
24 FZ 105 -1.750
24 FZ 106 -1.750
24 FZ 107 -1.261
24 FZ 108 0.203
24 FZ 109 1.180
24 FZ 110 2.157
24 FZ 111 2.645
24 FZ 112 2.645
24 FZ 113 3.133
24 FZ 114 3.133
24 FZ 115 3.133
24 FZ 116 2.157
24 FZ 117 0.203
24 FZ 118 -1.750
24 FZ 119 -3.215
24 FZ 120 -3.703
24 FZ 121 -2.726
24 FZ 122 0.203
24 FZ 123 3.133
24 FZ 124 5.575
24 FZ 125 6.063
24 FZ 126 4.110
24 FZ 127 0.692
24 FZ 128 -3.703
24 FZ 129 -7.121
24 FZ 130 -8.586
24 FZ 131 -8.097
24 FZ 132 -6.144
24 FZ 133 -2.726
24 FZ 134 1.668
24 FZ 135 5.086
24 FZ 136 6.551
24 FZ 137 5.575
24 FZ 138 2.645
24 FZ 139 -1.261
24 FZ 140 -4.679
24 FZ 141 -6.632
24 FZ 142 -7.609
24 FZ 143 -7.609
24 FZ 144 -7.609
24 FZ 145 -6.632
24 FZ 146 -4.679
24 FZ 147 -1.261
24 FZ 148 2.157
24 FZ 149 4.598
24 FZ 150 5.086
24 FZ 151 2.645
24 FZ 152 -0.773
24 FZ 153 -4.679
24 FZ 154 -8.586
24 FZ 155 -11.515
24 FZ 156 -13.468
24 FZ 157 -14.445
24 FZ 158 -13.468
24 FZ 159 -10.050
24 FZ 160 -6.144
24 FZ 161 -2.238
24 FZ 162 0.203
24 FZ 163 0.692
24 FZ 164 -0.773
24 FZ 165 -2.726
24 FZ 166 -5.168
24 FZ 167 -7.609
24 FZ 168 -8.097
24 FZ 169 -8.097
24 FZ 170 -7.609
24 FZ 171 -7.121
24 FZ 172 -7.609
24 FZ 173 -9.074
24 FZ 174 -11.027
24 FZ 175 -11.515
24 FZ 176 -11.027
24 FZ 177 -8.097
24 FZ 178 -4.191
24 FZ 179 -0.773
24 FZ 180 2.157
24 FZ 181 4.110
24 FZ 182 5.086
24 FZ 183 5.086
24 FZ 184 4.110
24 FZ 185 2.157
24 FZ 186 -0.285
24 FZ 187 -2.726
24 FZ 188 -5.168
24 FZ 189 -6.632
24 FZ 190 -7.609
24 FZ 191 -9.074
24 FZ 192 -11.027
24 FZ 193 -12.980
24 FZ 194 -14.445
24 FZ 195 -15.422
24 FZ 196 -14.933
24 FZ 197 -12.980
24 FZ 198 -9.562
24 FZ 199 -6.144
24 FZ 200 -4.191
24 FZ 201 -4.191
24 FZ 202 -6.632
24 FZ 203 -10.539
24 FZ 204 -13.468
24 FZ 205 -14.933
24 FZ 206 -14.445
24 FZ 207 -12.492
24 FZ 208 -10.539
24 FZ 209 -9.074
24 FZ 210 -9.074
24 FZ 211 -9.562
24 FZ 212 -10.539
24 FZ 213 -11.515
24 FZ 214 -12.492
24 FZ 215 -13.468
24 FZ 216 -13.957
24 FZ 217 -13.957
24 FZ 218 -13.468
24 FZ 219 -12.492
24 FZ 220 -11.515
24 FZ 221 -10.050
24 FZ 222 -8.586
24 FZ 223 -7.121
24 FZ 224 -5.168
24 FZ 225 -3.215
24 FZ 226 -2.238
24 FZ 227 -2.238
24 FZ 228 -4.191
24 FZ 229 -6.632
24 FZ 230 -8.586
24 FZ 231 -8.586
24 FZ 232 -7.121
24 FZ 233 -4.191
24 FZ 234 -0.773
24 FZ 235 0.203
24 FZ 236 -0.285
24 FZ 237 -1.750
24 FZ 238 -3.703
24 FZ 239 -4.191
24 FZ 240 -3.703
24 FZ 241 -2.726
24 FZ 242 -2.238
24 FZ 243 -2.726
24 FZ 244 -2.726
24 FZ 245 -3.215
24 FZ 246 -3.215
24 FZ 247 -2.726
24 FZ 248 -2.726
24 FZ 249 -3.703
24 FZ 250 -5.168
24 FZ 251 -6.632
24 FZ 252 -7.609
24 FZ 253 -6.632
24 FZ 254 -4.191
24 FZ 255 -0.285
# F4 chan 7
24 F4 0 3.337
24 F4 1 1.383
24 F4 2 -0.081
24 F4 3 -0.081
24 F4 4 1.383
24 F4 5 2.360
24 F4 6 2.360
24 F4 7 1.872
24 F4 8 0.407
24 F4 9 -1.058
24 F4 10 -1.546
24 F4 11 -1.546
24 F4 12 -1.058
24 F4 13 0.407
24 F4 14 2.360
24 F4 15 4.313
24 F4 16 4.801
24 F4 17 3.825
24 F4 18 0.895
24 F4 19 -2.523
24 F4 20 -4.964
24 F4 21 -5.941
24 F4 22 -4.964
24 F4 23 -3.011
24 F4 24 -1.546
24 F4 25 -0.081
24 F4 26 0.895
24 F4 27 1.872
24 F4 28 3.337
24 F4 29 4.313
24 F4 30 4.313
24 F4 31 3.337
24 F4 32 1.872
24 F4 33 0.895
24 F4 34 0.895
24 F4 35 1.383
24 F4 36 1.872
24 F4 37 1.872
24 F4 38 1.383
24 F4 39 -0.081
24 F4 40 -1.058
24 F4 41 -1.546
24 F4 42 -1.546
24 F4 43 -0.570
24 F4 44 1.383
24 F4 45 3.825
24 F4 46 6.755
24 F4 47 8.708
24 F4 48 8.708
24 F4 49 6.755
24 F4 50 2.848
24 F4 51 -1.546
24 F4 52 -4.964
24 F4 53 -6.429
24 F4 54 -5.941
24 F4 55 -3.499
24 F4 56 0.407
24 F4 57 4.801
24 F4 58 7.731
24 F4 59 9.196
24 F4 60 7.731
24 F4 61 3.825
24 F4 62 -0.570
24 F4 63 -3.499
24 F4 64 -3.988
24 F4 65 -2.523
24 F4 66 0.407
24 F4 67 2.360
24 F4 68 2.848
24 F4 69 1.383
24 F4 70 -2.035
24 F4 71 -6.429
24 F4 72 -9.847
24 F4 73 -11.312
24 F4 74 -9.847
24 F4 75 -4.964
24 F4 76 0.895
24 F4 77 5.290
24 F4 78 5.778
24 F4 79 3.825
24 F4 80 0.895
24 F4 81 -2.035
24 F4 82 -4.476
24 F4 83 -6.429
24 F4 84 -7.406
24 F4 85 -8.382
24 F4 86 -7.406
24 F4 87 -4.964
24 F4 88 -1.058
24 F4 89 3.337
24 F4 90 5.778
24 F4 91 7.243
24 F4 92 7.243
24 F4 93 6.755
24 F4 94 6.266
24 F4 95 4.801
24 F4 96 2.848
24 F4 97 1.383
24 F4 98 -0.081
24 F4 99 0.407
24 F4 100 0.895
24 F4 101 1.383
24 F4 102 0.407
24 F4 103 -1.546
24 F4 104 -3.499
24 F4 105 -4.476
24 F4 106 -3.499
24 F4 107 -1.546
24 F4 108 1.383
24 F4 109 3.337
24 F4 110 4.801
24 F4 111 5.290
24 F4 112 5.290
24 F4 113 5.290
24 F4 114 3.825
24 F4 115 2.360
24 F4 116 0.407
24 F4 117 -1.058
24 F4 118 -1.058
24 F4 119 -0.570
24 F4 120 1.383
24 F4 121 3.825
24 F4 122 6.266
24 F4 123 7.243
24 F4 124 7.731
24 F4 125 5.290
24 F4 126 1.872
24 F4 127 -3.011
24 F4 128 -6.917
24 F4 129 -8.870
24 F4 130 -8.870
24 F4 131 -6.429
24 F4 132 -2.035
24 F4 133 2.848
24 F4 134 6.755
24 F4 135 8.708
24 F4 136 8.219
24 F4 137 5.290
24 F4 138 0.407
24 F4 139 -3.988
24 F4 140 -6.429
24 F4 141 -7.406
24 F4 142 -7.406
24 F4 143 -7.894
24 F4 144 -7.406
24 F4 145 -6.429
24 F4 146 -3.988
24 F4 147 0.407
24 F4 148 4.801
24 F4 149 7.731
24 F4 150 7.731
24 F4 151 4.801
24 F4 152 -0.081
24 F4 153 -6.429
24 F4 154 -11.800
24 F4 155 -15.218
24 F4 156 -16.195
24 F4 157 -14.242
24 F4 158 -9.847
24 F4 159 -5.452
24 F4 160 -1.058
24 F4 161 1.872
24 F4 162 3.825
24 F4 163 4.801
24 F4 164 4.801
24 F4 165 2.848
24 F4 166 -0.570
24 F4 167 -4.964
24 F4 168 -8.870
24 F4 169 -10.335
24 F4 170 -8.870
24 F4 171 -6.429
24 F4 172 -3.499
24 F4 173 -2.035
24 F4 174 -2.523
24 F4 175 -3.499
24 F4 176 -4.476
24 F4 177 -4.476
24 F4 178 -3.988
24 F4 179 -3.011
24 F4 180 -1.546
24 F4 181 0.407
24 F4 182 2.848
24 F4 183 4.313
24 F4 184 3.825
24 F4 185 2.360
24 F4 186 0.407
24 F4 187 -0.570
24 F4 188 -1.058
24 F4 189 -1.058
24 F4 190 -2.035
24 F4 191 -4.964
24 F4 192 -8.870
24 F4 193 -13.753
24 F4 194 -17.660
24 F4 195 -19.613
24 F4 196 -20.101
24 F4 197 -17.660
24 F4 198 -13.265
24 F4 199 -8.382
24 F4 200 -3.499
24 F4 201 -1.058
24 F4 202 -2.523
24 F4 203 -6.429
24 F4 204 -11.312
24 F4 205 -15.218
24 F4 206 -16.195
24 F4 207 -13.265
24 F4 208 -9.359
24 F4 209 -6.429
24 F4 210 -6.429
24 F4 211 -7.894
24 F4 212 -10.335
24 F4 213 -11.800
24 F4 214 -11.312
24 F4 215 -10.335
24 F4 216 -9.847
24 F4 217 -9.847
24 F4 218 -10.335
24 F4 219 -9.847
24 F4 220 -8.870
24 F4 221 -7.406
24 F4 222 -5.941
24 F4 223 -3.988
24 F4 224 -2.523
24 F4 225 -0.570
24 F4 226 0.895
24 F4 227 1.383
24 F4 228 0.407
24 F4 229 -2.035
24 F4 230 -4.476
24 F4 231 -4.964
24 F4 232 -2.523
24 F4 233 1.872
24 F4 234 5.290
24 F4 235 6.266
24 F4 236 4.801
24 F4 237 1.872
24 F4 238 -0.081
24 F4 239 -0.081
24 F4 240 0.895
24 F4 241 3.337
24 F4 242 4.801
24 F4 243 5.290
24 F4 244 4.801
24 F4 245 3.825
24 F4 246 2.848
24 F4 247 1.383
24 F4 248 0.407
24 F4 249 -1.058
24 F4 250 -1.546
24 F4 251 -2.035
24 F4 252 -1.058
24 F4 253 0.895
24 F4 254 3.825
24 F4 255 6.755
# F3 chan 8
24 F3 0 -1.556
24 F3 1 -3.998
24 F3 2 -5.463
24 F3 3 -5.951
24 F3 4 -4.974
24 F3 5 -3.021
24 F3 6 -1.556
24 F3 7 0.397
24 F3 8 1.862
24 F3 9 2.838
24 F3 10 2.838
24 F3 11 0.885
24 F3 12 -1.068
24 F3 13 -3.021
24 F3 14 -3.510
24 F3 15 -2.533
24 F3 16 -1.556
24 F3 17 -1.556
24 F3 18 -1.556
24 F3 19 -1.068
24 F3 20 1.373
24 F3 21 4.303
24 F3 22 6.256
24 F3 23 4.791
24 F3 24 0.885
24 F3 25 -4.486
24 F3 26 -7.904
24 F3 27 -7.416
24 F3 28 -4.486
24 F3 29 0.397
24 F3 30 3.326
24 F3 31 4.791
24 F3 32 4.791
24 F3 33 4.791
24 F3 34 4.791
24 F3 35 4.791
24 F3 36 2.838
24 F3 37 0.397
24 F3 38 -3.021
24 F3 39 -4.486
24 F3 40 -4.486
24 F3 41 -3.021
24 F3 42 -0.580
24 F3 43 0.885
24 F3 44 0.885
24 F3 45 0.885
24 F3 46 0.397
24 F3 47 0.885
24 F3 48 1.373
24 F3 49 1.373
24 F3 50 0.885
24 F3 51 -0.580
24 F3 52 -3.021
24 F3 53 -6.439
24 F3 54 -9.857
24 F3 55 -11.810
24 F3 56 -11.322
24 F3 57 -7.904
24 F3 58 -3.998
24 F3 59 -0.092
24 F3 60 1.373
24 F3 61 0.397
24 F3 62 -1.556
24 F3 63 -2.533
24 F3 64 -2.045
24 F3 65 -0.092
24 F3 66 1.373
24 F3 67 0.885
24 F3 68 -2.533
24 F3 69 -5.951
24 F3 70 -8.881
24 F3 71 -9.857
24 F3 72 -9.369
24 F3 73 -6.927
24 F3 74 -3.998
24 F3 75 -2.045
24 F3 76 -1.068
24 F3 77 -1.068
24 F3 78 -2.045
24 F3 79 -4.486
24 F3 80 -7.904
24 F3 81 -11.810
24 F3 82 -14.740
24 F3 83 -15.717
24 F3 84 -13.763
24 F3 85 -10.345
24 F3 86 -6.439
24 F3 87 -3.510
24 F3 88 -1.556
24 F3 89 -0.092
24 F3 90 2.350
24 F3 91 5.768
24 F3 92 8.698
24 F3 93 10.162
24 F3 94 9.186
24 F3 95 5.768
24 F3 96 0.885
24 F3 97 -3.998
24 F3 98 -7.416
24 F3 99 -8.881
24 F3 100 -8.392
24 F3 101 -5.951
24 F3 102 -3.021
24 F3 103 -1.068
24 F3 104 -0.580
24 F3 105 -1.068
24 F3 106 -2.045
24 F3 107 -2.533
24 F3 108 -2.045
24 F3 109 -1.556
24 F3 110 -1.556
24 F3 111 -2.533
24 F3 112 -3.998
24 F3 113 -3.998
24 F3 114 -2.533
24 F3 115 -0.580
24 F3 116 0.397
24 F3 117 -0.092
24 F3 118 -2.533
24 F3 119 -4.974
24 F3 120 -5.463
24 F3 121 -3.510
24 F3 122 -0.580
24 F3 123 2.350
24 F3 124 3.815
24 F3 125 2.838
24 F3 126 0.885
24 F3 127 -0.092
24 F3 128 -1.068
24 F3 129 -1.556
24 F3 130 -3.021
24 F3 131 -4.974
24 F3 132 -6.439
24 F3 133 -5.463
24 F3 134 -2.533
24 F3 135 2.350
24 F3 136 5.280
24 F3 137 5.768
24 F3 138 3.326
24 F3 139 -0.580
24 F3 140 -3.998
24 F3 141 -5.951
24 F3 142 -6.927
24 F3 143 -7.904
24 F3 144 -9.369
24 F3 145 -9.369
24 F3 146 -7.416
24 F3 147 -3.510
24 F3 148 0.885
24 F3 149 3.326
24 F3 150 2.838
24 F3 151 0.885
24 F3 152 -1.068
24 F3 153 -3.021
24 F3 154 -3.998
24 F3 155 -5.463
24 F3 156 -7.416
24 F3 157 -9.369
24 F3 158 -10.834
24 F3 159 -10.834
24 F3 160 -8.881
24 F3 161 -6.439
24 F3 162 -3.998
24 F3 163 -3.021
24 F3 164 -2.533
24 F3 165 -2.533
24 F3 166 -2.533
24 F3 167 -2.533
24 F3 168 -3.021
24 F3 169 -3.998
24 F3 170 -5.951
24 F3 171 -7.904
24 F3 172 -9.857
24 F3 173 -10.834
24 F3 174 -10.834
24 F3 175 -8.881
24 F3 176 -6.439
24 F3 177 -3.510
24 F3 178 -0.580
24 F3 179 1.373
24 F3 180 2.350
24 F3 181 2.350
24 F3 182 1.862
24 F3 183 -0.092
24 F3 184 -2.533
24 F3 185 -5.463
24 F3 186 -8.392
24 F3 187 -9.857
24 F3 188 -9.857
24 F3 189 -9.369
24 F3 190 -7.904
24 F3 191 -7.904
24 F3 192 -8.881
24 F3 193 -10.345
24 F3 194 -12.787
24 F3 195 -13.763
24 F3 196 -13.763
24 F3 197 -11.810
24 F3 198 -7.904
24 F3 199 -5.463
24 F3 200 -4.486
24 F3 201 -6.439
24 F3 202 -9.857
24 F3 203 -13.275
24 F3 204 -15.228
24 F3 205 -15.228
24 F3 206 -13.763
24 F3 207 -12.299
24 F3 208 -10.834
24 F3 209 -9.857
24 F3 210 -9.369
24 F3 211 -9.857
24 F3 212 -11.810
24 F3 213 -13.763
24 F3 214 -17.181
24 F3 215 -19.135
24 F3 216 -20.111
24 F3 217 -19.623
24 F3 218 -17.670
24 F3 219 -15.717
24 F3 220 -13.275
24 F3 221 -10.345
24 F3 222 -7.904
24 F3 223 -5.951
24 F3 224 -5.463
24 F3 225 -5.951
24 F3 226 -8.392
24 F3 227 -10.834
24 F3 228 -12.299
24 F3 229 -11.810
24 F3 230 -9.369
24 F3 231 -5.951
24 F3 232 -2.045
24 F3 233 0.885
24 F3 234 1.862
24 F3 235 1.862
24 F3 236 0.397
24 F3 237 -1.068
24 F3 238 -2.533
24 F3 239 -3.510
24 F3 240 -3.998
24 F3 241 -3.021
24 F3 242 -2.045
24 F3 243 -1.068
24 F3 244 -0.580
24 F3 245 -1.556
24 F3 246 -2.533
24 F3 247 -3.510
24 F3 248 -3.510
24 F3 249 -3.510
24 F3 250 -3.510
24 F3 251 -4.974
24 F3 252 -6.927
24 F3 253 -7.904
24 F3 254 -7.904
24 F3 255 -5.463
# FC6 chan 9
24 FC6 0 5.046
24 FC6 1 -0.814
24 FC6 2 -5.208
24 FC6 3 -6.185
24 FC6 4 -4.232
24 FC6 5 -0.814
24 FC6 6 2.604
24 FC6 7 4.069
24 FC6 8 4.557
24 FC6 9 3.581
24 FC6 10 1.628
24 FC6 11 -0.814
24 FC6 12 -2.767
24 FC6 13 -3.743
24 FC6 14 -3.255
24 FC6 15 -0.326
24 FC6 16 3.092
24 FC6 17 4.557
24 FC6 18 3.092
24 FC6 19 0.163
24 FC6 20 -2.279
24 FC6 21 -3.255
24 FC6 22 -1.790
24 FC6 23 -0.326
24 FC6 24 0.651
24 FC6 25 -0.814
24 FC6 26 -2.767
24 FC6 27 -3.255
24 FC6 28 -1.302
24 FC6 29 2.604
24 FC6 30 5.534
24 FC6 31 6.022
24 FC6 32 3.092
24 FC6 33 -0.814
24 FC6 34 -5.208
24 FC6 35 -6.673
24 FC6 36 -5.208
24 FC6 37 -2.279
24 FC6 38 1.139
24 FC6 39 2.604
24 FC6 40 2.604
24 FC6 41 1.628
24 FC6 42 0.651
24 FC6 43 0.651
24 FC6 44 2.604
24 FC6 45 5.046
24 FC6 46 6.510
24 FC6 47 6.510
24 FC6 48 4.069
24 FC6 49 -0.814
24 FC6 50 -4.720
24 FC6 51 -6.673
24 FC6 52 -6.185
24 FC6 53 -3.255
24 FC6 54 -0.326
24 FC6 55 2.604
24 FC6 56 4.069
24 FC6 57 4.557
24 FC6 58 5.534
24 FC6 59 6.022
24 FC6 60 6.022
24 FC6 61 5.534
24 FC6 62 4.557
24 FC6 63 3.092
24 FC6 64 1.139
24 FC6 65 -0.326
24 FC6 66 -1.790
24 FC6 67 -2.279
24 FC6 68 -1.790
24 FC6 69 -1.302
24 FC6 70 -1.790
24 FC6 71 -4.720
24 FC6 72 -8.138
24 FC6 73 -10.091
24 FC6 74 -8.626
24 FC6 75 -3.255
24 FC6 76 2.116
24 FC6 77 5.046
24 FC6 78 4.069
24 FC6 79 1.139
24 FC6 80 -1.790
24 FC6 81 -2.279
24 FC6 82 -1.790
24 FC6 83 -1.790
24 FC6 84 -3.743
24 FC6 85 -6.673
24 FC6 86 -8.138
24 FC6 87 -6.673
24 FC6 88 -2.767
24 FC6 89 1.139
24 FC6 90 3.092
24 FC6 91 3.092
24 FC6 92 1.628
24 FC6 93 -0.326
24 FC6 94 -1.790
24 FC6 95 -2.767
24 FC6 96 -4.232
24 FC6 97 -5.208
24 FC6 98 -5.208
24 FC6 99 -3.743
24 FC6 100 -2.279
24 FC6 101 -1.790
24 FC6 102 -3.743
24 FC6 103 -7.161
24 FC6 104 -9.603
24 FC6 105 -9.603
24 FC6 106 -7.161
24 FC6 107 -2.767
24 FC6 108 0.651
24 FC6 109 2.116
24 FC6 110 1.628
24 FC6 111 0.651
24 FC6 112 0.163
24 FC6 113 0.163
24 FC6 114 0.651
24 FC6 115 0.163
24 FC6 116 -0.814
24 FC6 117 -2.279
24 FC6 118 -3.255
24 FC6 119 -2.767
24 FC6 120 -0.814
24 FC6 121 2.116
24 FC6 122 4.557
24 FC6 123 5.534
24 FC6 124 4.069
24 FC6 125 0.163
24 FC6 126 -3.743
24 FC6 127 -7.650
24 FC6 128 -9.603
24 FC6 129 -10.579
24 FC6 130 -10.091
24 FC6 131 -7.650
24 FC6 132 -3.255
24 FC6 133 2.116
24 FC6 134 6.022
24 FC6 135 6.510
24 FC6 136 4.069
24 FC6 137 -1.302
24 FC6 138 -6.673
24 FC6 139 -9.603
24 FC6 140 -9.115
24 FC6 141 -6.185
24 FC6 142 -3.743
24 FC6 143 -3.255
24 FC6 144 -4.232
24 FC6 145 -5.697
24 FC6 146 -4.720
24 FC6 147 -1.790
24 FC6 148 2.116
24 FC6 149 5.046
24 FC6 150 4.557
24 FC6 151 1.139
24 FC6 152 -3.743
24 FC6 153 -8.138
24 FC6 154 -11.068
24 FC6 155 -11.068
24 FC6 156 -8.626
24 FC6 157 -5.208
24 FC6 158 -1.790
24 FC6 159 0.163
24 FC6 160 1.139
24 FC6 161 1.139
24 FC6 162 2.604
24 FC6 163 4.557
24 FC6 164 6.510
24 FC6 165 6.022
24 FC6 166 2.116
24 FC6 167 -3.255
24 FC6 168 -7.650
24 FC6 169 -8.138
24 FC6 170 -4.232
24 FC6 171 0.651
24 FC6 172 5.046
24 FC6 173 6.510
24 FC6 174 5.534
24 FC6 175 2.604
24 FC6 176 -0.326
24 FC6 177 -2.279
24 FC6 178 -3.743
24 FC6 179 -4.720
24 FC6 180 -4.232
24 FC6 181 -3.255
24 FC6 182 -1.302
24 FC6 183 -1.302
24 FC6 184 -2.767
24 FC6 185 -4.720
24 FC6 186 -6.185
24 FC6 187 -6.185
24 FC6 188 -4.720
24 FC6 189 -4.232
24 FC6 190 -4.720
24 FC6 191 -6.673
24 FC6 192 -9.603
24 FC6 193 -11.556
24 FC6 194 -13.509
24 FC6 195 -14.974
24 FC6 196 -15.951
24 FC6 197 -15.951
24 FC6 198 -13.997
24 FC6 199 -11.068
24 FC6 200 -7.650
24 FC6 201 -5.697
24 FC6 202 -6.673
24 FC6 203 -10.091
24 FC6 204 -14.486
24 FC6 205 -18.392
24 FC6 206 -18.392
24 FC6 207 -14.486
24 FC6 208 -9.603
24 FC6 209 -6.185
24 FC6 210 -6.673
24 FC6 211 -9.603
24 FC6 212 -13.021
24 FC6 213 -14.486
24 FC6 214 -13.021
24 FC6 215 -10.091
24 FC6 216 -7.161
24 FC6 217 -5.697
24 FC6 218 -6.673
24 FC6 219 -7.161
24 FC6 220 -6.673
24 FC6 221 -4.720
24 FC6 222 -2.767
24 FC6 223 -1.790
24 FC6 224 -1.790
24 FC6 225 -2.279
24 FC6 226 -2.279
24 FC6 227 -1.790
24 FC6 228 -1.302
24 FC6 229 -1.302
24 FC6 230 -2.767
24 FC6 231 -2.767
24 FC6 232 -1.302
24 FC6 233 2.604
24 FC6 234 6.999
24 FC6 235 9.440
24 FC6 236 7.487
24 FC6 237 3.092
24 FC6 238 -1.302
24 FC6 239 -3.255
24 FC6 240 -1.302
24 FC6 241 3.092
24 FC6 242 7.487
24 FC6 243 8.952
24 FC6 244 7.975
24 FC6 245 5.534
24 FC6 246 2.604
24 FC6 247 0.163
24 FC6 248 -0.814
24 FC6 249 -0.814
24 FC6 250 -0.326
24 FC6 251 0.651
24 FC6 252 2.604
24 FC6 253 4.557
24 FC6 254 6.510
24 FC6 255 6.999
# FC5 chan 10
24 FC5 0 -4.038
24 FC5 1 -7.945
24 FC5 2 -9.898
24 FC5 3 -8.921
24 FC5 4 -5.503
24 FC5 5 -2.085
24 FC5 6 0.844
24 FC5 7 2.797
24 FC5 8 3.774
24 FC5 9 4.262
24 FC5 10 4.262
24 FC5 11 2.309
24 FC5 12 -1.109
24 FC5 13 -4.038
24 FC5 14 -5.992
24 FC5 15 -5.503
24 FC5 16 -4.038
24 FC5 17 -1.597
24 FC5 18 0.356
24 FC5 19 2.309
24 FC5 20 5.239
24 FC5 21 8.169
24 FC5 22 10.122
24 FC5 23 9.145
24 FC5 24 5.239
24 FC5 25 -0.132
24 FC5 26 -5.015
24 FC5 27 -6.968
24 FC5 28 -5.992
24 FC5 29 -3.062
24 FC5 30 0.356
24 FC5 31 3.286
24 FC5 32 6.215
24 FC5 33 8.657
24 FC5 34 10.122
24 FC5 35 9.145
24 FC5 36 5.727
24 FC5 37 0.844
24 FC5 38 -3.550
24 FC5 39 -4.527
24 FC5 40 -3.062
24 FC5 41 1.333
24 FC5 42 4.262
24 FC5 43 5.239
24 FC5 44 4.262
24 FC5 45 2.309
24 FC5 46 -0.621
24 FC5 47 -2.085
24 FC5 48 -3.062
24 FC5 49 -3.550
24 FC5 50 -3.062
24 FC5 51 -2.574
24 FC5 52 -2.574
24 FC5 53 -3.550
24 FC5 54 -5.503
24 FC5 55 -7.945
24 FC5 56 -8.921
24 FC5 57 -8.433
24 FC5 58 -6.968
24 FC5 59 -5.503
24 FC5 60 -3.550
24 FC5 61 -2.574
24 FC5 62 -0.621
24 FC5 63 2.309
24 FC5 64 6.215
24 FC5 65 10.122
24 FC5 66 11.587
24 FC5 67 8.657
24 FC5 68 1.821
24 FC5 69 -6.480
24 FC5 70 -12.828
24 FC5 71 -14.292
24 FC5 72 -10.874
24 FC5 73 -4.527
24 FC5 74 0.356
24 FC5 75 2.309
24 FC5 76 0.844
24 FC5 77 -1.597
24 FC5 78 -4.038
24 FC5 79 -4.527
24 FC5 80 -5.015
24 FC5 81 -6.968
24 FC5 82 -10.386
24 FC5 83 -12.339
24 FC5 84 -12.339
24 FC5 85 -9.898
24 FC5 86 -5.992
24 FC5 87 -3.062
24 FC5 88 -2.085
24 FC5 89 -1.109
24 FC5 90 -0.132
24 FC5 91 2.309
24 FC5 92 4.262
24 FC5 93 4.751
24 FC5 94 1.821
24 FC5 95 -3.062
24 FC5 96 -8.433
24 FC5 97 -12.339
24 FC5 98 -13.804
24 FC5 99 -12.339
24 FC5 100 -9.410
24 FC5 101 -5.503
24 FC5 102 -3.062
24 FC5 103 -2.085
24 FC5 104 -3.062
24 FC5 105 -4.038
24 FC5 106 -4.527
24 FC5 107 -3.550
24 FC5 108 -1.597
24 FC5 109 -0.132
24 FC5 110 -1.109
24 FC5 111 -4.527
24 FC5 112 -8.433
24 FC5 113 -10.874
24 FC5 114 -10.386
24 FC5 115 -6.968
24 FC5 116 -4.038
24 FC5 117 -3.062
24 FC5 118 -4.038
24 FC5 119 -5.992
24 FC5 120 -6.968
24 FC5 121 -5.503
24 FC5 122 -3.062
24 FC5 123 -1.597
24 FC5 124 -2.085
24 FC5 125 -3.550
24 FC5 126 -3.062
24 FC5 127 -1.109
24 FC5 128 2.797
24 FC5 129 4.262
24 FC5 130 2.797
24 FC5 131 -2.085
24 FC5 132 -6.968
24 FC5 133 -8.433
24 FC5 134 -5.503
24 FC5 135 0.356
24 FC5 136 5.239
24 FC5 137 6.704
24 FC5 138 4.751
24 FC5 139 1.333
24 FC5 140 -1.597
24 FC5 141 -4.527
24 FC5 142 -7.945
24 FC5 143 -11.363
24 FC5 144 -14.781
24 FC5 145 -15.269
24 FC5 146 -12.828
24 FC5 147 -8.433
24 FC5 148 -4.038
24 FC5 149 -2.085
24 FC5 150 -2.574
24 FC5 151 -3.550
24 FC5 152 -3.550
24 FC5 153 -2.574
24 FC5 154 -1.597
24 FC5 155 -2.085
24 FC5 156 -3.550
24 FC5 157 -5.992
24 FC5 158 -7.456
24 FC5 159 -7.456
24 FC5 160 -6.480
24 FC5 161 -5.992
24 FC5 162 -5.015
24 FC5 163 -4.038
24 FC5 164 -2.085
24 FC5 165 1.333
24 FC5 166 4.751
24 FC5 167 5.727
24 FC5 168 4.751
24 FC5 169 1.333
24 FC5 170 -3.062
24 FC5 171 -5.992
24 FC5 172 -7.945
24 FC5 173 -6.968
24 FC5 174 -5.015
24 FC5 175 -3.062
24 FC5 176 -0.621
24 FC5 177 0.356
24 FC5 178 1.333
24 FC5 179 2.309
24 FC5 180 3.286
24 FC5 181 3.774
24 FC5 182 2.797
24 FC5 183 0.356
24 FC5 184 -2.574
24 FC5 185 -5.503
24 FC5 186 -6.968
24 FC5 187 -6.480
24 FC5 188 -5.503
24 FC5 189 -3.550
24 FC5 190 -2.085
24 FC5 191 -1.109
24 FC5 192 -2.085
24 FC5 193 -4.038
24 FC5 194 -7.456
24 FC5 195 -9.898
24 FC5 196 -10.386
24 FC5 197 -8.433
24 FC5 198 -5.015
24 FC5 199 -2.574
24 FC5 200 -3.550
24 FC5 201 -7.456
24 FC5 202 -11.363
24 FC5 203 -12.828
24 FC5 204 -11.363
24 FC5 205 -8.433
24 FC5 206 -5.992
24 FC5 207 -5.503
24 FC5 208 -5.992
24 FC5 209 -5.992
24 FC5 210 -4.527
24 FC5 211 -4.527
24 FC5 212 -6.480
24 FC5 213 -11.851
24 FC5 214 -17.222
24 FC5 215 -19.663
24 FC5 216 -18.687
24 FC5 217 -14.781
24 FC5 218 -10.874
24 FC5 219 -8.921
24 FC5 220 -7.945
24 FC5 221 -6.480
24 FC5 222 -3.062
24 FC5 223 0.356
24 FC5 224 0.844
24 FC5 225 -3.062
24 FC5 226 -10.386
24 FC5 227 -16.246
24 FC5 228 -17.222
24 FC5 229 -11.851
24 FC5 230 -4.038
24 FC5 231 3.286
24 FC5 232 6.215
24 FC5 233 6.215
24 FC5 234 4.262
24 FC5 235 2.797
24 FC5 236 2.797
24 FC5 237 2.797
24 FC5 238 1.333
24 FC5 239 -1.109
24 FC5 240 -2.574
24 FC5 241 -1.597
24 FC5 242 1.821
24 FC5 243 5.239
24 FC5 244 6.704
24 FC5 245 6.215
24 FC5 246 4.262
24 FC5 247 2.797
24 FC5 248 2.797
24 FC5 249 3.286
24 FC5 250 2.797
24 FC5 251 1.333
24 FC5 252 -1.597
24 FC5 253 -3.550
24 FC5 254 -3.550
24 FC5 255 -2.085
# FC2 chan 11
24 FC2 0 4.262
24 FC2 1 3.774
24 FC2 2 2.797
24 FC2 3 2.309
24 FC2 4 1.821
24 FC2 5 0.844
24 FC2 6 -0.132
24 FC2 7 -0.621
24 FC2 8 -1.597
24 FC2 9 -1.109
24 FC2 10 -0.132
24 FC2 11 0.844
24 FC2 12 1.821
24 FC2 13 2.309
24 FC2 14 3.774
24 FC2 15 4.262
24 FC2 16 4.751
24 FC2 17 3.774
24 FC2 18 1.821
24 FC2 19 -1.109
24 FC2 20 -3.550
24 FC2 21 -5.015
24 FC2 22 -5.015
24 FC2 23 -3.062
24 FC2 24 -1.109
24 FC2 25 1.333
24 FC2 26 2.797
24 FC2 27 3.774
24 FC2 28 4.262
24 FC2 29 4.262
24 FC2 30 3.286
24 FC2 31 1.333
24 FC2 32 -0.132
24 FC2 33 -1.597
24 FC2 34 -2.085
24 FC2 35 -1.109
24 FC2 36 -0.132
24 FC2 37 0.844
24 FC2 38 0.844
24 FC2 39 0.844
24 FC2 40 0.356
24 FC2 41 -0.132
24 FC2 42 -0.621
24 FC2 43 -0.621
24 FC2 44 0.356
24 FC2 45 1.333
24 FC2 46 2.797
24 FC2 47 4.262
24 FC2 48 4.262
24 FC2 49 3.286
24 FC2 50 1.333
24 FC2 51 -1.109
24 FC2 52 -2.085
24 FC2 53 -3.062
24 FC2 54 -2.574
24 FC2 55 -1.597
24 FC2 56 0.356
24 FC2 57 2.309
24 FC2 58 3.286
24 FC2 59 4.262
24 FC2 60 4.262
24 FC2 61 2.797
24 FC2 62 1.333
24 FC2 63 -0.132
24 FC2 64 -1.109
24 FC2 65 -1.109
24 FC2 66 -0.621
24 FC2 67 0.356
24 FC2 68 0.844
24 FC2 69 0.844
24 FC2 70 -0.621
24 FC2 71 -2.574
24 FC2 72 -4.527
24 FC2 73 -5.503
24 FC2 74 -5.015
24 FC2 75 -2.574
24 FC2 76 0.356
24 FC2 77 2.309
24 FC2 78 2.797
24 FC2 79 2.309
24 FC2 80 0.844
24 FC2 81 -0.621
24 FC2 82 -2.085
24 FC2 83 -3.550
24 FC2 84 -4.527
24 FC2 85 -4.527
24 FC2 86 -3.550
24 FC2 87 -2.085
24 FC2 88 -0.132
24 FC2 89 1.333
24 FC2 90 2.797
24 FC2 91 3.774
24 FC2 92 4.751
24 FC2 93 5.239
24 FC2 94 4.751
24 FC2 95 3.774
24 FC2 96 2.309
24 FC2 97 0.356
24 FC2 98 -0.621
24 FC2 99 -1.109
24 FC2 100 -0.132
24 FC2 101 0.356
24 FC2 102 -0.132
24 FC2 103 -1.109
24 FC2 104 -2.085
24 FC2 105 -2.574
24 FC2 106 -2.085
24 FC2 107 -1.109
24 FC2 108 0.356
24 FC2 109 1.821
24 FC2 110 2.797
24 FC2 111 3.774
24 FC2 112 4.262
24 FC2 113 4.262
24 FC2 114 4.262
24 FC2 115 3.286
24 FC2 116 2.309
24 FC2 117 0.356
24 FC2 118 -1.109
24 FC2 119 -1.597
24 FC2 120 -1.109
24 FC2 121 0.356
24 FC2 122 2.309
24 FC2 123 3.774
24 FC2 124 4.262
24 FC2 125 3.286
24 FC2 126 1.333
24 FC2 127 -2.085
24 FC2 128 -5.015
24 FC2 129 -6.968
24 FC2 130 -6.968
24 FC2 131 -5.503
24 FC2 132 -2.574
24 FC2 133 1.333
24 FC2 134 3.774
24 FC2 135 5.727
24 FC2 136 5.727
24 FC2 137 4.262
24 FC2 138 1.821
24 FC2 139 -0.132
24 FC2 140 -1.597
24 FC2 141 -2.085
24 FC2 142 -1.597
24 FC2 143 -1.597
24 FC2 144 -1.597
24 FC2 145 -1.109
24 FC2 146 -0.132
24 FC2 147 1.333
24 FC2 148 3.286
24 FC2 149 4.262
24 FC2 150 3.774
24 FC2 151 1.821
24 FC2 152 -1.109
24 FC2 153 -4.038
24 FC2 154 -5.015
24 FC2 155 -5.015
24 FC2 156 -4.527
24 FC2 157 -3.062
24 FC2 158 -2.085
24 FC2 159 -0.621
24 FC2 160 0.844
24 FC2 161 1.821
24 FC2 162 3.286
24 FC2 163 3.286
24 FC2 164 2.797
24 FC2 165 1.821
24 FC2 166 -0.132
24 FC2 167 -2.085
24 FC2 168 -3.062
24 FC2 169 -2.574
24 FC2 170 -1.109
24 FC2 171 0.356
24 FC2 172 1.333
24 FC2 173 0.356
24 FC2 174 -1.109
24 FC2 175 -3.062
24 FC2 176 -4.527
24 FC2 177 -4.527
24 FC2 178 -3.550
24 FC2 179 -1.597
24 FC2 180 0.844
24 FC2 181 3.286
24 FC2 182 4.751
24 FC2 183 5.239
24 FC2 184 4.751
24 FC2 185 3.774
24 FC2 186 2.309
24 FC2 187 1.333
24 FC2 188 0.844
24 FC2 189 0.356
24 FC2 190 -0.132
24 FC2 191 -1.597
24 FC2 192 -2.574
24 FC2 193 -4.527
24 FC2 194 -5.992
24 FC2 195 -7.456
24 FC2 196 -7.456
24 FC2 197 -6.968
24 FC2 198 -5.503
24 FC2 199 -3.550
24 FC2 200 -2.085
24 FC2 201 -1.109
24 FC2 202 -1.109
24 FC2 203 -2.085
24 FC2 204 -4.038
24 FC2 205 -5.015
24 FC2 206 -5.503
24 FC2 207 -5.015
24 FC2 208 -4.038
24 FC2 209 -3.062
24 FC2 210 -3.062
24 FC2 211 -3.062
24 FC2 212 -3.550
24 FC2 213 -3.062
24 FC2 214 -3.062
24 FC2 215 -3.550
24 FC2 216 -3.550
24 FC2 217 -4.038
24 FC2 218 -4.527
24 FC2 219 -4.038
24 FC2 220 -3.550
24 FC2 221 -2.574
24 FC2 222 -1.597
24 FC2 223 -1.109
24 FC2 224 -0.132
24 FC2 225 1.333
24 FC2 226 1.821
24 FC2 227 2.309
24 FC2 228 0.844
24 FC2 229 -1.109
24 FC2 230 -3.062
24 FC2 231 -3.550
24 FC2 232 -3.062
24 FC2 233 -1.109
24 FC2 234 1.821
24 FC2 235 3.286
24 FC2 236 3.286
24 FC2 237 2.309
24 FC2 238 0.844
24 FC2 239 -0.132
24 FC2 240 -0.132
24 FC2 241 0.356
24 FC2 242 0.844
24 FC2 243 1.333
24 FC2 244 1.821
24 FC2 245 1.821
24 FC2 246 1.821
24 FC2 247 1.821
24 FC2 248 1.821
24 FC2 249 0.844
24 FC2 250 -0.132
24 FC2 251 -1.109
24 FC2 252 -1.109
24 FC2 253 -0.621
24 FC2 254 0.844
24 FC2 255 2.797
# FC1 chan 12
24 FC1 0 -1.699
24 FC1 1 -0.234
24 FC1 2 0.743
24 FC1 3 1.719
24 FC1 4 2.207
24 FC1 5 1.231
24 FC1 6 0.254
24 FC1 7 -0.234
24 FC1 8 -0.234
24 FC1 9 0.254
24 FC1 10 0.743
24 FC1 11 0.743
24 FC1 12 0.254
24 FC1 13 0.254
24 FC1 14 1.231
24 FC1 15 1.719
24 FC1 16 2.207
24 FC1 17 1.719
24 FC1 18 0.254
24 FC1 19 -0.722
24 FC1 20 -0.722
24 FC1 21 0.254
24 FC1 22 1.231
24 FC1 23 1.719
24 FC1 24 1.231
24 FC1 25 -0.234
24 FC1 26 -1.211
24 FC1 27 -1.211
24 FC1 28 -1.211
24 FC1 29 -0.722
24 FC1 30 0.254
24 FC1 31 1.231
24 FC1 32 2.207
24 FC1 33 3.184
24 FC1 34 3.672
24 FC1 35 3.672
24 FC1 36 2.207
24 FC1 37 0.743
24 FC1 38 -0.722
24 FC1 39 -1.699
24 FC1 40 -1.211
24 FC1 41 -0.234
24 FC1 42 0.254
24 FC1 43 1.231
24 FC1 44 1.719
24 FC1 45 1.231
24 FC1 46 0.743
24 FC1 47 0.254
24 FC1 48 0.254
24 FC1 49 -0.234
24 FC1 50 -0.234
24 FC1 51 -0.234
24 FC1 52 -1.699
24 FC1 53 -3.652
24 FC1 54 -6.093
24 FC1 55 -8.046
24 FC1 56 -7.558
24 FC1 57 -5.117
24 FC1 58 -2.187
24 FC1 59 0.743
24 FC1 60 1.719
24 FC1 61 1.719
24 FC1 62 1.231
24 FC1 63 0.743
24 FC1 64 0.743
24 FC1 65 0.743
24 FC1 66 0.254
24 FC1 67 -0.722
24 FC1 68 -1.211
24 FC1 69 -2.187
24 FC1 70 -2.187
24 FC1 71 -1.699
24 FC1 72 -0.722
24 FC1 73 -0.234
24 FC1 74 0.254
24 FC1 75 0.254
24 FC1 76 -0.722
24 FC1 77 -1.211
24 FC1 78 -2.187
24 FC1 79 -3.652
24 FC1 80 -5.605
24 FC1 81 -7.558
24 FC1 82 -8.535
24 FC1 83 -7.558
24 FC1 84 -6.093
24 FC1 85 -3.652
24 FC1 86 -1.211
24 FC1 87 0.743
24 FC1 88 1.231
24 FC1 89 2.207
24 FC1 90 2.696
24 FC1 91 3.672
24 FC1 92 4.649
24 FC1 93 5.137
24 FC1 94 4.161
24 FC1 95 2.696
24 FC1 96 -0.234
24 FC1 97 -2.675
24 FC1 98 -4.628
24 FC1 99 -5.117
24 FC1 100 -5.117
24 FC1 101 -3.652
24 FC1 102 -2.187
24 FC1 103 -0.722
24 FC1 104 -0.234
24 FC1 105 -0.234
24 FC1 106 -0.722
24 FC1 107 -0.722
24 FC1 108 -0.722
24 FC1 109 -0.722
24 FC1 110 -1.211
24 FC1 111 -1.211
24 FC1 112 -1.211
24 FC1 113 -1.211
24 FC1 114 -0.234
24 FC1 115 1.231
24 FC1 116 1.719
24 FC1 117 1.719
24 FC1 118 0.254
24 FC1 119 -1.699
24 FC1 120 -3.164
24 FC1 121 -4.140
24 FC1 122 -4.140
24 FC1 123 -3.164
24 FC1 124 -1.699
24 FC1 125 0.254
24 FC1 126 1.231
24 FC1 127 2.207
24 FC1 128 2.207
24 FC1 129 1.719
24 FC1 130 0.254
24 FC1 131 -2.187
24 FC1 132 -4.140
24 FC1 133 -4.140
24 FC1 134 -3.164
24 FC1 135 -0.722
24 FC1 136 1.719
24 FC1 137 3.184
24 FC1 138 3.184
24 FC1 139 2.207
24 FC1 140 0.743
24 FC1 141 -1.211
24 FC1 142 -3.164
24 FC1 143 -4.628
24 FC1 144 -6.582
24 FC1 145 -7.558
24 FC1 146 -7.558
24 FC1 147 -6.093
24 FC1 148 -4.140
24 FC1 149 -2.675
24 FC1 150 -1.211
24 FC1 151 -0.722
24 FC1 152 -0.722
24 FC1 153 -0.234
24 FC1 154 -0.722
24 FC1 155 -1.211
24 FC1 156 -2.675
24 FC1 157 -4.140
24 FC1 158 -5.117
24 FC1 159 -5.117
24 FC1 160 -4.628
24 FC1 161 -3.652
24 FC1 162 -2.187
24 FC1 163 -1.699
24 FC1 164 -2.187
24 FC1 165 -2.675
24 FC1 166 -3.652
24 FC1 167 -4.628
24 FC1 168 -5.117
24 FC1 169 -5.605
24 FC1 170 -6.093
24 FC1 171 -6.582
24 FC1 172 -7.558
24 FC1 173 -8.046
24 FC1 174 -7.558
24 FC1 175 -6.582
24 FC1 176 -4.628
24 FC1 177 -3.164
24 FC1 178 -1.699
24 FC1 179 -0.722
24 FC1 180 -0.234
24 FC1 181 0.743
24 FC1 182 1.231
24 FC1 183 1.719
24 FC1 184 1.231
24 FC1 185 0.254
24 FC1 186 -1.211
24 FC1 187 -3.164
24 FC1 188 -5.117
24 FC1 189 -6.582
24 FC1 190 -7.070
24 FC1 191 -6.582
24 FC1 192 -6.093
24 FC1 193 -5.605
24 FC1 194 -5.117
24 FC1 195 -5.117
24 FC1 196 -5.117
24 FC1 197 -4.628
24 FC1 198 -4.140
24 FC1 199 -3.652
24 FC1 200 -4.140
24 FC1 201 -5.117
24 FC1 202 -6.582
24 FC1 203 -7.558
24 FC1 204 -7.070
24 FC1 205 -6.093
24 FC1 206 -5.117
24 FC1 207 -4.628
24 FC1 208 -4.140
24 FC1 209 -4.628
24 FC1 210 -4.628
24 FC1 211 -5.605
24 FC1 212 -6.093
24 FC1 213 -8.046
24 FC1 214 -9.511
24 FC1 215 -10.000
24 FC1 216 -10.488
24 FC1 217 -9.511
24 FC1 218 -9.023
24 FC1 219 -8.046
24 FC1 220 -7.558
24 FC1 221 -7.070
24 FC1 222 -6.582
24 FC1 223 -5.605
24 FC1 224 -4.628
24 FC1 225 -4.628
24 FC1 226 -5.117
24 FC1 227 -6.093
24 FC1 228 -7.558
24 FC1 229 -7.558
24 FC1 230 -7.070
24 FC1 231 -5.117
24 FC1 232 -3.652
24 FC1 233 -2.187
24 FC1 234 -1.699
24 FC1 235 -1.699
24 FC1 236 -2.187
24 FC1 237 -2.675
24 FC1 238 -2.675
24 FC1 239 -2.675
24 FC1 240 -2.675
24 FC1 241 -3.164
24 FC1 242 -3.164
24 FC1 243 -3.164
24 FC1 244 -3.164
24 FC1 245 -2.675
24 FC1 246 -2.675
24 FC1 247 -2.675
24 FC1 248 -3.164
24 FC1 249 -2.675
24 FC1 250 -3.164
24 FC1 251 -4.140
24 FC1 252 -4.628
24 FC1 253 -5.117
24 FC1 254 -4.140
24 FC1 255 -2.675
# T8 chan 13
24 T8 0 -0.031
24 T8 1 -5.890
24 T8 2 -9.308
24 T8 3 -9.796
24 T8 4 -6.378
24 T8 5 -1.495
24 T8 6 2.411
24 T8 7 4.852
24 T8 8 4.852
24 T8 9 4.364
24 T8 10 2.899
24 T8 11 1.434
24 T8 12 -1.495
24 T8 13 -5.402
24 T8 14 -8.331
24 T8 15 -8.820
24 T8 16 -6.866
24 T8 17 -3.448
24 T8 18 0.458
24 T8 19 2.899
24 T8 20 3.876
24 T8 21 3.876
24 T8 22 1.923
24 T8 23 -1.984
24 T8 24 -6.866
24 T8 25 -9.796
24 T8 26 -9.308
24 T8 27 -6.378
24 T8 28 -2.472
24 T8 29 -0.519
24 T8 30 -1.007
24 T8 31 -1.984
24 T8 32 -1.495
24 T8 33 0.946
24 T8 34 3.387
24 T8 35 4.364
24 T8 36 2.411
24 T8 37 -1.007
24 T8 38 -2.472
24 T8 39 -1.007
24 T8 40 1.923
24 T8 41 4.852
24 T8 42 4.852
24 T8 43 1.923
24 T8 44 -1.495
24 T8 45 -2.960
24 T8 46 -2.960
24 T8 47 -1.495
24 T8 48 -0.519
24 T8 49 -0.031
24 T8 50 -0.519
24 T8 51 0.458
24 T8 52 1.923
24 T8 53 2.411
24 T8 54 2.899
24 T8 55 3.387
24 T8 56 4.852
24 T8 57 6.805
24 T8 58 8.270
24 T8 59 6.805
24 T8 60 2.411
24 T8 61 -2.960
24 T8 62 -6.378
24 T8 63 -5.402
24 T8 64 -0.519
24 T8 65 4.852
24 T8 66 7.294
24 T8 67 6.317
24 T8 68 2.899
24 T8 69 -0.519
24 T8 70 -2.472
24 T8 71 -2.960
24 T8 72 -3.937
24 T8 73 -4.913
24 T8 74 -5.402
24 T8 75 -4.913
24 T8 76 -2.960
24 T8 77 -1.007
24 T8 78 0.458
24 T8 79 -0.031
24 T8 80 -1.495
24 T8 81 -1.495
24 T8 82 -1.495
24 T8 83 -1.495
24 T8 84 -2.472
24 T8 85 -5.402
24 T8 86 -8.331
24 T8 87 -9.796
24 T8 88 -7.843
24 T8 89 -4.425
24 T8 90 -1.984
24 T8 91 -1.984
24 T8 92 -4.913
24 T8 93 -7.843
24 T8 94 -9.308
24 T8 95 -8.331
24 T8 96 -6.378
24 T8 97 -5.402
24 T8 98 -6.378
24 T8 99 -7.355
24 T8 100 -8.331
24 T8 101 -8.331
24 T8 102 -8.331
24 T8 103 -8.820
24 T8 104 -9.796
24 T8 105 -10.284
24 T8 106 -9.796
24 T8 107 -8.331
24 T8 108 -5.890
24 T8 109 -3.937
24 T8 110 -2.960
24 T8 111 -1.495
24 T8 112 -0.519
24 T8 113 0.946
24 T8 114 1.434
24 T8 115 0.946
24 T8 116 -1.007
24 T8 117 -3.448
24 T8 118 -3.937
24 T8 119 -2.960
24 T8 120 -0.519
24 T8 121 2.411
24 T8 122 3.876
24 T8 123 3.387
24 T8 124 0.458
24 T8 125 -3.448
24 T8 126 -7.355
24 T8 127 -9.308
24 T8 128 -8.820
24 T8 129 -6.378
24 T8 130 -3.448
24 T8 131 -1.984
24 T8 132 -1.984
24 T8 133 -3.937
24 T8 134 -5.890
24 T8 135 -7.843
24 T8 136 -10.284
24 T8 137 -12.726
24 T8 138 -15.656
24 T8 139 -17.120
24 T8 140 -15.656
24 T8 141 -11.749
24 T8 142 -5.890
24 T8 143 -1.495
24 T8 144 -0.519
24 T8 145 -1.495
24 T8 146 -3.448
24 T8 147 -3.448
24 T8 148 -1.984
24 T8 149 -0.519
24 T8 150 -0.031
24 T8 151 -1.007
24 T8 152 -3.448
24 T8 153 -5.402
24 T8 154 -6.866
24 T8 155 -7.355
24 T8 156 -7.355
24 T8 157 -6.866
24 T8 158 -5.402
24 T8 159 -2.960
24 T8 160 -1.007
24 T8 161 0.458
24 T8 162 0.458
24 T8 163 -0.031
24 T8 164 -1.007
24 T8 165 -3.448
24 T8 166 -6.866
24 T8 167 -10.284
24 T8 168 -12.238
24 T8 169 -10.284
24 T8 170 -4.425
24 T8 171 2.899
24 T8 172 8.759
24 T8 173 10.712
24 T8 174 8.759
24 T8 175 5.341
24 T8 176 1.923
24 T8 177 -0.519
24 T8 178 -2.472
24 T8 179 -3.937
24 T8 180 -5.890
24 T8 181 -8.331
24 T8 182 -10.284
24 T8 183 -12.238
24 T8 184 -13.214
24 T8 185 -14.191
24 T8 186 -13.702
24 T8 187 -12.726
24 T8 188 -11.261
24 T8 189 -9.308
24 T8 190 -7.843
24 T8 191 -7.355
24 T8 192 -8.820
24 T8 193 -12.238
24 T8 194 -16.632
24 T8 195 -20.050
24 T8 196 -20.538
24 T8 197 -18.097
24 T8 198 -13.702
24 T8 199 -9.796
24 T8 200 -8.820
24 T8 201 -10.284
24 T8 202 -12.726
24 T8 203 -15.167
24 T8 204 -16.144
24 T8 205 -16.144
24 T8 206 -16.144
24 T8 207 -16.632
24 T8 208 -16.144
24 T8 209 -15.656
24 T8 210 -14.191
24 T8 211 -13.214
24 T8 212 -12.238
24 T8 213 -11.749
24 T8 214 -11.261
24 T8 215 -11.261
24 T8 216 -10.773
24 T8 217 -9.796
24 T8 218 -7.843
24 T8 219 -3.937
24 T8 220 -0.031
24 T8 221 2.899
24 T8 222 2.899
24 T8 223 -0.031
24 T8 224 -3.937
24 T8 225 -5.890
24 T8 226 -3.937
24 T8 227 -1.495
24 T8 228 -0.519
24 T8 229 -1.984
24 T8 230 -3.937
24 T8 231 -2.472
24 T8 232 3.387
24 T8 233 10.712
24 T8 234 15.106
24 T8 235 12.665
24 T8 236 4.852
24 T8 237 -2.472
24 T8 238 -5.402
24 T8 239 -2.472
24 T8 240 3.387
24 T8 241 6.805
24 T8 242 7.294
24 T8 243 6.317
24 T8 244 6.317
24 T8 245 7.782
24 T8 246 9.247
24 T8 247 7.782
24 T8 248 2.899
24 T8 249 -1.984
24 T8 250 -4.425
24 T8 251 -1.495
24 T8 252 3.876
24 T8 253 8.270
24 T8 254 9.247
24 T8 255 6.805
# T7 chan 14
24 T7 0 -4.364
24 T7 1 -6.805
24 T7 2 -8.759
24 T7 3 -8.270
24 T7 4 -6.317
24 T7 5 -3.876
24 T7 6 -0.946
24 T7 7 0.519
24 T7 8 0.519
24 T7 9 0.519
24 T7 10 -0.458
24 T7 11 -0.946
24 T7 12 -2.411
24 T7 13 -4.364
24 T7 14 -6.805
24 T7 15 -8.270
24 T7 16 -6.317
24 T7 17 -2.411
24 T7 18 2.472
24 T7 19 7.355
24 T7 20 9.308
24 T7 21 9.796
24 T7 22 7.843
24 T7 23 5.402
24 T7 24 2.472
24 T7 25 -1.434
24 T7 26 -4.852
24 T7 27 -7.782
24 T7 28 -8.759
24 T7 29 -7.294
24 T7 30 -3.876
24 T7 31 0.519
24 T7 32 3.937
24 T7 33 5.402
24 T7 34 5.402
24 T7 35 4.425
24 T7 36 3.448
24 T7 37 2.960
24 T7 38 1.984
24 T7 39 0.519
24 T7 40 -0.458
24 T7 41 -0.458
24 T7 42 0.519
24 T7 43 2.960
24 T7 44 4.425
24 T7 45 2.960
24 T7 46 -0.458
24 T7 47 -5.829
24 T7 48 -9.247
24 T7 49 -10.223
24 T7 50 -8.759
24 T7 51 -5.829
24 T7 52 -4.364
24 T7 53 -4.364
24 T7 54 -5.829
24 T7 55 -7.294
24 T7 56 -7.782
24 T7 57 -7.782
24 T7 58 -7.294
24 T7 59 -6.317
24 T7 60 -5.341
24 T7 61 -3.387
24 T7 62 -1.434
24 T7 63 1.984
24 T7 64 4.913
24 T7 65 7.355
24 T7 66 6.866
24 T7 67 4.425
24 T7 68 0.519
24 T7 69 -4.364
24 T7 70 -8.270
24 T7 71 -10.223
24 T7 72 -9.735
24 T7 73 -7.294
24 T7 74 -4.364
24 T7 75 -1.923
24 T7 76 -2.411
24 T7 77 -4.364
24 T7 78 -7.782
24 T7 79 -10.223
24 T7 80 -11.200
24 T7 81 -10.712
24 T7 82 -9.735
24 T7 83 -9.247
24 T7 84 -9.247
24 T7 85 -10.223
24 T7 86 -10.223
24 T7 87 -9.735
24 T7 88 -8.270
24 T7 89 -6.805
24 T7 90 -5.341
24 T7 91 -5.341
24 T7 92 -6.317
24 T7 93 -8.270
24 T7 94 -10.712
24 T7 95 -13.153
24 T7 96 -15.106
24 T7 97 -16.083
24 T7 98 -15.594
24 T7 99 -13.641
24 T7 100 -11.200
24 T7 101 -9.247
24 T7 102 -8.270
24 T7 103 -8.270
24 T7 104 -9.247
24 T7 105 -10.223
24 T7 106 -10.712
24 T7 107 -11.200
24 T7 108 -11.200
24 T7 109 -9.735
24 T7 110 -8.270
24 T7 111 -5.829
24 T7 112 -4.364
24 T7 113 -5.341
24 T7 114 -8.759
24 T7 115 -12.665
24 T7 116 -14.618
24 T7 117 -14.130
24 T7 118 -10.712
24 T7 119 -6.805
24 T7 120 -4.852
24 T7 121 -4.852
24 T7 122 -6.805
24 T7 123 -9.247
24 T7 124 -10.223
24 T7 125 -9.735
24 T7 126 -7.782
24 T7 127 -4.852
24 T7 128 -2.411
24 T7 129 -0.458
24 T7 130 0.031
24 T7 131 -1.434
24 T7 132 -4.852
24 T7 133 -7.782
24 T7 134 -8.270
24 T7 135 -5.341
24 T7 136 -1.434
24 T7 137 2.472
24 T7 138 2.960
24 T7 139 0.519
24 T7 140 -3.387
24 T7 141 -7.782
24 T7 142 -11.688
24 T7 143 -14.618
24 T7 144 -16.083
24 T7 145 -17.059
24 T7 146 -17.059
24 T7 147 -15.106
24 T7 148 -12.665
24 T7 149 -11.200
24 T7 150 -10.712
24 T7 151 -11.200
24 T7 152 -12.177
24 T7 153 -10.712
24 T7 154 -8.270
24 T7 155 -4.852
24 T7 156 -2.411
24 T7 157 -2.899
24 T7 158 -4.364
24 T7 159 -7.294
24 T7 160 -8.759
24 T7 161 -8.759
24 T7 162 -7.294
24 T7 163 -4.852
24 T7 164 -2.411
24 T7 165 -0.458
24 T7 166 1.007
24 T7 167 1.984
24 T7 168 1.984
24 T7 169 1.007
24 T7 170 -0.458
24 T7 171 -2.411
24 T7 172 -4.364
24 T7 173 -4.852
24 T7 174 -4.364
24 T7 175 -3.387
24 T7 176 -1.923
24 T7 177 0.031
24 T7 178 2.472
24 T7 179 3.937
24 T7 180 4.425
24 T7 181 2.472
24 T7 182 -1.434
24 T7 183 -6.317
24 T7 184 -10.223
24 T7 185 -11.688
24 T7 186 -10.223
24 T7 187 -6.805
24 T7 188 -3.876
24 T7 189 -1.923
24 T7 190 -1.923
24 T7 191 -3.387
24 T7 192 -4.852
24 T7 193 -6.805
24 T7 194 -8.270
24 T7 195 -9.735
24 T7 196 -11.200
24 T7 197 -11.688
24 T7 198 -10.712
24 T7 199 -9.247
24 T7 200 -8.270
24 T7 201 -9.247
24 T7 202 -11.200
24 T7 203 -13.641
24 T7 204 -14.618
24 T7 205 -14.130
24 T7 206 -11.200
24 T7 207 -8.759
24 T7 208 -7.294
24 T7 209 -7.782
24 T7 210 -8.759
24 T7 211 -9.735
24 T7 212 -11.688
24 T7 213 -13.641
24 T7 214 -16.083
24 T7 215 -18.524
24 T7 216 -19.012
24 T7 217 -17.548
24 T7 218 -14.130
24 T7 219 -9.735
24 T7 220 -6.317
24 T7 221 -3.387
24 T7 222 -1.434
24 T7 223 -1.923
24 T7 224 -3.876
24 T7 225 -8.270
24 T7 226 -13.153
24 T7 227 -16.083
24 T7 228 -15.106
24 T7 229 -9.735
24 T7 230 -3.387
24 T7 231 3.448
24 T7 232 7.355
24 T7 233 7.355
24 T7 234 4.913
24 T7 235 1.495
24 T7 236 -0.946
24 T7 237 -2.411
24 T7 238 -3.387
24 T7 239 -3.876
24 T7 240 -3.876
24 T7 241 -2.899
24 T7 242 -0.458
24 T7 243 2.472
24 T7 244 4.913
24 T7 245 6.378
24 T7 246 6.866
24 T7 247 6.378
24 T7 248 5.890
24 T7 249 5.402
24 T7 250 4.425
24 T7 251 2.472
24 T7 252 -0.458
24 T7 253 -3.387
24 T7 254 -4.852
24 T7 255 -4.364
# CZ chan 15
24 CZ 0 -0.448
24 CZ 1 -5.819
24 CZ 2 -8.260
24 CZ 3 -7.284
24 CZ 4 -4.354
24 CZ 5 -1.912
24 CZ 6 -1.424
24 CZ 7 -1.912
24 CZ 8 -3.866
24 CZ 9 -4.842
24 CZ 10 -5.330
24 CZ 11 -4.354
24 CZ 12 -3.866
24 CZ 13 -3.377
24 CZ 14 -4.842
24 CZ 15 -6.795
24 CZ 16 -7.772
24 CZ 17 -5.819
24 CZ 18 -0.936
24 CZ 19 5.900
24 CZ 20 11.271
24 CZ 21 12.248
24 CZ 22 8.341
24 CZ 23 1.506
24 CZ 24 -4.354
24 CZ 25 -7.772
24 CZ 26 -7.772
24 CZ 27 -6.307
24 CZ 28 -3.866
24 CZ 29 -0.936
24 CZ 30 2.970
24 CZ 31 6.388
24 CZ 32 8.341
24 CZ 33 7.853
24 CZ 34 5.900
24 CZ 35 4.435
24 CZ 36 5.412
24 CZ 37 8.830
24 CZ 38 12.248
24 CZ 39 13.713
24 CZ 40 12.248
24 CZ 41 10.295
24 CZ 42 8.830
24 CZ 43 8.830
24 CZ 44 8.830
24 CZ 45 7.853
24 CZ 46 5.412
24 CZ 47 1.506
24 CZ 48 -1.912
24 CZ 49 -3.377
24 CZ 50 -3.377
24 CZ 51 -3.866
24 CZ 52 -3.866
24 CZ 53 -4.842
24 CZ 54 -4.842
24 CZ 55 -4.354
24 CZ 56 -3.377
24 CZ 57 -1.424
24 CZ 58 0.529
24 CZ 59 2.970
24 CZ 60 3.459
24 CZ 61 2.482
24 CZ 62 0.041
24 CZ 63 -1.912
24 CZ 64 -2.401
24 CZ 65 -0.448
24 CZ 66 1.994
24 CZ 67 2.482
24 CZ 68 0.529
24 CZ 69 -4.354
24 CZ 70 -9.725
24 CZ 71 -13.143
24 CZ 72 -14.119
24 CZ 73 -12.166
24 CZ 74 -10.213
24 CZ 75 -8.260
24 CZ 76 -5.819
24 CZ 77 -3.377
24 CZ 78 -0.448
24 CZ 79 1.506
24 CZ 80 0.529
24 CZ 81 -3.866
24 CZ 82 -10.213
24 CZ 83 -16.073
24 CZ 84 -19.491
24 CZ 85 -18.514
24 CZ 86 -15.096
24 CZ 87 -10.213
24 CZ 88 -6.795
24 CZ 89 -5.819
24 CZ 90 -8.260
24 CZ 91 -12.166
24 CZ 92 -15.584
24 CZ 93 -17.049
24 CZ 94 -16.073
24 CZ 95 -13.143
24 CZ 96 -11.678
24 CZ 97 -11.190
24 CZ 98 -12.166
24 CZ 99 -12.655
24 CZ 100 -10.701
24 CZ 101 -8.260
24 CZ 102 -6.307
24 CZ 103 -7.284
24 CZ 104 -10.213
24 CZ 105 -12.655
24 CZ 106 -13.631
24 CZ 107 -11.190
24 CZ 108 -9.237
24 CZ 109 -7.772
24 CZ 110 -7.772
24 CZ 111 -8.260
24 CZ 112 -8.260
24 CZ 113 -7.772
24 CZ 114 -8.748
24 CZ 115 -11.190
24 CZ 116 -14.608
24 CZ 117 -16.561
24 CZ 118 -13.631
24 CZ 119 -8.260
24 CZ 120 -2.889
24 CZ 121 -0.936
24 CZ 122 -2.401
24 CZ 123 -6.795
24 CZ 124 -9.237
24 CZ 125 -10.213
24 CZ 126 -9.237
24 CZ 127 -7.772
24 CZ 128 -7.284
24 CZ 129 -6.795
24 CZ 130 -5.330
24 CZ 131 -2.889
24 CZ 132 -0.936
24 CZ 133 -0.936
24 CZ 134 -3.866
24 CZ 135 -9.725
24 CZ 136 -16.073
24 CZ 137 -20.955
24 CZ 138 -22.909
24 CZ 139 -22.909
24 CZ 140 -22.420
24 CZ 141 -22.420
24 CZ 142 -22.909
24 CZ 143 -22.420
24 CZ 144 -19.002
24 CZ 145 -12.655
24 CZ 146 -4.354
24 CZ 147 2.970
24 CZ 148 6.388
24 CZ 149 4.435
24 CZ 150 -1.912
24 CZ 151 -8.748
24 CZ 152 -11.678
24 CZ 153 -11.190
24 CZ 154 -8.748
24 CZ 155 -6.307
24 CZ 156 -5.819
24 CZ 157 -5.819
24 CZ 158 -4.842
24 CZ 159 -2.401
24 CZ 160 -0.936
24 CZ 161 -1.912
24 CZ 162 -4.354
24 CZ 163 -6.307
24 CZ 164 -5.330
24 CZ 165 -0.448
24 CZ 166 5.412
24 CZ 167 8.341
24 CZ 168 8.341
24 CZ 169 6.388
24 CZ 170 5.412
24 CZ 171 6.877
24 CZ 172 10.783
24 CZ 173 13.713
24 CZ 174 13.713
24 CZ 175 11.271
24 CZ 176 7.365
24 CZ 177 4.435
24 CZ 178 2.970
24 CZ 179 1.506
24 CZ 180 -0.448
24 CZ 181 -3.377
24 CZ 182 -6.795
24 CZ 183 -9.725
24 CZ 184 -11.190
24 CZ 185 -12.166
24 CZ 186 -11.190
24 CZ 187 -9.237
24 CZ 188 -6.795
24 CZ 189 -4.354
24 CZ 190 -3.377
24 CZ 191 -4.354
24 CZ 192 -8.748
24 CZ 193 -14.608
24 CZ 194 -20.955
24 CZ 195 -25.838
24 CZ 196 -27.303
24 CZ 197 -24.373
24 CZ 198 -18.514
24 CZ 199 -12.166
24 CZ 200 -7.772
24 CZ 201 -7.772
24 CZ 202 -11.190
24 CZ 203 -17.049
24 CZ 204 -22.420
24 CZ 205 -26.326
24 CZ 206 -27.791
24 CZ 207 -27.791
24 CZ 208 -25.838
24 CZ 209 -23.397
24 CZ 210 -19.979
24 CZ 211 -17.537
24 CZ 212 -17.049
24 CZ 213 -18.026
24 CZ 214 -19.979
24 CZ 215 -20.467
24 CZ 216 -19.002
24 CZ 217 -15.584
24 CZ 218 -11.678
24 CZ 219 -7.284
24 CZ 220 -1.912
24 CZ 221 1.994
24 CZ 222 5.412
24 CZ 223 5.900
24 CZ 224 3.947
24 CZ 225 0.041
24 CZ 226 -2.889
24 CZ 227 -3.377
24 CZ 228 -0.448
24 CZ 229 5.412
24 CZ 230 11.759
24 CZ 231 17.619
24 CZ 232 21.525
24 CZ 233 22.990
24 CZ 234 20.549
24 CZ 235 15.177
24 CZ 236 8.341
24 CZ 237 3.947
24 CZ 238 3.459
24 CZ 239 6.877
24 CZ 240 10.783
24 CZ 241 13.224
24 CZ 242 13.224
24 CZ 243 10.783
24 CZ 244 8.830
24 CZ 245 9.806
24 CZ 246 13.224
24 CZ 247 18.107
24 CZ 248 21.037
24 CZ 249 21.525
24 CZ 250 19.572
24 CZ 251 16.642
24 CZ 252 13.713
24 CZ 253 11.759
24 CZ 254 10.295
24 CZ 255 10.783
# C3 chan 16
24 C3 0 -4.191
24 C3 1 -4.679
24 C3 2 -4.679
24 C3 3 -3.703
24 C3 4 -1.750
24 C3 5 0.203
24 C3 6 2.157
24 C3 7 3.133
24 C3 8 4.110
24 C3 9 4.110
24 C3 10 3.621
24 C3 11 2.645
24 C3 12 0.203
24 C3 13 -1.750
24 C3 14 -3.703
24 C3 15 -3.703
24 C3 16 -2.726
24 C3 17 -0.773
24 C3 18 1.180
24 C3 19 4.110
24 C3 20 6.063
24 C3 21 8.016
24 C3 22 8.504
24 C3 23 7.528
24 C3 24 5.086
24 C3 25 1.668
24 C3 26 -2.238
24 C3 27 -5.168
24 C3 28 -6.632
24 C3 29 -5.656
24 C3 30 -3.215
24 C3 31 0.203
24 C3 32 3.621
24 C3 33 6.551
24 C3 34 8.016
24 C3 35 6.551
24 C3 36 3.621
24 C3 37 0.203
24 C3 38 -2.726
24 C3 39 -3.703
24 C3 40 -3.215
24 C3 41 -0.285
24 C3 42 2.645
24 C3 43 4.598
24 C3 44 4.598
24 C3 45 2.645
24 C3 46 -0.285
24 C3 47 -3.215
24 C3 48 -4.679
24 C3 49 -5.656
24 C3 50 -4.679
24 C3 51 -4.191
24 C3 52 -3.215
24 C3 53 -3.703
24 C3 54 -3.703
24 C3 55 -4.191
24 C3 56 -4.679
24 C3 57 -4.679
24 C3 58 -4.679
24 C3 59 -4.191
24 C3 60 -3.703
24 C3 61 -2.238
24 C3 62 -0.773
24 C3 63 1.180
24 C3 64 3.621
24 C3 65 6.063
24 C3 66 7.039
24 C3 67 6.551
24 C3 68 4.598
24 C3 69 1.180
24 C3 70 -1.261
24 C3 71 -1.750
24 C3 72 -0.773
24 C3 73 0.692
24 C3 74 1.180
24 C3 75 0.203
24 C3 76 -1.750
24 C3 77 -2.726
24 C3 78 -3.215
24 C3 79 -3.215
24 C3 80 -2.726
24 C3 81 -2.726
24 C3 82 -2.726
24 C3 83 -2.238
24 C3 84 -1.261
24 C3 85 -0.285
24 C3 86 0.692
24 C3 87 2.157
24 C3 88 3.133
24 C3 89 4.110
24 C3 90 4.598
24 C3 91 4.110
24 C3 92 2.157
24 C3 93 -0.285
24 C3 94 -3.215
24 C3 95 -4.679
24 C3 96 -5.168
24 C3 97 -5.168
24 C3 98 -4.679
24 C3 99 -4.191
24 C3 100 -3.215
24 C3 101 -2.238
24 C3 102 -1.261
24 C3 103 -0.773
24 C3 104 -0.773
24 C3 105 -1.261
24 C3 106 -1.750
24 C3 107 -1.750
24 C3 108 -0.773
24 C3 109 0.203
24 C3 110 0.203
24 C3 111 -0.285
24 C3 112 -1.750
24 C3 113 -3.703
24 C3 114 -4.679
24 C3 115 -4.191
24 C3 116 -2.726
24 C3 117 -1.261
24 C3 118 -0.773
24 C3 119 -0.773
24 C3 120 -2.238
24 C3 121 -4.679
24 C3 122 -7.121
24 C3 123 -9.074
24 C3 124 -9.074
24 C3 125 -7.121
24 C3 126 -2.726
24 C3 127 3.133
24 C3 128 8.016
24 C3 129 10.946
24 C3 130 9.969
24 C3 131 6.551
24 C3 132 1.668
24 C3 133 -1.750
24 C3 134 -3.215
24 C3 135 -2.726
24 C3 136 -0.773
24 C3 137 1.668
24 C3 138 3.133
24 C3 139 3.621
24 C3 140 3.621
24 C3 141 1.180
24 C3 142 -2.238
24 C3 143 -6.144
24 C3 144 -10.050
24 C3 145 -12.004
24 C3 146 -12.492
24 C3 147 -12.004
24 C3 148 -11.027
24 C3 149 -10.050
24 C3 150 -9.074
24 C3 151 -7.609
24 C3 152 -5.168
24 C3 153 -3.215
24 C3 154 -1.261
24 C3 155 -0.285
24 C3 156 0.692
24 C3 157 0.692
24 C3 158 0.692
24 C3 159 0.203
24 C3 160 -0.285
24 C3 161 -1.261
24 C3 162 -1.750
24 C3 163 -0.773
24 C3 164 0.692
24 C3 165 2.645
24 C3 166 3.133
24 C3 167 3.133
24 C3 168 1.180
24 C3 169 -0.773
24 C3 170 -3.215
24 C3 171 -5.656
24 C3 172 -8.097
24 C3 173 -9.074
24 C3 174 -9.074
24 C3 175 -7.121
24 C3 176 -4.191
24 C3 177 -1.261
24 C3 178 1.668
24 C3 179 3.133
24 C3 180 4.110
24 C3 181 4.110
24 C3 182 4.110
24 C3 183 3.133
24 C3 184 1.668
24 C3 185 0.203
24 C3 186 -0.773
24 C3 187 -0.773
24 C3 188 -0.285
24 C3 189 -0.285
24 C3 190 0.203
24 C3 191 1.180
24 C3 192 1.668
24 C3 193 2.645
24 C3 194 2.645
24 C3 195 1.668
24 C3 196 0.692
24 C3 197 -0.285
24 C3 198 -1.261
24 C3 199 -1.750
24 C3 200 -2.726
24 C3 201 -4.191
24 C3 202 -5.168
24 C3 203 -5.168
24 C3 204 -3.703
24 C3 205 -1.261
24 C3 206 1.180
24 C3 207 3.133
24 C3 208 4.110
24 C3 209 4.110
24 C3 210 3.621
24 C3 211 2.157
24 C3 212 -0.285
24 C3 213 -3.215
24 C3 214 -6.632
24 C3 215 -8.586
24 C3 216 -8.586
24 C3 217 -7.121
24 C3 218 -4.191
24 C3 219 -2.238
24 C3 220 -0.773
24 C3 221 -0.285
24 C3 222 0.203
24 C3 223 -0.285
24 C3 224 -1.750
24 C3 225 -4.191
24 C3 226 -7.609
24 C3 227 -10.050
24 C3 228 -9.562
24 C3 229 -6.632
24 C3 230 -2.238
24 C3 231 2.645
24 C3 232 5.086
24 C3 233 5.086
24 C3 234 3.621
24 C3 235 1.668
24 C3 236 0.203
24 C3 237 -0.285
24 C3 238 -0.285
24 C3 239 0.203
24 C3 240 0.203
24 C3 241 1.180
24 C3 242 2.157
24 C3 243 3.133
24 C3 244 4.110
24 C3 245 4.598
24 C3 246 4.598
24 C3 247 4.598
24 C3 248 4.598
24 C3 249 4.110
24 C3 250 3.621
24 C3 251 2.645
24 C3 252 1.180
24 C3 253 0.692
24 C3 254 1.180
24 C3 255 1.180
# C4 chan 17
24 C4 0 1.088
24 C4 1 -2.818
24 C4 2 -5.747
24 C4 3 -6.236
24 C4 4 -4.283
24 C4 5 -1.841
24 C4 6 0.600
24 C4 7 1.577
24 C4 8 1.577
24 C4 9 1.577
24 C4 10 1.088
24 C4 11 0.112
24 C4 12 -1.353
24 C4 13 -2.330
24 C4 14 -2.818
24 C4 15 -2.330
24 C4 16 -0.376
24 C4 17 1.577
24 C4 18 2.065
24 C4 19 2.065
24 C4 20 1.088
24 C4 21 0.600
24 C4 22 0.600
24 C4 23 1.088
24 C4 24 1.088
24 C4 25 0.600
24 C4 26 -0.865
24 C4 27 -1.353
24 C4 28 -0.865
24 C4 29 0.600
24 C4 30 1.577
24 C4 31 1.577
24 C4 32 0.112
24 C4 33 -2.330
24 C4 34 -3.794
24 C4 35 -4.283
24 C4 36 -3.306
24 C4 37 -1.353
24 C4 38 0.600
24 C4 39 1.088
24 C4 40 1.577
24 C4 41 1.088
24 C4 42 0.112
24 C4 43 -0.376
24 C4 44 -0.865
24 C4 45 0.112
24 C4 46 1.088
24 C4 47 1.577
24 C4 48 1.577
24 C4 49 0.600
24 C4 50 -0.865
24 C4 51 -1.353
24 C4 52 -0.376
24 C4 53 1.577
24 C4 54 3.530
24 C4 55 4.506
24 C4 56 4.018
24 C4 57 3.530
24 C4 58 3.042
24 C4 59 2.553
24 C4 60 2.553
24 C4 61 2.553
24 C4 62 2.553
24 C4 63 2.065
24 C4 64 2.065
24 C4 65 2.065
24 C4 66 2.553
24 C4 67 2.553
24 C4 68 2.553
24 C4 69 1.577
24 C4 70 -0.376
24 C4 71 -2.330
24 C4 72 -3.306
24 C4 73 -3.306
24 C4 74 -1.841
24 C4 75 0.112
24 C4 76 2.065
24 C4 77 3.042
24 C4 78 3.042
24 C4 79 2.553
24 C4 80 2.065
24 C4 81 1.577
24 C4 82 0.600
24 C4 83 -0.376
24 C4 84 -1.841
24 C4 85 -1.841
24 C4 86 -0.865
24 C4 87 0.600
24 C4 88 2.553
24 C4 89 3.042
24 C4 90 3.042
24 C4 91 2.553
24 C4 92 2.553
24 C4 93 2.065
24 C4 94 1.088
24 C4 95 -0.376
24 C4 96 -1.353
24 C4 97 -1.841
24 C4 98 -1.353
24 C4 99 -0.376
24 C4 100 -0.376
24 C4 101 -1.353
24 C4 102 -3.306
24 C4 103 -5.747
24 C4 104 -6.724
24 C4 105 -5.747
24 C4 106 -3.306
24 C4 107 -0.376
24 C4 108 2.065
24 C4 109 4.018
24 C4 110 4.506
24 C4 111 4.018
24 C4 112 3.042
24 C4 113 2.065
24 C4 114 0.600
24 C4 115 -0.865
24 C4 116 -1.841
24 C4 117 -2.818
24 C4 118 -2.818
24 C4 119 -1.353
24 C4 120 1.088
24 C4 121 3.042
24 C4 122 4.506
24 C4 123 4.018
24 C4 124 2.553
24 C4 125 -0.376
24 C4 126 -2.818
24 C4 127 -5.747
24 C4 128 -7.212
24 C4 129 -8.189
24 C4 130 -7.212
24 C4 131 -4.771
24 C4 132 -1.353
24 C4 133 2.065
24 C4 134 3.530
24 C4 135 3.530
24 C4 136 1.577
24 C4 137 -0.865
24 C4 138 -2.818
24 C4 139 -2.818
24 C4 140 -1.841
24 C4 141 -0.376
24 C4 142 0.600
24 C4 143 0.600
24 C4 144 0.112
24 C4 145 -0.376
24 C4 146 0.112
24 C4 147 1.088
24 C4 148 2.553
24 C4 149 2.553
24 C4 150 1.577
24 C4 151 -0.376
24 C4 152 -2.330
24 C4 153 -3.306
24 C4 154 -3.306
24 C4 155 -1.841
24 C4 156 0.600
24 C4 157 2.065
24 C4 158 2.553
24 C4 159 1.577
24 C4 160 0.112
24 C4 161 -0.376
24 C4 162 0.112
24 C4 163 1.577
24 C4 164 3.042
24 C4 165 4.018
24 C4 166 4.018
24 C4 167 3.042
24 C4 168 2.553
24 C4 169 3.530
24 C4 170 5.483
24 C4 171 6.948
24 C4 172 7.924
24 C4 173 7.436
24 C4 174 5.971
24 C4 175 3.530
24 C4 176 1.088
24 C4 177 -1.353
24 C4 178 -2.818
24 C4 179 -3.306
24 C4 180 -2.818
24 C4 181 -1.353
24 C4 182 0.112
24 C4 183 0.600
24 C4 184 -0.376
24 C4 185 -1.841
24 C4 186 -2.818
24 C4 187 -2.818
24 C4 188 -1.841
24 C4 189 -0.376
24 C4 190 0.600
24 C4 191 0.112
24 C4 192 -1.353
24 C4 193 -3.306
24 C4 194 -5.747
24 C4 195 -7.212
24 C4 196 -8.189
24 C4 197 -7.212
24 C4 198 -5.747
24 C4 199 -3.306
24 C4 200 -1.353
24 C4 201 0.112
24 C4 202 0.112
24 C4 203 -1.841
24 C4 204 -3.794
24 C4 205 -5.747
24 C4 206 -6.236
24 C4 207 -4.771
24 C4 208 -3.306
24 C4 209 -1.353
24 C4 210 -1.353
24 C4 211 -1.841
24 C4 212 -2.818
24 C4 213 -3.794
24 C4 214 -3.794
24 C4 215 -3.306
24 C4 216 -2.818
24 C4 217 -1.841
24 C4 218 -0.865
24 C4 219 0.112
24 C4 220 1.088
24 C4 221 3.042
24 C4 222 4.018
24 C4 223 4.018
24 C4 224 2.553
24 C4 225 0.600
24 C4 226 -0.865
24 C4 227 -1.353
24 C4 228 -0.376
24 C4 229 1.088
24 C4 230 2.065
24 C4 231 2.065
24 C4 232 3.042
24 C4 233 4.018
24 C4 234 5.971
24 C4 235 6.460
24 C4 236 5.483
24 C4 237 2.553
24 C4 238 -0.376
24 C4 239 -1.841
24 C4 240 -0.376
24 C4 241 2.553
24 C4 242 5.483
24 C4 243 6.460
24 C4 244 6.460
24 C4 245 4.995
24 C4 246 4.018
24 C4 247 3.042
24 C4 248 2.065
24 C4 249 1.577
24 C4 250 1.088
24 C4 251 1.577
24 C4 252 2.065
24 C4 253 2.553
24 C4 254 2.553
24 C4 255 2.553
# CP5 chan 18
24 CP5 0 -4.150
24 CP5 1 -5.127
24 CP5 2 -6.104
24 CP5 3 -6.104
24 CP5 4 -5.615
24 CP5 5 -3.662
24 CP5 6 -0.732
24 CP5 7 1.709
24 CP5 8 3.174
24 CP5 9 3.662
24 CP5 10 3.174
24 CP5 11 1.709
24 CP5 12 -0.732
24 CP5 13 -3.662
24 CP5 14 -5.615
24 CP5 15 -6.592
24 CP5 16 -4.639
24 CP5 17 -1.221
24 CP5 18 3.174
24 CP5 19 7.080
24 CP5 20 9.521
24 CP5 21 10.498
24 CP5 22 10.010
24 CP5 23 8.057
24 CP5 24 5.127
24 CP5 25 0.732
24 CP5 26 -4.150
24 CP5 27 -8.545
24 CP5 28 -10.498
24 CP5 29 -10.010
24 CP5 30 -7.080
24 CP5 31 -1.709
24 CP5 32 3.662
24 CP5 33 8.057
24 CP5 34 9.521
24 CP5 35 8.545
24 CP5 36 5.615
24 CP5 37 1.709
24 CP5 38 -2.686
24 CP5 39 -5.615
24 CP5 40 -5.615
24 CP5 41 -2.197
24 CP5 42 2.197
24 CP5 43 5.127
24 CP5 44 5.127
24 CP5 45 1.709
24 CP5 46 -3.174
24 CP5 47 -6.592
24 CP5 48 -8.057
24 CP5 49 -7.080
24 CP5 50 -6.104
24 CP5 51 -5.127
24 CP5 52 -5.127
24 CP5 53 -5.127
24 CP5 54 -5.127
24 CP5 55 -5.127
24 CP5 56 -5.127
24 CP5 57 -6.104
24 CP5 58 -6.592
24 CP5 59 -6.592
24 CP5 60 -5.615
24 CP5 61 -4.150
24 CP5 62 -2.197
24 CP5 63 0.244
24 CP5 64 3.174
24 CP5 65 6.592
24 CP5 66 9.521
24 CP5 67 10.010
24 CP5 68 6.592
24 CP5 69 1.709
24 CP5 70 -2.197
24 CP5 71 -3.174
24 CP5 72 -1.221
24 CP5 73 1.709
24 CP5 74 1.709
24 CP5 75 -0.244
24 CP5 76 -3.662
24 CP5 77 -5.615
24 CP5 78 -5.615
24 CP5 79 -3.662
24 CP5 80 -2.197
24 CP5 81 -2.686
24 CP5 82 -3.662
24 CP5 83 -4.639
24 CP5 84 -4.639
24 CP5 85 -4.150
24 CP5 86 -3.174
24 CP5 87 -2.686
24 CP5 88 -1.221
24 CP5 89 0.244
24 CP5 90 1.221
24 CP5 91 0.244
24 CP5 92 -3.174
24 CP5 93 -7.080
24 CP5 94 -10.986
24 CP5 95 -11.963
24 CP5 96 -11.475
24 CP5 97 -9.521
24 CP5 98 -8.057
24 CP5 99 -7.568
24 CP5 100 -7.080
24 CP5 101 -5.615
24 CP5 102 -4.639
24 CP5 103 -4.639
24 CP5 104 -5.615
24 CP5 105 -7.568
24 CP5 106 -10.010
24 CP5 107 -10.498
24 CP5 108 -8.545
24 CP5 109 -5.127
24 CP5 110 -2.686
24 CP5 111 -1.709
24 CP5 112 -3.174
24 CP5 113 -5.615
24 CP5 114 -8.057
24 CP5 115 -9.033
24 CP5 116 -8.057
24 CP5 117 -6.104
24 CP5 118 -4.639
24 CP5 119 -4.150
24 CP5 120 -5.127
24 CP5 121 -6.592
24 CP5 122 -8.057
24 CP5 123 -10.010
24 CP5 124 -10.498
24 CP5 125 -10.010
24 CP5 126 -7.080
24 CP5 127 -2.686
24 CP5 128 2.686
24 CP5 129 6.104
24 CP5 130 7.080
24 CP5 131 4.639
24 CP5 132 0.732
24 CP5 133 -3.174
24 CP5 134 -5.127
24 CP5 135 -4.639
24 CP5 136 -2.686
24 CP5 137 0.732
24 CP5 138 3.174
24 CP5 139 4.150
24 CP5 140 3.174
24 CP5 141 0.244
24 CP5 142 -4.639
24 CP5 143 -10.010
24 CP5 144 -13.428
24 CP5 145 -15.381
24 CP5 146 -14.893
24 CP5 147 -13.916
24 CP5 148 -12.939
24 CP5 149 -12.939
24 CP5 150 -12.451
24 CP5 151 -11.475
24 CP5 152 -10.498
24 CP5 153 -8.545
24 CP5 154 -7.080
24 CP5 155 -5.127
24 CP5 156 -2.686
24 CP5 157 -0.244
24 CP5 158 1.221
24 CP5 159 1.221
24 CP5 160 -0.244
24 CP5 161 -1.709
24 CP5 162 -2.197
24 CP5 163 -1.221
24 CP5 164 0.244
24 CP5 165 1.709
24 CP5 166 2.686
24 CP5 167 3.174
24 CP5 168 3.662
24 CP5 169 4.150
24 CP5 170 3.174
24 CP5 171 1.221
24 CP5 172 -1.221
24 CP5 173 -3.174
24 CP5 174 -3.662
24 CP5 175 -1.709
24 CP5 176 0.244
24 CP5 177 2.197
24 CP5 178 2.686
24 CP5 179 2.197
24 CP5 180 2.197
24 CP5 181 2.197
24 CP5 182 2.197
24 CP5 183 1.221
24 CP5 184 -1.221
24 CP5 185 -3.662
24 CP5 186 -4.639
24 CP5 187 -3.662
24 CP5 188 -0.732
24 CP5 189 2.197
24 CP5 190 4.150
24 CP5 191 4.639
24 CP5 192 3.174
24 CP5 193 2.197
24 CP5 194 1.221
24 CP5 195 1.221
24 CP5 196 0.732
24 CP5 197 0.732
24 CP5 198 -0.244
24 CP5 199 -1.709
24 CP5 200 -3.662
24 CP5 201 -5.127
24 CP5 202 -6.592
24 CP5 203 -7.080
24 CP5 204 -6.592
24 CP5 205 -4.639
24 CP5 206 -1.709
24 CP5 207 1.221
24 CP5 208 3.662
24 CP5 209 4.150
24 CP5 210 3.662
24 CP5 211 1.709
24 CP5 212 -1.221
24 CP5 213 -4.639
24 CP5 214 -8.545
24 CP5 215 -10.498
24 CP5 216 -10.010
24 CP5 217 -7.568
24 CP5 218 -3.662
24 CP5 219 0.244
24 CP5 220 2.197
24 CP5 221 2.686
24 CP5 222 1.709
24 CP5 223 -0.244
24 CP5 224 -2.686
24 CP5 225 -5.615
24 CP5 226 -8.057
24 CP5 227 -10.010
24 CP5 228 -9.521
24 CP5 229 -6.592
24 CP5 230 -1.221
24 CP5 231 4.639
24 CP5 232 8.057
24 CP5 233 8.545
24 CP5 234 6.104
24 CP5 235 3.174
24 CP5 236 1.221
24 CP5 237 1.221
24 CP5 238 1.709
24 CP5 239 2.686
24 CP5 240 3.662
24 CP5 241 4.639
24 CP5 242 5.127
24 CP5 243 5.615
24 CP5 244 6.104
24 CP5 245 6.104
24 CP5 246 6.592
24 CP5 247 7.568
24 CP5 248 9.033
24 CP5 249 9.521
24 CP5 250 9.033
24 CP5 251 7.568
24 CP5 252 5.615
24 CP5 253 4.150
24 CP5 254 3.174
24 CP5 255 2.686
# CP6 chan 19
24 CP6 0 0.275
24 CP6 1 -7.050
24 CP6 2 -11.444
24 CP6 3 -10.956
24 CP6 4 -6.561
24 CP6 5 -1.678
24 CP6 6 1.740
24 CP6 7 2.228
24 CP6 8 1.251
24 CP6 9 0.275
24 CP6 10 0.275
24 CP6 11 0.275
24 CP6 12 -1.190
24 CP6 13 -3.632
24 CP6 14 -6.073
24 CP6 15 -7.050
24 CP6 16 -5.096
24 CP6 17 -1.190
24 CP6 18 2.228
24 CP6 19 3.693
24 CP6 20 3.693
24 CP6 21 3.693
24 CP6 22 3.204
24 CP6 23 3.204
24 CP6 24 2.228
24 CP6 25 -0.702
24 CP6 26 -5.096
24 CP6 27 -8.026
24 CP6 28 -9.003
24 CP6 29 -7.050
24 CP6 30 -4.120
24 CP6 31 -1.678
24 CP6 32 -1.190
24 CP6 33 -1.678
24 CP6 34 -2.655
24 CP6 35 -3.143
24 CP6 36 -2.167
24 CP6 37 -1.190
24 CP6 38 0.275
24 CP6 39 1.251
24 CP6 40 1.740
24 CP6 41 2.228
24 CP6 42 1.740
24 CP6 43 0.275
24 CP6 44 -1.678
24 CP6 45 -3.143
24 CP6 46 -3.143
24 CP6 47 -2.167
24 CP6 48 -0.702
24 CP6 49 -0.214
24 CP6 50 -0.702
24 CP6 51 -1.190
24 CP6 52 0.275
24 CP6 53 3.204
24 CP6 54 7.111
24 CP6 55 9.064
24 CP6 56 9.064
24 CP6 57 6.622
24 CP6 58 3.693
24 CP6 59 2.228
24 CP6 60 2.228
24 CP6 61 3.693
24 CP6 62 4.669
24 CP6 63 5.157
24 CP6 64 4.669
24 CP6 65 4.181
24 CP6 66 3.693
24 CP6 67 4.181
24 CP6 68 4.669
24 CP6 69 3.693
24 CP6 70 1.740
24 CP6 71 -0.214
24 CP6 72 -1.678
24 CP6 73 -1.190
24 CP6 74 0.763
24 CP6 75 2.716
24 CP6 76 3.693
24 CP6 77 3.204
24 CP6 78 2.228
24 CP6 79 2.228
24 CP6 80 3.204
24 CP6 81 3.204
24 CP6 82 2.716
24 CP6 83 0.763
24 CP6 84 -0.214
24 CP6 85 -0.214
24 CP6 86 1.740
24 CP6 87 3.204
24 CP6 88 4.181
24 CP6 89 3.693
24 CP6 90 1.740
24 CP6 91 0.275
24 CP6 92 -0.702
24 CP6 93 -2.167
24 CP6 94 -3.632
24 CP6 95 -5.096
24 CP6 96 -5.096
24 CP6 97 -3.143
24 CP6 98 0.275
24 CP6 99 2.228
24 CP6 100 2.228
24 CP6 101 -1.190
24 CP6 102 -6.073
24 CP6 103 -10.468
24 CP6 104 -11.932
24 CP6 105 -9.979
24 CP6 106 -6.073
24 CP6 107 -2.167
24 CP6 108 0.763
24 CP6 109 2.716
24 CP6 110 3.204
24 CP6 111 3.204
24 CP6 112 3.204
24 CP6 113 1.740
24 CP6 114 -0.214
24 CP6 115 -2.655
24 CP6 116 -5.096
24 CP6 117 -5.585
24 CP6 118 -3.632
24 CP6 119 -0.702
24 CP6 120 2.228
24 CP6 121 3.693
24 CP6 122 3.204
24 CP6 123 1.740
24 CP6 124 -0.214
24 CP6 125 -1.190
24 CP6 126 -2.167
24 CP6 127 -4.120
24 CP6 128 -6.073
24 CP6 129 -8.514
24 CP6 130 -9.491
24 CP6 131 -8.026
24 CP6 132 -4.608
24 CP6 133 -1.678
24 CP6 134 -0.702
24 CP6 135 -2.655
24 CP6 136 -6.073
24 CP6 137 -9.003
24 CP6 138 -9.491
24 CP6 139 -7.538
24 CP6 140 -4.120
24 CP6 141 -0.702
24 CP6 142 0.763
24 CP6 143 1.251
24 CP6 144 0.763
24 CP6 145 -0.214
24 CP6 146 -1.190
24 CP6 147 -0.702
24 CP6 148 -0.214
24 CP6 149 0.763
24 CP6 150 1.740
24 CP6 151 1.740
24 CP6 152 1.251
24 CP6 153 0.763
24 CP6 154 -0.214
24 CP6 155 0.275
24 CP6 156 1.251
24 CP6 157 2.228
24 CP6 158 2.228
24 CP6 159 0.763
24 CP6 160 -1.678
24 CP6 161 -4.608
24 CP6 162 -5.096
24 CP6 163 -4.120
24 CP6 164 -2.167
24 CP6 165 -0.214
24 CP6 166 1.251
24 CP6 167 2.716
24 CP6 168 4.181
24 CP6 169 6.622
24 CP6 170 8.087
24 CP6 171 9.552
24 CP6 172 10.040
24 CP6 173 10.529
24 CP6 174 10.529
24 CP6 175 10.040
24 CP6 176 8.087
24 CP6 177 3.693
24 CP6 178 -1.678
24 CP6 179 -6.073
24 CP6 180 -8.514
24 CP6 181 -9.003
24 CP6 182 -8.026
24 CP6 183 -7.538
24 CP6 184 -8.514
24 CP6 185 -9.979
24 CP6 186 -9.979
24 CP6 187 -8.514
24 CP6 188 -6.073
24 CP6 189 -3.632
24 CP6 190 -2.167
24 CP6 191 -2.655
24 CP6 192 -4.120
24 CP6 193 -6.073
24 CP6 194 -8.514
24 CP6 195 -9.979
24 CP6 196 -9.979
24 CP6 197 -8.514
24 CP6 198 -7.050
24 CP6 199 -4.608
24 CP6 200 -3.143
24 CP6 201 -3.143
24 CP6 202 -3.632
24 CP6 203 -5.585
24 CP6 204 -7.538
24 CP6 205 -9.003
24 CP6 206 -9.491
24 CP6 207 -9.003
24 CP6 208 -7.538
24 CP6 209 -6.073
24 CP6 210 -4.608
24 CP6 211 -3.632
24 CP6 212 -3.632
24 CP6 213 -5.096
24 CP6 214 -6.561
24 CP6 215 -6.561
24 CP6 216 -5.096
24 CP6 217 -2.655
24 CP6 218 0.275
24 CP6 219 3.204
24 CP6 220 4.669
24 CP6 221 5.646
24 CP6 222 6.134
24 CP6 223 4.669
24 CP6 224 2.228
24 CP6 225 -1.678
24 CP6 226 -3.632
24 CP6 227 -3.143
24 CP6 228 -0.214
24 CP6 229 3.693
24 CP6 230 7.111
24 CP6 231 7.599
24 CP6 232 7.111
24 CP6 233 7.111
24 CP6 234 7.599
24 CP6 235 8.087
24 CP6 236 6.622
24 CP6 237 3.693
24 CP6 238 0.275
24 CP6 239 -1.190
24 CP6 240 0.275
24 CP6 241 4.181
24 CP6 242 7.111
24 CP6 243 8.087
24 CP6 244 6.622
24 CP6 245 4.669
24 CP6 246 3.693
24 CP6 247 4.181
24 CP6 248 4.181
24 CP6 249 3.693
24 CP6 250 3.204
24 CP6 251 3.204
24 CP6 252 3.204
24 CP6 253 3.693
24 CP6 254 3.204
24 CP6 255 1.740
# CP1 chan 20
24 CP1 0 -3.021
24 CP1 1 -4.486
24 CP1 2 -4.974
24 CP1 3 -4.486
24 CP1 4 -3.510
24 CP1 5 -1.556
24 CP1 6 0.397
24 CP1 7 1.862
24 CP1 8 2.350
24 CP1 9 1.862
24 CP1 10 1.373
24 CP1 11 -0.092
24 CP1 12 -1.556
24 CP1 13 -3.021
24 CP1 14 -4.486
24 CP1 15 -4.974
24 CP1 16 -3.998
24 CP1 17 -2.533
24 CP1 18 -0.580
24 CP1 19 2.350
24 CP1 20 4.303
24 CP1 21 5.280
24 CP1 22 5.280
24 CP1 23 3.815
24 CP1 24 1.862
24 CP1 25 -1.068
24 CP1 26 -3.510
24 CP1 27 -5.951
24 CP1 28 -6.927
24 CP1 29 -6.927
24 CP1 30 -5.463
24 CP1 31 -3.021
24 CP1 32 0.397
24 CP1 33 2.838
24 CP1 34 4.303
24 CP1 35 4.303
24 CP1 36 2.838
24 CP1 37 0.397
24 CP1 38 -1.556
24 CP1 39 -2.533
24 CP1 40 -3.021
24 CP1 41 -2.045
24 CP1 42 -0.580
24 CP1 43 0.885
24 CP1 44 0.885
24 CP1 45 -0.092
24 CP1 46 -1.556
24 CP1 47 -3.021
24 CP1 48 -3.998
24 CP1 49 -3.998
24 CP1 50 -3.998
24 CP1 51 -3.998
24 CP1 52 -3.510
24 CP1 53 -3.021
24 CP1 54 -2.045
24 CP1 55 -1.556
24 CP1 56 -1.556
24 CP1 57 -2.045
24 CP1 58 -3.021
24 CP1 59 -4.486
24 CP1 60 -4.974
24 CP1 61 -4.974
24 CP1 62 -3.998
24 CP1 63 -3.021
24 CP1 64 -1.068
24 CP1 65 0.885
24 CP1 66 2.350
24 CP1 67 3.815
24 CP1 68 3.326
24 CP1 69 1.862
24 CP1 70 -0.092
24 CP1 71 -0.092
24 CP1 72 -0.092
24 CP1 73 0.885
24 CP1 74 0.885
24 CP1 75 0.397
24 CP1 76 -1.556
24 CP1 77 -2.533
24 CP1 78 -3.021
24 CP1 79 -2.533
24 CP1 80 -2.045
24 CP1 81 -1.556
24 CP1 82 -1.068
24 CP1 83 -1.068
24 CP1 84 -1.068
24 CP1 85 -0.092
24 CP1 86 0.397
24 CP1 87 0.885
24 CP1 88 1.862
24 CP1 89 2.350
24 CP1 90 2.350
24 CP1 91 1.373
24 CP1 92 -1.068
24 CP1 93 -3.998
24 CP1 94 -5.951
24 CP1 95 -6.439
24 CP1 96 -5.463
24 CP1 97 -3.510
24 CP1 98 -1.556
24 CP1 99 -0.580
24 CP1 100 -0.580
24 CP1 101 -0.580
24 CP1 102 -1.068
24 CP1 103 -1.068
24 CP1 104 -2.045
24 CP1 105 -3.021
24 CP1 106 -3.998
24 CP1 107 -3.998
24 CP1 108 -3.510
24 CP1 109 -2.045
24 CP1 110 -1.068
24 CP1 111 -0.580
24 CP1 112 -1.556
24 CP1 113 -3.021
24 CP1 114 -3.998
24 CP1 115 -4.974
24 CP1 116 -3.998
24 CP1 117 -2.533
24 CP1 118 -1.068
24 CP1 119 -0.092
24 CP1 120 -0.092
24 CP1 121 -1.556
24 CP1 122 -3.510
24 CP1 123 -5.463
24 CP1 124 -6.439
24 CP1 125 -5.951
24 CP1 126 -3.021
24 CP1 127 0.885
24 CP1 128 4.791
24 CP1 129 6.744
24 CP1 130 6.744
24 CP1 131 4.791
24 CP1 132 1.862
24 CP1 133 -0.580
24 CP1 134 -2.533
24 CP1 135 -3.510
24 CP1 136 -3.021
24 CP1 137 -2.045
24 CP1 138 -0.092
24 CP1 139 2.350
24 CP1 140 3.326
24 CP1 141 2.838
24 CP1 142 0.885
24 CP1 143 -1.556
24 CP1 144 -3.510
24 CP1 145 -4.486
24 CP1 146 -5.463
24 CP1 147 -5.951
24 CP1 148 -6.439
24 CP1 149 -6.927
24 CP1 150 -6.439
24 CP1 151 -5.463
24 CP1 152 -3.510
24 CP1 153 -2.045
24 CP1 154 -1.556
24 CP1 155 -1.068
24 CP1 156 -0.580
24 CP1 157 0.397
24 CP1 158 1.373
24 CP1 159 1.862
24 CP1 160 1.373
24 CP1 161 0.397
24 CP1 162 -0.580
24 CP1 163 -0.580
24 CP1 164 0.397
24 CP1 165 1.373
24 CP1 166 2.350
24 CP1 167 2.838
24 CP1 168 2.350
24 CP1 169 1.373
24 CP1 170 0.397
24 CP1 171 -1.068
24 CP1 172 -2.533
24 CP1 173 -3.021
24 CP1 174 -3.021
24 CP1 175 -2.533
24 CP1 176 -1.068
24 CP1 177 0.397
24 CP1 178 1.862
24 CP1 179 2.350
24 CP1 180 2.350
24 CP1 181 1.862
24 CP1 182 1.373
24 CP1 183 0.397
24 CP1 184 -0.580
24 CP1 185 -1.556
24 CP1 186 -1.556
24 CP1 187 -1.068
24 CP1 188 -0.092
24 CP1 189 1.373
24 CP1 190 2.838
24 CP1 191 3.815
24 CP1 192 3.815
24 CP1 193 3.815
24 CP1 194 3.815
24 CP1 195 3.815
24 CP1 196 3.326
24 CP1 197 2.838
24 CP1 198 2.350
24 CP1 199 1.862
24 CP1 200 0.885
24 CP1 201 0.885
24 CP1 202 -0.092
24 CP1 203 -0.580
24 CP1 204 -0.580
24 CP1 205 0.397
24 CP1 206 1.862
24 CP1 207 3.326
24 CP1 208 5.280
24 CP1 209 5.768
24 CP1 210 5.280
24 CP1 211 4.303
24 CP1 212 2.350
24 CP1 213 0.397
24 CP1 214 -1.068
24 CP1 215 -1.556
24 CP1 216 -1.556
24 CP1 217 -0.580
24 CP1 218 0.885
24 CP1 219 2.350
24 CP1 220 3.326
24 CP1 221 3.815
24 CP1 222 3.815
24 CP1 223 2.350
24 CP1 224 0.397
24 CP1 225 -2.045
24 CP1 226 -4.486
24 CP1 227 -5.951
24 CP1 228 -4.974
24 CP1 229 -2.533
24 CP1 230 1.373
24 CP1 231 4.791
24 CP1 232 6.256
24 CP1 233 5.768
24 CP1 234 4.303
24 CP1 235 1.862
24 CP1 236 0.397
24 CP1 237 -0.580
24 CP1 238 -0.580
24 CP1 239 -0.092
24 CP1 240 0.885
24 CP1 241 1.862
24 CP1 242 2.838
24 CP1 243 3.815
24 CP1 244 4.303
24 CP1 245 4.791
24 CP1 246 4.791
24 CP1 247 4.791
24 CP1 248 3.815
24 CP1 249 3.326
24 CP1 250 2.838
24 CP1 251 2.350
24 CP1 252 2.350
24 CP1 253 1.862
24 CP1 254 1.373
24 CP1 255 0.397
# CP2 chan 21
24 CP2 0 -0.692
24 CP2 1 -4.110
24 CP2 2 -6.551
24 CP2 3 -7.039
24 CP2 4 -5.575
24 CP2 5 -3.133
24 CP2 6 -0.203
24 CP2 7 1.261
24 CP2 8 1.750
24 CP2 9 1.261
24 CP2 10 0.773
24 CP2 11 -0.692
24 CP2 12 -2.157
24 CP2 13 -3.621
24 CP2 14 -4.598
24 CP2 15 -4.598
24 CP2 16 -3.621
24 CP2 17 -1.668
24 CP2 18 0.773
24 CP2 19 2.726
24 CP2 20 3.703
24 CP2 21 3.703
24 CP2 22 3.215
24 CP2 23 1.750
24 CP2 24 -0.203
24 CP2 25 -1.668
24 CP2 26 -3.621
24 CP2 27 -4.110
24 CP2 28 -4.110
24 CP2 29 -3.621
24 CP2 30 -2.645
24 CP2 31 -2.157
24 CP2 32 -1.668
24 CP2 33 -1.668
24 CP2 34 -1.668
24 CP2 35 -1.668
24 CP2 36 -1.180
24 CP2 37 -0.692
24 CP2 38 -0.203
24 CP2 39 -0.203
24 CP2 40 0.285
24 CP2 41 -0.203
24 CP2 42 -0.692
24 CP2 43 -1.180
24 CP2 44 -1.668
24 CP2 45 -1.668
24 CP2 46 -0.692
24 CP2 47 0.285
24 CP2 48 0.773
24 CP2 49 0.773
24 CP2 50 -0.203
24 CP2 51 -0.203
24 CP2 52 0.285
24 CP2 53 1.750
24 CP2 54 4.191
24 CP2 55 5.168
24 CP2 56 4.679
24 CP2 57 3.215
24 CP2 58 1.750
24 CP2 59 0.773
24 CP2 60 0.285
24 CP2 61 0.773
24 CP2 62 1.261
24 CP2 63 1.750
24 CP2 64 1.750
24 CP2 65 2.238
24 CP2 66 3.215
24 CP2 67 3.703
24 CP2 68 3.703
24 CP2 69 2.726
24 CP2 70 1.261
24 CP2 71 -0.203
24 CP2 72 -0.203
24 CP2 73 0.285
24 CP2 74 1.261
24 CP2 75 1.750
24 CP2 76 2.238
24 CP2 77 2.238
24 CP2 78 2.238
24 CP2 79 2.238
24 CP2 80 2.726
24 CP2 81 2.726
24 CP2 82 2.726
24 CP2 83 1.750
24 CP2 84 0.773
24 CP2 85 0.773
24 CP2 86 1.261
24 CP2 87 2.238
24 CP2 88 3.215
24 CP2 89 3.703
24 CP2 90 3.215
24 CP2 91 2.238
24 CP2 92 0.773
24 CP2 93 -0.692
24 CP2 94 -1.668
24 CP2 95 -2.157
24 CP2 96 -1.668
24 CP2 97 -0.692
24 CP2 98 0.773
24 CP2 99 1.750
24 CP2 100 1.261
24 CP2 101 -0.203
24 CP2 102 -2.157
24 CP2 103 -3.621
24 CP2 104 -4.598
24 CP2 105 -4.110
24 CP2 106 -2.645
24 CP2 107 -1.180
24 CP2 108 0.285
24 CP2 109 1.261
24 CP2 110 1.750
24 CP2 111 1.750
24 CP2 112 1.261
24 CP2 113 0.285
24 CP2 114 -1.180
24 CP2 115 -2.645
24 CP2 116 -3.621
24 CP2 117 -3.621
24 CP2 118 -2.157
24 CP2 119 -0.203
24 CP2 120 1.750
24 CP2 121 3.215
24 CP2 122 2.726
24 CP2 123 1.750
24 CP2 124 0.285
24 CP2 125 -1.180
24 CP2 126 -2.157
24 CP2 127 -2.645
24 CP2 128 -2.645
24 CP2 129 -2.157
24 CP2 130 -1.668
24 CP2 131 -0.692
24 CP2 132 0.285
24 CP2 133 1.261
24 CP2 134 1.261
24 CP2 135 -0.203
24 CP2 136 -1.668
24 CP2 137 -3.133
24 CP2 138 -3.133
24 CP2 139 -1.668
24 CP2 140 0.285
24 CP2 141 1.750
24 CP2 142 2.726
24 CP2 143 3.215
24 CP2 144 2.726
24 CP2 145 2.238
24 CP2 146 1.750
24 CP2 147 1.750
24 CP2 148 1.261
24 CP2 149 1.261
24 CP2 150 0.773
24 CP2 151 0.285
24 CP2 152 -0.203
24 CP2 153 -0.203
24 CP2 154 -0.203
24 CP2 155 -0.203
24 CP2 156 0.773
24 CP2 157 1.261
24 CP2 158 1.750
24 CP2 159 1.750
24 CP2 160 0.773
24 CP2 161 -0.203
24 CP2 162 -0.692
24 CP2 163 -0.692
24 CP2 164 0.285
24 CP2 165 1.750
24 CP2 166 3.215
24 CP2 167 3.703
24 CP2 168 4.679
24 CP2 169 5.656
24 CP2 170 5.656
24 CP2 171 6.144
24 CP2 172 6.144
24 CP2 173 6.144
24 CP2 174 5.656
24 CP2 175 4.679
24 CP2 176 3.703
24 CP2 177 2.238
24 CP2 178 1.261
24 CP2 179 0.285
24 CP2 180 -0.203
24 CP2 181 -0.203
24 CP2 182 -0.692
24 CP2 183 -1.668
24 CP2 184 -2.645
24 CP2 185 -3.133
24 CP2 186 -3.133
24 CP2 187 -2.157
24 CP2 188 0.285
24 CP2 189 2.238
24 CP2 190 3.703
24 CP2 191 3.703
24 CP2 192 2.238
24 CP2 193 0.285
24 CP2 194 -1.180
24 CP2 195 -1.180
24 CP2 196 -1.180
24 CP2 197 -0.203
24 CP2 198 1.261
24 CP2 199 2.238
24 CP2 200 2.726
24 CP2 201 3.215
24 CP2 202 2.726
24 CP2 203 1.750
24 CP2 204 0.773
24 CP2 205 0.285
24 CP2 206 -0.203
24 CP2 207 0.285
24 CP2 208 0.773
24 CP2 209 1.750
24 CP2 210 1.750
24 CP2 211 1.750
24 CP2 212 1.261
24 CP2 213 0.773
24 CP2 214 0.285
24 CP2 215 0.285
24 CP2 216 1.261
24 CP2 217 1.750
24 CP2 218 3.215
24 CP2 219 4.191
24 CP2 220 5.168
24 CP2 221 6.144
24 CP2 222 6.632
24 CP2 223 6.144
24 CP2 224 4.191
24 CP2 225 1.750
24 CP2 226 -0.203
24 CP2 227 -0.692
24 CP2 228 0.285
24 CP2 229 2.726
24 CP2 230 4.679
24 CP2 231 6.144
24 CP2 232 6.632
24 CP2 233 6.632
24 CP2 234 6.632
24 CP2 235 5.656
24 CP2 236 4.191
24 CP2 237 2.238
24 CP2 238 0.773
24 CP2 239 -0.203
24 CP2 240 1.261
24 CP2 241 3.215
24 CP2 242 5.168
24 CP2 243 5.656
24 CP2 244 5.656
24 CP2 245 4.679
24 CP2 246 4.191
24 CP2 247 3.215
24 CP2 248 2.726
24 CP2 249 2.238
24 CP2 250 1.750
24 CP2 251 2.238
24 CP2 252 2.726
24 CP2 253 3.215
24 CP2 254 2.726
24 CP2 255 1.261
# P3 chan 22
24 P3 0 -3.703
24 P3 1 -5.656
24 P3 2 -7.121
24 P3 3 -7.121
24 P3 4 -6.144
24 P3 5 -4.191
24 P3 6 -1.750
24 P3 7 0.692
24 P3 8 1.668
24 P3 9 1.668
24 P3 10 0.692
24 P3 11 -0.773
24 P3 12 -2.238
24 P3 13 -3.703
24 P3 14 -5.168
24 P3 15 -5.656
24 P3 16 -4.679
24 P3 17 -2.238
24 P3 18 1.668
24 P3 19 5.575
24 P3 20 8.016
24 P3 21 8.504
24 P3 22 7.528
24 P3 23 4.598
24 P3 24 0.692
24 P3 25 -3.703
24 P3 26 -7.609
24 P3 27 -11.027
24 P3 28 -12.492
24 P3 29 -12.004
24 P3 30 -9.562
24 P3 31 -5.168
24 P3 32 -0.773
24 P3 33 3.133
24 P3 34 5.086
24 P3 35 4.598
24 P3 36 3.133
24 P3 37 0.692
24 P3 38 -2.238
24 P3 39 -4.679
24 P3 40 -5.168
24 P3 41 -3.703
24 P3 42 -1.261
24 P3 43 0.692
24 P3 44 1.180
24 P3 45 -0.773
24 P3 46 -3.215
24 P3 47 -5.168
24 P3 48 -6.144
24 P3 49 -6.632
24 P3 50 -6.632
24 P3 51 -7.121
24 P3 52 -7.121
24 P3 53 -6.632
24 P3 54 -4.679
24 P3 55 -2.726
24 P3 56 -2.238
24 P3 57 -2.726
24 P3 58 -4.679
24 P3 59 -6.144
24 P3 60 -6.632
24 P3 61 -6.144
24 P3 62 -5.168
24 P3 63 -3.703
24 P3 64 -1.750
24 P3 65 0.692
24 P3 66 3.621
24 P3 67 5.575
24 P3 68 4.598
24 P3 69 2.645
24 P3 70 0.203
24 P3 71 -0.773
24 P3 72 0.692
24 P3 73 2.645
24 P3 74 3.133
24 P3 75 1.668
24 P3 76 -1.261
24 P3 77 -3.703
24 P3 78 -4.679
24 P3 79 -4.191
24 P3 80 -3.703
24 P3 81 -4.191
24 P3 82 -4.679
24 P3 83 -4.191
24 P3 84 -4.191
24 P3 85 -3.215
24 P3 86 -2.238
24 P3 87 -1.261
24 P3 88 -0.285
24 P3 89 1.180
24 P3 90 1.668
24 P3 91 -0.285
24 P3 92 -3.703
24 P3 93 -8.586
24 P3 94 -12.004
24 P3 95 -12.980
24 P3 96 -11.027
24 P3 97 -8.097
24 P3 98 -5.656
24 P3 99 -4.191
24 P3 100 -3.703
24 P3 101 -3.703
24 P3 102 -3.703
24 P3 103 -4.191
24 P3 104 -6.144
24 P3 105 -9.074
24 P3 106 -11.515
24 P3 107 -12.004
24 P3 108 -10.539
24 P3 109 -7.121
24 P3 110 -4.191
24 P3 111 -2.726
24 P3 112 -3.703
24 P3 113 -6.144
24 P3 114 -8.586
24 P3 115 -9.562
24 P3 116 -8.586
24 P3 117 -6.144
24 P3 118 -3.703
24 P3 119 -2.238
24 P3 120 -2.726
24 P3 121 -3.703
24 P3 122 -6.144
24 P3 123 -8.586
24 P3 124 -10.050
24 P3 125 -9.562
24 P3 126 -6.632
24 P3 127 -2.726
24 P3 128 1.668
24 P3 129 4.598
24 P3 130 4.598
24 P3 131 2.157
24 P3 132 -1.261
24 P3 133 -4.191
24 P3 134 -6.144
24 P3 135 -6.144
24 P3 136 -4.679
24 P3 137 -2.238
24 P3 138 0.692
24 P3 139 3.621
24 P3 140 4.110
24 P3 141 3.133
24 P3 142 0.203
24 P3 143 -3.703
24 P3 144 -6.144
24 P3 145 -7.609
24 P3 146 -8.586
24 P3 147 -9.562
24 P3 148 -11.027
24 P3 149 -12.004
24 P3 150 -11.515
24 P3 151 -10.050
24 P3 152 -7.609
24 P3 153 -5.656
24 P3 154 -5.168
24 P3 155 -4.679
24 P3 156 -4.191
24 P3 157 -2.238
24 P3 158 0.203
24 P3 159 1.668
24 P3 160 1.180
24 P3 161 0.203
24 P3 162 -1.261
24 P3 163 -1.261
24 P3 164 -0.285
24 P3 165 1.180
24 P3 166 2.645
24 P3 167 3.621
24 P3 168 4.110
24 P3 169 4.110
24 P3 170 3.621
24 P3 171 2.157
24 P3 172 0.203
24 P3 173 -1.261
24 P3 174 -2.238
24 P3 175 -2.238
24 P3 176 -1.261
24 P3 177 0.203
24 P3 178 1.180
24 P3 179 1.180
24 P3 180 1.180
24 P3 181 0.692
24 P3 182 0.203
24 P3 183 -1.261
24 P3 184 -3.215
24 P3 185 -4.679
24 P3 186 -5.168
24 P3 187 -3.703
24 P3 188 -0.773
24 P3 189 1.668
24 P3 190 4.110
24 P3 191 4.598
24 P3 192 4.110
24 P3 193 2.645
24 P3 194 2.157
24 P3 195 1.668
24 P3 196 1.668
24 P3 197 1.668
24 P3 198 1.180
24 P3 199 0.692
24 P3 200 0.203
24 P3 201 -0.773
24 P3 202 -1.750
24 P3 203 -3.215
24 P3 204 -3.703
24 P3 205 -3.215
24 P3 206 -1.261
24 P3 207 1.668
24 P3 208 4.598
24 P3 209 5.575
24 P3 210 5.086
24 P3 211 2.645
24 P3 212 -0.285
24 P3 213 -3.215
24 P3 214 -4.679
24 P3 215 -4.679
24 P3 216 -3.703
24 P3 217 -1.750
24 P3 218 0.692
24 P3 219 2.645
24 P3 220 3.621
24 P3 221 3.621
24 P3 222 3.133
24 P3 223 1.668
24 P3 224 -0.285
24 P3 225 -3.215
24 P3 226 -6.144
24 P3 227 -8.097
24 P3 228 -7.121
24 P3 229 -3.215
24 P3 230 2.157
24 P3 231 7.039
24 P3 232 9.481
24 P3 233 8.993
24 P3 234 6.063
24 P3 235 3.133
24 P3 236 1.180
24 P3 237 0.203
24 P3 238 -0.285
24 P3 239 0.203
24 P3 240 1.180
24 P3 241 2.645
24 P3 242 4.598
24 P3 243 5.575
24 P3 244 7.039
24 P3 245 7.039
24 P3 246 7.528
24 P3 247 8.016
24 P3 248 8.504
24 P3 249 8.016
24 P3 250 6.551
24 P3 251 5.086
24 P3 252 3.621
24 P3 253 2.645
24 P3 254 1.668
24 P3 255 0.692
# P4 chan 23
24 P4 0 0.610
24 P4 1 -4.761
24 P4 2 -8.667
24 P4 3 -10.132
24 P4 4 -8.179
24 P4 5 -4.272
24 P4 6 -0.854
24 P4 7 1.099
24 P4 8 1.587
24 P4 9 1.099
24 P4 10 0.122
24 P4 11 -0.366
24 P4 12 -1.831
24 P4 13 -3.296
24 P4 14 -5.249
24 P4 15 -5.737
24 P4 16 -4.761
24 P4 17 -1.343
24 P4 18 2.075
24 P4 19 5.005
24 P4 20 6.958
24 P4 21 6.958
24 P4 22 5.981
24 P4 23 4.028
24 P4 24 0.610
24 P4 25 -2.808
24 P4 26 -6.714
24 P4 27 -9.155
24 P4 28 -9.644
24 P4 29 -8.179
24 P4 30 -6.226
24 P4 31 -4.272
24 P4 32 -2.808
24 P4 33 -1.831
24 P4 34 -1.831
24 P4 35 -1.343
24 P4 36 -1.343
24 P4 37 -1.343
24 P4 38 -1.343
24 P4 39 -0.854
24 P4 40 -0.366
24 P4 41 -0.366
24 P4 42 -1.343
24 P4 43 -2.808
24 P4 44 -4.272
24 P4 45 -4.272
24 P4 46 -3.296
24 P4 47 -1.343
24 P4 48 -0.366
24 P4 49 0.122
24 P4 50 -0.366
24 P4 51 -0.854
24 P4 52 0.610
24 P4 53 3.540
24 P4 54 7.446
24 P4 55 9.399
24 P4 56 8.911
24 P4 57 6.958
24 P4 58 4.517
24 P4 59 3.052
24 P4 60 3.052
24 P4 61 3.540
24 P4 62 4.517
24 P4 63 5.005
24 P4 64 5.005
24 P4 65 5.493
24 P4 66 6.470
24 P4 67 6.958
24 P4 68 6.470
24 P4 69 5.493
24 P4 70 3.540
24 P4 71 2.075
24 P4 72 2.075
24 P4 73 2.563
24 P4 74 4.028
24 P4 75 5.005
24 P4 76 4.517
24 P4 77 3.540
24 P4 78 3.052
24 P4 79 3.052
24 P4 80 3.540
24 P4 81 4.028
24 P4 82 3.052
24 P4 83 1.587
24 P4 84 0.610
24 P4 85 1.099
24 P4 86 2.563
24 P4 87 4.517
24 P4 88 6.470
24 P4 89 6.470
24 P4 90 5.493
24 P4 91 3.052
24 P4 92 0.122
24 P4 93 -2.808
24 P4 94 -4.761
24 P4 95 -5.249
24 P4 96 -4.272
24 P4 97 -2.319
24 P4 98 0.122
24 P4 99 1.587
24 P4 100 1.099
24 P4 101 -0.366
24 P4 102 -3.784
24 P4 103 -6.714
24 P4 104 -8.179
24 P4 105 -8.179
24 P4 106 -6.226
24 P4 107 -3.784
24 P4 108 -1.831
24 P4 109 -0.366
24 P4 110 0.610
24 P4 111 1.099
24 P4 112 0.610
24 P4 113 -0.366
24 P4 114 -1.831
24 P4 115 -3.784
24 P4 116 -5.249
24 P4 117 -4.272
24 P4 118 -2.808
24 P4 119 0.122
24 P4 120 2.563
24 P4 121 3.052
24 P4 122 2.075
24 P4 123 0.610
24 P4 124 -0.854
24 P4 125 -1.831
24 P4 126 -2.319
24 P4 127 -3.296
24 P4 128 -3.784
24 P4 129 -4.272
24 P4 130 -3.784
24 P4 131 -2.808
24 P4 132 -1.343
24 P4 133 -0.366
24 P4 134 -1.343
24 P4 135 -3.296
24 P4 136 -6.226
24 P4 137 -7.690
24 P4 138 -7.202
24 P4 139 -4.272
24 P4 140 -0.366
24 P4 141 3.540
24 P4 142 5.493
24 P4 143 5.981
24 P4 144 5.005
24 P4 145 3.540
24 P4 146 2.563
24 P4 147 2.075
24 P4 148 2.075
24 P4 149 2.563
24 P4 150 2.563
24 P4 151 2.563
24 P4 152 1.587
24 P4 153 1.099
24 P4 154 0.122
24 P4 155 -0.366
24 P4 156 -0.366
24 P4 157 0.122
24 P4 158 0.610
24 P4 159 1.099
24 P4 160 0.610
24 P4 161 -0.366
24 P4 162 -1.343
24 P4 163 -1.831
24 P4 164 -0.854
24 P4 165 1.099
24 P4 166 3.540
24 P4 167 5.981
24 P4 168 7.935
24 P4 169 8.911
24 P4 170 9.399
24 P4 171 9.399
24 P4 172 9.399
24 P4 173 9.399
24 P4 174 9.888
24 P4 175 9.399
24 P4 176 7.935
24 P4 177 5.005
24 P4 178 2.075
24 P4 179 -0.854
24 P4 180 -2.808
24 P4 181 -3.784
24 P4 182 -4.761
24 P4 183 -5.737
24 P4 184 -6.714
24 P4 185 -7.202
24 P4 186 -6.714
24 P4 187 -4.272
24 P4 188 -0.854
24 P4 189 2.075
24 P4 190 4.028
24 P4 191 3.540
24 P4 192 1.587
24 P4 193 -1.343
24 P4 194 -3.784
24 P4 195 -4.761
24 P4 196 -3.784
24 P4 197 -1.831
24 P4 198 0.122
24 P4 199 1.099
24 P4 200 1.587
24 P4 201 0.610
24 P4 202 -0.366
24 P4 203 -1.831
24 P4 204 -2.808
24 P4 205 -3.784
24 P4 206 -4.272
24 P4 207 -4.761
24 P4 208 -3.784
24 P4 209 -2.808
24 P4 210 -1.831
24 P4 211 -1.831
24 P4 212 -2.319
24 P4 213 -2.808
24 P4 214 -3.296
24 P4 215 -2.319
24 P4 216 -0.366
24 P4 217 2.075
24 P4 218 4.028
24 P4 219 5.493
24 P4 220 6.470
24 P4 221 6.958
24 P4 222 6.958
24 P4 223 5.981
24 P4 224 3.052
24 P4 225 -0.366
24 P4 226 -2.808
24 P4 227 -2.808
24 P4 228 -0.854
24 P4 229 3.052
24 P4 230 6.958
24 P4 231 9.399
24 P4 232 9.888
24 P4 233 9.888
24 P4 234 9.399
24 P4 235 7.935
24 P4 236 5.493
24 P4 237 2.563
24 P4 238 0.122
24 P4 239 0.122
24 P4 240 1.587
24 P4 241 4.028
24 P4 242 5.981
24 P4 243 5.981
24 P4 244 5.005
24 P4 245 4.028
24 P4 246 3.540
24 P4 247 3.540
24 P4 248 3.052
24 P4 249 2.563
24 P4 250 1.587
24 P4 251 2.075
24 P4 252 3.540
24 P4 253 4.517
24 P4 254 4.028
24 P4 255 2.075
# PZ chan 24
24 PZ 0 -2.462
24 PZ 1 -5.880
24 PZ 2 -8.321
24 PZ 3 -9.298
24 PZ 4 -7.345
24 PZ 5 -4.903
24 PZ 6 -1.485
24 PZ 7 0.468
24 PZ 8 0.956
24 PZ 9 0.468
24 PZ 10 -0.997
24 PZ 11 -2.462
24 PZ 12 -3.927
24 PZ 13 -5.880
24 PZ 14 -6.368
24 PZ 15 -6.856
24 PZ 16 -6.368
24 PZ 17 -3.927
24 PZ 18 -0.997
24 PZ 19 1.933
24 PZ 20 4.862
24 PZ 21 5.839
24 PZ 22 5.351
24 PZ 23 2.421
24 PZ 24 -1.973
24 PZ 25 -6.368
24 PZ 26 -10.274
24 PZ 27 -12.716
24 PZ 28 -13.692
24 PZ 29 -12.716
24 PZ 30 -10.763
24 PZ 31 -7.833
24 PZ 32 -4.903
24 PZ 33 -2.462
24 PZ 34 -0.997
24 PZ 35 -0.020
24 PZ 36 -0.509
24 PZ 37 -1.485
24 PZ 38 -2.462
24 PZ 39 -3.438
24 PZ 40 -3.438
24 PZ 41 -2.950
24 PZ 42 -2.462
24 PZ 43 -2.462
24 PZ 44 -2.950
24 PZ 45 -3.438
24 PZ 46 -3.927
24 PZ 47 -3.927
24 PZ 48 -3.438
24 PZ 49 -3.438
24 PZ 50 -4.415
24 PZ 51 -4.903
24 PZ 52 -4.415
24 PZ 53 -2.950
24 PZ 54 -0.020
24 PZ 55 2.421
24 PZ 56 3.398
24 PZ 57 1.933
24 PZ 58 -0.509
24 PZ 59 -2.950
24 PZ 60 -4.415
24 PZ 61 -4.903
24 PZ 62 -4.903
24 PZ 63 -4.415
24 PZ 64 -3.438
24 PZ 65 -1.485
24 PZ 66 0.468
24 PZ 67 1.933
24 PZ 68 1.933
24 PZ 69 0.468
24 PZ 70 -1.485
24 PZ 71 -2.950
24 PZ 72 -2.462
24 PZ 73 -0.997
24 PZ 74 0.468
24 PZ 75 0.468
24 PZ 76 -0.509
24 PZ 77 -1.973
24 PZ 78 -2.950
24 PZ 79 -2.950
24 PZ 80 -1.973
24 PZ 81 -0.997
24 PZ 82 -0.997
24 PZ 83 -1.485
24 PZ 84 -2.462
24 PZ 85 -1.973
24 PZ 86 -1.485
24 PZ 87 -0.020
24 PZ 88 0.956
24 PZ 89 1.444
24 PZ 90 0.468
24 PZ 91 -1.973
24 PZ 92 -4.903
24 PZ 93 -8.321
24 PZ 94 -10.274
24 PZ 95 -10.274
24 PZ 96 -8.321
24 PZ 97 -5.391
24 PZ 98 -2.462
24 PZ 99 -0.997
24 PZ 100 -0.997
24 PZ 101 -1.973
24 PZ 102 -3.927
24 PZ 103 -5.880
24 PZ 104 -7.345
24 PZ 105 -8.809
24 PZ 106 -9.298
24 PZ 107 -9.298
24 PZ 108 -8.321
24 PZ 109 -6.856
24 PZ 110 -4.903
24 PZ 111 -3.927
24 PZ 112 -3.927
24 PZ 113 -4.903
24 PZ 114 -6.368
24 PZ 115 -7.833
24 PZ 116 -7.833
24 PZ 117 -5.880
24 PZ 118 -2.950
24 PZ 119 -0.509
24 PZ 120 1.444
24 PZ 121 1.444
24 PZ 122 -0.509
24 PZ 123 -2.950
24 PZ 124 -4.415
24 PZ 125 -4.903
24 PZ 126 -3.927
24 PZ 127 -1.485
24 PZ 128 0.956
24 PZ 129 1.933
24 PZ 130 1.933
24 PZ 131 1.444
24 PZ 132 0.468
24 PZ 133 -0.997
24 PZ 134 -2.462
24 PZ 135 -3.927
24 PZ 136 -4.415
24 PZ 137 -4.415
24 PZ 138 -2.462
24 PZ 139 -0.020
24 PZ 140 2.909
24 PZ 141 4.374
24 PZ 142 4.862
24 PZ 143 3.886
24 PZ 144 2.909
24 PZ 145 1.444
24 PZ 146 0.468
24 PZ 147 -0.997
24 PZ 148 -2.462
24 PZ 149 -3.438
24 PZ 150 -3.927
24 PZ 151 -3.438
24 PZ 152 -2.462
24 PZ 153 -1.973
24 PZ 154 -2.950
24 PZ 155 -2.950
24 PZ 156 -3.438
24 PZ 157 -1.973
24 PZ 158 -0.509
24 PZ 159 0.956
24 PZ 160 1.444
24 PZ 161 0.468
24 PZ 162 -0.997
24 PZ 163 -1.973
24 PZ 164 -1.485
24 PZ 165 0.468
24 PZ 166 2.909
24 PZ 167 4.862
24 PZ 168 5.839
24 PZ 169 5.839
24 PZ 170 4.862
24 PZ 171 4.374
24 PZ 172 3.398
24 PZ 173 2.909
24 PZ 174 2.909
24 PZ 175 2.909
24 PZ 176 1.933
24 PZ 177 1.444
24 PZ 178 0.468
24 PZ 179 -0.509
24 PZ 180 -0.997
24 PZ 181 -1.973
24 PZ 182 -2.950
24 PZ 183 -4.415
24 PZ 184 -5.391
24 PZ 185 -5.880
24 PZ 186 -5.880
24 PZ 187 -3.438
24 PZ 188 -0.509
24 PZ 189 2.909
24 PZ 190 4.862
24 PZ 191 5.351
24 PZ 192 4.374
24 PZ 193 2.421
24 PZ 194 1.444
24 PZ 195 1.444
24 PZ 196 2.421
24 PZ 197 3.886
24 PZ 198 4.374
24 PZ 199 4.862
24 PZ 200 4.374
24 PZ 201 3.398
24 PZ 202 2.421
24 PZ 203 0.956
24 PZ 204 -0.020
24 PZ 205 -0.509
24 PZ 206 -0.020
24 PZ 207 1.444
24 PZ 208 3.398
24 PZ 209 4.374
24 PZ 210 3.886
24 PZ 211 2.909
24 PZ 212 1.444
24 PZ 213 -0.020
24 PZ 214 -0.020
24 PZ 215 0.956
24 PZ 216 2.421
24 PZ 217 3.886
24 PZ 218 5.839
24 PZ 219 7.304
24 PZ 220 7.792
24 PZ 221 8.280
24 PZ 222 7.792
24 PZ 223 6.327
24 PZ 224 3.886
24 PZ 225 -0.020
24 PZ 226 -2.950
24 PZ 227 -3.927
24 PZ 228 -2.950
24 PZ 229 0.956
24 PZ 230 5.351
24 PZ 231 9.257
24 PZ 232 11.210
24 PZ 233 11.210
24 PZ 234 8.769
24 PZ 235 6.327
24 PZ 236 3.886
24 PZ 237 1.444
24 PZ 238 0.468
24 PZ 239 0.468
24 PZ 240 1.444
24 PZ 241 3.398
24 PZ 242 4.862
24 PZ 243 5.351
24 PZ 244 5.351
24 PZ 245 4.862
24 PZ 246 4.374
24 PZ 247 3.886
24 PZ 248 3.398
24 PZ 249 2.909
24 PZ 250 2.909
24 PZ 251 2.421
24 PZ 252 2.421
24 PZ 253 2.421
24 PZ 254 1.444
24 PZ 255 -0.020
# P8 chan 25
24 P8 0 2.157
24 P8 1 -6.144
24 P8 2 -12.004
24 P8 3 -13.468
24 P8 4 -10.050
24 P8 5 -4.679
24 P8 6 0.203
24 P8 7 2.157
24 P8 8 2.157
24 P8 9 1.180
24 P8 10 0.203
24 P8 11 -0.773
24 P8 12 -2.726
24 P8 13 -6.144
24 P8 14 -9.562
24 P8 15 -10.539
24 P8 16 -7.609
24 P8 17 -2.238
24 P8 18 2.157
24 P8 19 4.110
24 P8 20 4.110
24 P8 21 4.110
24 P8 22 3.621
24 P8 23 3.133
24 P8 24 1.180
24 P8 25 -3.215
24 P8 26 -8.097
24 P8 27 -11.515
24 P8 28 -11.515
24 P8 29 -8.586
24 P8 30 -5.656
24 P8 31 -3.215
24 P8 32 -1.750
24 P8 33 -0.773
24 P8 34 0.692
24 P8 35 0.692
24 P8 36 0.203
24 P8 37 -1.261
24 P8 38 -3.215
24 P8 39 -3.215
24 P8 40 -1.750
24 P8 41 0.692
24 P8 42 1.668
24 P8 43 1.180
24 P8 44 -0.773
24 P8 45 -2.726
24 P8 46 -3.215
24 P8 47 -2.726
24 P8 48 -2.238
24 P8 49 -3.215
24 P8 50 -4.191
24 P8 51 -3.703
24 P8 52 -0.285
24 P8 53 5.086
24 P8 54 10.457
24 P8 55 12.899
24 P8 56 12.410
24 P8 57 9.481
24 P8 58 7.039
24 P8 59 6.063
24 P8 60 6.063
24 P8 61 7.039
24 P8 62 7.528
24 P8 63 8.016
24 P8 64 8.993
24 P8 65 10.457
24 P8 66 11.922
24 P8 67 11.922
24 P8 68 9.969
24 P8 69 6.551
24 P8 70 2.157
24 P8 71 -0.285
24 P8 72 -0.285
24 P8 73 2.157
24 P8 74 5.575
24 P8 75 8.016
24 P8 76 7.528
24 P8 77 5.086
24 P8 78 2.645
24 P8 79 0.692
24 P8 80 -0.285
24 P8 81 -0.285
24 P8 82 -0.285
24 P8 83 -0.285
24 P8 84 0.692
24 P8 85 2.157
24 P8 86 3.133
24 P8 87 4.110
24 P8 88 3.133
24 P8 89 1.668
24 P8 90 -0.773
24 P8 91 -3.703
24 P8 92 -6.632
24 P8 93 -9.562
24 P8 94 -11.515
24 P8 95 -12.004
24 P8 96 -10.050
24 P8 97 -7.121
24 P8 98 -3.703
24 P8 99 -2.238
24 P8 100 -3.703
24 P8 101 -6.632
24 P8 102 -11.027
24 P8 103 -14.445
24 P8 104 -15.910
24 P8 105 -15.422
24 P8 106 -14.445
24 P8 107 -12.492
24 P8 108 -10.539
24 P8 109 -9.074
24 P8 110 -6.632
24 P8 111 -4.679
24 P8 112 -3.703
24 P8 113 -4.191
24 P8 114 -5.656
24 P8 115 -8.097
24 P8 116 -10.539
24 P8 117 -10.050
24 P8 118 -8.097
24 P8 119 -4.679
24 P8 120 -1.750
24 P8 121 -0.285
24 P8 122 -1.750
24 P8 123 -4.191
24 P8 124 -6.632
24 P8 125 -8.097
24 P8 126 -8.586
24 P8 127 -9.074
24 P8 128 -10.050
24 P8 129 -11.515
24 P8 130 -12.004
24 P8 131 -11.515
24 P8 132 -9.074
24 P8 133 -7.121
24 P8 134 -7.121
24 P8 135 -10.539
24 P8 136 -16.398
24 P8 137 -21.769
24 P8 138 -23.722
24 P8 139 -20.793
24 P8 140 -13.957
24 P8 141 -5.656
24 P8 142 0.203
24 P8 143 2.645
24 P8 144 1.668
24 P8 145 -1.261
24 P8 146 -2.726
24 P8 147 -2.726
24 P8 148 -0.773
24 P8 149 1.180
24 P8 150 1.668
24 P8 151 0.203
24 P8 152 -2.238
24 P8 153 -4.679
24 P8 154 -6.632
24 P8 155 -7.609
24 P8 156 -8.097
24 P8 157 -7.609
24 P8 158 -6.144
24 P8 159 -5.168
24 P8 160 -4.679
24 P8 161 -5.656
24 P8 162 -8.586
24 P8 163 -11.515
24 P8 164 -12.492
24 P8 165 -10.539
24 P8 166 -5.656
24 P8 167 -0.285
24 P8 168 4.110
24 P8 169 4.598
24 P8 170 2.645
24 P8 171 0.692
24 P8 172 0.203
24 P8 173 2.157
24 P8 174 5.086
24 P8 175 6.063
24 P8 176 4.598
24 P8 177 0.203
24 P8 178 -4.679
24 P8 179 -8.586
24 P8 180 -11.027
24 P8 181 -12.980
24 P8 182 -14.933
24 P8 183 -17.863
24 P8 184 -20.304
24 P8 185 -20.793
24 P8 186 -19.816
24 P8 187 -16.398
24 P8 188 -12.492
24 P8 189 -9.074
24 P8 190 -6.632
24 P8 191 -7.609
24 P8 192 -10.050
24 P8 193 -13.957
24 P8 194 -17.375
24 P8 195 -18.840
24 P8 196 -17.863
24 P8 197 -14.933
24 P8 198 -12.004
24 P8 199 -9.562
24 P8 200 -9.074
24 P8 201 -10.050
24 P8 202 -11.515
24 P8 203 -13.468
24 P8 204 -14.933
24 P8 205 -16.886
24 P8 206 -18.351
24 P8 207 -18.840
24 P8 208 -18.351
24 P8 209 -16.886
24 P8 210 -14.445
24 P8 211 -12.492
24 P8 212 -12.004
24 P8 213 -12.980
24 P8 214 -12.980
24 P8 215 -12.980
24 P8 216 -10.539
24 P8 217 -7.609
24 P8 218 -4.191
24 P8 219 -1.261
24 P8 220 1.180
24 P8 221 1.668
24 P8 222 1.668
24 P8 223 -1.261
24 P8 224 -4.679
24 P8 225 -8.586
24 P8 226 -9.562
24 P8 227 -8.097
24 P8 228 -3.703
24 P8 229 0.692
24 P8 230 3.621
24 P8 231 5.575
24 P8 232 6.551
24 P8 233 7.528
24 P8 234 7.528
24 P8 235 5.575
24 P8 236 1.180
24 P8 237 -3.215
24 P8 238 -5.656
24 P8 239 -4.191
24 P8 240 0.203
24 P8 241 4.110
24 P8 242 5.575
24 P8 243 3.621
24 P8 244 0.692
24 P8 245 -0.773
24 P8 246 0.203
24 P8 247 1.668
24 P8 248 1.668
24 P8 249 0.692
24 P8 250 -1.261
24 P8 251 -1.750
24 P8 252 0.203
24 P8 253 2.157
24 P8 254 2.157
24 P8 255 0.203
# P7 chan 26
24 P7 0 -1.902
24 P7 1 -2.879
24 P7 2 -4.832
24 P7 3 -6.785
24 P7 4 -9.226
24 P7 5 -9.715
24 P7 6 -8.250
24 P7 7 -4.832
24 P7 8 -0.437
24 P7 9 2.492
24 P7 10 3.469
24 P7 11 2.004
24 P7 12 -2.391
24 P7 13 -6.785
24 P7 14 -9.226
24 P7 15 -8.738
24 P7 16 -5.809
24 P7 17 -0.437
24 P7 18 4.445
24 P7 19 8.352
24 P7 20 10.305
24 P7 21 10.793
24 P7 22 10.305
24 P7 23 7.863
24 P7 24 3.957
24 P7 25 -0.437
24 P7 26 -6.297
24 P7 27 -11.668
24 P7 28 -15.086
24 P7 29 -15.574
24 P7 30 -12.644
24 P7 31 -5.809
24 P7 32 2.004
24 P7 33 8.840
24 P7 34 12.746
24 P7 35 12.258
24 P7 36 8.352
24 P7 37 2.492
24 P7 38 -3.367
24 P7 39 -7.273
24 P7 40 -8.738
24 P7 41 -5.809
24 P7 42 -1.414
24 P7 43 2.492
24 P7 44 2.492
24 P7 45 -1.414
24 P7 46 -7.273
24 P7 47 -11.180
24 P7 48 -11.668
24 P7 49 -8.738
24 P7 50 -5.320
24 P7 51 -3.367
24 P7 52 -3.855
24 P7 53 -4.344
24 P7 54 -5.320
24 P7 55 -6.297
24 P7 56 -7.273
24 P7 57 -8.250
24 P7 58 -8.738
24 P7 59 -7.273
24 P7 60 -5.320
24 P7 61 -3.855
24 P7 62 -3.855
24 P7 63 -3.367
24 P7 64 0.051
24 P7 65 5.422
24 P7 66 11.770
24 P7 67 14.699
24 P7 68 11.281
24 P7 69 3.957
24 P7 70 -2.879
24 P7 71 -4.344
24 P7 72 -1.414
24 P7 73 2.492
24 P7 74 3.957
24 P7 75 0.539
24 P7 76 -3.855
24 P7 77 -6.785
24 P7 78 -6.297
24 P7 79 -3.855
24 P7 80 -2.391
24 P7 81 -2.879
24 P7 82 -5.320
24 P7 83 -7.762
24 P7 84 -8.250
24 P7 85 -8.250
24 P7 86 -9.226
24 P7 87 -11.180
24 P7 88 -11.668
24 P7 89 -9.715
24 P7 90 -6.785
24 P7 91 -5.320
24 P7 92 -6.785
24 P7 93 -11.180
24 P7 94 -16.062
24 P7 95 -18.504
24 P7 96 -18.504
24 P7 97 -17.527
24 P7 98 -16.062
24 P7 99 -15.086
24 P7 100 -12.644
24 P7 101 -8.738
24 P7 102 -5.320
24 P7 103 -5.320
24 P7 104 -9.226
24 P7 105 -16.551
24 P7 106 -22.410
24 P7 107 -23.875
24 P7 108 -20.457
24 P7 109 -14.109
24 P7 110 -8.738
24 P7 111 -7.273
24 P7 112 -8.250
24 P7 113 -11.180
24 P7 114 -12.644
24 P7 115 -11.668
24 P7 116 -9.715
24 P7 117 -7.273
24 P7 118 -6.297
24 P7 119 -6.785
24 P7 120 -7.762
24 P7 121 -8.738
24 P7 122 -9.226
24 P7 123 -9.715
24 P7 124 -10.203
24 P7 125 -11.180
24 P7 126 -11.180
24 P7 127 -9.226
24 P7 128 -4.832
24 P7 129 -0.437
24 P7 130 2.004
24 P7 131 -0.926
24 P7 132 -6.785
24 P7 133 -13.133
24 P7 134 -15.086
24 P7 135 -11.668
24 P7 136 -4.344
24 P7 137 3.957
24 P7 138 9.816
24 P7 139 12.258
24 P7 140 10.305
24 P7 141 4.934
24 P7 142 -2.879
24 P7 143 -10.691
24 P7 144 -15.574
24 P7 145 -17.527
24 P7 146 -15.574
24 P7 147 -13.621
24 P7 148 -12.644
24 P7 149 -14.109
24 P7 150 -14.598
24 P7 151 -13.621
24 P7 152 -10.203
24 P7 153 -6.297
24 P7 154 -4.832
24 P7 155 -5.320
24 P7 156 -6.297
24 P7 157 -6.297
24 P7 158 -4.832
24 P7 159 -3.367
24 P7 160 -3.367
24 P7 161 -3.855
24 P7 162 -4.344
24 P7 163 -4.344
24 P7 164 -3.855
24 P7 165 -2.879
24 P7 166 -0.926
24 P7 167 1.027
24 P7 168 3.957
24 P7 169 6.399
24 P7 170 6.887
24 P7 171 4.445
24 P7 172 0.051
24 P7 173 -3.367
24 P7 174 -3.855
24 P7 175 -0.437
24 P7 176 3.957
24 P7 177 6.399
24 P7 178 5.910
24 P7 179 2.492
24 P7 180 -1.414
24 P7 181 -3.855
24 P7 182 -4.832
24 P7 183 -6.297
24 P7 184 -9.715
24 P7 185 -14.109
24 P7 186 -16.551
24 P7 187 -15.086
24 P7 188 -9.715
24 P7 189 -2.879
24 P7 190 2.004
24 P7 191 2.981
24 P7 192 0.051
24 P7 193 -4.344
24 P7 194 -6.785
24 P7 195 -6.297
24 P7 196 -4.832
24 P7 197 -3.855
24 P7 198 -5.320
24 P7 199 -8.250
24 P7 200 -10.203
24 P7 201 -10.203
24 P7 202 -9.226
24 P7 203 -9.226
24 P7 204 -10.691
24 P7 205 -13.621
24 P7 206 -14.598
24 P7 207 -12.156
24 P7 208 -7.273
24 P7 209 -2.879
24 P7 210 -2.391
24 P7 211 -6.297
24 P7 212 -12.156
24 P7 213 -16.551
24 P7 214 -17.527
24 P7 215 -15.574
24 P7 216 -11.668
24 P7 217 -8.738
24 P7 218 -5.809
24 P7 219 -3.855
24 P7 220 -1.414
24 P7 221 0.539
24 P7 222 1.027
24 P7 223 0.051
24 P7 224 -2.879
24 P7 225 -7.273
24 P7 226 -11.668
24 P7 227 -15.086
24 P7 228 -15.086
24 P7 229 -11.180
24 P7 230 -4.344
24 P7 231 3.469
24 P7 232 7.863
24 P7 233 8.352
24 P7 234 5.422
24 P7 235 2.492
24 P7 236 1.027
24 P7 237 1.516
24 P7 238 2.492
24 P7 239 2.981
24 P7 240 2.981
24 P7 241 3.469
24 P7 242 4.445
24 P7 243 5.422
24 P7 244 5.422
24 P7 245 4.445
24 P7 246 3.957
24 P7 247 5.910
24 P7 248 9.328
24 P7 249 12.258
24 P7 250 12.258
24 P7 251 8.840
24 P7 252 3.957
24 P7 253 1.027
24 P7 254 0.539
24 P7 255 2.004
# PO2 chan 27
24 PO2 0 0.224
24 PO2 1 -5.636
24 PO2 2 -9.542
24 PO2 3 -11.495
24 PO2 4 -10.030
24 PO2 5 -6.612
24 PO2 6 -2.218
24 PO2 7 0.224
24 PO2 8 1.200
24 PO2 9 -0.264
24 PO2 10 -2.218
24 PO2 11 -3.682
24 PO2 12 -4.659
24 PO2 13 -5.147
24 PO2 14 -5.636
24 PO2 15 -6.124
24 PO2 16 -5.636
24 PO2 17 -3.682
24 PO2 18 0.224
24 PO2 19 4.618
24 PO2 20 8.036
24 PO2 21 8.525
24 PO2 22 6.571
24 PO2 23 2.665
24 PO2 24 -2.706
24 PO2 25 -8.077
24 PO2 26 -12.472
24 PO2 27 -15.401
24 PO2 28 -15.889
24 PO2 29 -14.913
24 PO2 30 -11.983
24 PO2 31 -9.054
24 PO2 32 -5.636
24 PO2 33 -3.682
24 PO2 34 -2.706
24 PO2 35 -2.706
24 PO2 36 -3.682
24 PO2 37 -4.171
24 PO2 38 -4.659
24 PO2 39 -4.171
24 PO2 40 -3.682
24 PO2 41 -3.194
24 PO2 42 -4.171
24 PO2 43 -5.636
24 PO2 44 -7.100
24 PO2 45 -7.100
24 PO2 46 -6.124
24 PO2 47 -4.171
24 PO2 48 -2.218
24 PO2 49 -2.218
24 PO2 50 -2.706
24 PO2 51 -3.682
24 PO2 52 -2.706
24 PO2 53 -0.264
24 PO2 54 3.642
24 PO2 55 7.060
24 PO2 56 8.036
24 PO2 57 6.571
24 PO2 58 4.130
24 PO2 59 1.689
24 PO2 60 0.712
24 PO2 61 1.200
24 PO2 62 2.177
24 PO2 63 2.665
24 PO2 64 3.153
24 PO2 65 4.130
24 PO2 66 4.130
24 PO2 67 4.618
24 PO2 68 4.618
24 PO2 69 3.153
24 PO2 70 0.712
24 PO2 71 -0.264
24 PO2 72 0.224
24 PO2 73 1.689
24 PO2 74 3.153
24 PO2 75 3.153
24 PO2 76 1.689
24 PO2 77 0.224
24 PO2 78 -0.753
24 PO2 79 -0.753
24 PO2 80 -0.264
24 PO2 81 0.224
24 PO2 82 -0.753
24 PO2 83 -2.218
24 PO2 84 -2.706
24 PO2 85 -2.706
24 PO2 86 -0.753
24 PO2 87 1.689
24 PO2 88 3.642
24 PO2 89 4.130
24 PO2 90 2.665
24 PO2 91 -0.753
24 PO2 92 -5.147
24 PO2 93 -9.054
24 PO2 94 -11.983
24 PO2 95 -12.472
24 PO2 96 -11.007
24 PO2 97 -8.565
24 PO2 98 -5.636
24 PO2 99 -3.682
24 PO2 100 -2.706
24 PO2 101 -3.682
24 PO2 102 -6.612
24 PO2 103 -10.030
24 PO2 104 -12.472
24 PO2 105 -13.936
24 PO2 106 -13.936
24 PO2 107 -12.472
24 PO2 108 -10.518
24 PO2 109 -9.054
24 PO2 110 -7.589
24 PO2 111 -6.612
24 PO2 112 -6.124
24 PO2 113 -7.100
24 PO2 114 -8.565
24 PO2 115 -9.542
24 PO2 116 -10.030
24 PO2 117 -8.565
24 PO2 118 -6.124
24 PO2 119 -2.706
24 PO2 120 -0.753
24 PO2 121 -0.264
24 PO2 122 -1.729
24 PO2 123 -3.682
24 PO2 124 -5.636
24 PO2 125 -6.124
24 PO2 126 -5.636
24 PO2 127 -5.147
24 PO2 128 -4.659
24 PO2 129 -5.147
24 PO2 130 -5.147
24 PO2 131 -5.147
24 PO2 132 -5.147
24 PO2 133 -5.147
24 PO2 134 -5.636
24 PO2 135 -7.589
24 PO2 136 -9.542
24 PO2 137 -10.518
24 PO2 138 -9.054
24 PO2 139 -5.147
24 PO2 140 0.224
24 PO2 141 4.618
24 PO2 142 7.060
24 PO2 143 7.548
24 PO2 144 6.083
24 PO2 145 4.130
24 PO2 146 1.689
24 PO2 147 0.224
24 PO2 148 -0.753
24 PO2 149 -1.241
24 PO2 150 -0.753
24 PO2 151 -0.264
24 PO2 152 -0.264
24 PO2 153 -1.241
24 PO2 154 -3.194
24 PO2 155 -5.636
24 PO2 156 -6.612
24 PO2 157 -5.636
24 PO2 158 -3.682
24 PO2 159 -1.729
24 PO2 160 -0.753
24 PO2 161 -1.241
24 PO2 162 -2.706
24 PO2 163 -3.682
24 PO2 164 -2.706
24 PO2 165 -0.753
24 PO2 166 2.665
24 PO2 167 5.595
24 PO2 168 7.548
24 PO2 169 8.036
24 PO2 170 8.036
24 PO2 171 7.060
24 PO2 172 7.060
24 PO2 173 7.548
24 PO2 174 8.525
24 PO2 175 8.036
24 PO2 176 7.060
24 PO2 177 4.130
24 PO2 178 1.200
24 PO2 179 -1.241
24 PO2 180 -3.682
24 PO2 181 -5.147
24 PO2 182 -6.124
24 PO2 183 -8.077
24 PO2 184 -9.054
24 PO2 185 -9.054
24 PO2 186 -8.077
24 PO2 187 -5.147
24 PO2 188 -1.241
24 PO2 189 2.665
24 PO2 190 4.618
24 PO2 191 4.130
24 PO2 192 1.689
24 PO2 193 -1.729
24 PO2 194 -4.171
24 PO2 195 -4.659
24 PO2 196 -3.194
24 PO2 197 -0.753
24 PO2 198 1.200
24 PO2 199 1.689
24 PO2 200 1.200
