# co2c0000357.rd
# 120 trials, 64 chans, 416 samples 368 post_stim samples
# 3.906000 msecs uV
# S2 nomatch, trial 53
# FP1 chan 0
53 FP1 0 29.480
53 FP1 1 28.992
53 FP1 2 27.527
53 FP1 3 26.062
53 FP1 4 24.597
53 FP1 5 22.644
53 FP1 6 20.203
53 FP1 7 17.273
53 FP1 8 14.832
53 FP1 9 13.367
53 FP1 10 12.390
53 FP1 11 12.390
53 FP1 12 12.878
53 FP1 13 13.367
53 FP1 14 14.343
53 FP1 15 15.808
53 FP1 16 17.273
53 FP1 17 18.250
53 FP1 18 18.738
53 FP1 19 20.203
53 FP1 20 21.667
53 FP1 21 24.109
53 FP1 22 25.574
53 FP1 23 26.062
53 FP1 24 24.597
53 FP1 25 22.156
53 FP1 26 19.714
53 FP1 27 17.761
53 FP1 28 15.808
53 FP1 29 13.855
53 FP1 30 10.925
53 FP1 31 7.996
53 FP1 32 6.531
53 FP1 33 6.042
53 FP1 34 5.554
53 FP1 35 4.578
53 FP1 36 2.136
53 FP1 37 -0.305
53 FP1 38 -2.258
53 FP1 39 -2.747
53 FP1 40 -2.747
53 FP1 41 -2.258
53 FP1 42 -3.235
53 FP1 43 -4.700
53 FP1 44 -6.165
53 FP1 45 -7.141
53 FP1 46 -7.629
53 FP1 47 -7.629
53 FP1 48 -8.118
53 FP1 49 -8.118
53 FP1 50 -7.629
53 FP1 51 -6.165
53 FP1 52 -4.211
53 FP1 53 -1.770
53 FP1 54 0.183
53 FP1 55 1.648
53 FP1 56 2.136
53 FP1 57 2.136
53 FP1 58 1.160
53 FP1 59 1.160
53 FP1 60 1.160
53 FP1 61 2.136
53 FP1 62 3.113
53 FP1 63 3.601
53 FP1 64 3.113
53 FP1 65 2.625
53 FP1 66 2.625
53 FP1 67 3.601
53 FP1 68 5.066
53 FP1 69 5.066
53 FP1 70 4.578
53 FP1 71 2.625
53 FP1 72 1.160
53 FP1 73 0.183
53 FP1 74 -0.793
53 FP1 75 -1.282
53 FP1 76 -3.235
53 FP1 77 -6.165
53 FP1 78 -10.071
53 FP1 79 -13.000
53 FP1 80 -14.954
53 FP1 81 -16.418
53 FP1 82 -17.883
53 FP1 83 -18.372
53 FP1 84 -18.860
53 FP1 85 -17.883
53 FP1 86 -15.442
53 FP1 87 -12.512
53 FP1 88 -10.559
53 FP1 89 -10.071
53 FP1 90 -12.024
53 FP1 91 -13.977
53 FP1 92 -15.442
53 FP1 93 -15.442
53 FP1 94 -14.465
53 FP1 95 -13.977
53 FP1 96 -14.465
53 FP1 97 -15.442
53 FP1 98 -16.418
53 FP1 99 -15.930
53 FP1 100 -14.465
53 FP1 101 -13.000
53 FP1 102 -12.024
53 FP1 103 -11.536
53 FP1 104 -11.536
53 FP1 105 -11.047
53 FP1 106 -10.559
53 FP1 107 -9.583
53 FP1 108 -9.094
53 FP1 109 -8.118
53 FP1 110 -6.653
53 FP1 111 -6.165
53 FP1 112 -5.188
53 FP1 113 -4.700
53 FP1 114 -3.235
53 FP1 115 -1.282
53 FP1 116 0.671
53 FP1 117 2.136
53 FP1 118 2.136
53 FP1 119 0.671
53 FP1 120 -0.305
53 FP1 121 0.183
53 FP1 122 1.648
53 FP1 123 3.601
53 FP1 124 4.578
53 FP1 125 4.578
53 FP1 126 3.113
53 FP1 127 2.625
53 FP1 128 3.601
53 FP1 129 4.578
53 FP1 130 4.578
53 FP1 131 4.089
53 FP1 132 2.625
53 FP1 133 2.136
53 FP1 134 3.113
53 FP1 135 5.554
53 FP1 136 8.484
53 FP1 137 9.949
53 FP1 138 10.437
53 FP1 139 9.949
53 FP1 140 9.949
53 FP1 141 10.925
53 FP1 142 12.390
53 FP1 143 12.878
53 FP1 144 12.878
53 FP1 145 11.414
53 FP1 146 8.972
53 FP1 147 7.019
53 FP1 148 6.042
53 FP1 149 5.066
53 FP1 150 5.066
53 FP1 151 5.066
53 FP1 152 5.066
53 FP1 153 4.089
53 FP1 154 3.113
53 FP1 155 2.136
53 FP1 156 1.160
53 FP1 157 1.648
53 FP1 158 3.113
53 FP1 159 4.089
53 FP1 160 4.578
53 FP1 161 2.625
53 FP1 162 0.183
53 FP1 163 -2.258
53 FP1 164 -4.211
53 FP1 165 -5.676
53 FP1 166 -6.653
53 FP1 167 -7.629
53 FP1 168 -7.629
53 FP1 169 -5.676
53 FP1 170 -2.258
53 FP1 171 1.648
53 FP1 172 4.578
53 FP1 173 5.554
53 FP1 174 5.554
53 FP1 175 5.066
53 FP1 176 5.066
53 FP1 177 6.531
53 FP1 178 7.996
53 FP1 179 9.460
53 FP1 180 9.949
53 FP1 181 10.437
53 FP1 182 9.949
53 FP1 183 9.949
53 FP1 184 10.437
53 FP1 185 11.414
53 FP1 186 12.878
53 FP1 187 14.343
53 FP1 188 16.785
53 FP1 189 18.250
53 FP1 190 19.714
53 FP1 191 19.714
53 FP1 192 20.691
53 FP1 193 22.156
53 FP1 194 25.574
53 FP1 195 29.480
53 FP1 196 32.898
53 FP1 197 33.875
53 FP1 198 32.898
53 FP1 199 30.945
53 FP1 200 29.480
53 FP1 201 28.503
53 FP1 202 28.503
53 FP1 203 28.015
53 FP1 204 27.527
53 FP1 205 27.527
53 FP1 206 27.527
53 FP1 207 28.503
53 FP1 208 29.968
53 FP1 209 30.945
53 FP1 210 31.433
53 FP1 211 30.945
53 FP1 212 30.945
53 FP1 213 31.433
53 FP1 214 32.410
53 FP1 215 32.898
53 FP1 216 32.898
53 FP1 217 32.410
53 FP1 218 31.921
53 FP1 219 30.457
53 FP1 220 28.992
53 FP1 221 27.527
53 FP1 222 26.550
53 FP1 223 27.039
53 FP1 224 28.992
53 FP1 225 30.457
53 FP1 226 31.921
53 FP1 227 31.921
53 FP1 228 30.945
53 FP1 229 30.457
53 FP1 230 31.433
53 FP1 231 33.875
53 FP1 232 36.316
53 FP1 233 37.292
53 FP1 234 37.292
53 FP1 235 35.828
53 FP1 236 33.875
53 FP1 237 32.410
53 FP1 238 30.457
53 FP1 239 29.480
53 FP1 240 28.503
53 FP1 241 27.527
53 FP1 242 26.550
53 FP1 243 26.062
53 FP1 244 26.062
53 FP1 245 26.550
53 FP1 246 28.015
53 FP1 247 28.503
53 FP1 248 28.992
53 FP1 249 28.015
53 FP1 250 27.039
53 FP1 251 25.574
53 FP1 252 24.597
53 FP1 253 24.597
53 FP1 254 24.109
53 FP1 255 24.597
# FP2 chan 1
53 FP2 0 32.288
53 FP2 1 31.799
53 FP2 2 30.823
53 FP2 3 29.846
53 FP2 4 28.870
53 FP2 5 27.405
53 FP2 6 24.963
53 FP2 7 21.057
53 FP2 8 17.151
53 FP2 9 14.221
53 FP2 10 12.756
53 FP2 11 12.268
53 FP2 12 13.245
53 FP2 13 13.733
53 FP2 14 13.733
53 FP2 15 14.221
53 FP2 16 15.198
53 FP2 17 16.174
53 FP2 18 16.663
53 FP2 19 18.127
53 FP2 20 19.592
53 FP2 21 22.034
53 FP2 22 23.987
53 FP2 23 24.475
53 FP2 24 23.987
53 FP2 25 21.545
53 FP2 26 19.104
53 FP2 27 16.663
53 FP2 28 14.709
53 FP2 29 12.756
53 FP2 30 10.803
53 FP2 31 9.338
53 FP2 32 7.874
53 FP2 33 6.897
53 FP2 34 5.920
53 FP2 35 4.456
53 FP2 36 2.502
53 FP2 37 -0.427
53 FP2 38 -3.845
53 FP2 39 -6.287
53 FP2 40 -6.775
53 FP2 41 -7.263
53 FP2 42 -7.263
53 FP2 43 -7.751
53 FP2 44 -8.728
53 FP2 45 -10.193
53 FP2 46 -12.146
53 FP2 47 -13.123
53 FP2 48 -13.611
53 FP2 49 -13.123
53 FP2 50 -11.658
53 FP2 51 -10.193
53 FP2 52 -8.240
53 FP2 53 -6.287
53 FP2 54 -4.333
53 FP2 55 -2.380
53 FP2 56 -1.404
53 FP2 57 -0.427
53 FP2 58 -0.916
53 FP2 59 -1.404
53 FP2 60 -2.380
53 FP2 61 -2.380
53 FP2 62 -1.404
53 FP2 63 -0.427
53 FP2 64 0.549
53 FP2 65 0.061
53 FP2 66 -1.404
53 FP2 67 -3.845
53 FP2 68 -6.287
53 FP2 69 -8.240
53 FP2 70 -8.728
53 FP2 71 -9.216
53 FP2 72 -9.216
53 FP2 73 -9.216
53 FP2 74 -10.193
53 FP2 75 -11.658
53 FP2 76 -14.099
53 FP2 77 -17.517
53 FP2 78 -20.935
53 FP2 79 -23.376
53 FP2 80 -24.841
53 FP2 81 -25.330
53 FP2 82 -25.330
53 FP2 83 -25.330
53 FP2 84 -24.841
53 FP2 85 -23.865
53 FP2 86 -22.400
53 FP2 87 -20.935
53 FP2 88 -19.470
53 FP2 89 -18.005
53 FP2 90 -18.005
53 FP2 91 -18.005
53 FP2 92 -18.005
53 FP2 93 -17.517
53 FP2 94 -15.564
53 FP2 95 -13.123
53 FP2 96 -11.658
53 FP2 97 -10.193
53 FP2 98 -9.216
53 FP2 99 -8.240
53 FP2 100 -7.263
53 FP2 101 -6.287
53 FP2 102 -5.310
53 FP2 103 -4.822
53 FP2 104 -4.822
53 FP2 105 -3.845
53 FP2 106 -2.380
53 FP2 107 -0.427
53 FP2 108 2.014
53 FP2 109 4.456
53 FP2 110 6.409
53 FP2 111 6.897
53 FP2 112 6.409
53 FP2 113 5.920
53 FP2 114 5.920
53 FP2 115 6.897
53 FP2 116 7.874
53 FP2 117 8.850
53 FP2 118 9.338
53 FP2 119 9.338
53 FP2 120 9.338
53 FP2 121 9.338
53 FP2 122 9.827
53 FP2 123 10.315
53 FP2 124 10.803
53 FP2 125 10.315
53 FP2 126 10.315
53 FP2 127 10.315
53 FP2 128 9.338
53 FP2 129 7.385
53 FP2 130 4.456
53 FP2 131 2.014
53 FP2 132 1.038
53 FP2 133 2.014
53 FP2 134 3.479
53 FP2 135 5.432
53 FP2 136 5.920
53 FP2 137 5.432
53 FP2 138 4.456
53 FP2 139 3.967
53 FP2 140 5.432
53 FP2 141 6.897
53 FP2 142 7.874
53 FP2 143 7.385
53 FP2 144 5.920
53 FP2 145 3.967
53 FP2 146 2.502
53 FP2 147 1.526
53 FP2 148 0.549
53 FP2 149 0.549
53 FP2 150 0.549
53 FP2 151 0.549
53 FP2 152 0.061
53 FP2 153 -1.404
53 FP2 154 -3.845
53 FP2 155 -6.287
53 FP2 156 -7.263
53 FP2 157 -7.751
53 FP2 158 -7.263
53 FP2 159 -7.263
53 FP2 160 -8.240
53 FP2 161 -11.169
53 FP2 162 -14.099
53 FP2 163 -16.052
53 FP2 164 -17.517
53 FP2 165 -18.005
53 FP2 166 -19.958
53 FP2 167 -21.912
53 FP2 168 -23.376
53 FP2 169 -22.888
53 FP2 170 -20.447
53 FP2 171 -17.029
53 FP2 172 -14.099
53 FP2 173 -12.146
53 FP2 174 -11.658
53 FP2 175 -11.169
53 FP2 176 -10.681
53 FP2 177 -9.216
53 FP2 178 -8.240
53 FP2 179 -7.263
53 FP2 180 -6.287
53 FP2 181 -5.310
53 FP2 182 -4.822
53 FP2 183 -4.333
53 FP2 184 -3.357
53 FP2 185 -2.380
53 FP2 186 -0.427
53 FP2 187 2.502
53 FP2 188 5.432
53 FP2 189 7.874
53 FP2 190 9.338
53 FP2 191 9.338
53 FP2 192 10.315
53 FP2 193 12.756
53 FP2 194 16.174
53 FP2 195 20.569
53 FP2 196 23.499
53 FP2 197 23.987
53 FP2 198 23.010
53 FP2 199 21.545
53 FP2 200 19.592
53 FP2 201 19.104
53 FP2 202 18.616
53 FP2 203 18.616
53 FP2 204 18.616
53 FP2 205 18.616
53 FP2 206 19.104
53 FP2 207 19.592
53 FP2 208 20.081
53 FP2 209 20.081
53 FP2 210 20.569
53 FP2 211 20.569
53 FP2 212 21.545
53 FP2 213 23.010
53 FP2 214 23.987
53 FP2 215 24.475
53 FP2 216 24.475
53 FP2 217 23.987
53 FP2 218 23.499
53 FP2 219 22.034
53 FP2 220 20.081
53 FP2 221 18.616
53 FP2 222 19.104
53 FP2 223 21.545
53 FP2 224 24.475
53 FP2 225 26.917
53 FP2 226 27.893
53 FP2 227 27.405
53 FP2 228 26.917
53 FP2 229 27.893
53 FP2 230 29.358
53 FP2 231 30.334
53 FP2 232 29.846
53 FP2 233 27.893
53 FP2 234 25.452
53 FP2 235 23.499
53 FP2 236 23.010
53 FP2 237 23.010
53 FP2 238 22.522
53 FP2 239 21.545
53 FP2 240 19.592
53 FP2 241 18.616
53 FP2 242 17.639
53 FP2 243 17.151
53 FP2 244 16.663
53 FP2 245 15.686
53 FP2 246 15.686
53 FP2 247 15.686
53 FP2 248 15.198
53 FP2 249 15.198
53 FP2 250 14.709
53 FP2 251 14.709
53 FP2 252 14.221
53 FP2 253 14.709
53 FP2 254 15.198
53 FP2 255 15.686
# F7 chan 2
53 F7 0 21.952
53 F7 1 21.464
53 F7 2 19.511
53 F7 3 17.558
53 F7 4 15.116
53 F7 5 12.187
53 F7 6 9.257
53 F7 7 6.327
53 F7 8 2.909
53 F7 9 0.468
53 F7 10 -0.997
53 F7 11 -0.997
53 F7 12 -0.509
53 F7 13 0.956
53 F7 14 2.421
53 F7 15 4.374
53 F7 16 5.351
53 F7 17 6.327
53 F7 18 7.792
53 F7 19 9.745
53 F7 20 12.187
53 F7 21 14.140
53 F7 22 14.628
53 F7 23 13.652
53 F7 24 11.210
53 F7 25 9.257
53 F7 26 8.280
53 F7 27 7.792
53 F7 28 6.816
53 F7 29 4.862
53 F7 30 1.933
53 F7 31 -0.997
53 F7 32 -1.973
53 F7 33 -1.485
53 F7 34 -0.509
53 F7 35 -0.509
53 F7 36 -1.973
53 F7 37 -3.927
53 F7 38 -6.368
53 F7 39 -7.345
53 F7 40 -6.368
53 F7 41 -6.368
53 F7 42 -6.368
53 F7 43 -7.833
53 F7 44 -9.298
53 F7 45 -10.763
53 F7 46 -11.251
53 F7 47 -10.763
53 F7 48 -10.763
53 F7 49 -11.251
53 F7 50 -11.739
53 F7 51 -11.739
53 F7 52 -10.274
53 F7 53 -7.345
53 F7 54 -4.415
53 F7 55 -1.973
53 F7 56 -0.509
53 F7 57 -0.997
53 F7 58 -1.973
53 F7 59 -1.973
53 F7 60 -1.485
53 F7 61 -0.997
53 F7 62 -0.509
53 F7 63 -0.509
53 F7 64 -0.997
53 F7 65 -0.509
53 F7 66 0.956
53 F7 67 2.909
53 F7 68 4.374
53 F7 69 4.862
53 F7 70 4.374
53 F7 71 2.421
53 F7 72 0.956
53 F7 73 -0.509
53 F7 74 -0.509
53 F7 75 -0.997
53 F7 76 -1.973
53 F7 77 -4.415
53 F7 78 -7.833
53 F7 79 -11.739
53 F7 80 -15.157
53 F7 81 -17.110
53 F7 82 -18.087
53 F7 83 -17.598
53 F7 84 -17.110
53 F7 85 -16.134
53 F7 86 -15.157
53 F7 87 -13.204
53 F7 88 -11.739
53 F7 89 -11.251
53 F7 90 -12.716
53 F7 91 -14.181
53 F7 92 -15.645
53 F7 93 -15.645
53 F7 94 -15.157
53 F7 95 -15.157
53 F7 96 -16.134
53 F7 97 -18.087
53 F7 98 -20.040
53 F7 99 -21.016
53 F7 100 -21.993
53 F7 101 -21.993
53 F7 102 -21.505
53 F7 103 -21.505
53 F7 104 -21.993
53 F7 105 -22.481
53 F7 106 -23.458
53 F7 107 -24.434
53 F7 108 -25.899
53 F7 109 -25.899
53 F7 110 -24.923
53 F7 111 -23.458
53 F7 112 -21.993
53 F7 113 -21.505
53 F7 114 -21.016
53 F7 115 -20.528
53 F7 116 -18.575
53 F7 117 -16.622
53 F7 118 -14.669
53 F7 119 -14.181
53 F7 120 -14.669
53 F7 121 -14.669
53 F7 122 -14.181
53 F7 123 -12.227
53 F7 124 -10.763
53 F7 125 -9.786
53 F7 126 -9.786
53 F7 127 -10.274
53 F7 128 -10.274
53 F7 129 -8.809
53 F7 130 -7.833
53 F7 131 -7.345
53 F7 132 -6.856
53 F7 133 -6.856
53 F7 134 -5.880
53 F7 135 -2.950
53 F7 136 -0.020
53 F7 137 1.933
53 F7 138 2.909
53 F7 139 2.909
53 F7 140 3.398
53 F7 141 3.886
53 F7 142 5.351
53 F7 143 5.839
53 F7 144 5.351
53 F7 145 4.374
53 F7 146 1.933
53 F7 147 0.468
53 F7 148 -0.509
53 F7 149 -0.997
53 F7 150 -0.997
53 F7 151 -0.509
53 F7 152 -0.509
53 F7 153 -0.509
53 F7 154 -1.485
53 F7 155 -2.462
53 F7 156 -2.462
53 F7 157 -2.462
53 F7 158 -0.997
53 F7 159 -0.020
53 F7 160 0.956
53 F7 161 0.956
53 F7 162 -0.509
53 F7 163 -2.462
53 F7 164 -4.415
53 F7 165 -6.368
53 F7 166 -7.833
53 F7 167 -8.809
53 F7 168 -8.321
53 F7 169 -7.345
53 F7 170 -4.903
53 F7 171 -2.462
53 F7 172 -0.509
53 F7 173 0.956
53 F7 174 2.421
53 F7 175 3.398
53 F7 176 3.886
53 F7 177 4.374
53 F7 178 4.374
53 F7 179 4.374
53 F7 180 4.374
53 F7 181 3.886
53 F7 182 3.886
53 F7 183 3.398
53 F7 184 3.398
53 F7 185 3.886
53 F7 186 5.351
53 F7 187 6.816
53 F7 188 7.792
53 F7 189 8.280
53 F7 190 7.792
53 F7 191 7.304
53 F7 192 6.816
53 F7 193 7.304
53 F7 194 8.769
53 F7 195 10.722
53 F7 196 12.187
53 F7 197 12.187
53 F7 198 11.698
53 F7 199 10.722
53 F7 200 9.257
53 F7 201 8.280
53 F7 202 6.327
53 F7 203 4.862
53 F7 204 3.398
53 F7 205 2.909
53 F7 206 3.398
53 F7 207 4.374
53 F7 208 5.351
53 F7 209 6.327
53 F7 210 7.304
53 F7 211 8.769
53 F7 212 9.745
53 F7 213 10.722
53 F7 214 10.234
53 F7 215 9.745
53 F7 216 8.769
53 F7 217 7.792
53 F7 218 6.327
53 F7 219 4.374
53 F7 220 2.421
53 F7 221 0.956
53 F7 222 0.956
53 F7 223 2.421
53 F7 224 4.862
53 F7 225 6.816
53 F7 226 7.792
53 F7 227 7.792
53 F7 228 7.792
53 F7 229 7.792
53 F7 230 8.280
53 F7 231 8.769
53 F7 232 9.745
53 F7 233 10.722
53 F7 234 12.187
53 F7 235 14.140
53 F7 236 16.093
53 F7 237 17.558
53 F7 238 18.046
53 F7 239 18.534
53 F7 240 18.534
53 F7 241 19.511
53 F7 242 19.999
53 F7 243 20.976
53 F7 244 21.464
53 F7 245 21.952
53 F7 246 22.441
53 F7 247 21.952
53 F7 248 21.464
53 F7 249 19.999
53 F7 250 19.023
53 F7 251 18.046
53 F7 252 17.558
53 F7 253 17.558
53 F7 254 18.046
53 F7 255 18.534
# F8 chan 3
53 F8 0 32.145
53 F8 1 31.657
53 F8 2 31.169
53 F8 3 31.169
53 F8 4 30.680
53 F8 5 29.215
53 F8 6 25.798
53 F8 7 22.380
53 F8 8 18.962
53 F8 9 16.520
53 F8 10 15.544
53 F8 11 15.055
53 F8 12 14.567
53 F8 13 14.079
53 F8 14 13.590
53 F8 15 13.590
53 F8 16 14.567
53 F8 17 16.032
53 F8 18 18.473
53 F8 19 20.915
53 F8 20 22.868
53 F8 21 24.333
53 F8 22 25.309
53 F8 23 25.309
53 F8 24 24.333
53 F8 25 23.844
53 F8 26 22.380
53 F8 27 20.915
53 F8 28 18.962
53 F8 29 17.008
53 F8 30 16.032
53 F8 31 16.032
53 F8 32 16.032
53 F8 33 16.520
53 F8 34 15.544
53 F8 35 13.102
53 F8 36 10.173
53 F8 37 7.731
53 F8 38 5.290
53 F8 39 2.360
53 F8 40 -0.570
53 F8 41 -3.011
53 F8 42 -4.964
53 F8 43 -5.941
53 F8 44 -5.452
53 F8 45 -4.964
53 F8 46 -4.476
53 F8 47 -4.476
53 F8 48 -4.964
53 F8 49 -4.964
53 F8 50 -4.476
53 F8 51 -3.988
53 F8 52 -2.523
53 F8 53 -1.058
53 F8 54 -0.081
53 F8 55 0.895
53 F8 56 1.383
53 F8 57 1.872
53 F8 58 2.360
53 F8 59 2.848
53 F8 60 3.337
53 F8 61 3.337
53 F8 62 3.825
53 F8 63 2.848
53 F8 64 1.872
53 F8 65 0.895
53 F8 66 0.895
53 F8 67 0.407
53 F8 68 -1.058
53 F8 69 -3.499
53 F8 70 -6.917
53 F8 71 -9.847
53 F8 72 -11.312
53 F8 73 -10.824
53 F8 74 -9.359
53 F8 75 -7.406
53 F8 76 -7.406
53 F8 77 -8.382
53 F8 78 -11.312
53 F8 79 -14.242
53 F8 80 -16.195
53 F8 81 -17.171
53 F8 82 -17.660
53 F8 83 -17.171
53 F8 84 -17.171
53 F8 85 -17.171
53 F8 86 -16.195
53 F8 87 -14.242
53 F8 88 -11.312
53 F8 89 -8.870
53 F8 90 -7.894
53 F8 91 -7.406
53 F8 92 -6.917
53 F8 93 -5.941
53 F8 94 -3.988
53 F8 95 -1.546
53 F8 96 0.407
53 F8 97 1.383
53 F8 98 2.360
53 F8 99 2.848
53 F8 100 4.313
53 F8 101 5.778
53 F8 102 6.266
53 F8 103 5.778
53 F8 104 4.801
53 F8 105 3.825
53 F8 106 4.313
53 F8 107 5.778
53 F8 108 7.731
53 F8 109 9.196
53 F8 110 10.661
53 F8 111 11.149
53 F8 112 11.637
53 F8 113 11.637
53 F8 114 11.637
53 F8 115 12.126
53 F8 116 12.126
53 F8 117 12.614
53 F8 118 13.102
53 F8 119 13.102
53 F8 120 13.102
53 F8 121 12.614
53 F8 122 12.614
53 F8 123 13.102
53 F8 124 14.079
53 F8 125 15.055
53 F8 126 16.520
53 F8 127 17.497
53 F8 128 18.473
53 F8 129 18.473
53 F8 130 17.985
53 F8 131 17.008
53 F8 132 16.032
53 F8 133 16.032
53 F8 134 17.008
53 F8 135 17.985
53 F8 136 19.450
53 F8 137 20.426
53 F8 138 20.915
53 F8 139 21.403
53 F8 140 22.380
53 F8 141 22.380
53 F8 142 22.380
53 F8 143 21.403
53 F8 144 19.938
53 F8 145 17.497
53 F8 146 15.055
53 F8 147 12.614
53 F8 148 10.661
53 F8 149 9.684
53 F8 150 9.196
53 F8 151 9.684
53 F8 152 10.173
53 F8 153 10.173
53 F8 154 9.684
53 F8 155 8.708
53 F8 156 6.755
53 F8 157 5.778
53 F8 158 5.290
53 F8 159 3.825
53 F8 160 2.360
53 F8 161 0.407
53 F8 162 -1.058
53 F8 163 -2.035
53 F8 164 -2.523
53 F8 165 -2.523
53 F8 166 -3.499
53 F8 167 -4.964
53 F8 168 -5.941
53 F8 169 -5.452
53 F8 170 -4.964
53 F8 171 -3.499
53 F8 172 -3.011
53 F8 173 -2.523
53 F8 174 -1.546
53 F8 175 -0.081
53 F8 176 2.360
53 F8 177 4.801
53 F8 178 5.778
53 F8 179 6.755
53 F8 180 7.243
53 F8 181 8.219
53 F8 182 9.196
53 F8 183 9.684
53 F8 184 9.684
53 F8 185 8.708
53 F8 186 8.219
53 F8 187 8.708
53 F8 188 9.684
53 F8 189 10.661
53 F8 190 11.149
53 F8 191 11.149
53 F8 192 11.637
53 F8 193 13.590
53 F8 194 16.520
53 F8 195 19.450
53 F8 196 21.891
53 F8 197 22.868
53 F8 198 22.380
53 F8 199 20.915
53 F8 200 18.962
53 F8 201 16.520
53 F8 202 14.567
53 F8 203 13.102
53 F8 204 12.126
53 F8 205 11.637
53 F8 206 12.614
53 F8 207 13.590
53 F8 208 14.567
53 F8 209 15.544
53 F8 210 16.032
53 F8 211 16.520
53 F8 212 17.008
53 F8 213 17.497
53 F8 214 17.497
53 F8 215 16.520
53 F8 216 16.032
53 F8 217 15.544
53 F8 218 15.544
53 F8 219 15.544
53 F8 220 15.544
53 F8 221 16.032
53 F8 222 17.008
53 F8 223 19.450
53 F8 224 22.380
53 F8 225 24.821
53 F8 226 26.286
53 F8 227 26.286
53 F8 228 26.286
53 F8 229 26.774
53 F8 230 27.751
53 F8 231 27.262
53 F8 232 25.798
53 F8 233 21.891
53 F8 234 17.497
53 F8 235 14.567
53 F8 236 13.590
53 F8 237 15.055
53 F8 238 16.520
53 F8 239 17.985
53 F8 240 17.985
53 F8 241 17.008
53 F8 242 17.008
53 F8 243 17.008
53 F8 244 17.985
53 F8 245 18.473
53 F8 246 19.450
53 F8 247 20.426
53 F8 248 22.380
53 F8 249 24.821
53 F8 250 27.751
53 F8 251 29.704
53 F8 252 29.215
53 F8 253 27.262
53 F8 254 24.821
53 F8 255 22.380
# AF1 chan 4
53 AF1 0 19.053
53 AF1 1 18.565
53 AF1 2 17.588
53 AF1 3 15.635
53 AF1 4 13.682
53 AF1 5 11.729
53 AF1 6 8.799
53 AF1 7 5.870
53 AF1 8 3.428
53 AF1 9 1.963
53 AF1 10 0.987
53 AF1 11 0.987
53 AF1 12 1.475
53 AF1 13 1.963
53 AF1 14 2.452
53 AF1 15 3.916
53 AF1 16 5.381
53 AF1 17 6.846
53 AF1 18 8.311
53 AF1 19 9.776
53 AF1 20 11.241
53 AF1 21 13.194
53 AF1 22 14.659
53 AF1 23 14.659
53 AF1 24 13.682
53 AF1 25 12.217
53 AF1 26 10.752
53 AF1 27 9.288
53 AF1 28 8.311
53 AF1 29 6.846
53 AF1 30 5.381
53 AF1 31 3.428
53 AF1 32 1.475
53 AF1 33 0.010
53 AF1 34 -0.478
53 AF1 35 -1.455
53 AF1 36 -2.920
53 AF1 37 -4.384
53 AF1 38 -5.849
53 AF1 39 -6.337
53 AF1 40 -5.849
53 AF1 41 -5.361
53 AF1 42 -4.873
53 AF1 43 -5.849
53 AF1 44 -6.826
53 AF1 45 -8.779
53 AF1 46 -9.755
53 AF1 47 -10.732
53 AF1 48 -10.732
53 AF1 49 -10.732
53 AF1 50 -10.244
53 AF1 51 -9.267
53 AF1 52 -7.802
53 AF1 53 -5.361
53 AF1 54 -2.920
53 AF1 55 -0.966
53 AF1 56 0.010
53 AF1 57 -0.478
53 AF1 58 -1.455
53 AF1 59 -1.943
53 AF1 60 -1.943
53 AF1 61 -1.455
53 AF1 62 -0.478
53 AF1 63 0.010
53 AF1 64 -0.478
53 AF1 65 -0.478
53 AF1 66 -0.478
53 AF1 67 -0.478
53 AF1 68 0.010
53 AF1 69 -0.966
53 AF1 70 -1.943
53 AF1 71 -3.408
53 AF1 72 -4.384
53 AF1 73 -5.361
53 AF1 74 -5.361
53 AF1 75 -5.849
53 AF1 76 -7.314
53 AF1 77 -9.755
53 AF1 78 -12.685
53 AF1 79 -15.127
53 AF1 80 -17.080
53 AF1 81 -18.545
53 AF1 82 -19.033
53 AF1 83 -19.521
53 AF1 84 -19.033
53 AF1 85 -18.056
53 AF1 86 -16.591
53 AF1 87 -14.638
53 AF1 88 -13.662
53 AF1 89 -14.150
53 AF1 90 -15.127
53 AF1 91 -17.080
53 AF1 92 -18.545
53 AF1 93 -19.033
53 AF1 94 -18.545
53 AF1 95 -18.545
53 AF1 96 -18.056
53 AF1 97 -18.545
53 AF1 98 -18.545
53 AF1 99 -18.545
53 AF1 100 -18.545
53 AF1 101 -17.568
53 AF1 102 -17.080
53 AF1 103 -16.103
53 AF1 104 -15.615
53 AF1 105 -15.127
53 AF1 106 -15.127
53 AF1 107 -15.615
53 AF1 108 -15.615
53 AF1 109 -15.127
53 AF1 110 -14.150
53 AF1 111 -13.662
53 AF1 112 -13.662
53 AF1 113 -14.150
53 AF1 114 -13.662
53 AF1 115 -13.173
53 AF1 116 -11.709
53 AF1 117 -10.244
53 AF1 118 -10.244
53 AF1 119 -10.732
53 AF1 120 -11.709
53 AF1 121 -12.197
53 AF1 122 -12.197
53 AF1 123 -11.709
53 AF1 124 -11.709
53 AF1 125 -12.197
53 AF1 126 -13.173
53 AF1 127 -13.662
53 AF1 128 -14.150
53 AF1 129 -14.150
53 AF1 130 -13.662
53 AF1 131 -14.150
53 AF1 132 -14.150
53 AF1 133 -14.150
53 AF1 134 -13.173
53 AF1 135 -11.709
53 AF1 136 -10.244
53 AF1 137 -9.267
53 AF1 138 -9.267
53 AF1 139 -9.267
53 AF1 140 -8.779
53 AF1 141 -8.291
53 AF1 142 -6.826
53 AF1 143 -5.361
53 AF1 144 -4.384
53 AF1 145 -4.384
53 AF1 146 -4.873
53 AF1 147 -6.337
53 AF1 148 -7.802
53 AF1 149 -8.779
53 AF1 150 -8.779
53 AF1 151 -8.779
53 AF1 152 -8.779
53 AF1 153 -8.779
53 AF1 154 -9.755
53 AF1 155 -10.244
53 AF1 156 -10.732
53 AF1 157 -10.244
53 AF1 158 -9.267
53 AF1 159 -7.802
53 AF1 160 -7.802
53 AF1 161 -8.291
53 AF1 162 -9.755
53 AF1 163 -11.220
53 AF1 164 -12.197
53 AF1 165 -13.662
53 AF1 166 -14.638
53 AF1 167 -16.591
53 AF1 168 -17.080
53 AF1 169 -16.591
53 AF1 170 -14.638
53 AF1 171 -11.709
53 AF1 172 -9.267
53 AF1 173 -8.291
53 AF1 174 -7.314
53 AF1 175 -6.826
53 AF1 176 -5.849
53 AF1 177 -4.873
53 AF1 178 -3.408
53 AF1 179 -2.920
53 AF1 180 -2.920
53 AF1 181 -2.920
53 AF1 182 -3.408
53 AF1 183 -3.896
53 AF1 184 -4.384
53 AF1 185 -3.896
53 AF1 186 -2.920
53 AF1 187 -1.455
53 AF1 188 0.010
53 AF1 189 2.452
53 AF1 190 3.428
53 AF1 191 4.405
53 AF1 192 5.381
53 AF1 193 6.358
53 AF1 194 8.311
53 AF1 195 10.264
53 AF1 196 11.241
53 AF1 197 11.241
53 AF1 198 10.264
53 AF1 199 8.799
53 AF1 200 7.823
53 AF1 201 7.334
53 AF1 202 7.334
53 AF1 203 7.334
53 AF1 204 6.846
53 AF1 205 6.358
53 AF1 206 5.381
53 AF1 207 5.381
53 AF1 208 5.870
53 AF1 209 6.358
53 AF1 210 6.358
53 AF1 211 6.846
53 AF1 212 7.334
53 AF1 213 8.311
53 AF1 214 8.799
53 AF1 215 9.776
53 AF1 216 10.264
53 AF1 217 9.776
53 AF1 218 8.799
53 AF1 219 7.334
53 AF1 220 5.381
53 AF1 221 3.916
53 AF1 222 2.452
53 AF1 223 2.452
53 AF1 224 3.428
53 AF1 225 4.405
53 AF1 226 4.893
53 AF1 227 4.893
53 AF1 228 4.893
53 AF1 229 4.893
53 AF1 230 5.870
53 AF1 231 6.846
53 AF1 232 7.334
53 AF1 233 6.846
53 AF1 234 6.358
53 AF1 235 5.870
53 AF1 236 5.870
53 AF1 237 5.870
53 AF1 238 5.381
53 AF1 239 4.893
53 AF1 240 3.428
53 AF1 241 1.963
53 AF1 242 0.498
53 AF1 243 -0.478
53 AF1 244 -0.478
53 AF1 245 -0.966
53 AF1 246 -0.478
53 AF1 247 0.010
53 AF1 248 0.010
53 AF1 249 0.498
53 AF1 250 0.010
53 AF1 251 0.010
53 AF1 252 -0.478
53 AF1 253 -0.966
53 AF1 254 -0.966
53 AF1 255 -0.478
# AF2 chan 5
53 AF2 0 22.552
53 AF2 1 22.552
53 AF2 2 21.088
53 AF2 3 19.623
53 AF2 4 17.670
53 AF2 5 15.717
53 AF2 6 12.787
53 AF2 7 9.857
53 AF2 8 7.416
53 AF2 9 5.463
53 AF2 10 4.974
53 AF2 11 5.463
53 AF2 12 5.463
53 AF2 13 5.951
53 AF2 14 5.951
53 AF2 15 6.439
53 AF2 16 7.416
53 AF2 17 8.392
53 AF2 18 9.857
53 AF2 19 11.810
53 AF2 20 13.275
53 AF2 21 15.228
53 AF2 22 16.205
53 AF2 23 17.181
53 AF2 24 16.205
53 AF2 25 15.228
53 AF2 26 13.763
53 AF2 27 11.810
53 AF2 28 10.834
53 AF2 29 9.369
53 AF2 30 7.904
53 AF2 31 6.927
53 AF2 32 5.463
53 AF2 33 4.486
53 AF2 34 3.510
53 AF2 35 2.045
53 AF2 36 0.580
53 AF2 37 -1.373
53 AF2 38 -3.326
53 AF2 39 -4.791
53 AF2 40 -5.280
53 AF2 41 -5.768
53 AF2 42 -6.256
53 AF2 43 -6.744
53 AF2 44 -7.721
53 AF2 45 -8.698
53 AF2 46 -9.186
53 AF2 47 -9.674
53 AF2 48 -10.162
53 AF2 49 -10.162
53 AF2 50 -9.674
53 AF2 51 -8.698
53 AF2 52 -6.744
53 AF2 53 -4.303
53 AF2 54 -2.350
53 AF2 55 -1.373
53 AF2 56 -0.885
53 AF2 57 -1.862
53 AF2 58 -1.862
53 AF2 59 -2.350
53 AF2 60 -1.373
53 AF2 61 -0.397
53 AF2 62 0.092
53 AF2 63 0.092
53 AF2 64 -0.397
53 AF2 65 -0.397
53 AF2 66 -0.885
53 AF2 67 -1.373
53 AF2 68 -2.838
53 AF2 69 -4.791
53 AF2 70 -6.744
53 AF2 71 -8.698
53 AF2 72 -10.162
53 AF2 73 -10.162
53 AF2 74 -9.674
53 AF2 75 -9.186
53 AF2 76 -10.162
53 AF2 77 -11.627
53 AF2 78 -14.069
53 AF2 79 -16.998
53 AF2 80 -18.951
53 AF2 81 -20.416
53 AF2 82 -21.393
53 AF2 83 -22.369
53 AF2 84 -22.369
53 AF2 85 -21.881
53 AF2 86 -20.416
53 AF2 87 -18.951
53 AF2 88 -16.998
53 AF2 89 -16.022
53 AF2 90 -16.022
53 AF2 91 -16.510
53 AF2 92 -16.998
53 AF2 93 -16.998
53 AF2 94 -16.022
53 AF2 95 -14.557
53 AF2 96 -13.580
53 AF2 97 -13.092
53 AF2 98 -13.092
53 AF2 99 -13.092
53 AF2 100 -12.604
53 AF2 101 -11.627
53 AF2 102 -9.674
53 AF2 103 -8.698
53 AF2 104 -7.721
53 AF2 105 -7.233
53 AF2 106 -7.233
53 AF2 107 -7.233
53 AF2 108 -5.768
53 AF2 109 -4.791
53 AF2 110 -4.303
53 AF2 111 -3.815
53 AF2 112 -4.303
53 AF2 113 -4.791
53 AF2 114 -4.791
53 AF2 115 -3.815
53 AF2 116 -2.350
53 AF2 117 -0.885
53 AF2 118 -0.885
53 AF2 119 -1.373
53 AF2 120 -2.350
53 AF2 121 -3.326
53 AF2 122 -3.326
53 AF2 123 -3.326
53 AF2 124 -3.326
53 AF2 125 -4.303
53 AF2 126 -5.280
53 AF2 127 -6.256
53 AF2 128 -6.744
53 AF2 129 -6.744
53 AF2 130 -7.233
53 AF2 131 -7.721
53 AF2 132 -8.209
53 AF2 133 -8.698
53 AF2 134 -8.698
53 AF2 135 -7.721
53 AF2 136 -6.256
53 AF2 137 -4.791
53 AF2 138 -4.303
53 AF2 139 -3.815
53 AF2 140 -3.326
53 AF2 141 -3.326
53 AF2 142 -2.838
53 AF2 143 -2.350
53 AF2 144 -2.350
53 AF2 145 -2.350
53 AF2 146 -3.326
53 AF2 147 -4.303
53 AF2 148 -5.768
53 AF2 149 -6.744
53 AF2 150 -7.233
53 AF2 151 -7.233
53 AF2 152 -7.233
53 AF2 153 -7.721
53 AF2 154 -8.698
53 AF2 155 -9.186
53 AF2 156 -9.674
53 AF2 157 -9.186
53 AF2 158 -8.698
53 AF2 159 -8.209
53 AF2 160 -8.698
53 AF2 161 -9.674
53 AF2 162 -11.139
53 AF2 163 -12.604
53 AF2 164 -14.069
53 AF2 165 -15.045
53 AF2 166 -16.022
53 AF2 167 -17.487
53 AF2 168 -17.975
53 AF2 169 -17.975
53 AF2 170 -16.998
53 AF2 171 -15.045
53 AF2 172 -13.580
53 AF2 173 -12.115
53 AF2 174 -11.139
53 AF2 175 -10.162
53 AF2 176 -8.698
53 AF2 177 -7.721
53 AF2 178 -6.744
53 AF2 179 -6.256
53 AF2 180 -5.768
53 AF2 181 -5.768
53 AF2 182 -5.768
53 AF2 183 -5.768
53 AF2 184 -6.256
53 AF2 185 -6.256
53 AF2 186 -5.280
53 AF2 187 -3.815
53 AF2 188 -1.862
53 AF2 189 0.580
53 AF2 190 2.045
53 AF2 191 3.021
53 AF2 192 4.486
53 AF2 193 5.463
53 AF2 194 7.416
53 AF2 195 9.369
53 AF2 196 10.345
53 AF2 197 10.345
53 AF2 198 9.369
53 AF2 199 8.392
53 AF2 200 7.416
53 AF2 201 6.439
53 AF2 202 6.927
53 AF2 203 6.927
53 AF2 204 6.927
53 AF2 205 6.927
53 AF2 206 6.927
53 AF2 207 6.439
53 AF2 208 6.439
53 AF2 209 6.439
53 AF2 210 5.951
53 AF2 211 5.951
53 AF2 212 6.439
53 AF2 213 6.927
53 AF2 214 7.904
53 AF2 215 9.369
53 AF2 216 10.345
53 AF2 217 10.834
53 AF2 218 10.834
53 AF2 219 10.345
53 AF2 220 8.881
53 AF2 221 7.416
53 AF2 222 6.927
53 AF2 223 7.416
53 AF2 224 8.881
53 AF2 225 9.857
53 AF2 226 9.857
53 AF2 227 9.369
53 AF2 228 9.369
53 AF2 229 9.857
53 AF2 230 11.322
53 AF2 231 12.299
53 AF2 232 12.787
53 AF2 233 11.810
53 AF2 234 10.345
53 AF2 235 8.392
53 AF2 236 7.416
53 AF2 237 7.416
53 AF2 238 6.927
53 AF2 239 5.951
53 AF2 240 4.486
53 AF2 241 2.533
53 AF2 242 0.580
53 AF2 243 -0.885
53 AF2 244 -1.373
53 AF2 245 -1.373
53 AF2 246 -1.373
53 AF2 247 -0.885
53 AF2 248 0.092
53 AF2 249 1.556
53 AF2 250 2.045
53 AF2 251 2.533
53 AF2 252 2.533
53 AF2 253 2.045
53 AF2 254 1.556
53 AF2 255 0.580
# FZ chan 6
53 FZ 0 11.983
53 FZ 1 11.495
53 FZ 2 10.518
53 FZ 3 9.054
53 FZ 4 7.589
53 FZ 5 5.636
53 FZ 6 3.194
53 FZ 7 0.264
53 FZ 8 -1.689
53 FZ 9 -3.153
53 FZ 10 -3.642
53 FZ 11 -3.153
53 FZ 12 -2.665
53 FZ 13 -2.665
53 FZ 14 -2.177
53 FZ 15 -1.689
53 FZ 16 -0.712
53 FZ 17 0.264
53 FZ 18 1.729
53 FZ 19 3.682
53 FZ 20 4.659
53 FZ 21 6.124
53 FZ 22 7.100
53 FZ 23 7.589
53 FZ 24 7.100
53 FZ 25 6.612
53 FZ 26 6.124
53 FZ 27 5.147
53 FZ 28 4.171
53 FZ 29 2.706
53 FZ 30 1.241
53 FZ 31 0.264
53 FZ 32 -1.200
53 FZ 33 -2.177
53 FZ 34 -3.153
53 FZ 35 -4.618
53 FZ 36 -6.083
53 FZ 37 -7.060
53 FZ 38 -7.548
53 FZ 39 -7.548
53 FZ 40 -7.060
53 FZ 41 -6.083
53 FZ 42 -5.595
53 FZ 43 -6.083
53 FZ 44 -6.571
53 FZ 45 -8.036
53 FZ 46 -8.525
53 FZ 47 -8.525
53 FZ 48 -8.036
53 FZ 49 -7.548
53 FZ 50 -6.571
53 FZ 51 -5.595
53 FZ 52 -4.130
53 FZ 53 -2.665
53 FZ 54 -0.712
53 FZ 55 0.264
53 FZ 56 0.753
53 FZ 57 0.264
53 FZ 58 -0.224
53 FZ 59 -0.712
53 FZ 60 -0.712
53 FZ 61 -0.712
53 FZ 62 -0.224
53 FZ 63 -0.224
53 FZ 64 -0.224
53 FZ 65 -1.200
53 FZ 66 -1.200
53 FZ 67 -2.177
53 FZ 68 -2.665
53 FZ 69 -3.642
53 FZ 70 -5.107
53 FZ 71 -6.083
53 FZ 72 -7.060
53 FZ 73 -7.548
53 FZ 74 -7.060
53 FZ 75 -7.060
53 FZ 76 -8.036
53 FZ 77 -9.501
53 FZ 78 -11.454
53 FZ 79 -13.407
53 FZ 80 -14.872
53 FZ 81 -15.849
53 FZ 82 -16.337
53 FZ 83 -16.825
53 FZ 84 -16.825
53 FZ 85 -16.825
53 FZ 86 -15.849
53 FZ 87 -14.872
53 FZ 88 -13.407
53 FZ 89 -12.431
53 FZ 90 -12.431
53 FZ 91 -13.407
53 FZ 92 -14.872
53 FZ 93 -15.361
53 FZ 94 -15.849
53 FZ 95 -14.872
53 FZ 96 -14.384
53 FZ 97 -14.384
53 FZ 98 -14.872
53 FZ 99 -15.361
53 FZ 100 -15.849
53 FZ 101 -14.872
53 FZ 102 -13.407
53 FZ 103 -11.943
53 FZ 104 -10.966
53 FZ 105 -10.966
53 FZ 106 -11.454
53 FZ 107 -11.943
53 FZ 108 -12.431
53 FZ 109 -11.943
53 FZ 110 -11.454
53 FZ 111 -11.454
53 FZ 112 -11.943
53 FZ 113 -12.919
53 FZ 114 -13.407
53 FZ 115 -12.919
53 FZ 116 -11.454
53 FZ 117 -10.478
53 FZ 118 -10.478
53 FZ 119 -10.966
53 FZ 120 -12.431
53 FZ 121 -13.407
53 FZ 122 -13.896
53 FZ 123 -13.896
53 FZ 124 -14.384
53 FZ 125 -15.361
53 FZ 126 -16.337
53 FZ 127 -16.825
53 FZ 128 -16.825
53 FZ 129 -16.825
53 FZ 130 -16.825
53 FZ 131 -16.825
53 FZ 132 -16.825
53 FZ 133 -16.825
53 FZ 134 -16.337
53 FZ 135 -14.872
53 FZ 136 -13.896
53 FZ 137 -12.919
53 FZ 138 -12.919
53 FZ 139 -12.919
53 FZ 140 -12.431
53 FZ 141 -11.454
53 FZ 142 -10.478
53 FZ 143 -9.501
53 FZ 144 -9.013
53 FZ 145 -9.013
53 FZ 146 -9.501
53 FZ 147 -10.478
53 FZ 148 -11.454
53 FZ 149 -11.943
53 FZ 150 -12.431
53 FZ 151 -12.431
53 FZ 152 -11.943
53 FZ 153 -12.431
53 FZ 154 -12.431
53 FZ 155 -12.919
53 FZ 156 -12.431
53 FZ 157 -11.943
53 FZ 158 -10.966
53 FZ 159 -10.478
53 FZ 160 -9.501
53 FZ 161 -9.501
53 FZ 162 -9.989
53 FZ 163 -10.478
53 FZ 164 -11.454
53 FZ 165 -12.431
53 FZ 166 -13.407
53 FZ 167 -14.384
53 FZ 168 -14.872
53 FZ 169 -14.384
53 FZ 170 -13.407
53 FZ 171 -11.943
53 FZ 172 -10.966
53 FZ 173 -9.989
53 FZ 174 -9.501
53 FZ 175 -9.013
53 FZ 176 -7.548
53 FZ 177 -6.571
53 FZ 178 -6.083
53 FZ 179 -6.083
53 FZ 180 -6.083
53 FZ 181 -5.595
53 FZ 182 -6.083
53 FZ 183 -6.083
53 FZ 184 -6.571
53 FZ 185 -7.060
53 FZ 186 -7.548
53 FZ 187 -6.571
53 FZ 188 -5.107
53 FZ 189 -2.665
53 FZ 190 -0.712
53 FZ 191 0.753
53 FZ 192 1.729
53 FZ 193 2.218
53 FZ 194 3.194
53 FZ 195 4.171
53 FZ 196 4.659
53 FZ 197 4.171
53 FZ 198 3.194
53 FZ 199 2.218
53 FZ 200 1.241
53 FZ 201 1.729
53 FZ 202 2.218
53 FZ 203 3.194
53 FZ 204 3.194
53 FZ 205 2.218
53 FZ 206 1.241
53 FZ 207 1.241
53 FZ 208 1.241
53 FZ 209 1.729
53 FZ 210 2.218
53 FZ 211 2.218
53 FZ 212 2.706
53 FZ 213 3.194
53 FZ 214 3.682
53 FZ 215 4.659
53 FZ 216 5.636
53 FZ 217 6.612
53 FZ 218 6.124
53 FZ 219 5.147
53 FZ 220 3.682
53 FZ 221 1.729
53 FZ 222 0.264
53 FZ 223 -0.712
53 FZ 224 -0.712
53 FZ 225 -0.224
53 FZ 226 -0.712
53 FZ 227 -0.712
53 FZ 228 -0.712
53 FZ 229 -0.712
53 FZ 230 0.264
53 FZ 231 0.753
53 FZ 232 1.241
53 FZ 233 0.753
53 FZ 234 -0.224
53 FZ 235 -1.200
53 FZ 236 -1.689
53 FZ 237 -1.689
53 FZ 238 -1.689
53 FZ 239 -2.177
53 FZ 240 -3.153
53 FZ 241 -5.107
53 FZ 242 -6.571
53 FZ 243 -8.036
53 FZ 244 -8.525
53 FZ 245 -8.525
53 FZ 246 -8.036
53 FZ 247 -7.060
53 FZ 248 -6.083
53 FZ 249 -5.107
53 FZ 250 -5.107
53 FZ 251 -4.618
53 FZ 252 -5.107
53 FZ 253 -5.107
53 FZ 254 -5.107
53 FZ 255 -5.107
# F4 chan 7
53 F4 0 18.443
53 F4 1 18.443
53 F4 2 16.978
53 F4 3 16.001
53 F4 4 14.048
53 F4 5 12.095
53 F4 6 9.654
53 F4 7 7.212
53 F4 8 4.771
53 F4 9 3.794
53 F4 10 3.306
53 F4 11 3.794
53 F4 12 4.283
53 F4 13 4.283
53 F4 14 4.283
53 F4 15 4.283
53 F4 16 5.259
53 F4 17 6.724
53 F4 18 8.677
53 F4 19 10.142
53 F4 20 11.607
53 F4 21 13.072
53 F4 22 14.048
53 F4 23 15.025
53 F4 24 15.025
53 F4 25 14.048
53 F4 26 13.072
53 F4 27 11.119
53 F4 28 9.654
53 F4 29 8.677
53 F4 30 8.189
53 F4 31 8.189
53 F4 32 8.189
53 F4 33 7.212
53 F4 34 6.236
53 F4 35 4.283
53 F4 36 2.330
53 F4 37 0.865
53 F4 38 -0.600
53 F4 39 -2.065
53 F4 40 -3.530
53 F4 41 -4.506
53 F4 42 -5.971
53 F4 43 -6.948
53 F4 44 -6.948
53 F4 45 -6.948
53 F4 46 -6.948
53 F4 47 -6.948
53 F4 48 -6.948
53 F4 49 -6.948
53 F4 50 -6.460
53 F4 51 -5.483
53 F4 52 -4.018
53 F4 53 -3.042
53 F4 54 -2.065
53 F4 55 -2.065
53 F4 56 -2.065
53 F4 57 -2.065
53 F4 58 -1.577
53 F4 59 -0.112
53 F4 60 0.865
53 F4 61 2.330
53 F4 62 3.306
53 F4 63 3.306
53 F4 64 2.818
53 F4 65 1.841
53 F4 66 0.865
53 F4 67 -0.112
53 F4 68 -2.553
53 F4 69 -4.995
53 F4 70 -7.924
53 F4 71 -10.366
53 F4 72 -11.342
53 F4 73 -10.854
53 F4 74 -8.901
53 F4 75 -7.924
53 F4 76 -7.436
53 F4 77 -8.413
53 F4 78 -10.854
53 F4 79 -13.295
53 F4 80 -15.249
53 F4 81 -16.713
53 F4 82 -17.690
53 F4 83 -18.667
53 F4 84 -18.667
53 F4 85 -18.667
53 F4 86 -17.202
53 F4 87 -15.249
53 F4 88 -12.807
53 F4 89 -10.854
53 F4 90 -9.878
53 F4 91 -9.389
53 F4 92 -9.389
53 F4 93 -8.901
53 F4 94 -7.924
53 F4 95 -6.948
53 F4 96 -6.460
53 F4 97 -5.971
53 F4 98 -5.483
53 F4 99 -5.483
53 F4 100 -4.995
53 F4 101 -3.530
53 F4 102 -2.553
53 F4 103 -1.577
53 F4 104 -1.088
53 F4 105 -1.088
53 F4 106 -1.577
53 F4 107 -2.065
53 F4 108 -1.577
53 F4 109 -0.600
53 F4 110 -0.112
53 F4 111 -0.112
53 F4 112 -0.112
53 F4 113 -0.600
53 F4 114 -1.088
53 F4 115 -0.600
53 F4 116 0.865
53 F4 117 1.841
53 F4 118 1.841
53 F4 119 1.353
53 F4 120 0.376
53 F4 121 -0.112
53 F4 122 -0.600
53 F4 123 -0.112
53 F4 124 -0.112
53 F4 125 -1.088
53 F4 126 -1.577
53 F4 127 -2.553
53 F4 128 -2.553
53 F4 129 -2.553
53 F4 130 -2.553
53 F4 131 -3.042
53 F4 132 -3.530
53 F4 133 -3.042
53 F4 134 -2.065
53 F4 135 -1.088
53 F4 136 -0.112
53 F4 137 0.865
53 F4 138 1.841
53 F4 139 2.818
53 F4 140 3.794
53 F4 141 4.283
53 F4 142 4.771
53 F4 143 4.283
53 F4 144 3.794
53 F4 145 3.306
53 F4 146 2.818
53 F4 147 1.841
53 F4 148 0.376
53 F4 149 -0.112
53 F4 150 -0.600
53 F4 151 -0.600
53 F4 152 -0.600
53 F4 153 -1.577
53 F4 154 -2.065
53 F4 155 -2.553
53 F4 156 -2.553
53 F4 157 -2.553
53 F4 158 -2.065
53 F4 159 -2.065
53 F4 160 -2.553
53 F4 161 -4.018
53 F4 162 -4.995
53 F4 163 -5.971
53 F4 164 -6.460
53 F4 165 -7.436
53 F4 166 -8.413
53 F4 167 -9.389
53 F4 168 -10.366
53 F4 169 -10.366
53 F4 170 -9.878
53 F4 171 -9.389
53 F4 172 -8.901
53 F4 173 -8.413
53 F4 174 -7.436
53 F4 175 -6.948
53 F4 176 -5.483
53 F4 177 -4.018
53 F4 178 -3.042
53 F4 179 -2.553
53 F4 180 -2.553
53 F4 181 -2.553
53 F4 182 -2.553
53 F4 183 -2.065
53 F4 184 -2.065
53 F4 185 -2.553
53 F4 186 -2.553
53 F4 187 -1.577
53 F4 188 0.376
53 F4 189 1.841
53 F4 190 3.306
53 F4 191 4.283
53 F4 192 4.771
53 F4 193 5.259
53 F4 194 6.236
53 F4 195 7.212
53 F4 196 8.189
53 F4 197 8.189
53 F4 198 7.212
53 F4 199 6.236
53 F4 200 5.259
53 F4 201 4.771
53 F4 202 4.771
53 F4 203 4.771
53 F4 204 5.747
53 F4 205 6.236
53 F4 206 6.236
53 F4 207 6.724
53 F4 208 6.236
53 F4 209 5.259
53 F4 210 3.794
53 F4 211 2.818
53 F4 212 2.330
53 F4 213 3.306
53 F4 214 4.283
53 F4 215 6.236
53 F4 216 8.189
53 F4 217 9.165
53 F4 218 9.654
53 F4 219 9.654
53 F4 220 8.677
53 F4 221 7.701
53 F4 222 7.212
53 F4 223 7.701
53 F4 224 8.677
53 F4 225 9.165
53 F4 226 9.165
53 F4 227 8.677
53 F4 228 8.677
53 F4 229 8.677
53 F4 230 9.654
53 F4 231 10.630
53 F4 232 10.142
53 F4 233 8.677
53 F4 234 6.236
53 F4 235 4.283
53 F4 236 2.818
53 F4 237 2.330
53 F4 238 1.841
53 F4 239 1.353
53 F4 240 -0.112
53 F4 241 -2.065
53 F4 242 -3.530
53 F4 243 -4.995
53 F4 244 -5.483
53 F4 245 -5.483
53 F4 246 -4.506
53 F4 247 -2.553
53 F4 248 -0.112
53 F4 249 2.818
53 F4 250 5.259
53 F4 251 6.236
53 F4 252 5.747
53 F4 253 3.794
53 F4 254 0.376
53 F4 255 -1.577
# F3 chan 8
53 F3 0 11.353
53 F3 1 11.353
53 F3 2 10.376
53 F3 3 8.911
53 F3 4 6.958
53 F3 5 4.028
53 F3 6 1.099
53 F3 7 -1.831
53 F3 8 -4.272
53 F3 9 -5.737
53 F3 10 -6.714
53 F3 11 -6.714
53 F3 12 -6.226
53 F3 13 -5.249
53 F3 14 -3.784
53 F3 15 -2.319
53 F3 16 -0.854
53 F3 17 0.122
53 F3 18 1.587
53 F3 19 3.052
53 F3 20 5.005
53 F3 21 6.470
53 F3 22 7.935
53 F3 23 7.935
53 F3 24 6.470
53 F3 25 5.005
53 F3 26 3.540
53 F3 27 3.052
53 F3 28 2.075
53 F3 29 1.099
53 F3 30 -0.854
53 F3 31 -3.296
53 F3 32 -4.761
53 F3 33 -5.737
53 F3 34 -6.226
53 F3 35 -7.202
53 F3 36 -8.179
53 F3 37 -9.644
53 F3 38 -10.620
53 F3 39 -10.620
53 F3 40 -9.644
53 F3 41 -8.179
53 F3 42 -7.690
53 F3 43 -8.179
53 F3 44 -9.155
53 F3 45 -10.132
53 F3 46 -10.620
53 F3 47 -11.108
53 F3 48 -10.620
53 F3 49 -10.620
53 F3 50 -10.620
53 F3 51 -10.132
53 F3 52 -8.667
53 F3 53 -6.226
53 F3 54 -3.784
53 F3 55 -2.319
53 F3 56 -1.831
53 F3 57 -2.319
53 F3 58 -2.808
53 F3 59 -3.784
53 F3 60 -3.296
53 F3 61 -2.808
53 F3 62 -2.808
53 F3 63 -2.808
53 F3 64 -3.296
53 F3 65 -3.296
53 F3 66 -2.808
53 F3 67 -1.831
53 F3 68 -0.854
53 F3 69 -0.366
53 F3 70 -0.854
53 F3 71 -1.831
53 F3 72 -2.808
53 F3 73 -3.784
53 F3 74 -4.272
53 F3 75 -4.761
53 F3 76 -5.737
53 F3 77 -7.690
53 F3 78 -10.132
53 F3 79 -12.573
53 F3 80 -14.038
53 F3 81 -15.015
53 F3 82 -15.503
53 F3 83 -15.503
53 F3 84 -15.015
53 F3 85 -14.526
53 F3 86 -13.062
53 F3 87 -11.597
53 F3 88 -10.620
53 F3 89 -10.620
53 F3 90 -11.597
53 F3 91 -13.062
53 F3 92 -14.526
53 F3 93 -15.015
53 F3 94 -15.503
53 F3 95 -15.991
53 F3 96 -16.479
53 F3 97 -17.456
53 F3 98 -18.433
53 F3 99 -18.433
53 F3 100 -18.433
53 F3 101 -17.944
53 F3 102 -16.968
53 F3 103 -16.479
53 F3 104 -15.991
53 F3 105 -15.991
53 F3 106 -16.479
53 F3 107 -17.944
53 F3 108 -18.921
53 F3 109 -19.897
53 F3 110 -19.897
53 F3 111 -19.409
53 F3 112 -18.921
53 F3 113 -18.433
53 F3 114 -18.433
53 F3 115 -17.456
53 F3 116 -15.991
53 F3 117 -14.526
53 F3 118 -14.038
53 F3 119 -14.526
53 F3 120 -15.503
53 F3 121 -16.479
53 F3 122 -16.968
53 F3 123 -16.479
53 F3 124 -15.991
53 F3 125 -15.991
53 F3 126 -16.479
53 F3 127 -16.968
53 F3 128 -16.968
53 F3 129 -16.479
53 F3 130 -15.503
53 F3 131 -15.015
53 F3 132 -14.526
53 F3 133 -13.550
53 F3 134 -13.062
53 F3 135 -11.597
53 F3 136 -10.620
53 F3 137 -9.644
53 F3 138 -9.155
53 F3 139 -9.155
53 F3 140 -8.667
53 F3 141 -8.179
53 F3 142 -6.714
53 F3 143 -5.737
53 F3 144 -5.249
53 F3 145 -5.249
53 F3 146 -6.714
53 F3 147 -7.690
53 F3 148 -9.155
53 F3 149 -10.132
53 F3 150 -10.132
53 F3 151 -9.155
53 F3 152 -8.179
53 F3 153 -8.179
53 F3 154 -8.179
53 F3 155 -8.179
53 F3 156 -8.667
53 F3 157 -8.179
53 F3 158 -7.690
53 F3 159 -6.714
53 F3 160 -6.226
53 F3 161 -6.714
53 F3 162 -7.202
53 F3 163 -8.667
53 F3 164 -9.644
53 F3 165 -10.620
53 F3 166 -11.597
53 F3 167 -12.085
53 F3 168 -12.573
53 F3 169 -12.085
53 F3 170 -10.620
53 F3 171 -9.155
53 F3 172 -7.690
53 F3 173 -6.714
53 F3 174 -6.226
53 F3 175 -5.737
53 F3 176 -4.761
53 F3 177 -4.272
53 F3 178 -3.296
53 F3 179 -2.808
53 F3 180 -2.319
53 F3 181 -2.319
53 F3 182 -2.319
53 F3 183 -2.808
53 F3 184 -3.296
53 F3 185 -3.296
53 F3 186 -2.808
53 F3 187 -1.831
53 F3 188 -0.366
53 F3 189 1.099
53 F3 190 2.075
53 F3 191 3.052
53 F3 192 4.028
53 F3 193 4.517
53 F3 194 5.493
53 F3 195 5.981
53 F3 196 6.470
53 F3 197 5.981
53 F3 198 5.005
53 F3 199 3.540
53 F3 200 3.052
53 F3 201 2.563
53 F3 202 2.075
53 F3 203 2.075
53 F3 204 1.099
53 F3 205 0.122
53 F3 206 -0.854
53 F3 207 -1.343
53 F3 208 -0.854
53 F3 209 -0.854
53 F3 210 0.122
53 F3 211 1.099
53 F3 212 2.075
53 F3 213 3.052
53 F3 214 3.540
53 F3 215 4.028
53 F3 216 4.028
53 F3 217 3.052
53 F3 218 2.075
53 F3 219 0.122
53 F3 220 -1.831
53 F3 221 -3.784
53 F3 222 -5.737
53 F3 223 -5.737
53 F3 224 -5.249
53 F3 225 -4.272
53 F3 226 -3.784
53 F3 227 -3.784
53 F3 228 -3.784
53 F3 229 -3.784
53 F3 230 -2.808
53 F3 231 -1.831
53 F3 232 -1.343
53 F3 233 -0.854
53 F3 234 -0.854
53 F3 235 -0.854
53 F3 236 0.122
53 F3 237 1.099
53 F3 238 2.075
53 F3 239 2.075
53 F3 240 1.587
53 F3 241 0.610
53 F3 242 -0.366
53 F3 243 -0.854
53 F3 244 -1.343
53 F3 245 -0.854
53 F3 246 -0.854
53 F3 247 0.122
53 F3 248 -0.366
53 F3 249 -0.854
53 F3 250 -1.343
53 F3 251 -2.319
53 F3 252 -2.808
53 F3 253 -2.319
53 F3 254 -1.343
53 F3 255 -0.366
# FC6 chan 9
53 FC6 0 19.918
53 FC6 1 19.430
53 FC6 2 18.941
53 FC6 3 18.941
53 FC6 4 18.453
53 FC6 5 17.965
53 FC6 6 16.012
53 FC6 7 13.570
53 FC6 8 10.640
53 FC6 9 8.687
53 FC6 10 7.711
53 FC6 11 7.222
53 FC6 12 6.734
53 FC6 13 6.246
53 FC6 14 6.246
53 FC6 15 6.734
53 FC6 16 7.711
53 FC6 17 9.176
53 FC6 18 10.640
53 FC6 19 12.594
53 FC6 20 14.058
53 FC6 21 15.523
53 FC6 22 16.500
53 FC6 23 17.476
53 FC6 24 17.476
53 FC6 25 16.500
53 FC6 26 15.035
53 FC6 27 14.058
53 FC6 28 12.594
53 FC6 29 11.617
53 FC6 30 11.129
53 FC6 31 11.617
53 FC6 32 12.105
53 FC6 33 12.594
53 FC6 34 12.105
53 FC6 35 10.640
53 FC6 36 8.687
53 FC6 37 6.246
53 FC6 38 3.805
53 FC6 39 0.387
53 FC6 40 -2.543
53 FC6 41 -5.473
53 FC6 42 -7.426
53 FC6 43 -8.403
53 FC6 44 -8.403
53 FC6 45 -7.426
53 FC6 46 -6.449
53 FC6 47 -5.961
53 FC6 48 -5.473
53 FC6 49 -4.985
53 FC6 50 -4.496
53 FC6 51 -3.520
53 FC6 52 -2.543
53 FC6 53 -1.567
53 FC6 54 -1.567
53 FC6 55 -2.055
53 FC6 56 -2.055
53 FC6 57 -2.543
53 FC6 58 -1.567
53 FC6 59 -0.102
53 FC6 60 1.851
53 FC6 61 3.316
53 FC6 62 4.781
53 FC6 63 5.269
53 FC6 64 5.269
53 FC6 65 4.781
53 FC6 66 4.293
53 FC6 67 3.316
53 FC6 68 1.363
53 FC6 69 -1.078
53 FC6 70 -4.008
53 FC6 71 -5.473
53 FC6 72 -6.449
53 FC6 73 -5.473
53 FC6 74 -3.520
53 FC6 75 -2.055
53 FC6 76 -1.567
53 FC6 77 -2.055
53 FC6 78 -3.520
53 FC6 79 -5.473
53 FC6 80 -6.938
53 FC6 81 -7.914
53 FC6 82 -8.403
53 FC6 83 -8.891
53 FC6 84 -9.379
53 FC6 85 -9.867
53 FC6 86 -8.891
53 FC6 87 -7.426
53 FC6 88 -4.985
53 FC6 89 -3.031
53 FC6 90 -2.055
53 FC6 91 -2.055
53 FC6 92 -2.543
53 FC6 93 -3.031
53 FC6 94 -2.055
53 FC6 95 -0.102
53 FC6 96 1.851
53 FC6 97 2.828
53 FC6 98 2.828
53 FC6 99 2.340
53 FC6 100 2.340
53 FC6 101 2.340
53 FC6 102 3.316
53 FC6 103 3.805
53 FC6 104 3.316
53 FC6 105 2.828
53 FC6 106 2.828
53 FC6 107 2.828
53 FC6 108 3.805
53 FC6 109 4.781
53 FC6 110 5.758
53 FC6 111 6.734
53 FC6 112 6.734
53 FC6 113 6.734
53 FC6 114 6.734
53 FC6 115 6.246
53 FC6 116 6.734
53 FC6 117 6.734
53 FC6 118 6.734
53 FC6 119 6.734
53 FC6 120 6.246
53 FC6 121 5.269
53 FC6 122 4.293
53 FC6 123 3.805
53 FC6 124 4.293
53 FC6 125 5.758
53 FC6 126 7.711
53 FC6 127 9.664
53 FC6 128 10.152
53 FC6 129 9.664
53 FC6 130 8.199
53 FC6 131 7.222
53 FC6 132 6.734
53 FC6 133 7.222
53 FC6 134 8.199
53 FC6 135 9.176
53 FC6 136 10.640
53 FC6 137 11.617
53 FC6 138 12.594
53 FC6 139 14.058
53 FC6 140 14.547
53 FC6 141 14.547
53 FC6 142 14.058
53 FC6 143 13.082
53 FC6 144 12.105
53 FC6 145 10.640
53 FC6 146 9.176
53 FC6 147 7.711
53 FC6 148 6.734
53 FC6 149 6.734
53 FC6 150 6.246
53 FC6 151 6.734
53 FC6 152 7.222
53 FC6 153 7.222
53 FC6 154 6.734
53 FC6 155 5.758
53 FC6 156 5.269
53 FC6 157 4.293
53 FC6 158 3.805
53 FC6 159 2.828
53 FC6 160 1.851
53 FC6 161 0.875
53 FC6 162 0.387
53 FC6 163 0.387
53 FC6 164 0.387
53 FC6 165 0.387
53 FC6 166 -0.102
53 FC6 167 -0.590
53 FC6 168 -1.078
53 FC6 169 -0.590
53 FC6 170 -0.102
53 FC6 171 0.875
53 FC6 172 1.851
53 FC6 173 1.851
53 FC6 174 1.851
53 FC6 175 2.340
53 FC6 176 3.805
53 FC6 177 5.758
53 FC6 178 6.734
53 FC6 179 7.711
53 FC6 180 7.711
53 FC6 181 7.711
53 FC6 182 8.199
53 FC6 183 8.199
53 FC6 184 8.199
53 FC6 185 8.199
53 FC6 186 7.711
53 FC6 187 7.711
53 FC6 188 7.711
53 FC6 189 7.711
53 FC6 190 7.711
53 FC6 191 7.711
53 FC6 192 8.199
53 FC6 193 9.176
53 FC6 194 10.640
53 FC6 195 12.105
53 FC6 196 13.570
53 FC6 197 14.547
53 FC6 198 14.547
53 FC6 199 14.547
53 FC6 200 13.570
53 FC6 201 12.594
53 FC6 202 10.640
53 FC6 203 9.176
53 FC6 204 7.711
53 FC6 205 7.711
53 FC6 206 8.687
53 FC6 207 9.664
53 FC6 208 10.640
53 FC6 209 10.152
53 FC6 210 8.687
53 FC6 211 7.711
53 FC6 212 7.222
53 FC6 213 7.711
53 FC6 214 8.687
53 FC6 215 8.687
53 FC6 216 8.687
53 FC6 217 8.687
53 FC6 218 8.199
53 FC6 219 8.199
53 FC6 220 8.199
53 FC6 221 8.687
53 FC6 222 9.664
53 FC6 223 11.129
53 FC6 224 13.082
53 FC6 225 15.035
53 FC6 226 16.500
53 FC6 227 16.988
53 FC6 228 16.988
53 FC6 229 16.988
53 FC6 230 16.988
53 FC6 231 16.012
53 FC6 232 13.570
53 FC6 233 10.640
53 FC6 234 7.222
53 FC6 235 4.293
53 FC6 236 3.316
53 FC6 237 3.316
53 FC6 238 4.293
53 FC6 239 5.758
53 FC6 240 5.758
53 FC6 241 5.758
53 FC6 242 5.758
53 FC6 243 5.758
53 FC6 244 6.734
53 FC6 245 7.711
53 FC6 246 9.176
53 FC6 247 11.617
53 FC6 248 14.547
53 FC6 249 17.476
53 FC6 250 20.406
53 FC6 251 22.359
53 FC6 252 21.383
53 FC6 253 17.965
53 FC6 254 13.570
53 FC6 255 9.176
# FC5 chan 10
53 FC5 0 14.313
53 FC5 1 14.313
53 FC5 2 13.336
53 FC5 3 12.360
53 FC5 4 10.895
53 FC5 5 8.453
53 FC5 6 5.524
53 FC5 7 2.106
53 FC5 8 -0.824
53 FC5 9 -2.777
53 FC5 10 -3.754
53 FC5 11 -3.754
53 FC5 12 -2.777
53 FC5 13 -1.312
53 FC5 14 0.641
53 FC5 15 2.594
53 FC5 16 4.059
53 FC5 17 5.524
53 FC5 18 6.500
53 FC5 19 7.965
53 FC5 20 9.430
53 FC5 21 10.895
53 FC5 22 11.383
53 FC5 23 9.918
53 FC5 24 7.965
53 FC5 25 6.012
53 FC5 26 4.547
53 FC5 27 4.059
53 FC5 28 3.571
53 FC5 29 2.106
53 FC5 30 -0.336
53 FC5 31 -1.801
53 FC5 32 -2.777
53 FC5 33 -1.801
53 FC5 34 -0.336
53 FC5 35 0.153
53 FC5 36 -0.824
53 FC5 37 -2.777
53 FC5 38 -4.730
53 FC5 39 -5.707
53 FC5 40 -5.219
53 FC5 41 -3.754
53 FC5 42 -3.265
53 FC5 43 -3.265
53 FC5 44 -3.754
53 FC5 45 -4.730
53 FC5 46 -5.219
53 FC5 47 -4.730
53 FC5 48 -4.242
53 FC5 49 -4.242
53 FC5 50 -4.242
53 FC5 51 -4.242
53 FC5 52 -3.265
53 FC5 53 -1.801
53 FC5 54 0.641
53 FC5 55 1.617
53 FC5 56 2.106
53 FC5 57 1.129
53 FC5 58 0.641
53 FC5 59 0.153
53 FC5 60 1.617
53 FC5 61 2.594
53 FC5 62 2.594
53 FC5 63 2.106
53 FC5 64 1.129
53 FC5 65 1.129
53 FC5 66 2.106
53 FC5 67 4.547
53 FC5 68 6.989
53 FC5 69 8.453
53 FC5 70 8.453
53 FC5 71 7.477
53 FC5 72 6.500
53 FC5 73 6.012
53 FC5 74 5.524
53 FC5 75 5.524
53 FC5 76 4.547
53 FC5 77 2.594
53 FC5 78 0.153
53 FC5 79 -2.777
53 FC5 80 -4.730
53 FC5 81 -6.683
53 FC5 82 -7.660
53 FC5 83 -8.636
53 FC5 84 -9.125
53 FC5 85 -9.125
53 FC5 86 -7.660
53 FC5 87 -5.707
53 FC5 88 -3.754
53 FC5 89 -3.265
53 FC5 90 -3.265
53 FC5 91 -4.730
53 FC5 92 -5.707
53 FC5 93 -6.195
53 FC5 94 -5.707
53 FC5 95 -5.707
53 FC5 96 -6.195
53 FC5 97 -7.172
53 FC5 98 -9.125
53 FC5 99 -10.101
53 FC5 100 -10.101
53 FC5 101 -9.613
53 FC5 102 -9.125
53 FC5 103 -8.636
53 FC5 104 -8.636
53 FC5 105 -8.636
53 FC5 106 -9.613
53 FC5 107 -11.566
53 FC5 108 -13.519
53 FC5 109 -15.472
53 FC5 110 -15.961
53 FC5 111 -15.472
53 FC5 112 -14.496
53 FC5 113 -14.008
53 FC5 114 -13.519
53 FC5 115 -13.031
53 FC5 116 -12.054
53 FC5 117 -10.590
53 FC5 118 -8.636
53 FC5 119 -8.148
53 FC5 120 -8.148
53 FC5 121 -9.125
53 FC5 122 -9.613
53 FC5 123 -10.101
53 FC5 124 -9.613
53 FC5 125 -9.125
53 FC5 126 -8.636
53 FC5 127 -8.148
53 FC5 128 -7.660
53 FC5 129 -7.172
53 FC5 130 -5.707
53 FC5 131 -4.730
53 FC5 132 -3.754
53 FC5 133 -2.777
53 FC5 134 -1.801
53 FC5 135 0.153
53 FC5 136 2.106
53 FC5 137 4.059
53 FC5 138 5.524
53 FC5 139 6.012
53 FC5 140 6.500
53 FC5 141 6.989
53 FC5 142 7.965
53 FC5 143 7.965
53 FC5 144 7.965
53 FC5 145 6.989
53 FC5 146 5.524
53 FC5 147 3.571
53 FC5 148 3.082
53 FC5 149 2.594
53 FC5 150 3.082
53 FC5 151 3.082
53 FC5 152 3.571
53 FC5 153 4.059
53 FC5 154 4.547
53 FC5 155 5.035
53 FC5 156 5.035
53 FC5 157 5.035
53 FC5 158 5.035
53 FC5 159 5.035
53 FC5 160 5.524
53 FC5 161 5.524
53 FC5 162 4.547
53 FC5 163 3.571
53 FC5 164 2.594
53 FC5 165 1.617
53 FC5 166 1.129
53 FC5 167 1.129
53 FC5 168 2.106
53 FC5 169 3.082
53 FC5 170 4.059
53 FC5 171 5.035
53 FC5 172 5.524
53 FC5 173 6.500
53 FC5 174 6.989
53 FC5 175 7.965
53 FC5 176 7.965
53 FC5 177 7.965
53 FC5 178 8.453
53 FC5 179 8.453
53 FC5 180 9.430
53 FC5 181 9.918
53 FC5 182 10.406
53 FC5 183 9.918
53 FC5 184 8.942
53 FC5 185 8.453
53 FC5 186 8.453
53 FC5 187 8.942
53 FC5 188 9.430
53 FC5 189 8.942
53 FC5 190 8.453
53 FC5 191 7.477
53 FC5 192 6.989
53 FC5 193 6.989
53 FC5 194 7.965
53 FC5 195 8.453
53 FC5 196 8.942
53 FC5 197 8.453
53 FC5 198 7.477
53 FC5 199 6.989
53 FC5 200 6.012
53 FC5 201 5.035
53 FC5 202 3.571
53 FC5 203 2.106
53 FC5 204 1.129
53 FC5 205 0.153
53 FC5 206 0.153
53 FC5 207 0.153
53 FC5 208 0.153
53 FC5 209 0.153
53 FC5 210 0.641
53 FC5 211 1.617
53 FC5 212 3.082
53 FC5 213 4.547
53 FC5 214 5.035
53 FC5 215 4.547
53 FC5 216 3.571
53 FC5 217 2.106
53 FC5 218 0.153
53 FC5 219 -1.312
53 FC5 220 -3.265
53 FC5 221 -4.730
53 FC5 222 -4.730
53 FC5 223 -3.754
53 FC5 224 -1.801
53 FC5 225 0.153
53 FC5 226 0.641
53 FC5 227 0.153
53 FC5 228 0.153
53 FC5 229 0.153
53 FC5 230 0.641
53 FC5 231 1.617
53 FC5 232 2.594
53 FC5 233 3.082
53 FC5 234 4.059
53 FC5 235 5.524
53 FC5 236 7.477
53 FC5 237 9.430
53 FC5 238 11.871
53 FC5 239 12.848
53 FC5 240 12.848
53 FC5 241 12.360
53 FC5 242 12.360
53 FC5 243 12.360
53 FC5 244 12.360
53 FC5 245 12.848
53 FC5 246 13.336
53 FC5 247 12.848
53 FC5 248 12.360
53 FC5 249 10.895
53 FC5 250 9.918
53 FC5 251 8.942
53 FC5 252 8.942
53 FC5 253 9.430
53 FC5 254 10.895
53 FC5 255 11.871
# FC2 chan 11
53 FC2 0 6.602
53 FC2 1 6.602
53 FC2 2 6.602
53 FC2 3 6.114
53 FC2 4 5.137
53 FC2 5 3.672
53 FC2 6 1.719
53 FC2 7 0.254
53 FC2 8 -0.722
53 FC2 9 -1.211
53 FC2 10 -1.211
53 FC2 11 -1.211
53 FC2 12 -1.699
53 FC2 13 -2.187
53 FC2 14 -2.675
53 FC2 15 -2.675
53 FC2 16 -2.675
53 FC2 17 -1.699
53 FC2 18 -1.211
53 FC2 19 0.254
53 FC2 20 1.231
53 FC2 21 2.696
53 FC2 22 4.161
53 FC2 23 5.625
53 FC2 24 6.114
53 FC2 25 5.625
53 FC2 26 4.649
53 FC2 27 3.672
53 FC2 28 2.207
53 FC2 29 1.719
53 FC2 30 1.231
53 FC2 31 1.231
53 FC2 32 1.231
53 FC2 33 1.231
53 FC2 34 0.743
53 FC2 35 -0.234
53 FC2 36 -1.211
53 FC2 37 -2.187
53 FC2 38 -3.164
53 FC2 39 -3.652
53 FC2 40 -4.140
53 FC2 41 -4.628
53 FC2 42 -5.605
53 FC2 43 -5.605
53 FC2 44 -5.605
53 FC2 45 -5.605
53 FC2 46 -5.605
53 FC2 47 -5.117
53 FC2 48 -4.628
53 FC2 49 -3.652
53 FC2 50 -2.675
53 FC2 51 -1.699
53 FC2 52 -0.722
53 FC2 53 -0.234
53 FC2 54 -0.234
53 FC2 55 -0.234
53 FC2 56 -0.234
53 FC2 57 -0.234
53 FC2 58 -0.234
53 FC2 59 0.254
53 FC2 60 1.231
53 FC2 61 1.719
53 FC2 62 2.207
53 FC2 63 2.696
53 FC2 64 2.207
53 FC2 65 1.719
53 FC2 66 1.231
53 FC2 67 -0.234
53 FC2 68 -1.211
53 FC2 69 -3.164
53 FC2 70 -5.117
53 FC2 71 -6.093
53 FC2 72 -6.582
53 FC2 73 -6.093
53 FC2 74 -5.117
53 FC2 75 -4.140
53 FC2 76 -4.140
53 FC2 77 -4.140
53 FC2 78 -5.117
53 FC2 79 -6.093
53 FC2 80 -7.558
53 FC2 81 -8.046
53 FC2 82 -8.535
53 FC2 83 -8.535
53 FC2 84 -8.535
53 FC2 85 -8.046
53 FC2 86 -7.070
53 FC2 87 -6.093
53 FC2 88 -5.117
53 FC2 89 -4.140
53 FC2 90 -3.652
53 FC2 91 -3.652
53 FC2 92 -3.652
53 FC2 93 -3.652
53 FC2 94 -4.140
53 FC2 95 -4.140
53 FC2 96 -4.140
53 FC2 97 -4.140
53 FC2 98 -4.628
53 FC2 99 -4.628
53 FC2 100 -4.628
53 FC2 101 -4.140
53 FC2 102 -3.164
53 FC2 103 -2.187
53 FC2 104 -1.211
53 FC2 105 -1.211
53 FC2 106 -1.211
53 FC2 107 -2.187
53 FC2 108 -2.675
53 FC2 109 -2.675
53 FC2 110 -1.699
53 FC2 111 -1.211
53 FC2 112 -1.211
53 FC2 113 -1.699
53 FC2 114 -2.187
53 FC2 115 -2.187
53 FC2 116 -1.699
53 FC2 117 -1.211
53 FC2 118 -1.211
53 FC2 119 -1.211
53 FC2 120 -2.187
53 FC2 121 -3.164
53 FC2 122 -3.164
53 FC2 123 -2.675
53 FC2 124 -1.699
53 FC2 125 -1.699
53 FC2 126 -1.699
53 FC2 127 -1.699
53 FC2 128 -2.187
53 FC2 129 -2.675
53 FC2 130 -3.164
53 FC2 131 -3.652
53 FC2 132 -3.652
53 FC2 133 -3.652
53 FC2 134 -3.164
53 FC2 135 -2.675
53 FC2 136 -1.699
53 FC2 137 -1.211
53 FC2 138 -0.722
53 FC2 139 -0.722
53 FC2 140 -0.234
53 FC2 141 0.254
53 FC2 142 0.743
53 FC2 143 0.743
53 FC2 144 0.743
53 FC2 145 -0.234
53 FC2 146 -0.722
53 FC2 147 -1.699
53 FC2 148 -2.187
53 FC2 149 -2.675
53 FC2 150 -2.187
53 FC2 151 -2.675
53 FC2 152 -2.675
53 FC2 153 -3.164
53 FC2 154 -3.652
53 FC2 155 -3.652
53 FC2 156 -3.164
53 FC2 157 -2.675
53 FC2 158 -2.187
53 FC2 159 -1.211
53 FC2 160 -1.211
53 FC2 161 -1.211
53 FC2 162 -1.211
53 FC2 163 -1.211
53 FC2 164 -1.699
53 FC2 165 -2.675
53 FC2 166 -3.164
53 FC2 167 -4.140
53 FC2 168 -4.140
53 FC2 169 -4.140
53 FC2 170 -3.652
53 FC2 171 -3.164
53 FC2 172 -2.187
53 FC2 173 -1.699
53 FC2 174 -1.211
53 FC2 175 -1.211
53 FC2 176 -0.722
53 FC2 177 0.254
53 FC2 178 0.743
53 FC2 179 1.231
53 FC2 180 0.743
53 FC2 181 0.743
53 FC2 182 0.254
53 FC2 183 0.254
53 FC2 184 0.254
53 FC2 185 0.254
53 FC2 186 0.254
53 FC2 187 0.254
53 FC2 188 0.743
53 FC2 189 1.719
53 FC2 190 3.184
53 FC2 191 4.161
53 FC2 192 4.649
53 FC2 193 5.137
53 FC2 194 5.137
53 FC2 195 5.137
53 FC2 196 5.137
53 FC2 197 5.137
53 FC2 198 4.649
53 FC2 199 4.161
53 FC2 200 4.161
53 FC2 201 4.649
53 FC2 202 5.137
53 FC2 203 5.625
53 FC2 204 6.114
53 FC2 205 6.114
53 FC2 206 5.625
53 FC2 207 5.137
53 FC2 208 4.649
53 FC2 209 4.161
53 FC2 210 3.672
53 FC2 211 3.672
53 FC2 212 3.184
53 FC2 213 2.696
53 FC2 214 3.184
53 FC2 215 4.161
53 FC2 216 4.649
53 FC2 217 6.114
53 FC2 218 6.602
53 FC2 219 6.602
53 FC2 220 6.114
53 FC2 221 5.625
53 FC2 222 4.649
53 FC2 223 4.649
53 FC2 224 4.649
53 FC2 225 4.649
53 FC2 226 4.649
53 FC2 227 4.161
53 FC2 228 3.184
53 FC2 229 3.184
53 FC2 230 3.672
53 FC2 231 4.649
53 FC2 232 5.137
53 FC2 233 4.161
53 FC2 234 2.696
53 FC2 235 1.231
53 FC2 236 0.254
53 FC2 237 -0.722
53 FC2 238 -0.722
53 FC2 239 -1.211
53 FC2 240 -1.211
53 FC2 241 -2.675
53 FC2 242 -3.164
53 FC2 243 -4.140
53 FC2 244 -4.140
53 FC2 245 -4.140
53 FC2 246 -2.675
53 FC2 247 -1.211
53 FC2 248 0.743
53 FC2 249 2.207
53 FC2 250 3.184
53 FC2 251 3.184
53 FC2 252 3.184
53 FC2 253 1.719
53 FC2 254 -0.234
53 FC2 255 -1.699
# FC1 chan 12
53 FC1 0 4.100
53 FC1 1 4.100
53 FC1 2 3.611
53 FC1 3 2.635
53 FC1 4 0.682
53 FC1 5 -0.783
53 FC1 6 -3.225
53 FC1 7 -5.178
53 FC1 8 -7.131
53 FC1 9 -8.108
53 FC1 10 -8.596
53 FC1 11 -8.596
53 FC1 12 -8.108
53 FC1 13 -8.108
53 FC1 14 -7.619
53 FC1 15 -6.643
53 FC1 16 -5.666
53 FC1 17 -4.690
53 FC1 18 -3.713
53 FC1 19 -3.225
53 FC1 20 -2.736
53 FC1 21 -1.760
53 FC1 22 -1.272
53 FC1 23 -0.783
53 FC1 24 -1.272
53 FC1 25 -1.760
53 FC1 26 -2.736
53 FC1 27 -2.736
53 FC1 28 -3.225
53 FC1 29 -3.225
53 FC1 30 -4.201
53 FC1 31 -5.178
53 FC1 32 -6.643
53 FC1 33 -7.619
53 FC1 34 -8.596
53 FC1 35 -9.572
53 FC1 36 -10.549
53 FC1 37 -10.549
53 FC1 38 -10.549
53 FC1 39 -9.572
53 FC1 40 -8.596
53 FC1 41 -7.619
53 FC1 42 -6.643
53 FC1 43 -6.643
53 FC1 44 -7.131
53 FC1 45 -7.619
53 FC1 46 -7.619
53 FC1 47 -6.643
53 FC1 48 -6.154
53 FC1 49 -5.178
53 FC1 50 -4.690
53 FC1 51 -3.713
53 FC1 52 -3.225
53 FC1 53 -2.248
53 FC1 54 -1.272
53 FC1 55 -0.783
53 FC1 56 -0.295
53 FC1 57 -0.783
53 FC1 58 -1.760
53 FC1 59 -2.248
53 FC1 60 -2.736
53 FC1 61 -3.225
53 FC1 62 -3.225
53 FC1 63 -3.713
53 FC1 64 -4.201
53 FC1 65 -4.690
53 FC1 66 -4.690
53 FC1 67 -4.201
53 FC1 68 -3.713
53 FC1 69 -3.225
53 FC1 70 -3.713
53 FC1 71 -4.201
53 FC1 72 -4.690
53 FC1 73 -5.178
53 FC1 74 -5.178
53 FC1 75 -5.178
53 FC1 76 -6.154
53 FC1 77 -7.131
53 FC1 78 -8.108
53 FC1 79 -9.572
53 FC1 80 -10.061
53 FC1 81 -10.549
53 FC1 82 -11.037
53 FC1 83 -11.037
53 FC1 84 -11.037
53 FC1 85 -11.037
53 FC1 86 -10.549
53 FC1 87 -9.572
53 FC1 88 -9.084
53 FC1 89 -8.596
53 FC1 90 -8.596
53 FC1 91 -9.572
53 FC1 92 -10.061
53 FC1 93 -11.037
53 FC1 94 -11.525
53 FC1 95 -12.014
53 FC1 96 -12.502
53 FC1 97 -12.990
53 FC1 98 -13.479
53 FC1 99 -13.967
53 FC1 100 -13.967
53 FC1 101 -13.479
53 FC1 102 -12.990
53 FC1 103 -12.502
53 FC1 104 -11.525
53 FC1 105 -11.525
53 FC1 106 -12.014
53 FC1 107 -13.479
53 FC1 108 -13.967
53 FC1 109 -14.943
53 FC1 110 -14.943
53 FC1 111 -14.455
53 FC1 112 -14.455
53 FC1 113 -14.943
53 FC1 114 -14.455
53 FC1 115 -13.967
53 FC1 116 -13.479
53 FC1 117 -12.990
53 FC1 118 -12.990
53 FC1 119 -13.479
53 FC1 120 -14.455
53 FC1 121 -15.432
53 FC1 122 -15.432
53 FC1 123 -15.920
53 FC1 124 -15.920
53 FC1 125 -16.408
53 FC1 126 -16.897
53 FC1 127 -17.385
53 FC1 128 -17.873
53 FC1 129 -17.385
53 FC1 130 -16.897
53 FC1 131 -16.408
53 FC1 132 -15.920
53 FC1 133 -15.432
53 FC1 134 -14.943
53 FC1 135 -14.455
53 FC1 136 -13.967
53 FC1 137 -13.479
53 FC1 138 -13.967
53 FC1 139 -13.479
53 FC1 140 -12.990
53 FC1 141 -12.502
53 FC1 142 -11.525
53 FC1 143 -11.525
53 FC1 144 -11.525
53 FC1 145 -11.525
53 FC1 146 -12.014
53 FC1 147 -12.502
53 FC1 148 -13.479
53 FC1 149 -13.479
53 FC1 150 -13.479
53 FC1 151 -13.479
53 FC1 152 -12.990
53 FC1 153 -12.502
53 FC1 154 -12.014
53 FC1 155 -12.014
53 FC1 156 -12.014
53 FC1 157 -11.525
53 FC1 158 -11.037
53 FC1 159 -10.061
53 FC1 160 -9.572
53 FC1 161 -8.596
53 FC1 162 -9.084
53 FC1 163 -9.572
53 FC1 164 -10.061
53 FC1 165 -10.549
53 FC1 166 -11.037
53 FC1 167 -11.525
53 FC1 168 -12.014
53 FC1 169 -11.525
53 FC1 170 -11.525
53 FC1 171 -10.549
53 FC1 172 -10.061
53 FC1 173 -9.572
53 FC1 174 -9.084
53 FC1 175 -9.084
53 FC1 176 -8.596
53 FC1 177 -8.108
53 FC1 178 -7.619
53 FC1 179 -7.131
53 FC1 180 -6.643
53 FC1 181 -6.643
53 FC1 182 -6.643
53 FC1 183 -6.643
53 FC1 184 -7.131
53 FC1 185 -7.619
53 FC1 186 -8.596
53 FC1 187 -8.596
53 FC1 188 -7.619
53 FC1 189 -6.154
53 FC1 190 -4.690
53 FC1 191 -3.713
53 FC1 192 -3.225
53 FC1 193 -2.736
53 FC1 194 -2.248
53 FC1 195 -1.760
53 FC1 196 -1.272
53 FC1 197 -1.760
53 FC1 198 -2.736
53 FC1 199 -3.713
53 FC1 200 -4.690
53 FC1 201 -4.690
53 FC1 202 -4.201
53 FC1 203 -4.201
53 FC1 204 -4.201
53 FC1 205 -5.178
53 FC1 206 -5.666
53 FC1 207 -6.154
53 FC1 208 -5.178
53 FC1 209 -4.690
53 FC1 210 -3.713
53 FC1 211 -3.225
53 FC1 212 -2.736
53 FC1 213 -1.760
53 FC1 214 -1.272
53 FC1 215 -0.783
53 FC1 216 -0.783
53 FC1 217 -0.783
53 FC1 218 -1.760
53 FC1 219 -2.736
53 FC1 220 -4.690
53 FC1 221 -6.154
53 FC1 222 -7.619
53 FC1 223 -8.596
53 FC1 224 -9.084
53 FC1 225 -9.084
53 FC1 226 -9.084
53 FC1 227 -9.084
53 FC1 228 -8.596
53 FC1 229 -8.108
53 FC1 230 -7.619
53 FC1 231 -6.643
53 FC1 232 -6.154
53 FC1 233 -6.154
53 FC1 234 -6.154
53 FC1 235 -6.154
53 FC1 236 -6.154
53 FC1 237 -6.154
53 FC1 238 -5.178
53 FC1 239 -5.178
53 FC1 240 -5.666
53 FC1 241 -6.643
53 FC1 242 -7.619
53 FC1 243 -9.084
53 FC1 244 -9.572
53 FC1 245 -9.572
53 FC1 246 -9.084
53 FC1 247 -8.596
53 FC1 248 -8.108
53 FC1 249 -8.108
53 FC1 250 -8.108
53 FC1 251 -8.596
53 FC1 252 -8.596
53 FC1 253 -8.596
53 FC1 254 -7.619
53 FC1 255 -6.643
# T8 chan 13
53 T8 0 21.769
53 T8 1 20.793
53 T8 2 20.793
53 T8 3 21.281
53 T8 4 21.769
53 T8 5 21.769
53 T8 6 20.304
53 T8 7 17.863
53 T8 8 15.422
53 T8 9 13.468
53 T8 10 12.004
53 T8 11 10.539
53 T8 12 9.074
53 T8 13 8.097
53 T8 14 7.609
53 T8 15 8.586
53 T8 16 10.539
53 T8 17 12.492
53 T8 18 13.957
53 T8 19 15.422
53 T8 20 16.886
53 T8 21 18.840
53 T8 22 20.304
53 T8 23 21.281
53 T8 24 21.281
53 T8 25 20.304
53 T8 26 18.840
53 T8 27 17.375
53 T8 28 16.886
53 T8 29 16.886
53 T8 30 17.375
53 T8 31 17.375
53 T8 32 17.375
53 T8 33 16.886
53 T8 34 15.910
53 T8 35 14.445
53 T8 36 12.492
53 T8 37 10.539
53 T8 38 8.097
53 T8 39 4.679
53 T8 40 1.261
53 T8 41 -2.645
53 T8 42 -5.086
53 T8 43 -7.039
53 T8 44 -7.039
53 T8 45 -6.063
53 T8 46 -4.598
53 T8 47 -4.110
53 T8 48 -3.621
53 T8 49 -4.110
53 T8 50 -3.133
53 T8 51 -1.668
53 T8 52 0.773
53 T8 53 2.726
53 T8 54 2.726
53 T8 55 1.750
53 T8 56 0.285
53 T8 57 -0.692
53 T8 58 -0.203
53 T8 59 1.261
53 T8 60 3.703
53 T8 61 5.656
53 T8 62 7.609
53 T8 63 9.074
53 T8 64 10.050
53 T8 65 10.539
53 T8 66 10.539
53 T8 67 10.539
53 T8 68 9.562
53 T8 69 7.609
53 T8 70 5.168
53 T8 71 3.215
53 T8 72 2.726
53 T8 73 4.191
53 T8 74 6.144
53 T8 75 8.097
53 T8 76 8.586
53 T8 77 8.097
53 T8 78 7.121
53 T8 79 5.168
53 T8 80 4.191
53 T8 81 2.726
53 T8 82 2.238
53 T8 83 1.261
53 T8 84 0.285
53 T8 85 0.285
53 T8 86 0.773
53 T8 87 1.750
53 T8 88 2.726
53 T8 89 3.215
53 T8 90 2.726
53 T8 91 1.750
53 T8 92 0.285
53 T8 93 -0.203
53 T8 94 0.773
53 T8 95 2.726
53 T8 96 4.679
53 T8 97 6.632
53 T8 98 7.121
53 T8 99 6.632
53 T8 100 6.144
53 T8 101 5.656
53 T8 102 5.168
53 T8 103 4.679
53 T8 104 3.703
53 T8 105 2.726
53 T8 106 2.238
53 T8 107 2.726
53 T8 108 3.703
53 T8 109 4.679
53 T8 110 5.656
53 T8 111 6.632
53 T8 112 7.609
53 T8 113 8.097
53 T8 114 8.097
53 T8 115 8.097
53 T8 116 8.097
53 T8 117 7.609
53 T8 118 7.609
53 T8 119 7.609
53 T8 120 7.609
53 T8 121 6.632
53 T8 122 5.656
53 T8 123 5.168
53 T8 124 5.656
53 T8 125 7.609
53 T8 126 11.515
53 T8 127 14.933
53 T8 128 16.886
53 T8 129 16.886
53 T8 130 14.933
53 T8 131 12.980
53 T8 132 12.492
53 T8 133 12.980
53 T8 134 15.422
53 T8 135 17.375
53 T8 136 18.840
53 T8 137 19.328
53 T8 138 18.840
53 T8 139 18.840
53 T8 140 19.328
53 T8 141 19.328
53 T8 142 19.328
53 T8 143 18.840
53 T8 144 17.375
53 T8 145 15.422
53 T8 146 13.957
53 T8 147 12.492
53 T8 148 11.515
53 T8 149 11.027
53 T8 150 11.027
53 T8 151 11.515
53 T8 152 12.004
53 T8 153 12.980
53 T8 154 12.980
53 T8 155 12.980
53 T8 156 12.004
53 T8 157 11.027
53 T8 158 10.050
53 T8 159 9.074
53 T8 160 8.097
53 T8 161 6.632
53 T8 162 5.168
53 T8 163 4.191
53 T8 164 4.191
53 T8 165 4.191
53 T8 166 4.679
53 T8 167 5.168
53 T8 168 5.168
53 T8 169 6.144
53 T8 170 7.609
53 T8 171 9.074
53 T8 172 10.050
53 T8 173 10.539
53 T8 174 10.539
53 T8 175 10.539
53 T8 176 11.027
53 T8 177 12.492
53 T8 178 13.468
53 T8 179 13.957
53 T8 180 13.957
53 T8 181 12.980
53 T8 182 12.004
53 T8 183 11.027
53 T8 184 11.027
53 T8 185 11.515
53 T8 186 11.515
53 T8 187 11.027
53 T8 188 10.050
53 T8 189 8.586
53 T8 190 7.121
53 T8 191 6.632
53 T8 192 7.609
53 T8 193 9.074
53 T8 194 10.539
53 T8 195 12.492
53 T8 196 13.957
53 T8 197 15.422
53 T8 198 16.886
53 T8 199 17.375
53 T8 200 16.886
53 T8 201 15.422
53 T8 202 12.004
53 T8 203 9.074
53 T8 204 7.121
53 T8 205 6.632
53 T8 206 8.097
53 T8 207 9.562
53 T8 208 10.539
53 T8 209 10.539
53 T8 210 9.562
53 T8 211 8.586
53 T8 212 7.609
53 T8 213 7.121
53 T8 214 6.632
53 T8 215 5.656
53 T8 216 4.191
53 T8 217 2.726
53 T8 218 1.261
53 T8 219 0.285
53 T8 220 0.773
53 T8 221 1.750
53 T8 222 4.191
53 T8 223 6.632
53 T8 224 9.074
53 T8 225 12.004
53 T8 226 14.933
53 T8 227 17.375
53 T8 228 19.328
53 T8 229 20.793
53 T8 230 20.793
53 T8 231 19.328
53 T8 232 15.910
53 T8 233 11.515
53 T8 234 7.609
53 T8 235 4.679
53 T8 236 3.215
53 T8 237 3.215
53 T8 238 4.191
53 T8 239 5.168
53 T8 240 6.632
53 T8 241 7.609
53 T8 242 9.562
53 T8 243 11.515
53 T8 244 13.957
53 T8 245 16.398
53 T8 246 19.328
53 T8 247 21.281
53 T8 248 23.722
53 T8 249 26.164
53 T8 250 27.140
53 T8 251 27.140
53 T8 252 25.187
53 T8 253 21.281
53 T8 254 16.398
53 T8 255 11.515
# T7 chan 14
53 T7 0 21.627
53 T7 1 20.162
53 T7 2 18.697
53 T7 3 18.697
53 T7 4 18.697
53 T7 5 18.209
53 T7 6 15.279
53 T7 7 11.373
53 T7 8 7.467
53 T7 9 4.049
53 T7 10 2.584
53 T7 11 2.584
53 T7 12 4.049
53 T7 13 6.002
53 T7 14 8.443
53 T7 15 10.396
53 T7 16 11.861
53 T7 17 12.349
53 T7 18 12.838
53 T7 19 13.814
53 T7 20 14.791
53 T7 21 15.767
53 T7 22 15.767
53 T7 23 14.303
53 T7 24 11.861
53 T7 25 9.420
53 T7 26 7.955
53 T7 27 7.955
53 T7 28 7.467
53 T7 29 6.490
53 T7 30 4.537
53 T7 31 3.072
53 T7 32 3.072
53 T7 33 5.514
53 T7 34 9.420
53 T7 35 11.861
53 T7 36 11.861
53 T7 37 8.931
53 T7 38 4.537
53 T7 39 0.631
53 T7 40 -0.346
53 T7 41 1.607
53 T7 42 4.049
53 T7 43 5.025
53 T7 44 3.560
53 T7 45 0.631
53 T7 46 -1.322
53 T7 47 -1.322
53 T7 48 0.142
53 T7 49 2.096
53 T7 50 2.096
53 T7 51 1.607
53 T7 52 0.631
53 T7 53 1.607
53 T7 54 3.072
53 T7 55 4.537
53 T7 56 4.537
53 T7 57 3.560
53 T7 58 3.072
53 T7 59 4.049
53 T7 60 6.490
53 T7 61 8.931
53 T7 62 8.931
53 T7 63 6.490
53 T7 64 2.584
53 T7 65 0.631
53 T7 66 2.584
53 T7 67 6.978
53 T7 68 12.349
53 T7 69 15.279
53 T7 70 15.279
53 T7 71 13.814
53 T7 72 12.838
53 T7 73 12.838
53 T7 74 13.814
53 T7 75 13.814
53 T7 76 12.349
53 T7 77 9.908
53 T7 78 6.490
53 T7 79 3.560
53 T7 80 1.607
53 T7 81 -0.834
53 T7 82 -2.787
53 T7 83 -4.252
53 T7 84 -4.740
53 T7 85 -3.276
53 T7 86 -0.346
53 T7 87 3.072
53 T7 88 5.025
53 T7 89 4.049
53 T7 90 1.607
53 T7 91 -2.299
53 T7 92 -4.740
53 T7 93 -3.764
53 T7 94 -0.834
53 T7 95 2.096
53 T7 96 3.072
53 T7 97 1.607
53 T7 98 -1.322
53 T7 99 -3.276
53 T7 100 -2.787
53 T7 101 -1.811
53 T7 102 -0.346
53 T7 103 0.142
53 T7 104 -0.346
53 T7 105 -1.322
53 T7 106 -2.787
53 T7 107 -3.764
53 T7 108 -5.717
53 T7 109 -6.694
53 T7 110 -7.670
53 T7 111 -7.670
53 T7 112 -7.182
53 T7 113 -6.694
53 T7 114 -7.182
53 T7 115 -8.158
53 T7 116 -7.670
53 T7 117 -4.740
53 T7 118 -0.834
53 T7 119 2.096
53 T7 120 3.072
53 T7 121 1.119
53 T7 122 -1.811
53 T7 123 -3.764
53 T7 124 -3.764
53 T7 125 -2.299
53 T7 126 -0.834
53 T7 127 -0.346
53 T7 128 -0.346
53 T7 129 -0.346
53 T7 130 0.142
53 T7 131 1.607
53 T7 132 4.049
53 T7 133 6.002
53 T7 134 8.931
53 T7 135 11.861
53 T7 136 14.791
53 T7 137 16.256
53 T7 138 16.256
53 T7 139 15.279
53 T7 140 15.767
53 T7 141 17.232
53 T7 142 19.674
53 T7 143 21.627
53 T7 144 21.139
53 T7 145 18.697
53 T7 146 15.767
53 T7 147 13.814
53 T7 148 14.303
53 T7 149 15.279
53 T7 150 16.256
53 T7 151 16.256
53 T7 152 15.767
53 T7 153 16.256
53 T7 154 17.721
53 T7 155 19.674
53 T7 156 21.139
53 T7 157 20.162
53 T7 158 17.232
53 T7 159 14.791
53 T7 160 13.814
53 T7 161 13.814
53 T7 162 14.791
53 T7 163 14.791
53 T7 164 12.838
53 T7 165 10.885
53 T7 166 9.908
53 T7 167 11.373
53 T7 168 13.814
53 T7 169 16.256
53 T7 170 17.721
53 T7 171 16.744
53 T7 172 16.256
53 T7 173 16.744
53 T7 174 18.697
53 T7 175 20.162
53 T7 176 20.650
53 T7 177 20.650
53 T7 178 19.674
53 T7 179 20.162
53 T7 180 20.650
53 T7 181 21.139
53 T7 182 19.674
53 T7 183 16.256
53 T7 184 13.814
53 T7 185 12.838
53 T7 186 14.303
53 T7 187 16.744
53 T7 188 17.721
53 T7 189 15.279
53 T7 190 11.861
53 T7 191 8.931
53 T7 192 7.955
53 T7 193 8.443
53 T7 194 9.420
53 T7 195 9.908
53 T7 196 8.931
53 T7 197 8.931
53 T7 198 9.420
53 T7 199 10.885
53 T7 200 11.861
53 T7 201 10.885
53 T7 202 8.931
53 T7 203 7.467
53 T7 204 6.978
53 T7 205 7.467
53 T7 206 6.978
53 T7 207 5.025
53 T7 208 2.584
53 T7 209 0.142
53 T7 210 0.142
53 T7 211 2.584
53 T7 212 5.514
53 T7 213 6.002
53 T7 214 5.025
53 T7 215 2.584
53 T7 216 0.631
53 T7 217 0.631
53 T7 218 0.631
53 T7 219 -0.346
53 T7 220 -1.811
53 T7 221 -2.787
53 T7 222 -2.299
53 T7 223 0.631
53 T7 224 4.537
53 T7 225 7.467
53 T7 226 7.467
53 T7 227 5.514
53 T7 228 3.072
53 T7 229 1.607
53 T7 230 2.096
53 T7 231 3.560
53 T7 232 5.514
53 T7 233 7.467
53 T7 234 8.443
53 T7 235 9.420
53 T7 236 11.373
53 T7 237 13.814
53 T7 238 16.256
53 T7 239 18.209
53 T7 240 19.185
53 T7 241 18.697
53 T7 242 18.697
53 T7 243 18.209
53 T7 244 19.185
53 T7 245 20.162
53 T7 246 21.139
53 T7 247 20.162
53 T7 248 17.721
53 T7 249 14.791
53 T7 250 12.838
53 T7 251 13.326
53 T7 252 15.767
53 T7 253 18.209
53 T7 254 19.185
53 T7 255 19.185
# CZ chan 15
53 CZ 0 40.090
53 CZ 1 40.090
53 CZ 2 39.113
53 CZ 3 38.625
53 CZ 4 37.160
53 CZ 5 35.207
53 CZ 6 32.766
53 CZ 7 30.324
53 CZ 8 28.371
53 CZ 9 26.418
53 CZ 10 25.441
53 CZ 11 23.488
53 CZ 12 21.047
53 CZ 13 18.606
53 CZ 14 17.141
53 CZ 15 16.164
53 CZ 16 17.141
53 CZ 17 19.094
53 CZ 18 22.024
53 CZ 19 24.953
53 CZ 20 27.883
53 CZ 21 29.348
53 CZ 22 28.371
53 CZ 23 25.441
53 CZ 24 22.512
53 CZ 25 20.559
53 CZ 26 20.070
53 CZ 27 20.559
53 CZ 28 19.582
53 CZ 29 16.652
53 CZ 30 12.746
53 CZ 31 10.305
53 CZ 32 10.305
53 CZ 33 13.723
53 CZ 34 18.117
53 CZ 35 20.070
53 CZ 36 18.117
53 CZ 37 14.211
53 CZ 38 9.328
53 CZ 39 6.399
53 CZ 40 4.934
53 CZ 41 3.957
53 CZ 42 2.004
53 CZ 43 -0.926
53 CZ 44 -3.367
53 CZ 45 -4.344
53 CZ 46 -3.855
53 CZ 47 -2.879
53 CZ 48 -3.367
53 CZ 49 -3.855
53 CZ 50 -3.855
53 CZ 51 -2.391
53 CZ 52 0.539
53 CZ 53 3.469
53 CZ 54 5.910
53 CZ 55 7.375
53 CZ 56 7.863
53 CZ 57 8.352
53 CZ 58 9.328
53 CZ 59 10.793
53 CZ 60 11.770
53 CZ 61 12.258
53 CZ 62 12.258
53 CZ 63 12.258
53 CZ 64 11.770
53 CZ 65 12.258
53 CZ 66 13.723
53 CZ 67 15.676
53 CZ 68 17.141
53 CZ 69 17.141
53 CZ 70 15.676
53 CZ 71 13.234
53 CZ 72 11.281
53 CZ 73 10.793
53 CZ 74 12.258
53 CZ 75 14.699
53 CZ 76 15.188
53 CZ 77 12.258
53 CZ 78 6.887
53 CZ 79 1.027
53 CZ 80 -2.879
53 CZ 81 -3.367
53 CZ 82 -1.414
53 CZ 83 1.516
53 CZ 84 2.492
53 CZ 85 2.981
53 CZ 86 3.469
53 CZ 87 3.957
53 CZ 88 5.422
53 CZ 89 5.422
53 CZ 90 4.445
53 CZ 91 2.004
53 CZ 92 0.539
53 CZ 93 1.027
53 CZ 94 2.981
53 CZ 95 5.422
53 CZ 96 6.887
53 CZ 97 6.887
53 CZ 98 6.887
53 CZ 99 7.375
53 CZ 100 7.375
53 CZ 101 6.887
53 CZ 102 5.422
53 CZ 103 3.469
53 CZ 104 2.004
53 CZ 105 2.492
53 CZ 106 3.957
53 CZ 107 5.910
53 CZ 108 7.375
53 CZ 109 8.352
53 CZ 110 9.816
53 CZ 111 12.258
53 CZ 112 14.699
53 CZ 113 16.164
53 CZ 114 17.141
53 CZ 115 17.141
53 CZ 116 17.629
53 CZ 117 19.582
53 CZ 118 21.047
53 CZ 119 22.512
53 CZ 120 23.000
53 CZ 121 22.512
53 CZ 122 22.512
53 CZ 123 23.977
53 CZ 124 25.441
53 CZ 125 26.906
53 CZ 126 27.883
53 CZ 127 28.859
53 CZ 128 30.324
53 CZ 129 32.277
53 CZ 130 33.742
53 CZ 131 33.254
53 CZ 132 31.301
53 CZ 133 28.859
53 CZ 134 28.371
53 CZ 135 30.813
53 CZ 136 34.719
53 CZ 137 37.649
53 CZ 138 39.113
53 CZ 139 37.649
53 CZ 140 35.207
53 CZ 141 33.742
53 CZ 142 33.254
53 CZ 143 33.742
53 CZ 144 33.742
53 CZ 145 33.254
53 CZ 146 32.277
53 CZ 147 30.813
53 CZ 148 28.859
53 CZ 149 27.395
53 CZ 150 25.930
53 CZ 151 24.465
53 CZ 152 23.000
53 CZ 153 21.535
53 CZ 154 20.559
53 CZ 155 19.582
53 CZ 156 19.094
53 CZ 157 19.094
53 CZ 158 19.094
53 CZ 159 19.094
53 CZ 160 17.141
53 CZ 161 14.211
53 CZ 162 9.816
53 CZ 163 6.399
53 CZ 164 3.957
53 CZ 165 2.981
53 CZ 166 2.492
53 CZ 167 1.027
53 CZ 168 -0.926
53 CZ 169 -1.902
53 CZ 170 -2.391
53 CZ 171 0.051
53 CZ 172 3.469
53 CZ 173 6.887
53 CZ 174 8.840
53 CZ 175 8.840
53 CZ 176 7.863
53 CZ 177 6.399
53 CZ 178 6.399
53 CZ 179 7.375
53 CZ 180 8.840
53 CZ 181 10.305
53 CZ 182 10.793
53 CZ 183 11.281
53 CZ 184 11.281
53 CZ 185 11.281
53 CZ 186 11.770
53 CZ 187 12.258
53 CZ 188 12.746
53 CZ 189 13.234
53 CZ 190 13.723
53 CZ 191 13.723
53 CZ 192 13.723
53 CZ 193 14.699
53 CZ 194 16.652
53 CZ 195 20.070
53 CZ 196 23.488
53 CZ 197 25.930
53 CZ 198 26.906
53 CZ 199 26.906
53 CZ 200 25.441
53 CZ 201 24.953
53 CZ 202 24.465
53 CZ 203 23.977
53 CZ 204 23.488
53 CZ 205 23.488
53 CZ 206 24.465
53 CZ 207 25.930
53 CZ 208 27.883
53 CZ 209 30.324
53 CZ 210 31.301
53 CZ 211 31.301
53 CZ 212 31.301
53 CZ 213 31.301
53 CZ 214 31.301
53 CZ 215 30.813
53 CZ 216 28.371
53 CZ 217 24.953
53 CZ 218 22.024
53 CZ 219 20.559
53 CZ 220 21.535
53 CZ 221 24.465
53 CZ 222 27.883
53 CZ 223 30.813
53 CZ 224 32.277
53 CZ 225 32.766
53 CZ 226 33.254
53 CZ 227 34.231
53 CZ 228 36.184
53 CZ 229 38.137
53 CZ 230 39.602
53 CZ 231 39.602
53 CZ 232 39.113
53 CZ 233 38.625
53 CZ 234 39.602
53 CZ 235 41.555
53 CZ 236 43.508
53 CZ 237 44.484
53 CZ 238 43.996
53 CZ 239 43.020
53 CZ 240 43.508
53 CZ 241 44.973
53 CZ 242 47.902
53 CZ 243 50.832
53 CZ 244 52.785
53 CZ 245 53.274
53 CZ 246 52.297
53 CZ 247 50.832
53 CZ 248 50.344
53 CZ 249 49.856
53 CZ 250 49.856
53 CZ 251 49.367
53 CZ 252 49.367
53 CZ 253 48.391
53 CZ 254 47.414
53 CZ 255 46.438
# C3 chan 16
53 C3 0 4.679
53 C3 1 4.679
53 C3 2 4.679
53 C3 3 5.168
53 C3 4 5.656
53 C3 5 4.679
53 C3 6 3.215
53 C3 7 1.750
53 C3 8 -0.203
53 C3 9 -1.668
53 C3 10 -2.157
53 C3 11 -2.157
53 C3 12 -1.668
53 C3 13 -0.203
53 C3 14 1.261
53 C3 15 2.726
53 C3 16 3.703
53 C3 17 4.191
53 C3 18 4.679
53 C3 19 4.679
53 C3 20 5.168
53 C3 21 5.168
53 C3 22 4.191
53 C3 23 2.726
53 C3 24 0.285
53 C3 25 -2.157
53 C3 26 -4.110
53 C3 27 -4.110
53 C3 28 -4.110
53 C3 29 -3.133
53 C3 30 -2.645
53 C3 31 -2.157
53 C3 32 -1.668
53 C3 33 -1.180
53 C3 34 -0.203
53 C3 35 0.285
53 C3 36 -0.203
53 C3 37 -1.180
53 C3 38 -2.157
53 C3 39 -2.645
53 C3 40 -2.157
53 C3 41 -1.180
53 C3 42 -0.692
53 C3 43 -0.203
53 C3 44 -0.692
53 C3 45 -1.180
53 C3 46 -1.180
53 C3 47 -1.180
53 C3 48 -1.668
53 C3 49 -1.668
53 C3 50 -2.157
53 C3 51 -2.157
53 C3 52 -2.645
53 C3 53 -2.645
53 C3 54 -2.645
53 C3 55 -3.133
53 C3 56 -4.110
53 C3 57 -5.086
53 C3 58 -6.063
53 C3 59 -6.063
53 C3 60 -5.086
53 C3 61 -4.110
53 C3 62 -3.621
53 C3 63 -2.645
53 C3 64 -1.668
53 C3 65 -0.203
53 C3 66 1.750
53 C3 67 3.703
53 C3 68 5.656
53 C3 69 7.121
53 C3 70 7.121
53 C3 71 7.121
53 C3 72 6.144
53 C3 73 5.656
53 C3 74 5.656
53 C3 75 5.168
53 C3 76 4.679
53 C3 77 4.191
53 C3 78 3.215
53 C3 79 2.238
53 C3 80 0.773
53 C3 81 -0.692
53 C3 82 -1.668
53 C3 83 -2.157
53 C3 84 -2.157
53 C3 85 -2.157
53 C3 86 -2.157
53 C3 87 -1.668
53 C3 88 -1.668
53 C3 89 -1.668
53 C3 90 -1.668
53 C3 91 -1.668
53 C3 92 -1.668
53 C3 93 -1.180
53 C3 94 -0.692
53 C3 95 -0.203
53 C3 96 -0.203
53 C3 97 -0.692
53 C3 98 -1.668
53 C3 99 -2.157
53 C3 100 -2.157
53 C3 101 -2.645
53 C3 102 -2.157
53 C3 103 -2.157
53 C3 104 -1.668
53 C3 105 -1.668
53 C3 106 -2.157
53 C3 107 -3.621
53 C3 108 -5.086
53 C3 109 -6.063
53 C3 110 -6.551
53 C3 111 -6.063
53 C3 112 -6.063
53 C3 113 -5.575
53 C3 114 -5.575
53 C3 115 -5.575
53 C3 116 -5.086
53 C3 117 -4.110
53 C3 118 -3.621
53 C3 119 -3.133
53 C3 120 -3.133
53 C3 121 -4.110
53 C3 122 -5.086
53 C3 123 -5.575
53 C3 124 -5.575
53 C3 125 -5.575
53 C3 126 -4.598
53 C3 127 -4.110
53 C3 128 -3.133
53 C3 129 -2.645
53 C3 130 -1.668
53 C3 131 -0.692
53 C3 132 -0.203
53 C3 133 0.773
53 C3 134 1.261
53 C3 135 1.750
53 C3 136 2.238
53 C3 137 3.215
53 C3 138 3.703
53 C3 139 4.191
53 C3 140 4.679
53 C3 141 4.679
53 C3 142 4.191
53 C3 143 3.703
53 C3 144 3.703
53 C3 145 3.215
53 C3 146 2.726
53 C3 147 2.238
53 C3 148 2.238
53 C3 149 2.238
53 C3 150 2.238
53 C3 151 3.215
53 C3 152 3.703
53 C3 153 4.191
53 C3 154 4.679
53 C3 155 4.191
53 C3 156 4.191
53 C3 157 3.703
53 C3 158 3.215
53 C3 159 3.215
53 C3 160 2.726
53 C3 161 2.238
53 C3 162 1.750
53 C3 163 1.261
53 C3 164 0.773
53 C3 165 0.773
53 C3 166 1.261
53 C3 167 2.238
53 C3 168 2.726
53 C3 169 3.215
53 C3 170 2.726
53 C3 171 2.726
53 C3 172 2.238
53 C3 173 2.238
53 C3 174 2.238
53 C3 175 1.750
53 C3 176 1.750
53 C3 177 2.238
53 C3 178 2.238
53 C3 179 3.215
53 C3 180 3.703
53 C3 181 4.679
53 C3 182 4.679
53 C3 183 4.679
53 C3 184 3.703
53 C3 185 3.215
53 C3 186 2.238
53 C3 187 0.773
53 C3 188 0.285
53 C3 189 -1.180
53 C3 190 -1.668
53 C3 191 -1.668
53 C3 192 -1.668
53 C3 193 -1.180
53 C3 194 -1.180
53 C3 195 -1.180
53 C3 196 -1.180
53 C3 197 -1.180
53 C3 198 -1.180
53 C3 199 -1.668
53 C3 200 -2.157
53 C3 201 -3.133
53 C3 202 -4.110
53 C3 203 -5.086
53 C3 204 -6.063
53 C3 205 -6.551
53 C3 206 -6.551
53 C3 207 -6.551
53 C3 208 -6.551
53 C3 209 -6.551
53 C3 210 -6.551
53 C3 211 -6.063
53 C3 212 -5.575
53 C3 213 -5.086
53 C3 214 -5.086
53 C3 215 -5.086
53 C3 216 -5.575
53 C3 217 -6.063
53 C3 218 -7.039
53 C3 219 -8.016
53 C3 220 -8.993
53 C3 221 -8.993
53 C3 222 -8.504
53 C3 223 -7.528
53 C3 224 -7.039
53 C3 225 -6.551
53 C3 226 -6.551
53 C3 227 -7.039
53 C3 228 -6.551
53 C3 229 -6.063
53 C3 230 -5.086
53 C3 231 -4.598
53 C3 232 -3.621
53 C3 233 -3.621
53 C3 234 -2.645
53 C3 235 -1.180
53 C3 236 0.285
53 C3 237 2.238
53 C3 238 3.215
53 C3 239 3.703
53 C3 240 3.215
53 C3 241 2.726
53 C3 242 1.750
53 C3 243 1.261
53 C3 244 0.773
53 C3 245 0.285
53 C3 246 -0.203
53 C3 247 -0.203
53 C3 248 -0.692
53 C3 249 -1.668
53 C3 250 -2.645
53 C3 251 -3.133
53 C3 252 -3.621
53 C3 253 -3.133
53 C3 254 -1.668
53 C3 255 -0.203
# C4 chan 17
53 C4 0 5.697
53 C4 1 5.208
53 C4 2 5.208
53 C4 3 5.697
53 C4 4 7.161
53 C4 5 7.650
53 C4 6 7.650
53 C4 7 7.161
53 C4 8 6.185
53 C4 9 4.720
53 C4 10 4.232
53 C4 11 3.255
53 C4 12 2.767
53 C4 13 2.279
53 C4 14 2.279
53 C4 15 2.767
53 C4 16 3.743
53 C4 17 4.720
53 C4 18 5.697
53 C4 19 6.673
53 C4 20 7.650
53 C4 21 8.626
53 C4 22 9.603
53 C4 23 10.091
53 C4 24 10.091
53 C4 25 9.115
53 C4 26 7.161
53 C4 27 5.697
53 C4 28 4.720
53 C4 29 4.232
53 C4 30 5.208
53 C4 31 5.697
53 C4 32 6.185
53 C4 33 7.161
53 C4 34 7.161
53 C4 35 6.673
53 C4 36 6.185
53 C4 37 4.720
53 C4 38 2.279
53 C4 39 -1.139
53 C4 40 -4.069
53 C4 41 -6.999
53 C4 42 -8.464
53 C4 43 -9.440
53 C4 44 -8.952
53 C4 45 -8.464
53 C4 46 -7.487
53 C4 47 -6.510
53 C4 48 -6.022
53 C4 49 -5.046
53 C4 50 -4.557
53 C4 51 -4.069
53 C4 52 -4.069
53 C4 53 -4.069
53 C4 54 -4.557
53 C4 55 -5.046
53 C4 56 -5.046
53 C4 57 -5.534
53 C4 58 -5.046
53 C4 59 -4.557
53 C4 60 -3.092
53 C4 61 -1.139
53 C4 62 0.326
53 C4 63 1.790
53 C4 64 2.767
53 C4 65 3.255
53 C4 66 3.255
53 C4 67 2.279
53 C4 68 1.302
53 C4 69 -0.163
53 C4 70 -1.628
53 C4 71 -1.628
53 C4 72 -1.139
53 C4 73 0.326
53 C4 74 1.302
53 C4 75 2.279
53 C4 76 2.767
53 C4 77 2.279
53 C4 78 2.279
53 C4 79 1.790
53 C4 80 1.302
53 C4 81 1.302
53 C4 82 0.814
53 C4 83 0.814
53 C4 84 0.326
53 C4 85 0.326
53 C4 86 0.814
53 C4 87 1.790
53 C4 88 2.767
53 C4 89 3.255
53 C4 90 3.743
53 C4 91 3.743
53 C4 92 2.767
53 C4 93 2.279
53 C4 94 2.767
53 C4 95 3.743
53 C4 96 5.208
53 C4 97 5.697
53 C4 98 6.673
53 C4 99 6.185
53 C4 100 6.185
53 C4 101 6.673
53 C4 102 6.673
53 C4 103 7.161
53 C4 104 7.161
53 C4 105 7.161
53 C4 106 7.650
53 C4 107 8.138
53 C4 108 8.626
53 C4 109 9.115
53 C4 110 9.603
53 C4 111 10.091
53 C4 112 10.091
53 C4 113 10.091
53 C4 114 10.579
53 C4 115 10.091
53 C4 116 10.091
53 C4 117 10.091
53 C4 118 10.091
53 C4 119 9.603
53 C4 120 9.115
53 C4 121 8.626
53 C4 122 7.650
53 C4 123 7.650
53 C4 124 8.138
53 C4 125 9.603
53 C4 126 11.068
53 C4 127 12.533
53 C4 128 12.533
53 C4 129 11.556
53 C4 130 10.091
53 C4 131 8.626
53 C4 132 7.650
53 C4 133 7.650
53 C4 134 8.626
53 C4 135 9.603
53 C4 136 10.579
53 C4 137 11.068
53 C4 138 11.556
53 C4 139 11.556
53 C4 140 11.556
53 C4 141 12.044
53 C4 142 11.556
53 C4 143 11.556
53 C4 144 11.068
53 C4 145 10.091
53 C4 146 9.603
53 C4 147 9.115
53 C4 148 9.115
53 C4 149 8.626
53 C4 150 8.626
53 C4 151 9.115
53 C4 152 9.115
53 C4 153 9.115
53 C4 154 8.626
53 C4 155 8.138
53 C4 156 7.161
53 C4 157 6.185
53 C4 158 5.697
53 C4 159 5.208
53 C4 160 4.720
53 C4 161 4.720
53 C4 162 4.232
53 C4 163 4.720
53 C4 164 4.232
53 C4 165 4.232
53 C4 166 4.232
53 C4 167 3.743
53 C4 168 3.743
53 C4 169 4.232
53 C4 170 5.208
53 C4 171 6.185
53 C4 172 6.673
53 C4 173 6.673
53 C4 174 6.185
53 C4 175 5.697
53 C4 176 5.697
53 C4 177 5.697
53 C4 178 6.185
53 C4 179 6.185
53 C4 180 6.185
53 C4 181 5.697
53 C4 182 5.208
53 C4 183 5.697
53 C4 184 7.161
53 C4 185 8.626
53 C4 186 9.603
53 C4 187 9.603
53 C4 188 9.115
53 C4 189 7.650
53 C4 190 5.697
53 C4 191 4.720
53 C4 192 3.743
53 C4 193 4.232
53 C4 194 4.232
53 C4 195 4.720
53 C4 196 4.720
53 C4 197 5.208
53 C4 198 6.185
53 C4 199 7.650
53 C4 200 9.115
53 C4 201 9.603
53 C4 202 9.603
53 C4 203 8.626
53 C4 204 8.138
53 C4 205 8.138
53 C4 206 8.138
53 C4 207 8.138
53 C4 208 8.138
53 C4 209 6.673
53 C4 210 4.720
53 C4 211 2.767
53 C4 212 1.302
53 C4 213 0.814
53 C4 214 0.326
53 C4 215 0.814
53 C4 216 1.302
53 C4 217 1.790
53 C4 218 3.255
53 C4 219 4.720
53 C4 220 5.697
53 C4 221 7.161
53 C4 222 8.626
53 C4 223 10.091
53 C4 224 11.556
53 C4 225 12.533
53 C4 226 12.533
53 C4 227 12.533
53 C4 228 12.044
53 C4 229 12.044
53 C4 230 11.556
53 C4 231 10.579
53 C4 232 8.626
53 C4 233 6.185
53 C4 234 3.255
53 C4 235 1.790
53 C4 236 0.814
53 C4 237 0.814
53 C4 238 0.814
53 C4 239 1.302
53 C4 240 1.790
53 C4 241 2.279
53 C4 242 2.767
53 C4 243 2.767
53 C4 244 3.255
53 C4 245 3.743
53 C4 246 5.208
53 C4 247 6.673
53 C4 248 9.115
53 C4 249 12.533
53 C4 250 14.974
53 C4 251 15.951
53 C4 252 14.974
53 C4 253 12.533
53 C4 254 8.626
53 C4 255 5.697
# CP5 chan 18
53 CP5 0 7.690
53 CP5 1 7.690
53 CP5 2 8.179
53 CP5 3 9.644
53 CP5 4 10.620
53 CP5 5 11.108
53 CP5 6 10.132
53 CP5 7 8.179
53 CP5 8 5.737
53 CP5 9 2.808
53 CP5 10 0.854
53 CP5 11 0.366
53 CP5 12 1.343
53 CP5 13 3.784
53 CP5 14 6.714
53 CP5 15 9.155
53 CP5 16 10.620
53 CP5 17 11.108
53 CP5 18 11.108
53 CP5 19 11.597
53 CP5 20 12.085
53 CP5 21 12.085
53 CP5 22 11.108
53 CP5 23 8.667
53 CP5 24 5.249
53 CP5 25 2.808
53 CP5 26 1.343
53 CP5 27 0.854
53 CP5 28 1.343
53 CP5 29 0.854
53 CP5 30 0.854
53 CP5 31 0.854
53 CP5 32 1.831
53 CP5 33 3.784
53 CP5 34 5.249
53 CP5 35 6.226
53 CP5 36 5.737
53 CP5 37 4.761
53 CP5 38 3.784
53 CP5 39 2.808
53 CP5 40 2.808
53 CP5 41 2.808
53 CP5 42 2.319
53 CP5 43 0.854
53 CP5 44 -0.122
53 CP5 45 -1.099
53 CP5 46 -1.099
53 CP5 47 -0.610
53 CP5 48 -0.610
53 CP5 49 -0.610
53 CP5 50 -1.099
53 CP5 51 -1.587
53 CP5 52 -1.587
53 CP5 53 -1.099
53 CP5 54 -0.610
53 CP5 55 -1.099
53 CP5 56 -2.563
53 CP5 57 -4.028
53 CP5 58 -5.493
53 CP5 59 -5.981
53 CP5 60 -5.005
53 CP5 61 -4.028
53 CP5 62 -2.563
53 CP5 63 -1.587
53 CP5 64 -0.610
53 CP5 65 1.343
53 CP5 66 3.784
53 CP5 67 6.714
53 CP5 68 9.644
53 CP5 69 12.085
53 CP5 70 14.038
53 CP5 71 15.015
53 CP5 72 15.015
53 CP5 73 14.526
53 CP5 74 13.550
53 CP5 75 12.573
53 CP5 76 11.108
53 CP5 77 10.132
53 CP5 78 8.667
53 CP5 79 7.202
53 CP5 80 5.737
53 CP5 81 4.272
53 CP5 82 3.296
53 CP5 83 2.808
53 CP5 84 2.808
53 CP5 85 3.296
53 CP5 86 4.272
53 CP5 87 4.761
53 CP5 88 4.272
53 CP5 89 2.808
53 CP5 90 1.343
53 CP5 91 0.854
53 CP5 92 1.343
53 CP5 93 2.808
53 CP5 94 4.761
53 CP5 95 6.714
53 CP5 96 7.690
53 CP5 97 7.690
53 CP5 98 7.202
53 CP5 99 6.714
53 CP5 100 5.737
53 CP5 101 5.737
53 CP5 102 5.737
53 CP5 103 5.737
53 CP5 104 5.737
53 CP5 105 5.737
53 CP5 106 4.761
53 CP5 107 3.296
53 CP5 108 1.831
53 CP5 109 0.366
53 CP5 110 -0.122
53 CP5 111 0.366
53 CP5 112 1.831
53 CP5 113 3.296
53 CP5 114 3.784
53 CP5 115 4.272
53 CP5 116 5.249
53 CP5 117 5.737
53 CP5 118 6.714
53 CP5 119 7.202
53 CP5 120 7.202
53 CP5 121 6.226
53 CP5 122 4.272
53 CP5 123 2.808
53 CP5 124 2.319
53 CP5 125 2.319
53 CP5 126 3.296
53 CP5 127 4.761
53 CP5 128 6.714
53 CP5 129 7.690
53 CP5 130 8.667
53 CP5 131 9.155
53 CP5 132 10.132
53 CP5 133 11.597
53 CP5 134 13.550
53 CP5 135 15.015
53 CP5 136 16.479
53 CP5 137 16.968
53 CP5 138 17.456
53 CP5 139 18.433
53 CP5 140 19.897
53 CP5 141 20.386
53 CP5 142 19.897
53 CP5 143 18.433
53 CP5 144 16.968
53 CP5 145 15.503
53 CP5 146 15.015
53 CP5 147 15.015
53 CP5 148 15.503
53 CP5 149 15.503
53 CP5 150 15.991
53 CP5 151 17.456
53 CP5 152 18.433
53 CP5 153 19.897
53 CP5 154 20.386
53 CP5 155 20.386
53 CP5 156 19.409
53 CP5 157 17.944
53 CP5 158 16.968
53 CP5 159 16.479
53 CP5 160 15.503
53 CP5 161 14.038
53 CP5 162 12.085
53 CP5 163 10.620
53 CP5 164 9.155
53 CP5 165 9.644
53 CP5 166 11.597
53 CP5 167 14.038
53 CP5 168 15.503
53 CP5 169 15.991
53 CP5 170 15.503
53 CP5 171 15.015
53 CP5 172 15.015
53 CP5 173 15.503
53 CP5 174 15.991
53 CP5 175 15.991
53 CP5 176 15.015
53 CP5 177 13.550
53 CP5 178 13.550
53 CP5 179 14.526
53 CP5 180 15.503
53 CP5 181 16.479
53 CP5 182 16.479
53 CP5 183 15.015
53 CP5 184 13.550
53 CP5 185 12.573
53 CP5 186 11.597
53 CP5 187 10.620
53 CP5 188 9.155
53 CP5 189 6.714
53 CP5 190 4.272
53 CP5 191 2.319
53 CP5 192 1.343
53 CP5 193 1.343
53 CP5 194 1.343
53 CP5 195 1.831
53 CP5 196 1.831
53 CP5 197 2.808
53 CP5 198 3.784
53 CP5 199 4.761
53 CP5 200 4.761
53 CP5 201 3.784
53 CP5 202 2.319
53 CP5 203 1.343
53 CP5 204 0.366
53 CP5 205 0.366
53 CP5 206 0.366
53 CP5 207 -0.122
53 CP5 208 -0.610
53 CP5 209 -1.099
53 CP5 210 -2.563
53 CP5 211 -3.540
53 CP5 212 -5.005
53 CP5 213 -5.493
53 CP5 214 -6.470
53 CP5 215 -6.470
53 CP5 216 -5.981
53 CP5 217 -6.470
53 CP5 218 -6.958
53 CP5 219 -7.935
53 CP5 220 -7.935
53 CP5 221 -6.470
53 CP5 222 -4.028
53 CP5 223 -1.587
53 CP5 224 -0.122
53 CP5 225 -0.610
53 CP5 226 -1.587
53 CP5 227 -2.563
53 CP5 228 -3.052
53 CP5 229 -2.563
53 CP5 230 -1.587
53 CP5 231 -1.587
53 CP5 232 -1.587
53 CP5 233 -0.610
53 CP5 234 1.343
53 CP5 235 4.272
53 CP5 236 7.202
53 CP5 237 9.155
53 CP5 238 10.620
53 CP5 239 11.108
53 CP5 240 11.597
53 CP5 241 11.597
53 CP5 242 10.132
53 CP5 243 8.667
53 CP5 244 7.202
53 CP5 245 6.226
53 CP5 246 6.226
53 CP5 247 6.226
53 CP5 248 5.737
53 CP5 249 4.761
53 CP5 250 3.784
53 CP5 251 2.808
53 CP5 252 2.808
53 CP5 253 3.296
53 CP5 254 4.272
53 CP5 255 5.249
# CP6 chan 19
53 CP6 0 7.640
53 CP6 1 7.151
53 CP6 2 8.128
53 CP6 3 10.081
53 CP6 4 12.034
53 CP6 5 12.522
53 CP6 6 12.522
53 CP6 7 11.546
53 CP6 8 10.569
53 CP6 9 9.593
53 CP6 10 8.616
53 CP6 11 7.151
53 CP6 12 6.175
53 CP6 13 5.198
53 CP6 14 5.198
53 CP6 15 6.175
53 CP6 16 8.128
53 CP6 17 9.104
53 CP6 18 10.569
53 CP6 19 11.546
53 CP6 20 13.011
53 CP6 21 14.476
53 CP6 22 16.429
53 CP6 23 17.405
53 CP6 24 17.405
53 CP6 25 16.429
53 CP6 26 14.964
53 CP6 27 14.476
53 CP6 28 13.987
53 CP6 29 13.987
53 CP6 30 13.987
53 CP6 31 13.011
53 CP6 32 12.522
53 CP6 33 11.546
53 CP6 34 11.058
53 CP6 35 10.569
53 CP6 36 9.104
53 CP6 37 7.151
53 CP6 38 4.222
53 CP6 39 0.804
53 CP6 40 -3.103
53 CP6 41 -7.009
53 CP6 42 -9.450
53 CP6 43 -10.915
53 CP6 44 -10.915
53 CP6 45 -10.427
53 CP6 46 -8.962
53 CP6 47 -8.474
53 CP6 48 -7.985
53 CP6 49 -7.497
53 CP6 50 -6.032
53 CP6 51 -3.591
53 CP6 52 -1.638
53 CP6 53 -0.173
53 CP6 54 -0.661
53 CP6 55 -1.638
53 CP6 56 -2.614
53 CP6 57 -3.591
53 CP6 58 -3.103
53 CP6 59 -2.126
53 CP6 60 -0.173
53 CP6 61 1.292
53 CP6 62 2.268
53 CP6 63 3.245
53 CP6 64 3.733
53 CP6 65 4.710
53 CP6 66 4.710
53 CP6 67 4.710
53 CP6 68 3.733
53 CP6 69 2.757
53 CP6 70 2.268
53 CP6 71 2.757
53 CP6 72 4.710
53 CP6 73 6.663
53 CP6 74 9.104
53 CP6 75 10.081
53 CP6 76 10.569
53 CP6 77 10.569
53 CP6 78 10.081
53 CP6 79 9.593
53 CP6 80 8.616
53 CP6 81 7.640
53 CP6 82 6.663
53 CP6 83 6.175
53 CP6 84 5.686
53 CP6 85 5.686
53 CP6 86 5.686
53 CP6 87 5.686
53 CP6 88 5.686
53 CP6 89 5.686
53 CP6 90 5.686
53 CP6 91 4.710
53 CP6 92 3.245
53 CP6 93 2.757
53 CP6 94 2.757
53 CP6 95 4.222
53 CP6 96 6.175
53 CP6 97 8.616
53 CP6 98 10.081
53 CP6 99 10.569
53 CP6 100 10.569
53 CP6 101 10.081
53 CP6 102 9.593
53 CP6 103 9.104
53 CP6 104 9.104
53 CP6 105 9.104
53 CP6 106 9.593
53 CP6 107 10.081
53 CP6 108 11.058
53 CP6 109 11.546
53 CP6 110 12.034
53 CP6 111 12.522
53 CP6 112 13.499
53 CP6 113 13.987
53 CP6 114 14.964
53 CP6 115 14.476
53 CP6 116 13.987
53 CP6 117 13.499
53 CP6 118 13.499
53 CP6 119 13.987
53 CP6 120 13.987
53 CP6 121 12.522
53 CP6 122 11.058
53 CP6 123 10.081
53 CP6 124 10.569
53 CP6 125 13.011
53 CP6 126 16.917
53 CP6 127 19.847
53 CP6 128 20.823
53 CP6 129 19.847
53 CP6 130 16.917
53 CP6 131 14.476
53 CP6 132 13.499
53 CP6 133 13.987
53 CP6 134 15.940
53 CP6 135 17.405
53 CP6 136 17.893
53 CP6 137 17.893
53 CP6 138 17.405
53 CP6 139 17.405
53 CP6 140 17.893
53 CP6 141 18.382
53 CP6 142 18.382
53 CP6 143 17.405
53 CP6 144 16.429
53 CP6 145 15.452
53 CP6 146 14.476
53 CP6 147 13.987
53 CP6 148 13.499
53 CP6 149 12.522
53 CP6 150 12.522
53 CP6 151 13.011
53 CP6 152 13.499
53 CP6 153 13.987
53 CP6 154 13.987
53 CP6 155 13.011
53 CP6 156 12.034
53 CP6 157 10.569
53 CP6 158 9.593
53 CP6 159 8.128
53 CP6 160 7.151
53 CP6 161 5.198
53 CP6 162 3.733
53 CP6 163 3.245
53 CP6 164 3.245
53 CP6 165 4.710
53 CP6 166 6.175
53 CP6 167 7.151
53 CP6 168 7.640
53 CP6 169 8.128
53 CP6 170 8.616
53 CP6 171 9.593
53 CP6 172 10.081
53 CP6 173 10.569
53 CP6 174 10.081
53 CP6 175 9.104
53 CP6 176 7.640
53 CP6 177 6.663
53 CP6 178 6.175
53 CP6 179 5.686
53 CP6 180 4.710
53 CP6 181 3.733
53 CP6 182 2.757
53 CP6 183 3.245
53 CP6 184 4.710
53 CP6 185 7.151
53 CP6 186 9.593
53 CP6 187 10.081
53 CP6 188 8.616
53 CP6 189 4.710
53 CP6 190 0.804
53 CP6 191 -2.614
53 CP6 192 -4.079
53 CP6 193 -5.056
53 CP6 194 -5.544
53 CP6 195 -6.521
53 CP6 196 -6.521
53 CP6 197 -6.032
53 CP6 198 -3.103
53 CP6 199 0.804
53 CP6 200 4.710
53 CP6 201 6.663
53 CP6 202 6.663
53 CP6 203 5.198
53 CP6 204 3.733
53 CP6 205 3.733
53 CP6 206 4.710
53 CP6 207 5.686
53 CP6 208 4.710
53 CP6 209 2.268
53 CP6 210 -2.126
53 CP6 211 -6.521
53 CP6 212 -10.427
53 CP6 213 -12.380
53 CP6 214 -13.845
53 CP6 215 -14.333
53 CP6 216 -15.310
53 CP6 217 -15.310
53 CP6 218 -14.333
53 CP6 219 -12.380
53 CP6 220 -7.985
53 CP6 221 -3.591
53 CP6 222 0.804
53 CP6 223 4.710
53 CP6 224 7.151
53 CP6 225 9.104
53 CP6 226 10.569
53 CP6 227 12.034
53 CP6 228 13.011
53 CP6 229 13.011
53 CP6 230 11.546
53 CP6 231 8.616
53 CP6 232 5.198
53 CP6 233 1.292
53 CP6 234 -1.638
53 CP6 235 -3.591
53 CP6 236 -4.567
53 CP6 237 -5.544
53 CP6 238 -5.544
53 CP6 239 -5.544
53 CP6 240 -5.056
53 CP6 241 -4.567
53 CP6 242 -4.079
53 CP6 243 -2.126
53 CP6 244 -0.661
53 CP6 245 1.292
53 CP6 246 4.222
53 CP6 247 6.663
53 CP6 248 9.104
53 CP6 249 11.546
53 CP6 250 12.522
53 CP6 251 12.034
53 CP6 252 9.593
53 CP6 253 4.710
53 CP6 254 -0.661
53 CP6 255 -5.544
# CP1 chan 20
53 CP1 0 -3.438
53 CP1 1 -4.903
53 CP1 2 -4.415
53 CP1 3 -2.950
53 CP1 4 -0.020
53 CP1 5 2.421
53 CP1 6 4.862
53 CP1 7 6.327
53 CP1 8 6.327
53 CP1 9 5.351
53 CP1 10 4.374
53 CP1 11 3.886
53 CP1 12 3.398
53 CP1 13 3.886
53 CP1 14 5.351
53 CP1 15 6.327
53 CP1 16 7.792
53 CP1 17 8.280
53 CP1 18 8.280
53 CP1 19 7.792
53 CP1 20 7.304
53 CP1 21 6.327
53 CP1 22 4.862
53 CP1 23 3.398
53 CP1 24 1.933
53 CP1 25 0.468
53 CP1 26 -1.485
53 CP1 27 -2.950
53 CP1 28 -3.927
53 CP1 29 -4.415
53 CP1 30 -3.927
53 CP1 31 -2.950
53 CP1 32 -1.973
53 CP1 33 -0.509
53 CP1 34 0.956
53 CP1 35 2.421
53 CP1 36 3.886
53 CP1 37 4.862
53 CP1 38 4.862
53 CP1 39 4.862
53 CP1 40 3.886
53 CP1 41 2.421
53 CP1 42 1.444
53 CP1 43 0.468
53 CP1 44 -0.509
53 CP1 45 -1.485
53 CP1 46 -1.973
53 CP1 47 -2.950
53 CP1 48 -3.438
53 CP1 49 -3.927
53 CP1 50 -4.415
53 CP1 51 -4.415
53 CP1 52 -4.415
53 CP1 53 -4.415
53 CP1 54 -4.903
53 CP1 55 -4.903
53 CP1 56 -5.391
53 CP1 57 -5.880
53 CP1 58 -5.880
53 CP1 59 -5.880
53 CP1 60 -5.880
53 CP1 61 -5.880
53 CP1 62 -4.903
53 CP1 63 -3.438
53 CP1 64 -0.997
53 CP1 65 1.444
53 CP1 66 3.398
53 CP1 67 4.374
53 CP1 68 4.374
53 CP1 69 4.374
53 CP1 70 4.374
53 CP1 71 4.862
53 CP1 72 5.351
53 CP1 73 5.351
53 CP1 74 5.839
53 CP1 75 5.351
53 CP1 76 5.839
53 CP1 77 5.839
53 CP1 78 5.839
53 CP1 79 5.839
53 CP1 80 6.327
53 CP1 81 6.327
53 CP1 82 6.816
53 CP1 83 6.816
53 CP1 84 6.816
53 CP1 85 6.327
53 CP1 86 5.351
53 CP1 87 4.374
53 CP1 88 3.886
53 CP1 89 3.398
53 CP1 90 3.398
53 CP1 91 3.398
53 CP1 92 3.398
53 CP1 93 3.886
53 CP1 94 4.862
53 CP1 95 5.839
53 CP1 96 5.839
53 CP1 97 5.839
53 CP1 98 5.351
53 CP1 99 5.351
53 CP1 100 5.839
53 CP1 101 6.327
53 CP1 102 6.816
53 CP1 103 6.816
53 CP1 104 6.816
53 CP1 105 6.816
53 CP1 106 7.304
53 CP1 107 7.304
53 CP1 108 7.304
53 CP1 109 7.304
53 CP1 110 7.304
53 CP1 111 7.792
53 CP1 112 8.280
53 CP1 113 8.769
53 CP1 114 9.257
53 CP1 115 9.257
53 CP1 116 9.745
53 CP1 117 9.745
53 CP1 118 10.722
53 CP1 119 11.210
53 CP1 120 11.698
53 CP1 121 11.210
53 CP1 122 10.234
53 CP1 123 9.257
53 CP1 124 8.769
53 CP1 125 9.257
53 CP1 126 10.234
53 CP1 127 11.698
53 CP1 128 13.163
53 CP1 129 14.628
53 CP1 130 15.116
53 CP1 131 15.605
53 CP1 132 15.605
53 CP1 133 14.628
53 CP1 134 14.628
53 CP1 135 14.628
53 CP1 136 14.628
53 CP1 137 15.116
53 CP1 138 15.116
53 CP1 139 14.628
53 CP1 140 14.140
53 CP1 141 14.140
53 CP1 142 13.163
53 CP1 143 12.675
53 CP1 144 11.698
53 CP1 145 11.210
53 CP1 146 11.210
53 CP1 147 11.698
53 CP1 148 12.187
53 CP1 149 13.163
53 CP1 150 13.652
53 CP1 151 13.652
53 CP1 152 13.163
53 CP1 153 13.652
53 CP1 154 13.652
53 CP1 155 14.140
53 CP1 156 13.652
53 CP1 157 13.163
53 CP1 158 12.187
53 CP1 159 11.210
53 CP1 160 9.745
53 CP1 161 8.280
53 CP1 162 7.304
53 CP1 163 6.816
53 CP1 164 6.816
53 CP1 165 6.816
53 CP1 166 7.792
53 CP1 167 8.280
53 CP1 168 8.769
53 CP1 169 8.769
53 CP1 170 8.280
53 CP1 171 8.280
53 CP1 172 8.280
53 CP1 173 8.280
53 CP1 174 8.280
53 CP1 175 8.280
53 CP1 176 7.792
53 CP1 177 7.792
53 CP1 178 7.792
53 CP1 179 7.792
53 CP1 180 8.280
53 CP1 181 8.280
53 CP1 182 8.769
53 CP1 183 8.769
53 CP1 184 8.280
53 CP1 185 7.792
53 CP1 186 6.816
53 CP1 187 5.839
53 CP1 188 4.374
53 CP1 189 2.421
53 CP1 190 0.468
53 CP1 191 -1.485
53 CP1 192 -2.950
53 CP1 193 -3.927
53 CP1 194 -3.438
53 CP1 195 -2.950
53 CP1 196 -1.973
53 CP1 197 -1.485
53 CP1 198 -0.020
53 CP1 199 0.468
53 CP1 200 1.444
53 CP1 201 1.444
53 CP1 202 0.956
53 CP1 203 -0.020
53 CP1 204 -0.997
53 CP1 205 -1.485
53 CP1 206 -0.997
53 CP1 207 -0.020
53 CP1 208 0.468
53 CP1 209 0.956
53 CP1 210 -0.020
53 CP1 211 -1.485
53 CP1 212 -2.950
53 CP1 213 -3.927
53 CP1 214 -3.927
53 CP1 215 -3.927
53 CP1 216 -3.927
53 CP1 217 -3.927
53 CP1 218 -3.927
53 CP1 219 -4.415
53 CP1 220 -2.950
53 CP1 221 -1.485
53 CP1 222 0.468
53 CP1 223 1.933
53 CP1 224 1.933
53 CP1 225 1.444
53 CP1 226 0.468
53 CP1 227 -0.509
53 CP1 228 -0.997
53 CP1 229 -0.997
53 CP1 230 -0.997
53 CP1 231 -0.509
53 CP1 232 0.468
53 CP1 233 1.444
53 CP1 234 2.909
53 CP1 235 4.374
53 CP1 236 5.839
53 CP1 237 6.816
53 CP1 238 7.792
53 CP1 239 8.280
53 CP1 240 8.280
53 CP1 241 7.792
53 CP1 242 6.816
53 CP1 243 4.862
53 CP1 244 3.398
53 CP1 245 1.933
53 CP1 246 1.444
53 CP1 247 1.444
53 CP1 248 0.956
53 CP1 249 0.468
53 CP1 250 -0.509
53 CP1 251 -1.485
53 CP1 252 -1.973
53 CP1 253 -1.485
53 CP1 254 -0.509
53 CP1 255 0.956
# CP2 chan 21
53 CP2 0 -3.215
53 CP2 1 -4.191
53 CP2 2 -3.703
53 CP2 3 -2.238
53 CP2 4 -0.285
53 CP2 5 2.157
53 CP2 6 4.110
53 CP2 7 5.575
53 CP2 8 6.551
53 CP2 9 7.039
53 CP2 10 7.039
53 CP2 11 7.039
53 CP2 12 7.039
53 CP2 13 7.039
53 CP2 14 7.528
53 CP2 15 8.016
53 CP2 16 8.504
53 CP2 17 8.504
53 CP2 18 8.504
53 CP2 19 8.016
53 CP2 20 8.016
53 CP2 21 8.016
53 CP2 22 8.016
53 CP2 23 8.016
53 CP2 24 7.039
53 CP2 25 6.063
53 CP2 26 4.598
53 CP2 27 3.621
53 CP2 28 2.645
53 CP2 29 2.157
53 CP2 30 1.180
53 CP2 31 0.692
53 CP2 32 1.180
53 CP2 33 2.645
53 CP2 34 4.598
53 CP2 35 6.551
53 CP2 36 7.528
53 CP2 37 7.039
53 CP2 38 5.575
53 CP2 39 3.133
53 CP2 40 0.692
53 CP2 41 -1.261
53 CP2 42 -2.726
53 CP2 43 -3.703
53 CP2 44 -3.703
53 CP2 45 -4.191
53 CP2 46 -4.191
53 CP2 47 -4.679
53 CP2 48 -4.679
53 CP2 49 -5.168
53 CP2 50 -5.656
53 CP2 51 -5.656
53 CP2 52 -5.168
53 CP2 53 -5.168
53 CP2 54 -5.168
53 CP2 55 -5.656
53 CP2 56 -6.144
53 CP2 57 -6.632
53 CP2 58 -5.656
53 CP2 59 -5.168
53 CP2 60 -4.191
53 CP2 61 -3.703
53 CP2 62 -2.726
53 CP2 63 -1.750
53 CP2 64 -0.285
53 CP2 65 0.692
53 CP2 66 1.180
53 CP2 67 1.668
53 CP2 68 1.180
53 CP2 69 0.692
53 CP2 70 0.203
53 CP2 71 0.203
53 CP2 72 1.180
53 CP2 73 2.157
53 CP2 74 2.645
53 CP2 75 3.133
53 CP2 76 3.621
53 CP2 77 4.110
53 CP2 78 4.598
53 CP2 79 5.575
53 CP2 80 6.063
53 CP2 81 6.551
53 CP2 82 7.039
53 CP2 83 8.016
53 CP2 84 8.504
53 CP2 85 8.993
53 CP2 86 8.504
53 CP2 87 8.016
53 CP2 88 7.528
53 CP2 89 6.551
53 CP2 90 6.551
53 CP2 91 6.063
53 CP2 92 5.575
53 CP2 93 5.575
53 CP2 94 6.063
53 CP2 95 7.039
53 CP2 96 8.504
53 CP2 97 9.481
53 CP2 98 10.457
53 CP2 99 10.457
53 CP2 100 10.946
53 CP2 101 10.946
53 CP2 102 10.946
53 CP2 103 10.946
53 CP2 104 10.946
53 CP2 105 11.434
53 CP2 106 12.410
53 CP2 107 13.387
53 CP2 108 14.364
53 CP2 109 14.852
53 CP2 110 15.340
53 CP2 111 15.340
53 CP2 112 15.828
53 CP2 113 16.317
53 CP2 114 16.317
53 CP2 115 16.317
53 CP2 116 16.317
53 CP2 117 16.317
53 CP2 118 16.805
53 CP2 119 17.293
53 CP2 120 16.805
53 CP2 121 15.828
53 CP2 122 14.852
53 CP2 123 13.875
53 CP2 124 13.875
53 CP2 125 14.852
53 CP2 126 16.317
53 CP2 127 17.293
53 CP2 128 17.782
53 CP2 129 17.782
53 CP2 130 16.317
53 CP2 131 14.852
53 CP2 132 13.875
53 CP2 133 13.387
53 CP2 134 13.875
53 CP2 135 14.364
53 CP2 136 14.852
53 CP2 137 14.852
53 CP2 138 14.852
53 CP2 139 14.364
53 CP2 140 14.364
53 CP2 141 14.364
53 CP2 142 14.364
53 CP2 143 13.875
53 CP2 144 13.387
53 CP2 145 13.387
53 CP2 146 13.387
53 CP2 147 13.387
53 CP2 148 13.387
53 CP2 149 13.387
53 CP2 150 13.387
53 CP2 151 13.387
53 CP2 152 13.387
53 CP2 153 13.387
53 CP2 154 13.387
53 CP2 155 12.410
53 CP2 156 11.922
53 CP2 157 10.457
53 CP2 158 9.481
53 CP2 159 8.504
53 CP2 160 7.528
53 CP2 161 6.551
53 CP2 162 5.575
53 CP2 163 5.086
53 CP2 164 4.598
53 CP2 165 5.086
53 CP2 166 5.086
53 CP2 167 5.575
53 CP2 168 6.063
53 CP2 169 6.063
53 CP2 170 6.063
53 CP2 171 6.551
53 CP2 172 7.039
53 CP2 173 7.039
53 CP2 174 7.039
53 CP2 175 6.551
53 CP2 176 6.063
53 CP2 177 5.575
53 CP2 178 5.086
53 CP2 179 4.110
53 CP2 180 3.621
53 CP2 181 2.645
53 CP2 182 2.157
53 CP2 183 2.645
53 CP2 184 3.621
53 CP2 185 5.086
53 CP2 186 6.551
53 CP2 187 7.039
53 CP2 188 6.063
53 CP2 189 3.621
53 CP2 190 1.180
53 CP2 191 -0.773
53 CP2 192 -1.750
53 CP2 193 -2.238
53 CP2 194 -3.215
53 CP2 195 -3.215
53 CP2 196 -4.191
53 CP2 197 -4.191
53 CP2 198 -3.215
53 CP2 199 -1.261
53 CP2 200 0.692
53 CP2 201 2.157
53 CP2 202 2.645
53 CP2 203 2.157
53 CP2 204 1.668
53 CP2 205 2.157
53 CP2 206 2.645
53 CP2 207 3.133
53 CP2 208 3.133
53 CP2 209 2.157
53 CP2 210 -0.285
53 CP2 211 -3.215
53 CP2 212 -5.656
53 CP2 213 -7.121
53 CP2 214 -8.097
53 CP2 215 -8.097
53 CP2 216 -8.097
53 CP2 217 -8.097
53 CP2 218 -7.609
53 CP2 219 -5.656
53 CP2 220 -3.215
53 CP2 221 -0.285
53 CP2 222 2.645
53 CP2 223 5.086
53 CP2 224 6.063
53 CP2 225 6.551
53 CP2 226 6.063
53 CP2 227 5.575
53 CP2 228 5.575
53 CP2 229 5.575
53 CP2 230 5.086
53 CP2 231 4.110
53 CP2 232 3.133
53 CP2 233 2.157
53 CP2 234 1.180
53 CP2 235 0.692
53 CP2 236 0.692
53 CP2 237 0.203
53 CP2 238 0.203
53 CP2 239 0.692
53 CP2 240 0.692
53 CP2 241 1.180
53 CP2 242 1.668
53 CP2 243 1.180
53 CP2 244 0.692
53 CP2 245 -0.285
53 CP2 246 -0.773
53 CP2 247 -0.773
53 CP2 248 0.203
53 CP2 249 2.157
53 CP2 250 4.110
53 CP2 251 5.575
53 CP2 252 5.575
53 CP2 253 4.598
53 CP2 254 2.645
53 CP2 255 1.668
# P3 chan 22
53 P3 0 -3.092
53 P3 1 -3.092
53 P3 2 -1.139
53 P3 3 1.790
53 P3 4 4.720
53 P3 5 7.650
53 P3 6 9.115
53 P3 7 9.603
53 P3 8 9.115
53 P3 9 8.138
53 P3 10 7.161
53 P3 11 7.161
53 P3 12 7.650
53 P3 13 9.603
53 P3 14 12.044
53 P3 15 13.997
53 P3 16 15.462
53 P3 17 15.462
53 P3 18 14.974
53 P3 19 14.486
53 P3 20 13.997
53 P3 21 13.509
53 P3 22 12.044
53 P3 23 9.603
53 P3 24 6.673
53 P3 25 4.232
53 P3 26 2.279
53 P3 27 1.790
53 P3 28 2.279
53 P3 29 1.790
53 P3 30 1.302
53 P3 31 0.814
53 P3 32 0.814
53 P3 33 2.279
53 P3 34 4.232
53 P3 35 5.697
53 P3 36 6.185
53 P3 37 5.697
53 P3 38 5.208
53 P3 39 3.743
53 P3 40 2.767
53 P3 41 1.790
53 P3 42 -0.163
53 P3 43 -1.628
53 P3 44 -3.092
53 P3 45 -4.069
53 P3 46 -4.557
53 P3 47 -4.557
53 P3 48 -4.557
53 P3 49 -4.557
53 P3 50 -4.557
53 P3 51 -3.581
53 P3 52 -2.116
53 P3 53 -1.139
53 P3 54 -0.651
53 P3 55 -1.139
53 P3 56 -2.604
53 P3 57 -4.069
53 P3 58 -5.046
53 P3 59 -6.022
53 P3 60 -6.022
53 P3 61 -5.534
53 P3 62 -5.046
53 P3 63 -3.581
53 P3 64 -1.139
53 P3 65 1.302
53 P3 66 3.743
53 P3 67 6.185
53 P3 68 8.138
53 P3 69 10.091
53 P3 70 11.068
53 P3 71 12.044
53 P3 72 12.533
53 P3 73 12.533
53 P3 74 12.044
53 P3 75 11.556
53 P3 76 10.579
53 P3 77 9.603
53 P3 78 9.115
53 P3 79 9.115
53 P3 80 9.115
53 P3 81 9.115
53 P3 82 9.115
53 P3 83 9.115
53 P3 84 10.091
53 P3 85 10.091
53 P3 86 10.579
53 P3 87 9.603
53 P3 88 7.650
53 P3 89 5.208
53 P3 90 3.743
53 P3 91 3.255
53 P3 92 4.232
53 P3 93 6.185
53 P3 94 8.138
53 P3 95 9.603
53 P3 96 11.068
53 P3 97 11.556
53 P3 98 12.533
53 P3 99 12.533
53 P3 100 12.044
53 P3 101 11.556
53 P3 102 11.556
53 P3 103 11.556
53 P3 104 12.044
53 P3 105 13.021
53 P3 106 13.997
53 P3 107 14.486
53 P3 108 14.486
53 P3 109 14.486
53 P3 110 15.951
53 P3 111 17.415
53 P3 112 18.392
53 P3 113 19.368
53 P3 114 19.857
53 P3 115 19.368
53 P3 116 19.368
53 P3 117 19.857
53 P3 118 20.833
53 P3 119 20.833
53 P3 120 20.345
53 P3 121 19.368
53 P3 122 17.904
53 P3 123 16.439
53 P3 124 15.951
53 P3 125 16.439
53 P3 126 17.904
53 P3 127 19.368
53 P3 128 21.322
53 P3 129 22.298
53 P3 130 22.786
53 P3 131 22.298
53 P3 132 21.810
53 P3 133 21.322
53 P3 134 21.810
53 P3 135 22.298
53 P3 136 22.786
53 P3 137 22.786
53 P3 138 23.275
53 P3 139 23.763
53 P3 140 24.251
53 P3 141 24.251
53 P3 142 23.763
53 P3 143 22.786
53 P3 144 21.322
53 P3 145 20.833
53 P3 146 20.345
53 P3 147 20.833
53 P3 148 21.322
53 P3 149 21.810
53 P3 150 22.786
53 P3 151 23.763
53 P3 152 25.228
53 P3 153 25.228
53 P3 154 25.228
53 P3 155 24.251
53 P3 156 23.275
53 P3 157 21.810
53 P3 158 20.345
53 P3 159 18.880
53 P3 160 16.439
53 P3 161 13.509
53 P3 162 11.068
53 P3 163 9.603
53 P3 164 9.115
53 P3 165 10.091
53 P3 166 11.556
53 P3 167 13.021
53 P3 168 13.997
53 P3 169 14.486
53 P3 170 13.997
53 P3 171 13.509
53 P3 172 13.997
53 P3 173 13.997
53 P3 174 14.486
53 P3 175 13.997
53 P3 176 13.509
53 P3 177 12.533
53 P3 178 12.044
53 P3 179 12.044
53 P3 180 12.044
53 P3 181 12.044
53 P3 182 11.068
53 P3 183 10.091
53 P3 184 9.115
53 P3 185 9.115
53 P3 186 8.626
53 P3 187 7.650
53 P3 188 5.208
53 P3 189 1.790
53 P3 190 -1.628
53 P3 191 -3.581
53 P3 192 -4.557
53 P3 193 -4.069
53 P3 194 -4.069
53 P3 195 -4.069
53 P3 196 -4.069
53 P3 197 -3.581
53 P3 198 -2.116
53 P3 199 -0.163
53 P3 200 0.814
53 P3 201 0.814
53 P3 202 0.326
53 P3 203 -1.139
53 P3 204 -1.628
53 P3 205 -1.628
53 P3 206 -0.651
53 P3 207 -0.163
53 P3 208 -0.163
53 P3 209 -1.139
53 P3 210 -3.581
53 P3 211 -6.999
53 P3 212 -9.928
53 P3 213 -12.370
53 P3 214 -13.346
53 P3 215 -13.346
53 P3 216 -12.370
53 P3 217 -11.882
53 P3 218 -11.882
53 P3 219 -11.393
53 P3 220 -9.440
53 P3 221 -6.022
53 P3 222 -2.116
53 P3 223 0.814
53 P3 224 1.302
53 P3 225 0.326
53 P3 226 -2.116
53 P3 227 -3.581
53 P3 228 -4.557
53 P3 229 -4.557
53 P3 230 -4.557
53 P3 231 -4.069
53 P3 232 -3.581
53 P3 233 -2.116
53 P3 234 0.326
53 P3 235 3.255
53 P3 236 5.208
53 P3 237 6.673
53 P3 238 7.161
53 P3 239 7.650
53 P3 240 8.138
53 P3 241 8.138
53 P3 242 7.650
53 P3 243 5.697
53 P3 244 3.743
53 P3 245 1.302
53 P3 246 -0.651
53 P3 247 -1.628
53 P3 248 -2.604
53 P3 249 -3.581
53 P3 250 -4.069
53 P3 251 -4.557
53 P3 252 -4.557
53 P3 253 -4.069
53 P3 254 -3.581
53 P3 255 -2.604
# P4 chan 23
53 P4 0 -2.116
53 P4 1 -2.116
53 P4 2 -0.651
53 P4 3 2.279
53 P4 4 4.720
53 P4 5 6.185
53 P4 6 7.161
53 P4 7 8.138
53 P4 8 9.603
53 P4 9 10.579
53 P4 10 11.068
53 P4 11 11.068
53 P4 12 11.068
53 P4 13 11.068
53 P4 14 11.556
53 P4 15 12.533
53 P4 16 13.509
53 P4 17 13.509
53 P4 18 12.533
53 P4 19 12.533
53 P4 20 13.021
53 P4 21 13.997
53 P4 22 15.462
53 P4 23 15.951
53 P4 24 14.974
53 P4 25 13.021
53 P4 26 11.556
53 P4 27 11.068
53 P4 28 10.579
53 P4 29 9.603
53 P4 30 8.138
53 P4 31 6.185
53 P4 32 4.720
53 P4 33 4.720
53 P4 34 5.697
53 P4 35 7.161
53 P4 36 7.650
53 P4 37 6.673
53 P4 38 4.720
53 P4 39 1.302
53 P4 40 -2.116
53 P4 41 -5.534
53 P4 42 -7.975
53 P4 43 -9.928
53 P4 44 -10.905
53 P4 45 -10.905
53 P4 46 -10.417
53 P4 47 -9.440
53 P4 48 -8.952
53 P4 49 -7.487
53 P4 50 -5.534
53 P4 51 -4.069
53 P4 52 -2.604
53 P4 53 -1.628
53 P4 54 -1.628
53 P4 55 -2.604
53 P4 56 -3.092
53 P4 57 -3.581
53 P4 58 -2.604
53 P4 59 -1.139
53 P4 60 0.326
53 P4 61 1.790
53 P4 62 3.255
53 P4 63 3.743
53 P4 64 4.720
53 P4 65 5.697
53 P4 66 6.185
53 P4 67 6.185
53 P4 68 6.185
53 P4 69 5.208
53 P4 70 4.232
53 P4 71 4.720
53 P4 72 6.185
53 P4 73 8.138
53 P4 74 9.603
53 P4 75 10.579
53 P4 76 11.556
53 P4 77 11.556
53 P4 78 12.533
53 P4 79 13.021
53 P4 80 13.509
53 P4 81 13.997
53 P4 82 13.997
53 P4 83 13.997
53 P4 84 13.997
53 P4 85 14.486
53 P4 86 13.997
53 P4 87 13.021
53 P4 88 11.556
53 P4 89 10.579
53 P4 90 9.603
53 P4 91 8.626
53 P4 92 8.138
53 P4 93 7.650
53 P4 94 8.138
53 P4 95 9.115
53 P4 96 11.556
53 P4 97 13.997
53 P4 98 15.462
53 P4 99 16.439
53 P4 100 16.439
53 P4 101 16.439
53 P4 102 15.951
53 P4 103 15.951
53 P4 104 15.951
53 P4 105 16.927
53 P4 106 17.904
53 P4 107 19.857
53 P4 108 21.322
53 P4 109 22.298
53 P4 110 23.275
53 P4 111 23.763
53 P4 112 24.740
53 P4 113 25.228
53 P4 114 25.716
53 P4 115 25.716
53 P4 116 25.716
53 P4 117 26.204
53 P4 118 27.181
53 P4 119 27.669
53 P4 120 27.669
53 P4 121 26.693
53 P4 122 24.740
53 P4 123 23.275
53 P4 124 23.275
53 P4 125 24.740
53 P4 126 28.158
53 P4 127 30.599
53 P4 128 31.087
53 P4 129 29.622
53 P4 130 26.693
53 P4 131 24.251
53 P4 132 22.786
53 P4 133 23.275
53 P4 134 24.251
53 P4 135 25.228
53 P4 136 25.228
53 P4 137 24.740
53 P4 138 24.251
53 P4 139 24.251
53 P4 140 24.740
53 P4 141 24.740
53 P4 142 24.740
53 P4 143 24.251
53 P4 144 23.275
53 P4 145 23.275
53 P4 146 22.786
53 P4 147 22.786
53 P4 148 22.298
53 P4 149 21.322
53 P4 150 20.345
53 P4 151 20.833
53 P4 152 21.322
53 P4 153 21.810
53 P4 154 21.322
53 P4 155 19.368
53 P4 156 17.904
53 P4 157 16.439
53 P4 158 15.462
53 P4 159 14.486
53 P4 160 13.021
53 P4 161 10.091
53 P4 162 7.161
53 P4 163 5.697
53 P4 164 5.697
53 P4 165 7.161
53 P4 166 9.115
53 P4 167 10.579
53 P4 168 10.579
53 P4 169 9.603
53 P4 170 9.115
53 P4 171 9.115
53 P4 172 10.091
53 P4 173 10.579
53 P4 174 10.579
53 P4 175 10.091
53 P4 176 8.626
53 P4 177 7.650
53 P4 178 6.185
53 P4 179 5.208
53 P4 180 3.255
53 P4 181 2.279
53 P4 182 0.814
53 P4 183 2.279
53 P4 184 4.720
53 P4 185 8.138
53 P4 186 11.068
53 P4 187 11.556
53 P4 188 9.603
53 P4 189 4.720
53 P4 190 -1.139
53 P4 191 -5.534
53 P4 192 -8.464
53 P4 193 -10.417
53 P4 194 -12.858
53 P4 195 -15.788
53 P4 196 -17.741
53 P4 197 -18.229
53 P4 198 -14.811
53 P4 199 -8.952
53 P4 200 -2.604
53 P4 201 1.302
53 P4 202 3.255
53 P4 203 2.767
53 P4 204 2.767
53 P4 205 3.743
53 P4 206 6.185
53 P4 207 8.138
53 P4 208 7.650
53 P4 209 4.232
53 P4 210 -1.628
53 P4 211 -7.975
53 P4 212 -13.346
53 P4 213 -16.764
53 P4 214 -18.717
53 P4 215 -20.182
53 P4 216 -21.159
53 P4 217 -21.647
53 P4 218 -21.647
53 P4 219 -18.717
53 P4 220 -14.323
53 P4 221 -7.975
53 P4 222 -1.628
53 P4 223 3.255
53 P4 224 6.185
53 P4 225 7.161
53 P4 226 7.650
53 P4 227 7.650
53 P4 228 7.161
53 P4 229 6.673
53 P4 230 5.697
53 P4 231 4.232
53 P4 232 2.279
53 P4 233 1.302
53 P4 234 0.326
53 P4 235 -0.163
53 P4 236 -0.651
53 P4 237 -1.139
53 P4 238 -2.604
53 P4 239 -3.581
53 P4 240 -4.557
53 P4 241 -5.046
53 P4 242 -5.046
53 P4 243 -5.534
53 P4 244 -6.022
53 P4 245 -6.510
53 P4 246 -6.022
53 P4 247 -4.557
53 P4 248 -1.628
53 P4 249 2.279
53 P4 250 5.208
53 P4 251 7.161
53 P4 252 7.161
53 P4 253 5.208
53 P4 254 2.279
53 P4 255 -0.163
# PZ chan 24
53 PZ 0 -8.636
53 PZ 1 -9.125
53 PZ 2 -8.148
53 PZ 3 -5.707
53 PZ 4 -2.777
53 PZ 5 0.641
53 PZ 6 3.571
53 PZ 7 6.500
53 PZ 8 8.942
53 PZ 9 10.895
53 PZ 10 11.383
53 PZ 11 11.871
53 PZ 12 12.360
53 PZ 13 13.336
53 PZ 14 15.289
53 PZ 15 16.754
53 PZ 16 17.242
53 PZ 17 16.266
53 PZ 18 13.824
53 PZ 19 11.383
53 PZ 20 9.430
53 PZ 21 8.453
53 PZ 22 7.965
53 PZ 23 6.989
53 PZ 24 5.035
53 PZ 25 2.594
53 PZ 26 0.641
53 PZ 27 -0.336
53 PZ 28 -1.312
53 PZ 29 -2.289
53 PZ 30 -3.265
53 PZ 31 -3.754
53 PZ 32 -2.777
53 PZ 33 0.153
53 PZ 34 4.059
53 PZ 35 8.453
53 PZ 36 10.895
53 PZ 37 11.871
53 PZ 38 10.406
53 PZ 39 7.477
53 PZ 40 4.547
53 PZ 41 2.106
53 PZ 42 -0.336
53 PZ 43 -1.801
53 PZ 44 -3.265
53 PZ 45 -4.730
53 PZ 46 -5.707
53 PZ 47 -7.172
53 PZ 48 -9.125
53 PZ 49 -10.590
53 PZ 50 -11.566
53 PZ 51 -11.566
53 PZ 52 -11.078
53 PZ 53 -10.101
53 PZ 54 -9.613
53 PZ 55 -9.613
53 PZ 56 -8.636
53 PZ 57 -7.660
53 PZ 58 -6.195
53 PZ 59 -4.730
53 PZ 60 -3.754
53 PZ 61 -3.265
53 PZ 62 -2.777
53 PZ 63 -1.801
53 PZ 64 -0.824
53 PZ 65 1.129
53 PZ 66 2.106
53 PZ 67 2.594
53 PZ 68 2.106
53 PZ 69 1.129
53 PZ 70 0.641
53 PZ 71 0.153
53 PZ 72 0.153
53 PZ 73 0.641
53 PZ 74 0.641
53 PZ 75 0.641
53 PZ 76 1.129
53 PZ 77 2.106
53 PZ 78 4.059
53 PZ 79 6.012
53 PZ 80 7.477
53 PZ 81 8.942
53 PZ 82 9.918
53 PZ 83 11.383
53 PZ 84 12.848
53 PZ 85 13.336
53 PZ 86 13.336
53 PZ 87 11.383
53 PZ 88 7.965
53 PZ 89 5.035
53 PZ 90 3.082
53 PZ 91 2.106
53 PZ 92 2.594
53 PZ 93 4.059
53 PZ 94 5.524
53 PZ 95 6.989
53 PZ 96 8.453
53 PZ 97 8.942
53 PZ 98 9.918
53 PZ 99 10.895
53 PZ 100 10.895
53 PZ 101 11.383
53 PZ 102 11.871
53 PZ 103 12.360
53 PZ 104 13.824
53 PZ 105 15.289
53 PZ 106 17.242
53 PZ 107 19.196
53 PZ 108 20.660
53 PZ 109 21.637
53 PZ 110 22.614
53 PZ 111 23.102
53 PZ 112 24.078
53 PZ 113 25.055
53 PZ 114 25.543
53 PZ 115 26.031
53 PZ 116 26.520
53 PZ 117 27.008
53 PZ 118 27.496
53 PZ 119 27.496
53 PZ 120 27.008
53 PZ 121 25.543
53 PZ 122 23.590
53 PZ 123 22.614
53 PZ 124 22.125
53 PZ 125 23.102
53 PZ 126 25.055
53 PZ 127 26.520
53 PZ 128 27.496
53 PZ 129 27.496
53 PZ 130 26.031
53 PZ 131 24.078
53 PZ 132 22.614
53 PZ 133 21.637
53 PZ 134 21.149
53 PZ 135 21.637
53 PZ 136 21.637
53 PZ 137 21.149
53 PZ 138 20.660
53 PZ 139 20.172
53 PZ 140 19.684
53 PZ 141 19.196
53 PZ 142 19.196
53 PZ 143 18.219
53 PZ 144 18.219
53 PZ 145 18.219
53 PZ 146 18.219
53 PZ 147 19.196
53 PZ 148 19.684
53 PZ 149 19.684
53 PZ 150 19.684
53 PZ 151 20.172
53 PZ 152 20.660
53 PZ 153 20.660
53 PZ 154 20.172
53 PZ 155 19.196
53 PZ 156 17.242
53 PZ 157 15.778
53 PZ 158 14.313
53 PZ 159 12.848
53 PZ 160 11.383
53 PZ 161 8.942
53 PZ 162 6.500
53 PZ 163 4.547
53 PZ 164 4.059
53 PZ 165 4.547
53 PZ 166 6.012
53 PZ 167 7.965
53 PZ 168 8.453
53 PZ 169 8.453
53 PZ 170 7.477
53 PZ 171 7.477
53 PZ 172 7.965
53 PZ 173 8.942
53 PZ 174 9.918
53 PZ 175 10.406
53 PZ 176 9.430
53 PZ 177 7.965
53 PZ 178 6.012
53 PZ 179 4.547
53 PZ 180 3.571
53 PZ 181 3.082
53 PZ 182 2.594
53 PZ 183 2.594
53 PZ 184 3.082
53 PZ 185 4.059
53 PZ 186 4.547
53 PZ 187 4.059
53 PZ 188 1.129
53 PZ 189 -2.777
53 PZ 190 -7.172
53 PZ 191 -10.590
53 PZ 192 -11.566
53 PZ 193 -12.054
53 PZ 194 -12.054
53 PZ 195 -12.543
53 PZ 196 -13.031
53 PZ 197 -13.031
53 PZ 198 -11.078
53 PZ 199 -7.660
53 PZ 200 -4.242
53 PZ 201 -2.289
53 PZ 202 -2.289
53 PZ 203 -3.265
53 PZ 204 -4.730
53 PZ 205 -4.730
53 PZ 206 -3.265
53 PZ 207 -1.801
53 PZ 208 -1.801
53 PZ 209 -3.754
53 PZ 210 -7.172
53 PZ 211 -11.078
53 PZ 212 -14.984
53 PZ 213 -17.426
53 PZ 214 -18.402
53 PZ 215 -18.402
53 PZ 216 -18.402
53 PZ 217 -17.914
53 PZ 218 -17.426
53 PZ 219 -15.961
53 PZ 220 -13.031
53 PZ 221 -9.125
53 PZ 222 -5.707
53 PZ 223 -3.754
53 PZ 224 -3.265
53 PZ 225 -3.754
53 PZ 226 -4.730
53 PZ 227 -5.219
53 PZ 228 -5.219
53 PZ 229 -5.219
53 PZ 230 -5.707
53 PZ 231 -5.707
53 PZ 232 -5.707
53 PZ 233 -4.242
53 PZ 234 -2.289
53 PZ 235 -0.824
53 PZ 236 0.153
53 PZ 237 0.153
53 PZ 238 0.153
53 PZ 239 -0.336
53 PZ 240 0.153
53 PZ 241 0.641
53 PZ 242 0.641
53 PZ 243 -0.824
53 PZ 244 -3.754
53 PZ 245 -7.660
53 PZ 246 -11.078
53 PZ 247 -13.519
53 PZ 248 -14.496
53 PZ 249 -14.008
53 PZ 250 -13.031
53 PZ 251 -11.566
53 PZ 252 -10.101
53 PZ 253 -9.125
53 PZ 254 -8.636
53 PZ 255 -7.660
# P8 chan 25
53 P8 0 10.478
53 P8 1 10.966
53 P8 2 12.919
53 P8 3 14.872
53 P8 4 15.849
53 P8 5 15.849
53 P8 6 14.384
53 P8 7 13.407
53 P8 8 11.943
53 P8 9 10.966
53 P8 10 9.989
53 P8 11 8.525
53 P8 12 6.571
53 P8 13 5.595
53 P8 14 6.083
53 P8 15 8.036
53 P8 16 9.989
53 P8 17 11.943
53 P8 18 13.407
53 P8 19 14.384
53 P8 20 15.849
53 P8 21 18.290
53 P8 22 20.732
53 P8 23 22.685
53 P8 24 22.685
53 P8 25 21.708
53 P8 26 20.243
53 P8 27 19.755
53 P8 28 19.267
53 P8 29 19.267
53 P8 30 18.290
53 P8 31 16.825
53 P8 32 15.361
53 P8 33 13.407
53 P8 34 11.943
53 P8 35 10.478
53 P8 36 8.525
53 P8 37 6.571
53 P8 38 4.130
53 P8 39 0.712
53 P8 40 -3.194
53 P8 41 -7.589
53 P8 42 -11.495
53 P8 43 -12.960
53 P8 44 -13.448
53 P8 45 -12.960
53 P8 46 -11.495
53 P8 47 -10.518
53 P8 48 -9.542
53 P8 49 -7.589
53 P8 50 -4.659
53 P8 51 -0.264
53 P8 52 3.642
53 P8 53 6.083
53 P8 54 6.571
53 P8 55 4.618
53 P8 56 2.665
53 P8 57 1.200
53 P8 58 1.200
53 P8 59 3.153
53 P8 60 5.107
53 P8 61 6.083
53 P8 62 6.571
53 P8 63 6.083
53 P8 64 6.571
53 P8 65 8.036
53 P8 66 9.501
53 P8 67 10.966
53 P8 68 11.454
53 P8 69 10.478
53 P8 70 9.013
53 P8 71 8.525
53 P8 72 9.989
53 P8 73 11.943
53 P8 74 14.384
53 P8 75 15.361
53 P8 76 15.849
53 P8 77 14.872
53 P8 78 13.407
53 P8 79 12.431
53 P8 80 10.966
53 P8 81 9.501
53 P8 82 8.525
53 P8 83 8.525
53 P8 84 9.013
53 P8 85 9.501
53 P8 86 9.989
53 P8 87 9.989
53 P8 88 9.501
53 P8 89 8.036
53 P8 90 7.060
53 P8 91 5.595
53 P8 92 4.130
53 P8 93 2.665
53 P8 94 2.665
53 P8 95 4.130
53 P8 96 6.083
53 P8 97 9.013
53 P8 98 10.966
53 P8 99 12.431
53 P8 100 12.431
53 P8 101 12.431
53 P8 102 11.454
53 P8 103 10.478
53 P8 104 9.501
53 P8 105 9.013
53 P8 106 9.501
53 P8 107 10.478
53 P8 108 11.454
53 P8 109 11.454
53 P8 110 11.454
53 P8 111 12.431
53 P8 112 13.896
53 P8 113 15.849
53 P8 114 18.290
53 P8 115 18.778
53 P8 116 18.778
53 P8 117 17.802
53 P8 118 17.314
53 P8 119 17.314
53 P8 120 17.802
53 P8 121 17.314
53 P8 122 15.849
53 P8 123 14.384
53 P8 124 14.384
53 P8 125 16.825
53 P8 126 21.220
53 P8 127 25.614
53 P8 128 27.568
53 P8 129 26.591
53 P8 130 22.685
53 P8 131 18.778
53 P8 132 17.802
53 P8 133 18.778
53 P8 134 21.220
53 P8 135 23.173
53 P8 136 23.173
53 P8 137 21.708
53 P8 138 20.732
53 P8 139 21.220
53 P8 140 22.685
53 P8 141 23.661
53 P8 142 23.661
53 P8 143 22.685
53 P8 144 20.732
53 P8 145 19.755
53 P8 146 19.267
53 P8 147 18.778
53 P8 148 17.802
53 P8 149 16.337
53 P8 150 14.872
53 P8 151 14.872
53 P8 152 15.361
53 P8 153 15.849
53 P8 154 15.361
53 P8 155 14.384
53 P8 156 12.919
53 P8 157 11.943
53 P8 158 11.454
53 P8 159 10.966
53 P8 160 9.501
53 P8 161 6.571
53 P8 162 3.153
53 P8 163 1.200
53 P8 164 1.200
53 P8 165 3.642
53 P8 166 6.571
53 P8 167 8.525
53 P8 168 9.013
53 P8 169 8.525
53 P8 170 7.548
53 P8 171 8.036
53 P8 172 9.013
53 P8 173 9.989
53 P8 174 9.989
53 P8 175 9.013
53 P8 176 7.060
53 P8 177 5.107
53 P8 178 2.665
53 P8 179 1.689
53 P8 180 0.224
53 P8 181 -1.241
53 P8 182 -2.218
53 P8 183 -2.218
53 P8 184 -0.264
53 P8 185 2.665
53 P8 186 6.571
53 P8 187 8.036
53 P8 188 6.571
53 P8 189 2.665
53 P8 190 -2.706
53 P8 191 -6.612
53 P8 192 -9.054
53 P8 193 -10.030
53 P8 194 -11.495
53 P8 195 -14.425
53 P8 196 -17.354
53 P8 197 -18.331
53 P8 198 -15.889
53 P8 199 -10.030
53 P8 200 -2.706
53 P8 201 3.153
53 P8 202 6.083
53 P8 203 6.083
53 P8 204 5.107
53 P8 205 4.618
53 P8 206 5.595
53 P8 207 6.571
53 P8 208 6.083
53 P8 209 3.153
53 P8 210 -1.729
53 P8 211 -7.589
53 P8 212 -12.472
53 P8 213 -15.401
53 P8 214 -17.354
53 P8 215 -18.819
53 P8 216 -20.284
53 P8 217 -21.749
53 P8 218 -22.237
53 P8 219 -20.284
53 P8 220 -16.866
53 P8 221 -11.983
53 P8 222 -6.612
53 P8 223 -2.218
53 P8 224 1.200
53 P8 225 3.642
53 P8 226 6.083
53 P8 227 9.013
53 P8 228 10.966
53 P8 229 11.943
53 P8 230 10.478
53 P8 231 7.060
53 P8 232 2.177
53 P8 233 -1.729
53 P8 234 -4.171
53 P8 235 -5.147
53 P8 236 -6.124
53 P8 237 -7.100
53 P8 238 -8.565
53 P8 239 -10.030
53 P8 240 -11.007
53 P8 241 -10.518
53 P8 242 -7.589
53 P8 243 -3.682
53 P8 244 0.712
53 P8 245 5.107
53 P8 246 8.525
53 P8 247 10.966
53 P8 248 13.407
53 P8 249 14.872
53 P8 250 15.361
53 P8 251 13.407
53 P8 252 9.989
53 P8 253 4.130
53 P8 254 -2.706
53 P8 255 -8.077
# P7 chan 26
53 P7 0 12.034
53 P7 1 13.499
53 P7 2 15.452
53 P7 3 16.917
53 P7 4 17.405
53 P7 5 17.405
53 P7 6 15.940
53 P7 7 13.011
53 P7 8 9.593
53 P7 9 5.686
53 P7 10 3.245
53 P7 11 2.757
53 P7 12 4.222
53 P7 13 8.128
53 P7 14 12.034
53 P7 15 14.476
53 P7 16 15.940
53 P7 17 15.940
53 P7 18 15.940
53 P7 19 16.429
53 P7 20 17.405
53 P7 21 17.405
53 P7 22 15.940
53 P7 23 13.499
53 P7 24 10.081
53 P7 25 8.616
53 P7 26 8.616
53 P7 27 9.104
53 P7 28 9.593
53 P7 29 9.104
53 P7 30 7.640
53 P7 31 6.663
53 P7 32 6.663
53 P7 33 7.151
53 P7 34 7.640
53 P7 35 7.640
53 P7 36 7.151
53 P7 37 6.175
53 P7 38 6.175
53 P7 39 6.175
53 P7 40 5.686
53 P7 41 3.245
53 P7 42 -0.173
53 P7 43 -3.103
53 P7 44 -4.079
53 P7 45 -3.103
53 P7 46 -1.638
53 P7 47 -0.173
53 P7 48 -0.173
53 P7 49 -1.149
53 P7 50 -1.638
53 P7 51 -0.173
53 P7 52 2.268
53 P7 53 4.222
53 P7 54 5.686
53 P7 55 5.198
53 P7 56 3.733
53 P7 57 1.780
53 P7 58 0.804
53 P7 59 0.315
53 P7 60 0.804
53 P7 61 1.292
53 P7 62 2.268
53 P7 63 3.245
53 P7 64 5.198
53 P7 65 6.663
53 P7 66 8.128
53 P7 67 10.569
53 P7 68 13.011
53 P7 69 15.940
53 P7 70 18.870
53 P7 71 21.311
53 P7 72 22.776
53 P7 73 22.776
53 P7 74 22.288
53 P7 75 20.823
53 P7 76 18.870
53 P7 77 16.429
53 P7 78 13.987
53 P7 79 11.546
53 P7 80 9.593
53 P7 81 8.128
53 P7 82 6.663
53 P7 83 6.175
53 P7 84 6.663
53 P7 85 8.128
53 P7 86 10.081
53 P7 87 11.058
53 P7 88 10.081
53 P7 89 8.616
53 P7 90 6.663
53 P7 91 6.175
53 P7 92 7.640
53 P7 93 9.593
53 P7 94 11.058
53 P7 95 12.034
53 P7 96 11.546
53 P7 97 11.546
53 P7 98 11.546
53 P7 99 11.546
53 P7 100 11.546
53 P7 101 10.569
53 P7 102 9.593
53 P7 103 9.104
53 P7 104 10.081
53 P7 105 11.058
53 P7 106 11.058
53 P7 107 9.104
53 P7 108 6.175
53 P7 109 4.222
53 P7 110 4.222
53 P7 111 6.175
53 P7 112 9.104
53 P7 113 11.546
53 P7 114 13.011
53 P7 115 13.011
53 P7 116 13.499
53 P7 117 13.987
53 P7 118 15.452
53 P7 119 16.429
53 P7 120 16.429
53 P7 121 15.452
53 P7 122 13.499
53 P7 123 11.058
53 P7 124 8.616
53 P7 125 7.151
53 P7 126 7.640
53 P7 127 9.593
53 P7 128 13.011
53 P7 129 16.429
53 P7 130 18.382
53 P7 131 18.870
53 P7 132 19.358
53 P7 133 20.335
53 P7 134 21.311
53 P7 135 22.776
53 P7 136 23.265
53 P7 137 23.753
53 P7 138 25.218
53 P7 139 27.171
53 P7 140 29.612
53 P7 141 31.565
53 P7 142 30.589
53 P7 143 28.147
53 P7 144 25.218
53 P7 145 23.265
53 P7 146 21.800
53 P7 147 21.311
53 P7 148 21.311
53 P7 149 21.311
53 P7 150 22.288
53 P7 151 24.241
53 P7 152 26.683
53 P7 153 28.636
53 P7 154 29.124
53 P7 155 27.659
53 P7 156 25.218
53 P7 157 22.776
53 P7 158 21.311
53 P7 159 20.335
53 P7 160 19.358
53 P7 161 17.405
53 P7 162 14.476
53 P7 163 12.034
53 P7 164 11.058
53 P7 165 11.058
53 P7 166 13.011
53 P7 167 15.452
53 P7 168 16.917
53 P7 169 17.405
53 P7 170 17.405
53 P7 171 18.382
53 P7 172 20.335
53 P7 173 22.776
53 P7 174 23.265
53 P7 175 21.800
53 P7 176 19.358
53 P7 177 16.429
53 P7 178 14.964
53 P7 179 15.452
53 P7 180 16.917
53 P7 181 17.405
53 P7 182 16.917
53 P7 183 15.452
53 P7 184 14.476
53 P7 185 14.476
53 P7 186 14.964
53 P7 187 14.964
53 P7 188 13.987
53 P7 189 11.546
53 P7 190 8.128
53 P7 191 4.222
53 P7 192 1.292
53 P7 193 -0.661
53 P7 194 -1.638
53 P7 195 -1.149
53 P7 196 0.315
53 P7 197 2.268
53 P7 198 4.222
53 P7 199 5.686
53 P7 200 6.175
53 P7 201 7.151
53 P7 202 7.640
53 P7 203 8.616
53 P7 204 8.616
53 P7 205 7.640
53 P7 206 5.686
53 P7 207 3.733
53 P7 208 2.268
53 P7 209 1.292
53 P7 210 0.315
53 P7 211 -2.126
53 P7 212 -5.544
53 P7 213 -8.962
53 P7 214 -10.915
53 P7 215 -10.915
53 P7 216 -9.939
53 P7 217 -8.962
53 P7 218 -8.962
53 P7 219 -9.450
53 P7 220 -8.474
53 P7 221 -5.056
53 P7 222 -1.149
53 P7 223 2.757
53 P7 224 4.222
53 P7 225 3.245
53 P7 226 1.292
53 P7 227 -0.661
53 P7 228 -1.149
53 P7 229 -1.149
53 P7 230 -1.149
53 P7 231 -1.638
53 P7 232 -2.126
53 P7 233 -0.173
53 P7 234 2.757
53 P7 235 6.663
53 P7 236 10.081
53 P7 237 12.034
53 P7 238 13.987
53 P7 239 14.964
53 P7 240 16.429
53 P7 241 16.429
53 P7 242 14.964
53 P7 243 12.522
53 P7 244 9.593
53 P7 245 8.128
53 P7 246 8.616
53 P7 247 10.081
53 P7 248 10.569
53 P7 249 9.593
53 P7 250 7.640
53 P7 251 6.663
53 P7 252 7.151
53 P7 253 8.128
53 P7 254 9.104
53 P7 255 9.104
# PO2 chan 27
53 PO2 0 -2.055
53 PO2 1 -2.055
53 PO2 2 0.387
53 PO2 3 2.828
53 PO2 4 4.293
53 PO2 5 4.781
53 PO2 6 4.781
53 PO2 7 5.269
53 PO2 8 7.711
53 PO2 9 10.640
53 PO2 10 13.082
53 PO2 11 15.035
53 PO2 12 16.012
53 PO2 13 17.476
53 PO2 14 18.453
53 PO2 15 19.918
53 PO2 16 20.406
53 PO2 17 19.918
53 PO2 18 18.453
53 PO2 19 17.476
53 PO2 20 17.476
53 PO2 21 17.965
53 PO2 22 19.430
53 PO2 23 19.430
53 PO2 24 18.453
53 PO2 25 16.500
53 PO2 26 14.547
53 PO2 27 12.594
53 PO2 28 10.640
53 PO2 29 7.711
53 PO2 30 4.781
53 PO2 31 1.363
53 PO2 32 -0.590
53 PO2 33 -0.102
53 PO2 34 2.340
53 PO2 35 5.758
53 PO2 36 7.711
53 PO2 37 8.687
53 PO2 38 6.734
53 PO2 39 3.316
53 PO2 40 -0.590
53 PO2 41 -4.008
53 PO2 42 -6.449
53 PO2 43 -8.403
53 PO2 44 -9.379
53 PO2 45 -10.356
53 PO2 46 -10.844
53 PO2 47 -10.844
53 PO2 48 -9.867
53 PO2 49 -7.914
53 PO2 50 -4.985
53 PO2 51 -2.543
53 PO2 52 -0.590
53 PO2 53 0.387
53 PO2 54 0.387
53 PO2 55 -0.590
53 PO2 56 -1.078
53 PO2 57 -0.590
53 PO2 58 0.875
53 PO2 59 2.828
53 PO2 60 4.781
53 PO2 61 6.734
53 PO2 62 7.711
53 PO2 63 8.199
53 PO2 64 8.687
53 PO2 65 9.176
53 PO2 66 10.152
53 PO2 67 10.640
53 PO2 68 10.152
53 PO2 69 9.176
53 PO2 70 8.199
53 PO2 71 7.711
53 PO2 72 8.687
53 PO2 73 9.664
53 PO2 74 11.129
53 PO2 75 12.105
53 PO2 76 12.594
53 PO2 77 13.570
53 PO2 78 14.058
53 PO2 79 15.035
53 PO2 80 15.523
53 PO2 81 15.035
53 PO2 82 15.035
53 PO2 83 15.523
53 PO2 84 16.500
53 PO2 85 17.476
53 PO2 86 16.988
53 PO2 87 15.523
53 PO2 88 13.570
53 PO2 89 11.617
53 PO2 90 10.152
53 PO2 91 10.152
53 PO2 92 9.664
53 PO2 93 9.664
53 PO2 94 9.176
53 PO2 95 10.152
53 PO2 96 11.129
53 PO2 97 13.570
53 PO2 98 16.012
53 PO2 99 17.476
53 PO2 100 18.941
53 PO2 101 18.453
53 PO2 102 17.965
53 PO2 103 17.965
53 PO2 104 18.453
53 PO2 105 19.918
53 PO2 106 21.871
53 PO2 107 23.824
53 PO2 108 25.289
53 PO2 109 25.777
53 PO2 110 26.265
53 PO2 111 27.242
53 PO2 112 28.707
53 PO2 113 30.172
53 PO2 114 31.148
53 PO2 115 31.637
53 PO2 116 31.148
53 PO2 117 31.637
53 PO2 118 33.101
53 PO2 119 34.566
53 PO2 120 36.031
53 PO2 121 35.543
53 PO2 122 33.590
53 PO2 123 31.637
53 PO2 124 30.172
53 PO2 125 31.148
53 PO2 126 34.078
53 PO2 127 37.008
53 PO2 128 38.472
53 PO2 129 37.496
53 PO2 130 34.566
53 PO2 131 31.637
53 PO2 132 29.683
53 PO2 133 30.172
53 PO2 134 31.637
53 PO2 135 32.613
53 PO2 136 32.613
53 PO2 137 31.148
53 PO2 138 30.660
53 PO2 139 30.172
53 PO2 140 30.660
53 PO2 141 31.637
53 PO2 142 31.148
53 PO2 143 30.172
53 PO2 144 29.683
53 PO2 145 29.683
53 PO2 146 31.148
53 PO2 147 31.637
53 PO2 148 31.637
53 PO2 149 30.172
53 PO2 150 28.219
53 PO2 151 27.242
53 PO2 152 27.242
53 PO2 153 27.730
53 PO2 154 26.754
53 PO2 155 25.289
53 PO2 156 23.336
53 PO2 157 21.871
53 PO2 158 20.894
53 PO2 159 19.918
53 PO2 160 17.965
53 PO2 161 14.058
53 PO2 162 10.152
53 PO2 163 7.711
53 PO2 164 7.222
53 PO2 165 8.687
53 PO2 166 10.640
53 PO2 167 11.617
53 PO2 168 11.617
53 PO2 169 10.640
53 PO2 170 9.176
53 PO2 171 9.176
53 PO2 172 9.664
53 PO2 173 10.640
53 PO2 174 10.640
53 PO2 175 11.129
53 PO2 176 11.129
53 PO2 177 10.152
53 PO2 178 9.176
53 PO2 179 8.199
53 PO2 180 6.246
53 PO2 181 4.781
53 PO2 182 3.805
53 PO2 183 3.805
53 PO2 184 5.758
53 PO2 185 8.199
53 PO2 186 11.129
53 PO2 187 11.129
53 PO2 188 9.176
53 PO2 189 3.805
53 PO2 190 -2.543
53 PO2 191 -7.426
53 PO2 192 -10.844
53 PO2 193 -12.309
53 PO2 194 -14.750
53 PO2 195 -18.168
53 PO2 196 -21.098
53 PO2 197 -22.563
53 PO2 198 -20.610
53 PO2 199 -14.262
53 PO2 200 -6.938
53 PO2 201 -0.590
53 PO2 202 2.340
53 PO2 203 2.828
53 PO2 204 3.316
53 PO2 205 4.781
53 PO2 206 8.199
53 PO2 207 11.129
53 PO2 208 11.129
53 PO2 209 7.711
53 PO2 210 0.387
53 PO2 211 -6.938
53 PO2 212 -14.262
53 PO2 213 -19.145
53 PO2 214 -22.074
53 PO2 215 -24.028
53 PO2 216 -25.004
53 PO2 217 -25.981
53 PO2 218 -25.492
53 PO2 219 -23.051
