# co2c0000374.rd
# 120 trials, 64 chans, 416 samples 368 post_stim samples
# 3.906000 msecs uV
# S1 obj , trial 70
# FP1 chan 0
70 FP1 0 2.126
70 FP1 1 4.079
70 FP1 2 7.497
70 FP1 3 10.915
70 FP1 4 12.868
70 FP1 5 13.357
70 FP1 6 12.380
70 FP1 7 12.380
70 FP1 8 12.868
70 FP1 9 14.333
70 FP1 10 15.310
70 FP1 11 14.821
70 FP1 12 14.333
70 FP1 13 13.845
70 FP1 14 14.333
70 FP1 15 15.310
70 FP1 16 16.286
70 FP1 17 16.286
70 FP1 18 15.310
70 FP1 19 14.333
70 FP1 20 13.357
70 FP1 21 13.357
70 FP1 22 13.357
70 FP1 23 13.845
70 FP1 24 13.845
70 FP1 25 14.333
70 FP1 26 15.310
70 FP1 27 17.751
70 FP1 28 21.169
70 FP1 29 24.099
70 FP1 30 27.028
70 FP1 31 29.470
70 FP1 32 30.935
70 FP1 33 31.911
70 FP1 34 32.399
70 FP1 35 31.911
70 FP1 36 31.911
70 FP1 37 31.911
70 FP1 38 31.423
70 FP1 39 30.446
70 FP1 40 28.982
70 FP1 41 26.540
70 FP1 42 24.099
70 FP1 43 22.634
70 FP1 44 22.146
70 FP1 45 20.681
70 FP1 46 18.239
70 FP1 47 15.310
70 FP1 48 13.845
70 FP1 49 15.310
70 FP1 50 18.239
70 FP1 51 22.634
70 FP1 52 24.587
70 FP1 53 24.587
70 FP1 54 23.610
70 FP1 55 24.099
70 FP1 56 26.540
70 FP1 57 29.958
70 FP1 58 31.911
70 FP1 59 30.935
70 FP1 60 28.982
70 FP1 61 27.517
70 FP1 62 27.517
70 FP1 63 28.005
70 FP1 64 28.493
70 FP1 65 28.005
70 FP1 66 26.052
70 FP1 67 25.075
70 FP1 68 24.587
70 FP1 69 22.634
70 FP1 70 19.216
70 FP1 71 13.357
70 FP1 72 8.474
70 FP1 73 5.544
70 FP1 74 5.544
70 FP1 75 7.009
70 FP1 76 7.985
70 FP1 77 7.985
70 FP1 78 7.009
70 FP1 79 7.497
70 FP1 80 7.985
70 FP1 81 8.962
70 FP1 82 7.985
70 FP1 83 6.521
70 FP1 84 4.567
70 FP1 85 3.591
70 FP1 86 4.079
70 FP1 87 4.079
70 FP1 88 3.591
70 FP1 89 1.638
70 FP1 90 -0.315
70 FP1 91 -1.780
70 FP1 92 -2.268
70 FP1 93 -2.268
70 FP1 94 -2.268
70 FP1 95 -0.315
70 FP1 96 3.591
70 FP1 97 8.962
70 FP1 98 12.868
70 FP1 99 12.868
70 FP1 100 8.962
70 FP1 101 3.103
70 FP1 102 -1.292
70 FP1 103 -1.780
70 FP1 104 1.149
70 FP1 105 5.056
70 FP1 106 5.544
70 FP1 107 3.103
70 FP1 108 -1.292
70 FP1 109 -4.222
70 FP1 110 -4.222
70 FP1 111 -0.804
70 FP1 112 2.126
70 FP1 113 3.103
70 FP1 114 3.103
70 FP1 115 2.126
70 FP1 116 2.614
70 FP1 117 4.079
70 FP1 118 5.544
70 FP1 119 6.521
70 FP1 120 7.009
70 FP1 121 7.497
70 FP1 122 8.962
70 FP1 123 11.892
70 FP1 124 13.357
70 FP1 125 13.845
70 FP1 126 12.380
70 FP1 127 10.427
70 FP1 128 8.962
70 FP1 129 6.521
70 FP1 130 3.103
70 FP1 131 -0.804
70 FP1 132 -6.175
70 FP1 133 -9.593
70 FP1 134 -11.058
70 FP1 135 -10.569
70 FP1 136 -10.081
70 FP1 137 -10.081
70 FP1 138 -10.569
70 FP1 139 -10.081
70 FP1 140 -7.640
70 FP1 141 -4.222
70 FP1 142 -0.804
70 FP1 143 1.149
70 FP1 144 1.149
70 FP1 145 0.661
70 FP1 146 0.661
70 FP1 147 2.614
70 FP1 148 5.544
70 FP1 149 8.962
70 FP1 150 10.427
70 FP1 151 9.939
70 FP1 152 7.497
70 FP1 153 3.103
70 FP1 154 -0.804
70 FP1 155 -3.733
70 FP1 156 -5.686
70 FP1 157 -7.151
70 FP1 158 -8.616
70 FP1 159 -11.058
70 FP1 160 -13.011
70 FP1 161 -13.499
70 FP1 162 -12.522
70 FP1 163 -10.569
70 FP1 164 -9.593
70 FP1 165 -9.593
70 FP1 166 -11.546
70 FP1 167 -14.476
70 FP1 168 -16.917
70 FP1 169 -17.893
70 FP1 170 -16.917
70 FP1 171 -15.452
70 FP1 172 -13.011
70 FP1 173 -10.569
70 FP1 174 -8.616
70 FP1 175 -7.640
70 FP1 176 -7.640
70 FP1 177 -8.128
70 FP1 178 -9.104
70 FP1 179 -9.593
70 FP1 180 -10.081
70 FP1 181 -10.569
70 FP1 182 -11.546
70 FP1 183 -13.011
70 FP1 184 -13.987
70 FP1 185 -13.987
70 FP1 186 -13.987
70 FP1 187 -13.011
70 FP1 188 -13.011
70 FP1 189 -14.964
70 FP1 190 -17.893
70 FP1 191 -20.823
70 FP1 192 -21.311
70 FP1 193 -19.847
70 FP1 194 -17.405
70 FP1 195 -16.429
70 FP1 196 -16.917
70 FP1 197 -18.382
70 FP1 198 -19.358
70 FP1 199 -19.358
70 FP1 200 -18.870
70 FP1 201 -18.382
70 FP1 202 -17.893
70 FP1 203 -17.893
70 FP1 204 -15.940
70 FP1 205 -13.987
70 FP1 206 -12.522
70 FP1 207 -13.011
70 FP1 208 -14.964
70 FP1 209 -17.893
70 FP1 210 -18.870
70 FP1 211 -18.382
70 FP1 212 -16.917
70 FP1 213 -15.940
70 FP1 214 -16.917
70 FP1 215 -19.847
70 FP1 216 -21.800
70 FP1 217 -21.800
70 FP1 218 -21.311
70 FP1 219 -19.358
70 FP1 220 -18.382
70 FP1 221 -18.382
70 FP1 222 -17.893
70 FP1 223 -16.917
70 FP1 224 -14.476
70 FP1 225 -11.546
70 FP1 226 -8.616
70 FP1 227 -6.663
70 FP1 228 -6.663
70 FP1 229 -7.640
70 FP1 230 -9.593
70 FP1 231 -12.034
70 FP1 232 -13.987
70 FP1 233 -14.964
70 FP1 234 -13.499
70 FP1 235 -11.058
70 FP1 236 -6.663
70 FP1 237 -3.245
70 FP1 238 -1.292
70 FP1 239 -1.780
70 FP1 240 -3.733
70 FP1 241 -5.686
70 FP1 242 -6.175
70 FP1 243 -5.686
70 FP1 244 -4.710
70 FP1 245 -4.222
70 FP1 246 -3.733
70 FP1 247 -4.710
70 FP1 248 -5.686
70 FP1 249 -6.663
70 FP1 250 -7.151
70 FP1 251 -8.616
70 FP1 252 -10.081
70 FP1 253 -13.011
70 FP1 254 -14.964
70 FP1 255 -16.429
# FP2 chan 1
70 FP2 0 6.124
70 FP2 1 7.100
70 FP2 2 8.077
70 FP2 3 8.565
70 FP2 4 9.054
70 FP2 5 9.542
70 FP2 6 10.030
70 FP2 7 11.983
70 FP2 8 14.425
70 FP2 9 15.889
70 FP2 10 15.401
70 FP2 11 12.472
70 FP2 12 10.030
70 FP2 13 8.565
70 FP2 14 10.518
70 FP2 15 14.425
70 FP2 16 17.843
70 FP2 17 18.331
70 FP2 18 15.889
70 FP2 19 12.960
70 FP2 20 11.007
70 FP2 21 12.472
70 FP2 22 15.401
70 FP2 23 17.354
70 FP2 24 17.354
70 FP2 25 13.936
70 FP2 26 10.518
70 FP2 27 10.030
70 FP2 28 13.448
70 FP2 29 19.796
70 FP2 30 26.632
70 FP2 31 29.561
70 FP2 32 29.073
70 FP2 33 25.167
70 FP2 34 22.725
70 FP2 35 22.725
70 FP2 36 24.679
70 FP2 37 26.632
70 FP2 38 27.120
70 FP2 39 25.655
70 FP2 40 23.214
70 FP2 41 21.749
70 FP2 42 21.749
70 FP2 43 22.237
70 FP2 44 20.772
70 FP2 45 16.866
70 FP2 46 11.495
70 FP2 47 6.612
70 FP2 48 4.659
70 FP2 49 7.589
70 FP2 50 12.960
70 FP2 51 20.284
70 FP2 52 26.143
70 FP2 53 29.073
70 FP2 54 28.097
70 FP2 55 24.679
70 FP2 56 21.261
70 FP2 57 20.284
70 FP2 58 22.237
70 FP2 59 26.143
70 FP2 60 29.073
70 FP2 61 29.073
70 FP2 62 26.143
70 FP2 63 21.749
70 FP2 64 20.284
70 FP2 65 20.284
70 FP2 66 21.749
70 FP2 67 21.749
70 FP2 68 19.307
70 FP2 69 15.401
70 FP2 70 12.472
70 FP2 71 10.030
70 FP2 72 8.077
70 FP2 73 5.636
70 FP2 74 3.682
70 FP2 75 2.706
70 FP2 76 3.682
70 FP2 77 6.124
70 FP2 78 7.589
70 FP2 79 7.100
70 FP2 80 5.636
70 FP2 81 3.682
70 FP2 82 2.218
70 FP2 83 1.729
70 FP2 84 0.753
70 FP2 85 -0.224
70 FP2 86 -0.712
70 FP2 87 0.753
70 FP2 88 2.218
70 FP2 89 1.729
70 FP2 90 -1.200
70 FP2 91 -5.595
70 FP2 92 -9.013
70 FP2 93 -8.036
70 FP2 94 -4.618
70 FP2 95 0.753
70 FP2 96 4.171
70 FP2 97 6.124
70 FP2 98 6.612
70 FP2 99 6.124
70 FP2 100 5.636
70 FP2 101 3.682
70 FP2 102 0.753
70 FP2 103 -1.200
70 FP2 104 -1.689
70 FP2 105 -0.712
70 FP2 106 0.264
70 FP2 107 -1.200
70 FP2 108 -3.642
70 FP2 109 -6.083
70 FP2 110 -6.083
70 FP2 111 -3.642
70 FP2 112 -0.224
70 FP2 113 0.753
70 FP2 114 -0.224
70 FP2 115 -1.200
70 FP2 116 -0.712
70 FP2 117 1.729
70 FP2 118 4.659
70 FP2 119 5.636
70 FP2 120 6.124
70 FP2 121 7.100
70 FP2 122 9.542
70 FP2 123 12.472
70 FP2 124 13.936
70 FP2 125 11.007
70 FP2 126 6.124
70 FP2 127 2.218
70 FP2 128 1.241
70 FP2 129 2.218
70 FP2 130 2.706
70 FP2 131 -0.712
70 FP2 132 -6.083
70 FP2 133 -10.966
70 FP2 134 -12.431
70 FP2 135 -11.454
70 FP2 136 -10.478
70 FP2 137 -11.454
70 FP2 138 -13.896
70 FP2 139 -14.872
70 FP2 140 -11.943
70 FP2 141 -6.571
70 FP2 142 -1.200
70 FP2 143 1.241
70 FP2 144 0.753
70 FP2 145 -0.224
70 FP2 146 -0.224
70 FP2 147 0.753
70 FP2 148 1.241
70 FP2 149 0.753
70 FP2 150 -0.224
70 FP2 151 -0.224
70 FP2 152 0.264
70 FP2 153 0.753
70 FP2 154 -0.224
70 FP2 155 -3.153
70 FP2 156 -6.083
70 FP2 157 -8.036
70 FP2 158 -9.989
70 FP2 159 -11.454
70 FP2 160 -14.384
70 FP2 161 -17.802
70 FP2 162 -21.220
70 FP2 163 -22.196
70 FP2 164 -21.220
70 FP2 165 -19.755
70 FP2 166 -18.778
70 FP2 167 -18.778
70 FP2 168 -18.290
70 FP2 169 -18.290
70 FP2 170 -18.778
70 FP2 171 -18.778
70 FP2 172 -20.243
70 FP2 173 -20.243
70 FP2 174 -18.290
70 FP2 175 -15.361
70 FP2 176 -11.943
70 FP2 177 -10.478
70 FP2 178 -10.478
70 FP2 179 -11.454
70 FP2 180 -11.454
70 FP2 181 -11.943
70 FP2 182 -13.407
70 FP2 183 -17.314
70 FP2 184 -22.196
70 FP2 185 -25.126
70 FP2 186 -24.638
70 FP2 187 -21.220
70 FP2 188 -18.778
70 FP2 189 -18.778
70 FP2 190 -22.196
70 FP2 191 -26.591
70 FP2 192 -28.056
70 FP2 193 -26.103
70 FP2 194 -23.173
70 FP2 195 -23.173
70 FP2 196 -27.568
70 FP2 197 -33.915
70 FP2 198 -39.286
70 FP2 199 -39.775
70 FP2 200 -36.357
70 FP2 201 -30.497
70 FP2 202 -24.638
70 FP2 203 -21.220
70 FP2 204 -19.755
70 FP2 205 -19.267
70 FP2 206 -20.243
70 FP2 207 -22.685
70 FP2 208 -26.103
70 FP2 209 -30.009
70 FP2 210 -32.450
70 FP2 211 -32.939
70 FP2 212 -31.962
70 FP2 213 -30.986
70 FP2 214 -30.986
70 FP2 215 -31.474
70 FP2 216 -30.986
70 FP2 217 -28.544
70 FP2 218 -24.638
70 FP2 219 -22.196
70 FP2 220 -22.196
70 FP2 221 -24.638
70 FP2 222 -28.056
70 FP2 223 -29.521
70 FP2 224 -27.568
70 FP2 225 -23.173
70 FP2 226 -17.802
70 FP2 227 -14.384
70 FP2 228 -14.384
70 FP2 229 -16.337
70 FP2 230 -18.778
70 FP2 231 -19.755
70 FP2 232 -20.243
70 FP2 233 -20.243
70 FP2 234 -21.220
70 FP2 235 -21.708
70 FP2 236 -20.732
70 FP2 237 -17.314
70 FP2 238 -12.431
70 FP2 239 -10.478
70 FP2 240 -11.943
70 FP2 241 -16.825
70 FP2 242 -20.243
70 FP2 243 -19.755
70 FP2 244 -15.849
70 FP2 245 -11.943
70 FP2 246 -11.454
70 FP2 247 -15.849
70 FP2 248 -21.708
70 FP2 249 -26.103
70 FP2 250 -26.103
70 FP2 251 -24.150
70 FP2 252 -23.661
70 FP2 253 -26.591
70 FP2 254 -30.497
70 FP2 255 -31.474
# F7 chan 2
70 F7 0 9.277
70 F7 1 9.766
70 F7 2 10.254
70 F7 3 11.230
70 F7 4 12.695
70 F7 5 14.648
70 F7 6 15.625
70 F7 7 16.113
70 F7 8 15.137
70 F7 9 13.672
70 F7 10 12.207
70 F7 11 11.230
70 F7 12 12.207
70 F7 13 14.160
70 F7 14 16.602
70 F7 15 16.602
70 F7 16 14.648
70 F7 17 10.742
70 F7 18 6.348
70 F7 19 3.418
70 F7 20 2.930
70 F7 21 4.395
70 F7 22 6.836
70 F7 23 9.277
70 F7 24 11.719
70 F7 25 14.160
70 F7 26 15.625
70 F7 27 16.602
70 F7 28 17.090
70 F7 29 18.555
70 F7 30 22.461
70 F7 31 27.344
70 F7 32 31.738
70 F7 33 33.691
70 F7 34 31.250
70 F7 35 26.367
70 F7 36 21.973
70 F7 37 20.508
70 F7 38 21.973
70 F7 39 24.902
70 F7 40 26.855
70 F7 41 26.367
70 F7 42 25.391
70 F7 43 24.414
70 F7 44 24.414
70 F7 45 23.438
70 F7 46 20.996
70 F7 47 16.602
70 F7 48 13.184
70 F7 49 12.695
70 F7 50 16.113
70 F7 51 21.973
70 F7 52 26.367
70 F7 53 27.832
70 F7 54 27.344
70 F7 55 25.879
70 F7 56 26.367
70 F7 57 29.297
70 F7 58 32.227
70 F7 59 34.180
70 F7 60 33.691
70 F7 61 31.250
70 F7 62 28.320
70 F7 63 26.367
70 F7 64 25.391
70 F7 65 23.926
70 F7 66 22.949
70 F7 67 22.461
70 F7 68 23.438
70 F7 69 24.414
70 F7 70 23.926
70 F7 71 20.508
70 F7 72 14.648
70 F7 73 8.301
70 F7 74 6.348
70 F7 75 9.766
70 F7 76 15.625
70 F7 77 19.531
70 F7 78 19.531
70 F7 79 14.648
70 F7 80 9.277
70 F7 81 5.859
70 F7 82 5.859
70 F7 83 8.301
70 F7 84 10.254
70 F7 85 10.742
70 F7 86 11.719
70 F7 87 13.184
70 F7 88 16.113
70 F7 89 17.578
70 F7 90 16.113
70 F7 91 11.230
70 F7 92 4.883
70 F7 93 1.953
70 F7 94 3.906
70 F7 95 11.719
70 F7 96 20.508
70 F7 97 28.320
70 F7 98 30.762
70 F7 99 27.344
70 F7 100 21.484
70 F7 101 17.578
70 F7 102 16.602
70 F7 103 18.555
70 F7 104 20.508
70 F7 105 20.020
70 F7 106 16.602
70 F7 107 13.672
70 F7 108 13.184
70 F7 109 16.602
70 F7 110 21.973
70 F7 111 25.391
70 F7 112 24.414
70 F7 113 20.996
70 F7 114 17.090
70 F7 115 15.625
70 F7 116 17.578
70 F7 117 20.508
70 F7 118 21.973
70 F7 119 20.996
70 F7 120 18.555
70 F7 121 18.066
70 F7 122 19.531
70 F7 123 24.902
70 F7 124 29.785
70 F7 125 32.227
70 F7 126 31.738
70 F7 127 28.809
70 F7 128 25.391
70 F7 129 21.484
70 F7 130 18.066
70 F7 131 14.160
70 F7 132 11.230
70 F7 133 10.254
70 F7 134 11.230
70 F7 135 14.160
70 F7 136 14.648
70 F7 137 12.695
70 F7 138 8.301
70 F7 139 4.883
70 F7 140 5.859
70 F7 141 11.230
70 F7 142 18.066
70 F7 143 23.438
70 F7 144 25.391
70 F7 145 24.414
70 F7 146 22.461
70 F7 147 22.461
70 F7 148 24.414
70 F7 149 25.391
70 F7 150 24.414
70 F7 151 21.484
70 F7 152 18.066
70 F7 153 16.602
70 F7 154 18.066
70 F7 155 20.020
70 F7 156 20.508
70 F7 157 17.578
70 F7 158 12.207
70 F7 159 8.301
70 F7 160 6.836
70 F7 161 6.836
70 F7 162 7.812
70 F7 163 8.301
70 F7 164 8.301
70 F7 165 8.301
70 F7 166 8.301
70 F7 167 7.324
70 F7 168 5.371
70 F7 169 2.930
70 F7 170 2.441
70 F7 171 3.418
70 F7 172 6.836
70 F7 173 9.766
70 F7 174 10.254
70 F7 175 7.324
70 F7 176 3.906
70 F7 177 0.977
70 F7 178 0.977
70 F7 179 3.418
70 F7 180 7.324
70 F7 181 10.742
70 F7 182 12.695
70 F7 183 11.230
70 F7 184 8.301
70 F7 185 4.395
70 F7 186 1.465
70 F7 187 0.000
70 F7 188 -0.488
70 F7 189 -1.953
70 F7 190 -3.906
70 F7 191 -6.836
70 F7 192 -8.301
70 F7 193 -7.324
70 F7 194 -3.906
70 F7 195 0.000
70 F7 196 2.441
70 F7 197 3.418
70 F7 198 3.418
70 F7 199 4.395
70 F7 200 5.859
70 F7 201 7.324
70 F7 202 7.812
70 F7 203 5.859
70 F7 204 3.418
70 F7 205 1.953
70 F7 206 2.930
70 F7 207 5.859
70 F7 208 8.301
70 F7 209 9.766
70 F7 210 8.789
70 F7 211 7.324
70 F7 212 5.859
70 F7 213 5.859
70 F7 214 5.859
70 F7 215 4.395
70 F7 216 1.465
70 F7 217 -1.953
70 F7 218 -5.859
70 F7 219 -7.812
70 F7 220 -7.812
70 F7 221 -5.859
70 F7 222 -3.418
70 F7 223 0.000
70 F7 224 4.395
70 F7 225 8.789
70 F7 226 13.184
70 F7 227 16.113
70 F7 228 17.090
70 F7 229 16.602
70 F7 230 14.160
70 F7 231 10.742
70 F7 232 8.301
70 F7 233 8.789
70 F7 234 12.207
70 F7 235 17.578
70 F7 236 22.461
70 F7 237 24.414
70 F7 238 22.461
70 F7 239 17.578
70 F7 240 12.695
70 F7 241 9.766
70 F7 242 9.766
70 F7 243 12.695
70 F7 244 15.625
70 F7 245 17.578
70 F7 246 17.578
70 F7 247 15.137
70 F7 248 10.742
70 F7 249 6.836
70 F7 250 4.883
70 F7 251 4.883
70 F7 252 7.324
70 F7 253 10.742
70 F7 254 13.672
70 F7 255 16.113
# F8 chan 3
70 F8 0 8.708
70 F8 1 14.567
70 F8 2 21.403
70 F8 3 24.333
70 F8 4 22.868
70 F8 5 18.473
70 F8 6 15.055
70 F8 7 15.055
70 F8 8 17.008
70 F8 9 19.938
70 F8 10 21.403
70 F8 11 19.938
70 F8 12 17.497
70 F8 13 15.544
70 F8 14 14.567
70 F8 15 15.055
70 F8 16 15.544
70 F8 17 16.032
70 F8 18 17.008
70 F8 19 18.473
70 F8 20 19.938
70 F8 21 21.403
70 F8 22 20.915
70 F8 23 17.985
70 F8 24 14.567
70 F8 25 12.614
70 F8 26 13.102
70 F8 27 16.032
70 F8 28 19.450
70 F8 29 22.868
70 F8 30 24.821
70 F8 31 26.286
70 F8 32 26.774
70 F8 33 26.286
70 F8 34 24.821
70 F8 35 24.333
70 F8 36 24.333
70 F8 37 26.286
70 F8 38 29.215
70 F8 39 31.657
70 F8 40 32.145
70 F8 41 31.169
70 F8 42 28.727
70 F8 43 25.309
70 F8 44 22.380
70 F8 45 18.473
70 F8 46 14.079
70 F8 47 9.684
70 F8 48 8.219
70 F8 49 10.173
70 F8 50 17.008
70 F8 51 25.309
70 F8 52 31.657
70 F8 53 33.610
70 F8 54 30.680
70 F8 55 25.798
70 F8 56 22.868
70 F8 57 23.356
70 F8 58 26.774
70 F8 59 29.215
70 F8 60 27.262
70 F8 61 22.868
70 F8 62 18.962
70 F8 63 17.985
70 F8 64 20.915
70 F8 65 24.333
70 F8 66 25.309
70 F8 67 22.380
70 F8 68 17.497
70 F8 69 13.590
70 F8 70 12.126
70 F8 71 12.126
70 F8 72 11.149
70 F8 73 8.708
70 F8 74 5.778
70 F8 75 5.290
70 F8 76 7.243
70 F8 77 10.173
70 F8 78 11.637
70 F8 79 9.196
70 F8 80 6.266
70 F8 81 5.290
70 F8 82 7.731
70 F8 83 11.637
70 F8 84 14.079
70 F8 85 13.102
70 F8 86 9.684
70 F8 87 7.243
70 F8 88 7.243
70 F8 89 9.196
70 F8 90 12.126
70 F8 91 14.567
70 F8 92 15.055
70 F8 93 16.032
70 F8 94 17.008
70 F8 95 18.473
70 F8 96 19.450
70 F8 97 19.938
70 F8 98 18.473
70 F8 99 16.520
70 F8 100 15.055
70 F8 101 15.055
70 F8 102 16.520
70 F8 103 18.962
70 F8 104 19.938
70 F8 105 18.473
70 F8 106 15.055
70 F8 107 10.173
70 F8 108 6.755
70 F8 109 5.778
70 F8 110 7.243
70 F8 111 11.149
70 F8 112 15.055
70 F8 113 18.962
70 F8 114 20.915
70 F8 115 20.915
70 F8 116 17.985
70 F8 117 14.567
70 F8 118 10.661
70 F8 119 9.684
70 F8 120 12.126
70 F8 121 17.008
70 F8 122 22.380
70 F8 123 25.798
70 F8 124 26.286
70 F8 125 23.844
70 F8 126 21.403
70 F8 127 20.915
70 F8 128 20.915
70 F8 129 20.426
70 F8 130 17.497
70 F8 131 12.614
70 F8 132 7.731
70 F8 133 4.801
70 F8 134 5.778
70 F8 135 8.219
70 F8 136 11.149
70 F8 137 13.102
70 F8 138 14.079
70 F8 139 14.567
70 F8 140 16.032
70 F8 141 17.497
70 F8 142 18.962
70 F8 143 19.450
70 F8 144 19.938
70 F8 145 19.450
70 F8 146 18.473
70 F8 147 17.497
70 F8 148 17.497
70 F8 149 17.985
70 F8 150 19.450
70 F8 151 20.426
70 F8 152 18.962
70 F8 153 16.032
70 F8 154 13.102
70 F8 155 10.661
70 F8 156 10.173
70 F8 157 9.196
70 F8 158 6.755
70 F8 159 3.825
70 F8 160 2.360
70 F8 161 4.313
70 F8 162 9.196
70 F8 163 13.102
70 F8 164 12.614
70 F8 165 7.243
70 F8 166 -0.081
70 F8 167 -5.452
70 F8 168 -6.429
70 F8 169 -4.964
70 F8 170 -3.988
70 F8 171 -4.964
70 F8 172 -5.452
70 F8 173 -3.499
70 F8 174 2.360
70 F8 175 8.219
70 F8 176 10.661
70 F8 177 9.196
70 F8 178 5.778
70 F8 179 4.313
70 F8 180 6.266
70 F8 181 8.219
70 F8 182 8.219
70 F8 183 4.801
70 F8 184 1.872
70 F8 185 1.872
70 F8 186 5.290
70 F8 187 9.196
70 F8 188 10.173
70 F8 189 5.778
70 F8 190 -0.570
70 F8 191 -5.941
70 F8 192 -7.406
70 F8 193 -6.917
70 F8 194 -6.917
70 F8 195 -8.382
70 F8 196 -10.335
70 F8 197 -10.824
70 F8 198 -7.894
70 F8 199 -3.988
70 F8 200 -2.523
70 F8 201 -3.988
70 F8 202 -6.917
70 F8 203 -8.870
70 F8 204 -7.406
70 F8 205 -3.988
70 F8 206 0.895
70 F8 207 5.290
70 F8 208 9.196
70 F8 209 11.637
70 F8 210 12.614
70 F8 211 10.661
70 F8 212 6.266
70 F8 213 0.407
70 F8 214 -3.988
70 F8 215 -4.964
70 F8 216 -3.011
70 F8 217 0.407
70 F8 218 2.360
70 F8 219 3.337
70 F8 220 3.337
70 F8 221 3.337
70 F8 222 3.825
70 F8 223 3.825
70 F8 224 2.848
70 F8 225 2.360
70 F8 226 3.337
70 F8 227 6.755
70 F8 228 11.149
70 F8 229 14.567
70 F8 230 14.567
70 F8 231 10.173
70 F8 232 5.778
70 F8 233 4.313
70 F8 234 7.731
70 F8 235 13.102
70 F8 236 17.985
70 F8 237 18.962
70 F8 238 16.520
70 F8 239 14.079
70 F8 240 12.614
70 F8 241 12.614
70 F8 242 11.149
70 F8 243 8.219
70 F8 244 4.313
70 F8 245 1.872
70 F8 246 2.848
70 F8 247 5.290
70 F8 248 8.219
70 F8 249 9.196
70 F8 250 8.219
70 F8 251 7.243
70 F8 252 6.266
70 F8 253 6.266
70 F8 254 5.290
70 F8 255 4.801
# AF1 chan 4
70 AF1 0 -2.421
70 AF1 1 -0.468
70 AF1 2 2.462
70 AF1 3 4.903
70 AF1 4 6.368
70 AF1 5 7.345
70 AF1 6 7.345
70 AF1 7 7.345
70 AF1 8 7.833
70 AF1 9 9.298
70 AF1 10 10.763
70 AF1 11 12.716
70 AF1 12 13.204
70 AF1 13 13.692
70 AF1 14 12.716
70 AF1 15 12.227
70 AF1 16 11.251
70 AF1 17 11.251
70 AF1 18 10.763
70 AF1 19 9.786
70 AF1 20 8.321
70 AF1 21 6.368
70 AF1 22 4.903
70 AF1 23 4.415
70 AF1 24 4.415
70 AF1 25 5.391
70 AF1 26 6.368
70 AF1 27 7.833
70 AF1 28 9.298
70 AF1 29 11.251
70 AF1 30 12.716
70 AF1 31 14.181
70 AF1 32 15.645
70 AF1 33 16.622
70 AF1 34 17.598
70 AF1 35 18.575
70 AF1 36 20.040
70 AF1 37 21.016
70 AF1 38 21.016
70 AF1 39 19.552
70 AF1 40 18.087
70 AF1 41 15.645
70 AF1 42 13.692
70 AF1 43 11.739
70 AF1 44 9.786
70 AF1 45 6.856
70 AF1 46 4.415
70 AF1 47 2.950
70 AF1 48 2.950
70 AF1 49 4.415
70 AF1 50 6.856
70 AF1 51 9.298
70 AF1 52 10.763
70 AF1 53 11.739
70 AF1 54 12.716
70 AF1 55 13.692
70 AF1 56 15.157
70 AF1 57 16.134
70 AF1 58 16.622
70 AF1 59 17.110
70 AF1 60 17.110
70 AF1 61 18.575
70 AF1 62 19.552
70 AF1 63 20.040
70 AF1 64 19.552
70 AF1 65 18.087
70 AF1 66 16.622
70 AF1 67 15.645
70 AF1 68 15.645
70 AF1 69 14.181
70 AF1 70 11.739
70 AF1 71 7.833
70 AF1 72 3.927
70 AF1 73 0.997
70 AF1 74 0.509
70 AF1 75 1.485
70 AF1 76 2.950
70 AF1 77 3.438
70 AF1 78 2.950
70 AF1 79 1.485
70 AF1 80 0.020
70 AF1 81 -0.956
70 AF1 82 -1.444
70 AF1 83 -0.956
70 AF1 84 0.020
70 AF1 85 0.997
70 AF1 86 1.973
70 AF1 87 2.462
70 AF1 88 1.485
70 AF1 89 0.509
70 AF1 90 -0.468
70 AF1 91 -1.444
70 AF1 92 -2.421
70 AF1 93 -1.933
70 AF1 94 -1.444
70 AF1 95 1.485
70 AF1 96 4.903
70 AF1 97 8.321
70 AF1 98 10.763
70 AF1 99 10.763
70 AF1 100 8.321
70 AF1 101 5.880
70 AF1 102 3.927
70 AF1 103 3.927
70 AF1 104 4.903
70 AF1 105 6.368
70 AF1 106 4.903
70 AF1 107 3.438
70 AF1 108 1.485
70 AF1 109 0.509
70 AF1 110 0.509
70 AF1 111 1.973
70 AF1 112 3.927
70 AF1 113 5.880
70 AF1 114 6.856
70 AF1 115 7.345
70 AF1 116 7.833
70 AF1 117 8.321
70 AF1 118 9.298
70 AF1 119 9.786
70 AF1 120 10.763
70 AF1 121 11.739
70 AF1 122 13.204
70 AF1 123 14.181
70 AF1 124 14.181
70 AF1 125 13.692
70 AF1 126 13.204
70 AF1 127 11.739
70 AF1 128 10.274
70 AF1 129 8.321
70 AF1 130 5.391
70 AF1 131 2.462
70 AF1 132 -0.468
70 AF1 133 -2.909
70 AF1 134 -3.886
70 AF1 135 -4.374
70 AF1 136 -4.374
70 AF1 137 -5.351
70 AF1 138 -6.327
70 AF1 139 -6.327
70 AF1 140 -5.839
70 AF1 141 -3.398
70 AF1 142 -0.468
70 AF1 143 2.462
70 AF1 144 4.903
70 AF1 145 5.880
70 AF1 146 6.856
70 AF1 147 8.809
70 AF1 148 10.763
70 AF1 149 13.204
70 AF1 150 13.692
70 AF1 151 12.716
70 AF1 152 9.786
70 AF1 153 6.856
70 AF1 154 6.368
70 AF1 155 2.950
70 AF1 156 1.973
70 AF1 157 0.997
70 AF1 158 -0.956
70 AF1 159 -2.909
70 AF1 160 -4.374
70 AF1 161 -5.351
70 AF1 162 -5.351
70 AF1 163 -4.862
70 AF1 164 -3.886
70 AF1 165 -3.398
70 AF1 166 -3.886
70 AF1 167 -3.886
70 AF1 168 -4.862
70 AF1 169 -4.862
70 AF1 170 -4.374
70 AF1 171 -2.909
70 AF1 172 -0.956
70 AF1 173 0.997
70 AF1 174 1.973
70 AF1 175 1.973
70 AF1 176 0.509
70 AF1 177 -0.956
70 AF1 178 -1.933
70 AF1 179 -2.421
70 AF1 180 -2.421
70 AF1 181 -1.933
70 AF1 182 -2.421
70 AF1 183 -2.909
70 AF1 184 -4.374
70 AF1 185 -4.862
70 AF1 186 -5.839
70 AF1 187 -6.327
70 AF1 188 -6.816
70 AF1 189 -8.280
70 AF1 190 -9.745
70 AF1 191 -11.698
70 AF1 192 -11.698
70 AF1 193 -11.210
70 AF1 194 -10.234
70 AF1 195 -10.722
70 AF1 196 -12.187
70 AF1 197 -14.628
70 AF1 198 -16.093
70 AF1 199 -15.605
70 AF1 200 -13.652
70 AF1 201 -10.234
70 AF1 202 -6.816
70 AF1 203 -4.862
70 AF1 204 -3.886
70 AF1 205 -3.398
70 AF1 206 -3.398
70 AF1 207 -4.374
70 AF1 208 -5.839
70 AF1 209 -8.280
70 AF1 210 -9.745
70 AF1 211 -11.210
70 AF1 212 -11.210
70 AF1 213 -10.234
70 AF1 214 -9.745
70 AF1 215 -8.769
70 AF1 216 -9.257
70 AF1 217 -9.745
70 AF1 218 -9.745
70 AF1 219 -9.257
70 AF1 220 -8.769
70 AF1 221 -8.280
70 AF1 222 -8.280
70 AF1 223 -8.769
70 AF1 224 -8.769
70 AF1 225 -7.792
70 AF1 226 -5.839
70 AF1 227 -2.909
70 AF1 228 -1.444
70 AF1 229 -1.444
70 AF1 230 -3.398
70 AF1 231 -6.327
70 AF1 232 -8.280
70 AF1 233 -8.280
70 AF1 234 -7.304
70 AF1 235 -5.839
70 AF1 236 -3.398
70 AF1 237 -1.933
70 AF1 238 -0.468
70 AF1 239 0.509
70 AF1 240 1.485
70 AF1 241 1.485
70 AF1 242 1.485
70 AF1 243 0.997
70 AF1 244 0.997
70 AF1 245 0.997
70 AF1 246 0.997
70 AF1 247 0.020
70 AF1 248 -1.933
70 AF1 249 -4.374
70 AF1 250 -6.327
70 AF1 251 -8.280
70 AF1 252 -8.769
70 AF1 253 -9.257
70 AF1 254 -9.745
70 AF1 255 -10.234
# AF2 chan 5
70 AF2 0 0.010
70 AF2 1 2.452
70 AF2 2 4.893
70 AF2 3 6.846
70 AF2 4 8.311
70 AF2 5 8.799
70 AF2 6 8.799
70 AF2 7 8.799
70 AF2 8 8.799
70 AF2 9 9.776
70 AF2 10 10.752
70 AF2 11 12.705
70 AF2 12 14.170
70 AF2 13 15.147
70 AF2 14 15.147
70 AF2 15 14.659
70 AF2 16 14.170
70 AF2 17 13.682
70 AF2 18 13.682
70 AF2 19 13.194
70 AF2 20 12.217
70 AF2 21 10.264
70 AF2 22 8.799
70 AF2 23 7.334
70 AF2 24 6.846
70 AF2 25 6.846
70 AF2 26 8.311
70 AF2 27 9.288
70 AF2 28 10.264
70 AF2 29 10.752
70 AF2 30 11.241
70 AF2 31 12.217
70 AF2 32 13.194
70 AF2 33 14.659
70 AF2 34 17.100
70 AF2 35 19.541
70 AF2 36 21.983
70 AF2 37 23.448
70 AF2 38 23.936
70 AF2 39 22.959
70 AF2 40 20.518
70 AF2 41 18.077
70 AF2 42 15.635
70 AF2 43 13.194
70 AF2 44 11.241
70 AF2 45 8.799
70 AF2 46 6.846
70 AF2 47 5.381
70 AF2 48 4.893
70 AF2 49 5.381
70 AF2 50 6.846
70 AF2 51 9.288
70 AF2 52 11.729
70 AF2 53 13.194
70 AF2 54 14.170
70 AF2 55 15.635
70 AF2 56 16.123
70 AF2 57 16.612
70 AF2 58 16.612
70 AF2 59 17.100
70 AF2 60 17.588
70 AF2 61 17.588
70 AF2 62 17.588
70 AF2 63 17.100
70 AF2 64 17.588
70 AF2 65 17.100
70 AF2 66 17.100
70 AF2 67 17.100
70 AF2 68 16.612
70 AF2 69 14.659
70 AF2 70 11.729
70 AF2 71 7.823
70 AF2 72 3.916
70 AF2 73 1.475
70 AF2 74 0.987
70 AF2 75 1.963
70 AF2 76 2.940
70 AF2 77 3.428
70 AF2 78 2.940
70 AF2 79 1.475
70 AF2 80 -0.478
70 AF2 81 -1.943
70 AF2 82 -2.920
70 AF2 83 -2.920
70 AF2 84 -1.943
70 AF2 85 -1.455
70 AF2 86 0.010
70 AF2 87 0.010
70 AF2 88 -0.478
70 AF2 89 -1.943
70 AF2 90 -2.920
70 AF2 91 -3.896
70 AF2 92 -4.384
70 AF2 93 -3.896
70 AF2 94 -2.920
70 AF2 95 -0.478
70 AF2 96 2.452
70 AF2 97 5.381
70 AF2 98 7.334
70 AF2 99 7.334
70 AF2 100 6.846
70 AF2 101 5.870
70 AF2 102 4.893
70 AF2 103 5.381
70 AF2 104 5.381
70 AF2 105 4.405
70 AF2 106 1.963
70 AF2 107 -0.966
70 AF2 108 -2.920
70 AF2 109 -3.408
70 AF2 110 -2.920
70 AF2 111 -1.455
70 AF2 112 0.498
70 AF2 113 2.940
70 AF2 114 5.381
70 AF2 115 7.823
70 AF2 116 8.799
70 AF2 117 8.311
70 AF2 118 6.846
70 AF2 119 6.358
70 AF2 120 7.334
70 AF2 121 9.288
70 AF2 122 11.729
70 AF2 123 12.705
70 AF2 124 12.217
70 AF2 125 10.264
70 AF2 126 9.288
70 AF2 127 8.311
70 AF2 128 7.823
70 AF2 129 6.358
70 AF2 130 2.940
70 AF2 131 -0.966
70 AF2 132 -4.873
70 AF2 133 -6.826
70 AF2 134 -6.826
70 AF2 135 -6.826
70 AF2 136 -6.826
70 AF2 137 -7.802
70 AF2 138 -8.779
70 AF2 139 -8.779
70 AF2 140 -7.802
70 AF2 141 -5.361
70 AF2 142 -1.943
70 AF2 143 0.987
70 AF2 144 3.916
70 AF2 145 5.870
70 AF2 146 6.846
70 AF2 147 7.823
70 AF2 148 9.288
70 AF2 149 10.752
70 AF2 150 11.729
70 AF2 151 10.752
70 AF2 152 8.311
70 AF2 153 4.893
70 AF2 154 2.452
70 AF2 155 0.987
70 AF2 156 0.010
70 AF2 157 -0.478
70 AF2 158 -2.431
70 AF2 159 -4.384
70 AF2 160 -6.337
70 AF2 161 -7.802
70 AF2 162 -8.779
70 AF2 163 -8.779
70 AF2 164 -9.755
70 AF2 165 -10.244
70 AF2 166 -10.732
70 AF2 167 -10.244
70 AF2 168 -9.267
70 AF2 169 -8.291
70 AF2 170 -7.314
70 AF2 171 -6.826
70 AF2 172 -5.361
70 AF2 173 -3.408
70 AF2 174 -1.455
70 AF2 175 -0.478
70 AF2 176 -1.455
70 AF2 177 -3.408
70 AF2 178 -5.361
70 AF2 179 -6.826
70 AF2 180 -6.826
70 AF2 181 -5.849
70 AF2 182 -5.849
70 AF2 183 -6.826
70 AF2 184 -7.802
70 AF2 185 -8.291
70 AF2 186 -8.779
70 AF2 187 -8.779
70 AF2 188 -9.267
70 AF2 189 -11.220
70 AF2 190 -13.662
70 AF2 191 -16.103
70 AF2 192 -17.080
70 AF2 193 -17.080
70 AF2 194 -17.080
70 AF2 195 -17.568
70 AF2 196 -20.009
70 AF2 197 -21.962
70 AF2 198 -23.427
70 AF2 199 -23.427
70 AF2 200 -21.474
70 AF2 201 -17.568
70 AF2 202 -14.150
70 AF2 203 -11.220
70 AF2 204 -9.267
70 AF2 205 -8.291
70 AF2 206 -8.291
70 AF2 207 -9.755
70 AF2 208 -11.709
70 AF2 209 -14.150
70 AF2 210 -16.103
70 AF2 211 -17.080
70 AF2 212 -17.568
70 AF2 213 -17.080
70 AF2 214 -17.080
70 AF2 215 -17.080
70 AF2 216 -16.591
70 AF2 217 -15.615
70 AF2 218 -14.150
70 AF2 219 -12.197
70 AF2 220 -11.220
70 AF2 221 -11.220
70 AF2 222 -12.197
70 AF2 223 -13.662
70 AF2 224 -13.662
70 AF2 225 -12.685
70 AF2 226 -10.732
70 AF2 227 -8.779
70 AF2 228 -7.314
70 AF2 229 -6.337
70 AF2 230 -6.826
70 AF2 231 -8.291
70 AF2 232 -10.244
70 AF2 233 -11.709
70 AF2 234 -12.197
70 AF2 235 -11.709
70 AF2 236 -9.267
70 AF2 237 -7.314
70 AF2 238 -5.361
70 AF2 239 -3.896
70 AF2 240 -2.920
70 AF2 241 -2.920
70 AF2 242 -3.408
70 AF2 243 -3.896
70 AF2 244 -4.873
70 AF2 245 -5.849
70 AF2 246 -6.826
70 AF2 247 -7.802
70 AF2 248 -9.755
70 AF2 249 -11.709
70 AF2 250 -13.662
70 AF2 251 -14.638
70 AF2 252 -15.127
70 AF2 253 -15.127
70 AF2 254 -15.127
70 AF2 255 -15.127
# FZ chan 6
70 FZ 0 -5.300
70 FZ 1 -4.323
70 FZ 2 -1.882
70 FZ 3 0.559
70 FZ 4 2.513
70 FZ 5 3.489
70 FZ 6 3.977
70 FZ 7 3.977
70 FZ 8 3.977
70 FZ 9 4.466
70 FZ 10 5.442
70 FZ 11 6.419
70 FZ 12 7.395
70 FZ 13 7.884
70 FZ 14 8.860
70 FZ 15 8.860
70 FZ 16 9.349
70 FZ 17 8.860
70 FZ 18 7.884
70 FZ 19 5.931
70 FZ 20 3.977
70 FZ 21 1.536
70 FZ 22 0.071
70 FZ 23 -0.905
70 FZ 24 -1.394
70 FZ 25 -1.394
70 FZ 26 -0.905
70 FZ 27 -0.417
70 FZ 28 0.559
70 FZ 29 2.024
70 FZ 30 3.489
70 FZ 31 5.442
70 FZ 32 7.395
70 FZ 33 8.372
70 FZ 34 9.837
70 FZ 35 10.325
70 FZ 36 11.302
70 FZ 37 12.767
70 FZ 38 13.743
70 FZ 39 13.743
70 FZ 40 12.767
70 FZ 41 10.813
70 FZ 42 7.884
70 FZ 43 4.954
70 FZ 44 2.513
70 FZ 45 0.071
70 FZ 46 -1.394
70 FZ 47 -1.882
70 FZ 48 -2.370
70 FZ 49 -1.394
70 FZ 50 -0.417
70 FZ 51 0.559
70 FZ 52 2.024
70 FZ 53 2.024
70 FZ 54 3.001
70 FZ 55 3.489
70 FZ 56 3.977
70 FZ 57 5.442
70 FZ 58 5.931
70 FZ 59 6.419
70 FZ 60 6.419
70 FZ 61 6.907
70 FZ 62 7.395
70 FZ 63 7.884
70 FZ 64 8.372
70 FZ 65 7.884
70 FZ 66 7.884
70 FZ 67 7.395
70 FZ 68 6.907
70 FZ 69 5.931
70 FZ 70 3.489
70 FZ 71 0.071
70 FZ 72 -3.835
70 FZ 73 -6.276
70 FZ 74 -7.253
70 FZ 75 -6.765
70 FZ 76 -5.788
70 FZ 77 -5.788
70 FZ 78 -6.276
70 FZ 79 -7.253
70 FZ 80 -7.741
70 FZ 81 -8.230
70 FZ 82 -8.718
70 FZ 83 -8.230
70 FZ 84 -7.741
70 FZ 85 -6.765
70 FZ 86 -5.788
70 FZ 87 -5.300
70 FZ 88 -5.300
70 FZ 89 -6.276
70 FZ 90 -7.253
70 FZ 91 -7.741
70 FZ 92 -7.741
70 FZ 93 -6.765
70 FZ 94 -5.300
70 FZ 95 -3.347
70 FZ 96 -1.394
70 FZ 97 0.071
70 FZ 98 1.048
70 FZ 99 1.048
70 FZ 100 0.071
70 FZ 101 -0.417
70 FZ 102 -1.394
70 FZ 103 -1.394
70 FZ 104 -1.882
70 FZ 105 -2.370
70 FZ 106 -2.858
70 FZ 107 -4.323
70 FZ 108 -5.788
70 FZ 109 -6.765
70 FZ 110 -7.741
70 FZ 111 -7.253
70 FZ 112 -5.788
70 FZ 113 -3.835
70 FZ 114 -1.394
70 FZ 115 0.559
70 FZ 116 1.536
70 FZ 117 1.536
70 FZ 118 1.536
70 FZ 119 1.536
70 FZ 120 2.513
70 FZ 121 3.977
70 FZ 122 5.442
70 FZ 123 5.931
70 FZ 124 5.931
70 FZ 125 4.954
70 FZ 126 3.977
70 FZ 127 3.001
70 FZ 128 2.024
70 FZ 129 0.559
70 FZ 130 -1.394
70 FZ 131 -3.835
70 FZ 132 -6.276
70 FZ 133 -7.741
70 FZ 134 -8.718
70 FZ 135 -9.694
70 FZ 136 -10.183
70 FZ 137 -11.159
70 FZ 138 -12.136
70 FZ 139 -12.624
70 FZ 140 -12.136
70 FZ 141 -11.159
70 FZ 142 -8.718
70 FZ 143 -6.765
70 FZ 144 -4.812
70 FZ 145 -3.347
70 FZ 146 -1.882
70 FZ 147 -0.417
70 FZ 148 1.536
70 FZ 149 2.513
70 FZ 150 3.001
70 FZ 151 2.513
70 FZ 152 1.048
70 FZ 153 -1.394
70 FZ 154 -2.858
70 FZ 155 -3.835
70 FZ 156 -4.812
70 FZ 157 -5.788
70 FZ 158 -8.230
70 FZ 159 -10.183
70 FZ 160 -12.136
70 FZ 161 -13.112
70 FZ 162 -12.624
70 FZ 163 -12.136
70 FZ 164 -11.648
70 FZ 165 -10.671
70 FZ 166 -10.183
70 FZ 167 -9.206
70 FZ 168 -8.718
70 FZ 169 -7.741
70 FZ 170 -7.253
70 FZ 171 -6.276
70 FZ 172 -4.812
70 FZ 173 -3.835
70 FZ 174 -2.858
70 FZ 175 -3.347
70 FZ 176 -4.812
70 FZ 177 -6.276
70 FZ 178 -7.741
70 FZ 179 -8.230
70 FZ 180 -7.741
70 FZ 181 -6.765
70 FZ 182 -6.276
70 FZ 183 -6.765
70 FZ 184 -8.230
70 FZ 185 -9.206
70 FZ 186 -10.183
70 FZ 187 -11.159
70 FZ 188 -12.624
70 FZ 189 -14.089
70 FZ 190 -15.554
70 FZ 191 -16.530
70 FZ 192 -17.019
70 FZ 193 -17.019
70 FZ 194 -17.019
70 FZ 195 -17.995
70 FZ 196 -19.460
70 FZ 197 -20.925
70 FZ 198 -21.413
70 FZ 199 -19.948
70 FZ 200 -17.507
70 FZ 201 -14.577
70 FZ 202 -11.648
70 FZ 203 -9.206
70 FZ 204 -7.741
70 FZ 205 -6.765
70 FZ 206 -6.276
70 FZ 207 -7.741
70 FZ 208 -10.183
70 FZ 209 -12.624
70 FZ 210 -15.066
70 FZ 211 -16.042
70 FZ 212 -15.066
70 FZ 213 -13.601
70 FZ 214 -12.624
70 FZ 215 -12.624
70 FZ 216 -13.112
70 FZ 217 -14.089
70 FZ 218 -14.089
70 FZ 219 -14.089
70 FZ 220 -13.601
70 FZ 221 -13.601
70 FZ 222 -13.112
70 FZ 223 -13.112
70 FZ 224 -12.624
70 FZ 225 -12.136
70 FZ 226 -11.648
70 FZ 227 -11.159
70 FZ 228 -11.159
70 FZ 229 -11.159
70 FZ 230 -12.136
70 FZ 231 -13.112
70 FZ 232 -14.577
70 FZ 233 -15.554
70 FZ 234 -15.554
70 FZ 235 -14.577
70 FZ 236 -12.624
70 FZ 237 -10.671
70 FZ 238 -9.206
70 FZ 239 -8.718
70 FZ 240 -8.230
70 FZ 241 -8.230
70 FZ 242 -8.230
70 FZ 243 -7.741
70 FZ 244 -8.230
70 FZ 245 -8.230
70 FZ 246 -9.694
70 FZ 247 -11.648
70 FZ 248 -13.601
70 FZ 249 -16.042
70 FZ 250 -17.507
70 FZ 251 -18.483
70 FZ 252 -19.460
70 FZ 253 -19.948
70 FZ 254 -20.437
70 FZ 255 -20.437
# F4 chan 7
70 F4 0 -1.872
70 F4 1 1.546
70 F4 2 4.964
70 F4 3 6.917
70 F4 4 6.917
70 F4 5 5.941
70 F4 6 4.476
70 F4 7 4.476
70 F4 8 5.452
70 F4 9 6.917
70 F4 10 8.382
70 F4 11 9.359
70 F4 12 9.847
70 F4 13 10.824
70 F4 14 11.800
70 F4 15 12.777
70 F4 16 13.753
70 F4 17 13.753
70 F4 18 13.265
70 F4 19 11.312
70 F4 20 8.870
70 F4 21 6.917
70 F4 22 5.452
70 F4 23 4.476
70 F4 24 3.988
70 F4 25 4.476
70 F4 26 4.964
70 F4 27 5.452
70 F4 28 5.452
70 F4 29 5.452
70 F4 30 5.452
70 F4 31 6.429
70 F4 32 8.382
70 F4 33 10.824
70 F4 34 13.753
70 F4 35 17.171
70 F4 36 19.613
70 F4 37 21.077
70 F4 38 21.566
70 F4 39 20.589
70 F4 40 19.124
70 F4 41 16.683
70 F4 42 14.730
70 F4 43 12.777
70 F4 44 11.312
70 F4 45 9.359
70 F4 46 7.406
70 F4 47 5.941
70 F4 48 5.941
70 F4 49 6.917
70 F4 50 8.382
70 F4 51 10.335
70 F4 52 11.312
70 F4 53 11.800
70 F4 54 12.288
70 F4 55 12.777
70 F4 56 13.753
70 F4 57 15.218
70 F4 58 16.195
70 F4 59 15.706
70 F4 60 14.242
70 F4 61 13.265
70 F4 62 11.800
70 F4 63 11.800
70 F4 64 12.288
70 F4 65 13.265
70 F4 66 14.242
70 F4 67 14.730
70 F4 68 14.730
70 F4 69 13.753
70 F4 70 12.288
70 F4 71 9.847
70 F4 72 7.406
70 F4 73 4.964
70 F4 74 4.476
70 F4 75 4.964
70 F4 76 5.452
70 F4 77 5.452
70 F4 78 4.476
70 F4 79 3.499
70 F4 80 2.035
70 F4 81 1.058
70 F4 82 1.058
70 F4 83 2.035
70 F4 84 3.011
70 F4 85 4.964
70 F4 86 5.452
70 F4 87 5.941
70 F4 88 4.964
70 F4 89 3.011
70 F4 90 1.546
70 F4 91 1.058
70 F4 92 1.546
70 F4 93 3.988
70 F4 94 6.429
70 F4 95 8.870
70 F4 96 10.824
70 F4 97 12.288
70 F4 98 13.265
70 F4 99 13.753
70 F4 100 13.753
70 F4 101 13.753
70 F4 102 13.265
70 F4 103 11.800
70 F4 104 10.335
70 F4 105 9.359
70 F4 106 8.382
70 F4 107 6.917
70 F4 108 5.452
70 F4 109 3.988
70 F4 110 2.523
70 F4 111 2.523
70 F4 112 3.988
70 F4 113 7.406
70 F4 114 11.312
70 F4 115 14.242
70 F4 116 15.218
70 F4 117 14.242
70 F4 118 13.265
70 F4 119 12.777
70 F4 120 14.242
70 F4 121 16.683
70 F4 122 18.148
70 F4 123 18.636
70 F4 124 18.148
70 F4 125 16.683
70 F4 126 15.706
70 F4 127 15.218
70 F4 128 13.753
70 F4 129 11.800
70 F4 130 9.847
70 F4 131 7.406
70 F4 132 5.941
70 F4 133 4.964
70 F4 134 3.988
70 F4 135 2.523
70 F4 136 1.058
70 F4 137 0.570
70 F4 138 1.058
70 F4 139 2.523
70 F4 140 3.499
70 F4 141 4.476
70 F4 142 5.452
70 F4 143 6.917
70 F4 144 9.359
70 F4 145 12.288
70 F4 146 14.730
70 F4 147 15.706
70 F4 148 15.706
70 F4 149 15.218
70 F4 150 15.218
70 F4 151 15.218
70 F4 152 14.730
70 F4 153 13.265
70 F4 154 12.777
70 F4 155 11.312
70 F4 156 10.824
70 F4 157 10.335
70 F4 158 9.359
70 F4 159 7.894
70 F4 160 5.941
70 F4 161 3.988
70 F4 162 2.523
70 F4 163 1.058
70 F4 164 0.570
70 F4 165 0.570
70 F4 166 0.570
70 F4 167 1.546
70 F4 168 2.523
70 F4 169 2.523
70 F4 170 3.011
70 F4 171 3.011
70 F4 172 3.988
70 F4 173 5.452
70 F4 174 7.894
70 F4 175 8.870
70 F4 176 8.870
70 F4 177 7.406
70 F4 178 5.452
70 F4 179 3.499
70 F4 180 3.499
70 F4 181 3.988
70 F4 182 4.476
70 F4 183 4.476
70 F4 184 4.964
70 F4 185 4.964
70 F4 186 4.964
70 F4 187 4.964
70 F4 188 3.988
70 F4 189 2.035
70 F4 190 0.570
70 F4 191 -1.383
70 F4 192 -2.848
70 F4 193 -5.290
70 F4 194 -7.731
70 F4 195 -11.149
70 F4 196 -14.079
70 F4 197 -15.544
70 F4 198 -16.032
70 F4 199 -15.055
70 F4 200 -13.102
70 F4 201 -9.684
70 F4 202 -5.290
70 F4 203 -0.895
70 F4 204 3.011
70 F4 205 4.964
70 F4 206 4.964
70 F4 207 3.011
70 F4 208 0.081
70 F4 209 -2.848
70 F4 210 -4.313
70 F4 211 -4.313
70 F4 212 -3.337
70 F4 213 -2.360
70 F4 214 -1.872
70 F4 215 -1.872
70 F4 216 -1.383
70 F4 217 -0.895
70 F4 218 0.081
70 F4 219 1.058
70 F4 220 1.546
70 F4 221 1.058
70 F4 222 0.081
70 F4 223 -0.407
70 F4 224 -0.407
70 F4 225 1.058
70 F4 226 2.523
70 F4 227 3.988
70 F4 228 4.964
70 F4 229 4.964
70 F4 230 4.476
70 F4 231 3.499
70 F4 232 2.035
70 F4 233 1.058
70 F4 234 1.546
70 F4 235 3.499
70 F4 236 6.429
70 F4 237 9.847
70 F4 238 12.288
70 F4 239 13.265
70 F4 240 12.777
70 F4 241 11.800
70 F4 242 10.824
70 F4 243 9.847
70 F4 244 7.894
70 F4 245 6.429
70 F4 246 3.988
70 F4 247 2.035
70 F4 248 0.570
70 F4 249 -0.895
70 F4 250 -1.383
70 F4 251 -1.872
70 F4 252 -1.872
70 F4 253 -1.383
70 F4 254 -1.383
70 F4 255 -1.383
# F3 chan 8
70 F3 0 0.824
70 F3 1 1.801
70 F3 2 3.265
70 F3 3 5.219
70 F3 4 7.172
70 F3 5 8.636
70 F3 6 9.613
70 F3 7 9.613
70 F3 8 9.125
70 F3 9 9.125
70 F3 10 10.101
70 F3 11 12.054
70 F3 12 13.031
70 F3 13 14.008
70 F3 14 14.008
70 F3 15 12.543
70 F3 16 11.078
70 F3 17 10.590
70 F3 18 10.101
70 F3 19 9.125
70 F3 20 7.172
70 F3 21 5.219
70 F3 22 3.265
70 F3 23 2.289
70 F3 24 2.289
70 F3 25 4.242
70 F3 26 6.195
70 F3 27 7.660
70 F3 28 9.125
70 F3 29 10.101
70 F3 30 11.078
70 F3 31 12.054
70 F3 32 13.519
70 F3 33 14.496
70 F3 34 14.984
70 F3 35 15.961
70 F3 36 16.449
70 F3 37 16.937
70 F3 38 16.937
70 F3 39 16.937
70 F3 40 15.472
70 F3 41 14.008
70 F3 42 12.543
70 F3 43 11.566
70 F3 44 10.101
70 F3 45 8.636
70 F3 46 6.683
70 F3 47 5.707
70 F3 48 5.219
70 F3 49 6.195
70 F3 50 8.148
70 F3 51 10.101
70 F3 52 10.590
70 F3 53 10.590
70 F3 54 10.590
70 F3 55 12.054
70 F3 56 14.008
70 F3 57 16.449
70 F3 58 17.914
70 F3 59 17.914
70 F3 60 17.426
70 F3 61 17.426
70 F3 62 17.914
70 F3 63 18.402
70 F3 64 17.914
70 F3 65 17.426
70 F3 66 16.449
70 F3 67 15.961
70 F3 68 15.961
70 F3 69 15.472
70 F3 70 13.519
70 F3 71 10.590
70 F3 72 7.172
70 F3 73 4.242
70 F3 74 2.777
70 F3 75 3.265
70 F3 76 4.730
70 F3 77 5.707
70 F3 78 6.195
70 F3 79 5.707
70 F3 80 4.242
70 F3 81 2.777
70 F3 82 1.801
70 F3 83 1.801
70 F3 84 2.777
70 F3 85 4.730
70 F3 86 6.195
70 F3 87 6.683
70 F3 88 6.195
70 F3 89 5.219
70 F3 90 4.730
70 F3 91 4.730
70 F3 92 5.219
70 F3 93 6.195
70 F3 94 7.172
70 F3 95 8.148
70 F3 96 10.590
70 F3 97 13.031
70 F3 98 14.008
70 F3 99 13.519
70 F3 100 12.054
70 F3 101 9.613
70 F3 102 8.148
70 F3 103 7.660
70 F3 104 8.148
70 F3 105 9.125
70 F3 106 8.636
70 F3 107 7.660
70 F3 108 6.683
70 F3 109 6.195
70 F3 110 7.172
70 F3 111 8.636
70 F3 112 9.613
70 F3 113 10.590
70 F3 114 10.590
70 F3 115 10.590
70 F3 116 10.590
70 F3 117 11.078
70 F3 118 11.566
70 F3 119 11.566
70 F3 120 12.054
70 F3 121 13.031
70 F3 122 14.008
70 F3 123 14.984
70 F3 124 15.961
70 F3 125 15.961
70 F3 126 15.961
70 F3 127 14.984
70 F3 128 13.519
70 F3 129 12.054
70 F3 130 10.101
70 F3 131 6.683
70 F3 132 4.242
70 F3 133 1.801
70 F3 134 1.312
70 F3 135 1.312
70 F3 136 1.312
70 F3 137 0.336
70 F3 138 -1.617
70 F3 139 -3.082
70 F3 140 -2.594
70 F3 141 -0.641
70 F3 142 2.777
70 F3 143 5.707
70 F3 144 7.660
70 F3 145 8.148
70 F3 146 10.101
70 F3 147 12.054
70 F3 148 14.984
70 F3 149 17.426
70 F3 150 17.914
70 F3 151 16.937
70 F3 152 14.984
70 F3 153 13.031
70 F3 154 11.078
70 F3 155 9.613
70 F3 156 7.660
70 F3 157 6.195
70 F3 158 4.242
70 F3 159 2.777
70 F3 160 1.312
70 F3 161 0.824
70 F3 162 0.336
70 F3 163 0.336
70 F3 164 0.824
70 F3 165 2.289
70 F3 166 2.777
70 F3 167 3.265
70 F3 168 2.777
70 F3 169 1.801
70 F3 170 1.801
70 F3 171 3.265
70 F3 172 6.195
70 F3 173 8.636
70 F3 174 9.613
70 F3 175 8.148
70 F3 176 5.707
70 F3 177 3.265
70 F3 178 2.289
70 F3 179 1.801
70 F3 180 2.289
70 F3 181 2.289
70 F3 182 2.289
70 F3 183 2.289
70 F3 184 2.777
70 F3 185 2.777
70 F3 186 1.312
70 F3 187 -0.153
70 F3 188 -2.106
70 F3 189 -4.059
70 F3 190 -5.035
70 F3 191 -5.524
70 F3 192 -4.547
70 F3 193 -3.571
70 F3 194 -2.594
70 F3 195 -2.594
70 F3 196 -3.571
70 F3 197 -5.035
70 F3 198 -6.500
70 F3 199 -5.524
70 F3 200 -4.059
70 F3 201 -0.641
70 F3 202 2.777
70 F3 203 5.707
70 F3 204 8.148
70 F3 205 9.125
70 F3 206 9.125
70 F3 207 8.148
70 F3 208 6.195
70 F3 209 3.754
70 F3 210 1.801
70 F3 211 -0.153
70 F3 212 -0.641
70 F3 213 -0.641
70 F3 214 -0.641
70 F3 215 -1.129
70 F3 216 -2.106
70 F3 217 -3.082
70 F3 218 -4.059
70 F3 219 -4.059
70 F3 220 -4.059
70 F3 221 -3.082
70 F3 222 -3.082
70 F3 223 -2.106
70 F3 224 -1.617
70 F3 225 -0.641
70 F3 226 1.312
70 F3 227 2.777
70 F3 228 3.754
70 F3 229 3.754
70 F3 230 2.289
70 F3 231 0.336
70 F3 232 -1.129
70 F3 233 -1.617
70 F3 234 -0.641
70 F3 235 1.801
70 F3 236 3.754
70 F3 237 5.707
70 F3 238 6.195
70 F3 239 6.683
70 F3 240 6.683
70 F3 241 7.172
70 F3 242 7.172
70 F3 243 8.148
70 F3 244 8.148
70 F3 245 8.148
70 F3 246 7.660
70 F3 247 7.172
70 F3 248 6.195
70 F3 249 5.219
70 F3 250 4.242
70 F3 251 2.777
70 F3 252 1.801
70 F3 253 0.824
70 F3 254 0.336
70 F3 255 0.824
# FC6 chan 9
70 FC6 0 4.222
70 FC6 1 7.640
70 FC6 2 10.081
70 FC6 3 10.569
70 FC6 4 9.104
70 FC6 5 6.663
70 FC6 6 4.710
70 FC6 7 4.222
70 FC6 8 4.222
70 FC6 9 4.710
70 FC6 10 4.222
70 FC6 11 3.245
70 FC6 12 2.757
70 FC6 13 2.757
70 FC6 14 4.222
70 FC6 15 5.686
70 FC6 16 7.151
70 FC6 17 8.128
70 FC6 18 8.128
70 FC6 19 7.151
70 FC6 20 6.175
70 FC6 21 6.175
70 FC6 22 5.686
70 FC6 23 6.175
70 FC6 24 8.128
70 FC6 25 10.081
70 FC6 26 11.058
70 FC6 27 10.569
70 FC6 28 9.104
70 FC6 29 8.128
70 FC6 30 8.616
70 FC6 31 9.593
70 FC6 32 10.081
70 FC6 33 10.569
70 FC6 34 10.569
70 FC6 35 11.058
70 FC6 36 12.522
70 FC6 37 14.476
70 FC6 38 14.964
70 FC6 39 13.499
70 FC6 40 10.569
70 FC6 41 7.640
70 FC6 42 6.175
70 FC6 43 7.151
70 FC6 44 9.104
70 FC6 45 10.569
70 FC6 46 11.546
70 FC6 47 12.034
70 FC6 48 12.034
70 FC6 49 13.011
70 FC6 50 13.987
70 FC6 51 14.476
70 FC6 52 13.987
70 FC6 53 13.987
70 FC6 54 14.964
70 FC6 55 16.429
70 FC6 56 18.382
70 FC6 57 18.870
70 FC6 58 17.893
70 FC6 59 15.940
70 FC6 60 13.011
70 FC6 61 11.058
70 FC6 62 9.593
70 FC6 63 8.128
70 FC6 64 7.151
70 FC6 65 5.198
70 FC6 66 5.198
70 FC6 67 5.686
70 FC6 68 7.151
70 FC6 69 7.640
70 FC6 70 7.640
70 FC6 71 7.151
70 FC6 72 6.175
70 FC6 73 5.198
70 FC6 74 5.198
70 FC6 75 4.710
70 FC6 76 3.733
70 FC6 77 2.268
70 FC6 78 0.804
70 FC6 79 0.315
70 FC6 80 1.292
70 FC6 81 3.245
70 FC6 82 3.733
70 FC6 83 4.222
70 FC6 84 3.733
70 FC6 85 2.757
70 FC6 86 2.268
70 FC6 87 2.268
70 FC6 88 2.757
70 FC6 89 2.268
70 FC6 90 1.780
70 FC6 91 1.780
70 FC6 92 2.757
70 FC6 93 4.710
70 FC6 94 7.640
70 FC6 95 10.569
70 FC6 96 13.011
70 FC6 97 13.987
70 FC6 98 13.987
70 FC6 99 13.011
70 FC6 100 11.546
70 FC6 101 10.081
70 FC6 102 8.616
70 FC6 103 7.151
70 FC6 104 5.686
70 FC6 105 4.710
70 FC6 106 3.733
70 FC6 107 3.245
70 FC6 108 2.757
70 FC6 109 2.268
70 FC6 110 2.268
70 FC6 111 2.268
70 FC6 112 3.245
70 FC6 113 4.710
70 FC6 114 6.175
70 FC6 115 7.640
70 FC6 116 8.616
70 FC6 117 9.104
70 FC6 118 9.104
70 FC6 119 10.081
70 FC6 120 12.034
70 FC6 121 14.476
70 FC6 122 15.452
70 FC6 123 15.452
70 FC6 124 14.476
70 FC6 125 13.499
70 FC6 126 13.011
70 FC6 127 13.011
70 FC6 128 13.011
70 FC6 129 12.034
70 FC6 130 10.081
70 FC6 131 7.640
70 FC6 132 6.175
70 FC6 133 5.686
70 FC6 134 5.198
70 FC6 135 5.198
70 FC6 136 5.198
70 FC6 137 5.686
70 FC6 138 7.151
70 FC6 139 8.616
70 FC6 140 10.081
70 FC6 141 11.058
70 FC6 142 11.546
70 FC6 143 11.546
70 FC6 144 12.034
70 FC6 145 12.522
70 FC6 146 13.011
70 FC6 147 13.011
70 FC6 148 12.034
70 FC6 149 11.058
70 FC6 150 10.569
70 FC6 151 11.546
70 FC6 152 13.011
70 FC6 153 14.964
70 FC6 154 15.452
70 FC6 155 15.452
70 FC6 156 14.476
70 FC6 157 13.011
70 FC6 158 12.034
70 FC6 159 11.058
70 FC6 160 10.081
70 FC6 161 9.593
70 FC6 162 8.616
70 FC6 163 7.640
70 FC6 164 6.663
70 FC6 165 6.175
70 FC6 166 5.686
70 FC6 167 5.198
70 FC6 168 4.222
70 FC6 169 2.268
70 FC6 170 0.315
70 FC6 171 -0.661
70 FC6 172 -0.173
70 FC6 173 2.268
70 FC6 174 6.175
70 FC6 175 10.081
70 FC6 176 12.522
70 FC6 177 13.499
70 FC6 178 13.987
70 FC6 179 14.476
70 FC6 180 15.452
70 FC6 181 16.429
70 FC6 182 17.893
70 FC6 183 17.893
70 FC6 184 16.429
70 FC6 185 14.476
70 FC6 186 12.034
70 FC6 187 10.569
70 FC6 188 10.569
70 FC6 189 11.058
70 FC6 190 11.058
70 FC6 191 9.593
70 FC6 192 6.175
70 FC6 193 2.268
70 FC6 194 -0.661
70 FC6 195 -1.149
70 FC6 196 -0.661
70 FC6 197 -0.661
70 FC6 198 -1.638
70 FC6 199 -3.591
70 FC6 200 -4.567
70 FC6 201 -2.614
70 FC6 202 1.292
70 FC6 203 6.175
70 FC6 204 10.081
70 FC6 205 11.058
70 FC6 206 11.058
70 FC6 207 10.569
70 FC6 208 11.058
70 FC6 209 11.546
70 FC6 210 11.546
70 FC6 211 10.569
70 FC6 212 10.081
70 FC6 213 10.081
70 FC6 214 12.034
70 FC6 215 13.011
70 FC6 216 13.987
70 FC6 217 12.522
70 FC6 218 10.569
70 FC6 219 9.104
70 FC6 220 9.104
70 FC6 221 10.081
70 FC6 222 10.569
70 FC6 223 9.593
70 FC6 224 9.104
70 FC6 225 9.104
70 FC6 226 11.058
70 FC6 227 14.476
70 FC6 228 17.405
70 FC6 229 18.870
70 FC6 230 17.893
70 FC6 231 15.940
70 FC6 232 14.964
70 FC6 233 15.940
70 FC6 234 18.870
70 FC6 235 21.800
70 FC6 236 24.729
70 FC6 237 25.706
70 FC6 238 25.706
70 FC6 239 25.218
70 FC6 240 24.241
70 FC6 241 22.288
70 FC6 242 19.358
70 FC6 243 16.429
70 FC6 244 13.499
70 FC6 245 12.034
70 FC6 246 12.034
70 FC6 247 13.011
70 FC6 248 13.499
70 FC6 249 13.987
70 FC6 250 13.499
70 FC6 251 13.011
70 FC6 252 13.499
70 FC6 253 13.987
70 FC6 254 14.964
70 FC6 255 16.429
# FC5 chan 10
70 FC5 0 -0.590
70 FC5 1 0.875
70 FC5 2 2.828
70 FC5 3 4.781
70 FC5 4 7.222
70 FC5 5 8.687
70 FC5 6 8.199
70 FC5 7 7.222
70 FC5 8 5.758
70 FC5 9 4.781
70 FC5 10 4.293
70 FC5 11 4.781
70 FC5 12 4.781
70 FC5 13 4.781
70 FC5 14 3.805
70 FC5 15 2.828
70 FC5 16 1.363
70 FC5 17 0.387
70 FC5 18 -0.102
70 FC5 19 -1.078
70 FC5 20 -2.055
70 FC5 21 -3.031
70 FC5 22 -3.520
70 FC5 23 -4.008
70 FC5 24 -3.520
70 FC5 25 -2.055
70 FC5 26 0.387
70 FC5 27 3.805
70 FC5 28 6.734
70 FC5 29 8.687
70 FC5 30 9.664
70 FC5 31 9.664
70 FC5 32 9.176
70 FC5 33 9.176
70 FC5 34 9.176
70 FC5 35 9.176
70 FC5 36 9.664
70 FC5 37 9.176
70 FC5 38 8.199
70 FC5 39 7.222
70 FC5 40 6.246
70 FC5 41 5.758
70 FC5 42 5.269
70 FC5 43 4.781
70 FC5 44 3.316
70 FC5 45 1.851
70 FC5 46 -0.102
70 FC5 47 -1.078
70 FC5 48 -1.078
70 FC5 49 0.387
70 FC5 50 1.851
70 FC5 51 2.828
70 FC5 52 2.340
70 FC5 53 1.363
70 FC5 54 0.875
70 FC5 55 2.340
70 FC5 56 5.758
70 FC5 57 8.687
70 FC5 58 10.152
70 FC5 59 10.152
70 FC5 60 8.199
70 FC5 61 7.711
70 FC5 62 8.199
70 FC5 63 9.664
70 FC5 64 10.640
70 FC5 65 10.152
70 FC5 66 8.687
70 FC5 67 7.222
70 FC5 68 6.246
70 FC5 69 5.758
70 FC5 70 4.781
70 FC5 71 3.316
70 FC5 72 0.875
70 FC5 73 -1.078
70 FC5 74 -2.543
70 FC5 75 -3.031
70 FC5 76 -2.055
70 FC5 77 -1.078
70 FC5 78 0.387
70 FC5 79 1.363
70 FC5 80 1.363
70 FC5 81 0.387
70 FC5 82 -1.078
70 FC5 83 -2.055
70 FC5 84 -2.055
70 FC5 85 -1.078
70 FC5 86 -0.102
70 FC5 87 0.387
70 FC5 88 0.387
70 FC5 89 0.387
70 FC5 90 0.387
70 FC5 91 0.387
70 FC5 92 0.875
70 FC5 93 1.363
70 FC5 94 1.851
70 FC5 95 3.805
70 FC5 96 6.734
70 FC5 97 9.664
70 FC5 98 11.129
70 FC5 99 10.152
70 FC5 100 6.734
70 FC5 101 4.293
70 FC5 102 2.340
70 FC5 103 3.316
70 FC5 104 5.269
70 FC5 105 6.246
70 FC5 106 6.246
70 FC5 107 5.269
70 FC5 108 4.293
70 FC5 109 4.293
70 FC5 110 5.269
70 FC5 111 5.758
70 FC5 112 5.269
70 FC5 113 4.293
70 FC5 114 2.340
70 FC5 115 1.363
70 FC5 116 1.851
70 FC5 117 3.316
70 FC5 118 4.781
70 FC5 119 5.269
70 FC5 120 6.246
70 FC5 121 7.222
70 FC5 122 8.687
70 FC5 123 9.664
70 FC5 124 11.129
70 FC5 125 11.617
70 FC5 126 11.617
70 FC5 127 11.617
70 FC5 128 11.617
70 FC5 129 10.640
70 FC5 130 8.199
70 FC5 131 4.781
70 FC5 132 1.363
70 FC5 133 -0.590
70 FC5 134 -1.078
70 FC5 135 -0.590
70 FC5 136 -0.102
70 FC5 137 -0.590
70 FC5 138 -2.055
70 FC5 139 -3.031
70 FC5 140 -2.543
70 FC5 141 -0.590
70 FC5 142 2.340
70 FC5 143 5.758
70 FC5 144 7.711
70 FC5 145 9.176
70 FC5 146 10.152
70 FC5 147 11.129
70 FC5 148 11.617
70 FC5 149 12.105
70 FC5 150 12.105
70 FC5 151 12.105
70 FC5 152 12.105
70 FC5 153 11.129
70 FC5 154 9.176
70 FC5 155 6.246
70 FC5 156 4.293
70 FC5 157 2.340
70 FC5 158 1.363
70 FC5 159 1.363
70 FC5 160 1.363
70 FC5 161 0.387
70 FC5 162 -1.078
70 FC5 163 -2.543
70 FC5 164 -2.543
70 FC5 165 -1.567
70 FC5 166 -0.590
70 FC5 167 0.387
70 FC5 168 0.387
70 FC5 169 -1.078
70 FC5 170 -2.055
70 FC5 171 -2.055
70 FC5 172 -1.078
70 FC5 173 0.387
70 FC5 174 2.340
70 FC5 175 3.316
70 FC5 176 3.805
70 FC5 177 3.316
70 FC5 178 1.851
70 FC5 179 -0.102
70 FC5 180 -1.078
70 FC5 181 -1.078
70 FC5 182 0.387
70 FC5 183 2.340
70 FC5 184 3.805
70 FC5 185 3.316
70 FC5 186 1.363
70 FC5 187 -1.567
70 FC5 188 -5.473
70 FC5 189 -8.891
70 FC5 190 -11.820
70 FC5 191 -13.285
70 FC5 192 -12.309
70 FC5 193 -8.891
70 FC5 194 -3.520
70 FC5 195 1.363
70 FC5 196 4.293
70 FC5 197 4.293
70 FC5 198 1.851
70 FC5 199 -0.102
70 FC5 200 -0.590
70 FC5 201 1.363
70 FC5 202 4.781
70 FC5 203 7.222
70 FC5 204 8.687
70 FC5 205 8.687
70 FC5 206 8.199
70 FC5 207 8.199
70 FC5 208 8.199
70 FC5 209 8.199
70 FC5 210 7.222
70 FC5 211 6.246
70 FC5 212 4.293
70 FC5 213 2.340
70 FC5 214 1.363
70 FC5 215 -0.102
70 FC5 216 -1.078
70 FC5 217 -2.543
70 FC5 218 -3.520
70 FC5 219 -4.496
70 FC5 220 -4.985
70 FC5 221 -4.496
70 FC5 222 -4.008
70 FC5 223 -2.543
70 FC5 224 -1.078
70 FC5 225 1.363
70 FC5 226 4.293
70 FC5 227 7.711
70 FC5 228 9.664
70 FC5 229 9.664
70 FC5 230 8.199
70 FC5 231 5.758
70 FC5 232 4.293
70 FC5 233 4.293
70 FC5 234 5.758
70 FC5 235 7.222
70 FC5 236 8.199
70 FC5 237 7.711
70 FC5 238 6.246
70 FC5 239 4.781
70 FC5 240 3.316
70 FC5 241 2.340
70 FC5 242 0.875
70 FC5 243 -0.590
70 FC5 244 -2.543
70 FC5 245 -3.520
70 FC5 246 -3.520
70 FC5 247 -2.055
70 FC5 248 0.387
70 FC5 249 2.828
70 FC5 250 4.293
70 FC5 251 5.269
70 FC5 252 4.781
70 FC5 253 3.316
70 FC5 254 2.340
70 FC5 255 1.363
# FC2 chan 11
70 FC2 0 -2.726
70 FC2 1 -2.238
70 FC2 2 -1.261
70 FC2 3 -0.285
70 FC2 4 0.203
70 FC2 5 0.203
70 FC2 6 0.203
70 FC2 7 0.203
70 FC2 8 0.203
70 FC2 9 0.692
70 FC2 10 1.668
70 FC2 11 2.645
70 FC2 12 4.110
70 FC2 13 6.063
70 FC2 14 7.528
70 FC2 15 8.993
70 FC2 16 8.993
70 FC2 17 8.504
70 FC2 18 7.039
70 FC2 19 5.086
70 FC2 20 3.133
70 FC2 21 1.668
70 FC2 22 0.692
70 FC2 23 0.203
70 FC2 24 0.692
70 FC2 25 1.668
70 FC2 26 2.157
70 FC2 27 3.133
70 FC2 28 3.133
70 FC2 29 2.645
70 FC2 30 2.157
70 FC2 31 2.645
70 FC2 32 3.621
70 FC2 33 4.598
70 FC2 34 6.063
70 FC2 35 7.528
70 FC2 36 8.993
70 FC2 37 9.969
70 FC2 38 9.969
70 FC2 39 8.993
70 FC2 40 8.016
70 FC2 41 7.039
70 FC2 42 6.063
70 FC2 43 5.575
70 FC2 44 4.598
70 FC2 45 4.110
70 FC2 46 3.621
70 FC2 47 3.621
70 FC2 48 4.110
70 FC2 49 5.086
70 FC2 50 5.575
70 FC2 51 6.063
70 FC2 52 6.551
70 FC2 53 6.063
70 FC2 54 6.551
70 FC2 55 7.039
70 FC2 56 8.016
70 FC2 57 8.504
70 FC2 58 8.504
70 FC2 59 7.528
70 FC2 60 6.063
70 FC2 61 5.086
70 FC2 62 4.110
70 FC2 63 3.621
70 FC2 64 3.621
70 FC2 65 3.621
70 FC2 66 4.110
70 FC2 67 5.086
70 FC2 68 5.575
70 FC2 69 5.575
70 FC2 70 5.086
70 FC2 71 4.110
70 FC2 72 3.133
70 FC2 73 2.157
70 FC2 74 2.157
70 FC2 75 2.157
70 FC2 76 2.645
70 FC2 77 2.645
70 FC2 78 2.157
70 FC2 79 1.668
70 FC2 80 1.668
70 FC2 81 2.157
70 FC2 82 2.157
70 FC2 83 2.157
70 FC2 84 1.668
70 FC2 85 1.180
70 FC2 86 1.180
70 FC2 87 1.668
70 FC2 88 1.668
70 FC2 89 1.180
70 FC2 90 0.203
70 FC2 91 -0.285
70 FC2 92 -0.773
70 FC2 93 0.203
70 FC2 94 2.157
70 FC2 95 4.110
70 FC2 96 6.063
70 FC2 97 7.039
70 FC2 98 7.039
70 FC2 99 6.551
70 FC2 100 6.063
70 FC2 101 5.575
70 FC2 102 5.086
70 FC2 103 4.110
70 FC2 104 3.621
70 FC2 105 3.133
70 FC2 106 3.133
70 FC2 107 2.157
70 FC2 108 1.180
70 FC2 109 -0.285
70 FC2 110 -1.261
70 FC2 111 -1.261
70 FC2 112 -0.285
70 FC2 113 1.180
70 FC2 114 2.645
70 FC2 115 3.621
70 FC2 116 3.621
70 FC2 117 3.621
70 FC2 118 3.133
70 FC2 119 4.110
70 FC2 120 4.598
70 FC2 121 6.063
70 FC2 122 6.551
70 FC2 123 7.039
70 FC2 124 6.551
70 FC2 125 5.086
70 FC2 126 4.110
70 FC2 127 2.645
70 FC2 128 1.668
70 FC2 129 1.180
70 FC2 130 0.692
70 FC2 131 0.203
70 FC2 132 0.203
70 FC2 133 -0.285
70 FC2 134 -0.773
70 FC2 135 -1.750
70 FC2 136 -3.215
70 FC2 137 -3.703
70 FC2 138 -4.191
70 FC2 139 -3.703
70 FC2 140 -3.215
70 FC2 141 -2.726
70 FC2 142 -2.238
70 FC2 143 -1.750
70 FC2 144 -0.773
70 FC2 145 0.692
70 FC2 146 2.157
70 FC2 147 3.133
70 FC2 148 3.133
70 FC2 149 2.645
70 FC2 150 2.645
70 FC2 151 2.645
70 FC2 152 3.621
70 FC2 153 3.621
70 FC2 154 4.110
70 FC2 155 4.110
70 FC2 156 3.621
70 FC2 157 3.133
70 FC2 158 2.645
70 FC2 159 1.668
70 FC2 160 0.203
70 FC2 161 -0.773
70 FC2 162 -1.261
70 FC2 163 -0.773
70 FC2 164 0.203
70 FC2 165 1.180
70 FC2 166 1.180
70 FC2 167 0.692
70 FC2 168 0.203
70 FC2 169 -0.285
70 FC2 170 0.203
70 FC2 171 1.668
70 FC2 172 2.645
70 FC2 173 3.621
70 FC2 174 4.110
70 FC2 175 4.598
70 FC2 176 4.598
70 FC2 177 4.110
70 FC2 178 3.621
70 FC2 179 3.621
70 FC2 180 3.133
70 FC2 181 3.133
70 FC2 182 3.133
70 FC2 183 3.133
70 FC2 184 3.133
70 FC2 185 3.621
70 FC2 186 3.133
70 FC2 187 2.645
70 FC2 188 2.157
70 FC2 189 1.180
70 FC2 190 0.203
70 FC2 191 -0.773
70 FC2 192 -1.750
70 FC2 193 -2.726
70 FC2 194 -4.191
70 FC2 195 -6.144
70 FC2 196 -8.586
70 FC2 197 -10.050
70 FC2 198 -10.539
70 FC2 199 -9.562
70 FC2 200 -7.609
70 FC2 201 -5.656
70 FC2 202 -3.703
70 FC2 203 -1.750
70 FC2 204 -0.285
70 FC2 205 0.692
70 FC2 206 1.180
70 FC2 207 1.180
70 FC2 208 0.203
70 FC2 209 -0.773
70 FC2 210 -1.750
70 FC2 211 -2.238
70 FC2 212 -1.750
70 FC2 213 -0.773
70 FC2 214 -0.285
70 FC2 215 -0.773
70 FC2 216 -2.238
70 FC2 217 -3.703
70 FC2 218 -4.191
70 FC2 219 -4.191
70 FC2 220 -3.215
70 FC2 221 -2.238
70 FC2 222 -1.750
70 FC2 223 -1.750
70 FC2 224 -2.726
70 FC2 225 -3.215
70 FC2 226 -3.703
70 FC2 227 -4.191
70 FC2 228 -4.191
70 FC2 229 -3.703
70 FC2 230 -3.703
70 FC2 231 -3.215
70 FC2 232 -3.215
70 FC2 233 -2.238
70 FC2 234 -1.261
70 FC2 235 -0.285
70 FC2 236 1.180
70 FC2 237 2.157
70 FC2 238 3.133
70 FC2 239 4.110
70 FC2 240 5.575
70 FC2 241 6.063
70 FC2 242 6.063
70 FC2 243 5.086
70 FC2 244 2.645
70 FC2 245 0.692
70 FC2 246 -1.261
70 FC2 247 -3.215
70 FC2 248 -3.703
70 FC2 249 -5.168
70 FC2 250 -5.656
70 FC2 251 -7.121
70 FC2 252 -7.609
70 FC2 253 -7.609
70 FC2 254 -6.632
70 FC2 255 -6.144
# FC1 chan 12
70 FC1 0 -4.049
70 FC1 1 -4.537
70 FC1 2 -4.049
70 FC1 3 -3.072
70 FC1 4 -1.119
70 FC1 5 0.346
70 FC1 6 1.322
70 FC1 7 1.322
70 FC1 8 1.811
70 FC1 9 1.811
70 FC1 10 2.299
70 FC1 11 2.299
70 FC1 12 1.811
70 FC1 13 1.811
70 FC1 14 1.322
70 FC1 15 0.834
70 FC1 16 0.834
70 FC1 17 0.834
70 FC1 18 -0.142
70 FC1 19 -2.096
70 FC1 20 -4.049
70 FC1 21 -6.002
70 FC1 22 -6.978
70 FC1 23 -7.467
70 FC1 24 -6.978
70 FC1 25 -6.490
70 FC1 26 -6.002
70 FC1 27 -5.025
70 FC1 28 -4.537
70 FC1 29 -4.049
70 FC1 30 -3.072
70 FC1 31 -1.607
70 FC1 32 -0.631
70 FC1 33 0.346
70 FC1 34 0.834
70 FC1 35 1.322
70 FC1 36 1.322
70 FC1 37 1.811
70 FC1 38 1.811
70 FC1 39 1.811
70 FC1 40 1.811
70 FC1 41 0.834
70 FC1 42 0.346
70 FC1 43 -1.607
70 FC1 44 -3.072
70 FC1 45 -5.025
70 FC1 46 -6.490
70 FC1 47 -7.467
70 FC1 48 -7.467
70 FC1 49 -6.978
70 FC1 50 -6.002
70 FC1 51 -5.514
70 FC1 52 -4.537
70 FC1 53 -4.537
70 FC1 54 -5.025
70 FC1 55 -5.025
70 FC1 56 -5.025
70 FC1 57 -4.537
70 FC1 58 -4.049
70 FC1 59 -3.072
70 FC1 60 -2.584
70 FC1 61 -2.096
70 FC1 62 -2.096
70 FC1 63 -1.607
70 FC1 64 -1.119
70 FC1 65 -1.119
70 FC1 66 -1.119
70 FC1 67 -0.631
70 FC1 68 -0.631
70 FC1 69 -1.607
70 FC1 70 -2.584
70 FC1 71 -5.025
70 FC1 72 -7.955
70 FC1 73 -9.908
70 FC1 74 -10.396
70 FC1 75 -9.908
70 FC1 76 -8.931
70 FC1 77 -7.955
70 FC1 78 -7.955
70 FC1 79 -8.443
70 FC1 80 -9.420
70 FC1 81 -10.396
70 FC1 82 -10.885
70 FC1 83 -9.908
70 FC1 84 -9.420
70 FC1 85 -8.443
70 FC1 86 -7.467
70 FC1 87 -7.467
70 FC1 88 -7.955
70 FC1 89 -8.931
70 FC1 90 -8.931
70 FC1 91 -8.931
70 FC1 92 -8.443
70 FC1 93 -7.955
70 FC1 94 -7.467
70 FC1 95 -6.978
70 FC1 96 -6.490
70 FC1 97 -6.002
70 FC1 98 -5.514
70 FC1 99 -5.514
70 FC1 100 -6.002
70 FC1 101 -6.978
70 FC1 102 -7.955
70 FC1 103 -7.955
70 FC1 104 -8.443
70 FC1 105 -8.443
70 FC1 106 -8.443
70 FC1 107 -8.931
70 FC1 108 -9.420
70 FC1 109 -9.420
70 FC1 110 -9.420
70 FC1 111 -8.931
70 FC1 112 -8.931
70 FC1 113 -7.955
70 FC1 114 -7.467
70 FC1 115 -6.978
70 FC1 116 -6.002
70 FC1 117 -5.514
70 FC1 118 -5.025
70 FC1 119 -5.025
70 FC1 120 -5.025
70 FC1 121 -4.537
70 FC1 122 -4.049
70 FC1 123 -3.072
70 FC1 124 -2.584
70 FC1 125 -2.096
70 FC1 126 -2.584
70 FC1 127 -3.072
70 FC1 128 -3.072
70 FC1 129 -4.049
70 FC1 130 -5.025
70 FC1 131 -6.002
70 FC1 132 -7.467
70 FC1 133 -8.931
70 FC1 134 -9.420
70 FC1 135 -9.908
70 FC1 136 -9.908
70 FC1 137 -10.396
70 FC1 138 -10.885
70 FC1 139 -11.373
70 FC1 140 -11.373
70 FC1 141 -10.396
70 FC1 142 -9.420
70 FC1 143 -7.955
70 FC1 144 -6.978
70 FC1 145 -5.514
70 FC1 146 -4.049
70 FC1 147 -2.584
70 FC1 148 -1.607
70 FC1 149 -1.119
70 FC1 150 -1.119
70 FC1 151 -1.607
70 FC1 152 -3.072
70 FC1 153 -4.049
70 FC1 154 -5.025
70 FC1 155 -6.490
70 FC1 156 -7.467
70 FC1 157 -8.443
70 FC1 158 -8.931
70 FC1 159 -9.420
70 FC1 160 -9.908
70 FC1 161 -9.908
70 FC1 162 -9.908
70 FC1 163 -8.931
70 FC1 164 -8.443
70 FC1 165 -6.978
70 FC1 166 -6.490
70 FC1 167 -6.490
70 FC1 168 -6.002
70 FC1 169 -6.490
70 FC1 170 -6.002
70 FC1 171 -5.025
70 FC1 172 -3.560
70 FC1 173 -2.096
70 FC1 174 -1.607
70 FC1 175 -2.096
70 FC1 176 -3.560
70 FC1 177 -4.537
70 FC1 178 -5.025
70 FC1 179 -5.025
70 FC1 180 -5.025
70 FC1 181 -4.537
70 FC1 182 -4.537
70 FC1 183 -4.537
70 FC1 184 -5.025
70 FC1 185 -5.025
70 FC1 186 -6.002
70 FC1 187 -6.978
70 FC1 188 -7.955
70 FC1 189 -8.931
70 FC1 190 -9.420
70 FC1 191 -9.908
70 FC1 192 -9.420
70 FC1 193 -8.443
70 FC1 194 -7.467
70 FC1 195 -7.955
70 FC1 196 -8.931
70 FC1 197 -9.908
70 FC1 198 -10.396
70 FC1 199 -9.908
70 FC1 200 -7.955
70 FC1 201 -5.514
70 FC1 202 -3.072
70 FC1 203 -2.096
70 FC1 204 -1.607
70 FC1 205 -1.607
70 FC1 206 -1.607
70 FC1 207 -2.096
70 FC1 208 -3.072
70 FC1 209 -4.049
70 FC1 210 -6.002
70 FC1 211 -7.467
70 FC1 212 -7.467
70 FC1 213 -7.467
70 FC1 214 -6.978
70 FC1 215 -6.978
70 FC1 216 -7.467
70 FC1 217 -8.443
70 FC1 218 -8.931
70 FC1 219 -8.931
70 FC1 220 -8.443
70 FC1 221 -7.955
70 FC1 222 -7.955
70 FC1 223 -7.955
70 FC1 224 -7.467
70 FC1 225 -6.978
70 FC1 226 -6.490
70 FC1 227 -5.514
70 FC1 228 -4.537
70 FC1 229 -4.537
70 FC1 230 -5.025
70 FC1 231 -6.002
70 FC1 232 -7.467
70 FC1 233 -7.955
70 FC1 234 -8.931
70 FC1 235 -8.443
70 FC1 236 -8.443
70 FC1 237 -7.467
70 FC1 238 -6.978
70 FC1 239 -6.490
70 FC1 240 -6.002
70 FC1 241 -6.002
70 FC1 242 -6.002
70 FC1 243 -6.002
70 FC1 244 -6.490
70 FC1 245 -6.490
70 FC1 246 -6.978
70 FC1 247 -7.467
70 FC1 248 -7.955
70 FC1 249 -8.443
70 FC1 250 -8.931
70 FC1 251 -9.908
70 FC1 252 -10.885
70 FC1 253 -11.861
70 FC1 254 -12.349
70 FC1 255 -12.838
# T8 chan 13
70 T8 0 12.919
70 T8 1 14.872
70 T8 2 16.337
70 T8 3 15.849
70 T8 4 14.872
70 T8 5 12.919
70 T8 6 9.989
70 T8 7 7.060
70 T8 8 4.130
70 T8 9 0.712
70 T8 10 -2.218
70 T8 11 -4.171
70 T8 12 -5.147
70 T8 13 -6.124
70 T8 14 -6.124
70 T8 15 -5.636
70 T8 16 -4.171
70 T8 17 -1.241
70 T8 18 3.153
70 T8 19 6.571
70 T8 20 9.013
70 T8 21 9.501
70 T8 22 9.501
70 T8 23 9.501
70 T8 24 10.478
70 T8 25 11.943
70 T8 26 13.407
70 T8 27 13.407
70 T8 28 12.919
70 T8 29 11.943
70 T8 30 12.431
70 T8 31 12.431
70 T8 32 11.943
70 T8 33 10.478
70 T8 34 8.525
70 T8 35 6.571
70 T8 36 5.107
70 T8 37 4.130
70 T8 38 2.665
70 T8 39 0.224
70 T8 40 -2.706
70 T8 41 -4.659
70 T8 42 -4.659
70 T8 43 -2.218
70 T8 44 1.200
70 T8 45 3.642
70 T8 46 4.618
70 T8 47 4.130
70 T8 48 4.130
70 T8 49 5.595
70 T8 50 8.525
70 T8 51 11.943
70 T8 52 14.872
70 T8 53 16.337
70 T8 54 16.825
70 T8 55 16.337
70 T8 56 16.337
70 T8 57 14.872
70 T8 58 12.919
70 T8 59 9.989
70 T8 60 7.060
70 T8 61 4.130
70 T8 62 3.153
70 T8 63 2.177
70 T8 64 2.177
70 T8 65 1.689
70 T8 66 0.712
70 T8 67 -0.264
70 T8 68 -1.729
70 T8 69 -2.706
70 T8 70 -3.682
70 T8 71 -4.659
70 T8 72 -5.636
70 T8 73 -5.636
70 T8 74 -5.147
70 T8 75 -4.171
70 T8 76 -2.706
70 T8 77 -1.729
70 T8 78 -0.264
70 T8 79 0.712
70 T8 80 2.177
70 T8 81 2.665
70 T8 82 3.153
70 T8 83 3.642
70 T8 84 4.130
70 T8 85 4.130
70 T8 86 4.618
70 T8 87 5.107
70 T8 88 6.083
70 T8 89 6.083
70 T8 90 6.083
70 T8 91 6.571
70 T8 92 6.571
70 T8 93 7.548
70 T8 94 8.036
70 T8 95 9.013
70 T8 96 9.013
70 T8 97 7.548
70 T8 98 5.595
70 T8 99 3.153
70 T8 100 1.689
70 T8 101 0.712
70 T8 102 0.712
70 T8 103 1.200
70 T8 104 0.712
70 T8 105 -0.264
70 T8 106 -1.729
70 T8 107 -3.194
70 T8 108 -3.194
70 T8 109 -2.706
70 T8 110 -0.264
70 T8 111 1.689
70 T8 112 2.665
70 T8 113 3.153
70 T8 114 2.665
70 T8 115 2.177
70 T8 116 1.200
70 T8 117 1.200
70 T8 118 1.200
70 T8 119 3.153
70 T8 120 6.083
70 T8 121 9.013
70 T8 122 11.454
70 T8 123 11.943
70 T8 124 10.966
70 T8 125 9.013
70 T8 126 7.060
70 T8 127 7.060
70 T8 128 7.060
70 T8 129 7.060
70 T8 130 6.083
70 T8 131 3.642
70 T8 132 1.200
70 T8 133 -1.241
70 T8 134 -1.729
70 T8 135 -1.241
70 T8 136 -0.753
70 T8 137 1.200
70 T8 138 2.665
70 T8 139 4.130
70 T8 140 5.595
70 T8 141 6.083
70 T8 142 6.571
70 T8 143 7.060
70 T8 144 7.060
70 T8 145 6.083
70 T8 146 5.107
70 T8 147 3.642
70 T8 148 0.712
70 T8 149 -1.729
70 T8 150 -2.706
70 T8 151 -3.194
70 T8 152 -2.706
70 T8 153 -0.753
70 T8 154 1.200
70 T8 155 3.153
70 T8 156 4.130
70 T8 157 3.642
70 T8 158 2.177
70 T8 159 -0.264
70 T8 160 -3.194
70 T8 161 -5.636
70 T8 162 -7.100
70 T8 163 -8.077
70 T8 164 -8.565
70 T8 165 -10.030
70 T8 166 -11.495
70 T8 167 -12.960
70 T8 168 -14.425
70 T8 169 -15.401
70 T8 170 -16.866
70 T8 171 -18.819
70 T8 172 -20.284
70 T8 173 -20.284
70 T8 174 -17.843
70 T8 175 -13.936
70 T8 176 -9.054
70 T8 177 -4.659
70 T8 178 -1.729
70 T8 179 -0.264
70 T8 180 0.224
70 T8 181 1.200
70 T8 182 1.689
70 T8 183 1.200
70 T8 184 0.712
70 T8 185 -0.264
70 T8 186 -0.264
70 T8 187 -0.264
70 T8 188 -0.753
70 T8 189 -2.706
70 T8 190 -6.124
70 T8 191 -10.518
70 T8 192 -14.913
70 T8 193 -17.354
70 T8 194 -18.331
70 T8 195 -18.331
70 T8 196 -18.331
70 T8 197 -19.307
70 T8 198 -21.749
70 T8 199 -24.679
70 T8 200 -27.120
70 T8 201 -28.097
70 T8 202 -27.608
70 T8 203 -25.167
70 T8 204 -21.749
70 T8 205 -17.843
70 T8 206 -13.936
70 T8 207 -10.518
70 T8 208 -7.100
70 T8 209 -4.659
70 T8 210 -3.682
70 T8 211 -2.706
70 T8 212 -3.194
70 T8 213 -3.682
70 T8 214 -4.659
70 T8 215 -5.636
70 T8 216 -6.612
70 T8 217 -8.077
70 T8 218 -10.030
70 T8 219 -11.983
70 T8 220 -13.448
70 T8 221 -14.425
70 T8 222 -13.936
70 T8 223 -12.960
70 T8 224 -11.495
70 T8 225 -9.542
70 T8 226 -7.100
70 T8 227 -4.659
70 T8 228 -2.706
70 T8 229 -1.729
70 T8 230 -1.241
70 T8 231 -1.241
70 T8 232 -0.753
70 T8 233 0.224
70 T8 234 2.665
70 T8 235 5.107
70 T8 236 7.548
70 T8 237 8.525
70 T8 238 7.548
70 T8 239 5.107
70 T8 240 1.689
70 T8 241 -1.241
70 T8 242 -3.682
70 T8 243 -6.124
70 T8 244 -8.077
70 T8 245 -10.030
70 T8 246 -11.983
70 T8 247 -13.448
70 T8 248 -13.936
70 T8 249 -12.960
70 T8 250 -11.007
70 T8 251 -8.565
70 T8 252 -6.124
70 T8 253 -4.171
70 T8 254 -2.218
70 T8 255 0.224
# T7 chan 14
70 T7 0 7.009
70 T7 1 8.474
70 T7 2 9.450
70 T7 3 10.915
70 T7 4 11.403
70 T7 5 11.892
70 T7 6 11.403
70 T7 7 9.450
70 T7 8 6.521
70 T7 9 4.079
70 T7 10 2.126
70 T7 11 1.638
70 T7 12 1.638
70 T7 13 1.149
70 T7 14 -0.315
70 T7 15 -2.757
70 T7 16 -5.198
70 T7 17 -7.151
70 T7 18 -7.640
70 T7 19 -6.663
70 T7 20 -4.710
70 T7 21 -3.245
70 T7 22 -1.780
70 T7 23 -1.292
70 T7 24 -0.804
70 T7 25 0.661
70 T7 26 2.614
70 T7 27 5.544
70 T7 28 8.474
70 T7 29 10.427
70 T7 30 10.915
70 T7 31 10.915
70 T7 32 10.427
70 T7 33 9.450
70 T7 34 8.962
70 T7 35 7.985
70 T7 36 6.521
70 T7 37 5.056
70 T7 38 3.591
70 T7 39 3.103
70 T7 40 3.103
70 T7 41 2.614
70 T7 42 2.126
70 T7 43 2.126
70 T7 44 1.638
70 T7 45 1.149
70 T7 46 -0.315
70 T7 47 -2.268
70 T7 48 -4.222
70 T7 49 -4.710
70 T7 50 -3.733
70 T7 51 -0.804
70 T7 52 2.614
70 T7 53 5.056
70 T7 54 6.032
70 T7 55 7.009
70 T7 56 8.962
70 T7 57 10.427
70 T7 58 11.892
70 T7 59 11.403
70 T7 60 10.915
70 T7 61 9.939
70 T7 62 9.450
70 T7 63 9.939
70 T7 64 10.427
70 T7 65 9.450
70 T7 66 7.009
70 T7 67 4.567
70 T7 68 3.103
70 T7 69 2.126
70 T7 70 2.126
70 T7 71 2.126
70 T7 72 0.173
70 T7 73 -1.292
70 T7 74 -3.245
70 T7 75 -3.733
70 T7 76 -3.245
70 T7 77 -1.780
70 T7 78 -0.315
70 T7 79 0.173
70 T7 80 0.173
70 T7 81 -0.315
70 T7 82 -0.804
70 T7 83 -0.315
70 T7 84 -0.315
70 T7 85 -0.315
70 T7 86 -0.315
70 T7 87 -0.315
70 T7 88 0.173
70 T7 89 1.149
70 T7 90 2.126
70 T7 91 2.614
70 T7 92 1.638
70 T7 93 0.661
70 T7 94 0.661
70 T7 95 3.103
70 T7 96 6.032
70 T7 97 8.962
70 T7 98 9.450
70 T7 99 7.009
70 T7 100 2.126
70 T7 101 -1.780
70 T7 102 -3.733
70 T7 103 -2.757
70 T7 104 -0.804
70 T7 105 0.661
70 T7 106 0.661
70 T7 107 -0.315
70 T7 108 -1.292
70 T7 109 -0.804
70 T7 110 0.173
70 T7 111 1.638
70 T7 112 2.126
70 T7 113 0.661
70 T7 114 -1.780
70 T7 115 -3.733
70 T7 116 -4.710
70 T7 117 -4.222
70 T7 118 -2.757
70 T7 119 -1.780
70 T7 120 -0.315
70 T7 121 0.661
70 T7 122 1.638
70 T7 123 2.614
70 T7 124 4.079
70 T7 125 5.056
70 T7 126 5.056
70 T7 127 5.056
70 T7 128 4.567
70 T7 129 3.591
70 T7 130 1.149
70 T7 131 -1.292
70 T7 132 -4.710
70 T7 133 -7.640
70 T7 134 -9.104
70 T7 135 -9.593
70 T7 136 -8.128
70 T7 137 -7.640
70 T7 138 -6.663
70 T7 139 -6.663
70 T7 140 -6.175
70 T7 141 -4.710
70 T7 142 -2.757
70 T7 143 -0.804
70 T7 144 0.661
70 T7 145 1.638
70 T7 146 2.614
70 T7 147 3.591
70 T7 148 5.056
70 T7 149 5.544
70 T7 150 6.032
70 T7 151 5.544
70 T7 152 5.056
70 T7 153 4.079
70 T7 154 3.591
70 T7 155 2.614
70 T7 156 1.149
70 T7 157 -0.315
70 T7 158 -1.780
70 T7 159 -3.733
70 T7 160 -4.710
70 T7 161 -5.686
70 T7 162 -6.663
70 T7 163 -7.151
70 T7 164 -8.128
70 T7 165 -9.104
70 T7 166 -9.593
70 T7 167 -10.569
70 T7 168 -11.546
70 T7 169 -12.522
70 T7 170 -13.499
70 T7 171 -13.499
70 T7 172 -12.034
70 T7 173 -9.104
70 T7 174 -5.686
70 T7 175 -3.245
70 T7 176 -2.268
70 T7 177 -2.268
70 T7 178 -3.733
70 T7 179 -4.222
70 T7 180 -3.733
70 T7 181 -2.757
70 T7 182 -1.780
70 T7 183 -2.757
70 T7 184 -4.222
70 T7 185 -6.663
70 T7 186 -8.616
70 T7 187 -10.569
70 T7 188 -13.011
70 T7 189 -17.405
70 T7 190 -22.776
70 T7 191 -28.147
70 T7 192 -31.077
70 T7 193 -29.612
70 T7 194 -24.729
70 T7 195 -17.405
70 T7 196 -10.569
70 T7 197 -5.198
70 T7 198 -2.268
70 T7 199 -1.292
70 T7 200 -0.804
70 T7 201 -1.292
70 T7 202 -1.292
70 T7 203 -1.292
70 T7 204 -0.804
70 T7 205 0.173
70 T7 206 2.126
70 T7 207 4.079
70 T7 208 4.567
70 T7 209 4.567
70 T7 210 3.103
70 T7 211 0.661
70 T7 212 -2.268
70 T7 213 -5.198
70 T7 214 -8.128
70 T7 215 -10.081
70 T7 216 -11.546
70 T7 217 -12.522
70 T7 218 -13.011
70 T7 219 -13.499
70 T7 220 -14.964
70 T7 221 -16.917
70 T7 222 -18.382
70 T7 223 -18.382
70 T7 224 -16.429
70 T7 225 -13.011
70 T7 226 -8.128
70 T7 227 -3.733
70 T7 228 -0.315
70 T7 229 1.638
70 T7 230 2.614
70 T7 231 2.126
70 T7 232 0.661
70 T7 233 -0.804
70 T7 234 -1.292
70 T7 235 -0.804
70 T7 236 0.173
70 T7 237 -0.315
70 T7 238 -1.780
70 T7 239 -5.686
70 T7 240 -9.593
70 T7 241 -12.522
70 T7 242 -14.476
70 T7 243 -15.452
70 T7 244 -16.917
70 T7 245 -19.358
70 T7 246 -21.311
70 T7 247 -21.800
70 T7 248 -19.847
70 T7 249 -16.429
70 T7 250 -12.522
70 T7 251 -9.593
70 T7 252 -7.640
70 T7 253 -6.663
70 T7 254 -5.686
70 T7 255 -5.198
# CZ chan 15
70 CZ 0 17.008
70 CZ 1 17.985
70 CZ 2 18.473
70 CZ 3 17.985
70 CZ 4 17.008
70 CZ 5 16.520
70 CZ 6 17.008
70 CZ 7 17.497
70 CZ 8 17.008
70 CZ 9 15.055
70 CZ 10 10.661
70 CZ 11 5.778
70 CZ 12 1.872
70 CZ 13 -1.058
70 CZ 14 -2.523
70 CZ 15 -4.476
70 CZ 16 -6.429
70 CZ 17 -8.870
70 CZ 18 -11.312
70 CZ 19 -13.265
70 CZ 20 -14.730
70 CZ 21 -15.218
70 CZ 22 -15.706
70 CZ 23 -15.706
70 CZ 24 -14.242
70 CZ 25 -12.288
70 CZ 26 -11.312
70 CZ 27 -10.824
70 CZ 28 -10.824
70 CZ 29 -9.847
70 CZ 30 -7.406
70 CZ 31 -4.476
70 CZ 32 -2.523
70 CZ 33 -3.499
70 CZ 34 -5.941
70 CZ 35 -8.870
70 CZ 36 -10.335
70 CZ 37 -9.847
70 CZ 38 -8.382
70 CZ 39 -8.382
70 CZ 40 -10.335
70 CZ 41 -14.242
70 CZ 42 -17.171
70 CZ 43 -18.148
70 CZ 44 -17.171
70 CZ 45 -16.195
70 CZ 46 -15.706
70 CZ 47 -17.171
70 CZ 48 -19.124
70 CZ 49 -18.636
70 CZ 50 -15.706
70 CZ 51 -9.847
70 CZ 52 -3.988
70 CZ 53 0.407
70 CZ 54 2.360
70 CZ 55 2.360
70 CZ 56 2.848
70 CZ 57 5.290
70 CZ 58 8.708
70 CZ 59 12.126
70 CZ 60 13.590
70 CZ 61 12.614
70 CZ 62 11.149
70 CZ 63 9.684
70 CZ 64 9.684
70 CZ 65 10.661
70 CZ 66 11.149
70 CZ 67 9.196
70 CZ 68 5.290
70 CZ 69 -0.081
70 CZ 70 -4.964
70 CZ 71 -7.406
70 CZ 72 -6.917
70 CZ 73 -4.964
70 CZ 74 -3.988
70 CZ 75 -4.476
70 CZ 76 -6.917
70 CZ 77 -8.382
70 CZ 78 -7.894
70 CZ 79 -4.964
70 CZ 80 -0.081
70 CZ 81 3.337
70 CZ 82 4.801
70 CZ 83 5.290
70 CZ 84 5.778
70 CZ 85 6.755
70 CZ 86 8.219
70 CZ 87 9.196
70 CZ 88 8.708
70 CZ 89 8.219
70 CZ 90 7.243
70 CZ 91 7.243
70 CZ 92 6.755
70 CZ 93 6.266
70 CZ 94 6.266
70 CZ 95 8.219
70 CZ 96 13.590
70 CZ 97 20.426
70 CZ 98 23.844
70 CZ 99 21.403
70 CZ 100 12.126
70 CZ 101 2.360
70 CZ 102 -2.523
70 CZ 103 1.383
70 CZ 104 9.196
70 CZ 105 15.055
70 CZ 106 13.590
70 CZ 107 6.266
70 CZ 108 -1.058
70 CZ 109 -3.499
70 CZ 110 1.383
70 CZ 111 8.708
70 CZ 112 13.102
70 CZ 113 11.149
70 CZ 114 4.801
70 CZ 115 -2.523
70 CZ 116 -6.429
70 CZ 117 -5.452
70 CZ 118 -1.058
70 CZ 119 4.313
70 CZ 120 8.708
70 CZ 121 11.149
70 CZ 122 12.126
70 CZ 123 12.614
70 CZ 124 14.567
70 CZ 125 17.985
70 CZ 126 21.403
70 CZ 127 22.868
70 CZ 128 20.426
70 CZ 129 15.055
70 CZ 130 7.243
70 CZ 131 0.407
70 CZ 132 -3.988
70 CZ 133 -4.964
70 CZ 134 -4.964
70 CZ 135 -3.499
70 CZ 136 -3.988
70 CZ 137 -3.988
70 CZ 138 -3.988
70 CZ 139 -2.523
70 CZ 140 0.407
70 CZ 141 3.825
70 CZ 142 7.243
70 CZ 143 10.173
70 CZ 144 13.102
70 CZ 145 14.567
70 CZ 146 15.055
70 CZ 147 15.055
70 CZ 148 14.079
70 CZ 149 12.126
70 CZ 150 10.173
70 CZ 151 8.219
70 CZ 152 5.290
70 CZ 153 3.337
70 CZ 154 1.383
70 CZ 155 -0.081
70 CZ 156 -1.546
70 CZ 157 -3.499
70 CZ 158 -5.941
70 CZ 159 -8.382
70 CZ 160 -9.359
70 CZ 161 -9.359
70 CZ 162 -7.894
70 CZ 163 -6.429
70 CZ 164 -4.964
70 CZ 165 -4.964
70 CZ 166 -7.406
70 CZ 167 -10.824
70 CZ 168 -14.730
70 CZ 169 -17.660
70 CZ 170 -18.636
70 CZ 171 -16.683
70 CZ 172 -13.265
70 CZ 173 -9.359
70 CZ 174 -6.917
70 CZ 175 -5.452
70 CZ 176 -3.988
70 CZ 177 -2.035
70 CZ 178 -0.081
70 CZ 179 0.407
70 CZ 180 -0.570
70 CZ 181 -3.011
70 CZ 182 -4.476
70 CZ 183 -4.476
70 CZ 184 -3.499
70 CZ 185 -3.011
70 CZ 186 -4.964
70 CZ 187 -8.382
70 CZ 188 -12.288
70 CZ 189 -15.218
70 CZ 190 -16.195
70 CZ 191 -17.171
70 CZ 192 -17.660
70 CZ 193 -18.148
70 CZ 194 -17.660
70 CZ 195 -15.706
70 CZ 196 -13.753
70 CZ 197 -12.777
70 CZ 198 -13.753
70 CZ 199 -16.195
70 CZ 200 -18.636
70 CZ 201 -19.124
70 CZ 202 -18.636
70 CZ 203 -17.660
70 CZ 204 -17.660
70 CZ 205 -18.148
70 CZ 206 -18.148
70 CZ 207 -15.706
70 CZ 208 -11.312
70 CZ 209 -6.429
70 CZ 210 -2.523
70 CZ 211 -1.546
70 CZ 212 -3.011
70 CZ 213 -5.452
70 CZ 214 -7.894
70 CZ 215 -8.870
70 CZ 216 -9.359
70 CZ 217 -9.847
70 CZ 218 -10.824
70 CZ 219 -12.288
70 CZ 220 -14.242
70 CZ 221 -16.195
70 CZ 222 -17.660
70 CZ 223 -16.683
70 CZ 224 -13.753
70 CZ 225 -8.870
70 CZ 226 -3.988
70 CZ 227 -0.081
70 CZ 228 1.872
70 CZ 229 2.360
70 CZ 230 2.360
70 CZ 231 2.848
70 CZ 232 4.313
70 CZ 233 6.266
70 CZ 234 8.708
70 CZ 235 10.661
70 CZ 236 11.637
70 CZ 237 11.637
70 CZ 238 11.149
70 CZ 239 11.149
70 CZ 240 10.661
70 CZ 241 9.196
70 CZ 242 6.755
70 CZ 243 3.337
70 CZ 244 -0.570
70 CZ 245 -3.499
70 CZ 246 -3.011
70 CZ 247 -0.570
70 CZ 248 3.825
70 CZ 249 6.755
70 CZ 250 8.219
70 CZ 251 8.219
70 CZ 252 6.266
70 CZ 253 4.313
70 CZ 254 1.872
70 CZ 255 0.407
# C3 chan 16
70 C3 0 -0.753
70 C3 1 -0.753
70 C3 2 -0.264
70 C3 3 0.712
70 C3 4 2.177
70 C3 5 4.130
70 C3 6 4.130
70 C3 7 3.153
70 C3 8 1.689
70 C3 9 0.224
70 C3 10 -0.753
70 C3 11 -0.753
70 C3 12 -0.264
70 C3 13 -1.241
70 C3 14 -2.706
70 C3 15 -5.147
70 C3 16 -6.612
70 C3 17 -7.100
70 C3 18 -7.100
70 C3 19 -6.124
70 C3 20 -5.636
70 C3 21 -5.147
70 C3 22 -5.147
70 C3 23 -5.147
70 C3 24 -4.659
70 C3 25 -4.659
70 C3 26 -3.194
70 C3 27 -2.218
70 C3 28 -0.753
70 C3 29 0.224
70 C3 30 1.200
70 C3 31 1.689
70 C3 32 1.689
70 C3 33 2.177
70 C3 34 2.177
70 C3 35 2.177
70 C3 36 1.689
70 C3 37 1.200
70 C3 38 0.712
70 C3 39 -0.264
70 C3 40 -0.753
70 C3 41 -0.753
70 C3 42 -1.241
70 C3 43 -1.241
70 C3 44 -1.729
70 C3 45 -3.194
70 C3 46 -4.659
70 C3 47 -5.636
70 C3 48 -6.124
70 C3 49 -5.147
70 C3 50 -4.171
70 C3 51 -3.194
70 C3 52 -2.706
70 C3 53 -2.706
70 C3 54 -2.706
70 C3 55 -2.218
70 C3 56 -1.241
70 C3 57 -0.264
70 C3 58 0.712
70 C3 59 0.712
70 C3 60 0.712
70 C3 61 0.712
70 C3 62 1.200
70 C3 63 2.177
70 C3 64 2.665
70 C3 65 2.665
70 C3 66 3.153
70 C3 67 3.153
70 C3 68 3.153
70 C3 69 3.153
70 C3 70 2.177
70 C3 71 0.224
70 C3 72 -1.241
70 C3 73 -3.194
70 C3 74 -3.682
70 C3 75 -3.682
70 C3 76 -3.194
70 C3 77 -2.218
70 C3 78 -1.241
70 C3 79 -1.729
70 C3 80 -2.218
70 C3 81 -3.194
70 C3 82 -3.682
70 C3 83 -3.682
70 C3 84 -3.682
70 C3 85 -3.194
70 C3 86 -2.706
70 C3 87 -2.706
70 C3 88 -1.729
70 C3 89 -1.241
70 C3 90 -0.264
70 C3 91 0.712
70 C3 92 0.712
70 C3 93 0.712
70 C3 94 0.712
70 C3 95 1.200
70 C3 96 2.665
70 C3 97 3.642
70 C3 98 4.130
70 C3 99 3.153
70 C3 100 1.689
70 C3 101 -0.264
70 C3 102 -1.729
70 C3 103 -1.729
70 C3 104 -0.753
70 C3 105 0.224
70 C3 106 0.224
70 C3 107 -0.753
70 C3 108 -1.241
70 C3 109 -2.218
70 C3 110 -1.729
70 C3 111 -1.729
70 C3 112 -1.729
70 C3 113 -2.218
70 C3 114 -2.218
70 C3 115 -3.194
70 C3 116 -2.218
70 C3 117 -1.729
70 C3 118 -0.753
70 C3 119 -0.753
70 C3 120 -0.264
70 C3 121 -0.264
70 C3 122 0.224
70 C3 123 1.689
70 C3 124 2.177
70 C3 125 2.665
70 C3 126 2.665
70 C3 127 3.153
70 C3 128 3.153
70 C3 129 3.153
70 C3 130 1.689
70 C3 131 -0.753
70 C3 132 -2.706
70 C3 133 -4.171
70 C3 134 -4.659
70 C3 135 -3.682
70 C3 136 -3.682
70 C3 137 -3.682
70 C3 138 -5.147
70 C3 139 -6.124
70 C3 140 -6.124
70 C3 141 -4.659
70 C3 142 -2.218
70 C3 143 -0.753
70 C3 144 0.224
70 C3 145 0.224
70 C3 146 0.712
70 C3 147 1.689
70 C3 148 2.665
70 C3 149 3.153
70 C3 150 3.153
70 C3 151 2.177
70 C3 152 1.200
70 C3 153 0.224
70 C3 154 -0.264
70 C3 155 -1.241
70 C3 156 -1.241
70 C3 157 -2.218
70 C3 158 -3.194
70 C3 159 -3.682
70 C3 160 -3.682
70 C3 161 -4.171
70 C3 162 -4.171
70 C3 163 -4.659
70 C3 164 -4.659
70 C3 165 -5.147
70 C3 166 -5.147
70 C3 167 -4.659
70 C3 168 -4.659
70 C3 169 -5.147
70 C3 170 -5.147
70 C3 171 -5.636
70 C3 172 -5.636
70 C3 173 -5.147
70 C3 174 -4.659
70 C3 175 -4.171
70 C3 176 -4.171
70 C3 177 -4.171
70 C3 178 -3.682
70 C3 179 -3.194
70 C3 180 -2.706
70 C3 181 -1.729
70 C3 182 -1.241
70 C3 183 -0.753
70 C3 184 -0.753
70 C3 185 -0.753
70 C3 186 -0.753
70 C3 187 -1.729
70 C3 188 -2.706
70 C3 189 -4.171
70 C3 190 -6.612
70 C3 191 -8.565
70 C3 192 -9.542
70 C3 193 -8.565
70 C3 194 -6.612
70 C3 195 -4.171
70 C3 196 -2.218
70 C3 197 -0.753
70 C3 198 -0.264
70 C3 199 0.224
70 C3 200 1.200
70 C3 201 2.665
70 C3 202 3.642
70 C3 203 4.618
70 C3 204 4.618
70 C3 205 4.130
70 C3 206 4.130
70 C3 207 4.130
70 C3 208 4.618
70 C3 209 5.595
70 C3 210 5.107
70 C3 211 3.642
70 C3 212 1.689
70 C3 213 -0.753
70 C3 214 -2.218
70 C3 215 -3.194
70 C3 216 -2.706
70 C3 217 -2.218
70 C3 218 -2.706
70 C3 219 -3.194
70 C3 220 -3.682
70 C3 221 -4.171
70 C3 222 -3.194
70 C3 223 -2.218
70 C3 224 -1.241
70 C3 225 0.224
70 C3 226 1.689
70 C3 227 3.153
70 C3 228 4.130
70 C3 229 4.618
70 C3 230 4.618
70 C3 231 3.642
70 C3 232 2.665
70 C3 233 1.689
70 C3 234 1.200
70 C3 235 1.200
70 C3 236 0.712
70 C3 237 0.224
70 C3 238 -0.264
70 C3 239 -0.753
70 C3 240 -1.241
70 C3 241 -1.729
70 C3 242 -2.706
70 C3 243 -2.706
70 C3 244 -3.194
70 C3 245 -2.706
70 C3 246 -1.729
70 C3 247 -0.753
70 C3 248 0.712
70 C3 249 1.689
70 C3 250 2.665
70 C3 251 3.642
70 C3 252 3.642
70 C3 253 2.665
70 C3 254 0.712
70 C3 255 -0.753
# C4 chan 17
70 C4 0 0.203
70 C4 1 2.157
70 C4 2 3.133
70 C4 3 2.645
70 C4 4 1.180
70 C4 5 -1.261
70 C4 6 -3.215
70 C4 7 -4.191
70 C4 8 -5.168
70 C4 9 -6.144
70 C4 10 -6.632
70 C4 11 -6.632
70 C4 12 -6.144
70 C4 13 -4.679
70 C4 14 -2.726
70 C4 15 -0.773
70 C4 16 0.203
70 C4 17 0.203
70 C4 18 0.692
70 C4 19 0.203
70 C4 20 -0.285
70 C4 21 -0.285
70 C4 22 -0.285
70 C4 23 0.203
70 C4 24 1.668
70 C4 25 2.157
70 C4 26 2.157
70 C4 27 1.180
70 C4 28 0.203
70 C4 29 -0.773
70 C4 30 -1.750
70 C4 31 -2.726
70 C4 32 -3.703
70 C4 33 -5.168
70 C4 34 -5.168
70 C4 35 -4.679
70 C4 36 -3.703
70 C4 37 -2.726
70 C4 38 -2.726
70 C4 39 -3.703
70 C4 40 -4.679
70 C4 41 -5.168
70 C4 42 -3.703
70 C4 43 -1.750
70 C4 44 0.203
70 C4 45 1.180
70 C4 46 1.668
70 C4 47 1.668
70 C4 48 2.645
70 C4 49 3.621
70 C4 50 5.086
70 C4 51 5.086
70 C4 52 4.598
70 C4 53 3.621
70 C4 54 2.645
70 C4 55 1.668
70 C4 56 1.180
70 C4 57 0.203
70 C4 58 -1.261
70 C4 59 -2.726
70 C4 60 -4.679
70 C4 61 -5.656
70 C4 62 -7.121
70 C4 63 -8.097
70 C4 64 -9.562
70 C4 65 -11.027
70 C4 66 -11.515
70 C4 67 -10.539
70 C4 68 -8.586
70 C4 69 -4.679
70 C4 70 -1.261
70 C4 71 1.180
70 C4 72 2.157
70 C4 73 1.668
70 C4 74 0.692
70 C4 75 -0.285
70 C4 76 -1.261
70 C4 77 -2.238
70 C4 78 -3.215
70 C4 79 -4.191
70 C4 80 -4.679
70 C4 81 -5.168
70 C4 82 -5.168
70 C4 83 -5.656
70 C4 84 -6.632
70 C4 85 -8.097
70 C4 86 -9.562
70 C4 87 -10.539
70 C4 88 -11.027
70 C4 89 -10.050
70 C4 90 -9.074
70 C4 91 -7.609
70 C4 92 -6.144
70 C4 93 -4.191
70 C4 94 -2.238
70 C4 95 -0.285
70 C4 96 1.180
70 C4 97 1.668
70 C4 98 1.668
70 C4 99 0.692
70 C4 100 0.203
70 C4 101 -0.285
70 C4 102 -1.261
70 C4 103 -2.726
70 C4 104 -3.703
70 C4 105 -4.679
70 C4 106 -5.656
70 C4 107 -5.656
70 C4 108 -5.656
70 C4 109 -5.656
70 C4 110 -5.168
70 C4 111 -5.168
70 C4 112 -5.168
70 C4 113 -4.679
70 C4 114 -3.703
70 C4 115 -2.726
70 C4 116 -1.261
70 C4 117 -0.285
70 C4 118 0.692
70 C4 119 1.180
70 C4 120 2.157
70 C4 121 2.645
70 C4 122 2.157
70 C4 123 1.180
70 C4 124 -0.773
70 C4 125 -2.238
70 C4 126 -3.215
70 C4 127 -3.215
70 C4 128 -2.726
70 C4 129 -2.238
70 C4 130 -1.750
70 C4 131 -1.750
70 C4 132 -1.261
70 C4 133 -1.261
70 C4 134 -1.261
70 C4 135 -1.261
70 C4 136 -1.750
70 C4 137 -1.750
70 C4 138 -1.261
70 C4 139 -0.773
70 C4 140 -0.285
70 C4 141 -0.285
70 C4 142 -0.285
70 C4 143 -0.773
70 C4 144 -1.261
70 C4 145 -1.750
70 C4 146 -3.215
70 C4 147 -4.679
70 C4 148 -5.656
70 C4 149 -6.144
70 C4 150 -5.656
70 C4 151 -4.191
70 C4 152 -2.238
70 C4 153 0.203
70 C4 154 2.157
70 C4 155 4.110
70 C4 156 5.575
70 C4 157 6.063
70 C4 158 5.086
70 C4 159 4.110
70 C4 160 2.157
70 C4 161 0.203
70 C4 162 -1.261
70 C4 163 -2.238
70 C4 164 -3.215
70 C4 165 -3.703
70 C4 166 -4.679
70 C4 167 -6.144
70 C4 168 -7.609
70 C4 169 -9.074
70 C4 170 -10.539
70 C4 171 -10.539
70 C4 172 -9.562
70 C4 173 -7.609
70 C4 174 -5.168
70 C4 175 -2.238
70 C4 176 0.203
70 C4 177 2.157
70 C4 178 3.621
70 C4 179 4.598
70 C4 180 5.575
70 C4 181 6.063
70 C4 182 6.063
70 C4 183 5.575
70 C4 184 5.086
70 C4 185 4.110
70 C4 186 4.110
70 C4 187 3.133
70 C4 188 2.645
70 C4 189 2.157
70 C4 190 0.692
70 C4 191 -0.773
70 C4 192 -2.238
70 C4 193 -3.703
70 C4 194 -5.168
70 C4 195 -5.656
70 C4 196 -6.632
70 C4 197 -7.121
70 C4 198 -8.097
70 C4 199 -9.562
70 C4 200 -10.539
70 C4 201 -10.539
70 C4 202 -9.562
70 C4 203 -7.609
70 C4 204 -6.144
70 C4 205 -4.679
70 C4 206 -4.191
70 C4 207 -3.703
70 C4 208 -2.726
70 C4 209 -0.773
70 C4 210 0.203
70 C4 211 1.668
70 C4 212 2.157
70 C4 213 2.645
70 C4 214 2.157
70 C4 215 1.668
70 C4 216 1.180
70 C4 217 -0.285
70 C4 218 -1.261
70 C4 219 -1.750
70 C4 220 -1.750
70 C4 221 -1.750
70 C4 222 -1.750
70 C4 223 -2.238
70 C4 224 -2.726
70 C4 225 -3.703
70 C4 226 -4.191
70 C4 227 -5.168
70 C4 228 -5.656
70 C4 229 -6.144
70 C4 230 -5.656
70 C4 231 -4.679
70 C4 232 -2.726
70 C4 233 0.203
70 C4 234 2.645
70 C4 235 4.598
70 C4 236 5.575
70 C4 237 6.063
70 C4 238 5.575
70 C4 239 5.086
70 C4 240 4.598
70 C4 241 3.621
70 C4 242 2.157
70 C4 243 0.203
70 C4 244 -1.750
70 C4 245 -3.703
70 C4 246 -5.168
70 C4 247 -6.632
70 C4 248 -7.609
70 C4 249 -8.586
70 C4 250 -9.562
70 C4 251 -9.562
70 C4 252 -8.586
70 C4 253 -6.632
70 C4 254 -4.679
70 C4 255 -2.238
# CP5 chan 18
70 CP5 0 4.720
70 CP5 1 4.720
70 CP5 2 4.232
70 CP5 3 4.232
70 CP5 4 4.720
70 CP5 5 4.720
70 CP5 6 4.232
70 CP5 7 3.255
70 CP5 8 1.302
70 CP5 9 -1.139
70 CP5 10 -3.092
70 CP5 11 -4.557
70 CP5 12 -5.534
70 CP5 13 -6.510
70 CP5 14 -7.975
70 CP5 15 -9.928
70 CP5 16 -11.393
70 CP5 17 -11.882
70 CP5 18 -11.393
70 CP5 19 -9.440
70 CP5 20 -6.999
70 CP5 21 -4.557
70 CP5 22 -2.604
70 CP5 23 -1.628
70 CP5 24 -0.651
70 CP5 25 0.814
70 CP5 26 2.767
70 CP5 27 4.232
70 CP5 28 5.697
70 CP5 29 6.673
70 CP5 30 6.185
70 CP5 31 5.208
70 CP5 32 4.232
70 CP5 33 2.767
70 CP5 34 2.279
70 CP5 35 1.790
70 CP5 36 1.302
70 CP5 37 0.326
70 CP5 38 -1.139
70 CP5 39 -2.604
70 CP5 40 -4.069
70 CP5 41 -4.557
70 CP5 42 -4.557
70 CP5 43 -3.581
70 CP5 44 -2.604
70 CP5 45 -2.116
70 CP5 46 -3.092
70 CP5 47 -4.557
70 CP5 48 -6.022
70 CP5 49 -6.510
70 CP5 50 -6.022
70 CP5 51 -3.581
70 CP5 52 -1.628
70 CP5 53 -0.163
70 CP5 54 1.790
70 CP5 55 3.255
70 CP5 56 4.232
70 CP5 57 4.720
70 CP5 58 4.720
70 CP5 59 4.232
70 CP5 60 3.255
70 CP5 61 2.767
70 CP5 62 3.255
70 CP5 63 4.232
70 CP5 64 5.208
70 CP5 65 5.697
70 CP5 66 4.720
70 CP5 67 3.743
70 CP5 68 2.279
70 CP5 69 0.814
70 CP5 70 -0.163
70 CP5 71 -1.139
70 CP5 72 -2.604
70 CP5 73 -3.092
70 CP5 74 -3.581
70 CP5 75 -3.581
70 CP5 76 -2.604
70 CP5 77 -1.628
70 CP5 78 -0.163
70 CP5 79 0.814
70 CP5 80 0.814
70 CP5 81 0.814
70 CP5 82 -0.163
70 CP5 83 -0.651
70 CP5 84 -0.651
70 CP5 85 -0.163
70 CP5 86 0.326
70 CP5 87 1.302
70 CP5 88 2.767
70 CP5 89 4.232
70 CP5 90 6.673
70 CP5 91 8.138
70 CP5 92 9.115
70 CP5 93 8.626
70 CP5 94 8.138
70 CP5 95 8.626
70 CP5 96 9.603
70 CP5 97 10.579
70 CP5 98 10.579
70 CP5 99 9.115
70 CP5 100 6.185
70 CP5 101 4.232
70 CP5 102 3.255
70 CP5 103 3.743
70 CP5 104 4.232
70 CP5 105 4.720
70 CP5 106 4.232
70 CP5 107 3.255
70 CP5 108 2.767
70 CP5 109 3.255
70 CP5 110 4.232
70 CP5 111 4.720
70 CP5 112 4.232
70 CP5 113 3.255
70 CP5 114 1.790
70 CP5 115 1.302
70 CP5 116 1.790
70 CP5 117 3.255
70 CP5 118 4.232
70 CP5 119 5.208
70 CP5 120 6.185
70 CP5 121 7.161
70 CP5 122 8.138
70 CP5 123 9.115
70 CP5 124 9.603
70 CP5 125 9.115
70 CP5 126 8.626
70 CP5 127 8.138
70 CP5 128 7.161
70 CP5 129 6.185
70 CP5 130 4.232
70 CP5 131 1.790
70 CP5 132 -0.163
70 CP5 133 -1.139
70 CP5 134 -0.651
70 CP5 135 -0.163
70 CP5 136 0.814
70 CP5 137 0.326
70 CP5 138 -0.163
70 CP5 139 -0.163
70 CP5 140 0.814
70 CP5 141 2.767
70 CP5 142 5.208
70 CP5 143 6.673
70 CP5 144 7.650
70 CP5 145 7.161
70 CP5 146 7.161
70 CP5 147 7.161
70 CP5 148 7.161
70 CP5 149 7.650
70 CP5 150 7.161
70 CP5 151 6.673
70 CP5 152 5.697
70 CP5 153 5.697
70 CP5 154 5.697
70 CP5 155 5.697
70 CP5 156 4.720
70 CP5 157 3.743
70 CP5 158 2.279
70 CP5 159 1.790
70 CP5 160 0.814
70 CP5 161 0.814
70 CP5 162 0.814
70 CP5 163 -0.163
70 CP5 164 -0.651
70 CP5 165 -1.139
70 CP5 166 -0.651
70 CP5 167 -1.139
70 CP5 168 -1.139
70 CP5 169 -2.604
70 CP5 170 -4.557
70 CP5 171 -5.534
70 CP5 172 -5.534
70 CP5 173 -4.069
70 CP5 174 -1.139
70 CP5 175 1.302
70 CP5 176 3.255
70 CP5 177 3.743
70 CP5 178 3.743
70 CP5 179 3.743
70 CP5 180 4.232
70 CP5 181 4.232
70 CP5 182 4.720
70 CP5 183 4.720
70 CP5 184 5.208
70 CP5 185 5.208
70 CP5 186 5.208
70 CP5 187 4.720
70 CP5 188 3.743
70 CP5 189 0.326
70 CP5 190 -3.581
70 CP5 191 -7.975
70 CP5 192 -9.440
70 CP5 193 -8.464
70 CP5 194 -5.046
70 CP5 195 -0.163
70 CP5 196 4.232
70 CP5 197 6.673
70 CP5 198 7.650
70 CP5 199 7.161
70 CP5 200 6.673
70 CP5 201 6.185
70 CP5 202 6.185
70 CP5 203 6.185
70 CP5 204 6.185
70 CP5 205 6.673
70 CP5 206 7.161
70 CP5 207 8.138
70 CP5 208 9.115
70 CP5 209 9.603
70 CP5 210 9.115
70 CP5 211 7.650
70 CP5 212 5.697
70 CP5 213 4.232
70 CP5 214 2.767
70 CP5 215 1.790
70 CP5 216 1.302
70 CP5 217 0.326
70 CP5 218 -0.163
70 CP5 219 -0.651
70 CP5 220 -1.628
70 CP5 221 -2.116
70 CP5 222 -2.116
70 CP5 223 -1.139
70 CP5 224 0.326
70 CP5 225 2.279
70 CP5 226 5.208
70 CP5 227 8.138
70 CP5 228 10.579
70 CP5 229 12.533
70 CP5 230 12.533
70 CP5 231 11.556
70 CP5 232 11.068
70 CP5 233 10.091
70 CP5 234 9.603
70 CP5 235 9.115
70 CP5 236 8.626
70 CP5 237 6.673
70 CP5 238 4.720
70 CP5 239 2.279
70 CP5 240 0.326
70 CP5 241 -0.651
70 CP5 242 -2.116
70 CP5 243 -2.604
70 CP5 244 -3.581
70 CP5 245 -3.092
70 CP5 246 -2.116
70 CP5 247 0.326
70 CP5 248 2.767
70 CP5 249 5.697
70 CP5 250 7.650
70 CP5 251 9.115
70 CP5 252 10.091
70 CP5 253 10.579
70 CP5 254 9.603
70 CP5 255 9.115
# CP6 chan 19
70 CP6 0 12.533
70 CP6 1 12.533
70 CP6 2 11.556
70 CP6 3 9.603
70 CP6 4 7.161
70 CP6 5 4.720
70 CP6 6 1.302
70 CP6 7 -2.116
70 CP6 8 -6.510
70 CP6 9 -10.905
70 CP6 10 -14.323
70 CP6 11 -16.276
70 CP6 12 -15.788
70 CP6 13 -14.323
70 CP6 14 -12.370
70 CP6 15 -10.417
70 CP6 16 -8.464
70 CP6 17 -5.534
70 CP6 18 -1.139
70 CP6 19 3.255
70 CP6 20 7.161
70 CP6 21 9.603
70 CP6 22 11.068
70 CP6 23 12.533
70 CP6 24 13.021
70 CP6 25 13.509
70 CP6 26 13.509
70 CP6 27 12.533
70 CP6 28 11.068
70 CP6 29 9.115
70 CP6 30 7.161
70 CP6 31 5.208
70 CP6 32 1.790
70 CP6 33 -2.116
70 CP6 34 -6.022
70 CP6 35 -8.464
70 CP6 36 -9.440
70 CP6 37 -9.928
70 CP6 38 -10.905
70 CP6 39 -11.393
70 CP6 40 -11.882
70 CP6 41 -10.905
70 CP6 42 -6.999
70 CP6 43 -2.116
70 CP6 44 3.255
70 CP6 45 7.161
70 CP6 46 8.626
70 CP6 47 9.115
70 CP6 48 10.091
70 CP6 49 11.068
70 CP6 50 12.533
70 CP6 51 13.997
70 CP6 52 13.997
70 CP6 53 13.021
70 CP6 54 11.068
70 CP6 55 9.603
70 CP6 56 7.650
70 CP6 57 6.673
70 CP6 58 4.232
70 CP6 59 2.279
70 CP6 60 -0.163
70 CP6 61 -2.116
70 CP6 62 -3.581
70 CP6 63 -4.069
70 CP6 64 -5.046
70 CP6 65 -6.510
70 CP6 66 -8.464
70 CP6 67 -9.440
70 CP6 68 -8.464
70 CP6 69 -6.510
70 CP6 70 -3.581
70 CP6 71 -1.139
70 CP6 72 -0.163
70 CP6 73 -0.163
70 CP6 74 -0.651
70 CP6 75 -1.628
70 CP6 76 -2.116
70 CP6 77 -2.604
70 CP6 78 -3.092
70 CP6 79 -3.092
70 CP6 80 -3.581
70 CP6 81 -3.581
70 CP6 82 -3.581
70 CP6 83 -3.581
70 CP6 84 -4.069
70 CP6 85 -4.557
70 CP6 86 -4.557
70 CP6 87 -4.069
70 CP6 88 -3.092
70 CP6 89 -2.116
70 CP6 90 -0.651
70 CP6 91 0.814
70 CP6 92 2.279
70 CP6 93 3.743
70 CP6 94 4.720
70 CP6 95 5.208
70 CP6 96 4.232
70 CP6 97 2.279
70 CP6 98 0.326
70 CP6 99 -1.628
70 CP6 100 -3.581
70 CP6 101 -4.557
70 CP6 102 -5.534
70 CP6 103 -5.534
70 CP6 104 -6.022
70 CP6 105 -6.022
70 CP6 106 -6.510
70 CP6 107 -6.022
70 CP6 108 -5.534
70 CP6 109 -4.557
70 CP6 110 -3.092
70 CP6 111 -2.116
70 CP6 112 -1.628
70 CP6 113 -1.139
70 CP6 114 -0.163
70 CP6 115 0.814
70 CP6 116 1.302
70 CP6 117 1.790
70 CP6 118 1.790
70 CP6 119 2.279
70 CP6 120 2.279
70 CP6 121 2.767
70 CP6 122 1.790
70 CP6 123 -0.651
70 CP6 124 -3.092
70 CP6 125 -5.534
70 CP6 126 -6.510
70 CP6 127 -6.510
70 CP6 128 -5.534
70 CP6 129 -5.046
70 CP6 130 -5.046
70 CP6 131 -6.022
70 CP6 132 -6.999
70 CP6 133 -6.999
70 CP6 134 -6.510
70 CP6 135 -6.022
70 CP6 136 -6.022
70 CP6 137 -5.046
70 CP6 138 -4.069
70 CP6 139 -3.092
70 CP6 140 -1.628
70 CP6 141 -0.651
70 CP6 142 -0.651
70 CP6 143 -2.116
70 CP6 144 -4.069
70 CP6 145 -7.487
70 CP6 146 -10.905
70 CP6 147 -13.835
70 CP6 148 -16.764
70 CP6 149 -18.717
70 CP6 150 -19.694
70 CP6 151 -19.206
70 CP6 152 -16.764
70 CP6 153 -13.835
70 CP6 154 -9.440
70 CP6 155 -5.534
70 CP6 156 -3.092
70 CP6 157 -2.116
70 CP6 158 -3.092
70 CP6 159 -5.046
70 CP6 160 -7.487
70 CP6 161 -9.928
70 CP6 162 -11.882
70 CP6 163 -13.346
70 CP6 164 -14.811
70 CP6 165 -15.299
70 CP6 166 -15.788
70 CP6 167 -17.253
70 CP6 168 -18.717
70 CP6 169 -21.647
70 CP6 170 -25.065
70 CP6 171 -28.483
70 CP6 172 -29.460
70 CP6 173 -28.971
70 CP6 174 -25.553
70 CP6 175 -20.671
70 CP6 176 -15.299
70 CP6 177 -9.928
70 CP6 178 -6.510
70 CP6 179 -4.557
70 CP6 180 -3.581
70 CP6 181 -3.581
70 CP6 182 -3.581
70 CP6 183 -3.581
70 CP6 184 -3.092
70 CP6 185 -1.628
70 CP6 186 -0.651
70 CP6 187 -0.163
70 CP6 188 -0.163
70 CP6 189 -1.628
70 CP6 190 -4.069
70 CP6 191 -6.999
70 CP6 192 -9.440
70 CP6 193 -10.905
70 CP6 194 -11.882
70 CP6 195 -12.370
70 CP6 196 -12.858
70 CP6 197 -14.323
70 CP6 198 -16.764
70 CP6 199 -20.182
70 CP6 200 -23.112
70 CP6 201 -24.577
70 CP6 202 -24.577
70 CP6 203 -23.112
70 CP6 204 -21.159
70 CP6 205 -19.206
70 CP6 206 -17.253
70 CP6 207 -14.323
70 CP6 208 -10.905
70 CP6 209 -6.999
70 CP6 210 -3.092
70 CP6 211 -0.163
70 CP6 212 0.814
70 CP6 213 1.302
70 CP6 214 0.814
70 CP6 215 -0.163
70 CP6 216 -0.651
70 CP6 217 -1.139
70 CP6 218 -2.116
70 CP6 219 -3.092
70 CP6 220 -3.581
70 CP6 221 -4.557
70 CP6 222 -4.557
70 CP6 223 -4.069
70 CP6 224 -4.069
70 CP6 225 -4.557
70 CP6 226 -5.046
70 CP6 227 -5.046
70 CP6 228 -5.046
70 CP6 229 -4.557
70 CP6 230 -4.069
70 CP6 231 -3.092
70 CP6 232 -1.139
70 CP6 233 1.790
70 CP6 234 5.208
70 CP6 235 7.650
70 CP6 236 9.603
70 CP6 237 9.115
70 CP6 238 8.138
70 CP6 239 6.673
70 CP6 240 5.208
70 CP6 241 3.743
70 CP6 242 1.790
70 CP6 243 -0.163
70 CP6 244 -2.604
70 CP6 245 -4.557
70 CP6 246 -5.534
70 CP6 247 -5.534
70 CP6 248 -4.069
70 CP6 249 -2.604
70 CP6 250 -1.628
70 CP6 251 -0.651
70 CP6 252 -0.163
70 CP6 253 0.326
70 CP6 254 2.279
70 CP6 255 4.232
# CP1 chan 20
70 CP1 0 0.651
70 CP1 1 -0.814
70 CP1 2 -1.302
70 CP1 3 -1.790
70 CP1 4 -1.790
70 CP1 5 -0.814
70 CP1 6 -0.326
70 CP1 7 0.163
70 CP1 8 0.163
70 CP1 9 0.651
70 CP1 10 0.163
70 CP1 11 -0.326
70 CP1 12 -1.790
70 CP1 13 -3.743
70 CP1 14 -5.208
70 CP1 15 -6.185
70 CP1 16 -6.673
70 CP1 17 -6.673
70 CP1 18 -5.697
70 CP1 19 -3.743
70 CP1 20 -1.790
70 CP1 21 0.651
70 CP1 22 2.116
70 CP1 23 2.604
70 CP1 24 2.604
70 CP1 25 2.116
70 CP1 26 1.628
70 CP1 27 1.628
70 CP1 28 2.116
70 CP1 29 2.116
70 CP1 30 1.139
70 CP1 31 -0.326
70 CP1 32 -1.790
70 CP1 33 -3.255
70 CP1 34 -3.743
70 CP1 35 -4.232
70 CP1 36 -4.232
70 CP1 37 -4.232
70 CP1 38 -4.232
70 CP1 39 -4.232
70 CP1 40 -3.743
70 CP1 41 -2.767
70 CP1 42 -1.302
70 CP1 43 -0.814
70 CP1 44 -0.326
70 CP1 45 -0.326
70 CP1 46 -0.326
70 CP1 47 -0.814
70 CP1 48 -1.790
70 CP1 49 -2.767
70 CP1 50 -3.255
70 CP1 51 -3.255
70 CP1 52 -2.767
70 CP1 53 -2.279
70 CP1 54 -1.790
70 CP1 55 -1.302
70 CP1 56 -1.302
70 CP1 57 -1.302
70 CP1 58 -1.302
70 CP1 59 -1.790
70 CP1 60 -2.279
70 CP1 61 -2.279
70 CP1 62 -2.279
70 CP1 63 -1.790
70 CP1 64 -0.814
70 CP1 65 -0.326
70 CP1 66 0.163
70 CP1 67 0.163
70 CP1 68 -0.326
70 CP1 69 -0.326
70 CP1 70 0.163
70 CP1 71 0.651
70 CP1 72 1.139
70 CP1 73 1.628
70 CP1 74 1.139
70 CP1 75 1.139
70 CP1 76 1.139
70 CP1 77 1.628
70 CP1 78 2.116
70 CP1 79 2.116
70 CP1 80 1.628
70 CP1 81 0.651
70 CP1 82 -0.326
70 CP1 83 -1.302
70 CP1 84 -1.790
70 CP1 85 -2.279
70 CP1 86 -2.279
70 CP1 87 -2.767
70 CP1 88 -2.767
70 CP1 89 -1.790
70 CP1 90 -0.814
70 CP1 91 0.651
70 CP1 92 2.116
70 CP1 93 2.604
70 CP1 94 2.604
70 CP1 95 2.604
70 CP1 96 2.604
70 CP1 97 2.604
70 CP1 98 2.604
70 CP1 99 2.604
70 CP1 100 1.628
70 CP1 101 1.139
70 CP1 102 0.163
70 CP1 103 0.163
70 CP1 104 -0.326
70 CP1 105 -0.814
70 CP1 106 -1.302
70 CP1 107 -1.790
70 CP1 108 -2.279
70 CP1 109 -2.767
70 CP1 110 -2.767
70 CP1 111 -2.767
70 CP1 112 -2.767
70 CP1 113 -2.767
70 CP1 114 -2.279
70 CP1 115 -1.302
70 CP1 116 -0.326
70 CP1 117 0.163
70 CP1 118 0.163
70 CP1 119 -0.326
70 CP1 120 -0.814
70 CP1 121 -1.302
70 CP1 122 -1.302
70 CP1 123 -1.302
70 CP1 124 -1.790
70 CP1 125 -2.767
70 CP1 126 -3.255
70 CP1 127 -3.743
70 CP1 128 -3.743
70 CP1 129 -4.232
70 CP1 130 -4.232
70 CP1 131 -4.232
70 CP1 132 -4.720
70 CP1 133 -4.232
70 CP1 134 -3.743
70 CP1 135 -2.279
70 CP1 136 -1.790
70 CP1 137 -0.814
70 CP1 138 -0.814
70 CP1 139 -0.814
70 CP1 140 -0.814
70 CP1 141 -0.814
70 CP1 142 -0.326
70 CP1 143 -0.814
70 CP1 144 -1.302
70 CP1 145 -2.279
70 CP1 146 -3.743
70 CP1 147 -4.720
70 CP1 148 -5.697
70 CP1 149 -5.697
70 CP1 150 -5.697
70 CP1 151 -5.697
70 CP1 152 -6.185
70 CP1 153 -7.161
70 CP1 154 -7.161
70 CP1 155 -6.673
70 CP1 156 -5.697
70 CP1 157 -4.232
70 CP1 158 -3.255
70 CP1 159 -2.767
70 CP1 160 -2.767
70 CP1 161 -2.767
70 CP1 162 -3.255
70 CP1 163 -3.743
70 CP1 164 -4.720
70 CP1 165 -5.208
70 CP1 166 -5.697
70 CP1 167 -5.208
70 CP1 168 -5.208
70 CP1 169 -5.697
70 CP1 170 -6.673
70 CP1 171 -8.138
70 CP1 172 -9.115
70 CP1 173 -9.115
70 CP1 174 -7.650
70 CP1 175 -6.185
70 CP1 176 -4.232
70 CP1 177 -3.255
70 CP1 178 -2.767
70 CP1 179 -2.279
70 CP1 180 -1.790
70 CP1 181 -1.790
70 CP1 182 -1.302
70 CP1 183 -0.814
70 CP1 184 -0.326
70 CP1 185 0.163
70 CP1 186 1.139
70 CP1 187 2.116
70 CP1 188 2.116
70 CP1 189 1.628
70 CP1 190 0.163
70 CP1 191 -1.302
70 CP1 192 -1.790
70 CP1 193 -0.814
70 CP1 194 0.651
70 CP1 195 2.604
70 CP1 196 3.092
70 CP1 197 2.604
70 CP1 198 1.139
70 CP1 199 -0.326
70 CP1 200 -1.790
70 CP1 201 -2.279
70 CP1 202 -2.279
70 CP1 203 -3.255
70 CP1 204 -3.743
70 CP1 205 -4.232
70 CP1 206 -4.232
70 CP1 207 -3.255
70 CP1 208 -2.279
70 CP1 209 -0.814
70 CP1 210 0.651
70 CP1 211 0.651
70 CP1 212 0.651
70 CP1 213 -0.326
70 CP1 214 -0.326
70 CP1 215 0.163
70 CP1 216 1.628
70 CP1 217 2.604
70 CP1 218 3.092
70 CP1 219 2.604
70 CP1 220 1.628
70 CP1 221 1.628
70 CP1 222 1.628
70 CP1 223 2.116
70 CP1 224 2.116
70 CP1 225 2.116
70 CP1 226 2.116
70 CP1 227 2.604
70 CP1 228 3.581
70 CP1 229 5.046
70 CP1 230 5.534
70 CP1 231 5.534
70 CP1 232 4.557
70 CP1 233 4.069
70 CP1 234 3.581
70 CP1 235 3.092
70 CP1 236 2.604
70 CP1 237 1.628
70 CP1 238 0.651
70 CP1 239 -0.326
70 CP1 240 -0.326
70 CP1 241 0.163
70 CP1 242 0.651
70 CP1 243 0.651
70 CP1 244 0.651
70 CP1 245 0.651
70 CP1 246 2.116
70 CP1 247 4.069
70 CP1 248 6.022
70 CP1 249 6.999
70 CP1 250 7.975
70 CP1 251 7.975
70 CP1 252 7.487
70 CP1 253 7.487
70 CP1 254 7.487
70 CP1 255 6.999
# CP2 chan 21
70 CP2 0 4.038
70 CP2 1 3.550
70 CP2 2 2.085
70 CP2 3 0.132
70 CP2 4 -1.821
70 CP2 5 -3.286
70 CP2 6 -4.262
70 CP2 7 -5.239
70 CP2 8 -6.704
70 CP2 9 -7.680
70 CP2 10 -8.657
70 CP2 11 -8.169
70 CP2 12 -6.704
70 CP2 13 -5.239
70 CP2 14 -3.774
70 CP2 15 -2.309
70 CP2 16 -1.821
70 CP2 17 -0.844
70 CP2 18 0.621
70 CP2 19 2.574
70 CP2 20 5.015
70 CP2 21 6.968
70 CP2 22 7.945
70 CP2 23 8.433
70 CP2 24 7.945
70 CP2 25 7.456
70 CP2 26 6.480
70 CP2 27 5.503
70 CP2 28 4.527
70 CP2 29 3.550
70 CP2 30 2.085
70 CP2 31 0.132
70 CP2 32 -2.309
70 CP2 33 -4.751
70 CP2 34 -6.704
70 CP2 35 -7.680
70 CP2 36 -8.169
70 CP2 37 -8.657
70 CP2 38 -9.145
70 CP2 39 -9.145
70 CP2 40 -7.680
70 CP2 41 -4.751
70 CP2 42 -0.844
70 CP2 43 2.574
70 CP2 44 5.015
70 CP2 45 6.480
70 CP2 46 6.968
70 CP2 47 6.480
70 CP2 48 6.480
70 CP2 49 6.480
70 CP2 50 5.992
70 CP2 51 5.503
70 CP2 52 5.015
70 CP2 53 4.038
70 CP2 54 2.574
70 CP2 55 1.109
70 CP2 56 -0.356
70 CP2 57 -1.333
70 CP2 58 -2.309
70 CP2 59 -3.286
70 CP2 60 -3.774
70 CP2 61 -4.751
70 CP2 62 -5.239
70 CP2 63 -5.727
70 CP2 64 -6.215
70 CP2 65 -7.192
70 CP2 66 -7.680
70 CP2 67 -7.680
70 CP2 68 -6.704
70 CP2 69 -3.774
70 CP2 70 0.132
70 CP2 71 3.550
70 CP2 72 5.503
70 CP2 73 5.992
70 CP2 74 5.503
70 CP2 75 4.527
70 CP2 76 4.038
70 CP2 77 3.550
70 CP2 78 3.062
70 CP2 79 2.574
70 CP2 80 1.597
70 CP2 81 0.621
70 CP2 82 -0.844
70 CP2 83 -1.821
70 CP2 84 -2.309
70 CP2 85 -3.774
70 CP2 86 -4.751
70 CP2 87 -5.239
70 CP2 88 -4.751
70 CP2 89 -4.262
70 CP2 90 -2.797
70 CP2 91 -0.844
70 CP2 92 0.132
70 CP2 93 1.109
70 CP2 94 1.597
70 CP2 95 1.109
70 CP2 96 1.109
70 CP2 97 0.621
70 CP2 98 0.621
70 CP2 99 0.621
70 CP2 100 1.109
70 CP2 101 1.109
70 CP2 102 1.109
70 CP2 103 0.132
70 CP2 104 -0.356
70 CP2 105 -0.844
70 CP2 106 -0.844
70 CP2 107 -1.821
70 CP2 108 -1.821
70 CP2 109 -2.309
70 CP2 110 -2.309
70 CP2 111 -2.309
70 CP2 112 -1.821
70 CP2 113 -1.821
70 CP2 114 -0.844
70 CP2 115 -0.356
70 CP2 116 0.621
70 CP2 117 1.109
70 CP2 118 1.597
70 CP2 119 1.109
70 CP2 120 0.621
70 CP2 121 -0.356
70 CP2 122 -2.309
70 CP2 123 -3.774
70 CP2 124 -5.727
70 CP2 125 -6.215
70 CP2 126 -6.704
70 CP2 127 -6.704
70 CP2 128 -6.215
70 CP2 129 -6.215
70 CP2 130 -5.727
70 CP2 131 -5.239
70 CP2 132 -4.262
70 CP2 133 -2.797
70 CP2 134 -1.821
70 CP2 135 -0.356
70 CP2 136 0.621
70 CP2 137 1.597
70 CP2 138 2.085
70 CP2 139 2.574
70 CP2 140 2.574
70 CP2 141 2.085
70 CP2 142 2.085
70 CP2 143 0.621
70 CP2 144 -0.844
70 CP2 145 -3.286
70 CP2 146 -6.215
70 CP2 147 -8.657
70 CP2 148 -10.122
70 CP2 149 -11.587
70 CP2 150 -11.587
70 CP2 151 -11.587
70 CP2 152 -10.610
70 CP2 153 -9.145
70 CP2 154 -6.215
70 CP2 155 -3.286
70 CP2 156 -0.356
70 CP2 157 1.597
70 CP2 158 2.085
70 CP2 159 2.085
70 CP2 160 1.109
70 CP2 161 -0.356
70 CP2 162 -0.844
70 CP2 163 -1.333
70 CP2 164 -1.821
70 CP2 165 -2.797
70 CP2 166 -3.774
70 CP2 167 -4.262
70 CP2 168 -5.239
70 CP2 169 -6.215
70 CP2 170 -7.680
70 CP2 171 -9.145
70 CP2 172 -9.633
70 CP2 173 -9.633
70 CP2 174 -8.657
70 CP2 175 -6.215
70 CP2 176 -3.774
70 CP2 177 -1.333
70 CP2 178 0.132
70 CP2 179 1.109
70 CP2 180 1.597
70 CP2 181 1.597
70 CP2 182 1.109
70 CP2 183 1.109
70 CP2 184 1.109
70 CP2 185 1.597
70 CP2 186 2.085
70 CP2 187 2.574
70 CP2 188 3.550
70 CP2 189 3.550
70 CP2 190 3.062
70 CP2 191 2.085
70 CP2 192 1.597
70 CP2 193 1.109
70 CP2 194 1.597
70 CP2 195 2.085
70 CP2 196 2.085
70 CP2 197 1.597
70 CP2 198 -0.356
70 CP2 199 -2.797
70 CP2 200 -5.727
70 CP2 201 -7.680
70 CP2 202 -8.657
70 CP2 203 -8.657
70 CP2 204 -8.657
70 CP2 205 -8.657
70 CP2 206 -8.169
70 CP2 207 -6.704
70 CP2 208 -4.262
70 CP2 209 -1.821
70 CP2 210 0.621
70 CP2 211 3.062
70 CP2 212 4.038
70 CP2 213 4.038
70 CP2 214 4.038
70 CP2 215 4.527
70 CP2 216 4.527
70 CP2 217 5.015
70 CP2 218 5.015
70 CP2 219 4.527
70 CP2 220 3.550
70 CP2 221 3.062
70 CP2 222 2.574
70 CP2 223 2.085
70 CP2 224 1.597
70 CP2 225 0.621
70 CP2 226 -0.356
70 CP2 227 -1.333
70 CP2 228 -2.309
70 CP2 229 -2.309
70 CP2 230 -1.821
70 CP2 231 -0.356
70 CP2 232 1.109
70 CP2 233 2.574
70 CP2 234 4.038
70 CP2 235 4.527
70 CP2 236 5.015
70 CP2 237 4.527
70 CP2 238 4.038
70 CP2 239 3.550
70 CP2 240 3.550
70 CP2 241 3.062
70 CP2 242 3.062
70 CP2 243 2.085
70 CP2 244 1.109
70 CP2 245 0.621
70 CP2 246 0.621
70 CP2 247 0.621
70 CP2 248 1.109
70 CP2 249 2.085
70 CP2 250 3.062
70 CP2 251 3.550
70 CP2 252 3.550
70 CP2 253 4.038
70 CP2 254 4.527
70 CP2 255 5.015
# P3 chan 22
70 P3 0 2.197
70 P3 1 0.244
70 P3 2 -1.221
70 P3 3 -1.221
70 P3 4 -1.221
70 P3 5 -0.244
70 P3 6 -0.244
70 P3 7 -0.244
70 P3 8 -1.221
70 P3 9 -2.686
70 P3 10 -4.150
70 P3 11 -6.104
70 P3 12 -7.568
70 P3 13 -9.521
70 P3 14 -10.986
70 P3 15 -12.939
70 P3 16 -14.404
70 P3 17 -13.916
70 P3 18 -11.963
70 P3 19 -8.545
70 P3 20 -4.639
70 P3 21 -1.221
70 P3 22 0.732
70 P3 23 1.221
70 P3 24 1.709
70 P3 25 1.709
70 P3 26 2.197
70 P3 27 2.686
70 P3 28 2.686
70 P3 29 2.197
70 P3 30 0.732
70 P3 31 -1.221
70 P3 32 -2.686
70 P3 33 -3.662
70 P3 34 -4.639
70 P3 35 -4.639
70 P3 36 -5.127
70 P3 37 -5.615
70 P3 38 -6.592
70 P3 39 -6.592
70 P3 40 -6.592
70 P3 41 -5.127
70 P3 42 -3.174
70 P3 43 -1.221
70 P3 44 0.244
70 P3 45 -0.244
70 P3 46 -1.221
70 P3 47 -2.686
70 P3 48 -4.150
70 P3 49 -4.639
70 P3 50 -4.639
70 P3 51 -3.662
70 P3 52 -2.686
70 P3 53 -2.197
70 P3 54 -1.221
70 P3 55 -0.244
70 P3 56 1.221
70 P3 57 2.197
70 P3 58 2.197
70 P3 59 1.709
70 P3 60 1.221
70 P3 61 0.732
70 P3 62 1.221
70 P3 63 2.197
70 P3 64 3.174
70 P3 65 3.662
70 P3 66 2.686
70 P3 67 2.197
70 P3 68 1.221
70 P3 69 1.709
70 P3 70 1.709
70 P3 71 2.197
70 P3 72 1.709
70 P3 73 1.221
70 P3 74 0.732
70 P3 75 -0.244
70 P3 76 0.244
70 P3 77 1.221
70 P3 78 2.197
70 P3 79 2.686
70 P3 80 2.197
70 P3 81 1.221
70 P3 82 0.244
70 P3 83 -0.732
70 P3 84 -1.709
70 P3 85 -2.686
70 P3 86 -2.686
70 P3 87 -2.686
70 P3 88 -1.221
70 P3 89 1.709
70 P3 90 4.639
70 P3 91 7.568
70 P3 92 8.545
70 P3 93 9.033
70 P3 94 9.033
70 P3 95 9.033
70 P3 96 9.033
70 P3 97 9.521
70 P3 98 8.545
70 P3 99 7.080
70 P3 100 5.127
70 P3 101 3.662
70 P3 102 2.197
70 P3 103 1.709
70 P3 104 0.732
70 P3 105 -0.244
70 P3 106 -1.221
70 P3 107 -2.197
70 P3 108 -2.686
70 P3 109 -2.686
70 P3 110 -2.686
70 P3 111 -3.174
70 P3 112 -3.174
70 P3 113 -3.174
70 P3 114 -2.686
70 P3 115 -1.221
70 P3 116 0.244
70 P3 117 1.709
70 P3 118 2.197
70 P3 119 2.686
70 P3 120 2.686
70 P3 121 3.662
70 P3 122 3.662
70 P3 123 3.174
70 P3 124 1.709
70 P3 125 0.244
70 P3 126 -1.709
70 P3 127 -2.686
70 P3 128 -3.662
70 P3 129 -5.615
70 P3 130 -7.080
70 P3 131 -8.057
70 P3 132 -8.057
70 P3 133 -7.568
70 P3 134 -5.615
70 P3 135 -4.150
70 P3 136 -2.686
70 P3 137 -1.709
70 P3 138 -1.221
70 P3 139 -0.244
70 P3 140 0.732
70 P3 141 2.197
70 P3 142 3.174
70 P3 143 3.174
70 P3 144 2.197
70 P3 145 0.732
70 P3 146 -1.221
70 P3 147 -1.709
70 P3 148 -2.686
70 P3 149 -3.174
70 P3 150 -3.662
70 P3 151 -3.662
70 P3 152 -4.150
70 P3 153 -4.150
70 P3 154 -3.662
70 P3 155 -3.662
70 P3 156 -2.686
70 P3 157 -2.686
70 P3 158 -2.686
70 P3 159 -2.686
70 P3 160 -2.686
70 P3 161 -2.686
70 P3 162 -3.174
70 P3 163 -4.150
70 P3 164 -5.615
70 P3 165 -6.592
70 P3 166 -6.104
70 P3 167 -6.104
70 P3 168 -6.592
70 P3 169 -7.568
70 P3 170 -9.521
70 P3 171 -11.475
70 P3 172 -12.451
70 P3 173 -11.963
70 P3 174 -10.498
70 P3 175 -7.568
70 P3 176 -5.127
70 P3 177 -3.662
70 P3 178 -2.686
70 P3 179 -2.197
70 P3 180 -2.197
70 P3 181 -2.197
70 P3 182 -2.197
70 P3 183 -1.709
70 P3 184 -1.221
70 P3 185 0.244
70 P3 186 2.197
70 P3 187 3.662
70 P3 188 4.150
70 P3 189 2.686
70 P3 190 -0.732
70 P3 191 -3.662
70 P3 192 -5.615
70 P3 193 -5.615
70 P3 194 -2.686
70 P3 195 0.244
70 P3 196 3.174
70 P3 197 4.150
70 P3 198 3.662
70 P3 199 2.197
70 P3 200 -0.244
70 P3 201 -2.197
70 P3 202 -4.150
70 P3 203 -5.615
70 P3 204 -6.592
70 P3 205 -6.592
70 P3 206 -6.104
70 P3 207 -4.639
70 P3 208 -2.686
70 P3 209 -0.732
70 P3 210 1.221
70 P3 211 1.221
70 P3 212 0.732
70 P3 213 -0.244
70 P3 214 -1.221
70 P3 215 -0.732
70 P3 216 -0.244
70 P3 217 0.244
70 P3 218 0.244
70 P3 219 0.244
70 P3 220 -0.732
70 P3 221 -0.732
70 P3 222 -0.732
70 P3 223 -0.244
70 P3 224 0.244
70 P3 225 0.732
70 P3 226 1.709
70 P3 227 3.662
70 P3 228 6.104
70 P3 229 8.057
70 P3 230 8.545
70 P3 231 8.545
70 P3 232 8.057
70 P3 233 7.080
70 P3 234 6.592
70 P3 235 5.615
70 P3 236 4.150
70 P3 237 2.197
70 P3 238 0.244
70 P3 239 -1.221
70 P3 240 -2.197
70 P3 241 -2.686
70 P3 242 -3.174
70 P3 243 -3.174
70 P3 244 -3.174
70 P3 245 -1.709
70 P3 246 0.244
70 P3 247 2.686
70 P3 248 5.615
70 P3 249 8.057
70 P3 250 10.010
70 P3 251 10.986
70 P3 252 10.498
70 P3 253 10.010
70 P3 254 9.033
70 P3 255 8.545
# P4 chan 23
70 P4 0 9.613
70 P4 1 8.148
70 P4 2 5.707
70 P4 3 2.289
70 P4 4 -0.153
70 P4 5 -2.106
70 P4 6 -4.547
70 P4 7 -6.989
70 P4 8 -10.406
70 P4 9 -13.824
70 P4 10 -15.778
70 P4 11 -16.266
70 P4 12 -14.801
70 P4 13 -13.824
70 P4 14 -12.848
70 P4 15 -12.360
70 P4 16 -10.895
70 P4 17 -7.477
70 P4 18 -3.082
70 P4 19 2.777
70 P4 20 7.172
70 P4 21 10.590
70 P4 22 12.054
70 P4 23 13.031
70 P4 24 12.543
70 P4 25 11.566
70 P4 26 9.613
70 P4 27 7.660
70 P4 28 6.195
70 P4 29 3.754
70 P4 30 1.801
70 P4 31 -1.129
70 P4 32 -5.035
70 P4 33 -8.453
70 P4 34 -11.383
70 P4 35 -12.360
70 P4 36 -12.848
70 P4 37 -13.336
70 P4 38 -13.824
70 P4 39 -13.336
70 P4 40 -10.895
70 P4 41 -5.524
70 P4 42 0.824
70 P4 43 7.172
70 P4 44 11.078
70 P4 45 12.054
70 P4 46 12.054
70 P4 47 11.566
70 P4 48 11.566
70 P4 49 12.054
70 P4 50 12.054
70 P4 51 11.078
70 P4 52 9.125
70 P4 53 7.172
70 P4 54 5.219
70 P4 55 3.265
70 P4 56 1.801
70 P4 57 -0.153
70 P4 58 -2.106
70 P4 59 -4.547
70 P4 60 -6.500
70 P4 61 -7.965
70 P4 62 -7.477
70 P4 63 -6.989
70 P4 64 -6.012
70 P4 65 -6.500
70 P4 66 -7.477
70 P4 67 -7.965
70 P4 68 -6.989
70 P4 69 -4.059
70 P4 70 -0.153
70 P4 71 3.754
70 P4 72 6.195
70 P4 73 6.683
70 P4 74 5.219
70 P4 75 3.754
70 P4 76 2.777
70 P4 77 2.289
70 P4 78 2.289
70 P4 79 1.312
70 P4 80 -0.153
70 P4 81 -1.617
70 P4 82 -3.571
70 P4 83 -5.035
70 P4 84 -6.500
70 P4 85 -7.965
70 P4 86 -8.942
70 P4 87 -9.918
70 P4 88 -8.942
70 P4 89 -6.989
70 P4 90 -4.059
70 P4 91 -0.153
70 P4 92 2.289
70 P4 93 4.242
70 P4 94 4.730
70 P4 95 3.754
70 P4 96 3.265
70 P4 97 1.801
70 P4 98 0.824
70 P4 99 -0.153
70 P4 100 -1.129
70 P4 101 -2.594
70 P4 102 -3.571
70 P4 103 -4.547
70 P4 104 -6.012
70 P4 105 -6.989
70 P4 106 -8.453
70 P4 107 -9.918
70 P4 108 -10.406
70 P4 109 -9.918
70 P4 110 -8.942
70 P4 111 -8.453
70 P4 112 -7.965
70 P4 113 -6.989
70 P4 114 -6.012
70 P4 115 -4.547
70 P4 116 -2.106
70 P4 117 -0.641
70 P4 118 -0.641
70 P4 119 -1.617
70 P4 120 -2.594
70 P4 121 -3.571
70 P4 122 -5.035
70 P4 123 -6.500
70 P4 124 -8.942
70 P4 125 -11.383
70 P4 126 -13.336
70 P4 127 -14.313
70 P4 128 -14.801
70 P4 129 -15.778
70 P4 130 -16.266
70 P4 131 -15.778
70 P4 132 -15.289
70 P4 133 -13.336
70 P4 134 -11.383
70 P4 135 -8.453
70 P4 136 -6.500
70 P4 137 -4.547
70 P4 138 -2.594
70 P4 139 -1.617
70 P4 140 -0.641
70 P4 141 -0.641
70 P4 142 -1.129
70 P4 143 -3.082
70 P4 144 -6.989
70 P4 145 -11.383
70 P4 146 -16.266
70 P4 147 -21.149
70 P4 148 -24.567
70 P4 149 -27.008
70 P4 150 -28.473
70 P4 151 -27.985
70 P4 152 -26.031
70 P4 153 -21.637
70 P4 154 -16.754
70 P4 155 -11.383
70 P4 156 -7.477
70 P4 157 -5.524
70 P4 158 -5.524
70 P4 159 -6.989
70 P4 160 -8.453
70 P4 161 -9.430
70 P4 162 -10.895
70 P4 163 -11.871
70 P4 164 -12.848
70 P4 165 -13.824
70 P4 166 -15.289
70 P4 167 -16.754
70 P4 168 -18.707
70 P4 169 -21.149
70 P4 170 -24.567
70 P4 171 -27.985
70 P4 172 -29.938
70 P4 173 -30.426
70 P4 174 -27.985
70 P4 175 -23.102
70 P4 176 -17.731
70 P4 177 -12.360
70 P4 178 -8.453
70 P4 179 -6.989
70 P4 180 -6.500
70 P4 181 -6.989
70 P4 182 -6.989
70 P4 183 -6.989
70 P4 184 -6.500
70 P4 185 -5.524
70 P4 186 -4.547
70 P4 187 -4.059
70 P4 188 -4.059
70 P4 189 -4.547
70 P4 190 -5.035
70 P4 191 -6.012
70 P4 192 -6.500
70 P4 193 -6.989
70 P4 194 -6.012
70 P4 195 -5.035
70 P4 196 -5.035
70 P4 197 -6.012
70 P4 198 -9.430
70 P4 199 -13.336
70 P4 200 -17.731
70 P4 201 -21.149
70 P4 202 -23.102
70 P4 203 -24.567
70 P4 204 -25.055
70 P4 205 -25.055
70 P4 206 -24.078
70 P4 207 -21.637
70 P4 208 -17.242
70 P4 209 -12.848
70 P4 210 -8.453
70 P4 211 -5.524
70 P4 212 -3.571
70 P4 213 -2.594
70 P4 214 -1.129
70 P4 215 0.336
70 P4 216 1.312
70 P4 217 1.312
70 P4 218 0.824
70 P4 219 -0.153
70 P4 220 -2.106
70 P4 221 -3.571
70 P4 222 -4.547
70 P4 223 -5.524
70 P4 224 -6.012
70 P4 225 -6.500
70 P4 226 -7.477
70 P4 227 -7.965
70 P4 228 -8.942
70 P4 229 -8.942
70 P4 230 -8.942
70 P4 231 -7.965
70 P4 232 -6.012
70 P4 233 -3.571
70 P4 234 -1.129
70 P4 235 0.824
70 P4 236 1.801
70 P4 237 1.312
70 P4 238 0.336
70 P4 239 -0.641
70 P4 240 -1.129
70 P4 241 -1.617
70 P4 242 -2.106
70 P4 243 -3.082
70 P4 244 -4.059
70 P4 245 -4.547
70 P4 246 -4.059
70 P4 247 -2.594
70 P4 248 -0.153
70 P4 249 1.312
70 P4 250 2.777
70 P4 251 2.777
70 P4 252 2.289
70 P4 253 1.801
70 P4 254 1.801
70 P4 255 2.289
# PZ chan 24
70 PZ 0 0.020
70 PZ 1 -1.444
70 PZ 2 -2.909
70 PZ 3 -3.886
70 PZ 4 -4.862
70 PZ 5 -5.351
70 PZ 6 -5.351
70 PZ 7 -4.862
70 PZ 8 -4.862
70 PZ 9 -5.351
70 PZ 10 -5.839
70 PZ 11 -6.327
70 PZ 12 -6.816
70 PZ 13 -7.304
70 PZ 14 -7.792
70 PZ 15 -8.769
70 PZ 16 -8.769
70 PZ 17 -8.280
70 PZ 18 -6.327
70 PZ 19 -2.909
70 PZ 20 0.997
70 PZ 21 3.927
70 PZ 22 5.880
70 PZ 23 5.880
70 PZ 24 4.903
70 PZ 25 3.438
70 PZ 26 2.462
70 PZ 27 1.485
70 PZ 28 1.485
70 PZ 29 0.509
70 PZ 30 -0.956
70 PZ 31 -3.398
70 PZ 32 -5.839
70 PZ 33 -7.792
70 PZ 34 -8.769
70 PZ 35 -9.257
70 PZ 36 -9.745
70 PZ 37 -10.234
70 PZ 38 -10.234
70 PZ 39 -10.234
70 PZ 40 -8.280
70 PZ 41 -5.839
70 PZ 42 -1.933
70 PZ 43 0.997
70 PZ 44 3.438
70 PZ 45 3.927
70 PZ 46 3.438
70 PZ 47 2.462
70 PZ 48 1.485
70 PZ 49 0.509
70 PZ 50 0.020
70 PZ 51 0.020
70 PZ 52 -1.444
70 PZ 53 -1.933
70 PZ 54 -1.933
70 PZ 55 -2.421
70 PZ 56 -2.421
70 PZ 57 -1.933
70 PZ 58 -2.421
70 PZ 59 -2.909
70 PZ 60 -3.886
70 PZ 61 -3.886
70 PZ 62 -3.398
70 PZ 63 -2.909
70 PZ 64 -1.933
70 PZ 65 -1.444
70 PZ 66 -1.933
70 PZ 67 -2.421
70 PZ 68 -2.421
70 PZ 69 -0.956
70 PZ 70 1.973
70 PZ 71 4.415
70 PZ 72 6.368
70 PZ 73 7.345
70 PZ 74 6.368
70 PZ 75 5.391
70 PZ 76 4.903
70 PZ 77 4.903
70 PZ 78 5.391
70 PZ 79 5.391
70 PZ 80 4.415
70 PZ 81 2.950
70 PZ 82 0.509
70 PZ 83 -1.444
70 PZ 84 -3.398
70 PZ 85 -5.351
70 PZ 86 -7.792
70 PZ 87 -8.280
70 PZ 88 -8.280
70 PZ 89 -6.327
70 PZ 90 -2.909
70 PZ 91 0.997
70 PZ 92 3.927
70 PZ 93 5.880
70 PZ 94 6.856
70 PZ 95 6.856
70 PZ 96 6.856
70 PZ 97 6.368
70 PZ 98 6.368
70 PZ 99 5.391
70 PZ 100 3.927
70 PZ 101 2.950
70 PZ 102 1.485
70 PZ 103 0.020
70 PZ 104 -0.956
70 PZ 105 -2.909
70 PZ 106 -4.374
70 PZ 107 -6.327
70 PZ 108 -7.792
70 PZ 109 -8.769
70 PZ 110 -9.257
70 PZ 111 -9.257
70 PZ 112 -8.769
70 PZ 113 -7.792
70 PZ 114 -5.839
70 PZ 115 -3.398
70 PZ 116 -0.468
70 PZ 117 1.485
70 PZ 118 2.950
70 PZ 119 3.438
70 PZ 120 2.462
70 PZ 121 0.997
70 PZ 122 -0.468
70 PZ 123 -2.421
70 PZ 124 -4.374
70 PZ 125 -7.304
70 PZ 126 -9.745
70 PZ 127 -12.187
70 PZ 128 -14.628
70 PZ 129 -15.605
70 PZ 130 -16.581
70 PZ 131 -16.581
70 PZ 132 -15.116
70 PZ 133 -13.163
70 PZ 134 -9.745
70 PZ 135 -5.351
70 PZ 136 -1.444
70 PZ 137 1.973
70 PZ 138 3.927
70 PZ 139 4.903
70 PZ 140 4.903
70 PZ 141 5.391
70 PZ 142 4.903
70 PZ 143 3.927
70 PZ 144 1.973
70 PZ 145 -0.956
70 PZ 146 -5.351
70 PZ 147 -8.769
70 PZ 148 -11.210
70 PZ 149 -12.675
70 PZ 150 -13.652
70 PZ 151 -14.140
70 PZ 152 -14.628
70 PZ 153 -14.628
70 PZ 154 -12.675
70 PZ 155 -10.722
70 PZ 156 -8.280
70 PZ 157 -5.839
70 PZ 158 -3.886
70 PZ 159 -2.421
70 PZ 160 -1.933
70 PZ 161 -1.444
70 PZ 162 -1.444
70 PZ 163 -1.444
70 PZ 164 -2.909
70 PZ 165 -4.374
70 PZ 166 -5.351
70 PZ 167 -6.327
70 PZ 168 -6.816
70 PZ 169 -7.792
70 PZ 170 -9.257
70 PZ 171 -11.210
70 PZ 172 -12.675
70 PZ 173 -13.163
70 PZ 174 -11.698
70 PZ 175 -8.769
70 PZ 176 -5.839
70 PZ 177 -3.398
70 PZ 178 -1.933
70 PZ 179 -1.933
70 PZ 180 -2.909
70 PZ 181 -3.886
70 PZ 182 -4.862
70 PZ 183 -5.351
70 PZ 184 -5.351
70 PZ 185 -4.862
70 PZ 186 -3.398
70 PZ 187 -1.933
70 PZ 188 -0.468
70 PZ 189 0.509
70 PZ 190 0.509
70 PZ 191 0.020
70 PZ 192 0.509
70 PZ 193 1.485
70 PZ 194 3.438
70 PZ 195 5.880
70 PZ 196 7.345
70 PZ 197 6.856
70 PZ 198 4.415
70 PZ 199 0.997
70 PZ 200 -2.909
70 PZ 201 -6.816
70 PZ 202 -10.234
70 PZ 203 -12.675
70 PZ 204 -14.628
70 PZ 205 -15.605
70 PZ 206 -15.605
70 PZ 207 -14.628
70 PZ 208 -11.698
70 PZ 209 -8.769
70 PZ 210 -5.351
70 PZ 211 -3.398
70 PZ 212 -1.444
70 PZ 213 -0.468
70 PZ 214 0.020
70 PZ 215 1.485
70 PZ 216 3.438
70 PZ 217 4.415
70 PZ 218 4.903
70 PZ 219 4.415
70 PZ 220 3.438
70 PZ 221 1.973
70 PZ 222 0.997
70 PZ 223 0.509
70 PZ 224 -0.468
70 PZ 225 -0.956
70 PZ 226 -1.444
70 PZ 227 -1.933
70 PZ 228 -0.956
70 PZ 229 -0.468
70 PZ 230 0.509
70 PZ 231 0.997
70 PZ 232 0.997
70 PZ 233 0.997
70 PZ 234 0.997
70 PZ 235 0.997
70 PZ 236 0.997
70 PZ 237 0.020
70 PZ 238 -0.956
70 PZ 239 -1.933
70 PZ 240 -2.421
70 PZ 241 -2.421
70 PZ 242 -1.444
70 PZ 243 -0.956
70 PZ 244 -0.956
70 PZ 245 -0.956
70 PZ 246 0.509
70 PZ 247 1.973
70 PZ 248 3.927
70 PZ 249 5.880
70 PZ 250 6.856
70 PZ 251 6.856
70 PZ 252 6.368
70 PZ 253 5.880
70 PZ 254 5.391
70 PZ 255 5.391
# P8 chan 25
70 P8 0 19.480
70 P8 1 18.016
70 P8 2 15.574
70 P8 3 12.644
70 P8 4 8.738
70 P8 5 4.832
70 P8 6 0.437
70 P8 7 -5.910
70 P8 8 -12.746
70 P8 9 -19.094
70 P8 10 -23.977
70 P8 11 -25.441
70 P8 12 -25.441
70 P8 13 -23.977
70 P8 14 -22.512
70 P8 15 -21.047
70 P8 16 -18.117
70 P8 17 -12.258
70 P8 18 -4.934
70 P8 19 2.391
70 P8 20 8.250
70 P8 21 11.180
70 P8 22 12.644
70 P8 23 14.109
70 P8 24 15.574
70 P8 25 17.039
70 P8 26 16.551
70 P8 27 14.598
70 P8 28 11.668
70 P8 29 7.762
70 P8 30 4.832
70 P8 31 1.902
70 P8 32 -1.516
70 P8 33 -5.910
70 P8 34 -10.305
70 P8 35 -14.211
70 P8 36 -16.164
70 P8 37 -16.652
70 P8 38 -17.629
70 P8 39 -18.117
70 P8 40 -18.117
70 P8 41 -15.676
70 P8 42 -10.793
70 P8 43 -2.981
70 P8 44 4.344
70 P8 45 9.715
70 P8 46 11.668
70 P8 47 11.668
70 P8 48 11.180
70 P8 49 12.644
70 P8 50 14.598
70 P8 51 16.551
70 P8 52 17.039
70 P8 53 15.086
70 P8 54 12.644
70 P8 55 10.203
70 P8 56 9.226
70 P8 57 8.738
70 P8 58 6.785
70 P8 59 3.367
70 P8 60 -0.051
70 P8 61 -2.492
70 P8 62 -3.469
70 P8 63 -3.469
70 P8 64 -3.469
70 P8 65 -4.445
70 P8 66 -5.422
70 P8 67 -6.887
70 P8 68 -8.352
70 P8 69 -8.840
70 P8 70 -8.840
70 P8 71 -8.352
70 P8 72 -7.863
70 P8 73 -7.375
70 P8 74 -6.399
70 P8 75 -5.422
70 P8 76 -4.445
70 P8 77 -3.957
70 P8 78 -2.981
70 P8 79 -2.004
70 P8 80 -0.539
70 P8 81 -0.051
70 P8 82 -0.539
70 P8 83 -1.516
70 P8 84 -2.004
70 P8 85 -1.027
70 P8 86 0.926
70 P8 87 2.879
70 P8 88 4.832
70 P8 89 5.809
70 P8 90 5.809
70 P8 91 6.297
70 P8 92 7.273
70 P8 93 8.738
70 P8 94 9.226
70 P8 95 8.738
70 P8 96 6.297
70 P8 97 2.391
70 P8 98 -1.516
70 P8 99 -4.934
70 P8 100 -6.399
70 P8 101 -6.887
70 P8 102 -6.887
70 P8 103 -6.399
70 P8 104 -6.399
70 P8 105 -6.887
70 P8 106 -7.863
70 P8 107 -8.352
70 P8 108 -7.863
70 P8 109 -5.910
70 P8 110 -3.469
70 P8 111 -1.516
70 P8 112 -0.051
70 P8 113 0.437
70 P8 114 0.437
70 P8 115 0.926
70 P8 116 1.414
70 P8 117 2.391
70 P8 118 2.879
70 P8 119 3.367
70 P8 120 3.855
70 P8 121 3.367
70 P8 122 2.879
70 P8 123 1.414
70 P8 124 -1.027
70 P8 125 -2.981
70 P8 126 -4.934
70 P8 127 -5.910
70 P8 128 -6.887
70 P8 129 -8.352
70 P8 130 -9.816
70 P8 131 -11.281
70 P8 132 -12.258
70 P8 133 -12.746
70 P8 134 -12.258
70 P8 135 -10.793
70 P8 136 -9.328
70 P8 137 -6.887
70 P8 138 -4.934
70 P8 139 -2.004
70 P8 140 -0.051
70 P8 141 1.902
70 P8 142 2.391
70 P8 143 0.926
70 P8 144 -2.004
70 P8 145 -5.422
70 P8 146 -8.840
70 P8 147 -11.281
70 P8 148 -12.746
70 P8 149 -13.723
70 P8 150 -13.723
70 P8 151 -13.723
70 P8 152 -13.723
70 P8 153 -12.746
70 P8 154 -10.305
70 P8 155 -7.375
70 P8 156 -4.934
70 P8 157 -4.934
70 P8 158 -6.399
70 P8 159 -9.816
70 P8 160 -13.234
70 P8 161 -15.676
70 P8 162 -16.652
70 P8 163 -16.652
70 P8 164 -16.164
70 P8 165 -16.164
70 P8 166 -16.164
70 P8 167 -16.164
70 P8 168 -17.141
70 P8 169 -18.606
70 P8 170 -21.535
70 P8 171 -24.465
70 P8 172 -26.418
70 P8 173 -26.418
70 P8 174 -23.488
70 P8 175 -17.141
70 P8 176 -9.816
70 P8 177 -3.469
70 P8 178 0.437
70 P8 179 0.926
70 P8 180 0.926
70 P8 181 -0.051
70 P8 182 -0.051
70 P8 183 0.437
70 P8 184 1.414
70 P8 185 1.902
70 P8 186 2.391
70 P8 187 1.902
70 P8 188 1.414
70 P8 189 -0.051
70 P8 190 -2.004
70 P8 191 -3.957
70 P8 192 -5.422
70 P8 193 -6.887
70 P8 194 -5.910
70 P8 195 -4.934
70 P8 196 -4.934
70 P8 197 -5.910
70 P8 198 -8.840
70 P8 199 -12.746
70 P8 200 -17.141
70 P8 201 -20.559
70 P8 202 -23.000
70 P8 203 -24.465
70 P8 204 -24.465
70 P8 205 -23.488
70 P8 206 -21.047
70 P8 207 -17.629
70 P8 208 -13.234
70 P8 209 -8.840
70 P8 210 -5.422
70 P8 211 -3.469
70 P8 212 -2.004
70 P8 213 -1.516
70 P8 214 -0.539
70 P8 215 -0.051
70 P8 216 0.437
70 P8 217 -0.051
70 P8 218 -1.516
70 P8 219 -3.469
70 P8 220 -4.445
70 P8 221 -5.422
70 P8 222 -5.910
70 P8 223 -5.422
70 P8 224 -5.910
70 P8 225 -5.910
70 P8 226 -5.910
70 P8 227 -5.910
70 P8 228 -4.934
70 P8 229 -3.469
70 P8 230 -2.492
70 P8 231 -1.516
70 P8 232 -0.539
70 P8 233 1.414
70 P8 234 3.855
70 P8 235 5.809
70 P8 236 7.762
70 P8 237 7.273
70 P8 238 6.297
70 P8 239 4.344
70 P8 240 2.391
70 P8 241 0.926
70 P8 242 -1.027
70 P8 243 -2.981
70 P8 244 -5.422
70 P8 245 -6.399
70 P8 246 -6.399
70 P8 247 -3.957
70 P8 248 -1.027
70 P8 249 1.414
70 P8 250 2.391
70 P8 251 1.902
70 P8 252 0.926
70 P8 253 0.926
70 P8 254 1.902
70 P8 255 3.367
# P7 chan 26
70 P7 0 10.701
70 P7 1 8.260
70 P7 2 5.330
70 P7 3 3.377
70 P7 4 2.401
70 P7 5 2.401
70 P7 6 1.912
70 P7 7 0.448
70 P7 8 -2.970
70 P7 9 -6.877
70 P7 10 -10.295
70 P7 11 -13.224
70 P7 12 -15.177
70 P7 13 -17.131
70 P7 14 -19.572
70 P7 15 -22.013
70 P7 16 -23.478
70 P7 17 -23.478
70 P7 18 -21.037
70 P7 19 -17.131
70 P7 20 -12.248
70 P7 21 -7.853
70 P7 22 -4.435
70 P7 23 -1.506
70 P7 24 0.936
70 P7 25 3.377
70 P7 26 5.330
70 P7 27 7.284
70 P7 28 8.260
70 P7 29 7.772
70 P7 30 5.819
70 P7 31 2.401
70 P7 32 -1.506
70 P7 33 -4.435
70 P7 34 -5.900
70 P7 35 -6.388
70 P7 36 -6.877
70 P7 37 -7.853
70 P7 38 -9.806
70 P7 39 -11.271
70 P7 40 -11.271
70 P7 41 -9.318
70 P7 42 -5.900
70 P7 43 -1.994
70 P7 44 0.936
70 P7 45 1.912
70 P7 46 0.448
70 P7 47 -2.482
70 P7 48 -5.900
70 P7 49 -7.365
70 P7 50 -7.853
70 P7 51 -6.877
70 P7 52 -5.412
70 P7 53 -2.970
70 P7 54 -0.529
70 P7 55 2.401
70 P7 56 5.330
70 P7 57 7.284
70 P7 58 8.748
70 P7 59 8.260
70 P7 60 7.284
70 P7 61 5.819
70 P7 62 5.330
70 P7 63 4.842
70 P7 64 5.330
70 P7 65 4.842
70 P7 66 3.866
70 P7 67 2.401
70 P7 68 0.936
70 P7 69 -0.529
70 P7 70 -1.506
70 P7 71 -1.994
70 P7 72 -2.482
70 P7 73 -2.970
70 P7 74 -3.459
70 P7 75 -4.435
70 P7 76 -4.435
70 P7 77 -3.459
70 P7 78 -1.994
70 P7 79 -0.529
70 P7 80 0.448
70 P7 81 -0.041
70 P7 82 -1.506
70 P7 83 -2.970
70 P7 84 -3.947
70 P7 85 -3.947
70 P7 86 -2.970
70 P7 87 -1.506
70 P7 88 0.448
70 P7 89 2.889
70 P7 90 4.842
70 P7 91 7.284
70 P7 92 8.260
70 P7 93 8.260
70 P7 94 7.284
70 P7 95 6.307
70 P7 96 5.819
70 P7 97 5.330
70 P7 98 4.842
70 P7 99 3.377
70 P7 100 1.424
70 P7 101 -0.529
70 P7 102 -1.506
70 P7 103 -1.994
70 P7 104 -1.994
70 P7 105 -1.994
70 P7 106 -2.970
70 P7 107 -4.435
70 P7 108 -5.412
70 P7 109 -5.412
70 P7 110 -5.900
70 P7 111 -6.388
70 P7 112 -7.365
70 P7 113 -7.853
70 P7 114 -7.365
70 P7 115 -5.900
70 P7 116 -3.459
70 P7 117 -1.994
70 P7 118 -1.506
70 P7 119 -1.017
70 P7 120 -1.017
70 P7 121 -0.041
70 P7 122 1.424
70 P7 123 2.401
70 P7 124 3.377
70 P7 125 2.889
70 P7 126 1.424
70 P7 127 -1.017
70 P7 128 -3.947
70 P7 129 -6.877
70 P7 130 -9.806
70 P7 131 -12.736
70 P7 132 -14.201
70 P7 133 -14.201
70 P7 134 -13.224
70 P7 135 -12.248
70 P7 136 -11.759
70 P7 137 -12.248
70 P7 138 -12.736
70 P7 139 -11.759
70 P7 140 -9.318
70 P7 141 -6.388
70 P7 142 -3.459
70 P7 143 -1.506
70 P7 144 -1.506
70 P7 145 -2.482
70 P7 146 -2.970
70 P7 147 -2.970
70 P7 148 -2.970
70 P7 149 -3.459
70 P7 150 -4.435
70 P7 151 -5.900
70 P7 152 -6.388
70 P7 153 -5.900
70 P7 154 -4.924
70 P7 155 -4.435
70 P7 156 -4.924
70 P7 157 -6.877
70 P7 158 -9.318
70 P7 159 -11.271
70 P7 160 -12.248
70 P7 161 -12.736
70 P7 162 -13.713
70 P7 163 -14.201
70 P7 164 -15.177
70 P7 165 -15.177
70 P7 166 -14.201
70 P7 167 -13.224
70 P7 168 -13.713
70 P7 169 -15.177
70 P7 170 -17.131
70 P7 171 -19.084
70 P7 172 -19.084
70 P7 173 -17.131
70 P7 174 -14.201
70 P7 175 -11.271
70 P7 176 -9.318
70 P7 177 -8.341
70 P7 178 -8.341
70 P7 179 -9.318
70 P7 180 -10.295
70 P7 181 -10.783
70 P7 182 -11.271
70 P7 183 -11.271
70 P7 184 -10.295
70 P7 185 -8.830
70 P7 186 -6.388
70 P7 187 -4.435
70 P7 188 -4.435
70 P7 189 -6.388
70 P7 190 -11.271
70 P7 191 -17.131
70 P7 192 -20.549
70 P7 193 -20.549
70 P7 194 -17.131
70 P7 195 -11.759
70 P7 196 -7.365
70 P7 197 -5.412
70 P7 198 -5.412
70 P7 199 -6.877
70 P7 200 -8.830
70 P7 201 -10.783
70 P7 202 -12.248
70 P7 203 -14.201
70 P7 204 -15.177
70 P7 205 -15.666
70 P7 206 -14.201
70 P7 207 -12.248
70 P7 208 -10.783
70 P7 209 -10.295
70 P7 210 -10.783
70 P7 211 -11.271
70 P7 212 -11.271
70 P7 213 -10.295
70 P7 214 -8.830
70 P7 215 -7.365
70 P7 216 -6.877
70 P7 217 -7.853
70 P7 218 -9.806
70 P7 219 -12.248
70 P7 220 -14.689
70 P7 221 -15.666
70 P7 222 -17.131
70 P7 223 -17.131
70 P7 224 -16.642
70 P7 225 -14.689
70 P7 226 -12.248
70 P7 227 -9.318
70 P7 228 -6.388
70 P7 229 -4.435
70 P7 230 -3.947
70 P7 231 -4.435
70 P7 232 -4.924
70 P7 233 -5.412
70 P7 234 -4.924
70 P7 235 -4.435
70 P7 236 -4.924
70 P7 237 -6.388
70 P7 238 -8.830
70 P7 239 -11.271
70 P7 240 -13.224
70 P7 241 -14.201
70 P7 242 -15.666
70 P7 243 -17.619
70 P7 244 -19.572
70 P7 245 -20.549
70 P7 246 -19.084
70 P7 247 -16.154
70 P7 248 -11.759
70 P7 249 -8.341
70 P7 250 -6.877
70 P7 251 -6.877
70 P7 252 -7.853
70 P7 253 -8.341
70 P7 254 -8.341
70 P7 255 -7.365
# PO2 chan 27
70 PO2 0 4.934
70 PO2 1 2.004
70 PO2 2 -0.926
70 PO2 3 -3.367
70 PO2 4 -5.320
70 PO2 5 -6.297
70 PO2 6 -7.273
70 PO2 7 -8.250
70 PO2 8 -10.203
70 PO2 9 -12.644
70 PO2 10 -14.598
70 PO2 11 -16.062
70 PO2 12 -16.062
70 PO2 13 -16.062
70 PO2 14 -16.062
70 PO2 15 -16.062
70 PO2 16 -15.574
70 PO2 17 -13.133
70 PO2 18 -8.250
70 PO2 19 -2.391
70 PO2 20 3.957
70 PO2 21 8.352
70 PO2 22 9.816
70 PO2 23 9.816
70 PO2 24 8.352
70 PO2 25 6.887
70 PO2 26 5.422
70 PO2 27 4.445
70 PO2 28 3.469
70 PO2 29 1.516
70 PO2 30 -2.391
70 PO2 31 -6.785
70 PO2 32 -11.180
70 PO2 33 -14.598
70 PO2 34 -16.062
70 PO2 35 -16.062
70 PO2 36 -15.574
70 PO2 37 -16.062
70 PO2 38 -16.551
70 PO2 39 -16.062
70 PO2 40 -13.133
70 PO2 41 -7.273
70 PO2 42 -0.437
70 PO2 43 5.910
70 PO2 44 10.793
70 PO2 45 11.770
70 PO2 46 10.793
70 PO2 47 8.840
70 PO2 48 7.375
70 PO2 49 5.910
70 PO2 50 4.934
70 PO2 51 3.957
70 PO2 52 2.492
70 PO2 53 1.027
70 PO2 54 -0.926
70 PO2 55 -1.902
70 PO2 56 -2.391
70 PO2 57 -2.879
70 PO2 58 -3.855
70 PO2 59 -5.320
70 PO2 60 -7.273
70 PO2 61 -7.273
70 PO2 62 -7.273
70 PO2 63 -5.320
70 PO2 64 -3.855
70 PO2 65 -1.902
70 PO2 66 -1.902
70 PO2 67 -1.902
70 PO2 68 -1.902
70 PO2 69 -0.437
70 PO2 70 1.516
70 PO2 71 4.445
70 PO2 72 6.887
70 PO2 73 7.375
70 PO2 74 7.375
70 PO2 75 6.399
70 PO2 76 5.910
70 PO2 77 5.910
70 PO2 78 5.422
70 PO2 79 4.934
70 PO2 80 2.981
70 PO2 81 0.051
70 PO2 82 -3.367
70 PO2 83 -6.297
70 PO2 84 -8.738
70 PO2 85 -10.691
70 PO2 86 -12.156
70 PO2 87 -12.156
70 PO2 88 -11.180
70 PO2 89 -8.738
70 PO2 90 -4.832
70 PO2 91 0.539
70 PO2 92 4.934
70 PO2 93 8.352
70 PO2 94 9.816
70 PO2 95 9.816
70 PO2 96 8.840
70 PO2 97 7.863
70 PO2 98 6.399
70 PO2 99 4.445
70 PO2 100 2.981
70 PO2 101 1.027
70 PO2 102 -1.414
70 PO2 103 -3.855
70 PO2 104 -6.297
70 PO2 105 -8.738
70 PO2 106 -12.156
70 PO2 107 -15.086
70 PO2 108 -17.527
70 PO2 109 -19.480
70 PO2 110 -20.457
70 PO2 111 -20.457
70 PO2 112 -19.969
70 PO2 113 -17.527
70 PO2 114 -14.109
70 PO2 115 -9.715
70 PO2 116 -5.320
70 PO2 117 -2.391
70 PO2 118 -0.437
70 PO2 119 -0.437
70 PO2 120 -1.414
70 PO2 121 -2.879
70 PO2 122 -4.344
70 PO2 123 -6.785
70 PO2 124 -9.715
70 PO2 125 -13.621
70 PO2 126 -17.527
70 PO2 127 -21.434
70 PO2 128 -24.851
70 PO2 129 -27.293
70 PO2 130 -29.246
70 PO2 131 -29.734
70 PO2 132 -29.246
70 PO2 133 -26.805
70 PO2 134 -22.898
70 PO2 135 -18.016
70 PO2 136 -12.644
70 PO2 137 -7.762
70 PO2 138 -4.832
70 PO2 139 -2.391
70 PO2 140 -0.926
70 PO2 141 0.051
70 PO2 142 0.051
70 PO2 143 -1.414
70 PO2 144 -4.344
70 PO2 145 -8.738
70 PO2 146 -14.109
70 PO2 147 -18.992
70 PO2 148 -22.410
70 PO2 149 -24.851
70 PO2 150 -25.828
70 PO2 151 -26.805
70 PO2 152 -27.293
70 PO2 153 -26.805
70 PO2 154 -24.851
70 PO2 155 -21.922
70 PO2 156 -19.480
70 PO2 157 -17.527
70 PO2 158 -17.527
70 PO2 159 -17.527
70 PO2 160 -17.527
70 PO2 161 -17.039
70 PO2 162 -16.551
70 PO2 163 -16.551
70 PO2 164 -17.527
70 PO2 165 -18.504
70 PO2 166 -19.969
70 PO2 167 -20.457
70 PO2 168 -20.945
70 PO2 169 -21.922
70 PO2 170 -24.363
70 PO2 171 -27.293
70 PO2 172 -29.734
70 PO2 173 -29.734
70 PO2 174 -26.805
70 PO2 175 -21.434
70 PO2 176 -15.574
70 PO2 177 -10.691
70 PO2 178 -8.250
70 PO2 179 -8.250
70 PO2 180 -9.715
70 PO2 181 -11.668
70 PO2 182 -13.133
70 PO2 183 -13.621
70 PO2 184 -13.133
70 PO2 185 -11.668
70 PO2 186 -10.203
70 PO2 187 -7.762
70 PO2 188 -6.785
70 PO2 189 -6.297
70 PO2 190 -6.785
70 PO2 191 -6.785
70 PO2 192 -6.297
70 PO2 193 -3.855
70 PO2 194 -0.437
70 PO2 195 2.981
70 PO2 196 4.934
70 PO2 197 4.934
70 PO2 198 1.516
70 PO2 199 -3.367
70 PO2 200 -9.226
70 PO2 201 -15.574
70 PO2 202 -20.945
70 PO2 203 -25.340
70 PO2 204 -28.269
70 PO2 205 -29.734
70 PO2 206 -28.758
