# co2c0000395.rd
# 120 trials, 64 chans, 416 samples 368 post_stim samples
# 3.906000 msecs uV
# S2 nomatch, trial 33
# FP1 chan 0
33 FP1 0 3.174
33 FP1 1 1.221
33 FP1 2 0.244
33 FP1 3 -0.244
33 FP1 4 -0.732
33 FP1 5 0.244
33 FP1 6 0.732
33 FP1 7 1.221
33 FP1 8 1.221
33 FP1 9 1.709
33 FP1 10 1.221
33 FP1 11 1.709
33 FP1 12 2.686
33 FP1 13 3.662
33 FP1 14 4.639
33 FP1 15 5.127
33 FP1 16 6.104
33 FP1 17 6.592
33 FP1 18 6.104
33 FP1 19 3.662
33 FP1 20 1.221
33 FP1 21 -1.709
33 FP1 22 -2.686
33 FP1 23 -2.197
33 FP1 24 -0.732
33 FP1 25 0.732
33 FP1 26 0.244
33 FP1 27 -1.709
33 FP1 28 -4.639
33 FP1 29 -7.080
33 FP1 30 -8.057
33 FP1 31 -8.057
33 FP1 32 -6.592
33 FP1 33 -4.639
33 FP1 34 -3.174
33 FP1 35 -1.709
33 FP1 36 -1.221
33 FP1 37 -0.732
33 FP1 38 -1.709
33 FP1 39 -2.686
33 FP1 40 -4.150
33 FP1 41 -5.615
33 FP1 42 -6.592
33 FP1 43 -7.568
33 FP1 44 -8.057
33 FP1 45 -8.545
33 FP1 46 -8.545
33 FP1 47 -9.033
33 FP1 48 -9.033
33 FP1 49 -9.521
33 FP1 50 -10.498
33 FP1 51 -10.498
33 FP1 52 -10.498
33 FP1 53 -9.033
33 FP1 54 -7.568
33 FP1 55 -5.615
33 FP1 56 -5.127
33 FP1 57 -5.615
33 FP1 58 -6.592
33 FP1 59 -6.592
33 FP1 60 -5.615
33 FP1 61 -3.662
33 FP1 62 -1.221
33 FP1 63 -0.244
33 FP1 64 -0.244
33 FP1 65 -0.732
33 FP1 66 -0.732
33 FP1 67 -0.732
33 FP1 68 0.732
33 FP1 69 2.197
33 FP1 70 3.662
33 FP1 71 4.639
33 FP1 72 5.615
33 FP1 73 5.615
33 FP1 74 5.615
33 FP1 75 4.639
33 FP1 76 3.662
33 FP1 77 1.709
33 FP1 78 1.221
33 FP1 79 1.221
33 FP1 80 1.709
33 FP1 81 2.197
33 FP1 82 1.709
33 FP1 83 -0.244
33 FP1 84 -1.709
33 FP1 85 -2.197
33 FP1 86 -1.709
33 FP1 87 -0.732
33 FP1 88 -0.244
33 FP1 89 -1.221
33 FP1 90 -3.174
33 FP1 91 -5.615
33 FP1 92 -7.568
33 FP1 93 -8.545
33 FP1 94 -8.545
33 FP1 95 -8.545
33 FP1 96 -8.545
33 FP1 97 -8.057
33 FP1 98 -6.592
33 FP1 99 -4.150
33 FP1 100 -1.709
33 FP1 101 -0.244
33 FP1 102 -0.244
33 FP1 103 -1.221
33 FP1 104 -1.709
33 FP1 105 -1.709
33 FP1 106 -1.221
33 FP1 107 0.244
33 FP1 108 0.732
33 FP1 109 0.732
33 FP1 110 0.244
33 FP1 111 -0.244
33 FP1 112 -1.221
33 FP1 113 -2.197
33 FP1 114 -3.174
33 FP1 115 -4.150
33 FP1 116 -4.639
33 FP1 117 -4.150
33 FP1 118 -3.662
33 FP1 119 -3.662
33 FP1 120 -4.150
33 FP1 121 -5.127
33 FP1 122 -5.615
33 FP1 123 -5.615
33 FP1 124 -5.127
33 FP1 125 -4.639
33 FP1 126 -5.127
33 FP1 127 -6.104
33 FP1 128 -6.592
33 FP1 129 -6.104
33 FP1 130 -5.615
33 FP1 131 -5.127
33 FP1 132 -4.639
33 FP1 133 -5.127
33 FP1 134 -4.639
33 FP1 135 -3.662
33 FP1 136 -2.197
33 FP1 137 -0.732
33 FP1 138 0.244
33 FP1 139 0.244
33 FP1 140 -0.244
33 FP1 141 -1.221
33 FP1 142 -1.709
33 FP1 143 -2.686
33 FP1 144 -3.174
33 FP1 145 -4.150
33 FP1 146 -4.639
33 FP1 147 -4.150
33 FP1 148 -3.662
33 FP1 149 -3.174
33 FP1 150 -3.174
33 FP1 151 -3.662
33 FP1 152 -4.639
33 FP1 153 -5.615
33 FP1 154 -5.615
33 FP1 155 -5.615
33 FP1 156 -5.127
33 FP1 157 -5.127
33 FP1 158 -4.639
33 FP1 159 -4.639
33 FP1 160 -3.662
33 FP1 161 -2.686
33 FP1 162 -2.686
33 FP1 163 -2.686
33 FP1 164 -3.174
33 FP1 165 -3.662
33 FP1 166 -4.639
33 FP1 167 -5.127
33 FP1 168 -5.615
33 FP1 169 -5.127
33 FP1 170 -4.639
33 FP1 171 -3.662
33 FP1 172 -3.174
33 FP1 173 -3.174
33 FP1 174 -4.150
33 FP1 175 -4.639
33 FP1 176 -4.639
33 FP1 177 -4.150
33 FP1 178 -3.174
33 FP1 179 -2.686
33 FP1 180 -3.174
33 FP1 181 -3.662
33 FP1 182 -3.662
33 FP1 183 -2.197
33 FP1 184 -0.732
33 FP1 185 0.732
33 FP1 186 0.244
33 FP1 187 -1.221
33 FP1 188 -2.686
33 FP1 189 -3.662
33 FP1 190 -3.174
33 FP1 191 -2.686
33 FP1 192 -2.686
33 FP1 193 -3.662
33 FP1 194 -3.662
33 FP1 195 -1.709
33 FP1 196 1.221
33 FP1 197 4.639
33 FP1 198 6.104
33 FP1 199 5.127
33 FP1 200 1.709
33 FP1 201 -1.221
33 FP1 202 -2.197
33 FP1 203 -0.732
33 FP1 204 2.197
33 FP1 205 5.127
33 FP1 206 5.615
33 FP1 207 4.150
33 FP1 208 2.197
33 FP1 209 0.732
33 FP1 210 0.244
33 FP1 211 0.244
33 FP1 212 1.221
33 FP1 213 2.686
33 FP1 214 4.150
33 FP1 215 5.127
33 FP1 216 5.127
33 FP1 217 4.150
33 FP1 218 3.174
33 FP1 219 2.197
33 FP1 220 1.709
33 FP1 221 1.221
33 FP1 222 0.244
33 FP1 223 0.244
33 FP1 224 0.244
33 FP1 225 1.709
33 FP1 226 3.174
33 FP1 227 4.150
33 FP1 228 4.639
33 FP1 229 3.174
33 FP1 230 1.221
33 FP1 231 1.221
33 FP1 232 2.686
33 FP1 233 5.615
33 FP1 234 8.057
33 FP1 235 9.033
33 FP1 236 7.568
33 FP1 237 4.639
33 FP1 238 1.709
33 FP1 239 -0.244
33 FP1 240 0.732
33 FP1 241 2.686
33 FP1 242 4.150
33 FP1 243 5.127
33 FP1 244 4.639
33 FP1 245 4.150
33 FP1 246 3.174
33 FP1 247 2.197
33 FP1 248 1.709
33 FP1 249 0.732
33 FP1 250 0.732
33 FP1 251 1.709
33 FP1 252 4.150
33 FP1 253 7.568
33 FP1 254 10.986
33 FP1 255 11.963
# FP2 chan 1
33 FP2 0 0.539
33 FP2 1 -0.437
33 FP2 2 -1.414
33 FP2 3 -1.902
33 FP2 4 -1.414
33 FP2 5 -0.437
33 FP2 6 -0.437
33 FP2 7 -0.437
33 FP2 8 -0.926
33 FP2 9 -1.902
33 FP2 10 -1.902
33 FP2 11 -0.926
33 FP2 12 1.027
33 FP2 13 2.981
33 FP2 14 4.445
33 FP2 15 5.422
33 FP2 16 5.422
33 FP2 17 4.934
33 FP2 18 3.469
33 FP2 19 2.004
33 FP2 20 -0.437
33 FP2 21 -2.391
33 FP2 22 -2.879
33 FP2 23 -2.879
33 FP2 24 -1.902
33 FP2 25 -0.926
33 FP2 26 -0.437
33 FP2 27 -1.902
33 FP2 28 -4.344
33 FP2 29 -6.297
33 FP2 30 -7.273
33 FP2 31 -7.273
33 FP2 32 -6.297
33 FP2 33 -4.832
33 FP2 34 -4.344
33 FP2 35 -3.855
33 FP2 36 -3.367
33 FP2 37 -3.367
33 FP2 38 -3.855
33 FP2 39 -4.832
33 FP2 40 -5.809
33 FP2 41 -6.785
33 FP2 42 -7.273
33 FP2 43 -7.273
33 FP2 44 -7.273
33 FP2 45 -7.762
33 FP2 46 -8.250
33 FP2 47 -8.738
33 FP2 48 -8.738
33 FP2 49 -8.738
33 FP2 50 -8.738
33 FP2 51 -8.250
33 FP2 52 -7.762
33 FP2 53 -6.785
33 FP2 54 -5.320
33 FP2 55 -3.855
33 FP2 56 -3.367
33 FP2 57 -3.855
33 FP2 58 -3.855
33 FP2 59 -4.344
33 FP2 60 -3.855
33 FP2 61 -2.391
33 FP2 62 -1.414
33 FP2 63 0.539
33 FP2 64 2.004
33 FP2 65 2.981
33 FP2 66 3.469
33 FP2 67 3.469
33 FP2 68 3.469
33 FP2 69 3.469
33 FP2 70 3.957
33 FP2 71 5.422
33 FP2 72 6.399
33 FP2 73 7.863
33 FP2 74 8.352
33 FP2 75 7.863
33 FP2 76 6.399
33 FP2 77 4.445
33 FP2 78 2.492
33 FP2 79 1.516
33 FP2 80 1.027
33 FP2 81 0.539
33 FP2 82 -0.437
33 FP2 83 -1.414
33 FP2 84 -2.391
33 FP2 85 -1.902
33 FP2 86 -1.414
33 FP2 87 -0.926
33 FP2 88 -1.414
33 FP2 89 -3.367
33 FP2 90 -5.809
33 FP2 91 -8.250
33 FP2 92 -9.715
33 FP2 93 -11.180
33 FP2 94 -11.180
33 FP2 95 -11.668
33 FP2 96 -12.156
33 FP2 97 -11.180
33 FP2 98 -9.226
33 FP2 99 -5.809
33 FP2 100 -1.902
33 FP2 101 0.051
33 FP2 102 0.539
33 FP2 103 0.051
33 FP2 104 -1.414
33 FP2 105 -1.902
33 FP2 106 -0.926
33 FP2 107 0.051
33 FP2 108 1.027
33 FP2 109 1.516
33 FP2 110 1.027
33 FP2 111 0.051
33 FP2 112 -0.437
33 FP2 113 -0.926
33 FP2 114 -1.902
33 FP2 115 -2.391
33 FP2 116 -2.879
33 FP2 117 -2.879
33 FP2 118 -2.879
33 FP2 119 -2.879
33 FP2 120 -3.855
33 FP2 121 -4.832
33 FP2 122 -5.809
33 FP2 123 -5.809
33 FP2 124 -5.809
33 FP2 125 -5.809
33 FP2 126 -6.297
33 FP2 127 -6.785
33 FP2 128 -7.762
33 FP2 129 -7.762
33 FP2 130 -7.273
33 FP2 131 -6.297
33 FP2 132 -5.320
33 FP2 133 -4.832
33 FP2 134 -4.344
33 FP2 135 -2.391
33 FP2 136 -0.437
33 FP2 137 1.516
33 FP2 138 2.492
33 FP2 139 2.004
33 FP2 140 1.027
33 FP2 141 -0.437
33 FP2 142 -1.902
33 FP2 143 -2.391
33 FP2 144 -2.391
33 FP2 145 -2.391
33 FP2 146 -2.879
33 FP2 147 -3.855
33 FP2 148 -4.832
33 FP2 149 -5.320
33 FP2 150 -5.320
33 FP2 151 -5.809
33 FP2 152 -6.297
33 FP2 153 -6.297
33 FP2 154 -5.809
33 FP2 155 -5.809
33 FP2 156 -5.320
33 FP2 157 -5.320
33 FP2 158 -5.809
33 FP2 159 -5.320
33 FP2 160 -5.320
33 FP2 161 -4.344
33 FP2 162 -3.367
33 FP2 163 -2.879
33 FP2 164 -3.367
33 FP2 165 -3.855
33 FP2 166 -5.320
33 FP2 167 -6.297
33 FP2 168 -6.785
33 FP2 169 -7.273
33 FP2 170 -6.785
33 FP2 171 -6.297
33 FP2 172 -6.785
33 FP2 173 -7.273
33 FP2 174 -7.762
33 FP2 175 -7.273
33 FP2 176 -5.809
33 FP2 177 -3.367
33 FP2 178 -1.902
33 FP2 179 -0.926
33 FP2 180 -1.902
33 FP2 181 -3.367
33 FP2 182 -3.855
33 FP2 183 -2.879
33 FP2 184 -1.414
33 FP2 185 -0.437
33 FP2 186 -0.437
33 FP2 187 -1.414
33 FP2 188 -2.879
33 FP2 189 -4.344
33 FP2 190 -4.344
33 FP2 191 -4.344
33 FP2 192 -4.344
33 FP2 193 -4.832
33 FP2 194 -5.320
33 FP2 195 -4.344
33 FP2 196 -2.879
33 FP2 197 -0.926
33 FP2 198 0.051
33 FP2 199 -0.926
33 FP2 200 -3.367
33 FP2 201 -5.809
33 FP2 202 -6.297
33 FP2 203 -4.832
33 FP2 204 -2.391
33 FP2 205 0.539
33 FP2 206 1.516
33 FP2 207 1.516
33 FP2 208 -0.437
33 FP2 209 -2.391
33 FP2 210 -3.855
33 FP2 211 -4.344
33 FP2 212 -3.367
33 FP2 213 -1.902
33 FP2 214 0.051
33 FP2 215 1.027
33 FP2 216 1.027
33 FP2 217 0.051
33 FP2 218 -0.926
33 FP2 219 -1.902
33 FP2 220 -2.391
33 FP2 221 -2.879
33 FP2 222 -3.367
33 FP2 223 -3.367
33 FP2 224 -3.367
33 FP2 225 -2.391
33 FP2 226 -0.437
33 FP2 227 1.027
33 FP2 228 1.516
33 FP2 229 0.539
33 FP2 230 -0.926
33 FP2 231 -1.414
33 FP2 232 -0.926
33 FP2 233 1.027
33 FP2 234 2.981
33 FP2 235 3.469
33 FP2 236 2.004
33 FP2 237 -0.437
33 FP2 238 -1.902
33 FP2 239 -1.902
33 FP2 240 -0.437
33 FP2 241 1.516
33 FP2 242 2.492
33 FP2 243 1.516
33 FP2 244 0.051
33 FP2 245 -0.926
33 FP2 246 -0.926
33 FP2 247 -0.437
33 FP2 248 0.051
33 FP2 249 -0.437
33 FP2 250 -0.437
33 FP2 251 0.051
33 FP2 252 2.004
33 FP2 253 4.934
33 FP2 254 7.375
33 FP2 255 7.863
# F7 chan 2
33 F7 0 6.063
33 F7 1 2.645
33 F7 2 1.180
33 F7 3 0.203
33 F7 4 0.203
33 F7 5 -0.285
33 F7 6 -0.773
33 F7 7 -0.773
33 F7 8 -0.285
33 F7 9 1.180
33 F7 10 3.133
33 F7 11 4.598
33 F7 12 5.086
33 F7 13 5.086
33 F7 14 4.110
33 F7 15 4.110
33 F7 16 3.621
33 F7 17 3.133
33 F7 18 2.157
33 F7 19 1.180
33 F7 20 0.692
33 F7 21 0.203
33 F7 22 -0.285
33 F7 23 -0.773
33 F7 24 -0.773
33 F7 25 -1.261
33 F7 26 -1.261
33 F7 27 -2.238
33 F7 28 -3.703
33 F7 29 -5.656
33 F7 30 -6.632
33 F7 31 -7.609
33 F7 32 -7.121
33 F7 33 -7.121
33 F7 34 -6.144
33 F7 35 -5.168
33 F7 36 -3.703
33 F7 37 -2.238
33 F7 38 -1.261
33 F7 39 -1.261
33 F7 40 -2.238
33 F7 41 -4.679
33 F7 42 -6.632
33 F7 43 -8.097
33 F7 44 -8.586
33 F7 45 -8.586
33 F7 46 -8.586
33 F7 47 -9.074
33 F7 48 -9.562
33 F7 49 -11.515
33 F7 50 -12.980
33 F7 51 -13.468
33 F7 52 -13.468
33 F7 53 -11.515
33 F7 54 -9.074
33 F7 55 -6.632
33 F7 56 -5.656
33 F7 57 -5.656
33 F7 58 -6.632
33 F7 59 -6.632
33 F7 60 -6.144
33 F7 61 -4.679
33 F7 62 -2.726
33 F7 63 -1.750
33 F7 64 -1.750
33 F7 65 -2.238
33 F7 66 -2.238
33 F7 67 -1.750
33 F7 68 -0.773
33 F7 69 0.692
33 F7 70 2.157
33 F7 71 4.110
33 F7 72 5.086
33 F7 73 6.063
33 F7 74 5.575
33 F7 75 4.598
33 F7 76 3.621
33 F7 77 2.157
33 F7 78 1.668
33 F7 79 2.157
33 F7 80 3.133
33 F7 81 3.621
33 F7 82 3.621
33 F7 83 2.645
33 F7 84 0.692
33 F7 85 -0.285
33 F7 86 -1.261
33 F7 87 -1.261
33 F7 88 -1.750
33 F7 89 -2.238
33 F7 90 -2.726
33 F7 91 -3.703
33 F7 92 -4.191
33 F7 93 -4.679
33 F7 94 -4.679
33 F7 95 -5.168
33 F7 96 -5.656
33 F7 97 -6.144
33 F7 98 -5.656
33 F7 99 -4.679
33 F7 100 -3.215
33 F7 101 -1.750
33 F7 102 -0.773
33 F7 103 0.203
33 F7 104 0.692
33 F7 105 0.692
33 F7 106 0.692
33 F7 107 0.203
33 F7 108 -0.285
33 F7 109 -0.773
33 F7 110 -1.261
33 F7 111 -1.261
33 F7 112 -1.261
33 F7 113 -1.750
33 F7 114 -2.726
33 F7 115 -3.215
33 F7 116 -3.703
33 F7 117 -3.703
33 F7 118 -3.703
33 F7 119 -4.191
33 F7 120 -4.679
33 F7 121 -4.679
33 F7 122 -3.703
33 F7 123 -2.726
33 F7 124 -2.238
33 F7 125 -2.238
33 F7 126 -3.215
33 F7 127 -4.679
33 F7 128 -6.144
33 F7 129 -6.144
33 F7 130 -5.168
33 F7 131 -3.703
33 F7 132 -2.726
33 F7 133 -2.238
33 F7 134 -1.750
33 F7 135 -1.261
33 F7 136 0.203
33 F7 137 0.692
33 F7 138 1.180
33 F7 139 0.203
33 F7 140 -1.261
33 F7 141 -2.238
33 F7 142 -2.238
33 F7 143 -1.750
33 F7 144 -1.261
33 F7 145 -1.750
33 F7 146 -2.238
33 F7 147 -2.726
33 F7 148 -2.238
33 F7 149 -1.750
33 F7 150 -0.773
33 F7 151 -0.773
33 F7 152 -1.750
33 F7 153 -3.703
33 F7 154 -5.168
33 F7 155 -6.144
33 F7 156 -6.144
33 F7 157 -5.168
33 F7 158 -4.191
33 F7 159 -3.703
33 F7 160 -3.703
33 F7 161 -4.191
33 F7 162 -4.679
33 F7 163 -4.191
33 F7 164 -3.703
33 F7 165 -2.726
33 F7 166 -2.726
33 F7 167 -3.703
33 F7 168 -4.679
33 F7 169 -5.656
33 F7 170 -6.144
33 F7 171 -5.656
33 F7 172 -4.191
33 F7 173 -2.726
33 F7 174 -1.750
33 F7 175 -1.261
33 F7 176 -1.750
33 F7 177 -2.726
33 F7 178 -4.191
33 F7 179 -5.656
33 F7 180 -6.632
33 F7 181 -6.144
33 F7 182 -5.168
33 F7 183 -3.215
33 F7 184 -1.750
33 F7 185 -1.261
33 F7 186 -1.261
33 F7 187 -1.261
33 F7 188 -1.261
33 F7 189 -1.750
33 F7 190 -2.238
33 F7 191 -3.215
33 F7 192 -5.168
33 F7 193 -7.121
33 F7 194 -6.632
33 F7 195 -3.215
33 F7 196 2.645
33 F7 197 8.016
33 F7 198 9.969
33 F7 199 7.528
33 F7 200 2.157
33 F7 201 -2.238
33 F7 202 -3.215
33 F7 203 -0.285
33 F7 204 3.621
33 F7 205 6.063
33 F7 206 6.551
33 F7 207 4.598
33 F7 208 3.621
33 F7 209 4.110
33 F7 210 5.575
33 F7 211 7.039
33 F7 212 7.528
33 F7 213 7.039
33 F7 214 5.575
33 F7 215 4.598
33 F7 216 5.086
33 F7 217 6.063
33 F7 218 7.039
33 F7 219 7.528
33 F7 220 6.551
33 F7 221 5.086
33 F7 222 3.621
33 F7 223 3.133
33 F7 224 3.621
33 F7 225 5.086
33 F7 226 7.528
33 F7 227 8.993
33 F7 228 8.993
33 F7 229 7.039
33 F7 230 5.575
33 F7 231 4.598
33 F7 232 6.063
33 F7 233 8.504
33 F7 234 10.946
33 F7 235 11.922
33 F7 236 11.434
33 F7 237 9.481
33 F7 238 7.528
33 F7 239 6.063
33 F7 240 6.063
33 F7 241 6.063
33 F7 242 5.575
33 F7 243 5.086
33 F7 244 4.110
33 F7 245 3.133
33 F7 246 3.621
33 F7 247 4.598
33 F7 248 5.575
33 F7 249 5.575
33 F7 250 6.063
33 F7 251 6.551
33 F7 252 8.016
33 F7 253 10.946
33 F7 254 13.387
33 F7 255 14.364
# F8 chan 3
33 F8 0 -5.402
33 F8 1 -5.402
33 F8 2 -5.402
33 F8 3 -4.913
33 F8 4 -4.913
33 F8 5 -4.913
33 F8 6 -4.913
33 F8 7 -4.425
33 F8 8 -4.425
33 F8 9 -4.425
33 F8 10 -3.937
33 F8 11 -3.448
33 F8 12 -2.472
33 F8 13 -1.007
33 F8 14 0.458
33 F8 15 2.411
33 F8 16 3.387
33 F8 17 3.387
33 F8 18 1.923
33 F8 19 -0.031
33 F8 20 -1.984
33 F8 21 -3.937
33 F8 22 -4.425
33 F8 23 -4.913
33 F8 24 -4.425
33 F8 25 -2.960
33 F8 26 -1.495
33 F8 27 -1.007
33 F8 28 -1.984
33 F8 29 -3.937
33 F8 30 -5.890
33 F8 31 -6.866
33 F8 32 -7.355
33 F8 33 -6.866
33 F8 34 -5.890
33 F8 35 -5.890
33 F8 36 -5.890
33 F8 37 -6.378
33 F8 38 -6.378
33 F8 39 -6.866
33 F8 40 -6.378
33 F8 41 -6.866
33 F8 42 -7.843
33 F8 43 -8.820
33 F8 44 -9.308
33 F8 45 -9.796
33 F8 46 -10.284
33 F8 47 -10.773
33 F8 48 -10.773
33 F8 49 -10.284
33 F8 50 -9.308
33 F8 51 -7.843
33 F8 52 -7.355
33 F8 53 -6.866
33 F8 54 -6.866
33 F8 55 -6.378
33 F8 56 -5.402
33 F8 57 -4.913
33 F8 58 -4.425
33 F8 59 -4.425
33 F8 60 -4.425
33 F8 61 -4.425
33 F8 62 -3.448
33 F8 63 -1.984
33 F8 64 -0.031
33 F8 65 0.946
33 F8 66 1.434
33 F8 67 1.434
33 F8 68 1.434
33 F8 69 1.434
33 F8 70 1.923
33 F8 71 2.899
33 F8 72 3.876
33 F8 73 4.852
33 F8 74 5.341
33 F8 75 4.852
33 F8 76 2.899
33 F8 77 -0.031
33 F8 78 -2.472
33 F8 79 -4.425
33 F8 80 -4.913
33 F8 81 -5.402
33 F8 82 -5.402
33 F8 83 -6.866
33 F8 84 -7.843
33 F8 85 -8.331
33 F8 86 -7.355
33 F8 87 -6.866
33 F8 88 -6.866
33 F8 89 -7.843
33 F8 90 -10.284
33 F8 91 -12.726
33 F8 92 -14.679
33 F8 93 -15.656
33 F8 94 -15.656
33 F8 95 -15.167
33 F8 96 -14.679
33 F8 97 -13.702
33 F8 98 -11.261
33 F8 99 -8.331
33 F8 100 -4.913
33 F8 101 -2.960
33 F8 102 -2.960
33 F8 103 -3.937
33 F8 104 -4.913
33 F8 105 -4.913
33 F8 106 -3.448
33 F8 107 -1.984
33 F8 108 -1.007
33 F8 109 -1.007
33 F8 110 -1.984
33 F8 111 -3.448
33 F8 112 -3.937
33 F8 113 -3.937
33 F8 114 -4.425
33 F8 115 -4.425
33 F8 116 -4.425
33 F8 117 -4.913
33 F8 118 -5.890
33 F8 119 -7.355
33 F8 120 -8.820
33 F8 121 -10.284
33 F8 122 -11.261
33 F8 123 -11.261
33 F8 124 -11.261
33 F8 125 -11.261
33 F8 126 -11.261
33 F8 127 -11.749
33 F8 128 -11.749
33 F8 129 -11.261
33 F8 130 -10.284
33 F8 131 -9.796
33 F8 132 -9.308
33 F8 133 -8.331
33 F8 134 -6.866
33 F8 135 -5.402
33 F8 136 -3.448
33 F8 137 -2.472
33 F8 138 -2.960
33 F8 139 -4.425
33 F8 140 -7.355
33 F8 141 -8.820
33 F8 142 -9.308
33 F8 143 -8.331
33 F8 144 -6.866
33 F8 145 -6.378
33 F8 146 -6.866
33 F8 147 -7.843
33 F8 148 -8.820
33 F8 149 -9.308
33 F8 150 -8.331
33 F8 151 -6.866
33 F8 152 -4.913
33 F8 153 -3.448
33 F8 154 -3.448
33 F8 155 -3.937
33 F8 156 -5.402
33 F8 157 -6.378
33 F8 158 -6.378
33 F8 159 -5.890
33 F8 160 -5.402
33 F8 161 -4.913
33 F8 162 -4.913
33 F8 163 -4.913
33 F8 164 -5.402
33 F8 165 -5.890
33 F8 166 -6.866
33 F8 167 -8.331
33 F8 168 -10.284
33 F8 169 -11.261
33 F8 170 -11.261
33 F8 171 -10.773
33 F8 172 -10.773
33 F8 173 -11.261
33 F8 174 -11.261
33 F8 175 -10.284
33 F8 176 -8.331
33 F8 177 -5.402
33 F8 178 -2.960
33 F8 179 -1.495
33 F8 180 -1.984
33 F8 181 -3.448
33 F8 182 -4.913
33 F8 183 -4.913
33 F8 184 -4.425
33 F8 185 -3.937
33 F8 186 -3.448
33 F8 187 -3.937
33 F8 188 -4.425
33 F8 189 -4.425
33 F8 190 -4.425
33 F8 191 -3.937
33 F8 192 -3.937
33 F8 193 -4.425
33 F8 194 -5.402
33 F8 195 -5.402
33 F8 196 -5.402
33 F8 197 -4.913
33 F8 198 -4.425
33 F8 199 -5.402
33 F8 200 -5.890
33 F8 201 -6.866
33 F8 202 -6.866
33 F8 203 -5.890
33 F8 204 -4.425
33 F8 205 -3.448
33 F8 206 -2.960
33 F8 207 -3.937
33 F8 208 -5.402
33 F8 209 -7.355
33 F8 210 -8.820
33 F8 211 -9.308
33 F8 212 -8.331
33 F8 213 -6.378
33 F8 214 -3.937
33 F8 215 -2.472
33 F8 216 -2.472
33 F8 217 -3.937
33 F8 218 -4.913
33 F8 219 -5.402
33 F8 220 -5.402
33 F8 221 -5.402
33 F8 222 -5.402
33 F8 223 -5.402
33 F8 224 -5.402
33 F8 225 -3.937
33 F8 226 -1.495
33 F8 227 0.458
33 F8 228 1.434
33 F8 229 0.946
33 F8 230 -0.519
33 F8 231 -1.984
33 F8 232 -2.472
33 F8 233 -1.007
33 F8 234 0.458
33 F8 235 0.946
33 F8 236 -0.519
33 F8 237 -2.960
33 F8 238 -4.425
33 F8 239 -3.937
33 F8 240 -2.472
33 F8 241 -1.495
33 F8 242 -1.495
33 F8 243 -2.960
33 F8 244 -4.913
33 F8 245 -6.378
33 F8 246 -5.402
33 F8 247 -4.425
33 F8 248 -3.937
33 F8 249 -4.425
33 F8 250 -4.913
33 F8 251 -4.425
33 F8 252 -2.472
33 F8 253 -0.031
33 F8 254 2.411
33 F8 255 2.411
# AF1 chan 4
33 AF1 0 1.973
33 AF1 1 0.997
33 AF1 2 0.020
33 AF1 3 0.020
33 AF1 4 0.509
33 AF1 5 0.509
33 AF1 6 0.509
33 AF1 7 0.509
33 AF1 8 0.509
33 AF1 9 0.509
33 AF1 10 1.485
33 AF1 11 2.462
33 AF1 12 4.415
33 AF1 13 5.391
33 AF1 14 5.391
33 AF1 15 4.903
33 AF1 16 4.415
33 AF1 17 3.927
33 AF1 18 3.438
33 AF1 19 2.950
33 AF1 20 1.973
33 AF1 21 0.509
33 AF1 22 -0.468
33 AF1 23 -0.468
33 AF1 24 0.509
33 AF1 25 0.997
33 AF1 26 0.997
33 AF1 27 -0.468
33 AF1 28 -1.933
33 AF1 29 -3.886
33 AF1 30 -4.862
33 AF1 31 -5.351
33 AF1 32 -4.862
33 AF1 33 -4.374
33 AF1 34 -3.398
33 AF1 35 -2.421
33 AF1 36 -1.933
33 AF1 37 -1.444
33 AF1 38 -2.421
33 AF1 39 -2.909
33 AF1 40 -4.374
33 AF1 41 -5.351
33 AF1 42 -6.327
33 AF1 43 -7.304
33 AF1 44 -8.769
33 AF1 45 -9.745
33 AF1 46 -9.745
33 AF1 47 -9.257
33 AF1 48 -8.280
33 AF1 49 -8.280
33 AF1 50 -9.257
33 AF1 51 -10.234
33 AF1 52 -10.234
33 AF1 53 -9.257
33 AF1 54 -7.304
33 AF1 55 -4.862
33 AF1 56 -3.886
33 AF1 57 -4.374
33 AF1 58 -5.351
33 AF1 59 -6.816
33 AF1 60 -6.816
33 AF1 61 -5.839
33 AF1 62 -4.374
33 AF1 63 -2.421
33 AF1 64 -0.468
33 AF1 65 0.020
33 AF1 66 0.020
33 AF1 67 -0.956
33 AF1 68 -1.444
33 AF1 69 -1.444
33 AF1 70 -0.468
33 AF1 71 0.997
33 AF1 72 2.462
33 AF1 73 3.927
33 AF1 74 3.927
33 AF1 75 2.950
33 AF1 76 1.973
33 AF1 77 0.509
33 AF1 78 0.020
33 AF1 79 -0.468
33 AF1 80 -0.468
33 AF1 81 -0.468
33 AF1 82 -0.956
33 AF1 83 -0.956
33 AF1 84 -1.933
33 AF1 85 -1.933
33 AF1 86 -2.421
33 AF1 87 -2.421
33 AF1 88 -2.421
33 AF1 89 -2.909
33 AF1 90 -3.886
33 AF1 91 -4.862
33 AF1 92 -5.351
33 AF1 93 -5.351
33 AF1 94 -5.351
33 AF1 95 -5.351
33 AF1 96 -5.351
33 AF1 97 -4.862
33 AF1 98 -3.886
33 AF1 99 -2.421
33 AF1 100 -0.956
33 AF1 101 -0.468
33 AF1 102 0.020
33 AF1 103 0.020
33 AF1 104 -0.468
33 AF1 105 0.509
33 AF1 106 0.997
33 AF1 107 1.485
33 AF1 108 0.997
33 AF1 109 0.020
33 AF1 110 -0.956
33 AF1 111 -1.933
33 AF1 112 -2.421
33 AF1 113 -2.421
33 AF1 114 -2.909
33 AF1 115 -3.398
33 AF1 116 -3.886
33 AF1 117 -3.886
33 AF1 118 -4.374
33 AF1 119 -5.351
33 AF1 120 -5.839
33 AF1 121 -5.839
33 AF1 122 -4.862
33 AF1 123 -3.398
33 AF1 124 -2.421
33 AF1 125 -2.421
33 AF1 126 -3.886
33 AF1 127 -5.351
33 AF1 128 -6.816
33 AF1 129 -6.816
33 AF1 130 -6.327
33 AF1 131 -4.862
33 AF1 132 -3.886
33 AF1 133 -2.421
33 AF1 134 -1.444
33 AF1 135 -0.468
33 AF1 136 0.020
33 AF1 137 0.509
33 AF1 138 0.509
33 AF1 139 0.997
33 AF1 140 0.997
33 AF1 141 0.997
33 AF1 142 0.509
33 AF1 143 0.020
33 AF1 144 -0.956
33 AF1 145 -1.933
33 AF1 146 -2.421
33 AF1 147 -1.933
33 AF1 148 -1.444
33 AF1 149 -0.956
33 AF1 150 -0.956
33 AF1 151 -1.444
33 AF1 152 -2.909
33 AF1 153 -3.398
33 AF1 154 -3.398
33 AF1 155 -2.909
33 AF1 156 -2.421
33 AF1 157 -1.933
33 AF1 158 -1.444
33 AF1 159 -1.444
33 AF1 160 -1.933
33 AF1 161 -1.444
33 AF1 162 -1.444
33 AF1 163 -0.956
33 AF1 164 -0.956
33 AF1 165 -0.956
33 AF1 166 -1.444
33 AF1 167 -2.421
33 AF1 168 -2.909
33 AF1 169 -3.886
33 AF1 170 -4.374
33 AF1 171 -4.374
33 AF1 172 -4.862
33 AF1 173 -4.862
33 AF1 174 -4.862
33 AF1 175 -4.374
33 AF1 176 -3.886
33 AF1 177 -2.909
33 AF1 178 -2.421
33 AF1 179 -2.421
33 AF1 180 -2.909
33 AF1 181 -3.398
33 AF1 182 -4.374
33 AF1 183 -3.886
33 AF1 184 -2.909
33 AF1 185 -2.421
33 AF1 186 -1.933
33 AF1 187 -1.933
33 AF1 188 -2.421
33 AF1 189 -2.421
33 AF1 190 -2.909
33 AF1 191 -3.398
33 AF1 192 -3.886
33 AF1 193 -4.374
33 AF1 194 -3.398
33 AF1 195 -1.444
33 AF1 196 0.997
33 AF1 197 2.950
33 AF1 198 3.438
33 AF1 199 1.485
33 AF1 200 -0.956
33 AF1 201 -2.909
33 AF1 202 -3.398
33 AF1 203 -1.933
33 AF1 204 0.020
33 AF1 205 1.485
33 AF1 206 1.973
33 AF1 207 0.997
33 AF1 208 -0.468
33 AF1 209 -1.444
33 AF1 210 -1.933
33 AF1 211 -1.933
33 AF1 212 -1.933
33 AF1 213 -0.956
33 AF1 214 0.020
33 AF1 215 0.509
33 AF1 216 0.997
33 AF1 217 0.997
33 AF1 218 0.509
33 AF1 219 0.020
33 AF1 220 -0.468
33 AF1 221 -0.956
33 AF1 222 -1.444
33 AF1 223 -1.444
33 AF1 224 -0.956
33 AF1 225 -0.468
33 AF1 226 0.509
33 AF1 227 0.509
33 AF1 228 -0.468
33 AF1 229 -1.444
33 AF1 230 -2.909
33 AF1 231 -2.909
33 AF1 232 -1.933
33 AF1 233 0.020
33 AF1 234 1.973
33 AF1 235 2.950
33 AF1 236 2.462
33 AF1 237 0.020
33 AF1 238 -1.444
33 AF1 239 -1.933
33 AF1 240 -1.933
33 AF1 241 -0.468
33 AF1 242 0.020
33 AF1 243 0.020
33 AF1 244 -0.468
33 AF1 245 -1.444
33 AF1 246 -1.444
33 AF1 247 -1.444
33 AF1 248 -1.444
33 AF1 249 -1.933
33 AF1 250 -1.933
33 AF1 251 -1.444
33 AF1 252 0.509
33 AF1 253 3.927
33 AF1 254 6.368
33 AF1 255 6.856
# AF2 chan 5
33 AF2 0 -1.292
33 AF2 1 -2.268
33 AF2 2 -2.757
33 AF2 3 -2.757
33 AF2 4 -1.780
33 AF2 5 -0.804
33 AF2 6 -0.315
33 AF2 7 0.173
33 AF2 8 -0.315
33 AF2 9 -1.292
33 AF2 10 -1.292
33 AF2 11 -0.804
33 AF2 12 0.661
33 AF2 13 2.614
33 AF2 14 4.079
33 AF2 15 5.056
33 AF2 16 5.056
33 AF2 17 4.567
33 AF2 18 4.079
33 AF2 19 2.614
33 AF2 20 1.638
33 AF2 21 0.173
33 AF2 22 -0.315
33 AF2 23 -0.804
33 AF2 24 -0.315
33 AF2 25 0.661
33 AF2 26 1.149
33 AF2 27 0.173
33 AF2 28 -1.292
33 AF2 29 -3.245
33 AF2 30 -4.710
33 AF2 31 -5.198
33 AF2 32 -4.710
33 AF2 33 -4.222
33 AF2 34 -3.245
33 AF2 35 -3.245
33 AF2 36 -3.245
33 AF2 37 -3.733
33 AF2 38 -4.222
33 AF2 39 -4.710
33 AF2 40 -5.198
33 AF2 41 -5.198
33 AF2 42 -5.686
33 AF2 43 -6.663
33 AF2 44 -7.151
33 AF2 45 -7.640
33 AF2 46 -8.128
33 AF2 47 -8.616
33 AF2 48 -8.616
33 AF2 49 -8.128
33 AF2 50 -7.640
33 AF2 51 -7.151
33 AF2 52 -6.663
33 AF2 53 -5.198
33 AF2 54 -4.222
33 AF2 55 -2.757
33 AF2 56 -2.268
33 AF2 57 -2.757
33 AF2 58 -3.245
33 AF2 59 -4.222
33 AF2 60 -4.222
33 AF2 61 -3.245
33 AF2 62 -1.780
33 AF2 63 -0.315
33 AF2 64 0.661
33 AF2 65 1.638
33 AF2 66 1.638
33 AF2 67 1.638
33 AF2 68 1.638
33 AF2 69 1.638
33 AF2 70 2.126
33 AF2 71 3.103
33 AF2 72 4.079
33 AF2 73 5.056
33 AF2 74 5.056
33 AF2 75 4.567
33 AF2 76 3.591
33 AF2 77 2.126
33 AF2 78 0.661
33 AF2 79 0.173
33 AF2 80 -0.804
33 AF2 81 -1.292
33 AF2 82 -2.268
33 AF2 83 -3.245
33 AF2 84 -3.733
33 AF2 85 -3.733
33 AF2 86 -2.757
33 AF2 87 -1.780
33 AF2 88 -1.780
33 AF2 89 -2.757
33 AF2 90 -4.710
33 AF2 91 -6.175
33 AF2 92 -7.151
33 AF2 93 -7.640
33 AF2 94 -7.640
33 AF2 95 -7.640
33 AF2 96 -8.128
33 AF2 97 -7.151
33 AF2 98 -5.686
33 AF2 99 -2.757
33 AF2 100 0.173
33 AF2 101 1.638
33 AF2 102 1.638
33 AF2 103 0.173
33 AF2 104 -0.804
33 AF2 105 -0.804
33 AF2 106 0.173
33 AF2 107 1.638
33 AF2 108 2.126
33 AF2 109 1.638
33 AF2 110 0.661
33 AF2 111 -0.804
33 AF2 112 -1.780
33 AF2 113 -2.757
33 AF2 114 -2.757
33 AF2 115 -3.245
33 AF2 116 -2.757
33 AF2 117 -2.757
33 AF2 118 -2.757
33 AF2 119 -3.245
33 AF2 120 -3.733
33 AF2 121 -4.710
33 AF2 122 -5.198
33 AF2 123 -5.198
33 AF2 124 -4.710
33 AF2 125 -5.198
33 AF2 126 -5.686
33 AF2 127 -7.151
33 AF2 128 -7.640
33 AF2 129 -7.640
33 AF2 130 -6.663
33 AF2 131 -5.686
33 AF2 132 -5.198
33 AF2 133 -4.710
33 AF2 134 -3.245
33 AF2 135 -1.780
33 AF2 136 0.661
33 AF2 137 2.126
33 AF2 138 2.614
33 AF2 139 2.126
33 AF2 140 1.149
33 AF2 141 -0.315
33 AF2 142 -0.804
33 AF2 143 -0.804
33 AF2 144 -0.804
33 AF2 145 -0.804
33 AF2 146 -0.804
33 AF2 147 -1.780
33 AF2 148 -2.268
33 AF2 149 -3.245
33 AF2 150 -3.245
33 AF2 151 -3.733
33 AF2 152 -3.733
33 AF2 153 -3.733
33 AF2 154 -3.733
33 AF2 155 -3.245
33 AF2 156 -2.757
33 AF2 157 -2.757
33 AF2 158 -2.268
33 AF2 159 -2.268
33 AF2 160 -2.268
33 AF2 161 -1.780
33 AF2 162 -1.292
33 AF2 163 -1.292
33 AF2 164 -1.780
33 AF2 165 -2.757
33 AF2 166 -3.733
33 AF2 167 -5.198
33 AF2 168 -5.686
33 AF2 169 -6.175
33 AF2 170 -6.175
33 AF2 171 -6.175
33 AF2 172 -6.663
33 AF2 173 -7.640
33 AF2 174 -7.640
33 AF2 175 -7.640
33 AF2 176 -6.175
33 AF2 177 -3.733
33 AF2 178 -1.780
33 AF2 179 -0.804
33 AF2 180 -1.292
33 AF2 181 -2.268
33 AF2 182 -3.733
33 AF2 183 -4.222
33 AF2 184 -3.733
33 AF2 185 -3.733
33 AF2 186 -3.245
33 AF2 187 -3.733
33 AF2 188 -4.222
33 AF2 189 -4.222
33 AF2 190 -4.222
33 AF2 191 -4.222
33 AF2 192 -4.710
33 AF2 193 -4.710
33 AF2 194 -5.198
33 AF2 195 -4.222
33 AF2 196 -3.245
33 AF2 197 -1.780
33 AF2 198 -1.780
33 AF2 199 -2.757
33 AF2 200 -4.222
33 AF2 201 -6.175
33 AF2 202 -6.663
33 AF2 203 -5.198
33 AF2 204 -3.733
33 AF2 205 -1.292
33 AF2 206 -0.804
33 AF2 207 -1.292
33 AF2 208 -2.757
33 AF2 209 -4.710
33 AF2 210 -6.175
33 AF2 211 -6.663
33 AF2 212 -5.686
33 AF2 213 -3.733
33 AF2 214 -1.292
33 AF2 215 0.173
33 AF2 216 1.149
33 AF2 217 0.661
33 AF2 218 -0.804
33 AF2 219 -1.780
33 AF2 220 -2.757
33 AF2 221 -2.757
33 AF2 222 -3.245
33 AF2 223 -2.757
33 AF2 224 -2.268
33 AF2 225 -1.780
33 AF2 226 -1.292
33 AF2 227 -0.804
33 AF2 228 -1.292
33 AF2 229 -2.268
33 AF2 230 -3.245
33 AF2 231 -2.757
33 AF2 232 -1.780
33 AF2 233 0.173
33 AF2 234 1.149
33 AF2 235 1.149
33 AF2 236 -0.315
33 AF2 237 -2.757
33 AF2 238 -4.222
33 AF2 239 -3.733
33 AF2 240 -1.780
33 AF2 241 0.661
33 AF2 242 1.638
33 AF2 243 1.149
33 AF2 244 -0.315
33 AF2 245 -1.292
33 AF2 246 -1.292
33 AF2 247 -0.804
33 AF2 248 -0.804
33 AF2 249 -0.804
33 AF2 250 -1.292
33 AF2 251 -0.315
33 AF2 252 1.149
33 AF2 253 3.591
33 AF2 254 6.032
33 AF2 255 6.032
# FZ chan 6
33 FZ 0 0.244
33 FZ 1 -0.732
33 FZ 2 -1.709
33 FZ 3 -1.221
33 FZ 4 -1.221
33 FZ 5 -0.244
33 FZ 6 0.732
33 FZ 7 1.221
33 FZ 8 1.221
33 FZ 9 1.221
33 FZ 10 0.732
33 FZ 11 1.221
33 FZ 12 2.197
33 FZ 13 3.174
33 FZ 14 4.150
33 FZ 15 4.639
33 FZ 16 4.639
33 FZ 17 4.639
33 FZ 18 4.639
33 FZ 19 4.150
33 FZ 20 3.174
33 FZ 21 2.197
33 FZ 22 1.221
33 FZ 23 1.221
33 FZ 24 1.709
33 FZ 25 2.197
33 FZ 26 1.709
33 FZ 27 1.221
33 FZ 28 -0.244
33 FZ 29 -1.709
33 FZ 30 -2.686
33 FZ 31 -3.174
33 FZ 32 -2.686
33 FZ 33 -2.197
33 FZ 34 -1.709
33 FZ 35 -1.709
33 FZ 36 -1.709
33 FZ 37 -2.197
33 FZ 38 -2.686
33 FZ 39 -3.174
33 FZ 40 -4.150
33 FZ 41 -5.127
33 FZ 42 -5.615
33 FZ 43 -6.104
33 FZ 44 -6.592
33 FZ 45 -7.080
33 FZ 46 -7.568
33 FZ 47 -8.057
33 FZ 48 -8.057
33 FZ 49 -8.057
33 FZ 50 -8.057
33 FZ 51 -7.568
33 FZ 52 -6.592
33 FZ 53 -5.615
33 FZ 54 -4.639
33 FZ 55 -3.662
33 FZ 56 -3.174
33 FZ 57 -3.174
33 FZ 58 -4.150
33 FZ 59 -4.639
33 FZ 60 -5.127
33 FZ 61 -4.639
33 FZ 62 -3.662
33 FZ 63 -2.686
33 FZ 64 -1.709
33 FZ 65 -1.709
33 FZ 66 -1.709
33 FZ 67 -2.197
33 FZ 68 -1.709
33 FZ 69 -1.709
33 FZ 70 -1.221
33 FZ 71 -0.732
33 FZ 72 -0.244
33 FZ 73 0.244
33 FZ 74 0.732
33 FZ 75 0.732
33 FZ 76 0.244
33 FZ 77 -0.244
33 FZ 78 -0.732
33 FZ 79 -0.732
33 FZ 80 -1.221
33 FZ 81 -1.709
33 FZ 82 -2.686
33 FZ 83 -3.174
33 FZ 84 -3.662
33 FZ 85 -3.174
33 FZ 86 -2.686
33 FZ 87 -1.709
33 FZ 88 -1.709
33 FZ 89 -2.197
33 FZ 90 -3.174
33 FZ 91 -4.150
33 FZ 92 -4.150
33 FZ 93 -3.662
33 FZ 94 -3.662
33 FZ 95 -3.174
33 FZ 96 -3.174
33 FZ 97 -3.174
33 FZ 98 -2.197
33 FZ 99 -0.244
33 FZ 100 1.709
33 FZ 101 2.686
33 FZ 102 2.686
33 FZ 103 1.709
33 FZ 104 1.221
33 FZ 105 1.221
33 FZ 106 2.197
33 FZ 107 2.686
33 FZ 108 2.686
33 FZ 109 1.221
33 FZ 110 -0.244
33 FZ 111 -0.732
33 FZ 112 -1.709
33 FZ 113 -1.709
33 FZ 114 -1.709
33 FZ 115 -1.221
33 FZ 116 -1.221
33 FZ 117 -1.709
33 FZ 118 -2.197
33 FZ 119 -2.686
33 FZ 120 -3.174
33 FZ 121 -3.662
33 FZ 122 -3.174
33 FZ 123 -2.197
33 FZ 124 -2.197
33 FZ 125 -2.197
33 FZ 126 -2.686
33 FZ 127 -3.662
33 FZ 128 -4.150
33 FZ 129 -4.150
33 FZ 130 -3.174
33 FZ 131 -2.686
33 FZ 132 -2.197
33 FZ 133 -1.709
33 FZ 134 -1.221
33 FZ 135 -0.244
33 FZ 136 1.709
33 FZ 137 3.174
33 FZ 138 3.662
33 FZ 139 3.662
33 FZ 140 3.174
33 FZ 141 2.197
33 FZ 142 1.221
33 FZ 143 0.732
33 FZ 144 0.732
33 FZ 145 0.732
33 FZ 146 0.244
33 FZ 147 0.244
33 FZ 148 0.244
33 FZ 149 0.244
33 FZ 150 -0.244
33 FZ 151 -0.732
33 FZ 152 -1.221
33 FZ 153 -1.221
33 FZ 154 -0.732
33 FZ 155 -0.732
33 FZ 156 0.244
33 FZ 157 0.244
33 FZ 158 0.244
33 FZ 159 0.732
33 FZ 160 0.732
33 FZ 161 0.732
33 FZ 162 0.732
33 FZ 163 0.732
33 FZ 164 0.732
33 FZ 165 0.244
33 FZ 166 -0.732
33 FZ 167 -1.221
33 FZ 168 -1.709
33 FZ 169 -2.686
33 FZ 170 -2.686
33 FZ 171 -2.686
33 FZ 172 -3.174
33 FZ 173 -4.150
33 FZ 174 -4.639
33 FZ 175 -4.639
33 FZ 176 -4.150
33 FZ 177 -2.686
33 FZ 178 -1.221
33 FZ 179 -0.732
33 FZ 180 -0.732
33 FZ 181 -1.709
33 FZ 182 -2.686
33 FZ 183 -3.174
33 FZ 184 -3.174
33 FZ 185 -2.686
33 FZ 186 -2.686
33 FZ 187 -2.686
33 FZ 188 -3.174
33 FZ 189 -3.174
33 FZ 190 -3.174
33 FZ 191 -3.662
33 FZ 192 -3.662
33 FZ 193 -4.150
33 FZ 194 -3.662
33 FZ 195 -2.686
33 FZ 196 -1.221
33 FZ 197 0.244
33 FZ 198 0.244
33 FZ 199 -1.221
33 FZ 200 -2.686
33 FZ 201 -4.150
33 FZ 202 -4.639
33 FZ 203 -3.662
33 FZ 204 -2.686
33 FZ 205 -1.709
33 FZ 206 -1.221
33 FZ 207 -1.709
33 FZ 208 -2.686
33 FZ 209 -4.150
33 FZ 210 -4.639
33 FZ 211 -4.639
33 FZ 212 -4.150
33 FZ 213 -3.174
33 FZ 214 -1.709
33 FZ 215 -0.244
33 FZ 216 0.732
33 FZ 217 0.244
33 FZ 218 -0.244
33 FZ 219 -1.221
33 FZ 220 -1.709
33 FZ 221 -2.197
33 FZ 222 -2.197
33 FZ 223 -1.709
33 FZ 224 -1.221
33 FZ 225 -0.732
33 FZ 226 -0.244
33 FZ 227 -1.221
33 FZ 228 -2.197
33 FZ 229 -3.174
33 FZ 230 -4.150
33 FZ 231 -3.662
33 FZ 232 -2.197
33 FZ 233 -0.732
33 FZ 234 0.732
33 FZ 235 0.732
33 FZ 236 -0.732
33 FZ 237 -2.197
33 FZ 238 -3.662
33 FZ 239 -3.174
33 FZ 240 -1.709
33 FZ 241 -0.244
33 FZ 242 0.732
33 FZ 243 0.732
33 FZ 244 -0.244
33 FZ 245 -1.221
33 FZ 246 -1.221
33 FZ 247 -1.221
33 FZ 248 -1.221
33 FZ 249 -1.221
33 FZ 250 -1.221
33 FZ 251 -0.732
33 FZ 252 0.732
33 FZ 253 2.686
33 FZ 254 4.639
33 FZ 255 5.127
# F4 chan 7
33 F4 0 -4.496
33 F4 1 -4.985
33 F4 2 -4.985
33 F4 3 -4.496
33 F4 4 -3.520
33 F4 5 -2.543
33 F4 6 -1.567
33 F4 7 -1.567
33 F4 8 -1.078
33 F4 9 -1.567
33 F4 10 -1.567
33 F4 11 -1.078
33 F4 12 -0.102
33 F4 13 1.851
33 F4 14 3.316
33 F4 15 4.293
33 F4 16 4.293
33 F4 17 4.293
33 F4 18 3.316
33 F4 19 2.340
33 F4 20 1.363
33 F4 21 0.387
33 F4 22 -0.590
33 F4 23 -0.590
33 F4 24 -0.590
33 F4 25 -0.102
33 F4 26 0.387
33 F4 27 -0.102
33 F4 28 -1.078
33 F4 29 -2.543
33 F4 30 -3.520
33 F4 31 -4.008
33 F4 32 -4.008
33 F4 33 -3.520
33 F4 34 -3.520
33 F4 35 -4.008
33 F4 36 -4.496
33 F4 37 -4.985
33 F4 38 -5.473
33 F4 39 -5.473
33 F4 40 -5.473
33 F4 41 -5.473
33 F4 42 -5.961
33 F4 43 -7.426
33 F4 44 -7.426
33 F4 45 -7.914
33 F4 46 -8.403
33 F4 47 -8.891
33 F4 48 -9.379
33 F4 49 -8.891
33 F4 50 -7.914
33 F4 51 -6.938
33 F4 52 -5.473
33 F4 53 -4.008
33 F4 54 -3.031
33 F4 55 -2.543
33 F4 56 -2.055
33 F4 57 -2.543
33 F4 58 -3.031
33 F4 59 -3.520
33 F4 60 -3.520
33 F4 61 -3.031
33 F4 62 -2.055
33 F4 63 -1.078
33 F4 64 -0.102
33 F4 65 0.875
33 F4 66 0.875
33 F4 67 1.363
33 F4 68 1.363
33 F4 69 1.851
33 F4 70 1.851
33 F4 71 2.828
33 F4 72 3.316
33 F4 73 3.805
33 F4 74 3.805
33 F4 75 3.316
33 F4 76 1.851
33 F4 77 0.387
33 F4 78 -0.590
33 F4 79 -1.567
33 F4 80 -2.055
33 F4 81 -2.543
33 F4 82 -3.520
33 F4 83 -4.008
33 F4 84 -4.496
33 F4 85 -4.496
33 F4 86 -4.008
33 F4 87 -3.031
33 F4 88 -3.031
33 F4 89 -4.008
33 F4 90 -4.985
33 F4 91 -6.449
33 F4 92 -7.426
33 F4 93 -7.914
33 F4 94 -8.403
33 F4 95 -7.914
33 F4 96 -7.914
33 F4 97 -6.938
33 F4 98 -4.985
33 F4 99 -2.055
33 F4 100 0.875
33 F4 101 1.851
33 F4 102 1.363
33 F4 103 -0.102
33 F4 104 -1.078
33 F4 105 -1.567
33 F4 106 0.387
33 F4 107 1.851
33 F4 108 2.828
33 F4 109 2.340
33 F4 110 0.875
33 F4 111 -0.590
33 F4 112 -1.567
33 F4 113 -2.543
33 F4 114 -2.055
33 F4 115 -2.055
33 F4 116 -1.078
33 F4 117 -1.078
33 F4 118 -1.078
33 F4 119 -2.055
33 F4 120 -3.520
33 F4 121 -4.496
33 F4 122 -4.985
33 F4 123 -4.985
33 F4 124 -4.985
33 F4 125 -5.473
33 F4 126 -6.449
33 F4 127 -7.426
33 F4 128 -7.426
33 F4 129 -6.938
33 F4 130 -5.961
33 F4 131 -5.473
33 F4 132 -4.985
33 F4 133 -4.496
33 F4 134 -3.520
33 F4 135 -1.567
33 F4 136 0.387
33 F4 137 2.340
33 F4 138 2.828
33 F4 139 2.340
33 F4 140 0.875
33 F4 141 -0.590
33 F4 142 -1.078
33 F4 143 -0.590
33 F4 144 -0.102
33 F4 145 0.387
33 F4 146 0.875
33 F4 147 0.387
33 F4 148 -0.590
33 F4 149 -1.078
33 F4 150 -1.567
33 F4 151 -2.055
33 F4 152 -1.567
33 F4 153 -1.078
33 F4 154 -0.590
33 F4 155 -0.590
33 F4 156 -0.590
33 F4 157 -0.590
33 F4 158 -0.590
33 F4 159 -0.102
33 F4 160 0.387
33 F4 161 0.875
33 F4 162 0.387
33 F4 163 0.387
33 F4 164 -0.102
33 F4 165 -1.078
33 F4 166 -2.543
33 F4 167 -3.520
33 F4 168 -4.496
33 F4 169 -4.496
33 F4 170 -4.496
33 F4 171 -4.008
33 F4 172 -4.496
33 F4 173 -5.473
33 F4 174 -6.449
33 F4 175 -6.938
33 F4 176 -5.473
33 F4 177 -3.520
33 F4 178 -0.590
33 F4 179 0.387
33 F4 180 0.387
33 F4 181 -0.590
33 F4 182 -2.055
33 F4 183 -3.031
33 F4 184 -3.031
33 F4 185 -3.031
33 F4 186 -3.031
33 F4 187 -3.031
33 F4 188 -2.543
33 F4 189 -2.543
33 F4 190 -2.055
33 F4 191 -2.543
33 F4 192 -3.031
33 F4 193 -3.520
33 F4 194 -4.008
33 F4 195 -3.520
33 F4 196 -2.543
33 F4 197 -1.567
33 F4 198 -1.078
33 F4 199 -2.055
33 F4 200 -3.520
33 F4 201 -4.496
33 F4 202 -4.985
33 F4 203 -4.008
33 F4 204 -3.031
33 F4 205 -2.055
33 F4 206 -1.567
33 F4 207 -2.055
33 F4 208 -3.031
33 F4 209 -4.985
33 F4 210 -6.449
33 F4 211 -6.449
33 F4 212 -4.985
33 F4 213 -2.543
33 F4 214 -0.590
33 F4 215 1.363
33 F4 216 1.363
33 F4 217 0.387
33 F4 218 -0.590
33 F4 219 -1.567
33 F4 220 -2.055
33 F4 221 -2.543
33 F4 222 -2.055
33 F4 223 -1.567
33 F4 224 -0.590
33 F4 225 -0.590
33 F4 226 -0.102
33 F4 227 -0.102
33 F4 228 -0.590
33 F4 229 -1.078
33 F4 230 -1.567
33 F4 231 -1.078
33 F4 232 -0.102
33 F4 233 1.363
33 F4 234 2.340
33 F4 235 1.851
33 F4 236 0.387
33 F4 237 -2.055
33 F4 238 -3.031
33 F4 239 -2.543
33 F4 240 -0.102
33 F4 241 2.340
33 F4 242 3.316
33 F4 243 2.340
33 F4 244 0.875
33 F4 245 -0.590
33 F4 246 -0.590
33 F4 247 -0.102
33 F4 248 0.387
33 F4 249 0.387
33 F4 250 0.875
33 F4 251 1.363
33 F4 252 2.828
33 F4 253 4.781
33 F4 254 6.246
33 F4 255 6.734
# F3 chan 8
33 F3 0 4.303
33 F3 1 2.838
33 F3 2 1.373
33 F3 3 0.885
33 F3 4 0.885
33 F3 5 1.373
33 F3 6 2.350
33 F3 7 2.350
33 F3 8 2.838
33 F3 9 2.350
33 F3 10 2.350
33 F3 11 2.838
33 F3 12 3.326
33 F3 13 4.303
33 F3 14 4.791
33 F3 15 4.791
33 F3 16 4.303
33 F3 17 3.815
33 F3 18 3.815
33 F3 19 3.815
33 F3 20 3.815
33 F3 21 2.838
33 F3 22 1.862
33 F3 23 1.373
33 F3 24 0.885
33 F3 25 1.373
33 F3 26 0.885
33 F3 27 -0.092
33 F3 28 -1.068
33 F3 29 -3.021
33 F3 30 -3.998
33 F3 31 -3.998
33 F3 32 -3.510
33 F3 33 -3.021
33 F3 34 -2.533
33 F3 35 -2.533
33 F3 36 -2.533
33 F3 37 -2.045
33 F3 38 -2.045
33 F3 39 -2.533
33 F3 40 -3.021
33 F3 41 -3.998
33 F3 42 -5.463
33 F3 43 -6.439
33 F3 44 -6.927
33 F3 45 -7.416
33 F3 46 -7.416
33 F3 47 -7.904
33 F3 48 -8.392
33 F3 49 -8.881
33 F3 50 -9.857
33 F3 51 -9.857
33 F3 52 -9.369
33 F3 53 -7.904
33 F3 54 -6.439
33 F3 55 -4.486
33 F3 56 -3.998
33 F3 57 -3.998
33 F3 58 -4.974
33 F3 59 -5.951
33 F3 60 -5.951
33 F3 61 -4.974
33 F3 62 -3.510
33 F3 63 -2.533
33 F3 64 -2.045
33 F3 65 -2.533
33 F3 66 -2.533
33 F3 67 -2.533
33 F3 68 -2.045
33 F3 69 -1.068
33 F3 70 -0.580
33 F3 71 0.397
33 F3 72 0.885
33 F3 73 1.862
33 F3 74 2.350
33 F3 75 2.350
33 F3 76 1.862
33 F3 77 0.885
33 F3 78 0.885
33 F3 79 1.373
33 F3 80 1.373
33 F3 81 1.373
33 F3 82 -0.092
33 F3 83 -1.556
33 F3 84 -2.533
33 F3 85 -2.533
33 F3 86 -1.556
33 F3 87 -1.068
33 F3 88 -1.068
33 F3 89 -2.045
33 F3 90 -3.021
33 F3 91 -3.510
33 F3 92 -3.021
33 F3 93 -2.045
33 F3 94 -1.068
33 F3 95 -1.068
33 F3 96 -1.556
33 F3 97 -2.045
33 F3 98 -1.068
33 F3 99 -0.092
33 F3 100 0.885
33 F3 101 1.373
33 F3 102 1.373
33 F3 103 1.862
33 F3 104 2.350
33 F3 105 2.838
33 F3 106 2.838
33 F3 107 2.350
33 F3 108 1.373
33 F3 109 0.397
33 F3 110 -0.580
33 F3 111 -1.556
33 F3 112 -2.045
33 F3 113 -2.045
33 F3 114 -1.556
33 F3 115 -1.068
33 F3 116 -1.068
33 F3 117 -1.556
33 F3 118 -2.533
33 F3 119 -3.510
33 F3 120 -3.998
33 F3 121 -3.510
33 F3 122 -2.045
33 F3 123 -0.092
33 F3 124 0.397
33 F3 125 -0.092
33 F3 126 -1.068
33 F3 127 -3.021
33 F3 128 -3.021
33 F3 129 -2.533
33 F3 130 -1.556
33 F3 131 -0.580
33 F3 132 -0.092
33 F3 133 -0.092
33 F3 134 0.397
33 F3 135 1.373
33 F3 136 2.838
33 F3 137 3.326
33 F3 138 2.838
33 F3 139 2.350
33 F3 140 1.862
33 F3 141 1.862
33 F3 142 1.862
33 F3 143 2.350
33 F3 144 1.862
33 F3 145 0.885
33 F3 146 -0.580
33 F3 147 -1.068
33 F3 148 -0.580
33 F3 149 0.397
33 F3 150 0.885
33 F3 151 0.885
33 F3 152 -0.092
33 F3 153 -0.580
33 F3 154 -1.068
33 F3 155 -1.068
33 F3 156 -0.580
33 F3 157 -0.092
33 F3 158 -0.092
33 F3 159 -0.092
33 F3 160 -0.580
33 F3 161 -0.580
33 F3 162 -0.580
33 F3 163 -0.580
33 F3 164 -0.092
33 F3 165 -0.092
33 F3 166 -0.580
33 F3 167 -1.556
33 F3 168 -2.533
33 F3 169 -3.021
33 F3 170 -3.510
33 F3 171 -3.998
33 F3 172 -3.998
33 F3 173 -3.998
33 F3 174 -3.998
33 F3 175 -3.510
33 F3 176 -3.021
33 F3 177 -2.045
33 F3 178 -2.045
33 F3 179 -2.533
33 F3 180 -3.510
33 F3 181 -4.974
33 F3 182 -4.974
33 F3 183 -4.486
33 F3 184 -3.510
33 F3 185 -2.045
33 F3 186 -2.045
33 F3 187 -2.533
33 F3 188 -2.533
33 F3 189 -3.021
33 F3 190 -3.021
33 F3 191 -3.021
33 F3 192 -3.021
33 F3 193 -3.021
33 F3 194 -2.045
33 F3 195 -0.580
33 F3 196 0.885
33 F3 197 2.350
33 F3 198 2.350
33 F3 199 0.885
33 F3 200 -1.068
33 F3 201 -2.533
33 F3 202 -3.021
33 F3 203 -2.045
33 F3 204 -0.580
33 F3 205 0.885
33 F3 206 1.373
33 F3 207 0.885
33 F3 208 -0.092
33 F3 209 -0.580
33 F3 210 -1.068
33 F3 211 -1.068
33 F3 212 -0.580
33 F3 213 -0.580
33 F3 214 -0.580
33 F3 215 -0.580
33 F3 216 -0.580
33 F3 217 -0.580
33 F3 218 -0.092
33 F3 219 -0.092
33 F3 220 -0.092
33 F3 221 -0.580
33 F3 222 -1.068
33 F3 223 -1.068
33 F3 224 -0.092
33 F3 225 0.397
33 F3 226 1.373
33 F3 227 0.885
33 F3 228 -0.092
33 F3 229 -1.556
33 F3 230 -2.533
33 F3 231 -2.533
33 F3 232 -1.068
33 F3 233 -0.092
33 F3 234 1.862
33 F3 235 1.862
33 F3 236 1.373
33 F3 237 -0.092
33 F3 238 -1.068
33 F3 239 -2.045
33 F3 240 -1.556
33 F3 241 -0.580
33 F3 242 -0.580
33 F3 243 -0.092
33 F3 244 -0.580
33 F3 245 -1.068
33 F3 246 -1.068
33 F3 247 -1.068
33 F3 248 -1.068
33 F3 249 -1.556
33 F3 250 -1.068
33 F3 251 -0.092
33 F3 252 1.373
33 F3 253 3.815
33 F3 254 5.280
33 F3 255 6.256
# FC6 chan 9
33 FC6 0 -4.222
33 FC6 1 -4.222
33 FC6 2 -3.733
33 FC6 3 -2.757
33 FC6 4 -2.268
33 FC6 5 -2.268
33 FC6 6 -2.268
33 FC6 7 -2.757
33 FC6 8 -2.268
33 FC6 9 -2.268
33 FC6 10 -1.292
33 FC6 11 -1.292
33 FC6 12 -0.804
33 FC6 13 -0.315
33 FC6 14 1.149
33 FC6 15 2.614
33 FC6 16 3.591
33 FC6 17 3.591
33 FC6 18 3.103
33 FC6 19 1.638
33 FC6 20 -0.315
33 FC6 21 -1.292
33 FC6 22 -1.780
33 FC6 23 -1.780
33 FC6 24 -1.292
33 FC6 25 0.173
33 FC6 26 1.149
33 FC6 27 1.638
33 FC6 28 1.638
33 FC6 29 0.661
33 FC6 30 -0.315
33 FC6 31 -0.804
33 FC6 32 -1.292
33 FC6 33 -0.804
33 FC6 34 -1.292
33 FC6 35 -1.780
33 FC6 36 -2.757
33 FC6 37 -3.733
33 FC6 38 -4.222
33 FC6 39 -3.733
33 FC6 40 -3.733
33 FC6 41 -3.733
33 FC6 42 -4.222
33 FC6 43 -4.710
33 FC6 44 -5.198
33 FC6 45 -5.198
33 FC6 46 -5.198
33 FC6 47 -5.198
33 FC6 48 -5.198
33 FC6 49 -4.222
33 FC6 50 -3.245
33 FC6 51 -1.780
33 FC6 52 -1.292
33 FC6 53 -0.804
33 FC6 54 -0.315
33 FC6 55 -0.315
33 FC6 56 0.661
33 FC6 57 1.149
33 FC6 58 2.126
33 FC6 59 2.614
33 FC6 60 2.614
33 FC6 61 2.126
33 FC6 62 2.126
33 FC6 63 2.614
33 FC6 64 3.103
33 FC6 65 4.079
33 FC6 66 4.567
33 FC6 67 4.567
33 FC6 68 5.056
33 FC6 69 6.032
33 FC6 70 7.497
33 FC6 71 8.962
33 FC6 72 9.450
33 FC6 73 8.962
33 FC6 74 8.474
33 FC6 75 7.009
33 FC6 76 5.056
33 FC6 77 3.591
33 FC6 78 1.638
33 FC6 79 0.661
33 FC6 80 -0.315
33 FC6 81 -0.804
33 FC6 82 -1.780
33 FC6 83 -2.268
33 FC6 84 -2.268
33 FC6 85 -2.268
33 FC6 86 -1.780
33 FC6 87 -1.292
33 FC6 88 -1.292
33 FC6 89 -1.780
33 FC6 90 -2.757
33 FC6 91 -4.710
33 FC6 92 -5.686
33 FC6 93 -6.663
33 FC6 94 -6.663
33 FC6 95 -6.175
33 FC6 96 -4.710
33 FC6 97 -3.245
33 FC6 98 -0.315
33 FC6 99 2.126
33 FC6 100 4.567
33 FC6 101 5.056
33 FC6 102 4.567
33 FC6 103 3.103
33 FC6 104 2.614
33 FC6 105 3.103
33 FC6 106 4.079
33 FC6 107 5.056
33 FC6 108 6.032
33 FC6 109 6.032
33 FC6 110 6.521
33 FC6 111 7.009
33 FC6 112 6.521
33 FC6 113 6.032
33 FC6 114 5.056
33 FC6 115 4.567
33 FC6 116 4.079
33 FC6 117 4.079
33 FC6 118 4.079
33 FC6 119 3.591
33 FC6 120 2.126
33 FC6 121 1.149
33 FC6 122 0.173
33 FC6 123 -0.315
33 FC6 124 -1.292
33 FC6 125 -1.780
33 FC6 126 -2.757
33 FC6 127 -3.245
33 FC6 128 -3.245
33 FC6 129 -2.268
33 FC6 130 -0.804
33 FC6 131 1.149
33 FC6 132 1.638
33 FC6 133 2.126
33 FC6 134 3.103
33 FC6 135 3.591
33 FC6 136 4.567
33 FC6 137 4.567
33 FC6 138 4.079
33 FC6 139 2.614
33 FC6 140 1.149
33 FC6 141 0.661
33 FC6 142 0.173
33 FC6 143 0.661
33 FC6 144 1.638
33 FC6 145 2.126
33 FC6 146 2.126
33 FC6 147 1.149
33 FC6 148 0.173
33 FC6 149 -0.804
33 FC6 150 -0.804
33 FC6 151 0.173
33 FC6 152 1.638
33 FC6 153 3.103
33 FC6 154 4.079
33 FC6 155 3.591
33 FC6 156 3.103
33 FC6 157 2.126
33 FC6 158 2.126
33 FC6 159 3.103
33 FC6 160 3.591
33 FC6 161 3.103
33 FC6 162 2.126
33 FC6 163 1.149
33 FC6 164 0.173
33 FC6 165 0.173
33 FC6 166 0.173
33 FC6 167 -0.804
33 FC6 168 -2.268
33 FC6 169 -3.245
33 FC6 170 -3.733
33 FC6 171 -4.222
33 FC6 172 -4.222
33 FC6 173 -5.198
33 FC6 174 -5.198
33 FC6 175 -4.710
33 FC6 176 -2.757
33 FC6 177 0.173
33 FC6 178 2.614
33 FC6 179 3.591
33 FC6 180 3.591
33 FC6 181 3.103
33 FC6 182 2.126
33 FC6 183 1.149
33 FC6 184 1.149
33 FC6 185 0.661
33 FC6 186 1.149
33 FC6 187 0.661
33 FC6 188 1.149
33 FC6 189 1.149
33 FC6 190 1.149
33 FC6 191 1.149
33 FC6 192 0.173
33 FC6 193 -0.804
33 FC6 194 -1.780
33 FC6 195 -2.268
33 FC6 196 -1.780
33 FC6 197 -1.292
33 FC6 198 -0.804
33 FC6 199 -0.804
33 FC6 200 -0.804
33 FC6 201 -0.315
33 FC6 202 0.173
33 FC6 203 0.661
33 FC6 204 1.149
33 FC6 205 0.661
33 FC6 206 0.173
33 FC6 207 -0.804
33 FC6 208 -1.780
33 FC6 209 -2.757
33 FC6 210 -3.245
33 FC6 211 -3.245
33 FC6 212 -2.268
33 FC6 213 -0.315
33 FC6 214 1.149
33 FC6 215 2.614
33 FC6 216 3.103
33 FC6 217 2.126
33 FC6 218 1.149
33 FC6 219 0.173
33 FC6 220 -0.315
33 FC6 221 -0.315
33 FC6 222 -0.315
33 FC6 223 0.173
33 FC6 224 1.149
33 FC6 225 2.126
33 FC6 226 3.591
33 FC6 227 5.544
33 FC6 228 5.544
33 FC6 229 5.056
33 FC6 230 3.591
33 FC6 231 2.614
33 FC6 232 2.614
33 FC6 233 3.591
33 FC6 234 5.056
33 FC6 235 5.056
33 FC6 236 4.079
33 FC6 237 2.614
33 FC6 238 2.126
33 FC6 239 2.614
33 FC6 240 3.591
33 FC6 241 4.567
33 FC6 242 4.567
33 FC6 243 3.103
33 FC6 244 1.638
33 FC6 245 1.149
33 FC6 246 1.638
33 FC6 247 2.614
33 FC6 248 3.103
33 FC6 249 3.103
33 FC6 250 3.103
33 FC6 251 3.591
33 FC6 252 5.056
33 FC6 253 6.521
33 FC6 254 7.497
33 FC6 255 7.497
# FC5 chan 10
33 FC5 0 6.480
33 FC5 1 4.038
33 FC5 2 2.085
33 FC5 3 1.109
33 FC5 4 1.109
33 FC5 5 1.597
33 FC5 6 1.597
33 FC5 7 1.109
33 FC5 8 0.132
33 FC5 9 -0.356
33 FC5 10 0.132
33 FC5 11 1.109
33 FC5 12 2.574
33 FC5 13 3.550
33 FC5 14 3.550
33 FC5 15 2.574
33 FC5 16 1.109
33 FC5 17 0.132
33 FC5 18 0.621
33 FC5 19 1.597
33 FC5 20 2.574
33 FC5 21 2.085
33 FC5 22 1.109
33 FC5 23 0.132
33 FC5 24 -0.356
33 FC5 25 -0.356
33 FC5 26 -0.356
33 FC5 27 -1.333
33 FC5 28 -2.309
33 FC5 29 -4.262
33 FC5 30 -5.239
33 FC5 31 -5.727
33 FC5 32 -5.727
33 FC5 33 -5.239
33 FC5 34 -4.751
33 FC5 35 -3.774
33 FC5 36 -3.286
33 FC5 37 -2.797
33 FC5 38 -2.797
33 FC5 39 -2.797
33 FC5 40 -3.286
33 FC5 41 -3.286
33 FC5 42 -3.286
33 FC5 43 -3.286
33 FC5 44 -4.262
33 FC5 45 -6.704
33 FC5 46 -8.657
33 FC5 47 -10.122
33 FC5 48 -11.098
33 FC5 49 -10.122
33 FC5 50 -9.633
33 FC5 51 -9.633
33 FC5 52 -9.633
33 FC5 53 -8.657
33 FC5 54 -6.704
33 FC5 55 -4.262
33 FC5 56 -3.286
33 FC5 57 -3.774
33 FC5 58 -4.751
33 FC5 59 -5.727
33 FC5 60 -5.239
33 FC5 61 -3.286
33 FC5 62 -0.844
33 FC5 63 0.132
33 FC5 64 -0.356
33 FC5 65 -1.333
33 FC5 66 -2.309
33 FC5 67 -2.797
33 FC5 68 -1.821
33 FC5 69 -0.356
33 FC5 70 2.085
33 FC5 71 3.550
33 FC5 72 5.015
33 FC5 73 5.015
33 FC5 74 4.527
33 FC5 75 3.062
33 FC5 76 1.597
33 FC5 77 0.621
33 FC5 78 0.621
33 FC5 79 1.597
33 FC5 80 3.062
33 FC5 81 3.062
33 FC5 82 2.085
33 FC5 83 0.621
33 FC5 84 -0.844
33 FC5 85 -1.333
33 FC5 86 -1.333
33 FC5 87 -0.844
33 FC5 88 -0.356
33 FC5 89 -0.356
33 FC5 90 -0.356
33 FC5 91 -0.844
33 FC5 92 -0.844
33 FC5 93 -0.844
33 FC5 94 -0.844
33 FC5 95 -0.844
33 FC5 96 -1.333
33 FC5 97 -2.309
33 FC5 98 -2.309
33 FC5 99 -1.821
33 FC5 100 -1.333
33 FC5 101 -0.356
33 FC5 102 0.132
33 FC5 103 1.109
33 FC5 104 2.085
33 FC5 105 2.574
33 FC5 106 2.574
33 FC5 107 1.597
33 FC5 108 0.132
33 FC5 109 -0.356
33 FC5 110 -0.844
33 FC5 111 -0.356
33 FC5 112 -0.356
33 FC5 113 -0.356
33 FC5 114 -0.356
33 FC5 115 -0.356
33 FC5 116 -0.356
33 FC5 117 -0.844
33 FC5 118 -1.333
33 FC5 119 -2.309
33 FC5 120 -3.286
33 FC5 121 -2.797
33 FC5 122 -2.309
33 FC5 123 -0.844
33 FC5 124 -0.356
33 FC5 125 0.132
33 FC5 126 -0.356
33 FC5 127 -1.333
33 FC5 128 -1.821
33 FC5 129 -1.821
33 FC5 130 -1.333
33 FC5 131 -0.844
33 FC5 132 -1.333
33 FC5 133 -1.333
33 FC5 134 -0.844
33 FC5 135 0.621
33 FC5 136 2.574
33 FC5 137 3.550
33 FC5 138 4.038
33 FC5 139 3.062
33 FC5 140 1.597
33 FC5 141 0.621
33 FC5 142 1.109
33 FC5 143 1.109
33 FC5 144 1.109
33 FC5 145 0.621
33 FC5 146 0.132
33 FC5 147 0.132
33 FC5 148 1.109
33 FC5 149 2.085
33 FC5 150 2.574
33 FC5 151 2.085
33 FC5 152 0.621
33 FC5 153 -0.844
33 FC5 154 -1.821
33 FC5 155 -1.333
33 FC5 156 -0.356
33 FC5 157 0.621
33 FC5 158 1.597
33 FC5 159 1.109
33 FC5 160 0.132
33 FC5 161 -0.844
33 FC5 162 -1.821
33 FC5 163 -1.333
33 FC5 164 -0.844
33 FC5 165 -0.356
33 FC5 166 -0.356
33 FC5 167 -1.333
33 FC5 168 -2.797
33 FC5 169 -4.262
33 FC5 170 -4.751
33 FC5 171 -4.262
33 FC5 172 -3.774
33 FC5 173 -2.797
33 FC5 174 -1.821
33 FC5 175 -1.333
33 FC5 176 -1.333
33 FC5 177 -1.333
33 FC5 178 -1.821
33 FC5 179 -2.797
33 FC5 180 -3.774
33 FC5 181 -4.751
33 FC5 182 -5.239
33 FC5 183 -4.751
33 FC5 184 -3.774
33 FC5 185 -2.797
33 FC5 186 -1.333
33 FC5 187 -0.844
33 FC5 188 -0.844
33 FC5 189 -1.821
33 FC5 190 -2.797
33 FC5 191 -2.797
33 FC5 192 -2.797
33 FC5 193 -2.797
33 FC5 194 -2.309
33 FC5 195 -1.333
33 FC5 196 0.621
33 FC5 197 2.574
33 FC5 198 3.550
33 FC5 199 2.574
33 FC5 200 0.132
33 FC5 201 -2.309
33 FC5 202 -3.286
33 FC5 203 -1.821
33 FC5 204 0.621
33 FC5 205 3.062
33 FC5 206 3.550
33 FC5 207 3.062
33 FC5 208 1.597
33 FC5 209 1.109
33 FC5 210 1.597
33 FC5 211 2.574
33 FC5 212 3.550
33 FC5 213 3.062
33 FC5 214 2.085
33 FC5 215 0.621
33 FC5 216 -0.356
33 FC5 217 -0.844
33 FC5 218 -0.356
33 FC5 219 0.621
33 FC5 220 1.109
33 FC5 221 1.109
33 FC5 222 0.132
33 FC5 223 -0.356
33 FC5 224 0.132
33 FC5 225 1.597
33 FC5 226 3.550
33 FC5 227 4.038
33 FC5 228 4.038
33 FC5 229 3.062
33 FC5 230 2.085
33 FC5 231 2.085
33 FC5 232 2.574
33 FC5 233 3.062
33 FC5 234 3.550
33 FC5 235 3.550
33 FC5 236 3.550
33 FC5 237 4.038
33 FC5 238 3.550
33 FC5 239 2.574
33 FC5 240 1.597
33 FC5 241 1.109
33 FC5 242 0.621
33 FC5 243 0.621
33 FC5 244 0.621
33 FC5 245 0.132
33 FC5 246 0.132
33 FC5 247 0.621
33 FC5 248 1.109
33 FC5 249 1.597
33 FC5 250 1.597
33 FC5 251 2.574
33 FC5 252 3.062
33 FC5 253 5.503
33 FC5 254 7.456
33 FC5 255 8.433
# FC2 chan 11
33 FC2 0 -2.604
33 FC2 1 -2.604
33 FC2 2 -2.604
33 FC2 3 -2.604
33 FC2 4 -2.116
33 FC2 5 -1.628
33 FC2 6 -1.139
33 FC2 7 -0.651
33 FC2 8 -0.163
33 FC2 9 0.326
33 FC2 10 -0.163
33 FC2 11 -0.163
33 FC2 12 -0.163
33 FC2 13 0.814
33 FC2 14 2.279
33 FC2 15 3.255
33 FC2 16 3.743
33 FC2 17 3.743
33 FC2 18 3.255
33 FC2 19 2.767
33 FC2 20 1.790
33 FC2 21 0.814
33 FC2 22 0.814
33 FC2 23 0.326
33 FC2 24 0.326
33 FC2 25 0.814
33 FC2 26 1.302
33 FC2 27 1.302
33 FC2 28 0.326
33 FC2 29 -0.163
33 FC2 30 -1.139
33 FC2 31 -1.139
33 FC2 32 -1.139
33 FC2 33 -1.139
33 FC2 34 -1.139
33 FC2 35 -1.628
33 FC2 36 -2.604
33 FC2 37 -2.604
33 FC2 38 -3.092
33 FC2 39 -3.092
33 FC2 40 -3.092
33 FC2 41 -3.092
33 FC2 42 -3.092
33 FC2 43 -3.581
33 FC2 44 -3.581
33 FC2 45 -4.069
33 FC2 46 -4.069
33 FC2 47 -4.557
33 FC2 48 -4.557
33 FC2 49 -4.069
33 FC2 50 -3.092
33 FC2 51 -2.116
33 FC2 52 -1.628
33 FC2 53 -1.139
33 FC2 54 -1.139
33 FC2 55 -0.651
33 FC2 56 -1.139
33 FC2 57 -1.139
33 FC2 58 -1.628
33 FC2 59 -1.628
33 FC2 60 -2.116
33 FC2 61 -2.116
33 FC2 62 -1.628
33 FC2 63 -1.139
33 FC2 64 -0.651
33 FC2 65 -0.163
33 FC2 66 -0.163
33 FC2 67 0.326
33 FC2 68 0.326
33 FC2 69 0.814
33 FC2 70 0.814
33 FC2 71 0.814
33 FC2 72 0.814
33 FC2 73 0.814
33 FC2 74 0.814
33 FC2 75 0.814
33 FC2 76 0.326
33 FC2 77 -0.163
33 FC2 78 -0.651
33 FC2 79 -1.139
33 FC2 80 -1.628
33 FC2 81 -2.116
33 FC2 82 -2.116
33 FC2 83 -2.604
33 FC2 84 -2.604
33 FC2 85 -2.116
33 FC2 86 -1.628
33 FC2 87 -1.628
33 FC2 88 -1.628
33 FC2 89 -2.116
33 FC2 90 -2.116
33 FC2 91 -2.604
33 FC2 92 -3.092
33 FC2 93 -3.092
33 FC2 94 -2.604
33 FC2 95 -3.092
33 FC2 96 -2.604
33 FC2 97 -2.116
33 FC2 98 -0.651
33 FC2 99 0.814
33 FC2 100 2.279
33 FC2 101 3.255
33 FC2 102 2.767
33 FC2 103 1.790
33 FC2 104 1.302
33 FC2 105 1.302
33 FC2 106 1.790
33 FC2 107 2.279
33 FC2 108 2.279
33 FC2 109 1.302
33 FC2 110 0.814
33 FC2 111 0.326
33 FC2 112 0.326
33 FC2 113 0.326
33 FC2 114 0.326
33 FC2 115 0.326
33 FC2 116 0.326
33 FC2 117 0.326
33 FC2 118 0.326
33 FC2 119 -0.163
33 FC2 120 -0.651
33 FC2 121 -0.651
33 FC2 122 -1.139
33 FC2 123 -1.139
33 FC2 124 -1.139
33 FC2 125 -1.628
33 FC2 126 -2.116
33 FC2 127 -3.092
33 FC2 128 -3.092
33 FC2 129 -2.604
33 FC2 130 -1.628
33 FC2 131 -1.139
33 FC2 132 -0.651
33 FC2 133 -0.651
33 FC2 134 -0.163
33 FC2 135 0.814
33 FC2 136 1.790
33 FC2 137 2.767
33 FC2 138 3.255
33 FC2 139 2.767
33 FC2 140 1.302
33 FC2 141 0.814
33 FC2 142 0.326
33 FC2 143 0.326
33 FC2 144 0.814
33 FC2 145 1.302
33 FC2 146 1.790
33 FC2 147 1.790
33 FC2 148 1.302
33 FC2 149 1.302
33 FC2 150 0.326
33 FC2 151 -0.163
33 FC2 152 -0.651
33 FC2 153 -0.163
33 FC2 154 -0.163
33 FC2 155 0.814
33 FC2 156 0.814
33 FC2 157 0.814
33 FC2 158 0.814
33 FC2 159 0.814
33 FC2 160 0.814
33 FC2 161 0.814
33 FC2 162 0.814
33 FC2 163 0.814
33 FC2 164 0.814
33 FC2 165 0.326
33 FC2 166 -0.163
33 FC2 167 -1.139
33 FC2 168 -1.139
33 FC2 169 -1.139
33 FC2 170 -1.139
33 FC2 171 -1.628
33 FC2 172 -2.116
33 FC2 173 -2.604
33 FC2 174 -3.092
33 FC2 175 -3.581
33 FC2 176 -2.604
33 FC2 177 -1.139
33 FC2 178 0.326
33 FC2 179 1.302
33 FC2 180 1.302
33 FC2 181 0.814
33 FC2 182 -0.163
33 FC2 183 -0.163
33 FC2 184 -0.651
33 FC2 185 -1.139
33 FC2 186 -1.628
33 FC2 187 -1.628
33 FC2 188 -1.628
33 FC2 189 -1.139
33 FC2 190 -1.139
33 FC2 191 -1.139
33 FC2 192 -1.628
33 FC2 193 -2.116
33 FC2 194 -2.116
33 FC2 195 -1.628
33 FC2 196 -1.139
33 FC2 197 -0.651
33 FC2 198 -1.139
33 FC2 199 -1.628
33 FC2 200 -2.604
33 FC2 201 -3.092
33 FC2 202 -2.604
33 FC2 203 -2.116
33 FC2 204 -1.628
33 FC2 205 -1.139
33 FC2 206 -1.628
33 FC2 207 -2.116
33 FC2 208 -2.604
33 FC2 209 -3.092
33 FC2 210 -3.581
33 FC2 211 -3.581
33 FC2 212 -2.604
33 FC2 213 -1.139
33 FC2 214 -0.163
33 FC2 215 1.302
33 FC2 216 1.790
33 FC2 217 1.302
33 FC2 218 1.302
33 FC2 219 0.326
33 FC2 220 -0.651
33 FC2 221 -0.651
33 FC2 222 -0.651
33 FC2 223 -0.163
33 FC2 224 0.814
33 FC2 225 1.302
33 FC2 226 1.790
33 FC2 227 0.814
33 FC2 228 0.326
33 FC2 229 -0.163
33 FC2 230 -0.651
33 FC2 231 -0.163
33 FC2 232 0.814
33 FC2 233 1.790
33 FC2 234 2.767
33 FC2 235 2.767
33 FC2 236 1.790
33 FC2 237 0.326
33 FC2 238 -0.651
33 FC2 239 -0.163
33 FC2 240 1.302
33 FC2 241 2.279
33 FC2 242 2.767
33 FC2 243 2.767
33 FC2 244 1.790
33 FC2 245 0.814
33 FC2 246 0.814
33 FC2 247 0.814
33 FC2 248 1.302
33 FC2 249 1.302
33 FC2 250 1.302
33 FC2 251 1.790
33 FC2 252 2.767
33 FC2 253 3.743
33 FC2 254 4.720
33 FC2 255 4.720
# FC1 chan 12
33 FC1 0 2.635
33 FC1 1 1.658
33 FC1 2 1.170
33 FC1 3 0.682
33 FC1 4 0.682
33 FC1 5 1.170
33 FC1 6 1.170
33 FC1 7 1.170
33 FC1 8 1.170
33 FC1 9 0.682
33 FC1 10 0.682
33 FC1 11 0.682
33 FC1 12 1.170
33 FC1 13 1.658
33 FC1 14 2.146
33 FC1 15 2.635
33 FC1 16 2.635
33 FC1 17 2.635
33 FC1 18 2.635
33 FC1 19 2.146
33 FC1 20 1.658
33 FC1 21 1.170
33 FC1 22 0.682
33 FC1 23 0.682
33 FC1 24 0.682
33 FC1 25 0.682
33 FC1 26 0.682
33 FC1 27 -0.295
33 FC1 28 -1.272
33 FC1 29 -2.248
33 FC1 30 -2.736
33 FC1 31 -3.225
33 FC1 32 -3.225
33 FC1 33 -2.736
33 FC1 34 -2.736
33 FC1 35 -2.248
33 FC1 36 -1.760
33 FC1 37 -1.760
33 FC1 38 -1.760
33 FC1 39 -2.736
33 FC1 40 -3.225
33 FC1 41 -3.713
33 FC1 42 -4.690
33 FC1 43 -5.178
33 FC1 44 -5.178
33 FC1 45 -5.178
33 FC1 46 -5.666
33 FC1 47 -6.154
33 FC1 48 -6.643
33 FC1 49 -7.131
33 FC1 50 -7.131
33 FC1 51 -7.131
33 FC1 52 -6.643
33 FC1 53 -5.666
33 FC1 54 -5.178
33 FC1 55 -4.201
33 FC1 56 -4.201
33 FC1 57 -4.201
33 FC1 58 -4.690
33 FC1 59 -5.178
33 FC1 60 -5.666
33 FC1 61 -5.178
33 FC1 62 -4.690
33 FC1 63 -3.713
33 FC1 64 -3.713
33 FC1 65 -3.713
33 FC1 66 -3.713
33 FC1 67 -4.201
33 FC1 68 -3.713
33 FC1 69 -3.225
33 FC1 70 -2.736
33 FC1 71 -2.248
33 FC1 72 -1.760
33 FC1 73 -1.272
33 FC1 74 -1.272
33 FC1 75 -0.783
33 FC1 76 -1.272
33 FC1 77 -1.272
33 FC1 78 -1.272
33 FC1 79 -1.272
33 FC1 80 -0.783
33 FC1 81 -0.783
33 FC1 82 -1.760
33 FC1 83 -2.736
33 FC1 84 -3.225
33 FC1 85 -3.225
33 FC1 86 -2.736
33 FC1 87 -1.760
33 FC1 88 -1.760
33 FC1 89 -2.248
33 FC1 90 -2.736
33 FC1 91 -3.225
33 FC1 92 -2.736
33 FC1 93 -1.760
33 FC1 94 -1.272
33 FC1 95 -0.783
33 FC1 96 -1.272
33 FC1 97 -1.760
33 FC1 98 -1.760
33 FC1 99 -1.272
33 FC1 100 -0.295
33 FC1 101 -0.295
33 FC1 102 0.193
33 FC1 103 -0.295
33 FC1 104 -0.295
33 FC1 105 0.193
33 FC1 106 0.682
33 FC1 107 0.682
33 FC1 108 0.193
33 FC1 109 -0.783
33 FC1 110 -1.760
33 FC1 111 -2.736
33 FC1 112 -3.225
33 FC1 113 -3.225
33 FC1 114 -2.248
33 FC1 115 -1.760
33 FC1 116 -1.760
33 FC1 117 -2.248
33 FC1 118 -2.736
33 FC1 119 -3.225
33 FC1 120 -3.713
33 FC1 121 -3.713
33 FC1 122 -2.736
33 FC1 123 -2.248
33 FC1 124 -1.272
33 FC1 125 -0.783
33 FC1 126 -1.272
33 FC1 127 -2.248
33 FC1 128 -2.736
33 FC1 129 -2.248
33 FC1 130 -1.760
33 FC1 131 -1.272
33 FC1 132 -1.760
33 FC1 133 -1.272
33 FC1 134 -1.760
33 FC1 135 -0.783
33 FC1 136 0.193
33 FC1 137 1.170
33 FC1 138 1.170
33 FC1 139 1.170
33 FC1 140 0.682
33 FC1 141 -0.295
33 FC1 142 -0.295
33 FC1 143 -0.295
33 FC1 144 0.682
33 FC1 145 0.193
33 FC1 146 0.193
33 FC1 147 -0.783
33 FC1 148 -0.783
33 FC1 149 -0.783
33 FC1 150 -0.295
33 FC1 151 -0.295
33 FC1 152 -0.295
33 FC1 153 -0.783
33 FC1 154 -0.783
33 FC1 155 -0.783
33 FC1 156 -0.295
33 FC1 157 -0.295
33 FC1 158 0.193
33 FC1 159 0.682
33 FC1 160 0.193
33 FC1 161 0.193
33 FC1 162 -0.295
33 FC1 163 0.193
33 FC1 164 0.193
33 FC1 165 0.193
33 FC1 166 -0.295
33 FC1 167 -0.783
33 FC1 168 -1.760
33 FC1 169 -2.248
33 FC1 170 -2.248
33 FC1 171 -2.248
33 FC1 172 -2.248
33 FC1 173 -2.736
33 FC1 174 -2.736
33 FC1 175 -2.736
33 FC1 176 -1.760
33 FC1 177 -1.272
33 FC1 178 -0.783
33 FC1 179 -1.272
33 FC1 180 -1.760
33 FC1 181 -2.736
33 FC1 182 -3.225
33 FC1 183 -3.225
33 FC1 184 -2.736
33 FC1 185 -2.248
33 FC1 186 -2.248
33 FC1 187 -2.248
33 FC1 188 -2.248
33 FC1 189 -2.248
33 FC1 190 -2.736
33 FC1 191 -2.736
33 FC1 192 -2.736
33 FC1 193 -3.225
33 FC1 194 -2.736
33 FC1 195 -1.760
33 FC1 196 -1.272
33 FC1 197 -0.295
33 FC1 198 -0.295
33 FC1 199 -1.272
33 FC1 200 -1.760
33 FC1 201 -2.736
33 FC1 202 -3.225
33 FC1 203 -2.736
33 FC1 204 -1.760
33 FC1 205 -1.272
33 FC1 206 -0.783
33 FC1 207 -1.272
33 FC1 208 -1.760
33 FC1 209 -2.248
33 FC1 210 -2.736
33 FC1 211 -2.248
33 FC1 212 -2.248
33 FC1 213 -2.248
33 FC1 214 -2.248
33 FC1 215 -2.736
33 FC1 216 -2.248
33 FC1 217 -2.248
33 FC1 218 -2.248
33 FC1 219 -2.248
33 FC1 220 -2.248
33 FC1 221 -2.248
33 FC1 222 -1.760
33 FC1 223 -1.760
33 FC1 224 -1.272
33 FC1 225 -0.295
33 FC1 226 -0.295
33 FC1 227 -0.783
33 FC1 228 -1.272
33 FC1 229 -1.760
33 FC1 230 -2.248
33 FC1 231 -2.248
33 FC1 232 -1.272
33 FC1 233 -0.783
33 FC1 234 -0.295
33 FC1 235 0.193
33 FC1 236 -0.295
33 FC1 237 -1.272
33 FC1 238 -1.272
33 FC1 239 -1.272
33 FC1 240 -1.272
33 FC1 241 -0.295
33 FC1 242 -0.295
33 FC1 243 -0.295
33 FC1 244 -0.295
33 FC1 245 -0.783
33 FC1 246 -0.783
33 FC1 247 -0.783
33 FC1 248 -0.783
33 FC1 249 -1.272
33 FC1 250 -1.272
33 FC1 251 -0.783
33 FC1 252 -0.295
33 FC1 253 0.682
33 FC1 254 1.658
33 FC1 255 1.658
# T8 chan 13
33 T8 0 -4.822
33 T8 1 -5.798
33 T8 2 -6.287
33 T8 3 -6.287
33 T8 4 -6.775
33 T8 5 -6.287
33 T8 6 -5.798
33 T8 7 -4.822
33 T8 8 -3.845
33 T8 9 -2.869
33 T8 10 -1.892
33 T8 11 -1.892
33 T8 12 -1.892
33 T8 13 -1.404
33 T8 14 -0.427
33 T8 15 0.061
33 T8 16 0.549
33 T8 17 0.549
33 T8 18 -0.427
33 T8 19 -1.892
33 T8 20 -2.869
33 T8 21 -4.333
33 T8 22 -5.310
33 T8 23 -5.798
33 T8 24 -5.798
33 T8 25 -4.333
33 T8 26 -1.892
33 T8 27 -0.427
33 T8 28 0.549
33 T8 29 -0.427
33 T8 30 -1.404
33 T8 31 -2.380
33 T8 32 -2.869
33 T8 33 -1.892
33 T8 34 -1.892
33 T8 35 -1.892
33 T8 36 -3.357
33 T8 37 -4.822
33 T8 38 -5.798
33 T8 39 -6.287
33 T8 40 -6.287
33 T8 41 -6.287
33 T8 42 -7.263
33 T8 43 -8.240
33 T8 44 -8.728
33 T8 45 -8.728
33 T8 46 -8.728
33 T8 47 -8.240
33 T8 48 -7.263
33 T8 49 -6.287
33 T8 50 -4.333
33 T8 51 -1.892
33 T8 52 0.061
33 T8 53 1.038
33 T8 54 1.038
33 T8 55 0.549
33 T8 56 0.549
33 T8 57 1.526
33 T8 58 2.502
33 T8 59 2.991
33 T8 60 2.502
33 T8 61 2.014
33 T8 62 2.014
33 T8 63 2.502
33 T8 64 3.967
33 T8 65 4.944
33 T8 66 4.944
33 T8 67 3.967
33 T8 68 3.479
33 T8 69 3.967
33 T8 70 5.920
33 T8 71 8.850
33 T8 72 10.315
33 T8 73 10.803
33 T8 74 9.338
33 T8 75 7.385
33 T8 76 5.432
33 T8 77 3.967
33 T8 78 2.014
33 T8 79 1.038
33 T8 80 0.061
33 T8 81 -1.404
33 T8 82 -2.380
33 T8 83 -3.357
33 T8 84 -3.845
33 T8 85 -3.845
33 T8 86 -2.380
33 T8 87 -1.404
33 T8 88 -0.427
33 T8 89 -1.404
33 T8 90 -3.357
33 T8 91 -5.798
33 T8 92 -7.263
33 T8 93 -7.263
33 T8 94 -5.798
33 T8 95 -3.845
33 T8 96 -2.380
33 T8 97 -0.916
33 T8 98 0.549
33 T8 99 2.014
33 T8 100 4.456
33 T8 101 6.409
33 T8 102 6.409
33 T8 103 5.920
33 T8 104 4.456
33 T8 105 3.967
33 T8 106 4.944
33 T8 107 6.409
33 T8 108 7.874
33 T8 109 8.850
33 T8 110 9.827
33 T8 111 9.338
33 T8 112 9.338
33 T8 113 9.338
33 T8 114 8.850
33 T8 115 8.850
33 T8 116 8.362
33 T8 117 7.385
33 T8 118 6.409
33 T8 119 5.920
33 T8 120 4.944
33 T8 121 4.456
33 T8 122 2.991
33 T8 123 2.014
33 T8 124 2.014
33 T8 125 2.502
33 T8 126 2.991
33 T8 127 3.479
33 T8 128 2.991
33 T8 129 3.479
33 T8 130 3.967
33 T8 131 5.432
33 T8 132 6.897
33 T8 133 8.362
33 T8 134 8.362
33 T8 135 7.874
33 T8 136 6.409
33 T8 137 5.432
33 T8 138 4.456
33 T8 139 3.479
33 T8 140 2.991
33 T8 141 2.502
33 T8 142 2.991
33 T8 143 3.967
33 T8 144 5.920
33 T8 145 7.385
33 T8 146 8.362
33 T8 147 6.897
33 T8 148 4.944
33 T8 149 3.967
33 T8 150 5.432
33 T8 151 8.362
33 T8 152 12.268
33 T8 153 14.709
33 T8 154 15.198
33 T8 155 13.733
33 T8 156 11.780
33 T8 157 11.292
33 T8 158 11.292
33 T8 159 12.268
33 T8 160 12.268
33 T8 161 11.292
33 T8 162 9.827
33 T8 163 8.850
33 T8 164 8.850
33 T8 165 9.338
33 T8 166 9.338
33 T8 167 8.850
33 T8 168 7.874
33 T8 169 6.897
33 T8 170 6.409
33 T8 171 5.920
33 T8 172 4.944
33 T8 173 3.967
33 T8 174 4.456
33 T8 175 5.432
33 T8 176 8.362
33 T8 177 11.292
33 T8 178 13.245
33 T8 179 13.733
33 T8 180 12.756
33 T8 181 11.780
33 T8 182 10.803
33 T8 183 11.292
33 T8 184 11.780
33 T8 185 11.780
33 T8 186 11.780
33 T8 187 11.292
33 T8 188 10.803
33 T8 189 10.315
33 T8 190 10.315
33 T8 191 10.315
33 T8 192 10.315
33 T8 193 10.315
33 T8 194 10.315
33 T8 195 10.315
33 T8 196 11.292
33 T8 197 11.780
33 T8 198 11.780
33 T8 199 11.292
33 T8 200 10.803
33 T8 201 11.292
33 T8 202 10.803
33 T8 203 10.315
33 T8 204 10.315
33 T8 205 10.315
33 T8 206 9.827
33 T8 207 9.827
33 T8 208 9.338
33 T8 209 8.850
33 T8 210 7.874
33 T8 211 7.385
33 T8 212 7.874
33 T8 213 9.338
33 T8 214 11.292
33 T8 215 12.756
33 T8 216 12.756
33 T8 217 11.780
33 T8 218 10.315
33 T8 219 9.338
33 T8 220 9.338
33 T8 221 10.803
33 T8 222 11.780
33 T8 223 12.756
33 T8 224 12.756
33 T8 225 13.733
33 T8 226 14.709
33 T8 227 16.174
33 T8 228 16.663
33 T8 229 15.686
33 T8 230 13.245
33 T8 231 11.780
33 T8 232 11.780
33 T8 233 13.733
33 T8 234 15.686
33 T8 235 16.663
33 T8 236 15.686
33 T8 237 13.245
33 T8 238 11.292
33 T8 239 10.803
33 T8 240 11.780
33 T8 241 12.756
33 T8 242 12.756
33 T8 243 11.780
33 T8 244 10.315
33 T8 245 9.827
33 T8 246 10.315
33 T8 247 11.780
33 T8 248 12.756
33 T8 249 12.268
33 T8 250 11.780
33 T8 251 11.292
33 T8 252 12.268
33 T8 253 13.733
33 T8 254 15.198
33 T8 255 15.686
# T7 chan 14
33 T7 0 9.003
33 T7 1 5.585
33 T7 2 2.167
33 T7 3 -0.275
33 T7 4 -1.251
33 T7 5 -0.763
33 T7 6 -0.763
33 T7 7 -1.251
33 T7 8 -1.740
33 T7 9 -1.740
33 T7 10 -0.763
33 T7 11 -0.275
33 T7 12 0.214
33 T7 13 -0.275
33 T7 14 -0.763
33 T7 15 -1.740
33 T7 16 -3.204
33 T7 17 -4.181
33 T7 18 -4.181
33 T7 19 -3.693
33 T7 20 -2.228
33 T7 21 -1.251
33 T7 22 -0.275
33 T7 23 0.214
33 T7 24 -0.275
33 T7 25 -1.740
33 T7 26 -3.693
33 T7 27 -5.157
33 T7 28 -6.134
33 T7 29 -6.622
33 T7 30 -6.134
33 T7 31 -6.134
33 T7 32 -6.134
33 T7 33 -5.646
33 T7 34 -5.157
33 T7 35 -4.181
33 T7 36 -3.693
33 T7 37 -3.693
33 T7 38 -4.669
33 T7 39 -4.669
33 T7 40 -3.204
33 T7 41 -1.251
33 T7 42 0.214
33 T7 43 -0.275
33 T7 44 -3.204
33 T7 45 -6.134
33 T7 46 -8.575
33 T7 47 -9.552
33 T7 48 -9.552
33 T7 49 -9.552
33 T7 50 -10.040
33 T7 51 -9.064
33 T7 52 -6.622
33 T7 53 -3.693
33 T7 54 -1.251
33 T7 55 -0.763
33 T7 56 -2.228
33 T7 57 -4.669
33 T7 58 -5.646
33 T7 59 -4.669
33 T7 60 -2.716
33 T7 61 -0.275
33 T7 62 1.190
33 T7 63 1.190
33 T7 64 1.678
33 T7 65 1.678
33 T7 66 2.167
33 T7 67 2.167
33 T7 68 2.655
33 T7 69 2.167
33 T7 70 2.655
33 T7 71 4.120
33 T7 72 5.585
33 T7 73 7.538
33 T7 74 7.538
33 T7 75 6.073
33 T7 76 3.632
33 T7 77 1.190
33 T7 78 0.702
33 T7 79 0.702
33 T7 80 1.678
33 T7 81 2.167
33 T7 82 1.190
33 T7 83 0.214
33 T7 84 -1.251
33 T7 85 -0.763
33 T7 86 0.702
33 T7 87 2.167
33 T7 88 2.655
33 T7 89 1.678
33 T7 90 -0.275
33 T7 91 -1.740
33 T7 92 -2.716
33 T7 93 -1.740
33 T7 94 -0.275
33 T7 95 1.190
33 T7 96 0.702
33 T7 97 -0.763
33 T7 98 -2.228
33 T7 99 -2.716
33 T7 100 -2.228
33 T7 101 -0.763
33 T7 102 0.214
33 T7 103 1.190
33 T7 104 1.190
33 T7 105 2.167
33 T7 106 2.655
33 T7 107 3.143
33 T7 108 3.632
33 T7 109 3.143
33 T7 110 2.655
33 T7 111 0.702
33 T7 112 -0.763
33 T7 113 -2.228
33 T7 114 -2.228
33 T7 115 -0.763
33 T7 116 1.190
33 T7 117 2.655
33 T7 118 3.143
33 T7 119 2.167
33 T7 120 0.214
33 T7 121 -1.740
33 T7 122 -2.716
33 T7 123 -2.228
33 T7 124 -1.740
33 T7 125 -0.763
33 T7 126 -0.275
33 T7 127 -0.275
33 T7 128 -0.275
33 T7 129 0.214
33 T7 130 1.190
33 T7 131 0.702
33 T7 132 -1.251
33 T7 133 -3.693
33 T7 134 -5.646
33 T7 135 -4.669
33 T7 136 -0.763
33 T7 137 4.120
33 T7 138 8.026
33 T7 139 8.514
33 T7 140 5.096
33 T7 141 1.190
33 T7 142 -2.228
33 T7 143 -2.716
33 T7 144 -1.251
33 T7 145 0.702
33 T7 146 2.167
33 T7 147 2.167
33 T7 148 2.167
33 T7 149 2.655
33 T7 150 3.143
33 T7 151 2.655
33 T7 152 1.190
33 T7 153 -1.740
33 T7 154 -3.693
33 T7 155 -3.204
33 T7 156 -1.251
33 T7 157 1.190
33 T7 158 3.143
33 T7 159 2.655
33 T7 160 0.702
33 T7 161 -2.228
33 T7 162 -4.669
33 T7 163 -5.646
33 T7 164 -5.157
33 T7 165 -3.693
33 T7 166 -2.716
33 T7 167 -2.716
33 T7 168 -3.693
33 T7 169 -4.669
33 T7 170 -5.157
33 T7 171 -4.669
33 T7 172 -3.693
33 T7 173 -2.716
33 T7 174 -2.228
33 T7 175 -2.228
33 T7 176 -2.228
33 T7 177 -2.716
33 T7 178 -3.693
33 T7 179 -5.157
33 T7 180 -5.646
33 T7 181 -5.646
33 T7 182 -5.646
33 T7 183 -4.669
33 T7 184 -4.181
33 T7 185 -3.693
33 T7 186 -3.693
33 T7 187 -3.693
33 T7 188 -3.693
33 T7 189 -3.693
33 T7 190 -3.204
33 T7 191 -2.716
33 T7 192 -1.740
33 T7 193 -0.763
33 T7 194 -0.763
33 T7 195 -0.763
33 T7 196 -0.763
33 T7 197 0.214
33 T7 198 1.190
33 T7 199 1.678
33 T7 200 0.214
33 T7 201 -1.740
33 T7 202 -2.228
33 T7 203 -1.251
33 T7 204 0.702
33 T7 205 1.678
33 T7 206 1.678
33 T7 207 0.214
33 T7 208 -0.763
33 T7 209 0.214
33 T7 210 2.655
33 T7 211 5.585
33 T7 212 7.050
33 T7 213 7.050
33 T7 214 4.608
33 T7 215 2.167
33 T7 216 -0.275
33 T7 217 -2.228
33 T7 218 -2.716
33 T7 219 -2.716
33 T7 220 -1.740
33 T7 221 -1.251
33 T7 222 -0.763
33 T7 223 -0.275
33 T7 224 0.214
33 T7 225 2.167
33 T7 226 4.608
33 T7 227 6.073
33 T7 228 6.073
33 T7 229 4.120
33 T7 230 1.678
33 T7 231 -0.275
33 T7 232 0.214
33 T7 233 2.167
33 T7 234 4.120
33 T7 235 5.585
33 T7 236 6.073
33 T7 237 5.585
33 T7 238 5.096
33 T7 239 3.632
33 T7 240 2.167
33 T7 241 1.190
33 T7 242 -0.275
33 T7 243 -0.275
33 T7 244 0.214
33 T7 245 0.702
33 T7 246 1.190
33 T7 247 1.190
33 T7 248 1.678
33 T7 249 1.678
33 T7 250 1.190
33 T7 251 1.190
33 T7 252 1.190
33 T7 253 2.167
33 T7 254 3.632
33 T7 255 5.585
# CZ chan 15
33 CZ 0 -0.366
33 CZ 1 -2.808
33 CZ 2 -4.272
33 CZ 3 -4.272
33 CZ 4 -4.272
33 CZ 5 -4.761
33 CZ 6 -5.737
33 CZ 7 -7.690
33 CZ 8 -9.644
33 CZ 9 -11.108
33 CZ 10 -10.620
33 CZ 11 -9.644
33 CZ 12 -8.179
33 CZ 13 -6.226
33 CZ 14 -4.761
33 CZ 15 -3.784
33 CZ 16 -3.296
33 CZ 17 -3.296
33 CZ 18 -4.761
33 CZ 19 -6.714
33 CZ 20 -9.644
33 CZ 21 -13.062
33 CZ 22 -15.503
33 CZ 23 -15.991
33 CZ 24 -15.015
33 CZ 25 -13.550
33 CZ 26 -12.573
33 CZ 27 -13.062
33 CZ 28 -15.991
33 CZ 29 -18.921
33 CZ 30 -20.874
33 CZ 31 -20.386
33 CZ 32 -18.433
33 CZ 33 -16.479
33 CZ 34 -15.503
33 CZ 35 -15.503
33 CZ 36 -15.503
33 CZ 37 -15.015
33 CZ 38 -13.550
33 CZ 39 -12.085
33 CZ 40 -11.597
33 CZ 41 -12.573
33 CZ 42 -15.015
33 CZ 43 -17.456
33 CZ 44 -19.409
33 CZ 45 -19.897
33 CZ 46 -19.897
33 CZ 47 -20.386
33 CZ 48 -20.874
33 CZ 49 -21.362
33 CZ 50 -22.827
33 CZ 51 -22.339
33 CZ 52 -22.339
33 CZ 53 -21.362
33 CZ 54 -20.386
33 CZ 55 -18.921
33 CZ 56 -18.433
33 CZ 57 -17.944
33 CZ 58 -17.944
33 CZ 59 -17.944
33 CZ 60 -16.968
33 CZ 61 -15.991
33 CZ 62 -14.038
33 CZ 63 -12.085
33 CZ 64 -11.108
33 CZ 65 -11.108
33 CZ 66 -12.573
33 CZ 67 -14.038
33 CZ 68 -15.503
33 CZ 69 -15.015
33 CZ 70 -12.573
33 CZ 71 -9.155
33 CZ 72 -6.226
33 CZ 73 -4.761
33 CZ 74 -5.249
33 CZ 75 -6.714
33 CZ 76 -9.155
33 CZ 77 -11.597
33 CZ 78 -13.062
33 CZ 79 -14.038
33 CZ 80 -14.526
33 CZ 81 -14.526
33 CZ 82 -15.015
33 CZ 83 -15.991
33 CZ 84 -16.968
33 CZ 85 -17.456
33 CZ 86 -16.968
33 CZ 87 -16.479
33 CZ 88 -17.456
33 CZ 89 -20.874
33 CZ 90 -25.269
33 CZ 91 -30.151
33 CZ 92 -34.546
33 CZ 93 -36.987
33 CZ 94 -38.452
33 CZ 95 -39.429
33 CZ 96 -39.917
33 CZ 97 -38.940
33 CZ 98 -36.011
33 CZ 99 -31.128
33 CZ 100 -24.780
33 CZ 101 -19.897
33 CZ 102 -17.944
33 CZ 103 -18.921
33 CZ 104 -20.874
33 CZ 105 -22.339
33 CZ 106 -22.339
33 CZ 107 -20.874
33 CZ 108 -19.409
33 CZ 109 -18.921
33 CZ 110 -19.409
33 CZ 111 -19.897
33 CZ 112 -19.897
33 CZ 113 -19.897
33 CZ 114 -19.897
33 CZ 115 -20.874
33 CZ 116 -22.827
33 CZ 117 -24.292
33 CZ 118 -25.757
33 CZ 119 -26.245
33 CZ 120 -26.733
33 CZ 121 -27.222
33 CZ 122 -27.710
33 CZ 123 -28.198
33 CZ 124 -28.687
33 CZ 125 -29.175
33 CZ 126 -29.175
33 CZ 127 -29.663
33 CZ 128 -29.175
33 CZ 129 -29.175
33 CZ 130 -29.175
33 CZ 131 -29.175
33 CZ 132 -29.663
33 CZ 133 -30.640
33 CZ 134 -31.128
33 CZ 135 -31.128
33 CZ 136 -29.663
33 CZ 137 -28.687
33 CZ 138 -27.710
33 CZ 139 -28.198
33 CZ 140 -29.663
33 CZ 141 -31.616
33 CZ 142 -33.081
33 CZ 143 -34.058
33 CZ 144 -34.546
33 CZ 145 -35.522
33 CZ 146 -35.522
33 CZ 147 -35.522
33 CZ 148 -34.546
33 CZ 149 -33.569
33 CZ 150 -33.569
33 CZ 151 -33.569
33 CZ 152 -33.081
33 CZ 153 -32.593
33 CZ 154 -32.104
33 CZ 155 -32.104
33 CZ 156 -32.593
33 CZ 157 -34.058
33 CZ 158 -35.522
33 CZ 159 -35.522
33 CZ 160 -34.058
33 CZ 161 -32.593
33 CZ 162 -32.104
33 CZ 163 -32.104
33 CZ 164 -32.104
33 CZ 165 -32.104
33 CZ 166 -30.640
33 CZ 167 -29.175
33 CZ 168 -28.198
33 CZ 169 -28.198
33 CZ 170 -28.687
33 CZ 171 -30.151
33 CZ 172 -30.640
33 CZ 173 -30.151
33 CZ 174 -28.687
33 CZ 175 -27.710
33 CZ 176 -26.733
33 CZ 177 -26.733
33 CZ 178 -27.222
33 CZ 179 -27.710
33 CZ 180 -28.198
33 CZ 181 -28.198
33 CZ 182 -26.733
33 CZ 183 -24.292
33 CZ 184 -21.851
33 CZ 185 -20.386
33 CZ 186 -20.386
33 CZ 187 -21.851
33 CZ 188 -23.315
33 CZ 189 -23.804
33 CZ 190 -22.827
33 CZ 191 -22.827
33 CZ 192 -23.804
33 CZ 193 -25.269
33 CZ 194 -25.757
33 CZ 195 -23.804
33 CZ 196 -19.409
33 CZ 197 -14.038
33 CZ 198 -10.620
33 CZ 199 -12.085
33 CZ 200 -16.479
33 CZ 201 -20.874
33 CZ 202 -22.339
33 CZ 203 -19.897
33 CZ 204 -15.991
33 CZ 205 -12.573
33 CZ 206 -11.597
33 CZ 207 -12.573
33 CZ 208 -14.038
33 CZ 209 -14.526
33 CZ 210 -14.526
33 CZ 211 -13.550
33 CZ 212 -13.550
33 CZ 213 -13.062
33 CZ 214 -12.085
33 CZ 215 -12.085
33 CZ 216 -12.573
33 CZ 217 -13.550
33 CZ 218 -14.038
33 CZ 219 -14.038
33 CZ 220 -13.550
33 CZ 221 -13.062
33 CZ 222 -13.062
33 CZ 223 -13.550
33 CZ 224 -13.550
33 CZ 225 -12.573
33 CZ 226 -10.132
33 CZ 227 -7.202
33 CZ 228 -5.249
33 CZ 229 -6.226
33 CZ 230 -7.690
33 CZ 231 -9.155
33 CZ 232 -9.155
33 CZ 233 -7.202
33 CZ 234 -4.761
33 CZ 235 -3.784
33 CZ 236 -4.272
33 CZ 237 -7.202
33 CZ 238 -9.644
33 CZ 239 -11.108
33 CZ 240 -11.108
33 CZ 241 -10.620
33 CZ 242 -10.132
33 CZ 243 -10.620
33 CZ 244 -11.108
33 CZ 245 -11.597
33 CZ 246 -11.108
33 CZ 247 -11.108
33 CZ 248 -11.108
33 CZ 249 -11.108
33 CZ 250 -11.597
33 CZ 251 -11.108
33 CZ 252 -9.155
33 CZ 253 -6.226
33 CZ 254 -3.296
33 CZ 255 -1.831
# C3 chan 16
33 C3 0 5.310
33 C3 1 3.845
33 C3 2 2.869
33 C3 3 2.380
33 C3 4 1.892
33 C3 5 2.380
33 C3 6 2.380
33 C3 7 1.892
33 C3 8 1.404
33 C3 9 0.427
33 C3 10 -0.061
33 C3 11 0.427
33 C3 12 0.427
33 C3 13 0.427
33 C3 14 -0.061
33 C3 15 -0.549
33 C3 16 -1.038
33 C3 17 -1.526
33 C3 18 -1.526
33 C3 19 -1.038
33 C3 20 -0.061
33 C3 21 0.916
33 C3 22 1.404
33 C3 23 1.404
33 C3 24 1.404
33 C3 25 0.916
33 C3 26 0.427
33 C3 27 -0.549
33 C3 28 -1.038
33 C3 29 -1.038
33 C3 30 -1.526
33 C3 31 -1.526
33 C3 32 -2.014
33 C3 33 -2.991
33 C3 34 -2.991
33 C3 35 -2.502
33 C3 36 -2.502
33 C3 37 -2.014
33 C3 38 -2.014
33 C3 39 -1.526
33 C3 40 -1.526
33 C3 41 -1.038
33 C3 42 -0.549
33 C3 43 -0.549
33 C3 44 -1.038
33 C3 45 -1.526
33 C3 46 -2.502
33 C3 47 -3.479
33 C3 48 -3.479
33 C3 49 -3.479
33 C3 50 -3.479
33 C3 51 -3.479
33 C3 52 -2.991
33 C3 53 -2.502
33 C3 54 -2.014
33 C3 55 -2.014
33 C3 56 -2.014
33 C3 57 -2.014
33 C3 58 -2.014
33 C3 59 -1.526
33 C3 60 -0.549
33 C3 61 0.916
33 C3 62 1.404
33 C3 63 1.404
33 C3 64 1.404
33 C3 65 0.916
33 C3 66 0.916
33 C3 67 1.404
33 C3 68 1.404
33 C3 69 1.892
33 C3 70 2.380
33 C3 71 2.869
33 C3 72 3.357
33 C3 73 3.845
33 C3 74 3.357
33 C3 75 2.380
33 C3 76 0.427
33 C3 77 -0.549
33 C3 78 -1.038
33 C3 79 -0.061
33 C3 80 1.404
33 C3 81 1.892
33 C3 82 1.404
33 C3 83 -0.061
33 C3 84 -0.549
33 C3 85 -0.549
33 C3 86 0.427
33 C3 87 1.404
33 C3 88 1.892
33 C3 89 1.404
33 C3 90 0.427
33 C3 91 0.427
33 C3 92 0.916
33 C3 93 1.404
33 C3 94 2.380
33 C3 95 2.380
33 C3 96 1.892
33 C3 97 0.427
33 C3 98 -0.549
33 C3 99 -1.526
33 C3 100 -1.526
33 C3 101 -1.038
33 C3 102 -0.549
33 C3 103 0.916
33 C3 104 1.404
33 C3 105 1.892
33 C3 106 1.404
33 C3 107 0.916
33 C3 108 0.427
33 C3 109 -0.549
33 C3 110 -1.038
33 C3 111 -1.038
33 C3 112 -1.038
33 C3 113 -1.038
33 C3 114 -0.549
33 C3 115 -0.061
33 C3 116 0.427
33 C3 117 0.427
33 C3 118 -0.549
33 C3 119 -1.038
33 C3 120 -1.526
33 C3 121 -2.014
33 C3 122 -1.526
33 C3 123 -0.549
33 C3 124 0.427
33 C3 125 0.427
33 C3 126 -0.061
33 C3 127 -0.549
33 C3 128 -0.549
33 C3 129 -0.549
33 C3 130 0.427
33 C3 131 0.427
33 C3 132 -0.061
33 C3 133 -1.038
33 C3 134 -2.502
33 C3 135 -2.502
33 C3 136 -1.526
33 C3 137 -0.061
33 C3 138 0.916
33 C3 139 0.916
33 C3 140 0.427
33 C3 141 -0.549
33 C3 142 -0.549
33 C3 143 -0.061
33 C3 144 0.916
33 C3 145 0.916
33 C3 146 0.916
33 C3 147 -0.061
33 C3 148 -0.549
33 C3 149 -0.061
33 C3 150 0.916
33 C3 151 1.404
33 C3 152 1.404
33 C3 153 0.916
33 C3 154 0.427
33 C3 155 -0.061
33 C3 156 0.916
33 C3 157 1.404
33 C3 158 1.892
33 C3 159 1.892
33 C3 160 1.404
33 C3 161 -0.061
33 C3 162 -1.038
33 C3 163 -1.526
33 C3 164 -1.526
33 C3 165 -1.526
33 C3 166 -2.014
33 C3 167 -2.502
33 C3 168 -2.502
33 C3 169 -3.479
33 C3 170 -3.967
33 C3 171 -3.967
33 C3 172 -3.479
33 C3 173 -2.991
33 C3 174 -2.502
33 C3 175 -2.014
33 C3 176 -2.014
33 C3 177 -2.502
33 C3 178 -2.991
33 C3 179 -4.456
33 C3 180 -4.944
33 C3 181 -5.432
33 C3 182 -5.432
33 C3 183 -4.456
33 C3 184 -3.967
33 C3 185 -2.991
33 C3 186 -2.502
33 C3 187 -2.502
33 C3 188 -2.991
33 C3 189 -2.991
33 C3 190 -2.991
33 C3 191 -2.502
33 C3 192 -2.502
33 C3 193 -2.014
33 C3 194 -2.014
33 C3 195 -2.014
33 C3 196 -1.526
33 C3 197 -0.549
33 C3 198 -0.061
33 C3 199 -0.549
33 C3 200 -1.038
33 C3 201 -2.014
33 C3 202 -2.502
33 C3 203 -1.526
33 C3 204 -0.549
33 C3 205 -0.061
33 C3 206 -0.061
33 C3 207 -0.549
33 C3 208 -1.038
33 C3 209 -1.038
33 C3 210 -0.549
33 C3 211 -0.061
33 C3 212 -0.549
33 C3 213 -1.038
33 C3 214 -2.502
33 C3 215 -3.967
33 C3 216 -4.944
33 C3 217 -5.432
33 C3 218 -4.456
33 C3 219 -3.479
33 C3 220 -2.991
33 C3 221 -2.991
33 C3 222 -3.479
33 C3 223 -3.479
33 C3 224 -2.991
33 C3 225 -2.014
33 C3 226 -0.549
33 C3 227 0.427
33 C3 228 0.427
33 C3 229 -0.061
33 C3 230 -1.038
33 C3 231 -1.038
33 C3 232 -1.038
33 C3 233 -0.061
33 C3 234 0.427
33 C3 235 0.427
33 C3 236 -0.061
33 C3 237 -0.549
33 C3 238 -0.549
33 C3 239 -1.038
33 C3 240 -1.526
33 C3 241 -2.014
33 C3 242 -2.502
33 C3 243 -2.502
33 C3 244 -2.014
33 C3 245 -1.526
33 C3 246 -1.038
33 C3 247 -0.549
33 C3 248 -0.549
33 C3 249 -1.038
33 C3 250 -1.038
33 C3 251 -1.038
33 C3 252 -1.526
33 C3 253 -1.038
33 C3 254 -0.549
33 C3 255 -0.061
# C4 chan 17
33 C4 0 -1.862
33 C4 1 -0.885
33 C4 2 0.092
33 C4 3 0.092
33 C4 4 0.092
33 C4 5 0.092
33 C4 6 0.580
33 C4 7 1.068
33 C4 8 2.045
33 C4 9 2.045
33 C4 10 2.045
33 C4 11 2.045
33 C4 12 1.068
33 C4 13 0.092
33 C4 14 0.092
33 C4 15 0.092
33 C4 16 1.068
33 C4 17 1.556
33 C4 18 2.533
33 C4 19 2.533
33 C4 20 2.045
33 C4 21 2.045
33 C4 22 1.556
33 C4 23 1.068
33 C4 24 1.556
33 C4 25 2.533
33 C4 26 3.510
33 C4 27 3.998
33 C4 28 3.998
33 C4 29 3.998
33 C4 30 3.510
33 C4 31 3.510
33 C4 32 2.533
33 C4 33 2.045
33 C4 34 0.580
33 C4 35 -0.885
33 C4 36 -2.350
33 C4 37 -3.326
33 C4 38 -2.838
33 C4 39 -2.350
33 C4 40 -1.373
33 C4 41 -0.397
33 C4 42 -0.397
33 C4 43 -0.397
33 C4 44 -0.885
33 C4 45 -1.373
33 C4 46 -1.373
33 C4 47 -0.885
33 C4 48 -0.397
33 C4 49 1.068
33 C4 50 2.533
33 C4 51 4.486
33 C4 52 4.974
33 C4 53 4.486
33 C4 54 3.998
33 C4 55 3.021
33 C4 56 2.533
33 C4 57 2.533
33 C4 58 3.510
33 C4 59 3.998
33 C4 60 4.486
33 C4 61 4.974
33 C4 62 5.463
33 C4 63 5.951
33 C4 64 5.951
33 C4 65 5.951
33 C4 66 5.951
33 C4 67 5.463
33 C4 68 5.463
33 C4 69 5.951
33 C4 70 6.439
33 C4 71 7.416
33 C4 72 6.927
33 C4 73 6.439
33 C4 74 5.463
33 C4 75 3.998
33 C4 76 2.533
33 C4 77 1.556
33 C4 78 0.092
33 C4 79 -0.885
33 C4 80 -1.373
33 C4 81 -1.373
33 C4 82 -0.885
33 C4 83 -0.885
33 C4 84 -0.885
33 C4 85 -0.885
33 C4 86 -0.885
33 C4 87 -0.885
33 C4 88 -0.397
33 C4 89 -0.885
33 C4 90 -1.862
33 C4 91 -2.838
33 C4 92 -3.326
33 C4 93 -3.326
33 C4 94 -2.838
33 C4 95 -1.862
33 C4 96 -1.373
33 C4 97 -0.885
33 C4 98 0.092
33 C4 99 1.556
33 C4 100 3.021
33 C4 101 3.998
33 C4 102 4.486
33 C4 103 3.998
33 C4 104 3.021
33 C4 105 2.533
33 C4 106 2.533
33 C4 107 3.021
33 C4 108 3.998
33 C4 109 4.486
33 C4 110 4.974
33 C4 111 4.974
33 C4 112 4.974
33 C4 113 4.974
33 C4 114 4.486
33 C4 115 3.998
33 C4 116 3.510
33 C4 117 3.021
33 C4 118 3.021
33 C4 119 2.533
33 C4 120 2.533
33 C4 121 1.556
33 C4 122 1.556
33 C4 123 1.068
33 C4 124 0.580
33 C4 125 0.092
33 C4 126 -0.885
33 C4 127 -1.862
33 C4 128 -1.862
33 C4 129 -0.885
33 C4 130 0.580
33 C4 131 1.556
33 C4 132 2.533
33 C4 133 2.533
33 C4 134 2.533
33 C4 135 2.045
33 C4 136 2.045
33 C4 137 1.556
33 C4 138 1.068
33 C4 139 0.092
33 C4 140 -0.397
33 C4 141 -0.397
33 C4 142 0.092
33 C4 143 1.556
33 C4 144 2.533
33 C4 145 3.510
33 C4 146 3.998
33 C4 147 3.021
33 C4 148 2.045
33 C4 149 1.068
33 C4 150 1.068
33 C4 151 1.556
33 C4 152 2.533
33 C4 153 3.998
33 C4 154 4.486
33 C4 155 3.998
33 C4 156 3.510
33 C4 157 3.021
33 C4 158 2.533
33 C4 159 3.021
33 C4 160 3.021
33 C4 161 3.021
33 C4 162 2.533
33 C4 163 2.045
33 C4 164 1.556
33 C4 165 2.045
33 C4 166 2.045
33 C4 167 2.533
33 C4 168 2.533
33 C4 169 2.533
33 C4 170 2.045
33 C4 171 1.068
33 C4 172 0.092
33 C4 173 -0.885
33 C4 174 -1.373
33 C4 175 -0.885
33 C4 176 1.068
33 C4 177 2.533
33 C4 178 3.998
33 C4 179 4.486
33 C4 180 4.486
33 C4 181 3.998
33 C4 182 3.510
33 C4 183 3.510
33 C4 184 3.510
33 C4 185 3.510
33 C4 186 3.510
33 C4 187 3.021
33 C4 188 3.021
33 C4 189 3.021
33 C4 190 3.510
33 C4 191 3.510
33 C4 192 3.021
33 C4 193 3.021
33 C4 194 2.533
33 C4 195 2.045
33 C4 196 2.045
33 C4 197 2.045
33 C4 198 2.045
33 C4 199 1.556
33 C4 200 2.045
33 C4 201 2.045
33 C4 202 2.045
33 C4 203 2.533
33 C4 204 2.533
33 C4 205 2.533
33 C4 206 2.533
33 C4 207 2.045
33 C4 208 1.556
33 C4 209 0.580
33 C4 210 0.580
33 C4 211 1.068
33 C4 212 2.045
33 C4 213 3.510
33 C4 214 4.486
33 C4 215 5.463
33 C4 216 5.463
33 C4 217 4.974
33 C4 218 4.486
33 C4 219 3.998
33 C4 220 3.998
33 C4 221 3.510
33 C4 222 3.021
33 C4 223 3.021
33 C4 224 3.510
33 C4 225 4.486
33 C4 226 5.463
33 C4 227 6.439
33 C4 228 6.927
33 C4 229 5.951
33 C4 230 4.974
33 C4 231 4.486
33 C4 232 4.486
33 C4 233 4.974
33 C4 234 5.463
33 C4 235 5.463
33 C4 236 4.974
33 C4 237 3.998
33 C4 238 3.510
33 C4 239 3.998
33 C4 240 4.486
33 C4 241 4.486
33 C4 242 3.998
33 C4 243 3.021
33 C4 244 2.045
33 C4 245 1.556
33 C4 246 2.045
33 C4 247 2.533
33 C4 248 3.021
33 C4 249 3.510
33 C4 250 3.021
33 C4 251 3.510
33 C4 252 4.486
33 C4 253 5.951
33 C4 254 6.439
33 C4 255 6.439
# CP5 chan 18
33 CP5 0 6.836
33 CP5 1 4.395
33 CP5 2 1.953
33 CP5 3 1.465
33 CP5 4 1.465
33 CP5 5 1.953
33 CP5 6 1.953
33 CP5 7 0.977
33 CP5 8 -0.488
33 CP5 9 -1.953
33 CP5 10 -2.930
33 CP5 11 -2.930
33 CP5 12 -2.441
33 CP5 13 -1.953
33 CP5 14 -1.953
33 CP5 15 -2.930
33 CP5 16 -3.906
33 CP5 17 -5.371
33 CP5 18 -5.859
33 CP5 19 -4.883
33 CP5 20 -3.418
33 CP5 21 -1.465
33 CP5 22 -0.488
33 CP5 23 0.000
33 CP5 24 -0.488
33 CP5 25 -0.977
33 CP5 26 -1.465
33 CP5 27 -1.465
33 CP5 28 -1.465
33 CP5 29 -1.953
33 CP5 30 -1.953
33 CP5 31 -2.930
33 CP5 32 -3.906
33 CP5 33 -4.883
33 CP5 34 -5.371
33 CP5 35 -5.371
33 CP5 36 -4.883
33 CP5 37 -3.906
33 CP5 38 -2.441
33 CP5 39 -1.465
33 CP5 40 -0.488
33 CP5 41 0.000
33 CP5 42 0.488
33 CP5 43 0.000
33 CP5 44 -0.488
33 CP5 45 -1.465
33 CP5 46 -2.930
33 CP5 47 -4.395
33 CP5 48 -5.371
33 CP5 49 -5.371
33 CP5 50 -4.395
33 CP5 51 -2.930
33 CP5 52 -1.465
33 CP5 53 -0.488
33 CP5 54 0.000
33 CP5 55 0.000
33 CP5 56 0.000
33 CP5 57 0.488
33 CP5 58 1.465
33 CP5 59 1.953
33 CP5 60 2.930
33 CP5 61 3.418
33 CP5 62 3.906
33 CP5 63 4.395
33 CP5 64 4.883
33 CP5 65 4.883
33 CP5 66 4.395
33 CP5 67 3.906
33 CP5 68 3.906
33 CP5 69 4.395
33 CP5 70 5.371
33 CP5 71 6.348
33 CP5 72 7.812
33 CP5 73 7.812
33 CP5 74 6.836
33 CP5 75 4.883
33 CP5 76 1.953
33 CP5 77 0.000
33 CP5 78 -0.977
33 CP5 79 0.000
33 CP5 80 1.465
33 CP5 81 3.418
33 CP5 82 3.418
33 CP5 83 2.441
33 CP5 84 0.977
33 CP5 85 0.488
33 CP5 86 0.977
33 CP5 87 2.441
33 CP5 88 3.906
33 CP5 89 3.906
33 CP5 90 3.418
33 CP5 91 2.441
33 CP5 92 2.441
33 CP5 93 3.906
33 CP5 94 5.859
33 CP5 95 6.348
33 CP5 96 5.371
33 CP5 97 2.930
33 CP5 98 -0.488
33 CP5 99 -2.441
33 CP5 100 -2.930
33 CP5 101 -1.465
33 CP5 102 0.488
33 CP5 103 2.441
33 CP5 104 3.418
33 CP5 105 3.418
33 CP5 106 2.441
33 CP5 107 1.465
33 CP5 108 0.977
33 CP5 109 0.488
33 CP5 110 0.977
33 CP5 111 1.465
33 CP5 112 0.977
33 CP5 113 0.488
33 CP5 114 0.977
33 CP5 115 1.953
33 CP5 116 2.930
33 CP5 117 2.930
33 CP5 118 1.953
33 CP5 119 0.488
33 CP5 120 -0.977
33 CP5 121 -1.465
33 CP5 122 -0.977
33 CP5 123 0.488
33 CP5 124 1.465
33 CP5 125 1.465
33 CP5 126 0.488
33 CP5 127 0.000
33 CP5 128 0.488
33 CP5 129 1.465
33 CP5 130 2.441
33 CP5 131 2.441
33 CP5 132 1.465
33 CP5 133 -0.488
33 CP5 134 -1.953
33 CP5 135 -1.953
33 CP5 136 0.000
33 CP5 137 2.441
33 CP5 138 3.906
33 CP5 139 3.906
33 CP5 140 3.418
33 CP5 141 2.441
33 CP5 142 2.930
33 CP5 143 3.906
33 CP5 144 5.371
33 CP5 145 5.371
33 CP5 146 4.395
33 CP5 147 2.930
33 CP5 148 1.465
33 CP5 149 2.441
33 CP5 150 3.906
33 CP5 151 5.371
33 CP5 152 5.371
33 CP5 153 4.883
33 CP5 154 3.906
33 CP5 155 2.930
33 CP5 156 2.930
33 CP5 157 3.418
33 CP5 158 3.906
33 CP5 159 3.906
33 CP5 160 3.418
33 CP5 161 1.953
33 CP5 162 0.488
33 CP5 163 -0.488
33 CP5 164 -0.977
33 CP5 165 -0.488
33 CP5 166 0.000
33 CP5 167 -0.488
33 CP5 168 -0.977
33 CP5 169 -1.953
33 CP5 170 -2.441
33 CP5 171 -1.953
33 CP5 172 -0.977
33 CP5 173 0.000
33 CP5 174 0.488
33 CP5 175 0.977
33 CP5 176 0.000
33 CP5 177 -1.465
33 CP5 178 -2.441
33 CP5 179 -3.906
33 CP5 180 -4.395
33 CP5 181 -4.395
33 CP5 182 -3.906
33 CP5 183 -2.930
33 CP5 184 -1.465
33 CP5 185 -0.488
33 CP5 186 0.000
33 CP5 187 0.000
33 CP5 188 -0.488
33 CP5 189 -0.977
33 CP5 190 -0.488
33 CP5 191 0.977
33 CP5 192 1.953
33 CP5 193 2.441
33 CP5 194 1.953
33 CP5 195 1.465
33 CP5 196 1.953
33 CP5 197 2.930
33 CP5 198 4.395
33 CP5 199 4.883
33 CP5 200 4.395
33 CP5 201 3.418
33 CP5 202 2.930
33 CP5 203 3.418
33 CP5 204 4.883
33 CP5 205 5.371
33 CP5 206 5.859
33 CP5 207 4.883
33 CP5 208 4.395
33 CP5 209 4.395
33 CP5 210 4.883
33 CP5 211 5.859
33 CP5 212 6.348
33 CP5 213 4.883
33 CP5 214 2.930
33 CP5 215 0.488
33 CP5 216 -1.465
33 CP5 217 -1.953
33 CP5 218 -1.465
33 CP5 219 -0.488
33 CP5 220 -0.488
33 CP5 221 -0.488
33 CP5 222 -1.465
33 CP5 223 -1.465
33 CP5 224 -0.488
33 CP5 225 0.977
33 CP5 226 2.930
33 CP5 227 4.395
33 CP5 228 4.883
33 CP5 229 4.395
33 CP5 230 3.418
33 CP5 231 2.930
33 CP5 232 2.441
33 CP5 233 2.930
33 CP5 234 3.418
33 CP5 235 3.418
33 CP5 236 3.418
33 CP5 237 2.930
33 CP5 238 2.441
33 CP5 239 1.465
33 CP5 240 0.488
33 CP5 241 0.000
33 CP5 242 0.000
33 CP5 243 0.488
33 CP5 244 0.488
33 CP5 245 0.977
33 CP5 246 1.465
33 CP5 247 1.953
33 CP5 248 2.930
33 CP5 249 2.930
33 CP5 250 1.953
33 CP5 251 1.465
33 CP5 252 0.000
33 CP5 253 0.488
33 CP5 254 0.977
33 CP5 255 2.441
# CP6 chan 19
33 CP6 0 -2.574
33 CP6 1 -2.574
33 CP6 2 -2.085
33 CP6 3 -1.597
33 CP6 4 -0.621
33 CP6 5 0.356
33 CP6 6 0.844
33 CP6 7 1.333
33 CP6 8 2.309
33 CP6 9 3.286
33 CP6 10 3.774
33 CP6 11 4.262
33 CP6 12 3.774
33 CP6 13 3.286
33 CP6 14 2.797
33 CP6 15 2.797
33 CP6 16 2.797
33 CP6 17 3.286
33 CP6 18 3.286
33 CP6 19 2.797
33 CP6 20 1.333
33 CP6 21 0.356
33 CP6 22 -0.621
33 CP6 23 -0.621
33 CP6 24 0.356
33 CP6 25 1.821
33 CP6 26 3.286
33 CP6 27 4.751
33 CP6 28 4.751
33 CP6 29 4.262
33 CP6 30 3.286
33 CP6 31 2.797
33 CP6 32 2.797
33 CP6 33 2.797
33 CP6 34 2.309
33 CP6 35 0.844
33 CP6 36 -0.132
33 CP6 37 -1.109
33 CP6 38 -1.109
33 CP6 39 -0.621
33 CP6 40 -0.621
33 CP6 41 -1.109
33 CP6 42 -2.085
33 CP6 43 -2.574
33 CP6 44 -3.550
33 CP6 45 -3.062
33 CP6 46 -2.574
33 CP6 47 -1.597
33 CP6 48 -0.132
33 CP6 49 1.821
33 CP6 50 4.262
33 CP6 51 6.215
33 CP6 52 7.192
33 CP6 53 7.680
33 CP6 54 7.192
33 CP6 55 7.192
33 CP6 56 8.169
33 CP6 57 8.657
33 CP6 58 9.633
33 CP6 59 10.122
33 CP6 60 10.122
33 CP6 61 10.122
33 CP6 62 10.610
33 CP6 63 11.098
33 CP6 64 11.098
33 CP6 65 11.098
33 CP6 66 10.610
33 CP6 67 9.633
33 CP6 68 10.122
33 CP6 69 11.098
33 CP6 70 12.075
33 CP6 71 13.540
33 CP6 72 14.028
33 CP6 73 13.540
33 CP6 74 12.075
33 CP6 75 10.610
33 CP6 76 8.657
33 CP6 77 6.704
33 CP6 78 5.239
33 CP6 79 4.262
33 CP6 80 4.262
33 CP6 81 4.262
33 CP6 82 3.774
33 CP6 83 3.286
33 CP6 84 2.309
33 CP6 85 1.333
33 CP6 86 1.821
33 CP6 87 2.797
33 CP6 88 3.286
33 CP6 89 2.797
33 CP6 90 1.821
33 CP6 91 -0.132
33 CP6 92 -0.621
33 CP6 93 -0.132
33 CP6 94 1.821
33 CP6 95 3.286
33 CP6 96 4.262
33 CP6 97 4.751
33 CP6 98 4.751
33 CP6 99 5.727
33 CP6 100 7.192
33 CP6 101 8.657
33 CP6 102 9.145
33 CP6 103 8.657
33 CP6 104 7.680
33 CP6 105 7.192
33 CP6 106 7.192
33 CP6 107 8.169
33 CP6 108 9.145
33 CP6 109 9.145
33 CP6 110 9.633
33 CP6 111 9.633
33 CP6 112 9.633
33 CP6 113 9.633
33 CP6 114 9.633
33 CP6 115 9.145
33 CP6 116 8.657
33 CP6 117 7.680
33 CP6 118 7.680
33 CP6 119 7.192
33 CP6 120 6.704
33 CP6 121 6.215
33 CP6 122 5.727
33 CP6 123 5.727
33 CP6 124 5.239
33 CP6 125 4.751
33 CP6 126 4.262
33 CP6 127 3.286
33 CP6 128 3.286
33 CP6 129 3.286
33 CP6 130 4.262
33 CP6 131 5.727
33 CP6 132 6.704
33 CP6 133 6.704
33 CP6 134 6.704
33 CP6 135 5.727
33 CP6 136 4.751
33 CP6 137 3.286
33 CP6 138 2.309
33 CP6 139 1.821
33 CP6 140 1.333
33 CP6 141 1.821
33 CP6 142 2.797
33 CP6 143 4.751
33 CP6 144 6.704
33 CP6 145 8.169
33 CP6 146 8.657
33 CP6 147 7.680
33 CP6 148 6.704
33 CP6 149 5.239
33 CP6 150 5.727
33 CP6 151 7.192
33 CP6 152 9.145
33 CP6 153 10.610
33 CP6 154 11.098
33 CP6 155 9.633
33 CP6 156 7.680
33 CP6 157 6.704
33 CP6 158 6.704
33 CP6 159 6.704
33 CP6 160 6.704
33 CP6 161 5.727
33 CP6 162 4.262
33 CP6 163 3.286
33 CP6 164 3.286
33 CP6 165 3.774
33 CP6 166 4.751
33 CP6 167 5.727
33 CP6 168 6.215
33 CP6 169 5.727
33 CP6 170 5.239
33 CP6 171 3.286
33 CP6 172 1.821
33 CP6 173 0.844
33 CP6 174 1.333
33 CP6 175 2.309
33 CP6 176 4.262
33 CP6 177 5.727
33 CP6 178 6.704
33 CP6 179 6.215
33 CP6 180 4.751
33 CP6 181 3.774
33 CP6 182 3.774
33 CP6 183 4.262
33 CP6 184 4.751
33 CP6 185 5.727
33 CP6 186 5.727
33 CP6 187 5.239
33 CP6 188 5.239
33 CP6 189 5.239
33 CP6 190 5.239
33 CP6 191 5.727
33 CP6 192 5.239
33 CP6 193 5.727
33 CP6 194 5.727
33 CP6 195 6.215
33 CP6 196 6.704
33 CP6 197 6.704
33 CP6 198 6.704
33 CP6 199 6.704
33 CP6 200 6.704
33 CP6 201 6.704
33 CP6 202 6.215
33 CP6 203 6.215
33 CP6 204 6.215
33 CP6 205 5.727
33 CP6 206 5.727
33 CP6 207 5.727
33 CP6 208 5.727
33 CP6 209 5.239
33 CP6 210 4.751
33 CP6 211 4.751
33 CP6 212 5.727
33 CP6 213 7.192
33 CP6 214 8.657
33 CP6 215 9.633
33 CP6 216 9.633
33 CP6 217 8.657
33 CP6 218 7.680
33 CP6 219 6.704
33 CP6 220 6.704
33 CP6 221 7.192
33 CP6 222 7.192
33 CP6 223 7.680
33 CP6 224 8.657
33 CP6 225 9.633
33 CP6 226 10.610
33 CP6 227 11.587
33 CP6 228 12.075
33 CP6 229 10.610
33 CP6 230 9.145
33 CP6 231 7.680
33 CP6 232 7.680
33 CP6 233 8.657
33 CP6 234 9.633
33 CP6 235 10.122
33 CP6 236 8.657
33 CP6 237 6.704
33 CP6 238 5.727
33 CP6 239 5.727
33 CP6 240 6.215
33 CP6 241 7.192
33 CP6 242 6.704
33 CP6 243 5.239
33 CP6 244 4.751
33 CP6 245 4.262
33 CP6 246 5.239
33 CP6 247 6.215
33 CP6 248 6.215
33 CP6 249 6.704
33 CP6 250 6.215
33 CP6 251 6.704
33 CP6 252 7.192
33 CP6 253 8.657
33 CP6 254 9.633
33 CP6 255 9.633
# CP1 chan 20
33 CP1 0 4.120
33 CP1 1 3.632
33 CP1 2 3.632
33 CP1 3 4.120
33 CP1 4 4.608
33 CP1 5 4.608
33 CP1 6 4.120
33 CP1 7 2.655
33 CP1 8 1.678
33 CP1 9 0.702
33 CP1 10 0.702
33 CP1 11 0.702
33 CP1 12 0.702
33 CP1 13 0.214
33 CP1 14 -0.763
33 CP1 15 -1.740
33 CP1 16 -2.228
33 CP1 17 -2.228
33 CP1 18 -2.228
33 CP1 19 -1.740
33 CP1 20 -0.763
33 CP1 21 0.702
33 CP1 22 1.678
33 CP1 23 2.167
33 CP1 24 1.678
33 CP1 25 1.678
33 CP1 26 1.190
33 CP1 27 1.190
33 CP1 28 0.702
33 CP1 29 1.190
33 CP1 30 1.678
33 CP1 31 1.678
33 CP1 32 1.190
33 CP1 33 0.702
33 CP1 34 0.214
33 CP1 35 -0.275
33 CP1 36 -0.763
33 CP1 37 -0.763
33 CP1 38 -0.275
33 CP1 39 0.702
33 CP1 40 1.678
33 CP1 41 2.655
33 CP1 42 2.655
33 CP1 43 2.655
33 CP1 44 2.167
33 CP1 45 2.167
33 CP1 46 2.167
33 CP1 47 1.678
33 CP1 48 1.678
33 CP1 49 1.678
33 CP1 50 2.167
33 CP1 51 2.167
33 CP1 52 2.167
33 CP1 53 2.167
33 CP1 54 1.678
33 CP1 55 1.678
33 CP1 56 1.190
33 CP1 57 1.678
33 CP1 58 2.167
33 CP1 59 3.143
33 CP1 60 4.120
33 CP1 61 5.096
33 CP1 62 5.096
33 CP1 63 5.585
33 CP1 64 5.096
33 CP1 65 5.096
33 CP1 66 5.096
33 CP1 67 4.608
33 CP1 68 4.120
33 CP1 69 4.120
33 CP1 70 4.120
33 CP1 71 5.096
33 CP1 72 5.585
33 CP1 73 5.585
33 CP1 74 4.608
33 CP1 75 3.632
33 CP1 76 2.655
33 CP1 77 1.678
33 CP1 78 1.678
33 CP1 79 2.167
33 CP1 80 3.143
33 CP1 81 3.632
33 CP1 82 3.632
33 CP1 83 3.632
33 CP1 84 3.632
33 CP1 85 3.632
33 CP1 86 4.120
33 CP1 87 4.608
33 CP1 88 5.096
33 CP1 89 5.585
33 CP1 90 5.585
33 CP1 91 5.096
33 CP1 92 4.608
33 CP1 93 4.608
33 CP1 94 5.096
33 CP1 95 5.096
33 CP1 96 4.120
33 CP1 97 3.143
33 CP1 98 1.678
33 CP1 99 0.214
33 CP1 100 -0.275
33 CP1 101 0.214
33 CP1 102 1.190
33 CP1 103 2.167
33 CP1 104 2.167
33 CP1 105 2.167
33 CP1 106 1.678
33 CP1 107 1.678
33 CP1 108 1.678
33 CP1 109 2.167
33 CP1 110 2.167
33 CP1 111 2.167
33 CP1 112 1.678
33 CP1 113 1.678
33 CP1 114 1.678
33 CP1 115 2.167
33 CP1 116 3.143
33 CP1 117 3.143
33 CP1 118 2.655
33 CP1 119 2.167
33 CP1 120 1.190
33 CP1 121 1.190
33 CP1 122 1.190
33 CP1 123 2.167
33 CP1 124 2.655
33 CP1 125 2.655
33 CP1 126 2.167
33 CP1 127 1.678
33 CP1 128 1.678
33 CP1 129 2.167
33 CP1 130 2.167
33 CP1 131 2.655
33 CP1 132 2.167
33 CP1 133 1.190
33 CP1 134 0.214
33 CP1 135 -0.275
33 CP1 136 0.214
33 CP1 137 0.214
33 CP1 138 0.702
33 CP1 139 1.190
33 CP1 140 1.190
33 CP1 141 1.190
33 CP1 142 1.678
33 CP1 143 2.167
33 CP1 144 3.143
33 CP1 145 3.143
33 CP1 146 2.655
33 CP1 147 1.678
33 CP1 148 1.190
33 CP1 149 1.678
33 CP1 150 2.655
33 CP1 151 3.143
33 CP1 152 4.120
33 CP1 153 4.120
33 CP1 154 3.632
33 CP1 155 3.143
33 CP1 156 2.655
33 CP1 157 3.143
33 CP1 158 3.143
33 CP1 159 3.143
33 CP1 160 3.143
33 CP1 161 2.167
33 CP1 162 1.190
33 CP1 163 0.214
33 CP1 164 -0.275
33 CP1 165 -0.275
33 CP1 166 -0.275
33 CP1 167 0.214
33 CP1 168 0.214
33 CP1 169 -0.275
33 CP1 170 -0.275
33 CP1 171 -0.763
33 CP1 172 -0.763
33 CP1 173 -0.763
33 CP1 174 -0.275
33 CP1 175 0.214
33 CP1 176 0.214
33 CP1 177 -0.763
33 CP1 178 -1.740
33 CP1 179 -2.716
33 CP1 180 -3.204
33 CP1 181 -3.204
33 CP1 182 -3.204
33 CP1 183 -2.228
33 CP1 184 -1.740
33 CP1 185 -0.763
33 CP1 186 -0.275
33 CP1 187 -0.763
33 CP1 188 -0.763
33 CP1 189 -0.763
33 CP1 190 0.214
33 CP1 191 1.678
33 CP1 192 2.655
33 CP1 193 3.143
33 CP1 194 3.143
33 CP1 195 2.167
33 CP1 196 1.678
33 CP1 197 1.678
33 CP1 198 2.167
33 CP1 199 2.655
33 CP1 200 3.632
33 CP1 201 3.143
33 CP1 202 2.655
33 CP1 203 2.655
33 CP1 204 2.167
33 CP1 205 2.655
33 CP1 206 2.655
33 CP1 207 2.655
33 CP1 208 2.655
33 CP1 209 3.143
33 CP1 210 3.143
33 CP1 211 3.143
33 CP1 212 3.143
33 CP1 213 2.167
33 CP1 214 1.190
33 CP1 215 -0.275
33 CP1 216 -0.763
33 CP1 217 -1.251
33 CP1 218 -1.251
33 CP1 219 -0.275
33 CP1 220 -0.275
33 CP1 221 0.214
33 CP1 222 -0.763
33 CP1 223 -1.251
33 CP1 224 -1.251
33 CP1 225 -0.763
33 CP1 226 0.702
33 CP1 227 1.678
33 CP1 228 2.167
33 CP1 229 2.167
33 CP1 230 1.678
33 CP1 231 1.190
33 CP1 232 0.214
33 CP1 233 0.214
33 CP1 234 -0.275
33 CP1 235 -0.275
33 CP1 236 0.214
33 CP1 237 0.702
33 CP1 238 0.702
33 CP1 239 0.214
33 CP1 240 -0.763
33 CP1 241 -1.251
33 CP1 242 -1.740
33 CP1 243 -1.740
33 CP1 244 -1.251
33 CP1 245 -0.763
33 CP1 246 -0.275
33 CP1 247 0.214
33 CP1 248 0.702
33 CP1 249 0.702
33 CP1 250 -0.275
33 CP1 251 -1.251
33 CP1 252 -1.740
33 CP1 253 -2.228
33 CP1 254 -1.740
33 CP1 255 -0.763
# CP2 chan 21
33 CP2 0 -0.814
33 CP2 1 -0.326
33 CP2 2 0.651
33 CP2 3 1.139
33 CP2 4 2.116
33 CP2 5 2.604
33 CP2 6 2.604
33 CP2 7 2.116
33 CP2 8 1.628
33 CP2 9 2.116
33 CP2 10 3.092
33 CP2 11 3.581
33 CP2 12 3.581
33 CP2 13 3.092
33 CP2 14 1.628
33 CP2 15 0.651
33 CP2 16 0.163
33 CP2 17 -0.326
33 CP2 18 -0.326
33 CP2 19 -0.326
33 CP2 20 0.163
33 CP2 21 1.139
33 CP2 22 1.139
33 CP2 23 1.139
33 CP2 24 0.651
33 CP2 25 0.163
33 CP2 26 0.163
33 CP2 27 0.651
33 CP2 28 1.139
33 CP2 29 2.116
33 CP2 30 3.092
33 CP2 31 3.581
33 CP2 32 3.581
33 CP2 33 3.092
33 CP2 34 2.116
33 CP2 35 0.651
33 CP2 36 -0.326
33 CP2 37 -0.814
33 CP2 38 -0.326
33 CP2 39 0.651
33 CP2 40 1.628
33 CP2 41 2.116
33 CP2 42 2.116
33 CP2 43 1.628
33 CP2 44 1.139
33 CP2 45 0.651
33 CP2 46 0.651
33 CP2 47 1.139
33 CP2 48 2.116
33 CP2 49 3.092
33 CP2 50 4.557
33 CP2 51 5.534
33 CP2 52 5.534
33 CP2 53 5.046
33 CP2 54 4.069
33 CP2 55 3.092
33 CP2 56 3.092
33 CP2 57 4.069
33 CP2 58 5.046
33 CP2 59 6.510
33 CP2 60 6.510
33 CP2 61 6.510
33 CP2 62 6.510
33 CP2 63 6.510
33 CP2 64 6.510
33 CP2 65 6.510
33 CP2 66 5.534
33 CP2 67 4.557
33 CP2 68 4.557
33 CP2 69 5.046
33 CP2 70 5.534
33 CP2 71 6.022
33 CP2 72 5.534
33 CP2 73 4.069
33 CP2 74 3.092
33 CP2 75 2.604
33 CP2 76 3.092
33 CP2 77 3.581
33 CP2 78 3.581
33 CP2 79 3.092
33 CP2 80 2.604
33 CP2 81 2.604
33 CP2 82 2.604
33 CP2 83 3.092
33 CP2 84 3.092
33 CP2 85 3.092
33 CP2 86 3.581
33 CP2 87 3.581
33 CP2 88 3.581
33 CP2 89 2.604
33 CP2 90 2.116
33 CP2 91 1.628
33 CP2 92 1.628
33 CP2 93 2.116
33 CP2 94 3.581
33 CP2 95 4.069
33 CP2 96 3.581
33 CP2 97 2.604
33 CP2 98 2.116
33 CP2 99 1.628
33 CP2 100 2.116
33 CP2 101 3.092
33 CP2 102 4.069
33 CP2 103 4.069
33 CP2 104 4.069
33 CP2 105 4.069
33 CP2 106 3.581
33 CP2 107 3.581
33 CP2 108 3.581
33 CP2 109 4.069
33 CP2 110 4.069
33 CP2 111 4.557
33 CP2 112 4.557
33 CP2 113 4.557
33 CP2 114 4.557
33 CP2 115 4.069
33 CP2 116 3.581
33 CP2 117 2.604
33 CP2 118 2.116
33 CP2 119 2.604
33 CP2 120 3.581
33 CP2 121 4.069
33 CP2 122 4.557
33 CP2 123 4.557
33 CP2 124 4.069
33 CP2 125 3.092
33 CP2 126 2.116
33 CP2 127 1.628
33 CP2 128 1.628
33 CP2 129 2.116
33 CP2 130 3.581
33 CP2 131 4.069
33 CP2 132 5.046
33 CP2 133 5.046
33 CP2 134 4.557
33 CP2 135 3.092
33 CP2 136 2.116
33 CP2 137 0.651
33 CP2 138 0.163
33 CP2 139 1.139
33 CP2 140 1.628
33 CP2 141 2.604
33 CP2 142 3.092
33 CP2 143 3.581
33 CP2 144 4.069
33 CP2 145 4.557
33 CP2 146 4.557
33 CP2 147 4.069
33 CP2 148 4.069
33 CP2 149 3.581
33 CP2 150 4.069
33 CP2 151 5.046
33 CP2 152 5.534
33 CP2 153 5.534
33 CP2 154 5.046
33 CP2 155 4.069
33 CP2 156 3.581
33 CP2 157 3.581
33 CP2 158 4.069
33 CP2 159 4.557
33 CP2 160 4.069
33 CP2 161 3.581
33 CP2 162 2.604
33 CP2 163 2.116
33 CP2 164 1.628
33 CP2 165 2.604
33 CP2 166 2.604
33 CP2 167 3.092
33 CP2 168 3.581
33 CP2 169 4.557
33 CP2 170 4.557
33 CP2 171 4.069
33 CP2 172 3.092
33 CP2 173 1.628
33 CP2 174 1.139
33 CP2 175 1.628
33 CP2 176 2.604
33 CP2 177 3.581
33 CP2 178 4.069
33 CP2 179 3.581
33 CP2 180 2.604
33 CP2 181 1.628
33 CP2 182 1.628
33 CP2 183 2.116
33 CP2 184 2.604
33 CP2 185 3.092
33 CP2 186 4.069
33 CP2 187 4.557
33 CP2 188 5.046
33 CP2 189 5.534
33 CP2 190 5.534
33 CP2 191 5.046
33 CP2 192 5.046
33 CP2 193 4.557
33 CP2 194 4.557
33 CP2 195 4.557
33 CP2 196 4.557
33 CP2 197 4.069
33 CP2 198 4.069
33 CP2 199 4.557
33 CP2 200 4.557
33 CP2 201 4.557
33 CP2 202 4.069
33 CP2 203 3.092
33 CP2 204 3.092
33 CP2 205 3.092
33 CP2 206 4.069
33 CP2 207 5.046
33 CP2 208 5.534
33 CP2 209 5.534
33 CP2 210 5.046
33 CP2 211 5.046
33 CP2 212 5.534
33 CP2 213 6.022
33 CP2 214 5.534
33 CP2 215 5.046
33 CP2 216 5.046
33 CP2 217 5.046
33 CP2 218 5.534
33 CP2 219 6.022
33 CP2 220 6.022
33 CP2 221 5.534
33 CP2 222 4.557
33 CP2 223 3.581
33 CP2 224 3.581
33 CP2 225 3.581
33 CP2 226 4.069
33 CP2 227 5.046
33 CP2 228 6.022
33 CP2 229 6.510
33 CP2 230 6.022
33 CP2 231 5.534
33 CP2 232 4.069
33 CP2 233 3.581
33 CP2 234 3.581
33 CP2 235 3.092
33 CP2 236 3.092
33 CP2 237 3.092
33 CP2 238 3.092
33 CP2 239 3.581
33 CP2 240 3.581
33 CP2 241 3.581
33 CP2 242 2.604
33 CP2 243 1.139
33 CP2 244 0.163
33 CP2 245 0.651
33 CP2 246 1.628
33 CP2 247 3.092
33 CP2 248 4.069
33 CP2 249 4.069
33 CP2 250 3.581
33 CP2 251 3.581
33 CP2 252 3.092
33 CP2 253 3.092
33 CP2 254 3.581
33 CP2 255 3.092
# P3 chan 22
33 P3 0 5.381
33 P3 1 4.405
33 P3 2 4.405
33 P3 3 5.381
33 P3 4 6.846
33 P3 5 7.334
33 P3 6 6.358
33 P3 7 3.916
33 P3 8 1.475
33 P3 9 0.010
33 P3 10 0.010
33 P3 11 0.010
33 P3 12 0.498
33 P3 13 0.498
33 P3 14 -0.478
33 P3 15 -1.455
33 P3 16 -2.431
33 P3 17 -2.920
33 P3 18 -3.408
33 P3 19 -2.920
33 P3 20 -1.943
33 P3 21 -0.966
33 P3 22 0.010
33 P3 23 0.498
33 P3 24 0.498
33 P3 25 0.010
33 P3 26 -0.478
33 P3 27 -0.966
33 P3 28 -0.478
33 P3 29 -0.478
33 P3 30 0.010
33 P3 31 0.010
33 P3 32 -0.478
33 P3 33 -1.455
33 P3 34 -2.920
33 P3 35 -3.408
33 P3 36 -2.920
33 P3 37 -1.943
33 P3 38 0.010
33 P3 39 1.475
33 P3 40 2.452
33 P3 41 2.452
33 P3 42 2.452
33 P3 43 1.963
33 P3 44 1.963
33 P3 45 1.475
33 P3 46 0.987
33 P3 47 0.010
33 P3 48 0.010
33 P3 49 0.498
33 P3 50 1.475
33 P3 51 2.452
33 P3 52 3.428
33 P3 53 3.428
33 P3 54 3.428
33 P3 55 2.940
33 P3 56 2.940
33 P3 57 3.428
33 P3 58 4.405
33 P3 59 5.381
33 P3 60 6.846
33 P3 61 7.334
33 P3 62 7.823
33 P3 63 8.311
33 P3 64 7.823
33 P3 65 7.823
33 P3 66 7.334
33 P3 67 6.846
33 P3 68 6.358
33 P3 69 6.846
33 P3 70 7.334
33 P3 71 8.311
33 P3 72 8.799
33 P3 73 8.799
33 P3 74 7.334
33 P3 75 5.870
33 P3 76 3.916
33 P3 77 2.452
33 P3 78 1.963
33 P3 79 2.452
33 P3 80 3.916
33 P3 81 5.381
33 P3 82 5.381
33 P3 83 4.893
33 P3 84 3.428
33 P3 85 2.940
33 P3 86 3.428
33 P3 87 4.405
33 P3 88 5.870
33 P3 89 6.358
33 P3 90 6.846
33 P3 91 6.358
33 P3 92 6.846
33 P3 93 7.823
33 P3 94 9.288
33 P3 95 9.776
33 P3 96 8.311
33 P3 97 5.381
33 P3 98 1.963
33 P3 99 -0.478
33 P3 100 -1.455
33 P3 101 -0.478
33 P3 102 1.475
33 P3 103 3.428
33 P3 104 3.916
33 P3 105 3.916
33 P3 106 2.940
33 P3 107 1.963
33 P3 108 1.475
33 P3 109 1.963
33 P3 110 2.940
33 P3 111 2.940
33 P3 112 2.452
33 P3 113 1.963
33 P3 114 1.475
33 P3 115 1.963
33 P3 116 2.940
33 P3 117 3.428
33 P3 118 2.940
33 P3 119 1.963
33 P3 120 0.498
33 P3 121 0.498
33 P3 122 0.987
33 P3 123 1.963
33 P3 124 2.940
33 P3 125 2.940
33 P3 126 2.452
33 P3 127 1.963
33 P3 128 1.475
33 P3 129 1.963
33 P3 130 1.963
33 P3 131 1.963
33 P3 132 1.475
33 P3 133 0.498
33 P3 134 0.010
33 P3 135 0.010
33 P3 136 1.475
33 P3 137 2.452
33 P3 138 3.428
33 P3 139 2.940
33 P3 140 2.452
33 P3 141 2.452
33 P3 142 3.428
33 P3 143 5.381
33 P3 144 6.846
33 P3 145 6.846
33 P3 146 5.870
33 P3 147 3.916
33 P3 148 3.428
33 P3 149 3.916
33 P3 150 5.381
33 P3 151 7.334
33 P3 152 8.311
33 P3 153 7.823
33 P3 154 6.846
33 P3 155 5.381
33 P3 156 4.405
33 P3 157 3.916
33 P3 158 3.916
33 P3 159 3.916
33 P3 160 3.428
33 P3 161 2.940
33 P3 162 1.963
33 P3 163 0.987
33 P3 164 0.010
33 P3 165 0.010
33 P3 166 0.498
33 P3 167 0.987
33 P3 168 1.475
33 P3 169 0.987
33 P3 170 0.498
33 P3 171 0.010
33 P3 172 0.010
33 P3 173 0.987
33 P3 174 1.963
33 P3 175 2.452
33 P3 176 1.963
33 P3 177 0.987
33 P3 178 0.010
33 P3 179 -1.943
33 P3 180 -2.920
33 P3 181 -2.920
33 P3 182 -2.431
33 P3 183 -1.455
33 P3 184 0.010
33 P3 185 1.475
33 P3 186 1.475
33 P3 187 1.475
33 P3 188 0.987
33 P3 189 0.498
33 P3 190 1.963
33 P3 191 3.428
33 P3 192 5.381
33 P3 193 6.358
33 P3 194 6.358
33 P3 195 5.381
33 P3 196 5.381
33 P3 197 5.381
33 P3 198 6.846
33 P3 199 7.823
33 P3 200 7.823
33 P3 201 7.334
33 P3 202 6.846
33 P3 203 6.358
33 P3 204 6.358
33 P3 205 6.846
33 P3 206 7.334
33 P3 207 6.846
33 P3 208 6.846
33 P3 209 7.334
33 P3 210 7.823
33 P3 211 8.311
33 P3 212 7.823
33 P3 213 6.846
33 P3 214 4.893
33 P3 215 2.452
33 P3 216 1.475
33 P3 217 0.498
33 P3 218 1.475
33 P3 219 1.963
33 P3 220 1.963
33 P3 221 1.475
33 P3 222 0.498
33 P3 223 0.010
33 P3 224 0.987
33 P3 225 2.452
33 P3 226 3.916
33 P3 227 5.381
33 P3 228 5.870
33 P3 229 5.870
33 P3 230 4.893
33 P3 231 3.916
33 P3 232 3.428
33 P3 233 2.940
33 P3 234 2.452
33 P3 235 2.452
33 P3 236 1.963
33 P3 237 1.963
33 P3 238 1.963
33 P3 239 1.963
33 P3 240 0.987
33 P3 241 0.010
33 P3 242 -0.966
33 P3 243 -0.966
33 P3 244 -0.966
33 P3 245 0.010
33 P3 246 0.987
33 P3 247 1.963
33 P3 248 2.940
33 P3 249 2.452
33 P3 250 1.475
33 P3 251 0.987
33 P3 252 -0.478
33 P3 253 0.010
33 P3 254 0.987
33 P3 255 1.963
# P4 chan 23
33 P4 0 -3.428
33 P4 1 -2.940
33 P4 2 -1.963
33 P4 3 -0.010
33 P4 4 1.455
33 P4 5 2.920
33 P4 6 2.920
33 P4 7 2.920
33 P4 8 3.896
33 P4 9 4.873
33 P4 10 6.337
33 P4 11 6.826
33 P4 12 5.849
33 P4 13 4.384
33 P4 14 2.920
33 P4 15 2.431
33 P4 16 2.431
33 P4 17 2.431
33 P4 18 1.943
33 P4 19 0.966
33 P4 20 -0.010
33 P4 21 -0.987
33 P4 22 -1.963
33 P4 23 -2.452
33 P4 24 -2.452
33 P4 25 -1.963
33 P4 26 -0.987
33 P4 27 -0.010
33 P4 28 -0.010
33 P4 29 -0.010
33 P4 30 0.478
33 P4 31 0.966
33 P4 32 1.943
33 P4 33 2.431
33 P4 34 1.455
33 P4 35 -0.010
33 P4 36 -0.987
33 P4 37 -0.987
33 P4 38 -0.010
33 P4 39 0.478
33 P4 40 0.478
33 P4 41 -0.498
33 P4 42 -1.963
33 P4 43 -2.940
33 P4 44 -2.940
33 P4 45 -1.963
33 P4 46 -0.987
33 P4 47 -0.498
33 P4 48 0.966
33 P4 49 2.920
33 P4 50 4.873
33 P4 51 6.826
33 P4 52 7.314
33 P4 53 7.314
33 P4 54 7.314
33 P4 55 7.802
33 P4 56 8.779
33 P4 57 9.267
33 P4 58 9.267
33 P4 59 9.267
33 P4 60 9.755
33 P4 61 10.244
33 P4 62 10.732
33 P4 63 11.220
33 P4 64 10.732
33 P4 65 9.267
33 P4 66 8.779
33 P4 67 8.291
33 P4 68 8.779
33 P4 69 9.267
33 P4 70 9.755
33 P4 71 10.244
33 P4 72 10.244
33 P4 73 10.244
33 P4 74 9.267
33 P4 75 7.802
33 P4 76 6.337
33 P4 77 4.873
33 P4 78 4.873
33 P4 79 5.361
33 P4 80 6.337
33 P4 81 6.337
33 P4 82 5.849
33 P4 83 4.384
33 P4 84 2.920
33 P4 85 2.920
33 P4 86 2.920
33 P4 87 3.896
33 P4 88 4.384
33 P4 89 3.896
33 P4 90 2.920
33 P4 91 1.943
33 P4 92 2.431
33 P4 93 3.408
33 P4 94 5.361
33 P4 95 6.337
33 P4 96 5.849
33 P4 97 4.873
33 P4 98 3.408
33 P4 99 3.408
33 P4 100 4.384
33 P4 101 5.361
33 P4 102 6.337
33 P4 103 6.826
33 P4 104 6.337
33 P4 105 5.361
33 P4 106 5.361
33 P4 107 5.849
33 P4 108 6.337
33 P4 109 6.826
33 P4 110 6.337
33 P4 111 6.337
33 P4 112 5.849
33 P4 113 5.849
33 P4 114 5.361
33 P4 115 5.849
33 P4 116 5.849
33 P4 117 5.849
33 P4 118 5.849
33 P4 119 5.361
33 P4 120 4.873
33 P4 121 5.361
33 P4 122 5.849
33 P4 123 6.337
33 P4 124 6.826
33 P4 125 5.849
33 P4 126 4.873
33 P4 127 3.408
33 P4 128 2.920
33 P4 129 3.408
33 P4 130 4.384
33 P4 131 4.873
33 P4 132 5.849
33 P4 133 5.849
33 P4 134 5.361
33 P4 135 4.384
33 P4 136 3.408
33 P4 137 2.431
33 P4 138 1.455
33 P4 139 0.966
33 P4 140 1.455
33 P4 141 1.943
33 P4 142 3.408
33 P4 143 5.849
33 P4 144 7.802
33 P4 145 8.779
33 P4 146 9.267
33 P4 147 8.291
33 P4 148 7.314
33 P4 149 6.826
33 P4 150 7.314
33 P4 151 8.779
33 P4 152 9.755
33 P4 153 10.244
33 P4 154 9.267
33 P4 155 8.291
33 P4 156 6.826
33 P4 157 6.337
33 P4 158 6.337
33 P4 159 6.337
33 P4 160 5.849
33 P4 161 4.873
33 P4 162 3.408
33 P4 163 2.920
33 P4 164 2.431
33 P4 165 3.408
33 P4 166 4.873
33 P4 167 6.337
33 P4 168 7.802
33 P4 169 8.291
33 P4 170 7.314
33 P4 171 5.361
33 P4 172 3.408
33 P4 173 2.431
33 P4 174 2.431
33 P4 175 3.896
33 P4 176 4.873
33 P4 177 5.361
33 P4 178 4.384
33 P4 179 3.408
33 P4 180 1.943
33 P4 181 1.455
33 P4 182 1.455
33 P4 183 2.920
33 P4 184 4.384
33 P4 185 5.361
33 P4 186 5.849
33 P4 187 5.849
33 P4 188 6.337
33 P4 189 6.337
33 P4 190 6.337
33 P4 191 6.826
33 P4 192 6.826
33 P4 193 7.802
33 P4 194 7.802
33 P4 195 7.802
33 P4 196 7.802
33 P4 197 7.802
33 P4 198 7.802
33 P4 199 8.291
33 P4 200 8.779
33 P4 201 8.779
33 P4 202 8.291
33 P4 203 7.802
33 P4 204 7.314
33 P4 205 7.314
33 P4 206 7.802
33 P4 207 7.802
33 P4 208 7.802
33 P4 209 7.802
33 P4 210 7.802
33 P4 211 8.291
33 P4 212 8.779
33 P4 213 9.755
33 P4 214 10.732
33 P4 215 10.732
33 P4 216 10.244
33 P4 217 9.267
33 P4 218 8.291
33 P4 219 8.291
33 P4 220 8.291
33 P4 221 8.291
33 P4 222 7.802
33 P4 223 7.802
33 P4 224 7.802
33 P4 225 8.779
33 P4 226 10.244
33 P4 227 10.732
33 P4 228 11.220
33 P4 229 9.755
33 P4 230 8.291
33 P4 231 6.826
33 P4 232 6.337
33 P4 233 6.826
33 P4 234 6.826
33 P4 235 6.826
33 P4 236 5.849
33 P4 237 4.384
33 P4 238 3.408
33 P4 239 3.896
33 P4 240 3.408
33 P4 241 3.408
33 P4 242 2.920
33 P4 243 2.431
33 P4 244 2.920
33 P4 245 3.408
33 P4 246 4.873
33 P4 247 5.849
33 P4 248 6.337
33 P4 249 5.849
33 P4 250 5.849
33 P4 251 5.849
33 P4 252 5.849
33 P4 253 6.337
33 P4 254 6.337
33 P4 255 6.337
# PZ chan 24
33 PZ 0 0.804
33 PZ 1 0.804
33 PZ 2 2.268
33 PZ 3 3.733
33 PZ 4 5.686
33 PZ 5 6.663
33 PZ 6 6.663
33 PZ 7 5.198
33 PZ 8 3.733
33 PZ 9 3.245
33 PZ 10 3.733
33 PZ 11 4.222
33 PZ 12 4.710
33 PZ 13 4.222
33 PZ 14 2.757
33 PZ 15 1.292
33 PZ 16 0.315
33 PZ 17 -0.173
33 PZ 18 -0.661
33 PZ 19 -0.661
33 PZ 20 -0.661
33 PZ 21 -0.173
33 PZ 22 -0.173
33 PZ 23 -0.173
33 PZ 24 -0.173
33 PZ 25 -0.173
33 PZ 26 -0.661
33 PZ 27 -0.661
33 PZ 28 -0.173
33 PZ 29 0.315
33 PZ 30 1.292
33 PZ 31 1.780
33 PZ 32 2.268
33 PZ 33 1.780
33 PZ 34 1.292
33 PZ 35 0.315
33 PZ 36 0.315
33 PZ 37 0.804
33 PZ 38 1.780
33 PZ 39 2.757
33 PZ 40 2.757
33 PZ 41 2.268
33 PZ 42 1.780
33 PZ 43 0.804
33 PZ 44 0.804
33 PZ 45 1.292
33 PZ 46 1.292
33 PZ 47 1.292
33 PZ 48 1.780
33 PZ 49 2.268
33 PZ 50 3.245
33 PZ 51 4.222
33 PZ 52 5.198
33 PZ 53 5.686
33 PZ 54 5.198
33 PZ 55 4.710
33 PZ 56 5.198
33 PZ 57 5.198
33 PZ 58 6.175
33 PZ 59 6.663
33 PZ 60 7.640
33 PZ 61 8.128
33 PZ 62 8.616
33 PZ 63 8.616
33 PZ 64 8.616
33 PZ 65 8.128
33 PZ 66 7.640
33 PZ 67 6.663
33 PZ 68 6.663
33 PZ 69 6.663
33 PZ 70 7.151
33 PZ 71 7.640
33 PZ 72 7.640
33 PZ 73 7.640
33 PZ 74 7.151
33 PZ 75 6.175
33 PZ 76 5.198
33 PZ 77 4.222
33 PZ 78 4.222
33 PZ 79 5.198
33 PZ 80 6.175
33 PZ 81 7.151
33 PZ 82 7.640
33 PZ 83 7.151
33 PZ 84 5.686
33 PZ 85 4.710
33 PZ 86 5.198
33 PZ 87 6.175
33 PZ 88 7.640
33 PZ 89 8.128
33 PZ 90 8.128
33 PZ 91 7.640
33 PZ 92 7.151
33 PZ 93 7.151
33 PZ 94 7.640
33 PZ 95 8.128
33 PZ 96 7.640
33 PZ 97 6.175
33 PZ 98 4.222
33 PZ 99 2.757
33 PZ 100 2.268
33 PZ 101 2.757
33 PZ 102 3.733
33 PZ 103 4.710
33 PZ 104 5.198
33 PZ 105 4.710
33 PZ 106 4.222
33 PZ 107 3.733
33 PZ 108 3.733
33 PZ 109 4.710
33 PZ 110 5.198
33 PZ 111 5.198
33 PZ 112 4.222
33 PZ 113 3.245
33 PZ 114 3.245
33 PZ 115 3.245
33 PZ 116 4.222
33 PZ 117 4.710
33 PZ 118 4.710
33 PZ 119 4.222
33 PZ 120 3.733
33 PZ 121 3.733
33 PZ 122 4.222
33 PZ 123 4.710
33 PZ 124 5.198
33 PZ 125 5.198
33 PZ 126 5.198
33 PZ 127 4.222
33 PZ 128 3.733
33 PZ 129 3.245
33 PZ 130 3.245
33 PZ 131 3.733
33 PZ 132 3.733
33 PZ 133 3.245
33 PZ 134 3.245
33 PZ 135 3.245
33 PZ 136 3.245
33 PZ 137 2.757
33 PZ 138 2.757
33 PZ 139 2.268
33 PZ 140 2.268
33 PZ 141 3.245
33 PZ 142 3.733
33 PZ 143 5.686
33 PZ 144 6.663
33 PZ 145 7.151
33 PZ 146 7.151
33 PZ 147 6.175
33 PZ 148 5.198
33 PZ 149 5.198
33 PZ 150 6.663
33 PZ 151 8.128
33 PZ 152 9.104
33 PZ 153 9.104
33 PZ 154 8.128
33 PZ 155 6.663
33 PZ 156 5.686
33 PZ 157 4.710
33 PZ 158 5.198
33 PZ 159 5.198
33 PZ 160 5.198
33 PZ 161 4.710
33 PZ 162 3.245
33 PZ 163 1.780
33 PZ 164 1.292
33 PZ 165 1.292
33 PZ 166 2.757
33 PZ 167 3.733
33 PZ 168 4.710
33 PZ 169 4.710
33 PZ 170 4.222
33 PZ 171 3.245
33 PZ 172 2.268
33 PZ 173 2.268
33 PZ 174 2.757
33 PZ 175 3.245
33 PZ 176 3.733
33 PZ 177 3.245
33 PZ 178 1.780
33 PZ 179 -0.173
33 PZ 180 -1.149
33 PZ 181 -1.638
33 PZ 182 -1.149
33 PZ 183 0.315
33 PZ 184 1.780
33 PZ 185 2.757
33 PZ 186 3.733
33 PZ 187 3.245
33 PZ 188 2.757
33 PZ 189 3.245
33 PZ 190 4.222
33 PZ 191 5.686
33 PZ 192 7.151
33 PZ 193 8.128
33 PZ 194 8.128
33 PZ 195 7.151
33 PZ 196 6.663
33 PZ 197 6.175
33 PZ 198 6.663
33 PZ 199 7.640
33 PZ 200 8.128
33 PZ 201 8.616
33 PZ 202 8.128
33 PZ 203 7.151
33 PZ 204 6.175
33 PZ 205 6.175
33 PZ 206 6.175
33 PZ 207 6.663
33 PZ 208 7.640
33 PZ 209 8.128
33 PZ 210 8.616
33 PZ 211 9.104
33 PZ 212 9.104
33 PZ 213 9.104
33 PZ 214 8.128
33 PZ 215 6.663
33 PZ 216 5.198
33 PZ 217 4.222
33 PZ 218 4.222
33 PZ 219 4.710
33 PZ 220 5.198
33 PZ 221 5.198
33 PZ 222 4.710
33 PZ 223 4.222
33 PZ 224 4.222
33 PZ 225 4.710
33 PZ 226 6.175
33 PZ 227 7.640
33 PZ 228 8.616
33 PZ 229 8.128
33 PZ 230 7.640
33 PZ 231 6.175
33 PZ 232 4.710
33 PZ 233 3.733
33 PZ 234 3.245
33 PZ 235 2.757
33 PZ 236 3.245
33 PZ 237 3.245
33 PZ 238 3.245
33 PZ 239 3.245
33 PZ 240 1.780
33 PZ 241 1.292
33 PZ 242 0.315
33 PZ 243 0.315
33 PZ 244 0.804
33 PZ 245 1.780
33 PZ 246 3.245
33 PZ 247 4.222
33 PZ 248 4.222
33 PZ 249 4.222
33 PZ 250 3.245
33 PZ 251 2.268
33 PZ 252 1.292
33 PZ 253 0.804
33 PZ 254 1.292
33 PZ 255 1.780
# P8 chan 25
33 P8 0 -2.553
33 P8 1 -4.018
33 P8 2 -3.530
33 P8 3 -2.065
33 P8 4 -1.088
33 P8 5 0.376
33 P8 6 0.376
33 P8 7 0.865
33 P8 8 1.353
33 P8 9 2.330
33 P8 10 3.794
33 P8 11 4.771
33 P8 12 5.259
33 P8 13 4.771
33 P8 14 4.283
33 P8 15 4.771
33 P8 16 5.747
33 P8 17 6.236
33 P8 18 5.747
33 P8 19 4.283
33 P8 20 2.330
33 P8 21 0.376
33 P8 22 -0.600
33 P8 23 -1.088
33 P8 24 0.376
33 P8 25 2.330
33 P8 26 4.283
33 P8 27 5.259
33 P8 28 4.771
33 P8 29 2.818
33 P8 30 0.376
33 P8 31 -0.600
33 P8 32 -1.088
33 P8 33 -0.600
33 P8 34 -0.112
33 P8 35 -0.600
33 P8 36 -0.600
33 P8 37 -0.600
33 P8 38 -0.112
33 P8 39 -0.600
33 P8 40 -1.088
33 P8 41 -2.553
33 P8 42 -4.506
33 P8 43 -5.483
33 P8 44 -5.483
33 P8 45 -4.506
33 P8 46 -3.530
33 P8 47 -2.553
33 P8 48 -0.600
33 P8 49 1.841
33 P8 50 5.259
33 P8 51 7.701
33 P8 52 9.165
33 P8 53 9.165
33 P8 54 8.677
33 P8 55 8.677
33 P8 56 9.654
33 P8 57 11.119
33 P8 58 12.095
33 P8 59 11.607
33 P8 60 11.607
33 P8 61 12.095
33 P8 62 13.072
33 P8 63 14.048
33 P8 64 14.537
33 P8 65 14.048
33 P8 66 12.583
33 P8 67 11.607
33 P8 68 12.583
33 P8 69 14.048
33 P8 70 16.490
33 P8 71 18.443
33 P8 72 19.419
33 P8 73 19.419
33 P8 74 17.955
33 P8 75 16.001
33 P8 76 13.072
33 P8 77 10.630
33 P8 78 8.677
33 P8 79 7.701
33 P8 80 7.212
33 P8 81 6.724
33 P8 82 6.236
33 P8 83 4.283
33 P8 84 2.330
33 P8 85 1.353
33 P8 86 1.841
33 P8 87 3.306
33 P8 88 3.794
33 P8 89 3.306
33 P8 90 1.353
33 P8 91 -0.112
33 P8 92 -0.112
33 P8 93 1.841
33 P8 94 4.771
33 P8 95 7.212
33 P8 96 7.701
33 P8 97 6.724
33 P8 98 5.259
33 P8 99 4.771
33 P8 100 5.747
33 P8 101 7.212
33 P8 102 8.189
33 P8 103 7.701
33 P8 104 7.212
33 P8 105 6.724
33 P8 106 7.212
33 P8 107 7.701
33 P8 108 8.677
33 P8 109 8.677
33 P8 110 9.165
33 P8 111 9.165
33 P8 112 9.165
33 P8 113 9.654
33 P8 114 10.142
33 P8 115 9.654
33 P8 116 8.677
33 P8 117 7.701
33 P8 118 7.701
33 P8 119 7.212
33 P8 120 7.212
33 P8 121 6.236
33 P8 122 5.747
33 P8 123 5.259
33 P8 124 5.747
33 P8 125 6.236
33 P8 126 6.236
33 P8 127 5.259
33 P8 128 4.771
33 P8 129 4.283
33 P8 130 4.283
33 P8 131 4.771
33 P8 132 5.747
33 P8 133 6.236
33 P8 134 6.236
33 P8 135 4.771
33 P8 136 3.306
33 P8 137 1.841
33 P8 138 0.865
33 P8 139 -0.112
33 P8 140 -0.600
33 P8 141 -0.112
33 P8 142 0.376
33 P8 143 2.330
33 P8 144 4.771
33 P8 145 7.212
33 P8 146 8.189
33 P8 147 7.701
33 P8 148 6.236
33 P8 149 5.747
33 P8 150 6.724
33 P8 151 8.677
33 P8 152 11.607
33 P8 153 13.072
33 P8 154 12.583
33 P8 155 10.142
33 P8 156 8.189
33 P8 157 6.724
33 P8 158 6.236
33 P8 159 6.236
33 P8 160 6.236
33 P8 161 5.259
33 P8 162 4.771
33 P8 163 4.283
33 P8 164 4.283
33 P8 165 4.771
33 P8 166 5.259
33 P8 167 5.747
33 P8 168 6.236
33 P8 169 6.724
33 P8 170 6.236
33 P8 171 5.259
33 P8 172 2.818
33 P8 173 1.353
33 P8 174 0.865
33 P8 175 2.330
33 P8 176 4.283
33 P8 177 6.236
33 P8 178 5.747
33 P8 179 4.283
33 P8 180 1.841
33 P8 181 0.865
33 P8 182 1.353
33 P8 183 3.306
33 P8 184 4.771
33 P8 185 5.747
33 P8 186 5.747
33 P8 187 5.259
33 P8 188 4.771
33 P8 189 5.259
33 P8 190 6.236
33 P8 191 6.724
33 P8 192 7.701
33 P8 193 7.701
33 P8 194 8.189
33 P8 195 9.165
33 P8 196 10.142
33 P8 197 11.119
33 P8 198 11.119
33 P8 199 11.119
33 P8 200 10.630
33 P8 201 10.142
33 P8 202 9.165
33 P8 203 9.165
33 P8 204 8.677
33 P8 205 9.165
33 P8 206 9.654
33 P8 207 9.654
33 P8 208 9.165
33 P8 209 8.677
33 P8 210 8.189
33 P8 211 8.189
33 P8 212 9.165
33 P8 213 10.630
33 P8 214 13.072
33 P8 215 14.048
33 P8 216 14.048
33 P8 217 12.583
33 P8 218 11.119
33 P8 219 10.630
33 P8 220 10.630
33 P8 221 11.119
33 P8 222 11.607
33 P8 223 12.095
33 P8 224 13.072
33 P8 225 14.048
33 P8 226 16.001
33 P8 227 16.978
33 P8 228 16.978
33 P8 229 15.025
33 P8 230 13.072
33 P8 231 11.607
33 P8 232 11.119
33 P8 233 12.095
33 P8 234 13.560
33 P8 235 13.072
33 P8 236 11.119
33 P8 237 8.189
33 P8 238 6.724
33 P8 239 6.724
33 P8 240 7.212
33 P8 241 8.189
33 P8 242 8.189
33 P8 243 7.701
33 P8 244 7.212
33 P8 245 7.212
33 P8 246 8.677
33 P8 247 10.142
33 P8 248 10.630
33 P8 249 10.630
33 P8 250 10.142
33 P8 251 9.654
33 P8 252 10.630
33 P8 253 11.607
33 P8 254 12.095
33 P8 255 11.119
# P7 chan 26
33 P7 0 4.506
33 P7 1 2.065
33 P7 2 1.088
33 P7 3 1.577
33 P7 4 2.065
33 P7 5 2.065
33 P7 6 1.088
33 P7 7 -0.865
33 P7 8 -3.794
33 P7 9 -5.259
33 P7 10 -6.236
33 P7 11 -6.236
33 P7 12 -5.259
33 P7 13 -4.771
33 P7 14 -4.283
33 P7 15 -3.794
33 P7 16 -4.283
33 P7 17 -4.283
33 P7 18 -5.259
33 P7 19 -5.259
33 P7 20 -5.747
33 P7 21 -5.259
33 P7 22 -4.771
33 P7 23 -4.283
33 P7 24 -3.794
33 P7 25 -3.794
33 P7 26 -3.794
33 P7 27 -4.771
33 P7 28 -5.747
33 P7 29 -6.724
33 P7 30 -7.212
33 P7 31 -7.212
33 P7 32 -7.701
33 P7 33 -7.701
33 P7 34 -8.677
33 P7 35 -9.165
33 P7 36 -7.701
33 P7 37 -5.747
33 P7 38 -2.818
33 P7 39 -0.865
33 P7 40 -0.376
33 P7 41 -1.841
33 P7 42 -3.306
33 P7 43 -4.771
33 P7 44 -4.771
33 P7 45 -4.771
33 P7 46 -4.771
33 P7 47 -5.259
33 P7 48 -6.236
33 P7 49 -5.747
33 P7 50 -5.259
33 P7 51 -3.306
33 P7 52 -1.841
33 P7 53 -0.865
33 P7 54 -0.376
33 P7 55 0.112
33 P7 56 1.088
33 P7 57 2.065
33 P7 58 3.530
33 P7 59 4.018
33 P7 60 4.995
33 P7 61 5.971
33 P7 62 6.948
33 P7 63 6.948
33 P7 64 6.948
33 P7 65 6.460
33 P7 66 5.483
33 P7 67 4.506
33 P7 68 4.506
33 P7 69 5.483
33 P7 70 6.948
33 P7 71 8.413
33 P7 72 8.901
33 P7 73 8.901
33 P7 74 7.436
33 P7 75 5.971
33 P7 76 4.018
33 P7 77 2.553
33 P7 78 1.577
33 P7 79 1.577
33 P7 80 3.042
33 P7 81 4.018
33 P7 82 4.506
33 P7 83 3.530
33 P7 84 1.577
33 P7 85 -0.376
33 P7 86 -0.376
33 P7 87 0.600
33 P7 88 3.042
33 P7 89 4.506
33 P7 90 4.995
33 P7 91 5.971
33 P7 92 7.436
33 P7 93 9.878
33 P7 94 12.319
33 P7 95 13.784
33 P7 96 10.366
33 P7 97 7.924
33 P7 98 2.065
33 P7 99 -2.330
33 P7 100 -4.771
33 P7 101 -3.794
33 P7 102 -0.865
33 P7 103 2.553
33 P7 104 4.506
33 P7 105 4.995
33 P7 106 4.018
33 P7 107 2.553
33 P7 108 2.065
33 P7 109 2.553
33 P7 110 3.042
33 P7 111 4.018
33 P7 112 4.018
33 P7 113 3.530
33 P7 114 3.042
33 P7 115 2.553
33 P7 116 2.553
33 P7 117 2.553
33 P7 118 2.065
33 P7 119 1.577
33 P7 120 0.112
33 P7 121 0.112
33 P7 122 0.112
33 P7 123 1.577
33 P7 124 2.553
33 P7 125 2.553
33 P7 126 2.553
33 P7 127 1.577
33 P7 128 1.088
33 P7 129 0.600
33 P7 130 1.577
33 P7 131 2.553
33 P7 132 3.042
33 P7 133 3.042
33 P7 134 3.042
33 P7 135 3.042
33 P7 136 3.530
33 P7 137 4.018
33 P7 138 4.995
33 P7 139 5.483
33 P7 140 5.971
33 P7 141 5.971
33 P7 142 6.460
33 P7 143 6.948
33 P7 144 7.436
33 P7 145 7.436
33 P7 146 6.460
33 P7 147 4.995
33 P7 148 4.506
33 P7 149 4.506
33 P7 150 5.971
33 P7 151 7.924
33 P7 152 8.901
33 P7 153 9.389
33 P7 154 7.924
33 P7 155 5.971
33 P7 156 4.018
33 P7 157 2.553
33 P7 158 1.577
33 P7 159 1.577
33 P7 160 2.065
33 P7 161 2.065
33 P7 162 1.577
33 P7 163 0.600
33 P7 164 -0.376
33 P7 165 -0.865
33 P7 166 -0.865
33 P7 167 -0.376
33 P7 168 -0.376
33 P7 169 -0.865
33 P7 170 -1.841
33 P7 171 -1.841
33 P7 172 -2.330
33 P7 173 -1.353
33 P7 174 -0.865
33 P7 175 -0.376
33 P7 176 -0.376
33 P7 177 -1.353
33 P7 178 -2.330
33 P7 179 -3.306
33 P7 180 -4.283
33 P7 181 -3.794
33 P7 182 -2.818
33 P7 183 -0.865
33 P7 184 0.600
33 P7 185 1.577
33 P7 186 1.577
33 P7 187 0.600
33 P7 188 -1.353
33 P7 189 -2.330
33 P7 190 -1.841
33 P7 191 -0.376
33 P7 192 1.088
33 P7 193 2.553
33 P7 194 3.530
33 P7 195 4.018
33 P7 196 4.506
33 P7 197 4.995
33 P7 198 5.971
33 P7 199 6.460
33 P7 200 6.460
33 P7 201 5.483
33 P7 202 4.995
33 P7 203 4.506
33 P7 204 5.483
33 P7 205 5.971
33 P7 206 6.948
33 P7 207 7.436
33 P7 208 7.924
33 P7 209 7.924
33 P7 210 7.924
33 P7 211 8.413
33 P7 212 7.924
33 P7 213 7.436
33 P7 214 5.971
33 P7 215 4.506
33 P7 216 2.553
33 P7 217 1.577
33 P7 218 1.577
33 P7 219 1.088
33 P7 220 1.088
33 P7 221 -0.376
33 P7 222 -0.865
33 P7 223 -0.865
33 P7 224 1.088
33 P7 225 3.530
33 P7 226 5.971
33 P7 227 7.436
33 P7 228 7.924
33 P7 229 6.948
33 P7 230 5.483
33 P7 231 4.995
33 P7 232 4.506
33 P7 233 4.018
33 P7 234 3.530
33 P7 235 3.042
33 P7 236 2.553
33 P7 237 2.553
33 P7 238 2.065
33 P7 239 2.553
33 P7 240 2.065
33 P7 241 2.065
33 P7 242 1.088
33 P7 243 0.600
33 P7 244 0.600
33 P7 245 1.088
33 P7 246 2.065
33 P7 247 2.553
33 P7 248 2.553
33 P7 249 2.553
33 P7 250 2.553
33 P7 251 2.065
33 P7 252 2.553
33 P7 253 3.530
33 P7 254 4.995
33 P7 255 5.971
# PO2 chan 27
33 PO2 0 -3.703
33 PO2 1 -4.191
33 PO2 2 -2.238
33 PO2 3 1.180
33 PO2 4 4.110
33 PO2 5 6.063
33 PO2 6 6.063
33 PO2 7 4.598
33 PO2 8 4.110
33 PO2 9 4.110
33 PO2 10 5.575
33 PO2 11 7.039
33 PO2 12 7.039
33 PO2 13 6.551
33 PO2 14 5.086
33 PO2 15 4.110
33 PO2 16 4.110
33 PO2 17 4.598
33 PO2 18 4.110
33 PO2 19 3.133
33 PO2 20 1.180
33 PO2 21 -0.285
33 PO2 22 -1.750
33 PO2 23 -2.726
33 PO2 24 -2.726
33 PO2 25 -2.238
33 PO2 26 -2.238
33 PO2 27 -1.750
33 PO2 28 -1.750
33 PO2 29 -1.750
33 PO2 30 -1.261
33 PO2 31 -0.285
33 PO2 32 0.692
33 PO2 33 1.668
33 PO2 34 1.180
33 PO2 35 0.692
33 PO2 36 0.203
33 PO2 37 0.203
33 PO2 38 1.180
33 PO2 39 2.157
33 PO2 40 2.157
33 PO2 41 0.692
33 PO2 42 -1.261
33 PO2 43 -2.726
33 PO2 44 -2.726
33 PO2 45 -2.238
33 PO2 46 -0.773
33 PO2 47 0.692
33 PO2 48 1.668
33 PO2 49 3.133
33 PO2 50 5.086
33 PO2 51 7.039
33 PO2 52 8.993
33 PO2 53 9.969
33 PO2 54 10.457
33 PO2 55 10.457
33 PO2 56 10.457
33 PO2 57 10.457
33 PO2 58 10.457
33 PO2 59 10.457
33 PO2 60 11.434
33 PO2 61 11.922
33 PO2 62 12.410
33 PO2 63 12.410
33 PO2 64 11.434
33 PO2 65 10.457
33 PO2 66 9.481
33 PO2 67 9.481
33 PO2 68 9.969
33 PO2 69 11.434
33 PO2 70 12.410
33 PO2 71 12.899
33 PO2 72 12.899
33 PO2 73 11.922
33 PO2 74 10.946
33 PO2 75 9.481
33 PO2 76 8.016
33 PO2 77 7.528
33 PO2 78 7.528
33 PO2 79 8.504
33 PO2 80 9.481
33 PO2 81 9.969
33 PO2 82 9.481
33 PO2 83 7.528
33 PO2 84 5.086
33 PO2 85 3.621
33 PO2 86 3.621
33 PO2 87 5.086
33 PO2 88 6.063
33 PO2 89 6.551
33 PO2 90 5.575
33 PO2 91 5.086
33 PO2 92 5.086
33 PO2 93 6.551
33 PO2 94 8.993
33 PO2 95 10.457
33 PO2 96 9.969
33 PO2 97 8.504
33 PO2 98 6.063
33 PO2 99 4.110
33 PO2 100 3.621
33 PO2 101 4.598
33 PO2 102 5.575
33 PO2 103 6.551
33 PO2 104 6.551
33 PO2 105 6.551
33 PO2 106 6.551
33 PO2 107 7.039
33 PO2 108 7.528
33 PO2 109 7.528
33 PO2 110 7.528
33 PO2 111 7.039
33 PO2 112 6.063
33 PO2 113 5.575
33 PO2 114 4.598
33 PO2 115 5.086
33 PO2 116 5.086
33 PO2 117 5.575
33 PO2 118 6.063
33 PO2 119 6.063
33 PO2 120 5.575
33 PO2 121 5.575
33 PO2 122 6.063
33 PO2 123 7.528
33 PO2 124 8.504
33 PO2 125 8.504
33 PO2 126 7.528
33 PO2 127 6.063
33 PO2 128 4.110
33 PO2 129 3.133
33 PO2 130 3.133
33 PO2 131 4.110
33 PO2 132 5.086
33 PO2 133 5.575
33 PO2 134 6.063
33 PO2 135 6.063
33 PO2 136 5.575
33 PO2 137 5.086
33 PO2 138 4.110
33 PO2 139 2.645
33 PO2 140 2.157
33 PO2 141 2.645
33 PO2 142 3.621
33 PO2 143 6.063
33 PO2 144 8.016
33 PO2 145 8.993
33 PO2 146 8.504
33 PO2 147 7.528
33 PO2 148 6.551
33 PO2 149 6.551
33 PO2 150 8.016
33 PO2 151 9.481
33 PO2 152 10.457
33 PO2 153 10.946
33 PO2 154 9.481
33 PO2 155 8.016
33 PO2 156 7.039
33 PO2 157 6.063
33 PO2 158 5.575
33 PO2 159 5.575
33 PO2 160 5.086
33 PO2 161 4.598
33 PO2 162 3.621
33 PO2 163 2.645
33 PO2 164 2.645
33 PO2 165 3.621
33 PO2 166 5.086
33 PO2 167 6.551
33 PO2 168 8.016
33 PO2 169 8.504
33 PO2 170 8.016
33 PO2 171 7.039
33 PO2 172 5.086
33 PO2 173 4.598
33 PO2 174 4.598
33 PO2 175 6.063
33 PO2 176 7.039
33 PO2 177 7.039
33 PO2 178 5.575
33 PO2 179 4.110
33 PO2 180 2.157
33 PO2 181 1.668
33 PO2 182 1.668
33 PO2 183 3.133
33 PO2 184 4.598
33 PO2 185 5.575
33 PO2 186 6.063
33 PO2 187 6.551
33 PO2 188 7.039
33 PO2 189 7.528
33 PO2 190 8.016
33 PO2 191 8.504
33 PO2 192 8.993
33 PO2 193 9.481
33 PO2 194 9.969
33 PO2 195 10.946
33 PO2 196 11.434
33 PO2 197 12.410
33 PO2 198 13.387
33 PO2 199 14.364
33 PO2 200 14.364
33 PO2 201 13.387
33 PO2 202 11.922
33 PO2 203 10.457
33 PO2 204 9.481
33 PO2 205 9.969
33 PO2 206 10.946
33 PO2 207 12.410
33 PO2 208 13.387
33 PO2 209 12.899
33 PO2 210 12.410
33 PO2 211 12.410
33 PO2 212 12.410
33 PO2 213 13.875
33 PO2 214 14.852
33 PO2 215 15.340
33 PO2 216 14.364
33 PO2 217 12.899
33 PO2 218 10.946
33 PO2 219 9.969
33 PO2 220 9.481
33 PO2 221 9.969
33 PO2 222 10.457
33 PO2 223 11.434
33 PO2 224 12.410
33 PO2 225 13.387
33 PO2 226 15.340
33 PO2 227 16.317
33 PO2 228 16.805
33 PO2 229 15.828
33 PO2 230 14.364
33 PO2 231 12.410
33 PO2 232 10.946
33 PO2 233 9.969
33 PO2 234 9.969
33 PO2 235 9.481
33 PO2 236 8.993
33 PO2 237 7.528
33 PO2 238 6.551
33 PO2 239 6.063
33 PO2 240 5.575
33 PO2 241 5.086
33 PO2 242 4.598
33 PO2 243 4.110
33 PO2 244 4.598
33 PO2 245 5.575
33 PO2 246 7.039
33 PO2 247 8.504
33 PO2 248 8.993
33 PO2 249 8.504
33 PO2 250 8.016
33 PO2 251 7.528
33 PO2 252 7.039
33 PO2 253 7.528
33 PO2 254 8.016
33 PO2 255 8.504
# PO1 chan 28
33 PO1 0 4.049
33 PO1 1 3.560
33 PO1 2 4.049
33 PO1 3 6.490
33 PO1 4 8.443
33 PO1 5 8.931
33 PO1 6 7.467
33 PO1 7 4.537
33 PO1 8 1.607
33 PO1 9 0.142
33 PO1 10 0.142
33 PO1 11 1.119
33 PO1 12 2.096
33 PO1 13 2.096
33 PO1 14 1.607
33 PO1 15 0.631
33 PO1 16 -0.346
33 PO1 17 -1.322
33 PO1 18 -1.811
33 PO1 19 -2.299
33 PO1 20 -2.299
33 PO1 21 -1.811
33 PO1 22 -0.834
33 PO1 23 -0.834
33 PO1 24 -0.834
33 PO1 25 -1.322
33 PO1 26 -1.811
33 PO1 27 -2.299
33 PO1 28 -2.299
33 PO1 29 -2.299
33 PO1 30 -1.322
33 PO1 31 -1.322
33 PO1 32 -1.811
33 PO1 33 -2.787
33 PO1 34 -4.252
33 PO1 35 -4.740
33 PO1 36 -4.252
33 PO1 37 -2.299
33 PO1 38 0.142
33 PO1 39 2.096
33 PO1 40 2.584
33 PO1 41 2.096
33 PO1 42 1.119
33 PO1 43 0.631
33 PO1 44 0.631
