# co2c0000395.rd
# 120 trials, 64 chans, 416 samples 368 post_stim samples
# 3.906000 msecs uV
# S1 obj , trial 48
# FP1 chan 0
48 FP1 0 1.933
48 FP1 1 2.421
48 FP1 2 3.886
48 FP1 3 5.351
48 FP1 4 6.816
48 FP1 5 6.327
48 FP1 6 4.374
48 FP1 7 3.398
48 FP1 8 3.886
48 FP1 9 4.862
48 FP1 10 5.839
48 FP1 11 5.351
48 FP1 12 3.398
48 FP1 13 1.444
48 FP1 14 0.468
48 FP1 15 1.933
48 FP1 16 3.886
48 FP1 17 4.862
48 FP1 18 3.886
48 FP1 19 1.444
48 FP1 20 -0.997
48 FP1 21 -0.997
48 FP1 22 0.956
48 FP1 23 4.862
48 FP1 24 7.304
48 FP1 25 8.769
48 FP1 26 7.792
48 FP1 27 5.839
48 FP1 28 3.886
48 FP1 29 2.421
48 FP1 30 1.444
48 FP1 31 0.956
48 FP1 32 0.956
48 FP1 33 0.468
48 FP1 34 0.468
48 FP1 35 -0.020
48 FP1 36 -0.997
48 FP1 37 -3.438
48 FP1 38 -6.856
48 FP1 39 -10.763
48 FP1 40 -14.181
48 FP1 41 -15.645
48 FP1 42 -16.134
48 FP1 43 -15.645
48 FP1 44 -15.157
48 FP1 45 -15.157
48 FP1 46 -14.669
48 FP1 47 -13.204
48 FP1 48 -10.763
48 FP1 49 -7.833
48 FP1 50 -5.391
48 FP1 51 -3.438
48 FP1 52 -2.462
48 FP1 53 -1.973
48 FP1 54 -1.485
48 FP1 55 -1.485
48 FP1 56 -1.973
48 FP1 57 -1.973
48 FP1 58 -1.485
48 FP1 59 -0.997
48 FP1 60 -0.020
48 FP1 61 0.956
48 FP1 62 1.933
48 FP1 63 2.421
48 FP1 64 2.909
48 FP1 65 2.421
48 FP1 66 1.444
48 FP1 67 -0.020
48 FP1 68 -0.020
48 FP1 69 0.468
48 FP1 70 0.956
48 FP1 71 0.468
48 FP1 72 -0.997
48 FP1 73 -3.438
48 FP1 74 -5.391
48 FP1 75 -5.391
48 FP1 76 -3.438
48 FP1 77 -0.997
48 FP1 78 0.468
48 FP1 79 0.468
48 FP1 80 -0.020
48 FP1 81 -0.997
48 FP1 82 -2.462
48 FP1 83 -4.415
48 FP1 84 -6.856
48 FP1 85 -9.298
48 FP1 86 -10.274
48 FP1 87 -9.298
48 FP1 88 -7.345
48 FP1 89 -5.391
48 FP1 90 -3.927
48 FP1 91 -3.438
48 FP1 92 -3.438
48 FP1 93 -3.438
48 FP1 94 -2.462
48 FP1 95 -2.462
48 FP1 96 -2.950
48 FP1 97 -3.927
48 FP1 98 -4.903
48 FP1 99 -5.391
48 FP1 100 -5.391
48 FP1 101 -5.391
48 FP1 102 -5.880
48 FP1 103 -6.368
48 FP1 104 -7.345
48 FP1 105 -8.321
48 FP1 106 -9.298
48 FP1 107 -10.274
48 FP1 108 -11.739
48 FP1 109 -12.227
48 FP1 110 -12.227
48 FP1 111 -11.251
48 FP1 112 -9.786
48 FP1 113 -8.809
48 FP1 114 -9.298
48 FP1 115 -10.274
48 FP1 116 -12.227
48 FP1 117 -12.716
48 FP1 118 -11.739
48 FP1 119 -9.298
48 FP1 120 -7.345
48 FP1 121 -5.880
48 FP1 122 -6.856
48 FP1 123 -8.809
48 FP1 124 -10.274
48 FP1 125 -11.251
48 FP1 126 -11.251
48 FP1 127 -12.227
48 FP1 128 -13.204
48 FP1 129 -14.669
48 FP1 130 -16.134
48 FP1 131 -15.645
48 FP1 132 -14.181
48 FP1 133 -12.716
48 FP1 134 -11.739
48 FP1 135 -11.739
48 FP1 136 -13.204
48 FP1 137 -14.181
48 FP1 138 -14.181
48 FP1 139 -14.181
48 FP1 140 -15.157
48 FP1 141 -16.134
48 FP1 142 -16.622
48 FP1 143 -16.134
48 FP1 144 -13.692
48 FP1 145 -9.786
48 FP1 146 -6.856
48 FP1 147 -5.880
48 FP1 148 -6.368
48 FP1 149 -8.809
48 FP1 150 -10.763
48 FP1 151 -11.739
48 FP1 152 -12.227
48 FP1 153 -12.227
48 FP1 154 -12.227
48 FP1 155 -11.739
48 FP1 156 -11.739
48 FP1 157 -11.251
48 FP1 158 -10.274
48 FP1 159 -10.274
48 FP1 160 -9.786
48 FP1 161 -9.786
48 FP1 162 -8.809
48 FP1 163 -7.345
48 FP1 164 -5.880
48 FP1 165 -4.903
48 FP1 166 -4.415
48 FP1 167 -4.415
48 FP1 168 -4.903
48 FP1 169 -5.880
48 FP1 170 -6.856
48 FP1 171 -7.345
48 FP1 172 -8.321
48 FP1 173 -8.321
48 FP1 174 -8.809
48 FP1 175 -9.298
48 FP1 176 -9.298
48 FP1 177 -9.298
48 FP1 178 -8.809
48 FP1 179 -8.321
48 FP1 180 -8.321
48 FP1 181 -8.809
48 FP1 182 -9.786
48 FP1 183 -10.763
48 FP1 184 -11.251
48 FP1 185 -10.763
48 FP1 186 -10.274
48 FP1 187 -10.274
48 FP1 188 -10.763
48 FP1 189 -12.227
48 FP1 190 -14.181
48 FP1 191 -15.157
48 FP1 192 -15.645
48 FP1 193 -14.669
48 FP1 194 -13.204
48 FP1 195 -12.227
48 FP1 196 -12.716
48 FP1 197 -14.181
48 FP1 198 -15.645
48 FP1 199 -16.134
48 FP1 200 -16.622
48 FP1 201 -16.622
48 FP1 202 -16.622
48 FP1 203 -16.622
48 FP1 204 -16.134
48 FP1 205 -15.157
48 FP1 206 -14.181
48 FP1 207 -13.692
48 FP1 208 -14.181
48 FP1 209 -15.645
48 FP1 210 -16.622
48 FP1 211 -16.622
48 FP1 212 -15.645
48 FP1 213 -13.692
48 FP1 214 -11.739
48 FP1 215 -11.739
48 FP1 216 -12.716
48 FP1 217 -14.181
48 FP1 218 -14.181
48 FP1 219 -14.181
48 FP1 220 -13.204
48 FP1 221 -11.251
48 FP1 222 -9.786
48 FP1 223 -8.321
48 FP1 224 -6.856
48 FP1 225 -6.368
48 FP1 226 -7.833
48 FP1 227 -9.786
48 FP1 228 -11.739
48 FP1 229 -11.739
48 FP1 230 -9.298
48 FP1 231 -6.856
48 FP1 232 -4.903
48 FP1 233 -5.391
48 FP1 234 -6.856
48 FP1 235 -9.298
48 FP1 236 -10.763
48 FP1 237 -10.763
48 FP1 238 -10.274
48 FP1 239 -9.298
48 FP1 240 -8.321
48 FP1 241 -6.856
48 FP1 242 -4.903
48 FP1 243 -2.950
48 FP1 244 -1.973
48 FP1 245 -1.973
48 FP1 246 -2.950
48 FP1 247 -3.438
48 FP1 248 -3.927
48 FP1 249 -3.927
48 FP1 250 -4.415
48 FP1 251 -6.856
48 FP1 252 -8.809
48 FP1 253 -10.274
48 FP1 254 -9.786
48 FP1 255 -8.809
# FP2 chan 1
48 FP2 0 3.265
48 FP2 1 2.289
48 FP2 2 1.801
48 FP2 3 2.289
48 FP2 4 3.265
48 FP2 5 4.242
48 FP2 6 4.242
48 FP2 7 4.242
48 FP2 8 3.754
48 FP2 9 3.754
48 FP2 10 2.777
48 FP2 11 1.312
48 FP2 12 -0.153
48 FP2 13 -1.129
48 FP2 14 -1.129
48 FP2 15 0.824
48 FP2 16 2.777
48 FP2 17 3.265
48 FP2 18 1.801
48 FP2 19 -0.641
48 FP2 20 -2.594
48 FP2 21 -2.594
48 FP2 22 -1.129
48 FP2 23 1.312
48 FP2 24 3.265
48 FP2 25 5.219
48 FP2 26 6.195
48 FP2 27 6.683
48 FP2 28 6.683
48 FP2 29 6.195
48 FP2 30 5.219
48 FP2 31 4.242
48 FP2 32 3.754
48 FP2 33 3.754
48 FP2 34 3.265
48 FP2 35 1.801
48 FP2 36 -0.153
48 FP2 37 -4.059
48 FP2 38 -8.453
48 FP2 39 -12.360
48 FP2 40 -15.289
48 FP2 41 -17.242
48 FP2 42 -18.707
48 FP2 43 -19.684
48 FP2 44 -19.196
48 FP2 45 -17.242
48 FP2 46 -13.824
48 FP2 47 -9.918
48 FP2 48 -6.500
48 FP2 49 -4.547
48 FP2 50 -3.571
48 FP2 51 -3.082
48 FP2 52 -2.106
48 FP2 53 -0.641
48 FP2 54 0.336
48 FP2 55 0.336
48 FP2 56 -0.641
48 FP2 57 -1.129
48 FP2 58 -1.129
48 FP2 59 -0.641
48 FP2 60 0.824
48 FP2 61 2.289
48 FP2 62 2.289
48 FP2 63 1.801
48 FP2 64 0.824
48 FP2 65 -0.641
48 FP2 66 -1.129
48 FP2 67 -1.129
48 FP2 68 -0.641
48 FP2 69 0.336
48 FP2 70 -0.153
48 FP2 71 -2.106
48 FP2 72 -4.547
48 FP2 73 -5.524
48 FP2 74 -5.524
48 FP2 75 -2.594
48 FP2 76 0.824
48 FP2 77 2.777
48 FP2 78 3.265
48 FP2 79 1.312
48 FP2 80 -1.617
48 FP2 81 -3.571
48 FP2 82 -5.524
48 FP2 83 -6.989
48 FP2 84 -7.477
48 FP2 85 -7.477
48 FP2 86 -6.012
48 FP2 87 -3.571
48 FP2 88 -1.617
48 FP2 89 -1.129
48 FP2 90 -1.617
48 FP2 91 -2.594
48 FP2 92 -2.594
48 FP2 93 -1.617
48 FP2 94 -0.153
48 FP2 95 -0.153
48 FP2 96 -1.129
48 FP2 97 -2.594
48 FP2 98 -3.571
48 FP2 99 -4.547
48 FP2 100 -4.059
48 FP2 101 -4.059
48 FP2 102 -5.035
48 FP2 103 -6.989
48 FP2 104 -8.453
48 FP2 105 -9.430
48 FP2 106 -9.918
48 FP2 107 -10.406
48 FP2 108 -10.895
48 FP2 109 -11.383
48 FP2 110 -11.383
48 FP2 111 -10.406
48 FP2 112 -8.942
48 FP2 113 -7.965
48 FP2 114 -8.453
48 FP2 115 -10.406
48 FP2 116 -11.871
48 FP2 117 -12.360
48 FP2 118 -11.383
48 FP2 119 -8.942
48 FP2 120 -6.989
48 FP2 121 -6.500
48 FP2 122 -7.477
48 FP2 123 -8.942
48 FP2 124 -10.406
48 FP2 125 -10.895
48 FP2 126 -10.895
48 FP2 127 -11.383
48 FP2 128 -12.360
48 FP2 129 -13.336
48 FP2 130 -14.313
48 FP2 131 -13.824
48 FP2 132 -12.848
48 FP2 133 -11.383
48 FP2 134 -10.406
48 FP2 135 -9.918
48 FP2 136 -10.406
48 FP2 137 -10.895
48 FP2 138 -11.871
48 FP2 139 -13.336
48 FP2 140 -14.313
48 FP2 141 -14.313
48 FP2 142 -13.824
48 FP2 143 -11.871
48 FP2 144 -9.430
48 FP2 145 -6.500
48 FP2 146 -5.035
48 FP2 147 -5.035
48 FP2 148 -6.012
48 FP2 149 -7.477
48 FP2 150 -7.965
48 FP2 151 -8.453
48 FP2 152 -8.453
48 FP2 153 -8.942
48 FP2 154 -9.430
48 FP2 155 -10.406
48 FP2 156 -10.406
48 FP2 157 -10.406
48 FP2 158 -9.918
48 FP2 159 -9.918
48 FP2 160 -9.430
48 FP2 161 -8.453
48 FP2 162 -6.989
48 FP2 163 -5.035
48 FP2 164 -3.082
48 FP2 165 -2.106
48 FP2 166 -2.106
48 FP2 167 -3.082
48 FP2 168 -5.035
48 FP2 169 -6.989
48 FP2 170 -8.453
48 FP2 171 -8.453
48 FP2 172 -8.453
48 FP2 173 -6.989
48 FP2 174 -6.500
48 FP2 175 -6.012
48 FP2 176 -6.500
48 FP2 177 -6.989
48 FP2 178 -6.989
48 FP2 179 -6.500
48 FP2 180 -6.500
48 FP2 181 -6.989
48 FP2 182 -7.965
48 FP2 183 -8.942
48 FP2 184 -9.430
48 FP2 185 -9.430
48 FP2 186 -9.430
48 FP2 187 -9.918
48 FP2 188 -10.895
48 FP2 189 -12.360
48 FP2 190 -13.336
48 FP2 191 -13.336
48 FP2 192 -13.336
48 FP2 193 -12.848
48 FP2 194 -12.360
48 FP2 195 -12.360
48 FP2 196 -12.848
48 FP2 197 -13.824
48 FP2 198 -14.313
48 FP2 199 -13.824
48 FP2 200 -12.848
48 FP2 201 -11.871
48 FP2 202 -11.383
48 FP2 203 -11.871
48 FP2 204 -12.848
48 FP2 205 -13.336
48 FP2 206 -13.824
48 FP2 207 -13.824
48 FP2 208 -13.824
48 FP2 209 -13.824
48 FP2 210 -14.313
48 FP2 211 -13.824
48 FP2 212 -13.336
48 FP2 213 -11.871
48 FP2 214 -11.383
48 FP2 215 -10.895
48 FP2 216 -11.383
48 FP2 217 -12.360
48 FP2 218 -12.848
48 FP2 219 -12.360
48 FP2 220 -10.895
48 FP2 221 -9.430
48 FP2 222 -7.965
48 FP2 223 -6.500
48 FP2 224 -6.012
48 FP2 225 -6.500
48 FP2 226 -7.477
48 FP2 227 -9.918
48 FP2 228 -10.895
48 FP2 229 -11.383
48 FP2 230 -9.430
48 FP2 231 -6.989
48 FP2 232 -5.035
48 FP2 233 -4.547
48 FP2 234 -6.012
48 FP2 235 -8.453
48 FP2 236 -10.895
48 FP2 237 -12.848
48 FP2 238 -13.336
48 FP2 239 -12.848
48 FP2 240 -11.383
48 FP2 241 -9.430
48 FP2 242 -6.989
48 FP2 243 -4.547
48 FP2 244 -3.082
48 FP2 245 -2.594
48 FP2 246 -2.594
48 FP2 247 -2.594
48 FP2 248 -3.082
48 FP2 249 -4.547
48 FP2 250 -6.989
48 FP2 251 -9.918
48 FP2 252 -12.360
48 FP2 253 -12.848
48 FP2 254 -11.383
48 FP2 255 -8.942
# F7 chan 2
48 F7 0 -3.103
48 F7 1 -4.567
48 F7 2 -2.614
48 F7 3 1.780
48 F7 4 4.710
48 F7 5 4.222
48 F7 6 1.780
48 F7 7 -0.661
48 F7 8 -0.173
48 F7 9 2.757
48 F7 10 5.686
48 F7 11 6.175
48 F7 12 3.733
48 F7 13 -0.173
48 F7 14 -1.638
48 F7 15 -0.661
48 F7 16 2.268
48 F7 17 4.710
48 F7 18 4.710
48 F7 19 2.757
48 F7 20 0.315
48 F7 21 0.315
48 F7 22 2.268
48 F7 23 4.710
48 F7 24 6.663
48 F7 25 6.175
48 F7 26 5.198
48 F7 27 3.733
48 F7 28 2.268
48 F7 29 0.804
48 F7 30 -0.661
48 F7 31 -1.638
48 F7 32 -2.614
48 F7 33 -2.614
48 F7 34 -2.126
48 F7 35 -2.126
48 F7 36 -2.614
48 F7 37 -4.079
48 F7 38 -6.521
48 F7 39 -8.962
48 F7 40 -11.892
48 F7 41 -13.845
48 F7 42 -15.310
48 F7 43 -16.286
48 F7 44 -15.798
48 F7 45 -14.821
48 F7 46 -13.845
48 F7 47 -11.892
48 F7 48 -9.939
48 F7 49 -7.497
48 F7 50 -6.032
48 F7 51 -4.567
48 F7 52 -4.567
48 F7 53 -5.544
48 F7 54 -6.521
48 F7 55 -6.521
48 F7 56 -5.544
48 F7 57 -3.591
48 F7 58 -2.126
48 F7 59 -1.149
48 F7 60 -1.149
48 F7 61 -1.638
48 F7 62 -2.126
48 F7 63 -2.126
48 F7 64 -2.126
48 F7 65 -1.638
48 F7 66 -0.661
48 F7 67 0.315
48 F7 68 1.780
48 F7 69 2.757
48 F7 70 2.268
48 F7 71 1.292
48 F7 72 -0.661
48 F7 73 -2.126
48 F7 74 -3.103
48 F7 75 -2.614
48 F7 76 -1.638
48 F7 77 -0.173
48 F7 78 1.780
48 F7 79 2.757
48 F7 80 2.757
48 F7 81 1.780
48 F7 82 -0.661
48 F7 83 -3.591
48 F7 84 -6.521
48 F7 85 -8.474
48 F7 86 -8.474
48 F7 87 -7.009
48 F7 88 -5.544
48 F7 89 -5.056
48 F7 90 -6.032
48 F7 91 -6.521
48 F7 92 -6.521
48 F7 93 -5.056
48 F7 94 -3.591
48 F7 95 -2.614
48 F7 96 -3.103
48 F7 97 -5.056
48 F7 98 -7.009
48 F7 99 -7.985
48 F7 100 -8.474
48 F7 101 -7.985
48 F7 102 -7.497
48 F7 103 -7.009
48 F7 104 -7.009
48 F7 105 -6.032
48 F7 106 -6.521
48 F7 107 -7.497
48 F7 108 -8.962
48 F7 109 -10.915
48 F7 110 -11.892
48 F7 111 -10.915
48 F7 112 -8.962
48 F7 113 -6.521
48 F7 114 -6.032
48 F7 115 -7.009
48 F7 116 -8.962
48 F7 117 -10.427
48 F7 118 -9.450
48 F7 119 -7.497
48 F7 120 -5.544
48 F7 121 -4.079
48 F7 122 -4.567
48 F7 123 -6.032
48 F7 124 -7.009
48 F7 125 -7.985
48 F7 126 -8.962
48 F7 127 -10.915
48 F7 128 -13.845
48 F7 129 -16.286
48 F7 130 -17.751
48 F7 131 -17.751
48 F7 132 -16.774
48 F7 133 -15.798
48 F7 134 -15.798
48 F7 135 -15.798
48 F7 136 -15.798
48 F7 137 -15.310
48 F7 138 -14.821
48 F7 139 -14.333
48 F7 140 -14.333
48 F7 141 -14.333
48 F7 142 -13.357
48 F7 143 -11.403
48 F7 144 -9.450
48 F7 145 -7.985
48 F7 146 -6.521
48 F7 147 -6.521
48 F7 148 -6.521
48 F7 149 -7.009
48 F7 150 -7.497
48 F7 151 -8.474
48 F7 152 -9.450
48 F7 153 -10.427
48 F7 154 -11.403
48 F7 155 -11.892
48 F7 156 -12.380
48 F7 157 -12.868
48 F7 158 -12.380
48 F7 159 -10.915
48 F7 160 -9.450
48 F7 161 -7.497
48 F7 162 -7.009
48 F7 163 -6.521
48 F7 164 -6.521
48 F7 165 -6.521
48 F7 166 -5.544
48 F7 167 -4.567
48 F7 168 -4.079
48 F7 169 -4.567
48 F7 170 -5.056
48 F7 171 -5.544
48 F7 172 -5.544
48 F7 173 -6.032
48 F7 174 -7.009
48 F7 175 -8.474
48 F7 176 -9.939
48 F7 177 -10.427
48 F7 178 -9.939
48 F7 179 -9.450
48 F7 180 -8.474
48 F7 181 -8.962
48 F7 182 -9.450
48 F7 183 -9.939
48 F7 184 -9.939
48 F7 185 -9.450
48 F7 186 -9.939
48 F7 187 -11.403
48 F7 188 -13.357
48 F7 189 -15.310
48 F7 190 -15.798
48 F7 191 -15.798
48 F7 192 -14.333
48 F7 193 -12.380
48 F7 194 -10.915
48 F7 195 -10.427
48 F7 196 -10.915
48 F7 197 -11.892
48 F7 198 -12.868
48 F7 199 -13.357
48 F7 200 -12.868
48 F7 201 -12.380
48 F7 202 -11.892
48 F7 203 -11.403
48 F7 204 -11.403
48 F7 205 -10.915
48 F7 206 -10.427
48 F7 207 -9.939
48 F7 208 -9.939
48 F7 209 -10.427
48 F7 210 -10.915
48 F7 211 -9.939
48 F7 212 -8.962
48 F7 213 -7.497
48 F7 214 -7.009
48 F7 215 -7.009
48 F7 216 -7.497
48 F7 217 -8.474
48 F7 218 -8.962
48 F7 219 -8.474
48 F7 220 -7.497
48 F7 221 -6.032
48 F7 222 -5.056
48 F7 223 -3.591
48 F7 224 -2.614
48 F7 225 -2.614
48 F7 226 -3.591
48 F7 227 -5.056
48 F7 228 -6.521
48 F7 229 -6.521
48 F7 230 -4.567
48 F7 231 -2.126
48 F7 232 -0.173
48 F7 233 -0.173
48 F7 234 -1.638
48 F7 235 -3.103
48 F7 236 -3.591
48 F7 237 -3.103
48 F7 238 -2.126
48 F7 239 -1.638
48 F7 240 -1.638
48 F7 241 -2.614
48 F7 242 -3.103
48 F7 243 -2.126
48 F7 244 -2.126
48 F7 245 -1.638
48 F7 246 -1.149
48 F7 247 -0.661
48 F7 248 -0.173
48 F7 249 -0.173
48 F7 250 -1.149
48 F7 251 -3.591
48 F7 252 -5.544
48 F7 253 -6.032
48 F7 254 -4.567
48 F7 255 -2.614
# F8 chan 3
48 F8 0 1.261
48 F8 1 1.750
48 F8 2 1.261
48 F8 3 0.285
48 F8 4 -1.180
48 F8 5 -1.668
48 F8 6 -1.180
48 F8 7 -0.203
48 F8 8 0.285
48 F8 9 -0.203
48 F8 10 -1.668
48 F8 11 -3.621
48 F8 12 -4.598
48 F8 13 -5.086
48 F8 14 -4.598
48 F8 15 -3.621
48 F8 16 -2.645
48 F8 17 -2.157
48 F8 18 -2.645
48 F8 19 -4.110
48 F8 20 -6.063
48 F8 21 -7.528
48 F8 22 -8.016
48 F8 23 -7.039
48 F8 24 -4.598
48 F8 25 -1.668
48 F8 26 0.285
48 F8 27 1.750
48 F8 28 1.750
48 F8 29 1.261
48 F8 30 0.773
48 F8 31 0.285
48 F8 32 -0.203
48 F8 33 -0.692
48 F8 34 -1.668
48 F8 35 -3.621
48 F8 36 -6.063
48 F8 37 -8.504
48 F8 38 -10.457
48 F8 39 -12.410
48 F8 40 -15.340
48 F8 41 -17.782
48 F8 42 -20.223
48 F8 43 -20.223
48 F8 44 -18.758
48 F8 45 -14.852
48 F8 46 -10.946
48 F8 47 -7.528
48 F8 48 -6.551
48 F8 49 -6.551
48 F8 50 -7.039
48 F8 51 -6.551
48 F8 52 -5.086
48 F8 53 -4.110
48 F8 54 -4.110
48 F8 55 -5.086
48 F8 56 -6.063
48 F8 57 -6.063
48 F8 58 -5.575
48 F8 59 -4.598
48 F8 60 -4.110
48 F8 61 -3.133
48 F8 62 -2.645
48 F8 63 -1.668
48 F8 64 -1.180
48 F8 65 -1.180
48 F8 66 -2.157
48 F8 67 -2.645
48 F8 68 -3.621
48 F8 69 -4.110
48 F8 70 -4.598
48 F8 71 -6.063
48 F8 72 -8.016
48 F8 73 -8.993
48 F8 74 -7.528
48 F8 75 -4.110
48 F8 76 -0.203
48 F8 77 2.238
48 F8 78 1.750
48 F8 79 -1.668
48 F8 80 -5.575
48 F8 81 -8.504
48 F8 82 -8.993
48 F8 83 -7.528
48 F8 84 -4.598
48 F8 85 -2.157
48 F8 86 -0.692
48 F8 87 0.285
48 F8 88 0.285
48 F8 89 0.285
48 F8 90 -0.203
48 F8 91 -1.180
48 F8 92 -1.668
48 F8 93 -2.157
48 F8 94 -2.157
48 F8 95 -2.157
48 F8 96 -2.645
48 F8 97 -3.621
48 F8 98 -4.598
48 F8 99 -5.086
48 F8 100 -5.575
48 F8 101 -5.086
48 F8 102 -6.063
48 F8 103 -7.039
48 F8 104 -7.528
48 F8 105 -8.016
48 F8 106 -7.528
48 F8 107 -7.039
48 F8 108 -6.551
48 F8 109 -5.575
48 F8 110 -5.575
48 F8 111 -5.575
48 F8 112 -5.575
48 F8 113 -6.063
48 F8 114 -7.039
48 F8 115 -8.504
48 F8 116 -9.481
48 F8 117 -9.481
48 F8 118 -7.039
48 F8 119 -3.621
48 F8 120 -0.203
48 F8 121 2.238
48 F8 122 2.238
48 F8 123 0.285
48 F8 124 -2.157
48 F8 125 -4.110
48 F8 126 -5.086
48 F8 127 -5.575
48 F8 128 -5.575
48 F8 129 -5.575
48 F8 130 -5.575
48 F8 131 -5.086
48 F8 132 -4.598
48 F8 133 -4.110
48 F8 134 -3.621
48 F8 135 -4.110
48 F8 136 -4.598
48 F8 137 -5.575
48 F8 138 -6.063
48 F8 139 -6.551
48 F8 140 -7.039
48 F8 141 -6.551
48 F8 142 -5.575
48 F8 143 -3.133
48 F8 144 -1.180
48 F8 145 1.261
48 F8 146 1.750
48 F8 147 0.773
48 F8 148 -1.180
48 F8 149 -2.157
48 F8 150 -2.157
48 F8 151 -1.180
48 F8 152 -0.203
48 F8 153 -0.203
48 F8 154 -1.668
48 F8 155 -3.133
48 F8 156 -4.598
48 F8 157 -5.575
48 F8 158 -5.575
48 F8 159 -5.086
48 F8 160 -4.110
48 F8 161 -3.133
48 F8 162 -0.692
48 F8 163 1.750
48 F8 164 3.703
48 F8 165 5.168
48 F8 166 4.679
48 F8 167 3.215
48 F8 168 2.238
48 F8 169 1.750
48 F8 170 1.261
48 F8 171 1.261
48 F8 172 -0.203
48 F8 173 -1.668
48 F8 174 -3.133
48 F8 175 -3.133
48 F8 176 -1.668
48 F8 177 -0.203
48 F8 178 1.261
48 F8 179 0.773
48 F8 180 -0.692
48 F8 181 -3.133
48 F8 182 -5.086
48 F8 183 -6.063
48 F8 184 -5.575
48 F8 185 -4.598
48 F8 186 -3.621
48 F8 187 -3.621
48 F8 188 -4.598
48 F8 189 -6.063
48 F8 190 -6.063
48 F8 191 -5.575
48 F8 192 -4.110
48 F8 193 -3.133
48 F8 194 -3.133
48 F8 195 -4.110
48 F8 196 -5.086
48 F8 197 -6.063
48 F8 198 -6.063
48 F8 199 -5.575
48 F8 200 -4.110
48 F8 201 -2.645
48 F8 202 -2.157
48 F8 203 -2.157
48 F8 204 -3.133
48 F8 205 -4.598
48 F8 206 -5.575
48 F8 207 -6.063
48 F8 208 -5.575
48 F8 209 -5.575
48 F8 210 -5.086
48 F8 211 -5.086
48 F8 212 -5.086
48 F8 213 -5.086
48 F8 214 -5.086
48 F8 215 -5.086
48 F8 216 -5.086
48 F8 217 -5.575
48 F8 218 -5.575
48 F8 219 -5.575
48 F8 220 -4.598
48 F8 221 -2.645
48 F8 222 -0.692
48 F8 223 0.773
48 F8 224 1.261
48 F8 225 0.285
48 F8 226 -1.180
48 F8 227 -3.133
48 F8 228 -4.110
48 F8 229 -4.110
48 F8 230 -3.133
48 F8 231 -1.668
48 F8 232 -0.692
48 F8 233 -0.203
48 F8 234 -1.180
48 F8 235 -3.133
48 F8 236 -6.551
48 F8 237 -9.969
48 F8 238 -12.410
48 F8 239 -12.899
48 F8 240 -10.457
48 F8 241 -6.551
48 F8 242 -2.645
48 F8 243 0.285
48 F8 244 1.261
48 F8 245 1.261
48 F8 246 0.773
48 F8 247 0.773
48 F8 248 0.285
48 F8 249 -1.180
48 F8 250 -3.621
48 F8 251 -6.063
48 F8 252 -7.528
48 F8 253 -7.528
48 F8 254 -6.551
48 F8 255 -5.086
# AF1 chan 4
48 AF1 0 -0.478
48 AF1 1 -0.966
48 AF1 2 -0.966
48 AF1 3 -0.966
48 AF1 4 -0.478
48 AF1 5 -0.966
48 AF1 6 -0.966
48 AF1 7 -1.455
48 AF1 8 -0.966
48 AF1 9 -0.478
48 AF1 10 0.010
48 AF1 11 0.010
48 AF1 12 -0.478
48 AF1 13 -0.478
48 AF1 14 -0.478
48 AF1 15 0.010
48 AF1 16 1.475
48 AF1 17 2.452
48 AF1 18 1.963
48 AF1 19 0.987
48 AF1 20 0.010
48 AF1 21 0.498
48 AF1 22 1.475
48 AF1 23 4.405
48 AF1 24 6.358
48 AF1 25 7.334
48 AF1 26 6.846
48 AF1 27 5.870
48 AF1 28 3.916
48 AF1 29 2.940
48 AF1 30 1.963
48 AF1 31 1.475
48 AF1 32 0.987
48 AF1 33 0.498
48 AF1 34 0.498
48 AF1 35 -0.478
48 AF1 36 -1.455
48 AF1 37 -2.920
48 AF1 38 -5.361
48 AF1 39 -8.291
48 AF1 40 -11.220
48 AF1 41 -13.173
48 AF1 42 -14.150
48 AF1 43 -14.638
48 AF1 44 -14.150
48 AF1 45 -13.173
48 AF1 46 -11.220
48 AF1 47 -9.755
48 AF1 48 -7.802
48 AF1 49 -6.337
48 AF1 50 -4.873
48 AF1 51 -3.408
48 AF1 52 -2.431
48 AF1 53 -1.943
48 AF1 54 -1.455
48 AF1 55 -1.455
48 AF1 56 -1.455
48 AF1 57 -0.966
48 AF1 58 -0.478
48 AF1 59 0.498
48 AF1 60 1.475
48 AF1 61 1.475
48 AF1 62 1.475
48 AF1 63 1.475
48 AF1 64 0.987
48 AF1 65 0.987
48 AF1 66 0.987
48 AF1 67 1.475
48 AF1 68 1.963
48 AF1 69 1.963
48 AF1 70 1.475
48 AF1 71 -0.478
48 AF1 72 -2.920
48 AF1 73 -4.384
48 AF1 74 -4.384
48 AF1 75 -2.920
48 AF1 76 -0.478
48 AF1 77 1.475
48 AF1 78 2.452
48 AF1 79 2.452
48 AF1 80 1.475
48 AF1 81 0.010
48 AF1 82 -2.431
48 AF1 83 -4.873
48 AF1 84 -6.337
48 AF1 85 -6.826
48 AF1 86 -5.849
48 AF1 87 -4.384
48 AF1 88 -3.408
48 AF1 89 -2.920
48 AF1 90 -2.920
48 AF1 91 -2.920
48 AF1 92 -1.943
48 AF1 93 -0.478
48 AF1 94 0.010
48 AF1 95 0.498
48 AF1 96 0.010
48 AF1 97 -0.966
48 AF1 98 -0.966
48 AF1 99 -0.478
48 AF1 100 -0.478
48 AF1 101 -0.966
48 AF1 102 -1.943
48 AF1 103 -3.408
48 AF1 104 -4.384
48 AF1 105 -5.361
48 AF1 106 -5.849
48 AF1 107 -7.314
48 AF1 108 -8.779
48 AF1 109 -10.244
48 AF1 110 -10.244
48 AF1 111 -9.267
48 AF1 112 -6.826
48 AF1 113 -5.361
48 AF1 114 -5.361
48 AF1 115 -6.337
48 AF1 116 -8.291
48 AF1 117 -8.779
48 AF1 118 -8.779
48 AF1 119 -7.314
48 AF1 120 -6.826
48 AF1 121 -6.826
48 AF1 122 -7.802
48 AF1 123 -8.291
48 AF1 124 -8.291
48 AF1 125 -7.802
48 AF1 126 -7.314
48 AF1 127 -7.802
48 AF1 128 -8.779
48 AF1 129 -10.244
48 AF1 130 -11.220
48 AF1 131 -11.709
48 AF1 132 -11.709
48 AF1 133 -11.220
48 AF1 134 -10.732
48 AF1 135 -10.244
48 AF1 136 -10.244
48 AF1 137 -10.244
48 AF1 138 -10.732
48 AF1 139 -11.709
48 AF1 140 -12.685
48 AF1 141 -13.173
48 AF1 142 -12.685
48 AF1 143 -10.732
48 AF1 144 -9.267
48 AF1 145 -8.291
48 AF1 146 -7.802
48 AF1 147 -8.291
48 AF1 148 -8.291
48 AF1 149 -8.291
48 AF1 150 -8.291
48 AF1 151 -8.291
48 AF1 152 -8.779
48 AF1 153 -9.267
48 AF1 154 -10.244
48 AF1 155 -11.220
48 AF1 156 -11.220
48 AF1 157 -10.732
48 AF1 158 -9.755
48 AF1 159 -8.291
48 AF1 160 -6.826
48 AF1 161 -5.849
48 AF1 162 -4.873
48 AF1 163 -3.896
48 AF1 164 -3.896
48 AF1 165 -3.408
48 AF1 166 -3.408
48 AF1 167 -3.896
48 AF1 168 -4.384
48 AF1 169 -5.361
48 AF1 170 -6.337
48 AF1 171 -6.826
48 AF1 172 -7.314
48 AF1 173 -7.802
48 AF1 174 -7.802
48 AF1 175 -7.314
48 AF1 176 -7.314
48 AF1 177 -7.314
48 AF1 178 -7.802
48 AF1 179 -7.802
48 AF1 180 -7.802
48 AF1 181 -7.314
48 AF1 182 -6.826
48 AF1 183 -6.337
48 AF1 184 -6.337
48 AF1 185 -6.826
48 AF1 186 -7.802
48 AF1 187 -9.267
48 AF1 188 -11.220
48 AF1 189 -12.685
48 AF1 190 -13.662
48 AF1 191 -13.662
48 AF1 192 -13.662
48 AF1 193 -12.685
48 AF1 194 -11.709
48 AF1 195 -11.220
48 AF1 196 -11.220
48 AF1 197 -12.197
48 AF1 198 -13.173
48 AF1 199 -13.662
48 AF1 200 -13.173
48 AF1 201 -13.173
48 AF1 202 -12.685
48 AF1 203 -12.685
48 AF1 204 -12.685
48 AF1 205 -13.173
48 AF1 206 -12.685
48 AF1 207 -12.685
48 AF1 208 -13.173
48 AF1 209 -13.662
48 AF1 210 -13.662
48 AF1 211 -13.662
48 AF1 212 -12.685
48 AF1 213 -11.709
48 AF1 214 -10.732
48 AF1 215 -10.732
48 AF1 216 -11.220
48 AF1 217 -12.685
48 AF1 218 -12.685
48 AF1 219 -12.197
48 AF1 220 -11.220
48 AF1 221 -9.755
48 AF1 222 -8.779
48 AF1 223 -7.802
48 AF1 224 -7.314
48 AF1 225 -7.314
48 AF1 226 -7.802
48 AF1 227 -8.779
48 AF1 228 -9.267
48 AF1 229 -9.267
48 AF1 230 -8.291
48 AF1 231 -6.826
48 AF1 232 -6.337
48 AF1 233 -6.826
48 AF1 234 -7.802
48 AF1 235 -8.779
48 AF1 236 -9.267
48 AF1 237 -8.779
48 AF1 238 -8.291
48 AF1 239 -7.802
48 AF1 240 -6.826
48 AF1 241 -5.849
48 AF1 242 -4.873
48 AF1 243 -3.408
48 AF1 244 -2.431
48 AF1 245 -1.455
48 AF1 246 -0.966
48 AF1 247 -0.966
48 AF1 248 -0.478
48 AF1 249 -0.966
48 AF1 250 -2.920
48 AF1 251 -5.361
48 AF1 252 -7.802
48 AF1 253 -8.291
48 AF1 254 -7.802
48 AF1 255 -5.361
# AF2 chan 5
48 AF2 0 0.875
48 AF2 1 -1.078
48 AF2 2 -2.543
48 AF2 3 -3.031
48 AF2 4 -2.543
48 AF2 5 -1.078
48 AF2 6 0.387
48 AF2 7 1.363
48 AF2 8 1.363
48 AF2 9 0.875
48 AF2 10 -0.590
48 AF2 11 -2.543
48 AF2 12 -4.008
48 AF2 13 -4.985
48 AF2 14 -4.008
48 AF2 15 -2.055
48 AF2 16 -0.102
48 AF2 17 0.875
48 AF2 18 0.387
48 AF2 19 -0.590
48 AF2 20 -2.055
48 AF2 21 -2.055
48 AF2 22 -1.567
48 AF2 23 0.387
48 AF2 24 2.828
48 AF2 25 4.293
48 AF2 26 5.758
48 AF2 27 6.246
48 AF2 28 6.246
48 AF2 29 5.758
48 AF2 30 5.269
48 AF2 31 4.293
48 AF2 32 3.805
48 AF2 33 3.316
48 AF2 34 2.828
48 AF2 35 1.363
48 AF2 36 -1.078
48 AF2 37 -4.985
48 AF2 38 -8.891
48 AF2 39 -11.820
48 AF2 40 -13.285
48 AF2 41 -13.285
48 AF2 42 -13.285
48 AF2 43 -13.285
48 AF2 44 -12.797
48 AF2 45 -11.820
48 AF2 46 -10.356
48 AF2 47 -7.426
48 AF2 48 -5.473
48 AF2 49 -4.496
48 AF2 50 -4.008
48 AF2 51 -3.031
48 AF2 52 -2.055
48 AF2 53 -0.102
48 AF2 54 1.363
48 AF2 55 1.363
48 AF2 56 0.387
48 AF2 57 -1.567
48 AF2 58 -2.543
48 AF2 59 -2.543
48 AF2 60 -1.078
48 AF2 61 0.875
48 AF2 62 2.340
48 AF2 63 2.340
48 AF2 64 1.363
48 AF2 65 -0.102
48 AF2 66 -0.590
48 AF2 67 -0.590
48 AF2 68 0.387
48 AF2 69 0.875
48 AF2 70 -0.102
48 AF2 71 -2.055
48 AF2 72 -4.008
48 AF2 73 -4.985
48 AF2 74 -4.008
48 AF2 75 -1.078
48 AF2 76 1.851
48 AF2 77 3.316
48 AF2 78 2.828
48 AF2 79 1.363
48 AF2 80 -1.078
48 AF2 81 -3.031
48 AF2 82 -4.496
48 AF2 83 -5.473
48 AF2 84 -5.961
48 AF2 85 -4.985
48 AF2 86 -3.031
48 AF2 87 -0.590
48 AF2 88 1.363
48 AF2 89 1.851
48 AF2 90 0.875
48 AF2 91 -0.102
48 AF2 92 -0.102
48 AF2 93 0.875
48 AF2 94 1.851
48 AF2 95 1.851
48 AF2 96 0.875
48 AF2 97 -0.590
48 AF2 98 -1.078
48 AF2 99 -1.078
48 AF2 100 -0.590
48 AF2 101 -1.078
48 AF2 102 -2.055
48 AF2 103 -4.496
48 AF2 104 -6.938
48 AF2 105 -7.914
48 AF2 106 -8.891
48 AF2 107 -9.379
48 AF2 108 -9.379
48 AF2 109 -9.379
48 AF2 110 -8.891
48 AF2 111 -7.426
48 AF2 112 -5.961
48 AF2 113 -4.496
48 AF2 114 -4.985
48 AF2 115 -6.449
48 AF2 116 -7.914
48 AF2 117 -8.891
48 AF2 118 -8.403
48 AF2 119 -6.449
48 AF2 120 -4.985
48 AF2 121 -4.008
48 AF2 122 -4.496
48 AF2 123 -5.961
48 AF2 124 -6.938
48 AF2 125 -7.426
48 AF2 126 -7.914
48 AF2 127 -8.891
48 AF2 128 -9.379
48 AF2 129 -10.356
48 AF2 130 -10.844
48 AF2 131 -10.844
48 AF2 132 -9.867
48 AF2 133 -8.891
48 AF2 134 -7.914
48 AF2 135 -7.914
48 AF2 136 -7.914
48 AF2 137 -8.403
48 AF2 138 -8.891
48 AF2 139 -10.356
48 AF2 140 -11.332
48 AF2 141 -11.820
48 AF2 142 -11.332
48 AF2 143 -9.867
48 AF2 144 -7.426
48 AF2 145 -5.961
48 AF2 146 -5.473
48 AF2 147 -5.961
48 AF2 148 -6.938
48 AF2 149 -7.914
48 AF2 150 -7.914
48 AF2 151 -7.426
48 AF2 152 -6.938
48 AF2 153 -6.938
48 AF2 154 -7.426
48 AF2 155 -8.403
48 AF2 156 -8.891
48 AF2 157 -8.891
48 AF2 158 -8.403
48 AF2 159 -7.426
48 AF2 160 -6.449
48 AF2 161 -4.985
48 AF2 162 -3.031
48 AF2 163 -2.055
48 AF2 164 -1.567
48 AF2 165 -1.078
48 AF2 166 -2.055
48 AF2 167 -3.031
48 AF2 168 -4.496
48 AF2 169 -5.961
48 AF2 170 -6.938
48 AF2 171 -7.914
48 AF2 172 -7.914
48 AF2 173 -6.938
48 AF2 174 -6.449
48 AF2 175 -5.473
48 AF2 176 -4.985
48 AF2 177 -4.985
48 AF2 178 -4.985
48 AF2 179 -4.985
48 AF2 180 -5.473
48 AF2 181 -6.449
48 AF2 182 -6.938
48 AF2 183 -6.938
48 AF2 184 -6.938
48 AF2 185 -6.938
48 AF2 186 -6.938
48 AF2 187 -8.403
48 AF2 188 -10.356
48 AF2 189 -12.309
48 AF2 190 -13.285
48 AF2 191 -13.285
48 AF2 192 -12.797
48 AF2 193 -11.332
48 AF2 194 -10.844
48 AF2 195 -10.356
48 AF2 196 -10.844
48 AF2 197 -10.844
48 AF2 198 -10.844
48 AF2 199 -10.844
48 AF2 200 -10.844
48 AF2 201 -9.867
48 AF2 202 -9.867
48 AF2 203 -9.379
48 AF2 204 -9.379
48 AF2 205 -9.867
48 AF2 206 -9.867
48 AF2 207 -10.356
48 AF2 208 -10.844
48 AF2 209 -11.332
48 AF2 210 -11.820
48 AF2 211 -11.820
48 AF2 212 -11.820
48 AF2 213 -11.332
48 AF2 214 -10.844
48 AF2 215 -10.844
48 AF2 216 -11.332
48 AF2 217 -12.309
48 AF2 218 -12.309
48 AF2 219 -11.332
48 AF2 220 -10.356
48 AF2 221 -9.379
48 AF2 222 -8.403
48 AF2 223 -7.426
48 AF2 224 -6.938
48 AF2 225 -6.938
48 AF2 226 -7.426
48 AF2 227 -8.403
48 AF2 228 -9.379
48 AF2 229 -9.379
48 AF2 230 -8.403
48 AF2 231 -6.938
48 AF2 232 -5.961
48 AF2 233 -6.449
48 AF2 234 -7.426
48 AF2 235 -9.379
48 AF2 236 -10.844
48 AF2 237 -11.332
48 AF2 238 -11.332
48 AF2 239 -10.844
48 AF2 240 -9.379
48 AF2 241 -7.426
48 AF2 242 -5.473
48 AF2 243 -3.520
48 AF2 244 -2.055
48 AF2 245 -1.078
48 AF2 246 -1.078
48 AF2 247 -1.078
48 AF2 248 -1.078
48 AF2 249 -2.543
48 AF2 250 -4.008
48 AF2 251 -6.449
48 AF2 252 -7.914
48 AF2 253 -8.891
48 AF2 254 -7.914
48 AF2 255 -6.938
# FZ chan 6
48 FZ 0 -1.221
48 FZ 1 -1.709
48 FZ 2 -2.197
48 FZ 3 -2.686
48 FZ 4 -2.686
48 FZ 5 -2.686
48 FZ 6 -2.686
48 FZ 7 -2.197
48 FZ 8 -2.197
48 FZ 9 -1.709
48 FZ 10 -1.709
48 FZ 11 -1.709
48 FZ 12 -2.197
48 FZ 13 -2.686
48 FZ 14 -2.197
48 FZ 15 -1.709
48 FZ 16 -0.732
48 FZ 17 0.732
48 FZ 18 1.221
48 FZ 19 1.221
48 FZ 20 1.221
48 FZ 21 1.221
48 FZ 22 1.709
48 FZ 23 3.174
48 FZ 24 5.127
48 FZ 25 6.104
48 FZ 26 6.592
48 FZ 27 6.104
48 FZ 28 5.615
48 FZ 29 4.639
48 FZ 30 4.150
48 FZ 31 3.662
48 FZ 32 3.662
48 FZ 33 2.686
48 FZ 34 2.197
48 FZ 35 1.221
48 FZ 36 -0.732
48 FZ 37 -2.197
48 FZ 38 -4.639
48 FZ 39 -6.104
48 FZ 40 -7.568
48 FZ 41 -8.057
48 FZ 42 -8.057
48 FZ 43 -8.057
48 FZ 44 -8.057
48 FZ 45 -8.057
48 FZ 46 -7.080
48 FZ 47 -5.615
48 FZ 48 -4.639
48 FZ 49 -3.174
48 FZ 50 -2.686
48 FZ 51 -1.709
48 FZ 52 -0.732
48 FZ 53 0.244
48 FZ 54 1.709
48 FZ 55 1.709
48 FZ 56 1.221
48 FZ 57 0.732
48 FZ 58 0.244
48 FZ 59 0.732
48 FZ 60 1.221
48 FZ 61 2.197
48 FZ 62 2.197
48 FZ 63 2.197
48 FZ 64 1.709
48 FZ 65 1.709
48 FZ 66 2.197
48 FZ 67 2.686
48 FZ 68 3.174
48 FZ 69 3.662
48 FZ 70 2.686
48 FZ 71 1.221
48 FZ 72 -0.732
48 FZ 73 -2.197
48 FZ 74 -1.221
48 FZ 75 0.732
48 FZ 76 2.686
48 FZ 77 4.150
48 FZ 78 4.150
48 FZ 79 3.174
48 FZ 80 1.709
48 FZ 81 0.244
48 FZ 82 -1.221
48 FZ 83 -2.197
48 FZ 84 -2.686
48 FZ 85 -2.686
48 FZ 86 -1.221
48 FZ 87 0.244
48 FZ 88 1.221
48 FZ 89 1.709
48 FZ 90 1.709
48 FZ 91 1.709
48 FZ 92 2.197
48 FZ 93 3.174
48 FZ 94 3.662
48 FZ 95 3.174
48 FZ 96 2.686
48 FZ 97 2.197
48 FZ 98 1.709
48 FZ 99 2.197
48 FZ 100 3.174
48 FZ 101 3.174
48 FZ 102 1.709
48 FZ 103 0.244
48 FZ 104 -2.197
48 FZ 105 -3.174
48 FZ 106 -4.150
48 FZ 107 -4.639
48 FZ 108 -5.127
48 FZ 109 -5.615
48 FZ 110 -5.127
48 FZ 111 -4.150
48 FZ 112 -2.686
48 FZ 113 -1.221
48 FZ 114 -1.221
48 FZ 115 -2.197
48 FZ 116 -4.150
48 FZ 117 -5.615
48 FZ 118 -6.104
48 FZ 119 -5.127
48 FZ 120 -4.150
48 FZ 121 -3.662
48 FZ 122 -4.150
48 FZ 123 -4.639
48 FZ 124 -4.639
48 FZ 125 -4.150
48 FZ 126 -4.150
48 FZ 127 -4.150
48 FZ 128 -5.127
48 FZ 129 -6.104
48 FZ 130 -6.592
48 FZ 131 -6.592
48 FZ 132 -6.104
48 FZ 133 -5.615
48 FZ 134 -5.615
48 FZ 135 -5.615
48 FZ 136 -5.615
48 FZ 137 -5.615
48 FZ 138 -6.104
48 FZ 139 -7.080
48 FZ 140 -7.568
48 FZ 141 -8.545
48 FZ 142 -8.057
48 FZ 143 -7.568
48 FZ 144 -6.104
48 FZ 145 -5.615
48 FZ 146 -4.639
48 FZ 147 -5.127
48 FZ 148 -5.127
48 FZ 149 -5.615
48 FZ 150 -6.104
48 FZ 151 -6.104
48 FZ 152 -6.592
48 FZ 153 -6.104
48 FZ 154 -6.104
48 FZ 155 -6.592
48 FZ 156 -6.592
48 FZ 157 -6.592
48 FZ 158 -6.104
48 FZ 159 -5.615
48 FZ 160 -4.150
48 FZ 161 -2.686
48 FZ 162 -1.221
48 FZ 163 -0.732
48 FZ 164 -0.732
48 FZ 165 -1.221
48 FZ 166 -2.197
48 FZ 167 -3.174
48 FZ 168 -3.662
48 FZ 169 -4.150
48 FZ 170 -5.127
48 FZ 171 -5.615
48 FZ 172 -5.615
48 FZ 173 -5.615
48 FZ 174 -4.639
48 FZ 175 -4.150
48 FZ 176 -3.662
48 FZ 177 -4.150
48 FZ 178 -4.639
48 FZ 179 -5.127
48 FZ 180 -5.127
48 FZ 181 -4.150
48 FZ 182 -3.662
48 FZ 183 -2.686
48 FZ 184 -2.197
48 FZ 185 -2.686
48 FZ 186 -3.662
48 FZ 187 -5.615
48 FZ 188 -7.568
48 FZ 189 -9.033
48 FZ 190 -10.498
48 FZ 191 -10.498
48 FZ 192 -10.010
48 FZ 193 -8.545
48 FZ 194 -7.568
48 FZ 195 -6.592
48 FZ 196 -6.104
48 FZ 197 -6.592
48 FZ 198 -7.080
48 FZ 199 -7.568
48 FZ 200 -7.568
48 FZ 201 -7.080
48 FZ 202 -6.592
48 FZ 203 -6.592
48 FZ 204 -5.615
48 FZ 205 -5.615
48 FZ 206 -5.127
48 FZ 207 -5.615
48 FZ 208 -6.104
48 FZ 209 -7.080
48 FZ 210 -8.057
48 FZ 211 -8.545
48 FZ 212 -7.568
48 FZ 213 -6.592
48 FZ 214 -5.615
48 FZ 215 -5.615
48 FZ 216 -6.592
48 FZ 217 -7.080
48 FZ 218 -8.057
48 FZ 219 -8.057
48 FZ 220 -7.568
48 FZ 221 -6.592
48 FZ 222 -5.615
48 FZ 223 -4.639
48 FZ 224 -4.150
48 FZ 225 -3.662
48 FZ 226 -3.662
48 FZ 227 -4.150
48 FZ 228 -4.639
48 FZ 229 -4.639
48 FZ 230 -4.150
48 FZ 231 -4.150
48 FZ 232 -4.150
48 FZ 233 -4.639
48 FZ 234 -5.127
48 FZ 235 -5.615
48 FZ 236 -6.104
48 FZ 237 -5.615
48 FZ 238 -5.127
48 FZ 239 -4.639
48 FZ 240 -4.150
48 FZ 241 -3.662
48 FZ 242 -2.197
48 FZ 243 -0.732
48 FZ 244 0.732
48 FZ 245 1.709
48 FZ 246 2.197
48 FZ 247 2.197
48 FZ 248 2.197
48 FZ 249 1.709
48 FZ 250 1.221
48 FZ 251 -0.244
48 FZ 252 -1.709
48 FZ 253 -2.197
48 FZ 254 -2.686
48 FZ 255 -1.709
# F4 chan 7
48 F4 0 1.648
48 F4 1 2.136
48 F4 2 1.648
48 F4 3 0.671
48 F4 4 -0.793
48 F4 5 -1.770
48 F4 6 -1.770
48 F4 7 -0.793
48 F4 8 0.183
48 F4 9 -0.305
48 F4 10 -1.770
48 F4 11 -4.211
48 F4 12 -6.165
48 F4 13 -7.141
48 F4 14 -6.653
48 F4 15 -4.211
48 F4 16 -1.770
48 F4 17 0.183
48 F4 18 0.671
48 F4 19 0.183
48 F4 20 -1.282
48 F4 21 -1.770
48 F4 22 -1.282
48 F4 23 -0.305
48 F4 24 1.648
48 F4 25 3.601
48 F4 26 4.578
48 F4 27 5.554
48 F4 28 5.554
48 F4 29 5.554
48 F4 30 5.066
48 F4 31 5.066
48 F4 32 4.089
48 F4 33 3.113
48 F4 34 2.136
48 F4 35 -0.305
48 F4 36 -2.747
48 F4 37 -6.165
48 F4 38 -8.606
48 F4 39 -10.071
48 F4 40 -10.559
48 F4 41 -10.071
48 F4 42 -9.583
48 F4 43 -9.094
48 F4 44 -8.606
48 F4 45 -8.118
48 F4 46 -6.653
48 F4 47 -5.676
48 F4 48 -4.700
48 F4 49 -4.211
48 F4 50 -3.723
48 F4 51 -2.747
48 F4 52 -0.793
48 F4 53 1.160
48 F4 54 2.136
48 F4 55 1.648
48 F4 56 -0.305
48 F4 57 -2.747
48 F4 58 -4.211
48 F4 59 -4.211
48 F4 60 -3.235
48 F4 61 -0.793
48 F4 62 1.160
48 F4 63 2.136
48 F4 64 1.648
48 F4 65 1.160
48 F4 66 0.183
48 F4 67 -0.305
48 F4 68 0.183
48 F4 69 0.671
48 F4 70 -0.305
48 F4 71 -1.770
48 F4 72 -3.723
48 F4 73 -4.211
48 F4 74 -2.747
48 F4 75 0.183
48 F4 76 3.601
48 F4 77 5.066
48 F4 78 3.601
48 F4 79 1.160
48 F4 80 -1.770
48 F4 81 -4.211
48 F4 82 -4.700
48 F4 83 -4.211
48 F4 84 -2.747
48 F4 85 -1.282
48 F4 86 1.160
48 F4 87 3.113
48 F4 88 4.089
48 F4 89 3.601
48 F4 90 2.625
48 F4 91 2.136
48 F4 92 1.648
48 F4 93 1.648
48 F4 94 2.136
48 F4 95 1.648
48 F4 96 0.671
48 F4 97 -0.305
48 F4 98 -0.793
48 F4 99 -0.793
48 F4 100 -0.305
48 F4 101 -0.305
48 F4 102 -1.770
48 F4 103 -3.723
48 F4 104 -5.676
48 F4 105 -6.653
48 F4 106 -6.653
48 F4 107 -6.165
48 F4 108 -5.676
48 F4 109 -4.700
48 F4 110 -3.723
48 F4 111 -2.258
48 F4 112 -1.282
48 F4 113 -0.305
48 F4 114 -1.282
48 F4 115 -2.258
48 F4 116 -4.211
48 F4 117 -4.700
48 F4 118 -3.723
48 F4 119 -2.258
48 F4 120 -0.305
48 F4 121 1.160
48 F4 122 0.671
48 F4 123 -0.305
48 F4 124 -2.258
48 F4 125 -4.211
48 F4 126 -5.188
48 F4 127 -5.676
48 F4 128 -5.676
48 F4 129 -5.188
48 F4 130 -4.700
48 F4 131 -4.211
48 F4 132 -3.723
48 F4 133 -3.723
48 F4 134 -3.723
48 F4 135 -3.723
48 F4 136 -3.723
48 F4 137 -3.723
48 F4 138 -4.700
48 F4 139 -5.676
48 F4 140 -6.653
48 F4 141 -7.141
48 F4 142 -6.653
48 F4 143 -5.188
48 F4 144 -3.723
48 F4 145 -2.747
48 F4 146 -2.747
48 F4 147 -3.723
48 F4 148 -5.188
48 F4 149 -6.653
48 F4 150 -6.653
48 F4 151 -5.676
48 F4 152 -4.700
48 F4 153 -4.211
48 F4 154 -3.723
48 F4 155 -4.211
48 F4 156 -5.188
48 F4 157 -5.676
48 F4 158 -5.676
48 F4 159 -5.188
48 F4 160 -3.723
48 F4 161 -2.258
48 F4 162 -0.305
48 F4 163 0.671
48 F4 164 1.160
48 F4 165 1.160
48 F4 166 0.183
48 F4 167 -1.282
48 F4 168 -2.747
48 F4 169 -3.723
48 F4 170 -4.700
48 F4 171 -5.188
48 F4 172 -5.676
48 F4 173 -5.676
48 F4 174 -5.188
48 F4 175 -4.211
48 F4 176 -3.235
48 F4 177 -2.258
48 F4 178 -1.770
48 F4 179 -2.258
48 F4 180 -3.235
48 F4 181 -4.700
48 F4 182 -5.676
48 F4 183 -5.676
48 F4 184 -5.188
48 F4 185 -5.188
48 F4 186 -5.676
48 F4 187 -7.141
48 F4 188 -8.606
48 F4 189 -10.559
48 F4 190 -10.559
48 F4 191 -10.071
48 F4 192 -9.094
48 F4 193 -8.118
48 F4 194 -7.629
48 F4 195 -7.629
48 F4 196 -7.629
48 F4 197 -7.629
48 F4 198 -7.629
48 F4 199 -7.629
48 F4 200 -7.141
48 F4 201 -6.165
48 F4 202 -5.676
48 F4 203 -5.188
48 F4 204 -5.188
48 F4 205 -5.188
48 F4 206 -6.165
48 F4 207 -7.141
48 F4 208 -7.141
48 F4 209 -7.629
48 F4 210 -8.118
48 F4 211 -8.606
48 F4 212 -9.094
48 F4 213 -9.094
48 F4 214 -9.094
48 F4 215 -9.583
48 F4 216 -9.583
48 F4 217 -9.094
48 F4 218 -8.606
48 F4 219 -8.118
48 F4 220 -7.141
48 F4 221 -7.141
48 F4 222 -6.653
48 F4 223 -5.676
48 F4 224 -5.188
48 F4 225 -4.700
48 F4 226 -5.188
48 F4 227 -6.165
48 F4 228 -6.653
48 F4 229 -7.141
48 F4 230 -6.165
48 F4 231 -5.676
48 F4 232 -5.188
48 F4 233 -5.676
48 F4 234 -7.141
48 F4 235 -8.606
48 F4 236 -9.583
48 F4 237 -10.559
48 F4 238 -10.559
48 F4 239 -10.071
48 F4 240 -8.606
48 F4 241 -6.653
48 F4 242 -4.211
48 F4 243 -2.258
48 F4 244 -0.793
48 F4 245 -0.305
48 F4 246 -0.793
48 F4 247 -0.793
48 F4 248 -1.282
48 F4 249 -1.770
48 F4 250 -2.747
48 F4 251 -4.700
48 F4 252 -5.676
48 F4 253 -6.165
48 F4 254 -6.165
48 F4 255 -5.676
# F3 chan 8
48 F3 0 -1.506
48 F3 1 -3.459
48 F3 2 -4.435
48 F3 3 -4.435
48 F3 4 -2.482
48 F3 5 -1.017
48 F3 6 -0.041
48 F3 7 -0.529
48 F3 8 -1.994
48 F3 9 -2.970
48 F3 10 -2.970
48 F3 11 -1.994
48 F3 12 -1.017
48 F3 13 0.448
48 F3 14 0.936
48 F3 15 0.936
48 F3 16 1.424
48 F3 17 1.424
48 F3 18 1.424
48 F3 19 1.424
48 F3 20 1.424
48 F3 21 1.424
48 F3 22 2.401
48 F3 23 3.866
48 F3 24 5.330
48 F3 25 5.819
48 F3 26 4.842
48 F3 27 3.377
48 F3 28 2.401
48 F3 29 1.424
48 F3 30 1.424
48 F3 31 0.936
48 F3 32 0.448
48 F3 33 0.448
48 F3 34 -0.041
48 F3 35 -0.041
48 F3 36 -0.529
48 F3 37 -1.994
48 F3 38 -3.459
48 F3 39 -5.412
48 F3 40 -6.877
48 F3 41 -8.341
48 F3 42 -9.318
48 F3 43 -10.295
48 F3 44 -10.783
48 F3 45 -10.295
48 F3 46 -8.830
48 F3 47 -6.877
48 F3 48 -5.412
48 F3 49 -3.947
48 F3 50 -3.459
48 F3 51 -2.970
48 F3 52 -2.970
48 F3 53 -2.970
48 F3 54 -2.482
48 F3 55 -2.482
48 F3 56 -1.994
48 F3 57 -1.506
48 F3 58 -1.017
48 F3 59 -0.041
48 F3 60 0.936
48 F3 61 1.424
48 F3 62 1.424
48 F3 63 0.936
48 F3 64 -0.041
48 F3 65 -0.529
48 F3 66 -0.529
48 F3 67 0.448
48 F3 68 1.912
48 F3 69 2.889
48 F3 70 2.889
48 F3 71 0.936
48 F3 72 -1.017
48 F3 73 -2.482
48 F3 74 -2.482
48 F3 75 -1.017
48 F3 76 0.936
48 F3 77 2.401
48 F3 78 3.866
48 F3 79 3.866
48 F3 80 3.377
48 F3 81 1.912
48 F3 82 -0.041
48 F3 83 -2.482
48 F3 84 -3.947
48 F3 85 -4.924
48 F3 86 -4.435
48 F3 87 -3.459
48 F3 88 -2.482
48 F3 89 -2.482
48 F3 90 -2.482
48 F3 91 -1.994
48 F3 92 -1.506
48 F3 93 -0.041
48 F3 94 0.936
48 F3 95 1.424
48 F3 96 0.448
48 F3 97 -0.529
48 F3 98 -1.017
48 F3 99 -1.017
48 F3 100 -1.017
48 F3 101 -0.529
48 F3 102 -1.017
48 F3 103 -1.994
48 F3 104 -2.970
48 F3 105 -3.947
48 F3 106 -4.435
48 F3 107 -5.412
48 F3 108 -6.877
48 F3 109 -7.853
48 F3 110 -7.853
48 F3 111 -6.388
48 F3 112 -4.924
48 F3 113 -3.459
48 F3 114 -3.947
48 F3 115 -5.412
48 F3 116 -6.877
48 F3 117 -7.853
48 F3 118 -7.365
48 F3 119 -5.900
48 F3 120 -4.924
48 F3 121 -4.924
48 F3 122 -6.388
48 F3 123 -7.365
48 F3 124 -6.877
48 F3 125 -6.388
48 F3 126 -5.900
48 F3 127 -6.388
48 F3 128 -7.365
48 F3 129 -8.830
48 F3 130 -9.318
48 F3 131 -9.806
48 F3 132 -9.318
48 F3 133 -9.318
48 F3 134 -9.806
48 F3 135 -10.295
48 F3 136 -10.295
48 F3 137 -10.295
48 F3 138 -9.806
48 F3 139 -9.806
48 F3 140 -9.318
48 F3 141 -9.318
48 F3 142 -8.830
48 F3 143 -8.341
48 F3 144 -7.365
48 F3 145 -5.900
48 F3 146 -4.435
48 F3 147 -3.947
48 F3 148 -3.459
48 F3 149 -3.947
48 F3 150 -4.435
48 F3 151 -5.900
48 F3 152 -7.365
48 F3 153 -8.341
48 F3 154 -9.318
48 F3 155 -9.318
48 F3 156 -8.830
48 F3 157 -7.853
48 F3 158 -6.388
48 F3 159 -4.924
48 F3 160 -3.947
48 F3 161 -2.482
48 F3 162 -2.482
48 F3 163 -2.970
48 F3 164 -3.459
48 F3 165 -3.459
48 F3 166 -2.970
48 F3 167 -1.994
48 F3 168 -1.506
48 F3 169 -1.994
48 F3 170 -2.482
48 F3 171 -3.947
48 F3 172 -4.924
48 F3 173 -5.900
48 F3 174 -5.900
48 F3 175 -6.388
48 F3 176 -6.877
48 F3 177 -6.877
48 F3 178 -6.877
48 F3 179 -6.388
48 F3 180 -5.900
48 F3 181 -5.412
48 F3 182 -4.435
48 F3 183 -3.459
48 F3 184 -3.459
48 F3 185 -3.947
48 F3 186 -4.435
48 F3 187 -6.388
48 F3 188 -8.341
48 F3 189 -10.295
48 F3 190 -11.271
48 F3 191 -11.271
48 F3 192 -10.783
48 F3 193 -9.318
48 F3 194 -8.341
48 F3 195 -7.365
48 F3 196 -6.877
48 F3 197 -7.365
48 F3 198 -8.341
48 F3 199 -9.318
48 F3 200 -9.806
48 F3 201 -9.806
48 F3 202 -9.318
48 F3 203 -8.830
48 F3 204 -8.341
48 F3 205 -7.853
48 F3 206 -7.853
48 F3 207 -8.341
48 F3 208 -8.830
48 F3 209 -9.318
48 F3 210 -10.295
48 F3 211 -10.295
48 F3 212 -9.318
48 F3 213 -7.365
48 F3 214 -5.900
48 F3 215 -5.412
48 F3 216 -6.388
48 F3 217 -7.853
48 F3 218 -8.341
48 F3 219 -8.341
48 F3 220 -7.853
48 F3 221 -6.388
48 F3 222 -5.412
48 F3 223 -4.435
48 F3 224 -3.947
48 F3 225 -1.506
48 F3 226 -3.459
48 F3 227 -4.435
48 F3 228 -4.924
48 F3 229 -5.412
48 F3 230 -5.412
48 F3 231 -3.947
48 F3 232 -3.459
48 F3 233 -3.459
48 F3 234 -3.947
48 F3 235 -4.924
48 F3 236 -5.412
48 F3 237 -4.924
48 F3 238 -3.947
48 F3 239 -3.459
48 F3 240 -2.970
48 F3 241 -3.459
48 F3 242 -2.970
48 F3 243 -1.994
48 F3 244 -1.506
48 F3 245 -1.017
48 F3 246 -0.529
48 F3 247 -0.041
48 F3 248 0.448
48 F3 249 0.448
48 F3 250 -0.529
48 F3 251 -2.482
48 F3 252 -3.947
48 F3 253 -4.435
48 F3 254 -3.459
48 F3 255 -2.482
# FC6 chan 9
48 FC6 0 1.923
48 FC6 1 3.876
48 FC6 2 3.876
48 FC6 3 2.411
48 FC6 4 0.946
48 FC6 5 -0.519
48 FC6 6 -0.031
48 FC6 7 0.946
48 FC6 8 1.434
48 FC6 9 0.946
48 FC6 10 -1.495
48 FC6 11 -4.913
48 FC6 12 -6.866
48 FC6 13 -6.866
48 FC6 14 -4.913
48 FC6 15 -1.984
48 FC6 16 1.923
48 FC6 17 3.876
48 FC6 18 3.876
48 FC6 19 2.411
48 FC6 20 -0.031
48 FC6 21 -1.984
48 FC6 22 -2.472
48 FC6 23 -1.984
48 FC6 24 -0.031
48 FC6 25 2.411
48 FC6 26 3.876
48 FC6 27 4.364
48 FC6 28 3.876
48 FC6 29 3.387
48 FC6 30 2.411
48 FC6 31 1.923
48 FC6 32 0.946
48 FC6 33 -1.007
48 FC6 34 -2.960
48 FC6 35 -4.913
48 FC6 36 -6.378
48 FC6 37 -6.866
48 FC6 38 -6.866
48 FC6 39 -6.866
48 FC6 40 -6.866
48 FC6 41 -6.866
48 FC6 42 -7.355
48 FC6 43 -7.355
48 FC6 44 -6.378
48 FC6 45 -4.913
48 FC6 46 -2.960
48 FC6 47 -1.495
48 FC6 48 -1.495
48 FC6 49 -1.984
48 FC6 50 -1.984
48 FC6 51 -1.007
48 FC6 52 0.458
48 FC6 53 1.923
48 FC6 54 1.923
48 FC6 55 -0.031
48 FC6 56 -1.984
48 FC6 57 -3.937
48 FC6 58 -3.937
48 FC6 59 -3.448
48 FC6 60 -1.495
48 FC6 61 0.946
48 FC6 62 3.387
48 FC6 63 5.341
48 FC6 64 6.317
48 FC6 65 6.317
48 FC6 66 5.341
48 FC6 67 3.876
48 FC6 68 2.411
48 FC6 69 1.434
48 FC6 70 0.458
48 FC6 71 -1.007
48 FC6 72 -1.984
48 FC6 73 -1.984
48 FC6 74 -0.031
48 FC6 75 3.387
48 FC6 76 6.317
48 FC6 77 7.782
48 FC6 78 5.829
48 FC6 79 1.923
48 FC6 80 -1.495
48 FC6 81 -3.937
48 FC6 82 -3.448
48 FC6 83 -1.007
48 FC6 84 2.899
48 FC6 85 5.829
48 FC6 86 7.294
48 FC6 87 7.782
48 FC6 88 7.294
48 FC6 89 5.829
48 FC6 90 5.341
48 FC6 91 4.364
48 FC6 92 3.387
48 FC6 93 2.411
48 FC6 94 0.946
48 FC6 95 -0.519
48 FC6 96 -1.495
48 FC6 97 -1.984
48 FC6 98 -1.984
48 FC6 99 -2.472
48 FC6 100 -2.960
48 FC6 101 -3.937
48 FC6 102 -5.890
48 FC6 103 -6.866
48 FC6 104 -7.355
48 FC6 105 -6.378
48 FC6 106 -4.425
48 FC6 107 -2.472
48 FC6 108 -0.519
48 FC6 109 0.458
48 FC6 110 -0.519
48 FC6 111 -1.007
48 FC6 112 -1.984
48 FC6 113 -2.472
48 FC6 114 -2.960
48 FC6 115 -3.937
48 FC6 116 -4.913
48 FC6 117 -5.402
48 FC6 118 -3.937
48 FC6 119 -1.495
48 FC6 120 1.923
48 FC6 121 4.364
48 FC6 122 4.364
48 FC6 123 2.899
48 FC6 124 -0.519
48 FC6 125 -3.448
48 FC6 126 -4.913
48 FC6 127 -4.913
48 FC6 128 -2.960
48 FC6 129 -1.007
48 FC6 130 -0.031
48 FC6 131 0.946
48 FC6 132 0.458
48 FC6 133 0.458
48 FC6 134 -0.031
48 FC6 135 -0.031
48 FC6 136 -0.519
48 FC6 137 -1.495
48 FC6 138 -2.960
48 FC6 139 -3.937
48 FC6 140 -3.937
48 FC6 141 -2.960
48 FC6 142 -1.007
48 FC6 143 0.946
48 FC6 144 2.411
48 FC6 145 3.387
48 FC6 146 2.899
48 FC6 147 1.434
48 FC6 148 -0.519
48 FC6 149 -1.495
48 FC6 150 -1.984
48 FC6 151 -1.007
48 FC6 152 -0.031
48 FC6 153 0.458
48 FC6 154 -0.031
48 FC6 155 -0.031
48 FC6 156 -1.007
48 FC6 157 -1.007
48 FC6 158 -1.495
48 FC6 159 -1.984
48 FC6 160 -1.984
48 FC6 161 -1.007
48 FC6 162 0.946
48 FC6 163 2.899
48 FC6 164 4.364
48 FC6 165 4.852
48 FC6 166 3.876
48 FC6 167 2.899
48 FC6 168 1.434
48 FC6 169 0.458
48 FC6 170 -0.519
48 FC6 171 -1.495
48 FC6 172 -2.960
48 FC6 173 -3.448
48 FC6 174 -3.937
48 FC6 175 -2.960
48 FC6 176 -0.519
48 FC6 177 1.434
48 FC6 178 3.387
48 FC6 179 2.899
48 FC6 180 2.411
48 FC6 181 0.458
48 FC6 182 -1.007
48 FC6 183 -1.495
48 FC6 184 -1.495
48 FC6 185 -1.007
48 FC6 186 -1.495
48 FC6 187 -1.984
48 FC6 188 -2.960
48 FC6 189 -3.448
48 FC6 190 -3.448
48 FC6 191 -2.960
48 FC6 192 -2.472
48 FC6 193 -1.984
48 FC6 194 -2.472
48 FC6 195 -2.960
48 FC6 196 -3.937
48 FC6 197 -4.425
48 FC6 198 -3.937
48 FC6 199 -3.448
48 FC6 200 -1.984
48 FC6 201 -0.519
48 FC6 202 -0.031
48 FC6 203 -0.031
48 FC6 204 -1.007
48 FC6 205 -1.495
48 FC6 206 -1.984
48 FC6 207 -1.007
48 FC6 208 -0.031
48 FC6 209 0.946
48 FC6 210 0.458
48 FC6 211 -0.519
48 FC6 212 -2.472
48 FC6 213 -3.937
48 FC6 214 -4.913
48 FC6 215 -4.913
48 FC6 216 -4.425
48 FC6 217 -3.937
48 FC6 218 -2.960
48 FC6 219 -1.495
48 FC6 220 -0.519
48 FC6 221 0.458
48 FC6 222 1.434
48 FC6 223 1.923
48 FC6 224 1.434
48 FC6 225 0.946
48 FC6 226 -0.031
48 FC6 227 -1.495
48 FC6 228 -1.495
48 FC6 229 -1.007
48 FC6 230 -0.031
48 FC6 231 0.946
48 FC6 232 1.434
48 FC6 233 0.946
48 FC6 234 -0.519
48 FC6 235 -2.472
48 FC6 236 -4.913
48 FC6 237 -7.355
48 FC6 238 -8.820
48 FC6 239 -8.331
48 FC6 240 -5.890
48 FC6 241 -2.960
48 FC6 242 -0.031
48 FC6 243 1.923
48 FC6 244 1.923
48 FC6 245 1.923
48 FC6 246 1.923
48 FC6 247 1.923
48 FC6 248 1.923
48 FC6 249 1.434
48 FC6 250 0.458
48 FC6 251 -1.007
48 FC6 252 -1.984
48 FC6 253 -1.495
48 FC6 254 -1.007
48 FC6 255 -1.007
# FC5 chan 10
48 FC5 0 -0.315
48 FC5 1 -3.245
48 FC5 2 -4.710
48 FC5 3 -3.733
48 FC5 4 -1.292
48 FC5 5 1.149
48 FC5 6 2.126
48 FC5 7 0.661
48 FC5 8 -1.292
48 FC5 9 -2.757
48 FC5 10 -2.757
48 FC5 11 -0.315
48 FC5 12 0.173
48 FC5 13 0.173
48 FC5 14 -0.315
48 FC5 15 -0.804
48 FC5 16 -0.804
48 FC5 17 0.173
48 FC5 18 0.661
48 FC5 19 1.149
48 FC5 20 0.661
48 FC5 21 1.149
48 FC5 22 1.638
48 FC5 23 2.126
48 FC5 24 2.614
48 FC5 25 2.126
48 FC5 26 1.149
48 FC5 27 0.173
48 FC5 28 -0.804
48 FC5 29 -1.292
48 FC5 30 -1.780
48 FC5 31 -2.268
48 FC5 32 -2.757
48 FC5 33 -2.757
48 FC5 34 -2.757
48 FC5 35 -1.780
48 FC5 36 -0.804
48 FC5 37 -0.315
48 FC5 38 -0.804
48 FC5 39 -2.757
48 FC5 40 -5.198
48 FC5 41 -8.128
48 FC5 42 -10.569
48 FC5 43 -12.522
48 FC5 44 -13.011
48 FC5 45 -12.034
48 FC5 46 -10.569
48 FC5 47 -8.128
48 FC5 48 -6.175
48 FC5 49 -4.222
48 FC5 50 -3.733
48 FC5 51 -3.245
48 FC5 52 -4.222
48 FC5 53 -5.198
48 FC5 54 -6.175
48 FC5 55 -6.175
48 FC5 56 -5.686
48 FC5 57 -4.222
48 FC5 58 -2.757
48 FC5 59 -1.292
48 FC5 60 0.173
48 FC5 61 0.661
48 FC5 62 0.173
48 FC5 63 -1.780
48 FC5 64 -4.222
48 FC5 65 -5.686
48 FC5 66 -5.198
48 FC5 67 -2.757
48 FC5 68 -0.315
48 FC5 69 0.661
48 FC5 70 -0.315
48 FC5 71 -1.780
48 FC5 72 -3.245
48 FC5 73 -3.733
48 FC5 74 -2.757
48 FC5 75 -2.268
48 FC5 76 -1.780
48 FC5 77 -1.292
48 FC5 78 0.661
48 FC5 79 3.103
48 FC5 80 5.544
48 FC5 81 5.544
48 FC5 82 3.103
48 FC5 83 -1.292
48 FC5 84 -4.710
48 FC5 85 -5.198
48 FC5 86 -4.222
48 FC5 87 -2.757
48 FC5 88 -2.757
48 FC5 89 -4.710
48 FC5 90 -6.663
48 FC5 91 -7.640
48 FC5 92 -6.175
48 FC5 93 -3.245
48 FC5 94 -0.315
48 FC5 95 0.661
48 FC5 96 -0.315
48 FC5 97 -2.268
48 FC5 98 -4.222
48 FC5 99 -5.198
48 FC5 100 -5.198
48 FC5 101 -4.710
48 FC5 102 -3.733
48 FC5 103 -3.245
48 FC5 104 -2.757
48 FC5 105 -2.268
48 FC5 106 -2.757
48 FC5 107 -3.733
48 FC5 108 -5.198
48 FC5 109 -6.663
48 FC5 110 -6.663
48 FC5 111 -6.175
48 FC5 112 -5.198
48 FC5 113 -4.710
48 FC5 114 -4.710
48 FC5 115 -5.686
48 FC5 116 -6.175
48 FC5 117 -5.686
48 FC5 118 -3.733
48 FC5 119 -2.268
48 FC5 120 -1.292
48 FC5 121 -1.780
48 FC5 122 -3.245
48 FC5 123 -4.710
48 FC5 124 -5.686
48 FC5 125 -5.686
48 FC5 126 -6.663
48 FC5 127 -6.663
48 FC5 128 -7.640
48 FC5 129 -9.104
48 FC5 130 -10.569
48 FC5 131 -11.546
48 FC5 132 -12.034
48 FC5 133 -12.034
48 FC5 134 -12.034
48 FC5 135 -11.546
48 FC5 136 -11.058
48 FC5 137 -10.569
48 FC5 138 -10.081
48 FC5 139 -10.081
48 FC5 140 -9.593
48 FC5 141 -8.616
48 FC5 142 -7.151
48 FC5 143 -5.198
48 FC5 144 -3.245
48 FC5 145 -1.780
48 FC5 146 -1.292
48 FC5 147 -0.804
48 FC5 148 -0.804
48 FC5 149 -1.780
48 FC5 150 -3.245
48 FC5 151 -5.686
48 FC5 152 -7.151
48 FC5 153 -8.616
48 FC5 154 -9.104
48 FC5 155 -8.616
48 FC5 156 -8.616
48 FC5 157 -8.128
48 FC5 158 -6.663
48 FC5 159 -5.198
48 FC5 160 -3.733
48 FC5 161 -3.245
48 FC5 162 -4.222
48 FC5 163 -5.198
48 FC5 164 -5.686
48 FC5 165 -4.710
48 FC5 166 -3.245
48 FC5 167 -1.292
48 FC5 168 0.173
48 FC5 169 0.173
48 FC5 170 -0.315
48 FC5 171 -1.292
48 FC5 172 -3.245
48 FC5 173 -5.198
48 FC5 174 -6.663
48 FC5 175 -7.640
48 FC5 176 -7.151
48 FC5 177 -6.663
48 FC5 178 -5.686
48 FC5 179 -5.198
48 FC5 180 -5.686
48 FC5 181 -6.175
48 FC5 182 -6.175
48 FC5 183 -6.175
48 FC5 184 -5.686
48 FC5 185 -4.710
48 FC5 186 -4.710
48 FC5 187 -6.175
48 FC5 188 -8.128
48 FC5 189 -10.569
48 FC5 190 -12.034
48 FC5 191 -11.546
48 FC5 192 -10.081
48 FC5 193 -8.128
48 FC5 194 -6.663
48 FC5 195 -5.686
48 FC5 196 -5.686
48 FC5 197 -6.663
48 FC5 198 -7.640
48 FC5 199 -8.128
48 FC5 200 -8.616
48 FC5 201 -8.616
48 FC5 202 -8.616
48 FC5 203 -8.616
48 FC5 204 -8.128
48 FC5 205 -7.151
48 FC5 206 -6.175
48 FC5 207 -5.686
48 FC5 208 -6.175
48 FC5 209 -7.640
48 FC5 210 -9.104
48 FC5 211 -9.104
48 FC5 212 -7.640
48 FC5 213 -5.198
48 FC5 214 -3.245
48 FC5 215 -3.245
48 FC5 216 -3.733
48 FC5 217 -5.198
48 FC5 218 -5.198
48 FC5 219 -5.198
48 FC5 220 -4.710
48 FC5 221 -4.710
48 FC5 222 -5.198
48 FC5 223 -4.710
48 FC5 224 -4.222
48 FC5 225 -3.245
48 FC5 226 -3.733
48 FC5 227 -4.710
48 FC5 228 -5.686
48 FC5 229 -5.198
48 FC5 230 -3.733
48 FC5 231 -0.804
48 FC5 232 0.661
48 FC5 233 0.661
48 FC5 234 -0.804
48 FC5 235 -1.780
48 FC5 236 -2.268
48 FC5 237 -2.268
48 FC5 238 -1.780
48 FC5 239 -2.268
48 FC5 240 -2.757
48 FC5 241 -3.245
48 FC5 242 -3.245
48 FC5 243 -2.757
48 FC5 244 -2.757
48 FC5 245 -3.733
48 FC5 246 -4.222
48 FC5 247 -4.222
48 FC5 248 -2.757
48 FC5 249 -1.292
48 FC5 250 -1.292
48 FC5 251 -2.757
48 FC5 252 -4.710
48 FC5 253 -5.198
48 FC5 254 -4.222
48 FC5 255 -2.757
# FC2 chan 11
48 FC2 0 0.732
48 FC2 1 1.221
48 FC2 2 1.221
48 FC2 3 0.244
48 FC2 4 -0.244
48 FC2 5 -1.221
48 FC2 6 -1.221
48 FC2 7 -0.244
48 FC2 8 -0.244
48 FC2 9 -0.732
48 FC2 10 -1.709
48 FC2 11 -3.662
48 FC2 12 -4.639
48 FC2 13 -5.615
48 FC2 14 -4.639
48 FC2 15 -3.174
48 FC2 16 -0.732
48 FC2 17 1.709
48 FC2 18 2.686
48 FC2 19 3.174
48 FC2 20 2.197
48 FC2 21 1.709
48 FC2 22 1.709
48 FC2 23 2.197
48 FC2 24 3.662
48 FC2 25 4.639
48 FC2 26 5.127
48 FC2 27 4.639
48 FC2 28 4.639
48 FC2 29 4.150
48 FC2 30 3.662
48 FC2 31 3.174
48 FC2 32 2.197
48 FC2 33 1.221
48 FC2 34 -0.244
48 FC2 35 -2.197
48 FC2 36 -3.174
48 FC2 37 -4.150
48 FC2 38 -5.127
48 FC2 39 -5.127
48 FC2 40 -4.639
48 FC2 41 -4.150
48 FC2 42 -3.174
48 FC2 43 -3.174
48 FC2 44 -3.174
48 FC2 45 -2.686
48 FC2 46 -2.197
48 FC2 47 -1.709
48 FC2 48 -1.221
48 FC2 49 -0.732
48 FC2 50 -0.732
48 FC2 51 -0.244
48 FC2 52 0.732
48 FC2 53 1.709
48 FC2 54 1.709
48 FC2 55 1.221
48 FC2 56 -0.244
48 FC2 57 -1.709
48 FC2 58 -2.686
48 FC2 59 -2.686
48 FC2 60 -1.709
48 FC2 61 0.244
48 FC2 62 1.709
48 FC2 63 2.686
48 FC2 64 3.174
48 FC2 65 3.174
48 FC2 66 2.686
48 FC2 67 2.686
48 FC2 68 3.174
48 FC2 69 2.686
48 FC2 70 2.197
48 FC2 71 0.732
48 FC2 72 -0.732
48 FC2 73 -0.732
48 FC2 74 -0.244
48 FC2 75 1.221
48 FC2 76 2.686
48 FC2 77 2.686
48 FC2 78 1.709
48 FC2 79 -0.732
48 FC2 80 -2.686
48 FC2 81 -3.662
48 FC2 82 -3.662
48 FC2 83 -2.197
48 FC2 84 -0.244
48 FC2 85 1.709
48 FC2 86 2.686
48 FC2 87 3.174
48 FC2 88 3.662
48 FC2 89 4.150
48 FC2 90 4.639
48 FC2 91 4.150
48 FC2 92 4.150
48 FC2 93 3.662
48 FC2 94 2.686
48 FC2 95 2.197
48 FC2 96 1.709
48 FC2 97 1.221
48 FC2 98 1.709
48 FC2 99 1.709
48 FC2 100 1.709
48 FC2 101 1.221
48 FC2 102 -0.244
48 FC2 103 -2.197
48 FC2 104 -3.662
48 FC2 105 -4.150
48 FC2 106 -3.662
48 FC2 107 -2.197
48 FC2 108 -1.221
48 FC2 109 -0.732
48 FC2 110 -0.244
48 FC2 111 0.244
48 FC2 112 0.732
48 FC2 113 1.221
48 FC2 114 1.221
48 FC2 115 0.244
48 FC2 116 -1.221
48 FC2 117 -2.197
48 FC2 118 -2.686
48 FC2 119 -2.197
48 FC2 120 -1.221
48 FC2 121 -0.244
48 FC2 122 -0.732
48 FC2 123 -1.221
48 FC2 124 -2.197
48 FC2 125 -3.174
48 FC2 126 -3.662
48 FC2 127 -3.662
48 FC2 128 -2.686
48 FC2 129 -1.709
48 FC2 130 -0.732
48 FC2 131 -0.244
48 FC2 132 -0.244
48 FC2 133 -0.732
48 FC2 134 -0.732
48 FC2 135 -0.732
48 FC2 136 -0.732
48 FC2 137 -1.709
48 FC2 138 -2.197
48 FC2 139 -2.686
48 FC2 140 -3.662
48 FC2 141 -3.662
48 FC2 142 -3.174
48 FC2 143 -2.686
48 FC2 144 -2.197
48 FC2 145 -2.197
48 FC2 146 -2.197
48 FC2 147 -3.174
48 FC2 148 -4.150
48 FC2 149 -4.639
48 FC2 150 -4.639
48 FC2 151 -4.150
48 FC2 152 -3.174
48 FC2 153 -2.686
48 FC2 154 -1.709
48 FC2 155 -1.709
48 FC2 156 -1.709
48 FC2 157 -2.197
48 FC2 158 -2.197
48 FC2 159 -2.197
48 FC2 160 -1.709
48 FC2 161 -0.244
48 FC2 162 0.732
48 FC2 163 1.709
48 FC2 164 1.221
48 FC2 165 0.732
48 FC2 166 -0.244
48 FC2 167 -1.221
48 FC2 168 -2.197
48 FC2 169 -2.686
48 FC2 170 -3.662
48 FC2 171 -4.150
48 FC2 172 -4.150
48 FC2 173 -4.150
48 FC2 174 -3.662
48 FC2 175 -2.686
48 FC2 176 -1.709
48 FC2 177 -0.732
48 FC2 178 -0.244
48 FC2 179 -0.732
48 FC2 180 -0.732
48 FC2 181 -1.221
48 FC2 182 -1.221
48 FC2 183 -1.221
48 FC2 184 -1.221
48 FC2 185 -1.709
48 FC2 186 -2.197
48 FC2 187 -3.174
48 FC2 188 -4.639
48 FC2 189 -5.615
48 FC2 190 -5.615
48 FC2 191 -5.615
48 FC2 192 -5.127
48 FC2 193 -4.639
48 FC2 194 -4.639
48 FC2 195 -4.150
48 FC2 196 -3.662
48 FC2 197 -3.174
48 FC2 198 -2.686
48 FC2 199 -2.197
48 FC2 200 -2.197
48 FC2 201 -1.709
48 FC2 202 -1.221
48 FC2 203 -1.221
48 FC2 204 -1.221
48 FC2 205 -1.221
48 FC2 206 -1.221
48 FC2 207 -1.709
48 FC2 208 -1.221
48 FC2 209 -1.709
48 FC2 210 -1.709
48 FC2 211 -2.197
48 FC2 212 -3.174
48 FC2 213 -4.150
48 FC2 214 -4.150
48 FC2 215 -4.150
48 FC2 216 -4.150
48 FC2 217 -3.662
48 FC2 218 -3.662
48 FC2 219 -2.686
48 FC2 220 -2.197
48 FC2 221 -1.709
48 FC2 222 -1.221
48 FC2 223 -0.732
48 FC2 224 -0.732
48 FC2 225 -0.732
48 FC2 226 -1.221
48 FC2 227 -1.709
48 FC2 228 -1.709
48 FC2 229 -1.709
48 FC2 230 -1.221
48 FC2 231 -1.221
48 FC2 232 -1.709
48 FC2 233 -2.197
48 FC2 234 -3.662
48 FC2 235 -4.639
48 FC2 236 -4.639
48 FC2 237 -4.639
48 FC2 238 -4.639
48 FC2 239 -4.150
48 FC2 240 -3.174
48 FC2 241 -1.709
48 FC2 242 0.244
48 FC2 243 1.709
48 FC2 244 2.686
48 FC2 245 3.174
48 FC2 246 2.686
48 FC2 247 2.686
48 FC2 248 2.197
48 FC2 249 2.197
48 FC2 250 1.709
48 FC2 251 0.732
48 FC2 252 -0.244
48 FC2 253 -0.732
48 FC2 254 -0.732
48 FC2 255 -0.732
# FC1 chan 12
48 FC1 0 -1.862
48 FC1 1 -2.838
48 FC1 2 -3.326
48 FC1 3 -3.326
48 FC1 4 -2.350
48 FC1 5 -1.862
48 FC1 6 -1.373
48 FC1 7 -1.373
48 FC1 8 -1.862
48 FC1 9 -2.350
48 FC1 10 -2.350
48 FC1 11 -1.862
48 FC1 12 -0.885
48 FC1 13 0.092
48 FC1 14 0.092
48 FC1 15 0.092
48 FC1 16 0.092
48 FC1 17 -0.397
48 FC1 18 -0.397
48 FC1 19 0.092
48 FC1 20 0.092
48 FC1 21 0.580
48 FC1 22 1.556
48 FC1 23 2.045
48 FC1 24 3.021
48 FC1 25 3.021
48 FC1 26 3.021
48 FC1 27 2.533
48 FC1 28 2.045
48 FC1 29 1.556
48 FC1 30 1.556
48 FC1 31 1.556
48 FC1 32 1.556
48 FC1 33 1.068
48 FC1 34 1.068
48 FC1 35 1.068
48 FC1 36 1.068
48 FC1 37 0.092
48 FC1 38 -0.885
48 FC1 39 -2.350
48 FC1 40 -3.815
48 FC1 41 -4.791
48 FC1 42 -5.280
48 FC1 43 -5.768
48 FC1 44 -5.768
48 FC1 45 -5.768
48 FC1 46 -5.768
48 FC1 47 -4.791
48 FC1 48 -3.815
48 FC1 49 -3.326
48 FC1 50 -2.838
48 FC1 51 -2.350
48 FC1 52 -2.350
48 FC1 53 -1.862
48 FC1 54 -1.862
48 FC1 55 -1.862
48 FC1 56 -1.373
48 FC1 57 -0.885
48 FC1 58 -0.397
48 FC1 59 0.092
48 FC1 60 0.580
48 FC1 61 0.580
48 FC1 62 0.580
48 FC1 63 0.092
48 FC1 64 -0.397
48 FC1 65 -0.885
48 FC1 66 -1.373
48 FC1 67 -0.397
48 FC1 68 0.580
48 FC1 69 1.556
48 FC1 70 1.556
48 FC1 71 0.580
48 FC1 72 -0.885
48 FC1 73 -1.862
48 FC1 74 -1.862
48 FC1 75 -0.397
48 FC1 76 0.580
48 FC1 77 1.556
48 FC1 78 2.045
48 FC1 79 2.533
48 FC1 80 2.045
48 FC1 81 1.068
48 FC1 82 -0.397
48 FC1 83 -1.862
48 FC1 84 -2.838
48 FC1 85 -3.326
48 FC1 86 -3.326
48 FC1 87 -2.350
48 FC1 88 -1.862
48 FC1 89 -1.373
48 FC1 90 -1.373
48 FC1 91 -0.885
48 FC1 92 -0.397
48 FC1 93 0.580
48 FC1 94 1.068
48 FC1 95 1.556
48 FC1 96 1.068
48 FC1 97 0.580
48 FC1 98 0.580
48 FC1 99 1.068
48 FC1 100 2.045
48 FC1 101 2.045
48 FC1 102 2.045
48 FC1 103 1.068
48 FC1 104 0.092
48 FC1 105 -0.885
48 FC1 106 -1.373
48 FC1 107 -1.862
48 FC1 108 -2.838
48 FC1 109 -3.815
48 FC1 110 -3.815
48 FC1 111 -3.326
48 FC1 112 -2.350
48 FC1 113 -1.373
48 FC1 114 -0.885
48 FC1 115 -1.862
48 FC1 116 -2.838
48 FC1 117 -3.815
48 FC1 118 -3.326
48 FC1 119 -2.838
48 FC1 120 -2.350
48 FC1 121 -2.350
48 FC1 122 -2.350
48 FC1 123 -2.838
48 FC1 124 -2.838
48 FC1 125 -2.350
48 FC1 126 -1.862
48 FC1 127 -2.350
48 FC1 128 -2.838
48 FC1 129 -3.815
48 FC1 130 -4.303
48 FC1 131 -4.303
48 FC1 132 -4.303
48 FC1 133 -4.303
48 FC1 134 -4.303
48 FC1 135 -4.791
48 FC1 136 -5.280
48 FC1 137 -4.791
48 FC1 138 -4.303
48 FC1 139 -4.303
48 FC1 140 -4.303
48 FC1 141 -4.303
48 FC1 142 -4.303
48 FC1 143 -3.815
48 FC1 144 -3.326
48 FC1 145 -2.350
48 FC1 146 -1.373
48 FC1 147 -0.885
48 FC1 148 -0.885
48 FC1 149 -1.373
48 FC1 150 -1.862
48 FC1 151 -2.838
48 FC1 152 -3.815
48 FC1 153 -4.791
48 FC1 154 -4.791
48 FC1 155 -4.791
48 FC1 156 -4.303
48 FC1 157 -3.815
48 FC1 158 -2.838
48 FC1 159 -1.862
48 FC1 160 -0.885
48 FC1 161 -0.397
48 FC1 162 0.092
48 FC1 163 -0.397
48 FC1 164 -0.885
48 FC1 165 -0.885
48 FC1 166 -0.885
48 FC1 167 -0.397
48 FC1 168 0.092
48 FC1 169 0.092
48 FC1 170 -0.397
48 FC1 171 -0.885
48 FC1 172 -1.862
48 FC1 173 -2.838
48 FC1 174 -3.326
48 FC1 175 -3.326
48 FC1 176 -3.326
48 FC1 177 -3.815
48 FC1 178 -3.326
48 FC1 179 -3.326
48 FC1 180 -2.838
48 FC1 181 -2.350
48 FC1 182 -1.862
48 FC1 183 -1.373
48 FC1 184 -0.885
48 FC1 185 -0.885
48 FC1 186 -1.862
48 FC1 187 -2.838
48 FC1 188 -4.303
48 FC1 189 -5.280
48 FC1 190 -6.256
48 FC1 191 -6.256
48 FC1 192 -5.280
48 FC1 193 -4.303
48 FC1 194 -3.815
48 FC1 195 -2.838
48 FC1 196 -2.838
48 FC1 197 -3.326
48 FC1 198 -4.303
48 FC1 199 -4.791
48 FC1 200 -4.791
48 FC1 201 -4.791
48 FC1 202 -3.815
48 FC1 203 -3.326
48 FC1 204 -3.326
48 FC1 205 -3.326
48 FC1 206 -3.326
48 FC1 207 -3.815
48 FC1 208 -4.303
48 FC1 209 -5.280
48 FC1 210 -5.768
48 FC1 211 -5.768
48 FC1 212 -4.791
48 FC1 213 -3.326
48 FC1 214 -2.838
48 FC1 215 -2.350
48 FC1 216 -2.838
48 FC1 217 -3.815
48 FC1 218 -4.791
48 FC1 219 -5.280
48 FC1 220 -4.791
48 FC1 221 -4.303
48 FC1 222 -3.326
48 FC1 223 -2.838
48 FC1 224 -1.862
48 FC1 225 -1.373
48 FC1 226 -1.373
48 FC1 227 -1.373
48 FC1 228 -1.862
48 FC1 229 -2.838
48 FC1 230 -2.838
48 FC1 231 -2.838
48 FC1 232 -2.838
48 FC1 233 -2.838
48 FC1 234 -2.838
48 FC1 235 -2.838
48 FC1 236 -2.350
48 FC1 237 -2.350
48 FC1 238 -1.862
48 FC1 239 -2.350
48 FC1 240 -2.350
48 FC1 241 -2.350
48 FC1 242 -1.862
48 FC1 243 -1.373
48 FC1 244 -0.397
48 FC1 245 0.092
48 FC1 246 0.092
48 FC1 247 0.092
48 FC1 248 0.580
48 FC1 249 0.580
48 FC1 250 0.092
48 FC1 251 -0.397
48 FC1 252 -1.373
48 FC1 253 -1.862
48 FC1 254 -1.862
48 FC1 255 -1.373
# T8 chan 13
48 T8 0 1.027
48 T8 1 2.981
48 T8 2 2.981
48 T8 3 1.516
48 T8 4 0.051
48 T8 5 -0.926
48 T8 6 -0.437
48 T8 7 1.027
48 T8 8 2.004
48 T8 9 2.004
48 T8 10 0.539
48 T8 11 -1.414
48 T8 12 -2.391
48 T8 13 -1.902
48 T8 14 -0.437
48 T8 15 2.004
48 T8 16 3.957
48 T8 17 3.957
48 T8 18 2.981
48 T8 19 1.027
48 T8 20 -1.902
48 T8 21 -3.855
48 T8 22 -4.832
48 T8 23 -4.344
48 T8 24 -2.391
48 T8 25 -0.437
48 T8 26 1.027
48 T8 27 1.027
48 T8 28 0.051
48 T8 29 -0.926
48 T8 30 -1.414
48 T8 31 -0.926
48 T8 32 -0.437
48 T8 33 -0.926
48 T8 34 -1.902
48 T8 35 -3.367
48 T8 36 -4.344
48 T8 37 -4.344
48 T8 38 -4.344
48 T8 39 -4.344
48 T8 40 -5.320
48 T8 41 -7.273
48 T8 42 -8.738
48 T8 43 -9.226
48 T8 44 -8.250
48 T8 45 -6.297
48 T8 46 -4.344
48 T8 47 -2.879
48 T8 48 -2.391
48 T8 49 -2.391
48 T8 50 -1.902
48 T8 51 -0.926
48 T8 52 0.539
48 T8 53 1.516
48 T8 54 1.027
48 T8 55 0.051
48 T8 56 -1.414
48 T8 57 -1.902
48 T8 58 -1.902
48 T8 59 -0.926
48 T8 60 0.051
48 T8 61 1.516
48 T8 62 2.981
48 T8 63 4.445
48 T8 64 5.422
48 T8 65 5.422
48 T8 66 3.957
48 T8 67 1.516
48 T8 68 -0.437
48 T8 69 -1.414
48 T8 70 -1.414
48 T8 71 -0.926
48 T8 72 -0.926
48 T8 73 0.051
48 T8 74 2.004
48 T8 75 4.934
48 T8 76 7.863
48 T8 77 9.328
48 T8 78 8.840
48 T8 79 5.910
48 T8 80 2.492
48 T8 81 0.051
48 T8 82 0.539
48 T8 83 2.981
48 T8 84 5.910
48 T8 85 7.863
48 T8 86 8.840
48 T8 87 8.352
48 T8 88 7.375
48 T8 89 6.887
48 T8 90 6.399
48 T8 91 5.422
48 T8 92 3.957
48 T8 93 1.516
48 T8 94 -0.926
48 T8 95 -2.391
48 T8 96 -2.391
48 T8 97 -0.926
48 T8 98 0.539
48 T8 99 2.004
48 T8 100 1.516
48 T8 101 1.027
48 T8 102 0.051
48 T8 103 0.051
48 T8 104 0.051
48 T8 105 1.027
48 T8 106 2.492
48 T8 107 2.981
48 T8 108 3.469
48 T8 109 2.981
48 T8 110 2.492
48 T8 111 2.004
48 T8 112 2.004
48 T8 113 2.004
48 T8 114 1.516
48 T8 115 1.027
48 T8 116 0.539
48 T8 117 0.539
48 T8 118 1.516
48 T8 119 3.469
48 T8 120 6.399
48 T8 121 8.840
48 T8 122 9.328
48 T8 123 7.863
48 T8 124 5.422
48 T8 125 2.492
48 T8 126 1.027
48 T8 127 1.027
48 T8 128 2.492
48 T8 129 3.469
48 T8 130 4.445
48 T8 131 4.445
48 T8 132 4.445
48 T8 133 4.445
48 T8 134 4.934
48 T8 135 4.934
48 T8 136 3.957
48 T8 137 2.004
48 T8 138 0.539
48 T8 139 0.051
48 T8 140 1.027
48 T8 141 2.981
48 T8 142 4.934
48 T8 143 6.887
48 T8 144 7.863
48 T8 145 8.352
48 T8 146 8.840
48 T8 147 8.352
48 T8 148 6.887
48 T8 149 5.910
48 T8 150 4.445
48 T8 151 4.445
48 T8 152 4.445
48 T8 153 4.934
48 T8 154 4.934
48 T8 155 3.957
48 T8 156 2.492
48 T8 157 1.516
48 T8 158 1.027
48 T8 159 0.539
48 T8 160 0.539
48 T8 161 1.516
48 T8 162 3.469
48 T8 163 5.422
48 T8 164 6.887
48 T8 165 7.863
48 T8 166 7.375
48 T8 167 6.887
48 T8 168 6.399
48 T8 169 6.399
48 T8 170 5.422
48 T8 171 4.445
48 T8 172 2.492
48 T8 173 1.027
48 T8 174 0.539
48 T8 175 2.004
48 T8 176 4.445
48 T8 177 6.399
48 T8 178 6.887
48 T8 179 5.910
48 T8 180 3.957
48 T8 181 2.492
48 T8 182 0.539
48 T8 183 -0.437
48 T8 184 -0.437
48 T8 185 0.051
48 T8 186 1.027
48 T8 187 1.516
48 T8 188 2.004
48 T8 189 2.004
48 T8 190 1.516
48 T8 191 1.027
48 T8 192 1.027
48 T8 193 1.516
48 T8 194 1.516
48 T8 195 1.027
48 T8 196 -0.437
48 T8 197 -1.414
48 T8 198 -1.902
48 T8 199 -0.926
48 T8 200 0.539
48 T8 201 2.004
48 T8 202 2.004
48 T8 203 1.027
48 T8 204 -0.926
48 T8 205 -1.414
48 T8 206 -0.926
48 T8 207 1.027
48 T8 208 2.492
48 T8 209 2.981
48 T8 210 2.492
48 T8 211 2.004
48 T8 212 1.027
48 T8 213 1.027
48 T8 214 1.516
48 T8 215 1.516
48 T8 216 2.004
48 T8 217 1.027
48 T8 218 0.539
48 T8 219 0.051
48 T8 220 0.539
48 T8 221 2.004
48 T8 222 3.469
48 T8 223 4.934
48 T8 224 5.422
48 T8 225 3.957
48 T8 226 2.004
48 T8 227 -0.437
48 T8 228 -1.414
48 T8 229 -0.926
48 T8 230 1.027
48 T8 231 3.469
48 T8 232 4.934
48 T8 233 4.934
48 T8 234 3.957
48 T8 235 2.004
48 T8 236 -0.926
48 T8 237 -3.855
48 T8 238 -6.297
48 T8 239 -7.273
48 T8 240 -5.809
48 T8 241 -3.367
48 T8 242 -0.926
48 T8 243 1.027
48 T8 244 1.516
48 T8 245 1.027
48 T8 246 1.027
48 T8 247 1.516
48 T8 248 2.004
48 T8 249 2.492
48 T8 250 2.004
48 T8 251 0.539
48 T8 252 -0.926
48 T8 253 -0.926
48 T8 254 -0.437
48 T8 255 1.027
# T7 chan 14
48 T7 0 0.722
48 T7 1 -0.743
48 T7 2 -2.207
48 T7 3 -2.207
48 T7 4 -0.254
48 T7 5 2.187
48 T7 6 4.140
48 T7 7 4.140
48 T7 8 2.675
48 T7 9 1.211
48 T7 10 -0.254
48 T7 11 -0.254
48 T7 12 -0.254
48 T7 13 -0.254
48 T7 14 -0.743
48 T7 15 -1.719
48 T7 16 -1.231
48 T7 17 -0.254
48 T7 18 1.211
48 T7 19 1.699
48 T7 20 2.187
48 T7 21 2.187
48 T7 22 2.187
48 T7 23 2.187
48 T7 24 1.699
48 T7 25 0.234
48 T7 26 -1.719
48 T7 27 -3.184
48 T7 28 -4.161
48 T7 29 -4.161
48 T7 30 -3.184
48 T7 31 -2.207
48 T7 32 -2.207
48 T7 33 -1.719
48 T7 34 -1.231
48 T7 35 -0.254
48 T7 36 1.699
48 T7 37 3.652
48 T7 38 4.628
48 T7 39 3.652
48 T7 40 0.722
48 T7 41 -4.161
48 T7 42 -9.043
48 T7 43 -11.973
48 T7 44 -12.461
48 T7 45 -10.997
48 T7 46 -9.043
48 T7 47 -7.090
48 T7 48 -6.114
48 T7 49 -4.649
48 T7 50 -3.184
48 T7 51 -1.719
48 T7 52 -2.207
48 T7 53 -3.672
48 T7 54 -5.625
48 T7 55 -5.625
48 T7 56 -4.161
48 T7 57 -2.207
48 T7 58 0.234
48 T7 59 0.722
48 T7 60 0.722
48 T7 61 0.234
48 T7 62 -1.231
48 T7 63 -2.696
48 T7 64 -5.137
48 T7 65 -6.602
48 T7 66 -6.602
48 T7 67 -4.649
48 T7 68 -1.719
48 T7 69 -0.254
48 T7 70 0.234
48 T7 71 -0.254
48 T7 72 -0.254
48 T7 73 0.234
48 T7 74 1.699
48 T7 75 1.211
48 T7 76 -0.743
48 T7 77 -2.696
48 T7 78 -1.719
48 T7 79 2.187
48 T7 80 7.558
48 T7 81 11.464
48 T7 82 10.488
48 T7 83 5.605
48 T7 84 -0.743
48 T7 85 -3.672
48 T7 86 -2.696
48 T7 87 0.234
48 T7 88 2.187
48 T7 89 0.234
48 T7 90 -3.672
48 T7 91 -7.090
48 T7 92 -7.090
48 T7 93 -3.184
48 T7 94 2.187
48 T7 95 5.605
48 T7 96 4.628
48 T7 97 0.722
48 T7 98 -4.161
48 T7 99 -6.114
48 T7 100 -5.625
48 T7 101 -2.696
48 T7 102 -0.254
48 T7 103 0.722
48 T7 104 1.211
48 T7 105 1.699
48 T7 106 2.187
48 T7 107 1.699
48 T7 108 -0.743
48 T7 109 -4.161
48 T7 110 -7.090
48 T7 111 -7.579
48 T7 112 -5.137
48 T7 113 -2.207
48 T7 114 -0.254
48 T7 115 0.234
48 T7 116 -0.743
48 T7 117 -0.743
48 T7 118 0.234
48 T7 119 2.187
48 T7 120 2.187
48 T7 121 0.722
48 T7 122 -1.719
48 T7 123 -2.696
48 T7 124 -2.207
48 T7 125 -1.231
48 T7 126 -1.231
48 T7 127 -2.696
48 T7 128 -5.625
48 T7 129 -8.067
48 T7 130 -9.532
48 T7 131 -9.043
48 T7 132 -9.043
48 T7 133 -9.532
48 T7 134 -11.485
48 T7 135 -12.461
48 T7 136 -12.461
48 T7 137 -10.020
48 T7 138 -6.114
48 T7 139 -3.184
48 T7 140 -2.207
48 T7 141 -3.672
48 T7 142 -5.625
48 T7 143 -5.137
48 T7 144 -2.207
48 T7 145 2.675
48 T7 146 6.093
48 T7 147 7.070
48 T7 148 5.117
48 T7 149 1.699
48 T7 150 -2.207
48 T7 151 -4.161
48 T7 152 -5.137
48 T7 153 -5.137
48 T7 154 -6.114
48 T7 155 -6.602
48 T7 156 -6.602
48 T7 157 -5.625
48 T7 158 -3.184
48 T7 159 -0.254
48 T7 160 1.699
48 T7 161 1.699
48 T7 162 -0.743
48 T7 163 -4.649
48 T7 164 -7.579
48 T7 165 -8.555
48 T7 166 -6.114
48 T7 167 -1.231
48 T7 168 2.675
48 T7 169 5.117
48 T7 170 5.605
48 T7 171 3.652
48 T7 172 1.699
48 T7 173 -0.254
48 T7 174 -2.696
48 T7 175 -4.649
48 T7 176 -6.602
48 T7 177 -7.579
48 T7 178 -6.114
48 T7 179 -3.672
48 T7 180 -1.231
48 T7 181 -0.743
48 T7 182 -1.719
48 T7 183 -3.184
48 T7 184 -3.672
48 T7 185 -2.696
48 T7 186 -1.719
48 T7 187 -1.231
48 T7 188 -2.696
48 T7 189 -5.137
48 T7 190 -7.090
48 T7 191 -8.067
48 T7 192 -7.090
48 T7 193 -5.625
48 T7 194 -3.672
48 T7 195 -2.207
48 T7 196 -2.207
48 T7 197 -2.696
48 T7 198 -3.672
48 T7 199 -4.649
48 T7 200 -5.137
48 T7 201 -4.649
48 T7 202 -4.649
48 T7 203 -4.161
48 T7 204 -4.649
48 T7 205 -5.137
48 T7 206 -4.649
48 T7 207 -4.161
48 T7 208 -4.161
48 T7 209 -4.161
48 T7 210 -4.161
48 T7 211 -3.672
48 T7 212 -3.184
48 T7 213 -2.207
48 T7 214 -2.207
48 T7 215 -3.184
48 T7 216 -3.184
48 T7 217 -2.696
48 T7 218 -0.254
48 T7 219 1.211
48 T7 220 1.699
48 T7 221 -0.254
48 T7 222 -3.184
48 T7 223 -5.625
48 T7 224 -6.114
48 T7 225 -5.625
48 T7 226 -4.649
48 T7 227 -3.672
48 T7 228 -3.672
48 T7 229 -2.207
48 T7 230 0.234
48 T7 231 3.652
48 T7 232 6.582
48 T7 233 7.070
48 T7 234 5.117
48 T7 235 2.187
48 T7 236 -0.254
48 T7 237 -0.254
48 T7 238 0.722
48 T7 239 2.675
48 T7 240 2.675
48 T7 241 1.211
48 T7 242 -0.743
48 T7 243 -2.207
48 T7 244 -1.719
48 T7 245 -0.743
48 T7 246 -0.254
48 T7 247 -0.254
48 T7 248 -1.231
48 T7 249 -2.207
48 T7 250 -2.207
48 T7 251 -2.207
48 T7 252 -1.719
48 T7 253 -1.719
48 T7 254 -1.719
48 T7 255 -1.231
# CZ chan 15
48 CZ 0 -2.686
48 CZ 1 -3.662
48 CZ 2 -3.662
48 CZ 3 -1.709
48 CZ 4 1.221
48 CZ 5 3.174
48 CZ 6 3.662
48 CZ 7 3.662
48 CZ 8 3.174
48 CZ 9 4.150
48 CZ 10 4.150
48 CZ 11 3.662
48 CZ 12 1.221
48 CZ 13 -0.732
48 CZ 14 -1.709
48 CZ 15 -1.221
48 CZ 16 0.244
48 CZ 17 1.709
48 CZ 18 1.221
48 CZ 19 -0.732
48 CZ 20 -3.174
48 CZ 21 -4.150
48 CZ 22 -2.686
48 CZ 23 0.244
48 CZ 24 3.174
48 CZ 25 5.615
48 CZ 26 6.592
48 CZ 27 5.615
48 CZ 28 4.150
48 CZ 29 2.197
48 CZ 30 1.221
48 CZ 31 1.221
48 CZ 32 1.709
48 CZ 33 2.197
48 CZ 34 2.197
48 CZ 35 0.244
48 CZ 36 -3.174
48 CZ 37 -7.568
48 CZ 38 -12.451
48 CZ 39 -17.822
48 CZ 40 -23.682
48 CZ 41 -28.564
48 CZ 42 -31.982
48 CZ 43 -33.936
48 CZ 44 -32.959
48 CZ 45 -29.541
48 CZ 46 -24.658
48 CZ 47 -18.799
48 CZ 48 -14.404
48 CZ 49 -10.986
48 CZ 50 -8.545
48 CZ 51 -7.568
48 CZ 52 -7.080
48 CZ 53 -7.080
48 CZ 54 -7.568
48 CZ 55 -7.568
48 CZ 56 -7.080
48 CZ 57 -5.615
48 CZ 58 -4.150
48 CZ 59 -3.174
48 CZ 60 -3.662
48 CZ 61 -4.639
48 CZ 62 -6.104
48 CZ 63 -6.592
48 CZ 64 -6.592
48 CZ 65 -6.592
48 CZ 66 -6.592
48 CZ 67 -6.592
48 CZ 68 -7.080
48 CZ 69 -7.568
48 CZ 70 -8.057
48 CZ 71 -9.521
48 CZ 72 -11.475
48 CZ 73 -13.428
48 CZ 74 -13.916
48 CZ 75 -12.939
48 CZ 76 -10.498
48 CZ 77 -8.057
48 CZ 78 -6.592
48 CZ 79 -6.592
48 CZ 80 -8.545
48 CZ 81 -10.986
48 CZ 82 -13.428
48 CZ 83 -15.381
48 CZ 84 -16.846
48 CZ 85 -16.846
48 CZ 86 -16.357
48 CZ 87 -15.381
48 CZ 88 -14.404
48 CZ 89 -13.428
48 CZ 90 -13.428
48 CZ 91 -13.916
48 CZ 92 -14.404
48 CZ 93 -14.893
48 CZ 94 -14.893
48 CZ 95 -14.893
48 CZ 96 -14.893
48 CZ 97 -15.869
48 CZ 98 -16.846
48 CZ 99 -17.822
48 CZ 100 -19.287
48 CZ 101 -20.264
48 CZ 102 -20.264
48 CZ 103 -19.775
48 CZ 104 -18.799
48 CZ 105 -17.822
48 CZ 106 -17.334
48 CZ 107 -17.822
48 CZ 108 -18.799
48 CZ 109 -20.752
48 CZ 110 -21.729
48 CZ 111 -21.729
48 CZ 112 -20.752
48 CZ 113 -19.287
48 CZ 114 -18.799
48 CZ 115 -18.799
48 CZ 116 -18.799
48 CZ 117 -18.311
48 CZ 118 -16.846
48 CZ 119 -14.404
48 CZ 120 -12.451
48 CZ 121 -11.963
48 CZ 122 -12.451
48 CZ 123 -13.428
48 CZ 124 -14.893
48 CZ 125 -15.869
48 CZ 126 -16.846
48 CZ 127 -18.311
48 CZ 128 -20.752
48 CZ 129 -22.217
48 CZ 130 -23.193
48 CZ 131 -22.217
48 CZ 132 -19.775
48 CZ 133 -17.822
48 CZ 134 -16.846
48 CZ 135 -17.334
48 CZ 136 -18.311
48 CZ 137 -19.287
48 CZ 138 -20.264
48 CZ 139 -20.752
48 CZ 140 -20.752
48 CZ 141 -20.264
48 CZ 142 -18.799
48 CZ 143 -15.869
48 CZ 144 -12.451
48 CZ 145 -10.498
48 CZ 146 -9.521
48 CZ 147 -10.010
48 CZ 148 -10.986
48 CZ 149 -11.475
48 CZ 150 -11.963
48 CZ 151 -11.963
48 CZ 152 -12.451
48 CZ 153 -14.404
48 CZ 154 -16.357
48 CZ 155 -17.822
48 CZ 156 -18.799
48 CZ 157 -18.311
48 CZ 158 -17.822
48 CZ 159 -17.334
48 CZ 160 -16.846
48 CZ 161 -16.357
48 CZ 162 -15.381
48 CZ 163 -13.428
48 CZ 164 -11.963
48 CZ 165 -10.498
48 CZ 166 -10.498
48 CZ 167 -10.986
48 CZ 168 -11.963
48 CZ 169 -12.451
48 CZ 170 -12.451
48 CZ 171 -12.451
48 CZ 172 -11.963
48 CZ 173 -11.475
48 CZ 174 -11.475
48 CZ 175 -11.475
48 CZ 176 -11.963
48 CZ 177 -12.451
48 CZ 178 -12.939
48 CZ 179 -13.428
48 CZ 180 -13.428
48 CZ 181 -13.916
48 CZ 182 -14.893
48 CZ 183 -15.869
48 CZ 184 -17.334
48 CZ 185 -17.334
48 CZ 186 -16.357
48 CZ 187 -15.381
48 CZ 188 -14.404
48 CZ 189 -14.404
48 CZ 190 -15.381
48 CZ 191 -16.846
48 CZ 192 -17.334
48 CZ 193 -16.846
48 CZ 194 -16.357
48 CZ 195 -17.334
48 CZ 196 -18.799
48 CZ 197 -21.240
48 CZ 198 -23.193
48 CZ 199 -23.193
48 CZ 200 -22.705
48 CZ 201 -21.729
48 CZ 202 -21.240
48 CZ 203 -21.729
48 CZ 204 -22.705
48 CZ 205 -23.682
48 CZ 206 -24.170
48 CZ 207 -24.170
48 CZ 208 -24.170
48 CZ 209 -24.658
48 CZ 210 -24.170
48 CZ 211 -23.682
48 CZ 212 -21.729
48 CZ 213 -19.775
48 CZ 214 -18.311
48 CZ 215 -18.311
48 CZ 216 -19.287
48 CZ 217 -20.752
48 CZ 218 -21.729
48 CZ 219 -22.217
48 CZ 220 -21.729
48 CZ 221 -20.752
48 CZ 222 -18.799
48 CZ 223 -16.357
48 CZ 224 -13.916
48 CZ 225 -12.939
48 CZ 226 -14.404
48 CZ 227 -17.822
48 CZ 228 -20.752
48 CZ 229 -22.705
48 CZ 230 -21.729
48 CZ 231 -18.799
48 CZ 232 -16.846
48 CZ 233 -15.869
48 CZ 234 -17.822
48 CZ 235 -21.729
48 CZ 236 -27.100
48 CZ 237 -31.982
48 CZ 238 -35.400
48 CZ 239 -36.865
48 CZ 240 -34.912
48 CZ 241 -30.518
48 CZ 242 -25.146
48 CZ 243 -20.264
48 CZ 244 -17.822
48 CZ 245 -17.334
48 CZ 246 -17.822
48 CZ 247 -18.311
48 CZ 248 -18.799
48 CZ 249 -20.752
48 CZ 250 -23.682
48 CZ 251 -28.076
48 CZ 252 -30.518
48 CZ 253 -31.006
48 CZ 254 -28.564
48 CZ 255 -24.658
# C3 chan 16
48 C3 0 -0.366
48 C3 1 -1.343
48 C3 2 -1.831
48 C3 3 -0.854
48 C3 4 0.610
48 C3 5 1.587
48 C3 6 2.075
48 C3 7 1.587
48 C3 8 0.122
48 C3 9 -0.854
48 C3 10 -1.343
48 C3 11 -0.854
48 C3 12 0.610
48 C3 13 1.099
48 C3 14 1.587
48 C3 15 0.610
48 C3 16 -0.366
48 C3 17 -1.343
48 C3 18 -1.831
48 C3 19 -1.831
48 C3 20 -1.343
48 C3 21 -0.366
48 C3 22 0.610
48 C3 23 0.610
48 C3 24 0.122
48 C3 25 -0.854
48 C3 26 -1.343
48 C3 27 -1.831
48 C3 28 -1.343
48 C3 29 -0.854
48 C3 30 -0.854
48 C3 31 -0.854
48 C3 32 -0.854
48 C3 33 -0.854
48 C3 34 -0.366
48 C3 35 1.099
48 C3 36 2.075
48 C3 37 2.563
48 C3 38 2.075
48 C3 39 1.099
48 C3 40 -0.854
48 C3 41 -2.319
48 C3 42 -4.272
48 C3 43 -4.761
48 C3 44 -5.249
48 C3 45 -5.249
48 C3 46 -4.761
48 C3 47 -4.761
48 C3 48 -4.272
48 C3 49 -3.784
48 C3 50 -3.784
48 C3 51 -2.808
48 C3 52 -2.319
48 C3 53 -1.831
48 C3 54 -1.831
48 C3 55 -2.319
48 C3 56 -1.831
48 C3 57 -1.831
48 C3 58 -1.343
48 C3 59 -0.854
48 C3 60 -0.366
48 C3 61 -0.366
48 C3 62 -0.854
48 C3 63 -1.831
48 C3 64 -2.808
48 C3 65 -3.784
48 C3 66 -4.272
48 C3 67 -3.784
48 C3 68 -3.296
48 C3 69 -2.808
48 C3 70 -2.808
48 C3 71 -2.319
48 C3 72 -1.831
48 C3 73 -1.343
48 C3 74 -0.854
48 C3 75 -0.366
48 C3 76 -0.366
48 C3 77 0.122
48 C3 78 1.099
48 C3 79 3.540
48 C3 80 5.005
48 C3 81 5.493
48 C3 82 4.028
48 C3 83 1.587
48 C3 84 -0.366
48 C3 85 -1.831
48 C3 86 -1.831
48 C3 87 -1.343
48 C3 88 -1.831
48 C3 89 -2.808
48 C3 90 -4.272
48 C3 91 -4.761
48 C3 92 -3.296
48 C3 93 -1.343
48 C3 94 0.610
48 C3 95 1.099
48 C3 96 0.610
48 C3 97 -0.366
48 C3 98 -0.854
48 C3 99 -1.343
48 C3 100 -0.854
48 C3 101 -0.366
48 C3 102 0.122
48 C3 103 1.099
48 C3 104 1.587
48 C3 105 1.587
48 C3 106 1.099
48 C3 107 -0.854
48 C3 108 -2.808
48 C3 109 -4.272
48 C3 110 -5.249
48 C3 111 -4.272
48 C3 112 -3.296
48 C3 113 -1.831
48 C3 114 -1.343
48 C3 115 -1.343
48 C3 116 -1.343
48 C3 117 -0.854
48 C3 118 0.122
48 C3 119 1.099
48 C3 120 1.099
48 C3 121 1.099
48 C3 122 0.610
48 C3 123 0.610
48 C3 124 1.099
48 C3 125 1.099
48 C3 126 0.122
48 C3 127 -1.343
48 C3 128 -3.296
48 C3 129 -4.761
48 C3 130 -5.249
48 C3 131 -5.737
48 C3 132 -5.737
48 C3 133 -6.226
48 C3 134 -6.226
48 C3 135 -6.226
48 C3 136 -5.737
48 C3 137 -4.761
48 C3 138 -3.784
48 C3 139 -2.808
48 C3 140 -2.319
48 C3 141 -1.831
48 C3 142 -1.831
48 C3 143 -0.854
48 C3 144 0.610
48 C3 145 2.075
48 C3 146 3.540
48 C3 147 4.028
48 C3 148 4.028
48 C3 149 3.052
48 C3 150 1.099
48 C3 151 -0.366
48 C3 152 -2.319
48 C3 153 -3.296
48 C3 154 -3.784
48 C3 155 -3.784
48 C3 156 -3.296
48 C3 157 -2.808
48 C3 158 -2.319
48 C3 159 -0.854
48 C3 160 0.122
48 C3 161 1.099
48 C3 162 1.099
48 C3 163 0.122
48 C3 164 -0.366
48 C3 165 -0.366
48 C3 166 0.610
48 C3 167 2.563
48 C3 168 4.028
48 C3 169 5.005
48 C3 170 4.028
48 C3 171 3.052
48 C3 172 1.099
48 C3 173 -0.854
48 C3 174 -2.319
48 C3 175 -3.296
48 C3 176 -3.784
48 C3 177 -3.784
48 C3 178 -2.808
48 C3 179 -1.831
48 C3 180 -1.343
48 C3 181 -1.343
48 C3 182 -1.343
48 C3 183 -1.343
48 C3 184 -0.854
48 C3 185 -0.366
48 C3 186 0.122
48 C3 187 -0.366
48 C3 188 -1.343
48 C3 189 -2.319
48 C3 190 -2.808
48 C3 191 -2.319
48 C3 192 -1.343
48 C3 193 -0.854
48 C3 194 -0.366
48 C3 195 -0.854
48 C3 196 -1.831
48 C3 197 -3.296
48 C3 198 -3.784
48 C3 199 -4.272
48 C3 200 -3.296
48 C3 201 -2.319
48 C3 202 -2.319
48 C3 203 -2.319
48 C3 204 -2.319
48 C3 205 -2.808
48 C3 206 -2.808
48 C3 207 -2.808
48 C3 208 -2.319
48 C3 209 -2.808
48 C3 210 -2.808
48 C3 211 -2.319
48 C3 212 -1.831
48 C3 213 -1.343
48 C3 214 -0.854
48 C3 215 -0.854
48 C3 216 -1.343
48 C3 217 -1.831
48 C3 218 -2.319
48 C3 219 -2.319
48 C3 220 -2.808
48 C3 221 -2.808
48 C3 222 -3.296
48 C3 223 -3.296
48 C3 224 -2.808
48 C3 225 -1.831
48 C3 226 -1.343
48 C3 227 -1.831
48 C3 228 -2.319
48 C3 229 -2.808
48 C3 230 -2.319
48 C3 231 -0.854
48 C3 232 0.610
48 C3 233 1.587
48 C3 234 1.587
48 C3 235 1.099
48 C3 236 0.610
48 C3 237 0.610
48 C3 238 0.610
48 C3 239 0.610
48 C3 240 -0.366
48 C3 241 -1.343
48 C3 242 -2.319
48 C3 243 -3.296
48 C3 244 -3.296
48 C3 245 -3.296
48 C3 246 -2.808
48 C3 247 -2.319
48 C3 248 -1.831
48 C3 249 -1.343
48 C3 250 -1.343
48 C3 251 -1.831
48 C3 252 -2.319
48 C3 253 -1.831
48 C3 254 -1.831
48 C3 255 -1.343
# C4 chan 17
48 C4 0 3.581
48 C4 1 4.557
48 C4 2 5.046
48 C4 3 3.581
48 C4 4 2.116
48 C4 5 0.163
48 C4 6 0.163
48 C4 7 0.651
48 C4 8 1.139
48 C4 9 -0.326
48 C4 10 -3.743
48 C4 11 -7.650
48 C4 12 -11.068
48 C4 13 -11.556
48 C4 14 -9.603
48 C4 15 -4.720
48 C4 16 1.139
48 C4 17 5.534
48 C4 18 7.487
48 C4 19 6.999
48 C4 20 4.557
48 C4 21 3.092
48 C4 22 1.628
48 C4 23 1.139
48 C4 24 1.628
48 C4 25 2.116
48 C4 26 1.628
48 C4 27 1.139
48 C4 28 0.651
48 C4 29 0.163
48 C4 30 -0.814
48 C4 31 -1.302
48 C4 32 -2.767
48 C4 33 -5.208
48 C4 34 -7.650
48 C4 35 -9.115
48 C4 36 -9.603
48 C4 37 -8.138
48 C4 38 -5.697
48 C4 39 -2.767
48 C4 40 0.163
48 C4 41 1.628
48 C4 42 1.628
48 C4 43 1.628
48 C4 44 1.628
48 C4 45 2.116
48 C4 46 2.604
48 C4 47 2.604
48 C4 48 1.628
48 C4 49 0.163
48 C4 50 -0.814
48 C4 51 -0.814
48 C4 52 0.651
48 C4 53 1.139
48 C4 54 1.139
48 C4 55 -1.302
48 C4 56 -4.232
48 C4 57 -6.673
48 C4 58 -7.650
48 C4 59 -7.161
48 C4 60 -4.720
48 C4 61 -1.302
48 C4 62 2.604
48 C4 63 6.022
48 C4 64 7.975
48 C4 65 8.464
48 C4 66 6.999
48 C4 67 5.046
48 C4 68 3.092
48 C4 69 2.116
48 C4 70 1.139
48 C4 71 0.651
48 C4 72 -0.326
48 C4 73 -0.814
48 C4 74 0.163
48 C4 75 1.628
48 C4 76 2.604
48 C4 77 1.628
48 C4 78 -1.302
48 C4 79 -5.697
48 C4 80 -8.626
48 C4 81 -9.115
48 C4 82 -5.697
48 C4 83 0.163
48 C4 84 5.534
48 C4 85 9.440
48 C4 86 10.417
48 C4 87 9.440
48 C4 88 6.999
48 C4 89 6.510
48 C4 90 6.022
48 C4 91 5.534
48 C4 92 4.069
48 C4 93 2.116
48 C4 94 -0.326
48 C4 95 -1.790
48 C4 96 -2.279
48 C4 97 -2.279
48 C4 98 -1.790
48 C4 99 -1.790
48 C4 100 -3.255
48 C4 101 -5.697
48 C4 102 -8.626
48 C4 103 -10.579
48 C4 104 -11.068
48 C4 105 -9.115
48 C4 106 -5.208
48 C4 107 -0.326
48 C4 108 3.581
48 C4 109 6.022
48 C4 110 6.022
48 C4 111 5.046
48 C4 112 3.092
48 C4 113 2.116
48 C4 114 1.139
48 C4 115 1.139
48 C4 116 0.651
48 C4 117 0.163
48 C4 118 0.163
48 C4 119 1.139
48 C4 120 2.604
48 C4 121 3.581
48 C4 122 3.092
48 C4 123 0.163
48 C4 124 -2.767
48 C4 125 -5.208
48 C4 126 -5.208
48 C4 127 -2.767
48 C4 128 1.139
48 C4 129 5.046
48 C4 130 6.999
48 C4 131 7.487
48 C4 132 6.510
48 C4 133 5.534
48 C4 134 5.046
48 C4 135 4.069
48 C4 136 3.092
48 C4 137 1.628
48 C4 138 0.651
48 C4 139 0.163
48 C4 140 0.651
48 C4 141 2.604
48 C4 142 4.069
48 C4 143 5.046
48 C4 144 4.557
48 C4 145 3.581
48 C4 146 1.628
48 C4 147 -0.814
48 C4 148 -2.767
48 C4 149 -4.232
48 C4 150 -4.232
48 C4 151 -2.279
48 C4 152 -0.326
48 C4 153 2.116
48 C4 154 3.092
48 C4 155 3.581
48 C4 156 3.581
48 C4 157 3.092
48 C4 158 2.116
48 C4 159 1.628
48 C4 160 1.139
48 C4 161 1.628
48 C4 162 3.092
48 C4 163 4.069
48 C4 164 5.046
48 C4 165 5.046
48 C4 166 4.069
48 C4 167 2.604
48 C4 168 1.139
48 C4 169 -0.326
48 C4 170 -1.790
48 C4 171 -3.255
48 C4 172 -4.232
48 C4 173 -4.232
48 C4 174 -3.255
48 C4 175 -0.814
48 C4 176 2.116
48 C4 177 4.557
48 C4 178 6.022
48 C4 179 5.534
48 C4 180 4.557
48 C4 181 3.092
48 C4 182 2.116
48 C4 183 1.139
48 C4 184 1.139
48 C4 185 1.139
48 C4 186 0.651
48 C4 187 0.163
48 C4 188 -0.326
48 C4 189 -0.326
48 C4 190 -0.814
48 C4 191 -1.302
48 C4 192 -1.790
48 C4 193 -1.790
48 C4 194 -1.790
48 C4 195 -0.814
48 C4 196 0.163
48 C4 197 1.139
48 C4 198 2.116
48 C4 199 2.604
48 C4 200 3.092
48 C4 201 3.581
48 C4 202 2.604
48 C4 203 2.116
48 C4 204 0.651
48 C4 205 0.163
48 C4 206 0.651
48 C4 207 2.116
48 C4 208 3.581
48 C4 209 4.557
48 C4 210 4.069
48 C4 211 2.116
48 C4 212 -0.326
48 C4 213 -2.767
48 C4 214 -4.232
48 C4 215 -4.720
48 C4 216 -3.255
48 C4 217 -0.814
48 C4 218 1.628
48 C4 219 3.581
48 C4 220 5.046
48 C4 221 5.534
48 C4 222 5.046
48 C4 223 4.557
48 C4 224 3.092
48 C4 225 1.628
48 C4 226 -0.326
48 C4 227 -1.790
48 C4 228 -1.790
48 C4 229 -0.326
48 C4 230 1.628
48 C4 231 3.092
48 C4 232 3.092
48 C4 233 1.628
48 C4 234 -0.814
48 C4 235 -3.255
48 C4 236 -5.208
48 C4 237 -6.673
48 C4 238 -5.697
48 C4 239 -4.232
48 C4 240 -1.302
48 C4 241 1.139
48 C4 242 3.092
48 C4 243 3.092
48 C4 244 2.604
48 C4 245 1.628
48 C4 246 1.139
48 C4 247 0.651
48 C4 248 1.139
48 C4 249 1.139
48 C4 250 0.651
48 C4 251 0.163
48 C4 252 0.163
48 C4 253 0.163
48 C4 254 0.651
48 C4 255 0.651
# CP5 chan 18
48 CP5 0 0.559
48 CP5 1 -0.417
48 CP5 2 -0.905
48 CP5 3 -0.905
48 CP5 4 1.048
48 CP5 5 2.513
48 CP5 6 3.489
48 CP5 7 3.001
48 CP5 8 2.024
48 CP5 9 0.559
48 CP5 10 0.071
48 CP5 11 0.559
48 CP5 12 1.048
48 CP5 13 2.024
48 CP5 14 2.024
48 CP5 15 1.048
48 CP5 16 -0.417
48 CP5 17 -1.882
48 CP5 18 -2.858
48 CP5 19 -2.858
48 CP5 20 -2.370
48 CP5 21 -1.882
48 CP5 22 -1.394
48 CP5 23 -1.882
48 CP5 24 -2.370
48 CP5 25 -3.347
48 CP5 26 -4.323
48 CP5 27 -4.323
48 CP5 28 -3.835
48 CP5 29 -2.858
48 CP5 30 -2.370
48 CP5 31 -2.370
48 CP5 32 -1.882
48 CP5 33 -1.394
48 CP5 34 -0.417
48 CP5 35 1.048
48 CP5 36 2.024
48 CP5 37 3.489
48 CP5 38 4.466
48 CP5 39 4.466
48 CP5 40 3.001
48 CP5 41 1.536
48 CP5 42 -0.417
48 CP5 43 -2.370
48 CP5 44 -3.347
48 CP5 45 -4.812
48 CP5 46 -6.276
48 CP5 47 -7.253
48 CP5 48 -7.741
48 CP5 49 -6.765
48 CP5 50 -5.300
48 CP5 51 -3.347
48 CP5 52 -1.882
48 CP5 53 -1.394
48 CP5 54 -2.370
48 CP5 55 -2.370
48 CP5 56 -1.882
48 CP5 57 -1.394
48 CP5 58 0.071
48 CP5 59 0.559
48 CP5 60 0.071
48 CP5 61 -0.417
48 CP5 62 -1.394
48 CP5 63 -2.370
48 CP5 64 -3.347
48 CP5 65 -4.323
48 CP5 66 -4.323
48 CP5 67 -4.323
48 CP5 68 -3.347
48 CP5 69 -2.858
48 CP5 70 -2.370
48 CP5 71 -2.370
48 CP5 72 -1.882
48 CP5 73 -1.394
48 CP5 74 -0.905
48 CP5 75 -0.417
48 CP5 76 0.071
48 CP5 77 0.559
48 CP5 78 2.513
48 CP5 79 5.442
48 CP5 80 7.884
48 CP5 81 8.372
48 CP5 82 6.907
48 CP5 83 3.977
48 CP5 84 1.048
48 CP5 85 -0.417
48 CP5 86 0.071
48 CP5 87 0.559
48 CP5 88 0.071
48 CP5 89 -1.394
48 CP5 90 -3.835
48 CP5 91 -4.812
48 CP5 92 -3.835
48 CP5 93 -1.394
48 CP5 94 1.048
48 CP5 95 2.024
48 CP5 96 1.536
48 CP5 97 0.071
48 CP5 98 -0.905
48 CP5 99 -1.882
48 CP5 100 -1.394
48 CP5 101 0.071
48 CP5 102 1.536
48 CP5 103 3.001
48 CP5 104 4.466
48 CP5 105 4.466
48 CP5 106 3.977
48 CP5 107 2.024
48 CP5 108 -0.417
48 CP5 109 -2.370
48 CP5 110 -3.347
48 CP5 111 -2.858
48 CP5 112 -2.370
48 CP5 113 -0.905
48 CP5 114 0.071
48 CP5 115 1.048
48 CP5 116 2.513
48 CP5 117 3.489
48 CP5 118 3.977
48 CP5 119 3.977
48 CP5 120 3.489
48 CP5 121 3.001
48 CP5 122 3.001
48 CP5 123 3.489
48 CP5 124 3.977
48 CP5 125 3.489
48 CP5 126 1.536
48 CP5 127 -0.905
48 CP5 128 -2.858
48 CP5 129 -4.812
48 CP5 130 -5.788
48 CP5 131 -5.788
48 CP5 132 -6.276
48 CP5 133 -6.276
48 CP5 134 -6.276
48 CP5 135 -5.300
48 CP5 136 -4.323
48 CP5 137 -2.858
48 CP5 138 -1.882
48 CP5 139 -1.882
48 CP5 140 -1.882
48 CP5 141 -1.394
48 CP5 142 0.071
48 CP5 143 2.024
48 CP5 144 4.466
48 CP5 145 6.419
48 CP5 146 7.395
48 CP5 147 6.419
48 CP5 148 4.954
48 CP5 149 2.513
48 CP5 150 0.071
48 CP5 151 -1.394
48 CP5 152 -2.370
48 CP5 153 -2.370
48 CP5 154 -1.394
48 CP5 155 -0.905
48 CP5 156 -1.394
48 CP5 157 -1.882
48 CP5 158 -2.858
48 CP5 159 -2.370
48 CP5 160 -1.882
48 CP5 161 0.071
48 CP5 162 0.559
48 CP5 163 0.559
48 CP5 164 -0.417
48 CP5 165 -1.394
48 CP5 166 -0.905
48 CP5 167 1.048
48 CP5 168 3.489
48 CP5 169 5.442
48 CP5 170 5.931
48 CP5 171 4.466
48 CP5 172 2.024
48 CP5 173 -0.905
48 CP5 174 -2.370
48 CP5 175 -3.347
48 CP5 176 -2.858
48 CP5 177 -2.370
48 CP5 178 -1.882
48 CP5 179 -1.882
48 CP5 180 -2.370
48 CP5 181 -2.858
48 CP5 182 -3.347
48 CP5 183 -2.858
48 CP5 184 -1.882
48 CP5 185 -1.394
48 CP5 186 -0.905
48 CP5 187 -1.394
48 CP5 188 -1.882
48 CP5 189 -2.370
48 CP5 190 -1.882
48 CP5 191 -0.905
48 CP5 192 0.071
48 CP5 193 0.071
48 CP5 194 -0.417
48 CP5 195 -1.882
48 CP5 196 -3.347
48 CP5 197 -4.323
48 CP5 198 -4.812
48 CP5 199 -4.323
48 CP5 200 -3.835
48 CP5 201 -2.858
48 CP5 202 -2.858
48 CP5 203 -2.858
48 CP5 204 -3.835
48 CP5 205 -4.812
48 CP5 206 -5.300
48 CP5 207 -4.812
48 CP5 208 -3.835
48 CP5 209 -3.347
48 CP5 210 -2.370
48 CP5 211 -1.882
48 CP5 212 -1.882
48 CP5 213 -2.370
48 CP5 214 -2.370
48 CP5 215 -2.858
48 CP5 216 -2.370
48 CP5 217 -1.882
48 CP5 218 -1.882
48 CP5 219 -2.370
48 CP5 220 -3.835
48 CP5 221 -5.300
48 CP5 222 -6.765
48 CP5 223 -6.765
48 CP5 224 -5.788
48 CP5 225 -4.812
48 CP5 226 -4.323
48 CP5 227 -4.812
48 CP5 228 -5.300
48 CP5 229 -5.300
48 CP5 230 -3.347
48 CP5 231 -1.394
48 CP5 232 0.559
48 CP5 233 2.024
48 CP5 234 2.024
48 CP5 235 2.024
48 CP5 236 2.024
48 CP5 237 2.513
48 CP5 238 3.489
48 CP5 239 3.001
48 CP5 240 1.048
48 CP5 241 -1.882
48 CP5 242 -5.300
48 CP5 243 -7.741
48 CP5 244 -9.206
48 CP5 245 -9.206
48 CP5 246 -7.741
48 CP5 247 -5.300
48 CP5 248 -3.347
48 CP5 249 -2.370
48 CP5 250 -2.858
48 CP5 251 -4.323
48 CP5 252 -5.788
48 CP5 253 -5.788
48 CP5 254 -4.812
48 CP5 255 -3.347
# CP6 chan 19
48 CP6 0 0.763
48 CP6 1 2.228
48 CP6 2 2.716
48 CP6 3 1.740
48 CP6 4 0.275
48 CP6 5 -0.214
48 CP6 6 -0.214
48 CP6 7 1.251
48 CP6 8 2.228
48 CP6 9 1.740
48 CP6 10 -0.214
48 CP6 11 -1.678
48 CP6 12 -2.655
48 CP6 13 -1.678
48 CP6 14 0.275
48 CP6 15 3.204
48 CP6 16 5.646
48 CP6 17 6.134
48 CP6 18 5.157
48 CP6 19 3.204
48 CP6 20 0.275
48 CP6 21 -2.655
48 CP6 22 -4.120
48 CP6 23 -4.608
48 CP6 24 -4.120
48 CP6 25 -3.143
48 CP6 26 -2.167
48 CP6 27 -1.678
48 CP6 28 -1.678
48 CP6 29 -1.678
48 CP6 30 -1.678
48 CP6 31 -1.678
48 CP6 32 -1.678
48 CP6 33 -2.167
48 CP6 34 -3.143
48 CP6 35 -3.632
48 CP6 36 -2.655
48 CP6 37 -1.190
48 CP6 38 0.763
48 CP6 39 1.251
48 CP6 40 0.275
48 CP6 41 -0.702
48 CP6 42 -2.167
48 CP6 43 -2.655
48 CP6 44 -2.167
48 CP6 45 -1.190
48 CP6 46 -0.214
48 CP6 47 -0.702
48 CP6 48 -1.190
48 CP6 49 -1.190
48 CP6 50 -0.702
48 CP6 51 0.275
48 CP6 52 1.740
48 CP6 53 2.228
48 CP6 54 1.740
48 CP6 55 0.763
48 CP6 56 -0.214
48 CP6 57 -1.190
48 CP6 58 -1.678
48 CP6 59 -1.678
48 CP6 60 -1.190
48 CP6 61 0.275
48 CP6 62 2.228
48 CP6 63 4.181
48 CP6 64 5.157
48 CP6 65 5.157
48 CP6 66 3.693
48 CP6 67 1.251
48 CP6 68 -0.214
48 CP6 69 -1.190
48 CP6 70 -1.190
48 CP6 71 -1.190
48 CP6 72 -0.702
48 CP6 73 0.763
48 CP6 74 2.228
48 CP6 75 4.669
48 CP6 76 7.111
48 CP6 77 7.599
48 CP6 78 6.134
48 CP6 79 3.693
48 CP6 80 0.763
48 CP6 81 -0.214
48 CP6 82 0.763
48 CP6 83 3.693
48 CP6 84 7.111
48 CP6 85 9.064
48 CP6 86 9.064
48 CP6 87 8.087
48 CP6 88 6.134
48 CP6 89 5.157
48 CP6 90 4.181
48 CP6 91 2.716
48 CP6 92 0.763
48 CP6 93 -1.190
48 CP6 94 -3.143
48 CP6 95 -3.143
48 CP6 96 -2.167
48 CP6 97 -0.214
48 CP6 98 1.251
48 CP6 99 1.251
48 CP6 100 0.275
48 CP6 101 -0.702
48 CP6 102 -1.678
48 CP6 103 -2.167
48 CP6 104 -1.190
48 CP6 105 0.275
48 CP6 106 2.228
48 CP6 107 3.693
48 CP6 108 5.157
48 CP6 109 5.157
48 CP6 110 4.669
48 CP6 111 3.693
48 CP6 112 1.740
48 CP6 113 0.275
48 CP6 114 -0.214
48 CP6 115 -0.702
48 CP6 116 -0.702
48 CP6 117 -0.214
48 CP6 118 1.740
48 CP6 119 3.693
48 CP6 120 5.646
48 CP6 121 7.599
48 CP6 122 7.599
48 CP6 123 6.622
48 CP6 124 4.669
48 CP6 125 2.228
48 CP6 126 1.251
48 CP6 127 0.763
48 CP6 128 1.740
48 CP6 129 2.716
48 CP6 130 3.204
48 CP6 131 3.204
48 CP6 132 3.204
48 CP6 133 3.204
48 CP6 134 3.693
48 CP6 135 3.204
48 CP6 136 2.228
48 CP6 137 0.763
48 CP6 138 0.275
48 CP6 139 0.275
48 CP6 140 1.251
48 CP6 141 2.716
48 CP6 142 4.181
48 CP6 143 5.157
48 CP6 144 6.134
48 CP6 145 6.134
48 CP6 146 5.646
48 CP6 147 4.181
48 CP6 148 2.228
48 CP6 149 0.763
48 CP6 150 0.275
48 CP6 151 1.251
48 CP6 152 2.228
48 CP6 153 3.204
48 CP6 154 2.716
48 CP6 155 2.228
48 CP6 156 1.251
48 CP6 157 0.763
48 CP6 158 0.275
48 CP6 159 -0.214
48 CP6 160 -0.702
48 CP6 161 -0.214
48 CP6 162 1.251
48 CP6 163 3.693
48 CP6 164 5.157
48 CP6 165 6.134
48 CP6 166 5.646
48 CP6 167 4.669
48 CP6 168 3.693
48 CP6 169 3.204
48 CP6 170 2.716
48 CP6 171 1.740
48 CP6 172 0.763
48 CP6 173 -0.214
48 CP6 174 -0.214
48 CP6 175 1.251
48 CP6 176 3.204
48 CP6 177 4.669
48 CP6 178 5.157
48 CP6 179 4.181
48 CP6 180 2.716
48 CP6 181 0.763
48 CP6 182 -1.190
48 CP6 183 -1.678
48 CP6 184 -2.167
48 CP6 185 -1.190
48 CP6 186 -0.702
48 CP6 187 0.275
48 CP6 188 1.251
48 CP6 189 1.251
48 CP6 190 1.251
48 CP6 191 1.251
48 CP6 192 1.251
48 CP6 193 1.251
48 CP6 194 1.251
48 CP6 195 1.251
48 CP6 196 0.763
48 CP6 197 0.763
48 CP6 198 0.763
48 CP6 199 1.740
48 CP6 200 2.228
48 CP6 201 2.228
48 CP6 202 1.251
48 CP6 203 -0.214
48 CP6 204 -1.678
48 CP6 205 -2.167
48 CP6 206 -1.678
48 CP6 207 -0.214
48 CP6 208 1.251
48 CP6 209 2.228
48 CP6 210 2.228
48 CP6 211 1.740
48 CP6 212 0.763
48 CP6 213 0.275
48 CP6 214 -0.702
48 CP6 215 -1.190
48 CP6 216 -0.702
48 CP6 217 -0.702
48 CP6 218 0.275
48 CP6 219 0.275
48 CP6 220 0.275
48 CP6 221 0.763
48 CP6 222 1.251
48 CP6 223 1.740
48 CP6 224 1.251
48 CP6 225 -0.702
48 CP6 226 -3.143
48 CP6 227 -5.096
48 CP6 228 -5.096
48 CP6 229 -3.143
48 CP6 230 0.275
48 CP6 231 3.204
48 CP6 232 4.181
48 CP6 233 3.693
48 CP6 234 2.228
48 CP6 235 0.275
48 CP6 236 -2.167
48 CP6 237 -3.632
48 CP6 238 -4.608
48 CP6 239 -4.608
48 CP6 240 -3.143
48 CP6 241 -1.678
48 CP6 242 -0.214
48 CP6 243 -0.214
48 CP6 244 -1.678
48 CP6 245 -3.143
48 CP6 246 -3.143
48 CP6 247 -2.655
48 CP6 248 -1.190
48 CP6 249 -0.214
48 CP6 250 -0.214
48 CP6 251 -1.190
48 CP6 252 -1.678
48 CP6 253 -1.678
48 CP6 254 -0.702
48 CP6 255 1.251
# CP1 chan 20
48 CP1 0 -1.241
48 CP1 1 -1.241
48 CP1 2 -0.753
48 CP1 3 -0.264
48 CP1 4 0.712
48 CP1 5 1.200
48 CP1 6 1.689
48 CP1 7 2.177
48 CP1 8 1.200
48 CP1 9 0.224
48 CP1 10 -0.264
48 CP1 11 -0.264
48 CP1 12 0.224
48 CP1 13 1.200
48 CP1 14 1.200
48 CP1 15 0.224
48 CP1 16 -1.241
48 CP1 17 -2.706
48 CP1 18 -3.682
48 CP1 19 -3.682
48 CP1 20 -3.194
48 CP1 21 -3.194
48 CP1 22 -3.194
48 CP1 23 -3.682
48 CP1 24 -4.171
48 CP1 25 -4.659
48 CP1 26 -4.171
48 CP1 27 -4.171
48 CP1 28 -4.171
48 CP1 29 -3.682
48 CP1 30 -2.706
48 CP1 31 -2.218
48 CP1 32 -1.241
48 CP1 33 -0.753
48 CP1 34 -0.264
48 CP1 35 -0.264
48 CP1 36 0.712
48 CP1 37 1.689
48 CP1 38 2.665
48 CP1 39 2.665
48 CP1 40 1.689
48 CP1 41 0.712
48 CP1 42 -0.753
48 CP1 43 -1.241
48 CP1 44 -1.241
48 CP1 45 -1.241
48 CP1 46 -1.729
48 CP1 47 -2.706
48 CP1 48 -3.682
48 CP1 49 -3.682
48 CP1 50 -3.194
48 CP1 51 -2.218
48 CP1 52 -1.729
48 CP1 53 -1.241
48 CP1 54 -0.753
48 CP1 55 -0.753
48 CP1 56 -0.753
48 CP1 57 -0.753
48 CP1 58 -0.753
48 CP1 59 -0.753
48 CP1 60 -1.241
48 CP1 61 -1.241
48 CP1 62 -1.241
48 CP1 63 -1.241
48 CP1 64 -2.218
48 CP1 65 -2.706
48 CP1 66 -3.682
48 CP1 67 -4.659
48 CP1 68 -4.659
48 CP1 69 -4.171
48 CP1 70 -3.682
48 CP1 71 -2.706
48 CP1 72 -1.729
48 CP1 73 -0.753
48 CP1 74 -0.753
48 CP1 75 -0.753
48 CP1 76 -1.241
48 CP1 77 -1.241
48 CP1 78 0.224
48 CP1 79 1.689
48 CP1 80 3.153
48 CP1 81 3.642
48 CP1 82 3.153
48 CP1 83 1.689
48 CP1 84 0.712
48 CP1 85 0.224
48 CP1 86 -0.264
48 CP1 87 -0.753
48 CP1 88 -1.729
48 CP1 89 -2.706
48 CP1 90 -4.171
48 CP1 91 -4.171
48 CP1 92 -3.682
48 CP1 93 -3.194
48 CP1 94 -1.729
48 CP1 95 -0.753
48 CP1 96 -1.241
48 CP1 97 -1.729
48 CP1 98 -2.218
48 CP1 99 -3.194
48 CP1 100 -2.706
48 CP1 101 -1.729
48 CP1 102 -0.264
48 CP1 103 0.712
48 CP1 104 2.177
48 CP1 105 2.177
48 CP1 106 1.689
48 CP1 107 0.224
48 CP1 108 -1.729
48 CP1 109 -2.706
48 CP1 110 -3.682
48 CP1 111 -3.682
48 CP1 112 -3.194
48 CP1 113 -2.706
48 CP1 114 -1.729
48 CP1 115 -1.241
48 CP1 116 -0.264
48 CP1 117 0.224
48 CP1 118 1.200
48 CP1 119 1.689
48 CP1 120 1.689
48 CP1 121 2.177
48 CP1 122 2.177
48 CP1 123 2.665
48 CP1 124 3.153
48 CP1 125 3.153
48 CP1 126 2.177
48 CP1 127 0.224
48 CP1 128 -1.241
48 CP1 129 -2.218
48 CP1 130 -2.706
48 CP1 131 -3.682
48 CP1 132 -3.682
48 CP1 133 -3.194
48 CP1 134 -2.218
48 CP1 135 -1.241
48 CP1 136 -1.241
48 CP1 137 -0.753
48 CP1 138 -0.264
48 CP1 139 -0.264
48 CP1 140 -0.264
48 CP1 141 -0.264
48 CP1 142 0.224
48 CP1 143 0.712
48 CP1 144 1.689
48 CP1 145 2.665
48 CP1 146 3.153
48 CP1 147 3.153
48 CP1 148 2.665
48 CP1 149 1.200
48 CP1 150 0.224
48 CP1 151 -0.753
48 CP1 152 -1.241
48 CP1 153 -1.241
48 CP1 154 -0.753
48 CP1 155 -0.264
48 CP1 156 0.224
48 CP1 157 -0.264
48 CP1 158 -0.753
48 CP1 159 -0.753
48 CP1 160 -0.753
48 CP1 161 -0.264
48 CP1 162 -0.264
48 CP1 163 -0.264
48 CP1 164 -0.264
48 CP1 165 -0.753
48 CP1 166 -0.753
48 CP1 167 -0.264
48 CP1 168 1.200
48 CP1 169 2.177
48 CP1 170 2.665
48 CP1 171 2.177
48 CP1 172 0.712
48 CP1 173 -0.753
48 CP1 174 -2.218
48 CP1 175 -3.194
48 CP1 176 -2.706
48 CP1 177 -1.729
48 CP1 178 -0.753
48 CP1 179 -0.753
48 CP1 180 -1.241
48 CP1 181 -2.218
48 CP1 182 -3.194
48 CP1 183 -2.706
48 CP1 184 -1.729
48 CP1 185 -0.753
48 CP1 186 0.224
48 CP1 187 0.712
48 CP1 188 0.224
48 CP1 189 0.224
48 CP1 190 0.224
48 CP1 191 0.712
48 CP1 192 1.200
48 CP1 193 1.200
48 CP1 194 0.712
48 CP1 195 -0.264
48 CP1 196 -1.241
48 CP1 197 -2.218
48 CP1 198 -2.218
48 CP1 199 -2.218
48 CP1 200 -1.729
48 CP1 201 -1.241
48 CP1 202 -1.241
48 CP1 203 -1.729
48 CP1 204 -2.218
48 CP1 205 -2.706
48 CP1 206 -3.194
48 CP1 207 -2.706
48 CP1 208 -2.218
48 CP1 209 -2.218
48 CP1 210 -1.729
48 CP1 211 -1.241
48 CP1 212 -1.241
48 CP1 213 -1.241
48 CP1 214 -1.729
48 CP1 215 -1.729
48 CP1 216 -1.729
48 CP1 217 -2.218
48 CP1 218 -2.706
48 CP1 219 -3.194
48 CP1 220 -3.682
48 CP1 221 -4.171
48 CP1 222 -4.171
48 CP1 223 -3.682
48 CP1 224 -3.682
48 CP1 225 -3.682
48 CP1 226 -3.682
48 CP1 227 -4.171
48 CP1 228 -4.171
48 CP1 229 -4.171
48 CP1 230 -3.194
48 CP1 231 -2.218
48 CP1 232 -0.753
48 CP1 233 0.224
48 CP1 234 0.712
48 CP1 235 0.712
48 CP1 236 0.712
48 CP1 237 0.712
48 CP1 238 0.712
48 CP1 239 0.224
48 CP1 240 -1.241
48 CP1 241 -2.706
48 CP1 242 -4.659
48 CP1 243 -6.612
48 CP1 244 -7.589
48 CP1 245 -7.589
48 CP1 246 -6.612
48 CP1 247 -5.636
48 CP1 248 -4.659
48 CP1 249 -4.171
48 CP1 250 -3.682
48 CP1 251 -3.682
48 CP1 252 -4.171
48 CP1 253 -4.171
48 CP1 254 -3.682
48 CP1 255 -3.682
# CP2 chan 21
48 CP2 0 0.946
48 CP2 1 0.946
48 CP2 2 0.946
48 CP2 3 0.458
48 CP2 4 0.458
48 CP2 5 0.458
48 CP2 6 0.458
48 CP2 7 0.458
48 CP2 8 -0.031
48 CP2 9 -1.007
48 CP2 10 -2.472
48 CP2 11 -2.960
48 CP2 12 -2.472
48 CP2 13 -1.495
48 CP2 14 -0.031
48 CP2 15 0.458
48 CP2 16 0.946
48 CP2 17 0.458
48 CP2 18 -0.031
48 CP2 19 -0.031
48 CP2 20 -0.031
48 CP2 21 -1.007
48 CP2 22 -1.984
48 CP2 23 -3.448
48 CP2 24 -3.937
48 CP2 25 -3.937
48 CP2 26 -2.960
48 CP2 27 -2.472
48 CP2 28 -2.472
48 CP2 29 -2.960
48 CP2 30 -3.937
48 CP2 31 -4.425
48 CP2 32 -3.937
48 CP2 33 -3.448
48 CP2 34 -2.960
48 CP2 35 -1.984
48 CP2 36 -1.495
48 CP2 37 -1.007
48 CP2 38 -0.519
48 CP2 39 -0.031
48 CP2 40 0.458
48 CP2 41 0.946
48 CP2 42 1.434
48 CP2 43 1.434
48 CP2 44 1.434
48 CP2 45 0.458
48 CP2 46 -0.031
48 CP2 47 -1.007
48 CP2 48 -1.007
48 CP2 49 -0.519
48 CP2 50 -0.031
48 CP2 51 -0.031
48 CP2 52 -0.031
48 CP2 53 -0.519
48 CP2 54 -1.007
48 CP2 55 -1.007
48 CP2 56 -1.007
48 CP2 57 -1.007
48 CP2 58 -1.007
48 CP2 59 -1.984
48 CP2 60 -1.984
48 CP2 61 -1.984
48 CP2 62 -0.519
48 CP2 63 0.946
48 CP2 64 1.923
48 CP2 65 1.923
48 CP2 66 0.946
48 CP2 67 -1.007
48 CP2 68 -2.472
48 CP2 69 -2.960
48 CP2 70 -2.472
48 CP2 71 -1.495
48 CP2 72 -0.519
48 CP2 73 0.458
48 CP2 74 0.458
48 CP2 75 -0.031
48 CP2 76 -1.007
48 CP2 77 -1.007
48 CP2 78 -1.007
48 CP2 79 -1.007
48 CP2 80 -1.495
48 CP2 81 -1.007
48 CP2 82 -1.007
48 CP2 83 0.458
48 CP2 84 1.923
48 CP2 85 3.387
48 CP2 86 4.364
48 CP2 87 3.876
48 CP2 88 2.899
48 CP2 89 0.946
48 CP2 90 -0.519
48 CP2 91 -1.007
48 CP2 92 -1.007
48 CP2 93 -1.007
48 CP2 94 -1.007
48 CP2 95 -1.984
48 CP2 96 -2.472
48 CP2 97 -2.960
48 CP2 98 -3.448
48 CP2 99 -2.960
48 CP2 100 -2.960
48 CP2 101 -3.448
48 CP2 102 -3.937
48 CP2 103 -3.937
48 CP2 104 -3.448
48 CP2 105 -2.472
48 CP2 106 -0.519
48 CP2 107 1.434
48 CP2 108 2.899
48 CP2 109 2.899
48 CP2 110 1.923
48 CP2 111 0.458
48 CP2 112 -1.007
48 CP2 113 -1.007
48 CP2 114 -0.519
48 CP2 115 -0.031
48 CP2 116 -0.031
48 CP2 117 -0.031
48 CP2 118 0.458
48 CP2 119 1.434
48 CP2 120 2.411
48 CP2 121 3.876
48 CP2 122 3.387
48 CP2 123 2.411
48 CP2 124 0.946
48 CP2 125 -0.519
48 CP2 126 -0.519
48 CP2 127 0.946
48 CP2 128 2.411
48 CP2 129 3.387
48 CP2 130 3.387
48 CP2 131 3.387
48 CP2 132 2.899
48 CP2 133 2.411
48 CP2 134 2.411
48 CP2 135 2.411
48 CP2 136 2.411
48 CP2 137 1.923
48 CP2 138 1.923
48 CP2 139 1.434
48 CP2 140 0.946
48 CP2 141 0.946
48 CP2 142 0.946
48 CP2 143 1.923
48 CP2 144 2.411
48 CP2 145 2.899
48 CP2 146 1.923
48 CP2 147 0.458
48 CP2 148 -0.519
48 CP2 149 -1.007
48 CP2 150 -0.031
48 CP2 151 1.434
48 CP2 152 1.923
48 CP2 153 1.923
48 CP2 154 1.434
48 CP2 155 0.946
48 CP2 156 1.434
48 CP2 157 1.434
48 CP2 158 0.946
48 CP2 159 -0.031
48 CP2 160 -1.984
48 CP2 161 -1.984
48 CP2 162 -0.519
48 CP2 163 0.946
48 CP2 164 1.923
48 CP2 165 0.946
48 CP2 166 -0.519
48 CP2 167 -1.495
48 CP2 168 -1.495
48 CP2 169 -0.519
48 CP2 170 0.946
48 CP2 171 0.946
48 CP2 172 -0.031
48 CP2 173 -1.007
48 CP2 174 -0.519
48 CP2 175 0.946
48 CP2 176 2.899
48 CP2 177 3.876
48 CP2 178 2.899
48 CP2 179 1.434
48 CP2 180 -0.519
48 CP2 181 -1.495
48 CP2 182 -1.495
48 CP2 183 -1.007
48 CP2 184 -1.007
48 CP2 185 -1.007
48 CP2 186 -1.007
48 CP2 187 -1.007
48 CP2 188 0.458
48 CP2 189 1.434
48 CP2 190 2.411
48 CP2 191 2.411
48 CP2 192 1.923
48 CP2 193 0.946
48 CP2 194 0.458
48 CP2 195 0.946
48 CP2 196 1.434
48 CP2 197 1.923
48 CP2 198 2.411
48 CP2 199 1.923
48 CP2 200 0.946
48 CP2 201 0.946
48 CP2 202 0.458
48 CP2 203 0.458
48 CP2 204 -0.031
48 CP2 205 -0.519
48 CP2 206 -1.007
48 CP2 207 -0.519
48 CP2 208 0.458
48 CP2 209 1.923
48 CP2 210 2.411
48 CP2 211 1.923
48 CP2 212 -0.031
48 CP2 213 -1.984
48 CP2 214 -1.984
48 CP2 215 -0.519
48 CP2 216 0.946
48 CP2 217 1.923
48 CP2 218 1.923
48 CP2 219 0.458
48 CP2 220 -0.519
48 CP2 221 -0.519
48 CP2 222 -0.031
48 CP2 223 0.946
48 CP2 224 0.946
48 CP2 225 -1.007
48 CP2 226 -2.960
48 CP2 227 -4.425
48 CP2 228 -3.448
48 CP2 229 -1.007
48 CP2 230 0.946
48 CP2 231 1.923
48 CP2 232 1.434
48 CP2 233 -0.031
48 CP2 234 -1.007
48 CP2 235 -1.495
48 CP2 236 -1.007
48 CP2 237 -1.007
48 CP2 238 -1.007
48 CP2 239 -1.007
48 CP2 240 -1.007
48 CP2 241 -1.007
48 CP2 242 -1.007
48 CP2 243 -1.007
48 CP2 244 -1.495
48 CP2 245 -1.984
48 CP2 246 -2.472
48 CP2 247 -2.960
48 CP2 248 -2.960
48 CP2 249 -1.984
48 CP2 250 -1.007
48 CP2 251 -1.007
48 CP2 252 -1.007
48 CP2 253 -1.495
48 CP2 254 -1.984
48 CP2 255 -1.007
# P3 chan 22
48 P3 0 -0.326
48 P3 1 -0.326
48 P3 2 0.163
48 P3 3 1.139
48 P3 4 2.116
48 P3 5 3.092
48 P3 6 3.581
48 P3 7 3.581
48 P3 8 2.604
48 P3 9 1.628
48 P3 10 0.163
48 P3 11 0.163
48 P3 12 0.651
48 P3 13 1.139
48 P3 14 1.139
48 P3 15 0.163
48 P3 16 -1.302
48 P3 17 -2.767
48 P3 18 -3.743
48 P3 19 -4.720
48 P3 20 -5.208
48 P3 21 -5.697
48 P3 22 -5.697
48 P3 23 -5.697
48 P3 24 -5.697
48 P3 25 -6.185
48 P3 26 -6.673
48 P3 27 -7.161
48 P3 28 -6.673
48 P3 29 -5.697
48 P3 30 -4.232
48 P3 31 -2.767
48 P3 32 -1.302
48 P3 33 -0.814
48 P3 34 -0.326
48 P3 35 0.651
48 P3 36 2.116
48 P3 37 3.581
48 P3 38 4.557
48 P3 39 5.046
48 P3 40 4.069
48 P3 41 3.092
48 P3 42 2.116
48 P3 43 1.139
48 P3 44 -0.814
48 P3 45 -2.767
48 P3 46 -5.208
48 P3 47 -7.161
48 P3 48 -8.138
48 P3 49 -7.650
48 P3 50 -6.185
48 P3 51 -3.743
48 P3 52 -1.790
48 P3 53 -0.814
48 P3 54 0.163
48 P3 55 -0.326
48 P3 56 -0.814
48 P3 57 -0.814
48 P3 58 -0.814
48 P3 59 -0.326
48 P3 60 -0.326
48 P3 61 -0.326
48 P3 62 -0.814
48 P3 63 -1.790
48 P3 64 -3.255
48 P3 65 -4.232
48 P3 66 -4.720
48 P3 67 -4.720
48 P3 68 -4.720
48 P3 69 -4.232
48 P3 70 -3.743
48 P3 71 -3.255
48 P3 72 -2.279
48 P3 73 -1.302
48 P3 74 -0.814
48 P3 75 -0.814
48 P3 76 0.163
48 P3 77 1.139
48 P3 78 3.092
48 P3 79 5.046
48 P3 80 6.022
48 P3 81 5.534
48 P3 82 3.581
48 P3 83 1.628
48 P3 84 0.651
48 P3 85 0.163
48 P3 86 0.651
48 P3 87 0.651
48 P3 88 -0.326
48 P3 89 -1.790
48 P3 90 -3.743
48 P3 91 -4.232
48 P3 92 -4.232
48 P3 93 -2.767
48 P3 94 -1.302
48 P3 95 -0.814
48 P3 96 -1.302
48 P3 97 -2.279
48 P3 98 -2.767
48 P3 99 -2.767
48 P3 100 -1.790
48 P3 101 -0.814
48 P3 102 0.651
48 P3 103 2.604
48 P3 104 4.557
48 P3 105 5.534
48 P3 106 5.046
48 P3 107 3.581
48 P3 108 1.139
48 P3 109 -0.814
48 P3 110 -1.790
48 P3 111 -1.302
48 P3 112 -1.302
48 P3 113 -0.814
48 P3 114 -0.326
48 P3 115 0.651
48 P3 116 1.628
48 P3 117 3.092
48 P3 118 4.557
48 P3 119 5.046
48 P3 120 4.557
48 P3 121 4.557
48 P3 122 5.046
48 P3 123 5.534
48 P3 124 5.534
48 P3 125 4.557
48 P3 126 3.092
48 P3 127 0.651
48 P3 128 -1.302
48 P3 129 -3.255
48 P3 130 -4.232
48 P3 131 -4.720
48 P3 132 -4.232
48 P3 133 -3.255
48 P3 134 -2.279
48 P3 135 -1.302
48 P3 136 -0.814
48 P3 137 -0.814
48 P3 138 -1.302
48 P3 139 -1.302
48 P3 140 -1.302
48 P3 141 -0.814
48 P3 142 0.651
48 P3 143 2.116
48 P3 144 3.581
48 P3 145 5.046
48 P3 146 6.510
48 P3 147 6.510
48 P3 148 5.046
48 P3 149 3.092
48 P3 150 0.651
48 P3 151 -0.814
48 P3 152 -1.302
48 P3 153 -0.326
48 P3 154 1.139
48 P3 155 1.628
48 P3 156 1.628
48 P3 157 0.163
48 P3 158 -1.302
48 P3 159 -1.790
48 P3 160 -1.790
48 P3 161 -0.814
48 P3 162 0.651
48 P3 163 1.139
48 P3 164 0.651
48 P3 165 0.163
48 P3 166 0.163
48 P3 167 1.139
48 P3 168 3.092
48 P3 169 4.557
48 P3 170 6.022
48 P3 171 5.046
48 P3 172 2.604
48 P3 173 -0.814
48 P3 174 -3.255
48 P3 175 -4.232
48 P3 176 -3.255
48 P3 177 -2.279
48 P3 178 -1.302
48 P3 179 -1.790
48 P3 180 -2.767
48 P3 181 -3.743
48 P3 182 -4.720
48 P3 183 -4.232
48 P3 184 -3.743
48 P3 185 -2.279
48 P3 186 -1.790
48 P3 187 -1.790
48 P3 188 -1.790
48 P3 189 -1.302
48 P3 190 -0.814
48 P3 191 0.651
48 P3 192 1.628
48 P3 193 2.116
48 P3 194 1.139
48 P3 195 -0.814
48 P3 196 -2.767
48 P3 197 -4.720
48 P3 198 -4.720
48 P3 199 -3.743
48 P3 200 -2.767
48 P3 201 -2.279
48 P3 202 -3.255
48 P3 203 -4.232
48 P3 204 -5.697
48 P3 205 -6.673
48 P3 206 -6.673
48 P3 207 -5.697
48 P3 208 -4.720
48 P3 209 -4.232
48 P3 210 -3.255
48 P3 211 -2.767
48 P3 212 -3.255
48 P3 213 -3.255
48 P3 214 -3.743
48 P3 215 -3.743
48 P3 216 -3.743
48 P3 217 -4.232
48 P3 218 -5.208
48 P3 219 -6.673
48 P3 220 -8.138
48 P3 221 -9.115
48 P3 222 -8.626
48 P3 223 -7.650
48 P3 224 -6.673
48 P3 225 -6.673
48 P3 226 -7.650
48 P3 227 -8.626
48 P3 228 -9.115
48 P3 229 -8.138
48 P3 230 -6.673
48 P3 231 -4.720
48 P3 232 -3.255
48 P3 233 -1.790
48 P3 234 -0.814
48 P3 235 0.651
48 P3 236 2.116
48 P3 237 3.092
48 P3 238 2.604
48 P3 239 1.139
48 P3 240 -1.302
48 P3 241 -5.208
48 P3 242 -8.626
48 P3 243 -12.044
48 P3 244 -13.997
48 P3 245 -13.997
48 P3 246 -12.044
48 P3 247 -9.115
48 P3 248 -6.673
48 P3 249 -5.697
48 P3 250 -5.697
48 P3 251 -7.161
48 P3 252 -8.138
48 P3 253 -7.650
48 P3 254 -6.673
48 P3 255 -5.697
# P4 chan 23
48 P4 0 -2.035
48 P4 1 -0.570
48 P4 2 0.407
48 P4 3 0.407
48 P4 4 -0.570
48 P4 5 -1.058
48 P4 6 -1.058
48 P4 7 -0.081
48 P4 8 0.407
48 P4 9 0.407
48 P4 10 -0.570
48 P4 11 -1.546
48 P4 12 -1.546
48 P4 13 -0.570
48 P4 14 1.383
48 P4 15 2.360
48 P4 16 2.360
48 P4 17 0.895
48 P4 18 -0.570
48 P4 19 -2.523
48 P4 20 -4.476
48 P4 21 -5.941
48 P4 22 -7.406
48 P4 23 -7.894
48 P4 24 -7.406
48 P4 25 -6.917
48 P4 26 -6.429
48 P4 27 -6.429
48 P4 28 -6.429
48 P4 29 -6.429
48 P4 30 -5.941
48 P4 31 -4.964
48 P4 32 -3.988
48 P4 33 -3.499
48 P4 34 -3.499
48 P4 35 -3.499
48 P4 36 -2.523
48 P4 37 -0.570
48 P4 38 0.895
48 P4 39 1.383
48 P4 40 0.407
48 P4 41 -1.058
48 P4 42 -2.035
48 P4 43 -2.523
48 P4 44 -2.523
48 P4 45 -2.523
48 P4 46 -3.011
48 P4 47 -3.988
48 P4 48 -4.964
48 P4 49 -4.476
48 P4 50 -3.499
48 P4 51 -2.035
48 P4 52 -1.058
48 P4 53 -0.570
48 P4 54 -0.570
48 P4 55 -1.546
48 P4 56 -1.546
48 P4 57 -1.546
48 P4 58 -2.035
48 P4 59 -2.035
48 P4 60 -2.035
48 P4 61 -1.546
48 P4 62 -0.570
48 P4 63 -0.081
48 P4 64 -0.081
48 P4 65 -1.058
48 P4 66 -3.011
48 P4 67 -4.476
48 P4 68 -5.452
48 P4 69 -5.452
48 P4 70 -4.476
48 P4 71 -3.011
48 P4 72 -2.035
48 P4 73 -1.058
48 P4 74 -0.081
48 P4 75 0.895
48 P4 76 1.872
48 P4 77 2.848
48 P4 78 2.848
48 P4 79 1.383
48 P4 80 0.407
48 P4 81 -0.570
48 P4 82 -0.081
48 P4 83 1.383
48 P4 84 2.848
48 P4 85 3.825
48 P4 86 3.337
48 P4 87 1.872
48 P4 88 0.407
48 P4 89 -0.570
48 P4 90 -1.546
48 P4 91 -2.035
48 P4 92 -2.523
48 P4 93 -3.499
48 P4 94 -4.476
48 P4 95 -3.988
48 P4 96 -3.011
48 P4 97 -2.035
48 P4 98 -1.546
48 P4 99 -2.035
48 P4 100 -3.011
48 P4 101 -3.499
48 P4 102 -3.499
48 P4 103 -2.035
48 P4 104 -0.570
48 P4 105 1.383
48 P4 106 2.848
48 P4 107 3.825
48 P4 108 4.313
48 P4 109 3.825
48 P4 110 3.337
48 P4 111 1.383
48 P4 112 -0.570
48 P4 113 -2.523
48 P4 114 -3.499
48 P4 115 -3.011
48 P4 116 -2.035
48 P4 117 -0.081
48 P4 118 1.872
48 P4 119 3.337
48 P4 120 4.801
48 P4 121 5.778
48 P4 122 6.266
48 P4 123 5.778
48 P4 124 4.313
48 P4 125 2.848
48 P4 126 1.872
48 P4 127 0.895
48 P4 128 0.407
48 P4 129 0.407
48 P4 130 0.407
48 P4 131 0.895
48 P4 132 1.383
48 P4 133 1.872
48 P4 134 2.360
48 P4 135 2.360
48 P4 136 1.383
48 P4 137 -0.081
48 P4 138 -1.058
48 P4 139 -0.570
48 P4 140 -0.081
48 P4 141 0.895
48 P4 142 1.383
48 P4 143 1.872
48 P4 144 2.360
48 P4 145 3.337
48 P4 146 3.337
48 P4 147 2.360
48 P4 148 1.383
48 P4 149 -0.081
48 P4 150 -0.570
48 P4 151 -0.081
48 P4 152 0.895
48 P4 153 1.383
48 P4 154 0.895
48 P4 155 0.407
48 P4 156 -0.570
48 P4 157 -1.058
48 P4 158 -2.035
48 P4 159 -3.011
48 P4 160 -3.499
48 P4 161 -2.523
48 P4 162 -1.058
48 P4 163 1.383
48 P4 164 1.872
48 P4 165 1.383
48 P4 166 -0.081
48 P4 167 -1.546
48 P4 168 -1.546
48 P4 169 -1.058
48 P4 170 -0.570
48 P4 171 -0.570
48 P4 172 -1.058
48 P4 173 -2.035
48 P4 174 -2.035
48 P4 175 -1.058
48 P4 176 -0.081
48 P4 177 0.407
48 P4 178 0.407
48 P4 179 -1.058
48 P4 180 -3.011
48 P4 181 -4.964
48 P4 182 -6.429
48 P4 183 -7.406
48 P4 184 -6.917
48 P4 185 -5.452
48 P4 186 -3.499
48 P4 187 -2.523
48 P4 188 -1.546
48 P4 189 -1.058
48 P4 190 -0.570
48 P4 191 -0.081
48 P4 192 0.407
48 P4 193 0.895
48 P4 194 0.407
48 P4 195 -0.081
48 P4 196 -1.058
48 P4 197 -1.546
48 P4 198 -1.546
48 P4 199 -0.570
48 P4 200 -0.570
48 P4 201 -1.058
48 P4 202 -2.523
48 P4 203 -3.499
48 P4 204 -4.964
48 P4 205 -4.964
48 P4 206 -4.476
48 P4 207 -3.499
48 P4 208 -3.011
48 P4 209 -2.523
48 P4 210 -2.035
48 P4 211 -1.546
48 P4 212 -2.035
48 P4 213 -2.035
48 P4 214 -2.523
48 P4 215 -3.011
48 P4 216 -3.499
48 P4 217 -3.988
48 P4 218 -4.476
48 P4 219 -4.964
48 P4 220 -4.964
48 P4 221 -4.476
48 P4 222 -3.499
48 P4 223 -2.523
48 P4 224 -3.011
48 P4 225 -4.476
48 P4 226 -7.406
48 P4 227 -8.870
48 P4 228 -8.870
48 P4 229 -6.917
48 P4 230 -3.499
48 P4 231 -1.546
48 P4 232 -0.081
48 P4 233 -1.058
48 P4 234 -1.546
48 P4 235 -2.035
48 P4 236 -2.523
48 P4 237 -3.011
48 P4 238 -3.011
48 P4 239 -3.011
48 P4 240 -2.523
48 P4 241 -2.523
48 P4 242 -3.499
48 P4 243 -5.452
48 P4 244 -7.894
48 P4 245 -8.870
48 P4 246 -8.870
48 P4 247 -7.406
48 P4 248 -5.452
48 P4 249 -4.476
48 P4 250 -4.476
48 P4 251 -5.452
48 P4 252 -6.429
48 P4 253 -5.941
48 P4 254 -4.476
48 P4 255 -2.523
# PZ chan 24
48 PZ 0 -2.370
48 PZ 1 -1.394
48 PZ 2 -0.905
48 PZ 3 -0.417
48 PZ 4 0.071
48 PZ 5 0.559
48 PZ 6 1.048
48 PZ 7 1.048
48 PZ 8 0.559
48 PZ 9 0.071
48 PZ 10 -0.905
48 PZ 11 -0.905
48 PZ 12 -0.905
48 PZ 13 0.071
48 PZ 14 0.559
48 PZ 15 0.071
48 PZ 16 -1.394
48 PZ 17 -3.347
48 PZ 18 -5.300
48 PZ 19 -6.276
48 PZ 20 -6.765
48 PZ 21 -6.765
48 PZ 22 -7.253
48 PZ 23 -7.741
48 PZ 24 -8.230
48 PZ 25 -8.718
48 PZ 26 -8.718
48 PZ 27 -8.230
48 PZ 28 -8.230
48 PZ 29 -7.741
48 PZ 30 -6.765
48 PZ 31 -4.812
48 PZ 32 -3.347
48 PZ 33 -2.370
48 PZ 34 -1.882
48 PZ 35 -1.394
48 PZ 36 -0.905
48 PZ 37 0.071
48 PZ 38 1.048
48 PZ 39 1.536
48 PZ 40 1.048
48 PZ 41 0.559
48 PZ 42 -0.417
48 PZ 43 -0.905
48 PZ 44 -0.905
48 PZ 45 -1.882
48 PZ 46 -3.347
48 PZ 47 -4.812
48 PZ 48 -6.276
48 PZ 49 -7.253
48 PZ 50 -6.276
48 PZ 51 -4.323
48 PZ 52 -2.858
48 PZ 53 -1.882
48 PZ 54 -1.882
48 PZ 55 -2.370
48 PZ 56 -2.370
48 PZ 57 -1.882
48 PZ 58 -1.394
48 PZ 59 -1.394
48 PZ 60 -1.882
48 PZ 61 -2.370
48 PZ 62 -3.347
48 PZ 63 -3.347
48 PZ 64 -3.347
48 PZ 65 -3.835
48 PZ 66 -4.812
48 PZ 67 -6.276
48 PZ 68 -6.765
48 PZ 69 -7.253
48 PZ 70 -5.788
48 PZ 71 -4.323
48 PZ 72 -2.858
48 PZ 73 -1.882
48 PZ 74 -1.394
48 PZ 75 -0.905
48 PZ 76 -0.905
48 PZ 77 -0.417
48 PZ 78 0.559
48 PZ 79 1.536
48 PZ 80 2.024
48 PZ 81 1.536
48 PZ 82 1.048
48 PZ 83 0.071
48 PZ 84 -0.905
48 PZ 85 -0.417
48 PZ 86 -0.417
48 PZ 87 -0.417
48 PZ 88 -1.394
48 PZ 89 -2.858
48 PZ 90 -4.323
48 PZ 91 -5.300
48 PZ 92 -5.788
48 PZ 93 -5.300
48 PZ 94 -4.812
48 PZ 95 -3.835
48 PZ 96 -3.835
48 PZ 97 -3.835
48 PZ 98 -4.323
48 PZ 99 -4.812
48 PZ 100 -4.812
48 PZ 101 -4.812
48 PZ 102 -3.347
48 PZ 103 -1.394
48 PZ 104 1.048
48 PZ 105 2.513
48 PZ 106 3.001
48 PZ 107 2.513
48 PZ 108 1.536
48 PZ 109 1.048
48 PZ 110 0.071
48 PZ 111 -0.905
48 PZ 112 -2.370
48 PZ 113 -2.858
48 PZ 114 -3.347
48 PZ 115 -2.858
48 PZ 116 -1.882
48 PZ 117 -0.417
48 PZ 118 1.048
48 PZ 119 2.513
48 PZ 120 3.489
48 PZ 121 3.977
48 PZ 122 3.977
48 PZ 123 4.466
48 PZ 124 3.977
48 PZ 125 3.001
48 PZ 126 2.024
48 PZ 127 1.048
48 PZ 128 -0.417
48 PZ 129 -1.394
48 PZ 130 -2.370
48 PZ 131 -2.370
48 PZ 132 -1.882
48 PZ 133 -0.417
48 PZ 134 0.559
48 PZ 135 1.048
48 PZ 136 0.559
48 PZ 137 0.071
48 PZ 138 -0.905
48 PZ 139 -0.905
48 PZ 140 -0.417
48 PZ 141 0.071
48 PZ 142 0.559
48 PZ 143 1.048
48 PZ 144 1.536
48 PZ 145 3.001
48 PZ 146 3.489
48 PZ 147 3.489
48 PZ 148 2.513
48 PZ 149 1.048
48 PZ 150 -0.417
48 PZ 151 -0.417
48 PZ 152 0.071
48 PZ 153 1.048
48 PZ 154 1.536
48 PZ 155 1.536
48 PZ 156 1.048
48 PZ 157 0.071
48 PZ 158 -0.905
48 PZ 159 -1.882
48 PZ 160 -1.882
48 PZ 161 -1.882
48 PZ 162 -1.394
48 PZ 163 -0.417
48 PZ 164 -0.905
48 PZ 165 -1.394
48 PZ 166 -2.370
48 PZ 167 -2.370
48 PZ 168 -1.882
48 PZ 169 0.071
48 PZ 170 1.536
48 PZ 171 2.024
48 PZ 172 1.048
48 PZ 173 -0.905
48 PZ 174 -2.370
48 PZ 175 -2.858
48 PZ 176 -2.370
48 PZ 177 -0.905
48 PZ 178 0.071
48 PZ 179 -0.417
48 PZ 180 -1.882
48 PZ 181 -4.323
48 PZ 182 -5.788
48 PZ 183 -5.788
48 PZ 184 -5.300
48 PZ 185 -3.835
48 PZ 186 -1.882
48 PZ 187 -0.905
48 PZ 188 -0.417
48 PZ 189 0.559
48 PZ 190 1.048
48 PZ 191 2.024
48 PZ 192 2.513
48 PZ 193 2.513
48 PZ 194 2.024
48 PZ 195 1.048
48 PZ 196 0.071
48 PZ 197 -0.905
48 PZ 198 -1.394
48 PZ 199 -1.394
48 PZ 200 -0.905
48 PZ 201 -1.394
48 PZ 202 -1.882
48 PZ 203 -2.858
48 PZ 204 -3.835
48 PZ 205 -4.323
48 PZ 206 -4.323
48 PZ 207 -4.323
48 PZ 208 -3.347
48 PZ 209 -2.858
48 PZ 210 -1.882
48 PZ 211 -1.394
48 PZ 212 -1.882
48 PZ 213 -1.882
48 PZ 214 -2.370
48 PZ 215 -2.858
48 PZ 216 -2.858
48 PZ 217 -3.347
48 PZ 218 -4.323
48 PZ 219 -5.788
48 PZ 220 -6.276
48 PZ 221 -6.765
48 PZ 222 -6.276
48 PZ 223 -5.300
48 PZ 224 -4.812
48 PZ 225 -5.300
48 PZ 226 -6.765
48 PZ 227 -7.741
48 PZ 228 -8.230
48 PZ 229 -7.253
48 PZ 230 -5.300
48 PZ 231 -2.858
48 PZ 232 -1.394
48 PZ 233 -0.905
48 PZ 234 -0.417
48 PZ 235 0.071
48 PZ 236 0.071
48 PZ 237 0.559
48 PZ 238 0.559
48 PZ 239 0.559
48 PZ 240 -0.905
48 PZ 241 -2.858
48 PZ 242 -5.788
48 PZ 243 -8.718
48 PZ 244 -10.671
48 PZ 245 -11.159
48 PZ 246 -10.671
48 PZ 247 -9.206
48 PZ 248 -7.253
48 PZ 249 -5.788
48 PZ 250 -5.788
48 PZ 251 -5.788
48 PZ 252 -6.765
48 PZ 253 -6.765
48 PZ 254 -6.276
48 PZ 255 -4.812
# P8 chan 25
48 P8 0 -2.289
48 P8 1 -0.336
48 P8 2 0.153
48 P8 3 0.153
48 P8 4 -0.336
48 P8 5 -0.824
48 P8 6 -0.336
48 P8 7 1.129
48 P8 8 2.594
48 P8 9 3.082
48 P8 10 2.594
48 P8 11 2.594
48 P8 12 2.594
48 P8 13 4.059
48 P8 14 6.500
48 P8 15 7.965
48 P8 16 7.965
48 P8 17 6.012
48 P8 18 2.594
48 P8 19 -0.824
48 P8 20 -4.242
48 P8 21 -6.683
48 P8 22 -8.148
48 P8 23 -8.148
48 P8 24 -7.660
48 P8 25 -6.195
48 P8 26 -5.219
48 P8 27 -4.242
48 P8 28 -4.242
48 P8 29 -3.754
48 P8 30 -3.265
48 P8 31 -2.289
48 P8 32 -1.312
48 P8 33 -1.801
48 P8 34 -1.801
48 P8 35 -2.289
48 P8 36 -1.312
48 P8 37 0.641
48 P8 38 1.617
48 P8 39 1.617
48 P8 40 -0.336
48 P8 41 -2.777
48 P8 42 -5.219
48 P8 43 -5.707
48 P8 44 -4.730
48 P8 45 -3.754
48 P8 46 -3.265
48 P8 47 -3.265
48 P8 48 -3.754
48 P8 49 -2.777
48 P8 50 -1.312
48 P8 51 0.641
48 P8 52 1.617
48 P8 53 2.106
48 P8 54 1.617
48 P8 55 1.129
48 P8 56 1.129
48 P8 57 1.129
48 P8 58 1.617
48 P8 59 1.129
48 P8 60 0.153
48 P8 61 -0.824
48 P8 62 -0.824
48 P8 63 0.153
48 P8 64 0.641
48 P8 65 0.641
48 P8 66 -0.336
48 P8 67 -1.801
48 P8 68 -3.265
48 P8 69 -3.754
48 P8 70 -3.754
48 P8 71 -2.289
48 P8 72 -0.824
48 P8 73 0.641
48 P8 74 3.082
48 P8 75 6.012
48 P8 76 8.453
48 P8 77 10.406
48 P8 78 10.406
48 P8 79 8.453
48 P8 80 5.524
48 P8 81 3.082
48 P8 82 2.106
48 P8 83 3.082
48 P8 84 4.547
48 P8 85 6.012
48 P8 86 5.524
48 P8 87 4.547
48 P8 88 3.082
48 P8 89 2.106
48 P8 90 2.106
48 P8 91 1.129
48 P8 92 0.153
48 P8 93 -1.801
48 P8 94 -2.777
48 P8 95 -2.777
48 P8 96 -0.824
48 P8 97 1.129
48 P8 98 2.594
48 P8 99 2.594
48 P8 100 1.617
48 P8 101 0.641
48 P8 102 1.129
48 P8 103 2.594
48 P8 104 4.059
48 P8 105 5.524
48 P8 106 5.524
48 P8 107 5.524
48 P8 108 5.035
48 P8 109 4.547
48 P8 110 4.547
48 P8 111 3.571
48 P8 112 2.106
48 P8 113 0.153
48 P8 114 -1.801
48 P8 115 -2.289
48 P8 116 -1.801
48 P8 117 -0.824
48 P8 118 1.129
48 P8 119 3.082
48 P8 120 4.547
48 P8 121 6.012
48 P8 122 6.500
48 P8 123 6.500
48 P8 124 5.035
48 P8 125 3.082
48 P8 126 1.129
48 P8 127 -0.824
48 P8 128 -2.289
48 P8 129 -3.754
48 P8 130 -3.754
48 P8 131 -3.265
48 P8 132 -1.801
48 P8 133 -0.336
48 P8 134 1.129
48 P8 135 1.617
48 P8 136 1.129
48 P8 137 -0.336
48 P8 138 -1.312
48 P8 139 -1.312
48 P8 140 -0.824
48 P8 141 0.153
48 P8 142 1.129
48 P8 143 2.106
48 P8 144 3.571
48 P8 145 4.547
48 P8 146 5.035
48 P8 147 4.059
48 P8 148 2.106
48 P8 149 0.641
48 P8 150 0.153
48 P8 151 0.153
48 P8 152 0.641
48 P8 153 0.153
48 P8 154 -0.824
48 P8 155 -1.312
48 P8 156 -1.801
48 P8 157 -1.801
48 P8 158 -1.801
48 P8 159 -2.289
48 P8 160 -2.777
48 P8 161 -1.801
48 P8 162 0.153
48 P8 163 2.594
48 P8 164 5.035
48 P8 165 5.524
48 P8 166 4.547
48 P8 167 3.082
48 P8 168 2.106
48 P8 169 2.594
48 P8 170 2.594
48 P8 171 2.594
48 P8 172 1.617
48 P8 173 -0.336
48 P8 174 -0.824
48 P8 175 -0.336
48 P8 176 0.641
48 P8 177 1.129
48 P8 178 0.641
48 P8 179 -0.336
48 P8 180 -1.801
48 P8 181 -4.242
48 P8 182 -5.707
48 P8 183 -6.683
48 P8 184 -6.683
48 P8 185 -5.707
48 P8 186 -3.265
48 P8 187 -1.801
48 P8 188 -0.824
48 P8 189 -0.824
48 P8 190 -1.312
48 P8 191 -1.312
48 P8 192 -1.312
48 P8 193 -1.312
48 P8 194 -1.801
48 P8 195 -2.289
48 P8 196 -3.265
48 P8 197 -4.242
48 P8 198 -3.754
48 P8 199 -2.289
48 P8 200 -1.312
48 P8 201 -0.824
48 P8 202 -1.801
48 P8 203 -3.754
48 P8 204 -5.219
48 P8 205 -5.707
48 P8 206 -5.219
48 P8 207 -4.242
48 P8 208 -3.754
48 P8 209 -3.754
48 P8 210 -3.754
48 P8 211 -3.265
48 P8 212 -3.265
48 P8 213 -3.265
48 P8 214 -3.754
48 P8 215 -4.242
48 P8 216 -5.219
48 P8 217 -6.195
48 P8 218 -7.172
48 P8 219 -8.148
48 P8 220 -8.148
48 P8 221 -7.172
48 P8 222 -5.707
48 P8 223 -3.265
48 P8 224 -2.289
48 P8 225 -3.265
48 P8 226 -6.195
48 P8 227 -8.636
48 P8 228 -9.613
48 P8 229 -8.148
48 P8 230 -5.219
48 P8 231 -2.777
48 P8 232 -1.801
48 P8 233 -1.801
48 P8 234 -2.777
48 P8 235 -3.265
48 P8 236 -4.242
48 P8 237 -5.707
48 P8 238 -6.683
48 P8 239 -7.172
48 P8 240 -6.683
48 P8 241 -4.730
48 P8 242 -3.754
48 P8 243 -4.730
48 P8 244 -6.683
48 P8 245 -9.125
48 P8 246 -10.590
48 P8 247 -9.613
48 P8 248 -7.172
48 P8 249 -5.707
48 P8 250 -5.707
48 P8 251 -7.660
48 P8 252 -9.613
48 P8 253 -9.613
48 P8 254 -7.660
48 P8 255 -4.242
# P7 chan 26
48 P7 0 -0.793
48 P7 1 -0.305
48 P7 2 0.671
48 P7 3 2.136
48 P7 4 3.601
48 P7 5 4.578
48 P7 6 4.578
48 P7 7 4.089
48 P7 8 3.601
48 P7 9 3.601
48 P7 10 3.601
48 P7 11 3.601
48 P7 12 4.089
48 P7 13 4.089
48 P7 14 3.601
48 P7 15 2.625
48 P7 16 1.648
48 P7 17 -0.305
48 P7 18 -1.282
48 P7 19 -2.258
48 P7 20 -3.235
48 P7 21 -3.235
48 P7 22 -3.235
48 P7 23 -2.747
48 P7 24 -2.258
48 P7 25 -2.258
48 P7 26 -2.258
48 P7 27 -3.235
48 P7 28 -3.723
48 P7 29 -3.723
48 P7 30 -3.723
48 P7 31 -2.258
48 P7 32 -1.770
48 P7 33 -1.282
48 P7 34 -0.793
48 P7 35 0.183
48 P7 36 2.136
48 P7 37 4.578
48 P7 38 7.019
48 P7 39 8.484
48 P7 40 8.972
48 P7 41 8.972
48 P7 42 7.996
48 P7 43 6.531
48 P7 44 4.089
48 P7 45 -0.305
48 P7 46 -5.676
48 P7 47 -9.583
48 P7 48 -11.047
48 P7 49 -10.559
48 P7 50 -7.629
48 P7 51 -3.723
48 P7 52 -0.793
48 P7 53 0.671
48 P7 54 1.160
48 P7 55 1.160
48 P7 56 1.160
48 P7 57 2.136
48 P7 58 3.113
48 P7 59 3.601
48 P7 60 3.113
48 P7 61 2.136
48 P7 62 0.671
48 P7 63 -0.305
48 P7 64 -0.793
48 P7 65 -1.770
48 P7 66 -2.258
48 P7 67 -2.747
48 P7 68 -2.258
48 P7 69 -1.282
48 P7 70 0.183
48 P7 71 1.160
48 P7 72 1.160
48 P7 73 0.671
48 P7 74 0.671
48 P7 75 1.648
48 P7 76 3.601
48 P7 77 6.042
48 P7 78 8.484
48 P7 79 9.949
48 P7 80 9.949
48 P7 81 8.484
48 P7 82 6.531
48 P7 83 4.089
48 P7 84 2.625
48 P7 85 2.136
48 P7 86 2.625
48 P7 87 3.601
48 P7 88 4.089
48 P7 89 3.113
48 P7 90 2.136
48 P7 91 0.671
48 P7 92 -0.305
48 P7 93 -0.305
48 P7 94 0.671
48 P7 95 1.648
48 P7 96 2.625
48 P7 97 3.113
48 P7 98 2.625
48 P7 99 1.160
48 P7 100 -0.305
48 P7 101 -0.305
48 P7 102 1.160
48 P7 103 3.601
48 P7 104 6.531
48 P7 105 7.996
48 P7 106 7.996
48 P7 107 6.042
48 P7 108 3.601
48 P7 109 1.160
48 P7 110 0.183
48 P7 111 -0.793
48 P7 112 -0.793
48 P7 113 -0.793
48 P7 114 -0.793
48 P7 115 -0.793
48 P7 116 0.671
48 P7 117 2.625
48 P7 118 4.578
48 P7 119 5.554
48 P7 120 5.066
48 P7 121 4.578
48 P7 122 3.113
48 P7 123 2.136
48 P7 124 1.648
48 P7 125 0.671
48 P7 126 -0.793
48 P7 127 -3.235
48 P7 128 -6.165
48 P7 129 -8.606
48 P7 130 -9.583
48 P7 131 -9.583
48 P7 132 -8.118
48 P7 133 -6.165
48 P7 134 -4.700
48 P7 135 -3.723
48 P7 136 -3.723
48 P7 137 -4.700
48 P7 138 -4.700
48 P7 139 -4.211
48 P7 140 -3.235
48 P7 141 -2.747
48 P7 142 -1.282
48 P7 143 0.183
48 P7 144 1.648
48 P7 145 3.113
48 P7 146 4.578
48 P7 147 4.578
48 P7 148 4.089
48 P7 149 2.625
48 P7 150 0.671
48 P7 151 -1.282
48 P7 152 -2.747
48 P7 153 -2.258
48 P7 154 -1.282
48 P7 155 -0.793
48 P7 156 -0.793
48 P7 157 -2.258
48 P7 158 -4.700
48 P7 159 -6.653
48 P7 160 -6.653
48 P7 161 -5.188
48 P7 162 -2.258
48 P7 163 -0.305
48 P7 164 0.671
48 P7 165 0.183
48 P7 166 -0.793
48 P7 167 -0.793
48 P7 168 0.183
48 P7 169 2.136
48 P7 170 3.113
48 P7 171 2.136
48 P7 172 0.183
48 P7 173 -2.747
48 P7 174 -5.188
48 P7 175 -6.165
48 P7 176 -5.188
48 P7 177 -4.211
48 P7 178 -3.723
48 P7 179 -3.723
48 P7 180 -4.211
48 P7 181 -5.676
48 P7 182 -6.653
48 P7 183 -6.653
48 P7 184 -6.653
48 P7 185 -5.676
48 P7 186 -5.188
48 P7 187 -5.676
48 P7 188 -5.676
48 P7 189 -6.165
48 P7 190 -5.188
48 P7 191 -3.235
48 P7 192 -1.282
48 P7 193 0.183
48 P7 194 -0.305
48 P7 195 -2.258
48 P7 196 -5.188
48 P7 197 -7.629
48 P7 198 -8.606
48 P7 199 -7.629
48 P7 200 -6.165
48 P7 201 -5.188
48 P7 202 -5.676
48 P7 203 -7.629
48 P7 204 -9.094
48 P7 205 -10.559
48 P7 206 -10.071
48 P7 207 -8.606
48 P7 208 -7.141
48 P7 209 -6.165
48 P7 210 -5.676
48 P7 211 -6.653
48 P7 212 -7.141
48 P7 213 -7.629
48 P7 214 -7.141
48 P7 215 -6.653
48 P7 216 -6.653
48 P7 217 -7.141
48 P7 218 -8.606
48 P7 219 -10.071
48 P7 220 -11.536
48 P7 221 -11.536
48 P7 222 -10.559
48 P7 223 -8.606
48 P7 224 -7.629
48 P7 225 -7.141
48 P7 226 -8.118
48 P7 227 -9.583
48 P7 228 -10.559
48 P7 229 -10.071
48 P7 230 -8.606
48 P7 231 -7.141
48 P7 232 -5.676
48 P7 233 -4.211
48 P7 234 -2.258
48 P7 235 0.671
48 P7 236 4.578
48 P7 237 7.507
48 P7 238 8.972
48 P7 239 7.019
48 P7 240 2.625
48 P7 241 -2.747
48 P7 242 -8.606
48 P7 243 -13.489
48 P7 244 -16.907
48 P7 245 -17.395
48 P7 246 -15.930
48 P7 247 -13.000
48 P7 248 -9.094
48 P7 249 -7.629
48 P7 250 -7.141
48 P7 251 -9.094
48 P7 252 -10.559
48 P7 253 -10.559
48 P7 254 -9.583
48 P7 255 -7.629
# PO2 chan 27
48 PO2 0 -3.693
48 PO2 1 -1.740
48 PO2 2 0.214
48 PO2 3 0.702
48 PO2 4 0.702
48 PO2 5 0.702
48 PO2 6 0.702
48 PO2 7 1.190
48 PO2 8 1.190
48 PO2 9 1.190
48 PO2 10 0.214
48 PO2 11 -0.275
48 PO2 12 -0.275
48 PO2 13 0.702
48 PO2 14 1.678
48 PO2 15 1.678
48 PO2 16 0.702
48 PO2 17 -1.740
48 PO2 18 -4.669
48 PO2 19 -7.111
48 PO2 20 -9.064
48 PO2 21 -10.529
48 PO2 22 -11.505
48 PO2 23 -11.993
48 PO2 24 -11.993
48 PO2 25 -11.505
48 PO2 26 -11.017
48 PO2 27 -10.040
48 PO2 28 -10.040
48 PO2 29 -9.552
48 PO2 30 -8.087
48 PO2 31 -6.622
48 PO2 32 -5.157
48 PO2 33 -4.669
48 PO2 34 -4.181
48 PO2 35 -4.181
48 PO2 36 -3.204
48 PO2 37 -1.740
48 PO2 38 -0.275
48 PO2 39 0.214
48 PO2 40 -0.763
48 PO2 41 -2.228
48 PO2 42 -3.693
48 PO2 43 -4.669
48 PO2 44 -5.157
48 PO2 45 -5.646
48 PO2 46 -7.111
48 PO2 47 -8.575
48 PO2 48 -9.552
48 PO2 49 -9.552
48 PO2 50 -7.599
48 PO2 51 -4.669
48 PO2 52 -2.716
48 PO2 53 -2.228
48 PO2 54 -2.228
48 PO2 55 -2.228
48 PO2 56 -1.740
48 PO2 57 -1.251
48 PO2 58 -0.763
48 PO2 59 -1.251
48 PO2 60 -2.716
48 PO2 61 -4.181
48 PO2 62 -4.669
48 PO2 63 -5.157
48 PO2 64 -5.157
48 PO2 65 -6.134
48 PO2 66 -7.599
48 PO2 67 -9.064
48 PO2 68 -10.040
48 PO2 69 -9.552
48 PO2 70 -8.575
48 PO2 71 -7.111
48 PO2 72 -6.134
48 PO2 73 -5.157
48 PO2 74 -4.669
48 PO2 75 -2.716
48 PO2 76 -1.251
48 PO2 77 0.702
48 PO2 78 0.702
48 PO2 79 -0.275
48 PO2 80 -2.228
48 PO2 81 -4.181
48 PO2 82 -5.646
48 PO2 83 -5.646
48 PO2 84 -5.157
48 PO2 85 -3.693
48 PO2 86 -3.204
48 PO2 87 -3.204
48 PO2 88 -4.181
48 PO2 89 -5.157
48 PO2 90 -6.622
48 PO2 91 -7.111
48 PO2 92 -8.087
48 PO2 93 -9.064
48 PO2 94 -9.064
48 PO2 95 -8.575
48 PO2 96 -7.599
48 PO2 97 -6.622
48 PO2 98 -5.646
48 PO2 99 -6.134
48 PO2 100 -6.622
48 PO2 101 -6.134
48 PO2 102 -5.646
48 PO2 103 -3.204
48 PO2 104 -0.763
48 PO2 105 0.702
48 PO2 106 1.190
48 PO2 107 1.190
48 PO2 108 0.702
48 PO2 109 0.214
48 PO2 110 -0.763
48 PO2 111 -1.740
48 PO2 112 -3.693
48 PO2 113 -5.646
48 PO2 114 -6.622
48 PO2 115 -6.622
48 PO2 116 -5.157
48 PO2 117 -3.204
48 PO2 118 -1.251
48 PO2 119 0.702
48 PO2 120 1.678
48 PO2 121 2.655
48 PO2 122 3.143
48 PO2 123 3.143
48 PO2 124 2.655
48 PO2 125 0.702
48 PO2 126 -1.740
48 PO2 127 -3.693
48 PO2 128 -5.646
48 PO2 129 -6.622
48 PO2 130 -6.622
48 PO2 131 -6.622
48 PO2 132 -5.646
48 PO2 133 -4.181
48 PO2 134 -2.228
48 PO2 135 -1.740
48 PO2 136 -2.228
48 PO2 137 -3.693
48 PO2 138 -5.157
48 PO2 139 -6.134
48 PO2 140 -5.646
48 PO2 141 -4.669
48 PO2 142 -4.181
48 PO2 143 -2.716
48 PO2 144 -2.228
48 PO2 145 -1.251
48 PO2 146 -1.251
48 PO2 147 -1.251
48 PO2 148 -2.228
48 PO2 149 -3.204
48 PO2 150 -4.181
48 PO2 151 -4.669
48 PO2 152 -4.669
48 PO2 153 -4.181
48 PO2 154 -4.181
48 PO2 155 -4.669
48 PO2 156 -5.157
48 PO2 157 -6.134
48 PO2 158 -7.111
48 PO2 159 -8.087
48 PO2 160 -8.087
48 PO2 161 -7.111
48 PO2 162 -5.646
48 PO2 163 -3.693
48 PO2 164 -3.204
48 PO2 165 -3.693
48 PO2 166 -4.181
48 PO2 167 -5.157
48 PO2 168 -5.157
48 PO2 169 -4.181
48 PO2 170 -2.716
48 PO2 171 -2.716
48 PO2 172 -3.204
48 PO2 173 -4.669
48 PO2 174 -5.646
48 PO2 175 -5.646
48 PO2 176 -5.157
48 PO2 177 -4.181
48 PO2 178 -4.181
48 PO2 179 -5.646
48 PO2 180 -7.599
48 PO2 181 -10.040
48 PO2 182 -11.993
48 PO2 183 -12.482
48 PO2 184 -11.505
48 PO2 185 -10.040
48 PO2 186 -8.087
48 PO2 187 -7.111
48 PO2 188 -6.622
48 PO2 189 -6.134
48 PO2 190 -5.157
