# co2a0000398.rd
# 120 trials, 64 chans, 416 samples 368 post_stim samples
# 3.906000 msecs uV
# S1 obj , trial 36
# FP1 chan 0
36 FP1 0 -3.957
36 FP1 1 -4.445
36 FP1 2 -4.445
36 FP1 3 -2.492
36 FP1 4 -0.539
36 FP1 5 -0.051
36 FP1 6 -2.004
36 FP1 7 -4.445
36 FP1 8 -5.422
36 FP1 9 -3.469
36 FP1 10 -0.539
36 FP1 11 1.414
36 FP1 12 0.437
36 FP1 13 -2.004
36 FP1 14 -5.910
36 FP1 15 -7.863
36 FP1 16 -7.863
36 FP1 17 -7.375
36 FP1 18 -7.375
36 FP1 19 -7.863
36 FP1 20 -8.352
36 FP1 21 -7.863
36 FP1 22 -6.399
36 FP1 23 -5.910
36 FP1 24 -9.328
36 FP1 25 -13.723
36 FP1 26 -17.629
36 FP1 27 -17.629
36 FP1 28 -13.723
36 FP1 29 -7.375
36 FP1 30 -2.492
36 FP1 31 -1.027
36 FP1 32 -2.492
36 FP1 33 -4.445
36 FP1 34 -4.445
36 FP1 35 -2.981
36 FP1 36 -0.051
36 FP1 37 2.879
36 FP1 38 4.832
36 FP1 39 5.809
36 FP1 40 5.320
36 FP1 41 3.855
36 FP1 42 1.902
36 FP1 43 -1.027
36 FP1 44 -2.981
36 FP1 45 -3.469
36 FP1 46 -2.981
36 FP1 47 -2.492
36 FP1 48 -1.516
36 FP1 49 -1.516
36 FP1 50 -2.004
36 FP1 51 -2.981
36 FP1 52 -5.422
36 FP1 53 -8.840
36 FP1 54 -11.770
36 FP1 55 -11.770
36 FP1 56 -8.352
36 FP1 57 -1.516
36 FP1 58 5.809
36 FP1 59 9.226
36 FP1 60 8.250
36 FP1 61 4.344
36 FP1 62 0.437
36 FP1 63 -1.027
36 FP1 64 0.437
36 FP1 65 2.879
36 FP1 66 4.344
36 FP1 67 3.855
36 FP1 68 3.855
36 FP1 69 4.832
36 FP1 70 7.273
36 FP1 71 8.738
36 FP1 72 8.738
36 FP1 73 6.297
36 FP1 74 3.855
36 FP1 75 1.902
36 FP1 76 2.391
36 FP1 77 4.832
36 FP1 78 7.762
36 FP1 79 9.715
36 FP1 80 10.203
36 FP1 81 9.715
36 FP1 82 9.226
36 FP1 83 9.226
36 FP1 84 9.226
36 FP1 85 9.226
36 FP1 86 8.738
36 FP1 87 7.762
36 FP1 88 7.762
36 FP1 89 8.738
36 FP1 90 10.691
36 FP1 91 12.156
36 FP1 92 13.133
36 FP1 93 13.133
36 FP1 94 12.644
36 FP1 95 11.668
36 FP1 96 10.691
36 FP1 97 9.226
36 FP1 98 6.785
36 FP1 99 4.832
36 FP1 100 3.855
36 FP1 101 5.320
36 FP1 102 8.250
36 FP1 103 10.691
36 FP1 104 11.180
36 FP1 105 9.715
36 FP1 106 6.785
36 FP1 107 4.832
36 FP1 108 2.879
36 FP1 109 0.437
36 FP1 110 -2.492
36 FP1 111 -5.422
36 FP1 112 -7.863
36 FP1 113 -7.863
36 FP1 114 -6.887
36 FP1 115 -6.887
36 FP1 116 -8.840
36 FP1 117 -13.723
36 FP1 118 -19.094
36 FP1 119 -22.024
36 FP1 120 -21.535
36 FP1 121 -18.606
36 FP1 122 -14.699
36 FP1 123 -10.793
36 FP1 124 -7.863
36 FP1 125 -5.422
36 FP1 126 -2.492
36 FP1 127 0.437
36 FP1 128 2.391
36 FP1 129 2.879
36 FP1 130 2.391
36 FP1 131 1.414
36 FP1 132 1.414
36 FP1 133 1.902
36 FP1 134 3.367
36 FP1 135 4.344
36 FP1 136 5.320
36 FP1 137 6.297
36 FP1 138 6.785
36 FP1 139 4.832
36 FP1 140 1.414
36 FP1 141 -2.492
36 FP1 142 -5.910
36 FP1 143 -5.910
36 FP1 144 -3.957
36 FP1 145 -2.492
36 FP1 146 -2.981
36 FP1 147 -5.910
36 FP1 148 -9.816
36 FP1 149 -11.281
36 FP1 150 -10.305
36 FP1 151 -7.863
36 FP1 152 -6.399
36 FP1 153 -6.399
36 FP1 154 -6.887
36 FP1 155 -5.910
36 FP1 156 -1.516
36 FP1 157 3.367
36 FP1 158 7.762
36 FP1 159 10.691
36 FP1 160 12.644
36 FP1 161 15.086
36 FP1 162 18.992
36 FP1 163 22.410
36 FP1 164 23.387
36 FP1 165 22.410
36 FP1 166 20.457
36 FP1 167 19.480
36 FP1 168 20.457
36 FP1 169 20.945
36 FP1 170 19.480
36 FP1 171 17.039
36 FP1 172 15.086
36 FP1 173 16.062
36 FP1 174 18.504
36 FP1 175 19.480
36 FP1 176 16.551
36 FP1 177 10.691
36 FP1 178 4.832
36 FP1 179 2.879
36 FP1 180 4.344
36 FP1 181 7.273
36 FP1 182 8.250
36 FP1 183 6.785
36 FP1 184 3.367
36 FP1 185 0.926
36 FP1 186 0.926
36 FP1 187 1.902
36 FP1 188 1.902
36 FP1 189 1.902
36 FP1 190 1.414
36 FP1 191 1.902
36 FP1 192 2.879
36 FP1 193 3.855
36 FP1 194 4.344
36 FP1 195 4.344
36 FP1 196 4.832
36 FP1 197 7.273
36 FP1 198 10.691
36 FP1 199 15.086
36 FP1 200 17.039
36 FP1 201 16.551
36 FP1 202 14.109
36 FP1 203 9.715
36 FP1 204 5.809
36 FP1 205 3.367
36 FP1 206 1.902
36 FP1 207 0.926
36 FP1 208 0.437
36 FP1 209 -1.027
36 FP1 210 -3.469
36 FP1 211 -6.399
36 FP1 212 -9.816
36 FP1 213 -13.234
36 FP1 214 -15.188
36 FP1 215 -15.676
36 FP1 216 -14.211
36 FP1 217 -11.770
36 FP1 218 -8.352
36 FP1 219 -4.934
36 FP1 220 -0.539
36 FP1 221 1.902
36 FP1 222 2.391
36 FP1 223 0.926
36 FP1 224 -1.516
36 FP1 225 -3.469
36 FP1 226 -3.957
36 FP1 227 -2.981
36 FP1 228 -1.516
36 FP1 229 -0.539
36 FP1 230 -0.539
36 FP1 231 -0.539
36 FP1 232 -0.539
36 FP1 233 -0.539
36 FP1 234 -0.051
36 FP1 235 -0.051
36 FP1 236 -0.051
36 FP1 237 -0.539
36 FP1 238 -0.051
36 FP1 239 1.414
36 FP1 240 2.879
36 FP1 241 3.855
36 FP1 242 3.855
36 FP1 243 2.391
36 FP1 244 1.414
36 FP1 245 1.414
36 FP1 246 1.902
36 FP1 247 1.414
36 FP1 248 0.437
36 FP1 249 -1.516
36 FP1 250 -2.004
36 FP1 251 -1.027
36 FP1 252 1.414
36 FP1 253 4.344
36 FP1 254 6.785
36 FP1 255 7.762
# FP2 chan 1
36 FP2 0 -1.587
36 FP2 1 -3.540
36 FP2 2 -3.540
36 FP2 3 -1.099
36 FP2 4 -0.122
36 FP2 5 -1.099
36 FP2 6 -4.517
36 FP2 7 -7.935
36 FP2 8 -8.911
36 FP2 9 -5.981
36 FP2 10 -1.099
36 FP2 11 2.808
36 FP2 12 4.272
36 FP2 13 2.319
36 FP2 14 -1.099
36 FP2 15 -4.517
36 FP2 16 -6.958
36 FP2 17 -7.446
36 FP2 18 -6.958
36 FP2 19 -6.470
36 FP2 20 -5.981
36 FP2 21 -5.493
36 FP2 22 -5.493
36 FP2 23 -6.958
36 FP2 24 -8.911
36 FP2 25 -10.864
36 FP2 26 -11.353
36 FP2 27 -10.376
36 FP2 28 -7.446
36 FP2 29 -5.005
36 FP2 30 -4.517
36 FP2 31 -5.005
36 FP2 32 -6.470
36 FP2 33 -5.981
36 FP2 34 -3.540
36 FP2 35 -0.610
36 FP2 36 2.319
36 FP2 37 3.296
36 FP2 38 3.296
36 FP2 39 2.808
36 FP2 40 1.343
36 FP2 41 0.854
36 FP2 42 -0.610
36 FP2 43 -2.563
36 FP2 44 -4.517
36 FP2 45 -5.981
36 FP2 46 -6.958
36 FP2 47 -5.981
36 FP2 48 -4.517
36 FP2 49 -4.028
36 FP2 50 -5.005
36 FP2 51 -6.958
36 FP2 52 -7.935
36 FP2 53 -7.935
36 FP2 54 -6.958
36 FP2 55 -5.005
36 FP2 56 -4.028
36 FP2 57 -2.563
36 FP2 58 -1.099
36 FP2 59 2.808
36 FP2 60 6.226
36 FP2 61 8.667
36 FP2 62 8.179
36 FP2 63 5.737
36 FP2 64 3.296
36 FP2 65 2.319
36 FP2 66 3.784
36 FP2 67 6.714
36 FP2 68 8.667
36 FP2 69 9.644
36 FP2 70 8.667
36 FP2 71 6.714
36 FP2 72 6.226
36 FP2 73 6.226
36 FP2 74 6.226
36 FP2 75 5.249
36 FP2 76 4.272
36 FP2 77 3.296
36 FP2 78 3.296
36 FP2 79 4.761
36 FP2 80 6.226
36 FP2 81 7.202
36 FP2 82 7.690
36 FP2 83 8.179
36 FP2 84 9.644
36 FP2 85 11.108
36 FP2 86 11.597
36 FP2 87 11.108
36 FP2 88 10.132
36 FP2 89 10.132
36 FP2 90 11.597
36 FP2 91 13.062
36 FP2 92 13.550
36 FP2 93 12.573
36 FP2 94 12.085
36 FP2 95 12.085
36 FP2 96 13.550
36 FP2 97 14.038
36 FP2 98 13.062
36 FP2 99 10.620
36 FP2 100 8.179
36 FP2 101 6.714
36 FP2 102 7.202
36 FP2 103 8.179
36 FP2 104 9.155
36 FP2 105 9.644
36 FP2 106 9.155
36 FP2 107 8.667
36 FP2 108 7.690
36 FP2 109 5.737
36 FP2 110 2.808
36 FP2 111 -0.610
36 FP2 112 -3.052
36 FP2 113 -4.028
36 FP2 114 -5.005
36 FP2 115 -5.981
36 FP2 116 -7.935
36 FP2 117 -11.353
36 FP2 118 -14.771
36 FP2 119 -17.212
36 FP2 120 -18.188
36 FP2 121 -17.700
36 FP2 122 -14.771
36 FP2 123 -10.376
36 FP2 124 -5.005
36 FP2 125 -0.610
36 FP2 126 1.831
36 FP2 127 1.831
36 FP2 128 0.854
36 FP2 129 0.854
36 FP2 130 2.319
36 FP2 131 4.761
36 FP2 132 5.737
36 FP2 133 5.737
36 FP2 134 4.272
36 FP2 135 3.296
36 FP2 136 3.784
36 FP2 137 5.737
36 FP2 138 7.690
36 FP2 139 8.179
36 FP2 140 6.714
36 FP2 141 3.784
36 FP2 142 0.854
36 FP2 143 -1.099
36 FP2 144 -2.563
36 FP2 145 -4.028
36 FP2 146 -5.493
36 FP2 147 -6.958
36 FP2 148 -6.958
36 FP2 149 -5.493
36 FP2 150 -3.052
36 FP2 151 -1.587
36 FP2 152 -2.563
36 FP2 153 -5.005
36 FP2 154 -6.470
36 FP2 155 -5.493
36 FP2 156 -1.587
36 FP2 157 2.808
36 FP2 158 6.226
36 FP2 159 7.690
36 FP2 160 10.132
36 FP2 161 15.015
36 FP2 162 20.874
36 FP2 163 25.757
36 FP2 164 27.222
36 FP2 165 24.292
36 FP2 166 19.409
36 FP2 167 15.991
36 FP2 168 15.015
36 FP2 169 15.503
36 FP2 170 16.479
36 FP2 171 16.479
36 FP2 172 17.456
36 FP2 173 19.897
36 FP2 174 21.851
36 FP2 175 21.362
36 FP2 176 16.968
36 FP2 177 9.155
36 FP2 178 2.808
36 FP2 179 -0.610
36 FP2 180 0.366
36 FP2 181 3.296
36 FP2 182 5.249
36 FP2 183 5.249
36 FP2 184 3.784
36 FP2 185 2.808
36 FP2 186 3.296
36 FP2 187 3.784
36 FP2 188 4.272
36 FP2 189 3.784
36 FP2 190 3.296
36 FP2 191 3.784
36 FP2 192 4.761
36 FP2 193 6.714
36 FP2 194 7.690
36 FP2 195 7.690
36 FP2 196 7.202
36 FP2 197 8.179
36 FP2 198 11.108
36 FP2 199 14.526
36 FP2 200 16.968
36 FP2 201 17.456
36 FP2 202 15.503
36 FP2 203 12.085
36 FP2 204 8.667
36 FP2 205 5.737
36 FP2 206 3.784
36 FP2 207 1.343
36 FP2 208 -1.099
36 FP2 209 -3.052
36 FP2 210 -5.005
36 FP2 211 -6.958
36 FP2 212 -9.888
36 FP2 213 -14.282
36 FP2 214 -18.677
36 FP2 215 -19.653
36 FP2 216 -16.724
36 FP2 217 -10.864
36 FP2 218 -4.517
36 FP2 219 -0.122
36 FP2 220 2.319
36 FP2 221 2.808
36 FP2 222 2.808
36 FP2 223 3.296
36 FP2 224 3.296
36 FP2 225 2.808
36 FP2 226 1.343
36 FP2 227 0.366
36 FP2 228 0.366
36 FP2 229 0.854
36 FP2 230 2.319
36 FP2 231 2.319
36 FP2 232 2.319
36 FP2 233 1.831
36 FP2 234 2.808
36 FP2 235 4.272
36 FP2 236 6.226
36 FP2 237 6.714
36 FP2 238 5.737
36 FP2 239 4.761
36 FP2 240 4.272
36 FP2 241 5.249
36 FP2 242 6.714
36 FP2 243 6.714
36 FP2 244 4.761
36 FP2 245 2.808
36 FP2 246 1.831
36 FP2 247 2.808
36 FP2 248 5.249
36 FP2 249 6.714
36 FP2 250 7.202
36 FP2 251 6.714
36 FP2 252 7.202
36 FP2 253 9.155
36 FP2 254 12.085
36 FP2 255 14.038
# F7 chan 2
36 F7 0 -3.988
36 F7 1 -2.523
36 F7 2 0.895
36 F7 3 3.825
36 F7 4 4.313
36 F7 5 1.872
36 F7 6 -1.546
36 F7 7 -3.499
36 F7 8 -2.035
36 F7 9 0.895
36 F7 10 1.872
36 F7 11 -0.570
36 F7 12 -5.941
36 F7 13 -9.847
36 F7 14 -8.870
36 F7 15 -3.988
36 F7 16 0.895
36 F7 17 1.872
36 F7 18 -2.523
36 F7 19 -7.894
36 F7 20 -10.824
36 F7 21 -8.870
36 F7 22 -5.941
36 F7 23 -6.429
36 F7 24 -13.265
36 F7 25 -22.542
36 F7 26 -26.937
36 F7 27 -22.054
36 F7 28 -8.382
36 F7 29 5.778
36 F7 30 12.126
36 F7 31 8.708
36 F7 32 -2.035
36 F7 33 -10.335
36 F7 34 -11.312
36 F7 35 -3.988
36 F7 36 4.801
36 F7 37 10.173
36 F7 38 9.196
36 F7 39 6.266
36 F7 40 6.266
36 F7 41 10.173
36 F7 42 15.544
36 F7 43 16.520
36 F7 44 9.684
36 F7 45 -1.546
36 F7 46 -11.800
36 F7 47 -13.753
36 F7 48 -6.429
36 F7 49 5.290
36 F7 50 14.079
36 F7 51 14.079
36 F7 52 5.290
36 F7 53 -7.894
36 F7 54 -18.148
36 F7 55 -19.613
36 F7 56 -12.777
36 F7 57 -1.546
36 F7 58 8.219
36 F7 59 12.126
36 F7 60 11.149
36 F7 61 8.219
36 F7 62 5.778
36 F7 63 4.313
36 F7 64 1.872
36 F7 65 -2.035
36 F7 66 -7.406
36 F7 67 -11.312
36 F7 68 -10.335
36 F7 69 -4.476
36 F7 70 3.825
36 F7 71 11.149
36 F7 72 14.079
36 F7 73 12.126
36 F7 74 6.755
36 F7 75 2.360
36 F7 76 0.895
36 F7 77 4.801
36 F7 78 9.196
36 F7 79 13.590
36 F7 80 13.102
36 F7 81 9.196
36 F7 82 4.313
36 F7 83 1.872
36 F7 84 2.848
36 F7 85 7.731
36 F7 86 12.614
36 F7 87 16.032
36 F7 88 16.032
36 F7 89 14.079
36 F7 90 11.149
36 F7 91 9.196
36 F7 92 9.684
36 F7 93 11.637
36 F7 94 13.102
36 F7 95 11.637
36 F7 96 7.731
36 F7 97 2.848
36 F7 98 0.407
36 F7 99 1.383
36 F7 100 4.801
36 F7 101 8.219
36 F7 102 9.684
36 F7 103 9.684
36 F7 104 8.708
36 F7 105 7.731
36 F7 106 6.266
36 F7 107 3.337
36 F7 108 -2.523
36 F7 109 -7.894
36 F7 110 -9.847
36 F7 111 -5.941
36 F7 112 -0.081
36 F7 113 3.337
36 F7 114 -0.081
36 F7 115 -8.870
36 F7 116 -17.660
36 F7 117 -20.101
36 F7 118 -16.195
36 F7 119 -9.847
36 F7 120 -6.917
36 F7 121 -9.847
36 F7 122 -15.706
36 F7 123 -19.124
36 F7 124 -17.660
36 F7 125 -11.800
36 F7 126 -5.941
36 F7 127 -2.035
36 F7 128 0.407
36 F7 129 1.872
36 F7 130 4.801
36 F7 131 8.219
36 F7 132 10.661
36 F7 133 11.637
36 F7 134 11.149
36 F7 135 9.684
36 F7 136 6.755
36 F7 137 2.848
36 F7 138 -2.523
36 F7 139 -6.917
36 F7 140 -8.870
36 F7 141 -7.894
36 F7 142 -4.964
36 F7 143 -1.058
36 F7 144 1.872
36 F7 145 2.848
36 F7 146 0.895
36 F7 147 -3.011
36 F7 148 -7.406
36 F7 149 -10.824
36 F7 150 -12.288
36 F7 151 -11.800
36 F7 152 -9.847
36 F7 153 -8.870
36 F7 154 -7.406
36 F7 155 -4.476
36 F7 156 -0.081
36 F7 157 5.778
36 F7 158 11.149
36 F7 159 15.544
36 F7 160 17.497
36 F7 161 19.450
36 F7 162 21.891
36 F7 163 25.309
36 F7 164 28.239
36 F7 165 30.192
36 F7 166 28.727
36 F7 167 25.309
36 F7 168 20.915
36 F7 169 17.497
36 F7 170 17.497
36 F7 171 20.915
36 F7 172 25.309
36 F7 173 29.215
36 F7 174 29.215
36 F7 175 25.798
36 F7 176 20.426
36 F7 177 16.032
36 F7 178 14.079
36 F7 179 14.079
36 F7 180 13.590
36 F7 181 10.661
36 F7 182 6.266
36 F7 183 1.383
36 F7 184 -0.570
36 F7 185 0.407
36 F7 186 3.337
36 F7 187 5.290
36 F7 188 4.313
36 F7 189 1.383
36 F7 190 -0.570
36 F7 191 -0.081
36 F7 192 4.313
36 F7 193 10.173
36 F7 194 13.590
36 F7 195 14.079
36 F7 196 10.661
36 F7 197 6.755
36 F7 198 5.290
36 F7 199 8.219
36 F7 200 13.590
36 F7 201 17.985
36 F7 202 17.497
36 F7 203 11.149
36 F7 204 2.360
36 F7 205 -3.499
36 F7 206 -3.499
36 F7 207 2.848
36 F7 208 10.173
36 F7 209 13.590
36 F7 210 9.684
36 F7 211 0.895
36 F7 212 -8.870
36 F7 213 -13.753
36 F7 214 -13.753
36 F7 215 -9.847
36 F7 216 -6.917
36 F7 217 -5.941
36 F7 218 -7.406
36 F7 219 -8.870
36 F7 220 -8.382
36 F7 221 -4.964
36 F7 222 -0.570
36 F7 223 2.360
36 F7 224 2.360
36 F7 225 -0.081
36 F7 226 -3.499
36 F7 227 -5.941
36 F7 228 -5.452
36 F7 229 -4.476
36 F7 230 -3.988
36 F7 231 -5.452
36 F7 232 -7.894
36 F7 233 -8.382
36 F7 234 -5.452
36 F7 235 0.895
36 F7 236 7.731
36 F7 237 11.149
36 F7 238 9.684
36 F7 239 4.801
36 F7 240 0.407
36 F7 241 -2.035
36 F7 242 -2.523
36 F7 243 -1.058
36 F7 244 -0.081
36 F7 245 0.407
36 F7 246 0.895
36 F7 247 1.383
36 F7 248 1.872
36 F7 249 1.872
36 F7 250 1.383
36 F7 251 1.383
36 F7 252 1.872
36 F7 253 2.360
36 F7 254 1.383
36 F7 255 -0.081
# F8 chan 3
36 F8 0 1.689
36 F8 1 -1.729
36 F8 2 -4.659
36 F8 3 -7.100
36 F8 4 -6.612
36 F8 5 -4.171
36 F8 6 -1.241
36 F8 7 -0.264
36 F8 8 -1.729
36 F8 9 -3.194
36 F8 10 -3.194
36 F8 11 -0.264
36 F8 12 2.665
36 F8 13 2.665
36 F8 14 -1.729
36 F8 15 -8.565
36 F8 16 -12.960
36 F8 17 -12.472
36 F8 18 -6.124
36 F8 19 1.200
36 F8 20 4.618
36 F8 21 3.153
36 F8 22 -1.241
36 F8 23 -4.171
36 F8 24 -5.147
36 F8 25 -5.147
36 F8 26 -6.124
36 F8 27 -7.589
36 F8 28 -8.565
36 F8 29 -8.565
36 F8 30 -7.100
36 F8 31 -6.612
36 F8 32 -6.124
36 F8 33 -5.147
36 F8 34 -1.729
36 F8 35 3.642
36 F8 36 9.013
36 F8 37 9.989
36 F8 38 6.571
36 F8 39 0.712
36 F8 40 -5.147
36 F8 41 -9.054
36 F8 42 -11.007
36 F8 43 -12.960
36 F8 44 -14.425
36 F8 45 -14.913
36 F8 46 -13.936
36 F8 47 -11.495
36 F8 48 -9.542
36 F8 49 -8.565
36 F8 50 -8.565
36 F8 51 -7.589
36 F8 52 -5.636
36 F8 53 -4.171
36 F8 54 -4.171
36 F8 55 -7.100
36 F8 56 -9.542
36 F8 57 -9.054
36 F8 58 -3.682
36 F8 59 3.642
36 F8 60 10.478
36 F8 61 13.896
36 F8 62 12.919
36 F8 63 9.501
36 F8 64 4.618
36 F8 65 1.689
36 F8 66 2.177
36 F8 67 5.107
36 F8 68 9.989
36 F8 69 12.919
36 F8 70 11.943
36 F8 71 6.083
36 F8 72 -0.264
36 F8 73 -4.171
36 F8 74 -5.147
36 F8 75 -3.194
36 F8 76 -1.729
36 F8 77 -0.753
36 F8 78 -0.264
36 F8 79 2.177
36 F8 80 5.595
36 F8 81 8.525
36 F8 82 9.501
36 F8 83 9.501
36 F8 84 9.989
36 F8 85 12.919
36 F8 86 17.802
36 F8 87 20.732
36 F8 88 20.732
36 F8 89 16.825
36 F8 90 12.431
36 F8 91 9.989
36 F8 92 9.501
36 F8 93 9.989
36 F8 94 10.478
36 F8 95 10.478
36 F8 96 10.966
36 F8 97 12.431
36 F8 98 13.407
36 F8 99 13.407
36 F8 100 10.966
36 F8 101 7.060
36 F8 102 4.618
36 F8 103 5.107
36 F8 104 8.525
36 F8 105 12.919
36 F8 106 14.384
36 F8 107 12.431
36 F8 108 8.525
36 F8 109 4.618
36 F8 110 4.618
36 F8 111 7.548
36 F8 112 10.478
36 F8 113 10.478
36 F8 114 5.595
36 F8 115 -1.729
36 F8 116 -8.077
36 F8 117 -11.007
36 F8 118 -11.007
36 F8 119 -9.542
36 F8 120 -8.565
36 F8 121 -8.077
36 F8 122 -7.589
36 F8 123 -5.147
36 F8 124 -2.218
36 F8 125 -0.264
36 F8 126 -0.264
36 F8 127 -1.729
36 F8 128 -1.241
36 F8 129 2.177
36 F8 130 9.013
36 F8 131 15.361
36 F8 132 18.778
36 F8 133 17.802
36 F8 134 14.384
36 F8 135 10.966
36 F8 136 9.501
36 F8 137 9.501
36 F8 138 8.525
36 F8 139 5.595
36 F8 140 1.689
36 F8 141 -1.241
36 F8 142 0.224
36 F8 143 5.107
36 F8 144 11.454
36 F8 145 13.896
36 F8 146 11.454
36 F8 147 4.130
36 F8 148 -3.682
36 F8 149 -7.589
36 F8 150 -6.612
36 F8 151 -3.194
36 F8 152 0.224
36 F8 153 -0.264
36 F8 154 -2.218
36 F8 155 -3.194
36 F8 156 -0.264
36 F8 157 5.595
36 F8 158 11.943
36 F8 159 16.337
36 F8 160 18.290
36 F8 161 19.755
36 F8 162 22.685
36 F8 163 27.568
36 F8 164 31.474
36 F8 165 32.939
36 F8 166 31.962
36 F8 167 29.032
36 F8 168 26.591
36 F8 169 25.614
36 F8 170 25.614
36 F8 171 26.103
36 F8 172 26.103
36 F8 173 25.126
36 F8 174 22.685
36 F8 175 20.243
36 F8 176 17.314
36 F8 177 14.384
36 F8 178 11.943
36 F8 179 9.989
36 F8 180 9.013
36 F8 181 9.501
36 F8 182 10.966
36 F8 183 11.454
36 F8 184 9.989
36 F8 185 7.060
36 F8 186 3.642
36 F8 187 1.689
36 F8 188 2.665
36 F8 189 6.571
36 F8 190 10.478
36 F8 191 12.431
36 F8 192 11.943
36 F8 193 9.989
36 F8 194 9.013
36 F8 195 11.454
36 F8 196 15.849
36 F8 197 21.708
36 F8 198 25.126
36 F8 199 25.126
36 F8 200 20.732
36 F8 201 15.361
36 F8 202 11.454
36 F8 203 10.478
36 F8 204 11.943
36 F8 205 13.407
36 F8 206 13.407
36 F8 207 10.966
36 F8 208 7.548
36 F8 209 4.130
36 F8 210 1.200
36 F8 211 -2.218
36 F8 212 -7.100
36 F8 213 -12.960
36 F8 214 -18.819
36 F8 215 -20.772
36 F8 216 -17.354
36 F8 217 -9.054
36 F8 218 0.224
36 F8 219 7.060
36 F8 220 10.478
36 F8 221 10.966
36 F8 222 9.989
36 F8 223 9.013
36 F8 224 8.036
36 F8 225 7.060
36 F8 226 5.595
36 F8 227 5.107
36 F8 228 5.595
36 F8 229 6.571
36 F8 230 6.571
36 F8 231 4.618
36 F8 232 2.665
36 F8 233 1.689
36 F8 234 3.642
36 F8 235 6.571
36 F8 236 9.989
36 F8 237 11.454
36 F8 238 11.943
36 F8 239 11.943
36 F8 240 11.943
36 F8 241 11.454
36 F8 242 9.501
36 F8 243 6.571
36 F8 244 3.642
36 F8 245 1.689
36 F8 246 0.712
36 F8 247 1.200
36 F8 248 2.665
36 F8 249 4.130
36 F8 250 5.595
36 F8 251 7.060
36 F8 252 9.501
36 F8 253 12.919
36 F8 254 15.849
36 F8 255 17.314
# AF1 chan 4
36 AF1 0 -2.228
36 AF1 1 -2.716
36 AF1 2 -2.716
36 AF1 3 -2.716
36 AF1 4 -2.228
36 AF1 5 -1.740
36 AF1 6 -1.740
36 AF1 7 -1.251
36 AF1 8 -1.251
36 AF1 9 -0.275
36 AF1 10 0.214
36 AF1 11 0.702
36 AF1 12 0.214
36 AF1 13 -0.763
36 AF1 14 -3.204
36 AF1 15 -5.157
36 AF1 16 -6.134
36 AF1 17 -6.134
36 AF1 18 -5.646
36 AF1 19 -5.157
36 AF1 20 -4.669
36 AF1 21 -5.646
36 AF1 22 -8.087
36 AF1 23 -11.017
36 AF1 24 -13.458
36 AF1 25 -14.923
36 AF1 26 -14.435
36 AF1 27 -11.505
36 AF1 28 -8.087
36 AF1 29 -4.181
36 AF1 30 -1.740
36 AF1 31 -0.763
36 AF1 32 -1.251
36 AF1 33 -2.716
36 AF1 34 -3.204
36 AF1 35 -2.228
36 AF1 36 0.214
36 AF1 37 3.632
36 AF1 38 7.050
36 AF1 39 8.514
36 AF1 40 8.514
36 AF1 41 6.561
36 AF1 42 3.632
36 AF1 43 0.214
36 AF1 44 -2.228
36 AF1 45 -3.204
36 AF1 46 -2.716
36 AF1 47 -1.251
36 AF1 48 0.702
36 AF1 49 0.702
36 AF1 50 -0.763
36 AF1 51 -3.693
36 AF1 52 -6.622
36 AF1 53 -9.064
36 AF1 54 -9.552
36 AF1 55 -8.575
36 AF1 56 -6.622
36 AF1 57 -3.693
36 AF1 58 -0.763
36 AF1 59 2.655
36 AF1 60 5.585
36 AF1 61 7.050
36 AF1 62 6.561
36 AF1 63 4.120
36 AF1 64 2.655
36 AF1 65 1.190
36 AF1 66 2.167
36 AF1 67 4.120
36 AF1 68 6.073
36 AF1 69 7.538
36 AF1 70 8.026
36 AF1 71 8.026
36 AF1 72 8.026
36 AF1 73 8.026
36 AF1 74 7.538
36 AF1 75 6.561
36 AF1 76 4.608
36 AF1 77 3.632
36 AF1 78 3.143
36 AF1 79 4.608
36 AF1 80 6.073
36 AF1 81 6.561
36 AF1 82 6.073
36 AF1 83 5.585
36 AF1 84 5.585
36 AF1 85 6.073
36 AF1 86 7.538
36 AF1 87 8.514
36 AF1 88 9.003
36 AF1 89 9.003
36 AF1 90 8.514
36 AF1 91 8.514
36 AF1 92 8.514
36 AF1 93 8.514
36 AF1 94 8.026
36 AF1 95 7.050
36 AF1 96 6.073
36 AF1 97 5.096
36 AF1 98 4.608
36 AF1 99 4.608
36 AF1 100 5.585
36 AF1 101 6.561
36 AF1 102 7.050
36 AF1 103 7.538
36 AF1 104 8.514
36 AF1 105 9.003
36 AF1 106 8.514
36 AF1 107 6.561
36 AF1 108 3.143
36 AF1 109 -1.251
36 AF1 110 -5.157
36 AF1 111 -6.622
36 AF1 112 -6.622
36 AF1 113 -5.157
36 AF1 114 -4.669
36 AF1 115 -5.157
36 AF1 116 -6.622
36 AF1 117 -8.575
36 AF1 118 -10.040
36 AF1 119 -11.017
36 AF1 120 -11.017
36 AF1 121 -11.505
36 AF1 122 -11.505
36 AF1 123 -10.529
36 AF1 124 -7.599
36 AF1 125 -4.181
36 AF1 126 0.214
36 AF1 127 3.143
36 AF1 128 4.120
36 AF1 129 3.632
36 AF1 130 2.167
36 AF1 131 2.167
36 AF1 132 3.143
36 AF1 133 5.096
36 AF1 134 7.050
36 AF1 135 7.538
36 AF1 136 6.561
36 AF1 137 4.608
36 AF1 138 2.655
36 AF1 139 1.190
36 AF1 140 0.702
36 AF1 141 0.214
36 AF1 142 -0.763
36 AF1 143 -1.740
36 AF1 144 -3.204
36 AF1 145 -3.204
36 AF1 146 -3.204
36 AF1 147 -3.204
36 AF1 148 -3.204
36 AF1 149 -4.181
36 AF1 150 -5.157
36 AF1 151 -5.646
36 AF1 152 -5.646
36 AF1 153 -4.669
36 AF1 154 -3.204
36 AF1 155 -0.763
36 AF1 156 2.655
36 AF1 157 6.561
36 AF1 158 9.979
36 AF1 159 13.397
36 AF1 160 15.350
36 AF1 161 17.303
36 AF1 162 17.792
36 AF1 163 18.768
36 AF1 164 19.745
36 AF1 165 19.745
36 AF1 166 19.257
36 AF1 167 17.792
36 AF1 168 16.327
36 AF1 169 14.374
36 AF1 170 13.885
36 AF1 171 13.397
36 AF1 172 13.397
36 AF1 173 13.397
36 AF1 174 12.909
36 AF1 175 11.932
36 AF1 176 9.491
36 AF1 177 7.050
36 AF1 178 5.096
36 AF1 179 3.632
36 AF1 180 3.143
36 AF1 181 3.632
36 AF1 182 4.120
36 AF1 183 4.120
36 AF1 184 3.143
36 AF1 185 1.190
36 AF1 186 -0.763
36 AF1 187 -2.716
36 AF1 188 -3.204
36 AF1 189 -1.740
36 AF1 190 0.702
36 AF1 191 3.143
36 AF1 192 5.096
36 AF1 193 4.608
36 AF1 194 2.655
36 AF1 195 1.190
36 AF1 196 1.190
36 AF1 197 3.143
36 AF1 198 6.073
36 AF1 199 8.514
36 AF1 200 9.979
36 AF1 201 9.491
36 AF1 202 8.514
36 AF1 203 7.050
36 AF1 204 5.585
36 AF1 205 4.120
36 AF1 206 2.167
36 AF1 207 0.214
36 AF1 208 -1.740
36 AF1 209 -3.204
36 AF1 210 -3.693
36 AF1 211 -4.669
36 AF1 212 -7.111
36 AF1 213 -10.529
36 AF1 214 -13.947
36 AF1 215 -14.923
36 AF1 216 -13.947
36 AF1 217 -10.040
36 AF1 218 -5.157
36 AF1 219 -1.740
36 AF1 220 -0.275
36 AF1 221 -0.275
36 AF1 222 -0.275
36 AF1 223 -0.275
36 AF1 224 0.214
36 AF1 225 0.702
36 AF1 226 -0.763
36 AF1 227 -1.740
36 AF1 228 -3.204
36 AF1 229 -3.204
36 AF1 230 -2.228
36 AF1 231 -1.251
36 AF1 232 -0.763
36 AF1 233 -0.763
36 AF1 234 -1.740
36 AF1 235 -2.228
36 AF1 236 -2.716
36 AF1 237 -2.716
36 AF1 238 -2.716
36 AF1 239 -2.716
36 AF1 240 -2.228
36 AF1 241 -1.251
36 AF1 242 -0.763
36 AF1 243 0.214
36 AF1 244 0.702
36 AF1 245 0.214
36 AF1 246 -0.763
36 AF1 247 -1.740
36 AF1 248 -2.716
36 AF1 249 -3.204
36 AF1 250 -2.228
36 AF1 251 -0.275
36 AF1 252 2.167
36 AF1 253 3.632
36 AF1 254 4.608
36 AF1 255 4.120
# AF2 chan 5
36 AF2 0 -1.333
36 AF2 1 -1.333
36 AF2 2 -1.333
36 AF2 3 -1.821
36 AF2 4 -2.309
36 AF2 5 -2.309
36 AF2 6 -2.309
36 AF2 7 -1.333
36 AF2 8 -0.844
36 AF2 9 0.132
36 AF2 10 1.109
36 AF2 11 2.085
36 AF2 12 2.574
36 AF2 13 2.085
36 AF2 14 0.132
36 AF2 15 -1.821
36 AF2 16 -3.774
36 AF2 17 -4.262
36 AF2 18 -3.774
36 AF2 19 -2.309
36 AF2 20 -1.333
36 AF2 21 -1.333
36 AF2 22 -3.286
36 AF2 23 -5.727
36 AF2 24 -8.169
36 AF2 25 -9.145
36 AF2 26 -8.169
36 AF2 27 -6.215
36 AF2 28 -3.774
36 AF2 29 -1.333
36 AF2 30 0.132
36 AF2 31 0.132
36 AF2 32 -0.356
36 AF2 33 -0.844
36 AF2 34 -0.356
36 AF2 35 0.621
36 AF2 36 2.574
36 AF2 37 5.503
36 AF2 38 7.456
36 AF2 39 8.433
36 AF2 40 6.968
36 AF2 41 4.527
36 AF2 42 1.597
36 AF2 43 -1.333
36 AF2 44 -3.286
36 AF2 45 -3.774
36 AF2 46 -2.797
36 AF2 47 -1.333
36 AF2 48 -0.356
36 AF2 49 -0.844
36 AF2 50 -2.309
36 AF2 51 -4.751
36 AF2 52 -6.704
36 AF2 53 -7.680
36 AF2 54 -7.192
36 AF2 55 -6.215
36 AF2 56 -4.262
36 AF2 57 -1.821
36 AF2 58 1.597
36 AF2 59 5.015
36 AF2 60 8.433
36 AF2 61 9.898
36 AF2 62 9.898
36 AF2 63 8.921
36 AF2 64 7.456
36 AF2 65 6.968
36 AF2 66 7.456
36 AF2 67 8.921
36 AF2 68 10.874
36 AF2 69 11.851
36 AF2 70 12.339
36 AF2 71 11.851
36 AF2 72 10.386
36 AF2 73 8.433
36 AF2 74 5.992
36 AF2 75 4.038
36 AF2 76 2.574
36 AF2 77 2.574
36 AF2 78 4.038
36 AF2 79 5.015
36 AF2 80 5.992
36 AF2 81 6.480
36 AF2 82 5.992
36 AF2 83 5.992
36 AF2 84 6.968
36 AF2 85 8.433
36 AF2 86 9.898
36 AF2 87 10.874
36 AF2 88 10.386
36 AF2 89 9.410
36 AF2 90 8.921
36 AF2 91 8.921
36 AF2 92 9.898
36 AF2 93 10.874
36 AF2 94 11.363
36 AF2 95 10.386
36 AF2 96 8.921
36 AF2 97 6.968
36 AF2 98 5.992
36 AF2 99 5.992
36 AF2 100 6.968
36 AF2 101 7.456
36 AF2 102 7.945
36 AF2 103 7.945
36 AF2 104 8.433
36 AF2 105 8.921
36 AF2 106 8.921
36 AF2 107 7.945
36 AF2 108 5.015
36 AF2 109 0.621
36 AF2 110 -3.774
36 AF2 111 -6.215
36 AF2 112 -6.704
36 AF2 113 -5.239
36 AF2 114 -3.286
36 AF2 115 -2.797
36 AF2 116 -4.262
36 AF2 117 -6.704
36 AF2 118 -8.657
36 AF2 119 -9.633
36 AF2 120 -9.633
36 AF2 121 -9.145
36 AF2 122 -8.657
36 AF2 123 -9.145
36 AF2 124 -8.657
36 AF2 125 -7.192
36 AF2 126 -3.774
36 AF2 127 -0.356
36 AF2 128 1.597
36 AF2 129 2.574
36 AF2 130 2.085
36 AF2 131 2.085
36 AF2 132 3.550
36 AF2 133 5.503
36 AF2 134 7.945
36 AF2 135 7.945
36 AF2 136 5.992
36 AF2 137 4.038
36 AF2 138 2.085
36 AF2 139 2.085
36 AF2 140 2.085
36 AF2 141 2.085
36 AF2 142 1.109
36 AF2 143 0.132
36 AF2 144 -0.844
36 AF2 145 -0.356
36 AF2 146 -0.356
36 AF2 147 -0.844
36 AF2 148 -2.309
36 AF2 149 -4.262
36 AF2 150 -5.727
36 AF2 151 -6.215
36 AF2 152 -4.751
36 AF2 153 -2.797
36 AF2 154 -1.333
36 AF2 155 0.621
36 AF2 156 2.574
36 AF2 157 5.503
36 AF2 158 8.433
36 AF2 159 11.363
36 AF2 160 12.828
36 AF2 161 14.292
36 AF2 162 15.269
36 AF2 163 16.246
36 AF2 164 16.734
36 AF2 165 17.710
36 AF2 166 17.710
36 AF2 167 17.222
36 AF2 168 16.246
36 AF2 169 16.246
36 AF2 170 15.269
36 AF2 171 14.781
36 AF2 172 13.804
36 AF2 173 12.828
36 AF2 174 11.851
36 AF2 175 10.386
36 AF2 176 8.433
36 AF2 177 5.992
36 AF2 178 3.550
36 AF2 179 2.085
36 AF2 180 1.109
36 AF2 181 1.597
36 AF2 182 3.062
36 AF2 183 4.527
36 AF2 184 4.527
36 AF2 185 2.574
36 AF2 186 0.132
36 AF2 187 -1.333
36 AF2 188 -1.333
36 AF2 189 0.621
36 AF2 190 3.550
36 AF2 191 5.992
36 AF2 192 6.480
36 AF2 193 5.503
36 AF2 194 3.550
36 AF2 195 2.085
36 AF2 196 2.574
36 AF2 197 4.527
36 AF2 198 7.456
36 AF2 199 9.898
36 AF2 200 11.363
36 AF2 201 11.363
36 AF2 202 10.874
36 AF2 203 9.410
36 AF2 204 7.456
36 AF2 205 5.503
36 AF2 206 3.062
36 AF2 207 1.597
36 AF2 208 0.621
36 AF2 209 0.621
36 AF2 210 -0.844
36 AF2 211 -4.262
36 AF2 212 -9.145
36 AF2 213 -14.028
36 AF2 214 -17.446
36 AF2 215 -17.446
36 AF2 216 -14.028
36 AF2 217 -8.657
36 AF2 218 -2.797
36 AF2 219 2.085
36 AF2 220 5.503
36 AF2 221 6.968
36 AF2 222 5.992
36 AF2 223 5.015
36 AF2 224 4.038
36 AF2 225 2.574
36 AF2 226 1.109
36 AF2 227 0.621
36 AF2 228 0.132
36 AF2 229 0.621
36 AF2 230 1.109
36 AF2 231 2.574
36 AF2 232 3.062
36 AF2 233 3.550
36 AF2 234 3.550
36 AF2 235 3.550
36 AF2 236 3.062
36 AF2 237 2.574
36 AF2 238 2.574
36 AF2 239 2.574
36 AF2 240 3.062
36 AF2 241 3.550
36 AF2 242 3.550
36 AF2 243 3.550
36 AF2 244 3.550
36 AF2 245 3.550
36 AF2 246 3.550
36 AF2 247 3.062
36 AF2 248 2.085
36 AF2 249 1.109
36 AF2 250 1.109
36 AF2 251 3.062
36 AF2 252 5.992
36 AF2 253 8.921
36 AF2 254 10.874
36 AF2 255 11.363
# FZ chan 6
36 FZ 0 -0.366
36 FZ 1 -0.854
36 FZ 2 -1.831
36 FZ 3 -2.808
36 FZ 4 -3.296
36 FZ 5 -3.296
36 FZ 6 -2.319
36 FZ 7 -1.343
36 FZ 8 0.122
36 FZ 9 0.610
36 FZ 10 1.587
36 FZ 11 1.587
36 FZ 12 1.587
36 FZ 13 0.610
36 FZ 14 -0.854
36 FZ 15 -2.808
36 FZ 16 -4.272
36 FZ 17 -4.761
36 FZ 18 -4.272
36 FZ 19 -3.296
36 FZ 20 -3.296
36 FZ 21 -3.784
36 FZ 22 -5.249
36 FZ 23 -7.690
36 FZ 24 -9.155
36 FZ 25 -9.644
36 FZ 26 -8.667
36 FZ 27 -6.714
36 FZ 28 -4.761
36 FZ 29 -2.808
36 FZ 30 -1.343
36 FZ 31 -0.854
36 FZ 32 -0.854
36 FZ 33 -1.343
36 FZ 34 -1.343
36 FZ 35 -0.854
36 FZ 36 0.610
36 FZ 37 3.540
36 FZ 38 5.493
36 FZ 39 6.470
36 FZ 40 6.470
36 FZ 41 5.005
36 FZ 42 2.563
36 FZ 43 -0.366
36 FZ 44 -2.319
36 FZ 45 -3.784
36 FZ 46 -3.296
36 FZ 47 -2.808
36 FZ 48 -2.319
36 FZ 49 -2.808
36 FZ 50 -4.272
36 FZ 51 -6.226
36 FZ 52 -8.179
36 FZ 53 -9.644
36 FZ 54 -9.644
36 FZ 55 -8.667
36 FZ 56 -7.202
36 FZ 57 -4.761
36 FZ 58 -2.319
36 FZ 59 0.122
36 FZ 60 2.563
36 FZ 61 4.517
36 FZ 62 5.005
36 FZ 63 5.005
36 FZ 64 4.517
36 FZ 65 4.028
36 FZ 66 4.028
36 FZ 67 4.517
36 FZ 68 5.493
36 FZ 69 6.470
36 FZ 70 6.958
36 FZ 71 7.446
36 FZ 72 6.958
36 FZ 73 5.981
36 FZ 74 4.517
36 FZ 75 3.052
36 FZ 76 1.587
36 FZ 77 0.610
36 FZ 78 -0.366
36 FZ 79 -0.366
36 FZ 80 -0.854
36 FZ 81 -0.854
36 FZ 82 -0.854
36 FZ 83 -0.366
36 FZ 84 1.099
36 FZ 85 2.563
36 FZ 86 4.028
36 FZ 87 4.517
36 FZ 88 4.517
36 FZ 89 4.028
36 FZ 90 4.028
36 FZ 91 3.540
36 FZ 92 3.540
36 FZ 93 3.540
36 FZ 94 3.052
36 FZ 95 3.052
36 FZ 96 2.563
36 FZ 97 2.075
36 FZ 98 2.563
36 FZ 99 3.052
36 FZ 100 4.028
36 FZ 101 5.005
36 FZ 102 5.493
36 FZ 103 5.981
36 FZ 104 5.981
36 FZ 105 5.981
36 FZ 106 5.005
36 FZ 107 3.540
36 FZ 108 0.610
36 FZ 109 -3.296
36 FZ 110 -7.690
36 FZ 111 -10.132
36 FZ 112 -10.620
36 FZ 113 -8.179
36 FZ 114 -5.249
36 FZ 115 -2.319
36 FZ 116 -1.343
36 FZ 117 -2.319
36 FZ 118 -3.784
36 FZ 119 -5.737
36 FZ 120 -6.714
36 FZ 121 -7.202
36 FZ 122 -7.690
36 FZ 123 -7.690
36 FZ 124 -7.202
36 FZ 125 -5.737
36 FZ 126 -3.296
36 FZ 127 -0.366
36 FZ 128 0.610
36 FZ 129 0.610
36 FZ 130 -0.854
36 FZ 131 -1.343
36 FZ 132 0.122
36 FZ 133 3.052
36 FZ 134 5.493
36 FZ 135 6.470
36 FZ 136 5.493
36 FZ 137 3.540
36 FZ 138 1.099
36 FZ 139 0.122
36 FZ 140 0.122
36 FZ 141 -0.366
36 FZ 142 -1.831
36 FZ 143 -3.296
36 FZ 144 -5.249
36 FZ 145 -5.737
36 FZ 146 -4.761
36 FZ 147 -4.272
36 FZ 148 -3.784
36 FZ 149 -3.784
36 FZ 150 -4.272
36 FZ 151 -3.784
36 FZ 152 -2.808
36 FZ 153 -1.831
36 FZ 154 -0.366
36 FZ 155 0.610
36 FZ 156 2.563
36 FZ 157 5.493
36 FZ 158 7.935
36 FZ 159 10.376
36 FZ 160 11.841
36 FZ 161 12.329
36 FZ 162 12.329
36 FZ 163 12.817
36 FZ 164 13.794
36 FZ 165 14.771
36 FZ 166 14.771
36 FZ 167 13.306
36 FZ 168 11.353
36 FZ 169 8.911
36 FZ 170 7.446
36 FZ 171 6.470
36 FZ 172 5.493
36 FZ 173 4.517
36 FZ 174 3.540
36 FZ 175 2.563
36 FZ 176 1.099
36 FZ 177 -0.366
36 FZ 178 -0.854
36 FZ 179 -0.854
36 FZ 180 -0.854
36 FZ 181 -0.366
36 FZ 182 0.122
36 FZ 183 0.122
36 FZ 184 -0.366
36 FZ 185 -1.831
36 FZ 186 -3.784
36 FZ 187 -4.761
36 FZ 188 -5.249
36 FZ 189 -3.296
36 FZ 190 -0.854
36 FZ 191 1.099
36 FZ 192 2.075
36 FZ 193 1.099
36 FZ 194 -0.366
36 FZ 195 -1.831
36 FZ 196 -1.831
36 FZ 197 -0.854
36 FZ 198 1.099
36 FZ 199 2.563
36 FZ 200 4.028
36 FZ 201 4.517
36 FZ 202 4.517
36 FZ 203 3.540
36 FZ 204 2.563
36 FZ 205 1.099
36 FZ 206 0.122
36 FZ 207 -1.343
36 FZ 208 -2.319
36 FZ 209 -2.808
36 FZ 210 -4.272
36 FZ 211 -6.226
36 FZ 212 -9.155
36 FZ 213 -12.573
36 FZ 214 -15.015
36 FZ 215 -15.015
36 FZ 216 -12.573
36 FZ 217 -8.667
36 FZ 218 -4.272
36 FZ 219 -0.854
36 FZ 220 1.099
36 FZ 221 1.099
36 FZ 222 0.122
36 FZ 223 -0.854
36 FZ 224 -1.831
36 FZ 225 -2.319
36 FZ 226 -2.808
36 FZ 227 -2.808
36 FZ 228 -2.808
36 FZ 229 -2.808
36 FZ 230 -2.808
36 FZ 231 -2.319
36 FZ 232 -1.831
36 FZ 233 -1.831
36 FZ 234 -2.319
36 FZ 235 -3.296
36 FZ 236 -4.272
36 FZ 237 -5.249
36 FZ 238 -5.249
36 FZ 239 -4.272
36 FZ 240 -3.296
36 FZ 241 -2.319
36 FZ 242 -1.343
36 FZ 243 -1.343
36 FZ 244 -0.854
36 FZ 245 -0.854
36 FZ 246 -0.854
36 FZ 247 -1.831
36 FZ 248 -2.808
36 FZ 249 -4.272
36 FZ 250 -4.272
36 FZ 251 -3.784
36 FZ 252 -2.319
36 FZ 253 0.122
36 FZ 254 2.563
36 FZ 255 3.540
# F4 chan 7
36 F4 0 -1.160
36 F4 1 -0.183
36 F4 2 -1.160
36 F4 3 -3.113
36 F4 4 -4.578
36 F4 5 -5.554
36 F4 6 -5.066
36 F4 7 -3.113
36 F4 8 -1.648
36 F4 9 -0.671
36 F4 10 -0.183
36 F4 11 0.793
36 F4 12 1.282
36 F4 13 1.282
36 F4 14 -0.183
36 F4 15 -2.625
36 F4 16 -4.578
36 F4 17 -5.554
36 F4 18 -4.089
36 F4 19 -2.625
36 F4 20 -1.648
36 F4 21 -2.625
36 F4 22 -4.578
36 F4 23 -6.531
36 F4 24 -7.019
36 F4 25 -7.019
36 F4 26 -5.554
36 F4 27 -4.578
36 F4 28 -3.601
36 F4 29 -3.113
36 F4 30 -2.136
36 F4 31 -1.160
36 F4 32 -1.648
36 F4 33 -2.136
36 F4 34 -2.625
36 F4 35 -2.625
36 F4 36 -0.671
36 F4 37 1.770
36 F4 38 4.211
36 F4 39 4.700
36 F4 40 2.747
36 F4 41 -0.671
36 F4 42 -4.089
36 F4 43 -6.531
36 F4 44 -7.507
36 F4 45 -7.019
36 F4 46 -5.554
36 F4 47 -4.578
36 F4 48 -4.578
36 F4 49 -5.554
36 F4 50 -7.507
36 F4 51 -9.949
36 F4 52 -11.414
36 F4 53 -11.902
36 F4 54 -10.437
36 F4 55 -8.484
36 F4 56 -6.531
36 F4 57 -4.578
36 F4 58 -2.625
36 F4 59 -0.183
36 F4 60 2.747
36 F4 61 5.188
36 F4 62 6.653
36 F4 63 7.629
36 F4 64 6.653
36 F4 65 6.165
36 F4 66 5.676
36 F4 67 6.165
36 F4 68 7.141
36 F4 69 8.118
36 F4 70 8.606
36 F4 71 6.653
36 F4 72 3.723
36 F4 73 0.305
36 F4 74 -2.625
36 F4 75 -4.578
36 F4 76 -4.089
36 F4 77 -3.113
36 F4 78 -1.160
36 F4 79 -0.183
36 F4 80 0.305
36 F4 81 0.793
36 F4 82 0.793
36 F4 83 2.258
36 F4 84 3.723
36 F4 85 5.676
36 F4 86 7.141
36 F4 87 7.141
36 F4 88 6.165
36 F4 89 4.211
36 F4 90 3.235
36 F4 91 2.747
36 F4 92 4.211
36 F4 93 6.165
36 F4 94 7.141
36 F4 95 7.141
36 F4 96 5.676
36 F4 97 4.211
36 F4 98 3.723
36 F4 99 4.211
36 F4 100 5.188
36 F4 101 5.676
36 F4 102 4.211
36 F4 103 2.747
36 F4 104 2.258
36 F4 105 3.723
36 F4 106 6.165
36 F4 107 7.629
36 F4 108 6.165
36 F4 109 1.770
36 F4 110 -3.601
36 F4 111 -6.531
36 F4 112 -6.531
36 F4 113 -3.601
36 F4 114 -1.160
36 F4 115 -0.183
36 F4 116 -1.648
36 F4 117 -3.601
36 F4 118 -5.554
36 F4 119 -5.554
36 F4 120 -5.066
36 F4 121 -5.066
36 F4 122 -6.531
36 F4 123 -7.996
36 F4 124 -8.484
36 F4 125 -7.507
36 F4 126 -3.601
36 F4 127 -0.183
36 F4 128 2.747
36 F4 129 3.235
36 F4 130 3.235
36 F4 131 3.723
36 F4 132 6.165
36 F4 133 9.583
36 F4 134 11.047
36 F4 135 10.071
36 F4 136 7.141
36 F4 137 3.235
36 F4 138 1.282
36 F4 139 1.282
36 F4 140 2.747
36 F4 141 3.235
36 F4 142 3.235
36 F4 143 1.770
36 F4 144 1.282
36 F4 145 1.770
36 F4 146 2.747
36 F4 147 3.235
36 F4 148 1.770
36 F4 149 -0.183
36 F4 150 -2.136
36 F4 151 -2.625
36 F4 152 -1.648
36 F4 153 0.305
36 F4 154 1.770
36 F4 155 2.747
36 F4 156 3.235
36 F4 157 4.700
36 F4 158 7.141
36 F4 159 9.583
36 F4 160 12.024
36 F4 161 13.977
36 F4 162 14.954
36 F4 163 15.930
36 F4 164 16.418
36 F4 165 16.907
36 F4 166 16.907
36 F4 167 16.418
36 F4 168 15.930
36 F4 169 14.954
36 F4 170 13.977
36 F4 171 12.512
36 F4 172 10.559
36 F4 173 9.094
36 F4 174 7.141
36 F4 175 6.653
36 F4 176 6.165
36 F4 177 4.700
36 F4 178 2.258
36 F4 179 -0.183
36 F4 180 -1.648
36 F4 181 -1.160
36 F4 182 0.305
36 F4 183 2.258
36 F4 184 2.258
36 F4 185 0.305
36 F4 186 -2.625
36 F4 187 -5.066
36 F4 188 -5.066
36 F4 189 -2.625
36 F4 190 1.282
36 F4 191 4.211
36 F4 192 5.188
36 F4 193 4.211
36 F4 194 2.258
36 F4 195 0.793
36 F4 196 0.793
36 F4 197 2.747
36 F4 198 5.676
36 F4 199 7.629
36 F4 200 8.606
36 F4 201 8.118
36 F4 202 6.653
36 F4 203 5.188
36 F4 204 3.235
36 F4 205 1.770
36 F4 206 0.793
36 F4 207 -0.183
36 F4 208 -0.671
36 F4 209 -1.160
36 F4 210 -3.113
36 F4 211 -7.019
36 F4 212 -11.902
36 F4 213 -17.273
36 F4 214 -20.203
36 F4 215 -20.203
36 F4 216 -16.785
36 F4 217 -11.414
36 F4 218 -5.066
36 F4 219 -0.183
36 F4 220 2.258
36 F4 221 3.235
36 F4 222 3.235
36 F4 223 2.258
36 F4 224 1.282
36 F4 225 -0.183
36 F4 226 -1.160
36 F4 227 -2.625
36 F4 228 -3.601
36 F4 229 -3.601
36 F4 230 -3.113
36 F4 231 -2.625
36 F4 232 -1.648
36 F4 233 -1.648
36 F4 234 -2.136
36 F4 235 -2.136
36 F4 236 -2.625
36 F4 237 -2.625
36 F4 238 -2.625
36 F4 239 -3.113
36 F4 240 -3.113
36 F4 241 -3.601
36 F4 242 -3.601
36 F4 243 -3.113
36 F4 244 -2.625
36 F4 245 -2.136
36 F4 246 -2.625
36 F4 247 -4.089
36 F4 248 -5.554
36 F4 249 -6.531
36 F4 250 -6.042
36 F4 251 -3.601
36 F4 252 -0.183
36 F4 253 2.747
36 F4 254 4.700
36 F4 255 4.700
# F3 chan 8
36 F3 0 2.584
36 F3 1 1.607
36 F3 2 -0.346
36 F3 3 -1.811
36 F3 4 -2.787
36 F3 5 -2.299
36 F3 6 -0.834
36 F3 7 0.142
36 F3 8 1.119
36 F3 9 1.119
36 F3 10 0.631
36 F3 11 0.631
36 F3 12 0.142
36 F3 13 -0.834
36 F3 14 -1.811
36 F3 15 -3.276
36 F3 16 -4.252
36 F3 17 -4.740
36 F3 18 -4.252
36 F3 19 -3.764
36 F3 20 -3.764
36 F3 21 -5.229
36 F3 22 -7.182
36 F3 23 -9.623
36 F3 24 -12.553
36 F3 25 -14.018
36 F3 26 -13.529
36 F3 27 -10.600
36 F3 28 -5.717
36 F3 29 -1.322
36 F3 30 2.096
36 F3 31 3.072
36 F3 32 1.607
36 F3 33 -0.346
36 F3 34 -1.322
36 F3 35 0.142
36 F3 36 2.584
36 F3 37 5.025
36 F3 38 7.467
36 F3 39 9.420
36 F3 40 10.396
36 F3 41 10.396
36 F3 42 9.420
36 F3 43 6.490
36 F3 44 3.072
36 F3 45 0.142
36 F3 46 -1.322
36 F3 47 -0.346
36 F3 48 2.096
36 F3 49 3.560
36 F3 50 3.072
36 F3 51 0.142
36 F3 52 -3.764
36 F3 53 -7.182
36 F3 54 -8.158
36 F3 55 -7.182
36 F3 56 -4.740
36 F3 57 -2.299
36 F3 58 0.631
36 F3 59 3.072
36 F3 60 5.025
36 F3 61 6.490
36 F3 62 6.002
36 F3 63 4.049
36 F3 64 1.607
36 F3 65 0.142
36 F3 66 0.631
36 F3 67 3.072
36 F3 68 6.002
36 F3 69 8.443
36 F3 70 9.908
36 F3 71 9.908
36 F3 72 9.908
36 F3 73 9.420
36 F3 74 8.443
36 F3 75 6.978
36 F3 76 4.537
36 F3 77 3.072
36 F3 78 3.072
36 F3 79 4.049
36 F3 80 6.002
36 F3 81 6.978
36 F3 82 6.490
36 F3 83 4.537
36 F3 84 3.560
36 F3 85 3.072
36 F3 86 4.537
36 F3 87 6.002
36 F3 88 6.978
36 F3 89 7.467
36 F3 90 6.490
36 F3 91 5.514
36 F3 92 4.537
36 F3 93 4.537
36 F3 94 4.049
36 F3 95 4.049
36 F3 96 4.049
36 F3 97 3.560
36 F3 98 3.072
36 F3 99 2.584
36 F3 100 1.607
36 F3 101 1.119
36 F3 102 1.607
36 F3 103 3.072
36 F3 104 4.537
36 F3 105 5.025
36 F3 106 4.537
36 F3 107 1.607
36 F3 108 -2.787
36 F3 109 -5.717
36 F3 110 -7.670
36 F3 111 -8.158
36 F3 112 -7.182
36 F3 113 -6.205
36 F3 114 -5.717
36 F3 115 -5.717
36 F3 116 -6.205
36 F3 117 -7.182
36 F3 118 -8.158
36 F3 119 -9.623
36 F3 120 -11.088
36 F3 121 -12.553
36 F3 122 -13.529
36 F3 123 -13.529
36 F3 124 -11.576
36 F3 125 -8.158
36 F3 126 -3.276
36 F3 127 1.607
36 F3 128 4.537
36 F3 129 5.025
36 F3 130 4.049
36 F3 131 2.584
36 F3 132 2.096
36 F3 133 2.584
36 F3 134 3.560
36 F3 135 3.560
36 F3 136 1.607
36 F3 137 -0.834
36 F3 138 -3.276
36 F3 139 -4.252
36 F3 140 -3.764
36 F3 141 -2.787
36 F3 142 -2.787
36 F3 143 -3.764
36 F3 144 -4.740
36 F3 145 -5.229
36 F3 146 -4.252
36 F3 147 -2.787
36 F3 148 -1.811
36 F3 149 -2.299
36 F3 150 -4.252
36 F3 151 -6.205
36 F3 152 -7.670
36 F3 153 -6.694
36 F3 154 -5.229
36 F3 155 -1.811
36 F3 156 1.607
36 F3 157 5.514
36 F3 158 8.931
36 F3 159 12.349
36 F3 160 14.303
36 F3 161 15.767
36 F3 162 16.744
36 F3 163 17.721
36 F3 164 18.697
36 F3 165 19.674
36 F3 166 19.674
36 F3 167 18.209
36 F3 168 15.767
36 F3 169 12.838
36 F3 170 10.885
36 F3 171 9.908
36 F3 172 9.908
36 F3 173 9.908
36 F3 174 9.420
36 F3 175 7.955
36 F3 176 6.490
36 F3 177 5.025
36 F3 178 4.049
36 F3 179 3.072
36 F3 180 3.072
36 F3 181 2.096
36 F3 182 1.607
36 F3 183 1.119
36 F3 184 0.142
36 F3 185 -0.834
36 F3 186 -2.787
36 F3 187 -4.740
36 F3 188 -5.717
36 F3 189 -5.229
36 F3 190 -3.276
36 F3 191 -0.346
36 F3 192 1.607
36 F3 193 2.096
36 F3 194 1.607
36 F3 195 1.119
36 F3 196 0.631
36 F3 197 0.631
36 F3 198 2.096
36 F3 199 3.560
36 F3 200 5.025
36 F3 201 6.002
36 F3 202 5.514
36 F3 203 4.537
36 F3 204 3.072
36 F3 205 1.119
36 F3 206 -0.346
36 F3 207 -1.811
36 F3 208 -2.299
36 F3 209 -2.787
36 F3 210 -3.764
36 F3 211 -4.740
36 F3 212 -7.182
36 F3 213 -9.623
36 F3 214 -11.576
36 F3 215 -12.065
36 F3 216 -10.600
36 F3 217 -8.158
36 F3 218 -5.717
36 F3 219 -3.764
36 F3 220 -2.787
36 F3 221 -2.299
36 F3 222 -2.787
36 F3 223 -2.787
36 F3 224 -3.276
36 F3 225 -4.252
36 F3 226 -4.740
36 F3 227 -5.229
36 F3 228 -5.229
36 F3 229 -4.740
36 F3 230 -4.740
36 F3 231 -4.252
36 F3 232 -4.740
36 F3 233 -4.740
36 F3 234 -5.229
36 F3 235 -5.717
36 F3 236 -6.694
36 F3 237 -6.694
36 F3 238 -6.694
36 F3 239 -6.205
36 F3 240 -5.229
36 F3 241 -4.252
36 F3 242 -3.276
36 F3 243 -2.787
36 F3 244 -3.276
36 F3 245 -3.764
36 F3 246 -3.764
36 F3 247 -4.740
36 F3 248 -4.740
36 F3 249 -4.740
36 F3 250 -4.740
36 F3 251 -4.252
36 F3 252 -2.787
36 F3 253 -1.811
36 F3 254 -0.834
36 F3 255 -0.346
# FC6 chan 9
36 FC6 0 3.662
36 FC6 1 4.639
36 FC6 2 2.686
36 FC6 3 -1.709
36 FC6 4 -5.615
36 FC6 5 -6.592
36 FC6 6 -5.615
36 FC6 7 -2.686
36 FC6 8 -0.732
36 FC6 9 -0.244
36 FC6 10 -0.732
36 FC6 11 -0.732
36 FC6 12 0.244
36 FC6 13 1.221
36 FC6 14 1.221
36 FC6 15 -0.244
36 FC6 16 -1.709
36 FC6 17 -2.197
36 FC6 18 -1.221
36 FC6 19 -0.244
36 FC6 20 -1.221
36 FC6 21 -3.174
36 FC6 22 -5.127
36 FC6 23 -5.127
36 FC6 24 -3.174
36 FC6 25 -0.244
36 FC6 26 0.732
36 FC6 27 -0.244
36 FC6 28 -1.709
36 FC6 29 -1.709
36 FC6 30 -0.732
36 FC6 31 1.221
36 FC6 32 1.221
36 FC6 33 -0.244
36 FC6 34 -3.662
36 FC6 35 -4.639
36 FC6 36 -3.174
36 FC6 37 1.221
36 FC6 38 5.127
36 FC6 39 5.615
36 FC6 40 1.709
36 FC6 41 -4.639
36 FC6 42 -10.986
36 FC6 43 -12.939
36 FC6 44 -10.986
36 FC6 45 -6.592
36 FC6 46 -2.686
36 FC6 47 -1.709
36 FC6 48 -3.662
36 FC6 49 -7.568
36 FC6 50 -11.475
36 FC6 51 -13.428
36 FC6 52 -13.428
36 FC6 53 -11.475
36 FC6 54 -8.545
36 FC6 55 -5.127
36 FC6 56 -2.686
36 FC6 57 -0.732
36 FC6 58 1.221
36 FC6 59 3.174
36 FC6 60 4.639
36 FC6 61 6.104
36 FC6 62 6.104
36 FC6 63 5.615
36 FC6 64 5.127
36 FC6 65 4.639
36 FC6 66 5.615
36 FC6 67 6.592
36 FC6 68 7.080
36 FC6 69 6.104
36 FC6 70 3.662
36 FC6 71 -0.244
36 FC6 72 -3.662
36 FC6 73 -6.592
36 FC6 74 -8.057
36 FC6 75 -7.568
36 FC6 76 -5.615
36 FC6 77 -2.686
36 FC6 78 0.244
36 FC6 79 3.174
36 FC6 80 4.150
36 FC6 81 4.639
36 FC6 82 5.127
36 FC6 83 5.615
36 FC6 84 7.080
36 FC6 85 9.033
36 FC6 86 10.986
36 FC6 87 11.963
36 FC6 88 11.475
36 FC6 89 10.498
36 FC6 90 9.033
36 FC6 91 8.545
36 FC6 92 9.521
36 FC6 93 10.010
36 FC6 94 10.498
36 FC6 95 9.521
36 FC6 96 8.057
36 FC6 97 6.592
36 FC6 98 6.104
36 FC6 99 6.592
36 FC6 100 7.080
36 FC6 101 5.615
36 FC6 102 3.174
36 FC6 103 0.244
36 FC6 104 0.244
36 FC6 105 3.174
36 FC6 106 8.057
36 FC6 107 11.475
36 FC6 108 11.963
36 FC6 109 8.057
36 FC6 110 3.662
36 FC6 111 0.732
36 FC6 112 1.709
36 FC6 113 5.615
36 FC6 114 8.545
36 FC6 115 7.568
36 FC6 116 3.662
36 FC6 117 -1.709
36 FC6 118 -5.615
36 FC6 119 -6.592
36 FC6 120 -7.080
36 FC6 121 -7.568
36 FC6 122 -9.521
36 FC6 123 -10.498
36 FC6 124 -9.521
36 FC6 125 -5.615
36 FC6 126 -0.244
36 FC6 127 3.662
36 FC6 128 5.127
36 FC6 129 4.639
36 FC6 130 5.127
36 FC6 131 7.568
36 FC6 132 12.451
36 FC6 133 16.357
36 FC6 134 16.846
36 FC6 135 13.916
36 FC6 136 8.057
36 FC6 137 3.174
36 FC6 138 1.221
36 FC6 139 2.686
36 FC6 140 5.127
36 FC6 141 6.592
36 FC6 142 5.127
36 FC6 143 2.686
36 FC6 144 1.221
36 FC6 145 2.686
36 FC6 146 5.127
36 FC6 147 7.080
36 FC6 148 6.104
36 FC6 149 3.174
36 FC6 150 -0.244
36 FC6 151 -1.709
36 FC6 152 -1.221
36 FC6 153 0.244
36 FC6 154 0.732
36 FC6 155 0.732
36 FC6 156 0.244
36 FC6 157 1.709
36 FC6 158 5.127
36 FC6 159 9.521
36 FC6 160 13.428
36 FC6 161 15.869
36 FC6 162 17.822
36 FC6 163 20.264
36 FC6 164 23.193
36 FC6 165 25.635
36 FC6 166 27.588
36 FC6 167 27.588
36 FC6 168 26.611
36 FC6 169 26.123
36 FC6 170 25.635
36 FC6 171 24.170
36 FC6 172 21.240
36 FC6 173 17.822
36 FC6 174 14.893
36 FC6 175 13.428
36 FC6 176 12.939
36 FC6 177 10.986
36 FC6 178 8.057
36 FC6 179 4.150
36 FC6 180 2.686
36 FC6 181 3.662
36 FC6 182 7.080
36 FC6 183 10.498
36 FC6 184 10.986
36 FC6 185 8.545
36 FC6 186 4.639
36 FC6 187 1.221
36 FC6 188 -0.244
36 FC6 189 0.732
36 FC6 190 4.150
36 FC6 191 8.057
36 FC6 192 10.498
36 FC6 193 11.475
36 FC6 194 10.986
36 FC6 195 9.521
36 FC6 196 9.521
36 FC6 197 11.475
36 FC6 198 14.893
36 FC6 199 18.311
36 FC6 200 19.287
36 FC6 201 17.334
36 FC6 202 13.428
36 FC6 203 9.033
36 FC6 204 6.104
36 FC6 205 4.639
36 FC6 206 4.639
36 FC6 207 5.127
36 FC6 208 6.592
36 FC6 209 7.080
36 FC6 210 5.615
36 FC6 211 0.732
36 FC6 212 -6.104
36 FC6 213 -13.428
36 FC6 214 -17.334
36 FC6 215 -16.846
36 FC6 216 -11.475
36 FC6 217 -4.639
36 FC6 218 1.221
36 FC6 219 4.639
36 FC6 220 5.615
36 FC6 221 5.127
36 FC6 222 5.615
36 FC6 223 7.080
36 FC6 224 8.545
36 FC6 225 9.033
36 FC6 226 7.080
36 FC6 227 3.174
36 FC6 228 0.244
36 FC6 229 -0.732
36 FC6 230 1.221
36 FC6 231 4.150
36 FC6 232 5.615
36 FC6 233 6.104
36 FC6 234 6.104
36 FC6 235 6.104
36 FC6 236 7.568
36 FC6 237 8.545
36 FC6 238 8.057
36 FC6 239 6.104
36 FC6 240 3.174
36 FC6 241 1.709
36 FC6 242 2.197
36 FC6 243 4.150
36 FC6 244 5.127
36 FC6 245 4.150
36 FC6 246 1.221
36 FC6 247 -1.221
36 FC6 248 -2.197
36 FC6 249 -0.244
36 FC6 250 3.662
36 FC6 251 7.080
36 FC6 252 9.033
36 FC6 253 8.545
36 FC6 254 7.568
36 FC6 255 6.104
# FC5 chan 10
36 FC5 0 4.557
36 FC5 1 3.092
36 FC5 2 0.163
36 FC5 3 -2.279
36 FC5 4 -3.743
36 FC5 5 -3.255
36 FC5 6 -0.814
36 FC5 7 1.628
36 FC5 8 2.116
36 FC5 9 0.651
36 FC5 10 -1.302
36 FC5 11 -2.279
36 FC5 12 -1.302
36 FC5 13 0.651
36 FC5 14 2.604
36 FC5 15 2.604
36 FC5 16 1.139
36 FC5 17 -0.326
36 FC5 18 -1.302
36 FC5 19 -2.279
36 FC5 20 -3.743
36 FC5 21 -6.185
36 FC5 22 -9.603
36 FC5 23 -12.533
36 FC5 24 -15.462
36 FC5 25 -15.951
36 FC5 26 -14.486
36 FC5 27 -10.579
36 FC5 28 -4.720
36 FC5 29 1.139
36 FC5 30 5.534
36 FC5 31 6.999
36 FC5 32 5.534
36 FC5 33 3.581
36 FC5 34 1.628
36 FC5 35 2.116
36 FC5 36 3.092
36 FC5 37 5.046
36 FC5 38 6.022
36 FC5 39 7.487
36 FC5 40 9.440
36 FC5 41 10.905
36 FC5 42 10.905
36 FC5 43 8.952
36 FC5 44 4.557
36 FC5 45 0.651
36 FC5 46 -1.302
36 FC5 47 0.163
36 FC5 48 3.092
36 FC5 49 6.022
36 FC5 50 6.022
36 FC5 51 4.069
36 FC5 52 0.651
36 FC5 53 -1.302
36 FC5 54 -1.790
36 FC5 55 -0.326
36 FC5 56 0.163
36 FC5 57 -0.326
36 FC5 58 -0.814
36 FC5 59 -0.326
36 FC5 60 1.628
36 FC5 61 3.581
36 FC5 62 4.069
36 FC5 63 1.628
36 FC5 64 -1.790
36 FC5 65 -4.232
36 FC5 66 -3.743
36 FC5 67 0.163
36 FC5 68 5.534
36 FC5 69 8.952
36 FC5 70 9.440
36 FC5 71 7.975
36 FC5 72 6.999
36 FC5 73 6.999
36 FC5 74 7.975
36 FC5 75 7.975
36 FC5 76 6.022
36 FC5 77 3.092
36 FC5 78 1.139
36 FC5 79 2.604
36 FC5 80 6.510
36 FC5 81 11.393
36 FC5 82 13.835
36 FC5 83 12.858
36 FC5 84 9.440
36 FC5 85 6.510
36 FC5 86 5.534
36 FC5 87 6.999
36 FC5 88 9.440
36 FC5 89 11.393
36 FC5 90 11.393
36 FC5 91 10.905
36 FC5 92 10.417
36 FC5 93 10.417
36 FC5 94 9.928
36 FC5 95 9.440
36 FC5 96 8.952
36 FC5 97 8.464
36 FC5 98 8.464
36 FC5 99 7.487
36 FC5 100 4.557
36 FC5 101 1.139
36 FC5 102 -0.814
36 FC5 103 0.651
36 FC5 104 4.557
36 FC5 105 7.975
36 FC5 106 8.464
36 FC5 107 6.022
36 FC5 108 2.604
36 FC5 109 1.139
36 FC5 110 2.116
36 FC5 111 4.557
36 FC5 112 5.046
36 FC5 113 1.628
36 FC5 114 -4.232
36 FC5 115 -9.603
36 FC5 116 -12.533
36 FC5 117 -12.533
36 FC5 118 -11.068
36 FC5 119 -10.091
36 FC5 120 -11.556
36 FC5 121 -13.021
36 FC5 122 -13.021
36 FC5 123 -10.091
36 FC5 124 -4.720
36 FC5 125 1.139
36 FC5 126 5.534
36 FC5 127 7.975
36 FC5 128 8.464
36 FC5 129 8.952
36 FC5 130 8.952
36 FC5 131 8.464
36 FC5 132 6.999
36 FC5 133 5.046
36 FC5 134 3.092
36 FC5 135 2.604
36 FC5 136 3.092
36 FC5 137 3.581
36 FC5 138 3.581
36 FC5 139 2.604
36 FC5 140 1.139
36 FC5 141 0.163
36 FC5 142 0.163
36 FC5 143 0.651
36 FC5 144 2.116
36 FC5 145 2.604
36 FC5 146 3.581
36 FC5 147 3.581
36 FC5 148 3.092
36 FC5 149 1.628
36 FC5 150 -1.302
36 FC5 151 -3.743
36 FC5 152 -5.697
36 FC5 153 -5.697
36 FC5 154 -3.743
36 FC5 155 -0.326
36 FC5 156 4.069
36 FC5 157 7.487
36 FC5 158 10.905
36 FC5 159 14.323
36 FC5 160 16.764
36 FC5 161 19.694
36 FC5 162 22.135
36 FC5 163 25.065
36 FC5 164 27.507
36 FC5 165 29.948
36 FC5 166 31.413
36 FC5 167 31.413
36 FC5 168 29.460
36 FC5 169 25.553
36 FC5 170 21.647
36 FC5 171 19.694
36 FC5 172 20.182
36 FC5 173 22.135
36 FC5 174 23.112
36 FC5 175 22.135
36 FC5 176 18.717
36 FC5 177 13.835
36 FC5 178 10.417
36 FC5 179 8.952
36 FC5 180 9.928
36 FC5 181 11.393
36 FC5 182 11.393
36 FC5 183 10.417
36 FC5 184 8.464
36 FC5 185 6.510
36 FC5 186 5.046
36 FC5 187 4.069
36 FC5 188 3.092
36 FC5 189 2.116
36 FC5 190 1.628
36 FC5 191 1.139
36 FC5 192 2.604
36 FC5 193 5.046
36 FC5 194 7.975
36 FC5 195 9.928
36 FC5 196 10.417
36 FC5 197 9.440
36 FC5 198 8.952
36 FC5 199 9.928
36 FC5 200 11.393
36 FC5 201 12.858
36 FC5 202 12.858
36 FC5 203 11.882
36 FC5 204 9.440
36 FC5 205 7.975
36 FC5 206 6.999
36 FC5 207 6.022
36 FC5 208 3.581
36 FC5 209 1.139
36 FC5 210 -0.814
36 FC5 211 -0.814
36 FC5 212 0.651
36 FC5 213 2.116
36 FC5 214 1.628
36 FC5 215 -0.326
36 FC5 216 -2.767
36 FC5 217 -4.232
36 FC5 218 -3.743
36 FC5 219 -1.790
36 FC5 220 -0.814
36 FC5 221 -0.814
36 FC5 222 -1.302
36 FC5 223 -1.302
36 FC5 224 0.163
36 FC5 225 1.139
36 FC5 226 1.139
36 FC5 227 -0.326
36 FC5 228 -2.279
36 FC5 229 -3.255
36 FC5 230 -2.767
36 FC5 231 -1.302
36 FC5 232 0.163
36 FC5 233 0.651
36 FC5 234 0.163
36 FC5 235 0.651
36 FC5 236 1.139
36 FC5 237 2.116
36 FC5 238 3.092
36 FC5 239 4.069
36 FC5 240 4.069
36 FC5 241 3.581
36 FC5 242 2.116
36 FC5 243 -0.326
36 FC5 244 -2.279
36 FC5 245 -3.255
36 FC5 246 -1.790
36 FC5 247 0.651
36 FC5 248 3.092
36 FC5 249 4.069
36 FC5 250 2.116
36 FC5 251 -0.326
36 FC5 252 -1.790
36 FC5 253 -1.790
36 FC5 254 -0.326
36 FC5 255 1.628
# FC2 chan 11
36 FC2 0 0.051
36 FC2 1 0.051
36 FC2 2 -0.437
36 FC2 3 -1.902
36 FC2 4 -2.391
36 FC2 5 -2.391
36 FC2 6 -1.902
36 FC2 7 -0.437
36 FC2 8 0.539
36 FC2 9 1.027
36 FC2 10 1.027
36 FC2 11 1.516
36 FC2 12 1.027
36 FC2 13 0.539
36 FC2 14 -0.437
36 FC2 15 -2.391
36 FC2 16 -3.367
36 FC2 17 -2.879
36 FC2 18 -1.902
36 FC2 19 -0.926
36 FC2 20 -0.926
36 FC2 21 -1.902
36 FC2 22 -2.879
36 FC2 23 -3.367
36 FC2 24 -2.879
36 FC2 25 -2.391
36 FC2 26 -0.926
36 FC2 27 -0.926
36 FC2 28 -1.414
36 FC2 29 -1.414
36 FC2 30 -1.902
36 FC2 31 -0.926
36 FC2 32 -0.437
36 FC2 33 0.051
36 FC2 34 0.051
36 FC2 35 0.051
36 FC2 36 1.027
36 FC2 37 2.004
36 FC2 38 2.981
36 FC2 39 3.469
36 FC2 40 2.004
36 FC2 41 0.051
36 FC2 42 -2.391
36 FC2 43 -3.855
36 FC2 44 -4.344
36 FC2 45 -3.367
36 FC2 46 -2.391
36 FC2 47 -2.391
36 FC2 48 -2.879
36 FC2 49 -3.855
36 FC2 50 -5.320
36 FC2 51 -6.785
36 FC2 52 -7.273
36 FC2 53 -6.785
36 FC2 54 -5.320
36 FC2 55 -3.855
36 FC2 56 -2.391
36 FC2 57 -1.414
36 FC2 58 -0.926
36 FC2 59 -0.437
36 FC2 60 0.051
36 FC2 61 1.027
36 FC2 62 2.004
36 FC2 63 3.469
36 FC2 64 3.957
36 FC2 65 3.957
36 FC2 66 3.957
36 FC2 67 3.957
36 FC2 68 3.957
36 FC2 69 3.469
36 FC2 70 2.981
36 FC2 71 1.516
36 FC2 72 0.539
36 FC2 73 -0.926
36 FC2 74 -1.414
36 FC2 75 -1.414
36 FC2 76 -0.926
36 FC2 77 -0.437
36 FC2 78 -0.437
36 FC2 79 -1.414
36 FC2 80 -2.391
36 FC2 81 -3.367
36 FC2 82 -2.879
36 FC2 83 -1.414
36 FC2 84 1.027
36 FC2 85 2.981
36 FC2 86 4.445
36 FC2 87 4.934
36 FC2 88 3.957
36 FC2 89 2.981
36 FC2 90 1.027
36 FC2 91 0.051
36 FC2 92 -0.437
36 FC2 93 0.051
36 FC2 94 0.051
36 FC2 95 0.539
36 FC2 96 1.027
36 FC2 97 1.027
36 FC2 98 1.516
36 FC2 99 2.004
36 FC2 100 2.004
36 FC2 101 2.004
36 FC2 102 1.027
36 FC2 103 0.539
36 FC2 104 0.539
36 FC2 105 1.516
36 FC2 106 2.981
36 FC2 107 3.957
36 FC2 108 3.469
36 FC2 109 1.027
36 FC2 110 -1.902
36 FC2 111 -4.344
36 FC2 112 -4.832
36 FC2 113 -2.879
36 FC2 114 0.051
36 FC2 115 2.492
36 FC2 116 2.981
36 FC2 117 2.004
36 FC2 118 0.539
36 FC2 119 -1.414
36 FC2 120 -2.879
36 FC2 121 -3.367
36 FC2 122 -4.344
36 FC2 123 -5.320
36 FC2 124 -5.809
36 FC2 125 -4.832
36 FC2 126 -3.367
36 FC2 127 -1.414
36 FC2 128 0.539
36 FC2 129 1.027
36 FC2 130 1.516
36 FC2 131 2.492
36 FC2 132 3.469
36 FC2 133 4.934
36 FC2 134 5.910
36 FC2 135 5.422
36 FC2 136 3.469
36 FC2 137 1.516
36 FC2 138 0.539
36 FC2 139 0.051
36 FC2 140 0.539
36 FC2 141 0.539
36 FC2 142 0.051
36 FC2 143 -1.902
36 FC2 144 -2.879
36 FC2 145 -2.879
36 FC2 146 -2.391
36 FC2 147 -1.414
36 FC2 148 -0.926
36 FC2 149 -0.926
36 FC2 150 -1.414
36 FC2 151 -1.414
36 FC2 152 -0.437
36 FC2 153 0.539
36 FC2 154 1.027
36 FC2 155 0.539
36 FC2 156 0.539
36 FC2 157 0.539
36 FC2 158 2.004
36 FC2 159 3.469
36 FC2 160 4.934
36 FC2 161 5.422
36 FC2 162 6.399
36 FC2 163 6.887
36 FC2 164 8.352
36 FC2 165 9.328
36 FC2 166 9.816
36 FC2 167 8.840
36 FC2 168 7.375
36 FC2 169 5.422
36 FC2 170 3.957
36 FC2 171 2.492
36 FC2 172 1.027
36 FC2 173 0.051
36 FC2 174 -0.437
36 FC2 175 -0.437
36 FC2 176 -0.437
36 FC2 177 -0.926
36 FC2 178 -0.926
36 FC2 179 -1.902
36 FC2 180 -1.902
36 FC2 181 -1.902
36 FC2 182 -0.437
36 FC2 183 0.051
36 FC2 184 0.051
36 FC2 185 -0.926
36 FC2 186 -1.902
36 FC2 187 -2.879
36 FC2 188 -2.879
36 FC2 189 -1.414
36 FC2 190 0.539
36 FC2 191 2.004
36 FC2 192 2.492
36 FC2 193 2.492
36 FC2 194 1.516
36 FC2 195 1.027
36 FC2 196 1.027
36 FC2 197 1.516
36 FC2 198 2.981
36 FC2 199 3.957
36 FC2 200 4.445
36 FC2 201 3.469
36 FC2 202 2.492
36 FC2 203 1.027
36 FC2 204 0.051
36 FC2 205 -0.437
36 FC2 206 -0.926
36 FC2 207 -0.926
36 FC2 208 -0.926
36 FC2 209 -0.926
36 FC2 210 -2.391
36 FC2 211 -4.344
36 FC2 212 -7.273
36 FC2 213 -9.715
36 FC2 214 -11.180
36 FC2 215 -11.180
36 FC2 216 -9.226
36 FC2 217 -6.297
36 FC2 218 -2.879
36 FC2 219 -0.437
36 FC2 220 1.027
36 FC2 221 1.516
36 FC2 222 1.516
36 FC2 223 1.027
36 FC2 224 0.051
36 FC2 225 -0.437
36 FC2 226 -1.902
36 FC2 227 -2.391
36 FC2 228 -2.391
36 FC2 229 -1.902
36 FC2 230 -0.926
36 FC2 231 -0.437
36 FC2 232 -0.437
36 FC2 233 -0.437
36 FC2 234 -1.414
36 FC2 235 -1.902
36 FC2 236 -2.879
36 FC2 237 -2.879
36 FC2 238 -2.879
36 FC2 239 -2.391
36 FC2 240 -2.391
36 FC2 241 -1.902
36 FC2 242 -1.902
36 FC2 243 -0.926
36 FC2 244 -0.926
36 FC2 245 -0.926
36 FC2 246 -1.414
36 FC2 247 -2.391
36 FC2 248 -3.367
36 FC2 249 -3.855
36 FC2 250 -3.367
36 FC2 251 -2.391
36 FC2 252 -0.437
36 FC2 253 1.027
36 FC2 254 2.004
36 FC2 255 2.004
# FC1 chan 12
36 FC1 0 1.272
36 FC1 1 0.295
36 FC1 2 -1.170
36 FC1 3 -1.658
36 FC1 4 -2.146
36 FC1 5 -2.146
36 FC1 6 -1.658
36 FC1 7 -1.170
36 FC1 8 -0.682
36 FC1 9 -0.193
36 FC1 10 0.295
36 FC1 11 0.295
36 FC1 12 -0.193
36 FC1 13 -0.682
36 FC1 14 -1.658
36 FC1 15 -2.635
36 FC1 16 -3.611
36 FC1 17 -4.100
36 FC1 18 -4.100
36 FC1 19 -4.100
36 FC1 20 -4.100
36 FC1 21 -4.588
36 FC1 22 -5.564
36 FC1 23 -6.541
36 FC1 24 -7.517
36 FC1 25 -8.006
36 FC1 26 -7.517
36 FC1 27 -6.541
36 FC1 28 -4.100
36 FC1 29 -2.146
36 FC1 30 -0.682
36 FC1 31 -0.193
36 FC1 32 -0.682
36 FC1 33 -1.658
36 FC1 34 -1.658
36 FC1 35 -0.682
36 FC1 36 0.783
36 FC1 37 2.248
36 FC1 38 3.713
36 FC1 39 4.690
36 FC1 40 4.690
36 FC1 41 4.201
36 FC1 42 3.225
36 FC1 43 1.760
36 FC1 44 -0.193
36 FC1 45 -1.658
36 FC1 46 -2.635
36 FC1 47 -2.635
36 FC1 48 -2.146
36 FC1 49 -1.658
36 FC1 50 -2.146
36 FC1 51 -3.611
36 FC1 52 -5.076
36 FC1 53 -6.541
36 FC1 54 -7.029
36 FC1 55 -6.541
36 FC1 56 -5.076
36 FC1 57 -4.100
36 FC1 58 -3.123
36 FC1 59 -1.658
36 FC1 60 -0.682
36 FC1 61 0.295
36 FC1 62 1.272
36 FC1 63 0.783
36 FC1 64 0.295
36 FC1 65 -0.193
36 FC1 66 -0.193
36 FC1 67 0.783
36 FC1 68 1.760
36 FC1 69 2.736
36 FC1 70 3.225
36 FC1 71 3.713
36 FC1 72 3.713
36 FC1 73 3.713
36 FC1 74 3.225
36 FC1 75 2.736
36 FC1 76 1.272
36 FC1 77 -0.193
36 FC1 78 -1.170
36 FC1 79 -1.658
36 FC1 80 -1.170
36 FC1 81 -0.682
36 FC1 82 -0.682
36 FC1 83 -0.682
36 FC1 84 -0.682
36 FC1 85 -0.682
36 FC1 86 -0.193
36 FC1 87 -0.193
36 FC1 88 0.295
36 FC1 89 0.783
36 FC1 90 1.272
36 FC1 91 1.272
36 FC1 92 1.760
36 FC1 93 1.760
36 FC1 94 1.760
36 FC1 95 1.272
36 FC1 96 1.272
36 FC1 97 0.783
36 FC1 98 0.783
36 FC1 99 0.783
36 FC1 100 0.783
36 FC1 101 0.783
36 FC1 102 1.272
36 FC1 103 2.248
36 FC1 104 2.736
36 FC1 105 3.225
36 FC1 106 2.736
36 FC1 107 1.760
36 FC1 108 -0.193
36 FC1 109 -2.635
36 FC1 110 -4.588
36 FC1 111 -5.564
36 FC1 112 -5.076
36 FC1 113 -4.100
36 FC1 114 -3.123
36 FC1 115 -1.658
36 FC1 116 -1.170
36 FC1 117 -1.658
36 FC1 118 -2.635
36 FC1 119 -3.611
36 FC1 120 -4.588
36 FC1 121 -5.564
36 FC1 122 -6.053
36 FC1 123 -5.564
36 FC1 124 -4.100
36 FC1 125 -1.658
36 FC1 126 1.272
36 FC1 127 2.736
36 FC1 128 3.713
36 FC1 129 2.736
36 FC1 130 1.760
36 FC1 131 0.783
36 FC1 132 0.783
36 FC1 133 1.760
36 FC1 134 2.736
36 FC1 135 3.225
36 FC1 136 2.736
36 FC1 137 1.760
36 FC1 138 0.295
36 FC1 139 -0.193
36 FC1 140 -0.682
36 FC1 141 -0.682
36 FC1 142 -0.682
36 FC1 143 -1.170
36 FC1 144 -2.146
36 FC1 145 -2.146
36 FC1 146 -2.146
36 FC1 147 -1.658
36 FC1 148 -0.193
36 FC1 149 -0.193
36 FC1 150 -0.682
36 FC1 151 -1.658
36 FC1 152 -2.146
36 FC1 153 -2.146
36 FC1 154 -0.682
36 FC1 155 0.783
36 FC1 156 2.736
36 FC1 157 5.666
36 FC1 158 7.619
36 FC1 159 9.084
36 FC1 160 10.061
36 FC1 161 10.549
36 FC1 162 11.037
36 FC1 163 12.502
36 FC1 164 13.479
36 FC1 165 14.455
36 FC1 166 14.455
36 FC1 167 12.502
36 FC1 168 10.549
36 FC1 169 8.108
36 FC1 170 5.666
36 FC1 171 4.201
36 FC1 172 3.713
36 FC1 173 3.225
36 FC1 174 3.225
36 FC1 175 3.225
36 FC1 176 2.736
36 FC1 177 2.736
36 FC1 178 2.248
36 FC1 179 2.248
36 FC1 180 1.760
36 FC1 181 2.248
36 FC1 182 1.760
36 FC1 183 1.272
36 FC1 184 0.783
36 FC1 185 -0.193
36 FC1 186 -1.658
36 FC1 187 -2.146
36 FC1 188 -2.146
36 FC1 189 -1.170
36 FC1 190 0.295
36 FC1 191 0.783
36 FC1 192 1.272
36 FC1 193 1.272
36 FC1 194 0.783
36 FC1 195 -0.193
36 FC1 196 -0.682
36 FC1 197 -0.682
36 FC1 198 0.295
36 FC1 199 1.272
36 FC1 200 2.248
36 FC1 201 2.736
36 FC1 202 2.248
36 FC1 203 1.760
36 FC1 204 0.783
36 FC1 205 0.295
36 FC1 206 -0.682
36 FC1 207 -2.146
36 FC1 208 -2.635
36 FC1 209 -3.123
36 FC1 210 -3.611
36 FC1 211 -4.100
36 FC1 212 -5.076
36 FC1 213 -6.541
36 FC1 214 -7.517
36 FC1 215 -8.006
36 FC1 216 -7.029
36 FC1 217 -5.076
36 FC1 218 -3.123
36 FC1 219 -1.658
36 FC1 220 -1.170
36 FC1 221 -0.682
36 FC1 222 -1.658
36 FC1 223 -2.146
36 FC1 224 -2.635
36 FC1 225 -3.123
36 FC1 226 -3.123
36 FC1 227 -3.123
36 FC1 228 -3.611
36 FC1 229 -3.611
36 FC1 230 -3.611
36 FC1 231 -3.123
36 FC1 232 -2.635
36 FC1 233 -2.635
36 FC1 234 -3.123
36 FC1 235 -3.611
36 FC1 236 -5.076
36 FC1 237 -6.053
36 FC1 238 -6.053
36 FC1 239 -6.053
36 FC1 240 -5.564
36 FC1 241 -4.588
36 FC1 242 -4.100
36 FC1 243 -4.100
36 FC1 244 -3.123
36 FC1 245 -2.635
36 FC1 246 -1.658
36 FC1 247 -1.658
36 FC1 248 -2.635
36 FC1 249 -4.100
36 FC1 250 -5.076
36 FC1 251 -5.076
36 FC1 252 -3.611
36 FC1 253 -2.146
36 FC1 254 -0.682
36 FC1 255 -0.193
# T8 chan 13
36 T8 0 0.437
36 T8 1 1.414
36 T8 2 2.391
36 T8 3 2.879
36 T8 4 2.391
36 T8 5 1.902
36 T8 6 1.414
36 T8 7 0.926
36 T8 8 0.437
36 T8 9 -0.539
36 T8 10 -2.492
36 T8 11 -2.981
36 T8 12 -2.492
36 T8 13 -0.539
36 T8 14 1.902
36 T8 15 1.902
36 T8 16 -0.051
36 T8 17 -1.516
36 T8 18 -1.516
36 T8 19 1.414
36 T8 20 3.855
36 T8 21 4.344
36 T8 22 0.437
36 T8 23 -5.422
36 T8 24 -8.840
36 T8 25 -7.375
36 T8 26 -2.981
36 T8 27 0.926
36 T8 28 1.902
36 T8 29 -0.539
36 T8 30 -3.957
36 T8 31 -4.934
36 T8 32 -2.981
36 T8 33 -0.539
36 T8 34 0.437
36 T8 35 0.437
36 T8 36 -0.539
36 T8 37 -0.539
36 T8 38 -0.539
36 T8 39 -2.004
36 T8 40 -6.887
36 T8 41 -13.723
36 T8 42 -19.582
36 T8 43 -21.535
36 T8 44 -18.117
36 T8 45 -12.258
36 T8 46 -7.375
36 T8 47 -5.422
36 T8 48 -7.375
36 T8 49 -10.305
36 T8 50 -12.258
36 T8 51 -12.258
36 T8 52 -11.281
36 T8 53 -10.305
36 T8 54 -10.793
36 T8 55 -11.281
36 T8 56 -10.305
36 T8 57 -6.887
36 T8 58 -2.492
36 T8 59 0.926
36 T8 60 1.414
36 T8 61 -0.051
36 T8 62 -2.981
36 T8 63 -4.445
36 T8 64 -3.957
36 T8 65 -2.492
36 T8 66 -1.027
36 T8 67 -1.516
36 T8 68 -2.492
36 T8 69 -4.445
36 T8 70 -5.422
36 T8 71 -5.910
36 T8 72 -7.863
36 T8 73 -10.305
36 T8 74 -13.234
36 T8 75 -14.211
36 T8 76 -13.234
36 T8 77 -9.328
36 T8 78 -4.934
36 T8 79 -0.539
36 T8 80 2.391
36 T8 81 4.344
36 T8 82 4.832
36 T8 83 4.832
36 T8 84 4.832
36 T8 85 5.809
36 T8 86 7.762
36 T8 87 10.691
36 T8 88 13.133
36 T8 89 14.109
36 T8 90 11.668
36 T8 91 8.250
36 T8 92 5.320
36 T8 93 4.832
36 T8 94 6.785
36 T8 95 9.226
36 T8 96 10.203
36 T8 97 7.762
36 T8 98 3.855
36 T8 99 -0.539
36 T8 100 -3.469
36 T8 101 -3.469
36 T8 102 -1.027
36 T8 103 1.902
36 T8 104 5.809
36 T8 105 8.250
36 T8 106 9.715
36 T8 107 9.715
36 T8 108 8.250
36 T8 109 6.297
36 T8 110 4.832
36 T8 111 4.344
36 T8 112 5.320
36 T8 113 6.297
36 T8 114 6.297
36 T8 115 3.367
36 T8 116 -1.027
36 T8 117 -6.399
36 T8 118 -10.305
36 T8 119 -11.281
36 T8 120 -9.816
36 T8 121 -7.863
36 T8 122 -7.375
36 T8 123 -8.352
36 T8 124 -9.816
36 T8 125 -9.816
36 T8 126 -7.375
36 T8 127 -2.981
36 T8 128 0.926
36 T8 129 3.367
36 T8 130 3.855
36 T8 131 4.344
36 T8 132 6.297
36 T8 133 9.226
36 T8 134 11.668
36 T8 135 11.180
36 T8 136 8.738
36 T8 137 4.832
36 T8 138 1.414
36 T8 139 0.437
36 T8 140 0.926
36 T8 141 1.414
36 T8 142 1.414
36 T8 143 -0.051
36 T8 144 -0.539
36 T8 145 -1.027
36 T8 146 -0.539
36 T8 147 -0.539
36 T8 148 -0.539
36 T8 149 -1.516
36 T8 150 -2.004
36 T8 151 -2.004
36 T8 152 -2.492
36 T8 153 -2.492
36 T8 154 -2.492
36 T8 155 -2.004
36 T8 156 -1.027
36 T8 157 0.926
36 T8 158 3.367
36 T8 159 6.297
36 T8 160 8.738
36 T8 161 11.668
36 T8 162 15.086
36 T8 163 18.992
36 T8 164 24.363
36 T8 165 29.734
36 T8 166 34.129
36 T8 167 35.105
36 T8 168 33.641
36 T8 169 29.734
36 T8 170 26.805
36 T8 171 26.805
36 T8 172 29.246
36 T8 173 30.711
36 T8 174 29.734
36 T8 175 24.363
36 T8 176 16.551
36 T8 177 9.715
36 T8 178 5.809
36 T8 179 5.320
36 T8 180 6.297
36 T8 181 6.785
36 T8 182 6.297
36 T8 183 4.344
36 T8 184 2.391
36 T8 185 1.414
36 T8 186 1.414
36 T8 187 1.902
36 T8 188 2.391
36 T8 189 3.855
36 T8 190 5.320
36 T8 191 7.273
36 T8 192 8.250
36 T8 193 8.250
36 T8 194 8.250
36 T8 195 8.250
36 T8 196 9.715
36 T8 197 11.668
36 T8 198 13.621
36 T8 199 15.086
36 T8 200 15.574
36 T8 201 14.598
36 T8 202 13.133
36 T8 203 10.691
36 T8 204 8.250
36 T8 205 5.320
36 T8 206 2.879
36 T8 207 1.414
36 T8 208 0.926
36 T8 209 -0.051
36 T8 210 -3.469
36 T8 211 -8.840
36 T8 212 -14.699
36 T8 213 -18.606
36 T8 214 -19.582
36 T8 215 -16.164
36 T8 216 -10.793
36 T8 217 -5.422
36 T8 218 -1.027
36 T8 219 1.414
36 T8 220 2.391
36 T8 221 2.391
36 T8 222 1.902
36 T8 223 1.414
36 T8 224 0.926
36 T8 225 -0.051
36 T8 226 -1.516
36 T8 227 -2.981
36 T8 228 -3.957
36 T8 229 -3.469
36 T8 230 -1.516
36 T8 231 0.926
36 T8 232 1.902
36 T8 233 1.414
36 T8 234 0.437
36 T8 235 -0.051
36 T8 236 2.391
36 T8 237 6.297
36 T8 238 9.226
36 T8 239 9.715
36 T8 240 7.273
36 T8 241 2.879
36 T8 242 -0.539
36 T8 243 -2.981
36 T8 244 -3.957
36 T8 245 -3.957
36 T8 246 -5.422
36 T8 247 -6.399
36 T8 248 -6.399
36 T8 249 -5.422
36 T8 250 -2.492
36 T8 251 1.414
36 T8 252 4.344
36 T8 253 6.297
36 T8 254 6.785
36 T8 255 6.297
# T7 chan 14
36 T7 0 3.947
36 T7 1 2.482
36 T7 2 2.970
36 T7 3 5.412
36 T7 4 6.388
36 T7 5 4.435
36 T7 6 0.041
36 T7 7 -3.866
36 T7 8 -3.866
36 T7 9 -0.448
36 T7 10 4.435
36 T7 11 6.877
36 T7 12 6.388
36 T7 13 3.947
36 T7 14 1.994
36 T7 15 1.506
36 T7 16 1.994
36 T7 17 1.506
36 T7 18 -0.448
36 T7 19 -2.401
36 T7 20 -3.866
36 T7 21 -4.842
36 T7 22 -5.330
36 T7 23 -7.284
36 T7 24 -9.725
36 T7 25 -10.213
36 T7 26 -7.772
36 T7 27 -3.866
36 T7 28 0.529
36 T7 29 1.994
36 T7 30 1.506
36 T7 31 0.041
36 T7 32 -1.424
36 T7 33 -0.936
36 T7 34 1.017
36 T7 35 3.459
36 T7 36 5.412
36 T7 37 8.341
36 T7 38 11.759
36 T7 39 16.154
36 T7 40 19.084
36 T7 41 18.107
36 T7 42 12.736
36 T7 43 4.924
36 T7 44 -1.424
36 T7 45 -3.377
36 T7 46 -1.424
36 T7 47 3.459
36 T7 48 6.877
36 T7 49 8.341
36 T7 50 6.877
36 T7 51 4.435
36 T7 52 2.482
36 T7 53 1.017
36 T7 54 -0.448
36 T7 55 -1.912
36 T7 56 -1.912
36 T7 57 -0.448
36 T7 58 2.970
36 T7 59 6.877
36 T7 60 9.318
36 T7 61 9.806
36 T7 62 7.853
36 T7 63 4.435
36 T7 64 1.017
36 T7 65 -1.424
36 T7 66 -1.912
36 T7 67 -1.424
36 T7 68 0.529
36 T7 69 2.970
36 T7 70 4.924
36 T7 71 5.900
36 T7 72 5.412
36 T7 73 4.924
36 T7 74 3.947
36 T7 75 2.482
36 T7 76 2.482
36 T7 77 4.435
36 T7 78 8.341
36 T7 79 13.224
36 T7 80 16.642
36 T7 81 17.619
36 T7 82 16.154
36 T7 83 13.713
36 T7 84 12.736
36 T7 85 13.713
36 T7 86 16.154
36 T7 87 17.131
36 T7 88 15.666
36 T7 89 12.736
36 T7 90 11.271
36 T7 91 12.248
36 T7 92 15.177
36 T7 93 18.107
36 T7 94 19.084
36 T7 95 18.595
36 T7 96 16.154
36 T7 97 13.713
36 T7 98 12.248
36 T7 99 11.759
36 T7 100 11.271
36 T7 101 10.783
36 T7 102 9.806
36 T7 103 8.830
36 T7 104 8.341
36 T7 105 8.830
36 T7 106 9.318
36 T7 107 10.295
36 T7 108 10.295
36 T7 109 9.806
36 T7 110 8.830
36 T7 111 7.853
36 T7 112 6.388
36 T7 113 5.412
36 T7 114 3.459
36 T7 115 0.529
36 T7 116 -4.354
36 T7 117 -10.701
36 T7 118 -16.561
36 T7 119 -19.491
36 T7 120 -19.002
36 T7 121 -15.096
36 T7 122 -9.725
36 T7 123 -5.330
36 T7 124 -1.424
36 T7 125 1.506
36 T7 126 5.412
36 T7 127 9.318
36 T7 128 11.759
36 T7 129 11.271
36 T7 130 7.853
36 T7 131 3.459
36 T7 132 1.506
36 T7 133 3.947
36 T7 134 9.318
36 T7 135 14.689
36 T7 136 16.642
36 T7 137 14.201
36 T7 138 9.318
36 T7 139 3.947
36 T7 140 0.529
36 T7 141 0.529
36 T7 142 2.482
36 T7 143 5.412
36 T7 144 7.365
36 T7 145 7.365
36 T7 146 6.877
36 T7 147 4.924
36 T7 148 1.994
36 T7 149 -1.424
36 T7 150 -5.330
36 T7 151 -7.284
36 T7 152 -7.772
36 T7 153 -4.842
36 T7 154 0.529
36 T7 155 6.877
36 T7 156 13.224
36 T7 157 16.154
36 T7 158 17.619
36 T7 159 18.107
36 T7 160 19.084
36 T7 161 22.013
36 T7 162 25.920
36 T7 163 30.802
36 T7 164 34.709
36 T7 165 38.127
36 T7 166 39.591
36 T7 167 39.103
36 T7 168 36.662
36 T7 169 32.267
36 T7 170 29.338
36 T7 171 28.849
36 T7 172 30.314
36 T7 173 33.732
36 T7 174 35.685
36 T7 175 33.732
36 T7 176 29.338
36 T7 177 22.990
36 T7 178 18.107
36 T7 179 16.642
36 T7 180 16.642
36 T7 181 17.131
36 T7 182 16.154
36 T7 183 13.713
36 T7 184 11.271
36 T7 185 9.806
36 T7 186 9.318
36 T7 187 9.806
36 T7 188 8.830
36 T7 189 6.388
36 T7 190 4.435
36 T7 191 3.947
36 T7 192 6.388
36 T7 193 10.295
36 T7 194 14.201
36 T7 195 15.177
36 T7 196 13.713
36 T7 197 11.271
36 T7 198 10.783
36 T7 199 13.713
36 T7 200 19.084
36 T7 201 23.478
36 T7 202 23.478
36 T7 203 18.595
36 T7 204 10.295
36 T7 205 3.459
36 T7 206 0.041
36 T7 207 1.994
36 T7 208 6.877
36 T7 209 12.248
36 T7 210 15.177
36 T7 211 15.666
36 T7 212 13.224
36 T7 213 9.318
36 T7 214 5.412
36 T7 215 1.994
36 T7 216 0.041
36 T7 217 -0.936
36 T7 218 -0.448
36 T7 219 0.529
36 T7 220 1.017
36 T7 221 1.017
36 T7 222 0.529
36 T7 223 1.017
36 T7 224 1.994
36 T7 225 3.947
36 T7 226 4.435
36 T7 227 1.994
36 T7 228 -1.424
36 T7 229 -5.330
36 T7 230 -6.795
36 T7 231 -4.842
36 T7 232 -1.912
36 T7 233 1.506
36 T7 234 4.435
36 T7 235 7.853
36 T7 236 11.759
36 T7 237 15.666
36 T7 238 17.619
36 T7 239 15.666
36 T7 240 10.783
36 T7 241 4.924
36 T7 242 0.041
36 T7 243 -1.424
36 T7 244 -1.424
36 T7 245 -1.424
36 T7 246 -0.448
36 T7 247 0.041
36 T7 248 1.994
36 T7 249 4.924
36 T7 250 6.877
36 T7 251 8.341
36 T7 252 8.341
36 T7 253 6.388
36 T7 254 4.435
36 T7 255 1.506
# CZ chan 15
36 CZ 0 -1.241
36 CZ 1 -4.171
36 CZ 2 -5.636
36 CZ 3 -5.147
36 CZ 4 -4.659
36 CZ 5 -3.682
36 CZ 6 -3.682
36 CZ 7 -3.682
36 CZ 8 -2.706
36 CZ 9 -2.218
36 CZ 10 -2.706
36 CZ 11 -4.171
36 CZ 12 -6.124
36 CZ 13 -7.589
36 CZ 14 -7.589
36 CZ 15 -6.612
36 CZ 16 -5.147
36 CZ 17 -5.147
36 CZ 18 -5.636
36 CZ 19 -6.124
36 CZ 20 -6.612
36 CZ 21 -7.589
36 CZ 22 -8.565
36 CZ 23 -11.495
36 CZ 24 -13.448
36 CZ 25 -14.425
36 CZ 26 -12.960
36 CZ 27 -10.030
36 CZ 28 -6.612
36 CZ 29 -4.171
36 CZ 30 -3.194
36 CZ 31 -3.682
36 CZ 32 -4.171
36 CZ 33 -4.659
36 CZ 34 -4.659
36 CZ 35 -4.171
36 CZ 36 -2.706
36 CZ 37 -1.729
36 CZ 38 -2.218
36 CZ 39 -3.682
36 CZ 40 -8.077
36 CZ 41 -13.448
36 CZ 42 -19.796
36 CZ 43 -24.190
36 CZ 44 -26.143
36 CZ 45 -24.190
36 CZ 46 -19.307
36 CZ 47 -12.472
36 CZ 48 -6.612
36 CZ 49 -3.682
36 CZ 50 -4.171
36 CZ 51 -7.589
36 CZ 52 -11.007
36 CZ 53 -13.448
36 CZ 54 -12.960
36 CZ 55 -11.007
36 CZ 56 -6.612
36 CZ 57 -1.241
36 CZ 58 4.130
36 CZ 59 7.548
36 CZ 60 8.525
36 CZ 61 5.595
36 CZ 62 0.712
36 CZ 63 -3.194
36 CZ 64 -5.147
36 CZ 65 -3.682
36 CZ 66 -0.264
36 CZ 67 3.153
36 CZ 68 4.618
36 CZ 69 5.107
36 CZ 70 5.595
36 CZ 71 5.595
36 CZ 72 5.107
36 CZ 73 3.153
36 CZ 74 0.224
36 CZ 75 -2.218
36 CZ 76 -2.218
36 CZ 77 1.689
36 CZ 78 8.036
36 CZ 79 14.872
36 CZ 80 19.755
36 CZ 81 21.220
36 CZ 82 19.755
36 CZ 83 16.825
36 CZ 84 13.896
36 CZ 85 13.407
36 CZ 86 13.896
36 CZ 87 16.337
36 CZ 88 18.290
36 CZ 89 20.243
36 CZ 90 21.708
36 CZ 91 22.196
36 CZ 92 22.196
36 CZ 93 21.708
36 CZ 94 20.732
36 CZ 95 19.267
36 CZ 96 17.802
36 CZ 97 16.337
36 CZ 98 13.896
36 CZ 99 11.943
36 CZ 100 9.989
36 CZ 101 9.501
36 CZ 102 11.454
36 CZ 103 14.872
36 CZ 104 18.778
36 CZ 105 20.732
36 CZ 106 19.755
36 CZ 107 16.825
36 CZ 108 12.919
36 CZ 109 9.501
36 CZ 110 8.036
36 CZ 111 7.060
36 CZ 112 6.571
36 CZ 113 5.595
36 CZ 114 2.665
36 CZ 115 -1.729
36 CZ 116 -7.589
36 CZ 117 -14.913
36 CZ 118 -21.261
36 CZ 119 -25.655
36 CZ 120 -27.120
36 CZ 121 -24.679
36 CZ 122 -20.284
36 CZ 123 -15.401
36 CZ 124 -11.007
36 CZ 125 -8.077
36 CZ 126 -5.147
36 CZ 127 -2.706
36 CZ 128 0.224
36 CZ 129 1.689
36 CZ 130 2.177
36 CZ 131 2.665
36 CZ 132 4.130
36 CZ 133 6.571
36 CZ 134 9.013
36 CZ 135 9.501
36 CZ 136 7.060
36 CZ 137 3.153
36 CZ 138 0.224
36 CZ 139 -0.264
36 CZ 140 1.200
36 CZ 141 2.665
36 CZ 142 2.177
36 CZ 143 0.712
36 CZ 144 -0.753
36 CZ 145 -1.241
36 CZ 146 -1.241
36 CZ 147 -1.241
36 CZ 148 -3.194
36 CZ 149 -6.612
36 CZ 150 -10.518
36 CZ 151 -12.960
36 CZ 152 -14.425
36 CZ 153 -14.425
36 CZ 154 -13.448
36 CZ 155 -11.007
36 CZ 156 -5.636
36 CZ 157 1.200
36 CZ 158 7.548
36 CZ 159 11.943
36 CZ 160 14.384
36 CZ 161 17.314
36 CZ 162 21.708
36 CZ 163 28.056
36 CZ 164 34.892
36 CZ 165 39.286
36 CZ 166 38.798
36 CZ 167 34.892
36 CZ 168 29.521
36 CZ 169 25.614
36 CZ 170 24.638
36 CZ 171 25.614
36 CZ 172 27.568
36 CZ 173 29.521
36 CZ 174 30.009
36 CZ 175 29.032
36 CZ 176 26.103
36 CZ 177 20.732
36 CZ 178 15.361
36 CZ 179 10.966
36 CZ 180 9.501
36 CZ 181 10.966
36 CZ 182 14.384
36 CZ 183 16.825
36 CZ 184 15.849
36 CZ 185 10.966
36 CZ 186 4.618
36 CZ 187 -0.264
36 CZ 188 -1.241
36 CZ 189 2.665
36 CZ 190 8.036
36 CZ 191 12.919
36 CZ 192 14.872
36 CZ 193 14.384
36 CZ 194 13.896
36 CZ 195 14.384
36 CZ 196 17.314
36 CZ 197 22.196
36 CZ 198 27.079
36 CZ 199 30.497
36 CZ 200 30.497
36 CZ 201 27.568
36 CZ 202 22.196
36 CZ 203 17.314
36 CZ 204 12.919
36 CZ 205 10.966
36 CZ 206 9.989
36 CZ 207 9.013
36 CZ 208 7.548
36 CZ 209 4.130
36 CZ 210 -1.241
36 CZ 211 -8.565
36 CZ 212 -15.401
36 CZ 213 -21.261
36 CZ 214 -25.167
36 CZ 215 -25.167
36 CZ 216 -22.237
36 CZ 217 -16.378
36 CZ 218 -9.542
36 CZ 219 -2.706
36 CZ 220 1.689
36 CZ 221 4.130
36 CZ 222 5.107
36 CZ 223 6.083
36 CZ 224 7.060
36 CZ 225 6.571
36 CZ 226 4.618
36 CZ 227 0.712
36 CZ 228 -1.729
36 CZ 229 -1.241
36 CZ 230 3.642
36 CZ 231 9.013
36 CZ 232 13.407
36 CZ 233 13.896
36 CZ 234 11.454
36 CZ 235 9.013
36 CZ 236 9.013
36 CZ 237 11.943
36 CZ 238 15.361
36 CZ 239 17.314
36 CZ 240 16.337
36 CZ 241 12.919
36 CZ 242 9.013
36 CZ 243 7.060
36 CZ 244 7.548
36 CZ 245 8.525
36 CZ 246 9.501
36 CZ 247 9.501
36 CZ 248 9.013
36 CZ 249 9.013
36 CZ 250 10.478
36 CZ 251 11.943
36 CZ 252 11.943
36 CZ 253 7.548
36 CZ 254 -1.729
36 CZ 255 -13.448
# C3 chan 16
36 C3 0 1.882
36 C3 1 0.417
36 C3 2 -0.071
36 C3 3 0.905
36 C3 4 0.905
36 C3 5 0.905
36 C3 6 -0.071
36 C3 7 -1.048
36 C3 8 -1.048
36 C3 9 -0.071
36 C3 10 1.394
36 C3 11 1.882
36 C3 12 1.882
36 C3 13 1.882
36 C3 14 1.882
36 C3 15 2.370
36 C3 16 2.370
36 C3 17 1.882
36 C3 18 0.417
36 C3 19 -1.048
36 C3 20 -2.024
36 C3 21 -2.024
36 C3 22 -2.024
36 C3 23 -2.513
36 C3 24 -3.977
36 C3 25 -4.954
36 C3 26 -5.442
36 C3 27 -3.977
36 C3 28 -1.536
36 C3 29 1.394
36 C3 30 3.835
36 C3 31 3.835
36 C3 32 2.858
36 C3 33 1.882
36 C3 34 1.394
36 C3 35 2.370
36 C3 36 3.835
36 C3 37 5.300
36 C3 38 6.276
36 C3 39 6.765
36 C3 40 6.765
36 C3 41 7.741
36 C3 42 7.741
36 C3 43 6.765
36 C3 44 4.323
36 C3 45 1.394
36 C3 46 -0.071
36 C3 47 -0.559
36 C3 48 1.394
36 C3 49 3.347
36 C3 50 4.812
36 C3 51 3.835
36 C3 52 1.882
36 C3 53 -0.071
36 C3 54 -2.024
36 C3 55 -2.024
36 C3 56 -1.048
36 C3 57 0.417
36 C3 58 1.882
36 C3 59 2.858
36 C3 60 3.347
36 C3 61 2.370
36 C3 62 1.394
36 C3 63 0.417
36 C3 64 -0.559
36 C3 65 -0.559
36 C3 66 0.417
36 C3 67 2.370
36 C3 68 4.323
36 C3 69 5.788
36 C3 70 6.765
36 C3 71 6.765
36 C3 72 6.765
36 C3 73 6.276
36 C3 74 5.300
36 C3 75 3.835
36 C3 76 2.858
36 C3 77 2.370
36 C3 78 2.858
36 C3 79 4.812
36 C3 80 7.253
36 C3 81 8.718
36 C3 82 9.206
36 C3 83 7.741
36 C3 84 5.300
36 C3 85 3.347
36 C3 86 2.370
36 C3 87 3.347
36 C3 88 4.812
36 C3 89 6.276
36 C3 90 8.230
36 C3 91 9.206
36 C3 92 10.183
36 C3 93 10.671
36 C3 94 10.671
36 C3 95 9.694
36 C3 96 7.741
36 C3 97 5.300
36 C3 98 3.835
36 C3 99 2.370
36 C3 100 1.882
36 C3 101 1.882
36 C3 102 2.370
36 C3 103 3.347
36 C3 104 5.300
36 C3 105 6.276
36 C3 106 6.765
36 C3 107 5.300
36 C3 108 4.323
36 C3 109 3.347
36 C3 110 3.835
36 C3 111 4.812
36 C3 112 5.300
36 C3 113 4.323
36 C3 114 1.882
36 C3 115 -1.048
36 C3 116 -3.489
36 C3 117 -3.977
36 C3 118 -4.466
36 C3 119 -3.977
36 C3 120 -4.954
36 C3 121 -5.931
36 C3 122 -5.442
36 C3 123 -3.977
36 C3 124 -0.071
36 C3 125 3.347
36 C3 126 5.788
36 C3 127 7.253
36 C3 128 6.276
36 C3 129 5.300
36 C3 130 4.812
36 C3 131 4.812
36 C3 132 3.835
36 C3 133 3.835
36 C3 134 3.835
36 C3 135 4.812
36 C3 136 6.276
36 C3 137 6.765
36 C3 138 6.276
36 C3 139 4.323
36 C3 140 2.370
36 C3 141 1.394
36 C3 142 1.882
36 C3 143 3.347
36 C3 144 4.323
36 C3 145 4.812
36 C3 146 4.812
36 C3 147 4.323
36 C3 148 4.323
36 C3 149 3.347
36 C3 150 0.905
36 C3 151 -1.048
36 C3 152 -3.001
36 C3 153 -3.001
36 C3 154 -1.048
36 C3 155 1.882
36 C3 156 4.812
36 C3 157 7.253
36 C3 158 8.718
36 C3 159 10.183
36 C3 160 12.136
36 C3 161 14.577
36 C3 162 17.019
36 C3 163 19.460
36 C3 164 21.413
36 C3 165 22.390
36 C3 166 23.366
36 C3 167 23.366
36 C3 168 21.901
36 C3 169 20.437
36 C3 170 17.995
36 C3 171 16.530
36 C3 172 15.554
36 C3 173 15.554
36 C3 174 15.554
36 C3 175 15.066
36 C3 176 14.089
36 C3 177 12.624
36 C3 178 11.159
36 C3 179 10.183
36 C3 180 9.694
36 C3 181 9.206
36 C3 182 8.718
36 C3 183 7.253
36 C3 184 5.788
36 C3 185 3.835
36 C3 186 1.882
36 C3 187 0.905
36 C3 188 0.905
36 C3 189 1.882
36 C3 190 2.370
36 C3 191 3.347
36 C3 192 3.835
36 C3 193 4.812
36 C3 194 5.300
36 C3 195 5.788
36 C3 196 6.276
36 C3 197 6.276
36 C3 198 7.253
36 C3 199 8.230
36 C3 200 9.206
36 C3 201 10.183
36 C3 202 9.694
36 C3 203 8.718
36 C3 204 7.741
36 C3 205 6.276
36 C3 206 4.812
36 C3 207 3.835
36 C3 208 2.858
36 C3 209 2.370
36 C3 210 3.347
36 C3 211 4.323
36 C3 212 5.300
36 C3 213 5.788
36 C3 214 4.323
36 C3 215 2.370
36 C3 216 0.905
36 C3 217 0.417
36 C3 218 -0.071
36 C3 219 -0.071
36 C3 220 -0.559
36 C3 221 -0.559
36 C3 222 -0.559
36 C3 223 -0.071
36 C3 224 0.905
36 C3 225 1.882
36 C3 226 1.882
36 C3 227 1.394
36 C3 228 0.417
36 C3 229 -0.559
36 C3 230 -1.048
36 C3 231 -0.559
36 C3 232 0.417
36 C3 233 0.905
36 C3 234 1.394
36 C3 235 1.394
36 C3 236 1.882
36 C3 237 1.882
36 C3 238 1.882
36 C3 239 1.394
36 C3 240 0.417
36 C3 241 -1.048
36 C3 242 -2.513
36 C3 243 -3.001
36 C3 244 -3.001
36 C3 245 -2.024
36 C3 246 -1.048
36 C3 247 -0.071
36 C3 248 1.394
36 C3 249 1.882
36 C3 250 1.882
36 C3 251 1.882
36 C3 252 0.905
36 C3 253 -0.071
36 C3 254 -1.048
36 C3 255 -1.536
# C4 chan 17
36 C4 0 -1.424
36 C4 1 -1.424
36 C4 2 -1.912
36 C4 3 -1.912
36 C4 4 -0.936
36 C4 5 0.041
36 C4 6 0.529
36 C4 7 0.529
36 C4 8 0.529
36 C4 9 0.529
36 C4 10 0.529
36 C4 11 1.506
36 C4 12 1.506
36 C4 13 1.017
36 C4 14 0.041
36 C4 15 0.041
36 C4 16 0.529
36 C4 17 1.994
36 C4 18 2.970
36 C4 19 2.970
36 C4 20 1.994
36 C4 21 0.529
36 C4 22 0.041
36 C4 23 1.017
36 C4 24 2.482
36 C4 25 3.947
36 C4 26 4.435
36 C4 27 3.459
36 C4 28 1.994
36 C4 29 0.529
36 C4 30 -0.448
36 C4 31 -0.936
36 C4 32 -0.448
36 C4 33 0.041
36 C4 34 1.017
36 C4 35 1.994
36 C4 36 3.459
36 C4 37 3.947
36 C4 38 3.459
36 C4 39 1.506
36 C4 40 -1.424
36 C4 41 -4.354
36 C4 42 -7.284
36 C4 43 -8.748
36 C4 44 -8.260
36 C4 45 -6.795
36 C4 46 -4.842
36 C4 47 -3.377
36 C4 48 -3.377
36 C4 49 -4.354
36 C4 50 -5.819
36 C4 51 -6.795
36 C4 52 -6.795
36 C4 53 -5.330
36 C4 54 -3.866
36 C4 55 -2.401
36 C4 56 -0.936
36 C4 57 0.041
36 C4 58 0.529
36 C4 59 1.506
36 C4 60 1.506
36 C4 61 1.994
36 C4 62 1.994
36 C4 63 1.506
36 C4 64 1.994
36 C4 65 2.482
36 C4 66 3.459
36 C4 67 3.947
36 C4 68 3.947
36 C4 69 3.459
36 C4 70 1.017
36 C4 71 -2.401
36 C4 72 -5.330
36 C4 73 -7.284
36 C4 74 -7.772
36 C4 75 -6.307
36 C4 76 -3.377
36 C4 77 -0.936
36 C4 78 1.017
36 C4 79 1.994
36 C4 80 1.994
36 C4 81 2.482
36 C4 82 2.970
36 C4 83 3.947
36 C4 84 5.412
36 C4 85 7.365
36 C4 86 8.830
36 C4 87 9.806
36 C4 88 9.806
36 C4 89 8.830
36 C4 90 6.877
36 C4 91 5.412
36 C4 92 4.435
36 C4 93 3.947
36 C4 94 4.435
36 C4 95 5.412
36 C4 96 5.412
36 C4 97 4.435
36 C4 98 3.459
36 C4 99 2.482
36 C4 100 1.506
36 C4 101 1.017
36 C4 102 0.529
36 C4 103 0.529
36 C4 104 1.017
36 C4 105 2.482
36 C4 106 4.435
36 C4 107 6.388
36 C4 108 7.853
36 C4 109 7.853
36 C4 110 6.388
36 C4 111 5.412
36 C4 112 5.412
36 C4 113 6.388
36 C4 114 7.365
36 C4 115 7.853
36 C4 116 6.388
36 C4 117 3.947
36 C4 118 1.017
36 C4 119 -1.912
36 C4 120 -3.377
36 C4 121 -4.354
36 C4 122 -4.354
36 C4 123 -4.354
36 C4 124 -3.866
36 C4 125 -2.401
36 C4 126 -1.424
36 C4 127 0.041
36 C4 128 1.017
36 C4 129 1.994
36 C4 130 3.459
36 C4 131 5.412
36 C4 132 7.853
36 C4 133 9.806
36 C4 134 10.295
36 C4 135 9.318
36 C4 136 6.877
36 C4 137 4.924
36 C4 138 3.947
36 C4 139 3.459
36 C4 140 3.459
36 C4 141 3.459
36 C4 142 1.994
36 C4 143 1.506
36 C4 144 1.017
36 C4 145 1.994
36 C4 146 3.459
36 C4 147 4.924
36 C4 148 4.924
36 C4 149 3.947
36 C4 150 2.482
36 C4 151 1.506
36 C4 152 1.017
36 C4 153 1.994
36 C4 154 1.994
36 C4 155 1.506
36 C4 156 1.017
36 C4 157 1.017
36 C4 158 1.506
36 C4 159 2.482
36 C4 160 3.947
36 C4 161 5.900
36 C4 162 7.365
36 C4 163 10.295
36 C4 164 13.224
36 C4 165 16.154
36 C4 166 18.595
36 C4 167 19.572
36 C4 168 19.572
36 C4 169 18.595
36 C4 170 17.619
36 C4 171 16.154
36 C4 172 15.177
36 C4 173 13.224
36 C4 174 11.271
36 C4 175 8.830
36 C4 176 5.900
36 C4 177 2.970
36 C4 178 0.529
36 C4 179 -0.936
36 C4 180 -1.424
36 C4 181 -0.448
36 C4 182 1.017
36 C4 183 1.994
36 C4 184 2.482
36 C4 185 1.994
36 C4 186 1.017
36 C4 187 0.041
36 C4 188 -0.936
36 C4 189 -0.936
36 C4 190 0.529
36 C4 191 2.482
36 C4 192 4.435
36 C4 193 5.412
36 C4 194 5.900
36 C4 195 5.900
36 C4 196 5.900
36 C4 197 7.365
36 C4 198 9.318
36 C4 199 10.783
36 C4 200 11.759
36 C4 201 10.295
36 C4 202 7.853
36 C4 203 4.924
36 C4 204 1.994
36 C4 205 1.017
36 C4 206 1.506
36 C4 207 2.970
36 C4 208 4.435
36 C4 209 4.924
36 C4 210 3.459
36 C4 211 1.017
36 C4 212 -2.401
36 C4 213 -5.819
36 C4 214 -7.284
36 C4 215 -7.284
36 C4 216 -5.819
36 C4 217 -3.866
36 C4 218 -1.912
36 C4 219 0.041
36 C4 220 1.994
36 C4 221 3.459
36 C4 222 3.947
36 C4 223 4.924
36 C4 224 4.435
36 C4 225 3.459
36 C4 226 1.506
36 C4 227 0.041
36 C4 228 0.041
36 C4 229 0.041
36 C4 230 1.506
36 C4 231 2.482
36 C4 232 2.482
36 C4 233 2.482
36 C4 234 1.994
36 C4 235 2.482
36 C4 236 3.947
36 C4 237 5.412
36 C4 238 5.412
36 C4 239 4.435
36 C4 240 2.482
36 C4 241 1.017
36 C4 242 0.529
36 C4 243 1.017
36 C4 244 1.506
36 C4 245 1.017
36 C4 246 -0.936
36 C4 247 -2.401
36 C4 248 -2.889
36 C4 249 -1.912
36 C4 250 0.529
36 C4 251 2.970
36 C4 252 3.947
36 C4 253 4.435
36 C4 254 3.459
36 C4 255 1.506
# CP5 chan 18
36 CP5 0 4.262
36 CP5 1 3.774
36 CP5 2 4.751
36 CP5 3 6.704
36 CP5 4 7.680
36 CP5 5 6.704
36 CP5 6 3.774
36 CP5 7 1.333
36 CP5 8 1.333
36 CP5 9 3.774
36 CP5 10 6.704
36 CP5 11 8.657
36 CP5 12 8.657
36 CP5 13 7.680
36 CP5 14 7.192
36 CP5 15 8.169
36 CP5 16 9.145
36 CP5 17 9.145
36 CP5 18 6.704
36 CP5 19 3.774
36 CP5 20 1.821
36 CP5 21 1.333
36 CP5 22 1.333
36 CP5 23 0.844
36 CP5 24 -0.621
36 CP5 25 -2.574
36 CP5 26 -2.574
36 CP5 27 0.356
36 CP5 28 4.751
36 CP5 29 8.657
36 CP5 30 10.610
36 CP5 31 9.633
36 CP5 32 7.192
36 CP5 33 5.239
36 CP5 34 5.239
36 CP5 35 6.704
36 CP5 36 8.657
36 CP5 37 10.122
36 CP5 38 11.098
36 CP5 39 12.563
36 CP5 40 14.516
36 CP5 41 16.469
36 CP5 42 16.958
36 CP5 43 15.004
36 CP5 44 11.587
36 CP5 45 6.215
36 CP5 46 1.821
36 CP5 47 0.356
36 CP5 48 2.309
36 CP5 49 6.215
36 CP5 50 9.633
36 CP5 51 11.098
36 CP5 52 10.610
36 CP5 53 8.169
36 CP5 54 5.727
36 CP5 55 4.751
36 CP5 56 5.239
36 CP5 57 7.192
36 CP5 58 8.657
36 CP5 59 9.633
36 CP5 60 9.633
36 CP5 61 8.169
36 CP5 62 6.215
36 CP5 63 4.751
36 CP5 64 4.751
36 CP5 65 5.239
36 CP5 66 7.680
36 CP5 67 9.633
36 CP5 68 11.587
36 CP5 69 13.051
36 CP5 70 13.051
36 CP5 71 13.051
36 CP5 72 11.587
36 CP5 73 10.122
36 CP5 74 8.657
36 CP5 75 7.680
36 CP5 76 8.169
36 CP5 77 9.633
36 CP5 78 12.563
36 CP5 79 15.981
36 CP5 80 18.911
36 CP5 81 20.376
36 CP5 82 19.887
36 CP5 83 17.446
36 CP5 84 14.516
36 CP5 85 12.563
36 CP5 86 12.075
36 CP5 87 14.028
36 CP5 88 15.981
36 CP5 89 17.934
36 CP5 90 19.399
36 CP5 91 19.399
36 CP5 92 19.399
36 CP5 93 19.887
36 CP5 94 19.399
36 CP5 95 17.934
36 CP5 96 15.493
36 CP5 97 12.075
36 CP5 98 9.145
36 CP5 99 7.680
36 CP5 100 7.192
36 CP5 101 7.680
36 CP5 102 8.169
36 CP5 103 9.145
36 CP5 104 10.122
36 CP5 105 12.075
36 CP5 106 13.051
36 CP5 107 13.540
36 CP5 108 12.563
36 CP5 109 12.075
36 CP5 110 12.563
36 CP5 111 13.051
36 CP5 112 13.540
36 CP5 113 11.587
36 CP5 114 7.680
36 CP5 115 2.309
36 CP5 116 -2.085
36 CP5 117 -5.015
36 CP5 118 -5.992
36 CP5 119 -6.480
36 CP5 120 -6.480
36 CP5 121 -6.968
36 CP5 122 -5.992
36 CP5 123 -2.574
36 CP5 124 1.821
36 CP5 125 6.215
36 CP5 126 8.657
36 CP5 127 9.633
36 CP5 128 9.145
36 CP5 129 9.145
36 CP5 130 10.122
36 CP5 131 11.098
36 CP5 132 11.587
36 CP5 133 11.098
36 CP5 134 11.098
36 CP5 135 12.075
36 CP5 136 13.051
36 CP5 137 13.540
36 CP5 138 12.075
36 CP5 139 9.145
36 CP5 140 6.215
36 CP5 141 5.239
36 CP5 142 5.727
36 CP5 143 7.680
36 CP5 144 8.657
36 CP5 145 9.145
36 CP5 146 9.145
36 CP5 147 9.145
36 CP5 148 9.145
36 CP5 149 8.657
36 CP5 150 6.704
36 CP5 151 3.774
36 CP5 152 1.333
36 CP5 153 0.844
36 CP5 154 2.797
36 CP5 155 6.704
36 CP5 156 10.610
36 CP5 157 13.540
36 CP5 158 15.004
36 CP5 159 16.469
36 CP5 160 18.422
36 CP5 161 22.329
36 CP5 162 26.723
36 CP5 163 30.141
36 CP5 164 33.071
36 CP5 165 35.024
36 CP5 166 36.489
36 CP5 167 37.465
36 CP5 168 37.465
36 CP5 169 36.001
36 CP5 170 33.559
36 CP5 171 31.118
36 CP5 172 29.653
36 CP5 173 28.676
36 CP5 174 28.188
36 CP5 175 26.723
36 CP5 176 24.770
36 CP5 177 21.840
36 CP5 178 19.399
36 CP5 179 18.422
36 CP5 180 17.934
36 CP5 181 17.934
36 CP5 182 17.446
36 CP5 183 15.493
36 CP5 184 12.075
36 CP5 185 9.145
36 CP5 186 6.704
36 CP5 187 5.727
36 CP5 188 5.727
36 CP5 189 7.192
36 CP5 190 8.657
36 CP5 191 10.122
36 CP5 192 11.587
36 CP5 193 12.075
36 CP5 194 12.563
36 CP5 195 12.563
36 CP5 196 13.051
36 CP5 197 13.540
36 CP5 198 15.004
36 CP5 199 15.981
36 CP5 200 16.958
36 CP5 201 17.446
36 CP5 202 16.958
36 CP5 203 15.493
36 CP5 204 14.028
36 CP5 205 12.563
36 CP5 206 11.098
36 CP5 207 9.633
36 CP5 208 8.657
36 CP5 209 9.633
36 CP5 210 11.587
36 CP5 211 14.516
36 CP5 212 16.469
36 CP5 213 16.469
36 CP5 214 15.493
36 CP5 215 13.540
36 CP5 216 11.098
36 CP5 217 8.169
36 CP5 218 4.751
36 CP5 219 2.309
36 CP5 220 0.844
36 CP5 221 1.821
36 CP5 222 3.774
36 CP5 223 6.215
36 CP5 224 7.192
36 CP5 225 7.192
36 CP5 226 6.215
36 CP5 227 4.751
36 CP5 228 3.774
36 CP5 229 3.286
36 CP5 230 3.286
36 CP5 231 3.774
36 CP5 232 4.751
36 CP5 233 5.727
36 CP5 234 7.680
36 CP5 235 9.145
36 CP5 236 11.098
36 CP5 237 12.563
36 CP5 238 12.563
36 CP5 239 11.587
36 CP5 240 9.633
36 CP5 241 6.704
36 CP5 242 4.262
36 CP5 243 2.797
36 CP5 244 2.309
36 CP5 245 2.309
36 CP5 246 2.309
36 CP5 247 3.286
36 CP5 248 5.239
36 CP5 249 7.192
36 CP5 250 8.657
36 CP5 251 9.145
36 CP5 252 8.657
36 CP5 253 6.704
36 CP5 254 4.751
36 CP5 255 3.286
# CP6 chan 19
36 CP6 0 3.774
36 CP6 1 2.797
36 CP6 2 2.309
36 CP6 3 2.309
36 CP6 4 3.774
36 CP6 5 4.751
36 CP6 6 4.751
36 CP6 7 3.774
36 CP6 8 2.309
36 CP6 9 1.333
36 CP6 10 1.821
36 CP6 11 2.309
36 CP6 12 2.797
36 CP6 13 2.309
36 CP6 14 1.821
36 CP6 15 2.309
36 CP6 16 3.774
36 CP6 17 5.727
36 CP6 18 6.704
36 CP6 19 6.215
36 CP6 20 4.751
36 CP6 21 2.797
36 CP6 22 1.333
36 CP6 23 1.333
36 CP6 24 2.797
36 CP6 25 3.774
36 CP6 26 5.239
36 CP6 27 5.727
36 CP6 28 5.239
36 CP6 29 4.262
36 CP6 30 3.286
36 CP6 31 1.333
36 CP6 32 0.356
36 CP6 33 -0.132
36 CP6 34 1.333
36 CP6 35 3.286
36 CP6 36 4.751
36 CP6 37 4.751
36 CP6 38 3.286
36 CP6 39 -0.621
36 CP6 40 -5.015
36 CP6 41 -8.921
36 CP6 42 -10.874
36 CP6 43 -10.874
36 CP6 44 -9.410
36 CP6 45 -7.945
36 CP6 46 -6.480
36 CP6 47 -6.480
36 CP6 48 -6.480
36 CP6 49 -6.968
36 CP6 50 -6.480
36 CP6 51 -5.503
36 CP6 52 -5.015
36 CP6 53 -4.527
36 CP6 54 -4.527
36 CP6 55 -3.550
36 CP6 56 -1.597
36 CP6 57 0.844
36 CP6 58 3.774
36 CP6 59 5.727
36 CP6 60 6.215
36 CP6 61 4.751
36 CP6 62 3.286
36 CP6 63 1.821
36 CP6 64 2.309
36 CP6 65 3.286
36 CP6 66 4.262
36 CP6 67 4.751
36 CP6 68 4.262
36 CP6 69 2.797
36 CP6 70 -0.132
36 CP6 71 -3.550
36 CP6 72 -6.480
36 CP6 73 -8.433
36 CP6 74 -7.945
36 CP6 75 -5.503
36 CP6 76 -2.085
36 CP6 77 1.821
36 CP6 78 5.239
36 CP6 79 7.680
36 CP6 80 9.145
36 CP6 81 10.122
36 CP6 82 10.610
36 CP6 83 10.122
36 CP6 84 10.122
36 CP6 85 10.122
36 CP6 86 11.098
36 CP6 87 13.051
36 CP6 88 15.004
36 CP6 89 15.004
36 CP6 90 14.028
36 CP6 91 11.587
36 CP6 92 8.657
36 CP6 93 7.680
36 CP6 94 7.680
36 CP6 95 8.169
36 CP6 96 8.169
36 CP6 97 6.215
36 CP6 98 3.286
36 CP6 99 -0.132
36 CP6 100 -1.597
36 CP6 101 -1.597
36 CP6 102 -0.132
36 CP6 103 2.309
36 CP6 104 4.262
36 CP6 105 5.727
36 CP6 106 7.192
36 CP6 107 8.657
36 CP6 108 9.145
36 CP6 109 9.633
36 CP6 110 9.633
36 CP6 111 9.145
36 CP6 112 9.145
36 CP6 113 9.145
36 CP6 114 9.145
36 CP6 115 7.680
36 CP6 116 4.751
36 CP6 117 0.356
36 CP6 118 -3.550
36 CP6 119 -6.968
36 CP6 120 -8.433
36 CP6 121 -8.433
36 CP6 122 -8.433
36 CP6 123 -7.945
36 CP6 124 -6.480
36 CP6 125 -4.527
36 CP6 126 -2.085
36 CP6 127 -0.132
36 CP6 128 0.844
36 CP6 129 1.333
36 CP6 130 2.309
36 CP6 131 4.262
36 CP6 132 7.192
36 CP6 133 9.633
36 CP6 134 10.610
36 CP6 135 10.122
36 CP6 136 8.169
36 CP6 137 5.727
36 CP6 138 4.262
36 CP6 139 3.286
36 CP6 140 2.309
36 CP6 141 1.821
36 CP6 142 1.333
36 CP6 143 1.333
36 CP6 144 2.309
36 CP6 145 4.262
36 CP6 146 5.239
36 CP6 147 5.727
36 CP6 148 4.751
36 CP6 149 3.286
36 CP6 150 0.844
36 CP6 151 -0.621
36 CP6 152 -2.085
36 CP6 153 -2.574
36 CP6 154 -1.597
36 CP6 155 -0.621
36 CP6 156 0.356
36 CP6 157 1.821
36 CP6 158 2.309
36 CP6 159 3.286
36 CP6 160 5.239
36 CP6 161 8.169
36 CP6 162 12.075
36 CP6 163 16.958
36 CP6 164 21.840
36 CP6 165 26.235
36 CP6 166 29.165
36 CP6 167 30.629
36 CP6 168 30.141
36 CP6 169 29.165
36 CP6 170 28.188
36 CP6 171 27.700
36 CP6 172 27.700
36 CP6 173 26.723
36 CP6 174 23.794
36 CP6 175 18.422
36 CP6 176 12.563
36 CP6 177 6.704
36 CP6 178 4.262
36 CP6 179 3.286
36 CP6 180 3.774
36 CP6 181 3.774
36 CP6 182 3.286
36 CP6 183 2.309
36 CP6 184 1.333
36 CP6 185 1.333
36 CP6 186 1.333
36 CP6 187 1.333
36 CP6 188 0.844
36 CP6 189 1.333
36 CP6 190 2.309
36 CP6 191 4.262
36 CP6 192 5.727
36 CP6 193 6.704
36 CP6 194 6.704
36 CP6 195 6.215
36 CP6 196 6.704
36 CP6 197 8.169
36 CP6 198 10.122
36 CP6 199 12.075
36 CP6 200 13.051
36 CP6 201 12.563
36 CP6 202 10.610
36 CP6 203 8.169
36 CP6 204 5.239
36 CP6 205 3.286
36 CP6 206 2.309
36 CP6 207 2.797
36 CP6 208 3.286
36 CP6 209 2.797
36 CP6 210 0.844
36 CP6 211 -2.574
36 CP6 212 -5.992
36 CP6 213 -9.410
36 CP6 214 -10.386
36 CP6 215 -8.921
36 CP6 216 -6.480
36 CP6 217 -3.062
36 CP6 218 -1.109
36 CP6 219 -0.132
36 CP6 220 0.356
36 CP6 221 0.844
36 CP6 222 1.821
36 CP6 223 2.309
36 CP6 224 2.797
36 CP6 225 1.821
36 CP6 226 0.356
36 CP6 227 -1.597
36 CP6 228 -2.574
36 CP6 229 -2.085
36 CP6 230 -0.621
36 CP6 231 0.844
36 CP6 232 1.821
36 CP6 233 1.333
36 CP6 234 0.844
36 CP6 235 1.333
36 CP6 236 4.262
36 CP6 237 7.680
36 CP6 238 9.633
36 CP6 239 9.633
36 CP6 240 7.680
36 CP6 241 4.751
36 CP6 242 2.309
36 CP6 243 0.356
36 CP6 244 -0.621
36 CP6 245 -2.574
36 CP6 246 -4.038
36 CP6 247 -5.992
36 CP6 248 -5.503
36 CP6 249 -3.062
36 CP6 250 0.356
36 CP6 251 3.774
36 CP6 252 5.727
36 CP6 253 6.215
36 CP6 254 4.751
36 CP6 255 2.797
# CP1 chan 20
36 CP1 0 -0.315
36 CP1 1 -0.804
36 CP1 2 -0.804
36 CP1 3 0.173
36 CP1 4 1.638
36 CP1 5 2.126
36 CP1 6 2.126
36 CP1 7 1.638
36 CP1 8 2.126
36 CP1 9 3.103
36 CP1 10 3.591
36 CP1 11 4.079
36 CP1 12 3.591
36 CP1 13 3.591
36 CP1 14 4.567
36 CP1 15 5.544
36 CP1 16 7.009
36 CP1 17 7.497
36 CP1 18 7.009
36 CP1 19 6.032
36 CP1 20 5.056
36 CP1 21 4.567
36 CP1 22 4.567
36 CP1 23 4.567
36 CP1 24 3.591
36 CP1 25 3.103
36 CP1 26 3.103
36 CP1 27 4.079
36 CP1 28 5.544
36 CP1 29 7.009
36 CP1 30 6.521
36 CP1 31 5.544
36 CP1 32 3.591
36 CP1 33 2.614
36 CP1 34 2.126
36 CP1 35 2.614
36 CP1 36 3.103
36 CP1 37 3.591
36 CP1 38 3.591
36 CP1 39 4.079
36 CP1 40 4.567
36 CP1 41 5.544
36 CP1 42 6.032
36 CP1 43 5.544
36 CP1 44 5.056
36 CP1 45 4.079
36 CP1 46 3.103
36 CP1 47 2.614
36 CP1 48 4.079
36 CP1 49 5.544
36 CP1 50 6.521
36 CP1 51 7.497
36 CP1 52 6.521
36 CP1 53 5.056
36 CP1 54 4.079
36 CP1 55 4.079
36 CP1 56 4.567
36 CP1 57 5.544
36 CP1 58 6.521
36 CP1 59 7.009
36 CP1 60 7.009
36 CP1 61 6.521
36 CP1 62 5.544
36 CP1 63 5.056
36 CP1 64 4.079
36 CP1 65 4.079
36 CP1 66 4.079
36 CP1 67 5.056
36 CP1 68 6.521
36 CP1 69 7.497
36 CP1 70 7.985
36 CP1 71 7.497
36 CP1 72 7.009
36 CP1 73 6.032
36 CP1 74 5.544
36 CP1 75 5.056
36 CP1 76 5.056
36 CP1 77 5.544
36 CP1 78 6.521
36 CP1 79 7.497
36 CP1 80 8.962
36 CP1 81 10.427
36 CP1 82 10.427
36 CP1 83 9.450
36 CP1 84 7.009
36 CP1 85 5.544
36 CP1 86 5.056
36 CP1 87 6.032
36 CP1 88 7.009
36 CP1 89 8.474
36 CP1 90 9.450
36 CP1 91 9.939
36 CP1 92 10.427
36 CP1 93 10.915
36 CP1 94 10.915
36 CP1 95 9.939
36 CP1 96 8.474
36 CP1 97 6.032
36 CP1 98 4.079
36 CP1 99 3.103
36 CP1 100 2.614
36 CP1 101 2.614
36 CP1 102 3.103
36 CP1 103 3.591
36 CP1 104 4.567
36 CP1 105 5.056
36 CP1 106 5.544
36 CP1 107 6.032
36 CP1 108 6.032
36 CP1 109 6.521
36 CP1 110 7.009
36 CP1 111 7.985
36 CP1 112 8.962
36 CP1 113 8.474
36 CP1 114 7.009
36 CP1 115 5.544
36 CP1 116 3.103
36 CP1 117 2.126
36 CP1 118 1.149
36 CP1 119 0.661
36 CP1 120 0.661
36 CP1 121 0.661
36 CP1 122 1.149
36 CP1 123 2.614
36 CP1 124 4.567
36 CP1 125 6.032
36 CP1 126 6.032
36 CP1 127 5.544
36 CP1 128 4.567
36 CP1 129 3.591
36 CP1 130 3.103
36 CP1 131 3.591
36 CP1 132 3.591
36 CP1 133 3.591
36 CP1 134 4.079
36 CP1 135 4.567
36 CP1 136 5.544
36 CP1 137 6.521
36 CP1 138 7.009
36 CP1 139 6.521
36 CP1 140 5.544
36 CP1 141 5.056
36 CP1 142 5.544
36 CP1 143 6.521
36 CP1 144 7.497
36 CP1 145 8.474
36 CP1 146 8.474
36 CP1 147 8.474
36 CP1 148 7.985
36 CP1 149 7.009
36 CP1 150 5.056
36 CP1 151 3.591
36 CP1 152 1.638
36 CP1 153 0.661
36 CP1 154 0.661
36 CP1 155 2.614
36 CP1 156 4.079
36 CP1 157 5.544
36 CP1 158 6.521
36 CP1 159 7.009
36 CP1 160 7.985
36 CP1 161 8.962
36 CP1 162 10.915
36 CP1 163 12.380
36 CP1 164 13.357
36 CP1 165 13.845
36 CP1 166 14.821
36 CP1 167 15.310
36 CP1 168 16.286
36 CP1 169 16.286
36 CP1 170 16.286
36 CP1 171 15.798
36 CP1 172 15.798
36 CP1 173 14.821
36 CP1 174 14.333
36 CP1 175 13.357
36 CP1 176 11.403
36 CP1 177 9.450
36 CP1 178 7.985
36 CP1 179 7.009
36 CP1 180 6.521
36 CP1 181 6.521
36 CP1 182 6.521
36 CP1 183 6.032
36 CP1 184 5.056
36 CP1 185 4.079
36 CP1 186 3.591
36 CP1 187 2.614
36 CP1 188 2.614
36 CP1 189 2.126
36 CP1 190 2.614
36 CP1 191 3.103
36 CP1 192 4.079
36 CP1 193 5.056
36 CP1 194 5.544
36 CP1 195 5.544
36 CP1 196 5.056
36 CP1 197 5.056
36 CP1 198 6.032
36 CP1 199 7.009
36 CP1 200 8.474
36 CP1 201 8.962
36 CP1 202 9.450
36 CP1 203 8.474
36 CP1 204 7.497
36 CP1 205 6.521
36 CP1 206 5.544
36 CP1 207 5.056
36 CP1 208 5.056
36 CP1 209 6.032
36 CP1 210 7.009
36 CP1 211 7.497
36 CP1 212 8.474
36 CP1 213 8.474
36 CP1 214 7.985
36 CP1 215 7.009
36 CP1 216 5.544
36 CP1 217 4.079
36 CP1 218 2.614
36 CP1 219 1.638
36 CP1 220 0.661
36 CP1 221 0.661
36 CP1 222 1.149
36 CP1 223 2.614
36 CP1 224 4.079
36 CP1 225 4.567
36 CP1 226 5.056
36 CP1 227 5.056
36 CP1 228 4.079
36 CP1 229 3.591
36 CP1 230 3.103
36 CP1 231 3.103
36 CP1 232 3.591
36 CP1 233 3.591
36 CP1 234 4.079
36 CP1 235 4.567
36 CP1 236 5.544
36 CP1 237 6.521
36 CP1 238 6.521
36 CP1 239 6.032
36 CP1 240 5.056
36 CP1 241 4.079
36 CP1 242 3.103
36 CP1 243 2.614
36 CP1 244 1.638
36 CP1 245 1.638
36 CP1 246 1.638
36 CP1 247 2.614
36 CP1 248 3.591
36 CP1 249 5.056
36 CP1 250 6.032
36 CP1 251 6.032
36 CP1 252 5.056
36 CP1 253 4.079
36 CP1 254 3.103
36 CP1 255 2.614
# CP2 chan 21
36 CP2 0 -2.055
36 CP2 1 -2.543
36 CP2 2 -2.055
36 CP2 3 -1.078
36 CP2 4 0.387
36 CP2 5 1.851
36 CP2 6 2.340
36 CP2 7 2.340
36 CP2 8 1.851
36 CP2 9 1.363
36 CP2 10 1.851
36 CP2 11 1.851
36 CP2 12 2.340
36 CP2 13 2.340
36 CP2 14 2.828
36 CP2 15 3.316
36 CP2 16 4.781
36 CP2 17 6.246
36 CP2 18 6.246
36 CP2 19 5.758
36 CP2 20 4.781
36 CP2 21 3.805
36 CP2 22 3.316
36 CP2 23 3.805
36 CP2 24 4.293
36 CP2 25 4.781
36 CP2 26 4.781
36 CP2 27 4.781
36 CP2 28 4.293
36 CP2 29 3.805
36 CP2 30 2.828
36 CP2 31 1.363
36 CP2 32 0.387
36 CP2 33 -0.102
36 CP2 34 -0.102
36 CP2 35 0.387
36 CP2 36 0.875
36 CP2 37 0.875
36 CP2 38 0.387
36 CP2 39 -0.590
36 CP2 40 -1.567
36 CP2 41 -2.055
36 CP2 42 -2.543
36 CP2 43 -2.543
36 CP2 44 -3.031
36 CP2 45 -3.031
36 CP2 46 -2.543
36 CP2 47 -2.055
36 CP2 48 -0.590
36 CP2 49 0.875
36 CP2 50 1.363
36 CP2 51 1.363
36 CP2 52 1.363
36 CP2 53 0.875
36 CP2 54 0.875
36 CP2 55 1.363
36 CP2 56 1.851
36 CP2 57 2.828
36 CP2 58 3.316
36 CP2 59 3.805
36 CP2 60 3.316
36 CP2 61 2.340
36 CP2 62 1.363
36 CP2 63 0.875
36 CP2 64 0.875
36 CP2 65 1.363
36 CP2 66 1.851
36 CP2 67 2.340
36 CP2 68 2.340
36 CP2 69 1.851
36 CP2 70 0.875
36 CP2 71 -1.078
36 CP2 72 -2.543
36 CP2 73 -3.520
36 CP2 74 -3.520
36 CP2 75 -2.543
36 CP2 76 -1.078
36 CP2 77 0.875
36 CP2 78 2.828
36 CP2 79 4.293
36 CP2 80 5.269
36 CP2 81 5.758
36 CP2 82 5.758
36 CP2 83 5.269
36 CP2 84 4.781
36 CP2 85 4.781
36 CP2 86 4.781
36 CP2 87 5.758
36 CP2 88 6.246
36 CP2 89 6.246
36 CP2 90 5.758
36 CP2 91 5.269
36 CP2 92 4.781
36 CP2 93 5.269
36 CP2 94 5.269
36 CP2 95 5.758
36 CP2 96 5.269
36 CP2 97 3.805
36 CP2 98 2.340
36 CP2 99 1.363
36 CP2 100 0.387
36 CP2 101 0.875
36 CP2 102 1.363
36 CP2 103 1.851
36 CP2 104 1.851
36 CP2 105 2.828
36 CP2 106 3.316
36 CP2 107 4.293
36 CP2 108 5.758
36 CP2 109 6.734
36 CP2 110 7.222
36 CP2 111 8.199
36 CP2 112 8.199
36 CP2 113 8.199
36 CP2 114 8.199
36 CP2 115 7.222
36 CP2 116 5.758
36 CP2 117 3.805
36 CP2 118 1.851
36 CP2 119 0.875
36 CP2 120 0.387
36 CP2 121 0.387
36 CP2 122 0.387
36 CP2 123 0.875
36 CP2 124 1.363
36 CP2 125 1.363
36 CP2 126 0.875
36 CP2 127 0.875
36 CP2 128 0.387
36 CP2 129 0.387
36 CP2 130 1.363
36 CP2 131 1.851
36 CP2 132 3.316
36 CP2 133 3.805
36 CP2 134 3.805
36 CP2 135 3.805
36 CP2 136 3.316
36 CP2 137 3.316
36 CP2 138 3.316
36 CP2 139 3.316
36 CP2 140 2.828
36 CP2 141 2.340
36 CP2 142 1.851
36 CP2 143 1.363
36 CP2 144 1.363
36 CP2 145 2.340
36 CP2 146 3.316
36 CP2 147 3.805
36 CP2 148 4.293
36 CP2 149 3.805
36 CP2 150 2.828
36 CP2 151 1.363
36 CP2 152 0.875
36 CP2 153 0.387
36 CP2 154 -0.102
36 CP2 155 -0.102
36 CP2 156 -0.102
36 CP2 157 -0.102
36 CP2 158 -0.590
36 CP2 159 -1.078
36 CP2 160 -1.078
36 CP2 161 -0.590
36 CP2 162 0.875
36 CP2 163 2.340
36 CP2 164 3.805
36 CP2 165 5.758
36 CP2 166 7.222
36 CP2 167 9.176
36 CP2 168 10.152
36 CP2 169 10.152
36 CP2 170 10.640
36 CP2 171 10.640
36 CP2 172 10.152
36 CP2 173 9.176
36 CP2 174 7.711
36 CP2 175 5.758
36 CP2 176 2.828
36 CP2 177 -0.102
36 CP2 178 -2.055
36 CP2 179 -3.031
36 CP2 180 -3.031
36 CP2 181 -3.031
36 CP2 182 -2.543
36 CP2 183 -2.543
36 CP2 184 -2.055
36 CP2 185 -2.055
36 CP2 186 -2.055
36 CP2 187 -2.543
36 CP2 188 -3.031
36 CP2 189 -2.543
36 CP2 190 -2.055
36 CP2 191 -1.567
36 CP2 192 -0.590
36 CP2 193 0.387
36 CP2 194 0.875
36 CP2 195 0.387
36 CP2 196 0.875
36 CP2 197 0.875
36 CP2 198 1.851
36 CP2 199 3.316
36 CP2 200 4.293
36 CP2 201 4.293
36 CP2 202 3.805
36 CP2 203 2.828
36 CP2 204 1.363
36 CP2 205 0.875
36 CP2 206 0.387
36 CP2 207 0.875
36 CP2 208 1.851
36 CP2 209 2.828
36 CP2 210 2.828
36 CP2 211 1.851
36 CP2 212 0.875
36 CP2 213 -0.590
36 CP2 214 -1.567
36 CP2 215 -2.055
36 CP2 216 -2.055
36 CP2 217 -2.055
36 CP2 218 -2.055
36 CP2 219 -2.543
36 CP2 220 -2.543
36 CP2 221 -2.055
36 CP2 222 -1.078
36 CP2 223 -0.102
36 CP2 224 0.875
36 CP2 225 0.875
36 CP2 226 0.387
36 CP2 227 -0.102
36 CP2 228 -0.102
36 CP2 229 0.387
36 CP2 230 0.387
36 CP2 231 0.875
36 CP2 232 0.875
36 CP2 233 0.387
36 CP2 234 0.387
36 CP2 235 0.875
36 CP2 236 1.851
36 CP2 237 3.316
36 CP2 238 3.805
36 CP2 239 3.805
36 CP2 240 3.316
36 CP2 241 2.340
36 CP2 242 1.363
36 CP2 243 0.875
36 CP2 244 0.387
36 CP2 245 -1.078
36 CP2 246 -2.543
36 CP2 247 -2.543
36 CP2 248 -2.055
36 CP2 249 -0.102
36 CP2 250 1.363
36 CP2 251 2.340
36 CP2 252 2.340
36 CP2 253 1.851
36 CP2 254 0.875
36 CP2 255 0.387
# P3 chan 22
36 P3 0 5.666
36 P3 1 4.690
36 P3 2 5.178
36 P3 3 7.131
36 P3 4 8.596
36 P3 5 8.596
36 P3 6 7.619
36 P3 7 6.643
36 P3 8 6.643
36 P3 9 8.108
36 P3 10 10.549
36 P3 11 11.525
36 P3 12 11.525
36 P3 13 11.525
36 P3 14 12.014
36 P3 15 13.479
36 P3 16 15.432
36 P3 17 15.432
36 P3 18 13.967
36 P3 19 11.525
36 P3 20 9.084
36 P3 21 7.619
36 P3 22 6.643
36 P3 23 6.154
36 P3 24 5.178
36 P3 25 4.690
36 P3 26 6.154
36 P3 27 9.572
36 P3 28 12.990
36 P3 29 14.943
36 P3 30 14.455
36 P3 31 11.525
36 P3 32 8.108
36 P3 33 6.154
36 P3 34 5.666
36 P3 35 7.131
36 P3 36 8.108
36 P3 37 8.108
36 P3 38 8.108
36 P3 39 9.084
36 P3 40 11.037
36 P3 41 13.479
36 P3 42 14.943
36 P3 43 14.455
36 P3 44 11.037
36 P3 45 6.643
36 P3 46 2.736
36 P3 47 2.248
36 P3 48 4.690
36 P3 49 8.108
36 P3 50 11.525
36 P3 51 12.502
36 P3 52 11.525
36 P3 53 9.572
36 P3 54 7.131
36 P3 55 7.131
36 P3 56 8.108
36 P3 57 10.061
36 P3 58 11.525
36 P3 59 12.990
36 P3 60 12.990
36 P3 61 12.502
36 P3 62 11.525
36 P3 63 10.549
36 P3 64 9.572
36 P3 65 9.084
36 P3 66 10.061
36 P3 67 12.014
36 P3 68 13.967
36 P3 69 15.432
36 P3 70 15.432
36 P3 71 14.455
36 P3 72 12.990
36 P3 73 11.525
36 P3 74 10.549
36 P3 75 10.061
36 P3 76 11.037
36 P3 77 12.014
36 P3 78 14.455
36 P3 79 16.897
36 P3 80 19.826
36 P3 81 21.291
36 P3 82 20.803
36 P3 83 18.850
36 P3 84 16.408
36 P3 85 14.455
36 P3 86 14.455
36 P3 87 15.920
36 P3 88 17.873
36 P3 89 20.315
36 P3 90 21.291
36 P3 91 21.291
36 P3 92 21.291
36 P3 93 20.315
36 P3 94 19.338
36 P3 95 17.385
36 P3 96 14.455
36 P3 97 11.525
36 P3 98 8.596
36 P3 99 7.131
36 P3 100 7.131
36 P3 101 7.131
36 P3 102 8.108
36 P3 103 8.596
36 P3 104 10.061
36 P3 105 12.014
36 P3 106 13.479
36 P3 107 14.943
36 P3 108 15.920
36 P3 109 16.897
36 P3 110 17.873
36 P3 111 18.850
36 P3 112 18.850
36 P3 113 17.385
36 P3 114 13.967
36 P3 115 9.572
36 P3 116 5.666
36 P3 117 2.736
36 P3 118 1.272
36 P3 119 0.295
36 P3 120 -0.193
36 P3 121 -0.193
36 P3 122 1.272
36 P3 123 4.201
36 P3 124 7.619
36 P3 125 11.037
36 P3 126 12.990
36 P3 127 13.479
36 P3 128 13.479
36 P3 129 12.990
36 P3 130 13.967
36 P3 131 14.455
36 P3 132 14.455
36 P3 133 14.455
36 P3 134 14.943
36 P3 135 15.920
36 P3 136 17.385
36 P3 137 17.385
36 P3 138 15.920
36 P3 139 13.479
36 P3 140 11.525
36 P3 141 10.549
36 P3 142 11.037
36 P3 143 12.990
36 P3 144 14.943
36 P3 145 16.408
36 P3 146 16.897
36 P3 147 16.408
36 P3 148 15.432
36 P3 149 13.967
36 P3 150 11.525
36 P3 151 9.084
36 P3 152 7.131
36 P3 153 6.154
36 P3 154 7.131
36 P3 155 8.596
36 P3 156 11.525
36 P3 157 13.479
36 P3 158 14.943
36 P3 159 15.920
36 P3 160 17.873
36 P3 161 21.779
36 P3 162 25.686
36 P3 163 30.080
36 P3 164 33.498
36 P3 165 35.451
36 P3 166 37.404
36 P3 167 38.381
36 P3 168 38.869
36 P3 169 38.869
36 P3 170 37.893
36 P3 171 36.428
36 P3 172 34.963
36 P3 173 33.498
36 P3 174 31.545
36 P3 175 28.615
36 P3 176 24.709
36 P3 177 21.291
36 P3 178 18.361
36 P3 179 16.897
36 P3 180 16.897
36 P3 181 16.897
36 P3 182 16.408
36 P3 183 14.943
36 P3 184 13.479
36 P3 185 11.525
36 P3 186 10.061
36 P3 187 8.596
36 P3 188 8.108
36 P3 189 7.619
36 P3 190 8.596
36 P3 191 9.572
36 P3 192 11.037
36 P3 193 11.525
36 P3 194 12.502
36 P3 195 12.990
36 P3 196 12.990
36 P3 197 12.990
36 P3 198 13.479
36 P3 199 14.943
36 P3 200 16.408
36 P3 201 17.873
36 P3 202 18.361
36 P3 203 17.385
36 P3 204 15.920
36 P3 205 13.479
36 P3 206 11.037
36 P3 207 9.572
36 P3 208 9.084
36 P3 209 10.061
36 P3 210 11.525
36 P3 211 13.479
36 P3 212 15.920
36 P3 213 16.897
36 P3 214 16.897
36 P3 215 15.920
36 P3 216 13.479
36 P3 217 10.061
36 P3 218 6.154
36 P3 219 3.225
36 P3 220 2.248
36 P3 221 2.736
36 P3 222 4.201
36 P3 223 6.154
36 P3 224 7.619
36 P3 225 8.596
36 P3 226 7.619
36 P3 227 6.643
36 P3 228 5.178
36 P3 229 4.201
36 P3 230 3.713
36 P3 231 4.201
36 P3 232 5.666
36 P3 233 7.131
36 P3 234 8.596
36 P3 235 10.549
36 P3 236 12.014
36 P3 237 12.990
36 P3 238 12.990
36 P3 239 11.525
36 P3 240 10.061
36 P3 241 7.619
36 P3 242 5.666
36 P3 243 4.201
36 P3 244 2.736
36 P3 245 2.248
36 P3 246 2.248
36 P3 247 2.736
36 P3 248 4.201
36 P3 249 5.666
36 P3 250 7.131
36 P3 251 7.619
36 P3 252 7.619
36 P3 253 6.643
36 P3 254 5.178
36 P3 255 4.690
# P4 chan 23
36 P4 0 4.944
36 P4 1 3.479
36 P4 2 2.502
36 P4 3 3.479
36 P4 4 5.432
36 P4 5 6.897
36 P4 6 6.897
36 P4 7 5.920
36 P4 8 4.456
36 P4 9 4.456
36 P4 10 4.944
36 P4 11 5.432
36 P4 12 5.432
36 P4 13 4.944
36 P4 14 4.944
36 P4 15 6.409
36 P4 16 8.850
36 P4 17 10.315
36 P4 18 10.803
36 P4 19 8.850
36 P4 20 6.897
36 P4 21 4.456
36 P4 22 3.479
36 P4 23 3.479
36 P4 24 4.456
36 P4 25 5.432
36 P4 26 6.409
36 P4 27 7.385
36 P4 28 7.874
36 P4 29 7.385
36 P4 30 5.432
36 P4 31 2.991
36 P4 32 0.549
36 P4 33 -0.916
36 P4 34 -0.427
36 P4 35 1.038
36 P4 36 2.502
36 P4 37 2.502
36 P4 38 1.038
36 P4 39 -1.404
36 P4 40 -4.333
36 P4 41 -5.798
36 P4 42 -6.287
36 P4 43 -6.775
36 P4 44 -7.263
36 P4 45 -7.751
36 P4 46 -8.728
36 P4 47 -8.240
36 P4 48 -7.263
36 P4 49 -5.310
36 P4 50 -3.357
36 P4 51 -2.380
36 P4 52 -2.380
36 P4 53 -2.869
36 P4 54 -3.357
36 P4 55 -2.869
36 P4 56 -0.427
36 P4 57 2.014
36 P4 58 3.967
36 P4 59 5.432
36 P4 60 5.920
36 P4 61 4.944
36 P4 62 3.479
36 P4 63 2.502
36 P4 64 2.014
36 P4 65 2.502
36 P4 66 3.479
36 P4 67 3.479
36 P4 68 2.991
36 P4 69 1.526
36 P4 70 -0.427
36 P4 71 -3.357
36 P4 72 -6.287
36 P4 73 -7.263
36 P4 74 -7.263
36 P4 75 -4.822
36 P4 76 -1.404
36 P4 77 2.502
36 P4 78 6.409
36 P4 79 9.338
36 P4 80 10.803
36 P4 81 11.292
36 P4 82 10.803
36 P4 83 9.338
36 P4 84 8.362
36 P4 85 7.874
36 P4 86 8.362
36 P4 87 10.315
36 P4 88 11.780
36 P4 89 12.756
36 P4 90 11.780
36 P4 91 9.827
36 P4 92 7.874
36 P4 93 6.409
36 P4 94 5.920
36 P4 95 5.920
36 P4 96 4.944
36 P4 97 3.479
36 P4 98 0.549
36 P4 99 -1.892
36 P4 100 -3.357
36 P4 101 -2.869
36 P4 102 -0.916
36 P4 103 0.549
36 P4 104 2.014
36 P4 105 2.502
36 P4 106 3.479
36 P4 107 4.944
36 P4 108 6.897
36 P4 109 8.362
36 P4 110 9.338
36 P4 111 9.338
36 P4 112 9.827
36 P4 113 9.827
36 P4 114 9.827
36 P4 115 8.362
36 P4 116 5.432
36 P4 117 1.526
36 P4 118 -2.869
36 P4 119 -5.798
36 P4 120 -6.775
36 P4 121 -7.263
36 P4 122 -6.287
36 P4 123 -4.822
36 P4 124 -3.357
36 P4 125 -1.892
36 P4 126 -0.916
36 P4 127 -0.427
36 P4 128 -0.916
36 P4 129 -0.427
36 P4 130 1.038
36 P4 131 3.479
36 P4 132 5.920
36 P4 133 7.874
36 P4 134 8.362
36 P4 135 7.874
36 P4 136 6.409
36 P4 137 4.944
36 P4 138 3.967
36 P4 139 2.502
36 P4 140 1.038
36 P4 141 0.549
36 P4 142 0.061
36 P4 143 0.549
36 P4 144 2.014
36 P4 145 3.479
36 P4 146 4.944
36 P4 147 5.432
36 P4 148 4.944
36 P4 149 2.991
36 P4 150 0.549
36 P4 151 -1.892
36 P4 152 -3.357
36 P4 153 -3.845
36 P4 154 -3.845
36 P4 155 -2.869
36 P4 156 -1.404
36 P4 157 -0.427
36 P4 158 0.061
36 P4 159 0.061
36 P4 160 1.038
36 P4 161 3.479
36 P4 162 6.897
36 P4 163 11.780
36 P4 164 16.174
36 P4 165 20.081
36 P4 166 23.499
36 P4 167 25.452
36 P4 168 26.917
36 P4 169 26.917
36 P4 170 26.917
36 P4 171 26.428
36 P4 172 26.428
36 P4 173 24.963
36 P4 174 22.034
36 P4 175 16.663
36 P4 176 10.803
36 P4 177 5.432
36 P4 178 1.526
36 P4 179 0.549
36 P4 180 0.061
36 P4 181 0.061
36 P4 182 -0.427
36 P4 183 -1.404
36 P4 184 -1.892
36 P4 185 -1.404
36 P4 186 -1.404
36 P4 187 -0.916
36 P4 188 -1.404
36 P4 189 -0.916
36 P4 190 -0.427
36 P4 191 0.549
36 P4 192 1.526
36 P4 193 2.014
36 P4 194 2.014
36 P4 195 1.038
36 P4 196 0.549
36 P4 197 1.038
36 P4 198 2.502
36 P4 199 4.944
36 P4 200 6.409
36 P4 201 7.385
36 P4 202 6.409
36 P4 203 4.456
36 P4 204 1.526
36 P4 205 -0.427
36 P4 206 -1.404
36 P4 207 -1.404
36 P4 208 -0.427
36 P4 209 0.061
36 P4 210 -0.427
36 P4 211 -1.892
36 P4 212 -4.333
36 P4 213 -6.287
36 P4 214 -6.775
36 P4 215 -6.287
36 P4 216 -5.310
36 P4 217 -4.822
36 P4 218 -5.310
36 P4 219 -6.287
36 P4 220 -7.263
36 P4 221 -7.263
36 P4 222 -5.310
36 P4 223 -3.357
36 P4 224 -1.892
36 P4 225 -1.892
36 P4 226 -3.357
36 P4 227 -4.822
36 P4 228 -5.310
36 P4 229 -4.822
36 P4 230 -3.845
36 P4 231 -2.869
36 P4 232 -1.892
36 P4 233 -2.380
36 P4 234 -2.869
36 P4 235 -1.892
36 P4 236 0.549
36 P4 237 3.479
36 P4 238 5.432
36 P4 239 5.920
36 P4 240 4.944
36 P4 241 2.502
36 P4 242 0.061
36 P4 243 -2.380
36 P4 244 -4.333
36 P4 245 -7.263
36 P4 246 -8.728
36 P4 247 -9.705
36 P4 248 -8.728
36 P4 249 -5.798
36 P4 250 -1.892
36 P4 251 1.038
36 P4 252 2.502
36 P4 253 2.014
36 P4 254 0.549
36 P4 255 -1.892
# PZ chan 24
36 PZ 0 0.244
36 PZ 1 -0.732
36 PZ 2 -1.221
36 PZ 3 0.732
36 PZ 4 3.662
36 PZ 5 6.104
36 PZ 6 7.568
36 PZ 7 8.057
36 PZ 8 8.057
36 PZ 9 8.545
36 PZ 10 9.033
36 PZ 11 9.033
36 PZ 12 8.545
36 PZ 13 7.568
36 PZ 14 8.057
36 PZ 15 9.521
36 PZ 16 11.963
36 PZ 17 13.916
36 PZ 18 13.916
36 PZ 19 12.451
36 PZ 20 10.498
36 PZ 21 9.033
36 PZ 22 8.057
36 PZ 23 7.568
36 PZ 24 7.080
36 PZ 25 6.592
36 PZ 26 7.568
36 PZ 27 8.057
36 PZ 28 9.521
36 PZ 29 10.498
36 PZ 30 9.521
36 PZ 31 6.592
36 PZ 32 3.662
36 PZ 33 1.709
36 PZ 34 0.732
36 PZ 35 1.709
36 PZ 36 2.686
36 PZ 37 3.174
36 PZ 38 3.174
36 PZ 39 2.686
36 PZ 40 3.174
36 PZ 41 4.639
36 PZ 42 6.104
36 PZ 43 6.592
36 PZ 44 5.615
36 PZ 45 3.662
36 PZ 46 2.197
36 PZ 47 2.197
36 PZ 48 4.150
36 PZ 49 7.080
36 PZ 50 9.521
36 PZ 51 10.010
36 PZ 52 9.033
36 PZ 53 7.568
36 PZ 54 6.592
36 PZ 55 6.104
36 PZ 56 7.080
36 PZ 57 8.545
36 PZ 58 10.010
36 PZ 59 10.498
36 PZ 60 10.498
36 PZ 61 9.521
36 PZ 62 8.057
36 PZ 63 7.080
36 PZ 64 6.104
36 PZ 65 5.615
36 PZ 66 5.615
36 PZ 67 6.104
36 PZ 68 7.080
36 PZ 69 8.057
36 PZ 70 8.057
36 PZ 71 7.080
36 PZ 72 6.104
36 PZ 73 4.639
36 PZ 74 4.639
36 PZ 75 6.104
36 PZ 76 7.568
36 PZ 77 10.010
36 PZ 78 11.963
36 PZ 79 14.404
36 PZ 80 15.869
36 PZ 81 16.846
36 PZ 82 16.357
36 PZ 83 14.404
36 PZ 84 12.451
36 PZ 85 10.986
36 PZ 86 10.986
36 PZ 87 11.963
36 PZ 88 12.939
36 PZ 89 13.916
36 PZ 90 13.916
36 PZ 91 13.916
36 PZ 92 13.916
36 PZ 93 13.916
36 PZ 94 13.916
36 PZ 95 12.939
36 PZ 96 11.475
36 PZ 97 9.033
36 PZ 98 6.592
36 PZ 99 4.639
36 PZ 100 4.150
36 PZ 101 4.150
36 PZ 102 4.639
36 PZ 103 5.127
36 PZ 104 6.104
36 PZ 105 6.592
36 PZ 106 8.057
36 PZ 107 9.033
36 PZ 108 10.986
36 PZ 109 12.939
36 PZ 110 14.893
36 PZ 111 16.357
36 PZ 112 17.334
36 PZ 113 17.822
36 PZ 114 15.869
36 PZ 115 13.428
36 PZ 116 10.010
36 PZ 117 6.592
36 PZ 118 4.150
36 PZ 119 2.686
36 PZ 120 2.197
36 PZ 121 2.686
36 PZ 122 4.150
36 PZ 123 5.615
36 PZ 124 7.080
36 PZ 125 8.057
36 PZ 126 8.057
36 PZ 127 7.568
36 PZ 128 6.592
36 PZ 129 5.615
36 PZ 130 6.104
36 PZ 131 6.592
36 PZ 132 7.568
36 PZ 133 8.545
36 PZ 134 9.033
36 PZ 135 9.033
36 PZ 136 9.521
36 PZ 137 10.010
36 PZ 138 10.010
36 PZ 139 9.521
36 PZ 140 8.057
36 PZ 141 7.568
36 PZ 142 7.080
36 PZ 143 7.568
36 PZ 144 9.521
36 PZ 145 10.986
36 PZ 146 12.939
36 PZ 147 12.939
36 PZ 148 11.963
36 PZ 149 10.010
36 PZ 150 7.080
36 PZ 151 4.639
36 PZ 152 2.197
36 PZ 153 0.244
36 PZ 154 -0.244
36 PZ 155 0.244
36 PZ 156 1.221
36 PZ 157 2.197
36 PZ 158 2.686
36 PZ 159 3.174
36 PZ 160 3.662
36 PZ 161 6.104
36 PZ 162 9.521
36 PZ 163 12.939
36 PZ 164 16.357
36 PZ 165 18.799
36 PZ 166 20.752
36 PZ 167 22.705
36 PZ 168 24.170
36 PZ 169 25.635
36 PZ 170 26.123
36 PZ 171 26.123
36 PZ 172 25.146
36 PZ 173 23.682
36 PZ 174 21.240
36 PZ 175 17.334
36 PZ 176 13.428
36 PZ 177 9.033
36 PZ 178 5.127
36 PZ 179 2.686
36 PZ 180 1.709
36 PZ 181 1.709
36 PZ 182 1.709
36 PZ 183 1.709
36 PZ 184 1.709
36 PZ 185 1.221
36 PZ 186 1.221
36 PZ 187 0.732
36 PZ 188 0.244
36 PZ 189 0.244
36 PZ 190 0.732
36 PZ 191 1.709
36 PZ 192 2.686
36 PZ 193 3.662
36 PZ 194 4.150
36 PZ 195 4.150
36 PZ 196 3.662
36 PZ 197 3.174
36 PZ 198 3.662
36 PZ 199 5.127
36 PZ 200 6.592
36 PZ 201 8.057
36 PZ 202 8.545
36 PZ 203 8.057
36 PZ 204 6.592
36 PZ 205 4.639
36 PZ 206 3.662
36 PZ 207 3.662
36 PZ 208 4.150
36 PZ 209 4.639
36 PZ 210 5.127
36 PZ 211 5.615
36 PZ 212 5.127
36 PZ 213 4.150
36 PZ 214 3.662
36 PZ 215 3.174
36 PZ 216 1.709
36 PZ 217 0.732
36 PZ 218 -1.221
36 PZ 219 -3.174
36 PZ 220 -4.639
36 PZ 221 -4.150
36 PZ 222 -2.686
36 PZ 223 -0.732
36 PZ 224 1.221
36 PZ 225 2.197
36 PZ 226 1.709
36 PZ 227 1.221
36 PZ 228 0.732
36 PZ 229 0.732
36 PZ 230 1.221
36 PZ 231 1.221
36 PZ 232 1.709
36 PZ 233 1.709
36 PZ 234 1.709
36 PZ 235 2.686
36 PZ 236 3.662
36 PZ 237 5.127
36 PZ 238 6.592
36 PZ 239 7.080
36 PZ 240 7.080
36 PZ 241 6.592
36 PZ 242 5.127
36 PZ 243 3.662
36 PZ 244 2.197
36 PZ 245 -0.244
36 PZ 246 -1.709
36 PZ 247 -1.709
36 PZ 248 -0.732
36 PZ 249 1.709
36 PZ 250 3.662
36 PZ 251 4.639
36 PZ 252 4.639
36 PZ 253 3.662
36 PZ 254 2.197
36 PZ 255 1.709
# P8 chan 25
36 P8 0 8.891
36 P8 1 6.449
36 P8 2 4.985
36 P8 3 5.961
36 P8 4 8.403
36 P8 5 9.867
36 P8 6 9.379
36 P8 7 5.961
36 P8 8 2.543
36 P8 9 0.590
36 P8 10 1.567
36 P8 11 3.520
36 P8 12 4.496
36 P8 13 3.520
36 P8 14 2.055
36 P8 15 1.567
36 P8 16 4.008
36 P8 17 7.914
36 P8 18 9.867
36 P8 19 8.891
36 P8 20 4.496
36 P8 21 -0.387
36 P8 22 -3.805
36 P8 23 -3.316
36 P8 24 -0.875
36 P8 25 2.055
36 P8 26 4.985
36 P8 27 6.938
36 P8 28 7.426
36 P8 29 7.426
36 P8 30 6.449
36 P8 31 4.008
36 P8 32 1.567
36 P8 33 -0.875
36 P8 34 -1.851
36 P8 35 -0.875
36 P8 36 0.590
36 P8 37 1.078
36 P8 38 -0.875
36 P8 39 -5.269
36 P8 40 -10.152
36 P8 41 -14.547
36 P8 42 -15.523
36 P8 43 -15.035
36 P8 44 -12.105
36 P8 45 -10.152
36 P8 46 -9.176
36 P8 47 -9.664
36 P8 48 -10.640
36 P8 49 -10.152
36 P8 50 -8.687
36 P8 51 -7.222
36 P8 52 -6.734
36 P8 53 -7.222
36 P8 54 -8.199
36 P8 55 -8.199
36 P8 56 -7.222
36 P8 57 -3.805
36 P8 58 0.102
36 P8 59 2.055
36 P8 60 2.055
36 P8 61 0.102
36 P8 62 -2.340
36 P8 63 -4.293
36 P8 64 -4.293
36 P8 65 -1.851
36 P8 66 0.590
36 P8 67 1.567
36 P8 68 1.078
36 P8 69 -1.363
36 P8 70 -4.781
36 P8 71 -8.199
36 P8 72 -11.129
36 P8 73 -12.594
36 P8 74 -13.082
36 P8 75 -11.129
36 P8 76 -7.711
36 P8 77 -2.828
36 P8 78 2.055
36 P8 79 6.449
36 P8 80 9.379
36 P8 81 10.356
36 P8 82 9.379
36 P8 83 7.426
36 P8 84 5.961
36 P8 85 4.985
36 P8 86 5.961
36 P8 87 8.403
36 P8 88 10.844
36 P8 89 11.820
36 P8 90 11.332
36 P8 91 8.403
36 P8 92 4.985
36 P8 93 3.031
36 P8 94 3.031
36 P8 95 3.520
36 P8 96 3.031
36 P8 97 0.102
36 P8 98 -4.293
36 P8 99 -8.199
36 P8 100 -9.664
36 P8 101 -8.199
36 P8 102 -4.293
36 P8 103 -0.875
36 P8 104 1.567
36 P8 105 2.543
36 P8 106 3.520
36 P8 107 5.473
36 P8 108 7.426
36 P8 109 9.379
36 P8 110 8.891
36 P8 111 7.914
36 P8 112 6.938
36 P8 113 6.449
36 P8 114 6.449
36 P8 115 5.473
36 P8 116 2.055
36 P8 117 -2.828
36 P8 118 -8.687
36 P8 119 -13.082
36 P8 120 -15.523
36 P8 121 -16.500
36 P8 122 -16.012
36 P8 123 -14.058
36 P8 124 -11.129
36 P8 125 -7.222
36 P8 126 -4.781
36 P8 127 -3.316
36 P8 128 -3.805
36 P8 129 -4.293
36 P8 130 -3.316
36 P8 131 -0.387
36 P8 132 3.520
36 P8 133 6.938
36 P8 134 8.403
36 P8 135 8.403
36 P8 136 6.938
36 P8 137 4.985
36 P8 138 2.543
36 P8 139 0.102
36 P8 140 -2.340
36 P8 141 -3.805
36 P8 142 -2.828
36 P8 143 -1.363
36 P8 144 1.078
36 P8 145 2.543
36 P8 146 3.031
36 P8 147 2.543
36 P8 148 1.567
36 P8 149 -0.387
36 P8 150 -2.828
36 P8 151 -5.758
36 P8 152 -8.687
36 P8 153 -9.176
36 P8 154 -7.711
36 P8 155 -4.781
36 P8 156 -1.363
36 P8 157 0.590
36 P8 158 0.590
36 P8 159 0.590
36 P8 160 2.055
36 P8 161 5.473
36 P8 162 10.844
36 P8 163 16.703
36 P8 164 22.074
36 P8 165 26.469
36 P8 166 30.375
36 P8 167 32.817
36 P8 168 33.793
36 P8 169 32.817
36 P8 170 31.352
36 P8 171 29.887
36 P8 172 29.887
36 P8 173 29.887
36 P8 174 27.445
36 P8 175 23.051
36 P8 176 15.727
36 P8 177 8.891
36 P8 178 5.473
36 P8 179 4.985
36 P8 180 6.449
36 P8 181 7.426
36 P8 182 5.961
36 P8 183 3.031
36 P8 184 0.102
36 P8 185 -0.875
36 P8 186 -0.387
36 P8 187 0.590
36 P8 188 1.567
36 P8 189 2.543
36 P8 190 3.520
36 P8 191 5.473
36 P8 192 6.938
36 P8 193 8.403
36 P8 194 8.403
36 P8 195 7.914
36 P8 196 6.938
36 P8 197 7.426
36 P8 198 9.379
36 P8 199 10.844
36 P8 200 11.820
36 P8 201 11.820
36 P8 202 10.844
36 P8 203 8.891
36 P8 204 6.938
36 P8 205 5.473
36 P8 206 4.008
36 P8 207 3.031
36 P8 208 1.567
36 P8 209 -0.387
36 P8 210 -3.805
36 P8 211 -7.711
36 P8 212 -11.129
36 P8 213 -12.594
36 P8 214 -11.617
36 P8 215 -8.199
36 P8 216 -4.781
36 P8 217 -2.340
36 P8 218 -1.363
36 P8 219 -1.363
36 P8 220 -1.363
36 P8 221 -1.363
36 P8 222 -0.387
36 P8 223 0.590
36 P8 224 1.078
36 P8 225 0.590
36 P8 226 -0.875
36 P8 227 -2.828
36 P8 228 -4.293
36 P8 229 -4.293
36 P8 230 -3.316
36 P8 231 -1.851
36 P8 232 -1.363
36 P8 233 -0.875
36 P8 234 -0.875
36 P8 235 1.078
36 P8 236 4.496
36 P8 237 9.379
36 P8 238 12.797
36 P8 239 12.797
36 P8 240 9.867
36 P8 241 4.496
36 P8 242 -0.387
36 P8 243 -4.293
36 P8 244 -6.734
36 P8 245 -8.199
36 P8 246 -9.664
36 P8 247 -10.640
36 P8 248 -10.152
36 P8 249 -6.734
36 P8 250 -1.851
36 P8 251 3.520
36 P8 252 6.938
36 P8 253 7.426
36 P8 254 5.961
36 P8 255 3.031
# P7 chan 26
36 P7 0 8.169
36 P7 1 8.657
36 P7 2 9.633
36 P7 3 11.098
36 P7 4 11.587
36 P7 5 10.610
36 P7 6 9.633
36 P7 7 8.169
36 P7 8 8.169
36 P7 9 9.633
36 P7 10 11.098
36 P7 11 12.075
36 P7 12 11.587
36 P7 13 11.098
36 P7 14 10.610
36 P7 15 11.587
36 P7 16 13.051
36 P7 17 14.028
36 P7 18 13.540
36 P7 19 12.075
36 P7 20 10.122
36 P7 21 8.169
36 P7 22 6.704
36 P7 23 5.239
36 P7 24 3.774
36 P7 25 2.797
36 P7 26 4.262
36 P7 27 7.680
36 P7 28 12.075
36 P7 29 15.004
36 P7 30 15.981
36 P7 31 14.516
36 P7 32 12.075
36 P7 33 10.610
36 P7 34 9.633
36 P7 35 10.610
36 P7 36 12.075
36 P7 37 13.540
36 P7 38 15.004
36 P7 39 17.446
36 P7 40 20.376
36 P7 41 23.305
36 P7 42 25.258
36 P7 43 23.305
36 P7 44 18.422
36 P7 45 10.610
36 P7 46 3.286
36 P7 47 -0.132
36 P7 48 1.333
36 P7 49 6.215
36 P7 50 12.075
36 P7 51 14.516
36 P7 52 13.540
36 P7 53 10.122
36 P7 54 7.680
36 P7 55 6.704
36 P7 56 8.169
36 P7 57 10.122
36 P7 58 12.075
36 P7 59 13.540
36 P7 60 14.028
36 P7 61 13.540
36 P7 62 12.075
36 P7 63 10.610
36 P7 64 8.657
36 P7 65 8.657
36 P7 66 10.610
36 P7 67 13.540
36 P7 68 16.958
36 P7 69 18.911
36 P7 70 18.911
36 P7 71 16.958
36 P7 72 15.493
36 P7 73 14.028
36 P7 74 12.563
36 P7 75 12.075
36 P7 76 12.075
36 P7 77 13.540
36 P7 78 17.446
36 P7 79 21.840
36 P7 80 26.235
36 P7 81 28.188
36 P7 82 27.212
36 P7 83 24.282
36 P7 84 21.840
36 P7 85 20.376
36 P7 86 21.840
36 P7 87 24.282
36 P7 88 26.723
36 P7 89 28.676
36 P7 90 28.676
36 P7 91 27.700
36 P7 92 26.723
36 P7 93 26.235
36 P7 94 25.258
36 P7 95 23.305
36 P7 96 20.864
36 P7 97 17.934
36 P7 98 15.004
36 P7 99 13.540
36 P7 100 13.051
36 P7 101 13.540
36 P7 102 14.028
36 P7 103 15.004
36 P7 104 16.469
36 P7 105 18.422
36 P7 106 19.887
36 P7 107 20.864
36 P7 108 20.864
36 P7 109 20.864
36 P7 110 20.376
36 P7 111 20.376
36 P7 112 19.887
36 P7 113 17.934
36 P7 114 13.051
36 P7 115 7.680
36 P7 116 2.309
36 P7 117 -1.597
36 P7 118 -4.038
36 P7 119 -5.992
36 P7 120 -6.480
36 P7 121 -6.968
36 P7 122 -5.503
36 P7 123 -2.085
36 P7 124 1.821
36 P7 125 5.239
36 P7 126 8.169
36 P7 127 9.633
36 P7 128 10.610
36 P7 129 12.075
36 P7 130 14.028
36 P7 131 15.004
36 P7 132 15.493
36 P7 133 15.981
36 P7 134 16.469
36 P7 135 17.446
36 P7 136 18.422
36 P7 137 17.934
36 P7 138 15.493
36 P7 139 12.075
36 P7 140 8.657
36 P7 141 6.704
36 P7 142 7.680
36 P7 143 10.122
36 P7 144 12.075
36 P7 145 13.051
36 P7 146 12.563
36 P7 147 11.587
36 P7 148 10.122
36 P7 149 9.145
36 P7 150 7.680
36 P7 151 6.215
36 P7 152 4.751
36 P7 153 4.262
36 P7 154 5.727
36 P7 155 8.657
36 P7 156 12.075
36 P7 157 15.493
36 P7 158 17.934
36 P7 159 19.887
36 P7 160 22.329
36 P7 161 25.747
36 P7 162 30.629
36 P7 163 35.024
36 P7 164 38.930
36 P7 165 41.372
36 P7 166 43.325
36 P7 167 43.813
36 P7 168 43.813
36 P7 169 43.325
36 P7 170 42.348
36 P7 171 40.883
36 P7 172 39.907
36 P7 173 37.954
36 P7 174 35.512
36 P7 175 31.606
36 P7 176 27.700
36 P7 177 24.282
36 P7 178 22.329
36 P7 179 21.352
36 P7 180 21.840
36 P7 181 21.840
36 P7 182 21.840
36 P7 183 19.887
36 P7 184 17.446
36 P7 185 14.516
36 P7 186 11.587
36 P7 187 10.122
36 P7 188 9.633
36 P7 189 10.610
36 P7 190 12.075
36 P7 191 13.540
36 P7 192 15.493
36 P7 193 15.981
36 P7 194 16.469
36 P7 195 16.469
36 P7 196 16.469
36 P7 197 16.958
36 P7 198 17.934
36 P7 199 19.887
36 P7 200 21.840
36 P7 201 22.817
36 P7 202 22.817
36 P7 203 21.352
36 P7 204 18.911
36 P7 205 15.981
36 P7 206 13.540
36 P7 207 12.075
36 P7 208 11.587
36 P7 209 13.051
36 P7 210 15.493
36 P7 211 18.422
36 P7 212 21.352
36 P7 213 23.305
36 P7 214 24.770
36 P7 215 24.282
36 P7 216 21.840
36 P7 217 16.469
36 P7 218 10.610
36 P7 219 5.239
36 P7 220 3.286
36 P7 221 3.774
36 P7 222 7.192
36 P7 223 10.122
36 P7 224 11.587
36 P7 225 11.098
36 P7 226 9.145
36 P7 227 7.192
36 P7 228 5.239
36 P7 229 4.262
36 P7 230 3.774
36 P7 231 4.262
36 P7 232 5.727
36 P7 233 8.169
36 P7 234 11.587
36 P7 235 15.004
36 P7 236 18.422
36 P7 237 19.887
36 P7 238 19.887
36 P7 239 18.422
36 P7 240 15.493
36 P7 241 11.587
36 P7 242 8.169
36 P7 243 5.239
36 P7 244 2.797
36 P7 245 2.309
36 P7 246 2.797
36 P7 247 4.262
36 P7 248 6.704
36 P7 249 9.145
36 P7 250 11.587
36 P7 251 12.563
36 P7 252 12.563
36 P7 253 11.587
36 P7 254 10.122
36 P7 255 8.169
# PO2 chan 27
36 PO2 0 7.904
36 PO2 1 5.951
36 PO2 2 4.486
36 PO2 3 5.951
36 PO2 4 8.392
36 PO2 5 10.345
36 PO2 6 10.345
36 PO2 7 8.392
36 PO2 8 6.439
36 PO2 9 5.951
36 PO2 10 7.416
36 PO2 11 8.392
36 PO2 12 9.369
36 PO2 13 8.881
36 PO2 14 8.881
36 PO2 15 10.834
36 PO2 16 13.763
36 PO2 17 16.693
36 PO2 18 17.181
36 PO2 19 14.740
36 PO2 20 10.345
36 PO2 21 5.951
36 PO2 22 3.510
36 PO2 23 2.533
36 PO2 24 3.510
36 PO2 25 5.951
36 PO2 26 8.392
36 PO2 27 10.345
36 PO2 28 11.810
36 PO2 29 11.810
36 PO2 30 9.857
36 PO2 31 6.439
36 PO2 32 3.021
36 PO2 33 1.068
36 PO2 34 1.556
36 PO2 35 3.510
36 PO2 36 5.463
36 PO2 37 5.951
36 PO2 38 3.998
36 PO2 39 1.556
36 PO2 40 0.092
36 PO2 41 0.092
36 PO2 42 1.068
36 PO2 43 1.068
36 PO2 44 0.092
36 PO2 45 -2.350
36 PO2 46 -4.791
36 PO2 47 -5.768
36 PO2 48 -4.791
36 PO2 49 -1.862
36 PO2 50 1.068
36 PO2 51 2.533
36 PO2 52 2.533
36 PO2 53 0.580
36 PO2 54 -0.885
36 PO2 55 -0.885
36 PO2 56 1.068
36 PO2 57 4.974
36 PO2 58 7.904
36 PO2 59 9.369
36 PO2 60 9.857
36 PO2 61 8.881
36 PO2 62 7.416
36 PO2 63 6.439
36 PO2 64 6.439
36 PO2 65 6.439
36 PO2 66 6.439
36 PO2 67 6.439
36 PO2 68 6.439
36 PO2 69 6.439
36 PO2 70 4.974
36 PO2 71 3.510
36 PO2 72 0.580
36 PO2 73 -1.862
36 PO2 74 -2.350
36 PO2 75 -0.885
36 PO2 76 3.021
36 PO2 77 7.904
36 PO2 78 12.299
36 PO2 79 15.717
36 PO2 80 17.181
36 PO2 81 17.181
36 PO2 82 16.205
36 PO2 83 14.252
36 PO2 84 11.810
36 PO2 85 10.834
36 PO2 86 11.810
36 PO2 87 13.763
36 PO2 88 16.205
36 PO2 89 17.670
36 PO2 90 17.181
36 PO2 91 14.740
36 PO2 92 11.810
36 PO2 93 9.369
36 PO2 94 8.392
36 PO2 95 7.904
36 PO2 96 6.927
36 PO2 97 4.974
36 PO2 98 2.045
36 PO2 99 0.092
36 PO2 100 -0.885
36 PO2 101 0.092
36 PO2 102 2.045
36 PO2 103 3.998
36 PO2 104 4.974
36 PO2 105 5.463
36 PO2 106 6.439
36 PO2 107 7.416
36 PO2 108 9.369
36 PO2 109 10.834
36 PO2 110 11.810
36 PO2 111 11.810
36 PO2 112 11.810
36 PO2 113 11.810
36 PO2 114 11.322
36 PO2 115 9.857
36 PO2 116 6.439
36 PO2 117 1.556
36 PO2 118 -2.838
36 PO2 119 -5.768
36 PO2 120 -6.744
36 PO2 121 -6.256
36 PO2 122 -4.791
36 PO2 123 -2.838
36 PO2 124 -0.885
36 PO2 125 1.068
36 PO2 126 2.045
36 PO2 127 2.533
36 PO2 128 2.045
36 PO2 129 2.045
36 PO2 130 3.510
36 PO2 131 5.951
36 PO2 132 8.881
36 PO2 133 11.322
36 PO2 134 12.299
36 PO2 135 11.810
36 PO2 136 11.322
36 PO2 137 9.857
36 PO2 138 8.881
36 PO2 139 7.416
36 PO2 140 5.463
36 PO2 141 3.998
36 PO2 142 3.021
36 PO2 143 3.510
36 PO2 144 5.463
36 PO2 145 7.416
36 PO2 146 8.392
36 PO2 147 8.392
36 PO2 148 6.927
36 PO2 149 4.974
36 PO2 150 2.533
36 PO2 151 0.092
36 PO2 152 -1.862
36 PO2 153 -3.326
36 PO2 154 -3.326
36 PO2 155 -2.350
36 PO2 156 -0.885
36 PO2 157 0.092
36 PO2 158 1.068
36 PO2 159 2.045
36 PO2 160 3.510
36 PO2 161 6.439
36 PO2 162 11.322
36 PO2 163 16.693
36 PO2 164 21.576
36 PO2 165 25.482
36 PO2 166 28.412
36 PO2 167 30.853
36 PO2 168 32.806
36 PO2 169 33.783
36 PO2 170 33.783
36 PO2 171 33.295
36 PO2 172 32.318
36 PO2 173 29.877
36 PO2 174 26.459
36 PO2 175 21.088
36 PO2 176 14.740
36 PO2 177 8.881
36 PO2 178 4.486
36 PO2 179 2.533
36 PO2 180 2.045
36 PO2 181 2.045
36 PO2 182 1.068
36 PO2 183 0.092
36 PO2 184 -0.397
36 PO2 185 -0.397
36 PO2 186 0.092
36 PO2 187 0.580
36 PO2 188 0.580
36 PO2 189 1.068
36 PO2 190 1.556
36 PO2 191 2.533
36 PO2 192 3.510
36 PO2 193 3.510
36 PO2 194 3.021
36 PO2 195 1.556
36 PO2 196 0.580
36 PO2 197 0.092
36 PO2 198 1.556
36 PO2 199 3.998
36 PO2 200 6.927
36 PO2 201 8.881
36 PO2 202 9.369
36 PO2 203 7.904
36 PO2 204 4.974
36 PO2 205 2.045
36 PO2 206 0.580
36 PO2 207 0.092
36 PO2 208 0.580
36 PO2 209 1.068
36 PO2 210 1.068
36 PO2 211 0.092
36 PO2 212 -1.373
36 PO2 213 -2.350
36 PO2 214 -1.862
36 PO2 215 -0.397
36 PO2 216 0.580
36 PO2 217 0.580
36 PO2 218 -1.373
36 PO2 219 -4.303
36 PO2 220 -6.256
36 PO2 221 -6.256
36 PO2 222 -4.303
36 PO2 223 -1.373
36 PO2 224 0.580
36 PO2 225 0.580
36 PO2 226 -0.885
36 PO2 227 -2.350
36 PO2 228 -2.838
36 PO2 229 -2.350
36 PO2 230 -0.885
36 PO2 231 0.580
36 PO2 232 1.068
36 PO2 233 0.580
36 PO2 234 0.092
36 PO2 235 1.556
36 PO2 236 4.486
36 PO2 237 8.392
36 PO2 238 11.322
36 PO2 239 12.299
36 PO2 240 10.834
36 PO2 241 8.392
36 PO2 242 4.974
36 PO2 243 1.556
36 PO2 244 -1.862
36 PO2 245 -5.280
36 PO2 246 -7.721
36 PO2 247 -8.209
36 PO2 248 -6.744
36 PO2 249 -2.838
36 PO2 250 2.045
36 PO2 251 5.951
36 PO2 252 6.927
36 PO2 253 5.951
36 PO2 254 3.510
36 PO2 255 1.068
# PO1 chan 28
36 PO1 0 11.576
36 PO1 1 11.088
36 PO1 2 10.600
36 PO1 3 12.065
36 PO1 4 13.529
36 PO1 5 14.018
36 PO1 6 13.041
36 PO1 7 12.065
36 PO1 8 12.065
36 PO1 9 13.529
36 PO1 10 15.971
36 PO1 11 17.924
36 PO1 12 17.924
36 PO1 13 17.924
36 PO1 14 18.412
36 PO1 15 20.854
36 PO1 16 23.295
36 PO1 17 24.760
36 PO1 18 23.295
36 PO1 19 19.877
36 PO1 20 15.971
36 PO1 21 12.553
36 PO1 22 11.088
36 PO1 23 10.600
36 PO1 24 10.600
36 PO1 25 11.576
36 PO1 26 13.529
36 PO1 27 17.436
36 PO1 28 21.342
36 PO1 29 22.319
36 PO1 30 20.365
36 PO1 31 14.994
36 PO1 32 9.623
36 PO1 33 6.205
36 PO1 34 5.717
36 PO1 35 7.182
36 PO1 36 8.647
36 PO1 37 9.135
36 PO1 38 8.647
36 PO1 39 8.647
36 PO1 40 11.088
36 PO1 41 14.506
36 PO1 42 17.436
36 PO1 43 17.924
36 PO1 44 14.506
36 PO1 45 10.111
36 PO1 46 5.717
