# co2a0000398.rd
# 120 trials, 64 chans, 416 samples 368 post_stim samples
# 3.906000 msecs uV
# S2 match , trial 81
# FP1 chan 0
81 FP1 0 -4.069
81 FP1 1 -1.628
81 FP1 2 -2.116
81 FP1 3 -5.534
81 FP1 4 -7.975
81 FP1 5 -8.464
81 FP1 6 -5.534
81 FP1 7 -1.139
81 FP1 8 1.790
81 FP1 9 2.279
81 FP1 10 -0.163
81 FP1 11 -3.581
81 FP1 12 -6.022
81 FP1 13 -7.487
81 FP1 14 -7.487
81 FP1 15 -6.999
81 FP1 16 -6.999
81 FP1 17 -6.022
81 FP1 18 -4.557
81 FP1 19 -2.604
81 FP1 20 -0.163
81 FP1 21 0.814
81 FP1 22 0.814
81 FP1 23 -0.651
81 FP1 24 -1.628
81 FP1 25 -2.116
81 FP1 26 -1.139
81 FP1 27 0.326
81 FP1 28 0.326
81 FP1 29 -1.139
81 FP1 30 -4.069
81 FP1 31 -6.022
81 FP1 32 -6.510
81 FP1 33 -4.557
81 FP1 34 -1.628
81 FP1 35 0.814
81 FP1 36 2.279
81 FP1 37 1.790
81 FP1 38 -0.163
81 FP1 39 -2.116
81 FP1 40 -3.581
81 FP1 41 -4.069
81 FP1 42 -4.557
81 FP1 43 -5.534
81 FP1 44 -6.999
81 FP1 45 -8.464
81 FP1 46 -8.464
81 FP1 47 -7.975
81 FP1 48 -6.999
81 FP1 49 -7.487
81 FP1 50 -9.440
81 FP1 51 -11.393
81 FP1 52 -13.346
81 FP1 53 -13.346
81 FP1 54 -12.370
81 FP1 55 -11.882
81 FP1 56 -12.370
81 FP1 57 -12.858
81 FP1 58 -13.346
81 FP1 59 -13.346
81 FP1 60 -14.811
81 FP1 61 -18.229
81 FP1 62 -22.624
81 FP1 63 -26.042
81 FP1 64 -25.553
81 FP1 65 -21.647
81 FP1 66 -17.741
81 FP1 67 -16.764
81 FP1 68 -19.694
81 FP1 69 -24.089
81 FP1 70 -26.530
81 FP1 71 -24.577
81 FP1 72 -20.182
81 FP1 73 -16.764
81 FP1 74 -17.253
81 FP1 75 -21.647
81 FP1 76 -26.042
81 FP1 77 -27.995
81 FP1 78 -25.553
81 FP1 79 -21.159
81 FP1 80 -18.717
81 FP1 81 -18.717
81 FP1 82 -20.671
81 FP1 83 -21.647
81 FP1 84 -21.159
81 FP1 85 -20.182
81 FP1 86 -20.671
81 FP1 87 -23.112
81 FP1 88 -25.065
81 FP1 89 -26.042
81 FP1 90 -24.089
81 FP1 91 -21.159
81 FP1 92 -19.206
81 FP1 93 -18.717
81 FP1 94 -19.206
81 FP1 95 -19.694
81 FP1 96 -19.206
81 FP1 97 -19.206
81 FP1 98 -20.182
81 FP1 99 -21.647
81 FP1 100 -23.112
81 FP1 101 -23.600
81 FP1 102 -23.112
81 FP1 103 -21.647
81 FP1 104 -20.671
81 FP1 105 -19.206
81 FP1 106 -16.764
81 FP1 107 -13.346
81 FP1 108 -9.440
81 FP1 109 -6.510
81 FP1 110 -6.022
81 FP1 111 -7.975
81 FP1 112 -10.905
81 FP1 113 -11.882
81 FP1 114 -11.393
81 FP1 115 -9.440
81 FP1 116 -7.975
81 FP1 117 -8.464
81 FP1 118 -9.928
81 FP1 119 -9.928
81 FP1 120 -7.975
81 FP1 121 -4.557
81 FP1 122 -1.139
81 FP1 123 -1.139
81 FP1 124 -3.581
81 FP1 125 -7.487
81 FP1 126 -9.440
81 FP1 127 -9.440
81 FP1 128 -7.487
81 FP1 129 -6.510
81 FP1 130 -7.487
81 FP1 131 -9.440
81 FP1 132 -11.393
81 FP1 133 -10.417
81 FP1 134 -8.464
81 FP1 135 -5.534
81 FP1 136 -4.069
81 FP1 137 -5.046
81 FP1 138 -6.510
81 FP1 139 -7.975
81 FP1 140 -7.975
81 FP1 141 -6.510
81 FP1 142 -4.069
81 FP1 143 -1.628
81 FP1 144 0.326
81 FP1 145 2.279
81 FP1 146 2.767
81 FP1 147 2.767
81 FP1 148 2.279
81 FP1 149 1.302
81 FP1 150 0.326
81 FP1 151 -0.163
81 FP1 152 -0.651
81 FP1 153 -1.628
81 FP1 154 -3.581
81 FP1 155 -6.022
81 FP1 156 -8.464
81 FP1 157 -9.928
81 FP1 158 -10.417
81 FP1 159 -8.952
81 FP1 160 -6.999
81 FP1 161 -5.046
81 FP1 162 -3.581
81 FP1 163 -3.092
81 FP1 164 -3.581
81 FP1 165 -4.557
81 FP1 166 -5.534
81 FP1 167 -6.022
81 FP1 168 -6.022
81 FP1 169 -5.534
81 FP1 170 -4.557
81 FP1 171 -4.069
81 FP1 172 -3.581
81 FP1 173 -2.604
81 FP1 174 -1.628
81 FP1 175 -0.163
81 FP1 176 0.814
81 FP1 177 0.814
81 FP1 178 -0.163
81 FP1 179 -0.651
81 FP1 180 -0.651
81 FP1 181 -0.651
81 FP1 182 -1.628
81 FP1 183 -4.557
81 FP1 184 -7.975
81 FP1 185 -11.393
81 FP1 186 -13.346
81 FP1 187 -13.835
81 FP1 188 -13.346
81 FP1 189 -11.393
81 FP1 190 -9.440
81 FP1 191 -6.022
81 FP1 192 -3.581
81 FP1 193 -2.604
81 FP1 194 -3.581
81 FP1 195 -6.999
81 FP1 196 -10.417
81 FP1 197 -11.882
81 FP1 198 -10.417
81 FP1 199 -6.999
81 FP1 200 -3.092
81 FP1 201 -1.628
81 FP1 202 -3.092
81 FP1 203 -6.022
81 FP1 204 -8.952
81 FP1 205 -9.928
81 FP1 206 -8.464
81 FP1 207 -5.534
81 FP1 208 -3.581
81 FP1 209 -2.604
81 FP1 210 -3.581
81 FP1 211 -5.534
81 FP1 212 -7.487
81 FP1 213 -8.464
81 FP1 214 -7.975
81 FP1 215 -6.510
81 FP1 216 -5.046
81 FP1 217 -5.534
81 FP1 218 -6.999
81 FP1 219 -8.952
81 FP1 220 -9.440
81 FP1 221 -7.487
81 FP1 222 -2.604
81 FP1 223 2.767
81 FP1 224 6.185
81 FP1 225 7.161
81 FP1 226 7.161
81 FP1 227 8.138
81 FP1 228 12.044
81 FP1 229 19.857
81 FP1 230 29.134
81 FP1 231 37.923
81 FP1 232 43.783
81 FP1 233 46.712
81 FP1 234 47.201
81 FP1 235 47.201
81 FP1 236 48.665
81 FP1 237 52.083
81 FP1 238 56.966
81 FP1 239 61.849
81 FP1 240 65.267
81 FP1 241 67.708
81 FP1 242 68.197
81 FP1 243 67.708
81 FP1 244 66.732
81 FP1 245 66.243
81 FP1 246 66.243
81 FP1 247 67.708
81 FP1 248 70.638
81 FP1 249 72.591
81 FP1 250 73.568
81 FP1 251 72.103
81 FP1 252 68.685
81 FP1 253 64.290
81 FP1 254 60.384
81 FP1 255 57.454
# FP2 chan 1
81 FP2 0 2.736
81 FP2 1 -0.193
81 FP2 2 -6.541
81 FP2 3 -11.424
81 FP2 4 -10.935
81 FP2 5 -5.564
81 FP2 6 -1.170
81 FP2 7 -0.193
81 FP2 8 -4.100
81 FP2 9 -7.517
81 FP2 10 -7.517
81 FP2 11 -4.588
81 FP2 12 -1.170
81 FP2 13 -2.146
81 FP2 14 -6.541
81 FP2 15 -10.935
81 FP2 16 -11.424
81 FP2 17 -7.029
81 FP2 18 -0.193
81 FP2 19 5.178
81 FP2 20 6.154
81 FP2 21 3.713
81 FP2 22 -0.193
81 FP2 23 -3.123
81 FP2 24 -3.611
81 FP2 25 -2.146
81 FP2 26 -0.193
81 FP2 27 1.760
81 FP2 28 1.760
81 FP2 29 0.783
81 FP2 30 -1.170
81 FP2 31 -3.611
81 FP2 32 -4.100
81 FP2 33 -3.123
81 FP2 34 -2.146
81 FP2 35 -1.170
81 FP2 36 -1.658
81 FP2 37 -2.635
81 FP2 38 -2.635
81 FP2 39 -1.170
81 FP2 40 0.783
81 FP2 41 1.272
81 FP2 42 -1.658
81 FP2 43 -6.541
81 FP2 44 -10.447
81 FP2 45 -12.400
81 FP2 46 -11.424
81 FP2 47 -9.471
81 FP2 48 -9.471
81 FP2 49 -11.424
81 FP2 50 -13.377
81 FP2 51 -14.353
81 FP2 52 -12.400
81 FP2 53 -9.471
81 FP2 54 -7.517
81 FP2 55 -8.494
81 FP2 56 -10.935
81 FP2 57 -13.377
81 FP2 58 -14.353
81 FP2 59 -14.353
81 FP2 60 -15.818
81 FP2 61 -19.725
81 FP2 62 -24.119
81 FP2 63 -27.049
81 FP2 64 -26.560
81 FP2 65 -22.654
81 FP2 66 -19.236
81 FP2 67 -18.260
81 FP2 68 -20.701
81 FP2 69 -23.631
81 FP2 70 -24.119
81 FP2 71 -21.678
81 FP2 72 -18.260
81 FP2 73 -16.307
81 FP2 74 -17.771
81 FP2 75 -20.213
81 FP2 76 -23.142
81 FP2 77 -23.142
81 FP2 78 -22.166
81 FP2 79 -21.189
81 FP2 80 -21.189
81 FP2 81 -21.678
81 FP2 82 -20.701
81 FP2 83 -18.748
81 FP2 84 -17.283
81 FP2 85 -17.771
81 FP2 86 -20.213
81 FP2 87 -22.166
81 FP2 88 -23.142
81 FP2 89 -22.166
81 FP2 90 -20.213
81 FP2 91 -19.236
81 FP2 92 -19.236
81 FP2 93 -19.236
81 FP2 94 -18.748
81 FP2 95 -16.795
81 FP2 96 -16.307
81 FP2 97 -17.283
81 FP2 98 -19.725
81 FP2 99 -21.189
81 FP2 100 -21.189
81 FP2 101 -18.748
81 FP2 102 -16.795
81 FP2 103 -16.795
81 FP2 104 -18.260
81 FP2 105 -18.748
81 FP2 106 -16.307
81 FP2 107 -11.912
81 FP2 108 -6.541
81 FP2 109 -3.123
81 FP2 110 -2.635
81 FP2 111 -4.100
81 FP2 112 -6.541
81 FP2 113 -8.982
81 FP2 114 -9.959
81 FP2 115 -10.447
81 FP2 116 -10.447
81 FP2 117 -8.494
81 FP2 118 -5.564
81 FP2 119 -3.611
81 FP2 120 -3.123
81 FP2 121 -4.100
81 FP2 122 -5.564
81 FP2 123 -6.053
81 FP2 124 -4.588
81 FP2 125 -2.146
81 FP2 126 -1.658
81 FP2 127 -2.635
81 FP2 128 -5.564
81 FP2 129 -8.006
81 FP2 130 -8.494
81 FP2 131 -7.029
81 FP2 132 -5.076
81 FP2 133 -3.611
81 FP2 134 -4.100
81 FP2 135 -3.611
81 FP2 136 -2.635
81 FP2 137 -1.658
81 FP2 138 -1.658
81 FP2 139 -2.635
81 FP2 140 -4.100
81 FP2 141 -4.588
81 FP2 142 -3.123
81 FP2 143 0.295
81 FP2 144 3.225
81 FP2 145 4.201
81 FP2 146 3.713
81 FP2 147 4.201
81 FP2 148 4.690
81 FP2 149 5.666
81 FP2 150 4.690
81 FP2 151 1.760
81 FP2 152 -1.170
81 FP2 153 -1.658
81 FP2 154 0.295
81 FP2 155 1.272
81 FP2 156 -0.682
81 FP2 157 -6.541
81 FP2 158 -11.912
81 FP2 159 -13.377
81 FP2 160 -9.471
81 FP2 161 -2.146
81 FP2 162 2.248
81 FP2 163 1.760
81 FP2 164 -3.611
81 FP2 165 -8.494
81 FP2 166 -8.982
81 FP2 167 -4.588
81 FP2 168 -0.193
81 FP2 169 -0.193
81 FP2 170 -3.611
81 FP2 171 -8.494
81 FP2 172 -8.982
81 FP2 173 -4.100
81 FP2 174 3.225
81 FP2 175 8.108
81 FP2 176 7.619
81 FP2 177 2.248
81 FP2 178 -3.123
81 FP2 179 -5.076
81 FP2 180 -3.123
81 FP2 181 -0.193
81 FP2 182 0.783
81 FP2 183 -1.658
81 FP2 184 -7.029
81 FP2 185 -11.424
81 FP2 186 -13.377
81 FP2 187 -12.889
81 FP2 188 -10.935
81 FP2 189 -9.471
81 FP2 190 -8.006
81 FP2 191 -7.517
81 FP2 192 -6.053
81 FP2 193 -5.076
81 FP2 194 -3.611
81 FP2 195 -3.123
81 FP2 196 -2.635
81 FP2 197 -2.635
81 FP2 198 -2.146
81 FP2 199 -2.146
81 FP2 200 -2.635
81 FP2 201 -4.588
81 FP2 202 -6.053
81 FP2 203 -7.029
81 FP2 204 -6.541
81 FP2 205 -5.076
81 FP2 206 -3.611
81 FP2 207 -2.635
81 FP2 208 -1.658
81 FP2 209 -0.193
81 FP2 210 0.783
81 FP2 211 0.783
81 FP2 212 -0.682
81 FP2 213 -3.611
81 FP2 214 -5.564
81 FP2 215 -6.053
81 FP2 216 -4.588
81 FP2 217 -2.635
81 FP2 218 -1.658
81 FP2 219 -2.146
81 FP2 220 -3.123
81 FP2 221 -3.123
81 FP2 222 -1.170
81 FP2 223 2.248
81 FP2 224 5.178
81 FP2 225 7.131
81 FP2 226 9.084
81 FP2 227 11.525
81 FP2 228 16.408
81 FP2 229 23.244
81 FP2 230 30.568
81 FP2 231 36.916
81 FP2 232 41.311
81 FP2 233 45.217
81 FP2 234 48.635
81 FP2 235 52.541
81 FP2 236 56.447
81 FP2 237 59.865
81 FP2 238 62.307
81 FP2 239 64.748
81 FP2 240 67.190
81 FP2 241 70.119
81 FP2 242 72.072
81 FP2 243 72.561
81 FP2 244 70.608
81 FP2 245 68.654
81 FP2 246 68.654
81 FP2 247 71.584
81 FP2 248 76.955
81 FP2 249 81.350
81 FP2 250 81.838
81 FP2 251 77.932
81 FP2 252 71.584
81 FP2 253 65.725
81 FP2 254 62.307
81 FP2 255 61.818
# F7 chan 2
81 F7 0 0.854
81 F7 1 2.808
81 F7 2 0.366
81 F7 3 -5.981
81 F7 4 -11.353
81 F7 5 -12.329
81 F7 6 -7.935
81 F7 7 -0.122
81 F7 8 5.249
81 F7 9 6.226
81 F7 10 2.319
81 F7 11 -3.540
81 F7 12 -7.446
81 F7 13 -7.446
81 F7 14 -4.517
81 F7 15 -0.122
81 F7 16 2.319
81 F7 17 2.808
81 F7 18 1.343
81 F7 19 -0.610
81 F7 20 -1.587
81 F7 21 -1.587
81 F7 22 -0.122
81 F7 23 1.831
81 F7 24 4.761
81 F7 25 8.179
81 F7 26 11.597
81 F7 27 14.038
81 F7 28 13.550
81 F7 29 9.644
81 F7 30 3.784
81 F7 31 -2.075
81 F7 32 -4.517
81 F7 33 -2.563
81 F7 34 0.854
81 F7 35 3.784
81 F7 36 3.784
81 F7 37 1.831
81 F7 38 0.854
81 F7 39 1.831
81 F7 40 5.249
81 F7 41 7.202
81 F7 42 6.226
81 F7 43 3.296
81 F7 44 -1.099
81 F7 45 -4.517
81 F7 46 -6.470
81 F7 47 -7.446
81 F7 48 -7.446
81 F7 49 -6.470
81 F7 50 -5.493
81 F7 51 -5.493
81 F7 52 -6.958
81 F7 53 -8.911
81 F7 54 -9.399
81 F7 55 -7.446
81 F7 56 -4.028
81 F7 57 -1.587
81 F7 58 -4.028
81 F7 59 -10.376
81 F7 60 -17.212
81 F7 61 -20.630
81 F7 62 -19.165
81 F7 63 -14.282
81 F7 64 -11.353
81 F7 65 -11.841
81 F7 66 -15.259
81 F7 67 -18.677
81 F7 68 -20.142
81 F7 69 -19.165
81 F7 70 -18.677
81 F7 71 -18.677
81 F7 72 -19.165
81 F7 73 -19.653
81 F7 74 -18.677
81 F7 75 -18.188
81 F7 76 -19.165
81 F7 77 -20.142
81 F7 78 -20.142
81 F7 79 -17.212
81 F7 80 -12.329
81 F7 81 -7.446
81 F7 82 -5.981
81 F7 83 -9.399
81 F7 84 -15.259
81 F7 85 -20.630
81 F7 86 -23.071
81 F7 87 -20.630
81 F7 88 -16.235
81 F7 89 -12.817
81 F7 90 -12.817
81 F7 91 -16.235
81 F7 92 -20.142
81 F7 93 -22.095
81 F7 94 -20.630
81 F7 95 -15.747
81 F7 96 -11.841
81 F7 97 -11.353
81 F7 98 -14.771
81 F7 99 -19.165
81 F7 100 -22.095
81 F7 101 -21.118
81 F7 102 -18.188
81 F7 103 -16.724
81 F7 104 -17.212
81 F7 105 -17.700
81 F7 106 -16.724
81 F7 107 -12.817
81 F7 108 -8.911
81 F7 109 -7.446
81 F7 110 -9.399
81 F7 111 -12.817
81 F7 112 -13.794
81 F7 113 -11.353
81 F7 114 -6.958
81 F7 115 -4.517
81 F7 116 -6.470
81 F7 117 -10.376
81 F7 118 -11.841
81 F7 119 -9.399
81 F7 120 -3.540
81 F7 121 2.319
81 F7 122 3.296
81 F7 123 -1.587
81 F7 124 -8.911
81 F7 125 -14.771
81 F7 126 -15.747
81 F7 127 -11.353
81 F7 128 -4.028
81 F7 129 2.319
81 F7 130 3.784
81 F7 131 0.854
81 F7 132 -4.517
81 F7 133 -8.911
81 F7 134 -9.888
81 F7 135 -7.446
81 F7 136 -4.517
81 F7 137 -3.052
81 F7 138 -5.493
81 F7 139 -9.399
81 F7 140 -10.376
81 F7 141 -7.446
81 F7 142 -1.099
81 F7 143 5.249
81 F7 144 8.667
81 F7 145 7.690
81 F7 146 3.784
81 F7 147 1.343
81 F7 148 0.366
81 F7 149 0.854
81 F7 150 1.831
81 F7 151 2.319
81 F7 152 2.319
81 F7 153 1.831
81 F7 154 1.831
81 F7 155 0.854
81 F7 156 -0.610
81 F7 157 -2.563
81 F7 158 -4.517
81 F7 159 -5.493
81 F7 160 -5.005
81 F7 161 -3.052
81 F7 162 -1.099
81 F7 163 -0.122
81 F7 164 -1.099
81 F7 165 -3.540
81 F7 166 -5.493
81 F7 167 -6.470
81 F7 168 -5.005
81 F7 169 -2.075
81 F7 170 0.366
81 F7 171 1.343
81 F7 172 0.854
81 F7 173 -0.122
81 F7 174 -1.099
81 F7 175 -0.610
81 F7 176 -1.099
81 F7 177 -2.075
81 F7 178 -3.540
81 F7 179 -3.540
81 F7 180 -2.563
81 F7 181 -0.122
81 F7 182 0.854
81 F7 183 -0.610
81 F7 184 -3.540
81 F7 185 -5.493
81 F7 186 -4.517
81 F7 187 -2.075
81 F7 188 0.366
81 F7 189 -1.587
81 F7 190 -6.470
81 F7 191 -12.329
81 F7 192 -14.771
81 F7 193 -13.306
81 F7 194 -9.399
81 F7 195 -5.981
81 F7 196 -5.493
81 F7 197 -6.470
81 F7 198 -7.446
81 F7 199 -6.958
81 F7 200 -5.981
81 F7 201 -5.981
81 F7 202 -7.935
81 F7 203 -9.399
81 F7 204 -9.399
81 F7 205 -7.935
81 F7 206 -5.981
81 F7 207 -6.470
81 F7 208 -9.888
81 F7 209 -12.817
81 F7 210 -14.282
81 F7 211 -12.817
81 F7 212 -10.376
81 F7 213 -8.423
81 F7 214 -8.423
81 F7 215 -9.888
81 F7 216 -11.353
81 F7 217 -11.841
81 F7 218 -12.329
81 F7 219 -12.817
81 F7 220 -13.306
81 F7 221 -14.282
81 F7 222 -13.794
81 F7 223 -12.329
81 F7 224 -10.376
81 F7 225 -8.423
81 F7 226 -6.470
81 F7 227 -4.517
81 F7 228 -2.075
81 F7 229 2.808
81 F7 230 8.667
81 F7 231 15.015
81 F7 232 18.921
81 F7 233 19.409
81 F7 234 16.968
81 F7 235 14.038
81 F7 236 12.573
81 F7 237 13.550
81 F7 238 15.015
81 F7 239 15.991
81 F7 240 15.991
81 F7 241 17.456
81 F7 242 20.386
81 F7 243 24.292
81 F7 244 26.245
81 F7 245 24.780
81 F7 246 21.362
81 F7 247 18.921
81 F7 248 19.897
81 F7 249 23.315
81 F7 250 27.222
81 F7 251 26.733
81 F7 252 22.339
81 F7 253 16.479
81 F7 254 12.085
81 F7 255 11.108
# F8 chan 3
81 F8 0 0.387
81 F8 1 -4.496
81 F8 2 -11.820
81 F8 3 -15.727
81 F8 4 -12.797
81 F8 5 -4.985
81 F8 6 1.363
81 F8 7 3.316
81 F8 8 1.363
81 F8 9 -0.102
81 F8 10 1.363
81 F8 11 3.805
81 F8 12 2.828
81 F8 13 -2.543
81 F8 14 -8.891
81 F8 15 -12.309
81 F8 16 -8.891
81 F8 17 -1.078
81 F8 18 6.734
81 F8 19 12.105
81 F8 20 13.570
81 F8 21 12.105
81 F8 22 10.152
81 F8 23 8.199
81 F8 24 6.246
81 F8 25 5.269
81 F8 26 5.758
81 F8 27 7.711
81 F8 28 9.664
81 F8 29 8.687
81 F8 30 4.781
81 F8 31 0.387
81 F8 32 -2.055
81 F8 33 -0.102
81 F8 34 5.269
81 F8 35 9.664
81 F8 36 11.129
81 F8 37 9.664
81 F8 38 6.246
81 F8 39 2.828
81 F8 40 0.875
81 F8 41 -1.078
81 F8 42 -2.543
81 F8 43 -4.008
81 F8 44 -3.520
81 F8 45 -2.055
81 F8 46 -2.055
81 F8 47 -3.520
81 F8 48 -7.426
81 F8 49 -10.356
81 F8 50 -10.356
81 F8 51 -6.938
81 F8 52 -3.520
81 F8 53 -1.567
81 F8 54 -3.520
81 F8 55 -6.449
81 F8 56 -6.938
81 F8 57 -4.985
81 F8 58 -2.055
81 F8 59 -1.567
81 F8 60 -4.496
81 F8 61 -9.379
81 F8 62 -12.797
81 F8 63 -13.285
81 F8 64 -12.309
81 F8 65 -13.285
81 F8 66 -17.680
81 F8 67 -23.539
81 F8 68 -25.492
81 F8 69 -22.074
81 F8 70 -14.262
81 F8 71 -6.938
81 F8 72 -4.985
81 F8 73 -8.891
81 F8 74 -15.727
81 F8 75 -19.633
81 F8 76 -17.680
81 F8 77 -12.309
81 F8 78 -7.426
81 F8 79 -6.938
81 F8 80 -11.332
81 F8 81 -16.215
81 F8 82 -18.656
81 F8 83 -17.192
81 F8 84 -14.262
81 F8 85 -13.285
81 F8 86 -16.215
81 F8 87 -20.121
81 F8 88 -21.586
81 F8 89 -18.656
81 F8 90 -12.797
81 F8 91 -7.914
81 F8 92 -5.473
81 F8 93 -6.938
81 F8 94 -11.332
81 F8 95 -15.238
81 F8 96 -17.680
81 F8 97 -17.680
81 F8 98 -16.703
81 F8 99 -15.238
81 F8 100 -14.750
81 F8 101 -15.238
81 F8 102 -16.215
81 F8 103 -16.703
81 F8 104 -15.727
81 F8 105 -13.285
81 F8 106 -8.403
81 F8 107 -2.055
81 F8 108 2.828
81 F8 109 4.293
81 F8 110 0.387
81 F8 111 -6.449
81 F8 112 -12.309
81 F8 113 -13.774
81 F8 114 -10.844
81 F8 115 -4.496
81 F8 116 0.875
81 F8 117 1.851
81 F8 118 -1.078
81 F8 119 -5.473
81 F8 120 -6.938
81 F8 121 -5.473
81 F8 122 -1.567
81 F8 123 1.851
81 F8 124 2.340
81 F8 125 -0.102
81 F8 126 -3.520
81 F8 127 -6.938
81 F8 128 -8.891
81 F8 129 -8.891
81 F8 130 -6.449
81 F8 131 -2.055
81 F8 132 3.805
81 F8 133 9.664
81 F8 134 13.570
81 F8 135 12.105
81 F8 136 6.734
81 F8 137 -2.055
81 F8 138 -8.403
81 F8 139 -10.356
81 F8 140 -6.938
81 F8 141 -0.102
81 F8 142 5.269
81 F8 143 8.199
81 F8 144 8.687
81 F8 145 9.176
81 F8 146 10.640
81 F8 147 13.570
81 F8 148 15.035
81 F8 149 13.570
81 F8 150 9.664
81 F8 151 4.781
81 F8 152 1.363
81 F8 153 -0.102
81 F8 154 -0.590
81 F8 155 -1.078
81 F8 156 -3.031
81 F8 157 -5.473
81 F8 158 -6.449
81 F8 159 -4.985
81 F8 160 -1.567
81 F8 161 3.805
81 F8 162 6.734
81 F8 163 6.246
81 F8 164 2.828
81 F8 165 -1.078
81 F8 166 -3.520
81 F8 167 -2.055
81 F8 168 0.875
81 F8 169 2.340
81 F8 170 1.851
81 F8 171 -0.102
81 F8 172 -2.055
81 F8 173 -1.567
81 F8 174 -0.102
81 F8 175 1.363
81 F8 176 1.851
81 F8 177 0.875
81 F8 178 0.875
81 F8 179 3.316
81 F8 180 7.711
81 F8 181 11.129
81 F8 182 10.640
81 F8 183 4.781
81 F8 184 -4.008
81 F8 185 -12.309
81 F8 186 -17.192
81 F8 187 -16.703
81 F8 188 -11.820
81 F8 189 -5.961
81 F8 190 -0.590
81 F8 191 1.851
81 F8 192 1.851
81 F8 193 1.363
81 F8 194 0.875
81 F8 195 1.363
81 F8 196 0.387
81 F8 197 -1.567
81 F8 198 -4.985
81 F8 199 -6.938
81 F8 200 -5.961
81 F8 201 -2.055
81 F8 202 0.875
81 F8 203 -0.102
81 F8 204 -4.985
81 F8 205 -10.356
81 F8 206 -11.332
81 F8 207 -6.938
81 F8 208 0.387
81 F8 209 3.805
81 F8 210 0.387
81 F8 211 -6.449
81 F8 212 -12.309
81 F8 213 -12.309
81 F8 214 -7.426
81 F8 215 -1.567
81 F8 216 -0.102
81 F8 217 -2.055
81 F8 218 -5.473
81 F8 219 -7.426
81 F8 220 -7.426
81 F8 221 -7.426
81 F8 222 -8.891
81 F8 223 -10.356
81 F8 224 -9.867
81 F8 225 -4.985
81 F8 226 1.851
81 F8 227 7.222
81 F8 228 9.176
81 F8 229 9.176
81 F8 230 8.199
81 F8 231 10.152
81 F8 232 13.570
81 F8 233 16.988
81 F8 234 17.476
81 F8 235 15.035
81 F8 236 11.617
81 F8 237 9.664
81 F8 238 10.640
81 F8 239 13.570
81 F8 240 16.500
81 F8 241 18.941
81 F8 242 19.918
81 F8 243 21.383
81 F8 244 22.847
81 F8 245 25.289
81 F8 246 25.777
81 F8 247 24.801
81 F8 248 21.383
81 F8 249 16.988
81 F8 250 15.035
81 F8 251 15.523
81 F8 252 18.941
81 F8 253 21.383
81 F8 254 21.383
81 F8 255 17.476
# AF1 chan 4
81 AF1 0 -3.967
81 AF1 1 -4.944
81 AF1 2 -5.920
81 AF1 3 -6.409
81 AF1 4 -4.944
81 AF1 5 -2.502
81 AF1 6 -0.061
81 AF1 7 1.892
81 AF1 8 1.404
81 AF1 9 -0.061
81 AF1 10 -2.014
81 AF1 11 -3.479
81 AF1 12 -4.456
81 AF1 13 -4.944
81 AF1 14 -4.944
81 AF1 15 -4.944
81 AF1 16 -3.967
81 AF1 17 -2.991
81 AF1 18 -1.038
81 AF1 19 1.404
81 AF1 20 3.357
81 AF1 21 3.845
81 AF1 22 2.869
81 AF1 23 0.916
81 AF1 24 -1.038
81 AF1 25 -2.014
81 AF1 26 -2.014
81 AF1 27 -1.038
81 AF1 28 -0.061
81 AF1 29 -0.061
81 AF1 30 -0.549
81 AF1 31 -1.526
81 AF1 32 -1.526
81 AF1 33 -1.038
81 AF1 34 0.427
81 AF1 35 1.404
81 AF1 36 2.380
81 AF1 37 2.380
81 AF1 38 1.892
81 AF1 39 1.404
81 AF1 40 -0.061
81 AF1 41 -1.526
81 AF1 42 -3.479
81 AF1 43 -3.967
81 AF1 44 -3.479
81 AF1 45 -2.502
81 AF1 46 -1.038
81 AF1 47 -0.549
81 AF1 48 -2.014
81 AF1 49 -4.944
81 AF1 50 -6.897
81 AF1 51 -7.385
81 AF1 52 -7.874
81 AF1 53 -7.385
81 AF1 54 -7.385
81 AF1 55 -7.874
81 AF1 56 -8.362
81 AF1 57 -8.362
81 AF1 58 -8.362
81 AF1 59 -9.338
81 AF1 60 -10.315
81 AF1 61 -12.268
81 AF1 62 -13.245
81 AF1 63 -13.733
81 AF1 64 -13.733
81 AF1 65 -13.733
81 AF1 66 -14.709
81 AF1 67 -16.174
81 AF1 68 -16.663
81 AF1 69 -16.174
81 AF1 70 -13.733
81 AF1 71 -10.803
81 AF1 72 -8.850
81 AF1 73 -8.362
81 AF1 74 -9.827
81 AF1 75 -12.268
81 AF1 76 -14.221
81 AF1 77 -15.198
81 AF1 78 -15.686
81 AF1 79 -15.198
81 AF1 80 -13.245
81 AF1 81 -10.803
81 AF1 82 -7.874
81 AF1 83 -6.897
81 AF1 84 -7.385
81 AF1 85 -9.827
81 AF1 86 -12.756
81 AF1 87 -15.198
81 AF1 88 -15.686
81 AF1 89 -14.709
81 AF1 90 -13.245
81 AF1 91 -12.268
81 AF1 92 -11.780
81 AF1 93 -11.292
81 AF1 94 -11.292
81 AF1 95 -11.292
81 AF1 96 -11.292
81 AF1 97 -12.756
81 AF1 98 -13.733
81 AF1 99 -14.709
81 AF1 100 -14.221
81 AF1 101 -13.245
81 AF1 102 -12.268
81 AF1 103 -11.780
81 AF1 104 -12.756
81 AF1 105 -12.756
81 AF1 106 -11.780
81 AF1 107 -8.850
81 AF1 108 -5.432
81 AF1 109 -2.502
81 AF1 110 -1.526
81 AF1 111 -2.502
81 AF1 112 -4.456
81 AF1 113 -5.432
81 AF1 114 -5.432
81 AF1 115 -3.967
81 AF1 116 -2.502
81 AF1 117 -1.526
81 AF1 118 -1.038
81 AF1 119 -1.038
81 AF1 120 -1.038
81 AF1 121 -1.038
81 AF1 122 -1.038
81 AF1 123 -1.526
81 AF1 124 -2.014
81 AF1 125 -2.502
81 AF1 126 -2.502
81 AF1 127 -2.014
81 AF1 128 -2.502
81 AF1 129 -2.502
81 AF1 130 -3.479
81 AF1 131 -3.967
81 AF1 132 -3.479
81 AF1 133 -2.991
81 AF1 134 -2.014
81 AF1 135 -1.038
81 AF1 136 -1.038
81 AF1 137 -1.526
81 AF1 138 -2.502
81 AF1 139 -3.479
81 AF1 140 -3.479
81 AF1 141 -2.014
81 AF1 142 -0.061
81 AF1 143 3.357
81 AF1 144 5.798
81 AF1 145 7.263
81 AF1 146 7.263
81 AF1 147 6.287
81 AF1 148 4.333
81 AF1 149 2.869
81 AF1 150 1.404
81 AF1 151 -0.061
81 AF1 152 -0.061
81 AF1 153 0.427
81 AF1 154 0.916
81 AF1 155 0.427
81 AF1 156 -1.038
81 AF1 157 -2.991
81 AF1 158 -4.944
81 AF1 159 -5.432
81 AF1 160 -4.944
81 AF1 161 -3.967
81 AF1 162 -3.479
81 AF1 163 -4.456
81 AF1 164 -5.920
81 AF1 165 -6.897
81 AF1 166 -6.409
81 AF1 167 -3.967
81 AF1 168 -1.526
81 AF1 169 0.427
81 AF1 170 1.404
81 AF1 171 0.916
81 AF1 172 -0.061
81 AF1 173 0.916
81 AF1 174 1.892
81 AF1 175 2.380
81 AF1 176 1.892
81 AF1 177 -0.061
81 AF1 178 -1.038
81 AF1 179 -1.526
81 AF1 180 -1.038
81 AF1 181 -0.061
81 AF1 182 -0.061
81 AF1 183 -1.526
81 AF1 184 -3.967
81 AF1 185 -6.409
81 AF1 186 -7.874
81 AF1 187 -8.362
81 AF1 188 -7.874
81 AF1 189 -7.385
81 AF1 190 -6.897
81 AF1 191 -5.432
81 AF1 192 -3.967
81 AF1 193 -3.479
81 AF1 194 -3.479
81 AF1 195 -4.456
81 AF1 196 -5.432
81 AF1 197 -6.409
81 AF1 198 -5.920
81 AF1 199 -4.944
81 AF1 200 -4.456
81 AF1 201 -4.944
81 AF1 202 -5.920
81 AF1 203 -6.409
81 AF1 204 -5.920
81 AF1 205 -4.456
81 AF1 206 -3.479
81 AF1 207 -3.479
81 AF1 208 -3.967
81 AF1 209 -4.456
81 AF1 210 -4.944
81 AF1 211 -4.944
81 AF1 212 -4.456
81 AF1 213 -4.944
81 AF1 214 -4.944
81 AF1 215 -5.432
81 AF1 216 -5.432
81 AF1 217 -5.920
81 AF1 218 -5.920
81 AF1 219 -6.409
81 AF1 220 -6.897
81 AF1 221 -6.409
81 AF1 222 -4.944
81 AF1 223 -2.014
81 AF1 224 0.916
81 AF1 225 2.869
81 AF1 226 3.845
81 AF1 227 5.310
81 AF1 228 7.751
81 AF1 229 12.634
81 AF1 230 18.982
81 AF1 231 25.330
81 AF1 232 30.212
81 AF1 233 31.677
81 AF1 234 31.677
81 AF1 235 30.212
81 AF1 236 29.724
81 AF1 237 31.189
81 AF1 238 33.630
81 AF1 239 37.048
81 AF1 240 39.978
81 AF1 241 41.931
81 AF1 242 42.419
81 AF1 243 41.443
81 AF1 244 40.466
81 AF1 245 40.466
81 AF1 246 40.466
81 AF1 247 40.955
81 AF1 248 41.443
81 AF1 249 41.931
81 AF1 250 42.419
81 AF1 251 41.443
81 AF1 252 40.466
81 AF1 253 38.513
81 AF1 254 36.072
81 AF1 255 34.119
# AF2 chan 5
81 AF2 0 -3.326
81 AF2 1 -3.326
81 AF2 2 -5.280
81 AF2 3 -6.256
81 AF2 4 -5.768
81 AF2 5 -3.815
81 AF2 6 -0.885
81 AF2 7 1.556
81 AF2 8 2.045
81 AF2 9 1.068
81 AF2 10 -0.885
81 AF2 11 -3.326
81 AF2 12 -5.280
81 AF2 13 -5.280
81 AF2 14 -5.280
81 AF2 15 -3.815
81 AF2 16 -2.838
81 AF2 17 -1.373
81 AF2 18 0.580
81 AF2 19 3.021
81 AF2 20 5.951
81 AF2 21 7.904
81 AF2 22 7.416
81 AF2 23 5.951
81 AF2 24 2.533
81 AF2 25 0.092
81 AF2 26 -0.885
81 AF2 27 -0.885
81 AF2 28 0.092
81 AF2 29 0.092
81 AF2 30 0.092
81 AF2 31 -0.397
81 AF2 32 -0.397
81 AF2 33 1.068
81 AF2 34 3.021
81 AF2 35 4.974
81 AF2 36 5.951
81 AF2 37 5.951
81 AF2 38 4.486
81 AF2 39 1.556
81 AF2 40 -0.885
81 AF2 41 -3.815
81 AF2 42 -5.280
81 AF2 43 -5.280
81 AF2 44 -4.303
81 AF2 45 -2.350
81 AF2 46 -1.373
81 AF2 47 -1.862
81 AF2 48 -3.815
81 AF2 49 -6.256
81 AF2 50 -8.209
81 AF2 51 -9.186
81 AF2 52 -10.162
81 AF2 53 -10.162
81 AF2 54 -9.674
81 AF2 55 -9.186
81 AF2 56 -8.698
81 AF2 57 -7.721
81 AF2 58 -8.209
81 AF2 59 -9.186
81 AF2 60 -12.115
81 AF2 61 -15.045
81 AF2 62 -16.510
81 AF2 63 -16.510
81 AF2 64 -15.533
81 AF2 65 -15.045
81 AF2 66 -16.022
81 AF2 67 -17.487
81 AF2 68 -18.463
81 AF2 69 -17.487
81 AF2 70 -14.557
81 AF2 71 -10.651
81 AF2 72 -8.209
81 AF2 73 -8.698
81 AF2 74 -11.139
81 AF2 75 -14.069
81 AF2 76 -16.022
81 AF2 77 -16.510
81 AF2 78 -15.533
81 AF2 79 -14.069
81 AF2 80 -13.092
81 AF2 81 -12.115
81 AF2 82 -11.139
81 AF2 83 -10.162
81 AF2 84 -10.162
81 AF2 85 -11.139
81 AF2 86 -13.580
81 AF2 87 -16.510
81 AF2 88 -17.975
81 AF2 89 -16.998
81 AF2 90 -14.557
81 AF2 91 -12.115
81 AF2 92 -10.651
81 AF2 93 -10.651
81 AF2 94 -12.115
81 AF2 95 -13.580
81 AF2 96 -14.557
81 AF2 97 -15.045
81 AF2 98 -15.045
81 AF2 99 -14.557
81 AF2 100 -14.069
81 AF2 101 -13.092
81 AF2 102 -12.115
81 AF2 103 -11.139
81 AF2 104 -10.162
81 AF2 105 -9.186
81 AF2 106 -8.209
81 AF2 107 -6.256
81 AF2 108 -4.791
81 AF2 109 -3.326
81 AF2 110 -2.838
81 AF2 111 -3.326
81 AF2 112 -4.791
81 AF2 113 -5.280
81 AF2 114 -4.791
81 AF2 115 -2.350
81 AF2 116 0.092
81 AF2 117 1.556
81 AF2 118 1.556
81 AF2 119 0.092
81 AF2 120 -1.373
81 AF2 121 -2.350
81 AF2 122 -2.350
81 AF2 123 -2.350
81 AF2 124 -1.862
81 AF2 125 -1.862
81 AF2 126 -1.862
81 AF2 127 -1.373
81 AF2 128 -1.373
81 AF2 129 -1.862
81 AF2 130 -2.350
81 AF2 131 -3.326
81 AF2 132 -3.326
81 AF2 133 -2.350
81 AF2 134 -0.885
81 AF2 135 0.092
81 AF2 136 0.092
81 AF2 137 -1.373
81 AF2 138 -2.838
81 AF2 139 -3.815
81 AF2 140 -3.326
81 AF2 141 -0.885
81 AF2 142 2.045
81 AF2 143 5.463
81 AF2 144 7.904
81 AF2 145 9.369
81 AF2 146 9.369
81 AF2 147 8.392
81 AF2 148 6.439
81 AF2 149 4.486
81 AF2 150 3.510
81 AF2 151 3.021
81 AF2 152 3.021
81 AF2 153 2.533
81 AF2 154 1.556
81 AF2 155 0.580
81 AF2 156 -1.373
81 AF2 157 -3.326
81 AF2 158 -4.303
81 AF2 159 -4.303
81 AF2 160 -3.815
81 AF2 161 -2.838
81 AF2 162 -2.350
81 AF2 163 -2.350
81 AF2 164 -2.838
81 AF2 165 -3.326
81 AF2 166 -3.326
81 AF2 167 -2.350
81 AF2 168 -0.397
81 AF2 169 0.580
81 AF2 170 1.068
81 AF2 171 1.068
81 AF2 172 1.068
81 AF2 173 1.068
81 AF2 174 1.556
81 AF2 175 2.045
81 AF2 176 2.045
81 AF2 177 2.045
81 AF2 178 1.556
81 AF2 179 2.045
81 AF2 180 3.021
81 AF2 181 3.510
81 AF2 182 2.533
81 AF2 183 0.092
81 AF2 184 -2.838
81 AF2 185 -6.256
81 AF2 186 -8.209
81 AF2 187 -9.186
81 AF2 188 -8.209
81 AF2 189 -7.233
81 AF2 190 -5.280
81 AF2 191 -3.326
81 AF2 192 -0.885
81 AF2 193 0.580
81 AF2 194 1.068
81 AF2 195 0.092
81 AF2 196 -1.862
81 AF2 197 -3.326
81 AF2 198 -3.815
81 AF2 199 -3.326
81 AF2 200 -2.838
81 AF2 201 -1.862
81 AF2 202 -1.862
81 AF2 203 -2.350
81 AF2 204 -2.350
81 AF2 205 -1.862
81 AF2 206 -1.373
81 AF2 207 -0.885
81 AF2 208 -0.397
81 AF2 209 -0.885
81 AF2 210 -1.373
81 AF2 211 -1.373
81 AF2 212 -1.373
81 AF2 213 -1.862
81 AF2 214 -2.350
81 AF2 215 -2.838
81 AF2 216 -2.838
81 AF2 217 -2.350
81 AF2 218 -2.350
81 AF2 219 -2.350
81 AF2 220 -2.838
81 AF2 221 -2.350
81 AF2 222 -1.373
81 AF2 223 0.580
81 AF2 224 3.021
81 AF2 225 4.974
81 AF2 226 5.951
81 AF2 227 7.416
81 AF2 228 10.345
81 AF2 229 15.228
81 AF2 230 20.599
81 AF2 231 25.482
81 AF2 232 28.900
81 AF2 233 29.388
81 AF2 234 28.900
81 AF2 235 27.924
81 AF2 236 27.435
81 AF2 237 29.388
81 AF2 238 31.830
81 AF2 239 35.248
81 AF2 240 38.666
81 AF2 241 40.619
81 AF2 242 41.107
81 AF2 243 40.619
81 AF2 244 39.642
81 AF2 245 38.177
81 AF2 246 37.201
81 AF2 247 37.201
81 AF2 248 37.689
81 AF2 249 38.177
81 AF2 250 38.666
81 AF2 251 38.666
81 AF2 252 38.177
81 AF2 253 36.713
81 AF2 254 34.760
81 AF2 255 31.830
# FZ chan 6
81 FZ 0 -3.835
81 FZ 1 -3.835
81 FZ 2 -4.323
81 FZ 3 -4.812
81 FZ 4 -4.323
81 FZ 5 -2.370
81 FZ 6 -0.417
81 FZ 7 1.048
81 FZ 8 1.048
81 FZ 9 0.559
81 FZ 10 -0.417
81 FZ 11 -1.394
81 FZ 12 -2.370
81 FZ 13 -2.858
81 FZ 14 -2.858
81 FZ 15 -2.858
81 FZ 16 -1.882
81 FZ 17 -0.417
81 FZ 18 1.536
81 FZ 19 3.489
81 FZ 20 4.954
81 FZ 21 5.442
81 FZ 22 5.442
81 FZ 23 4.466
81 FZ 24 2.513
81 FZ 25 0.559
81 FZ 26 -0.905
81 FZ 27 -1.394
81 FZ 28 -1.394
81 FZ 29 -0.905
81 FZ 30 0.071
81 FZ 31 0.071
81 FZ 32 0.559
81 FZ 33 1.536
81 FZ 34 3.001
81 FZ 35 3.977
81 FZ 36 5.442
81 FZ 37 4.954
81 FZ 38 3.977
81 FZ 39 2.024
81 FZ 40 0.559
81 FZ 41 -0.417
81 FZ 42 -0.417
81 FZ 43 0.071
81 FZ 44 1.536
81 FZ 45 3.001
81 FZ 46 3.489
81 FZ 47 3.001
81 FZ 48 1.048
81 FZ 49 -0.905
81 FZ 50 -2.858
81 FZ 51 -4.323
81 FZ 52 -4.812
81 FZ 53 -4.323
81 FZ 54 -3.347
81 FZ 55 -2.858
81 FZ 56 -2.370
81 FZ 57 -2.858
81 FZ 58 -3.835
81 FZ 59 -5.300
81 FZ 60 -7.253
81 FZ 61 -8.230
81 FZ 62 -8.230
81 FZ 63 -7.253
81 FZ 64 -6.276
81 FZ 65 -6.276
81 FZ 66 -7.253
81 FZ 67 -8.718
81 FZ 68 -8.718
81 FZ 69 -7.741
81 FZ 70 -4.812
81 FZ 71 -1.394
81 FZ 72 0.559
81 FZ 73 0.071
81 FZ 74 -1.882
81 FZ 75 -4.323
81 FZ 76 -5.788
81 FZ 77 -6.765
81 FZ 78 -6.276
81 FZ 79 -5.300
81 FZ 80 -3.835
81 FZ 81 -2.370
81 FZ 82 -0.905
81 FZ 83 0.071
81 FZ 84 -0.417
81 FZ 85 -2.370
81 FZ 86 -4.812
81 FZ 87 -7.253
81 FZ 88 -8.230
81 FZ 89 -7.741
81 FZ 90 -6.276
81 FZ 91 -4.812
81 FZ 92 -4.323
81 FZ 93 -4.812
81 FZ 94 -5.788
81 FZ 95 -6.276
81 FZ 96 -6.765
81 FZ 97 -6.765
81 FZ 98 -7.253
81 FZ 99 -7.253
81 FZ 100 -7.253
81 FZ 101 -6.765
81 FZ 102 -6.276
81 FZ 103 -5.788
81 FZ 104 -5.788
81 FZ 105 -5.300
81 FZ 106 -3.835
81 FZ 107 -2.370
81 FZ 108 0.559
81 FZ 109 2.024
81 FZ 110 2.513
81 FZ 111 1.536
81 FZ 112 0.071
81 FZ 113 -0.417
81 FZ 114 0.071
81 FZ 115 2.513
81 FZ 116 4.466
81 FZ 117 5.442
81 FZ 118 4.954
81 FZ 119 3.489
81 FZ 120 2.024
81 FZ 121 1.048
81 FZ 122 1.048
81 FZ 123 1.536
81 FZ 124 2.024
81 FZ 125 2.513
81 FZ 126 2.513
81 FZ 127 2.513
81 FZ 128 1.536
81 FZ 129 0.559
81 FZ 130 -0.417
81 FZ 131 -1.394
81 FZ 132 -1.394
81 FZ 133 -0.417
81 FZ 134 0.559
81 FZ 135 2.024
81 FZ 136 2.024
81 FZ 137 1.536
81 FZ 138 0.559
81 FZ 139 -0.417
81 FZ 140 -0.417
81 FZ 141 1.536
81 FZ 142 3.489
81 FZ 143 5.931
81 FZ 144 8.372
81 FZ 145 9.349
81 FZ 146 9.837
81 FZ 147 8.860
81 FZ 148 7.395
81 FZ 149 5.931
81 FZ 150 3.977
81 FZ 151 3.001
81 FZ 152 2.024
81 FZ 153 1.536
81 FZ 154 1.048
81 FZ 155 0.559
81 FZ 156 -0.417
81 FZ 157 -1.882
81 FZ 158 -3.347
81 FZ 159 -3.347
81 FZ 160 -2.858
81 FZ 161 -1.882
81 FZ 162 -1.394
81 FZ 163 -1.882
81 FZ 164 -2.858
81 FZ 165 -3.347
81 FZ 166 -2.858
81 FZ 167 -1.394
81 FZ 168 0.559
81 FZ 169 2.024
81 FZ 170 2.024
81 FZ 171 1.536
81 FZ 172 1.536
81 FZ 173 2.024
81 FZ 174 3.001
81 FZ 175 3.489
81 FZ 176 3.489
81 FZ 177 2.513
81 FZ 178 1.536
81 FZ 179 1.048
81 FZ 180 1.536
81 FZ 181 1.536
81 FZ 182 1.536
81 FZ 183 -0.417
81 FZ 184 -2.370
81 FZ 185 -3.835
81 FZ 186 -4.812
81 FZ 187 -5.300
81 FZ 188 -4.812
81 FZ 189 -4.812
81 FZ 190 -3.835
81 FZ 191 -2.370
81 FZ 192 -0.905
81 FZ 193 0.559
81 FZ 194 1.048
81 FZ 195 -0.417
81 FZ 196 -1.394
81 FZ 197 -2.858
81 FZ 198 -3.347
81 FZ 199 -3.347
81 FZ 200 -2.858
81 FZ 201 -2.858
81 FZ 202 -3.347
81 FZ 203 -3.347
81 FZ 204 -3.347
81 FZ 205 -2.370
81 FZ 206 -1.882
81 FZ 207 -1.394
81 FZ 208 -1.882
81 FZ 209 -2.370
81 FZ 210 -2.858
81 FZ 211 -2.370
81 FZ 212 -2.858
81 FZ 213 -3.835
81 FZ 214 -4.323
81 FZ 215 -4.812
81 FZ 216 -4.323
81 FZ 217 -3.835
81 FZ 218 -3.347
81 FZ 219 -3.347
81 FZ 220 -3.835
81 FZ 221 -4.323
81 FZ 222 -2.858
81 FZ 223 -0.417
81 FZ 224 1.536
81 FZ 225 3.001
81 FZ 226 3.001
81 FZ 227 3.001
81 FZ 228 4.466
81 FZ 229 7.884
81 FZ 230 12.278
81 FZ 231 16.673
81 FZ 232 19.602
81 FZ 233 20.579
81 FZ 234 20.091
81 FZ 235 19.602
81 FZ 236 19.114
81 FZ 237 19.602
81 FZ 238 20.579
81 FZ 239 22.044
81 FZ 240 23.997
81 FZ 241 24.974
81 FZ 242 25.950
81 FZ 243 25.950
81 FZ 244 24.974
81 FZ 245 23.997
81 FZ 246 23.020
81 FZ 247 22.532
81 FZ 248 23.020
81 FZ 249 23.509
81 FZ 250 23.509
81 FZ 251 23.020
81 FZ 252 22.532
81 FZ 253 22.532
81 FZ 254 21.556
81 FZ 255 21.067
# F4 chan 7
81 F4 0 -1.943
81 F4 1 -3.896
81 F4 2 -6.826
81 F4 3 -7.802
81 F4 4 -6.826
81 F4 5 -4.384
81 F4 6 -1.455
81 F4 7 0.010
81 F4 8 0.010
81 F4 9 -0.478
81 F4 10 -2.431
81 F4 11 -3.896
81 F4 12 -4.873
81 F4 13 -5.361
81 F4 14 -5.361
81 F4 15 -3.896
81 F4 16 -1.943
81 F4 17 0.010
81 F4 18 1.475
81 F4 19 2.940
81 F4 20 3.916
81 F4 21 4.893
81 F4 22 5.381
81 F4 23 4.405
81 F4 24 2.940
81 F4 25 0.498
81 F4 26 -1.455
81 F4 27 -2.920
81 F4 28 -2.431
81 F4 29 -0.966
81 F4 30 0.987
81 F4 31 1.963
81 F4 32 1.963
81 F4 33 1.963
81 F4 34 2.452
81 F4 35 3.916
81 F4 36 5.870
81 F4 37 6.846
81 F4 38 4.893
81 F4 39 1.475
81 F4 40 -2.920
81 F4 41 -5.361
81 F4 42 -5.361
81 F4 43 -2.920
81 F4 44 0.498
81 F4 45 2.452
81 F4 46 2.940
81 F4 47 2.452
81 F4 48 0.010
81 F4 49 -2.431
81 F4 50 -3.896
81 F4 51 -5.361
81 F4 52 -5.849
81 F4 53 -5.849
81 F4 54 -4.384
81 F4 55 -2.431
81 F4 56 0.010
81 F4 57 0.987
81 F4 58 0.010
81 F4 59 -2.920
81 F4 60 -6.826
81 F4 61 -9.755
81 F4 62 -10.732
81 F4 63 -9.755
81 F4 64 -8.291
81 F4 65 -7.802
81 F4 66 -8.291
81 F4 67 -9.267
81 F4 68 -9.267
81 F4 69 -7.802
81 F4 70 -4.384
81 F4 71 -0.966
81 F4 72 0.010
81 F4 73 -0.966
81 F4 74 -4.384
81 F4 75 -6.826
81 F4 76 -7.802
81 F4 77 -6.826
81 F4 78 -5.361
81 F4 79 -4.384
81 F4 80 -3.896
81 F4 81 -3.408
81 F4 82 -2.920
81 F4 83 -1.455
81 F4 84 -0.966
81 F4 85 -2.920
81 F4 86 -5.849
81 F4 87 -8.291
81 F4 88 -9.267
81 F4 89 -8.291
81 F4 90 -5.849
81 F4 91 -4.384
81 F4 92 -3.896
81 F4 93 -5.361
81 F4 94 -6.826
81 F4 95 -7.802
81 F4 96 -8.291
81 F4 97 -9.267
81 F4 98 -9.267
81 F4 99 -8.779
81 F4 100 -7.314
81 F4 101 -5.361
81 F4 102 -2.920
81 F4 103 -1.455
81 F4 104 -0.966
81 F4 105 -1.455
81 F4 106 -1.455
81 F4 107 -0.966
81 F4 108 0.010
81 F4 109 0.987
81 F4 110 1.475
81 F4 111 0.987
81 F4 112 0.010
81 F4 113 0.010
81 F4 114 1.475
81 F4 115 3.428
81 F4 116 5.381
81 F4 117 5.870
81 F4 118 4.893
81 F4 119 2.940
81 F4 120 1.475
81 F4 121 0.987
81 F4 122 1.475
81 F4 123 2.452
81 F4 124 2.452
81 F4 125 2.940
81 F4 126 2.940
81 F4 127 2.940
81 F4 128 2.940
81 F4 129 2.452
81 F4 130 1.475
81 F4 131 0.987
81 F4 132 0.987
81 F4 133 1.475
81 F4 134 2.452
81 F4 135 2.452
81 F4 136 2.452
81 F4 137 1.475
81 F4 138 0.498
81 F4 139 0.010
81 F4 140 0.498
81 F4 141 1.963
81 F4 142 4.405
81 F4 143 7.334
81 F4 144 9.776
81 F4 145 11.729
81 F4 146 12.217
81 F4 147 11.241
81 F4 148 8.799
81 F4 149 6.358
81 F4 150 4.405
81 F4 151 2.940
81 F4 152 2.452
81 F4 153 1.963
81 F4 154 1.475
81 F4 155 0.987
81 F4 156 0.010
81 F4 157 -0.966
81 F4 158 -1.943
81 F4 159 -2.431
81 F4 160 -1.943
81 F4 161 -0.966
81 F4 162 -0.966
81 F4 163 -0.478
81 F4 164 -1.455
81 F4 165 -2.431
81 F4 166 -2.431
81 F4 167 -1.943
81 F4 168 -0.478
81 F4 169 0.010
81 F4 170 0.498
81 F4 171 0.010
81 F4 172 0.010
81 F4 173 0.498
81 F4 174 1.475
81 F4 175 1.963
81 F4 176 2.452
81 F4 177 1.963
81 F4 178 0.987
81 F4 179 0.987
81 F4 180 1.475
81 F4 181 1.963
81 F4 182 1.475
81 F4 183 0.010
81 F4 184 -2.920
81 F4 185 -5.361
81 F4 186 -7.314
81 F4 187 -7.802
81 F4 188 -7.314
81 F4 189 -6.337
81 F4 190 -5.361
81 F4 191 -3.896
81 F4 192 -1.943
81 F4 193 0.010
81 F4 194 1.475
81 F4 195 0.987
81 F4 196 -0.966
81 F4 197 -3.408
81 F4 198 -4.873
81 F4 199 -5.361
81 F4 200 -4.384
81 F4 201 -3.896
81 F4 202 -2.920
81 F4 203 -2.920
81 F4 204 -2.431
81 F4 205 -1.943
81 F4 206 -1.455
81 F4 207 -2.431
81 F4 208 -2.920
81 F4 209 -3.896
81 F4 210 -3.896
81 F4 211 -3.896
81 F4 212 -3.896
81 F4 213 -4.873
81 F4 214 -5.849
81 F4 215 -6.826
81 F4 216 -6.826
81 F4 217 -4.873
81 F4 218 -2.920
81 F4 219 -2.431
81 F4 220 -2.920
81 F4 221 -3.408
81 F4 222 -4.384
81 F4 223 -3.896
81 F4 224 -2.920
81 F4 225 -1.455
81 F4 226 -0.478
81 F4 227 0.498
81 F4 228 2.940
81 F4 229 6.846
81 F4 230 11.729
81 F4 231 15.147
81 F4 232 16.612
81 F4 233 15.635
81 F4 234 13.682
81 F4 235 12.217
81 F4 236 12.705
81 F4 237 14.659
81 F4 238 17.100
81 F4 239 19.541
81 F4 240 21.983
81 F4 241 22.959
81 F4 242 22.959
81 F4 243 21.983
81 F4 244 20.518
81 F4 245 19.053
81 F4 246 18.565
81 F4 247 18.077
81 F4 248 18.565
81 F4 249 18.565
81 F4 250 19.053
81 F4 251 19.053
81 F4 252 19.541
81 F4 253 19.541
81 F4 254 18.077
81 F4 255 16.123
# F3 chan 8
81 F3 0 -5.910
81 F3 1 -5.422
81 F3 2 -4.445
81 F3 3 -3.469
81 F3 4 -2.492
81 F3 5 -0.539
81 F3 6 0.926
81 F3 7 2.391
81 F3 8 3.367
81 F3 9 3.855
81 F3 10 3.855
81 F3 11 2.879
81 F3 12 0.926
81 F3 13 -0.539
81 F3 14 -2.492
81 F3 15 -2.981
81 F3 16 -2.492
81 F3 17 -0.539
81 F3 18 0.926
81 F3 19 3.367
81 F3 20 4.832
81 F3 21 5.320
81 F3 22 4.344
81 F3 23 3.367
81 F3 24 1.902
81 F3 25 1.414
81 F3 26 2.391
81 F3 27 3.855
81 F3 28 5.320
81 F3 29 5.320
81 F3 30 4.344
81 F3 31 2.391
81 F3 32 1.902
81 F3 33 1.902
81 F3 34 2.879
81 F3 35 3.855
81 F3 36 3.367
81 F3 37 2.391
81 F3 38 1.414
81 F3 39 1.902
81 F3 40 1.902
81 F3 41 1.902
81 F3 42 1.414
81 F3 43 -0.539
81 F3 44 -1.516
81 F3 45 -1.516
81 F3 46 -0.539
81 F3 47 0.437
81 F3 48 -0.051
81 F3 49 -2.004
81 F3 50 -4.445
81 F3 51 -6.399
81 F3 52 -6.399
81 F3 53 -5.910
81 F3 54 -5.422
81 F3 55 -4.445
81 F3 56 -4.934
81 F3 57 -5.422
81 F3 58 -6.399
81 F3 59 -6.399
81 F3 60 -6.887
81 F3 61 -6.887
81 F3 62 -7.375
81 F3 63 -8.352
81 F3 64 -9.328
81 F3 65 -10.305
81 F3 66 -11.281
81 F3 67 -12.258
81 F3 68 -12.258
81 F3 69 -10.793
81 F3 70 -8.840
81 F3 71 -5.910
81 F3 72 -4.934
81 F3 73 -5.422
81 F3 74 -6.887
81 F3 75 -8.840
81 F3 76 -10.305
81 F3 77 -10.305
81 F3 78 -9.328
81 F3 79 -8.352
81 F3 80 -6.887
81 F3 81 -5.910
81 F3 82 -4.445
81 F3 83 -3.957
81 F3 84 -3.469
81 F3 85 -4.445
81 F3 86 -5.910
81 F3 87 -7.863
81 F3 88 -8.840
81 F3 89 -8.840
81 F3 90 -8.352
81 F3 91 -7.863
81 F3 92 -7.375
81 F3 93 -7.863
81 F3 94 -7.863
81 F3 95 -7.863
81 F3 96 -7.375
81 F3 97 -7.375
81 F3 98 -7.375
81 F3 99 -8.352
81 F3 100 -9.328
81 F3 101 -9.816
81 F3 102 -9.816
81 F3 103 -10.305
81 F3 104 -10.305
81 F3 105 -9.816
81 F3 106 -8.840
81 F3 107 -7.375
81 F3 108 -5.422
81 F3 109 -2.981
81 F3 110 -2.004
81 F3 111 -2.004
81 F3 112 -2.981
81 F3 113 -3.469
81 F3 114 -3.469
81 F3 115 -2.981
81 F3 116 -2.004
81 F3 117 -0.539
81 F3 118 0.437
81 F3 119 1.414
81 F3 120 1.414
81 F3 121 0.926
81 F3 122 -0.051
81 F3 123 -1.027
81 F3 124 -2.004
81 F3 125 -2.004
81 F3 126 -1.027
81 F3 127 -0.539
81 F3 128 -1.027
81 F3 129 -1.516
81 F3 130 -2.004
81 F3 131 -2.004
81 F3 132 -2.004
81 F3 133 -1.027
81 F3 134 -1.027
81 F3 135 -0.539
81 F3 136 -1.027
81 F3 137 -2.004
81 F3 138 -2.981
81 F3 139 -3.469
81 F3 140 -2.492
81 F3 141 -0.539
81 F3 142 1.902
81 F3 143 4.832
81 F3 144 6.297
81 F3 145 6.785
81 F3 146 6.297
81 F3 147 5.809
81 F3 148 5.320
81 F3 149 4.832
81 F3 150 3.855
81 F3 151 2.391
81 F3 152 1.414
81 F3 153 0.437
81 F3 154 0.437
81 F3 155 -0.051
81 F3 156 -1.027
81 F3 157 -2.492
81 F3 158 -3.469
81 F3 159 -3.469
81 F3 160 -2.492
81 F3 161 -1.027
81 F3 162 -0.051
81 F3 163 -0.539
81 F3 164 -2.492
81 F3 165 -4.445
81 F3 166 -4.934
81 F3 167 -3.957
81 F3 168 -2.004
81 F3 169 0.437
81 F3 170 2.391
81 F3 171 3.367
81 F3 172 3.855
81 F3 173 4.344
81 F3 174 4.344
81 F3 175 3.855
81 F3 176 2.879
81 F3 177 1.414
81 F3 178 1.414
81 F3 179 1.414
81 F3 180 1.414
81 F3 181 0.926
81 F3 182 -0.539
81 F3 183 -2.004
81 F3 184 -2.981
81 F3 185 -2.981
81 F3 186 -2.004
81 F3 187 -1.027
81 F3 188 -1.027
81 F3 189 -2.004
81 F3 190 -2.004
81 F3 191 -2.492
81 F3 192 -2.004
81 F3 193 -2.004
81 F3 194 -2.981
81 F3 195 -4.445
81 F3 196 -4.934
81 F3 197 -4.445
81 F3 198 -2.981
81 F3 199 -2.004
81 F3 200 -2.492
81 F3 201 -3.957
81 F3 202 -4.934
81 F3 203 -4.934
81 F3 204 -3.957
81 F3 205 -2.981
81 F3 206 -2.981
81 F3 207 -3.469
81 F3 208 -4.934
81 F3 209 -5.422
81 F3 210 -3.957
81 F3 211 -2.492
81 F3 212 -2.492
81 F3 213 -3.469
81 F3 214 -4.934
81 F3 215 -5.422
81 F3 216 -5.422
81 F3 217 -4.445
81 F3 218 -4.445
81 F3 219 -5.422
81 F3 220 -7.375
81 F3 221 -8.352
81 F3 222 -7.375
81 F3 223 -3.957
81 F3 224 -1.027
81 F3 225 0.926
81 F3 226 1.902
81 F3 227 2.391
81 F3 228 3.855
81 F3 229 7.273
81 F3 230 12.156
81 F3 231 17.039
81 F3 232 20.457
81 F3 233 21.922
81 F3 234 21.434
81 F3 235 19.969
81 F3 236 18.504
81 F3 237 17.527
81 F3 238 18.016
81 F3 239 19.480
81 F3 240 21.434
81 F3 241 22.898
81 F3 242 23.387
81 F3 243 22.898
81 F3 244 22.410
81 F3 245 21.922
81 F3 246 22.410
81 F3 247 22.898
81 F3 248 23.875
81 F3 249 23.875
81 F3 250 22.898
81 F3 251 20.945
81 F3 252 18.992
81 F3 253 17.527
81 F3 254 16.551
81 F3 255 16.062
# FC6 chan 9
81 FC6 0 3.387
81 FC6 1 -1.984
81 FC6 2 -8.331
81 FC6 3 -10.773
81 FC6 4 -8.820
81 FC6 5 -3.448
81 FC6 6 0.458
81 FC6 7 1.434
81 FC6 8 0.946
81 FC6 9 -0.519
81 FC6 10 -1.007
81 FC6 11 -1.007
81 FC6 12 -1.007
81 FC6 13 -1.007
81 FC6 14 -1.007
81 FC6 15 0.458
81 FC6 16 2.411
81 FC6 17 4.364
81 FC6 18 4.852
81 FC6 19 4.364
81 FC6 20 3.387
81 FC6 21 3.876
81 FC6 22 5.829
81 FC6 23 7.782
81 FC6 24 8.270
81 FC6 25 6.805
81 FC6 26 3.387
81 FC6 27 1.434
81 FC6 28 1.923
81 FC6 29 4.364
81 FC6 30 7.782
81 FC6 31 9.247
81 FC6 32 8.270
81 FC6 33 5.829
81 FC6 34 3.876
81 FC6 35 3.876
81 FC6 36 6.317
81 FC6 37 7.294
81 FC6 38 6.317
81 FC6 39 1.923
81 FC6 40 -2.960
81 FC6 41 -6.378
81 FC6 42 -6.378
81 FC6 43 -2.960
81 FC6 44 -0.031
81 FC6 45 1.434
81 FC6 46 1.434
81 FC6 47 0.458
81 FC6 48 -1.007
81 FC6 49 -2.472
81 FC6 50 -3.448
81 FC6 51 -4.425
81 FC6 52 -4.425
81 FC6 53 -2.960
81 FC6 54 -0.031
81 FC6 55 3.387
81 FC6 56 5.829
81 FC6 57 5.341
81 FC6 58 1.923
81 FC6 59 -2.960
81 FC6 60 -7.355
81 FC6 61 -9.308
81 FC6 62 -8.820
81 FC6 63 -7.355
81 FC6 64 -6.378
81 FC6 65 -8.331
81 FC6 66 -10.773
81 FC6 67 -12.238
81 FC6 68 -11.261
81 FC6 69 -7.843
81 FC6 70 -3.937
81 FC6 71 -1.984
81 FC6 72 -2.960
81 FC6 73 -5.890
81 FC6 74 -8.820
81 FC6 75 -9.796
81 FC6 76 -9.308
81 FC6 77 -8.820
81 FC6 78 -8.820
81 FC6 79 -10.284
81 FC6 80 -11.261
81 FC6 81 -11.749
81 FC6 82 -9.308
81 FC6 83 -6.378
81 FC6 84 -4.425
81 FC6 85 -4.913
81 FC6 86 -7.355
81 FC6 87 -9.308
81 FC6 88 -9.796
81 FC6 89 -8.820
81 FC6 90 -8.331
81 FC6 91 -8.331
81 FC6 92 -9.308
81 FC6 93 -10.773
81 FC6 94 -10.284
81 FC6 95 -9.308
81 FC6 96 -9.308
81 FC6 97 -11.261
81 FC6 98 -13.214
81 FC6 99 -14.191
81 FC6 100 -11.749
81 FC6 101 -7.355
81 FC6 102 -3.448
81 FC6 103 -1.984
81 FC6 104 -2.960
81 FC6 105 -5.402
81 FC6 106 -6.866
81 FC6 107 -6.866
81 FC6 108 -5.402
81 FC6 109 -4.425
81 FC6 110 -3.937
81 FC6 111 -3.937
81 FC6 112 -2.960
81 FC6 113 -1.984
81 FC6 114 -1.495
81 FC6 115 -1.984
81 FC6 116 -3.448
81 FC6 117 -5.402
81 FC6 118 -5.890
81 FC6 119 -3.937
81 FC6 120 -0.519
81 FC6 121 1.434
81 FC6 122 1.434
81 FC6 123 -0.519
81 FC6 124 -2.472
81 FC6 125 -3.448
81 FC6 126 -2.472
81 FC6 127 -1.495
81 FC6 128 -0.519
81 FC6 129 -1.007
81 FC6 130 -0.519
81 FC6 131 0.946
81 FC6 132 2.899
81 FC6 133 3.387
81 FC6 134 1.923
81 FC6 135 -0.519
81 FC6 136 -2.960
81 FC6 137 -2.472
81 FC6 138 -0.519
81 FC6 139 1.923
81 FC6 140 3.387
81 FC6 141 2.411
81 FC6 142 1.434
81 FC6 143 1.434
81 FC6 144 3.387
81 FC6 145 6.317
81 FC6 146 8.759
81 FC6 147 9.735
81 FC6 148 9.247
81 FC6 149 6.317
81 FC6 150 2.899
81 FC6 151 -0.519
81 FC6 152 -2.960
81 FC6 153 -3.448
81 FC6 154 -1.984
81 FC6 155 0.458
81 FC6 156 1.434
81 FC6 157 0.458
81 FC6 158 -1.984
81 FC6 159 -3.448
81 FC6 160 -3.448
81 FC6 161 -1.495
81 FC6 162 -0.031
81 FC6 163 -0.031
81 FC6 164 -1.495
81 FC6 165 -3.448
81 FC6 166 -4.425
81 FC6 167 -2.960
81 FC6 168 -1.495
81 FC6 169 -0.031
81 FC6 170 -0.519
81 FC6 171 -1.007
81 FC6 172 -0.519
81 FC6 173 0.946
81 FC6 174 2.899
81 FC6 175 4.364
81 FC6 176 4.364
81 FC6 177 2.411
81 FC6 178 0.946
81 FC6 179 0.458
81 FC6 180 -0.031
81 FC6 181 -0.519
81 FC6 182 -1.495
81 FC6 183 -2.960
81 FC6 184 -3.937
81 FC6 185 -4.913
81 FC6 186 -5.402
81 FC6 187 -5.890
81 FC6 188 -6.378
81 FC6 189 -6.866
81 FC6 190 -6.378
81 FC6 191 -5.402
81 FC6 192 -2.960
81 FC6 193 -0.519
81 FC6 194 1.434
81 FC6 195 0.458
81 FC6 196 -1.984
81 FC6 197 -4.425
81 FC6 198 -6.866
81 FC6 199 -7.355
81 FC6 200 -6.866
81 FC6 201 -4.913
81 FC6 202 -3.448
81 FC6 203 -2.472
81 FC6 204 -2.472
81 FC6 205 -3.448
81 FC6 206 -5.890
81 FC6 207 -7.843
81 FC6 208 -9.308
81 FC6 209 -9.308
81 FC6 210 -7.355
81 FC6 211 -5.890
81 FC6 212 -5.402
81 FC6 213 -7.355
81 FC6 214 -10.284
81 FC6 215 -11.749
81 FC6 216 -11.261
81 FC6 217 -8.820
81 FC6 218 -5.890
81 FC6 219 -3.937
81 FC6 220 -3.937
81 FC6 221 -5.890
81 FC6 222 -7.355
81 FC6 223 -8.331
81 FC6 224 -9.308
81 FC6 225 -9.796
81 FC6 226 -10.284
81 FC6 227 -9.796
81 FC6 228 -6.866
81 FC6 229 -1.984
81 FC6 230 2.411
81 FC6 231 4.364
81 FC6 232 2.899
81 FC6 233 -0.519
81 FC6 234 -4.425
81 FC6 235 -6.378
81 FC6 236 -5.402
81 FC6 237 -2.472
81 FC6 238 0.458
81 FC6 239 2.411
81 FC6 240 3.387
81 FC6 241 3.876
81 FC6 242 2.411
81 FC6 243 0.458
81 FC6 244 -1.984
81 FC6 245 -3.937
81 FC6 246 -4.425
81 FC6 247 -3.448
81 FC6 248 -1.007
81 FC6 249 0.458
81 FC6 250 1.923
81 FC6 251 1.434
81 FC6 252 0.946
81 FC6 253 -0.031
81 FC6 254 -1.984
81 FC6 255 -4.425
# FC5 chan 10
81 FC5 0 -11.882
81 FC5 1 -12.370
81 FC5 2 -9.928
81 FC5 3 -6.999
81 FC5 4 -4.557
81 FC5 5 -2.604
81 FC5 6 -2.116
81 FC5 7 -1.139
81 FC5 8 -0.163
81 FC5 9 1.790
81 FC5 10 3.255
81 FC5 11 3.255
81 FC5 12 1.790
81 FC5 13 -0.163
81 FC5 14 -2.116
81 FC5 15 -3.581
81 FC5 16 -3.092
81 FC5 17 -1.628
81 FC5 18 0.326
81 FC5 19 1.790
81 FC5 20 2.279
81 FC5 21 1.790
81 FC5 22 1.302
81 FC5 23 2.279
81 FC5 24 3.743
81 FC5 25 6.185
81 FC5 26 8.626
81 FC5 27 10.579
81 FC5 28 10.091
81 FC5 29 8.626
81 FC5 30 5.697
81 FC5 31 3.743
81 FC5 32 3.255
81 FC5 33 3.743
81 FC5 34 4.720
81 FC5 35 4.720
81 FC5 36 3.743
81 FC5 37 2.279
81 FC5 38 1.790
81 FC5 39 3.255
81 FC5 40 4.720
81 FC5 41 4.720
81 FC5 42 1.302
81 FC5 43 -3.092
81 FC5 44 -5.534
81 FC5 45 -4.557
81 FC5 46 -1.139
81 FC5 47 0.814
81 FC5 48 0.814
81 FC5 49 -2.116
81 FC5 50 -6.022
81 FC5 51 -6.999
81 FC5 52 -5.046
81 FC5 53 -3.092
81 FC5 54 -1.139
81 FC5 55 -1.628
81 FC5 56 -2.604
81 FC5 57 -3.581
81 FC5 58 -3.581
81 FC5 59 -3.092
81 FC5 60 -4.069
81 FC5 61 -6.510
81 FC5 62 -9.440
81 FC5 63 -11.882
81 FC5 64 -12.858
81 FC5 65 -12.370
81 FC5 66 -11.393
81 FC5 67 -10.905
81 FC5 68 -11.393
81 FC5 69 -12.370
81 FC5 70 -11.882
81 FC5 71 -10.905
81 FC5 72 -8.952
81 FC5 73 -7.975
81 FC5 74 -8.952
81 FC5 75 -9.928
81 FC5 76 -10.417
81 FC5 77 -9.928
81 FC5 78 -8.464
81 FC5 79 -7.487
81 FC5 80 -8.464
81 FC5 81 -10.905
81 FC5 82 -12.370
81 FC5 83 -12.858
81 FC5 84 -10.905
81 FC5 85 -7.975
81 FC5 86 -6.022
81 FC5 87 -6.510
81 FC5 88 -8.464
81 FC5 89 -10.905
81 FC5 90 -12.370
81 FC5 91 -11.393
81 FC5 92 -9.928
81 FC5 93 -7.975
81 FC5 94 -6.999
81 FC5 95 -6.510
81 FC5 96 -6.999
81 FC5 97 -7.487
81 FC5 98 -8.464
81 FC5 99 -8.464
81 FC5 100 -8.952
81 FC5 101 -8.952
81 FC5 102 -10.417
81 FC5 103 -11.393
81 FC5 104 -13.346
81 FC5 105 -13.835
81 FC5 106 -13.346
81 FC5 107 -11.393
81 FC5 108 -9.928
81 FC5 109 -8.464
81 FC5 110 -7.487
81 FC5 111 -6.510
81 FC5 112 -6.022
81 FC5 113 -6.510
81 FC5 114 -6.510
81 FC5 115 -7.975
81 FC5 116 -8.464
81 FC5 117 -7.487
81 FC5 118 -4.557
81 FC5 119 -0.651
81 FC5 120 1.790
81 FC5 121 1.302
81 FC5 122 -2.116
81 FC5 123 -6.510
81 FC5 124 -8.952
81 FC5 125 -8.464
81 FC5 126 -6.022
81 FC5 127 -3.092
81 FC5 128 -2.604
81 FC5 129 -3.581
81 FC5 130 -4.557
81 FC5 131 -4.557
81 FC5 132 -3.581
81 FC5 133 -1.628
81 FC5 134 -1.139
81 FC5 135 -1.628
81 FC5 136 -2.116
81 FC5 137 -2.604
81 FC5 138 -3.092
81 FC5 139 -2.604
81 FC5 140 -1.628
81 FC5 141 -1.139
81 FC5 142 -0.163
81 FC5 143 0.814
81 FC5 144 1.302
81 FC5 145 0.814
81 FC5 146 0.814
81 FC5 147 0.814
81 FC5 148 2.279
81 FC5 149 3.255
81 FC5 150 3.743
81 FC5 151 3.255
81 FC5 152 1.790
81 FC5 153 0.814
81 FC5 154 0.326
81 FC5 155 -0.163
81 FC5 156 -1.139
81 FC5 157 -2.604
81 FC5 158 -3.581
81 FC5 159 -2.604
81 FC5 160 -0.651
81 FC5 161 1.790
81 FC5 162 2.767
81 FC5 163 0.814
81 FC5 164 -3.092
81 FC5 165 -6.510
81 FC5 166 -8.464
81 FC5 167 -7.487
81 FC5 168 -4.557
81 FC5 169 -2.116
81 FC5 170 -0.651
81 FC5 171 -0.163
81 FC5 172 1.302
81 FC5 173 2.767
81 FC5 174 2.767
81 FC5 175 1.790
81 FC5 176 -0.651
81 FC5 177 -2.604
81 FC5 178 -2.604
81 FC5 179 -1.139
81 FC5 180 0.326
81 FC5 181 -0.651
81 FC5 182 -3.092
81 FC5 183 -6.510
81 FC5 184 -6.999
81 FC5 185 -4.557
81 FC5 186 -1.139
81 FC5 187 0.814
81 FC5 188 -0.163
81 FC5 189 -3.092
81 FC5 190 -5.046
81 FC5 191 -5.534
81 FC5 192 -4.069
81 FC5 193 -3.581
81 FC5 194 -5.046
81 FC5 195 -7.487
81 FC5 196 -8.464
81 FC5 197 -6.999
81 FC5 198 -4.557
81 FC5 199 -4.069
81 FC5 200 -6.510
81 FC5 201 -9.928
81 FC5 202 -11.882
81 FC5 203 -10.905
81 FC5 204 -8.464
81 FC5 205 -6.510
81 FC5 206 -6.999
81 FC5 207 -9.440
81 FC5 208 -11.393
81 FC5 209 -10.905
81 FC5 210 -8.464
81 FC5 211 -6.510
81 FC5 212 -7.975
81 FC5 213 -10.905
81 FC5 214 -13.835
81 FC5 215 -13.835
81 FC5 216 -11.393
81 FC5 217 -8.464
81 FC5 218 -7.975
81 FC5 219 -11.393
81 FC5 220 -15.788
81 FC5 221 -19.206
81 FC5 222 -19.694
81 FC5 223 -17.253
81 FC5 224 -14.323
81 FC5 225 -11.393
81 FC5 226 -9.928
81 FC5 227 -8.464
81 FC5 228 -6.510
81 FC5 229 -3.581
81 FC5 230 -0.651
81 FC5 231 1.790
81 FC5 232 3.255
81 FC5 233 2.767
81 FC5 234 1.302
81 FC5 235 -0.651
81 FC5 236 -1.628
81 FC5 237 -1.628
81 FC5 238 -0.163
81 FC5 239 1.790
81 FC5 240 3.255
81 FC5 241 2.767
81 FC5 242 -0.163
81 FC5 243 -3.092
81 FC5 244 -4.557
81 FC5 245 -3.581
81 FC5 246 0.326
81 FC5 247 4.720
81 FC5 248 8.138
81 FC5 249 8.138
81 FC5 250 5.697
81 FC5 251 1.302
81 FC5 252 -2.116
81 FC5 253 -3.581
81 FC5 254 -3.581
81 FC5 255 -3.581
# FC2 chan 11
81 FC2 0 -0.214
81 FC2 1 -1.190
81 FC2 2 -2.655
81 FC2 3 -3.632
81 FC2 4 -3.632
81 FC2 5 -2.167
81 FC2 6 -0.214
81 FC2 7 0.763
81 FC2 8 0.763
81 FC2 9 0.763
81 FC2 10 0.275
81 FC2 11 -0.214
81 FC2 12 -0.702
81 FC2 13 -1.678
81 FC2 14 -1.678
81 FC2 15 -1.190
81 FC2 16 0.275
81 FC2 17 1.251
81 FC2 18 3.204
81 FC2 19 4.181
81 FC2 20 4.669
81 FC2 21 5.157
81 FC2 22 5.157
81 FC2 23 5.157
81 FC2 24 4.181
81 FC2 25 3.204
81 FC2 26 1.251
81 FC2 27 -0.214
81 FC2 28 -0.702
81 FC2 29 0.275
81 FC2 30 1.251
81 FC2 31 2.228
81 FC2 32 2.716
81 FC2 33 3.204
81 FC2 34 3.693
81 FC2 35 4.669
81 FC2 36 5.646
81 FC2 37 5.646
81 FC2 38 4.181
81 FC2 39 1.251
81 FC2 40 -1.678
81 FC2 41 -2.167
81 FC2 42 -1.190
81 FC2 43 1.251
81 FC2 44 3.693
81 FC2 45 5.157
81 FC2 46 5.157
81 FC2 47 4.669
81 FC2 48 3.204
81 FC2 49 1.251
81 FC2 50 0.275
81 FC2 51 -0.702
81 FC2 52 -1.190
81 FC2 53 -0.702
81 FC2 54 0.763
81 FC2 55 1.740
81 FC2 56 2.716
81 FC2 57 2.716
81 FC2 58 1.251
81 FC2 59 -0.214
81 FC2 60 -2.167
81 FC2 61 -3.632
81 FC2 62 -3.632
81 FC2 63 -3.632
81 FC2 64 -3.143
81 FC2 65 -2.655
81 FC2 66 -2.655
81 FC2 67 -2.655
81 FC2 68 -2.655
81 FC2 69 -1.678
81 FC2 70 -0.214
81 FC2 71 1.251
81 FC2 72 1.740
81 FC2 73 0.763
81 FC2 74 -0.702
81 FC2 75 -2.167
81 FC2 76 -2.167
81 FC2 77 -2.167
81 FC2 78 -1.678
81 FC2 79 -1.678
81 FC2 80 -1.678
81 FC2 81 -1.190
81 FC2 82 -0.702
81 FC2 83 0.275
81 FC2 84 0.275
81 FC2 85 -0.702
81 FC2 86 -3.143
81 FC2 87 -5.096
81 FC2 88 -6.073
81 FC2 89 -5.096
81 FC2 90 -4.120
81 FC2 91 -3.143
81 FC2 92 -3.143
81 FC2 93 -3.632
81 FC2 94 -4.608
81 FC2 95 -4.608
81 FC2 96 -5.096
81 FC2 97 -5.096
81 FC2 98 -5.096
81 FC2 99 -5.096
81 FC2 100 -4.120
81 FC2 101 -2.655
81 FC2 102 -1.678
81 FC2 103 -0.702
81 FC2 104 -0.214
81 FC2 105 -0.702
81 FC2 106 -0.702
81 FC2 107 -0.214
81 FC2 108 0.275
81 FC2 109 1.251
81 FC2 110 1.251
81 FC2 111 1.251
81 FC2 112 0.275
81 FC2 113 0.275
81 FC2 114 0.763
81 FC2 115 1.740
81 FC2 116 2.716
81 FC2 117 2.716
81 FC2 118 2.228
81 FC2 119 1.251
81 FC2 120 0.763
81 FC2 121 0.763
81 FC2 122 0.763
81 FC2 123 1.251
81 FC2 124 1.251
81 FC2 125 1.251
81 FC2 126 1.251
81 FC2 127 1.251
81 FC2 128 0.763
81 FC2 129 0.763
81 FC2 130 -0.214
81 FC2 131 -0.214
81 FC2 132 -0.214
81 FC2 133 0.275
81 FC2 134 0.763
81 FC2 135 1.251
81 FC2 136 1.251
81 FC2 137 1.251
81 FC2 138 0.763
81 FC2 139 0.275
81 FC2 140 0.275
81 FC2 141 0.763
81 FC2 142 1.740
81 FC2 143 3.204
81 FC2 144 4.669
81 FC2 145 6.134
81 FC2 146 6.622
81 FC2 147 6.134
81 FC2 148 4.669
81 FC2 149 3.204
81 FC2 150 1.740
81 FC2 151 0.763
81 FC2 152 0.275
81 FC2 153 -0.214
81 FC2 154 -0.214
81 FC2 155 0.275
81 FC2 156 0.275
81 FC2 157 -0.702
81 FC2 158 -1.678
81 FC2 159 -2.167
81 FC2 160 -2.167
81 FC2 161 -2.167
81 FC2 162 -1.678
81 FC2 163 -1.678
81 FC2 164 -1.678
81 FC2 165 -1.678
81 FC2 166 -0.702
81 FC2 167 0.275
81 FC2 168 1.740
81 FC2 169 1.740
81 FC2 170 1.251
81 FC2 171 0.275
81 FC2 172 -0.214
81 FC2 173 -0.214
81 FC2 174 0.763
81 FC2 175 1.740
81 FC2 176 2.228
81 FC2 177 2.228
81 FC2 178 1.740
81 FC2 179 1.740
81 FC2 180 2.228
81 FC2 181 2.228
81 FC2 182 1.740
81 FC2 183 0.763
81 FC2 184 -0.702
81 FC2 185 -2.167
81 FC2 186 -3.143
81 FC2 187 -3.143
81 FC2 188 -3.143
81 FC2 189 -2.655
81 FC2 190 -2.167
81 FC2 191 -0.702
81 FC2 192 0.275
81 FC2 193 1.251
81 FC2 194 1.740
81 FC2 195 1.251
81 FC2 196 0.275
81 FC2 197 -1.678
81 FC2 198 -2.655
81 FC2 199 -3.143
81 FC2 200 -3.143
81 FC2 201 -3.143
81 FC2 202 -2.655
81 FC2 203 -2.167
81 FC2 204 -1.678
81 FC2 205 -1.190
81 FC2 206 -1.190
81 FC2 207 -1.678
81 FC2 208 -2.167
81 FC2 209 -2.167
81 FC2 210 -2.167
81 FC2 211 -2.655
81 FC2 212 -3.143
81 FC2 213 -4.120
81 FC2 214 -5.096
81 FC2 215 -5.096
81 FC2 216 -4.608
81 FC2 217 -3.143
81 FC2 218 -1.678
81 FC2 219 -0.702
81 FC2 220 -1.190
81 FC2 221 -2.167
81 FC2 222 -2.655
81 FC2 223 -2.655
81 FC2 224 -2.167
81 FC2 225 -1.190
81 FC2 226 -1.190
81 FC2 227 -1.190
81 FC2 228 0.275
81 FC2 229 1.740
81 FC2 230 4.181
81 FC2 231 6.134
81 FC2 232 7.111
81 FC2 233 6.622
81 FC2 234 5.157
81 FC2 235 4.181
81 FC2 236 4.181
81 FC2 237 4.669
81 FC2 238 6.134
81 FC2 239 7.599
81 FC2 240 8.575
81 FC2 241 9.064
81 FC2 242 9.064
81 FC2 243 8.575
81 FC2 244 7.599
81 FC2 245 6.622
81 FC2 246 5.646
81 FC2 247 5.646
81 FC2 248 6.134
81 FC2 249 6.134
81 FC2 250 6.622
81 FC2 251 6.622
81 FC2 252 7.111
81 FC2 253 7.111
81 FC2 254 6.622
81 FC2 255 6.134
# FC1 chan 12
81 FC1 0 -4.425
81 FC1 1 -3.937
81 FC1 2 -2.960
81 FC1 3 -1.984
81 FC1 4 -1.007
81 FC1 5 -0.031
81 FC1 6 0.458
81 FC1 7 0.946
81 FC1 8 0.946
81 FC1 9 1.434
81 FC1 10 1.923
81 FC1 11 1.434
81 FC1 12 0.946
81 FC1 13 -0.031
81 FC1 14 -1.007
81 FC1 15 -1.495
81 FC1 16 -1.495
81 FC1 17 -1.007
81 FC1 18 -0.031
81 FC1 19 1.434
81 FC1 20 2.411
81 FC1 21 2.899
81 FC1 22 2.411
81 FC1 23 1.923
81 FC1 24 0.458
81 FC1 25 -0.031
81 FC1 26 -0.519
81 FC1 27 -0.031
81 FC1 28 0.946
81 FC1 29 1.434
81 FC1 30 1.434
81 FC1 31 0.946
81 FC1 32 0.946
81 FC1 33 0.946
81 FC1 34 1.434
81 FC1 35 1.434
81 FC1 36 1.923
81 FC1 37 1.434
81 FC1 38 1.434
81 FC1 39 1.434
81 FC1 40 1.434
81 FC1 41 1.923
81 FC1 42 1.923
81 FC1 43 1.434
81 FC1 44 0.946
81 FC1 45 1.434
81 FC1 46 1.434
81 FC1 47 1.923
81 FC1 48 1.923
81 FC1 49 1.434
81 FC1 50 0.458
81 FC1 51 -0.519
81 FC1 52 -1.495
81 FC1 53 -1.495
81 FC1 54 -1.495
81 FC1 55 -1.495
81 FC1 56 -1.495
81 FC1 57 -1.495
81 FC1 58 -1.495
81 FC1 59 -1.495
81 FC1 60 -1.495
81 FC1 61 -1.495
81 FC1 62 -0.519
81 FC1 63 -0.519
81 FC1 64 -1.007
81 FC1 65 -1.984
81 FC1 66 -2.960
81 FC1 67 -3.937
81 FC1 68 -3.937
81 FC1 69 -2.960
81 FC1 70 -1.007
81 FC1 71 0.946
81 FC1 72 1.434
81 FC1 73 1.434
81 FC1 74 0.458
81 FC1 75 -1.007
81 FC1 76 -1.984
81 FC1 77 -1.984
81 FC1 78 -1.007
81 FC1 79 -0.519
81 FC1 80 0.458
81 FC1 81 0.946
81 FC1 82 1.434
81 FC1 83 1.923
81 FC1 84 1.923
81 FC1 85 1.434
81 FC1 86 0.458
81 FC1 87 -1.007
81 FC1 88 -1.984
81 FC1 89 -1.984
81 FC1 90 -1.495
81 FC1 91 -1.007
81 FC1 92 -0.519
81 FC1 93 -0.031
81 FC1 94 -0.031
81 FC1 95 -0.031
81 FC1 96 -0.031
81 FC1 97 -0.519
81 FC1 98 -0.519
81 FC1 99 -1.495
81 FC1 100 -1.984
81 FC1 101 -2.472
81 FC1 102 -2.960
81 FC1 103 -2.960
81 FC1 104 -3.448
81 FC1 105 -3.448
81 FC1 106 -2.472
81 FC1 107 -1.007
81 FC1 108 0.458
81 FC1 109 1.434
81 FC1 110 1.923
81 FC1 111 1.434
81 FC1 112 0.946
81 FC1 113 0.458
81 FC1 114 0.946
81 FC1 115 1.434
81 FC1 116 2.899
81 FC1 117 3.387
81 FC1 118 3.876
81 FC1 119 3.387
81 FC1 120 2.411
81 FC1 121 1.434
81 FC1 122 0.458
81 FC1 123 0.458
81 FC1 124 0.946
81 FC1 125 1.434
81 FC1 126 2.411
81 FC1 127 2.411
81 FC1 128 1.923
81 FC1 129 0.946
81 FC1 130 -0.031
81 FC1 131 -0.519
81 FC1 132 -0.519
81 FC1 133 -0.031
81 FC1 134 0.946
81 FC1 135 1.923
81 FC1 136 2.411
81 FC1 137 2.411
81 FC1 138 1.923
81 FC1 139 1.434
81 FC1 140 0.946
81 FC1 141 1.434
81 FC1 142 2.411
81 FC1 143 3.876
81 FC1 144 4.852
81 FC1 145 5.341
81 FC1 146 5.829
81 FC1 147 5.341
81 FC1 148 5.341
81 FC1 149 4.852
81 FC1 150 4.364
81 FC1 151 2.899
81 FC1 152 1.434
81 FC1 153 0.458
81 FC1 154 -0.031
81 FC1 155 -0.031
81 FC1 156 -0.519
81 FC1 157 -1.495
81 FC1 158 -1.495
81 FC1 159 -1.495
81 FC1 160 -0.031
81 FC1 161 0.458
81 FC1 162 0.946
81 FC1 163 -0.519
81 FC1 164 -1.984
81 FC1 165 -2.960
81 FC1 166 -2.960
81 FC1 167 -2.472
81 FC1 168 -1.007
81 FC1 169 0.458
81 FC1 170 0.946
81 FC1 171 1.434
81 FC1 172 1.923
81 FC1 173 2.899
81 FC1 174 3.387
81 FC1 175 2.899
81 FC1 176 2.411
81 FC1 177 1.434
81 FC1 178 0.946
81 FC1 179 0.946
81 FC1 180 0.458
81 FC1 181 0.458
81 FC1 182 -0.519
81 FC1 183 -1.007
81 FC1 184 -1.495
81 FC1 185 -0.519
81 FC1 186 -0.031
81 FC1 187 -0.031
81 FC1 188 -0.519
81 FC1 189 -1.495
81 FC1 190 -1.984
81 FC1 191 -1.495
81 FC1 192 -0.519
81 FC1 193 -0.031
81 FC1 194 -0.519
81 FC1 195 -1.495
81 FC1 196 -1.984
81 FC1 197 -2.472
81 FC1 198 -2.472
81 FC1 199 -1.984
81 FC1 200 -1.984
81 FC1 201 -2.960
81 FC1 202 -3.937
81 FC1 203 -3.937
81 FC1 204 -3.937
81 FC1 205 -3.448
81 FC1 206 -3.937
81 FC1 207 -3.937
81 FC1 208 -4.425
81 FC1 209 -4.425
81 FC1 210 -3.448
81 FC1 211 -2.960
81 FC1 212 -2.960
81 FC1 213 -2.960
81 FC1 214 -3.937
81 FC1 215 -4.425
81 FC1 216 -4.425
81 FC1 217 -3.937
81 FC1 218 -3.937
81 FC1 219 -4.913
81 FC1 220 -5.402
81 FC1 221 -5.890
81 FC1 222 -4.913
81 FC1 223 -2.960
81 FC1 224 -1.984
81 FC1 225 -1.495
81 FC1 226 -1.495
81 FC1 227 -1.984
81 FC1 228 -1.495
81 FC1 229 0.458
81 FC1 230 3.387
81 FC1 231 6.317
81 FC1 232 8.270
81 FC1 233 9.735
81 FC1 234 9.735
81 FC1 235 9.247
81 FC1 236 8.759
81 FC1 237 7.782
81 FC1 238 7.782
81 FC1 239 7.782
81 FC1 240 8.270
81 FC1 241 9.247
81 FC1 242 9.735
81 FC1 243 9.735
81 FC1 244 9.735
81 FC1 245 9.247
81 FC1 246 9.247
81 FC1 247 9.247
81 FC1 248 9.247
81 FC1 249 9.247
81 FC1 250 8.759
81 FC1 251 8.270
81 FC1 252 7.782
81 FC1 253 8.270
81 FC1 254 8.759
81 FC1 255 8.759
# T8 chan 13
81 T8 0 4.120
81 T8 1 5.096
81 T8 2 2.167
81 T8 3 -2.716
81 T8 4 -6.622
81 T8 5 -6.622
81 T8 6 -3.693
81 T8 7 -0.275
81 T8 8 0.702
81 T8 9 -0.275
81 T8 10 -2.716
81 T8 11 -3.204
81 T8 12 -3.204
81 T8 13 -3.204
81 T8 14 -4.669
81 T8 15 -6.134
81 T8 16 -5.157
81 T8 17 -1.251
81 T8 18 5.096
81 T8 19 10.956
81 T8 20 12.909
81 T8 21 10.956
81 T8 22 6.073
81 T8 23 2.655
81 T8 24 1.678
81 T8 25 4.120
81 T8 26 7.050
81 T8 27 8.514
81 T8 28 7.538
81 T8 29 4.608
81 T8 30 2.167
81 T8 31 1.190
81 T8 32 3.143
81 T8 33 6.073
81 T8 34 8.514
81 T8 35 9.003
81 T8 36 8.514
81 T8 37 6.561
81 T8 38 5.096
81 T8 39 3.143
81 T8 40 1.190
81 T8 41 -1.740
81 T8 42 -4.669
81 T8 43 -6.134
81 T8 44 -6.134
81 T8 45 -5.157
81 T8 46 -3.693
81 T8 47 -2.716
81 T8 48 -2.716
81 T8 49 -2.228
81 T8 50 -0.763
81 T8 51 0.702
81 T8 52 1.190
81 T8 53 0.702
81 T8 54 0.214
81 T8 55 1.190
81 T8 56 3.143
81 T8 57 5.096
81 T8 58 5.096
81 T8 59 1.678
81 T8 60 -3.693
81 T8 61 -8.087
81 T8 62 -10.529
81 T8 63 -10.040
81 T8 64 -8.575
81 T8 65 -8.087
81 T8 66 -8.575
81 T8 67 -9.552
81 T8 68 -9.552
81 T8 69 -8.575
81 T8 70 -7.599
81 T8 71 -7.111
81 T8 72 -9.064
81 T8 73 -11.505
81 T8 74 -12.970
81 T8 75 -12.970
81 T8 76 -12.970
81 T8 77 -12.970
81 T8 78 -14.435
81 T8 79 -14.923
81 T8 80 -13.947
81 T8 81 -11.017
81 T8 82 -7.599
81 T8 83 -5.646
81 T8 84 -6.134
81 T8 85 -8.575
81 T8 86 -10.529
81 T8 87 -10.529
81 T8 88 -9.064
81 T8 89 -7.599
81 T8 90 -7.599
81 T8 91 -9.552
81 T8 92 -12.482
81 T8 93 -13.947
81 T8 94 -13.458
81 T8 95 -11.017
81 T8 96 -9.064
81 T8 97 -8.575
81 T8 98 -9.552
81 T8 99 -10.529
81 T8 100 -11.017
81 T8 101 -10.529
81 T8 102 -9.552
81 T8 103 -9.064
81 T8 104 -9.552
81 T8 105 -11.505
81 T8 106 -12.970
81 T8 107 -12.482
81 T8 108 -9.064
81 T8 109 -5.157
81 T8 110 -2.228
81 T8 111 -1.251
81 T8 112 -3.204
81 T8 113 -6.622
81 T8 114 -8.575
81 T8 115 -9.552
81 T8 116 -8.575
81 T8 117 -7.111
81 T8 118 -5.646
81 T8 119 -3.693
81 T8 120 -1.251
81 T8 121 0.702
81 T8 122 1.190
81 T8 123 -0.275
81 T8 124 -3.204
81 T8 125 -5.157
81 T8 126 -5.646
81 T8 127 -4.181
81 T8 128 -2.716
81 T8 129 -2.228
81 T8 130 -3.204
81 T8 131 -4.181
81 T8 132 -3.204
81 T8 133 0.702
81 T8 134 5.096
81 T8 135 8.026
81 T8 136 7.538
81 T8 137 3.632
81 T8 138 -0.763
81 T8 139 -3.204
81 T8 140 -2.716
81 T8 141 -0.275
81 T8 142 2.167
81 T8 143 2.655
81 T8 144 2.655
81 T8 145 3.143
81 T8 146 5.096
81 T8 147 6.561
81 T8 148 6.561
81 T8 149 4.608
81 T8 150 1.678
81 T8 151 -0.275
81 T8 152 -0.275
81 T8 153 0.214
81 T8 154 0.702
81 T8 155 -0.275
81 T8 156 -2.228
81 T8 157 -4.181
81 T8 158 -4.669
81 T8 159 -4.669
81 T8 160 -3.693
81 T8 161 -2.228
81 T8 162 -0.763
81 T8 163 0.214
81 T8 164 0.214
81 T8 165 -0.275
81 T8 166 -1.740
81 T8 167 -2.228
81 T8 168 -1.740
81 T8 169 0.214
81 T8 170 2.167
81 T8 171 2.655
81 T8 172 2.167
81 T8 173 1.190
81 T8 174 0.702
81 T8 175 1.678
81 T8 176 2.655
81 T8 177 3.143
81 T8 178 1.190
81 T8 179 -1.251
81 T8 180 -3.204
81 T8 181 -4.181
81 T8 182 -4.181
81 T8 183 -4.181
81 T8 184 -5.646
81 T8 185 -8.575
81 T8 186 -11.505
81 T8 187 -13.458
81 T8 188 -11.505
81 T8 189 -7.111
81 T8 190 -2.228
81 T8 191 0.214
81 T8 192 -0.763
81 T8 193 -3.693
81 T8 194 -5.646
81 T8 195 -5.646
81 T8 196 -3.693
81 T8 197 -1.740
81 T8 198 -1.740
81 T8 199 -4.181
81 T8 200 -7.111
81 T8 201 -9.552
81 T8 202 -11.017
81 T8 203 -11.505
81 T8 204 -12.482
81 T8 205 -13.947
81 T8 206 -14.923
81 T8 207 -13.947
81 T8 208 -11.017
81 T8 209 -8.087
81 T8 210 -7.111
81 T8 211 -9.064
81 T8 212 -13.458
81 T8 213 -16.876
81 T8 214 -17.853
81 T8 215 -15.411
81 T8 216 -11.993
81 T8 217 -10.040
81 T8 218 -11.017
81 T8 219 -13.458
81 T8 220 -16.388
81 T8 221 -17.365
81 T8 222 -16.876
81 T8 223 -16.388
81 T8 224 -16.876
81 T8 225 -17.365
81 T8 226 -18.341
81 T8 227 -17.853
81 T8 228 -16.876
81 T8 229 -15.411
81 T8 230 -16.388
81 T8 231 -18.829
81 T8 232 -21.759
81 T8 233 -24.689
81 T8 234 -25.665
81 T8 235 -25.177
81 T8 236 -23.712
81 T8 237 -23.712
81 T8 238 -23.712
81 T8 239 -24.689
81 T8 240 -25.177
81 T8 241 -24.689
81 T8 242 -24.200
81 T8 243 -24.689
81 T8 244 -26.154
81 T8 245 -28.107
81 T8 246 -28.107
81 T8 247 -26.154
81 T8 248 -22.736
81 T8 249 -19.806
81 T8 250 -18.829
81 T8 251 -20.782
81 T8 252 -23.224
81 T8 253 -26.154
81 T8 254 -27.618
81 T8 255 -27.618
# T7 chan 14
81 T7 0 -12.858
81 T7 1 -11.882
81 T7 2 -8.952
81 T7 3 -6.999
81 T7 4 -6.999
81 T7 5 -8.464
81 T7 6 -8.952
81 T7 7 -6.999
81 T7 8 -2.116
81 T7 9 3.255
81 T7 10 5.697
81 T7 11 4.232
81 T7 12 -0.163
81 T7 13 -4.069
81 T7 14 -4.557
81 T7 15 -2.604
81 T7 16 -0.163
81 T7 17 0.326
81 T7 18 -1.139
81 T7 19 -4.069
81 T7 20 -5.046
81 T7 21 -3.092
81 T7 22 1.302
81 T7 23 6.185
81 T7 24 9.115
81 T7 25 11.068
81 T7 26 11.556
81 T7 27 12.044
81 T7 28 12.533
81 T7 29 12.533
81 T7 30 11.068
81 T7 31 8.138
81 T7 32 5.208
81 T7 33 2.767
81 T7 34 1.302
81 T7 35 1.302
81 T7 36 1.790
81 T7 37 2.767
81 T7 38 3.255
81 T7 39 4.720
81 T7 40 5.208
81 T7 41 4.720
81 T7 42 2.767
81 T7 43 -0.163
81 T7 44 -2.604
81 T7 45 -3.581
81 T7 46 -2.604
81 T7 47 -0.651
81 T7 48 1.302
81 T7 49 2.279
81 T7 50 2.279
81 T7 51 1.790
81 T7 52 1.302
81 T7 53 1.302
81 T7 54 1.302
81 T7 55 0.814
81 T7 56 0.814
81 T7 57 0.326
81 T7 58 -0.163
81 T7 59 -1.628
81 T7 60 -3.581
81 T7 61 -6.510
81 T7 62 -9.928
81 T7 63 -11.882
81 T7 64 -11.882
81 T7 65 -10.417
81 T7 66 -9.928
81 T7 67 -10.417
81 T7 68 -12.370
81 T7 69 -13.346
81 T7 70 -12.370
81 T7 71 -10.905
81 T7 72 -10.417
81 T7 73 -11.882
81 T7 74 -14.811
81 T7 75 -17.253
81 T7 76 -17.741
81 T7 77 -15.788
81 T7 78 -13.346
81 T7 79 -11.393
81 T7 80 -11.882
81 T7 81 -12.858
81 T7 82 -12.858
81 T7 83 -11.882
81 T7 84 -10.905
81 T7 85 -10.417
81 T7 86 -10.905
81 T7 87 -11.882
81 T7 88 -10.905
81 T7 89 -8.952
81 T7 90 -6.999
81 T7 91 -6.999
81 T7 92 -8.464
81 T7 93 -10.417
81 T7 94 -11.393
81 T7 95 -10.417
81 T7 96 -8.952
81 T7 97 -8.952
81 T7 98 -11.393
81 T7 99 -14.811
81 T7 100 -16.764
81 T7 101 -16.764
81 T7 102 -14.811
81 T7 103 -13.346
81 T7 104 -13.346
81 T7 105 -14.323
81 T7 106 -13.835
81 T7 107 -10.905
81 T7 108 -7.487
81 T7 109 -5.046
81 T7 110 -5.046
81 T7 111 -7.487
81 T7 112 -8.952
81 T7 113 -8.952
81 T7 114 -7.975
81 T7 115 -7.487
81 T7 116 -9.440
81 T7 117 -12.370
81 T7 118 -13.835
81 T7 119 -12.370
81 T7 120 -7.975
81 T7 121 -3.092
81 T7 122 0.326
81 T7 123 1.302
81 T7 124 -0.163
81 T7 125 -3.581
81 T7 126 -6.022
81 T7 127 -7.487
81 T7 128 -7.975
81 T7 129 -6.999
81 T7 130 -5.534
81 T7 131 -3.092
81 T7 132 -1.628
81 T7 133 -1.139
81 T7 134 -2.604
81 T7 135 -5.046
81 T7 136 -6.999
81 T7 137 -6.999
81 T7 138 -4.557
81 T7 139 -1.139
81 T7 140 1.302
81 T7 141 1.790
81 T7 142 0.326
81 T7 143 -0.651
81 T7 144 0.814
81 T7 145 3.743
81 T7 146 5.697
81 T7 147 5.697
81 T7 148 2.767
81 T7 149 -0.651
81 T7 150 -1.628
81 T7 151 0.326
81 T7 152 3.255
81 T7 153 4.232
81 T7 154 2.767
81 T7 155 -0.163
81 T7 156 -2.116
81 T7 157 -2.604
81 T7 158 -1.139
81 T7 159 -0.163
81 T7 160 -0.651
81 T7 161 -1.628
81 T7 162 -2.604
81 T7 163 -3.092
81 T7 164 -2.604
81 T7 165 -2.604
81 T7 166 -3.092
81 T7 167 -3.581
81 T7 168 -2.604
81 T7 169 -1.139
81 T7 170 -0.163
81 T7 171 -0.163
81 T7 172 -2.116
81 T7 173 -3.581
81 T7 174 -4.069
81 T7 175 -3.092
81 T7 176 -1.628
81 T7 177 -0.651
81 T7 178 -1.628
81 T7 179 -3.581
81 T7 180 -4.557
81 T7 181 -3.092
81 T7 182 -0.163
81 T7 183 2.767
81 T7 184 5.208
81 T7 185 5.208
81 T7 186 3.743
81 T7 187 0.814
81 T7 188 -2.604
81 T7 189 -6.999
81 T7 190 -8.952
81 T7 191 -8.464
81 T7 192 -6.510
81 T7 193 -4.557
81 T7 194 -4.069
81 T7 195 -6.510
81 T7 196 -9.928
81 T7 197 -12.370
81 T7 198 -12.370
81 T7 199 -10.417
81 T7 200 -8.464
81 T7 201 -7.975
81 T7 202 -9.440
81 T7 203 -11.882
81 T7 204 -13.346
81 T7 205 -13.346
81 T7 206 -11.882
81 T7 207 -9.440
81 T7 208 -7.975
81 T7 209 -7.975
81 T7 210 -9.440
81 T7 211 -12.370
81 T7 212 -15.299
81 T7 213 -15.788
81 T7 214 -15.299
81 T7 215 -14.323
81 T7 216 -13.835
81 T7 217 -15.299
81 T7 218 -17.253
81 T7 219 -18.717
81 T7 220 -19.694
81 T7 221 -20.182
81 T7 222 -20.671
81 T7 223 -21.647
81 T7 224 -22.624
81 T7 225 -21.159
81 T7 226 -17.741
81 T7 227 -14.323
81 T7 228 -10.905
81 T7 229 -9.928
81 T7 230 -9.928
81 T7 231 -10.905
81 T7 232 -11.393
81 T7 233 -12.370
81 T7 234 -15.299
81 T7 235 -17.741
81 T7 236 -20.182
81 T7 237 -21.159
81 T7 238 -20.671
81 T7 239 -19.206
81 T7 240 -18.229
81 T7 241 -17.253
81 T7 242 -16.764
81 T7 243 -16.764
81 T7 244 -15.788
81 T7 245 -15.299
81 T7 246 -13.346
81 T7 247 -11.393
81 T7 248 -9.440
81 T7 249 -8.464
81 T7 250 -8.952
81 T7 251 -11.393
81 T7 252 -14.811
81 T7 253 -18.717
81 T7 254 -21.647
81 T7 255 -23.112
# CZ chan 15
81 CZ 0 -2.848
81 CZ 1 1.546
81 CZ 2 1.058
81 CZ 3 -2.360
81 CZ 4 -5.778
81 CZ 5 -6.755
81 CZ 6 -4.313
81 CZ 7 -0.895
81 CZ 8 2.523
81 CZ 9 3.499
81 CZ 10 2.035
81 CZ 11 0.081
81 CZ 12 -1.872
81 CZ 13 -2.848
81 CZ 14 -3.825
81 CZ 15 -5.290
81 CZ 16 -5.778
81 CZ 17 -3.825
81 CZ 18 1.058
81 CZ 19 8.870
81 CZ 20 15.706
81 CZ 21 18.636
81 CZ 22 14.730
81 CZ 23 8.382
81 CZ 24 4.476
81 CZ 25 5.941
81 CZ 26 13.265
81 CZ 27 21.566
81 CZ 28 24.495
81 CZ 29 20.101
81 CZ 30 11.800
81 CZ 31 4.476
81 CZ 32 3.011
81 CZ 33 6.429
81 CZ 34 12.288
81 CZ 35 16.195
81 CZ 36 16.683
81 CZ 37 14.242
81 CZ 38 11.312
81 CZ 39 9.847
81 CZ 40 9.359
81 CZ 41 8.870
81 CZ 42 6.429
81 CZ 43 3.499
81 CZ 44 0.081
81 CZ 45 -1.872
81 CZ 46 -2.360
81 CZ 47 -2.360
81 CZ 48 -1.383
81 CZ 49 -0.407
81 CZ 50 0.081
81 CZ 51 0.570
81 CZ 52 0.081
81 CZ 53 -1.383
81 CZ 54 -2.848
81 CZ 55 -3.825
81 CZ 56 -3.337
81 CZ 57 -2.848
81 CZ 58 -3.337
81 CZ 59 -5.290
81 CZ 60 -8.708
81 CZ 61 -13.102
81 CZ 62 -17.008
81 CZ 63 -19.450
81 CZ 64 -20.426
81 CZ 65 -21.891
81 CZ 66 -23.356
81 CZ 67 -25.309
81 CZ 68 -26.774
81 CZ 69 -27.262
81 CZ 70 -27.262
81 CZ 71 -26.286
81 CZ 72 -25.798
81 CZ 73 -25.309
81 CZ 74 -24.821
81 CZ 75 -25.309
81 CZ 76 -26.286
81 CZ 77 -28.239
81 CZ 78 -31.169
81 CZ 79 -33.122
81 CZ 80 -33.610
81 CZ 81 -31.169
81 CZ 82 -27.262
81 CZ 83 -23.356
81 CZ 84 -21.891
81 CZ 85 -23.356
81 CZ 86 -26.774
81 CZ 87 -29.704
81 CZ 88 -31.169
81 CZ 89 -30.680
81 CZ 90 -29.215
81 CZ 91 -28.727
81 CZ 92 -28.239
81 CZ 93 -27.262
81 CZ 94 -25.798
81 CZ 95 -24.333
81 CZ 96 -23.844
81 CZ 97 -24.821
81 CZ 98 -26.286
81 CZ 99 -27.751
81 CZ 100 -27.262
81 CZ 101 -25.798
81 CZ 102 -25.309
81 CZ 103 -26.286
81 CZ 104 -28.727
81 CZ 105 -29.704
81 CZ 106 -28.239
81 CZ 107 -23.844
81 CZ 108 -17.497
81 CZ 109 -12.614
81 CZ 110 -10.661
81 CZ 111 -12.126
81 CZ 112 -14.567
81 CZ 113 -17.008
81 CZ 114 -17.497
81 CZ 115 -17.008
81 CZ 116 -16.520
81 CZ 117 -16.520
81 CZ 118 -17.008
81 CZ 119 -16.032
81 CZ 120 -14.567
81 CZ 121 -11.637
81 CZ 122 -9.684
81 CZ 123 -8.708
81 CZ 124 -9.196
81 CZ 125 -11.149
81 CZ 126 -13.102
81 CZ 127 -13.590
81 CZ 128 -12.614
81 CZ 129 -11.637
81 CZ 130 -10.173
81 CZ 131 -9.196
81 CZ 132 -8.708
81 CZ 133 -8.219
81 CZ 134 -8.219
81 CZ 135 -7.731
81 CZ 136 -8.219
81 CZ 137 -9.196
81 CZ 138 -9.684
81 CZ 139 -10.173
81 CZ 140 -9.684
81 CZ 141 -7.243
81 CZ 142 -3.825
81 CZ 143 -0.407
81 CZ 144 2.523
81 CZ 145 3.988
81 CZ 146 3.499
81 CZ 147 1.546
81 CZ 148 -0.895
81 CZ 149 -3.337
81 CZ 150 -4.801
81 CZ 151 -4.313
81 CZ 152 -2.848
81 CZ 153 -1.872
81 CZ 154 -1.383
81 CZ 155 -1.872
81 CZ 156 -3.825
81 CZ 157 -5.778
81 CZ 158 -6.755
81 CZ 159 -7.243
81 CZ 160 -7.731
81 CZ 161 -7.731
81 CZ 162 -7.243
81 CZ 163 -5.778
81 CZ 164 -4.313
81 CZ 165 -4.313
81 CZ 166 -5.290
81 CZ 167 -7.243
81 CZ 168 -8.708
81 CZ 169 -7.731
81 CZ 170 -5.290
81 CZ 171 -2.360
81 CZ 172 -0.407
81 CZ 173 0.081
81 CZ 174 0.081
81 CZ 175 0.081
81 CZ 176 0.081
81 CZ 177 -0.407
81 CZ 178 -1.383
81 CZ 179 -2.848
81 CZ 180 -4.313
81 CZ 181 -5.290
81 CZ 182 -6.755
81 CZ 183 -10.173
81 CZ 184 -16.032
81 CZ 185 -23.356
81 CZ 186 -28.239
81 CZ 187 -29.215
81 CZ 188 -25.309
81 CZ 189 -18.962
81 CZ 190 -13.102
81 CZ 191 -10.661
81 CZ 192 -11.149
81 CZ 193 -12.126
81 CZ 194 -11.637
81 CZ 195 -8.708
81 CZ 196 -5.778
81 CZ 197 -5.290
81 CZ 198 -7.731
81 CZ 199 -12.614
81 CZ 200 -16.520
81 CZ 201 -17.985
81 CZ 202 -16.032
81 CZ 203 -13.102
81 CZ 204 -10.661
81 CZ 205 -10.173
81 CZ 206 -11.637
81 CZ 207 -13.102
81 CZ 208 -14.567
81 CZ 209 -15.544
81 CZ 210 -16.520
81 CZ 211 -17.497
81 CZ 212 -18.473
81 CZ 213 -18.473
81 CZ 214 -17.008
81 CZ 215 -14.567
81 CZ 216 -13.102
81 CZ 217 -15.544
81 CZ 218 -21.891
81 CZ 219 -31.657
81 CZ 220 -41.423
81 CZ 221 -47.770
81 CZ 222 -46.305
81 CZ 223 -36.051
81 CZ 224 -21.891
81 CZ 225 -9.684
81 CZ 226 -6.755
81 CZ 227 -15.544
81 CZ 228 -30.192
81 CZ 229 -41.423
81 CZ 230 -41.423
81 CZ 231 -29.215
81 CZ 232 -15.055
81 CZ 233 -9.196
81 CZ 234 -17.008
81 CZ 235 -31.657
81 CZ 236 -42.399
81 CZ 237 -40.446
81 CZ 238 -26.774
81 CZ 239 -13.102
81 CZ 240 -9.196
81 CZ 241 -17.985
81 CZ 242 -30.192
81 CZ 243 -37.516
81 CZ 244 -35.075
81 CZ 245 -26.774
81 CZ 246 -19.938
81 CZ 247 -20.915
81 CZ 248 -26.286
81 CZ 249 -31.169
81 CZ 250 -31.169
81 CZ 251 -27.262
81 CZ 252 -23.356
81 CZ 253 -23.844
81 CZ 254 -28.239
81 CZ 255 -33.610
# C3 chan 16
81 C3 0 -6.266
81 C3 1 -6.266
81 C3 2 -4.801
81 C3 3 -1.872
81 C3 4 -0.407
81 C3 5 0.081
81 C3 6 -0.407
81 C3 7 0.081
81 C3 8 0.081
81 C3 9 1.546
81 C3 10 2.523
81 C3 11 3.011
81 C3 12 3.499
81 C3 13 3.011
81 C3 14 2.035
81 C3 15 1.058
81 C3 16 0.081
81 C3 17 -0.895
81 C3 18 -1.383
81 C3 19 -0.895
81 C3 20 -0.407
81 C3 21 0.081
81 C3 22 -0.407
81 C3 23 -0.895
81 C3 24 -0.895
81 C3 25 0.570
81 C3 26 3.499
81 C3 27 6.429
81 C3 28 7.894
81 C3 29 7.894
81 C3 30 6.429
81 C3 31 4.476
81 C3 32 3.011
81 C3 33 2.035
81 C3 34 1.058
81 C3 35 0.081
81 C3 36 -0.895
81 C3 37 -0.895
81 C3 38 0.570
81 C3 39 2.523
81 C3 40 4.476
81 C3 41 4.476
81 C3 42 3.011
81 C3 43 0.081
81 C3 44 -2.360
81 C3 45 -3.825
81 C3 46 -3.825
81 C3 47 -2.848
81 C3 48 -1.872
81 C3 49 -1.383
81 C3 50 -0.895
81 C3 51 -0.407
81 C3 52 -0.407
81 C3 53 0.081
81 C3 54 0.081
81 C3 55 0.570
81 C3 56 1.058
81 C3 57 1.546
81 C3 58 2.035
81 C3 59 1.546
81 C3 60 0.570
81 C3 61 -0.895
81 C3 62 -1.872
81 C3 63 -2.360
81 C3 64 -2.848
81 C3 65 -2.848
81 C3 66 -3.337
81 C3 67 -3.825
81 C3 68 -4.801
81 C3 69 -5.290
81 C3 70 -5.778
81 C3 71 -5.778
81 C3 72 -6.266
81 C3 73 -6.266
81 C3 74 -6.266
81 C3 75 -6.755
81 C3 76 -6.755
81 C3 77 -5.778
81 C3 78 -5.290
81 C3 79 -4.313
81 C3 80 -4.313
81 C3 81 -4.801
81 C3 82 -4.801
81 C3 83 -4.313
81 C3 84 -3.825
81 C3 85 -2.848
81 C3 86 -2.360
81 C3 87 -2.360
81 C3 88 -2.848
81 C3 89 -3.337
81 C3 90 -3.825
81 C3 91 -3.337
81 C3 92 -2.360
81 C3 93 -1.872
81 C3 94 -0.895
81 C3 95 -0.895
81 C3 96 -1.383
81 C3 97 -1.872
81 C3 98 -2.848
81 C3 99 -3.337
81 C3 100 -4.313
81 C3 101 -4.801
81 C3 102 -5.778
81 C3 103 -6.266
81 C3 104 -6.755
81 C3 105 -7.243
81 C3 106 -6.755
81 C3 107 -6.266
81 C3 108 -5.290
81 C3 109 -4.313
81 C3 110 -3.825
81 C3 111 -2.848
81 C3 112 -2.848
81 C3 113 -3.337
81 C3 114 -4.313
81 C3 115 -5.778
81 C3 116 -6.755
81 C3 117 -6.755
81 C3 118 -5.778
81 C3 119 -4.313
81 C3 120 -2.360
81 C3 121 -2.360
81 C3 122 -2.848
81 C3 123 -4.313
81 C3 124 -5.290
81 C3 125 -4.801
81 C3 126 -4.313
81 C3 127 -3.337
81 C3 128 -2.848
81 C3 129 -2.360
81 C3 130 -2.360
81 C3 131 -2.360
81 C3 132 -2.360
81 C3 133 -1.872
81 C3 134 -1.872
81 C3 135 -1.872
81 C3 136 -2.360
81 C3 137 -2.360
81 C3 138 -2.848
81 C3 139 -2.848
81 C3 140 -2.360
81 C3 141 -1.872
81 C3 142 -0.895
81 C3 143 -0.895
81 C3 144 -0.895
81 C3 145 -0.895
81 C3 146 -0.895
81 C3 147 -0.407
81 C3 148 0.570
81 C3 149 1.546
81 C3 150 2.035
81 C3 151 1.546
81 C3 152 0.570
81 C3 153 0.081
81 C3 154 -0.407
81 C3 155 -0.895
81 C3 156 -1.383
81 C3 157 -1.872
81 C3 158 -1.872
81 C3 159 -1.872
81 C3 160 -1.383
81 C3 161 -0.895
81 C3 162 -0.895
81 C3 163 -1.383
81 C3 164 -2.360
81 C3 165 -3.825
81 C3 166 -4.801
81 C3 167 -4.801
81 C3 168 -4.313
81 C3 169 -3.337
81 C3 170 -2.360
81 C3 171 -1.872
81 C3 172 -1.872
81 C3 173 -1.383
81 C3 174 -1.872
81 C3 175 -2.360
81 C3 176 -2.360
81 C3 177 -3.337
81 C3 178 -2.848
81 C3 179 -2.360
81 C3 180 -1.872
81 C3 181 -1.383
81 C3 182 -1.383
81 C3 183 -1.383
81 C3 184 -0.895
81 C3 185 0.081
81 C3 186 0.570
81 C3 187 0.570
81 C3 188 -0.407
81 C3 189 -1.872
81 C3 190 -3.825
81 C3 191 -4.801
81 C3 192 -5.290
81 C3 193 -5.290
81 C3 194 -5.290
81 C3 195 -5.778
81 C3 196 -5.778
81 C3 197 -5.290
81 C3 198 -3.825
81 C3 199 -2.848
81 C3 200 -2.848
81 C3 201 -3.825
81 C3 202 -5.290
81 C3 203 -6.266
81 C3 204 -6.266
81 C3 205 -6.266
81 C3 206 -6.266
81 C3 207 -6.755
81 C3 208 -6.755
81 C3 209 -6.266
81 C3 210 -5.778
81 C3 211 -5.290
81 C3 212 -5.290
81 C3 213 -6.266
81 C3 214 -6.755
81 C3 215 -6.266
81 C3 216 -6.266
81 C3 217 -6.266
81 C3 218 -6.755
81 C3 219 -8.219
81 C3 220 -10.173
81 C3 221 -10.661
81 C3 222 -10.661
81 C3 223 -9.684
81 C3 224 -9.196
81 C3 225 -8.708
81 C3 226 -8.219
81 C3 227 -7.731
81 C3 228 -6.266
81 C3 229 -4.313
81 C3 230 -2.848
81 C3 231 -1.872
81 C3 232 -2.360
81 C3 233 -2.848
81 C3 234 -4.313
81 C3 235 -4.313
81 C3 236 -3.825
81 C3 237 -3.337
81 C3 238 -2.848
81 C3 239 -2.848
81 C3 240 -3.337
81 C3 241 -4.313
81 C3 242 -5.290
81 C3 243 -5.290
81 C3 244 -5.290
81 C3 245 -4.801
81 C3 246 -4.801
81 C3 247 -4.313
81 C3 248 -3.825
81 C3 249 -2.848
81 C3 250 -2.360
81 C3 251 -2.848
81 C3 252 -4.313
81 C3 253 -6.266
81 C3 254 -7.731
81 C3 255 -7.731
# C4 chan 17
81 C4 0 1.556
81 C4 1 -0.397
81 C4 2 -3.326
81 C4 3 -5.280
81 C4 4 -5.280
81 C4 5 -3.815
81 C4 6 -1.862
81 C4 7 0.092
81 C4 8 1.068
81 C4 9 1.068
81 C4 10 0.580
81 C4 11 -0.397
81 C4 12 -0.885
81 C4 13 -1.373
81 C4 14 -1.373
81 C4 15 -0.885
81 C4 16 0.092
81 C4 17 1.556
81 C4 18 3.021
81 C4 19 3.998
81 C4 20 3.998
81 C4 21 3.510
81 C4 22 2.533
81 C4 23 1.556
81 C4 24 1.068
81 C4 25 2.045
81 C4 26 3.021
81 C4 27 3.510
81 C4 28 3.510
81 C4 29 3.510
81 C4 30 3.510
81 C4 31 3.510
81 C4 32 3.998
81 C4 33 3.998
81 C4 34 3.998
81 C4 35 3.998
81 C4 36 3.021
81 C4 37 1.556
81 C4 38 -0.885
81 C4 39 -3.326
81 C4 40 -4.791
81 C4 41 -5.280
81 C4 42 -4.303
81 C4 43 -2.838
81 C4 44 -1.862
81 C4 45 -0.885
81 C4 46 -0.397
81 C4 47 -1.373
81 C4 48 -1.373
81 C4 49 -1.862
81 C4 50 -1.862
81 C4 51 -0.885
81 C4 52 0.092
81 C4 53 1.556
81 C4 54 2.533
81 C4 55 3.021
81 C4 56 3.021
81 C4 57 2.533
81 C4 58 1.556
81 C4 59 0.580
81 C4 60 -0.885
81 C4 61 -2.838
81 C4 62 -3.326
81 C4 63 -3.815
81 C4 64 -2.838
81 C4 65 -2.350
81 C4 66 -2.350
81 C4 67 -2.350
81 C4 68 -2.838
81 C4 69 -2.838
81 C4 70 -2.350
81 C4 71 -2.350
81 C4 72 -3.815
81 C4 73 -5.280
81 C4 74 -6.256
81 C4 75 -5.768
81 C4 76 -4.303
81 C4 77 -2.838
81 C4 78 -2.838
81 C4 79 -4.303
81 C4 80 -6.256
81 C4 81 -6.744
81 C4 82 -5.768
81 C4 83 -3.815
81 C4 84 -2.350
81 C4 85 -2.838
81 C4 86 -4.303
81 C4 87 -6.256
81 C4 88 -7.233
81 C4 89 -6.744
81 C4 90 -6.256
81 C4 91 -5.280
81 C4 92 -5.280
81 C4 93 -5.280
81 C4 94 -5.280
81 C4 95 -6.256
81 C4 96 -6.744
81 C4 97 -7.721
81 C4 98 -8.698
81 C4 99 -8.209
81 C4 100 -6.744
81 C4 101 -4.791
81 C4 102 -2.838
81 C4 103 -2.350
81 C4 104 -2.838
81 C4 105 -4.791
81 C4 106 -5.768
81 C4 107 -5.768
81 C4 108 -5.280
81 C4 109 -4.303
81 C4 110 -2.838
81 C4 111 -1.862
81 C4 112 -1.862
81 C4 113 -1.862
81 C4 114 -2.838
81 C4 115 -4.303
81 C4 116 -5.768
81 C4 117 -6.744
81 C4 118 -6.256
81 C4 119 -4.791
81 C4 120 -2.350
81 C4 121 -0.397
81 C4 122 0.092
81 C4 123 -1.373
81 C4 124 -3.326
81 C4 125 -4.791
81 C4 126 -4.791
81 C4 127 -4.303
81 C4 128 -3.326
81 C4 129 -3.326
81 C4 130 -3.815
81 C4 131 -3.326
81 C4 132 -2.350
81 C4 133 -1.373
81 C4 134 -0.885
81 C4 135 -1.373
81 C4 136 -2.350
81 C4 137 -2.838
81 C4 138 -3.326
81 C4 139 -3.326
81 C4 140 -3.326
81 C4 141 -3.815
81 C4 142 -3.815
81 C4 143 -2.838
81 C4 144 -1.373
81 C4 145 0.580
81 C4 146 1.556
81 C4 147 1.068
81 C4 148 -0.885
81 C4 149 -2.350
81 C4 150 -3.326
81 C4 151 -3.815
81 C4 152 -3.815
81 C4 153 -3.326
81 C4 154 -2.350
81 C4 155 -1.373
81 C4 156 -1.373
81 C4 157 -1.862
81 C4 158 -3.326
81 C4 159 -5.280
81 C4 160 -6.256
81 C4 161 -5.768
81 C4 162 -4.303
81 C4 163 -2.838
81 C4 164 -2.350
81 C4 165 -2.838
81 C4 166 -3.815
81 C4 167 -3.326
81 C4 168 -2.350
81 C4 169 -1.373
81 C4 170 -0.885
81 C4 171 -1.373
81 C4 172 -2.350
81 C4 173 -2.838
81 C4 174 -2.838
81 C4 175 -1.862
81 C4 176 -0.885
81 C4 177 -0.885
81 C4 178 -0.885
81 C4 179 -1.373
81 C4 180 -1.862
81 C4 181 -2.350
81 C4 182 -2.838
81 C4 183 -2.838
81 C4 184 -4.303
81 C4 185 -6.256
81 C4 186 -7.721
81 C4 187 -8.209
81 C4 188 -7.233
81 C4 189 -5.280
81 C4 190 -3.815
81 C4 191 -3.326
81 C4 192 -3.815
81 C4 193 -4.791
81 C4 194 -5.280
81 C4 195 -4.791
81 C4 196 -3.815
81 C4 197 -3.326
81 C4 198 -4.303
81 C4 199 -6.256
81 C4 200 -7.233
81 C4 201 -7.233
81 C4 202 -6.744
81 C4 203 -5.280
81 C4 204 -4.791
81 C4 205 -5.280
81 C4 206 -6.744
81 C4 207 -8.209
81 C4 208 -8.698
81 C4 209 -8.698
81 C4 210 -7.721
81 C4 211 -7.233
81 C4 212 -8.209
81 C4 213 -9.674
81 C4 214 -11.139
81 C4 215 -11.139
81 C4 216 -10.162
81 C4 217 -8.698
81 C4 218 -7.233
81 C4 219 -6.744
81 C4 220 -7.233
81 C4 221 -8.698
81 C4 222 -9.674
81 C4 223 -10.651
81 C4 224 -11.627
81 C4 225 -12.115
81 C4 226 -11.627
81 C4 227 -11.139
81 C4 228 -9.674
81 C4 229 -8.209
81 C4 230 -7.721
81 C4 231 -8.209
81 C4 232 -10.162
81 C4 233 -12.604
81 C4 234 -14.069
81 C4 235 -14.557
81 C4 236 -14.069
81 C4 237 -13.092
81 C4 238 -11.627
81 C4 239 -10.651
81 C4 240 -10.162
81 C4 241 -10.651
81 C4 242 -11.139
81 C4 243 -12.115
81 C4 244 -13.092
81 C4 245 -13.580
81 C4 246 -13.092
81 C4 247 -12.115
81 C4 248 -11.139
81 C4 249 -10.162
81 C4 250 -10.162
81 C4 251 -10.651
81 C4 252 -11.139
81 C4 253 -12.604
81 C4 254 -13.580
81 C4 255 -15.045
# CP5 chan 18
81 CP5 0 -8.647
81 CP5 1 -10.111
81 CP5 2 -8.158
81 CP5 3 -5.717
81 CP5 4 -3.276
81 CP5 5 -2.299
81 CP5 6 -2.299
81 CP5 7 -1.811
81 CP5 8 -1.322
81 CP5 9 -0.346
81 CP5 10 1.119
81 CP5 11 1.607
81 CP5 12 2.096
81 CP5 13 2.096
81 CP5 14 2.584
81 CP5 15 2.096
81 CP5 16 1.119
81 CP5 17 -0.346
81 CP5 18 -1.322
81 CP5 19 -1.322
81 CP5 20 -0.834
81 CP5 21 -0.346
81 CP5 22 -0.346
81 CP5 23 0.142
81 CP5 24 1.119
81 CP5 25 4.049
81 CP5 26 7.955
81 CP5 27 11.373
81 CP5 28 13.326
81 CP5 29 12.349
81 CP5 30 10.396
81 CP5 31 7.467
81 CP5 32 5.025
81 CP5 33 3.560
81 CP5 34 2.584
81 CP5 35 1.119
81 CP5 36 0.142
81 CP5 37 -0.346
81 CP5 38 0.142
81 CP5 39 1.119
81 CP5 40 2.096
81 CP5 41 1.119
81 CP5 42 -0.346
81 CP5 43 -2.787
81 CP5 44 -4.740
81 CP5 45 -5.717
81 CP5 46 -5.229
81 CP5 47 -4.740
81 CP5 48 -3.276
81 CP5 49 -2.299
81 CP5 50 -0.346
81 CP5 51 1.119
81 CP5 52 2.096
81 CP5 53 2.584
81 CP5 54 3.072
81 CP5 55 3.072
81 CP5 56 4.049
81 CP5 57 4.049
81 CP5 58 3.560
81 CP5 59 1.119
81 CP5 60 -1.811
81 CP5 61 -4.252
81 CP5 62 -6.205
81 CP5 63 -6.205
81 CP5 64 -6.205
81 CP5 65 -6.205
81 CP5 66 -6.694
81 CP5 67 -8.158
81 CP5 68 -9.623
81 CP5 69 -10.111
81 CP5 70 -11.088
81 CP5 71 -11.576
81 CP5 72 -13.041
81 CP5 73 -14.018
81 CP5 74 -14.506
81 CP5 75 -14.018
81 CP5 76 -13.041
81 CP5 77 -11.576
81 CP5 78 -11.088
81 CP5 79 -11.088
81 CP5 80 -11.576
81 CP5 81 -11.576
81 CP5 82 -11.576
81 CP5 83 -10.600
81 CP5 84 -9.623
81 CP5 85 -9.135
81 CP5 86 -9.135
81 CP5 87 -9.623
81 CP5 88 -9.135
81 CP5 89 -8.158
81 CP5 90 -7.182
81 CP5 91 -6.205
81 CP5 92 -5.717
81 CP5 93 -5.717
81 CP5 94 -5.229
81 CP5 95 -5.229
81 CP5 96 -5.229
81 CP5 97 -6.694
81 CP5 98 -8.158
81 CP5 99 -9.623
81 CP5 100 -10.111
81 CP5 101 -10.111
81 CP5 102 -9.623
81 CP5 103 -10.111
81 CP5 104 -10.111
81 CP5 105 -11.088
81 CP5 106 -10.600
81 CP5 107 -9.623
81 CP5 108 -8.647
81 CP5 109 -7.182
81 CP5 110 -6.205
81 CP5 111 -5.717
81 CP5 112 -5.229
81 CP5 113 -6.205
81 CP5 114 -7.670
81 CP5 115 -10.111
81 CP5 116 -12.065
81 CP5 117 -12.553
81 CP5 118 -11.088
81 CP5 119 -8.647
81 CP5 120 -5.717
81 CP5 121 -4.252
81 CP5 122 -4.740
81 CP5 123 -6.205
81 CP5 124 -8.158
81 CP5 125 -8.647
81 CP5 126 -8.158
81 CP5 127 -6.694
81 CP5 128 -5.717
81 CP5 129 -5.229
81 CP5 130 -5.229
81 CP5 131 -5.229
81 CP5 132 -4.252
81 CP5 133 -2.787
81 CP5 134 -1.811
81 CP5 135 -2.299
81 CP5 136 -3.276
81 CP5 137 -4.252
81 CP5 138 -4.740
81 CP5 139 -4.740
81 CP5 140 -3.764
81 CP5 141 -2.787
81 CP5 142 -2.787
81 CP5 143 -3.276
81 CP5 144 -3.276
81 CP5 145 -2.787
81 CP5 146 -1.811
81 CP5 147 -0.346
81 CP5 148 0.142
81 CP5 149 0.631
81 CP5 150 0.631
81 CP5 151 0.631
81 CP5 152 0.631
81 CP5 153 0.631
81 CP5 154 0.631
81 CP5 155 -0.346
81 CP5 156 -0.834
81 CP5 157 -1.811
81 CP5 158 -1.811
81 CP5 159 -1.811
81 CP5 160 -1.322
81 CP5 161 -0.834
81 CP5 162 -0.834
81 CP5 163 -0.834
81 CP5 164 -1.322
81 CP5 165 -2.787
81 CP5 166 -4.740
81 CP5 167 -6.205
81 CP5 168 -6.694
81 CP5 169 -6.205
81 CP5 170 -4.740
81 CP5 171 -3.276
81 CP5 172 -2.787
81 CP5 173 -2.299
81 CP5 174 -2.787
81 CP5 175 -3.764
81 CP5 176 -4.252
81 CP5 177 -5.229
81 CP5 178 -5.717
81 CP5 179 -5.229
81 CP5 180 -4.252
81 CP5 181 -1.811
81 CP5 182 1.119
81 CP5 183 4.049
81 CP5 184 6.002
81 CP5 185 7.467
81 CP5 186 6.978
81 CP5 187 5.514
81 CP5 188 2.584
81 CP5 189 -1.322
81 CP5 190 -4.740
81 CP5 191 -7.670
81 CP5 192 -8.647
81 CP5 193 -8.647
81 CP5 194 -8.158
81 CP5 195 -8.158
81 CP5 196 -7.670
81 CP5 197 -7.182
81 CP5 198 -5.717
81 CP5 199 -4.252
81 CP5 200 -4.252
81 CP5 201 -4.740
81 CP5 202 -6.694
81 CP5 203 -8.647
81 CP5 204 -10.600
81 CP5 205 -10.600
81 CP5 206 -10.600
81 CP5 207 -10.111
81 CP5 208 -9.623
81 CP5 209 -9.623
81 CP5 210 -9.623
81 CP5 211 -9.623
81 CP5 212 -9.623
81 CP5 213 -10.111
81 CP5 214 -10.111
81 CP5 215 -10.111
81 CP5 216 -9.623
81 CP5 217 -9.623
81 CP5 218 -11.088
81 CP5 219 -13.041
81 CP5 220 -14.994
81 CP5 221 -16.459
81 CP5 222 -17.436
81 CP5 223 -17.924
81 CP5 224 -17.924
81 CP5 225 -18.412
81 CP5 226 -18.412
81 CP5 227 -17.436
81 CP5 228 -15.483
81 CP5 229 -13.041
81 CP5 230 -11.576
81 CP5 231 -11.576
81 CP5 232 -14.018
81 CP5 233 -17.436
81 CP5 234 -20.365
81 CP5 235 -21.342
81 CP5 236 -19.877
81 CP5 237 -17.924
81 CP5 238 -16.947
81 CP5 239 -17.436
81 CP5 240 -18.901
81 CP5 241 -21.342
81 CP5 242 -22.319
81 CP5 243 -22.807
81 CP5 244 -22.807
81 CP5 245 -23.295
81 CP5 246 -22.807
81 CP5 247 -22.807
81 CP5 248 -20.854
81 CP5 249 -18.901
81 CP5 250 -16.947
81 CP5 251 -17.436
81 CP5 252 -19.389
81 CP5 253 -22.319
81 CP5 254 -24.272
81 CP5 255 -24.760
# CP6 chan 19
81 CP6 0 4.171
81 CP6 1 2.706
81 CP6 2 -0.712
81 CP6 3 -4.130
81 CP6 4 -6.083
81 CP6 5 -5.107
81 CP6 6 -2.177
81 CP6 7 0.753
81 CP6 8 1.729
81 CP6 9 0.753
81 CP6 10 -0.712
81 CP6 11 -1.200
81 CP6 12 -1.200
81 CP6 13 -0.712
81 CP6 14 -0.712
81 CP6 15 -1.200
81 CP6 16 -1.200
81 CP6 17 -0.224
81 CP6 18 1.729
81 CP6 19 4.171
81 CP6 20 5.636
81 CP6 21 4.659
81 CP6 22 2.218
81 CP6 23 0.264
81 CP6 24 0.264
81 CP6 25 2.218
81 CP6 26 5.636
81 CP6 27 8.077
81 CP6 28 9.054
81 CP6 29 8.077
81 CP6 30 6.612
81 CP6 31 5.147
81 CP6 32 5.147
81 CP6 33 5.147
81 CP6 34 5.636
81 CP6 35 5.147
81 CP6 36 3.194
81 CP6 37 0.753
81 CP6 38 -1.689
81 CP6 39 -3.153
81 CP6 40 -4.618
81 CP6 41 -5.107
81 CP6 42 -5.595
81 CP6 43 -5.595
81 CP6 44 -5.107
81 CP6 45 -3.642
81 CP6 46 -2.665
81 CP6 47 -1.689
81 CP6 48 -1.200
81 CP6 49 -1.200
81 CP6 50 -0.224
81 CP6 51 1.729
81 CP6 52 4.659
81 CP6 53 6.612
81 CP6 54 7.100
81 CP6 55 6.612
81 CP6 56 5.636
81 CP6 57 4.171
81 CP6 58 3.194
81 CP6 59 1.241
81 CP6 60 -1.200
81 CP6 61 -3.642
81 CP6 62 -5.595
81 CP6 63 -5.595
81 CP6 64 -4.130
81 CP6 65 -3.153
81 CP6 66 -2.665
81 CP6 67 -3.642
81 CP6 68 -5.107
81 CP6 69 -6.083
81 CP6 70 -7.060
81 CP6 71 -7.548
81 CP6 72 -9.013
81 CP6 73 -9.989
81 CP6 74 -9.989
81 CP6 75 -9.013
81 CP6 76 -8.036
81 CP6 77 -6.571
81 CP6 78 -7.060
81 CP6 79 -9.013
81 CP6 80 -10.478
81 CP6 81 -10.966
81 CP6 82 -9.501
81 CP6 83 -8.036
81 CP6 84 -6.571
81 CP6 85 -6.571
81 CP6 86 -7.548
81 CP6 87 -8.525
81 CP6 88 -9.013
81 CP6 89 -8.525
81 CP6 90 -8.525
81 CP6 91 -8.525
81 CP6 92 -9.013
81 CP6 93 -9.013
81 CP6 94 -9.013
81 CP6 95 -8.525
81 CP6 96 -9.501
81 CP6 97 -10.478
81 CP6 98 -11.943
81 CP6 99 -12.431
81 CP6 100 -11.454
81 CP6 101 -9.501
81 CP6 102 -8.036
81 CP6 103 -8.036
81 CP6 104 -9.501
81 CP6 105 -11.454
81 CP6 106 -11.943
81 CP6 107 -11.454
81 CP6 108 -9.501
81 CP6 109 -7.060
81 CP6 110 -6.083
81 CP6 111 -5.595
81 CP6 112 -6.083
81 CP6 113 -6.571
81 CP6 114 -7.060
81 CP6 115 -8.525
81 CP6 116 -10.478
81 CP6 117 -11.943
81 CP6 118 -11.943
81 CP6 119 -9.501
81 CP6 120 -6.571
81 CP6 121 -4.130
81 CP6 122 -3.642
81 CP6 123 -5.107
81 CP6 124 -7.548
81 CP6 125 -8.525
81 CP6 126 -8.525
81 CP6 127 -7.060
81 CP6 128 -6.571
81 CP6 129 -6.571
81 CP6 130 -6.571
81 CP6 131 -6.083
81 CP6 132 -4.130
81 CP6 133 -1.200
81 CP6 134 -0.224
81 CP6 135 -0.224
81 CP6 136 -1.689
81 CP6 137 -4.130
81 CP6 138 -5.107
81 CP6 139 -5.107
81 CP6 140 -5.107
81 CP6 141 -4.618
81 CP6 142 -4.618
81 CP6 143 -4.130
81 CP6 144 -2.665
81 CP6 145 -1.200
81 CP6 146 -0.224
81 CP6 147 -0.712
81 CP6 148 -1.689
81 CP6 149 -3.153
81 CP6 150 -3.642
81 CP6 151 -3.642
81 CP6 152 -2.665
81 CP6 153 -2.177
81 CP6 154 -2.665
81 CP6 155 -3.153
81 CP6 156 -3.153
81 CP6 157 -3.153
81 CP6 158 -4.130
81 CP6 159 -5.107
81 CP6 160 -6.083
81 CP6 161 -6.571
81 CP6 162 -5.595
81 CP6 163 -3.642
81 CP6 164 -2.665
81 CP6 165 -2.177
81 CP6 166 -3.642
81 CP6 167 -4.130
81 CP6 168 -4.130
81 CP6 169 -2.665
81 CP6 170 -0.712
81 CP6 171 -0.224
81 CP6 172 -0.712
81 CP6 173 -2.177
81 CP6 174 -2.177
81 CP6 175 -1.200
81 CP6 176 0.264
81 CP6 177 0.753
81 CP6 178 -0.224
81 CP6 179 -2.665
81 CP6 180 -4.130
81 CP6 181 -4.618
81 CP6 182 -3.642
81 CP6 183 -2.177
81 CP6 184 -3.153
81 CP6 185 -5.107
81 CP6 186 -7.548
81 CP6 187 -9.013
81 CP6 188 -8.036
81 CP6 189 -5.107
81 CP6 190 -2.177
81 CP6 191 -1.200
81 CP6 192 -3.153
81 CP6 193 -5.595
81 CP6 194 -7.060
81 CP6 195 -6.083
81 CP6 196 -4.130
81 CP6 197 -2.177
81 CP6 198 -2.665
81 CP6 199 -5.107
81 CP6 200 -8.036
81 CP6 201 -9.989
81 CP6 202 -9.989
81 CP6 203 -9.013
81 CP6 204 -9.013
81 CP6 205 -9.501
81 CP6 206 -10.966
81 CP6 207 -12.431
81 CP6 208 -12.431
81 CP6 209 -11.454
81 CP6 210 -10.478
81 CP6 211 -10.966
81 CP6 212 -12.431
81 CP6 213 -13.896
81 CP6 214 -14.872
81 CP6 215 -14.384
81 CP6 216 -13.407
81 CP6 217 -11.943
81 CP6 218 -11.454
81 CP6 219 -11.943
81 CP6 220 -13.407
81 CP6 221 -14.384
81 CP6 222 -15.361
81 CP6 223 -16.825
81 CP6 224 -18.290
81 CP6 225 -19.267
81 CP6 226 -19.755
81 CP6 227 -19.755
81 CP6 228 -18.778
81 CP6 229 -18.290
81 CP6 230 -19.267
81 CP6 231 -21.708
81 CP6 232 -25.126
81 CP6 233 -29.032
81 CP6 234 -31.474
81 CP6 235 -31.962
81 CP6 236 -31.962
81 CP6 237 -30.986
81 CP6 238 -30.497
81 CP6 239 -30.986
81 CP6 240 -30.986
81 CP6 241 -30.986
81 CP6 242 -30.986
81 CP6 243 -31.474
81 CP6 244 -31.962
81 CP6 245 -32.450
81 CP6 246 -31.962
81 CP6 247 -30.986
81 CP6 248 -29.521
81 CP6 249 -28.056
81 CP6 250 -27.568
81 CP6 251 -29.032
81 CP6 252 -30.497
81 CP6 253 -32.450
81 CP6 254 -34.403
81 CP6 255 -35.380
# CP1 chan 20
81 CP1 0 -3.387
81 CP1 1 -3.387
81 CP1 2 -2.411
81 CP1 3 -1.434
81 CP1 4 -0.946
81 CP1 5 -0.946
81 CP1 6 -1.434
81 CP1 7 -1.434
81 CP1 8 -1.434
81 CP1 9 -0.458
81 CP1 10 0.031
81 CP1 11 0.519
81 CP1 12 1.495
81 CP1 13 1.495
81 CP1 14 1.007
81 CP1 15 0.519
81 CP1 16 -0.458
81 CP1 17 -1.434
81 CP1 18 -2.411
81 CP1 19 -3.387
81 CP1 20 -3.876
81 CP1 21 -4.852
81 CP1 22 -5.829
81 CP1 23 -6.317
81 CP1 24 -5.341
81 CP1 25 -2.899
81 CP1 26 0.031
81 CP1 27 2.472
81 CP1 28 3.937
81 CP1 29 4.425
81 CP1 30 3.448
81 CP1 31 1.984
81 CP1 32 1.007
81 CP1 33 -0.458
81 CP1 34 -1.434
81 CP1 35 -2.411
81 CP1 36 -3.387
81 CP1 37 -3.387
81 CP1 38 -2.411
81 CP1 39 -0.946
81 CP1 40 0.031
81 CP1 41 0.031
81 CP1 42 -0.946
81 CP1 43 -3.387
81 CP1 44 -6.317
81 CP1 45 -7.782
81 CP1 46 -8.270
81 CP1 47 -7.782
81 CP1 48 -7.294
81 CP1 49 -6.317
81 CP1 50 -4.364
81 CP1 51 -3.387
81 CP1 52 -1.923
81 CP1 53 -0.946
81 CP1 54 0.031
81 CP1 55 0.031
81 CP1 56 0.519
81 CP1 57 1.007
81 CP1 58 1.495
81 CP1 59 1.495
81 CP1 60 1.007
81 CP1 61 0.031
81 CP1 62 -0.458
81 CP1 63 -1.434
81 CP1 64 -0.946
81 CP1 65 -0.946
81 CP1 66 -0.458
81 CP1 67 -0.946
81 CP1 68 -1.923
81 CP1 69 -2.899
81 CP1 70 -4.364
81 CP1 71 -5.341
81 CP1 72 -6.317
81 CP1 73 -6.805
81 CP1 74 -6.805
81 CP1 75 -6.805
81 CP1 76 -6.317
81 CP1 77 -5.341
81 CP1 78 -4.852
81 CP1 79 -4.852
81 CP1 80 -4.852
81 CP1 81 -4.852
81 CP1 82 -5.341
81 CP1 83 -4.852
81 CP1 84 -4.364
81 CP1 85 -3.387
81 CP1 86 -2.411
81 CP1 87 -1.923
81 CP1 88 -1.923
81 CP1 89 -2.411
81 CP1 90 -1.923
81 CP1 91 -2.411
81 CP1 92 -1.923
81 CP1 93 -1.434
81 CP1 94 -0.946
81 CP1 95 -0.946
81 CP1 96 -1.434
81 CP1 97 -2.411
81 CP1 98 -2.899
81 CP1 99 -3.387
81 CP1 100 -3.387
81 CP1 101 -2.899
81 CP1 102 -2.899
81 CP1 103 -2.899
81 CP1 104 -3.387
81 CP1 105 -3.876
81 CP1 106 -4.364
81 CP1 107 -4.852
81 CP1 108 -4.364
81 CP1 109 -3.876
81 CP1 110 -3.387
81 CP1 111 -2.411
81 CP1 112 -1.923
81 CP1 113 -2.411
81 CP1 114 -3.387
81 CP1 115 -5.341
81 CP1 116 -7.294
81 CP1 117 -7.782
81 CP1 118 -7.294
81 CP1 119 -6.317
81 CP1 120 -4.364
81 CP1 121 -3.876
81 CP1 122 -3.876
81 CP1 123 -4.852
81 CP1 124 -5.341
81 CP1 125 -6.317
81 CP1 126 -5.829
81 CP1 127 -4.852
81 CP1 128 -3.876
81 CP1 129 -3.387
81 CP1 130 -2.899
81 CP1 131 -2.899
81 CP1 132 -2.411
81 CP1 133 -2.411
81 CP1 134 -2.411
81 CP1 135 -2.411
81 CP1 136 -2.899
81 CP1 137 -3.387
81 CP1 138 -3.387
81 CP1 139 -3.387
81 CP1 140 -3.876
81 CP1 141 -4.364
81 CP1 142 -4.852
81 CP1 143 -5.829
81 CP1 144 -5.829
81 CP1 145 -5.341
81 CP1 146 -4.852
81 CP1 147 -4.364
81 CP1 148 -3.876
81 CP1 149 -3.876
81 CP1 150 -3.876
81 CP1 151 -3.387
81 CP1 152 -2.899
81 CP1 153 -2.899
81 CP1 154 -2.411
81 CP1 155 -2.411
81 CP1 156 -2.411
81 CP1 157 -2.899
81 CP1 158 -2.899
81 CP1 159 -3.387
81 CP1 160 -3.387
81 CP1 161 -3.387
81 CP1 162 -3.387
81 CP1 163 -2.899
81 CP1 164 -3.387
81 CP1 165 -3.876
81 CP1 166 -4.852
81 CP1 167 -5.829
81 CP1 168 -6.317
81 CP1 169 -5.829
81 CP1 170 -4.852
81 CP1 171 -3.876
81 CP1 172 -3.387
81 CP1 173 -3.876
81 CP1 174 -4.364
81 CP1 175 -4.852
81 CP1 176 -4.852
81 CP1 177 -4.852
81 CP1 178 -4.852
81 CP1 179 -4.852
81 CP1 180 -4.852
81 CP1 181 -3.876
81 CP1 182 -2.899
81 CP1 183 -1.923
81 CP1 184 -0.946
81 CP1 185 -0.458
81 CP1 186 -0.946
81 CP1 187 -1.434
81 CP1 188 -1.923
81 CP1 189 -2.411
81 CP1 190 -3.387
81 CP1 191 -4.364
81 CP1 192 -4.852
81 CP1 193 -5.829
81 CP1 194 -6.317
81 CP1 195 -6.317
81 CP1 196 -5.341
81 CP1 197 -3.876
81 CP1 198 -2.899
81 CP1 199 -1.434
81 CP1 200 -1.434
81 CP1 201 -1.923
81 CP1 202 -2.899
81 CP1 203 -4.364
81 CP1 204 -5.341
81 CP1 205 -6.317
81 CP1 206 -5.829
81 CP1 207 -5.341
81 CP1 208 -4.364
81 CP1 209 -3.876
81 CP1 210 -3.387
81 CP1 211 -2.899
81 CP1 212 -2.899
81 CP1 213 -3.387
81 CP1 214 -3.387
81 CP1 215 -3.387
81 CP1 216 -3.387
81 CP1 217 -3.876
81 CP1 218 -4.364
81 CP1 219 -5.341
81 CP1 220 -5.829
81 CP1 221 -5.829
81 CP1 222 -6.317
81 CP1 223 -6.805
81 CP1 224 -7.294
81 CP1 225 -7.782
81 CP1 226 -7.782
81 CP1 227 -7.782
81 CP1 228 -6.805
81 CP1 229 -6.317
81 CP1 230 -6.317
81 CP1 231 -7.294
81 CP1 232 -8.270
81 CP1 233 -9.735
81 CP1 234 -10.712
81 CP1 235 -10.223
81 CP1 236 -9.247
81 CP1 237 -8.270
81 CP1 238 -8.270
81 CP1 239 -8.759
81 CP1 240 -9.735
81 CP1 241 -11.200
81 CP1 242 -12.177
81 CP1 243 -12.665
81 CP1 244 -12.665
81 CP1 245 -13.153
81 CP1 246 -13.153
81 CP1 247 -12.665
81 CP1 248 -11.688
81 CP1 249 -10.712
81 CP1 250 -9.735
81 CP1 251 -10.712
81 CP1 252 -12.177
81 CP1 253 -13.641
81 CP1 254 -14.618
81 CP1 255 -15.106
# CP2 chan 21
81 CP2 0 -0.326
81 CP2 1 -0.814
81 CP2 2 -1.790
81 CP2 3 -2.767
81 CP2 4 -3.255
81 CP2 5 -2.279
81 CP2 6 -1.302
81 CP2 7 -0.326
81 CP2 8 0.163
81 CP2 9 -0.326
81 CP2 10 -0.326
81 CP2 11 -0.814
81 CP2 12 -0.326
81 CP2 13 -0.326
81 CP2 14 -0.326
81 CP2 15 -0.814
81 CP2 16 -0.814
81 CP2 17 -0.814
81 CP2 18 -0.814
81 CP2 19 -0.814
81 CP2 20 -1.302
81 CP2 21 -2.279
81 CP2 22 -3.743
81 CP2 23 -4.232
81 CP2 24 -3.743
81 CP2 25 -2.279
81 CP2 26 -0.326
81 CP2 27 1.139
81 CP2 28 1.628
81 CP2 29 1.628
81 CP2 30 1.139
81 CP2 31 0.651
81 CP2 32 0.651
81 CP2 33 0.651
81 CP2 34 0.163
81 CP2 35 -0.326
81 CP2 36 -1.302
81 CP2 37 -2.279
81 CP2 38 -2.279
81 CP2 39 -2.767
81 CP2 40 -2.279
81 CP2 41 -2.767
81 CP2 42 -2.767
81 CP2 43 -3.255
81 CP2 44 -3.743
81 CP2 45 -3.743
81 CP2 46 -4.232
81 CP2 47 -4.232
81 CP2 48 -3.743
81 CP2 49 -3.743
81 CP2 50 -2.767
81 CP2 51 -1.302
81 CP2 52 0.163
81 CP2 53 1.628
81 CP2 54 2.116
81 CP2 55 2.604
81 CP2 56 2.604
81 CP2 57 3.092
81 CP2 58 3.092
81 CP2 59 2.604
81 CP2 60 1.628
81 CP2 61 0.651
81 CP2 62 -0.326
81 CP2 63 -0.814
81 CP2 64 0.163
81 CP2 65 1.139
81 CP2 66 2.116
81 CP2 67 2.116
81 CP2 68 1.139
81 CP2 69 0.163
81 CP2 70 -1.790
81 CP2 71 -2.767
81 CP2 72 -3.743
81 CP2 73 -3.743
81 CP2 74 -3.743
81 CP2 75 -2.767
81 CP2 76 -1.302
81 CP2 77 -0.814
81 CP2 78 -0.814
81 CP2 79 -1.790
81 CP2 80 -2.767
81 CP2 81 -3.255
81 CP2 82 -2.767
81 CP2 83 -2.279
81 CP2 84 -1.302
81 CP2 85 -0.326
81 CP2 86 -0.326
81 CP2 87 -0.814
81 CP2 88 -1.302
81 CP2 89 -1.790
81 CP2 90 -1.790
81 CP2 91 -1.790
81 CP2 92 -1.790
81 CP2 93 -1.302
81 CP2 94 -1.302
81 CP2 95 -1.302
81 CP2 96 -2.279
81 CP2 97 -3.255
81 CP2 98 -3.743
81 CP2 99 -3.743
81 CP2 100 -2.767
81 CP2 101 -1.302
81 CP2 102 -0.326
81 CP2 103 0.163
81 CP2 104 -0.326
81 CP2 105 -1.302
81 CP2 106 -2.279
81 CP2 107 -3.255
81 CP2 108 -3.255
81 CP2 109 -2.767
81 CP2 110 -1.790
81 CP2 111 -0.814
81 CP2 112 -0.326
81 CP2 113 -0.326
81 CP2 114 -1.302
81 CP2 115 -2.767
81 CP2 116 -4.720
81 CP2 117 -6.185
81 CP2 118 -6.185
81 CP2 119 -4.232
81 CP2 120 -2.767
81 CP2 121 -1.790
81 CP2 122 -1.790
81 CP2 123 -3.255
81 CP2 124 -4.720
81 CP2 125 -5.208
81 CP2 126 -5.208
81 CP2 127 -4.720
81 CP2 128 -4.232
81 CP2 129 -3.743
81 CP2 130 -3.255
81 CP2 131 -2.767
81 CP2 132 -1.790
81 CP2 133 -0.326
81 CP2 134 0.163
81 CP2 135 -0.326
81 CP2 136 -1.302
81 CP2 137 -2.279
81 CP2 138 -2.767
81 CP2 139 -2.767
81 CP2 140 -3.255
81 CP2 141 -4.232
81 CP2 142 -4.720
81 CP2 143 -5.208
81 CP2 144 -5.208
81 CP2 145 -4.232
81 CP2 146 -3.743
81 CP2 147 -3.743
81 CP2 148 -4.720
81 CP2 149 -5.697
81 CP2 150 -6.185
81 CP2 151 -5.208
81 CP2 152 -4.232
81 CP2 153 -3.255
81 CP2 154 -2.279
81 CP2 155 -1.790
81 CP2 156 -1.790
81 CP2 157 -1.790
81 CP2 158 -2.279
81 CP2 159 -3.255
81 CP2 160 -3.743
81 CP2 161 -3.743
81 CP2 162 -3.255
81 CP2 163 -2.279
81 CP2 164 -1.790
81 CP2 165 -2.279
81 CP2 166 -3.255
81 CP2 167 -4.232
81 CP2 168 -4.232
81 CP2 169 -3.255
81 CP2 170 -2.279
81 CP2 171 -1.790
81 CP2 172 -2.279
81 CP2 173 -2.767
81 CP2 174 -3.255
81 CP2 175 -2.767
81 CP2 176 -2.279
81 CP2 177 -1.790
81 CP2 178 -1.790
81 CP2 179 -2.279
81 CP2 180 -2.767
81 CP2 181 -2.279
81 CP2 182 -2.279
81 CP2 183 -1.302
81 CP2 184 -1.790
81 CP2 185 -2.279
81 CP2 186 -3.743
81 CP2 187 -4.232
81 CP2 188 -3.743
81 CP2 189 -2.767
81 CP2 190 -1.790
81 CP2 191 -1.790
81 CP2 192 -2.767
81 CP2 193 -4.232
81 CP2 194 -5.208
81 CP2 195 -4.720
81 CP2 196 -3.743
81 CP2 197 -2.279
81 CP2 198 -1.790
81 CP2 199 -1.790
81 CP2 200 -2.279
81 CP2 201 -3.255
81 CP2 202 -3.255
81 CP2 203 -3.255
81 CP2 204 -3.743
81 CP2 205 -4.232
81 CP2 206 -4.720
81 CP2 207 -4.720
81 CP2 208 -4.232
81 CP2 209 -3.743
81 CP2 210 -3.255
81 CP2 211 -3.255
81 CP2 212 -3.743
81 CP2 213 -4.232
81 CP2 214 -4.720
81 CP2 215 -4.720
81 CP2 216 -4.232
81 CP2 217 -3.743
81 CP2 218 -3.255
81 CP2 219 -3.255
81 CP2 220 -3.255
81 CP2 221 -3.743
81 CP2 222 -4.232
81 CP2 223 -5.697
81 CP2 224 -6.673
81 CP2 225 -7.650
81 CP2 226 -8.138
81 CP2 227 -7.650
81 CP2 228 -7.161
81 CP2 229 -6.673
81 CP2 230 -7.650
81 CP2 231 -9.115
81 CP2 232 -11.068
81 CP2 233 -13.021
81 CP2 234 -13.509
81 CP2 235 -13.997
81 CP2 236 -13.021
81 CP2 237 -11.556
81 CP2 238 -11.556
81 CP2 239 -11.068
81 CP2 240 -11.556
81 CP2 241 -12.044
81 CP2 242 -12.533
81 CP2 243 -13.021
81 CP2 244 -13.509
81 CP2 245 -13.509
81 CP2 246 -13.509
81 CP2 247 -12.533
81 CP2 248 -11.068
81 CP2 249 -9.603
81 CP2 250 -9.603
81 CP2 251 -10.579
81 CP2 252 -12.533
81 CP2 253 -14.974
81 CP2 254 -16.439
81 CP2 255 -16.927
# P3 chan 22
81 P3 0 -5.880
81 P3 1 -7.345
81 P3 2 -6.368
81 P3 3 -4.415
81 P3 4 -3.438
81 P3 5 -2.950
81 P3 6 -3.927
81 P3 7 -4.415
81 P3 8 -4.415
81 P3 9 -2.950
81 P3 10 -1.485
81 P3 11 0.468
81 P3 12 1.444
81 P3 13 1.933
81 P3 14 1.933
81 P3 15 0.468
81 P3 16 -0.997
81 P3 17 -2.462
81 P3 18 -3.927
81 P3 19 -5.391
81 P3 20 -6.856
81 P3 21 -8.321
81 P3 22 -9.298
81 P3 23 -8.809
81 P3 24 -6.368
81 P3 25 -1.973
81 P3 26 2.909
81 P3 27 7.304
81 P3 28 9.745
81 P3 29 9.745
81 P3 30 7.792
81 P3 31 4.862
81 P3 32 1.933
81 P3 33 -0.997
81 P3 34 -3.438
81 P3 35 -5.391
81 P3 36 -6.856
81 P3 37 -6.856
81 P3 38 -5.391
81 P3 39 -4.415
81 P3 40 -3.438
81 P3 41 -3.927
81 P3 42 -5.391
81 P3 43 -7.833
81 P3 44 -9.298
81 P3 45 -10.274
81 P3 46 -10.274
81 P3 47 -9.786
81 P3 48 -8.809
81 P3 49 -6.856
81 P3 50 -3.927
81 P3 51 -0.997
81 P3 52 1.444
81 P3 53 3.886
81 P3 54 5.351
81 P3 55 6.327
81 P3 56 6.816
81 P3 57 6.816
81 P3 58 5.839
81 P3 59 3.398
81 P3 60 0.956
81 P3 61 -1.485
81 P3 62 -2.462
81 P3 63 -2.950
81 P3 64 -1.973
81 P3 65 -1.485
81 P3 66 -1.973
81 P3 67 -2.950
81 P3 68 -4.415
81 P3 69 -5.880
81 P3 70 -7.833
81 P3 71 -9.786
81 P3 72 -11.251
81 P3 73 -12.227
81 P3 74 -12.716
81 P3 75 -12.716
81 P3 76 -11.739
81 P3 77 -11.251
81 P3 78 -10.274
81 P3 79 -10.274
81 P3 80 -10.274
81 P3 81 -10.763
81 P3 82 -10.763
81 P3 83 -10.274
81 P3 84 -8.809
81 P3 85 -7.833
81 P3 86 -6.368
81 P3 87 -5.880
81 P3 88 -4.903
81 P3 89 -4.903
81 P3 90 -4.415
81 P3 91 -4.415
81 P3 92 -3.438
81 P3 93 -2.950
81 P3 94 -2.462
81 P3 95 -2.462
81 P3 96 -3.927
81 P3 97 -5.391
81 P3 98 -6.856
81 P3 99 -7.345
81 P3 100 -7.345
81 P3 101 -6.856
81 P3 102 -6.856
81 P3 103 -6.856
81 P3 104 -7.345
81 P3 105 -7.833
81 P3 106 -7.833
81 P3 107 -7.833
81 P3 108 -7.345
81 P3 109 -6.368
81 P3 110 -5.391
81 P3 111 -4.415
81 P3 112 -3.927
81 P3 113 -4.415
81 P3 114 -6.856
81 P3 115 -9.786
81 P3 116 -12.716
81 P3 117 -14.181
81 P3 118 -13.204
81 P3 119 -10.763
81 P3 120 -7.345
81 P3 121 -5.880
81 P3 122 -5.880
81 P3 123 -7.345
81 P3 124 -9.298
81 P3 125 -10.274
81 P3 126 -9.298
81 P3 127 -7.833
81 P3 128 -6.368
81 P3 129 -5.391
81 P3 130 -4.903
81 P3 131 -4.415
81 P3 132 -3.927
81 P3 133 -3.438
81 P3 134 -3.438
81 P3 135 -3.927
81 P3 136 -4.903
81 P3 137 -5.391
81 P3 138 -5.880
81 P3 139 -5.880
81 P3 140 -5.880
81 P3 141 -6.368
81 P3 142 -7.345
81 P3 143 -7.833
81 P3 144 -8.321
81 P3 145 -7.345
81 P3 146 -6.856
81 P3 147 -5.880
81 P3 148 -5.391
81 P3 149 -5.391
81 P3 150 -4.415
81 P3 151 -3.927
81 P3 152 -2.950
81 P3 153 -2.950
81 P3 154 -2.950
81 P3 155 -2.950
81 P3 156 -3.438
81 P3 157 -3.438
81 P3 158 -3.927
81 P3 159 -4.903
81 P3 160 -5.391
81 P3 161 -6.368
81 P3 162 -5.880
81 P3 163 -5.880
81 P3 164 -6.368
81 P3 165 -7.833
81 P3 166 -9.786
81 P3 167 -11.251
81 P3 168 -11.739
81 P3 169 -10.274
81 P3 170 -8.321
81 P3 171 -6.856
81 P3 172 -6.856
81 P3 173 -7.345
81 P3 174 -8.321
81 P3 175 -8.321
81 P3 176 -8.809
81 P3 177 -9.298
81 P3 178 -10.274
81 P3 179 -10.763
81 P3 180 -10.274
81 P3 181 -8.321
81 P3 182 -4.903
81 P3 183 -1.485
81 P3 184 0.956
81 P3 185 2.421
81 P3 186 1.933
81 P3 187 0.468
81 P3 188 -1.485
81 P3 189 -4.415
81 P3 190 -6.856
81 P3 191 -9.298
81 P3 192 -11.251
81 P3 193 -12.227
81 P3 194 -12.716
81 P3 195 -12.716
81 P3 196 -11.739
81 P3 197 -10.274
81 P3 198 -7.833
81 P3 199 -5.880
81 P3 200 -4.903
81 P3 201 -5.880
81 P3 202 -8.809
81 P3 203 -11.739
81 P3 204 -14.669
81 P3 205 -15.157
81 P3 206 -14.669
81 P3 207 -13.692
81 P3 208 -12.716
81 P3 209 -12.227
81 P3 210 -12.227
81 P3 211 -12.227
81 P3 212 -12.227
81 P3 213 -11.739
81 P3 214 -11.251
81 P3 215 -10.763
81 P3 216 -10.763
81 P3 217 -11.251
81 P3 218 -12.227
81 P3 219 -13.692
81 P3 220 -15.157
81 P3 221 -16.134
81 P3 222 -17.110
81 P3 223 -18.575
81 P3 224 -20.040
81 P3 225 -21.016
81 P3 226 -21.505
81 P3 227 -21.016
81 P3 228 -19.552
81 P3 229 -19.063
81 P3 230 -19.063
81 P3 231 -21.016
81 P3 232 -23.946
81 P3 233 -26.876
81 P3 234 -28.829
81 P3 235 -28.341
81 P3 236 -26.876
81 P3 237 -25.411
81 P3 238 -24.923
81 P3 239 -25.899
81 P3 240 -27.852
81 P3 241 -29.806
81 P3 242 -31.759
81 P3 243 -32.735
81 P3 244 -33.223
81 P3 245 -33.712
81 P3 246 -33.712
81 P3 247 -32.247
81 P3 248 -30.294
81 P3 249 -28.341
81 P3 250 -26.876
81 P3 251 -27.852
81 P3 252 -29.806
81 P3 253 -32.735
81 P3 254 -34.200
81 P3 255 -34.200
# P4 chan 23
81 P4 0 1.322
81 P4 1 -0.142
81 P4 2 -2.096
81 P4 3 -4.049
81 P4 4 -5.514
81 P4 5 -4.537
81 P4 6 -3.072
81 P4 7 -0.631
81 P4 8 0.346
81 P4 9 0.346
81 P4 10 -0.631
81 P4 11 -1.119
81 P4 12 -1.119
81 P4 13 -1.119
81 P4 14 -1.607
81 P4 15 -2.584
81 P4 16 -3.560
81 P4 17 -3.560
81 P4 18 -3.072
81 P4 19 -2.584
81 P4 20 -3.072
81 P4 21 -4.537
81 P4 22 -6.978
81 P4 23 -7.955
81 P4 24 -6.978
81 P4 25 -3.560
81 P4 26 1.322
81 P4 27 5.229
81 P4 28 7.182
81 P4 29 7.182
81 P4 30 5.717
81 P4 31 3.764
81 P4 32 2.299
81 P4 33 1.811
81 P4 34 0.834
81 P4 35 -0.631
81 P4 36 -3.072
81 P4 37 -6.002
81 P4 38 -7.467
81 P4 39 -8.443
81 P4 40 -7.955
81 P4 41 -6.978
81 P4 42 -6.978
81 P4 43 -6.978
81 P4 44 -6.978
81 P4 45 -6.490
81 P4 46 -5.514
81 P4 47 -4.537
81 P4 48 -3.560
81 P4 49 -2.096
81 P4 50 0.346
81 P4 51 2.787
81 P4 52 6.205
81 P4 53 8.647
81 P4 54 9.623
81 P4 55 9.135
81 P4 56 8.158
81 P4 57 6.694
81 P4 58 5.229
81 P4 59 3.764
81 P4 60 1.322
81 P4 61 -0.631
81 P4 62 -2.096
81 P4 63 -2.096
81 P4 64 -0.142
81 P4 65 1.811
81 P4 66 2.787
81 P4 67 2.299
81 P4 68 0.834
81 P4 69 -1.607
81 P4 70 -4.537
81 P4 71 -6.490
81 P4 72 -8.443
81 P4 73 -9.908
81 P4 74 -9.420
81 P4 75 -7.955
81 P4 76 -5.514
81 P4 77 -4.049
81 P4 78 -4.537
81 P4 79 -6.490
81 P4 80 -8.931
81 P4 81 -9.420
81 P4 82 -7.955
81 P4 83 -6.490
81 P4 84 -4.049
81 P4 85 -3.072
81 P4 86 -3.072
81 P4 87 -3.560
81 P4 88 -4.049
81 P4 89 -4.537
81 P4 90 -4.537
81 P4 91 -5.025
81 P4 92 -5.025
81 P4 93 -5.025
81 P4 94 -4.537
81 P4 95 -5.025
81 P4 96 -6.002
81 P4 97 -8.443
81 P4 98 -9.908
81 P4 99 -10.396
81 P4 100 -8.443
81 P4 101 -6.002
81 P4 102 -4.537
81 P4 103 -4.537
81 P4 104 -6.490
81 P4 105 -8.931
81 P4 106 -10.885
81 P4 107 -10.885
81 P4 108 -9.908
81 P4 109 -7.955
81 P4 110 -6.490
81 P4 111 -5.514
81 P4 112 -4.537
81 P4 113 -4.537
81 P4 114 -5.514
81 P4 115 -7.467
81 P4 116 -10.885
81 P4 117 -12.838
81 P4 118 -12.349
81 P4 119 -10.396
81 P4 120 -7.467
81 P4 121 -6.002
81 P4 122 -6.002
81 P4 123 -7.955
81 P4 124 -9.908
81 P4 125 -10.885
81 P4 126 -9.908
81 P4 127 -8.931
81 P4 128 -8.443
81 P4 129 -8.931
81 P4 130 -8.443
81 P4 131 -6.490
81 P4 132 -3.560
81 P4 133 -0.631
81 P4 134 0.346
81 P4 135 -0.631
81 P4 136 -2.584
81 P4 137 -4.049
81 P4 138 -4.537
81 P4 139 -4.537
81 P4 140 -5.025
81 P4 141 -6.490
81 P4 142 -7.955
81 P4 143 -8.443
81 P4 144 -7.955
81 P4 145 -6.490
81 P4 146 -6.002
81 P4 147 -6.978
81 P4 148 -8.443
81 P4 149 -8.931
81 P4 150 -8.931
81 P4 151 -6.978
81 P4 152 -5.514
81 P4 153 -4.537
81 P4 154 -4.537
81 P4 155 -4.537
81 P4 156 -4.537
81 P4 157 -4.537
81 P4 158 -5.025
81 P4 159 -6.490
81 P4 160 -8.443
81 P4 161 -9.908
81 P4 162 -9.420
81 P4 163 -7.955
81 P4 164 -6.490
81 P4 165 -6.490
81 P4 166 -6.978
81 P4 167 -7.955
81 P4 168 -7.955
81 P4 169 -6.490
81 P4 170 -4.537
81 P4 171 -4.049
81 P4 172 -4.537
81 P4 173 -6.490
81 P4 174 -6.978
81 P4 175 -6.490
81 P4 176 -5.025
81 P4 177 -4.049
81 P4 178 -4.537
81 P4 179 -6.002
81 P4 180 -6.978
81 P4 181 -6.490
81 P4 182 -4.537
81 P4 183 -1.607
81 P4 184 -0.631
81 P4 185 -2.096
81 P4 186 -4.537
81 P4 187 -6.490
81 P4 188 -7.467
81 P4 189 -6.490
81 P4 190 -5.025
81 P4 191 -5.514
81 P4 192 -6.978
81 P4 193 -9.908
81 P4 194 -10.885
81 P4 195 -10.396
81 P4 196 -7.955
81 P4 197 -5.514
81 P4 198 -4.537
81 P4 199 -5.514
81 P4 200 -6.978
81 P4 201 -8.443
81 P4 202 -9.908
81 P4 203 -9.908
81 P4 204 -10.885
81 P4 205 -11.861
81 P4 206 -13.326
81 P4 207 -13.814
81 P4 208 -13.326
81 P4 209 -12.838
81 P4 210 -11.861
81 P4 211 -11.861
81 P4 212 -12.838
81 P4 213 -14.303
81 P4 214 -14.791
81 P4 215 -14.791
81 P4 216 -13.814
81 P4 217 -12.838
81 P4 218 -12.349
81 P4 219 -12.838
81 P4 220 -13.326
81 P4 221 -14.303
81 P4 222 -14.791
81 P4 223 -16.744
81 P4 224 -18.697
81 P4 225 -21.139
81 P4 226 -22.603
81 P4 227 -22.603
81 P4 228 -22.115
81 P4 229 -21.139
81 P4 230 -22.115
81 P4 231 -24.556
81 P4 232 -28.463
81 P4 233 -32.369
81 P4 234 -34.322
81 P4 235 -34.810
81 P4 236 -34.322
81 P4 237 -34.322
81 P4 238 -34.810
81 P4 239 -36.275
81 P4 240 -37.252
81 P4 241 -38.228
81 P4 242 -37.740
81 P4 243 -37.740
81 P4 244 -37.740
81 P4 245 -37.740
81 P4 246 -36.764
81 P4 247 -34.810
81 P4 248 -32.369
81 P4 249 -30.416
81 P4 250 -29.928
81 P4 251 -32.369
81 P4 252 -35.299
81 P4 253 -38.717
81 P4 254 -41.158
81 P4 255 -42.135
# PZ chan 24
81 PZ 0 -3.255
81 PZ 1 -4.720
81 PZ 2 -4.720
81 PZ 3 -4.232
81 PZ 4 -3.743
81 PZ 5 -3.255
81 PZ 6 -2.767
81 PZ 7 -2.767
81 PZ 8 -2.767
81 PZ 9 -2.279
81 PZ 10 -1.790
81 PZ 11 -0.814
81 PZ 12 0.163
81 PZ 13 1.139
81 PZ 14 0.651
81 PZ 15 -0.814
81 PZ 16 -2.767
81 PZ 17 -4.720
81 PZ 18 -6.185
81 PZ 19 -7.161
81 PZ 20 -9.115
81 PZ 21 -11.068
81 PZ 22 -13.021
81 PZ 23 -13.509
81 PZ 24 -12.533
81 PZ 25 -9.115
81 PZ 26 -5.208
81 PZ 27 -0.814
81 PZ 28 2.116
81 PZ 29 2.604
81 PZ 30 1.628
81 PZ 31 -0.326
81 PZ 32 -1.790
81 PZ 33 -3.255
81 PZ 34 -4.232
81 PZ 35 -5.208
81 PZ 36 -6.673
81 PZ 37 -6.673
81 PZ 38 -6.185
81 PZ 39 -5.208
81 PZ 40 -3.743
81 PZ 41 -3.255
81 PZ 42 -4.232
81 PZ 43 -6.185
81 PZ 44 -8.626
81 PZ 45 -10.091
81 PZ 46 -11.556
81 PZ 47 -11.556
81 PZ 48 -11.068
81 PZ 49 -9.603
81 PZ 50 -7.650
81 PZ 51 -5.208
81 PZ 52 -2.279
81 PZ 53 0.163
81 PZ 54 2.116
81 PZ 55 3.092
81 PZ 56 4.069
81 PZ 57 4.069
81 PZ 58 3.581
81 PZ 59 3.092
81 PZ 60 2.116
81 PZ 61 0.163
81 PZ 62 -0.814
81 PZ 63 -0.814
81 PZ 64 0.163
81 PZ 65 2.116
81 PZ 66 3.092
81 PZ 67 3.581
81 PZ 68 1.628
81 PZ 69 -0.814
81 PZ 70 -4.232
81 PZ 71 -6.673
81 PZ 72 -8.626
81 PZ 73 -9.603
81 PZ 74 -9.603
81 PZ 75 -8.626
81 PZ 76 -8.138
81 PZ 77 -7.161
81 PZ 78 -7.161
81 PZ 79 -7.161
81 PZ 80 -7.650
81 PZ 81 -7.650
81 PZ 82 -7.650
81 PZ 83 -6.185
81 PZ 84 -4.720
81 PZ 85 -2.767
81 PZ 86 -1.302
81 PZ 87 -0.814
81 PZ 88 -0.814
81 PZ 89 -1.302
81 PZ 90 -1.790
81 PZ 91 -2.279
81 PZ 92 -1.790
81 PZ 93 -1.302
81 PZ 94 -0.814
81 PZ 95 -1.302
81 PZ 96 -2.279
81 PZ 97 -4.232
81 PZ 98 -5.208
81 PZ 99 -5.697
81 PZ 100 -4.720
81 PZ 101 -3.255
81 PZ 102 -2.279
81 PZ 103 -1.302
81 PZ 104 -1.790
81 PZ 105 -2.767
81 PZ 106 -4.232
81 PZ 107 -5.697
81 PZ 108 -6.185
81 PZ 109 -5.697
81 PZ 110 -4.720
81 PZ 111 -2.767
81 PZ 112 -1.302
81 PZ 113 -0.814
81 PZ 114 -2.767
81 PZ 115 -5.697
81 PZ 116 -9.115
81 PZ 117 -11.068
81 PZ 118 -11.068
81 PZ 119 -9.603
81 PZ 120 -7.650
81 PZ 121 -6.673
81 PZ 122 -7.650
81 PZ 123 -9.115
81 PZ 124 -11.068
81 PZ 125 -12.044
81 PZ 126 -11.556
81 PZ 127 -10.579
81 PZ 128 -9.603
81 PZ 129 -8.626
81 PZ 130 -8.138
81 PZ 131 -7.161
81 PZ 132 -5.208
81 PZ 133 -3.255
81 PZ 134 -2.767
81 PZ 135 -2.279
81 PZ 136 -2.767
81 PZ 137 -3.255
81 PZ 138 -3.743
81 PZ 139 -4.720
81 PZ 140 -5.697
81 PZ 141 -7.650
81 PZ 142 -10.091
81 PZ 143 -12.044
81 PZ 144 -13.509
81 PZ 145 -13.509
81 PZ 146 -13.509
81 PZ 147 -13.509
81 PZ 148 -13.997
81 PZ 149 -13.997
81 PZ 150 -13.021
81 PZ 151 -12.044
81 PZ 152 -10.091
81 PZ 153 -8.626
81 PZ 154 -7.650
81 PZ 155 -7.650
81 PZ 156 -7.161
81 PZ 157 -6.673
81 PZ 158 -6.185
81 PZ 159 -6.673
81 PZ 160 -7.161
81 PZ 161 -7.650
81 PZ 162 -7.650
81 PZ 163 -8.138
81 PZ 164 -8.138
81 PZ 165 -9.115
81 PZ 166 -11.068
81 PZ 167 -13.509
81 PZ 168 -14.486
81 PZ 169 -13.509
81 PZ 170 -11.556
81 PZ 171 -9.603
81 PZ 172 -8.626
81 PZ 173 -8.626
81 PZ 174 -9.603
81 PZ 175 -9.603
81 PZ 176 -9.115
81 PZ 177 -9.115
81 PZ 178 -9.115
81 PZ 179 -9.115
81 PZ 180 -9.115
81 PZ 181 -8.138
81 PZ 182 -6.185
81 PZ 183 -3.743
81 PZ 184 -2.279
81 PZ 185 -2.279
81 PZ 186 -3.255
81 PZ 187 -4.232
81 PZ 188 -4.720
81 PZ 189 -5.208
81 PZ 190 -5.208
81 PZ 191 -6.673
81 PZ 192 -8.626
81 PZ 193 -10.579
81 PZ 194 -11.556
81 PZ 195 -11.068
81 PZ 196 -9.115
81 PZ 197 -6.673
81 PZ 198 -4.232
81 PZ 199 -2.767
81 PZ 200 -1.790
81 PZ 201 -2.279
81 PZ 202 -4.232
81 PZ 203 -6.185
81 PZ 204 -8.138
81 PZ 205 -9.603
81 PZ 206 -9.603
81 PZ 207 -8.626
81 PZ 208 -6.673
81 PZ 209 -4.720
81 PZ 210 -3.743
81 PZ 211 -3.743
81 PZ 212 -4.232
81 PZ 213 -4.232
81 PZ 214 -4.232
81 PZ 215 -4.720
81 PZ 216 -4.720
81 PZ 217 -5.208
81 PZ 218 -5.697
81 PZ 219 -5.697
81 PZ 220 -5.697
81 PZ 221 -6.185
81 PZ 222 -7.161
81 PZ 223 -8.626
81 PZ 224 -10.579
81 PZ 225 -12.533
81 PZ 226 -13.509
81 PZ 227 -13.509
81 PZ 228 -12.533
81 PZ 229 -12.044
81 PZ 230 -12.533
81 PZ 231 -14.974
81 PZ 232 -17.904
81 PZ 233 -21.322
81 PZ 234 -22.298
81 PZ 235 -21.322
81 PZ 236 -19.857
81 PZ 237 -18.392
81 PZ 238 -17.904
81 PZ 239 -19.368
81 PZ 240 -21.322
81 PZ 241 -23.275
81 PZ 242 -24.740
81 PZ 243 -25.228
81 PZ 244 -26.204
81 PZ 245 -26.204
81 PZ 246 -25.716
81 PZ 247 -24.251
81 PZ 248 -21.810
81 PZ 249 -19.857
81 PZ 250 -18.880
81 PZ 251 -20.345
81 PZ 252 -23.275
81 PZ 253 -27.181
81 PZ 254 -29.622
81 PZ 255 -30.111
# P8 chan 25
81 P8 0 7.894
81 P8 1 6.917
81 P8 2 2.523
81 P8 3 -2.360
81 P8 4 -6.755
81 P8 5 -7.243
81 P8 6 -3.825
81 P8 7 0.570
81 P8 8 3.499
81 P8 9 3.011
81 P8 10 0.570
81 P8 11 -1.383
81 P8 12 -1.383
81 P8 13 -1.383
81 P8 14 -1.872
81 P8 15 -2.848
81 P8 16 -4.313
81 P8 17 -3.337
81 P8 18 -1.383
81 P8 19 2.035
81 P8 20 3.988
81 P8 21 3.499
81 P8 22 1.058
81 P8 23 -0.895
81 P8 24 -0.895
81 P8 25 2.035
81 P8 26 6.917
81 P8 27 11.312
81 P8 28 13.265
81 P8 29 12.288
81 P8 30 10.335
81 P8 31 7.894
81 P8 32 6.917
81 P8 33 6.429
81 P8 34 5.452
81 P8 35 4.476
81 P8 36 1.546
81 P8 37 -0.895
81 P8 38 -3.825
81 P8 39 -5.290
81 P8 40 -6.755
81 P8 41 -7.731
81 P8 42 -8.219
81 P8 43 -8.708
81 P8 44 -7.731
81 P8 45 -6.266
81 P8 46 -4.313
81 P8 47 -2.360
81 P8 48 0.081
81 P8 49 2.035
81 P8 50 4.964
81 P8 51 8.382
81 P8 52 12.288
81 P8 53 14.730
81 P8 54 15.706
81 P8 55 14.242
81 P8 56 11.312
81 P8 57 8.382
81 P8 58 5.452
81 P8 59 2.523
81 P8 60 0.081
81 P8 61 -2.848
81 P8 62 -4.313
81 P8 63 -4.801
81 P8 64 -4.313
81 P8 65 -3.337
81 P8 66 -3.337
81 P8 67 -4.313
81 P8 68 -5.290
81 P8 69 -6.266
81 P8 70 -7.243
81 P8 71 -8.219
81 P8 72 -9.684
81 P8 73 -11.149
81 P8 74 -10.661
81 P8 75 -8.708
81 P8 76 -6.266
81 P8 77 -4.801
81 P8 78 -6.266
81 P8 79 -9.196
81 P8 80 -11.637
81 P8 81 -12.614
81 P8 82 -10.661
81 P8 83 -7.731
81 P8 84 -5.290
81 P8 85 -4.801
81 P8 86 -5.778
81 P8 87 -6.755
81 P8 88 -7.243
81 P8 89 -6.755
81 P8 90 -7.243
81 P8 91 -7.731
81 P8 92 -8.708
81 P8 93 -9.196
81 P8 94 -8.708
81 P8 95 -7.731
81 P8 96 -7.731
81 P8 97 -10.173
81 P8 98 -12.614
81 P8 99 -14.079
81 P8 100 -13.102
81 P8 101 -10.173
81 P8 102 -8.219
81 P8 103 -8.708
81 P8 104 -10.661
81 P8 105 -13.102
81 P8 106 -14.079
81 P8 107 -12.614
81 P8 108 -9.684
81 P8 109 -6.755
81 P8 110 -5.778
81 P8 111 -5.778
81 P8 112 -5.778
81 P8 113 -5.290
81 P8 114 -5.290
81 P8 115 -6.755
81 P8 116 -9.684
81 P8 117 -13.102
81 P8 118 -13.590
81 P8 119 -11.149
81 P8 120 -6.755
81 P8 121 -3.337
81 P8 122 -2.848
81 P8 123 -5.290
81 P8 124 -7.731
81 P8 125 -8.219
81 P8 126 -6.266
81 P8 127 -3.337
81 P8 128 -2.360
81 P8 129 -2.360
81 P8 130 -3.337
81 P8 131 -2.360
81 P8 132 1.058
81 P8 133 4.476
81 P8 134 6.429
81 P8 135 5.452
81 P8 136 2.523
81 P8 137 0.081
81 P8 138 -0.895
81 P8 139 -0.895
81 P8 140 -0.407
81 P8 141 -0.407
81 P8 142 -0.895
81 P8 143 -0.895
81 P8 144 0.081
81 P8 145 1.546
81 P8 146 2.523
81 P8 147 2.035
81 P8 148 0.570
81 P8 149 -0.407
81 P8 150 0.081
81 P8 151 1.546
81 P8 152 3.011
81 P8 153 3.499
81 P8 154 2.035
81 P8 155 0.081
81 P8 156 -1.383
81 P8 157 -1.383
81 P8 158 -0.895
81 P8 159 -1.383
81 P8 160 -2.848
81 P8 161 -4.313
81 P8 162 -4.313
81 P8 163 -2.360
81 P8 164 0.081
81 P8 165 1.546
81 P8 166 1.058
81 P8 167 -0.895
81 P8 168 -1.383
81 P8 169 -0.895
81 P8 170 1.546
81 P8 171 3.011
81 P8 172 3.499
81 P8 173 2.523
81 P8 174 1.546
81 P8 175 2.523
81 P8 176 3.988
81 P8 177 4.964
81 P8 178 3.499
81 P8 179 -0.407
81 P8 180 -4.313
81 P8 181 -5.290
81 P8 182 -2.848
81 P8 183 1.058
81 P8 184 4.476
81 P8 185 4.964
81 P8 186 2.035
81 P8 187 -0.895
81 P8 188 -1.872
81 P8 189 0.570
81 P8 190 3.499
81 P8 191 3.988
81 P8 192 1.546
81 P8 193 -2.848
81 P8 194 -5.778
81 P8 195 -4.801
81 P8 196 -0.895
81 P8 197 2.523
81 P8 198 2.523
81 P8 199 -0.895
81 P8 200 -5.778
81 P8 201 -9.196
81 P8 202 -9.684
81 P8 203 -8.708
81 P8 204 -8.219
81 P8 205 -10.173
81 P8 206 -13.102
81 P8 207 -15.055
81 P8 208 -15.544
81 P8 209 -14.079
81 P8 210 -12.614
81 P8 211 -11.637
81 P8 212 -12.614
81 P8 213 -14.079
81 P8 214 -14.567
81 P8 215 -14.079
81 P8 216 -12.614
81 P8 217 -10.661
81 P8 218 -10.661
81 P8 219 -12.126
81 P8 220 -14.567
81 P8 221 -17.008
81 P8 222 -18.473
81 P8 223 -19.938
81 P8 224 -21.891
81 P8 225 -23.356
81 P8 226 -25.309
81 P8 227 -26.286
81 P8 228 -26.286
81 P8 229 -25.309
81 P8 230 -26.286
81 P8 231 -29.704
81 P8 232 -34.587
81 P8 233 -40.446
81 P8 234 -44.352
81 P8 235 -45.329
81 P8 236 -44.352
81 P8 237 -42.887
81 P8 238 -42.399
81 P8 239 -43.376
81 P8 240 -43.864
81 P8 241 -44.352
81 P8 242 -43.864
81 P8 243 -43.376
81 P8 244 -43.376
81 P8 245 -43.864
81 P8 246 -43.864
81 P8 247 -43.376
81 P8 248 -40.934
81 P8 249 -38.981
81 P8 250 -38.005
81 P8 251 -38.981
81 P8 252 -41.911
81 P8 253 -44.352
81 P8 254 -46.794
81 P8 255 -47.770
# P7 chan 26
81 P7 0 -7.243
81 P7 1 -10.661
81 P7 2 -9.684
81 P7 3 -6.755
81 P7 4 -3.825
81 P7 5 -3.337
81 P7 6 -3.825
81 P7 7 -4.801
81 P7 8 -4.313
81 P7 9 -2.360
81 P7 10 0.081
81 P7 11 2.035
81 P7 12 3.011
81 P7 13 3.011
81 P7 14 2.035
81 P7 15 1.058
81 P7 16 -0.407
81 P7 17 -1.383
81 P7 18 -2.360
81 P7 19 -3.337
81 P7 20 -3.337
81 P7 21 -3.337
81 P7 22 -2.360
81 P7 23 -0.895
81 P7 24 2.523
81 P7 25 5.941
81 P7 26 10.335
81 P7 27 13.753
81 P7 28 15.218
81 P7 29 14.242
81 P7 30 12.288
81 P7 31 9.359
81 P7 32 7.406
81 P7 33 5.452
81 P7 34 3.011
81 P7 35 1.058
81 P7 36 -0.895
81 P7 37 -1.383
81 P7 38 -0.895
81 P7 39 0.081
81 P7 40 -0.407
81 P7 41 -1.872
81 P7 42 -4.313
81 P7 43 -6.755
81 P7 44 -7.243
81 P7 45 -6.755
81 P7 46 -4.801
81 P7 47 -3.337
81 P7 48 -1.872
81 P7 49 -0.407
81 P7 50 2.035
81 P7 51 4.476
81 P7 52 6.429
81 P7 53 8.382
81 P7 54 8.870
81 P7 55 9.359
81 P7 56 9.847
81 P7 57 8.870
81 P7 58 6.917
81 P7 59 3.011
81 P7 60 -1.872
81 P7 61 -6.266
81 P7 62 -8.708
81 P7 63 -9.196
81 P7 64 -8.219
81 P7 65 -7.243
81 P7 66 -8.219
81 P7 67 -10.173
81 P7 68 -12.614
81 P7 69 -14.567
81 P7 70 -16.032
81 P7 71 -16.520
81 P7 72 -17.008
81 P7 73 -17.497
81 P7 74 -17.497
81 P7 75 -17.497
81 P7 76 -17.497
81 P7 77 -17.008
81 P7 78 -16.520
81 P7 79 -16.520
81 P7 80 -17.008
81 P7 81 -17.008
81 P7 82 -16.520
81 P7 83 -15.544
81 P7 84 -14.567
81 P7 85 -14.079
81 P7 86 -14.079
81 P7 87 -13.590
81 P7 88 -13.102
81 P7 89 -12.126
81 P7 90 -11.637
81 P7 91 -11.149
81 P7 92 -10.661
81 P7 93 -10.173
81 P7 94 -9.196
81 P7 95 -9.684
81 P7 96 -10.661
81 P7 97 -12.614
81 P7 98 -14.567
81 P7 99 -16.032
81 P7 100 -16.032
81 P7 101 -15.055
81 P7 102 -14.567
81 P7 103 -14.567
81 P7 104 -15.055
81 P7 105 -15.544
81 P7 106 -15.055
81 P7 107 -13.102
81 P7 108 -11.149
81 P7 109 -9.196
81 P7 110 -8.219
81 P7 111 -8.219
81 P7 112 -8.708
81 P7 113 -9.684
81 P7 114 -11.149
81 P7 115 -13.590
81 P7 116 -16.032
81 P7 117 -17.985
81 P7 118 -17.497
81 P7 119 -15.055
81 P7 120 -11.637
81 P7 121 -8.708
81 P7 122 -7.731
81 P7 123 -8.708
81 P7 124 -10.661
81 P7 125 -12.126
81 P7 126 -12.126
81 P7 127 -11.149
81 P7 128 -9.684
81 P7 129 -8.219
81 P7 130 -7.243
81 P7 131 -7.243
81 P7 132 -6.755
81 P7 133 -6.755
81 P7 134 -6.755
81 P7 135 -6.755
81 P7 136 -7.243
81 P7 137 -7.731
81 P7 138 -7.243
81 P7 139 -6.755
81 P7 140 -5.778
81 P7 141 -5.778
81 P7 142 -6.266
81 P7 143 -6.755
81 P7 144 -6.755
81 P7 145 -5.778
81 P7 146 -4.801
81 P7 147 -3.337
81 P7 148 -2.360
81 P7 149 -1.872
81 P7 150 -1.872
81 P7 151 -1.383
81 P7 152 -0.895
81 P7 153 -0.895
81 P7 154 -1.383
81 P7 155 -2.360
81 P7 156 -3.337
81 P7 157 -3.825
81 P7 158 -4.313
81 P7 159 -4.313
81 P7 160 -4.313
81 P7 161 -3.825
81 P7 162 -3.337
81 P7 163 -3.337
81 P7 164 -4.313
81 P7 165 -7.243
81 P7 166 -10.173
81 P7 167 -12.126
81 P7 168 -11.637
81 P7 169 -10.173
81 P7 170 -7.243
81 P7 171 -4.801
81 P7 172 -3.825
81 P7 173 -4.313
81 P7 174 -4.801
81 P7 175 -5.778
81 P7 176 -6.755
81 P7 177 -8.219
81 P7 178 -10.173
81 P7 179 -10.661
81 P7 180 -9.196
81 P7 181 -4.801
81 P7 182 1.546
81 P7 183 7.894
81 P7 184 12.777
81 P7 185 15.218
81 P7 186 14.242
81 P7 187 10.335
81 P7 188 4.476
81 P7 189 -2.848
81 P7 190 -9.196
81 P7 191 -13.590
81 P7 192 -14.079
81 P7 193 -12.614
81 P7 194 -11.149
81 P7 195 -10.173
81 P7 196 -10.661
81 P7 197 -10.173
81 P7 198 -9.196
81 P7 199 -7.731
81 P7 200 -7.243
81 P7 201 -8.708
81 P7 202 -12.126
81 P7 203 -16.520
81 P7 204 -18.962
81 P7 205 -19.938
81 P7 206 -18.473
81 P7 207 -16.520
81 P7 208 -15.544
81 P7 209 -15.055
81 P7 210 -15.055
81 P7 211 -15.055
81 P7 212 -15.055
81 P7 213 -14.567
81 P7 214 -14.567
81 P7 215 -14.567
81 P7 216 -15.544
81 P7 217 -16.520
81 P7 218 -17.985
81 P7 219 -19.938
81 P7 220 -22.868
81 P7 221 -25.309
81 P7 222 -27.262
81 P7 223 -28.727
81 P7 224 -29.704
81 P7 225 -29.215
81 P7 226 -28.727
81 P7 227 -27.751
81 P7 228 -26.286
81 P7 229 -24.333
81 P7 230 -23.356
81 P7 231 -23.844
81 P7 232 -26.286
81 P7 233 -29.704
81 P7 234 -32.633
81 P7 235 -34.587
81 P7 236 -34.098
81 P7 237 -32.633
81 P7 238 -31.657
81 P7 239 -32.633
81 P7 240 -35.075
81 P7 241 -38.493
81 P7 242 -41.423
81 P7 243 -42.887
81 P7 244 -43.376
81 P7 245 -42.399
81 P7 246 -41.423
81 P7 247 -39.469
81 P7 248 -37.028
81 P7 249 -34.587
81 P7 250 -33.610
81 P7 251 -34.098
81 P7 252 -36.051
81 P7 253 -38.981
81 P7 254 -40.934
81 P7 255 -41.911
# PO2 chan 27
81 PO2 0 2.116
81 PO2 1 0.163
81 PO2 2 -1.302
81 PO2 3 -2.279
81 PO2 4 -3.255
81 PO2 5 -3.743
81 PO2 6 -2.767
81 PO2 7 -1.302
81 PO2 8 -0.326
81 PO2 9 0.651
81 PO2 10 0.163
81 PO2 11 0.651
81 PO2 12 0.651
81 PO2 13 0.651
81 PO2 14 -0.326
81 PO2 15 -1.790
81 PO2 16 -2.767
81 PO2 17 -3.743
81 PO2 18 -3.743
81 PO2 19 -3.743
81 PO2 20 -4.720
81 PO2 21 -6.673
81 PO2 22 -9.115
81 PO2 23 -9.603
81 PO2 24 -7.650
81 PO2 25 -2.767
81 PO2 26 3.581
81 PO2 27 9.440
81 PO2 28 12.370
81 PO2 29 12.858
81 PO2 30 10.417
81 PO2 31 7.975
81 PO2 32 6.022
81 PO2 33 4.557
81 PO2 34 3.581
81 PO2 35 1.628
81 PO2 36 -1.302
81 PO2 37 -4.720
81 PO2 38 -7.161
81 PO2 39 -8.626
81 PO2 40 -8.138
81 PO2 41 -7.161
81 PO2 42 -6.185
81 PO2 43 -6.673
81 PO2 44 -7.161
81 PO2 45 -7.650
81 PO2 46 -6.673
81 PO2 47 -5.697
81 PO2 48 -4.232
81 PO2 49 -2.279
81 PO2 50 0.163
81 PO2 51 3.581
81 PO2 52 6.999
81 PO2 53 9.928
81 PO2 54 10.905
81 PO2 55 10.905
81 PO2 56 8.952
81 PO2 57 6.999
81 PO2 58 5.046
81 PO2 59 2.604
81 PO2 60 0.651
81 PO2 61 -1.790
81 PO2 62 -3.743
81 PO2 63 -3.743
81 PO2 64 -2.767
81 PO2 65 -1.302
81 PO2 66 0.163
81 PO2 67 0.163
81 PO2 68 -1.302
81 PO2 69 -4.232
81 PO2 70 -7.161
81 PO2 71 -10.579
81 PO2 72 -13.509
81 PO2 73 -14.974
81 PO2 74 -14.486
81 PO2 75 -13.021
81 PO2 76 -10.579
81 PO2 77 -9.115
81 PO2 78 -10.091
81 PO2 79 -12.533
81 PO2 80 -14.974
81 PO2 81 -15.951
81 PO2 82 -14.974
81 PO2 83 -12.533
81 PO2 84 -9.603
81 PO2 85 -7.650
81 PO2 86 -7.161
81 PO2 87 -7.161
81 PO2 88 -7.650
81 PO2 89 -8.138
81 PO2 90 -8.138
81 PO2 91 -8.138
81 PO2 92 -8.138
81 PO2 93 -7.650
81 PO2 94 -7.161
81 PO2 95 -7.161
81 PO2 96 -9.115
81 PO2 97 -12.044
81 PO2 98 -14.486
81 PO2 99 -15.462
81 PO2 100 -13.021
81 PO2 101 -10.091
81 PO2 102 -7.650
81 PO2 103 -7.161
81 PO2 104 -9.115
81 PO2 105 -12.044
81 PO2 106 -14.486
81 PO2 107 -14.486
81 PO2 108 -13.509
81 PO2 109 -11.556
81 PO2 110 -10.091
81 PO2 111 -9.603
81 PO2 112 -9.115
81 PO2 113 -9.115
81 PO2 114 -10.091
81 PO2 115 -11.556
81 PO2 116 -13.997
81 PO2 117 -15.462
81 PO2 118 -15.462
81 PO2 119 -13.021
