# co3c0000402.rd
# 120 trials, 64 chans, 416 samples 368 post_stim samples
# 3.906000 msecs uV
# S2 match , trial 79
# FP1 chan 0
79 FP1 0 8.403
79 FP1 1 9.379
79 FP1 2 7.914
79 FP1 3 5.961
79 FP1 4 5.473
79 FP1 5 5.961
79 FP1 6 6.938
79 FP1 7 8.403
79 FP1 8 8.403
79 FP1 9 7.914
79 FP1 10 5.961
79 FP1 11 4.496
79 FP1 12 3.031
79 FP1 13 2.055
79 FP1 14 2.543
79 FP1 15 3.520
79 FP1 16 4.496
79 FP1 17 4.496
79 FP1 18 4.496
79 FP1 19 4.496
79 FP1 20 4.985
79 FP1 21 5.473
79 FP1 22 5.961
79 FP1 23 6.449
79 FP1 24 5.961
79 FP1 25 5.961
79 FP1 26 5.473
79 FP1 27 5.473
79 FP1 28 4.985
79 FP1 29 4.985
79 FP1 30 4.985
79 FP1 31 4.985
79 FP1 32 5.473
79 FP1 33 6.449
79 FP1 34 7.914
79 FP1 35 8.403
79 FP1 36 7.914
79 FP1 37 6.938
79 FP1 38 4.985
79 FP1 39 3.520
79 FP1 40 2.543
79 FP1 41 2.543
79 FP1 42 4.008
79 FP1 43 6.449
79 FP1 44 8.403
79 FP1 45 9.379
79 FP1 46 8.891
79 FP1 47 6.938
79 FP1 48 4.496
79 FP1 49 2.543
79 FP1 50 2.055
79 FP1 51 3.031
79 FP1 52 4.496
79 FP1 53 6.449
79 FP1 54 7.914
79 FP1 55 7.426
79 FP1 56 5.473
79 FP1 57 3.520
79 FP1 58 2.543
79 FP1 59 2.543
79 FP1 60 4.008
79 FP1 61 4.985
79 FP1 62 5.961
79 FP1 63 5.473
79 FP1 64 4.008
79 FP1 65 2.543
79 FP1 66 1.567
79 FP1 67 1.567
79 FP1 68 2.055
79 FP1 69 3.031
79 FP1 70 3.520
79 FP1 71 4.496
79 FP1 72 4.008
79 FP1 73 3.520
79 FP1 74 3.031
79 FP1 75 2.543
79 FP1 76 3.031
79 FP1 77 4.008
79 FP1 78 5.961
79 FP1 79 7.914
79 FP1 80 9.867
79 FP1 81 10.844
79 FP1 82 10.844
79 FP1 83 9.867
79 FP1 84 8.891
79 FP1 85 8.403
79 FP1 86 8.891
79 FP1 87 10.356
79 FP1 88 12.309
79 FP1 89 13.774
79 FP1 90 14.750
79 FP1 91 13.774
79 FP1 92 12.309
79 FP1 93 9.867
79 FP1 94 6.938
79 FP1 95 5.473
79 FP1 96 4.496
79 FP1 97 4.496
79 FP1 98 4.985
79 FP1 99 4.985
79 FP1 100 4.496
79 FP1 101 3.031
79 FP1 102 0.590
79 FP1 103 -1.363
79 FP1 104 -3.805
79 FP1 105 -5.269
79 FP1 106 -6.734
79 FP1 107 -6.734
79 FP1 108 -5.758
79 FP1 109 -5.269
79 FP1 110 -4.781
79 FP1 111 -4.293
79 FP1 112 -3.316
79 FP1 113 -2.340
79 FP1 114 0.102
79 FP1 115 2.543
79 FP1 116 3.520
79 FP1 117 3.520
79 FP1 118 2.543
79 FP1 119 1.567
79 FP1 120 2.055
79 FP1 121 3.520
79 FP1 122 5.473
79 FP1 123 6.938
79 FP1 124 7.914
79 FP1 125 8.891
79 FP1 126 9.867
79 FP1 127 10.844
79 FP1 128 10.844
79 FP1 129 10.356
79 FP1 130 8.891
79 FP1 131 7.914
79 FP1 132 7.426
79 FP1 133 7.914
79 FP1 134 7.914
79 FP1 135 6.938
79 FP1 136 5.473
79 FP1 137 3.520
79 FP1 138 1.567
79 FP1 139 0.590
79 FP1 140 0.102
79 FP1 141 0.102
79 FP1 142 1.078
79 FP1 143 2.543
79 FP1 144 4.008
79 FP1 145 5.473
79 FP1 146 6.938
79 FP1 147 7.426
79 FP1 148 7.426
79 FP1 149 6.449
79 FP1 150 5.961
79 FP1 151 5.473
79 FP1 152 4.985
79 FP1 153 4.985
79 FP1 154 4.985
79 FP1 155 4.008
79 FP1 156 2.543
79 FP1 157 0.590
79 FP1 158 -0.875
79 FP1 159 -2.340
79 FP1 160 -2.340
79 FP1 161 -2.340
79 FP1 162 -2.340
79 FP1 163 -2.828
79 FP1 164 -3.316
79 FP1 165 -3.805
79 FP1 166 -3.805
79 FP1 167 -4.293
79 FP1 168 -4.293
79 FP1 169 -4.293
79 FP1 170 -4.293
79 FP1 171 -3.316
79 FP1 172 -2.340
79 FP1 173 -1.363
79 FP1 174 -0.387
79 FP1 175 -0.387
79 FP1 176 0.102
79 FP1 177 0.590
79 FP1 178 0.102
79 FP1 179 -0.875
79 FP1 180 -1.851
79 FP1 181 -2.340
79 FP1 182 -2.340
79 FP1 183 -2.340
79 FP1 184 -1.363
79 FP1 185 -0.387
79 FP1 186 -0.387
79 FP1 187 -0.875
79 FP1 188 -1.363
79 FP1 189 -2.340
79 FP1 190 -3.316
79 FP1 191 -3.316
79 FP1 192 -2.340
79 FP1 193 -0.875
79 FP1 194 0.102
79 FP1 195 0.590
79 FP1 196 0.102
79 FP1 197 -0.387
79 FP1 198 -1.363
79 FP1 199 -1.363
79 FP1 200 -1.363
79 FP1 201 -0.875
79 FP1 202 -0.387
79 FP1 203 0.102
79 FP1 204 1.567
79 FP1 205 2.543
79 FP1 206 3.031
79 FP1 207 3.031
79 FP1 208 2.055
79 FP1 209 2.055
79 FP1 210 3.031
79 FP1 211 4.496
79 FP1 212 6.449
79 FP1 213 6.938
79 FP1 214 5.961
79 FP1 215 4.496
79 FP1 216 3.520
79 FP1 217 3.031
79 FP1 218 3.520
79 FP1 219 4.008
79 FP1 220 4.008
79 FP1 221 3.520
79 FP1 222 2.055
79 FP1 223 1.567
79 FP1 224 1.567
79 FP1 225 2.543
79 FP1 226 3.520
79 FP1 227 4.008
79 FP1 228 4.496
79 FP1 229 4.008
79 FP1 230 4.496
79 FP1 231 4.496
79 FP1 232 4.008
79 FP1 233 3.520
79 FP1 234 2.543
79 FP1 235 1.567
79 FP1 236 1.567
79 FP1 237 1.567
79 FP1 238 1.567
79 FP1 239 0.102
79 FP1 240 -1.851
79 FP1 241 -2.828
79 FP1 242 -3.316
79 FP1 243 -2.828
79 FP1 244 -1.363
79 FP1 245 -0.387
79 FP1 246 0.590
79 FP1 247 1.078
79 FP1 248 1.078
79 FP1 249 0.590
79 FP1 250 0.102
79 FP1 251 0.102
79 FP1 252 0.590
79 FP1 253 0.590
79 FP1 254 -0.387
79 FP1 255 -1.363
# FP2 chan 1
79 FP2 0 6.571
79 FP2 1 6.571
79 FP2 2 5.595
79 FP2 3 5.107
79 FP2 4 5.107
79 FP2 5 5.595
79 FP2 6 5.595
79 FP2 7 4.618
79 FP2 8 4.618
79 FP2 9 4.130
79 FP2 10 4.618
79 FP2 11 4.618
79 FP2 12 4.130
79 FP2 13 3.642
79 FP2 14 3.153
79 FP2 15 2.665
79 FP2 16 2.665
79 FP2 17 2.665
79 FP2 18 2.177
79 FP2 19 2.177
79 FP2 20 2.665
79 FP2 21 3.642
79 FP2 22 4.618
79 FP2 23 5.595
79 FP2 24 5.107
79 FP2 25 4.618
79 FP2 26 4.130
79 FP2 27 4.130
79 FP2 28 3.642
79 FP2 29 3.153
79 FP2 30 2.665
79 FP2 31 2.665
79 FP2 32 3.642
79 FP2 33 6.083
79 FP2 34 8.036
79 FP2 35 9.013
79 FP2 36 8.525
79 FP2 37 6.571
79 FP2 38 4.130
79 FP2 39 3.153
79 FP2 40 3.153
79 FP2 41 4.618
79 FP2 42 6.571
79 FP2 43 8.525
79 FP2 44 9.013
79 FP2 45 8.525
79 FP2 46 7.060
79 FP2 47 4.618
79 FP2 48 2.665
79 FP2 49 1.689
79 FP2 50 3.153
79 FP2 51 5.595
79 FP2 52 8.525
79 FP2 53 9.501
79 FP2 54 7.548
79 FP2 55 5.107
79 FP2 56 2.665
79 FP2 57 2.665
79 FP2 58 4.130
79 FP2 59 6.083
79 FP2 60 7.548
79 FP2 61 7.060
79 FP2 62 6.571
79 FP2 63 5.595
79 FP2 64 5.107
79 FP2 65 5.107
79 FP2 66 5.107
79 FP2 67 4.618
79 FP2 68 4.130
79 FP2 69 4.618
79 FP2 70 5.107
79 FP2 71 5.595
79 FP2 72 5.107
79 FP2 73 4.130
79 FP2 74 2.665
79 FP2 75 2.177
79 FP2 76 3.153
79 FP2 77 4.618
79 FP2 78 6.571
79 FP2 79 8.525
79 FP2 80 9.989
79 FP2 81 10.478
79 FP2 82 9.989
79 FP2 83 9.013
79 FP2 84 7.060
79 FP2 85 5.595
79 FP2 86 5.595
79 FP2 87 7.060
79 FP2 88 9.013
79 FP2 89 10.966
79 FP2 90 11.454
79 FP2 91 9.989
79 FP2 92 8.036
79 FP2 93 5.595
79 FP2 94 3.642
79 FP2 95 2.665
79 FP2 96 2.665
79 FP2 97 2.177
79 FP2 98 2.665
79 FP2 99 2.665
79 FP2 100 2.177
79 FP2 101 1.689
79 FP2 102 -0.264
79 FP2 103 -2.218
79 FP2 104 -4.659
79 FP2 105 -6.612
79 FP2 106 -8.077
79 FP2 107 -9.054
79 FP2 108 -9.054
79 FP2 109 -9.054
79 FP2 110 -8.565
79 FP2 111 -7.589
79 FP2 112 -6.612
79 FP2 113 -4.659
79 FP2 114 -2.706
79 FP2 115 -1.241
79 FP2 116 -0.753
79 FP2 117 -0.753
79 FP2 118 -0.753
79 FP2 119 -0.264
79 FP2 120 1.200
79 FP2 121 2.177
79 FP2 122 3.642
79 FP2 123 4.618
79 FP2 124 5.595
79 FP2 125 8.036
79 FP2 126 9.989
79 FP2 127 11.454
79 FP2 128 11.454
79 FP2 129 10.478
79 FP2 130 9.013
79 FP2 131 9.013
79 FP2 132 9.013
79 FP2 133 9.013
79 FP2 134 8.036
79 FP2 135 5.595
79 FP2 136 2.665
79 FP2 137 0.224
79 FP2 138 -1.241
79 FP2 139 -1.729
79 FP2 140 -1.729
79 FP2 141 -1.729
79 FP2 142 -0.753
79 FP2 143 0.224
79 FP2 144 1.200
79 FP2 145 2.177
79 FP2 146 2.177
79 FP2 147 2.177
79 FP2 148 2.177
79 FP2 149 3.153
79 FP2 150 3.642
79 FP2 151 3.153
79 FP2 152 3.153
79 FP2 153 2.177
79 FP2 154 2.177
79 FP2 155 1.689
79 FP2 156 1.200
79 FP2 157 0.224
79 FP2 158 -0.753
79 FP2 159 -1.729
79 FP2 160 -2.706
79 FP2 161 -2.706
79 FP2 162 -2.218
79 FP2 163 -2.218
79 FP2 164 -2.706
79 FP2 165 -3.194
79 FP2 166 -3.194
79 FP2 167 -3.194
79 FP2 168 -2.706
79 FP2 169 -2.218
79 FP2 170 -1.729
79 FP2 171 -1.729
79 FP2 172 -1.241
79 FP2 173 -1.241
79 FP2 174 -0.753
79 FP2 175 -0.264
79 FP2 176 0.712
79 FP2 177 1.689
79 FP2 178 1.689
79 FP2 179 0.712
79 FP2 180 -0.264
79 FP2 181 -1.241
79 FP2 182 -1.729
79 FP2 183 -0.753
79 FP2 184 -0.264
79 FP2 185 0.712
79 FP2 186 1.200
79 FP2 187 0.712
79 FP2 188 0.224
79 FP2 189 -0.753
79 FP2 190 -1.241
79 FP2 191 -1.729
79 FP2 192 -1.729
79 FP2 193 -1.241
79 FP2 194 -0.753
79 FP2 195 -0.264
79 FP2 196 0.224
79 FP2 197 -0.264
79 FP2 198 -0.753
79 FP2 199 -0.753
79 FP2 200 -0.753
79 FP2 201 -0.753
79 FP2 202 -0.264
79 FP2 203 -0.264
79 FP2 204 0.224
79 FP2 205 1.200
79 FP2 206 2.665
79 FP2 207 3.642
79 FP2 208 4.618
79 FP2 209 4.130
79 FP2 210 3.642
79 FP2 211 4.130
79 FP2 212 5.107
79 FP2 213 7.060
79 FP2 214 8.525
79 FP2 215 8.525
79 FP2 216 7.548
79 FP2 217 5.107
79 FP2 218 3.153
79 FP2 219 2.665
79 FP2 220 3.153
79 FP2 221 3.153
79 FP2 222 3.153
79 FP2 223 2.177
79 FP2 224 1.200
79 FP2 225 1.689
79 FP2 226 2.665
79 FP2 227 3.642
79 FP2 228 4.618
79 FP2 229 4.618
79 FP2 230 4.130
79 FP2 231 4.130
79 FP2 232 4.130
79 FP2 233 4.130
79 FP2 234 4.130
79 FP2 235 3.642
79 FP2 236 2.665
79 FP2 237 1.200
79 FP2 238 0.224
79 FP2 239 -0.753
79 FP2 240 -1.241
79 FP2 241 -0.264
79 FP2 242 0.712
79 FP2 243 1.689
79 FP2 244 2.665
79 FP2 245 2.665
79 FP2 246 2.177
79 FP2 247 2.177
79 FP2 248 1.689
79 FP2 249 2.177
79 FP2 250 2.665
79 FP2 251 3.153
79 FP2 252 3.153
79 FP2 253 2.665
79 FP2 254 0.712
79 FP2 255 -1.241
# F7 chan 2
79 F7 0 14.781
79 F7 1 15.757
79 F7 2 14.292
79 F7 3 11.851
79 F7 4 10.874
79 F7 5 10.874
79 F7 6 12.828
79 F7 7 14.781
79 F7 8 16.246
79 F7 9 16.734
79 F7 10 14.292
79 F7 11 10.874
79 F7 12 6.968
79 F7 13 4.038
79 F7 14 3.550
79 F7 15 5.015
79 F7 16 6.968
79 F7 17 7.945
79 F7 18 7.945
79 F7 19 7.456
79 F7 20 6.968
79 F7 21 8.433
79 F7 22 9.898
79 F7 23 10.386
79 F7 24 8.921
79 F7 25 6.968
79 F7 26 5.015
79 F7 27 4.527
79 F7 28 5.992
79 F7 29 7.456
79 F7 30 8.433
79 F7 31 7.945
79 F7 32 6.480
79 F7 33 5.992
79 F7 34 5.992
79 F7 35 6.968
79 F7 36 7.456
79 F7 37 6.968
79 F7 38 5.015
79 F7 39 3.062
79 F7 40 2.574
79 F7 41 3.062
79 F7 42 4.527
79 F7 43 6.968
79 F7 44 9.410
79 F7 45 10.874
79 F7 46 10.874
79 F7 47 9.898
79 F7 48 7.945
79 F7 49 5.503
79 F7 50 4.527
79 F7 51 5.015
79 F7 52 7.456
79 F7 53 10.874
79 F7 54 12.828
79 F7 55 12.828
79 F7 56 10.874
79 F7 57 7.945
79 F7 58 5.503
79 F7 59 4.527
79 F7 60 5.015
79 F7 61 6.480
79 F7 62 7.945
79 F7 63 8.921
79 F7 64 8.433
79 F7 65 6.968
79 F7 66 5.015
79 F7 67 3.550
79 F7 68 3.062
79 F7 69 3.062
79 F7 70 3.550
79 F7 71 3.550
79 F7 72 4.527
79 F7 73 5.503
79 F7 74 6.968
79 F7 75 8.433
79 F7 76 8.433
79 F7 77 7.456
79 F7 78 6.968
79 F7 79 7.456
79 F7 80 9.898
79 F7 81 12.339
79 F7 82 13.804
79 F7 83 13.804
79 F7 84 12.828
79 F7 85 11.851
79 F7 86 12.828
79 F7 87 15.269
79 F7 88 18.199
79 F7 89 20.152
79 F7 90 20.152
79 F7 91 19.175
79 F7 92 16.734
79 F7 93 13.804
79 F7 94 10.874
79 F7 95 8.921
79 F7 96 8.433
79 F7 97 8.921
79 F7 98 10.874
79 F7 99 12.339
79 F7 100 12.339
79 F7 101 10.386
79 F7 102 7.945
79 F7 103 5.015
79 F7 104 2.574
79 F7 105 0.621
79 F7 106 -0.356
79 F7 107 -0.844
79 F7 108 -0.844
79 F7 109 0.132
79 F7 110 1.109
79 F7 111 1.109
79 F7 112 1.109
79 F7 113 1.597
79 F7 114 3.062
79 F7 115 5.503
79 F7 116 7.456
79 F7 117 7.456
79 F7 118 5.992
79 F7 119 4.038
79 F7 120 4.038
79 F7 121 5.503
79 F7 122 8.433
79 F7 123 10.874
79 F7 124 11.851
79 F7 125 11.363
79 F7 126 10.874
79 F7 127 10.386
79 F7 128 10.386
79 F7 129 10.386
79 F7 130 9.898
79 F7 131 8.921
79 F7 132 7.456
79 F7 133 7.456
79 F7 134 7.456
79 F7 135 7.456
79 F7 136 6.480
79 F7 137 4.527
79 F7 138 3.062
79 F7 139 2.085
79 F7 140 2.085
79 F7 141 2.574
79 F7 142 4.038
79 F7 143 4.527
79 F7 144 5.503
79 F7 145 5.992
79 F7 146 6.480
79 F7 147 6.968
79 F7 148 7.945
79 F7 149 8.433
79 F7 150 9.410
79 F7 151 9.898
79 F7 152 9.410
79 F7 153 8.921
79 F7 154 8.433
79 F7 155 7.456
79 F7 156 6.480
79 F7 157 5.015
79 F7 158 3.062
79 F7 159 1.597
79 F7 160 1.109
79 F7 161 1.597
79 F7 162 2.085
79 F7 163 2.574
79 F7 164 2.085
79 F7 165 1.109
79 F7 166 0.621
79 F7 167 -0.356
79 F7 168 -0.356
79 F7 169 -0.356
79 F7 170 -0.356
79 F7 171 -0.844
79 F7 172 -0.356
79 F7 173 1.109
79 F7 174 2.574
79 F7 175 4.038
79 F7 176 4.527
79 F7 177 3.550
79 F7 178 2.085
79 F7 179 0.621
79 F7 180 0.621
79 F7 181 1.109
79 F7 182 2.085
79 F7 183 2.574
79 F7 184 2.574
79 F7 185 2.085
79 F7 186 1.597
79 F7 187 1.109
79 F7 188 0.621
79 F7 189 -0.356
79 F7 190 -1.333
79 F7 191 -2.309
79 F7 192 -2.309
79 F7 193 -1.821
79 F7 194 -0.844
79 F7 195 0.132
79 F7 196 0.132
79 F7 197 -0.356
79 F7 198 -0.844
79 F7 199 -0.844
79 F7 200 0.132
79 F7 201 1.597
79 F7 202 3.550
79 F7 203 5.503
79 F7 204 5.503
79 F7 205 4.527
79 F7 206 3.550
79 F7 207 2.574
79 F7 208 2.574
79 F7 209 4.038
79 F7 210 5.992
79 F7 211 7.945
79 F7 212 9.410
79 F7 213 9.898
79 F7 214 9.410
79 F7 215 7.945
79 F7 216 6.480
79 F7 217 5.503
79 F7 218 5.992
79 F7 219 7.456
79 F7 220 9.410
79 F7 221 10.386
79 F7 222 9.898
79 F7 223 7.945
79 F7 224 5.503
79 F7 225 3.550
79 F7 226 3.062
79 F7 227 4.038
79 F7 228 5.503
79 F7 229 6.968
79 F7 230 6.480
79 F7 231 5.503
79 F7 232 3.550
79 F7 233 2.085
79 F7 234 1.109
79 F7 235 1.109
79 F7 236 2.574
79 F7 237 3.550
79 F7 238 3.062
79 F7 239 1.109
79 F7 240 -2.309
79 F7 241 -5.239
79 F7 242 -6.704
79 F7 243 -5.727
79 F7 244 -3.286
79 F7 245 -0.844
79 F7 246 1.597
79 F7 247 3.062
79 F7 248 3.550
79 F7 249 3.550
79 F7 250 3.062
79 F7 251 2.574
79 F7 252 2.574
79 F7 253 2.085
79 F7 254 2.574
79 F7 255 3.550
# F8 chan 3
79 F8 0 2.899
79 F8 1 2.899
79 F8 2 4.364
79 F8 3 5.829
79 F8 4 7.782
79 F8 5 8.759
79 F8 6 7.782
79 F8 7 5.341
79 F8 8 2.411
79 F8 9 -0.031
79 F8 10 -0.031
79 F8 11 0.946
79 F8 12 2.899
79 F8 13 4.364
79 F8 14 4.364
79 F8 15 2.899
79 F8 16 0.946
79 F8 17 -1.984
79 F8 18 -2.960
79 F8 19 -2.960
79 F8 20 -1.984
79 F8 21 -0.519
79 F8 22 0.946
79 F8 23 1.434
79 F8 24 1.923
79 F8 25 1.434
79 F8 26 0.946
79 F8 27 0.458
79 F8 28 -1.007
79 F8 29 -2.960
79 F8 30 -4.425
79 F8 31 -4.425
79 F8 32 -2.472
79 F8 33 1.434
79 F8 34 5.341
79 F8 35 7.294
79 F8 36 6.805
79 F8 37 3.876
79 F8 38 0.946
79 F8 39 -0.519
79 F8 40 -0.031
79 F8 41 2.899
79 F8 42 5.829
79 F8 43 8.270
79 F8 44 9.247
79 F8 45 9.247
79 F8 46 8.270
79 F8 47 7.782
79 F8 48 7.294
79 F8 49 7.294
79 F8 50 8.759
79 F8 51 9.735
79 F8 52 10.712
79 F8 53 9.735
79 F8 54 7.294
79 F8 55 3.876
79 F8 56 1.923
79 F8 57 1.923
79 F8 58 3.876
79 F8 59 6.805
79 F8 60 8.270
79 F8 61 8.759
79 F8 62 8.270
79 F8 63 7.782
79 F8 64 7.782
79 F8 65 7.782
79 F8 66 6.805
79 F8 67 6.317
79 F8 68 6.317
79 F8 69 6.805
79 F8 70 8.270
79 F8 71 9.247
79 F8 72 8.759
79 F8 73 7.782
79 F8 74 6.805
79 F8 75 5.829
79 F8 76 5.829
79 F8 77 6.805
79 F8 78 6.805
79 F8 79 7.294
79 F8 80 7.294
79 F8 81 6.805
79 F8 82 5.341
79 F8 83 3.387
79 F8 84 1.434
79 F8 85 0.946
79 F8 86 1.434
79 F8 87 2.899
79 F8 88 4.364
79 F8 89 5.341
79 F8 90 3.876
79 F8 91 1.923
79 F8 92 -0.031
79 F8 93 -0.031
79 F8 94 0.458
79 F8 95 1.923
79 F8 96 2.899
79 F8 97 3.387
79 F8 98 2.899
79 F8 99 2.899
79 F8 100 2.411
79 F8 101 2.411
79 F8 102 1.923
79 F8 103 0.946
79 F8 104 -1.007
79 F8 105 -2.960
79 F8 106 -4.913
79 F8 107 -5.890
79 F8 108 -6.866
79 F8 109 -7.355
79 F8 110 -8.331
79 F8 111 -9.308
79 F8 112 -9.308
79 F8 113 -8.331
79 F8 114 -6.378
79 F8 115 -4.913
79 F8 116 -3.937
79 F8 117 -4.425
79 F8 118 -4.913
79 F8 119 -5.402
79 F8 120 -5.402
79 F8 121 -4.425
79 F8 122 -2.960
79 F8 123 -0.031
79 F8 124 3.387
79 F8 125 6.805
79 F8 126 9.247
79 F8 127 10.223
79 F8 128 9.735
79 F8 129 8.759
79 F8 130 8.759
79 F8 131 9.247
79 F8 132 9.735
79 F8 133 9.247
79 F8 134 6.805
79 F8 135 3.876
79 F8 136 1.434
79 F8 137 -0.031
79 F8 138 -0.519
79 F8 139 -1.007
79 F8 140 -1.984
79 F8 141 -2.960
79 F8 142 -2.960
79 F8 143 -3.448
79 F8 144 -3.937
79 F8 145 -3.937
79 F8 146 -3.937
79 F8 147 -2.960
79 F8 148 -1.007
79 F8 149 1.434
79 F8 150 3.387
79 F8 151 3.876
79 F8 152 2.899
79 F8 153 1.923
79 F8 154 1.434
79 F8 155 1.923
79 F8 156 2.899
79 F8 157 3.387
79 F8 158 3.387
79 F8 159 2.899
79 F8 160 2.899
79 F8 161 3.387
79 F8 162 3.876
79 F8 163 3.876
79 F8 164 3.387
79 F8 165 2.899
79 F8 166 2.899
79 F8 167 3.876
79 F8 168 5.341
79 F8 169 6.317
79 F8 170 5.341
79 F8 171 3.387
79 F8 172 1.923
79 F8 173 1.434
79 F8 174 2.899
79 F8 175 4.364
79 F8 176 5.829
79 F8 177 6.317
79 F8 178 5.829
79 F8 179 4.852
79 F8 180 4.364
79 F8 181 4.364
79 F8 182 3.387
79 F8 183 2.899
79 F8 184 2.411
79 F8 185 2.411
79 F8 186 3.387
79 F8 187 3.387
79 F8 188 2.411
79 F8 189 0.946
79 F8 190 -0.519
79 F8 191 -1.007
79 F8 192 -0.031
79 F8 193 0.458
79 F8 194 0.946
79 F8 195 -0.031
79 F8 196 -1.007
79 F8 197 -1.984
79 F8 198 -2.472
79 F8 199 -2.960
79 F8 200 -2.960
79 F8 201 -1.984
79 F8 202 -0.519
79 F8 203 1.434
79 F8 204 2.899
79 F8 205 3.876
79 F8 206 4.364
79 F8 207 4.364
79 F8 208 4.364
79 F8 209 4.364
79 F8 210 3.876
79 F8 211 4.364
79 F8 212 6.317
79 F8 213 8.759
79 F8 214 11.200
79 F8 215 12.177
79 F8 216 10.223
79 F8 217 6.317
79 F8 218 2.899
79 F8 219 1.434
79 F8 220 1.923
79 F8 221 3.387
79 F8 222 4.852
79 F8 223 5.341
79 F8 224 5.341
79 F8 225 5.341
79 F8 226 5.341
79 F8 227 5.341
79 F8 228 4.364
79 F8 229 3.387
79 F8 230 2.411
79 F8 231 2.411
79 F8 232 2.899
79 F8 233 2.899
79 F8 234 2.411
79 F8 235 0.946
79 F8 236 -1.007
79 F8 237 -2.960
79 F8 238 -4.425
79 F8 239 -4.913
79 F8 240 -4.425
79 F8 241 -2.960
79 F8 242 -0.519
79 F8 243 0.946
79 F8 244 1.923
79 F8 245 1.434
79 F8 246 0.946
79 F8 247 0.458
79 F8 248 0.946
79 F8 249 2.411
79 F8 250 3.876
79 F8 251 4.364
79 F8 252 4.364
79 F8 253 3.387
79 F8 254 2.411
79 F8 255 1.434
# AF1 chan 4
79 AF1 0 6.042
79 AF1 1 7.507
79 AF1 2 6.531
79 AF1 3 5.066
79 AF1 4 3.601
79 AF1 5 3.601
79 AF1 6 4.089
79 AF1 7 4.578
79 AF1 8 5.066
79 AF1 9 5.066
79 AF1 10 4.578
79 AF1 11 3.601
79 AF1 12 3.113
79 AF1 13 2.625
79 AF1 14 2.625
79 AF1 15 3.113
79 AF1 16 3.113
79 AF1 17 3.601
79 AF1 18 3.601
79 AF1 19 4.089
79 AF1 20 4.578
79 AF1 21 5.066
79 AF1 22 5.554
79 AF1 23 5.554
79 AF1 24 5.066
79 AF1 25 4.578
79 AF1 26 4.578
79 AF1 27 5.066
79 AF1 28 5.066
79 AF1 29 5.066
79 AF1 30 5.066
79 AF1 31 4.578
79 AF1 32 4.578
79 AF1 33 4.578
79 AF1 34 5.554
79 AF1 35 6.042
79 AF1 36 6.042
79 AF1 37 5.554
79 AF1 38 4.578
79 AF1 39 3.113
79 AF1 40 2.136
79 AF1 41 1.648
79 AF1 42 2.625
79 AF1 43 4.089
79 AF1 44 6.042
79 AF1 45 7.507
79 AF1 46 7.507
79 AF1 47 5.554
79 AF1 48 3.113
79 AF1 49 1.160
79 AF1 50 0.671
79 AF1 51 2.136
79 AF1 52 4.089
79 AF1 53 5.554
79 AF1 54 6.042
79 AF1 55 5.066
79 AF1 56 3.601
79 AF1 57 2.136
79 AF1 58 1.648
79 AF1 59 2.136
79 AF1 60 3.113
79 AF1 61 3.601
79 AF1 62 4.089
79 AF1 63 3.601
79 AF1 64 3.113
79 AF1 65 2.625
79 AF1 66 1.648
79 AF1 67 1.648
79 AF1 68 1.648
79 AF1 69 2.625
79 AF1 70 2.625
79 AF1 71 3.113
79 AF1 72 2.625
79 AF1 73 2.625
79 AF1 74 2.136
79 AF1 75 2.625
79 AF1 76 3.601
79 AF1 77 5.066
79 AF1 78 6.042
79 AF1 79 7.507
79 AF1 80 7.996
79 AF1 81 8.484
79 AF1 82 8.484
79 AF1 83 7.996
79 AF1 84 7.996
79 AF1 85 7.507
79 AF1 86 7.507
79 AF1 87 8.484
79 AF1 88 8.972
79 AF1 89 8.972
79 AF1 90 8.972
79 AF1 91 7.996
79 AF1 92 6.531
79 AF1 93 4.578
79 AF1 94 2.625
79 AF1 95 1.648
79 AF1 96 1.160
79 AF1 97 2.136
79 AF1 98 2.625
79 AF1 99 3.113
79 AF1 100 3.113
79 AF1 101 2.136
79 AF1 102 0.671
79 AF1 103 -0.793
79 AF1 104 -1.770
79 AF1 105 -2.747
79 AF1 106 -3.235
79 AF1 107 -3.235
79 AF1 108 -2.258
79 AF1 109 -1.282
79 AF1 110 -0.305
79 AF1 111 0.671
79 AF1 112 1.160
79 AF1 113 2.625
79 AF1 114 4.089
79 AF1 115 5.554
79 AF1 116 6.531
79 AF1 117 6.531
79 AF1 118 5.554
79 AF1 119 5.066
79 AF1 120 5.554
79 AF1 121 6.531
79 AF1 122 7.996
79 AF1 123 9.460
79 AF1 124 9.949
79 AF1 125 10.437
79 AF1 126 11.414
79 AF1 127 11.902
79 AF1 128 11.902
79 AF1 129 11.414
79 AF1 130 9.460
79 AF1 131 8.972
79 AF1 132 7.996
79 AF1 133 8.484
79 AF1 134 8.484
79 AF1 135 7.996
79 AF1 136 7.019
79 AF1 137 5.066
79 AF1 138 3.113
79 AF1 139 2.136
79 AF1 140 2.136
79 AF1 141 2.625
79 AF1 142 3.601
79 AF1 143 4.578
79 AF1 144 6.042
79 AF1 145 7.019
79 AF1 146 7.996
79 AF1 147 8.484
79 AF1 148 8.484
79 AF1 149 7.996
79 AF1 150 7.507
79 AF1 151 7.507
79 AF1 152 7.507
79 AF1 153 7.507
79 AF1 154 7.507
79 AF1 155 6.531
79 AF1 156 4.578
79 AF1 157 2.625
79 AF1 158 0.671
79 AF1 159 -1.282
79 AF1 160 -2.258
79 AF1 161 -2.747
79 AF1 162 -2.258
79 AF1 163 -1.282
79 AF1 164 -1.282
79 AF1 165 -1.282
79 AF1 166 -1.770
79 AF1 167 -2.747
79 AF1 168 -3.235
79 AF1 169 -3.235
79 AF1 170 -3.235
79 AF1 171 -2.258
79 AF1 172 -1.282
79 AF1 173 -0.305
79 AF1 174 0.183
79 AF1 175 0.671
79 AF1 176 1.160
79 AF1 177 0.671
79 AF1 178 0.183
79 AF1 179 -0.793
79 AF1 180 -1.282
79 AF1 181 -1.770
79 AF1 182 -1.770
79 AF1 183 -1.282
79 AF1 184 -0.305
79 AF1 185 0.183
79 AF1 186 0.671
79 AF1 187 0.671
79 AF1 188 0.183
79 AF1 189 -0.305
79 AF1 190 -1.282
79 AF1 191 -1.282
79 AF1 192 -0.793
79 AF1 193 0.671
79 AF1 194 2.136
79 AF1 195 2.625
79 AF1 196 2.625
79 AF1 197 1.648
79 AF1 198 1.160
79 AF1 199 0.671
79 AF1 200 0.671
79 AF1 201 0.671
79 AF1 202 1.160
79 AF1 203 2.136
79 AF1 204 2.625
79 AF1 205 3.113
79 AF1 206 3.113
79 AF1 207 3.113
79 AF1 208 3.113
79 AF1 209 3.113
79 AF1 210 4.089
79 AF1 211 5.554
79 AF1 212 6.531
79 AF1 213 7.019
79 AF1 214 6.531
79 AF1 215 5.554
79 AF1 216 5.066
79 AF1 217 4.578
79 AF1 218 4.578
79 AF1 219 5.066
79 AF1 220 4.578
79 AF1 221 4.578
79 AF1 222 3.601
79 AF1 223 3.113
79 AF1 224 3.113
79 AF1 225 3.601
79 AF1 226 4.089
79 AF1 227 4.578
79 AF1 228 5.066
79 AF1 229 5.554
79 AF1 230 6.042
79 AF1 231 6.042
79 AF1 232 6.042
79 AF1 233 5.066
79 AF1 234 4.578
79 AF1 235 4.578
79 AF1 236 5.066
79 AF1 237 5.554
79 AF1 238 5.066
79 AF1 239 4.089
79 AF1 240 2.136
79 AF1 241 0.671
79 AF1 242 0.183
79 AF1 243 0.671
79 AF1 244 2.136
79 AF1 245 3.113
79 AF1 246 4.089
79 AF1 247 4.578
79 AF1 248 4.578
79 AF1 249 4.089
79 AF1 250 3.601
79 AF1 251 3.113
79 AF1 252 2.625
79 AF1 253 2.625
79 AF1 254 2.136
79 AF1 255 1.648
# AF2 chan 5
79 AF2 0 3.143
79 AF2 1 3.143
79 AF2 2 3.143
79 AF2 3 3.143
79 AF2 4 3.143
79 AF2 5 2.655
79 AF2 6 2.655
79 AF2 7 2.655
79 AF2 8 2.655
79 AF2 9 2.655
79 AF2 10 2.655
79 AF2 11 2.655
79 AF2 12 2.655
79 AF2 13 2.655
79 AF2 14 2.655
79 AF2 15 2.655
79 AF2 16 2.167
79 AF2 17 2.167
79 AF2 18 1.678
79 AF2 19 2.167
79 AF2 20 3.143
79 AF2 21 3.632
79 AF2 22 3.632
79 AF2 23 3.143
79 AF2 24 3.143
79 AF2 25 3.143
79 AF2 26 3.143
79 AF2 27 3.143
79 AF2 28 3.143
79 AF2 29 2.655
79 AF2 30 2.167
79 AF2 31 1.678
79 AF2 32 2.655
79 AF2 33 4.120
79 AF2 34 5.096
79 AF2 35 6.073
79 AF2 36 6.073
79 AF2 37 4.608
79 AF2 38 3.143
79 AF2 39 2.167
79 AF2 40 1.190
79 AF2 41 1.678
79 AF2 42 2.655
79 AF2 43 4.120
79 AF2 44 5.585
79 AF2 45 6.073
79 AF2 46 5.585
79 AF2 47 3.632
79 AF2 48 1.678
79 AF2 49 1.190
79 AF2 50 1.678
79 AF2 51 3.143
79 AF2 52 5.096
79 AF2 53 6.073
79 AF2 54 5.585
79 AF2 55 3.632
79 AF2 56 1.678
79 AF2 57 1.190
79 AF2 58 2.167
79 AF2 59 3.143
79 AF2 60 4.120
79 AF2 61 4.608
79 AF2 62 4.608
79 AF2 63 4.608
79 AF2 64 4.120
79 AF2 65 4.120
79 AF2 66 3.632
79 AF2 67 3.143
79 AF2 68 3.143
79 AF2 69 3.143
79 AF2 70 3.632
79 AF2 71 4.120
79 AF2 72 4.120
79 AF2 73 3.632
79 AF2 74 2.655
79 AF2 75 2.167
79 AF2 76 2.167
79 AF2 77 3.632
79 AF2 78 5.096
79 AF2 79 6.073
79 AF2 80 6.561
79 AF2 81 7.050
79 AF2 82 6.561
79 AF2 83 6.073
79 AF2 84 5.096
79 AF2 85 4.608
79 AF2 86 4.120
79 AF2 87 4.120
79 AF2 88 4.608
79 AF2 89 4.608
79 AF2 90 4.608
79 AF2 91 3.143
79 AF2 92 2.167
79 AF2 93 0.702
79 AF2 94 -0.275
79 AF2 95 -0.763
79 AF2 96 -0.763
79 AF2 97 -0.275
79 AF2 98 0.214
79 AF2 99 0.702
79 AF2 100 1.190
79 AF2 101 1.190
79 AF2 102 0.702
79 AF2 103 -0.275
79 AF2 104 -1.251
79 AF2 105 -2.228
79 AF2 106 -3.204
79 AF2 107 -3.204
79 AF2 108 -3.204
79 AF2 109 -2.716
79 AF2 110 -2.716
79 AF2 111 -1.740
79 AF2 112 -0.275
79 AF2 113 1.190
79 AF2 114 3.143
79 AF2 115 4.608
79 AF2 116 5.096
79 AF2 117 5.096
79 AF2 118 4.608
79 AF2 119 4.608
79 AF2 120 5.096
79 AF2 121 6.073
79 AF2 122 7.050
79 AF2 123 8.026
79 AF2 124 9.491
79 AF2 125 10.956
79 AF2 126 12.421
79 AF2 127 13.397
79 AF2 128 13.397
79 AF2 129 12.421
79 AF2 130 10.956
79 AF2 131 9.979
79 AF2 132 9.491
79 AF2 133 9.491
79 AF2 134 9.491
79 AF2 135 8.514
79 AF2 136 7.050
79 AF2 137 4.608
79 AF2 138 2.655
79 AF2 139 1.678
79 AF2 140 1.678
79 AF2 141 1.678
79 AF2 142 2.167
79 AF2 143 3.143
79 AF2 144 4.608
79 AF2 145 5.585
79 AF2 146 6.073
79 AF2 147 6.561
79 AF2 148 6.073
79 AF2 149 6.073
79 AF2 150 6.073
79 AF2 151 5.585
79 AF2 152 6.073
79 AF2 153 6.073
79 AF2 154 6.073
79 AF2 155 5.585
79 AF2 156 4.120
79 AF2 157 2.655
79 AF2 158 0.702
79 AF2 159 -0.275
79 AF2 160 -1.251
79 AF2 161 -1.251
79 AF2 162 -0.763
79 AF2 163 -0.763
79 AF2 164 -0.275
79 AF2 165 -0.763
79 AF2 166 -1.251
79 AF2 167 -2.228
79 AF2 168 -2.228
79 AF2 169 -1.740
79 AF2 170 -0.763
79 AF2 171 -0.275
79 AF2 172 0.214
79 AF2 173 0.702
79 AF2 174 1.190
79 AF2 175 1.678
79 AF2 176 2.167
79 AF2 177 2.167
79 AF2 178 1.678
79 AF2 179 0.702
79 AF2 180 -0.275
79 AF2 181 -0.763
79 AF2 182 -0.763
79 AF2 183 0.214
79 AF2 184 1.190
79 AF2 185 1.678
79 AF2 186 2.167
79 AF2 187 2.167
79 AF2 188 2.167
79 AF2 189 1.190
79 AF2 190 0.214
79 AF2 191 -0.275
79 AF2 192 0.214
79 AF2 193 1.190
79 AF2 194 2.167
79 AF2 195 3.143
79 AF2 196 3.632
79 AF2 197 3.632
79 AF2 198 2.655
79 AF2 199 1.678
79 AF2 200 0.702
79 AF2 201 0.702
79 AF2 202 0.702
79 AF2 203 1.190
79 AF2 204 1.678
79 AF2 205 2.655
79 AF2 206 3.143
79 AF2 207 4.120
79 AF2 208 4.608
79 AF2 209 5.096
79 AF2 210 5.585
79 AF2 211 6.073
79 AF2 212 7.050
79 AF2 213 8.026
79 AF2 214 9.003
79 AF2 215 8.514
79 AF2 216 8.026
79 AF2 217 6.561
79 AF2 218 5.096
79 AF2 219 4.120
79 AF2 220 3.632
79 AF2 221 3.632
79 AF2 222 4.120
79 AF2 223 4.120
79 AF2 224 4.120
79 AF2 225 4.120
79 AF2 226 4.120
79 AF2 227 4.120
79 AF2 228 4.120
79 AF2 229 4.608
79 AF2 230 5.585
79 AF2 231 6.073
79 AF2 232 6.561
79 AF2 233 7.050
79 AF2 234 7.050
79 AF2 235 6.561
79 AF2 236 6.561
79 AF2 237 5.585
79 AF2 238 4.120
79 AF2 239 2.655
79 AF2 240 1.678
79 AF2 241 2.167
79 AF2 242 2.655
79 AF2 243 4.120
79 AF2 244 5.096
79 AF2 245 5.096
79 AF2 246 5.096
79 AF2 247 5.096
79 AF2 248 5.096
79 AF2 249 5.096
79 AF2 250 5.096
79 AF2 251 4.608
79 AF2 252 4.120
79 AF2 253 3.632
79 AF2 254 2.655
79 AF2 255 1.678
# FZ chan 6
79 FZ 0 1.801
79 FZ 1 2.289
79 FZ 2 2.289
79 FZ 3 1.801
79 FZ 4 1.312
79 FZ 5 0.824
79 FZ 6 0.336
79 FZ 7 0.336
79 FZ 8 1.312
79 FZ 9 1.801
79 FZ 10 1.801
79 FZ 11 1.312
79 FZ 12 0.824
79 FZ 13 0.824
79 FZ 14 0.824
79 FZ 15 0.824
79 FZ 16 0.824
79 FZ 17 0.824
79 FZ 18 1.312
79 FZ 19 1.801
79 FZ 20 2.289
79 FZ 21 2.777
79 FZ 22 2.777
79 FZ 23 2.289
79 FZ 24 0.824
79 FZ 25 0.336
79 FZ 26 0.824
79 FZ 27 1.312
79 FZ 28 2.289
79 FZ 29 2.289
79 FZ 30 2.289
79 FZ 31 1.312
79 FZ 32 0.824
79 FZ 33 0.824
79 FZ 34 0.824
79 FZ 35 1.312
79 FZ 36 1.312
79 FZ 37 1.312
79 FZ 38 0.336
79 FZ 39 -0.153
79 FZ 40 -1.129
79 FZ 41 -1.617
79 FZ 42 -1.129
79 FZ 43 -0.153
79 FZ 44 1.312
79 FZ 45 2.289
79 FZ 46 2.289
79 FZ 47 0.824
79 FZ 48 -0.641
79 FZ 49 -1.617
79 FZ 50 -1.617
79 FZ 51 -0.641
79 FZ 52 0.336
79 FZ 53 0.824
79 FZ 54 0.336
79 FZ 55 -1.617
79 FZ 56 -2.594
79 FZ 57 -3.082
79 FZ 58 -2.594
79 FZ 59 -1.617
79 FZ 60 -1.129
79 FZ 61 -1.129
79 FZ 62 -1.617
79 FZ 63 -1.617
79 FZ 64 -1.617
79 FZ 65 -2.106
79 FZ 66 -2.106
79 FZ 67 -2.106
79 FZ 68 -1.617
79 FZ 69 -1.617
79 FZ 70 -1.129
79 FZ 71 -1.617
79 FZ 72 -1.617
79 FZ 73 -2.106
79 FZ 74 -2.106
79 FZ 75 -1.617
79 FZ 76 -0.153
79 FZ 77 1.801
79 FZ 78 2.777
79 FZ 79 3.265
79 FZ 80 3.265
79 FZ 81 2.777
79 FZ 82 2.777
79 FZ 83 2.777
79 FZ 84 2.777
79 FZ 85 2.777
79 FZ 86 2.777
79 FZ 87 2.289
79 FZ 88 1.312
79 FZ 89 0.824
79 FZ 90 -0.153
79 FZ 91 -0.641
79 FZ 92 -1.617
79 FZ 93 -2.594
79 FZ 94 -3.571
79 FZ 95 -4.059
79 FZ 96 -4.059
79 FZ 97 -3.082
79 FZ 98 -1.617
79 FZ 99 -0.641
79 FZ 100 0.336
79 FZ 101 0.336
79 FZ 102 0.336
79 FZ 103 -0.153
79 FZ 104 -0.153
79 FZ 105 -0.153
79 FZ 106 -0.153
79 FZ 107 0.336
79 FZ 108 0.824
79 FZ 109 1.801
79 FZ 110 2.777
79 FZ 111 3.754
79 FZ 112 4.242
79 FZ 113 5.219
79 FZ 114 6.683
79 FZ 115 7.172
79 FZ 116 8.148
79 FZ 117 8.148
79 FZ 118 7.660
79 FZ 119 7.660
79 FZ 120 7.660
79 FZ 121 8.148
79 FZ 122 9.125
79 FZ 123 10.101
79 FZ 124 10.590
79 FZ 125 10.590
79 FZ 126 10.590
79 FZ 127 10.590
79 FZ 128 10.101
79 FZ 129 9.125
79 FZ 130 8.636
79 FZ 131 7.660
79 FZ 132 7.172
79 FZ 133 7.660
79 FZ 134 8.636
79 FZ 135 8.148
79 FZ 136 7.172
79 FZ 137 5.219
79 FZ 138 3.754
79 FZ 139 2.777
79 FZ 140 3.265
79 FZ 141 4.242
79 FZ 142 5.219
79 FZ 143 5.707
79 FZ 144 6.683
79 FZ 145 7.172
79 FZ 146 7.660
79 FZ 147 8.148
79 FZ 148 8.148
79 FZ 149 7.660
79 FZ 150 7.172
79 FZ 151 6.683
79 FZ 152 6.683
79 FZ 153 7.172
79 FZ 154 7.172
79 FZ 155 6.683
79 FZ 156 5.219
79 FZ 157 3.265
79 FZ 158 0.824
79 FZ 159 -0.641
79 FZ 160 -1.617
79 FZ 161 -1.617
79 FZ 162 -1.129
79 FZ 163 -0.153
79 FZ 164 0.336
79 FZ 165 -0.153
79 FZ 166 -0.641
79 FZ 167 -1.617
79 FZ 168 -2.106
79 FZ 169 -1.617
79 FZ 170 -0.641
79 FZ 171 0.336
79 FZ 172 0.824
79 FZ 173 0.824
79 FZ 174 0.824
79 FZ 175 1.312
79 FZ 176 1.312
79 FZ 177 1.312
79 FZ 178 0.824
79 FZ 179 0.336
79 FZ 180 -0.641
79 FZ 181 -0.153
79 FZ 182 0.336
79 FZ 183 0.824
79 FZ 184 1.312
79 FZ 185 1.801
79 FZ 186 2.289
79 FZ 187 2.777
79 FZ 188 2.289
79 FZ 189 2.289
79 FZ 190 1.312
79 FZ 191 0.824
79 FZ 192 0.824
79 FZ 193 2.289
79 FZ 194 3.754
79 FZ 195 4.730
79 FZ 196 5.219
79 FZ 197 4.242
79 FZ 198 3.265
79 FZ 199 2.777
79 FZ 200 2.289
79 FZ 201 2.289
79 FZ 202 2.777
79 FZ 203 2.777
79 FZ 204 3.265
79 FZ 205 3.754
79 FZ 206 4.242
79 FZ 207 4.242
79 FZ 208 4.242
79 FZ 209 4.242
79 FZ 210 4.730
79 FZ 211 5.707
79 FZ 212 6.683
79 FZ 213 7.172
79 FZ 214 7.172
79 FZ 215 6.683
79 FZ 216 5.707
79 FZ 217 5.219
79 FZ 218 4.730
79 FZ 219 4.242
79 FZ 220 3.265
79 FZ 221 2.777
79 FZ 222 2.777
79 FZ 223 2.777
79 FZ 224 3.265
79 FZ 225 4.242
79 FZ 226 4.730
79 FZ 227 4.730
79 FZ 228 5.219
79 FZ 229 5.707
79 FZ 230 6.195
79 FZ 231 6.683
79 FZ 232 7.172
79 FZ 233 7.172
79 FZ 234 7.172
79 FZ 235 7.660
79 FZ 236 8.148
79 FZ 237 8.148
79 FZ 238 8.148
79 FZ 239 6.683
79 FZ 240 5.219
79 FZ 241 4.730
79 FZ 242 5.219
79 FZ 243 5.707
79 FZ 244 6.683
79 FZ 245 7.172
79 FZ 246 7.660
79 FZ 247 8.148
79 FZ 248 8.148
79 FZ 249 8.148
79 FZ 250 7.660
79 FZ 251 7.172
79 FZ 252 6.683
79 FZ 253 6.683
79 FZ 254 6.195
79 FZ 255 5.707
# F4 chan 7
79 F4 0 1.801
79 F4 1 1.801
79 F4 2 2.289
79 F4 3 2.289
79 F4 4 2.289
79 F4 5 2.289
79 F4 6 1.312
79 F4 7 0.824
79 F4 8 0.336
79 F4 9 0.336
79 F4 10 0.824
79 F4 11 1.312
79 F4 12 1.801
79 F4 13 2.289
79 F4 14 1.801
79 F4 15 1.312
79 F4 16 0.336
79 F4 17 -0.153
79 F4 18 -0.153
79 F4 19 0.824
79 F4 20 2.289
79 F4 21 3.265
79 F4 22 2.289
79 F4 23 1.312
79 F4 24 -0.153
79 F4 25 -0.641
79 F4 26 0.336
79 F4 27 0.824
79 F4 28 1.312
79 F4 29 1.312
79 F4 30 0.336
79 F4 31 -0.153
79 F4 32 0.336
79 F4 33 1.801
79 F4 34 3.754
79 F4 35 4.730
79 F4 36 4.730
79 F4 37 4.242
79 F4 38 3.265
79 F4 39 1.801
79 F4 40 1.312
79 F4 41 1.801
79 F4 42 2.777
79 F4 43 3.754
79 F4 44 4.730
79 F4 45 5.707
79 F4 46 5.219
79 F4 47 4.242
79 F4 48 3.265
79 F4 49 3.265
79 F4 50 3.754
79 F4 51 5.219
79 F4 52 6.195
79 F4 53 6.195
79 F4 54 5.219
79 F4 55 3.754
79 F4 56 2.289
79 F4 57 2.289
79 F4 58 3.265
79 F4 59 4.730
79 F4 60 5.707
79 F4 61 5.707
79 F4 62 5.707
79 F4 63 5.219
79 F4 64 5.707
79 F4 65 5.707
79 F4 66 5.707
79 F4 67 5.219
79 F4 68 5.219
79 F4 69 5.219
79 F4 70 5.219
79 F4 71 5.707
79 F4 72 5.707
79 F4 73 5.219
79 F4 74 4.242
79 F4 75 3.265
79 F4 76 2.777
79 F4 77 3.265
79 F4 78 4.242
79 F4 79 4.730
79 F4 80 5.219
79 F4 81 4.730
79 F4 82 3.265
79 F4 83 2.289
79 F4 84 0.824
79 F4 85 -0.153
79 F4 86 -0.641
79 F4 87 -0.641
79 F4 88 -0.641
79 F4 89 -0.641
79 F4 90 -1.129
79 F4 91 -2.106
79 F4 92 -3.571
79 F4 93 -4.059
79 F4 94 -4.547
79 F4 95 -3.571
79 F4 96 -2.594
79 F4 97 -1.617
79 F4 98 -0.641
79 F4 99 0.824
79 F4 100 1.312
79 F4 101 2.289
79 F4 102 2.289
79 F4 103 2.289
79 F4 104 1.801
79 F4 105 0.824
79 F4 106 0.336
79 F4 107 0.336
79 F4 108 0.336
79 F4 109 0.336
79 F4 110 0.336
79 F4 111 0.824
79 F4 112 1.801
79 F4 113 3.265
79 F4 114 4.730
79 F4 115 4.730
79 F4 116 4.242
79 F4 117 3.754
79 F4 118 3.265
79 F4 119 3.754
79 F4 120 4.730
79 F4 121 5.219
79 F4 122 6.195
79 F4 123 7.172
79 F4 124 8.636
79 F4 125 10.101
79 F4 126 11.566
79 F4 127 12.054
79 F4 128 11.566
79 F4 129 10.101
79 F4 130 9.613
79 F4 131 9.125
79 F4 132 9.613
79 F4 133 9.613
79 F4 134 9.125
79 F4 135 7.660
79 F4 136 5.707
79 F4 137 3.754
79 F4 138 2.289
79 F4 139 1.312
79 F4 140 1.312
79 F4 141 1.801
79 F4 142 2.289
79 F4 143 3.265
79 F4 144 3.754
79 F4 145 3.754
79 F4 146 3.754
79 F4 147 3.754
79 F4 148 3.754
79 F4 149 4.242
79 F4 150 5.219
79 F4 151 6.195
79 F4 152 7.172
79 F4 153 7.660
79 F4 154 7.660
79 F4 155 6.683
79 F4 156 5.707
79 F4 157 4.730
79 F4 158 3.754
79 F4 159 2.777
79 F4 160 2.289
79 F4 161 2.777
79 F4 162 3.265
79 F4 163 3.754
79 F4 164 3.754
79 F4 165 3.265
79 F4 166 2.777
79 F4 167 1.801
79 F4 168 1.312
79 F4 169 1.312
79 F4 170 1.801
79 F4 171 1.801
79 F4 172 1.801
79 F4 173 2.289
79 F4 174 2.777
79 F4 175 3.754
79 F4 176 5.219
79 F4 177 5.219
79 F4 178 4.730
79 F4 179 3.265
79 F4 180 2.289
79 F4 181 1.801
79 F4 182 1.801
79 F4 183 2.289
79 F4 184 3.265
79 F4 185 4.242
79 F4 186 4.730
79 F4 187 5.219
79 F4 188 5.219
79 F4 189 4.730
79 F4 190 3.265
79 F4 191 1.801
79 F4 192 1.312
79 F4 193 1.312
79 F4 194 3.265
79 F4 195 4.730
79 F4 196 5.707
79 F4 197 5.219
79 F4 198 3.754
79 F4 199 2.289
79 F4 200 1.312
79 F4 201 0.824
79 F4 202 0.824
79 F4 203 0.824
79 F4 204 0.824
79 F4 205 1.801
79 F4 206 3.265
79 F4 207 4.730
79 F4 208 5.219
79 F4 209 5.219
79 F4 210 4.730
79 F4 211 4.730
79 F4 212 5.707
79 F4 213 7.660
79 F4 214 9.125
79 F4 215 9.125
79 F4 216 8.148
79 F4 217 5.707
79 F4 218 3.754
79 F4 219 2.289
79 F4 220 2.289
79 F4 221 2.777
79 F4 222 3.754
79 F4 223 4.242
79 F4 224 4.242
79 F4 225 3.754
79 F4 226 3.265
79 F4 227 3.265
79 F4 228 3.754
79 F4 229 4.730
79 F4 230 5.707
79 F4 231 6.683
79 F4 232 6.683
79 F4 233 6.683
79 F4 234 6.195
79 F4 235 5.707
79 F4 236 5.219
79 F4 237 3.754
79 F4 238 2.289
79 F4 239 0.824
79 F4 240 0.824
79 F4 241 1.312
79 F4 242 2.777
79 F4 243 3.754
79 F4 244 3.754
79 F4 245 3.754
79 F4 246 3.265
79 F4 247 3.265
79 F4 248 3.265
79 F4 249 4.242
79 F4 250 4.242
79 F4 251 4.730
79 F4 252 4.730
79 F4 253 4.242
79 F4 254 3.754
79 F4 255 2.777
# F3 chan 8
79 F3 0 7.294
79 F3 1 8.759
79 F3 2 7.782
79 F3 3 6.317
79 F3 4 4.364
79 F3 5 3.387
79 F3 6 3.387
79 F3 7 4.364
79 F3 8 5.829
79 F3 9 6.805
79 F3 10 6.317
79 F3 11 5.341
79 F3 12 3.387
79 F3 13 1.923
79 F3 14 1.434
79 F3 15 2.411
79 F3 16 2.899
79 F3 17 3.387
79 F3 18 3.876
79 F3 19 4.364
79 F3 20 4.852
79 F3 21 5.829
79 F3 22 6.317
79 F3 23 6.317
79 F3 24 5.341
79 F3 25 3.876
79 F3 26 3.387
79 F3 27 3.387
79 F3 28 4.364
79 F3 29 5.341
79 F3 30 5.341
79 F3 31 4.364
79 F3 32 3.387
79 F3 33 2.899
79 F3 34 3.387
79 F3 35 3.876
79 F3 36 4.852
79 F3 37 4.852
79 F3 38 4.364
79 F3 39 3.387
79 F3 40 1.923
79 F3 41 1.434
79 F3 42 1.434
79 F3 43 2.411
79 F3 44 4.364
79 F3 45 6.317
79 F3 46 6.805
79 F3 47 5.829
79 F3 48 3.876
79 F3 49 1.923
79 F3 50 0.946
79 F3 51 1.434
79 F3 52 2.899
79 F3 53 4.364
79 F3 54 5.341
79 F3 55 4.852
79 F3 56 3.387
79 F3 57 2.411
79 F3 58 1.434
79 F3 59 1.434
79 F3 60 1.434
79 F3 61 2.411
79 F3 62 2.411
79 F3 63 2.411
79 F3 64 1.923
79 F3 65 1.434
79 F3 66 0.946
79 F3 67 0.458
79 F3 68 0.458
79 F3 69 -0.031
79 F3 70 -0.031
79 F3 71 -0.519
79 F3 72 -0.519
79 F3 73 0.458
79 F3 74 0.946
79 F3 75 2.411
79 F3 76 3.876
79 F3 77 4.852
79 F3 78 5.829
79 F3 79 6.805
79 F3 80 6.805
79 F3 81 7.294
79 F3 82 7.294
79 F3 83 7.782
79 F3 84 7.782
79 F3 85 8.270
79 F3 86 8.270
79 F3 87 8.759
79 F3 88 9.247
79 F3 89 9.247
79 F3 90 9.247
79 F3 91 8.270
79 F3 92 6.805
79 F3 93 5.341
79 F3 94 3.387
79 F3 95 2.411
79 F3 96 2.411
79 F3 97 3.387
79 F3 98 4.852
79 F3 99 5.829
79 F3 100 5.829
79 F3 101 5.341
79 F3 102 3.876
79 F3 103 2.899
79 F3 104 1.923
79 F3 105 1.923
79 F3 106 1.923
79 F3 107 2.411
79 F3 108 3.387
79 F3 109 5.341
79 F3 110 6.317
79 F3 111 6.805
79 F3 112 7.294
79 F3 113 7.782
79 F3 114 8.270
79 F3 115 9.735
79 F3 116 10.223
79 F3 117 10.223
79 F3 118 9.247
79 F3 119 8.270
79 F3 120 8.270
79 F3 121 9.735
79 F3 122 11.688
79 F3 123 13.153
79 F3 124 14.130
79 F3 125 13.641
79 F3 126 13.153
79 F3 127 12.665
79 F3 128 12.177
79 F3 129 11.688
79 F3 130 10.223
79 F3 131 9.247
79 F3 132 8.759
79 F3 133 9.247
79 F3 134 10.223
79 F3 135 9.735
79 F3 136 8.759
79 F3 137 6.805
79 F3 138 5.341
79 F3 139 4.852
79 F3 140 5.341
79 F3 141 6.317
79 F3 142 7.782
79 F3 143 8.759
79 F3 144 9.735
79 F3 145 10.223
79 F3 146 11.200
79 F3 147 11.200
79 F3 148 11.200
79 F3 149 11.200
79 F3 150 10.712
79 F3 151 10.712
79 F3 152 11.200
79 F3 153 12.177
79 F3 154 12.177
79 F3 155 11.688
79 F3 156 10.223
79 F3 157 7.782
79 F3 158 4.852
79 F3 159 2.411
79 F3 160 1.434
79 F3 161 1.434
79 F3 162 1.923
79 F3 163 2.411
79 F3 164 2.899
79 F3 165 2.899
79 F3 166 1.923
79 F3 167 1.434
79 F3 168 0.946
79 F3 169 0.458
79 F3 170 0.946
79 F3 171 1.434
79 F3 172 2.411
79 F3 173 3.387
79 F3 174 3.876
79 F3 175 4.852
79 F3 176 4.364
79 F3 177 3.387
79 F3 178 2.411
79 F3 179 1.434
79 F3 180 1.434
79 F3 181 1.434
79 F3 182 1.923
79 F3 183 2.411
79 F3 184 2.411
79 F3 185 2.899
79 F3 186 3.387
79 F3 187 3.876
79 F3 188 3.876
79 F3 189 2.899
79 F3 190 1.434
79 F3 191 0.946
79 F3 192 1.923
79 F3 193 3.387
79 F3 194 5.341
79 F3 195 6.805
79 F3 196 6.317
79 F3 197 5.341
79 F3 198 3.876
79 F3 199 3.387
79 F3 200 3.387
79 F3 201 4.364
79 F3 202 5.341
79 F3 203 5.829
79 F3 204 6.317
79 F3 205 6.317
79 F3 206 6.317
79 F3 207 5.829
79 F3 208 5.341
79 F3 209 5.341
79 F3 210 6.317
79 F3 211 7.782
79 F3 212 8.759
79 F3 213 9.247
79 F3 214 8.270
79 F3 215 6.805
79 F3 216 6.317
79 F3 217 6.317
79 F3 218 6.805
79 F3 219 7.782
79 F3 220 8.270
79 F3 221 7.782
79 F3 222 6.805
79 F3 223 6.317
79 F3 224 5.829
79 F3 225 6.317
79 F3 226 6.317
79 F3 227 6.805
79 F3 228 6.805
79 F3 229 7.294
79 F3 230 7.294
79 F3 231 7.294
79 F3 232 7.294
79 F3 233 6.805
79 F3 234 6.317
79 F3 235 6.805
79 F3 236 8.270
79 F3 237 8.759
79 F3 238 8.759
79 F3 239 7.294
79 F3 240 5.341
79 F3 241 2.899
79 F3 242 1.923
79 F3 243 1.923
79 F3 244 3.387
79 F3 245 5.341
79 F3 246 7.294
79 F3 247 8.759
79 F3 248 9.247
79 F3 249 8.759
79 F3 250 6.805
79 F3 251 5.829
79 F3 252 4.852
79 F3 253 4.852
79 F3 254 5.829
79 F3 255 6.317
# FC6 chan 9
79 FC6 0 1.333
79 FC6 1 1.333
79 FC6 2 1.333
79 FC6 3 2.309
79 FC6 4 2.797
79 FC6 5 2.797
79 FC6 6 2.309
79 FC6 7 0.844
79 FC6 8 -0.132
79 FC6 9 -0.621
79 FC6 10 -0.621
79 FC6 11 0.356
79 FC6 12 1.333
79 FC6 13 1.821
79 FC6 14 1.821
79 FC6 15 0.844
79 FC6 16 -0.132
79 FC6 17 -0.621
79 FC6 18 -1.109
79 FC6 19 -0.621
79 FC6 20 -0.132
79 FC6 21 -0.132
79 FC6 22 -0.621
79 FC6 23 -1.109
79 FC6 24 -1.597
79 FC6 25 -1.597
79 FC6 26 -1.597
79 FC6 27 -1.597
79 FC6 28 -1.597
79 FC6 29 -2.574
79 FC6 30 -3.550
79 FC6 31 -4.038
79 FC6 32 -3.550
79 FC6 33 -2.085
79 FC6 34 -0.132
79 FC6 35 1.333
79 FC6 36 1.821
79 FC6 37 1.821
79 FC6 38 0.844
79 FC6 39 -0.621
79 FC6 40 -0.621
79 FC6 41 0.356
79 FC6 42 1.821
79 FC6 43 2.797
79 FC6 44 3.774
79 FC6 45 3.774
79 FC6 46 4.262
79 FC6 47 4.751
79 FC6 48 5.239
79 FC6 49 6.215
79 FC6 50 6.704
79 FC6 51 6.704
79 FC6 52 6.215
79 FC6 53 5.239
79 FC6 54 4.262
79 FC6 55 3.286
79 FC6 56 2.797
79 FC6 57 3.286
79 FC6 58 4.751
79 FC6 59 5.727
79 FC6 60 6.704
79 FC6 61 6.704
79 FC6 62 6.704
79 FC6 63 5.727
79 FC6 64 5.727
79 FC6 65 5.727
79 FC6 66 5.239
79 FC6 67 4.751
79 FC6 68 4.262
79 FC6 69 4.751
79 FC6 70 5.727
79 FC6 71 6.704
79 FC6 72 7.192
79 FC6 73 6.215
79 FC6 74 4.262
79 FC6 75 2.309
79 FC6 76 0.844
79 FC6 77 1.821
79 FC6 78 3.286
79 FC6 79 4.262
79 FC6 80 4.751
79 FC6 81 3.774
79 FC6 82 2.309
79 FC6 83 0.356
79 FC6 84 -0.621
79 FC6 85 -1.597
79 FC6 86 -1.109
79 FC6 87 -0.132
79 FC6 88 0.844
79 FC6 89 1.821
79 FC6 90 1.821
79 FC6 91 1.333
79 FC6 92 0.356
79 FC6 93 -0.621
79 FC6 94 -0.621
79 FC6 95 -0.132
79 FC6 96 0.356
79 FC6 97 0.844
79 FC6 98 1.333
79 FC6 99 2.309
79 FC6 100 2.797
79 FC6 101 3.774
79 FC6 102 3.774
79 FC6 103 2.797
79 FC6 104 0.844
79 FC6 105 -1.597
79 FC6 106 -2.574
79 FC6 107 -2.574
79 FC6 108 -2.085
79 FC6 109 -1.597
79 FC6 110 -2.085
79 FC6 111 -3.062
79 FC6 112 -3.550
79 FC6 113 -3.550
79 FC6 114 -2.574
79 FC6 115 -1.597
79 FC6 116 -0.621
79 FC6 117 -0.132
79 FC6 118 -0.132
79 FC6 119 -0.132
79 FC6 120 0.356
79 FC6 121 1.333
79 FC6 122 1.821
79 FC6 123 2.797
79 FC6 124 3.774
79 FC6 125 5.239
79 FC6 126 6.704
79 FC6 127 7.680
79 FC6 128 7.680
79 FC6 129 7.192
79 FC6 130 7.192
79 FC6 131 7.192
79 FC6 132 7.192
79 FC6 133 7.192
79 FC6 134 5.727
79 FC6 135 4.262
79 FC6 136 2.797
79 FC6 137 1.821
79 FC6 138 1.333
79 FC6 139 0.844
79 FC6 140 0.356
79 FC6 141 -0.132
79 FC6 142 -0.132
79 FC6 143 -0.132
79 FC6 144 -0.621
79 FC6 145 -1.109
79 FC6 146 -1.597
79 FC6 147 -2.085
79 FC6 148 -1.597
79 FC6 149 -0.621
79 FC6 150 0.844
79 FC6 151 1.821
79 FC6 152 2.309
79 FC6 153 2.309
79 FC6 154 1.821
79 FC6 155 0.844
79 FC6 156 0.844
79 FC6 157 1.333
79 FC6 158 2.309
79 FC6 159 2.797
79 FC6 160 3.774
79 FC6 161 4.262
79 FC6 162 4.751
79 FC6 163 5.239
79 FC6 164 5.239
79 FC6 165 5.239
79 FC6 166 5.239
79 FC6 167 4.751
79 FC6 168 4.262
79 FC6 169 4.262
79 FC6 170 3.774
79 FC6 171 2.797
79 FC6 172 2.309
79 FC6 173 1.821
79 FC6 174 2.309
79 FC6 175 3.286
79 FC6 176 4.262
79 FC6 177 5.239
79 FC6 178 5.727
79 FC6 179 4.262
79 FC6 180 3.774
79 FC6 181 2.797
79 FC6 182 2.309
79 FC6 183 1.821
79 FC6 184 1.333
79 FC6 185 0.844
79 FC6 186 0.844
79 FC6 187 1.333
79 FC6 188 1.333
79 FC6 189 1.333
79 FC6 190 0.356
79 FC6 191 -0.621
79 FC6 192 -2.085
79 FC6 193 -2.574
79 FC6 194 -1.597
79 FC6 195 -0.132
79 FC6 196 0.356
79 FC6 197 -0.132
79 FC6 198 -2.085
79 FC6 199 -3.550
79 FC6 200 -4.527
79 FC6 201 -4.038
79 FC6 202 -3.062
79 FC6 203 -2.574
79 FC6 204 -1.597
79 FC6 205 -0.621
79 FC6 206 0.356
79 FC6 207 1.821
79 FC6 208 2.797
79 FC6 209 2.797
79 FC6 210 2.309
79 FC6 211 1.333
79 FC6 212 1.333
79 FC6 213 2.309
79 FC6 214 3.286
79 FC6 215 4.751
79 FC6 216 4.262
79 FC6 217 2.797
79 FC6 218 0.844
79 FC6 219 -0.621
79 FC6 220 -1.109
79 FC6 221 -0.132
79 FC6 222 0.844
79 FC6 223 1.821
79 FC6 224 1.333
79 FC6 225 0.844
79 FC6 226 -0.132
79 FC6 227 -0.132
79 FC6 228 0.356
79 FC6 229 0.844
79 FC6 230 1.333
79 FC6 231 1.333
79 FC6 232 1.333
79 FC6 233 0.356
79 FC6 234 -0.132
79 FC6 235 -1.597
79 FC6 236 -3.062
79 FC6 237 -5.015
79 FC6 238 -6.480
79 FC6 239 -6.968
79 FC6 240 -6.480
79 FC6 241 -5.015
79 FC6 242 -3.062
79 FC6 243 -2.085
79 FC6 244 -2.085
79 FC6 245 -2.574
79 FC6 246 -3.062
79 FC6 247 -3.062
79 FC6 248 -2.085
79 FC6 249 -1.109
79 FC6 250 -0.621
79 FC6 251 -0.132
79 FC6 252 -0.132
79 FC6 253 -0.132
79 FC6 254 -0.132
79 FC6 255 -0.621
# FC5 chan 10
79 FC5 0 8.870
79 FC5 1 9.847
79 FC5 2 8.870
79 FC5 3 7.894
79 FC5 4 6.917
79 FC5 5 6.917
79 FC5 6 7.894
79 FC5 7 8.870
79 FC5 8 10.824
79 FC5 9 11.312
79 FC5 10 10.824
79 FC5 11 8.870
79 FC5 12 5.941
79 FC5 13 3.499
79 FC5 14 2.035
79 FC5 15 1.546
79 FC5 16 3.011
79 FC5 17 4.476
79 FC5 18 5.452
79 FC5 19 5.452
79 FC5 20 5.452
79 FC5 21 5.941
79 FC5 22 5.941
79 FC5 23 6.429
79 FC5 24 6.429
79 FC5 25 5.452
79 FC5 26 4.476
79 FC5 27 3.499
79 FC5 28 3.499
79 FC5 29 3.499
79 FC5 30 3.499
79 FC5 31 3.011
79 FC5 32 2.523
79 FC5 33 2.035
79 FC5 34 2.523
79 FC5 35 2.523
79 FC5 36 2.523
79 FC5 37 2.035
79 FC5 38 1.546
79 FC5 39 1.058
79 FC5 40 1.058
79 FC5 41 1.546
79 FC5 42 2.035
79 FC5 43 3.011
79 FC5 44 3.499
79 FC5 45 4.476
79 FC5 46 5.452
79 FC5 47 5.452
79 FC5 48 3.988
79 FC5 49 3.011
79 FC5 50 1.546
79 FC5 51 2.035
79 FC5 52 3.499
79 FC5 53 5.452
79 FC5 54 7.406
79 FC5 55 8.382
79 FC5 56 6.917
79 FC5 57 4.964
79 FC5 58 3.011
79 FC5 59 2.035
79 FC5 60 2.035
79 FC5 61 3.011
79 FC5 62 3.988
79 FC5 63 3.988
79 FC5 64 3.499
79 FC5 65 2.523
79 FC5 66 2.035
79 FC5 67 1.546
79 FC5 68 1.546
79 FC5 69 1.546
79 FC5 70 1.546
79 FC5 71 1.546
79 FC5 72 1.546
79 FC5 73 2.035
79 FC5 74 3.011
79 FC5 75 3.988
79 FC5 76 4.476
79 FC5 77 4.964
79 FC5 78 5.452
79 FC5 79 6.429
79 FC5 80 7.406
79 FC5 81 9.359
79 FC5 82 10.335
79 FC5 83 10.824
79 FC5 84 9.847
79 FC5 85 9.359
79 FC5 86 9.359
79 FC5 87 10.335
79 FC5 88 12.288
79 FC5 89 14.242
79 FC5 90 15.218
79 FC5 91 14.730
79 FC5 92 13.265
79 FC5 93 11.312
79 FC5 94 9.847
79 FC5 95 8.870
79 FC5 96 8.382
79 FC5 97 8.870
79 FC5 98 9.847
79 FC5 99 10.335
79 FC5 100 9.847
79 FC5 101 8.382
79 FC5 102 7.406
79 FC5 103 5.452
79 FC5 104 4.476
79 FC5 105 3.499
79 FC5 106 3.011
79 FC5 107 3.011
79 FC5 108 3.499
79 FC5 109 3.988
79 FC5 110 4.476
79 FC5 111 4.476
79 FC5 112 3.988
79 FC5 113 4.476
79 FC5 114 5.452
79 FC5 115 6.429
79 FC5 116 6.917
79 FC5 117 6.429
79 FC5 118 5.452
79 FC5 119 4.476
79 FC5 120 4.476
79 FC5 121 5.941
79 FC5 122 8.382
79 FC5 123 10.335
79 FC5 124 11.312
79 FC5 125 10.824
79 FC5 126 9.847
79 FC5 127 8.870
79 FC5 128 8.382
79 FC5 129 8.382
79 FC5 130 8.382
79 FC5 131 7.894
79 FC5 132 7.894
79 FC5 133 7.894
79 FC5 134 7.406
79 FC5 135 7.406
79 FC5 136 6.917
79 FC5 137 5.941
79 FC5 138 4.476
79 FC5 139 3.988
79 FC5 140 3.988
79 FC5 141 4.476
79 FC5 142 4.964
79 FC5 143 5.452
79 FC5 144 5.941
79 FC5 145 6.429
79 FC5 146 6.429
79 FC5 147 6.429
79 FC5 148 6.429
79 FC5 149 6.429
79 FC5 150 6.917
79 FC5 151 6.917
79 FC5 152 7.406
79 FC5 153 7.894
79 FC5 154 7.894
79 FC5 155 7.894
79 FC5 156 7.406
79 FC5 157 6.429
79 FC5 158 5.452
79 FC5 159 3.988
79 FC5 160 3.499
79 FC5 161 3.499
79 FC5 162 3.499
79 FC5 163 3.499
79 FC5 164 3.011
79 FC5 165 2.523
79 FC5 166 2.523
79 FC5 167 2.523
79 FC5 168 2.035
79 FC5 169 2.035
79 FC5 170 1.546
79 FC5 171 1.058
79 FC5 172 1.058
79 FC5 173 2.035
79 FC5 174 3.499
79 FC5 175 4.476
79 FC5 176 4.964
79 FC5 177 3.988
79 FC5 178 3.011
79 FC5 179 1.546
79 FC5 180 1.546
79 FC5 181 2.035
79 FC5 182 3.011
79 FC5 183 3.011
79 FC5 184 3.011
79 FC5 185 2.523
79 FC5 186 3.011
79 FC5 187 3.011
79 FC5 188 3.011
79 FC5 189 2.523
79 FC5 190 1.058
79 FC5 191 0.570
79 FC5 192 0.570
79 FC5 193 1.546
79 FC5 194 2.523
79 FC5 195 3.499
79 FC5 196 3.011
79 FC5 197 2.035
79 FC5 198 1.546
79 FC5 199 2.035
79 FC5 200 3.011
79 FC5 201 4.476
79 FC5 202 5.452
79 FC5 203 5.941
79 FC5 204 5.452
79 FC5 205 4.476
79 FC5 206 3.499
79 FC5 207 2.523
79 FC5 208 2.035
79 FC5 209 2.523
79 FC5 210 3.988
79 FC5 211 5.452
79 FC5 212 6.917
79 FC5 213 7.406
79 FC5 214 6.917
79 FC5 215 5.941
79 FC5 216 5.452
79 FC5 217 5.452
79 FC5 218 5.941
79 FC5 219 6.917
79 FC5 220 7.894
79 FC5 221 8.382
79 FC5 222 8.382
79 FC5 223 7.894
79 FC5 224 6.917
79 FC5 225 6.429
79 FC5 226 5.452
79 FC5 227 4.964
79 FC5 228 4.964
79 FC5 229 5.452
79 FC5 230 5.452
79 FC5 231 5.941
79 FC5 232 5.452
79 FC5 233 4.964
79 FC5 234 4.476
79 FC5 235 4.964
79 FC5 236 5.941
79 FC5 237 6.917
79 FC5 238 6.917
79 FC5 239 4.964
79 FC5 240 2.035
79 FC5 241 -0.895
79 FC5 242 -2.848
79 FC5 243 -2.848
79 FC5 244 -0.895
79 FC5 245 1.546
79 FC5 246 3.988
79 FC5 247 5.452
79 FC5 248 6.429
79 FC5 249 6.429
79 FC5 250 5.941
79 FC5 251 5.452
79 FC5 252 4.964
79 FC5 253 4.964
79 FC5 254 5.452
79 FC5 255 6.917
# FC2 chan 11
79 FC2 0 0.356
79 FC2 1 0.356
79 FC2 2 0.844
79 FC2 3 0.844
79 FC2 4 0.844
79 FC2 5 -0.132
79 FC2 6 -0.132
79 FC2 7 -0.621
79 FC2 8 -0.621
79 FC2 9 -1.109
79 FC2 10 -0.132
79 FC2 11 -0.132
79 FC2 12 0.356
79 FC2 13 0.356
79 FC2 14 0.356
79 FC2 15 0.356
79 FC2 16 -0.132
79 FC2 17 -0.621
79 FC2 18 -0.132
79 FC2 19 0.844
79 FC2 20 1.333
79 FC2 21 1.333
79 FC2 22 0.844
79 FC2 23 -0.132
79 FC2 24 -0.621
79 FC2 25 -0.621
79 FC2 26 -0.621
79 FC2 27 -0.132
79 FC2 28 -0.132
79 FC2 29 -0.132
79 FC2 30 -0.621
79 FC2 31 -0.621
79 FC2 32 -0.621
79 FC2 33 0.356
79 FC2 34 0.844
79 FC2 35 1.821
79 FC2 36 1.821
79 FC2 37 1.333
79 FC2 38 0.844
79 FC2 39 -0.132
79 FC2 40 -0.132
79 FC2 41 -0.132
79 FC2 42 0.356
79 FC2 43 0.844
79 FC2 44 1.821
79 FC2 45 2.309
79 FC2 46 2.309
79 FC2 47 1.821
79 FC2 48 1.333
79 FC2 49 1.333
79 FC2 50 1.333
79 FC2 51 1.821
79 FC2 52 1.821
79 FC2 53 1.821
79 FC2 54 1.333
79 FC2 55 0.356
79 FC2 56 -0.132
79 FC2 57 -0.132
79 FC2 58 -0.132
79 FC2 59 0.356
79 FC2 60 0.844
79 FC2 61 0.844
79 FC2 62 0.844
79 FC2 63 0.356
79 FC2 64 0.356
79 FC2 65 0.356
79 FC2 66 0.356
79 FC2 67 0.356
79 FC2 68 0.356
79 FC2 69 0.844
79 FC2 70 0.844
79 FC2 71 0.844
79 FC2 72 0.844
79 FC2 73 0.356
79 FC2 74 -0.132
79 FC2 75 -0.621
79 FC2 76 -0.621
79 FC2 77 0.356
79 FC2 78 1.333
79 FC2 79 1.821
79 FC2 80 1.821
79 FC2 81 0.844
79 FC2 82 -0.132
79 FC2 83 -0.621
79 FC2 84 -0.132
79 FC2 85 -0.132
79 FC2 86 0.356
79 FC2 87 -0.132
79 FC2 88 -0.621
79 FC2 89 -1.597
79 FC2 90 -2.085
79 FC2 91 -2.085
79 FC2 92 -2.085
79 FC2 93 -2.085
79 FC2 94 -2.085
79 FC2 95 -2.085
79 FC2 96 -1.597
79 FC2 97 -1.109
79 FC2 98 -0.132
79 FC2 99 0.356
79 FC2 100 1.821
79 FC2 101 2.797
79 FC2 102 3.774
79 FC2 103 4.262
79 FC2 104 4.262
79 FC2 105 3.286
79 FC2 106 3.286
79 FC2 107 3.286
79 FC2 108 3.286
79 FC2 109 3.774
79 FC2 110 3.774
79 FC2 111 4.751
79 FC2 112 4.751
79 FC2 113 5.727
79 FC2 114 6.215
79 FC2 115 6.704
79 FC2 116 6.215
79 FC2 117 5.727
79 FC2 118 5.727
79 FC2 119 5.727
79 FC2 120 6.215
79 FC2 121 6.704
79 FC2 122 6.704
79 FC2 123 6.704
79 FC2 124 6.704
79 FC2 125 7.192
79 FC2 126 7.680
79 FC2 127 8.169
79 FC2 128 8.169
79 FC2 129 7.680
79 FC2 130 7.192
79 FC2 131 6.704
79 FC2 132 6.704
79 FC2 133 7.192
79 FC2 134 6.704
79 FC2 135 6.704
79 FC2 136 5.727
79 FC2 137 4.751
79 FC2 138 4.262
79 FC2 139 3.774
79 FC2 140 3.774
79 FC2 141 3.774
79 FC2 142 4.262
79 FC2 143 4.262
79 FC2 144 4.751
79 FC2 145 5.239
79 FC2 146 5.239
79 FC2 147 5.727
79 FC2 148 5.727
79 FC2 149 5.239
79 FC2 150 5.239
79 FC2 151 5.239
79 FC2 152 5.727
79 FC2 153 5.727
79 FC2 154 5.727
79 FC2 155 5.239
79 FC2 156 4.751
79 FC2 157 3.286
79 FC2 158 2.797
79 FC2 159 2.309
79 FC2 160 2.797
79 FC2 161 2.797
79 FC2 162 3.774
79 FC2 163 4.262
79 FC2 164 4.262
79 FC2 165 3.774
79 FC2 166 3.286
79 FC2 167 3.286
79 FC2 168 2.797
79 FC2 169 2.797
79 FC2 170 2.797
79 FC2 171 3.286
79 FC2 172 3.286
79 FC2 173 3.286
79 FC2 174 3.774
79 FC2 175 3.774
79 FC2 176 3.774
79 FC2 177 3.774
79 FC2 178 3.286
79 FC2 179 3.286
79 FC2 180 3.774
79 FC2 181 3.774
79 FC2 182 3.774
79 FC2 183 3.774
79 FC2 184 3.286
79 FC2 185 3.774
79 FC2 186 4.262
79 FC2 187 4.751
79 FC2 188 5.239
79 FC2 189 5.239
79 FC2 190 4.751
79 FC2 191 4.262
79 FC2 192 3.286
79 FC2 193 3.286
79 FC2 194 4.262
79 FC2 195 4.751
79 FC2 196 5.239
79 FC2 197 5.239
79 FC2 198 4.751
79 FC2 199 3.286
79 FC2 200 2.797
79 FC2 201 2.309
79 FC2 202 2.309
79 FC2 203 2.309
79 FC2 204 2.797
79 FC2 205 3.286
79 FC2 206 4.262
79 FC2 207 4.751
79 FC2 208 5.239
79 FC2 209 5.239
79 FC2 210 5.239
79 FC2 211 5.239
79 FC2 212 5.727
79 FC2 213 6.215
79 FC2 214 6.215
79 FC2 215 6.215
79 FC2 216 5.727
79 FC2 217 4.751
79 FC2 218 4.262
79 FC2 219 3.286
79 FC2 220 3.286
79 FC2 221 3.286
79 FC2 222 3.774
79 FC2 223 4.262
79 FC2 224 4.262
79 FC2 225 4.262
79 FC2 226 4.262
79 FC2 227 4.751
79 FC2 228 3.286
79 FC2 229 5.239
79 FC2 230 6.215
79 FC2 231 6.704
79 FC2 232 6.704
79 FC2 233 6.704
79 FC2 234 6.704
79 FC2 235 6.704
79 FC2 236 6.704
79 FC2 237 6.215
79 FC2 238 5.727
79 FC2 239 5.239
79 FC2 240 5.239
79 FC2 241 5.727
79 FC2 242 6.215
79 FC2 243 6.704
79 FC2 244 6.215
79 FC2 245 6.215
79 FC2 246 6.215
79 FC2 247 6.704
79 FC2 248 6.704
79 FC2 249 7.192
79 FC2 250 7.192
79 FC2 251 7.192
79 FC2 252 7.192
79 FC2 253 6.704
79 FC2 254 6.215
79 FC2 255 5.727
# FC1 chan 12
79 FC1 0 1.821
79 FC1 1 2.309
79 FC1 2 1.821
79 FC1 3 1.821
79 FC1 4 0.844
79 FC1 5 0.844
79 FC1 6 0.844
79 FC1 7 1.821
79 FC1 8 1.821
79 FC1 9 2.309
79 FC1 10 1.821
79 FC1 11 1.333
79 FC1 12 0.844
79 FC1 13 0.356
79 FC1 14 0.356
79 FC1 15 0.844
79 FC1 16 1.333
79 FC1 17 1.333
79 FC1 18 1.333
79 FC1 19 1.333
79 FC1 20 1.821
79 FC1 21 2.309
79 FC1 22 2.309
79 FC1 23 2.309
79 FC1 24 1.821
79 FC1 25 0.844
79 FC1 26 0.356
79 FC1 27 0.844
79 FC1 28 1.333
79 FC1 29 1.821
79 FC1 30 1.333
79 FC1 31 0.356
79 FC1 32 -0.132
79 FC1 33 -0.132
79 FC1 34 -0.132
79 FC1 35 -0.132
79 FC1 36 0.356
79 FC1 37 0.844
79 FC1 38 0.844
79 FC1 39 0.356
79 FC1 40 -0.132
79 FC1 41 -0.621
79 FC1 42 -1.109
79 FC1 43 -0.621
79 FC1 44 0.356
79 FC1 45 1.333
79 FC1 46 1.333
79 FC1 47 0.844
79 FC1 48 -0.132
79 FC1 49 -0.621
79 FC1 50 -1.109
79 FC1 51 -0.621
79 FC1 52 -0.132
79 FC1 53 0.356
79 FC1 54 0.356
79 FC1 55 -0.132
79 FC1 56 -0.621
79 FC1 57 -1.109
79 FC1 58 -1.597
79 FC1 59 -1.597
79 FC1 60 -1.109
79 FC1 61 -1.109
79 FC1 62 -1.109
79 FC1 63 -1.597
79 FC1 64 -2.085
79 FC1 65 -2.085
79 FC1 66 -2.574
79 FC1 67 -2.085
79 FC1 68 -2.085
79 FC1 69 -2.085
79 FC1 70 -2.085
79 FC1 71 -2.574
79 FC1 72 -3.062
79 FC1 73 -2.574
79 FC1 74 -2.085
79 FC1 75 -1.109
79 FC1 76 -0.132
79 FC1 77 1.333
79 FC1 78 1.821
79 FC1 79 1.821
79 FC1 80 1.821
79 FC1 81 1.821
79 FC1 82 2.309
79 FC1 83 2.797
79 FC1 84 3.286
79 FC1 85 3.286
79 FC1 86 3.286
79 FC1 87 2.797
79 FC1 88 2.797
79 FC1 89 2.309
79 FC1 90 1.821
79 FC1 91 1.333
79 FC1 92 0.356
79 FC1 93 -0.132
79 FC1 94 -0.621
79 FC1 95 -1.109
79 FC1 96 -0.621
79 FC1 97 -0.132
79 FC1 98 0.356
79 FC1 99 0.844
79 FC1 100 1.333
79 FC1 101 0.844
79 FC1 102 1.333
79 FC1 103 1.333
79 FC1 104 1.821
79 FC1 105 1.821
79 FC1 106 1.821
79 FC1 107 2.309
79 FC1 108 3.286
79 FC1 109 4.262
79 FC1 110 5.239
79 FC1 111 5.239
79 FC1 112 5.239
79 FC1 113 5.239
79 FC1 114 5.727
79 FC1 115 6.215
79 FC1 116 6.704
79 FC1 117 6.704
79 FC1 118 6.215
79 FC1 119 6.215
79 FC1 120 6.704
79 FC1 121 7.192
79 FC1 122 7.680
79 FC1 123 8.169
79 FC1 124 8.169
79 FC1 125 7.680
79 FC1 126 7.192
79 FC1 127 6.704
79 FC1 128 6.215
79 FC1 129 6.215
79 FC1 130 5.239
79 FC1 131 5.239
79 FC1 132 4.751
79 FC1 133 5.239
79 FC1 134 5.727
79 FC1 135 5.727
79 FC1 136 4.751
79 FC1 137 3.774
79 FC1 138 2.797
79 FC1 139 2.797
79 FC1 140 3.286
79 FC1 141 3.774
79 FC1 142 4.751
79 FC1 143 5.239
79 FC1 144 6.215
79 FC1 145 6.704
79 FC1 146 6.704
79 FC1 147 7.192
79 FC1 148 7.192
79 FC1 149 6.704
79 FC1 150 6.704
79 FC1 151 6.215
79 FC1 152 6.215
79 FC1 153 6.704
79 FC1 154 6.704
79 FC1 155 6.215
79 FC1 156 5.239
79 FC1 157 4.262
79 FC1 158 2.797
79 FC1 159 1.333
79 FC1 160 0.844
79 FC1 161 0.844
79 FC1 162 1.821
79 FC1 163 2.309
79 FC1 164 2.309
79 FC1 165 1.821
79 FC1 166 1.333
79 FC1 167 0.356
79 FC1 168 -0.132
79 FC1 169 -0.132
79 FC1 170 0.356
79 FC1 171 0.844
79 FC1 172 1.333
79 FC1 173 1.821
79 FC1 174 1.821
79 FC1 175 1.821
79 FC1 176 1.821
79 FC1 177 1.333
79 FC1 178 0.356
79 FC1 179 -0.132
79 FC1 180 0.356
79 FC1 181 0.356
79 FC1 182 0.844
79 FC1 183 1.333
79 FC1 184 1.821
79 FC1 185 1.821
79 FC1 186 2.309
79 FC1 187 2.797
79 FC1 188 2.797
79 FC1 189 2.309
79 FC1 190 1.821
79 FC1 191 1.821
79 FC1 192 1.821
79 FC1 193 2.797
79 FC1 194 3.774
79 FC1 195 4.262
79 FC1 196 4.262
79 FC1 197 4.262
79 FC1 198 3.774
79 FC1 199 3.286
79 FC1 200 3.286
79 FC1 201 3.774
79 FC1 202 3.774
79 FC1 203 4.751
79 FC1 204 5.239
79 FC1 205 5.239
79 FC1 206 4.751
79 FC1 207 3.774
79 FC1 208 3.774
79 FC1 209 3.774
79 FC1 210 4.751
79 FC1 211 5.727
79 FC1 212 6.215
79 FC1 213 5.727
79 FC1 214 4.751
79 FC1 215 3.774
79 FC1 216 3.774
79 FC1 217 3.774
79 FC1 218 4.262
79 FC1 219 4.262
79 FC1 220 4.262
79 FC1 221 4.262
79 FC1 222 3.774
79 FC1 223 3.774
79 FC1 224 4.262
79 FC1 225 4.262
79 FC1 226 4.262
79 FC1 227 4.751
79 FC1 228 5.239
79 FC1 229 5.239
79 FC1 230 5.727
79 FC1 231 5.727
79 FC1 232 5.239
79 FC1 233 5.239
79 FC1 234 5.727
79 FC1 235 6.704
79 FC1 236 7.680
79 FC1 237 8.657
79 FC1 238 8.169
79 FC1 239 7.192
79 FC1 240 5.239
79 FC1 241 4.751
79 FC1 242 3.774
79 FC1 243 4.262
79 FC1 244 5.239
79 FC1 245 6.215
79 FC1 246 7.192
79 FC1 247 8.169
79 FC1 248 8.657
79 FC1 249 8.657
79 FC1 250 8.169
79 FC1 251 7.192
79 FC1 252 6.704
79 FC1 253 6.704
79 FC1 254 7.192
79 FC1 255 7.192
# T8 chan 13
79 T8 0 3.092
79 T8 1 2.604
79 T8 2 2.604
79 T8 3 3.092
79 T8 4 3.092
79 T8 5 3.092
79 T8 6 2.604
79 T8 7 1.139
79 T8 8 -0.326
79 T8 9 -1.790
79 T8 10 -1.790
79 T8 11 -1.302
79 T8 12 -0.814
79 T8 13 -0.326
79 T8 14 0.163
79 T8 15 -0.326
79 T8 16 -0.326
79 T8 17 -0.814
79 T8 18 -0.814
79 T8 19 -0.814
79 T8 20 -1.790
79 T8 21 -2.279
79 T8 22 -2.279
79 T8 23 -1.790
79 T8 24 -0.814
79 T8 25 -0.814
79 T8 26 -1.302
79 T8 27 -2.279
79 T8 28 -2.767
79 T8 29 -3.255
79 T8 30 -2.767
79 T8 31 -1.790
79 T8 32 -1.302
79 T8 33 -0.326
79 T8 34 0.651
79 T8 35 1.139
79 T8 36 1.139
79 T8 37 0.163
79 T8 38 -1.302
79 T8 39 -2.279
79 T8 40 -1.790
79 T8 41 -0.326
79 T8 42 1.628
79 T8 43 3.581
79 T8 44 4.069
79 T8 45 3.092
79 T8 46 2.116
79 T8 47 2.604
79 T8 48 3.581
79 T8 49 6.022
79 T8 50 7.487
79 T8 51 7.487
79 T8 52 6.022
79 T8 53 4.069
79 T8 54 2.604
79 T8 55 1.628
79 T8 56 2.604
79 T8 57 3.581
79 T8 58 4.557
79 T8 59 5.046
79 T8 60 5.046
79 T8 61 5.046
79 T8 62 5.046
79 T8 63 5.534
79 T8 64 6.022
79 T8 65 5.534
79 T8 66 5.046
79 T8 67 4.069
79 T8 68 4.069
79 T8 69 5.534
79 T8 70 7.487
79 T8 71 9.440
79 T8 72 9.928
79 T8 73 8.464
79 T8 74 6.510
79 T8 75 4.069
79 T8 76 3.581
79 T8 77 4.069
79 T8 78 5.046
79 T8 79 6.022
79 T8 80 6.510
79 T8 81 6.510
79 T8 82 5.534
79 T8 83 4.069
79 T8 84 2.604
79 T8 85 1.628
79 T8 86 1.628
79 T8 87 3.581
79 T8 88 6.510
79 T8 89 8.464
79 T8 90 9.440
79 T8 91 7.975
79 T8 92 5.534
79 T8 93 3.581
79 T8 94 2.604
79 T8 95 2.604
79 T8 96 3.092
79 T8 97 3.092
79 T8 98 2.116
79 T8 99 1.139
79 T8 100 0.651
79 T8 101 1.139
79 T8 102 0.651
79 T8 103 -0.814
79 T8 104 -3.743
79 T8 105 -6.185
79 T8 106 -8.138
79 T8 107 -7.650
79 T8 108 -6.673
79 T8 109 -7.161
79 T8 110 -9.115
79 T8 111 -11.556
79 T8 112 -14.486
79 T8 113 -14.486
79 T8 114 -12.044
79 T8 115 -9.115
79 T8 116 -6.673
79 T8 117 -6.185
79 T8 118 -6.673
79 T8 119 -7.161
79 T8 120 -7.161
79 T8 121 -5.697
79 T8 122 -4.232
79 T8 123 -3.255
79 T8 124 -1.790
79 T8 125 -0.326
79 T8 126 0.651
79 T8 127 2.116
79 T8 128 2.604
79 T8 129 2.604
79 T8 130 2.116
79 T8 131 1.628
79 T8 132 1.139
79 T8 133 -0.326
79 T8 134 -2.279
79 T8 135 -3.743
79 T8 136 -4.232
79 T8 137 -4.720
79 T8 138 -4.232
79 T8 139 -4.232
79 T8 140 -5.208
79 T8 141 -6.185
79 T8 142 -7.161
79 T8 143 -8.138
79 T8 144 -8.626
79 T8 145 -8.626
79 T8 146 -8.626
79 T8 147 -8.626
79 T8 148 -8.138
79 T8 149 -6.673
79 T8 150 -6.185
79 T8 151 -5.697
79 T8 152 -5.697
79 T8 153 -6.185
79 T8 154 -5.697
79 T8 155 -5.697
79 T8 156 -4.720
79 T8 157 -3.255
79 T8 158 -2.279
79 T8 159 -1.302
79 T8 160 -0.326
79 T8 161 0.163
79 T8 162 0.651
79 T8 163 0.651
79 T8 164 1.139
79 T8 165 1.628
79 T8 166 2.116
79 T8 167 2.604
79 T8 168 2.116
79 T8 169 1.139
79 T8 170 -0.326
79 T8 171 -1.790
79 T8 172 -2.279
79 T8 173 -2.279
79 T8 174 -1.302
79 T8 175 0.163
79 T8 176 1.139
79 T8 177 1.628
79 T8 178 1.628
79 T8 179 1.628
79 T8 180 0.651
79 T8 181 0.163
79 T8 182 -0.814
79 T8 183 -2.279
79 T8 184 -3.743
79 T8 185 -4.720
79 T8 186 -4.720
79 T8 187 -4.232
79 T8 188 -3.743
79 T8 189 -3.743
79 T8 190 -4.720
79 T8 191 -6.185
79 T8 192 -7.650
79 T8 193 -8.138
79 T8 194 -7.650
79 T8 195 -7.161
79 T8 196 -8.138
79 T8 197 -9.603
79 T8 198 -11.556
79 T8 199 -12.533
79 T8 200 -11.556
79 T8 201 -9.603
79 T8 202 -7.161
79 T8 203 -5.697
79 T8 204 -4.720
79 T8 205 -4.232
79 T8 206 -3.255
79 T8 207 -1.790
79 T8 208 -0.814
79 T8 209 -0.326
79 T8 210 -1.302
79 T8 211 -3.255
79 T8 212 -4.232
79 T8 213 -3.743
79 T8 214 -2.279
79 T8 215 -0.814
79 T8 216 -0.814
79 T8 217 -2.279
79 T8 218 -4.232
79 T8 219 -5.208
79 T8 220 -5.208
79 T8 221 -4.720
79 T8 222 -4.232
79 T8 223 -4.232
79 T8 224 -4.720
79 T8 225 -5.208
79 T8 226 -5.208
79 T8 227 -4.720
79 T8 228 -4.232
79 T8 229 -3.743
79 T8 230 -4.232
79 T8 231 -5.208
79 T8 232 -6.673
79 T8 233 -8.138
79 T8 234 -9.115
79 T8 235 -10.091
79 T8 236 -11.556
79 T8 237 -13.021
79 T8 238 -13.997
79 T8 239 -14.486
79 T8 240 -13.509
79 T8 241 -12.044
79 T8 242 -10.091
79 T8 243 -9.115
79 T8 244 -8.626
79 T8 245 -9.603
79 T8 246 -9.603
79 T8 247 -9.115
79 T8 248 -8.626
79 T8 249 -8.138
79 T8 250 -8.138
79 T8 251 -8.138
79 T8 252 -7.650
79 T8 253 -6.673
79 T8 254 -5.208
79 T8 255 -3.743
# T7 chan 14
79 T7 0 11.088
79 T7 1 12.065
79 T7 2 11.576
79 T7 3 11.088
79 T7 4 10.600
79 T7 5 11.576
79 T7 6 12.065
79 T7 7 12.553
79 T7 8 12.553
79 T7 9 11.576
79 T7 10 10.111
79 T7 11 7.670
79 T7 12 5.229
79 T7 13 2.787
79 T7 14 1.811
79 T7 15 2.299
79 T7 16 3.764
79 T7 17 4.740
79 T7 18 5.229
79 T7 19 4.252
79 T7 20 3.764
79 T7 21 3.764
79 T7 22 4.740
79 T7 23 6.205
79 T7 24 6.694
79 T7 25 6.205
79 T7 26 4.740
79 T7 27 3.276
79 T7 28 3.276
79 T7 29 3.764
79 T7 30 4.252
79 T7 31 3.764
79 T7 32 3.276
79 T7 33 2.299
79 T7 34 1.811
79 T7 35 1.811
79 T7 36 1.322
79 T7 37 -0.142
79 T7 38 -1.607
79 T7 39 -2.096
79 T7 40 -1.607
79 T7 41 -0.631
79 T7 42 0.834
79 T7 43 0.834
79 T7 44 0.346
79 T7 45 -0.142
79 T7 46 -0.142
79 T7 47 0.346
79 T7 48 0.346
79 T7 49 0.346
79 T7 50 -0.142
79 T7 51 -0.142
79 T7 52 0.834
79 T7 53 3.276
79 T7 54 6.205
79 T7 55 7.182
79 T7 56 6.205
79 T7 57 3.764
79 T7 58 1.322
79 T7 59 0.346
79 T7 60 0.346
79 T7 61 1.811
79 T7 62 2.787
79 T7 63 3.276
79 T7 64 2.787
79 T7 65 1.811
79 T7 66 1.322
79 T7 67 0.834
79 T7 68 1.811
79 T7 69 2.299
79 T7 70 2.787
79 T7 71 2.787
79 T7 72 2.299
79 T7 73 2.787
79 T7 74 3.276
79 T7 75 3.764
79 T7 76 3.764
79 T7 77 3.764
79 T7 78 4.252
79 T7 79 6.205
79 T7 80 8.647
79 T7 81 10.600
79 T7 82 12.065
79 T7 83 11.576
79 T7 84 10.111
79 T7 85 8.647
79 T7 86 8.647
79 T7 87 10.111
79 T7 88 13.041
79 T7 89 15.971
79 T7 90 17.924
79 T7 91 18.412
79 T7 92 17.436
79 T7 93 15.483
79 T7 94 13.041
79 T7 95 11.088
79 T7 96 10.111
79 T7 97 9.623
79 T7 98 9.623
79 T7 99 9.135
79 T7 100 8.158
79 T7 101 6.205
79 T7 102 3.764
79 T7 103 1.322
79 T7 104 -0.142
79 T7 105 -1.607
79 T7 106 -2.096
79 T7 107 -2.584
79 T7 108 -3.072
79 T7 109 -3.560
79 T7 110 -4.537
79 T7 111 -4.537
79 T7 112 -5.025
79 T7 113 -4.049
79 T7 114 -3.072
79 T7 115 -1.607
79 T7 116 -0.631
79 T7 117 -0.631
79 T7 118 -0.631
79 T7 119 -1.119
79 T7 120 -0.631
79 T7 121 0.346
79 T7 122 1.811
79 T7 123 3.764
79 T7 124 5.229
79 T7 125 5.229
79 T7 126 4.252
79 T7 127 3.276
79 T7 128 2.299
79 T7 129 2.299
79 T7 130 2.787
79 T7 131 3.276
79 T7 132 3.276
79 T7 133 2.299
79 T7 134 1.811
79 T7 135 0.834
79 T7 136 0.346
79 T7 137 -0.142
79 T7 138 -0.631
79 T7 139 -1.119
79 T7 140 -1.119
79 T7 141 -1.607
79 T7 142 -1.607
79 T7 143 -1.119
79 T7 144 -1.119
79 T7 145 -1.607
79 T7 146 -1.607
79 T7 147 -1.607
79 T7 148 -1.119
79 T7 149 -0.631
79 T7 150 0.346
79 T7 151 0.346
79 T7 152 0.346
79 T7 153 -0.142
79 T7 154 -0.631
79 T7 155 -1.607
79 T7 156 -1.607
79 T7 157 -2.096
79 T7 158 -2.096
79 T7 159 -2.096
79 T7 160 -1.119
79 T7 161 -0.631
79 T7 162 -0.631
79 T7 163 -0.631
79 T7 164 -1.607
79 T7 165 -2.096
79 T7 166 -2.096
79 T7 167 -1.119
79 T7 168 -0.142
79 T7 169 -0.142
79 T7 170 -1.607
79 T7 171 -3.072
79 T7 172 -4.537
79 T7 173 -4.049
79 T7 174 -2.584
79 T7 175 -0.631
79 T7 176 0.346
79 T7 177 -0.142
79 T7 178 -1.607
79 T7 179 -3.072
79 T7 180 -3.072
79 T7 181 -2.584
79 T7 182 -2.096
79 T7 183 -2.096
79 T7 184 -2.584
79 T7 185 -3.072
79 T7 186 -3.560
79 T7 187 -4.049
79 T7 188 -4.049
79 T7 189 -4.537
79 T7 190 -5.514
79 T7 191 -6.002
79 T7 192 -6.002
79 T7 193 -6.002
79 T7 194 -5.514
79 T7 195 -5.514
79 T7 196 -5.514
79 T7 197 -5.514
79 T7 198 -5.025
79 T7 199 -4.049
79 T7 200 -2.584
79 T7 201 -1.119
79 T7 202 -0.631
79 T7 203 -0.631
79 T7 204 -1.607
79 T7 205 -2.584
79 T7 206 -3.560
79 T7 207 -3.560
79 T7 208 -3.560
79 T7 209 -3.072
79 T7 210 -2.096
79 T7 211 -1.119
79 T7 212 -0.142
79 T7 213 0.834
79 T7 214 0.834
79 T7 215 0.346
79 T7 216 -0.142
79 T7 217 -0.142
79 T7 218 0.346
79 T7 219 1.811
79 T7 220 3.276
79 T7 221 3.764
79 T7 222 3.764
79 T7 223 2.787
79 T7 224 1.322
79 T7 225 -0.142
79 T7 226 -1.607
79 T7 227 -2.584
79 T7 228 -3.072
79 T7 229 -3.560
79 T7 230 -3.560
79 T7 231 -3.560
79 T7 232 -3.560
79 T7 233 -3.560
79 T7 234 -4.049
79 T7 235 -4.537
79 T7 236 -4.049
79 T7 237 -4.049
79 T7 238 -4.049
79 T7 239 -5.514
79 T7 240 -7.955
79 T7 241 -9.908
79 T7 242 -11.373
79 T7 243 -10.885
79 T7 244 -9.420
79 T7 245 -7.467
79 T7 246 -5.514
79 T7 247 -4.537
79 T7 248 -4.049
79 T7 249 -3.560
79 T7 250 -3.072
79 T7 251 -3.072
79 T7 252 -3.560
79 T7 253 -3.560
79 T7 254 -3.072
79 T7 255 -1.607
# CZ chan 15
79 CZ 0 11.749
79 CZ 1 13.214
79 CZ 2 11.749
79 CZ 3 9.308
79 CZ 4 7.843
79 CZ 5 7.843
79 CZ 6 8.820
79 CZ 7 9.796
79 CZ 8 9.308
79 CZ 9 7.355
79 CZ 10 4.913
79 CZ 11 1.984
79 CZ 12 -0.458
79 CZ 13 -1.923
79 CZ 14 -2.411
79 CZ 15 -1.923
79 CZ 16 -0.946
79 CZ 17 0.519
79 CZ 18 1.495
79 CZ 19 1.495
79 CZ 20 0.519
79 CZ 21 -0.946
79 CZ 22 -0.946
79 CZ 23 0.031
79 CZ 24 2.472
79 CZ 25 3.937
79 CZ 26 3.448
79 CZ 27 1.984
79 CZ 28 1.007
79 CZ 29 1.495
79 CZ 30 2.960
79 CZ 31 5.402
79 CZ 32 6.866
79 CZ 33 6.866
79 CZ 34 6.378
79 CZ 35 5.402
79 CZ 36 4.425
79 CZ 37 2.960
79 CZ 38 1.984
79 CZ 39 1.495
79 CZ 40 1.984
79 CZ 41 3.448
79 CZ 42 4.913
79 CZ 43 5.402
79 CZ 44 4.425
79 CZ 45 2.472
79 CZ 46 1.007
79 CZ 47 1.495
79 CZ 48 2.472
79 CZ 49 3.448
79 CZ 50 2.960
79 CZ 51 1.495
79 CZ 52 0.519
79 CZ 53 0.519
79 CZ 54 1.984
79 CZ 55 2.960
79 CZ 56 2.960
79 CZ 57 1.007
79 CZ 58 -1.434
79 CZ 59 -2.411
79 CZ 60 -2.411
79 CZ 61 -1.434
79 CZ 62 -1.434
79 CZ 63 -2.411
79 CZ 64 -3.387
79 CZ 65 -4.364
79 CZ 66 -3.876
79 CZ 67 -2.899
79 CZ 68 -2.899
79 CZ 69 -3.387
79 CZ 70 -4.852
79 CZ 71 -5.829
79 CZ 72 -6.317
79 CZ 73 -5.829
79 CZ 74 -4.852
79 CZ 75 -3.387
79 CZ 76 -2.899
79 CZ 77 -1.434
79 CZ 78 -0.458
79 CZ 79 1.984
79 CZ 80 4.913
79 CZ 81 7.355
79 CZ 82 8.331
79 CZ 83 7.355
79 CZ 84 6.378
79 CZ 85 5.402
79 CZ 86 6.378
79 CZ 87 9.308
79 CZ 88 12.238
79 CZ 89 14.679
79 CZ 90 14.679
79 CZ 91 13.214
79 CZ 92 11.749
79 CZ 93 10.284
79 CZ 94 9.796
79 CZ 95 8.820
79 CZ 96 7.355
79 CZ 97 5.890
79 CZ 98 3.937
79 CZ 99 2.472
79 CZ 100 1.007
79 CZ 101 -0.458
79 CZ 102 -2.899
79 CZ 103 -6.805
79 CZ 104 -11.200
79 CZ 105 -16.083
79 CZ 106 -19.501
79 CZ 107 -21.454
79 CZ 108 -22.430
79 CZ 109 -22.919
79 CZ 110 -24.384
79 CZ 111 -26.337
79 CZ 112 -27.313
79 CZ 113 -26.337
79 CZ 114 -22.919
79 CZ 115 -19.012
79 CZ 116 -15.594
79 CZ 117 -15.106
79 CZ 118 -16.571
79 CZ 119 -18.524
79 CZ 120 -19.012
79 CZ 121 -17.059
79 CZ 122 -13.641
79 CZ 123 -9.735
79 CZ 124 -7.294
79 CZ 125 -5.829
79 CZ 126 -6.317
79 CZ 127 -6.317
79 CZ 128 -6.317
79 CZ 129 -5.829
79 CZ 130 -4.852
79 CZ 131 -3.876
79 CZ 132 -2.899
79 CZ 133 -2.411
79 CZ 134 -3.387
79 CZ 135 -5.341
79 CZ 136 -8.270
79 CZ 137 -11.200
79 CZ 138 -14.130
79 CZ 139 -15.594
79 CZ 140 -15.106
79 CZ 141 -13.153
79 CZ 142 -11.200
79 CZ 143 -9.735
79 CZ 144 -10.223
79 CZ 145 -11.200
79 CZ 146 -12.665
79 CZ 147 -13.153
79 CZ 148 -12.665
79 CZ 149 -10.712
79 CZ 150 -8.759
79 CZ 151 -7.782
79 CZ 152 -7.294
79 CZ 153 -7.294
79 CZ 154 -7.782
79 CZ 155 -8.270
79 CZ 156 -8.759
79 CZ 157 -9.247
79 CZ 158 -9.735
79 CZ 159 -9.247
79 CZ 160 -8.270
79 CZ 161 -7.294
79 CZ 162 -6.805
79 CZ 163 -6.805
79 CZ 164 -7.294
79 CZ 165 -7.782
79 CZ 166 -8.759
79 CZ 167 -9.247
79 CZ 168 -10.223
79 CZ 169 -10.712
79 CZ 170 -11.200
79 CZ 171 -10.712
79 CZ 172 -9.735
79 CZ 173 -7.782
79 CZ 174 -5.829
79 CZ 175 -4.364
79 CZ 176 -3.876
79 CZ 177 -3.876
79 CZ 178 -4.364
79 CZ 179 -4.852
79 CZ 180 -5.341
79 CZ 181 -5.829
79 CZ 182 -7.294
79 CZ 183 -8.759
79 CZ 184 -9.735
79 CZ 185 -10.712
79 CZ 186 -11.688
79 CZ 187 -13.153
79 CZ 188 -15.106
79 CZ 189 -17.548
79 CZ 190 -19.989
79 CZ 191 -20.477
79 CZ 192 -19.012
79 CZ 193 -16.571
79 CZ 194 -15.106
79 CZ 195 -15.106
79 CZ 196 -17.059
79 CZ 197 -19.012
79 CZ 198 -19.989
79 CZ 199 -18.036
79 CZ 200 -14.618
79 CZ 201 -12.177
79 CZ 202 -11.200
79 CZ 203 -12.665
79 CZ 204 -14.130
79 CZ 205 -14.130
79 CZ 206 -12.665
79 CZ 207 -10.712
79 CZ 208 -8.759
79 CZ 209 -8.270
79 CZ 210 -9.247
79 CZ 211 -10.223
79 CZ 212 -10.223
79 CZ 213 -9.735
79 CZ 214 -9.247
79 CZ 215 -9.247
79 CZ 216 -9.247
79 CZ 217 -9.247
79 CZ 218 -9.735
79 CZ 219 -10.712
79 CZ 220 -11.688
79 CZ 221 -12.665
79 CZ 222 -13.641
79 CZ 223 -14.130
79 CZ 224 -14.618
79 CZ 225 -14.130
79 CZ 226 -12.177
79 CZ 227 -11.688
79 CZ 228 -11.200
79 CZ 229 -11.688
79 CZ 230 -13.153
79 CZ 231 -14.130
79 CZ 232 -14.130
79 CZ 233 -14.130
79 CZ 234 -14.130
79 CZ 235 -15.594
79 CZ 236 -18.524
79 CZ 237 -21.942
79 CZ 238 -23.895
79 CZ 239 -24.384
79 CZ 240 -22.919
79 CZ 241 -20.966
79 CZ 242 -19.501
79 CZ 243 -19.012
79 CZ 244 -19.501
79 CZ 245 -19.501
79 CZ 246 -18.524
79 CZ 247 -17.059
79 CZ 248 -15.594
79 CZ 249 -14.618
79 CZ 250 -14.130
79 CZ 251 -13.641
79 CZ 252 -13.153
79 CZ 253 -13.153
79 CZ 254 -14.130
79 CZ 255 -15.594
# C3 chan 16
79 C3 0 3.754
79 C3 1 3.754
79 C3 2 3.265
79 C3 3 2.777
79 C3 4 2.777
79 C3 5 3.265
79 C3 6 4.242
79 C3 7 4.730
79 C3 8 4.730
79 C3 9 4.730
79 C3 10 4.242
79 C3 11 3.265
79 C3 12 1.801
79 C3 13 0.824
79 C3 14 0.824
79 C3 15 1.801
79 C3 16 2.289
79 C3 17 3.265
79 C3 18 3.265
79 C3 19 2.289
79 C3 20 2.289
79 C3 21 2.289
79 C3 22 3.265
79 C3 23 3.754
79 C3 24 4.242
79 C3 25 3.754
79 C3 26 3.265
79 C3 27 2.289
79 C3 28 2.289
79 C3 29 2.289
79 C3 30 2.289
79 C3 31 1.801
79 C3 32 1.801
79 C3 33 0.824
79 C3 34 0.824
79 C3 35 0.824
79 C3 36 0.336
79 C3 37 -0.153
79 C3 38 -0.153
79 C3 39 -0.153
79 C3 40 0.336
79 C3 41 0.824
79 C3 42 0.824
79 C3 43 0.824
79 C3 44 0.824
79 C3 45 0.824
79 C3 46 0.824
79 C3 47 0.824
79 C3 48 0.824
79 C3 49 0.824
79 C3 50 0.336
79 C3 51 0.336
79 C3 52 0.824
79 C3 53 1.801
79 C3 54 3.265
79 C3 55 3.754
79 C3 56 3.754
79 C3 57 2.289
79 C3 58 1.801
79 C3 59 0.824
79 C3 60 1.312
79 C3 61 2.289
79 C3 62 3.265
79 C3 63 3.265
79 C3 64 2.777
79 C3 65 1.801
79 C3 66 1.312
79 C3 67 1.312
79 C3 68 1.801
79 C3 69 1.801
79 C3 70 2.289
79 C3 71 1.312
79 C3 72 0.824
79 C3 73 1.312
79 C3 74 1.801
79 C3 75 2.777
79 C3 76 3.754
79 C3 77 3.754
79 C3 78 3.754
79 C3 79 3.754
79 C3 80 4.730
79 C3 81 6.195
79 C3 82 7.172
79 C3 83 7.660
79 C3 84 6.683
79 C3 85 5.707
79 C3 86 5.707
79 C3 87 6.683
79 C3 88 7.660
79 C3 89 8.636
79 C3 90 9.125
79 C3 91 9.125
79 C3 92 8.148
79 C3 93 7.172
79 C3 94 6.195
79 C3 95 6.195
79 C3 96 6.195
79 C3 97 6.195
79 C3 98 6.195
79 C3 99 6.195
79 C3 100 5.219
79 C3 101 3.754
79 C3 102 3.265
79 C3 103 3.265
79 C3 104 3.265
79 C3 105 3.754
79 C3 106 4.242
79 C3 107 4.242
79 C3 108 3.754
79 C3 109 4.242
79 C3 110 4.242
79 C3 111 3.754
79 C3 112 3.265
79 C3 113 2.289
79 C3 114 1.312
79 C3 115 0.824
79 C3 116 1.312
79 C3 117 1.312
79 C3 118 1.312
79 C3 119 1.312
79 C3 120 1.801
79 C3 121 2.777
79 C3 122 4.242
79 C3 123 5.707
79 C3 124 5.707
79 C3 125 4.730
79 C3 126 3.754
79 C3 127 2.777
79 C3 128 2.289
79 C3 129 2.777
79 C3 130 4.242
79 C3 131 4.730
79 C3 132 4.730
79 C3 133 4.730
79 C3 134 4.730
79 C3 135 4.730
79 C3 136 4.730
79 C3 137 4.242
79 C3 138 3.754
79 C3 139 3.265
79 C3 140 2.777
79 C3 141 2.289
79 C3 142 2.289
79 C3 143 2.289
79 C3 144 2.289
79 C3 145 1.801
79 C3 146 1.801
79 C3 147 1.312
79 C3 148 1.312
79 C3 149 1.312
79 C3 150 1.312
79 C3 151 1.312
79 C3 152 1.312
79 C3 153 1.801
79 C3 154 2.289
79 C3 155 3.265
79 C3 156 3.754
79 C3 157 4.242
79 C3 158 3.754
79 C3 159 3.754
79 C3 160 3.754
79 C3 161 3.754
79 C3 162 3.754
79 C3 163 3.265
79 C3 164 2.289
79 C3 165 1.312
79 C3 166 0.824
79 C3 167 0.824
79 C3 168 0.824
79 C3 169 0.336
79 C3 170 -0.153
79 C3 171 -1.129
79 C3 172 -1.129
79 C3 173 -0.641
79 C3 174 0.336
79 C3 175 1.312
79 C3 176 1.801
79 C3 177 2.289
79 C3 178 1.801
79 C3 179 1.312
79 C3 180 0.336
79 C3 181 0.824
79 C3 182 0.824
79 C3 183 0.824
79 C3 184 0.824
79 C3 185 1.312
79 C3 186 1.312
79 C3 187 1.312
79 C3 188 0.824
79 C3 189 0.824
79 C3 190 0.336
79 C3 191 0.336
79 C3 192 0.824
79 C3 193 1.312
79 C3 194 1.801
79 C3 195 1.801
79 C3 196 0.824
79 C3 197 0.824
79 C3 198 0.824
79 C3 199 1.801
79 C3 200 2.289
79 C3 201 3.265
79 C3 202 3.754
79 C3 203 3.265
79 C3 204 2.289
79 C3 205 1.312
79 C3 206 0.824
79 C3 207 -0.153
79 C3 208 -0.641
79 C3 209 -0.153
79 C3 210 0.336
79 C3 211 1.312
79 C3 212 1.801
79 C3 213 1.801
79 C3 214 1.312
79 C3 215 1.312
79 C3 216 0.824
79 C3 217 1.312
79 C3 218 1.801
79 C3 219 2.289
79 C3 220 3.265
79 C3 221 3.754
79 C3 222 3.754
79 C3 223 3.754
79 C3 224 3.265
79 C3 225 2.289
79 C3 226 1.801
79 C3 227 1.312
79 C3 228 0.824
79 C3 229 0.824
79 C3 230 1.801
79 C3 231 1.801
79 C3 232 2.289
79 C3 233 2.289
79 C3 234 1.801
79 C3 235 1.801
79 C3 236 2.777
79 C3 237 3.265
79 C3 238 3.754
79 C3 239 2.777
79 C3 240 0.824
79 C3 241 -1.129
79 C3 242 -3.082
79 C3 243 -3.082
79 C3 244 -2.106
79 C3 245 -0.641
79 C3 246 -0.153
79 C3 247 0.336
79 C3 248 0.336
79 C3 249 0.336
79 C3 250 0.336
79 C3 251 0.824
79 C3 252 0.824
79 C3 253 1.312
79 C3 254 1.312
79 C3 255 1.801
# C4 chan 17
79 C4 0 0.590
79 C4 1 0.590
79 C4 2 1.078
79 C4 3 1.567
79 C4 4 2.055
79 C4 5 1.567
79 C4 6 0.102
79 C4 7 -0.387
79 C4 8 -0.875
79 C4 9 -0.875
79 C4 10 -0.387
79 C4 11 0.590
79 C4 12 1.567
79 C4 13 2.055
79 C4 14 2.055
79 C4 15 1.567
79 C4 16 0.590
79 C4 17 -0.387
79 C4 18 -0.387
79 C4 19 0.590
79 C4 20 1.078
79 C4 21 1.567
79 C4 22 1.567
79 C4 23 0.590
79 C4 24 0.590
79 C4 25 0.102
79 C4 26 -0.387
79 C4 27 -0.875
79 C4 28 -0.875
79 C4 29 -1.363
79 C4 30 -1.363
79 C4 31 -1.363
79 C4 32 -0.875
79 C4 33 0.102
79 C4 34 1.078
79 C4 35 1.567
79 C4 36 2.055
79 C4 37 1.567
79 C4 38 1.078
79 C4 39 0.102
79 C4 40 0.102
79 C4 41 1.078
79 C4 42 2.055
79 C4 43 3.031
79 C4 44 3.031
79 C4 45 3.031
79 C4 46 3.520
79 C4 47 4.496
79 C4 48 5.473
79 C4 49 6.449
79 C4 50 6.449
79 C4 51 6.449
79 C4 52 5.473
79 C4 53 4.985
79 C4 54 4.496
79 C4 55 4.008
79 C4 56 4.008
79 C4 57 4.496
79 C4 58 4.985
79 C4 59 4.985
79 C4 60 5.473
79 C4 61 5.473
79 C4 62 5.961
79 C4 63 6.449
79 C4 64 6.938
79 C4 65 6.938
79 C4 66 5.961
79 C4 67 5.473
79 C4 68 4.496
79 C4 69 4.985
79 C4 70 5.961
79 C4 71 6.938
79 C4 72 7.914
79 C4 73 7.426
79 C4 74 6.449
79 C4 75 4.985
79 C4 76 4.008
79 C4 77 4.008
79 C4 78 4.008
79 C4 79 4.496
79 C4 80 4.008
79 C4 81 3.031
79 C4 82 2.055
79 C4 83 1.078
79 C4 84 0.590
79 C4 85 0.102
79 C4 86 0.590
79 C4 87 1.078
79 C4 88 1.567
79 C4 89 2.055
79 C4 90 2.543
79 C4 91 2.543
79 C4 92 2.543
79 C4 93 2.055
79 C4 94 2.543
79 C4 95 3.031
79 C4 96 4.008
79 C4 97 4.008
79 C4 98 4.008
79 C4 99 4.496
79 C4 100 4.985
79 C4 101 5.961
79 C4 102 6.449
79 C4 103 6.449
79 C4 104 5.961
79 C4 105 4.496
79 C4 106 4.008
79 C4 107 3.520
79 C4 108 3.520
79 C4 109 3.031
79 C4 110 2.055
79 C4 111 1.567
79 C4 112 1.567
79 C4 113 2.055
79 C4 114 3.031
79 C4 115 3.520
79 C4 116 3.520
79 C4 117 3.520
79 C4 118 3.520
79 C4 119 3.520
79 C4 120 4.008
79 C4 121 4.008
79 C4 122 4.496
79 C4 123 4.496
79 C4 124 4.985
79 C4 125 5.473
79 C4 126 5.961
79 C4 127 6.449
79 C4 128 6.449
79 C4 129 5.961
79 C4 130 5.473
79 C4 131 5.473
79 C4 132 4.985
79 C4 133 4.496
79 C4 134 4.008
79 C4 135 3.520
79 C4 136 4.008
79 C4 137 4.008
79 C4 138 4.496
79 C4 139 4.496
79 C4 140 4.008
79 C4 141 3.031
79 C4 142 2.055
79 C4 143 1.078
79 C4 144 0.590
79 C4 145 0.590
79 C4 146 0.102
79 C4 147 0.102
79 C4 148 0.590
79 C4 149 1.078
79 C4 150 0.590
79 C4 151 1.078
79 C4 152 1.078
79 C4 153 1.078
79 C4 154 1.078
79 C4 155 1.567
79 C4 156 2.055
79 C4 157 3.520
79 C4 158 4.985
79 C4 159 5.473
79 C4 160 6.449
79 C4 161 6.449
79 C4 162 5.961
79 C4 163 6.449
79 C4 164 6.938
79 C4 165 7.914
79 C4 166 8.403
79 C4 167 7.914
79 C4 168 7.426
79 C4 169 6.449
79 C4 170 5.961
79 C4 171 5.961
79 C4 172 5.961
79 C4 173 5.961
79 C4 174 5.961
79 C4 175 5.961
79 C4 176 6.449
79 C4 177 6.449
79 C4 178 6.938
79 C4 179 7.426
79 C4 180 7.914
79 C4 181 7.426
79 C4 182 6.938
79 C4 183 5.961
79 C4 184 4.985
79 C4 185 4.008
79 C4 186 4.008
79 C4 187 4.008
79 C4 188 4.985
79 C4 189 5.473
79 C4 190 4.985
79 C4 191 4.008
79 C4 192 3.520
79 C4 193 3.031
79 C4 194 3.520
79 C4 195 3.520
79 C4 196 3.520
79 C4 197 2.543
79 C4 198 1.567
79 C4 199 0.590
79 C4 200 0.102
79 C4 201 0.590
79 C4 202 1.078
79 C4 203 1.078
79 C4 204 1.567
79 C4 205 2.055
79 C4 206 3.520
79 C4 207 4.985
79 C4 208 5.473
79 C4 209 5.473
79 C4 210 4.496
79 C4 211 3.520
79 C4 212 3.520
79 C4 213 4.008
79 C4 214 4.985
79 C4 215 5.961
79 C4 216 5.473
79 C4 217 4.496
79 C4 218 3.520
79 C4 219 3.031
79 C4 220 3.520
79 C4 221 4.496
79 C4 222 4.985
79 C4 223 4.985
79 C4 224 4.496
79 C4 225 4.496
79 C4 226 4.008
79 C4 227 4.008
79 C4 228 4.496
79 C4 229 4.496
79 C4 230 4.496
79 C4 231 4.496
79 C4 232 4.496
79 C4 233 4.008
79 C4 234 3.520
79 C4 235 2.543
79 C4 236 1.078
79 C4 237 -0.387
79 C4 238 -0.875
79 C4 239 -0.387
79 C4 240 0.590
79 C4 241 2.055
79 C4 242 3.031
79 C4 243 3.520
79 C4 244 3.031
79 C4 245 2.543
79 C4 246 1.567
79 C4 247 1.567
79 C4 248 1.078
79 C4 249 1.567
79 C4 250 1.567
79 C4 251 2.055
79 C4 252 2.543
79 C4 253 3.031
79 C4 254 3.031
79 C4 255 3.031
# CP5 chan 18
79 CP5 0 6.582
79 CP5 1 6.582
79 CP5 2 6.582
79 CP5 3 6.582
79 CP5 4 7.070
79 CP5 5 7.558
79 CP5 6 7.558
79 CP5 7 7.558
79 CP5 8 7.070
79 CP5 9 6.582
79 CP5 10 5.605
79 CP5 11 4.140
79 CP5 12 2.675
79 CP5 13 1.699
79 CP5 14 2.187
79 CP5 15 3.164
79 CP5 16 4.140
79 CP5 17 4.628
79 CP5 18 3.652
79 CP5 19 1.699
79 CP5 20 1.211
79 CP5 21 1.699
79 CP5 22 3.164
79 CP5 23 4.628
79 CP5 24 5.117
79 CP5 25 4.628
79 CP5 26 3.652
79 CP5 27 3.652
79 CP5 28 4.140
79 CP5 29 5.117
79 CP5 30 5.605
79 CP5 31 5.117
79 CP5 32 3.652
79 CP5 33 2.675
79 CP5 34 2.187
79 CP5 35 1.699
79 CP5 36 0.234
79 CP5 37 -0.743
79 CP5 38 -1.719
79 CP5 39 -1.719
79 CP5 40 -1.231
79 CP5 41 -0.254
79 CP5 42 0.722
79 CP5 43 0.234
79 CP5 44 -0.743
79 CP5 45 -1.231
79 CP5 46 -1.231
79 CP5 47 -0.254
79 CP5 48 1.211
79 CP5 49 1.699
79 CP5 50 1.699
79 CP5 51 2.187
79 CP5 52 2.675
79 CP5 53 4.140
79 CP5 54 5.605
79 CP5 55 6.582
79 CP5 56 6.582
79 CP5 57 5.117
79 CP5 58 4.140
79 CP5 59 3.164
79 CP5 60 3.652
79 CP5 61 4.628
79 CP5 62 5.605
79 CP5 63 6.093
79 CP5 64 5.605
79 CP5 65 5.117
79 CP5 66 4.140
79 CP5 67 4.140
79 CP5 68 4.628
79 CP5 69 5.117
79 CP5 70 5.117
79 CP5 71 5.117
79 CP5 72 5.117
79 CP5 73 5.117
79 CP5 74 5.605
79 CP5 75 5.605
79 CP5 76 5.117
79 CP5 77 4.140
79 CP5 78 4.140
79 CP5 79 5.117
79 CP5 80 7.558
79 CP5 81 9.511
79 CP5 82 11.464
79 CP5 83 11.464
79 CP5 84 10.488
79 CP5 85 9.511
79 CP5 86 9.511
79 CP5 87 10.488
79 CP5 88 11.953
79 CP5 89 13.418
79 CP5 90 14.394
79 CP5 91 14.882
79 CP5 92 14.394
79 CP5 93 13.418
79 CP5 94 11.953
79 CP5 95 10.488
79 CP5 96 9.511
79 CP5 97 9.023
79 CP5 98 8.535
79 CP5 99 8.046
79 CP5 100 6.582
79 CP5 101 4.628
79 CP5 102 2.675
79 CP5 103 1.211
79 CP5 104 0.234
79 CP5 105 0.722
79 CP5 106 1.211
79 CP5 107 1.211
79 CP5 108 0.722
79 CP5 109 0.234
79 CP5 110 -0.743
79 CP5 111 -1.719
79 CP5 112 -2.696
79 CP5 113 -2.696
79 CP5 114 -2.696
79 CP5 115 -2.207
79 CP5 116 -1.719
79 CP5 117 -2.207
79 CP5 118 -2.696
79 CP5 119 -3.184
79 CP5 120 -2.696
79 CP5 121 -1.719
79 CP5 122 0.234
79 CP5 123 2.187
79 CP5 124 3.164
79 CP5 125 2.675
79 CP5 126 1.699
79 CP5 127 0.234
79 CP5 128 0.234
79 CP5 129 0.234
79 CP5 130 1.699
79 CP5 131 2.675
79 CP5 132 2.675
79 CP5 133 2.187
79 CP5 134 1.211
79 CP5 135 0.234
79 CP5 136 0.234
79 CP5 137 -0.254
79 CP5 138 -0.743
79 CP5 139 -1.231
79 CP5 140 -2.207
79 CP5 141 -2.207
79 CP5 142 -2.207
79 CP5 143 -2.696
79 CP5 144 -2.696
79 CP5 145 -2.696
79 CP5 146 -3.184
79 CP5 147 -3.184
79 CP5 148 -2.696
79 CP5 149 -2.207
79 CP5 150 -1.719
79 CP5 151 -1.231
79 CP5 152 -1.231
79 CP5 153 -1.231
79 CP5 154 -1.719
79 CP5 155 -1.231
79 CP5 156 -0.254
79 CP5 157 0.234
79 CP5 158 1.211
79 CP5 159 1.699
79 CP5 160 2.675
79 CP5 161 3.164
79 CP5 162 3.164
79 CP5 163 2.187
79 CP5 164 0.722
79 CP5 165 -0.254
79 CP5 166 -0.254
79 CP5 167 0.722
79 CP5 168 1.699
79 CP5 169 1.699
79 CP5 170 0.234
79 CP5 171 -1.719
79 CP5 172 -3.184
79 CP5 173 -2.696
79 CP5 174 -0.743
79 CP5 175 1.699
79 CP5 176 3.164
79 CP5 177 3.164
79 CP5 178 1.699
79 CP5 179 0.234
79 CP5 180 -0.254
79 CP5 181 -0.743
79 CP5 182 -0.254
79 CP5 183 -0.254
79 CP5 184 -0.743
79 CP5 185 -0.743
79 CP5 186 -0.743
79 CP5 187 -0.743
79 CP5 188 -1.231
79 CP5 189 -1.231
79 CP5 190 -2.207
79 CP5 191 -3.184
79 CP5 192 -2.696
79 CP5 193 -2.207
79 CP5 194 -1.231
79 CP5 195 -0.743
79 CP5 196 -1.231
79 CP5 197 -1.719
79 CP5 198 -1.719
79 CP5 199 -0.254
79 CP5 200 1.211
79 CP5 201 2.675
79 CP5 202 3.164
79 CP5 203 2.187
79 CP5 204 0.722
79 CP5 205 -0.743
79 CP5 206 -2.207
79 CP5 207 -2.696
79 CP5 208 -2.696
79 CP5 209 -1.719
79 CP5 210 -1.719
79 CP5 211 -1.231
79 CP5 212 -0.254
79 CP5 213 -0.254
79 CP5 214 0.234
79 CP5 215 1.211
79 CP5 216 1.211
79 CP5 217 1.211
79 CP5 218 2.187
79 CP5 219 3.164
79 CP5 220 4.628
79 CP5 221 6.093
79 CP5 222 6.093
79 CP5 223 5.117
79 CP5 224 3.652
79 CP5 225 1.699
79 CP5 226 0.234
79 CP5 227 -0.743
79 CP5 228 -1.719
79 CP5 229 -2.207
79 CP5 230 -2.207
79 CP5 231 -2.207
79 CP5 232 -1.231
79 CP5 233 -1.231
79 CP5 234 -0.743
79 CP5 235 -0.743
79 CP5 236 -0.254
79 CP5 237 -0.254
79 CP5 238 -0.743
79 CP5 239 -1.719
79 CP5 240 -3.672
79 CP5 241 -5.625
79 CP5 242 -7.090
79 CP5 243 -7.090
79 CP5 244 -6.602
79 CP5 245 -6.114
79 CP5 246 -6.114
79 CP5 247 -6.114
79 CP5 248 -6.602
79 CP5 249 -6.602
79 CP5 250 -6.602
79 CP5 251 -6.114
79 CP5 252 -6.114
79 CP5 253 -5.625
79 CP5 254 -4.649
79 CP5 255 -3.672
# CP6 chan 19
79 CP6 0 0.214
79 CP6 1 -0.275
79 CP6 2 -0.763
79 CP6 3 -0.275
79 CP6 4 -0.275
79 CP6 5 0.214
79 CP6 6 -0.275
79 CP6 7 -0.763
79 CP6 8 -1.740
79 CP6 9 -2.228
79 CP6 10 -1.740
79 CP6 11 -0.275
79 CP6 12 0.702
79 CP6 13 0.702
79 CP6 14 -0.275
79 CP6 15 -1.251
79 CP6 16 -2.228
79 CP6 17 -2.716
79 CP6 18 -1.740
79 CP6 19 -0.275
79 CP6 20 0.702
79 CP6 21 1.190
79 CP6 22 1.678
79 CP6 23 1.678
79 CP6 24 1.190
79 CP6 25 0.702
79 CP6 26 -0.763
79 CP6 27 -1.251
79 CP6 28 -0.763
79 CP6 29 0.214
79 CP6 30 1.678
79 CP6 31 2.655
79 CP6 32 2.167
79 CP6 33 1.190
79 CP6 34 0.214
79 CP6 35 -0.275
79 CP6 36 0.214
79 CP6 37 0.214
79 CP6 38 0.214
79 CP6 39 0.702
79 CP6 40 1.190
79 CP6 41 2.167
79 CP6 42 2.655
79 CP6 43 2.167
79 CP6 44 1.190
79 CP6 45 0.702
79 CP6 46 1.190
79 CP6 47 3.632
79 CP6 48 6.561
79 CP6 49 9.003
79 CP6 50 9.979
79 CP6 51 9.003
79 CP6 52 7.538
79 CP6 53 6.073
79 CP6 54 6.073
79 CP6 55 7.538
79 CP6 56 9.003
79 CP6 57 9.491
79 CP6 58 9.003
79 CP6 59 8.026
79 CP6 60 6.561
79 CP6 61 6.561
79 CP6 62 7.538
79 CP6 63 8.514
79 CP6 64 9.003
79 CP6 65 8.514
79 CP6 66 7.538
79 CP6 67 6.073
79 CP6 68 6.073
79 CP6 69 6.561
79 CP6 70 8.514
79 CP6 71 9.979
79 CP6 72 10.956
79 CP6 73 10.956
79 CP6 74 9.491
79 CP6 75 7.050
79 CP6 76 4.608
79 CP6 77 2.655
79 CP6 78 2.167
79 CP6 79 3.143
79 CP6 80 4.120
79 CP6 81 4.608
79 CP6 82 4.120
79 CP6 83 2.655
79 CP6 84 0.702
79 CP6 85 0.214
79 CP6 86 0.702
79 CP6 87 2.167
79 CP6 88 4.120
79 CP6 89 5.585
79 CP6 90 6.561
79 CP6 91 7.050
79 CP6 92 7.050
79 CP6 93 7.538
79 CP6 94 8.026
79 CP6 95 9.003
79 CP6 96 9.003
79 CP6 97 9.003
79 CP6 98 9.003
79 CP6 99 9.003
79 CP6 100 9.003
79 CP6 101 9.003
79 CP6 102 8.026
79 CP6 103 6.561
79 CP6 104 4.608
79 CP6 105 3.143
79 CP6 106 2.655
79 CP6 107 2.167
79 CP6 108 1.190
79 CP6 109 -0.275
79 CP6 110 -2.716
79 CP6 111 -4.669
79 CP6 112 -6.134
79 CP6 113 -6.134
79 CP6 114 -5.157
79 CP6 115 -3.693
79 CP6 116 -3.204
79 CP6 117 -2.716
79 CP6 118 -2.716
79 CP6 119 -3.204
79 CP6 120 -3.204
79 CP6 121 -2.716
79 CP6 122 -2.228
79 CP6 123 -0.763
79 CP6 124 0.702
79 CP6 125 1.678
79 CP6 126 2.167
79 CP6 127 1.678
79 CP6 128 1.190
79 CP6 129 0.702
79 CP6 130 0.702
79 CP6 131 0.702
79 CP6 132 0.702
79 CP6 133 -0.275
79 CP6 134 -1.251
79 CP6 135 -1.740
79 CP6 136 -1.740
79 CP6 137 -0.763
79 CP6 138 -0.275
79 CP6 139 -0.763
79 CP6 140 -1.740
79 CP6 141 -3.204
79 CP6 142 -4.669
79 CP6 143 -6.134
79 CP6 144 -7.111
79 CP6 145 -7.111
79 CP6 146 -7.111
79 CP6 147 -6.134
79 CP6 148 -4.181
79 CP6 149 -3.204
79 CP6 150 -2.716
79 CP6 151 -2.716
79 CP6 152 -3.204
79 CP6 153 -4.181
79 CP6 154 -4.669
79 CP6 155 -4.669
79 CP6 156 -3.693
79 CP6 157 -1.251
79 CP6 158 1.190
79 CP6 159 3.143
79 CP6 160 3.143
79 CP6 161 1.678
79 CP6 162 -0.275
79 CP6 163 -0.763
79 CP6 164 0.214
79 CP6 165 2.167
79 CP6 166 3.632
79 CP6 167 4.120
79 CP6 168 3.143
79 CP6 169 2.167
79 CP6 170 1.190
79 CP6 171 0.702
79 CP6 172 0.214
79 CP6 173 -0.275
79 CP6 174 -0.275
79 CP6 175 0.702
79 CP6 176 2.167
79 CP6 177 4.120
79 CP6 178 5.096
79 CP6 179 5.585
79 CP6 180 4.608
79 CP6 181 3.632
79 CP6 182 3.143
79 CP6 183 2.167
79 CP6 184 0.702
79 CP6 185 -0.763
79 CP6 186 -2.228
79 CP6 187 -3.204
79 CP6 188 -2.716
79 CP6 189 -1.740
79 CP6 190 -1.251
79 CP6 191 -1.251
79 CP6 192 -1.740
79 CP6 193 -2.228
79 CP6 194 -2.716
79 CP6 195 -3.204
79 CP6 196 -5.157
79 CP6 197 -8.087
79 CP6 198 -11.017
79 CP6 199 -11.993
79 CP6 200 -11.017
79 CP6 201 -9.064
79 CP6 202 -6.622
79 CP6 203 -5.646
79 CP6 204 -4.669
79 CP6 205 -4.181
79 CP6 206 -3.204
79 CP6 207 -1.740
79 CP6 208 -0.763
79 CP6 209 -0.763
79 CP6 210 -2.228
79 CP6 211 -3.204
79 CP6 212 -3.693
79 CP6 213 -2.716
79 CP6 214 -1.251
79 CP6 215 -0.763
79 CP6 216 -1.251
79 CP6 217 -2.716
79 CP6 218 -4.669
79 CP6 219 -6.134
79 CP6 220 -6.134
79 CP6 221 -6.134
79 CP6 222 -6.622
79 CP6 223 -7.111
79 CP6 224 -8.087
79 CP6 225 -8.087
79 CP6 226 -7.599
79 CP6 227 -6.622
79 CP6 228 -6.622
79 CP6 229 -6.622
79 CP6 230 -7.111
79 CP6 231 -7.599
79 CP6 232 -8.087
79 CP6 233 -8.575
79 CP6 234 -10.040
79 CP6 235 -12.482
79 CP6 236 -14.435
79 CP6 237 -15.900
79 CP6 238 -15.900
79 CP6 239 -14.435
79 CP6 240 -11.993
79 CP6 241 -9.552
79 CP6 242 -8.575
79 CP6 243 -8.087
79 CP6 244 -8.575
79 CP6 245 -9.064
79 CP6 246 -10.040
79 CP6 247 -10.529
79 CP6 248 -11.017
79 CP6 249 -11.993
79 CP6 250 -12.970
79 CP6 251 -12.970
79 CP6 252 -12.970
79 CP6 253 -11.993
79 CP6 254 -10.529
79 CP6 255 -9.064
# CP1 chan 20
79 CP1 0 2.035
79 CP1 1 2.035
79 CP1 2 1.058
79 CP1 3 1.058
79 CP1 4 1.546
79 CP1 5 2.523
79 CP1 6 2.523
79 CP1 7 3.011
79 CP1 8 2.523
79 CP1 9 1.546
79 CP1 10 1.546
79 CP1 11 1.058
79 CP1 12 1.546
79 CP1 13 2.035
79 CP1 14 2.035
79 CP1 15 2.523
79 CP1 16 2.523
79 CP1 17 2.523
79 CP1 18 2.035
79 CP1 19 1.546
79 CP1 20 1.058
79 CP1 21 1.058
79 CP1 22 2.035
79 CP1 23 2.523
79 CP1 24 3.011
79 CP1 25 3.499
79 CP1 26 3.011
79 CP1 27 3.011
79 CP1 28 3.011
79 CP1 29 3.499
79 CP1 30 3.499
79 CP1 31 3.499
79 CP1 32 3.011
79 CP1 33 2.035
79 CP1 34 1.546
79 CP1 35 1.058
79 CP1 36 1.058
79 CP1 37 1.058
79 CP1 38 1.058
79 CP1 39 1.058
79 CP1 40 1.058
79 CP1 41 1.058
79 CP1 42 1.058
79 CP1 43 0.570
79 CP1 44 -0.407
79 CP1 45 -0.407
79 CP1 46 -0.895
79 CP1 47 -0.407
79 CP1 48 0.570
79 CP1 49 1.058
79 CP1 50 1.546
79 CP1 51 2.035
79 CP1 52 2.035
79 CP1 53 2.035
79 CP1 54 3.011
79 CP1 55 3.499
79 CP1 56 3.988
79 CP1 57 3.988
79 CP1 58 3.499
79 CP1 59 3.499
79 CP1 60 3.499
79 CP1 61 3.988
79 CP1 62 4.476
79 CP1 63 4.964
79 CP1 64 5.452
79 CP1 65 5.452
79 CP1 66 5.452
79 CP1 67 4.964
79 CP1 68 5.452
79 CP1 69 4.964
79 CP1 70 4.476
79 CP1 71 4.476
79 CP1 72 3.988
79 CP1 73 4.476
79 CP1 74 4.476
79 CP1 75 4.476
79 CP1 76 3.988
79 CP1 77 3.011
79 CP1 78 2.035
79 CP1 79 2.035
79 CP1 80 3.011
79 CP1 81 4.476
79 CP1 82 5.452
79 CP1 83 5.452
79 CP1 84 4.476
79 CP1 85 3.988
79 CP1 86 3.988
79 CP1 87 4.476
79 CP1 88 5.452
79 CP1 89 6.429
79 CP1 90 7.406
79 CP1 91 7.406
79 CP1 92 7.406
79 CP1 93 7.406
79 CP1 94 6.917
79 CP1 95 6.917
79 CP1 96 7.406
79 CP1 97 7.406
79 CP1 98 7.406
79 CP1 99 6.917
79 CP1 100 5.941
79 CP1 101 4.964
79 CP1 102 3.988
79 CP1 103 3.499
79 CP1 104 3.499
79 CP1 105 3.499
79 CP1 106 3.499
79 CP1 107 3.499
79 CP1 108 3.011
79 CP1 109 2.523
79 CP1 110 2.035
79 CP1 111 1.546
79 CP1 112 1.058
79 CP1 113 1.058
79 CP1 114 0.570
79 CP1 115 0.570
79 CP1 116 0.081
79 CP1 117 0.081
79 CP1 118 -0.407
79 CP1 119 -0.407
79 CP1 120 -0.407
79 CP1 121 0.081
79 CP1 122 0.570
79 CP1 123 1.058
79 CP1 124 2.035
79 CP1 125 2.035
79 CP1 126 2.035
79 CP1 127 1.546
79 CP1 128 1.546
79 CP1 129 2.035
79 CP1 130 2.523
79 CP1 131 3.499
79 CP1 132 3.499
79 CP1 133 3.988
79 CP1 134 3.988
79 CP1 135 3.988
79 CP1 136 4.476
79 CP1 137 4.476
79 CP1 138 4.964
79 CP1 139 4.476
79 CP1 140 3.499
79 CP1 141 3.499
79 CP1 142 3.011
79 CP1 143 3.011
79 CP1 144 3.011
79 CP1 145 2.523
79 CP1 146 2.035
79 CP1 147 2.035
79 CP1 148 2.035
79 CP1 149 3.011
79 CP1 150 3.499
79 CP1 151 3.988
79 CP1 152 3.988
79 CP1 153 3.499
79 CP1 154 3.499
79 CP1 155 3.499
79 CP1 156 4.476
79 CP1 157 4.964
79 CP1 158 5.941
79 CP1 159 6.429
79 CP1 160 6.917
79 CP1 161 6.429
79 CP1 162 6.429
79 CP1 163 5.452
79 CP1 164 4.964
79 CP1 165 4.476
79 CP1 166 4.964
79 CP1 167 5.452
79 CP1 168 5.452
79 CP1 169 5.452
79 CP1 170 4.964
79 CP1 171 3.988
79 CP1 172 3.499
79 CP1 173 3.988
79 CP1 174 4.964
79 CP1 175 5.941
79 CP1 176 6.917
79 CP1 177 7.406
79 CP1 178 7.406
79 CP1 179 6.917
79 CP1 180 5.941
79 CP1 181 5.452
79 CP1 182 5.452
79 CP1 183 5.452
79 CP1 184 5.452
79 CP1 185 5.452
79 CP1 186 4.964
79 CP1 187 4.964
79 CP1 188 4.476
79 CP1 189 4.476
79 CP1 190 3.988
79 CP1 191 4.476
79 CP1 192 4.476
79 CP1 193 5.452
79 CP1 194 5.452
79 CP1 195 5.452
79 CP1 196 4.964
79 CP1 197 4.964
79 CP1 198 4.964
79 CP1 199 5.452
79 CP1 200 6.429
79 CP1 201 7.406
79 CP1 202 7.406
79 CP1 203 6.917
79 CP1 204 5.941
79 CP1 205 5.452
79 CP1 206 4.964
79 CP1 207 5.452
79 CP1 208 5.452
79 CP1 209 5.452
79 CP1 210 4.964
79 CP1 211 4.476
79 CP1 212 4.964
79 CP1 213 5.452
79 CP1 214 5.452
79 CP1 215 5.941
79 CP1 216 5.941
79 CP1 217 5.452
79 CP1 218 5.941
79 CP1 219 6.429
79 CP1 220 7.406
79 CP1 221 7.894
79 CP1 222 7.894
79 CP1 223 7.406
79 CP1 224 6.429
79 CP1 225 5.941
79 CP1 226 5.452
79 CP1 227 4.964
79 CP1 228 4.964
79 CP1 229 4.476
79 CP1 230 3.988
79 CP1 231 3.988
79 CP1 232 3.988
79 CP1 233 3.988
79 CP1 234 3.988
79 CP1 235 3.499
79 CP1 236 3.499
79 CP1 237 3.499
79 CP1 238 3.499
79 CP1 239 3.499
79 CP1 240 3.011
79 CP1 241 2.035
79 CP1 242 1.546
79 CP1 243 0.570
79 CP1 244 0.570
79 CP1 245 0.570
79 CP1 246 0.081
79 CP1 247 -0.407
79 CP1 248 -1.383
79 CP1 249 -1.383
79 CP1 250 -1.383
79 CP1 251 -0.895
79 CP1 252 -0.895
79 CP1 253 -0.407
79 CP1 254 -0.407
79 CP1 255 0.081
# CP2 chan 21
79 CP2 0 0.417
79 CP2 1 0.905
79 CP2 2 0.905
79 CP2 3 1.394
79 CP2 4 0.905
79 CP2 5 0.905
79 CP2 6 0.417
79 CP2 7 -0.071
79 CP2 8 -1.048
79 CP2 9 -1.048
79 CP2 10 -0.559
79 CP2 11 0.417
79 CP2 12 1.394
79 CP2 13 1.882
79 CP2 14 1.882
79 CP2 15 1.394
79 CP2 16 0.417
79 CP2 17 -0.071
79 CP2 18 -0.071
79 CP2 19 -0.071
79 CP2 20 0.417
79 CP2 21 0.905
79 CP2 22 1.394
79 CP2 23 1.882
79 CP2 24 1.882
79 CP2 25 1.882
79 CP2 26 1.882
79 CP2 27 1.882
79 CP2 28 1.394
79 CP2 29 1.882
79 CP2 30 1.882
79 CP2 31 2.370
79 CP2 32 1.882
79 CP2 33 1.882
79 CP2 34 1.394
79 CP2 35 1.394
79 CP2 36 1.394
79 CP2 37 0.905
79 CP2 38 0.905
79 CP2 39 0.417
79 CP2 40 0.417
79 CP2 41 -0.071
79 CP2 42 -0.071
79 CP2 43 -0.071
79 CP2 44 -0.559
79 CP2 45 -1.048
79 CP2 46 -0.559
79 CP2 47 -0.071
79 CP2 48 1.394
79 CP2 49 2.370
79 CP2 50 2.858
79 CP2 51 2.370
79 CP2 52 1.394
79 CP2 53 0.905
79 CP2 54 0.417
79 CP2 55 0.417
79 CP2 56 1.394
79 CP2 57 1.882
79 CP2 58 2.370
79 CP2 59 2.370
79 CP2 60 2.370
79 CP2 61 2.858
79 CP2 62 2.858
79 CP2 63 3.347
79 CP2 64 3.347
79 CP2 65 3.347
79 CP2 66 2.858
79 CP2 67 1.882
79 CP2 68 1.882
79 CP2 69 1.882
79 CP2 70 1.882
79 CP2 71 2.370
79 CP2 72 1.882
79 CP2 73 1.882
79 CP2 74 1.394
79 CP2 75 0.417
79 CP2 76 -0.071
79 CP2 77 -1.048
79 CP2 78 -2.513
79 CP2 79 -3.001
79 CP2 80 -3.489
79 CP2 81 -3.489
79 CP2 82 -3.489
79 CP2 83 -3.489
79 CP2 84 -3.489
79 CP2 85 -3.489
79 CP2 86 -3.001
79 CP2 87 -2.024
79 CP2 88 -1.048
79 CP2 89 0.417
79 CP2 90 1.394
79 CP2 91 2.370
79 CP2 92 2.370
79 CP2 93 2.858
79 CP2 94 3.347
79 CP2 95 3.347
79 CP2 96 3.347
79 CP2 97 3.347
79 CP2 98 3.347
79 CP2 99 2.858
79 CP2 100 2.858
79 CP2 101 2.858
79 CP2 102 2.370
79 CP2 103 1.394
79 CP2 104 0.905
79 CP2 105 -0.071
79 CP2 106 -0.071
79 CP2 107 -0.559
79 CP2 108 -1.048
79 CP2 109 -1.536
79 CP2 110 -3.001
79 CP2 111 -3.977
79 CP2 112 -3.977
79 CP2 113 -3.977
79 CP2 114 -3.001
79 CP2 115 -2.513
79 CP2 116 -2.513
79 CP2 117 -3.001
79 CP2 118 -3.489
79 CP2 119 -3.489
79 CP2 120 -3.977
79 CP2 121 -3.977
79 CP2 122 -3.977
79 CP2 123 -3.489
79 CP2 124 -3.489
79 CP2 125 -3.001
79 CP2 126 -2.513
79 CP2 127 -2.513
79 CP2 128 -2.513
79 CP2 129 -1.536
79 CP2 130 -1.048
79 CP2 131 -1.048
79 CP2 132 -1.048
79 CP2 133 -1.536
79 CP2 134 -2.024
79 CP2 135 -1.536
79 CP2 136 -1.048
79 CP2 137 -0.071
79 CP2 138 0.905
79 CP2 139 0.905
79 CP2 140 -0.071
79 CP2 141 -1.048
79 CP2 142 -2.513
79 CP2 143 -3.489
79 CP2 144 -3.977
79 CP2 145 -3.977
79 CP2 146 -4.954
79 CP2 147 -4.954
79 CP2 148 -4.954
79 CP2 149 -4.466
79 CP2 150 -3.489
79 CP2 151 -3.001
79 CP2 152 -2.513
79 CP2 153 -2.513
79 CP2 154 -3.001
79 CP2 155 -3.489
79 CP2 156 -3.001
79 CP2 157 -1.536
79 CP2 158 -0.071
79 CP2 159 1.394
79 CP2 160 1.882
79 CP2 161 1.394
79 CP2 162 0.417
79 CP2 163 -0.071
79 CP2 164 0.417
79 CP2 165 1.394
79 CP2 166 2.370
79 CP2 167 3.347
79 CP2 168 3.347
79 CP2 169 2.858
79 CP2 170 2.370
79 CP2 171 2.370
79 CP2 172 2.370
79 CP2 173 2.370
79 CP2 174 2.858
79 CP2 175 3.347
79 CP2 176 3.835
79 CP2 177 4.323
79 CP2 178 4.323
79 CP2 179 4.323
79 CP2 180 3.835
79 CP2 181 3.347
79 CP2 182 3.347
79 CP2 183 2.858
79 CP2 184 2.858
79 CP2 185 2.370
79 CP2 186 1.882
79 CP2 187 1.394
79 CP2 188 0.905
79 CP2 189 0.905
79 CP2 190 0.905
79 CP2 191 1.394
79 CP2 192 1.882
79 CP2 193 1.882
79 CP2 194 1.882
79 CP2 195 1.394
79 CP2 196 0.417
79 CP2 197 -0.559
79 CP2 198 -1.048
79 CP2 199 -1.048
79 CP2 200 -0.559
79 CP2 201 -0.071
79 CP2 202 0.417
79 CP2 203 -0.071
79 CP2 204 -0.071
79 CP2 205 -0.071
79 CP2 206 0.905
79 CP2 207 2.370
79 CP2 208 2.858
79 CP2 209 2.858
79 CP2 210 1.882
79 CP2 211 0.417
79 CP2 212 0.417
79 CP2 213 0.417
79 CP2 214 1.394
79 CP2 215 1.882
79 CP2 216 1.394
79 CP2 217 0.905
79 CP2 218 -0.071
79 CP2 219 -0.071
79 CP2 220 0.417
79 CP2 221 0.905
79 CP2 222 1.394
79 CP2 223 0.417
79 CP2 224 -0.071
79 CP2 225 -0.559
79 CP2 226 -0.559
79 CP2 227 -0.559
79 CP2 228 -0.559
79 CP2 229 -1.536
79 CP2 230 -2.513
79 CP2 231 -3.489
79 CP2 232 -3.489
79 CP2 233 -3.977
79 CP2 234 -3.977
79 CP2 235 -4.954
79 CP2 236 -5.931
79 CP2 237 -6.419
79 CP2 238 -5.931
79 CP2 239 -4.954
79 CP2 240 -3.977
79 CP2 241 -3.001
79 CP2 242 -3.001
79 CP2 243 -3.001
79 CP2 244 -3.977
79 CP2 245 -4.954
79 CP2 246 -5.931
79 CP2 247 -6.907
79 CP2 248 -7.884
79 CP2 249 -8.372
79 CP2 250 -8.860
79 CP2 251 -8.372
79 CP2 252 -7.884
79 CP2 253 -7.395
79 CP2 254 -7.395
79 CP2 255 -6.907
# P3 chan 22
79 P3 0 3.387
79 P3 1 2.899
79 P3 2 2.899
79 P3 3 3.387
79 P3 4 3.876
79 P3 5 4.852
79 P3 6 5.829
79 P3 7 5.341
79 P3 8 4.852
79 P3 9 4.364
79 P3 10 3.387
79 P3 11 2.899
79 P3 12 2.899
79 P3 13 2.411
79 P3 14 2.411
79 P3 15 2.899
79 P3 16 3.387
79 P3 17 3.387
79 P3 18 3.387
79 P3 19 2.411
79 P3 20 1.434
79 P3 21 1.434
79 P3 22 2.899
79 P3 23 4.364
79 P3 24 5.829
79 P3 25 6.317
79 P3 26 6.317
79 P3 27 6.317
79 P3 28 6.805
79 P3 29 7.782
79 P3 30 8.270
79 P3 31 7.294
79 P3 32 6.317
79 P3 33 4.852
79 P3 34 3.876
79 P3 35 3.387
79 P3 36 2.899
79 P3 37 2.411
79 P3 38 2.411
79 P3 39 1.923
79 P3 40 2.411
79 P3 41 2.411
79 P3 42 2.411
79 P3 43 1.434
79 P3 44 0.458
79 P3 45 -0.519
79 P3 46 -1.007
79 P3 47 -0.031
79 P3 48 1.434
79 P3 49 2.899
79 P3 50 3.876
79 P3 51 4.364
79 P3 52 4.852
79 P3 53 5.829
79 P3 54 7.294
79 P3 55 8.270
79 P3 56 8.270
79 P3 57 7.782
79 P3 58 7.294
79 P3 59 6.805
79 P3 60 7.294
79 P3 61 7.782
79 P3 62 8.270
79 P3 63 9.247
79 P3 64 9.247
79 P3 65 9.735
79 P3 66 9.735
79 P3 67 9.735
79 P3 68 10.223
79 P3 69 9.735
79 P3 70 9.247
79 P3 71 8.759
79 P3 72 8.270
79 P3 73 8.270
79 P3 74 8.759
79 P3 75 8.270
79 P3 76 7.294
79 P3 77 6.317
79 P3 78 5.341
79 P3 79 5.829
79 P3 80 7.294
79 P3 81 9.247
79 P3 82 11.200
79 P3 83 11.200
79 P3 84 10.223
79 P3 85 9.247
79 P3 86 8.759
79 P3 87 9.735
79 P3 88 10.712
79 P3 89 12.177
79 P3 90 13.641
79 P3 91 14.130
79 P3 92 14.130
79 P3 93 13.641
79 P3 94 13.153
79 P3 95 12.665
79 P3 96 12.177
79 P3 97 11.688
79 P3 98 11.688
79 P3 99 10.712
79 P3 100 9.247
79 P3 101 7.294
79 P3 102 4.852
79 P3 103 3.387
79 P3 104 2.899
79 P3 105 3.387
79 P3 106 3.876
79 P3 107 3.387
79 P3 108 2.899
79 P3 109 1.434
79 P3 110 -0.031
79 P3 111 -1.007
79 P3 112 -1.495
79 P3 113 -1.007
79 P3 114 -1.007
79 P3 115 -1.007
79 P3 116 -1.495
79 P3 117 -1.984
79 P3 118 -2.960
79 P3 119 -3.448
79 P3 120 -3.448
79 P3 121 -2.960
79 P3 122 -1.495
79 P3 123 -0.031
79 P3 124 0.946
79 P3 125 1.923
79 P3 126 1.923
79 P3 127 1.923
79 P3 128 1.923
79 P3 129 2.411
79 P3 130 2.899
79 P3 131 2.899
79 P3 132 2.899
79 P3 133 2.411
79 P3 134 2.411
79 P3 135 1.923
79 P3 136 2.411
79 P3 137 2.411
79 P3 138 2.411
79 P3 139 1.434
79 P3 140 0.458
79 P3 141 -0.031
79 P3 142 -0.031
79 P3 143 -0.031
79 P3 144 -0.031
79 P3 145 -0.031
79 P3 146 -0.519
79 P3 147 -0.519
79 P3 148 -0.031
79 P3 149 0.946
79 P3 150 1.923
79 P3 151 2.411
79 P3 152 1.923
79 P3 153 1.434
79 P3 154 1.434
79 P3 155 1.434
79 P3 156 2.411
79 P3 157 3.387
79 P3 158 4.364
79 P3 159 5.341
79 P3 160 5.829
79 P3 161 5.829
79 P3 162 5.341
79 P3 163 4.364
79 P3 164 3.876
79 P3 165 3.387
79 P3 166 3.876
79 P3 167 4.364
79 P3 168 5.341
79 P3 169 5.341
79 P3 170 3.876
79 P3 171 2.411
79 P3 172 1.923
79 P3 173 2.411
79 P3 174 4.364
79 P3 175 6.805
79 P3 176 8.759
79 P3 177 9.735
79 P3 178 8.759
79 P3 179 7.782
79 P3 180 6.805
79 P3 181 5.829
79 P3 182 5.829
79 P3 183 5.829
79 P3 184 5.829
79 P3 185 5.341
79 P3 186 5.341
79 P3 187 5.341
79 P3 188 4.852
79 P3 189 3.876
79 P3 190 3.876
79 P3 191 3.876
79 P3 192 4.364
79 P3 193 5.341
79 P3 194 5.829
79 P3 195 5.829
79 P3 196 5.341
79 P3 197 4.364
79 P3 198 4.852
79 P3 199 5.829
79 P3 200 7.294
79 P3 201 8.759
79 P3 202 9.247
79 P3 203 8.270
79 P3 204 6.805
79 P3 205 5.341
79 P3 206 4.364
79 P3 207 4.364
79 P3 208 3.876
79 P3 209 3.876
79 P3 210 3.387
79 P3 211 3.387
79 P3 212 3.387
79 P3 213 3.876
79 P3 214 4.364
79 P3 215 4.852
79 P3 216 5.341
79 P3 217 5.341
79 P3 218 5.829
79 P3 219 6.805
79 P3 220 8.270
79 P3 221 9.735
79 P3 222 9.735
79 P3 223 8.759
79 P3 224 7.782
79 P3 225 6.317
79 P3 226 4.852
79 P3 227 3.387
79 P3 228 2.411
79 P3 229 1.434
79 P3 230 0.946
79 P3 231 0.946
79 P3 232 1.434
79 P3 233 1.434
79 P3 234 1.923
79 P3 235 1.434
79 P3 236 1.434
79 P3 237 1.434
79 P3 238 1.434
79 P3 239 0.946
79 P3 240 0.458
79 P3 241 -1.007
79 P3 242 -2.472
79 P3 243 -2.960
79 P3 244 -3.448
79 P3 245 -3.937
79 P3 246 -4.913
79 P3 247 -5.890
79 P3 248 -6.866
79 P3 249 -7.355
79 P3 250 -7.355
79 P3 251 -6.378
79 P3 252 -5.890
79 P3 253 -5.402
79 P3 254 -4.913
79 P3 255 -3.937
# P4 chan 23
79 P4 0 2.502
79 P4 1 2.502
79 P4 2 2.502
79 P4 3 2.502
79 P4 4 2.502
79 P4 5 2.502
79 P4 6 2.502
79 P4 7 2.014
79 P4 8 1.526
79 P4 9 1.038
79 P4 10 1.038
79 P4 11 2.014
79 P4 12 2.502
79 P4 13 2.991
79 P4 14 2.502
79 P4 15 2.014
79 P4 16 0.549
79 P4 17 0.549
79 P4 18 0.549
79 P4 19 1.526
79 P4 20 2.014
79 P4 21 2.991
79 P4 22 3.479
79 P4 23 3.967
79 P4 24 4.944
79 P4 25 4.944
79 P4 26 4.456
79 P4 27 4.456
79 P4 28 4.944
79 P4 29 5.432
79 P4 30 5.920
79 P4 31 5.920
79 P4 32 5.920
79 P4 33 5.432
79 P4 34 4.944
79 P4 35 4.944
79 P4 36 4.456
79 P4 37 3.967
79 P4 38 2.991
79 P4 39 2.014
79 P4 40 2.014
79 P4 41 2.014
79 P4 42 2.014
79 P4 43 1.526
79 P4 44 0.061
79 P4 45 -0.916
79 P4 46 0.061
79 P4 47 2.502
79 P4 48 4.944
79 P4 49 6.897
79 P4 50 7.874
79 P4 51 6.897
79 P4 52 5.920
79 P4 53 5.432
79 P4 54 5.432
79 P4 55 6.409
79 P4 56 7.385
79 P4 57 7.874
79 P4 58 7.874
79 P4 59 7.874
79 P4 60 7.385
79 P4 61 7.874
79 P4 62 8.362
79 P4 63 8.850
79 P4 64 9.338
79 P4 65 9.827
79 P4 66 9.827
79 P4 67 9.338
79 P4 68 8.850
79 P4 69 8.850
79 P4 70 8.850
79 P4 71 9.338
79 P4 72 9.827
79 P4 73 9.827
79 P4 74 9.338
79 P4 75 7.874
79 P4 76 5.920
79 P4 77 4.456
79 P4 78 3.967
79 P4 79 3.967
79 P4 80 4.944
79 P4 81 5.432
79 P4 82 5.432
79 P4 83 4.456
79 P4 84 2.991
79 P4 85 2.502
79 P4 86 2.991
79 P4 87 4.456
79 P4 88 6.409
79 P4 89 8.362
79 P4 90 9.827
79 P4 91 10.315
79 P4 92 10.803
79 P4 93 11.292
79 P4 94 11.780
79 P4 95 11.780
79 P4 96 12.268
79 P4 97 12.268
79 P4 98 12.268
79 P4 99 11.780
79 P4 100 11.780
79 P4 101 10.803
79 P4 102 9.338
79 P4 103 7.874
79 P4 104 6.409
79 P4 105 5.432
79 P4 106 4.944
79 P4 107 4.456
79 P4 108 2.991
79 P4 109 1.038
79 P4 110 -1.404
79 P4 111 -2.380
79 P4 112 -2.380
79 P4 113 -1.404
79 P4 114 0.061
79 P4 115 1.038
79 P4 116 1.526
79 P4 117 0.549
79 P4 118 -0.427
79 P4 119 -1.404
79 P4 120 -2.380
79 P4 121 -2.380
79 P4 122 -1.404
79 P4 123 -0.427
79 P4 124 0.549
79 P4 125 1.526
79 P4 126 2.014
79 P4 127 2.502
79 P4 128 2.991
79 P4 129 3.479
79 P4 130 3.967
79 P4 131 3.967
79 P4 132 3.479
79 P4 133 2.991
79 P4 134 2.502
79 P4 135 2.991
79 P4 136 3.967
79 P4 137 4.944
79 P4 138 5.432
79 P4 139 4.944
79 P4 140 3.479
79 P4 141 2.502
79 P4 142 1.526
79 P4 143 1.038
79 P4 144 0.549
79 P4 145 0.061
79 P4 146 -0.916
79 P4 147 -0.916
79 P4 148 -0.916
79 P4 149 0.061
79 P4 150 1.526
79 P4 151 2.014
79 P4 152 2.014
79 P4 153 1.526
79 P4 154 1.038
79 P4 155 1.038
79 P4 156 1.526
79 P4 157 3.479
79 P4 158 5.432
79 P4 159 7.385
79 P4 160 7.874
79 P4 161 6.409
79 P4 162 4.944
79 P4 163 3.479
79 P4 164 3.479
79 P4 165 4.944
79 P4 166 6.897
79 P4 167 7.874
79 P4 168 8.362
79 P4 169 7.874
79 P4 170 6.897
79 P4 171 6.409
79 P4 172 5.920
79 P4 173 6.409
79 P4 174 7.385
79 P4 175 7.874
79 P4 176 8.850
79 P4 177 9.827
79 P4 178 10.803
79 P4 179 10.315
79 P4 180 10.315
79 P4 181 9.827
79 P4 182 9.338
79 P4 183 8.362
79 P4 184 7.874
79 P4 185 6.409
79 P4 186 4.944
79 P4 187 3.967
79 P4 188 3.479
79 P4 189 3.967
79 P4 190 4.944
79 P4 191 5.920
79 P4 192 6.409
79 P4 193 6.409
79 P4 194 5.920
79 P4 195 4.944
79 P4 196 3.479
79 P4 197 2.502
79 P4 198 2.014
79 P4 199 2.014
79 P4 200 3.479
79 P4 201 4.456
79 P4 202 5.432
79 P4 203 5.920
79 P4 204 5.920
79 P4 205 6.409
79 P4 206 6.897
79 P4 207 8.362
79 P4 208 8.362
79 P4 209 7.874
79 P4 210 6.897
79 P4 211 5.432
79 P4 212 5.432
79 P4 213 5.920
79 P4 214 6.897
79 P4 215 7.385
79 P4 216 6.409
79 P4 217 4.944
79 P4 218 3.967
79 P4 219 4.456
79 P4 220 5.432
79 P4 221 6.409
79 P4 222 5.920
79 P4 223 4.944
79 P4 224 3.479
79 P4 225 2.502
79 P4 226 2.014
79 P4 227 1.526
79 P4 228 1.038
79 P4 229 0.549
79 P4 230 -0.916
79 P4 231 -1.404
79 P4 232 -1.404
79 P4 233 -1.892
79 P4 234 -2.869
79 P4 235 -4.333
79 P4 236 -5.798
79 P4 237 -6.287
79 P4 238 -5.798
79 P4 239 -3.845
79 P4 240 -1.892
79 P4 241 -0.427
79 P4 242 0.061
79 P4 243 -0.427
79 P4 244 -1.404
79 P4 245 -2.869
79 P4 246 -4.333
79 P4 247 -6.287
79 P4 248 -8.240
79 P4 249 -9.705
79 P4 250 -10.193
79 P4 251 -10.681
79 P4 252 -10.193
79 P4 253 -9.216
79 P4 254 -7.751
79 P4 255 -6.287
# PZ chan 24
79 PZ 0 2.594
79 PZ 1 2.106
79 PZ 2 2.106
79 PZ 3 2.594
79 PZ 4 3.082
79 PZ 5 3.571
79 PZ 6 4.059
79 PZ 7 3.571
79 PZ 8 3.082
79 PZ 9 3.082
79 PZ 10 3.082
79 PZ 11 3.571
79 PZ 12 4.547
79 PZ 13 5.035
79 PZ 14 5.035
79 PZ 15 4.547
79 PZ 16 4.059
79 PZ 17 3.571
79 PZ 18 3.571
79 PZ 19 3.571
79 PZ 20 3.571
79 PZ 21 3.571
79 PZ 22 4.059
79 PZ 23 4.547
79 PZ 24 5.035
79 PZ 25 6.012
79 PZ 26 6.012
79 PZ 27 6.500
79 PZ 28 6.500
79 PZ 29 6.500
79 PZ 30 6.989
79 PZ 31 6.989
79 PZ 32 6.012
79 PZ 33 5.035
79 PZ 34 4.059
79 PZ 35 4.059
79 PZ 36 3.082
79 PZ 37 3.082
79 PZ 38 3.082
79 PZ 39 2.594
79 PZ 40 2.594
79 PZ 41 1.617
79 PZ 42 1.129
79 PZ 43 0.153
79 PZ 44 -0.824
79 PZ 45 -1.801
79 PZ 46 -1.801
79 PZ 47 -0.824
79 PZ 48 1.129
79 PZ 49 2.106
79 PZ 50 3.082
79 PZ 51 3.082
79 PZ 52 3.082
79 PZ 53 3.082
79 PZ 54 3.571
79 PZ 55 4.547
79 PZ 56 5.035
79 PZ 57 5.524
79 PZ 58 5.035
79 PZ 59 5.035
79 PZ 60 4.547
79 PZ 61 5.035
79 PZ 62 5.035
79 PZ 63 5.524
79 PZ 64 6.012
79 PZ 65 6.500
79 PZ 66 6.989
79 PZ 67 6.989
79 PZ 68 6.989
79 PZ 69 6.500
79 PZ 70 6.012
79 PZ 71 5.524
79 PZ 72 5.035
79 PZ 73 5.035
79 PZ 74 5.524
79 PZ 75 5.035
79 PZ 76 4.059
79 PZ 77 2.594
79 PZ 78 1.617
79 PZ 79 1.617
79 PZ 80 2.594
79 PZ 81 3.571
79 PZ 82 4.547
79 PZ 83 4.547
79 PZ 84 3.082
79 PZ 85 2.594
79 PZ 86 2.594
79 PZ 87 3.082
79 PZ 88 5.035
79 PZ 89 6.500
79 PZ 90 7.965
79 PZ 91 8.942
79 PZ 92 9.430
79 PZ 93 9.918
79 PZ 94 10.406
79 PZ 95 10.406
79 PZ 96 10.406
79 PZ 97 9.918
79 PZ 98 9.430
79 PZ 99 8.942
79 PZ 100 8.453
79 PZ 101 6.989
79 PZ 102 5.035
79 PZ 103 3.571
79 PZ 104 2.106
79 PZ 105 1.129
79 PZ 106 0.641
79 PZ 107 0.153
79 PZ 108 -0.336
79 PZ 109 -1.312
79 PZ 110 -2.289
79 PZ 111 -2.777
79 PZ 112 -2.777
79 PZ 113 -1.801
79 PZ 114 -1.312
79 PZ 115 -0.824
79 PZ 116 -0.824
79 PZ 117 -1.801
79 PZ 118 -2.289
79 PZ 119 -2.777
79 PZ 120 -3.265
79 PZ 121 -3.754
79 PZ 122 -2.777
79 PZ 123 -1.801
79 PZ 124 -0.824
79 PZ 125 -0.336
79 PZ 126 0.153
79 PZ 127 0.153
79 PZ 128 0.153
79 PZ 129 0.641
79 PZ 130 0.641
79 PZ 131 1.129
79 PZ 132 1.617
79 PZ 133 1.617
79 PZ 134 1.129
79 PZ 135 1.617
79 PZ 136 2.106
79 PZ 137 3.082
79 PZ 138 3.571
79 PZ 139 3.571
79 PZ 140 3.082
79 PZ 141 2.106
79 PZ 142 1.129
79 PZ 143 0.641
79 PZ 144 0.153
79 PZ 145 0.153
79 PZ 146 -0.336
79 PZ 147 0.153
79 PZ 148 0.641
79 PZ 149 1.617
79 PZ 150 2.594
79 PZ 151 3.082
79 PZ 152 3.082
79 PZ 153 2.594
79 PZ 154 2.106
79 PZ 155 1.617
79 PZ 156 1.617
79 PZ 157 3.082
79 PZ 158 4.059
79 PZ 159 5.524
79 PZ 160 6.012
79 PZ 161 5.524
79 PZ 162 5.035
79 PZ 163 3.571
79 PZ 164 3.571
79 PZ 165 4.059
79 PZ 166 5.524
79 PZ 167 6.012
79 PZ 168 6.012
79 PZ 169 5.524
79 PZ 170 4.547
79 PZ 171 4.059
79 PZ 172 4.059
79 PZ 173 4.547
79 PZ 174 6.012
79 PZ 175 7.477
79 PZ 176 8.942
79 PZ 177 9.430
79 PZ 178 9.430
79 PZ 179 8.942
79 PZ 180 8.453
79 PZ 181 7.965
79 PZ 182 7.477
79 PZ 183 7.477
79 PZ 184 6.989
79 PZ 185 6.989
79 PZ 186 6.012
79 PZ 187 6.012
79 PZ 188 5.035
79 PZ 189 5.035
79 PZ 190 5.035
79 PZ 191 5.035
79 PZ 192 5.524
79 PZ 193 6.012
79 PZ 194 6.012
79 PZ 195 6.012
79 PZ 196 5.035
79 PZ 197 4.547
79 PZ 198 4.547
79 PZ 199 5.035
79 PZ 200 6.500
79 PZ 201 7.477
79 PZ 202 7.965
79 PZ 203 7.477
79 PZ 204 6.500
79 PZ 205 6.012
79 PZ 206 6.012
79 PZ 207 6.989
79 PZ 208 6.989
79 PZ 209 6.500
79 PZ 210 6.012
79 PZ 211 5.035
79 PZ 212 4.547
79 PZ 213 5.035
79 PZ 214 5.524
79 PZ 215 6.012
79 PZ 216 6.012
79 PZ 217 5.524
79 PZ 218 5.524
79 PZ 219 6.012
79 PZ 220 6.989
79 PZ 221 7.965
79 PZ 222 8.453
79 PZ 223 7.965
79 PZ 224 6.500
79 PZ 225 5.035
79 PZ 226 4.059
79 PZ 227 3.571
79 PZ 228 2.594
79 PZ 229 2.106
79 PZ 230 1.129
79 PZ 231 0.153
79 PZ 232 -0.336
79 PZ 233 -0.336
79 PZ 234 -0.824
79 PZ 235 -1.801
79 PZ 236 -2.777
79 PZ 237 -2.777
79 PZ 238 -2.777
79 PZ 239 -1.801
79 PZ 240 -0.824
79 PZ 241 -0.336
79 PZ 242 -0.336
79 PZ 243 -0.824
79 PZ 244 -1.801
79 PZ 245 -2.777
79 PZ 246 -3.754
79 PZ 247 -4.730
79 PZ 248 -5.707
79 PZ 249 -6.195
79 PZ 250 -6.683
79 PZ 251 -6.683
79 PZ 252 -7.172
79 PZ 253 -6.683
79 PZ 254 -6.683
79 PZ 255 -6.195
# P8 chan 25
79 P8 0 3.286
79 P8 1 4.262
79 P8 2 4.262
79 P8 3 4.262
79 P8 4 3.774
79 P8 5 2.797
79 P8 6 2.309
79 P8 7 1.333
79 P8 8 0.844
79 P8 9 0.356
79 P8 10 -0.132
79 P8 11 -0.132
79 P8 12 -0.132
79 P8 13 -1.109
79 P8 14 -2.085
79 P8 15 -2.574
79 P8 16 -3.062
79 P8 17 -3.062
79 P8 18 -2.574
79 P8 19 -2.574
79 P8 20 -1.597
79 P8 21 -0.132
79 P8 22 2.309
79 P8 23 4.751
79 P8 24 5.239
79 P8 25 4.751
79 P8 26 2.797
79 P8 27 1.333
79 P8 28 1.821
79 P8 29 3.774
79 P8 30 6.215
79 P8 31 8.169
79 P8 32 8.169
79 P8 33 7.680
79 P8 34 7.192
79 P8 35 6.704
79 P8 36 6.215
79 P8 37 5.239
79 P8 38 3.774
79 P8 39 2.309
79 P8 40 1.333
79 P8 41 0.844
79 P8 42 1.333
79 P8 43 1.333
79 P8 44 0.844
79 P8 45 0.356
79 P8 46 0.844
79 P8 47 2.309
79 P8 48 5.239
79 P8 49 7.680
79 P8 50 8.657
79 P8 51 8.169
79 P8 52 7.192
79 P8 53 6.704
79 P8 54 7.192
79 P8 55 8.169
79 P8 56 9.633
79 P8 57 10.122
79 P8 58 9.145
79 P8 59 7.680
79 P8 60 7.192
79 P8 61 7.192
79 P8 62 8.169
79 P8 63 9.633
79 P8 64 10.122
79 P8 65 9.633
79 P8 66 9.145
79 P8 67 8.169
79 P8 68 7.680
79 P8 69 8.657
79 P8 70 9.633
79 P8 71 11.098
79 P8 72 12.075
79 P8 73 11.587
79 P8 74 10.610
79 P8 75 9.145
79 P8 76 7.680
79 P8 77 6.704
79 P8 78 6.704
79 P8 79 7.192
79 P8 80 8.169
79 P8 81 8.657
79 P8 82 7.680
79 P8 83 6.215
79 P8 84 4.262
79 P8 85 3.286
79 P8 86 3.774
79 P8 87 5.239
79 P8 88 7.680
79 P8 89 10.122
79 P8 90 11.098
79 P8 91 11.098
79 P8 92 11.098
79 P8 93 11.098
79 P8 94 11.098
79 P8 95 11.098
79 P8 96 10.610
79 P8 97 10.122
79 P8 98 9.633
79 P8 99 9.145
79 P8 100 9.145
79 P8 101 8.657
79 P8 102 6.704
79 P8 103 4.751
79 P8 104 1.821
79 P8 105 -0.132
79 P8 106 -2.085
79 P8 107 -3.550
79 P8 108 -5.503
79 P8 109 -8.433
79 P8 110 -10.874
79 P8 111 -13.316
79 P8 112 -14.292
79 P8 113 -13.316
79 P8 114 -11.363
79 P8 115 -9.410
79 P8 116 -8.433
79 P8 117 -8.433
79 P8 118 -9.410
79 P8 119 -10.386
79 P8 120 -10.874
79 P8 121 -10.874
79 P8 122 -10.386
79 P8 123 -8.921
79 P8 124 -6.968
79 P8 125 -5.015
79 P8 126 -3.550
79 P8 127 -3.062
79 P8 128 -3.062
79 P8 129 -3.550
79 P8 130 -3.550
79 P8 131 -4.038
79 P8 132 -4.527
79 P8 133 -5.015
79 P8 134 -5.992
79 P8 135 -6.480
79 P8 136 -6.480
79 P8 137 -6.480
79 P8 138 -6.968
79 P8 139 -7.945
79 P8 140 -9.410
79 P8 141 -10.874
79 P8 142 -11.363
79 P8 143 -12.339
79 P8 144 -12.828
79 P8 145 -13.316
79 P8 146 -14.292
79 P8 147 -13.804
79 P8 148 -12.828
79 P8 149 -10.874
79 P8 150 -8.921
79 P8 151 -7.945
79 P8 152 -7.456
79 P8 153 -7.456
79 P8 154 -7.945
79 P8 155 -8.433
79 P8 156 -7.456
79 P8 157 -5.992
79 P8 158 -4.038
79 P8 159 -2.085
79 P8 160 -1.109
79 P8 161 -2.574
79 P8 162 -4.038
79 P8 163 -5.503
79 P8 164 -5.503
79 P8 165 -4.038
79 P8 166 -2.085
79 P8 167 -1.109
79 P8 168 -0.621
79 P8 169 -1.109
79 P8 170 -2.085
79 P8 171 -3.062
79 P8 172 -3.550
79 P8 173 -3.550
79 P8 174 -3.062
79 P8 175 -1.597
79 P8 176 0.356
79 P8 177 1.333
79 P8 178 2.309
79 P8 179 2.309
79 P8 180 1.333
79 P8 181 0.356
79 P8 182 -1.109
79 P8 183 -2.574
79 P8 184 -4.038
79 P8 185 -5.992
79 P8 186 -7.456
79 P8 187 -8.433
79 P8 188 -8.921
79 P8 189 -7.945
79 P8 190 -6.968
79 P8 191 -5.992
79 P8 192 -5.503
79 P8 193 -5.992
79 P8 194 -6.968
79 P8 195 -8.433
79 P8 196 -10.874
79 P8 197 -12.339
79 P8 198 -13.316
79 P8 199 -12.828
79 P8 200 -10.874
79 P8 201 -8.433
79 P8 202 -5.992
79 P8 203 -4.527
79 P8 204 -3.550
79 P8 205 -2.574
79 P8 206 -2.085
79 P8 207 -1.109
79 P8 208 -0.621
79 P8 209 -1.109
79 P8 210 -1.109
79 P8 211 -2.085
79 P8 212 -1.597
79 P8 213 -0.621
79 P8 214 -0.132
79 P8 215 -0.621
79 P8 216 -1.597
79 P8 217 -3.062
79 P8 218 -4.527
79 P8 219 -4.038
79 P8 220 -3.062
79 P8 221 -2.574
79 P8 222 -3.062
79 P8 223 -4.527
79 P8 224 -6.480
79 P8 225 -8.433
79 P8 226 -8.921
79 P8 227 -8.921
79 P8 228 -8.921
79 P8 229 -9.898
79 P8 230 -10.386
79 P8 231 -10.874
79 P8 232 -11.363
79 P8 233 -12.339
79 P8 234 -13.804
79 P8 235 -15.757
79 P8 236 -17.222
79 P8 237 -17.222
79 P8 238 -16.734
79 P8 239 -14.781
79 P8 240 -12.828
79 P8 241 -10.874
79 P8 242 -9.898
79 P8 243 -9.898
79 P8 244 -9.898
79 P8 245 -10.874
79 P8 246 -11.851
79 P8 247 -12.828
79 P8 248 -14.292
79 P8 249 -14.781
79 P8 250 -15.757
79 P8 251 -16.246
79 P8 252 -16.246
79 P8 253 -14.781
79 P8 254 -13.316
79 P8 255 -10.874
# P7 chan 26
79 P7 0 9.725
79 P7 1 10.701
79 P7 2 10.701
79 P7 3 10.701
79 P7 4 10.701
79 P7 5 10.701
79 P7 6 11.190
79 P7 7 11.190
79 P7 8 10.213
79 P7 9 9.237
79 P7 10 7.284
79 P7 11 5.330
79 P7 12 3.866
79 P7 13 2.401
79 P7 14 2.401
79 P7 15 2.889
79 P7 16 3.866
79 P7 17 4.354
79 P7 18 4.354
79 P7 19 3.377
79 P7 20 2.401
79 P7 21 2.401
79 P7 22 3.866
79 P7 23 6.307
79 P7 24 7.772
79 P7 25 8.260
79 P7 26 8.260
79 P7 27 8.748
79 P7 28 9.725
79 P7 29 11.190
79 P7 30 12.166
79 P7 31 12.166
79 P7 32 11.190
79 P7 33 9.725
79 P7 34 8.748
79 P7 35 7.772
79 P7 36 6.795
79 P7 37 4.842
79 P7 38 3.377
79 P7 39 1.912
79 P7 40 1.912
79 P7 41 2.889
79 P7 42 3.377
79 P7 43 2.889
79 P7 44 1.424
79 P7 45 -0.529
79 P7 46 -1.506
79 P7 47 -1.017
79 P7 48 0.448
79 P7 49 2.401
79 P7 50 3.377
79 P7 51 4.354
79 P7 52 4.842
79 P7 53 6.795
79 P7 54 8.748
79 P7 55 10.213
79 P7 56 10.213
79 P7 57 8.748
79 P7 58 7.284
79 P7 59 6.307
79 P7 60 6.307
79 P7 61 7.284
79 P7 62 8.260
79 P7 63 9.237
79 P7 64 8.748
79 P7 65 8.260
79 P7 66 7.772
79 P7 67 8.260
79 P7 68 8.260
79 P7 69 9.237
79 P7 70 9.725
79 P7 71 9.725
79 P7 72 9.725
79 P7 73 9.725
79 P7 74 9.237
79 P7 75 9.237
79 P7 76 8.748
79 P7 77 8.260
79 P7 78 8.260
79 P7 79 9.725
79 P7 80 12.166
79 P7 81 14.608
79 P7 82 15.584
79 P7 83 15.584
79 P7 84 14.608
79 P7 85 13.631
79 P7 86 13.143
79 P7 87 14.608
79 P7 88 16.073
79 P7 89 18.026
79 P7 90 19.979
79 P7 91 20.955
79 P7 92 21.444
79 P7 93 20.955
79 P7 94 19.491
79 P7 95 18.026
79 P7 96 16.561
79 P7 97 15.584
79 P7 98 15.096
79 P7 99 14.119
79 P7 100 12.655
79 P7 101 9.725
79 P7 102 6.795
79 P7 103 3.866
79 P7 104 1.912
79 P7 105 0.936
79 P7 106 0.448
79 P7 107 -0.041
79 P7 108 -1.994
79 P7 109 -4.435
79 P7 110 -6.877
79 P7 111 -8.341
79 P7 112 -9.318
79 P7 113 -8.341
79 P7 114 -6.877
79 P7 115 -5.412
79 P7 116 -4.924
79 P7 117 -4.924
79 P7 118 -5.412
79 P7 119 -5.900
79 P7 120 -5.900
79 P7 121 -4.924
79 P7 122 -2.970
79 P7 123 -0.529
79 P7 124 1.424
79 P7 125 2.401
79 P7 126 2.401
79 P7 127 1.424
79 P7 128 -0.041
79 P7 129 -0.529
79 P7 130 -0.529
79 P7 131 -0.041
79 P7 132 -0.041
79 P7 133 -1.017
79 P7 134 -1.994
79 P7 135 -3.459
79 P7 136 -4.435
79 P7 137 -4.924
79 P7 138 -5.412
79 P7 139 -6.388
79 P7 140 -6.877
79 P7 141 -6.877
79 P7 142 -6.388
79 P7 143 -4.924
79 P7 144 -3.947
79 P7 145 -3.947
79 P7 146 -3.947
79 P7 147 -4.435
79 P7 148 -3.947
79 P7 149 -2.970
79 P7 150 -1.994
79 P7 151 -1.506
79 P7 152 -1.506
79 P7 153 -1.994
79 P7 154 -2.970
79 P7 155 -2.970
79 P7 156 -1.994
79 P7 157 -1.017
79 P7 158 -0.529
79 P7 159 -0.041
79 P7 160 0.448
79 P7 161 1.424
79 P7 162 1.424
79 P7 163 1.424
79 P7 164 0.936
79 P7 165 0.448
79 P7 166 0.936
79 P7 167 2.401
79 P7 168 3.377
79 P7 169 3.866
79 P7 170 2.889
79 P7 171 -0.041
79 P7 172 -1.994
79 P7 173 -1.994
79 P7 174 -0.041
79 P7 175 3.377
79 P7 176 5.819
79 P7 177 6.307
79 P7 178 4.842
79 P7 179 2.889
79 P7 180 1.424
79 P7 181 0.936
79 P7 182 1.424
79 P7 183 1.912
79 P7 184 1.912
79 P7 185 1.912
79 P7 186 1.912
79 P7 187 1.424
79 P7 188 1.424
79 P7 189 -0.041
79 P7 190 -1.506
79 P7 191 -2.970
79 P7 192 -2.970
79 P7 193 -2.482
79 P7 194 -1.506
79 P7 195 -1.017
79 P7 196 -1.506
79 P7 197 -1.994
79 P7 198 -1.994
79 P7 199 -0.529
79 P7 200 1.912
79 P7 201 3.377
79 P7 202 4.842
79 P7 203 4.354
79 P7 204 2.889
79 P7 205 1.424
79 P7 206 -0.041
79 P7 207 -0.529
79 P7 208 -0.529
79 P7 209 -0.041
79 P7 210 0.448
79 P7 211 0.448
79 P7 212 0.936
79 P7 213 1.424
79 P7 214 1.912
79 P7 215 1.912
79 P7 216 1.424
79 P7 217 1.424
79 P7 218 1.912
79 P7 219 3.377
79 P7 220 5.330
79 P7 221 6.795
79 P7 222 6.795
79 P7 223 5.330
79 P7 224 3.377
79 P7 225 0.936
79 P7 226 -1.017
79 P7 227 -2.482
79 P7 228 -3.947
79 P7 229 -4.435
79 P7 230 -5.412
79 P7 231 -4.435
79 P7 232 -3.947
79 P7 233 -2.482
79 P7 234 -1.994
79 P7 235 -1.994
79 P7 236 -1.994
79 P7 237 -2.482
79 P7 238 -2.970
79 P7 239 -3.947
79 P7 240 -5.412
79 P7 241 -6.877
79 P7 242 -8.341
79 P7 243 -9.318
79 P7 244 -9.318
79 P7 245 -9.318
79 P7 246 -9.318
79 P7 247 -9.806
79 P7 248 -9.806
79 P7 249 -9.806
79 P7 250 -9.318
79 P7 251 -9.318
79 P7 252 -9.318
79 P7 253 -9.318
79 P7 254 -8.341
79 P7 255 -7.365
# PO2 chan 27
79 PO2 0 2.991
79 PO2 1 2.991
79 PO2 2 2.991
79 PO2 3 3.479
79 PO2 4 3.967
79 PO2 5 4.456
79 PO2 6 4.944
79 PO2 7 4.944
79 PO2 8 4.456
79 PO2 9 3.967
79 PO2 10 3.967
79 PO2 11 4.456
79 PO2 12 4.456
79 PO2 13 4.456
79 PO2 14 4.456
79 PO2 15 3.479
79 PO2 16 2.991
79 PO2 17 2.502
79 PO2 18 2.014
79 PO2 19 2.014
79 PO2 20 2.014
79 PO2 21 2.014
79 PO2 22 2.991
79 PO2 23 4.456
79 PO2 24 5.432
79 PO2 25 6.409
79 PO2 26 6.897
79 PO2 27 7.385
79 PO2 28 8.362
79 PO2 29 9.338
79 PO2 30 10.315
79 PO2 31 9.827
79 PO2 32 8.362
79 PO2 33 6.897
79 PO2 34 5.920
79 PO2 35 4.944
79 PO2 36 4.944
79 PO2 37 4.456
79 PO2 38 3.479
79 PO2 39 2.502
79 PO2 40 2.014
79 PO2 41 2.014
79 PO2 42 1.526
79 PO2 43 0.549
79 PO2 44 -0.916
79 PO2 45 -2.869
79 PO2 46 -2.869
79 PO2 47 -0.916
79 PO2 48 2.014
79 PO2 49 4.456
79 PO2 50 5.920
79 PO2 51 5.920
79 PO2 52 5.432
79 PO2 53 5.920
79 PO2 54 6.897
79 PO2 55 8.850
79 PO2 56 9.827
79 PO2 57 10.315
79 PO2 58 9.827
79 PO2 59 8.850
79 PO2 60 8.362
79 PO2 61 8.850
79 PO2 62 9.338
79 PO2 63 9.827
79 PO2 64 10.315
79 PO2 65 10.315
79 PO2 66 10.315
79 PO2 67 10.803
79 PO2 68 10.803
79 PO2 69 10.803
79 PO2 70 10.315
79 PO2 71 9.827
79 PO2 72 9.338
79 PO2 73 9.338
79 PO2 74 8.850
79 PO2 75 8.362
79 PO2 76 7.385
79 PO2 77 5.920
79 PO2 78 4.456
79 PO2 79 4.456
79 PO2 80 5.920
79 PO2 81 6.897
79 PO2 82 7.385
79 PO2 83 6.897
79 PO2 84 5.432
79 PO2 85 4.456
79 PO2 86 4.944
79 PO2 87 5.920
79 PO2 88 8.362
79 PO2 89 10.803
79 PO2 90 12.268
79 PO2 91 13.733
79 PO2 92 14.709
79 PO2 93 15.686
79 PO2 94 16.174
79 PO2 95 16.663
79 PO2 96 16.663
79 PO2 97 16.663
79 PO2 98 16.663
79 PO2 99 16.174
79 PO2 100 15.198
79 PO2 101 13.733
79 PO2 102 10.803
79 PO2 103 7.385
79 PO2 104 4.944
79 PO2 105 2.991
79 PO2 106 2.014
79 PO2 107 1.038
79 PO2 108 -0.427
79 PO2 109 -2.380
79 PO2 110 -4.333
79 PO2 111 -5.310
79 PO2 112 -4.822
79 PO2 113 -3.845
79 PO2 114 -1.892
79 PO2 115 -0.916
79 PO2 116 -1.404
79 PO2 117 -1.892
79 PO2 118 -3.357
79 PO2 119 -4.333
79 PO2 120 -4.822
79 PO2 121 -4.822
79 PO2 122 -3.845
79 PO2 123 -2.380
79 PO2 124 -0.916
79 PO2 125 0.549
79 PO2 126 1.038
79 PO2 127 1.038
79 PO2 128 1.038
79 PO2 129 1.526
79 PO2 130 2.014
79 PO2 131 2.502
79 PO2 132 2.991
79 PO2 133 2.502
79 PO2 134 2.014
79 PO2 135 1.526
79 PO2 136 2.502
79 PO2 137 2.991
79 PO2 138 3.967
79 PO2 139 3.479
79 PO2 140 2.991
79 PO2 141 2.014
79 PO2 142 1.526
79 PO2 143 1.526
79 PO2 144 1.038
79 PO2 145 1.038
79 PO2 146 0.549
79 PO2 147 0.549
79 PO2 148 1.038
79 PO2 149 2.502
79 PO2 150 3.967
79 PO2 151 4.456
79 PO2 152 3.967
79 PO2 153 3.479
79 PO2 154 2.502
79 PO2 155 2.014
79 PO2 156 2.502
79 PO2 157 3.479
79 PO2 158 4.944
79 PO2 159 6.409
79 PO2 160 6.897
79 PO2 161 6.409
79 PO2 162 5.432
79 PO2 163 4.456
79 PO2 164 3.967
79 PO2 165 4.944
79 PO2 166 6.409
79 PO2 167 7.874
79 PO2 168 8.362
79 PO2 169 7.874
79 PO2 170 6.409
79 PO2 171 5.432
79 PO2 172 5.432
79 PO2 173 5.920
79 PO2 174 7.874
79 PO2 175 9.827
79 PO2 176 11.780
79 PO2 177 12.268
79 PO2 178 12.268
79 PO2 179 11.292
79 PO2 180 10.315
79 PO2 181 9.827
79 PO2 182 9.338
79 PO2 183 8.850
79 PO2 184 8.362
79 PO2 185 7.385
79 PO2 186 6.409
79 PO2 187 4.944
79 PO2 188 4.456
79 PO2 189 3.967
79 PO2 190 4.456
79 PO2 191 5.920
79 PO2 192 6.897
79 PO2 193 7.385
79 PO2 194 7.385
79 PO2 195 6.409
79 PO2 196 4.944
79 PO2 197 3.479
79 PO2 198 3.479
79 PO2 199 4.456
79 PO2 200 5.920
79 PO2 201 7.874
79 PO2 202 8.850
79 PO2 203 8.850
79 PO2 204 8.362
79 PO2 205 7.874
79 PO2 206 7.874
79 PO2 207 7.874
79 PO2 208 7.874
79 PO2 209 7.385
79 PO2 210 6.409
79 PO2 211 5.432
79 PO2 212 5.432
79 PO2 213 5.432
79 PO2 214 5.920
79 PO2 215 5.920
79 PO2 216 5.432
79 PO2 217 4.456
79 PO2 218 4.456
79 PO2 219 5.432
79 PO2 220 6.897
79 PO2 221 8.850
79 PO2 222 8.850
79 PO2 223 7.874
79 PO2 224 6.409
79 PO2 225 4.944
79 PO2 226 3.479
79 PO2 227 2.502
79 PO2 228 1.526
79 PO2 229 0.061
79 PO2 230 -1.404
79 PO2 231 -2.380
79 PO2 232 -3.357
79 PO2 233 -3.845
79 PO2 234 -4.822
79 PO2 235 -6.287
79 PO2 236 -6.775
79 PO2 237 -7.263
79 PO2 238 -5.798
79 PO2 239 -3.845
79 PO2 240 -1.892
79 PO2 241 -0.916
79 PO2 242 -0.427
79 PO2 243 -0.427
79 PO2 244 -0.916
79 PO2 245 -2.380
79 PO2 246 -3.845
79 PO2 247 -5.310
79 PO2 248 -7.263
79 PO2 249 -9.705
79 PO2 250 -11.169
79 PO2 251 -12.146
79 PO2 252 -13.123
79 PO2 253 -13.611
79 PO2 254 -13.123
79 PO2 255 -12.146
# PO1 chan 28
79 PO1 0 3.042
79 PO1 1 3.530
79 PO1 2 3.530
79 PO1 3 3.530
79 PO1 4 4.018
79 PO1 5 4.995
79 PO1 6 5.483
79 PO1 7 5.483
79 PO1 8 4.995
79 PO1 9 4.506
79 PO1 10 4.018
79 PO1 11 4.506
79 PO1 12 4.995
79 PO1 13 4.995
79 PO1 14 4.506
79 PO1 15 3.530
79 PO1 16 3.042
79 PO1 17 3.042
79 PO1 18 2.553
79 PO1 19 2.065
79 PO1 20 2.065
79 PO1 21 2.065
79 PO1 22 3.042
79 PO1 23 4.506
79 PO1 24 5.971
79 PO1 25 6.460
79 PO1 26 6.948
79 PO1 27 7.436
79 PO1 28 8.413
79 PO1 29 9.389
79 PO1 30 10.366
79 PO1 31 9.878
79 PO1 32 8.901
79 PO1 33 7.436
79 PO1 34 5.971
79 PO1 35 5.483
79 PO1 36 4.995
79 PO1 37 4.506
79 PO1 38 3.530
79 PO1 39 3.042
79 PO1 40 2.553
79 PO1 41 2.065
79 PO1 42 2.065
79 PO1 43 0.600
79 PO1 44 -0.865
79 PO1 45 -2.330
79 PO1 46 -2.330
79 PO1 47 -0.865
79 PO1 48 2.065
79 PO1 49 4.995
79 PO1 50 6.460
79 PO1 51 6.460
79 PO1 52 5.971
79 PO1 53 5.971
79 PO1 54 6.948
79 PO1 55 8.901
79 PO1 56 9.878
79 PO1 57 10.366
79 PO1 58 9.878
79 PO1 59 9.389
79 PO1 60 8.901
79 PO1 61 8.901
79 PO1 62 9.389
79 PO1 63 9.878
79 PO1 64 10.366
79 PO1 65 10.854
79 PO1 66 10.854
79 PO1 67 11.342
79 PO1 68 11.342
79 PO1 69 11.342
79 PO1 70 10.854
79 PO1 71 9.878
79 PO1 72 9.389
79 PO1 73 9.389
79 PO1 74 9.389
79 PO1 75 8.901
79 PO1 76 7.436
79 PO1 77 5.971
79 PO1 78 4.995
79 PO1 79 4.995
79 PO1 80 5.971
79 PO1 81 7.436
79 PO1 82 7.924
79 PO1 83 7.436
79 PO1 84 5.971
79 PO1 85 4.995
79 PO1 86 4.995
79 PO1 87 6.460
79 PO1 88 8.901
79 PO1 89 10.854
79 PO1 90 12.807
79 PO1 91 13.784
79 PO1 92 14.760
79 PO1 93 15.737
79 PO1 94 16.225
79 PO1 95 16.713
79 PO1 96 16.713
79 PO1 97 16.713
79 PO1 98 16.713
79 PO1 99 16.225
79 PO1 100 15.249
79 PO1 101 13.295
79 PO1 102 10.854
79 PO1 103 7.436
79 PO1 104 4.506
79 PO1 105 3.042
79 PO1 106 2.065
79 PO1 107 1.577
79 PO1 108 0.112
79 PO1 109 -1.841
79 PO1 110 -4.283
79 PO1 111 -5.259
79 PO1 112 -4.771
79 PO1 113 -3.306
79 PO1 114 -1.841
79 PO1 115 -0.865
79 PO1 116 -1.353
79 PO1 117 -1.841
79 PO1 118 -3.306
79 PO1 119 -4.283
79 PO1 120 -4.771
79 PO1 121 -4.771
79 PO1 122 -4.283
79 PO1 123 -2.818
79 PO1 124 -1.353
79 PO1 125 0.112
79 PO1 126 1.088
79 PO1 127 1.088
79 PO1 128 1.088
79 PO1 129 1.577
79 PO1 130 2.065
79 PO1 131 2.553
79 PO1 132 2.553
79 PO1 133 2.553
79 PO1 134 1.577
