# co2c0000392.rd
# 120 trials, 64 chans, 416 samples 368 post_stim samples
# 3.906000 msecs uV
# S2 match , trial 9
# FP1 chan 0
9 FP1 0 -4.700
9 FP1 1 -7.629
9 FP1 2 -8.606
9 FP1 3 -8.118
9 FP1 4 -6.653
9 FP1 5 -6.653
9 FP1 6 -7.141
9 FP1 7 -9.094
9 FP1 8 -10.559
9 FP1 9 -10.071
9 FP1 10 -8.118
9 FP1 11 -5.188
9 FP1 12 -2.747
9 FP1 13 -1.282
9 FP1 14 -0.793
9 FP1 15 0.183
9 FP1 16 0.671
9 FP1 17 1.648
9 FP1 18 2.136
9 FP1 19 1.648
9 FP1 20 1.648
9 FP1 21 2.136
9 FP1 22 3.113
9 FP1 23 4.578
9 FP1 24 6.042
9 FP1 25 6.531
9 FP1 26 6.042
9 FP1 27 5.554
9 FP1 28 4.578
9 FP1 29 4.578
9 FP1 30 4.578
9 FP1 31 5.554
9 FP1 32 6.531
9 FP1 33 7.019
9 FP1 34 7.019
9 FP1 35 6.531
9 FP1 36 5.554
9 FP1 37 5.066
9 FP1 38 4.578
9 FP1 39 5.066
9 FP1 40 5.554
9 FP1 41 6.042
9 FP1 42 6.042
9 FP1 43 6.042
9 FP1 44 5.066
9 FP1 45 4.089
9 FP1 46 2.136
9 FP1 47 1.648
9 FP1 48 2.136
9 FP1 49 3.601
9 FP1 50 5.554
9 FP1 51 7.019
9 FP1 52 7.019
9 FP1 53 5.554
9 FP1 54 3.113
9 FP1 55 1.160
9 FP1 56 0.671
9 FP1 57 1.648
9 FP1 58 4.089
9 FP1 59 6.042
9 FP1 60 7.996
9 FP1 61 9.949
9 FP1 62 11.414
9 FP1 63 12.878
9 FP1 64 14.343
9 FP1 65 14.832
9 FP1 66 14.343
9 FP1 67 13.367
9 FP1 68 10.437
9 FP1 69 7.507
9 FP1 70 3.601
9 FP1 71 0.183
9 FP1 72 -1.282
9 FP1 73 -1.282
9 FP1 74 -0.305
9 FP1 75 0.671
9 FP1 76 1.160
9 FP1 77 0.183
9 FP1 78 -0.793
9 FP1 79 -2.258
9 FP1 80 -3.235
9 FP1 81 -4.700
9 FP1 82 -5.676
9 FP1 83 -7.629
9 FP1 84 -8.606
9 FP1 85 -9.583
9 FP1 86 -11.047
9 FP1 87 -13.489
9 FP1 88 -16.418
9 FP1 89 -18.372
9 FP1 90 -17.883
9 FP1 91 -15.442
9 FP1 92 -11.047
9 FP1 93 -7.141
9 FP1 94 -5.676
9 FP1 95 -6.653
9 FP1 96 -9.583
9 FP1 97 -12.024
9 FP1 98 -12.512
9 FP1 99 -11.047
9 FP1 100 -9.094
9 FP1 101 -6.653
9 FP1 102 -5.188
9 FP1 103 -4.211
9 FP1 104 -3.723
9 FP1 105 -4.700
9 FP1 106 -7.141
9 FP1 107 -10.559
9 FP1 108 -13.977
9 FP1 109 -16.418
9 FP1 110 -16.907
9 FP1 111 -15.930
9 FP1 112 -14.954
9 FP1 113 -14.954
9 FP1 114 -15.930
9 FP1 115 -17.883
9 FP1 116 -18.860
9 FP1 117 -18.860
9 FP1 118 -17.883
9 FP1 119 -17.395
9 FP1 120 -16.907
9 FP1 121 -16.907
9 FP1 122 -15.442
9 FP1 123 -13.000
9 FP1 124 -9.094
9 FP1 125 -5.676
9 FP1 126 -3.723
9 FP1 127 -3.723
9 FP1 128 -5.188
9 FP1 129 -6.653
9 FP1 130 -8.118
9 FP1 131 -9.094
9 FP1 132 -8.118
9 FP1 133 -6.653
9 FP1 134 -3.723
9 FP1 135 -1.770
9 FP1 136 -0.793
9 FP1 137 -1.770
9 FP1 138 -3.235
9 FP1 139 -4.211
9 FP1 140 -4.700
9 FP1 141 -3.235
9 FP1 142 -1.770
9 FP1 143 -1.282
9 FP1 144 -2.258
9 FP1 145 -4.211
9 FP1 146 -6.165
9 FP1 147 -7.629
9 FP1 148 -8.118
9 FP1 149 -9.094
9 FP1 150 -9.094
9 FP1 151 -10.071
9 FP1 152 -9.583
9 FP1 153 -8.606
9 FP1 154 -7.629
9 FP1 155 -7.141
9 FP1 156 -7.629
9 FP1 157 -9.094
9 FP1 158 -10.559
9 FP1 159 -12.024
9 FP1 160 -13.000
9 FP1 161 -12.512
9 FP1 162 -11.536
9 FP1 163 -11.047
9 FP1 164 -11.536
9 FP1 165 -13.000
9 FP1 166 -14.954
9 FP1 167 -15.930
9 FP1 168 -15.930
9 FP1 169 -13.977
9 FP1 170 -12.024
9 FP1 171 -10.559
9 FP1 172 -9.583
9 FP1 173 -8.118
9 FP1 174 -5.188
9 FP1 175 -0.793
9 FP1 176 4.578
9 FP1 177 9.949
9 FP1 178 14.343
9 FP1 179 17.273
9 FP1 180 19.226
9 FP1 181 21.179
9 FP1 182 23.621
9 FP1 183 26.062
9 FP1 184 28.503
9 FP1 185 30.457
9 FP1 186 31.433
9 FP1 187 32.410
9 FP1 188 34.851
9 FP1 189 38.269
9 FP1 190 42.175
9 FP1 191 45.593
9 FP1 192 47.546
9 FP1 193 49.011
9 FP1 194 50.964
9 FP1 195 54.382
9 FP1 196 58.289
9 FP1 197 60.730
9 FP1 198 62.195
9 FP1 199 63.171
9 FP1 200 64.636
9 FP1 201 67.566
9 FP1 202 72.449
9 FP1 203 76.355
9 FP1 204 78.308
9 FP1 205 78.308
9 FP1 206 77.820
9 FP1 207 77.820
9 FP1 208 80.261
9 FP1 209 83.191
9 FP1 210 85.632
9 FP1 211 87.097
9 FP1 212 87.097
9 FP1 213 87.585
9 FP1 214 88.562
9 FP1 215 89.539
9 FP1 216 90.515
9 FP1 217 90.515
9 FP1 218 90.027
9 FP1 219 90.515
9 FP1 220 92.957
9 FP1 221 96.375
9 FP1 222 99.304
9 FP1 223 100.281
9 FP1 224 98.328
9 FP1 225 94.910
9 FP1 226 92.468
9 FP1 227 91.003
9 FP1 228 90.515
9 FP1 229 88.562
9 FP1 230 84.656
9 FP1 231 79.773
9 FP1 232 74.890
9 FP1 233 71.960
9 FP1 234 70.984
9 FP1 235 71.960
9 FP1 236 73.914
9 FP1 237 75.378
9 FP1 238 75.867
9 FP1 239 75.378
9 FP1 240 74.402
9 FP1 241 72.937
9 FP1 242 70.984
9 FP1 243 69.031
9 FP1 244 66.589
9 FP1 245 64.636
9 FP1 246 62.683
9 FP1 247 61.218
9 FP1 248 60.242
9 FP1 249 59.753
9 FP1 250 58.777
9 FP1 251 57.312
9 FP1 252 56.335
9 FP1 253 56.335
9 FP1 254 58.289
9 FP1 255 62.195
# FP2 chan 1
9 FP2 0 -1.658
9 FP2 1 -3.123
9 FP2 2 -4.100
9 FP2 3 -4.100
9 FP2 4 -4.100
9 FP2 5 -4.100
9 FP2 6 -4.588
9 FP2 7 -5.076
9 FP2 8 -5.076
9 FP2 9 -4.588
9 FP2 10 -3.123
9 FP2 11 -1.170
9 FP2 12 0.783
9 FP2 13 2.736
9 FP2 14 4.690
9 FP2 15 6.643
9 FP2 16 8.596
9 FP2 17 9.084
9 FP2 18 8.596
9 FP2 19 7.619
9 FP2 20 6.154
9 FP2 21 6.154
9 FP2 22 6.643
9 FP2 23 8.108
9 FP2 24 9.572
9 FP2 25 10.549
9 FP2 26 11.037
9 FP2 27 10.549
9 FP2 28 9.084
9 FP2 29 8.596
9 FP2 30 7.619
9 FP2 31 8.108
9 FP2 32 8.596
9 FP2 33 9.572
9 FP2 34 10.061
9 FP2 35 9.084
9 FP2 36 8.596
9 FP2 37 7.619
9 FP2 38 6.643
9 FP2 39 7.131
9 FP2 40 7.131
9 FP2 41 7.131
9 FP2 42 6.643
9 FP2 43 6.643
9 FP2 44 5.666
9 FP2 45 4.690
9 FP2 46 3.713
9 FP2 47 3.713
9 FP2 48 4.201
9 FP2 49 5.666
9 FP2 50 8.108
9 FP2 51 9.572
9 FP2 52 9.084
9 FP2 53 7.619
9 FP2 54 4.690
9 FP2 55 3.225
9 FP2 56 2.736
9 FP2 57 3.713
9 FP2 58 5.666
9 FP2 59 7.131
9 FP2 60 8.596
9 FP2 61 9.572
9 FP2 62 11.037
9 FP2 63 12.990
9 FP2 64 13.967
9 FP2 65 14.943
9 FP2 66 14.455
9 FP2 67 12.502
9 FP2 68 10.061
9 FP2 69 6.154
9 FP2 70 2.248
9 FP2 71 -1.170
9 FP2 72 -2.635
9 FP2 73 -2.146
9 FP2 74 -0.682
9 FP2 75 0.295
9 FP2 76 0.783
9 FP2 77 0.295
9 FP2 78 -0.682
9 FP2 79 -2.146
9 FP2 80 -3.611
9 FP2 81 -4.588
9 FP2 82 -5.564
9 FP2 83 -6.053
9 FP2 84 -6.541
9 FP2 85 -7.029
9 FP2 86 -8.494
9 FP2 87 -10.935
9 FP2 88 -13.377
9 FP2 89 -15.330
9 FP2 90 -15.330
9 FP2 91 -12.889
9 FP2 92 -9.471
9 FP2 93 -6.541
9 FP2 94 -5.564
9 FP2 95 -6.053
9 FP2 96 -8.006
9 FP2 97 -8.982
9 FP2 98 -8.982
9 FP2 99 -8.006
9 FP2 100 -7.029
9 FP2 101 -5.564
9 FP2 102 -4.100
9 FP2 103 -2.635
9 FP2 104 -1.170
9 FP2 105 -1.170
9 FP2 106 -2.635
9 FP2 107 -6.053
9 FP2 108 -9.959
9 FP2 109 -13.377
9 FP2 110 -14.353
9 FP2 111 -13.865
9 FP2 112 -13.377
9 FP2 113 -13.377
9 FP2 114 -14.842
9 FP2 115 -16.307
9 FP2 116 -17.283
9 FP2 117 -16.307
9 FP2 118 -14.842
9 FP2 119 -13.865
9 FP2 120 -13.865
9 FP2 121 -14.353
9 FP2 122 -13.865
9 FP2 123 -11.912
9 FP2 124 -8.494
9 FP2 125 -5.076
9 FP2 126 -2.635
9 FP2 127 -1.658
9 FP2 128 -2.635
9 FP2 129 -3.611
9 FP2 130 -5.076
9 FP2 131 -6.053
9 FP2 132 -6.541
9 FP2 133 -6.053
9 FP2 134 -5.076
9 FP2 135 -3.611
9 FP2 136 -3.123
9 FP2 137 -2.635
9 FP2 138 -2.635
9 FP2 139 -2.146
9 FP2 140 -0.682
9 FP2 141 0.783
9 FP2 142 0.783
9 FP2 143 -1.170
9 FP2 144 -4.100
9 FP2 145 -7.517
9 FP2 146 -8.982
9 FP2 147 -9.471
9 FP2 148 -8.494
9 FP2 149 -7.517
9 FP2 150 -7.517
9 FP2 151 -8.494
9 FP2 152 -9.471
9 FP2 153 -9.959
9 FP2 154 -9.471
9 FP2 155 -8.982
9 FP2 156 -8.982
9 FP2 157 -9.471
9 FP2 158 -10.935
9 FP2 159 -11.912
9 FP2 160 -12.889
9 FP2 161 -12.400
9 FP2 162 -11.424
9 FP2 163 -10.447
9 FP2 164 -11.424
9 FP2 165 -13.865
9 FP2 166 -16.307
9 FP2 167 -17.771
9 FP2 168 -16.795
9 FP2 169 -14.353
9 FP2 170 -12.400
9 FP2 171 -11.912
9 FP2 172 -11.424
9 FP2 173 -10.935
9 FP2 174 -8.494
9 FP2 175 -3.611
9 FP2 176 2.248
9 FP2 177 7.131
9 FP2 178 10.549
9 FP2 179 12.990
9 FP2 180 14.455
9 FP2 181 15.920
9 FP2 182 18.361
9 FP2 183 21.291
9 FP2 184 24.221
9 FP2 185 27.150
9 FP2 186 30.080
9 FP2 187 32.522
9 FP2 188 35.451
9 FP2 189 38.381
9 FP2 190 41.311
9 FP2 191 44.240
9 FP2 192 46.193
9 FP2 193 49.123
9 FP2 194 53.029
9 FP2 195 58.400
9 FP2 196 63.283
9 FP2 197 67.190
9 FP2 198 69.631
9 FP2 199 71.584
9 FP2 200 74.025
9 FP2 201 78.420
9 FP2 202 83.791
9 FP2 203 88.674
9 FP2 204 91.115
9 FP2 205 91.604
9 FP2 206 92.092
9 FP2 207 93.068
9 FP2 208 95.510
9 FP2 209 98.928
9 FP2 210 101.858
9 FP2 211 103.322
9 FP2 212 104.787
9 FP2 213 105.764
9 FP2 214 107.717
9 FP2 215 109.182
9 FP2 216 110.647
9 FP2 217 110.647
9 FP2 218 110.158
9 FP2 219 110.647
9 FP2 220 113.088
9 FP2 221 116.994
9 FP2 222 120.412
9 FP2 223 121.877
9 FP2 224 120.900
9 FP2 225 118.459
9 FP2 226 116.018
9 FP2 227 114.553
9 FP2 228 114.065
9 FP2 229 112.600
9 FP2 230 109.670
9 FP2 231 104.299
9 FP2 232 98.928
9 FP2 233 94.533
9 FP2 234 92.580
9 FP2 235 91.604
9 FP2 236 92.092
9 FP2 237 92.580
9 FP2 238 92.580
9 FP2 239 92.092
9 FP2 240 91.115
9 FP2 241 89.650
9 FP2 242 87.209
9 FP2 243 84.768
9 FP2 244 82.326
9 FP2 245 79.397
9 FP2 246 76.467
9 FP2 247 74.025
9 FP2 248 71.584
9 FP2 249 70.119
9 FP2 250 68.654
9 FP2 251 68.166
9 FP2 252 67.678
9 FP2 253 68.654
9 FP2 254 71.096
9 FP2 255 75.490
# F7 chan 2
9 F7 0 -8.626
9 F7 1 -10.579
9 F7 2 -10.091
9 F7 3 -7.650
9 F7 4 -5.697
9 F7 5 -6.185
9 F7 6 -9.115
9 F7 7 -11.556
9 F7 8 -12.044
9 F7 9 -10.091
9 F7 10 -7.161
9 F7 11 -5.208
9 F7 12 -4.232
9 F7 13 -3.255
9 F7 14 -2.279
9 F7 15 -1.302
9 F7 16 -1.302
9 F7 17 -2.767
9 F7 18 -5.208
9 F7 19 -6.673
9 F7 20 -5.697
9 F7 21 -1.790
9 F7 22 2.604
9 F7 23 5.534
9 F7 24 5.534
9 F7 25 3.092
9 F7 26 0.651
9 F7 27 -0.814
9 F7 28 -0.326
9 F7 29 1.139
9 F7 30 3.092
9 F7 31 4.557
9 F7 32 5.046
9 F7 33 5.046
9 F7 34 5.046
9 F7 35 4.557
9 F7 36 3.581
9 F7 37 2.604
9 F7 38 2.116
9 F7 39 2.604
9 F7 40 3.581
9 F7 41 4.557
9 F7 42 4.557
9 F7 43 3.092
9 F7 44 1.139
9 F7 45 -0.814
9 F7 46 -2.767
9 F7 47 -3.255
9 F7 48 -3.255
9 F7 49 -2.279
9 F7 50 -0.814
9 F7 51 0.163
9 F7 52 0.651
9 F7 53 0.163
9 F7 54 -0.814
9 F7 55 -1.790
9 F7 56 -1.302
9 F7 57 0.163
9 F7 58 2.116
9 F7 59 3.581
9 F7 60 4.557
9 F7 61 4.557
9 F7 62 5.046
9 F7 63 6.022
9 F7 64 8.464
9 F7 65 11.393
9 F7 66 12.858
9 F7 67 12.370
9 F7 68 8.464
9 F7 69 3.092
9 F7 70 -1.302
9 F7 71 -4.232
9 F7 72 -4.720
9 F7 73 -4.232
9 F7 74 -4.232
9 F7 75 -6.185
9 F7 76 -7.650
9 F7 77 -8.138
9 F7 78 -6.673
9 F7 79 -5.208
9 F7 80 -4.720
9 F7 81 -6.673
9 F7 82 -10.579
9 F7 83 -13.997
9 F7 84 -14.974
9 F7 85 -14.974
9 F7 86 -14.974
9 F7 87 -16.927
9 F7 88 -20.345
9 F7 89 -22.786
9 F7 90 -21.810
9 F7 91 -17.415
9 F7 92 -11.556
9 F7 93 -7.650
9 F7 94 -6.673
9 F7 95 -8.626
9 F7 96 -11.556
9 F7 97 -13.021
9 F7 98 -13.509
9 F7 99 -12.044
9 F7 100 -9.115
9 F7 101 -5.697
9 F7 102 -1.790
9 F7 103 0.163
9 F7 104 -0.326
9 F7 105 -3.255
9 F7 106 -7.650
9 F7 107 -10.579
9 F7 108 -11.556
9 F7 109 -10.579
9 F7 110 -9.115
9 F7 111 -8.138
9 F7 112 -8.626
9 F7 113 -9.115
9 F7 114 -9.603
9 F7 115 -10.579
9 F7 116 -11.556
9 F7 117 -12.533
9 F7 118 -13.509
9 F7 119 -13.997
9 F7 120 -13.021
9 F7 121 -11.068
9 F7 122 -7.650
9 F7 123 -3.743
9 F7 124 -0.814
9 F7 125 0.651
9 F7 126 -0.326
9 F7 127 -2.279
9 F7 128 -4.720
9 F7 129 -5.208
9 F7 130 -4.720
9 F7 131 -4.232
9 F7 132 -4.232
9 F7 133 -3.743
9 F7 134 -2.767
9 F7 135 -1.302
9 F7 136 0.163
9 F7 137 -0.326
9 F7 138 -3.255
9 F7 139 -6.673
9 F7 140 -7.650
9 F7 141 -6.185
9 F7 142 -2.279
9 F7 143 1.139
9 F7 144 2.116
9 F7 145 0.651
9 F7 146 -2.279
9 F7 147 -4.720
9 F7 148 -7.161
9 F7 149 -9.115
9 F7 150 -11.068
9 F7 151 -12.044
9 F7 152 -10.579
9 F7 153 -7.161
9 F7 154 -4.232
9 F7 155 -2.767
9 F7 156 -4.232
9 F7 157 -7.161
9 F7 158 -10.091
9 F7 159 -11.068
9 F7 160 -11.068
9 F7 161 -11.068
9 F7 162 -11.556
9 F7 163 -12.044
9 F7 164 -12.533
9 F7 165 -11.556
9 F7 166 -11.556
9 F7 167 -13.021
9 F7 168 -14.974
9 F7 169 -16.439
9 F7 170 -16.439
9 F7 171 -13.997
9 F7 172 -10.091
9 F7 173 -7.650
9 F7 174 -6.673
9 F7 175 -5.697
9 F7 176 -4.720
9 F7 177 -1.302
9 F7 178 3.092
9 F7 179 6.999
9 F7 180 8.464
9 F7 181 9.440
9 F7 182 10.417
9 F7 183 12.370
9 F7 184 13.346
9 F7 185 12.858
9 F7 186 9.928
9 F7 187 6.999
9 F7 188 6.510
9 F7 189 9.928
9 F7 190 15.299
9 F7 191 19.206
9 F7 192 18.717
9 F7 193 16.276
9 F7 194 14.811
9 F7 195 15.299
9 F7 196 18.717
9 F7 197 21.647
9 F7 198 22.624
9 F7 199 21.647
9 F7 200 19.694
9 F7 201 19.694
9 F7 202 20.182
9 F7 203 21.159
9 F7 204 20.182
9 F7 205 18.229
9 F7 206 16.276
9 F7 207 15.788
9 F7 208 16.764
9 F7 209 17.741
9 F7 210 17.741
9 F7 211 16.764
9 F7 212 16.276
9 F7 213 15.299
9 F7 214 14.811
9 F7 215 14.323
9 F7 216 12.858
9 F7 217 11.393
9 F7 218 11.393
9 F7 219 12.858
9 F7 220 14.323
9 F7 221 14.811
9 F7 222 12.858
9 F7 223 9.440
9 F7 224 6.022
9 F7 225 3.581
9 F7 226 3.581
9 F7 227 4.557
9 F7 228 4.069
9 F7 229 2.116
9 F7 230 -1.790
9 F7 231 -6.185
9 F7 232 -9.115
9 F7 233 -10.091
9 F7 234 -8.626
9 F7 235 -6.673
9 F7 236 -2.767
9 F7 237 1.139
9 F7 238 4.557
9 F7 239 6.510
9 F7 240 6.022
9 F7 241 3.092
9 F7 242 -0.326
9 F7 243 -2.767
9 F7 244 -2.767
9 F7 245 -1.790
9 F7 246 0.163
9 F7 247 1.139
9 F7 248 0.651
9 F7 249 -0.814
9 F7 250 -3.255
9 F7 251 -5.208
9 F7 252 -6.185
9 F7 253 -5.208
9 F7 254 -2.279
9 F7 255 1.628
# F8 chan 3
9 F8 0 -3.662
9 F8 1 -2.686
9 F8 2 -0.732
9 F8 3 0.244
9 F8 4 -0.244
9 F8 5 -2.197
9 F8 6 -4.150
9 F8 7 -4.639
9 F8 8 -3.174
9 F8 9 -0.244
9 F8 10 1.709
9 F8 11 2.686
9 F8 12 3.174
9 F8 13 3.174
9 F8 14 4.639
9 F8 15 7.080
9 F8 16 9.033
9 F8 17 9.521
9 F8 18 8.545
9 F8 19 7.568
9 F8 20 6.592
9 F8 21 6.592
9 F8 22 7.568
9 F8 23 8.545
9 F8 24 9.521
9 F8 25 10.010
9 F8 26 10.498
9 F8 27 10.986
9 F8 28 10.986
9 F8 29 10.986
9 F8 30 11.475
9 F8 31 11.475
9 F8 32 11.475
9 F8 33 11.963
9 F8 34 11.475
9 F8 35 11.963
9 F8 36 11.963
9 F8 37 11.475
9 F8 38 10.986
9 F8 39 9.033
9 F8 40 6.592
9 F8 41 4.150
9 F8 42 2.197
9 F8 43 0.732
9 F8 44 0.732
9 F8 45 0.732
9 F8 46 0.244
9 F8 47 -0.244
9 F8 48 -1.221
9 F8 49 -0.732
9 F8 50 0.732
9 F8 51 3.174
9 F8 52 5.127
9 F8 53 6.104
9 F8 54 6.104
9 F8 55 6.104
9 F8 56 6.592
9 F8 57 8.545
9 F8 58 10.498
9 F8 59 11.475
9 F8 60 10.986
9 F8 61 9.521
9 F8 62 8.057
9 F8 63 7.568
9 F8 64 9.033
9 F8 65 10.010
9 F8 66 10.498
9 F8 67 8.545
9 F8 68 5.127
9 F8 69 0.244
9 F8 70 -4.639
9 F8 71 -8.545
9 F8 72 -10.498
9 F8 73 -10.498
9 F8 74 -8.545
9 F8 75 -6.104
9 F8 76 -4.639
9 F8 77 -5.615
9 F8 78 -8.057
9 F8 79 -10.986
9 F8 80 -11.475
9 F8 81 -10.010
9 F8 82 -7.568
9 F8 83 -6.104
9 F8 84 -7.080
9 F8 85 -10.010
9 F8 86 -14.404
9 F8 87 -17.334
9 F8 88 -18.311
9 F8 89 -16.846
9 F8 90 -13.916
9 F8 91 -10.986
9 F8 92 -10.010
9 F8 93 -10.010
9 F8 94 -10.498
9 F8 95 -10.498
9 F8 96 -10.498
9 F8 97 -9.521
9 F8 98 -8.545
9 F8 99 -7.568
9 F8 100 -6.592
9 F8 101 -5.615
9 F8 102 -3.662
9 F8 103 -1.221
9 F8 104 1.709
9 F8 105 4.639
9 F8 106 6.104
9 F8 107 5.615
9 F8 108 2.686
9 F8 109 -1.709
9 F8 110 -5.127
9 F8 111 -6.592
9 F8 112 -6.104
9 F8 113 -4.639
9 F8 114 -2.686
9 F8 115 -2.197
9 F8 116 -2.686
9 F8 117 -3.174
9 F8 118 -3.662
9 F8 119 -3.174
9 F8 120 -2.686
9 F8 121 -2.686
9 F8 122 -2.197
9 F8 123 -1.221
9 F8 124 1.221
9 F8 125 4.639
9 F8 126 8.057
9 F8 127 10.498
9 F8 128 10.986
9 F8 129 9.033
9 F8 130 6.104
9 F8 131 2.197
9 F8 132 0.244
9 F8 133 -0.244
9 F8 134 -0.244
9 F8 135 -0.244
9 F8 136 -1.221
9 F8 137 -1.709
9 F8 138 -1.709
9 F8 139 0.732
9 F8 140 4.639
9 F8 141 8.057
9 F8 142 8.545
9 F8 143 6.592
9 F8 144 3.174
9 F8 145 -0.244
9 F8 146 -2.197
9 F8 147 -2.197
9 F8 148 -1.221
9 F8 149 -0.244
9 F8 150 0.244
9 F8 151 1.221
9 F8 152 1.221
9 F8 153 0.732
9 F8 154 -0.732
9 F8 155 -2.686
9 F8 156 -3.174
9 F8 157 -3.174
9 F8 158 -2.686
9 F8 159 -1.709
9 F8 160 -1.221
9 F8 161 -0.244
9 F8 162 0.244
9 F8 163 0.244
9 F8 164 -1.221
9 F8 165 -3.662
9 F8 166 -6.592
9 F8 167 -8.057
9 F8 168 -7.080
9 F8 169 -5.127
9 F8 170 -4.150
9 F8 171 -5.127
9 F8 172 -6.104
9 F8 173 -5.127
9 F8 174 -2.197
9 F8 175 1.709
9 F8 176 4.150
9 F8 177 4.639
9 F8 178 3.662
9 F8 179 3.174
9 F8 180 4.639
9 F8 181 7.568
9 F8 182 10.498
9 F8 183 12.451
9 F8 184 13.916
9 F8 185 15.869
9 F8 186 18.799
9 F8 187 21.729
9 F8 188 24.170
9 F8 189 25.635
9 F8 190 26.123
9 F8 191 26.611
9 F8 192 29.053
9 F8 193 32.959
9 F8 194 38.330
9 F8 195 45.166
9 F8 196 50.537
9 F8 197 52.979
9 F8 198 53.955
9 F8 199 53.955
9 F8 200 55.908
9 F8 201 60.303
9 F8 202 66.650
9 F8 203 72.510
9 F8 204 74.951
9 F8 205 74.951
9 F8 206 74.463
9 F8 207 74.951
9 F8 208 77.881
9 F8 209 81.787
9 F8 210 86.182
9 F8 211 90.088
9 F8 212 92.529
9 F8 213 93.994
9 F8 214 95.947
9 F8 215 96.924
9 F8 216 97.900
9 F8 217 97.900
9 F8 218 97.900
9 F8 219 98.877
9 F8 220 102.295
9 F8 221 106.689
9 F8 222 110.596
9 F8 223 111.084
9 F8 224 109.131
9 F8 225 105.713
9 F8 226 104.248
9 F8 227 104.736
9 F8 228 106.689
9 F8 229 106.689
9 F8 230 103.271
9 F8 231 97.900
9 F8 232 92.041
9 F8 233 88.623
9 F8 234 86.670
9 F8 235 86.182
9 F8 236 85.205
9 F8 237 84.229
9 F8 238 83.252
9 F8 239 82.275
9 F8 240 80.322
9 F8 241 77.393
9 F8 242 73.975
9 F8 243 72.021
9 F8 244 71.045
9 F8 245 70.557
9 F8 246 69.092
9 F8 247 66.162
9 F8 248 62.256
9 F8 249 59.814
9 F8 250 59.326
9 F8 251 59.326
9 F8 252 59.814
9 F8 253 60.791
9 F8 254 63.232
9 F8 255 67.627
# AF1 chan 4
9 AF1 0 -2.360
9 AF1 1 -3.337
9 AF1 2 -3.337
9 AF1 3 -2.360
9 AF1 4 -0.895
9 AF1 5 -0.407
9 AF1 6 -1.383
9 AF1 7 -3.337
9 AF1 8 -4.313
9 AF1 9 -4.313
9 AF1 10 -3.337
9 AF1 11 -0.895
9 AF1 12 1.058
9 AF1 13 2.523
9 AF1 14 3.011
9 AF1 15 3.011
9 AF1 16 3.499
9 AF1 17 3.499
9 AF1 18 3.988
9 AF1 19 3.988
9 AF1 20 3.988
9 AF1 21 3.499
9 AF1 22 3.499
9 AF1 23 3.988
9 AF1 24 4.476
9 AF1 25 4.964
9 AF1 26 5.452
9 AF1 27 4.964
9 AF1 28 4.964
9 AF1 29 3.988
9 AF1 30 3.988
9 AF1 31 3.988
9 AF1 32 4.476
9 AF1 33 4.964
9 AF1 34 4.476
9 AF1 35 3.988
9 AF1 36 3.499
9 AF1 37 3.011
9 AF1 38 3.011
9 AF1 39 3.011
9 AF1 40 3.988
9 AF1 41 4.476
9 AF1 42 4.964
9 AF1 43 4.964
9 AF1 44 4.476
9 AF1 45 3.988
9 AF1 46 3.011
9 AF1 47 3.011
9 AF1 48 3.499
9 AF1 49 4.476
9 AF1 50 5.941
9 AF1 51 5.941
9 AF1 52 5.452
9 AF1 53 3.499
9 AF1 54 1.058
9 AF1 55 -0.895
9 AF1 56 -0.895
9 AF1 57 0.081
9 AF1 58 2.523
9 AF1 59 4.476
9 AF1 60 6.429
9 AF1 61 7.894
9 AF1 62 8.870
9 AF1 63 10.335
9 AF1 64 10.824
9 AF1 65 10.824
9 AF1 66 10.335
9 AF1 67 8.870
9 AF1 68 6.917
9 AF1 69 4.476
9 AF1 70 2.035
9 AF1 71 -0.407
9 AF1 72 -1.383
9 AF1 73 -1.872
9 AF1 74 -0.895
9 AF1 75 -0.407
9 AF1 76 0.081
9 AF1 77 -0.407
9 AF1 78 -1.872
9 AF1 79 -3.337
9 AF1 80 -4.801
9 AF1 81 -6.266
9 AF1 82 -7.243
9 AF1 83 -8.219
9 AF1 84 -8.708
9 AF1 85 -9.684
9 AF1 86 -11.149
9 AF1 87 -12.614
9 AF1 88 -14.567
9 AF1 89 -15.544
9 AF1 90 -15.055
9 AF1 91 -12.614
9 AF1 92 -9.196
9 AF1 93 -6.266
9 AF1 94 -5.290
9 AF1 95 -6.266
9 AF1 96 -7.731
9 AF1 97 -9.196
9 AF1 98 -9.684
9 AF1 99 -8.708
9 AF1 100 -7.243
9 AF1 101 -5.290
9 AF1 102 -3.825
9 AF1 103 -3.337
9 AF1 104 -3.337
9 AF1 105 -4.313
9 AF1 106 -6.266
9 AF1 107 -9.684
9 AF1 108 -12.614
9 AF1 109 -14.079
9 AF1 110 -14.567
9 AF1 111 -14.079
9 AF1 112 -14.079
9 AF1 113 -14.079
9 AF1 114 -15.544
9 AF1 115 -17.008
9 AF1 116 -18.473
9 AF1 117 -18.473
9 AF1 118 -17.985
9 AF1 119 -17.497
9 AF1 120 -17.497
9 AF1 121 -17.008
9 AF1 122 -15.544
9 AF1 123 -13.590
9 AF1 124 -10.661
9 AF1 125 -8.708
9 AF1 126 -8.219
9 AF1 127 -8.708
9 AF1 128 -10.661
9 AF1 129 -12.126
9 AF1 130 -13.102
9 AF1 131 -13.590
9 AF1 132 -11.637
9 AF1 133 -9.684
9 AF1 134 -6.755
9 AF1 135 -4.801
9 AF1 136 -4.313
9 AF1 137 -4.801
9 AF1 138 -6.266
9 AF1 139 -7.243
9 AF1 140 -7.243
9 AF1 141 -6.755
9 AF1 142 -5.778
9 AF1 143 -5.778
9 AF1 144 -6.755
9 AF1 145 -8.219
9 AF1 146 -9.196
9 AF1 147 -10.173
9 AF1 148 -11.149
9 AF1 149 -11.637
9 AF1 150 -12.126
9 AF1 151 -12.614
9 AF1 152 -12.614
9 AF1 153 -11.637
9 AF1 154 -11.149
9 AF1 155 -10.661
9 AF1 156 -11.149
9 AF1 157 -12.126
9 AF1 158 -13.102
9 AF1 159 -14.079
9 AF1 160 -14.079
9 AF1 161 -13.590
9 AF1 162 -12.614
9 AF1 163 -12.126
9 AF1 164 -12.614
9 AF1 165 -13.590
9 AF1 166 -14.567
9 AF1 167 -15.544
9 AF1 168 -15.544
9 AF1 169 -14.567
9 AF1 170 -13.590
9 AF1 171 -12.614
9 AF1 172 -11.637
9 AF1 173 -10.173
9 AF1 174 -7.731
9 AF1 175 -4.801
9 AF1 176 -1.872
9 AF1 177 1.546
9 AF1 178 3.988
9 AF1 179 5.452
9 AF1 180 6.429
9 AF1 181 7.406
9 AF1 182 8.382
9 AF1 183 9.359
9 AF1 184 10.824
9 AF1 185 12.288
9 AF1 186 12.777
9 AF1 187 13.265
9 AF1 188 14.242
9 AF1 189 15.706
9 AF1 190 18.148
9 AF1 191 20.101
9 AF1 192 21.077
9 AF1 193 21.566
9 AF1 194 22.054
9 AF1 195 23.519
9 AF1 196 24.984
9 AF1 197 26.449
9 AF1 198 26.937
9 AF1 199 27.425
9 AF1 200 27.913
9 AF1 201 29.867
9 AF1 202 33.285
9 AF1 203 36.702
9 AF1 204 38.167
9 AF1 205 38.167
9 AF1 206 37.191
9 AF1 207 36.214
9 AF1 208 36.702
9 AF1 209 38.656
9 AF1 210 40.609
9 AF1 211 42.074
9 AF1 212 42.074
9 AF1 213 42.074
9 AF1 214 42.074
9 AF1 215 42.074
9 AF1 216 42.074
9 AF1 217 42.074
9 AF1 218 42.074
9 AF1 219 42.074
9 AF1 220 43.538
9 AF1 221 45.980
9 AF1 222 47.933
9 AF1 223 48.421
9 AF1 224 46.956
9 AF1 225 44.515
9 AF1 226 42.074
9 AF1 227 41.097
9 AF1 228 40.609
9 AF1 229 40.120
9 AF1 230 37.679
9 AF1 231 34.749
9 AF1 232 31.331
9 AF1 233 29.378
9 AF1 234 28.890
9 AF1 235 29.378
9 AF1 236 30.843
9 AF1 237 32.308
9 AF1 238 33.285
9 AF1 239 33.773
9 AF1 240 33.773
9 AF1 241 33.285
9 AF1 242 32.796
9 AF1 243 31.820
9 AF1 244 30.843
9 AF1 245 30.355
9 AF1 246 29.378
9 AF1 247 28.890
9 AF1 248 27.913
9 AF1 249 27.425
9 AF1 250 26.449
9 AF1 251 25.960
9 AF1 252 24.984
9 AF1 253 24.495
9 AF1 254 25.472
9 AF1 255 26.937
# AF2 chan 5
9 AF2 0 -1.740
9 AF2 1 -2.228
9 AF2 2 -2.228
9 AF2 3 -1.251
9 AF2 4 -0.275
9 AF2 5 0.214
9 AF2 6 -0.275
9 AF2 7 -1.251
9 AF2 8 -1.740
9 AF2 9 -1.251
9 AF2 10 0.214
9 AF2 11 2.167
9 AF2 12 4.120
9 AF2 13 5.096
9 AF2 14 6.073
9 AF2 15 7.050
9 AF2 16 7.538
9 AF2 17 8.026
9 AF2 18 8.026
9 AF2 19 7.050
9 AF2 20 6.073
9 AF2 21 5.585
9 AF2 22 6.073
9 AF2 23 6.561
9 AF2 24 7.538
9 AF2 25 8.026
9 AF2 26 8.026
9 AF2 27 7.538
9 AF2 28 7.050
9 AF2 29 5.585
9 AF2 30 5.096
9 AF2 31 5.096
9 AF2 32 5.096
9 AF2 33 5.585
9 AF2 34 5.585
9 AF2 35 5.585
9 AF2 36 5.096
9 AF2 37 4.608
9 AF2 38 4.608
9 AF2 39 4.608
9 AF2 40 5.096
9 AF2 41 5.096
9 AF2 42 5.096
9 AF2 43 5.096
9 AF2 44 4.608
9 AF2 45 4.608
9 AF2 46 4.120
9 AF2 47 4.608
9 AF2 48 5.585
9 AF2 49 7.050
9 AF2 50 8.514
9 AF2 51 9.003
9 AF2 52 8.026
9 AF2 53 6.073
9 AF2 54 3.632
9 AF2 55 2.167
9 AF2 56 2.167
9 AF2 57 3.632
9 AF2 58 5.585
9 AF2 59 7.538
9 AF2 60 9.003
9 AF2 61 9.979
9 AF2 62 10.956
9 AF2 63 11.444
9 AF2 64 11.932
9 AF2 65 11.444
9 AF2 66 9.979
9 AF2 67 8.026
9 AF2 68 5.096
9 AF2 69 3.143
9 AF2 70 0.702
9 AF2 71 -0.763
9 AF2 72 -1.251
9 AF2 73 -0.763
9 AF2 74 0.214
9 AF2 75 0.702
9 AF2 76 1.190
9 AF2 77 0.702
9 AF2 78 -0.275
9 AF2 79 -1.740
9 AF2 80 -3.204
9 AF2 81 -4.181
9 AF2 82 -4.669
9 AF2 83 -5.157
9 AF2 84 -5.646
9 AF2 85 -6.622
9 AF2 86 -8.087
9 AF2 87 -10.040
9 AF2 88 -11.505
9 AF2 89 -12.482
9 AF2 90 -11.505
9 AF2 91 -9.552
9 AF2 92 -7.111
9 AF2 93 -5.157
9 AF2 94 -4.181
9 AF2 95 -4.669
9 AF2 96 -5.646
9 AF2 97 -6.622
9 AF2 98 -6.134
9 AF2 99 -5.646
9 AF2 100 -4.669
9 AF2 101 -3.693
9 AF2 102 -2.228
9 AF2 103 -0.763
9 AF2 104 0.214
9 AF2 105 -0.275
9 AF2 106 -1.740
9 AF2 107 -4.669
9 AF2 108 -8.087
9 AF2 109 -10.529
9 AF2 110 -11.505
9 AF2 111 -11.993
9 AF2 112 -11.505
9 AF2 113 -11.993
9 AF2 114 -12.970
9 AF2 115 -13.947
9 AF2 116 -14.923
9 AF2 117 -14.923
9 AF2 118 -14.435
9 AF2 119 -13.458
9 AF2 120 -13.458
9 AF2 121 -13.458
9 AF2 122 -12.482
9 AF2 123 -11.017
9 AF2 124 -8.575
9 AF2 125 -5.646
9 AF2 126 -3.693
9 AF2 127 -3.693
9 AF2 128 -4.669
9 AF2 129 -6.622
9 AF2 130 -8.087
9 AF2 131 -8.575
9 AF2 132 -8.087
9 AF2 133 -6.134
9 AF2 134 -4.669
9 AF2 135 -3.204
9 AF2 136 -3.204
9 AF2 137 -3.693
9 AF2 138 -4.181
9 AF2 139 -4.181
9 AF2 140 -3.204
9 AF2 141 -2.228
9 AF2 142 -1.740
9 AF2 143 -2.716
9 AF2 144 -4.181
9 AF2 145 -6.134
9 AF2 146 -7.599
9 AF2 147 -8.087
9 AF2 148 -7.599
9 AF2 149 -7.599
9 AF2 150 -8.575
9 AF2 151 -9.064
9 AF2 152 -10.040
9 AF2 153 -10.040
9 AF2 154 -9.552
9 AF2 155 -9.064
9 AF2 156 -9.064
9 AF2 157 -9.064
9 AF2 158 -10.040
9 AF2 159 -11.017
9 AF2 160 -11.505
9 AF2 161 -11.505
9 AF2 162 -11.017
9 AF2 163 -10.529
9 AF2 164 -11.017
9 AF2 165 -11.993
9 AF2 166 -13.458
9 AF2 167 -14.435
9 AF2 168 -14.435
9 AF2 169 -13.947
9 AF2 170 -12.970
9 AF2 171 -11.993
9 AF2 172 -11.505
9 AF2 173 -11.017
9 AF2 174 -9.064
9 AF2 175 -6.622
9 AF2 176 -3.204
9 AF2 177 0.214
9 AF2 178 2.655
9 AF2 179 4.120
9 AF2 180 4.608
9 AF2 181 5.096
9 AF2 182 5.585
9 AF2 183 6.561
9 AF2 184 8.026
9 AF2 185 9.491
9 AF2 186 10.956
9 AF2 187 12.421
9 AF2 188 13.397
9 AF2 189 14.374
9 AF2 190 15.839
9 AF2 191 16.815
9 AF2 192 18.768
9 AF2 193 20.233
9 AF2 194 22.675
9 AF2 195 25.116
9 AF2 196 28.046
9 AF2 197 29.999
9 AF2 198 30.975
9 AF2 199 31.464
9 AF2 200 32.928
9 AF2 201 35.370
9 AF2 202 38.300
9 AF2 203 41.718
9 AF2 204 43.671
9 AF2 205 44.159
9 AF2 206 43.182
9 AF2 207 42.694
9 AF2 208 43.182
9 AF2 209 44.647
9 AF2 210 46.600
9 AF2 211 48.065
9 AF2 212 49.042
9 AF2 213 49.530
9 AF2 214 49.530
9 AF2 215 50.018
9 AF2 216 50.018
9 AF2 217 50.018
9 AF2 218 49.530
9 AF2 219 50.507
9 AF2 220 51.483
9 AF2 221 53.925
9 AF2 222 56.366
9 AF2 223 57.343
9 AF2 224 56.366
9 AF2 225 54.413
9 AF2 226 52.460
9 AF2 227 50.995
9 AF2 228 50.995
9 AF2 229 50.507
9 AF2 230 48.553
9 AF2 231 46.112
9 AF2 232 42.694
9 AF2 233 40.253
9 AF2 234 38.788
9 AF2 235 38.788
9 AF2 236 39.276
9 AF2 237 40.253
9 AF2 238 41.229
9 AF2 239 42.206
9 AF2 240 42.206
9 AF2 241 41.718
9 AF2 242 40.741
9 AF2 243 39.276
9 AF2 244 38.300
9 AF2 245 37.323
9 AF2 246 35.858
9 AF2 247 34.393
9 AF2 248 32.440
9 AF2 249 30.975
9 AF2 250 29.999
9 AF2 251 29.022
9 AF2 252 28.534
9 AF2 253 29.022
9 AF2 254 29.999
9 AF2 255 32.440
# FZ chan 6
9 FZ 0 -0.732
9 FZ 1 -0.732
9 FZ 2 -0.244
9 FZ 3 0.732
9 FZ 4 2.197
9 FZ 5 2.686
9 FZ 6 1.709
9 FZ 7 0.732
9 FZ 8 -0.244
9 FZ 9 -0.244
9 FZ 10 0.732
9 FZ 11 2.197
9 FZ 12 3.662
9 FZ 13 4.639
9 FZ 14 5.127
9 FZ 15 5.127
9 FZ 16 5.127
9 FZ 17 5.615
9 FZ 18 5.127
9 FZ 19 5.127
9 FZ 20 4.639
9 FZ 21 4.150
9 FZ 22 4.150
9 FZ 23 4.639
9 FZ 24 5.127
9 FZ 25 5.615
9 FZ 26 6.104
9 FZ 27 5.615
9 FZ 28 4.639
9 FZ 29 3.662
9 FZ 30 3.174
9 FZ 31 3.174
9 FZ 32 3.174
9 FZ 33 3.662
9 FZ 34 3.174
9 FZ 35 3.174
9 FZ 36 2.686
9 FZ 37 2.197
9 FZ 38 2.197
9 FZ 39 2.686
9 FZ 40 3.174
9 FZ 41 3.662
9 FZ 42 4.150
9 FZ 43 4.150
9 FZ 44 3.662
9 FZ 45 3.662
9 FZ 46 3.174
9 FZ 47 3.662
9 FZ 48 4.150
9 FZ 49 5.615
9 FZ 50 6.592
9 FZ 51 6.104
9 FZ 52 5.127
9 FZ 53 2.686
9 FZ 54 0.732
9 FZ 55 -0.732
9 FZ 56 -0.732
9 FZ 57 0.732
9 FZ 58 2.686
9 FZ 59 4.639
9 FZ 60 5.615
9 FZ 61 6.592
9 FZ 62 7.568
9 FZ 63 8.057
9 FZ 64 7.568
9 FZ 65 7.080
9 FZ 66 6.104
9 FZ 67 4.150
9 FZ 68 2.197
9 FZ 69 1.221
9 FZ 70 0.244
9 FZ 71 -0.732
9 FZ 72 -0.732
9 FZ 73 -1.221
9 FZ 74 -0.732
9 FZ 75 -0.244
9 FZ 76 -0.244
9 FZ 77 -0.732
9 FZ 78 -1.221
9 FZ 79 -2.686
9 FZ 80 -3.662
9 FZ 81 -4.639
9 FZ 82 -5.615
9 FZ 83 -6.104
9 FZ 84 -6.104
9 FZ 85 -6.592
9 FZ 86 -7.568
9 FZ 87 -9.033
9 FZ 88 -10.498
9 FZ 89 -10.986
9 FZ 90 -10.010
9 FZ 91 -8.545
9 FZ 92 -6.592
9 FZ 93 -4.639
9 FZ 94 -3.662
9 FZ 95 -4.150
9 FZ 96 -5.127
9 FZ 97 -6.104
9 FZ 98 -6.592
9 FZ 99 -6.104
9 FZ 100 -5.127
9 FZ 101 -4.150
9 FZ 102 -3.174
9 FZ 103 -2.197
9 FZ 104 -2.197
9 FZ 105 -2.686
9 FZ 106 -4.639
9 FZ 107 -7.080
9 FZ 108 -9.521
9 FZ 109 -10.986
9 FZ 110 -11.475
9 FZ 111 -11.475
9 FZ 112 -10.986
9 FZ 113 -10.986
9 FZ 114 -11.963
9 FZ 115 -12.939
9 FZ 116 -13.916
9 FZ 117 -13.916
9 FZ 118 -13.916
9 FZ 119 -13.916
9 FZ 120 -13.916
9 FZ 121 -13.428
9 FZ 122 -12.451
9 FZ 123 -10.986
9 FZ 124 -9.033
9 FZ 125 -7.568
9 FZ 126 -7.080
9 FZ 127 -7.568
9 FZ 128 -9.521
9 FZ 129 -11.475
9 FZ 130 -12.451
9 FZ 131 -12.451
9 FZ 132 -10.986
9 FZ 133 -9.033
9 FZ 134 -7.080
9 FZ 135 -5.615
9 FZ 136 -5.615
9 FZ 137 -6.592
9 FZ 138 -7.568
9 FZ 139 -8.057
9 FZ 140 -8.057
9 FZ 141 -7.568
9 FZ 142 -7.080
9 FZ 143 -7.080
9 FZ 144 -8.057
9 FZ 145 -9.033
9 FZ 146 -9.521
9 FZ 147 -10.010
9 FZ 148 -10.498
9 FZ 149 -10.986
9 FZ 150 -11.963
9 FZ 151 -12.939
9 FZ 152 -13.428
9 FZ 153 -12.939
9 FZ 154 -12.451
9 FZ 155 -11.963
9 FZ 156 -11.475
9 FZ 157 -12.451
9 FZ 158 -12.939
9 FZ 159 -13.428
9 FZ 160 -12.939
9 FZ 161 -12.939
9 FZ 162 -11.963
9 FZ 163 -11.963
9 FZ 164 -11.963
9 FZ 165 -12.451
9 FZ 166 -13.428
9 FZ 167 -13.916
9 FZ 168 -13.916
9 FZ 169 -13.428
9 FZ 170 -12.939
9 FZ 171 -12.451
9 FZ 172 -11.963
9 FZ 173 -10.986
9 FZ 174 -9.521
9 FZ 175 -7.080
9 FZ 176 -5.127
9 FZ 177 -2.686
9 FZ 178 -0.732
9 FZ 179 0.244
9 FZ 180 0.732
9 FZ 181 0.732
9 FZ 182 0.732
9 FZ 183 1.221
9 FZ 184 1.709
9 FZ 185 2.197
9 FZ 186 3.174
9 FZ 187 3.662
9 FZ 188 4.150
9 FZ 189 4.639
9 FZ 190 5.615
9 FZ 191 6.592
9 FZ 192 7.568
9 FZ 193 8.057
9 FZ 194 9.033
9 FZ 195 10.010
9 FZ 196 10.986
9 FZ 197 11.963
9 FZ 198 11.963
9 FZ 199 11.963
9 FZ 200 12.451
9 FZ 201 13.916
9 FZ 202 16.846
9 FZ 203 19.287
9 FZ 204 20.752
9 FZ 205 20.752
9 FZ 206 19.287
9 FZ 207 18.311
9 FZ 208 18.311
9 FZ 209 19.287
9 FZ 210 21.240
9 FZ 211 21.729
9 FZ 212 22.705
9 FZ 213 22.217
9 FZ 214 21.729
9 FZ 215 21.240
9 FZ 216 20.752
9 FZ 217 20.752
9 FZ 218 20.752
9 FZ 219 21.240
9 FZ 220 22.705
9 FZ 221 24.170
9 FZ 222 25.146
9 FZ 223 25.635
9 FZ 224 24.658
9 FZ 225 22.705
9 FZ 226 21.240
9 FZ 227 20.264
9 FZ 228 20.264
9 FZ 229 19.775
9 FZ 230 18.799
9 FZ 231 16.357
9 FZ 232 14.404
9 FZ 233 12.939
9 FZ 234 12.451
9 FZ 235 12.451
9 FZ 236 13.428
9 FZ 237 14.404
9 FZ 238 15.381
9 FZ 239 16.357
9 FZ 240 16.846
9 FZ 241 16.846
9 FZ 242 16.357
9 FZ 243 16.357
9 FZ 244 15.869
9 FZ 245 15.381
9 FZ 246 14.893
9 FZ 247 14.404
9 FZ 248 13.916
9 FZ 249 12.939
9 FZ 250 11.963
9 FZ 251 11.475
9 FZ 252 10.986
9 FZ 253 10.986
9 FZ 254 10.986
9 FZ 255 11.475
# F4 chan 7
9 F4 0 -1.221
9 F4 1 -1.221
9 F4 2 -0.732
9 F4 3 0.732
9 F4 4 1.709
9 F4 5 2.197
9 F4 6 1.709
9 F4 7 0.732
9 F4 8 0.244
9 F4 9 0.732
9 F4 10 2.197
9 F4 11 3.662
9 F4 12 4.639
9 F4 13 5.615
9 F4 14 6.104
9 F4 15 7.080
9 F4 16 8.057
9 F4 17 8.545
9 F4 18 8.057
9 F4 19 6.592
9 F4 20 5.615
9 F4 21 5.127
9 F4 22 5.615
9 F4 23 6.592
9 F4 24 7.568
9 F4 25 8.057
9 F4 26 8.057
9 F4 27 7.568
9 F4 28 6.592
9 F4 29 6.104
9 F4 30 5.615
9 F4 31 5.127
9 F4 32 4.639
9 F4 33 5.127
9 F4 34 5.127
9 F4 35 5.127
9 F4 36 5.615
9 F4 37 5.615
9 F4 38 5.615
9 F4 39 5.615
9 F4 40 5.127
9 F4 41 4.639
9 F4 42 4.150
9 F4 43 3.662
9 F4 44 3.174
9 F4 45 3.174
9 F4 46 3.662
9 F4 47 4.639
9 F4 48 5.127
9 F4 49 6.592
9 F4 50 7.080
9 F4 51 7.080
9 F4 52 6.592
9 F4 53 5.127
9 F4 54 3.662
9 F4 55 2.686
9 F4 56 2.686
9 F4 57 4.150
9 F4 58 6.104
9 F4 59 7.568
9 F4 60 8.545
9 F4 61 9.033
9 F4 62 9.521
9 F4 63 9.521
9 F4 64 9.033
9 F4 65 8.057
9 F4 66 6.104
9 F4 67 3.662
9 F4 68 1.221
9 F4 69 -0.732
9 F4 70 -1.709
9 F4 71 -2.197
9 F4 72 -2.197
9 F4 73 -1.709
9 F4 74 -0.732
9 F4 75 -0.244
9 F4 76 -0.244
9 F4 77 -0.732
9 F4 78 -1.709
9 F4 79 -2.686
9 F4 80 -3.662
9 F4 81 -3.662
9 F4 82 -3.662
9 F4 83 -3.662
9 F4 84 -4.150
9 F4 85 -5.615
9 F4 86 -7.568
9 F4 87 -9.521
9 F4 88 -10.986
9 F4 89 -10.498
9 F4 90 -9.521
9 F4 91 -7.568
9 F4 92 -6.104
9 F4 93 -5.127
9 F4 94 -5.127
9 F4 95 -5.127
9 F4 96 -5.127
9 F4 97 -5.127
9 F4 98 -4.639
9 F4 99 -4.150
9 F4 100 -3.662
9 F4 101 -3.174
9 F4 102 -2.197
9 F4 103 -0.732
9 F4 104 0.244
9 F4 105 0.732
9 F4 106 0.244
9 F4 107 -2.197
9 F4 108 -4.639
9 F4 109 -7.080
9 F4 110 -8.545
9 F4 111 -9.033
9 F4 112 -8.545
9 F4 113 -9.033
9 F4 114 -9.033
9 F4 115 -10.010
9 F4 116 -10.010
9 F4 117 -10.010
9 F4 118 -9.521
9 F4 119 -9.521
9 F4 120 -9.521
9 F4 121 -10.010
9 F4 122 -9.521
9 F4 123 -8.545
9 F4 124 -6.592
9 F4 125 -4.150
9 F4 126 -2.197
9 F4 127 -1.709
9 F4 128 -2.197
9 F4 129 -3.662
9 F4 130 -5.127
9 F4 131 -6.104
9 F4 132 -6.592
9 F4 133 -6.104
9 F4 134 -5.127
9 F4 135 -4.150
9 F4 136 -4.150
9 F4 137 -4.639
9 F4 138 -4.639
9 F4 139 -4.150
9 F4 140 -3.174
9 F4 141 -2.197
9 F4 142 -1.709
9 F4 143 -2.197
9 F4 144 -4.150
9 F4 145 -5.615
9 F4 146 -6.592
9 F4 147 -7.080
9 F4 148 -6.592
9 F4 149 -6.592
9 F4 150 -7.080
9 F4 151 -8.057
9 F4 152 -9.033
9 F4 153 -9.521
9 F4 154 -9.521
9 F4 155 -8.545
9 F4 156 -8.057
9 F4 157 -8.057
9 F4 158 -8.545
9 F4 159 -9.521
9 F4 160 -10.010
9 F4 161 -10.010
9 F4 162 -9.521
9 F4 163 -9.033
9 F4 164 -10.010
9 F4 165 -10.986
9 F4 166 -12.451
9 F4 167 -13.428
9 F4 168 -12.939
9 F4 169 -11.963
9 F4 170 -10.986
9 F4 171 -10.498
9 F4 172 -10.498
9 F4 173 -10.010
9 F4 174 -8.545
9 F4 175 -7.080
9 F4 176 -4.639
9 F4 177 -2.686
9 F4 178 -1.221
9 F4 179 -0.244
9 F4 180 0.732
9 F4 181 1.221
9 F4 182 1.709
9 F4 183 2.197
9 F4 184 3.174
9 F4 185 4.639
9 F4 186 6.104
9 F4 187 7.568
9 F4 188 8.057
9 F4 189 8.545
9 F4 190 9.033
9 F4 191 9.033
9 F4 192 10.010
9 F4 193 11.963
9 F4 194 14.404
9 F4 195 17.334
9 F4 196 20.264
9 F4 197 22.217
9 F4 198 22.705
9 F4 199 23.193
9 F4 200 24.170
9 F4 201 26.123
9 F4 202 29.541
9 F4 203 32.471
9 F4 204 33.936
9 F4 205 33.936
9 F4 206 33.447
9 F4 207 32.471
9 F4 208 32.959
9 F4 209 34.424
9 F4 210 36.377
9 F4 211 37.842
9 F4 212 38.818
9 F4 213 39.795
9 F4 214 39.795
9 F4 215 39.795
9 F4 216 40.283
9 F4 217 39.795
9 F4 218 39.795
9 F4 219 40.283
9 F4 220 41.748
9 F4 221 43.701
9 F4 222 45.654
9 F4 223 46.631
9 F4 224 45.654
9 F4 225 44.189
9 F4 226 42.725
9 F4 227 42.236
9 F4 228 41.748
9 F4 229 41.260
9 F4 230 39.795
9 F4 231 37.842
9 F4 232 34.912
9 F4 233 32.959
9 F4 234 31.494
9 F4 235 31.006
9 F4 236 31.494
9 F4 237 31.982
9 F4 238 32.959
9 F4 239 33.447
9 F4 240 33.447
9 F4 241 32.471
9 F4 242 31.494
9 F4 243 30.518
9 F4 244 29.541
9 F4 245 28.564
9 F4 246 28.076
9 F4 247 26.611
9 F4 248 24.658
9 F4 249 22.705
9 F4 250 21.729
9 F4 251 20.752
9 F4 252 20.264
9 F4 253 20.752
9 F4 254 22.217
9 F4 255 24.170
# F3 chan 8
9 F3 0 -2.513
9 F3 1 -3.489
9 F3 2 -3.001
9 F3 3 -2.024
9 F3 4 -0.071
9 F3 5 0.417
9 F3 6 -1.048
9 F3 7 -3.001
9 F3 8 -4.954
9 F3 9 -4.954
9 F3 10 -3.489
9 F3 11 -1.536
9 F3 12 0.417
9 F3 13 0.905
9 F3 14 0.905
9 F3 15 0.905
9 F3 16 0.905
9 F3 17 0.905
9 F3 18 0.905
9 F3 19 1.394
9 F3 20 1.882
9 F3 21 2.370
9 F3 22 3.347
9 F3 23 3.835
9 F3 24 4.323
9 F3 25 3.835
9 F3 26 3.835
9 F3 27 3.347
9 F3 28 3.347
9 F3 29 3.347
9 F3 30 3.835
9 F3 31 4.323
9 F3 32 4.812
9 F3 33 4.812
9 F3 34 4.323
9 F3 35 3.835
9 F3 36 3.347
9 F3 37 2.370
9 F3 38 2.370
9 F3 39 2.858
9 F3 40 3.835
9 F3 41 4.812
9 F3 42 5.788
9 F3 43 5.300
9 F3 44 3.835
9 F3 45 2.370
9 F3 46 1.394
9 F3 47 1.394
9 F3 48 1.394
9 F3 49 1.882
9 F3 50 2.370
9 F3 51 2.370
9 F3 52 1.394
9 F3 53 0.417
9 F3 54 -1.536
9 F3 55 -2.513
9 F3 56 -2.513
9 F3 57 -1.536
9 F3 58 0.417
9 F3 59 2.370
9 F3 60 3.835
9 F3 61 4.812
9 F3 62 5.300
9 F3 63 6.765
9 F3 64 7.741
9 F3 65 8.230
9 F3 66 8.718
9 F3 67 7.741
9 F3 68 5.788
9 F3 69 3.347
9 F3 70 1.394
9 F3 71 -0.559
9 F3 72 -1.536
9 F3 73 -1.536
9 F3 74 -1.536
9 F3 75 -1.048
9 F3 76 -1.048
9 F3 77 -0.559
9 F3 78 -1.048
9 F3 79 -1.536
9 F3 80 -2.024
9 F3 81 -3.489
9 F3 82 -4.466
9 F3 83 -5.442
9 F3 84 -6.419
9 F3 85 -7.395
9 F3 86 -8.860
9 F3 87 -10.325
9 F3 88 -11.790
9 F3 89 -12.767
9 F3 90 -11.790
9 F3 91 -9.349
9 F3 92 -5.931
9 F3 93 -3.001
9 F3 94 -2.024
9 F3 95 -2.513
9 F3 96 -3.977
9 F3 97 -4.954
9 F3 98 -4.954
9 F3 99 -4.466
9 F3 100 -3.001
9 F3 101 -1.536
9 F3 102 -0.559
9 F3 103 -0.071
9 F3 104 -0.071
9 F3 105 -1.536
9 F3 106 -3.489
9 F3 107 -5.442
9 F3 108 -6.907
9 F3 109 -7.395
9 F3 110 -6.907
9 F3 111 -5.931
9 F3 112 -5.931
9 F3 113 -5.931
9 F3 114 -7.395
9 F3 115 -9.349
9 F3 116 -10.813
9 F3 117 -11.790
9 F3 118 -12.278
9 F3 119 -12.278
9 F3 120 -11.790
9 F3 121 -10.325
9 F3 122 -8.372
9 F3 123 -5.931
9 F3 124 -3.489
9 F3 125 -2.513
9 F3 126 -3.001
9 F3 127 -4.466
9 F3 128 -6.907
9 F3 129 -8.860
9 F3 130 -9.349
9 F3 131 -8.860
9 F3 132 -6.907
9 F3 133 -4.954
9 F3 134 -2.513
9 F3 135 -1.048
9 F3 136 -1.048
9 F3 137 -2.024
9 F3 138 -3.977
9 F3 139 -5.442
9 F3 140 -6.419
9 F3 141 -5.442
9 F3 142 -4.466
9 F3 143 -3.001
9 F3 144 -2.513
9 F3 145 -3.001
9 F3 146 -3.977
9 F3 147 -5.442
9 F3 148 -7.395
9 F3 149 -8.860
9 F3 150 -9.837
9 F3 151 -10.325
9 F3 152 -9.349
9 F3 153 -7.395
9 F3 154 -5.931
9 F3 155 -4.954
9 F3 156 -5.442
9 F3 157 -6.419
9 F3 158 -7.884
9 F3 159 -8.860
9 F3 160 -9.349
9 F3 161 -8.860
9 F3 162 -8.372
9 F3 163 -7.884
9 F3 164 -7.884
9 F3 165 -7.884
9 F3 166 -8.372
9 F3 167 -9.349
9 F3 168 -9.349
9 F3 169 -9.837
9 F3 170 -9.349
9 F3 171 -8.860
9 F3 172 -7.884
9 F3 173 -6.419
9 F3 174 -4.466
9 F3 175 -2.513
9 F3 176 -0.071
9 F3 177 2.370
9 F3 178 4.812
9 F3 179 6.276
9 F3 180 7.253
9 F3 181 7.741
9 F3 182 8.230
9 F3 183 9.206
9 F3 184 10.183
9 F3 185 10.671
9 F3 186 10.183
9 F3 187 9.694
9 F3 188 9.694
9 F3 189 10.671
9 F3 190 12.624
9 F3 191 14.577
9 F3 192 15.554
9 F3 193 15.066
9 F3 194 14.577
9 F3 195 14.089
9 F3 196 14.577
9 F3 197 15.066
9 F3 198 15.066
9 F3 199 14.577
9 F3 200 14.577
9 F3 201 15.554
9 F3 202 17.995
9 F3 203 20.437
9 F3 204 21.901
9 F3 205 21.901
9 F3 206 20.437
9 F3 207 18.483
9 F3 208 18.483
9 F3 209 19.460
9 F3 210 21.413
9 F3 211 21.901
9 F3 212 22.390
9 F3 213 21.901
9 F3 214 21.413
9 F3 215 20.925
9 F3 216 20.437
9 F3 217 20.437
9 F3 218 20.437
9 F3 219 20.925
9 F3 220 22.390
9 F3 221 23.855
9 F3 222 24.831
9 F3 223 23.855
9 F3 224 21.901
9 F3 225 19.948
9 F3 226 17.995
9 F3 227 17.019
9 F3 228 17.019
9 F3 229 15.554
9 F3 230 13.601
9 F3 231 10.671
9 F3 232 7.741
9 F3 233 6.276
9 F3 234 6.276
9 F3 235 7.741
9 F3 236 9.694
9 F3 237 11.648
9 F3 238 13.112
9 F3 239 13.601
9 F3 240 14.089
9 F3 241 13.601
9 F3 242 13.112
9 F3 243 13.112
9 F3 244 12.624
9 F3 245 13.112
9 F3 246 12.624
9 F3 247 12.624
9 F3 248 11.648
9 F3 249 11.159
9 F3 250 10.183
9 F3 251 9.206
9 F3 252 8.230
9 F3 253 8.230
9 F3 254 8.718
9 F3 255 9.694
# FC6 chan 9
9 FC6 0 -3.703
9 FC6 1 -3.703
9 FC6 2 -1.750
9 FC6 3 0.692
9 FC6 4 2.645
9 FC6 5 2.157
9 FC6 6 -0.285
9 FC6 7 -2.726
9 FC6 8 -3.215
9 FC6 9 -1.261
9 FC6 10 1.668
9 FC6 11 4.598
9 FC6 12 5.575
9 FC6 13 4.598
9 FC6 14 4.598
9 FC6 15 5.575
9 FC6 16 7.528
9 FC6 17 8.016
9 FC6 18 6.551
9 FC6 19 3.621
9 FC6 20 1.180
9 FC6 21 0.692
9 FC6 22 3.133
9 FC6 23 5.575
9 FC6 24 7.528
9 FC6 25 7.528
9 FC6 26 6.551
9 FC6 27 6.551
9 FC6 28 7.039
9 FC6 29 8.504
9 FC6 30 9.481
9 FC6 31 8.504
9 FC6 32 6.551
9 FC6 33 5.575
9 FC6 34 4.598
9 FC6 35 5.086
9 FC6 36 6.063
9 FC6 37 6.063
9 FC6 38 6.063
9 FC6 39 5.575
9 FC6 40 4.598
9 FC6 41 3.133
9 FC6 42 0.692
9 FC6 43 -1.261
9 FC6 44 -2.726
9 FC6 45 -3.215
9 FC6 46 -2.238
9 FC6 47 -0.773
9 FC6 48 0.692
9 FC6 49 1.180
9 FC6 50 1.668
9 FC6 51 2.157
9 FC6 52 2.157
9 FC6 53 2.157
9 FC6 54 2.645
9 FC6 55 3.133
9 FC6 56 4.598
9 FC6 57 6.551
9 FC6 58 8.016
9 FC6 59 8.504
9 FC6 60 7.528
9 FC6 61 6.063
9 FC6 62 6.063
9 FC6 63 6.551
9 FC6 64 7.528
9 FC6 65 7.039
9 FC6 66 5.086
9 FC6 67 1.668
9 FC6 68 -2.238
9 FC6 69 -5.656
9 FC6 70 -7.609
9 FC6 71 -8.586
9 FC6 72 -9.562
9 FC6 73 -9.562
9 FC6 74 -9.074
9 FC6 75 -7.609
9 FC6 76 -6.632
9 FC6 77 -6.144
9 FC6 78 -6.632
9 FC6 79 -8.097
9 FC6 80 -9.074
9 FC6 81 -8.097
9 FC6 82 -6.632
9 FC6 83 -4.679
9 FC6 84 -5.168
9 FC6 85 -7.609
9 FC6 86 -12.004
9 FC6 87 -15.422
9 FC6 88 -16.398
9 FC6 89 -13.468
9 FC6 90 -9.074
9 FC6 91 -5.168
9 FC6 92 -4.679
9 FC6 93 -6.632
9 FC6 94 -9.074
9 FC6 95 -9.562
9 FC6 96 -7.121
9 FC6 97 -3.215
9 FC6 98 -0.285
9 FC6 99 0.203
9 FC6 100 -1.750
9 FC6 101 -3.215
9 FC6 102 -3.703
9 FC6 103 -1.261
9 FC6 104 1.180
9 FC6 105 3.621
9 FC6 106 4.110
9 FC6 107 3.621
9 FC6 108 2.157
9 FC6 109 1.180
9 FC6 110 -0.285
9 FC6 111 -1.750
9 FC6 112 -2.238
9 FC6 113 -1.750
9 FC6 114 -0.773
9 FC6 115 0.692
9 FC6 116 1.180
9 FC6 117 0.692
9 FC6 118 -0.285
9 FC6 119 -0.773
9 FC6 120 -0.773
9 FC6 121 -0.285
9 FC6 122 -0.285
9 FC6 123 -0.285
9 FC6 124 -0.285
9 FC6 125 2.157
9 FC6 126 5.575
9 FC6 127 9.969
9 FC6 128 11.434
9 FC6 129 9.969
9 FC6 130 6.063
9 FC6 131 1.668
9 FC6 132 -1.261
9 FC6 133 -1.750
9 FC6 134 -0.773
9 FC6 135 0.203
9 FC6 136 0.203
9 FC6 137 -0.285
9 FC6 138 -0.773
9 FC6 139 0.203
9 FC6 140 1.180
9 FC6 141 2.645
9 FC6 142 2.645
9 FC6 143 1.668
9 FC6 144 0.692
9 FC6 145 -0.285
9 FC6 146 -0.773
9 FC6 147 -1.261
9 FC6 148 -0.773
9 FC6 149 -0.285
9 FC6 150 0.203
9 FC6 151 -0.285
9 FC6 152 -0.773
9 FC6 153 -2.238
9 FC6 154 -3.215
9 FC6 155 -3.215
9 FC6 156 -2.726
9 FC6 157 -2.238
9 FC6 158 -2.726
9 FC6 159 -4.191
9 FC6 160 -4.679
9 FC6 161 -4.679
9 FC6 162 -2.726
9 FC6 163 -1.750
9 FC6 164 -2.238
9 FC6 165 -5.168
9 FC6 166 -8.097
9 FC6 167 -9.562
9 FC6 168 -8.097
9 FC6 169 -5.168
9 FC6 170 -2.726
9 FC6 171 -2.238
9 FC6 172 -3.215
9 FC6 173 -4.191
9 FC6 174 -4.191
9 FC6 175 -3.703
9 FC6 176 -3.215
9 FC6 177 -3.703
9 FC6 178 -3.703
9 FC6 179 -3.215
9 FC6 180 -1.750
9 FC6 181 0.203
9 FC6 182 1.668
9 FC6 183 1.668
9 FC6 184 1.668
9 FC6 185 1.668
9 FC6 186 3.621
9 FC6 187 6.063
9 FC6 188 8.016
9 FC6 189 8.993
9 FC6 190 7.039
9 FC6 191 4.598
9 FC6 192 3.133
9 FC6 193 4.598
9 FC6 194 9.481
9 FC6 195 15.340
9 FC6 196 19.735
9 FC6 197 21.200
9 FC6 198 19.735
9 FC6 199 18.270
9 FC6 200 18.270
9 FC6 201 21.200
9 FC6 202 24.618
9 FC6 203 28.524
9 FC6 204 29.989
9 FC6 205 29.989
9 FC6 206 29.500
9 FC6 207 29.012
9 FC6 208 29.012
9 FC6 209 29.989
9 FC6 210 31.453
9 FC6 211 33.407
9 FC6 212 34.871
9 FC6 213 36.336
9 FC6 214 36.825
9 FC6 215 36.336
9 FC6 216 35.848
9 FC6 217 36.336
9 FC6 218 36.825
9 FC6 219 38.289
9 FC6 220 40.243
9 FC6 221 42.196
9 FC6 222 43.172
9 FC6 223 43.172
9 FC6 224 42.684
9 FC6 225 42.684
9 FC6 226 42.196
9 FC6 227 42.684
9 FC6 228 42.196
9 FC6 229 41.219
9 FC6 230 38.778
9 FC6 231 36.336
9 FC6 232 34.383
9 FC6 233 32.918
9 FC6 234 32.918
9 FC6 235 32.430
9 FC6 236 32.918
9 FC6 237 32.918
9 FC6 238 32.918
9 FC6 239 32.430
9 FC6 240 30.965
9 FC6 241 28.524
9 FC6 242 26.571
9 FC6 243 25.594
9 FC6 244 25.594
9 FC6 245 26.571
9 FC6 246 26.082
9 FC6 247 24.129
9 FC6 248 21.200
9 FC6 249 18.758
9 FC6 250 17.293
9 FC6 251 17.293
9 FC6 252 17.293
9 FC6 253 18.270
9 FC6 254 19.246
9 FC6 255 21.200
# FC5 chan 10
9 FC5 0 -4.242
9 FC5 1 -5.707
9 FC5 2 -5.707
9 FC5 3 -4.730
9 FC5 4 -3.265
9 FC5 5 -2.777
9 FC5 6 -3.754
9 FC5 7 -6.195
9 FC5 8 -7.660
9 FC5 9 -8.148
9 FC5 10 -6.683
9 FC5 11 -4.242
9 FC5 12 -2.289
9 FC5 13 -0.824
9 FC5 14 -0.824
9 FC5 15 -1.312
9 FC5 16 -1.801
9 FC5 17 -2.289
9 FC5 18 -2.777
9 FC5 19 -2.289
9 FC5 20 -1.312
9 FC5 21 0.153
9 FC5 22 2.106
9 FC5 23 3.571
9 FC5 24 4.059
9 FC5 25 3.571
9 FC5 26 2.106
9 FC5 27 1.129
9 FC5 28 0.641
9 FC5 29 1.129
9 FC5 30 2.106
9 FC5 31 3.571
9 FC5 32 4.547
9 FC5 33 5.035
9 FC5 34 4.547
9 FC5 35 4.059
9 FC5 36 3.082
9 FC5 37 1.617
9 FC5 38 0.153
9 FC5 39 0.153
9 FC5 40 0.641
9 FC5 41 1.129
9 FC5 42 1.617
9 FC5 43 1.129
9 FC5 44 -0.336
9 FC5 45 -2.289
9 FC5 46 -3.754
9 FC5 47 -5.219
9 FC5 48 -6.195
9 FC5 49 -6.195
9 FC5 50 -5.707
9 FC5 51 -5.219
9 FC5 52 -4.730
9 FC5 53 -4.730
9 FC5 54 -5.219
9 FC5 55 -5.707
9 FC5 56 -5.707
9 FC5 57 -5.219
9 FC5 58 -4.242
9 FC5 59 -3.754
9 FC5 60 -3.265
9 FC5 61 -2.777
9 FC5 62 -1.801
9 FC5 63 -0.336
9 FC5 64 2.106
9 FC5 65 4.059
9 FC5 66 5.035
9 FC5 67 4.547
9 FC5 68 2.106
9 FC5 69 -0.824
9 FC5 70 -4.242
9 FC5 71 -6.683
9 FC5 72 -8.148
9 FC5 73 -8.636
9 FC5 74 -8.148
9 FC5 75 -7.660
9 FC5 76 -7.172
9 FC5 77 -7.172
9 FC5 78 -6.683
9 FC5 79 -6.195
9 FC5 80 -6.195
9 FC5 81 -6.195
9 FC5 82 -7.660
9 FC5 83 -9.125
9 FC5 84 -10.590
9 FC5 85 -12.054
9 FC5 86 -13.519
9 FC5 87 -14.984
9 FC5 88 -16.449
9 FC5 89 -16.937
9 FC5 90 -15.961
9 FC5 91 -13.519
9 FC5 92 -10.101
9 FC5 93 -7.172
9 FC5 94 -6.195
9 FC5 95 -6.683
9 FC5 96 -8.148
9 FC5 97 -9.125
9 FC5 98 -9.125
9 FC5 99 -8.148
9 FC5 100 -6.195
9 FC5 101 -4.242
9 FC5 102 -2.289
9 FC5 103 -1.312
9 FC5 104 -0.824
9 FC5 105 -1.801
9 FC5 106 -3.265
9 FC5 107 -5.219
9 FC5 108 -6.683
9 FC5 109 -6.683
9 FC5 110 -5.707
9 FC5 111 -4.730
9 FC5 112 -4.242
9 FC5 113 -4.242
9 FC5 114 -5.707
9 FC5 115 -7.172
9 FC5 116 -8.148
9 FC5 117 -9.125
9 FC5 118 -10.101
9 FC5 119 -10.590
9 FC5 120 -10.101
9 FC5 121 -8.636
9 FC5 122 -6.195
9 FC5 123 -3.265
9 FC5 124 -0.824
9 FC5 125 0.153
9 FC5 126 -0.336
9 FC5 127 -1.801
9 FC5 128 -3.754
9 FC5 129 -5.707
9 FC5 130 -6.683
9 FC5 131 -7.172
9 FC5 132 -7.172
9 FC5 133 -6.195
9 FC5 134 -5.219
9 FC5 135 -4.242
9 FC5 136 -4.242
9 FC5 137 -4.730
9 FC5 138 -6.683
9 FC5 139 -8.148
9 FC5 140 -8.636
9 FC5 141 -7.660
9 FC5 142 -5.707
9 FC5 143 -3.265
9 FC5 144 -2.289
9 FC5 145 -2.777
9 FC5 146 -4.242
9 FC5 147 -6.683
9 FC5 148 -8.636
9 FC5 149 -10.590
9 FC5 150 -12.054
9 FC5 151 -11.566
9 FC5 152 -10.590
9 FC5 153 -8.148
9 FC5 154 -5.707
9 FC5 155 -4.242
9 FC5 156 -4.242
9 FC5 157 -5.707
9 FC5 158 -7.660
9 FC5 159 -9.125
9 FC5 160 -9.613
9 FC5 161 -9.125
9 FC5 162 -8.636
9 FC5 163 -8.636
9 FC5 164 -8.148
9 FC5 165 -8.148
9 FC5 166 -7.660
9 FC5 167 -7.660
9 FC5 168 -8.148
9 FC5 169 -8.636
9 FC5 170 -9.125
9 FC5 171 -9.125
9 FC5 172 -8.148
9 FC5 173 -7.172
9 FC5 174 -5.707
9 FC5 175 -4.730
9 FC5 176 -3.265
9 FC5 177 -1.801
9 FC5 178 -0.336
9 FC5 179 0.641
9 FC5 180 1.129
9 FC5 181 2.106
9 FC5 182 3.082
9 FC5 183 4.547
9 FC5 184 6.012
9 FC5 185 6.012
9 FC5 186 5.035
9 FC5 187 3.571
9 FC5 188 2.594
9 FC5 189 2.594
9 FC5 190 3.571
9 FC5 191 5.035
9 FC5 192 5.524
9 FC5 193 5.035
9 FC5 194 4.059
9 FC5 195 3.082
9 FC5 196 3.082
9 FC5 197 3.082
9 FC5 198 3.082
9 FC5 199 2.594
9 FC5 200 1.617
9 FC5 201 1.617
9 FC5 202 2.594
9 FC5 203 3.571
9 FC5 204 4.059
9 FC5 205 3.082
9 FC5 206 1.129
9 FC5 207 -0.824
9 FC5 208 -1.312
9 FC5 209 -0.824
9 FC5 210 0.153
9 FC5 211 1.129
9 FC5 212 1.129
9 FC5 213 0.153
9 FC5 214 -0.824
9 FC5 215 -2.289
9 FC5 216 -3.265
9 FC5 217 -3.754
9 FC5 218 -3.754
9 FC5 219 -3.754
9 FC5 220 -2.777
9 FC5 221 -1.801
9 FC5 222 -2.289
9 FC5 223 -4.242
9 FC5 224 -6.683
9 FC5 225 -8.636
9 FC5 226 -9.613
9 FC5 227 -9.613
9 FC5 228 -9.613
9 FC5 229 -10.590
9 FC5 230 -12.543
9 FC5 231 -15.472
9 FC5 232 -17.914
9 FC5 233 -18.890
9 FC5 234 -18.890
9 FC5 235 -16.937
9 FC5 236 -14.984
9 FC5 237 -12.543
9 FC5 238 -10.590
9 FC5 239 -9.125
9 FC5 240 -8.636
9 FC5 241 -9.125
9 FC5 242 -10.101
9 FC5 243 -11.078
9 FC5 244 -11.078
9 FC5 245 -11.566
9 FC5 246 -11.566
9 FC5 247 -11.078
9 FC5 248 -11.078
9 FC5 249 -11.566
9 FC5 250 -12.054
9 FC5 251 -13.519
9 FC5 252 -14.496
9 FC5 253 -14.984
9 FC5 254 -14.008
9 FC5 255 -12.543
# FC2 chan 11
9 FC2 0 -0.041
9 FC2 1 -0.041
9 FC2 2 -0.041
9 FC2 3 0.936
9 FC2 4 1.912
9 FC2 5 2.889
9 FC2 6 2.889
9 FC2 7 2.401
9 FC2 8 1.912
9 FC2 9 1.912
9 FC2 10 2.401
9 FC2 11 3.377
9 FC2 12 3.866
9 FC2 13 3.866
9 FC2 14 3.377
9 FC2 15 3.866
9 FC2 16 3.866
9 FC2 17 3.866
9 FC2 18 3.866
9 FC2 19 2.889
9 FC2 20 2.401
9 FC2 21 1.912
9 FC2 22 2.401
9 FC2 23 3.377
9 FC2 24 3.866
9 FC2 25 3.866
9 FC2 26 3.866
9 FC2 27 3.377
9 FC2 28 2.401
9 FC2 29 2.401
9 FC2 30 1.912
9 FC2 31 1.424
9 FC2 32 0.936
9 FC2 33 1.424
9 FC2 34 0.448
9 FC2 35 0.448
9 FC2 36 0.448
9 FC2 37 0.936
9 FC2 38 1.424
9 FC2 39 1.424
9 FC2 40 1.424
9 FC2 41 0.936
9 FC2 42 0.448
9 FC2 43 -0.041
9 FC2 44 -0.041
9 FC2 45 0.448
9 FC2 46 0.936
9 FC2 47 1.912
9 FC2 48 2.401
9 FC2 49 2.889
9 FC2 50 2.889
9 FC2 51 2.889
9 FC2 52 2.401
9 FC2 53 1.912
9 FC2 54 1.424
9 FC2 55 1.424
9 FC2 56 1.912
9 FC2 57 2.889
9 FC2 58 3.866
9 FC2 59 4.354
9 FC2 60 4.842
9 FC2 61 4.842
9 FC2 62 4.842
9 FC2 63 4.354
9 FC2 64 3.866
9 FC2 65 2.401
9 FC2 66 0.448
9 FC2 67 -1.017
9 FC2 68 -1.994
9 FC2 69 -2.482
9 FC2 70 -2.482
9 FC2 71 -1.994
9 FC2 72 -1.506
9 FC2 73 -1.994
9 FC2 74 -1.994
9 FC2 75 -1.506
9 FC2 76 -1.017
9 FC2 77 -1.017
9 FC2 78 -1.506
9 FC2 79 -1.506
9 FC2 80 -2.482
9 FC2 81 -2.482
9 FC2 82 -2.482
9 FC2 83 -2.482
9 FC2 84 -2.970
9 FC2 85 -3.459
9 FC2 86 -4.924
9 FC2 87 -5.412
9 FC2 88 -5.900
9 FC2 89 -5.900
9 FC2 90 -4.924
9 FC2 91 -3.947
9 FC2 92 -3.459
9 FC2 93 -2.970
9 FC2 94 -3.459
9 FC2 95 -3.459
9 FC2 96 -2.970
9 FC2 97 -2.970
9 FC2 98 -2.482
9 FC2 99 -1.994
9 FC2 100 -2.482
9 FC2 101 -2.970
9 FC2 102 -2.970
9 FC2 103 -2.482
9 FC2 104 -1.506
9 FC2 105 -1.017
9 FC2 106 -1.017
9 FC2 107 -1.994
9 FC2 108 -3.459
9 FC2 109 -4.435
9 FC2 110 -4.924
9 FC2 111 -4.924
9 FC2 112 -4.924
9 FC2 113 -4.924
9 FC2 114 -5.412
9 FC2 115 -5.900
9 FC2 116 -6.388
9 FC2 117 -6.388
9 FC2 118 -5.900
9 FC2 119 -5.900
9 FC2 120 -6.388
9 FC2 121 -6.877
9 FC2 122 -6.877
9 FC2 123 -6.388
9 FC2 124 -5.412
9 FC2 125 -4.435
9 FC2 126 -2.970
9 FC2 127 -2.482
9 FC2 128 -2.970
9 FC2 129 -3.947
9 FC2 130 -4.435
9 FC2 131 -5.412
9 FC2 132 -5.900
9 FC2 133 -5.412
9 FC2 134 -4.924
9 FC2 135 -4.924
9 FC2 136 -4.924
9 FC2 137 -4.924
9 FC2 138 -5.412
9 FC2 139 -4.924
9 FC2 140 -4.924
9 FC2 141 -4.435
9 FC2 142 -4.435
9 FC2 143 -4.435
9 FC2 144 -4.924
9 FC2 145 -4.924
9 FC2 146 -5.412
9 FC2 147 -5.412
9 FC2 148 -5.900
9 FC2 149 -5.900
9 FC2 150 -6.388
9 FC2 151 -7.853
9 FC2 152 -8.341
9 FC2 153 -8.830
9 FC2 154 -8.341
9 FC2 155 -7.853
9 FC2 156 -7.365
9 FC2 157 -6.877
9 FC2 158 -7.365
9 FC2 159 -7.853
9 FC2 160 -8.341
9 FC2 161 -8.341
9 FC2 162 -7.853
9 FC2 163 -7.853
9 FC2 164 -7.853
9 FC2 165 -8.830
9 FC2 166 -9.318
9 FC2 167 -9.806
9 FC2 168 -9.318
9 FC2 169 -8.830
9 FC2 170 -7.853
9 FC2 171 -7.365
9 FC2 172 -7.365
9 FC2 173 -7.365
9 FC2 174 -6.877
9 FC2 175 -6.388
9 FC2 176 -5.412
9 FC2 177 -4.924
9 FC2 178 -4.435
9 FC2 179 -3.947
9 FC2 180 -3.947
9 FC2 181 -3.947
9 FC2 182 -4.435
9 FC2 183 -4.435
9 FC2 184 -3.947
9 FC2 185 -2.970
9 FC2 186 -2.482
9 FC2 187 -1.506
9 FC2 188 -1.506
9 FC2 189 -1.506
9 FC2 190 -1.994
9 FC2 191 -2.482
9 FC2 192 -2.482
9 FC2 193 -1.506
9 FC2 194 -0.041
9 FC2 195 1.424
9 FC2 196 2.889
9 FC2 197 3.377
9 FC2 198 3.866
9 FC2 199 4.354
9 FC2 200 4.354
9 FC2 201 5.330
9 FC2 202 6.795
9 FC2 203 7.772
9 FC2 204 8.748
9 FC2 205 8.260
9 FC2 206 8.260
9 FC2 207 7.284
9 FC2 208 7.772
9 FC2 209 8.260
9 FC2 210 9.237
9 FC2 211 9.725
9 FC2 212 10.213
9 FC2 213 9.725
9 FC2 214 9.237
9 FC2 215 9.237
9 FC2 216 9.237
9 FC2 217 9.237
9 FC2 218 9.725
9 FC2 219 9.725
9 FC2 220 10.701
9 FC2 221 11.190
9 FC2 222 11.678
9 FC2 223 12.166
9 FC2 224 12.166
9 FC2 225 11.190
9 FC2 226 10.213
9 FC2 227 9.725
9 FC2 228 9.725
9 FC2 229 9.725
9 FC2 230 9.725
9 FC2 231 8.748
9 FC2 232 8.260
9 FC2 233 7.284
9 FC2 234 6.795
9 FC2 235 6.795
9 FC2 236 6.307
9 FC2 237 6.795
9 FC2 238 7.284
9 FC2 239 7.772
9 FC2 240 7.772
9 FC2 241 7.772
9 FC2 242 6.795
9 FC2 243 5.819
9 FC2 244 5.330
9 FC2 245 4.842
9 FC2 246 4.842
9 FC2 247 4.842
9 FC2 248 4.354
9 FC2 249 3.866
9 FC2 250 2.889
9 FC2 251 2.401
9 FC2 252 1.424
9 FC2 253 1.912
9 FC2 254 1.912
9 FC2 255 2.889
# FC1 chan 12
9 FC1 0 -0.702
9 FC1 1 -0.702
9 FC1 2 -0.702
9 FC1 3 0.275
9 FC1 4 0.763
9 FC1 5 1.251
9 FC1 6 0.763
9 FC1 7 -0.214
9 FC1 8 -1.190
9 FC1 9 -1.678
9 FC1 10 -1.678
9 FC1 11 -0.702
9 FC1 12 0.275
9 FC1 13 0.275
9 FC1 14 0.763
9 FC1 15 0.763
9 FC1 16 0.275
9 FC1 17 0.275
9 FC1 18 0.763
9 FC1 19 0.763
9 FC1 20 1.251
9 FC1 21 1.251
9 FC1 22 1.251
9 FC1 23 1.251
9 FC1 24 1.740
9 FC1 25 1.740
9 FC1 26 2.228
9 FC1 27 2.228
9 FC1 28 2.228
9 FC1 29 1.740
9 FC1 30 1.251
9 FC1 31 1.251
9 FC1 32 0.763
9 FC1 33 0.763
9 FC1 34 0.763
9 FC1 35 0.275
9 FC1 36 0.275
9 FC1 37 -0.214
9 FC1 38 -0.702
9 FC1 39 -0.214
9 FC1 40 0.275
9 FC1 41 1.251
9 FC1 42 1.740
9 FC1 43 1.251
9 FC1 44 0.763
9 FC1 45 0.275
9 FC1 46 -0.214
9 FC1 47 -0.214
9 FC1 48 0.275
9 FC1 49 0.763
9 FC1 50 0.763
9 FC1 51 0.275
9 FC1 52 -0.702
9 FC1 53 -2.167
9 FC1 54 -3.143
9 FC1 55 -4.120
9 FC1 56 -4.120
9 FC1 57 -3.632
9 FC1 58 -2.167
9 FC1 59 -1.190
9 FC1 60 -0.214
9 FC1 61 -0.214
9 FC1 62 0.275
9 FC1 63 0.763
9 FC1 64 1.251
9 FC1 65 1.740
9 FC1 66 1.740
9 FC1 67 0.763
9 FC1 68 0.275
9 FC1 69 -0.702
9 FC1 70 -1.190
9 FC1 71 -1.678
9 FC1 72 -2.167
9 FC1 73 -2.655
9 FC1 74 -2.655
9 FC1 75 -2.655
9 FC1 76 -2.655
9 FC1 77 -2.655
9 FC1 78 -2.655
9 FC1 79 -3.143
9 FC1 80 -4.120
9 FC1 81 -4.608
9 FC1 82 -4.608
9 FC1 83 -4.120
9 FC1 84 -4.608
9 FC1 85 -5.096
9 FC1 86 -5.585
9 FC1 87 -6.561
9 FC1 88 -8.026
9 FC1 89 -8.514
9 FC1 90 -8.026
9 FC1 91 -6.561
9 FC1 92 -5.096
9 FC1 93 -4.120
9 FC1 94 -3.143
9 FC1 95 -3.143
9 FC1 96 -3.143
9 FC1 97 -3.632
9 FC1 98 -3.632
9 FC1 99 -3.632
9 FC1 100 -3.143
9 FC1 101 -2.655
9 FC1 102 -2.167
9 FC1 103 -2.167
9 FC1 104 -2.655
9 FC1 105 -3.632
9 FC1 106 -5.096
9 FC1 107 -6.073
9 FC1 108 -7.050
9 FC1 109 -7.050
9 FC1 110 -7.050
9 FC1 111 -6.561
9 FC1 112 -6.073
9 FC1 113 -6.561
9 FC1 114 -7.050
9 FC1 115 -7.538
9 FC1 116 -8.514
9 FC1 117 -9.003
9 FC1 118 -9.491
9 FC1 119 -9.491
9 FC1 120 -9.003
9 FC1 121 -8.026
9 FC1 122 -6.561
9 FC1 123 -5.096
9 FC1 124 -4.120
9 FC1 125 -4.120
9 FC1 126 -5.096
9 FC1 127 -6.561
9 FC1 128 -8.026
9 FC1 129 -9.491
9 FC1 130 -9.979
9 FC1 131 -9.491
9 FC1 132 -8.026
9 FC1 133 -6.561
9 FC1 134 -4.608
9 FC1 135 -3.632
9 FC1 136 -3.632
9 FC1 137 -4.608
9 FC1 138 -5.585
9 FC1 139 -6.561
9 FC1 140 -7.050
9 FC1 141 -7.050
9 FC1 142 -6.561
9 FC1 143 -6.073
9 FC1 144 -6.073
9 FC1 145 -6.073
9 FC1 146 -6.073
9 FC1 147 -7.050
9 FC1 148 -7.538
9 FC1 149 -8.514
9 FC1 150 -9.491
9 FC1 151 -9.979
9 FC1 152 -9.491
9 FC1 153 -8.514
9 FC1 154 -7.538
9 FC1 155 -6.561
9 FC1 156 -7.050
9 FC1 157 -7.538
9 FC1 158 -8.026
9 FC1 159 -8.514
9 FC1 160 -8.514
9 FC1 161 -8.514
9 FC1 162 -8.514
9 FC1 163 -8.026
9 FC1 164 -8.026
9 FC1 165 -8.026
9 FC1 166 -7.538
9 FC1 167 -7.538
9 FC1 168 -8.026
9 FC1 169 -8.026
9 FC1 170 -8.514
9 FC1 171 -8.514
9 FC1 172 -8.026
9 FC1 173 -7.050
9 FC1 174 -5.585
9 FC1 175 -4.120
9 FC1 176 -2.655
9 FC1 177 -1.678
9 FC1 178 -0.702
9 FC1 179 -0.702
9 FC1 180 -0.702
9 FC1 181 -0.702
9 FC1 182 -0.214
9 FC1 183 -0.214
9 FC1 184 0.275
9 FC1 185 0.763
9 FC1 186 0.763
9 FC1 187 0.763
9 FC1 188 0.763
9 FC1 189 1.251
9 FC1 190 1.740
9 FC1 191 2.228
9 FC1 192 2.716
9 FC1 193 2.716
9 FC1 194 2.228
9 FC1 195 2.228
9 FC1 196 1.740
9 FC1 197 0.763
9 FC1 198 0.275
9 FC1 199 -0.702
9 FC1 200 -0.702
9 FC1 201 0.275
9 FC1 202 1.740
9 FC1 203 3.204
9 FC1 204 3.693
9 FC1 205 3.204
9 FC1 206 2.228
9 FC1 207 1.740
9 FC1 208 1.740
9 FC1 209 2.228
9 FC1 210 3.204
9 FC1 211 3.693
9 FC1 212 3.693
9 FC1 213 3.204
9 FC1 214 2.716
9 FC1 215 2.228
9 FC1 216 1.251
9 FC1 217 1.251
9 FC1 218 1.251
9 FC1 219 2.228
9 FC1 220 3.204
9 FC1 221 4.669
9 FC1 222 5.157
9 FC1 223 5.157
9 FC1 224 4.181
9 FC1 225 2.716
9 FC1 226 1.251
9 FC1 227 0.763
9 FC1 228 0.275
9 FC1 229 -0.214
9 FC1 230 -1.190
9 FC1 231 -2.655
9 FC1 232 -3.632
9 FC1 233 -4.608
9 FC1 234 -4.608
9 FC1 235 -4.120
9 FC1 236 -3.143
9 FC1 237 -2.655
9 FC1 238 -2.167
9 FC1 239 -1.190
9 FC1 240 -1.190
9 FC1 241 -0.702
9 FC1 242 -0.702
9 FC1 243 -0.702
9 FC1 244 -0.214
9 FC1 245 -0.214
9 FC1 246 -0.214
9 FC1 247 -1.190
9 FC1 248 -1.678
9 FC1 249 -2.167
9 FC1 250 -2.167
9 FC1 251 -2.167
9 FC1 252 -2.167
9 FC1 253 -2.655
9 FC1 254 -3.143
9 FC1 255 -3.143
# T8 chan 13
9 T8 0 -4.883
9 T8 1 -4.883
9 T8 2 -4.395
9 T8 3 -3.906
9 T8 4 -2.930
9 T8 5 -2.930
9 T8 6 -3.418
9 T8 7 -4.395
9 T8 8 -4.395
9 T8 9 -3.906
9 T8 10 -2.930
9 T8 11 -1.465
9 T8 12 0.488
9 T8 13 2.441
9 T8 14 3.906
9 T8 15 3.906
9 T8 16 3.418
9 T8 17 1.465
9 T8 18 0.488
9 T8 19 0.000
9 T8 20 0.488
9 T8 21 1.465
9 T8 22 1.465
9 T8 23 1.465
9 T8 24 0.488
9 T8 25 0.977
9 T8 26 2.930
9 T8 27 6.836
9 T8 28 10.742
9 T8 29 13.184
9 T8 30 13.184
9 T8 31 10.742
9 T8 32 7.324
9 T8 33 5.371
9 T8 34 4.883
9 T8 35 6.348
9 T8 36 7.324
9 T8 37 6.836
9 T8 38 4.883
9 T8 39 1.465
9 T8 40 -0.977
9 T8 41 -3.418
9 T8 42 -3.906
9 T8 43 -4.395
9 T8 44 -3.906
9 T8 45 -3.418
9 T8 46 -4.395
9 T8 47 -5.371
9 T8 48 -6.836
9 T8 49 -6.836
9 T8 50 -5.859
9 T8 51 -3.906
9 T8 52 -1.953
9 T8 53 0.000
9 T8 54 2.441
9 T8 55 4.883
9 T8 56 6.836
9 T8 57 7.324
9 T8 58 5.859
9 T8 59 3.906
9 T8 60 2.930
9 T8 61 3.418
9 T8 62 5.859
9 T8 63 8.789
9 T8 64 9.277
9 T8 65 7.324
9 T8 66 2.930
9 T8 67 -0.977
9 T8 68 -3.906
9 T8 69 -6.348
9 T8 70 -8.789
9 T8 71 -12.207
9 T8 72 -15.625
9 T8 73 -16.602
9 T8 74 -14.160
9 T8 75 -9.277
9 T8 76 -5.859
9 T8 77 -5.859
9 T8 78 -8.789
9 T8 79 -12.207
9 T8 80 -13.672
9 T8 81 -12.207
9 T8 82 -9.766
9 T8 83 -8.789
9 T8 84 -11.230
9 T8 85 -15.625
9 T8 86 -19.043
9 T8 87 -19.043
9 T8 88 -15.625
9 T8 89 -11.719
9 T8 90 -8.789
9 T8 91 -7.812
9 T8 92 -8.789
9 T8 93 -9.277
9 T8 94 -8.789
9 T8 95 -7.812
9 T8 96 -6.348
9 T8 97 -5.859
9 T8 98 -5.371
9 T8 99 -5.371
9 T8 100 -5.371
9 T8 101 -5.371
9 T8 102 -3.906
9 T8 103 -1.953
9 T8 104 1.465
9 T8 105 4.883
9 T8 106 6.836
9 T8 107 6.836
9 T8 108 5.371
9 T8 109 2.930
9 T8 110 1.465
9 T8 111 0.977
9 T8 112 2.441
9 T8 113 3.906
9 T8 114 4.883
9 T8 115 5.371
9 T8 116 5.859
9 T8 117 4.883
9 T8 118 4.395
9 T8 119 3.906
9 T8 120 3.418
9 T8 121 3.418
9 T8 122 3.906
9 T8 123 4.883
9 T8 124 6.348
9 T8 125 7.812
9 T8 126 9.277
9 T8 127 11.230
9 T8 128 12.207
9 T8 129 13.184
9 T8 130 12.207
9 T8 131 9.766
9 T8 132 5.371
9 T8 133 1.953
9 T8 134 0.000
9 T8 135 -0.488
9 T8 136 0.000
9 T8 137 0.488
9 T8 138 0.488
9 T8 139 0.977
9 T8 140 2.441
9 T8 141 4.395
9 T8 142 6.348
9 T8 143 6.348
9 T8 144 3.906
9 T8 145 0.977
9 T8 146 -0.488
9 T8 147 0.488
9 T8 148 3.418
9 T8 149 5.859
9 T8 150 7.324
9 T8 151 6.348
9 T8 152 3.906
9 T8 153 1.953
9 T8 154 0.977
9 T8 155 0.977
9 T8 156 0.977
9 T8 157 0.000
9 T8 158 -0.977
9 T8 159 -1.953
9 T8 160 -0.977
9 T8 161 1.465
9 T8 162 4.395
9 T8 163 5.371
9 T8 164 3.906
9 T8 165 0.488
9 T8 166 -2.930
9 T8 167 -3.906
9 T8 168 -2.441
9 T8 169 0.000
9 T8 170 1.465
9 T8 171 1.465
9 T8 172 0.000
9 T8 173 -0.977
9 T8 174 -0.977
9 T8 175 -0.977
9 T8 176 -0.488
9 T8 177 -1.465
9 T8 178 -2.441
9 T8 179 -2.930
9 T8 180 -2.441
9 T8 181 -0.488
9 T8 182 0.488
9 T8 183 0.488
9 T8 184 -0.977
9 T8 185 -2.441
9 T8 186 -2.930
9 T8 187 -0.977
9 T8 188 1.953
9 T8 189 4.395
9 T8 190 4.395
9 T8 191 2.441
9 T8 192 0.000
9 T8 193 -0.488
9 T8 194 1.465
9 T8 195 5.371
9 T8 196 8.789
9 T8 197 10.742
9 T8 198 10.742
9 T8 199 10.254
9 T8 200 10.254
9 T8 201 11.230
9 T8 202 12.207
9 T8 203 11.719
9 T8 204 9.766
9 T8 205 8.301
9 T8 206 8.301
9 T8 207 10.742
9 T8 208 13.672
9 T8 209 16.113
9 T8 210 17.090
9 T8 211 16.602
9 T8 212 16.602
9 T8 213 16.602
9 T8 214 17.090
9 T8 215 17.090
9 T8 216 16.602
9 T8 217 16.602
9 T8 218 17.090
9 T8 219 19.043
9 T8 220 21.484
9 T8 221 23.926
9 T8 222 24.902
9 T8 223 23.926
9 T8 224 21.973
9 T8 225 20.020
9 T8 226 18.555
9 T8 227 18.066
9 T8 228 18.555
9 T8 229 20.020
9 T8 230 21.973
9 T8 231 23.438
9 T8 232 23.438
9 T8 233 21.484
9 T8 234 18.555
9 T8 235 15.625
9 T8 236 15.137
9 T8 237 16.602
9 T8 238 19.043
9 T8 239 20.020
9 T8 240 18.555
9 T8 241 15.625
9 T8 242 12.695
9 T8 243 10.254
9 T8 244 8.789
9 T8 245 8.301
9 T8 246 7.812
9 T8 247 7.324
9 T8 248 7.812
9 T8 249 7.324
9 T8 250 6.836
9 T8 251 5.371
9 T8 252 3.418
9 T8 253 2.930
9 T8 254 4.395
9 T8 255 6.836
# T7 chan 14
9 T7 0 -4.405
9 T7 1 -6.358
9 T7 2 -6.846
9 T7 3 -6.358
9 T7 4 -5.870
9 T7 5 -6.846
9 T7 6 -8.311
9 T7 7 -9.288
9 T7 8 -7.823
9 T7 9 -4.405
9 T7 10 -0.498
9 T7 11 0.966
9 T7 12 -0.010
9 T7 13 -1.963
9 T7 14 -2.940
9 T7 15 -1.963
9 T7 16 -0.498
9 T7 17 -0.498
9 T7 18 -1.963
9 T7 19 -3.916
9 T7 20 -4.405
9 T7 21 -2.452
9 T7 22 0.478
9 T7 23 3.408
9 T7 24 3.896
9 T7 25 3.408
9 T7 26 1.943
9 T7 27 1.943
9 T7 28 3.408
9 T7 29 4.384
9 T7 30 4.873
9 T7 31 4.384
9 T7 32 3.408
9 T7 33 3.408
9 T7 34 5.361
9 T7 35 7.802
9 T7 36 9.267
9 T7 37 7.802
9 T7 38 2.920
9 T7 39 -1.963
9 T7 40 -4.893
9 T7 41 -4.405
9 T7 42 -1.475
9 T7 43 1.455
9 T7 44 0.966
9 T7 45 -1.963
9 T7 46 -5.870
9 T7 47 -8.799
9 T7 48 -9.288
9 T7 49 -8.799
9 T7 50 -7.823
9 T7 51 -7.823
9 T7 52 -7.823
9 T7 53 -7.334
9 T7 54 -6.358
9 T7 55 -5.870
9 T7 56 -5.870
9 T7 57 -7.823
9 T7 58 -9.288
9 T7 59 -8.799
9 T7 60 -5.381
9 T7 61 -0.498
9 T7 62 3.896
9 T7 63 5.849
9 T7 64 4.873
9 T7 65 2.920
9 T7 66 2.431
9 T7 67 3.408
9 T7 68 4.384
9 T7 69 2.431
9 T7 70 -1.963
9 T7 71 -7.334
9 T7 72 -10.752
9 T7 73 -10.752
9 T7 74 -7.823
9 T7 75 -5.381
9 T7 76 -4.893
9 T7 77 -5.870
9 T7 78 -7.334
9 T7 79 -6.846
9 T7 80 -5.381
9 T7 81 -4.405
9 T7 82 -4.405
9 T7 83 -7.334
9 T7 84 -10.752
9 T7 85 -13.682
9 T7 86 -15.147
9 T7 87 -14.170
9 T7 88 -12.217
9 T7 89 -9.288
9 T7 90 -6.846
9 T7 91 -5.870
9 T7 92 -5.870
9 T7 93 -6.846
9 T7 94 -7.823
9 T7 95 -7.823
9 T7 96 -7.823
9 T7 97 -6.846
9 T7 98 -6.846
9 T7 99 -6.846
9 T7 100 -6.358
9 T7 101 -4.893
9 T7 102 -1.475
9 T7 103 1.455
9 T7 104 3.896
9 T7 105 4.873
9 T7 106 3.408
9 T7 107 1.943
9 T7 108 -0.010
9 T7 109 -1.475
9 T7 110 -1.475
9 T7 111 -2.452
9 T7 112 -3.428
9 T7 113 -4.893
9 T7 114 -6.358
9 T7 115 -6.846
9 T7 116 -5.381
9 T7 117 -1.963
9 T7 118 0.966
9 T7 119 1.455
9 T7 120 0.478
9 T7 121 -1.963
9 T7 122 -2.940
9 T7 123 -1.475
9 T7 124 2.431
9 T7 125 6.337
9 T7 126 7.802
9 T7 127 6.826
9 T7 128 3.896
9 T7 129 0.966
9 T7 130 -0.987
9 T7 131 -2.940
9 T7 132 -3.916
9 T7 133 -5.381
9 T7 134 -5.870
9 T7 135 -5.870
9 T7 136 -4.893
9 T7 137 -3.916
9 T7 138 -4.893
9 T7 139 -6.358
9 T7 140 -7.823
9 T7 141 -6.846
9 T7 142 -3.916
9 T7 143 0.478
9 T7 144 3.408
9 T7 145 3.408
9 T7 146 -0.010
9 T7 147 -4.893
9 T7 148 -8.799
9 T7 149 -9.776
9 T7 150 -7.823
9 T7 151 -4.405
9 T7 152 -2.452
9 T7 153 -1.475
9 T7 154 -0.987
9 T7 155 -1.475
9 T7 156 -0.987
9 T7 157 -0.987
9 T7 158 -2.452
9 T7 159 -4.893
9 T7 160 -7.334
9 T7 161 -7.334
9 T7 162 -4.893
9 T7 163 -0.498
9 T7 164 2.431
9 T7 165 2.431
9 T7 166 -0.498
9 T7 167 -4.893
9 T7 168 -6.846
9 T7 169 -5.381
9 T7 170 -2.452
9 T7 171 -0.010
9 T7 172 -0.010
9 T7 173 -2.452
9 T7 174 -5.870
9 T7 175 -7.334
9 T7 176 -6.358
9 T7 177 -2.940
9 T7 178 0.478
9 T7 179 1.455
9 T7 180 0.966
9 T7 181 -0.987
9 T7 182 -0.987
9 T7 183 0.966
9 T7 184 3.896
9 T7 185 6.826
9 T7 186 6.826
9 T7 187 4.384
9 T7 188 1.943
9 T7 189 -0.010
9 T7 190 -0.498
9 T7 191 -0.498
9 T7 192 -1.475
9 T7 193 -2.940
9 T7 194 -4.893
9 T7 195 -4.405
9 T7 196 -1.475
9 T7 197 2.431
9 T7 198 3.896
9 T7 199 1.943
9 T7 200 -2.452
9 T7 201 -7.334
9 T7 202 -9.288
9 T7 203 -7.823
9 T7 204 -5.381
9 T7 205 -5.381
9 T7 206 -7.334
9 T7 207 -11.241
9 T7 208 -13.194
9 T7 209 -12.705
9 T7 210 -10.752
9 T7 211 -10.264
9 T7 212 -11.241
9 T7 213 -14.170
9 T7 214 -15.635
9 T7 215 -14.659
9 T7 216 -11.729
9 T7 217 -10.264
9 T7 218 -10.752
9 T7 219 -14.170
9 T7 220 -18.077
9 T7 221 -20.030
9 T7 222 -20.030
9 T7 223 -18.565
9 T7 224 -19.053
9 T7 225 -21.006
9 T7 226 -23.448
9 T7 227 -25.401
9 T7 228 -25.401
9 T7 229 -24.424
9 T7 230 -24.424
9 T7 231 -25.889
9 T7 232 -28.819
9 T7 233 -31.260
9 T7 234 -32.237
9 T7 235 -31.260
9 T7 236 -29.307
9 T7 237 -25.401
9 T7 238 -21.006
9 T7 239 -16.612
9 T7 240 -13.682
9 T7 241 -13.682
9 T7 242 -17.100
9 T7 243 -22.471
9 T7 244 -27.354
9 T7 245 -28.330
9 T7 246 -26.377
9 T7 247 -23.448
9 T7 248 -21.983
9 T7 249 -22.471
9 T7 250 -24.913
9 T7 251 -27.842
9 T7 252 -29.795
9 T7 253 -29.795
9 T7 254 -28.330
9 T7 255 -24.913
# CZ chan 15
9 CZ 0 -4.537
9 CZ 1 -6.490
9 CZ 2 -8.443
9 CZ 3 -10.396
9 CZ 4 -11.373
9 CZ 5 -11.373
9 CZ 6 -11.861
9 CZ 7 -12.349
9 CZ 8 -12.838
9 CZ 9 -11.861
9 CZ 10 -8.931
9 CZ 11 -5.514
9 CZ 12 -2.584
9 CZ 13 -0.631
9 CZ 14 -0.142
9 CZ 15 0.346
9 CZ 16 0.834
9 CZ 17 0.834
9 CZ 18 0.346
9 CZ 19 -0.142
9 CZ 20 -1.119
9 CZ 21 -1.119
9 CZ 22 -0.631
9 CZ 23 1.322
9 CZ 24 3.276
9 CZ 25 4.740
9 CZ 26 5.717
9 CZ 27 6.694
9 CZ 28 6.694
9 CZ 29 6.694
9 CZ 30 6.694
9 CZ 31 6.694
9 CZ 32 7.182
9 CZ 33 8.158
9 CZ 34 8.158
9 CZ 35 8.158
9 CZ 36 6.694
9 CZ 37 4.740
9 CZ 38 2.787
9 CZ 39 0.834
9 CZ 40 -0.142
9 CZ 41 -1.119
9 CZ 42 -1.607
9 CZ 43 -2.096
9 CZ 44 -2.584
9 CZ 45 -3.560
9 CZ 46 -4.537
9 CZ 47 -5.514
9 CZ 48 -6.490
9 CZ 49 -6.978
9 CZ 50 -6.002
9 CZ 51 -4.537
9 CZ 52 -2.584
9 CZ 53 -2.096
9 CZ 54 -1.607
9 CZ 55 -2.096
9 CZ 56 -2.096
9 CZ 57 -2.096
9 CZ 58 -1.119
9 CZ 59 -0.142
9 CZ 60 0.834
9 CZ 61 2.299
9 CZ 62 4.252
9 CZ 63 6.205
9 CZ 64 8.158
9 CZ 65 10.111
9 CZ 66 10.600
9 CZ 67 10.111
9 CZ 68 6.694
9 CZ 69 1.322
9 CZ 70 -5.025
9 CZ 71 -10.396
9 CZ 72 -13.326
9 CZ 73 -13.814
9 CZ 74 -12.838
9 CZ 75 -12.349
9 CZ 76 -12.349
9 CZ 77 -13.814
9 CZ 78 -15.279
9 CZ 79 -15.279
9 CZ 80 -15.279
9 CZ 81 -15.279
9 CZ 82 -16.256
9 CZ 83 -17.721
9 CZ 84 -19.674
9 CZ 85 -20.650
9 CZ 86 -21.627
9 CZ 87 -23.092
9 CZ 88 -25.533
9 CZ 89 -27.486
9 CZ 90 -28.463
9 CZ 91 -26.998
9 CZ 92 -23.580
9 CZ 93 -20.162
9 CZ 94 -19.185
9 CZ 95 -20.650
9 CZ 96 -23.092
9 CZ 97 -25.533
9 CZ 98 -25.045
9 CZ 99 -22.603
9 CZ 100 -20.650
9 CZ 101 -18.697
9 CZ 102 -16.256
9 CZ 103 -13.326
9 CZ 104 -9.908
9 CZ 105 -7.467
9 CZ 106 -7.955
9 CZ 107 -12.349
9 CZ 108 -19.185
9 CZ 109 -25.533
9 CZ 110 -28.463
9 CZ 111 -27.974
9 CZ 112 -24.556
9 CZ 113 -21.139
9 CZ 114 -19.185
9 CZ 115 -18.209
9 CZ 116 -18.697
9 CZ 117 -17.232
9 CZ 118 -15.767
9 CZ 119 -15.279
9 CZ 120 -15.767
9 CZ 121 -16.744
9 CZ 122 -16.256
9 CZ 123 -14.303
9 CZ 124 -9.908
9 CZ 125 -6.002
9 CZ 126 -2.584
9 CZ 127 -1.607
9 CZ 128 -2.096
9 CZ 129 -4.049
9 CZ 130 -6.490
9 CZ 131 -9.420
9 CZ 132 -12.838
9 CZ 133 -14.303
9 CZ 134 -14.303
9 CZ 135 -12.838
9 CZ 136 -10.885
9 CZ 137 -9.420
9 CZ 138 -8.931
9 CZ 139 -8.443
9 CZ 140 -7.955
9 CZ 141 -6.978
9 CZ 142 -6.978
9 CZ 143 -7.955
9 CZ 144 -10.885
9 CZ 145 -14.303
9 CZ 146 -16.256
9 CZ 147 -16.256
9 CZ 148 -14.791
9 CZ 149 -12.838
9 CZ 150 -11.373
9 CZ 151 -11.373
9 CZ 152 -11.861
9 CZ 153 -11.373
9 CZ 154 -10.396
9 CZ 155 -9.420
9 CZ 156 -9.420
9 CZ 157 -10.885
9 CZ 158 -13.326
9 CZ 159 -15.767
9 CZ 160 -15.767
9 CZ 161 -14.303
9 CZ 162 -11.861
9 CZ 163 -10.396
9 CZ 164 -11.861
9 CZ 165 -15.767
9 CZ 166 -20.650
9 CZ 167 -23.580
9 CZ 168 -23.092
9 CZ 169 -19.674
9 CZ 170 -16.256
9 CZ 171 -16.256
9 CZ 172 -18.697
9 CZ 173 -22.115
9 CZ 174 -24.556
9 CZ 175 -24.068
9 CZ 176 -21.627
9 CZ 177 -20.162
9 CZ 178 -20.650
9 CZ 179 -23.580
9 CZ 180 -26.998
9 CZ 181 -28.951
9 CZ 182 -29.928
9 CZ 183 -29.439
9 CZ 184 -29.439
9 CZ 185 -30.416
9 CZ 186 -32.369
9 CZ 187 -34.322
9 CZ 188 -35.299
9 CZ 189 -36.275
9 CZ 190 -37.252
9 CZ 191 -39.205
9 CZ 192 -41.646
9 CZ 193 -43.599
9 CZ 194 -44.088
9 CZ 195 -43.599
9 CZ 196 -43.111
9 CZ 197 -43.599
9 CZ 198 -45.064
9 CZ 199 -47.017
9 CZ 200 -48.971
9 CZ 201 -50.924
9 CZ 202 -52.877
9 CZ 203 -55.806
9 CZ 204 -59.224
9 CZ 205 -62.642
9 CZ 206 -65.084
9 CZ 207 -66.549
9 CZ 208 -66.549
9 CZ 209 -66.060
9 CZ 210 -65.084
9 CZ 211 -65.084
9 CZ 212 -66.060
9 CZ 213 -67.525
9 CZ 214 -69.967
9 CZ 215 -72.408
9 CZ 216 -74.361
9 CZ 217 -76.803
9 CZ 218 -77.779
9 CZ 219 -77.779
9 CZ 220 -76.314
9 CZ 221 -73.385
9 CZ 222 -71.431
9 CZ 223 -71.431
9 CZ 224 -74.361
9 CZ 225 -77.291
9 CZ 226 -79.732
9 CZ 227 -79.732
9 CZ 228 -77.779
9 CZ 229 -75.826
9 CZ 230 -75.826
9 CZ 231 -78.267
9 CZ 232 -81.685
9 CZ 233 -83.639
9 CZ 234 -82.662
9 CZ 235 -78.756
9 CZ 236 -73.873
9 CZ 237 -68.990
9 CZ 238 -65.084
9 CZ 239 -61.666
9 CZ 240 -59.713
9 CZ 241 -58.248
9 CZ 242 -57.760
9 CZ 243 -57.760
9 CZ 244 -58.736
9 CZ 245 -61.178
9 CZ 246 -63.619
9 CZ 247 -65.572
9 CZ 248 -67.037
9 CZ 249 -68.014
9 CZ 250 -69.967
9 CZ 251 -73.385
9 CZ 252 -78.267
9 CZ 253 -83.639
9 CZ 254 -89.010
9 CZ 255 -93.892
# C3 chan 16
9 C3 0 -3.581
9 C3 1 -3.092
9 C3 2 -2.116
9 C3 3 -1.139
9 C3 4 -0.651
9 C3 5 -1.139
9 C3 6 -2.116
9 C3 7 -4.069
9 C3 8 -6.510
9 C3 9 -6.999
9 C3 10 -6.510
9 C3 11 -4.557
9 C3 12 -2.116
9 C3 13 -0.163
9 C3 14 0.326
9 C3 15 -0.163
9 C3 16 -1.139
9 C3 17 -1.628
9 C3 18 -1.139
9 C3 19 -0.651
9 C3 20 -0.163
9 C3 21 0.326
9 C3 22 0.814
9 C3 23 1.302
9 C3 24 1.790
9 C3 25 1.790
9 C3 26 1.790
9 C3 27 1.302
9 C3 28 1.302
9 C3 29 1.302
9 C3 30 1.790
9 C3 31 2.279
9 C3 32 2.279
9 C3 33 2.279
9 C3 34 1.790
9 C3 35 1.790
9 C3 36 1.302
9 C3 37 0.814
9 C3 38 0.326
9 C3 39 -0.163
9 C3 40 -0.163
9 C3 41 -0.163
9 C3 42 -0.163
9 C3 43 -1.139
9 C3 44 -2.116
9 C3 45 -3.092
9 C3 46 -4.069
9 C3 47 -4.557
9 C3 48 -5.046
9 C3 49 -5.046
9 C3 50 -5.046
9 C3 51 -4.557
9 C3 52 -4.069
9 C3 53 -3.092
9 C3 54 -3.092
9 C3 55 -3.581
9 C3 56 -4.069
9 C3 57 -4.557
9 C3 58 -5.046
9 C3 59 -5.046
9 C3 60 -5.534
9 C3 61 -6.022
9 C3 62 -5.534
9 C3 63 -4.557
9 C3 64 -2.604
9 C3 65 -0.163
9 C3 66 1.790
9 C3 67 1.790
9 C3 68 0.326
9 C3 69 -1.628
9 C3 70 -4.069
9 C3 71 -5.534
9 C3 72 -6.510
9 C3 73 -6.510
9 C3 74 -6.022
9 C3 75 -5.534
9 C3 76 -5.534
9 C3 77 -5.534
9 C3 78 -5.534
9 C3 79 -5.046
9 C3 80 -4.557
9 C3 81 -4.557
9 C3 82 -4.557
9 C3 83 -5.046
9 C3 84 -5.534
9 C3 85 -6.022
9 C3 86 -6.022
9 C3 87 -6.022
9 C3 88 -5.534
9 C3 89 -5.534
9 C3 90 -5.046
9 C3 91 -4.069
9 C3 92 -2.604
9 C3 93 -1.628
9 C3 94 -1.139
9 C3 95 -1.628
9 C3 96 -2.116
9 C3 97 -2.604
9 C3 98 -2.116
9 C3 99 -1.628
9 C3 100 -1.139
9 C3 101 -0.163
9 C3 102 -0.163
9 C3 103 -0.163
9 C3 104 -0.163
9 C3 105 -0.651
9 C3 106 -1.139
9 C3 107 -1.628
9 C3 108 -2.116
9 C3 109 -2.116
9 C3 110 -1.628
9 C3 111 -0.651
9 C3 112 -0.651
9 C3 113 -0.651
9 C3 114 -1.139
9 C3 115 -2.116
9 C3 116 -3.092
9 C3 117 -4.069
9 C3 118 -4.557
9 C3 119 -4.557
9 C3 120 -3.581
9 C3 121 -1.628
9 C3 122 -0.163
9 C3 123 0.814
9 C3 124 1.302
9 C3 125 0.814
9 C3 126 0.326
9 C3 127 -0.163
9 C3 128 -1.139
9 C3 129 -2.116
9 C3 130 -3.092
9 C3 131 -4.069
9 C3 132 -4.557
9 C3 133 -4.557
9 C3 134 -3.581
9 C3 135 -3.092
9 C3 136 -3.581
9 C3 137 -4.069
9 C3 138 -4.557
9 C3 139 -5.046
9 C3 140 -4.557
9 C3 141 -4.069
9 C3 142 -2.604
9 C3 143 -1.628
9 C3 144 -1.628
9 C3 145 -1.628
9 C3 146 -2.604
9 C3 147 -2.604
9 C3 148 -3.092
9 C3 149 -3.092
9 C3 150 -3.581
9 C3 151 -3.092
9 C3 152 -1.628
9 C3 153 -0.163
9 C3 154 1.302
9 C3 155 1.790
9 C3 156 1.302
9 C3 157 0.326
9 C3 158 -0.651
9 C3 159 -0.651
9 C3 160 0.326
9 C3 161 0.814
9 C3 162 1.302
9 C3 163 1.302
9 C3 164 0.814
9 C3 165 0.326
9 C3 166 0.326
9 C3 167 0.326
9 C3 168 0.326
9 C3 169 0.326
9 C3 170 -0.651
9 C3 171 -0.651
9 C3 172 -0.651
9 C3 173 -0.163
9 C3 174 0.814
9 C3 175 0.814
9 C3 176 0.814
9 C3 177 -0.163
9 C3 178 -1.628
9 C3 179 -2.116
9 C3 180 -1.139
9 C3 181 0.326
9 C3 182 1.790
9 C3 183 3.743
9 C3 184 4.232
9 C3 185 4.720
9 C3 186 4.232
9 C3 187 3.743
9 C3 188 3.743
9 C3 189 3.255
9 C3 190 2.767
9 C3 191 2.767
9 C3 192 2.279
9 C3 193 1.302
9 C3 194 0.326
9 C3 195 -1.139
9 C3 196 -2.116
9 C3 197 -3.581
9 C3 198 -3.581
9 C3 199 -3.581
9 C3 200 -3.581
9 C3 201 -3.092
9 C3 202 -3.092
9 C3 203 -3.092
9 C3 204 -3.581
9 C3 205 -4.069
9 C3 206 -4.557
9 C3 207 -5.534
9 C3 208 -6.022
9 C3 209 -6.022
9 C3 210 -6.022
9 C3 211 -5.534
9 C3 212 -4.557
9 C3 213 -4.069
9 C3 214 -4.557
9 C3 215 -5.046
9 C3 216 -6.022
9 C3 217 -6.510
9 C3 218 -6.510
9 C3 219 -6.022
9 C3 220 -5.534
9 C3 221 -5.046
9 C3 222 -6.022
9 C3 223 -6.999
9 C3 224 -8.464
9 C3 225 -9.440
9 C3 226 -9.440
9 C3 227 -9.440
9 C3 228 -9.440
9 C3 229 -10.417
9 C3 230 -10.905
9 C3 231 -12.370
9 C3 232 -12.858
9 C3 233 -13.346
9 C3 234 -13.346
9 C3 235 -13.346
9 C3 236 -12.858
9 C3 237 -11.882
9 C3 238 -11.393
9 C3 239 -10.905
9 C3 240 -10.417
9 C3 241 -10.417
9 C3 242 -9.928
9 C3 243 -9.440
9 C3 244 -9.440
9 C3 245 -9.928
9 C3 246 -10.905
9 C3 247 -11.882
9 C3 248 -11.882
9 C3 249 -11.393
9 C3 250 -10.905
9 C3 251 -10.905
9 C3 252 -11.393
9 C3 253 -11.393
9 C3 254 -10.905
9 C3 255 -9.928
# C4 chan 17
9 C4 0 -2.981
9 C4 1 -2.492
9 C4 2 -1.516
9 C4 3 -0.051
9 C4 4 0.926
9 C4 5 1.902
9 C4 6 1.902
9 C4 7 1.902
9 C4 8 1.902
9 C4 9 2.391
9 C4 10 2.879
9 C4 11 2.879
9 C4 12 2.879
9 C4 13 2.879
9 C4 14 2.391
9 C4 15 2.391
9 C4 16 2.391
9 C4 17 2.391
9 C4 18 1.902
9 C4 19 0.437
9 C4 20 -0.539
9 C4 21 -0.051
9 C4 22 0.926
9 C4 23 1.902
9 C4 24 2.879
9 C4 25 2.879
9 C4 26 2.879
9 C4 27 2.879
9 C4 28 2.879
9 C4 29 2.879
9 C4 30 2.879
9 C4 31 2.391
9 C4 32 1.414
9 C4 33 0.926
9 C4 34 -0.051
9 C4 35 -0.051
9 C4 36 -0.051
9 C4 37 0.926
9 C4 38 0.926
9 C4 39 0.926
9 C4 40 -0.051
9 C4 41 -1.516
9 C4 42 -2.981
9 C4 43 -3.957
9 C4 44 -4.934
9 C4 45 -3.957
9 C4 46 -3.469
9 C4 47 -2.492
9 C4 48 -2.004
9 C4 49 -1.516
9 C4 50 -1.027
9 C4 51 -0.539
9 C4 52 0.437
9 C4 53 1.414
9 C4 54 2.879
9 C4 55 3.855
9 C4 56 4.832
9 C4 57 4.832
9 C4 58 4.344
9 C4 59 3.855
9 C4 60 2.879
9 C4 61 2.391
9 C4 62 1.414
9 C4 63 1.414
9 C4 64 0.437
9 C4 65 -0.539
9 C4 66 -2.004
9 C4 67 -3.469
9 C4 68 -3.957
9 C4 69 -4.934
9 C4 70 -5.422
9 C4 71 -5.422
9 C4 72 -5.910
9 C4 73 -5.422
9 C4 74 -4.445
9 C4 75 -3.469
9 C4 76 -2.492
9 C4 77 -2.492
9 C4 78 -2.492
9 C4 79 -2.981
9 C4 80 -2.981
9 C4 81 -2.981
9 C4 82 -2.981
9 C4 83 -3.469
9 C4 84 -4.445
9 C4 85 -5.422
9 C4 86 -5.910
9 C4 87 -5.910
9 C4 88 -5.422
9 C4 89 -3.957
9 C4 90 -2.492
9 C4 91 -2.004
9 C4 92 -2.492
9 C4 93 -3.469
9 C4 94 -3.469
9 C4 95 -3.469
9 C4 96 -2.004
9 C4 97 -1.027
9 C4 98 -0.051
9 C4 99 -0.539
9 C4 100 -1.516
9 C4 101 -2.981
9 C4 102 -3.957
9 C4 103 -3.957
9 C4 104 -2.004
9 C4 105 0.437
9 C4 106 2.391
9 C4 107 2.879
9 C4 108 2.879
9 C4 109 1.414
9 C4 110 0.437
9 C4 111 0.437
9 C4 112 0.437
9 C4 113 0.926
9 C4 114 0.926
9 C4 115 0.437
9 C4 116 0.437
9 C4 117 0.437
9 C4 118 0.437
9 C4 119 -0.051
9 C4 120 -0.539
9 C4 121 -1.516
9 C4 122 -2.492
9 C4 123 -2.981
9 C4 124 -2.492
9 C4 125 -1.027
9 C4 126 0.926
9 C4 127 2.391
9 C4 128 3.367
9 C4 129 2.879
9 C4 130 1.414
9 C4 131 -1.027
9 C4 132 -2.492
9 C4 133 -3.469
9 C4 134 -3.469
9 C4 135 -3.469
9 C4 136 -3.469
9 C4 137 -3.469
9 C4 138 -2.981
9 C4 139 -2.492
9 C4 140 -2.004
9 C4 141 -1.027
9 C4 142 -0.539
9 C4 143 -0.051
9 C4 144 -0.539
9 C4 145 -1.027
9 C4 146 -1.027
9 C4 147 -0.539
9 C4 148 -0.539
9 C4 149 -0.051
9 C4 150 -0.051
9 C4 151 -0.051
9 C4 152 -1.027
9 C4 153 -2.004
9 C4 154 -2.492
9 C4 155 -2.492
9 C4 156 -2.492
9 C4 157 -2.492
9 C4 158 -2.981
9 C4 159 -3.469
9 C4 160 -3.957
9 C4 161 -3.469
9 C4 162 -2.981
9 C4 163 -2.492
9 C4 164 -2.981
9 C4 165 -3.957
9 C4 166 -5.422
9 C4 167 -6.399
9 C4 168 -5.910
9 C4 169 -4.934
9 C4 170 -3.469
9 C4 171 -2.492
9 C4 172 -2.492
9 C4 173 -3.469
9 C4 174 -4.445
9 C4 175 -4.934
9 C4 176 -5.910
9 C4 177 -6.399
9 C4 178 -6.887
9 C4 179 -6.399
9 C4 180 -5.910
9 C4 181 -5.422
9 C4 182 -4.934
9 C4 183 -4.445
9 C4 184 -4.445
9 C4 185 -4.445
9 C4 186 -3.469
9 C4 187 -2.981
9 C4 188 -2.492
9 C4 189 -2.492
9 C4 190 -3.469
9 C4 191 -4.445
9 C4 192 -5.422
9 C4 193 -4.934
9 C4 194 -3.469
9 C4 195 -1.516
9 C4 196 0.437
9 C4 197 1.902
9 C4 198 2.391
9 C4 199 2.879
9 C4 200 2.879
9 C4 201 3.855
9 C4 202 4.344
9 C4 203 4.832
9 C4 204 4.344
9 C4 205 3.855
9 C4 206 3.855
9 C4 207 3.367
9 C4 208 3.855
9 C4 209 4.344
9 C4 210 4.832
9 C4 211 5.320
9 C4 212 5.809
9 C4 213 5.809
9 C4 214 5.809
9 C4 215 5.320
9 C4 216 5.320
9 C4 217 5.809
9 C4 218 5.809
9 C4 219 6.785
9 C4 220 7.273
9 C4 221 7.762
9 C4 222 8.250
9 C4 223 8.250
9 C4 224 7.762
9 C4 225 7.273
9 C4 226 6.785
9 C4 227 6.785
9 C4 228 7.273
9 C4 229 7.762
9 C4 230 7.762
9 C4 231 7.762
9 C4 232 8.250
9 C4 233 8.250
9 C4 234 7.762
9 C4 235 7.762
9 C4 236 7.273
9 C4 237 7.273
9 C4 238 6.785
9 C4 239 6.785
9 C4 240 5.809
9 C4 241 4.344
9 C4 242 2.391
9 C4 243 0.437
9 C4 244 -0.539
9 C4 245 -0.539
9 C4 246 0.437
9 C4 247 1.414
9 C4 248 1.902
9 C4 249 1.902
9 C4 250 0.926
9 C4 251 -0.051
9 C4 252 -1.027
9 C4 253 -2.004
9 C4 254 -2.004
9 C4 255 -1.027
# CP5 chan 18
9 CP5 0 -5.625
9 CP5 1 -5.625
9 CP5 2 -4.649
9 CP5 3 -4.161
9 CP5 4 -3.672
9 CP5 5 -3.672
9 CP5 6 -4.161
9 CP5 7 -5.625
9 CP5 8 -7.090
9 CP5 9 -7.579
9 CP5 10 -6.114
9 CP5 11 -3.672
9 CP5 12 -0.254
9 CP5 13 1.699
9 CP5 14 2.187
9 CP5 15 0.722
9 CP5 16 -1.719
9 CP5 17 -3.672
9 CP5 18 -4.161
9 CP5 19 -4.161
9 CP5 20 -2.696
9 CP5 21 -1.719
9 CP5 22 -0.743
9 CP5 23 0.234
9 CP5 24 1.211
9 CP5 25 1.211
9 CP5 26 1.699
9 CP5 27 2.187
9 CP5 28 3.164
9 CP5 29 4.628
9 CP5 30 6.582
9 CP5 31 8.046
9 CP5 32 8.535
9 CP5 33 8.046
9 CP5 34 6.582
9 CP5 35 5.117
9 CP5 36 2.675
9 CP5 37 0.722
9 CP5 38 -1.231
9 CP5 39 -2.696
9 CP5 40 -3.184
9 CP5 41 -3.184
9 CP5 42 -2.207
9 CP5 43 -2.207
9 CP5 44 -2.207
9 CP5 45 -2.696
9 CP5 46 -3.672
9 CP5 47 -5.137
9 CP5 48 -6.114
9 CP5 49 -6.602
9 CP5 50 -6.602
9 CP5 51 -6.114
9 CP5 52 -5.137
9 CP5 53 -4.161
9 CP5 54 -4.161
9 CP5 55 -4.161
9 CP5 56 -4.649
9 CP5 57 -5.625
9 CP5 58 -6.114
9 CP5 59 -7.090
9 CP5 60 -7.579
9 CP5 61 -7.090
9 CP5 62 -6.114
9 CP5 63 -3.672
9 CP5 64 -0.254
9 CP5 65 2.675
9 CP5 66 4.628
9 CP5 67 4.628
9 CP5 68 2.675
9 CP5 69 -0.254
9 CP5 70 -3.672
9 CP5 71 -6.114
9 CP5 72 -7.579
9 CP5 73 -7.090
9 CP5 74 -6.114
9 CP5 75 -5.137
9 CP5 76 -5.137
9 CP5 77 -5.137
9 CP5 78 -5.625
9 CP5 79 -5.625
9 CP5 80 -4.649
9 CP5 81 -4.161
9 CP5 82 -3.672
9 CP5 83 -5.137
9 CP5 84 -6.602
9 CP5 85 -7.579
9 CP5 86 -7.579
9 CP5 87 -7.090
9 CP5 88 -6.114
9 CP5 89 -5.625
9 CP5 90 -4.649
9 CP5 91 -3.672
9 CP5 92 -2.207
9 CP5 93 -0.743
9 CP5 94 -0.254
9 CP5 95 -0.743
9 CP5 96 -2.207
9 CP5 97 -3.184
9 CP5 98 -3.184
9 CP5 99 -2.696
9 CP5 100 -1.719
9 CP5 101 -0.743
9 CP5 102 0.234
9 CP5 103 1.211
9 CP5 104 2.675
9 CP5 105 3.652
9 CP5 106 4.140
9 CP5 107 3.652
9 CP5 108 3.164
9 CP5 109 2.187
9 CP5 110 1.211
9 CP5 111 0.234
9 CP5 112 -0.743
9 CP5 113 -1.719
9 CP5 114 -2.207
9 CP5 115 -3.184
9 CP5 116 -3.184
9 CP5 117 -2.696
9 CP5 118 -2.696
9 CP5 119 -2.696
9 CP5 120 -2.207
9 CP5 121 -0.743
9 CP5 122 0.722
9 CP5 123 2.187
9 CP5 124 3.164
9 CP5 125 3.652
9 CP5 126 4.140
9 CP5 127 3.652
9 CP5 128 2.675
9 CP5 129 0.722
9 CP5 130 -1.231
9 CP5 131 -4.161
9 CP5 132 -6.114
9 CP5 133 -7.579
9 CP5 134 -7.090
9 CP5 135 -6.114
9 CP5 136 -5.625
9 CP5 137 -5.625
9 CP5 138 -6.114
9 CP5 139 -6.114
9 CP5 140 -5.625
9 CP5 141 -4.161
9 CP5 142 -2.696
9 CP5 143 -1.231
9 CP5 144 -1.719
9 CP5 145 -2.696
9 CP5 146 -3.672
9 CP5 147 -4.649
9 CP5 148 -4.649
9 CP5 149 -4.161
9 CP5 150 -3.672
9 CP5 151 -2.207
9 CP5 152 -0.743
9 CP5 153 0.722
9 CP5 154 1.699
9 CP5 155 1.699
9 CP5 156 0.722
9 CP5 157 -0.743
9 CP5 158 -1.231
9 CP5 159 -0.743
9 CP5 160 0.234
9 CP5 161 1.211
9 CP5 162 1.211
9 CP5 163 0.234
9 CP5 164 -1.231
9 CP5 165 -1.719
9 CP5 166 -1.719
9 CP5 167 -0.743
9 CP5 168 0.234
9 CP5 169 0.722
9 CP5 170 0.722
9 CP5 171 0.722
9 CP5 172 0.722
9 CP5 173 0.234
9 CP5 174 -0.254
9 CP5 175 -1.719
9 CP5 176 -4.161
9 CP5 177 -6.602
9 CP5 178 -8.555
9 CP5 179 -9.043
9 CP5 180 -8.555
9 CP5 181 -6.114
9 CP5 182 -3.184
9 CP5 183 0.234
9 CP5 184 2.675
9 CP5 185 4.140
9 CP5 186 3.652
9 CP5 187 2.675
9 CP5 188 1.211
9 CP5 189 0.722
9 CP5 190 -0.743
9 CP5 191 -1.231
9 CP5 192 -3.184
9 CP5 193 -5.137
9 CP5 194 -6.602
9 CP5 195 -7.579
9 CP5 196 -8.067
9 CP5 197 -8.067
9 CP5 198 -8.067
9 CP5 199 -8.067
9 CP5 200 -8.555
9 CP5 201 -9.532
9 CP5 202 -10.020
9 CP5 203 -10.508
9 CP5 204 -11.485
9 CP5 205 -12.461
9 CP5 206 -12.950
9 CP5 207 -14.414
9 CP5 208 -14.903
9 CP5 209 -15.879
9 CP5 210 -15.391
9 CP5 211 -14.414
9 CP5 212 -13.438
9 CP5 213 -13.438
9 CP5 214 -13.926
9 CP5 215 -15.391
9 CP5 216 -16.368
9 CP5 217 -17.344
9 CP5 218 -17.832
9 CP5 219 -17.344
9 CP5 220 -17.344
9 CP5 221 -17.344
9 CP5 222 -18.809
9 CP5 223 -20.762
9 CP5 224 -22.715
9 CP5 225 -23.692
9 CP5 226 -24.180
9 CP5 227 -23.692
9 CP5 228 -23.692
9 CP5 229 -23.692
9 CP5 230 -23.692
9 CP5 231 -24.668
9 CP5 232 -25.645
9 CP5 233 -26.622
9 CP5 234 -27.110
9 CP5 235 -26.622
9 CP5 236 -25.157
9 CP5 237 -23.692
9 CP5 238 -22.715
9 CP5 239 -22.227
9 CP5 240 -21.739
9 CP5 241 -22.227
9 CP5 242 -22.227
9 CP5 243 -22.715
9 CP5 244 -23.692
9 CP5 245 -24.668
9 CP5 246 -25.645
9 CP5 247 -26.133
9 CP5 248 -25.157
9 CP5 249 -24.180
9 CP5 250 -23.692
9 CP5 251 -24.180
9 CP5 252 -25.157
9 CP5 253 -25.645
9 CP5 254 -24.668
9 CP5 255 -22.227
# CP6 chan 19
9 CP6 0 -7.375
9 CP6 1 -6.887
9 CP6 2 -6.399
9 CP6 3 -4.934
9 CP6 4 -3.469
9 CP6 5 -1.516
9 CP6 6 -0.539
9 CP6 7 -0.051
9 CP6 8 0.437
9 CP6 9 1.414
9 CP6 10 1.902
9 CP6 11 2.879
9 CP6 12 3.367
9 CP6 13 2.879
9 CP6 14 1.902
9 CP6 15 0.926
9 CP6 16 0.437
9 CP6 17 -0.539
9 CP6 18 -1.027
9 CP6 19 -2.004
9 CP6 20 -2.492
9 CP6 21 -2.492
9 CP6 22 -1.516
9 CP6 23 -0.051
9 CP6 24 1.414
9 CP6 25 1.902
9 CP6 26 2.879
9 CP6 27 3.367
9 CP6 28 4.832
9 CP6 29 6.785
9 CP6 30 8.250
9 CP6 31 8.738
9 CP6 32 7.762
9 CP6 33 6.785
9 CP6 34 5.320
9 CP6 35 4.344
9 CP6 36 4.344
9 CP6 37 4.344
9 CP6 38 3.367
9 CP6 39 1.414
9 CP6 40 -0.539
9 CP6 41 -3.469
9 CP6 42 -5.422
9 CP6 43 -6.399
9 CP6 44 -6.887
9 CP6 45 -6.399
9 CP6 46 -5.422
9 CP6 47 -4.445
9 CP6 48 -3.469
9 CP6 49 -2.981
9 CP6 50 -2.004
9 CP6 51 -1.516
9 CP6 52 0.437
9 CP6 53 2.879
9 CP6 54 5.809
9 CP6 55 8.250
9 CP6 56 9.715
9 CP6 57 10.203
9 CP6 58 8.738
9 CP6 59 7.273
9 CP6 60 5.320
9 CP6 61 4.832
9 CP6 62 4.832
9 CP6 63 4.832
9 CP6 64 4.832
9 CP6 65 4.344
9 CP6 66 3.367
9 CP6 67 2.391
9 CP6 68 0.926
9 CP6 69 -1.516
9 CP6 70 -3.957
9 CP6 71 -5.422
9 CP6 72 -6.399
9 CP6 73 -5.910
9 CP6 74 -4.934
9 CP6 75 -3.469
9 CP6 76 -2.492
9 CP6 77 -2.004
9 CP6 78 -2.004
9 CP6 79 -1.516
9 CP6 80 -1.516
9 CP6 81 -1.516
9 CP6 82 -2.004
9 CP6 83 -2.981
9 CP6 84 -4.934
9 CP6 85 -6.399
9 CP6 86 -6.887
9 CP6 87 -5.422
9 CP6 88 -3.469
9 CP6 89 -1.027
9 CP6 90 0.926
9 CP6 91 1.414
9 CP6 92 1.414
9 CP6 93 0.926
9 CP6 94 1.414
9 CP6 95 2.391
9 CP6 96 3.855
9 CP6 97 5.320
9 CP6 98 6.297
9 CP6 99 5.809
9 CP6 100 3.855
9 CP6 101 1.414
9 CP6 102 -0.539
9 CP6 103 -0.051
9 CP6 104 2.391
9 CP6 105 6.297
9 CP6 106 9.226
9 CP6 107 10.691
9 CP6 108 10.203
9 CP6 109 8.738
9 CP6 110 7.762
9 CP6 111 8.250
9 CP6 112 9.226
9 CP6 113 10.203
9 CP6 114 10.691
9 CP6 115 10.691
9 CP6 116 10.203
9 CP6 117 10.203
9 CP6 118 10.203
9 CP6 119 9.715
9 CP6 120 9.226
9 CP6 121 7.762
9 CP6 122 6.785
9 CP6 123 6.785
9 CP6 124 7.762
9 CP6 125 9.226
9 CP6 126 11.668
9 CP6 127 13.621
9 CP6 128 14.109
9 CP6 129 14.109
9 CP6 130 12.156
9 CP6 131 8.738
9 CP6 132 5.320
9 CP6 133 3.367
9 CP6 134 2.391
9 CP6 135 2.391
9 CP6 136 2.391
9 CP6 137 2.879
9 CP6 138 2.391
9 CP6 139 3.367
9 CP6 140 4.832
9 CP6 141 6.785
9 CP6 142 7.762
9 CP6 143 7.762
9 CP6 144 6.297
9 CP6 145 4.832
9 CP6 146 4.344
9 CP6 147 5.320
9 CP6 148 7.762
9 CP6 149 10.203
9 CP6 150 11.668
9 CP6 151 11.180
9 CP6 152 10.203
9 CP6 153 8.738
9 CP6 154 7.762
9 CP6 155 6.785
9 CP6 156 5.809
9 CP6 157 4.832
9 CP6 158 4.344
9 CP6 159 3.855
9 CP6 160 4.344
9 CP6 161 5.320
9 CP6 162 6.297
9 CP6 163 6.785
9 CP6 164 6.297
9 CP6 165 4.832
9 CP6 166 3.367
9 CP6 167 1.902
9 CP6 168 1.902
9 CP6 169 2.879
9 CP6 170 3.855
9 CP6 171 4.832
9 CP6 172 4.344
9 CP6 173 2.879
9 CP6 174 0.926
9 CP6 175 -1.027
9 CP6 176 -2.981
9 CP6 177 -3.957
9 CP6 178 -4.934
9 CP6 179 -4.934
9 CP6 180 -3.957
9 CP6 181 -2.492
9 CP6 182 -1.027
9 CP6 183 -0.051
9 CP6 184 -0.539
9 CP6 185 -1.027
9 CP6 186 -1.516
9 CP6 187 -1.516
9 CP6 188 -1.027
9 CP6 189 -1.027
9 CP6 190 -2.004
9 CP6 191 -3.957
9 CP6 192 -5.910
9 CP6 193 -6.399
9 CP6 194 -5.422
9 CP6 195 -2.981
9 CP6 196 -1.027
9 CP6 197 0.926
9 CP6 198 1.902
9 CP6 199 2.391
9 CP6 200 2.391
9 CP6 201 2.391
9 CP6 202 1.414
9 CP6 203 0.437
9 CP6 204 -1.027
9 CP6 205 -2.004
9 CP6 206 -2.981
9 CP6 207 -2.981
9 CP6 208 -2.492
9 CP6 209 -2.492
9 CP6 210 -2.004
9 CP6 211 -1.516
9 CP6 212 -1.516
9 CP6 213 -2.004
9 CP6 214 -2.492
9 CP6 215 -2.981
9 CP6 216 -3.469
9 CP6 217 -2.981
9 CP6 218 -1.027
9 CP6 219 0.437
9 CP6 220 2.391
9 CP6 221 3.367
9 CP6 222 2.879
9 CP6 223 1.414
9 CP6 224 -0.539
9 CP6 225 -1.516
9 CP6 226 -2.492
9 CP6 227 -1.516
9 CP6 228 -0.539
9 CP6 229 1.414
9 CP6 230 2.879
9 CP6 231 4.344
9 CP6 232 4.832
9 CP6 233 5.809
9 CP6 234 5.809
9 CP6 235 5.809
9 CP6 236 5.809
9 CP6 237 6.297
9 CP6 238 6.297
9 CP6 239 5.320
9 CP6 240 2.879
9 CP6 241 -0.539
9 CP6 242 -4.934
9 CP6 243 -8.352
9 CP6 244 -10.793
9 CP6 245 -10.793
9 CP6 246 -9.816
9 CP6 247 -7.863
9 CP6 248 -5.910
9 CP6 249 -5.422
9 CP6 250 -5.910
9 CP6 251 -7.863
9 CP6 252 -10.305
9 CP6 253 -11.770
9 CP6 254 -11.770
9 CP6 255 -10.305
# CP1 chan 20
9 CP1 0 -4.008
9 CP1 1 -3.520
9 CP1 2 -3.031
9 CP1 3 -2.543
9 CP1 4 -2.543
9 CP1 5 -2.543
9 CP1 6 -2.543
9 CP1 7 -3.031
9 CP1 8 -3.031
9 CP1 9 -3.520
9 CP1 10 -3.031
9 CP1 11 -2.543
9 CP1 12 -1.567
9 CP1 13 -0.590
9 CP1 14 -0.102
9 CP1 15 -0.102
9 CP1 16 -0.590
9 CP1 17 -1.078
9 CP1 18 -1.078
9 CP1 19 -0.590
9 CP1 20 -0.102
9 CP1 21 0.875
9 CP1 22 1.363
9 CP1 23 1.851
9 CP1 24 1.851
9 CP1 25 1.851
9 CP1 26 1.851
9 CP1 27 1.851
9 CP1 28 2.340
9 CP1 29 3.805
9 CP1 30 4.293
9 CP1 31 4.781
9 CP1 32 4.781
9 CP1 33 4.293
9 CP1 34 3.805
9 CP1 35 3.316
9 CP1 36 2.828
9 CP1 37 2.340
9 CP1 38 1.363
9 CP1 39 0.387
9 CP1 40 -0.102
9 CP1 41 -0.102
9 CP1 42 -0.102
9 CP1 43 -0.102
9 CP1 44 -0.590
9 CP1 45 -1.078
9 CP1 46 -1.567
9 CP1 47 -2.055
9 CP1 48 -2.055
9 CP1 49 -2.543
9 CP1 50 -2.543
9 CP1 51 -2.055
9 CP1 52 -1.078
9 CP1 53 -0.102
9 CP1 54 0.387
9 CP1 55 0.875
9 CP1 56 0.387
9 CP1 57 -0.590
9 CP1 58 -1.567
9 CP1 59 -2.543
9 CP1 60 -3.031
9 CP1 61 -3.520
9 CP1 62 -3.520
9 CP1 63 -2.055
9 CP1 64 -0.590
9 CP1 65 1.363
9 CP1 66 2.828
9 CP1 67 3.805
9 CP1 68 3.316
9 CP1 69 2.340
9 CP1 70 0.875
9 CP1 71 -0.590
9 CP1 72 -1.567
9 CP1 73 -1.567
9 CP1 74 -1.567
9 CP1 75 -1.567
9 CP1 76 -2.055
9 CP1 77 -2.055
9 CP1 78 -2.055
9 CP1 79 -1.567
9 CP1 80 -1.078
9 CP1 81 -0.102
9 CP1 82 0.387
9 CP1 83 0.387
9 CP1 84 -0.102
9 CP1 85 -0.590
9 CP1 86 -0.102
9 CP1 87 0.387
9 CP1 88 1.363
9 CP1 89 2.340
9 CP1 90 2.828
9 CP1 91 3.316
9 CP1 92 2.828
9 CP1 93 2.340
9 CP1 94 2.340
9 CP1 95 1.851
9 CP1 96 1.851
9 CP1 97 1.851
9 CP1 98 2.340
9 CP1 99 2.828
9 CP1 100 2.828
9 CP1 101 2.828
9 CP1 102 3.316
9 CP1 103 3.316
9 CP1 104 3.805
9 CP1 105 4.293
9 CP1 106 4.781
9 CP1 107 4.781
9 CP1 108 4.781
9 CP1 109 4.293
9 CP1 110 4.293
9 CP1 111 4.293
9 CP1 112 4.293
9 CP1 113 4.781
9 CP1 114 4.293
9 CP1 115 3.805
9 CP1 116 3.316
9 CP1 117 3.316
9 CP1 118 3.805
9 CP1 119 4.293
9 CP1 120 4.781
9 CP1 121 5.269
9 CP1 122 5.269
9 CP1 123 4.781
9 CP1 124 4.293
9 CP1 125 4.293
9 CP1 126 4.293
9 CP1 127 4.781
9 CP1 128 5.269
9 CP1 129 5.269
9 CP1 130 4.781
9 CP1 131 3.805
9 CP1 132 2.828
9 CP1 133 2.340
9 CP1 134 2.340
9 CP1 135 2.340
9 CP1 136 1.851
9 CP1 137 1.851
9 CP1 138 1.363
9 CP1 139 0.875
9 CP1 140 0.875
9 CP1 141 1.363
9 CP1 142 1.851
9 CP1 143 2.828
9 CP1 144 2.828
9 CP1 145 3.316
9 CP1 146 3.316
9 CP1 147 3.805
9 CP1 148 4.781
9 CP1 149 5.269
9 CP1 150 5.269
9 CP1 151 5.758
9 CP1 152 5.758
9 CP1 153 6.246
9 CP1 154 6.734
9 CP1 155 6.246
9 CP1 156 5.758
9 CP1 157 5.758
9 CP1 158 5.269
9 CP1 159 4.781
9 CP1 160 5.269
9 CP1 161 5.758
9 CP1 162 6.246
9 CP1 163 6.246
9 CP1 164 5.758
9 CP1 165 5.269
9 CP1 166 4.781
9 CP1 167 4.781
9 CP1 168 4.781
9 CP1 169 4.293
9 CP1 170 4.293
9 CP1 171 3.805
9 CP1 172 3.316
9 CP1 173 3.316
9 CP1 174 2.340
9 CP1 175 1.363
9 CP1 176 0.387
9 CP1 177 -0.590
9 CP1 178 -1.078
9 CP1 179 -1.567
9 CP1 180 -1.078
9 CP1 181 -0.590
9 CP1 182 0.387
9 CP1 183 1.851
9 CP1 184 2.340
9 CP1 185 2.828
9 CP1 186 3.316
9 CP1 187 3.316
9 CP1 188 3.805
9 CP1 189 3.805
9 CP1 190 3.316
9 CP1 191 2.340
9 CP1 192 0.875
9 CP1 193 -0.590
9 CP1 194 -1.567
9 CP1 195 -2.543
9 CP1 196 -2.543
9 CP1 197 -2.543
9 CP1 198 -2.055
9 CP1 199 -2.055
9 CP1 200 -2.543
9 CP1 201 -3.031
9 CP1 202 -3.520
9 CP1 203 -4.008
9 CP1 204 -4.985
9 CP1 205 -5.473
9 CP1 206 -6.449
9 CP1 207 -7.426
9 CP1 208 -7.914
9 CP1 209 -8.403
9 CP1 210 -7.426
9 CP1 211 -6.449
9 CP1 212 -5.473
9 CP1 213 -4.985
9 CP1 214 -5.473
9 CP1 215 -5.961
9 CP1 216 -6.938
9 CP1 217 -6.938
9 CP1 218 -7.426
9 CP1 219 -6.938
9 CP1 220 -6.938
9 CP1 221 -7.426
9 CP1 222 -7.914
9 CP1 223 -8.891
9 CP1 224 -9.867
9 CP1 225 -10.356
9 CP1 226 -10.356
9 CP1 227 -9.867
9 CP1 228 -9.867
9 CP1 229 -9.379
9 CP1 230 -8.891
9 CP1 231 -9.379
9 CP1 232 -9.379
9 CP1 233 -9.379
9 CP1 234 -9.379
9 CP1 235 -9.867
9 CP1 236 -9.867
9 CP1 237 -9.867
9 CP1 238 -9.379
9 CP1 239 -8.891
9 CP1 240 -8.891
9 CP1 241 -8.403
9 CP1 242 -8.891
9 CP1 243 -9.379
9 CP1 244 -9.867
9 CP1 245 -10.844
9 CP1 246 -11.332
9 CP1 247 -10.844
9 CP1 248 -10.844
9 CP1 249 -10.356
9 CP1 250 -10.356
9 CP1 251 -10.844
9 CP1 252 -10.844
9 CP1 253 -10.844
9 CP1 254 -9.867
9 CP1 255 -8.891
# CP2 chan 21
9 CP2 0 -4.252
9 CP2 1 -4.740
9 CP2 2 -4.252
9 CP2 3 -3.764
9 CP2 4 -2.787
9 CP2 5 -2.299
9 CP2 6 -1.322
9 CP2 7 -0.834
9 CP2 8 -0.346
9 CP2 9 0.142
9 CP2 10 0.631
9 CP2 11 0.142
9 CP2 12 0.142
9 CP2 13 0.142
9 CP2 14 -0.346
9 CP2 15 -0.346
9 CP2 16 -0.346
9 CP2 17 -0.834
9 CP2 18 -0.834
9 CP2 19 -1.322
9 CP2 20 -1.322
9 CP2 21 -1.322
9 CP2 22 -0.834
9 CP2 23 -0.346
9 CP2 24 0.142
9 CP2 25 0.142
9 CP2 26 0.631
9 CP2 27 0.631
9 CP2 28 1.607
9 CP2 29 2.096
9 CP2 30 2.584
9 CP2 31 3.072
9 CP2 32 3.560
9 CP2 33 3.560
9 CP2 34 3.072
9 CP2 35 3.072
9 CP2 36 2.584
9 CP2 37 1.607
9 CP2 38 0.631
9 CP2 39 -0.346
9 CP2 40 -1.811
9 CP2 41 -2.787
9 CP2 42 -3.764
9 CP2 43 -4.252
9 CP2 44 -4.252
9 CP2 45 -3.764
9 CP2 46 -3.276
9 CP2 47 -3.276
9 CP2 48 -2.787
9 CP2 49 -2.787
9 CP2 50 -2.299
9 CP2 51 -1.322
9 CP2 52 0.631
9 CP2 53 2.096
9 CP2 54 3.072
9 CP2 55 3.560
9 CP2 56 4.049
9 CP2 57 3.560
9 CP2 58 3.072
9 CP2 59 2.096
9 CP2 60 0.631
9 CP2 61 -0.346
9 CP2 62 -0.834
9 CP2 63 -0.834
9 CP2 64 0.142
9 CP2 65 0.631
9 CP2 66 1.119
9 CP2 67 1.119
9 CP2 68 1.119
9 CP2 69 0.631
9 CP2 70 -0.346
9 CP2 71 -0.834
9 CP2 72 -1.322
9 CP2 73 -1.322
9 CP2 74 -0.834
9 CP2 75 0.142
9 CP2 76 0.142
9 CP2 77 0.631
9 CP2 78 1.119
9 CP2 79 1.119
9 CP2 80 1.119
9 CP2 81 1.607
9 CP2 82 1.607
9 CP2 83 1.119
9 CP2 84 0.142
9 CP2 85 -0.346
9 CP2 86 0.142
9 CP2 87 1.119
9 CP2 88 2.584
9 CP2 89 3.560
9 CP2 90 4.049
9 CP2 91 4.049
9 CP2 92 3.072
9 CP2 93 2.584
9 CP2 94 2.096
9 CP2 95 2.584
9 CP2 96 3.072
9 CP2 97 3.560
9 CP2 98 3.560
9 CP2 99 3.560
9 CP2 100 2.584
9 CP2 101 2.096
9 CP2 102 1.607
9 CP2 103 2.096
9 CP2 104 3.072
9 CP2 105 4.537
9 CP2 106 6.002
9 CP2 107 6.978
9 CP2 108 6.978
9 CP2 109 6.490
9 CP2 110 6.490
9 CP2 111 6.490
9 CP2 112 6.490
9 CP2 113 6.490
9 CP2 114 6.490
9 CP2 115 6.490
9 CP2 116 6.002
9 CP2 117 6.490
9 CP2 118 6.490
9 CP2 119 6.490
9 CP2 120 6.490
9 CP2 121 5.514
9 CP2 122 4.537
9 CP2 123 3.072
9 CP2 124 3.072
9 CP2 125 3.560
9 CP2 126 4.537
9 CP2 127 6.002
9 CP2 128 6.978
9 CP2 129 7.467
9 CP2 130 7.467
9 CP2 131 6.490
9 CP2 132 5.025
9 CP2 133 3.560
9 CP2 134 2.584
9 CP2 135 2.096
9 CP2 136 2.096
9 CP2 137 2.096
9 CP2 138 2.096
9 CP2 139 2.096
9 CP2 140 2.584
9 CP2 141 3.072
9 CP2 142 3.560
9 CP2 143 4.049
9 CP2 144 4.049
9 CP2 145 4.049
9 CP2 146 4.537
9 CP2 147 5.514
9 CP2 148 6.490
9 CP2 149 6.978
9 CP2 150 7.955
9 CP2 151 7.955
9 CP2 152 7.467
9 CP2 153 6.978
9 CP2 154 6.490
9 CP2 155 5.514
9 CP2 156 5.025
9 CP2 157 4.537
9 CP2 158 4.049
9 CP2 159 4.049
9 CP2 160 4.049
9 CP2 161 4.537
9 CP2 162 4.537
9 CP2 163 5.025
9 CP2 164 4.537
9 CP2 165 4.049
9 CP2 166 3.072
9 CP2 167 2.096
9 CP2 168 2.096
9 CP2 169 2.096
9 CP2 170 2.584
9 CP2 171 2.584
9 CP2 172 2.584
9 CP2 173 1.607
9 CP2 174 -0.346
9 CP2 175 -1.811
9 CP2 176 -2.787
9 CP2 177 -3.276
9 CP2 178 -4.252
9 CP2 179 -4.252
9 CP2 180 -4.252
9 CP2 181 -3.764
9 CP2 182 -3.276
9 CP2 183 -2.787
9 CP2 184 -2.299
9 CP2 185 -1.811
9 CP2 186 -1.811
9 CP2 187 -1.811
9 CP2 188 -1.322
9 CP2 189 -1.322
9 CP2 190 -1.811
9 CP2 191 -2.787
9 CP2 192 -4.252
9 CP2 193 -5.229
9 CP2 194 -5.229
9 CP2 195 -4.740
9 CP2 196 -3.276
9 CP2 197 -2.299
9 CP2 198 -1.322
9 CP2 199 -1.322
9 CP2 200 -1.322
9 CP2 201 -1.811
9 CP2 202 -2.787
9 CP2 203 -3.764
9 CP2 204 -4.252
9 CP2 205 -5.717
9 CP2 206 -6.205
9 CP2 207 -6.694
9 CP2 208 -6.694
9 CP2 209 -6.694
9 CP2 210 -5.717
9 CP2 211 -6.205
9 CP2 212 -5.717
9 CP2 213 -6.205
9 CP2 214 -6.694
9 CP2 215 -7.670
9 CP2 216 -7.670
9 CP2 217 -7.182
9 CP2 218 -6.694
9 CP2 219 -5.717
9 CP2 220 -5.717
9 CP2 221 -6.205
9 CP2 222 -6.694
9 CP2 223 -7.670
9 CP2 224 -8.647
9 CP2 225 -8.647
9 CP2 226 -8.647
9 CP2 227 -8.158
9 CP2 228 -7.182
9 CP2 229 -6.205
9 CP2 230 -5.229
9 CP2 231 -3.764
9 CP2 232 -2.787
9 CP2 233 -1.811
9 CP2 234 -1.811
9 CP2 235 -2.299
9 CP2 236 -2.787
9 CP2 237 -3.276
9 CP2 238 -3.764
9 CP2 239 -4.740
9 CP2 240 -5.717
9 CP2 241 -7.182
9 CP2 242 -9.135
9 CP2 243 -10.600
9 CP2 244 -11.576
9 CP2 245 -12.065
9 CP2 246 -11.576
9 CP2 247 -10.600
9 CP2 248 -9.623
9 CP2 249 -8.647
9 CP2 250 -8.158
9 CP2 251 -8.158
9 CP2 252 -8.647
9 CP2 253 -9.135
9 CP2 254 -9.135
9 CP2 255 -8.647
# P3 chan 22
9 P3 0 -6.948
9 P3 1 -6.460
9 P3 2 -5.971
9 P3 3 -5.971
9 P3 4 -5.971
9 P3 5 -5.971
9 P3 6 -5.483
9 P3 7 -5.483
9 P3 8 -4.995
9 P3 9 -4.506
9 P3 10 -3.042
9 P3 11 -1.577
9 P3 12 -0.112
9 P3 13 0.865
9 P3 14 0.865
9 P3 15 0.376
9 P3 16 -1.088
9 P3 17 -2.065
9 P3 18 -3.042
9 P3 19 -3.530
9 P3 20 -2.553
9 P3 21 -1.577
9 P3 22 0.376
9 P3 23 1.353
9 P3 24 2.330
9 P3 25 1.841
9 P3 26 2.330
9 P3 27 3.306
9 P3 28 5.747
9 P3 29 8.189
9 P3 30 11.119
9 P3 31 12.095
9 P3 32 11.607
9 P3 33 10.142
9 P3 34 8.677
9 P3 35 7.212
9 P3 36 5.259
9 P3 37 2.818
9 P3 38 0.376
9 P3 39 -2.065
9 P3 40 -3.530
9 P3 41 -3.530
9 P3 42 -3.042
9 P3 43 -2.065
9 P3 44 -1.577
9 P3 45 -1.577
9 P3 46 -2.065
9 P3 47 -2.553
9 P3 48 -3.530
9 P3 49 -4.018
9 P3 50 -4.018
9 P3 51 -3.042
9 P3 52 -2.553
9 P3 53 -1.088
9 P3 54 -0.112
9 P3 55 0.376
9 P3 56 -0.112
9 P3 57 -0.600
9 P3 58 -2.065
9 P3 59 -4.018
9 P3 60 -4.506
9 P3 61 -4.506
9 P3 62 -3.530
9 P3 63 -1.088
9 P3 64 2.330
9 P3 65 5.259
9 P3 66 6.724
9 P3 67 7.212
9 P3 68 6.724
9 P3 69 4.771
9 P3 70 1.841
9 P3 71 -0.112
9 P3 72 -1.577
9 P3 73 -1.577
9 P3 74 -1.088
9 P3 75 -0.112
9 P3 76 -0.600
9 P3 77 -1.577
9 P3 78 -2.553
9 P3 79 -2.553
9 P3 80 -1.088
9 P3 81 0.376
9 P3 82 1.353
9 P3 83 1.353
9 P3 84 0.376
9 P3 85 -0.600
9 P3 86 -0.600
9 P3 87 0.865
9 P3 88 2.818
9 P3 89 4.283
9 P3 90 5.259
9 P3 91 5.259
9 P3 92 4.771
9 P3 93 4.283
9 P3 94 3.794
9 P3 95 3.306
9 P3 96 2.818
9 P3 97 3.306
9 P3 98 3.306
9 P3 99 3.794
9 P3 100 4.771
9 P3 101 5.259
9 P3 102 6.236
9 P3 103 7.212
9 P3 104 8.677
9 P3 105 10.142
9 P3 106 11.119
9 P3 107 11.607
9 P3 108 11.119
9 P3 109 10.630
9 P3 110 9.654
9 P3 111 8.677
9 P3 112 7.701
9 P3 113 7.212
9 P3 114 6.236
9 P3 115 6.236
9 P3 116 6.236
9 P3 117 6.724
9 P3 118 7.701
9 P3 119 8.189
9 P3 120 8.677
9 P3 121 8.677
9 P3 122 8.189
9 P3 123 7.701
9 P3 124 7.701
9 P3 125 8.189
9 P3 126 9.165
9 P3 127 9.654
9 P3 128 10.142
9 P3 129 9.654
9 P3 130 8.677
9 P3 131 7.212
9 P3 132 5.747
9 P3 133 4.283
9 P3 134 3.306
9 P3 135 2.818
9 P3 136 2.330
9 P3 137 1.841
9 P3 138 0.865
9 P3 139 0.376
9 P3 140 0.376
9 P3 141 0.865
9 P3 142 1.841
9 P3 143 3.306
9 P3 144 4.283
9 P3 145 4.771
9 P3 146 5.259
9 P3 147 5.747
9 P3 148 6.236
9 P3 149 7.212
9 P3 150 8.189
9 P3 151 9.165
9 P3 152 9.165
9 P3 153 9.654
9 P3 154 9.654
9 P3 155 9.165
9 P3 156 8.189
9 P3 157 7.212
9 P3 158 6.724
9 P3 159 6.236
9 P3 160 6.724
9 P3 161 7.212
9 P3 162 7.212
9 P3 163 6.724
9 P3 164 6.236
9 P3 165 5.259
9 P3 166 4.771
9 P3 167 4.771
9 P3 168 5.259
9 P3 169 6.236
9 P3 170 6.724
9 P3 171 6.724
9 P3 172 6.236
9 P3 173 4.283
9 P3 174 1.841
9 P3 175 -0.600
9 P3 176 -3.042
9 P3 177 -5.483
9 P3 178 -7.924
9 P3 179 -8.901
9 P3 180 -9.389
9 P3 181 -7.436
9 P3 182 -4.506
9 P3 183 -1.088
9 P3 184 1.841
9 P3 185 3.794
9 P3 186 4.771
9 P3 187 4.771
9 P3 188 4.771
9 P3 189 4.283
9 P3 190 2.818
9 P3 191 0.376
9 P3 192 -3.530
9 P3 193 -6.460
9 P3 194 -8.901
9 P3 195 -9.389
9 P3 196 -8.901
9 P3 197 -7.436
9 P3 198 -6.948
9 P3 199 -6.948
9 P3 200 -8.413
9 P3 201 -9.878
9 P3 202 -11.831
9 P3 203 -12.807
9 P3 204 -13.784
9 P3 205 -14.760
9 P3 206 -15.249
9 P3 207 -16.225
9 P3 208 -17.202
9 P3 209 -17.202
9 P3 210 -16.713
9 P3 211 -15.737
9 P3 212 -14.760
9 P3 213 -13.784
9 P3 214 -13.784
9 P3 215 -14.272
9 P3 216 -15.249
9 P3 217 -15.737
9 P3 218 -15.737
9 P3 219 -15.249
9 P3 220 -15.737
9 P3 221 -16.225
9 P3 222 -17.202
9 P3 223 -18.667
9 P3 224 -20.620
9 P3 225 -21.596
9 P3 226 -22.573
9 P3 227 -22.573
9 P3 228 -22.085
9 P3 229 -21.108
9 P3 230 -20.620
9 P3 231 -19.643
9 P3 232 -19.643
9 P3 233 -19.643
9 P3 234 -20.131
9 P3 235 -20.131
9 P3 236 -20.131
9 P3 237 -19.155
9 P3 238 -18.178
9 P3 239 -17.690
9 P3 240 -17.202
9 P3 241 -17.690
9 P3 242 -18.667
9 P3 243 -20.131
9 P3 244 -21.596
9 P3 245 -23.061
9 P3 246 -24.038
9 P3 247 -24.038
9 P3 248 -23.061
9 P3 249 -22.573
9 P3 250 -23.061
9 P3 251 -23.549
9 P3 252 -24.038
9 P3 253 -23.061
9 P3 254 -21.596
9 P3 255 -18.667
# P4 chan 23
9 P4 0 -9.705
9 P4 1 -9.705
9 P4 2 -9.705
9 P4 3 -8.240
9 P4 4 -6.775
9 P4 5 -5.310
9 P4 6 -2.869
9 P4 7 -1.892
9 P4 8 -0.427
9 P4 9 0.549
9 P4 10 1.526
9 P4 11 2.014
9 P4 12 2.502
9 P4 13 2.014
9 P4 14 1.038
9 P4 15 0.061
9 P4 16 -0.916
9 P4 17 -1.892
9 P4 18 -2.869
9 P4 19 -3.357
9 P4 20 -3.357
9 P4 21 -3.357
9 P4 22 -2.380
9 P4 23 -1.892
9 P4 24 -0.916
9 P4 25 -0.427
9 P4 26 0.549
9 P4 27 2.014
9 P4 28 4.456
9 P4 29 7.385
9 P4 30 9.827
9 P4 31 11.292
9 P4 32 11.292
9 P4 33 10.803
9 P4 34 9.827
9 P4 35 8.850
9 P4 36 7.874
9 P4 37 5.920
9 P4 38 3.967
9 P4 39 0.549
9 P4 40 -2.380
9 P4 41 -4.822
9 P4 42 -6.775
9 P4 43 -7.751
9 P4 44 -7.751
9 P4 45 -6.775
9 P4 46 -5.310
9 P4 47 -4.333
9 P4 48 -3.357
9 P4 49 -2.380
9 P4 50 -1.404
9 P4 51 0.061
9 P4 52 2.014
9 P4 53 4.456
9 P4 54 6.409
9 P4 55 7.874
9 P4 56 8.850
9 P4 57 9.338
9 P4 58 8.362
9 P4 59 7.385
9 P4 60 6.409
9 P4 61 5.432
9 P4 62 5.432
9 P4 63 6.409
9 P4 64 7.385
9 P4 65 8.362
9 P4 66 8.362
9 P4 67 7.874
9 P4 68 6.409
9 P4 69 4.944
9 P4 70 2.991
9 P4 71 1.038
9 P4 72 0.061
9 P4 73 0.549
9 P4 74 1.526
9 P4 75 2.502
9 P4 76 3.479
9 P4 77 3.967
9 P4 78 4.456
9 P4 79 4.944
9 P4 80 5.920
9 P4 81 6.409
9 P4 82 5.920
9 P4 83 4.456
9 P4 84 2.502
9 P4 85 1.038
9 P4 86 1.526
9 P4 87 2.991
9 P4 88 4.944
9 P4 89 6.897
9 P4 90 7.874
9 P4 91 7.874
9 P4 92 7.385
9 P4 93 7.385
9 P4 94 7.874
9 P4 95 8.850
9 P4 96 9.338
9 P4 97 10.315
9 P4 98 10.803
9 P4 99 10.315
9 P4 100 9.338
9 P4 101 7.874
9 P4 102 6.897
9 P4 103 6.897
9 P4 104 8.850
9 P4 105 11.780
9 P4 106 14.709
9 P4 107 15.686
9 P4 108 16.174
9 P4 109 14.709
9 P4 110 14.221
9 P4 111 13.733
9 P4 112 14.709
9 P4 113 15.198
9 P4 114 15.198
9 P4 115 15.198
9 P4 116 14.221
9 P4 117 14.221
9 P4 118 14.221
9 P4 119 14.221
9 P4 120 13.245
9 P4 121 12.268
9 P4 122 10.315
9 P4 123 8.850
9 P4 124 8.850
9 P4 125 9.827
9 P4 126 12.268
9 P4 127 14.709
9 P4 128 16.174
9 P4 129 16.663
9 P4 130 16.174
9 P4 131 13.733
9 P4 132 11.292
9 P4 133 8.850
9 P4 134 7.385
9 P4 135 5.920
9 P4 136 5.432
9 P4 137 4.944
9 P4 138 4.456
9 P4 139 4.456
9 P4 140 5.432
9 P4 141 6.897
9 P4 142 7.385
9 P4 143 7.385
9 P4 144 6.897
9 P4 145 6.409
9 P4 146 7.385
9 P4 147 8.850
9 P4 148 11.780
9 P4 149 14.221
9 P4 150 15.686
9 P4 151 15.686
9 P4 152 14.221
9 P4 153 12.756
9 P4 154 11.292
9 P4 155 9.827
9 P4 156 8.850
9 P4 157 7.874
9 P4 158 6.409
9 P4 159 5.920
9 P4 160 5.920
9 P4 161 6.897
9 P4 162 7.874
9 P4 163 8.850
9 P4 164 8.850
9 P4 165 7.874
9 P4 166 6.409
9 P4 167 4.944
9 P4 168 4.456
9 P4 169 4.944
9 P4 170 5.920
9 P4 171 5.920
9 P4 172 5.432
9 P4 173 3.479
9 P4 174 1.038
9 P4 175 -1.404
9 P4 176 -3.357
9 P4 177 -4.822
9 P4 178 -5.310
9 P4 179 -5.798
9 P4 180 -5.798
9 P4 181 -4.822
9 P4 182 -3.357
9 P4 183 -1.404
9 P4 184 -0.916
9 P4 185 -0.916
9 P4 186 -0.916
9 P4 187 -1.404
9 P4 188 -0.916
9 P4 189 -0.916
9 P4 190 -1.892
9 P4 191 -4.333
9 P4 192 -7.263
9 P4 193 -9.216
9 P4 194 -9.705
9 P4 195 -8.240
9 P4 196 -5.798
9 P4 197 -3.845
9 P4 198 -2.380
9 P4 199 -2.380
9 P4 200 -2.380
9 P4 201 -3.357
9 P4 202 -5.310
9 P4 203 -7.263
9 P4 204 -9.705
9 P4 205 -11.169
9 P4 206 -12.146
9 P4 207 -12.634
9 P4 208 -11.658
9 P4 209 -11.169
9 P4 210 -10.681
9 P4 211 -9.705
9 P4 212 -10.193
9 P4 213 -11.169
9 P4 214 -12.634
9 P4 215 -13.123
9 P4 216 -13.611
9 P4 217 -12.634
9 P4 218 -10.681
9 P4 219 -9.216
9 P4 220 -8.240
9 P4 221 -8.240
9 P4 222 -9.705
9 P4 223 -11.658
9 P4 224 -13.123
9 P4 225 -15.076
9 P4 226 -16.052
9 P4 227 -16.052
9 P4 228 -15.564
9 P4 229 -13.123
9 P4 230 -10.681
9 P4 231 -7.751
9 P4 232 -4.333
9 P4 233 -2.380
9 P4 234 -0.916
9 P4 235 -0.427
9 P4 236 -0.427
9 P4 237 -0.916
9 P4 238 -1.892
9 P4 239 -3.357
9 P4 240 -5.798
9 P4 241 -9.216
9 P4 242 -13.611
9 P4 243 -17.517
9 P4 244 -20.935
9 P4 245 -22.400
9 P4 246 -21.912
9 P4 247 -20.447
9 P4 248 -17.517
9 P4 249 -16.052
9 P4 250 -15.564
9 P4 251 -16.052
9 P4 252 -17.517
9 P4 253 -18.005
9 P4 254 -18.005
9 P4 255 -17.029
# PZ chan 24
9 PZ 0 -7.477
9 PZ 1 -7.477
9 PZ 2 -6.989
9 PZ 3 -6.989
9 PZ 4 -6.012
9 PZ 5 -5.524
9 PZ 6 -4.547
9 PZ 7 -4.059
9 PZ 8 -3.082
9 PZ 9 -2.106
9 PZ 10 -1.617
9 PZ 11 -1.129
9 PZ 12 -0.641
9 PZ 13 -0.153
9 PZ 14 -0.153
9 PZ 15 -0.153
9 PZ 16 -0.641
9 PZ 17 -1.129
9 PZ 18 -1.129
9 PZ 19 -1.129
9 PZ 20 -0.641
9 PZ 21 -0.153
9 PZ 22 0.824
9 PZ 23 1.801
9 PZ 24 2.289
9 PZ 25 1.801
9 PZ 26 1.801
9 PZ 27 2.289
9 PZ 28 3.754
9 PZ 29 5.707
9 PZ 30 7.660
9 PZ 31 9.125
9 PZ 32 10.101
9 PZ 33 10.101
9 PZ 34 9.613
9 PZ 35 8.636
9 PZ 36 7.660
9 PZ 37 6.195
9 PZ 38 3.754
9 PZ 39 1.801
9 PZ 40 -0.153
9 PZ 41 -1.617
9 PZ 42 -2.594
9 PZ 43 -2.594
9 PZ 44 -2.594
9 PZ 45 -2.594
9 PZ 46 -2.594
9 PZ 47 -2.106
9 PZ 48 -2.594
9 PZ 49 -2.594
9 PZ 50 -2.594
9 PZ 51 -1.617
9 PZ 52 -0.153
9 PZ 53 1.312
9 PZ 54 2.777
9 PZ 55 3.754
9 PZ 56 4.242
9 PZ 57 3.754
9 PZ 58 2.777
9 PZ 59 1.312
9 PZ 60 0.336
9 PZ 61 -0.153
9 PZ 62 0.336
9 PZ 63 1.801
9 PZ 64 3.754
9 PZ 65 5.707
9 PZ 66 6.683
9 PZ 67 7.172
9 PZ 68 6.683
9 PZ 69 5.219
9 PZ 70 3.754
9 PZ 71 2.289
9 PZ 72 0.824
9 PZ 73 0.824
9 PZ 74 0.824
9 PZ 75 1.312
9 PZ 76 1.312
9 PZ 77 1.312
9 PZ 78 1.312
9 PZ 79 1.801
9 PZ 80 2.777
9 PZ 81 3.754
9 PZ 82 4.242
9 PZ 83 4.242
9 PZ 84 3.265
9 PZ 85 2.777
9 PZ 86 2.777
9 PZ 87 3.754
9 PZ 88 5.707
9 PZ 89 7.660
9 PZ 90 8.148
9 PZ 91 8.148
9 PZ 92 6.683
9 PZ 93 6.195
9 PZ 94 5.707
9 PZ 95 5.707
9 PZ 96 6.195
9 PZ 97 6.683
9 PZ 98 7.172
9 PZ 99 7.172
9 PZ 100 7.172
9 PZ 101 7.172
9 PZ 102 7.660
9 PZ 103 8.148
9 PZ 104 9.613
9 PZ 105 10.590
9 PZ 106 12.054
9 PZ 107 13.031
9 PZ 108 13.031
9 PZ 109 12.543
9 PZ 110 12.054
9 PZ 111 11.566
9 PZ 112 11.566
9 PZ 113 11.566
9 PZ 114 11.078
9 PZ 115 11.078
9 PZ 116 11.078
9 PZ 117 11.078
9 PZ 118 11.566
9 PZ 119 12.054
9 PZ 120 12.054
9 PZ 121 11.078
9 PZ 122 9.613
9 PZ 123 8.636
9 PZ 124 7.660
9 PZ 125 7.660
9 PZ 126 9.125
9 PZ 127 10.590
9 PZ 128 12.054
9 PZ 129 13.519
9 PZ 130 13.519
9 PZ 131 12.054
9 PZ 132 10.590
9 PZ 133 9.125
9 PZ 134 8.148
9 PZ 135 7.172
9 PZ 136 6.683
9 PZ 137 6.195
9 PZ 138 5.707
9 PZ 139 5.219
9 PZ 140 5.219
9 PZ 141 5.707
9 PZ 142 5.707
9 PZ 143 6.195
9 PZ 144 6.683
9 PZ 145 7.172
9 PZ 146 8.148
9 PZ 147 9.613
9 PZ 148 11.078
9 PZ 149 12.543
9 PZ 150 13.519
9 PZ 151 14.008
9 PZ 152 14.008
9 PZ 153 13.519
9 PZ 154 12.543
9 PZ 155 11.566
9 PZ 156 10.590
9 PZ 157 9.125
9 PZ 158 8.148
9 PZ 159 7.660
9 PZ 160 8.148
9 PZ 161 8.636
9 PZ 162 9.125
9 PZ 163 9.613
9 PZ 164 9.613
9 PZ 165 9.125
9 PZ 166 8.148
9 PZ 167 7.660
9 PZ 168 7.172
9 PZ 169 7.660
9 PZ 170 7.660
9 PZ 171 7.660
9 PZ 172 7.172
9 PZ 173 5.219
9 PZ 174 3.265
9 PZ 175 1.312
9 PZ 176 -0.641
9 PZ 177 -1.617
9 PZ 178 -2.594
9 PZ 179 -3.571
9 PZ 180 -3.571
9 PZ 181 -3.082
9 PZ 182 -1.617
9 PZ 183 -0.153
9 PZ 184 0.824
9 PZ 185 1.801
9 PZ 186 2.289
9 PZ 187 2.777
9 PZ 188 3.754
9 PZ 189 4.242
9 PZ 190 3.754
9 PZ 191 1.801
9 PZ 192 -1.129
9 PZ 193 -4.059
9 PZ 194 -5.524
9 PZ 195 -5.524
9 PZ 196 -4.547
9 PZ 197 -3.082
9 PZ 198 -2.106
9 PZ 199 -2.106
9 PZ 200 -3.082
9 PZ 201 -4.059
9 PZ 202 -6.012
9 PZ 203 -7.477
9 PZ 204 -8.942
9 PZ 205 -10.406
9 PZ 206 -11.383
9 PZ 207 -11.871
9 PZ 208 -11.871
9 PZ 209 -11.383
9 PZ 210 -10.406
9 PZ 211 -9.918
9 PZ 212 -8.942
9 PZ 213 -9.430
9 PZ 214 -9.918
9 PZ 215 -11.383
9 PZ 216 -11.871
9 PZ 217 -12.360
9 PZ 218 -11.871
9 PZ 219 -10.895
9 PZ 220 -10.406
9 PZ 221 -10.895
9 PZ 222 -11.871
9 PZ 223 -13.336
9 PZ 224 -14.801
9 PZ 225 -15.778
9 PZ 226 -15.778
9 PZ 227 -15.778
9 PZ 228 -14.801
9 PZ 229 -13.824
9 PZ 230 -12.360
9 PZ 231 -10.895
9 PZ 232 -8.942
9 PZ 233 -7.965
9 PZ 234 -7.477
9 PZ 235 -6.989
9 PZ 236 -6.989
9 PZ 237 -7.477
9 PZ 238 -7.477
9 PZ 239 -8.453
9 PZ 240 -9.430
9 PZ 241 -10.895
9 PZ 242 -12.848
9 PZ 243 -14.801
9 PZ 244 -16.754
9 PZ 245 -17.731
9 PZ 246 -18.219
9 PZ 247 -17.731
9 PZ 248 -16.266
9 PZ 249 -15.289
9 PZ 250 -14.801
9 PZ 251 -14.313
9 PZ 252 -14.313
9 PZ 253 -13.824
9 PZ 254 -12.848
9 PZ 255 -11.383
# P8 chan 25
9 P8 0 -10.386
9 P8 1 -10.874
9 P8 2 -10.874
9 P8 3 -10.386
9 P8 4 -8.433
9 P8 5 -5.992
9 P8 6 -3.062
9 P8 7 -1.109
9 P8 8 0.356
9 P8 9 1.333
9 P8 10 2.309
9 P8 11 3.774
9 P8 12 4.751
9 P8 13 4.751
9 P8 14 3.286
9 P8 15 1.333
9 P8 16 -0.621
9 P8 17 -2.574
9 P8 18 -4.527
9 P8 19 -5.503
9 P8 20 -5.992
9 P8 21 -5.992
9 P8 22 -5.503
9 P8 23 -4.527
9 P8 24 -3.062
9 P8 25 -2.085
9 P8 26 -0.132
9 P8 27 2.309
9 P8 28 6.215
9 P8 29 10.122
9 P8 30 13.540
9 P8 31 15.004
9 P8 32 14.516
9 P8 33 12.563
9 P8 34 9.633
9 P8 35 7.680
9 P8 36 6.215
9 P8 37 4.751
9 P8 38 2.309
9 P8 39 -1.109
9 P8 40 -4.527
9 P8 41 -7.456
9 P8 42 -8.433
9 P8 43 -8.921
9 P8 44 -8.433
9 P8 45 -7.456
9 P8 46 -6.968
9 P8 47 -5.992
9 P8 48 -5.015
9 P8 49 -3.550
9 P8 50 -2.085
9 P8 51 -0.132
9 P8 52 1.821
9 P8 53 4.262
9 P8 54 6.704
9 P8 55 8.657
9 P8 56 10.610
9 P8 57 11.098
9 P8 58 10.610
9 P8 59 9.633
9 P8 60 8.657
9 P8 61 8.657
9 P8 62 10.122
9 P8 63 11.098
9 P8 64 12.075
9 P8 65 12.075
9 P8 66 11.587
9 P8 67 9.633
9 P8 68 7.192
9 P8 69 3.774
9 P8 70 -0.621
9 P8 71 -4.038
9 P8 72 -5.992
9 P8 73 -5.503
9 P8 74 -4.038
9 P8 75 -2.574
9 P8 76 -1.597
9 P8 77 -1.109
9 P8 78 -1.109
9 P8 79 -0.132
9 P8 80 0.844
9 P8 81 2.309
9 P8 82 1.821
9 P8 83 0.356
9 P8 84 -2.574
9 P8 85 -4.527
9 P8 86 -5.015
9 P8 87 -4.038
9 P8 88 -1.597
9 P8 89 0.844
9 P8 90 2.309
9 P8 91 3.774
9 P8 92 4.262
9 P8 93 4.751
9 P8 94 5.727
9 P8 95 6.704
9 P8 96 7.680
9 P8 97 8.657
9 P8 98 9.633
9 P8 99 9.633
9 P8 100 8.657
9 P8 101 7.680
9 P8 102 6.704
9 P8 103 7.192
9 P8 104 9.633
9 P8 105 13.540
9 P8 106 16.469
9 P8 107 17.934
9 P8 108 17.934
9 P8 109 16.469
9 P8 110 15.493
9 P8 111 15.493
9 P8 112 16.958
9 P8 113 17.934
9 P8 114 18.422
9 P8 115 17.934
9 P8 116 16.958
9 P8 117 16.469
9 P8 118 15.493
9 P8 119 15.004
9 P8 120 14.028
9 P8 121 13.051
9 P8 122 11.587
9 P8 123 11.098
9 P8 124 12.563
9 P8 125 14.516
9 P8 126 16.958
9 P8 127 19.399
9 P8 128 20.376
9 P8 129 19.887
9 P8 130 18.422
9 P8 131 15.493
9 P8 132 12.563
9 P8 133 9.145
9 P8 134 6.704
9 P8 135 5.239
9 P8 136 4.751
9 P8 137 4.262
9 P8 138 4.262
9 P8 139 4.751
9 P8 140 5.727
9 P8 141 7.680
9 P8 142 8.657
9 P8 143 8.657
9 P8 144 7.192
9 P8 145 5.727
9 P8 146 5.239
9 P8 147 6.704
9 P8 148 10.122
9 P8 149 14.028
9 P8 150 16.469
9 P8 151 15.981
9 P8 152 14.028
9 P8 153 11.587
9 P8 154 9.633
9 P8 155 8.657
9 P8 156 8.169
9 P8 157 8.169
9 P8 158 7.192
9 P8 159 6.704
9 P8 160 6.215
9 P8 161 6.704
9 P8 162 7.680
9 P8 163 8.657
9 P8 164 8.657
9 P8 165 7.680
9 P8 166 6.215
9 P8 167 4.751
9 P8 168 4.262
9 P8 169 5.239
9 P8 170 6.704
9 P8 171 7.680
9 P8 172 7.192
9 P8 173 5.239
9 P8 174 2.797
9 P8 175 -0.132
9 P8 176 -2.085
9 P8 177 -3.062
9 P8 178 -3.550
9 P8 179 -3.550
9 P8 180 -3.062
9 P8 181 -2.085
9 P8 182 -0.132
9 P8 183 0.844
9 P8 184 0.844
9 P8 185 -0.132
9 P8 186 -1.597
9 P8 187 -2.574
9 P8 188 -3.062
9 P8 189 -3.062
9 P8 190 -4.038
9 P8 191 -6.480
9 P8 192 -8.921
9 P8 193 -10.386
9 P8 194 -10.386
9 P8 195 -8.433
9 P8 196 -5.503
9 P8 197 -3.062
9 P8 198 -1.597
9 P8 199 -2.085
9 P8 200 -2.574
9 P8 201 -3.550
9 P8 202 -5.503
9 P8 203 -7.456
9 P8 204 -9.898
9 P8 205 -12.828
9 P8 206 -13.804
9 P8 207 -13.804
9 P8 208 -13.316
9 P8 209 -12.339
9 P8 210 -10.874
9 P8 211 -10.874
9 P8 212 -11.363
9 P8 213 -12.828
9 P8 214 -14.292
9 P8 215 -15.269
9 P8 216 -14.781
9 P8 217 -13.804
9 P8 218 -10.874
9 P8 219 -7.945
9 P8 220 -5.503
9 P8 221 -4.527
9 P8 222 -5.503
9 P8 223 -7.945
9 P8 224 -11.363
9 P8 225 -14.292
9 P8 226 -16.246
9 P8 227 -17.222
9 P8 228 -16.246
9 P8 229 -14.292
9 P8 230 -11.363
9 P8 231 -8.433
9 P8 232 -5.992
9 P8 233 -4.527
9 P8 234 -2.574
9 P8 235 -1.597
9 P8 236 -0.621
9 P8 237 0.356
9 P8 238 0.844
9 P8 239 -0.132
9 P8 240 -2.574
9 P8 241 -6.968
9 P8 242 -12.339
9 P8 243 -17.710
9 P8 244 -22.105
9 P8 245 -24.546
9 P8 246 -24.058
9 P8 247 -22.105
9 P8 248 -19.175
9 P8 249 -17.222
9 P8 250 -17.222
9 P8 251 -18.687
9 P8 252 -21.617
9 P8 253 -23.570
9 P8 254 -23.570
9 P8 255 -22.105
# P7 chan 26
9 P7 0 -6.317
9 P7 1 -6.317
9 P7 2 -6.805
9 P7 3 -6.805
9 P7 4 -7.294
9 P7 5 -6.805
9 P7 6 -6.317
9 P7 7 -5.829
9 P7 8 -4.852
9 P7 9 -3.876
9 P7 10 -1.923
9 P7 11 0.519
9 P7 12 2.960
9 P7 13 4.913
9 P7 14 4.913
9 P7 15 3.448
9 P7 16 0.519
9 P7 17 -2.899
9 P7 18 -5.829
9 P7 19 -7.294
9 P7 20 -7.782
9 P7 21 -5.829
9 P7 22 -3.387
9 P7 23 -0.946
9 P7 24 1.007
9 P7 25 2.960
9 P7 26 4.913
9 P7 27 7.355
9 P7 28 10.773
9 P7 29 14.191
9 P7 30 16.632
9 P7 31 17.609
9 P7 32 16.144
9 P7 33 13.214
9 P7 34 10.284
9 P7 35 6.866
9 P7 36 3.937
9 P7 37 -0.458
9 P7 38 -4.364
9 P7 39 -7.782
9 P7 40 -8.759
9 P7 41 -8.270
9 P7 42 -5.829
9 P7 43 -3.387
9 P7 44 -1.923
9 P7 45 -1.434
9 P7 46 -2.411
9 P7 47 -3.387
9 P7 48 -3.876
9 P7 49 -4.364
9 P7 50 -4.364
9 P7 51 -4.364
9 P7 52 -3.876
9 P7 53 -3.387
9 P7 54 -2.411
9 P7 55 -1.923
9 P7 56 -1.923
9 P7 57 -2.899
9 P7 58 -4.364
9 P7 59 -6.317
9 P7 60 -7.294
9 P7 61 -6.805
9 P7 62 -3.876
9 P7 63 -0.458
9 P7 64 3.448
9 P7 65 6.866
9 P7 66 8.331
9 P7 67 8.820
9 P7 68 7.355
9 P7 69 4.425
9 P7 70 0.519
9 P7 71 -3.387
9 P7 72 -5.829
9 P7 73 -6.317
9 P7 74 -4.852
9 P7 75 -3.876
9 P7 76 -3.876
9 P7 77 -5.341
9 P7 78 -6.317
9 P7 79 -6.805
9 P7 80 -5.341
9 P7 81 -3.876
9 P7 82 -3.387
9 P7 83 -3.876
9 P7 84 -5.341
9 P7 85 -6.805
9 P7 86 -6.805
9 P7 87 -5.341
9 P7 88 -3.387
9 P7 89 -1.923
9 P7 90 -0.946
9 P7 91 0.031
9 P7 92 0.519
9 P7 93 0.519
9 P7 94 0.519
9 P7 95 0.031
9 P7 96 -0.946
9 P7 97 -1.434
9 P7 98 -1.923
9 P7 99 -0.946
9 P7 100 0.519
9 P7 101 2.472
9 P7 102 4.913
9 P7 103 6.866
9 P7 104 9.308
9 P7 105 11.261
9 P7 106 12.238
9 P7 107 12.238
9 P7 108 11.749
9 P7 109 10.773
9 P7 110 9.308
9 P7 111 7.355
9 P7 112 5.402
9 P7 113 3.937
9 P7 114 2.472
9 P7 115 1.984
9 P7 116 1.984
9 P7 117 2.960
9 P7 118 3.937
9 P7 119 4.913
9 P7 120 5.890
9 P7 121 5.890
9 P7 122 6.378
9 P7 123 6.866
9 P7 124 7.355
9 P7 125 7.843
9 P7 126 7.843
9 P7 127 7.843
9 P7 128 6.866
9 P7 129 5.890
9 P7 130 4.425
9 P7 131 1.984
9 P7 132 -0.458
9 P7 133 -2.411
9 P7 134 -3.387
9 P7 135 -2.899
9 P7 136 -2.411
9 P7 137 -2.411
9 P7 138 -2.411
9 P7 139 -2.899
9 P7 140 -2.899
9 P7 141 -1.434
9 P7 142 0.519
9 P7 143 1.984
9 P7 144 2.960
9 P7 145 2.472
9 P7 146 1.007
9 P7 147 0.031
9 P7 148 0.031
9 P7 149 1.007
9 P7 150 1.984
9 P7 151 3.937
9 P7 152 4.913
9 P7 153 5.890
9 P7 154 5.890
9 P7 155 4.913
9 P7 156 3.937
9 P7 157 2.960
9 P7 158 2.472
9 P7 159 1.984
9 P7 160 2.472
9 P7 161 2.472
9 P7 162 1.984
9 P7 163 1.007
9 P7 164 0.031
9 P7 165 -0.458
9 P7 166 -0.458
9 P7 167 0.031
9 P7 168 1.495
9 P7 169 2.960
9 P7 170 4.425
9 P7 171 5.402
9 P7 172 4.913
9 P7 173 2.472
9 P7 174 -0.946
9 P7 175 -4.852
9 P7 176 -9.247
9 P7 177 -12.665
9 P7 178 -15.594
9 P7 179 -17.059
9 P7 180 -16.571
9 P7 181 -14.618
9 P7 182 -10.223
9 P7 183 -4.852
9 P7 184 0.031
9 P7 185 2.960
9 P7 186 3.937
9 P7 187 2.960
9 P7 188 1.495
9 P7 189 0.031
9 P7 190 -1.923
9 P7 191 -4.852
9 P7 192 -8.270
9 P7 193 -11.688
9 P7 194 -14.618
9 P7 195 -15.594
9 P7 196 -15.106
9 P7 197 -13.153
9 P7 198 -11.688
9 P7 199 -11.688
9 P7 200 -13.153
9 P7 201 -15.594
9 P7 202 -18.036
9 P7 203 -19.989
9 P7 204 -20.966
9 P7 205 -21.454
9 P7 206 -21.454
9 P7 207 -21.942
9 P7 208 -22.430
9 P7 209 -22.919
9 P7 210 -21.942
9 P7 211 -20.966
9 P7 212 -20.477
9 P7 213 -19.989
9 P7 214 -20.477
9 P7 215 -20.966
9 P7 216 -22.430
9 P7 217 -22.919
9 P7 218 -23.407
9 P7 219 -22.919
9 P7 220 -21.942
9 P7 221 -21.942
9 P7 222 -22.919
9 P7 223 -24.384
9 P7 224 -26.825
9 P7 225 -28.778
9 P7 226 -29.755
9 P7 227 -30.243
9 P7 228 -29.266
9 P7 229 -28.290
9 P7 230 -27.802
9 P7 231 -28.290
9 P7 232 -29.266
9 P7 233 -30.243
9 P7 234 -31.219
9 P7 235 -31.219
9 P7 236 -30.243
9 P7 237 -28.290
9 P7 238 -26.337
9 P7 239 -25.360
9 P7 240 -25.360
9 P7 241 -25.360
9 P7 242 -26.825
9 P7 243 -28.290
9 P7 244 -30.243
9 P7 245 -31.708
9 P7 246 -32.196
9 P7 247 -31.708
9 P7 248 -30.731
9 P7 249 -30.243
9 P7 250 -30.731
9 P7 251 -32.684
9 P7 252 -34.637
9 P7 253 -35.614
9 P7 254 -34.149
9 P7 255 -30.731
# PO2 chan 27
9 PO2 0 -11.098
9 PO2 1 -11.098
9 PO2 2 -11.098
9 PO2 3 -10.122
9 PO2 4 -9.145
9 PO2 5 -7.680
9 PO2 6 -5.727
9 PO2 7 -3.774
9 PO2 8 -2.309
9 PO2 9 -0.844
9 PO2 10 0.132
9 PO2 11 1.109
9 PO2 12 2.085
9 PO2 13 1.597
9 PO2 14 1.109
9 PO2 15 0.621
9 PO2 16 0.132
9 PO2 17 -0.844
9 PO2 18 -1.821
9 PO2 19 -2.309
9 PO2 20 -2.797
9 PO2 21 -2.309
9 PO2 22 -1.333
9 PO2 23 -0.356
9 PO2 24 0.132
9 PO2 25 0.132
9 PO2 26 0.621
9 PO2 27 2.574
9 PO2 28 5.015
9 PO2 29 8.921
9 PO2 30 12.339
9 PO2 31 14.292
9 PO2 32 15.269
9 PO2 33 14.781
9 PO2 34 13.804
9 PO2 35 12.828
9 PO2 36 11.363
9 PO2 37 9.410
9 PO2 38 5.992
9 PO2 39 2.574
9 PO2 40 -1.333
9 PO2 41 -4.262
9 PO2 42 -6.215
9 PO2 43 -6.215
9 PO2 44 -6.215
9 PO2 45 -5.239
9 PO2 46 -4.751
9 PO2 47 -4.262
9 PO2 48 -3.774
9 PO2 49 -3.286
9 PO2 50 -1.821
9 PO2 51 0.132
9 PO2 52 1.597
9 PO2 53 4.038
9 PO2 54 5.503
9 PO2 55 6.968
9 PO2 56 8.433
9 PO2 57 8.921
9 PO2 58 8.433
9 PO2 59 7.456
9 PO2 60 6.968
9 PO2 61 6.968
9 PO2 62 7.456
9 PO2 63 9.410
9 PO2 64 11.363
9 PO2 65 12.828
9 PO2 66 13.804
9 PO2 67 12.828
9 PO2 68 11.363
9 PO2 69 8.921
9 PO2 70 5.992
9 PO2 71 3.550
9 PO2 72 2.574
9 PO2 73 2.574
9 PO2 74 3.550
9 PO2 75 5.015
9 PO2 76 5.503
9 PO2 77 5.992
9 PO2 78 5.992
9 PO2 79 6.968
9 PO2 80 8.433
9 PO2 81 9.410
9 PO2 82 9.410
9 PO2 83 7.945
9 PO2 84 5.992
9 PO2 85 4.527
9 PO2 86 4.527
9 PO2 87 5.503
9 PO2 88 7.456
9 PO2 89 8.921
9 PO2 90 9.898
9 PO2 91 9.898
9 PO2 92 9.898
9 PO2 93 9.410
9 PO2 94 9.898
9 PO2 95 10.874
9 PO2 96 11.363
9 PO2 97 12.339
9 PO2 98 12.828
9 PO2 99 12.828
9 PO2 100 12.339
9 PO2 101 11.851
9 PO2 102 10.874
9 PO2 103 11.363
9 PO2 104 12.828
9 PO2 105 15.269
9 PO2 106 17.222
9 PO2 107 19.175
9 PO2 108 19.175
9 PO2 109 18.687
9 PO2 110 17.710
9 PO2 111 17.710
9 PO2 112 17.710
9 PO2 113 18.199
9 PO2 114 18.687
9 PO2 115 18.687
9 PO2 116 18.199
9 PO2 117 17.710
9 PO2 118 17.710
9 PO2 119 17.222
9 PO2 120 16.246
9 PO2 121 14.781
9 PO2 122 12.828
9 PO2 123 11.363
9 PO2 124 10.874
9 PO2 125 11.851
9 PO2 126 14.292
9 PO2 127 16.734
9 PO2 128 19.175
9 PO2 129 20.152
9 PO2 130 20.152
9 PO2 131 18.687
9 PO2 132 16.246
9 PO2 133 13.804
9 PO2 134 11.363
9 PO2 135 9.410
9 PO2 136 8.433
9 PO2 137 7.456
9 PO2 138 6.480
9 PO2 139 6.480
9 PO2 140 6.480
9 PO2 141 6.968
9 PO2 142 7.945
9 PO2 143 7.945
9 PO2 144 7.945
9 PO2 145 7.945
9 PO2 146 8.433
9 PO2 147 10.874
9 PO2 148 13.804
9 PO2 149 16.734
9 PO2 150 18.199
9 PO2 151 18.199
9 PO2 152 16.734
9 PO2 153 15.269
9 PO2 154 13.316
9 PO2 155 12.339
9 PO2 156 10.874
9 PO2 157 9.410
9 PO2 158 7.945
9 PO2 159 6.968
9 PO2 160 6.480
9 PO2 161 6.968
9 PO2 162 8.433
9 PO2 163 9.410
9 PO2 164 9.898
9 PO2 165 9.410
9 PO2 166 7.945
9 PO2 167 6.968
9 PO2 168 6.480
9 PO2 169 7.456
9 PO2 170 7.945
9 PO2 171 8.433
9 PO2 172 7.456
9 PO2 173 5.503
9 PO2 174 2.574
9 PO2 175 -0.356
9 PO2 176 -2.797
9 PO2 177 -4.262
9 PO2 178 -5.727
9 PO2 179 -6.704
9 PO2 180 -6.704
9 PO2 181 -5.727
9 PO2 182 -4.262
9 PO2 183 -1.821
9 PO2 184 -0.356
9 PO2 185 0.132
9 PO2 186 0.132
9 PO2 187 0.621
9 PO2 188 1.597
9 PO2 189 1.597
9 PO2 190 0.621
9 PO2 191 -1.821
9 PO2 192 -5.727
9 PO2 193 -9.145
9 PO2 194 -10.610
9 PO2 195 -10.122
9 PO2 196 -7.680
9 PO2 197 -5.239
9 PO2 198 -3.774
9 PO2 199 -3.774
9 PO2 200 -4.751
9 PO2 201 -6.704
9 PO2 202 -9.145
9 PO2 203 -11.587
9 PO2 204 -13.540
9 PO2 205 -15.493
9 PO2 206 -16.469
9 PO2 207 -16.469
9 PO2 208 -15.493
9 PO2 209 -14.516
9 PO2 210 -13.540
9 PO2 211 -12.563
9 PO2 212 -12.075
9 PO2 213 -13.051
9 PO2 214 -14.516
9 PO2 215 -15.981
9 PO2 216 -16.469
9 PO2 217 -15.981
9 PO2 218 -15.004
9 PO2 219 -13.540
9 PO2 220 -12.075
9 PO2 221 -12.075
9 PO2 222 -13.540
9 PO2 223 -15.004
9 PO2 224 -17.446
9 PO2 225 -19.399
9 PO2 226 -21.352
9 PO2 227 -21.840
9 PO2 228 -21.840
9 PO2 229 -19.887
9 PO2 230 -17.446
9 PO2 231 -14.516
9 PO2 232 -11.098
9 PO2 233 -8.169
9 PO2 234 -5.727
9 PO2 235 -4.262
9 PO2 236 -3.286
9 PO2 237 -2.797
9 PO2 238 -3.286
9 PO2 239 -4.262
9 PO2 240 -6.704
9 PO2 241 -10.122
9 PO2 242 -14.516
9 PO2 243 -18.911
9 PO2 244 -22.817
9 PO2 245 -25.258
9 PO2 246 -25.747
9 PO2 247 -24.282
9 PO2 248 -22.329
9 PO2 249 -20.376
9 PO2 250 -19.887
9 PO2 251 -19.887
9 PO2 252 -20.864
9 PO2 253 -20.864
9 PO2 254 -20.376
9 PO2 255 -18.911
# PO1 chan 28
9 PO1 0 -8.270
9 PO1 1 -7.782
9 PO1 2 -7.782
9 PO1 3 -8.270
9 PO1 4 -8.270
9 PO1 5 -7.782
9 PO1 6 -7.294
9 PO1 7 -6.317
9 PO1 8 -4.852
9 PO1 9 -3.387
9 PO1 10 -1.923
9 PO1 11 -0.458
9 PO1 12 0.031
9 PO1 13 1.007
9 PO1 14 1.007
9 PO1 15 0.519
9 PO1 16 0.031
9 PO1 17 -0.946
9 PO1 18 -1.434
9 PO1 19 -1.923
9 PO1 20 -1.434
9 PO1 21 -0.458
9 PO1 22 1.495
9 PO1 23 2.960
9 PO1 24 3.448
9 PO1 25 2.960
9 PO1 26 2.960
9 PO1 27 3.448
9 PO1 28 6.378
9 PO1 29 9.796
9 PO1 30 13.214
9 PO1 31 15.167
9 PO1 32 15.656
9 PO1 33 15.167
9 PO1 34 13.702
9 PO1 35 12.238
9 PO1 36 10.284
9 PO1 37 7.355
9 PO1 38 3.937
9 PO1 39 0.519
9 PO1 40 -1.923
9 PO1 41 -3.387
9 PO1 42 -3.387
9 PO1 43 -2.899
9 PO1 44 -2.411
9 PO1 45 -2.411
9 PO1 46 -2.411
9 PO1 47 -2.899
9 PO1 48 -3.387
9 PO1 49 -3.876
9 PO1 50 -3.387
9 PO1 51 -2.899
9 PO1 52 -1.923
9 PO1 53 -0.458
9 PO1 54 0.519
9 PO1 55 1.984
9 PO1 56 2.472
9 PO1 57 1.984
9 PO1 58 1.495
9 PO1 59 0.519
9 PO1 60 -0.458
9 PO1 61 -0.458
9 PO1 62 1.495
9 PO1 63 4.425
9 PO1 64 7.355
9 PO1 65 10.284
9 PO1 66 11.749
9 PO1 67 11.749
9 PO1 68 10.284
9 PO1 69 7.843
9 PO1 70 4.425
9 PO1 71 1.984
9 PO1 72 0.031
9 PO1 73 -0.458
9 PO1 74 0.519
9 PO1 75 1.007
9 PO1 76 1.007
9 PO1 77 0.519
9 PO1 78 0.031
9 PO1 79 0.031
9 PO1 80 1.495
9 PO1 81 3.448
9 PO1 82 4.913
9 PO1 83 4.913
9 PO1 84 3.448
9 PO1 85 2.472
9 PO1 86 2.472
9 PO1 87 3.448
9 PO1 88 5.890
9 PO1 89 7.355
9 PO1 90 8.331
9 PO1 91 7.843
9 PO1 92 6.378
9 PO1 93 5.890
9 PO1 94 5.402
9 PO1 95 5.402
9 PO1 96 6.378
9 PO1 97 6.866
9 PO1 98 7.355
9 PO1 99 8.331
9 PO1 100 8.820
9 PO1 101 9.308
9 PO1 102 10.284
9 PO1 103 11.261
9 PO1 104 12.726
9 PO1 105 14.191
9 PO1 106 15.656
9 PO1 107 16.632
9 PO1 108 16.632
9 PO1 109 15.656
9 PO1 110 14.679
9 PO1 111 14.191
9 PO1 112 13.214
9 PO1 113 13.214
9 PO1 114 12.726
9 PO1 115 12.238
9 PO1 116 12.726
9 PO1 117 13.214
9 PO1 118 13.702
9 PO1 119 14.679
9 PO1 120 14.191
9 PO1 121 13.214
9 PO1 122 12.238
9 PO1 123 10.773
9 PO1 124 10.773
9 PO1 125 11.261
9 PO1 126 12.238
9 PO1 127 13.702
9 PO1 128 14.679
9 PO1 129 15.656
9 PO1 130 15.167
9 PO1 131 14.679
9 PO1 132 12.726
9 PO1 133 11.261
9 PO1 134 9.796
9 PO1 135 8.331
9 PO1 136 7.355
9 PO1 137 6.378
9 PO1 138 5.890
9 PO1 139 5.402
9 PO1 140 4.913
9 PO1 141 5.402
9 PO1 142 5.890
9 PO1 143 6.378
9 PO1 144 6.866
9 PO1 145 7.843
9 PO1 146 8.820
9 PO1 147 10.284
9 PO1 148 12.238
9 PO1 149 14.191
9 PO1 150 15.656
9 PO1 151 16.144
9 PO1 152 15.656
9 PO1 153 14.679
9 PO1 154 13.702
9 PO1 155 12.726
9 PO1 156 11.749
9 PO1 157 10.284
9 PO1 158 8.820
9 PO1 159 8.331
9 PO1 160 8.331
9 PO1 161 8.820
9 PO1 162 8.820
9 PO1 163 8.820
9 PO1 164 8.331
9 PO1 165 7.355
9 PO1 166 6.866
9 PO1 167 6.378
9 PO1 168 7.355
9 PO1 169 8.331
9 PO1 170 9.308
9 PO1 171 10.284
9 PO1 172 9.308
9 PO1 173 6.866
9 PO1 174 4.425
9 PO1 175 1.007
9 PO1 176 -1.923
9 PO1 177 -4.852
9 PO1 178 -7.294
9 PO1 179 -8.759
9 PO1 180 -9.247
9 PO1 181 -8.270
9 PO1 182 -5.341
9 PO1 183 -2.411
9 PO1 184 1.007
9 PO1 185 2.960
9 PO1 186 4.425
9 PO1 187 5.402
9 PO1 188 6.378
9 PO1 189 6.866
9 PO1 190 5.890
9 PO1 191 2.472
9 PO1 192 -1.923
9 PO1 193 -6.317
9 PO1 194 -9.247
9 PO1 195 -9.735
9 PO1 196 -8.270
9 PO1 197 -6.805
9 PO1 198 -5.341
9 PO1 199 -5.341
9 PO1 200 -7.294
9 PO1 201 -9.735
9 PO1 202 -12.665
9 PO1 203 -14.618
9 PO1 204 -16.083
9 PO1 205 -16.571
9 PO1 206 -17.059
9 PO1 207 -17.059
9 PO1 208 -16.571
9 PO1 209 -16.083
9 PO1 210 -15.594
9 PO1 211 -14.130
9 PO1 212 -13.153
9 PO1 213 -13.153
9 PO1 214 -13.641
9 PO1 215 -14.618
9 PO1 216 -16.571
9 PO1 217 -17.059
9 PO1 218 -17.548
9 PO1 219 -17.059
9 PO1 220 -16.083
9 PO1 221 -15.594
9 PO1 222 -16.571
9 PO1 223 -18.524
9 PO1 224 -20.477
9 PO1 225 -22.430
9 PO1 226 -24.384
9 PO1 227 -24.384
9 PO1 228 -23.895
9 PO1 229 -22.430
9 PO1 230 -20.477
9 PO1 231 -19.012
9 PO1 232 -17.059
9 PO1 233 -16.083
9 PO1 234 -15.594
9 PO1 235 -15.106
9 PO1 236 -14.618
9 PO1 237 -13.641
9 PO1 238 -13.153
9 PO1 239 -13.153
9 PO1 240 -13.641
9 PO1 241 -15.594
9 PO1 242 -18.036
9 PO1 243 -20.966
9 PO1 244 -23.895
9 PO1 245 -25.360
9 PO1 246 -25.848
9 PO1 247 -25.360
9 PO1 248 -24.384
9 PO1 249 -23.895
9 PO1 250 -23.407
9 PO1 251 -23.895
9 PO1 252 -24.384
9 PO1 253 -23.407
9 PO1 254 -21.454
9 PO1 255 -19.012
# O2 chan 29
9 O2 0 -10.050
9 O2 1 -10.539
9 O2 2 -11.027
9 O2 3 -11.027
9 O2 4 -10.050
9 O2 5 -8.586
9 O2 6 -6.632
9 O2 7 -5.168
9 O2 8 -3.703
9 O2 9 -2.238
9 O2 10 -0.773
9 O2 11 1.180
9 O2 12 2.645
9 O2 13 3.133
9 O2 14 2.645
9 O2 15 1.668
9 O2 16 0.692
9 O2 17 -0.285
9 O2 18 -1.750
9 O2 19 -2.726
9 O2 20 -3.703
9 O2 21 -4.191
9 O2 22 -3.703
9 O2 23 -3.703
9 O2 24 -3.703
9 O2 25 -3.215
9 O2 26 -2.238
9 O2 27 0.203
9 O2 28 4.598
9 O2 29 9.969
9 O2 30 14.364
9 O2 31 16.805
9 O2 32 16.805
9 O2 33 15.340
9 O2 34 13.387
9 O2 35 11.434
9 O2 36 9.481
9 O2 37 6.551
9 O2 38 2.157
9 O2 39 -2.238
9 O2 40 -6.632
9 O2 41 -9.074
9 O2 42 -9.562
9 O2 43 -9.074
9 O2 44 -7.609
9 O2 45 -7.121
9 O2 46 -6.632
9 O2 47 -6.632
9 O2 48 -6.144
9 O2 49 -5.656
9 O2 50 -4.191
9 O2 51 -2.726
9 O2 52 -0.773
9 O2 53 1.668
9 O2 54 3.621
9 O2 55 5.575
9 O2 56 6.551
9 O2 57 7.039
9 O2 58 7.039
9 O2 59 6.551
9 O2 60 6.551
9 O2 61 7.528
9 O2 62 9.481
9 O2 63 12.410
9 O2 64 14.852
9 O2 65 16.317
9 O2 66 17.293
9 O2 67 16.317
9 O2 68 13.387
9 O2 69 9.969
9 O2 70 5.575
9 O2 71 2.157
9 O2 72 0.203
9 O2 73 0.203
9 O2 74 1.668
9 O2 75 3.621
9 O2 76 4.598
9 O2 77 4.110
9 O2 78 4.598
9 O2 79 5.575
9 O2 80 7.039
9 O2 81 8.504
9 O2 82 8.504
9 O2 83 6.551
9 O2 84 3.621
9 O2 85 1.180
9 O2 86 0.692
9 O2 87 1.668
9 O2 88 3.133
9 O2 89 4.598
9 O2 90 5.086
9 O2 91 5.086
9 O2 92 5.575
9 O2 93 6.551
9 O2 94 7.528
9 O2 95 8.504
9 O2 96 9.481
9 O2 97 9.481
9 O2 98 9.969
9 O2 99 9.969
9 O2 100 9.481
9 O2 101 8.504
9 O2 102 8.016
9 O2 103 8.016
9 O2 104 8.993
9 O2 105 11.922
9 O2 106 14.852
9 O2 107 16.805
9 O2 108 17.782
9 O2 109 17.782
9 O2 110 17.293
9 O2 111 16.805
9 O2 112 16.805
9 O2 113 17.293
9 O2 114 17.293
9 O2 115 16.805
9 O2 116 16.317
9 O2 117 15.828
9 O2 118 15.340
