# co2a0000411.rd
# 120 trials, 64 chans, 416 samples 368 post_stim samples
# 3.906000 msecs uV
# S2 nomatch, trial 7
# FP1 chan 0
7 FP1 0 1.597
7 FP1 1 2.574
7 FP1 2 4.038
7 FP1 3 4.038
7 FP1 4 3.062
7 FP1 5 1.597
7 FP1 6 1.597
7 FP1 7 3.062
7 FP1 8 5.015
7 FP1 9 5.015
7 FP1 10 3.550
7 FP1 11 1.109
7 FP1 12 0.132
7 FP1 13 1.597
7 FP1 14 5.015
7 FP1 15 8.921
7 FP1 16 10.874
7 FP1 17 9.898
7 FP1 18 7.456
7 FP1 19 3.550
7 FP1 20 1.597
7 FP1 21 0.132
7 FP1 22 1.109
7 FP1 23 2.574
7 FP1 24 4.527
7 FP1 25 5.503
7 FP1 26 6.480
7 FP1 27 6.480
7 FP1 28 5.992
7 FP1 29 5.503
7 FP1 30 5.503
7 FP1 31 4.527
7 FP1 32 2.574
7 FP1 33 0.132
7 FP1 34 -1.821
7 FP1 35 -3.286
7 FP1 36 -2.797
7 FP1 37 0.132
7 FP1 38 5.503
7 FP1 39 10.386
7 FP1 40 12.828
7 FP1 41 10.874
7 FP1 42 5.503
7 FP1 43 -0.844
7 FP1 44 -4.262
7 FP1 45 -3.286
7 FP1 46 1.109
7 FP1 47 5.015
7 FP1 48 7.456
7 FP1 49 6.480
7 FP1 50 4.527
7 FP1 51 3.062
7 FP1 52 3.062
7 FP1 53 4.038
7 FP1 54 5.015
7 FP1 55 5.503
7 FP1 56 5.503
7 FP1 57 5.992
7 FP1 58 7.456
7 FP1 59 7.945
7 FP1 60 6.968
7 FP1 61 3.550
7 FP1 62 -0.844
7 FP1 63 -3.286
7 FP1 64 -2.309
7 FP1 65 1.109
7 FP1 66 4.038
7 FP1 67 5.015
7 FP1 68 2.085
7 FP1 69 -2.309
7 FP1 70 -5.239
7 FP1 71 -5.727
7 FP1 72 -3.774
7 FP1 73 -1.333
7 FP1 74 1.109
7 FP1 75 2.574
7 FP1 76 4.038
7 FP1 77 5.503
7 FP1 78 5.992
7 FP1 79 5.015
7 FP1 80 2.574
7 FP1 81 -0.844
7 FP1 82 -3.286
7 FP1 83 -3.774
7 FP1 84 -1.821
7 FP1 85 -0.356
7 FP1 86 -0.844
7 FP1 87 -3.286
7 FP1 88 -6.704
7 FP1 89 -8.657
7 FP1 90 -9.633
7 FP1 91 -9.633
7 FP1 92 -9.145
7 FP1 93 -8.169
7 FP1 94 -7.192
7 FP1 95 -4.751
7 FP1 96 -1.333
7 FP1 97 1.597
7 FP1 98 3.062
7 FP1 99 1.597
7 FP1 100 -0.356
7 FP1 101 -2.797
7 FP1 102 -2.797
7 FP1 103 -0.844
7 FP1 104 2.085
7 FP1 105 4.527
7 FP1 106 5.992
7 FP1 107 5.992
7 FP1 108 5.992
7 FP1 109 7.456
7 FP1 110 9.410
7 FP1 111 11.851
7 FP1 112 12.828
7 FP1 113 12.339
7 FP1 114 10.874
7 FP1 115 9.898
7 FP1 116 10.386
7 FP1 117 11.363
7 FP1 118 11.851
7 FP1 119 10.386
7 FP1 120 6.968
7 FP1 121 3.550
7 FP1 122 1.597
7 FP1 123 2.085
7 FP1 124 3.062
7 FP1 125 3.550
7 FP1 126 2.574
7 FP1 127 1.109
7 FP1 128 -0.844
7 FP1 129 -1.333
7 FP1 130 -1.333
7 FP1 131 -0.844
7 FP1 132 -0.356
7 FP1 133 0.132
7 FP1 134 0.132
7 FP1 135 -1.333
7 FP1 136 -3.774
7 FP1 137 -6.215
7 FP1 138 -7.192
7 FP1 139 -5.727
7 FP1 140 -3.286
7 FP1 141 -0.356
7 FP1 142 0.132
7 FP1 143 -1.333
7 FP1 144 -4.262
7 FP1 145 -7.192
7 FP1 146 -8.657
7 FP1 147 -8.657
7 FP1 148 -7.192
7 FP1 149 -6.215
7 FP1 150 -5.727
7 FP1 151 -7.192
7 FP1 152 -9.145
7 FP1 153 -10.610
7 FP1 154 -11.098
7 FP1 155 -10.122
7 FP1 156 -7.680
7 FP1 157 -5.727
7 FP1 158 -4.262
7 FP1 159 -4.262
7 FP1 160 -5.239
7 FP1 161 -7.192
7 FP1 162 -9.633
7 FP1 163 -12.075
7 FP1 164 -13.051
7 FP1 165 -12.563
7 FP1 166 -11.587
7 FP1 167 -11.587
7 FP1 168 -13.051
7 FP1 169 -15.981
7 FP1 170 -18.422
7 FP1 171 -18.911
7 FP1 172 -16.958
7 FP1 173 -14.028
7 FP1 174 -12.075
7 FP1 175 -12.075
7 FP1 176 -12.075
7 FP1 177 -10.122
7 FP1 178 -7.192
7 FP1 179 -2.797
7 FP1 180 -0.356
7 FP1 181 -0.356
7 FP1 182 -2.797
7 FP1 183 -5.239
7 FP1 184 -6.215
7 FP1 185 -4.751
7 FP1 186 -1.333
7 FP1 187 1.109
7 FP1 188 1.597
7 FP1 189 0.621
7 FP1 190 -1.821
7 FP1 191 -4.262
7 FP1 192 -5.239
7 FP1 193 -5.239
7 FP1 194 -4.262
7 FP1 195 -3.286
7 FP1 196 -2.797
7 FP1 197 -2.797
7 FP1 198 -2.797
7 FP1 199 -4.262
7 FP1 200 -5.239
7 FP1 201 -5.727
7 FP1 202 -5.727
7 FP1 203 -5.727
7 FP1 204 -5.727
7 FP1 205 -5.727
7 FP1 206 -4.262
7 FP1 207 -1.821
7 FP1 208 1.597
7 FP1 209 4.527
7 FP1 210 5.503
7 FP1 211 4.038
7 FP1 212 1.597
7 FP1 213 -1.333
7 FP1 214 -1.821
7 FP1 215 -1.333
7 FP1 216 -0.356
7 FP1 217 1.109
7 FP1 218 2.574
7 FP1 219 4.527
7 FP1 220 5.503
7 FP1 221 4.527
7 FP1 222 0.621
7 FP1 223 -3.774
7 FP1 224 -7.680
7 FP1 225 -8.169
7 FP1 226 -6.215
7 FP1 227 -2.797
7 FP1 228 -1.333
7 FP1 229 -2.309
7 FP1 230 -3.774
7 FP1 231 -4.751
7 FP1 232 -3.774
7 FP1 233 -2.797
7 FP1 234 -2.309
7 FP1 235 -3.286
7 FP1 236 -4.751
7 FP1 237 -6.215
7 FP1 238 -6.704
7 FP1 239 -7.192
7 FP1 240 -6.704
7 FP1 241 -6.215
7 FP1 242 -4.262
7 FP1 243 -1.821
7 FP1 244 -0.356
7 FP1 245 0.132
7 FP1 246 -0.844
7 FP1 247 -1.333
7 FP1 248 -1.821
7 FP1 249 -2.309
7 FP1 250 -3.774
7 FP1 251 -6.704
7 FP1 252 -9.145
7 FP1 253 -9.145
7 FP1 254 -7.680
7 FP1 255 -5.239
# FP2 chan 1
7 FP2 0 18.636
7 FP2 1 21.077
7 FP2 2 23.519
7 FP2 3 24.495
7 FP2 4 23.519
7 FP2 5 23.031
7 FP2 6 24.495
7 FP2 7 27.913
7 FP2 8 32.308
7 FP2 9 34.261
7 FP2 10 32.308
7 FP2 11 27.913
7 FP2 12 24.495
7 FP2 13 24.495
7 FP2 14 27.913
7 FP2 15 31.820
7 FP2 16 33.285
7 FP2 17 30.843
7 FP2 18 27.425
7 FP2 19 25.472
7 FP2 20 26.449
7 FP2 21 28.402
7 FP2 22 28.402
7 FP2 23 25.472
7 FP2 24 22.054
7 FP2 25 21.077
7 FP2 26 23.519
7 FP2 27 28.402
7 FP2 28 31.820
7 FP2 29 31.820
7 FP2 30 28.890
7 FP2 31 25.960
7 FP2 32 24.007
7 FP2 33 24.984
7 FP2 34 25.472
7 FP2 35 25.472
7 FP2 36 24.007
7 FP2 37 23.519
7 FP2 38 24.495
7 FP2 39 26.937
7 FP2 40 29.378
7 FP2 41 30.355
7 FP2 42 28.890
7 FP2 43 25.960
7 FP2 44 22.054
7 FP2 45 20.101
7 FP2 46 19.124
7 FP2 47 20.589
7 FP2 48 22.054
7 FP2 49 23.031
7 FP2 50 22.542
7 FP2 51 21.566
7 FP2 52 20.589
7 FP2 53 19.613
7 FP2 54 18.636
7 FP2 55 18.636
7 FP2 56 19.613
7 FP2 57 22.054
7 FP2 58 24.984
7 FP2 59 26.449
7 FP2 60 24.495
7 FP2 61 19.124
7 FP2 62 13.265
7 FP2 63 10.335
7 FP2 64 10.824
7 FP2 65 14.242
7 FP2 66 17.171
7 FP2 67 18.148
7 FP2 68 16.683
7 FP2 69 15.218
7 FP2 70 15.706
7 FP2 71 16.683
7 FP2 72 16.683
7 FP2 73 14.730
7 FP2 74 12.288
7 FP2 75 11.312
7 FP2 76 13.753
7 FP2 77 18.636
7 FP2 78 22.542
7 FP2 79 22.542
7 FP2 80 19.613
7 FP2 81 14.242
7 FP2 82 9.847
7 FP2 83 6.917
7 FP2 84 4.964
7 FP2 85 3.499
7 FP2 86 2.035
7 FP2 87 2.523
7 FP2 88 4.476
7 FP2 89 6.429
7 FP2 90 5.941
7 FP2 91 2.523
7 FP2 92 -2.848
7 FP2 93 -6.266
7 FP2 94 -4.313
7 FP2 95 2.035
7 FP2 96 8.870
7 FP2 97 12.777
7 FP2 98 11.800
7 FP2 99 8.382
7 FP2 100 5.452
7 FP2 101 4.964
7 FP2 102 7.406
7 FP2 103 10.824
7 FP2 104 12.288
7 FP2 105 12.777
7 FP2 106 12.288
7 FP2 107 12.288
7 FP2 108 12.777
7 FP2 109 13.753
7 FP2 110 14.730
7 FP2 111 15.706
7 FP2 112 16.683
7 FP2 113 17.660
7 FP2 114 17.660
7 FP2 115 17.171
7 FP2 116 16.683
7 FP2 117 16.195
7 FP2 118 16.195
7 FP2 119 15.218
7 FP2 120 13.265
7 FP2 121 9.847
7 FP2 122 6.429
7 FP2 123 4.476
7 FP2 124 3.499
7 FP2 125 4.476
7 FP2 126 5.941
7 FP2 127 6.429
7 FP2 128 4.964
7 FP2 129 2.035
7 FP2 130 -1.383
7 FP2 131 -3.337
7 FP2 132 -2.848
7 FP2 133 -0.407
7 FP2 134 2.035
7 FP2 135 3.499
7 FP2 136 2.523
7 FP2 137 0.570
7 FP2 138 -1.383
7 FP2 139 -3.337
7 FP2 140 -3.337
7 FP2 141 -2.848
7 FP2 142 -2.848
7 FP2 143 -3.337
7 FP2 144 -4.801
7 FP2 145 -7.243
7 FP2 146 -9.684
7 FP2 147 -11.149
7 FP2 148 -11.637
7 FP2 149 -11.149
7 FP2 150 -10.173
7 FP2 151 -10.173
7 FP2 152 -10.661
7 FP2 153 -12.126
7 FP2 154 -13.102
7 FP2 155 -12.614
7 FP2 156 -12.126
7 FP2 157 -11.637
7 FP2 158 -12.126
7 FP2 159 -12.614
7 FP2 160 -13.102
7 FP2 161 -14.079
7 FP2 162 -15.544
7 FP2 163 -18.473
7 FP2 164 -21.403
7 FP2 165 -22.868
7 FP2 166 -22.380
7 FP2 167 -20.426
7 FP2 168 -18.962
7 FP2 169 -18.962
7 FP2 170 -19.938
7 FP2 171 -20.915
7 FP2 172 -20.426
7 FP2 173 -19.938
7 FP2 174 -19.450
7 FP2 175 -18.962
7 FP2 176 -18.962
7 FP2 177 -16.520
7 FP2 178 -13.102
7 FP2 179 -8.219
7 FP2 180 -3.825
7 FP2 181 -1.872
7 FP2 182 -1.872
7 FP2 183 -3.825
7 FP2 184 -4.801
7 FP2 185 -3.825
7 FP2 186 -1.872
7 FP2 187 1.058
7 FP2 188 3.499
7 FP2 189 5.452
7 FP2 190 5.941
7 FP2 191 5.941
7 FP2 192 5.941
7 FP2 193 6.429
7 FP2 194 8.382
7 FP2 195 10.824
7 FP2 196 12.777
7 FP2 197 13.265
7 FP2 198 11.312
7 FP2 199 7.894
7 FP2 200 5.452
7 FP2 201 4.964
7 FP2 202 6.917
7 FP2 203 9.847
7 FP2 204 12.777
7 FP2 205 13.753
7 FP2 206 14.242
7 FP2 207 14.730
7 FP2 208 15.706
7 FP2 209 18.148
7 FP2 210 20.101
7 FP2 211 22.542
7 FP2 212 23.519
7 FP2 213 24.007
7 FP2 214 23.519
7 FP2 215 23.031
7 FP2 216 22.054
7 FP2 217 21.566
7 FP2 218 21.566
7 FP2 219 22.542
7 FP2 220 22.542
7 FP2 221 22.054
7 FP2 222 20.101
7 FP2 223 17.660
7 FP2 224 15.706
7 FP2 225 15.218
7 FP2 226 16.195
7 FP2 227 17.171
7 FP2 228 16.683
7 FP2 229 15.218
7 FP2 230 13.265
7 FP2 231 12.288
7 FP2 232 13.265
7 FP2 233 15.706
7 FP2 234 17.660
7 FP2 235 18.148
7 FP2 236 15.706
7 FP2 237 11.312
7 FP2 238 6.917
7 FP2 239 4.476
7 FP2 240 5.452
7 FP2 241 9.359
7 FP2 242 14.730
7 FP2 243 19.124
7 FP2 244 21.077
7 FP2 245 20.101
7 FP2 246 18.148
7 FP2 247 16.683
7 FP2 248 16.683
7 FP2 249 16.195
7 FP2 250 14.242
7 FP2 251 9.847
7 FP2 252 5.941
7 FP2 253 4.964
7 FP2 254 6.917
7 FP2 255 11.312
# F7 chan 2
7 F7 0 -8.759
7 F7 1 -6.805
7 F7 2 -3.876
7 F7 3 -1.434
7 F7 4 -1.923
7 F7 5 -3.387
7 F7 6 -4.852
7 F7 7 -5.341
7 F7 8 -7.294
7 F7 9 -9.735
7 F7 10 -13.153
7 F7 11 -13.641
7 F7 12 -9.247
7 F7 13 -0.946
7 F7 14 6.866
7 F7 15 8.820
7 F7 16 3.937
7 F7 17 -4.364
7 F7 18 -9.247
7 F7 19 -8.759
7 F7 20 -3.876
7 F7 21 0.031
7 F7 22 -0.458
7 F7 23 -3.876
7 F7 24 -6.805
7 F7 25 -5.829
7 F7 26 -2.411
7 F7 27 0.031
7 F7 28 -1.434
7 F7 29 -5.829
7 F7 30 -9.735
7 F7 31 -11.200
7 F7 32 -10.712
7 F7 33 -10.712
7 F7 34 -13.641
7 F7 35 -19.012
7 F7 36 -22.430
7 F7 37 -21.454
7 F7 38 -16.571
7 F7 39 -10.712
7 F7 40 -6.805
7 F7 41 -7.294
7 F7 42 -9.735
7 F7 43 -12.665
7 F7 44 -13.641
7 F7 45 -13.153
7 F7 46 -12.665
7 F7 47 -12.665
7 F7 48 -12.177
7 F7 49 -10.223
7 F7 50 -7.294
7 F7 51 -3.876
7 F7 52 -2.411
7 F7 53 -3.387
7 F7 54 -5.829
7 F7 55 -7.782
7 F7 56 -7.294
7 F7 57 -4.852
7 F7 58 -1.923
7 F7 59 0.031
7 F7 60 -1.434
7 F7 61 -4.852
7 F7 62 -9.247
7 F7 63 -12.665
7 F7 64 -14.618
7 F7 65 -14.618
7 F7 66 -14.618
7 F7 67 -14.130
7 F7 68 -13.153
7 F7 69 -12.665
7 F7 70 -11.688
7 F7 71 -11.200
7 F7 72 -11.200
7 F7 73 -12.177
7 F7 74 -12.665
7 F7 75 -11.688
7 F7 76 -9.735
7 F7 77 -6.805
7 F7 78 -4.852
7 F7 79 -4.852
7 F7 80 -7.294
7 F7 81 -9.735
7 F7 82 -11.200
7 F7 83 -9.735
7 F7 84 -6.805
7 F7 85 -5.341
7 F7 86 -6.805
7 F7 87 -11.688
7 F7 88 -17.548
7 F7 89 -21.454
7 F7 90 -20.966
7 F7 91 -17.548
7 F7 92 -13.153
7 F7 93 -10.223
7 F7 94 -9.247
7 F7 95 -9.735
7 F7 96 -9.735
7 F7 97 -9.735
7 F7 98 -9.735
7 F7 99 -11.200
7 F7 100 -14.618
7 F7 101 -17.059
7 F7 102 -18.036
7 F7 103 -16.083
7 F7 104 -11.688
7 F7 105 -8.270
7 F7 106 -7.294
7 F7 107 -8.759
7 F7 108 -12.177
7 F7 109 -14.618
7 F7 110 -15.106
7 F7 111 -13.153
7 F7 112 -10.223
7 F7 113 -8.270
7 F7 114 -8.270
7 F7 115 -9.735
7 F7 116 -11.688
7 F7 117 -12.177
7 F7 118 -11.200
7 F7 119 -9.735
7 F7 120 -9.735
7 F7 121 -12.665
7 F7 122 -16.571
7 F7 123 -19.989
7 F7 124 -20.477
7 F7 125 -17.548
7 F7 126 -13.641
7 F7 127 -11.688
7 F7 128 -13.641
7 F7 129 -18.036
7 F7 130 -20.966
7 F7 131 -20.966
7 F7 132 -19.012
7 F7 133 -17.059
7 F7 134 -18.524
7 F7 135 -22.430
7 F7 136 -26.825
7 F7 137 -29.266
7 F7 138 -29.266
7 F7 139 -27.802
7 F7 140 -27.313
7 F7 141 -27.802
7 F7 142 -28.290
7 F7 143 -28.290
7 F7 144 -27.313
7 F7 145 -26.825
7 F7 146 -27.802
7 F7 147 -30.243
7 F7 148 -32.196
7 F7 149 -31.708
7 F7 150 -30.731
7 F7 151 -31.708
7 F7 152 -35.126
7 F7 153 -39.520
7 F7 154 -42.450
7 F7 155 -40.497
7 F7 156 -34.637
7 F7 157 -28.778
7 F7 158 -25.848
7 F7 159 -26.825
7 F7 160 -29.755
7 F7 161 -32.196
7 F7 162 -34.149
7 F7 163 -35.126
7 F7 164 -36.102
7 F7 165 -37.079
7 F7 166 -37.567
7 F7 167 -37.079
7 F7 168 -37.567
7 F7 169 -40.009
7 F7 170 -42.450
7 F7 171 -43.427
7 F7 172 -40.985
7 F7 173 -36.591
7 F7 174 -32.684
7 F7 175 -31.708
7 F7 176 -32.684
7 F7 177 -32.196
7 F7 178 -28.290
7 F7 179 -22.430
7 F7 180 -18.036
7 F7 181 -19.989
7 F7 182 -26.337
7 F7 183 -34.149
7 F7 184 -37.079
7 F7 185 -34.637
7 F7 186 -28.290
7 F7 187 -23.895
7 F7 188 -23.407
7 F7 189 -25.848
7 F7 190 -28.290
7 F7 191 -29.266
7 F7 192 -29.266
7 F7 193 -29.266
7 F7 194 -30.243
7 F7 195 -31.219
7 F7 196 -30.243
7 F7 197 -27.313
7 F7 198 -24.872
7 F7 199 -24.384
7 F7 200 -26.825
7 F7 201 -29.266
7 F7 202 -30.731
7 F7 203 -30.731
7 F7 204 -29.755
7 F7 205 -29.266
7 F7 206 -28.290
7 F7 207 -26.825
7 F7 208 -22.919
7 F7 209 -17.548
7 F7 210 -14.618
7 F7 211 -16.083
7 F7 212 -21.454
7 F7 213 -27.802
7 F7 214 -31.219
7 F7 215 -30.243
7 F7 216 -25.848
7 F7 217 -21.454
7 F7 218 -19.501
7 F7 219 -19.989
7 F7 220 -21.942
7 F7 221 -22.919
7 F7 222 -23.407
7 F7 223 -23.895
7 F7 224 -23.895
7 F7 225 -25.360
7 F7 226 -25.848
7 F7 227 -25.848
7 F7 228 -24.872
7 F7 229 -23.407
7 F7 230 -21.454
7 F7 231 -20.966
7 F7 232 -21.942
7 F7 233 -23.895
7 F7 234 -26.337
7 F7 235 -27.313
7 F7 236 -26.337
7 F7 237 -24.384
7 F7 238 -23.407
7 F7 239 -24.384
7 F7 240 -27.313
7 F7 241 -30.243
7 F7 242 -30.731
7 F7 243 -30.243
7 F7 244 -28.290
7 F7 245 -27.802
7 F7 246 -25.848
7 F7 247 -22.430
7 F7 248 -17.548
7 F7 249 -14.130
7 F7 250 -15.106
7 F7 251 -20.966
7 F7 252 -28.290
7 F7 253 -32.196
7 F7 254 -31.708
7 F7 255 -28.290
# F8 chan 3
7 F8 0 0.020
7 F8 1 -3.398
7 F8 2 -5.839
7 F8 3 -4.862
7 F8 4 -2.421
7 F8 5 0.020
7 F8 6 2.462
7 F8 7 6.368
7 F8 8 12.227
7 F8 9 16.622
7 F8 10 15.157
7 F8 11 6.856
7 F8 12 -3.398
7 F8 13 -7.304
7 F8 14 -1.445
7 F8 15 10.274
7 F8 16 18.087
7 F8 17 15.157
7 F8 18 4.903
7 F8 19 -4.862
7 F8 20 -4.862
7 F8 21 3.438
7 F8 22 11.251
7 F8 23 11.739
7 F8 24 2.950
7 F8 25 -7.792
7 F8 26 -12.187
7 F8 27 -7.304
7 F8 28 2.462
7 F8 29 9.786
7 F8 30 9.786
7 F8 31 5.391
7 F8 32 0.997
7 F8 33 -1.445
7 F8 34 -1.445
7 F8 35 -1.933
7 F8 36 -3.398
7 F8 37 -2.909
7 F8 38 0.020
7 F8 39 5.880
7 F8 40 10.763
7 F8 41 11.251
7 F8 42 6.368
7 F8 43 0.020
7 F8 44 -3.886
7 F8 45 -3.398
7 F8 46 0.509
7 F8 47 4.415
7 F8 48 5.880
7 F8 49 4.415
7 F8 50 1.973
7 F8 51 -1.445
7 F8 52 -4.862
7 F8 53 -7.304
7 F8 54 -5.839
7 F8 55 -0.468
7 F8 56 9.298
7 F8 57 19.552
7 F8 58 25.411
7 F8 59 21.993
7 F8 60 10.763
7 F8 61 -2.909
7 F8 62 -11.698
7 F8 63 -11.698
7 F8 64 -4.862
7 F8 65 3.438
7 F8 66 8.321
7 F8 67 8.321
7 F8 68 4.903
7 F8 69 0.020
7 F8 70 -5.351
7 F8 71 -9.257
7 F8 72 -9.257
7 F8 73 -4.862
7 F8 74 2.950
7 F8 75 9.786
7 F8 76 12.227
7 F8 77 10.274
7 F8 78 6.856
7 F8 79 6.368
7 F8 80 9.786
7 F8 81 13.692
7 F8 82 12.716
7 F8 83 5.880
7 F8 84 -3.886
7 F8 85 -11.698
7 F8 86 -13.163
7 F8 87 -8.769
7 F8 88 -2.909
7 F8 89 0.020
7 F8 90 -0.956
7 F8 91 -2.909
7 F8 92 -3.398
7 F8 93 -0.468
7 F8 94 2.950
7 F8 95 3.438
7 F8 96 0.997
7 F8 97 -2.421
7 F8 98 -2.909
7 F8 99 0.020
7 F8 100 4.415
7 F8 101 5.880
7 F8 102 2.462
7 F8 103 -2.909
7 F8 104 -5.839
7 F8 105 -2.909
7 F8 106 4.415
7 F8 107 12.227
7 F8 108 16.622
7 F8 109 16.134
7 F8 110 12.716
7 F8 111 9.786
7 F8 112 8.321
7 F8 113 8.321
7 F8 114 10.763
7 F8 115 14.180
7 F8 116 18.087
7 F8 117 21.016
7 F8 118 21.993
7 F8 119 19.063
7 F8 120 13.204
7 F8 121 7.345
7 F8 122 4.415
7 F8 123 6.368
7 F8 124 10.274
7 F8 125 12.716
7 F8 126 12.227
7 F8 127 8.321
7 F8 128 4.415
7 F8 129 4.415
7 F8 130 9.298
7 F8 131 16.622
7 F8 132 21.505
7 F8 133 21.993
7 F8 134 18.087
7 F8 135 12.227
7 F8 136 8.809
7 F8 137 7.833
7 F8 138 8.809
7 F8 139 9.298
7 F8 140 8.321
7 F8 141 7.345
7 F8 142 6.856
7 F8 143 7.833
7 F8 144 7.345
7 F8 145 4.415
7 F8 146 -0.468
7 F8 147 -4.862
7 F8 148 -4.374
7 F8 149 0.509
7 F8 150 7.833
7 F8 151 11.251
7 F8 152 7.833
7 F8 153 -0.468
7 F8 154 -7.304
7 F8 155 -6.816
7 F8 156 1.485
7 F8 157 12.227
7 F8 158 17.110
7 F8 159 12.716
7 F8 160 1.973
7 F8 161 -8.280
7 F8 162 -11.698
7 F8 163 -7.792
7 F8 164 -0.468
7 F8 165 2.950
7 F8 166 0.997
7 F8 167 -4.374
7 F8 168 -8.280
7 F8 169 -7.304
7 F8 170 -1.933
7 F8 171 2.950
7 F8 172 4.415
7 F8 173 0.997
7 F8 174 -3.398
7 F8 175 -4.374
7 F8 176 -2.421
7 F8 177 1.485
7 F8 178 3.927
7 F8 179 4.903
7 F8 180 5.391
7 F8 181 6.856
7 F8 182 9.298
7 F8 183 10.763
7 F8 184 10.274
7 F8 185 8.809
7 F8 186 9.298
7 F8 187 12.227
7 F8 188 15.157
7 F8 189 15.645
7 F8 190 10.763
7 F8 191 3.438
7 F8 192 -1.933
7 F8 193 -2.421
7 F8 194 0.997
7 F8 195 5.391
7 F8 196 6.368
7 F8 197 2.950
7 F8 198 -1.933
7 F8 199 -3.398
7 F8 200 -0.468
7 F8 201 5.391
7 F8 202 10.274
7 F8 203 10.763
7 F8 204 7.345
7 F8 205 1.485
7 F8 206 -1.445
7 F8 207 -0.468
7 F8 208 4.415
7 F8 209 10.274
7 F8 210 13.204
7 F8 211 12.227
7 F8 212 8.809
7 F8 213 4.903
7 F8 214 4.415
7 F8 215 7.833
7 F8 216 12.716
7 F8 217 16.622
7 F8 218 16.134
7 F8 219 10.763
7 F8 220 3.438
7 F8 221 -2.909
7 F8 222 -4.862
7 F8 223 -2.421
7 F8 224 2.462
7 F8 225 6.368
7 F8 226 7.345
7 F8 227 4.903
7 F8 228 0.997
7 F8 229 -0.468
7 F8 230 1.973
7 F8 231 7.833
7 F8 232 13.204
7 F8 233 14.180
7 F8 234 9.298
7 F8 235 2.950
7 F8 236 -0.468
7 F8 237 2.950
7 F8 238 10.274
7 F8 239 15.645
7 F8 240 14.180
7 F8 241 7.345
7 F8 242 0.997
7 F8 243 0.509
7 F8 244 7.833
7 F8 245 17.598
7 F8 246 24.434
7 F8 247 22.970
7 F8 248 15.157
7 F8 249 6.856
7 F8 250 3.927
7 F8 251 7.833
7 F8 252 15.157
7 F8 253 19.063
7 F8 254 16.134
7 F8 255 8.809
# AF1 chan 4
7 AF1 0 0.977
7 AF1 1 2.441
7 AF1 2 3.418
7 AF1 3 1.953
7 AF1 4 0.000
7 AF1 5 -1.953
7 AF1 6 -1.465
7 AF1 7 0.000
7 AF1 8 2.441
7 AF1 9 3.418
7 AF1 10 2.930
7 AF1 11 1.953
7 AF1 12 0.977
7 AF1 13 1.953
7 AF1 14 4.395
7 AF1 15 6.348
7 AF1 16 8.301
7 AF1 17 8.789
7 AF1 18 7.812
7 AF1 19 6.836
7 AF1 20 5.859
7 AF1 21 4.883
7 AF1 22 3.906
7 AF1 23 3.418
7 AF1 24 2.930
7 AF1 25 2.930
7 AF1 26 3.906
7 AF1 27 4.395
7 AF1 28 4.883
7 AF1 29 4.395
7 AF1 30 3.906
7 AF1 31 3.906
7 AF1 32 3.906
7 AF1 33 3.906
7 AF1 34 3.418
7 AF1 35 3.418
7 AF1 36 2.930
7 AF1 37 3.418
7 AF1 38 4.395
7 AF1 39 5.859
7 AF1 40 6.348
7 AF1 41 5.371
7 AF1 42 2.930
7 AF1 43 -0.488
7 AF1 44 -1.953
7 AF1 45 -0.488
7 AF1 46 2.930
7 AF1 47 6.836
7 AF1 48 8.789
7 AF1 49 7.812
7 AF1 50 5.371
7 AF1 51 3.418
7 AF1 52 2.930
7 AF1 53 3.906
7 AF1 54 4.883
7 AF1 55 5.371
7 AF1 56 5.859
7 AF1 57 5.859
7 AF1 58 6.836
7 AF1 59 7.324
7 AF1 60 5.859
7 AF1 61 2.930
7 AF1 62 -0.977
7 AF1 63 -3.906
7 AF1 64 -2.930
7 AF1 65 -0.488
7 AF1 66 2.930
7 AF1 67 3.906
7 AF1 68 1.953
7 AF1 69 -1.465
7 AF1 70 -4.883
7 AF1 71 -5.859
7 AF1 72 -5.371
7 AF1 73 -3.906
7 AF1 74 -1.953
7 AF1 75 -0.977
7 AF1 76 0.488
7 AF1 77 2.441
7 AF1 78 3.418
7 AF1 79 2.930
7 AF1 80 1.465
7 AF1 81 -1.465
7 AF1 82 -3.418
7 AF1 83 -4.395
7 AF1 84 -3.906
7 AF1 85 -3.418
7 AF1 86 -3.418
7 AF1 87 -4.395
7 AF1 88 -6.348
7 AF1 89 -7.812
7 AF1 90 -9.766
7 AF1 91 -10.254
7 AF1 92 -10.254
7 AF1 93 -8.789
7 AF1 94 -5.859
7 AF1 95 -2.930
7 AF1 96 -0.977
7 AF1 97 -0.488
7 AF1 98 -1.465
7 AF1 99 -3.418
7 AF1 100 -4.883
7 AF1 101 -5.371
7 AF1 102 -3.906
7 AF1 103 -1.953
7 AF1 104 0.000
7 AF1 105 1.953
7 AF1 106 4.395
7 AF1 107 5.859
7 AF1 108 6.348
7 AF1 109 6.348
7 AF1 110 5.859
7 AF1 111 5.859
7 AF1 112 6.348
7 AF1 113 7.812
7 AF1 114 8.301
7 AF1 115 8.789
7 AF1 116 8.301
7 AF1 117 8.301
7 AF1 118 7.812
7 AF1 119 6.836
7 AF1 120 4.883
7 AF1 121 1.953
7 AF1 122 -0.977
7 AF1 123 -2.930
7 AF1 124 -3.906
7 AF1 125 -3.906
7 AF1 126 -2.930
7 AF1 127 -2.930
7 AF1 128 -2.930
7 AF1 129 -3.906
7 AF1 130 -4.883
7 AF1 131 -5.859
7 AF1 132 -5.371
7 AF1 133 -4.883
7 AF1 134 -3.906
7 AF1 135 -3.906
7 AF1 136 -4.883
7 AF1 137 -6.348
7 AF1 138 -7.324
7 AF1 139 -7.812
7 AF1 140 -6.348
7 AF1 141 -4.395
7 AF1 142 -3.906
7 AF1 143 -4.883
7 AF1 144 -6.836
7 AF1 145 -9.277
7 AF1 146 -10.254
7 AF1 147 -9.766
7 AF1 148 -7.812
7 AF1 149 -6.348
7 AF1 150 -6.348
7 AF1 151 -7.812
7 AF1 152 -10.254
7 AF1 153 -12.207
7 AF1 154 -12.695
7 AF1 155 -11.230
7 AF1 156 -9.277
7 AF1 157 -7.812
7 AF1 158 -7.812
7 AF1 159 -8.301
7 AF1 160 -8.301
7 AF1 161 -8.789
7 AF1 162 -9.766
7 AF1 163 -10.254
7 AF1 164 -11.719
7 AF1 165 -12.207
7 AF1 166 -12.207
7 AF1 167 -12.207
7 AF1 168 -12.695
7 AF1 169 -13.672
7 AF1 170 -15.137
7 AF1 171 -14.160
7 AF1 172 -12.695
7 AF1 173 -10.742
7 AF1 174 -10.742
7 AF1 175 -12.207
7 AF1 176 -14.160
7 AF1 177 -13.672
7 AF1 178 -11.230
7 AF1 179 -7.812
7 AF1 180 -4.883
7 AF1 181 -4.395
7 AF1 182 -5.859
7 AF1 183 -8.301
7 AF1 184 -9.277
7 AF1 185 -8.789
7 AF1 186 -7.324
7 AF1 187 -5.859
7 AF1 188 -5.859
7 AF1 189 -6.348
7 AF1 190 -6.348
7 AF1 191 -5.859
7 AF1 192 -4.883
7 AF1 193 -4.883
7 AF1 194 -5.371
7 AF1 195 -6.348
7 AF1 196 -7.324
7 AF1 197 -7.812
7 AF1 198 -8.301
7 AF1 199 -8.789
7 AF1 200 -9.766
7 AF1 201 -10.742
7 AF1 202 -11.230
7 AF1 203 -10.254
7 AF1 204 -9.766
7 AF1 205 -9.277
7 AF1 206 -7.812
7 AF1 207 -6.348
7 AF1 208 -3.906
7 AF1 209 -0.977
7 AF1 210 0.000
7 AF1 211 -0.488
7 AF1 212 -2.930
7 AF1 213 -4.883
7 AF1 214 -5.859
7 AF1 215 -4.883
7 AF1 216 -2.441
7 AF1 217 0.488
7 AF1 218 2.441
7 AF1 219 2.930
7 AF1 220 2.441
7 AF1 221 0.488
7 AF1 222 -1.465
7 AF1 223 -3.418
7 AF1 224 -4.883
7 AF1 225 -5.371
7 AF1 226 -5.371
7 AF1 227 -5.371
7 AF1 228 -5.371
7 AF1 229 -5.859
7 AF1 230 -5.859
7 AF1 231 -5.371
7 AF1 232 -5.371
7 AF1 233 -5.371
7 AF1 234 -6.348
7 AF1 235 -7.324
7 AF1 236 -7.324
7 AF1 237 -7.324
7 AF1 238 -6.836
7 AF1 239 -6.836
7 AF1 240 -7.324
7 AF1 241 -7.324
7 AF1 242 -6.348
7 AF1 243 -4.395
7 AF1 244 -2.441
7 AF1 245 -1.953
7 AF1 246 -1.953
7 AF1 247 -2.441
7 AF1 248 -2.441
7 AF1 249 -2.930
7 AF1 250 -3.906
7 AF1 251 -5.859
7 AF1 252 -8.301
7 AF1 253 -9.277
7 AF1 254 -7.812
7 AF1 255 -5.859
# AF2 chan 5
7 AF2 0 -0.264
7 AF2 1 1.200
7 AF2 2 2.177
7 AF2 3 2.177
7 AF2 4 1.200
7 AF2 5 0.712
7 AF2 6 1.689
7 AF2 7 3.642
7 AF2 8 5.107
7 AF2 9 5.107
7 AF2 10 3.153
7 AF2 11 0.712
7 AF2 12 -1.241
7 AF2 13 -0.753
7 AF2 14 1.200
7 AF2 15 3.642
7 AF2 16 6.083
7 AF2 17 6.571
7 AF2 18 5.595
7 AF2 19 4.618
7 AF2 20 3.642
7 AF2 21 1.689
7 AF2 22 -0.753
7 AF2 23 -2.706
7 AF2 24 -3.682
7 AF2 25 -2.706
7 AF2 26 -0.753
7 AF2 27 1.200
7 AF2 28 1.200
7 AF2 29 -0.753
7 AF2 30 -2.706
7 AF2 31 -4.171
7 AF2 32 -3.682
7 AF2 33 -2.218
7 AF2 34 -1.241
7 AF2 35 0.712
7 AF2 36 1.200
7 AF2 37 2.177
7 AF2 38 2.665
7 AF2 39 3.642
7 AF2 40 3.153
7 AF2 41 1.689
7 AF2 42 -0.753
7 AF2 43 -2.706
7 AF2 44 -3.682
7 AF2 45 -3.194
7 AF2 46 -1.729
7 AF2 47 0.712
7 AF2 48 1.689
7 AF2 49 2.177
7 AF2 50 1.689
7 AF2 51 0.712
7 AF2 52 -0.264
7 AF2 53 -0.264
7 AF2 54 -0.264
7 AF2 55 0.224
7 AF2 56 1.200
7 AF2 57 2.177
7 AF2 58 3.153
7 AF2 59 3.153
7 AF2 60 1.689
7 AF2 61 -0.753
7 AF2 62 -2.706
7 AF2 63 -3.682
7 AF2 64 -2.218
7 AF2 65 0.712
7 AF2 66 3.153
7 AF2 67 3.642
7 AF2 68 1.200
7 AF2 69 -2.706
7 AF2 70 -7.100
7 AF2 71 -9.542
7 AF2 72 -9.542
7 AF2 73 -8.077
7 AF2 74 -5.147
7 AF2 75 -2.218
7 AF2 76 1.200
7 AF2 77 3.153
7 AF2 78 4.130
7 AF2 79 4.130
7 AF2 80 2.665
7 AF2 81 0.712
7 AF2 82 -1.729
7 AF2 83 -3.682
7 AF2 84 -4.171
7 AF2 85 -5.147
7 AF2 86 -5.636
7 AF2 87 -6.612
7 AF2 88 -7.100
7 AF2 89 -7.589
7 AF2 90 -8.077
7 AF2 91 -8.565
7 AF2 92 -8.565
7 AF2 93 -8.077
7 AF2 94 -6.612
7 AF2 95 -4.171
7 AF2 96 -1.729
7 AF2 97 0.224
7 AF2 98 -0.264
7 AF2 99 -1.729
7 AF2 100 -3.194
7 AF2 101 -3.682
7 AF2 102 -2.706
7 AF2 103 -0.753
7 AF2 104 1.200
7 AF2 105 2.665
7 AF2 106 3.642
7 AF2 107 4.618
7 AF2 108 4.618
7 AF2 109 5.107
7 AF2 110 5.595
7 AF2 111 6.571
7 AF2 112 7.060
7 AF2 113 8.036
7 AF2 114 8.525
7 AF2 115 8.525
7 AF2 116 9.013
7 AF2 117 9.501
7 AF2 118 9.989
7 AF2 119 9.989
7 AF2 120 9.013
7 AF2 121 6.083
7 AF2 122 2.665
7 AF2 123 -0.264
7 AF2 124 -1.729
7 AF2 125 -1.241
7 AF2 126 1.200
7 AF2 127 3.153
7 AF2 128 3.153
7 AF2 129 0.712
7 AF2 130 -2.706
7 AF2 131 -5.636
7 AF2 132 -6.124
7 AF2 133 -3.682
7 AF2 134 -0.753
7 AF2 135 1.200
7 AF2 136 0.712
7 AF2 137 -1.241
7 AF2 138 -3.682
7 AF2 139 -4.659
7 AF2 140 -3.682
7 AF2 141 -3.194
7 AF2 142 -3.194
7 AF2 143 -4.171
7 AF2 144 -6.612
7 AF2 145 -8.565
7 AF2 146 -9.054
7 AF2 147 -8.565
7 AF2 148 -7.589
7 AF2 149 -6.612
7 AF2 150 -7.100
7 AF2 151 -9.054
7 AF2 152 -10.518
7 AF2 153 -11.007
7 AF2 154 -10.030
7 AF2 155 -8.077
7 AF2 156 -6.124
7 AF2 157 -5.147
7 AF2 158 -4.171
7 AF2 159 -4.171
7 AF2 160 -4.659
7 AF2 161 -6.124
7 AF2 162 -8.565
7 AF2 163 -11.495
7 AF2 164 -13.936
7 AF2 165 -14.425
7 AF2 166 -13.448
7 AF2 167 -11.983
7 AF2 168 -11.495
7 AF2 169 -12.960
7 AF2 170 -15.401
7 AF2 171 -16.378
7 AF2 172 -15.401
7 AF2 173 -13.936
7 AF2 174 -12.960
7 AF2 175 -13.448
7 AF2 176 -14.425
7 AF2 177 -14.425
7 AF2 178 -11.983
7 AF2 179 -8.565
7 AF2 180 -6.124
7 AF2 181 -6.612
7 AF2 182 -9.054
7 AF2 183 -11.495
7 AF2 184 -11.495
7 AF2 185 -10.030
7 AF2 186 -8.077
7 AF2 187 -7.100
7 AF2 188 -8.565
7 AF2 189 -10.030
7 AF2 190 -11.007
7 AF2 191 -10.518
7 AF2 192 -8.565
7 AF2 193 -7.589
7 AF2 194 -7.100
7 AF2 195 -7.589
7 AF2 196 -8.077
7 AF2 197 -8.077
7 AF2 198 -9.054
7 AF2 199 -10.518
7 AF2 200 -12.472
7 AF2 201 -12.472
7 AF2 202 -11.495
7 AF2 203 -8.565
7 AF2 204 -6.612
7 AF2 205 -5.147
7 AF2 206 -6.124
7 AF2 207 -7.100
7 AF2 208 -7.100
7 AF2 209 -5.636
7 AF2 210 -3.682
7 AF2 211 -2.218
7 AF2 212 -2.218
7 AF2 213 -3.194
7 AF2 214 -3.682
7 AF2 215 -3.682
7 AF2 216 -2.706
7 AF2 217 -1.729
7 AF2 218 -1.241
7 AF2 219 -1.241
7 AF2 220 -2.218
7 AF2 221 -3.194
7 AF2 222 -5.147
7 AF2 223 -6.124
7 AF2 224 -7.100
7 AF2 225 -7.589
7 AF2 226 -7.589
7 AF2 227 -7.589
7 AF2 228 -7.589
7 AF2 229 -8.565
7 AF2 230 -9.542
7 AF2 231 -9.542
7 AF2 232 -9.054
7 AF2 233 -7.589
7 AF2 234 -6.124
7 AF2 235 -5.147
7 AF2 236 -5.636
7 AF2 237 -7.589
7 AF2 238 -10.030
7 AF2 239 -11.983
7 AF2 240 -12.472
7 AF2 241 -10.518
7 AF2 242 -6.124
7 AF2 243 -2.218
7 AF2 244 0.712
7 AF2 245 1.200
7 AF2 246 0.224
7 AF2 247 -1.241
7 AF2 248 -3.194
7 AF2 249 -4.171
7 AF2 250 -6.612
7 AF2 251 -9.054
7 AF2 252 -11.495
7 AF2 253 -11.495
7 AF2 254 -10.030
7 AF2 255 -6.612
# FZ chan 6
7 FZ 0 -0.020
7 FZ 1 1.444
7 FZ 2 2.909
7 FZ 3 3.398
7 FZ 4 2.421
7 FZ 5 1.444
7 FZ 6 0.468
7 FZ 7 0.468
7 FZ 8 1.444
7 FZ 9 1.933
7 FZ 10 1.444
7 FZ 11 0.956
7 FZ 12 0.468
7 FZ 13 1.444
7 FZ 14 2.909
7 FZ 15 5.351
7 FZ 16 7.304
7 FZ 17 8.280
7 FZ 18 8.769
7 FZ 19 9.257
7 FZ 20 9.745
7 FZ 21 10.234
7 FZ 22 10.234
7 FZ 23 9.745
7 FZ 24 8.769
7 FZ 25 7.792
7 FZ 26 7.304
7 FZ 27 7.304
7 FZ 28 6.816
7 FZ 29 6.327
7 FZ 30 6.327
7 FZ 31 6.327
7 FZ 32 6.816
7 FZ 33 7.304
7 FZ 34 7.304
7 FZ 35 7.792
7 FZ 36 8.280
7 FZ 37 9.257
7 FZ 38 11.210
7 FZ 39 13.163
7 FZ 40 14.140
7 FZ 41 13.652
7 FZ 42 12.187
7 FZ 43 11.210
7 FZ 44 11.210
7 FZ 45 11.698
7 FZ 46 13.163
7 FZ 47 14.628
7 FZ 48 14.140
7 FZ 49 12.675
7 FZ 50 10.722
7 FZ 51 9.257
7 FZ 52 8.769
7 FZ 53 7.792
7 FZ 54 8.280
7 FZ 55 9.257
7 FZ 56 9.745
7 FZ 57 10.722
7 FZ 58 11.698
7 FZ 59 12.187
7 FZ 60 11.698
7 FZ 61 10.722
7 FZ 62 9.745
7 FZ 63 8.769
7 FZ 64 8.769
7 FZ 65 8.769
7 FZ 66 9.257
7 FZ 67 9.257
7 FZ 68 8.280
7 FZ 69 6.327
7 FZ 70 4.862
7 FZ 71 3.398
7 FZ 72 3.886
7 FZ 73 5.351
7 FZ 74 6.816
7 FZ 75 8.769
7 FZ 76 10.234
7 FZ 77 11.210
7 FZ 78 12.187
7 FZ 79 12.675
7 FZ 80 11.698
7 FZ 81 10.234
7 FZ 82 8.280
7 FZ 83 7.304
7 FZ 84 7.304
7 FZ 85 7.792
7 FZ 86 8.769
7 FZ 87 7.792
7 FZ 88 6.327
7 FZ 89 4.374
7 FZ 90 3.398
7 FZ 91 3.398
7 FZ 92 4.862
7 FZ 93 6.327
7 FZ 94 7.792
7 FZ 95 9.257
7 FZ 96 10.722
7 FZ 97 11.698
7 FZ 98 11.698
7 FZ 99 11.698
7 FZ 100 10.722
7 FZ 101 10.234
7 FZ 102 9.745
7 FZ 103 10.722
7 FZ 104 11.210
7 FZ 105 12.675
7 FZ 106 13.163
7 FZ 107 13.163
7 FZ 108 12.675
7 FZ 109 12.675
7 FZ 110 12.187
7 FZ 111 13.163
7 FZ 112 13.652
7 FZ 113 14.628
7 FZ 114 15.116
7 FZ 115 15.116
7 FZ 116 15.116
7 FZ 117 14.628
7 FZ 118 13.652
7 FZ 119 12.187
7 FZ 120 10.234
7 FZ 121 7.792
7 FZ 122 5.839
7 FZ 123 3.886
7 FZ 124 3.398
7 FZ 125 3.886
7 FZ 126 4.862
7 FZ 127 5.839
7 FZ 128 5.839
7 FZ 129 4.374
7 FZ 130 2.909
7 FZ 131 1.933
7 FZ 132 2.909
7 FZ 133 4.374
7 FZ 134 6.327
7 FZ 135 7.792
7 FZ 136 7.304
7 FZ 137 6.327
7 FZ 138 5.351
7 FZ 139 5.351
7 FZ 140 6.327
7 FZ 141 6.816
7 FZ 142 6.816
7 FZ 143 5.351
7 FZ 144 3.886
7 FZ 145 2.909
7 FZ 146 2.421
7 FZ 147 2.909
7 FZ 148 3.886
7 FZ 149 3.398
7 FZ 150 2.421
7 FZ 151 0.956
7 FZ 152 -0.509
7 FZ 153 -0.997
7 FZ 154 -0.020
7 FZ 155 2.421
7 FZ 156 3.886
7 FZ 157 5.351
7 FZ 158 5.839
7 FZ 159 5.351
7 FZ 160 4.862
7 FZ 161 3.886
7 FZ 162 2.421
7 FZ 163 0.468
7 FZ 164 -1.485
7 FZ 165 -2.462
7 FZ 166 -1.485
7 FZ 167 -0.509
7 FZ 168 -0.509
7 FZ 169 -1.973
7 FZ 170 -4.415
7 FZ 171 -5.880
7 FZ 172 -5.880
7 FZ 173 -4.415
7 FZ 174 -3.438
7 FZ 175 -2.462
7 FZ 176 -2.462
7 FZ 177 -1.973
7 FZ 178 -0.997
7 FZ 179 0.956
7 FZ 180 1.933
7 FZ 181 1.933
7 FZ 182 0.468
7 FZ 183 -0.997
7 FZ 184 -1.485
7 FZ 185 -0.997
7 FZ 186 -0.020
7 FZ 187 0.468
7 FZ 188 -0.020
7 FZ 189 -0.509
7 FZ 190 -0.020
7 FZ 191 1.444
7 FZ 192 3.398
7 FZ 193 4.374
7 FZ 194 4.374
7 FZ 195 3.398
7 FZ 196 2.421
7 FZ 197 1.444
7 FZ 198 0.956
7 FZ 199 0.468
7 FZ 200 -0.020
7 FZ 201 -0.509
7 FZ 202 -0.020
7 FZ 203 1.444
7 FZ 204 3.398
7 FZ 205 4.374
7 FZ 206 4.862
7 FZ 207 4.862
7 FZ 208 4.862
7 FZ 209 5.351
7 FZ 210 5.351
7 FZ 211 5.351
7 FZ 212 4.374
7 FZ 213 3.886
7 FZ 214 3.398
7 FZ 215 3.886
7 FZ 216 5.351
7 FZ 217 5.839
7 FZ 218 6.327
7 FZ 219 6.816
7 FZ 220 6.327
7 FZ 221 5.839
7 FZ 222 4.374
7 FZ 223 3.398
7 FZ 224 2.909
7 FZ 225 2.421
7 FZ 226 2.909
7 FZ 227 3.398
7 FZ 228 3.886
7 FZ 229 3.886
7 FZ 230 3.398
7 FZ 231 3.886
7 FZ 232 4.374
7 FZ 233 4.862
7 FZ 234 5.839
7 FZ 235 5.351
7 FZ 236 4.862
7 FZ 237 3.398
7 FZ 238 2.909
7 FZ 239 2.421
7 FZ 240 2.909
7 FZ 241 3.886
7 FZ 242 5.351
7 FZ 243 7.304
7 FZ 244 8.769
7 FZ 245 9.257
7 FZ 246 9.257
7 FZ 247 8.280
7 FZ 248 7.304
7 FZ 249 6.327
7 FZ 250 5.351
7 FZ 251 3.886
7 FZ 252 3.886
7 FZ 253 4.374
7 FZ 254 5.839
7 FZ 255 7.304
# F4 chan 7
7 F4 0 -7.599
7 F4 1 -7.599
7 F4 2 -4.669
7 F4 3 -1.251
7 F4 4 1.190
7 F4 5 2.167
7 F4 6 3.143
7 F4 7 4.608
7 F4 8 5.096
7 F4 9 5.096
7 F4 10 2.655
7 F4 11 0.702
7 F4 12 -0.763
7 F4 13 0.214
7 F4 14 3.143
7 F4 15 7.050
7 F4 16 9.979
7 F4 17 11.932
7 F4 18 13.885
7 F4 19 14.374
7 F4 20 13.397
7 F4 21 9.979
7 F4 22 5.585
7 F4 23 2.167
7 F4 24 1.190
7 F4 25 4.120
7 F4 26 8.514
7 F4 27 10.956
7 F4 28 9.491
7 F4 29 5.096
7 F4 30 1.678
7 F4 31 0.702
7 F4 32 2.655
7 F4 33 5.585
7 F4 34 7.538
7 F4 35 7.538
7 F4 36 7.538
7 F4 37 8.514
7 F4 38 10.468
7 F4 39 11.444
7 F4 40 9.491
7 F4 41 5.585
7 F4 42 2.655
7 F4 43 1.678
7 F4 44 3.143
7 F4 45 6.073
7 F4 46 8.026
7 F4 47 8.514
7 F4 48 7.538
7 F4 49 6.561
7 F4 50 7.050
7 F4 51 7.538
7 F4 52 8.026
7 F4 53 7.538
7 F4 54 8.514
7 F4 55 9.491
7 F4 56 10.956
7 F4 57 11.444
7 F4 58 10.468
7 F4 59 8.026
7 F4 60 6.561
7 F4 61 6.073
7 F4 62 7.050
7 F4 63 7.538
7 F4 64 6.561
7 F4 65 3.632
7 F4 66 1.190
7 F4 67 0.214
7 F4 68 0.702
7 F4 69 1.190
7 F4 70 0.214
7 F4 71 -2.228
7 F4 72 -4.669
7 F4 73 -6.134
7 F4 74 -5.646
7 F4 75 -4.181
7 F4 76 -1.251
7 F4 77 1.678
7 F4 78 3.632
7 F4 79 4.608
7 F4 80 4.608
7 F4 81 3.143
7 F4 82 1.190
7 F4 83 -0.763
7 F4 84 -2.228
7 F4 85 -2.228
7 F4 86 -2.228
7 F4 87 -3.204
7 F4 88 -5.157
7 F4 89 -8.087
7 F4 90 -10.529
7 F4 91 -11.017
7 F4 92 -9.552
7 F4 93 -6.622
7 F4 94 -4.181
7 F4 95 -2.716
7 F4 96 -2.228
7 F4 97 -1.740
7 F4 98 -1.251
7 F4 99 -0.763
7 F4 100 0.702
7 F4 101 1.190
7 F4 102 0.702
7 F4 103 0.214
7 F4 104 0.214
7 F4 105 1.678
7 F4 106 3.632
7 F4 107 6.073
7 F4 108 7.538
7 F4 109 7.538
7 F4 110 7.538
7 F4 111 8.026
7 F4 112 9.979
7 F4 113 12.909
7 F4 114 15.350
7 F4 115 15.350
7 F4 116 14.374
7 F4 117 12.909
7 F4 118 12.421
7 F4 119 11.932
7 F4 120 11.444
7 F4 121 8.514
7 F4 122 3.632
7 F4 123 -0.275
7 F4 124 -1.251
7 F4 125 1.678
7 F4 126 6.073
7 F4 127 9.003
7 F4 128 8.026
7 F4 129 5.096
7 F4 130 2.167
7 F4 131 1.678
7 F4 132 4.120
7 F4 133 8.026
7 F4 134 9.979
7 F4 135 10.468
7 F4 136 9.003
7 F4 137 7.538
7 F4 138 7.050
7 F4 139 7.050
7 F4 140 7.050
7 F4 141 6.561
7 F4 142 4.608
7 F4 143 2.655
7 F4 144 1.678
7 F4 145 1.678
7 F4 146 3.143
7 F4 147 3.632
7 F4 148 4.120
7 F4 149 3.143
7 F4 150 0.702
7 F4 151 -3.204
7 F4 152 -6.134
7 F4 153 -8.087
7 F4 154 -8.087
7 F4 155 -6.134
7 F4 156 -4.181
7 F4 157 -2.228
7 F4 158 -1.740
7 F4 159 -1.740
7 F4 160 -2.228
7 F4 161 -2.716
7 F4 162 -3.693
7 F4 163 -5.646
7 F4 164 -6.622
7 F4 165 -6.622
7 F4 166 -5.646
7 F4 167 -4.181
7 F4 168 -3.204
7 F4 169 -4.669
7 F4 170 -7.111
7 F4 171 -8.575
7 F4 172 -8.575
7 F4 173 -6.622
7 F4 174 -4.669
7 F4 175 -3.693
7 F4 176 -4.181
7 F4 177 -3.693
7 F4 178 -1.740
7 F4 179 1.678
7 F4 180 4.120
7 F4 181 2.655
7 F4 182 -2.228
7 F4 183 -7.599
7 F4 184 -9.552
7 F4 185 -6.622
7 F4 186 -1.251
7 F4 187 2.655
7 F4 188 3.143
7 F4 189 0.214
7 F4 190 -2.716
7 F4 191 -3.693
7 F4 192 -1.740
7 F4 193 0.702
7 F4 194 2.167
7 F4 195 2.167
7 F4 196 -0.275
7 F4 197 -2.716
7 F4 198 -4.669
7 F4 199 -5.646
7 F4 200 -6.134
7 F4 201 -6.134
7 F4 202 -4.669
7 F4 203 -2.716
7 F4 204 0.214
7 F4 205 0.702
7 F4 206 -0.275
7 F4 207 -2.716
7 F4 208 -4.669
7 F4 209 -4.669
7 F4 210 -2.716
7 F4 211 0.702
7 F4 212 3.143
7 F4 213 5.096
7 F4 214 5.585
7 F4 215 5.585
7 F4 216 4.120
7 F4 217 1.678
7 F4 218 -1.251
7 F4 219 -2.716
7 F4 220 -2.716
7 F4 221 -0.763
7 F4 222 1.678
7 F4 223 3.143
7 F4 224 2.655
7 F4 225 1.678
7 F4 226 1.678
7 F4 227 2.655
7 F4 228 3.632
7 F4 229 3.632
7 F4 230 1.678
7 F4 231 -0.763
7 F4 232 -1.740
7 F4 233 0.214
7 F4 234 4.120
7 F4 235 6.561
7 F4 236 5.585
7 F4 237 1.190
7 F4 238 -4.181
7 F4 239 -7.599
7 F4 240 -6.134
7 F4 241 -0.275
7 F4 242 6.073
7 F4 243 10.956
7 F4 244 11.932
7 F4 245 10.468
7 F4 246 8.514
7 F4 247 7.050
7 F4 248 6.561
7 F4 249 6.561
7 F4 250 4.608
7 F4 251 1.678
7 F4 252 -1.251
7 F4 253 -2.716
7 F4 254 -0.763
7 F4 255 2.655
# F3 chan 8
7 F3 0 0.356
7 F3 1 3.286
7 F3 2 3.286
7 F3 3 -0.132
7 F3 4 -5.992
7 F3 5 -9.898
7 F3 6 -10.386
7 F3 7 -6.968
7 F3 8 -3.062
7 F3 9 -1.109
7 F3 10 -2.085
7 F3 11 -4.527
7 F3 12 -5.992
7 F3 13 -5.992
7 F3 14 -4.038
7 F3 15 -2.085
7 F3 16 -0.621
7 F3 17 -0.132
7 F3 18 0.844
7 F3 19 0.844
7 F3 20 0.356
7 F3 21 -0.132
7 F3 22 -1.109
7 F3 23 -1.109
7 F3 24 -0.621
7 F3 25 -0.621
7 F3 26 -1.109
7 F3 27 -2.085
7 F3 28 -3.550
7 F3 29 -3.550
7 F3 30 -2.085
7 F3 31 -0.621
7 F3 32 0.356
7 F3 33 -0.132
7 F3 34 -1.597
7 F3 35 -3.062
7 F3 36 -4.527
7 F3 37 -5.015
7 F3 38 -3.062
7 F3 39 -1.109
7 F3 40 0.844
7 F3 41 0.844
7 F3 42 -1.109
7 F3 43 -4.038
7 F3 44 -5.015
7 F3 45 -3.550
7 F3 46 -0.132
7 F3 47 2.797
7 F3 48 3.774
7 F3 49 1.821
7 F3 50 -0.621
7 F3 51 -2.574
7 F3 52 -2.085
7 F3 53 -0.621
7 F3 54 1.821
7 F3 55 2.797
7 F3 56 2.309
7 F3 57 1.333
7 F3 58 1.333
7 F3 59 1.821
7 F3 60 2.309
7 F3 61 1.333
7 F3 62 -0.621
7 F3 63 -3.550
7 F3 64 -5.015
7 F3 65 -5.503
7 F3 66 -5.015
7 F3 67 -3.550
7 F3 68 -3.550
7 F3 69 -3.550
7 F3 70 -4.038
7 F3 71 -4.527
7 F3 72 -5.015
7 F3 73 -5.503
7 F3 74 -5.503
7 F3 75 -4.527
7 F3 76 -3.062
7 F3 77 -0.621
7 F3 78 0.844
7 F3 79 1.821
7 F3 80 0.844
7 F3 81 -0.621
7 F3 82 -2.085
7 F3 83 -3.062
7 F3 84 -2.574
7 F3 85 -2.085
7 F3 86 -3.062
7 F3 87 -4.527
7 F3 88 -6.968
7 F3 89 -8.921
7 F3 90 -9.898
7 F3 91 -9.410
7 F3 92 -7.945
7 F3 93 -5.992
7 F3 94 -4.038
7 F3 95 -2.085
7 F3 96 -1.109
7 F3 97 -1.109
7 F3 98 -2.085
7 F3 99 -3.550
7 F3 100 -4.527
7 F3 101 -4.527
7 F3 102 -3.550
7 F3 103 -1.597
7 F3 104 0.356
7 F3 105 2.309
7 F3 106 2.797
7 F3 107 2.797
7 F3 108 1.821
7 F3 109 1.333
7 F3 110 0.844
7 F3 111 1.821
7 F3 112 2.797
7 F3 113 3.286
7 F3 114 3.774
7 F3 115 3.774
7 F3 116 3.286
7 F3 117 2.797
7 F3 118 1.821
7 F3 119 0.356
7 F3 120 -1.597
7 F3 121 -2.574
7 F3 122 -3.062
7 F3 123 -3.550
7 F3 124 -4.527
7 F3 125 -5.992
7 F3 126 -7.456
7 F3 127 -8.433
7 F3 128 -8.433
7 F3 129 -7.945
7 F3 130 -7.945
7 F3 131 -8.921
7 F3 132 -9.410
7 F3 133 -8.921
7 F3 134 -7.945
7 F3 135 -6.480
7 F3 136 -6.480
7 F3 137 -7.456
7 F3 138 -9.410
7 F3 139 -9.898
7 F3 140 -8.433
7 F3 141 -6.480
7 F3 142 -5.503
7 F3 143 -6.968
7 F3 144 -10.874
7 F3 145 -14.292
7 F3 146 -15.757
7 F3 147 -14.292
7 F3 148 -11.363
7 F3 149 -9.898
7 F3 150 -11.363
7 F3 151 -14.781
7 F3 152 -18.199
7 F3 153 -19.175
7 F3 154 -17.222
7 F3 155 -13.804
7 F3 156 -11.851
7 F3 157 -11.851
7 F3 158 -13.316
7 F3 159 -14.292
7 F3 160 -14.781
7 F3 161 -14.781
7 F3 162 -15.269
7 F3 163 -16.734
7 F3 164 -18.199
7 F3 165 -19.175
7 F3 166 -19.175
7 F3 167 -19.175
7 F3 168 -19.663
7 F3 169 -21.617
7 F3 170 -23.081
7 F3 171 -24.058
7 F3 172 -23.081
7 F3 173 -21.617
7 F3 174 -21.617
7 F3 175 -23.081
7 F3 176 -24.546
7 F3 177 -24.546
7 F3 178 -22.105
7 F3 179 -17.710
7 F3 180 -14.292
7 F3 181 -13.804
7 F3 182 -15.269
7 F3 183 -17.710
7 F3 184 -18.199
7 F3 185 -17.222
7 F3 186 -15.757
7 F3 187 -14.292
7 F3 188 -15.269
7 F3 189 -16.734
7 F3 190 -17.222
7 F3 191 -15.757
7 F3 192 -13.804
7 F3 193 -13.316
7 F3 194 -14.292
7 F3 195 -16.246
7 F3 196 -18.199
7 F3 197 -18.687
7 F3 198 -18.687
7 F3 199 -17.710
7 F3 200 -17.222
7 F3 201 -16.734
7 F3 202 -16.246
7 F3 203 -14.781
7 F3 204 -13.804
7 F3 205 -12.828
7 F3 206 -12.339
7 F3 207 -10.874
7 F3 208 -9.410
7 F3 209 -7.945
7 F3 210 -7.945
7 F3 211 -9.410
7 F3 212 -12.828
7 F3 213 -15.757
7 F3 214 -17.710
7 F3 215 -17.710
7 F3 216 -15.269
7 F3 217 -11.851
7 F3 218 -8.921
7 F3 219 -6.480
7 F3 220 -5.503
7 F3 221 -6.480
7 F3 222 -8.921
7 F3 223 -11.363
7 F3 224 -13.316
7 F3 225 -13.804
7 F3 226 -14.292
7 F3 227 -14.292
7 F3 228 -14.292
7 F3 229 -13.316
7 F3 230 -11.363
7 F3 231 -9.410
7 F3 232 -9.410
7 F3 233 -10.874
7 F3 234 -13.804
7 F3 235 -16.246
7 F3 236 -16.246
7 F3 237 -13.804
7 F3 238 -10.386
7 F3 239 -8.433
7 F3 240 -8.921
7 F3 241 -9.898
7 F3 242 -9.898
7 F3 243 -9.410
7 F3 244 -8.433
7 F3 245 -8.921
7 F3 246 -9.898
7 F3 247 -11.363
7 F3 248 -11.851
7 F3 249 -11.851
7 F3 250 -11.851
7 F3 251 -12.828
7 F3 252 -14.292
7 F3 253 -14.781
7 F3 254 -14.292
7 F3 255 -12.339
# FC6 chan 9
7 FC6 0 -5.514
7 FC6 1 -10.885
7 FC6 2 -9.908
7 FC6 3 -4.537
7 FC6 4 2.787
7 FC6 5 8.647
7 FC6 6 11.576
7 FC6 7 12.553
7 FC6 8 11.576
7 FC6 9 9.135
7 FC6 10 5.229
7 FC6 11 0.346
7 FC6 12 -4.049
7 FC6 13 -5.025
7 FC6 14 -1.607
7 FC6 15 3.764
7 FC6 16 9.135
7 FC6 17 10.600
7 FC6 18 8.647
7 FC6 19 5.229
7 FC6 20 0.834
7 FC6 21 -2.096
7 FC6 22 -4.049
7 FC6 23 -4.537
7 FC6 24 -2.584
7 FC6 25 1.322
7 FC6 26 5.229
7 FC6 27 6.205
7 FC6 28 3.764
7 FC6 29 -0.631
7 FC6 30 -2.584
7 FC6 31 0.834
7 FC6 32 7.182
7 FC6 33 10.600
7 FC6 34 8.158
7 FC6 35 1.322
7 FC6 36 -4.537
7 FC6 37 -5.025
7 FC6 38 -1.119
7 FC6 39 3.276
7 FC6 40 3.764
7 FC6 41 -0.631
7 FC6 42 -5.514
7 FC6 43 -7.955
7 FC6 44 -6.978
7 FC6 45 -5.025
7 FC6 46 -4.049
7 FC6 47 -5.025
7 FC6 48 -5.025
7 FC6 49 -2.096
7 FC6 50 2.787
7 FC6 51 6.694
7 FC6 52 7.182
7 FC6 53 4.740
7 FC6 54 2.299
7 FC6 55 2.787
7 FC6 56 5.229
7 FC6 57 6.694
7 FC6 58 4.740
7 FC6 59 0.346
7 FC6 60 -3.560
7 FC6 61 -2.584
7 FC6 62 2.299
7 FC6 63 7.182
7 FC6 64 8.647
7 FC6 65 4.252
7 FC6 66 -2.096
7 FC6 67 -7.467
7 FC6 68 -8.443
7 FC6 69 -7.467
7 FC6 70 -5.514
7 FC6 71 -4.537
7 FC6 72 -3.560
7 FC6 73 -1.607
7 FC6 74 1.322
7 FC6 75 4.740
7 FC6 76 7.182
7 FC6 77 7.670
7 FC6 78 6.694
7 FC6 79 5.229
7 FC6 80 3.764
7 FC6 81 1.811
7 FC6 82 -0.142
7 FC6 83 -1.607
7 FC6 84 -2.096
7 FC6 85 -2.096
7 FC6 86 -1.119
7 FC6 87 -1.119
7 FC6 88 -2.096
7 FC6 89 -4.537
7 FC6 90 -7.955
7 FC6 91 -10.396
7 FC6 92 -11.373
7 FC6 93 -10.396
7 FC6 94 -7.955
7 FC6 95 -5.514
7 FC6 96 -4.049
7 FC6 97 -3.560
7 FC6 98 -4.049
7 FC6 99 -4.537
7 FC6 100 -4.537
7 FC6 101 -3.560
7 FC6 102 -2.584
7 FC6 103 -2.584
7 FC6 104 -3.072
7 FC6 105 -3.560
7 FC6 106 -2.096
7 FC6 107 0.346
7 FC6 108 2.787
7 FC6 109 3.276
7 FC6 110 0.834
7 FC6 111 -1.119
7 FC6 112 -0.631
7 FC6 113 3.276
7 FC6 114 8.158
7 FC6 115 10.600
7 FC6 116 7.182
7 FC6 117 0.346
7 FC6 118 -6.002
7 FC6 119 -8.443
7 FC6 120 -6.978
7 FC6 121 -5.514
7 FC6 122 -6.002
7 FC6 123 -7.467
7 FC6 124 -8.443
7 FC6 125 -6.002
7 FC6 126 -1.119
7 FC6 127 1.811
7 FC6 128 0.834
7 FC6 129 -4.049
7 FC6 130 -7.955
7 FC6 131 -7.467
7 FC6 132 -3.072
7 FC6 133 1.322
7 FC6 134 2.787
7 FC6 135 0.834
7 FC6 136 -3.072
7 FC6 137 -5.025
7 FC6 138 -4.537
7 FC6 139 -3.560
7 FC6 140 -4.537
7 FC6 141 -7.955
7 FC6 142 -11.373
7 FC6 143 -12.838
7 FC6 144 -11.373
7 FC6 145 -8.931
7 FC6 146 -6.978
7 FC6 147 -7.467
7 FC6 148 -7.955
7 FC6 149 -7.955
7 FC6 150 -7.467
7 FC6 151 -6.978
7 FC6 152 -8.443
7 FC6 153 -11.861
7 FC6 154 -15.767
7 FC6 155 -17.721
7 FC6 156 -16.744
7 FC6 157 -12.838
7 FC6 158 -7.467
7 FC6 159 -3.560
7 FC6 160 -3.072
7 FC6 161 -6.002
7 FC6 162 -11.373
7 FC6 163 -16.744
7 FC6 164 -20.650
7 FC6 165 -21.139
7 FC6 166 -18.697
7 FC6 167 -14.303
7 FC6 168 -10.885
7 FC6 169 -10.396
7 FC6 170 -11.861
7 FC6 171 -14.303
7 FC6 172 -14.303
7 FC6 173 -11.861
7 FC6 174 -8.931
7 FC6 175 -7.955
7 FC6 176 -9.420
7 FC6 177 -11.373
7 FC6 178 -10.885
7 FC6 179 -6.490
7 FC6 180 -0.631
7 FC6 181 1.811
7 FC6 182 -0.142
7 FC6 183 -6.490
7 FC6 184 -10.885
7 FC6 185 -11.373
7 FC6 186 -7.467
7 FC6 187 -2.096
7 FC6 188 1.322
7 FC6 189 1.322
7 FC6 190 -1.119
7 FC6 191 -2.096
7 FC6 192 -1.607
7 FC6 193 -0.631
7 FC6 194 -2.096
7 FC6 195 -6.002
7 FC6 196 -11.861
7 FC6 197 -15.279
7 FC6 198 -14.303
7 FC6 199 -9.908
7 FC6 200 -6.002
7 FC6 201 -5.025
7 FC6 202 -6.490
7 FC6 203 -7.955
7 FC6 204 -6.490
7 FC6 205 -3.072
7 FC6 206 -0.631
7 FC6 207 -1.607
7 FC6 208 -5.514
7 FC6 209 -8.931
7 FC6 210 -8.443
7 FC6 211 -5.025
7 FC6 212 -0.142
7 FC6 213 2.787
7 FC6 214 3.276
7 FC6 215 2.299
7 FC6 216 1.322
7 FC6 217 -1.119
7 FC6 218 -4.537
7 FC6 219 -8.443
7 FC6 220 -10.885
7 FC6 221 -10.885
7 FC6 222 -8.931
7 FC6 223 -6.978
7 FC6 224 -5.514
7 FC6 225 -5.514
7 FC6 226 -5.514
7 FC6 227 -4.049
7 FC6 228 -4.049
7 FC6 229 -5.025
7 FC6 230 -7.955
7 FC6 231 -10.396
7 FC6 232 -10.396
7 FC6 233 -6.002
7 FC6 234 -0.142
7 FC6 235 2.787
7 FC6 236 1.322
7 FC6 237 -4.049
7 FC6 238 -9.908
7 FC6 239 -12.838
7 FC6 240 -10.885
7 FC6 241 -6.490
7 FC6 242 -2.584
7 FC6 243 0.834
7 FC6 244 2.299
7 FC6 245 2.299
7 FC6 246 2.299
7 FC6 247 0.834
7 FC6 248 -1.119
7 FC6 249 -3.560
7 FC6 250 -5.025
7 FC6 251 -6.002
7 FC6 252 -5.514
7 FC6 253 -3.560
7 FC6 254 -1.607
7 FC6 255 1.322
# FC5 chan 10
7 FC5 0 13.926
7 FC5 1 13.438
7 FC5 2 10.020
7 FC5 3 5.625
7 FC5 4 2.696
7 FC5 5 3.184
7 FC5 6 6.114
7 FC5 7 11.485
7 FC5 8 15.391
7 FC5 9 15.391
7 FC5 10 11.485
7 FC5 11 5.137
7 FC5 12 0.743
7 FC5 13 1.231
7 FC5 14 6.602
7 FC5 15 13.438
7 FC5 16 16.368
7 FC5 17 13.438
7 FC5 18 6.602
7 FC5 19 1.231
7 FC5 20 3.184
7 FC5 21 10.020
7 FC5 22 17.344
7 FC5 23 19.297
7 FC5 24 13.438
7 FC5 25 5.625
7 FC5 26 1.231
7 FC5 27 3.184
7 FC5 28 8.555
7 FC5 29 13.438
7 FC5 30 13.926
7 FC5 31 10.997
7 FC5 32 7.090
7 FC5 33 5.625
7 FC5 34 6.602
7 FC5 35 8.067
7 FC5 36 7.579
7 FC5 37 5.625
7 FC5 38 4.161
7 FC5 39 5.625
7 FC5 40 9.043
7 FC5 41 11.485
7 FC5 42 10.020
7 FC5 43 6.602
7 FC5 44 3.672
7 FC5 45 4.161
7 FC5 46 8.067
7 FC5 47 13.438
7 FC5 48 15.879
7 FC5 49 14.414
7 FC5 50 10.508
7 FC5 51 8.555
7 FC5 52 10.020
7 FC5 53 13.926
7 FC5 54 17.344
7 FC5 55 17.832
7 FC5 56 15.391
7 FC5 57 12.461
7 FC5 58 11.485
7 FC5 59 12.461
7 FC5 60 12.950
7 FC5 61 11.973
7 FC5 62 9.043
7 FC5 63 6.602
7 FC5 64 6.114
7 FC5 65 8.555
7 FC5 66 10.997
7 FC5 67 12.461
7 FC5 68 12.461
7 FC5 69 11.973
7 FC5 70 11.485
7 FC5 71 11.485
7 FC5 72 11.485
7 FC5 73 10.508
7 FC5 74 9.532
7 FC5 75 8.067
7 FC5 76 9.043
7 FC5 77 10.997
7 FC5 78 13.438
7 FC5 79 15.391
7 FC5 80 16.368
7 FC5 81 16.368
7 FC5 82 15.879
7 FC5 83 14.903
7 FC5 84 13.438
7 FC5 85 11.973
7 FC5 86 10.020
7 FC5 87 9.043
7 FC5 88 10.020
7 FC5 89 11.485
7 FC5 90 12.950
7 FC5 91 13.438
7 FC5 92 11.973
7 FC5 93 10.020
7 FC5 94 8.067
7 FC5 95 6.602
7 FC5 96 6.602
7 FC5 97 7.579
7 FC5 98 9.043
7 FC5 99 10.997
7 FC5 100 12.950
7 FC5 101 13.926
7 FC5 102 14.414
7 FC5 103 14.903
7 FC5 104 14.414
7 FC5 105 14.414
7 FC5 106 13.926
7 FC5 107 13.926
7 FC5 108 14.414
7 FC5 109 15.391
7 FC5 110 15.879
7 FC5 111 15.879
7 FC5 112 14.414
7 FC5 113 12.461
7 FC5 114 11.973
7 FC5 115 14.414
7 FC5 116 18.321
7 FC5 117 21.250
7 FC5 118 21.739
7 FC5 119 18.809
7 FC5 120 14.903
7 FC5 121 12.461
7 FC5 122 13.438
7 FC5 123 16.368
7 FC5 124 18.321
7 FC5 125 17.344
7 FC5 126 13.926
7 FC5 127 11.485
7 FC5 128 10.997
7 FC5 129 11.973
7 FC5 130 12.461
7 FC5 131 10.997
7 FC5 132 8.555
7 FC5 133 7.090
7 FC5 134 9.043
7 FC5 135 13.438
7 FC5 136 17.832
7 FC5 137 18.321
7 FC5 138 14.414
7 FC5 139 8.555
7 FC5 140 5.137
7 FC5 141 6.114
7 FC5 142 9.043
7 FC5 143 10.997
7 FC5 144 9.043
7 FC5 145 4.649
7 FC5 146 1.719
7 FC5 147 2.207
7 FC5 148 6.114
7 FC5 149 9.532
7 FC5 150 9.043
7 FC5 151 5.625
7 FC5 152 2.207
7 FC5 153 0.743
7 FC5 154 4.161
7 FC5 155 9.043
7 FC5 156 12.461
7 FC5 157 11.973
7 FC5 158 8.555
7 FC5 159 4.161
7 FC5 160 1.719
7 FC5 161 2.207
7 FC5 162 4.649
7 FC5 163 6.602
7 FC5 164 6.602
7 FC5 165 4.161
7 FC5 166 1.719
7 FC5 167 0.254
7 FC5 168 0.743
7 FC5 169 3.672
7 FC5 170 5.625
7 FC5 171 6.114
7 FC5 172 4.649
7 FC5 173 2.207
7 FC5 174 0.254
7 FC5 175 -0.722
7 FC5 176 -0.234
7 FC5 177 1.719
7 FC5 178 4.649
7 FC5 179 7.579
7 FC5 180 10.997
7 FC5 181 11.973
7 FC5 182 10.997
7 FC5 183 8.555
7 FC5 184 5.625
7 FC5 185 4.161
7 FC5 186 4.161
7 FC5 187 5.137
7 FC5 188 6.602
7 FC5 189 8.067
7 FC5 190 10.020
7 FC5 191 11.973
7 FC5 192 12.950
7 FC5 193 10.997
7 FC5 194 6.602
7 FC5 195 1.719
7 FC5 196 -1.699
7 FC5 197 -1.211
7 FC5 198 2.696
7 FC5 199 8.555
7 FC5 200 11.973
7 FC5 201 12.461
7 FC5 202 10.020
7 FC5 203 6.114
7 FC5 204 4.649
7 FC5 205 5.625
7 FC5 206 8.555
7 FC5 207 12.950
7 FC5 208 16.856
7 FC5 209 18.321
7 FC5 210 16.856
7 FC5 211 12.950
7 FC5 212 8.555
7 FC5 213 4.649
7 FC5 214 3.184
7 FC5 215 3.184
7 FC5 216 4.649
7 FC5 217 8.067
7 FC5 218 12.461
7 FC5 219 17.832
7 FC5 220 20.762
7 FC5 221 19.786
7 FC5 222 14.903
7 FC5 223 8.555
7 FC5 224 4.161
7 FC5 225 3.672
7 FC5 226 5.625
7 FC5 227 8.067
7 FC5 228 8.555
7 FC5 229 9.043
7 FC5 230 10.020
7 FC5 231 12.461
7 FC5 232 14.414
7 FC5 233 12.950
7 FC5 234 7.579
7 FC5 235 2.207
7 FC5 236 -0.234
7 FC5 237 2.207
7 FC5 238 7.579
7 FC5 239 12.461
7 FC5 240 13.926
7 FC5 241 11.973
7 FC5 242 10.020
7 FC5 243 9.043
7 FC5 244 10.508
7 FC5 245 11.485
7 FC5 246 10.508
7 FC5 247 6.602
7 FC5 248 3.184
7 FC5 249 1.231
7 FC5 250 2.207
7 FC5 251 5.625
7 FC5 252 9.043
7 FC5 253 10.508
7 FC5 254 10.508
7 FC5 255 10.020
# FC2 chan 11
7 FC2 0 2.828
7 FC2 1 2.340
7 FC2 2 3.316
7 FC2 3 4.293
7 FC2 4 5.269
7 FC2 5 5.269
7 FC2 6 5.269
7 FC2 7 5.758
7 FC2 8 5.269
7 FC2 9 4.781
7 FC2 10 4.293
7 FC2 11 3.316
7 FC2 12 2.828
7 FC2 13 2.340
7 FC2 14 3.316
7 FC2 15 4.781
7 FC2 16 5.758
7 FC2 17 7.222
7 FC2 18 8.199
7 FC2 19 8.199
7 FC2 20 7.222
7 FC2 21 5.269
7 FC2 22 3.316
7 FC2 23 2.340
7 FC2 24 2.340
7 FC2 25 3.316
7 FC2 26 4.781
7 FC2 27 5.758
7 FC2 28 5.269
7 FC2 29 3.316
7 FC2 30 2.340
7 FC2 31 2.340
7 FC2 32 3.805
7 FC2 33 5.269
7 FC2 34 5.758
7 FC2 35 5.758
7 FC2 36 5.269
7 FC2 37 5.758
7 FC2 38 6.734
7 FC2 39 7.222
7 FC2 40 7.222
7 FC2 41 5.269
7 FC2 42 2.828
7 FC2 43 1.363
7 FC2 44 0.387
7 FC2 45 0.875
7 FC2 46 1.851
7 FC2 47 2.340
7 FC2 48 2.340
7 FC2 49 2.340
7 FC2 50 1.851
7 FC2 51 1.851
7 FC2 52 2.340
7 FC2 53 2.828
7 FC2 54 2.828
7 FC2 55 2.828
7 FC2 56 3.316
7 FC2 57 2.828
7 FC2 58 1.851
7 FC2 59 1.363
7 FC2 60 0.875
7 FC2 61 1.363
7 FC2 62 2.340
7 FC2 63 3.316
7 FC2 64 3.316
7 FC2 65 3.805
7 FC2 66 3.805
7 FC2 67 4.293
7 FC2 68 4.293
7 FC2 69 3.805
7 FC2 70 2.340
7 FC2 71 0.875
7 FC2 72 0.387
7 FC2 73 1.363
7 FC2 74 2.828
7 FC2 75 4.293
7 FC2 76 4.781
7 FC2 77 5.269
7 FC2 78 5.269
7 FC2 79 4.781
7 FC2 80 4.293
7 FC2 81 3.316
7 FC2 82 2.340
7 FC2 83 1.851
7 FC2 84 1.851
7 FC2 85 1.851
7 FC2 86 2.340
7 FC2 87 1.851
7 FC2 88 1.363
7 FC2 89 0.387
7 FC2 90 0.387
7 FC2 91 0.875
7 FC2 92 1.851
7 FC2 93 2.828
7 FC2 94 2.828
7 FC2 95 2.828
7 FC2 96 2.828
7 FC2 97 3.316
7 FC2 98 3.805
7 FC2 99 4.293
7 FC2 100 3.805
7 FC2 101 3.316
7 FC2 102 2.340
7 FC2 103 1.851
7 FC2 104 1.851
7 FC2 105 1.851
7 FC2 106 2.340
7 FC2 107 2.828
7 FC2 108 2.828
7 FC2 109 2.340
7 FC2 110 2.340
7 FC2 111 1.851
7 FC2 112 1.851
7 FC2 113 1.851
7 FC2 114 2.828
7 FC2 115 2.828
7 FC2 116 2.828
7 FC2 117 1.363
7 FC2 118 -0.102
7 FC2 119 -1.078
7 FC2 120 -1.567
7 FC2 121 -2.055
7 FC2 122 -2.543
7 FC2 123 -3.520
7 FC2 124 -4.496
7 FC2 125 -4.496
7 FC2 126 -3.031
7 FC2 127 -2.055
7 FC2 128 -1.567
7 FC2 129 -2.543
7 FC2 130 -4.008
7 FC2 131 -4.496
7 FC2 132 -3.031
7 FC2 133 -0.590
7 FC2 134 1.363
7 FC2 135 1.851
7 FC2 136 0.875
7 FC2 137 -0.590
7 FC2 138 -1.078
7 FC2 139 -0.102
7 FC2 140 0.875
7 FC2 141 0.387
7 FC2 142 -1.567
7 FC2 143 -3.031
7 FC2 144 -4.496
7 FC2 145 -4.008
7 FC2 146 -2.543
7 FC2 147 -1.567
7 FC2 148 -1.567
7 FC2 149 -3.031
7 FC2 150 -4.985
7 FC2 151 -6.449
7 FC2 152 -7.426
7 FC2 153 -7.914
7 FC2 154 -8.403
7 FC2 155 -8.403
7 FC2 156 -7.914
7 FC2 157 -6.938
7 FC2 158 -5.473
7 FC2 159 -4.985
7 FC2 160 -5.473
7 FC2 161 -7.426
7 FC2 162 -9.867
7 FC2 163 -11.332
7 FC2 164 -11.820
7 FC2 165 -11.332
7 FC2 166 -9.867
7 FC2 167 -8.891
7 FC2 168 -7.914
7 FC2 169 -7.914
7 FC2 170 -8.403
7 FC2 171 -8.403
7 FC2 172 -7.914
7 FC2 173 -6.938
7 FC2 174 -5.961
7 FC2 175 -5.473
7 FC2 176 -5.473
7 FC2 177 -5.961
7 FC2 178 -4.985
7 FC2 179 -4.008
7 FC2 180 -2.543
7 FC2 181 -2.543
7 FC2 182 -4.008
7 FC2 183 -5.473
7 FC2 184 -6.449
7 FC2 185 -5.473
7 FC2 186 -3.520
7 FC2 187 -1.567
7 FC2 188 -0.590
7 FC2 189 -1.078
7 FC2 190 -2.543
7 FC2 191 -3.520
7 FC2 192 -3.520
7 FC2 193 -3.520
7 FC2 194 -3.520
7 FC2 195 -3.520
7 FC2 196 -4.008
7 FC2 197 -4.496
7 FC2 198 -4.985
7 FC2 199 -5.473
7 FC2 200 -5.961
7 FC2 201 -6.449
7 FC2 202 -6.938
7 FC2 203 -5.961
7 FC2 204 -5.473
7 FC2 205 -4.008
7 FC2 206 -3.520
7 FC2 207 -3.520
7 FC2 208 -4.008
7 FC2 209 -4.008
7 FC2 210 -3.031
7 FC2 211 -2.543
7 FC2 212 -1.567
7 FC2 213 -1.078
7 FC2 214 -0.590
7 FC2 215 -0.590
7 FC2 216 -1.078
7 FC2 217 -1.078
7 FC2 218 -2.055
7 FC2 219 -3.031
7 FC2 220 -4.008
7 FC2 221 -4.008
7 FC2 222 -3.520
7 FC2 223 -3.520
7 FC2 224 -3.031
7 FC2 225 -3.520
7 FC2 226 -3.520
7 FC2 227 -3.520
7 FC2 228 -4.008
7 FC2 229 -4.985
7 FC2 230 -6.449
7 FC2 231 -6.938
7 FC2 232 -6.449
7 FC2 233 -4.496
7 FC2 234 -2.543
7 FC2 235 -1.567
7 FC2 236 -2.543
7 FC2 237 -4.985
7 FC2 238 -7.426
7 FC2 239 -8.403
7 FC2 240 -7.914
7 FC2 241 -5.961
7 FC2 242 -4.008
7 FC2 243 -2.055
7 FC2 244 -1.078
7 FC2 245 -0.590
7 FC2 246 -0.590
7 FC2 247 -0.590
7 FC2 248 -0.590
7 FC2 249 -0.590
7 FC2 250 -0.590
7 FC2 251 -1.567
7 FC2 252 -2.055
7 FC2 253 -2.055
7 FC2 254 -1.078
7 FC2 255 0.387
# FC1 chan 12
7 FC1 0 -2.706
7 FC1 1 -0.264
7 FC1 2 -0.264
7 FC1 3 -0.753
7 FC1 4 -2.706
7 FC1 5 -4.659
7 FC1 6 -6.124
7 FC1 7 -6.124
7 FC1 8 -5.636
7 FC1 9 -4.659
7 FC1 10 -4.171
7 FC1 11 -4.659
7 FC1 12 -5.636
7 FC1 13 -5.636
7 FC1 14 -5.147
7 FC1 15 -4.171
7 FC1 16 -3.194
7 FC1 17 -3.194
7 FC1 18 -3.682
7 FC1 19 -4.171
7 FC1 20 -4.171
7 FC1 21 -3.194
7 FC1 22 -1.729
7 FC1 23 -1.241
7 FC1 24 -2.218
7 FC1 25 -4.171
7 FC1 26 -6.124
7 FC1 27 -6.612
7 FC1 28 -6.124
7 FC1 29 -4.659
7 FC1 30 -3.682
7 FC1 31 -3.682
7 FC1 32 -4.659
7 FC1 33 -5.147
7 FC1 34 -5.636
7 FC1 35 -5.636
7 FC1 36 -5.636
7 FC1 37 -5.636
7 FC1 38 -4.659
7 FC1 39 -4.171
7 FC1 40 -2.706
7 FC1 41 -1.729
7 FC1 42 -1.241
7 FC1 43 -1.729
7 FC1 44 -2.706
7 FC1 45 -2.706
7 FC1 46 -3.194
7 FC1 47 -2.218
7 FC1 48 -1.729
7 FC1 49 -2.218
7 FC1 50 -3.194
7 FC1 51 -3.682
7 FC1 52 -4.171
7 FC1 53 -4.171
7 FC1 54 -3.682
7 FC1 55 -3.194
7 FC1 56 -3.194
7 FC1 57 -2.706
7 FC1 58 -2.706
7 FC1 59 -2.218
7 FC1 60 -1.729
7 FC1 61 -1.729
7 FC1 62 -1.729
7 FC1 63 -2.218
7 FC1 64 -2.706
7 FC1 65 -3.194
7 FC1 66 -3.194
7 FC1 67 -3.682
7 FC1 68 -4.171
7 FC1 69 -4.659
7 FC1 70 -5.147
7 FC1 71 -5.636
7 FC1 72 -6.124
7 FC1 73 -6.612
7 FC1 74 -7.100
7 FC1 75 -7.100
7 FC1 76 -6.612
7 FC1 77 -5.147
7 FC1 78 -4.171
7 FC1 79 -2.706
7 FC1 80 -2.218
7 FC1 81 -2.218
7 FC1 82 -2.706
7 FC1 83 -2.706
7 FC1 84 -2.218
7 FC1 85 -1.729
7 FC1 86 -1.241
7 FC1 87 -1.241
7 FC1 88 -2.218
7 FC1 89 -2.706
7 FC1 90 -3.194
7 FC1 91 -2.706
7 FC1 92 -2.706
7 FC1 93 -2.218
7 FC1 94 -2.218
7 FC1 95 -1.729
7 FC1 96 -1.729
7 FC1 97 -1.241
7 FC1 98 -1.241
7 FC1 99 -0.753
7 FC1 100 -1.241
7 FC1 101 -1.241
7 FC1 102 -1.241
7 FC1 103 -1.241
7 FC1 104 -0.753
7 FC1 105 -0.753
7 FC1 106 -0.264
7 FC1 107 -0.264
7 FC1 108 -0.264
7 FC1 109 -0.264
7 FC1 110 0.224
7 FC1 111 0.224
7 FC1 112 -0.264
7 FC1 113 -0.264
7 FC1 114 -0.264
7 FC1 115 0.224
7 FC1 116 1.200
7 FC1 117 2.177
7 FC1 118 2.177
7 FC1 119 1.200
7 FC1 120 -0.753
7 FC1 121 -2.218
7 FC1 122 -3.682
7 FC1 123 -3.682
7 FC1 124 -3.682
7 FC1 125 -3.682
7 FC1 126 -4.171
7 FC1 127 -4.659
7 FC1 128 -5.147
7 FC1 129 -5.636
7 FC1 130 -5.636
7 FC1 131 -5.636
7 FC1 132 -4.659
7 FC1 133 -3.682
7 FC1 134 -2.706
7 FC1 135 -1.729
7 FC1 136 -1.241
7 FC1 137 -1.241
7 FC1 138 -1.729
7 FC1 139 -2.218
7 FC1 140 -2.218
7 FC1 141 -1.729
7 FC1 142 -1.241
7 FC1 143 -1.729
7 FC1 144 -2.706
7 FC1 145 -4.171
7 FC1 146 -5.147
7 FC1 147 -5.147
7 FC1 148 -4.659
7 FC1 149 -3.682
7 FC1 150 -3.682
7 FC1 151 -4.659
7 FC1 152 -5.636
7 FC1 153 -6.124
7 FC1 154 -5.147
7 FC1 155 -3.194
7 FC1 156 -1.241
7 FC1 157 -0.264
7 FC1 158 -0.753
7 FC1 159 -1.729
7 FC1 160 -2.218
7 FC1 161 -2.706
7 FC1 162 -2.218
7 FC1 163 -2.218
7 FC1 164 -2.218
7 FC1 165 -2.706
7 FC1 166 -3.194
7 FC1 167 -3.194
7 FC1 168 -2.706
7 FC1 169 -2.706
7 FC1 170 -3.194
7 FC1 171 -3.682
7 FC1 172 -3.682
7 FC1 173 -3.682
7 FC1 174 -3.682
7 FC1 175 -3.194
7 FC1 176 -3.682
7 FC1 177 -3.194
7 FC1 178 -2.706
7 FC1 179 -1.729
7 FC1 180 -0.753
7 FC1 181 -0.753
7 FC1 182 -1.729
7 FC1 183 -2.706
7 FC1 184 -3.682
7 FC1 185 -4.659
7 FC1 186 -4.659
7 FC1 187 -5.147
7 FC1 188 -5.636
7 FC1 189 -6.124
7 FC1 190 -6.124
7 FC1 191 -5.147
7 FC1 192 -3.682
7 FC1 193 -3.194
7 FC1 194 -3.682
7 FC1 195 -4.659
7 FC1 196 -6.612
7 FC1 197 -7.589
7 FC1 198 -8.077
7 FC1 199 -7.589
7 FC1 200 -7.589
7 FC1 201 -7.100
7 FC1 202 -7.100
7 FC1 203 -6.612
7 FC1 204 -6.612
7 FC1 205 -6.612
7 FC1 206 -6.124
7 FC1 207 -6.124
7 FC1 208 -5.147
7 FC1 209 -4.659
7 FC1 210 -4.171
7 FC1 211 -4.659
7 FC1 212 -5.636
7 FC1 213 -6.612
7 FC1 214 -8.077
7 FC1 215 -8.565
7 FC1 216 -8.077
7 FC1 217 -7.100
7 FC1 218 -5.636
7 FC1 219 -4.659
7 FC1 220 -3.682
7 FC1 221 -4.171
7 FC1 222 -5.147
7 FC1 223 -6.612
7 FC1 224 -7.100
7 FC1 225 -7.589
7 FC1 226 -7.100
7 FC1 227 -6.612
7 FC1 228 -6.612
7 FC1 229 -6.612
7 FC1 230 -6.612
7 FC1 231 -6.612
7 FC1 232 -6.612
7 FC1 233 -6.612
7 FC1 234 -6.612
7 FC1 235 -7.589
7 FC1 236 -8.565
7 FC1 237 -8.077
7 FC1 238 -7.100
7 FC1 239 -6.124
7 FC1 240 -5.147
7 FC1 241 -5.147
7 FC1 242 -5.636
7 FC1 243 -5.636
7 FC1 244 -5.636
7 FC1 245 -4.659
7 FC1 246 -4.659
7 FC1 247 -5.147
7 FC1 248 -5.636
7 FC1 249 -7.100
7 FC1 250 -7.589
7 FC1 251 -7.589
7 FC1 252 -7.100
7 FC1 253 -6.124
7 FC1 254 -5.636
7 FC1 255 -5.636
# T8 chan 13
7 T8 0 1.892
7 T8 1 4.822
7 T8 2 5.310
7 T8 3 4.333
7 T8 4 2.869
7 T8 5 2.380
7 T8 6 3.845
7 T8 7 7.263
7 T8 8 11.169
7 T8 9 12.146
7 T8 10 10.681
7 T8 11 6.775
7 T8 12 2.380
7 T8 13 -0.061
7 T8 14 -1.038
7 T8 15 -1.038
7 T8 16 -0.549
7 T8 17 -0.061
7 T8 18 0.916
7 T8 19 0.916
7 T8 20 -0.549
7 T8 21 -3.479
7 T8 22 -7.385
7 T8 23 -8.850
7 T8 24 -5.920
7 T8 25 1.892
7 T8 26 11.169
7 T8 27 18.494
7 T8 28 19.958
7 T8 29 15.076
7 T8 30 6.287
7 T8 31 -2.991
7 T8 32 -9.338
7 T8 33 -10.803
7 T8 34 -5.432
7 T8 35 3.357
7 T8 36 12.146
7 T8 37 15.564
7 T8 38 12.634
7 T8 39 3.845
7 T8 40 -6.409
7 T8 41 -14.221
7 T8 42 -17.639
7 T8 43 -16.663
7 T8 44 -13.245
7 T8 45 -8.362
7 T8 46 -2.991
7 T8 47 1.892
7 T8 48 3.357
7 T8 49 2.380
7 T8 50 -0.549
7 T8 51 -1.526
7 T8 52 -1.038
7 T8 53 0.916
7 T8 54 1.892
7 T8 55 1.404
7 T8 56 0.916
7 T8 57 1.404
7 T8 58 4.333
7 T8 59 7.751
7 T8 60 8.728
7 T8 61 3.845
7 T8 62 -3.967
7 T8 63 -12.268
7 T8 64 -18.127
7 T8 65 -21.057
7 T8 66 -20.081
7 T8 67 -15.198
7 T8 68 -7.874
7 T8 69 -0.061
7 T8 70 3.845
7 T8 71 1.404
7 T8 72 -6.409
7 T8 73 -14.709
7 T8 74 -18.127
7 T8 75 -14.221
7 T8 76 -6.409
7 T8 77 -0.549
7 T8 78 1.404
7 T8 79 -1.038
7 T8 80 -3.479
7 T8 81 -3.967
7 T8 82 -3.479
7 T8 83 -4.456
7 T8 84 -8.850
7 T8 85 -16.174
7 T8 86 -22.034
7 T8 87 -23.987
7 T8 88 -22.034
7 T8 89 -17.639
7 T8 90 -12.756
7 T8 91 -9.338
7 T8 92 -8.362
7 T8 93 -9.827
7 T8 94 -13.245
7 T8 95 -17.639
7 T8 96 -20.569
7 T8 97 -20.081
7 T8 98 -15.686
7 T8 99 -10.315
7 T8 100 -7.385
7 T8 101 -9.338
7 T8 102 -15.198
7 T8 103 -19.592
7 T8 104 -18.616
7 T8 105 -12.268
7 T8 106 -3.479
7 T8 107 2.380
7 T8 108 1.404
7 T8 109 -2.991
7 T8 110 -6.409
7 T8 111 -4.944
7 T8 112 -0.549
7 T8 113 1.404
7 T8 114 -2.014
7 T8 115 -10.803
7 T8 116 -19.592
7 T8 117 -22.034
7 T8 118 -17.639
7 T8 119 -9.827
7 T8 120 -4.456
7 T8 121 -4.944
7 T8 122 -9.338
7 T8 123 -14.221
7 T8 124 -15.686
7 T8 125 -13.733
7 T8 126 -10.315
7 T8 127 -9.338
7 T8 128 -10.315
7 T8 129 -12.268
7 T8 130 -11.292
7 T8 131 -7.874
7 T8 132 -3.967
7 T8 133 -2.502
7 T8 134 -5.920
7 T8 135 -11.780
7 T8 136 -17.639
7 T8 137 -20.569
7 T8 138 -20.081
7 T8 139 -17.639
7 T8 140 -15.686
7 T8 141 -14.221
7 T8 142 -12.756
7 T8 143 -12.756
7 T8 144 -15.198
7 T8 145 -21.545
7 T8 146 -28.870
7 T8 147 -32.288
7 T8 148 -28.381
7 T8 149 -17.639
7 T8 150 -5.920
7 T8 151 -0.549
7 T8 152 -3.967
7 T8 153 -10.803
7 T8 154 -14.709
7 T8 155 -11.780
7 T8 156 -4.944
7 T8 157 -1.038
7 T8 158 -3.967
7 T8 159 -11.780
7 T8 160 -19.104
7 T8 161 -20.081
7 T8 162 -14.221
7 T8 163 -5.432
7 T8 164 0.916
7 T8 165 0.427
7 T8 166 -5.920
7 T8 167 -14.709
7 T8 168 -21.545
7 T8 169 -23.499
7 T8 170 -19.592
7 T8 171 -14.221
7 T8 172 -9.827
7 T8 173 -9.338
7 T8 174 -11.292
7 T8 175 -12.268
7 T8 176 -8.850
7 T8 177 -2.014
7 T8 178 4.333
7 T8 179 5.798
7 T8 180 1.892
7 T8 181 -3.967
7 T8 182 -6.409
7 T8 183 -3.967
7 T8 184 3.357
7 T8 185 9.705
7 T8 186 10.681
7 T8 187 4.822
7 T8 188 -4.456
7 T8 189 -13.733
7 T8 190 -19.104
7 T8 191 -19.104
7 T8 192 -16.174
7 T8 193 -11.780
7 T8 194 -7.874
7 T8 195 -5.920
7 T8 196 -5.920
7 T8 197 -7.385
7 T8 198 -9.827
7 T8 199 -12.268
7 T8 200 -13.245
7 T8 201 -13.733
7 T8 202 -12.756
7 T8 203 -11.292
7 T8 204 -8.850
7 T8 205 -4.944
7 T8 206 -1.038
7 T8 207 2.380
7 T8 208 3.357
7 T8 209 2.380
7 T8 210 -0.061
7 T8 211 -2.502
7 T8 212 -2.991
7 T8 213 -2.991
7 T8 214 -2.502
7 T8 215 -3.479
7 T8 216 -5.920
7 T8 217 -8.362
7 T8 218 -9.338
7 T8 219 -8.850
7 T8 220 -7.874
7 T8 221 -9.338
7 T8 222 -14.709
7 T8 223 -24.475
7 T8 224 -35.706
7 T8 225 -45.471
7 T8 226 -49.866
7 T8 227 -48.889
7 T8 228 -42.542
7 T8 229 -33.264
7 T8 230 -24.475
7 T8 231 -19.104
7 T8 232 -19.104
7 T8 233 -23.987
7 T8 234 -31.311
7 T8 235 -38.147
7 T8 236 -40.588
7 T8 237 -39.612
7 T8 238 -35.706
7 T8 239 -32.288
7 T8 240 -30.334
7 T8 241 -31.311
7 T8 242 -33.752
7 T8 243 -36.194
7 T8 244 -37.170
7 T8 245 -36.682
7 T8 246 -34.729
7 T8 247 -32.776
7 T8 248 -31.799
7 T8 249 -32.776
7 T8 250 -33.264
7 T8 251 -32.776
7 T8 252 -29.846
7 T8 253 -26.428
7 T8 254 -24.963
7 T8 255 -25.940
# T7 chan 14
7 T7 0 -8.128
7 T7 1 -5.686
7 T7 2 -2.268
7 T7 3 -1.292
7 T7 4 -3.733
7 T7 5 -5.686
7 T7 6 -3.733
7 T7 7 3.103
7 T7 8 10.915
7 T7 9 14.333
7 T7 10 12.380
7 T7 11 6.521
7 T7 12 1.638
7 T7 13 -0.315
7 T7 14 0.173
7 T7 15 -1.292
7 T7 16 -6.663
7 T7 17 -11.546
7 T7 18 -14.476
7 T7 19 -12.034
7 T7 20 -6.663
7 T7 21 -2.268
7 T7 22 -0.804
7 T7 23 -1.292
7 T7 24 -1.292
7 T7 25 1.149
7 T7 26 4.079
7 T7 27 4.079
7 T7 28 0.173
7 T7 29 -6.663
7 T7 30 -11.546
7 T7 31 -13.011
7 T7 32 -10.081
7 T7 33 -5.686
7 T7 34 -3.733
7 T7 35 -3.733
7 T7 36 -6.175
7 T7 37 -8.128
7 T7 38 -8.616
7 T7 39 -6.663
7 T7 40 -3.733
7 T7 41 -2.268
7 T7 42 -2.757
7 T7 43 -5.198
7 T7 44 -7.640
7 T7 45 -7.640
7 T7 46 -5.198
7 T7 47 -1.292
7 T7 48 0.173
7 T7 49 -1.292
7 T7 50 -3.733
7 T7 51 -4.710
7 T7 52 -2.268
7 T7 53 0.661
7 T7 54 1.149
7 T7 55 -2.268
7 T7 56 -7.640
7 T7 57 -10.081
7 T7 58 -8.128
7 T7 59 -2.268
7 T7 60 3.103
7 T7 61 5.056
7 T7 62 2.614
7 T7 63 -1.780
7 T7 64 -4.710
7 T7 65 -5.686
7 T7 66 -4.710
7 T7 67 -2.757
7 T7 68 -1.780
7 T7 69 -1.780
7 T7 70 -2.268
7 T7 71 -4.222
7 T7 72 -6.663
7 T7 73 -8.128
7 T7 74 -7.151
7 T7 75 -3.733
7 T7 76 0.661
7 T7 77 2.614
7 T7 78 1.638
7 T7 79 -1.780
7 T7 80 -4.710
7 T7 81 -5.198
7 T7 82 -2.757
7 T7 83 -0.315
7 T7 84 0.173
7 T7 85 -1.780
7 T7 86 -4.710
7 T7 87 -5.686
7 T7 88 -2.268
7 T7 89 2.126
7 T7 90 5.544
7 T7 91 4.567
7 T7 92 -0.804
7 T7 93 -8.128
7 T7 94 -13.499
7 T7 95 -15.452
7 T7 96 -12.522
7 T7 97 -6.663
7 T7 98 -0.804
7 T7 99 2.126
7 T7 100 1.149
7 T7 101 -2.268
7 T7 102 -5.686
7 T7 103 -6.175
7 T7 104 -5.198
7 T7 105 -4.710
7 T7 106 -7.151
7 T7 107 -12.522
7 T7 108 -16.429
7 T7 109 -15.940
7 T7 110 -10.081
7 T7 111 -0.804
7 T7 112 5.544
7 T7 113 6.032
7 T7 114 2.126
7 T7 115 -2.268
7 T7 116 -1.780
7 T7 117 3.103
7 T7 118 8.962
7 T7 119 10.427
7 T7 120 4.079
7 T7 121 -5.686
7 T7 122 -13.987
7 T7 123 -14.476
7 T7 124 -8.616
7 T7 125 0.173
7 T7 126 7.497
7 T7 127 10.915
7 T7 128 11.403
7 T7 129 10.915
7 T7 130 9.450
7 T7 131 5.056
7 T7 132 -1.780
7 T7 133 -9.593
7 T7 134 -16.429
7 T7 135 -17.893
7 T7 136 -14.964
7 T7 137 -8.616
7 T7 138 -2.757
7 T7 139 0.173
7 T7 140 -1.780
7 T7 141 -7.151
7 T7 142 -13.499
7 T7 143 -16.917
7 T7 144 -15.452
7 T7 145 -10.569
7 T7 146 -5.686
7 T7 147 -4.710
7 T7 148 -8.616
7 T7 149 -13.987
7 T7 150 -16.429
7 T7 151 -13.987
7 T7 152 -9.593
7 T7 153 -8.128
7 T7 154 -10.569
7 T7 155 -15.452
7 T7 156 -16.917
7 T7 157 -12.522
7 T7 158 -4.710
7 T7 159 0.173
7 T7 160 -0.315
7 T7 161 -6.663
7 T7 162 -13.011
7 T7 163 -15.452
7 T7 164 -13.011
7 T7 165 -9.593
7 T7 166 -10.081
7 T7 167 -15.452
7 T7 168 -21.311
7 T7 169 -24.241
7 T7 170 -21.311
7 T7 171 -13.987
7 T7 172 -7.151
7 T7 173 -3.733
7 T7 174 -3.733
7 T7 175 -6.663
7 T7 176 -9.593
7 T7 177 -10.081
7 T7 178 -9.104
7 T7 179 -6.175
7 T7 180 -3.733
7 T7 181 -1.780
7 T7 182 -2.757
7 T7 183 -6.175
7 T7 184 -10.081
7 T7 185 -12.522
7 T7 186 -13.499
7 T7 187 -12.034
7 T7 188 -9.593
7 T7 189 -8.616
7 T7 190 -9.593
7 T7 191 -11.058
7 T7 192 -11.546
7 T7 193 -10.081
7 T7 194 -8.128
7 T7 195 -6.663
7 T7 196 -8.616
7 T7 197 -13.011
7 T7 198 -16.917
7 T7 199 -17.405
7 T7 200 -13.011
7 T7 201 -6.175
7 T7 202 -2.268
7 T7 203 -3.733
7 T7 204 -9.593
7 T7 205 -15.452
7 T7 206 -16.429
7 T7 207 -11.058
7 T7 208 -3.245
7 T7 209 1.638
7 T7 210 -0.804
7 T7 211 -9.104
7 T7 212 -18.382
7 T7 213 -22.776
7 T7 214 -19.847
7 T7 215 -12.034
7 T7 216 -3.245
7 T7 217 1.638
7 T7 218 0.661
7 T7 219 -4.710
7 T7 220 -11.546
7 T7 221 -16.917
7 T7 222 -18.870
7 T7 223 -16.917
7 T7 224 -12.522
7 T7 225 -9.104
7 T7 226 -9.593
7 T7 227 -13.499
7 T7 228 -17.405
7 T7 229 -16.917
7 T7 230 -10.569
7 T7 231 -2.757
7 T7 232 0.661
7 T7 233 -3.733
7 T7 234 -13.499
7 T7 235 -20.335
7 T7 236 -19.358
7 T7 237 -10.569
7 T7 238 -1.292
7 T7 239 2.126
7 T7 240 -2.268
7 T7 241 -11.546
7 T7 242 -19.358
7 T7 243 -21.311
7 T7 244 -18.382
7 T7 245 -12.522
7 T7 246 -7.640
7 T7 247 -5.198
7 T7 248 -4.222
7 T7 249 -5.686
7 T7 250 -8.616
7 T7 251 -13.499
7 T7 252 -18.870
7 T7 253 -22.776
7 T7 254 -22.776
7 T7 255 -17.893
# CZ chan 15
7 CZ 0 1.699
7 CZ 1 -3.184
7 CZ 2 -5.625
7 CZ 3 -4.161
7 CZ 4 -0.254
7 CZ 5 4.140
7 CZ 6 6.582
7 CZ 7 7.070
7 CZ 8 6.093
7 CZ 9 5.605
7 CZ 10 4.628
7 CZ 11 4.140
7 CZ 12 3.164
7 CZ 13 3.652
7 CZ 14 5.605
7 CZ 15 7.558
7 CZ 16 8.046
7 CZ 17 6.093
7 CZ 18 3.164
7 CZ 19 0.722
7 CZ 20 1.211
7 CZ 21 3.164
7 CZ 22 3.652
7 CZ 23 2.187
7 CZ 24 -1.231
7 CZ 25 -4.161
7 CZ 26 -3.672
7 CZ 27 -0.254
7 CZ 28 4.140
7 CZ 29 6.093
7 CZ 30 4.628
7 CZ 31 -0.254
7 CZ 32 -5.137
7 CZ 33 -6.114
7 CZ 34 -3.184
7 CZ 35 1.699
7 CZ 36 4.628
7 CZ 37 4.140
7 CZ 38 -0.254
7 CZ 39 -4.649
7 CZ 40 -5.625
7 CZ 41 -3.184
7 CZ 42 0.722
7 CZ 43 2.187
7 CZ 44 -0.743
7 CZ 45 -5.625
7 CZ 46 -9.532
7 CZ 47 -9.043
7 CZ 48 -4.649
7 CZ 49 0.722
7 CZ 50 3.652
7 CZ 51 3.164
7 CZ 52 0.234
7 CZ 53 -2.207
7 CZ 54 -3.672
7 CZ 55 -2.696
7 CZ 56 -1.231
7 CZ 57 0.234
7 CZ 58 0.722
7 CZ 59 0.722
7 CZ 60 -0.743
7 CZ 61 -3.184
7 CZ 62 -6.602
7 CZ 63 -10.020
7 CZ 64 -12.950
7 CZ 65 -14.414
7 CZ 66 -14.903
7 CZ 67 -13.926
7 CZ 68 -12.461
7 CZ 69 -11.485
7 CZ 70 -11.485
7 CZ 71 -12.461
7 CZ 72 -12.950
7 CZ 73 -12.461
7 CZ 74 -10.997
7 CZ 75 -8.555
7 CZ 76 -6.114
7 CZ 77 -4.649
7 CZ 78 -3.672
7 CZ 79 -3.184
7 CZ 80 -3.672
7 CZ 81 -5.137
7 CZ 82 -7.090
7 CZ 83 -9.043
7 CZ 84 -10.997
7 CZ 85 -11.973
7 CZ 86 -13.438
7 CZ 87 -14.903
7 CZ 88 -17.344
7 CZ 89 -18.809
7 CZ 90 -19.786
7 CZ 91 -19.297
7 CZ 92 -18.809
7 CZ 93 -17.832
7 CZ 94 -17.344
7 CZ 95 -16.368
7 CZ 96 -15.391
7 CZ 97 -11.973
7 CZ 98 -9.043
7 CZ 99 -6.602
7 CZ 100 -6.114
7 CZ 101 -7.090
7 CZ 102 -8.555
7 CZ 103 -9.532
7 CZ 104 -8.067
7 CZ 105 -5.625
7 CZ 106 -2.207
7 CZ 107 0.234
7 CZ 108 0.234
7 CZ 109 -1.719
7 CZ 110 -3.184
7 CZ 111 -2.696
7 CZ 112 -0.743
7 CZ 113 3.164
7 CZ 114 5.605
7 CZ 115 6.093
7 CZ 116 4.628
7 CZ 117 3.164
7 CZ 118 2.675
7 CZ 119 3.652
7 CZ 120 4.628
7 CZ 121 5.117
7 CZ 122 4.628
7 CZ 123 4.140
7 CZ 124 4.628
7 CZ 125 5.117
7 CZ 126 5.605
7 CZ 127 3.164
7 CZ 128 -0.743
7 CZ 129 -5.625
7 CZ 130 -9.043
7 CZ 131 -10.508
7 CZ 132 -10.508
7 CZ 133 -9.532
7 CZ 134 -10.020
7 CZ 135 -10.997
7 CZ 136 -11.485
7 CZ 137 -10.508
7 CZ 138 -8.555
7 CZ 139 -6.114
7 CZ 140 -6.114
7 CZ 141 -8.067
7 CZ 142 -12.461
7 CZ 143 -16.368
7 CZ 144 -18.321
7 CZ 145 -17.344
7 CZ 146 -13.926
7 CZ 147 -10.508
7 CZ 148 -8.555
7 CZ 149 -9.532
7 CZ 150 -11.485
7 CZ 151 -13.926
7 CZ 152 -16.368
7 CZ 153 -16.856
7 CZ 154 -15.879
7 CZ 155 -13.438
7 CZ 156 -10.508
7 CZ 157 -8.067
7 CZ 158 -7.579
7 CZ 159 -9.532
7 CZ 160 -12.950
7 CZ 161 -16.856
7 CZ 162 -18.321
7 CZ 163 -16.368
7 CZ 164 -13.926
7 CZ 165 -12.950
7 CZ 166 -15.391
7 CZ 167 -20.274
7 CZ 168 -24.668
7 CZ 169 -25.645
7 CZ 170 -22.715
7 CZ 171 -17.832
7 CZ 172 -14.414
7 CZ 173 -14.414
7 CZ 174 -16.368
7 CZ 175 -18.321
7 CZ 176 -16.856
7 CZ 177 -12.461
7 CZ 178 -6.602
7 CZ 179 -3.184
7 CZ 180 -3.184
7 CZ 181 -5.137
7 CZ 182 -7.579
7 CZ 183 -9.043
7 CZ 184 -9.043
7 CZ 185 -8.555
7 CZ 186 -8.067
7 CZ 187 -9.043
7 CZ 188 -10.997
7 CZ 189 -11.973
7 CZ 190 -12.461
7 CZ 191 -10.997
7 CZ 192 -9.043
7 CZ 193 -7.090
7 CZ 194 -6.114
7 CZ 195 -5.625
7 CZ 196 -6.114
7 CZ 197 -6.602
7 CZ 198 -7.579
7 CZ 199 -7.579
7 CZ 200 -8.067
7 CZ 201 -7.579
7 CZ 202 -8.067
7 CZ 203 -8.555
7 CZ 204 -9.532
7 CZ 205 -9.043
7 CZ 206 -6.602
7 CZ 207 -2.207
7 CZ 208 2.675
7 CZ 209 6.093
7 CZ 210 5.605
7 CZ 211 1.211
7 CZ 212 -4.161
7 CZ 213 -8.067
7 CZ 214 -9.043
7 CZ 215 -6.114
7 CZ 216 -2.207
7 CZ 217 0.722
7 CZ 218 1.211
7 CZ 219 -0.743
7 CZ 220 -3.672
7 CZ 221 -6.114
7 CZ 222 -7.579
7 CZ 223 -8.555
7 CZ 224 -8.555
7 CZ 225 -9.043
7 CZ 226 -10.508
7 CZ 227 -11.485
7 CZ 228 -11.485
7 CZ 229 -8.555
7 CZ 230 -3.184
7 CZ 231 1.211
7 CZ 232 2.675
7 CZ 233 -0.743
7 CZ 234 -5.625
7 CZ 235 -10.020
7 CZ 236 -10.020
7 CZ 237 -6.602
7 CZ 238 -2.207
7 CZ 239 -0.743
7 CZ 240 -4.161
7 CZ 241 -9.043
7 CZ 242 -12.461
7 CZ 243 -11.973
7 CZ 244 -8.555
7 CZ 245 -4.649
7 CZ 246 -2.696
7 CZ 247 -4.161
7 CZ 248 -6.602
7 CZ 249 -8.555
7 CZ 250 -8.555
7 CZ 251 -7.090
7 CZ 252 -5.625
7 CZ 253 -5.625
7 CZ 254 -7.579
7 CZ 255 -10.508
# C3 chan 16
7 C3 0 7.284
7 C3 1 8.748
7 C3 2 7.772
7 C3 3 5.819
7 C3 4 3.866
7 C3 5 1.912
7 C3 6 1.912
7 C3 7 1.912
7 C3 8 3.377
7 C3 9 5.330
7 C3 10 7.284
7 C3 11 7.772
7 C3 12 6.795
7 C3 13 5.819
7 C3 14 5.330
7 C3 15 5.330
7 C3 16 5.330
7 C3 17 4.354
7 C3 18 1.912
7 C3 19 -0.041
7 C3 20 -0.529
7 C3 21 1.912
7 C3 22 5.819
7 C3 23 8.260
7 C3 24 8.260
7 C3 25 5.819
7 C3 26 2.401
7 C3 27 1.424
7 C3 28 2.889
7 C3 29 5.819
7 C3 30 8.260
7 C3 31 8.748
7 C3 32 7.284
7 C3 33 5.330
7 C3 34 2.889
7 C3 35 1.424
7 C3 36 -0.041
7 C3 37 -1.017
7 C3 38 -1.506
7 C3 39 -1.506
7 C3 40 0.448
7 C3 41 2.889
7 C3 42 6.307
7 C3 43 7.772
7 C3 44 7.284
7 C3 45 5.330
7 C3 46 3.377
7 C3 47 2.401
7 C3 48 2.401
7 C3 49 3.866
7 C3 50 5.330
7 C3 51 6.795
7 C3 52 7.284
7 C3 53 6.795
7 C3 54 6.307
7 C3 55 5.330
7 C3 56 3.866
7 C3 57 2.889
7 C3 58 2.401
7 C3 59 2.889
7 C3 60 3.866
7 C3 61 4.842
7 C3 62 5.819
7 C3 63 6.307
7 C3 64 6.795
7 C3 65 6.307
7 C3 66 5.330
7 C3 67 3.866
7 C3 68 3.866
7 C3 69 4.354
7 C3 70 5.330
7 C3 71 5.819
7 C3 72 5.330
7 C3 73 2.889
7 C3 74 0.448
7 C3 75 -0.529
7 C3 76 -0.529
7 C3 77 0.448
7 C3 78 1.424
7 C3 79 1.912
7 C3 80 2.401
7 C3 81 2.889
7 C3 82 4.354
7 C3 83 5.330
7 C3 84 5.819
7 C3 85 4.842
7 C3 86 3.866
7 C3 87 2.401
7 C3 88 2.889
7 C3 89 4.354
7 C3 90 5.819
7 C3 91 6.795
7 C3 92 5.819
7 C3 93 3.866
7 C3 94 1.912
7 C3 95 0.448
7 C3 96 0.448
7 C3 97 1.424
7 C3 98 2.889
7 C3 99 3.377
7 C3 100 2.889
7 C3 101 1.912
7 C3 102 0.936
7 C3 103 0.936
7 C3 104 0.448
7 C3 105 -0.041
7 C3 106 -0.529
7 C3 107 -1.017
7 C3 108 -1.017
7 C3 109 -0.041
7 C3 110 -0.041
7 C3 111 -0.041
7 C3 112 -1.017
7 C3 113 -1.994
7 C3 114 -2.482
7 C3 115 -1.506
7 C3 116 0.448
7 C3 117 2.401
7 C3 118 2.889
7 C3 119 1.912
7 C3 120 0.448
7 C3 121 -0.041
7 C3 122 0.936
7 C3 123 3.377
7 C3 124 4.842
7 C3 125 5.330
7 C3 126 4.354
7 C3 127 1.912
7 C3 128 0.448
7 C3 129 -0.041
7 C3 130 -0.041
7 C3 131 -0.041
7 C3 132 -0.529
7 C3 133 -1.017
7 C3 134 -1.017
7 C3 135 0.936
7 C3 136 2.889
7 C3 137 3.866
7 C3 138 2.401
7 C3 139 -1.017
7 C3 140 -4.924
7 C3 141 -6.388
7 C3 142 -4.924
7 C3 143 -2.482
7 C3 144 -1.994
7 C3 145 -3.947
7 C3 146 -7.853
7 C3 147 -10.295
7 C3 148 -10.783
7 C3 149 -9.806
7 C3 150 -9.318
7 C3 151 -10.295
7 C3 152 -11.271
7 C3 153 -10.783
7 C3 154 -7.853
7 C3 155 -4.924
7 C3 156 -3.947
7 C3 157 -5.900
7 C3 158 -9.806
7 C3 159 -12.248
7 C3 160 -12.736
7 C3 161 -10.783
7 C3 162 -8.341
7 C3 163 -7.853
7 C3 164 -8.830
7 C3 165 -10.295
7 C3 166 -11.271
7 C3 167 -9.806
7 C3 168 -8.341
7 C3 169 -7.365
7 C3 170 -7.853
7 C3 171 -8.830
7 C3 172 -10.295
7 C3 173 -11.759
7 C3 174 -12.736
7 C3 175 -12.736
7 C3 176 -12.248
7 C3 177 -9.806
7 C3 178 -6.388
7 C3 179 -3.947
7 C3 180 -3.459
7 C3 181 -3.947
7 C3 182 -5.900
7 C3 183 -6.877
7 C3 184 -7.365
7 C3 185 -6.877
7 C3 186 -6.877
7 C3 187 -7.365
7 C3 188 -8.341
7 C3 189 -8.830
7 C3 190 -8.341
7 C3 191 -6.877
7 C3 192 -5.412
7 C3 193 -4.924
7 C3 194 -4.435
7 C3 195 -5.412
7 C3 196 -5.900
7 C3 197 -6.388
7 C3 198 -5.412
7 C3 199 -4.435
7 C3 200 -3.459
7 C3 201 -3.459
7 C3 202 -4.924
7 C3 203 -6.388
7 C3 204 -6.877
7 C3 205 -6.388
7 C3 206 -4.435
7 C3 207 -2.970
7 C3 208 -1.017
7 C3 209 -0.529
7 C3 210 -0.529
7 C3 211 -1.017
7 C3 212 -1.506
7 C3 213 -2.482
7 C3 214 -3.947
7 C3 215 -5.900
7 C3 216 -6.388
7 C3 217 -5.900
7 C3 218 -3.459
7 C3 219 -0.041
7 C3 220 1.912
7 C3 221 1.424
7 C3 222 -0.529
7 C3 223 -2.482
7 C3 224 -3.459
7 C3 225 -2.970
7 C3 226 -1.506
7 C3 227 -1.017
7 C3 228 -1.994
7 C3 229 -3.459
7 C3 230 -3.947
7 C3 231 -1.994
7 C3 232 -0.041
7 C3 233 0.936
7 C3 234 -1.017
7 C3 235 -4.435
7 C3 236 -6.877
7 C3 237 -6.388
7 C3 238 -2.970
7 C3 239 0.936
7 C3 240 2.889
7 C3 241 1.424
7 C3 242 -2.482
7 C3 243 -5.412
7 C3 244 -6.388
7 C3 245 -5.900
7 C3 246 -5.412
7 C3 247 -6.877
7 C3 248 -8.830
7 C3 249 -10.295
7 C3 250 -9.318
7 C3 251 -6.388
7 C3 252 -3.947
7 C3 253 -3.459
7 C3 254 -4.924
7 C3 255 -7.365
# C4 chan 17
7 C4 0 4.893
7 C4 1 0.498
7 C4 2 -1.943
7 C4 3 -1.455
7 C4 4 1.475
7 C4 5 5.381
7 C4 6 9.776
7 C4 7 12.705
7 C4 8 14.170
7 C4 9 13.194
7 C4 10 10.752
7 C4 11 6.846
7 C4 12 3.428
7 C4 13 2.452
7 C4 14 2.940
7 C4 15 4.893
7 C4 16 7.334
7 C4 17 8.311
7 C4 18 9.288
7 C4 19 8.799
7 C4 20 7.334
7 C4 21 6.358
7 C4 22 4.405
7 C4 23 2.940
7 C4 24 2.940
7 C4 25 4.893
7 C4 26 8.799
7 C4 27 12.217
7 C4 28 13.194
7 C4 29 11.241
7 C4 30 7.823
7 C4 31 6.358
7 C4 32 7.823
7 C4 33 10.264
7 C4 34 11.729
7 C4 35 10.752
7 C4 36 8.311
7 C4 37 7.334
7 C4 38 7.823
7 C4 39 9.288
7 C4 40 8.799
7 C4 41 6.358
7 C4 42 2.940
7 C4 43 0.987
7 C4 44 1.963
7 C4 45 4.405
7 C4 46 6.846
7 C4 47 6.846
7 C4 48 5.870
7 C4 49 5.381
7 C4 50 6.846
7 C4 51 9.776
7 C4 52 12.217
7 C4 53 12.705
7 C4 54 11.729
7 C4 55 10.264
7 C4 56 9.776
7 C4 57 8.799
7 C4 58 7.334
7 C4 59 5.870
7 C4 60 3.916
7 C4 61 2.940
7 C4 62 4.405
7 C4 63 6.358
7 C4 64 9.288
7 C4 65 10.264
7 C4 66 9.288
7 C4 67 7.334
7 C4 68 5.381
7 C4 69 3.428
7 C4 70 3.428
7 C4 71 4.893
7 C4 72 7.823
7 C4 73 11.241
7 C4 74 13.682
7 C4 75 14.659
7 C4 76 13.682
7 C4 77 12.217
7 C4 78 9.776
7 C4 79 7.334
7 C4 80 5.381
7 C4 81 3.428
7 C4 82 2.452
7 C4 83 2.452
7 C4 84 2.452
7 C4 85 2.452
7 C4 86 2.452
7 C4 87 1.475
7 C4 88 0.498
7 C4 89 -0.478
7 C4 90 -1.455
7 C4 91 -1.943
7 C4 92 -1.943
7 C4 93 -0.966
7 C4 94 0.498
7 C4 95 1.963
7 C4 96 3.428
7 C4 97 3.916
7 C4 98 3.916
7 C4 99 3.428
7 C4 100 3.428
7 C4 101 3.428
7 C4 102 3.916
7 C4 103 3.916
7 C4 104 3.916
7 C4 105 2.940
7 C4 106 2.452
7 C4 107 2.452
7 C4 108 2.940
7 C4 109 3.428
7 C4 110 2.940
7 C4 111 2.452
7 C4 112 1.963
7 C4 113 3.428
7 C4 114 4.893
7 C4 115 6.358
7 C4 116 5.381
7 C4 117 1.963
7 C4 118 -2.431
7 C4 119 -5.849
7 C4 120 -5.849
7 C4 121 -3.896
7 C4 122 -1.943
7 C4 123 -2.431
7 C4 124 -4.384
7 C4 125 -5.849
7 C4 126 -4.873
7 C4 127 -1.455
7 C4 128 2.940
7 C4 129 4.405
7 C4 130 2.940
7 C4 131 -0.478
7 C4 132 -2.431
7 C4 133 -1.943
7 C4 134 0.010
7 C4 135 0.987
7 C4 136 -0.478
7 C4 137 -3.408
7 C4 138 -5.361
7 C4 139 -5.361
7 C4 140 -4.384
7 C4 141 -3.896
7 C4 142 -5.849
7 C4 143 -9.267
7 C4 144 -11.220
7 C4 145 -10.244
7 C4 146 -6.337
7 C4 147 -1.943
7 C4 148 -0.478
7 C4 149 -1.943
7 C4 150 -3.896
7 C4 151 -5.849
7 C4 152 -6.337
7 C4 153 -7.802
7 C4 154 -10.244
7 C4 155 -14.150
7 C4 156 -15.615
7 C4 157 -13.662
7 C4 158 -9.267
7 C4 159 -5.361
7 C4 160 -4.873
7 C4 161 -7.802
7 C4 162 -12.685
7 C4 163 -17.080
7 C4 164 -19.033
7 C4 165 -18.056
7 C4 166 -16.103
7 C4 167 -13.662
7 C4 168 -10.732
7 C4 169 -9.267
7 C4 170 -7.802
7 C4 171 -7.802
7 C4 172 -8.291
7 C4 173 -8.291
7 C4 174 -7.802
7 C4 175 -6.337
7 C4 176 -5.849
7 C4 177 -6.337
7 C4 178 -6.826
7 C4 179 -6.826
7 C4 180 -5.361
7 C4 181 -3.896
7 C4 182 -3.408
7 C4 183 -4.873
7 C4 184 -7.314
7 C4 185 -8.779
7 C4 186 -7.802
7 C4 187 -4.873
7 C4 188 -1.455
7 C4 189 0.498
7 C4 190 -0.478
7 C4 191 -2.920
7 C4 192 -5.361
7 C4 193 -6.337
7 C4 194 -5.849
7 C4 195 -5.361
7 C4 196 -5.361
7 C4 197 -5.849
7 C4 198 -6.337
7 C4 199 -5.849
7 C4 200 -5.361
7 C4 201 -4.384
7 C4 202 -3.896
7 C4 203 -4.384
7 C4 204 -4.384
7 C4 205 -4.873
7 C4 206 -4.873
7 C4 207 -5.361
7 C4 208 -5.849
7 C4 209 -5.849
7 C4 210 -4.873
7 C4 211 -2.431
7 C4 212 -0.966
7 C4 213 0.010
7 C4 214 -0.478
7 C4 215 -1.455
7 C4 216 -2.920
7 C4 217 -3.896
7 C4 218 -4.873
7 C4 219 -5.849
7 C4 220 -6.337
7 C4 221 -5.361
7 C4 222 -3.408
7 C4 223 -0.966
7 C4 224 1.475
7 C4 225 1.963
7 C4 226 1.475
7 C4 227 0.987
7 C4 228 0.010
7 C4 229 -1.943
7 C4 230 -3.896
7 C4 231 -6.337
7 C4 232 -6.337
7 C4 233 -3.408
7 C4 234 0.498
7 C4 235 2.940
7 C4 236 1.475
7 C4 237 -2.431
7 C4 238 -7.314
7 C4 239 -10.244
7 C4 240 -9.267
7 C4 241 -6.337
7 C4 242 -3.408
7 C4 243 -1.943
7 C4 244 -1.455
7 C4 245 -2.431
7 C4 246 -1.943
7 C4 247 -0.966
7 C4 248 0.498
7 C4 249 0.987
7 C4 250 0.498
7 C4 251 -0.966
7 C4 252 -2.920
7 C4 253 -3.896
7 C4 254 -3.408
7 C4 255 -1.455
# CP5 chan 18
7 CP5 0 3.021
7 CP5 1 5.951
7 CP5 2 3.510
7 CP5 3 -0.885
7 CP5 4 -2.838
7 CP5 5 -0.885
7 CP5 6 3.510
7 CP5 7 4.974
7 CP5 8 2.045
7 CP5 9 -3.326
7 CP5 10 -7.233
7 CP5 11 -5.280
7 CP5 12 0.580
7 CP5 13 5.463
7 CP5 14 5.463
7 CP5 15 0.092
7 CP5 16 -5.768
7 CP5 17 -8.209
7 CP5 18 -7.233
7 CP5 19 -5.768
7 CP5 20 -6.744
7 CP5 21 -9.674
7 CP5 22 -10.651
7 CP5 23 -7.233
7 CP5 24 -1.373
7 CP5 25 3.021
7 CP5 26 1.556
7 CP5 27 -3.326
7 CP5 28 -7.721
7 CP5 29 -7.233
7 CP5 30 -2.350
7 CP5 31 2.045
7 CP5 32 2.533
7 CP5 33 -1.373
7 CP5 34 -6.256
7 CP5 35 -7.721
7 CP5 36 -6.744
7 CP5 37 -5.768
7 CP5 38 -7.721
7 CP5 39 -12.115
7 CP5 40 -14.069
7 CP5 41 -10.162
7 CP5 42 -2.350
7 CP5 43 3.510
7 CP5 44 3.021
7 CP5 45 -4.303
7 CP5 46 -12.115
7 CP5 47 -14.069
7 CP5 48 -9.186
7 CP5 49 -1.373
7 CP5 50 3.510
7 CP5 51 2.045
7 CP5 52 -2.350
7 CP5 53 -5.280
7 CP5 54 -4.791
7 CP5 55 -2.838
7 CP5 56 -1.373
7 CP5 57 -2.350
7 CP5 58 -4.303
7 CP5 59 -5.768
7 CP5 60 -4.791
7 CP5 61 -2.350
7 CP5 62 1.556
7 CP5 63 4.486
7 CP5 64 4.974
7 CP5 65 1.556
7 CP5 66 -4.791
7 CP5 67 -11.139
7 CP5 68 -12.115
7 CP5 69 -6.744
7 CP5 70 3.510
7 CP5 71 10.834
7 CP5 72 9.857
7 CP5 73 0.580
7 CP5 74 -10.651
7 CP5 75 -16.022
7 CP5 76 -12.115
7 CP5 77 -4.303
7 CP5 78 0.580
7 CP5 79 -0.397
7 CP5 80 -4.303
7 CP5 81 -4.791
7 CP5 82 0.092
7 CP5 83 6.439
7 CP5 84 8.881
7 CP5 85 4.486
7 CP5 86 -3.326
7 CP5 87 -9.186
7 CP5 88 -9.186
7 CP5 89 -5.280
7 CP5 90 -2.350
7 CP5 91 -2.838
7 CP5 92 -5.768
7 CP5 93 -7.233
7 CP5 94 -5.768
7 CP5 95 -2.350
7 CP5 96 -0.885
7 CP5 97 -3.326
7 CP5 98 -9.186
7 CP5 99 -13.092
7 CP5 100 -12.604
7 CP5 101 -8.209
7 CP5 102 -4.303
7 CP5 103 -3.326
7 CP5 104 -5.280
7 CP5 105 -7.721
7 CP5 106 -7.233
7 CP5 107 -4.303
7 CP5 108 -1.862
7 CP5 109 -2.350
7 CP5 110 -5.768
7 CP5 111 -9.674
7 CP5 112 -10.162
7 CP5 113 -7.233
7 CP5 114 -4.303
7 CP5 115 -3.326
7 CP5 116 -5.768
7 CP5 117 -8.209
7 CP5 118 -8.698
7 CP5 119 -5.280
7 CP5 120 -0.885
7 CP5 121 3.021
7 CP5 122 4.486
7 CP5 123 4.486
7 CP5 124 4.486
7 CP5 125 3.998
7 CP5 126 1.556
7 CP5 127 -1.862
7 CP5 128 -3.815
7 CP5 129 -1.373
7 CP5 130 3.998
7 CP5 131 7.904
7 CP5 132 6.439
7 CP5 133 -0.885
7 CP5 134 -8.209
7 CP5 135 -8.698
7 CP5 136 -1.373
7 CP5 137 8.392
7 CP5 138 10.834
7 CP5 139 2.533
7 CP5 140 -11.627
7 CP5 141 -21.393
7 CP5 142 -20.416
7 CP5 143 -9.186
7 CP5 144 1.556
7 CP5 145 4.974
7 CP5 146 -0.397
7 CP5 147 -9.674
7 CP5 148 -15.045
7 CP5 149 -14.069
7 CP5 150 -10.162
7 CP5 151 -7.233
7 CP5 152 -6.744
7 CP5 153 -5.768
7 CP5 154 -3.326
7 CP5 155 0.580
7 CP5 156 2.045
7 CP5 157 -1.373
7 CP5 158 -8.209
7 CP5 159 -14.557
7 CP5 160 -15.533
7 CP5 161 -11.627
7 CP5 162 -4.791
7 CP5 163 0.580
7 CP5 164 1.068
7 CP5 165 -1.373
7 CP5 166 -4.303
7 CP5 167 -5.280
7 CP5 168 -4.303
7 CP5 169 -2.350
7 CP5 170 -1.373
7 CP5 171 -4.303
7 CP5 172 -8.698
7 CP5 173 -12.604
7 CP5 174 -13.092
7 CP5 175 -9.186
7 CP5 176 -3.815
7 CP5 177 0.092
7 CP5 178 0.092
7 CP5 179 -3.326
7 CP5 180 -6.256
7 CP5 181 -6.744
7 CP5 182 -3.815
7 CP5 183 -0.397
7 CP5 184 0.580
7 CP5 185 -2.350
7 CP5 186 -7.721
7 CP5 187 -11.139
7 CP5 188 -11.139
7 CP5 189 -9.186
7 CP5 190 -8.698
7 CP5 191 -10.162
7 CP5 192 -12.115
7 CP5 193 -11.627
7 CP5 194 -8.698
7 CP5 195 -4.791
7 CP5 196 -3.326
7 CP5 197 -4.791
7 CP5 198 -7.721
7 CP5 199 -8.698
7 CP5 200 -8.209
7 CP5 201 -7.233
7 CP5 202 -8.698
7 CP5 203 -13.092
7 CP5 204 -16.510
7 CP5 205 -16.510
7 CP5 206 -11.627
7 CP5 207 -5.768
7 CP5 208 -2.350
7 CP5 209 -2.838
7 CP5 210 -5.768
7 CP5 211 -7.721
7 CP5 212 -6.744
7 CP5 213 -4.791
7 CP5 214 -4.791
7 CP5 215 -6.744
7 CP5 216 -10.162
7 CP5 217 -12.115
7 CP5 218 -10.651
7 CP5 219 -8.209
7 CP5 220 -7.233
7 CP5 221 -8.209
7 CP5 222 -10.162
7 CP5 223 -10.651
7 CP5 224 -9.674
7 CP5 225 -8.698
7 CP5 226 -9.186
7 CP5 227 -10.162
7 CP5 228 -11.139
7 CP5 229 -9.186
7 CP5 230 -5.280
7 CP5 231 -1.373
7 CP5 232 0.092
7 CP5 233 -1.862
7 CP5 234 -6.256
7 CP5 235 -10.651
7 CP5 236 -13.092
7 CP5 237 -12.115
7 CP5 238 -7.721
7 CP5 239 -2.838
7 CP5 240 1.068
7 CP5 241 1.068
7 CP5 242 -2.350
7 CP5 243 -7.721
7 CP5 244 -12.115
7 CP5 245 -15.045
7 CP5 246 -15.045
7 CP5 247 -13.580
7 CP5 248 -11.139
7 CP5 249 -8.698
7 CP5 250 -5.280
7 CP5 251 -1.862
7 CP5 252 0.092
7 CP5 253 -0.885
7 CP5 254 -6.256
7 CP5 255 -12.604
# CP6 chan 19
7 CP6 0 12.288
7 CP6 1 9.359
7 CP6 2 4.476
7 CP6 3 -0.407
7 CP6 4 -2.360
7 CP6 5 0.081
7 CP6 6 5.452
7 CP6 7 11.312
7 CP6 8 15.218
7 CP6 9 15.706
7 CP6 10 12.777
7 CP6 11 8.870
7 CP6 12 4.964
7 CP6 13 2.523
7 CP6 14 1.058
7 CP6 15 0.081
7 CP6 16 0.081
7 CP6 17 1.546
7 CP6 18 3.499
7 CP6 19 4.964
7 CP6 20 5.452
7 CP6 21 3.499
7 CP6 22 1.058
7 CP6 23 -0.407
7 CP6 24 0.081
7 CP6 25 3.499
7 CP6 26 7.406
7 CP6 27 9.847
7 CP6 28 9.359
7 CP6 29 5.941
7 CP6 30 3.011
7 CP6 31 1.546
7 CP6 32 3.011
7 CP6 33 5.941
7 CP6 34 8.870
7 CP6 35 9.359
7 CP6 36 7.406
7 CP6 37 3.988
7 CP6 38 0.570
7 CP6 39 -2.360
7 CP6 40 -4.313
7 CP6 41 -5.778
7 CP6 42 -6.266
7 CP6 43 -5.778
7 CP6 44 -2.848
7 CP6 45 -0.407
7 CP6 46 0.081
7 CP6 47 -0.407
7 CP6 48 -1.872
7 CP6 49 -2.848
7 CP6 50 -0.895
7 CP6 51 3.011
7 CP6 52 6.917
7 CP6 53 10.335
7 CP6 54 12.288
7 CP6 55 11.800
7 CP6 56 10.335
7 CP6 57 7.406
7 CP6 58 3.499
7 CP6 59 0.570
7 CP6 60 -0.895
7 CP6 61 0.081
7 CP6 62 2.035
7 CP6 63 3.499
7 CP6 64 3.499
7 CP6 65 3.011
7 CP6 66 2.523
7 CP6 67 3.011
7 CP6 68 3.011
7 CP6 69 1.546
7 CP6 70 0.081
7 CP6 71 -1.383
7 CP6 72 0.081
7 CP6 73 3.988
7 CP6 74 8.382
7 CP6 75 10.335
7 CP6 76 9.847
7 CP6 77 6.429
7 CP6 78 3.499
7 CP6 79 1.058
7 CP6 80 0.081
7 CP6 81 -0.895
7 CP6 82 -2.360
7 CP6 83 -4.313
7 CP6 84 -5.778
7 CP6 85 -6.755
7 CP6 86 -6.266
7 CP6 87 -5.778
7 CP6 88 -6.266
7 CP6 89 -8.219
7 CP6 90 -11.149
7 CP6 91 -13.102
7 CP6 92 -12.614
7 CP6 93 -10.173
7 CP6 94 -7.243
7 CP6 95 -5.778
7 CP6 96 -5.778
7 CP6 97 -6.755
7 CP6 98 -7.243
7 CP6 99 -5.778
7 CP6 100 -3.337
7 CP6 101 -1.383
7 CP6 102 -0.895
7 CP6 103 -2.360
7 CP6 104 -4.801
7 CP6 105 -6.266
7 CP6 106 -7.243
7 CP6 107 -6.266
7 CP6 108 -4.801
7 CP6 109 -2.360
7 CP6 110 -0.407
7 CP6 111 1.058
7 CP6 112 1.546
7 CP6 113 1.546
7 CP6 114 0.081
7 CP6 115 -1.383
7 CP6 116 -3.337
7 CP6 117 -5.778
7 CP6 118 -8.708
7 CP6 119 -10.661
7 CP6 120 -11.637
7 CP6 121 -9.684
7 CP6 122 -5.290
7 CP6 123 -1.872
7 CP6 124 0.081
7 CP6 125 -1.872
7 CP6 126 -4.313
7 CP6 127 -5.778
7 CP6 128 -3.825
7 CP6 129 -0.407
7 CP6 130 2.035
7 CP6 131 1.546
7 CP6 132 -0.895
7 CP6 133 -3.825
7 CP6 134 -3.825
7 CP6 135 -2.848
7 CP6 136 -1.872
7 CP6 137 -3.825
7 CP6 138 -5.778
7 CP6 139 -7.731
7 CP6 140 -6.755
7 CP6 141 -5.290
7 CP6 142 -4.801
7 CP6 143 -6.755
7 CP6 144 -10.173
7 CP6 145 -11.149
7 CP6 146 -8.708
7 CP6 147 -4.313
7 CP6 148 -1.872
7 CP6 149 -2.360
7 CP6 150 -5.290
7 CP6 151 -6.266
7 CP6 152 -4.801
7 CP6 153 -2.360
7 CP6 154 -1.872
7 CP6 155 -4.801
7 CP6 156 -8.219
7 CP6 157 -9.684
7 CP6 158 -8.219
7 CP6 159 -5.778
7 CP6 160 -5.290
7 CP6 161 -8.708
7 CP6 162 -12.614
7 CP6 163 -15.055
7 CP6 164 -14.567
7 CP6 165 -11.637
7 CP6 166 -10.173
7 CP6 167 -9.684
7 CP6 168 -10.173
7 CP6 169 -9.196
7 CP6 170 -7.731
7 CP6 171 -6.266
7 CP6 172 -5.778
7 CP6 173 -7.243
7 CP6 174 -8.219
7 CP6 175 -7.731
7 CP6 176 -5.778
7 CP6 177 -3.825
7 CP6 178 -1.872
7 CP6 179 -0.895
7 CP6 180 -1.383
7 CP6 181 -1.872
7 CP6 182 -2.360
7 CP6 183 -2.360
7 CP6 184 -2.848
7 CP6 185 -3.825
7 CP6 186 -4.313
7 CP6 187 -3.337
7 CP6 188 -1.872
7 CP6 189 0.570
7 CP6 190 1.546
7 CP6 191 -0.895
7 CP6 192 -3.825
7 CP6 193 -6.755
7 CP6 194 -8.219
7 CP6 195 -7.731
7 CP6 196 -7.243
7 CP6 197 -7.731
7 CP6 198 -8.219
7 CP6 199 -8.219
7 CP6 200 -6.755
7 CP6 201 -4.801
7 CP6 202 -3.337
7 CP6 203 -1.383
7 CP6 204 -0.407
7 CP6 205 1.058
7 CP6 206 1.546
7 CP6 207 1.058
7 CP6 208 -1.383
7 CP6 209 -3.337
7 CP6 210 -3.825
7 CP6 211 -1.872
7 CP6 212 0.570
7 CP6 213 1.546
7 CP6 214 1.058
7 CP6 215 -0.895
7 CP6 216 -1.872
7 CP6 217 -2.360
7 CP6 218 -3.825
7 CP6 219 -5.290
7 CP6 220 -7.731
7 CP6 221 -8.708
7 CP6 222 -7.731
7 CP6 223 -4.313
7 CP6 224 -0.895
7 CP6 225 0.570
7 CP6 226 0.570
7 CP6 227 0.081
7 CP6 228 0.081
7 CP6 229 -0.407
7 CP6 230 -1.383
7 CP6 231 -2.848
7 CP6 232 -3.337
7 CP6 233 -1.383
7 CP6 234 3.011
7 CP6 235 6.429
7 CP6 236 6.429
7 CP6 237 3.011
7 CP6 238 -1.872
7 CP6 239 -5.290
7 CP6 240 -5.778
7 CP6 241 -3.825
7 CP6 242 -2.360
7 CP6 243 -2.360
7 CP6 244 -4.313
7 CP6 245 -5.778
7 CP6 246 -4.801
7 CP6 247 -1.872
7 CP6 248 2.523
7 CP6 249 4.476
7 CP6 250 3.011
7 CP6 251 -0.407
7 CP6 252 -3.825
7 CP6 253 -4.313
7 CP6 254 -1.383
7 CP6 255 2.523
# CP1 chan 20
7 CP1 0 4.130
7 CP1 1 4.130
7 CP1 2 3.153
7 CP1 3 2.177
7 CP1 4 2.177
7 CP1 5 2.177
7 CP1 6 3.153
7 CP1 7 3.642
7 CP1 8 4.618
7 CP1 9 5.107
7 CP1 10 6.083
7 CP1 11 6.571
7 CP1 12 6.571
7 CP1 13 6.083
7 CP1 14 5.107
7 CP1 15 4.130
7 CP1 16 3.153
7 CP1 17 2.177
7 CP1 18 0.712
7 CP1 19 -0.753
7 CP1 20 -1.241
7 CP1 21 -0.753
7 CP1 22 0.712
7 CP1 23 2.665
7 CP1 24 3.642
7 CP1 25 4.130
7 CP1 26 3.153
7 CP1 27 2.665
7 CP1 28 2.665
7 CP1 29 4.130
7 CP1 30 5.595
7 CP1 31 6.083
7 CP1 32 5.595
7 CP1 33 4.130
7 CP1 34 3.153
7 CP1 35 2.665
7 CP1 36 2.665
7 CP1 37 2.665
7 CP1 38 1.200
7 CP1 39 0.224
7 CP1 40 -0.753
7 CP1 41 0.224
7 CP1 42 2.177
7 CP1 43 3.642
7 CP1 44 4.130
7 CP1 45 3.153
7 CP1 46 1.689
7 CP1 47 1.689
7 CP1 48 2.665
7 CP1 49 4.618
7 CP1 50 5.595
7 CP1 51 5.595
7 CP1 52 5.107
7 CP1 53 4.618
7 CP1 54 4.130
7 CP1 55 3.153
7 CP1 56 3.153
7 CP1 57 2.177
7 CP1 58 2.177
7 CP1 59 2.665
7 CP1 60 4.130
7 CP1 61 4.618
7 CP1 62 4.130
7 CP1 63 4.130
7 CP1 64 3.642
7 CP1 65 3.153
7 CP1 66 3.153
7 CP1 67 3.153
7 CP1 68 3.642
7 CP1 69 5.107
7 CP1 70 6.083
7 CP1 71 6.571
7 CP1 72 6.083
7 CP1 73 4.618
7 CP1 74 3.153
7 CP1 75 1.689
7 CP1 76 2.177
7 CP1 77 2.665
7 CP1 78 2.665
7 CP1 79 2.177
7 CP1 80 1.200
7 CP1 81 1.689
7 CP1 82 3.153
7 CP1 83 4.618
7 CP1 84 5.107
7 CP1 85 4.130
7 CP1 86 2.665
7 CP1 87 1.689
7 CP1 88 1.200
7 CP1 89 2.665
7 CP1 90 3.642
7 CP1 91 4.130
7 CP1 92 3.153
7 CP1 93 2.177
7 CP1 94 0.712
7 CP1 95 -0.753
7 CP1 96 -1.241
7 CP1 97 -1.729
7 CP1 98 -2.218
7 CP1 99 -1.729
7 CP1 100 -1.241
7 CP1 101 -0.753
7 CP1 102 -0.264
7 CP1 103 -0.753
7 CP1 104 -1.241
7 CP1 105 -1.729
7 CP1 106 -1.729
7 CP1 107 -1.241
7 CP1 108 -0.753
7 CP1 109 -0.264
7 CP1 110 -0.753
7 CP1 111 -1.241
7 CP1 112 -1.729
7 CP1 113 -1.729
7 CP1 114 -2.218
7 CP1 115 -2.706
7 CP1 116 -3.194
7 CP1 117 -3.194
7 CP1 118 -2.218
7 CP1 119 -0.753
7 CP1 120 0.224
7 CP1 121 1.200
7 CP1 122 2.177
7 CP1 123 2.665
7 CP1 124 3.642
7 CP1 125 3.642
7 CP1 126 2.665
7 CP1 127 1.689
7 CP1 128 0.712
7 CP1 129 1.200
7 CP1 130 3.153
7 CP1 131 4.130
7 CP1 132 3.153
7 CP1 133 1.200
7 CP1 134 -1.241
7 CP1 135 -1.729
7 CP1 136 -0.753
7 CP1 137 1.200
7 CP1 138 1.689
7 CP1 139 -0.264
7 CP1 140 -2.706
7 CP1 141 -4.171
7 CP1 142 -3.194
7 CP1 143 -0.753
7 CP1 144 0.712
7 CP1 145 0.712
7 CP1 146 -1.241
7 CP1 147 -3.194
7 CP1 148 -4.171
7 CP1 149 -4.171
7 CP1 150 -3.682
7 CP1 151 -3.194
7 CP1 152 -2.706
7 CP1 153 -1.729
7 CP1 154 -0.264
7 CP1 155 1.200
7 CP1 156 0.712
7 CP1 157 -0.753
7 CP1 158 -2.706
7 CP1 159 -4.171
7 CP1 160 -3.682
7 CP1 161 -2.706
7 CP1 162 -0.753
7 CP1 163 0.224
7 CP1 164 -0.264
7 CP1 165 -0.264
7 CP1 166 -0.753
7 CP1 167 -1.241
7 CP1 168 -1.241
7 CP1 169 -1.241
7 CP1 170 -1.241
7 CP1 171 -1.241
7 CP1 172 -1.241
7 CP1 173 -1.729
7 CP1 174 -2.706
7 CP1 175 -2.706
7 CP1 176 -2.218
7 CP1 177 -1.241
7 CP1 178 -0.264
7 CP1 179 -0.264
7 CP1 180 -0.753
7 CP1 181 -0.753
7 CP1 182 -0.264
7 CP1 183 0.712
7 CP1 184 1.689
7 CP1 185 2.177
7 CP1 186 1.200
7 CP1 187 0.224
7 CP1 188 0.224
7 CP1 189 0.224
7 CP1 190 0.712
7 CP1 191 1.200
7 CP1 192 1.200
7 CP1 193 1.200
7 CP1 194 1.689
7 CP1 195 2.177
7 CP1 196 2.665
7 CP1 197 2.665
7 CP1 198 2.177
7 CP1 199 2.665
7 CP1 200 3.153
7 CP1 201 3.153
7 CP1 202 2.665
7 CP1 203 1.689
7 CP1 204 1.200
7 CP1 205 0.712
7 CP1 206 1.200
7 CP1 207 2.665
7 CP1 208 3.642
7 CP1 209 4.130
7 CP1 210 4.130
7 CP1 211 4.618
7 CP1 212 5.107
7 CP1 213 5.107
7 CP1 214 4.618
7 CP1 215 3.642
7 CP1 216 3.153
7 CP1 217 3.642
7 CP1 218 4.618
7 CP1 219 6.083
7 CP1 220 6.571
7 CP1 221 6.083
7 CP1 222 5.107
7 CP1 223 4.618
7 CP1 224 4.618
7 CP1 225 5.107
7 CP1 226 5.107
7 CP1 227 4.130
7 CP1 228 3.642
7 CP1 229 3.642
7 CP1 230 4.618
7 CP1 231 6.571
7 CP1 232 7.548
7 CP1 233 7.060
7 CP1 234 6.083
7 CP1 235 4.618
7 CP1 236 4.130
7 CP1 237 4.618
7 CP1 238 6.083
7 CP1 239 8.036
7 CP1 240 9.013
7 CP1 241 9.013
7 CP1 242 7.548
7 CP1 243 6.083
7 CP1 244 4.618
7 CP1 245 3.642
7 CP1 246 3.153
7 CP1 247 3.642
7 CP1 248 4.130
7 CP1 249 4.618
7 CP1 250 6.083
7 CP1 251 7.060
7 CP1 252 8.036
7 CP1 253 8.525
7 CP1 254 8.036
7 CP1 255 7.060
# CP2 chan 21
7 CP2 0 4.628
7 CP2 1 1.699
7 CP2 2 -0.254
7 CP2 3 -1.231
7 CP2 4 -0.743
7 CP2 5 1.211
7 CP2 6 3.652
7 CP2 7 5.605
7 CP2 8 6.582
7 CP2 9 6.582
7 CP2 10 5.605
7 CP2 11 3.652
7 CP2 12 2.187
7 CP2 13 1.699
7 CP2 14 0.722
7 CP2 15 0.722
7 CP2 16 0.722
7 CP2 17 0.234
7 CP2 18 0.234
7 CP2 19 -0.254
7 CP2 20 -0.743
7 CP2 21 -1.231
7 CP2 22 -1.719
7 CP2 23 -1.719
7 CP2 24 -1.231
7 CP2 25 -0.254
7 CP2 26 0.234
7 CP2 27 1.211
7 CP2 28 1.211
7 CP2 29 0.722
7 CP2 30 0.234
7 CP2 31 -0.254
7 CP2 32 0.234
7 CP2 33 0.722
7 CP2 34 0.722
7 CP2 35 0.722
7 CP2 36 -0.254
7 CP2 37 -1.231
7 CP2 38 -2.207
7 CP2 39 -3.184
7 CP2 40 -4.161
7 CP2 41 -5.137
7 CP2 42 -5.137
7 CP2 43 -4.649
7 CP2 44 -4.161
7 CP2 45 -3.672
7 CP2 46 -3.672
7 CP2 47 -2.696
7 CP2 48 -2.207
7 CP2 49 -1.231
7 CP2 50 -0.254
7 CP2 51 1.211
7 CP2 52 0.234
7 CP2 53 0.234
7 CP2 54 0.234
7 CP2 55 0.722
7 CP2 56 0.234
7 CP2 57 -0.254
7 CP2 58 -1.231
7 CP2 59 -2.207
7 CP2 60 -2.207
7 CP2 61 -1.231
7 CP2 62 -0.743
7 CP2 63 -0.743
7 CP2 64 -1.231
7 CP2 65 -2.207
7 CP2 66 -1.719
7 CP2 67 -1.231
7 CP2 68 -0.254
7 CP2 69 0.234
7 CP2 70 0.722
7 CP2 71 1.211
7 CP2 72 1.699
7 CP2 73 2.187
7 CP2 74 2.675
7 CP2 75 2.187
7 CP2 76 1.211
7 CP2 77 -0.254
7 CP2 78 -1.231
7 CP2 79 -2.696
7 CP2 80 -3.672
7 CP2 81 -4.161
7 CP2 82 -4.161
7 CP2 83 -3.672
7 CP2 84 -3.184
7 CP2 85 -3.184
7 CP2 86 -3.184
7 CP2 87 -3.672
7 CP2 88 -4.161
7 CP2 89 -5.137
7 CP2 90 -5.137
7 CP2 91 -5.137
7 CP2 92 -5.625
7 CP2 93 -6.114
7 CP2 94 -6.114
7 CP2 95 -6.602
7 CP2 96 -6.602
7 CP2 97 -6.114
7 CP2 98 -5.137
7 CP2 99 -4.649
7 CP2 100 -4.649
7 CP2 101 -4.649
7 CP2 102 -5.137
7 CP2 103 -5.137
7 CP2 104 -5.137
7 CP2 105 -4.649
7 CP2 106 -4.161
7 CP2 107 -4.161
7 CP2 108 -4.161
7 CP2 109 -3.672
7 CP2 110 -4.161
7 CP2 111 -4.161
7 CP2 112 -3.672
7 CP2 113 -3.672
7 CP2 114 -3.672
7 CP2 115 -4.649
7 CP2 116 -6.114
7 CP2 117 -7.090
7 CP2 118 -7.579
7 CP2 119 -7.090
7 CP2 120 -6.114
7 CP2 121 -4.649
7 CP2 122 -3.184
7 CP2 123 -2.696
7 CP2 124 -2.207
7 CP2 125 -2.696
7 CP2 126 -3.184
7 CP2 127 -3.184
7 CP2 128 -2.696
7 CP2 129 -1.231
7 CP2 130 -0.254
7 CP2 131 -0.254
7 CP2 132 -1.719
7 CP2 133 -3.184
7 CP2 134 -5.137
7 CP2 135 -5.625
7 CP2 136 -5.137
7 CP2 137 -5.137
7 CP2 138 -4.161
7 CP2 139 -4.161
7 CP2 140 -4.161
7 CP2 141 -4.161
7 CP2 142 -4.649
7 CP2 143 -4.161
7 CP2 144 -4.161
7 CP2 145 -3.184
7 CP2 146 -2.696
7 CP2 147 -2.696
7 CP2 148 -3.184
7 CP2 149 -4.161
7 CP2 150 -4.161
7 CP2 151 -4.161
7 CP2 152 -3.672
7 CP2 153 -3.672
7 CP2 154 -4.649
7 CP2 155 -6.602
7 CP2 156 -7.579
7 CP2 157 -7.579
7 CP2 158 -7.579
7 CP2 159 -7.090
7 CP2 160 -8.067
7 CP2 161 -8.555
7 CP2 162 -9.043
7 CP2 163 -8.067
7 CP2 164 -7.090
7 CP2 165 -6.114
7 CP2 166 -5.625
7 CP2 167 -5.625
7 CP2 168 -4.649
7 CP2 169 -4.161
7 CP2 170 -2.696
7 CP2 171 -2.696
7 CP2 172 -3.184
7 CP2 173 -4.161
7 CP2 174 -5.137
7 CP2 175 -4.649
7 CP2 176 -4.161
7 CP2 177 -3.184
7 CP2 178 -3.672
7 CP2 179 -4.161
7 CP2 180 -4.161
7 CP2 181 -3.184
7 CP2 182 -2.207
7 CP2 183 -1.231
7 CP2 184 -0.743
7 CP2 185 -0.254
7 CP2 186 -0.254
7 CP2 187 0.234
7 CP2 188 0.722
7 CP2 189 0.722
7 CP2 190 0.234
7 CP2 191 -0.743
7 CP2 192 -1.719
7 CP2 193 -1.719
7 CP2 194 -1.719
7 CP2 195 -1.231
7 CP2 196 -1.231
7 CP2 197 -1.231
7 CP2 198 -1.231
7 CP2 199 -0.743
7 CP2 200 -0.254
7 CP2 201 0.234
7 CP2 202 -0.254
7 CP2 203 -0.743
7 CP2 204 -1.231
7 CP2 205 -1.231
7 CP2 206 -1.231
7 CP2 207 -1.719
7 CP2 208 -2.207
7 CP2 209 -2.696
7 CP2 210 -2.696
7 CP2 211 -2.207
7 CP2 212 -1.719
7 CP2 213 -1.719
7 CP2 214 -1.231
7 CP2 215 -1.719
7 CP2 216 -1.719
7 CP2 217 -1.231
7 CP2 218 -1.719
7 CP2 219 -1.719
7 CP2 220 -2.207
7 CP2 221 -2.207
7 CP2 222 -2.207
7 CP2 223 -2.207
7 CP2 224 -1.231
7 CP2 225 -0.743
7 CP2 226 -0.743
7 CP2 227 -0.743
7 CP2 228 -0.254
7 CP2 229 -0.254
7 CP2 230 0.234
7 CP2 231 0.722
7 CP2 232 0.722
7 CP2 233 1.699
7 CP2 234 1.699
7 CP2 235 2.187
7 CP2 236 1.699
7 CP2 237 0.722
7 CP2 238 -0.254
7 CP2 239 -1.231
7 CP2 240 -1.719
7 CP2 241 -2.207
7 CP2 242 -2.207
7 CP2 243 -2.207
7 CP2 244 -3.184
7 CP2 245 -3.184
7 CP2 246 -3.184
7 CP2 247 -2.207
7 CP2 248 -0.743
7 CP2 249 0.722
7 CP2 250 1.699
7 CP2 251 1.211
7 CP2 252 0.234
7 CP2 253 -0.254
7 CP2 254 -0.254
7 CP2 255 0.234
# P3 chan 22
7 P3 0 7.131
7 P3 1 7.131
7 P3 2 5.666
7 P3 3 4.201
7 P3 4 4.201
7 P3 5 6.154
7 P3 6 8.108
7 P3 7 9.572
7 P3 8 8.596
7 P3 9 7.131
7 P3 10 6.154
7 P3 11 6.154
7 P3 12 6.643
7 P3 13 7.131
7 P3 14 6.154
7 P3 15 4.201
7 P3 16 1.760
7 P3 17 0.295
7 P3 18 -1.170
7 P3 19 -2.146
7 P3 20 -2.635
7 P3 21 -1.658
7 P3 22 0.295
7 P3 23 3.713
7 P3 24 5.666
7 P3 25 5.666
7 P3 26 3.713
7 P3 27 1.760
7 P3 28 0.783
7 P3 29 1.760
7 P3 30 3.713
7 P3 31 4.201
7 P3 32 3.225
7 P3 33 1.760
7 P3 34 1.272
7 P3 35 1.760
7 P3 36 2.248
7 P3 37 1.272
7 P3 38 -2.635
7 P3 39 -6.053
7 P3 40 -6.541
7 P3 41 -3.611
7 P3 42 0.783
7 P3 43 3.713
7 P3 44 2.248
7 P3 45 -0.682
7 P3 46 -3.123
7 P3 47 -2.146
7 P3 48 1.760
7 P3 49 5.178
7 P3 50 6.643
7 P3 51 4.690
7 P3 52 2.248
7 P3 53 0.783
7 P3 54 0.783
7 P3 55 1.272
7 P3 56 1.272
7 P3 57 1.272
7 P3 58 1.272
7 P3 59 2.248
7 P3 60 3.713
7 P3 61 4.201
7 P3 62 4.201
7 P3 63 3.713
7 P3 64 2.736
7 P3 65 1.760
7 P3 66 0.295
7 P3 67 -0.193
7 P3 68 0.295
7 P3 69 1.272
7 P3 70 3.713
7 P3 71 5.178
7 P3 72 4.201
7 P3 73 1.272
7 P3 74 -1.658
7 P3 75 -3.611
7 P3 76 -3.123
7 P3 77 -1.170
7 P3 78 -0.193
7 P3 79 0.295
7 P3 80 0.295
7 P3 81 1.272
7 P3 82 3.225
7 P3 83 5.178
7 P3 84 4.690
7 P3 85 2.248
7 P3 86 -0.682
7 P3 87 -3.123
7 P3 88 -3.123
7 P3 89 -2.146
7 P3 90 -1.170
7 P3 91 -1.658
7 P3 92 -3.123
7 P3 93 -4.588
7 P3 94 -5.564
7 P3 95 -6.053
7 P3 96 -6.541
7 P3 97 -7.517
7 P3 98 -8.494
7 P3 99 -8.494
7 P3 100 -7.517
7 P3 101 -6.053
7 P3 102 -6.053
7 P3 103 -7.029
7 P3 104 -8.006
7 P3 105 -8.006
7 P3 106 -6.541
7 P3 107 -4.588
7 P3 108 -4.100
7 P3 109 -5.076
7 P3 110 -6.541
7 P3 111 -7.517
7 P3 112 -7.517
7 P3 113 -7.517
7 P3 114 -8.006
7 P3 115 -8.982
7 P3 116 -9.471
7 P3 117 -8.494
7 P3 118 -6.053
7 P3 119 -3.123
7 P3 120 -1.658
7 P3 121 -1.170
7 P3 122 -0.682
7 P3 123 0.783
7 P3 124 3.225
7 P3 125 5.178
7 P3 126 4.201
7 P3 127 1.760
7 P3 128 -1.170
7 P3 129 -1.170
7 P3 130 1.272
7 P3 131 3.225
7 P3 132 1.760
7 P3 133 -2.146
7 P3 134 -6.541
7 P3 135 -8.006
7 P3 136 -5.076
7 P3 137 -1.658
7 P3 138 -0.682
7 P3 139 -5.076
7 P3 140 -10.447
7 P3 141 -13.865
7 P3 142 -12.400
7 P3 143 -7.517
7 P3 144 -3.611
7 P3 145 -4.100
7 P3 146 -7.029
7 P3 147 -10.447
7 P3 148 -11.424
7 P3 149 -10.935
7 P3 150 -9.471
7 P3 151 -8.982
7 P3 152 -8.982
7 P3 153 -8.006
7 P3 154 -5.076
7 P3 155 -2.635
7 P3 156 -2.146
7 P3 157 -4.100
7 P3 158 -7.517
7 P3 159 -10.447
7 P3 160 -10.935
7 P3 161 -8.982
7 P3 162 -6.541
7 P3 163 -4.588
7 P3 164 -3.123
7 P3 165 -3.123
7 P3 166 -3.123
7 P3 167 -3.611
7 P3 168 -4.100
7 P3 169 -4.588
7 P3 170 -5.076
7 P3 171 -5.564
7 P3 172 -6.541
7 P3 173 -8.006
7 P3 174 -8.006
7 P3 175 -6.053
7 P3 176 -3.123
7 P3 177 -0.682
7 P3 178 -0.193
7 P3 179 -1.658
7 P3 180 -3.611
7 P3 181 -4.100
7 P3 182 -2.635
7 P3 183 -0.682
7 P3 184 0.783
7 P3 185 0.295
7 P3 186 -2.146
7 P3 187 -4.588
7 P3 188 -5.564
7 P3 189 -5.564
7 P3 190 -5.564
7 P3 191 -6.053
7 P3 192 -6.541
7 P3 193 -6.053
7 P3 194 -4.588
7 P3 195 -2.635
7 P3 196 -2.146
7 P3 197 -2.635
7 P3 198 -3.611
7 P3 199 -4.588
7 P3 200 -5.076
7 P3 201 -5.076
7 P3 202 -6.541
7 P3 203 -8.494
7 P3 204 -9.471
7 P3 205 -8.982
7 P3 206 -7.029
7 P3 207 -4.588
7 P3 208 -3.611
7 P3 209 -3.611
7 P3 210 -4.100
7 P3 211 -4.100
7 P3 212 -3.611
7 P3 213 -3.123
7 P3 214 -4.588
7 P3 215 -6.541
7 P3 216 -7.517
7 P3 217 -7.029
7 P3 218 -5.564
7 P3 219 -4.100
7 P3 220 -4.588
7 P3 221 -6.541
7 P3 222 -8.494
7 P3 223 -8.982
7 P3 224 -8.006
7 P3 225 -6.541
7 P3 226 -6.541
7 P3 227 -7.517
7 P3 228 -8.494
7 P3 229 -7.517
7 P3 230 -4.588
7 P3 231 -2.146
7 P3 232 -1.170
7 P3 233 -2.635
7 P3 234 -5.564
7 P3 235 -8.006
7 P3 236 -8.982
7 P3 237 -8.006
7 P3 238 -5.564
7 P3 239 -2.635
7 P3 240 -1.170
7 P3 241 -1.658
7 P3 242 -4.588
7 P3 243 -8.006
7 P3 244 -10.935
7 P3 245 -12.400
7 P3 246 -11.912
7 P3 247 -10.935
7 P3 248 -9.471
7 P3 249 -8.494
7 P3 250 -7.029
7 P3 251 -5.076
7 P3 252 -2.635
7 P3 253 -1.170
7 P3 254 -1.658
7 P3 255 -4.588
# P4 chan 23
7 P4 0 4.964
7 P4 1 2.035
7 P4 2 -1.383
7 P4 3 -2.848
7 P4 4 -1.872
7 P4 5 1.058
7 P4 6 4.964
7 P4 7 8.382
7 P4 8 9.359
7 P4 9 8.870
7 P4 10 6.917
7 P4 11 4.964
7 P4 12 3.011
7 P4 13 2.035
7 P4 14 1.058
7 P4 15 0.081
7 P4 16 -0.407
7 P4 17 -0.895
7 P4 18 -0.895
7 P4 19 -0.407
7 P4 20 -0.895
7 P4 21 -2.360
7 P4 22 -3.337
7 P4 23 -3.825
7 P4 24 -2.848
7 P4 25 -0.407
7 P4 26 1.546
7 P4 27 2.523
7 P4 28 1.546
7 P4 29 0.570
7 P4 30 -0.895
7 P4 31 -1.383
7 P4 32 -0.895
7 P4 33 -0.407
7 P4 34 0.081
7 P4 35 0.081
7 P4 36 -0.407
7 P4 37 -1.383
7 P4 38 -3.337
7 P4 39 -5.778
7 P4 40 -7.731
7 P4 41 -8.708
7 P4 42 -8.219
7 P4 43 -7.243
7 P4 44 -6.266
7 P4 45 -5.778
7 P4 46 -5.290
7 P4 47 -3.825
7 P4 48 -1.872
7 P4 49 -0.895
7 P4 50 -0.407
7 P4 51 -0.895
7 P4 52 -0.895
7 P4 53 -0.407
7 P4 54 1.058
7 P4 55 2.035
7 P4 56 1.546
7 P4 57 -0.407
7 P4 58 -2.848
7 P4 59 -4.313
7 P4 60 -3.825
7 P4 61 -2.848
7 P4 62 -2.848
7 P4 63 -2.848
7 P4 64 -3.825
7 P4 65 -4.313
7 P4 66 -3.825
7 P4 67 -3.337
7 P4 68 -2.848
7 P4 69 -2.848
7 P4 70 -2.848
7 P4 71 -2.848
7 P4 72 -0.895
7 P4 73 0.570
7 P4 74 1.546
7 P4 75 1.058
7 P4 76 0.081
7 P4 77 -1.872
7 P4 78 -2.848
7 P4 79 -3.825
7 P4 80 -3.825
7 P4 81 -4.313
7 P4 82 -4.801
7 P4 83 -5.290
7 P4 84 -6.266
7 P4 85 -7.731
7 P4 86 -8.708
7 P4 87 -9.684
7 P4 88 -10.661
7 P4 89 -11.149
7 P4 90 -11.149
7 P4 91 -11.637
7 P4 92 -12.126
7 P4 93 -12.126
7 P4 94 -12.126
7 P4 95 -12.126
7 P4 96 -11.637
7 P4 97 -11.637
7 P4 98 -11.149
7 P4 99 -11.149
7 P4 100 -10.661
7 P4 101 -10.661
7 P4 102 -10.661
7 P4 103 -10.173
7 P4 104 -10.173
7 P4 105 -10.173
7 P4 106 -10.661
7 P4 107 -10.661
7 P4 108 -10.173
7 P4 109 -9.196
7 P4 110 -8.219
7 P4 111 -7.243
7 P4 112 -6.755
7 P4 113 -7.243
7 P4 114 -8.219
7 P4 115 -10.173
7 P4 116 -11.637
7 P4 117 -12.614
7 P4 118 -13.102
7 P4 119 -13.102
7 P4 120 -11.637
7 P4 121 -9.684
7 P4 122 -7.731
7 P4 123 -6.755
7 P4 124 -6.755
7 P4 125 -7.243
7 P4 126 -8.219
7 P4 127 -7.731
7 P4 128 -6.266
7 P4 129 -4.313
7 P4 130 -2.848
7 P4 131 -2.848
7 P4 132 -4.313
7 P4 133 -7.243
7 P4 134 -8.708
7 P4 135 -9.684
7 P4 136 -10.173
7 P4 137 -10.661
7 P4 138 -10.173
7 P4 139 -10.173
7 P4 140 -9.684
7 P4 141 -10.173
7 P4 142 -11.149
7 P4 143 -12.126
7 P4 144 -11.637
7 P4 145 -10.173
7 P4 146 -8.219
7 P4 147 -7.243
7 P4 148 -7.731
7 P4 149 -9.196
7 P4 150 -10.661
7 P4 151 -9.684
7 P4 152 -8.219
7 P4 153 -6.755
7 P4 154 -6.755
7 P4 155 -7.731
7 P4 156 -9.196
7 P4 157 -10.661
7 P4 158 -11.149
7 P4 159 -12.614
7 P4 160 -13.590
7 P4 161 -14.567
7 P4 162 -14.567
7 P4 163 -12.614
7 P4 164 -11.149
7 P4 165 -10.661
7 P4 166 -11.149
7 P4 167 -12.126
7 P4 168 -12.126
7 P4 169 -11.637
7 P4 170 -10.661
7 P4 171 -10.173
7 P4 172 -11.149
7 P4 173 -11.637
7 P4 174 -11.637
7 P4 175 -10.173
7 P4 176 -8.708
7 P4 177 -7.243
7 P4 178 -6.755
7 P4 179 -7.243
7 P4 180 -7.243
7 P4 181 -6.755
7 P4 182 -6.755
7 P4 183 -6.755
7 P4 184 -6.755
7 P4 185 -6.266
7 P4 186 -6.266
7 P4 187 -5.778
7 P4 188 -5.290
7 P4 189 -5.778
7 P4 190 -7.243
7 P4 191 -8.708
7 P4 192 -9.684
7 P4 193 -10.173
7 P4 194 -10.173
7 P4 195 -10.173
7 P4 196 -11.149
7 P4 197 -11.637
7 P4 198 -12.126
7 P4 199 -11.149
7 P4 200 -9.684
7 P4 201 -8.219
7 P4 202 -7.731
7 P4 203 -8.219
7 P4 204 -8.708
7 P4 205 -8.219
7 P4 206 -7.243
7 P4 207 -6.266
7 P4 208 -6.755
7 P4 209 -7.731
7 P4 210 -8.708
7 P4 211 -8.708
7 P4 212 -8.219
7 P4 213 -7.731
7 P4 214 -6.755
7 P4 215 -7.243
7 P4 216 -7.243
7 P4 217 -7.731
7 P4 218 -8.219
7 P4 219 -8.219
7 P4 220 -8.219
7 P4 221 -8.708
7 P4 222 -9.196
7 P4 223 -8.708
7 P4 224 -7.731
7 P4 225 -6.755
7 P4 226 -6.266
7 P4 227 -5.778
7 P4 228 -5.778
7 P4 229 -5.290
7 P4 230 -4.801
7 P4 231 -3.825
7 P4 232 -4.313
7 P4 233 -4.313
7 P4 234 -4.801
7 P4 235 -5.290
7 P4 236 -5.290
7 P4 237 -4.801
7 P4 238 -5.290
7 P4 239 -5.778
7 P4 240 -5.778
7 P4 241 -6.266
7 P4 242 -6.755
7 P4 243 -7.731
7 P4 244 -9.196
7 P4 245 -10.173
7 P4 246 -9.684
7 P4 247 -8.708
7 P4 248 -6.266
7 P4 249 -4.801
7 P4 250 -4.313
7 P4 251 -4.801
7 P4 252 -5.290
7 P4 253 -4.801
7 P4 254 -3.825
7 P4 255 -2.360
# PZ chan 24
7 PZ 0 4.893
7 PZ 1 3.428
7 PZ 2 1.963
7 PZ 3 0.987
7 PZ 4 1.475
7 PZ 5 2.452
7 PZ 6 3.916
7 PZ 7 5.870
7 PZ 8 6.846
7 PZ 9 7.334
7 PZ 10 7.823
7 PZ 11 7.334
7 PZ 12 6.358
7 PZ 13 5.381
7 PZ 14 3.916
7 PZ 15 2.940
7 PZ 16 1.963
7 PZ 17 0.498
7 PZ 18 -1.455
7 PZ 19 -2.431
7 PZ 20 -2.920
7 PZ 21 -2.431
7 PZ 22 -1.943
7 PZ 23 -0.478
7 PZ 24 0.987
7 PZ 25 2.452
7 PZ 26 1.963
7 PZ 27 1.963
7 PZ 28 1.963
7 PZ 29 1.963
7 PZ 30 2.452
7 PZ 31 2.940
7 PZ 32 2.452
7 PZ 33 1.963
7 PZ 34 1.475
7 PZ 35 1.475
7 PZ 36 1.475
7 PZ 37 1.475
7 PZ 38 -0.478
7 PZ 39 -2.431
7 PZ 40 -4.384
7 PZ 41 -4.873
7 PZ 42 -3.408
7 PZ 43 -1.943
7 PZ 44 -1.455
7 PZ 45 -1.455
7 PZ 46 -1.455
7 PZ 47 -0.478
7 PZ 48 1.963
7 PZ 49 3.916
7 PZ 50 4.893
7 PZ 51 4.405
7 PZ 52 2.452
7 PZ 53 0.987
7 PZ 54 0.987
7 PZ 55 1.475
7 PZ 56 2.452
7 PZ 57 2.452
7 PZ 58 1.475
7 PZ 59 0.987
7 PZ 60 0.987
7 PZ 61 1.475
7 PZ 62 1.475
7 PZ 63 0.987
7 PZ 64 0.010
7 PZ 65 -0.478
7 PZ 66 -0.478
7 PZ 67 0.498
7 PZ 68 1.475
7 PZ 69 2.452
7 PZ 70 2.940
7 PZ 71 2.940
7 PZ 72 2.940
7 PZ 73 1.475
7 PZ 74 0.987
7 PZ 75 -0.478
7 PZ 76 -0.966
7 PZ 77 -1.943
7 PZ 78 -2.431
7 PZ 79 -2.920
7 PZ 80 -2.920
7 PZ 81 -2.920
7 PZ 82 -2.431
7 PZ 83 -1.943
7 PZ 84 -1.943
7 PZ 85 -2.920
7 PZ 86 -4.384
7 PZ 87 -5.849
7 PZ 88 -6.337
7 PZ 89 -5.849
7 PZ 90 -5.361
7 PZ 91 -5.361
7 PZ 92 -6.337
7 PZ 93 -7.314
7 PZ 94 -8.291
7 PZ 95 -9.267
7 PZ 96 -8.779
7 PZ 97 -8.291
7 PZ 98 -7.802
7 PZ 99 -7.314
7 PZ 100 -6.337
7 PZ 101 -5.361
7 PZ 102 -4.873
7 PZ 103 -4.384
7 PZ 104 -4.384
7 PZ 105 -4.873
7 PZ 106 -4.873
7 PZ 107 -4.873
7 PZ 108 -4.384
7 PZ 109 -4.384
7 PZ 110 -4.384
7 PZ 111 -4.384
7 PZ 112 -4.384
7 PZ 113 -4.873
7 PZ 114 -5.361
7 PZ 115 -6.826
7 PZ 116 -7.802
7 PZ 117 -8.291
7 PZ 118 -7.314
7 PZ 119 -5.361
7 PZ 120 -2.920
7 PZ 121 -1.455
7 PZ 122 -0.478
7 PZ 123 0.498
7 PZ 124 0.987
7 PZ 125 0.987
7 PZ 126 0.498
7 PZ 127 -0.966
7 PZ 128 -1.455
7 PZ 129 -1.455
7 PZ 130 -0.966
7 PZ 131 -0.966
7 PZ 132 -1.943
7 PZ 133 -4.384
7 PZ 134 -7.314
7 PZ 135 -8.779
7 PZ 136 -8.779
7 PZ 137 -7.314
7 PZ 138 -6.337
7 PZ 139 -6.337
7 PZ 140 -6.826
7 PZ 141 -7.802
7 PZ 142 -7.802
7 PZ 143 -6.337
7 PZ 144 -5.361
7 PZ 145 -3.896
7 PZ 146 -3.896
7 PZ 147 -4.873
7 PZ 148 -6.337
7 PZ 149 -7.314
7 PZ 150 -7.314
7 PZ 151 -6.337
7 PZ 152 -4.873
7 PZ 153 -3.408
7 PZ 154 -2.920
7 PZ 155 -2.920
7 PZ 156 -3.896
7 PZ 157 -4.873
7 PZ 158 -5.849
7 PZ 159 -6.826
7 PZ 160 -6.826
7 PZ 161 -6.337
7 PZ 162 -5.361
7 PZ 163 -3.408
7 PZ 164 -1.943
7 PZ 165 -1.455
7 PZ 166 -1.455
7 PZ 167 -2.431
7 PZ 168 -3.408
7 PZ 169 -4.384
7 PZ 170 -3.896
7 PZ 171 -3.408
7 PZ 172 -3.896
7 PZ 173 -4.873
7 PZ 174 -5.849
7 PZ 175 -5.849
7 PZ 176 -4.873
7 PZ 177 -2.920
7 PZ 178 -1.943
7 PZ 179 -1.455
7 PZ 180 -1.943
7 PZ 181 -2.920
7 PZ 182 -2.920
7 PZ 183 -1.943
7 PZ 184 -0.966
7 PZ 185 -0.478
7 PZ 186 -0.478
7 PZ 187 -0.966
7 PZ 188 -1.455
7 PZ 189 -0.966
7 PZ 190 -0.966
7 PZ 191 -1.455
7 PZ 192 -1.943
7 PZ 193 -2.920
7 PZ 194 -2.920
7 PZ 195 -2.431
7 PZ 196 -1.943
7 PZ 197 -1.455
7 PZ 198 -1.455
7 PZ 199 -1.455
7 PZ 200 -1.455
7 PZ 201 -1.455
7 PZ 202 -1.455
7 PZ 203 -2.431
7 PZ 204 -3.408
7 PZ 205 -4.384
7 PZ 206 -4.384
7 PZ 207 -3.896
7 PZ 208 -2.920
7 PZ 209 -1.943
7 PZ 210 -1.455
7 PZ 211 -0.966
7 PZ 212 -0.966
7 PZ 213 -0.966
7 PZ 214 -0.478
7 PZ 215 -0.966
7 PZ 216 -0.966
7 PZ 217 -0.478
7 PZ 218 0.498
7 PZ 219 0.987
7 PZ 220 0.498
7 PZ 221 -0.478
7 PZ 222 -1.455
7 PZ 223 -1.455
7 PZ 224 -1.455
7 PZ 225 -0.966
7 PZ 226 -0.966
7 PZ 227 -1.455
7 PZ 228 -1.943
7 PZ 229 -1.455
7 PZ 230 0.010
7 PZ 231 1.963
7 PZ 232 3.428
7 PZ 233 3.428
7 PZ 234 2.452
7 PZ 235 1.475
7 PZ 236 0.987
7 PZ 237 1.475
7 PZ 238 2.452
7 PZ 239 3.428
7 PZ 240 3.428
7 PZ 241 2.940
7 PZ 242 2.452
7 PZ 243 1.475
7 PZ 244 0.010
7 PZ 245 -0.966
7 PZ 246 -1.455
7 PZ 247 -1.455
7 PZ 248 0.010
7 PZ 249 0.498
7 PZ 250 2.452
7 PZ 251 3.428
7 PZ 252 3.916
7 PZ 253 3.916
7 PZ 254 4.405
7 PZ 255 4.405
# P8 chan 25
7 P8 0 4.781
7 P8 1 4.781
7 P8 2 3.316
7 P8 3 1.851
7 P8 4 0.875
7 P8 5 2.340
7 P8 6 5.269
7 P8 7 9.664
7 P8 8 11.617
7 P8 9 10.152
7 P8 10 5.758
7 P8 11 0.875
7 P8 12 -2.055
7 P8 13 -3.520
7 P8 14 -4.008
7 P8 15 -4.496
7 P8 16 -4.985
7 P8 17 -4.985
7 P8 18 -3.031
7 P8 19 -1.078
7 P8 20 -0.590
7 P8 21 -3.031
7 P8 22 -6.449
7 P8 23 -7.914
7 P8 24 -6.938
7 P8 25 -3.031
7 P8 26 1.363
7 P8 27 3.316
7 P8 28 2.828
7 P8 29 -0.590
7 P8 30 -3.520
7 P8 31 -6.449
7 P8 32 -7.426
7 P8 33 -7.914
7 P8 34 -6.938
7 P8 35 -5.473
7 P8 36 -4.496
7 P8 37 -4.985
7 P8 38 -7.426
7 P8 39 -10.844
7 P8 40 -13.285
7 P8 41 -15.238
7 P8 42 -15.238
7 P8 43 -15.238
7 P8 44 -15.238
7 P8 45 -14.750
7 P8 46 -13.285
7 P8 47 -10.356
7 P8 48 -6.449
7 P8 49 -4.985
7 P8 50 -4.985
7 P8 51 -6.938
7 P8 52 -7.914
7 P8 53 -6.449
7 P8 54 -2.543
7 P8 55 2.340
7 P8 56 4.293
7 P8 57 2.340
7 P8 58 -1.567
7 P8 59 -5.473
7 P8 60 -6.938
7 P8 61 -5.961
7 P8 62 -4.496
7 P8 63 -4.985
7 P8 64 -6.449
7 P8 65 -8.891
7 P8 66 -9.867
7 P8 67 -8.891
7 P8 68 -7.914
7 P8 69 -8.403
7 P8 70 -9.867
7 P8 71 -11.820
7 P8 72 -11.820
7 P8 73 -9.379
7 P8 74 -5.473
7 P8 75 -3.520
7 P8 76 -3.520
7 P8 77 -4.985
7 P8 78 -6.938
7 P8 79 -7.426
7 P8 80 -7.426
7 P8 81 -6.938
7 P8 82 -8.403
7 P8 83 -10.844
7 P8 84 -13.774
7 P8 85 -16.215
7 P8 86 -17.680
7 P8 87 -19.145
7 P8 88 -21.098
7 P8 89 -22.563
7 P8 90 -24.028
7 P8 91 -25.004
7 P8 92 -25.004
7 P8 93 -24.028
7 P8 94 -22.074
7 P8 95 -19.145
7 P8 96 -16.215
7 P8 97 -14.262
7 P8 98 -14.750
7 P8 99 -16.703
7 P8 100 -20.121
7 P8 101 -22.074
7 P8 102 -23.051
7 P8 103 -21.098
7 P8 104 -18.656
7 P8 105 -17.680
7 P8 106 -17.680
7 P8 107 -18.168
7 P8 108 -17.192
7 P8 109 -14.750
7 P8 110 -10.844
7 P8 111 -7.426
7 P8 112 -5.961
7 P8 113 -6.938
7 P8 114 -10.356
7 P8 115 -13.774
7 P8 116 -15.727
7 P8 117 -16.703
7 P8 118 -16.703
7 P8 119 -16.703
7 P8 120 -16.703
7 P8 121 -16.703
7 P8 122 -15.238
7 P8 123 -11.820
7 P8 124 -9.379
7 P8 125 -8.403
7 P8 126 -8.891
7 P8 127 -10.356
7 P8 128 -10.356
7 P8 129 -8.403
7 P8 130 -4.496
7 P8 131 -1.567
7 P8 132 0.387
7 P8 133 -0.590
7 P8 134 -3.520
7 P8 135 -7.426
7 P8 136 -11.332
7 P8 137 -14.262
7 P8 138 -14.750
7 P8 139 -12.797
7 P8 140 -9.867
7 P8 141 -8.403
7 P8 142 -9.867
7 P8 143 -13.774
7 P8 144 -17.680
7 P8 145 -18.168
7 P8 146 -16.703
7 P8 147 -14.262
7 P8 148 -13.285
7 P8 149 -14.750
7 P8 150 -15.727
7 P8 151 -14.750
7 P8 152 -11.332
7 P8 153 -6.938
7 P8 154 -4.496
7 P8 155 -4.985
7 P8 156 -8.403
7 P8 157 -12.309
7 P8 158 -15.238
7 P8 159 -16.703
7 P8 160 -16.703
7 P8 161 -16.215
7 P8 162 -15.727
7 P8 163 -14.750
7 P8 164 -14.262
7 P8 165 -14.262
7 P8 166 -15.727
7 P8 167 -17.192
7 P8 168 -18.656
7 P8 169 -18.168
7 P8 170 -17.680
7 P8 171 -17.192
7 P8 172 -17.680
7 P8 173 -18.168
7 P8 174 -17.680
7 P8 175 -14.750
7 P8 176 -10.844
7 P8 177 -6.449
7 P8 178 -4.008
7 P8 179 -2.543
7 P8 180 -3.031
7 P8 181 -4.985
7 P8 182 -6.938
7 P8 183 -9.379
7 P8 184 -11.332
7 P8 185 -11.332
7 P8 186 -10.844
7 P8 187 -10.356
7 P8 188 -11.332
7 P8 189 -13.285
7 P8 190 -15.727
7 P8 191 -17.192
7 P8 192 -17.192
7 P8 193 -16.215
7 P8 194 -15.238
7 P8 195 -16.215
7 P8 196 -19.145
7 P8 197 -22.074
7 P8 198 -24.028
7 P8 199 -22.563
7 P8 200 -19.145
7 P8 201 -15.727
7 P8 202 -13.774
7 P8 203 -13.774
7 P8 204 -13.285
7 P8 205 -12.309
7 P8 206 -9.867
7 P8 207 -7.914
7 P8 208 -8.403
7 P8 209 -10.356
7 P8 210 -12.797
7 P8 211 -14.262
7 P8 212 -12.797
7 P8 213 -10.356
7 P8 214 -8.403
7 P8 215 -7.914
7 P8 216 -8.891
7 P8 217 -10.356
7 P8 218 -12.309
7 P8 219 -14.262
7 P8 220 -16.703
7 P8 221 -20.121
7 P8 222 -22.074
7 P8 223 -22.074
7 P8 224 -20.121
7 P8 225 -17.192
7 P8 226 -14.262
7 P8 227 -12.309
7 P8 228 -10.356
7 P8 229 -8.403
7 P8 230 -5.961
7 P8 231 -4.985
7 P8 232 -5.473
7 P8 233 -6.938
7 P8 234 -9.379
7 P8 235 -10.356
7 P8 236 -9.867
7 P8 237 -9.379
7 P8 238 -9.379
7 P8 239 -9.867
7 P8 240 -10.356
7 P8 241 -10.356
7 P8 242 -10.356
7 P8 243 -11.820
7 P8 244 -14.750
7 P8 245 -17.192
7 P8 246 -17.192
7 P8 247 -14.262
7 P8 248 -9.867
7 P8 249 -5.961
7 P8 250 -4.985
7 P8 251 -5.961
7 P8 252 -7.914
7 P8 253 -7.426
7 P8 254 -5.473
7 P8 255 -3.031
# P7 chan 26
7 P7 0 10.356
7 P7 1 9.379
7 P7 2 5.473
7 P7 3 1.567
7 P7 4 -0.387
7 P7 5 1.078
7 P7 6 4.496
7 P7 7 7.914
7 P7 8 9.867
7 P7 9 9.379
7 P7 10 7.914
7 P7 11 6.449
7 P7 12 5.473
7 P7 13 4.496
7 P7 14 3.520
7 P7 15 2.543
7 P7 16 1.078
7 P7 17 -0.875
7 P7 18 -3.805
7 P7 19 -6.734
7 P7 20 -7.222
7 P7 21 -3.805
7 P7 22 2.055
7 P7 23 7.914
7 P7 24 10.844
7 P7 25 8.403
7 P7 26 3.031
7 P7 27 -2.340
7 P7 28 -4.293
7 P7 29 -2.828
7 P7 30 -0.875
7 P7 31 -0.387
7 P7 32 -1.363
7 P7 33 -0.875
7 P7 34 1.567
7 P7 35 5.961
7 P7 36 7.426
7 P7 37 4.008
7 P7 38 -3.805
7 P7 39 -10.640
7 P7 40 -11.617
7 P7 41 -6.246
7 P7 42 1.567
7 P7 43 4.985
7 P7 44 2.055
7 P7 45 -4.293
7 P7 46 -9.176
7 P7 47 -7.711
7 P7 48 -2.828
7 P7 49 2.055
7 P7 50 3.520
7 P7 51 1.567
7 P7 52 -0.875
7 P7 53 -1.851
7 P7 54 -0.875
7 P7 55 0.102
7 P7 56 -0.387
7 P7 57 -2.828
7 P7 58 -4.293
7 P7 59 -2.828
7 P7 60 1.078
7 P7 61 5.961
7 P7 62 7.914
7 P7 63 7.426
7 P7 64 4.496
7 P7 65 1.078
7 P7 66 -1.851
7 P7 67 -3.805
7 P7 68 -4.781
7 P7 69 -5.269
7 P7 70 -4.781
7 P7 71 -3.805
7 P7 72 -1.851
7 P7 73 -0.875
7 P7 74 -1.363
7 P7 75 -2.340
7 P7 76 -2.828
7 P7 77 -2.828
7 P7 78 -2.340
7 P7 79 -1.363
7 P7 80 -0.875
7 P7 81 0.102
7 P7 82 1.567
7 P7 83 3.031
7 P7 84 3.520
7 P7 85 2.055
7 P7 86 -1.363
7 P7 87 -4.293
7 P7 88 -5.758
7 P7 89 -5.269
7 P7 90 -3.805
7 P7 91 -2.828
7 P7 92 -3.316
7 P7 93 -4.293
7 P7 94 -4.293
7 P7 95 -3.805
7 P7 96 -4.293
7 P7 97 -7.222
7 P7 98 -12.105
7 P7 99 -15.523
7 P7 100 -15.523
7 P7 101 -12.105
7 P7 102 -8.199
7 P7 103 -6.246
7 P7 104 -7.222
7 P7 105 -9.176
7 P7 106 -9.664
7 P7 107 -8.199
7 P7 108 -5.758
7 P7 109 -4.781
7 P7 110 -6.246
7 P7 111 -9.176
7 P7 112 -11.617
7 P7 113 -12.594
7 P7 114 -12.105
7 P7 115 -10.640
7 P7 116 -8.199
7 P7 117 -5.269
7 P7 118 -2.340
7 P7 119 -0.875
7 P7 120 -1.851
7 P7 121 -4.293
7 P7 122 -6.246
7 P7 123 -4.781
7 P7 124 -0.875
7 P7 125 3.520
7 P7 126 5.473
7 P7 127 4.008
7 P7 128 1.567
7 P7 129 0.590
7 P7 130 2.543
7 P7 131 4.496
7 P7 132 4.008
7 P7 133 0.590
7 P7 134 -3.805
7 P7 135 -4.781
7 P7 136 -1.851
7 P7 137 2.055
7 P7 138 2.543
7 P7 139 -2.828
7 P7 140 -10.640
7 P7 141 -16.012
7 P7 142 -16.012
7 P7 143 -11.617
7 P7 144 -6.246
7 P7 145 -4.781
7 P7 146 -7.711
7 P7 147 -12.594
7 P7 148 -15.035
7 P7 149 -14.547
7 P7 150 -13.082
7 P7 151 -11.617
7 P7 152 -10.640
7 P7 153 -10.152
7 P7 154 -7.711
7 P7 155 -4.781
7 P7 156 -2.340
7 P7 157 -1.363
7 P7 158 -3.805
7 P7 159 -8.199
7 P7 160 -12.594
7 P7 161 -15.523
7 P7 162 -15.523
7 P7 163 -13.082
7 P7 164 -8.687
7 P7 165 -4.781
7 P7 166 -3.316
7 P7 167 -4.293
7 P7 168 -7.711
7 P7 169 -12.105
7 P7 170 -14.547
7 P7 171 -15.523
7 P7 172 -14.547
7 P7 173 -13.082
7 P7 174 -11.129
7 P7 175 -8.199
7 P7 176 -5.758
7 P7 177 -3.316
7 P7 178 -3.316
7 P7 179 -5.758
7 P7 180 -8.687
7 P7 181 -9.664
7 P7 182 -6.734
7 P7 183 -1.851
7 P7 184 3.031
7 P7 185 3.031
7 P7 186 -0.875
7 P7 187 -6.734
7 P7 188 -10.152
7 P7 189 -10.152
7 P7 190 -9.176
7 P7 191 -9.664
7 P7 192 -11.617
7 P7 193 -13.570
7 P7 194 -12.594
7 P7 195 -8.199
7 P7 196 -2.828
7 P7 197 0.590
7 P7 198 -0.387
7 P7 199 -3.805
7 P7 200 -8.687
7 P7 201 -11.617
7 P7 202 -13.082
7 P7 203 -12.594
7 P7 204 -12.105
7 P7 205 -10.640
7 P7 206 -8.199
7 P7 207 -5.269
7 P7 208 -1.851
7 P7 209 0.102
7 P7 210 0.102
7 P7 211 -1.851
7 P7 212 -5.269
7 P7 213 -8.687
7 P7 214 -10.152
7 P7 215 -9.664
7 P7 216 -7.222
7 P7 217 -3.805
7 P7 218 -2.340
7 P7 219 -3.805
7 P7 220 -7.711
7 P7 221 -11.617
7 P7 222 -14.058
7 P7 223 -14.058
7 P7 224 -12.105
7 P7 225 -10.640
7 P7 226 -10.640
7 P7 227 -11.129
7 P7 228 -11.129
7 P7 229 -9.664
7 P7 230 -6.734
7 P7 231 -4.781
7 P7 232 -4.781
7 P7 233 -6.246
7 P7 234 -8.199
7 P7 235 -9.664
7 P7 236 -9.176
7 P7 237 -8.199
7 P7 238 -5.758
7 P7 239 -3.316
7 P7 240 -1.363
7 P7 241 -0.875
7 P7 242 -3.805
7 P7 243 -8.687
7 P7 244 -14.058
7 P7 245 -16.500
7 P7 246 -14.547
7 P7 247 -11.129
7 P7 248 -8.199
7 P7 249 -7.711
7 P7 250 -8.687
7 P7 251 -8.199
7 P7 252 -4.781
7 P7 253 0.102
7 P7 254 2.543
7 P7 255 -0.387
# PO2 chan 27
7 PO2 0 3.225
7 PO2 1 1.760
7 PO2 2 -0.193
7 PO2 3 -1.658
7 PO2 4 -0.682
7 PO2 5 1.272
7 PO2 6 4.690
7 PO2 7 7.131
7 PO2 8 8.108
7 PO2 9 6.643
7 PO2 10 4.201
7 PO2 11 2.248
7 PO2 12 0.295
7 PO2 13 -0.682
7 PO2 14 -1.170
7 PO2 15 -2.635
7 PO2 16 -4.588
7 PO2 17 -6.541
7 PO2 18 -7.517
7 PO2 19 -8.006
7 PO2 20 -8.494
7 PO2 21 -8.006
7 PO2 22 -8.006
7 PO2 23 -7.029
7 PO2 24 -5.564
7 PO2 25 -3.611
7 PO2 26 -2.146
7 PO2 27 -1.658
7 PO2 28 -1.658
7 PO2 29 -3.123
7 PO2 30 -4.100
7 PO2 31 -5.076
7 PO2 32 -6.541
7 PO2 33 -6.541
7 PO2 34 -6.541
7 PO2 35 -5.564
7 PO2 36 -4.588
7 PO2 37 -5.076
7 PO2 38 -6.541
7 PO2 39 -9.471
7 PO2 40 -11.424
7 PO2 41 -11.912
7 PO2 42 -10.935
7 PO2 43 -9.959
7 PO2 44 -9.471
7 PO2 45 -9.959
7 PO2 46 -9.959
7 PO2 47 -8.494
7 PO2 48 -5.564
7 PO2 49 -3.123
7 PO2 50 -2.635
7 PO2 51 -3.611
7 PO2 52 -6.053
7 PO2 53 -7.029
7 PO2 54 -6.541
7 PO2 55 -4.588
7 PO2 56 -3.611
7 PO2 57 -3.123
7 PO2 58 -4.588
7 PO2 59 -6.053
7 PO2 60 -6.541
7 PO2 61 -6.541
7 PO2 62 -6.053
7 PO2 63 -6.541
7 PO2 64 -7.517
7 PO2 65 -8.494
7 PO2 66 -8.982
7 PO2 67 -8.006
7 PO2 68 -7.517
7 PO2 69 -7.517
7 PO2 70 -7.517
7 PO2 71 -8.006
7 PO2 72 -7.517
7 PO2 73 -6.541
7 PO2 74 -5.076
7 PO2 75 -4.588
7 PO2 76 -5.076
7 PO2 77 -6.053
7 PO2 78 -7.029
7 PO2 79 -7.517
7 PO2 80 -7.517
7 PO2 81 -7.029
7 PO2 82 -6.541
7 PO2 83 -7.029
7 PO2 84 -7.517
7 PO2 85 -9.471
7 PO2 86 -11.912
7 PO2 87 -13.865
7 PO2 88 -15.330
7 PO2 89 -15.818
7 PO2 90 -15.818
7 PO2 91 -15.818
7 PO2 92 -16.307
7 PO2 93 -17.283
7 PO2 94 -18.748
7 PO2 95 -20.213
7 PO2 96 -20.213
7 PO2 97 -20.213
7 PO2 98 -19.236
7 PO2 99 -18.748
7 PO2 100 -18.260
7 PO2 101 -17.283
7 PO2 102 -16.795
7 PO2 103 -16.307
7 PO2 104 -16.307
7 PO2 105 -16.307
7 PO2 106 -15.818
7 PO2 107 -15.818
7 PO2 108 -15.330
7 PO2 109 -14.353
7 PO2 110 -13.377
7 PO2 111 -12.889
7 PO2 112 -12.400
7 PO2 113 -12.400
7 PO2 114 -13.377
7 PO2 115 -15.330
7 PO2 116 -17.283
7 PO2 117 -18.260
7 PO2 118 -17.771
7 PO2 119 -16.307
7 PO2 120 -13.865
7 PO2 121 -11.424
7 PO2 122 -8.982
7 PO2 123 -8.494
7 PO2 124 -8.006
7 PO2 125 -8.006
7 PO2 126 -7.517
7 PO2 127 -7.029
7 PO2 128 -6.053
7 PO2 129 -4.588
7 PO2 130 -3.611
7 PO2 131 -3.611
7 PO2 132 -5.076
7 PO2 133 -8.006
7 PO2 134 -11.424
7 PO2 135 -13.865
7 PO2 136 -14.842
7 PO2 137 -14.353
7 PO2 138 -13.377
7 PO2 139 -12.889
7 PO2 140 -13.377
7 PO2 141 -14.353
7 PO2 142 -14.353
7 PO2 143 -13.865
7 PO2 144 -12.400
7 PO2 145 -11.424
7 PO2 146 -10.447
7 PO2 147 -10.447
7 PO2 148 -10.935
7 PO2 149 -12.400
7 PO2 150 -13.377
7 PO2 151 -12.889
7 PO2 152 -11.424
7 PO2 153 -9.471
7 PO2 154 -8.006
7 PO2 155 -8.006
7 PO2 156 -9.471
7 PO2 157 -11.912
7 PO2 158 -14.353
7 PO2 159 -15.818
7 PO2 160 -16.307
7 PO2 161 -15.818
7 PO2 162 -14.353
7 PO2 163 -11.912
7 PO2 164 -10.447
7 PO2 165 -9.959
7 PO2 166 -10.935
7 PO2 167 -12.400
7 PO2 168 -13.377
7 PO2 169 -13.865
7 PO2 170 -12.889
7 PO2 171 -12.400
7 PO2 172 -11.912
7 PO2 173 -12.400
7 PO2 174 -12.400
7 PO2 175 -11.912
7 PO2 176 -10.935
7 PO2 177 -8.982
7 PO2 178 -7.517
7 PO2 179 -7.517
7 PO2 180 -8.006
7 PO2 181 -8.982
7 PO2 182 -9.471
7 PO2 183 -8.494
7 PO2 184 -7.517
7 PO2 185 -6.541
7 PO2 186 -7.029
7 PO2 187 -8.006
7 PO2 188 -9.471
7 PO2 189 -10.447
7 PO2 190 -10.447
7 PO2 191 -10.447
7 PO2 192 -9.959
7 PO2 193 -10.447
7 PO2 194 -11.424
7 PO2 195 -11.912
7 PO2 196 -12.400
7 PO2 197 -12.400
7 PO2 198 -12.400
7 PO2 199 -11.912
7 PO2 200 -11.424
7 PO2 201 -11.424
7 PO2 202 -11.424
7 PO2 203 -11.912
7 PO2 204 -12.400
7 PO2 205 -12.400
7 PO2 206 -12.400
7 PO2 207 -11.424
7 PO2 208 -10.935
7 PO2 209 -10.447
7 PO2 210 -10.935
7 PO2 211 -11.424
7 PO2 212 -10.935
7 PO2 213 -10.447
7 PO2 214 -9.959
7 PO2 215 -9.959
7 PO2 216 -10.447
7 PO2 217 -10.447
7 PO2 218 -9.959
7 PO2 219 -9.471
7 PO2 220 -9.959
7 PO2 221 -11.424
7 PO2 222 -12.889
7 PO2 223 -13.865
7 PO2 224 -13.865
7 PO2 225 -12.889
7 PO2 226 -12.400
7 PO2 227 -12.400
7 PO2 228 -12.400
7 PO2 229 -11.912
7 PO2 230 -10.447
7 PO2 231 -8.494
7 PO2 232 -7.029
7 PO2 233 -7.517
7 PO2 234 -8.982
7 PO2 235 -10.447
7 PO2 236 -10.447
7 PO2 237 -9.959
7 PO2 238 -8.494
7 PO2 239 -8.006
7 PO2 240 -8.006
7 PO2 241 -8.494
7 PO2 242 -9.471
7 PO2 243 -10.447
7 PO2 244 -12.400
7 PO2 245 -14.353
7 PO2 246 -14.842
7 PO2 247 -14.353
7 PO2 248 -11.912
7 PO2 249 -9.471
7 PO2 250 -8.006
7 PO2 251 -7.517
7 PO2 252 -7.517
7 PO2 253 -7.029
7 PO2 254 -5.564
7 PO2 255 -3.611
# PO1 chan 28
7 PO1 0 3.001
7 PO1 1 1.048
7 PO1 2 -1.882
7 PO1 3 -2.858
7 PO1 4 -2.370
7 PO1 5 1.048
7 PO1 6 3.977
7 PO1 7 4.954
7 PO1 8 4.466
7 PO1 9 2.024
7 PO1 10 0.071
7 PO1 11 -1.394
7 PO1 12 -1.394
7 PO1 13 -0.905
7 PO1 14 -1.394
7 PO1 15 -3.347
7 PO1 16 -5.788
7 PO1 17 -8.718
7 PO1 18 -11.648
7 PO1 19 -12.624
7 PO1 20 -13.601
7 PO1 21 -12.136
7 PO1 22 -10.671
7 PO1 23 -8.718
7 PO1 24 -7.253
7 PO1 25 -6.765
7 PO1 26 -7.741
7 PO1 27 -8.230
7 PO1 28 -8.718
7 PO1 29 -8.718
7 PO1 30 -9.206
7 PO1 31 -10.183
7 PO1 32 -11.159
7 PO1 33 -11.648
7 PO1 34 -10.671
7 PO1 35 -8.718
7 PO1 36 -7.253
7 PO1 37 -7.741
7 PO1 38 -10.671
7 PO1 39 -14.089
7 PO1 40 -15.554
7 PO1 41 -14.089
7 PO1 42 -12.136
7 PO1 43 -10.671
7 PO1 44 -10.671
7 PO1 45 -11.648
7 PO1 46 -11.648
7 PO1 47 -8.718
7 PO1 48 -4.812
7 PO1 49 -1.882
7 PO1 50 -1.394
7 PO1 51 -3.835
7 PO1 52 -6.765
7 PO1 53 -8.230
7 PO1 54 -7.253
7 PO1 55 -4.812
7 PO1 56 -3.835
7 PO1 57 -3.347
7 PO1 58 -3.835
7 PO1 59 -3.835
7 PO1 60 -2.370
7 PO1 61 -1.394
7 PO1 62 -0.905
7 PO1 63 -2.370
7 PO1 64 -4.323
7 PO1 65 -6.276
7 PO1 66 -6.765
7 PO1 67 -5.788
7 PO1 68 -4.812
7 PO1 69 -3.835
7 PO1 70 -3.347
7 PO1 71 -3.835
7 PO1 72 -4.812
7 PO1 73 -5.300
7 PO1 74 -6.276
7 PO1 75 -6.276
7 PO1 76 -6.276
7 PO1 77 -5.788
7 PO1 78 -4.812
7 PO1 79 -3.347
7 PO1 80 -2.370
7 PO1 81 -1.394
7 PO1 82 -0.905
7 PO1 83 -0.905
7 PO1 84 -1.882
7 PO1 85 -4.323
7 PO1 86 -7.741
7 PO1 87 -10.671
7 PO1 88 -12.624
7 PO1 89 -13.112
7 PO1 90 -12.624
7 PO1 91 -12.136
7 PO1 92 -13.112
7 PO1 93 -15.066
7 PO1 94 -17.507
7 PO1 95 -19.460
7 PO1 96 -20.437
7 PO1 97 -20.437
7 PO1 98 -19.948
7 PO1 99 -19.460
7 PO1 100 -18.972
7 PO1 101 -18.972
7 PO1 102 -18.972
7 PO1 103 -19.460
7 PO1 104 -19.948
7 PO1 105 -20.437
7 PO1 106 -20.437
7 PO1 107 -19.460
7 PO1 108 -18.972
7 PO1 109 -18.483
7 PO1 110 -18.972
7 PO1 111 -19.460
7 PO1 112 -19.948
7 PO1 113 -20.437
7 PO1 114 -20.925
7 PO1 115 -22.390
7 PO1 116 -22.878
7 PO1 117 -22.878
7 PO1 118 -20.925
7 PO1 119 -18.483
7 PO1 120 -15.554
7 PO1 121 -14.089
7 PO1 122 -14.089
7 PO1 123 -14.089
7 PO1 124 -13.601
7 PO1 125 -12.624
7 PO1 126 -12.136
7 PO1 127 -12.136
7 PO1 128 -11.648
7 PO1 129 -11.159
7 PO1 130 -10.183
7 PO1 131 -9.206
7 PO1 132 -9.694
7 PO1 133 -13.601
7 PO1 134 -17.507
7 PO1 135 -20.437
7 PO1 136 -21.413
7 PO1 137 -20.925
7 PO1 138 -20.437
7 PO1 139 -21.413
7 PO1 140 -22.878
7 PO1 141 -24.831
7 PO1 142 -24.831
7 PO1 143 -23.366
7 PO1 144 -21.901
7 PO1 145 -21.413
7 PO1 146 -22.390
7 PO1 147 -23.855
7 PO1 148 -25.319
7 PO1 149 -26.296
7 PO1 150 -25.808
7 PO1 151 -25.319
7 PO1 152 -24.343
7 PO1 153 -22.390
7 PO1 154 -20.925
7 PO1 155 -19.948
7 PO1 156 -20.437
7 PO1 157 -22.390
7 PO1 158 -25.319
7 PO1 159 -27.273
7 PO1 160 -27.761
7 PO1 161 -26.296
7 PO1 162 -23.855
7 PO1 163 -21.901
7 PO1 164 -20.437
7 PO1 165 -19.948
7 PO1 166 -20.437
7 PO1 167 -21.901
7 PO1 168 -22.878
7 PO1 169 -23.855
7 PO1 170 -23.855
7 PO1 171 -23.855
7 PO1 172 -23.855
7 PO1 173 -23.855
7 PO1 174 -23.855
7 PO1 175 -22.878
7 PO1 176 -20.437
7 PO1 177 -17.019
7 PO1 178 -15.554
7 PO1 179 -16.042
7 PO1 180 -18.483
7 PO1 181 -20.437
7 PO1 182 -20.437
7 PO1 183 -18.972
7 PO1 184 -16.530
7 PO1 185 -15.554
7 PO1 186 -17.507
7 PO1 187 -19.948
7 PO1 188 -22.390
7 PO1 189 -23.855
7 PO1 190 -23.366
7 PO1 191 -22.878
7 PO1 192 -22.878
7 PO1 193 -23.366
7 PO1 194 -23.855
7 PO1 195 -24.343
7 PO1 196 -23.855
7 PO1 197 -23.366
7 PO1 198 -23.366
7 PO1 199 -23.855
7 PO1 200 -24.343
7 PO1 201 -24.343
7 PO1 202 -24.831
7 PO1 203 -25.319
7 PO1 204 -26.296
7 PO1 205 -26.296
7 PO1 206 -25.319
7 PO1 207 -23.855
7 PO1 208 -22.878
7 PO1 209 -21.901
7 PO1 210 -21.901
7 PO1 211 -22.390
7 PO1 212 -23.366
7 PO1 213 -23.855
7 PO1 214 -24.831
7 PO1 215 -25.808
7 PO1 216 -26.296
7 PO1 217 -25.319
7 PO1 218 -24.343
7 PO1 219 -23.366
7 PO1 220 -23.855
7 PO1 221 -25.808
7 PO1 222 -28.249
7 PO1 223 -29.226
7 PO1 224 -29.226
7 PO1 225 -28.249
7 PO1 226 -27.761
7 PO1 227 -29.226
7 PO1 228 -30.691
7 PO1 229 -30.691
7 PO1 230 -28.737
7 PO1 231 -25.808
7 PO1 232 -24.343
7 PO1 233 -24.831
7 PO1 234 -27.761
7 PO1 235 -30.691
7 PO1 236 -32.155
7 PO1 237 -30.691
7 PO1 238 -28.249
7 PO1 239 -25.808
7 PO1 240 -24.831
7 PO1 241 -25.319
7 PO1 242 -27.273
7 PO1 243 -29.226
7 PO1 244 -31.179
7 PO1 245 -32.644
7 PO1 246 -33.132
7 PO1 247 -32.644
7 PO1 248 -30.691
7 PO1 249 -28.737
7 PO1 250 -26.784
7 PO1 251 -24.343
7 PO1 252 -22.390
7 PO1 253 -20.925
7 PO1 254 -20.437
7 PO1 255 -20.925
# O2 chan 29
7 O2 0 6.358
7 O2 1 5.381
7 O2 2 3.916
7 O2 3 3.916
7 O2 4 5.381
7 O2 5 8.311
7 O2 6 11.241
7 O2 7 13.194
7 O2 8 13.682
7 O2 9 12.217
7 O2 10 9.288
7 O2 11 7.334
7 O2 12 5.381
7 O2 13 4.893
7 O2 14 4.405
7 O2 15 3.428
7 O2 16 1.963
7 O2 17 0.987
7 O2 18 -0.478
7 O2 19 -1.455
7 O2 20 -2.431
7 O2 21 -2.920
7 O2 22 -3.408
7 O2 23 -2.920
7 O2 24 -2.920
7 O2 25 -1.943
7 O2 26 -0.966
7 O2 27 -0.478
7 O2 28 0.010
7 O2 29 -0.478
7 O2 30 -1.455
7 O2 31 -3.896
7 O2 32 -5.849
7 O2 33 -7.314
7 O2 34 -6.826
7 O2 35 -4.384
7 O2 36 -2.431
7 O2 37 -1.455
7 O2 38 -2.920
7 O2 39 -5.849
7 O2 40 -8.291
7 O2 41 -9.755
7 O2 42 -9.267
7 O2 43 -9.267
7 O2 44 -9.755
7 O2 45 -10.244
7 O2 46 -10.244
7 O2 47 -7.802
7 O2 48 -5.361
7 O2 49 -3.408
7 O2 50 -3.896
7 O2 51 -5.849
7 O2 52 -7.802
7 O2 53 -8.291
7 O2 54 -7.802
7 O2 55 -5.849
7 O2 56 -5.361
7 O2 57 -5.361
7 O2 58 -5.849
7 O2 59 -6.337
7 O2 60 -5.849
7 O2 61 -5.361
7 O2 62 -5.849
7 O2 63 -8.291
7 O2 64 -10.732
7 O2 65 -13.173
7 O2 66 -14.150
7 O2 67 -13.173
7 O2 68 -12.197
7 O2 69 -11.220
7 O2 70 -11.220
7 O2 71 -11.709
7 O2 72 -12.197
