# co2c0000374.rd
# 120 trials, 64 chans, 416 samples 368 post_stim samples
# 3.906000 msecs uV
# S2 nomatch, trial 5
# FP1 chan 0
5 FP1 0 3.560
5 FP1 1 4.049
5 FP1 2 6.490
5 FP1 3 9.908
5 FP1 4 12.838
5 FP1 5 13.326
5 FP1 6 11.373
5 FP1 7 7.955
5 FP1 8 4.049
5 FP1 9 0.631
5 FP1 10 -2.299
5 FP1 11 -4.252
5 FP1 12 -5.229
5 FP1 13 -4.740
5 FP1 14 -3.276
5 FP1 15 -1.322
5 FP1 16 0.631
5 FP1 17 2.096
5 FP1 18 2.584
5 FP1 19 3.072
5 FP1 20 5.025
5 FP1 21 7.955
5 FP1 22 11.373
5 FP1 23 12.838
5 FP1 24 11.373
5 FP1 25 8.443
5 FP1 26 5.025
5 FP1 27 2.584
5 FP1 28 1.607
5 FP1 29 0.142
5 FP1 30 -1.322
5 FP1 31 -3.764
5 FP1 32 -5.717
5 FP1 33 -5.717
5 FP1 34 -4.252
5 FP1 35 -3.276
5 FP1 36 -4.252
5 FP1 37 -7.182
5 FP1 38 -10.600
5 FP1 39 -11.088
5 FP1 40 -8.158
5 FP1 41 -1.811
5 FP1 42 5.514
5 FP1 43 11.373
5 FP1 44 15.279
5 FP1 45 16.744
5 FP1 46 16.256
5 FP1 47 14.791
5 FP1 48 12.349
5 FP1 49 9.908
5 FP1 50 7.955
5 FP1 51 6.978
5 FP1 52 6.978
5 FP1 53 7.467
5 FP1 54 6.978
5 FP1 55 6.002
5 FP1 56 3.560
5 FP1 57 0.631
5 FP1 58 -1.322
5 FP1 59 -2.787
5 FP1 60 -2.299
5 FP1 61 -0.834
5 FP1 62 2.096
5 FP1 63 5.514
5 FP1 64 10.396
5 FP1 65 13.814
5 FP1 66 15.767
5 FP1 67 15.279
5 FP1 68 11.861
5 FP1 69 8.443
5 FP1 70 6.490
5 FP1 71 6.002
5 FP1 72 6.002
5 FP1 73 5.514
5 FP1 74 3.072
5 FP1 75 -0.346
5 FP1 76 -2.787
5 FP1 77 -3.276
5 FP1 78 -2.787
5 FP1 79 -2.299
5 FP1 80 -2.787
5 FP1 81 -3.764
5 FP1 82 -3.764
5 FP1 83 -3.276
5 FP1 84 -1.811
5 FP1 85 -1.322
5 FP1 86 -2.299
5 FP1 87 -3.764
5 FP1 88 -5.717
5 FP1 89 -6.205
5 FP1 90 -6.694
5 FP1 91 -7.670
5 FP1 92 -9.135
5 FP1 93 -11.576
5 FP1 94 -14.018
5 FP1 95 -14.506
5 FP1 96 -14.506
5 FP1 97 -13.529
5 FP1 98 -12.553
5 FP1 99 -12.065
5 FP1 100 -12.065
5 FP1 101 -11.576
5 FP1 102 -10.111
5 FP1 103 -9.135
5 FP1 104 -8.647
5 FP1 105 -8.158
5 FP1 106 -7.670
5 FP1 107 -6.694
5 FP1 108 -5.717
5 FP1 109 -5.229
5 FP1 110 -4.252
5 FP1 111 -3.764
5 FP1 112 -2.299
5 FP1 113 -1.322
5 FP1 114 -0.346
5 FP1 115 0.142
5 FP1 116 -0.346
5 FP1 117 0.142
5 FP1 118 1.607
5 FP1 119 4.537
5 FP1 120 6.978
5 FP1 121 7.467
5 FP1 122 6.002
5 FP1 123 2.584
5 FP1 124 0.142
5 FP1 125 -0.346
5 FP1 126 1.607
5 FP1 127 4.537
5 FP1 128 6.978
5 FP1 129 8.443
5 FP1 130 8.443
5 FP1 131 8.931
5 FP1 132 8.931
5 FP1 133 8.931
5 FP1 134 7.955
5 FP1 135 6.490
5 FP1 136 5.025
5 FP1 137 3.560
5 FP1 138 3.072
5 FP1 139 2.584
5 FP1 140 2.584
5 FP1 141 2.096
5 FP1 142 2.096
5 FP1 143 2.584
5 FP1 144 3.560
5 FP1 145 3.560
5 FP1 146 3.072
5 FP1 147 2.584
5 FP1 148 4.049
5 FP1 149 5.514
5 FP1 150 7.467
5 FP1 151 7.955
5 FP1 152 6.490
5 FP1 153 5.025
5 FP1 154 4.537
5 FP1 155 5.514
5 FP1 156 6.978
5 FP1 157 7.955
5 FP1 158 6.978
5 FP1 159 5.025
5 FP1 160 3.560
5 FP1 161 3.072
5 FP1 162 4.049
5 FP1 163 5.025
5 FP1 164 5.025
5 FP1 165 4.537
5 FP1 166 3.560
5 FP1 167 3.560
5 FP1 168 4.049
5 FP1 169 5.514
5 FP1 170 7.467
5 FP1 171 8.443
5 FP1 172 8.443
5 FP1 173 7.467
5 FP1 174 5.514
5 FP1 175 2.584
5 FP1 176 0.631
5 FP1 177 -0.346
5 FP1 178 0.631
5 FP1 179 2.096
5 FP1 180 3.072
5 FP1 181 2.584
5 FP1 182 0.142
5 FP1 183 -2.299
5 FP1 184 -3.764
5 FP1 185 -3.276
5 FP1 186 -1.322
5 FP1 187 0.142
5 FP1 188 -0.834
5 FP1 189 -2.787
5 FP1 190 -5.717
5 FP1 191 -6.694
5 FP1 192 -4.740
5 FP1 193 -0.834
5 FP1 194 3.560
5 FP1 195 6.002
5 FP1 196 5.514
5 FP1 197 2.584
5 FP1 198 -0.346
5 FP1 199 -1.811
5 FP1 200 -1.811
5 FP1 201 -0.346
5 FP1 202 0.631
5 FP1 203 0.631
5 FP1 204 -0.346
5 FP1 205 -1.811
5 FP1 206 -2.787
5 FP1 207 -3.276
5 FP1 208 -3.276
5 FP1 209 -1.811
5 FP1 210 -0.346
5 FP1 211 0.631
5 FP1 212 1.119
5 FP1 213 2.096
5 FP1 214 3.560
5 FP1 215 6.978
5 FP1 216 11.373
5 FP1 217 15.767
5 FP1 218 18.209
5 FP1 219 18.209
5 FP1 220 16.744
5 FP1 221 16.256
5 FP1 222 17.232
5 FP1 223 19.185
5 FP1 224 22.115
5 FP1 225 23.092
5 FP1 226 23.092
5 FP1 227 22.115
5 FP1 228 21.139
5 FP1 229 21.627
5 FP1 230 22.603
5 FP1 231 23.580
5 FP1 232 24.068
5 FP1 233 24.068
5 FP1 234 23.092
5 FP1 235 22.603
5 FP1 236 21.139
5 FP1 237 19.674
5 FP1 238 18.209
5 FP1 239 16.744
5 FP1 240 15.767
5 FP1 241 15.279
5 FP1 242 15.279
5 FP1 243 14.303
5 FP1 244 12.838
5 FP1 245 10.396
5 FP1 246 7.467
5 FP1 247 5.514
5 FP1 248 4.537
5 FP1 249 4.537
5 FP1 250 4.049
5 FP1 251 3.560
5 FP1 252 2.096
5 FP1 253 1.119
5 FP1 254 1.607
5 FP1 255 2.584
# FP2 chan 1
5 FP2 0 9.399
5 FP2 1 7.935
5 FP2 2 7.446
5 FP2 3 8.423
5 FP2 4 9.888
5 FP2 5 9.888
5 FP2 6 8.423
5 FP2 7 5.493
5 FP2 8 3.052
5 FP2 9 1.587
5 FP2 10 0.610
5 FP2 11 -1.343
5 FP2 12 -2.808
5 FP2 13 -3.784
5 FP2 14 -3.296
5 FP2 15 -1.343
5 FP2 16 1.587
5 FP2 17 3.540
5 FP2 18 5.005
5 FP2 19 6.470
5 FP2 20 7.935
5 FP2 21 9.399
5 FP2 22 10.864
5 FP2 23 11.841
5 FP2 24 11.841
5 FP2 25 11.841
5 FP2 26 10.864
5 FP2 27 8.423
5 FP2 28 3.540
5 FP2 29 -1.343
5 FP2 30 -4.761
5 FP2 31 -5.249
5 FP2 32 -3.296
5 FP2 33 -0.366
5 FP2 34 1.587
5 FP2 35 -0.366
5 FP2 36 -3.784
5 FP2 37 -6.714
5 FP2 38 -7.202
5 FP2 39 -5.249
5 FP2 40 -1.343
5 FP2 41 3.052
5 FP2 42 7.935
5 FP2 43 11.841
5 FP2 44 15.259
5 FP2 45 16.724
5 FP2 46 16.235
5 FP2 47 14.282
5 FP2 48 11.353
5 FP2 49 9.399
5 FP2 50 8.423
5 FP2 51 8.423
5 FP2 52 8.911
5 FP2 53 9.399
5 FP2 54 9.399
5 FP2 55 8.911
5 FP2 56 6.958
5 FP2 57 5.005
5 FP2 58 2.563
5 FP2 59 0.610
5 FP2 60 -0.366
5 FP2 61 0.122
5 FP2 62 0.610
5 FP2 63 2.563
5 FP2 64 6.470
5 FP2 65 11.353
5 FP2 66 16.235
5 FP2 67 17.212
5 FP2 68 14.282
5 FP2 69 7.935
5 FP2 70 1.587
5 FP2 71 -2.808
5 FP2 72 -2.808
5 FP2 73 -1.343
5 FP2 74 -0.854
5 FP2 75 -2.319
5 FP2 76 -4.272
5 FP2 77 -5.249
5 FP2 78 -4.761
5 FP2 79 -3.784
5 FP2 80 -3.784
5 FP2 81 -4.761
5 FP2 82 -6.714
5 FP2 83 -7.202
5 FP2 84 -5.737
5 FP2 85 -3.296
5 FP2 86 -1.343
5 FP2 87 -1.343
5 FP2 88 -2.808
5 FP2 89 -5.737
5 FP2 90 -8.179
5 FP2 91 -10.132
5 FP2 92 -11.597
5 FP2 93 -13.062
5 FP2 94 -13.550
5 FP2 95 -13.062
5 FP2 96 -12.085
5 FP2 97 -12.085
5 FP2 98 -12.573
5 FP2 99 -13.550
5 FP2 100 -14.038
5 FP2 101 -13.062
5 FP2 102 -11.597
5 FP2 103 -10.132
5 FP2 104 -9.644
5 FP2 105 -10.132
5 FP2 106 -10.620
5 FP2 107 -9.644
5 FP2 108 -8.179
5 FP2 109 -5.737
5 FP2 110 -2.808
5 FP2 111 -0.854
5 FP2 112 0.610
5 FP2 113 1.099
5 FP2 114 0.610
5 FP2 115 -0.854
5 FP2 116 -1.831
5 FP2 117 -2.319
5 FP2 118 -2.319
5 FP2 119 -1.343
5 FP2 120 0.122
5 FP2 121 1.099
5 FP2 122 1.099
5 FP2 123 -0.366
5 FP2 124 -2.319
5 FP2 125 -3.296
5 FP2 126 -2.319
5 FP2 127 -0.366
5 FP2 128 1.587
5 FP2 129 3.052
5 FP2 130 3.540
5 FP2 131 3.052
5 FP2 132 2.563
5 FP2 133 2.075
5 FP2 134 1.587
5 FP2 135 1.099
5 FP2 136 0.610
5 FP2 137 1.099
5 FP2 138 2.075
5 FP2 139 3.052
5 FP2 140 3.540
5 FP2 141 3.052
5 FP2 142 2.563
5 FP2 143 2.563
5 FP2 144 3.052
5 FP2 145 3.540
5 FP2 146 3.052
5 FP2 147 1.587
5 FP2 148 0.122
5 FP2 149 0.122
5 FP2 150 2.075
5 FP2 151 4.028
5 FP2 152 5.493
5 FP2 153 5.005
5 FP2 154 2.563
5 FP2 155 1.099
5 FP2 156 2.075
5 FP2 157 5.493
5 FP2 158 9.888
5 FP2 159 11.841
5 FP2 160 9.888
5 FP2 161 5.493
5 FP2 162 1.099
5 FP2 163 -0.366
5 FP2 164 1.587
5 FP2 165 4.517
5 FP2 166 6.470
5 FP2 167 6.470
5 FP2 168 4.517
5 FP2 169 3.540
5 FP2 170 4.028
5 FP2 171 5.981
5 FP2 172 6.470
5 FP2 173 4.028
5 FP2 174 0.610
5 FP2 175 -3.296
5 FP2 176 -4.761
5 FP2 177 -3.784
5 FP2 178 -1.831
5 FP2 179 -1.831
5 FP2 180 -3.296
5 FP2 181 -5.737
5 FP2 182 -8.179
5 FP2 183 -8.667
5 FP2 184 -7.690
5 FP2 185 -5.737
5 FP2 186 -3.784
5 FP2 187 -2.808
5 FP2 188 -1.831
5 FP2 189 -0.854
5 FP2 190 -0.854
5 FP2 191 -1.343
5 FP2 192 -2.319
5 FP2 193 -2.808
5 FP2 194 -2.319
5 FP2 195 -0.854
5 FP2 196 0.610
5 FP2 197 1.587
5 FP2 198 0.610
5 FP2 199 -0.366
5 FP2 200 -0.854
5 FP2 201 -0.366
5 FP2 202 1.587
5 FP2 203 2.075
5 FP2 204 1.587
5 FP2 205 -0.366
5 FP2 206 -3.296
5 FP2 207 -4.761
5 FP2 208 -5.249
5 FP2 209 -4.272
5 FP2 210 -2.319
5 FP2 211 -0.366
5 FP2 212 1.587
5 FP2 213 3.540
5 FP2 214 5.005
5 FP2 215 6.958
5 FP2 216 8.911
5 FP2 217 10.376
5 FP2 218 11.841
5 FP2 219 12.329
5 FP2 220 11.841
5 FP2 221 11.841
5 FP2 222 12.329
5 FP2 223 13.794
5 FP2 224 16.724
5 FP2 225 19.653
5 FP2 226 21.118
5 FP2 227 21.118
5 FP2 228 19.653
5 FP2 229 17.700
5 FP2 230 17.212
5 FP2 231 18.188
5 FP2 232 19.653
5 FP2 233 20.630
5 FP2 234 21.118
5 FP2 235 21.606
5 FP2 236 21.118
5 FP2 237 20.630
5 FP2 238 20.142
5 FP2 239 19.165
5 FP2 240 17.700
5 FP2 241 16.235
5 FP2 242 14.771
5 FP2 243 13.794
5 FP2 244 12.329
5 FP2 245 10.376
5 FP2 246 7.935
5 FP2 247 5.981
5 FP2 248 4.517
5 FP2 249 5.005
5 FP2 250 5.493
5 FP2 251 6.470
5 FP2 252 6.470
5 FP2 253 5.981
5 FP2 254 4.517
5 FP2 255 3.540
# F7 chan 2
5 F7 0 8.087
5 F7 1 10.040
5 F7 2 11.993
5 F7 3 13.947
5 F7 4 15.900
5 F7 5 15.900
5 F7 6 14.923
5 F7 7 12.482
5 F7 8 9.552
5 F7 9 6.134
5 F7 10 2.716
5 F7 11 -0.214
5 F7 12 -1.678
5 F7 13 -2.167
5 F7 14 -1.678
5 F7 15 -1.678
5 F7 16 -2.655
5 F7 17 -4.120
5 F7 18 -5.096
5 F7 19 -3.143
5 F7 20 0.275
5 F7 21 5.157
5 F7 22 9.064
5 F7 23 11.505
5 F7 24 11.505
5 F7 25 10.529
5 F7 26 8.575
5 F7 27 5.646
5 F7 28 3.693
5 F7 29 1.251
5 F7 30 0.763
5 F7 31 0.763
5 F7 32 0.763
5 F7 33 0.763
5 F7 34 -0.214
5 F7 35 -2.167
5 F7 36 -5.096
5 F7 37 -7.538
5 F7 38 -9.003
5 F7 39 -8.514
5 F7 40 -6.073
5 F7 41 -2.167
5 F7 42 1.740
5 F7 43 6.134
5 F7 44 10.529
5 F7 45 13.458
5 F7 46 14.435
5 F7 47 12.970
5 F7 48 9.552
5 F7 49 6.134
5 F7 50 3.693
5 F7 51 2.716
5 F7 52 2.716
5 F7 53 3.693
5 F7 54 4.181
5 F7 55 3.693
5 F7 56 3.204
5 F7 57 1.740
5 F7 58 -0.702
5 F7 59 -4.608
5 F7 60 -8.026
5 F7 61 -9.491
5 F7 62 -7.050
5 F7 63 -0.702
5 F7 64 8.087
5 F7 65 15.900
5 F7 66 19.806
5 F7 67 18.341
5 F7 68 13.947
5 F7 69 10.040
5 F7 70 8.575
5 F7 71 10.040
5 F7 72 11.505
5 F7 73 11.017
5 F7 74 6.622
5 F7 75 1.740
5 F7 76 -3.143
5 F7 77 -6.073
5 F7 78 -7.538
5 F7 79 -9.979
5 F7 80 -13.397
5 F7 81 -17.303
5 F7 82 -19.257
5 F7 83 -18.280
5 F7 84 -14.374
5 F7 85 -10.468
5 F7 86 -8.026
5 F7 87 -8.026
5 F7 88 -9.491
5 F7 89 -9.979
5 F7 90 -10.468
5 F7 91 -10.956
5 F7 92 -11.932
5 F7 93 -13.885
5 F7 94 -14.862
5 F7 95 -14.862
5 F7 96 -13.885
5 F7 97 -13.397
5 F7 98 -14.374
5 F7 99 -15.839
5 F7 100 -17.792
5 F7 101 -18.280
5 F7 102 -18.280
5 F7 103 -17.792
5 F7 104 -17.792
5 F7 105 -19.257
5 F7 106 -19.745
5 F7 107 -19.745
5 F7 108 -18.280
5 F7 109 -16.327
5 F7 110 -14.862
5 F7 111 -13.885
5 F7 112 -13.397
5 F7 113 -12.909
5 F7 114 -10.956
5 F7 115 -9.491
5 F7 116 -8.514
5 F7 117 -7.538
5 F7 118 -7.050
5 F7 119 -6.073
5 F7 120 -5.096
5 F7 121 -4.120
5 F7 122 -4.120
5 F7 123 -4.608
5 F7 124 -5.585
5 F7 125 -6.561
5 F7 126 -7.050
5 F7 127 -6.561
5 F7 128 -6.073
5 F7 129 -4.608
5 F7 130 -2.655
5 F7 131 -0.214
5 F7 132 1.740
5 F7 133 2.716
5 F7 134 1.740
5 F7 135 -1.190
5 F7 136 -4.608
5 F7 137 -8.026
5 F7 138 -9.979
5 F7 139 -9.979
5 F7 140 -8.514
5 F7 141 -7.050
5 F7 142 -6.561
5 F7 143 -8.514
5 F7 144 -10.956
5 F7 145 -12.909
5 F7 146 -12.909
5 F7 147 -10.956
5 F7 148 -8.514
5 F7 149 -7.050
5 F7 150 -7.050
5 F7 151 -9.003
5 F7 152 -11.444
5 F7 153 -12.421
5 F7 154 -11.932
5 F7 155 -10.956
5 F7 156 -10.956
5 F7 157 -12.421
5 F7 158 -14.862
5 F7 159 -16.327
5 F7 160 -15.839
5 F7 161 -13.885
5 F7 162 -11.932
5 F7 163 -11.932
5 F7 164 -13.885
5 F7 165 -16.815
5 F7 166 -18.768
5 F7 167 -18.280
5 F7 168 -16.327
5 F7 169 -12.909
5 F7 170 -10.468
5 F7 171 -9.003
5 F7 172 -9.003
5 F7 173 -9.491
5 F7 174 -9.979
5 F7 175 -10.468
5 F7 176 -12.421
5 F7 177 -13.885
5 F7 178 -16.327
5 F7 179 -17.792
5 F7 180 -18.768
5 F7 181 -18.768
5 F7 182 -17.303
5 F7 183 -15.839
5 F7 184 -14.862
5 F7 185 -14.862
5 F7 186 -16.815
5 F7 187 -18.280
5 F7 188 -19.257
5 F7 189 -18.768
5 F7 190 -17.792
5 F7 191 -16.815
5 F7 192 -16.327
5 F7 193 -16.815
5 F7 194 -16.327
5 F7 195 -15.350
5 F7 196 -14.862
5 F7 197 -15.350
5 F7 198 -16.327
5 F7 199 -18.280
5 F7 200 -18.768
5 F7 201 -18.768
5 F7 202 -17.792
5 F7 203 -18.280
5 F7 204 -19.745
5 F7 205 -22.675
5 F7 206 -24.628
5 F7 207 -25.116
5 F7 208 -23.163
5 F7 209 -20.233
5 F7 210 -17.303
5 F7 211 -15.839
5 F7 212 -15.839
5 F7 213 -16.815
5 F7 214 -15.839
5 F7 215 -13.885
5 F7 216 -10.468
5 F7 217 -8.026
5 F7 218 -6.561
5 F7 219 -6.561
5 F7 220 -7.050
5 F7 221 -7.050
5 F7 222 -6.073
5 F7 223 -4.608
5 F7 224 -3.632
5 F7 225 -2.655
5 F7 226 -1.678
5 F7 227 -0.214
5 F7 228 1.251
5 F7 229 1.740
5 F7 230 1.740
5 F7 231 0.275
5 F7 232 -0.702
5 F7 233 -0.702
5 F7 234 1.251
5 F7 235 3.693
5 F7 236 5.157
5 F7 237 4.669
5 F7 238 2.228
5 F7 239 -0.214
5 F7 240 -1.190
5 F7 241 -1.190
5 F7 242 -0.214
5 F7 243 -0.702
5 F7 244 -2.167
5 F7 245 -4.120
5 F7 246 -5.585
5 F7 247 -5.096
5 F7 248 -4.120
5 F7 249 -4.608
5 F7 250 -7.050
5 F7 251 -10.468
5 F7 252 -13.885
5 F7 253 -15.839
5 F7 254 -14.862
5 F7 255 -12.421
# F8 chan 3
5 F8 0 -1.567
5 F8 1 0.875
5 F8 2 3.316
5 F8 3 4.293
5 F8 4 3.805
5 F8 5 3.316
5 F8 6 1.851
5 F8 7 0.387
5 F8 8 -1.078
5 F8 9 -3.520
5 F8 10 -4.985
5 F8 11 -4.985
5 F8 12 -3.031
5 F8 13 -1.078
5 F8 14 -0.102
5 F8 15 -0.102
5 F8 16 -0.590
5 F8 17 -0.102
5 F8 18 2.340
5 F8 19 5.269
5 F8 20 6.734
5 F8 21 5.758
5 F8 22 2.828
5 F8 23 -0.102
5 F8 24 -2.055
5 F8 25 -3.031
5 F8 26 -4.008
5 F8 27 -5.961
5 F8 28 -7.426
5 F8 29 -8.403
5 F8 30 -7.914
5 F8 31 -7.426
5 F8 32 -7.426
5 F8 33 -7.914
5 F8 34 -7.914
5 F8 35 -6.449
5 F8 36 -4.496
5 F8 37 -3.520
5 F8 38 -4.008
5 F8 39 -4.496
5 F8 40 -4.985
5 F8 41 -3.520
5 F8 42 -0.102
5 F8 43 2.828
5 F8 44 4.781
5 F8 45 5.269
5 F8 46 4.781
5 F8 47 4.781
5 F8 48 4.781
5 F8 49 3.805
5 F8 50 0.875
5 F8 51 -3.520
5 F8 52 -6.938
5 F8 53 -7.914
5 F8 54 -7.426
5 F8 55 -5.961
5 F8 56 -5.473
5 F8 57 -7.426
5 F8 58 -8.891
5 F8 59 -9.379
5 F8 60 -8.403
5 F8 61 -6.938
5 F8 62 -5.473
5 F8 63 -4.985
5 F8 64 -4.008
5 F8 65 -3.520
5 F8 66 -2.543
5 F8 67 -2.055
5 F8 68 -3.520
5 F8 69 -5.961
5 F8 70 -8.403
5 F8 71 -10.356
5 F8 72 -12.309
5 F8 73 -13.774
5 F8 74 -16.703
5 F8 75 -18.656
5 F8 76 -20.610
5 F8 77 -20.610
5 F8 78 -20.121
5 F8 79 -20.121
5 F8 80 -21.586
5 F8 81 -23.539
5 F8 82 -24.516
5 F8 83 -24.028
5 F8 84 -22.563
5 F8 85 -22.074
5 F8 86 -22.563
5 F8 87 -23.539
5 F8 88 -25.492
5 F8 89 -26.469
5 F8 90 -27.934
5 F8 91 -29.887
5 F8 92 -31.352
5 F8 93 -31.352
5 F8 94 -29.399
5 F8 95 -25.981
5 F8 96 -22.563
5 F8 97 -21.586
5 F8 98 -23.539
5 F8 99 -26.469
5 F8 100 -27.934
5 F8 101 -25.981
5 F8 102 -22.074
5 F8 103 -18.656
5 F8 104 -17.680
5 F8 105 -18.656
5 F8 106 -20.610
5 F8 107 -20.610
5 F8 108 -18.656
5 F8 109 -15.238
5 F8 110 -12.309
5 F8 111 -11.820
5 F8 112 -13.285
5 F8 113 -16.215
5 F8 114 -18.168
5 F8 115 -17.680
5 F8 116 -17.192
5 F8 117 -16.703
5 F8 118 -16.703
5 F8 119 -17.192
5 F8 120 -17.680
5 F8 121 -16.703
5 F8 122 -15.238
5 F8 123 -13.774
5 F8 124 -15.238
5 F8 125 -18.656
5 F8 126 -23.051
5 F8 127 -25.492
5 F8 128 -25.492
5 F8 129 -23.539
5 F8 130 -21.586
5 F8 131 -21.098
5 F8 132 -21.098
5 F8 133 -20.610
5 F8 134 -18.168
5 F8 135 -15.238
5 F8 136 -13.285
5 F8 137 -14.750
5 F8 138 -19.145
5 F8 139 -23.539
5 F8 140 -25.004
5 F8 141 -23.539
5 F8 142 -20.610
5 F8 143 -18.656
5 F8 144 -18.656
5 F8 145 -21.098
5 F8 146 -23.051
5 F8 147 -23.539
5 F8 148 -22.074
5 F8 149 -20.121
5 F8 150 -18.168
5 F8 151 -16.703
5 F8 152 -16.215
5 F8 153 -17.192
5 F8 154 -19.633
5 F8 155 -22.563
5 F8 156 -24.028
5 F8 157 -23.051
5 F8 158 -19.145
5 F8 159 -15.727
5 F8 160 -14.262
5 F8 161 -16.215
5 F8 162 -19.633
5 F8 163 -21.586
5 F8 164 -21.586
5 F8 165 -19.145
5 F8 166 -17.680
5 F8 167 -18.656
5 F8 168 -22.074
5 F8 169 -24.516
5 F8 170 -25.004
5 F8 171 -23.539
5 F8 172 -22.563
5 F8 173 -24.516
5 F8 174 -29.399
5 F8 175 -35.258
5 F8 176 -39.164
5 F8 177 -39.653
5 F8 178 -38.188
5 F8 179 -36.723
5 F8 180 -37.211
5 F8 181 -38.676
5 F8 182 -40.141
5 F8 183 -39.164
5 F8 184 -36.723
5 F8 185 -34.281
5 F8 186 -32.817
5 F8 187 -32.817
5 F8 188 -33.793
5 F8 189 -34.281
5 F8 190 -34.281
5 F8 191 -33.793
5 F8 192 -33.305
5 F8 193 -32.328
5 F8 194 -30.863
5 F8 195 -30.375
5 F8 196 -30.375
5 F8 197 -31.840
5 F8 198 -33.793
5 F8 199 -35.258
5 F8 200 -35.258
5 F8 201 -34.281
5 F8 202 -33.793
5 F8 203 -34.281
5 F8 204 -35.746
5 F8 205 -37.699
5 F8 206 -38.676
5 F8 207 -38.188
5 F8 208 -37.211
5 F8 209 -36.235
5 F8 210 -35.746
5 F8 211 -35.746
5 F8 212 -35.258
5 F8 213 -33.305
5 F8 214 -31.352
5 F8 215 -30.863
5 F8 216 -32.328
5 F8 217 -34.281
5 F8 218 -35.258
5 F8 219 -33.793
5 F8 220 -30.863
5 F8 221 -27.445
5 F8 222 -25.492
5 F8 223 -25.492
5 F8 224 -25.981
5 F8 225 -25.981
5 F8 226 -24.516
5 F8 227 -22.563
5 F8 228 -20.610
5 F8 229 -19.633
5 F8 230 -19.633
5 F8 231 -20.121
5 F8 232 -20.610
5 F8 233 -20.610
5 F8 234 -19.633
5 F8 235 -18.168
5 F8 236 -16.215
5 F8 237 -15.238
5 F8 238 -15.727
5 F8 239 -16.703
5 F8 240 -18.168
5 F8 241 -17.680
5 F8 242 -16.215
5 F8 243 -14.262
5 F8 244 -14.262
5 F8 245 -17.192
5 F8 246 -22.074
5 F8 247 -26.957
5 F8 248 -29.887
5 F8 249 -29.887
5 F8 250 -29.399
5 F8 251 -29.887
5 F8 252 -31.840
5 F8 253 -34.281
5 F8 254 -34.770
5 F8 255 -32.817
# AF1 chan 4
5 AF1 0 4.567
5 AF1 1 5.544
5 AF1 2 7.009
5 AF1 3 9.450
5 AF1 4 10.427
5 AF1 5 11.403
5 AF1 6 10.915
5 AF1 7 8.474
5 AF1 8 5.544
5 AF1 9 1.638
5 AF1 10 -1.292
5 AF1 11 -3.733
5 AF1 12 -4.710
5 AF1 13 -4.222
5 AF1 14 -2.757
5 AF1 15 -1.780
5 AF1 16 -0.804
5 AF1 17 -0.315
5 AF1 18 -0.315
5 AF1 19 1.149
5 AF1 20 3.591
5 AF1 21 6.521
5 AF1 22 9.450
5 AF1 23 10.915
5 AF1 24 10.915
5 AF1 25 9.450
5 AF1 26 7.497
5 AF1 27 5.544
5 AF1 28 3.591
5 AF1 29 1.638
5 AF1 30 0.173
5 AF1 31 -0.804
5 AF1 32 -1.292
5 AF1 33 -1.292
5 AF1 34 -0.315
5 AF1 35 -0.804
5 AF1 36 -1.780
5 AF1 37 -3.733
5 AF1 38 -5.686
5 AF1 39 -5.686
5 AF1 40 -3.245
5 AF1 41 0.661
5 AF1 42 5.056
5 AF1 43 8.962
5 AF1 44 11.892
5 AF1 45 13.845
5 AF1 46 13.845
5 AF1 47 12.380
5 AF1 48 10.427
5 AF1 49 8.474
5 AF1 50 7.497
5 AF1 51 7.497
5 AF1 52 7.985
5 AF1 53 8.474
5 AF1 54 7.497
5 AF1 55 6.032
5 AF1 56 4.079
5 AF1 57 2.614
5 AF1 58 1.638
5 AF1 59 2.614
5 AF1 60 3.103
5 AF1 61 4.567
5 AF1 62 6.032
5 AF1 63 7.985
5 AF1 64 10.915
5 AF1 65 13.357
5 AF1 66 14.333
5 AF1 67 13.357
5 AF1 68 10.427
5 AF1 69 6.521
5 AF1 70 4.079
5 AF1 71 2.614
5 AF1 72 2.126
5 AF1 73 1.149
5 AF1 74 -0.315
5 AF1 75 -1.780
5 AF1 76 -2.757
5 AF1 77 -2.757
5 AF1 78 -2.268
5 AF1 79 -1.780
5 AF1 80 -2.268
5 AF1 81 -2.268
5 AF1 82 -2.268
5 AF1 83 -1.780
5 AF1 84 0.173
5 AF1 85 1.149
5 AF1 86 1.638
5 AF1 87 0.661
5 AF1 88 -0.804
5 AF1 89 -1.780
5 AF1 90 -2.757
5 AF1 91 -4.222
5 AF1 92 -6.175
5 AF1 93 -9.104
5 AF1 94 -11.058
5 AF1 95 -12.522
5 AF1 96 -12.522
5 AF1 97 -11.546
5 AF1 98 -10.081
5 AF1 99 -9.593
5 AF1 100 -9.104
5 AF1 101 -9.104
5 AF1 102 -9.104
5 AF1 103 -8.616
5 AF1 104 -8.128
5 AF1 105 -8.128
5 AF1 106 -7.151
5 AF1 107 -6.175
5 AF1 108 -4.222
5 AF1 109 -2.757
5 AF1 110 -1.780
5 AF1 111 -1.292
5 AF1 112 -1.292
5 AF1 113 -0.315
5 AF1 114 0.173
5 AF1 115 1.149
5 AF1 116 1.638
5 AF1 117 1.149
5 AF1 118 1.638
5 AF1 119 2.126
5 AF1 120 3.103
5 AF1 121 4.567
5 AF1 122 4.567
5 AF1 123 4.567
5 AF1 124 3.103
5 AF1 125 3.103
5 AF1 126 3.591
5 AF1 127 5.544
5 AF1 128 7.497
5 AF1 129 8.474
5 AF1 130 8.962
5 AF1 131 9.939
5 AF1 132 10.427
5 AF1 133 11.403
5 AF1 134 11.403
5 AF1 135 10.915
5 AF1 136 9.450
5 AF1 137 7.985
5 AF1 138 7.009
5 AF1 139 6.521
5 AF1 140 6.032
5 AF1 141 6.032
5 AF1 142 6.032
5 AF1 143 6.032
5 AF1 144 5.544
5 AF1 145 5.544
5 AF1 146 5.544
5 AF1 147 6.032
5 AF1 148 7.009
5 AF1 149 8.474
5 AF1 150 9.939
5 AF1 151 10.427
5 AF1 152 10.427
5 AF1 153 9.450
5 AF1 154 8.474
5 AF1 155 7.985
5 AF1 156 8.474
5 AF1 157 8.474
5 AF1 158 8.962
5 AF1 159 7.985
5 AF1 160 7.009
5 AF1 161 6.032
5 AF1 162 6.032
5 AF1 163 6.032
5 AF1 164 6.521
5 AF1 165 7.009
5 AF1 166 6.521
5 AF1 167 6.032
5 AF1 168 5.544
5 AF1 169 5.544
5 AF1 170 6.521
5 AF1 171 7.497
5 AF1 172 7.985
5 AF1 173 7.497
5 AF1 174 6.521
5 AF1 175 5.056
5 AF1 176 4.567
5 AF1 177 4.567
5 AF1 178 4.567
5 AF1 179 4.567
5 AF1 180 4.079
5 AF1 181 2.126
5 AF1 182 0.173
5 AF1 183 -0.804
5 AF1 184 0.173
5 AF1 185 1.149
5 AF1 186 2.614
5 AF1 187 2.614
5 AF1 188 1.149
5 AF1 189 -0.804
5 AF1 190 -2.268
5 AF1 191 -2.268
5 AF1 192 -0.315
5 AF1 193 2.614
5 AF1 194 4.567
5 AF1 195 5.544
5 AF1 196 5.056
5 AF1 197 3.591
5 AF1 198 1.638
5 AF1 199 0.661
5 AF1 200 0.173
5 AF1 201 0.661
5 AF1 202 0.661
5 AF1 203 0.661
5 AF1 204 0.661
5 AF1 205 0.173
5 AF1 206 0.173
5 AF1 207 0.661
5 AF1 208 1.638
5 AF1 209 3.591
5 AF1 210 5.056
5 AF1 211 6.032
5 AF1 212 6.521
5 AF1 213 7.497
5 AF1 214 8.474
5 AF1 215 10.915
5 AF1 216 12.868
5 AF1 217 14.333
5 AF1 218 15.310
5 AF1 219 15.798
5 AF1 220 16.774
5 AF1 221 17.263
5 AF1 222 18.728
5 AF1 223 20.681
5 AF1 224 21.657
5 AF1 225 22.146
5 AF1 226 22.146
5 AF1 227 21.657
5 AF1 228 20.681
5 AF1 229 20.681
5 AF1 230 20.681
5 AF1 231 21.169
5 AF1 232 22.146
5 AF1 233 23.610
5 AF1 234 24.099
5 AF1 235 23.610
5 AF1 236 22.146
5 AF1 237 20.192
5 AF1 238 18.239
5 AF1 239 17.263
5 AF1 240 16.774
5 AF1 241 16.286
5 AF1 242 15.310
5 AF1 243 14.333
5 AF1 244 12.868
5 AF1 245 12.868
5 AF1 246 13.357
5 AF1 247 13.845
5 AF1 248 14.821
5 AF1 249 14.333
5 AF1 250 13.845
5 AF1 251 13.357
5 AF1 252 13.357
5 AF1 253 13.357
5 AF1 254 13.357
5 AF1 255 13.357
# AF2 chan 5
5 AF2 0 1.160
5 AF2 1 3.601
5 AF2 2 5.066
5 AF2 3 6.042
5 AF2 4 5.066
5 AF2 5 4.089
5 AF2 6 2.136
5 AF2 7 0.671
5 AF2 8 -1.770
5 AF2 9 -4.700
5 AF2 10 -7.629
5 AF2 11 -9.583
5 AF2 12 -10.071
5 AF2 13 -8.118
5 AF2 14 -6.165
5 AF2 15 -4.211
5 AF2 16 -3.723
5 AF2 17 -4.211
5 AF2 18 -4.700
5 AF2 19 -2.747
5 AF2 20 0.183
5 AF2 21 3.601
5 AF2 22 6.531
5 AF2 23 7.507
5 AF2 24 7.019
5 AF2 25 6.042
5 AF2 26 3.601
5 AF2 27 1.160
5 AF2 28 -0.793
5 AF2 29 -3.235
5 AF2 30 -5.188
5 AF2 31 -6.653
5 AF2 32 -6.653
5 AF2 33 -6.165
5 AF2 34 -5.676
5 AF2 35 -6.165
5 AF2 36 -7.141
5 AF2 37 -8.606
5 AF2 38 -9.583
5 AF2 39 -8.606
5 AF2 40 -6.165
5 AF2 41 -3.235
5 AF2 42 -0.305
5 AF2 43 2.136
5 AF2 44 4.578
5 AF2 45 6.042
5 AF2 46 7.019
5 AF2 47 6.042
5 AF2 48 4.089
5 AF2 49 2.136
5 AF2 50 1.160
5 AF2 51 0.671
5 AF2 52 1.648
5 AF2 53 1.160
5 AF2 54 -0.305
5 AF2 55 -2.747
5 AF2 56 -4.700
5 AF2 57 -5.188
5 AF2 58 -4.700
5 AF2 59 -3.723
5 AF2 60 -3.235
5 AF2 61 -3.235
5 AF2 62 -2.747
5 AF2 63 -1.282
5 AF2 64 1.648
5 AF2 65 4.089
5 AF2 66 5.066
5 AF2 67 3.601
5 AF2 68 0.183
5 AF2 69 -3.723
5 AF2 70 -6.165
5 AF2 71 -6.653
5 AF2 72 -6.165
5 AF2 73 -6.653
5 AF2 74 -8.118
5 AF2 75 -10.559
5 AF2 76 -11.536
5 AF2 77 -11.536
5 AF2 78 -10.559
5 AF2 79 -9.583
5 AF2 80 -9.094
5 AF2 81 -9.583
5 AF2 82 -10.071
5 AF2 83 -10.071
5 AF2 84 -9.094
5 AF2 85 -8.606
5 AF2 86 -9.094
5 AF2 87 -10.559
5 AF2 88 -12.512
5 AF2 89 -14.465
5 AF2 90 -14.954
5 AF2 91 -15.442
5 AF2 92 -16.418
5 AF2 93 -17.395
5 AF2 94 -19.348
5 AF2 95 -20.325
5 AF2 96 -20.813
5 AF2 97 -20.325
5 AF2 98 -19.348
5 AF2 99 -18.860
5 AF2 100 -18.860
5 AF2 101 -18.372
5 AF2 102 -17.883
5 AF2 103 -16.418
5 AF2 104 -15.442
5 AF2 105 -14.954
5 AF2 106 -13.977
5 AF2 107 -12.512
5 AF2 108 -11.047
5 AF2 109 -9.583
5 AF2 110 -8.606
5 AF2 111 -8.606
5 AF2 112 -9.583
5 AF2 113 -10.071
5 AF2 114 -10.071
5 AF2 115 -9.583
5 AF2 116 -9.583
5 AF2 117 -9.583
5 AF2 118 -9.583
5 AF2 119 -9.583
5 AF2 120 -8.606
5 AF2 121 -8.118
5 AF2 122 -7.629
5 AF2 123 -7.629
5 AF2 124 -8.118
5 AF2 125 -8.118
5 AF2 126 -7.629
5 AF2 127 -6.653
5 AF2 128 -5.676
5 AF2 129 -4.211
5 AF2 130 -3.235
5 AF2 131 -2.258
5 AF2 132 -1.282
5 AF2 133 -0.305
5 AF2 134 -0.305
5 AF2 135 -0.793
5 AF2 136 -2.747
5 AF2 137 -4.211
5 AF2 138 -5.676
5 AF2 139 -6.165
5 AF2 140 -5.676
5 AF2 141 -4.700
5 AF2 142 -3.723
5 AF2 143 -3.235
5 AF2 144 -3.723
5 AF2 145 -3.723
5 AF2 146 -3.235
5 AF2 147 -2.258
5 AF2 148 -1.282
5 AF2 149 0.183
5 AF2 150 0.671
5 AF2 151 0.671
5 AF2 152 -0.305
5 AF2 153 -0.793
5 AF2 154 -0.793
5 AF2 155 0.671
5 AF2 156 1.648
5 AF2 157 2.625
5 AF2 158 1.648
5 AF2 159 0.671
5 AF2 160 -0.305
5 AF2 161 -1.282
5 AF2 162 -1.282
5 AF2 163 -1.770
5 AF2 164 -1.770
5 AF2 165 -2.747
5 AF2 166 -3.235
5 AF2 167 -3.235
5 AF2 168 -3.235
5 AF2 169 -2.747
5 AF2 170 -2.747
5 AF2 171 -2.747
5 AF2 172 -2.747
5 AF2 173 -3.723
5 AF2 174 -4.700
5 AF2 175 -6.165
5 AF2 176 -7.141
5 AF2 177 -8.118
5 AF2 178 -8.118
5 AF2 179 -8.118
5 AF2 180 -7.629
5 AF2 181 -8.606
5 AF2 182 -10.071
5 AF2 183 -11.047
5 AF2 184 -11.047
5 AF2 185 -9.583
5 AF2 186 -8.118
5 AF2 187 -7.141
5 AF2 188 -7.629
5 AF2 189 -8.606
5 AF2 190 -10.071
5 AF2 191 -10.071
5 AF2 192 -8.606
5 AF2 193 -6.653
5 AF2 194 -4.700
5 AF2 195 -4.700
5 AF2 196 -6.165
5 AF2 197 -8.118
5 AF2 198 -10.071
5 AF2 199 -11.047
5 AF2 200 -11.047
5 AF2 201 -11.047
5 AF2 202 -11.047
5 AF2 203 -11.047
5 AF2 204 -10.559
5 AF2 205 -10.559
5 AF2 206 -9.583
5 AF2 207 -9.094
5 AF2 208 -8.606
5 AF2 209 -7.629
5 AF2 210 -7.629
5 AF2 211 -7.141
5 AF2 212 -7.629
5 AF2 213 -7.629
5 AF2 214 -6.653
5 AF2 215 -4.700
5 AF2 216 -1.770
5 AF2 217 1.160
5 AF2 218 2.625
5 AF2 219 3.113
5 AF2 220 2.136
5 AF2 221 1.648
5 AF2 222 2.625
5 AF2 223 4.578
5 AF2 224 6.531
5 AF2 225 7.019
5 AF2 226 6.042
5 AF2 227 4.578
5 AF2 228 3.601
5 AF2 229 4.089
5 AF2 230 5.554
5 AF2 231 7.019
5 AF2 232 7.996
5 AF2 233 7.996
5 AF2 234 7.996
5 AF2 235 7.996
5 AF2 236 7.019
5 AF2 237 5.066
5 AF2 238 2.136
5 AF2 239 -0.793
5 AF2 240 -2.747
5 AF2 241 -2.747
5 AF2 242 -2.258
5 AF2 243 -1.282
5 AF2 244 -1.282
5 AF2 245 -2.258
5 AF2 246 -3.235
5 AF2 247 -3.723
5 AF2 248 -2.747
5 AF2 249 -2.258
5 AF2 250 -1.770
5 AF2 251 -2.747
5 AF2 252 -3.723
5 AF2 253 -3.723
5 AF2 254 -3.723
5 AF2 255 -2.747
# FZ chan 6
5 FZ 0 1.078
5 FZ 1 3.031
5 FZ 2 4.985
5 FZ 3 6.938
5 FZ 4 7.426
5 FZ 5 6.938
5 FZ 6 5.473
5 FZ 7 4.008
5 FZ 8 2.055
5 FZ 9 -0.387
5 FZ 10 -3.316
5 FZ 11 -5.758
5 FZ 12 -6.734
5 FZ 13 -6.246
5 FZ 14 -5.269
5 FZ 15 -3.805
5 FZ 16 -3.316
5 FZ 17 -3.316
5 FZ 18 -3.805
5 FZ 19 -2.828
5 FZ 20 -0.875
5 FZ 21 1.567
5 FZ 22 3.520
5 FZ 23 4.985
5 FZ 24 5.473
5 FZ 25 5.961
5 FZ 26 4.985
5 FZ 27 3.520
5 FZ 28 1.567
5 FZ 29 -0.387
5 FZ 30 -1.851
5 FZ 31 -2.828
5 FZ 32 -2.828
5 FZ 33 -3.316
5 FZ 34 -3.316
5 FZ 35 -4.293
5 FZ 36 -5.758
5 FZ 37 -7.222
5 FZ 38 -8.199
5 FZ 39 -7.711
5 FZ 40 -5.758
5 FZ 41 -2.828
5 FZ 42 0.102
5 FZ 43 3.031
5 FZ 44 4.985
5 FZ 45 6.449
5 FZ 46 6.449
5 FZ 47 5.473
5 FZ 48 4.008
5 FZ 49 2.543
5 FZ 50 1.567
5 FZ 51 1.567
5 FZ 52 2.055
5 FZ 53 2.055
5 FZ 54 1.567
5 FZ 55 0.102
5 FZ 56 -1.851
5 FZ 57 -3.316
5 FZ 58 -3.805
5 FZ 59 -3.316
5 FZ 60 -2.340
5 FZ 61 -1.851
5 FZ 62 -0.875
5 FZ 63 0.590
5 FZ 64 2.055
5 FZ 65 3.520
5 FZ 66 4.496
5 FZ 67 4.008
5 FZ 68 1.078
5 FZ 69 -1.851
5 FZ 70 -5.269
5 FZ 71 -7.711
5 FZ 72 -8.687
5 FZ 73 -8.687
5 FZ 74 -9.176
5 FZ 75 -10.152
5 FZ 76 -11.129
5 FZ 77 -11.617
5 FZ 78 -11.617
5 FZ 79 -10.640
5 FZ 80 -10.152
5 FZ 81 -9.664
5 FZ 82 -9.664
5 FZ 83 -9.176
5 FZ 84 -9.176
5 FZ 85 -8.199
5 FZ 86 -8.199
5 FZ 87 -8.199
5 FZ 88 -8.687
5 FZ 89 -9.664
5 FZ 90 -10.640
5 FZ 91 -11.617
5 FZ 92 -12.594
5 FZ 93 -14.547
5 FZ 94 -16.500
5 FZ 95 -17.965
5 FZ 96 -17.965
5 FZ 97 -17.476
5 FZ 98 -16.500
5 FZ 99 -15.523
5 FZ 100 -15.035
5 FZ 101 -14.547
5 FZ 102 -14.547
5 FZ 103 -14.058
5 FZ 104 -13.570
5 FZ 105 -12.594
5 FZ 106 -11.617
5 FZ 107 -10.640
5 FZ 108 -8.687
5 FZ 109 -7.711
5 FZ 110 -6.734
5 FZ 111 -6.246
5 FZ 112 -6.734
5 FZ 113 -6.734
5 FZ 114 -6.734
5 FZ 115 -6.246
5 FZ 116 -5.269
5 FZ 117 -5.269
5 FZ 118 -4.781
5 FZ 119 -4.781
5 FZ 120 -4.781
5 FZ 121 -4.293
5 FZ 122 -3.805
5 FZ 123 -3.316
5 FZ 124 -3.316
5 FZ 125 -3.316
5 FZ 126 -2.340
5 FZ 127 -1.363
5 FZ 128 0.102
5 FZ 129 1.078
5 FZ 130 1.567
5 FZ 131 1.567
5 FZ 132 1.078
5 FZ 133 0.590
5 FZ 134 0.590
5 FZ 135 0.102
5 FZ 136 -0.875
5 FZ 137 -2.340
5 FZ 138 -3.805
5 FZ 139 -5.269
5 FZ 140 -6.246
5 FZ 141 -6.246
5 FZ 142 -5.758
5 FZ 143 -4.781
5 FZ 144 -4.781
5 FZ 145 -4.781
5 FZ 146 -4.293
5 FZ 147 -3.316
5 FZ 148 -1.851
5 FZ 149 0.102
5 FZ 150 1.567
5 FZ 151 2.055
5 FZ 152 1.567
5 FZ 153 1.567
5 FZ 154 2.055
5 FZ 155 2.543
5 FZ 156 2.543
5 FZ 157 2.055
5 FZ 158 0.590
5 FZ 159 -0.875
5 FZ 160 -1.851
5 FZ 161 -2.340
5 FZ 162 -1.851
5 FZ 163 -1.851
5 FZ 164 -2.340
5 FZ 165 -2.828
5 FZ 166 -3.316
5 FZ 167 -3.805
5 FZ 168 -3.805
5 FZ 169 -3.316
5 FZ 170 -2.828
5 FZ 171 -2.828
5 FZ 172 -2.340
5 FZ 173 -2.340
5 FZ 174 -2.828
5 FZ 175 -2.828
5 FZ 176 -2.828
5 FZ 177 -2.340
5 FZ 178 -1.851
5 FZ 179 -2.340
5 FZ 180 -3.316
5 FZ 181 -4.781
5 FZ 182 -6.734
5 FZ 183 -7.711
5 FZ 184 -6.734
5 FZ 185 -5.269
5 FZ 186 -3.805
5 FZ 187 -3.805
5 FZ 188 -5.269
5 FZ 189 -6.734
5 FZ 190 -7.711
5 FZ 191 -6.734
5 FZ 192 -5.269
5 FZ 193 -3.805
5 FZ 194 -2.828
5 FZ 195 -2.828
5 FZ 196 -3.805
5 FZ 197 -5.269
5 FZ 198 -7.222
5 FZ 199 -8.687
5 FZ 200 -9.176
5 FZ 201 -10.152
5 FZ 202 -10.152
5 FZ 203 -10.640
5 FZ 204 -10.640
5 FZ 205 -10.640
5 FZ 206 -11.129
5 FZ 207 -10.640
5 FZ 208 -10.152
5 FZ 209 -9.176
5 FZ 210 -8.199
5 FZ 211 -7.222
5 FZ 212 -7.222
5 FZ 213 -6.246
5 FZ 214 -4.781
5 FZ 215 -3.316
5 FZ 216 -1.363
5 FZ 217 -0.387
5 FZ 218 0.102
5 FZ 219 0.102
5 FZ 220 0.102
5 FZ 221 0.590
5 FZ 222 1.567
5 FZ 223 3.031
5 FZ 224 3.520
5 FZ 225 3.031
5 FZ 226 1.567
5 FZ 227 0.102
5 FZ 228 -0.875
5 FZ 229 -1.851
5 FZ 230 -1.363
5 FZ 231 -0.875
5 FZ 232 -0.387
5 FZ 233 -0.387
5 FZ 234 0.102
5 FZ 235 -0.387
5 FZ 236 -1.851
5 FZ 237 -3.316
5 FZ 238 -4.293
5 FZ 239 -5.758
5 FZ 240 -6.246
5 FZ 241 -6.734
5 FZ 242 -6.734
5 FZ 243 -6.734
5 FZ 244 -6.246
5 FZ 245 -4.781
5 FZ 246 -2.828
5 FZ 247 -0.875
5 FZ 248 0.590
5 FZ 249 1.078
5 FZ 250 1.567
5 FZ 251 2.055
5 FZ 252 2.055
5 FZ 253 2.543
5 FZ 254 2.543
5 FZ 255 2.543
# F4 chan 7
5 F4 0 2.167
5 F4 1 3.632
5 F4 2 5.096
5 F4 3 5.585
5 F4 4 5.096
5 F4 5 3.632
5 F4 6 2.655
5 F4 7 2.167
5 F4 8 0.702
5 F4 9 -1.740
5 F4 10 -4.669
5 F4 11 -6.622
5 F4 12 -6.622
5 F4 13 -4.669
5 F4 14 -1.740
5 F4 15 0.702
5 F4 16 1.190
5 F4 17 0.214
5 F4 18 -0.763
5 F4 19 -0.763
5 F4 20 1.678
5 F4 21 3.632
5 F4 22 5.096
5 F4 23 5.096
5 F4 24 4.120
5 F4 25 3.632
5 F4 26 3.143
5 F4 27 2.655
5 F4 28 1.190
5 F4 29 -1.251
5 F4 30 -3.204
5 F4 31 -3.693
5 F4 32 -2.228
5 F4 33 -0.763
5 F4 34 -0.275
5 F4 35 -1.251
5 F4 36 -3.204
5 F4 37 -4.181
5 F4 38 -4.181
5 F4 39 -2.228
5 F4 40 -0.275
5 F4 41 1.678
5 F4 42 2.655
5 F4 43 3.632
5 F4 44 5.585
5 F4 45 7.538
5 F4 46 8.514
5 F4 47 7.538
5 F4 48 5.585
5 F4 49 2.655
5 F4 50 1.678
5 F4 51 2.167
5 F4 52 3.632
5 F4 53 3.632
5 F4 54 2.655
5 F4 55 0.214
5 F4 56 -1.740
5 F4 57 -2.716
5 F4 58 -1.740
5 F4 59 -0.275
5 F4 60 0.702
5 F4 61 0.702
5 F4 62 1.190
5 F4 63 1.678
5 F4 64 2.655
5 F4 65 3.632
5 F4 66 3.632
5 F4 67 2.655
5 F4 68 0.214
5 F4 69 -2.228
5 F4 70 -3.693
5 F4 71 -4.669
5 F4 72 -4.669
5 F4 73 -5.157
5 F4 74 -6.134
5 F4 75 -7.599
5 F4 76 -8.575
5 F4 77 -8.087
5 F4 78 -7.599
5 F4 79 -6.134
5 F4 80 -6.622
5 F4 81 -7.599
5 F4 82 -8.575
5 F4 83 -9.064
5 F4 84 -9.064
5 F4 85 -8.575
5 F4 86 -8.087
5 F4 87 -8.575
5 F4 88 -9.552
5 F4 89 -11.017
5 F4 90 -11.993
5 F4 91 -12.970
5 F4 92 -13.947
5 F4 93 -13.947
5 F4 94 -14.435
5 F4 95 -13.947
5 F4 96 -13.458
5 F4 97 -12.482
5 F4 98 -11.993
5 F4 99 -11.993
5 F4 100 -11.505
5 F4 101 -11.017
5 F4 102 -10.040
5 F4 103 -9.064
5 F4 104 -7.599
5 F4 105 -7.111
5 F4 106 -6.622
5 F4 107 -6.622
5 F4 108 -6.134
5 F4 109 -5.646
5 F4 110 -5.646
5 F4 111 -5.157
5 F4 112 -5.646
5 F4 113 -6.134
5 F4 114 -6.622
5 F4 115 -7.111
5 F4 116 -7.599
5 F4 117 -8.087
5 F4 118 -8.087
5 F4 119 -7.111
5 F4 120 -6.134
5 F4 121 -5.646
5 F4 122 -5.646
5 F4 123 -5.646
5 F4 124 -5.646
5 F4 125 -4.669
5 F4 126 -3.204
5 F4 127 -1.740
5 F4 128 -0.763
5 F4 129 -0.763
5 F4 130 -0.763
5 F4 131 -0.275
5 F4 132 0.702
5 F4 133 1.190
5 F4 134 1.678
5 F4 135 1.678
5 F4 136 1.190
5 F4 137 0.214
5 F4 138 -0.275
5 F4 139 -0.275
5 F4 140 0.214
5 F4 141 1.190
5 F4 142 2.167
5 F4 143 2.655
5 F4 144 2.655
5 F4 145 1.678
5 F4 146 1.678
5 F4 147 2.167
5 F4 148 3.632
5 F4 149 5.096
5 F4 150 6.561
5 F4 151 6.561
5 F4 152 6.561
5 F4 153 6.073
5 F4 154 6.073
5 F4 155 6.073
5 F4 156 6.073
5 F4 157 5.585
5 F4 158 4.608
5 F4 159 3.143
5 F4 160 2.167
5 F4 161 1.678
5 F4 162 1.678
5 F4 163 1.190
5 F4 164 1.190
5 F4 165 1.190
5 F4 166 0.702
5 F4 167 0.214
5 F4 168 -0.275
5 F4 169 -1.251
5 F4 170 -1.251
5 F4 171 -0.275
5 F4 172 0.702
5 F4 173 1.190
5 F4 174 1.190
5 F4 175 0.214
5 F4 176 -0.275
5 F4 177 -0.275
5 F4 178 0.214
5 F4 179 0.702
5 F4 180 -0.275
5 F4 181 -2.228
5 F4 182 -4.181
5 F4 183 -5.646
5 F4 184 -4.669
5 F4 185 -2.228
5 F4 186 -0.275
5 F4 187 0.702
5 F4 188 -0.275
5 F4 189 -1.740
5 F4 190 -2.228
5 F4 191 -1.740
5 F4 192 0.214
5 F4 193 2.167
5 F4 194 2.655
5 F4 195 2.167
5 F4 196 0.214
5 F4 197 -1.740
5 F4 198 -2.716
5 F4 199 -2.716
5 F4 200 -2.228
5 F4 201 -1.740
5 F4 202 -1.251
5 F4 203 -1.740
5 F4 204 -1.740
5 F4 205 -2.228
5 F4 206 -1.740
5 F4 207 -1.740
5 F4 208 -2.228
5 F4 209 -1.740
5 F4 210 -1.251
5 F4 211 -0.763
5 F4 212 -0.763
5 F4 213 -0.275
5 F4 214 0.702
5 F4 215 2.167
5 F4 216 4.120
5 F4 217 5.096
5 F4 218 6.073
5 F4 219 6.073
5 F4 220 5.096
5 F4 221 5.096
5 F4 222 5.585
5 F4 223 6.561
5 F4 224 8.026
5 F4 225 8.514
5 F4 226 8.514
5 F4 227 7.538
5 F4 228 7.050
5 F4 229 6.561
5 F4 230 7.050
5 F4 231 8.026
5 F4 232 9.491
5 F4 233 10.956
5 F4 234 11.932
5 F4 235 12.909
5 F4 236 11.932
5 F4 237 10.468
5 F4 238 8.514
5 F4 239 7.538
5 F4 240 6.561
5 F4 241 7.050
5 F4 242 7.538
5 F4 243 8.514
5 F4 244 8.514
5 F4 245 9.003
5 F4 246 9.491
5 F4 247 9.979
5 F4 248 10.956
5 F4 249 11.444
5 F4 250 11.444
5 F4 251 10.956
5 F4 252 9.979
5 F4 253 9.979
5 F4 254 10.468
5 F4 255 10.956
# F3 chan 8
5 F3 0 5.025
5 F3 1 6.002
5 F3 2 7.955
5 F3 3 9.908
5 F3 4 12.349
5 F3 5 13.326
5 F3 6 12.838
5 F3 7 10.885
5 F3 8 7.467
5 F3 9 3.560
5 F3 10 0.142
5 F3 11 -1.811
5 F3 12 -2.787
5 F3 13 -3.276
5 F3 14 -2.787
5 F3 15 -2.787
5 F3 16 -2.787
5 F3 17 -2.787
5 F3 18 -1.811
5 F3 19 -0.346
5 F3 20 2.584
5 F3 21 6.002
5 F3 22 8.931
5 F3 23 9.908
5 F3 24 10.396
5 F3 25 9.420
5 F3 26 7.955
5 F3 27 6.490
5 F3 28 4.049
5 F3 29 2.096
5 F3 30 0.142
5 F3 31 -0.834
5 F3 32 -1.322
5 F3 33 -1.811
5 F3 34 -2.299
5 F3 35 -3.276
5 F3 36 -5.229
5 F3 37 -6.694
5 F3 38 -7.670
5 F3 39 -6.694
5 F3 40 -3.764
5 F3 41 -0.346
5 F3 42 3.560
5 F3 43 7.467
5 F3 44 10.885
5 F3 45 13.326
5 F3 46 13.814
5 F3 47 13.326
5 F3 48 11.373
5 F3 49 9.420
5 F3 50 7.955
5 F3 51 7.955
5 F3 52 8.443
5 F3 53 8.443
5 F3 54 6.978
5 F3 55 5.025
5 F3 56 2.584
5 F3 57 1.119
5 F3 58 0.631
5 F3 59 0.631
5 F3 60 1.607
5 F3 61 2.584
5 F3 62 5.025
5 F3 63 8.443
5 F3 64 12.349
5 F3 65 15.767
5 F3 66 16.744
5 F3 67 14.791
5 F3 68 11.373
5 F3 69 7.955
5 F3 70 5.514
5 F3 71 4.537
5 F3 72 4.537
5 F3 73 3.560
5 F3 74 2.096
5 F3 75 0.142
5 F3 76 -1.322
5 F3 77 -2.299
5 F3 78 -1.811
5 F3 79 -1.322
5 F3 80 -2.299
5 F3 81 -2.787
5 F3 82 -3.276
5 F3 83 -2.299
5 F3 84 -0.834
5 F3 85 0.631
5 F3 86 1.607
5 F3 87 1.119
5 F3 88 0.631
5 F3 89 0.142
5 F3 90 0.142
5 F3 91 -0.346
5 F3 92 -2.299
5 F3 93 -5.229
5 F3 94 -7.670
5 F3 95 -9.623
5 F3 96 -9.623
5 F3 97 -8.158
5 F3 98 -6.694
5 F3 99 -6.205
5 F3 100 -6.205
5 F3 101 -6.694
5 F3 102 -6.694
5 F3 103 -6.205
5 F3 104 -5.717
5 F3 105 -4.740
5 F3 106 -3.764
5 F3 107 -2.299
5 F3 108 -0.834
5 F3 109 0.631
5 F3 110 1.607
5 F3 111 2.096
5 F3 112 2.096
5 F3 113 2.584
5 F3 114 3.072
5 F3 115 4.049
5 F3 116 5.025
5 F3 117 5.514
5 F3 118 5.025
5 F3 119 4.537
5 F3 120 5.025
5 F3 121 6.002
5 F3 122 6.978
5 F3 123 6.978
5 F3 124 6.490
5 F3 125 6.002
5 F3 126 6.002
5 F3 127 6.490
5 F3 128 7.467
5 F3 129 8.443
5 F3 130 8.443
5 F3 131 8.931
5 F3 132 8.931
5 F3 133 9.420
5 F3 134 9.908
5 F3 135 8.931
5 F3 136 6.978
5 F3 137 5.025
5 F3 138 3.560
5 F3 139 3.072
5 F3 140 3.560
5 F3 141 4.049
5 F3 142 4.537
5 F3 143 3.560
5 F3 144 3.072
5 F3 145 2.584
5 F3 146 3.072
5 F3 147 4.537
5 F3 148 6.002
5 F3 149 6.978
5 F3 150 7.467
5 F3 151 6.978
5 F3 152 6.490
5 F3 153 6.490
5 F3 154 6.490
5 F3 155 6.978
5 F3 156 7.955
5 F3 157 7.955
5 F3 158 6.978
5 F3 159 6.002
5 F3 160 5.514
5 F3 161 5.025
5 F3 162 5.025
5 F3 163 5.025
5 F3 164 4.049
5 F3 165 3.072
5 F3 166 2.584
5 F3 167 3.072
5 F3 168 4.049
5 F3 169 5.025
5 F3 170 5.025
5 F3 171 5.025
5 F3 172 4.537
5 F3 173 4.537
5 F3 174 4.049
5 F3 175 4.049
5 F3 176 4.049
5 F3 177 3.072
5 F3 178 2.584
5 F3 179 1.607
5 F3 180 0.142
5 F3 181 -1.322
5 F3 182 -3.764
5 F3 183 -4.252
5 F3 184 -4.252
5 F3 185 -3.276
5 F3 186 -1.811
5 F3 187 -1.322
5 F3 188 -2.299
5 F3 189 -4.252
5 F3 190 -5.229
5 F3 191 -4.740
5 F3 192 -2.787
5 F3 193 0.142
5 F3 194 2.584
5 F3 195 4.049
5 F3 196 4.049
5 F3 197 3.072
5 F3 198 1.607
5 F3 199 -0.346
5 F3 200 -2.299
5 F3 201 -3.276
5 F3 202 -3.764
5 F3 203 -3.764
5 F3 204 -3.276
5 F3 205 -2.787
5 F3 206 -2.787
5 F3 207 -2.299
5 F3 208 -2.299
5 F3 209 -2.299
5 F3 210 -1.811
5 F3 211 -1.322
5 F3 212 -0.834
5 F3 213 -0.346
5 F3 214 1.119
5 F3 215 2.584
5 F3 216 4.049
5 F3 217 5.025
5 F3 218 6.002
5 F3 219 6.002
5 F3 220 6.002
5 F3 221 7.467
5 F3 222 8.443
5 F3 223 9.908
5 F3 224 10.396
5 F3 225 10.396
5 F3 226 9.908
5 F3 227 8.931
5 F3 228 7.955
5 F3 229 7.955
5 F3 230 8.443
5 F3 231 8.931
5 F3 232 9.420
5 F3 233 10.396
5 F3 234 10.396
5 F3 235 10.396
5 F3 236 9.420
5 F3 237 7.467
5 F3 238 5.514
5 F3 239 4.537
5 F3 240 3.560
5 F3 241 2.584
5 F3 242 2.096
5 F3 243 1.607
5 F3 244 1.607
5 F3 245 2.096
5 F3 246 3.560
5 F3 247 4.537
5 F3 248 5.025
5 F3 249 4.537
5 F3 250 4.537
5 F3 251 4.049
5 F3 252 4.049
5 F3 253 4.049
5 F3 254 4.049
5 F3 255 3.560
# FC6 chan 9
5 FC6 0 -1.953
5 FC6 1 -3.418
5 FC6 2 -4.395
5 FC6 3 -4.883
5 FC6 4 -4.395
5 FC6 5 -2.930
5 FC6 6 -1.953
5 FC6 7 -1.953
5 FC6 8 -3.418
5 FC6 9 -5.371
5 FC6 10 -7.324
5 FC6 11 -7.812
5 FC6 12 -5.859
5 FC6 13 -2.441
5 FC6 14 1.953
5 FC6 15 4.883
5 FC6 16 5.371
5 FC6 17 4.883
5 FC6 18 3.906
5 FC6 19 3.418
5 FC6 20 4.395
5 FC6 21 5.371
5 FC6 22 4.883
5 FC6 23 2.441
5 FC6 24 -0.977
5 FC6 25 -3.418
5 FC6 26 -3.906
5 FC6 27 -3.418
5 FC6 28 -3.418
5 FC6 29 -4.395
5 FC6 30 -5.859
5 FC6 31 -5.859
5 FC6 32 -3.906
5 FC6 33 -0.488
5 FC6 34 1.465
5 FC6 35 1.465
5 FC6 36 -0.488
5 FC6 37 -2.441
5 FC6 38 -3.418
5 FC6 39 -2.441
5 FC6 40 -0.977
5 FC6 41 0.488
5 FC6 42 0.977
5 FC6 43 0.977
5 FC6 44 2.441
5 FC6 45 3.418
5 FC6 46 4.395
5 FC6 47 4.395
5 FC6 48 2.930
5 FC6 49 1.465
5 FC6 50 0.488
5 FC6 51 0.488
5 FC6 52 1.465
5 FC6 53 0.977
5 FC6 54 -0.488
5 FC6 55 -2.930
5 FC6 56 -4.883
5 FC6 57 -5.371
5 FC6 58 -4.395
5 FC6 59 -2.930
5 FC6 60 -1.953
5 FC6 61 -1.465
5 FC6 62 -0.977
5 FC6 63 -1.465
5 FC6 64 -1.465
5 FC6 65 -1.465
5 FC6 66 -1.953
5 FC6 67 -1.953
5 FC6 68 -1.953
5 FC6 69 -1.465
5 FC6 70 -0.977
5 FC6 71 -0.977
5 FC6 72 -1.465
5 FC6 73 -2.930
5 FC6 74 -4.883
5 FC6 75 -6.836
5 FC6 76 -7.812
5 FC6 77 -7.324
5 FC6 78 -5.371
5 FC6 79 -3.906
5 FC6 80 -3.418
5 FC6 81 -3.418
5 FC6 82 -4.395
5 FC6 83 -4.883
5 FC6 84 -5.371
5 FC6 85 -5.371
5 FC6 86 -4.883
5 FC6 87 -5.371
5 FC6 88 -6.836
5 FC6 89 -7.812
5 FC6 90 -8.301
5 FC6 91 -7.812
5 FC6 92 -6.348
5 FC6 93 -4.883
5 FC6 94 -3.906
5 FC6 95 -3.906
5 FC6 96 -3.906
5 FC6 97 -4.395
5 FC6 98 -4.395
5 FC6 99 -3.906
5 FC6 100 -3.906
5 FC6 101 -4.395
5 FC6 102 -4.395
5 FC6 103 -3.906
5 FC6 104 -2.441
5 FC6 105 -0.488
5 FC6 106 1.465
5 FC6 107 1.953
5 FC6 108 1.953
5 FC6 109 1.465
5 FC6 110 0.977
5 FC6 111 0.488
5 FC6 112 0.977
5 FC6 113 0.488
5 FC6 114 -0.488
5 FC6 115 -0.488
5 FC6 116 -1.465
5 FC6 117 -1.465
5 FC6 118 -0.977
5 FC6 119 0.488
5 FC6 120 1.465
5 FC6 121 1.953
5 FC6 122 0.488
5 FC6 123 -0.977
5 FC6 124 -2.441
5 FC6 125 -1.465
5 FC6 126 0.488
5 FC6 127 2.441
5 FC6 128 3.418
5 FC6 129 2.930
5 FC6 130 1.953
5 FC6 131 0.977
5 FC6 132 0.977
5 FC6 133 2.441
5 FC6 134 4.395
5 FC6 135 4.883
5 FC6 136 5.371
5 FC6 137 5.371
5 FC6 138 4.883
5 FC6 139 4.883
5 FC6 140 5.371
5 FC6 141 4.883
5 FC6 142 4.883
5 FC6 143 5.371
5 FC6 144 5.371
5 FC6 145 5.859
5 FC6 146 5.371
5 FC6 147 5.371
5 FC6 148 4.883
5 FC6 149 5.371
5 FC6 150 5.859
5 FC6 151 6.836
5 FC6 152 7.324
5 FC6 153 7.324
5 FC6 154 6.836
5 FC6 155 6.836
5 FC6 156 7.812
5 FC6 157 9.277
5 FC6 158 9.766
5 FC6 159 9.766
5 FC6 160 9.277
5 FC6 161 9.277
5 FC6 162 10.254
5 FC6 163 11.230
5 FC6 164 11.719
5 FC6 165 11.230
5 FC6 166 9.766
5 FC6 167 7.812
5 FC6 168 6.836
5 FC6 169 6.836
5 FC6 170 7.812
5 FC6 171 8.301
5 FC6 172 8.301
5 FC6 173 6.836
5 FC6 174 5.371
5 FC6 175 3.418
5 FC6 176 2.930
5 FC6 177 3.418
5 FC6 178 3.906
5 FC6 179 4.395
5 FC6 180 2.930
5 FC6 181 0.000
5 FC6 182 -2.930
5 FC6 183 -4.883
5 FC6 184 -4.883
5 FC6 185 -2.930
5 FC6 186 0.000
5 FC6 187 1.953
5 FC6 188 1.953
5 FC6 189 1.465
5 FC6 190 0.977
5 FC6 191 1.953
5 FC6 192 3.418
5 FC6 193 5.371
5 FC6 194 5.859
5 FC6 195 3.906
5 FC6 196 1.465
5 FC6 197 -0.977
5 FC6 198 -1.465
5 FC6 199 -0.977
5 FC6 200 0.000
5 FC6 201 0.977
5 FC6 202 0.977
5 FC6 203 0.000
5 FC6 204 -0.488
5 FC6 205 -0.488
5 FC6 206 0.977
5 FC6 207 1.953
5 FC6 208 2.930
5 FC6 209 2.930
5 FC6 210 2.441
5 FC6 211 2.441
5 FC6 212 1.953
5 FC6 213 1.953
5 FC6 214 1.953
5 FC6 215 1.953
5 FC6 216 1.953
5 FC6 217 2.930
5 FC6 218 4.395
5 FC6 219 5.859
5 FC6 220 6.836
5 FC6 221 7.812
5 FC6 222 7.324
5 FC6 223 7.324
5 FC6 224 7.812
5 FC6 225 8.789
5 FC6 226 10.254
5 FC6 227 10.742
5 FC6 228 11.230
5 FC6 229 11.230
5 FC6 230 11.230
5 FC6 231 11.719
5 FC6 232 12.695
5 FC6 233 13.672
5 FC6 234 14.648
5 FC6 235 15.137
5 FC6 236 15.137
5 FC6 237 14.160
5 FC6 238 14.160
5 FC6 239 14.160
5 FC6 240 14.648
5 FC6 241 15.137
5 FC6 242 14.648
5 FC6 243 12.695
5 FC6 244 10.254
5 FC6 245 8.301
5 FC6 246 8.301
5 FC6 247 8.789
5 FC6 248 10.254
5 FC6 249 9.766
5 FC6 250 7.812
5 FC6 251 5.371
5 FC6 252 3.418
5 FC6 253 3.418
5 FC6 254 4.395
5 FC6 255 5.371
# FC5 chan 10
5 FC5 0 5.819
5 FC5 1 6.307
5 FC5 2 6.795
5 FC5 3 8.748
5 FC5 4 10.701
5 FC5 5 11.678
5 FC5 6 10.701
5 FC5 7 8.260
5 FC5 8 5.819
5 FC5 9 3.377
5 FC5 10 1.912
5 FC5 11 0.936
5 FC5 12 -0.041
5 FC5 13 -1.017
5 FC5 14 -1.994
5 FC5 15 -2.970
5 FC5 16 -3.459
5 FC5 17 -3.459
5 FC5 18 -2.482
5 FC5 19 -1.017
5 FC5 20 1.912
5 FC5 21 5.330
5 FC5 22 8.260
5 FC5 23 9.237
5 FC5 24 9.237
5 FC5 25 7.772
5 FC5 26 6.307
5 FC5 27 5.330
5 FC5 28 4.842
5 FC5 29 4.354
5 FC5 30 3.866
5 FC5 31 2.401
5 FC5 32 0.936
5 FC5 33 -0.529
5 FC5 34 -2.482
5 FC5 35 -4.435
5 FC5 36 -7.365
5 FC5 37 -9.806
5 FC5 38 -10.783
5 FC5 39 -9.806
5 FC5 40 -6.877
5 FC5 41 -2.970
5 FC5 42 1.424
5 FC5 43 4.354
5 FC5 44 7.284
5 FC5 45 10.213
5 FC5 46 11.678
5 FC5 47 11.678
5 FC5 48 10.213
5 FC5 49 7.772
5 FC5 50 5.330
5 FC5 51 3.866
5 FC5 52 2.889
5 FC5 53 2.401
5 FC5 54 1.424
5 FC5 55 -0.041
5 FC5 56 -1.017
5 FC5 57 -2.482
5 FC5 58 -3.459
5 FC5 59 -4.435
5 FC5 60 -4.924
5 FC5 61 -4.924
5 FC5 62 -1.994
5 FC5 63 3.377
5 FC5 64 10.213
5 FC5 65 15.584
5 FC5 66 18.026
5 FC5 67 17.049
5 FC5 68 14.119
5 FC5 69 11.190
5 FC5 70 10.701
5 FC5 71 11.678
5 FC5 72 12.166
5 FC5 73 11.190
5 FC5 74 8.748
5 FC5 75 6.307
5 FC5 76 4.354
5 FC5 77 3.866
5 FC5 78 3.377
5 FC5 79 1.912
5 FC5 80 -0.041
5 FC5 81 -1.994
5 FC5 82 -2.482
5 FC5 83 -1.506
5 FC5 84 0.448
5 FC5 85 1.912
5 FC5 86 2.889
5 FC5 87 3.866
5 FC5 88 4.354
5 FC5 89 5.330
5 FC5 90 6.307
5 FC5 91 6.307
5 FC5 92 5.819
5 FC5 93 4.354
5 FC5 94 3.377
5 FC5 95 1.912
5 FC5 96 0.936
5 FC5 97 0.448
5 FC5 98 0.448
5 FC5 99 0.936
5 FC5 100 1.424
5 FC5 101 2.401
5 FC5 102 1.912
5 FC5 103 0.448
5 FC5 104 -1.017
5 FC5 105 -2.482
5 FC5 106 -1.994
5 FC5 107 -0.529
5 FC5 108 1.912
5 FC5 109 3.866
5 FC5 110 4.354
5 FC5 111 4.354
5 FC5 112 4.354
5 FC5 113 4.354
5 FC5 114 4.842
5 FC5 115 5.819
5 FC5 116 7.284
5 FC5 117 7.772
5 FC5 118 7.772
5 FC5 119 7.772
5 FC5 120 7.284
5 FC5 121 7.772
5 FC5 122 8.260
5 FC5 123 8.748
5 FC5 124 8.748
5 FC5 125 8.748
5 FC5 126 8.748
5 FC5 127 9.237
5 FC5 128 9.725
5 FC5 129 10.701
5 FC5 130 11.678
5 FC5 131 12.166
5 FC5 132 13.143
5 FC5 133 14.119
5 FC5 134 14.608
5 FC5 135 15.096
5 FC5 136 14.608
5 FC5 137 13.631
5 FC5 138 12.655
5 FC5 139 11.678
5 FC5 140 11.678
5 FC5 141 11.190
5 FC5 142 10.701
5 FC5 143 10.701
5 FC5 144 10.213
5 FC5 145 10.213
5 FC5 146 10.213
5 FC5 147 10.701
5 FC5 148 11.190
5 FC5 149 12.166
5 FC5 150 12.655
5 FC5 151 13.143
5 FC5 152 12.655
5 FC5 153 11.190
5 FC5 154 9.725
5 FC5 155 8.748
5 FC5 156 8.748
5 FC5 157 9.725
5 FC5 158 10.213
5 FC5 159 10.213
5 FC5 160 10.213
5 FC5 161 10.213
5 FC5 162 10.701
5 FC5 163 11.678
5 FC5 164 12.655
5 FC5 165 13.631
5 FC5 166 14.608
5 FC5 167 16.073
5 FC5 168 17.049
5 FC5 169 17.049
5 FC5 170 16.073
5 FC5 171 15.096
5 FC5 172 14.608
5 FC5 173 15.096
5 FC5 174 16.073
5 FC5 175 16.073
5 FC5 176 15.096
5 FC5 177 12.655
5 FC5 178 10.701
5 FC5 179 9.237
5 FC5 180 8.748
5 FC5 181 8.260
5 FC5 182 7.772
5 FC5 183 7.284
5 FC5 184 7.284
5 FC5 185 8.260
5 FC5 186 9.725
5 FC5 187 10.701
5 FC5 188 10.213
5 FC5 189 8.260
5 FC5 190 6.307
5 FC5 191 5.330
5 FC5 192 6.307
5 FC5 193 7.772
5 FC5 194 9.725
5 FC5 195 11.678
5 FC5 196 12.655
5 FC5 197 12.166
5 FC5 198 10.701
5 FC5 199 8.748
5 FC5 200 6.795
5 FC5 201 5.819
5 FC5 202 6.307
5 FC5 203 6.307
5 FC5 204 6.307
5 FC5 205 5.330
5 FC5 206 4.354
5 FC5 207 3.377
5 FC5 208 3.866
5 FC5 209 4.842
5 FC5 210 5.330
5 FC5 211 5.819
5 FC5 212 4.842
5 FC5 213 4.354
5 FC5 214 4.842
5 FC5 215 5.819
5 FC5 216 7.772
5 FC5 217 9.725
5 FC5 218 12.166
5 FC5 219 14.119
5 FC5 220 16.073
5 FC5 221 17.049
5 FC5 222 17.049
5 FC5 223 17.049
5 FC5 224 16.561
5 FC5 225 16.073
5 FC5 226 16.561
5 FC5 227 17.049
5 FC5 228 17.537
5 FC5 229 17.537
5 FC5 230 16.561
5 FC5 231 16.073
5 FC5 232 16.073
5 FC5 233 16.561
5 FC5 234 17.537
5 FC5 235 18.514
5 FC5 236 18.514
5 FC5 237 18.026
5 FC5 238 17.537
5 FC5 239 17.049
5 FC5 240 17.049
5 FC5 241 16.561
5 FC5 242 15.096
5 FC5 243 13.631
5 FC5 244 12.655
5 FC5 245 11.678
5 FC5 246 11.190
5 FC5 247 11.190
5 FC5 248 10.701
5 FC5 249 9.237
5 FC5 250 8.260
5 FC5 251 7.284
5 FC5 252 5.819
5 FC5 253 4.354
5 FC5 254 3.377
5 FC5 255 3.377
# FC2 chan 11
5 FC2 0 -1.699
5 FC2 1 -1.699
5 FC2 2 -0.722
5 FC2 3 0.254
5 FC2 4 0.743
5 FC2 5 1.231
5 FC2 6 0.254
5 FC2 7 -0.722
5 FC2 8 -1.699
5 FC2 9 -3.652
5 FC2 10 -5.117
5 FC2 11 -6.582
5 FC2 12 -7.070
5 FC2 13 -6.582
5 FC2 14 -4.628
5 FC2 15 -3.164
5 FC2 16 -2.675
5 FC2 17 -3.164
5 FC2 18 -4.140
5 FC2 19 -4.140
5 FC2 20 -3.164
5 FC2 21 -2.187
5 FC2 22 -1.699
5 FC2 23 -2.187
5 FC2 24 -2.675
5 FC2 25 -3.164
5 FC2 26 -3.164
5 FC2 27 -2.675
5 FC2 28 -3.652
5 FC2 29 -5.117
5 FC2 30 -6.582
5 FC2 31 -8.046
5 FC2 32 -8.046
5 FC2 33 -7.558
5 FC2 34 -7.070
5 FC2 35 -6.582
5 FC2 36 -7.070
5 FC2 37 -7.558
5 FC2 38 -7.070
5 FC2 39 -6.093
5 FC2 40 -5.117
5 FC2 41 -4.140
5 FC2 42 -2.675
5 FC2 43 -1.699
5 FC2 44 -1.699
5 FC2 45 -1.699
5 FC2 46 -1.699
5 FC2 47 -2.187
5 FC2 48 -2.187
5 FC2 49 -2.675
5 FC2 50 -2.675
5 FC2 51 -2.675
5 FC2 52 -3.652
5 FC2 53 -4.628
5 FC2 54 -6.093
5 FC2 55 -7.558
5 FC2 56 -8.046
5 FC2 57 -8.535
5 FC2 58 -8.535
5 FC2 59 -8.046
5 FC2 60 -7.558
5 FC2 61 -7.070
5 FC2 62 -7.070
5 FC2 63 -7.070
5 FC2 64 -7.558
5 FC2 65 -8.046
5 FC2 66 -8.535
5 FC2 67 -9.023
5 FC2 68 -9.511
5 FC2 69 -10.976
5 FC2 70 -11.953
5 FC2 71 -12.929
5 FC2 72 -13.418
5 FC2 73 -13.418
5 FC2 74 -13.418
5 FC2 75 -13.906
5 FC2 76 -14.394
5 FC2 77 -14.394
5 FC2 78 -14.394
5 FC2 79 -13.906
5 FC2 80 -13.418
5 FC2 81 -12.441
5 FC2 82 -12.441
5 FC2 83 -12.441
5 FC2 84 -11.953
5 FC2 85 -11.464
5 FC2 86 -10.488
5 FC2 87 -10.000
5 FC2 88 -10.000
5 FC2 89 -10.000
5 FC2 90 -10.976
5 FC2 91 -11.464
5 FC2 92 -12.441
5 FC2 93 -12.441
5 FC2 94 -12.441
5 FC2 95 -12.441
5 FC2 96 -11.953
5 FC2 97 -10.976
5 FC2 98 -10.976
5 FC2 99 -10.976
5 FC2 100 -10.976
5 FC2 101 -10.488
5 FC2 102 -10.488
5 FC2 103 -9.511
5 FC2 104 -9.023
5 FC2 105 -8.535
5 FC2 106 -7.558
5 FC2 107 -7.070
5 FC2 108 -7.070
5 FC2 109 -7.070
5 FC2 110 -7.070
5 FC2 111 -8.046
5 FC2 112 -9.023
5 FC2 113 -9.511
5 FC2 114 -10.000
5 FC2 115 -10.000
5 FC2 116 -9.511
5 FC2 117 -9.023
5 FC2 118 -8.046
5 FC2 119 -7.070
5 FC2 120 -6.582
5 FC2 121 -6.582
5 FC2 122 -7.558
5 FC2 123 -8.046
5 FC2 124 -8.535
5 FC2 125 -8.046
5 FC2 126 -6.582
5 FC2 127 -5.117
5 FC2 128 -4.140
5 FC2 129 -4.140
5 FC2 130 -4.628
5 FC2 131 -5.117
5 FC2 132 -5.117
5 FC2 133 -4.628
5 FC2 134 -3.652
5 FC2 135 -3.652
5 FC2 136 -4.140
5 FC2 137 -5.117
5 FC2 138 -6.093
5 FC2 139 -6.582
5 FC2 140 -6.093
5 FC2 141 -5.605
5 FC2 142 -5.117
5 FC2 143 -4.628
5 FC2 144 -5.117
5 FC2 145 -4.628
5 FC2 146 -4.140
5 FC2 147 -3.652
5 FC2 148 -2.675
5 FC2 149 -1.699
5 FC2 150 -0.722
5 FC2 151 -0.722
5 FC2 152 -1.211
5 FC2 153 -1.699
5 FC2 154 -1.699
5 FC2 155 -0.722
5 FC2 156 0.254
5 FC2 157 0.254
5 FC2 158 -0.234
5 FC2 159 -1.699
5 FC2 160 -2.675
5 FC2 161 -3.164
5 FC2 162 -3.164
5 FC2 163 -3.164
5 FC2 164 -3.652
5 FC2 165 -4.140
5 FC2 166 -4.628
5 FC2 167 -4.628
5 FC2 168 -5.117
5 FC2 169 -4.628
5 FC2 170 -4.628
5 FC2 171 -4.628
5 FC2 172 -5.117
5 FC2 173 -5.117
5 FC2 174 -4.628
5 FC2 175 -4.140
5 FC2 176 -4.140
5 FC2 177 -4.140
5 FC2 178 -4.140
5 FC2 179 -4.628
5 FC2 180 -6.093
5 FC2 181 -7.558
5 FC2 182 -8.535
5 FC2 183 -9.511
5 FC2 184 -9.023
5 FC2 185 -8.046
5 FC2 186 -7.070
5 FC2 187 -6.093
5 FC2 188 -6.093
5 FC2 189 -6.582
5 FC2 190 -6.582
5 FC2 191 -6.582
5 FC2 192 -6.582
5 FC2 193 -6.582
5 FC2 194 -6.582
5 FC2 195 -7.070
5 FC2 196 -8.046
5 FC2 197 -8.535
5 FC2 198 -8.535
5 FC2 199 -8.535
5 FC2 200 -9.023
5 FC2 201 -9.511
5 FC2 202 -10.000
5 FC2 203 -10.000
5 FC2 204 -9.511
5 FC2 205 -9.023
5 FC2 206 -8.535
5 FC2 207 -8.535
5 FC2 208 -8.535
5 FC2 209 -8.535
5 FC2 210 -8.535
5 FC2 211 -8.535
5 FC2 212 -8.535
5 FC2 213 -8.046
5 FC2 214 -7.558
5 FC2 215 -7.070
5 FC2 216 -5.605
5 FC2 217 -4.140
5 FC2 218 -3.652
5 FC2 219 -4.628
5 FC2 220 -5.605
5 FC2 221 -6.093
5 FC2 222 -6.582
5 FC2 223 -6.093
5 FC2 224 -5.605
5 FC2 225 -5.117
5 FC2 226 -4.628
5 FC2 227 -4.628
5 FC2 228 -4.628
5 FC2 229 -4.628
5 FC2 230 -4.628
5 FC2 231 -4.140
5 FC2 232 -4.140
5 FC2 233 -3.652
5 FC2 234 -3.652
5 FC2 235 -3.164
5 FC2 236 -4.140
5 FC2 237 -5.605
5 FC2 238 -6.582
5 FC2 239 -8.046
5 FC2 240 -8.535
5 FC2 241 -8.535
5 FC2 242 -8.535
5 FC2 243 -8.535
5 FC2 244 -8.046
5 FC2 245 -7.558
5 FC2 246 -6.582
5 FC2 247 -5.605
5 FC2 248 -4.140
5 FC2 249 -3.652
5 FC2 250 -3.164
5 FC2 251 -3.164
5 FC2 252 -2.675
5 FC2 253 -1.699
5 FC2 254 -1.211
5 FC2 255 -1.211
# FC1 chan 12
5 FC1 0 4.567
5 FC1 1 5.544
5 FC1 2 6.521
5 FC1 3 7.009
5 FC1 4 7.497
5 FC1 5 7.497
5 FC1 6 7.009
5 FC1 7 6.032
5 FC1 8 5.056
5 FC1 9 3.103
5 FC1 10 1.149
5 FC1 11 -0.804
5 FC1 12 -2.268
5 FC1 13 -3.245
5 FC1 14 -3.245
5 FC1 15 -2.757
5 FC1 16 -2.268
5 FC1 17 -2.268
5 FC1 18 -1.780
5 FC1 19 -0.804
5 FC1 20 0.661
5 FC1 21 3.103
5 FC1 22 5.056
5 FC1 23 6.521
5 FC1 24 7.009
5 FC1 25 6.521
5 FC1 26 5.544
5 FC1 27 4.567
5 FC1 28 3.103
5 FC1 29 2.126
5 FC1 30 1.149
5 FC1 31 0.661
5 FC1 32 1.149
5 FC1 33 0.661
5 FC1 34 0.173
5 FC1 35 -0.804
5 FC1 36 -2.268
5 FC1 37 -2.757
5 FC1 38 -3.245
5 FC1 39 -2.757
5 FC1 40 -1.292
5 FC1 41 0.661
5 FC1 42 2.614
5 FC1 43 4.079
5 FC1 44 5.544
5 FC1 45 6.521
5 FC1 46 7.009
5 FC1 47 6.032
5 FC1 48 5.056
5 FC1 49 4.079
5 FC1 50 3.591
5 FC1 51 3.591
5 FC1 52 3.591
5 FC1 53 3.103
5 FC1 54 2.614
5 FC1 55 1.638
5 FC1 56 1.149
5 FC1 57 0.661
5 FC1 58 0.173
5 FC1 59 0.173
5 FC1 60 0.173
5 FC1 61 0.661
5 FC1 62 2.126
5 FC1 63 4.079
5 FC1 64 6.032
5 FC1 65 7.985
5 FC1 66 8.962
5 FC1 67 8.474
5 FC1 68 7.009
5 FC1 69 5.056
5 FC1 70 3.103
5 FC1 71 2.126
5 FC1 72 1.638
5 FC1 73 1.149
5 FC1 74 0.661
5 FC1 75 0.661
5 FC1 76 0.173
5 FC1 77 -0.315
5 FC1 78 -0.315
5 FC1 79 -0.315
5 FC1 80 -1.292
5 FC1 81 -1.780
5 FC1 82 -1.292
5 FC1 83 -0.315
5 FC1 84 1.149
5 FC1 85 3.103
5 FC1 86 4.567
5 FC1 87 5.544
5 FC1 88 6.032
5 FC1 89 6.521
5 FC1 90 6.521
5 FC1 91 6.032
5 FC1 92 5.056
5 FC1 93 3.103
5 FC1 94 1.149
5 FC1 95 -0.315
5 FC1 96 -0.804
5 FC1 97 -0.804
5 FC1 98 0.173
5 FC1 99 0.661
5 FC1 100 1.149
5 FC1 101 1.638
5 FC1 102 2.126
5 FC1 103 2.614
5 FC1 104 3.103
5 FC1 105 3.591
5 FC1 106 4.079
5 FC1 107 4.079
5 FC1 108 5.056
5 FC1 109 6.032
5 FC1 110 7.009
5 FC1 111 7.497
5 FC1 112 7.009
5 FC1 113 7.009
5 FC1 114 6.521
5 FC1 115 6.521
5 FC1 116 6.521
5 FC1 117 6.521
5 FC1 118 7.009
5 FC1 119 7.009
5 FC1 120 7.009
5 FC1 121 7.985
5 FC1 122 8.474
5 FC1 123 9.450
5 FC1 124 9.939
5 FC1 125 9.939
5 FC1 126 10.427
5 FC1 127 10.915
5 FC1 128 11.403
5 FC1 129 11.403
5 FC1 130 11.403
5 FC1 131 11.403
5 FC1 132 11.403
5 FC1 133 11.403
5 FC1 134 11.403
5 FC1 135 11.403
5 FC1 136 10.915
5 FC1 137 10.427
5 FC1 138 9.450
5 FC1 139 8.962
5 FC1 140 8.962
5 FC1 141 8.962
5 FC1 142 9.450
5 FC1 143 8.962
5 FC1 144 8.962
5 FC1 145 8.474
5 FC1 146 8.474
5 FC1 147 8.474
5 FC1 148 8.962
5 FC1 149 9.450
5 FC1 150 9.939
5 FC1 151 9.939
5 FC1 152 9.939
5 FC1 153 9.939
5 FC1 154 9.939
5 FC1 155 10.427
5 FC1 156 9.939
5 FC1 157 9.939
5 FC1 158 9.450
5 FC1 159 8.474
5 FC1 160 7.985
5 FC1 161 7.985
5 FC1 162 8.474
5 FC1 163 7.985
5 FC1 164 7.985
5 FC1 165 7.009
5 FC1 166 7.009
5 FC1 167 7.985
5 FC1 168 8.474
5 FC1 169 9.450
5 FC1 170 9.939
5 FC1 171 9.939
5 FC1 172 9.450
5 FC1 173 8.962
5 FC1 174 8.962
5 FC1 175 9.450
5 FC1 176 9.939
5 FC1 177 9.939
5 FC1 178 9.450
5 FC1 179 8.962
5 FC1 180 7.497
5 FC1 181 6.521
5 FC1 182 6.521
5 FC1 183 7.009
5 FC1 184 7.985
5 FC1 185 8.474
5 FC1 186 8.474
5 FC1 187 7.985
5 FC1 188 7.497
5 FC1 189 6.032
5 FC1 190 5.544
5 FC1 191 5.544
5 FC1 192 5.544
5 FC1 193 6.032
5 FC1 194 7.009
5 FC1 195 7.497
5 FC1 196 7.497
5 FC1 197 7.497
5 FC1 198 6.032
5 FC1 199 4.567
5 FC1 200 3.591
5 FC1 201 2.614
5 FC1 202 2.614
5 FC1 203 2.614
5 FC1 204 3.103
5 FC1 205 3.103
5 FC1 206 2.614
5 FC1 207 2.614
5 FC1 208 2.126
5 FC1 209 3.103
5 FC1 210 3.591
5 FC1 211 4.079
5 FC1 212 4.567
5 FC1 213 4.567
5 FC1 214 4.567
5 FC1 215 5.056
5 FC1 216 5.056
5 FC1 217 5.056
5 FC1 218 6.032
5 FC1 219 6.032
5 FC1 220 7.009
5 FC1 221 7.497
5 FC1 222 7.985
5 FC1 223 8.474
5 FC1 224 8.474
5 FC1 225 8.474
5 FC1 226 7.985
5 FC1 227 7.497
5 FC1 228 6.521
5 FC1 229 5.544
5 FC1 230 5.056
5 FC1 231 5.056
5 FC1 232 5.056
5 FC1 233 5.544
5 FC1 234 5.544
5 FC1 235 5.056
5 FC1 236 5.056
5 FC1 237 4.079
5 FC1 238 3.591
5 FC1 239 3.591
5 FC1 240 3.591
5 FC1 241 3.103
5 FC1 242 3.103
5 FC1 243 3.103
5 FC1 244 3.103
5 FC1 245 4.079
5 FC1 246 5.544
5 FC1 247 6.521
5 FC1 248 7.985
5 FC1 249 8.474
5 FC1 250 9.450
5 FC1 251 9.939
5 FC1 252 9.450
5 FC1 253 8.962
5 FC1 254 7.985
5 FC1 255 7.497
# T8 chan 13
5 T8 0 -4.740
5 T8 1 -5.229
5 T8 2 -4.740
5 T8 3 -4.252
5 T8 4 -3.276
5 T8 5 -3.764
5 T8 6 -4.740
5 T8 7 -6.205
5 T8 8 -7.182
5 T8 9 -7.670
5 T8 10 -7.182
5 T8 11 -5.229
5 T8 12 -2.787
5 T8 13 0.142
5 T8 14 3.560
5 T8 15 6.490
5 T8 16 8.443
5 T8 17 9.420
5 T8 18 9.420
5 T8 19 9.908
5 T8 20 10.396
5 T8 21 10.396
5 T8 22 8.931
5 T8 23 6.002
5 T8 24 2.096
5 T8 25 -1.322
5 T8 26 -3.276
5 T8 27 -3.764
5 T8 28 -3.276
5 T8 29 -2.787
5 T8 30 -2.787
5 T8 31 -3.276
5 T8 32 -2.787
5 T8 33 -1.811
5 T8 34 -0.346
5 T8 35 0.631
5 T8 36 -0.346
5 T8 37 -1.322
5 T8 38 -2.299
5 T8 39 -2.299
5 T8 40 -0.346
5 T8 41 1.119
5 T8 42 2.584
5 T8 43 3.072
5 T8 44 3.072
5 T8 45 4.049
5 T8 46 5.514
5 T8 47 6.978
5 T8 48 7.955
5 T8 49 6.978
5 T8 50 5.025
5 T8 51 2.096
5 T8 52 -0.346
5 T8 53 -2.299
5 T8 54 -3.276
5 T8 55 -4.252
5 T8 56 -4.252
5 T8 57 -3.276
5 T8 58 -2.299
5 T8 59 -0.834
5 T8 60 0.142
5 T8 61 1.119
5 T8 62 2.096
5 T8 63 2.096
5 T8 64 2.096
5 T8 65 1.607
5 T8 66 1.607
5 T8 67 2.584
5 T8 68 4.049
5 T8 69 5.514
5 T8 70 6.002
5 T8 71 5.514
5 T8 72 4.049
5 T8 73 1.607
5 T8 74 -0.346
5 T8 75 -1.322
5 T8 76 -1.322
5 T8 77 -1.322
5 T8 78 -1.322
5 T8 79 -1.322
5 T8 80 -1.811
5 T8 81 -2.299
5 T8 82 -2.299
5 T8 83 -1.322
5 T8 84 0.142
5 T8 85 1.119
5 T8 86 1.607
5 T8 87 0.631
5 T8 88 -1.811
5 T8 89 -3.764
5 T8 90 -5.717
5 T8 91 -5.717
5 T8 92 -4.740
5 T8 93 -2.787
5 T8 94 -1.322
5 T8 95 0.142
5 T8 96 0.631
5 T8 97 0.631
5 T8 98 -0.346
5 T8 99 -1.322
5 T8 100 -2.787
5 T8 101 -3.276
5 T8 102 -3.276
5 T8 103 -1.322
5 T8 104 1.119
5 T8 105 3.072
5 T8 106 4.537
5 T8 107 4.049
5 T8 108 3.560
5 T8 109 3.072
5 T8 110 4.049
5 T8 111 5.514
5 T8 112 6.490
5 T8 113 6.978
5 T8 114 5.514
5 T8 115 4.537
5 T8 116 4.049
5 T8 117 4.537
5 T8 118 6.490
5 T8 119 7.955
5 T8 120 8.443
5 T8 121 6.978
5 T8 122 5.025
5 T8 123 3.072
5 T8 124 2.096
5 T8 125 2.096
5 T8 126 1.607
5 T8 127 1.607
5 T8 128 1.607
5 T8 129 2.096
5 T8 130 3.560
5 T8 131 6.002
5 T8 132 8.443
5 T8 133 9.908
5 T8 134 10.396
5 T8 135 10.396
5 T8 136 10.396
5 T8 137 10.396
5 T8 138 10.885
5 T8 139 11.373
5 T8 140 10.885
5 T8 141 11.373
5 T8 142 11.373
5 T8 143 11.861
5 T8 144 11.861
5 T8 145 10.885
5 T8 146 9.420
5 T8 147 7.955
5 T8 148 7.467
5 T8 149 7.955
5 T8 150 9.420
5 T8 151 9.908
5 T8 152 9.420
5 T8 153 7.955
5 T8 154 6.490
5 T8 155 6.490
5 T8 156 8.931
5 T8 157 11.861
5 T8 158 14.791
5 T8 159 17.232
5 T8 160 17.721
5 T8 161 17.721
5 T8 162 17.232
5 T8 163 17.232
5 T8 164 17.232
5 T8 165 17.232
5 T8 166 17.721
5 T8 167 17.721
5 T8 168 18.209
5 T8 169 18.209
5 T8 170 17.721
5 T8 171 17.232
5 T8 172 16.256
5 T8 173 14.791
5 T8 174 13.326
5 T8 175 11.861
5 T8 176 10.396
5 T8 177 9.420
5 T8 178 9.420
5 T8 179 9.908
5 T8 180 9.908
5 T8 181 9.420
5 T8 182 8.931
5 T8 183 7.467
5 T8 184 7.467
5 T8 185 8.443
5 T8 186 9.420
5 T8 187 10.885
5 T8 188 11.373
5 T8 189 11.373
5 T8 190 10.885
5 T8 191 10.885
5 T8 192 11.373
5 T8 193 11.861
5 T8 194 12.349
5 T8 195 12.349
5 T8 196 11.861
5 T8 197 11.861
5 T8 198 11.861
5 T8 199 12.349
5 T8 200 12.838
5 T8 201 13.814
5 T8 202 14.791
5 T8 203 15.279
5 T8 204 15.279
5 T8 205 15.279
5 T8 206 15.279
5 T8 207 15.767
5 T8 208 16.256
5 T8 209 16.256
5 T8 210 16.256
5 T8 211 15.279
5 T8 212 13.814
5 T8 213 12.838
5 T8 214 12.838
5 T8 215 13.326
5 T8 216 15.767
5 T8 217 18.697
5 T8 218 22.115
5 T8 219 24.068
5 T8 220 24.068
5 T8 221 23.580
5 T8 222 22.603
5 T8 223 22.603
5 T8 224 24.556
5 T8 225 27.486
5 T8 226 30.904
5 T8 227 32.369
5 T8 228 32.857
5 T8 229 31.881
5 T8 230 31.392
5 T8 231 30.904
5 T8 232 31.881
5 T8 233 32.369
5 T8 234 32.369
5 T8 235 31.392
5 T8 236 30.904
5 T8 237 30.904
5 T8 238 31.881
5 T8 239 33.346
5 T8 240 34.810
5 T8 241 35.787
5 T8 242 35.787
5 T8 243 34.810
5 T8 244 32.369
5 T8 245 29.439
5 T8 246 26.510
5 T8 247 24.068
5 T8 248 21.627
5 T8 249 19.185
5 T8 250 16.744
5 T8 251 14.303
5 T8 252 12.349
5 T8 253 12.349
5 T8 254 13.814
5 T8 255 15.279
# T7 chan 14
5 T7 0 5.646
5 T7 1 6.134
5 T7 2 7.111
5 T7 3 8.087
5 T7 4 9.552
5 T7 5 11.017
5 T7 6 11.505
5 T7 7 10.529
5 T7 8 8.087
5 T7 9 5.157
5 T7 10 2.228
5 T7 11 -0.214
5 T7 12 -2.167
5 T7 13 -3.632
5 T7 14 -4.120
5 T7 15 -5.096
5 T7 16 -5.585
5 T7 17 -5.585
5 T7 18 -5.585
5 T7 19 -3.632
5 T7 20 -1.190
5 T7 21 2.716
5 T7 22 6.134
5 T7 23 8.087
5 T7 24 9.064
5 T7 25 8.575
5 T7 26 7.111
5 T7 27 6.622
5 T7 28 6.134
5 T7 29 6.134
5 T7 30 5.646
5 T7 31 4.669
5 T7 32 3.204
5 T7 33 0.763
5 T7 34 -2.167
5 T7 35 -5.096
5 T7 36 -8.026
5 T7 37 -10.956
5 T7 38 -12.909
5 T7 39 -12.909
5 T7 40 -10.956
5 T7 41 -6.561
5 T7 42 -1.190
5 T7 43 3.204
5 T7 44 6.622
5 T7 45 8.087
5 T7 46 7.599
5 T7 47 6.622
5 T7 48 5.157
5 T7 49 3.693
5 T7 50 2.228
5 T7 51 -0.214
5 T7 52 -2.655
5 T7 53 -5.096
5 T7 54 -7.050
5 T7 55 -8.026
5 T7 56 -9.003
5 T7 57 -9.979
5 T7 58 -11.444
5 T7 59 -13.885
5 T7 60 -15.839
5 T7 61 -16.327
5 T7 62 -13.397
5 T7 63 -7.050
5 T7 64 -0.214
5 T7 65 6.134
5 T7 66 10.040
5 T7 67 10.529
5 T7 68 9.552
5 T7 69 8.087
5 T7 70 8.087
5 T7 71 9.552
5 T7 72 10.040
5 T7 73 8.575
5 T7 74 5.646
5 T7 75 1.740
5 T7 76 -1.190
5 T7 77 -3.632
5 T7 78 -5.096
5 T7 79 -7.538
5 T7 80 -11.444
5 T7 81 -14.862
5 T7 82 -15.839
5 T7 83 -14.862
5 T7 84 -11.932
5 T7 85 -9.491
5 T7 86 -7.538
5 T7 87 -7.050
5 T7 88 -7.050
5 T7 89 -6.073
5 T7 90 -4.608
5 T7 91 -2.655
5 T7 92 -1.190
5 T7 93 -1.190
5 T7 94 -1.190
5 T7 95 -2.167
5 T7 96 -2.655
5 T7 97 -3.632
5 T7 98 -4.120
5 T7 99 -5.096
5 T7 100 -6.073
5 T7 101 -6.561
5 T7 102 -7.538
5 T7 103 -9.003
5 T7 104 -9.979
5 T7 105 -10.956
5 T7 106 -11.932
5 T7 107 -12.421
5 T7 108 -12.421
5 T7 109 -11.932
5 T7 110 -11.444
5 T7 111 -9.979
5 T7 112 -8.514
5 T7 113 -7.050
5 T7 114 -6.073
5 T7 115 -6.561
5 T7 116 -8.026
5 T7 117 -9.979
5 T7 118 -10.956
5 T7 119 -9.979
5 T7 120 -8.514
5 T7 121 -6.561
5 T7 122 -4.608
5 T7 123 -4.608
5 T7 124 -5.585
5 T7 125 -7.050
5 T7 126 -7.050
5 T7 127 -6.561
5 T7 128 -5.096
5 T7 129 -4.120
5 T7 130 -3.143
5 T7 131 -2.167
5 T7 132 -2.167
5 T7 133 -1.190
5 T7 134 -0.702
5 T7 135 -1.190
5 T7 136 -2.655
5 T7 137 -4.608
5 T7 138 -6.561
5 T7 139 -7.538
5 T7 140 -7.050
5 T7 141 -7.050
5 T7 142 -6.561
5 T7 143 -7.050
5 T7 144 -8.514
5 T7 145 -9.003
5 T7 146 -9.003
5 T7 147 -7.538
5 T7 148 -6.073
5 T7 149 -5.096
5 T7 150 -4.120
5 T7 151 -4.608
5 T7 152 -6.561
5 T7 153 -9.003
5 T7 154 -10.956
5 T7 155 -11.932
5 T7 156 -11.444
5 T7 157 -9.491
5 T7 158 -7.538
5 T7 159 -6.561
5 T7 160 -6.073
5 T7 161 -6.561
5 T7 162 -6.561
5 T7 163 -5.585
5 T7 164 -4.608
5 T7 165 -3.632
5 T7 166 -1.678
5 T7 167 0.275
5 T7 168 1.740
5 T7 169 2.716
5 T7 170 2.716
5 T7 171 1.740
5 T7 172 0.763
5 T7 173 -0.214
5 T7 174 -1.190
5 T7 175 -2.655
5 T7 176 -5.096
5 T7 177 -7.538
5 T7 178 -10.468
5 T7 179 -11.932
5 T7 180 -12.421
5 T7 181 -11.444
5 T7 182 -10.956
5 T7 183 -10.956
5 T7 184 -11.444
5 T7 185 -12.421
5 T7 186 -12.421
5 T7 187 -12.421
5 T7 188 -11.932
5 T7 189 -11.932
5 T7 190 -12.909
5 T7 191 -13.885
5 T7 192 -14.374
5 T7 193 -12.909
5 T7 194 -10.468
5 T7 195 -8.026
5 T7 196 -6.561
5 T7 197 -7.050
5 T7 198 -8.514
5 T7 199 -9.979
5 T7 200 -9.979
5 T7 201 -9.003
5 T7 202 -8.026
5 T7 203 -8.026
5 T7 204 -9.491
5 T7 205 -11.444
5 T7 206 -13.885
5 T7 207 -15.350
5 T7 208 -15.839
5 T7 209 -14.862
5 T7 210 -13.397
5 T7 211 -12.421
5 T7 212 -11.932
5 T7 213 -11.444
5 T7 214 -10.956
5 T7 215 -10.468
5 T7 216 -9.003
5 T7 217 -7.050
5 T7 218 -4.608
5 T7 219 -2.655
5 T7 220 -1.190
5 T7 221 0.275
5 T7 222 1.251
5 T7 223 1.740
5 T7 224 1.740
5 T7 225 1.740
5 T7 226 1.251
5 T7 227 0.763
5 T7 228 0.763
5 T7 229 0.763
5 T7 230 0.763
5 T7 231 0.763
5 T7 232 1.740
5 T7 233 3.204
5 T7 234 4.181
5 T7 235 5.646
5 T7 236 5.157
5 T7 237 4.669
5 T7 238 4.669
5 T7 239 4.669
5 T7 240 4.669
5 T7 241 4.181
5 T7 242 2.716
5 T7 243 0.275
5 T7 244 -2.167
5 T7 245 -4.120
5 T7 246 -5.096
5 T7 247 -5.585
5 T7 248 -6.561
5 T7 249 -8.026
5 T7 250 -9.979
5 T7 251 -12.421
5 T7 252 -14.862
5 T7 253 -16.327
5 T7 254 -17.303
5 T7 255 -17.792
# CZ chan 15
5 CZ 0 5.351
5 CZ 1 7.792
5 CZ 2 11.698
5 CZ 3 15.605
5 CZ 4 17.558
5 CZ 5 17.069
5 CZ 6 13.652
5 CZ 7 9.745
5 CZ 8 5.839
5 CZ 9 3.398
5 CZ 10 2.421
5 CZ 11 1.444
5 CZ 12 0.956
5 CZ 13 -0.020
5 CZ 14 -0.997
5 CZ 15 -0.020
5 CZ 16 1.933
5 CZ 17 4.862
5 CZ 18 7.304
5 CZ 19 9.257
5 CZ 20 10.722
5 CZ 21 12.675
5 CZ 22 15.116
5 CZ 23 16.093
5 CZ 24 15.605
5 CZ 25 12.187
5 CZ 26 6.327
5 CZ 27 -0.509
5 CZ 28 -7.345
5 CZ 29 -11.739
5 CZ 30 -12.716
5 CZ 31 -10.274
5 CZ 32 -4.903
5 CZ 33 -0.509
5 CZ 34 1.933
5 CZ 35 -0.020
5 CZ 36 -3.927
5 CZ 37 -7.833
5 CZ 38 -8.321
5 CZ 39 -4.903
5 CZ 40 0.956
5 CZ 41 4.862
5 CZ 42 6.327
5 CZ 43 6.327
5 CZ 44 7.304
5 CZ 45 9.745
5 CZ 46 13.163
5 CZ 47 14.628
5 CZ 48 12.675
5 CZ 49 8.280
5 CZ 50 4.374
5 CZ 51 2.909
5 CZ 52 4.374
5 CZ 53 5.839
5 CZ 54 5.351
5 CZ 55 2.909
5 CZ 56 0.468
5 CZ 57 -1.485
5 CZ 58 -1.973
5 CZ 59 -2.950
5 CZ 60 -4.415
5 CZ 61 -5.391
5 CZ 62 -2.462
5 CZ 63 5.351
5 CZ 64 16.093
5 CZ 65 25.370
5 CZ 66 28.788
5 CZ 67 25.859
5 CZ 68 19.511
5 CZ 69 15.116
5 CZ 70 15.605
5 CZ 71 19.023
5 CZ 72 21.464
5 CZ 73 20.976
5 CZ 74 16.093
5 CZ 75 10.234
5 CZ 76 5.839
5 CZ 77 4.862
5 CZ 78 5.839
5 CZ 79 5.839
5 CZ 80 3.886
5 CZ 81 1.444
5 CZ 82 0.468
5 CZ 83 1.444
5 CZ 84 4.862
5 CZ 85 7.304
5 CZ 86 7.792
5 CZ 87 6.816
5 CZ 88 4.862
5 CZ 89 4.374
5 CZ 90 4.374
5 CZ 91 4.374
5 CZ 92 2.909
5 CZ 93 0.956
5 CZ 94 -0.509
5 CZ 95 0.468
5 CZ 96 2.909
5 CZ 97 4.862
5 CZ 98 5.839
5 CZ 99 5.351
5 CZ 100 5.351
5 CZ 101 6.816
5 CZ 102 9.257
5 CZ 103 11.210
5 CZ 104 10.722
5 CZ 105 8.769
5 CZ 106 6.816
5 CZ 107 6.816
5 CZ 108 9.745
5 CZ 109 14.140
5 CZ 110 16.581
5 CZ 111 16.581
5 CZ 112 15.116
5 CZ 113 15.116
5 CZ 114 17.069
5 CZ 115 20.487
5 CZ 116 23.905
5 CZ 117 25.859
5 CZ 118 26.347
5 CZ 119 25.859
5 CZ 120 24.882
5 CZ 121 23.905
5 CZ 122 21.952
5 CZ 123 19.999
5 CZ 124 18.046
5 CZ 125 17.558
5 CZ 126 17.558
5 CZ 127 18.534
5 CZ 128 19.511
5 CZ 129 19.511
5 CZ 130 19.511
5 CZ 131 19.999
5 CZ 132 21.952
5 CZ 133 24.882
5 CZ 134 25.859
5 CZ 135 24.882
5 CZ 136 21.952
5 CZ 137 18.534
5 CZ 138 17.558
5 CZ 139 19.511
5 CZ 140 22.929
5 CZ 141 24.882
5 CZ 142 24.882
5 CZ 143 22.441
5 CZ 144 19.999
5 CZ 145 18.534
5 CZ 146 17.558
5 CZ 147 17.069
5 CZ 148 16.581
5 CZ 149 16.093
5 CZ 150 17.069
5 CZ 151 19.511
5 CZ 152 20.487
5 CZ 153 19.511
5 CZ 154 16.581
5 CZ 155 13.652
5 CZ 156 12.675
5 CZ 157 15.116
5 CZ 158 19.511
5 CZ 159 22.441
5 CZ 160 23.417
5 CZ 161 21.952
5 CZ 162 21.464
5 CZ 163 22.929
5 CZ 164 25.859
5 CZ 165 27.812
5 CZ 166 26.835
5 CZ 167 23.905
5 CZ 168 20.976
5 CZ 169 20.487
5 CZ 170 22.441
5 CZ 171 24.394
5 CZ 172 25.859
5 CZ 173 25.370
5 CZ 174 22.929
5 CZ 175 19.511
5 CZ 176 16.581
5 CZ 177 13.163
5 CZ 178 11.210
5 CZ 179 10.722
5 CZ 180 13.163
5 CZ 181 16.581
5 CZ 182 19.511
5 CZ 183 19.023
5 CZ 184 16.581
5 CZ 185 13.163
5 CZ 186 11.698
5 CZ 187 13.163
5 CZ 188 16.093
5 CZ 189 18.046
5 CZ 190 17.558
5 CZ 191 15.605
5 CZ 192 14.628
5 CZ 193 16.581
5 CZ 194 20.487
5 CZ 195 23.905
5 CZ 196 25.370
5 CZ 197 23.417
5 CZ 198 19.999
5 CZ 199 17.558
5 CZ 200 17.558
5 CZ 201 19.511
5 CZ 202 20.976
5 CZ 203 20.487
5 CZ 204 18.534
5 CZ 205 15.605
5 CZ 206 14.140
5 CZ 207 15.605
5 CZ 208 18.046
5 CZ 209 20.487
5 CZ 210 20.976
5 CZ 211 19.999
5 CZ 212 18.534
5 CZ 213 18.534
5 CZ 214 19.999
5 CZ 215 22.441
5 CZ 216 25.370
5 CZ 217 27.323
5 CZ 218 29.277
5 CZ 219 31.230
5 CZ 220 34.648
5 CZ 221 38.066
5 CZ 222 40.995
5 CZ 223 42.460
5 CZ 224 41.972
5 CZ 225 41.484
5 CZ 226 41.972
5 CZ 227 44.413
5 CZ 228 47.831
5 CZ 229 50.761
5 CZ 230 51.249
5 CZ 231 51.249
5 CZ 232 50.273
5 CZ 233 50.273
5 CZ 234 50.761
5 CZ 235 51.249
5 CZ 236 50.761
5 CZ 237 50.273
5 CZ 238 50.761
5 CZ 239 51.737
5 CZ 240 53.202
5 CZ 241 52.226
5 CZ 242 49.784
5 CZ 243 44.902
5 CZ 244 39.530
5 CZ 245 35.624
5 CZ 246 33.183
5 CZ 247 31.718
5 CZ 248 30.253
5 CZ 249 27.323
5 CZ 250 23.417
5 CZ 251 18.534
5 CZ 252 13.652
5 CZ 253 10.234
5 CZ 254 9.257
5 CZ 255 9.745
# C3 chan 16
5 C3 0 4.171
5 C3 1 4.171
5 C3 2 4.171
5 C3 3 4.171
5 C3 4 3.682
5 C3 5 3.194
5 C3 6 2.218
5 C3 7 1.729
5 C3 8 1.241
5 C3 9 1.729
5 C3 10 1.729
5 C3 11 1.729
5 C3 12 0.264
5 C3 13 -1.200
5 C3 14 -2.665
5 C3 15 -3.642
5 C3 16 -3.153
5 C3 17 -1.689
5 C3 18 -0.224
5 C3 19 1.241
5 C3 20 2.706
5 C3 21 3.682
5 C3 22 4.659
5 C3 23 5.147
5 C3 24 5.147
5 C3 25 4.659
5 C3 26 3.682
5 C3 27 2.706
5 C3 28 2.218
5 C3 29 2.706
5 C3 30 3.194
5 C3 31 3.194
5 C3 32 3.194
5 C3 33 1.729
5 C3 34 -0.224
5 C3 35 -2.177
5 C3 36 -3.642
5 C3 37 -4.618
5 C3 38 -4.130
5 C3 39 -3.153
5 C3 40 -2.177
5 C3 41 -0.712
5 C3 42 0.264
5 C3 43 1.729
5 C3 44 3.194
5 C3 45 4.171
5 C3 46 4.659
5 C3 47 4.171
5 C3 48 2.706
5 C3 49 1.729
5 C3 50 0.264
5 C3 51 -0.712
5 C3 52 -0.712
5 C3 53 -1.689
5 C3 54 -2.177
5 C3 55 -2.177
5 C3 56 -2.665
5 C3 57 -3.153
5 C3 58 -3.642
5 C3 59 -3.642
5 C3 60 -4.130
5 C3 61 -3.153
5 C3 62 -1.200
5 C3 63 1.241
5 C3 64 4.659
5 C3 65 7.100
5 C3 66 8.565
5 C3 67 8.077
5 C3 68 6.612
5 C3 69 5.147
5 C3 70 4.659
5 C3 71 4.171
5 C3 72 5.147
5 C3 73 4.659
5 C3 74 4.171
5 C3 75 2.706
5 C3 76 1.241
5 C3 77 -0.224
5 C3 78 -1.200
5 C3 79 -2.177
5 C3 80 -2.665
5 C3 81 -3.153
5 C3 82 -3.153
5 C3 83 -2.665
5 C3 84 -0.712
5 C3 85 0.264
5 C3 86 1.241
5 C3 87 2.218
5 C3 88 2.706
5 C3 89 3.194
5 C3 90 4.171
5 C3 91 4.659
5 C3 92 5.147
5 C3 93 4.171
5 C3 94 3.194
5 C3 95 2.218
5 C3 96 1.241
5 C3 97 0.753
5 C3 98 0.753
5 C3 99 0.753
5 C3 100 0.753
5 C3 101 0.753
5 C3 102 0.753
5 C3 103 1.241
5 C3 104 1.241
5 C3 105 1.241
5 C3 106 1.729
5 C3 107 2.218
5 C3 108 2.706
5 C3 109 3.194
5 C3 110 3.682
5 C3 111 4.171
5 C3 112 5.147
5 C3 113 5.147
5 C3 114 5.147
5 C3 115 4.659
5 C3 116 4.659
5 C3 117 4.659
5 C3 118 4.659
5 C3 119 4.659
5 C3 120 4.659
5 C3 121 5.636
5 C3 122 6.124
5 C3 123 7.100
5 C3 124 7.589
5 C3 125 7.589
5 C3 126 7.100
5 C3 127 7.100
5 C3 128 7.100
5 C3 129 7.589
5 C3 130 7.589
5 C3 131 7.589
5 C3 132 7.589
5 C3 133 7.589
5 C3 134 8.077
5 C3 135 8.077
5 C3 136 8.077
5 C3 137 7.589
5 C3 138 7.100
5 C3 139 6.612
5 C3 140 6.612
5 C3 141 6.612
5 C3 142 6.612
5 C3 143 6.612
5 C3 144 6.124
5 C3 145 6.124
5 C3 146 6.124
5 C3 147 7.100
5 C3 148 7.589
5 C3 149 8.077
5 C3 150 8.077
5 C3 151 8.077
5 C3 152 8.565
5 C3 153 8.565
5 C3 154 8.077
5 C3 155 7.589
5 C3 156 7.100
5 C3 157 6.124
5 C3 158 6.124
5 C3 159 6.612
5 C3 160 8.077
5 C3 161 9.054
5 C3 162 10.518
5 C3 163 11.007
5 C3 164 11.007
5 C3 165 11.983
5 C3 166 12.960
5 C3 167 13.936
5 C3 168 14.913
5 C3 169 14.913
5 C3 170 13.936
5 C3 171 12.472
5 C3 172 11.495
5 C3 173 11.007
5 C3 174 11.007
5 C3 175 11.007
5 C3 176 10.030
5 C3 177 8.565
5 C3 178 7.100
5 C3 179 6.124
5 C3 180 6.612
5 C3 181 7.589
5 C3 182 8.077
5 C3 183 8.077
5 C3 184 8.077
5 C3 185 7.589
5 C3 186 7.589
5 C3 187 7.589
5 C3 188 7.589
5 C3 189 7.589
5 C3 190 7.100
5 C3 191 6.612
5 C3 192 6.612
5 C3 193 7.100
5 C3 194 8.565
5 C3 195 10.030
5 C3 196 11.007
5 C3 197 11.495
5 C3 198 11.495
5 C3 199 10.518
5 C3 200 10.030
5 C3 201 10.030
5 C3 202 10.030
5 C3 203 9.542
5 C3 204 9.054
5 C3 205 7.589
5 C3 206 6.612
5 C3 207 6.124
5 C3 208 6.124
5 C3 209 6.612
5 C3 210 7.100
5 C3 211 7.100
5 C3 212 6.612
5 C3 213 7.100
5 C3 214 7.589
5 C3 215 7.589
5 C3 216 8.077
5 C3 217 8.077
5 C3 218 8.565
5 C3 219 10.030
5 C3 220 11.495
5 C3 221 12.960
5 C3 222 13.936
5 C3 223 13.936
5 C3 224 13.936
5 C3 225 13.936
5 C3 226 13.448
5 C3 227 12.960
5 C3 228 12.960
5 C3 229 12.472
5 C3 230 11.983
5 C3 231 11.983
5 C3 232 11.495
5 C3 233 11.983
5 C3 234 11.983
5 C3 235 11.983
5 C3 236 12.472
5 C3 237 12.472
5 C3 238 12.472
5 C3 239 12.472
5 C3 240 12.472
5 C3 241 12.472
5 C3 242 12.472
5 C3 243 12.960
5 C3 244 12.960
5 C3 245 11.983
5 C3 246 11.007
5 C3 247 9.542
5 C3 248 8.565
5 C3 249 8.565
5 C3 250 8.565
5 C3 251 8.077
5 C3 252 6.612
5 C3 253 5.147
5 C3 254 3.682
5 C3 255 3.682
# C4 chan 17
5 C4 0 -4.110
5 C4 1 -5.575
5 C4 2 -6.063
5 C4 3 -6.551
5 C4 4 -6.551
5 C4 5 -6.551
5 C4 6 -6.063
5 C4 7 -5.575
5 C4 8 -5.575
5 C4 9 -5.575
5 C4 10 -4.598
5 C4 11 -3.621
5 C4 12 -1.180
5 C4 13 1.750
5 C4 14 4.679
5 C4 15 6.144
5 C4 16 6.632
5 C4 17 5.656
5 C4 18 5.168
5 C4 19 4.679
5 C4 20 4.191
5 C4 21 3.703
5 C4 22 2.238
5 C4 23 0.285
5 C4 24 -1.180
5 C4 25 -1.668
5 C4 26 -1.668
5 C4 27 -1.180
5 C4 28 -1.668
5 C4 29 -3.133
5 C4 30 -4.110
5 C4 31 -3.621
5 C4 32 -1.668
5 C4 33 0.773
5 C4 34 2.726
5 C4 35 3.215
5 C4 36 2.238
5 C4 37 1.261
5 C4 38 1.261
5 C4 39 1.261
5 C4 40 1.750
5 C4 41 2.238
5 C4 42 1.750
5 C4 43 1.261
5 C4 44 0.773
5 C4 45 1.261
5 C4 46 2.238
5 C4 47 3.703
5 C4 48 4.679
5 C4 49 5.168
5 C4 50 4.679
5 C4 51 3.703
5 C4 52 2.238
5 C4 53 0.773
5 C4 54 0.285
5 C4 55 0.285
5 C4 56 0.773
5 C4 57 1.261
5 C4 58 1.750
5 C4 59 2.726
5 C4 60 3.215
5 C4 61 3.703
5 C4 62 3.215
5 C4 63 1.750
5 C4 64 -0.203
5 C4 65 -2.645
5 C4 66 -3.621
5 C4 67 -3.133
5 C4 68 -1.668
5 C4 69 1.261
5 C4 70 3.703
5 C4 71 5.168
5 C4 72 5.168
5 C4 73 3.703
5 C4 74 2.726
5 C4 75 2.726
5 C4 76 3.703
5 C4 77 5.168
5 C4 78 6.144
5 C4 79 7.121
5 C4 80 7.121
5 C4 81 6.632
5 C4 82 5.656
5 C4 83 4.679
5 C4 84 3.215
5 C4 85 2.726
5 C4 86 2.238
5 C4 87 2.238
5 C4 88 1.750
5 C4 89 1.261
5 C4 90 0.773
5 C4 91 0.773
5 C4 92 1.261
5 C4 93 2.238
5 C4 94 3.703
5 C4 95 5.168
5 C4 96 5.656
5 C4 97 6.144
5 C4 98 6.144
5 C4 99 5.656
5 C4 100 5.168
5 C4 101 4.679
5 C4 102 4.191
5 C4 103 3.703
5 C4 104 4.679
5 C4 105 4.679
5 C4 106 5.168
5 C4 107 4.679
5 C4 108 4.679
5 C4 109 4.191
5 C4 110 3.703
5 C4 111 3.703
5 C4 112 3.703
5 C4 113 3.215
5 C4 114 3.215
5 C4 115 2.726
5 C4 116 2.726
5 C4 117 2.726
5 C4 118 3.215
5 C4 119 3.703
5 C4 120 4.191
5 C4 121 3.703
5 C4 122 2.726
5 C4 123 2.238
5 C4 124 1.750
5 C4 125 2.238
5 C4 126 2.726
5 C4 127 3.703
5 C4 128 3.703
5 C4 129 3.703
5 C4 130 3.703
5 C4 131 4.191
5 C4 132 4.679
5 C4 133 5.656
5 C4 134 6.144
5 C4 135 6.632
5 C4 136 6.632
5 C4 137 6.144
5 C4 138 5.656
5 C4 139 5.656
5 C4 140 5.656
5 C4 141 6.144
5 C4 142 6.144
5 C4 143 6.632
5 C4 144 6.632
5 C4 145 6.144
5 C4 146 5.168
5 C4 147 5.168
5 C4 148 4.679
5 C4 149 5.168
5 C4 150 6.144
5 C4 151 6.144
5 C4 152 6.144
5 C4 153 6.144
5 C4 154 5.656
5 C4 155 5.168
5 C4 156 5.168
5 C4 157 5.168
5 C4 158 5.168
5 C4 159 4.679
5 C4 160 3.703
5 C4 161 3.215
5 C4 162 3.215
5 C4 163 3.215
5 C4 164 3.703
5 C4 165 4.679
5 C4 166 5.168
5 C4 167 5.168
5 C4 168 4.679
5 C4 169 5.168
5 C4 170 5.656
5 C4 171 6.144
5 C4 172 6.632
5 C4 173 5.656
5 C4 174 4.679
5 C4 175 3.215
5 C4 176 1.261
5 C4 177 0.773
5 C4 178 0.285
5 C4 179 0.285
5 C4 180 -0.692
5 C4 181 -1.668
5 C4 182 -3.133
5 C4 183 -4.110
5 C4 184 -4.598
5 C4 185 -4.110
5 C4 186 -3.133
5 C4 187 -2.645
5 C4 188 -2.157
5 C4 189 -2.157
5 C4 190 -2.157
5 C4 191 -2.157
5 C4 192 -2.157
5 C4 193 -1.668
5 C4 194 -2.157
5 C4 195 -2.645
5 C4 196 -3.621
5 C4 197 -3.621
5 C4 198 -3.621
5 C4 199 -3.133
5 C4 200 -2.645
5 C4 201 -1.668
5 C4 202 -1.180
5 C4 203 -0.203
5 C4 204 -0.203
5 C4 205 0.285
5 C4 206 0.285
5 C4 207 0.285
5 C4 208 -0.203
5 C4 209 0.285
5 C4 210 0.285
5 C4 211 0.285
5 C4 212 -0.692
5 C4 213 -1.180
5 C4 214 -1.668
5 C4 215 -1.180
5 C4 216 -0.203
5 C4 217 1.261
5 C4 218 2.238
5 C4 219 3.215
5 C4 220 2.726
5 C4 221 1.750
5 C4 222 0.773
5 C4 223 0.773
5 C4 224 1.261
5 C4 225 2.238
5 C4 226 3.703
5 C4 227 3.703
5 C4 228 3.703
5 C4 229 3.703
5 C4 230 3.703
5 C4 231 3.703
5 C4 232 3.703
5 C4 233 4.191
5 C4 234 4.679
5 C4 235 4.679
5 C4 236 4.679
5 C4 237 4.679
5 C4 238 4.679
5 C4 239 4.679
5 C4 240 5.168
5 C4 241 5.656
5 C4 242 5.656
5 C4 243 5.168
5 C4 244 3.703
5 C4 245 2.238
5 C4 246 0.773
5 C4 247 0.285
5 C4 248 -0.692
5 C4 249 -1.180
5 C4 250 -2.157
5 C4 251 -2.645
5 C4 252 -3.133
5 C4 253 -2.645
5 C4 254 -2.157
5 C4 255 -0.692
# CP5 chan 18
5 CP5 0 4.608
5 CP5 1 4.608
5 CP5 2 4.120
5 CP5 3 3.143
5 CP5 4 2.655
5 CP5 5 2.655
5 CP5 6 3.143
5 CP5 7 3.632
5 CP5 8 3.632
5 CP5 9 3.632
5 CP5 10 3.143
5 CP5 11 2.167
5 CP5 12 1.190
5 CP5 13 0.214
5 CP5 14 -1.251
5 CP5 15 -1.740
5 CP5 16 -1.740
5 CP5 17 -1.251
5 CP5 18 0.702
5 CP5 19 2.655
5 CP5 20 4.608
5 CP5 21 7.050
5 CP5 22 8.026
5 CP5 23 8.026
5 CP5 24 8.026
5 CP5 25 8.026
5 CP5 26 7.538
5 CP5 27 8.026
5 CP5 28 9.003
5 CP5 29 9.491
5 CP5 30 9.491
5 CP5 31 8.026
5 CP5 32 6.561
5 CP5 33 4.120
5 CP5 34 2.167
5 CP5 35 -0.275
5 CP5 36 -2.716
5 CP5 37 -4.181
5 CP5 38 -5.157
5 CP5 39 -4.181
5 CP5 40 -2.228
5 CP5 41 0.702
5 CP5 42 3.143
5 CP5 43 5.585
5 CP5 44 7.050
5 CP5 45 7.538
5 CP5 46 8.026
5 CP5 47 7.538
5 CP5 48 6.561
5 CP5 49 4.608
5 CP5 50 3.143
5 CP5 51 1.190
5 CP5 52 -0.275
5 CP5 53 -1.251
5 CP5 54 -1.740
5 CP5 55 -2.228
5 CP5 56 -2.228
5 CP5 57 -2.228
5 CP5 58 -2.228
5 CP5 59 -2.228
5 CP5 60 -1.740
5 CP5 61 -1.251
5 CP5 62 1.190
5 CP5 63 5.096
5 CP5 64 10.468
5 CP5 65 15.350
5 CP5 66 18.280
5 CP5 67 18.768
5 CP5 68 18.280
5 CP5 69 17.303
5 CP5 70 17.303
5 CP5 71 18.280
5 CP5 72 18.768
5 CP5 73 18.280
5 CP5 74 16.327
5 CP5 75 14.374
5 CP5 76 11.932
5 CP5 77 9.979
5 CP5 78 8.514
5 CP5 79 6.073
5 CP5 80 4.120
5 CP5 81 3.143
5 CP5 82 2.655
5 CP5 83 3.632
5 CP5 84 5.096
5 CP5 85 6.073
5 CP5 86 7.050
5 CP5 87 8.026
5 CP5 88 9.003
5 CP5 89 9.979
5 CP5 90 10.468
5 CP5 91 10.956
5 CP5 92 10.956
5 CP5 93 10.956
5 CP5 94 10.468
5 CP5 95 10.468
5 CP5 96 10.468
5 CP5 97 9.979
5 CP5 98 9.979
5 CP5 99 9.491
5 CP5 100 8.514
5 CP5 101 8.026
5 CP5 102 7.538
5 CP5 103 6.561
5 CP5 104 6.073
5 CP5 105 6.073
5 CP5 106 6.073
5 CP5 107 6.073
5 CP5 108 6.073
5 CP5 109 6.073
5 CP5 110 7.050
5 CP5 111 9.003
5 CP5 112 10.956
5 CP5 113 12.421
5 CP5 114 12.909
5 CP5 115 11.932
5 CP5 116 10.468
5 CP5 117 9.003
5 CP5 118 9.003
5 CP5 119 9.003
5 CP5 120 9.979
5 CP5 121 10.956
5 CP5 122 10.956
5 CP5 123 10.468
5 CP5 124 9.491
5 CP5 125 8.514
5 CP5 126 8.026
5 CP5 127 7.538
5 CP5 128 7.538
5 CP5 129 8.026
5 CP5 130 9.003
5 CP5 131 10.468
5 CP5 132 12.421
5 CP5 133 14.374
5 CP5 134 14.862
5 CP5 135 14.374
5 CP5 136 13.885
5 CP5 137 12.909
5 CP5 138 11.932
5 CP5 139 11.932
5 CP5 140 11.444
5 CP5 141 11.444
5 CP5 142 11.444
5 CP5 143 11.444
5 CP5 144 10.956
5 CP5 145 11.444
5 CP5 146 11.932
5 CP5 147 12.421
5 CP5 148 12.909
5 CP5 149 13.397
5 CP5 150 13.397
5 CP5 151 12.909
5 CP5 152 11.444
5 CP5 153 9.491
5 CP5 154 8.026
5 CP5 155 7.050
5 CP5 156 7.538
5 CP5 157 9.003
5 CP5 158 10.468
5 CP5 159 11.932
5 CP5 160 12.421
5 CP5 161 12.909
5 CP5 162 12.909
5 CP5 163 13.397
5 CP5 164 14.374
5 CP5 165 15.839
5 CP5 166 17.303
5 CP5 167 18.768
5 CP5 168 19.745
5 CP5 169 19.745
5 CP5 170 18.768
5 CP5 171 17.792
5 CP5 172 16.815
5 CP5 173 16.327
5 CP5 174 15.350
5 CP5 175 14.374
5 CP5 176 12.909
5 CP5 177 10.956
5 CP5 178 9.003
5 CP5 179 8.026
5 CP5 180 8.514
5 CP5 181 9.979
5 CP5 182 11.444
5 CP5 183 12.421
5 CP5 184 12.421
5 CP5 185 11.444
5 CP5 186 9.979
5 CP5 187 9.003
5 CP5 188 8.514
5 CP5 189 9.003
5 CP5 190 8.514
5 CP5 191 8.026
5 CP5 192 8.026
5 CP5 193 8.514
5 CP5 194 9.979
5 CP5 195 11.932
5 CP5 196 12.909
5 CP5 197 12.909
5 CP5 198 12.421
5 CP5 199 11.932
5 CP5 200 11.444
5 CP5 201 12.421
5 CP5 202 13.397
5 CP5 203 13.397
5 CP5 204 12.909
5 CP5 205 10.956
5 CP5 206 9.003
5 CP5 207 8.026
5 CP5 208 7.538
5 CP5 209 8.026
5 CP5 210 8.026
5 CP5 211 8.026
5 CP5 212 8.026
5 CP5 213 8.026
5 CP5 214 8.514
5 CP5 215 9.491
5 CP5 216 11.444
5 CP5 217 13.397
5 CP5 218 15.350
5 CP5 219 17.303
5 CP5 220 18.768
5 CP5 221 20.233
5 CP5 222 20.721
5 CP5 223 21.210
5 CP5 224 20.721
5 CP5 225 20.233
5 CP5 226 19.745
5 CP5 227 19.745
5 CP5 228 19.745
5 CP5 229 19.745
5 CP5 230 18.768
5 CP5 231 18.768
5 CP5 232 18.280
5 CP5 233 18.768
5 CP5 234 18.768
5 CP5 235 19.745
5 CP5 236 20.233
5 CP5 237 20.721
5 CP5 238 21.210
5 CP5 239 21.698
5 CP5 240 22.186
5 CP5 241 21.698
5 CP5 242 20.721
5 CP5 243 19.257
5 CP5 244 17.303
5 CP5 245 15.839
5 CP5 246 14.374
5 CP5 247 12.421
5 CP5 248 10.468
5 CP5 249 8.026
5 CP5 250 6.561
5 CP5 251 5.096
5 CP5 252 4.120
5 CP5 253 3.143
5 CP5 254 2.655
5 CP5 255 3.143
# CP6 chan 19
5 CP6 0 -5.320
5 CP6 1 -8.250
5 CP6 2 -10.691
5 CP6 3 -12.156
5 CP6 4 -13.621
5 CP6 5 -14.598
5 CP6 6 -15.574
5 CP6 7 -16.551
5 CP6 8 -17.039
5 CP6 9 -16.062
5 CP6 10 -14.109
5 CP6 11 -10.691
5 CP6 12 -6.785
5 CP6 13 -2.391
5 CP6 14 1.516
5 CP6 15 4.934
5 CP6 16 7.375
5 CP6 17 8.840
5 CP6 18 10.305
5 CP6 19 9.816
5 CP6 20 8.840
5 CP6 21 6.887
5 CP6 22 3.957
5 CP6 23 0.539
5 CP6 24 -2.879
5 CP6 25 -5.320
5 CP6 26 -6.785
5 CP6 27 -8.250
5 CP6 28 -9.226
5 CP6 29 -10.203
5 CP6 30 -10.691
5 CP6 31 -10.203
5 CP6 32 -8.738
5 CP6 33 -7.273
5 CP6 34 -5.809
5 CP6 35 -5.320
5 CP6 36 -6.297
5 CP6 37 -7.273
5 CP6 38 -7.762
5 CP6 39 -7.273
5 CP6 40 -5.809
5 CP6 41 -4.344
5 CP6 42 -3.855
5 CP6 43 -4.344
5 CP6 44 -4.832
5 CP6 45 -4.344
5 CP6 46 -3.367
5 CP6 47 -1.414
5 CP6 48 -0.926
5 CP6 49 -1.414
5 CP6 50 -3.855
5 CP6 51 -6.785
5 CP6 52 -9.226
5 CP6 53 -9.715
5 CP6 54 -9.226
5 CP6 55 -8.738
5 CP6 56 -7.762
5 CP6 57 -7.273
5 CP6 58 -6.297
5 CP6 59 -5.320
5 CP6 60 -3.855
5 CP6 61 -2.879
5 CP6 62 -2.391
5 CP6 63 -3.367
5 CP6 64 -4.344
5 CP6 65 -5.809
5 CP6 66 -5.809
5 CP6 67 -3.855
5 CP6 68 -1.414
5 CP6 69 1.516
5 CP6 70 3.469
5 CP6 71 3.469
5 CP6 72 2.004
5 CP6 73 0.051
5 CP6 74 -1.414
5 CP6 75 -2.391
5 CP6 76 -2.391
5 CP6 77 -1.414
5 CP6 78 -0.926
5 CP6 79 0.539
5 CP6 80 0.539
5 CP6 81 0.051
5 CP6 82 -0.437
5 CP6 83 -1.414
5 CP6 84 -2.391
5 CP6 85 -2.391
5 CP6 86 -2.391
5 CP6 87 -2.879
5 CP6 88 -3.367
5 CP6 89 -4.344
5 CP6 90 -5.809
5 CP6 91 -5.809
5 CP6 92 -5.320
5 CP6 93 -3.855
5 CP6 94 -1.902
5 CP6 95 -0.437
5 CP6 96 0.539
5 CP6 97 1.027
5 CP6 98 1.027
5 CP6 99 1.027
5 CP6 100 0.539
5 CP6 101 0.051
5 CP6 102 0.051
5 CP6 103 0.051
5 CP6 104 1.027
5 CP6 105 2.492
5 CP6 106 2.981
5 CP6 107 2.492
5 CP6 108 2.004
5 CP6 109 1.516
5 CP6 110 1.516
5 CP6 111 2.004
5 CP6 112 2.981
5 CP6 113 2.981
5 CP6 114 2.492
5 CP6 115 1.516
5 CP6 116 0.539
5 CP6 117 0.051
5 CP6 118 0.539
5 CP6 119 1.027
5 CP6 120 1.027
5 CP6 121 0.539
5 CP6 122 -0.926
5 CP6 123 -1.902
5 CP6 124 -2.391
5 CP6 125 -1.902
5 CP6 126 -1.902
5 CP6 127 -2.391
5 CP6 128 -2.391
5 CP6 129 -2.391
5 CP6 130 -1.902
5 CP6 131 0.051
5 CP6 132 2.004
5 CP6 133 3.957
5 CP6 134 4.934
5 CP6 135 5.422
5 CP6 136 5.422
5 CP6 137 4.934
5 CP6 138 4.934
5 CP6 139 4.934
5 CP6 140 5.422
5 CP6 141 5.910
5 CP6 142 6.887
5 CP6 143 7.375
5 CP6 144 7.375
5 CP6 145 6.399
5 CP6 146 4.934
5 CP6 147 3.957
5 CP6 148 2.981
5 CP6 149 2.981
5 CP6 150 3.957
5 CP6 151 4.934
5 CP6 152 5.422
5 CP6 153 4.445
5 CP6 154 2.981
5 CP6 155 2.981
5 CP6 156 2.981
5 CP6 157 4.934
5 CP6 158 6.887
5 CP6 159 8.352
5 CP6 160 8.840
5 CP6 161 8.840
5 CP6 162 8.840
5 CP6 163 9.816
5 CP6 164 10.305
5 CP6 165 10.793
5 CP6 166 10.793
5 CP6 167 10.305
5 CP6 168 9.328
5 CP6 169 9.328
5 CP6 170 9.816
5 CP6 171 10.305
5 CP6 172 9.816
5 CP6 173 7.863
5 CP6 174 5.422
5 CP6 175 2.981
5 CP6 176 2.004
5 CP6 177 1.516
5 CP6 178 2.004
5 CP6 179 2.492
5 CP6 180 2.981
5 CP6 181 2.981
5 CP6 182 2.492
5 CP6 183 1.516
5 CP6 184 0.539
5 CP6 185 0.051
5 CP6 186 0.051
5 CP6 187 0.539
5 CP6 188 1.027
5 CP6 189 2.004
5 CP6 190 2.492
5 CP6 191 2.004
5 CP6 192 2.492
5 CP6 193 2.492
5 CP6 194 2.981
5 CP6 195 3.469
5 CP6 196 3.469
5 CP6 197 2.981
5 CP6 198 2.981
5 CP6 199 3.957
5 CP6 200 4.934
5 CP6 201 6.887
5 CP6 202 7.863
5 CP6 203 8.352
5 CP6 204 8.352
5 CP6 205 7.375
5 CP6 206 7.375
5 CP6 207 7.375
5 CP6 208 7.375
5 CP6 209 7.375
5 CP6 210 7.375
5 CP6 211 6.887
5 CP6 212 6.399
5 CP6 213 4.934
5 CP6 214 4.445
5 CP6 215 4.445
5 CP6 216 5.910
5 CP6 217 7.375
5 CP6 218 9.328
5 CP6 219 10.793
5 CP6 220 10.793
5 CP6 221 9.816
5 CP6 222 8.352
5 CP6 223 8.352
5 CP6 224 8.840
5 CP6 225 10.793
5 CP6 226 12.746
5 CP6 227 13.723
5 CP6 228 14.211
5 CP6 229 13.723
5 CP6 230 13.234
5 CP6 231 12.746
5 CP6 232 12.258
5 CP6 233 11.770
5 CP6 234 11.770
5 CP6 235 11.770
5 CP6 236 12.746
5 CP6 237 13.723
5 CP6 238 15.188
5 CP6 239 17.141
5 CP6 240 18.606
5 CP6 241 19.582
5 CP6 242 19.582
5 CP6 243 18.606
5 CP6 244 16.164
5 CP6 245 13.234
5 CP6 246 9.816
5 CP6 247 6.399
5 CP6 248 3.469
5 CP6 249 0.539
5 CP6 250 -2.879
5 CP6 251 -5.320
5 CP6 252 -7.273
5 CP6 253 -7.273
5 CP6 254 -5.320
5 CP6 255 -1.902
# CP1 chan 20
5 CP1 0 -1.668
5 CP1 1 -2.645
5 CP1 2 -3.621
5 CP1 3 -4.598
5 CP1 4 -5.086
5 CP1 5 -5.086
5 CP1 6 -5.086
5 CP1 7 -3.621
5 CP1 8 -1.668
5 CP1 9 -0.203
5 CP1 10 0.773
5 CP1 11 0.285
5 CP1 12 -0.203
5 CP1 13 -1.180
5 CP1 14 -1.668
5 CP1 15 -1.668
5 CP1 16 -1.180
5 CP1 17 -0.692
5 CP1 18 -0.203
5 CP1 19 0.285
5 CP1 20 0.285
5 CP1 21 -0.692
5 CP1 22 -1.668
5 CP1 23 -2.645
5 CP1 24 -3.621
5 CP1 25 -3.133
5 CP1 26 -2.157
5 CP1 27 -0.692
5 CP1 28 0.285
5 CP1 29 0.773
5 CP1 30 0.773
5 CP1 31 -0.203
5 CP1 32 -1.180
5 CP1 33 -2.157
5 CP1 34 -2.157
5 CP1 35 -2.645
5 CP1 36 -2.645
5 CP1 37 -2.157
5 CP1 38 -2.157
5 CP1 39 -1.180
5 CP1 40 -0.692
5 CP1 41 -0.203
5 CP1 42 -0.203
5 CP1 43 -0.692
5 CP1 44 -1.180
5 CP1 45 -1.180
5 CP1 46 -1.180
5 CP1 47 -1.180
5 CP1 48 -1.180
5 CP1 49 -2.157
5 CP1 50 -3.133
5 CP1 51 -3.621
5 CP1 52 -4.110
5 CP1 53 -4.110
5 CP1 54 -4.598
5 CP1 55 -4.110
5 CP1 56 -3.621
5 CP1 57 -2.645
5 CP1 58 -1.668
5 CP1 59 -1.180
5 CP1 60 -0.692
5 CP1 61 -0.203
5 CP1 62 0.773
5 CP1 63 2.238
5 CP1 64 3.703
5 CP1 65 5.168
5 CP1 66 5.656
5 CP1 67 5.656
5 CP1 68 5.168
5 CP1 69 5.656
5 CP1 70 6.632
5 CP1 71 7.121
5 CP1 72 7.609
5 CP1 73 7.121
5 CP1 74 6.144
5 CP1 75 5.656
5 CP1 76 5.168
5 CP1 77 4.679
5 CP1 78 3.703
5 CP1 79 2.726
5 CP1 80 1.750
5 CP1 81 1.261
5 CP1 82 1.750
5 CP1 83 2.726
5 CP1 84 4.191
5 CP1 85 4.679
5 CP1 86 5.656
5 CP1 87 6.144
5 CP1 88 6.144
5 CP1 89 6.144
5 CP1 90 5.656
5 CP1 91 6.144
5 CP1 92 6.632
5 CP1 93 7.609
5 CP1 94 7.609
5 CP1 95 7.609
5 CP1 96 7.121
5 CP1 97 6.632
5 CP1 98 6.632
5 CP1 99 7.121
5 CP1 100 7.609
5 CP1 101 8.097
5 CP1 102 8.097
5 CP1 103 7.609
5 CP1 104 7.121
5 CP1 105 7.609
5 CP1 106 7.609
5 CP1 107 7.609
5 CP1 108 7.609
5 CP1 109 8.097
5 CP1 110 8.097
5 CP1 111 8.586
5 CP1 112 9.074
5 CP1 113 8.586
5 CP1 114 8.097
5 CP1 115 7.121
5 CP1 116 6.632
5 CP1 117 6.632
5 CP1 118 7.121
5 CP1 119 7.609
5 CP1 120 7.609
5 CP1 121 7.609
5 CP1 122 7.609
5 CP1 123 7.609
5 CP1 124 8.097
5 CP1 125 8.097
5 CP1 126 7.609
5 CP1 127 6.632
5 CP1 128 5.168
5 CP1 129 4.191
5 CP1 130 3.703
5 CP1 131 4.679
5 CP1 132 5.656
5 CP1 133 7.121
5 CP1 134 8.097
5 CP1 135 8.586
5 CP1 136 8.586
5 CP1 137 8.586
5 CP1 138 8.586
5 CP1 139 8.586
5 CP1 140 9.074
5 CP1 141 8.586
5 CP1 142 8.586
5 CP1 143 7.609
5 CP1 144 7.609
5 CP1 145 7.609
5 CP1 146 7.609
5 CP1 147 8.097
5 CP1 148 8.097
5 CP1 149 8.097
5 CP1 150 7.609
5 CP1 151 6.632
5 CP1 152 5.656
5 CP1 153 4.679
5 CP1 154 4.191
5 CP1 155 3.703
5 CP1 156 4.191
5 CP1 157 4.679
5 CP1 158 5.656
5 CP1 159 6.144
5 CP1 160 6.632
5 CP1 161 7.121
5 CP1 162 7.121
5 CP1 163 8.097
5 CP1 164 9.562
5 CP1 165 11.027
5 CP1 166 12.004
5 CP1 167 12.492
5 CP1 168 12.004
5 CP1 169 11.515
5 CP1 170 11.027
5 CP1 171 10.539
5 CP1 172 10.539
5 CP1 173 9.562
5 CP1 174 9.074
5 CP1 175 8.097
5 CP1 176 7.121
5 CP1 177 6.632
5 CP1 178 6.632
5 CP1 179 7.609
5 CP1 180 9.562
5 CP1 181 11.027
5 CP1 182 12.004
5 CP1 183 11.515
5 CP1 184 10.539
5 CP1 185 9.562
5 CP1 186 8.586
5 CP1 187 8.586
5 CP1 188 8.586
5 CP1 189 8.097
5 CP1 190 7.121
5 CP1 191 6.144
5 CP1 192 5.656
5 CP1 193 6.144
5 CP1 194 7.609
5 CP1 195 9.562
5 CP1 196 10.539
5 CP1 197 11.515
5 CP1 198 11.515
5 CP1 199 11.515
5 CP1 200 12.004
5 CP1 201 12.980
5 CP1 202 13.468
5 CP1 203 13.468
5 CP1 204 12.980
5 CP1 205 11.515
5 CP1 206 10.539
5 CP1 207 9.562
5 CP1 208 9.074
5 CP1 209 9.074
5 CP1 210 8.586
5 CP1 211 8.586
5 CP1 212 8.586
5 CP1 213 8.586
5 CP1 214 8.586
5 CP1 215 8.586
5 CP1 216 9.074
5 CP1 217 9.074
5 CP1 218 9.562
5 CP1 219 9.562
5 CP1 220 10.050
5 CP1 221 10.539
5 CP1 222 10.539
5 CP1 223 10.539
5 CP1 224 11.027
5 CP1 225 11.515
5 CP1 226 12.004
5 CP1 227 12.492
5 CP1 228 12.004
5 CP1 229 11.515
5 CP1 230 10.539
5 CP1 231 10.539
5 CP1 232 10.050
5 CP1 233 10.050
5 CP1 234 10.539
5 CP1 235 10.539
5 CP1 236 11.515
5 CP1 237 12.004
5 CP1 238 12.980
5 CP1 239 12.980
5 CP1 240 12.492
5 CP1 241 11.515
5 CP1 242 10.539
5 CP1 243 10.050
5 CP1 244 10.050
5 CP1 245 9.562
5 CP1 246 8.586
5 CP1 247 7.121
5 CP1 248 6.144
5 CP1 249 4.679
5 CP1 250 3.703
5 CP1 251 2.726
5 CP1 252 1.750
5 CP1 253 0.773
5 CP1 254 0.773
5 CP1 255 1.261
# CP2 chan 21
5 CP2 0 -4.649
5 CP2 1 -6.602
5 CP2 2 -8.555
5 CP2 3 -9.532
5 CP2 4 -10.508
5 CP2 5 -10.508
5 CP2 6 -10.508
5 CP2 7 -10.020
5 CP2 8 -8.555
5 CP2 9 -6.602
5 CP2 10 -4.649
5 CP2 11 -2.696
5 CP2 12 -0.254
5 CP2 13 1.211
5 CP2 14 3.164
5 CP2 15 4.628
5 CP2 16 5.605
5 CP2 17 6.093
5 CP2 18 6.093
5 CP2 19 5.605
5 CP2 20 4.140
5 CP2 21 2.675
5 CP2 22 0.722
5 CP2 23 -1.231
5 CP2 24 -3.184
5 CP2 25 -3.672
5 CP2 26 -4.161
5 CP2 27 -4.161
5 CP2 28 -4.649
5 CP2 29 -4.649
5 CP2 30 -4.649
5 CP2 31 -4.161
5 CP2 32 -3.672
5 CP2 33 -2.696
5 CP2 34 -1.719
5 CP2 35 -0.743
5 CP2 36 0.234
5 CP2 37 0.234
5 CP2 38 0.722
5 CP2 39 0.722
5 CP2 40 0.722
5 CP2 41 0.722
5 CP2 42 0.234
5 CP2 43 -0.254
5 CP2 44 -0.743
5 CP2 45 -1.231
5 CP2 46 -0.743
5 CP2 47 -0.254
5 CP2 48 0.234
5 CP2 49 0.234
5 CP2 50 -0.743
5 CP2 51 -2.207
5 CP2 52 -3.184
5 CP2 53 -3.672
5 CP2 54 -3.184
5 CP2 55 -2.696
5 CP2 56 -0.254
5 CP2 57 -1.231
5 CP2 58 -0.743
5 CP2 59 0.234
5 CP2 60 1.211
5 CP2 61 2.187
5 CP2 62 2.187
5 CP2 63 1.211
5 CP2 64 -0.254
5 CP2 65 -1.231
5 CP2 66 -1.231
5 CP2 67 -0.254
5 CP2 68 1.699
5 CP2 69 3.164
5 CP2 70 4.628
5 CP2 71 5.117
5 CP2 72 4.628
5 CP2 73 4.140
5 CP2 74 3.652
5 CP2 75 3.652
5 CP2 76 4.140
5 CP2 77 4.628
5 CP2 78 5.605
5 CP2 79 6.582
5 CP2 80 6.582
5 CP2 81 6.582
5 CP2 82 6.093
5 CP2 83 5.605
5 CP2 84 4.628
5 CP2 85 4.628
5 CP2 86 5.117
5 CP2 87 5.605
5 CP2 88 5.605
5 CP2 89 5.117
5 CP2 90 3.652
5 CP2 91 3.652
5 CP2 92 4.628
5 CP2 93 6.093
5 CP2 94 7.558
5 CP2 95 8.535
5 CP2 96 9.023
5 CP2 97 9.023
5 CP2 98 8.535
5 CP2 99 8.535
5 CP2 100 8.046
5 CP2 101 8.046
5 CP2 102 8.535
5 CP2 103 8.535
5 CP2 104 9.023
5 CP2 105 9.023
5 CP2 106 8.535
5 CP2 107 8.046
5 CP2 108 7.070
5 CP2 109 6.582
5 CP2 110 6.582
5 CP2 111 7.070
5 CP2 112 7.558
5 CP2 113 7.558
5 CP2 114 6.582
5 CP2 115 5.117
5 CP2 116 4.628
5 CP2 117 4.140
5 CP2 118 4.140
5 CP2 119 4.628
5 CP2 120 4.628
5 CP2 121 4.628
5 CP2 122 4.140
5 CP2 123 4.140
5 CP2 124 4.140
5 CP2 125 4.140
5 CP2 126 4.628
5 CP2 127 4.140
5 CP2 128 3.652
5 CP2 129 3.164
5 CP2 130 3.652
5 CP2 131 4.628
5 CP2 132 5.605
5 CP2 133 7.070
5 CP2 134 7.558
5 CP2 135 8.046
5 CP2 136 8.046
5 CP2 137 7.558
5 CP2 138 7.558
5 CP2 139 7.070
5 CP2 140 7.558
5 CP2 141 7.558
5 CP2 142 7.558
5 CP2 143 7.070
5 CP2 144 7.558
5 CP2 145 7.558
5 CP2 146 7.558
5 CP2 147 7.070
5 CP2 148 6.582
5 CP2 149 6.582
5 CP2 150 6.582
5 CP2 151 6.093
5 CP2 152 6.093
5 CP2 153 5.605
5 CP2 154 4.628
5 CP2 155 4.140
5 CP2 156 4.628
5 CP2 157 5.605
5 CP2 158 6.582
5 CP2 159 7.070
5 CP2 160 7.070
5 CP2 161 7.070
5 CP2 162 7.070
5 CP2 163 8.046
5 CP2 164 8.535
5 CP2 165 9.023
5 CP2 166 9.023
5 CP2 167 8.535
5 CP2 168 7.558
5 CP2 169 7.558
5 CP2 170 8.535
5 CP2 171 8.535
5 CP2 172 9.023
5 CP2 173 8.535
5 CP2 174 7.558
5 CP2 175 6.582
5 CP2 176 6.093
5 CP2 177 6.093
5 CP2 178 6.093
5 CP2 179 6.582
5 CP2 180 7.558
5 CP2 181 8.046
5 CP2 182 8.046
5 CP2 183 7.558
5 CP2 184 7.070
5 CP2 185 6.093
5 CP2 186 6.093
5 CP2 187 6.582
5 CP2 188 7.070
5 CP2 189 7.558
5 CP2 190 7.070
5 CP2 191 6.582
5 CP2 192 5.605
5 CP2 193 5.117
5 CP2 194 5.117
5 CP2 195 5.117
5 CP2 196 6.093
5 CP2 197 6.582
5 CP2 198 7.070
5 CP2 199 7.558
5 CP2 200 8.046
5 CP2 201 8.535
5 CP2 202 9.511
5 CP2 203 10.000
5 CP2 204 10.000
5 CP2 205 10.000
5 CP2 206 9.511
5 CP2 207 9.511
5 CP2 208 9.511
5 CP2 209 10.000
5 CP2 210 10.488
5 CP2 211 10.488
5 CP2 212 10.000
5 CP2 213 9.511
5 CP2 214 8.535
5 CP2 215 8.535
5 CP2 216 9.511
5 CP2 217 10.488
5 CP2 218 10.976
5 CP2 219 10.976
5 CP2 220 10.000
5 CP2 221 9.023
5 CP2 222 8.535
5 CP2 223 8.535
5 CP2 224 9.023
5 CP2 225 10.000
5 CP2 226 10.488
5 CP2 227 10.488
5 CP2 228 10.488
5 CP2 229 10.976
5 CP2 230 10.976
5 CP2 231 10.976
5 CP2 232 10.488
5 CP2 233 10.000
5 CP2 234 9.511
5 CP2 235 9.511
5 CP2 236 9.511
5 CP2 237 10.000
5 CP2 238 10.976
5 CP2 239 11.953
5 CP2 240 12.441
5 CP2 241 12.929
5 CP2 242 12.441
5 CP2 243 11.464
5 CP2 244 10.000
5 CP2 245 8.535
5 CP2 246 7.070
5 CP2 247 5.117
5 CP2 248 3.652
5 CP2 249 2.187
5 CP2 250 0.722
5 CP2 251 0.234
5 CP2 252 0.234
5 CP2 253 1.211
5 CP2 254 1.699
5 CP2 255 3.164
# P3 chan 22
5 P3 0 -0.051
5 P3 1 -1.516
5 P3 2 -2.981
5 P3 3 -3.957
5 P3 4 -4.445
5 P3 5 -4.445
5 P3 6 -3.957
5 P3 7 -2.981
5 P3 8 -1.027
5 P3 9 0.926
5 P3 10 2.391
5 P3 11 2.879
5 P3 12 2.879
5 P3 13 1.414
5 P3 14 0.437
5 P3 15 -0.051
5 P3 16 0.926
5 P3 17 2.391
5 P3 18 4.344
5 P3 19 5.320
5 P3 20 5.809
5 P3 21 5.809
5 P3 22 4.832
5 P3 23 3.855
5 P3 24 3.367
5 P3 25 3.367
5 P3 26 3.367
5 P3 27 4.344
5 P3 28 4.832
5 P3 29 5.809
5 P3 30 5.809
5 P3 31 4.344
5 P3 32 2.879
5 P3 33 1.414
5 P3 34 -0.539
5 P3 35 -1.516
5 P3 36 -2.004
5 P3 37 -2.004
5 P3 38 -1.516
5 P3 39 0.437
5 P3 40 1.902
5 P3 41 3.855
5 P3 42 4.832
5 P3 43 4.832
5 P3 44 4.344
5 P3 45 3.855
5 P3 46 3.367
5 P3 47 2.879
5 P3 48 2.391
5 P3 49 0.926
5 P3 50 -0.539
5 P3 51 -1.516
5 P3 52 -2.492
5 P3 53 -2.492
5 P3 54 -2.492
5 P3 55 -2.492
5 P3 56 -2.004
5 P3 57 -1.516
5 P3 58 -1.027
5 P3 59 -0.051
5 P3 60 0.926
5 P3 61 2.391
5 P3 62 4.832
5 P3 63 7.762
5 P3 64 11.668
5 P3 65 14.598
5 P3 66 16.062
5 P3 67 16.062
5 P3 68 16.551
5 P3 69 16.551
5 P3 70 16.551
5 P3 71 17.039
5 P3 72 17.039
5 P3 73 16.062
5 P3 74 14.598
5 P3 75 13.133
5 P3 76 11.668
5 P3 77 10.203
5 P3 78 9.226
5 P3 79 7.762
5 P3 80 6.785
5 P3 81 6.297
5 P3 82 6.297
5 P3 83 7.273
5 P3 84 8.250
5 P3 85 9.226
5 P3 86 10.691
5 P3 87 11.180
5 P3 88 11.668
5 P3 89 12.156
5 P3 90 11.668
5 P3 91 12.156
5 P3 92 12.156
5 P3 93 12.156
5 P3 94 12.156
5 P3 95 12.644
5 P3 96 12.644
5 P3 97 12.644
5 P3 98 12.644
5 P3 99 12.156
5 P3 100 11.668
5 P3 101 10.691
5 P3 102 10.691
5 P3 103 10.691
5 P3 104 11.180
5 P3 105 11.668
5 P3 106 11.668
5 P3 107 11.180
5 P3 108 10.691
5 P3 109 10.691
5 P3 110 11.668
5 P3 111 13.133
5 P3 112 14.598
5 P3 113 15.086
5 P3 114 14.598
5 P3 115 13.621
5 P3 116 12.644
5 P3 117 11.180
5 P3 118 10.691
5 P3 119 10.691
5 P3 120 11.668
5 P3 121 11.668
5 P3 122 12.156
5 P3 123 11.668
5 P3 124 10.203
5 P3 125 8.738
5 P3 126 8.250
5 P3 127 7.273
5 P3 128 6.297
5 P3 129 6.297
5 P3 130 7.273
5 P3 131 8.738
5 P3 132 11.180
5 P3 133 13.133
5 P3 134 14.109
5 P3 135 14.598
5 P3 136 13.621
5 P3 137 13.133
5 P3 138 12.644
5 P3 139 12.644
5 P3 140 12.156
5 P3 141 11.668
5 P3 142 11.180
5 P3 143 10.691
5 P3 144 10.691
5 P3 145 10.691
5 P3 146 11.180
5 P3 147 11.180
5 P3 148 11.180
5 P3 149 10.691
5 P3 150 10.203
5 P3 151 9.226
5 P3 152 7.762
5 P3 153 6.297
5 P3 154 4.832
5 P3 155 4.344
5 P3 156 5.320
5 P3 157 7.273
5 P3 158 9.226
5 P3 159 11.180
5 P3 160 12.156
5 P3 161 12.644
5 P3 162 13.133
5 P3 163 13.621
5 P3 164 14.598
5 P3 165 15.574
5 P3 166 16.551
5 P3 167 17.039
5 P3 168 16.551
5 P3 169 15.574
5 P3 170 14.109
5 P3 171 13.133
5 P3 172 12.644
5 P3 173 12.156
5 P3 174 11.668
5 P3 175 10.691
5 P3 176 9.715
5 P3 177 8.738
5 P3 178 8.250
5 P3 179 9.226
5 P3 180 11.668
5 P3 181 13.621
5 P3 182 15.086
5 P3 183 15.574
5 P3 184 14.109
5 P3 185 12.644
5 P3 186 11.668
5 P3 187 11.180
5 P3 188 10.691
5 P3 189 10.691
5 P3 190 9.715
5 P3 191 9.226
5 P3 192 8.738
5 P3 193 9.226
5 P3 194 10.203
5 P3 195 11.668
5 P3 196 13.133
5 P3 197 14.109
5 P3 198 14.598
5 P3 199 15.574
5 P3 200 16.551
5 P3 201 17.527
5 P3 202 18.504
5 P3 203 18.504
5 P3 204 17.039
5 P3 205 15.574
5 P3 206 13.621
5 P3 207 12.156
5 P3 208 11.180
5 P3 209 10.691
5 P3 210 10.691
5 P3 211 10.691
5 P3 212 11.180
5 P3 213 11.180
5 P3 214 11.668
5 P3 215 11.668
5 P3 216 12.644
5 P3 217 14.109
5 P3 218 15.574
5 P3 219 17.527
5 P3 220 18.016
5 P3 221 18.504
5 P3 222 18.504
5 P3 223 18.504
5 P3 224 18.992
5 P3 225 18.992
5 P3 226 19.480
5 P3 227 19.480
5 P3 228 19.480
5 P3 229 19.480
5 P3 230 18.992
5 P3 231 18.992
5 P3 232 18.504
5 P3 233 18.504
5 P3 234 18.504
5 P3 235 18.504
5 P3 236 18.992
5 P3 237 19.480
5 P3 238 20.945
5 P3 239 21.434
5 P3 240 21.922
5 P3 241 21.434
5 P3 242 20.945
5 P3 243 19.969
5 P3 244 18.504
5 P3 245 17.039
5 P3 246 14.598
5 P3 247 11.180
5 P3 248 8.738
5 P3 249 6.297
5 P3 250 4.832
5 P3 251 3.367
5 P3 252 2.391
5 P3 253 2.391
5 P3 254 2.879
5 P3 255 4.344
# P4 chan 23
5 P4 0 -5.269
5 P4 1 -9.176
5 P4 2 -12.105
5 P4 3 -15.523
5 P4 4 -17.965
5 P4 5 -19.918
5 P4 6 -20.406
5 P4 7 -20.406
5 P4 8 -18.453
5 P4 9 -15.523
5 P4 10 -12.105
5 P4 11 -8.199
5 P4 12 -4.781
5 P4 13 -1.363
5 P4 14 2.055
5 P4 15 5.473
5 P4 16 8.891
5 P4 17 11.332
5 P4 18 12.797
5 P4 19 12.309
5 P4 20 10.356
5 P4 21 7.426
5 P4 22 4.008
5 P4 23 0.590
5 P4 24 -1.851
5 P4 25 -3.805
5 P4 26 -4.781
5 P4 27 -5.758
5 P4 28 -7.222
5 P4 29 -8.199
5 P4 30 -9.176
5 P4 31 -9.176
5 P4 32 -9.176
5 P4 33 -8.199
5 P4 34 -7.222
5 P4 35 -6.734
5 P4 36 -5.758
5 P4 37 -5.269
5 P4 38 -4.781
5 P4 39 -3.316
5 P4 40 -1.363
5 P4 41 0.102
5 P4 42 0.590
5 P4 43 0.590
5 P4 44 0.102
5 P4 45 -0.387
5 P4 46 0.102
5 P4 47 1.078
5 P4 48 1.567
5 P4 49 1.078
5 P4 50 -0.875
5 P4 51 -3.805
5 P4 52 -5.269
5 P4 53 -5.758
5 P4 54 -4.781
5 P4 55 -3.316
5 P4 56 -1.851
5 P4 57 -1.363
5 P4 58 -0.875
5 P4 59 0.590
5 P4 60 2.543
5 P4 61 4.008
5 P4 62 5.473
5 P4 63 5.473
5 P4 64 4.985
5 P4 65 4.008
5 P4 66 4.496
5 P4 67 5.473
5 P4 68 7.914
5 P4 69 9.379
5 P4 70 9.867
5 P4 71 9.379
5 P4 72 7.426
5 P4 73 4.985
5 P4 74 4.008
5 P4 75 3.520
5 P4 76 4.985
5 P4 77 6.449
5 P4 78 8.403
5 P4 79 9.379
5 P4 80 9.867
5 P4 81 9.379
5 P4 82 8.403
5 P4 83 7.426
5 P4 84 6.938
5 P4 85 7.426
5 P4 86 8.403
5 P4 87 8.891
5 P4 88 8.891
5 P4 89 7.914
5 P4 90 6.449
5 P4 91 5.961
5 P4 92 6.938
5 P4 93 8.891
5 P4 94 10.844
5 P4 95 12.797
5 P4 96 13.285
5 P4 97 12.797
5 P4 98 12.309
5 P4 99 11.820
5 P4 100 11.332
5 P4 101 11.332
5 P4 102 11.332
5 P4 103 11.332
5 P4 104 11.820
5 P4 105 12.309
5 P4 106 12.309
5 P4 107 12.797
5 P4 108 12.309
5 P4 109 12.309
5 P4 110 12.797
5 P4 111 12.797
5 P4 112 12.797
5 P4 113 12.797
5 P4 114 11.820
5 P4 115 10.356
5 P4 116 8.403
5 P4 117 7.426
5 P4 118 7.426
5 P4 119 7.914
5 P4 120 8.891
5 P4 121 8.891
5 P4 122 9.379
5 P4 123 9.379
5 P4 124 9.379
5 P4 125 8.403
5 P4 126 7.426
5 P4 127 5.961
5 P4 128 5.473
5 P4 129 5.473
5 P4 130 6.938
5 P4 131 8.891
5 P4 132 10.844
5 P4 133 12.797
5 P4 134 14.262
5 P4 135 14.750
5 P4 136 15.238
5 P4 137 14.750
5 P4 138 14.750
5 P4 139 14.750
5 P4 140 14.750
5 P4 141 15.238
5 P4 142 15.238
5 P4 143 15.238
5 P4 144 14.262
5 P4 145 13.774
5 P4 146 12.797
5 P4 147 11.820
5 P4 148 11.332
5 P4 149 10.844
5 P4 150 10.356
5 P4 151 9.867
5 P4 152 9.379
5 P4 153 8.403
5 P4 154 6.938
5 P4 155 6.449
5 P4 156 6.938
5 P4 157 8.891
5 P4 158 11.820
5 P4 159 14.750
5 P4 160 16.215
5 P4 161 17.192
5 P4 162 17.680
5 P4 163 18.168
5 P4 164 18.656
5 P4 165 19.145
5 P4 166 19.145
5 P4 167 18.168
5 P4 168 17.680
5 P4 169 17.680
5 P4 170 18.656
5 P4 171 18.656
5 P4 172 18.656
5 P4 173 17.192
5 P4 174 15.238
5 P4 175 13.774
5 P4 176 12.797
5 P4 177 12.309
5 P4 178 12.797
5 P4 179 13.774
5 P4 180 15.238
5 P4 181 16.703
5 P4 182 17.192
5 P4 183 16.215
5 P4 184 14.262
5 P4 185 12.797
5 P4 186 11.820
5 P4 187 12.797
5 P4 188 13.285
5 P4 189 13.774
5 P4 190 13.285
5 P4 191 12.797
5 P4 192 12.309
5 P4 193 13.285
5 P4 194 14.262
5 P4 195 15.727
5 P4 196 16.703
5 P4 197 17.192
5 P4 198 17.680
5 P4 199 18.656
5 P4 200 20.121
5 P4 201 21.098
5 P4 202 21.586
5 P4 203 21.098
5 P4 204 20.610
5 P4 205 19.633
5 P4 206 19.633
5 P4 207 19.145
5 P4 208 19.145
5 P4 209 19.145
5 P4 210 19.145
5 P4 211 19.145
5 P4 212 18.656
5 P4 213 17.680
5 P4 214 17.192
5 P4 215 16.703
5 P4 216 18.168
5 P4 217 19.633
5 P4 218 21.586
5 P4 219 21.586
5 P4 220 20.610
5 P4 221 19.145
5 P4 222 18.168
5 P4 223 18.168
5 P4 224 19.633
5 P4 225 20.610
5 P4 226 22.074
5 P4 227 22.563
5 P4 228 23.539
5 P4 229 23.051
5 P4 230 22.563
5 P4 231 21.586
5 P4 232 20.121
5 P4 233 18.656
5 P4 234 17.680
5 P4 235 17.680
5 P4 236 18.168
5 P4 237 19.633
5 P4 238 21.098
5 P4 239 23.051
5 P4 240 25.492
5 P4 241 26.957
5 P4 242 27.934
5 P4 243 26.469
5 P4 244 23.539
5 P4 245 19.633
5 P4 246 15.238
5 P4 247 10.844
5 P4 248 6.938
5 P4 249 3.520
5 P4 250 0.590
5 P4 251 -1.851
5 P4 252 -2.828
5 P4 253 -1.851
5 P4 254 0.590
5 P4 255 3.520
# PZ chan 24
5 PZ 0 -2.289
5 PZ 1 -4.730
5 PZ 2 -7.172
5 PZ 3 -9.125
5 PZ 4 -10.590
5 PZ 5 -10.590
5 PZ 6 -9.613
5 PZ 7 -8.148
5 PZ 8 -5.707
5 PZ 9 -3.265
5 PZ 10 -0.824
5 PZ 11 0.641
5 PZ 12 2.106
5 PZ 13 2.594
5 PZ 14 2.594
5 PZ 15 3.571
5 PZ 16 4.059
5 PZ 17 5.035
5 PZ 18 6.012
5 PZ 19 6.012
5 PZ 20 5.035
5 PZ 21 2.594
5 PZ 22 0.641
5 PZ 23 -1.801
5 PZ 24 -2.777
5 PZ 25 -2.289
5 PZ 26 -1.312
5 PZ 27 0.153
5 PZ 28 1.617
5 PZ 29 2.594
5 PZ 30 2.594
5 PZ 31 2.106
5 PZ 32 1.129
5 PZ 33 0.153
5 PZ 34 -0.336
5 PZ 35 0.153
5 PZ 36 0.153
5 PZ 37 0.641
5 PZ 38 0.641
5 PZ 39 1.617
5 PZ 40 2.594
5 PZ 41 3.082
5 PZ 42 3.082
5 PZ 43 2.106
5 PZ 44 1.129
5 PZ 45 1.129
5 PZ 46 1.129
5 PZ 47 2.106
5 PZ 48 2.594
5 PZ 49 2.106
5 PZ 50 0.641
5 PZ 51 -0.824
5 PZ 52 -1.312
5 PZ 53 -1.312
5 PZ 54 -0.336
5 PZ 55 0.153
5 PZ 56 0.641
5 PZ 57 1.129
5 PZ 58 1.617
5 PZ 59 3.082
5 PZ 60 5.035
5 PZ 61 6.500
5 PZ 62 7.965
5 PZ 63 8.453
5 PZ 64 8.942
5 PZ 65 9.918
5 PZ 66 10.406
5 PZ 67 11.383
5 PZ 68 11.383
5 PZ 69 11.871
5 PZ 70 11.871
5 PZ 71 11.871
5 PZ 72 11.383
5 PZ 73 10.895
5 PZ 74 9.918
5 PZ 75 9.430
5 PZ 76 9.430
5 PZ 77 9.430
5 PZ 78 9.918
5 PZ 79 9.918
5 PZ 80 9.430
5 PZ 81 9.430
5 PZ 82 9.918
5 PZ 83 9.918
5 PZ 84 9.918
5 PZ 85 10.406
5 PZ 86 11.383
5 PZ 87 11.383
5 PZ 88 11.383
5 PZ 89 11.383
5 PZ 90 10.895
5 PZ 91 10.895
5 PZ 92 11.383
5 PZ 93 11.871
5 PZ 94 12.848
5 PZ 95 13.824
5 PZ 96 13.824
5 PZ 97 13.824
5 PZ 98 13.824
5 PZ 99 14.313
5 PZ 100 13.824
5 PZ 101 13.824
5 PZ 102 13.336
5 PZ 103 13.336
5 PZ 104 13.336
5 PZ 105 13.336
5 PZ 106 13.824
5 PZ 107 13.336
5 PZ 108 13.336
5 PZ 109 12.848
5 PZ 110 12.848
5 PZ 111 13.336
5 PZ 112 14.313
5 PZ 113 14.313
5 PZ 114 14.313
5 PZ 115 12.848
5 PZ 116 11.871
5 PZ 117 10.406
5 PZ 118 9.918
5 PZ 119 9.430
5 PZ 120 9.918
5 PZ 121 10.895
5 PZ 122 11.383
5 PZ 123 11.383
5 PZ 124 10.406
5 PZ 125 9.430
5 PZ 126 7.965
5 PZ 127 6.989
5 PZ 128 6.500
5 PZ 129 6.500
5 PZ 130 6.989
5 PZ 131 7.965
5 PZ 132 9.430
5 PZ 133 10.895
5 PZ 134 12.360
5 PZ 135 12.848
5 PZ 136 13.336
5 PZ 137 12.848
5 PZ 138 12.360
5 PZ 139 11.871
5 PZ 140 11.383
5 PZ 141 10.406
5 PZ 142 9.918
5 PZ 143 9.918
5 PZ 144 9.918
5 PZ 145 10.406
5 PZ 146 10.895
5 PZ 147 10.895
5 PZ 148 10.406
5 PZ 149 9.430
5 PZ 150 8.453
5 PZ 151 7.477
5 PZ 152 6.500
5 PZ 153 5.524
5 PZ 154 4.547
5 PZ 155 4.547
5 PZ 156 4.547
5 PZ 157 6.012
5 PZ 158 7.965
5 PZ 159 9.918
5 PZ 160 10.895
5 PZ 161 11.383
5 PZ 162 12.360
5 PZ 163 13.336
5 PZ 164 14.313
5 PZ 165 15.289
5 PZ 166 15.778
5 PZ 167 15.289
5 PZ 168 14.313
5 PZ 169 12.848
5 PZ 170 12.360
5 PZ 171 11.871
5 PZ 172 11.871
5 PZ 173 11.383
5 PZ 174 10.895
5 PZ 175 10.406
5 PZ 176 10.406
5 PZ 177 10.406
5 PZ 178 10.406
5 PZ 179 11.871
5 PZ 180 13.336
5 PZ 181 15.289
5 PZ 182 16.754
5 PZ 183 16.266
5 PZ 184 14.801
5 PZ 185 12.360
5 PZ 186 11.383
5 PZ 187 10.895
5 PZ 188 11.383
5 PZ 189 11.871
5 PZ 190 10.895
5 PZ 191 9.918
5 PZ 192 8.942
5 PZ 193 8.453
5 PZ 194 8.942
5 PZ 195 10.406
5 PZ 196 11.871
5 PZ 197 12.848
5 PZ 198 13.824
5 PZ 199 14.801
5 PZ 200 15.778
5 PZ 201 17.242
5 PZ 202 17.731
5 PZ 203 17.731
5 PZ 204 17.731
5 PZ 205 16.754
5 PZ 206 15.778
5 PZ 207 15.289
5 PZ 208 14.801
5 PZ 209 14.801
5 PZ 210 14.801
5 PZ 211 14.801
5 PZ 212 14.313
5 PZ 213 13.824
5 PZ 214 13.336
5 PZ 215 12.848
5 PZ 216 12.848
5 PZ 217 12.848
5 PZ 218 13.824
5 PZ 219 14.313
5 PZ 220 14.313
5 PZ 221 14.313
5 PZ 222 13.824
5 PZ 223 13.824
5 PZ 224 14.313
5 PZ 225 14.801
5 PZ 226 15.289
5 PZ 227 15.289
5 PZ 228 15.778
5 PZ 229 16.266
5 PZ 230 15.778
5 PZ 231 15.289
5 PZ 232 14.801
5 PZ 233 14.801
5 PZ 234 14.313
5 PZ 235 14.313
5 PZ 236 14.801
5 PZ 237 15.289
5 PZ 238 16.266
5 PZ 239 17.242
5 PZ 240 17.731
5 PZ 241 17.731
5 PZ 242 17.731
5 PZ 243 16.754
5 PZ 244 15.778
5 PZ 245 13.824
5 PZ 246 11.383
5 PZ 247 8.942
5 PZ 248 6.989
5 PZ 249 5.035
5 PZ 250 3.571
5 PZ 251 2.106
5 PZ 252 1.617
5 PZ 253 1.617
5 PZ 254 2.106
5 PZ 255 3.571
# P8 chan 25
5 P8 0 -0.427
5 P8 1 -5.798
5 P8 2 -10.193
5 P8 3 -13.611
5 P8 4 -16.052
5 P8 5 -18.005
5 P8 6 -20.935
5 P8 7 -23.865
5 P8 8 -26.306
5 P8 9 -27.771
5 P8 10 -26.306
5 P8 11 -22.400
5 P8 12 -15.564
5 P8 13 -8.728
5 P8 14 -1.404
5 P8 15 5.432
5 P8 16 11.292
5 P8 17 16.663
5 P8 18 20.081
5 P8 19 21.545
5 P8 20 20.081
5 P8 21 16.663
5 P8 22 12.756
5 P8 23 8.362
5 P8 24 5.432
5 P8 25 2.502
5 P8 26 0.061
5 P8 27 -2.869
5 P8 28 -6.287
5 P8 29 -9.216
5 P8 30 -11.658
5 P8 31 -13.611
5 P8 32 -14.099
5 P8 33 -15.076
5 P8 34 -16.052
5 P8 35 -17.029
5 P8 36 -18.005
5 P8 37 -18.005
5 P8 38 -17.029
5 P8 39 -14.099
5 P8 40 -9.705
5 P8 41 -5.310
5 P8 42 -2.380
5 P8 43 -0.916
5 P8 44 -0.427
5 P8 45 -0.916
5 P8 46 -0.916
5 P8 47 -0.427
5 P8 48 -0.427
5 P8 49 -1.404
5 P8 50 -2.869
5 P8 51 -4.333
5 P8 52 -5.310
5 P8 53 -5.310
5 P8 54 -4.333
5 P8 55 -3.357
5 P8 56 -2.869
5 P8 57 -1.404
5 P8 58 0.549
5 P8 59 2.991
5 P8 60 5.920
5 P8 61 7.385
5 P8 62 8.362
5 P8 63 7.874
5 P8 64 7.385
5 P8 65 7.874
5 P8 66 9.338
5 P8 67 12.268
5 P8 68 14.709
5 P8 69 16.174
5 P8 70 16.174
5 P8 71 14.221
5 P8 72 11.292
5 P8 73 7.874
5 P8 74 5.920
5 P8 75 4.944
5 P8 76 5.432
5 P8 77 6.897
5 P8 78 8.850
5 P8 79 9.827
5 P8 80 10.315
5 P8 81 10.315
5 P8 82 10.315
5 P8 83 10.315
5 P8 84 10.803
5 P8 85 11.292
5 P8 86 11.292
5 P8 87 10.803
5 P8 88 9.338
5 P8 89 7.874
5 P8 90 6.409
5 P8 91 6.897
5 P8 92 8.362
5 P8 93 10.315
5 P8 94 12.268
5 P8 95 13.245
5 P8 96 13.245
5 P8 97 13.245
5 P8 98 13.245
5 P8 99 12.756
5 P8 100 12.268
5 P8 101 11.780
5 P8 102 11.292
5 P8 103 11.292
5 P8 104 12.268
5 P8 105 13.733
5 P8 106 15.198
5 P8 107 15.686
5 P8 108 15.198
5 P8 109 14.221
5 P8 110 13.733
5 P8 111 13.733
5 P8 112 14.221
5 P8 113 14.221
5 P8 114 13.245
5 P8 115 11.780
5 P8 116 9.827
5 P8 117 8.850
5 P8 118 8.850
5 P8 119 10.315
5 P8 120 11.780
5 P8 121 11.780
5 P8 122 11.780
5 P8 123 10.315
5 P8 124 8.850
5 P8 125 7.874
5 P8 126 6.897
5 P8 127 6.409
5 P8 128 6.409
5 P8 129 6.409
5 P8 130 7.385
5 P8 131 8.850
5 P8 132 10.803
5 P8 133 13.245
5 P8 134 14.709
5 P8 135 15.686
5 P8 136 16.663
5 P8 137 16.663
5 P8 138 16.174
5 P8 139 15.686
5 P8 140 15.198
5 P8 141 15.198
5 P8 142 14.709
5 P8 143 14.221
5 P8 144 12.756
5 P8 145 11.780
5 P8 146 10.315
5 P8 147 9.827
5 P8 148 9.338
5 P8 149 8.850
5 P8 150 8.850
5 P8 151 8.850
5 P8 152 8.362
5 P8 153 7.385
5 P8 154 6.897
5 P8 155 6.409
5 P8 156 6.409
5 P8 157 8.850
5 P8 158 12.756
5 P8 159 16.663
5 P8 160 19.592
5 P8 161 20.081
5 P8 162 19.592
5 P8 163 18.616
5 P8 164 18.127
5 P8 165 19.104
5 P8 166 19.592
5 P8 167 20.081
5 P8 168 19.104
5 P8 169 18.616
5 P8 170 17.639
5 P8 171 17.639
5 P8 172 18.127
5 P8 173 17.151
5 P8 174 15.686
5 P8 175 13.245
5 P8 176 11.292
5 P8 177 9.827
5 P8 178 9.827
5 P8 179 10.803
5 P8 180 12.268
5 P8 181 13.245
5 P8 182 12.268
5 P8 183 11.292
5 P8 184 8.850
5 P8 185 7.385
5 P8 186 6.897
5 P8 187 7.874
5 P8 188 9.827
5 P8 189 11.780
5 P8 190 13.245
5 P8 191 13.733
5 P8 192 14.221
5 P8 193 15.198
5 P8 194 16.174
5 P8 195 17.639
5 P8 196 17.639
5 P8 197 17.639
5 P8 198 17.639
5 P8 199 18.127
5 P8 200 19.104
5 P8 201 20.569
5 P8 202 21.545
5 P8 203 21.545
5 P8 204 20.569
5 P8 205 19.104
5 P8 206 17.639
5 P8 207 17.639
5 P8 208 17.639
5 P8 209 18.616
5 P8 210 19.592
5 P8 211 19.592
5 P8 212 18.616
5 P8 213 16.663
5 P8 214 15.198
5 P8 215 15.198
5 P8 216 17.151
5 P8 217 20.081
5 P8 218 23.010
5 P8 219 24.963
5 P8 220 24.963
5 P8 221 23.987
5 P8 222 23.499
5 P8 223 24.475
5 P8 224 26.917
5 P8 225 28.870
5 P8 226 30.334
5 P8 227 30.823
5 P8 228 30.334
5 P8 229 29.846
5 P8 230 28.870
5 P8 231 27.893
5 P8 232 26.428
5 P8 233 24.963
5 P8 234 23.987
5 P8 235 24.475
5 P8 236 25.940
5 P8 237 28.381
5 P8 238 31.311
5 P8 239 33.752
5 P8 240 36.194
5 P8 241 37.659
5 P8 242 38.147
5 P8 243 37.170
5 P8 244 34.241
5 P8 245 29.358
5 P8 246 23.499
5 P8 247 17.639
5 P8 248 11.780
5 P8 249 5.920
5 P8 250 0.549
5 P8 251 -4.333
5 P8 252 -7.263
5 P8 253 -6.775
5 P8 254 -3.357
5 P8 255 2.502
# P7 chan 26
5 P7 0 2.604
5 P7 1 2.116
5 P7 2 2.116
5 P7 3 1.628
5 P7 4 1.139
5 P7 5 0.651
5 P7 6 1.139
5 P7 7 1.628
5 P7 8 2.604
5 P7 9 3.581
5 P7 10 3.581
5 P7 11 3.581
5 P7 12 2.116
5 P7 13 0.651
5 P7 14 -0.814
5 P7 15 -1.302
5 P7 16 -0.326
5 P7 17 1.139
5 P7 18 3.581
5 P7 19 6.022
5 P7 20 8.952
5 P7 21 10.905
5 P7 22 12.370
5 P7 23 11.882
5 P7 24 10.905
5 P7 25 9.928
5 P7 26 8.952
5 P7 27 8.952
5 P7 28 9.440
5 P7 29 9.440
5 P7 30 8.464
5 P7 31 6.999
5 P7 32 5.046
5 P7 33 3.092
5 P7 34 1.139
5 P7 35 -1.302
5 P7 36 -3.255
5 P7 37 -5.208
5 P7 38 -5.697
5 P7 39 -3.743
5 P7 40 -0.326
5 P7 41 3.092
5 P7 42 5.534
5 P7 43 6.022
5 P7 44 6.022
5 P7 45 6.022
5 P7 46 6.022
5 P7 47 6.022
5 P7 48 5.534
5 P7 49 4.069
5 P7 50 2.116
5 P7 51 1.139
5 P7 52 1.139
5 P7 53 1.628
5 P7 54 2.116
5 P7 55 2.604
5 P7 56 3.092
5 P7 57 3.092
5 P7 58 3.092
5 P7 59 2.604
5 P7 60 1.628
5 P7 61 1.628
5 P7 62 3.581
5 P7 63 8.464
5 P7 64 15.299
5 P7 65 21.647
5 P7 66 26.042
5 P7 67 27.018
5 P7 68 26.042
5 P7 69 24.577
5 P7 70 24.089
5 P7 71 24.577
5 P7 72 24.577
5 P7 73 24.089
5 P7 74 21.647
5 P7 75 18.717
5 P7 76 16.276
5 P7 77 14.323
5 P7 78 12.858
5 P7 79 10.417
5 P7 80 7.487
5 P7 81 5.534
5 P7 82 5.534
5 P7 83 6.510
5 P7 84 8.952
5 P7 85 11.882
5 P7 86 14.323
5 P7 87 16.276
5 P7 88 18.229
5 P7 89 19.694
5 P7 90 20.671
5 P7 91 21.159
5 P7 92 21.647
5 P7 93 21.159
5 P7 94 21.159
5 P7 95 20.182
5 P7 96 19.694
5 P7 97 18.717
5 P7 98 17.741
5 P7 99 16.276
5 P7 100 14.323
5 P7 101 12.858
5 P7 102 11.882
5 P7 103 11.882
5 P7 104 12.858
5 P7 105 14.323
5 P7 106 14.811
5 P7 107 13.835
5 P7 108 12.370
5 P7 109 11.393
5 P7 110 11.882
5 P7 111 13.346
5 P7 112 15.788
5 P7 113 18.229
5 P7 114 19.694
5 P7 115 19.694
5 P7 116 19.206
5 P7 117 17.741
5 P7 118 16.764
5 P7 119 15.788
5 P7 120 14.811
5 P7 121 14.323
5 P7 122 14.323
5 P7 123 13.835
5 P7 124 12.858
5 P7 125 10.905
5 P7 126 8.952
5 P7 127 7.487
5 P7 128 6.999
5 P7 129 7.487
5 P7 130 8.952
5 P7 131 11.393
5 P7 132 13.835
5 P7 133 15.788
5 P7 134 16.764
5 P7 135 17.741
5 P7 136 17.253
5 P7 137 17.253
5 P7 138 17.741
5 P7 139 17.741
5 P7 140 17.253
5 P7 141 17.253
5 P7 142 16.276
5 P7 143 15.299
5 P7 144 14.323
5 P7 145 14.811
5 P7 146 15.788
5 P7 147 17.253
5 P7 148 18.717
5 P7 149 19.206
5 P7 150 18.717
5 P7 151 17.253
5 P7 152 15.299
5 P7 153 13.346
5 P7 154 11.393
5 P7 155 10.417
5 P7 156 10.417
5 P7 157 11.882
5 P7 158 14.323
5 P7 159 16.764
5 P7 160 19.206
5 P7 161 20.182
5 P7 162 20.671
5 P7 163 20.671
5 P7 164 21.159
5 P7 165 22.624
5 P7 166 24.089
5 P7 167 24.577
5 P7 168 24.089
5 P7 169 23.112
5 P7 170 22.624
5 P7 171 22.624
5 P7 172 23.600
5 P7 173 23.600
5 P7 174 23.600
5 P7 175 22.135
5 P7 176 20.671
5 P7 177 19.206
5 P7 178 18.229
5 P7 179 18.229
5 P7 180 19.206
5 P7 181 20.671
5 P7 182 22.135
5 P7 183 23.112
5 P7 184 23.112
5 P7 185 22.135
5 P7 186 20.671
5 P7 187 19.694
5 P7 188 18.717
5 P7 189 18.229
5 P7 190 17.741
5 P7 191 16.764
5 P7 192 16.276
5 P7 193 16.764
5 P7 194 17.741
5 P7 195 20.182
5 P7 196 22.135
5 P7 197 23.112
5 P7 198 22.624
5 P7 199 22.624
5 P7 200 22.624
5 P7 201 23.600
5 P7 202 24.577
5 P7 203 25.065
5 P7 204 23.112
5 P7 205 20.671
5 P7 206 18.717
5 P7 207 16.764
5 P7 208 15.788
5 P7 209 15.788
5 P7 210 15.299
5 P7 211 15.299
5 P7 212 14.811
5 P7 213 14.811
5 P7 214 14.811
5 P7 215 15.299
5 P7 216 16.764
5 P7 217 19.206
5 P7 218 22.135
5 P7 219 26.042
5 P7 220 28.483
5 P7 221 29.948
5 P7 222 30.436
5 P7 223 29.948
5 P7 224 29.460
5 P7 225 29.460
5 P7 226 30.436
5 P7 227 30.924
5 P7 228 30.924
5 P7 229 30.924
5 P7 230 30.436
5 P7 231 29.948
5 P7 232 30.436
5 P7 233 31.413
5 P7 234 31.901
5 P7 235 31.901
5 P7 236 31.413
5 P7 237 30.924
5 P7 238 31.901
5 P7 239 32.878
5 P7 240 33.854
5 P7 241 34.831
5 P7 242 34.342
5 P7 243 32.878
5 P7 244 30.924
5 P7 245 28.483
5 P7 246 25.553
5 P7 247 22.135
5 P7 248 18.717
5 P7 249 15.299
5 P7 250 12.858
5 P7 251 10.417
5 P7 252 7.975
5 P7 253 6.510
5 P7 254 6.510
5 P7 255 7.487
# PO2 chan 27
5 PO2 0 -4.333
5 PO2 1 -8.728
5 PO2 2 -13.611
5 PO2 3 -18.005
5 PO2 4 -21.423
5 PO2 5 -23.376
5 PO2 6 -23.865
5 PO2 7 -22.888
5 PO2 8 -21.423
5 PO2 9 -18.494
5 PO2 10 -15.564
5 PO2 11 -12.146
5 PO2 12 -8.728
5 PO2 13 -5.310
5 PO2 14 -2.380
5 PO2 15 0.549
5 PO2 16 4.456
5 PO2 17 7.874
5 PO2 18 10.315
5 PO2 19 11.292
5 PO2 20 10.803
5 PO2 21 8.362
5 PO2 22 4.944
5 PO2 23 1.526
5 PO2 24 -1.404
5 PO2 25 -2.869
5 PO2 26 -3.357
5 PO2 27 -3.357
5 PO2 28 -3.845
5 PO2 29 -5.310
5 PO2 30 -7.263
5 PO2 31 -9.705
5 PO2 32 -11.658
5 PO2 33 -13.123
5 PO2 34 -13.611
5 PO2 35 -14.099
5 PO2 36 -13.611
5 PO2 37 -12.634
5 PO2 38 -10.681
5 PO2 39 -7.263
5 PO2 40 -3.845
5 PO2 41 -0.916
5 PO2 42 0.061
5 PO2 43 -0.427
5 PO2 44 -1.892
5 PO2 45 -2.869
5 PO2 46 -2.380
5 PO2 47 -1.404
5 PO2 48 -0.427
5 PO2 49 -1.404
5 PO2 50 -3.357
5 PO2 51 -6.287
5 PO2 52 -8.240
5 PO2 53 -8.728
5 PO2 54 -8.240
5 PO2 55 -7.751
5 PO2 56 -6.775
5 PO2 57 -6.287
5 PO2 58 -4.822
5 PO2 59 -2.380
5 PO2 60 1.038
5 PO2 61 3.967
5 PO2 62 5.920
5 PO2 63 7.874
5 PO2 64 8.850
5 PO2 65 9.827
5 PO2 66 10.315
5 PO2 67 11.780
5 PO2 68 12.268
5 PO2 69 12.268
5 PO2 70 11.292
5 PO2 71 9.338
5 PO2 72 7.385
5 PO2 73 4.944
5 PO2 74 3.479
5 PO2 75 2.502
5 PO2 76 2.991
5 PO2 77 3.967
5 PO2 78 4.944
5 PO2 79 6.409
5 PO2 80 6.897
5 PO2 81 6.897
5 PO2 82 7.385
5 PO2 83 7.385
5 PO2 84 8.362
5 PO2 85 9.827
5 PO2 86 11.292
5 PO2 87 11.780
5 PO2 88 11.780
5 PO2 89 11.292
5 PO2 90 10.315
5 PO2 91 9.827
5 PO2 92 10.315
5 PO2 93 11.780
5 PO2 94 13.245
5 PO2 95 14.221
5 PO2 96 14.709
5 PO2 97 14.221
5 PO2 98 14.221
5 PO2 99 13.733
5 PO2 100 12.756
5 PO2 101 12.756
5 PO2 102 13.245
5 PO2 103 13.733
5 PO2 104 14.221
5 PO2 105 14.709
5 PO2 106 15.198
5 PO2 107 15.198
5 PO2 108 15.198
5 PO2 109 15.198
5 PO2 110 15.686
5 PO2 111 16.174
5 PO2 112 17.151
5 PO2 113 17.639
5 PO2 114 17.151
5 PO2 115 15.686
5 PO2 116 13.733
5 PO2 117 12.268
5 PO2 118 11.292
5 PO2 119 11.780
5 PO2 120 12.756
5 PO2 121 13.733
5 PO2 122 14.221
5 PO2 123 13.245
5 PO2 124 12.268
5 PO2 125 10.315
5 PO2 126 9.338
5 PO2 127 7.874
5 PO2 128 6.897
5 PO2 129 6.897
5 PO2 130 7.874
5 PO2 131 9.827
5 PO2 132 12.268
5 PO2 133 15.686
5 PO2 134 18.127
5 PO2 135 19.104
5 PO2 136 19.104
5 PO2 137 18.616
5 PO2 138 18.127
5 PO2 139 17.151
5 PO2 140 16.663
5 PO2 141 16.174
5 PO2 142 16.174
5 PO2 143 16.174
5 PO2 144 16.174
5 PO2 145 15.686
5 PO2 146 15.198
5 PO2 147 15.198
5 PO2 148 14.709
5 PO2 149 14.221
5 PO2 150 13.245
5 PO2 151 12.268
5 PO2 152 10.803
5 PO2 153 9.338
5 PO2 154 7.874
5 PO2 155 7.874
5 PO2 156 8.850
5 PO2 157 10.803
5 PO2 158 13.733
5 PO2 159 16.174
5 PO2 160 18.616
5 PO2 161 19.592
5 PO2 162 20.569
5 PO2 163 21.545
5 PO2 164 23.010
5 PO2 165 24.475
5 PO2 166 24.475
5 PO2 167 23.987
5 PO2 168 23.010
5 PO2 169 21.545
5 PO2 170 20.569
5 PO2 171 20.081
5 PO2 172 19.104
5 PO2 173 18.127
5 PO2 174 17.639
5 PO2 175 16.663
5 PO2 176 16.174
5 PO2 177 16.174
5 PO2 178 17.151
5 PO2 179 18.127
5 PO2 180 20.081
5 PO2 181 22.034
5 PO2 182 22.522
5 PO2 183 21.545
5 PO2 184 19.104
5 PO2 185 16.174
5 PO2 186 14.221
5 PO2 187 14.221
5 PO2 188 14.709
5 PO2 189 15.198
5 PO2 190 15.198
5 PO2 191 14.221
5 PO2 192 13.733
5 PO2 193 13.733
5 PO2 194 15.198
5 PO2 195 16.174
5 PO2 196 17.151
5 PO2 197 18.127
5 PO2 198 19.104
5 PO2 199 21.057
5 PO2 200 23.010
5 PO2 201 24.475
5 PO2 202 25.452
5 PO2 203 25.452
5 PO2 204 24.475
5 PO2 205 23.010
5 PO2 206 22.522
5 PO2 207 22.034
5 PO2 208 22.034
5 PO2 209 22.034
5 PO2 210 22.522
5 PO2 211 22.522
5 PO2 212 21.545
5 PO2 213 19.592
5 PO2 214 17.639
5 PO2 215 16.663
5 PO2 216 16.663
5 PO2 217 18.127
5 PO2 218 20.569
5 PO2 219 22.034
5 PO2 220 22.522
5 PO2 221 22.522
5 PO2 222 21.545
5 PO2 223 22.034
5 PO2 224 23.010
5 PO2 225 23.987
5 PO2 226 24.963
5 PO2 227 25.452
5 PO2 228 25.940
5 PO2 229 25.940
5 PO2 230 25.940
5 PO2 231 25.452
5 PO2 232 23.987
5 PO2 233 23.010
5 PO2 234 21.545
5 PO2 235 20.081
5 PO2 236 20.081
5 PO2 237 21.057
5 PO2 238 23.010
5 PO2 239 25.940
5 PO2 240 28.381
5 PO2 241 30.334
5 PO2 242 30.823
5 PO2 243 29.846
5 PO2 244 26.917
5 PO2 245 23.010
5 PO2 246 18.616
5 PO2 247 13.733
5 PO2 248 9.827
5 PO2 249 5.920
5 PO2 250 2.502
5 PO2 251 0.061
5 PO2 252 -0.427
5 PO2 253 0.061
5 PO2 254 2.014
5 PO2 255 4.944
# PO1 chan 28
5 PO1 0 -3.916
5 PO1 1 -6.846
5 PO1 2 -10.264
5 PO1 3 -12.705
5 PO1 4 -13.194
5 PO1 5 -12.705
5 PO1 6 -10.752
5 PO1 7 -8.799
5 PO1 8 -5.870
5 PO1 9 -3.428
5 PO1 10 -1.475
5 PO1 11 0.478
5 PO1 12 0.966
5 PO1 13 0.478
5 PO1 14 -0.010
5 PO1 15 -0.010
5 PO1 16 1.455
5 PO1 17 4.384
5 PO1 18 7.314
5 PO1 19 9.267
5 PO1 20 9.755
5 PO1 21 8.291
5 PO1 22 5.849
5 PO1 23 3.896
5 PO1 24 2.920
5 PO1 25 2.920
5 PO1 26 3.896
5 PO1 27 4.873
5 PO1 28 4.873
5 PO1 29 4.873
5 PO1 30 3.896
5 PO1 31 2.920
5 PO1 32 2.431
5 PO1 33 1.455
5 PO1 34 -0.010
5 PO1 35 -1.475
5 PO1 36 -3.428
5 PO1 37 -3.428
5 PO1 38 -2.452
5 PO1 39 -0.010
5 PO1 40 2.920
5 PO1 41 5.361
5 PO1 42 6.337
5 PO1 43 5.361
5 PO1 44 3.896
5 PO1 45 2.431
5 PO1 46 2.431
5 PO1 47 2.920
5 PO1 48 2.920
5 PO1 49 1.943
5 PO1 50 -0.010
5 PO1 51 -1.963
5 PO1 52 -2.452
5 PO1 53 -1.963
5 PO1 54 -0.987
5 PO1 55 -0.010
5 PO1 56 -0.010
5 PO1 57 0.478
5 PO1 58 1.455
5 PO1 59 2.431
5 PO1 60 4.873
5 PO1 61 6.826
5 PO1 62 9.755
5 PO1 63 12.685
5 PO1 64 15.615
5 PO1 65 18.545
5 PO1 66 20.498
5 PO1 67 21.474
5 PO1 68 20.986
5 PO1 69 20.986
5 PO1 70 20.498
5 PO1 71 19.521
5 PO1 72 18.545
5 PO1 73 16.591
5 PO1 74 14.638
5 PO1 75 12.685
5 PO1 76 11.709
5 PO1 77 11.709
5 PO1 78 11.220
5 PO1 79 11.220
5 PO1 80 10.732
5 PO1 81 10.244
5 PO1 82 10.244
5 PO1 83 10.244
5 PO1 84 11.709
5 PO1 85 13.662
5 PO1 86 15.615
5 PO1 87 16.591
5 PO1 88 17.568
5 PO1 89 17.568
5 PO1 90 16.591
5 PO1 91 16.103
5 PO1 92 16.103
5 PO1 93 16.103
5 PO1 94 17.080
5 PO1 95 17.568
5 PO1 96 18.545
5 PO1 97 18.545
5 PO1 98 18.056
5 PO1 99 17.568
5 PO1 100 16.591
5 PO1 101 16.103
5 PO1 102 15.615
5 PO1 103 16.103
5 PO1 104 16.591
5 PO1 105 17.568
5 PO1 106 18.056
5 PO1 107 17.080
5 PO1 108 16.591
5 PO1 109 15.615
5 PO1 110 16.103
5 PO1 111 17.080
5 PO1 112 18.545
5 PO1 113 19.033
5 PO1 114 18.545
5 PO1 115 17.080
5 PO1 116 15.127
5 PO1 117 13.662
5 PO1 118 13.662
5 PO1 119 13.662
5 PO1 120 14.638
5 PO1 121 15.127
5 PO1 122 15.127
5 PO1 123 14.150
5 PO1 124 12.197
5 PO1 125 10.732
5 PO1 126 9.267
5 PO1 127 7.314
5 PO1 128 6.337
5 PO1 129 5.849
5 PO1 130 6.826
5 PO1 131 9.267
5 PO1 132 12.197
5 PO1 133 15.615
5 PO1 134 18.056
5 PO1 135 19.033
5 PO1 136 19.521
5 PO1 137 18.545
5 PO1 138 18.056
5 PO1 139 18.056
5 PO1 140 17.568
5 PO1 141 17.080
5 PO1 142 16.103
5 PO1 143 15.127
5 PO1 144 14.638
5 PO1 145 14.638
5 PO1 146 15.127
5 PO1 147 15.615
5 PO1 148 15.615
5 PO1 149 15.615
5 PO1 150 14.638
5 PO1 151 13.662
5 PO1 152 12.197
5 PO1 153 10.244
5 PO1 154 8.779
5 PO1 155 8.291
5 PO1 156 8.779
5 PO1 157 11.220
5 PO1 158 14.150
5 PO1 159 16.591
5 PO1 160 18.056
5 PO1 161 19.033
5 PO1 162 19.521
5 PO1 163 20.498
5 PO1 164 21.962
5 PO1 165 23.427
5 PO1 166 23.427
5 PO1 167 22.939
5 PO1 168 21.962
5 PO1 169 20.498
5 PO1 170 19.521
5 PO1 171 18.545
5 PO1 172 18.056
5 PO1 173 18.545
5 PO1 174 18.545
5 PO1 175 18.056
5 PO1 176 17.568
5 PO1 177 17.568
5 PO1 178 17.568
5 PO1 179 19.033
5 PO1 180 21.962
5 PO1 181 24.892
5 PO1 182 27.334
5 PO1 183 27.334
5 PO1 184 25.869
5 PO1 185 22.939
5 PO1 186 21.474
5 PO1 187 20.498
5 PO1 188 20.986
5 PO1 189 20.986
5 PO1 190 20.498
5 PO1 191 20.009
5 PO1 192 19.033
5 PO1 193 19.521
5 PO1 194 20.498
5 PO1 195 21.962
5 PO1 196 23.427
5 PO1 197 24.892
5 PO1 198 26.357
5 PO1 199 28.798
5 PO1 200 31.240
5 PO1 201 33.681
5 PO1 202 35.146
5 PO1 203 35.146
5 PO1 204 33.681
5 PO1 205 31.728
5 PO1 206 29.775
5 PO1 207 28.798
5 PO1 208 27.334
5 PO1 209 26.357
5 PO1 210 25.380
5 PO1 211 24.892
5 PO1 212 24.892
5 PO1 213 24.404
5 PO1 214 23.916
5 PO1 215 23.916
5 PO1 216 24.404
5 PO1 217 25.869
5 PO1 218 28.798
5 PO1 219 30.752
5 PO1 220 31.728
5 PO1 221 31.728
5 PO1 222 30.752
5 PO1 223 30.752
5 PO1 224 31.240
5 PO1 225 32.216
5 PO1 226 33.193
5 PO1 227 34.170
5 PO1 228 34.658
5 PO1 229 35.146
5 PO1 230 35.146
5 PO1 231 34.658
5 PO1 232 33.681
5 PO1 233 32.705
5 PO1 234 31.728
5 PO1 235 30.752
5 PO1 236 31.728
5 PO1 237 32.705
5 PO1 238 34.658
5 PO1 239 36.123
5 PO1 240 36.611
5 PO1 241 36.611
5 PO1 242 36.123
5 PO1 243 34.658
5 PO1 244 33.193
5 PO1 245 30.752
5 PO1 246 27.334
5 PO1 247 23.916
5 PO1 248 20.498
5 PO1 249 17.568
5 PO1 250 15.127
5 PO1 251 13.662
5 PO1 252 12.685
5 PO1 253 13.173
5 PO1 254 14.638
5 PO1 255 17.080
# O2 chan 29
5 O2 0 2.462
5 O2 1 -2.421
5 O2 2 -7.304
5 O2 3 -12.187
5 O2 4 -16.093
5 O2 5 -19.023
5 O2 6 -20.976
5 O2 7 -21.952
5 O2 8 -22.929
5 O2 9 -22.929
5 O2 10 -21.464
5 O2 11 -19.511
5 O2 12 -16.581
5 O2 13 -12.675
5 O2 14 -8.769
5 O2 15 -2.909
5 O2 16 4.415
5 O2 17 11.739
5 O2 18 18.087
5 O2 19 21.016
5 O2 20 21.016
5 O2 21 18.087
5 O2 22 14.181
5 O2 23 10.274
5 O2 24 7.833
5 O2 25 6.368
5 O2 26 5.391
5 O2 27 3.927
5 O2 28 1.485
5 O2 29 -1.444
5 O2 30 -5.351
5 O2 31 -8.769
5 O2 32 -11.698
5 O2 33 -14.628
5 O2 34 -16.581
5 O2 35 -18.534
5 O2 36 -19.999
5 O2 37 -19.999
5 O2 38 -18.046
5 O2 39 -14.140
5 O2 40 -8.769
5 O2 41 -4.374
5 O2 42 -1.444
5 O2 43 -0.956
5 O2 44 -1.933
5 O2 45 -2.421
5 O2 46 -1.933
5 O2 47 -0.956
5 O2 48 -0.468
5 O2 49 -0.956
5 O2 50 -2.909
5 O2 51 -4.862
5 O2 52 -5.839
5 O2 53 -4.862
5 O2 54 -3.398
5 O2 55 -1.933
5 O2 56 -0.956
5 O2 57 0.020
5 O2 58 1.485
5 O2 59 2.950
5 O2 60 4.903
5 O2 61 7.345
5 O2 62 9.298
5 O2 63 10.763
5 O2 64 12.227
5 O2 65 14.181
5 O2 66 16.622
5 O2 67 19.063
5 O2 68 20.528
5 O2 69 20.528
5 O2 70 19.552
5 O2 71 18.087
5 O2 72 15.645
5 O2 73 13.692
5 O2 74 11.739
5 O2 75 9.786
5 O2 76 8.809
5 O2 77 8.809
5 O2 78 9.786
5 O2 79 10.763
5 O2 80 10.763
5 O2 81 10.274
5 O2 82 9.786
5 O2 83 10.274
5 O2 84 11.739
5 O2 85 14.181
5 O2 86 16.134
5 O2 87 16.134
5 O2 88 14.669
5 O2 89 12.227
5 O2 90 10.274
5 O2 91 9.786
5 O2 92 9.786
5 O2 93 11.251
5 O2 94 12.716
5 O2 95 13.204
5 O2 96 13.204
5 O2 97 13.204
5 O2 98 12.716
5 O2 99 12.227
5 O2 100 11.739
5 O2 101 12.227
5 O2 102 12.716
5 O2 103 13.692
5 O2 104 13.692
5 O2 105 14.181
5 O2 106 13.692
5 O2 107 13.204
5 O2 108 12.716
5 O2 109 12.716
5 O2 110 12.716
5 O2 111 13.204
5 O2 112 13.692
5 O2 113 13.692
5 O2 114 12.716
5 O2 115 11.251
5 O2 116 8.809
5 O2 117 6.368
5 O2 118 5.391
5 O2 119 5.880
5 O2 120 6.856
5 O2 121 7.833
5 O2 122 7.833
5 O2 123 6.368
5 O2 124 3.927
5 O2 125 1.485
5 O2 126 0.020
5 O2 127 -0.956
5 O2 128 -0.956
5 O2 129 -0.956
5 O2 130 0.020
5 O2 131 1.973
5 O2 132 4.415
5 O2 133 7.345
5 O2 134 9.786
5 O2 135 10.763
5 O2 136 11.251
5 O2 137 10.763
5 O2 138 10.274
5 O2 139 9.786
5 O2 140 10.274
5 O2 141 9.786
5 O2 142 9.786
5 O2 143 9.786
5 O2 144 9.298
5 O2 145 9.298
5 O2 146 8.809
5 O2 147 8.321
5 O2 148 7.833
5 O2 149 6.368
5 O2 150 5.391
5 O2 151 4.415
5 O2 152 3.438
5 O2 153 1.485
5 O2 154 0.020
5 O2 155 -0.956
5 O2 156 0.020
5 O2 157 2.950
5 O2 158 6.856
5 O2 159 10.274
5 O2 160 12.227
5 O2 161 12.716
5 O2 162 13.204
5 O2 163 14.181
5 O2 164 15.645
5 O2 165 17.110
5 O2 166 17.598
5 O2 167 16.622
5 O2 168 14.669
5 O2 169 13.692
5 O2 170 13.204
5 O2 171 13.204
5 O2 172 13.692
5 O2 173 12.716
5 O2 174 11.251
5 O2 175 9.786
5 O2 176 8.809
5 O2 177 8.809
