# co2c0000387.rd
# 120 trials, 64 chans, 416 samples 368 post_stim samples
# 3.906000 msecs uV
# S2 nomatch, trial 45
# FP1 chan 0
45 FP1 0 -0.580
45 FP1 1 -0.092
45 FP1 2 -0.092
45 FP1 3 -0.092
45 FP1 4 -0.580
45 FP1 5 -1.556
45 FP1 6 -3.021
45 FP1 7 -3.998
45 FP1 8 -4.486
45 FP1 9 -3.998
45 FP1 10 -2.533
45 FP1 11 -2.045
45 FP1 12 -2.533
45 FP1 13 -3.998
45 FP1 14 -5.951
45 FP1 15 -7.904
45 FP1 16 -8.392
45 FP1 17 -7.904
45 FP1 18 -7.904
45 FP1 19 -8.392
45 FP1 20 -9.857
45 FP1 21 -10.834
45 FP1 22 -10.834
45 FP1 23 -9.857
45 FP1 24 -8.392
45 FP1 25 -8.392
45 FP1 26 -9.857
45 FP1 27 -12.787
45 FP1 28 -14.740
45 FP1 29 -14.740
45 FP1 30 -12.299
45 FP1 31 -9.369
45 FP1 32 -7.416
45 FP1 33 -7.416
45 FP1 34 -8.881
45 FP1 35 -10.345
45 FP1 36 -10.834
45 FP1 37 -10.834
45 FP1 38 -10.834
45 FP1 39 -11.322
45 FP1 40 -11.810
45 FP1 41 -12.299
45 FP1 42 -11.810
45 FP1 43 -9.857
45 FP1 44 -8.392
45 FP1 45 -6.927
45 FP1 46 -6.927
45 FP1 47 -8.392
45 FP1 48 -10.345
45 FP1 49 -12.299
45 FP1 50 -14.252
45 FP1 51 -15.228
45 FP1 52 -15.228
45 FP1 53 -14.740
45 FP1 54 -14.252
45 FP1 55 -13.763
45 FP1 56 -13.275
45 FP1 57 -12.299
45 FP1 58 -11.810
45 FP1 59 -11.322
45 FP1 60 -11.810
45 FP1 61 -12.787
45 FP1 62 -13.763
45 FP1 63 -14.252
45 FP1 64 -12.787
45 FP1 65 -10.345
45 FP1 66 -8.392
45 FP1 67 -7.904
45 FP1 68 -8.881
45 FP1 69 -9.857
45 FP1 70 -10.345
45 FP1 71 -9.369
45 FP1 72 -8.392
45 FP1 73 -7.416
45 FP1 74 -7.904
45 FP1 75 -9.369
45 FP1 76 -9.857
45 FP1 77 -9.369
45 FP1 78 -7.416
45 FP1 79 -5.951
45 FP1 80 -5.463
45 FP1 81 -6.927
45 FP1 82 -8.881
45 FP1 83 -10.345
45 FP1 84 -10.345
45 FP1 85 -8.392
45 FP1 86 -5.951
45 FP1 87 -4.486
45 FP1 88 -4.974
45 FP1 89 -6.927
45 FP1 90 -9.369
45 FP1 91 -10.345
45 FP1 92 -8.881
45 FP1 93 -6.927
45 FP1 94 -4.974
45 FP1 95 -4.974
45 FP1 96 -6.439
45 FP1 97 -8.392
45 FP1 98 -9.857
45 FP1 99 -8.881
45 FP1 100 -6.927
45 FP1 101 -4.486
45 FP1 102 -3.998
45 FP1 103 -3.998
45 FP1 104 -4.974
45 FP1 105 -5.463
45 FP1 106 -5.951
45 FP1 107 -6.439
45 FP1 108 -6.927
45 FP1 109 -6.927
45 FP1 110 -6.439
45 FP1 111 -5.463
45 FP1 112 -4.974
45 FP1 113 -5.951
45 FP1 114 -7.416
45 FP1 115 -9.369
45 FP1 116 -10.345
45 FP1 117 -9.857
45 FP1 118 -9.369
45 FP1 119 -9.369
45 FP1 120 -10.834
45 FP1 121 -12.299
45 FP1 122 -13.763
45 FP1 123 -13.763
45 FP1 124 -12.787
45 FP1 125 -11.322
45 FP1 126 -10.834
45 FP1 127 -10.345
45 FP1 128 -9.857
45 FP1 129 -7.904
45 FP1 130 -4.974
45 FP1 131 -2.045
45 FP1 132 -0.092
45 FP1 133 0.885
45 FP1 134 -0.092
45 FP1 135 -1.556
45 FP1 136 -3.021
45 FP1 137 -3.998
45 FP1 138 -3.998
45 FP1 139 -2.533
45 FP1 140 -1.556
45 FP1 141 -0.580
45 FP1 142 -0.092
45 FP1 143 -0.092
45 FP1 144 -0.580
45 FP1 145 -1.068
45 FP1 146 -2.045
45 FP1 147 -3.021
45 FP1 148 -3.021
45 FP1 149 -2.045
45 FP1 150 -0.092
45 FP1 151 2.838
45 FP1 152 4.791
45 FP1 153 5.280
45 FP1 154 3.326
45 FP1 155 -0.092
45 FP1 156 -3.998
45 FP1 157 -5.951
45 FP1 158 -6.439
45 FP1 159 -5.463
45 FP1 160 -3.998
45 FP1 161 -2.533
45 FP1 162 -2.045
45 FP1 163 -2.045
45 FP1 164 -2.533
45 FP1 165 -3.021
45 FP1 166 -3.998
45 FP1 167 -4.486
45 FP1 168 -4.974
45 FP1 169 -4.486
45 FP1 170 -4.486
45 FP1 171 -4.486
45 FP1 172 -4.974
45 FP1 173 -4.974
45 FP1 174 -4.974
45 FP1 175 -3.998
45 FP1 176 -2.533
45 FP1 177 -0.580
45 FP1 178 0.885
45 FP1 179 1.862
45 FP1 180 3.326
45 FP1 181 5.280
45 FP1 182 7.721
45 FP1 183 8.698
45 FP1 184 8.698
45 FP1 185 7.233
45 FP1 186 5.280
45 FP1 187 3.326
45 FP1 188 1.862
45 FP1 189 1.862
45 FP1 190 2.350
45 FP1 191 3.815
45 FP1 192 5.768
45 FP1 193 7.233
45 FP1 194 8.209
45 FP1 195 8.209
45 FP1 196 6.744
45 FP1 197 5.768
45 FP1 198 4.791
45 FP1 199 4.303
45 FP1 200 3.326
45 FP1 201 0.885
45 FP1 202 -1.068
45 FP1 203 -3.510
45 FP1 204 -4.486
45 FP1 205 -4.486
45 FP1 206 -3.998
45 FP1 207 -3.998
45 FP1 208 -4.486
45 FP1 209 -4.486
45 FP1 210 -3.021
45 FP1 211 -0.092
45 FP1 212 3.815
45 FP1 213 5.768
45 FP1 214 4.791
45 FP1 215 1.373
45 FP1 216 -3.021
45 FP1 217 -4.486
45 FP1 218 -2.045
45 FP1 219 2.838
45 FP1 220 7.721
45 FP1 221 9.674
45 FP1 222 7.721
45 FP1 223 4.303
45 FP1 224 1.373
45 FP1 225 0.397
45 FP1 226 1.373
45 FP1 227 1.862
45 FP1 228 1.373
45 FP1 229 -0.092
45 FP1 230 -0.580
45 FP1 231 -0.580
45 FP1 232 0.885
45 FP1 233 2.350
45 FP1 234 2.838
45 FP1 235 3.326
45 FP1 236 2.838
45 FP1 237 2.350
45 FP1 238 1.373
45 FP1 239 0.885
45 FP1 240 -0.092
45 FP1 241 -0.580
45 FP1 242 -0.580
45 FP1 243 -0.580
45 FP1 244 -1.068
45 FP1 245 -2.045
45 FP1 246 -3.998
45 FP1 247 -5.951
45 FP1 248 -6.927
45 FP1 249 -6.927
45 FP1 250 -6.439
45 FP1 251 -5.463
45 FP1 252 -4.486
45 FP1 253 -3.510
45 FP1 254 -2.533
45 FP1 255 -1.556
# FP2 chan 1
45 FP2 0 -3.164
45 FP2 1 -2.675
45 FP2 2 -2.187
45 FP2 3 -0.722
45 FP2 4 -0.234
45 FP2 5 -0.722
45 FP2 6 -1.211
45 FP2 7 -2.187
45 FP2 8 -2.675
45 FP2 9 -3.164
45 FP2 10 -3.652
45 FP2 11 -3.652
45 FP2 12 -3.652
45 FP2 13 -4.140
45 FP2 14 -4.628
45 FP2 15 -5.605
45 FP2 16 -6.093
45 FP2 17 -6.582
45 FP2 18 -7.070
45 FP2 19 -7.070
45 FP2 20 -8.535
45 FP2 21 -9.511
45 FP2 22 -10.000
45 FP2 23 -10.000
45 FP2 24 -9.023
45 FP2 25 -8.535
45 FP2 26 -9.511
45 FP2 27 -10.976
45 FP2 28 -11.464
45 FP2 29 -10.488
45 FP2 30 -7.070
45 FP2 31 -3.652
45 FP2 32 -1.211
45 FP2 33 -0.722
45 FP2 34 -1.699
45 FP2 35 -3.652
45 FP2 36 -5.605
45 FP2 37 -7.558
45 FP2 38 -8.535
45 FP2 39 -9.511
45 FP2 40 -10.000
45 FP2 41 -9.511
45 FP2 42 -8.535
45 FP2 43 -6.582
45 FP2 44 -5.117
45 FP2 45 -4.140
45 FP2 46 -4.140
45 FP2 47 -5.117
45 FP2 48 -7.558
45 FP2 49 -10.488
45 FP2 50 -12.929
45 FP2 51 -14.394
45 FP2 52 -14.882
45 FP2 53 -14.394
45 FP2 54 -13.418
45 FP2 55 -12.441
45 FP2 56 -11.953
45 FP2 57 -11.953
45 FP2 58 -12.441
45 FP2 59 -12.441
45 FP2 60 -13.418
45 FP2 61 -14.394
45 FP2 62 -14.394
45 FP2 63 -14.394
45 FP2 64 -12.929
45 FP2 65 -10.488
45 FP2 66 -8.535
45 FP2 67 -8.046
45 FP2 68 -9.023
45 FP2 69 -10.976
45 FP2 70 -11.953
45 FP2 71 -11.464
45 FP2 72 -10.000
45 FP2 73 -8.046
45 FP2 74 -7.070
45 FP2 75 -7.558
45 FP2 76 -8.535
45 FP2 77 -9.023
45 FP2 78 -9.511
45 FP2 79 -9.511
45 FP2 80 -9.511
45 FP2 81 -9.511
45 FP2 82 -9.511
45 FP2 83 -9.511
45 FP2 84 -9.511
45 FP2 85 -8.535
45 FP2 86 -8.046
45 FP2 87 -8.046
45 FP2 88 -8.046
45 FP2 89 -8.535
45 FP2 90 -8.535
45 FP2 91 -8.046
45 FP2 92 -6.093
45 FP2 93 -4.628
45 FP2 94 -4.140
45 FP2 95 -5.117
45 FP2 96 -7.558
45 FP2 97 -10.488
45 FP2 98 -11.953
45 FP2 99 -11.464
45 FP2 100 -9.511
45 FP2 101 -6.582
45 FP2 102 -5.117
45 FP2 103 -5.117
45 FP2 104 -5.605
45 FP2 105 -7.070
45 FP2 106 -8.046
45 FP2 107 -9.023
45 FP2 108 -9.023
45 FP2 109 -9.023
45 FP2 110 -8.535
45 FP2 111 -7.558
45 FP2 112 -7.558
45 FP2 113 -8.535
45 FP2 114 -10.488
45 FP2 115 -12.441
45 FP2 116 -13.418
45 FP2 117 -13.418
45 FP2 118 -13.418
45 FP2 119 -12.929
45 FP2 120 -13.418
45 FP2 121 -13.906
45 FP2 122 -14.394
45 FP2 123 -14.394
45 FP2 124 -13.906
45 FP2 125 -13.906
45 FP2 126 -13.906
45 FP2 127 -13.418
45 FP2 128 -11.953
45 FP2 129 -9.023
45 FP2 130 -5.117
45 FP2 131 -1.699
45 FP2 132 0.254
45 FP2 133 0.254
45 FP2 134 -1.211
45 FP2 135 -2.675
45 FP2 136 -4.140
45 FP2 137 -4.140
45 FP2 138 -4.140
45 FP2 139 -4.140
45 FP2 140 -4.628
45 FP2 141 -4.628
45 FP2 142 -4.628
45 FP2 143 -4.140
45 FP2 144 -4.140
45 FP2 145 -4.140
45 FP2 146 -4.628
45 FP2 147 -5.605
45 FP2 148 -5.605
45 FP2 149 -5.117
45 FP2 150 -3.164
45 FP2 151 -0.722
45 FP2 152 1.719
45 FP2 153 2.696
45 FP2 154 1.719
45 FP2 155 -1.211
45 FP2 156 -4.628
45 FP2 157 -6.582
45 FP2 158 -6.582
45 FP2 159 -5.605
45 FP2 160 -3.164
45 FP2 161 -1.699
45 FP2 162 -0.722
45 FP2 163 -1.211
45 FP2 164 -2.187
45 FP2 165 -3.164
45 FP2 166 -5.117
45 FP2 167 -6.093
45 FP2 168 -6.582
45 FP2 169 -6.093
45 FP2 170 -5.117
45 FP2 171 -4.140
45 FP2 172 -4.140
45 FP2 173 -5.117
45 FP2 174 -5.605
45 FP2 175 -6.093
45 FP2 176 -5.117
45 FP2 177 -3.652
45 FP2 178 -1.699
45 FP2 179 -0.234
45 FP2 180 0.254
45 FP2 181 0.743
45 FP2 182 1.231
45 FP2 183 1.719
45 FP2 184 2.696
45 FP2 185 2.696
45 FP2 186 1.719
45 FP2 187 -0.234
45 FP2 188 -2.187
45 FP2 189 -3.164
45 FP2 190 -2.675
45 FP2 191 -0.722
45 FP2 192 1.231
45 FP2 193 2.696
45 FP2 194 2.696
45 FP2 195 1.231
45 FP2 196 -0.234
45 FP2 197 -1.211
45 FP2 198 -1.699
45 FP2 199 -2.187
45 FP2 200 -3.164
45 FP2 201 -4.628
45 FP2 202 -6.582
45 FP2 203 -7.070
45 FP2 204 -7.558
45 FP2 205 -6.582
45 FP2 206 -6.093
45 FP2 207 -6.582
45 FP2 208 -6.582
45 FP2 209 -6.093
45 FP2 210 -4.140
45 FP2 211 -1.211
45 FP2 212 1.231
45 FP2 213 2.207
45 FP2 214 0.743
45 FP2 215 -2.187
45 FP2 216 -5.605
45 FP2 217 -6.093
45 FP2 218 -3.652
45 FP2 219 0.743
45 FP2 220 4.649
45 FP2 221 6.602
45 FP2 222 5.137
45 FP2 223 2.696
45 FP2 224 -0.234
45 FP2 225 -1.699
45 FP2 226 -2.675
45 FP2 227 -4.140
45 FP2 228 -5.605
45 FP2 229 -7.070
45 FP2 230 -7.070
45 FP2 231 -6.093
45 FP2 232 -4.140
45 FP2 233 -1.699
45 FP2 234 0.254
45 FP2 235 1.719
45 FP2 236 2.696
45 FP2 237 3.672
45 FP2 238 3.672
45 FP2 239 2.207
45 FP2 240 -0.234
45 FP2 241 -2.675
45 FP2 242 -4.628
45 FP2 243 -5.117
45 FP2 244 -4.140
45 FP2 245 -3.652
45 FP2 246 -3.652
45 FP2 247 -4.628
45 FP2 248 -7.070
45 FP2 249 -10.000
45 FP2 250 -11.464
45 FP2 251 -12.441
45 FP2 252 -10.976
45 FP2 253 -8.535
45 FP2 254 -6.093
45 FP2 255 -3.652
# F7 chan 2
45 F7 0 1.434
45 F7 1 2.899
45 F7 2 2.411
45 F7 3 1.434
45 F7 4 -1.007
45 F7 5 -2.960
45 F7 6 -4.425
45 F7 7 -3.937
45 F7 8 -1.984
45 F7 9 -0.031
45 F7 10 1.434
45 F7 11 1.434
45 F7 12 0.946
45 F7 13 -0.519
45 F7 14 -1.495
45 F7 15 -2.472
45 F7 16 -2.960
45 F7 17 -3.448
45 F7 18 -3.448
45 F7 19 -3.937
45 F7 20 -4.913
45 F7 21 -6.378
45 F7 22 -8.820
45 F7 23 -11.261
45 F7 24 -13.214
45 F7 25 -14.679
45 F7 26 -15.656
45 F7 27 -15.656
45 F7 28 -15.167
45 F7 29 -14.679
45 F7 30 -12.726
45 F7 31 -10.773
45 F7 32 -8.331
45 F7 33 -6.866
45 F7 34 -7.355
45 F7 35 -9.308
45 F7 36 -11.749
45 F7 37 -14.191
45 F7 38 -16.144
45 F7 39 -17.120
45 F7 40 -16.632
45 F7 41 -16.144
45 F7 42 -15.656
45 F7 43 -15.167
45 F7 44 -14.679
45 F7 45 -13.214
45 F7 46 -12.238
45 F7 47 -11.261
45 F7 48 -10.284
45 F7 49 -10.284
45 F7 50 -11.261
45 F7 51 -12.726
45 F7 52 -13.214
45 F7 53 -13.214
45 F7 54 -12.238
45 F7 55 -9.796
45 F7 56 -7.843
45 F7 57 -5.402
45 F7 58 -3.937
45 F7 59 -3.937
45 F7 60 -4.913
45 F7 61 -6.378
45 F7 62 -8.331
45 F7 63 -9.308
45 F7 64 -9.308
45 F7 65 -9.796
45 F7 66 -9.796
45 F7 67 -10.284
45 F7 68 -10.773
45 F7 69 -10.773
45 F7 70 -9.796
45 F7 71 -8.331
45 F7 72 -6.866
45 F7 73 -5.402
45 F7 74 -5.402
45 F7 75 -6.378
45 F7 76 -7.355
45 F7 77 -8.331
45 F7 78 -8.331
45 F7 79 -7.843
45 F7 80 -6.866
45 F7 81 -6.866
45 F7 82 -7.355
45 F7 83 -8.331
45 F7 84 -8.331
45 F7 85 -7.355
45 F7 86 -5.402
45 F7 87 -4.425
45 F7 88 -3.448
45 F7 89 -4.913
45 F7 90 -6.378
45 F7 91 -7.843
45 F7 92 -7.843
45 F7 93 -7.355
45 F7 94 -6.866
45 F7 95 -7.843
45 F7 96 -9.308
45 F7 97 -9.308
45 F7 98 -8.820
45 F7 99 -6.378
45 F7 100 -3.937
45 F7 101 -2.472
45 F7 102 -1.495
45 F7 103 -1.007
45 F7 104 -0.031
45 F7 105 1.434
45 F7 106 2.411
45 F7 107 1.434
45 F7 108 -1.007
45 F7 109 -3.937
45 F7 110 -5.402
45 F7 111 -4.425
45 F7 112 -1.984
45 F7 113 -0.519
45 F7 114 -0.519
45 F7 115 -1.495
45 F7 116 -2.472
45 F7 117 -3.448
45 F7 118 -3.937
45 F7 119 -4.913
45 F7 120 -6.866
45 F7 121 -9.308
45 F7 122 -11.749
45 F7 123 -12.726
45 F7 124 -11.749
45 F7 125 -10.284
45 F7 126 -8.820
45 F7 127 -7.843
45 F7 128 -7.355
45 F7 129 -5.890
45 F7 130 -4.913
45 F7 131 -3.937
45 F7 132 -3.448
45 F7 133 -3.448
45 F7 134 -2.960
45 F7 135 -2.472
45 F7 136 -1.495
45 F7 137 -0.519
45 F7 138 -1.007
45 F7 139 -1.495
45 F7 140 -1.984
45 F7 141 -1.495
45 F7 142 -1.007
45 F7 143 -1.007
45 F7 144 -1.007
45 F7 145 -1.007
45 F7 146 -0.519
45 F7 147 0.458
45 F7 148 1.923
45 F7 149 3.876
45 F7 150 5.341
45 F7 151 7.294
45 F7 152 8.270
45 F7 153 8.270
45 F7 154 6.317
45 F7 155 1.923
45 F7 156 -1.984
45 F7 157 -5.402
45 F7 158 -5.890
45 F7 159 -4.425
45 F7 160 -1.495
45 F7 161 0.946
45 F7 162 1.923
45 F7 163 1.923
45 F7 164 1.434
45 F7 165 1.434
45 F7 166 1.923
45 F7 167 1.434
45 F7 168 0.458
45 F7 169 -1.495
45 F7 170 -3.937
45 F7 171 -4.425
45 F7 172 -4.425
45 F7 173 -2.960
45 F7 174 -1.007
45 F7 175 0.458
45 F7 176 1.434
45 F7 177 1.434
45 F7 178 1.923
45 F7 179 2.899
45 F7 180 4.852
45 F7 181 7.294
45 F7 182 9.247
45 F7 183 11.200
45 F7 184 11.688
45 F7 185 10.712
45 F7 186 8.759
45 F7 187 6.317
45 F7 188 3.876
45 F7 189 2.899
45 F7 190 3.387
45 F7 191 4.852
45 F7 192 6.317
45 F7 193 6.805
45 F7 194 6.317
45 F7 195 5.829
45 F7 196 6.317
45 F7 197 7.782
45 F7 198 9.247
45 F7 199 9.735
45 F7 200 7.782
45 F7 201 4.364
45 F7 202 0.458
45 F7 203 -1.495
45 F7 204 -1.495
45 F7 205 -0.031
45 F7 206 0.458
45 F7 207 -0.031
45 F7 208 -1.495
45 F7 209 -1.984
45 F7 210 -1.495
45 F7 211 1.434
45 F7 212 4.852
45 F7 213 5.829
45 F7 214 4.852
45 F7 215 1.923
45 F7 216 -0.519
45 F7 217 -1.495
45 F7 218 0.458
45 F7 219 3.876
45 F7 220 7.294
45 F7 221 8.759
45 F7 222 7.782
45 F7 223 5.829
45 F7 224 3.876
45 F7 225 2.899
45 F7 226 2.899
45 F7 227 3.387
45 F7 228 4.364
45 F7 229 4.364
45 F7 230 4.364
45 F7 231 4.364
45 F7 232 4.852
45 F7 233 6.317
45 F7 234 8.270
45 F7 235 9.735
45 F7 236 9.735
45 F7 237 8.270
45 F7 238 5.829
45 F7 239 3.387
45 F7 240 2.411
45 F7 241 2.899
45 F7 242 3.387
45 F7 243 3.876
45 F7 244 2.899
45 F7 245 1.434
45 F7 246 -0.031
45 F7 247 -0.519
45 F7 248 -0.031
45 F7 249 -0.031
45 F7 250 -0.031
45 F7 251 0.458
45 F7 252 0.946
45 F7 253 2.899
45 F7 254 4.852
45 F7 255 7.294
# F8 chan 3
45 F8 0 -7.812
45 F8 1 -6.348
45 F8 2 -4.395
45 F8 3 -3.418
45 F8 4 -3.418
45 F8 5 -4.395
45 F8 6 -4.883
45 F8 7 -5.371
45 F8 8 -4.883
45 F8 9 -4.395
45 F8 10 -3.418
45 F8 11 -3.418
45 F8 12 -4.395
45 F8 13 -5.371
45 F8 14 -7.324
45 F8 15 -8.301
45 F8 16 -8.789
45 F8 17 -8.301
45 F8 18 -7.324
45 F8 19 -7.324
45 F8 20 -8.301
45 F8 21 -9.766
45 F8 22 -11.230
45 F8 23 -11.719
45 F8 24 -11.230
45 F8 25 -10.254
45 F8 26 -9.277
45 F8 27 -8.301
45 F8 28 -7.324
45 F8 29 -5.859
45 F8 30 -3.906
45 F8 31 -1.465
45 F8 32 0.977
45 F8 33 1.465
45 F8 34 0.488
45 F8 35 -1.953
45 F8 36 -5.371
45 F8 37 -8.301
45 F8 38 -10.254
45 F8 39 -11.230
45 F8 40 -10.254
45 F8 41 -9.766
45 F8 42 -8.789
45 F8 43 -7.324
45 F8 44 -6.836
45 F8 45 -5.859
45 F8 46 -5.371
45 F8 47 -5.859
45 F8 48 -6.836
45 F8 49 -8.789
45 F8 50 -10.254
45 F8 51 -11.719
45 F8 52 -12.207
45 F8 53 -11.719
45 F8 54 -11.230
45 F8 55 -10.742
45 F8 56 -10.254
45 F8 57 -10.742
45 F8 58 -11.230
45 F8 59 -11.230
45 F8 60 -11.719
45 F8 61 -11.719
45 F8 62 -11.230
45 F8 63 -10.742
45 F8 64 -9.277
45 F8 65 -8.789
45 F8 66 -8.789
45 F8 67 -9.766
45 F8 68 -10.742
45 F8 69 -11.719
45 F8 70 -12.207
45 F8 71 -11.230
45 F8 72 -10.254
45 F8 73 -9.277
45 F8 74 -9.277
45 F8 75 -10.254
45 F8 76 -11.719
45 F8 77 -13.184
45 F8 78 -14.160
45 F8 79 -14.648
45 F8 80 -14.648
45 F8 81 -15.137
45 F8 82 -15.625
45 F8 83 -17.090
45 F8 84 -17.090
45 F8 85 -16.113
45 F8 86 -14.648
45 F8 87 -12.207
45 F8 88 -10.254
45 F8 89 -9.277
45 F8 90 -9.277
45 F8 91 -9.277
45 F8 92 -8.789
45 F8 93 -8.301
45 F8 94 -7.812
45 F8 95 -8.789
45 F8 96 -10.742
45 F8 97 -13.184
45 F8 98 -14.648
45 F8 99 -15.137
45 F8 100 -15.137
45 F8 101 -15.137
45 F8 102 -14.160
45 F8 103 -13.184
45 F8 104 -12.207
45 F8 105 -11.719
45 F8 106 -11.719
45 F8 107 -13.184
45 F8 108 -14.648
45 F8 109 -15.137
45 F8 110 -14.648
45 F8 111 -13.672
45 F8 112 -13.672
45 F8 113 -16.113
45 F8 114 -19.043
45 F8 115 -22.461
45 F8 116 -23.926
45 F8 117 -23.926
45 F8 118 -22.461
45 F8 119 -21.973
45 F8 120 -21.973
45 F8 121 -22.461
45 F8 122 -23.438
45 F8 123 -24.414
45 F8 124 -24.414
45 F8 125 -24.414
45 F8 126 -23.438
45 F8 127 -21.973
45 F8 128 -19.531
45 F8 129 -16.113
45 F8 130 -12.695
45 F8 131 -10.254
45 F8 132 -8.789
45 F8 133 -9.277
45 F8 134 -10.742
45 F8 135 -12.207
45 F8 136 -12.695
45 F8 137 -12.695
45 F8 138 -12.207
45 F8 139 -11.719
45 F8 140 -12.207
45 F8 141 -13.184
45 F8 142 -14.648
45 F8 143 -15.625
45 F8 144 -15.137
45 F8 145 -13.672
45 F8 146 -12.207
45 F8 147 -10.742
45 F8 148 -10.742
45 F8 149 -10.254
45 F8 150 -8.789
45 F8 151 -6.348
45 F8 152 -3.906
45 F8 153 -2.930
45 F8 154 -3.906
45 F8 155 -6.836
45 F8 156 -10.254
45 F8 157 -11.719
45 F8 158 -12.207
45 F8 159 -11.230
45 F8 160 -10.254
45 F8 161 -10.254
45 F8 162 -10.742
45 F8 163 -11.230
45 F8 164 -10.742
45 F8 165 -10.742
45 F8 166 -10.742
45 F8 167 -11.230
45 F8 168 -11.230
45 F8 169 -10.742
45 F8 170 -9.766
45 F8 171 -9.766
45 F8 172 -10.742
45 F8 173 -11.719
45 F8 174 -12.207
45 F8 175 -11.719
45 F8 176 -10.742
45 F8 177 -9.277
45 F8 178 -8.789
45 F8 179 -8.789
45 F8 180 -9.277
45 F8 181 -8.789
45 F8 182 -7.812
45 F8 183 -6.348
45 F8 184 -5.859
45 F8 185 -6.836
45 F8 186 -9.277
45 F8 187 -12.207
45 F8 188 -14.648
45 F8 189 -16.113
45 F8 190 -15.625
45 F8 191 -14.160
45 F8 192 -12.695
45 F8 193 -11.719
45 F8 194 -11.230
45 F8 195 -11.719
45 F8 196 -12.207
45 F8 197 -12.207
45 F8 198 -12.695
45 F8 199 -13.184
45 F8 200 -14.160
45 F8 201 -15.625
45 F8 202 -17.578
45 F8 203 -18.555
45 F8 204 -18.066
45 F8 205 -17.090
45 F8 206 -16.602
45 F8 207 -16.602
45 F8 208 -16.602
45 F8 209 -16.113
45 F8 210 -14.160
45 F8 211 -11.230
45 F8 212 -8.789
45 F8 213 -8.301
45 F8 214 -9.766
45 F8 215 -13.184
45 F8 216 -15.137
45 F8 217 -15.137
45 F8 218 -12.695
45 F8 219 -9.277
45 F8 220 -6.836
45 F8 221 -6.348
45 F8 222 -8.301
45 F8 223 -10.742
45 F8 224 -12.207
45 F8 225 -13.672
45 F8 226 -14.648
45 F8 227 -16.113
45 F8 228 -17.578
45 F8 229 -18.066
45 F8 230 -17.090
45 F8 231 -14.648
45 F8 232 -12.207
45 F8 233 -9.766
45 F8 234 -7.812
45 F8 235 -6.836
45 F8 236 -5.371
45 F8 237 -4.883
45 F8 238 -4.395
45 F8 239 -5.859
45 F8 240 -7.324
45 F8 241 -9.277
45 F8 242 -11.230
45 F8 243 -12.207
45 F8 244 -12.695
45 F8 245 -12.695
45 F8 246 -13.184
45 F8 247 -14.160
45 F8 248 -15.625
45 F8 249 -17.578
45 F8 250 -18.555
45 F8 251 -18.555
45 F8 252 -17.578
45 F8 253 -16.113
45 F8 254 -14.160
45 F8 255 -12.695
# AF1 chan 4
45 AF1 0 0.824
45 AF1 1 1.801
45 AF1 2 1.312
45 AF1 3 0.824
45 AF1 4 0.336
45 AF1 5 0.336
45 AF1 6 -0.153
45 AF1 7 -0.153
45 AF1 8 -1.129
45 AF1 9 -2.594
45 AF1 10 -4.059
45 AF1 11 -4.547
45 AF1 12 -5.035
45 AF1 13 -5.035
45 AF1 14 -5.524
45 AF1 15 -6.012
45 AF1 16 -6.989
45 AF1 17 -8.453
45 AF1 18 -8.942
45 AF1 19 -8.942
45 AF1 20 -8.453
45 AF1 21 -8.453
45 AF1 22 -8.453
45 AF1 23 -8.453
45 AF1 24 -7.965
45 AF1 25 -7.965
45 AF1 26 -8.453
45 AF1 27 -10.406
45 AF1 28 -11.871
45 AF1 29 -12.360
45 AF1 30 -11.871
45 AF1 31 -10.406
45 AF1 32 -8.453
45 AF1 33 -7.477
45 AF1 34 -7.477
45 AF1 35 -8.453
45 AF1 36 -10.406
45 AF1 37 -11.383
45 AF1 38 -12.360
45 AF1 39 -12.848
45 AF1 40 -12.848
45 AF1 41 -11.871
45 AF1 42 -10.406
45 AF1 43 -8.453
45 AF1 44 -6.500
45 AF1 45 -5.524
45 AF1 46 -5.035
45 AF1 47 -5.524
45 AF1 48 -6.989
45 AF1 49 -8.453
45 AF1 50 -9.918
45 AF1 51 -11.871
45 AF1 52 -13.336
45 AF1 53 -14.313
45 AF1 54 -14.313
45 AF1 55 -13.336
45 AF1 56 -11.871
45 AF1 57 -10.406
45 AF1 58 -8.942
45 AF1 59 -8.453
45 AF1 60 -9.430
45 AF1 61 -11.383
45 AF1 62 -12.848
45 AF1 63 -13.336
45 AF1 64 -12.848
45 AF1 65 -11.383
45 AF1 66 -9.918
45 AF1 67 -8.942
45 AF1 68 -8.453
45 AF1 69 -7.965
45 AF1 70 -7.965
45 AF1 71 -7.965
45 AF1 72 -7.477
45 AF1 73 -6.989
45 AF1 74 -6.500
45 AF1 75 -6.500
45 AF1 76 -6.500
45 AF1 77 -6.012
45 AF1 78 -5.524
45 AF1 79 -5.524
45 AF1 80 -5.524
45 AF1 81 -6.012
45 AF1 82 -6.989
45 AF1 83 -6.989
45 AF1 84 -6.500
45 AF1 85 -5.524
45 AF1 86 -4.059
45 AF1 87 -2.594
45 AF1 88 -2.594
45 AF1 89 -3.571
45 AF1 90 -5.035
45 AF1 91 -5.524
45 AF1 92 -5.524
45 AF1 93 -5.035
45 AF1 94 -4.059
45 AF1 95 -4.059
45 AF1 96 -5.035
45 AF1 97 -6.012
45 AF1 98 -6.500
45 AF1 99 -6.012
45 AF1 100 -5.524
45 AF1 101 -4.547
45 AF1 102 -4.059
45 AF1 103 -4.059
45 AF1 104 -4.059
45 AF1 105 -3.571
45 AF1 106 -3.571
45 AF1 107 -4.059
45 AF1 108 -5.524
45 AF1 109 -6.012
45 AF1 110 -6.500
45 AF1 111 -5.524
45 AF1 112 -5.524
45 AF1 113 -5.524
45 AF1 114 -6.500
45 AF1 115 -7.965
45 AF1 116 -8.942
45 AF1 117 -8.453
45 AF1 118 -8.453
45 AF1 119 -7.965
45 AF1 120 -8.942
45 AF1 121 -10.895
45 AF1 122 -11.871
45 AF1 123 -12.360
45 AF1 124 -11.383
45 AF1 125 -10.406
45 AF1 126 -9.430
45 AF1 127 -8.453
45 AF1 128 -7.965
45 AF1 129 -6.989
45 AF1 130 -5.035
45 AF1 131 -3.571
45 AF1 132 -2.106
45 AF1 133 -1.617
45 AF1 134 -1.617
45 AF1 135 -2.594
45 AF1 136 -3.082
45 AF1 137 -3.571
45 AF1 138 -3.571
45 AF1 139 -3.571
45 AF1 140 -3.571
45 AF1 141 -4.059
45 AF1 142 -4.059
45 AF1 143 -4.547
45 AF1 144 -4.547
45 AF1 145 -4.547
45 AF1 146 -4.547
45 AF1 147 -4.547
45 AF1 148 -4.547
45 AF1 149 -3.082
45 AF1 150 -1.129
45 AF1 151 1.312
45 AF1 152 2.777
45 AF1 153 2.777
45 AF1 154 1.312
45 AF1 155 -1.617
45 AF1 156 -4.059
45 AF1 157 -6.012
45 AF1 158 -6.500
45 AF1 159 -5.035
45 AF1 160 -4.059
45 AF1 161 -3.082
45 AF1 162 -3.571
45 AF1 163 -4.059
45 AF1 164 -4.547
45 AF1 165 -4.547
45 AF1 166 -4.059
45 AF1 167 -4.059
45 AF1 168 -4.059
45 AF1 169 -4.547
45 AF1 170 -5.035
45 AF1 171 -5.524
45 AF1 172 -5.524
45 AF1 173 -5.035
45 AF1 174 -4.059
45 AF1 175 -3.082
45 AF1 176 -1.617
45 AF1 177 -1.129
45 AF1 178 -0.153
45 AF1 179 0.336
45 AF1 180 0.824
45 AF1 181 2.289
45 AF1 182 3.754
45 AF1 183 4.730
45 AF1 184 5.707
45 AF1 185 5.707
45 AF1 186 4.242
45 AF1 187 2.289
45 AF1 188 0.336
45 AF1 189 -0.641
45 AF1 190 0.824
45 AF1 191 3.265
45 AF1 192 5.707
45 AF1 193 7.172
45 AF1 194 6.195
45 AF1 195 4.730
45 AF1 196 3.754
45 AF1 197 3.265
45 AF1 198 3.754
45 AF1 199 3.754
45 AF1 200 2.289
45 AF1 201 -0.641
45 AF1 202 -4.059
45 AF1 203 -5.524
45 AF1 204 -6.012
45 AF1 205 -5.035
45 AF1 206 -4.547
45 AF1 207 -4.547
45 AF1 208 -4.547
45 AF1 209 -4.059
45 AF1 210 -2.106
45 AF1 211 1.312
45 AF1 212 4.242
45 AF1 213 5.707
45 AF1 214 4.730
45 AF1 215 1.801
45 AF1 216 -0.641
45 AF1 217 -1.617
45 AF1 218 0.336
45 AF1 219 2.777
45 AF1 220 5.219
45 AF1 221 6.195
45 AF1 222 5.219
45 AF1 223 4.242
45 AF1 224 3.265
45 AF1 225 3.265
45 AF1 226 3.265
45 AF1 227 2.289
45 AF1 228 0.336
45 AF1 229 -1.617
45 AF1 230 -2.106
45 AF1 231 -1.129
45 AF1 232 1.312
45 AF1 233 3.754
45 AF1 234 5.219
45 AF1 235 5.219
45 AF1 236 3.754
45 AF1 237 1.801
45 AF1 238 0.336
45 AF1 239 -0.153
45 AF1 240 -0.153
45 AF1 241 -0.153
45 AF1 242 -0.641
45 AF1 243 -1.617
45 AF1 244 -3.571
45 AF1 245 -5.035
45 AF1 246 -5.524
45 AF1 247 -6.012
45 AF1 248 -6.500
45 AF1 249 -6.989
45 AF1 250 -6.989
45 AF1 251 -6.989
45 AF1 252 -6.500
45 AF1 253 -5.035
45 AF1 254 -3.571
45 AF1 255 -2.106
# AF2 chan 5
45 AF2 0 -1.658
45 AF2 1 -1.170
45 AF2 2 -1.170
45 AF2 3 -0.682
45 AF2 4 -0.193
45 AF2 5 0.783
45 AF2 6 0.783
45 AF2 7 0.783
45 AF2 8 -0.682
45 AF2 9 -3.123
45 AF2 10 -4.588
45 AF2 11 -5.564
45 AF2 12 -5.564
45 AF2 13 -5.564
45 AF2 14 -5.076
45 AF2 15 -5.076
45 AF2 16 -6.053
45 AF2 17 -7.029
45 AF2 18 -7.517
45 AF2 19 -8.494
45 AF2 20 -8.982
45 AF2 21 -8.982
45 AF2 22 -8.982
45 AF2 23 -7.517
45 AF2 24 -6.541
45 AF2 25 -6.053
45 AF2 26 -6.541
45 AF2 27 -7.517
45 AF2 28 -9.471
45 AF2 29 -9.471
45 AF2 30 -8.006
45 AF2 31 -5.564
45 AF2 32 -3.123
45 AF2 33 -1.658
45 AF2 34 -2.146
45 AF2 35 -3.611
45 AF2 36 -5.076
45 AF2 37 -7.517
45 AF2 38 -9.471
45 AF2 39 -10.935
45 AF2 40 -11.424
45 AF2 41 -10.935
45 AF2 42 -8.982
45 AF2 43 -6.053
45 AF2 44 -4.100
45 AF2 45 -2.635
45 AF2 46 -2.635
45 AF2 47 -3.611
45 AF2 48 -5.076
45 AF2 49 -7.029
45 AF2 50 -8.494
45 AF2 51 -9.959
45 AF2 52 -11.424
45 AF2 53 -12.400
45 AF2 54 -13.377
45 AF2 55 -13.865
45 AF2 56 -12.889
45 AF2 57 -12.400
45 AF2 58 -11.424
45 AF2 59 -11.424
45 AF2 60 -11.424
45 AF2 61 -12.400
45 AF2 62 -12.889
45 AF2 63 -12.889
45 AF2 64 -11.912
45 AF2 65 -10.447
45 AF2 66 -9.471
45 AF2 67 -8.494
45 AF2 68 -8.494
45 AF2 69 -8.982
45 AF2 70 -8.982
45 AF2 71 -8.982
45 AF2 72 -8.494
45 AF2 73 -7.517
45 AF2 74 -7.029
45 AF2 75 -6.541
45 AF2 76 -6.541
45 AF2 77 -6.541
45 AF2 78 -6.541
45 AF2 79 -7.029
45 AF2 80 -7.029
45 AF2 81 -8.006
45 AF2 82 -8.982
45 AF2 83 -9.959
45 AF2 84 -9.471
45 AF2 85 -8.494
45 AF2 86 -7.029
45 AF2 87 -5.564
45 AF2 88 -5.076
45 AF2 89 -5.564
45 AF2 90 -6.053
45 AF2 91 -7.029
45 AF2 92 -6.541
45 AF2 93 -5.564
45 AF2 94 -5.076
45 AF2 95 -5.076
45 AF2 96 -7.029
45 AF2 97 -8.006
45 AF2 98 -8.982
45 AF2 99 -9.471
45 AF2 100 -8.494
45 AF2 101 -8.006
45 AF2 102 -7.517
45 AF2 103 -7.517
45 AF2 104 -7.517
45 AF2 105 -7.517
45 AF2 106 -7.029
45 AF2 107 -7.029
45 AF2 108 -7.029
45 AF2 109 -7.029
45 AF2 110 -7.029
45 AF2 111 -7.029
45 AF2 112 -7.029
45 AF2 113 -8.006
45 AF2 114 -9.959
45 AF2 115 -12.400
45 AF2 116 -13.865
45 AF2 117 -13.865
45 AF2 118 -13.377
45 AF2 119 -12.400
45 AF2 120 -12.889
45 AF2 121 -13.377
45 AF2 122 -14.353
45 AF2 123 -14.842
45 AF2 124 -14.842
45 AF2 125 -14.353
45 AF2 126 -13.377
45 AF2 127 -11.912
45 AF2 128 -10.447
45 AF2 129 -8.494
45 AF2 130 -6.541
45 AF2 131 -4.588
45 AF2 132 -3.611
45 AF2 133 -3.611
45 AF2 134 -4.100
45 AF2 135 -5.564
45 AF2 136 -6.053
45 AF2 137 -6.541
45 AF2 138 -6.053
45 AF2 139 -6.053
45 AF2 140 -6.053
45 AF2 141 -6.541
45 AF2 142 -7.517
45 AF2 143 -8.494
45 AF2 144 -8.982
45 AF2 145 -9.471
45 AF2 146 -8.982
45 AF2 147 -8.006
45 AF2 148 -7.517
45 AF2 149 -6.541
45 AF2 150 -5.076
45 AF2 151 -3.123
45 AF2 152 -1.658
45 AF2 153 -1.170
45 AF2 154 -1.658
45 AF2 155 -3.611
45 AF2 156 -6.053
45 AF2 157 -7.517
45 AF2 158 -7.517
45 AF2 159 -6.541
45 AF2 160 -5.564
45 AF2 161 -4.588
45 AF2 162 -4.588
45 AF2 163 -5.076
45 AF2 164 -6.053
45 AF2 165 -6.541
45 AF2 166 -6.541
45 AF2 167 -6.053
45 AF2 168 -5.564
45 AF2 169 -5.076
45 AF2 170 -4.588
45 AF2 171 -5.076
45 AF2 172 -5.564
45 AF2 173 -6.053
45 AF2 174 -6.053
45 AF2 175 -6.053
45 AF2 176 -5.076
45 AF2 177 -5.076
45 AF2 178 -4.588
45 AF2 179 -4.100
45 AF2 180 -3.123
45 AF2 181 -1.170
45 AF2 182 0.295
45 AF2 183 1.760
45 AF2 184 1.760
45 AF2 185 1.272
45 AF2 186 -0.193
45 AF2 187 -2.146
45 AF2 188 -4.100
45 AF2 189 -5.076
45 AF2 190 -5.076
45 AF2 191 -3.611
45 AF2 192 -1.170
45 AF2 193 0.783
45 AF2 194 1.272
45 AF2 195 0.783
45 AF2 196 -0.682
45 AF2 197 -2.146
45 AF2 198 -2.635
45 AF2 199 -3.123
45 AF2 200 -4.100
45 AF2 201 -6.053
45 AF2 202 -8.494
45 AF2 203 -9.959
45 AF2 204 -9.959
45 AF2 205 -8.982
45 AF2 206 -8.006
45 AF2 207 -7.517
45 AF2 208 -7.517
45 AF2 209 -7.029
45 AF2 210 -5.076
45 AF2 211 -2.146
45 AF2 212 1.272
45 AF2 213 2.736
45 AF2 214 1.272
45 AF2 215 -1.170
45 AF2 216 -3.611
45 AF2 217 -4.100
45 AF2 218 -3.123
45 AF2 219 -0.682
45 AF2 220 0.783
45 AF2 221 1.760
45 AF2 222 0.783
45 AF2 223 0.295
45 AF2 224 -0.193
45 AF2 225 -0.682
45 AF2 226 -2.146
45 AF2 227 -4.100
45 AF2 228 -6.053
45 AF2 229 -7.517
45 AF2 230 -7.029
45 AF2 231 -5.564
45 AF2 232 -3.123
45 AF2 233 -1.170
45 AF2 234 0.295
45 AF2 235 1.272
45 AF2 236 0.783
45 AF2 237 0.295
45 AF2 238 -0.682
45 AF2 239 -1.658
45 AF2 240 -3.123
45 AF2 241 -4.100
45 AF2 242 -5.076
45 AF2 243 -5.564
45 AF2 244 -6.053
45 AF2 245 -7.029
45 AF2 246 -8.006
45 AF2 247 -8.982
45 AF2 248 -9.959
45 AF2 249 -10.935
45 AF2 250 -11.424
45 AF2 251 -11.912
45 AF2 252 -11.424
45 AF2 253 -9.959
45 AF2 254 -8.494
45 AF2 255 -7.029
# FZ chan 6
45 FZ 0 1.760
45 FZ 1 1.272
45 FZ 2 0.783
45 FZ 3 0.783
45 FZ 4 0.783
45 FZ 5 1.272
45 FZ 6 1.760
45 FZ 7 1.272
45 FZ 8 -0.193
45 FZ 9 -1.658
45 FZ 10 -3.123
45 FZ 11 -3.611
45 FZ 12 -4.100
45 FZ 13 -3.611
45 FZ 14 -3.611
45 FZ 15 -4.100
45 FZ 16 -5.076
45 FZ 17 -6.053
45 FZ 18 -7.029
45 FZ 19 -7.029
45 FZ 20 -7.029
45 FZ 21 -6.541
45 FZ 22 -6.053
45 FZ 23 -4.588
45 FZ 24 -3.123
45 FZ 25 -2.635
45 FZ 26 -3.123
45 FZ 27 -4.588
45 FZ 28 -6.541
45 FZ 29 -8.006
45 FZ 30 -7.517
45 FZ 31 -6.541
45 FZ 32 -4.588
45 FZ 33 -3.123
45 FZ 34 -3.123
45 FZ 35 -3.611
45 FZ 36 -5.076
45 FZ 37 -6.541
45 FZ 38 -8.006
45 FZ 39 -9.471
45 FZ 40 -9.471
45 FZ 41 -8.982
45 FZ 42 -7.029
45 FZ 43 -4.588
45 FZ 44 -2.146
45 FZ 45 -0.682
45 FZ 46 -0.682
45 FZ 47 -1.170
45 FZ 48 -2.635
45 FZ 49 -3.611
45 FZ 50 -4.588
45 FZ 51 -5.564
45 FZ 52 -7.029
45 FZ 53 -8.006
45 FZ 54 -8.982
45 FZ 55 -9.471
45 FZ 56 -8.982
45 FZ 57 -8.494
45 FZ 58 -7.517
45 FZ 59 -8.006
45 FZ 60 -8.494
45 FZ 61 -9.471
45 FZ 62 -9.959
45 FZ 63 -9.471
45 FZ 64 -8.982
45 FZ 65 -7.517
45 FZ 66 -6.541
45 FZ 67 -5.564
45 FZ 68 -5.076
45 FZ 69 -5.564
45 FZ 70 -5.564
45 FZ 71 -6.053
45 FZ 72 -5.564
45 FZ 73 -4.588
45 FZ 74 -3.611
45 FZ 75 -3.123
45 FZ 76 -2.635
45 FZ 77 -2.635
45 FZ 78 -2.635
45 FZ 79 -2.635
45 FZ 80 -3.123
45 FZ 81 -3.611
45 FZ 82 -4.588
45 FZ 83 -5.564
45 FZ 84 -5.564
45 FZ 85 -5.076
45 FZ 86 -3.611
45 FZ 87 -2.635
45 FZ 88 -2.146
45 FZ 89 -2.635
45 FZ 90 -3.123
45 FZ 91 -4.100
45 FZ 92 -4.588
45 FZ 93 -4.100
45 FZ 94 -3.611
45 FZ 95 -3.611
45 FZ 96 -3.611
45 FZ 97 -4.100
45 FZ 98 -4.588
45 FZ 99 -4.588
45 FZ 100 -4.588
45 FZ 101 -4.588
45 FZ 102 -4.100
45 FZ 103 -4.100
45 FZ 104 -3.611
45 FZ 105 -3.123
45 FZ 106 -2.635
45 FZ 107 -2.635
45 FZ 108 -3.123
45 FZ 109 -4.100
45 FZ 110 -4.100
45 FZ 111 -4.100
45 FZ 112 -4.100
45 FZ 113 -4.588
45 FZ 114 -6.053
45 FZ 115 -7.029
45 FZ 116 -8.006
45 FZ 117 -8.006
45 FZ 118 -7.517
45 FZ 119 -7.029
45 FZ 120 -7.517
45 FZ 121 -8.982
45 FZ 122 -9.471
45 FZ 123 -9.471
45 FZ 124 -8.494
45 FZ 125 -7.517
45 FZ 126 -6.541
45 FZ 127 -6.541
45 FZ 128 -6.053
45 FZ 129 -6.053
45 FZ 130 -5.564
45 FZ 131 -4.588
45 FZ 132 -4.100
45 FZ 133 -3.611
45 FZ 134 -3.611
45 FZ 135 -4.100
45 FZ 136 -4.588
45 FZ 137 -4.588
45 FZ 138 -4.100
45 FZ 139 -4.588
45 FZ 140 -5.076
45 FZ 141 -5.564
45 FZ 142 -6.053
45 FZ 143 -7.029
45 FZ 144 -7.029
45 FZ 145 -7.029
45 FZ 146 -7.029
45 FZ 147 -6.541
45 FZ 148 -5.564
45 FZ 149 -4.588
45 FZ 150 -3.123
45 FZ 151 -1.658
45 FZ 152 -0.682
45 FZ 153 -0.193
45 FZ 154 -1.170
45 FZ 155 -2.635
45 FZ 156 -4.100
45 FZ 157 -5.076
45 FZ 158 -5.076
45 FZ 159 -5.076
45 FZ 160 -4.588
45 FZ 161 -4.100
45 FZ 162 -4.100
45 FZ 163 -4.100
45 FZ 164 -4.100
45 FZ 165 -4.100
45 FZ 166 -3.611
45 FZ 167 -4.100
45 FZ 168 -3.611
45 FZ 169 -3.611
45 FZ 170 -3.611
45 FZ 171 -3.611
45 FZ 172 -3.611
45 FZ 173 -4.100
45 FZ 174 -4.588
45 FZ 175 -4.100
45 FZ 176 -4.100
45 FZ 177 -3.611
45 FZ 178 -3.123
45 FZ 179 -2.635
45 FZ 180 -2.635
45 FZ 181 -1.658
45 FZ 182 -0.682
45 FZ 183 0.783
45 FZ 184 2.248
45 FZ 185 2.248
45 FZ 186 1.760
45 FZ 187 -0.193
45 FZ 188 -1.658
45 FZ 189 -2.146
45 FZ 190 -1.658
45 FZ 191 -0.193
45 FZ 192 1.760
45 FZ 193 2.736
45 FZ 194 2.736
45 FZ 195 2.248
45 FZ 196 1.272
45 FZ 197 0.783
45 FZ 198 0.295
45 FZ 199 -0.193
45 FZ 200 -1.658
45 FZ 201 -3.611
45 FZ 202 -6.053
45 FZ 203 -7.029
45 FZ 204 -7.517
45 FZ 205 -6.541
45 FZ 206 -6.053
45 FZ 207 -6.053
45 FZ 208 -5.564
45 FZ 209 -5.076
45 FZ 210 -3.123
45 FZ 211 -1.170
45 FZ 212 1.272
45 FZ 213 2.248
45 FZ 214 1.760
45 FZ 215 0.783
45 FZ 216 -0.193
45 FZ 217 -0.682
45 FZ 218 0.783
45 FZ 219 1.760
45 FZ 220 2.736
45 FZ 221 3.225
45 FZ 222 3.225
45 FZ 223 2.736
45 FZ 224 2.736
45 FZ 225 2.736
45 FZ 226 2.248
45 FZ 227 1.272
45 FZ 228 -0.193
45 FZ 229 -2.146
45 FZ 230 -2.635
45 FZ 231 -1.658
45 FZ 232 0.295
45 FZ 233 1.760
45 FZ 234 2.736
45 FZ 235 2.736
45 FZ 236 1.760
45 FZ 237 -0.193
45 FZ 238 -1.658
45 FZ 239 -2.635
45 FZ 240 -2.635
45 FZ 241 -3.123
45 FZ 242 -3.611
45 FZ 243 -4.588
45 FZ 244 -5.564
45 FZ 245 -6.053
45 FZ 246 -7.029
45 FZ 247 -7.517
45 FZ 248 -8.006
45 FZ 249 -8.494
45 FZ 250 -8.494
45 FZ 251 -8.006
45 FZ 252 -7.029
45 FZ 253 -5.564
45 FZ 254 -4.588
45 FZ 255 -3.123
# F4 chan 7
45 F4 0 -3.418
45 F4 1 -1.953
45 F4 2 -0.977
45 F4 3 0.000
45 F4 4 0.488
45 F4 5 0.488
45 F4 6 0.000
45 F4 7 -0.488
45 F4 8 -1.465
45 F4 9 -2.930
45 F4 10 -3.906
45 F4 11 -4.395
45 F4 12 -4.395
45 F4 13 -3.906
45 F4 14 -3.418
45 F4 15 -3.906
45 F4 16 -4.883
45 F4 17 -5.859
45 F4 18 -6.836
45 F4 19 -7.812
45 F4 20 -8.301
45 F4 21 -8.301
45 F4 22 -7.812
45 F4 23 -6.836
45 F4 24 -4.883
45 F4 25 -4.395
45 F4 26 -4.395
45 F4 27 -5.859
45 F4 28 -6.836
45 F4 29 -7.324
45 F4 30 -5.371
45 F4 31 -2.930
45 F4 32 -0.488
45 F4 33 0.488
45 F4 34 0.000
45 F4 35 -1.465
45 F4 36 -3.906
45 F4 37 -5.859
45 F4 38 -7.812
45 F4 39 -9.766
45 F4 40 -10.254
45 F4 41 -9.766
45 F4 42 -7.812
45 F4 43 -4.883
45 F4 44 -1.953
45 F4 45 -0.488
45 F4 46 -0.488
45 F4 47 -1.465
45 F4 48 -2.441
45 F4 49 -3.418
45 F4 50 -4.395
45 F4 51 -5.371
45 F4 52 -6.836
45 F4 53 -8.301
45 F4 54 -9.277
45 F4 55 -9.766
45 F4 56 -9.766
45 F4 57 -9.766
45 F4 58 -9.766
45 F4 59 -9.766
45 F4 60 -10.742
45 F4 61 -10.742
45 F4 62 -10.254
45 F4 63 -9.277
45 F4 64 -7.812
45 F4 65 -6.348
45 F4 66 -5.859
45 F4 67 -5.859
45 F4 68 -6.348
45 F4 69 -6.836
45 F4 70 -7.324
45 F4 71 -7.324
45 F4 72 -6.348
45 F4 73 -5.859
45 F4 74 -5.371
45 F4 75 -5.371
45 F4 76 -5.859
45 F4 77 -6.348
45 F4 78 -6.348
45 F4 79 -6.348
45 F4 80 -6.348
45 F4 81 -7.324
45 F4 82 -8.301
45 F4 83 -8.789
45 F4 84 -9.277
45 F4 85 -8.789
45 F4 86 -7.812
45 F4 87 -6.836
45 F4 88 -5.859
45 F4 89 -5.371
45 F4 90 -4.883
45 F4 91 -4.883
45 F4 92 -4.883
45 F4 93 -4.395
45 F4 94 -4.395
45 F4 95 -4.395
45 F4 96 -5.371
45 F4 97 -6.348
45 F4 98 -7.812
45 F4 99 -7.812
45 F4 100 -8.301
45 F4 101 -8.301
45 F4 102 -8.301
45 F4 103 -8.301
45 F4 104 -7.812
45 F4 105 -7.324
45 F4 106 -6.348
45 F4 107 -6.348
45 F4 108 -6.348
45 F4 109 -6.348
45 F4 110 -6.348
45 F4 111 -6.348
45 F4 112 -6.836
45 F4 113 -8.301
45 F4 114 -10.254
45 F4 115 -12.207
45 F4 116 -13.672
45 F4 117 -14.160
45 F4 118 -13.672
45 F4 119 -13.184
45 F4 120 -13.672
45 F4 121 -14.160
45 F4 122 -14.648
45 F4 123 -14.648
45 F4 124 -14.160
45 F4 125 -14.160
45 F4 126 -13.672
45 F4 127 -12.695
45 F4 128 -11.230
45 F4 129 -8.789
45 F4 130 -7.324
45 F4 131 -5.859
45 F4 132 -5.371
45 F4 133 -6.348
45 F4 134 -7.324
45 F4 135 -7.812
45 F4 136 -8.789
45 F4 137 -8.301
45 F4 138 -7.812
45 F4 139 -7.812
45 F4 140 -7.812
45 F4 141 -8.301
45 F4 142 -9.766
45 F4 143 -11.230
45 F4 144 -11.719
45 F4 145 -11.230
45 F4 146 -10.254
45 F4 147 -8.789
45 F4 148 -7.812
45 F4 149 -6.836
45 F4 150 -5.371
45 F4 151 -3.906
45 F4 152 -1.953
45 F4 153 -0.977
45 F4 154 -0.977
45 F4 155 -2.930
45 F4 156 -4.883
45 F4 157 -6.836
45 F4 158 -7.324
45 F4 159 -6.836
45 F4 160 -6.348
45 F4 161 -5.859
45 F4 162 -5.859
45 F4 163 -5.859
45 F4 164 -5.859
45 F4 165 -5.859
45 F4 166 -5.859
45 F4 167 -5.371
45 F4 168 -4.883
45 F4 169 -4.395
45 F4 170 -3.906
45 F4 171 -3.906
45 F4 172 -3.906
45 F4 173 -4.883
45 F4 174 -5.371
45 F4 175 -5.859
45 F4 176 -5.859
45 F4 177 -5.859
45 F4 178 -5.371
45 F4 179 -5.371
45 F4 180 -5.371
45 F4 181 -4.395
45 F4 182 -3.418
45 F4 183 -1.953
45 F4 184 -0.977
45 F4 185 -0.977
45 F4 186 -2.441
45 F4 187 -4.883
45 F4 188 -6.348
45 F4 189 -7.324
45 F4 190 -6.836
45 F4 191 -5.371
45 F4 192 -3.906
45 F4 193 -2.930
45 F4 194 -2.441
45 F4 195 -3.418
45 F4 196 -3.906
45 F4 197 -4.883
45 F4 198 -4.883
45 F4 199 -5.859
45 F4 200 -6.836
45 F4 201 -8.789
45 F4 202 -10.254
45 F4 203 -10.742
45 F4 204 -10.254
45 F4 205 -9.277
45 F4 206 -8.789
45 F4 207 -8.789
45 F4 208 -9.277
45 F4 209 -8.789
45 F4 210 -6.836
45 F4 211 -3.906
45 F4 212 -1.465
45 F4 213 0.000
45 F4 214 -0.977
45 F4 215 -2.441
45 F4 216 -3.906
45 F4 217 -3.418
45 F4 218 -2.441
45 F4 219 -1.465
45 F4 220 -0.977
45 F4 221 -0.977
45 F4 222 -0.977
45 F4 223 -1.465
45 F4 224 -1.465
45 F4 225 -2.441
45 F4 226 -3.906
45 F4 227 -5.859
45 F4 228 -7.812
45 F4 229 -8.301
45 F4 230 -7.324
45 F4 231 -5.859
45 F4 232 -3.906
45 F4 233 -1.953
45 F4 234 -0.977
45 F4 235 0.000
45 F4 236 0.000
45 F4 237 0.000
45 F4 238 -0.977
45 F4 239 -2.441
45 F4 240 -3.906
45 F4 241 -4.883
45 F4 242 -5.859
45 F4 243 -6.348
45 F4 244 -6.836
45 F4 245 -7.812
45 F4 246 -8.789
45 F4 247 -9.277
45 F4 248 -10.254
45 F4 249 -11.230
45 F4 250 -11.719
45 F4 251 -12.207
45 F4 252 -11.719
45 F4 253 -10.254
45 F4 254 -8.789
45 F4 255 -7.324
# F3 chan 8
45 F3 0 3.652
45 F3 1 4.140
45 F3 2 3.164
45 F3 3 1.699
45 F3 4 0.722
45 F3 5 0.722
45 F3 6 0.722
45 F3 7 0.234
45 F3 8 0.234
45 F3 9 0.234
45 F3 10 -0.254
45 F3 11 -0.254
45 F3 12 -0.254
45 F3 13 -0.743
45 F3 14 -2.207
45 F3 15 -3.672
45 F3 16 -5.137
45 F3 17 -5.625
45 F3 18 -5.137
45 F3 19 -4.649
45 F3 20 -4.649
45 F3 21 -5.137
45 F3 22 -5.625
45 F3 23 -6.602
45 F3 24 -7.090
45 F3 25 -7.090
45 F3 26 -7.579
45 F3 27 -8.067
45 F3 28 -9.043
45 F3 29 -9.532
45 F3 30 -9.043
45 F3 31 -8.555
45 F3 32 -7.090
45 F3 33 -6.602
45 F3 34 -6.602
45 F3 35 -7.579
45 F3 36 -8.555
45 F3 37 -10.020
45 F3 38 -10.508
45 F3 39 -10.508
45 F3 40 -10.020
45 F3 41 -9.043
45 F3 42 -7.579
45 F3 43 -6.114
45 F3 44 -5.137
45 F3 45 -4.161
45 F3 46 -4.161
45 F3 47 -3.672
45 F3 48 -3.672
45 F3 49 -4.161
45 F3 50 -5.625
45 F3 51 -7.090
45 F3 52 -8.067
45 F3 53 -8.555
45 F3 54 -8.067
45 F3 55 -7.090
45 F3 56 -5.137
45 F3 57 -3.184
45 F3 58 -2.207
45 F3 59 -3.184
45 F3 60 -4.649
45 F3 61 -7.090
45 F3 62 -9.043
45 F3 63 -10.020
45 F3 64 -9.532
45 F3 65 -8.067
45 F3 66 -7.090
45 F3 67 -5.625
45 F3 68 -5.137
45 F3 69 -5.137
45 F3 70 -5.137
45 F3 71 -5.137
45 F3 72 -4.161
45 F3 73 -3.672
45 F3 74 -3.184
45 F3 75 -2.696
45 F3 76 -2.696
45 F3 77 -2.696
45 F3 78 -2.696
45 F3 79 -2.207
45 F3 80 -2.207
45 F3 81 -2.207
45 F3 82 -3.184
45 F3 83 -3.184
45 F3 84 -2.207
45 F3 85 -0.743
45 F3 86 1.211
45 F3 87 2.675
45 F3 88 2.675
45 F3 89 2.187
45 F3 90 0.722
45 F3 91 -0.743
45 F3 92 -1.719
45 F3 93 -1.719
45 F3 94 -1.719
45 F3 95 -2.207
45 F3 96 -2.696
45 F3 97 -2.696
45 F3 98 -2.696
45 F3 99 -2.207
45 F3 100 -1.719
45 F3 101 -1.719
45 F3 102 -1.231
45 F3 103 -0.743
45 F3 104 0.234
45 F3 105 0.722
45 F3 106 0.722
45 F3 107 -0.254
45 F3 108 -1.719
45 F3 109 -2.696
45 F3 110 -2.696
45 F3 111 -1.719
45 F3 112 -1.231
45 F3 113 -1.231
45 F3 114 -1.719
45 F3 115 -2.696
45 F3 116 -2.696
45 F3 117 -2.696
45 F3 118 -2.207
45 F3 119 -2.696
45 F3 120 -4.161
45 F3 121 -5.625
45 F3 122 -7.090
45 F3 123 -7.090
45 F3 124 -6.114
45 F3 125 -5.625
45 F3 126 -4.649
45 F3 127 -4.161
45 F3 128 -3.184
45 F3 129 -2.696
45 F3 130 -2.696
45 F3 131 -2.207
45 F3 132 -1.719
45 F3 133 -2.207
45 F3 134 -2.207
45 F3 135 -2.207
45 F3 136 -1.719
45 F3 137 -1.231
45 F3 138 -0.743
45 F3 139 -0.743
45 F3 140 -1.231
45 F3 141 -1.719
45 F3 142 -2.207
45 F3 143 -2.207
45 F3 144 -2.207
45 F3 145 -2.207
45 F3 146 -2.207
45 F3 147 -1.719
45 F3 148 -1.231
45 F3 149 0.234
45 F3 150 1.699
45 F3 151 3.652
45 F3 152 5.117
45 F3 153 5.117
45 F3 154 4.140
45 F3 155 1.699
45 F3 156 -1.231
45 F3 157 -3.184
45 F3 158 -3.672
45 F3 159 -3.184
45 F3 160 -2.207
45 F3 161 -1.719
45 F3 162 -1.231
45 F3 163 -1.231
45 F3 164 -0.743
45 F3 165 -0.743
45 F3 166 -0.254
45 F3 167 0.234
45 F3 168 -0.254
45 F3 169 -1.231
45 F3 170 -2.207
45 F3 171 -3.184
45 F3 172 -3.184
45 F3 173 -2.696
45 F3 174 -1.231
45 F3 175 0.234
45 F3 176 1.699
45 F3 177 2.187
45 F3 178 2.675
45 F3 179 2.675
45 F3 180 3.164
45 F3 181 4.140
45 F3 182 5.605
45 F3 183 7.070
45 F3 184 8.535
45 F3 185 8.046
45 F3 186 7.070
45 F3 187 5.117
45 F3 188 3.652
45 F3 189 2.675
45 F3 190 3.652
45 F3 191 5.605
45 F3 192 7.558
45 F3 193 8.046
45 F3 194 7.070
45 F3 195 5.605
45 F3 196 5.117
45 F3 197 6.093
45 F3 198 7.558
45 F3 199 8.046
45 F3 200 6.093
45 F3 201 3.164
45 F3 202 0.234
45 F3 203 -1.231
45 F3 204 -1.719
45 F3 205 -1.231
45 F3 206 -1.231
45 F3 207 -1.231
45 F3 208 -1.719
45 F3 209 -1.231
45 F3 210 0.722
45 F3 211 3.652
45 F3 212 6.093
45 F3 213 7.558
45 F3 214 6.582
45 F3 215 5.117
45 F3 216 3.652
45 F3 217 3.164
45 F3 218 4.140
45 F3 219 6.093
45 F3 220 7.558
45 F3 221 7.558
45 F3 222 7.070
45 F3 223 6.093
45 F3 224 5.605
45 F3 225 6.093
45 F3 226 6.093
45 F3 227 6.093
45 F3 228 4.628
45 F3 229 3.164
45 F3 230 2.675
45 F3 231 3.164
45 F3 232 5.117
45 F3 233 6.582
45 F3 234 7.558
45 F3 235 6.582
45 F3 236 5.605
45 F3 237 3.652
45 F3 238 2.675
45 F3 239 2.187
45 F3 240 2.187
45 F3 241 2.675
45 F3 242 2.675
45 F3 243 1.699
45 F3 244 0.234
45 F3 245 -1.231
45 F3 246 -2.696
45 F3 247 -3.672
45 F3 248 -3.672
45 F3 249 -3.672
45 F3 250 -2.696
45 F3 251 -2.207
45 F3 252 -1.231
45 F3 253 0.234
45 F3 254 1.211
45 F3 255 2.187
# FC6 chan 9
45 FC6 0 -7.955
45 FC6 1 -6.490
45 FC6 2 -4.537
45 FC6 3 -4.049
45 FC6 4 -4.049
45 FC6 5 -4.537
45 FC6 6 -4.537
45 FC6 7 -4.537
45 FC6 8 -3.560
45 FC6 9 -3.072
45 FC6 10 -3.072
45 FC6 11 -2.584
45 FC6 12 -2.096
45 FC6 13 -3.072
45 FC6 14 -4.049
45 FC6 15 -5.025
45 FC6 16 -6.002
45 FC6 17 -6.002
45 FC6 18 -6.002
45 FC6 19 -5.514
45 FC6 20 -5.514
45 FC6 21 -6.490
45 FC6 22 -6.978
45 FC6 23 -6.978
45 FC6 24 -6.002
45 FC6 25 -5.025
45 FC6 26 -4.537
45 FC6 27 -4.049
45 FC6 28 -3.560
45 FC6 29 -2.584
45 FC6 30 -1.119
45 FC6 31 0.346
45 FC6 32 0.834
45 FC6 33 -0.631
45 FC6 34 -2.096
45 FC6 35 -4.049
45 FC6 36 -5.514
45 FC6 37 -6.002
45 FC6 38 -6.978
45 FC6 39 -7.955
45 FC6 40 -7.467
45 FC6 41 -6.490
45 FC6 42 -4.537
45 FC6 43 -2.584
45 FC6 44 -1.607
45 FC6 45 -1.119
45 FC6 46 -1.607
45 FC6 47 -2.096
45 FC6 48 -3.072
45 FC6 49 -3.560
45 FC6 50 -4.537
45 FC6 51 -5.025
45 FC6 52 -6.002
45 FC6 53 -6.490
45 FC6 54 -6.002
45 FC6 55 -5.025
45 FC6 56 -4.049
45 FC6 57 -4.049
45 FC6 58 -5.025
45 FC6 59 -6.002
45 FC6 60 -6.490
45 FC6 61 -5.514
45 FC6 62 -4.049
45 FC6 63 -2.584
45 FC6 64 -1.607
45 FC6 65 -2.096
45 FC6 66 -2.584
45 FC6 67 -4.049
45 FC6 68 -5.025
45 FC6 69 -6.490
45 FC6 70 -6.978
45 FC6 71 -6.978
45 FC6 72 -6.002
45 FC6 73 -5.025
45 FC6 74 -4.537
45 FC6 75 -5.514
45 FC6 76 -7.467
45 FC6 77 -9.420
45 FC6 78 -10.396
45 FC6 79 -10.885
45 FC6 80 -10.396
45 FC6 81 -10.396
45 FC6 82 -10.396
45 FC6 83 -10.885
45 FC6 84 -11.373
45 FC6 85 -10.885
45 FC6 86 -9.908
45 FC6 87 -8.931
45 FC6 88 -7.955
45 FC6 89 -7.467
45 FC6 90 -6.002
45 FC6 91 -4.537
45 FC6 92 -3.072
45 FC6 93 -2.096
45 FC6 94 -2.096
45 FC6 95 -3.072
45 FC6 96 -5.025
45 FC6 97 -7.467
45 FC6 98 -8.931
45 FC6 99 -9.908
45 FC6 100 -10.396
45 FC6 101 -10.396
45 FC6 102 -10.396
45 FC6 103 -9.908
45 FC6 104 -8.443
45 FC6 105 -7.955
45 FC6 106 -7.467
45 FC6 107 -7.955
45 FC6 108 -8.931
45 FC6 109 -8.931
45 FC6 110 -8.931
45 FC6 111 -8.443
45 FC6 112 -8.443
45 FC6 113 -9.908
45 FC6 114 -12.349
45 FC6 115 -14.791
45 FC6 116 -16.256
45 FC6 117 -16.744
45 FC6 118 -16.744
45 FC6 119 -16.256
45 FC6 120 -16.256
45 FC6 121 -16.256
45 FC6 122 -16.256
45 FC6 123 -16.744
45 FC6 124 -16.744
45 FC6 125 -16.256
45 FC6 126 -15.767
45 FC6 127 -13.814
45 FC6 128 -11.861
45 FC6 129 -9.908
45 FC6 130 -7.955
45 FC6 131 -6.978
45 FC6 132 -6.490
45 FC6 133 -6.490
45 FC6 134 -7.467
45 FC6 135 -8.931
45 FC6 136 -9.908
45 FC6 137 -10.885
45 FC6 138 -10.396
45 FC6 139 -9.908
45 FC6 140 -9.420
45 FC6 141 -9.420
45 FC6 142 -10.396
45 FC6 143 -11.373
45 FC6 144 -11.373
45 FC6 145 -10.396
45 FC6 146 -8.443
45 FC6 147 -6.978
45 FC6 148 -6.490
45 FC6 149 -6.490
45 FC6 150 -6.490
45 FC6 151 -5.514
45 FC6 152 -4.049
45 FC6 153 -2.584
45 FC6 154 -2.584
45 FC6 155 -4.537
45 FC6 156 -6.490
45 FC6 157 -8.443
45 FC6 158 -8.931
45 FC6 159 -8.931
45 FC6 160 -8.443
45 FC6 161 -7.955
45 FC6 162 -7.467
45 FC6 163 -6.978
45 FC6 164 -6.002
45 FC6 165 -6.002
45 FC6 166 -6.002
45 FC6 167 -6.002
45 FC6 168 -6.490
45 FC6 169 -6.490
45 FC6 170 -6.002
45 FC6 171 -5.025
45 FC6 172 -5.025
45 FC6 173 -5.514
45 FC6 174 -6.490
45 FC6 175 -7.467
45 FC6 176 -7.467
45 FC6 177 -6.978
45 FC6 178 -6.490
45 FC6 179 -6.490
45 FC6 180 -6.490
45 FC6 181 -6.490
45 FC6 182 -6.002
45 FC6 183 -5.514
45 FC6 184 -5.025
45 FC6 185 -5.514
45 FC6 186 -7.467
45 FC6 187 -8.931
45 FC6 188 -10.396
45 FC6 189 -10.885
45 FC6 190 -9.908
45 FC6 191 -8.931
45 FC6 192 -7.955
45 FC6 193 -7.955
45 FC6 194 -8.443
45 FC6 195 -8.931
45 FC6 196 -8.443
45 FC6 197 -8.443
45 FC6 198 -7.955
45 FC6 199 -8.931
45 FC6 200 -10.396
45 FC6 201 -11.861
45 FC6 202 -12.838
45 FC6 203 -13.326
45 FC6 204 -12.838
45 FC6 205 -11.861
45 FC6 206 -11.373
45 FC6 207 -10.885
45 FC6 208 -10.885
45 FC6 209 -9.908
45 FC6 210 -8.443
45 FC6 211 -6.002
45 FC6 212 -4.537
45 FC6 213 -4.537
45 FC6 214 -6.002
45 FC6 215 -7.955
45 FC6 216 -8.931
45 FC6 217 -8.443
45 FC6 218 -7.467
45 FC6 219 -6.490
45 FC6 220 -6.490
45 FC6 221 -6.490
45 FC6 222 -6.490
45 FC6 223 -6.978
45 FC6 224 -7.467
45 FC6 225 -8.443
45 FC6 226 -9.908
45 FC6 227 -11.861
45 FC6 228 -12.838
45 FC6 229 -12.838
45 FC6 230 -11.373
45 FC6 231 -9.908
45 FC6 232 -8.443
45 FC6 233 -6.978
45 FC6 234 -6.002
45 FC6 235 -4.537
45 FC6 236 -3.072
45 FC6 237 -2.584
45 FC6 238 -3.072
45 FC6 239 -4.049
45 FC6 240 -6.002
45 FC6 241 -7.955
45 FC6 242 -8.931
45 FC6 243 -9.420
45 FC6 244 -9.908
45 FC6 245 -10.396
45 FC6 246 -10.396
45 FC6 247 -10.885
45 FC6 248 -11.373
45 FC6 249 -11.861
45 FC6 250 -12.838
45 FC6 251 -13.814
45 FC6 252 -13.326
45 FC6 253 -12.838
45 FC6 254 -11.861
45 FC6 255 -10.396
# FC5 chan 10
45 FC5 0 4.313
45 FC5 1 4.801
45 FC5 2 3.825
45 FC5 3 2.360
45 FC5 4 0.407
45 FC5 5 -1.546
45 FC5 6 -2.523
45 FC5 7 -2.035
45 FC5 8 -0.081
45 FC5 9 1.872
45 FC5 10 3.825
45 FC5 11 4.801
45 FC5 12 4.313
45 FC5 13 2.848
45 FC5 14 1.383
45 FC5 15 0.407
45 FC5 16 -0.081
45 FC5 17 -0.570
45 FC5 18 -0.570
45 FC5 19 -1.058
45 FC5 20 -2.035
45 FC5 21 -3.988
45 FC5 22 -6.917
45 FC5 23 -10.335
45 FC5 24 -12.777
45 FC5 25 -13.753
45 FC5 26 -13.265
45 FC5 27 -11.800
45 FC5 28 -9.847
45 FC5 29 -7.406
45 FC5 30 -4.964
45 FC5 31 -3.011
45 FC5 32 -1.546
45 FC5 33 -1.058
45 FC5 34 -2.035
45 FC5 35 -3.988
45 FC5 36 -5.941
45 FC5 37 -8.382
45 FC5 38 -9.847
45 FC5 39 -10.335
45 FC5 40 -10.335
45 FC5 41 -9.847
45 FC5 42 -9.847
45 FC5 43 -10.335
45 FC5 44 -10.335
45 FC5 45 -10.335
45 FC5 46 -9.359
45 FC5 47 -8.382
45 FC5 48 -7.894
45 FC5 49 -7.406
45 FC5 50 -7.406
45 FC5 51 -7.894
45 FC5 52 -7.894
45 FC5 53 -6.917
45 FC5 54 -5.452
45 FC5 55 -3.499
45 FC5 56 -1.546
45 FC5 57 -0.081
45 FC5 58 1.383
45 FC5 59 1.872
45 FC5 60 1.383
45 FC5 61 0.407
45 FC5 62 -1.546
45 FC5 63 -3.011
45 FC5 64 -3.988
45 FC5 65 -3.988
45 FC5 66 -3.499
45 FC5 67 -3.499
45 FC5 68 -3.499
45 FC5 69 -3.499
45 FC5 70 -3.011
45 FC5 71 -2.523
45 FC5 72 -1.546
45 FC5 73 -0.570
45 FC5 74 -0.081
45 FC5 75 -0.570
45 FC5 76 -1.058
45 FC5 77 -1.546
45 FC5 78 -2.035
45 FC5 79 -2.035
45 FC5 80 -1.546
45 FC5 81 -2.035
45 FC5 82 -2.035
45 FC5 83 -2.035
45 FC5 84 -1.058
45 FC5 85 0.407
45 FC5 86 1.872
45 FC5 87 2.848
45 FC5 88 2.848
45 FC5 89 1.872
45 FC5 90 0.407
45 FC5 91 -0.081
45 FC5 92 -0.570
45 FC5 93 -1.058
45 FC5 94 -1.546
45 FC5 95 -3.011
45 FC5 96 -3.988
45 FC5 97 -4.476
45 FC5 98 -3.988
45 FC5 99 -2.523
45 FC5 100 -1.058
45 FC5 101 0.407
45 FC5 102 1.383
45 FC5 103 2.360
45 FC5 104 3.337
45 FC5 105 4.313
45 FC5 106 4.801
45 FC5 107 4.313
45 FC5 108 3.337
45 FC5 109 1.872
45 FC5 110 0.895
45 FC5 111 0.895
45 FC5 112 1.383
45 FC5 113 2.360
45 FC5 114 1.872
45 FC5 115 1.383
45 FC5 116 0.895
45 FC5 117 0.407
45 FC5 118 -0.081
45 FC5 119 -1.058
45 FC5 120 -2.523
45 FC5 121 -3.988
45 FC5 122 -5.452
45 FC5 123 -5.941
45 FC5 124 -5.452
45 FC5 125 -4.476
45 FC5 126 -3.011
45 FC5 127 -2.035
45 FC5 128 -2.035
45 FC5 129 -1.546
45 FC5 130 -1.546
45 FC5 131 -1.546
45 FC5 132 -1.546
45 FC5 133 -1.058
45 FC5 134 -0.570
45 FC5 135 -0.081
45 FC5 136 0.407
45 FC5 137 0.895
45 FC5 138 0.895
45 FC5 139 0.407
45 FC5 140 -0.081
45 FC5 141 -0.081
45 FC5 142 -0.570
45 FC5 143 0.407
45 FC5 144 0.407
45 FC5 145 0.895
45 FC5 146 1.383
45 FC5 147 1.872
45 FC5 148 2.848
45 FC5 149 3.825
45 FC5 150 5.290
45 FC5 151 7.243
45 FC5 152 9.196
45 FC5 153 9.196
45 FC5 154 7.731
45 FC5 155 4.313
45 FC5 156 0.895
45 FC5 157 -1.546
45 FC5 158 -2.523
45 FC5 159 -1.058
45 FC5 160 0.895
45 FC5 161 2.848
45 FC5 162 3.825
45 FC5 163 3.825
45 FC5 164 3.825
45 FC5 165 3.825
45 FC5 166 3.825
45 FC5 167 4.313
45 FC5 168 3.825
45 FC5 169 2.360
45 FC5 170 0.407
45 FC5 171 -1.546
45 FC5 172 -2.523
45 FC5 173 -1.546
45 FC5 174 -0.081
45 FC5 175 1.872
45 FC5 176 3.337
45 FC5 177 4.313
45 FC5 178 4.313
45 FC5 179 5.290
45 FC5 180 6.266
45 FC5 181 8.219
45 FC5 182 10.173
45 FC5 183 11.637
45 FC5 184 12.126
45 FC5 185 11.637
45 FC5 186 9.684
45 FC5 187 7.243
45 FC5 188 4.801
45 FC5 189 3.337
45 FC5 190 3.337
45 FC5 191 4.801
45 FC5 192 6.266
45 FC5 193 6.755
45 FC5 194 6.755
45 FC5 195 6.755
45 FC5 196 7.731
45 FC5 197 9.196
45 FC5 198 10.661
45 FC5 199 10.173
45 FC5 200 8.219
45 FC5 201 4.801
45 FC5 202 2.360
45 FC5 203 1.383
45 FC5 204 1.383
45 FC5 205 2.360
45 FC5 206 2.360
45 FC5 207 2.360
45 FC5 208 1.383
45 FC5 209 0.895
45 FC5 210 1.383
45 FC5 211 3.337
45 FC5 212 5.290
45 FC5 213 6.266
45 FC5 214 5.778
45 FC5 215 4.313
45 FC5 216 2.360
45 FC5 217 1.383
45 FC5 218 1.383
45 FC5 219 2.848
45 FC5 220 4.801
45 FC5 221 5.290
45 FC5 222 5.778
45 FC5 223 5.290
45 FC5 224 4.801
45 FC5 225 5.778
45 FC5 226 6.266
45 FC5 227 6.266
45 FC5 228 5.778
45 FC5 229 4.313
45 FC5 230 3.825
45 FC5 231 4.313
45 FC5 232 5.778
45 FC5 233 7.731
45 FC5 234 8.708
45 FC5 235 9.196
45 FC5 236 8.708
45 FC5 237 7.731
45 FC5 238 6.755
45 FC5 239 6.266
45 FC5 240 6.266
45 FC5 241 5.778
45 FC5 242 5.778
45 FC5 243 5.778
45 FC5 244 4.801
45 FC5 245 3.337
45 FC5 246 2.360
45 FC5 247 0.895
45 FC5 248 0.407
45 FC5 249 -0.081
45 FC5 250 -0.081
45 FC5 251 0.895
45 FC5 252 2.360
45 FC5 253 4.313
45 FC5 254 5.778
45 FC5 255 6.755
# FC2 chan 11
45 FC2 0 -2.614
45 FC2 1 -1.638
45 FC2 2 -1.149
45 FC2 3 -0.661
45 FC2 4 -0.173
45 FC2 5 -0.173
45 FC2 6 -0.173
45 FC2 7 -0.173
45 FC2 8 -0.661
45 FC2 9 -1.149
45 FC2 10 -1.638
45 FC2 11 -1.638
45 FC2 12 -0.661
45 FC2 13 -0.661
45 FC2 14 -0.661
45 FC2 15 -1.149
45 FC2 16 -2.126
45 FC2 17 -2.614
45 FC2 18 -3.103
45 FC2 19 -2.614
45 FC2 20 -2.614
45 FC2 21 -2.126
45 FC2 22 -1.638
45 FC2 23 -0.173
45 FC2 24 1.292
45 FC2 25 1.780
45 FC2 26 0.804
45 FC2 27 -0.661
45 FC2 28 -1.638
45 FC2 29 -2.614
45 FC2 30 -2.614
45 FC2 31 -2.126
45 FC2 32 -1.638
45 FC2 33 -1.149
45 FC2 34 -1.638
45 FC2 35 -1.638
45 FC2 36 -2.614
45 FC2 37 -3.591
45 FC2 38 -4.567
45 FC2 39 -5.544
45 FC2 40 -5.544
45 FC2 41 -4.567
45 FC2 42 -2.126
45 FC2 43 0.315
45 FC2 44 1.780
45 FC2 45 2.268
45 FC2 46 1.780
45 FC2 47 1.292
45 FC2 48 0.804
45 FC2 49 0.804
45 FC2 50 0.315
45 FC2 51 -0.173
45 FC2 52 -1.149
45 FC2 53 -2.614
45 FC2 54 -3.103
45 FC2 55 -3.103
45 FC2 56 -3.103
45 FC2 57 -3.103
45 FC2 58 -3.591
45 FC2 59 -3.591
45 FC2 60 -4.079
45 FC2 61 -4.079
45 FC2 62 -3.591
45 FC2 63 -2.614
45 FC2 64 -2.126
45 FC2 65 -1.638
45 FC2 66 -1.638
45 FC2 67 -1.638
45 FC2 68 -1.638
45 FC2 69 -1.638
45 FC2 70 -2.126
45 FC2 71 -2.126
45 FC2 72 -2.126
45 FC2 73 -2.126
45 FC2 74 -2.126
45 FC2 75 -2.126
45 FC2 76 -2.126
45 FC2 77 -2.614
45 FC2 78 -2.614
45 FC2 79 -2.614
45 FC2 80 -2.614
45 FC2 81 -3.103
45 FC2 82 -3.591
45 FC2 83 -4.567
45 FC2 84 -4.567
45 FC2 85 -5.056
45 FC2 86 -4.567
45 FC2 87 -4.079
45 FC2 88 -3.591
45 FC2 89 -3.103
45 FC2 90 -3.103
45 FC2 91 -2.614
45 FC2 92 -2.126
45 FC2 93 -1.638
45 FC2 94 -0.661
45 FC2 95 -0.661
45 FC2 96 -1.638
45 FC2 97 -2.126
45 FC2 98 -3.103
45 FC2 99 -4.079
45 FC2 100 -4.567
45 FC2 101 -4.567
45 FC2 102 -4.567
45 FC2 103 -4.079
45 FC2 104 -3.591
45 FC2 105 -3.103
45 FC2 106 -2.614
45 FC2 107 -2.614
45 FC2 108 -2.614
45 FC2 109 -3.103
45 FC2 110 -3.103
45 FC2 111 -3.103
45 FC2 112 -3.103
45 FC2 113 -3.103
45 FC2 114 -4.079
45 FC2 115 -5.544
45 FC2 116 -6.032
45 FC2 117 -6.521
45 FC2 118 -6.521
45 FC2 119 -6.032
45 FC2 120 -6.032
45 FC2 121 -6.032
45 FC2 122 -6.521
45 FC2 123 -6.521
45 FC2 124 -6.521
45 FC2 125 -6.521
45 FC2 126 -6.032
45 FC2 127 -6.032
45 FC2 128 -6.032
45 FC2 129 -5.544
45 FC2 130 -5.544
45 FC2 131 -4.567
45 FC2 132 -4.079
45 FC2 133 -4.079
45 FC2 134 -4.567
45 FC2 135 -5.056
45 FC2 136 -5.544
45 FC2 137 -5.544
45 FC2 138 -5.544
45 FC2 139 -5.544
45 FC2 140 -5.544
45 FC2 141 -6.032
45 FC2 142 -6.521
45 FC2 143 -7.009
45 FC2 144 -7.009
45 FC2 145 -6.521
45 FC2 146 -6.032
45 FC2 147 -5.544
45 FC2 148 -5.056
45 FC2 149 -4.079
45 FC2 150 -3.591
45 FC2 151 -2.126
45 FC2 152 -1.638
45 FC2 153 -1.149
45 FC2 154 -1.638
45 FC2 155 -2.614
45 FC2 156 -3.103
45 FC2 157 -4.079
45 FC2 158 -4.079
45 FC2 159 -4.567
45 FC2 160 -4.567
45 FC2 161 -4.567
45 FC2 162 -4.567
45 FC2 163 -4.079
45 FC2 164 -4.079
45 FC2 165 -4.079
45 FC2 166 -3.591
45 FC2 167 -3.591
45 FC2 168 -3.591
45 FC2 169 -3.103
45 FC2 170 -2.614
45 FC2 171 -2.614
45 FC2 172 -2.614
45 FC2 173 -3.103
45 FC2 174 -3.591
45 FC2 175 -4.079
45 FC2 176 -4.079
45 FC2 177 -4.079
45 FC2 178 -4.079
45 FC2 179 -4.567
45 FC2 180 -4.567
45 FC2 181 -4.079
45 FC2 182 -3.591
45 FC2 183 -2.126
45 FC2 184 -1.638
45 FC2 185 -1.149
45 FC2 186 -1.149
45 FC2 187 -1.638
45 FC2 188 -2.614
45 FC2 189 -3.103
45 FC2 190 -3.103
45 FC2 191 -2.614
45 FC2 192 -2.126
45 FC2 193 -1.638
45 FC2 194 -1.638
45 FC2 195 -1.638
45 FC2 196 -2.126
45 FC2 197 -2.614
45 FC2 198 -3.103
45 FC2 199 -3.591
45 FC2 200 -4.567
45 FC2 201 -5.544
45 FC2 202 -6.521
45 FC2 203 -6.521
45 FC2 204 -6.521
45 FC2 205 -5.544
45 FC2 206 -5.056
45 FC2 207 -4.567
45 FC2 208 -4.567
45 FC2 209 -4.079
45 FC2 210 -3.103
45 FC2 211 -1.638
45 FC2 212 -0.661
45 FC2 213 -0.173
45 FC2 214 -0.661
45 FC2 215 -1.149
45 FC2 216 -1.638
45 FC2 217 -1.638
45 FC2 218 -0.661
45 FC2 219 -0.173
45 FC2 220 0.804
45 FC2 221 0.804
45 FC2 222 0.804
45 FC2 223 0.804
45 FC2 224 0.315
45 FC2 225 0.315
45 FC2 226 -0.661
45 FC2 227 -2.126
45 FC2 228 -3.103
45 FC2 229 -3.591
45 FC2 230 -3.103
45 FC2 231 -2.126
45 FC2 232 -0.661
45 FC2 233 0.315
45 FC2 234 0.315
45 FC2 235 0.315
45 FC2 236 0.315
45 FC2 237 -0.173
45 FC2 238 -1.149
45 FC2 239 -1.638
45 FC2 240 -2.614
45 FC2 241 -3.103
45 FC2 242 -4.079
45 FC2 243 -4.567
45 FC2 244 -5.056
45 FC2 245 -5.544
45 FC2 246 -5.544
45 FC2 247 -5.544
45 FC2 248 -5.544
45 FC2 249 -6.032
45 FC2 250 -6.521
45 FC2 251 -6.521
45 FC2 252 -6.032
45 FC2 253 -5.544
45 FC2 254 -4.079
45 FC2 255 -3.103
# FC1 chan 12
45 FC1 0 5.219
45 FC1 1 5.219
45 FC1 2 4.242
45 FC1 3 3.265
45 FC1 4 2.777
45 FC1 5 2.289
45 FC1 6 1.801
45 FC1 7 1.801
45 FC1 8 1.312
45 FC1 9 1.312
45 FC1 10 0.824
45 FC1 11 0.824
45 FC1 12 0.824
45 FC1 13 0.824
45 FC1 14 0.336
45 FC1 15 -0.153
45 FC1 16 -0.641
45 FC1 17 -1.129
45 FC1 18 -1.129
45 FC1 19 -1.617
45 FC1 20 -1.617
45 FC1 21 -1.617
45 FC1 22 -2.106
45 FC1 23 -2.594
45 FC1 24 -2.594
45 FC1 25 -2.594
45 FC1 26 -2.106
45 FC1 27 -2.106
45 FC1 28 -2.106
45 FC1 29 -2.594
45 FC1 30 -2.594
45 FC1 31 -2.594
45 FC1 32 -1.617
45 FC1 33 -1.129
45 FC1 34 -0.641
45 FC1 35 -1.129
45 FC1 36 -2.106
45 FC1 37 -3.082
45 FC1 38 -4.059
45 FC1 39 -4.547
45 FC1 40 -4.059
45 FC1 41 -3.082
45 FC1 42 -2.106
45 FC1 43 -1.617
45 FC1 44 -1.129
45 FC1 45 -0.641
45 FC1 46 -0.641
45 FC1 47 -0.153
45 FC1 48 -0.153
45 FC1 49 -0.153
45 FC1 50 -0.153
45 FC1 51 -1.129
45 FC1 52 -1.617
45 FC1 53 -2.106
45 FC1 54 -2.106
45 FC1 55 -1.617
45 FC1 56 -0.641
45 FC1 57 -0.153
45 FC1 58 0.336
45 FC1 59 -0.153
45 FC1 60 -0.641
45 FC1 61 -1.617
45 FC1 62 -2.594
45 FC1 63 -2.594
45 FC1 64 -3.082
45 FC1 65 -2.594
45 FC1 66 -1.617
45 FC1 67 -1.617
45 FC1 68 -1.129
45 FC1 69 -1.129
45 FC1 70 -1.129
45 FC1 71 -1.129
45 FC1 72 -0.641
45 FC1 73 0.336
45 FC1 74 1.312
45 FC1 75 1.801
45 FC1 76 2.289
45 FC1 77 2.289
45 FC1 78 1.801
45 FC1 79 1.312
45 FC1 80 0.824
45 FC1 81 0.336
45 FC1 82 0.336
45 FC1 83 0.336
45 FC1 84 0.824
45 FC1 85 2.289
45 FC1 86 3.265
45 FC1 87 3.754
45 FC1 88 3.754
45 FC1 89 3.265
45 FC1 90 2.289
45 FC1 91 0.824
45 FC1 92 0.336
45 FC1 93 0.336
45 FC1 94 0.336
45 FC1 95 0.336
45 FC1 96 0.336
45 FC1 97 0.824
45 FC1 98 0.824
45 FC1 99 0.824
45 FC1 100 0.824
45 FC1 101 0.824
45 FC1 102 1.312
45 FC1 103 1.801
45 FC1 104 2.289
45 FC1 105 2.289
45 FC1 106 2.777
45 FC1 107 2.777
45 FC1 108 2.289
45 FC1 109 1.801
45 FC1 110 1.312
45 FC1 111 1.312
45 FC1 112 1.312
45 FC1 113 1.312
45 FC1 114 0.824
45 FC1 115 0.824
45 FC1 116 0.824
45 FC1 117 1.312
45 FC1 118 1.312
45 FC1 119 1.312
45 FC1 120 0.824
45 FC1 121 -0.153
45 FC1 122 -0.641
45 FC1 123 -0.641
45 FC1 124 -0.153
45 FC1 125 0.824
45 FC1 126 1.312
45 FC1 127 1.312
45 FC1 128 0.824
45 FC1 129 0.336
45 FC1 130 -0.153
45 FC1 131 -0.153
45 FC1 132 -0.153
45 FC1 133 -0.153
45 FC1 134 -0.153
45 FC1 135 -0.153
45 FC1 136 0.824
45 FC1 137 0.824
45 FC1 138 0.824
45 FC1 139 0.824
45 FC1 140 0.336
45 FC1 141 0.336
45 FC1 142 -0.153
45 FC1 143 -0.153
45 FC1 144 -0.153
45 FC1 145 -0.641
45 FC1 146 -0.641
45 FC1 147 -0.153
45 FC1 148 -0.153
45 FC1 149 0.336
45 FC1 150 1.801
45 FC1 151 2.777
45 FC1 152 3.754
45 FC1 153 3.754
45 FC1 154 3.265
45 FC1 155 1.801
45 FC1 156 0.824
45 FC1 157 0.336
45 FC1 158 0.336
45 FC1 159 0.824
45 FC1 160 0.824
45 FC1 161 0.824
45 FC1 162 0.336
45 FC1 163 0.824
45 FC1 164 1.312
45 FC1 165 1.801
45 FC1 166 2.289
45 FC1 167 2.777
45 FC1 168 2.289
45 FC1 169 1.801
45 FC1 170 1.312
45 FC1 171 0.824
45 FC1 172 0.336
45 FC1 173 0.336
45 FC1 174 0.824
45 FC1 175 1.312
45 FC1 176 1.801
45 FC1 177 2.289
45 FC1 178 2.777
45 FC1 179 2.777
45 FC1 180 3.265
45 FC1 181 4.242
45 FC1 182 5.219
45 FC1 183 6.195
45 FC1 184 6.683
45 FC1 185 6.683
45 FC1 186 6.195
45 FC1 187 4.730
45 FC1 188 3.265
45 FC1 189 2.777
45 FC1 190 2.777
45 FC1 191 4.242
45 FC1 192 5.707
45 FC1 193 7.172
45 FC1 194 7.172
45 FC1 195 6.683
45 FC1 196 5.707
45 FC1 197 6.195
45 FC1 198 6.195
45 FC1 199 6.683
45 FC1 200 5.707
45 FC1 201 4.730
45 FC1 202 2.777
45 FC1 203 1.312
45 FC1 204 0.824
45 FC1 205 0.824
45 FC1 206 1.312
45 FC1 207 1.312
45 FC1 208 1.312
45 FC1 209 1.801
45 FC1 210 2.777
45 FC1 211 4.242
45 FC1 212 5.707
45 FC1 213 6.195
45 FC1 214 6.195
45 FC1 215 5.707
45 FC1 216 5.219
45 FC1 217 5.219
45 FC1 218 5.707
45 FC1 219 6.195
45 FC1 220 7.172
45 FC1 221 6.683
45 FC1 222 6.683
45 FC1 223 6.683
45 FC1 224 6.683
45 FC1 225 7.660
45 FC1 226 7.660
45 FC1 227 7.172
45 FC1 228 5.707
45 FC1 229 4.730
45 FC1 230 4.242
45 FC1 231 4.730
45 FC1 232 5.707
45 FC1 233 6.683
45 FC1 234 7.172
45 FC1 235 6.195
45 FC1 236 5.219
45 FC1 237 4.242
45 FC1 238 3.754
45 FC1 239 3.754
45 FC1 240 3.754
45 FC1 241 4.242
45 FC1 242 4.242
45 FC1 243 4.242
45 FC1 244 3.265
45 FC1 245 2.289
45 FC1 246 0.824
45 FC1 247 -0.641
45 FC1 248 -1.129
45 FC1 249 -1.129
45 FC1 250 -0.153
45 FC1 251 0.824
45 FC1 252 2.289
45 FC1 253 3.265
45 FC1 254 3.754
45 FC1 255 4.242
# T8 chan 13
45 T8 0 -8.189
45 T8 1 -7.701
45 T8 2 -6.236
45 T8 3 -5.747
45 T8 4 -5.747
45 T8 5 -7.212
45 T8 6 -8.677
45 T8 7 -8.677
45 T8 8 -6.724
45 T8 9 -3.306
45 T8 10 -0.376
45 T8 11 0.112
45 T8 12 -2.818
45 T8 13 -7.701
45 T8 14 -12.095
45 T8 15 -14.048
45 T8 16 -12.583
45 T8 17 -8.677
45 T8 18 -4.771
45 T8 19 -2.818
45 T8 20 -3.794
45 T8 21 -6.724
45 T8 22 -9.654
45 T8 23 -10.630
45 T8 24 -9.654
45 T8 25 -7.701
45 T8 26 -6.236
45 T8 27 -4.771
45 T8 28 -3.306
45 T8 29 -1.841
45 T8 30 -0.376
45 T8 31 0.600
45 T8 32 1.088
45 T8 33 1.088
45 T8 34 1.088
45 T8 35 1.088
45 T8 36 0.112
45 T8 37 -1.353
45 T8 38 -3.794
45 T8 39 -6.236
45 T8 40 -6.724
45 T8 41 -6.236
45 T8 42 -4.283
45 T8 43 -2.818
45 T8 44 -2.818
45 T8 45 -3.306
45 T8 46 -4.283
45 T8 47 -4.771
45 T8 48 -5.747
45 T8 49 -5.747
45 T8 50 -5.747
45 T8 51 -5.747
45 T8 52 -4.283
45 T8 53 -2.818
45 T8 54 -2.330
45 T8 55 -2.330
45 T8 56 -2.818
45 T8 57 -1.841
45 T8 58 -0.376
45 T8 59 2.065
45 T8 60 2.553
45 T8 61 1.577
45 T8 62 -0.376
45 T8 63 -1.353
45 T8 64 -0.865
45 T8 65 0.600
45 T8 66 0.112
45 T8 67 -2.818
45 T8 68 -6.724
45 T8 69 -10.142
45 T8 70 -10.142
45 T8 71 -7.212
45 T8 72 -3.794
45 T8 73 -2.330
45 T8 74 -4.771
45 T8 75 -8.677
45 T8 76 -12.095
45 T8 77 -13.072
45 T8 78 -13.072
45 T8 79 -12.583
45 T8 80 -13.072
45 T8 81 -14.537
45 T8 82 -15.513
45 T8 83 -15.513
45 T8 84 -15.025
45 T8 85 -14.048
45 T8 86 -14.048
45 T8 87 -13.560
45 T8 88 -12.583
45 T8 89 -9.654
45 T8 90 -6.236
45 T8 91 -4.283
45 T8 92 -3.306
45 T8 93 -3.306
45 T8 94 -4.771
45 T8 95 -6.724
45 T8 96 -8.189
45 T8 97 -9.654
45 T8 98 -11.119
45 T8 99 -12.583
45 T8 100 -13.560
45 T8 101 -14.537
45 T8 102 -14.048
45 T8 103 -13.072
45 T8 104 -10.630
45 T8 105 -8.677
45 T8 106 -8.189
45 T8 107 -8.677
45 T8 108 -10.142
45 T8 109 -10.630
45 T8 110 -11.119
45 T8 111 -11.119
45 T8 112 -11.607
45 T8 113 -13.072
45 T8 114 -15.513
45 T8 115 -17.466
45 T8 116 -18.931
45 T8 117 -19.419
45 T8 118 -20.396
45 T8 119 -21.372
45 T8 120 -22.837
45 T8 121 -23.814
45 T8 122 -24.302
45 T8 123 -23.326
45 T8 124 -21.372
45 T8 125 -20.396
45 T8 126 -19.908
45 T8 127 -19.419
45 T8 128 -17.466
45 T8 129 -14.048
45 T8 130 -9.654
45 T8 131 -6.236
45 T8 132 -4.771
45 T8 133 -5.747
45 T8 134 -8.189
45 T8 135 -11.119
45 T8 136 -13.560
45 T8 137 -13.560
45 T8 138 -12.583
45 T8 139 -10.630
45 T8 140 -9.654
45 T8 141 -9.654
45 T8 142 -10.630
45 T8 143 -11.607
45 T8 144 -11.607
45 T8 145 -11.607
45 T8 146 -11.119
45 T8 147 -11.119
45 T8 148 -11.607
45 T8 149 -11.607
45 T8 150 -11.119
45 T8 151 -9.654
45 T8 152 -8.189
45 T8 153 -7.212
45 T8 154 -8.189
45 T8 155 -10.630
45 T8 156 -13.560
45 T8 157 -16.001
45 T8 158 -16.978
45 T8 159 -16.001
45 T8 160 -14.537
45 T8 161 -13.072
45 T8 162 -12.095
45 T8 163 -11.119
45 T8 164 -10.142
45 T8 165 -8.189
45 T8 166 -7.212
45 T8 167 -6.724
45 T8 168 -7.701
45 T8 169 -9.654
45 T8 170 -11.119
45 T8 171 -12.095
45 T8 172 -11.607
45 T8 173 -10.142
45 T8 174 -8.189
45 T8 175 -7.212
45 T8 176 -7.701
45 T8 177 -9.654
45 T8 178 -10.630
45 T8 179 -11.119
45 T8 180 -10.142
45 T8 181 -8.677
45 T8 182 -7.701
45 T8 183 -8.189
45 T8 184 -9.654
45 T8 185 -11.607
45 T8 186 -13.560
45 T8 187 -14.537
45 T8 188 -16.001
45 T8 189 -16.490
45 T8 190 -17.466
45 T8 191 -17.466
45 T8 192 -16.490
45 T8 193 -14.537
45 T8 194 -13.072
45 T8 195 -12.095
45 T8 196 -12.095
45 T8 197 -13.560
45 T8 198 -15.513
45 T8 199 -16.978
45 T8 200 -17.466
45 T8 201 -17.466
45 T8 202 -17.466
45 T8 203 -17.466
45 T8 204 -17.955
45 T8 205 -17.466
45 T8 206 -16.490
45 T8 207 -16.001
45 T8 208 -15.513
45 T8 209 -15.513
45 T8 210 -15.025
45 T8 211 -14.537
45 T8 212 -14.048
45 T8 213 -14.048
45 T8 214 -15.025
45 T8 215 -16.490
45 T8 216 -17.955
45 T8 217 -18.443
45 T8 218 -18.443
45 T8 219 -17.955
45 T8 220 -16.978
45 T8 221 -16.490
45 T8 222 -15.513
45 T8 223 -15.025
45 T8 224 -15.513
45 T8 225 -16.001
45 T8 226 -16.978
45 T8 227 -18.443
45 T8 228 -19.419
45 T8 229 -20.396
45 T8 230 -20.884
45 T8 231 -20.396
45 T8 232 -18.443
45 T8 233 -16.001
45 T8 234 -13.072
45 T8 235 -9.654
45 T8 236 -7.701
45 T8 237 -6.236
45 T8 238 -6.236
45 T8 239 -7.701
45 T8 240 -9.654
45 T8 241 -12.095
45 T8 242 -14.537
45 T8 243 -16.490
45 T8 244 -17.466
45 T8 245 -16.490
45 T8 246 -15.025
45 T8 247 -14.048
45 T8 248 -14.537
45 T8 249 -16.978
45 T8 250 -19.908
45 T8 251 -21.372
45 T8 252 -20.884
45 T8 253 -18.931
45 T8 254 -16.001
45 T8 255 -14.048
# T7 chan 14
45 T7 0 0.804
45 T7 1 2.268
45 T7 2 2.757
45 T7 3 3.245
45 T7 4 2.268
45 T7 5 0.315
45 T7 6 -1.149
45 T7 7 -2.126
45 T7 8 -1.149
45 T7 9 0.804
45 T7 10 4.222
45 T7 11 6.175
45 T7 12 6.663
45 T7 13 5.198
45 T7 14 2.757
45 T7 15 0.804
45 T7 16 0.315
45 T7 17 1.292
45 T7 18 3.245
45 T7 19 3.245
45 T7 20 1.292
45 T7 21 -2.614
45 T7 22 -7.009
45 T7 23 -10.915
45 T7 24 -13.845
45 T7 25 -15.310
45 T7 26 -15.798
45 T7 27 -14.333
45 T7 28 -11.403
45 T7 29 -7.497
45 T7 30 -3.103
45 T7 31 0.804
45 T7 32 3.245
45 T7 33 3.245
45 T7 34 0.804
45 T7 35 -3.103
45 T7 36 -7.009
45 T7 37 -9.450
45 T7 38 -10.427
45 T7 39 -10.915
45 T7 40 -10.915
45 T7 41 -12.380
45 T7 42 -13.845
45 T7 43 -15.310
45 T7 44 -15.310
45 T7 45 -14.821
45 T7 46 -13.357
45 T7 47 -12.380
45 T7 48 -11.892
45 T7 49 -11.892
45 T7 50 -10.915
45 T7 51 -9.939
45 T7 52 -8.474
45 T7 53 -6.521
45 T7 54 -4.079
45 T7 55 -1.638
45 T7 56 0.804
45 T7 57 3.245
45 T7 58 5.686
45 T7 59 6.663
45 T7 60 6.663
45 T7 61 5.198
45 T7 62 2.757
45 T7 63 -0.173
45 T7 64 -2.126
45 T7 65 -2.126
45 T7 66 -1.149
45 T7 67 -0.173
45 T7 68 0.315
45 T7 69 -0.661
45 T7 70 -2.614
45 T7 71 -3.591
45 T7 72 -3.103
45 T7 73 -1.638
45 T7 74 -0.661
45 T7 75 -0.661
45 T7 76 -2.126
45 T7 77 -4.567
45 T7 78 -6.032
45 T7 79 -6.032
45 T7 80 -5.056
45 T7 81 -4.079
45 T7 82 -3.591
45 T7 83 -3.591
45 T7 84 -3.591
45 T7 85 -3.103
45 T7 86 -1.638
45 T7 87 -0.661
45 T7 88 -0.661
45 T7 89 -1.638
45 T7 90 -2.126
45 T7 91 -2.126
45 T7 92 -1.638
45 T7 93 -1.638
45 T7 94 -3.591
45 T7 95 -7.009
45 T7 96 -9.939
45 T7 97 -10.915
45 T7 98 -9.450
45 T7 99 -5.544
45 T7 100 -2.126
45 T7 101 -0.173
45 T7 102 0.315
45 T7 103 0.804
45 T7 104 1.780
45 T7 105 3.733
45 T7 106 5.198
45 T7 107 5.686
45 T7 108 4.710
45 T7 109 2.757
45 T7 110 2.268
45 T7 111 2.268
45 T7 112 2.757
45 T7 113 2.757
45 T7 114 1.292
45 T7 115 -0.173
45 T7 116 -1.149
45 T7 117 -2.126
45 T7 118 -2.614
45 T7 119 -3.103
45 T7 120 -5.056
45 T7 121 -6.521
45 T7 122 -7.497
45 T7 123 -7.497
45 T7 124 -6.032
45 T7 125 -4.079
45 T7 126 -2.614
45 T7 127 -1.638
45 T7 128 -1.638
45 T7 129 -1.638
45 T7 130 -1.638
45 T7 131 -1.638
45 T7 132 -1.638
45 T7 133 -2.126
45 T7 134 -2.126
45 T7 135 -2.614
45 T7 136 -2.126
45 T7 137 -1.638
45 T7 138 -0.661
45 T7 139 0.315
45 T7 140 0.315
45 T7 141 -0.661
45 T7 142 -1.638
45 T7 143 -2.126
45 T7 144 -1.638
45 T7 145 -0.173
45 T7 146 1.292
45 T7 147 2.268
45 T7 148 3.245
45 T7 149 4.222
45 T7 150 5.198
45 T7 151 6.663
45 T7 152 8.128
45 T7 153 8.128
45 T7 154 6.663
45 T7 155 3.245
45 T7 156 -0.173
45 T7 157 -2.614
45 T7 158 -3.591
45 T7 159 -2.126
45 T7 160 0.804
45 T7 161 3.733
45 T7 162 5.198
45 T7 163 4.710
45 T7 164 2.757
45 T7 165 2.268
45 T7 166 2.757
45 T7 167 4.222
45 T7 168 5.198
45 T7 169 3.733
45 T7 170 0.315
45 T7 171 -3.103
45 T7 172 -5.056
45 T7 173 -4.079
45 T7 174 -1.638
45 T7 175 0.315
45 T7 176 1.780
45 T7 177 1.780
45 T7 178 1.780
45 T7 179 3.245
45 T7 180 5.198
45 T7 181 7.640
45 T7 182 9.593
45 T7 183 11.546
45 T7 184 12.034
45 T7 185 12.034
45 T7 186 10.569
45 T7 187 7.640
45 T7 188 4.222
45 T7 189 1.292
45 T7 190 -0.661
45 T7 191 0.315
45 T7 192 2.268
45 T7 193 5.198
45 T7 194 7.640
45 T7 195 9.104
45 T7 196 9.593
45 T7 197 10.081
45 T7 198 10.081
45 T7 199 9.104
45 T7 200 6.663
45 T7 201 3.733
45 T7 202 0.804
45 T7 203 -1.149
45 T7 204 -1.149
45 T7 205 -0.173
45 T7 206 1.780
45 T7 207 1.780
45 T7 208 0.804
45 T7 209 -0.661
45 T7 210 -1.149
45 T7 211 -0.661
45 T7 212 1.292
45 T7 213 2.757
45 T7 214 2.757
45 T7 215 0.804
45 T7 216 -1.638
45 T7 217 -3.591
45 T7 218 -4.079
45 T7 219 -3.103
45 T7 220 -1.638
45 T7 221 -0.173
45 T7 222 0.804
45 T7 223 1.292
45 T7 224 1.780
45 T7 225 2.757
45 T7 226 3.245
45 T7 227 3.245
45 T7 228 2.757
45 T7 229 2.268
45 T7 230 2.757
45 T7 231 3.733
45 T7 232 4.710
45 T7 233 5.686
45 T7 234 5.198
45 T7 235 5.198
45 T7 236 5.686
45 T7 237 7.151
45 T7 238 8.616
45 T7 239 9.104
45 T7 240 8.128
45 T7 241 6.175
45 T7 242 4.710
45 T7 243 4.222
45 T7 244 4.222
45 T7 245 4.710
45 T7 246 4.222
45 T7 247 2.757
45 T7 248 0.804
45 T7 249 -0.661
45 T7 250 -1.149
45 T7 251 -0.173
45 T7 252 1.292
45 T7 253 3.245
45 T7 254 4.710
45 T7 255 5.198
# CZ chan 15
45 CZ 0 -5.849
45 CZ 1 -4.873
45 CZ 2 -3.896
45 CZ 3 -3.896
45 CZ 4 -5.849
45 CZ 5 -8.779
45 CZ 6 -10.732
45 CZ 7 -10.732
45 CZ 8 -7.802
45 CZ 9 -4.384
45 CZ 10 -1.455
45 CZ 11 -0.966
45 CZ 12 -3.408
45 CZ 13 -6.826
45 CZ 14 -9.267
45 CZ 15 -9.267
45 CZ 16 -7.802
45 CZ 17 -4.384
45 CZ 18 -1.455
45 CZ 19 -0.966
45 CZ 20 -3.408
45 CZ 21 -7.802
45 CZ 22 -12.197
45 CZ 23 -13.662
45 CZ 24 -13.662
45 CZ 25 -12.197
45 CZ 26 -11.220
45 CZ 27 -11.709
45 CZ 28 -12.685
45 CZ 29 -12.197
45 CZ 30 -9.755
45 CZ 31 -5.849
45 CZ 32 -1.943
45 CZ 33 0.498
45 CZ 34 0.498
45 CZ 35 -0.478
45 CZ 36 -2.920
45 CZ 37 -5.849
45 CZ 38 -8.291
45 CZ 39 -10.732
45 CZ 40 -12.685
45 CZ 41 -13.173
45 CZ 42 -13.173
45 CZ 43 -11.709
45 CZ 44 -10.244
45 CZ 45 -9.755
45 CZ 46 -9.267
45 CZ 47 -9.755
45 CZ 48 -10.244
45 CZ 49 -11.220
45 CZ 50 -11.709
45 CZ 51 -12.197
45 CZ 52 -12.197
45 CZ 53 -12.685
45 CZ 54 -13.173
45 CZ 55 -13.173
45 CZ 56 -13.173
45 CZ 57 -11.709
45 CZ 58 -9.267
45 CZ 59 -6.337
45 CZ 60 -4.384
45 CZ 61 -3.896
45 CZ 62 -4.873
45 CZ 63 -5.849
45 CZ 64 -5.849
45 CZ 65 -4.873
45 CZ 66 -3.896
45 CZ 67 -4.384
45 CZ 68 -5.849
45 CZ 69 -7.314
45 CZ 70 -7.802
45 CZ 71 -6.826
45 CZ 72 -4.873
45 CZ 73 -3.896
45 CZ 74 -4.873
45 CZ 75 -7.314
45 CZ 76 -8.779
45 CZ 77 -9.267
45 CZ 78 -8.291
45 CZ 79 -6.337
45 CZ 80 -5.849
45 CZ 81 -6.826
45 CZ 82 -9.267
45 CZ 83 -11.709
45 CZ 84 -12.197
45 CZ 85 -10.732
45 CZ 86 -9.267
45 CZ 87 -8.291
45 CZ 88 -8.291
45 CZ 89 -9.267
45 CZ 90 -9.267
45 CZ 91 -8.779
45 CZ 92 -8.291
45 CZ 93 -8.779
45 CZ 94 -11.220
45 CZ 95 -14.638
45 CZ 96 -17.568
45 CZ 97 -18.056
45 CZ 98 -15.615
45 CZ 99 -10.244
45 CZ 100 -5.361
45 CZ 101 -1.943
45 CZ 102 -0.966
45 CZ 103 -1.455
45 CZ 104 -2.431
45 CZ 105 -2.920
45 CZ 106 -3.408
45 CZ 107 -4.384
45 CZ 108 -5.849
45 CZ 109 -7.802
45 CZ 110 -8.291
45 CZ 111 -7.314
45 CZ 112 -6.337
45 CZ 113 -6.337
45 CZ 114 -7.802
45 CZ 115 -10.732
45 CZ 116 -13.173
45 CZ 117 -14.638
45 CZ 118 -15.127
45 CZ 119 -15.127
45 CZ 120 -15.615
45 CZ 121 -15.615
45 CZ 122 -16.103
45 CZ 123 -15.127
45 CZ 124 -13.662
45 CZ 125 -11.709
45 CZ 126 -11.220
45 CZ 127 -11.709
45 CZ 128 -11.709
45 CZ 129 -11.220
45 CZ 130 -8.291
45 CZ 131 -4.384
45 CZ 132 -0.966
45 CZ 133 0.987
45 CZ 134 1.475
45 CZ 135 0.498
45 CZ 136 -0.966
45 CZ 137 -2.431
45 CZ 138 -2.920
45 CZ 139 -2.920
45 CZ 140 -2.431
45 CZ 141 -2.431
45 CZ 142 -1.455
45 CZ 143 -0.966
45 CZ 144 -0.478
45 CZ 145 -0.478
45 CZ 146 0.010
45 CZ 147 0.498
45 CZ 148 0.498
45 CZ 149 0.498
45 CZ 150 0.987
45 CZ 151 1.475
45 CZ 152 0.987
45 CZ 153 0.010
45 CZ 154 -1.943
45 CZ 155 -4.384
45 CZ 156 -6.826
45 CZ 157 -7.802
45 CZ 158 -7.314
45 CZ 159 -4.873
45 CZ 160 -3.408
45 CZ 161 -1.943
45 CZ 162 -2.431
45 CZ 163 -2.920
45 CZ 164 -2.431
45 CZ 165 -1.943
45 CZ 166 -0.966
45 CZ 167 -0.966
45 CZ 168 -2.431
45 CZ 169 -4.384
45 CZ 170 -6.337
45 CZ 171 -7.314
45 CZ 172 -7.314
45 CZ 173 -8.291
45 CZ 174 -9.267
45 CZ 175 -10.732
45 CZ 176 -11.220
45 CZ 177 -10.732
45 CZ 178 -7.802
45 CZ 179 -4.384
45 CZ 180 -1.455
45 CZ 181 0.010
45 CZ 182 0.498
45 CZ 183 0.498
45 CZ 184 -0.966
45 CZ 185 -3.408
45 CZ 186 -5.849
45 CZ 187 -8.779
45 CZ 188 -10.244
45 CZ 189 -10.244
45 CZ 190 -8.291
45 CZ 191 -5.849
45 CZ 192 -3.896
45 CZ 193 -2.431
45 CZ 194 -2.431
45 CZ 195 -2.431
45 CZ 196 -2.431
45 CZ 197 -1.943
45 CZ 198 -0.478
45 CZ 199 -0.478
45 CZ 200 -1.455
45 CZ 201 -4.873
45 CZ 202 -8.779
45 CZ 203 -11.709
45 CZ 204 -13.173
45 CZ 205 -13.173
45 CZ 206 -12.197
45 CZ 207 -11.709
45 CZ 208 -11.709
45 CZ 209 -11.709
45 CZ 210 -10.244
45 CZ 211 -8.291
45 CZ 212 -7.314
45 CZ 213 -8.779
45 CZ 214 -12.685
45 CZ 215 -18.545
45 CZ 216 -21.962
45 CZ 217 -21.474
45 CZ 218 -16.103
45 CZ 219 -8.291
45 CZ 220 -1.943
45 CZ 221 -0.478
45 CZ 222 -3.408
45 CZ 223 -9.267
45 CZ 224 -14.150
45 CZ 225 -17.080
45 CZ 226 -17.080
45 CZ 227 -16.103
45 CZ 228 -14.638
45 CZ 229 -14.150
45 CZ 230 -13.173
45 CZ 231 -11.709
45 CZ 232 -8.779
45 CZ 233 -6.337
45 CZ 234 -4.384
45 CZ 235 -2.920
45 CZ 236 -2.431
45 CZ 237 -1.943
45 CZ 238 -2.920
45 CZ 239 -5.361
45 CZ 240 -8.291
45 CZ 241 -11.220
45 CZ 242 -13.662
45 CZ 243 -13.662
45 CZ 244 -12.685
45 CZ 245 -11.220
45 CZ 246 -11.220
45 CZ 247 -12.197
45 CZ 248 -14.150
45 CZ 249 -16.103
45 CZ 250 -17.080
45 CZ 251 -17.568
45 CZ 252 -17.080
45 CZ 253 -16.103
45 CZ 254 -14.150
45 CZ 255 -11.220
# C3 chan 16
45 C3 0 9.043
45 C3 1 9.532
45 C3 2 8.555
45 C3 3 7.090
45 C3 4 4.649
45 C3 5 2.207
45 C3 6 0.254
45 C3 7 -0.234
45 C3 8 0.743
45 C3 9 2.207
45 C3 10 4.649
45 C3 11 5.625
45 C3 12 5.625
45 C3 13 5.625
45 C3 14 5.137
45 C3 15 5.625
45 C3 16 6.114
45 C3 17 6.114
45 C3 18 6.114
45 C3 19 5.137
45 C3 20 3.184
45 C3 21 0.743
45 C3 22 -2.675
45 C3 23 -5.605
45 C3 24 -7.558
45 C3 25 -7.558
45 C3 26 -5.605
45 C3 27 -2.675
45 C3 28 1.231
45 C3 29 3.672
45 C3 30 5.625
45 C3 31 6.114
45 C3 32 6.602
45 C3 33 6.114
45 C3 34 5.137
45 C3 35 3.672
45 C3 36 2.207
45 C3 37 1.231
45 C3 38 0.743
45 C3 39 0.254
45 C3 40 0.254
45 C3 41 -0.722
45 C3 42 -1.699
45 C3 43 -2.675
45 C3 44 -3.652
45 C3 45 -3.652
45 C3 46 -3.164
45 C3 47 -2.187
45 C3 48 -0.722
45 C3 49 -0.234
45 C3 50 1.231
45 C3 51 1.719
45 C3 52 2.696
45 C3 53 2.207
45 C3 54 3.184
45 C3 55 3.672
45 C3 56 5.137
45 C3 57 6.114
45 C3 58 7.579
45 C3 59 8.067
45 C3 60 7.579
45 C3 61 6.602
45 C3 62 5.137
45 C3 63 4.161
45 C3 64 3.672
45 C3 65 3.672
45 C3 66 3.672
45 C3 67 4.161
45 C3 68 4.161
45 C3 69 4.161
45 C3 70 3.672
45 C3 71 4.161
45 C3 72 4.649
45 C3 73 6.114
45 C3 74 7.090
45 C3 75 8.067
45 C3 76 8.067
45 C3 77 7.090
45 C3 78 6.114
45 C3 79 5.625
45 C3 80 4.649
45 C3 81 5.137
45 C3 82 5.625
45 C3 83 6.602
45 C3 84 7.579
45 C3 85 9.043
45 C3 86 10.020
45 C3 87 10.508
45 C3 88 10.020
45 C3 89 8.555
45 C3 90 7.090
45 C3 91 6.114
45 C3 92 6.114
45 C3 93 5.625
45 C3 94 5.137
45 C3 95 4.161
45 C3 96 3.184
45 C3 97 2.207
45 C3 98 2.696
45 C3 99 3.672
45 C3 100 5.137
45 C3 101 6.114
45 C3 102 6.114
45 C3 103 6.114
45 C3 104 6.602
45 C3 105 6.602
45 C3 106 7.090
45 C3 107 7.090
45 C3 108 7.090
45 C3 109 7.090
45 C3 110 6.602
45 C3 111 6.114
45 C3 112 5.625
45 C3 113 5.137
45 C3 114 5.137
45 C3 115 5.137
45 C3 116 5.625
45 C3 117 5.625
45 C3 118 6.114
45 C3 119 5.625
45 C3 120 4.649
45 C3 121 4.161
45 C3 122 3.672
45 C3 123 3.672
45 C3 124 3.672
45 C3 125 4.161
45 C3 126 5.137
45 C3 127 5.137
45 C3 128 5.137
45 C3 129 4.649
45 C3 130 4.161
45 C3 131 3.672
45 C3 132 3.184
45 C3 133 2.696
45 C3 134 3.184
45 C3 135 4.161
45 C3 136 5.137
45 C3 137 5.625
45 C3 138 5.625
45 C3 139 4.649
45 C3 140 4.161
45 C3 141 3.672
45 C3 142 3.184
45 C3 143 3.672
45 C3 144 4.161
45 C3 145 4.161
45 C3 146 4.161
45 C3 147 3.672
45 C3 148 3.672
45 C3 149 4.161
45 C3 150 4.649
45 C3 151 5.625
45 C3 152 6.114
45 C3 153 6.602
45 C3 154 6.114
45 C3 155 5.137
45 C3 156 3.672
45 C3 157 2.207
45 C3 158 1.719
45 C3 159 1.719
45 C3 160 2.696
45 C3 161 3.672
45 C3 162 4.649
45 C3 163 5.137
45 C3 164 5.625
45 C3 165 5.625
45 C3 166 6.602
45 C3 167 7.090
45 C3 168 6.114
45 C3 169 5.625
45 C3 170 3.672
45 C3 171 2.207
45 C3 172 1.231
45 C3 173 1.719
45 C3 174 3.184
45 C3 175 4.649
45 C3 176 5.625
45 C3 177 6.114
45 C3 178 6.602
45 C3 179 7.579
45 C3 180 8.067
45 C3 181 9.043
45 C3 182 10.020
45 C3 183 10.997
45 C3 184 10.508
45 C3 185 9.532
45 C3 186 8.067
45 C3 187 6.114
45 C3 188 4.161
45 C3 189 4.161
45 C3 190 4.649
45 C3 191 5.625
45 C3 192 6.602
45 C3 193 7.090
45 C3 194 7.090
45 C3 195 7.579
45 C3 196 8.067
45 C3 197 10.020
45 C3 198 10.997
45 C3 199 10.997
45 C3 200 10.020
45 C3 201 8.067
45 C3 202 6.602
45 C3 203 5.625
45 C3 204 5.625
45 C3 205 5.625
45 C3 206 5.625
45 C3 207 5.137
45 C3 208 4.649
45 C3 209 4.161
45 C3 210 3.672
45 C3 211 4.161
45 C3 212 5.137
45 C3 213 6.602
45 C3 214 6.602
45 C3 215 6.114
45 C3 216 5.137
45 C3 217 3.672
45 C3 218 3.184
45 C3 219 2.696
45 C3 220 3.184
45 C3 221 3.184
45 C3 222 3.672
45 C3 223 4.161
45 C3 224 5.137
45 C3 225 6.114
45 C3 226 7.090
45 C3 227 7.579
45 C3 228 7.090
45 C3 229 5.625
45 C3 230 4.649
45 C3 231 4.161
45 C3 232 4.649
45 C3 233 5.137
45 C3 234 5.625
45 C3 235 5.625
45 C3 236 6.114
45 C3 237 6.114
45 C3 238 6.114
45 C3 239 7.090
45 C3 240 7.579
45 C3 241 8.067
45 C3 242 8.555
45 C3 243 8.555
45 C3 244 8.067
45 C3 245 7.090
45 C3 246 5.137
45 C3 247 3.672
45 C3 248 2.207
45 C3 249 1.719
45 C3 250 1.719
45 C3 251 2.696
45 C3 252 4.161
45 C3 253 5.625
45 C3 254 6.114
45 C3 255 6.114
# C4 chan 17
45 C4 0 -8.087
45 C4 1 -7.111
45 C4 2 -5.157
45 C4 3 -4.181
45 C4 4 -4.181
45 C4 5 -4.669
45 C4 6 -5.157
45 C4 7 -5.157
45 C4 8 -4.669
45 C4 9 -4.181
45 C4 10 -2.716
45 C4 11 -1.740
45 C4 12 -1.740
45 C4 13 -2.228
45 C4 14 -2.228
45 C4 15 -2.716
45 C4 16 -3.204
45 C4 17 -2.716
45 C4 18 -1.740
45 C4 19 -1.251
45 C4 20 -0.763
45 C4 21 -0.763
45 C4 22 -0.763
45 C4 23 -0.763
45 C4 24 -0.275
45 C4 25 -0.275
45 C4 26 -0.275
45 C4 27 -0.763
45 C4 28 -1.251
45 C4 29 -1.251
45 C4 30 -1.251
45 C4 31 -1.251
45 C4 32 -1.740
45 C4 33 -2.716
45 C4 34 -3.693
45 C4 35 -4.669
45 C4 36 -4.669
45 C4 37 -4.669
45 C4 38 -4.669
45 C4 39 -4.181
45 C4 40 -3.693
45 C4 41 -2.228
45 C4 42 -0.275
45 C4 43 0.702
45 C4 44 1.190
45 C4 45 1.190
45 C4 46 0.702
45 C4 47 0.702
45 C4 48 0.702
45 C4 49 1.190
45 C4 50 1.190
45 C4 51 0.702
45 C4 52 0.702
45 C4 53 0.702
45 C4 54 1.190
45 C4 55 1.678
45 C4 56 2.167
45 C4 57 2.167
45 C4 58 1.678
45 C4 59 0.702
45 C4 60 0.214
45 C4 61 0.702
45 C4 62 1.678
45 C4 63 2.655
45 C4 64 2.655
45 C4 65 2.167
45 C4 66 1.678
45 C4 67 0.702
45 C4 68 0.702
45 C4 69 0.214
45 C4 70 0.214
45 C4 71 0.214
45 C4 72 0.214
45 C4 73 0.214
45 C4 74 -0.275
45 C4 75 -1.251
45 C4 76 -2.228
45 C4 77 -3.204
45 C4 78 -3.693
45 C4 79 -4.181
45 C4 80 -3.693
45 C4 81 -3.204
45 C4 82 -3.204
45 C4 83 -3.693
45 C4 84 -4.181
45 C4 85 -5.157
45 C4 86 -5.157
45 C4 87 -4.669
45 C4 88 -4.181
45 C4 89 -2.716
45 C4 90 -1.251
45 C4 91 -0.275
45 C4 92 1.678
45 C4 93 2.655
45 C4 94 3.143
45 C4 95 2.655
45 C4 96 1.190
45 C4 97 -0.275
45 C4 98 -2.228
45 C4 99 -3.693
45 C4 100 -4.181
45 C4 101 -5.157
45 C4 102 -5.157
45 C4 103 -4.669
45 C4 104 -3.693
45 C4 105 -2.228
45 C4 106 -1.740
45 C4 107 -1.740
45 C4 108 -1.740
45 C4 109 -1.740
45 C4 110 -2.228
45 C4 111 -2.716
45 C4 112 -2.716
45 C4 113 -2.716
45 C4 114 -3.204
45 C4 115 -4.181
45 C4 116 -5.646
45 C4 117 -6.622
45 C4 118 -7.111
45 C4 119 -6.622
45 C4 120 -6.134
45 C4 121 -6.134
45 C4 122 -6.134
45 C4 123 -6.622
45 C4 124 -7.111
45 C4 125 -7.111
45 C4 126 -6.622
45 C4 127 -6.134
45 C4 128 -5.646
45 C4 129 -5.157
45 C4 130 -4.669
45 C4 131 -3.693
45 C4 132 -2.716
45 C4 133 -2.228
45 C4 134 -2.228
45 C4 135 -3.693
45 C4 136 -4.669
45 C4 137 -5.157
45 C4 138 -5.157
45 C4 139 -4.669
45 C4 140 -4.181
45 C4 141 -4.181
45 C4 142 -5.157
45 C4 143 -6.134
45 C4 144 -5.646
45 C4 145 -5.157
45 C4 146 -3.693
45 C4 147 -3.204
45 C4 148 -2.716
45 C4 149 -2.716
45 C4 150 -2.228
45 C4 151 -1.251
45 C4 152 -0.275
45 C4 153 0.214
45 C4 154 -0.275
45 C4 155 -1.251
45 C4 156 -2.716
45 C4 157 -3.693
45 C4 158 -4.669
45 C4 159 -4.669
45 C4 160 -4.181
45 C4 161 -3.693
45 C4 162 -3.204
45 C4 163 -2.228
45 C4 164 -1.740
45 C4 165 -1.251
45 C4 166 -1.740
45 C4 167 -2.228
45 C4 168 -2.716
45 C4 169 -2.716
45 C4 170 -2.228
45 C4 171 -1.740
45 C4 172 -1.251
45 C4 173 -1.740
45 C4 174 -2.228
45 C4 175 -3.204
45 C4 176 -3.693
45 C4 177 -4.181
45 C4 178 -4.181
45 C4 179 -3.693
45 C4 180 -3.693
45 C4 181 -3.693
45 C4 182 -3.693
45 C4 183 -4.181
45 C4 184 -3.204
45 C4 185 -3.204
45 C4 186 -2.716
45 C4 187 -2.716
45 C4 188 -3.204
45 C4 189 -3.204
45 C4 190 -3.204
45 C4 191 -3.204
45 C4 192 -3.204
45 C4 193 -3.693
45 C4 194 -4.181
45 C4 195 -4.669
45 C4 196 -5.157
45 C4 197 -5.157
45 C4 198 -5.157
45 C4 199 -5.157
45 C4 200 -5.157
45 C4 201 -5.646
45 C4 202 -6.134
45 C4 203 -6.622
45 C4 204 -6.622
45 C4 205 -6.134
45 C4 206 -5.157
45 C4 207 -4.669
45 C4 208 -4.181
45 C4 209 -3.693
45 C4 210 -2.716
45 C4 211 -1.740
45 C4 212 -0.763
45 C4 213 -0.275
45 C4 214 -1.251
45 C4 215 -2.228
45 C4 216 -3.204
45 C4 217 -4.181
45 C4 218 -3.693
45 C4 219 -3.693
45 C4 220 -3.204
45 C4 221 -2.716
45 C4 222 -2.716
45 C4 223 -2.228
45 C4 224 -2.716
45 C4 225 -3.204
45 C4 226 -4.181
45 C4 227 -5.646
45 C4 228 -6.134
45 C4 229 -6.622
45 C4 230 -6.622
45 C4 231 -6.134
45 C4 232 -5.157
45 C4 233 -4.669
45 C4 234 -3.693
45 C4 235 -2.716
45 C4 236 -1.740
45 C4 237 -1.251
45 C4 238 -1.740
45 C4 239 -2.228
45 C4 240 -3.693
45 C4 241 -4.669
45 C4 242 -6.134
45 C4 243 -7.111
45 C4 244 -8.087
45 C4 245 -7.599
45 C4 246 -7.111
45 C4 247 -5.646
45 C4 248 -5.157
45 C4 249 -5.157
45 C4 250 -5.646
45 C4 251 -6.622
45 C4 252 -7.599
45 C4 253 -7.599
45 C4 254 -7.111
45 C4 255 -6.134
# CP5 chan 18
45 CP5 0 3.082
45 CP5 1 4.547
45 CP5 2 5.524
45 CP5 3 5.524
45 CP5 4 5.035
45 CP5 5 3.082
45 CP5 6 1.617
45 CP5 7 0.641
45 CP5 8 1.617
45 CP5 9 3.571
45 CP5 10 5.524
45 CP5 11 6.012
45 CP5 12 5.524
45 CP5 13 4.547
45 CP5 14 3.571
45 CP5 15 4.059
45 CP5 16 5.035
45 CP5 17 6.500
45 CP5 18 7.477
45 CP5 19 6.500
45 CP5 20 4.547
45 CP5 21 1.129
45 CP5 22 -3.265
45 CP5 23 -8.148
45 CP5 24 -11.078
45 CP5 25 -12.054
45 CP5 26 -10.101
45 CP5 27 -6.683
45 CP5 28 -2.289
45 CP5 29 2.106
45 CP5 30 5.524
45 CP5 31 7.965
45 CP5 32 9.918
45 CP5 33 9.918
45 CP5 34 9.430
45 CP5 35 6.500
45 CP5 36 3.571
45 CP5 37 0.153
45 CP5 38 -2.289
45 CP5 39 -4.242
45 CP5 40 -5.219
45 CP5 41 -6.683
45 CP5 42 -8.636
45 CP5 43 -10.590
45 CP5 44 -11.566
45 CP5 45 -12.054
45 CP5 46 -10.590
45 CP5 47 -8.636
45 CP5 48 -6.683
45 CP5 49 -5.219
45 CP5 50 -3.265
45 CP5 51 -1.312
45 CP5 52 0.153
45 CP5 53 2.106
45 CP5 54 3.571
45 CP5 55 5.035
45 CP5 56 6.989
45 CP5 57 8.942
45 CP5 58 10.895
45 CP5 59 12.360
45 CP5 60 12.360
45 CP5 61 10.895
45 CP5 62 8.942
45 CP5 63 7.477
45 CP5 64 6.500
45 CP5 65 6.012
45 CP5 66 6.500
45 CP5 67 6.989
45 CP5 68 6.500
45 CP5 69 5.524
45 CP5 70 4.547
45 CP5 71 4.059
45 CP5 72 4.059
45 CP5 73 5.035
45 CP5 74 6.012
45 CP5 75 6.500
45 CP5 76 5.524
45 CP5 77 3.571
45 CP5 78 1.129
45 CP5 79 -0.336
45 CP5 80 -0.336
45 CP5 81 0.153
45 CP5 82 1.129
45 CP5 83 2.106
45 CP5 84 2.594
45 CP5 85 3.571
45 CP5 86 4.547
45 CP5 87 5.035
45 CP5 88 5.035
45 CP5 89 4.059
45 CP5 90 3.082
45 CP5 91 2.594
45 CP5 92 2.594
45 CP5 93 2.594
45 CP5 94 1.617
45 CP5 95 -0.824
45 CP5 96 -2.777
45 CP5 97 -4.242
45 CP5 98 -4.242
45 CP5 99 -2.777
45 CP5 100 -0.824
45 CP5 101 1.129
45 CP5 102 2.106
45 CP5 103 3.082
45 CP5 104 3.571
45 CP5 105 5.035
45 CP5 106 5.524
45 CP5 107 6.500
45 CP5 108 6.500
45 CP5 109 6.012
45 CP5 110 5.524
45 CP5 111 5.035
45 CP5 112 5.035
45 CP5 113 4.059
45 CP5 114 3.082
45 CP5 115 2.106
45 CP5 116 1.129
45 CP5 117 0.641
45 CP5 118 -0.336
45 CP5 119 -0.824
45 CP5 120 -1.801
45 CP5 121 -2.777
45 CP5 122 -2.777
45 CP5 123 -2.777
45 CP5 124 -1.801
45 CP5 125 -0.824
45 CP5 126 -0.336
45 CP5 127 0.641
45 CP5 128 0.641
45 CP5 129 0.641
45 CP5 130 0.641
45 CP5 131 0.153
45 CP5 132 -0.336
45 CP5 133 -0.824
45 CP5 134 -0.336
45 CP5 135 0.641
45 CP5 136 1.617
45 CP5 137 2.106
45 CP5 138 2.106
45 CP5 139 1.129
45 CP5 140 -0.336
45 CP5 141 -0.824
45 CP5 142 -0.824
45 CP5 143 -0.824
45 CP5 144 -0.336
45 CP5 145 -0.336
45 CP5 146 -0.336
45 CP5 147 0.153
45 CP5 148 1.129
45 CP5 149 2.106
45 CP5 150 3.082
45 CP5 151 3.571
45 CP5 152 3.571
45 CP5 153 3.082
45 CP5 154 2.594
45 CP5 155 1.129
45 CP5 156 -0.824
45 CP5 157 -3.265
45 CP5 158 -5.219
45 CP5 159 -4.730
45 CP5 160 -2.777
45 CP5 161 0.641
45 CP5 162 2.594
45 CP5 163 3.571
45 CP5 164 2.594
45 CP5 165 2.106
45 CP5 166 2.106
45 CP5 167 3.082
45 CP5 168 3.082
45 CP5 169 1.617
45 CP5 170 -1.312
45 CP5 171 -3.754
45 CP5 172 -4.730
45 CP5 173 -3.265
45 CP5 174 -1.312
45 CP5 175 0.641
45 CP5 176 1.617
45 CP5 177 2.106
45 CP5 178 2.594
45 CP5 179 4.059
45 CP5 180 6.012
45 CP5 181 7.965
45 CP5 182 8.942
45 CP5 183 9.430
45 CP5 184 9.430
45 CP5 185 7.477
45 CP5 186 6.012
45 CP5 187 3.082
45 CP5 188 1.129
45 CP5 189 -0.336
45 CP5 190 -0.336
45 CP5 191 0.641
45 CP5 192 1.129
45 CP5 193 2.106
45 CP5 194 2.594
45 CP5 195 3.571
45 CP5 196 6.012
45 CP5 197 8.942
45 CP5 198 10.406
45 CP5 199 9.918
45 CP5 200 6.989
45 CP5 201 2.594
45 CP5 202 -0.824
45 CP5 203 -1.801
45 CP5 204 -1.801
45 CP5 205 -0.336
45 CP5 206 0.641
45 CP5 207 0.641
45 CP5 208 -0.336
45 CP5 209 -1.801
45 CP5 210 -2.777
45 CP5 211 -2.777
45 CP5 212 -1.801
45 CP5 213 -0.824
45 CP5 214 -0.336
45 CP5 215 -0.824
45 CP5 216 -3.265
45 CP5 217 -5.707
45 CP5 218 -7.660
45 CP5 219 -8.148
45 CP5 220 -7.172
45 CP5 221 -5.707
45 CP5 222 -3.754
45 CP5 223 -1.801
45 CP5 224 -0.336
45 CP5 225 1.129
45 CP5 226 2.106
45 CP5 227 2.106
45 CP5 228 0.641
45 CP5 229 -1.312
45 CP5 230 -2.777
45 CP5 231 -3.265
45 CP5 232 -2.777
45 CP5 233 -1.801
45 CP5 234 -0.824
45 CP5 235 0.641
45 CP5 236 2.106
45 CP5 237 3.571
45 CP5 238 4.547
45 CP5 239 4.547
45 CP5 240 5.035
45 CP5 241 4.547
45 CP5 242 4.547
45 CP5 243 4.059
45 CP5 244 3.571
45 CP5 245 3.082
45 CP5 246 1.617
45 CP5 247 0.153
45 CP5 248 -1.312
45 CP5 249 -2.289
45 CP5 250 -2.777
45 CP5 251 -2.289
45 CP5 252 -0.824
45 CP5 253 0.641
45 CP5 254 1.617
45 CP5 255 2.106
# CP6 chan 19
45 CP6 0 -9.725
45 CP6 1 -8.260
45 CP6 2 -5.819
45 CP6 3 -4.842
45 CP6 4 -4.842
45 CP6 5 -6.307
45 CP6 6 -7.772
45 CP6 7 -8.260
45 CP6 8 -6.795
45 CP6 9 -4.842
45 CP6 10 -3.377
45 CP6 11 -3.866
45 CP6 12 -4.842
45 CP6 13 -6.795
45 CP6 14 -7.284
45 CP6 15 -6.795
45 CP6 16 -4.842
45 CP6 17 -2.889
45 CP6 18 -1.424
45 CP6 19 -0.448
45 CP6 20 -0.936
45 CP6 21 -2.401
45 CP6 22 -3.866
45 CP6 23 -5.330
45 CP6 24 -6.795
45 CP6 25 -7.284
45 CP6 26 -6.795
45 CP6 27 -6.307
45 CP6 28 -4.842
45 CP6 29 -2.401
45 CP6 30 -0.448
45 CP6 31 0.529
45 CP6 32 1.017
45 CP6 33 1.017
45 CP6 34 0.529
45 CP6 35 0.041
45 CP6 36 -0.448
45 CP6 37 -0.936
45 CP6 38 -1.424
45 CP6 39 -2.401
45 CP6 40 -2.889
45 CP6 41 -2.889
45 CP6 42 -2.889
45 CP6 43 -2.889
45 CP6 44 -3.377
45 CP6 45 -3.377
45 CP6 46 -3.377
45 CP6 47 -2.401
45 CP6 48 -1.912
45 CP6 49 -1.424
45 CP6 50 -0.936
45 CP6 51 -0.448
45 CP6 52 0.041
45 CP6 53 1.994
45 CP6 54 3.459
45 CP6 55 4.924
45 CP6 56 5.900
45 CP6 57 6.388
45 CP6 58 6.877
45 CP6 59 6.388
45 CP6 60 6.388
45 CP6 61 6.388
45 CP6 62 6.388
45 CP6 63 5.900
45 CP6 64 4.924
45 CP6 65 3.947
45 CP6 66 2.970
45 CP6 67 1.506
45 CP6 68 0.041
45 CP6 69 -0.936
45 CP6 70 -1.424
45 CP6 71 -1.424
45 CP6 72 -1.424
45 CP6 73 -1.424
45 CP6 74 -2.401
45 CP6 75 -4.354
45 CP6 76 -6.795
45 CP6 77 -8.260
45 CP6 78 -8.748
45 CP6 79 -8.748
45 CP6 80 -8.748
45 CP6 81 -8.260
45 CP6 82 -8.260
45 CP6 83 -8.260
45 CP6 84 -8.748
45 CP6 85 -9.237
45 CP6 86 -9.237
45 CP6 87 -9.237
45 CP6 88 -8.748
45 CP6 89 -6.795
45 CP6 90 -4.354
45 CP6 91 -1.912
45 CP6 92 0.529
45 CP6 93 1.017
45 CP6 94 0.529
45 CP6 95 -0.936
45 CP6 96 -2.889
45 CP6 97 -5.330
45 CP6 98 -7.772
45 CP6 99 -9.725
45 CP6 100 -10.213
45 CP6 101 -10.701
45 CP6 102 -9.725
45 CP6 103 -8.260
45 CP6 104 -5.819
45 CP6 105 -3.377
45 CP6 106 -1.912
45 CP6 107 -0.936
45 CP6 108 -1.424
45 CP6 109 -2.889
45 CP6 110 -4.842
45 CP6 111 -7.284
45 CP6 112 -7.772
45 CP6 113 -8.260
45 CP6 114 -9.237
45 CP6 115 -10.213
45 CP6 116 -11.190
45 CP6 117 -12.166
45 CP6 118 -13.143
45 CP6 119 -13.631
45 CP6 120 -13.143
45 CP6 121 -13.143
45 CP6 122 -13.631
45 CP6 123 -14.119
45 CP6 124 -14.608
45 CP6 125 -14.608
45 CP6 126 -14.119
45 CP6 127 -12.166
45 CP6 128 -10.213
45 CP6 129 -8.260
45 CP6 130 -5.819
45 CP6 131 -3.866
45 CP6 132 -2.889
45 CP6 133 -2.889
45 CP6 134 -3.866
45 CP6 135 -6.307
45 CP6 136 -7.772
45 CP6 137 -8.748
45 CP6 138 -9.237
45 CP6 139 -8.748
45 CP6 140 -8.748
45 CP6 141 -8.748
45 CP6 142 -9.237
45 CP6 143 -9.237
45 CP6 144 -9.237
45 CP6 145 -8.748
45 CP6 146 -8.260
45 CP6 147 -7.772
45 CP6 148 -7.772
45 CP6 149 -7.284
45 CP6 150 -7.284
45 CP6 151 -6.307
45 CP6 152 -5.819
45 CP6 153 -5.819
45 CP6 154 -7.284
45 CP6 155 -9.237
45 CP6 156 -10.701
45 CP6 157 -12.655
45 CP6 158 -13.631
45 CP6 159 -13.143
45 CP6 160 -11.678
45 CP6 161 -10.213
45 CP6 162 -8.260
45 CP6 163 -6.307
45 CP6 164 -5.330
45 CP6 165 -5.330
45 CP6 166 -5.819
45 CP6 167 -6.795
45 CP6 168 -7.772
45 CP6 169 -8.748
45 CP6 170 -8.748
45 CP6 171 -7.772
45 CP6 172 -6.795
45 CP6 173 -6.795
45 CP6 174 -7.284
45 CP6 175 -8.260
45 CP6 176 -8.748
45 CP6 177 -8.260
45 CP6 178 -7.772
45 CP6 179 -7.772
45 CP6 180 -8.260
45 CP6 181 -9.237
45 CP6 182 -10.213
45 CP6 183 -10.701
45 CP6 184 -11.190
45 CP6 185 -11.678
45 CP6 186 -12.166
45 CP6 187 -12.655
45 CP6 188 -12.655
45 CP6 189 -11.678
45 CP6 190 -11.190
45 CP6 191 -10.701
45 CP6 192 -10.701
45 CP6 193 -11.190
45 CP6 194 -12.166
45 CP6 195 -13.631
45 CP6 196 -14.608
45 CP6 197 -16.073
45 CP6 198 -16.561
45 CP6 199 -17.537
45 CP6 200 -18.026
45 CP6 201 -18.514
45 CP6 202 -19.002
45 CP6 203 -18.514
45 CP6 204 -18.026
45 CP6 205 -17.049
45 CP6 206 -16.073
45 CP6 207 -15.584
45 CP6 208 -15.584
45 CP6 209 -15.096
45 CP6 210 -13.631
45 CP6 211 -12.166
45 CP6 212 -10.701
45 CP6 213 -10.701
45 CP6 214 -12.166
45 CP6 215 -14.608
45 CP6 216 -17.537
45 CP6 217 -19.002
45 CP6 218 -19.491
45 CP6 219 -18.514
45 CP6 220 -17.049
45 CP6 221 -15.584
45 CP6 222 -14.608
45 CP6 223 -14.119
45 CP6 224 -13.631
45 CP6 225 -13.631
45 CP6 226 -14.119
45 CP6 227 -16.073
45 CP6 228 -17.537
45 CP6 229 -19.002
45 CP6 230 -19.979
45 CP6 231 -19.979
45 CP6 232 -19.002
45 CP6 233 -18.026
45 CP6 234 -15.584
45 CP6 235 -13.143
45 CP6 236 -10.701
45 CP6 237 -8.260
45 CP6 238 -7.284
45 CP6 239 -7.772
45 CP6 240 -9.237
45 CP6 241 -11.678
45 CP6 242 -14.608
45 CP6 243 -17.049
45 CP6 244 -18.514
45 CP6 245 -18.026
45 CP6 246 -16.073
45 CP6 247 -13.631
45 CP6 248 -12.166
45 CP6 249 -12.166
45 CP6 250 -13.143
45 CP6 251 -14.608
45 CP6 252 -15.096
45 CP6 253 -14.119
45 CP6 254 -13.143
45 CP6 255 -12.655
# CP1 chan 20
45 CP1 0 2.370
45 CP1 1 3.835
45 CP1 2 4.812
45 CP1 3 5.300
45 CP1 4 4.323
45 CP1 5 3.347
45 CP1 6 1.882
45 CP1 7 1.394
45 CP1 8 1.882
45 CP1 9 2.370
45 CP1 10 3.347
45 CP1 11 3.347
45 CP1 12 3.347
45 CP1 13 3.347
45 CP1 14 3.347
45 CP1 15 3.835
45 CP1 16 4.323
45 CP1 17 4.812
45 CP1 18 4.812
45 CP1 19 4.323
45 CP1 20 3.347
45 CP1 21 1.882
45 CP1 22 -0.559
45 CP1 23 -2.513
45 CP1 24 -4.466
45 CP1 25 -4.466
45 CP1 26 -2.513
45 CP1 27 -0.071
45 CP1 28 2.858
45 CP1 29 4.812
45 CP1 30 6.276
45 CP1 31 6.276
45 CP1 32 6.765
45 CP1 33 6.765
45 CP1 34 6.276
45 CP1 35 5.300
45 CP1 36 4.323
45 CP1 37 3.347
45 CP1 38 2.858
45 CP1 39 2.858
45 CP1 40 2.370
45 CP1 41 0.905
45 CP1 42 -1.536
45 CP1 43 -3.977
45 CP1 44 -4.954
45 CP1 45 -4.466
45 CP1 46 -3.489
45 CP1 47 -2.024
45 CP1 48 -0.559
45 CP1 49 0.417
45 CP1 50 0.905
45 CP1 51 1.882
45 CP1 52 2.858
45 CP1 53 3.835
45 CP1 54 3.835
45 CP1 55 3.835
45 CP1 56 4.323
45 CP1 57 5.788
45 CP1 58 6.765
45 CP1 59 7.253
45 CP1 60 7.253
45 CP1 61 5.788
45 CP1 62 4.812
45 CP1 63 4.323
45 CP1 64 4.323
45 CP1 65 4.323
45 CP1 66 4.812
45 CP1 67 5.300
45 CP1 68 5.300
45 CP1 69 4.812
45 CP1 70 4.812
45 CP1 71 4.323
45 CP1 72 4.323
45 CP1 73 4.812
45 CP1 74 5.788
45 CP1 75 5.788
45 CP1 76 5.300
45 CP1 77 4.812
45 CP1 78 3.835
45 CP1 79 3.835
45 CP1 80 3.835
45 CP1 81 3.835
45 CP1 82 4.323
45 CP1 83 4.812
45 CP1 84 5.300
45 CP1 85 5.788
45 CP1 86 6.276
45 CP1 87 5.788
45 CP1 88 5.300
45 CP1 89 4.812
45 CP1 90 4.323
45 CP1 91 3.835
45 CP1 92 3.835
45 CP1 93 3.347
45 CP1 94 2.858
45 CP1 95 1.882
45 CP1 96 0.905
45 CP1 97 1.394
45 CP1 98 1.882
45 CP1 99 2.858
45 CP1 100 3.347
45 CP1 101 3.835
45 CP1 102 4.323
45 CP1 103 4.323
45 CP1 104 3.835
45 CP1 105 3.835
45 CP1 106 3.835
45 CP1 107 3.835
45 CP1 108 3.835
45 CP1 109 3.835
45 CP1 110 3.835
45 CP1 111 3.347
45 CP1 112 3.347
45 CP1 113 3.347
45 CP1 114 3.835
45 CP1 115 4.323
45 CP1 116 4.323
45 CP1 117 4.812
45 CP1 118 4.812
45 CP1 119 4.812
45 CP1 120 4.812
45 CP1 121 4.323
45 CP1 122 3.835
45 CP1 123 2.858
45 CP1 124 2.858
45 CP1 125 2.858
45 CP1 126 2.858
45 CP1 127 3.347
45 CP1 128 3.347
45 CP1 129 3.347
45 CP1 130 3.347
45 CP1 131 3.347
45 CP1 132 3.835
45 CP1 133 3.835
45 CP1 134 4.323
45 CP1 135 4.812
45 CP1 136 5.300
45 CP1 137 5.788
45 CP1 138 4.812
45 CP1 139 3.835
45 CP1 140 3.347
45 CP1 141 3.347
45 CP1 142 3.347
45 CP1 143 3.347
45 CP1 144 3.835
45 CP1 145 3.347
45 CP1 146 2.858
45 CP1 147 2.858
45 CP1 148 2.370
45 CP1 149 2.370
45 CP1 150 1.882
45 CP1 151 1.394
45 CP1 152 1.394
45 CP1 153 1.394
45 CP1 154 1.882
45 CP1 155 1.394
45 CP1 156 0.905
45 CP1 157 -0.071
45 CP1 158 -0.559
45 CP1 159 -0.071
45 CP1 160 0.905
45 CP1 161 1.882
45 CP1 162 2.370
45 CP1 163 2.370
45 CP1 164 2.370
45 CP1 165 1.882
45 CP1 166 2.370
45 CP1 167 2.858
45 CP1 168 2.370
45 CP1 169 1.882
45 CP1 170 0.417
45 CP1 171 -0.071
45 CP1 172 -0.071
45 CP1 173 0.905
45 CP1 174 1.882
45 CP1 175 2.858
45 CP1 176 2.858
45 CP1 177 2.858
45 CP1 178 3.347
45 CP1 179 3.835
45 CP1 180 3.835
45 CP1 181 4.323
45 CP1 182 4.812
45 CP1 183 4.812
45 CP1 184 4.323
45 CP1 185 3.347
45 CP1 186 2.370
45 CP1 187 1.394
45 CP1 188 1.394
45 CP1 189 1.394
45 CP1 190 1.394
45 CP1 191 1.394
45 CP1 192 0.905
45 CP1 193 0.417
45 CP1 194 -0.071
45 CP1 195 0.905
45 CP1 196 1.882
45 CP1 197 3.347
45 CP1 198 4.812
45 CP1 199 4.812
45 CP1 200 4.323
45 CP1 201 3.835
45 CP1 202 2.858
45 CP1 203 2.858
45 CP1 204 2.858
45 CP1 205 3.347
45 CP1 206 3.835
45 CP1 207 3.347
45 CP1 208 2.370
45 CP1 209 0.905
45 CP1 210 -0.071
45 CP1 211 -0.559
45 CP1 212 -0.071
45 CP1 213 0.417
45 CP1 214 1.394
45 CP1 215 1.394
45 CP1 216 -0.071
45 CP1 217 -2.024
45 CP1 218 -3.977
45 CP1 219 -4.954
45 CP1 220 -5.442
45 CP1 221 -5.442
45 CP1 222 -4.954
45 CP1 223 -3.977
45 CP1 224 -2.513
45 CP1 225 -1.048
45 CP1 226 0.417
45 CP1 227 1.394
45 CP1 228 1.394
45 CP1 229 0.417
45 CP1 230 -0.559
45 CP1 231 -1.048
45 CP1 232 -2.024
45 CP1 233 -3.001
45 CP1 234 -3.001
45 CP1 235 -3.001
45 CP1 236 -2.024
45 CP1 237 -1.048
45 CP1 238 -0.071
45 CP1 239 0.905
45 CP1 240 1.882
45 CP1 241 2.858
45 CP1 242 3.835
45 CP1 243 4.323
45 CP1 244 4.812
45 CP1 245 4.323
45 CP1 246 3.347
45 CP1 247 2.858
45 CP1 248 1.882
45 CP1 249 1.394
45 CP1 250 1.882
45 CP1 251 1.882
45 CP1 252 1.882
45 CP1 253 1.882
45 CP1 254 0.905
45 CP1 255 0.417
# CP2 chan 21
45 CP2 0 -4.496
45 CP2 1 -3.520
45 CP2 2 -2.055
45 CP2 3 -1.078
45 CP2 4 -1.078
45 CP2 5 -2.055
45 CP2 6 -2.543
45 CP2 7 -2.543
45 CP2 8 -2.055
45 CP2 9 -1.078
45 CP2 10 -0.102
45 CP2 11 -0.102
45 CP2 12 -0.590
45 CP2 13 -1.078
45 CP2 14 -1.078
45 CP2 15 -0.590
45 CP2 16 -0.102
45 CP2 17 0.875
45 CP2 18 1.363
45 CP2 19 1.851
45 CP2 20 1.851
45 CP2 21 1.363
45 CP2 22 0.387
45 CP2 23 -0.590
45 CP2 24 -1.567
45 CP2 25 -2.055
45 CP2 26 -1.567
45 CP2 27 -0.590
45 CP2 28 0.875
45 CP2 29 1.363
45 CP2 30 2.340
45 CP2 31 2.340
45 CP2 32 2.340
45 CP2 33 2.340
45 CP2 34 1.851
45 CP2 35 1.363
45 CP2 36 1.363
45 CP2 37 0.875
45 CP2 38 0.875
45 CP2 39 0.875
45 CP2 40 0.875
45 CP2 41 0.387
45 CP2 42 -0.102
45 CP2 43 -1.078
45 CP2 44 -2.055
45 CP2 45 -2.055
45 CP2 46 -1.567
45 CP2 47 -1.078
45 CP2 48 -0.102
45 CP2 49 0.387
45 CP2 50 0.875
45 CP2 51 0.875
45 CP2 52 1.363
45 CP2 53 1.851
45 CP2 54 2.828
45 CP2 55 3.805
45 CP2 56 4.293
45 CP2 57 4.781
45 CP2 58 4.781
45 CP2 59 5.269
45 CP2 60 5.758
45 CP2 61 5.758
45 CP2 62 5.269
45 CP2 63 4.781
45 CP2 64 4.293
45 CP2 65 3.805
45 CP2 66 3.805
45 CP2 67 3.805
45 CP2 68 3.316
45 CP2 69 2.828
45 CP2 70 2.828
45 CP2 71 2.340
45 CP2 72 2.340
45 CP2 73 1.851
45 CP2 74 1.363
45 CP2 75 0.387
45 CP2 76 -0.590
45 CP2 77 -1.078
45 CP2 78 -1.078
45 CP2 79 -0.590
45 CP2 80 -0.102
45 CP2 81 -0.102
45 CP2 82 -0.590
45 CP2 83 -1.078
45 CP2 84 -1.567
45 CP2 85 -2.055
45 CP2 86 -2.543
45 CP2 87 -2.543
45 CP2 88 -2.543
45 CP2 89 -1.567
45 CP2 90 -0.102
45 CP2 91 0.875
45 CP2 92 1.851
45 CP2 93 2.340
45 CP2 94 1.851
45 CP2 95 1.851
45 CP2 96 0.875
45 CP2 97 0.387
45 CP2 98 -0.102
45 CP2 99 -1.078
45 CP2 100 -1.567
45 CP2 101 -2.055
45 CP2 102 -2.055
45 CP2 103 -1.567
45 CP2 104 -0.590
45 CP2 105 -0.102
45 CP2 106 0.875
45 CP2 107 0.875
45 CP2 108 0.875
45 CP2 109 0.387
45 CP2 110 -0.102
45 CP2 111 -0.590
45 CP2 112 -0.590
45 CP2 113 -0.590
45 CP2 114 -0.102
45 CP2 115 -0.102
45 CP2 116 -0.590
45 CP2 117 -0.590
45 CP2 118 -1.078
45 CP2 119 -0.590
45 CP2 120 -0.590
45 CP2 121 -1.078
45 CP2 122 -1.567
45 CP2 123 -2.543
45 CP2 124 -3.520
45 CP2 125 -3.520
45 CP2 126 -4.008
45 CP2 127 -3.520
45 CP2 128 -3.031
45 CP2 129 -2.543
45 CP2 130 -1.567
45 CP2 131 -0.102
45 CP2 132 0.875
45 CP2 133 0.875
45 CP2 134 0.875
45 CP2 135 0.387
45 CP2 136 -0.102
45 CP2 137 -0.102
45 CP2 138 -0.102
45 CP2 139 -0.102
45 CP2 140 -0.590
45 CP2 141 -0.590
45 CP2 142 -0.590
45 CP2 143 -0.590
45 CP2 144 -0.590
45 CP2 145 -0.102
45 CP2 146 -0.102
45 CP2 147 -0.102
45 CP2 148 -0.590
45 CP2 149 -0.590
45 CP2 150 -1.078
45 CP2 151 -1.078
45 CP2 152 -0.590
45 CP2 153 -0.590
45 CP2 154 -0.590
45 CP2 155 -1.078
45 CP2 156 -1.078
45 CP2 157 -2.055
45 CP2 158 -2.543
45 CP2 159 -2.543
45 CP2 160 -2.543
45 CP2 161 -1.567
45 CP2 162 -0.590
45 CP2 163 -0.102
45 CP2 164 -0.590
45 CP2 165 -1.078
45 CP2 166 -1.567
45 CP2 167 -2.055
45 CP2 168 -2.543
45 CP2 169 -2.543
45 CP2 170 -2.543
45 CP2 171 -2.055
45 CP2 172 -1.078
45 CP2 173 -0.590
45 CP2 174 -0.590
45 CP2 175 -1.078
45 CP2 176 -1.078
45 CP2 177 -1.567
45 CP2 178 -1.078
45 CP2 179 -1.567
45 CP2 180 -1.567
45 CP2 181 -2.055
45 CP2 182 -3.031
45 CP2 183 -3.520
45 CP2 184 -3.520
45 CP2 185 -3.031
45 CP2 186 -2.055
45 CP2 187 -1.078
45 CP2 188 -0.590
45 CP2 189 -0.102
45 CP2 190 -0.102
45 CP2 191 -0.590
45 CP2 192 -1.567
45 CP2 193 -3.031
45 CP2 194 -4.008
45 CP2 195 -4.985
45 CP2 196 -4.985
45 CP2 197 -4.985
45 CP2 198 -4.985
45 CP2 199 -4.985
45 CP2 200 -4.496
45 CP2 201 -4.008
45 CP2 202 -4.008
45 CP2 203 -3.520
45 CP2 204 -3.520
45 CP2 205 -3.520
45 CP2 206 -3.520
45 CP2 207 -3.520
45 CP2 208 -3.520
45 CP2 209 -4.008
45 CP2 210 -4.496
45 CP2 211 -4.008
45 CP2 212 -3.031
45 CP2 213 -3.031
45 CP2 214 -3.031
45 CP2 215 -3.520
45 CP2 216 -4.985
45 CP2 217 -6.449
45 CP2 218 -7.426
45 CP2 219 -7.914
45 CP2 220 -7.426
45 CP2 221 -6.449
45 CP2 222 -5.961
45 CP2 223 -4.985
45 CP2 224 -4.985
45 CP2 225 -5.473
45 CP2 226 -5.473
45 CP2 227 -5.961
45 CP2 228 -5.961
45 CP2 229 -5.961
45 CP2 230 -6.449
45 CP2 231 -6.938
45 CP2 232 -7.426
45 CP2 233 -6.938
45 CP2 234 -6.449
45 CP2 235 -4.985
45 CP2 236 -3.520
45 CP2 237 -2.543
45 CP2 238 -1.567
45 CP2 239 -2.055
45 CP2 240 -2.543
45 CP2 241 -3.520
45 CP2 242 -4.496
45 CP2 243 -4.985
45 CP2 244 -5.473
45 CP2 245 -4.985
45 CP2 246 -3.520
45 CP2 247 -2.055
45 CP2 248 -0.590
45 CP2 249 -0.590
45 CP2 250 -1.078
45 CP2 251 -1.567
45 CP2 252 -2.543
45 CP2 253 -3.031
45 CP2 254 -4.008
45 CP2 255 -4.496
# P3 chan 22
45 P3 0 -1.149
45 P3 1 1.780
45 P3 2 3.733
45 P3 3 5.198
45 P3 4 4.710
45 P3 5 3.245
45 P3 6 1.780
45 P3 7 0.804
45 P3 8 1.780
45 P3 9 3.245
45 P3 10 3.733
45 P3 11 4.222
45 P3 12 3.245
45 P3 13 2.268
45 P3 14 1.780
45 P3 15 2.268
45 P3 16 3.733
45 P3 17 5.686
45 P3 18 6.663
45 P3 19 7.151
45 P3 20 5.686
45 P3 21 3.245
45 P3 22 -0.661
45 P3 23 -4.079
45 P3 24 -6.032
45 P3 25 -6.032
45 P3 26 -3.591
45 P3 27 0.315
45 P3 28 4.710
45 P3 29 7.640
45 P3 30 9.593
45 P3 31 11.546
45 P3 32 13.499
45 P3 33 14.476
45 P3 34 14.476
45 P3 35 12.522
45 P3 36 9.104
45 P3 37 5.686
45 P3 38 3.245
45 P3 39 1.780
45 P3 40 -0.173
45 P3 41 -3.103
45 P3 42 -6.521
45 P3 43 -9.939
45 P3 44 -11.403
45 P3 45 -10.427
45 P3 46 -8.474
45 P3 47 -6.032
45 P3 48 -3.591
45 P3 49 -1.149
45 P3 50 1.292
45 P3 51 3.733
45 P3 52 5.198
45 P3 53 6.175
45 P3 54 6.175
45 P3 55 6.663
45 P3 56 8.616
45 P3 57 11.546
45 P3 58 13.499
45 P3 59 14.476
45 P3 60 13.987
45 P3 61 12.522
45 P3 62 10.569
45 P3 63 9.593
45 P3 64 9.104
45 P3 65 9.104
45 P3 66 9.593
45 P3 67 10.569
45 P3 68 11.058
45 P3 69 10.569
45 P3 70 9.104
45 P3 71 7.640
45 P3 72 6.663
45 P3 73 7.151
45 P3 74 8.128
45 P3 75 8.616
45 P3 76 7.151
45 P3 77 4.710
45 P3 78 2.268
45 P3 79 1.292
45 P3 80 1.780
45 P3 81 1.780
45 P3 82 2.268
45 P3 83 2.268
45 P3 84 1.780
45 P3 85 2.757
45 P3 86 3.245
45 P3 87 3.245
45 P3 88 2.757
45 P3 89 1.780
45 P3 90 1.780
45 P3 91 2.268
45 P3 92 2.757
45 P3 93 2.757
45 P3 94 0.804
45 P3 95 -1.149
45 P3 96 -3.103
45 P3 97 -3.591
45 P3 98 -3.103
45 P3 99 -2.126
45 P3 100 -0.661
45 P3 101 -0.173
45 P3 102 0.315
45 P3 103 1.292
45 P3 104 1.780
45 P3 105 2.757
45 P3 106 3.245
45 P3 107 3.245
45 P3 108 3.245
45 P3 109 2.757
45 P3 110 2.268
45 P3 111 1.780
45 P3 112 1.292
45 P3 113 1.292
45 P3 114 1.292
45 P3 115 1.292
45 P3 116 0.804
45 P3 117 0.315
45 P3 118 -0.173
45 P3 119 -0.173
45 P3 120 -0.661
45 P3 121 -0.661
45 P3 122 -1.149
45 P3 123 -1.638
45 P3 124 -1.638
45 P3 125 -1.149
45 P3 126 -0.661
45 P3 127 -0.173
45 P3 128 0.804
45 P3 129 1.292
45 P3 130 1.780
45 P3 131 2.757
45 P3 132 3.245
45 P3 133 3.245
45 P3 134 3.733
45 P3 135 3.733
45 P3 136 4.222
45 P3 137 4.222
45 P3 138 3.245
45 P3 139 2.268
45 P3 140 0.804
45 P3 141 -0.173
45 P3 142 -0.661
45 P3 143 -1.149
45 P3 144 -1.638
45 P3 145 -2.126
45 P3 146 -1.638
45 P3 147 -0.661
45 P3 148 0.804
45 P3 149 1.292
45 P3 150 0.804
45 P3 151 -0.661
45 P3 152 -1.638
45 P3 153 -1.638
45 P3 154 -1.149
45 P3 155 -0.661
45 P3 156 -2.126
45 P3 157 -4.079
45 P3 158 -6.032
45 P3 159 -6.032
45 P3 160 -3.591
45 P3 161 -0.173
45 P3 162 1.292
45 P3 163 1.292
45 P3 164 0.804
45 P3 165 -0.173
45 P3 166 0.315
45 P3 167 1.292
45 P3 168 0.804
45 P3 169 -0.661
45 P3 170 -3.103
45 P3 171 -4.567
45 P3 172 -4.079
45 P3 173 -2.126
45 P3 174 -0.173
45 P3 175 0.804
45 P3 176 0.804
45 P3 177 0.804
45 P3 178 1.780
45 P3 179 3.733
45 P3 180 5.198
45 P3 181 6.175
45 P3 182 6.175
45 P3 183 5.686
45 P3 184 4.710
45 P3 185 3.733
45 P3 186 2.757
45 P3 187 1.780
45 P3 188 1.292
45 P3 189 0.804
45 P3 190 0.315
45 P3 191 -0.661
45 P3 192 -1.638
45 P3 193 -2.614
45 P3 194 -1.638
45 P3 195 0.804
45 P3 196 4.710
45 P3 197 7.640
45 P3 198 9.104
45 P3 199 8.128
45 P3 200 5.198
45 P3 201 2.268
45 P3 202 -0.661
45 P3 203 -1.638
45 P3 204 -1.149
45 P3 205 0.315
45 P3 206 1.780
45 P3 207 2.268
45 P3 208 1.292
45 P3 209 -0.173
45 P3 210 -2.126
45 P3 211 -3.103
45 P3 212 -2.614
45 P3 213 -1.638
45 P3 214 -1.149
45 P3 215 -2.614
45 P3 216 -5.544
45 P3 217 -9.450
45 P3 218 -12.380
45 P3 219 -13.845
45 P3 220 -12.868
45 P3 221 -10.915
45 P3 222 -8.962
45 P3 223 -7.009
45 P3 224 -5.056
45 P3 225 -2.614
45 P3 226 -1.149
45 P3 227 -1.149
45 P3 228 -2.614
45 P3 229 -4.567
45 P3 230 -6.032
45 P3 231 -7.009
45 P3 232 -7.985
45 P3 233 -7.985
45 P3 234 -8.474
45 P3 235 -8.474
45 P3 236 -7.497
45 P3 237 -6.032
45 P3 238 -4.079
45 P3 239 -2.614
45 P3 240 -1.638
45 P3 241 -0.661
45 P3 242 -0.173
45 P3 243 1.292
45 P3 244 1.292
45 P3 245 1.292
45 P3 246 0.804
45 P3 247 0.315
45 P3 248 -0.661
45 P3 249 -1.149
45 P3 250 -1.638
45 P3 251 -2.126
45 P3 252 -3.103
45 P3 253 -3.591
45 P3 254 -4.079
45 P3 255 -5.056
# P4 chan 23
45 P4 0 -6.612
45 P4 1 -4.659
45 P4 2 -3.194
45 P4 3 -2.218
45 P4 4 -2.706
45 P4 5 -4.171
45 P4 6 -5.147
45 P4 7 -5.147
45 P4 8 -4.171
45 P4 9 -2.218
45 P4 10 -1.729
45 P4 11 -2.218
45 P4 12 -3.682
45 P4 13 -4.659
45 P4 14 -5.147
45 P4 15 -3.682
45 P4 16 -1.729
45 P4 17 -0.264
45 P4 18 1.200
45 P4 19 1.689
45 P4 20 1.200
45 P4 21 0.224
45 P4 22 -1.729
45 P4 23 -3.682
45 P4 24 -5.147
45 P4 25 -5.636
45 P4 26 -5.147
45 P4 27 -2.706
45 P4 28 -0.264
45 P4 29 1.689
45 P4 30 3.642
45 P4 31 5.107
45 P4 32 5.595
45 P4 33 6.083
45 P4 34 5.595
45 P4 35 4.618
45 P4 36 3.642
45 P4 37 2.177
45 P4 38 1.689
45 P4 39 1.200
45 P4 40 0.224
45 P4 41 -1.241
45 P4 42 -3.194
45 P4 43 -5.636
45 P4 44 -6.612
45 P4 45 -6.124
45 P4 46 -4.659
45 P4 47 -2.706
45 P4 48 -1.241
45 P4 49 -0.753
45 P4 50 -0.264
45 P4 51 0.224
45 P4 52 1.689
45 P4 53 4.130
45 P4 54 6.083
45 P4 55 7.060
45 P4 56 8.525
45 P4 57 9.501
45 P4 58 10.478
45 P4 59 11.454
45 P4 60 11.454
45 P4 61 10.966
45 P4 62 9.501
45 P4 63 8.036
45 P4 64 7.060
45 P4 65 6.571
45 P4 66 6.571
45 P4 67 6.571
45 P4 68 6.083
45 P4 69 4.618
45 P4 70 3.153
45 P4 71 1.689
45 P4 72 1.200
45 P4 73 1.200
45 P4 74 0.712
45 P4 75 -0.264
45 P4 76 -1.729
45 P4 77 -2.706
45 P4 78 -3.194
45 P4 79 -2.706
45 P4 80 -2.218
45 P4 81 -2.706
45 P4 82 -3.194
45 P4 83 -4.171
45 P4 84 -5.636
45 P4 85 -6.124
45 P4 86 -7.100
45 P4 87 -7.100
45 P4 88 -6.612
45 P4 89 -5.147
45 P4 90 -2.706
45 P4 91 -0.753
45 P4 92 0.712
45 P4 93 1.689
45 P4 94 1.200
45 P4 95 0.712
45 P4 96 -0.264
45 P4 97 -1.729
45 P4 98 -3.194
45 P4 99 -4.659
45 P4 100 -5.147
45 P4 101 -5.147
45 P4 102 -4.171
45 P4 103 -3.194
45 P4 104 -1.241
45 P4 105 0.712
45 P4 106 2.177
45 P4 107 3.153
45 P4 108 2.665
45 P4 109 1.200
45 P4 110 -0.753
45 P4 111 -2.706
45 P4 112 -3.682
45 P4 113 -3.682
45 P4 114 -2.706
45 P4 115 -2.706
45 P4 116 -3.194
45 P4 117 -3.682
45 P4 118 -4.171
45 P4 119 -4.171
45 P4 120 -4.171
45 P4 121 -4.659
45 P4 122 -6.124
45 P4 123 -7.589
45 P4 124 -9.054
45 P4 125 -9.542
45 P4 126 -9.542
45 P4 127 -8.565
45 P4 128 -7.589
45 P4 129 -5.636
45 P4 130 -3.194
45 P4 131 -0.264
45 P4 132 1.689
45 P4 133 2.177
45 P4 134 1.689
45 P4 135 0.224
45 P4 136 -0.753
45 P4 137 -1.729
45 P4 138 -2.706
45 P4 139 -3.194
45 P4 140 -3.682
45 P4 141 -4.171
45 P4 142 -3.682
45 P4 143 -3.194
45 P4 144 -2.706
45 P4 145 -2.218
45 P4 146 -2.706
45 P4 147 -3.194
45 P4 148 -3.682
45 P4 149 -3.194
45 P4 150 -3.194
45 P4 151 -3.194
45 P4 152 -3.194
45 P4 153 -3.682
45 P4 154 -4.171
45 P4 155 -5.147
45 P4 156 -6.124
45 P4 157 -7.589
45 P4 158 -8.077
45 P4 159 -7.100
45 P4 160 -5.636
45 P4 161 -2.706
45 P4 162 -1.241
45 P4 163 -0.264
45 P4 164 -0.753
45 P4 165 -1.729
45 P4 166 -3.194
45 P4 167 -4.659
45 P4 168 -6.124
45 P4 169 -6.612
45 P4 170 -6.612
45 P4 171 -4.659
45 P4 172 -3.194
45 P4 173 -2.218
45 P4 174 -2.218
45 P4 175 -2.706
45 P4 176 -3.682
45 P4 177 -3.682
45 P4 178 -3.194
45 P4 179 -3.194
45 P4 180 -4.659
45 P4 181 -6.612
45 P4 182 -8.565
45 P4 183 -9.542
45 P4 184 -9.542
45 P4 185 -8.565
45 P4 186 -6.612
45 P4 187 -4.659
45 P4 188 -2.706
45 P4 189 -1.729
45 P4 190 -0.753
45 P4 191 -1.729
45 P4 192 -3.194
45 P4 193 -5.147
45 P4 194 -7.100
45 P4 195 -8.565
45 P4 196 -10.030
45 P4 197 -11.495
45 P4 198 -11.983
45 P4 199 -12.960
45 P4 200 -12.960
45 P4 201 -12.960
45 P4 202 -12.960
45 P4 203 -12.472
45 P4 204 -11.983
45 P4 205 -11.495
45 P4 206 -11.495
45 P4 207 -11.983
45 P4 208 -12.472
45 P4 209 -12.472
45 P4 210 -11.983
45 P4 211 -10.518
45 P4 212 -9.542
45 P4 213 -8.565
45 P4 214 -10.030
45 P4 215 -12.472
45 P4 216 -15.401
45 P4 217 -17.354
45 P4 218 -18.331
45 P4 219 -18.331
45 P4 220 -16.866
45 P4 221 -15.401
45 P4 222 -12.960
45 P4 223 -11.495
45 P4 224 -10.030
45 P4 225 -10.518
45 P4 226 -11.495
45 P4 227 -12.960
45 P4 228 -14.425
45 P4 229 -16.378
45 P4 230 -17.354
45 P4 231 -18.331
45 P4 232 -19.307
45 P4 233 -19.307
45 P4 234 -17.354
45 P4 235 -13.936
45 P4 236 -10.030
45 P4 237 -7.589
45 P4 238 -5.636
45 P4 239 -5.636
45 P4 240 -7.589
45 P4 241 -10.030
45 P4 242 -12.472
45 P4 243 -14.425
45 P4 244 -15.401
45 P4 245 -14.425
45 P4 246 -11.983
45 P4 247 -9.054
45 P4 248 -6.124
45 P4 249 -5.636
45 P4 250 -5.636
45 P4 251 -6.124
45 P4 252 -7.100
45 P4 253 -7.589
45 P4 254 -8.565
45 P4 255 -9.542
# PZ chan 24
45 PZ 0 -4.740
45 PZ 1 -3.764
45 PZ 2 -1.322
45 PZ 3 0.631
45 PZ 4 1.607
45 PZ 5 1.607
45 PZ 6 1.607
45 PZ 7 2.096
45 PZ 8 3.560
45 PZ 9 5.025
45 PZ 10 5.514
45 PZ 11 5.025
45 PZ 12 3.560
45 PZ 13 1.607
45 PZ 14 1.119
45 PZ 15 2.096
45 PZ 16 4.049
45 PZ 17 5.025
45 PZ 18 5.514
45 PZ 19 5.514
45 PZ 20 4.537
45 PZ 21 2.584
45 PZ 22 0.631
45 PZ 23 -2.299
45 PZ 24 -4.252
45 PZ 25 -4.740
45 PZ 26 -2.787
45 PZ 27 0.631
45 PZ 28 4.049
45 PZ 29 6.978
45 PZ 30 9.420
45 PZ 31 10.396
45 PZ 32 11.373
45 PZ 33 11.373
45 PZ 34 11.373
45 PZ 35 10.396
45 PZ 36 8.443
45 PZ 37 6.978
45 PZ 38 6.002
45 PZ 39 5.514
45 PZ 40 4.537
45 PZ 41 2.096
45 PZ 42 -1.322
45 PZ 43 -4.252
45 PZ 44 -6.694
45 PZ 45 -6.205
45 PZ 46 -4.740
45 PZ 47 -2.299
45 PZ 48 -0.834
45 PZ 49 -0.346
45 PZ 50 0.142
45 PZ 51 0.142
45 PZ 52 1.119
45 PZ 53 2.096
45 PZ 54 2.584
45 PZ 55 3.072
45 PZ 56 3.560
45 PZ 57 5.025
45 PZ 58 6.490
45 PZ 59 7.955
45 PZ 60 9.420
45 PZ 61 8.931
45 PZ 62 7.955
45 PZ 63 6.490
45 PZ 64 6.002
45 PZ 65 6.002
45 PZ 66 6.490
45 PZ 67 7.467
45 PZ 68 7.955
45 PZ 69 6.490
45 PZ 70 5.514
45 PZ 71 3.560
45 PZ 72 3.072
45 PZ 73 3.560
45 PZ 74 4.049
45 PZ 75 4.049
45 PZ 76 3.560
45 PZ 77 2.584
45 PZ 78 2.096
45 PZ 79 2.584
45 PZ 80 2.584
45 PZ 81 2.584
45 PZ 82 2.096
45 PZ 83 0.631
45 PZ 84 -0.346
45 PZ 85 -0.834
45 PZ 86 -0.834
45 PZ 87 -0.346
45 PZ 88 -0.834
45 PZ 89 -0.834
45 PZ 90 -0.834
45 PZ 91 -0.346
45 PZ 92 0.631
45 PZ 93 2.096
45 PZ 94 2.584
45 PZ 95 2.096
45 PZ 96 1.607
45 PZ 97 1.607
45 PZ 98 1.607
45 PZ 99 1.607
45 PZ 100 2.096
45 PZ 101 2.096
45 PZ 102 2.584
45 PZ 103 2.584
45 PZ 104 3.560
45 PZ 105 4.049
45 PZ 106 4.049
45 PZ 107 3.560
45 PZ 108 2.584
45 PZ 109 1.607
45 PZ 110 0.631
45 PZ 111 0.142
45 PZ 112 0.631
45 PZ 113 1.119
45 PZ 114 2.584
45 PZ 115 4.049
45 PZ 116 5.025
45 PZ 117 5.514
45 PZ 118 6.002
45 PZ 119 6.002
45 PZ 120 6.490
45 PZ 121 6.002
45 PZ 122 5.025
45 PZ 123 3.560
45 PZ 124 2.096
45 PZ 125 0.631
45 PZ 126 0.631
45 PZ 127 0.631
45 PZ 128 1.607
45 PZ 129 2.584
45 PZ 130 4.049
45 PZ 131 6.002
45 PZ 132 7.467
45 PZ 133 8.443
45 PZ 134 9.420
45 PZ 135 8.931
45 PZ 136 8.443
45 PZ 137 8.443
45 PZ 138 7.467
45 PZ 139 6.978
45 PZ 140 6.490
45 PZ 141 6.978
45 PZ 142 6.978
45 PZ 143 7.467
45 PZ 144 7.467
45 PZ 145 6.978
45 PZ 146 5.514
45 PZ 147 4.537
45 PZ 148 3.072
45 PZ 149 2.584
45 PZ 150 1.607
45 PZ 151 1.607
45 PZ 152 1.119
45 PZ 153 1.119
45 PZ 154 1.607
45 PZ 155 2.096
45 PZ 156 2.584
45 PZ 157 2.096
45 PZ 158 1.607
45 PZ 159 1.607
45 PZ 160 2.584
45 PZ 161 4.049
45 PZ 162 5.025
45 PZ 163 5.025
45 PZ 164 4.049
45 PZ 165 3.072
45 PZ 166 2.096
45 PZ 167 1.607
45 PZ 168 1.607
45 PZ 169 0.631
45 PZ 170 0.631
45 PZ 171 1.119
45 PZ 172 2.584
45 PZ 173 4.049
45 PZ 174 5.514
45 PZ 175 6.002
45 PZ 176 5.514
45 PZ 177 5.025
45 PZ 178 4.537
45 PZ 179 4.049
45 PZ 180 4.537
45 PZ 181 4.049
45 PZ 182 3.072
45 PZ 183 2.584
45 PZ 184 1.607
45 PZ 185 1.119
45 PZ 186 2.096
45 PZ 187 3.072
45 PZ 188 4.537
45 PZ 189 5.025
45 PZ 190 4.537
45 PZ 191 3.560
45 PZ 192 1.607
45 PZ 193 0.631
45 PZ 194 0.142
45 PZ 195 0.631
45 PZ 196 1.607
45 PZ 197 2.584
45 PZ 198 3.560
45 PZ 199 3.560
45 PZ 200 3.560
45 PZ 201 3.072
45 PZ 202 2.584
45 PZ 203 2.096
45 PZ 204 2.096
45 PZ 205 2.584
45 PZ 206 3.072
45 PZ 207 3.560
45 PZ 208 2.584
45 PZ 209 1.119
45 PZ 210 -0.346
45 PZ 211 -0.834
45 PZ 212 -0.346
45 PZ 213 0.631
45 PZ 214 1.119
45 PZ 215 0.142
45 PZ 216 -2.299
45 PZ 217 -5.229
45 PZ 218 -7.670
45 PZ 219 -9.135
45 PZ 220 -9.135
45 PZ 221 -8.647
45 PZ 222 -7.670
45 PZ 223 -7.182
45 PZ 224 -6.205
45 PZ 225 -5.717
45 PZ 226 -4.740
45 PZ 227 -3.764
45 PZ 228 -3.276
45 PZ 229 -3.764
45 PZ 230 -4.740
45 PZ 231 -5.717
45 PZ 232 -7.182
45 PZ 233 -7.670
45 PZ 234 -7.670
45 PZ 235 -6.694
45 PZ 236 -5.717
45 PZ 237 -4.252
45 PZ 238 -3.764
45 PZ 239 -3.764
45 PZ 240 -3.764
45 PZ 241 -3.764
45 PZ 242 -2.299
45 PZ 243 -1.322
45 PZ 244 0.142
45 PZ 245 1.607
45 PZ 246 3.072
45 PZ 247 4.537
45 PZ 248 5.514
45 PZ 249 5.514
45 PZ 250 5.025
45 PZ 251 3.560
45 PZ 252 1.607
45 PZ 253 -0.346
45 PZ 254 -2.299
45 PZ 255 -3.764
# P8 chan 25
45 P8 0 -6.409
45 P8 1 -6.897
45 P8 2 -5.920
45 P8 3 -5.432
45 P8 4 -6.409
45 P8 5 -8.362
45 P8 6 -10.315
45 P8 7 -10.315
45 P8 8 -8.362
45 P8 9 -4.944
45 P8 10 -2.991
45 P8 11 -3.479
45 P8 12 -5.920
45 P8 13 -8.850
45 P8 14 -10.315
45 P8 15 -9.338
45 P8 16 -6.409
45 P8 17 -2.991
45 P8 18 -0.549
45 P8 19 0.427
45 P8 20 -0.549
45 P8 21 -2.991
45 P8 22 -5.432
45 P8 23 -7.874
45 P8 24 -9.338
45 P8 25 -9.338
45 P8 26 -7.874
45 P8 27 -5.920
45 P8 28 -2.991
45 P8 29 0.427
45 P8 30 3.845
45 P8 31 6.287
45 P8 32 8.240
45 P8 33 8.728
45 P8 34 8.240
45 P8 35 7.263
45 P8 36 6.287
45 P8 37 5.310
45 P8 38 3.357
45 P8 39 0.916
45 P8 40 -1.526
45 P8 41 -4.456
45 P8 42 -6.897
45 P8 43 -8.850
45 P8 44 -9.338
45 P8 45 -9.338
45 P8 46 -7.874
45 P8 47 -5.920
45 P8 48 -3.967
45 P8 49 -2.014
45 P8 50 -0.549
45 P8 51 0.916
45 P8 52 2.380
45 P8 53 4.822
45 P8 54 7.263
45 P8 55 9.216
45 P8 56 11.169
45 P8 57 12.634
45 P8 58 13.611
45 P8 59 14.587
45 P8 60 15.076
45 P8 61 14.099
45 P8 62 12.634
45 P8 63 10.681
45 P8 64 8.728
45 P8 65 6.775
45 P8 66 5.310
45 P8 67 3.845
45 P8 68 1.892
45 P8 69 -1.038
45 P8 70 -3.479
45 P8 71 -4.456
45 P8 72 -4.456
45 P8 73 -3.967
45 P8 74 -4.456
45 P8 75 -6.409
45 P8 76 -9.338
45 P8 77 -11.780
45 P8 78 -13.245
45 P8 79 -13.245
45 P8 80 -12.756
45 P8 81 -12.756
45 P8 82 -13.245
45 P8 83 -14.221
45 P8 84 -15.198
45 P8 85 -15.686
45 P8 86 -15.198
45 P8 87 -14.221
45 P8 88 -12.268
45 P8 89 -8.850
45 P8 90 -5.432
45 P8 91 -2.502
45 P8 92 -0.549
45 P8 93 -0.061
45 P8 94 -1.038
45 P8 95 -3.479
45 P8 96 -6.409
45 P8 97 -9.338
45 P8 98 -11.780
45 P8 99 -13.733
45 P8 100 -14.221
45 P8 101 -13.245
45 P8 102 -10.803
45 P8 103 -7.874
45 P8 104 -4.944
45 P8 105 -2.014
45 P8 106 0.916
45 P8 107 3.357
45 P8 108 3.845
45 P8 109 1.892
45 P8 110 -2.502
45 P8 111 -6.897
45 P8 112 -10.315
45 P8 113 -11.292
45 P8 114 -11.292
45 P8 115 -12.268
45 P8 116 -13.733
45 P8 117 -16.174
45 P8 118 -18.127
45 P8 119 -18.616
45 P8 120 -18.616
45 P8 121 -18.127
45 P8 122 -19.104
45 P8 123 -20.569
45 P8 124 -21.545
45 P8 125 -21.057
45 P8 126 -18.127
45 P8 127 -14.709
45 P8 128 -11.292
45 P8 129 -8.362
45 P8 130 -5.432
45 P8 131 -2.991
45 P8 132 -1.526
45 P8 133 -1.526
45 P8 134 -3.967
45 P8 135 -7.385
45 P8 136 -10.315
45 P8 137 -12.268
45 P8 138 -13.245
45 P8 139 -13.733
45 P8 140 -15.198
45 P8 141 -17.151
45 P8 142 -18.127
45 P8 143 -18.127
45 P8 144 -17.151
45 P8 145 -15.198
45 P8 146 -14.709
45 P8 147 -14.221
45 P8 148 -13.733
45 P8 149 -12.756
45 P8 150 -11.292
45 P8 151 -10.315
45 P8 152 -10.315
45 P8 153 -12.268
45 P8 154 -15.686
45 P8 155 -19.104
45 P8 156 -22.522
45 P8 157 -23.987
45 P8 158 -23.499
45 P8 159 -22.034
45 P8 160 -19.104
45 P8 161 -15.686
45 P8 162 -12.268
45 P8 163 -9.338
45 P8 164 -7.385
45 P8 165 -6.897
45 P8 166 -7.874
45 P8 167 -10.315
45 P8 168 -12.268
45 P8 169 -12.756
45 P8 170 -12.268
45 P8 171 -10.803
45 P8 172 -10.315
45 P8 173 -10.803
45 P8 174 -11.780
45 P8 175 -12.756
45 P8 176 -12.268
45 P8 177 -11.292
45 P8 178 -9.827
45 P8 179 -9.338
45 P8 180 -10.315
45 P8 181 -12.756
45 P8 182 -16.174
45 P8 183 -18.616
45 P8 184 -20.569
45 P8 185 -21.057
45 P8 186 -21.057
45 P8 187 -20.081
45 P8 188 -19.104
45 P8 189 -17.639
45 P8 190 -16.663
45 P8 191 -15.198
45 P8 192 -14.709
45 P8 193 -14.709
45 P8 194 -15.686
45 P8 195 -17.639
45 P8 196 -20.569
45 P8 197 -23.987
45 P8 198 -26.917
45 P8 199 -29.846
45 P8 200 -31.799
45 P8 201 -32.776
45 P8 202 -32.776
45 P8 203 -32.288
45 P8 204 -31.311
45 P8 205 -29.358
45 P8 206 -27.893
45 P8 207 -26.428
45 P8 208 -25.452
45 P8 209 -24.475
45 P8 210 -23.499
45 P8 211 -21.545
45 P8 212 -20.569
45 P8 213 -21.057
45 P8 214 -24.475
45 P8 215 -28.870
45 P8 216 -32.776
45 P8 217 -35.217
45 P8 218 -34.729
45 P8 219 -32.776
45 P8 220 -29.846
45 P8 221 -26.917
45 P8 222 -24.475
45 P8 223 -22.034
45 P8 224 -21.057
45 P8 225 -21.057
45 P8 226 -23.499
45 P8 227 -27.405
45 P8 228 -31.311
45 P8 229 -33.752
45 P8 230 -35.217
45 P8 231 -35.706
45 P8 232 -35.217
45 P8 233 -33.752
45 P8 234 -31.799
45 P8 235 -27.893
45 P8 236 -23.499
45 P8 237 -19.104
45 P8 238 -16.663
45 P8 239 -16.174
45 P8 240 -17.639
45 P8 241 -21.057
45 P8 242 -24.963
45 P8 243 -29.358
45 P8 244 -31.799
45 P8 245 -31.311
45 P8 246 -27.893
45 P8 247 -23.010
45 P8 248 -19.592
45 P8 249 -19.592
45 P8 250 -21.545
45 P8 251 -23.987
45 P8 252 -24.475
45 P8 253 -23.010
45 P8 254 -20.569
45 P8 255 -19.104
# P7 chan 26
45 P7 0 1.099
45 P7 1 2.563
45 P7 2 3.052
45 P7 3 3.052
45 P7 4 2.075
45 P7 5 1.099
45 P7 6 0.122
45 P7 7 0.122
45 P7 8 2.075
45 P7 9 4.517
45 P7 10 5.981
45 P7 11 5.981
45 P7 12 4.517
45 P7 13 2.563
45 P7 14 1.587
45 P7 15 2.075
45 P7 16 4.517
45 P7 17 6.958
45 P7 18 8.911
45 P7 19 8.911
45 P7 20 6.958
45 P7 21 3.540
45 P7 22 -1.343
45 P7 23 -6.226
45 P7 24 -9.155
45 P7 25 -9.644
45 P7 26 -8.179
45 P7 27 -4.761
45 P7 28 -0.366
45 P7 29 4.517
45 P7 30 8.911
45 P7 31 12.817
45 P7 32 15.747
45 P7 33 17.212
45 P7 34 17.212
45 P7 35 14.282
45 P7 36 9.399
45 P7 37 4.028
45 P7 38 -1.343
45 P7 39 -5.737
45 P7 40 -9.155
45 P7 41 -11.597
45 P7 42 -14.038
45 P7 43 -15.991
45 P7 44 -17.456
45 P7 45 -17.456
45 P7 46 -16.479
45 P7 47 -14.038
45 P7 48 -11.108
45 P7 49 -7.690
45 P7 50 -4.272
45 P7 51 -1.343
45 P7 52 1.099
45 P7 53 3.052
45 P7 54 5.005
45 P7 55 7.446
45 P7 56 10.376
45 P7 57 14.282
45 P7 58 17.212
45 P7 59 18.188
45 P7 60 17.700
45 P7 61 15.259
45 P7 62 12.817
45 P7 63 10.376
45 P7 64 9.399
45 P7 65 8.911
45 P7 66 8.423
45 P7 67 8.423
45 P7 68 7.446
45 P7 69 5.493
45 P7 70 3.540
45 P7 71 1.587
45 P7 72 0.610
45 P7 73 0.610
45 P7 74 1.587
45 P7 75 1.099
45 P7 76 -0.854
45 P7 77 -4.272
45 P7 78 -7.690
45 P7 79 -9.155
45 P7 80 -9.644
45 P7 81 -8.667
45 P7 82 -7.690
45 P7 83 -7.202
45 P7 84 -6.714
45 P7 85 -6.226
45 P7 86 -5.249
45 P7 87 -3.784
45 P7 88 -3.296
45 P7 89 -3.296
45 P7 90 -3.784
45 P7 91 -3.296
45 P7 92 -2.808
45 P7 93 -2.808
45 P7 94 -4.272
45 P7 95 -7.690
45 P7 96 -11.108
45 P7 97 -14.038
45 P7 98 -14.038
45 P7 99 -12.085
45 P7 100 -8.667
45 P7 101 -5.737
45 P7 102 -3.784
45 P7 103 -2.319
45 P7 104 -0.854
45 P7 105 1.099
45 P7 106 2.563
45 P7 107 4.028
45 P7 108 4.028
45 P7 109 3.540
45 P7 110 2.563
45 P7 111 1.099
45 P7 112 -0.854
45 P7 113 -2.319
45 P7 114 -3.296
45 P7 115 -4.272
45 P7 116 -5.737
45 P7 117 -7.690
45 P7 118 -9.644
45 P7 119 -11.597
45 P7 120 -12.573
45 P7 121 -13.062
45 P7 122 -12.573
45 P7 123 -11.597
45 P7 124 -10.132
45 P7 125 -8.667
45 P7 126 -7.202
45 P7 127 -6.714
45 P7 128 -6.226
45 P7 129 -5.249
45 P7 130 -4.761
45 P7 131 -4.272
45 P7 132 -5.249
45 P7 133 -5.249
45 P7 134 -5.737
45 P7 135 -5.249
45 P7 136 -4.272
45 P7 137 -3.296
45 P7 138 -3.784
45 P7 139 -5.249
45 P7 140 -6.226
45 P7 141 -7.202
45 P7 142 -8.179
45 P7 143 -9.155
45 P7 144 -10.132
45 P7 145 -10.620
45 P7 146 -9.644
45 P7 147 -7.690
45 P7 148 -4.761
45 P7 149 -1.831
45 P7 150 -0.854
45 P7 151 -0.854
45 P7 152 -1.831
45 P7 153 -2.808
45 P7 154 -3.784
45 P7 155 -5.249
45 P7 156 -8.179
45 P7 157 -11.597
45 P7 158 -14.038
45 P7 159 -13.550
45 P7 160 -10.132
45 P7 161 -5.249
45 P7 162 -1.831
45 P7 163 -1.343
45 P7 164 -2.808
45 P7 165 -4.272
45 P7 166 -3.784
45 P7 167 -2.319
45 P7 168 -1.343
45 P7 169 -3.296
45 P7 170 -6.714
45 P7 171 -10.132
45 P7 172 -11.108
45 P7 173 -8.667
45 P7 174 -5.737
45 P7 175 -3.296
45 P7 176 -3.296
45 P7 177 -3.784
45 P7 178 -3.296
45 P7 179 -1.343
45 P7 180 2.075
45 P7 181 5.493
45 P7 182 6.958
45 P7 183 6.958
45 P7 184 5.005
45 P7 185 2.563
45 P7 186 0.122
45 P7 187 -2.808
45 P7 188 -4.761
45 P7 189 -6.226
45 P7 190 -6.226
45 P7 191 -5.737
45 P7 192 -4.761
45 P7 193 -3.784
45 P7 194 -2.319
45 P7 195 -0.366
45 P7 196 3.052
45 P7 197 6.470
45 P7 198 8.423
45 P7 199 6.958
45 P7 200 2.563
45 P7 201 -3.784
45 P7 202 -9.644
45 P7 203 -12.085
45 P7 204 -11.597
45 P7 205 -8.667
45 P7 206 -6.714
45 P7 207 -6.226
45 P7 208 -7.202
45 P7 209 -9.644
45 P7 210 -11.597
45 P7 211 -11.597
45 P7 212 -10.620
45 P7 213 -9.155
45 P7 214 -9.644
45 P7 215 -11.108
45 P7 216 -14.038
45 P7 217 -17.456
45 P7 218 -19.409
45 P7 219 -19.897
45 P7 220 -17.944
45 P7 221 -15.015
45 P7 222 -12.085
45 P7 223 -9.155
45 P7 224 -7.202
45 P7 225 -5.737
45 P7 226 -5.737
45 P7 227 -6.714
45 P7 228 -9.155
45 P7 229 -12.085
45 P7 230 -14.038
45 P7 231 -15.991
45 P7 232 -15.991
45 P7 233 -14.526
45 P7 234 -12.573
45 P7 235 -9.155
45 P7 236 -5.737
45 P7 237 -2.808
45 P7 238 -1.831
45 P7 239 -1.343
45 P7 240 -1.831
45 P7 241 -2.319
45 P7 242 -2.808
45 P7 243 -3.784
45 P7 244 -5.249
45 P7 245 -7.202
45 P7 246 -9.155
45 P7 247 -11.108
45 P7 248 -12.085
45 P7 249 -13.062
45 P7 250 -12.573
45 P7 251 -11.597
45 P7 252 -9.644
45 P7 253 -7.690
45 P7 254 -6.226
45 P7 255 -6.226
# PO2 chan 27
45 PO2 0 -5.178
45 PO2 1 -3.225
45 PO2 2 -1.272
45 PO2 3 0.193
45 PO2 4 -0.295
45 PO2 5 -1.760
45 PO2 6 -3.713
45 PO2 7 -3.713
45 PO2 8 -2.248
45 PO2 9 -0.295
45 PO2 10 0.682
45 PO2 11 0.193
45 PO2 12 -1.760
45 PO2 13 -3.713
45 PO2 14 -4.201
45 PO2 15 -2.736
45 PO2 16 -0.783
45 PO2 17 1.658
45 PO2 18 3.123
45 PO2 19 3.123
45 PO2 20 2.635
45 PO2 21 1.170
45 PO2 22 -1.272
45 PO2 23 -4.201
45 PO2 24 -6.643
45 PO2 25 -7.131
45 PO2 26 -5.666
45 PO2 27 -2.248
45 PO2 28 1.658
45 PO2 29 5.564
45 PO2 30 8.494
45 PO2 31 10.447
45 PO2 32 11.912
45 PO2 33 12.889
45 PO2 34 12.400
45 PO2 35 10.447
45 PO2 36 8.006
45 PO2 37 5.076
45 PO2 38 3.611
45 PO2 39 2.635
45 PO2 40 1.170
45 PO2 41 -1.272
45 PO2 42 -4.201
45 PO2 43 -8.108
45 PO2 44 -10.061
45 PO2 45 -9.572
45 PO2 46 -6.643
45 PO2 47 -3.713
45 PO2 48 -1.760
45 PO2 49 -0.783
45 PO2 50 -0.783
45 PO2 51 -0.783
45 PO2 52 0.193
45 PO2 53 1.658
45 PO2 54 3.123
45 PO2 55 4.588
45 PO2 56 6.541
45 PO2 57 8.494
45 PO2 58 10.935
45 PO2 59 12.889
45 PO2 60 13.377
45 PO2 61 12.400
45 PO2 62 10.447
45 PO2 63 8.494
45 PO2 64 7.029
45 PO2 65 7.029
45 PO2 66 7.517
45 PO2 67 8.006
45 PO2 68 8.006
45 PO2 69 6.053
45 PO2 70 3.123
45 PO2 71 0.193
45 PO2 72 -1.272
45 PO2 73 -1.272
45 PO2 74 -0.295
45 PO2 75 0.193
45 PO2 76 -0.783
45 PO2 77 -1.760
45 PO2 78 -2.736
45 PO2 79 -2.736
45 PO2 80 -2.248
45 PO2 81 -2.248
45 PO2 82 -3.225
45 PO2 83 -4.690
45 PO2 84 -7.131
45 PO2 85 -8.596
45 PO2 86 -9.572
45 PO2 87 -9.084
45 PO2 88 -8.108
45 PO2 89 -7.131
45 PO2 90 -5.178
45 PO2 91 -3.713
45 PO2 92 -2.248
45 PO2 93 -1.760
45 PO2 94 -1.272
45 PO2 95 -1.760
45 PO2 96 -2.248
45 PO2 97 -2.736
45 PO2 98 -3.225
45 PO2 99 -3.225
45 PO2 100 -3.713
45 PO2 101 -4.201
45 PO2 102 -3.713
45 PO2 103 -3.225
45 PO2 104 -1.760
45 PO2 105 -0.295
45 PO2 106 0.682
45 PO2 107 1.170
45 PO2 108 0.682
45 PO2 109 -0.295
45 PO2 110 -2.248
45 PO2 111 -3.713
45 PO2 112 -4.690
45 PO2 113 -3.713
45 PO2 114 -2.736
45 PO2 115 -1.272
45 PO2 116 -1.272
45 PO2 117 -1.760
45 PO2 118 -1.760
45 PO2 119 -2.248
45 PO2 120 -2.736
45 PO2 121 -3.225
45 PO2 122 -4.690
45 PO2 123 -5.666
45 PO2 124 -7.619
45 PO2 125 -8.108
45 PO2 126 -7.619
45 PO2 127 -6.643
45 PO2 128 -4.690
45 PO2 129 -2.736
45 PO2 130 0.193
45 PO2 131 3.123
45 PO2 132 5.564
45 PO2 133 7.029
45 PO2 134 7.517
45 PO2 135 6.541
45 PO2 136 4.588
45 PO2 137 3.123
45 PO2 138 1.658
45 PO2 139 0.682
45 PO2 140 0.193
45 PO2 141 -0.295
45 PO2 142 -0.295
45 PO2 143 -0.295
45 PO2 144 -0.783
45 PO2 145 -1.272
45 PO2 146 -2.248
45 PO2 147 -2.736
45 PO2 148 -2.736
45 PO2 149 -3.225
45 PO2 150 -3.713
45 PO2 151 -3.713
45 PO2 152 -4.201
45 PO2 153 -4.201
45 PO2 154 -4.201
45 PO2 155 -4.201
45 PO2 156 -5.178
45 PO2 157 -6.643
45 PO2 158 -7.131
45 PO2 159 -6.643
45 PO2 160 -3.713
45 PO2 161 0.193
45 PO2 162 2.635
45 PO2 163 3.611
45 PO2 164 2.146
45 PO2 165 -0.295
45 PO2 166 -2.736
45 PO2 167 -4.201
45 PO2 168 -5.178
45 PO2 169 -5.666
45 PO2 170 -6.154
