# co2c0000387.rd
# 120 trials, 64 chans, 416 samples 368 post_stim samples
# 3.906000 msecs uV
# S1 obj , trial 62
# FP1 chan 0
62 FP1 0 -4.222
62 FP1 1 -6.175
62 FP1 2 -7.151
62 FP1 3 -6.663
62 FP1 4 -5.198
62 FP1 5 -2.268
62 FP1 6 1.149
62 FP1 7 4.567
62 FP1 8 6.521
62 FP1 9 6.521
62 FP1 10 5.056
62 FP1 11 3.103
62 FP1 12 1.638
62 FP1 13 1.149
62 FP1 14 1.638
62 FP1 15 2.614
62 FP1 16 3.103
62 FP1 17 2.614
62 FP1 18 1.149
62 FP1 19 -1.292
62 FP1 20 -3.245
62 FP1 21 -5.198
62 FP1 22 -5.686
62 FP1 23 -5.686
62 FP1 24 -4.710
62 FP1 25 -3.245
62 FP1 26 -1.292
62 FP1 27 0.173
62 FP1 28 2.614
62 FP1 29 6.032
62 FP1 30 9.450
62 FP1 31 12.380
62 FP1 32 13.357
62 FP1 33 11.892
62 FP1 34 8.474
62 FP1 35 4.567
62 FP1 36 1.638
62 FP1 37 -0.315
62 FP1 38 -0.804
62 FP1 39 -1.292
62 FP1 40 -1.780
62 FP1 41 -1.780
62 FP1 42 -0.804
62 FP1 43 0.173
62 FP1 44 0.661
62 FP1 45 0.173
62 FP1 46 -0.315
62 FP1 47 -0.315
62 FP1 48 0.661
62 FP1 49 2.614
62 FP1 50 3.591
62 FP1 51 2.126
62 FP1 52 -0.804
62 FP1 53 -4.222
62 FP1 54 -6.175
62 FP1 55 -5.686
62 FP1 56 -4.222
62 FP1 57 -2.757
62 FP1 58 -1.780
62 FP1 59 -1.292
62 FP1 60 -0.315
62 FP1 61 1.638
62 FP1 62 3.591
62 FP1 63 4.079
62 FP1 64 4.079
62 FP1 65 2.614
62 FP1 66 1.638
62 FP1 67 1.638
62 FP1 68 2.614
62 FP1 69 4.079
62 FP1 70 5.056
62 FP1 71 3.591
62 FP1 72 0.661
62 FP1 73 -3.245
62 FP1 74 -6.175
62 FP1 75 -7.151
62 FP1 76 -6.663
62 FP1 77 -5.198
62 FP1 78 -3.733
62 FP1 79 -2.757
62 FP1 80 -0.804
62 FP1 81 3.103
62 FP1 82 8.474
62 FP1 83 14.333
62 FP1 84 18.239
62 FP1 85 17.751
62 FP1 86 14.333
62 FP1 87 9.939
62 FP1 88 6.521
62 FP1 89 5.544
62 FP1 90 6.032
62 FP1 91 6.521
62 FP1 92 6.521
62 FP1 93 6.521
62 FP1 94 7.497
62 FP1 95 9.450
62 FP1 96 11.403
62 FP1 97 11.892
62 FP1 98 11.403
62 FP1 99 10.427
62 FP1 100 9.939
62 FP1 101 10.427
62 FP1 102 11.403
62 FP1 103 12.868
62 FP1 104 14.821
62 FP1 105 17.263
62 FP1 106 19.216
62 FP1 107 20.192
62 FP1 108 19.704
62 FP1 109 17.751
62 FP1 110 15.310
62 FP1 111 14.333
62 FP1 112 13.845
62 FP1 113 13.357
62 FP1 114 12.868
62 FP1 115 11.403
62 FP1 116 9.939
62 FP1 117 10.427
62 FP1 118 11.892
62 FP1 119 13.357
62 FP1 120 13.845
62 FP1 121 12.380
62 FP1 122 10.427
62 FP1 123 7.985
62 FP1 124 7.009
62 FP1 125 6.521
62 FP1 126 6.521
62 FP1 127 5.544
62 FP1 128 4.079
62 FP1 129 3.103
62 FP1 130 3.591
62 FP1 131 5.056
62 FP1 132 7.985
62 FP1 133 10.427
62 FP1 134 12.380
62 FP1 135 13.357
62 FP1 136 12.380
62 FP1 137 9.939
62 FP1 138 7.985
62 FP1 139 6.521
62 FP1 140 7.497
62 FP1 141 9.450
62 FP1 142 11.403
62 FP1 143 12.380
62 FP1 144 11.892
62 FP1 145 10.915
62 FP1 146 9.939
62 FP1 147 9.939
62 FP1 148 9.939
62 FP1 149 9.939
62 FP1 150 8.474
62 FP1 151 8.474
62 FP1 152 7.985
62 FP1 153 8.474
62 FP1 154 8.962
62 FP1 155 8.474
62 FP1 156 7.497
62 FP1 157 7.009
62 FP1 158 7.985
62 FP1 159 9.939
62 FP1 160 11.403
62 FP1 161 11.403
62 FP1 162 9.939
62 FP1 163 7.497
62 FP1 164 6.521
62 FP1 165 7.985
62 FP1 166 10.427
62 FP1 167 12.380
62 FP1 168 13.845
62 FP1 169 13.845
62 FP1 170 13.845
62 FP1 171 14.333
62 FP1 172 14.333
62 FP1 173 13.845
62 FP1 174 11.403
62 FP1 175 7.985
62 FP1 176 5.056
62 FP1 177 3.103
62 FP1 178 3.591
62 FP1 179 5.056
62 FP1 180 7.985
62 FP1 181 9.939
62 FP1 182 10.915
62 FP1 183 10.915
62 FP1 184 9.939
62 FP1 185 8.474
62 FP1 186 7.497
62 FP1 187 7.009
62 FP1 188 7.985
62 FP1 189 10.427
62 FP1 190 12.380
62 FP1 191 14.821
62 FP1 192 16.286
62 FP1 193 17.751
62 FP1 194 18.728
62 FP1 195 20.192
62 FP1 196 20.681
62 FP1 197 20.681
62 FP1 198 19.704
62 FP1 199 17.263
62 FP1 200 14.333
62 FP1 201 10.427
62 FP1 202 7.009
62 FP1 203 4.079
62 FP1 204 2.614
62 FP1 205 2.614
62 FP1 206 5.056
62 FP1 207 8.474
62 FP1 208 11.892
62 FP1 209 13.845
62 FP1 210 14.821
62 FP1 211 14.333
62 FP1 212 13.357
62 FP1 213 12.380
62 FP1 214 11.892
62 FP1 215 12.380
62 FP1 216 13.845
62 FP1 217 16.774
62 FP1 218 19.216
62 FP1 219 20.192
62 FP1 220 20.681
62 FP1 221 19.216
62 FP1 222 17.751
62 FP1 223 16.774
62 FP1 224 17.263
62 FP1 225 18.239
62 FP1 226 18.728
62 FP1 227 18.239
62 FP1 228 17.263
62 FP1 229 15.798
62 FP1 230 15.310
62 FP1 231 16.286
62 FP1 232 17.263
62 FP1 233 18.239
62 FP1 234 19.216
62 FP1 235 18.728
62 FP1 236 17.263
62 FP1 237 15.798
62 FP1 238 14.821
62 FP1 239 13.357
62 FP1 240 10.915
62 FP1 241 8.474
62 FP1 242 5.056
62 FP1 243 2.614
62 FP1 244 1.149
62 FP1 245 1.638
62 FP1 246 3.591
62 FP1 247 6.521
62 FP1 248 8.962
62 FP1 249 10.915
62 FP1 250 12.380
62 FP1 251 12.868
62 FP1 252 12.868
62 FP1 253 12.380
62 FP1 254 11.403
62 FP1 255 11.403
# FP2 chan 1
62 FP2 0 1.638
62 FP2 1 1.149
62 FP2 2 -0.804
62 FP2 3 -2.268
62 FP2 4 -2.757
62 FP2 5 -1.292
62 FP2 6 1.638
62 FP2 7 4.567
62 FP2 8 6.032
62 FP2 9 6.032
62 FP2 10 5.544
62 FP2 11 5.056
62 FP2 12 4.567
62 FP2 13 4.079
62 FP2 14 4.079
62 FP2 15 4.567
62 FP2 16 5.544
62 FP2 17 6.521
62 FP2 18 6.521
62 FP2 19 5.544
62 FP2 20 3.591
62 FP2 21 1.149
62 FP2 22 -0.315
62 FP2 23 -1.292
62 FP2 24 -1.780
62 FP2 25 -2.268
62 FP2 26 -1.780
62 FP2 27 -0.315
62 FP2 28 2.614
62 FP2 29 7.497
62 FP2 30 11.892
62 FP2 31 13.845
62 FP2 32 13.357
62 FP2 33 10.915
62 FP2 34 7.497
62 FP2 35 4.567
62 FP2 36 2.126
62 FP2 37 0.661
62 FP2 38 0.173
62 FP2 39 0.173
62 FP2 40 0.173
62 FP2 41 1.149
62 FP2 42 1.638
62 FP2 43 2.614
62 FP2 44 2.614
62 FP2 45 1.638
62 FP2 46 0.661
62 FP2 47 0.173
62 FP2 48 0.661
62 FP2 49 2.614
62 FP2 50 3.103
62 FP2 51 2.614
62 FP2 52 -0.315
62 FP2 53 -3.245
62 FP2 54 -5.686
62 FP2 55 -6.663
62 FP2 56 -6.175
62 FP2 57 -5.198
62 FP2 58 -4.222
62 FP2 59 -3.733
62 FP2 60 -3.245
62 FP2 61 -2.268
62 FP2 62 -0.315
62 FP2 63 1.149
62 FP2 64 2.126
62 FP2 65 2.614
62 FP2 66 2.614
62 FP2 67 2.614
62 FP2 68 2.614
62 FP2 69 2.614
62 FP2 70 2.126
62 FP2 71 1.638
62 FP2 72 -0.315
62 FP2 73 -2.757
62 FP2 74 -5.198
62 FP2 75 -6.663
62 FP2 76 -6.175
62 FP2 77 -4.710
62 FP2 78 -3.245
62 FP2 79 -2.268
62 FP2 80 -1.292
62 FP2 81 0.661
62 FP2 82 4.079
62 FP2 83 8.474
62 FP2 84 11.403
62 FP2 85 12.380
62 FP2 86 9.939
62 FP2 87 6.032
62 FP2 88 3.103
62 FP2 89 1.638
62 FP2 90 2.614
62 FP2 91 3.591
62 FP2 92 3.591
62 FP2 93 3.591
62 FP2 94 4.079
62 FP2 95 5.544
62 FP2 96 7.497
62 FP2 97 8.962
62 FP2 98 7.985
62 FP2 99 6.521
62 FP2 100 5.056
62 FP2 101 6.032
62 FP2 102 7.985
62 FP2 103 11.892
62 FP2 104 14.333
62 FP2 105 14.821
62 FP2 106 14.333
62 FP2 107 13.357
62 FP2 108 11.892
62 FP2 109 10.915
62 FP2 110 9.450
62 FP2 111 8.474
62 FP2 112 7.985
62 FP2 113 7.985
62 FP2 114 7.985
62 FP2 115 7.985
62 FP2 116 6.521
62 FP2 117 5.056
62 FP2 118 4.079
62 FP2 119 4.567
62 FP2 120 6.032
62 FP2 121 7.497
62 FP2 122 7.009
62 FP2 123 5.544
62 FP2 124 3.103
62 FP2 125 1.638
62 FP2 126 1.149
62 FP2 127 2.614
62 FP2 128 4.567
62 FP2 129 5.544
62 FP2 130 6.521
62 FP2 131 6.521
62 FP2 132 7.497
62 FP2 133 9.450
62 FP2 134 10.915
62 FP2 135 10.915
62 FP2 136 9.450
62 FP2 137 6.032
62 FP2 138 3.591
62 FP2 139 3.103
62 FP2 140 5.544
62 FP2 141 8.474
62 FP2 142 11.892
62 FP2 143 12.868
62 FP2 144 11.892
62 FP2 145 9.939
62 FP2 146 7.985
62 FP2 147 7.009
62 FP2 148 7.009
62 FP2 149 6.521
62 FP2 150 6.032
62 FP2 151 5.544
62 FP2 152 5.056
62 FP2 153 5.544
62 FP2 154 6.032
62 FP2 155 6.032
62 FP2 156 5.544
62 FP2 157 5.056
62 FP2 158 5.544
62 FP2 159 6.521
62 FP2 160 7.497
62 FP2 161 7.009
62 FP2 162 6.032
62 FP2 163 4.567
62 FP2 164 4.567
62 FP2 165 6.032
62 FP2 166 8.474
62 FP2 167 10.915
62 FP2 168 11.892
62 FP2 169 11.403
62 FP2 170 10.427
62 FP2 171 10.427
62 FP2 172 10.915
62 FP2 173 11.892
62 FP2 174 11.892
62 FP2 175 10.427
62 FP2 176 7.985
62 FP2 177 5.056
62 FP2 178 3.591
62 FP2 179 4.079
62 FP2 180 6.032
62 FP2 181 8.474
62 FP2 182 10.915
62 FP2 183 12.380
62 FP2 184 12.380
62 FP2 185 10.427
62 FP2 186 7.985
62 FP2 187 7.009
62 FP2 188 7.009
62 FP2 189 9.450
62 FP2 190 12.380
62 FP2 191 14.821
62 FP2 192 15.798
62 FP2 193 15.798
62 FP2 194 16.286
62 FP2 195 18.239
62 FP2 196 21.169
62 FP2 197 24.099
62 FP2 198 24.587
62 FP2 199 21.657
62 FP2 200 16.286
62 FP2 201 11.403
62 FP2 202 7.009
62 FP2 203 4.567
62 FP2 204 3.591
62 FP2 205 4.079
62 FP2 206 6.032
62 FP2 207 8.474
62 FP2 208 12.380
62 FP2 209 15.310
62 FP2 210 16.286
62 FP2 211 16.286
62 FP2 212 15.310
62 FP2 213 13.845
62 FP2 214 13.357
62 FP2 215 13.845
62 FP2 216 14.821
62 FP2 217 15.310
62 FP2 218 16.774
62 FP2 219 17.751
62 FP2 220 19.216
62 FP2 221 20.192
62 FP2 222 20.192
62 FP2 223 17.751
62 FP2 224 14.821
62 FP2 225 12.868
62 FP2 226 11.892
62 FP2 227 12.868
62 FP2 228 14.333
62 FP2 229 15.310
62 FP2 230 15.798
62 FP2 231 16.774
62 FP2 232 17.263
62 FP2 233 18.728
62 FP2 234 20.192
62 FP2 235 20.192
62 FP2 236 18.728
62 FP2 237 16.774
62 FP2 238 15.310
62 FP2 239 14.333
62 FP2 240 12.868
62 FP2 241 10.427
62 FP2 242 7.497
62 FP2 243 4.567
62 FP2 244 4.079
62 FP2 245 5.544
62 FP2 246 8.962
62 FP2 247 12.380
62 FP2 248 13.845
62 FP2 249 14.333
62 FP2 250 14.333
62 FP2 251 14.333
62 FP2 252 13.845
62 FP2 253 13.357
62 FP2 254 11.892
62 FP2 255 10.427
# F7 chan 2
62 F7 0 -4.496
62 F7 1 -7.914
62 F7 2 -10.356
62 F7 3 -10.356
62 F7 4 -7.426
62 F7 5 -3.031
62 F7 6 2.340
62 F7 7 6.734
62 F7 8 9.176
62 F7 9 9.176
62 F7 10 7.711
62 F7 11 5.758
62 F7 12 4.781
62 F7 13 4.781
62 F7 14 4.781
62 F7 15 4.781
62 F7 16 3.805
62 F7 17 1.363
62 F7 18 -1.078
62 F7 19 -3.520
62 F7 20 -4.985
62 F7 21 -6.449
62 F7 22 -7.914
62 F7 23 -8.891
62 F7 24 -8.403
62 F7 25 -6.449
62 F7 26 -2.543
62 F7 27 1.851
62 F7 28 6.734
62 F7 29 10.640
62 F7 30 12.105
62 F7 31 12.594
62 F7 32 11.129
62 F7 33 8.687
62 F7 34 6.246
62 F7 35 3.316
62 F7 36 1.363
62 F7 37 -0.590
62 F7 38 -2.055
62 F7 39 -3.031
62 F7 40 -3.520
62 F7 41 -4.008
62 F7 42 -4.008
62 F7 43 -4.008
62 F7 44 -3.520
62 F7 45 -3.520
62 F7 46 -2.055
62 F7 47 -0.102
62 F7 48 2.340
62 F7 49 5.269
62 F7 50 6.734
62 F7 51 5.758
62 F7 52 2.828
62 F7 53 -0.102
62 F7 54 -2.055
62 F7 55 -2.543
62 F7 56 -1.078
62 F7 57 0.387
62 F7 58 0.875
62 F7 59 1.363
62 F7 60 1.363
62 F7 61 2.340
62 F7 62 3.316
62 F7 63 4.781
62 F7 64 5.269
62 F7 65 5.269
62 F7 66 4.781
62 F7 67 3.805
62 F7 68 2.828
62 F7 69 1.851
62 F7 70 0.875
62 F7 71 -0.590
62 F7 72 -2.543
62 F7 73 -3.520
62 F7 74 -4.496
62 F7 75 -4.985
62 F7 76 -4.496
62 F7 77 -3.520
62 F7 78 -2.543
62 F7 79 -1.567
62 F7 80 0.875
62 F7 81 4.781
62 F7 82 10.152
62 F7 83 16.500
62 F7 84 20.894
62 F7 85 21.871
62 F7 86 19.430
62 F7 87 14.547
62 F7 88 11.129
62 F7 89 8.687
62 F7 90 8.199
62 F7 91 7.711
62 F7 92 7.222
62 F7 93 6.246
62 F7 94 6.246
62 F7 95 8.199
62 F7 96 10.640
62 F7 97 13.570
62 F7 98 15.523
62 F7 99 15.523
62 F7 100 15.523
62 F7 101 16.012
62 F7 102 16.500
62 F7 103 18.453
62 F7 104 20.406
62 F7 105 21.871
62 F7 106 22.847
62 F7 107 22.359
62 F7 108 21.871
62 F7 109 21.383
62 F7 110 20.894
62 F7 111 20.894
62 F7 112 20.406
62 F7 113 18.941
62 F7 114 16.500
62 F7 115 14.547
62 F7 116 13.082
62 F7 117 13.082
62 F7 118 14.058
62 F7 119 14.547
62 F7 120 14.058
62 F7 121 12.105
62 F7 122 10.152
62 F7 123 8.199
62 F7 124 6.246
62 F7 125 4.781
62 F7 126 3.805
62 F7 127 3.316
62 F7 128 3.805
62 F7 129 4.781
62 F7 130 6.246
62 F7 131 7.711
62 F7 132 9.176
62 F7 133 11.129
62 F7 134 13.082
62 F7 135 13.570
62 F7 136 12.105
62 F7 137 10.152
62 F7 138 8.199
62 F7 139 7.222
62 F7 140 7.711
62 F7 141 8.687
62 F7 142 10.152
62 F7 143 11.129
62 F7 144 11.617
62 F7 145 12.105
62 F7 146 13.082
62 F7 147 13.570
62 F7 148 13.570
62 F7 149 13.082
62 F7 150 12.105
62 F7 151 11.617
62 F7 152 12.105
62 F7 153 12.105
62 F7 154 12.105
62 F7 155 11.129
62 F7 156 10.152
62 F7 157 9.176
62 F7 158 9.176
62 F7 159 9.176
62 F7 160 9.176
62 F7 161 8.687
62 F7 162 8.199
62 F7 163 7.711
62 F7 164 8.687
62 F7 165 11.129
62 F7 166 15.035
62 F7 167 18.941
62 F7 168 20.894
62 F7 169 20.406
62 F7 170 18.453
62 F7 171 15.523
62 F7 172 13.570
62 F7 173 13.082
62 F7 174 12.105
62 F7 175 10.640
62 F7 176 8.687
62 F7 177 6.734
62 F7 178 5.758
62 F7 179 6.734
62 F7 180 8.687
62 F7 181 11.617
62 F7 182 14.058
62 F7 183 14.547
62 F7 184 13.570
62 F7 185 10.640
62 F7 186 9.176
62 F7 187 8.199
62 F7 188 9.664
62 F7 189 12.105
62 F7 190 14.058
62 F7 191 15.035
62 F7 192 15.035
62 F7 193 14.547
62 F7 194 15.035
62 F7 195 16.500
62 F7 196 19.430
62 F7 197 20.894
62 F7 198 20.894
62 F7 199 17.965
62 F7 200 13.082
62 F7 201 8.687
62 F7 202 4.781
62 F7 203 2.340
62 F7 204 1.363
62 F7 205 2.828
62 F7 206 4.781
62 F7 207 7.711
62 F7 208 10.152
62 F7 209 11.617
62 F7 210 11.617
62 F7 211 11.129
62 F7 212 10.152
62 F7 213 10.152
62 F7 214 10.640
62 F7 215 11.129
62 F7 216 11.617
62 F7 217 12.105
62 F7 218 14.058
62 F7 219 16.500
62 F7 220 19.430
62 F7 221 20.894
62 F7 222 20.894
62 F7 223 18.941
62 F7 224 16.500
62 F7 225 14.058
62 F7 226 13.082
62 F7 227 12.594
62 F7 228 12.594
62 F7 229 13.570
62 F7 230 15.035
62 F7 231 17.965
62 F7 232 19.918
62 F7 233 20.406
62 F7 234 18.941
62 F7 235 16.012
62 F7 236 13.570
62 F7 237 11.617
62 F7 238 10.640
62 F7 239 9.664
62 F7 240 8.199
62 F7 241 5.758
62 F7 242 3.316
62 F7 243 2.340
62 F7 244 1.363
62 F7 245 2.340
62 F7 246 3.805
62 F7 247 5.758
62 F7 248 8.199
62 F7 249 9.664
62 F7 250 10.152
62 F7 251 9.664
62 F7 252 8.199
62 F7 253 7.711
62 F7 254 8.687
62 F7 255 11.129
# F8 chan 3
62 F8 0 4.730
62 F8 1 4.242
62 F8 2 3.754
62 F8 3 3.265
62 F8 4 3.265
62 F8 5 4.242
62 F8 6 5.707
62 F8 7 7.172
62 F8 8 8.148
62 F8 9 8.636
62 F8 10 8.636
62 F8 11 8.636
62 F8 12 8.148
62 F8 13 8.636
62 F8 14 8.636
62 F8 15 9.125
62 F8 16 10.101
62 F8 17 11.566
62 F8 18 12.054
62 F8 19 12.543
62 F8 20 11.566
62 F8 21 10.101
62 F8 22 8.148
62 F8 23 5.707
62 F8 24 3.754
62 F8 25 2.777
62 F8 26 2.289
62 F8 27 3.754
62 F8 28 7.172
62 F8 29 10.590
62 F8 30 13.519
62 F8 31 14.496
62 F8 32 13.519
62 F8 33 10.590
62 F8 34 7.172
62 F8 35 3.754
62 F8 36 1.801
62 F8 37 0.824
62 F8 38 1.312
62 F8 39 2.289
62 F8 40 3.265
62 F8 41 3.754
62 F8 42 3.754
62 F8 43 3.265
62 F8 44 2.777
62 F8 45 1.801
62 F8 46 0.824
62 F8 47 -0.153
62 F8 48 -1.129
62 F8 49 -1.617
62 F8 50 -2.106
62 F8 51 -2.106
62 F8 52 -3.082
62 F8 53 -3.571
62 F8 54 -4.547
62 F8 55 -5.035
62 F8 56 -5.524
62 F8 57 -5.035
62 F8 58 -5.524
62 F8 59 -5.035
62 F8 60 -5.524
62 F8 61 -5.035
62 F8 62 -3.571
62 F8 63 -1.617
62 F8 64 0.824
62 F8 65 2.777
62 F8 66 3.754
62 F8 67 3.265
62 F8 68 2.777
62 F8 69 2.777
62 F8 70 2.289
62 F8 71 2.289
62 F8 72 0.824
62 F8 73 -1.129
62 F8 74 -3.082
62 F8 75 -4.059
62 F8 76 -3.571
62 F8 77 -1.617
62 F8 78 0.336
62 F8 79 1.801
62 F8 80 2.289
62 F8 81 3.265
62 F8 82 4.730
62 F8 83 6.683
62 F8 84 8.148
62 F8 85 8.148
62 F8 86 6.195
62 F8 87 3.754
62 F8 88 2.289
62 F8 89 1.312
62 F8 90 0.824
62 F8 91 0.336
62 F8 92 -0.153
62 F8 93 0.336
62 F8 94 1.801
62 F8 95 3.754
62 F8 96 5.707
62 F8 97 6.195
62 F8 98 5.707
62 F8 99 5.219
62 F8 100 5.219
62 F8 101 6.683
62 F8 102 8.636
62 F8 103 11.078
62 F8 104 12.054
62 F8 105 12.543
62 F8 106 12.543
62 F8 107 11.566
62 F8 108 10.590
62 F8 109 9.125
62 F8 110 8.636
62 F8 111 7.660
62 F8 112 7.172
62 F8 113 7.660
62 F8 114 6.683
62 F8 115 5.219
62 F8 116 3.265
62 F8 117 1.312
62 F8 118 0.824
62 F8 119 0.824
62 F8 120 1.312
62 F8 121 1.312
62 F8 122 0.824
62 F8 123 -0.641
62 F8 124 -1.129
62 F8 125 -1.129
62 F8 126 -0.153
62 F8 127 1.312
62 F8 128 2.289
62 F8 129 3.754
62 F8 130 5.219
62 F8 131 6.683
62 F8 132 8.148
62 F8 133 9.125
62 F8 134 8.636
62 F8 135 6.195
62 F8 136 3.265
62 F8 137 1.312
62 F8 138 0.824
62 F8 139 0.824
62 F8 140 2.289
62 F8 141 4.242
62 F8 142 6.195
62 F8 143 7.660
62 F8 144 8.148
62 F8 145 7.172
62 F8 146 5.219
62 F8 147 2.777
62 F8 148 0.824
62 F8 149 0.336
62 F8 150 1.312
62 F8 151 2.777
62 F8 152 4.730
62 F8 153 4.730
62 F8 154 4.242
62 F8 155 3.265
62 F8 156 2.777
62 F8 157 3.754
62 F8 158 4.730
62 F8 159 5.707
62 F8 160 5.707
62 F8 161 4.242
62 F8 162 1.801
62 F8 163 0.336
62 F8 164 -0.153
62 F8 165 1.312
62 F8 166 4.242
62 F8 167 6.683
62 F8 168 8.148
62 F8 169 8.636
62 F8 170 8.148
62 F8 171 7.660
62 F8 172 8.636
62 F8 173 9.125
62 F8 174 10.101
62 F8 175 9.613
62 F8 176 8.148
62 F8 177 6.683
62 F8 178 5.219
62 F8 179 5.707
62 F8 180 7.660
62 F8 181 10.101
62 F8 182 11.566
62 F8 183 11.566
62 F8 184 9.613
62 F8 185 7.172
62 F8 186 5.219
62 F8 187 5.219
62 F8 188 7.172
62 F8 189 10.101
62 F8 190 13.519
62 F8 191 15.472
62 F8 192 16.449
62 F8 193 15.961
62 F8 194 15.472
62 F8 195 15.472
62 F8 196 15.961
62 F8 197 16.449
62 F8 198 16.449
62 F8 199 15.472
62 F8 200 12.543
62 F8 201 9.613
62 F8 202 6.683
62 F8 203 4.242
62 F8 204 3.265
62 F8 205 4.242
62 F8 206 6.683
62 F8 207 10.590
62 F8 208 14.008
62 F8 209 15.961
62 F8 210 15.472
62 F8 211 13.519
62 F8 212 11.566
62 F8 213 10.590
62 F8 214 10.590
62 F8 215 12.054
62 F8 216 13.031
62 F8 217 14.496
62 F8 218 15.472
62 F8 219 16.449
62 F8 220 17.426
62 F8 221 17.426
62 F8 222 16.449
62 F8 223 14.984
62 F8 224 12.543
62 F8 225 9.613
62 F8 226 8.148
62 F8 227 6.683
62 F8 228 6.195
62 F8 229 6.683
62 F8 230 8.148
62 F8 231 11.078
62 F8 232 14.496
62 F8 233 17.426
62 F8 234 19.379
62 F8 235 20.355
62 F8 236 19.867
62 F8 237 18.402
62 F8 238 16.937
62 F8 239 14.984
62 F8 240 13.519
62 F8 241 11.078
62 F8 242 9.613
62 F8 243 8.636
62 F8 244 9.125
62 F8 245 10.590
62 F8 246 12.054
62 F8 247 13.031
62 F8 248 13.519
62 F8 249 12.543
62 F8 250 11.078
62 F8 251 10.590
62 F8 252 9.613
62 F8 253 8.636
62 F8 254 7.172
62 F8 255 5.219
# AF1 chan 4
62 AF1 0 -2.533
62 AF1 1 -4.486
62 AF1 2 -6.439
62 AF1 3 -7.416
62 AF1 4 -6.927
62 AF1 5 -4.974
62 AF1 6 -1.556
62 AF1 7 2.350
62 AF1 8 5.280
62 AF1 9 6.256
62 AF1 10 6.256
62 AF1 11 4.791
62 AF1 12 3.326
62 AF1 13 1.862
62 AF1 14 1.862
62 AF1 15 1.862
62 AF1 16 1.862
62 AF1 17 1.862
62 AF1 18 0.397
62 AF1 19 -1.556
62 AF1 20 -3.510
62 AF1 21 -4.486
62 AF1 22 -4.974
62 AF1 23 -4.974
62 AF1 24 -4.486
62 AF1 25 -3.998
62 AF1 26 -2.045
62 AF1 27 0.397
62 AF1 28 3.815
62 AF1 29 6.744
62 AF1 30 8.698
62 AF1 31 9.186
62 AF1 32 9.186
62 AF1 33 8.209
62 AF1 34 6.744
62 AF1 35 4.791
62 AF1 36 2.838
62 AF1 37 0.397
62 AF1 38 -1.068
62 AF1 39 -2.045
62 AF1 40 -2.533
62 AF1 41 -3.510
62 AF1 42 -3.998
62 AF1 43 -3.998
62 AF1 44 -3.510
62 AF1 45 -2.045
62 AF1 46 -0.580
62 AF1 47 0.397
62 AF1 48 1.862
62 AF1 49 2.838
62 AF1 50 2.350
62 AF1 51 1.862
62 AF1 52 0.885
62 AF1 53 -0.092
62 AF1 54 -1.068
62 AF1 55 -1.556
62 AF1 56 -1.556
62 AF1 57 -0.580
62 AF1 58 0.397
62 AF1 59 1.862
62 AF1 60 2.350
62 AF1 61 2.838
62 AF1 62 2.350
62 AF1 63 2.350
62 AF1 64 2.838
62 AF1 65 3.326
62 AF1 66 3.815
62 AF1 67 3.815
62 AF1 68 3.815
62 AF1 69 3.326
62 AF1 70 3.326
62 AF1 71 2.350
62 AF1 72 0.397
62 AF1 73 -1.556
62 AF1 74 -3.998
62 AF1 75 -5.463
62 AF1 76 -4.974
62 AF1 77 -3.510
62 AF1 78 -1.556
62 AF1 79 -0.092
62 AF1 80 1.373
62 AF1 81 2.838
62 AF1 82 5.280
62 AF1 83 8.209
62 AF1 84 11.139
62 AF1 85 11.627
62 AF1 86 10.651
62 AF1 87 7.721
62 AF1 88 5.768
62 AF1 89 5.280
62 AF1 90 5.280
62 AF1 91 6.256
62 AF1 92 6.744
62 AF1 93 7.233
62 AF1 94 7.721
62 AF1 95 8.698
62 AF1 96 9.674
62 AF1 97 10.651
62 AF1 98 10.651
62 AF1 99 10.162
62 AF1 100 9.674
62 AF1 101 9.186
62 AF1 102 9.674
62 AF1 103 10.651
62 AF1 104 11.627
62 AF1 105 13.092
62 AF1 106 14.069
62 AF1 107 14.069
62 AF1 108 14.069
62 AF1 109 13.092
62 AF1 110 12.604
62 AF1 111 11.627
62 AF1 112 10.651
62 AF1 113 10.162
62 AF1 114 8.209
62 AF1 115 6.744
62 AF1 116 5.768
62 AF1 117 5.768
62 AF1 118 6.256
62 AF1 119 7.721
62 AF1 120 8.698
62 AF1 121 8.698
62 AF1 122 7.721
62 AF1 123 6.256
62 AF1 124 5.280
62 AF1 125 3.815
62 AF1 126 2.838
62 AF1 127 1.862
62 AF1 128 1.373
62 AF1 129 2.350
62 AF1 130 3.815
62 AF1 131 5.280
62 AF1 132 7.233
62 AF1 133 7.721
62 AF1 134 8.209
62 AF1 135 8.209
62 AF1 136 7.721
62 AF1 137 7.233
62 AF1 138 7.721
62 AF1 139 7.233
62 AF1 140 7.721
62 AF1 141 8.698
62 AF1 142 9.674
62 AF1 143 10.162
62 AF1 144 10.162
62 AF1 145 9.674
62 AF1 146 8.698
62 AF1 147 8.209
62 AF1 148 7.233
62 AF1 149 7.233
62 AF1 150 6.744
62 AF1 151 6.256
62 AF1 152 6.256
62 AF1 153 5.768
62 AF1 154 4.791
62 AF1 155 3.815
62 AF1 156 3.326
62 AF1 157 3.326
62 AF1 158 4.303
62 AF1 159 5.280
62 AF1 160 6.256
62 AF1 161 6.256
62 AF1 162 4.791
62 AF1 163 3.815
62 AF1 164 3.326
62 AF1 165 4.303
62 AF1 166 5.768
62 AF1 167 6.744
62 AF1 168 7.233
62 AF1 169 7.233
62 AF1 170 7.233
62 AF1 171 7.233
62 AF1 172 7.721
62 AF1 173 7.233
62 AF1 174 6.256
62 AF1 175 4.303
62 AF1 176 1.862
62 AF1 177 0.397
62 AF1 178 -0.580
62 AF1 179 0.397
62 AF1 180 2.838
62 AF1 181 5.768
62 AF1 182 7.721
62 AF1 183 8.209
62 AF1 184 7.233
62 AF1 185 5.280
62 AF1 186 4.303
62 AF1 187 4.303
62 AF1 188 6.256
62 AF1 189 8.209
62 AF1 190 9.674
62 AF1 191 10.651
62 AF1 192 11.139
62 AF1 193 11.139
62 AF1 194 12.604
62 AF1 195 13.580
62 AF1 196 14.557
62 AF1 197 14.557
62 AF1 198 14.069
62 AF1 199 12.115
62 AF1 200 8.698
62 AF1 201 5.280
62 AF1 202 1.862
62 AF1 203 -0.580
62 AF1 204 -2.045
62 AF1 205 -1.068
62 AF1 206 0.885
62 AF1 207 4.303
62 AF1 208 7.721
62 AF1 209 10.162
62 AF1 210 11.139
62 AF1 211 10.651
62 AF1 212 9.186
62 AF1 213 8.209
62 AF1 214 7.233
62 AF1 215 7.721
62 AF1 216 9.186
62 AF1 217 11.139
62 AF1 218 13.580
62 AF1 219 14.557
62 AF1 220 15.045
62 AF1 221 15.045
62 AF1 222 14.069
62 AF1 223 13.580
62 AF1 224 12.604
62 AF1 225 11.139
62 AF1 226 10.651
62 AF1 227 9.674
62 AF1 228 9.674
62 AF1 229 10.162
62 AF1 230 11.139
62 AF1 231 12.115
62 AF1 232 13.092
62 AF1 233 13.092
62 AF1 234 13.092
62 AF1 235 12.604
62 AF1 236 11.627
62 AF1 237 9.674
62 AF1 238 8.209
62 AF1 239 6.744
62 AF1 240 5.280
62 AF1 241 3.326
62 AF1 242 1.373
62 AF1 243 -0.580
62 AF1 244 -1.556
62 AF1 245 -1.068
62 AF1 246 0.397
62 AF1 247 2.838
62 AF1 248 4.791
62 AF1 249 5.768
62 AF1 250 5.768
62 AF1 251 5.768
62 AF1 252 5.768
62 AF1 253 6.256
62 AF1 254 7.233
62 AF1 255 8.209
# AF2 chan 5
62 AF2 0 0.621
62 AF2 1 -1.333
62 AF2 2 -2.797
62 AF2 3 -3.774
62 AF2 4 -3.774
62 AF2 5 -2.309
62 AF2 6 0.132
62 AF2 7 2.574
62 AF2 8 4.038
62 AF2 9 5.015
62 AF2 10 5.015
62 AF2 11 4.038
62 AF2 12 3.550
62 AF2 13 3.062
62 AF2 14 3.062
62 AF2 15 3.550
62 AF2 16 4.038
62 AF2 17 4.038
62 AF2 18 3.550
62 AF2 19 2.085
62 AF2 20 1.109
62 AF2 21 0.132
62 AF2 22 -0.356
62 AF2 23 -0.844
62 AF2 24 -1.333
62 AF2 25 -1.333
62 AF2 26 -0.844
62 AF2 27 0.132
62 AF2 28 2.574
62 AF2 29 5.503
62 AF2 30 7.945
62 AF2 31 9.898
62 AF2 32 10.386
62 AF2 33 9.898
62 AF2 34 7.456
62 AF2 35 4.527
62 AF2 36 1.597
62 AF2 37 -0.356
62 AF2 38 -0.844
62 AF2 39 -0.844
62 AF2 40 -0.356
62 AF2 41 -0.356
62 AF2 42 -0.844
62 AF2 43 -0.844
62 AF2 44 -0.356
62 AF2 45 0.132
62 AF2 46 1.109
62 AF2 47 1.597
62 AF2 48 1.597
62 AF2 49 1.597
62 AF2 50 1.109
62 AF2 51 0.132
62 AF2 52 -0.844
62 AF2 53 -2.309
62 AF2 54 -2.797
62 AF2 55 -3.774
62 AF2 56 -3.774
62 AF2 57 -2.797
62 AF2 58 -1.333
62 AF2 59 -0.356
62 AF2 60 0.621
62 AF2 61 1.109
62 AF2 62 1.109
62 AF2 63 1.597
62 AF2 64 2.085
62 AF2 65 2.574
62 AF2 66 3.062
62 AF2 67 2.574
62 AF2 68 2.574
62 AF2 69 3.062
62 AF2 70 3.062
62 AF2 71 3.062
62 AF2 72 2.085
62 AF2 73 -0.844
62 AF2 74 -3.774
62 AF2 75 -5.239
62 AF2 76 -5.239
62 AF2 77 -3.286
62 AF2 78 -0.356
62 AF2 79 1.597
62 AF2 80 3.062
62 AF2 81 4.038
62 AF2 82 5.503
62 AF2 83 7.456
62 AF2 84 8.921
62 AF2 85 9.410
62 AF2 86 7.945
62 AF2 87 5.503
62 AF2 88 3.550
62 AF2 89 3.062
62 AF2 90 4.038
62 AF2 91 5.015
62 AF2 92 5.015
62 AF2 93 5.015
62 AF2 94 5.015
62 AF2 95 5.992
62 AF2 96 6.968
62 AF2 97 7.456
62 AF2 98 7.456
62 AF2 99 6.968
62 AF2 100 5.992
62 AF2 101 5.503
62 AF2 102 6.480
62 AF2 103 7.945
62 AF2 104 9.898
62 AF2 105 11.363
62 AF2 106 11.851
62 AF2 107 11.363
62 AF2 108 10.874
62 AF2 109 9.898
62 AF2 110 9.410
62 AF2 111 8.433
62 AF2 112 7.456
62 AF2 113 5.503
62 AF2 114 3.550
62 AF2 115 2.085
62 AF2 116 1.109
62 AF2 117 0.621
62 AF2 118 1.109
62 AF2 119 2.085
62 AF2 120 3.062
62 AF2 121 3.062
62 AF2 122 2.574
62 AF2 123 1.597
62 AF2 124 0.132
62 AF2 125 -0.356
62 AF2 126 -0.844
62 AF2 127 0.621
62 AF2 128 1.597
62 AF2 129 3.062
62 AF2 130 4.527
62 AF2 131 5.503
62 AF2 132 5.992
62 AF2 133 6.968
62 AF2 134 6.968
62 AF2 135 7.456
62 AF2 136 6.968
62 AF2 137 5.992
62 AF2 138 5.503
62 AF2 139 5.503
62 AF2 140 6.968
62 AF2 141 8.433
62 AF2 142 9.898
62 AF2 143 10.874
62 AF2 144 9.898
62 AF2 145 7.945
62 AF2 146 5.503
62 AF2 147 3.550
62 AF2 148 2.574
62 AF2 149 2.574
62 AF2 150 2.574
62 AF2 151 3.062
62 AF2 152 3.062
62 AF2 153 3.062
62 AF2 154 1.597
62 AF2 155 0.621
62 AF2 156 -0.356
62 AF2 157 0.132
62 AF2 158 2.085
62 AF2 159 4.038
62 AF2 160 5.503
62 AF2 161 5.015
62 AF2 162 3.062
62 AF2 163 1.109
62 AF2 164 0.132
62 AF2 165 1.597
62 AF2 166 3.062
62 AF2 167 5.015
62 AF2 168 5.503
62 AF2 169 5.503
62 AF2 170 5.015
62 AF2 171 4.527
62 AF2 172 5.503
62 AF2 173 6.968
62 AF2 174 7.456
62 AF2 175 6.480
62 AF2 176 5.015
62 AF2 177 2.574
62 AF2 178 1.109
62 AF2 179 1.597
62 AF2 180 3.550
62 AF2 181 5.992
62 AF2 182 7.945
62 AF2 183 7.945
62 AF2 184 5.992
62 AF2 185 4.038
62 AF2 186 3.062
62 AF2 187 4.038
62 AF2 188 6.480
62 AF2 189 9.410
62 AF2 190 11.363
62 AF2 191 12.339
62 AF2 192 12.828
62 AF2 193 13.316
62 AF2 194 13.804
62 AF2 195 14.781
62 AF2 196 15.757
62 AF2 197 15.757
62 AF2 198 14.781
62 AF2 199 12.828
62 AF2 200 10.386
62 AF2 201 7.456
62 AF2 202 4.038
62 AF2 203 0.132
62 AF2 204 -1.333
62 AF2 205 -0.844
62 AF2 206 1.597
62 AF2 207 5.503
62 AF2 208 9.410
62 AF2 209 11.851
62 AF2 210 12.339
62 AF2 211 11.851
62 AF2 212 10.386
62 AF2 213 9.410
62 AF2 214 8.921
62 AF2 215 9.410
62 AF2 216 9.898
62 AF2 217 11.363
62 AF2 218 13.316
62 AF2 219 14.292
62 AF2 220 14.781
62 AF2 221 14.781
62 AF2 222 13.804
62 AF2 223 12.828
62 AF2 224 11.363
62 AF2 225 10.386
62 AF2 226 8.921
62 AF2 227 7.945
62 AF2 228 6.968
62 AF2 229 7.456
62 AF2 230 8.433
62 AF2 231 10.386
62 AF2 232 12.339
62 AF2 233 13.804
62 AF2 234 14.781
62 AF2 235 14.292
62 AF2 236 13.316
62 AF2 237 11.851
62 AF2 238 9.898
62 AF2 239 8.433
62 AF2 240 6.480
62 AF2 241 5.015
62 AF2 242 3.062
62 AF2 243 1.597
62 AF2 244 1.109
62 AF2 245 2.085
62 AF2 246 3.550
62 AF2 247 5.503
62 AF2 248 6.968
62 AF2 249 7.456
62 AF2 250 7.456
62 AF2 251 6.968
62 AF2 252 6.968
62 AF2 253 7.456
62 AF2 254 7.945
62 AF2 255 8.433
# FZ chan 6
62 FZ 0 -1.353
62 FZ 1 -1.841
62 FZ 2 -3.306
62 FZ 3 -4.283
62 FZ 4 -4.283
62 FZ 5 -3.306
62 FZ 6 -1.841
62 FZ 7 0.600
62 FZ 8 2.553
62 FZ 9 3.530
62 FZ 10 4.506
62 FZ 11 4.506
62 FZ 12 4.018
62 FZ 13 3.530
62 FZ 14 3.042
62 FZ 15 2.553
62 FZ 16 2.553
62 FZ 17 2.065
62 FZ 18 1.088
62 FZ 19 0.112
62 FZ 20 -1.353
62 FZ 21 -1.841
62 FZ 22 -1.841
62 FZ 23 -1.353
62 FZ 24 -0.865
62 FZ 25 -0.376
62 FZ 26 0.600
62 FZ 27 1.577
62 FZ 28 3.530
62 FZ 29 5.483
62 FZ 30 6.948
62 FZ 31 7.436
62 FZ 32 7.436
62 FZ 33 6.948
62 FZ 34 6.460
62 FZ 35 4.995
62 FZ 36 3.530
62 FZ 37 2.553
62 FZ 38 1.577
62 FZ 39 0.112
62 FZ 40 -0.376
62 FZ 41 -0.865
62 FZ 42 -0.865
62 FZ 43 -0.865
62 FZ 44 -0.376
62 FZ 45 0.600
62 FZ 46 1.577
62 FZ 47 2.553
62 FZ 48 3.042
62 FZ 49 3.530
62 FZ 50 3.530
62 FZ 51 2.553
62 FZ 52 1.577
62 FZ 53 0.600
62 FZ 54 0.112
62 FZ 55 0.112
62 FZ 56 0.600
62 FZ 57 1.577
62 FZ 58 2.065
62 FZ 59 3.042
62 FZ 60 3.530
62 FZ 61 3.042
62 FZ 62 2.553
62 FZ 63 2.065
62 FZ 64 2.065
62 FZ 65 2.553
62 FZ 66 3.042
62 FZ 67 3.530
62 FZ 68 3.530
62 FZ 69 3.530
62 FZ 70 3.530
62 FZ 71 3.042
62 FZ 72 1.577
62 FZ 73 -0.376
62 FZ 74 -2.330
62 FZ 75 -3.794
62 FZ 76 -3.306
62 FZ 77 -2.330
62 FZ 78 -0.376
62 FZ 79 1.577
62 FZ 80 2.553
62 FZ 81 3.530
62 FZ 82 4.506
62 FZ 83 5.971
62 FZ 84 6.948
62 FZ 85 6.948
62 FZ 86 6.460
62 FZ 87 4.995
62 FZ 88 4.018
62 FZ 89 3.530
62 FZ 90 4.018
62 FZ 91 4.506
62 FZ 92 5.483
62 FZ 93 5.971
62 FZ 94 6.460
62 FZ 95 6.948
62 FZ 96 7.436
62 FZ 97 7.436
62 FZ 98 7.436
62 FZ 99 6.460
62 FZ 100 5.483
62 FZ 101 5.483
62 FZ 102 5.483
62 FZ 103 6.460
62 FZ 104 7.924
62 FZ 105 8.901
62 FZ 106 9.389
62 FZ 107 9.389
62 FZ 108 8.901
62 FZ 109 7.924
62 FZ 110 6.948
62 FZ 111 5.971
62 FZ 112 5.483
62 FZ 113 4.506
62 FZ 114 3.042
62 FZ 115 2.065
62 FZ 116 1.577
62 FZ 117 1.577
62 FZ 118 2.553
62 FZ 119 3.530
62 FZ 120 4.018
62 FZ 121 3.530
62 FZ 122 2.553
62 FZ 123 1.577
62 FZ 124 0.600
62 FZ 125 0.112
62 FZ 126 0.600
62 FZ 127 1.577
62 FZ 128 2.065
62 FZ 129 2.553
62 FZ 130 3.530
62 FZ 131 4.018
62 FZ 132 4.506
62 FZ 133 4.995
62 FZ 134 5.483
62 FZ 135 4.995
62 FZ 136 4.506
62 FZ 137 4.506
62 FZ 138 4.506
62 FZ 139 5.483
62 FZ 140 6.460
62 FZ 141 7.436
62 FZ 142 8.413
62 FZ 143 7.924
62 FZ 144 6.460
62 FZ 145 5.483
62 FZ 146 4.506
62 FZ 147 4.018
62 FZ 148 4.018
62 FZ 149 4.018
62 FZ 150 3.042
62 FZ 151 2.553
62 FZ 152 1.088
62 FZ 153 0.112
62 FZ 154 -1.353
62 FZ 155 -1.841
62 FZ 156 -2.330
62 FZ 157 -1.353
62 FZ 158 -0.376
62 FZ 159 1.088
62 FZ 160 2.065
62 FZ 161 1.577
62 FZ 162 0.600
62 FZ 163 -0.376
62 FZ 164 -0.865
62 FZ 165 -0.376
62 FZ 166 0.600
62 FZ 167 1.577
62 FZ 168 2.065
62 FZ 169 2.065
62 FZ 170 2.065
62 FZ 171 2.553
62 FZ 172 3.530
62 FZ 173 3.530
62 FZ 174 3.530
62 FZ 175 2.553
62 FZ 176 1.088
62 FZ 177 -0.376
62 FZ 178 -1.353
62 FZ 179 -0.376
62 FZ 180 1.088
62 FZ 181 2.553
62 FZ 182 4.018
62 FZ 183 4.506
62 FZ 184 3.530
62 FZ 185 2.553
62 FZ 186 2.553
62 FZ 187 3.530
62 FZ 188 4.995
62 FZ 189 5.971
62 FZ 190 6.948
62 FZ 191 6.948
62 FZ 192 6.948
62 FZ 193 7.436
62 FZ 194 7.924
62 FZ 195 8.901
62 FZ 196 9.389
62 FZ 197 9.389
62 FZ 198 8.413
62 FZ 199 6.948
62 FZ 200 4.506
62 FZ 201 2.065
62 FZ 202 -0.865
62 FZ 203 -2.330
62 FZ 204 -3.306
62 FZ 205 -2.818
62 FZ 206 -0.865
62 FZ 207 2.553
62 FZ 208 5.971
62 FZ 209 8.413
62 FZ 210 9.389
62 FZ 211 8.901
62 FZ 212 7.924
62 FZ 213 6.460
62 FZ 214 5.483
62 FZ 215 5.971
62 FZ 216 6.948
62 FZ 217 8.413
62 FZ 218 9.878
62 FZ 219 11.342
62 FZ 220 11.831
62 FZ 221 11.342
62 FZ 222 10.366
62 FZ 223 9.389
62 FZ 224 8.413
62 FZ 225 7.436
62 FZ 226 6.948
62 FZ 227 6.460
62 FZ 228 6.460
62 FZ 229 6.460
62 FZ 230 6.948
62 FZ 231 7.436
62 FZ 232 7.924
62 FZ 233 8.901
62 FZ 234 9.389
62 FZ 235 9.389
62 FZ 236 8.413
62 FZ 237 6.460
62 FZ 238 4.506
62 FZ 239 3.042
62 FZ 240 2.065
62 FZ 241 1.088
62 FZ 242 -0.376
62 FZ 243 -1.353
62 FZ 244 -2.330
62 FZ 245 -2.330
62 FZ 246 -1.353
62 FZ 247 0.112
62 FZ 248 1.577
62 FZ 249 2.553
62 FZ 250 2.553
62 FZ 251 3.042
62 FZ 252 3.042
62 FZ 253 3.530
62 FZ 254 4.018
62 FZ 255 4.506
# F4 chan 7
62 F4 0 2.116
62 F4 1 0.651
62 F4 2 -1.302
62 F4 3 -1.790
62 F4 4 -1.790
62 F4 5 -1.302
62 F4 6 -0.326
62 F4 7 0.651
62 F4 8 2.116
62 F4 9 3.092
62 F4 10 4.069
62 F4 11 4.069
62 F4 12 3.581
62 F4 13 2.604
62 F4 14 2.116
62 F4 15 2.604
62 F4 16 3.581
62 F4 17 4.557
62 F4 18 4.557
62 F4 19 3.581
62 F4 20 2.116
62 F4 21 1.139
62 F4 22 0.651
62 F4 23 0.651
62 F4 24 0.651
62 F4 25 0.651
62 F4 26 0.651
62 F4 27 1.139
62 F4 28 3.092
62 F4 29 5.046
62 F4 30 6.510
62 F4 31 7.975
62 F4 32 7.975
62 F4 33 6.999
62 F4 34 5.046
62 F4 35 2.604
62 F4 36 1.139
62 F4 37 0.163
62 F4 38 -0.326
62 F4 39 0.163
62 F4 40 0.651
62 F4 41 1.628
62 F4 42 1.628
62 F4 43 1.628
62 F4 44 1.628
62 F4 45 1.139
62 F4 46 1.139
62 F4 47 1.139
62 F4 48 1.139
62 F4 49 1.139
62 F4 50 0.651
62 F4 51 0.163
62 F4 52 -0.814
62 F4 53 -1.302
62 F4 54 -2.279
62 F4 55 -2.767
62 F4 56 -2.767
62 F4 57 -2.279
62 F4 58 -1.790
62 F4 59 -0.814
62 F4 60 0.163
62 F4 61 0.163
62 F4 62 0.651
62 F4 63 1.139
62 F4 64 2.116
62 F4 65 3.581
62 F4 66 4.069
62 F4 67 4.069
62 F4 68 3.581
62 F4 69 3.581
62 F4 70 3.581
62 F4 71 2.604
62 F4 72 1.139
62 F4 73 -1.302
62 F4 74 -3.743
62 F4 75 -4.232
62 F4 76 -3.255
62 F4 77 -1.302
62 F4 78 1.139
62 F4 79 3.092
62 F4 80 3.581
62 F4 81 4.557
62 F4 82 6.022
62 F4 83 7.487
62 F4 84 8.952
62 F4 85 8.464
62 F4 86 6.999
62 F4 87 5.046
62 F4 88 4.069
62 F4 89 4.069
62 F4 90 4.557
62 F4 91 4.557
62 F4 92 4.557
62 F4 93 4.557
62 F4 94 5.046
62 F4 95 6.022
62 F4 96 6.999
62 F4 97 7.487
62 F4 98 6.999
62 F4 99 6.022
62 F4 100 5.046
62 F4 101 5.046
62 F4 102 5.534
62 F4 103 6.999
62 F4 104 8.952
62 F4 105 9.928
62 F4 106 10.417
62 F4 107 10.417
62 F4 108 8.952
62 F4 109 7.975
62 F4 110 6.999
62 F4 111 6.022
62 F4 112 5.046
62 F4 113 4.069
62 F4 114 2.604
62 F4 115 1.139
62 F4 116 -0.326
62 F4 117 -1.302
62 F4 118 -0.814
62 F4 119 -0.326
62 F4 120 0.651
62 F4 121 0.651
62 F4 122 -0.326
62 F4 123 -1.790
62 F4 124 -2.767
62 F4 125 -2.767
62 F4 126 -1.790
62 F4 127 0.163
62 F4 128 2.116
62 F4 129 3.092
62 F4 130 3.581
62 F4 131 4.069
62 F4 132 4.557
62 F4 133 5.534
62 F4 134 6.022
62 F4 135 6.022
62 F4 136 5.534
62 F4 137 4.557
62 F4 138 3.581
62 F4 139 3.581
62 F4 140 5.046
62 F4 141 6.510
62 F4 142 7.975
62 F4 143 7.975
62 F4 144 6.022
62 F4 145 4.069
62 F4 146 1.139
62 F4 147 -0.326
62 F4 148 -1.302
62 F4 149 -0.814
62 F4 150 -0.326
62 F4 151 0.163
62 F4 152 0.651
62 F4 153 -0.326
62 F4 154 -1.302
62 F4 155 -2.279
62 F4 156 -2.767
62 F4 157 -2.279
62 F4 158 -0.326
62 F4 159 1.628
62 F4 160 2.116
62 F4 161 1.139
62 F4 162 -0.814
62 F4 163 -3.255
62 F4 164 -3.743
62 F4 165 -2.767
62 F4 166 -0.814
62 F4 167 1.628
62 F4 168 3.092
62 F4 169 2.604
62 F4 170 2.116
62 F4 171 1.628
62 F4 172 2.604
62 F4 173 4.557
62 F4 174 6.022
62 F4 175 6.022
62 F4 176 4.557
62 F4 177 2.604
62 F4 178 1.628
62 F4 179 2.116
62 F4 180 3.581
62 F4 181 5.534
62 F4 182 6.022
62 F4 183 4.557
62 F4 184 2.604
62 F4 185 1.139
62 F4 186 1.628
62 F4 187 3.092
62 F4 188 6.022
62 F4 189 7.975
62 F4 190 8.952
62 F4 191 9.928
62 F4 192 10.417
62 F4 193 10.905
62 F4 194 11.393
62 F4 195 11.882
62 F4 196 11.882
62 F4 197 11.882
62 F4 198 11.393
62 F4 199 9.928
62 F4 200 7.975
62 F4 201 4.557
62 F4 202 1.139
62 F4 203 -1.790
62 F4 204 -3.255
62 F4 205 -2.279
62 F4 206 0.651
62 F4 207 5.046
62 F4 208 8.952
62 F4 209 10.905
62 F4 210 11.882
62 F4 211 10.417
62 F4 212 8.464
62 F4 213 6.022
62 F4 214 5.046
62 F4 215 5.046
62 F4 216 6.510
62 F4 217 8.464
62 F4 218 10.417
62 F4 219 11.882
62 F4 220 12.370
62 F4 221 11.393
62 F4 222 9.928
62 F4 223 8.464
62 F4 224 6.999
62 F4 225 5.534
62 F4 226 4.069
62 F4 227 3.092
62 F4 228 2.604
62 F4 229 3.581
62 F4 230 5.046
62 F4 231 6.999
62 F4 232 9.440
62 F4 233 11.393
62 F4 234 12.858
62 F4 235 13.835
62 F4 236 12.858
62 F4 237 10.905
62 F4 238 8.952
62 F4 239 6.510
62 F4 240 4.069
62 F4 241 2.604
62 F4 242 2.116
62 F4 243 2.116
62 F4 244 2.116
62 F4 245 3.092
62 F4 246 4.557
62 F4 247 5.046
62 F4 248 5.534
62 F4 249 5.046
62 F4 250 4.069
62 F4 251 3.581
62 F4 252 3.581
62 F4 253 4.557
62 F4 254 5.046
62 F4 255 5.534
# F3 chan 8
62 F3 0 -2.747
62 F3 1 -4.700
62 F3 2 -6.653
62 F3 3 -8.118
62 F3 4 -7.629
62 F3 5 -4.700
62 F3 6 -0.793
62 F3 7 3.113
62 F3 8 5.554
62 F3 9 7.019
62 F3 10 6.531
62 F3 11 5.066
62 F3 12 3.601
62 F3 13 2.136
62 F3 14 1.648
62 F3 15 1.160
62 F3 16 0.671
62 F3 17 -0.305
62 F3 18 -1.770
62 F3 19 -3.235
62 F3 20 -5.188
62 F3 21 -6.165
62 F3 22 -6.653
62 F3 23 -7.141
62 F3 24 -6.653
62 F3 25 -5.188
62 F3 26 -2.258
62 F3 27 1.160
62 F3 28 4.578
62 F3 29 6.042
62 F3 30 7.019
62 F3 31 6.531
62 F3 32 5.554
62 F3 33 4.578
62 F3 34 3.601
62 F3 35 2.625
62 F3 36 1.648
62 F3 37 -0.305
62 F3 38 -1.770
62 F3 39 -2.747
62 F3 40 -4.211
62 F3 41 -5.188
62 F3 42 -5.676
62 F3 43 -5.188
62 F3 44 -4.211
62 F3 45 -2.258
62 F3 46 0.183
62 F3 47 2.136
62 F3 48 3.601
62 F3 49 4.578
62 F3 50 4.578
62 F3 51 4.578
62 F3 52 3.601
62 F3 53 3.113
62 F3 54 2.625
62 F3 55 2.625
62 F3 56 3.113
62 F3 57 3.601
62 F3 58 4.578
62 F3 59 5.066
62 F3 60 4.578
62 F3 61 4.578
62 F3 62 3.601
62 F3 63 4.089
62 F3 64 4.578
62 F3 65 6.042
62 F3 66 7.019
62 F3 67 7.019
62 F3 68 6.531
62 F3 69 5.554
62 F3 70 4.089
62 F3 71 2.625
62 F3 72 0.671
62 F3 73 -0.793
62 F3 74 -2.747
62 F3 75 -3.235
62 F3 76 -2.258
62 F3 77 -0.793
62 F3 78 0.671
62 F3 79 1.648
62 F3 80 3.113
62 F3 81 5.066
62 F3 82 7.019
62 F3 83 9.949
62 F3 84 11.902
62 F3 85 12.878
62 F3 86 11.414
62 F3 87 8.972
62 F3 88 7.019
62 F3 89 5.554
62 F3 90 5.554
62 F3 91 6.531
62 F3 92 7.507
62 F3 93 7.996
62 F3 94 8.972
62 F3 95 9.949
62 F3 96 10.925
62 F3 97 11.902
62 F3 98 12.878
62 F3 99 12.878
62 F3 100 12.390
62 F3 101 11.902
62 F3 102 11.414
62 F3 103 11.414
62 F3 104 12.390
62 F3 105 13.367
62 F3 106 13.855
62 F3 107 14.343
62 F3 108 13.855
62 F3 109 13.367
62 F3 110 12.390
62 F3 111 11.414
62 F3 112 11.414
62 F3 113 10.925
62 F3 114 9.460
62 F3 115 8.484
62 F3 116 7.507
62 F3 117 7.019
62 F3 118 7.507
62 F3 119 8.484
62 F3 120 8.972
62 F3 121 8.972
62 F3 122 7.996
62 F3 123 7.507
62 F3 124 6.042
62 F3 125 5.066
62 F3 126 3.601
62 F3 127 2.136
62 F3 128 1.648
62 F3 129 2.136
62 F3 130 4.089
62 F3 131 6.042
62 F3 132 7.507
62 F3 133 8.484
62 F3 134 7.507
62 F3 135 7.019
62 F3 136 7.019
62 F3 137 7.019
62 F3 138 7.507
62 F3 139 7.996
62 F3 140 7.996
62 F3 141 7.996
62 F3 142 8.484
62 F3 143 8.972
62 F3 144 9.460
62 F3 145 9.949
62 F3 146 9.949
62 F3 147 9.949
62 F3 148 8.972
62 F3 149 7.996
62 F3 150 7.507
62 F3 151 7.019
62 F3 152 7.019
62 F3 153 6.531
62 F3 154 5.554
62 F3 155 5.066
62 F3 156 4.089
62 F3 157 3.601
62 F3 158 4.089
62 F3 159 5.066
62 F3 160 5.554
62 F3 161 5.066
62 F3 162 4.578
62 F3 163 3.601
62 F3 164 4.089
62 F3 165 5.554
62 F3 166 7.019
62 F3 167 8.484
62 F3 168 8.972
62 F3 169 8.972
62 F3 170 8.484
62 F3 171 7.996
62 F3 172 7.507
62 F3 173 6.531
62 F3 174 5.554
62 F3 175 3.601
62 F3 176 1.648
62 F3 177 0.671
62 F3 178 0.183
62 F3 179 1.648
62 F3 180 3.601
62 F3 181 6.042
62 F3 182 7.996
62 F3 183 8.484
62 F3 184 7.996
62 F3 185 6.531
62 F3 186 6.042
62 F3 187 6.531
62 F3 188 7.996
62 F3 189 9.460
62 F3 190 10.437
62 F3 191 10.437
62 F3 192 9.949
62 F3 193 9.949
62 F3 194 10.925
62 F3 195 12.390
62 F3 196 13.367
62 F3 197 13.367
62 F3 198 11.902
62 F3 199 8.972
62 F3 200 5.554
62 F3 201 2.625
62 F3 202 0.671
62 F3 203 -0.793
62 F3 204 -1.770
62 F3 205 -0.793
62 F3 206 1.160
62 F3 207 4.089
62 F3 208 7.019
62 F3 209 8.972
62 F3 210 9.949
62 F3 211 9.460
62 F3 212 8.484
62 F3 213 7.996
62 F3 214 7.507
62 F3 215 7.996
62 F3 216 8.972
62 F3 217 10.437
62 F3 218 11.414
62 F3 219 12.390
62 F3 220 12.878
62 F3 221 12.390
62 F3 222 12.390
62 F3 223 11.414
62 F3 224 10.437
62 F3 225 8.972
62 F3 226 7.996
62 F3 227 7.507
62 F3 228 7.507
62 F3 229 8.484
62 F3 230 9.460
62 F3 231 10.925
62 F3 232 11.414
62 F3 233 11.414
62 F3 234 10.925
62 F3 235 9.949
62 F3 236 8.972
62 F3 237 7.507
62 F3 238 6.531
62 F3 239 5.066
62 F3 240 4.089
62 F3 241 2.625
62 F3 242 0.671
62 F3 243 -1.282
62 F3 244 -2.258
62 F3 245 -2.747
62 F3 246 -1.282
62 F3 247 0.183
62 F3 248 2.136
62 F3 249 3.601
62 F3 250 4.089
62 F3 251 4.089
62 F3 252 4.089
62 F3 253 4.578
62 F3 254 5.066
62 F3 255 6.531
# FC6 chan 9
62 FC6 0 3.774
62 FC6 1 3.774
62 FC6 2 3.774
62 FC6 3 3.286
62 FC6 4 3.286
62 FC6 5 3.286
62 FC6 6 2.309
62 FC6 7 1.821
62 FC6 8 1.333
62 FC6 9 1.821
62 FC6 10 2.797
62 FC6 11 4.262
62 FC6 12 5.239
62 FC6 13 4.751
62 FC6 14 4.751
62 FC6 15 4.751
62 FC6 16 6.215
62 FC6 17 7.680
62 FC6 18 8.657
62 FC6 19 8.657
62 FC6 20 7.680
62 FC6 21 6.215
62 FC6 22 5.239
62 FC6 23 4.751
62 FC6 24 4.751
62 FC6 25 4.262
62 FC6 26 4.262
62 FC6 27 4.262
62 FC6 28 4.751
62 FC6 29 5.727
62 FC6 30 6.704
62 FC6 31 7.680
62 FC6 32 7.192
62 FC6 33 6.215
62 FC6 34 4.262
62 FC6 35 2.797
62 FC6 36 2.309
62 FC6 37 2.309
62 FC6 38 3.286
62 FC6 39 4.262
62 FC6 40 4.751
62 FC6 41 5.239
62 FC6 42 5.239
62 FC6 43 5.239
62 FC6 44 4.751
62 FC6 45 3.286
62 FC6 46 1.333
62 FC6 47 -0.132
62 FC6 48 -0.621
62 FC6 49 -1.109
62 FC6 50 -1.109
62 FC6 51 -1.597
62 FC6 52 -2.574
62 FC6 53 -3.062
62 FC6 54 -3.550
62 FC6 55 -3.062
62 FC6 56 -2.574
62 FC6 57 -2.085
62 FC6 58 -2.085
62 FC6 59 -2.085
62 FC6 60 -1.109
62 FC6 61 -0.132
62 FC6 62 1.821
62 FC6 63 3.286
62 FC6 64 3.774
62 FC6 65 3.286
62 FC6 66 2.797
62 FC6 67 2.797
62 FC6 68 3.774
62 FC6 69 4.751
62 FC6 70 5.239
62 FC6 71 4.262
62 FC6 72 1.333
62 FC6 73 -1.597
62 FC6 74 -3.062
62 FC6 75 -2.574
62 FC6 76 -0.132
62 FC6 77 2.797
62 FC6 78 4.751
62 FC6 79 6.215
62 FC6 80 6.704
62 FC6 81 7.192
62 FC6 82 8.169
62 FC6 83 9.145
62 FC6 84 9.633
62 FC6 85 9.633
62 FC6 86 8.657
62 FC6 87 7.680
62 FC6 88 6.704
62 FC6 89 6.215
62 FC6 90 5.239
62 FC6 91 4.751
62 FC6 92 5.239
62 FC6 93 5.727
62 FC6 94 6.215
62 FC6 95 6.704
62 FC6 96 6.704
62 FC6 97 6.704
62 FC6 98 7.192
62 FC6 99 7.680
62 FC6 100 8.657
62 FC6 101 9.145
62 FC6 102 9.633
62 FC6 103 10.122
62 FC6 104 11.098
62 FC6 105 12.075
62 FC6 106 13.051
62 FC6 107 13.051
62 FC6 108 12.075
62 FC6 109 10.122
62 FC6 110 9.145
62 FC6 111 8.169
62 FC6 112 8.169
62 FC6 113 8.657
62 FC6 114 8.169
62 FC6 115 6.704
62 FC6 116 4.751
62 FC6 117 2.797
62 FC6 118 1.333
62 FC6 119 0.844
62 FC6 120 1.333
62 FC6 121 0.844
62 FC6 122 0.356
62 FC6 123 -0.621
62 FC6 124 -0.621
62 FC6 125 -0.621
62 FC6 126 0.844
62 FC6 127 3.286
62 FC6 128 5.239
62 FC6 129 5.727
62 FC6 130 6.215
62 FC6 131 6.215
62 FC6 132 6.704
62 FC6 133 7.680
62 FC6 134 8.169
62 FC6 135 7.192
62 FC6 136 5.239
62 FC6 137 2.797
62 FC6 138 1.333
62 FC6 139 0.844
62 FC6 140 1.333
62 FC6 141 2.309
62 FC6 142 2.797
62 FC6 143 3.286
62 FC6 144 3.286
62 FC6 145 2.797
62 FC6 146 2.309
62 FC6 147 1.333
62 FC6 148 0.844
62 FC6 149 0.356
62 FC6 150 1.333
62 FC6 151 1.821
62 FC6 152 1.821
62 FC6 153 1.333
62 FC6 154 1.333
62 FC6 155 0.844
62 FC6 156 1.333
62 FC6 157 2.797
62 FC6 158 4.262
62 FC6 159 5.239
62 FC6 160 4.751
62 FC6 161 2.797
62 FC6 162 -0.621
62 FC6 163 -3.062
62 FC6 164 -3.550
62 FC6 165 -1.597
62 FC6 166 1.821
62 FC6 167 5.239
62 FC6 168 6.704
62 FC6 169 6.704
62 FC6 170 5.727
62 FC6 171 5.239
62 FC6 172 5.727
62 FC6 173 7.192
62 FC6 174 8.169
62 FC6 175 8.657
62 FC6 176 8.169
62 FC6 177 6.704
62 FC6 178 5.727
62 FC6 179 5.727
62 FC6 180 6.704
62 FC6 181 7.192
62 FC6 182 7.680
62 FC6 183 6.215
62 FC6 184 4.262
62 FC6 185 2.797
62 FC6 186 2.309
62 FC6 187 3.286
62 FC6 188 5.239
62 FC6 189 7.680
62 FC6 190 9.633
62 FC6 191 11.587
62 FC6 192 13.051
62 FC6 193 13.540
62 FC6 194 13.540
62 FC6 195 13.051
62 FC6 196 12.563
62 FC6 197 12.075
62 FC6 198 11.587
62 FC6 199 10.610
62 FC6 200 8.657
62 FC6 201 6.215
62 FC6 202 3.774
62 FC6 203 2.309
62 FC6 204 3.286
62 FC6 205 5.239
62 FC6 206 8.657
62 FC6 207 12.075
62 FC6 208 13.540
62 FC6 209 14.028
62 FC6 210 13.051
62 FC6 211 11.098
62 FC6 212 9.145
62 FC6 213 7.192
62 FC6 214 6.215
62 FC6 215 6.215
62 FC6 216 7.680
62 FC6 217 9.633
62 FC6 218 11.587
62 FC6 219 12.563
62 FC6 220 13.051
62 FC6 221 12.075
62 FC6 222 10.610
62 FC6 223 9.145
62 FC6 224 8.169
62 FC6 225 6.704
62 FC6 226 4.751
62 FC6 227 3.286
62 FC6 228 2.309
62 FC6 229 2.797
62 FC6 230 4.751
62 FC6 231 8.169
62 FC6 232 11.587
62 FC6 233 14.516
62 FC6 234 16.469
62 FC6 235 16.958
62 FC6 236 16.469
62 FC6 237 15.004
62 FC6 238 13.540
62 FC6 239 11.587
62 FC6 240 9.633
62 FC6 241 8.657
62 FC6 242 8.657
62 FC6 243 8.657
62 FC6 244 9.145
62 FC6 245 10.122
62 FC6 246 11.098
62 FC6 247 11.098
62 FC6 248 10.610
62 FC6 249 9.633
62 FC6 250 8.169
62 FC6 251 6.704
62 FC6 252 5.727
62 FC6 253 5.727
62 FC6 254 5.239
62 FC6 255 5.239
# FC5 chan 10
62 FC5 0 -1.801
62 FC5 1 -4.242
62 FC5 2 -5.219
62 FC5 3 -6.195
62 FC5 4 -4.730
62 FC5 5 -1.312
62 FC5 6 2.594
62 FC5 7 6.500
62 FC5 8 8.942
62 FC5 9 9.430
62 FC5 10 7.965
62 FC5 11 6.012
62 FC5 12 4.059
62 FC5 13 2.106
62 FC5 14 1.617
62 FC5 15 2.106
62 FC5 16 2.106
62 FC5 17 1.617
62 FC5 18 0.641
62 FC5 19 -0.824
62 FC5 20 -2.777
62 FC5 21 -4.730
62 FC5 22 -5.707
62 FC5 23 -6.683
62 FC5 24 -6.683
62 FC5 25 -5.219
62 FC5 26 -2.289
62 FC5 27 1.129
62 FC5 28 4.059
62 FC5 29 6.500
62 FC5 30 7.477
62 FC5 31 6.989
62 FC5 32 6.012
62 FC5 33 4.547
62 FC5 34 2.594
62 FC5 35 1.129
62 FC5 36 0.153
62 FC5 37 -0.336
62 FC5 38 -0.824
62 FC5 39 -0.824
62 FC5 40 -1.312
62 FC5 41 -2.289
62 FC5 42 -3.265
62 FC5 43 -2.777
62 FC5 44 -1.312
62 FC5 45 0.153
62 FC5 46 1.617
62 FC5 47 2.594
62 FC5 48 3.571
62 FC5 49 5.035
62 FC5 50 6.500
62 FC5 51 6.989
62 FC5 52 6.989
62 FC5 53 6.500
62 FC5 54 5.035
62 FC5 55 4.547
62 FC5 56 4.547
62 FC5 57 6.012
62 FC5 58 6.989
62 FC5 59 7.477
62 FC5 60 7.477
62 FC5 61 6.989
62 FC5 62 6.989
62 FC5 63 6.500
62 FC5 64 6.500
62 FC5 65 6.012
62 FC5 66 6.012
62 FC5 67 6.012
62 FC5 68 6.012
62 FC5 69 6.500
62 FC5 70 6.012
62 FC5 71 4.547
62 FC5 72 2.106
62 FC5 73 0.641
62 FC5 74 -0.336
62 FC5 75 -0.336
62 FC5 76 1.129
62 FC5 77 2.594
62 FC5 78 3.082
62 FC5 79 4.059
62 FC5 80 5.035
62 FC5 81 7.965
62 FC5 82 11.871
62 FC5 83 16.266
62 FC5 84 19.196
62 FC5 85 19.684
62 FC5 86 17.731
62 FC5 87 13.824
62 FC5 88 10.895
62 FC5 89 9.430
62 FC5 90 8.942
62 FC5 91 8.942
62 FC5 92 7.965
62 FC5 93 6.989
62 FC5 94 6.500
62 FC5 95 7.477
62 FC5 96 9.430
62 FC5 97 11.871
62 FC5 98 14.313
62 FC5 99 15.778
62 FC5 100 16.266
62 FC5 101 16.266
62 FC5 102 16.266
62 FC5 103 16.754
62 FC5 104 17.731
62 FC5 105 19.196
62 FC5 106 20.172
62 FC5 107 20.660
62 FC5 108 20.172
62 FC5 109 18.707
62 FC5 110 17.731
62 FC5 111 17.242
62 FC5 112 17.242
62 FC5 113 16.754
62 FC5 114 15.289
62 FC5 115 12.848
62 FC5 116 10.895
62 FC5 117 9.918
62 FC5 118 9.918
62 FC5 119 10.406
62 FC5 120 10.895
62 FC5 121 10.895
62 FC5 122 10.406
62 FC5 123 10.406
62 FC5 124 9.430
62 FC5 125 7.965
62 FC5 126 5.524
62 FC5 127 3.082
62 FC5 128 1.617
62 FC5 129 2.594
62 FC5 130 5.524
62 FC5 131 8.942
62 FC5 132 10.895
62 FC5 133 10.406
62 FC5 134 8.942
62 FC5 135 7.965
62 FC5 136 7.477
62 FC5 137 7.965
62 FC5 138 7.965
62 FC5 139 7.477
62 FC5 140 6.500
62 FC5 141 5.524
62 FC5 142 6.500
62 FC5 143 8.942
62 FC5 144 11.383
62 FC5 145 13.336
62 FC5 146 13.824
62 FC5 147 13.336
62 FC5 148 11.871
62 FC5 149 10.406
62 FC5 150 9.430
62 FC5 151 9.430
62 FC5 152 9.430
62 FC5 153 9.918
62 FC5 154 10.406
62 FC5 155 9.918
62 FC5 156 8.942
62 FC5 157 8.453
62 FC5 158 7.965
62 FC5 159 8.453
62 FC5 160 8.453
62 FC5 161 7.965
62 FC5 162 7.965
62 FC5 163 7.965
62 FC5 164 8.942
62 FC5 165 10.895
62 FC5 166 12.848
62 FC5 167 14.801
62 FC5 168 14.801
62 FC5 169 14.313
62 FC5 170 13.336
62 FC5 171 12.360
62 FC5 172 11.383
62 FC5 173 10.406
62 FC5 174 9.430
62 FC5 175 7.965
62 FC5 176 6.989
62 FC5 177 6.500
62 FC5 178 6.989
62 FC5 179 7.477
62 FC5 180 8.942
62 FC5 181 9.918
62 FC5 182 10.895
62 FC5 183 10.406
62 FC5 184 9.430
62 FC5 185 7.965
62 FC5 186 7.477
62 FC5 187 7.477
62 FC5 188 8.453
62 FC5 189 9.918
62 FC5 190 11.383
62 FC5 191 12.360
62 FC5 192 12.360
62 FC5 193 12.848
62 FC5 194 13.824
62 FC5 195 14.801
62 FC5 196 16.754
62 FC5 197 16.754
62 FC5 198 15.778
62 FC5 199 12.848
62 FC5 200 9.430
62 FC5 201 6.012
62 FC5 202 3.571
62 FC5 203 2.106
62 FC5 204 1.617
62 FC5 205 1.617
62 FC5 206 2.594
62 FC5 207 5.035
62 FC5 208 7.965
62 FC5 209 10.406
62 FC5 210 10.895
62 FC5 211 11.383
62 FC5 212 10.895
62 FC5 213 9.918
62 FC5 214 9.430
62 FC5 215 8.942
62 FC5 216 9.430
62 FC5 217 9.918
62 FC5 218 11.383
62 FC5 219 12.360
62 FC5 220 12.848
62 FC5 221 12.360
62 FC5 222 11.383
62 FC5 223 10.406
62 FC5 224 9.918
62 FC5 225 8.942
62 FC5 226 8.942
62 FC5 227 8.453
62 FC5 228 8.942
62 FC5 229 9.918
62 FC5 230 10.895
62 FC5 231 12.360
62 FC5 232 13.824
62 FC5 233 14.801
62 FC5 234 14.313
62 FC5 235 13.336
62 FC5 236 11.871
62 FC5 237 9.918
62 FC5 238 8.942
62 FC5 239 7.477
62 FC5 240 6.500
62 FC5 241 5.524
62 FC5 242 4.059
62 FC5 243 3.082
62 FC5 244 3.082
62 FC5 245 4.059
62 FC5 246 6.012
62 FC5 247 7.477
62 FC5 248 8.453
62 FC5 249 7.965
62 FC5 250 7.477
62 FC5 251 6.989
62 FC5 252 6.500
62 FC5 253 7.477
62 FC5 254 7.965
62 FC5 255 8.942
# FC2 chan 11
62 FC2 0 1.526
62 FC2 1 1.526
62 FC2 2 1.038
62 FC2 3 0.549
62 FC2 4 0.061
62 FC2 5 0.061
62 FC2 6 0.061
62 FC2 7 0.061
62 FC2 8 0.061
62 FC2 9 0.549
62 FC2 10 1.038
62 FC2 11 1.526
62 FC2 12 1.526
62 FC2 13 2.014
62 FC2 14 2.014
62 FC2 15 2.014
62 FC2 16 2.502
62 FC2 17 2.502
62 FC2 18 2.014
62 FC2 19 1.526
62 FC2 20 1.038
62 FC2 21 0.549
62 FC2 22 0.549
62 FC2 23 0.549
62 FC2 24 1.038
62 FC2 25 1.526
62 FC2 26 1.526
62 FC2 27 2.502
62 FC2 28 2.502
62 FC2 29 3.479
62 FC2 30 3.967
62 FC2 31 3.967
62 FC2 32 3.967
62 FC2 33 3.967
62 FC2 34 3.479
62 FC2 35 2.502
62 FC2 36 2.014
62 FC2 37 1.526
62 FC2 38 1.526
62 FC2 39 2.014
62 FC2 40 2.502
62 FC2 41 2.502
62 FC2 42 2.991
62 FC2 43 2.991
62 FC2 44 2.991
62 FC2 45 2.502
62 FC2 46 2.502
62 FC2 47 2.014
62 FC2 48 1.526
62 FC2 49 1.526
62 FC2 50 1.038
62 FC2 51 0.549
62 FC2 52 0.061
62 FC2 53 -0.427
62 FC2 54 -0.916
62 FC2 55 -0.427
62 FC2 56 0.061
62 FC2 57 0.549
62 FC2 58 1.038
62 FC2 59 1.038
62 FC2 60 1.038
62 FC2 61 1.038
62 FC2 62 1.526
62 FC2 63 2.014
62 FC2 64 2.502
62 FC2 65 2.991
62 FC2 66 3.479
62 FC2 67 3.479
62 FC2 68 3.479
62 FC2 69 2.991
62 FC2 70 2.991
62 FC2 71 2.502
62 FC2 72 1.038
62 FC2 73 -0.427
62 FC2 74 -1.404
62 FC2 75 -1.892
62 FC2 76 -0.916
62 FC2 77 0.549
62 FC2 78 2.014
62 FC2 79 2.991
62 FC2 80 3.967
62 FC2 81 3.967
62 FC2 82 4.456
62 FC2 83 4.944
62 FC2 84 5.920
62 FC2 85 5.432
62 FC2 86 5.432
62 FC2 87 4.944
62 FC2 88 3.967
62 FC2 89 3.479
62 FC2 90 3.479
62 FC2 91 3.479
62 FC2 92 3.967
62 FC2 93 4.456
62 FC2 94 4.944
62 FC2 95 5.432
62 FC2 96 5.432
62 FC2 97 5.432
62 FC2 98 4.944
62 FC2 99 4.456
62 FC2 100 3.967
62 FC2 101 3.479
62 FC2 102 3.479
62 FC2 103 3.967
62 FC2 104 4.456
62 FC2 105 5.432
62 FC2 106 5.920
62 FC2 107 5.920
62 FC2 108 5.432
62 FC2 109 4.456
62 FC2 110 3.479
62 FC2 111 2.991
62 FC2 112 2.502
62 FC2 113 2.502
62 FC2 114 2.502
62 FC2 115 2.014
62 FC2 116 1.038
62 FC2 117 1.038
62 FC2 118 0.549
62 FC2 119 0.549
62 FC2 120 0.061
62 FC2 121 -0.427
62 FC2 122 -0.916
62 FC2 123 -1.892
62 FC2 124 -1.892
62 FC2 125 -1.404
62 FC2 126 -0.427
62 FC2 127 1.038
62 FC2 128 2.014
62 FC2 129 2.991
62 FC2 130 2.991
62 FC2 131 2.991
62 FC2 132 2.991
62 FC2 133 3.479
62 FC2 134 3.967
62 FC2 135 3.479
62 FC2 136 2.991
62 FC2 137 2.014
62 FC2 138 1.526
62 FC2 139 1.038
62 FC2 140 1.526
62 FC2 141 2.014
62 FC2 142 2.502
62 FC2 143 2.502
62 FC2 144 1.526
62 FC2 145 0.549
62 FC2 146 -0.427
62 FC2 147 -0.427
62 FC2 148 -0.427
62 FC2 149 0.061
62 FC2 150 0.549
62 FC2 151 0.061
62 FC2 152 -0.427
62 FC2 153 -1.404
62 FC2 154 -2.380
62 FC2 155 -2.869
62 FC2 156 -2.380
62 FC2 157 -1.404
62 FC2 158 -0.427
62 FC2 159 0.061
62 FC2 160 0.061
62 FC2 161 -0.427
62 FC2 162 -2.380
62 FC2 163 -2.869
62 FC2 164 -2.869
62 FC2 165 -1.892
62 FC2 166 -0.916
62 FC2 167 0.549
62 FC2 168 0.549
62 FC2 169 0.549
62 FC2 170 0.549
62 FC2 171 1.038
62 FC2 172 1.526
62 FC2 173 2.991
62 FC2 174 3.479
62 FC2 175 2.991
62 FC2 176 2.502
62 FC2 177 1.526
62 FC2 178 1.038
62 FC2 179 1.038
62 FC2 180 1.526
62 FC2 181 2.014
62 FC2 182 2.014
62 FC2 183 1.526
62 FC2 184 1.038
62 FC2 185 0.549
62 FC2 186 1.038
62 FC2 187 2.014
62 FC2 188 2.991
62 FC2 189 4.456
62 FC2 190 4.944
62 FC2 191 5.432
62 FC2 192 5.432
62 FC2 193 5.920
62 FC2 194 6.409
62 FC2 195 6.409
62 FC2 196 6.897
62 FC2 197 6.897
62 FC2 198 6.409
62 FC2 199 5.432
62 FC2 200 3.479
62 FC2 201 1.526
62 FC2 202 -0.427
62 FC2 203 -1.404
62 FC2 204 -1.404
62 FC2 205 -0.427
62 FC2 206 2.014
62 FC2 207 4.944
62 FC2 208 7.385
62 FC2 209 8.362
62 FC2 210 8.362
62 FC2 211 6.897
62 FC2 212 5.432
62 FC2 213 3.967
62 FC2 214 2.991
62 FC2 215 2.991
62 FC2 216 3.967
62 FC2 217 5.432
62 FC2 218 6.409
62 FC2 219 6.897
62 FC2 220 6.897
62 FC2 221 5.920
62 FC2 222 5.432
62 FC2 223 4.456
62 FC2 224 3.967
62 FC2 225 3.479
62 FC2 226 3.479
62 FC2 227 2.991
62 FC2 228 2.502
62 FC2 229 2.502
62 FC2 230 2.502
62 FC2 231 3.479
62 FC2 232 4.456
62 FC2 233 5.920
62 FC2 234 6.897
62 FC2 235 7.385
62 FC2 236 6.897
62 FC2 237 5.432
62 FC2 238 3.967
62 FC2 239 2.502
62 FC2 240 1.038
62 FC2 241 1.038
62 FC2 242 0.549
62 FC2 243 1.038
62 FC2 244 2.014
62 FC2 245 2.502
62 FC2 246 2.991
62 FC2 247 3.479
62 FC2 248 2.991
62 FC2 249 2.991
62 FC2 250 2.502
62 FC2 251 2.502
62 FC2 252 2.991
62 FC2 253 3.479
62 FC2 254 3.479
62 FC2 255 3.479
# FC1 chan 12
62 FC1 0 -1.719
62 FC1 1 -1.719
62 FC1 2 -2.207
62 FC1 3 -3.184
62 FC1 4 -3.672
62 FC1 5 -2.696
62 FC1 6 -1.231
62 FC1 7 0.722
62 FC1 8 2.675
62 FC1 9 3.652
62 FC1 10 3.652
62 FC1 11 3.652
62 FC1 12 2.675
62 FC1 13 1.699
62 FC1 14 1.211
62 FC1 15 1.211
62 FC1 16 0.722
62 FC1 17 0.722
62 FC1 18 -0.254
62 FC1 19 -1.231
62 FC1 20 -1.719
62 FC1 21 -2.207
62 FC1 22 -2.696
62 FC1 23 -2.696
62 FC1 24 -2.696
62 FC1 25 -2.207
62 FC1 26 -1.719
62 FC1 27 -0.254
62 FC1 28 1.211
62 FC1 29 2.675
62 FC1 30 3.164
62 FC1 31 3.652
62 FC1 32 3.164
62 FC1 33 2.675
62 FC1 34 2.187
62 FC1 35 1.699
62 FC1 36 1.699
62 FC1 37 1.211
62 FC1 38 0.722
62 FC1 39 0.234
62 FC1 40 -0.743
62 FC1 41 -1.231
62 FC1 42 -1.719
62 FC1 43 -1.719
62 FC1 44 -1.231
62 FC1 45 -0.254
62 FC1 46 0.722
62 FC1 47 1.699
62 FC1 48 2.187
62 FC1 49 2.675
62 FC1 50 3.164
62 FC1 51 3.164
62 FC1 52 2.675
62 FC1 53 2.675
62 FC1 54 2.675
62 FC1 55 3.164
62 FC1 56 3.164
62 FC1 57 3.652
62 FC1 58 4.628
62 FC1 59 4.628
62 FC1 60 4.628
62 FC1 61 3.652
62 FC1 62 2.675
62 FC1 63 2.187
62 FC1 64 1.699
62 FC1 65 1.699
62 FC1 66 2.187
62 FC1 67 2.675
62 FC1 68 3.164
62 FC1 69 3.164
62 FC1 70 3.164
62 FC1 71 2.675
62 FC1 72 1.699
62 FC1 73 0.722
62 FC1 74 -0.743
62 FC1 75 -0.743
62 FC1 76 -0.743
62 FC1 77 -0.254
62 FC1 78 0.722
62 FC1 79 1.211
62 FC1 80 2.187
62 FC1 81 2.675
62 FC1 82 4.140
62 FC1 83 5.117
62 FC1 84 6.093
62 FC1 85 6.582
62 FC1 86 6.093
62 FC1 87 4.628
62 FC1 88 3.652
62 FC1 89 2.675
62 FC1 90 2.675
62 FC1 91 2.675
62 FC1 92 3.164
62 FC1 93 3.652
62 FC1 94 3.652
62 FC1 95 4.140
62 FC1 96 5.117
62 FC1 97 5.117
62 FC1 98 5.605
62 FC1 99 5.605
62 FC1 100 5.117
62 FC1 101 5.117
62 FC1 102 4.628
62 FC1 103 4.140
62 FC1 104 4.628
62 FC1 105 5.605
62 FC1 106 6.093
62 FC1 107 6.093
62 FC1 108 6.093
62 FC1 109 5.605
62 FC1 110 5.117
62 FC1 111 4.628
62 FC1 112 4.628
62 FC1 113 4.628
62 FC1 114 3.652
62 FC1 115 2.675
62 FC1 116 2.187
62 FC1 117 2.675
62 FC1 118 3.164
62 FC1 119 3.652
62 FC1 120 3.652
62 FC1 121 3.652
62 FC1 122 2.675
62 FC1 123 2.187
62 FC1 124 2.187
62 FC1 125 2.187
62 FC1 126 1.699
62 FC1 127 1.699
62 FC1 128 1.211
62 FC1 129 1.699
62 FC1 130 2.187
62 FC1 131 3.164
62 FC1 132 3.652
62 FC1 133 3.652
62 FC1 134 3.164
62 FC1 135 2.675
62 FC1 136 2.675
62 FC1 137 3.164
62 FC1 138 3.652
62 FC1 139 4.140
62 FC1 140 4.140
62 FC1 141 4.140
62 FC1 142 4.140
62 FC1 143 4.140
62 FC1 144 4.140
62 FC1 145 4.140
62 FC1 146 4.628
62 FC1 147 4.628
62 FC1 148 4.628
62 FC1 149 4.140
62 FC1 150 3.652
62 FC1 151 2.675
62 FC1 152 1.699
62 FC1 153 1.211
62 FC1 154 0.722
62 FC1 155 -0.254
62 FC1 156 -0.254
62 FC1 157 -0.254
62 FC1 158 0.722
62 FC1 159 1.211
62 FC1 160 2.187
62 FC1 161 1.699
62 FC1 162 1.211
62 FC1 163 1.211
62 FC1 164 1.211
62 FC1 165 1.699
62 FC1 166 2.187
62 FC1 167 2.675
62 FC1 168 3.164
62 FC1 169 3.164
62 FC1 170 3.652
62 FC1 171 3.652
62 FC1 172 3.652
62 FC1 173 3.164
62 FC1 174 2.187
62 FC1 175 0.722
62 FC1 176 -0.254
62 FC1 177 -0.743
62 FC1 178 -0.743
62 FC1 179 -0.254
62 FC1 180 0.722
62 FC1 181 1.699
62 FC1 182 2.675
62 FC1 183 3.164
62 FC1 184 3.164
62 FC1 185 3.164
62 FC1 186 3.164
62 FC1 187 3.652
62 FC1 188 4.140
62 FC1 189 5.117
62 FC1 190 5.117
62 FC1 191 4.628
62 FC1 192 4.628
62 FC1 193 4.628
62 FC1 194 5.117
62 FC1 195 6.093
62 FC1 196 6.582
62 FC1 197 6.582
62 FC1 198 5.605
62 FC1 199 4.140
62 FC1 200 2.187
62 FC1 201 0.234
62 FC1 202 -0.743
62 FC1 203 -1.719
62 FC1 204 -2.207
62 FC1 205 -2.207
62 FC1 206 -1.231
62 FC1 207 0.722
62 FC1 208 2.675
62 FC1 209 4.140
62 FC1 210 5.605
62 FC1 211 5.605
62 FC1 212 5.117
62 FC1 213 4.628
62 FC1 214 4.140
62 FC1 215 4.140
62 FC1 216 4.628
62 FC1 217 5.117
62 FC1 218 6.093
62 FC1 219 6.582
62 FC1 220 6.582
62 FC1 221 6.093
62 FC1 222 5.605
62 FC1 223 4.628
62 FC1 224 4.140
62 FC1 225 3.652
62 FC1 226 3.652
62 FC1 227 3.652
62 FC1 228 3.652
62 FC1 229 4.140
62 FC1 230 4.628
62 FC1 231 4.628
62 FC1 232 5.117
62 FC1 233 5.605
62 FC1 234 5.117
62 FC1 235 4.628
62 FC1 236 4.140
62 FC1 237 3.652
62 FC1 238 3.164
62 FC1 239 2.675
62 FC1 240 2.187
62 FC1 241 1.211
62 FC1 242 -0.743
62 FC1 243 -2.207
62 FC1 244 -3.184
62 FC1 245 -3.672
62 FC1 246 -3.184
62 FC1 247 -2.207
62 FC1 248 -0.743
62 FC1 249 0.234
62 FC1 250 1.699
62 FC1 251 2.187
62 FC1 252 2.187
62 FC1 253 2.675
62 FC1 254 2.675
62 FC1 255 2.675
# T8 chan 13
62 T8 0 3.866
62 T8 1 3.866
62 T8 2 3.866
62 T8 3 3.377
62 T8 4 3.377
62 T8 5 3.866
62 T8 6 5.330
62 T8 7 7.772
62 T8 8 9.237
62 T8 9 8.748
62 T8 10 6.307
62 T8 11 3.377
62 T8 12 1.912
62 T8 13 2.401
62 T8 14 5.330
62 T8 15 8.748
62 T8 16 10.701
62 T8 17 11.678
62 T8 18 11.190
62 T8 19 11.678
62 T8 20 12.655
62 T8 21 13.631
62 T8 22 13.631
62 T8 23 11.678
62 T8 24 8.748
62 T8 25 5.819
62 T8 26 4.354
62 T8 27 4.842
62 T8 28 6.795
62 T8 29 9.725
62 T8 30 12.166
62 T8 31 13.143
62 T8 32 12.166
62 T8 33 9.725
62 T8 34 6.795
62 T8 35 4.354
62 T8 36 3.377
62 T8 37 3.377
62 T8 38 4.842
62 T8 39 7.284
62 T8 40 9.725
62 T8 41 10.701
62 T8 42 9.725
62 T8 43 6.795
62 T8 44 3.866
62 T8 45 0.936
62 T8 46 -0.041
62 T8 47 0.448
62 T8 48 1.424
62 T8 49 0.936
62 T8 50 -0.529
62 T8 51 -1.506
62 T8 52 -2.482
62 T8 53 -2.482
62 T8 54 -1.994
62 T8 55 -1.994
62 T8 56 -1.994
62 T8 57 -1.994
62 T8 58 -1.017
62 T8 59 -0.529
62 T8 60 -0.041
62 T8 61 -0.529
62 T8 62 -1.506
62 T8 63 -1.506
62 T8 64 -0.529
62 T8 65 1.912
62 T8 66 5.330
62 T8 67 6.795
62 T8 68 6.795
62 T8 69 5.330
62 T8 70 3.866
62 T8 71 3.377
62 T8 72 3.866
62 T8 73 4.354
62 T8 74 3.377
62 T8 75 1.912
62 T8 76 -0.041
62 T8 77 0.448
62 T8 78 1.912
62 T8 79 4.842
62 T8 80 7.284
62 T8 81 8.260
62 T8 82 8.748
62 T8 83 9.725
62 T8 84 11.678
62 T8 85 14.119
62 T8 86 15.096
62 T8 87 13.631
62 T8 88 10.701
62 T8 89 8.260
62 T8 90 6.795
62 T8 91 7.284
62 T8 92 8.260
62 T8 93 8.260
62 T8 94 6.795
62 T8 95 4.842
62 T8 96 3.866
62 T8 97 4.842
62 T8 98 7.284
62 T8 99 10.701
62 T8 100 12.655
62 T8 101 13.143
62 T8 102 13.143
62 T8 103 12.655
62 T8 104 13.631
62 T8 105 15.584
62 T8 106 17.537
62 T8 107 18.026
62 T8 108 17.049
62 T8 109 15.584
62 T8 110 14.608
62 T8 111 15.584
62 T8 112 16.561
62 T8 113 16.561
62 T8 114 14.608
62 T8 115 10.213
62 T8 116 5.819
62 T8 117 2.401
62 T8 118 1.424
62 T8 119 1.912
62 T8 120 2.889
62 T8 121 2.889
62 T8 122 2.401
62 T8 123 2.401
62 T8 124 2.889
62 T8 125 3.866
62 T8 126 5.330
62 T8 127 6.795
62 T8 128 7.772
62 T8 129 9.725
62 T8 130 11.678
62 T8 131 13.143
62 T8 132 13.631
62 T8 133 12.166
62 T8 134 10.701
62 T8 135 8.748
62 T8 136 6.795
62 T8 137 4.842
62 T8 138 1.912
62 T8 139 -2.482
62 T8 140 -5.900
62 T8 141 -6.877
62 T8 142 -4.924
62 T8 143 -0.529
62 T8 144 3.866
62 T8 145 6.307
62 T8 146 6.307
62 T8 147 4.354
62 T8 148 2.401
62 T8 149 1.912
62 T8 150 2.889
62 T8 151 3.866
62 T8 152 4.354
62 T8 153 5.330
62 T8 154 6.307
62 T8 155 7.284
62 T8 156 8.260
62 T8 157 8.260
62 T8 158 6.795
62 T8 159 4.842
62 T8 160 3.866
62 T8 161 2.889
62 T8 162 2.401
62 T8 163 1.424
62 T8 164 0.448
62 T8 165 0.448
62 T8 166 1.424
62 T8 167 4.842
62 T8 168 7.772
62 T8 169 9.237
62 T8 170 8.748
62 T8 171 7.772
62 T8 172 7.284
62 T8 173 8.748
62 T8 174 10.701
62 T8 175 11.678
62 T8 176 10.701
62 T8 177 9.237
62 T8 178 7.772
62 T8 179 8.260
62 T8 180 9.237
62 T8 181 9.725
62 T8 182 8.260
62 T8 183 5.819
62 T8 184 3.377
62 T8 185 2.401
62 T8 186 3.377
62 T8 187 4.842
62 T8 188 5.819
62 T8 189 6.795
62 T8 190 8.260
62 T8 191 10.701
62 T8 192 13.631
62 T8 193 15.584
62 T8 194 15.584
62 T8 195 13.631
62 T8 196 11.678
62 T8 197 10.701
62 T8 198 11.678
62 T8 199 12.655
62 T8 200 13.143
62 T8 201 11.678
62 T8 202 8.260
62 T8 203 5.819
62 T8 204 5.330
62 T8 205 7.772
62 T8 206 11.190
62 T8 207 15.096
62 T8 208 18.026
62 T8 209 18.514
62 T8 210 17.049
62 T8 211 14.119
62 T8 212 11.190
62 T8 213 8.748
62 T8 214 8.260
62 T8 215 8.748
62 T8 216 10.701
62 T8 217 12.166
62 T8 218 13.143
62 T8 219 14.119
62 T8 220 15.096
62 T8 221 16.561
62 T8 222 17.049
62 T8 223 16.073
62 T8 224 12.655
62 T8 225 7.772
62 T8 226 3.866
62 T8 227 1.424
62 T8 228 1.912
62 T8 229 4.354
62 T8 230 7.772
62 T8 231 10.701
62 T8 232 13.631
62 T8 233 16.561
62 T8 234 19.979
62 T8 235 22.420
62 T8 236 23.885
62 T8 237 22.909
62 T8 238 19.979
62 T8 239 17.049
62 T8 240 15.096
62 T8 241 15.096
62 T8 242 15.584
62 T8 243 17.049
62 T8 244 18.514
62 T8 245 19.002
62 T8 246 19.002
62 T8 247 17.537
62 T8 248 15.096
62 T8 249 11.678
62 T8 250 7.284
62 T8 251 3.866
62 T8 252 2.401
62 T8 253 2.889
62 T8 254 4.354
62 T8 255 5.330
# T7 chan 14
62 T7 0 1.383
62 T7 1 -2.523
62 T7 2 -4.476
62 T7 3 -4.476
62 T7 4 -1.546
62 T7 5 2.848
62 T7 6 6.755
62 T7 7 8.219
62 T7 8 8.219
62 T7 9 7.731
62 T7 10 7.243
62 T7 11 6.755
62 T7 12 6.266
62 T7 13 4.801
62 T7 14 2.848
62 T7 15 0.407
62 T7 16 -0.570
62 T7 17 0.407
62 T7 18 2.848
62 T7 19 4.313
62 T7 20 4.801
62 T7 21 2.848
62 T7 22 -0.570
62 T7 23 -3.499
62 T7 24 -4.476
62 T7 25 -4.964
62 T7 26 -4.476
62 T7 27 -2.523
62 T7 28 0.407
62 T7 29 4.313
62 T7 30 7.731
62 T7 31 9.196
62 T7 32 8.708
62 T7 33 5.778
62 T7 34 2.360
62 T7 35 0.407
62 T7 36 0.407
62 T7 37 1.383
62 T7 38 1.383
62 T7 39 0.895
62 T7 40 -0.081
62 T7 41 0.407
62 T7 42 1.383
62 T7 43 2.848
62 T7 44 2.848
62 T7 45 1.383
62 T7 46 0.407
62 T7 47 0.407
62 T7 48 3.337
62 T7 49 7.243
62 T7 50 9.684
62 T7 51 9.196
62 T7 52 6.755
62 T7 53 4.801
62 T7 54 5.290
62 T7 55 7.243
62 T7 56 10.661
62 T7 57 12.126
62 T7 58 12.126
62 T7 59 10.661
62 T7 60 9.196
62 T7 61 8.219
62 T7 62 7.731
62 T7 63 6.755
62 T7 64 5.778
62 T7 65 5.290
62 T7 66 5.290
62 T7 67 5.778
62 T7 68 6.266
62 T7 69 6.266
62 T7 70 4.801
62 T7 71 4.313
62 T7 72 3.825
62 T7 73 4.313
62 T7 74 4.801
62 T7 75 3.825
62 T7 76 1.872
62 T7 77 0.895
62 T7 78 1.383
62 T7 79 3.825
62 T7 80 8.708
62 T7 81 13.590
62 T7 82 17.497
62 T7 83 20.426
62 T7 84 21.403
62 T7 85 21.891
62 T7 86 21.403
62 T7 87 19.938
62 T7 88 17.008
62 T7 89 13.590
62 T7 90 10.173
62 T7 91 7.243
62 T7 92 6.266
62 T7 93 6.266
62 T7 94 7.243
62 T7 95 8.708
62 T7 96 10.173
62 T7 97 12.126
62 T7 98 15.055
62 T7 99 17.008
62 T7 100 18.473
62 T7 101 18.473
62 T7 102 17.497
62 T7 103 17.985
62 T7 104 20.426
62 T7 105 24.333
62 T7 106 27.262
62 T7 107 27.751
62 T7 108 25.309
62 T7 109 21.403
62 T7 110 19.450
62 T7 111 19.938
62 T7 112 21.403
62 T7 113 21.403
62 T7 114 17.985
62 T7 115 13.102
62 T7 116 9.196
62 T7 117 8.219
62 T7 118 10.661
62 T7 119 13.102
62 T7 120 13.590
62 T7 121 12.126
62 T7 122 10.173
62 T7 123 9.196
62 T7 124 9.684
62 T7 125 9.196
62 T7 126 7.243
62 T7 127 3.825
62 T7 128 1.872
62 T7 129 3.337
62 T7 130 8.219
62 T7 131 13.102
62 T7 132 15.055
62 T7 133 14.567
62 T7 134 11.637
62 T7 135 9.196
62 T7 136 8.708
62 T7 137 8.708
62 T7 138 8.219
62 T7 139 5.778
62 T7 140 3.337
62 T7 141 2.848
62 T7 142 5.290
62 T7 143 10.173
62 T7 144 14.567
62 T7 145 16.520
62 T7 146 15.544
62 T7 147 14.079
62 T7 148 12.614
62 T7 149 12.614
62 T7 150 12.614
62 T7 151 11.637
62 T7 152 10.173
62 T7 153 9.196
62 T7 154 10.173
62 T7 155 11.637
62 T7 156 13.590
62 T7 157 13.590
62 T7 158 12.126
62 T7 159 9.684
62 T7 160 8.708
62 T7 161 9.684
62 T7 162 10.661
62 T7 163 11.149
62 T7 164 10.173
62 T7 165 9.684
62 T7 166 11.149
62 T7 167 15.055
62 T7 168 19.450
62 T7 169 22.380
62 T7 170 20.915
62 T7 171 17.008
62 T7 172 12.614
62 T7 173 11.149
62 T7 174 11.637
62 T7 175 12.614
62 T7 176 11.637
62 T7 177 9.684
62 T7 178 8.219
62 T7 179 9.196
62 T7 180 11.149
62 T7 181 13.102
62 T7 182 13.102
62 T7 183 10.661
62 T7 184 7.731
62 T7 185 5.778
62 T7 186 6.266
62 T7 187 7.731
62 T7 188 9.196
62 T7 189 9.684
62 T7 190 9.196
62 T7 191 8.219
62 T7 192 9.196
62 T7 193 10.661
62 T7 194 13.590
62 T7 195 16.520
62 T7 196 18.962
62 T7 197 19.938
62 T7 198 18.473
62 T7 199 16.032
62 T7 200 12.126
62 T7 201 8.708
62 T7 202 5.290
62 T7 203 2.360
62 T7 204 0.407
62 T7 205 0.895
62 T7 206 3.337
62 T7 207 6.266
62 T7 208 9.684
62 T7 209 11.149
62 T7 210 10.661
62 T7 211 9.684
62 T7 212 8.219
62 T7 213 7.731
62 T7 214 7.731
62 T7 215 7.731
62 T7 216 8.708
62 T7 217 10.173
62 T7 218 12.126
62 T7 219 13.590
62 T7 220 13.590
62 T7 221 12.614
62 T7 222 11.149
62 T7 223 10.173
62 T7 224 10.173
62 T7 225 10.173
62 T7 226 10.173
62 T7 227 9.196
62 T7 228 8.219
62 T7 229 8.219
62 T7 230 10.173
62 T7 231 13.590
62 T7 232 17.497
62 T7 233 19.450
62 T7 234 18.962
62 T7 235 16.520
62 T7 236 13.590
62 T7 237 11.637
62 T7 238 9.684
62 T7 239 8.708
62 T7 240 7.243
62 T7 241 6.266
62 T7 242 6.266
62 T7 243 7.243
62 T7 244 9.196
62 T7 245 10.661
62 T7 246 11.637
62 T7 247 11.637
62 T7 248 12.614
62 T7 249 13.102
62 T7 250 13.590
62 T7 251 13.102
62 T7 252 11.149
62 T7 253 8.219
62 T7 254 6.266
62 T7 255 6.266
# CZ chan 15
62 CZ 0 5.473
62 CZ 1 3.031
62 CZ 2 3.031
62 CZ 3 4.008
62 CZ 4 5.961
62 CZ 5 8.403
62 CZ 6 11.332
62 CZ 7 13.285
62 CZ 8 14.750
62 CZ 9 14.750
62 CZ 10 13.774
62 CZ 11 12.309
62 CZ 12 11.332
62 CZ 13 10.844
62 CZ 14 11.332
62 CZ 15 12.309
62 CZ 16 13.285
62 CZ 17 13.774
62 CZ 18 13.774
62 CZ 19 14.262
62 CZ 20 13.774
62 CZ 21 13.285
62 CZ 22 11.820
62 CZ 23 10.356
62 CZ 24 8.891
62 CZ 25 7.914
62 CZ 26 8.403
62 CZ 27 10.356
62 CZ 28 13.774
62 CZ 29 18.168
62 CZ 30 22.074
62 CZ 31 25.004
62 CZ 32 24.516
62 CZ 33 20.610
62 CZ 34 14.750
62 CZ 35 9.379
62 CZ 36 6.938
62 CZ 37 8.403
62 CZ 38 12.309
62 CZ 39 16.215
62 CZ 40 17.192
62 CZ 41 15.238
62 CZ 42 12.797
62 CZ 43 11.332
62 CZ 44 11.820
62 CZ 45 11.820
62 CZ 46 10.844
62 CZ 47 8.403
62 CZ 48 5.473
62 CZ 49 3.520
62 CZ 50 3.520
62 CZ 51 4.496
62 CZ 52 4.496
62 CZ 53 4.008
62 CZ 54 2.055
62 CZ 55 -0.387
62 CZ 56 -1.363
62 CZ 57 -1.363
62 CZ 58 -0.387
62 CZ 59 2.055
62 CZ 60 4.496
62 CZ 61 6.449
62 CZ 62 7.426
62 CZ 63 7.426
62 CZ 64 6.938
62 CZ 65 6.449
62 CZ 66 5.961
62 CZ 67 5.961
62 CZ 68 6.449
62 CZ 69 5.473
62 CZ 70 3.520
62 CZ 71 1.567
62 CZ 72 -0.387
62 CZ 73 -1.363
62 CZ 74 -0.875
62 CZ 75 0.102
62 CZ 76 1.567
62 CZ 77 1.567
62 CZ 78 0.590
62 CZ 79 -0.875
62 CZ 80 0.102
62 CZ 81 4.985
62 CZ 82 14.262
62 CZ 83 24.516
62 CZ 84 30.863
62 CZ 85 30.863
62 CZ 86 25.004
62 CZ 87 16.703
62 CZ 88 12.309
62 CZ 89 12.797
62 CZ 90 16.703
62 CZ 91 18.656
62 CZ 92 17.192
62 CZ 93 12.797
62 CZ 94 9.379
62 CZ 95 9.867
62 CZ 96 14.262
62 CZ 97 19.145
62 CZ 98 22.074
62 CZ 99 21.586
62 CZ 100 20.610
62 CZ 101 20.610
62 CZ 102 22.563
62 CZ 103 25.492
62 CZ 104 26.957
62 CZ 105 25.981
62 CZ 106 23.051
62 CZ 107 20.121
62 CZ 108 19.633
62 CZ 109 21.098
62 CZ 110 23.539
62 CZ 111 25.492
62 CZ 112 25.981
62 CZ 113 25.492
62 CZ 114 23.051
62 CZ 115 20.610
62 CZ 116 18.656
62 CZ 117 17.680
62 CZ 118 17.680
62 CZ 119 18.168
62 CZ 120 19.145
62 CZ 121 19.633
62 CZ 122 20.121
62 CZ 123 20.121
62 CZ 124 18.656
62 CZ 125 17.192
62 CZ 126 14.262
62 CZ 127 12.309
62 CZ 128 11.332
62 CZ 129 12.309
62 CZ 130 15.727
62 CZ 131 20.121
62 CZ 132 23.539
62 CZ 133 25.004
62 CZ 134 24.516
62 CZ 135 22.563
62 CZ 136 20.121
62 CZ 137 17.192
62 CZ 138 14.750
62 CZ 139 12.309
62 CZ 140 11.332
62 CZ 141 11.332
62 CZ 142 13.285
62 CZ 143 15.727
62 CZ 144 18.656
62 CZ 145 21.098
62 CZ 146 22.074
62 CZ 147 22.074
62 CZ 148 20.121
62 CZ 149 18.168
62 CZ 150 16.703
62 CZ 151 16.703
62 CZ 152 18.168
62 CZ 153 19.145
62 CZ 154 18.656
62 CZ 155 15.727
62 CZ 156 12.309
62 CZ 157 10.844
62 CZ 158 12.309
62 CZ 159 15.727
62 CZ 160 19.633
62 CZ 161 20.121
62 CZ 162 17.192
62 CZ 163 12.309
62 CZ 164 9.379
62 CZ 165 10.356
62 CZ 166 15.727
62 CZ 167 21.586
62 CZ 168 25.492
62 CZ 169 24.516
62 CZ 170 21.098
62 CZ 171 17.192
62 CZ 172 16.215
62 CZ 173 18.168
62 CZ 174 21.098
62 CZ 175 23.051
62 CZ 176 22.563
62 CZ 177 19.633
62 CZ 178 17.680
62 CZ 179 18.656
62 CZ 180 22.074
62 CZ 181 25.004
62 CZ 182 25.981
62 CZ 183 23.539
62 CZ 184 18.656
62 CZ 185 13.774
62 CZ 186 10.844
62 CZ 187 10.844
62 CZ 188 13.285
62 CZ 189 17.192
62 CZ 190 21.586
62 CZ 191 25.004
62 CZ 192 26.957
62 CZ 193 26.957
62 CZ 194 26.469
62 CZ 195 25.981
62 CZ 196 27.934
62 CZ 197 30.863
62 CZ 198 32.328
62 CZ 199 31.352
62 CZ 200 26.957
62 CZ 201 20.610
62 CZ 202 15.727
62 CZ 203 13.774
62 CZ 204 14.262
62 CZ 205 15.727
62 CZ 206 17.192
62 CZ 207 18.656
62 CZ 208 20.610
62 CZ 209 23.051
62 CZ 210 25.004
62 CZ 211 25.004
62 CZ 212 23.051
62 CZ 213 19.633
62 CZ 214 18.656
62 CZ 215 20.121
62 CZ 216 24.516
62 CZ 217 28.910
62 CZ 218 31.352
62 CZ 219 31.352
62 CZ 220 29.399
62 CZ 221 28.422
62 CZ 222 29.399
62 CZ 223 31.352
62 CZ 224 32.817
62 CZ 225 31.840
62 CZ 226 28.422
62 CZ 227 24.028
62 CZ 228 20.610
62 CZ 229 19.633
62 CZ 230 21.098
62 CZ 231 24.028
62 CZ 232 27.934
62 CZ 233 30.863
62 CZ 234 32.817
62 CZ 235 32.817
62 CZ 236 31.352
62 CZ 237 28.422
62 CZ 238 25.492
62 CZ 239 23.051
62 CZ 240 20.610
62 CZ 241 18.656
62 CZ 242 16.703
62 CZ 243 15.238
62 CZ 244 15.727
62 CZ 245 17.680
62 CZ 246 21.098
62 CZ 247 23.539
62 CZ 248 24.516
62 CZ 249 23.051
62 CZ 250 20.121
62 CZ 251 17.192
62 CZ 252 15.238
62 CZ 253 14.750
62 CZ 254 14.262
62 CZ 255 12.797
# C3 chan 16
62 C3 0 0.722
62 C3 1 0.234
62 C3 2 -0.743
62 C3 3 -1.231
62 C3 4 -1.231
62 C3 5 -0.743
62 C3 6 0.722
62 C3 7 2.187
62 C3 8 3.164
62 C3 9 3.652
62 C3 10 3.164
62 C3 11 2.187
62 C3 12 0.722
62 C3 13 -0.254
62 C3 14 -1.231
62 C3 15 -1.231
62 C3 16 -0.254
62 C3 17 0.234
62 C3 18 0.234
62 C3 19 0.234
62 C3 20 -0.254
62 C3 21 -0.743
62 C3 22 -2.207
62 C3 23 -4.161
62 C3 24 -5.625
62 C3 25 -6.114
62 C3 26 -5.625
62 C3 27 -3.672
62 C3 28 -0.743
62 C3 29 1.699
62 C3 30 3.164
62 C3 31 3.164
62 C3 32 2.187
62 C3 33 0.722
62 C3 34 -0.743
62 C3 35 -1.231
62 C3 36 -0.743
62 C3 37 0.234
62 C3 38 1.211
62 C3 39 1.699
62 C3 40 1.211
62 C3 41 -0.254
62 C3 42 -1.231
62 C3 43 -1.719
62 C3 44 -1.231
62 C3 45 -1.231
62 C3 46 -0.743
62 C3 47 -0.254
62 C3 48 0.234
62 C3 49 1.211
62 C3 50 2.675
62 C3 51 4.628
62 C3 52 6.093
62 C3 53 6.582
62 C3 54 6.093
62 C3 55 6.093
62 C3 56 6.093
62 C3 57 7.070
62 C3 58 7.070
62 C3 59 7.558
62 C3 60 6.582
62 C3 61 5.605
62 C3 62 4.628
62 C3 63 4.140
62 C3 64 3.652
62 C3 65 3.164
62 C3 66 2.675
62 C3 67 3.164
62 C3 68 3.652
62 C3 69 4.628
62 C3 70 5.605
62 C3 71 5.605
62 C3 72 5.117
62 C3 73 4.140
62 C3 74 3.652
62 C3 75 3.652
62 C3 76 4.140
62 C3 77 4.628
62 C3 78 4.628
62 C3 79 5.117
62 C3 80 6.093
62 C3 81 7.558
62 C3 82 9.511
62 C3 83 10.976
62 C3 84 12.441
62 C3 85 12.441
62 C3 86 10.976
62 C3 87 9.023
62 C3 88 7.558
62 C3 89 6.093
62 C3 90 5.117
62 C3 91 4.140
62 C3 92 3.164
62 C3 93 2.675
62 C3 94 2.187
62 C3 95 2.675
62 C3 96 4.140
62 C3 97 6.093
62 C3 98 7.558
62 C3 99 9.511
62 C3 100 10.000
62 C3 101 10.488
62 C3 102 10.000
62 C3 103 10.488
62 C3 104 10.976
62 C3 105 11.464
62 C3 106 11.953
62 C3 107 11.464
62 C3 108 11.464
62 C3 109 10.976
62 C3 110 10.976
62 C3 111 10.976
62 C3 112 11.464
62 C3 113 10.976
62 C3 114 9.511
62 C3 115 7.558
62 C3 116 5.605
62 C3 117 4.628
62 C3 118 4.140
62 C3 119 4.140
62 C3 120 4.628
62 C3 121 5.117
62 C3 122 5.605
62 C3 123 6.093
62 C3 124 6.093
62 C3 125 6.093
62 C3 126 4.140
62 C3 127 3.164
62 C3 128 2.187
62 C3 129 2.675
62 C3 130 3.652
62 C3 131 4.628
62 C3 132 4.628
62 C3 133 3.652
62 C3 134 2.675
62 C3 135 2.187
62 C3 136 2.187
62 C3 137 3.652
62 C3 138 4.140
62 C3 139 4.140
62 C3 140 3.164
62 C3 141 2.187
62 C3 142 2.187
62 C3 143 3.164
62 C3 144 5.605
62 C3 145 7.558
62 C3 146 9.023
62 C3 147 9.023
62 C3 148 8.535
62 C3 149 7.558
62 C3 150 6.582
62 C3 151 6.093
62 C3 152 6.093
62 C3 153 6.093
62 C3 154 6.093
62 C3 155 6.582
62 C3 156 6.093
62 C3 157 6.093
62 C3 158 5.605
62 C3 159 5.605
62 C3 160 5.117
62 C3 161 5.117
62 C3 162 5.117
62 C3 163 5.605
62 C3 164 6.582
62 C3 165 7.070
62 C3 166 7.558
62 C3 167 8.535
62 C3 168 9.023
62 C3 169 9.023
62 C3 170 9.023
62 C3 171 8.046
62 C3 172 7.070
62 C3 173 6.093
62 C3 174 4.628
62 C3 175 3.652
62 C3 176 3.164
62 C3 177 2.675
62 C3 178 2.675
62 C3 179 3.164
62 C3 180 4.140
62 C3 181 4.628
62 C3 182 5.117
62 C3 183 5.117
62 C3 184 4.628
62 C3 185 4.140
62 C3 186 4.140
62 C3 187 4.140
62 C3 188 5.117
62 C3 189 5.605
62 C3 190 6.093
62 C3 191 6.093
62 C3 192 6.093
62 C3 193 6.093
62 C3 194 7.070
62 C3 195 7.558
62 C3 196 8.535
62 C3 197 9.023
62 C3 198 8.046
62 C3 199 7.070
62 C3 200 5.117
62 C3 201 3.652
62 C3 202 2.675
62 C3 203 2.187
62 C3 204 1.699
62 C3 205 0.722
62 C3 206 0.234
62 C3 207 -0.254
62 C3 208 0.234
62 C3 209 1.211
62 C3 210 2.187
62 C3 211 3.164
62 C3 212 3.652
62 C3 213 4.140
62 C3 214 4.140
62 C3 215 4.140
62 C3 216 4.140
62 C3 217 4.140
62 C3 218 4.628
62 C3 219 4.628
62 C3 220 4.140
62 C3 221 3.164
62 C3 222 1.699
62 C3 223 0.234
62 C3 224 -0.254
62 C3 225 -0.254
62 C3 226 0.722
62 C3 227 1.211
62 C3 228 2.187
62 C3 229 3.652
62 C3 230 4.140
62 C3 231 5.117
62 C3 232 5.605
62 C3 233 5.605
62 C3 234 5.605
62 C3 235 5.117
62 C3 236 5.117
62 C3 237 5.117
62 C3 238 5.117
62 C3 239 5.117
62 C3 240 5.117
62 C3 241 4.628
62 C3 242 3.164
62 C3 243 2.187
62 C3 244 0.722
62 C3 245 0.722
62 C3 246 1.211
62 C3 247 2.187
62 C3 248 3.164
62 C3 249 3.652
62 C3 250 3.652
62 C3 251 3.652
62 C3 252 3.164
62 C3 253 3.164
62 C3 254 2.675
62 C3 255 3.164
# C4 chan 17
62 C4 0 3.886
62 C4 1 3.398
62 C4 2 2.909
62 C4 3 2.909
62 C4 4 2.909
62 C4 5 2.421
62 C4 6 1.933
62 C4 7 0.468
62 C4 8 -0.509
62 C4 9 -1.485
62 C4 10 -1.485
62 C4 11 -0.509
62 C4 12 0.468
62 C4 13 0.956
62 C4 14 0.956
62 C4 15 1.933
62 C4 16 2.421
62 C4 17 3.398
62 C4 18 3.886
62 C4 19 4.374
62 C4 20 3.886
62 C4 21 3.398
62 C4 22 2.421
62 C4 23 2.421
62 C4 24 3.398
62 C4 25 3.886
62 C4 26 4.862
62 C4 27 4.862
62 C4 28 4.374
62 C4 29 3.886
62 C4 30 3.886
62 C4 31 3.886
62 C4 32 4.374
62 C4 33 3.886
62 C4 34 3.398
62 C4 35 2.909
62 C4 36 2.909
62 C4 37 3.398
62 C4 38 3.886
62 C4 39 5.351
62 C4 40 5.839
62 C4 41 5.839
62 C4 42 5.839
62 C4 43 6.327
62 C4 44 5.351
62 C4 45 4.374
62 C4 46 2.909
62 C4 47 1.444
62 C4 48 0.468
62 C4 49 0.468
62 C4 50 0.468
62 C4 51 -0.020
62 C4 52 -1.485
62 C4 53 -1.973
62 C4 54 -1.973
62 C4 55 -0.997
62 C4 56 -0.020
62 C4 57 0.956
62 C4 58 1.444
62 C4 59 1.444
62 C4 60 1.444
62 C4 61 2.421
62 C4 62 3.398
62 C4 63 5.351
62 C4 64 6.327
62 C4 65 6.327
62 C4 66 6.327
62 C4 67 5.839
62 C4 68 5.839
62 C4 69 6.327
62 C4 70 6.327
62 C4 71 5.839
62 C4 72 3.886
62 C4 73 2.421
62 C4 74 1.444
62 C4 75 1.933
62 C4 76 2.909
62 C4 77 4.374
62 C4 78 6.327
62 C4 79 7.304
62 C4 80 7.792
62 C4 81 8.280
62 C4 82 9.257
62 C4 83 9.257
62 C4 84 9.257
62 C4 85 9.745
62 C4 86 9.745
62 C4 87 9.257
62 C4 88 8.769
62 C4 89 8.280
62 C4 90 7.792
62 C4 91 7.304
62 C4 92 6.816
62 C4 93 7.304
62 C4 94 7.304
62 C4 95 7.304
62 C4 96 7.304
62 C4 97 7.304
62 C4 98 8.280
62 C4 99 9.257
62 C4 100 9.745
62 C4 101 9.745
62 C4 102 9.257
62 C4 103 9.257
62 C4 104 9.257
62 C4 105 10.234
62 C4 106 11.210
62 C4 107 11.698
62 C4 108 11.698
62 C4 109 10.722
62 C4 110 10.234
62 C4 111 9.257
62 C4 112 8.769
62 C4 113 8.769
62 C4 114 8.280
62 C4 115 7.304
62 C4 116 6.327
62 C4 117 4.862
62 C4 118 3.398
62 C4 119 2.421
62 C4 120 1.933
62 C4 121 1.933
62 C4 122 1.933
62 C4 123 2.421
62 C4 124 2.421
62 C4 125 3.398
62 C4 126 3.886
62 C4 127 5.351
62 C4 128 6.327
62 C4 129 7.304
62 C4 130 7.792
62 C4 131 7.792
62 C4 132 8.280
62 C4 133 8.280
62 C4 134 7.792
62 C4 135 7.304
62 C4 136 5.839
62 C4 137 3.886
62 C4 138 2.421
62 C4 139 1.444
62 C4 140 1.444
62 C4 141 1.444
62 C4 142 1.444
62 C4 143 1.444
62 C4 144 1.444
62 C4 145 1.933
62 C4 146 1.933
62 C4 147 1.933
62 C4 148 2.421
62 C4 149 2.909
62 C4 150 3.886
62 C4 151 4.374
62 C4 152 4.374
62 C4 153 3.886
62 C4 154 3.886
62 C4 155 3.886
62 C4 156 4.374
62 C4 157 4.862
62 C4 158 5.351
62 C4 159 4.862
62 C4 160 3.886
62 C4 161 1.444
62 C4 162 -0.509
62 C4 163 -1.973
62 C4 164 -1.973
62 C4 165 -0.509
62 C4 166 0.956
62 C4 167 2.909
62 C4 168 3.886
62 C4 169 4.374
62 C4 170 3.886
62 C4 171 3.886
62 C4 172 4.862
62 C4 173 5.839
62 C4 174 6.816
62 C4 175 7.792
62 C4 176 7.304
62 C4 177 6.327
62 C4 178 5.351
62 C4 179 4.374
62 C4 180 3.886
62 C4 181 3.398
62 C4 182 2.909
62 C4 183 2.421
62 C4 184 1.933
62 C4 185 0.956
62 C4 186 0.956
62 C4 187 1.933
62 C4 188 2.909
62 C4 189 4.374
62 C4 190 5.839
62 C4 191 7.304
62 C4 192 7.792
62 C4 193 8.280
62 C4 194 8.280
62 C4 195 7.304
62 C4 196 7.304
62 C4 197 7.304
62 C4 198 7.792
62 C4 199 7.304
62 C4 200 6.327
62 C4 201 5.351
62 C4 202 4.374
62 C4 203 3.398
62 C4 204 4.374
62 C4 205 5.351
62 C4 206 7.304
62 C4 207 9.257
62 C4 208 10.234
62 C4 209 10.234
62 C4 210 8.769
62 C4 211 7.304
62 C4 212 5.351
62 C4 213 3.398
62 C4 214 2.909
62 C4 215 2.909
62 C4 216 3.886
62 C4 217 4.862
62 C4 218 5.351
62 C4 219 5.839
62 C4 220 5.839
62 C4 221 5.839
62 C4 222 5.351
62 C4 223 5.351
62 C4 224 4.862
62 C4 225 4.374
62 C4 226 3.886
62 C4 227 2.421
62 C4 228 0.956
62 C4 229 0.468
62 C4 230 0.956
62 C4 231 2.421
62 C4 232 4.862
62 C4 233 6.816
62 C4 234 8.280
62 C4 235 8.769
62 C4 236 8.769
62 C4 237 8.280
62 C4 238 6.816
62 C4 239 5.839
62 C4 240 5.351
62 C4 241 5.839
62 C4 242 6.327
62 C4 243 7.792
62 C4 244 9.745
62 C4 245 10.722
62 C4 246 10.722
62 C4 247 9.745
62 C4 248 8.280
62 C4 249 6.327
62 C4 250 5.351
62 C4 251 4.374
62 C4 252 3.886
62 C4 253 3.398
62 C4 254 3.398
62 C4 255 2.909
# CP5 chan 18
62 CP5 0 3.479
62 CP5 1 2.014
62 CP5 2 1.526
62 CP5 3 1.038
62 CP5 4 1.526
62 CP5 5 2.502
62 CP5 6 2.991
62 CP5 7 3.479
62 CP5 8 3.479
62 CP5 9 3.479
62 CP5 10 2.991
62 CP5 11 2.014
62 CP5 12 1.038
62 CP5 13 0.549
62 CP5 14 0.061
62 CP5 15 0.549
62 CP5 16 1.038
62 CP5 17 2.014
62 CP5 18 2.502
62 CP5 19 2.014
62 CP5 20 1.038
62 CP5 21 -0.916
62 CP5 22 -2.869
62 CP5 23 -5.310
62 CP5 24 -6.287
62 CP5 25 -6.775
62 CP5 26 -5.310
62 CP5 27 -2.380
62 CP5 28 1.038
62 CP5 29 4.456
62 CP5 30 5.920
62 CP5 31 6.409
62 CP5 32 4.944
62 CP5 33 2.014
62 CP5 34 0.061
62 CP5 35 -0.427
62 CP5 36 0.549
62 CP5 37 2.502
62 CP5 38 4.456
62 CP5 39 4.944
62 CP5 40 3.479
62 CP5 41 1.526
62 CP5 42 -0.427
62 CP5 43 -1.404
62 CP5 44 -1.404
62 CP5 45 -0.916
62 CP5 46 -0.916
62 CP5 47 -0.916
62 CP5 48 -0.427
62 CP5 49 1.526
62 CP5 50 4.456
62 CP5 51 7.385
62 CP5 52 9.338
62 CP5 53 10.315
62 CP5 54 9.827
62 CP5 55 9.338
62 CP5 56 9.827
62 CP5 57 9.827
62 CP5 58 10.315
62 CP5 59 10.315
62 CP5 60 9.338
62 CP5 61 8.362
62 CP5 62 7.385
62 CP5 63 6.897
62 CP5 64 5.432
62 CP5 65 3.967
62 CP5 66 2.014
62 CP5 67 1.526
62 CP5 68 2.014
62 CP5 69 3.479
62 CP5 70 4.944
62 CP5 71 6.409
62 CP5 72 5.432
62 CP5 73 4.944
62 CP5 74 4.456
62 CP5 75 3.967
62 CP5 76 4.456
62 CP5 77 5.432
62 CP5 78 6.409
62 CP5 79 6.897
62 CP5 80 8.850
62 CP5 81 11.780
62 CP5 82 15.198
62 CP5 83 18.127
62 CP5 84 19.592
62 CP5 85 19.592
62 CP5 86 18.127
62 CP5 87 15.686
62 CP5 88 13.245
62 CP5 89 11.292
62 CP5 90 9.338
62 CP5 91 7.385
62 CP5 92 5.432
62 CP5 93 3.479
62 CP5 94 2.014
62 CP5 95 2.014
62 CP5 96 3.479
62 CP5 97 6.897
62 CP5 98 10.315
62 CP5 99 13.733
62 CP5 100 16.174
62 CP5 101 17.151
62 CP5 102 17.151
62 CP5 103 18.127
62 CP5 104 19.592
62 CP5 105 21.545
62 CP5 106 22.034
62 CP5 107 21.545
62 CP5 108 20.569
62 CP5 109 18.616
62 CP5 110 18.127
62 CP5 111 18.127
62 CP5 112 18.127
62 CP5 113 17.151
62 CP5 114 15.198
62 CP5 115 12.268
62 CP5 116 8.850
62 CP5 117 6.897
62 CP5 118 5.920
62 CP5 119 5.432
62 CP5 120 5.432
62 CP5 121 5.920
62 CP5 122 6.409
62 CP5 123 7.385
62 CP5 124 7.874
62 CP5 125 7.385
62 CP5 126 5.432
62 CP5 127 3.967
62 CP5 128 3.479
62 CP5 129 3.967
62 CP5 130 5.920
62 CP5 131 6.409
62 CP5 132 5.920
62 CP5 133 4.456
62 CP5 134 2.502
62 CP5 135 1.526
62 CP5 136 1.526
62 CP5 137 2.014
62 CP5 138 2.502
62 CP5 139 1.526
62 CP5 140 0.549
62 CP5 141 0.061
62 CP5 142 0.549
62 CP5 143 2.502
62 CP5 144 5.432
62 CP5 145 8.362
62 CP5 146 10.315
62 CP5 147 11.292
62 CP5 148 10.803
62 CP5 149 9.338
62 CP5 150 8.850
62 CP5 151 8.850
62 CP5 152 9.338
62 CP5 153 10.315
62 CP5 154 10.315
62 CP5 155 10.803
62 CP5 156 10.803
62 CP5 157 10.315
62 CP5 158 9.827
62 CP5 159 8.850
62 CP5 160 7.874
62 CP5 161 6.897
62 CP5 162 6.897
62 CP5 163 7.385
62 CP5 164 8.362
62 CP5 165 9.827
62 CP5 166 11.292
62 CP5 167 12.756
62 CP5 168 14.221
62 CP5 169 14.709
62 CP5 170 14.221
62 CP5 171 12.756
62 CP5 172 10.803
62 CP5 173 9.338
62 CP5 174 8.850
62 CP5 175 8.850
62 CP5 176 9.338
62 CP5 177 8.850
62 CP5 178 8.850
62 CP5 179 8.362
62 CP5 180 7.874
62 CP5 181 7.385
62 CP5 182 6.897
62 CP5 183 5.920
62 CP5 184 4.456
62 CP5 185 3.479
62 CP5 186 2.991
62 CP5 187 2.991
62 CP5 188 3.967
62 CP5 189 4.944
62 CP5 190 5.920
62 CP5 191 7.385
62 CP5 192 8.362
62 CP5 193 9.827
62 CP5 194 11.292
62 CP5 195 12.756
62 CP5 196 13.733
62 CP5 197 14.221
62 CP5 198 13.245
62 CP5 199 11.780
62 CP5 200 9.827
62 CP5 201 8.362
62 CP5 202 6.409
62 CP5 203 4.456
62 CP5 204 2.502
62 CP5 205 1.038
62 CP5 206 0.061
62 CP5 207 -0.427
62 CP5 208 0.061
62 CP5 209 1.038
62 CP5 210 1.526
62 CP5 211 2.014
62 CP5 212 2.502
62 CP5 213 3.479
62 CP5 214 3.967
62 CP5 215 4.456
62 CP5 216 5.432
62 CP5 217 6.409
62 CP5 218 7.385
62 CP5 219 7.874
62 CP5 220 6.897
62 CP5 221 5.432
62 CP5 222 2.991
62 CP5 223 1.038
62 CP5 224 0.549
62 CP5 225 0.061
62 CP5 226 1.038
62 CP5 227 2.502
62 CP5 228 4.456
62 CP5 229 6.897
62 CP5 230 8.850
62 CP5 231 11.292
62 CP5 232 12.268
62 CP5 233 11.780
62 CP5 234 10.803
62 CP5 235 9.827
62 CP5 236 9.338
62 CP5 237 8.850
62 CP5 238 9.338
62 CP5 239 9.827
62 CP5 240 9.338
62 CP5 241 9.338
62 CP5 242 8.362
62 CP5 243 7.874
62 CP5 244 7.385
62 CP5 245 7.385
62 CP5 246 7.385
62 CP5 247 8.362
62 CP5 248 9.338
62 CP5 249 9.827
62 CP5 250 8.850
62 CP5 251 7.385
62 CP5 252 4.944
62 CP5 253 3.479
62 CP5 254 2.991
62 CP5 255 3.967
# CP6 chan 19
62 CP6 0 4.679
62 CP6 1 3.703
62 CP6 2 3.215
62 CP6 3 3.703
62 CP6 4 4.679
62 CP6 5 5.168
62 CP6 6 4.679
62 CP6 7 2.726
62 CP6 8 0.285
62 CP6 9 -1.180
62 CP6 10 -1.668
62 CP6 11 -1.180
62 CP6 12 -0.203
62 CP6 13 0.773
62 CP6 14 0.773
62 CP6 15 1.261
62 CP6 16 2.726
62 CP6 17 5.168
62 CP6 18 7.609
62 CP6 19 9.074
62 CP6 20 9.074
62 CP6 21 8.097
62 CP6 22 6.632
62 CP6 23 5.656
62 CP6 24 6.144
62 CP6 25 7.609
62 CP6 26 8.586
62 CP6 27 9.074
62 CP6 28 8.586
62 CP6 29 8.097
62 CP6 30 7.121
62 CP6 31 7.121
62 CP6 32 7.121
62 CP6 33 6.144
62 CP6 34 5.656
62 CP6 35 5.168
62 CP6 36 5.168
62 CP6 37 6.632
62 CP6 38 8.586
62 CP6 39 10.050
62 CP6 40 10.050
62 CP6 41 10.050
62 CP6 42 9.562
62 CP6 43 8.586
62 CP6 44 7.121
62 CP6 45 5.168
62 CP6 46 3.215
62 CP6 47 1.261
62 CP6 48 0.773
62 CP6 49 0.773
62 CP6 50 1.750
62 CP6 51 1.750
62 CP6 52 0.773
62 CP6 53 0.285
62 CP6 54 -0.203
62 CP6 55 0.285
62 CP6 56 1.750
62 CP6 57 3.215
62 CP6 58 3.703
62 CP6 59 3.703
62 CP6 60 4.191
62 CP6 61 5.656
62 CP6 62 8.097
62 CP6 63 10.050
62 CP6 64 11.515
62 CP6 65 11.515
62 CP6 66 10.539
62 CP6 67 10.050
62 CP6 68 10.539
62 CP6 69 11.515
62 CP6 70 12.492
62 CP6 71 12.004
62 CP6 72 11.027
62 CP6 73 9.074
62 CP6 74 7.609
62 CP6 75 6.632
62 CP6 76 7.121
62 CP6 77 7.609
62 CP6 78 8.586
62 CP6 79 10.050
62 CP6 80 11.027
62 CP6 81 12.492
62 CP6 82 14.445
62 CP6 83 15.910
62 CP6 84 16.886
62 CP6 85 17.375
62 CP6 86 17.375
62 CP6 87 16.398
62 CP6 88 14.933
62 CP6 89 13.468
62 CP6 90 11.515
62 CP6 91 10.050
62 CP6 92 8.586
62 CP6 93 7.609
62 CP6 94 6.632
62 CP6 95 6.632
62 CP6 96 7.121
62 CP6 97 8.586
62 CP6 98 10.539
62 CP6 99 12.492
62 CP6 100 13.957
62 CP6 101 14.933
62 CP6 102 14.933
62 CP6 103 15.910
62 CP6 104 16.886
62 CP6 105 18.351
62 CP6 106 19.328
62 CP6 107 19.816
62 CP6 108 20.304
62 CP6 109 20.304
62 CP6 110 20.793
62 CP6 111 20.793
62 CP6 112 20.304
62 CP6 113 18.840
62 CP6 114 16.398
62 CP6 115 12.980
62 CP6 116 9.562
62 CP6 117 6.632
62 CP6 118 4.679
62 CP6 119 4.191
62 CP6 120 4.191
62 CP6 121 5.168
62 CP6 122 6.632
62 CP6 123 7.609
62 CP6 124 8.586
62 CP6 125 9.074
62 CP6 126 10.050
62 CP6 127 11.027
62 CP6 128 12.004
62 CP6 129 13.468
62 CP6 130 14.445
62 CP6 131 14.445
62 CP6 132 14.445
62 CP6 133 13.468
62 CP6 134 12.004
62 CP6 135 10.539
62 CP6 136 8.097
62 CP6 137 5.168
62 CP6 138 2.726
62 CP6 139 0.285
62 CP6 140 -1.180
62 CP6 141 -1.668
62 CP6 142 -0.692
62 CP6 143 1.261
62 CP6 144 3.215
62 CP6 145 5.168
62 CP6 146 6.632
62 CP6 147 7.121
62 CP6 148 7.121
62 CP6 149 7.609
62 CP6 150 8.097
62 CP6 151 9.074
62 CP6 152 9.562
62 CP6 153 10.050
62 CP6 154 11.027
62 CP6 155 11.515
62 CP6 156 12.004
62 CP6 157 12.492
62 CP6 158 12.004
62 CP6 159 10.050
62 CP6 160 7.609
62 CP6 161 4.679
62 CP6 162 2.238
62 CP6 163 0.285
62 CP6 164 -0.203
62 CP6 165 -0.203
62 CP6 166 1.750
62 CP6 167 3.703
62 CP6 168 6.144
62 CP6 169 7.609
62 CP6 170 7.609
62 CP6 171 8.097
62 CP6 172 8.586
62 CP6 173 10.539
62 CP6 174 12.980
62 CP6 175 14.933
62 CP6 176 15.422
62 CP6 177 14.445
62 CP6 178 12.004
62 CP6 179 9.562
62 CP6 180 6.632
62 CP6 181 5.168
62 CP6 182 3.703
62 CP6 183 2.726
62 CP6 184 1.261
62 CP6 185 0.285
62 CP6 186 -0.692
62 CP6 187 -0.203
62 CP6 188 0.773
62 CP6 189 4.191
62 CP6 190 7.121
62 CP6 191 10.050
62 CP6 192 11.515
62 CP6 193 11.027
62 CP6 194 9.562
62 CP6 195 8.586
62 CP6 196 8.586
62 CP6 197 9.562
62 CP6 198 11.027
62 CP6 199 12.004
62 CP6 200 12.004
62 CP6 201 10.539
62 CP6 202 9.562
62 CP6 203 9.074
62 CP6 204 10.050
62 CP6 205 11.027
62 CP6 206 12.492
62 CP6 207 12.980
62 CP6 208 12.492
62 CP6 209 11.027
62 CP6 210 8.097
62 CP6 211 5.168
62 CP6 212 2.238
62 CP6 213 0.773
62 CP6 214 1.261
62 CP6 215 2.726
62 CP6 216 4.679
62 CP6 217 7.121
62 CP6 218 9.562
62 CP6 219 12.004
62 CP6 220 13.957
62 CP6 221 14.933
62 CP6 222 14.445
62 CP6 223 12.492
62 CP6 224 9.074
62 CP6 225 4.679
62 CP6 226 0.285
62 CP6 227 -3.621
62 CP6 228 -5.575
62 CP6 229 -5.086
62 CP6 230 -2.157
62 CP6 231 2.726
62 CP6 232 8.586
62 CP6 233 12.980
62 CP6 234 15.910
62 CP6 235 17.375
62 CP6 236 16.886
62 CP6 237 15.910
62 CP6 238 14.933
62 CP6 239 13.957
62 CP6 240 13.468
62 CP6 241 13.957
62 CP6 242 15.422
62 CP6 243 17.863
62 CP6 244 19.816
62 CP6 245 20.304
62 CP6 246 19.328
62 CP6 247 16.398
62 CP6 248 12.980
62 CP6 249 9.074
62 CP6 250 5.656
62 CP6 251 3.215
62 CP6 252 0.773
62 CP6 253 -0.692
62 CP6 254 -1.180
62 CP6 255 -1.180
# CP1 chan 20
62 CP1 0 1.729
62 CP1 1 0.753
62 CP1 2 0.264
62 CP1 3 -0.224
62 CP1 4 0.264
62 CP1 5 0.264
62 CP1 6 0.753
62 CP1 7 0.264
62 CP1 8 0.264
62 CP1 9 0.264
62 CP1 10 -0.224
62 CP1 11 -0.712
62 CP1 12 -1.689
62 CP1 13 -2.177
62 CP1 14 -3.153
62 CP1 15 -3.153
62 CP1 16 -2.665
62 CP1 17 -1.689
62 CP1 18 -0.712
62 CP1 19 -0.224
62 CP1 20 0.264
62 CP1 21 -0.224
62 CP1 22 -1.689
62 CP1 23 -3.153
62 CP1 24 -4.618
62 CP1 25 -5.107
62 CP1 26 -4.618
62 CP1 27 -3.642
62 CP1 28 -2.177
62 CP1 29 -0.712
62 CP1 30 -0.224
62 CP1 31 -0.224
62 CP1 32 -0.712
62 CP1 33 -1.200
62 CP1 34 -1.689
62 CP1 35 -1.689
62 CP1 36 -1.200
62 CP1 37 -0.224
62 CP1 38 0.264
62 CP1 39 0.753
62 CP1 40 -0.224
62 CP1 41 -1.200
62 CP1 42 -2.177
62 CP1 43 -2.665
62 CP1 44 -3.153
62 CP1 45 -3.153
62 CP1 46 -3.153
62 CP1 47 -3.153
62 CP1 48 -3.153
62 CP1 49 -2.177
62 CP1 50 -1.200
62 CP1 51 0.264
62 CP1 52 1.729
62 CP1 53 2.706
62 CP1 54 2.706
62 CP1 55 2.218
62 CP1 56 2.218
62 CP1 57 2.218
62 CP1 58 2.218
62 CP1 59 1.729
62 CP1 60 1.729
62 CP1 61 1.241
62 CP1 62 0.753
62 CP1 63 -0.224
62 CP1 64 -0.712
62 CP1 65 -1.689
62 CP1 66 -2.665
62 CP1 67 -2.665
62 CP1 68 -2.177
62 CP1 69 -1.200
62 CP1 70 0.264
62 CP1 71 1.729
62 CP1 72 2.218
62 CP1 73 2.218
62 CP1 74 2.218
62 CP1 75 2.706
62 CP1 76 2.706
62 CP1 77 2.218
62 CP1 78 1.729
62 CP1 79 1.241
62 CP1 80 1.241
62 CP1 81 1.729
62 CP1 82 3.194
62 CP1 83 4.171
62 CP1 84 4.659
62 CP1 85 4.659
62 CP1 86 4.171
62 CP1 87 3.194
62 CP1 88 1.729
62 CP1 89 0.753
62 CP1 90 0.264
62 CP1 91 -0.224
62 CP1 92 -1.200
62 CP1 93 -2.177
62 CP1 94 -3.153
62 CP1 95 -3.642
62 CP1 96 -3.153
62 CP1 97 -1.689
62 CP1 98 0.264
62 CP1 99 1.729
62 CP1 100 2.706
62 CP1 101 3.194
62 CP1 102 3.194
62 CP1 103 3.682
62 CP1 104 3.682
62 CP1 105 4.171
62 CP1 106 4.171
62 CP1 107 4.171
62 CP1 108 4.659
62 CP1 109 5.147
62 CP1 110 5.636
62 CP1 111 6.612
62 CP1 112 6.124
62 CP1 113 5.147
62 CP1 114 4.171
62 CP1 115 2.218
62 CP1 116 0.753
62 CP1 117 -0.224
62 CP1 118 -1.200
62 CP1 119 -1.689
62 CP1 120 -1.200
62 CP1 121 -0.224
62 CP1 122 1.241
62 CP1 123 2.218
62 CP1 124 2.218
62 CP1 125 1.729
62 CP1 126 0.264
62 CP1 127 -0.712
62 CP1 128 -1.689
62 CP1 129 -1.689
62 CP1 130 -1.689
62 CP1 131 -1.689
62 CP1 132 -1.689
62 CP1 133 -2.665
62 CP1 134 -3.153
62 CP1 135 -2.665
62 CP1 136 -2.665
62 CP1 137 -1.689
62 CP1 138 -1.200
62 CP1 139 -0.712
62 CP1 140 -1.200
62 CP1 141 -2.177
62 CP1 142 -2.177
62 CP1 143 -1.200
62 CP1 144 -0.224
62 CP1 145 1.729
62 CP1 146 2.706
62 CP1 147 2.706
62 CP1 148 1.729
62 CP1 149 0.753
62 CP1 150 0.264
62 CP1 151 0.753
62 CP1 152 2.218
62 CP1 153 3.194
62 CP1 154 4.659
62 CP1 155 5.147
62 CP1 156 5.147
62 CP1 157 5.147
62 CP1 158 4.171
62 CP1 159 3.194
62 CP1 160 1.729
62 CP1 161 1.241
62 CP1 162 0.753
62 CP1 163 0.753
62 CP1 164 1.241
62 CP1 165 1.241
62 CP1 166 1.241
62 CP1 167 1.729
62 CP1 168 2.218
62 CP1 169 3.194
62 CP1 170 3.194
62 CP1 171 2.706
62 CP1 172 2.218
62 CP1 173 1.241
62 CP1 174 0.753
62 CP1 175 1.241
62 CP1 176 1.729
62 CP1 177 2.218
62 CP1 178 1.729
62 CP1 179 1.241
62 CP1 180 0.753
62 CP1 181 0.264
62 CP1 182 0.264
62 CP1 183 -0.224
62 CP1 184 0.264
62 CP1 185 -0.224
62 CP1 186 -0.712
62 CP1 187 -0.712
62 CP1 188 -0.712
62 CP1 189 -0.712
62 CP1 190 -0.712
62 CP1 191 -0.712
62 CP1 192 -0.712
62 CP1 193 -1.200
62 CP1 194 -0.712
62 CP1 195 0.264
62 CP1 196 0.753
62 CP1 197 1.241
62 CP1 198 2.218
62 CP1 199 2.706
62 CP1 200 3.194
62 CP1 201 4.171
62 CP1 202 4.171
62 CP1 203 3.194
62 CP1 204 1.241
62 CP1 205 -0.712
62 CP1 206 -3.153
62 CP1 207 -4.618
62 CP1 208 -5.595
62 CP1 209 -6.083
62 CP1 210 -6.083
62 CP1 211 -5.595
62 CP1 212 -4.618
62 CP1 213 -3.642
62 CP1 214 -2.177
62 CP1 215 -0.712
62 CP1 216 -0.224
62 CP1 217 -0.224
62 CP1 218 -0.224
62 CP1 219 -0.224
62 CP1 220 -0.712
62 CP1 221 -1.200
62 CP1 222 -2.177
62 CP1 223 -3.642
62 CP1 224 -4.618
62 CP1 225 -5.107
62 CP1 226 -5.107
62 CP1 227 -4.618
62 CP1 228 -3.642
62 CP1 229 -2.665
62 CP1 230 -1.689
62 CP1 231 -0.712
62 CP1 232 -0.224
62 CP1 233 -0.224
62 CP1 234 -0.224
62 CP1 235 -0.712
62 CP1 236 -0.712
62 CP1 237 0.264
62 CP1 238 1.241
62 CP1 239 2.218
62 CP1 240 2.706
62 CP1 241 3.194
62 CP1 242 2.706
62 CP1 243 2.218
62 CP1 244 1.729
62 CP1 245 0.753
62 CP1 246 0.264
62 CP1 247 -0.712
62 CP1 248 -1.200
62 CP1 249 -2.177
62 CP1 250 -2.665
62 CP1 251 -3.153
62 CP1 252 -3.642
62 CP1 253 -3.642
62 CP1 254 -4.130
62 CP1 255 -3.153
# CP2 chan 21
62 CP2 0 2.757
62 CP2 1 1.292
62 CP2 2 1.292
62 CP2 3 0.804
62 CP2 4 1.292
62 CP2 5 1.292
62 CP2 6 0.315
62 CP2 7 -0.661
62 CP2 8 -2.614
62 CP2 9 -3.591
62 CP2 10 -4.079
62 CP2 11 -3.591
62 CP2 12 -2.614
62 CP2 13 -2.126
62 CP2 14 -1.638
62 CP2 15 -1.638
62 CP2 16 -1.638
62 CP2 17 -0.661
62 CP2 18 0.315
62 CP2 19 1.292
62 CP2 20 1.780
62 CP2 21 1.292
62 CP2 22 0.804
62 CP2 23 0.804
62 CP2 24 1.780
62 CP2 25 2.268
62 CP2 26 3.245
62 CP2 27 3.245
62 CP2 28 2.268
62 CP2 29 1.292
62 CP2 30 0.804
62 CP2 31 0.804
62 CP2 32 0.804
62 CP2 33 0.804
62 CP2 34 0.804
62 CP2 35 0.804
62 CP2 36 1.292
62 CP2 37 1.780
62 CP2 38 2.757
62 CP2 39 2.757
62 CP2 40 2.757
62 CP2 41 2.757
62 CP2 42 2.757
62 CP2 43 2.268
62 CP2 44 1.292
62 CP2 45 0.315
62 CP2 46 -1.149
62 CP2 47 -2.126
62 CP2 48 -2.614
62 CP2 49 -2.614
62 CP2 50 -2.126
62 CP2 51 -2.126
62 CP2 52 -2.614
62 CP2 53 -2.614
62 CP2 54 -2.126
62 CP2 55 -1.638
62 CP2 56 -1.149
62 CP2 57 -1.149
62 CP2 58 -1.149
62 CP2 59 -1.149
62 CP2 60 -0.661
62 CP2 61 0.315
62 CP2 62 2.268
62 CP2 63 3.733
62 CP2 64 4.222
62 CP2 65 4.222
62 CP2 66 3.245
62 CP2 67 2.268
62 CP2 68 2.268
62 CP2 69 2.757
62 CP2 70 3.245
62 CP2 71 3.733
62 CP2 72 3.733
62 CP2 73 3.733
62 CP2 74 3.733
62 CP2 75 3.245
62 CP2 76 3.245
62 CP2 77 2.757
62 CP2 78 2.757
62 CP2 79 3.245
62 CP2 80 3.245
62 CP2 81 3.245
62 CP2 82 3.245
62 CP2 83 3.245
62 CP2 84 3.245
62 CP2 85 3.733
62 CP2 86 4.222
62 CP2 87 4.222
62 CP2 88 3.733
62 CP2 89 3.245
62 CP2 90 2.757
62 CP2 91 2.268
62 CP2 92 1.780
62 CP2 93 1.292
62 CP2 94 0.315
62 CP2 95 -0.173
62 CP2 96 -0.173
62 CP2 97 0.315
62 CP2 98 1.780
62 CP2 99 3.245
62 CP2 100 3.733
62 CP2 101 3.733
62 CP2 102 3.733
62 CP2 103 3.733
62 CP2 104 4.222
62 CP2 105 4.710
62 CP2 106 5.198
62 CP2 107 5.686
62 CP2 108 6.175
62 CP2 109 7.151
62 CP2 110 7.640
62 CP2 111 8.128
62 CP2 112 7.640
62 CP2 113 7.151
62 CP2 114 5.198
62 CP2 115 3.733
62 CP2 116 2.268
62 CP2 117 0.804
62 CP2 118 0.315
62 CP2 119 -0.173
62 CP2 120 0.315
62 CP2 121 0.804
62 CP2 122 2.268
62 CP2 123 3.245
62 CP2 124 3.245
62 CP2 125 3.733
62 CP2 126 3.733
62 CP2 127 3.733
62 CP2 128 3.733
62 CP2 129 3.733
62 CP2 130 3.245
62 CP2 131 3.245
62 CP2 132 2.757
62 CP2 133 2.757
62 CP2 134 2.268
62 CP2 135 2.268
62 CP2 136 2.268
62 CP2 137 1.780
62 CP2 138 1.292
62 CP2 139 0.804
62 CP2 140 0.315
62 CP2 141 -0.661
62 CP2 142 -1.149
62 CP2 143 -0.661
62 CP2 144 -0.173
62 CP2 145 -0.173
62 CP2 146 -0.173
62 CP2 147 -0.661
62 CP2 148 -1.149
62 CP2 149 -0.661
62 CP2 150 0.315
62 CP2 151 2.268
62 CP2 152 3.733
62 CP2 153 5.198
62 CP2 154 6.663
62 CP2 155 7.151
62 CP2 156 7.151
62 CP2 157 7.151
62 CP2 158 5.686
62 CP2 159 4.222
62 CP2 160 2.268
62 CP2 161 0.315
62 CP2 162 -1.149
62 CP2 163 -1.638
62 CP2 164 -1.638
62 CP2 165 -1.638
62 CP2 166 -1.149
62 CP2 167 -0.661
62 CP2 168 0.315
62 CP2 169 0.804
62 CP2 170 1.292
62 CP2 171 2.268
62 CP2 172 2.757
62 CP2 173 3.733
62 CP2 174 4.710
62 CP2 175 6.175
62 CP2 176 7.151
62 CP2 177 6.663
62 CP2 178 5.686
62 CP2 179 4.222
62 CP2 180 2.268
62 CP2 181 1.292
62 CP2 182 0.804
62 CP2 183 0.315
62 CP2 184 -0.173
62 CP2 185 -1.638
62 CP2 186 -2.126
62 CP2 187 -2.614
62 CP2 188 -2.614
62 CP2 189 -1.149
62 CP2 190 -0.173
62 CP2 191 0.315
62 CP2 192 0.315
62 CP2 193 -0.661
62 CP2 194 -1.149
62 CP2 195 -1.638
62 CP2 196 -0.661
62 CP2 197 1.292
62 CP2 198 2.757
62 CP2 199 4.222
62 CP2 200 5.198
62 CP2 201 5.686
62 CP2 202 6.175
62 CP2 203 5.686
62 CP2 204 5.686
62 CP2 205 4.710
62 CP2 206 3.733
62 CP2 207 2.757
62 CP2 208 1.292
62 CP2 209 -0.173
62 CP2 210 -1.638
62 CP2 211 -3.591
62 CP2 212 -4.567
62 CP2 213 -5.056
62 CP2 214 -4.079
62 CP2 215 -3.103
62 CP2 216 -1.638
62 CP2 217 -0.173
62 CP2 218 0.315
62 CP2 219 1.292
62 CP2 220 1.780
62 CP2 221 2.757
62 CP2 222 3.245
62 CP2 223 2.757
62 CP2 224 2.268
62 CP2 225 0.315
62 CP2 226 -1.638
62 CP2 227 -3.591
62 CP2 228 -5.544
62 CP2 229 -6.032
62 CP2 230 -5.544
62 CP2 231 -4.079
62 CP2 232 -2.614
62 CP2 233 -0.661
62 CP2 234 0.804
62 CP2 235 1.292
62 CP2 236 1.780
62 CP2 237 2.268
62 CP2 238 2.757
62 CP2 239 3.733
62 CP2 240 4.710
62 CP2 241 5.686
62 CP2 242 6.663
62 CP2 243 8.128
62 CP2 244 9.104
62 CP2 245 9.104
62 CP2 246 8.616
62 CP2 247 7.151
62 CP2 248 4.710
62 CP2 249 2.268
62 CP2 250 0.315
62 CP2 251 -1.638
62 CP2 252 -3.103
62 CP2 253 -4.079
62 CP2 254 -4.567
62 CP2 255 -5.056
# P3 chan 22
62 P3 0 4.405
62 P3 1 2.940
62 P3 2 1.963
62 P3 3 1.475
62 P3 4 1.963
62 P3 5 2.452
62 P3 6 2.452
62 P3 7 1.475
62 P3 8 0.010
62 P3 9 -0.966
62 P3 10 -1.455
62 P3 11 -1.943
62 P3 12 -2.431
62 P3 13 -3.408
62 P3 14 -3.408
62 P3 15 -2.920
62 P3 16 -1.943
62 P3 17 0.010
62 P3 18 0.498
62 P3 19 0.498
62 P3 20 -1.455
62 P3 21 -2.920
62 P3 22 -4.873
62 P3 23 -6.337
62 P3 24 -6.337
62 P3 25 -5.361
62 P3 26 -3.408
62 P3 27 -0.478
62 P3 28 2.452
62 P3 29 4.405
62 P3 30 5.870
62 P3 31 4.893
62 P3 32 2.940
62 P3 33 0.498
62 P3 34 -0.966
62 P3 35 -0.966
62 P3 36 1.475
62 P3 37 3.916
62 P3 38 5.381
62 P3 39 4.893
62 P3 40 2.452
62 P3 41 0.010
62 P3 42 -1.943
62 P3 43 -3.408
62 P3 44 -3.408
62 P3 45 -3.896
62 P3 46 -4.873
62 P3 47 -5.849
62 P3 48 -5.361
62 P3 49 -3.408
62 P3 50 -0.478
62 P3 51 2.452
62 P3 52 4.893
62 P3 53 5.870
62 P3 54 6.358
62 P3 55 6.358
62 P3 56 6.846
62 P3 57 7.334
62 P3 58 7.334
62 P3 59 6.358
62 P3 60 5.381
62 P3 61 4.893
62 P3 62 4.405
62 P3 63 3.428
62 P3 64 1.963
62 P3 65 -0.478
62 P3 66 -1.943
62 P3 67 -2.920
62 P3 68 -1.455
62 P3 69 0.498
62 P3 70 2.452
62 P3 71 3.428
62 P3 72 3.428
62 P3 73 3.916
62 P3 74 4.405
62 P3 75 4.893
62 P3 76 5.381
62 P3 77 4.893
62 P3 78 4.405
62 P3 79 4.405
62 P3 80 5.870
62 P3 81 8.799
62 P3 82 12.217
62 P3 83 14.659
62 P3 84 16.123
62 P3 85 16.123
62 P3 86 15.147
62 P3 87 12.217
62 P3 88 9.776
62 P3 89 7.823
62 P3 90 5.870
62 P3 91 4.405
62 P3 92 1.963
62 P3 93 -0.478
62 P3 94 -3.408
62 P3 95 -5.361
62 P3 96 -4.384
62 P3 97 -0.966
62 P3 98 3.428
62 P3 99 7.334
62 P3 100 9.776
62 P3 101 10.264
62 P3 102 10.264
62 P3 103 11.729
62 P3 104 13.682
62 P3 105 15.635
62 P3 106 16.612
62 P3 107 16.123
62 P3 108 15.147
62 P3 109 15.147
62 P3 110 15.635
62 P3 111 16.612
62 P3 112 16.123
62 P3 113 14.659
62 P3 114 11.241
62 P3 115 7.334
62 P3 116 3.428
62 P3 117 0.987
62 P3 118 -0.966
62 P3 119 -1.455
62 P3 120 -0.966
62 P3 121 0.498
62 P3 122 2.940
62 P3 123 4.893
62 P3 124 5.381
62 P3 125 5.381
62 P3 126 3.916
62 P3 127 2.452
62 P3 128 1.963
62 P3 129 1.963
62 P3 130 2.452
62 P3 131 2.452
62 P3 132 1.475
62 P3 133 -0.478
62 P3 134 -2.431
62 P3 135 -3.408
62 P3 136 -3.408
62 P3 137 -2.920
62 P3 138 -1.943
62 P3 139 -2.431
62 P3 140 -3.896
62 P3 141 -5.361
62 P3 142 -5.361
62 P3 143 -3.408
62 P3 144 -0.478
62 P3 145 3.428
62 P3 146 5.381
62 P3 147 5.870
62 P3 148 4.405
62 P3 149 3.428
62 P3 150 3.428
62 P3 151 4.893
62 P3 152 7.334
62 P3 153 9.288
62 P3 154 10.752
62 P3 155 11.729
62 P3 156 12.217
62 P3 157 12.705
62 P3 158 11.241
62 P3 159 8.799
62 P3 160 6.358
62 P3 161 3.916
62 P3 162 3.428
62 P3 163 4.405
62 P3 164 5.381
62 P3 165 5.870
62 P3 166 6.358
62 P3 167 7.334
62 P3 168 8.311
62 P3 169 9.776
62 P3 170 10.264
62 P3 171 9.776
62 P3 172 8.311
62 P3 173 7.823
62 P3 174 7.823
62 P3 175 8.799
62 P3 176 9.776
62 P3 177 10.264
62 P3 178 9.288
62 P3 179 7.823
62 P3 180 6.358
62 P3 181 4.893
62 P3 182 3.428
62 P3 183 1.963
62 P3 184 0.987
62 P3 185 0.498
62 P3 186 0.498
62 P3 187 0.987
62 P3 188 1.963
62 P3 189 2.452
62 P3 190 2.940
62 P3 191 3.916
62 P3 192 5.381
62 P3 193 6.358
62 P3 194 7.823
62 P3 195 8.311
62 P3 196 9.288
62 P3 197 10.264
62 P3 198 11.241
62 P3 199 12.705
62 P3 200 13.194
62 P3 201 13.194
62 P3 202 11.729
62 P3 203 8.311
62 P3 204 4.405
62 P3 205 0.498
62 P3 206 -1.943
62 P3 207 -3.896
62 P3 208 -4.384
62 P3 209 -4.873
62 P3 210 -4.873
62 P3 211 -4.384
62 P3 212 -3.408
62 P3 213 -1.943
62 P3 214 0.010
62 P3 215 1.963
62 P3 216 4.405
62 P3 217 6.358
62 P3 218 8.311
62 P3 219 9.288
62 P3 220 9.288
62 P3 221 7.334
62 P3 222 4.405
62 P3 223 1.475
62 P3 224 -0.966
62 P3 225 -2.431
62 P3 226 -2.431
62 P3 227 -1.455
62 P3 228 0.498
62 P3 229 2.940
62 P3 230 5.870
62 P3 231 8.799
62 P3 232 10.752
62 P3 233 11.241
62 P3 234 10.752
62 P3 235 9.776
62 P3 236 9.288
62 P3 237 9.776
62 P3 238 11.241
62 P3 239 12.217
62 P3 240 13.194
62 P3 241 13.682
62 P3 242 13.682
62 P3 243 13.682
62 P3 244 13.682
62 P3 245 13.194
62 P3 246 11.729
62 P3 247 9.776
62 P3 248 7.823
62 P3 249 5.870
62 P3 250 3.428
62 P3 251 0.987
62 P3 252 -1.455
62 P3 253 -3.896
62 P3 254 -3.408
62 P3 255 -1.455
# P4 chan 23
62 P4 0 3.906
62 P4 1 2.441
62 P4 2 1.953
62 P4 3 2.930
62 P4 4 3.906
62 P4 5 4.395
62 P4 6 3.418
62 P4 7 0.488
62 P4 8 -2.441
62 P4 9 -4.883
62 P4 10 -5.371
62 P4 11 -3.906
62 P4 12 -2.441
62 P4 13 -1.953
62 P4 14 -1.953
62 P4 15 -1.953
62 P4 16 -0.977
62 P4 17 0.977
62 P4 18 3.418
62 P4 19 5.371
62 P4 20 4.883
62 P4 21 3.906
62 P4 22 2.441
62 P4 23 2.441
62 P4 24 3.906
62 P4 25 5.371
62 P4 26 6.836
62 P4 27 6.836
62 P4 28 5.859
62 P4 29 4.883
62 P4 30 3.906
62 P4 31 3.906
62 P4 32 3.906
62 P4 33 3.906
62 P4 34 4.395
62 P4 35 4.395
62 P4 36 5.371
62 P4 37 6.348
62 P4 38 7.324
62 P4 39 7.812
62 P4 40 7.324
62 P4 41 6.836
62 P4 42 6.348
62 P4 43 5.371
62 P4 44 4.395
62 P4 45 2.441
62 P4 46 0.488
62 P4 47 -0.977
62 P4 48 -0.977
62 P4 49 0.000
62 P4 50 0.488
62 P4 51 0.977
62 P4 52 0.000
62 P4 53 -0.977
62 P4 54 -0.977
62 P4 55 -0.977
62 P4 56 0.488
62 P4 57 1.465
62 P4 58 1.953
62 P4 59 2.930
62 P4 60 4.395
62 P4 61 7.324
62 P4 62 9.766
62 P4 63 11.719
62 P4 64 12.207
62 P4 65 10.742
62 P4 66 9.277
62 P4 67 7.812
62 P4 68 7.812
62 P4 69 8.301
62 P4 70 9.277
62 P4 71 10.254
62 P4 72 10.254
62 P4 73 10.254
62 P4 74 9.766
62 P4 75 8.789
62 P4 76 8.301
62 P4 77 7.324
62 P4 78 6.836
62 P4 79 6.836
62 P4 80 7.812
62 P4 81 8.301
62 P4 82 9.277
62 P4 83 10.742
62 P4 84 11.719
62 P4 85 12.207
62 P4 86 12.207
62 P4 87 11.230
62 P4 88 9.766
62 P4 89 7.812
62 P4 90 6.348
62 P4 91 4.883
62 P4 92 3.906
62 P4 93 2.441
62 P4 94 0.488
62 P4 95 -0.488
62 P4 96 0.000
62 P4 97 2.441
62 P4 98 5.859
62 P4 99 7.812
62 P4 100 8.789
62 P4 101 8.789
62 P4 102 8.301
62 P4 103 9.277
62 P4 104 10.742
62 P4 105 12.695
62 P4 106 14.160
62 P4 107 15.137
62 P4 108 16.113
62 P4 109 18.066
62 P4 110 20.020
62 P4 111 20.508
62 P4 112 20.020
62 P4 113 17.578
62 P4 114 13.184
62 P4 115 8.789
62 P4 116 4.883
62 P4 117 1.953
62 P4 118 0.488
62 P4 119 0.488
62 P4 120 1.953
62 P4 121 4.395
62 P4 122 6.836
62 P4 123 9.277
62 P4 124 10.254
62 P4 125 10.742
62 P4 126 10.742
62 P4 127 10.742
62 P4 128 10.254
62 P4 129 9.766
62 P4 130 9.277
62 P4 131 8.789
62 P4 132 7.812
62 P4 133 6.836
62 P4 134 6.348
62 P4 135 5.859
62 P4 136 4.883
62 P4 137 4.395
62 P4 138 3.906
62 P4 139 1.953
62 P4 140 0.000
62 P4 141 -1.465
62 P4 142 -1.953
62 P4 143 -0.488
62 P4 144 0.977
62 P4 145 2.930
62 P4 146 2.930
62 P4 147 2.441
62 P4 148 1.465
62 P4 149 1.465
62 P4 150 3.418
62 P4 151 5.859
62 P4 152 9.277
62 P4 153 12.207
62 P4 154 14.648
62 P4 155 15.625
62 P4 156 15.625
62 P4 157 14.648
62 P4 158 11.719
62 P4 159 8.301
62 P4 160 4.395
62 P4 161 0.488
62 P4 162 -1.953
62 P4 163 -3.418
62 P4 164 -3.906
62 P4 165 -3.418
62 P4 166 -2.441
62 P4 167 -0.488
62 P4 168 1.465
62 P4 169 2.441
62 P4 170 3.418
62 P4 171 3.906
62 P4 172 4.883
62 P4 173 7.324
62 P4 174 10.742
62 P4 175 13.672
62 P4 176 15.137
62 P4 177 14.160
62 P4 178 11.230
62 P4 179 6.836
62 P4 180 2.930
62 P4 181 0.000
62 P4 182 -1.465
62 P4 183 -1.953
62 P4 184 -2.930
62 P4 185 -4.395
62 P4 186 -5.371
62 P4 187 -5.859
62 P4 188 -4.883
62 P4 189 -2.930
62 P4 190 -0.488
62 P4 191 0.488
62 P4 192 -0.488
62 P4 193 -2.930
62 P4 194 -4.883
62 P4 195 -4.883
62 P4 196 -2.441
62 P4 197 1.465
62 P4 198 6.348
62 P4 199 9.766
62 P4 200 11.230
62 P4 201 11.719
62 P4 202 11.230
62 P4 203 10.254
62 P4 204 8.789
62 P4 205 7.324
62 P4 206 5.371
62 P4 207 3.418
62 P4 208 0.488
62 P4 209 -2.930
62 P4 210 -7.324
62 P4 211 -10.254
62 P4 212 -11.719
62 P4 213 -10.742
62 P4 214 -8.301
62 P4 215 -4.395
62 P4 216 -0.488
62 P4 217 2.441
62 P4 218 3.906
62 P4 219 5.859
62 P4 220 7.324
62 P4 221 8.301
62 P4 222 8.301
62 P4 223 6.348
62 P4 224 2.930
62 P4 225 -1.953
62 P4 226 -7.324
62 P4 227 -11.719
62 P4 228 -14.160
62 P4 229 -14.648
62 P4 230 -12.695
62 P4 231 -9.277
62 P4 232 -4.395
62 P4 233 0.000
62 P4 234 2.930
62 P4 235 4.883
62 P4 236 6.348
62 P4 237 6.836
62 P4 238 7.812
62 P4 239 9.277
62 P4 240 10.254
62 P4 241 11.719
62 P4 242 13.184
62 P4 243 14.648
62 P4 244 16.602
62 P4 245 16.602
62 P4 246 15.137
62 P4 247 12.207
62 P4 248 7.324
62 P4 249 2.441
62 P4 250 -1.953
62 P4 251 -5.859
62 P4 252 -9.277
62 P4 253 -11.230
62 P4 254 -12.695
62 P4 255 -12.695
# PZ chan 24
62 PZ 0 1.648
62 PZ 1 -0.793
62 PZ 2 -1.770
62 PZ 3 -2.258
62 PZ 4 -1.770
62 PZ 5 -1.282
62 PZ 6 -1.282
62 PZ 7 -2.258
62 PZ 8 -3.723
62 PZ 9 -5.188
62 PZ 10 -6.165
62 PZ 11 -5.676
62 PZ 12 -5.676
62 PZ 13 -5.676
62 PZ 14 -6.653
62 PZ 15 -7.141
62 PZ 16 -6.653
62 PZ 17 -5.188
62 PZ 18 -3.235
62 PZ 19 -1.282
62 PZ 20 -0.793
62 PZ 21 -1.282
62 PZ 22 -2.747
62 PZ 23 -4.211
62 PZ 24 -4.700
62 PZ 25 -3.723
62 PZ 26 -2.747
62 PZ 27 -1.770
62 PZ 28 -2.258
62 PZ 29 -2.747
62 PZ 30 -3.723
62 PZ 31 -4.211
62 PZ 32 -4.700
62 PZ 33 -4.211
62 PZ 34 -4.211
62 PZ 35 -3.235
62 PZ 36 -1.770
62 PZ 37 -0.305
62 PZ 38 0.671
62 PZ 39 1.160
62 PZ 40 0.671
62 PZ 41 -0.793
62 PZ 42 -2.747
62 PZ 43 -3.723
62 PZ 44 -4.700
62 PZ 45 -6.165
62 PZ 46 -7.629
62 PZ 47 -8.606
62 PZ 48 -8.606
62 PZ 49 -8.118
62 PZ 50 -7.141
62 PZ 51 -6.165
62 PZ 52 -6.165
62 PZ 53 -6.165
62 PZ 54 -6.653
62 PZ 55 -6.653
62 PZ 56 -6.653
62 PZ 57 -6.165
62 PZ 58 -6.653
62 PZ 59 -6.165
62 PZ 60 -5.676
62 PZ 61 -4.211
62 PZ 62 -2.747
62 PZ 63 -1.770
62 PZ 64 -2.258
62 PZ 65 -3.723
62 PZ 66 -5.676
62 PZ 67 -7.629
62 PZ 68 -8.118
62 PZ 69 -7.629
62 PZ 70 -5.676
62 PZ 71 -3.723
62 PZ 72 -1.282
62 PZ 73 0.183
62 PZ 74 1.648
62 PZ 75 2.136
62 PZ 76 1.648
62 PZ 77 -0.305
62 PZ 78 -1.770
62 PZ 79 -3.235
62 PZ 80 -4.700
62 PZ 81 -5.188
62 PZ 82 -5.676
62 PZ 83 -5.188
62 PZ 84 -5.188
62 PZ 85 -4.700
62 PZ 86 -4.700
62 PZ 87 -5.188
62 PZ 88 -5.676
62 PZ 89 -6.165
62 PZ 90 -5.676
62 PZ 91 -5.676
62 PZ 92 -6.165
62 PZ 93 -7.141
62 PZ 94 -9.094
62 PZ 95 -10.559
62 PZ 96 -11.047
62 PZ 97 -9.583
62 PZ 98 -7.629
62 PZ 99 -5.188
62 PZ 100 -3.723
62 PZ 101 -3.235
62 PZ 102 -3.723
62 PZ 103 -3.235
62 PZ 104 -2.747
62 PZ 105 -1.770
62 PZ 106 -1.282
62 PZ 107 -0.793
62 PZ 108 0.183
62 PZ 109 1.160
62 PZ 110 2.625
62 PZ 111 3.601
62 PZ 112 4.089
62 PZ 113 3.113
62 PZ 114 1.160
62 PZ 115 -1.770
62 PZ 116 -5.188
62 PZ 117 -7.629
62 PZ 118 -9.094
62 PZ 119 -9.094
62 PZ 120 -7.629
62 PZ 121 -5.188
62 PZ 122 -3.235
62 PZ 123 -1.282
62 PZ 124 -0.305
62 PZ 125 -0.793
62 PZ 126 -2.258
62 PZ 127 -3.723
62 PZ 128 -5.676
62 PZ 129 -7.141
62 PZ 130 -7.629
62 PZ 131 -8.118
62 PZ 132 -8.606
62 PZ 133 -9.094
62 PZ 134 -9.583
62 PZ 135 -8.606
62 PZ 136 -7.629
62 PZ 137 -5.676
62 PZ 138 -4.211
62 PZ 139 -3.723
62 PZ 140 -4.700
62 PZ 141 -5.676
62 PZ 142 -6.653
62 PZ 143 -6.653
62 PZ 144 -5.676
62 PZ 145 -5.188
62 PZ 146 -5.676
62 PZ 147 -8.118
62 PZ 148 -10.559
62 PZ 149 -12.024
62 PZ 150 -11.536
62 PZ 151 -8.606
62 PZ 152 -4.211
62 PZ 153 0.183
62 PZ 154 4.089
62 PZ 155 6.531
62 PZ 156 7.019
62 PZ 157 7.019
62 PZ 158 6.042
62 PZ 159 3.601
62 PZ 160 0.671
62 PZ 161 -2.747
62 PZ 162 -5.188
62 PZ 163 -6.653
62 PZ 164 -8.118
62 PZ 165 -8.118
62 PZ 166 -8.606
62 PZ 167 -7.629
62 PZ 168 -7.141
62 PZ 169 -5.676
62 PZ 170 -4.700
62 PZ 171 -4.211
62 PZ 172 -3.723
62 PZ 173 -2.747
62 PZ 174 -1.282
62 PZ 175 0.671
62 PZ 176 2.625
62 PZ 177 2.625
62 PZ 178 1.648
62 PZ 179 -0.793
62 PZ 180 -3.235
62 PZ 181 -4.700
62 PZ 182 -5.188
62 PZ 183 -5.188
62 PZ 184 -5.188
62 PZ 185 -6.165
62 PZ 186 -7.629
62 PZ 187 -9.094
62 PZ 188 -9.583
62 PZ 189 -9.583
62 PZ 190 -9.583
62 PZ 191 -10.071
62 PZ 192 -11.536
62 PZ 193 -13.977
62 PZ 194 -14.954
62 PZ 195 -14.954
62 PZ 196 -12.512
62 PZ 197 -9.094
62 PZ 198 -4.700
62 PZ 199 -0.793
62 PZ 200 3.113
62 PZ 201 5.554
62 PZ 202 6.531
62 PZ 203 6.042
62 PZ 204 3.113
62 PZ 205 -0.305
62 PZ 206 -3.723
62 PZ 207 -7.629
62 PZ 208 -10.559
62 PZ 209 -13.000
62 PZ 210 -15.442
62 PZ 211 -17.395
62 PZ 212 -18.372
62 PZ 213 -17.883
62 PZ 214 -15.442
62 PZ 215 -12.512
62 PZ 216 -9.583
62 PZ 217 -7.629
62 PZ 218 -5.676
62 PZ 219 -4.700
62 PZ 220 -3.235
62 PZ 221 -1.770
62 PZ 222 -0.793
62 PZ 223 -1.282
62 PZ 224 -2.747
62 PZ 225 -5.676
62 PZ 226 -9.094
62 PZ 227 -12.024
62 PZ 228 -14.465
62 PZ 229 -15.442
62 PZ 230 -15.442
62 PZ 231 -13.489
62 PZ 232 -11.047
62 PZ 233 -8.606
62 PZ 234 -7.629
62 PZ 235 -7.629
62 PZ 236 -6.653
62 PZ 237 -5.188
62 PZ 238 -3.235
62 PZ 239 -0.305
62 PZ 240 2.136
62 PZ 241 3.601
62 PZ 242 4.578
62 PZ 243 6.042
62 PZ 244 7.507
62 PZ 245 7.996
62 PZ 246 7.019
62 PZ 247 3.601
62 PZ 248 -0.793
62 PZ 249 -5.188
62 PZ 250 -9.583
62 PZ 251 -13.489
62 PZ 252 -16.418
62 PZ 253 -18.372
62 PZ 254 -19.348
62 PZ 255 -18.372
# P8 chan 25
62 P8 0 6.836
62 P8 1 5.371
62 P8 2 4.883
62 P8 3 6.836
62 P8 4 10.254
62 P8 5 12.207
62 P8 6 11.719
62 P8 7 8.301
62 P8 8 3.906
62 P8 9 0.488
62 P8 10 -0.977
62 P8 11 0.000
62 P8 12 1.465
62 P8 13 1.953
62 P8 14 1.953
62 P8 15 2.441
62 P8 16 4.395
62 P8 17 8.789
62 P8 18 13.184
62 P8 19 16.113
62 P8 20 16.113
62 P8 21 13.672
62 P8 22 11.230
62 P8 23 10.254
62 P8 24 11.719
62 P8 25 14.648
62 P8 26 17.578
62 P8 27 19.043
62 P8 28 19.043
62 P8 29 18.066
62 P8 30 16.602
62 P8 31 15.625
62 P8 32 15.137
62 P8 33 14.160
62 P8 34 13.184
62 P8 35 12.207
62 P8 36 12.207
62 P8 37 13.184
62 P8 38 15.137
62 P8 39 17.090
62 P8 40 17.578
62 P8 41 17.578
62 P8 42 17.090
62 P8 43 16.113
62 P8 44 14.160
62 P8 45 11.230
62 P8 46 8.301
62 P8 47 6.348
62 P8 48 6.348
62 P8 49 7.812
62 P8 50 9.766
62 P8 51 11.230
62 P8 52 10.742
62 P8 53 10.254
62 P8 54 10.742
62 P8 55 12.207
62 P8 56 14.648
62 P8 57 16.602
62 P8 58 17.090
62 P8 59 17.578
62 P8 60 17.090
62 P8 61 18.555
62 P8 62 20.996
62 P8 63 23.438
62 P8 64 25.391
62 P8 65 25.391
62 P8 66 24.414
62 P8 67 23.438
62 P8 68 22.949
62 P8 69 23.926
62 P8 70 24.902
62 P8 71 24.902
62 P8 72 24.414
62 P8 73 22.949
62 P8 74 20.996
62 P8 75 19.531
62 P8 76 18.555
62 P8 77 18.555
62 P8 78 18.555
62 P8 79 20.020
62 P8 80 22.461
62 P8 81 25.879
62 P8 82 29.297
62 P8 83 32.227
62 P8 84 34.180
62 P8 85 35.156
62 P8 86 35.156
62 P8 87 34.180
62 P8 88 31.250
62 P8 89 27.344
62 P8 90 23.926
62 P8 91 20.508
62 P8 92 17.578
62 P8 93 15.625
62 P8 94 14.160
62 P8 95 13.672
62 P8 96 15.137
62 P8 97 18.066
62 P8 98 21.484
62 P8 99 23.926
62 P8 100 26.367
62 P8 101 27.344
62 P8 102 27.832
62 P8 103 29.297
62 P8 104 30.762
62 P8 105 32.715
62 P8 106 34.180
62 P8 107 35.156
62 P8 108 36.621
62 P8 109 37.598
62 P8 110 38.574
62 P8 111 38.574
62 P8 112 37.598
62 P8 113 34.180
62 P8 114 29.297
62 P8 115 23.438
62 P8 116 17.578
62 P8 117 12.695
62 P8 118 9.766
62 P8 119 9.766
62 P8 120 11.230
62 P8 121 13.672
62 P8 122 15.625
62 P8 123 17.090
62 P8 124 17.090
62 P8 125 16.602
62 P8 126 16.602
62 P8 127 18.555
62 P8 128 20.996
62 P8 129 23.438
62 P8 130 24.902
62 P8 131 24.902
62 P8 132 23.438
62 P8 133 21.973
62 P8 134 19.531
62 P8 135 16.602
62 P8 136 13.184
62 P8 137 8.789
62 P8 138 4.395
62 P8 139 0.000
62 P8 140 -3.418
62 P8 141 -4.883
62 P8 142 -3.418
62 P8 143 0.000
62 P8 144 3.906
62 P8 145 8.301
62 P8 146 11.230
62 P8 147 13.184
62 P8 148 14.160
62 P8 149 14.160
62 P8 150 15.137
62 P8 151 16.113
62 P8 152 17.090
62 P8 153 18.066
62 P8 154 19.043
62 P8 155 20.020
62 P8 156 21.484
62 P8 157 20.996
62 P8 158 19.531
62 P8 159 16.602
62 P8 160 12.207
62 P8 161 8.301
62 P8 162 4.883
62 P8 163 2.441
62 P8 164 0.488
62 P8 165 0.000
62 P8 166 0.488
62 P8 167 2.930
62 P8 168 4.883
62 P8 169 7.812
62 P8 170 9.277
62 P8 171 10.254
62 P8 172 11.719
62 P8 173 13.672
62 P8 174 18.066
62 P8 175 22.461
62 P8 176 24.902
62 P8 177 23.926
62 P8 178 19.531
62 P8 179 13.184
62 P8 180 6.836
62 P8 181 1.953
62 P8 182 -0.488
62 P8 183 -1.465
62 P8 184 -1.953
62 P8 185 -3.418
62 P8 186 -4.395
62 P8 187 -3.906
62 P8 188 -0.977
62 P8 189 4.395
62 P8 190 10.742
62 P8 191 15.137
62 P8 192 16.602
62 P8 193 14.160
62 P8 194 11.230
62 P8 195 9.277
62 P8 196 9.766
62 P8 197 12.695
62 P8 198 15.625
62 P8 199 16.602
62 P8 200 16.113
62 P8 201 14.160
62 P8 202 11.719
62 P8 203 10.254
62 P8 204 9.766
62 P8 205 10.742
62 P8 206 12.207
62 P8 207 13.184
62 P8 208 12.695
62 P8 209 9.766
62 P8 210 4.395
62 P8 211 0.488
62 P8 212 -1.953
62 P8 213 -1.465
62 P8 214 1.953
62 P8 215 6.836
62 P8 216 12.207
62 P8 217 16.602
62 P8 218 21.484
62 P8 219 25.391
62 P8 220 28.320
62 P8 221 29.297
62 P8 222 26.367
62 P8 223 20.020
62 P8 224 11.230
62 P8 225 1.953
62 P8 226 -6.348
62 P8 227 -11.719
62 P8 228 -14.160
62 P8 229 -12.207
62 P8 230 -6.836
62 P8 231 1.953
62 P8 232 11.230
62 P8 233 20.020
62 P8 234 26.367
62 P8 235 29.297
62 P8 236 28.809
62 P8 237 25.879
62 P8 238 21.973
62 P8 239 18.555
62 P8 240 17.090
62 P8 241 18.066
62 P8 242 20.996
62 P8 243 25.391
62 P8 244 28.809
62 P8 245 29.297
62 P8 246 26.855
62 P8 247 21.973
62 P8 248 15.625
62 P8 249 8.789
62 P8 250 2.930
62 P8 251 -2.441
62 P8 252 -6.836
62 P8 253 -9.277
62 P8 254 -9.766
62 P8 255 -9.277
# P7 chan 26
62 P7 0 6.388
62 P7 1 4.435
62 P7 2 3.459
62 P7 3 2.970
62 P7 4 4.435
62 P7 5 5.900
62 P7 6 6.388
62 P7 7 5.900
62 P7 8 4.435
62 P7 9 2.970
62 P7 10 1.994
62 P7 11 1.017
62 P7 12 0.529
62 P7 13 0.041
62 P7 14 -0.448
62 P7 15 0.041
62 P7 16 2.482
62 P7 17 4.924
62 P7 18 5.900
62 P7 19 5.412
62 P7 20 2.482
62 P7 21 -0.448
62 P7 22 -3.377
62 P7 23 -4.842
62 P7 24 -4.354
62 P7 25 -3.377
62 P7 26 -0.936
62 P7 27 1.506
62 P7 28 4.924
62 P7 29 8.341
62 P7 30 10.295
62 P7 31 11.271
62 P7 32 9.318
62 P7 33 5.900
62 P7 34 3.459
62 P7 35 2.482
62 P7 36 4.435
62 P7 37 7.365
62 P7 38 9.806
62 P7 39 9.806
62 P7 40 7.365
62 P7 41 3.459
62 P7 42 0.041
62 P7 43 -0.936
62 P7 44 -0.936
62 P7 45 -0.448
62 P7 46 -0.448
62 P7 47 -0.936
62 P7 48 -0.936
62 P7 49 1.017
62 P7 50 4.924
62 P7 51 8.830
62 P7 52 12.248
62 P7 53 13.713
62 P7 54 13.713
62 P7 55 13.713
62 P7 56 15.177
62 P7 57 16.154
62 P7 58 16.642
62 P7 59 15.666
62 P7 60 13.713
62 P7 61 12.248
62 P7 62 11.759
62 P7 63 11.759
62 P7 64 10.295
62 P7 65 7.853
62 P7 66 4.924
62 P7 67 1.994
62 P7 68 1.506
62 P7 69 2.970
62 P7 70 4.435
62 P7 71 5.900
62 P7 72 5.900
62 P7 73 5.412
62 P7 74 5.412
62 P7 75 6.388
62 P7 76 7.365
62 P7 77 7.853
62 P7 78 8.341
62 P7 79 9.318
62 P7 80 11.271
62 P7 81 15.666
62 P7 82 20.549
62 P7 83 24.943
62 P7 84 27.384
62 P7 85 27.873
62 P7 86 26.408
62 P7 87 23.478
62 P7 88 20.549
62 P7 89 17.619
62 P7 90 15.177
62 P7 91 12.248
62 P7 92 9.318
62 P7 93 5.900
62 P7 94 2.970
62 P7 95 1.506
62 P7 96 2.970
62 P7 97 6.388
62 P7 98 11.271
62 P7 99 15.177
62 P7 100 17.619
62 P7 101 18.595
62 P7 102 20.060
62 P7 103 22.502
62 P7 104 26.408
62 P7 105 29.826
62 P7 106 31.291
62 P7 107 30.802
62 P7 108 27.873
62 P7 109 24.943
62 P7 110 22.990
62 P7 111 22.013
62 P7 112 21.525
62 P7 113 20.549
62 P7 114 17.619
62 P7 115 13.224
62 P7 116 8.830
62 P7 117 5.412
62 P7 118 3.459
62 P7 119 2.970
62 P7 120 3.947
62 P7 121 5.900
62 P7 122 7.365
62 P7 123 8.830
62 P7 124 8.341
62 P7 125 6.877
62 P7 126 4.924
62 P7 127 3.459
62 P7 128 3.947
62 P7 129 4.924
62 P7 130 6.877
62 P7 131 7.365
62 P7 132 6.388
62 P7 133 4.435
62 P7 134 1.994
62 P7 135 0.041
62 P7 136 -1.912
62 P7 137 -2.889
62 P7 138 -4.354
62 P7 139 -5.330
62 P7 140 -6.307
62 P7 141 -7.284
62 P7 142 -7.284
62 P7 143 -5.819
62 P7 144 -2.401
62 P7 145 1.994
62 P7 146 4.924
62 P7 147 6.388
62 P7 148 5.900
62 P7 149 4.435
62 P7 150 4.435
62 P7 151 4.924
62 P7 152 6.388
62 P7 153 7.853
62 P7 154 7.853
62 P7 155 7.853
62 P7 156 7.853
62 P7 157 7.853
62 P7 158 7.853
62 P7 159 6.877
62 P7 160 5.412
62 P7 161 2.970
62 P7 162 1.994
62 P7 163 2.970
62 P7 164 4.924
62 P7 165 7.853
62 P7 166 10.295
62 P7 167 12.248
62 P7 168 13.224
62 P7 169 13.713
62 P7 170 12.736
62 P7 171 10.783
62 P7 172 8.341
62 P7 173 6.877
62 P7 174 6.877
62 P7 175 7.853
62 P7 176 9.318
62 P7 177 11.271
62 P7 178 11.271
62 P7 179 9.806
62 P7 180 7.853
62 P7 181 5.900
62 P7 182 3.459
62 P7 183 1.017
62 P7 184 -0.936
62 P7 185 -2.889
62 P7 186 -3.377
62 P7 187 -2.889
62 P7 188 -0.936
62 P7 189 1.506
62 P7 190 3.459
62 P7 191 5.412
62 P7 192 6.877
62 P7 193 8.830
62 P7 194 11.271
62 P7 195 13.224
62 P7 196 14.689
62 P7 197 15.177
62 P7 198 14.201
62 P7 199 12.736
62 P7 200 10.295
62 P7 201 7.853
62 P7 202 4.924
62 P7 203 1.017
62 P7 204 -1.912
62 P7 205 -3.866
62 P7 206 -4.354
62 P7 207 -3.377
62 P7 208 -1.912
62 P7 209 -0.936
62 P7 210 0.041
62 P7 211 0.041
62 P7 212 0.041
62 P7 213 -0.448
62 P7 214 0.041
62 P7 215 1.017
62 P7 216 2.970
62 P7 217 5.412
62 P7 218 8.341
62 P7 219 10.295
62 P7 220 10.783
62 P7 221 9.318
62 P7 222 6.388
62 P7 223 2.970
62 P7 224 1.017
62 P7 225 0.529
62 P7 226 1.506
62 P7 227 2.970
62 P7 228 5.412
62 P7 229 8.341
62 P7 230 11.271
62 P7 231 14.689
62 P7 232 16.154
62 P7 233 16.154
62 P7 234 14.689
62 P7 235 13.224
62 P7 236 12.248
62 P7 237 12.248
62 P7 238 12.736
62 P7 239 13.224
62 P7 240 13.224
62 P7 241 12.736
62 P7 242 12.248
62 P7 243 12.248
62 P7 244 12.248
62 P7 245 12.248
62 P7 246 12.248
62 P7 247 13.224
62 P7 248 13.713
62 P7 249 13.713
62 P7 250 12.248
62 P7 251 8.830
62 P7 252 3.459
62 P7 253 -0.448
62 P7 254 -2.889
62 P7 255 -1.912
# PO2 chan 27
62 PO2 0 4.038
62 PO2 1 1.597
62 PO2 2 0.132
62 PO2 3 0.621
62 PO2 4 2.085
62 PO2 5 3.550
62 PO2 6 3.062
62 PO2 7 1.109
62 PO2 8 -2.309
62 PO2 9 -5.239
62 PO2 10 -6.215
62 PO2 11 -5.239
62 PO2 12 -4.262
62 PO2 13 -3.774
62 PO2 14 -3.774
62 PO2 15 -4.262
62 PO2 16 -4.262
62 PO2 17 -2.309
62 PO2 18 0.132
62 PO2 19 3.062
62 PO2 20 3.550
62 PO2 21 2.085
62 PO2 22 -0.356
62 PO2 23 -1.821
62 PO2 24 -1.333
62 PO2 25 0.132
62 PO2 26 2.085
62 PO2 27 3.062
62 PO2 28 3.062
62 PO2 29 3.062
62 PO2 30 3.062
62 PO2 31 3.062
62 PO2 32 4.038
62 PO2 33 4.038
62 PO2 34 4.038
62 PO2 35 4.038
62 PO2 36 5.015
62 PO2 37 5.992
62 PO2 38 6.968
62 PO2 39 6.480
62 PO2 40 5.503
62 PO2 41 4.038
62 PO2 42 3.062
62 PO2 43 2.085
62 PO2 44 1.109
62 PO2 45 -0.844
62 PO2 46 -2.797
62 PO2 47 -3.774
62 PO2 48 -3.774
62 PO2 49 -2.797
62 PO2 50 -1.821
62 PO2 51 -1.333
62 PO2 52 -1.821
62 PO2 53 -2.797
62 PO2 54 -3.774
62 PO2 55 -3.774
62 PO2 56 -2.797
62 PO2 57 -1.821
62 PO2 58 0.132
62 PO2 59 1.597
62 PO2 60 4.038
62 PO2 61 6.968
62 PO2 62 9.898
62 PO2 63 11.363
62 PO2 64 10.386
62 PO2 65 7.456
62 PO2 66 3.550
62 PO2 67 0.621
62 PO2 68 -0.356
62 PO2 69 0.132
62 PO2 70 1.597
62 PO2 71 3.550
62 PO2 72 4.527
62 PO2 73 5.503
62 PO2 74 6.480
62 PO2 75 6.480
62 PO2 76 5.992
62 PO2 77 5.015
62 PO2 78 3.550
62 PO2 79 2.574
62 PO2 80 2.574
62 PO2 81 3.550
62 PO2 82 5.503
62 PO2 83 6.968
62 PO2 84 8.433
62 PO2 85 8.921
62 PO2 86 8.433
62 PO2 87 6.480
62 PO2 88 4.038
62 PO2 89 1.109
62 PO2 90 -0.844
62 PO2 91 -1.821
62 PO2 92 -2.797
62 PO2 93 -3.774
62 PO2 94 -5.239
62 PO2 95 -5.727
62 PO2 96 -4.751
62 PO2 97 -2.309
62 PO2 98 2.085
62 PO2 99 5.503
62 PO2 100 6.968
62 PO2 101 6.968
62 PO2 102 5.992
62 PO2 103 5.992
62 PO2 104 7.456
62 PO2 105 9.898
62 PO2 106 12.339
62 PO2 107 13.804
62 PO2 108 15.269
62 PO2 109 16.734
62 PO2 110 19.175
62 PO2 111 21.128
62 PO2 112 21.128
62 PO2 113 18.687
62 PO2 114 13.804
62 PO2 115 7.945
62 PO2 116 2.085
62 PO2 117 -2.797
62 PO2 118 -5.239
62 PO2 119 -5.239
62 PO2 120 -2.797
62 PO2 121 1.109
62 PO2 122 5.503
62 PO2 123 9.898
62 PO2 124 11.851
62 PO2 125 12.339
62 PO2 126 11.363
62 PO2 127 8.921
62 PO2 128 6.480
62 PO2 129 5.015
62 PO2 130 3.550
62 PO2 131 2.574
62 PO2 132 1.109
62 PO2 133 0.132
62 PO2 134 -0.844
62 PO2 135 -1.333
62 PO2 136 -1.333
62 PO2 137 -0.844
62 PO2 138 0.132
62 PO2 139 -0.356
62 PO2 140 -1.821
62 PO2 141 -3.774
62 PO2 142 -4.751
62 PO2 143 -4.751
62 PO2 144 -3.286
62 PO2 145 -1.821
62 PO2 146 -1.821
62 PO2 147 -3.286
62 PO2 148 -5.727
62 PO2 149 -6.704
62 PO2 150 -4.751
62 PO2 151 -0.844
62 PO2 152 5.015
62 PO2 153 9.898
62 PO2 154 13.316
62 PO2 155 14.781
62 PO2 156 14.781
62 PO2 157 12.828
62 PO2 158 9.898
62 PO2 159 5.503
62 PO2 160 0.621
62 PO2 161 -3.774
62 PO2 162 -6.704
62 PO2 163 -7.680
62 PO2 164 -7.680
62 PO2 165 -7.192
62 PO2 166 -6.704
62 PO2 167 -5.727
62 PO2 168 -4.262
62 PO2 169 -2.797
62 PO2 170 -1.333
62 PO2 171 0.132
62 PO2 172 1.597
62 PO2 173 3.550
62 PO2 174 6.480
62 PO2 175 9.898
62 PO2 176 12.339
62 PO2 177 12.339
62 PO2 178 8.921
62 PO2 179 3.062
62 PO2 180 -2.309
62 PO2 181 -6.215
62 PO2 182 -7.680
62 PO2 183 -7.192
62 PO2 184 -6.215
62 PO2 185 -7.192
62 PO2 186 -8.169
62 PO2 187 -9.145
62 PO2 188 -8.657
62 PO2 189 -6.704
62 PO2 190 -5.727
62 PO2 191 -6.215
62 PO2 192 -9.145
62 PO2 193 -13.051
62 PO2 194 -15.981
62 PO2 195 -15.981
62 PO2 196 -12.075
62 PO2 197 -5.239
62 PO2 198 1.597
62 PO2 199 7.945
62 PO2 200 11.851
62 PO2 201 12.828
62 PO2 202 11.851
62 PO2 203 8.433
62 PO2 204 4.527
62 PO2 205 0.132
62 PO2 206 -3.286
62 PO2 207 -6.704
62 PO2 208 -9.633
62 PO2 209 -12.563
62 PO2 210 -15.981
62 PO2 211 -18.911
62 PO2 212 -20.376
62 PO2 213 -18.911
62 PO2 214 -15.004
62 PO2 215 -9.633
62 PO2 216 -4.751
62 PO2 217 -0.844
62 PO2 218 1.109
62 PO2 219 3.062
62 PO2 220 5.015
62 PO2 221 6.480
62 PO2 222 5.992
62 PO2 223 4.038
62 PO2 224 -0.356
62 PO2 225 -5.727
62 PO2 226 -11.098
62 PO2 227 -15.981
62 PO2 228 -18.911
62 PO2 229 -20.376
62 PO2 230 -18.911
62 PO2 231 -15.493
62 PO2 232 -11.098
62 PO2 233 -6.215
62 PO2 234 -2.797
62 PO2 235 -0.356
62 PO2 236 1.597
62 PO2 237 3.550
62 PO2 238 5.992
62 PO2 239 8.433
62 PO2 240 9.898
62 PO2 241 11.363
62 PO2 242 12.339
62 PO2 243 13.804
62 PO2 244 15.757
62 PO2 245 15.757
62 PO2 246 14.292
62 PO2 247 10.386
62 PO2 248 4.527
62 PO2 249 -1.821
62 PO2 250 -7.680
62 PO2 251 -13.540
62 PO2 252 -19.399
62 PO2 253 -24.282
62 PO2 254 -26.235
62 PO2 255 -25.258
# PO1 chan 28
62 PO1 0 5.269
62 PO1 1 2.828
62 PO1 2 1.363
62 PO1 3 1.363
62 PO1 4 2.340
62 PO1 5 3.316
62 PO1 6 2.340
62 PO1 7 0.387
62 PO1 8 -2.055
62 PO1 9 -3.520
62 PO1 10 -4.008
62 PO1 11 -3.031
62 PO1 12 -3.031
62 PO1 13 -4.008
62 PO1 14 -4.496
62 PO1 15 -4.985
62 PO1 16 -4.008
62 PO1 17 -2.543
62 PO1 18 -0.590
62 PO1 19 0.387
62 PO1 20 -0.590
62 PO1 21 -2.543
62 PO1 22 -4.496
62 PO1 23 -4.985
62 PO1 24 -4.496
62 PO1 25 -3.520
62 PO1 26 -1.567
62 PO1 27 -0.102
62 PO1 28 1.363
62 PO1 29 2.828
62 PO1 30 3.805
62 PO1 31 3.805
62 PO1 32 2.828
62 PO1 33 0.875
62 PO1 34 -0.590
62 PO1 35 -0.590
62 PO1 36 0.387
62 PO1 37 2.340
62 PO1 38 3.805
62 PO1 39 3.316
62 PO1 40 0.875
62 PO1 41 -1.567
62 PO1 42 -3.031
62 PO1 43 -4.008
62 PO1 44 -4.496
62 PO1 45 -5.473
62 PO1 46 -6.938
62 PO1 47 -8.403
62 PO1 48 -8.403
62 PO1 49 -6.938
62 PO1 50 -4.496
62 PO1 51 -2.055
62 PO1 52 -0.590
62 PO1 53 0.387
62 PO1 54 0.875
62 PO1 55 1.363
62 PO1 56 1.851
62 PO1 57 2.340
62 PO1 58 2.828
62 PO1 59 2.340
62 PO1 60 2.828
62 PO1 61 3.316
62 PO1 62 3.805
62 PO1 63 3.805
62 PO1 64 1.851
62 PO1 65 -1.567
62 PO1 66 -4.985
62 PO1 67 -6.938
62 PO1 68 -5.961
62 PO1 69 -4.008
62 PO1 70 -1.567
62 PO1 71 -0.102
62 PO1 72 0.387
62 PO1 73 0.875
62 PO1 74 2.340
62 PO1 75 2.828
62 PO1 76 3.316
62 PO1 77 1.851
62 PO1 78 -0.590
62 PO1 79 -1.567
62 PO1 80 -1.078
62 PO1 81 1.363
62 PO1 82 4.293
62 PO1 83 7.711
62 PO1 84 10.152
62 PO1 85 11.129
62 PO1 86 10.640
62 PO1 87 8.199
62 PO1 88 5.269
62 PO1 89 2.340
62 PO1 90 0.875
62 PO1 91 -0.590
62 PO1 92 -1.567
62 PO1 93 -4.008
