# co2a0000395.rd
# 120 trials, 64 chans, 416 samples 368 post_stim samples
# 3.906000 msecs uV
# S2 nomatch, trial 45
# FP1 chan 0
45 FP1 0 0.020
45 FP1 1 -3.398
45 FP1 2 -7.304
45 FP1 3 -9.257
45 FP1 4 -8.280
45 FP1 5 -5.351
45 FP1 6 -2.909
45 FP1 7 -2.421
45 FP1 8 -2.909
45 FP1 9 -2.909
45 FP1 10 -0.468
45 FP1 11 3.438
45 FP1 12 6.368
45 FP1 13 5.391
45 FP1 14 0.997
45 FP1 15 -4.862
45 FP1 16 -8.769
45 FP1 17 -8.769
45 FP1 18 -6.816
45 FP1 19 -3.886
45 FP1 20 -2.421
45 FP1 21 -2.909
45 FP1 22 -4.862
45 FP1 23 -7.792
45 FP1 24 -11.698
45 FP1 25 -15.605
45 FP1 26 -17.558
45 FP1 27 -17.069
45 FP1 28 -13.652
45 FP1 29 -8.280
45 FP1 30 -4.374
45 FP1 31 -3.886
45 FP1 32 -6.327
45 FP1 33 -10.722
45 FP1 34 -14.140
45 FP1 35 -15.116
45 FP1 36 -13.163
45 FP1 37 -9.745
45 FP1 38 -6.327
45 FP1 39 -5.839
45 FP1 40 -7.792
45 FP1 41 -11.698
45 FP1 42 -13.652
45 FP1 43 -12.675
45 FP1 44 -9.257
45 FP1 45 -5.351
45 FP1 46 -3.398
45 FP1 47 -3.398
45 FP1 48 -4.862
45 FP1 49 -5.839
45 FP1 50 -6.327
45 FP1 51 -7.792
45 FP1 52 -11.210
45 FP1 53 -16.581
45 FP1 54 -20.487
45 FP1 55 -19.999
45 FP1 56 -16.581
45 FP1 57 -12.187
45 FP1 58 -10.722
45 FP1 59 -14.140
45 FP1 60 -20.487
45 FP1 61 -24.882
45 FP1 62 -26.347
45 FP1 63 -23.417
45 FP1 64 -19.999
45 FP1 65 -17.069
45 FP1 66 -15.116
45 FP1 67 -13.163
45 FP1 68 -9.745
45 FP1 69 -5.839
45 FP1 70 -3.398
45 FP1 71 -4.374
45 FP1 72 -8.280
45 FP1 73 -11.210
45 FP1 74 -9.745
45 FP1 75 -3.398
45 FP1 76 6.368
45 FP1 77 14.669
45 FP1 78 16.622
45 FP1 79 12.716
45 FP1 80 5.391
45 FP1 81 -0.956
45 FP1 82 -3.886
45 FP1 83 -3.398
45 FP1 84 -1.444
45 FP1 85 -0.468
45 FP1 86 -0.956
45 FP1 87 -0.468
45 FP1 88 1.973
45 FP1 89 6.856
45 FP1 90 11.739
45 FP1 91 14.669
45 FP1 92 13.692
45 FP1 93 6.856
45 FP1 94 -3.886
45 FP1 95 -14.628
45 FP1 96 -20.487
45 FP1 97 -18.534
45 FP1 98 -10.234
45 FP1 99 -0.468
45 FP1 100 5.880
45 FP1 101 5.391
45 FP1 102 -0.956
45 FP1 103 -8.280
45 FP1 104 -12.675
45 FP1 105 -12.187
45 FP1 106 -7.304
45 FP1 107 -1.444
45 FP1 108 2.950
45 FP1 109 4.415
45 FP1 110 3.438
45 FP1 111 1.485
45 FP1 112 0.020
45 FP1 113 0.020
45 FP1 114 0.509
45 FP1 115 0.997
45 FP1 116 0.509
45 FP1 117 -0.956
45 FP1 118 -2.421
45 FP1 119 -3.398
45 FP1 120 -3.398
45 FP1 121 -1.933
45 FP1 122 -0.956
45 FP1 123 -2.421
45 FP1 124 -5.351
45 FP1 125 -8.769
45 FP1 126 -9.745
45 FP1 127 -8.280
45 FP1 128 -6.816
45 FP1 129 -5.839
45 FP1 130 -7.304
45 FP1 131 -8.280
45 FP1 132 -7.304
45 FP1 133 -3.886
45 FP1 134 0.509
45 FP1 135 3.927
45 FP1 136 3.927
45 FP1 137 1.485
45 FP1 138 -0.468
45 FP1 139 -0.956
45 FP1 140 0.509
45 FP1 141 0.997
45 FP1 142 0.509
45 FP1 143 -1.933
45 FP1 144 -4.862
45 FP1 145 -8.280
45 FP1 146 -10.722
45 FP1 147 -12.675
45 FP1 148 -15.605
45 FP1 149 -17.558
45 FP1 150 -16.581
45 FP1 151 -13.652
45 FP1 152 -8.769
45 FP1 153 -4.862
45 FP1 154 -3.398
45 FP1 155 -5.351
45 FP1 156 -8.769
45 FP1 157 -10.234
45 FP1 158 -8.769
45 FP1 159 -4.862
45 FP1 160 -0.468
45 FP1 161 1.973
45 FP1 162 1.485
45 FP1 163 -0.956
45 FP1 164 -4.374
45 FP1 165 -7.304
45 FP1 166 -8.769
45 FP1 167 -9.745
45 FP1 168 -8.769
45 FP1 169 -7.304
45 FP1 170 -4.374
45 FP1 171 -0.956
45 FP1 172 1.973
45 FP1 173 2.950
45 FP1 174 1.485
45 FP1 175 -1.933
45 FP1 176 -5.351
45 FP1 177 -7.792
45 FP1 178 -8.769
45 FP1 179 -7.792
45 FP1 180 -6.327
45 FP1 181 -4.374
45 FP1 182 -1.933
45 FP1 183 0.509
45 FP1 184 2.462
45 FP1 185 2.462
45 FP1 186 -0.956
45 FP1 187 -6.327
45 FP1 188 -11.698
45 FP1 189 -13.652
45 FP1 190 -10.722
45 FP1 191 -3.398
45 FP1 192 3.927
45 FP1 193 7.833
45 FP1 194 7.345
45 FP1 195 3.927
45 FP1 196 -0.468
45 FP1 197 -3.398
45 FP1 198 -2.909
45 FP1 199 -0.468
45 FP1 200 2.950
45 FP1 201 4.903
45 FP1 202 3.927
45 FP1 203 0.020
45 FP1 204 -4.862
45 FP1 205 -8.280
45 FP1 206 -8.769
45 FP1 207 -8.280
45 FP1 208 -7.304
45 FP1 209 -7.792
45 FP1 210 -8.769
45 FP1 211 -7.792
45 FP1 212 -4.862
45 FP1 213 -1.933
45 FP1 214 -0.956
45 FP1 215 -2.421
45 FP1 216 -3.886
45 FP1 217 -1.933
45 FP1 218 3.927
45 FP1 219 10.274
45 FP1 220 12.716
45 FP1 221 9.298
45 FP1 222 1.973
45 FP1 223 -4.862
45 FP1 224 -6.816
45 FP1 225 -4.374
45 FP1 226 0.997
45 FP1 227 4.903
45 FP1 228 6.856
45 FP1 229 6.368
45 FP1 230 4.903
45 FP1 231 2.950
45 FP1 232 -0.468
45 FP1 233 -3.398
45 FP1 234 -6.327
45 FP1 235 -7.304
45 FP1 236 -4.862
45 FP1 237 0.020
45 FP1 238 4.415
45 FP1 239 6.856
45 FP1 240 6.856
45 FP1 241 4.903
45 FP1 242 3.927
45 FP1 243 5.391
45 FP1 244 8.809
45 FP1 245 11.251
45 FP1 246 9.786
45 FP1 247 3.927
45 FP1 248 -3.398
45 FP1 249 -8.769
45 FP1 250 -9.257
45 FP1 251 -5.351
45 FP1 252 0.997
45 FP1 253 6.856
45 FP1 254 11.251
45 FP1 255 13.204
# FP2 chan 1
45 FP2 0 -1.282
45 FP2 1 -7.141
45 FP2 2 -12.512
45 FP2 3 -13.489
45 FP2 4 -9.094
45 FP2 5 -2.258
45 FP2 6 4.089
45 FP2 7 6.531
45 FP2 8 5.066
45 FP2 9 0.671
45 FP2 10 -3.235
45 FP2 11 -5.676
45 FP2 12 -5.676
45 FP2 13 -4.211
45 FP2 14 -2.747
45 FP2 15 -2.747
45 FP2 16 -3.235
45 FP2 17 -3.723
45 FP2 18 -3.235
45 FP2 19 -3.235
45 FP2 20 -2.747
45 FP2 21 -4.211
45 FP2 22 -6.653
45 FP2 23 -10.559
45 FP2 24 -14.954
45 FP2 25 -17.395
45 FP2 26 -17.395
45 FP2 27 -13.489
45 FP2 28 -7.141
45 FP2 29 -1.282
45 FP2 30 1.160
45 FP2 31 -1.282
45 FP2 32 -6.653
45 FP2 33 -11.047
45 FP2 34 -11.536
45 FP2 35 -9.094
45 FP2 36 -6.165
45 FP2 37 -5.188
45 FP2 38 -6.653
45 FP2 39 -8.606
45 FP2 40 -9.094
45 FP2 41 -7.629
45 FP2 42 -6.165
45 FP2 43 -7.141
45 FP2 44 -9.094
45 FP2 45 -10.071
45 FP2 46 -8.118
45 FP2 47 -2.747
45 FP2 48 2.625
45 FP2 49 4.578
45 FP2 50 0.671
45 FP2 51 -7.629
45 FP2 52 -16.907
45 FP2 53 -24.231
45 FP2 54 -27.161
45 FP2 55 -25.696
45 FP2 56 -20.813
45 FP2 57 -15.442
45 FP2 58 -11.536
45 FP2 59 -13.000
45 FP2 60 -18.372
45 FP2 61 -25.208
45 FP2 62 -29.114
45 FP2 63 -29.114
45 FP2 64 -23.743
45 FP2 65 -16.418
45 FP2 66 -10.559
45 FP2 67 -7.141
45 FP2 68 -7.141
45 FP2 69 -7.141
45 FP2 70 -6.653
45 FP2 71 -5.676
45 FP2 72 -4.211
45 FP2 73 -3.723
45 FP2 74 -3.723
45 FP2 75 -2.747
45 FP2 76 0.671
45 FP2 77 7.019
45 FP2 78 12.878
45 FP2 79 14.832
45 FP2 80 11.902
45 FP2 81 4.578
45 FP2 82 -4.211
45 FP2 83 -9.583
45 FP2 84 -11.047
45 FP2 85 -8.606
45 FP2 86 -3.723
45 FP2 87 1.160
45 FP2 88 6.531
45 FP2 89 11.414
45 FP2 90 15.808
45 FP2 91 17.761
45 FP2 92 16.296
45 FP2 93 11.414
45 FP2 94 4.578
45 FP2 95 -2.747
45 FP2 96 -7.629
45 FP2 97 -10.071
45 FP2 98 -10.559
45 FP2 99 -10.071
45 FP2 100 -8.606
45 FP2 101 -6.165
45 FP2 102 -3.723
45 FP2 103 -3.235
45 FP2 104 -4.700
45 FP2 105 -8.118
45 FP2 106 -10.071
45 FP2 107 -9.094
45 FP2 108 -3.235
45 FP2 109 3.601
45 FP2 110 7.996
45 FP2 111 7.996
45 FP2 112 3.601
45 FP2 113 -1.282
45 FP2 114 -2.747
45 FP2 115 0.183
45 FP2 116 4.089
45 FP2 117 6.042
45 FP2 118 4.089
45 FP2 119 -0.793
45 FP2 120 -4.700
45 FP2 121 -6.653
45 FP2 122 -6.165
45 FP2 123 -4.700
45 FP2 124 -5.676
45 FP2 125 -8.118
45 FP2 126 -11.047
45 FP2 127 -13.000
45 FP2 128 -13.000
45 FP2 129 -10.559
45 FP2 130 -7.629
45 FP2 131 -5.188
45 FP2 132 -3.235
45 FP2 133 -2.258
45 FP2 134 -1.770
45 FP2 135 0.183
45 FP2 136 3.601
45 FP2 137 7.507
45 FP2 138 9.949
45 FP2 139 8.484
45 FP2 140 3.113
45 FP2 141 -2.747
45 FP2 142 -6.653
45 FP2 143 -7.629
45 FP2 144 -6.653
45 FP2 145 -6.165
45 FP2 146 -6.653
45 FP2 147 -8.118
45 FP2 148 -8.606
45 FP2 149 -8.606
45 FP2 150 -8.606
45 FP2 151 -8.606
45 FP2 152 -8.118
45 FP2 153 -6.653
45 FP2 154 -3.723
45 FP2 155 -2.747
45 FP2 156 -4.211
45 FP2 157 -8.118
45 FP2 158 -10.071
45 FP2 159 -7.141
45 FP2 160 -1.282
45 FP2 161 4.089
45 FP2 162 4.089
45 FP2 163 -3.235
45 FP2 164 -13.000
45 FP2 165 -20.325
45 FP2 166 -21.301
45 FP2 167 -17.395
45 FP2 168 -11.536
45 FP2 169 -8.118
45 FP2 170 -6.165
45 FP2 171 -4.700
45 FP2 172 -1.770
45 FP2 173 2.625
45 FP2 174 5.554
45 FP2 175 4.578
45 FP2 176 -1.282
45 FP2 177 -8.118
45 FP2 178 -13.489
45 FP2 179 -13.489
45 FP2 180 -8.606
45 FP2 181 -1.282
45 FP2 182 4.089
45 FP2 183 5.554
45 FP2 184 1.648
45 FP2 185 -4.211
45 FP2 186 -10.071
45 FP2 187 -13.977
45 FP2 188 -16.418
45 FP2 189 -17.395
45 FP2 190 -16.418
45 FP2 191 -12.512
45 FP2 192 -5.188
45 FP2 193 3.601
45 FP2 194 9.949
45 FP2 195 10.925
45 FP2 196 6.042
45 FP2 197 -0.793
45 FP2 198 -6.165
45 FP2 199 -5.676
45 FP2 200 -0.793
45 FP2 201 5.066
45 FP2 202 7.507
45 FP2 203 4.578
45 FP2 204 -2.258
45 FP2 205 -9.583
45 FP2 206 -13.489
45 FP2 207 -11.536
45 FP2 208 -7.141
45 FP2 209 -3.723
45 FP2 210 -4.211
45 FP2 211 -8.118
45 FP2 212 -11.047
45 FP2 213 -11.047
45 FP2 214 -7.629
45 FP2 215 -2.258
45 FP2 216 1.648
45 FP2 217 4.089
45 FP2 218 6.531
45 FP2 219 7.996
45 FP2 220 9.949
45 FP2 221 9.460
45 FP2 222 6.531
45 FP2 223 2.136
45 FP2 224 -0.305
45 FP2 225 -0.305
45 FP2 226 3.113
45 FP2 227 7.996
45 FP2 228 11.902
45 FP2 229 12.878
45 FP2 230 10.925
45 FP2 231 7.507
45 FP2 232 3.113
45 FP2 233 -0.305
45 FP2 234 -2.747
45 FP2 235 -3.235
45 FP2 236 -1.282
45 FP2 237 2.136
45 FP2 238 5.066
45 FP2 239 6.531
45 FP2 240 5.554
45 FP2 241 3.113
45 FP2 242 1.160
45 FP2 243 0.671
45 FP2 244 2.625
45 FP2 245 5.066
45 FP2 246 5.554
45 FP2 247 4.089
45 FP2 248 0.671
45 FP2 249 -3.723
45 FP2 250 -7.629
45 FP2 251 -8.606
45 FP2 252 -6.653
45 FP2 253 -2.258
45 FP2 254 4.089
45 FP2 255 9.949
# F7 chan 2
45 F7 0 7.599
45 F7 1 6.622
45 F7 2 3.204
45 F7 3 -0.214
45 F7 4 -0.214
45 F7 5 5.157
45 F7 6 12.482
45 F7 7 14.923
45 F7 8 9.064
45 F7 9 -1.190
45 F7 10 -9.003
45 F7 11 -7.538
45 F7 12 2.228
45 F7 13 13.458
45 F7 14 17.853
45 F7 15 13.947
45 F7 16 5.157
45 F7 17 -1.190
45 F7 18 -2.655
45 F7 19 -0.702
45 F7 20 1.251
45 F7 21 1.740
45 F7 22 1.740
45 F7 23 2.716
45 F7 24 4.669
45 F7 25 3.693
45 F7 26 -0.702
45 F7 27 -6.073
45 F7 28 -7.538
45 F7 29 -3.632
45 F7 30 4.669
45 F7 31 11.017
45 F7 32 10.529
45 F7 33 3.204
45 F7 34 -6.073
45 F7 35 -10.468
45 F7 36 -8.026
45 F7 37 -1.678
45 F7 38 3.693
45 F7 39 5.157
45 F7 40 3.693
45 F7 41 2.228
45 F7 42 2.228
45 F7 43 2.228
45 F7 44 1.740
45 F7 45 -1.190
45 F7 46 -4.120
45 F7 47 -4.120
45 F7 48 -0.702
45 F7 49 3.693
45 F7 50 5.157
45 F7 51 2.716
45 F7 52 -2.655
45 F7 53 -5.585
45 F7 54 -4.608
45 F7 55 0.275
45 F7 56 5.646
45 F7 57 7.599
45 F7 58 4.181
45 F7 59 -3.632
45 F7 60 -11.932
45 F7 61 -17.792
45 F7 62 -19.257
45 F7 63 -16.327
45 F7 64 -10.956
45 F7 65 -5.585
45 F7 66 -1.190
45 F7 67 1.740
45 F7 68 3.693
45 F7 69 5.646
45 F7 70 7.599
45 F7 71 9.064
45 F7 72 10.529
45 F7 73 11.017
45 F7 74 11.505
45 F7 75 12.482
45 F7 76 15.411
45 F7 77 18.341
45 F7 78 19.318
45 F7 79 16.388
45 F7 80 10.040
45 F7 81 2.716
45 F7 82 -1.190
45 F7 83 -0.214
45 F7 84 4.669
45 F7 85 9.552
45 F7 86 11.017
45 F7 87 10.529
45 F7 88 9.552
45 F7 89 11.017
45 F7 90 14.435
45 F7 91 16.388
45 F7 92 14.923
45 F7 93 9.064
45 F7 94 2.228
45 F7 95 -1.678
45 F7 96 -1.678
45 F7 97 1.251
45 F7 98 3.693
45 F7 99 4.669
45 F7 100 4.669
45 F7 101 5.157
45 F7 102 7.111
45 F7 103 8.575
45 F7 104 8.575
45 F7 105 7.111
45 F7 106 5.157
45 F7 107 6.134
45 F7 108 8.575
45 F7 109 11.505
45 F7 110 11.017
45 F7 111 7.111
45 F7 112 1.740
45 F7 113 -1.678
45 F7 114 -1.190
45 F7 115 2.716
45 F7 116 8.087
45 F7 117 11.505
45 F7 118 11.505
45 F7 119 8.087
45 F7 120 1.740
45 F7 121 -4.120
45 F7 122 -7.538
45 F7 123 -7.538
45 F7 124 -4.120
45 F7 125 0.763
45 F7 126 4.669
45 F7 127 4.669
45 F7 128 2.228
45 F7 129 -2.167
45 F7 130 -5.096
45 F7 131 -5.096
45 F7 132 -2.167
45 F7 133 2.716
45 F7 134 9.552
45 F7 135 15.900
45 F7 136 21.271
45 F7 137 23.224
45 F7 138 22.247
45 F7 139 18.341
45 F7 140 12.482
45 F7 141 5.646
45 F7 142 0.275
45 F7 143 -2.167
45 F7 144 -1.678
45 F7 145 1.251
45 F7 146 2.716
45 F7 147 -0.702
45 F7 148 -8.514
45 F7 149 -16.815
45 F7 150 -18.280
45 F7 151 -10.468
45 F7 152 3.693
45 F7 153 17.365
45 F7 154 22.736
45 F7 155 18.341
45 F7 156 8.575
45 F7 157 -0.214
45 F7 158 -4.120
45 F7 159 -1.190
45 F7 160 3.693
45 F7 161 8.087
45 F7 162 9.552
45 F7 163 8.087
45 F7 164 4.669
45 F7 165 1.251
45 F7 166 -1.190
45 F7 167 -0.702
45 F7 168 1.740
45 F7 169 5.157
45 F7 170 8.087
45 F7 171 9.064
45 F7 172 7.599
45 F7 173 4.669
45 F7 174 2.228
45 F7 175 1.251
45 F7 176 2.716
45 F7 177 7.111
45 F7 178 11.017
45 F7 179 12.970
45 F7 180 11.505
45 F7 181 8.087
45 F7 182 4.669
45 F7 183 3.204
45 F7 184 2.716
45 F7 185 1.740
45 F7 186 0.275
45 F7 187 0.275
45 F7 188 3.204
45 F7 189 9.552
45 F7 190 16.388
45 F7 191 20.294
45 F7 192 19.806
45 F7 193 16.876
45 F7 194 15.411
45 F7 195 18.341
45 F7 196 24.689
45 F7 197 28.595
45 F7 198 27.130
45 F7 199 18.341
45 F7 200 8.087
45 F7 201 2.228
45 F7 202 4.181
45 F7 203 11.505
45 F7 204 18.829
45 F7 205 21.759
45 F7 206 19.318
45 F7 207 13.947
45 F7 208 9.552
45 F7 209 8.087
45 F7 210 7.111
45 F7 211 4.669
45 F7 212 0.763
45 F7 213 -1.190
45 F7 214 1.251
45 F7 215 9.064
45 F7 216 19.806
45 F7 217 28.107
45 F7 218 31.036
45 F7 219 28.595
45 F7 220 24.200
45 F7 221 19.806
45 F7 222 16.388
45 F7 223 12.482
45 F7 224 8.087
45 F7 225 4.669
45 F7 226 5.646
45 F7 227 10.040
45 F7 228 15.900
45 F7 229 18.829
45 F7 230 15.411
45 F7 231 7.599
45 F7 232 -0.214
45 F7 233 -4.120
45 F7 234 -3.632
45 F7 235 -0.702
45 F7 236 1.740
45 F7 237 4.181
45 F7 238 7.111
45 F7 239 10.529
45 F7 240 12.970
45 F7 241 11.993
45 F7 242 8.575
45 F7 243 6.134
45 F7 244 8.087
45 F7 245 11.993
45 F7 246 14.435
45 F7 247 9.552
45 F7 248 -1.678
45 F7 249 -13.885
45 F7 250 -19.257
45 F7 251 -15.350
45 F7 252 -4.120
45 F7 253 9.064
45 F7 254 18.829
45 F7 255 23.712
# F8 chan 3
45 F8 0 -7.050
45 F8 1 -7.538
45 F8 2 -6.073
45 F8 3 -3.632
45 F8 4 -0.214
45 F8 5 3.204
45 F8 6 6.134
45 F8 7 7.599
45 F8 8 7.111
45 F8 9 5.157
45 F8 10 4.181
45 F8 11 6.622
45 F8 12 10.529
45 F8 13 13.458
45 F8 14 12.970
45 F8 15 8.575
45 F8 16 3.204
45 F8 17 -0.702
45 F8 18 -0.214
45 F8 19 2.228
45 F8 20 4.669
45 F8 21 6.622
45 F8 22 8.087
45 F8 23 10.529
45 F8 24 12.970
45 F8 25 15.411
45 F8 26 15.900
45 F8 27 15.411
45 F8 28 14.923
45 F8 29 13.947
45 F8 30 12.482
45 F8 31 9.552
45 F8 32 5.157
45 F8 33 1.251
45 F8 34 -0.702
45 F8 35 0.275
45 F8 36 4.669
45 F8 37 10.040
45 F8 38 14.435
45 F8 39 16.876
45 F8 40 15.411
45 F8 41 11.505
45 F8 42 6.622
45 F8 43 3.693
45 F8 44 4.669
45 F8 45 10.529
45 F8 46 18.341
45 F8 47 24.689
45 F8 48 25.665
45 F8 49 20.782
45 F8 50 12.970
45 F8 51 6.134
45 F8 52 1.740
45 F8 53 -0.702
45 F8 54 -1.190
45 F8 55 -1.678
45 F8 56 -1.678
45 F8 57 -0.702
45 F8 58 0.763
45 F8 59 0.763
45 F8 60 -1.678
45 F8 61 -5.585
45 F8 62 -8.514
45 F8 63 -9.003
45 F8 64 -5.585
45 F8 65 0.275
45 F8 66 5.646
45 F8 67 9.064
45 F8 68 10.040
45 F8 69 10.529
45 F8 70 10.040
45 F8 71 9.552
45 F8 72 9.064
45 F8 73 9.552
45 F8 74 11.017
45 F8 75 12.482
45 F8 76 13.458
45 F8 77 13.947
45 F8 78 11.993
45 F8 79 9.064
45 F8 80 5.157
45 F8 81 2.228
45 F8 82 1.251
45 F8 83 1.740
45 F8 84 4.181
45 F8 85 8.575
45 F8 86 14.435
45 F8 87 20.782
45 F8 88 25.177
45 F8 89 26.154
45 F8 90 24.689
45 F8 91 21.271
45 F8 92 19.318
45 F8 93 18.341
45 F8 94 18.341
45 F8 95 16.876
45 F8 96 13.458
45 F8 97 8.575
45 F8 98 5.157
45 F8 99 4.669
45 F8 100 7.111
45 F8 101 10.040
45 F8 102 11.017
45 F8 103 9.552
45 F8 104 6.622
45 F8 105 4.669
45 F8 106 4.181
45 F8 107 6.134
45 F8 108 10.040
45 F8 109 13.458
45 F8 110 15.900
45 F8 111 16.876
45 F8 112 15.411
45 F8 113 13.458
45 F8 114 12.482
45 F8 115 13.947
45 F8 116 17.365
45 F8 117 21.271
45 F8 118 23.224
45 F8 119 22.736
45 F8 120 19.806
45 F8 121 14.923
45 F8 122 9.552
45 F8 123 3.204
45 F8 124 -2.167
45 F8 125 -5.585
45 F8 126 -5.585
45 F8 127 -2.655
45 F8 128 2.228
45 F8 129 6.134
45 F8 130 9.064
45 F8 131 11.017
45 F8 132 12.482
45 F8 133 14.923
45 F8 134 16.876
45 F8 135 18.341
45 F8 136 19.318
45 F8 137 19.806
45 F8 138 19.806
45 F8 139 18.829
45 F8 140 16.876
45 F8 141 13.458
45 F8 142 10.529
45 F8 143 9.064
45 F8 144 9.064
45 F8 145 10.529
45 F8 146 11.017
45 F8 147 11.017
45 F8 148 10.529
45 F8 149 10.529
45 F8 150 11.505
45 F8 151 12.970
45 F8 152 13.947
45 F8 153 14.435
45 F8 154 14.435
45 F8 155 12.970
45 F8 156 11.993
45 F8 157 10.529
45 F8 158 10.529
45 F8 159 11.993
45 F8 160 14.435
45 F8 161 15.411
45 F8 162 13.947
45 F8 163 9.552
45 F8 164 3.693
45 F8 165 0.275
45 F8 166 1.740
45 F8 167 7.599
45 F8 168 14.435
45 F8 169 18.829
45 F8 170 18.829
45 F8 171 15.900
45 F8 172 12.482
45 F8 173 11.017
45 F8 174 11.505
45 F8 175 11.993
45 F8 176 11.505
45 F8 177 11.017
45 F8 178 11.993
45 F8 179 14.435
45 F8 180 18.341
45 F8 181 21.271
45 F8 182 21.759
45 F8 183 17.853
45 F8 184 11.993
45 F8 185 6.134
45 F8 186 2.716
45 F8 187 3.693
45 F8 188 7.599
45 F8 189 12.970
45 F8 190 17.365
45 F8 191 19.806
45 F8 192 21.759
45 F8 193 23.712
45 F8 194 26.642
45 F8 195 28.595
45 F8 196 28.107
45 F8 197 24.200
45 F8 198 18.341
45 F8 199 13.947
45 F8 200 12.970
45 F8 201 15.900
45 F8 202 18.829
45 F8 203 19.318
45 F8 204 17.365
45 F8 205 14.923
45 F8 206 13.458
45 F8 207 14.435
45 F8 208 15.900
45 F8 209 16.388
45 F8 210 14.923
45 F8 211 12.482
45 F8 212 10.040
45 F8 213 8.575
45 F8 214 8.087
45 F8 215 9.064
45 F8 216 12.970
45 F8 217 19.318
45 F8 218 27.618
45 F8 219 32.501
45 F8 220 32.013
45 F8 221 24.689
45 F8 222 15.900
45 F8 223 9.552
45 F8 224 9.064
45 F8 225 13.458
45 F8 226 18.341
45 F8 227 21.271
45 F8 228 21.271
45 F8 229 20.294
45 F8 230 19.806
45 F8 231 19.806
45 F8 232 18.341
45 F8 233 14.435
45 F8 234 7.111
45 F8 235 -0.702
45 F8 236 -4.608
45 F8 237 -1.678
45 F8 238 8.575
45 F8 239 21.271
45 F8 240 31.036
45 F8 241 32.990
45 F8 242 26.154
45 F8 243 15.411
45 F8 244 5.157
45 F8 245 -0.214
45 F8 246 -1.190
45 F8 247 1.740
45 F8 248 5.157
45 F8 249 7.599
45 F8 250 7.599
45 F8 251 6.134
45 F8 252 5.157
45 F8 253 5.646
45 F8 254 8.087
45 F8 255 12.482
# AF1 chan 4
45 AF1 0 -3.774
45 AF1 1 -4.751
45 AF1 2 -5.727
45 AF1 3 -5.727
45 AF1 4 -4.751
45 AF1 5 -2.797
45 AF1 6 -1.821
45 AF1 7 -2.309
45 AF1 8 -4.262
45 AF1 9 -6.215
45 AF1 10 -6.704
45 AF1 11 -4.751
45 AF1 12 -1.821
45 AF1 13 0.621
45 AF1 14 0.621
45 AF1 15 -2.309
45 AF1 16 -6.215
45 AF1 17 -9.633
45 AF1 18 -12.075
45 AF1 19 -12.563
45 AF1 20 -11.587
45 AF1 21 -10.610
45 AF1 22 -9.145
45 AF1 23 -8.657
45 AF1 24 -9.145
45 AF1 25 -11.587
45 AF1 26 -14.516
45 AF1 27 -16.958
45 AF1 28 -15.981
45 AF1 29 -12.563
45 AF1 30 -6.704
45 AF1 31 -3.774
45 AF1 32 -3.774
45 AF1 33 -6.704
45 AF1 34 -10.610
45 AF1 35 -12.563
45 AF1 36 -10.610
45 AF1 37 -6.704
45 AF1 38 -2.309
45 AF1 39 -0.844
45 AF1 40 -1.821
45 AF1 41 -5.239
45 AF1 42 -8.657
45 AF1 43 -10.122
45 AF1 44 -9.633
45 AF1 45 -7.192
45 AF1 46 -4.262
45 AF1 47 -2.309
45 AF1 48 -1.333
45 AF1 49 -2.309
45 AF1 50 -4.751
45 AF1 51 -8.169
45 AF1 52 -12.075
45 AF1 53 -15.493
45 AF1 54 -16.469
45 AF1 55 -15.981
45 AF1 56 -14.028
45 AF1 57 -12.075
45 AF1 58 -11.098
45 AF1 59 -12.075
45 AF1 60 -14.516
45 AF1 61 -18.422
45 AF1 62 -19.887
45 AF1 63 -19.399
45 AF1 64 -15.981
45 AF1 65 -12.075
45 AF1 66 -9.145
45 AF1 67 -8.657
45 AF1 68 -9.145
45 AF1 69 -8.657
45 AF1 70 -6.704
45 AF1 71 -3.774
45 AF1 72 -1.333
45 AF1 73 -0.356
45 AF1 74 -0.356
45 AF1 75 1.597
45 AF1 76 5.992
45 AF1 77 11.851
45 AF1 78 15.757
45 AF1 79 14.781
45 AF1 80 9.410
45 AF1 81 2.574
45 AF1 82 -2.309
45 AF1 83 -2.797
45 AF1 84 -0.356
45 AF1 85 2.085
45 AF1 86 3.550
45 AF1 87 4.038
45 AF1 88 5.015
45 AF1 89 6.968
45 AF1 90 9.898
45 AF1 91 11.363
45 AF1 92 9.898
45 AF1 93 5.503
45 AF1 94 -0.844
45 AF1 95 -6.215
45 AF1 96 -9.145
45 AF1 97 -7.680
45 AF1 98 -3.774
45 AF1 99 1.109
45 AF1 100 4.038
45 AF1 101 3.550
45 AF1 102 0.621
45 AF1 103 -2.797
45 AF1 104 -5.727
45 AF1 105 -5.239
45 AF1 106 -3.286
45 AF1 107 0.621
45 AF1 108 3.550
45 AF1 109 5.992
45 AF1 110 6.480
45 AF1 111 5.503
45 AF1 112 4.038
45 AF1 113 1.597
45 AF1 114 -0.844
45 AF1 115 -1.333
45 AF1 116 0.132
45 AF1 117 2.085
45 AF1 118 4.527
45 AF1 119 4.527
45 AF1 120 2.085
45 AF1 121 -0.844
45 AF1 122 -3.286
45 AF1 123 -4.751
45 AF1 124 -5.239
45 AF1 125 -5.727
45 AF1 126 -6.215
45 AF1 127 -6.704
45 AF1 128 -6.215
45 AF1 129 -4.262
45 AF1 130 -1.821
45 AF1 131 0.132
45 AF1 132 0.621
45 AF1 133 -0.356
45 AF1 134 -1.333
45 AF1 135 -1.333
45 AF1 136 0.621
45 AF1 137 3.550
45 AF1 138 5.015
45 AF1 139 5.015
45 AF1 140 2.085
45 AF1 141 -2.797
45 AF1 142 -7.192
45 AF1 143 -10.122
45 AF1 144 -10.122
45 AF1 145 -8.657
45 AF1 146 -7.192
45 AF1 147 -8.169
45 AF1 148 -11.098
45 AF1 149 -14.516
45 AF1 150 -15.981
45 AF1 151 -14.028
45 AF1 152 -10.122
45 AF1 153 -5.239
45 AF1 154 -2.797
45 AF1 155 -3.286
45 AF1 156 -5.727
45 AF1 157 -7.192
45 AF1 158 -7.192
45 AF1 159 -5.239
45 AF1 160 -2.309
45 AF1 161 -0.356
45 AF1 162 -0.356
45 AF1 163 -1.821
45 AF1 164 -3.774
45 AF1 165 -5.727
45 AF1 166 -6.704
45 AF1 167 -7.192
45 AF1 168 -6.215
45 AF1 169 -5.239
45 AF1 170 -3.286
45 AF1 171 -1.333
45 AF1 172 0.621
45 AF1 173 1.597
45 AF1 174 1.597
45 AF1 175 0.621
45 AF1 176 -1.333
45 AF1 177 -3.286
45 AF1 178 -4.262
45 AF1 179 -3.774
45 AF1 180 -1.333
45 AF1 181 1.109
45 AF1 182 3.062
45 AF1 183 3.062
45 AF1 184 1.109
45 AF1 185 -1.821
45 AF1 186 -5.239
45 AF1 187 -8.169
45 AF1 188 -9.145
45 AF1 189 -8.169
45 AF1 190 -5.239
45 AF1 191 -1.821
45 AF1 192 1.109
45 AF1 193 3.062
45 AF1 194 3.550
45 AF1 195 3.550
45 AF1 196 3.062
45 AF1 197 2.085
45 AF1 198 1.597
45 AF1 199 1.597
45 AF1 200 2.085
45 AF1 201 3.062
45 AF1 202 3.062
45 AF1 203 2.085
45 AF1 204 -0.356
45 AF1 205 -3.774
45 AF1 206 -5.727
45 AF1 207 -6.215
45 AF1 208 -5.239
45 AF1 209 -3.774
45 AF1 210 -3.286
45 AF1 211 -3.774
45 AF1 212 -5.239
45 AF1 213 -6.704
45 AF1 214 -6.704
45 AF1 215 -4.751
45 AF1 216 -0.356
45 AF1 217 5.503
45 AF1 218 10.874
45 AF1 219 13.804
45 AF1 220 13.804
45 AF1 221 10.874
45 AF1 222 5.503
45 AF1 223 0.621
45 AF1 224 -3.286
45 AF1 225 -4.262
45 AF1 226 -1.821
45 AF1 227 2.085
45 AF1 228 5.992
45 AF1 229 7.945
45 AF1 230 6.968
45 AF1 231 3.550
45 AF1 232 -0.844
45 AF1 233 -4.262
45 AF1 234 -5.239
45 AF1 235 -4.751
45 AF1 236 -2.797
45 AF1 237 -1.333
45 AF1 238 -0.356
45 AF1 239 0.132
45 AF1 240 0.621
45 AF1 241 2.574
45 AF1 242 4.527
45 AF1 243 6.480
45 AF1 244 7.945
45 AF1 245 6.968
45 AF1 246 4.038
45 AF1 247 0.132
45 AF1 248 -3.286
45 AF1 249 -5.239
45 AF1 250 -4.751
45 AF1 251 -2.797
45 AF1 252 0.621
45 AF1 253 4.038
45 AF1 254 8.433
45 AF1 255 12.828
# AF2 chan 5
45 AF2 0 -4.690
45 AF2 1 -5.178
45 AF2 2 -5.178
45 AF2 3 -5.178
45 AF2 4 -4.690
45 AF2 5 -2.736
45 AF2 6 -0.783
45 AF2 7 1.170
45 AF2 8 1.170
45 AF2 9 0.682
45 AF2 10 -0.295
45 AF2 11 -0.295
45 AF2 12 1.170
45 AF2 13 3.123
45 AF2 14 4.100
45 AF2 15 2.146
45 AF2 16 -1.272
45 AF2 17 -5.178
45 AF2 18 -9.084
45 AF2 19 -11.037
45 AF2 20 -10.549
45 AF2 21 -8.596
45 AF2 22 -5.666
45 AF2 23 -3.225
45 AF2 24 -2.248
45 AF2 25 -3.713
45 AF2 26 -6.154
45 AF2 27 -8.108
45 AF2 28 -8.596
45 AF2 29 -6.643
45 AF2 30 -4.201
45 AF2 31 -2.736
45 AF2 32 -3.713
45 AF2 33 -7.131
45 AF2 34 -9.572
45 AF2 35 -10.549
45 AF2 36 -8.596
45 AF2 37 -4.201
45 AF2 38 0.193
45 AF2 39 3.123
45 AF2 40 2.635
45 AF2 41 -0.295
45 AF2 42 -4.201
45 AF2 43 -7.131
45 AF2 44 -7.619
45 AF2 45 -5.178
45 AF2 46 -1.272
45 AF2 47 2.635
45 AF2 48 5.076
45 AF2 49 4.588
45 AF2 50 1.658
45 AF2 51 -2.736
45 AF2 52 -7.619
45 AF2 53 -11.525
45 AF2 54 -12.990
45 AF2 55 -12.502
45 AF2 56 -11.037
45 AF2 57 -9.084
45 AF2 58 -8.596
45 AF2 59 -9.084
45 AF2 60 -11.525
45 AF2 61 -14.455
45 AF2 62 -16.897
45 AF2 63 -17.385
45 AF2 64 -14.455
45 AF2 65 -10.549
45 AF2 66 -6.154
45 AF2 67 -2.736
45 AF2 68 -1.272
45 AF2 69 -0.295
45 AF2 70 0.193
45 AF2 71 1.658
45 AF2 72 2.146
45 AF2 73 2.146
45 AF2 74 2.146
45 AF2 75 3.611
45 AF2 76 7.517
45 AF2 77 12.889
45 AF2 78 16.307
45 AF2 79 15.330
45 AF2 80 10.447
45 AF2 81 4.100
45 AF2 82 -1.272
45 AF2 83 -2.736
45 AF2 84 -0.295
45 AF2 85 4.100
45 AF2 86 8.494
45 AF2 87 11.424
45 AF2 88 13.865
45 AF2 89 16.307
45 AF2 90 18.260
45 AF2 91 18.748
45 AF2 92 16.795
45 AF2 93 11.912
45 AF2 94 5.076
45 AF2 95 0.193
45 AF2 96 -1.272
45 AF2 97 0.682
45 AF2 98 3.611
45 AF2 99 5.564
45 AF2 100 5.076
45 AF2 101 3.123
45 AF2 102 0.682
45 AF2 103 -0.783
45 AF2 104 -0.783
45 AF2 105 -0.295
45 AF2 106 0.193
45 AF2 107 1.658
45 AF2 108 4.100
45 AF2 109 7.517
45 AF2 110 10.447
45 AF2 111 11.912
45 AF2 112 10.935
45 AF2 113 8.006
45 AF2 114 5.564
45 AF2 115 4.588
45 AF2 116 5.564
45 AF2 117 7.517
45 AF2 118 9.471
45 AF2 119 9.471
45 AF2 120 7.517
45 AF2 121 4.588
45 AF2 122 2.146
45 AF2 123 0.193
45 AF2 124 -1.760
45 AF2 125 -3.225
45 AF2 126 -3.713
45 AF2 127 -2.736
45 AF2 128 -0.783
45 AF2 129 0.682
45 AF2 130 1.658
45 AF2 131 2.635
45 AF2 132 4.100
45 AF2 133 6.053
45 AF2 134 8.006
45 AF2 135 9.471
45 AF2 136 9.471
45 AF2 137 8.006
45 AF2 138 6.541
45 AF2 139 5.564
45 AF2 140 5.564
45 AF2 141 5.076
45 AF2 142 4.100
45 AF2 143 1.658
45 AF2 144 -0.295
45 AF2 145 -2.248
45 AF2 146 -3.713
45 AF2 147 -4.201
45 AF2 148 -4.690
45 AF2 149 -4.201
45 AF2 150 -3.225
45 AF2 151 -0.783
45 AF2 152 2.635
45 AF2 153 6.053
45 AF2 154 7.029
45 AF2 155 6.053
45 AF2 156 3.611
45 AF2 157 1.170
45 AF2 158 0.193
45 AF2 159 1.170
45 AF2 160 2.146
45 AF2 161 2.635
45 AF2 162 1.658
45 AF2 163 -0.783
45 AF2 164 -2.736
45 AF2 165 -4.201
45 AF2 166 -4.201
45 AF2 167 -3.225
45 AF2 168 -1.760
45 AF2 169 -0.295
45 AF2 170 1.170
45 AF2 171 2.635
45 AF2 172 3.611
45 AF2 173 4.100
45 AF2 174 4.100
45 AF2 175 3.611
45 AF2 176 2.146
45 AF2 177 0.682
45 AF2 178 0.193
45 AF2 179 1.170
45 AF2 180 3.611
45 AF2 181 6.053
45 AF2 182 8.006
45 AF2 183 7.517
45 AF2 184 5.076
45 AF2 185 1.170
45 AF2 186 -2.736
45 AF2 187 -6.154
45 AF2 188 -7.619
45 AF2 189 -6.154
45 AF2 190 -2.248
45 AF2 191 2.635
45 AF2 192 7.517
45 AF2 193 10.935
45 AF2 194 12.889
45 AF2 195 12.400
45 AF2 196 10.447
45 AF2 197 8.982
45 AF2 198 7.029
45 AF2 199 5.076
45 AF2 200 4.100
45 AF2 201 4.100
45 AF2 202 5.564
45 AF2 203 7.029
45 AF2 204 8.006
45 AF2 205 7.029
45 AF2 206 4.100
45 AF2 207 1.170
45 AF2 208 -0.295
45 AF2 209 0.193
45 AF2 210 1.170
45 AF2 211 2.146
45 AF2 212 2.146
45 AF2 213 1.658
45 AF2 214 2.146
45 AF2 215 4.588
45 AF2 216 8.494
45 AF2 217 13.865
45 AF2 218 17.771
45 AF2 219 19.236
45 AF2 220 17.771
45 AF2 221 14.842
45 AF2 222 11.424
45 AF2 223 7.517
45 AF2 224 4.100
45 AF2 225 2.635
45 AF2 226 3.611
45 AF2 227 6.541
45 AF2 228 10.447
45 AF2 229 12.889
45 AF2 230 13.377
45 AF2 231 10.447
45 AF2 232 6.053
45 AF2 233 1.658
45 AF2 234 -0.783
45 AF2 235 -1.760
45 AF2 236 -0.783
45 AF2 237 0.193
45 AF2 238 1.658
45 AF2 239 3.611
45 AF2 240 6.053
45 AF2 241 8.494
45 AF2 242 9.959
45 AF2 243 10.447
45 AF2 244 9.959
45 AF2 245 8.006
45 AF2 246 5.076
45 AF2 247 2.146
45 AF2 248 0.193
45 AF2 249 0.682
45 AF2 250 3.123
45 AF2 251 6.053
45 AF2 252 8.494
45 AF2 253 10.935
45 AF2 254 12.889
45 AF2 255 15.330
# FZ chan 6
45 FZ 0 -4.608
45 FZ 1 -5.096
45 FZ 2 -5.096
45 FZ 3 -4.120
45 FZ 4 -1.678
45 FZ 5 0.275
45 FZ 6 1.740
45 FZ 7 1.251
45 FZ 8 0.275
45 FZ 9 -1.678
45 FZ 10 -2.167
45 FZ 11 -0.702
45 FZ 12 1.251
45 FZ 13 3.204
45 FZ 14 4.181
45 FZ 15 2.716
45 FZ 16 -0.214
45 FZ 17 -3.632
45 FZ 18 -7.050
45 FZ 19 -9.003
45 FZ 20 -9.491
45 FZ 21 -8.514
45 FZ 22 -5.585
45 FZ 23 -3.632
45 FZ 24 -2.655
45 FZ 25 -4.608
45 FZ 26 -8.514
45 FZ 27 -11.444
45 FZ 28 -11.932
45 FZ 29 -8.514
45 FZ 30 -3.143
45 FZ 31 1.740
45 FZ 32 2.716
45 FZ 33 0.275
45 FZ 34 -4.120
45 FZ 35 -7.050
45 FZ 36 -7.050
45 FZ 37 -3.632
45 FZ 38 0.275
45 FZ 39 3.204
45 FZ 40 3.693
45 FZ 41 1.251
45 FZ 42 -1.678
45 FZ 43 -4.120
45 FZ 44 -4.608
45 FZ 45 -3.632
45 FZ 46 -1.190
45 FZ 47 0.763
45 FZ 48 1.740
45 FZ 49 1.740
45 FZ 50 -0.214
45 FZ 51 -3.143
45 FZ 52 -6.561
45 FZ 53 -9.491
45 FZ 54 -10.468
45 FZ 55 -9.979
45 FZ 56 -8.026
45 FZ 57 -6.073
45 FZ 58 -5.096
45 FZ 59 -5.585
45 FZ 60 -8.026
45 FZ 61 -10.956
45 FZ 62 -12.909
45 FZ 63 -12.421
45 FZ 64 -9.979
45 FZ 65 -6.073
45 FZ 66 -2.655
45 FZ 67 -0.702
45 FZ 68 0.275
45 FZ 69 0.763
45 FZ 70 2.228
45 FZ 71 3.204
45 FZ 72 3.693
45 FZ 73 3.693
45 FZ 74 4.181
45 FZ 75 6.134
45 FZ 76 9.552
45 FZ 77 13.947
45 FZ 78 16.876
45 FZ 79 16.388
45 FZ 80 11.993
45 FZ 81 6.622
45 FZ 82 1.740
45 FZ 83 -0.214
45 FZ 84 0.763
45 FZ 85 3.693
45 FZ 86 6.622
45 FZ 87 9.064
45 FZ 88 11.017
45 FZ 89 12.482
45 FZ 90 13.458
45 FZ 91 12.482
45 FZ 92 10.529
45 FZ 93 6.622
45 FZ 94 3.204
45 FZ 95 0.763
45 FZ 96 0.275
45 FZ 97 2.228
45 FZ 98 4.669
45 FZ 99 6.622
45 FZ 100 7.599
45 FZ 101 7.111
45 FZ 102 5.646
45 FZ 103 3.693
45 FZ 104 2.716
45 FZ 105 2.716
45 FZ 106 3.693
45 FZ 107 5.646
45 FZ 108 7.599
45 FZ 109 9.552
45 FZ 110 11.017
45 FZ 111 10.529
45 FZ 112 9.064
45 FZ 113 6.622
45 FZ 114 4.181
45 FZ 115 3.204
45 FZ 116 3.693
45 FZ 117 5.646
45 FZ 118 6.622
45 FZ 119 6.622
45 FZ 120 5.157
45 FZ 121 3.204
45 FZ 122 1.251
45 FZ 123 -0.702
45 FZ 124 -2.167
45 FZ 125 -4.120
45 FZ 126 -5.096
45 FZ 127 -5.585
45 FZ 128 -4.120
45 FZ 129 -1.190
45 FZ 130 1.251
45 FZ 131 2.716
45 FZ 132 3.204
45 FZ 133 2.716
45 FZ 134 2.228
45 FZ 135 1.740
45 FZ 136 2.716
45 FZ 137 3.693
45 FZ 138 4.669
45 FZ 139 4.669
45 FZ 140 3.693
45 FZ 141 2.716
45 FZ 142 1.251
45 FZ 143 -0.214
45 FZ 144 -1.190
45 FZ 145 -2.167
45 FZ 146 -2.655
45 FZ 147 -3.143
45 FZ 148 -3.632
45 FZ 149 -3.632
45 FZ 150 -3.632
45 FZ 151 -2.167
45 FZ 152 -0.702
45 FZ 153 1.251
45 FZ 154 2.716
45 FZ 155 2.716
45 FZ 156 2.228
45 FZ 157 1.251
45 FZ 158 0.763
45 FZ 159 1.251
45 FZ 160 2.228
45 FZ 161 3.204
45 FZ 162 2.716
45 FZ 163 1.251
45 FZ 164 -1.190
45 FZ 165 -2.655
45 FZ 166 -3.632
45 FZ 167 -3.632
45 FZ 168 -2.655
45 FZ 169 -1.678
45 FZ 170 -0.702
45 FZ 171 1.251
45 FZ 172 2.716
45 FZ 173 4.181
45 FZ 174 4.669
45 FZ 175 3.204
45 FZ 176 1.251
45 FZ 177 -0.702
45 FZ 178 -0.702
45 FZ 179 1.251
45 FZ 180 4.181
45 FZ 181 7.111
45 FZ 182 8.087
45 FZ 183 6.622
45 FZ 184 4.181
45 FZ 185 0.763
45 FZ 186 -2.167
45 FZ 187 -4.120
45 FZ 188 -5.585
45 FZ 189 -5.096
45 FZ 190 -3.143
45 FZ 191 0.275
45 FZ 192 3.204
45 FZ 193 5.646
45 FZ 194 6.134
45 FZ 195 6.134
45 FZ 196 5.157
45 FZ 197 4.181
45 FZ 198 3.693
45 FZ 199 3.204
45 FZ 200 3.204
45 FZ 201 3.693
45 FZ 202 4.181
45 FZ 203 4.181
45 FZ 204 3.204
45 FZ 205 1.251
45 FZ 206 -1.190
45 FZ 207 -3.143
45 FZ 208 -3.632
45 FZ 209 -3.143
45 FZ 210 -2.167
45 FZ 211 -1.190
45 FZ 212 -1.190
45 FZ 213 -1.190
45 FZ 214 -1.190
45 FZ 215 0.275
45 FZ 216 3.204
45 FZ 217 7.111
45 FZ 218 11.017
45 FZ 219 13.947
45 FZ 220 14.435
45 FZ 221 11.993
45 FZ 222 7.599
45 FZ 223 2.716
45 FZ 224 -1.678
45 FZ 225 -3.143
45 FZ 226 -1.678
45 FZ 227 1.740
45 FZ 228 6.134
45 FZ 229 8.575
45 FZ 230 8.575
45 FZ 231 5.157
45 FZ 232 0.763
45 FZ 233 -3.143
45 FZ 234 -5.096
45 FZ 235 -6.073
45 FZ 236 -5.096
45 FZ 237 -3.632
45 FZ 238 -2.167
45 FZ 239 -0.702
45 FZ 240 0.275
45 FZ 241 1.740
45 FZ 242 2.716
45 FZ 243 4.669
45 FZ 244 6.134
45 FZ 245 6.622
45 FZ 246 6.622
45 FZ 247 5.646
45 FZ 248 4.669
45 FZ 249 3.693
45 FZ 250 3.204
45 FZ 251 2.716
45 FZ 252 3.204
45 FZ 253 5.157
45 FZ 254 8.087
45 FZ 255 12.482
# F4 chan 7
45 F4 0 -1.719
45 F4 1 -1.719
45 F4 2 -0.743
45 F4 3 0.234
45 F4 4 1.211
45 F4 5 2.187
45 F4 6 3.164
45 F4 7 4.140
45 F4 8 3.652
45 F4 9 2.187
45 F4 10 0.722
45 F4 11 0.722
45 F4 12 2.187
45 F4 13 5.117
45 F4 14 6.582
45 F4 15 5.605
45 F4 16 2.187
45 F4 17 -3.184
45 F4 18 -7.579
45 F4 19 -10.020
45 F4 20 -9.043
45 F4 21 -6.114
45 F4 22 -2.207
45 F4 23 0.234
45 F4 24 0.722
45 F4 25 -0.254
45 F4 26 -2.696
45 F4 27 -4.649
45 F4 28 -5.137
45 F4 29 -3.672
45 F4 30 -1.231
45 F4 31 -0.254
45 F4 32 -1.231
45 F4 33 -4.649
45 F4 34 -8.067
45 F4 35 -9.532
45 F4 36 -8.067
45 F4 37 -4.161
45 F4 38 -0.254
45 F4 39 2.675
45 F4 40 3.164
45 F4 41 1.211
45 F4 42 -1.231
45 F4 43 -3.672
45 F4 44 -4.649
45 F4 45 -3.672
45 F4 46 -0.743
45 F4 47 2.675
45 F4 48 5.605
45 F4 49 6.093
45 F4 50 3.652
45 F4 51 -0.743
45 F4 52 -5.137
45 F4 53 -8.555
45 F4 54 -10.020
45 F4 55 -10.508
45 F4 56 -10.020
45 F4 57 -9.532
45 F4 58 -10.020
45 F4 59 -10.508
45 F4 60 -11.485
45 F4 61 -13.438
45 F4 62 -13.926
45 F4 63 -12.461
45 F4 64 -9.043
45 F4 65 -3.672
45 F4 66 0.234
45 F4 67 2.187
45 F4 68 2.675
45 F4 69 2.675
45 F4 70 4.140
45 F4 71 6.093
45 F4 72 7.070
45 F4 73 5.605
45 F4 74 3.164
45 F4 75 2.187
45 F4 76 4.140
45 F4 77 8.046
45 F4 78 12.441
45 F4 79 12.929
45 F4 80 9.511
45 F4 81 3.652
45 F4 82 -0.743
45 F4 83 -2.207
45 F4 84 -0.743
45 F4 85 1.699
45 F4 86 5.117
45 F4 87 8.535
45 F4 88 12.929
45 F4 89 17.324
45 F4 90 19.765
45 F4 91 19.765
45 F4 92 15.859
45 F4 93 10.000
45 F4 94 4.140
45 F4 95 0.234
45 F4 96 -1.231
45 F4 97 -1.719
45 F4 98 -1.719
45 F4 99 -2.696
45 F4 100 -4.161
45 F4 101 -4.161
45 F4 102 -2.696
45 F4 103 -1.231
45 F4 104 -0.254
45 F4 105 -0.254
45 F4 106 -0.743
45 F4 107 -0.743
45 F4 108 1.211
45 F4 109 3.652
45 F4 110 6.582
45 F4 111 7.558
45 F4 112 6.582
45 F4 113 3.164
45 F4 114 0.234
45 F4 115 -0.743
45 F4 116 0.722
45 F4 117 3.164
45 F4 118 5.605
45 F4 119 6.093
45 F4 120 4.140
45 F4 121 1.211
45 F4 122 -1.719
45 F4 123 -4.161
45 F4 124 -6.114
45 F4 125 -8.067
45 F4 126 -9.532
45 F4 127 -9.043
45 F4 128 -7.090
45 F4 129 -4.649
45 F4 130 -1.719
45 F4 131 0.722
45 F4 132 2.675
45 F4 133 5.117
45 F4 134 7.070
45 F4 135 8.046
45 F4 136 8.046
45 F4 137 6.582
45 F4 138 5.117
45 F4 139 4.628
45 F4 140 5.117
45 F4 141 5.605
45 F4 142 5.117
45 F4 143 3.652
45 F4 144 1.211
45 F4 145 -0.743
45 F4 146 -1.231
45 F4 147 -0.743
45 F4 148 -0.254
45 F4 149 1.211
45 F4 150 2.675
45 F4 151 4.628
45 F4 152 6.582
45 F4 153 8.046
45 F4 154 8.535
45 F4 155 7.558
45 F4 156 6.093
45 F4 157 4.628
45 F4 158 5.117
45 F4 159 5.605
45 F4 160 6.582
45 F4 161 6.582
45 F4 162 5.605
45 F4 163 2.675
45 F4 164 -1.231
45 F4 165 -4.649
45 F4 166 -6.602
45 F4 167 -5.625
45 F4 168 -1.231
45 F4 169 3.652
45 F4 170 9.023
45 F4 171 11.953
45 F4 172 13.418
45 F4 173 12.929
45 F4 174 11.953
45 F4 175 9.023
45 F4 176 6.582
45 F4 177 3.652
45 F4 178 2.675
45 F4 179 5.117
45 F4 180 9.023
45 F4 181 13.906
45 F4 182 17.324
45 F4 183 16.347
45 F4 184 12.441
45 F4 185 7.070
45 F4 186 2.187
45 F4 187 -0.743
45 F4 188 -0.254
45 F4 189 2.187
45 F4 190 5.117
45 F4 191 8.535
45 F4 192 11.464
45 F4 193 14.394
45 F4 194 15.859
45 F4 195 16.347
45 F4 196 15.859
45 F4 197 13.418
45 F4 198 10.000
45 F4 199 6.582
45 F4 200 4.140
45 F4 201 4.628
45 F4 202 6.582
45 F4 203 10.488
45 F4 204 13.418
45 F4 205 13.906
45 F4 206 11.464
45 F4 207 8.046
45 F4 208 4.628
45 F4 209 2.675
45 F4 210 2.187
45 F4 211 2.675
45 F4 212 3.164
45 F4 213 3.164
45 F4 214 4.628
45 F4 215 7.070
45 F4 216 10.488
45 F4 217 14.394
45 F4 218 17.324
45 F4 219 19.277
45 F4 220 18.789
45 F4 221 16.836
45 F4 222 13.906
45 F4 223 10.000
45 F4 224 6.582
45 F4 225 5.117
45 F4 226 6.582
45 F4 227 10.000
45 F4 228 14.394
45 F4 229 16.836
45 F4 230 16.347
45 F4 231 13.906
45 F4 232 9.023
45 F4 233 5.117
45 F4 234 2.187
45 F4 235 0.722
45 F4 236 0.234
45 F4 237 0.722
45 F4 238 2.187
45 F4 239 4.140
45 F4 240 6.582
45 F4 241 8.046
45 F4 242 8.535
45 F4 243 7.070
45 F4 244 4.628
45 F4 245 2.187
45 F4 246 -0.254
45 F4 247 -1.719
45 F4 248 -1.719
45 F4 249 0.234
45 F4 250 3.164
45 F4 251 6.582
45 F4 252 9.023
45 F4 253 9.023
45 F4 254 8.535
45 F4 255 8.535
# F3 chan 8
45 F3 0 -5.147
45 F3 1 -5.147
45 F3 2 -5.147
45 F3 3 -4.659
45 F3 4 -3.194
45 F3 5 -1.729
45 F3 6 -0.753
45 F3 7 -1.729
45 F3 8 -3.682
45 F3 9 -5.636
45 F3 10 -6.124
45 F3 11 -4.171
45 F3 12 -0.753
45 F3 13 2.665
45 F3 14 3.153
45 F3 15 0.712
45 F3 16 -4.171
45 F3 17 -8.565
45 F3 18 -11.983
45 F3 19 -12.960
45 F3 20 -11.983
45 F3 21 -10.030
45 F3 22 -7.589
45 F3 23 -6.124
45 F3 24 -6.124
45 F3 25 -8.077
45 F3 26 -11.495
45 F3 27 -14.425
45 F3 28 -13.936
45 F3 29 -10.518
45 F3 30 -4.659
45 F3 31 0.712
45 F3 32 1.200
45 F3 33 -1.729
45 F3 34 -6.612
45 F3 35 -10.518
45 F3 36 -10.030
45 F3 37 -6.124
45 F3 38 -2.218
45 F3 39 -0.264
45 F3 40 -1.729
45 F3 41 -5.147
45 F3 42 -8.077
45 F3 43 -10.030
45 F3 44 -9.542
45 F3 45 -7.589
45 F3 46 -5.147
45 F3 47 -3.194
45 F3 48 -2.218
45 F3 49 -2.706
45 F3 50 -4.659
45 F3 51 -8.077
45 F3 52 -11.495
45 F3 53 -13.448
45 F3 54 -13.448
45 F3 55 -11.983
45 F3 56 -9.542
45 F3 57 -7.100
45 F3 58 -6.612
45 F3 59 -7.589
45 F3 60 -10.030
45 F3 61 -12.472
45 F3 62 -14.913
45 F3 63 -15.401
45 F3 64 -13.448
45 F3 65 -10.518
45 F3 66 -7.100
45 F3 67 -5.147
45 F3 68 -4.171
45 F3 69 -3.682
45 F3 70 -2.218
45 F3 71 0.224
45 F3 72 2.665
45 F3 73 4.130
45 F3 74 4.618
45 F3 75 5.595
45 F3 76 8.525
45 F3 77 11.943
45 F3 78 14.872
45 F3 79 14.872
45 F3 80 11.454
45 F3 81 7.060
45 F3 82 3.153
45 F3 83 1.689
45 F3 84 2.665
45 F3 85 4.130
45 F3 86 4.618
45 F3 87 5.107
45 F3 88 6.083
45 F3 89 8.036
45 F3 90 9.501
45 F3 91 10.478
45 F3 92 9.501
45 F3 93 6.083
45 F3 94 1.689
45 F3 95 -1.729
45 F3 96 -2.706
45 F3 97 -0.753
45 F3 98 2.665
45 F3 99 6.083
45 F3 100 8.036
45 F3 101 7.060
45 F3 102 4.130
45 F3 103 1.200
45 F3 104 -0.753
45 F3 105 -0.264
45 F3 106 1.200
45 F3 107 4.130
45 F3 108 6.083
45 F3 109 7.060
45 F3 110 6.571
45 F3 111 5.107
45 F3 112 2.665
45 F3 113 0.224
45 F3 114 -1.729
45 F3 115 -2.218
45 F3 116 -1.241
45 F3 117 0.712
45 F3 118 2.665
45 F3 119 2.665
45 F3 120 1.200
45 F3 121 -1.241
45 F3 122 -3.194
45 F3 123 -4.659
45 F3 124 -4.659
45 F3 125 -4.171
45 F3 126 -3.682
45 F3 127 -3.682
45 F3 128 -3.194
45 F3 129 -2.218
45 F3 130 -1.241
45 F3 131 -0.753
45 F3 132 -0.753
45 F3 133 -1.729
45 F3 134 -2.218
45 F3 135 -1.241
45 F3 136 1.200
45 F3 137 5.107
45 F3 138 7.548
45 F3 139 7.060
45 F3 140 3.153
45 F3 141 -2.706
45 F3 142 -8.077
45 F3 143 -11.007
45 F3 144 -10.518
45 F3 145 -7.100
45 F3 146 -4.659
45 F3 147 -4.659
45 F3 148 -7.589
45 F3 149 -12.472
45 F3 150 -14.913
45 F3 151 -14.425
45 F3 152 -10.518
45 F3 153 -5.636
45 F3 154 -2.218
45 F3 155 -1.241
45 F3 156 -3.194
45 F3 157 -5.636
45 F3 158 -6.612
45 F3 159 -5.147
45 F3 160 -1.729
45 F3 161 1.689
45 F3 162 3.642
45 F3 163 3.642
45 F3 164 1.689
45 F3 165 -1.241
45 F3 166 -3.194
45 F3 167 -4.171
45 F3 168 -3.682
45 F3 169 -2.218
45 F3 170 -0.264
45 F3 171 1.689
45 F3 172 3.642
45 F3 173 4.130
45 F3 174 3.642
45 F3 175 1.200
45 F3 176 -1.729
45 F3 177 -3.682
45 F3 178 -3.194
45 F3 179 -1.241
45 F3 180 1.689
45 F3 181 3.153
45 F3 182 3.153
45 F3 183 1.200
45 F3 184 -1.241
45 F3 185 -3.194
45 F3 186 -4.659
45 F3 187 -5.636
45 F3 188 -6.124
45 F3 189 -5.636
45 F3 190 -4.171
45 F3 191 -2.218
45 F3 192 0.224
45 F3 193 1.200
45 F3 194 1.200
45 F3 195 0.712
45 F3 196 0.712
45 F3 197 1.689
45 F3 198 2.665
45 F3 199 3.642
45 F3 200 4.130
45 F3 201 3.642
45 F3 202 2.177
45 F3 203 0.712
45 F3 204 -1.241
45 F3 205 -2.706
45 F3 206 -4.171
45 F3 207 -5.147
45 F3 208 -4.659
45 F3 209 -3.682
45 F3 210 -3.682
45 F3 211 -4.171
45 F3 212 -6.124
45 F3 213 -8.565
45 F3 214 -9.542
45 F3 215 -7.589
45 F3 216 -2.706
45 F3 217 4.130
45 F3 218 9.989
45 F3 219 12.919
45 F3 220 11.943
45 F3 221 8.036
45 F3 222 2.665
45 F3 223 -3.682
45 F3 224 -7.589
45 F3 225 -9.054
45 F3 226 -7.589
45 F3 227 -3.682
45 F3 228 1.200
45 F3 229 3.642
45 F3 230 3.153
45 F3 231 -1.241
45 F3 232 -6.124
45 F3 233 -9.542
45 F3 234 -10.030
45 F3 235 -8.565
45 F3 236 -6.124
45 F3 237 -4.171
45 F3 238 -3.682
45 F3 239 -3.194
45 F3 240 -2.706
45 F3 241 -0.753
45 F3 242 2.177
45 F3 243 5.107
45 F3 244 6.571
45 F3 245 6.571
45 F3 246 3.642
45 F3 247 -0.264
45 F3 248 -4.659
45 F3 249 -6.612
45 F3 250 -7.100
45 F3 251 -5.636
45 F3 252 -3.194
45 F3 253 -0.264
45 F3 254 3.153
45 F3 255 7.060
# FC6 chan 9
45 FC6 0 -7.080
45 FC6 1 -7.080
45 FC6 2 -6.592
45 FC6 3 -6.592
45 FC6 4 -5.615
45 FC6 5 -4.150
45 FC6 6 -0.732
45 FC6 7 2.686
45 FC6 8 5.127
45 FC6 9 5.615
45 FC6 10 5.127
45 FC6 11 4.639
45 FC6 12 5.127
45 FC6 13 6.104
45 FC6 14 6.104
45 FC6 15 3.662
45 FC6 16 -1.709
45 FC6 17 -7.568
45 FC6 18 -10.498
45 FC6 19 -9.521
45 FC6 20 -4.150
45 FC6 21 2.686
45 FC6 22 7.568
45 FC6 23 8.545
45 FC6 24 6.104
45 FC6 25 2.686
45 FC6 26 -0.244
45 FC6 27 -0.244
45 FC6 28 2.197
45 FC6 29 4.639
45 FC6 30 5.615
45 FC6 31 3.174
45 FC6 32 -2.197
45 FC6 33 -9.033
45 FC6 34 -13.916
45 FC6 35 -14.404
45 FC6 36 -10.498
45 FC6 37 -3.662
45 FC6 38 3.662
45 FC6 39 7.568
45 FC6 40 8.057
45 FC6 41 5.127
45 FC6 42 0.244
45 FC6 43 -3.662
45 FC6 44 -4.639
45 FC6 45 -2.197
45 FC6 46 3.662
45 FC6 47 10.010
45 FC6 48 13.916
45 FC6 49 13.916
45 FC6 50 9.033
45 FC6 51 2.686
45 FC6 52 -3.662
45 FC6 53 -7.568
45 FC6 54 -10.010
45 FC6 55 -11.475
45 FC6 56 -12.939
45 FC6 57 -14.404
45 FC6 58 -14.893
45 FC6 59 -13.916
45 FC6 60 -11.963
45 FC6 61 -9.521
45 FC6 62 -8.057
45 FC6 63 -6.592
45 FC6 64 -4.639
45 FC6 65 -1.709
45 FC6 66 0.732
45 FC6 67 2.686
45 FC6 68 3.174
45 FC6 69 3.662
45 FC6 70 4.150
45 FC6 71 4.639
45 FC6 72 4.639
45 FC6 73 3.174
45 FC6 74 0.732
45 FC6 75 -0.732
45 FC6 76 -1.221
45 FC6 77 -0.244
45 FC6 78 -0.732
45 FC6 79 -3.174
45 FC6 80 -6.592
45 FC6 81 -9.033
45 FC6 82 -9.521
45 FC6 83 -6.592
45 FC6 84 -3.662
45 FC6 85 -0.244
45 FC6 86 2.686
45 FC6 87 7.080
45 FC6 88 13.428
45 FC6 89 19.287
45 FC6 90 22.705
45 FC6 91 21.240
45 FC6 92 15.869
45 FC6 93 9.033
45 FC6 94 4.639
45 FC6 95 2.686
45 FC6 96 1.709
45 FC6 97 -0.732
45 FC6 98 -5.127
45 FC6 99 -10.498
45 FC6 100 -13.428
45 FC6 101 -12.451
45 FC6 102 -8.057
45 FC6 103 -3.662
45 FC6 104 -1.221
45 FC6 105 -1.709
45 FC6 106 -3.662
45 FC6 107 -5.127
45 FC6 108 -4.639
45 FC6 109 -2.197
45 FC6 110 1.221
45 FC6 111 4.150
45 FC6 112 5.615
45 FC6 113 6.104
45 FC6 114 5.127
45 FC6 115 4.150
45 FC6 116 3.174
45 FC6 117 3.174
45 FC6 118 3.662
45 FC6 119 4.150
45 FC6 120 2.686
45 FC6 121 0.732
45 FC6 122 -2.686
45 FC6 123 -5.615
45 FC6 124 -7.568
45 FC6 125 -8.545
45 FC6 126 -8.545
45 FC6 127 -8.057
45 FC6 128 -6.592
45 FC6 129 -3.662
45 FC6 130 0.244
45 FC6 131 4.639
45 FC6 132 7.568
45 FC6 133 8.057
45 FC6 134 7.080
45 FC6 135 5.127
45 FC6 136 4.150
45 FC6 137 4.639
45 FC6 138 5.615
45 FC6 139 6.104
45 FC6 140 5.615
45 FC6 141 3.662
45 FC6 142 1.709
45 FC6 143 -0.244
45 FC6 144 -2.686
45 FC6 145 -5.127
45 FC6 146 -6.592
45 FC6 147 -7.568
45 FC6 148 -7.080
45 FC6 149 -4.639
45 FC6 150 -1.709
45 FC6 151 1.709
45 FC6 152 3.662
45 FC6 153 4.150
45 FC6 154 4.150
45 FC6 155 3.174
45 FC6 156 2.197
45 FC6 157 1.709
45 FC6 158 0.732
45 FC6 159 0.244
45 FC6 160 -0.244
45 FC6 161 -0.732
45 FC6 162 -1.709
45 FC6 163 -3.662
45 FC6 164 -6.592
45 FC6 165 -8.545
45 FC6 166 -9.521
45 FC6 167 -7.080
45 FC6 168 -2.686
45 FC6 169 2.686
45 FC6 170 7.080
45 FC6 171 9.033
45 FC6 172 9.033
45 FC6 173 8.545
45 FC6 174 7.568
45 FC6 175 6.104
45 FC6 176 4.639
45 FC6 177 3.174
45 FC6 178 2.686
45 FC6 179 3.174
45 FC6 180 4.639
45 FC6 181 6.104
45 FC6 182 6.592
45 FC6 183 4.639
45 FC6 184 0.244
45 FC6 185 -4.150
45 FC6 186 -6.592
45 FC6 187 -6.104
45 FC6 188 -1.709
45 FC6 189 3.662
45 FC6 190 9.033
45 FC6 191 11.963
45 FC6 192 13.428
45 FC6 193 13.428
45 FC6 194 13.428
45 FC6 195 13.428
45 FC6 196 13.916
45 FC6 197 12.939
45 FC6 198 10.010
45 FC6 199 6.104
45 FC6 200 1.221
45 FC6 201 -1.221
45 FC6 202 -0.732
45 FC6 203 1.709
45 FC6 204 5.127
45 FC6 205 7.568
45 FC6 206 7.568
45 FC6 207 6.104
45 FC6 208 3.174
45 FC6 209 0.732
45 FC6 210 -1.709
45 FC6 211 -3.174
45 FC6 212 -4.639
45 FC6 213 -5.127
45 FC6 214 -4.639
45 FC6 215 -2.197
45 FC6 216 2.197
45 FC6 217 7.080
45 FC6 218 11.475
45 FC6 219 12.451
45 FC6 220 10.498
45 FC6 221 6.592
45 FC6 222 1.709
45 FC6 223 -1.709
45 FC6 224 -3.174
45 FC6 225 -2.686
45 FC6 226 -1.221
45 FC6 227 0.732
45 FC6 228 2.686
45 FC6 229 3.662
45 FC6 230 3.174
45 FC6 231 0.732
45 FC6 232 -2.197
45 FC6 233 -5.127
45 FC6 234 -6.592
45 FC6 235 -6.104
45 FC6 236 -4.639
45 FC6 237 -2.686
45 FC6 238 -0.732
45 FC6 239 0.732
45 FC6 240 2.197
45 FC6 241 3.174
45 FC6 242 3.174
45 FC6 243 2.197
45 FC6 244 -0.732
45 FC6 245 -6.104
45 FC6 246 -11.475
45 FC6 247 -15.381
45 FC6 248 -15.869
45 FC6 249 -12.451
45 FC6 250 -7.568
45 FC6 251 -3.174
45 FC6 252 -2.197
45 FC6 253 -5.127
45 FC6 254 -9.521
45 FC6 255 -12.451
# FC5 chan 10
45 FC5 0 -1.312
45 FC5 1 -0.824
45 FC5 2 -0.824
45 FC5 3 -1.801
45 FC5 4 -1.801
45 FC5 5 -1.312
45 FC5 6 -0.336
45 FC5 7 0.153
45 FC5 8 -1.312
45 FC5 9 -2.777
45 FC5 10 -3.754
45 FC5 11 -2.289
45 FC5 12 0.641
45 FC5 13 3.571
45 FC5 14 4.059
45 FC5 15 2.106
45 FC5 16 -1.801
45 FC5 17 -5.219
45 FC5 18 -6.195
45 FC5 19 -4.730
45 FC5 20 -1.801
45 FC5 21 0.641
45 FC5 22 1.617
45 FC5 23 1.129
45 FC5 24 -0.336
45 FC5 25 -3.754
45 FC5 26 -6.195
45 FC5 27 -8.148
45 FC5 28 -6.683
45 FC5 29 -2.777
45 FC5 30 1.617
45 FC5 31 4.547
45 FC5 32 4.059
45 FC5 33 -0.336
45 FC5 34 -5.219
45 FC5 35 -8.148
45 FC5 36 -7.172
45 FC5 37 -3.754
45 FC5 38 0.153
45 FC5 39 2.106
45 FC5 40 1.129
45 FC5 41 -1.312
45 FC5 42 -4.242
45 FC5 43 -5.707
45 FC5 44 -5.707
45 FC5 45 -5.219
45 FC5 46 -4.730
45 FC5 47 -3.754
45 FC5 48 -3.265
45 FC5 49 -3.265
45 FC5 50 -3.754
45 FC5 51 -6.195
45 FC5 52 -8.148
45 FC5 53 -9.125
45 FC5 54 -9.125
45 FC5 55 -7.660
45 FC5 56 -5.707
45 FC5 57 -4.730
45 FC5 58 -5.219
45 FC5 59 -7.172
45 FC5 60 -8.636
45 FC5 61 -9.613
45 FC5 62 -9.613
45 FC5 63 -9.125
45 FC5 64 -8.148
45 FC5 65 -6.683
45 FC5 66 -4.730
45 FC5 67 -3.754
45 FC5 68 -2.289
45 FC5 69 -1.801
45 FC5 70 -1.801
45 FC5 71 -1.801
45 FC5 72 -1.801
45 FC5 73 -2.289
45 FC5 74 -1.801
45 FC5 75 -0.824
45 FC5 76 1.617
45 FC5 77 4.547
45 FC5 78 6.500
45 FC5 79 6.012
45 FC5 80 3.571
45 FC5 81 0.641
45 FC5 82 -1.312
45 FC5 83 -0.824
45 FC5 84 0.641
45 FC5 85 3.082
45 FC5 86 4.059
45 FC5 87 4.059
45 FC5 88 5.035
45 FC5 89 6.989
45 FC5 90 9.430
45 FC5 91 10.895
45 FC5 92 10.895
45 FC5 93 7.965
45 FC5 94 4.547
45 FC5 95 1.617
45 FC5 96 0.641
45 FC5 97 1.129
45 FC5 98 2.594
45 FC5 99 4.059
45 FC5 100 5.035
45 FC5 101 5.035
45 FC5 102 4.547
45 FC5 103 4.059
45 FC5 104 3.082
45 FC5 105 2.594
45 FC5 106 2.594
45 FC5 107 4.059
45 FC5 108 6.012
45 FC5 109 6.989
45 FC5 110 6.989
45 FC5 111 5.035
45 FC5 112 2.106
45 FC5 113 -0.824
45 FC5 114 -1.312
45 FC5 115 -1.312
45 FC5 116 0.153
45 FC5 117 1.617
45 FC5 118 2.106
45 FC5 119 1.129
45 FC5 120 -0.336
45 FC5 121 -2.289
45 FC5 122 -3.754
45 FC5 123 -3.754
45 FC5 124 -2.777
45 FC5 125 -1.312
45 FC5 126 0.641
45 FC5 127 1.617
45 FC5 128 1.617
45 FC5 129 0.153
45 FC5 130 -1.801
45 FC5 131 -2.777
45 FC5 132 -3.265
45 FC5 133 -1.801
45 FC5 134 0.641
45 FC5 135 3.571
45 FC5 136 6.989
45 FC5 137 9.430
45 FC5 138 10.895
45 FC5 139 9.430
45 FC5 140 4.547
45 FC5 141 -2.289
45 FC5 142 -9.125
45 FC5 143 -12.543
45 FC5 144 -11.566
45 FC5 145 -7.660
45 FC5 146 -3.265
45 FC5 147 -2.777
45 FC5 148 -6.683
45 FC5 149 -12.054
45 FC5 150 -15.472
45 FC5 151 -14.984
45 FC5 152 -9.613
45 FC5 153 -2.777
45 FC5 154 3.082
45 FC5 155 4.547
45 FC5 156 2.106
45 FC5 157 -1.801
45 FC5 158 -4.730
45 FC5 159 -4.730
45 FC5 160 -1.801
45 FC5 161 1.617
45 FC5 162 4.059
45 FC5 163 4.547
45 FC5 164 3.571
45 FC5 165 1.617
45 FC5 166 0.153
45 FC5 167 -0.336
45 FC5 168 0.153
45 FC5 169 0.641
45 FC5 170 2.106
45 FC5 171 3.082
45 FC5 172 4.547
45 FC5 173 5.524
45 FC5 174 6.012
45 FC5 175 5.035
45 FC5 176 4.059
45 FC5 177 3.082
45 FC5 178 3.082
45 FC5 179 4.059
45 FC5 180 5.035
45 FC5 181 6.012
45 FC5 182 5.035
45 FC5 183 3.571
45 FC5 184 1.617
45 FC5 185 -0.824
45 FC5 186 -2.289
45 FC5 187 -2.777
45 FC5 188 -2.289
45 FC5 189 -0.336
45 FC5 190 1.129
45 FC5 191 2.106
45 FC5 192 2.106
45 FC5 193 1.617
45 FC5 194 1.129
45 FC5 195 1.617
45 FC5 196 4.059
45 FC5 197 6.989
45 FC5 198 8.942
45 FC5 199 8.942
45 FC5 200 6.012
45 FC5 201 2.594
45 FC5 202 -0.824
45 FC5 203 -2.289
45 FC5 204 -1.312
45 FC5 205 0.641
45 FC5 206 2.106
45 FC5 207 1.129
45 FC5 208 -1.312
45 FC5 209 -4.242
45 FC5 210 -7.172
45 FC5 211 -8.636
45 FC5 212 -8.636
45 FC5 213 -8.148
45 FC5 214 -6.195
45 FC5 215 -2.777
45 FC5 216 3.082
45 FC5 217 8.453
45 FC5 218 13.336
45 FC5 219 14.801
45 FC5 220 12.848
45 FC5 221 9.430
45 FC5 222 5.524
45 FC5 223 2.106
45 FC5 224 -0.336
45 FC5 225 -1.801
45 FC5 226 -1.801
45 FC5 227 -0.336
45 FC5 228 1.129
45 FC5 229 2.106
45 FC5 230 0.641
45 FC5 231 -3.265
45 FC5 232 -7.172
45 FC5 233 -9.613
45 FC5 234 -9.125
45 FC5 235 -5.707
45 FC5 236 -1.312
45 FC5 237 1.617
45 FC5 238 3.571
45 FC5 239 3.571
45 FC5 240 3.571
45 FC5 241 4.059
45 FC5 242 6.012
45 FC5 243 7.965
45 FC5 244 8.942
45 FC5 245 7.965
45 FC5 246 4.059
45 FC5 247 -1.801
45 FC5 248 -7.660
45 FC5 249 -11.566
45 FC5 250 -12.054
45 FC5 251 -10.590
45 FC5 252 -8.148
45 FC5 253 -5.219
45 FC5 254 -2.777
45 FC5 255 -0.824
# FC2 chan 11
45 FC2 0 -8.341
45 FC2 1 -10.783
45 FC2 2 -10.295
45 FC2 3 -5.900
45 FC2 4 0.448
45 FC2 5 5.819
45 FC2 6 8.748
45 FC2 7 6.795
45 FC2 8 1.912
45 FC2 9 -3.459
45 FC2 10 -5.900
45 FC2 11 -4.924
45 FC2 12 -1.506
45 FC2 13 1.912
45 FC2 14 0.936
45 FC2 15 -1.994
45 FC2 16 -5.900
45 FC2 17 -7.853
45 FC2 18 -7.853
45 FC2 19 -6.388
45 FC2 20 -5.900
45 FC2 21 -6.877
45 FC2 22 -8.341
45 FC2 23 -8.830
45 FC2 24 -7.365
45 FC2 25 -5.900
45 FC2 26 -5.412
45 FC2 27 -5.900
45 FC2 28 -6.388
45 FC2 29 -5.412
45 FC2 30 -1.506
45 FC2 31 2.401
45 FC2 32 4.354
45 FC2 33 4.354
45 FC2 34 1.912
45 FC2 35 -0.041
45 FC2 36 -0.529
45 FC2 37 0.936
45 FC2 38 2.401
45 FC2 39 1.912
45 FC2 40 0.448
45 FC2 41 -1.994
45 FC2 42 -3.459
45 FC2 43 -3.459
45 FC2 44 -1.994
45 FC2 45 0.936
45 FC2 46 4.354
45 FC2 47 7.772
45 FC2 48 10.213
45 FC2 49 9.725
45 FC2 50 7.284
45 FC2 51 3.377
45 FC2 52 -0.041
45 FC2 53 -2.482
45 FC2 54 -3.459
45 FC2 55 -4.924
45 FC2 56 -7.365
45 FC2 57 -10.295
45 FC2 58 -11.271
45 FC2 59 -9.806
45 FC2 60 -6.388
45 FC2 61 -2.970
45 FC2 62 -1.017
45 FC2 63 -0.041
45 FC2 64 -0.529
45 FC2 65 0.448
45 FC2 66 1.912
45 FC2 67 4.354
45 FC2 68 6.795
45 FC2 69 7.772
45 FC2 70 8.260
45 FC2 71 7.772
45 FC2 72 5.819
45 FC2 73 2.401
45 FC2 74 -2.482
45 FC2 75 -7.365
45 FC2 76 -10.295
45 FC2 77 -10.783
45 FC2 78 -10.783
45 FC2 79 -10.783
45 FC2 80 -13.224
45 FC2 81 -16.642
45 FC2 82 -19.572
45 FC2 83 -19.084
45 FC2 84 -15.177
45 FC2 85 -8.341
45 FC2 86 -2.482
45 FC2 87 2.401
45 FC2 88 4.354
45 FC2 89 5.330
45 FC2 90 4.842
45 FC2 91 3.377
45 FC2 92 2.401
45 FC2 93 1.424
45 FC2 94 0.448
45 FC2 95 0.448
45 FC2 96 -0.529
45 FC2 97 -1.994
45 FC2 98 -4.435
45 FC2 99 -6.388
45 FC2 100 -7.365
45 FC2 101 -7.853
45 FC2 102 -7.365
45 FC2 103 -7.853
45 FC2 104 -8.341
45 FC2 105 -9.318
45 FC2 106 -9.318
45 FC2 107 -8.341
45 FC2 108 -6.877
45 FC2 109 -4.924
45 FC2 110 -3.947
45 FC2 111 -3.947
45 FC2 112 -4.435
45 FC2 113 -4.924
45 FC2 114 -5.900
45 FC2 115 -6.877
45 FC2 116 -6.877
45 FC2 117 -6.877
45 FC2 118 -6.388
45 FC2 119 -6.877
45 FC2 120 -8.341
45 FC2 121 -9.806
45 FC2 122 -11.759
45 FC2 123 -12.248
45 FC2 124 -11.759
45 FC2 125 -10.783
45 FC2 126 -10.295
45 FC2 127 -10.295
45 FC2 128 -10.295
45 FC2 129 -9.318
45 FC2 130 -7.365
45 FC2 131 -5.900
45 FC2 132 -5.412
45 FC2 133 -7.365
45 FC2 134 -10.295
45 FC2 135 -12.248
45 FC2 136 -13.713
45 FC2 137 -13.713
45 FC2 138 -13.713
45 FC2 139 -14.689
45 FC2 140 -15.666
45 FC2 141 -16.154
45 FC2 142 -15.666
45 FC2 143 -13.713
45 FC2 144 -11.271
45 FC2 145 -9.806
45 FC2 146 -9.806
45 FC2 147 -11.271
45 FC2 148 -12.736
45 FC2 149 -13.224
45 FC2 150 -11.759
45 FC2 151 -8.341
45 FC2 152 -3.947
45 FC2 153 -0.041
45 FC2 154 2.401
45 FC2 155 3.377
45 FC2 156 2.401
45 FC2 157 0.448
45 FC2 158 -2.482
45 FC2 159 -5.412
45 FC2 160 -7.365
45 FC2 161 -9.318
45 FC2 162 -10.295
45 FC2 163 -11.759
45 FC2 164 -13.713
45 FC2 165 -15.177
45 FC2 166 -16.154
45 FC2 167 -15.177
45 FC2 168 -12.736
45 FC2 169 -10.295
45 FC2 170 -8.341
45 FC2 171 -7.365
45 FC2 172 -6.877
45 FC2 173 -6.388
45 FC2 174 -5.412
45 FC2 175 -4.924
45 FC2 176 -4.924
45 FC2 177 -5.900
45 FC2 178 -7.365
45 FC2 179 -8.830
45 FC2 180 -8.341
45 FC2 181 -7.365
45 FC2 182 -5.412
45 FC2 183 -4.924
45 FC2 184 -5.900
45 FC2 185 -7.365
45 FC2 186 -9.318
45 FC2 187 -9.806
45 FC2 188 -8.830
45 FC2 189 -6.388
45 FC2 190 -3.947
45 FC2 191 -2.970
45 FC2 192 -1.994
45 FC2 193 -1.506
45 FC2 194 -0.529
45 FC2 195 0.936
45 FC2 196 1.912
45 FC2 197 1.912
45 FC2 198 1.424
45 FC2 199 -0.529
45 FC2 200 -2.970
45 FC2 201 -6.388
45 FC2 202 -9.318
45 FC2 203 -12.736
45 FC2 204 -15.666
45 FC2 205 -17.131
45 FC2 206 -17.131
45 FC2 207 -16.154
45 FC2 208 -12.736
45 FC2 209 -9.318
45 FC2 210 -6.388
45 FC2 211 -4.924
45 FC2 212 -3.947
45 FC2 213 -4.435
45 FC2 214 -5.412
45 FC2 215 -5.900
45 FC2 216 -5.900
45 FC2 217 -3.459
45 FC2 218 0.936
45 FC2 219 5.330
45 FC2 220 8.260
45 FC2 221 7.772
45 FC2 222 2.889
45 FC2 223 -4.924
45 FC2 224 -12.248
45 FC2 225 -16.154
45 FC2 226 -14.689
45 FC2 227 -10.295
45 FC2 228 -5.900
45 FC2 229 -3.459
45 FC2 230 -4.924
45 FC2 231 -6.388
45 FC2 232 -8.341
45 FC2 233 -8.341
45 FC2 234 -7.853
45 FC2 235 -8.341
45 FC2 236 -9.318
45 FC2 237 -10.783
45 FC2 238 -12.248
45 FC2 239 -12.248
45 FC2 240 -11.759
45 FC2 241 -11.759
45 FC2 242 -11.759
45 FC2 243 -12.248
45 FC2 244 -12.248
45 FC2 245 -11.271
45 FC2 246 -9.806
45 FC2 247 -8.341
45 FC2 248 -6.388
45 FC2 249 -5.412
45 FC2 250 -5.412
45 FC2 251 -6.388
45 FC2 252 -8.830
45 FC2 253 -11.271
45 FC2 254 -12.248
45 FC2 255 -11.759
# FC1 chan 12
45 FC1 0 -4.598
45 FC1 1 -5.086
45 FC1 2 -5.086
45 FC1 3 -5.086
45 FC1 4 -4.110
45 FC1 5 -3.133
45 FC1 6 -2.157
45 FC1 7 -1.668
45 FC1 8 -2.157
45 FC1 9 -3.133
45 FC1 10 -3.133
45 FC1 11 -2.157
45 FC1 12 -1.180
45 FC1 13 0.285
45 FC1 14 1.261
45 FC1 15 0.773
45 FC1 16 -0.692
45 FC1 17 -2.645
45 FC1 18 -5.086
45 FC1 19 -6.551
45 FC1 20 -7.039
45 FC1 21 -6.551
45 FC1 22 -5.575
45 FC1 23 -4.598
45 FC1 24 -4.110
45 FC1 25 -4.598
45 FC1 26 -6.063
45 FC1 27 -8.016
45 FC1 28 -7.528
45 FC1 29 -5.575
45 FC1 30 -1.668
45 FC1 31 1.261
45 FC1 32 2.238
45 FC1 33 0.773
45 FC1 34 -2.157
45 FC1 35 -4.598
45 FC1 36 -5.086
45 FC1 37 -3.133
45 FC1 38 -0.692
45 FC1 39 1.261
45 FC1 40 1.750
45 FC1 41 0.773
45 FC1 42 -1.180
45 FC1 43 -3.133
45 FC1 44 -3.621
45 FC1 45 -3.621
45 FC1 46 -2.645
45 FC1 47 -1.180
45 FC1 48 -0.692
45 FC1 49 -0.692
45 FC1 50 -1.668
45 FC1 51 -3.133
45 FC1 52 -4.598
45 FC1 53 -5.575
45 FC1 54 -5.086
45 FC1 55 -4.110
45 FC1 56 -2.157
45 FC1 57 -1.180
45 FC1 58 -0.692
45 FC1 59 -1.668
45 FC1 60 -3.621
45 FC1 61 -6.063
45 FC1 62 -7.528
45 FC1 63 -8.016
45 FC1 64 -7.528
45 FC1 65 -6.551
45 FC1 66 -5.086
45 FC1 67 -3.621
45 FC1 68 -2.645
45 FC1 69 -1.668
45 FC1 70 -0.203
45 FC1 71 1.261
45 FC1 72 1.750
45 FC1 73 2.238
45 FC1 74 2.726
45 FC1 75 4.191
45 FC1 76 6.144
45 FC1 77 9.074
45 FC1 78 10.539
45 FC1 79 10.539
45 FC1 80 9.074
45 FC1 81 5.656
45 FC1 82 2.726
45 FC1 83 0.773
45 FC1 84 0.773
45 FC1 85 1.750
45 FC1 86 2.726
45 FC1 87 3.703
45 FC1 88 4.191
45 FC1 89 4.679
45 FC1 90 4.679
45 FC1 91 3.703
45 FC1 92 2.726
45 FC1 93 1.750
45 FC1 94 0.773
45 FC1 95 0.285
45 FC1 96 0.773
45 FC1 97 2.726
45 FC1 98 4.679
45 FC1 99 6.144
45 FC1 100 6.144
45 FC1 101 4.679
45 FC1 102 2.726
45 FC1 103 0.285
45 FC1 104 -0.692
45 FC1 105 -0.692
45 FC1 106 0.773
45 FC1 107 2.238
45 FC1 108 2.726
45 FC1 109 1.750
45 FC1 110 0.285
45 FC1 111 -1.180
45 FC1 112 -2.157
45 FC1 113 -2.645
45 FC1 114 -2.645
45 FC1 115 -2.157
45 FC1 116 -2.157
45 FC1 117 -1.668
45 FC1 118 -1.180
45 FC1 119 -1.180
45 FC1 120 -1.668
45 FC1 121 -2.157
45 FC1 122 -3.133
45 FC1 123 -3.133
45 FC1 124 -3.133
45 FC1 125 -3.133
45 FC1 126 -3.621
45 FC1 127 -4.110
45 FC1 128 -4.598
45 FC1 129 -4.110
45 FC1 130 -3.133
45 FC1 131 -2.645
45 FC1 132 -2.157
45 FC1 133 -3.133
45 FC1 134 -3.133
45 FC1 135 -3.133
45 FC1 136 -2.157
45 FC1 137 -0.692
45 FC1 138 0.773
45 FC1 139 0.773
45 FC1 140 -0.692
45 FC1 141 -3.133
45 FC1 142 -5.086
45 FC1 143 -6.063
45 FC1 144 -6.063
45 FC1 145 -6.063
45 FC1 146 -6.063
45 FC1 147 -6.551
45 FC1 148 -8.016
45 FC1 149 -8.993
45 FC1 150 -8.993
45 FC1 151 -8.016
45 FC1 152 -6.551
45 FC1 153 -4.110
45 FC1 154 -2.645
45 FC1 155 -2.157
45 FC1 156 -2.645
45 FC1 157 -4.110
45 FC1 158 -5.086
45 FC1 159 -5.086
45 FC1 160 -3.133
45 FC1 161 -0.692
45 FC1 162 1.261
45 FC1 163 0.773
45 FC1 164 -1.180
45 FC1 165 -3.621
45 FC1 166 -5.086
45 FC1 167 -5.575
45 FC1 168 -4.598
45 FC1 169 -3.133
45 FC1 170 -1.668
45 FC1 171 -0.692
45 FC1 172 -0.203
45 FC1 173 0.285
45 FC1 174 0.285
45 FC1 175 -0.692
45 FC1 176 -1.668
45 FC1 177 -2.157
45 FC1 178 -1.668
45 FC1 179 -0.692
45 FC1 180 0.773
45 FC1 181 1.261
45 FC1 182 0.773
45 FC1 183 -0.692
45 FC1 184 -2.157
45 FC1 185 -3.133
45 FC1 186 -3.621
45 FC1 187 -4.598
45 FC1 188 -5.575
45 FC1 189 -6.063
45 FC1 190 -5.575
45 FC1 191 -4.598
45 FC1 192 -2.645
45 FC1 193 -1.668
45 FC1 194 -1.180
45 FC1 195 -1.668
45 FC1 196 -1.668
45 FC1 197 -1.180
45 FC1 198 0.773
45 FC1 199 2.726
45 FC1 200 3.703
45 FC1 201 3.215
45 FC1 202 1.261
45 FC1 203 -0.692
45 FC1 204 -3.621
45 FC1 205 -5.086
45 FC1 206 -6.551
45 FC1 207 -7.039
45 FC1 208 -7.039
45 FC1 209 -6.551
45 FC1 210 -5.575
45 FC1 211 -5.086
45 FC1 212 -5.575
45 FC1 213 -6.551
45 FC1 214 -7.039
45 FC1 215 -6.551
45 FC1 216 -4.110
45 FC1 217 -0.203
45 FC1 218 3.215
45 FC1 219 5.656
45 FC1 220 5.656
45 FC1 221 3.703
45 FC1 222 0.773
45 FC1 223 -2.645
45 FC1 224 -5.575
45 FC1 225 -6.551
45 FC1 226 -7.039
45 FC1 227 -5.086
45 FC1 228 -2.645
45 FC1 229 -1.180
45 FC1 230 -1.668
45 FC1 231 -4.598
45 FC1 232 -7.528
45 FC1 233 -9.969
45 FC1 234 -10.457
45 FC1 235 -9.481
45 FC1 236 -7.528
45 FC1 237 -6.063
45 FC1 238 -5.086
45 FC1 239 -4.598
45 FC1 240 -3.621
45 FC1 241 -2.157
45 FC1 242 -0.203
45 FC1 243 1.750
45 FC1 244 2.726
45 FC1 245 3.215
45 FC1 246 2.726
45 FC1 247 1.750
45 FC1 248 0.285
45 FC1 249 -1.180
45 FC1 250 -2.645
45 FC1 251 -3.621
45 FC1 252 -3.621
45 FC1 253 -1.668
45 FC1 254 0.773
45 FC1 255 4.191
# T8 chan 13
45 T8 0 1.567
45 T8 1 2.055
45 T8 2 -0.875
45 T8 3 -4.781
45 T8 4 -5.758
45 T8 5 -2.340
45 T8 6 3.520
45 T8 7 7.426
45 T8 8 8.403
45 T8 9 7.914
45 T8 10 9.867
45 T8 11 13.774
45 T8 12 18.656
45 T8 13 19.145
45 T8 14 14.750
45 T8 15 7.426
45 T8 16 3.031
45 T8 17 3.031
45 T8 18 7.426
45 T8 19 12.797
45 T8 20 14.750
45 T8 21 12.797
45 T8 22 9.379
45 T8 23 8.403
45 T8 24 11.332
45 T8 25 16.703
45 T8 26 22.074
45 T8 27 24.516
45 T8 28 24.028
45 T8 29 22.074
45 T8 30 18.168
45 T8 31 13.285
45 T8 32 6.449
45 T8 33 -0.387
45 T8 34 -3.805
45 T8 35 -1.851
45 T8 36 4.496
45 T8 37 12.309
45 T8 38 16.215
45 T8 39 15.238
45 T8 40 9.867
45 T8 41 4.496
45 T8 42 2.543
45 T8 43 3.520
45 T8 44 6.449
45 T8 45 10.356
45 T8 46 14.262
45 T8 47 17.680
45 T8 48 18.656
45 T8 49 16.215
45 T8 50 8.403
45 T8 51 -0.875
45 T8 52 -8.199
45 T8 53 -8.687
45 T8 54 -3.316
45 T8 55 2.055
45 T8 56 3.031
45 T8 57 -0.875
45 T8 58 -7.711
45 T8 59 -12.105
45 T8 60 -11.129
45 T8 61 -6.734
45 T8 62 -1.851
45 T8 63 0.590
45 T8 64 1.078
45 T8 65 1.078
45 T8 66 1.567
45 T8 67 3.520
45 T8 68 5.473
45 T8 69 7.914
45 T8 70 9.379
45 T8 71 9.379
45 T8 72 6.449
45 T8 73 3.031
45 T8 74 1.078
45 T8 75 2.055
45 T8 76 4.496
45 T8 77 5.961
45 T8 78 3.031
45 T8 79 -3.316
45 T8 80 -10.152
45 T8 81 -13.082
45 T8 82 -11.617
45 T8 83 -8.199
45 T8 84 -6.246
45 T8 85 -5.758
45 T8 86 -4.781
45 T8 87 0.590
45 T8 88 8.403
45 T8 89 15.727
45 T8 90 19.145
45 T8 91 19.145
45 T8 92 17.192
45 T8 93 16.215
45 T8 94 16.703
45 T8 95 15.727
45 T8 96 11.332
45 T8 97 3.520
45 T8 98 -4.781
45 T8 99 -10.152
45 T8 100 -11.129
45 T8 101 -7.711
45 T8 102 -4.293
45 T8 103 -4.293
45 T8 104 -7.222
45 T8 105 -10.640
45 T8 106 -9.664
45 T8 107 -3.316
45 T8 108 4.496
45 T8 109 8.891
45 T8 110 6.938
45 T8 111 0.102
45 T8 112 -4.781
45 T8 113 -3.316
45 T8 114 5.473
45 T8 115 14.750
45 T8 116 18.656
45 T8 117 14.750
45 T8 118 7.426
45 T8 119 1.078
45 T8 120 0.102
45 T8 121 2.055
45 T8 122 3.031
45 T8 123 0.590
45 T8 124 -5.269
45 T8 125 -10.152
45 T8 126 -11.617
45 T8 127 -9.176
45 T8 128 -5.269
45 T8 129 -0.387
45 T8 130 3.031
45 T8 131 5.961
45 T8 132 9.379
45 T8 133 13.285
45 T8 134 18.168
45 T8 135 21.586
45 T8 136 23.051
45 T8 137 21.098
45 T8 138 16.215
45 T8 139 9.867
45 T8 140 5.961
45 T8 141 6.449
45 T8 142 11.332
45 T8 143 16.703
45 T8 144 19.145
45 T8 145 14.750
45 T8 146 4.985
45 T8 147 -6.734
45 T8 148 -15.035
45 T8 149 -16.500
45 T8 150 -11.129
45 T8 151 -0.387
45 T8 152 11.820
45 T8 153 21.098
45 T8 154 24.028
45 T8 155 20.121
45 T8 156 13.285
45 T8 157 8.403
45 T8 158 6.449
45 T8 159 7.426
45 T8 160 7.426
45 T8 161 4.496
45 T8 162 -0.387
45 T8 163 -2.340
45 T8 164 0.102
45 T8 165 5.961
45 T8 166 10.356
45 T8 167 9.379
45 T8 168 4.496
45 T8 169 -0.875
45 T8 170 -1.851
45 T8 171 1.567
45 T8 172 5.473
45 T8 173 7.426
45 T8 174 5.961
45 T8 175 5.961
45 T8 176 9.379
45 T8 177 15.238
45 T8 178 19.145
45 T8 179 18.168
45 T8 180 13.285
45 T8 181 7.426
45 T8 182 5.473
45 T8 183 6.938
45 T8 184 9.867
45 T8 185 10.844
45 T8 186 11.820
45 T8 187 15.238
45 T8 188 24.028
45 T8 189 35.258
45 T8 190 44.047
45 T8 191 45.512
45 T8 192 40.629
45 T8 193 33.793
45 T8 194 30.375
45 T8 195 31.840
45 T8 196 36.235
45 T8 197 39.164
45 T8 198 37.699
45 T8 199 33.305
45 T8 200 27.445
45 T8 201 23.051
45 T8 202 20.610
45 T8 203 19.633
45 T8 204 18.168
45 T8 205 17.192
45 T8 206 16.703
45 T8 207 17.680
45 T8 208 21.098
45 T8 209 25.004
45 T8 210 27.445
45 T8 211 26.469
45 T8 212 22.074
45 T8 213 15.238
45 T8 214 9.867
45 T8 215 9.867
45 T8 216 16.703
45 T8 217 27.934
45 T8 218 37.211
45 T8 219 40.629
45 T8 220 37.699
45 T8 221 31.840
45 T8 222 26.469
45 T8 223 24.516
45 T8 224 24.516
45 T8 225 23.539
45 T8 226 21.586
45 T8 227 20.121
45 T8 228 22.074
45 T8 229 25.981
45 T8 230 29.399
45 T8 231 27.934
45 T8 232 22.074
45 T8 233 15.238
45 T8 234 12.797
45 T8 235 15.238
45 T8 236 19.633
45 T8 237 22.074
45 T8 238 20.121
45 T8 239 16.215
45 T8 240 14.750
45 T8 241 19.145
45 T8 242 26.469
45 T8 243 32.817
45 T8 244 32.328
45 T8 245 25.004
45 T8 246 14.262
45 T8 247 5.473
45 T8 248 2.543
45 T8 249 3.031
45 T8 250 5.473
45 T8 251 6.449
45 T8 252 7.426
45 T8 253 9.379
45 T8 254 12.797
45 T8 255 15.238
# T7 chan 14
45 T7 0 -1.058
45 T7 1 0.895
45 T7 2 0.895
45 T7 3 -1.058
45 T7 4 -3.499
45 T7 5 -3.988
45 T7 6 -3.499
45 T7 7 -2.523
45 T7 8 -3.011
45 T7 9 -3.499
45 T7 10 -2.035
45 T7 11 0.895
45 T7 12 4.801
45 T7 13 6.266
45 T7 14 3.337
45 T7 15 -2.035
45 T7 16 -5.452
45 T7 17 -4.476
45 T7 18 -0.081
45 T7 19 4.801
45 T7 20 6.266
45 T7 21 3.825
45 T7 22 -0.081
45 T7 23 -3.499
45 T7 24 -5.941
45 T7 25 -7.406
45 T7 26 -7.894
45 T7 27 -6.917
45 T7 28 -2.523
45 T7 29 2.848
45 T7 30 7.243
45 T7 31 5.778
45 T7 32 -0.570
45 T7 33 -7.894
45 T7 34 -12.777
45 T7 35 -12.288
45 T7 36 -7.894
45 T7 37 -2.523
45 T7 38 1.383
45 T7 39 1.872
45 T7 40 0.895
45 T7 41 -1.058
45 T7 42 -3.499
45 T7 43 -5.941
45 T7 44 -8.870
45 T7 45 -10.335
45 T7 46 -9.359
45 T7 47 -5.941
45 T7 48 -2.523
45 T7 49 -1.058
45 T7 50 -2.035
45 T7 51 -5.941
45 T7 52 -9.847
45 T7 53 -11.800
45 T7 54 -12.288
45 T7 55 -11.312
45 T7 56 -9.359
45 T7 57 -7.894
45 T7 58 -6.917
45 T7 59 -6.917
45 T7 60 -7.894
45 T7 61 -9.359
45 T7 62 -10.335
45 T7 63 -10.824
45 T7 64 -10.335
45 T7 65 -9.847
45 T7 66 -9.359
45 T7 67 -8.870
45 T7 68 -7.894
45 T7 69 -5.941
45 T7 70 -3.499
45 T7 71 -2.523
45 T7 72 -4.964
45 T7 73 -8.382
45 T7 74 -11.800
45 T7 75 -12.288
45 T7 76 -9.847
45 T7 77 -5.941
45 T7 78 -4.476
45 T7 79 -5.941
45 T7 80 -10.824
45 T7 81 -15.706
45 T7 82 -17.171
45 T7 83 -13.753
45 T7 84 -8.382
45 T7 85 -3.499
45 T7 86 -2.523
45 T7 87 -5.452
45 T7 88 -9.359
45 T7 89 -10.335
45 T7 90 -7.406
45 T7 91 -2.035
45 T7 92 2.848
45 T7 93 2.848
45 T7 94 -1.546
45 T7 95 -7.406
45 T7 96 -11.312
45 T7 97 -11.312
45 T7 98 -8.870
45 T7 99 -6.429
45 T7 100 -5.941
45 T7 101 -7.406
45 T7 102 -8.382
45 T7 103 -8.870
45 T7 104 -6.917
45 T7 105 -4.964
45 T7 106 -3.988
45 T7 107 -3.988
45 T7 108 -4.964
45 T7 109 -6.429
45 T7 110 -7.406
45 T7 111 -7.406
45 T7 112 -6.917
45 T7 113 -6.429
45 T7 114 -5.941
45 T7 115 -6.917
45 T7 116 -8.870
45 T7 117 -11.312
45 T7 118 -12.777
45 T7 119 -12.288
45 T7 120 -10.335
45 T7 121 -7.406
45 T7 122 -5.941
45 T7 123 -5.941
45 T7 124 -6.917
45 T7 125 -5.941
45 T7 126 -3.988
45 T7 127 -1.546
45 T7 128 -0.570
45 T7 129 -2.035
45 T7 130 -5.941
45 T7 131 -9.359
45 T7 132 -9.359
45 T7 133 -5.941
45 T7 134 -1.058
45 T7 135 3.825
45 T7 136 7.731
45 T7 137 9.684
45 T7 138 9.196
45 T7 139 5.290
45 T7 140 -0.570
45 T7 141 -7.406
45 T7 142 -11.800
45 T7 143 -12.777
45 T7 144 -11.800
45 T7 145 -10.824
45 T7 146 -11.800
45 T7 147 -13.753
45 T7 148 -15.706
45 T7 149 -14.730
45 T7 150 -11.800
45 T7 151 -7.406
45 T7 152 -3.988
45 T7 153 -2.035
45 T7 154 -0.570
45 T7 155 0.895
45 T7 156 1.872
45 T7 157 1.383
45 T7 158 -0.570
45 T7 159 -3.011
45 T7 160 -3.988
45 T7 161 -3.011
45 T7 162 -1.058
45 T7 163 -0.081
45 T7 164 -1.546
45 T7 165 -3.988
45 T7 166 -5.941
45 T7 167 -4.476
45 T7 168 -1.058
45 T7 169 2.360
45 T7 170 4.313
45 T7 171 4.801
45 T7 172 4.801
45 T7 173 4.801
45 T7 174 5.290
45 T7 175 4.801
45 T7 176 3.825
45 T7 177 3.825
45 T7 178 6.266
45 T7 179 10.173
45 T7 180 13.590
45 T7 181 13.590
45 T7 182 11.149
45 T7 183 8.219
45 T7 184 6.266
45 T7 185 5.778
45 T7 186 4.313
45 T7 187 1.872
45 T7 188 -1.058
45 T7 189 -1.058
45 T7 190 2.848
45 T7 191 8.219
45 T7 192 11.149
45 T7 193 8.219
45 T7 194 0.895
45 T7 195 -4.964
45 T7 196 -3.988
45 T7 197 3.825
45 T7 198 14.079
45 T7 199 19.450
45 T7 200 17.008
45 T7 201 8.219
45 T7 202 -0.570
45 T7 203 -3.988
45 T7 204 -2.035
45 T7 205 1.872
45 T7 206 3.825
45 T7 207 1.872
45 T7 208 -2.035
45 T7 209 -4.476
45 T7 210 -3.988
45 T7 211 -2.523
45 T7 212 -2.035
45 T7 213 -3.011
45 T7 214 -3.988
45 T7 215 -1.058
45 T7 216 6.755
45 T7 217 17.497
45 T7 218 25.309
45 T7 219 26.286
45 T7 220 19.450
45 T7 221 9.684
45 T7 222 3.337
45 T7 223 1.872
45 T7 224 4.801
45 T7 225 8.219
45 T7 226 8.708
45 T7 227 6.755
45 T7 228 3.337
45 T7 229 0.407
45 T7 230 -2.035
45 T7 231 -3.988
45 T7 232 -5.452
45 T7 233 -5.452
45 T7 234 -2.523
45 T7 235 2.848
45 T7 236 7.731
45 T7 237 10.661
45 T7 238 11.149
45 T7 239 11.149
45 T7 240 11.637
45 T7 241 12.614
45 T7 242 12.614
45 T7 243 10.661
45 T7 244 7.243
45 T7 245 4.801
45 T7 246 3.337
45 T7 247 2.848
45 T7 248 0.895
45 T7 249 -2.523
45 T7 250 -5.941
45 T7 251 -6.429
45 T7 252 -4.476
45 T7 253 -0.081
45 T7 254 2.360
45 T7 255 0.895
# CZ chan 15
45 CZ 0 6.968
45 CZ 1 -2.309
45 CZ 2 -6.215
45 CZ 3 -2.797
45 CZ 4 2.574
45 CZ 5 5.992
45 CZ 6 4.527
45 CZ 7 1.597
45 CZ 8 2.085
45 CZ 9 7.456
45 CZ 10 15.757
45 CZ 11 21.128
45 CZ 12 20.152
45 CZ 13 13.804
45 CZ 14 6.480
45 CZ 15 1.109
45 CZ 16 -1.821
45 CZ 17 -3.286
45 CZ 18 -3.774
45 CZ 19 -1.821
45 CZ 20 4.038
45 CZ 21 10.874
45 CZ 22 14.292
45 CZ 23 10.874
45 CZ 24 2.085
45 CZ 25 -6.215
45 CZ 26 -8.657
45 CZ 27 -2.797
45 CZ 28 6.968
45 CZ 29 11.851
45 CZ 30 7.945
45 CZ 31 -4.262
45 CZ 32 -16.958
45 CZ 33 -23.305
45 CZ 34 -21.352
45 CZ 35 -12.563
45 CZ 36 -2.797
45 CZ 37 3.062
45 CZ 38 4.527
45 CZ 39 1.597
45 CZ 40 -1.821
45 CZ 41 -5.727
45 CZ 42 -9.145
45 CZ 43 -11.587
45 CZ 44 -11.587
45 CZ 45 -7.680
45 CZ 46 -0.356
45 CZ 47 6.480
45 CZ 48 9.898
45 CZ 49 6.480
45 CZ 50 -2.797
45 CZ 51 -12.563
45 CZ 52 -18.911
45 CZ 53 -19.887
45 CZ 54 -17.446
45 CZ 55 -14.028
45 CZ 56 -12.075
45 CZ 57 -13.051
45 CZ 58 -15.493
45 CZ 59 -19.887
45 CZ 60 -26.235
45 CZ 61 -32.094
45 CZ 62 -34.536
45 CZ 63 -30.629
45 CZ 64 -20.376
45 CZ 65 -9.145
45 CZ 66 -3.286
45 CZ 67 -6.215
45 CZ 68 -15.004
45 CZ 69 -23.305
45 CZ 70 -25.747
45 CZ 71 -22.329
45 CZ 72 -16.958
45 CZ 73 -13.540
45 CZ 74 -12.563
45 CZ 75 -11.098
45 CZ 76 -7.192
45 CZ 77 -2.309
45 CZ 78 -0.356
45 CZ 79 -4.751
45 CZ 80 -14.516
45 CZ 81 -24.282
45 CZ 82 -27.700
45 CZ 83 -23.794
45 CZ 84 -15.004
45 CZ 85 -6.704
45 CZ 86 -0.844
45 CZ 87 1.109
45 CZ 88 0.621
45 CZ 89 -1.333
45 CZ 90 -4.751
45 CZ 91 -8.657
45 CZ 92 -10.610
45 CZ 93 -8.169
45 CZ 94 -2.309
45 CZ 95 4.527
45 CZ 96 8.433
45 CZ 97 6.968
45 CZ 98 1.597
45 CZ 99 -4.262
45 CZ 100 -8.657
45 CZ 101 -11.098
45 CZ 102 -12.563
45 CZ 103 -15.493
45 CZ 104 -18.422
45 CZ 105 -19.399
45 CZ 106 -16.958
45 CZ 107 -10.122
45 CZ 108 -2.797
45 CZ 109 3.062
45 CZ 110 4.038
45 CZ 111 0.621
45 CZ 112 -5.239
45 CZ 113 -10.610
45 CZ 114 -13.540
45 CZ 115 -12.075
45 CZ 116 -7.680
45 CZ 117 -2.309
45 CZ 118 0.132
45 CZ 119 -0.844
45 CZ 120 -6.215
45 CZ 121 -13.051
45 CZ 122 -18.911
45 CZ 123 -22.817
45 CZ 124 -25.258
45 CZ 125 -26.235
45 CZ 126 -26.723
45 CZ 127 -26.235
45 CZ 128 -24.282
45 CZ 129 -20.864
45 CZ 130 -17.446
45 CZ 131 -15.004
45 CZ 132 -12.563
45 CZ 133 -10.610
45 CZ 134 -8.169
45 CZ 135 -5.727
45 CZ 136 -4.751
45 CZ 137 -5.727
45 CZ 138 -8.657
45 CZ 139 -12.075
45 CZ 140 -14.028
45 CZ 141 -14.028
45 CZ 142 -13.051
45 CZ 143 -12.563
45 CZ 144 -13.540
45 CZ 145 -16.469
45 CZ 146 -21.352
45 CZ 147 -27.700
45 CZ 148 -33.559
45 CZ 149 -36.977
45 CZ 150 -35.024
45 CZ 151 -26.723
45 CZ 152 -14.516
45 CZ 153 -3.774
45 CZ 154 1.597
45 CZ 155 -1.333
45 CZ 156 -10.122
45 CZ 157 -18.911
45 CZ 158 -24.770
45 CZ 159 -25.747
45 CZ 160 -22.329
45 CZ 161 -15.981
45 CZ 162 -9.633
45 CZ 163 -4.751
45 CZ 164 -3.774
45 CZ 165 -7.192
45 CZ 166 -14.028
45 CZ 167 -20.376
45 CZ 168 -23.305
45 CZ 169 -22.329
45 CZ 170 -17.934
45 CZ 171 -12.075
45 CZ 172 -6.704
45 CZ 173 -3.774
45 CZ 174 -3.286
45 CZ 175 -3.774
45 CZ 176 -4.262
45 CZ 177 -3.774
45 CZ 178 -2.797
45 CZ 179 -2.797
45 CZ 180 -6.215
45 CZ 181 -10.610
45 CZ 182 -14.028
45 CZ 183 -13.540
45 CZ 184 -10.122
45 CZ 185 -7.680
45 CZ 186 -9.145
45 CZ 187 -15.004
45 CZ 188 -21.352
45 CZ 189 -21.840
45 CZ 190 -15.493
45 CZ 191 -5.727
45 CZ 192 0.621
45 CZ 193 1.109
45 CZ 194 -1.821
45 CZ 195 -2.797
45 CZ 196 1.597
45 CZ 197 8.433
45 CZ 198 11.363
45 CZ 199 5.992
45 CZ 200 -6.704
45 CZ 201 -17.934
45 CZ 202 -21.352
45 CZ 203 -15.981
45 CZ 204 -7.192
45 CZ 205 -2.309
45 CZ 206 -5.727
45 CZ 207 -15.004
45 CZ 208 -23.305
45 CZ 209 -24.770
45 CZ 210 -18.911
45 CZ 211 -10.122
45 CZ 212 -6.215
45 CZ 213 -9.145
45 CZ 214 -16.958
45 CZ 215 -23.305
45 CZ 216 -23.794
45 CZ 217 -17.934
45 CZ 218 -9.633
45 CZ 219 -4.262
45 CZ 220 -3.774
45 CZ 221 -6.704
45 CZ 222 -10.122
45 CZ 223 -13.540
45 CZ 224 -15.004
45 CZ 225 -14.516
45 CZ 226 -11.587
45 CZ 227 -4.751
45 CZ 228 2.574
45 CZ 229 6.968
45 CZ 230 2.085
45 CZ 231 -11.587
45 CZ 232 -27.700
45 CZ 233 -37.465
45 CZ 234 -36.489
45 CZ 235 -27.212
45 CZ 236 -16.469
45 CZ 237 -10.122
45 CZ 238 -11.098
45 CZ 239 -15.004
45 CZ 240 -15.981
45 CZ 241 -12.075
45 CZ 242 -6.704
45 CZ 243 -4.751
45 CZ 244 -10.122
45 CZ 245 -20.376
45 CZ 246 -31.118
45 CZ 247 -38.442
45 CZ 248 -39.419
45 CZ 249 -36.489
45 CZ 250 -32.583
45 CZ 251 -28.676
45 CZ 252 -24.282
45 CZ 253 -20.376
45 CZ 254 -16.469
45 CZ 255 -15.493
# C3 chan 16
45 C3 0 -0.905
45 C3 1 -0.417
45 C3 2 -0.417
45 C3 3 -1.394
45 C3 4 -2.370
45 C3 5 -2.370
45 C3 6 -1.394
45 C3 7 -0.417
45 C3 8 -0.417
45 C3 9 -1.394
45 C3 10 -2.858
45 C3 11 -3.835
45 C3 12 -2.858
45 C3 13 -1.882
45 C3 14 -0.905
45 C3 15 0.071
45 C3 16 0.071
45 C3 17 0.071
45 C3 18 0.559
45 C3 19 1.536
45 C3 20 2.513
45 C3 21 2.513
45 C3 22 1.536
45 C3 23 -0.417
45 C3 24 -2.370
45 C3 25 -4.323
45 C3 26 -5.300
45 C3 27 -4.812
45 C3 28 -2.370
45 C3 29 1.536
45 C3 30 4.954
45 C3 31 5.442
45 C3 32 2.513
45 C3 33 -2.370
45 C3 34 -6.276
45 C3 35 -6.765
45 C3 36 -4.323
45 C3 37 0.559
45 C3 38 3.977
45 C3 39 5.442
45 C3 40 4.466
45 C3 41 2.513
45 C3 42 0.559
45 C3 43 -1.394
45 C3 44 -2.858
45 C3 45 -3.835
45 C3 46 -3.835
45 C3 47 -2.858
45 C3 48 -0.905
45 C3 49 0.071
45 C3 50 -0.905
45 C3 51 -2.370
45 C3 52 -4.323
45 C3 53 -5.300
45 C3 54 -4.323
45 C3 55 -1.882
45 C3 56 0.559
45 C3 57 2.024
45 C3 58 2.513
45 C3 59 1.536
45 C3 60 0.559
45 C3 61 -0.417
45 C3 62 -1.394
45 C3 63 -0.905
45 C3 64 -0.417
45 C3 65 0.559
45 C3 66 1.048
45 C3 67 1.536
45 C3 68 2.024
45 C3 69 2.513
45 C3 70 3.001
45 C3 71 3.001
45 C3 72 2.513
45 C3 73 2.024
45 C3 74 2.024
45 C3 75 2.513
45 C3 76 3.489
45 C3 77 4.954
45 C3 78 5.931
45 C3 79 5.931
45 C3 80 5.442
45 C3 81 4.466
45 C3 82 3.977
45 C3 83 4.466
45 C3 84 4.954
45 C3 85 4.466
45 C3 86 3.977
45 C3 87 3.489
45 C3 88 3.001
45 C3 89 3.489
45 C3 90 4.954
45 C3 91 6.419
45 C3 92 6.907
45 C3 93 6.907
45 C3 94 6.419
45 C3 95 5.442
45 C3 96 4.954
45 C3 97 4.466
45 C3 98 4.466
45 C3 99 4.954
45 C3 100 4.954
45 C3 101 5.442
45 C3 102 4.954
45 C3 103 4.466
45 C3 104 3.489
45 C3 105 2.024
45 C3 106 1.536
45 C3 107 2.024
45 C3 108 3.001
45 C3 109 3.001
45 C3 110 1.536
45 C3 111 -0.417
45 C3 112 -1.394
45 C3 113 -0.417
45 C3 114 1.536
45 C3 115 3.001
45 C3 116 3.001
45 C3 117 1.048
45 C3 118 -1.394
45 C3 119 -2.858
45 C3 120 -2.370
45 C3 121 0.071
45 C3 122 2.513
45 C3 123 3.977
45 C3 124 4.954
45 C3 125 5.442
45 C3 126 5.442
45 C3 127 5.931
45 C3 128 6.419
45 C3 129 5.931
45 C3 130 4.954
45 C3 131 3.977
45 C3 132 3.001
45 C3 133 3.001
45 C3 134 3.977
45 C3 135 4.954
45 C3 136 6.419
45 C3 137 7.395
45 C3 138 7.884
45 C3 139 6.419
45 C3 140 3.489
45 C3 141 0.071
45 C3 142 -2.370
45 C3 143 -3.835
45 C3 144 -2.858
45 C3 145 -2.370
45 C3 146 -1.394
45 C3 147 -1.882
45 C3 148 -3.347
45 C3 149 -5.300
45 C3 150 -6.765
45 C3 151 -6.765
45 C3 152 -5.788
45 C3 153 -2.858
45 C3 154 0.559
45 C3 155 3.001
45 C3 156 3.489
45 C3 157 1.536
45 C3 158 -0.905
45 C3 159 -2.370
45 C3 160 -1.394
45 C3 161 1.536
45 C3 162 3.977
45 C3 163 4.466
45 C3 164 3.001
45 C3 165 0.559
45 C3 166 -1.394
45 C3 167 -1.394
45 C3 168 0.559
45 C3 169 2.513
45 C3 170 4.466
45 C3 171 4.954
45 C3 172 4.954
45 C3 173 4.954
45 C3 174 4.466
45 C3 175 4.466
45 C3 176 4.466
45 C3 177 4.954
45 C3 178 5.931
45 C3 179 7.395
45 C3 180 7.884
45 C3 181 6.907
45 C3 182 5.442
45 C3 183 3.001
45 C3 184 1.048
45 C3 185 -0.417
45 C3 186 -0.905
45 C3 187 -0.905
45 C3 188 -1.394
45 C3 189 -1.394
45 C3 190 -1.394
45 C3 191 -1.394
45 C3 192 -1.394
45 C3 193 -2.370
45 C3 194 -3.835
45 C3 195 -4.323
45 C3 196 -3.347
45 C3 197 0.071
45 C3 198 3.977
45 C3 199 6.907
45 C3 200 6.419
45 C3 201 4.466
45 C3 202 1.048
45 C3 203 -1.394
45 C3 204 -1.882
45 C3 205 -1.882
45 C3 206 -2.370
45 C3 207 -3.835
45 C3 208 -5.300
45 C3 209 -5.300
45 C3 210 -4.812
45 C3 211 -4.323
45 C3 212 -4.812
45 C3 213 -6.276
45 C3 214 -7.741
45 C3 215 -6.765
45 C3 216 -2.370
45 C3 217 3.977
45 C3 218 9.349
45 C3 219 11.302
45 C3 220 10.325
45 C3 221 6.907
45 C3 222 3.977
45 C3 223 2.024
45 C3 224 1.048
45 C3 225 0.559
45 C3 226 -0.905
45 C3 227 -2.370
45 C3 228 -3.835
45 C3 229 -5.300
45 C3 230 -6.765
45 C3 231 -8.230
45 C3 232 -9.206
45 C3 233 -8.718
45 C3 234 -5.788
45 C3 235 -1.882
45 C3 236 3.001
45 C3 237 5.442
45 C3 238 6.419
45 C3 239 5.442
45 C3 240 4.466
45 C3 241 4.466
45 C3 242 5.442
45 C3 243 6.419
45 C3 244 7.395
45 C3 245 6.907
45 C3 246 5.442
45 C3 247 2.024
45 C3 248 -1.882
45 C3 249 -6.276
45 C3 250 -8.718
45 C3 251 -9.694
45 C3 252 -8.230
45 C3 253 -6.276
45 C3 254 -4.323
45 C3 255 -2.370
# C4 chan 17
45 C4 0 -6.165
45 C4 1 -5.188
45 C4 2 -1.770
45 C4 3 0.671
45 C4 4 2.625
45 C4 5 2.625
45 C4 6 2.136
45 C4 7 2.625
45 C4 8 3.601
45 C4 9 5.554
45 C4 10 6.531
45 C4 11 7.019
45 C4 12 6.531
45 C4 13 6.042
45 C4 14 4.578
45 C4 15 2.136
45 C4 16 -1.770
45 C4 17 -6.165
45 C4 18 -9.583
45 C4 19 -10.071
45 C4 20 -6.165
45 C4 21 0.183
45 C4 22 6.042
45 C4 23 9.460
45 C4 24 7.996
45 C4 25 5.066
45 C4 26 2.625
45 C4 27 3.601
45 C4 28 7.019
45 C4 29 10.437
45 C4 30 11.902
45 C4 31 8.972
45 C4 32 3.601
45 C4 33 -2.258
45 C4 34 -6.653
45 C4 35 -9.094
45 C4 36 -9.094
45 C4 37 -8.118
45 C4 38 -5.188
45 C4 39 -1.770
45 C4 40 1.648
45 C4 41 3.601
45 C4 42 3.113
45 C4 43 0.671
45 C4 44 -1.770
45 C4 45 -0.793
45 C4 46 3.601
45 C4 47 9.460
45 C4 48 14.343
45 C4 49 14.832
45 C4 50 11.414
45 C4 51 6.531
45 C4 52 2.136
45 C4 53 0.183
45 C4 54 -0.793
45 C4 55 -2.258
45 C4 56 -5.676
45 C4 57 -10.559
45 C4 58 -13.000
45 C4 59 -13.000
45 C4 60 -9.094
45 C4 61 -3.723
45 C4 62 2.136
45 C4 63 5.554
45 C4 64 7.996
45 C4 65 10.437
45 C4 66 13.367
45 C4 67 15.320
45 C4 68 15.808
45 C4 69 14.343
45 C4 70 12.390
45 C4 71 10.925
45 C4 72 10.925
45 C4 73 10.437
45 C4 74 8.484
45 C4 75 4.578
45 C4 76 -0.305
45 C4 77 -4.211
45 C4 78 -6.165
45 C4 79 -5.676
45 C4 80 -5.188
45 C4 81 -4.700
45 C4 82 -4.700
45 C4 83 -3.723
45 C4 84 -0.305
45 C4 85 4.578
45 C4 86 9.460
45 C4 87 13.367
45 C4 88 16.296
45 C4 89 18.250
45 C4 90 19.226
45 C4 91 19.714
45 C4 92 19.226
45 C4 93 16.785
45 C4 94 13.855
45 C4 95 10.437
45 C4 96 6.531
45 C4 97 2.625
45 C4 98 -1.770
45 C4 99 -6.165
45 C4 100 -8.606
45 C4 101 -8.606
45 C4 102 -5.188
45 C4 103 -0.305
45 C4 104 4.089
45 C4 105 6.042
45 C4 106 5.066
45 C4 107 3.113
45 C4 108 2.625
45 C4 109 4.578
45 C4 110 9.460
45 C4 111 13.367
45 C4 112 14.832
45 C4 113 13.367
45 C4 114 10.437
45 C4 115 7.996
45 C4 116 7.507
45 C4 117 7.996
45 C4 118 7.019
45 C4 119 5.066
45 C4 120 2.625
45 C4 121 0.183
45 C4 122 -0.793
45 C4 123 -1.770
45 C4 124 -2.747
45 C4 125 -3.235
45 C4 126 -2.258
45 C4 127 0.183
45 C4 128 3.601
45 C4 129 7.019
45 C4 130 7.996
45 C4 131 8.484
45 C4 132 8.972
45 C4 133 10.925
45 C4 134 13.367
45 C4 135 14.832
45 C4 136 14.343
45 C4 137 11.902
45 C4 138 8.484
45 C4 139 5.066
45 C4 140 2.625
45 C4 141 0.183
45 C4 142 -1.770
45 C4 143 -3.723
45 C4 144 -3.235
45 C4 145 -1.282
45 C4 146 1.648
45 C4 147 4.089
45 C4 148 4.578
45 C4 149 4.578
45 C4 150 5.554
45 C4 151 7.996
45 C4 152 11.414
45 C4 153 13.367
45 C4 154 12.878
45 C4 155 10.925
45 C4 156 8.484
45 C4 157 7.019
45 C4 158 6.042
45 C4 159 4.089
45 C4 160 1.648
45 C4 161 -0.305
45 C4 162 -0.793
45 C4 163 -0.305
45 C4 164 0.671
45 C4 165 -0.305
45 C4 166 -2.258
45 C4 167 -3.235
45 C4 168 -1.770
45 C4 169 3.113
45 C4 170 7.996
45 C4 171 10.925
45 C4 172 10.925
45 C4 173 8.972
45 C4 174 7.507
45 C4 175 7.996
45 C4 176 9.460
45 C4 177 9.949
45 C4 178 7.996
45 C4 179 4.578
45 C4 180 2.625
45 C4 181 2.625
45 C4 182 4.089
45 C4 183 6.042
45 C4 184 6.042
45 C4 185 4.578
45 C4 186 2.625
45 C4 187 2.625
45 C4 188 5.066
45 C4 189 8.484
45 C4 190 11.414
45 C4 191 12.390
45 C4 192 11.414
45 C4 193 10.437
45 C4 194 10.437
45 C4 195 10.437
45 C4 196 10.925
45 C4 197 9.460
45 C4 198 7.019
45 C4 199 4.578
45 C4 200 3.601
45 C4 201 4.089
45 C4 202 4.578
45 C4 203 4.578
45 C4 204 3.113
45 C4 205 2.136
45 C4 206 3.113
45 C4 207 5.066
45 C4 208 7.507
45 C4 209 7.507
45 C4 210 6.042
45 C4 211 4.089
45 C4 212 3.601
45 C4 213 5.066
45 C4 214 7.507
45 C4 215 7.996
45 C4 216 6.531
45 C4 217 4.089
45 C4 218 3.601
45 C4 219 4.578
45 C4 220 5.554
45 C4 221 4.578
45 C4 222 1.160
45 C4 223 -2.747
45 C4 224 -3.723
45 C4 225 -1.770
45 C4 226 1.648
45 C4 227 3.601
45 C4 228 3.113
45 C4 229 1.160
45 C4 230 0.671
45 C4 231 2.625
45 C4 232 5.554
45 C4 233 7.507
45 C4 234 6.042
45 C4 235 3.113
45 C4 236 1.648
45 C4 237 3.113
45 C4 238 6.042
45 C4 239 7.507
45 C4 240 6.042
45 C4 241 1.648
45 C4 242 -2.258
45 C4 243 -3.723
45 C4 244 -2.258
45 C4 245 -2.258
45 C4 246 -4.211
45 C4 247 -9.094
45 C4 248 -12.512
45 C4 249 -12.024
45 C4 250 -7.629
45 C4 251 -3.235
45 C4 252 -2.258
45 C4 253 -5.676
45 C4 254 -11.047
45 C4 255 -13.489
# CP5 chan 18
45 CP5 0 -3.367
45 CP5 1 -1.902
45 CP5 2 -0.926
45 CP5 3 -0.926
45 CP5 4 -0.926
45 CP5 5 -0.926
45 CP5 6 0.051
45 CP5 7 1.516
45 CP5 8 2.492
45 CP5 9 1.516
45 CP5 10 0.051
45 CP5 11 -1.902
45 CP5 12 -1.902
45 CP5 13 -1.414
45 CP5 14 -1.414
45 CP5 15 -2.391
45 CP5 16 -2.879
45 CP5 17 -2.391
45 CP5 18 -0.926
45 CP5 19 1.027
45 CP5 20 2.492
45 CP5 21 2.492
45 CP5 22 1.027
45 CP5 23 -1.414
45 CP5 24 -3.855
45 CP5 25 -6.297
45 CP5 26 -8.250
45 CP5 27 -8.250
45 CP5 28 -6.297
45 CP5 29 -2.391
45 CP5 30 1.027
45 CP5 31 2.004
45 CP5 32 -0.926
45 CP5 33 -6.785
45 CP5 34 -12.156
45 CP5 35 -14.109
45 CP5 36 -11.668
45 CP5 37 -7.273
45 CP5 38 -3.367
45 CP5 39 -1.902
45 CP5 40 -3.367
45 CP5 41 -6.297
45 CP5 42 -9.715
45 CP5 43 -12.644
45 CP5 44 -14.109
45 CP5 45 -14.109
45 CP5 46 -13.133
45 CP5 47 -10.691
45 CP5 48 -8.250
45 CP5 49 -6.297
45 CP5 50 -5.809
45 CP5 51 -7.762
45 CP5 52 -11.180
45 CP5 53 -14.109
45 CP5 54 -15.574
45 CP5 55 -15.086
45 CP5 56 -13.133
45 CP5 57 -10.691
45 CP5 58 -9.715
45 CP5 59 -10.203
45 CP5 60 -11.668
45 CP5 61 -13.133
45 CP5 62 -14.109
45 CP5 63 -14.109
45 CP5 64 -13.621
45 CP5 65 -12.644
45 CP5 66 -11.180
45 CP5 67 -9.715
45 CP5 68 -8.250
45 CP5 69 -7.762
45 CP5 70 -8.250
45 CP5 71 -9.715
45 CP5 72 -12.644
45 CP5 73 -15.086
45 CP5 74 -16.551
45 CP5 75 -16.551
45 CP5 76 -15.574
45 CP5 77 -14.109
45 CP5 78 -14.598
45 CP5 79 -16.551
45 CP5 80 -19.480
45 CP5 81 -21.434
45 CP5 82 -21.434
45 CP5 83 -19.480
45 CP5 84 -17.527
45 CP5 85 -16.551
45 CP5 86 -16.551
45 CP5 87 -17.039
45 CP5 88 -17.039
45 CP5 89 -15.574
45 CP5 90 -12.644
45 CP5 91 -9.715
45 CP5 92 -7.762
45 CP5 93 -7.762
45 CP5 94 -9.226
45 CP5 95 -11.180
45 CP5 96 -13.133
45 CP5 97 -15.086
45 CP5 98 -15.574
45 CP5 99 -16.062
45 CP5 100 -15.086
45 CP5 101 -14.109
45 CP5 102 -13.621
45 CP5 103 -15.086
45 CP5 104 -17.527
45 CP5 105 -19.480
45 CP5 106 -19.969
45 CP5 107 -18.016
45 CP5 108 -15.086
45 CP5 109 -13.133
45 CP5 110 -13.621
45 CP5 111 -16.062
45 CP5 112 -17.527
45 CP5 113 -17.039
45 CP5 114 -14.109
45 CP5 115 -11.668
45 CP5 116 -11.180
45 CP5 117 -13.621
45 CP5 118 -17.527
45 CP5 119 -20.457
45 CP5 120 -20.457
45 CP5 121 -18.992
45 CP5 122 -17.039
45 CP5 123 -15.574
45 CP5 124 -14.598
45 CP5 125 -13.621
45 CP5 126 -11.668
45 CP5 127 -8.738
45 CP5 128 -7.273
45 CP5 129 -7.273
45 CP5 130 -8.738
45 CP5 131 -10.691
45 CP5 132 -11.668
45 CP5 133 -10.691
45 CP5 134 -9.226
45 CP5 135 -7.762
45 CP5 136 -6.297
45 CP5 137 -5.809
45 CP5 138 -6.297
45 CP5 139 -8.738
45 CP5 140 -11.668
45 CP5 141 -16.551
45 CP5 142 -20.945
45 CP5 143 -23.387
45 CP5 144 -23.387
45 CP5 145 -21.434
45 CP5 146 -19.480
45 CP5 147 -18.992
45 CP5 148 -18.992
45 CP5 149 -19.480
45 CP5 150 -19.969
45 CP5 151 -19.480
45 CP5 152 -17.527
45 CP5 153 -14.598
45 CP5 154 -11.668
45 CP5 155 -10.203
45 CP5 156 -10.203
45 CP5 157 -11.668
45 CP5 158 -13.621
45 CP5 159 -14.109
45 CP5 160 -12.644
45 CP5 161 -10.691
45 CP5 162 -8.738
45 CP5 163 -9.226
45 CP5 164 -11.180
45 CP5 165 -13.133
45 CP5 166 -13.621
45 CP5 167 -13.133
45 CP5 168 -10.691
45 CP5 169 -8.250
45 CP5 170 -6.785
45 CP5 171 -5.809
45 CP5 172 -5.809
45 CP5 173 -6.297
45 CP5 174 -7.273
45 CP5 175 -8.250
45 CP5 176 -9.226
45 CP5 177 -8.250
45 CP5 178 -6.297
45 CP5 179 -3.855
45 CP5 180 -1.902
45 CP5 181 -1.902
45 CP5 182 -4.344
45 CP5 183 -7.762
45 CP5 184 -11.180
45 CP5 185 -12.644
45 CP5 186 -12.156
45 CP5 187 -10.203
45 CP5 188 -7.762
45 CP5 189 -6.297
45 CP5 190 -5.809
45 CP5 191 -6.297
45 CP5 192 -7.273
45 CP5 193 -8.250
45 CP5 194 -9.226
45 CP5 195 -8.250
45 CP5 196 -6.297
45 CP5 197 -2.879
45 CP5 198 0.051
45 CP5 199 1.027
45 CP5 200 -0.437
45 CP5 201 -3.367
45 CP5 202 -6.297
45 CP5 203 -8.250
45 CP5 204 -8.250
45 CP5 205 -7.762
45 CP5 206 -7.273
45 CP5 207 -8.250
45 CP5 208 -10.203
45 CP5 209 -11.180
45 CP5 210 -11.668
45 CP5 211 -12.644
45 CP5 212 -13.621
45 CP5 213 -15.574
45 CP5 214 -16.551
45 CP5 215 -14.109
45 CP5 216 -8.250
45 CP5 217 -1.414
45 CP5 218 3.957
45 CP5 219 5.422
45 CP5 220 2.004
45 CP5 221 -2.879
45 CP5 222 -7.273
45 CP5 223 -9.226
45 CP5 224 -8.738
45 CP5 225 -7.762
45 CP5 226 -7.762
45 CP5 227 -10.203
45 CP5 228 -14.109
45 CP5 229 -18.504
45 CP5 230 -21.922
45 CP5 231 -24.851
45 CP5 232 -25.828
45 CP5 233 -24.851
45 CP5 234 -21.922
45 CP5 235 -17.527
45 CP5 236 -12.156
45 CP5 237 -7.273
45 CP5 238 -4.344
45 CP5 239 -2.879
45 CP5 240 -3.367
45 CP5 241 -3.855
45 CP5 242 -5.320
45 CP5 243 -6.785
45 CP5 244 -8.250
45 CP5 245 -9.715
45 CP5 246 -11.668
45 CP5 247 -14.598
45 CP5 248 -18.016
45 CP5 249 -21.434
45 CP5 250 -24.363
45 CP5 251 -25.340
45 CP5 252 -25.340
45 CP5 253 -24.851
45 CP5 254 -24.363
45 CP5 255 -25.340
# CP6 chan 19
45 CP6 0 -6.866
45 CP6 1 -6.378
45 CP6 2 -3.937
45 CP6 3 -0.031
45 CP6 4 2.899
45 CP6 5 4.364
45 CP6 6 4.364
45 CP6 7 3.876
45 CP6 8 4.364
45 CP6 9 5.829
45 CP6 10 7.782
45 CP6 11 9.735
45 CP6 12 11.200
45 CP6 13 12.177
45 CP6 14 12.177
45 CP6 15 10.712
45 CP6 16 7.294
45 CP6 17 1.923
45 CP6 18 -3.448
45 CP6 19 -5.402
45 CP6 20 -1.984
45 CP6 21 5.829
45 CP6 22 13.153
45 CP6 23 16.571
45 CP6 24 14.130
45 CP6 25 8.270
45 CP6 26 3.876
45 CP6 27 5.341
45 CP6 28 11.200
45 CP6 29 19.012
45 CP6 30 22.919
45 CP6 31 19.989
45 CP6 32 12.665
45 CP6 33 3.876
45 CP6 34 -3.448
45 CP6 35 -7.355
45 CP6 36 -7.355
45 CP6 37 -4.425
45 CP6 38 -0.031
45 CP6 39 4.364
45 CP6 40 6.805
45 CP6 41 6.317
45 CP6 42 2.899
45 CP6 43 -1.495
45 CP6 44 -2.960
45 CP6 45 -1.007
45 CP6 46 4.852
45 CP6 47 11.688
45 CP6 48 15.594
45 CP6 49 15.594
45 CP6 50 10.223
45 CP6 51 3.387
45 CP6 52 -2.960
45 CP6 53 -7.355
45 CP6 54 -8.331
45 CP6 55 -7.355
45 CP6 56 -5.402
45 CP6 57 -4.913
45 CP6 58 -6.378
45 CP6 59 -8.331
45 CP6 60 -9.308
45 CP6 61 -7.355
45 CP6 62 -2.960
45 CP6 63 2.411
45 CP6 64 7.294
45 CP6 65 10.223
45 CP6 66 12.665
45 CP6 67 14.130
45 CP6 68 14.618
45 CP6 69 14.130
45 CP6 70 13.153
45 CP6 71 11.688
45 CP6 72 10.223
45 CP6 73 7.782
45 CP6 74 2.899
45 CP6 75 -3.448
45 CP6 76 -9.308
45 CP6 77 -12.238
45 CP6 78 -12.238
45 CP6 79 -10.284
45 CP6 80 -9.308
45 CP6 81 -10.284
45 CP6 82 -11.261
45 CP6 83 -10.284
45 CP6 84 -6.378
45 CP6 85 -0.519
45 CP6 86 4.852
45 CP6 87 8.270
45 CP6 88 9.735
45 CP6 89 11.688
45 CP6 90 13.641
45 CP6 91 15.594
45 CP6 92 15.594
45 CP6 93 13.641
45 CP6 94 10.223
45 CP6 95 8.270
45 CP6 96 7.782
45 CP6 97 6.805
45 CP6 98 2.899
45 CP6 99 -3.937
45 CP6 100 -10.773
45 CP6 101 -14.679
45 CP6 102 -13.214
45 CP6 103 -7.355
45 CP6 104 -0.031
45 CP6 105 3.876
45 CP6 106 3.387
45 CP6 107 -0.031
45 CP6 108 -2.472
45 CP6 109 -1.007
45 CP6 110 3.876
45 CP6 111 9.247
45 CP6 112 12.177
45 CP6 113 10.712
45 CP6 114 6.805
45 CP6 115 3.876
45 CP6 116 3.387
45 CP6 117 4.852
45 CP6 118 6.317
45 CP6 119 5.829
45 CP6 120 2.899
45 CP6 121 -1.007
45 CP6 122 -4.913
45 CP6 123 -7.843
45 CP6 124 -9.308
45 CP6 125 -9.308
45 CP6 126 -6.866
45 CP6 127 -3.448
45 CP6 128 0.458
45 CP6 129 2.899
45 CP6 130 3.387
45 CP6 131 3.387
45 CP6 132 5.341
45 CP6 133 9.735
45 CP6 134 15.106
45 CP6 135 17.548
45 CP6 136 16.083
45 CP6 137 11.688
45 CP6 138 8.270
45 CP6 139 6.805
45 CP6 140 5.829
45 CP6 141 3.387
45 CP6 142 -1.495
45 CP6 143 -7.843
45 CP6 144 -11.261
45 CP6 145 -9.796
45 CP6 146 -4.913
45 CP6 147 -0.031
45 CP6 148 0.946
45 CP6 149 -1.495
45 CP6 150 -3.937
45 CP6 151 -1.984
45 CP6 152 2.899
45 CP6 153 9.247
45 CP6 154 12.665
45 CP6 155 12.177
45 CP6 156 9.735
45 CP6 157 6.805
45 CP6 158 3.387
45 CP6 159 0.458
45 CP6 160 -2.960
45 CP6 161 -5.402
45 CP6 162 -5.402
45 CP6 163 -4.425
45 CP6 164 -2.960
45 CP6 165 -3.937
45 CP6 166 -6.378
45 CP6 167 -7.843
45 CP6 168 -5.890
45 CP6 169 -0.519
45 CP6 170 5.829
45 CP6 171 9.735
45 CP6 172 9.247
45 CP6 173 6.317
45 CP6 174 3.387
45 CP6 175 2.899
45 CP6 176 5.341
45 CP6 177 7.294
45 CP6 178 6.805
45 CP6 179 4.852
45 CP6 180 2.411
45 CP6 181 1.434
45 CP6 182 1.923
45 CP6 183 2.899
45 CP6 184 1.923
45 CP6 185 -0.519
45 CP6 186 -2.960
45 CP6 187 -3.448
45 CP6 188 -0.519
45 CP6 189 5.341
45 CP6 190 11.200
45 CP6 191 14.618
45 CP6 192 15.106
45 CP6 193 13.153
45 CP6 194 10.712
45 CP6 195 9.247
45 CP6 196 8.759
45 CP6 197 7.294
45 CP6 198 4.852
45 CP6 199 1.923
45 CP6 200 -0.519
45 CP6 201 -0.519
45 CP6 202 -0.031
45 CP6 203 1.434
45 CP6 204 1.434
45 CP6 205 1.923
45 CP6 206 2.899
45 CP6 207 4.852
45 CP6 208 6.805
45 CP6 209 5.829
45 CP6 210 1.923
45 CP6 211 -2.960
45 CP6 212 -5.402
45 CP6 213 -2.472
45 CP6 214 3.387
45 CP6 215 9.247
45 CP6 216 12.177
45 CP6 217 11.200
45 CP6 218 9.247
45 CP6 219 6.805
45 CP6 220 3.876
45 CP6 221 -1.007
45 CP6 222 -7.843
45 CP6 223 -12.726
45 CP6 224 -12.726
45 CP6 225 -7.843
45 CP6 226 -1.007
45 CP6 227 2.899
45 CP6 228 1.434
45 CP6 229 -2.472
45 CP6 230 -5.402
45 CP6 231 -3.448
45 CP6 232 1.434
45 CP6 233 5.341
45 CP6 234 4.852
45 CP6 235 1.923
45 CP6 236 0.458
45 CP6 237 2.899
45 CP6 238 7.294
45 CP6 239 10.223
45 CP6 240 8.270
45 CP6 241 3.387
45 CP6 242 -1.007
45 CP6 243 -1.495
45 CP6 244 0.946
45 CP6 245 0.946
45 CP6 246 -4.913
45 CP6 247 -16.144
45 CP6 248 -26.886
45 CP6 249 -31.281
45 CP6 250 -27.863
45 CP6 251 -20.538
45 CP6 252 -15.167
45 CP6 253 -15.656
45 CP6 254 -19.562
45 CP6 255 -22.980
# CP1 chan 20
45 CP1 0 0.397
45 CP1 1 0.885
45 CP1 2 1.373
45 CP1 3 0.885
45 CP1 4 0.397
45 CP1 5 -0.580
45 CP1 6 -1.068
45 CP1 7 -1.068
45 CP1 8 -1.068
45 CP1 9 -1.068
45 CP1 10 -1.068
45 CP1 11 -1.556
45 CP1 12 -1.556
45 CP1 13 -1.068
45 CP1 14 -0.580
45 CP1 15 -0.092
45 CP1 16 0.885
45 CP1 17 1.862
45 CP1 18 3.326
45 CP1 19 5.280
45 CP1 20 6.744
45 CP1 21 6.744
45 CP1 22 5.768
45 CP1 23 3.815
45 CP1 24 1.373
45 CP1 25 -1.068
45 CP1 26 -1.556
45 CP1 27 -0.580
45 CP1 28 1.862
45 CP1 29 5.280
45 CP1 30 6.744
45 CP1 31 5.768
45 CP1 32 2.350
45 CP1 33 -1.556
45 CP1 34 -3.998
45 CP1 35 -3.510
45 CP1 36 -1.068
45 CP1 37 2.350
45 CP1 38 5.280
45 CP1 39 7.233
45 CP1 40 7.233
45 CP1 41 5.768
45 CP1 42 3.815
45 CP1 43 1.373
45 CP1 44 -0.580
45 CP1 45 -1.556
45 CP1 46 -1.068
45 CP1 47 0.397
45 CP1 48 0.885
45 CP1 49 1.373
45 CP1 50 -0.092
45 CP1 51 -1.556
45 CP1 52 -2.533
45 CP1 53 -2.533
45 CP1 54 -1.068
45 CP1 55 0.397
45 CP1 56 2.350
45 CP1 57 3.815
45 CP1 58 4.303
45 CP1 59 3.815
45 CP1 60 2.350
45 CP1 61 1.862
45 CP1 62 1.373
45 CP1 63 1.862
45 CP1 64 2.350
45 CP1 65 3.326
45 CP1 66 3.326
45 CP1 67 3.326
45 CP1 68 3.326
45 CP1 69 3.326
45 CP1 70 3.326
45 CP1 71 3.326
45 CP1 72 3.326
45 CP1 73 3.326
45 CP1 74 3.326
45 CP1 75 3.326
45 CP1 76 2.838
45 CP1 77 2.350
45 CP1 78 1.373
45 CP1 79 0.397
45 CP1 80 0.397
45 CP1 81 0.397
45 CP1 82 1.373
45 CP1 83 2.350
45 CP1 84 2.350
45 CP1 85 2.350
45 CP1 86 1.373
45 CP1 87 -0.092
45 CP1 88 -1.068
45 CP1 89 -1.556
45 CP1 90 -1.068
45 CP1 91 0.397
45 CP1 92 2.838
45 CP1 93 5.280
45 CP1 94 7.233
45 CP1 95 7.233
45 CP1 96 6.256
45 CP1 97 4.791
45 CP1 98 3.326
45 CP1 99 2.350
45 CP1 100 2.838
45 CP1 101 3.815
45 CP1 102 4.791
45 CP1 103 4.791
45 CP1 104 3.815
45 CP1 105 2.838
45 CP1 106 1.373
45 CP1 107 0.885
45 CP1 108 0.397
45 CP1 109 -0.580
45 CP1 110 -1.556
45 CP1 111 -2.045
45 CP1 112 -1.556
45 CP1 113 -0.092
45 CP1 114 2.350
45 CP1 115 4.303
45 CP1 116 4.303
45 CP1 117 2.838
45 CP1 118 0.397
45 CP1 119 -1.556
45 CP1 120 -2.045
45 CP1 121 -0.580
45 CP1 122 1.373
45 CP1 123 3.326
45 CP1 124 4.791
45 CP1 125 5.280
45 CP1 126 6.256
45 CP1 127 6.256
45 CP1 128 6.744
45 CP1 129 6.256
45 CP1 130 5.768
45 CP1 131 4.791
45 CP1 132 3.815
45 CP1 133 3.326
45 CP1 134 2.838
45 CP1 135 3.326
45 CP1 136 3.815
45 CP1 137 4.303
45 CP1 138 4.791
45 CP1 139 4.791
45 CP1 140 3.815
45 CP1 141 2.350
45 CP1 142 0.885
45 CP1 143 -0.092
45 CP1 144 -0.092
45 CP1 145 0.885
45 CP1 146 1.862
45 CP1 147 1.862
45 CP1 148 0.397
45 CP1 149 -1.068
45 CP1 150 -3.021
45 CP1 151 -4.486
45 CP1 152 -4.486
45 CP1 153 -2.045
45 CP1 154 -0.092
45 CP1 155 1.862
45 CP1 156 2.350
45 CP1 157 2.350
45 CP1 158 1.373
45 CP1 159 0.885
45 CP1 160 1.373
45 CP1 161 2.838
45 CP1 162 3.815
45 CP1 163 3.815
45 CP1 164 2.838
45 CP1 165 1.373
45 CP1 166 -0.580
45 CP1 167 -0.580
45 CP1 168 -0.092
45 CP1 169 1.373
45 CP1 170 2.350
45 CP1 171 2.838
45 CP1 172 2.350
45 CP1 173 1.373
45 CP1 174 0.885
45 CP1 175 0.885
45 CP1 176 1.862
45 CP1 177 2.838
45 CP1 178 4.303
45 CP1 179 5.280
45 CP1 180 5.768
45 CP1 181 5.768
45 CP1 182 4.791
45 CP1 183 3.326
45 CP1 184 2.350
45 CP1 185 1.373
45 CP1 186 1.862
45 CP1 187 2.350
45 CP1 188 3.326
45 CP1 189 2.838
45 CP1 190 2.350
45 CP1 191 0.885
45 CP1 192 -1.068
45 CP1 193 -2.533
45 CP1 194 -3.998
45 CP1 195 -4.486
45 CP1 196 -3.510
45 CP1 197 -0.580
45 CP1 198 2.350
45 CP1 199 5.280
45 CP1 200 5.280
45 CP1 201 3.326
45 CP1 202 0.885
45 CP1 203 -1.068
45 CP1 204 -2.045
45 CP1 205 -1.556
45 CP1 206 -1.068
45 CP1 207 -1.068
45 CP1 208 -1.556
45 CP1 209 -2.045
45 CP1 210 -2.045
45 CP1 211 -2.045
45 CP1 212 -2.533
45 CP1 213 -3.998
45 CP1 214 -4.974
45 CP1 215 -4.974
45 CP1 216 -1.556
45 CP1 217 2.350
45 CP1 218 6.256
45 CP1 219 7.721
45 CP1 220 6.744
45 CP1 221 4.791
45 CP1 222 2.838
45 CP1 223 2.350
45 CP1 224 2.838
45 CP1 225 3.326
45 CP1 226 2.350
45 CP1 227 -0.092
45 CP1 228 -2.533
45 CP1 229 -4.974
45 CP1 230 -5.463
45 CP1 231 -4.486
45 CP1 232 -3.021
45 CP1 233 -0.580
45 CP1 234 2.350
45 CP1 235 5.280
45 CP1 236 8.698
45 CP1 237 10.162
45 CP1 238 10.162
45 CP1 239 8.209
45 CP1 240 6.256
45 CP1 241 4.791
45 CP1 242 4.303
45 CP1 243 4.791
45 CP1 244 5.768
45 CP1 245 5.768
45 CP1 246 4.303
45 CP1 247 1.373
45 CP1 248 -2.045
45 CP1 249 -5.951
45 CP1 250 -8.392
45 CP1 251 -9.369
45 CP1 252 -9.369
45 CP1 253 -8.392
45 CP1 254 -7.904
45 CP1 255 -8.392
# CP2 chan 21
45 CP2 0 -1.394
45 CP2 1 -0.417
45 CP2 2 1.048
45 CP2 3 2.513
45 CP2 4 3.489
45 CP2 5 3.489
45 CP2 6 3.977
45 CP2 7 4.466
45 CP2 8 4.954
45 CP2 9 5.931
45 CP2 10 6.907
45 CP2 11 6.907
45 CP2 12 6.907
45 CP2 13 5.931
45 CP2 14 3.977
45 CP2 15 2.513
45 CP2 16 0.071
45 CP2 17 -1.394
45 CP2 18 -1.882
45 CP2 19 -0.905
45 CP2 20 1.536
45 CP2 21 4.954
45 CP2 22 7.884
45 CP2 23 8.372
45 CP2 24 7.395
45 CP2 25 5.931
45 CP2 26 5.931
45 CP2 27 7.884
45 CP2 28 11.302
45 CP2 29 14.231
45 CP2 30 14.720
45 CP2 31 12.278
45 CP2 32 7.395
45 CP2 33 3.001
45 CP2 34 -0.417
45 CP2 35 -1.394
45 CP2 36 -1.394
45 CP2 37 0.071
45 CP2 38 1.536
45 CP2 39 3.489
45 CP2 40 4.466
45 CP2 41 4.954
45 CP2 42 3.977
45 CP2 43 1.536
45 CP2 44 0.071
45 CP2 45 0.559
45 CP2 46 3.489
45 CP2 47 6.907
45 CP2 48 9.349
45 CP2 49 9.349
45 CP2 50 6.907
45 CP2 51 3.489
45 CP2 52 1.048
45 CP2 53 0.559
45 CP2 54 0.559
45 CP2 55 0.559
45 CP2 56 -0.905
45 CP2 57 -2.858
45 CP2 58 -4.812
45 CP2 59 -5.300
45 CP2 60 -4.323
45 CP2 61 -1.394
45 CP2 62 2.024
45 CP2 63 5.442
45 CP2 64 8.372
45 CP2 65 9.837
45 CP2 66 10.813
45 CP2 67 11.302
45 CP2 68 10.325
45 CP2 69 9.349
45 CP2 70 7.884
45 CP2 71 6.419
45 CP2 72 6.419
45 CP2 73 5.931
45 CP2 74 4.954
45 CP2 75 2.513
45 CP2 76 -0.417
45 CP2 77 -3.347
45 CP2 78 -5.788
45 CP2 79 -6.765
45 CP2 80 -7.253
45 CP2 81 -7.253
45 CP2 82 -5.788
45 CP2 83 -3.347
45 CP2 84 0.071
45 CP2 85 3.001
45 CP2 86 5.442
45 CP2 87 6.419
45 CP2 88 6.419
45 CP2 89 6.419
45 CP2 90 7.395
45 CP2 91 8.372
45 CP2 92 9.349
45 CP2 93 9.349
45 CP2 94 8.372
45 CP2 95 6.907
45 CP2 96 4.954
45 CP2 97 2.513
45 CP2 98 -0.417
45 CP2 99 -3.835
45 CP2 100 -5.788
45 CP2 101 -6.276
45 CP2 102 -4.323
45 CP2 103 -1.394
45 CP2 104 2.024
45 CP2 105 3.977
45 CP2 106 4.466
45 CP2 107 3.489
45 CP2 108 3.001
45 CP2 109 3.001
45 CP2 110 3.977
45 CP2 111 5.442
45 CP2 112 6.419
45 CP2 113 6.419
45 CP2 114 5.931
45 CP2 115 6.419
45 CP2 116 6.419
45 CP2 117 6.419
45 CP2 118 5.931
45 CP2 119 4.466
45 CP2 120 2.513
45 CP2 121 1.048
45 CP2 122 0.559
45 CP2 123 -0.417
45 CP2 124 -0.417
45 CP2 125 -0.417
45 CP2 126 0.559
45 CP2 127 3.001
45 CP2 128 4.954
45 CP2 129 6.419
45 CP2 130 7.395
45 CP2 131 7.395
45 CP2 132 7.395
45 CP2 133 7.884
45 CP2 134 8.860
45 CP2 135 9.349
45 CP2 136 8.860
45 CP2 137 7.884
45 CP2 138 5.931
45 CP2 139 4.466
45 CP2 140 2.513
45 CP2 141 0.559
45 CP2 142 -0.905
45 CP2 143 -1.394
45 CP2 144 -0.417
45 CP2 145 2.024
45 CP2 146 4.466
45 CP2 147 6.419
45 CP2 148 5.931
45 CP2 149 4.466
45 CP2 150 3.001
45 CP2 151 3.001
45 CP2 152 3.977
45 CP2 153 5.931
45 CP2 154 6.907
45 CP2 155 7.395
45 CP2 156 6.907
45 CP2 157 5.931
45 CP2 158 4.954
45 CP2 159 3.489
45 CP2 160 2.513
45 CP2 161 1.536
45 CP2 162 1.536
45 CP2 163 2.513
45 CP2 164 3.001
45 CP2 165 3.001
45 CP2 166 2.024
45 CP2 167 1.048
45 CP2 168 2.024
45 CP2 169 3.489
45 CP2 170 5.931
45 CP2 171 6.907
45 CP2 172 5.931
45 CP2 173 4.954
45 CP2 174 3.977
45 CP2 175 3.977
45 CP2 176 4.954
45 CP2 177 6.419
45 CP2 178 6.419
45 CP2 179 5.931
45 CP2 180 5.442
45 CP2 181 4.466
45 CP2 182 4.954
45 CP2 183 4.954
45 CP2 184 4.954
45 CP2 185 4.954
45 CP2 186 4.954
45 CP2 187 6.419
45 CP2 188 8.372
45 CP2 189 10.325
45 CP2 190 11.790
45 CP2 191 11.790
45 CP2 192 9.837
45 CP2 193 6.907
45 CP2 194 4.466
45 CP2 195 3.489
45 CP2 196 3.489
45 CP2 197 3.977
45 CP2 198 4.466
45 CP2 199 4.466
45 CP2 200 3.977
45 CP2 201 3.977
45 CP2 202 3.977
45 CP2 203 3.977
45 CP2 204 4.466
45 CP2 205 4.954
45 CP2 206 5.931
45 CP2 207 6.419
45 CP2 208 6.907
45 CP2 209 6.907
45 CP2 210 6.419
45 CP2 211 5.931
45 CP2 212 6.907
45 CP2 213 7.395
45 CP2 214 7.884
45 CP2 215 7.884
45 CP2 216 6.907
45 CP2 217 5.931
45 CP2 218 5.442
45 CP2 219 4.954
45 CP2 220 3.489
45 CP2 221 1.536
45 CP2 222 -0.417
45 CP2 223 -1.394
45 CP2 224 -1.394
45 CP2 225 0.559
45 CP2 226 2.024
45 CP2 227 2.024
45 CP2 228 1.536
45 CP2 229 1.536
45 CP2 230 3.001
45 CP2 231 5.931
45 CP2 232 9.837
45 CP2 233 12.278
45 CP2 234 13.255
45 CP2 235 13.255
45 CP2 236 12.767
45 CP2 237 12.767
45 CP2 238 12.278
45 CP2 239 10.813
45 CP2 240 7.884
45 CP2 241 4.466
45 CP2 242 2.024
45 CP2 243 1.048
45 CP2 244 1.048
45 CP2 245 1.048
45 CP2 246 -0.417
45 CP2 247 -3.835
45 CP2 248 -6.765
45 CP2 249 -8.230
45 CP2 250 -7.741
45 CP2 251 -6.276
45 CP2 252 -5.300
45 CP2 253 -6.276
45 CP2 254 -7.741
45 CP2 255 -9.694
# P3 chan 22
45 P3 0 2.014
45 P3 1 2.991
45 P3 2 2.502
45 P3 3 1.038
45 P3 4 0.061
45 P3 5 0.549
45 P3 6 2.014
45 P3 7 3.967
45 P3 8 4.944
45 P3 9 3.967
45 P3 10 2.502
45 P3 11 1.038
45 P3 12 1.038
45 P3 13 2.014
45 P3 14 2.502
45 P3 15 2.991
45 P3 16 2.991
45 P3 17 4.456
45 P3 18 6.409
45 P3 19 9.338
45 P3 20 11.780
45 P3 21 12.756
45 P3 22 11.292
45 P3 23 8.850
45 P3 24 5.920
45 P3 25 3.479
45 P3 26 3.479
45 P3 27 5.432
45 P3 28 9.338
45 P3 29 12.756
45 P3 30 14.221
45 P3 31 11.780
45 P3 32 5.920
45 P3 33 0.061
45 P3 34 -4.333
45 P3 35 -4.822
45 P3 36 -1.892
45 P3 37 2.502
45 P3 38 6.409
45 P3 39 8.362
45 P3 40 7.874
45 P3 41 5.920
45 P3 42 3.967
45 P3 43 2.014
45 P3 44 0.549
45 P3 45 1.038
45 P3 46 2.502
45 P3 47 4.944
45 P3 48 7.385
45 P3 49 8.362
45 P3 50 6.897
45 P3 51 4.456
45 P3 52 2.014
45 P3 53 1.038
45 P3 54 2.014
45 P3 55 3.967
45 P3 56 6.409
45 P3 57 7.874
45 P3 58 7.385
45 P3 59 6.409
45 P3 60 5.432
45 P3 61 4.456
45 P3 62 4.456
45 P3 63 5.432
45 P3 64 6.897
45 P3 65 8.362
45 P3 66 9.827
45 P3 67 10.803
45 P3 68 11.780
45 P3 69 11.780
45 P3 70 11.292
45 P3 71 9.827
45 P3 72 7.874
45 P3 73 6.409
45 P3 74 4.944
45 P3 75 4.456
45 P3 76 4.456
45 P3 77 3.967
45 P3 78 2.502
45 P3 79 0.549
45 P3 80 -1.404
45 P3 81 -2.869
45 P3 82 -2.869
45 P3 83 -1.404
45 P3 84 0.549
45 P3 85 2.502
45 P3 86 3.479
45 P3 87 3.479
45 P3 88 3.479
45 P3 89 3.967
45 P3 90 4.456
45 P3 91 5.920
45 P3 92 7.874
45 P3 93 10.315
45 P3 94 11.292
45 P3 95 10.803
45 P3 96 8.850
45 P3 97 6.409
45 P3 98 4.944
45 P3 99 4.456
45 P3 100 5.432
45 P3 101 5.920
45 P3 102 6.897
45 P3 103 6.409
45 P3 104 5.920
45 P3 105 4.944
45 P3 106 3.967
45 P3 107 3.967
45 P3 108 4.456
45 P3 109 3.967
45 P3 110 2.991
45 P3 111 2.502
45 P3 112 2.502
45 P3 113 3.479
45 P3 114 6.409
45 P3 115 8.362
45 P3 116 8.850
45 P3 117 7.385
45 P3 118 4.456
45 P3 119 2.014
45 P3 120 1.526
45 P3 121 2.502
45 P3 122 4.456
45 P3 123 6.897
45 P3 124 8.850
45 P3 125 10.803
45 P3 126 12.268
45 P3 127 13.733
45 P3 128 14.221
45 P3 129 14.221
45 P3 130 13.733
45 P3 131 12.756
45 P3 132 12.756
45 P3 133 12.756
45 P3 134 12.756
45 P3 135 12.268
45 P3 136 11.780
45 P3 137 10.803
45 P3 138 9.827
45 P3 139 9.338
45 P3 140 7.874
45 P3 141 5.920
45 P3 142 4.456
45 P3 143 3.479
45 P3 144 3.479
45 P3 145 3.967
45 P3 146 4.944
45 P3 147 4.456
45 P3 148 2.991
45 P3 149 0.549
45 P3 150 -1.404
45 P3 151 -1.892
45 P3 152 -0.916
45 P3 153 1.038
45 P3 154 3.479
45 P3 155 4.456
45 P3 156 5.432
45 P3 157 5.432
45 P3 158 4.456
45 P3 159 4.944
45 P3 160 5.432
45 P3 161 6.897
45 P3 162 7.385
45 P3 163 6.897
45 P3 164 5.432
45 P3 165 2.502
45 P3 166 0.549
45 P3 167 0.061
45 P3 168 1.526
45 P3 169 3.967
45 P3 170 5.920
45 P3 171 6.897
45 P3 172 6.409
45 P3 173 5.920
45 P3 174 4.944
45 P3 175 5.432
45 P3 176 5.920
45 P3 177 7.385
45 P3 178 8.850
45 P3 179 10.315
45 P3 180 11.292
45 P3 181 12.268
45 P3 182 11.780
45 P3 183 9.338
45 P3 184 6.409
45 P3 185 3.967
45 P3 186 2.991
45 P3 187 3.479
45 P3 188 4.944
45 P3 189 5.920
45 P3 190 5.920
45 P3 191 4.944
45 P3 192 3.479
45 P3 193 2.014
45 P3 194 1.038
45 P3 195 1.038
45 P3 196 3.479
45 P3 197 6.897
45 P3 198 10.803
45 P3 199 13.245
45 P3 200 12.756
45 P3 201 9.827
45 P3 202 5.432
45 P3 203 2.014
45 P3 204 0.061
45 P3 205 -0.427
45 P3 206 -0.427
45 P3 207 -0.916
45 P3 208 -1.892
45 P3 209 -2.869
45 P3 210 -3.357
45 P3 211 -3.357
45 P3 212 -3.845
45 P3 213 -3.845
45 P3 214 -3.357
45 P3 215 -0.916
45 P3 216 3.479
45 P3 217 9.338
45 P3 218 14.221
45 P3 219 15.686
45 P3 220 14.221
45 P3 221 10.803
45 P3 222 8.362
45 P3 223 7.385
45 P3 224 7.874
45 P3 225 8.362
45 P3 226 7.874
45 P3 227 5.432
45 P3 228 2.502
45 P3 229 -0.427
45 P3 230 -2.380
45 P3 231 -3.357
45 P3 232 -2.869
45 P3 233 -1.404
45 P3 234 2.014
45 P3 235 7.385
45 P3 236 13.245
45 P3 237 18.127
45 P3 238 20.081
45 P3 239 19.592
45 P3 240 18.127
45 P3 241 17.151
45 P3 242 17.151
45 P3 243 17.151
45 P3 244 17.639
45 P3 245 16.174
45 P3 246 12.756
45 P3 247 7.874
45 P3 248 2.502
45 P3 249 -2.380
45 P3 250 -5.798
45 P3 251 -8.240
45 P3 252 -8.728
45 P3 253 -8.728
45 P3 254 -9.705
45 P3 255 -11.658
# P4 chan 23
45 P4 0 -1.200
45 P4 1 -0.224
45 P4 2 0.753
45 P4 3 1.241
45 P4 4 2.706
45 P4 5 3.682
45 P4 6 4.659
45 P4 7 6.124
45 P4 8 7.100
45 P4 9 7.589
45 P4 10 8.077
45 P4 11 8.077
45 P4 12 7.589
45 P4 13 7.100
45 P4 14 6.124
45 P4 15 3.682
45 P4 16 1.241
45 P4 17 -0.712
45 P4 18 -1.200
45 P4 19 0.264
45 P4 20 3.682
45 P4 21 8.077
45 P4 22 11.007
45 P4 23 11.983
45 P4 24 10.518
45 P4 25 9.054
45 P4 26 9.054
45 P4 27 12.472
45 P4 28 16.866
45 P4 29 20.284
45 P4 30 20.284
45 P4 31 16.378
45 P4 32 9.542
45 P4 33 3.194
45 P4 34 -1.689
45 P4 35 -3.642
45 P4 36 -4.130
45 P4 37 -2.177
45 P4 38 -0.224
45 P4 39 2.218
45 P4 40 4.171
45 P4 41 4.171
45 P4 42 2.706
45 P4 43 0.264
45 P4 44 -0.224
45 P4 45 1.729
45 P4 46 6.612
45 P4 47 11.495
45 P4 48 13.936
45 P4 49 12.960
45 P4 50 9.054
45 P4 51 4.659
45 P4 52 1.241
45 P4 53 -0.712
45 P4 54 -1.200
45 P4 55 -1.200
45 P4 56 -1.689
45 P4 57 -2.665
45 P4 58 -3.642
45 P4 59 -4.618
45 P4 60 -4.130
45 P4 61 -2.177
45 P4 62 1.241
45 P4 63 5.636
45 P4 64 10.030
45 P4 65 12.960
45 P4 66 14.425
45 P4 67 14.913
45 P4 68 13.448
45 P4 69 11.983
45 P4 70 10.030
45 P4 71 8.565
45 P4 72 7.100
45 P4 73 5.147
45 P4 74 2.706
45 P4 75 -0.224
45 P4 76 -3.642
45 P4 77 -6.571
45 P4 78 -9.501
45 P4 79 -12.431
45 P4 80 -14.384
45 P4 81 -15.361
45 P4 82 -14.384
45 P4 83 -9.989
45 P4 84 -5.107
45 P4 85 -0.224
45 P4 86 2.706
45 P4 87 3.682
45 P4 88 4.171
45 P4 89 4.659
45 P4 90 7.100
45 P4 91 9.054
45 P4 92 10.030
45 P4 93 9.054
45 P4 94 7.589
45 P4 95 4.659
45 P4 96 2.218
45 P4 97 -0.224
45 P4 98 -3.153
45 P4 99 -6.571
45 P4 100 -9.501
45 P4 101 -10.966
45 P4 102 -9.501
45 P4 103 -6.571
45 P4 104 -3.153
45 P4 105 -0.224
45 P4 106 0.264
45 P4 107 0.264
45 P4 108 0.264
45 P4 109 1.241
45 P4 110 2.218
45 P4 111 3.682
45 P4 112 4.171
45 P4 113 4.171
45 P4 114 4.659
45 P4 115 5.147
45 P4 116 6.124
45 P4 117 6.124
45 P4 118 5.147
45 P4 119 2.706
45 P4 120 -0.224
45 P4 121 -3.153
45 P4 122 -5.107
45 P4 123 -6.083
45 P4 124 -6.083
45 P4 125 -4.618
45 P4 126 -2.665
45 P4 127 0.264
45 P4 128 3.682
45 P4 129 6.124
45 P4 130 7.589
45 P4 131 9.054
45 P4 132 9.542
45 P4 133 10.518
45 P4 134 11.007
45 P4 135 11.495
45 P4 136 10.518
45 P4 137 9.054
45 P4 138 6.612
45 P4 139 4.171
45 P4 140 1.241
45 P4 141 -1.689
45 P4 142 -4.130
45 P4 143 -5.595
45 P4 144 -4.618
45 P4 145 -2.177
45 P4 146 0.753
45 P4 147 2.706
45 P4 148 2.218
45 P4 149 0.264
45 P4 150 -1.689
45 P4 151 -1.200
45 P4 152 1.241
45 P4 153 4.659
45 P4 154 7.100
45 P4 155 8.077
45 P4 156 8.077
45 P4 157 7.589
45 P4 158 6.612
45 P4 159 5.147
45 P4 160 3.682
45 P4 161 1.241
45 P4 162 -0.224
45 P4 163 -1.200
45 P4 164 -1.200
45 P4 165 -1.689
45 P4 166 -2.177
45 P4 167 -2.177
45 P4 168 -0.712
45 P4 169 1.729
45 P4 170 4.171
45 P4 171 5.636
45 P4 172 5.636
45 P4 173 4.659
45 P4 174 3.682
45 P4 175 3.682
45 P4 176 5.147
45 P4 177 6.612
45 P4 178 7.100
45 P4 179 6.124
45 P4 180 5.147
45 P4 181 4.659
45 P4 182 4.659
45 P4 183 4.659
45 P4 184 4.659
45 P4 185 3.194
45 P4 186 2.706
45 P4 187 4.171
45 P4 188 7.100
45 P4 189 11.007
45 P4 190 13.448
45 P4 191 13.936
45 P4 192 11.983
45 P4 193 9.054
45 P4 194 7.100
45 P4 195 6.124
45 P4 196 6.124
45 P4 197 6.612
45 P4 198 6.124
45 P4 199 4.659
45 P4 200 2.706
45 P4 201 0.753
45 P4 202 -0.224
45 P4 203 -0.712
45 P4 204 -1.200
45 P4 205 -0.712
45 P4 206 0.264
45 P4 207 0.264
45 P4 208 0.264
45 P4 209 -0.712
45 P4 210 -1.689
45 P4 211 -0.712
45 P4 212 2.218
45 P4 213 6.124
45 P4 214 10.030
45 P4 215 12.472
45 P4 216 13.936
45 P4 217 13.936
45 P4 218 12.960
45 P4 219 11.007
45 P4 220 6.612
45 P4 221 0.264
45 P4 222 -5.595
45 P4 223 -9.501
45 P4 224 -10.478
45 P4 225 -8.036
45 P4 226 -6.083
45 P4 227 -5.107
45 P4 228 -6.083
45 P4 229 -6.083
45 P4 230 -4.618
45 P4 231 -0.224
45 P4 232 5.147
45 P4 233 9.542
45 P4 234 11.495
45 P4 235 12.472
45 P4 236 13.936
45 P4 237 15.401
45 P4 238 16.378
45 P4 239 15.889
45 P4 240 12.960
45 P4 241 8.077
45 P4 242 3.194
45 P4 243 0.264
45 P4 244 -1.200
45 P4 245 -3.153
45 P4 246 -7.548
45 P4 247 -13.896
45 P4 248 -20.243
45 P4 249 -24.150
45 P4 250 -25.126
45 P4 251 -24.150
45 P4 252 -23.173
45 P4 253 -24.150
45 P4 254 -26.103
45 P4 255 -29.032
# PZ chan 24
45 PZ 0 1.587
45 PZ 1 2.563
45 PZ 2 3.052
45 PZ 3 2.563
45 PZ 4 2.075
45 PZ 5 2.075
45 PZ 6 2.075
45 PZ 7 2.563
45 PZ 8 3.052
45 PZ 9 3.540
45 PZ 10 3.540
45 PZ 11 3.540
45 PZ 12 3.540
45 PZ 13 3.052
45 PZ 14 2.563
45 PZ 15 2.075
45 PZ 16 1.587
45 PZ 17 2.075
45 PZ 18 3.540
45 PZ 19 5.981
45 PZ 20 9.399
45 PZ 21 11.353
45 PZ 22 12.329
45 PZ 23 11.353
45 PZ 24 8.911
45 PZ 25 6.470
45 PZ 26 5.981
45 PZ 27 7.935
45 PZ 28 10.864
45 PZ 29 13.794
45 PZ 30 14.282
45 PZ 31 11.841
45 PZ 32 7.446
45 PZ 33 2.563
45 PZ 34 -0.366
45 PZ 35 -1.343
45 PZ 36 0.610
45 PZ 37 3.052
45 PZ 38 6.470
45 PZ 39 8.911
45 PZ 40 9.399
45 PZ 41 8.423
45 PZ 42 5.493
45 PZ 43 2.075
45 PZ 44 0.122
45 PZ 45 0.610
45 PZ 46 2.563
45 PZ 47 5.493
45 PZ 48 6.958
45 PZ 49 6.470
45 PZ 50 3.540
45 PZ 51 0.122
45 PZ 52 -2.808
45 PZ 53 -4.272
45 PZ 54 -4.272
45 PZ 55 -3.296
45 PZ 56 -2.319
45 PZ 57 -1.343
45 PZ 58 -1.831
45 PZ 59 -1.831
45 PZ 60 -2.319
45 PZ 61 -2.319
45 PZ 62 -0.854
45 PZ 63 1.099
45 PZ 64 4.517
45 PZ 65 6.958
45 PZ 66 8.911
45 PZ 67 9.399
45 PZ 68 8.423
45 PZ 69 7.446
45 PZ 70 5.981
45 PZ 71 4.517
45 PZ 72 3.540
45 PZ 73 2.075
45 PZ 74 1.099
45 PZ 75 -0.366
45 PZ 76 -1.831
45 PZ 77 -3.784
45 PZ 78 -6.226
45 PZ 79 -7.690
45 PZ 80 -9.155
45 PZ 81 -9.644
45 PZ 82 -7.690
45 PZ 83 -5.249
45 PZ 84 -2.319
45 PZ 85 0.122
45 PZ 86 1.099
45 PZ 87 1.099
45 PZ 88 0.122
45 PZ 89 0.122
45 PZ 90 1.099
45 PZ 91 3.052
45 PZ 92 4.517
45 PZ 93 5.981
45 PZ 94 5.981
45 PZ 95 5.005
45 PZ 96 3.540
45 PZ 97 1.587
45 PZ 98 0.122
45 PZ 99 -1.343
45 PZ 100 -2.808
45 PZ 101 -3.296
45 PZ 102 -3.784
45 PZ 103 -2.808
45 PZ 104 -1.343
45 PZ 105 0.122
45 PZ 106 1.099
45 PZ 107 1.099
45 PZ 108 0.122
45 PZ 109 -1.343
45 PZ 110 -2.319
45 PZ 111 -2.808
45 PZ 112 -2.808
45 PZ 113 -1.343
45 PZ 114 0.610
45 PZ 115 2.563
45 PZ 116 3.052
45 PZ 117 2.563
45 PZ 118 0.610
45 PZ 119 -1.343
45 PZ 120 -2.319
45 PZ 121 -2.808
45 PZ 122 -2.319
45 PZ 123 -1.831
45 PZ 124 -0.854
45 PZ 125 0.610
45 PZ 126 2.563
45 PZ 127 4.517
45 PZ 128 6.470
45 PZ 129 7.446
45 PZ 130 7.446
45 PZ 131 6.958
45 PZ 132 6.470
45 PZ 133 6.470
45 PZ 134 6.470
45 PZ 135 6.958
45 PZ 136 7.446
45 PZ 137 6.958
45 PZ 138 5.981
45 PZ 139 4.517
45 PZ 140 3.052
45 PZ 141 1.099
45 PZ 142 0.122
45 PZ 143 0.122
45 PZ 144 1.587
45 PZ 145 3.540
45 PZ 146 5.981
45 PZ 147 6.470
45 PZ 148 5.493
45 PZ 149 2.563
45 PZ 150 -0.366
45 PZ 151 -2.319
45 PZ 152 -1.831
45 PZ 153 0.122
45 PZ 154 2.075
45 PZ 155 3.540
45 PZ 156 3.540
45 PZ 157 4.028
45 PZ 158 3.540
45 PZ 159 3.540
45 PZ 160 3.540
45 PZ 161 3.052
45 PZ 162 3.052
45 PZ 163 3.052
45 PZ 164 2.563
45 PZ 165 2.075
45 PZ 166 1.099
45 PZ 167 0.610
45 PZ 168 0.610
45 PZ 169 1.099
45 PZ 170 2.075
45 PZ 171 2.075
45 PZ 172 2.075
45 PZ 173 0.610
45 PZ 174 -0.366
45 PZ 175 -0.854
45 PZ 176 0.122
45 PZ 177 2.075
45 PZ 178 4.028
45 PZ 179 5.493
45 PZ 180 6.958
45 PZ 181 7.446
45 PZ 182 7.446
45 PZ 183 6.958
45 PZ 184 6.470
45 PZ 185 5.493
45 PZ 186 5.005
45 PZ 187 5.493
45 PZ 188 6.470
45 PZ 189 8.423
45 PZ 190 8.911
45 PZ 191 7.935
45 PZ 192 5.493
45 PZ 193 2.075
45 PZ 194 -0.366
45 PZ 195 -1.343
45 PZ 196 0.122
45 PZ 197 3.052
45 PZ 198 5.981
45 PZ 199 7.446
45 PZ 200 6.470
45 PZ 201 4.517
45 PZ 202 2.563
45 PZ 203 1.099
45 PZ 204 0.610
45 PZ 205 1.099
45 PZ 206 1.587
45 PZ 207 0.610
45 PZ 208 -0.366
45 PZ 209 -1.343
45 PZ 210 -1.831
45 PZ 211 -1.831
45 PZ 212 -0.854
45 PZ 213 0.122
45 PZ 214 1.099
45 PZ 215 2.563
45 PZ 216 5.005
45 PZ 217 7.446
45 PZ 218 10.376
45 PZ 219 10.864
45 PZ 220 9.399
45 PZ 221 5.493
45 PZ 222 2.075
45 PZ 223 0.122
45 PZ 224 0.610
45 PZ 225 1.099
45 PZ 226 1.099
45 PZ 227 -0.366
45 PZ 228 -3.296
45 PZ 229 -4.761
45 PZ 230 -4.272
45 PZ 231 -1.343
45 PZ 232 3.052
45 PZ 233 7.446
45 PZ 234 10.864
45 PZ 235 14.282
45 PZ 236 17.212
45 PZ 237 20.142
45 PZ 238 21.606
45 PZ 239 21.118
45 PZ 240 19.165
45 PZ 241 15.747
45 PZ 242 12.817
45 PZ 243 10.376
45 PZ 244 8.911
45 PZ 245 6.958
45 PZ 246 4.028
45 PZ 247 -0.366
45 PZ 248 -5.737
45 PZ 249 -10.132
45 PZ 250 -12.573
45 PZ 251 -13.062
45 PZ 252 -12.573
45 PZ 253 -12.573
45 PZ 254 -13.550
45 PZ 255 -15.991
# P8 chan 25
45 P8 0 1.394
45 P8 1 0.417
45 P8 2 -0.559
45 P8 3 -0.559
45 P8 4 -0.071
45 P8 5 2.370
45 P8 6 6.276
45 P8 7 9.694
45 P8 8 12.624
45 P8 9 13.601
45 P8 10 13.112
45 P8 11 12.624
45 P8 12 12.136
45 P8 13 11.648
45 P8 14 10.183
45 P8 15 8.230
45 P8 16 6.276
45 P8 17 4.812
45 P8 18 5.788
45 P8 19 8.718
45 P8 20 12.136
45 P8 21 15.066
45 P8 22 17.019
45 P8 23 17.995
45 P8 24 17.507
45 P8 25 17.019
45 P8 26 17.507
45 P8 27 18.972
45 P8 28 21.413
45 P8 29 23.366
45 P8 30 23.366
45 P8 31 20.437
45 P8 32 15.066
45 P8 33 8.718
45 P8 34 4.323
45 P8 35 2.858
45 P8 36 4.323
45 P8 37 7.741
45 P8 38 11.648
45 P8 39 14.577
45 P8 40 15.066
45 P8 41 13.601
45 P8 42 10.671
45 P8 43 7.741
45 P8 44 7.253
45 P8 45 9.206
45 P8 46 12.624
45 P8 47 17.019
45 P8 48 19.948
45 P8 49 20.437
45 P8 50 19.460
45 P8 51 16.530
45 P8 52 14.089
45 P8 53 11.159
45 P8 54 9.206
45 P8 55 8.230
45 P8 56 8.718
45 P8 57 9.206
45 P8 58 9.694
45 P8 59 9.206
45 P8 60 8.718
45 P8 61 8.718
45 P8 62 10.671
45 P8 63 14.089
45 P8 64 17.995
45 P8 65 21.413
45 P8 66 23.366
45 P8 67 23.855
45 P8 68 22.878
45 P8 69 21.413
45 P8 70 19.948
45 P8 71 17.019
45 P8 72 14.089
45 P8 73 11.159
45 P8 74 8.718
45 P8 75 7.253
45 P8 76 6.765
45 P8 77 5.300
45 P8 78 2.370
45 P8 79 -2.024
45 P8 80 -7.395
45 P8 81 -10.813
45 P8 82 -10.813
45 P8 83 -7.395
45 P8 84 -2.024
45 P8 85 3.347
45 P8 86 8.230
45 P8 87 10.671
45 P8 88 11.648
45 P8 89 13.112
45 P8 90 14.577
45 P8 91 16.042
45 P8 92 17.507
45 P8 93 17.507
45 P8 94 16.042
45 P8 95 14.089
45 P8 96 11.159
45 P8 97 9.206
45 P8 98 6.765
45 P8 99 3.835
45 P8 100 0.905
45 P8 101 -1.536
45 P8 102 -2.513
45 P8 103 -1.536
45 P8 104 1.394
45 P8 105 3.835
45 P8 106 6.276
45 P8 107 6.765
45 P8 108 7.253
45 P8 109 7.253
45 P8 110 7.253
45 P8 111 8.230
45 P8 112 9.694
45 P8 113 11.159
45 P8 114 12.624
45 P8 115 13.112
45 P8 116 13.112
45 P8 117 12.136
45 P8 118 11.648
45 P8 119 10.183
45 P8 120 8.230
45 P8 121 5.300
45 P8 122 1.882
45 P8 123 -1.048
45 P8 124 -2.024
45 P8 125 -1.536
45 P8 126 0.417
45 P8 127 2.370
45 P8 128 4.812
45 P8 129 7.253
45 P8 130 10.671
45 P8 131 14.089
45 P8 132 17.019
45 P8 133 19.460
45 P8 134 20.437
45 P8 135 21.413
45 P8 136 22.878
45 P8 137 23.366
45 P8 138 22.390
45 P8 139 18.972
45 P8 140 13.601
45 P8 141 8.230
45 P8 142 3.835
45 P8 143 2.370
45 P8 144 2.370
45 P8 145 3.835
45 P8 146 4.812
45 P8 147 5.300
45 P8 148 5.300
45 P8 149 4.812
45 P8 150 4.812
45 P8 151 5.788
45 P8 152 8.230
45 P8 153 11.648
45 P8 154 15.066
45 P8 155 17.995
45 P8 156 19.460
45 P8 157 19.948
45 P8 158 18.972
45 P8 159 18.972
45 P8 160 18.972
45 P8 161 19.460
45 P8 162 19.460
45 P8 163 18.483
45 P8 164 16.042
45 P8 165 13.601
45 P8 166 11.159
45 P8 167 9.694
45 P8 168 9.694
45 P8 169 11.159
45 P8 170 13.112
45 P8 171 15.554
45 P8 172 17.507
45 P8 173 17.995
45 P8 174 18.483
45 P8 175 18.972
45 P8 176 20.437
45 P8 177 22.390
45 P8 178 23.366
45 P8 179 23.855
45 P8 180 23.366
45 P8 181 22.390
45 P8 182 20.925
45 P8 183 18.483
45 P8 184 15.554
45 P8 185 12.136
45 P8 186 10.671
45 P8 187 12.136
45 P8 188 16.530
45 P8 189 23.366
45 P8 190 28.737
45 P8 191 31.667
45 P8 192 31.667
45 P8 193 29.714
45 P8 194 27.761
45 P8 195 26.784
45 P8 196 26.296
45 P8 197 25.808
45 P8 198 24.343
45 P8 199 20.925
45 P8 200 16.530
45 P8 201 12.624
45 P8 202 9.694
45 P8 203 9.694
45 P8 204 12.624
45 P8 205 17.019
45 P8 206 20.437
45 P8 207 20.925
45 P8 208 17.995
45 P8 209 13.601
45 P8 210 10.671
45 P8 211 10.671
45 P8 212 13.112
45 P8 213 17.019
45 P8 214 19.460
45 P8 215 20.437
45 P8 216 21.413
45 P8 217 22.878
45 P8 218 23.855
45 P8 219 23.366
45 P8 220 19.460
45 P8 221 13.112
45 P8 222 6.765
45 P8 223 3.347
45 P8 224 4.323
45 P8 225 7.741
45 P8 226 11.648
45 P8 227 14.577
45 P8 228 15.554
45 P8 229 16.042
45 P8 230 17.019
45 P8 231 18.972
45 P8 232 20.437
45 P8 233 21.413
45 P8 234 20.925
45 P8 235 21.413
45 P8 236 22.390
45 P8 237 24.831
45 P8 238 27.761
45 P8 239 29.226
45 P8 240 29.226
45 P8 241 26.296
45 P8 242 23.366
45 P8 243 19.948
45 P8 244 17.019
45 P8 245 13.112
45 P8 246 7.253
45 P8 247 -0.071
45 P8 248 -7.884
45 P8 249 -13.743
45 P8 250 -16.184
45 P8 251 -14.231
45 P8 252 -9.837
45 P8 253 -5.442
45 P8 254 -3.489
45 P8 255 -3.977
# P7 chan 26
45 P7 0 -5.178
45 P7 1 -5.178
45 P7 2 -5.666
45 P7 3 -6.154
45 P7 4 -6.154
45 P7 5 -5.666
45 P7 6 -3.713
45 P7 7 -1.272
45 P7 8 1.658
45 P7 9 4.100
45 P7 10 4.588
45 P7 11 3.611
45 P7 12 1.658
45 P7 13 -1.272
45 P7 14 -2.736
45 P7 15 -3.225
45 P7 16 -1.760
45 P7 17 0.682
45 P7 18 3.611
45 P7 19 5.564
45 P7 20 6.541
45 P7 21 6.541
45 P7 22 6.053
45 P7 23 4.588
45 P7 24 3.123
45 P7 25 1.170
45 P7 26 0.682
45 P7 27 1.658
45 P7 28 5.076
45 P7 29 8.982
45 P7 30 11.912
45 P7 31 10.935
45 P7 32 6.053
45 P7 33 -0.295
45 P7 34 -5.178
45 P7 35 -6.643
45 P7 36 -3.713
45 P7 37 1.170
45 P7 38 6.053
45 P7 39 8.006
45 P7 40 7.029
45 P7 41 3.123
45 P7 42 -0.783
45 P7 43 -3.713
45 P7 44 -4.201
45 P7 45 -2.736
45 P7 46 0.193
45 P7 47 3.123
45 P7 48 5.564
45 P7 49 6.541
45 P7 50 6.053
45 P7 51 4.100
45 P7 52 1.658
45 P7 53 -0.295
45 P7 54 -1.272
45 P7 55 -0.295
45 P7 56 1.658
45 P7 57 4.100
45 P7 58 5.564
45 P7 59 5.076
45 P7 60 2.146
45 P7 61 -0.783
45 P7 62 -3.225
45 P7 63 -2.736
45 P7 64 -0.295
45 P7 65 3.123
45 P7 66 5.076
45 P7 67 5.076
45 P7 68 4.100
45 P7 69 2.635
45 P7 70 2.146
45 P7 71 1.658
45 P7 72 0.193
45 P7 73 -2.736
45 P7 74 -6.154
45 P7 75 -8.108
45 P7 76 -6.643
45 P7 77 -2.736
45 P7 78 0.193
45 P7 79 -0.295
45 P7 80 -4.201
45 P7 81 -8.596
45 P7 82 -11.525
45 P7 83 -10.549
45 P7 84 -6.154
45 P7 85 -1.272
45 P7 86 1.170
45 P7 87 1.170
45 P7 88 0.193
45 P7 89 0.682
45 P7 90 2.635
45 P7 91 5.564
45 P7 92 7.517
45 P7 93 7.517
45 P7 94 6.053
45 P7 95 3.611
45 P7 96 2.635
45 P7 97 1.658
45 P7 98 2.146
45 P7 99 2.146
45 P7 100 1.658
45 P7 101 1.170
45 P7 102 0.682
45 P7 103 1.170
45 P7 104 1.170
45 P7 105 1.170
45 P7 106 1.170
45 P7 107 0.682
45 P7 108 0.682
45 P7 109 0.682
45 P7 110 0.682
45 P7 111 0.193
45 P7 112 0.682
45 P7 113 1.170
45 P7 114 3.611
45 P7 115 6.053
45 P7 116 7.029
45 P7 117 5.564
45 P7 118 1.658
45 P7 119 -3.225
45 P7 120 -5.666
45 P7 121 -6.154
45 P7 122 -4.201
45 P7 123 -1.272
45 P7 124 1.658
45 P7 125 3.123
45 P7 126 4.588
45 P7 127 5.564
45 P7 128 6.053
45 P7 129 5.564
45 P7 130 5.076
45 P7 131 5.564
45 P7 132 7.029
45 P7 133 10.447
45 P7 134 13.377
45 P7 135 14.842
45 P7 136 13.377
45 P7 137 9.959
45 P7 138 5.564
45 P7 139 2.635
45 P7 140 0.682
45 P7 141 -0.295
45 P7 142 -2.248
45 P7 143 -4.690
45 P7 144 -7.131
45 P7 145 -7.619
45 P7 146 -6.643
45 P7 147 -5.178
45 P7 148 -4.690
45 P7 149 -4.690
45 P7 150 -5.178
45 P7 151 -4.201
45 P7 152 -1.760
45 P7 153 1.658
45 P7 154 4.100
45 P7 155 4.588
45 P7 156 3.123
45 P7 157 1.658
45 P7 158 1.170
45 P7 159 2.635
45 P7 160 4.100
45 P7 161 5.076
45 P7 162 4.588
45 P7 163 3.123
45 P7 164 0.682
45 P7 165 -1.760
45 P7 166 -3.225
45 P7 167 -3.225
45 P7 168 -1.272
45 P7 169 1.170
45 P7 170 4.588
45 P7 171 6.541
45 P7 172 8.006
45 P7 173 8.006
45 P7 174 7.517
45 P7 175 7.517
45 P7 176 8.006
45 P7 177 8.494
45 P7 178 8.982
45 P7 179 9.471
45 P7 180 9.959
45 P7 181 9.471
45 P7 182 8.494
45 P7 183 6.541
45 P7 184 3.611
45 P7 185 0.193
45 P7 186 -2.248
45 P7 187 -3.713
45 P7 188 -3.225
45 P7 189 -1.272
45 P7 190 1.658
45 P7 191 4.100
45 P7 192 4.588
45 P7 193 4.100
45 P7 194 2.635
45 P7 195 1.658
45 P7 196 2.635
45 P7 197 4.588
45 P7 198 6.053
45 P7 199 6.053
45 P7 200 4.100
45 P7 201 0.682
45 P7 202 -1.760
45 P7 203 -2.736
45 P7 204 -2.736
45 P7 205 -1.760
45 P7 206 -1.272
45 P7 207 -2.248
45 P7 208 -4.690
45 P7 209 -7.619
45 P7 210 -9.572
45 P7 211 -11.037
45 P7 212 -10.549
45 P7 213 -8.108
45 P7 214 -3.713
45 P7 215 2.146
45 P7 216 8.494
45 P7 217 13.377
45 P7 218 15.818
45 P7 219 14.353
45 P7 220 9.959
45 P7 221 4.588
45 P7 222 0.682
45 P7 223 -0.295
45 P7 224 1.170
45 P7 225 2.635
45 P7 226 3.123
45 P7 227 1.170
45 P7 228 -1.760
45 P7 229 -5.666
45 P7 230 -8.596
45 P7 231 -11.525
45 P7 232 -13.967
45 P7 233 -13.967
45 P7 234 -11.037
45 P7 235 -5.666
45 P7 236 1.658
45 P7 237 8.494
45 P7 238 12.400
45 P7 239 13.865
45 P7 240 12.400
45 P7 241 11.424
45 P7 242 11.424
45 P7 243 11.424
45 P7 244 10.935
45 P7 245 8.494
45 P7 246 3.611
45 P7 247 -2.248
45 P7 248 -8.596
45 P7 249 -14.455
45 P7 250 -18.361
45 P7 251 -19.338
45 P7 252 -18.361
45 P7 253 -16.897
45 P7 254 -15.920
45 P7 255 -17.385
# PO2 chan 27
45 PO2 0 3.133
45 PO2 1 4.110
45 PO2 2 4.598
45 PO2 3 4.598
45 PO2 4 5.086
45 PO2 5 6.063
45 PO2 6 8.016
45 PO2 7 9.481
45 PO2 8 10.457
45 PO2 9 9.969
45 PO2 10 8.993
45 PO2 11 8.504
45 PO2 12 8.016
45 PO2 13 8.016
45 PO2 14 8.016
45 PO2 15 6.551
45 PO2 16 5.086
45 PO2 17 4.598
45 PO2 18 5.086
45 PO2 19 7.528
45 PO2 20 11.434
45 PO2 21 14.364
45 PO2 22 15.828
45 PO2 23 14.852
45 PO2 24 12.410
45 PO2 25 10.457
45 PO2 26 10.457
45 PO2 27 12.899
45 PO2 28 16.805
45 PO2 29 20.223
45 PO2 30 20.711
45 PO2 31 16.805
45 PO2 32 10.457
45 PO2 33 3.133
45 PO2 34 -2.238
45 PO2 35 -3.703
45 PO2 36 -2.238
45 PO2 37 0.692
45 PO2 38 3.621
45 PO2 39 6.063
45 PO2 40 6.063
45 PO2 41 5.086
45 PO2 42 2.645
45 PO2 43 0.203
45 PO2 44 0.203
45 PO2 45 3.133
45 PO2 46 8.993
45 PO2 47 15.828
45 PO2 48 19.735
45 PO2 49 20.223
45 PO2 50 16.805
45 PO2 51 10.946
45 PO2 52 5.575
45 PO2 53 1.668
45 PO2 54 0.203
45 PO2 55 -0.285
45 PO2 56 -0.285
45 PO2 57 -0.285
45 PO2 58 -0.773
45 PO2 59 -1.750
45 PO2 60 -1.750
45 PO2 61 -0.773
45 PO2 62 1.668
45 PO2 63 6.063
45 PO2 64 10.946
45 PO2 65 15.828
45 PO2 66 18.758
45 PO2 67 19.246
45 PO2 68 17.782
45 PO2 69 14.364
45 PO2 70 10.457
45 PO2 71 7.528
45 PO2 72 5.086
45 PO2 73 3.621
45 PO2 74 2.157
45 PO2 75 1.180
45 PO2 76 0.203
45 PO2 77 -1.261
45 PO2 78 -4.191
45 PO2 79 -7.609
45 PO2 80 -10.539
45 PO2 81 -11.515
45 PO2 82 -9.074
45 PO2 83 -2.726
45 PO2 84 4.598
45 PO2 85 10.946
45 PO2 86 14.364
45 PO2 87 15.340
45 PO2 88 15.340
45 PO2 89 15.828
45 PO2 90 17.293
45 PO2 91 19.246
45 PO2 92 19.735
45 PO2 93 18.758
45 PO2 94 16.317
45 PO2 95 14.364
45 PO2 96 13.387
45 PO2 97 13.387
45 PO2 98 11.922
45 PO2 99 9.481
45 PO2 100 6.063
45 PO2 101 2.645
45 PO2 102 2.157
45 PO2 103 4.598
45 PO2 104 8.504
45 PO2 105 12.410
45 PO2 106 14.364
45 PO2 107 13.387
45 PO2 108 10.946
45 PO2 109 8.504
45 PO2 110 7.039
45 PO2 111 5.575
45 PO2 112 5.086
45 PO2 113 5.575
45 PO2 114 6.551
45 PO2 115 7.528
45 PO2 116 8.504
45 PO2 117 8.504
45 PO2 118 6.551
45 PO2 119 3.621
45 PO2 120 0.692
45 PO2 121 -0.773
45 PO2 122 -1.750
45 PO2 123 -1.750
45 PO2 124 -0.285
45 PO2 125 1.668
45 PO2 126 4.598
45 PO2 127 7.528
45 PO2 128 11.434
45 PO2 129 14.364
45 PO2 130 15.340
45 PO2 131 15.340
45 PO2 132 14.364
45 PO2 133 13.387
45 PO2 134 13.387
45 PO2 135 13.387
45 PO2 136 13.387
45 PO2 137 12.410
45 PO2 138 10.457
45 PO2 139 8.504
45 PO2 140 6.063
45 PO2 141 4.110
45 PO2 142 3.133
45 PO2 143 3.133
45 PO2 144 5.086
45 PO2 145 8.993
45 PO2 146 12.410
45 PO2 147 14.364
45 PO2 148 13.387
45 PO2 149 9.969
45 PO2 150 5.086
45 PO2 151 2.157
45 PO2 152 1.668
45 PO2 153 4.110
45 PO2 154 8.016
45 PO2 155 10.946
45 PO2 156 11.922
45 PO2 157 11.922
45 PO2 158 11.434
45 PO2 159 10.457
45 PO2 160 10.457
45 PO2 161 10.457
45 PO2 162 10.457
45 PO2 163 10.457
45 PO2 164 10.457
45 PO2 165 9.481
45 PO2 166 8.504
45 PO2 167 7.528
45 PO2 168 7.039
45 PO2 169 7.528
45 PO2 170 8.016
45 PO2 171 8.504
45 PO2 172 8.993
45 PO2 173 8.504
45 PO2 174 8.993
45 PO2 175 11.434
45 PO2 176 16.317
45 PO2 177 22.176
45 PO2 178 26.571
45 PO2 179 27.547
45 PO2 180 24.618
45 PO2 181 20.223
45 PO2 182 15.828
45 PO2 183 13.387
45 PO2 184 12.899
45 PO2 185 11.434
45 PO2 186 10.457
45 PO2 187 8.993
45 PO2 188 8.504
45 PO2 189 9.969
45 PO2 190 11.922
45 PO2 191 13.387
45 PO2 192 12.899
45 PO2 193 9.969
45 PO2 194 7.039
45 PO2 195 6.063
45 PO2 196 7.039
45 PO2 197 8.993
45 PO2 198 10.457
45 PO2 199 9.481
45 PO2 200 6.551
45 PO2 201 3.133
45 PO2 202 0.203
45 PO2 203 -0.773
45 PO2 204 0.203
45 PO2 205 1.180
45 PO2 206 2.157
45 PO2 207 1.180
45 PO2 208 -0.773
45 PO2 209 -2.238
45 PO2 210 -2.726
45 PO2 211 -0.773
45 PO2 212 3.133
45 PO2 213 7.039
45 PO2 214 11.434
45 PO2 215 15.340
45 PO2 216 19.735
45 PO2 217 23.153
45 PO2 218 24.618
45 PO2 219 21.688
45 PO2 220 14.852
45 PO2 221 5.575
45 PO2 222 -2.726
45 PO2 223 -7.121
45 PO2 224 -8.097
45 PO2 225 -7.121
45 PO2 226 -7.121
45 PO2 227 -10.050
45 PO2 228 -13.468
45 PO2 229 -14.933
45 PO2 230 -13.468
45 PO2 231 -9.074
45 PO2 232 -3.215
45 PO2 233 1.180
45 PO2 234 4.110
45 PO2 235 6.551
45 PO2 236 10.457
45 PO2 237 14.852
45 PO2 238 18.270
45 PO2 239 19.735
45 PO2 240 17.782
45 PO2 241 12.899
