# co2a0000438.rd
# 120 trials, 64 chans, 416 samples 368 post_stim samples
# 3.906000 msecs uV
# S1 obj , trial 26
# FP1 chan 0
26 FP1 0 0.753
26 FP1 1 2.706
26 FP1 2 3.194
26 FP1 3 1.729
26 FP1 4 0.264
26 FP1 5 0.264
26 FP1 6 1.241
26 FP1 7 1.729
26 FP1 8 1.729
26 FP1 9 1.241
26 FP1 10 1.241
26 FP1 11 2.218
26 FP1 12 3.682
26 FP1 13 4.659
26 FP1 14 4.171
26 FP1 15 2.706
26 FP1 16 1.729
26 FP1 17 2.218
26 FP1 18 3.194
26 FP1 19 4.171
26 FP1 20 4.659
26 FP1 21 4.659
26 FP1 22 5.147
26 FP1 23 5.147
26 FP1 24 5.147
26 FP1 25 4.171
26 FP1 26 2.706
26 FP1 27 2.218
26 FP1 28 3.682
26 FP1 29 6.612
26 FP1 30 10.030
26 FP1 31 11.983
26 FP1 32 11.983
26 FP1 33 10.518
26 FP1 34 9.542
26 FP1 35 8.565
26 FP1 36 8.565
26 FP1 37 9.054
26 FP1 38 8.565
26 FP1 39 8.565
26 FP1 40 9.542
26 FP1 41 10.518
26 FP1 42 11.007
26 FP1 43 10.518
26 FP1 44 8.077
26 FP1 45 6.124
26 FP1 46 4.659
26 FP1 47 5.147
26 FP1 48 7.589
26 FP1 49 11.495
26 FP1 50 14.913
26 FP1 51 17.843
26 FP1 52 18.331
26 FP1 53 17.843
26 FP1 54 15.889
26 FP1 55 14.425
26 FP1 56 12.472
26 FP1 57 11.495
26 FP1 58 9.542
26 FP1 59 8.077
26 FP1 60 7.589
26 FP1 61 8.077
26 FP1 62 10.030
26 FP1 63 11.983
26 FP1 64 12.472
26 FP1 65 11.007
26 FP1 66 9.054
26 FP1 67 7.100
26 FP1 68 7.100
26 FP1 69 9.054
26 FP1 70 11.495
26 FP1 71 13.936
26 FP1 72 14.913
26 FP1 73 13.936
26 FP1 74 12.472
26 FP1 75 10.518
26 FP1 76 10.518
26 FP1 77 11.983
26 FP1 78 14.425
26 FP1 79 15.889
26 FP1 80 16.378
26 FP1 81 14.913
26 FP1 82 13.936
26 FP1 83 12.960
26 FP1 84 12.472
26 FP1 85 11.983
26 FP1 86 11.007
26 FP1 87 10.518
26 FP1 88 10.518
26 FP1 89 10.030
26 FP1 90 9.542
26 FP1 91 7.589
26 FP1 92 5.147
26 FP1 93 3.682
26 FP1 94 3.194
26 FP1 95 4.171
26 FP1 96 5.147
26 FP1 97 4.659
26 FP1 98 3.682
26 FP1 99 1.729
26 FP1 100 1.729
26 FP1 101 3.682
26 FP1 102 5.147
26 FP1 103 6.612
26 FP1 104 6.612
26 FP1 105 7.100
26 FP1 106 8.565
26 FP1 107 10.518
26 FP1 108 12.960
26 FP1 109 13.448
26 FP1 110 11.983
26 FP1 111 10.030
26 FP1 112 8.565
26 FP1 113 9.054
26 FP1 114 11.007
26 FP1 115 11.983
26 FP1 116 11.007
26 FP1 117 8.077
26 FP1 118 4.659
26 FP1 119 3.194
26 FP1 120 3.682
26 FP1 121 7.100
26 FP1 122 11.007
26 FP1 123 13.448
26 FP1 124 14.913
26 FP1 125 13.936
26 FP1 126 12.960
26 FP1 127 11.983
26 FP1 128 12.472
26 FP1 129 13.448
26 FP1 130 13.936
26 FP1 131 12.960
26 FP1 132 11.983
26 FP1 133 10.518
26 FP1 134 10.030
26 FP1 135 10.518
26 FP1 136 10.518
26 FP1 137 9.542
26 FP1 138 7.589
26 FP1 139 6.124
26 FP1 140 5.636
26 FP1 141 6.612
26 FP1 142 7.589
26 FP1 143 8.077
26 FP1 144 6.612
26 FP1 145 4.171
26 FP1 146 1.729
26 FP1 147 0.753
26 FP1 148 1.729
26 FP1 149 4.171
26 FP1 150 6.124
26 FP1 151 6.612
26 FP1 152 5.147
26 FP1 153 2.706
26 FP1 154 1.241
26 FP1 155 2.218
26 FP1 156 5.636
26 FP1 157 9.054
26 FP1 158 10.030
26 FP1 159 8.077
26 FP1 160 5.147
26 FP1 161 3.194
26 FP1 162 2.706
26 FP1 163 3.682
26 FP1 164 5.147
26 FP1 165 6.124
26 FP1 166 7.100
26 FP1 167 9.542
26 FP1 168 12.472
26 FP1 169 14.913
26 FP1 170 15.889
26 FP1 171 14.913
26 FP1 172 13.448
26 FP1 173 13.448
26 FP1 174 14.913
26 FP1 175 18.331
26 FP1 176 20.772
26 FP1 177 21.749
26 FP1 178 20.772
26 FP1 179 18.819
26 FP1 180 16.866
26 FP1 181 14.913
26 FP1 182 12.472
26 FP1 183 10.030
26 FP1 184 9.054
26 FP1 185 10.030
26 FP1 186 12.960
26 FP1 187 15.889
26 FP1 188 16.866
26 FP1 189 15.401
26 FP1 190 12.472
26 FP1 191 10.518
26 FP1 192 10.518
26 FP1 193 11.495
26 FP1 194 12.960
26 FP1 195 12.960
26 FP1 196 11.983
26 FP1 197 11.495
26 FP1 198 12.472
26 FP1 199 14.425
26 FP1 200 16.866
26 FP1 201 17.354
26 FP1 202 15.889
26 FP1 203 13.448
26 FP1 204 11.007
26 FP1 205 10.030
26 FP1 206 10.030
26 FP1 207 10.518
26 FP1 208 11.495
26 FP1 209 12.472
26 FP1 210 13.936
26 FP1 211 15.889
26 FP1 212 17.843
26 FP1 213 18.331
26 FP1 214 18.331
26 FP1 215 17.354
26 FP1 216 16.866
26 FP1 217 16.378
26 FP1 218 16.378
26 FP1 219 14.913
26 FP1 220 13.936
26 FP1 221 13.936
26 FP1 222 14.913
26 FP1 223 17.843
26 FP1 224 20.284
26 FP1 225 21.261
26 FP1 226 21.261
26 FP1 227 19.796
26 FP1 228 19.307
26 FP1 229 19.796
26 FP1 230 20.772
26 FP1 231 21.749
26 FP1 232 21.749
26 FP1 233 21.261
26 FP1 234 20.284
26 FP1 235 19.796
26 FP1 236 19.307
26 FP1 237 19.307
26 FP1 238 19.307
26 FP1 239 18.331
26 FP1 240 17.843
26 FP1 241 17.843
26 FP1 242 18.331
26 FP1 243 20.772
26 FP1 244 22.725
26 FP1 245 24.190
26 FP1 246 23.702
26 FP1 247 22.237
26 FP1 248 21.261
26 FP1 249 20.772
26 FP1 250 21.749
26 FP1 251 23.214
26 FP1 252 24.679
26 FP1 253 24.190
26 FP1 254 23.214
26 FP1 255 22.725
# FP2 chan 1
26 FP2 0 -4.883
26 FP2 1 -3.418
26 FP2 2 -3.418
26 FP2 3 -4.883
26 FP2 4 -5.859
26 FP2 5 -6.348
26 FP2 6 -6.348
26 FP2 7 -6.348
26 FP2 8 -6.348
26 FP2 9 -5.371
26 FP2 10 -2.930
26 FP2 11 0.000
26 FP2 12 1.465
26 FP2 13 1.465
26 FP2 14 -0.977
26 FP2 15 -2.930
26 FP2 16 -3.418
26 FP2 17 -1.953
26 FP2 18 0.488
26 FP2 19 1.465
26 FP2 20 0.977
26 FP2 21 0.000
26 FP2 22 -0.488
26 FP2 23 0.488
26 FP2 24 0.977
26 FP2 25 0.000
26 FP2 26 -1.953
26 FP2 27 -3.418
26 FP2 28 -1.953
26 FP2 29 2.441
26 FP2 30 6.836
26 FP2 31 9.766
26 FP2 32 9.277
26 FP2 33 7.812
26 FP2 34 6.348
26 FP2 35 6.836
26 FP2 36 8.301
26 FP2 37 8.789
26 FP2 38 7.812
26 FP2 39 5.371
26 FP2 40 4.395
26 FP2 41 4.883
26 FP2 42 5.859
26 FP2 43 6.348
26 FP2 44 5.371
26 FP2 45 3.906
26 FP2 46 2.930
26 FP2 47 3.906
26 FP2 48 6.348
26 FP2 49 8.301
26 FP2 50 10.254
26 FP2 51 12.207
26 FP2 52 13.672
26 FP2 53 15.137
26 FP2 54 15.625
26 FP2 55 13.184
26 FP2 56 9.766
26 FP2 57 6.348
26 FP2 58 5.371
26 FP2 59 6.836
26 FP2 60 11.230
26 FP2 61 14.648
26 FP2 62 15.625
26 FP2 63 14.160
26 FP2 64 12.207
26 FP2 65 10.254
26 FP2 66 9.766
26 FP2 67 11.230
26 FP2 68 13.672
26 FP2 69 15.625
26 FP2 70 17.578
26 FP2 71 18.555
26 FP2 72 18.066
26 FP2 73 16.602
26 FP2 74 13.184
26 FP2 75 10.254
26 FP2 76 9.766
26 FP2 77 11.719
26 FP2 78 15.625
26 FP2 79 17.578
26 FP2 80 17.578
26 FP2 81 15.137
26 FP2 82 12.695
26 FP2 83 11.719
26 FP2 84 11.719
26 FP2 85 10.742
26 FP2 86 7.812
26 FP2 87 3.906
26 FP2 88 1.465
26 FP2 89 1.465
26 FP2 90 3.906
26 FP2 91 4.883
26 FP2 92 3.906
26 FP2 93 0.977
26 FP2 94 -1.465
26 FP2 95 -0.977
26 FP2 96 1.465
26 FP2 97 3.906
26 FP2 98 4.883
26 FP2 99 3.906
26 FP2 100 2.930
26 FP2 101 3.906
26 FP2 102 5.371
26 FP2 103 6.348
26 FP2 104 6.348
26 FP2 105 6.348
26 FP2 106 7.812
26 FP2 107 11.230
26 FP2 108 15.625
26 FP2 109 17.578
26 FP2 110 16.113
26 FP2 111 11.230
26 FP2 112 6.348
26 FP2 113 4.883
26 FP2 114 6.348
26 FP2 115 8.301
26 FP2 116 9.766
26 FP2 117 8.301
26 FP2 118 6.348
26 FP2 119 4.883
26 FP2 120 5.371
26 FP2 121 7.324
26 FP2 122 10.254
26 FP2 123 12.695
26 FP2 124 15.137
26 FP2 125 17.090
26 FP2 126 18.066
26 FP2 127 17.578
26 FP2 128 16.113
26 FP2 129 14.160
26 FP2 130 13.184
26 FP2 131 13.184
26 FP2 132 14.160
26 FP2 133 15.137
26 FP2 134 15.137
26 FP2 135 15.137
26 FP2 136 14.160
26 FP2 137 13.184
26 FP2 138 11.230
26 FP2 139 9.277
26 FP2 140 7.324
26 FP2 141 6.836
26 FP2 142 7.812
26 FP2 143 9.277
26 FP2 144 10.742
26 FP2 145 10.254
26 FP2 146 8.301
26 FP2 147 5.859
26 FP2 148 4.395
26 FP2 149 4.395
26 FP2 150 6.348
26 FP2 151 7.812
26 FP2 152 7.812
26 FP2 153 6.348
26 FP2 154 4.883
26 FP2 155 4.395
26 FP2 156 5.371
26 FP2 157 7.812
26 FP2 158 10.254
26 FP2 159 10.742
26 FP2 160 9.766
26 FP2 161 6.836
26 FP2 162 4.395
26 FP2 163 2.441
26 FP2 164 2.441
26 FP2 165 4.395
26 FP2 166 7.324
26 FP2 167 9.277
26 FP2 168 10.254
26 FP2 169 8.789
26 FP2 170 6.836
26 FP2 171 5.859
26 FP2 172 7.324
26 FP2 173 10.742
26 FP2 174 15.137
26 FP2 175 18.066
26 FP2 176 18.555
26 FP2 177 17.090
26 FP2 178 14.160
26 FP2 179 12.207
26 FP2 180 9.277
26 FP2 181 6.348
26 FP2 182 2.441
26 FP2 183 -0.488
26 FP2 184 -1.953
26 FP2 185 -0.977
26 FP2 186 1.953
26 FP2 187 4.883
26 FP2 188 6.348
26 FP2 189 5.859
26 FP2 190 4.395
26 FP2 191 3.418
26 FP2 192 3.906
26 FP2 193 6.348
26 FP2 194 7.812
26 FP2 195 8.789
26 FP2 196 8.301
26 FP2 197 6.836
26 FP2 198 5.371
26 FP2 199 5.371
26 FP2 200 6.836
26 FP2 201 8.301
26 FP2 202 9.277
26 FP2 203 8.301
26 FP2 204 6.348
26 FP2 205 3.906
26 FP2 206 2.930
26 FP2 207 4.395
26 FP2 208 7.324
26 FP2 209 10.254
26 FP2 210 11.719
26 FP2 211 11.719
26 FP2 212 10.254
26 FP2 213 8.789
26 FP2 214 8.301
26 FP2 215 8.789
26 FP2 216 10.254
26 FP2 217 10.254
26 FP2 218 9.766
26 FP2 219 8.301
26 FP2 220 8.301
26 FP2 221 9.277
26 FP2 222 11.719
26 FP2 223 13.184
26 FP2 224 12.207
26 FP2 225 9.766
26 FP2 226 7.324
26 FP2 227 7.324
26 FP2 228 9.766
26 FP2 229 12.695
26 FP2 230 14.160
26 FP2 231 14.160
26 FP2 232 12.695
26 FP2 233 11.719
26 FP2 234 12.695
26 FP2 235 15.137
26 FP2 236 17.578
26 FP2 237 18.555
26 FP2 238 17.090
26 FP2 239 14.648
26 FP2 240 12.207
26 FP2 241 11.230
26 FP2 242 11.719
26 FP2 243 13.184
26 FP2 244 14.648
26 FP2 245 15.137
26 FP2 246 16.113
26 FP2 247 17.090
26 FP2 248 17.578
26 FP2 249 17.578
26 FP2 250 16.113
26 FP2 251 13.184
26 FP2 252 9.766
26 FP2 253 7.812
26 FP2 254 9.277
26 FP2 255 12.207
# F7 chan 2
26 F7 0 -7.924
26 F7 1 -5.971
26 F7 2 -6.460
26 F7 3 -11.342
26 F7 4 -18.178
26 F7 5 -24.526
26 F7 6 -25.991
26 F7 7 -22.573
26 F7 8 -17.202
26 F7 9 -13.295
26 F7 10 -13.295
26 F7 11 -15.737
26 F7 12 -17.690
26 F7 13 -17.202
26 F7 14 -14.760
26 F7 15 -12.319
26 F7 16 -13.295
26 F7 17 -16.713
26 F7 18 -20.131
26 F7 19 -20.131
26 F7 20 -16.713
26 F7 21 -10.854
26 F7 22 -6.460
26 F7 23 -5.483
26 F7 24 -7.924
26 F7 25 -10.854
26 F7 26 -12.807
26 F7 27 -12.319
26 F7 28 -9.389
26 F7 29 -6.948
26 F7 30 -6.460
26 F7 31 -7.436
26 F7 32 -8.901
26 F7 33 -9.389
26 F7 34 -8.413
26 F7 35 -8.901
26 F7 36 -11.342
26 F7 37 -15.737
26 F7 38 -19.155
26 F7 39 -17.202
26 F7 40 -10.854
26 F7 41 -4.018
26 F7 42 -1.088
26 F7 43 -4.018
26 F7 44 -10.366
26 F7 45 -16.225
26 F7 46 -17.690
26 F7 47 -15.249
26 F7 48 -10.854
26 F7 49 -6.948
26 F7 50 -4.995
26 F7 51 -3.530
26 F7 52 -2.553
26 F7 53 -2.065
26 F7 54 -2.065
26 F7 55 -2.553
26 F7 56 -4.018
26 F7 57 -7.436
26 F7 58 -11.342
26 F7 59 -13.295
26 F7 60 -11.342
26 F7 61 -4.995
26 F7 62 2.330
26 F7 63 6.724
26 F7 64 5.747
26 F7 65 0.376
26 F7 66 -6.460
26 F7 67 -9.878
26 F7 68 -9.878
26 F7 69 -7.924
26 F7 70 -5.483
26 F7 71 -3.042
26 F7 72 -0.112
26 F7 73 2.818
26 F7 74 4.283
26 F7 75 3.306
26 F7 76 0.376
26 F7 77 -1.577
26 F7 78 -1.577
26 F7 79 0.865
26 F7 80 3.306
26 F7 81 3.306
26 F7 82 0.865
26 F7 83 -1.577
26 F7 84 -2.065
26 F7 85 -0.600
26 F7 86 1.353
26 F7 87 2.818
26 F7 88 1.841
26 F7 89 -0.112
26 F7 90 -2.065
26 F7 91 -3.530
26 F7 92 -4.995
26 F7 93 -4.995
26 F7 94 -4.506
26 F7 95 -3.530
26 F7 96 -4.506
26 F7 97 -6.948
26 F7 98 -9.389
26 F7 99 -8.901
26 F7 100 -4.995
26 F7 101 0.376
26 F7 102 4.283
26 F7 103 3.794
26 F7 104 -0.112
26 F7 105 -3.530
26 F7 106 -4.018
26 F7 107 -1.577
26 F7 108 1.841
26 F7 109 2.330
26 F7 110 0.865
26 F7 111 -1.088
26 F7 112 -1.577
26 F7 113 -0.112
26 F7 114 1.353
26 F7 115 1.353
26 F7 116 -0.600
26 F7 117 -4.018
26 F7 118 -7.436
26 F7 119 -9.389
26 F7 120 -9.389
26 F7 121 -6.948
26 F7 122 -2.553
26 F7 123 1.841
26 F7 124 4.283
26 F7 125 3.794
26 F7 126 0.376
26 F7 127 -3.042
26 F7 128 -4.506
26 F7 129 -3.042
26 F7 130 -0.600
26 F7 131 0.865
26 F7 132 0.376
26 F7 133 -2.065
26 F7 134 -4.995
26 F7 135 -7.436
26 F7 136 -8.413
26 F7 137 -7.436
26 F7 138 -5.483
26 F7 139 -3.042
26 F7 140 -1.577
26 F7 141 -2.065
26 F7 142 -4.995
26 F7 143 -7.436
26 F7 144 -8.901
26 F7 145 -6.948
26 F7 146 -4.018
26 F7 147 -1.088
26 F7 148 0.376
26 F7 149 -0.112
26 F7 150 -1.088
26 F7 151 -2.065
26 F7 152 -3.530
26 F7 153 -5.483
26 F7 154 -7.436
26 F7 155 -8.413
26 F7 156 -6.948
26 F7 157 -4.506
26 F7 158 -2.065
26 F7 159 -1.088
26 F7 160 -2.065
26 F7 161 -4.506
26 F7 162 -6.948
26 F7 163 -8.901
26 F7 164 -10.854
26 F7 165 -13.295
26 F7 166 -15.249
26 F7 167 -14.760
26 F7 168 -9.389
26 F7 169 -0.600
26 F7 170 7.212
26 F7 171 9.165
26 F7 172 3.794
26 F7 173 -5.971
26 F7 174 -12.319
26 F7 175 -12.319
26 F7 176 -5.483
26 F7 177 1.353
26 F7 178 3.306
26 F7 179 -1.088
26 F7 180 -7.436
26 F7 181 -10.366
26 F7 182 -7.924
26 F7 183 -2.065
26 F7 184 0.865
26 F7 185 -1.088
26 F7 186 -6.460
26 F7 187 -9.878
26 F7 188 -8.413
26 F7 189 -2.065
26 F7 190 3.306
26 F7 191 3.794
26 F7 192 -1.088
26 F7 193 -6.948
26 F7 194 -8.901
26 F7 195 -6.460
26 F7 196 -2.065
26 F7 197 -0.112
26 F7 198 -1.088
26 F7 199 -2.065
26 F7 200 -1.088
26 F7 201 2.818
26 F7 202 5.747
26 F7 203 4.283
26 F7 204 -1.577
26 F7 205 -7.924
26 F7 206 -12.319
26 F7 207 -12.319
26 F7 208 -10.854
26 F7 209 -8.901
26 F7 210 -5.971
26 F7 211 -1.577
26 F7 212 4.771
26 F7 213 10.142
26 F7 214 11.119
26 F7 215 7.701
26 F7 216 1.841
26 F7 217 -3.042
26 F7 218 -4.018
26 F7 219 -2.553
26 F7 220 -2.065
26 F7 221 -3.530
26 F7 222 -4.506
26 F7 223 -3.042
26 F7 224 1.841
26 F7 225 6.724
26 F7 226 8.677
26 F7 227 5.747
26 F7 228 -0.112
26 F7 229 -5.483
26 F7 230 -7.924
26 F7 231 -6.460
26 F7 232 -3.530
26 F7 233 -1.088
26 F7 234 0.376
26 F7 235 0.865
26 F7 236 0.376
26 F7 237 -0.112
26 F7 238 -0.600
26 F7 239 -1.088
26 F7 240 -1.577
26 F7 241 -2.065
26 F7 242 -2.553
26 F7 243 -3.042
26 F7 244 -4.018
26 F7 245 -4.018
26 F7 246 -3.042
26 F7 247 -0.600
26 F7 248 1.841
26 F7 249 2.818
26 F7 250 1.841
26 F7 251 -1.088
26 F7 252 -3.042
26 F7 253 -3.042
26 F7 254 -1.088
26 F7 255 0.865
# F8 chan 3
26 F8 0 -1.058
26 F8 1 -1.058
26 F8 2 -0.570
26 F8 3 0.407
26 F8 4 0.895
26 F8 5 0.407
26 F8 6 -1.546
26 F8 7 -3.988
26 F8 8 -4.964
26 F8 9 -4.964
26 F8 10 -2.523
26 F8 11 -1.058
26 F8 12 0.407
26 F8 13 0.407
26 F8 14 0.895
26 F8 15 1.872
26 F8 16 3.825
26 F8 17 5.290
26 F8 18 4.801
26 F8 19 2.360
26 F8 20 -1.546
26 F8 21 -4.476
26 F8 22 -4.476
26 F8 23 -2.523
26 F8 24 -0.570
26 F8 25 -0.570
26 F8 26 -2.523
26 F8 27 -4.476
26 F8 28 -3.499
26 F8 29 -0.081
26 F8 30 5.290
26 F8 31 9.196
26 F8 32 10.173
26 F8 33 9.684
26 F8 34 8.708
26 F8 35 8.708
26 F8 36 8.708
26 F8 37 7.731
26 F8 38 5.778
26 F8 39 3.825
26 F8 40 4.313
26 F8 41 6.266
26 F8 42 9.684
26 F8 43 12.126
26 F8 44 12.126
26 F8 45 10.661
26 F8 46 8.219
26 F8 47 6.755
26 F8 48 5.778
26 F8 49 6.755
26 F8 50 9.684
26 F8 51 14.079
26 F8 52 18.473
26 F8 53 19.938
26 F8 54 17.497
26 F8 55 12.126
26 F8 56 7.243
26 F8 57 5.778
26 F8 58 8.219
26 F8 59 12.614
26 F8 60 15.544
26 F8 61 15.544
26 F8 62 12.126
26 F8 63 9.684
26 F8 64 9.196
26 F8 65 11.637
26 F8 66 14.079
26 F8 67 15.055
26 F8 68 14.567
26 F8 69 13.590
26 F8 70 14.079
26 F8 71 15.544
26 F8 72 17.008
26 F8 73 17.008
26 F8 74 16.032
26 F8 75 15.544
26 F8 76 15.544
26 F8 77 17.008
26 F8 78 18.473
26 F8 79 17.985
26 F8 80 16.520
26 F8 81 15.055
26 F8 82 15.544
26 F8 83 17.008
26 F8 84 17.497
26 F8 85 15.055
26 F8 86 10.661
26 F8 87 5.778
26 F8 88 3.825
26 F8 89 5.778
26 F8 90 9.196
26 F8 91 10.173
26 F8 92 7.731
26 F8 93 3.337
26 F8 94 -0.081
26 F8 95 -0.081
26 F8 96 1.872
26 F8 97 3.825
26 F8 98 3.825
26 F8 99 3.825
26 F8 100 5.290
26 F8 101 7.731
26 F8 102 10.173
26 F8 103 10.173
26 F8 104 8.219
26 F8 105 7.243
26 F8 106 8.219
26 F8 107 11.637
26 F8 108 14.567
26 F8 109 14.567
26 F8 110 10.173
26 F8 111 4.801
26 F8 112 1.872
26 F8 113 2.848
26 F8 114 6.266
26 F8 115 9.196
26 F8 116 10.173
26 F8 117 9.196
26 F8 118 7.731
26 F8 119 7.731
26 F8 120 9.196
26 F8 121 10.661
26 F8 122 12.126
26 F8 123 14.079
26 F8 124 16.520
26 F8 125 19.450
26 F8 126 22.380
26 F8 127 23.844
26 F8 128 22.868
26 F8 129 20.426
26 F8 130 17.497
26 F8 131 16.032
26 F8 132 16.032
26 F8 133 16.520
26 F8 134 17.008
26 F8 135 16.032
26 F8 136 14.567
26 F8 137 13.590
26 F8 138 13.102
26 F8 139 13.590
26 F8 140 15.055
26 F8 141 17.008
26 F8 142 18.473
26 F8 143 19.450
26 F8 144 19.450
26 F8 145 17.985
26 F8 146 15.055
26 F8 147 11.149
26 F8 148 8.219
26 F8 149 6.755
26 F8 150 7.243
26 F8 151 8.219
26 F8 152 8.708
26 F8 153 8.219
26 F8 154 7.243
26 F8 155 7.243
26 F8 156 9.196
26 F8 157 12.614
26 F8 158 15.055
26 F8 159 15.055
26 F8 160 11.149
26 F8 161 6.266
26 F8 162 1.872
26 F8 163 0.407
26 F8 164 1.872
26 F8 165 4.313
26 F8 166 5.778
26 F8 167 6.266
26 F8 168 5.778
26 F8 169 5.778
26 F8 170 6.755
26 F8 171 8.708
26 F8 172 10.173
26 F8 173 12.126
26 F8 174 13.590
26 F8 175 15.055
26 F8 176 16.032
26 F8 177 16.032
26 F8 178 14.079
26 F8 179 11.149
26 F8 180 7.731
26 F8 181 4.313
26 F8 182 1.872
26 F8 183 0.407
26 F8 184 0.407
26 F8 185 0.895
26 F8 186 1.872
26 F8 187 2.360
26 F8 188 2.360
26 F8 189 2.360
26 F8 190 3.337
26 F8 191 5.290
26 F8 192 7.243
26 F8 193 8.219
26 F8 194 7.243
26 F8 195 4.801
26 F8 196 2.360
26 F8 197 2.360
26 F8 198 4.801
26 F8 199 8.219
26 F8 200 10.661
26 F8 201 9.684
26 F8 202 7.243
26 F8 203 4.801
26 F8 204 3.825
26 F8 205 5.290
26 F8 206 7.243
26 F8 207 7.243
26 F8 208 6.266
26 F8 209 5.290
26 F8 210 5.290
26 F8 211 6.266
26 F8 212 6.755
26 F8 213 5.290
26 F8 214 3.337
26 F8 215 1.872
26 F8 216 1.383
26 F8 217 1.872
26 F8 218 2.360
26 F8 219 1.383
26 F8 220 0.407
26 F8 221 -0.081
26 F8 222 0.407
26 F8 223 0.895
26 F8 224 1.383
26 F8 225 1.383
26 F8 226 1.872
26 F8 227 3.337
26 F8 228 5.290
26 F8 229 6.266
26 F8 230 6.266
26 F8 231 5.778
26 F8 232 5.290
26 F8 233 5.290
26 F8 234 5.778
26 F8 235 6.266
26 F8 236 7.731
26 F8 237 8.708
26 F8 238 9.196
26 F8 239 9.196
26 F8 240 8.219
26 F8 241 6.755
26 F8 242 4.313
26 F8 243 3.337
26 F8 244 2.848
26 F8 245 3.825
26 F8 246 6.266
26 F8 247 8.219
26 F8 248 9.684
26 F8 249 9.196
26 F8 250 8.219
26 F8 251 7.243
26 F8 252 6.755
26 F8 253 7.731
26 F8 254 8.708
26 F8 255 9.196
# AF1 chan 4
26 AF1 0 -2.482
26 AF1 1 -1.506
26 AF1 2 -1.506
26 AF1 3 -2.970
26 AF1 4 -4.435
26 AF1 5 -4.924
26 AF1 6 -4.435
26 AF1 7 -3.459
26 AF1 8 -2.482
26 AF1 9 -2.482
26 AF1 10 -1.994
26 AF1 11 -1.994
26 AF1 12 -1.506
26 AF1 13 -1.506
26 AF1 14 -2.482
26 AF1 15 -3.947
26 AF1 16 -4.924
26 AF1 17 -4.924
26 AF1 18 -3.947
26 AF1 19 -2.970
26 AF1 20 -1.994
26 AF1 21 -0.529
26 AF1 22 0.936
26 AF1 23 2.401
26 AF1 24 3.377
26 AF1 25 2.889
26 AF1 26 0.936
26 AF1 27 -1.017
26 AF1 28 -0.529
26 AF1 29 1.424
26 AF1 30 5.330
26 AF1 31 7.284
26 AF1 32 7.284
26 AF1 33 5.819
26 AF1 34 3.866
26 AF1 35 2.889
26 AF1 36 2.889
26 AF1 37 2.889
26 AF1 38 2.401
26 AF1 39 2.889
26 AF1 40 2.889
26 AF1 41 4.842
26 AF1 42 5.819
26 AF1 43 5.330
26 AF1 44 3.866
26 AF1 45 2.401
26 AF1 46 1.912
26 AF1 47 2.401
26 AF1 48 4.354
26 AF1 49 6.795
26 AF1 50 8.748
26 AF1 51 9.237
26 AF1 52 9.237
26 AF1 53 8.748
26 AF1 54 7.772
26 AF1 55 7.284
26 AF1 56 6.307
26 AF1 57 5.330
26 AF1 58 4.354
26 AF1 59 3.866
26 AF1 60 4.842
26 AF1 61 6.307
26 AF1 62 7.284
26 AF1 63 6.795
26 AF1 64 4.842
26 AF1 65 2.401
26 AF1 66 0.448
26 AF1 67 0.448
26 AF1 68 1.912
26 AF1 69 4.354
26 AF1 70 7.284
26 AF1 71 8.748
26 AF1 72 9.237
26 AF1 73 8.260
26 AF1 74 6.307
26 AF1 75 3.866
26 AF1 76 2.889
26 AF1 77 3.866
26 AF1 78 5.819
26 AF1 79 8.260
26 AF1 80 9.725
26 AF1 81 8.748
26 AF1 82 6.795
26 AF1 83 5.330
26 AF1 84 4.842
26 AF1 85 5.819
26 AF1 86 6.307
26 AF1 87 6.307
26 AF1 88 6.307
26 AF1 89 6.307
26 AF1 90 6.795
26 AF1 91 7.284
26 AF1 92 6.795
26 AF1 93 5.819
26 AF1 94 4.354
26 AF1 95 3.866
26 AF1 96 4.354
26 AF1 97 4.842
26 AF1 98 4.354
26 AF1 99 2.889
26 AF1 100 0.936
26 AF1 101 -0.041
26 AF1 102 0.448
26 AF1 103 2.401
26 AF1 104 3.866
26 AF1 105 4.842
26 AF1 106 5.330
26 AF1 107 5.819
26 AF1 108 6.307
26 AF1 109 6.307
26 AF1 110 5.819
26 AF1 111 4.842
26 AF1 112 3.866
26 AF1 113 3.377
26 AF1 114 2.889
26 AF1 115 2.401
26 AF1 116 0.936
26 AF1 117 -0.041
26 AF1 118 -1.017
26 AF1 119 -1.506
26 AF1 120 -0.529
26 AF1 121 1.424
26 AF1 122 3.377
26 AF1 123 5.819
26 AF1 124 6.795
26 AF1 125 7.284
26 AF1 126 7.284
26 AF1 127 5.819
26 AF1 128 4.354
26 AF1 129 3.866
26 AF1 130 3.866
26 AF1 131 4.354
26 AF1 132 4.842
26 AF1 133 4.842
26 AF1 134 3.866
26 AF1 135 1.912
26 AF1 136 0.936
26 AF1 137 -0.041
26 AF1 138 -0.041
26 AF1 139 0.936
26 AF1 140 1.424
26 AF1 141 1.912
26 AF1 142 1.912
26 AF1 143 0.936
26 AF1 144 -0.041
26 AF1 145 -1.506
26 AF1 146 -2.482
26 AF1 147 -3.459
26 AF1 148 -3.459
26 AF1 149 -2.970
26 AF1 150 -1.506
26 AF1 151 -0.529
26 AF1 152 -0.041
26 AF1 153 -0.529
26 AF1 154 -1.506
26 AF1 155 -1.017
26 AF1 156 -0.041
26 AF1 157 1.424
26 AF1 158 1.912
26 AF1 159 1.424
26 AF1 160 -0.041
26 AF1 161 -1.017
26 AF1 162 -0.529
26 AF1 163 0.936
26 AF1 164 1.424
26 AF1 165 0.936
26 AF1 166 -0.041
26 AF1 167 -1.017
26 AF1 168 0.448
26 AF1 169 2.889
26 AF1 170 5.330
26 AF1 171 6.795
26 AF1 172 5.819
26 AF1 173 4.354
26 AF1 174 3.866
26 AF1 175 4.842
26 AF1 176 7.284
26 AF1 177 9.237
26 AF1 178 9.725
26 AF1 179 7.772
26 AF1 180 3.866
26 AF1 181 -0.529
26 AF1 182 -2.970
26 AF1 183 -2.970
26 AF1 184 -0.529
26 AF1 185 2.401
26 AF1 186 4.354
26 AF1 187 4.842
26 AF1 188 2.401
26 AF1 189 -0.041
26 AF1 190 -1.994
26 AF1 191 -1.994
26 AF1 192 -1.017
26 AF1 193 -0.041
26 AF1 194 0.448
26 AF1 195 -0.041
26 AF1 196 -0.529
26 AF1 197 -0.529
26 AF1 198 -0.041
26 AF1 199 1.424
26 AF1 200 2.889
26 AF1 201 3.866
26 AF1 202 3.866
26 AF1 203 2.401
26 AF1 204 -0.041
26 AF1 205 -2.970
26 AF1 206 -4.435
26 AF1 207 -5.412
26 AF1 208 -4.435
26 AF1 209 -2.482
26 AF1 210 -0.529
26 AF1 211 1.912
26 AF1 212 2.889
26 AF1 213 3.866
26 AF1 214 3.866
26 AF1 215 3.866
26 AF1 216 3.866
26 AF1 217 3.377
26 AF1 218 2.401
26 AF1 219 1.424
26 AF1 220 -0.041
26 AF1 221 -0.529
26 AF1 222 -0.041
26 AF1 223 1.912
26 AF1 224 3.377
26 AF1 225 4.842
26 AF1 226 5.330
26 AF1 227 4.842
26 AF1 228 3.866
26 AF1 229 2.889
26 AF1 230 1.912
26 AF1 231 1.912
26 AF1 232 1.912
26 AF1 233 2.889
26 AF1 234 4.354
26 AF1 235 5.819
26 AF1 236 6.795
26 AF1 237 7.772
26 AF1 238 7.772
26 AF1 239 7.284
26 AF1 240 6.795
26 AF1 241 4.842
26 AF1 242 3.866
26 AF1 243 2.889
26 AF1 244 2.889
26 AF1 245 3.377
26 AF1 246 4.842
26 AF1 247 6.307
26 AF1 248 7.284
26 AF1 249 7.284
26 AF1 250 5.819
26 AF1 251 3.377
26 AF1 252 1.424
26 AF1 253 0.936
26 AF1 254 0.936
26 AF1 255 1.912
# AF2 chan 5
26 AF2 0 -4.262
26 AF2 1 -2.797
26 AF2 2 -3.286
26 AF2 3 -4.262
26 AF2 4 -6.215
26 AF2 5 -6.704
26 AF2 6 -6.704
26 AF2 7 -6.704
26 AF2 8 -7.192
26 AF2 9 -7.680
26 AF2 10 -8.169
26 AF2 11 -6.704
26 AF2 12 -5.239
26 AF2 13 -3.774
26 AF2 14 -3.774
26 AF2 15 -4.262
26 AF2 16 -4.751
26 AF2 17 -3.286
26 AF2 18 -1.821
26 AF2 19 -0.844
26 AF2 20 -0.844
26 AF2 21 -1.821
26 AF2 22 -2.797
26 AF2 23 -2.309
26 AF2 24 -1.821
26 AF2 25 -1.821
26 AF2 26 -2.309
26 AF2 27 -3.774
26 AF2 28 -3.774
26 AF2 29 -1.821
26 AF2 30 1.597
26 AF2 31 5.015
26 AF2 32 6.968
26 AF2 33 6.480
26 AF2 34 5.503
26 AF2 35 4.038
26 AF2 36 3.062
26 AF2 37 2.574
26 AF2 38 1.597
26 AF2 39 0.621
26 AF2 40 0.621
26 AF2 41 1.109
26 AF2 42 2.085
26 AF2 43 1.597
26 AF2 44 0.132
26 AF2 45 -0.844
26 AF2 46 -1.821
26 AF2 47 -1.333
26 AF2 48 0.132
26 AF2 49 1.597
26 AF2 50 3.062
26 AF2 51 4.527
26 AF2 52 5.503
26 AF2 53 6.480
26 AF2 54 5.992
26 AF2 55 5.015
26 AF2 56 4.038
26 AF2 57 2.574
26 AF2 58 2.574
26 AF2 59 4.038
26 AF2 60 5.015
26 AF2 61 5.503
26 AF2 62 4.038
26 AF2 63 2.085
26 AF2 64 -0.356
26 AF2 65 -1.821
26 AF2 66 -1.821
26 AF2 67 -1.333
26 AF2 68 -0.844
26 AF2 69 0.132
26 AF2 70 1.109
26 AF2 71 2.085
26 AF2 72 3.062
26 AF2 73 2.574
26 AF2 74 1.597
26 AF2 75 0.621
26 AF2 76 1.109
26 AF2 77 3.062
26 AF2 78 5.503
26 AF2 79 6.968
26 AF2 80 7.456
26 AF2 81 6.968
26 AF2 82 6.480
26 AF2 83 6.968
26 AF2 84 6.968
26 AF2 85 6.480
26 AF2 86 4.038
26 AF2 87 1.597
26 AF2 88 -0.356
26 AF2 89 0.132
26 AF2 90 2.085
26 AF2 91 3.062
26 AF2 92 2.574
26 AF2 93 0.621
26 AF2 94 -0.844
26 AF2 95 -0.844
26 AF2 96 0.132
26 AF2 97 1.597
26 AF2 98 1.109
26 AF2 99 -0.356
26 AF2 100 -1.821
26 AF2 101 -2.309
26 AF2 102 -1.333
26 AF2 103 0.132
26 AF2 104 1.109
26 AF2 105 1.597
26 AF2 106 2.085
26 AF2 107 3.550
26 AF2 108 5.503
26 AF2 109 6.480
26 AF2 110 5.015
26 AF2 111 2.085
26 AF2 112 -1.333
26 AF2 113 -2.797
26 AF2 114 -2.309
26 AF2 115 -0.844
26 AF2 116 -0.356
26 AF2 117 -1.333
26 AF2 118 -2.797
26 AF2 119 -4.262
26 AF2 120 -3.774
26 AF2 121 -1.821
26 AF2 122 0.621
26 AF2 123 2.574
26 AF2 124 4.038
26 AF2 125 4.527
26 AF2 126 4.527
26 AF2 127 4.527
26 AF2 128 4.527
26 AF2 129 4.038
26 AF2 130 3.062
26 AF2 131 2.574
26 AF2 132 3.062
26 AF2 133 3.062
26 AF2 134 3.550
26 AF2 135 3.550
26 AF2 136 3.550
26 AF2 137 2.574
26 AF2 138 2.085
26 AF2 139 1.109
26 AF2 140 0.621
26 AF2 141 0.621
26 AF2 142 0.621
26 AF2 143 1.109
26 AF2 144 1.109
26 AF2 145 0.621
26 AF2 146 -1.333
26 AF2 147 -3.286
26 AF2 148 -5.239
26 AF2 149 -5.239
26 AF2 150 -4.262
26 AF2 151 -2.797
26 AF2 152 -1.821
26 AF2 153 -2.797
26 AF2 154 -3.774
26 AF2 155 -4.751
26 AF2 156 -3.774
26 AF2 157 -2.309
26 AF2 158 -0.356
26 AF2 159 -0.356
26 AF2 160 -1.821
26 AF2 161 -3.774
26 AF2 162 -5.727
26 AF2 163 -6.215
26 AF2 164 -5.727
26 AF2 165 -4.751
26 AF2 166 -3.286
26 AF2 167 -1.821
26 AF2 168 -0.844
26 AF2 169 0.132
26 AF2 170 1.109
26 AF2 171 1.597
26 AF2 172 2.085
26 AF2 173 3.550
26 AF2 174 5.503
26 AF2 175 7.945
26 AF2 176 9.410
26 AF2 177 9.410
26 AF2 178 7.945
26 AF2 179 5.503
26 AF2 180 2.085
26 AF2 181 -1.333
26 AF2 182 -3.286
26 AF2 183 -4.262
26 AF2 184 -3.774
26 AF2 185 -2.309
26 AF2 186 -0.356
26 AF2 187 0.621
26 AF2 188 0.621
26 AF2 189 -0.356
26 AF2 190 -1.821
26 AF2 191 -2.797
26 AF2 192 -2.309
26 AF2 193 -0.844
26 AF2 194 0.132
26 AF2 195 0.621
26 AF2 196 -0.356
26 AF2 197 -1.333
26 AF2 198 -1.333
26 AF2 199 0.132
26 AF2 200 2.085
26 AF2 201 3.550
26 AF2 202 3.062
26 AF2 203 0.621
26 AF2 204 -1.821
26 AF2 205 -4.262
26 AF2 206 -4.262
26 AF2 207 -3.286
26 AF2 208 -1.821
26 AF2 209 -0.356
26 AF2 210 0.621
26 AF2 211 0.621
26 AF2 212 0.621
26 AF2 213 0.621
26 AF2 214 1.109
26 AF2 215 1.109
26 AF2 216 1.109
26 AF2 217 0.132
26 AF2 218 -1.333
26 AF2 219 -2.797
26 AF2 220 -3.774
26 AF2 221 -4.262
26 AF2 222 -3.774
26 AF2 223 -3.286
26 AF2 224 -2.797
26 AF2 225 -2.309
26 AF2 226 -1.821
26 AF2 227 -0.844
26 AF2 228 0.132
26 AF2 229 0.621
26 AF2 230 0.621
26 AF2 231 0.132
26 AF2 232 -0.356
26 AF2 233 -0.356
26 AF2 234 -0.356
26 AF2 235 0.132
26 AF2 236 0.132
26 AF2 237 0.621
26 AF2 238 0.621
26 AF2 239 0.621
26 AF2 240 0.132
26 AF2 241 -1.333
26 AF2 242 -2.797
26 AF2 243 -3.774
26 AF2 244 -3.774
26 AF2 245 -2.309
26 AF2 246 -0.356
26 AF2 247 2.085
26 AF2 248 3.550
26 AF2 249 3.550
26 AF2 250 1.597
26 AF2 251 -0.844
26 AF2 252 -2.309
26 AF2 253 -3.286
26 AF2 254 -2.797
26 AF2 255 -1.333
# FZ chan 6
26 FZ 0 -3.438
26 FZ 1 -1.973
26 FZ 2 -1.973
26 FZ 3 -2.462
26 FZ 4 -3.438
26 FZ 5 -3.927
26 FZ 6 -3.927
26 FZ 7 -3.438
26 FZ 8 -3.438
26 FZ 9 -3.927
26 FZ 10 -3.438
26 FZ 11 -2.462
26 FZ 12 -0.997
26 FZ 13 0.468
26 FZ 14 -0.020
26 FZ 15 -0.997
26 FZ 16 -1.973
26 FZ 17 -2.462
26 FZ 18 -1.973
26 FZ 19 -0.997
26 FZ 20 -0.509
26 FZ 21 -0.509
26 FZ 22 -0.509
26 FZ 23 -0.020
26 FZ 24 0.468
26 FZ 25 0.956
26 FZ 26 0.956
26 FZ 27 0.956
26 FZ 28 1.933
26 FZ 29 4.374
26 FZ 30 7.304
26 FZ 31 9.257
26 FZ 32 9.745
26 FZ 33 9.257
26 FZ 34 7.792
26 FZ 35 6.327
26 FZ 36 5.351
26 FZ 37 4.862
26 FZ 38 4.862
26 FZ 39 4.862
26 FZ 40 5.351
26 FZ 41 6.327
26 FZ 42 6.327
26 FZ 43 5.839
26 FZ 44 3.886
26 FZ 45 2.421
26 FZ 46 1.933
26 FZ 47 3.398
26 FZ 48 5.839
26 FZ 49 8.280
26 FZ 50 9.745
26 FZ 51 10.722
26 FZ 52 11.210
26 FZ 53 11.210
26 FZ 54 10.722
26 FZ 55 9.745
26 FZ 56 7.792
26 FZ 57 5.839
26 FZ 58 4.862
26 FZ 59 4.862
26 FZ 60 6.327
26 FZ 61 7.304
26 FZ 62 7.304
26 FZ 63 5.351
26 FZ 64 2.909
26 FZ 65 0.468
26 FZ 66 -0.997
26 FZ 67 -0.509
26 FZ 68 1.444
26 FZ 69 3.398
26 FZ 70 4.862
26 FZ 71 5.839
26 FZ 72 5.351
26 FZ 73 4.374
26 FZ 74 2.421
26 FZ 75 0.956
26 FZ 76 0.468
26 FZ 77 1.933
26 FZ 78 4.374
26 FZ 79 7.304
26 FZ 80 8.280
26 FZ 81 8.280
26 FZ 82 6.816
26 FZ 83 5.839
26 FZ 84 5.351
26 FZ 85 5.351
26 FZ 86 4.862
26 FZ 87 4.374
26 FZ 88 3.398
26 FZ 89 3.398
26 FZ 90 3.886
26 FZ 91 4.374
26 FZ 92 4.374
26 FZ 93 3.886
26 FZ 94 2.421
26 FZ 95 2.421
26 FZ 96 2.421
26 FZ 97 2.909
26 FZ 98 2.909
26 FZ 99 2.421
26 FZ 100 1.933
26 FZ 101 1.933
26 FZ 102 2.909
26 FZ 103 4.374
26 FZ 104 4.862
26 FZ 105 4.862
26 FZ 106 4.862
26 FZ 107 4.862
26 FZ 108 5.351
26 FZ 109 5.839
26 FZ 110 5.351
26 FZ 111 4.374
26 FZ 112 2.909
26 FZ 113 2.421
26 FZ 114 2.421
26 FZ 115 2.909
26 FZ 116 2.421
26 FZ 117 0.956
26 FZ 118 -0.997
26 FZ 119 -1.485
26 FZ 120 -0.997
26 FZ 121 0.468
26 FZ 122 2.421
26 FZ 123 4.374
26 FZ 124 5.351
26 FZ 125 6.327
26 FZ 126 6.327
26 FZ 127 6.327
26 FZ 128 5.351
26 FZ 129 4.374
26 FZ 130 3.886
26 FZ 131 3.886
26 FZ 132 4.374
26 FZ 133 4.374
26 FZ 134 3.886
26 FZ 135 1.933
26 FZ 136 0.468
26 FZ 137 -0.509
26 FZ 138 -0.509
26 FZ 139 0.468
26 FZ 140 1.444
26 FZ 141 1.444
26 FZ 142 1.444
26 FZ 143 0.468
26 FZ 144 -0.020
26 FZ 145 -0.997
26 FZ 146 -1.485
26 FZ 147 -1.973
26 FZ 148 -2.462
26 FZ 149 -2.462
26 FZ 150 -1.485
26 FZ 151 -0.997
26 FZ 152 -0.997
26 FZ 153 -2.462
26 FZ 154 -3.438
26 FZ 155 -3.927
26 FZ 156 -3.438
26 FZ 157 -1.485
26 FZ 158 -0.020
26 FZ 159 -0.020
26 FZ 160 -1.485
26 FZ 161 -2.462
26 FZ 162 -3.438
26 FZ 163 -3.438
26 FZ 164 -2.950
26 FZ 165 -3.438
26 FZ 166 -3.927
26 FZ 167 -3.927
26 FZ 168 -2.950
26 FZ 169 -1.485
26 FZ 170 -0.509
26 FZ 171 -0.020
26 FZ 172 -0.020
26 FZ 173 0.468
26 FZ 174 2.421
26 FZ 175 5.839
26 FZ 176 8.769
26 FZ 177 9.745
26 FZ 178 8.769
26 FZ 179 5.839
26 FZ 180 1.933
26 FZ 181 -1.485
26 FZ 182 -2.950
26 FZ 183 -2.950
26 FZ 184 -1.973
26 FZ 185 -0.509
26 FZ 186 0.468
26 FZ 187 0.468
26 FZ 188 -0.020
26 FZ 189 -1.485
26 FZ 190 -2.462
26 FZ 191 -2.950
26 FZ 192 -1.973
26 FZ 193 -1.485
26 FZ 194 -0.997
26 FZ 195 -0.997
26 FZ 196 -1.973
26 FZ 197 -1.973
26 FZ 198 -1.973
26 FZ 199 -0.997
26 FZ 200 0.468
26 FZ 201 1.444
26 FZ 202 1.444
26 FZ 203 0.468
26 FZ 204 -0.997
26 FZ 205 -2.462
26 FZ 206 -3.438
26 FZ 207 -3.927
26 FZ 208 -3.927
26 FZ 209 -3.927
26 FZ 210 -2.950
26 FZ 211 -1.485
26 FZ 212 -0.020
26 FZ 213 1.444
26 FZ 214 1.933
26 FZ 215 1.444
26 FZ 216 0.956
26 FZ 217 -0.020
26 FZ 218 -1.485
26 FZ 219 -1.973
26 FZ 220 -2.950
26 FZ 221 -3.438
26 FZ 222 -3.927
26 FZ 223 -3.438
26 FZ 224 -2.950
26 FZ 225 -2.462
26 FZ 226 -1.485
26 FZ 227 -0.020
26 FZ 228 0.468
26 FZ 229 0.468
26 FZ 230 -0.509
26 FZ 231 -0.997
26 FZ 232 -1.485
26 FZ 233 -1.973
26 FZ 234 -1.485
26 FZ 235 -0.997
26 FZ 236 -0.997
26 FZ 237 -0.997
26 FZ 238 -0.509
26 FZ 239 0.956
26 FZ 240 1.933
26 FZ 241 1.933
26 FZ 242 1.444
26 FZ 243 -0.509
26 FZ 244 -1.973
26 FZ 245 -2.462
26 FZ 246 -1.485
26 FZ 247 0.468
26 FZ 248 1.444
26 FZ 249 1.444
26 FZ 250 -0.020
26 FZ 251 -1.973
26 FZ 252 -3.438
26 FZ 253 -3.438
26 FZ 254 -2.462
26 FZ 255 -1.485
# F4 chan 7
26 F4 0 -4.354
26 F4 1 -3.377
26 F4 2 -2.889
26 F4 3 -2.889
26 F4 4 -3.377
26 F4 5 -3.866
26 F4 6 -3.866
26 F4 7 -4.354
26 F4 8 -4.842
26 F4 9 -4.842
26 F4 10 -4.354
26 F4 11 -3.377
26 F4 12 -2.889
26 F4 13 -2.401
26 F4 14 -3.377
26 F4 15 -3.866
26 F4 16 -4.354
26 F4 17 -3.866
26 F4 18 -3.377
26 F4 19 -3.866
26 F4 20 -4.842
26 F4 21 -5.819
26 F4 22 -5.819
26 F4 23 -4.354
26 F4 24 -2.889
26 F4 25 -1.912
26 F4 26 -2.401
26 F4 27 -2.889
26 F4 28 -2.401
26 F4 29 0.041
26 F4 30 2.970
26 F4 31 6.388
26 F4 32 7.365
26 F4 33 7.365
26 F4 34 5.900
26 F4 35 4.924
26 F4 36 3.947
26 F4 37 2.482
26 F4 38 1.017
26 F4 39 0.041
26 F4 40 0.529
26 F4 41 1.994
26 F4 42 4.435
26 F4 43 4.924
26 F4 44 3.459
26 F4 45 1.506
26 F4 46 0.041
26 F4 47 0.041
26 F4 48 1.994
26 F4 49 3.459
26 F4 50 4.924
26 F4 51 5.412
26 F4 52 5.900
26 F4 53 6.388
26 F4 54 6.388
26 F4 55 5.900
26 F4 56 4.435
26 F4 57 2.970
26 F4 58 2.482
26 F4 59 2.970
26 F4 60 3.947
26 F4 61 3.459
26 F4 62 2.482
26 F4 63 0.529
26 F4 64 -0.936
26 F4 65 -1.912
26 F4 66 -1.424
26 F4 67 -0.448
26 F4 68 0.529
26 F4 69 1.994
26 F4 70 2.970
26 F4 71 4.435
26 F4 72 4.924
26 F4 73 4.435
26 F4 74 3.947
26 F4 75 3.947
26 F4 76 4.924
26 F4 77 6.388
26 F4 78 8.341
26 F4 79 9.318
26 F4 80 9.318
26 F4 81 8.830
26 F4 82 8.341
26 F4 83 8.830
26 F4 84 8.341
26 F4 85 6.877
26 F4 86 4.435
26 F4 87 1.994
26 F4 88 1.506
26 F4 89 2.970
26 F4 90 4.924
26 F4 91 5.900
26 F4 92 4.924
26 F4 93 2.970
26 F4 94 1.506
26 F4 95 1.506
26 F4 96 1.994
26 F4 97 2.482
26 F4 98 1.506
26 F4 99 0.041
26 F4 100 -0.448
26 F4 101 1.017
26 F4 102 2.970
26 F4 103 4.435
26 F4 104 3.947
26 F4 105 2.970
26 F4 106 2.482
26 F4 107 3.947
26 F4 108 6.388
26 F4 109 6.877
26 F4 110 5.412
26 F4 111 1.994
26 F4 112 -1.424
26 F4 113 -2.889
26 F4 114 -1.424
26 F4 115 0.041
26 F4 116 1.017
26 F4 117 0.041
26 F4 118 -0.936
26 F4 119 -0.936
26 F4 120 0.529
26 F4 121 3.459
26 F4 122 5.900
26 F4 123 7.365
26 F4 124 7.853
26 F4 125 8.341
26 F4 126 8.830
26 F4 127 9.318
26 F4 128 9.318
26 F4 129 8.830
26 F4 130 8.830
26 F4 131 8.830
26 F4 132 8.830
26 F4 133 8.830
26 F4 134 7.853
26 F4 135 6.388
26 F4 136 5.412
26 F4 137 5.412
26 F4 138 5.900
26 F4 139 6.388
26 F4 140 6.388
26 F4 141 5.900
26 F4 142 5.900
26 F4 143 5.900
26 F4 144 5.900
26 F4 145 5.900
26 F4 146 4.435
26 F4 147 2.482
26 F4 148 1.506
26 F4 149 1.994
26 F4 150 3.459
26 F4 151 5.412
26 F4 152 6.388
26 F4 153 5.900
26 F4 154 4.924
26 F4 155 3.947
26 F4 156 4.435
26 F4 157 6.388
26 F4 158 6.877
26 F4 159 6.877
26 F4 160 5.412
26 F4 161 3.459
26 F4 162 2.482
26 F4 163 1.506
26 F4 164 1.017
26 F4 165 1.017
26 F4 166 1.017
26 F4 167 1.994
26 F4 168 2.970
26 F4 169 3.947
26 F4 170 3.947
26 F4 171 3.947
26 F4 172 3.947
26 F4 173 5.900
26 F4 174 8.830
26 F4 175 12.248
26 F4 176 14.201
26 F4 177 14.201
26 F4 178 12.248
26 F4 179 9.318
26 F4 180 6.388
26 F4 181 3.947
26 F4 182 1.506
26 F4 183 -0.448
26 F4 184 -0.936
26 F4 185 -0.448
26 F4 186 1.506
26 F4 187 2.970
26 F4 188 3.459
26 F4 189 2.970
26 F4 190 1.506
26 F4 191 0.529
26 F4 192 0.529
26 F4 193 1.506
26 F4 194 2.482
26 F4 195 2.482
26 F4 196 1.994
26 F4 197 1.994
26 F4 198 2.482
26 F4 199 4.435
26 F4 200 6.877
26 F4 201 8.341
26 F4 202 8.341
26 F4 203 5.900
26 F4 204 2.970
26 F4 205 1.017
26 F4 206 0.529
26 F4 207 1.994
26 F4 208 2.970
26 F4 209 3.947
26 F4 210 4.435
26 F4 211 3.947
26 F4 212 3.947
26 F4 213 4.435
26 F4 214 4.435
26 F4 215 3.947
26 F4 216 2.970
26 F4 217 1.994
26 F4 218 1.506
26 F4 219 1.017
26 F4 220 1.017
26 F4 221 0.041
26 F4 222 -0.936
26 F4 223 -1.424
26 F4 224 -0.448
26 F4 225 1.017
26 F4 226 2.970
26 F4 227 3.947
26 F4 228 3.947
26 F4 229 2.970
26 F4 230 1.506
26 F4 231 1.017
26 F4 232 1.506
26 F4 233 1.506
26 F4 234 1.017
26 F4 235 1.017
26 F4 236 1.506
26 F4 237 2.482
26 F4 238 4.435
26 F4 239 5.900
26 F4 240 5.900
26 F4 241 3.947
26 F4 242 0.529
26 F4 243 -1.912
26 F4 244 -3.377
26 F4 245 -2.889
26 F4 246 -0.448
26 F4 247 1.994
26 F4 248 3.459
26 F4 249 3.947
26 F4 250 2.970
26 F4 251 1.506
26 F4 252 0.041
26 F4 253 0.041
26 F4 254 1.017
26 F4 255 1.994
# F3 chan 8
26 F3 0 -2.360
26 F3 1 0.081
26 F3 2 1.058
26 F3 3 1.058
26 F3 4 0.081
26 F3 5 -0.895
26 F3 6 -0.407
26 F3 7 0.570
26 F3 8 0.570
26 F3 9 0.570
26 F3 10 0.081
26 F3 11 0.081
26 F3 12 1.058
26 F3 13 2.523
26 F3 14 3.011
26 F3 15 2.523
26 F3 16 1.058
26 F3 17 -0.407
26 F3 18 -0.407
26 F3 19 0.081
26 F3 20 1.058
26 F3 21 2.035
26 F3 22 3.011
26 F3 23 3.499
26 F3 24 3.499
26 F3 25 3.011
26 F3 26 2.523
26 F3 27 2.523
26 F3 28 4.476
26 F3 29 7.894
26 F3 30 11.800
26 F3 31 14.242
26 F3 32 14.242
26 F3 33 11.800
26 F3 34 8.382
26 F3 35 5.452
26 F3 36 3.988
26 F3 37 3.988
26 F3 38 5.941
26 F3 39 7.406
26 F3 40 9.359
26 F3 41 10.824
26 F3 42 10.335
26 F3 43 8.382
26 F3 44 6.429
26 F3 45 4.964
26 F3 46 4.476
26 F3 47 4.964
26 F3 48 5.941
26 F3 49 6.917
26 F3 50 8.870
26 F3 51 11.312
26 F3 52 13.265
26 F3 53 13.753
26 F3 54 12.777
26 F3 55 10.335
26 F3 56 7.894
26 F3 57 6.429
26 F3 58 6.917
26 F3 59 8.382
26 F3 60 10.335
26 F3 61 12.288
26 F3 62 12.777
26 F3 63 12.288
26 F3 64 9.847
26 F3 65 6.917
26 F3 66 4.476
26 F3 67 3.988
26 F3 68 5.452
26 F3 69 8.870
26 F3 70 12.288
26 F3 71 14.730
26 F3 72 15.218
26 F3 73 13.265
26 F3 74 10.335
26 F3 75 6.917
26 F3 76 4.964
26 F3 77 5.941
26 F3 78 9.359
26 F3 79 13.753
26 F3 80 15.706
26 F3 81 15.218
26 F3 82 13.265
26 F3 83 10.824
26 F3 84 10.335
26 F3 85 10.824
26 F3 86 11.312
26 F3 87 10.824
26 F3 88 9.847
26 F3 89 9.359
26 F3 90 9.847
26 F3 91 11.312
26 F3 92 11.800
26 F3 93 10.335
26 F3 94 8.382
26 F3 95 7.406
26 F3 96 6.917
26 F3 97 8.382
26 F3 98 8.870
26 F3 99 7.894
26 F3 100 6.429
26 F3 101 5.941
26 F3 102 6.429
26 F3 103 9.359
26 F3 104 11.800
26 F3 105 13.265
26 F3 106 13.265
26 F3 107 13.265
26 F3 108 12.777
26 F3 109 12.288
26 F3 110 12.288
26 F3 111 12.288
26 F3 112 12.288
26 F3 113 11.800
26 F3 114 10.824
26 F3 115 8.870
26 F3 116 6.917
26 F3 117 5.941
26 F3 118 5.452
26 F3 119 5.941
26 F3 120 6.917
26 F3 121 8.382
26 F3 122 8.382
26 F3 123 8.870
26 F3 124 9.847
26 F3 125 10.824
26 F3 126 11.312
26 F3 127 11.800
26 F3 128 11.312
26 F3 129 10.824
26 F3 130 11.312
26 F3 131 11.800
26 F3 132 12.288
26 F3 133 11.800
26 F3 134 10.335
26 F3 135 7.894
26 F3 136 5.941
26 F3 137 5.452
26 F3 138 5.452
26 F3 139 6.429
26 F3 140 7.406
26 F3 141 7.406
26 F3 142 6.917
26 F3 143 6.429
26 F3 144 5.941
26 F3 145 5.452
26 F3 146 5.941
26 F3 147 6.917
26 F3 148 8.382
26 F3 149 9.847
26 F3 150 10.335
26 F3 151 9.847
26 F3 152 7.406
26 F3 153 4.476
26 F3 154 2.035
26 F3 155 2.035
26 F3 156 3.988
26 F3 157 6.429
26 F3 158 7.406
26 F3 159 6.917
26 F3 160 5.941
26 F3 161 5.941
26 F3 162 6.917
26 F3 163 8.382
26 F3 164 8.382
26 F3 165 6.429
26 F3 166 3.499
26 F3 167 2.035
26 F3 168 3.011
26 F3 169 6.429
26 F3 170 10.824
26 F3 171 13.265
26 F3 172 13.265
26 F3 173 11.800
26 F3 174 10.335
26 F3 175 10.824
26 F3 176 13.753
26 F3 177 17.171
26 F3 178 18.636
26 F3 179 17.171
26 F3 180 12.777
26 F3 181 8.870
26 F3 182 6.429
26 F3 183 6.429
26 F3 184 8.382
26 F3 185 9.847
26 F3 186 10.335
26 F3 187 9.359
26 F3 188 7.894
26 F3 189 6.917
26 F3 190 6.429
26 F3 191 6.917
26 F3 192 6.917
26 F3 193 7.406
26 F3 194 7.894
26 F3 195 8.870
26 F3 196 9.359
26 F3 197 8.870
26 F3 198 8.382
26 F3 199 8.382
26 F3 200 8.870
26 F3 201 9.847
26 F3 202 10.335
26 F3 203 9.847
26 F3 204 7.406
26 F3 205 5.452
26 F3 206 4.476
26 F3 207 3.988
26 F3 208 4.476
26 F3 209 5.452
26 F3 210 6.429
26 F3 211 7.406
26 F3 212 9.359
26 F3 213 11.800
26 F3 214 13.265
26 F3 215 12.288
26 F3 216 9.847
26 F3 217 6.917
26 F3 218 5.452
26 F3 219 5.941
26 F3 220 6.917
26 F3 221 7.406
26 F3 222 6.429
26 F3 223 5.452
26 F3 224 4.964
26 F3 225 6.429
26 F3 226 8.870
26 F3 227 10.824
26 F3 228 11.312
26 F3 229 9.847
26 F3 230 8.382
26 F3 231 7.894
26 F3 232 8.870
26 F3 233 9.359
26 F3 234 9.359
26 F3 235 8.870
26 F3 236 8.382
26 F3 237 7.894
26 F3 238 8.382
26 F3 239 9.359
26 F3 240 9.359
26 F3 241 8.870
26 F3 242 7.406
26 F3 243 6.429
26 F3 244 6.917
26 F3 245 8.382
26 F3 246 10.335
26 F3 247 12.288
26 F3 248 12.777
26 F3 249 12.288
26 F3 250 10.335
26 F3 251 7.406
26 F3 252 5.452
26 F3 253 5.941
26 F3 254 8.382
26 F3 255 11.312
# FC6 chan 9
26 FC6 0 -3.357
26 FC6 1 -4.822
26 FC6 2 -4.822
26 FC6 3 -4.822
26 FC6 4 -4.822
26 FC6 5 -5.310
26 FC6 6 -5.310
26 FC6 7 -4.822
26 FC6 8 -3.357
26 FC6 9 -1.892
26 FC6 10 -0.427
26 FC6 11 0.061
26 FC6 12 -0.427
26 FC6 13 -0.916
26 FC6 14 -0.916
26 FC6 15 -0.427
26 FC6 16 1.038
26 FC6 17 1.526
26 FC6 18 1.038
26 FC6 19 -0.916
26 FC6 20 -3.845
26 FC6 21 -5.798
26 FC6 22 -6.775
26 FC6 23 -5.798
26 FC6 24 -3.357
26 FC6 25 -2.380
26 FC6 26 -2.869
26 FC6 27 -3.845
26 FC6 28 -3.845
26 FC6 29 -2.869
26 FC6 30 0.061
26 FC6 31 3.479
26 FC6 32 6.409
26 FC6 33 8.362
26 FC6 34 9.338
26 FC6 35 8.850
26 FC6 36 6.897
26 FC6 37 2.991
26 FC6 38 -0.916
26 FC6 39 -2.869
26 FC6 40 -0.916
26 FC6 41 2.502
26 FC6 42 5.432
26 FC6 43 4.944
26 FC6 44 2.502
26 FC6 45 0.061
26 FC6 46 -0.916
26 FC6 47 0.549
26 FC6 48 2.991
26 FC6 49 3.967
26 FC6 50 3.967
26 FC6 51 3.967
26 FC6 52 4.944
26 FC6 53 7.385
26 FC6 54 8.362
26 FC6 55 6.897
26 FC6 56 4.456
26 FC6 57 2.502
26 FC6 58 2.991
26 FC6 59 5.920
26 FC6 60 7.874
26 FC6 61 7.874
26 FC6 62 5.432
26 FC6 63 2.502
26 FC6 64 1.526
26 FC6 65 2.014
26 FC6 66 3.967
26 FC6 67 5.432
26 FC6 68 5.432
26 FC6 69 5.920
26 FC6 70 6.409
26 FC6 71 6.897
26 FC6 72 6.897
26 FC6 73 6.409
26 FC6 74 5.432
26 FC6 75 5.432
26 FC6 76 6.409
26 FC6 77 7.385
26 FC6 78 7.874
26 FC6 79 6.897
26 FC6 80 5.432
26 FC6 81 5.432
26 FC6 82 5.920
26 FC6 83 6.897
26 FC6 84 6.409
26 FC6 85 3.967
26 FC6 86 0.549
26 FC6 87 -1.892
26 FC6 88 -1.892
26 FC6 89 0.061
26 FC6 90 2.502
26 FC6 91 2.991
26 FC6 92 2.014
26 FC6 93 0.549
26 FC6 94 0.549
26 FC6 95 2.014
26 FC6 96 3.479
26 FC6 97 2.991
26 FC6 98 -0.916
26 FC6 99 -5.310
26 FC6 100 -7.263
26 FC6 101 -5.798
26 FC6 102 -1.404
26 FC6 103 1.526
26 FC6 104 1.038
26 FC6 105 -1.404
26 FC6 106 -3.357
26 FC6 107 -1.892
26 FC6 108 2.502
26 FC6 109 5.920
26 FC6 110 5.432
26 FC6 111 0.549
26 FC6 112 -4.822
26 FC6 113 -7.263
26 FC6 114 -4.822
26 FC6 115 -0.916
26 FC6 116 1.038
26 FC6 117 -0.427
26 FC6 118 -3.845
26 FC6 119 -5.798
26 FC6 120 -3.357
26 FC6 121 1.526
26 FC6 122 5.920
26 FC6 123 7.385
26 FC6 124 6.897
26 FC6 125 5.432
26 FC6 126 5.920
26 FC6 127 7.385
26 FC6 128 8.850
26 FC6 129 8.850
26 FC6 130 7.385
26 FC6 131 5.920
26 FC6 132 4.944
26 FC6 133 4.944
26 FC6 134 4.944
26 FC6 135 3.967
26 FC6 136 2.991
26 FC6 137 2.014
26 FC6 138 1.526
26 FC6 139 2.991
26 FC6 140 4.456
26 FC6 141 5.920
26 FC6 142 6.897
26 FC6 143 7.385
26 FC6 144 7.874
26 FC6 145 7.385
26 FC6 146 5.432
26 FC6 147 2.991
26 FC6 148 0.061
26 FC6 149 -1.892
26 FC6 150 -1.892
26 FC6 151 0.061
26 FC6 152 2.502
26 FC6 153 3.967
26 FC6 154 4.456
26 FC6 155 3.967
26 FC6 156 3.479
26 FC6 157 3.479
26 FC6 158 2.014
26 FC6 159 0.549
26 FC6 160 -1.404
26 FC6 161 -2.380
26 FC6 162 -2.869
26 FC6 163 -3.357
26 FC6 164 -4.822
26 FC6 165 -6.775
26 FC6 166 -7.751
26 FC6 167 -6.287
26 FC6 168 -3.845
26 FC6 169 -0.916
26 FC6 170 -0.427
26 FC6 171 -1.404
26 FC6 172 -2.380
26 FC6 173 -1.892
26 FC6 174 1.526
26 FC6 175 5.432
26 FC6 176 7.385
26 FC6 177 7.385
26 FC6 178 5.432
26 FC6 179 3.479
26 FC6 180 2.014
26 FC6 181 0.549
26 FC6 182 -2.380
26 FC6 183 -6.287
26 FC6 184 -9.705
26 FC6 185 -9.705
26 FC6 186 -7.263
26 FC6 187 -3.845
26 FC6 188 -2.380
26 FC6 189 -2.869
26 FC6 190 -5.310
26 FC6 191 -6.287
26 FC6 192 -4.822
26 FC6 193 -1.892
26 FC6 194 0.061
26 FC6 195 -0.427
26 FC6 196 -2.869
26 FC6 197 -4.822
26 FC6 198 -4.822
26 FC6 199 -1.892
26 FC6 200 1.526
26 FC6 201 3.967
26 FC6 202 2.991
26 FC6 203 -0.916
26 FC6 204 -5.310
26 FC6 205 -7.751
26 FC6 206 -7.263
26 FC6 207 -4.333
26 FC6 208 0.061
26 FC6 209 2.014
26 FC6 210 1.526
26 FC6 211 -0.427
26 FC6 212 -1.892
26 FC6 213 -1.892
26 FC6 214 -1.404
26 FC6 215 -1.404
26 FC6 216 -2.380
26 FC6 217 -3.845
26 FC6 218 -5.798
26 FC6 219 -6.775
26 FC6 220 -7.263
26 FC6 221 -7.263
26 FC6 222 -6.287
26 FC6 223 -5.310
26 FC6 224 -3.357
26 FC6 225 -0.916
26 FC6 226 1.038
26 FC6 227 2.014
26 FC6 228 1.038
26 FC6 229 -0.916
26 FC6 230 -3.357
26 FC6 231 -4.333
26 FC6 232 -3.357
26 FC6 233 -2.380
26 FC6 234 -1.892
26 FC6 235 -1.892
26 FC6 236 -1.892
26 FC6 237 -2.380
26 FC6 238 -2.380
26 FC6 239 -2.380
26 FC6 240 -3.357
26 FC6 241 -5.310
26 FC6 242 -7.751
26 FC6 243 -9.216
26 FC6 244 -9.216
26 FC6 245 -7.751
26 FC6 246 -5.310
26 FC6 247 -2.380
26 FC6 248 -0.916
26 FC6 249 -0.427
26 FC6 250 -1.404
26 FC6 251 -1.404
26 FC6 252 -1.404
26 FC6 253 -0.916
26 FC6 254 -1.404
26 FC6 255 -2.380
# FC5 chan 10
26 FC5 0 -3.998
26 FC5 1 -3.021
26 FC5 2 -1.556
26 FC5 3 -1.556
26 FC5 4 -2.533
26 FC5 5 -3.510
26 FC5 6 -3.510
26 FC5 7 -2.045
26 FC5 8 -0.580
26 FC5 9 -0.580
26 FC5 10 -2.533
26 FC5 11 -4.486
26 FC5 12 -5.463
26 FC5 13 -3.510
26 FC5 14 0.397
26 FC5 15 3.815
26 FC5 16 4.303
26 FC5 17 0.885
26 FC5 18 -3.510
26 FC5 19 -6.439
26 FC5 20 -5.463
26 FC5 21 -1.068
26 FC5 22 4.303
26 FC5 23 6.744
26 FC5 24 5.280
26 FC5 25 -0.092
26 FC5 26 -5.463
26 FC5 27 -7.416
26 FC5 28 -3.998
26 FC5 29 2.838
26 FC5 30 10.162
26 FC5 31 13.580
26 FC5 32 12.115
26 FC5 33 6.744
26 FC5 34 -0.092
26 FC5 35 -5.951
26 FC5 36 -8.881
26 FC5 37 -7.904
26 FC5 38 -3.510
26 FC5 39 3.326
26 FC5 40 9.186
26 FC5 41 9.674
26 FC5 42 4.791
26 FC5 43 -2.533
26 FC5 44 -6.927
26 FC5 45 -6.439
26 FC5 46 -1.556
26 FC5 47 3.326
26 FC5 48 4.791
26 FC5 49 3.326
26 FC5 50 1.862
26 FC5 51 2.838
26 FC5 52 5.768
26 FC5 53 7.233
26 FC5 54 5.768
26 FC5 55 2.350
26 FC5 56 0.397
26 FC5 57 1.862
26 FC5 58 5.280
26 FC5 59 8.698
26 FC5 60 10.651
26 FC5 61 10.651
26 FC5 62 10.162
26 FC5 63 9.186
26 FC5 64 6.744
26 FC5 65 2.838
26 FC5 66 -1.068
26 FC5 67 -3.510
26 FC5 68 -2.045
26 FC5 69 2.350
26 FC5 70 9.674
26 FC5 71 16.510
26 FC5 72 21.393
26 FC5 73 20.905
26 FC5 74 16.022
26 FC5 75 8.698
26 FC5 76 2.838
26 FC5 77 2.838
26 FC5 78 8.209
26 FC5 79 15.045
26 FC5 80 17.487
26 FC5 81 14.069
26 FC5 82 6.744
26 FC5 83 0.885
26 FC5 84 -0.092
26 FC5 85 3.326
26 FC5 86 6.256
26 FC5 87 6.744
26 FC5 88 5.280
26 FC5 89 3.815
26 FC5 90 5.280
26 FC5 91 8.209
26 FC5 92 10.162
26 FC5 93 8.698
26 FC5 94 4.791
26 FC5 95 1.862
26 FC5 96 0.885
26 FC5 97 2.350
26 FC5 98 3.326
26 FC5 99 1.862
26 FC5 100 -1.068
26 FC5 101 -2.533
26 FC5 102 -0.092
26 FC5 103 5.768
26 FC5 104 12.115
26 FC5 105 15.533
26 FC5 106 14.069
26 FC5 107 8.209
26 FC5 108 1.373
26 FC5 109 -3.021
26 FC5 110 -3.021
26 FC5 111 1.862
26 FC5 112 7.233
26 FC5 113 10.162
26 FC5 114 8.209
26 FC5 115 3.326
26 FC5 116 -2.045
26 FC5 117 -3.510
26 FC5 118 -1.068
26 FC5 119 2.350
26 FC5 120 4.791
26 FC5 121 4.791
26 FC5 122 2.838
26 FC5 123 2.350
26 FC5 124 3.815
26 FC5 125 6.256
26 FC5 126 7.721
26 FC5 127 6.744
26 FC5 128 3.815
26 FC5 129 2.350
26 FC5 130 2.838
26 FC5 131 5.280
26 FC5 132 7.233
26 FC5 133 6.744
26 FC5 134 5.280
26 FC5 135 3.815
26 FC5 136 3.326
26 FC5 137 3.815
26 FC5 138 3.326
26 FC5 139 1.373
26 FC5 140 -2.045
26 FC5 141 -4.486
26 FC5 142 -5.463
26 FC5 143 -3.998
26 FC5 144 -2.045
26 FC5 145 -0.580
26 FC5 146 0.885
26 FC5 147 2.838
26 FC5 148 6.256
26 FC5 149 10.651
26 FC5 150 12.604
26 FC5 151 10.162
26 FC5 152 2.350
26 FC5 153 -6.927
26 FC5 154 -11.810
26 FC5 155 -9.369
26 FC5 156 -2.045
26 FC5 157 4.791
26 FC5 158 6.256
26 FC5 159 2.838
26 FC5 160 -2.533
26 FC5 161 -4.486
26 FC5 162 -2.533
26 FC5 163 1.373
26 FC5 164 1.862
26 FC5 165 -2.533
26 FC5 166 -9.369
26 FC5 167 -14.252
26 FC5 168 -13.763
26 FC5 169 -7.416
26 FC5 170 1.373
26 FC5 171 8.209
26 FC5 172 9.186
26 FC5 173 4.791
26 FC5 174 -2.045
26 FC5 175 -6.927
26 FC5 176 -5.463
26 FC5 177 1.373
26 FC5 178 8.209
26 FC5 179 11.627
26 FC5 180 8.698
26 FC5 181 3.326
26 FC5 182 -1.556
26 FC5 183 -2.045
26 FC5 184 0.397
26 FC5 185 1.862
26 FC5 186 1.373
26 FC5 187 -1.068
26 FC5 188 -3.021
26 FC5 189 -1.556
26 FC5 190 1.373
26 FC5 191 4.303
26 FC5 192 5.280
26 FC5 193 4.303
26 FC5 194 2.838
26 FC5 195 2.838
26 FC5 196 3.326
26 FC5 197 3.326
26 FC5 198 1.862
26 FC5 199 -0.092
26 FC5 200 -2.045
26 FC5 201 -2.533
26 FC5 202 -2.045
26 FC5 203 -1.556
26 FC5 204 -2.533
26 FC5 205 -3.510
26 FC5 206 -3.998
26 FC5 207 -3.021
26 FC5 208 -2.045
26 FC5 209 -2.533
26 FC5 210 -3.998
26 FC5 211 -3.021
26 FC5 212 0.397
26 FC5 213 6.744
26 FC5 214 11.139
26 FC5 215 10.651
26 FC5 216 5.768
26 FC5 217 -0.580
26 FC5 218 -2.533
26 FC5 219 1.373
26 FC5 220 6.744
26 FC5 221 7.233
26 FC5 222 1.373
26 FC5 223 -7.904
26 FC5 224 -12.787
26 FC5 225 -9.857
26 FC5 226 -1.068
26 FC5 227 7.233
26 FC5 228 10.162
26 FC5 229 6.744
26 FC5 230 1.373
26 FC5 231 -1.556
26 FC5 232 -2.045
26 FC5 233 -2.045
26 FC5 234 -3.510
26 FC5 235 -5.951
26 FC5 236 -5.951
26 FC5 237 -2.045
26 FC5 238 3.815
26 FC5 239 7.233
26 FC5 240 5.768
26 FC5 241 -0.580
26 FC5 242 -6.439
26 FC5 243 -8.881
26 FC5 244 -6.439
26 FC5 245 -2.045
26 FC5 246 2.350
26 FC5 247 3.815
26 FC5 248 3.326
26 FC5 249 0.885
26 FC5 250 -2.533
26 FC5 251 -6.439
26 FC5 252 -8.881
26 FC5 253 -8.392
26 FC5 254 -4.486
26 FC5 255 0.397
# FC2 chan 11
26 FC2 0 -4.313
26 FC2 1 -3.825
26 FC2 2 -3.337
26 FC2 3 -3.337
26 FC2 4 -3.825
26 FC2 5 -4.801
26 FC2 6 -5.778
26 FC2 7 -5.778
26 FC2 8 -5.290
26 FC2 9 -4.313
26 FC2 10 -2.848
26 FC2 11 -1.872
26 FC2 12 -0.895
26 FC2 13 0.081
26 FC2 14 0.081
26 FC2 15 0.081
26 FC2 16 -0.895
26 FC2 17 -1.872
26 FC2 18 -2.848
26 FC2 19 -3.825
26 FC2 20 -4.313
26 FC2 21 -4.801
26 FC2 22 -3.825
26 FC2 23 -2.848
26 FC2 24 -1.872
26 FC2 25 -0.895
26 FC2 26 -0.895
26 FC2 27 -1.383
26 FC2 28 -0.895
26 FC2 29 0.570
26 FC2 30 2.523
26 FC2 31 4.964
26 FC2 32 6.429
26 FC2 33 6.917
26 FC2 34 6.429
26 FC2 35 4.964
26 FC2 36 3.011
26 FC2 37 0.570
26 FC2 38 -1.383
26 FC2 39 -2.360
26 FC2 40 -1.383
26 FC2 41 0.081
26 FC2 42 1.546
26 FC2 43 2.035
26 FC2 44 0.570
26 FC2 45 -0.895
26 FC2 46 -1.872
26 FC2 47 -1.383
26 FC2 48 0.081
26 FC2 49 1.546
26 FC2 50 2.523
26 FC2 51 3.499
26 FC2 52 3.988
26 FC2 53 4.476
26 FC2 54 4.964
26 FC2 55 4.476
26 FC2 56 3.011
26 FC2 57 2.035
26 FC2 58 0.570
26 FC2 59 0.081
26 FC2 60 0.570
26 FC2 61 0.570
26 FC2 62 0.570
26 FC2 63 -0.407
26 FC2 64 -1.872
26 FC2 65 -2.848
26 FC2 66 -3.337
26 FC2 67 -2.848
26 FC2 68 -1.872
26 FC2 69 -0.407
26 FC2 70 1.058
26 FC2 71 2.035
26 FC2 72 2.035
26 FC2 73 2.035
26 FC2 74 1.546
26 FC2 75 1.546
26 FC2 76 2.523
26 FC2 77 3.988
26 FC2 78 5.941
26 FC2 79 6.917
26 FC2 80 6.917
26 FC2 81 5.941
26 FC2 82 5.452
26 FC2 83 5.941
26 FC2 84 5.941
26 FC2 85 5.941
26 FC2 86 4.964
26 FC2 87 3.988
26 FC2 88 3.011
26 FC2 89 3.988
26 FC2 90 4.476
26 FC2 91 5.452
26 FC2 92 4.964
26 FC2 93 3.988
26 FC2 94 3.499
26 FC2 95 3.499
26 FC2 96 4.964
26 FC2 97 5.941
26 FC2 98 5.941
26 FC2 99 4.964
26 FC2 100 3.988
26 FC2 101 3.011
26 FC2 102 2.523
26 FC2 103 2.035
26 FC2 104 1.058
26 FC2 105 0.081
26 FC2 106 0.081
26 FC2 107 1.058
26 FC2 108 2.523
26 FC2 109 4.476
26 FC2 110 3.988
26 FC2 111 2.523
26 FC2 112 0.570
26 FC2 113 0.081
26 FC2 114 0.570
26 FC2 115 2.035
26 FC2 116 2.523
26 FC2 117 1.546
26 FC2 118 -0.407
26 FC2 119 -0.895
26 FC2 120 0.081
26 FC2 121 2.523
26 FC2 122 4.964
26 FC2 123 5.941
26 FC2 124 5.452
26 FC2 125 4.964
26 FC2 126 4.964
26 FC2 127 5.941
26 FC2 128 6.917
26 FC2 129 6.917
26 FC2 130 5.941
26 FC2 131 4.964
26 FC2 132 4.476
26 FC2 133 4.964
26 FC2 134 5.941
26 FC2 135 5.941
26 FC2 136 4.964
26 FC2 137 4.476
26 FC2 138 3.988
26 FC2 139 4.964
26 FC2 140 6.429
26 FC2 141 6.917
26 FC2 142 6.917
26 FC2 143 5.941
26 FC2 144 5.941
26 FC2 145 5.452
26 FC2 146 5.452
26 FC2 147 4.964
26 FC2 148 4.476
26 FC2 149 3.499
26 FC2 150 3.011
26 FC2 151 3.011
26 FC2 152 3.011
26 FC2 153 3.499
26 FC2 154 3.988
26 FC2 155 4.476
26 FC2 156 5.452
26 FC2 157 5.941
26 FC2 158 5.941
26 FC2 159 4.476
26 FC2 160 3.011
26 FC2 161 2.035
26 FC2 162 1.058
26 FC2 163 0.081
26 FC2 164 0.081
26 FC2 165 -1.383
26 FC2 166 -1.872
26 FC2 167 -1.383
26 FC2 168 -0.407
26 FC2 169 1.058
26 FC2 170 1.546
26 FC2 171 1.546
26 FC2 172 1.058
26 FC2 173 2.035
26 FC2 174 3.988
26 FC2 175 6.917
26 FC2 176 8.870
26 FC2 177 9.359
26 FC2 178 7.406
26 FC2 179 4.964
26 FC2 180 1.546
26 FC2 181 -0.895
26 FC2 182 -1.872
26 FC2 183 -2.360
26 FC2 184 -1.872
26 FC2 185 -0.407
26 FC2 186 0.570
26 FC2 187 0.570
26 FC2 188 -0.407
26 FC2 189 -1.872
26 FC2 190 -3.337
26 FC2 191 -3.337
26 FC2 192 -2.360
26 FC2 193 -0.895
26 FC2 194 -0.407
26 FC2 195 -0.407
26 FC2 196 -1.872
26 FC2 197 -2.848
26 FC2 198 -3.337
26 FC2 199 -2.848
26 FC2 200 -2.360
26 FC2 201 -1.872
26 FC2 202 -2.360
26 FC2 203 -2.848
26 FC2 204 -3.825
26 FC2 205 -3.825
26 FC2 206 -3.825
26 FC2 207 -3.337
26 FC2 208 -2.848
26 FC2 209 -1.872
26 FC2 210 -0.407
26 FC2 211 0.081
26 FC2 212 0.570
26 FC2 213 1.058
26 FC2 214 0.570
26 FC2 215 0.570
26 FC2 216 0.081
26 FC2 217 -0.895
26 FC2 218 -1.872
26 FC2 219 -2.848
26 FC2 220 -3.825
26 FC2 221 -3.825
26 FC2 222 -3.825
26 FC2 223 -3.337
26 FC2 224 -2.360
26 FC2 225 -1.872
26 FC2 226 -0.895
26 FC2 227 0.081
26 FC2 228 0.081
26 FC2 229 0.081
26 FC2 230 -0.407
26 FC2 231 -1.383
26 FC2 232 -1.383
26 FC2 233 -1.383
26 FC2 234 -1.383
26 FC2 235 -1.872
26 FC2 236 -2.848
26 FC2 237 -2.360
26 FC2 238 -1.383
26 FC2 239 0.570
26 FC2 240 2.035
26 FC2 241 1.546
26 FC2 242 -0.407
26 FC2 243 -3.337
26 FC2 244 -4.801
26 FC2 245 -3.825
26 FC2 246 -1.872
26 FC2 247 0.570
26 FC2 248 1.546
26 FC2 249 0.570
26 FC2 250 -1.383
26 FC2 251 -3.337
26 FC2 252 -4.801
26 FC2 253 -5.290
26 FC2 254 -4.801
26 FC2 255 -4.313
# FC1 chan 12
26 FC1 0 -0.753
26 FC1 1 -0.264
26 FC1 2 -0.264
26 FC1 3 -1.729
26 FC1 4 -3.194
26 FC1 5 -4.171
26 FC1 6 -4.659
26 FC1 7 -4.659
26 FC1 8 -5.147
26 FC1 9 -5.636
26 FC1 10 -6.124
26 FC1 11 -6.124
26 FC1 12 -5.147
26 FC1 13 -3.682
26 FC1 14 -2.218
26 FC1 15 -1.729
26 FC1 16 -2.706
26 FC1 17 -3.682
26 FC1 18 -4.659
26 FC1 19 -4.659
26 FC1 20 -4.659
26 FC1 21 -4.171
26 FC1 22 -3.682
26 FC1 23 -2.706
26 FC1 24 -1.729
26 FC1 25 -1.241
26 FC1 26 -1.729
26 FC1 27 -1.729
26 FC1 28 -1.729
26 FC1 29 -0.753
26 FC1 30 1.200
26 FC1 31 3.153
26 FC1 32 4.130
26 FC1 33 2.665
26 FC1 34 -0.753
26 FC1 35 -4.171
26 FC1 36 -7.100
26 FC1 37 -7.589
26 FC1 38 -6.612
26 FC1 39 -5.147
26 FC1 40 -4.171
26 FC1 41 -4.659
26 FC1 42 -6.124
26 FC1 43 -8.565
26 FC1 44 -10.030
26 FC1 45 -10.030
26 FC1 46 -9.542
26 FC1 47 -8.077
26 FC1 48 -6.612
26 FC1 49 -4.659
26 FC1 50 -3.194
26 FC1 51 -0.753
26 FC1 52 0.712
26 FC1 53 1.689
26 FC1 54 1.200
26 FC1 55 -0.753
26 FC1 56 -3.194
26 FC1 57 -5.636
26 FC1 58 -6.124
26 FC1 59 -5.636
26 FC1 60 -4.171
26 FC1 61 -2.706
26 FC1 62 -1.729
26 FC1 63 -2.218
26 FC1 64 -3.682
26 FC1 65 -5.636
26 FC1 66 -8.077
26 FC1 67 -9.542
26 FC1 68 -9.542
26 FC1 69 -8.565
26 FC1 70 -6.124
26 FC1 71 -3.194
26 FC1 72 -1.241
26 FC1 73 -0.753
26 FC1 74 -2.706
26 FC1 75 -4.659
26 FC1 76 -6.612
26 FC1 77 -6.124
26 FC1 78 -4.659
26 FC1 79 -2.218
26 FC1 80 -1.241
26 FC1 81 -2.218
26 FC1 82 -4.171
26 FC1 83 -6.124
26 FC1 84 -6.124
26 FC1 85 -5.636
26 FC1 86 -4.659
26 FC1 87 -4.659
26 FC1 88 -4.659
26 FC1 89 -4.659
26 FC1 90 -3.682
26 FC1 91 -2.218
26 FC1 92 -1.241
26 FC1 93 -1.241
26 FC1 94 -2.218
26 FC1 95 -3.194
26 FC1 96 -3.682
26 FC1 97 -3.194
26 FC1 98 -3.682
26 FC1 99 -3.682
26 FC1 100 -3.682
26 FC1 101 -3.194
26 FC1 102 -1.729
26 FC1 103 -0.264
26 FC1 104 0.712
26 FC1 105 0.224
26 FC1 106 -1.241
26 FC1 107 -2.218
26 FC1 108 -1.729
26 FC1 109 -0.264
26 FC1 110 1.689
26 FC1 111 3.153
26 FC1 112 3.642
26 FC1 113 3.153
26 FC1 114 2.665
26 FC1 115 2.665
26 FC1 116 3.153
26 FC1 117 4.130
26 FC1 118 4.618
26 FC1 119 4.130
26 FC1 120 3.153
26 FC1 121 2.665
26 FC1 122 2.665
26 FC1 123 3.642
26 FC1 124 5.107
26 FC1 125 6.083
26 FC1 126 6.083
26 FC1 127 4.130
26 FC1 128 1.689
26 FC1 129 0.224
26 FC1 130 -0.753
26 FC1 131 0.712
26 FC1 132 2.665
26 FC1 133 4.130
26 FC1 134 4.130
26 FC1 135 2.177
26 FC1 136 0.224
26 FC1 137 -1.729
26 FC1 138 -1.241
26 FC1 139 0.712
26 FC1 140 2.665
26 FC1 141 3.153
26 FC1 142 2.665
26 FC1 143 1.200
26 FC1 144 0.712
26 FC1 145 1.200
26 FC1 146 2.177
26 FC1 147 2.665
26 FC1 148 2.177
26 FC1 149 1.200
26 FC1 150 1.200
26 FC1 151 1.200
26 FC1 152 1.200
26 FC1 153 1.200
26 FC1 154 0.224
26 FC1 155 -0.264
26 FC1 156 0.224
26 FC1 157 1.689
26 FC1 158 2.177
26 FC1 159 1.200
26 FC1 160 -0.264
26 FC1 161 -0.753
26 FC1 162 -0.753
26 FC1 163 1.200
26 FC1 164 1.689
26 FC1 165 0.224
26 FC1 166 -3.194
26 FC1 167 -6.124
26 FC1 168 -7.100
26 FC1 169 -5.636
26 FC1 170 -2.706
26 FC1 171 -0.264
26 FC1 172 0.712
26 FC1 173 0.712
26 FC1 174 1.200
26 FC1 175 2.665
26 FC1 176 5.595
26 FC1 177 8.036
26 FC1 178 8.036
26 FC1 179 5.595
26 FC1 180 1.689
26 FC1 181 -0.753
26 FC1 182 -1.729
26 FC1 183 -0.264
26 FC1 184 0.712
26 FC1 185 0.712
26 FC1 186 -0.264
26 FC1 187 -1.241
26 FC1 188 -2.218
26 FC1 189 -1.729
26 FC1 190 -1.241
26 FC1 191 -0.753
26 FC1 192 -0.753
26 FC1 193 -0.753
26 FC1 194 -1.729
26 FC1 195 -1.729
26 FC1 196 -2.218
26 FC1 197 -2.218
26 FC1 198 -1.729
26 FC1 199 -0.753
26 FC1 200 -0.264
26 FC1 201 -0.753
26 FC1 202 -1.729
26 FC1 203 -4.171
26 FC1 204 -5.636
26 FC1 205 -6.612
26 FC1 206 -6.612
26 FC1 207 -6.612
26 FC1 208 -7.100
26 FC1 209 -7.100
26 FC1 210 -6.612
26 FC1 211 -4.659
26 FC1 212 -1.241
26 FC1 213 2.177
26 FC1 214 3.153
26 FC1 215 1.689
26 FC1 216 -0.753
26 FC1 217 -3.194
26 FC1 218 -4.171
26 FC1 219 -2.706
26 FC1 220 -1.241
26 FC1 221 -1.241
26 FC1 222 -3.682
26 FC1 223 -6.612
26 FC1 224 -8.565
26 FC1 225 -7.589
26 FC1 226 -5.636
26 FC1 227 -3.194
26 FC1 228 -3.194
26 FC1 229 -5.636
26 FC1 230 -8.565
26 FC1 231 -10.518
26 FC1 232 -10.518
26 FC1 233 -9.542
26 FC1 234 -8.077
26 FC1 235 -8.565
26 FC1 236 -9.542
26 FC1 237 -10.030
26 FC1 238 -9.542
26 FC1 239 -8.077
26 FC1 240 -6.612
26 FC1 241 -6.124
26 FC1 242 -6.124
26 FC1 243 -6.612
26 FC1 244 -7.100
26 FC1 245 -7.100
26 FC1 246 -7.589
26 FC1 247 -7.589
26 FC1 248 -7.589
26 FC1 249 -7.100
26 FC1 250 -7.100
26 FC1 251 -7.589
26 FC1 252 -8.565
26 FC1 253 -9.542
26 FC1 254 -10.030
26 FC1 255 -9.054
# T8 chan 13
26 T8 0 -6.399
26 T8 1 -6.399
26 T8 2 -6.399
26 T8 3 -5.910
26 T8 4 -4.934
26 T8 5 -3.957
26 T8 6 -3.957
26 T8 7 -5.910
26 T8 8 -8.840
26 T8 9 -10.793
26 T8 10 -8.840
26 T8 11 -3.469
26 T8 12 2.391
26 T8 13 4.832
26 T8 14 2.879
26 T8 15 -1.027
26 T8 16 -2.981
26 T8 17 -2.004
26 T8 18 0.926
26 T8 19 3.367
26 T8 20 0.926
26 T8 21 -4.445
26 T8 22 -9.816
26 T8 23 -11.281
26 T8 24 -9.328
26 T8 25 -5.910
26 T8 26 -4.445
26 T8 27 -4.445
26 T8 28 -5.422
26 T8 29 -4.934
26 T8 30 -2.492
26 T8 31 1.414
26 T8 32 4.344
26 T8 33 4.832
26 T8 34 4.344
26 T8 35 3.855
26 T8 36 5.320
26 T8 37 6.785
26 T8 38 7.273
26 T8 39 5.809
26 T8 40 3.367
26 T8 41 2.391
26 T8 42 3.855
26 T8 43 6.297
26 T8 44 7.762
26 T8 45 6.297
26 T8 46 4.344
26 T8 47 3.367
26 T8 48 5.320
26 T8 49 8.250
26 T8 50 11.180
26 T8 51 11.668
26 T8 52 11.180
26 T8 53 11.180
26 T8 54 12.156
26 T8 55 13.621
26 T8 56 14.109
26 T8 57 12.644
26 T8 58 10.691
26 T8 59 9.715
26 T8 60 10.203
26 T8 61 11.668
26 T8 62 12.644
26 T8 63 12.156
26 T8 64 10.691
26 T8 65 9.715
26 T8 66 11.180
26 T8 67 13.133
26 T8 68 15.574
26 T8 69 16.551
26 T8 70 16.551
26 T8 71 15.086
26 T8 72 14.598
26 T8 73 14.598
26 T8 74 15.086
26 T8 75 16.062
26 T8 76 17.039
26 T8 77 16.062
26 T8 78 14.109
26 T8 79 11.180
26 T8 80 9.226
26 T8 81 9.226
26 T8 82 11.668
26 T8 83 15.086
26 T8 84 16.551
26 T8 85 13.621
26 T8 86 7.762
26 T8 87 1.902
26 T8 88 -0.539
26 T8 89 0.437
26 T8 90 3.855
26 T8 91 5.320
26 T8 92 3.855
26 T8 93 -0.051
26 T8 94 -2.981
26 T8 95 -2.492
26 T8 96 0.437
26 T8 97 3.855
26 T8 98 5.809
26 T8 99 5.320
26 T8 100 2.391
26 T8 101 0.437
26 T8 102 -0.539
26 T8 103 0.437
26 T8 104 1.902
26 T8 105 2.879
26 T8 106 3.367
26 T8 107 4.344
26 T8 108 6.297
26 T8 109 7.762
26 T8 110 7.762
26 T8 111 5.320
26 T8 112 1.902
26 T8 113 0.437
26 T8 114 1.414
26 T8 115 4.344
26 T8 116 7.273
26 T8 117 7.273
26 T8 118 6.297
26 T8 119 5.320
26 T8 120 6.297
26 T8 121 9.226
26 T8 122 12.644
26 T8 123 14.109
26 T8 124 13.621
26 T8 125 13.133
26 T8 126 13.133
26 T8 127 15.086
26 T8 128 16.551
26 T8 129 17.527
26 T8 130 16.551
26 T8 131 14.598
26 T8 132 13.133
26 T8 133 11.668
26 T8 134 10.691
26 T8 135 9.715
26 T8 136 9.715
26 T8 137 11.180
26 T8 138 12.644
26 T8 139 14.109
26 T8 140 14.109
26 T8 141 12.644
26 T8 142 11.668
26 T8 143 11.668
26 T8 144 13.621
26 T8 145 15.086
26 T8 146 15.086
26 T8 147 12.644
26 T8 148 8.250
26 T8 149 5.320
26 T8 150 4.344
26 T8 151 5.809
26 T8 152 7.762
26 T8 153 8.738
26 T8 154 8.738
26 T8 155 8.250
26 T8 156 8.738
26 T8 157 9.715
26 T8 158 10.691
26 T8 159 9.715
26 T8 160 5.809
26 T8 161 0.437
26 T8 162 -3.957
26 T8 163 -4.934
26 T8 164 -3.957
26 T8 165 -1.516
26 T8 166 -1.027
26 T8 167 -2.492
26 T8 168 -4.445
26 T8 169 -3.957
26 T8 170 -0.539
26 T8 171 4.832
26 T8 172 9.226
26 T8 173 9.715
26 T8 174 7.273
26 T8 175 4.344
26 T8 176 2.391
26 T8 177 2.879
26 T8 178 3.855
26 T8 179 3.367
26 T8 180 1.414
26 T8 181 -1.516
26 T8 182 -3.957
26 T8 183 -3.957
26 T8 184 -3.469
26 T8 185 -2.492
26 T8 186 -3.469
26 T8 187 -5.422
26 T8 188 -6.887
26 T8 189 -6.887
26 T8 190 -4.934
26 T8 191 -1.516
26 T8 192 1.414
26 T8 193 2.879
26 T8 194 1.414
26 T8 195 -0.539
26 T8 196 -1.516
26 T8 197 -0.539
26 T8 198 1.414
26 T8 199 3.367
26 T8 200 3.367
26 T8 201 1.414
26 T8 202 -0.539
26 T8 203 -2.004
26 T8 204 -0.539
26 T8 205 1.902
26 T8 206 4.344
26 T8 207 5.809
26 T8 208 5.320
26 T8 209 4.344
26 T8 210 2.879
26 T8 211 2.391
26 T8 212 1.902
26 T8 213 0.926
26 T8 214 -0.051
26 T8 215 -0.539
26 T8 216 -0.539
26 T8 217 -0.539
26 T8 218 0.437
26 T8 219 0.437
26 T8 220 -0.051
26 T8 221 -1.516
26 T8 222 -2.981
26 T8 223 -4.445
26 T8 224 -4.934
26 T8 225 -3.469
26 T8 226 -1.027
26 T8 227 2.391
26 T8 228 6.297
26 T8 229 7.762
26 T8 230 7.273
26 T8 231 5.809
26 T8 232 3.855
26 T8 233 2.879
26 T8 234 2.879
26 T8 235 3.855
26 T8 236 4.832
26 T8 237 5.320
26 T8 238 5.320
26 T8 239 5.809
26 T8 240 6.297
26 T8 241 7.273
26 T8 242 7.762
26 T8 243 7.762
26 T8 244 6.785
26 T8 245 5.320
26 T8 246 4.344
26 T8 247 4.832
26 T8 248 6.297
26 T8 249 7.762
26 T8 250 7.762
26 T8 251 5.809
26 T8 252 3.855
26 T8 253 3.855
26 T8 254 5.809
26 T8 255 9.715
# T7 chan 14
26 T7 0 0.580
26 T7 1 4.974
26 T7 2 5.951
26 T7 3 2.045
26 T7 4 -3.815
26 T7 5 -7.233
26 T7 6 -7.233
26 T7 7 -2.838
26 T7 8 1.068
26 T7 9 3.998
26 T7 10 3.998
26 T7 11 2.045
26 T7 12 0.092
26 T7 13 -1.862
26 T7 14 -3.326
26 T7 15 -3.326
26 T7 16 -2.350
26 T7 17 -0.397
26 T7 18 0.092
26 T7 19 -1.373
26 T7 20 -4.791
26 T7 21 -6.256
26 T7 22 -3.815
26 T7 23 2.533
26 T7 24 9.857
26 T7 25 12.787
26 T7 26 10.345
26 T7 27 5.463
26 T7 28 2.533
26 T7 29 3.510
26 T7 30 5.951
26 T7 31 6.927
26 T7 32 4.974
26 T7 33 2.533
26 T7 34 2.533
26 T7 35 6.439
26 T7 36 10.345
26 T7 37 10.834
26 T7 38 6.439
26 T7 39 0.580
26 T7 40 -2.838
26 T7 41 -0.397
26 T7 42 4.486
26 T7 43 6.927
26 T7 44 3.998
26 T7 45 -1.373
26 T7 46 -4.303
26 T7 47 -1.373
26 T7 48 6.439
26 T7 49 12.787
26 T7 50 13.275
26 T7 51 8.392
26 T7 52 3.021
26 T7 53 2.045
26 T7 54 3.998
26 T7 55 5.463
26 T7 56 4.486
26 T7 57 2.045
26 T7 58 2.045
26 T7 59 6.927
26 T7 60 12.299
26 T7 61 13.763
26 T7 62 9.857
26 T7 63 4.486
26 T7 64 3.021
26 T7 65 8.392
26 T7 66 17.181
26 T7 67 23.041
26 T7 68 22.064
26 T7 69 16.205
26 T7 70 9.857
26 T7 71 7.904
26 T7 72 11.810
26 T7 73 18.646
26 T7 74 24.994
26 T7 75 28.900
26 T7 76 28.412
26 T7 77 24.994
26 T7 78 19.623
26 T7 79 15.717
26 T7 80 14.252
26 T7 81 15.228
26 T7 82 16.205
26 T7 83 16.205
26 T7 84 13.763
26 T7 85 12.299
26 T7 86 12.787
26 T7 87 16.693
26 T7 88 20.599
26 T7 89 22.064
26 T7 90 19.135
26 T7 91 14.740
26 T7 92 11.810
26 T7 93 12.787
26 T7 94 16.205
26 T7 95 19.135
26 T7 96 20.111
26 T7 97 19.623
26 T7 98 20.111
26 T7 99 23.041
26 T7 100 24.994
26 T7 101 24.017
26 T7 102 19.623
26 T7 103 13.275
26 T7 104 9.369
26 T7 105 9.857
26 T7 106 14.740
26 T7 107 21.576
26 T7 108 25.970
26 T7 109 25.482
26 T7 110 19.623
26 T7 111 12.299
26 T7 112 7.416
26 T7 113 9.369
26 T7 114 16.693
26 T7 115 24.506
26 T7 116 25.970
26 T7 117 17.670
26 T7 118 3.998
26 T7 119 -4.791
26 T7 120 -1.373
26 T7 121 13.275
26 T7 122 29.877
26 T7 123 37.201
26 T7 124 30.365
26 T7 125 15.228
26 T7 126 3.021
26 T7 127 1.068
26 T7 128 8.392
26 T7 129 17.181
26 T7 130 19.135
26 T7 131 14.252
26 T7 132 8.392
26 T7 133 8.392
26 T7 134 15.717
26 T7 135 24.506
26 T7 136 28.412
26 T7 137 23.529
26 T7 138 13.763
26 T7 139 6.927
26 T7 140 7.416
26 T7 141 12.299
26 T7 142 16.205
26 T7 143 13.275
26 T7 144 4.974
26 T7 145 -2.350
26 T7 146 -2.350
26 T7 147 6.927
26 T7 148 19.135
26 T7 149 25.482
26 T7 150 22.064
26 T7 151 12.299
26 T7 152 3.021
26 T7 153 1.556
26 T7 154 6.927
26 T7 155 13.763
26 T7 156 15.717
26 T7 157 10.345
26 T7 158 1.068
26 T7 159 -5.280
26 T7 160 -5.768
26 T7 161 -0.885
26 T7 162 3.998
26 T7 163 5.951
26 T7 164 4.974
26 T7 165 4.486
26 T7 166 5.463
26 T7 167 8.881
26 T7 168 10.345
26 T7 169 7.416
26 T7 170 1.556
26 T7 171 -2.838
26 T7 172 -2.350
26 T7 173 3.998
26 T7 174 10.834
26 T7 175 15.228
26 T7 176 14.252
26 T7 177 10.834
26 T7 178 8.392
26 T7 179 8.392
26 T7 180 7.904
26 T7 181 3.510
26 T7 182 -4.303
26 T7 183 -10.651
26 T7 184 -10.162
26 T7 185 -1.862
26 T7 186 9.369
26 T7 187 15.717
26 T7 188 13.763
26 T7 189 7.416
26 T7 190 2.533
26 T7 191 3.998
26 T7 192 9.369
26 T7 193 12.787
26 T7 194 11.322
26 T7 195 6.927
26 T7 196 4.974
26 T7 197 8.881
26 T7 198 15.717
26 T7 199 20.111
26 T7 200 17.181
26 T7 201 9.369
26 T7 202 3.510
26 T7 203 3.021
26 T7 204 7.416
26 T7 205 10.834
26 T7 206 9.369
26 T7 207 3.998
26 T7 208 0.580
26 T7 209 2.045
26 T7 210 6.927
26 T7 211 8.881
26 T7 212 4.486
26 T7 213 -2.838
26 T7 214 -4.791
26 T7 215 3.998
26 T7 216 18.158
26 T7 217 27.924
26 T7 218 24.017
26 T7 219 9.369
26 T7 220 -3.815
26 T7 221 -4.791
26 T7 222 8.392
26 T7 223 24.506
26 T7 224 30.365
26 T7 225 22.064
26 T7 226 5.951
26 T7 227 -4.791
26 T7 228 -2.838
26 T7 229 7.904
26 T7 230 18.646
26 T7 231 21.576
26 T7 232 16.693
26 T7 233 10.834
26 T7 234 9.369
26 T7 235 12.299
26 T7 236 14.740
26 T7 237 12.299
26 T7 238 6.927
26 T7 239 1.556
26 T7 240 2.045
26 T7 241 7.416
26 T7 242 12.299
26 T7 243 13.763
26 T7 244 10.834
26 T7 245 7.904
26 T7 246 9.369
26 T7 247 14.252
26 T7 248 18.158
26 T7 249 15.228
26 T7 250 5.463
26 T7 251 -6.256
26 T7 252 -12.604
26 T7 253 -10.162
26 T7 254 -0.397
26 T7 255 9.857
# CZ chan 15
26 CZ 0 -1.027
26 CZ 1 2.879
26 CZ 2 3.855
26 CZ 3 0.926
26 CZ 4 -3.957
26 CZ 5 -6.887
26 CZ 6 -6.399
26 CZ 7 -3.469
26 CZ 8 -1.516
26 CZ 9 -1.027
26 CZ 10 -2.981
26 CZ 11 -4.445
26 CZ 12 -3.469
26 CZ 13 0.437
26 CZ 14 4.832
26 CZ 15 7.762
26 CZ 16 6.785
26 CZ 17 2.879
26 CZ 18 -2.004
26 CZ 19 -5.910
26 CZ 20 -6.399
26 CZ 21 -3.957
26 CZ 22 1.414
26 CZ 23 5.809
26 CZ 24 7.273
26 CZ 25 4.832
26 CZ 26 0.437
26 CZ 27 -3.469
26 CZ 28 -4.445
26 CZ 29 -2.004
26 CZ 30 2.391
26 CZ 31 5.809
26 CZ 32 6.785
26 CZ 33 6.297
26 CZ 34 4.344
26 CZ 35 4.344
26 CZ 36 5.320
26 CZ 37 7.273
26 CZ 38 9.715
26 CZ 39 11.668
26 CZ 40 13.621
26 CZ 41 15.574
26 CZ 42 16.062
26 CZ 43 14.109
26 CZ 44 11.180
26 CZ 45 8.738
26 CZ 46 7.273
26 CZ 47 6.785
26 CZ 48 6.785
26 CZ 49 8.250
26 CZ 50 12.644
26 CZ 51 19.480
26 CZ 52 27.293
26 CZ 53 31.687
26 CZ 54 28.758
26 CZ 55 20.945
26 CZ 56 12.644
26 CZ 57 8.738
26 CZ 58 11.668
26 CZ 59 18.992
26 CZ 60 24.363
26 CZ 61 24.851
26 CZ 62 21.922
26 CZ 63 18.992
26 CZ 64 18.504
26 CZ 65 20.945
26 CZ 66 24.363
26 CZ 67 27.293
26 CZ 68 28.269
26 CZ 69 27.781
26 CZ 70 28.758
26 CZ 71 30.711
26 CZ 72 34.617
26 CZ 73 37.547
26 CZ 74 39.500
26 CZ 75 38.523
26 CZ 76 35.594
26 CZ 77 31.687
26 CZ 78 29.734
26 CZ 79 29.734
26 CZ 80 31.199
26 CZ 81 32.664
26 CZ 82 32.176
26 CZ 83 29.734
26 CZ 84 26.316
26 CZ 85 23.387
26 CZ 86 21.434
26 CZ 87 20.457
26 CZ 88 18.992
26 CZ 89 17.527
26 CZ 90 15.574
26 CZ 91 14.598
26 CZ 92 14.598
26 CZ 93 15.086
26 CZ 94 13.133
26 CZ 95 9.226
26 CZ 96 3.855
26 CZ 97 -0.539
26 CZ 98 -1.027
26 CZ 99 2.391
26 CZ 100 9.226
26 CZ 101 15.086
26 CZ 102 16.551
26 CZ 103 14.598
26 CZ 104 10.691
26 CZ 105 8.738
26 CZ 106 9.715
26 CZ 107 13.621
26 CZ 108 17.039
26 CZ 109 18.992
26 CZ 110 19.480
26 CZ 111 18.992
26 CZ 112 18.504
26 CZ 113 18.992
26 CZ 114 20.457
26 CZ 115 20.945
26 CZ 116 20.945
26 CZ 117 19.480
26 CZ 118 18.504
26 CZ 119 18.992
26 CZ 120 21.434
26 CZ 121 24.851
26 CZ 122 27.293
26 CZ 123 27.781
26 CZ 124 26.316
26 CZ 125 24.363
26 CZ 126 24.851
26 CZ 127 27.781
26 CZ 128 32.176
26 CZ 129 35.594
26 CZ 130 36.082
26 CZ 131 35.105
26 CZ 132 33.641
26 CZ 133 33.641
26 CZ 134 34.129
26 CZ 135 34.129
26 CZ 136 32.176
26 CZ 137 28.758
26 CZ 138 26.316
26 CZ 139 27.293
26 CZ 140 30.711
26 CZ 141 34.129
26 CZ 142 35.594
26 CZ 143 33.152
26 CZ 144 29.246
26 CZ 145 24.851
26 CZ 146 21.922
26 CZ 147 20.457
26 CZ 148 19.480
26 CZ 149 18.992
26 CZ 150 18.504
26 CZ 151 18.504
26 CZ 152 19.969
26 CZ 153 21.434
26 CZ 154 22.898
26 CZ 155 24.363
26 CZ 156 25.340
26 CZ 157 25.828
26 CZ 158 25.340
26 CZ 159 23.875
26 CZ 160 20.457
26 CZ 161 16.551
26 CZ 162 11.668
26 CZ 163 8.250
26 CZ 164 7.762
26 CZ 165 9.226
26 CZ 166 13.621
26 CZ 167 18.504
26 CZ 168 22.898
26 CZ 169 24.363
26 CZ 170 23.387
26 CZ 171 20.945
26 CZ 172 17.527
26 CZ 173 17.039
26 CZ 174 18.016
26 CZ 175 20.457
26 CZ 176 22.410
26 CZ 177 21.922
26 CZ 178 20.457
26 CZ 179 18.016
26 CZ 180 14.598
26 CZ 181 11.180
26 CZ 182 7.273
26 CZ 183 5.320
26 CZ 184 5.809
26 CZ 185 8.738
26 CZ 186 12.644
26 CZ 187 13.621
26 CZ 188 12.156
26 CZ 189 8.738
26 CZ 190 6.785
26 CZ 191 8.250
26 CZ 192 12.156
26 CZ 193 16.551
26 CZ 194 18.992
26 CZ 195 18.992
26 CZ 196 18.504
26 CZ 197 19.480
26 CZ 198 21.922
26 CZ 199 23.875
26 CZ 200 23.875
26 CZ 201 20.457
26 CZ 202 17.039
26 CZ 203 16.062
26 CZ 204 18.504
26 CZ 205 22.410
26 CZ 206 24.363
26 CZ 207 22.898
26 CZ 208 18.992
26 CZ 209 16.551
26 CZ 210 18.016
26 CZ 211 21.922
26 CZ 212 24.851
26 CZ 213 24.851
26 CZ 214 20.945
26 CZ 215 17.039
26 CZ 216 14.598
26 CZ 217 14.598
26 CZ 218 15.086
26 CZ 219 14.109
26 CZ 220 12.156
26 CZ 221 11.180
26 CZ 222 12.644
26 CZ 223 13.621
26 CZ 224 12.644
26 CZ 225 8.738
26 CZ 226 5.320
26 CZ 227 5.320
26 CZ 228 9.715
26 CZ 229 17.039
26 CZ 230 21.434
26 CZ 231 19.969
26 CZ 232 15.086
26 CZ 233 10.691
26 CZ 234 11.180
26 CZ 235 17.039
26 CZ 236 23.875
26 CZ 237 26.805
26 CZ 238 24.851
26 CZ 239 19.480
26 CZ 240 14.598
26 CZ 241 12.156
26 CZ 242 12.644
26 CZ 243 14.598
26 CZ 244 17.527
26 CZ 245 20.457
26 CZ 246 23.875
26 CZ 247 26.316
26 CZ 248 26.805
26 CZ 249 23.875
26 CZ 250 18.504
26 CZ 251 13.621
26 CZ 252 11.180
26 CZ 253 12.644
26 CZ 254 17.039
26 CZ 255 21.922
# C3 chan 16
26 C3 0 -3.153
26 C3 1 -3.642
26 C3 2 -4.618
26 C3 3 -6.083
26 C3 4 -6.571
26 C3 5 -6.571
26 C3 6 -5.107
26 C3 7 -3.642
26 C3 8 -2.665
26 C3 9 -2.177
26 C3 10 -2.177
26 C3 11 -1.689
26 C3 12 -0.712
26 C3 13 0.264
26 C3 14 0.753
26 C3 15 -0.224
26 C3 16 -2.665
26 C3 17 -5.595
26 C3 18 -8.036
26 C3 19 -8.525
26 C3 20 -7.060
26 C3 21 -4.618
26 C3 22 -1.689
26 C3 23 -0.224
26 C3 24 -0.224
26 C3 25 -1.200
26 C3 26 -1.689
26 C3 27 -2.177
26 C3 28 -2.177
26 C3 29 -2.177
26 C3 30 -1.689
26 C3 31 -0.712
26 C3 32 0.753
26 C3 33 1.241
26 C3 34 0.753
26 C3 35 -1.200
26 C3 36 -3.642
26 C3 37 -3.642
26 C3 38 -1.200
26 C3 39 1.729
26 C3 40 3.194
26 C3 41 1.729
26 C3 42 -2.665
26 C3 43 -7.060
26 C3 44 -9.013
26 C3 45 -8.036
26 C3 46 -6.083
26 C3 47 -4.618
26 C3 48 -3.642
26 C3 49 -3.153
26 C3 50 -1.200
26 C3 51 1.729
26 C3 52 3.682
26 C3 53 2.706
26 C3 54 -0.224
26 C3 55 -3.153
26 C3 56 -3.642
26 C3 57 -2.177
26 C3 58 -0.224
26 C3 59 0.753
26 C3 60 -0.224
26 C3 61 -0.712
26 C3 62 0.264
26 C3 63 2.218
26 C3 64 2.706
26 C3 65 1.241
26 C3 66 -2.177
26 C3 67 -4.618
26 C3 68 -4.130
26 C3 69 -1.200
26 C3 70 3.194
26 C3 71 6.612
26 C3 72 7.589
26 C3 73 6.124
26 C3 74 4.659
26 C3 75 3.194
26 C3 76 3.682
26 C3 77 5.636
26 C3 78 8.565
26 C3 79 11.007
26 C3 80 11.495
26 C3 81 10.030
26 C3 82 7.100
26 C3 83 5.147
26 C3 84 4.659
26 C3 85 5.636
26 C3 86 6.124
26 C3 87 5.636
26 C3 88 4.171
26 C3 89 2.706
26 C3 90 3.194
26 C3 91 4.659
26 C3 92 5.636
26 C3 93 5.147
26 C3 94 2.706
26 C3 95 -0.224
26 C3 96 -1.689
26 C3 97 -1.200
26 C3 98 0.264
26 C3 99 0.753
26 C3 100 0.753
26 C3 101 0.264
26 C3 102 0.264
26 C3 103 2.218
26 C3 104 4.171
26 C3 105 5.147
26 C3 106 3.194
26 C3 107 0.264
26 C3 108 -2.665
26 C3 109 -3.153
26 C3 110 -1.200
26 C3 111 1.729
26 C3 112 4.171
26 C3 113 3.194
26 C3 114 0.753
26 C3 115 -2.177
26 C3 116 -2.665
26 C3 117 -1.200
26 C3 118 1.729
26 C3 119 3.194
26 C3 120 2.706
26 C3 121 0.753
26 C3 122 -0.712
26 C3 123 0.753
26 C3 124 4.171
26 C3 125 7.100
26 C3 126 8.077
26 C3 127 7.100
26 C3 128 4.171
26 C3 129 2.218
26 C3 130 2.218
26 C3 131 3.194
26 C3 132 3.682
26 C3 133 3.682
26 C3 134 3.194
26 C3 135 2.706
26 C3 136 3.194
26 C3 137 3.682
26 C3 138 4.171
26 C3 139 3.682
26 C3 140 2.706
26 C3 141 0.753
26 C3 142 0.264
26 C3 143 0.753
26 C3 144 1.729
26 C3 145 3.682
26 C3 146 4.171
26 C3 147 3.194
26 C3 148 1.729
26 C3 149 0.264
26 C3 150 0.264
26 C3 151 1.241
26 C3 152 1.241
26 C3 153 -0.712
26 C3 154 -2.665
26 C3 155 -4.130
26 C3 156 -3.153
26 C3 157 -1.200
26 C3 158 0.264
26 C3 159 -0.712
26 C3 160 -3.153
26 C3 161 -6.083
26 C3 162 -6.571
26 C3 163 -5.595
26 C3 164 -5.107
26 C3 165 -6.571
26 C3 166 -9.989
26 C3 167 -12.919
26 C3 168 -12.919
26 C3 169 -9.501
26 C3 170 -4.130
26 C3 171 0.264
26 C3 172 1.241
26 C3 173 -0.712
26 C3 174 -2.177
26 C3 175 -1.689
26 C3 176 1.729
26 C3 177 5.147
26 C3 178 6.124
26 C3 179 4.659
26 C3 180 1.241
26 C3 181 -1.689
26 C3 182 -2.177
26 C3 183 -0.224
26 C3 184 1.729
26 C3 185 2.706
26 C3 186 1.729
26 C3 187 0.264
26 C3 188 -0.712
26 C3 189 -0.712
26 C3 190 -0.712
26 C3 191 -0.712
26 C3 192 -0.712
26 C3 193 0.264
26 C3 194 1.241
26 C3 195 2.218
26 C3 196 1.729
26 C3 197 -0.224
26 C3 198 -1.689
26 C3 199 -2.177
26 C3 200 -1.200
26 C3 201 -0.712
26 C3 202 -1.689
26 C3 203 -4.130
26 C3 204 -6.571
26 C3 205 -7.548
26 C3 206 -6.083
26 C3 207 -2.665
26 C3 208 -0.712
26 C3 209 -0.224
26 C3 210 -0.712
26 C3 211 -0.224
26 C3 212 2.218
26 C3 213 5.636
26 C3 214 7.589
26 C3 215 5.636
26 C3 216 0.753
26 C3 217 -3.642
26 C3 218 -4.618
26 C3 219 -1.689
26 C3 220 2.706
26 C3 221 4.171
26 C3 222 1.241
26 C3 223 -4.130
26 C3 224 -7.548
26 C3 225 -7.060
26 C3 226 -4.130
26 C3 227 -1.689
26 C3 228 -1.689
26 C3 229 -4.618
26 C3 230 -7.060
26 C3 231 -7.060
26 C3 232 -4.618
26 C3 233 -2.665
26 C3 234 -2.177
26 C3 235 -3.153
26 C3 236 -5.107
26 C3 237 -5.595
26 C3 238 -4.130
26 C3 239 -3.153
26 C3 240 -2.665
26 C3 241 -3.153
26 C3 242 -4.618
26 C3 243 -5.107
26 C3 244 -4.618
26 C3 245 -4.618
26 C3 246 -4.618
26 C3 247 -4.618
26 C3 248 -4.618
26 C3 249 -4.130
26 C3 250 -3.153
26 C3 251 -2.177
26 C3 252 -2.177
26 C3 253 -2.177
26 C3 254 -1.689
26 C3 255 -0.712
# C4 chan 17
26 C4 0 -1.282
26 C4 1 -0.793
26 C4 2 0.671
26 C4 3 1.160
26 C4 4 0.671
26 C4 5 -1.282
26 C4 6 -2.747
26 C4 7 -3.235
26 C4 8 -2.258
26 C4 9 0.183
26 C4 10 2.136
26 C4 11 3.113
26 C4 12 2.625
26 C4 13 1.160
26 C4 14 0.183
26 C4 15 -0.305
26 C4 16 -0.793
26 C4 17 -0.793
26 C4 18 -1.770
26 C4 19 -2.747
26 C4 20 -4.211
26 C4 21 -4.700
26 C4 22 -3.723
26 C4 23 -1.282
26 C4 24 0.671
26 C4 25 2.136
26 C4 26 1.648
26 C4 27 1.160
26 C4 28 0.183
26 C4 29 1.160
26 C4 30 2.625
26 C4 31 4.578
26 C4 32 5.554
26 C4 33 5.554
26 C4 34 4.578
26 C4 35 3.113
26 C4 36 1.648
26 C4 37 0.183
26 C4 38 -0.793
26 C4 39 -1.282
26 C4 40 -0.305
26 C4 41 1.160
26 C4 42 2.625
26 C4 43 2.136
26 C4 44 0.671
26 C4 45 -0.793
26 C4 46 -2.258
26 C4 47 -2.258
26 C4 48 -1.282
26 C4 49 -0.305
26 C4 50 0.671
26 C4 51 1.160
26 C4 52 2.625
26 C4 53 3.113
26 C4 54 3.601
26 C4 55 3.113
26 C4 56 2.136
26 C4 57 1.160
26 C4 58 1.648
26 C4 59 2.136
26 C4 60 2.625
26 C4 61 2.136
26 C4 62 1.160
26 C4 63 0.183
26 C4 64 -1.282
26 C4 65 -1.770
26 C4 66 -2.258
26 C4 67 -1.770
26 C4 68 -0.305
26 C4 69 2.136
26 C4 70 4.578
26 C4 71 6.042
26 C4 72 6.531
26 C4 73 5.554
26 C4 74 4.578
26 C4 75 4.578
26 C4 76 5.554
26 C4 77 6.531
26 C4 78 6.042
26 C4 79 5.066
26 C4 80 4.089
26 C4 81 3.601
26 C4 82 4.089
26 C4 83 4.089
26 C4 84 2.625
26 C4 85 0.183
26 C4 86 -1.770
26 C4 87 -2.258
26 C4 88 -1.770
26 C4 89 -0.305
26 C4 90 0.671
26 C4 91 0.183
26 C4 92 -0.793
26 C4 93 -0.793
26 C4 94 -0.793
26 C4 95 0.183
26 C4 96 0.183
26 C4 97 -1.282
26 C4 98 -3.723
26 C4 99 -6.165
26 C4 100 -7.141
26 C4 101 -5.676
26 C4 102 -3.235
26 C4 103 -0.793
26 C4 104 -0.305
26 C4 105 -0.305
26 C4 106 -0.305
26 C4 107 1.648
26 C4 108 3.601
26 C4 109 4.578
26 C4 110 4.578
26 C4 111 2.625
26 C4 112 0.671
26 C4 113 1.160
26 C4 114 2.625
26 C4 115 4.578
26 C4 116 4.089
26 C4 117 1.648
26 C4 118 -1.282
26 C4 119 -2.258
26 C4 120 -0.793
26 C4 121 2.625
26 C4 122 6.042
26 C4 123 7.507
26 C4 124 7.507
26 C4 125 7.019
26 C4 126 7.019
26 C4 127 7.996
26 C4 128 8.484
26 C4 129 7.996
26 C4 130 6.531
26 C4 131 5.554
26 C4 132 4.578
26 C4 133 3.601
26 C4 134 2.136
26 C4 135 0.183
26 C4 136 -1.282
26 C4 137 -1.282
26 C4 138 -0.793
26 C4 139 0.671
26 C4 140 0.671
26 C4 141 0.183
26 C4 142 -0.305
26 C4 143 0.183
26 C4 144 0.671
26 C4 145 1.160
26 C4 146 0.183
26 C4 147 -2.258
26 C4 148 -4.700
26 C4 149 -5.188
26 C4 150 -3.723
26 C4 151 -1.282
26 C4 152 -0.305
26 C4 153 -0.305
26 C4 154 -1.282
26 C4 155 -1.770
26 C4 156 -1.770
26 C4 157 -1.770
26 C4 158 -2.258
26 C4 159 -2.747
26 C4 160 -4.211
26 C4 161 -4.700
26 C4 162 -5.188
26 C4 163 -5.676
26 C4 164 -7.141
26 C4 165 -8.606
26 C4 166 -9.094
26 C4 167 -7.629
26 C4 168 -5.188
26 C4 169 -2.747
26 C4 170 -1.770
26 C4 171 -2.747
26 C4 172 -3.723
26 C4 173 -3.723
26 C4 174 -2.747
26 C4 175 -1.282
26 C4 176 -0.305
26 C4 177 -0.793
26 C4 178 -1.770
26 C4 179 -2.258
26 C4 180 -3.235
26 C4 181 -4.211
26 C4 182 -5.188
26 C4 183 -5.676
26 C4 184 -6.165
26 C4 185 -5.188
26 C4 186 -4.211
26 C4 187 -3.723
26 C4 188 -4.211
26 C4 189 -5.188
26 C4 190 -5.188
26 C4 191 -4.211
26 C4 192 -2.258
26 C4 193 -1.282
26 C4 194 -1.282
26 C4 195 -2.258
26 C4 196 -2.747
26 C4 197 -2.747
26 C4 198 -1.770
26 C4 199 -0.305
26 C4 200 0.183
26 C4 201 0.183
26 C4 202 -0.793
26 C4 203 -1.770
26 C4 204 -3.235
26 C4 205 -3.235
26 C4 206 -3.235
26 C4 207 -2.258
26 C4 208 -1.282
26 C4 209 0.183
26 C4 210 0.671
26 C4 211 0.183
26 C4 212 -0.793
26 C4 213 -2.258
26 C4 214 -3.235
26 C4 215 -2.747
26 C4 216 -2.258
26 C4 217 -1.282
26 C4 218 -0.305
26 C4 219 -0.793
26 C4 220 -1.770
26 C4 221 -2.258
26 C4 222 -2.258
26 C4 223 -0.793
26 C4 224 1.648
26 C4 225 3.601
26 C4 226 5.066
26 C4 227 5.066
26 C4 228 4.578
26 C4 229 3.113
26 C4 230 2.136
26 C4 231 1.160
26 C4 232 0.671
26 C4 233 0.671
26 C4 234 0.671
26 C4 235 1.160
26 C4 236 1.648
26 C4 237 2.136
26 C4 238 3.113
26 C4 239 4.089
26 C4 240 4.578
26 C4 241 3.601
26 C4 242 1.648
26 C4 243 -0.793
26 C4 244 -1.770
26 C4 245 -0.305
26 C4 246 2.625
26 C4 247 5.554
26 C4 248 7.507
26 C4 249 6.531
26 C4 250 3.113
26 C4 251 0.183
26 C4 252 -1.282
26 C4 253 -0.793
26 C4 254 0.183
26 C4 255 0.671
# CP5 chan 18
26 CP5 0 -5.015
26 CP5 1 -8.433
26 CP5 2 -9.410
26 CP5 3 -7.945
26 CP5 4 -4.038
26 CP5 5 -1.109
26 CP5 6 -1.109
26 CP5 7 -3.062
26 CP5 8 -5.503
26 CP5 9 -5.992
26 CP5 10 -5.503
26 CP5 11 -3.550
26 CP5 12 -2.085
26 CP5 13 -0.621
26 CP5 14 0.844
26 CP5 15 1.821
26 CP5 16 1.821
26 CP5 17 0.356
26 CP5 18 -2.085
26 CP5 19 -3.550
26 CP5 20 -2.085
26 CP5 21 1.333
26 CP5 22 3.286
26 CP5 23 2.309
26 CP5 24 -1.109
26 CP5 25 -3.550
26 CP5 26 -2.085
26 CP5 27 2.309
26 CP5 28 7.192
26 CP5 29 8.657
26 CP5 30 7.192
26 CP5 31 4.262
26 CP5 32 2.309
26 CP5 33 1.821
26 CP5 34 1.821
26 CP5 35 -0.132
26 CP5 36 -3.550
26 CP5 37 -5.015
26 CP5 38 -4.038
26 CP5 39 -0.621
26 CP5 40 1.333
26 CP5 41 0.356
26 CP5 42 -3.550
26 CP5 43 -7.945
26 CP5 44 -9.410
26 CP5 45 -7.456
26 CP5 46 -5.015
26 CP5 47 -4.527
26 CP5 48 -5.503
26 CP5 49 -5.992
26 CP5 50 -4.038
26 CP5 51 -0.132
26 CP5 52 3.774
26 CP5 53 4.262
26 CP5 54 1.821
26 CP5 55 -2.085
26 CP5 56 -4.527
26 CP5 57 -4.527
26 CP5 58 -3.062
26 CP5 59 -2.085
26 CP5 60 -2.085
26 CP5 61 -1.109
26 CP5 62 1.333
26 CP5 63 5.239
26 CP5 64 7.680
26 CP5 65 7.192
26 CP5 66 3.774
26 CP5 67 -0.132
26 CP5 68 -0.621
26 CP5 69 1.821
26 CP5 70 5.727
26 CP5 71 8.169
26 CP5 72 8.169
26 CP5 73 7.192
26 CP5 74 7.192
26 CP5 75 9.633
26 CP5 76 12.563
26 CP5 77 14.516
26 CP5 78 14.028
26 CP5 79 12.075
26 CP5 80 11.098
26 CP5 81 11.098
26 CP5 82 12.075
26 CP5 83 12.563
26 CP5 84 12.075
26 CP5 85 11.098
26 CP5 86 9.633
26 CP5 87 8.657
26 CP5 88 7.680
26 CP5 89 7.192
26 CP5 90 7.680
26 CP5 91 8.169
26 CP5 92 9.633
26 CP5 93 9.145
26 CP5 94 6.215
26 CP5 95 0.844
26 CP5 96 -4.038
26 CP5 97 -5.992
26 CP5 98 -4.038
26 CP5 99 -0.132
26 CP5 100 2.797
26 CP5 101 2.797
26 CP5 102 1.821
26 CP5 103 2.309
26 CP5 104 5.727
26 CP5 105 9.145
26 CP5 106 9.145
26 CP5 107 4.751
26 CP5 108 -1.109
26 CP5 109 -4.038
26 CP5 110 -0.621
26 CP5 111 6.215
26 CP5 112 11.587
26 CP5 113 10.122
26 CP5 114 3.774
26 CP5 115 -2.574
26 CP5 116 -3.062
26 CP5 117 2.797
26 CP5 118 9.633
26 CP5 119 12.563
26 CP5 120 9.633
26 CP5 121 2.797
26 CP5 122 -1.597
26 CP5 123 -0.621
26 CP5 124 4.262
26 CP5 125 8.169
26 CP5 126 8.169
26 CP5 127 4.751
26 CP5 128 0.844
26 CP5 129 -0.132
26 CP5 130 2.309
26 CP5 131 5.239
26 CP5 132 7.680
26 CP5 133 7.680
26 CP5 134 6.704
26 CP5 135 5.727
26 CP5 136 4.262
26 CP5 137 2.797
26 CP5 138 0.844
26 CP5 139 0.844
26 CP5 140 1.821
26 CP5 141 3.286
26 CP5 142 3.286
26 CP5 143 2.797
26 CP5 144 2.309
26 CP5 145 3.774
26 CP5 146 6.215
26 CP5 147 7.192
26 CP5 148 5.727
26 CP5 149 1.333
26 CP5 150 -3.062
26 CP5 151 -5.015
26 CP5 152 -3.550
26 CP5 153 -0.132
26 CP5 154 2.797
26 CP5 155 3.774
26 CP5 156 3.774
26 CP5 157 3.774
26 CP5 158 4.262
26 CP5 159 3.774
26 CP5 160 1.821
26 CP5 161 -1.109
26 CP5 162 -3.062
26 CP5 163 -3.062
26 CP5 164 -1.597
26 CP5 165 -1.109
26 CP5 166 -3.062
26 CP5 167 -6.480
26 CP5 168 -9.410
26 CP5 169 -8.921
26 CP5 170 -5.015
26 CP5 171 -0.621
26 CP5 172 1.821
26 CP5 173 1.333
26 CP5 174 0.356
26 CP5 175 0.844
26 CP5 176 3.774
26 CP5 177 7.192
26 CP5 178 8.657
26 CP5 179 5.727
26 CP5 180 1.333
26 CP5 181 -3.062
26 CP5 182 -4.038
26 CP5 183 -2.574
26 CP5 184 -0.132
26 CP5 185 1.333
26 CP5 186 2.309
26 CP5 187 3.286
26 CP5 188 4.262
26 CP5 189 4.751
26 CP5 190 2.797
26 CP5 191 -1.109
26 CP5 192 -4.038
26 CP5 193 -3.550
26 CP5 194 -0.132
26 CP5 195 3.774
26 CP5 196 5.239
26 CP5 197 3.286
26 CP5 198 0.356
26 CP5 199 -1.109
26 CP5 200 0.356
26 CP5 201 2.797
26 CP5 202 2.797
26 CP5 203 0.356
26 CP5 204 -4.038
26 CP5 205 -5.992
26 CP5 206 -5.015
26 CP5 207 -2.574
26 CP5 208 -0.132
26 CP5 209 0.844
26 CP5 210 1.821
26 CP5 211 3.774
26 CP5 212 8.657
26 CP5 213 13.051
26 CP5 214 12.563
26 CP5 215 6.215
26 CP5 216 -3.062
26 CP5 217 -10.386
26 CP5 218 -10.386
26 CP5 219 -4.038
26 CP5 220 3.774
26 CP5 221 7.680
26 CP5 222 5.727
26 CP5 223 1.821
26 CP5 224 0.844
26 CP5 225 3.774
26 CP5 226 7.680
26 CP5 227 9.145
26 CP5 228 5.727
26 CP5 229 -0.621
26 CP5 230 -5.015
26 CP5 231 -4.527
26 CP5 232 -0.132
26 CP5 233 4.262
26 CP5 234 5.727
26 CP5 235 3.286
26 CP5 236 -1.109
26 CP5 237 -3.550
26 CP5 238 -3.550
26 CP5 239 -1.597
26 CP5 240 1.821
26 CP5 241 3.286
26 CP5 242 3.774
26 CP5 243 1.821
26 CP5 244 -0.621
26 CP5 245 -3.062
26 CP5 246 -4.527
26 CP5 247 -3.550
26 CP5 248 -1.109
26 CP5 249 0.844
26 CP5 250 1.333
26 CP5 251 -0.132
26 CP5 252 -2.574
26 CP5 253 -4.038
26 CP5 254 -3.550
26 CP5 255 -1.597
# CP6 chan 19
26 CP6 0 -0.631
26 CP6 1 -1.119
26 CP6 2 0.346
26 CP6 3 0.834
26 CP6 4 0.834
26 CP6 5 -1.119
26 CP6 6 -3.560
26 CP6 7 -4.537
26 CP6 8 -3.560
26 CP6 9 -0.631
26 CP6 10 2.299
26 CP6 11 4.252
26 CP6 12 5.229
26 CP6 13 5.717
26 CP6 14 5.717
26 CP6 15 5.717
26 CP6 16 4.252
26 CP6 17 2.787
26 CP6 18 1.322
26 CP6 19 -0.142
26 CP6 20 -1.119
26 CP6 21 -2.096
26 CP6 22 -3.072
26 CP6 23 -4.049
26 CP6 24 -4.537
26 CP6 25 -4.049
26 CP6 26 -3.072
26 CP6 27 -1.607
26 CP6 28 -0.631
26 CP6 29 0.834
26 CP6 30 1.322
26 CP6 31 2.787
26 CP6 32 3.764
26 CP6 33 4.252
26 CP6 34 4.252
26 CP6 35 3.764
26 CP6 36 1.811
26 CP6 37 -0.142
26 CP6 38 -2.096
26 CP6 39 -2.584
26 CP6 40 -2.584
26 CP6 41 -1.607
26 CP6 42 -0.142
26 CP6 43 0.346
26 CP6 44 -0.142
26 CP6 45 -1.607
26 CP6 46 -3.072
26 CP6 47 -4.049
26 CP6 48 -3.560
26 CP6 49 -2.584
26 CP6 50 -1.607
26 CP6 51 -0.631
26 CP6 52 -0.142
26 CP6 53 0.834
26 CP6 54 1.322
26 CP6 55 2.299
26 CP6 56 2.787
26 CP6 57 2.299
26 CP6 58 2.299
26 CP6 59 1.322
26 CP6 60 0.834
26 CP6 61 0.346
26 CP6 62 0.346
26 CP6 63 0.834
26 CP6 64 1.811
26 CP6 65 1.322
26 CP6 66 0.346
26 CP6 67 -1.607
26 CP6 68 -3.072
26 CP6 69 -1.607
26 CP6 70 1.811
26 CP6 71 6.205
26 CP6 72 8.647
26 CP6 73 8.647
26 CP6 74 7.670
26 CP6 75 7.182
26 CP6 76 7.182
26 CP6 77 7.670
26 CP6 78 6.694
26 CP6 79 5.229
26 CP6 80 2.787
26 CP6 81 1.811
26 CP6 82 1.811
26 CP6 83 2.299
26 CP6 84 1.811
26 CP6 85 0.834
26 CP6 86 -1.119
26 CP6 87 -2.584
26 CP6 88 -2.584
26 CP6 89 -1.607
26 CP6 90 -0.631
26 CP6 91 -0.631
26 CP6 92 -1.119
26 CP6 93 -1.119
26 CP6 94 -0.631
26 CP6 95 0.346
26 CP6 96 -0.142
26 CP6 97 -1.119
26 CP6 98 -3.072
26 CP6 99 -5.025
26 CP6 100 -6.002
26 CP6 101 -5.025
26 CP6 102 -4.049
26 CP6 103 -3.072
26 CP6 104 -3.560
26 CP6 105 -4.537
26 CP6 106 -4.537
26 CP6 107 -2.096
26 CP6 108 0.346
26 CP6 109 1.811
26 CP6 110 0.834
26 CP6 111 -2.096
26 CP6 112 -5.025
26 CP6 113 -6.978
26 CP6 114 -6.490
26 CP6 115 -5.514
26 CP6 116 -5.514
26 CP6 117 -6.490
26 CP6 118 -7.467
26 CP6 119 -6.978
26 CP6 120 -5.025
26 CP6 121 -2.584
26 CP6 122 -0.631
26 CP6 123 -0.631
26 CP6 124 -0.142
26 CP6 125 0.834
26 CP6 126 3.276
26 CP6 127 5.229
26 CP6 128 6.205
26 CP6 129 5.229
26 CP6 130 4.252
26 CP6 131 3.764
26 CP6 132 3.764
26 CP6 133 4.252
26 CP6 134 3.276
26 CP6 135 1.811
26 CP6 136 1.322
26 CP6 137 1.811
26 CP6 138 2.787
26 CP6 139 3.276
26 CP6 140 2.787
26 CP6 141 2.299
26 CP6 142 2.787
26 CP6 143 5.717
26 CP6 144 9.135
26 CP6 145 10.600
26 CP6 146 9.135
26 CP6 147 6.205
26 CP6 148 2.787
26 CP6 149 1.811
26 CP6 150 2.299
26 CP6 151 3.764
26 CP6 152 3.764
26 CP6 153 3.276
26 CP6 154 2.299
26 CP6 155 2.787
26 CP6 156 3.764
26 CP6 157 4.740
26 CP6 158 3.276
26 CP6 159 1.811
26 CP6 160 0.346
26 CP6 161 -0.142
26 CP6 162 -0.142
26 CP6 163 -0.631
26 CP6 164 -2.584
26 CP6 165 -5.025
26 CP6 166 -7.467
26 CP6 167 -6.978
26 CP6 168 -5.025
26 CP6 169 -2.584
26 CP6 170 -1.119
26 CP6 171 -1.607
26 CP6 172 -1.607
26 CP6 173 -1.119
26 CP6 174 0.834
26 CP6 175 3.764
26 CP6 176 5.229
26 CP6 177 5.717
26 CP6 178 4.740
26 CP6 179 3.764
26 CP6 180 2.299
26 CP6 181 0.834
26 CP6 182 -1.119
26 CP6 183 -3.560
26 CP6 184 -6.002
26 CP6 185 -6.490
26 CP6 186 -6.002
26 CP6 187 -5.514
26 CP6 188 -5.514
26 CP6 189 -5.514
26 CP6 190 -5.025
26 CP6 191 -3.560
26 CP6 192 -1.607
26 CP6 193 0.834
26 CP6 194 1.322
26 CP6 195 0.834
26 CP6 196 -0.631
26 CP6 197 -1.119
26 CP6 198 -1.119
26 CP6 199 -0.142
26 CP6 200 0.346
26 CP6 201 0.834
26 CP6 202 0.346
26 CP6 203 -1.119
26 CP6 204 -2.096
26 CP6 205 -3.072
26 CP6 206 -3.072
26 CP6 207 -1.607
26 CP6 208 0.346
26 CP6 209 2.299
26 CP6 210 3.764
26 CP6 211 3.276
26 CP6 212 1.322
26 CP6 213 -1.607
26 CP6 214 -4.537
26 CP6 215 -5.514
26 CP6 216 -5.025
26 CP6 217 -3.560
26 CP6 218 -2.584
26 CP6 219 -3.560
26 CP6 220 -4.537
26 CP6 221 -5.514
26 CP6 222 -5.025
26 CP6 223 -4.049
26 CP6 224 -2.584
26 CP6 225 -2.096
26 CP6 226 -2.096
26 CP6 227 -2.584
26 CP6 228 -3.072
26 CP6 229 -3.072
26 CP6 230 -3.072
26 CP6 231 -3.072
26 CP6 232 -4.049
26 CP6 233 -6.002
26 CP6 234 -6.490
26 CP6 235 -6.490
26 CP6 236 -5.514
26 CP6 237 -3.560
26 CP6 238 -2.584
26 CP6 239 -2.584
26 CP6 240 -4.049
26 CP6 241 -6.002
26 CP6 242 -7.467
26 CP6 243 -7.467
26 CP6 244 -6.490
26 CP6 245 -4.537
26 CP6 246 -2.584
26 CP6 247 -0.631
26 CP6 248 0.834
26 CP6 249 1.322
26 CP6 250 0.346
26 CP6 251 -0.631
26 CP6 252 -1.607
26 CP6 253 -2.096
26 CP6 254 -1.607
26 CP6 255 -1.607
# CP1 chan 20
26 CP1 0 -8.026
26 CP1 1 -8.026
26 CP1 2 -7.538
26 CP1 3 -7.050
26 CP1 4 -7.050
26 CP1 5 -7.050
26 CP1 6 -7.050
26 CP1 7 -7.050
26 CP1 8 -7.538
26 CP1 9 -7.538
26 CP1 10 -7.538
26 CP1 11 -7.538
26 CP1 12 -7.050
26 CP1 13 -7.050
26 CP1 14 -7.538
26 CP1 15 -7.538
26 CP1 16 -8.026
26 CP1 17 -7.538
26 CP1 18 -7.050
26 CP1 19 -6.561
26 CP1 20 -6.561
26 CP1 21 -6.073
26 CP1 22 -6.561
26 CP1 23 -6.561
26 CP1 24 -7.050
26 CP1 25 -7.050
26 CP1 26 -6.561
26 CP1 27 -5.096
26 CP1 28 -3.143
26 CP1 29 -1.190
26 CP1 30 -0.702
26 CP1 31 -0.702
26 CP1 32 -1.678
26 CP1 33 -3.143
26 CP1 34 -4.608
26 CP1 35 -6.073
26 CP1 36 -8.026
26 CP1 37 -9.003
26 CP1 38 -9.003
26 CP1 39 -8.514
26 CP1 40 -7.538
26 CP1 41 -8.026
26 CP1 42 -8.514
26 CP1 43 -9.979
26 CP1 44 -10.956
26 CP1 45 -10.468
26 CP1 46 -8.514
26 CP1 47 -6.073
26 CP1 48 -4.608
26 CP1 49 -3.632
26 CP1 50 -3.632
26 CP1 51 -3.143
26 CP1 52 -2.167
26 CP1 53 -2.167
26 CP1 54 -2.655
26 CP1 55 -4.120
26 CP1 56 -5.585
26 CP1 57 -7.050
26 CP1 58 -7.538
26 CP1 59 -7.538
26 CP1 60 -7.050
26 CP1 61 -6.561
26 CP1 62 -6.561
26 CP1 63 -5.585
26 CP1 64 -4.608
26 CP1 65 -3.143
26 CP1 66 -2.655
26 CP1 67 -2.655
26 CP1 68 -2.167
26 CP1 69 -1.190
26 CP1 70 0.275
26 CP1 71 2.228
26 CP1 72 2.716
26 CP1 73 2.228
26 CP1 74 1.251
26 CP1 75 0.275
26 CP1 76 0.275
26 CP1 77 1.251
26 CP1 78 2.716
26 CP1 79 3.204
26 CP1 80 3.204
26 CP1 81 2.228
26 CP1 82 1.251
26 CP1 83 1.251
26 CP1 84 1.251
26 CP1 85 1.740
26 CP1 86 1.740
26 CP1 87 1.740
26 CP1 88 0.763
26 CP1 89 0.275
26 CP1 90 -0.214
26 CP1 91 -0.214
26 CP1 92 -0.214
26 CP1 93 -0.214
26 CP1 94 -0.702
26 CP1 95 -1.678
26 CP1 96 -2.167
26 CP1 97 -2.167
26 CP1 98 -1.678
26 CP1 99 -0.214
26 CP1 100 0.763
26 CP1 101 1.251
26 CP1 102 0.275
26 CP1 103 -0.702
26 CP1 104 -1.678
26 CP1 105 -1.190
26 CP1 106 -0.702
26 CP1 107 -0.214
26 CP1 108 -0.702
26 CP1 109 -1.678
26 CP1 110 -2.167
26 CP1 111 -1.678
26 CP1 112 -1.678
26 CP1 113 -2.167
26 CP1 114 -3.143
26 CP1 115 -4.608
26 CP1 116 -5.096
26 CP1 117 -4.608
26 CP1 118 -3.143
26 CP1 119 -1.678
26 CP1 120 -1.190
26 CP1 121 -1.678
26 CP1 122 -2.167
26 CP1 123 -1.678
26 CP1 124 -0.214
26 CP1 125 0.763
26 CP1 126 0.763
26 CP1 127 -0.214
26 CP1 128 -1.190
26 CP1 129 -2.167
26 CP1 130 -1.678
26 CP1 131 -0.214
26 CP1 132 0.763
26 CP1 133 2.228
26 CP1 134 2.716
26 CP1 135 3.204
26 CP1 136 3.693
26 CP1 137 3.693
26 CP1 138 3.204
26 CP1 139 2.228
26 CP1 140 0.763
26 CP1 141 -0.702
26 CP1 142 -2.167
26 CP1 143 -2.655
26 CP1 144 -3.143
26 CP1 145 -3.143
26 CP1 146 -3.143
26 CP1 147 -2.655
26 CP1 148 -2.655
26 CP1 149 -2.655
26 CP1 150 -2.167
26 CP1 151 -2.167
26 CP1 152 -2.655
26 CP1 153 -3.143
26 CP1 154 -4.608
26 CP1 155 -5.585
26 CP1 156 -5.096
26 CP1 157 -3.632
26 CP1 158 -2.655
26 CP1 159 -1.678
26 CP1 160 -2.655
26 CP1 161 -4.608
26 CP1 162 -7.050
26 CP1 163 -7.538
26 CP1 164 -7.050
26 CP1 165 -6.561
26 CP1 166 -6.073
26 CP1 167 -7.050
26 CP1 168 -8.026
26 CP1 169 -8.026
26 CP1 170 -6.561
26 CP1 171 -4.608
26 CP1 172 -3.143
26 CP1 173 -3.632
26 CP1 174 -4.608
26 CP1 175 -4.608
26 CP1 176 -3.143
26 CP1 177 -0.702
26 CP1 178 1.251
26 CP1 179 1.251
26 CP1 180 -2.167
26 CP1 181 -5.585
26 CP1 182 -7.538
26 CP1 183 -7.538
26 CP1 184 -5.585
26 CP1 185 -3.632
26 CP1 186 -2.167
26 CP1 187 -1.678
26 CP1 188 -2.655
26 CP1 189 -3.632
26 CP1 190 -4.608
26 CP1 191 -5.096
26 CP1 192 -5.096
26 CP1 193 -4.608
26 CP1 194 -3.632
26 CP1 195 -3.143
26 CP1 196 -3.143
26 CP1 197 -3.632
26 CP1 198 -4.608
26 CP1 199 -5.096
26 CP1 200 -5.096
26 CP1 201 -5.585
26 CP1 202 -6.073
26 CP1 203 -6.561
26 CP1 204 -7.050
26 CP1 205 -6.561
26 CP1 206 -5.096
26 CP1 207 -3.143
26 CP1 208 -1.678
26 CP1 209 -1.190
26 CP1 210 -1.190
26 CP1 211 -1.190
26 CP1 212 -0.214
26 CP1 213 0.275
26 CP1 214 0.275
26 CP1 215 -0.702
26 CP1 216 -2.655
26 CP1 217 -4.608
26 CP1 218 -5.096
26 CP1 219 -3.632
26 CP1 220 -2.167
26 CP1 221 -1.678
26 CP1 222 -2.655
26 CP1 223 -4.120
26 CP1 224 -4.608
26 CP1 225 -4.120
26 CP1 226 -2.655
26 CP1 227 -2.655
26 CP1 228 -3.143
26 CP1 229 -5.096
26 CP1 230 -6.073
26 CP1 231 -6.561
26 CP1 232 -6.073
26 CP1 233 -5.585
26 CP1 234 -6.561
26 CP1 235 -7.538
26 CP1 236 -8.514
26 CP1 237 -9.003
26 CP1 238 -9.003
26 CP1 239 -9.491
26 CP1 240 -9.491
26 CP1 241 -9.979
26 CP1 242 -9.491
26 CP1 243 -8.026
26 CP1 244 -7.050
26 CP1 245 -6.561
26 CP1 246 -7.050
26 CP1 247 -7.538
26 CP1 248 -8.026
26 CP1 249 -8.514
26 CP1 250 -8.514
26 CP1 251 -9.491
26 CP1 252 -11.932
26 CP1 253 -13.885
26 CP1 254 -14.374
26 CP1 255 -13.397
# CP2 chan 21
26 CP2 0 -0.051
26 CP2 1 0.437
26 CP2 2 0.437
26 CP2 3 0.437
26 CP2 4 -0.051
26 CP2 5 -0.539
26 CP2 6 -0.539
26 CP2 7 -1.027
26 CP2 8 -2.004
26 CP2 9 -2.004
26 CP2 10 -1.027
26 CP2 11 0.926
26 CP2 12 2.879
26 CP2 13 3.367
26 CP2 14 3.367
26 CP2 15 1.902
26 CP2 16 1.414
26 CP2 17 1.414
26 CP2 18 2.391
26 CP2 19 2.391
26 CP2 20 1.902
26 CP2 21 1.414
26 CP2 22 1.414
26 CP2 23 1.902
26 CP2 24 3.367
26 CP2 25 4.344
26 CP2 26 5.320
26 CP2 27 6.297
26 CP2 28 7.762
26 CP2 29 9.715
26 CP2 30 11.668
26 CP2 31 12.156
26 CP2 32 10.203
26 CP2 33 6.785
26 CP2 34 3.855
26 CP2 35 3.367
26 CP2 36 3.855
26 CP2 37 5.320
26 CP2 38 6.297
26 CP2 39 6.297
26 CP2 40 5.320
26 CP2 41 4.344
26 CP2 42 4.344
26 CP2 43 4.832
26 CP2 44 5.320
26 CP2 45 4.344
26 CP2 46 3.367
26 CP2 47 3.367
26 CP2 48 3.367
26 CP2 49 4.344
26 CP2 50 5.809
26 CP2 51 6.785
26 CP2 52 8.250
26 CP2 53 9.226
26 CP2 54 10.203
26 CP2 55 10.203
26 CP2 56 9.715
26 CP2 57 7.762
26 CP2 58 5.809
26 CP2 59 4.832
26 CP2 60 4.344
26 CP2 61 4.344
26 CP2 62 4.832
26 CP2 63 4.832
26 CP2 64 4.344
26 CP2 65 4.344
26 CP2 66 2.879
26 CP2 67 2.391
26 CP2 68 2.391
26 CP2 69 3.855
26 CP2 70 6.785
26 CP2 71 10.203
26 CP2 72 12.644
26 CP2 73 13.621
26 CP2 74 13.621
26 CP2 75 13.133
26 CP2 76 12.156
26 CP2 77 10.691
26 CP2 78 9.715
26 CP2 79 8.738
26 CP2 80 8.250
26 CP2 81 8.738
26 CP2 82 9.715
26 CP2 83 11.180
26 CP2 84 11.180
26 CP2 85 10.203
26 CP2 86 8.738
26 CP2 87 7.273
26 CP2 88 6.785
26 CP2 89 7.762
26 CP2 90 8.738
26 CP2 91 9.715
26 CP2 92 10.203
26 CP2 93 10.203
26 CP2 94 10.691
26 CP2 95 11.180
26 CP2 96 11.668
26 CP2 97 11.668
26 CP2 98 9.715
26 CP2 99 7.273
26 CP2 100 5.320
26 CP2 101 3.855
26 CP2 102 4.344
26 CP2 103 5.320
26 CP2 104 5.809
26 CP2 105 4.832
26 CP2 106 3.367
26 CP2 107 3.367
26 CP2 108 4.832
26 CP2 109 7.273
26 CP2 110 8.250
26 CP2 111 7.273
26 CP2 112 4.832
26 CP2 113 2.879
26 CP2 114 2.879
26 CP2 115 4.344
26 CP2 116 6.297
26 CP2 117 7.273
26 CP2 118 6.297
26 CP2 119 4.832
26 CP2 120 5.320
26 CP2 121 7.273
26 CP2 122 10.203
26 CP2 123 12.644
26 CP2 124 13.621
26 CP2 125 13.621
26 CP2 126 12.644
26 CP2 127 11.668
26 CP2 128 11.180
26 CP2 129 11.180
26 CP2 130 11.180
26 CP2 131 11.180
26 CP2 132 11.668
26 CP2 133 12.156
26 CP2 134 12.156
26 CP2 135 12.156
26 CP2 136 12.644
26 CP2 137 13.621
26 CP2 138 14.598
26 CP2 139 15.574
26 CP2 140 16.551
26 CP2 141 17.039
26 CP2 142 17.039
26 CP2 143 18.016
26 CP2 144 18.504
26 CP2 145 18.992
26 CP2 146 18.016
26 CP2 147 16.551
26 CP2 148 15.574
26 CP2 149 15.086
26 CP2 150 15.086
26 CP2 151 15.574
26 CP2 152 15.574
26 CP2 153 15.086
26 CP2 154 14.109
26 CP2 155 13.621
26 CP2 156 13.621
26 CP2 157 13.621
26 CP2 158 13.133
26 CP2 159 11.180
26 CP2 160 9.715
26 CP2 161 7.762
26 CP2 162 6.297
26 CP2 163 5.320
26 CP2 164 4.344
26 CP2 165 2.879
26 CP2 166 2.391
26 CP2 167 2.879
26 CP2 168 4.344
26 CP2 169 5.809
26 CP2 170 7.762
26 CP2 171 9.226
26 CP2 172 10.691
26 CP2 173 12.644
26 CP2 174 14.109
26 CP2 175 16.062
26 CP2 176 17.039
26 CP2 177 17.527
26 CP2 178 16.551
26 CP2 179 15.086
26 CP2 180 12.156
26 CP2 181 10.203
26 CP2 182 8.738
26 CP2 183 8.250
26 CP2 184 8.250
26 CP2 185 8.738
26 CP2 186 8.738
26 CP2 187 7.762
26 CP2 188 6.297
26 CP2 189 4.832
26 CP2 190 3.855
26 CP2 191 4.344
26 CP2 192 6.297
26 CP2 193 8.250
26 CP2 194 9.715
26 CP2 195 10.691
26 CP2 196 10.691
26 CP2 197 10.691
26 CP2 198 11.180
26 CP2 199 11.668
26 CP2 200 12.156
26 CP2 201 11.180
26 CP2 202 9.226
26 CP2 203 7.273
26 CP2 204 6.297
26 CP2 205 6.297
26 CP2 206 6.785
26 CP2 207 7.762
26 CP2 208 9.226
26 CP2 209 10.691
26 CP2 210 11.668
26 CP2 211 12.156
26 CP2 212 11.180
26 CP2 213 10.203
26 CP2 214 8.738
26 CP2 215 7.762
26 CP2 216 7.762
26 CP2 217 8.250
26 CP2 218 8.250
26 CP2 219 8.250
26 CP2 220 7.273
26 CP2 221 6.785
26 CP2 222 7.273
26 CP2 223 7.762
26 CP2 224 7.762
26 CP2 225 7.273
26 CP2 226 7.273
26 CP2 227 7.273
26 CP2 228 8.250
26 CP2 229 9.226
26 CP2 230 10.203
26 CP2 231 10.203
26 CP2 232 9.715
26 CP2 233 9.226
26 CP2 234 9.226
26 CP2 235 10.203
26 CP2 236 11.668
26 CP2 237 12.156
26 CP2 238 12.156
26 CP2 239 11.180
26 CP2 240 9.715
26 CP2 241 9.226
26 CP2 242 9.226
26 CP2 243 9.715
26 CP2 244 10.691
26 CP2 245 11.180
26 CP2 246 11.668
26 CP2 247 12.156
26 CP2 248 12.156
26 CP2 249 11.180
26 CP2 250 9.226
26 CP2 251 7.762
26 CP2 252 7.273
26 CP2 253 7.273
26 CP2 254 9.226
26 CP2 255 11.668
# P3 chan 22
26 P3 0 -2.553
26 P3 1 -4.506
26 P3 2 -6.460
26 P3 3 -6.948
26 P3 4 -5.971
26 P3 5 -4.995
26 P3 6 -4.995
26 P3 7 -6.948
26 P3 8 -9.389
26 P3 9 -11.342
26 P3 10 -12.319
26 P3 11 -11.342
26 P3 12 -9.878
26 P3 13 -8.413
26 P3 14 -7.436
26 P3 15 -7.436
26 P3 16 -6.948
26 P3 17 -7.436
26 P3 18 -7.924
26 P3 19 -7.924
26 P3 20 -7.436
26 P3 21 -6.460
26 P3 22 -4.995
26 P3 23 -3.042
26 P3 24 -1.577
26 P3 25 -0.600
26 P3 26 0.865
26 P3 27 1.841
26 P3 28 2.818
26 P3 29 2.818
26 P3 30 1.841
26 P3 31 0.865
26 P3 32 0.376
26 P3 33 -0.600
26 P3 34 -2.065
26 P3 35 -3.530
26 P3 36 -5.483
26 P3 37 -6.460
26 P3 38 -6.948
26 P3 39 -6.460
26 P3 40 -7.436
26 P3 41 -8.901
26 P3 42 -10.854
26 P3 43 -12.807
26 P3 44 -13.784
26 P3 45 -13.784
26 P3 46 -13.295
26 P3 47 -12.319
26 P3 48 -11.342
26 P3 49 -8.901
26 P3 50 -6.460
26 P3 51 -4.018
26 P3 52 -3.042
26 P3 53 -3.042
26 P3 54 -3.530
26 P3 55 -3.530
26 P3 56 -3.530
26 P3 57 -3.530
26 P3 58 -4.506
26 P3 59 -5.971
26 P3 60 -6.460
26 P3 61 -5.483
26 P3 62 -4.018
26 P3 63 -2.065
26 P3 64 -1.577
26 P3 65 -2.553
26 P3 66 -3.530
26 P3 67 -3.530
26 P3 68 -1.577
26 P3 69 0.865
26 P3 70 3.306
26 P3 71 5.259
26 P3 72 6.724
26 P3 73 7.701
26 P3 74 8.677
26 P3 75 9.165
26 P3 76 8.189
26 P3 77 6.236
26 P3 78 3.306
26 P3 79 1.353
26 P3 80 1.353
26 P3 81 2.818
26 P3 82 4.771
26 P3 83 5.747
26 P3 84 4.771
26 P3 85 2.818
26 P3 86 0.865
26 P3 87 1.353
26 P3 88 3.794
26 P3 89 7.701
26 P3 90 10.630
26 P3 91 10.630
26 P3 92 8.189
26 P3 93 4.283
26 P3 94 1.353
26 P3 95 -0.600
26 P3 96 -1.088
26 P3 97 -0.600
26 P3 98 -0.600
26 P3 99 -1.088
26 P3 100 -1.088
26 P3 101 -1.088
26 P3 102 -0.600
26 P3 103 0.865
26 P3 104 1.841
26 P3 105 1.353
26 P3 106 -1.088
26 P3 107 -4.506
26 P3 108 -7.436
26 P3 109 -8.413
26 P3 110 -7.436
26 P3 111 -4.506
26 P3 112 -2.553
26 P3 113 -1.577
26 P3 114 -2.065
26 P3 115 -3.530
26 P3 116 -4.506
26 P3 117 -4.506
26 P3 118 -4.018
26 P3 119 -3.530
26 P3 120 -3.042
26 P3 121 -2.065
26 P3 122 -1.577
26 P3 123 -0.112
26 P3 124 0.865
26 P3 125 0.865
26 P3 126 -0.112
26 P3 127 -1.577
26 P3 128 -3.042
26 P3 129 -3.530
26 P3 130 -3.530
26 P3 131 -3.042
26 P3 132 -2.065
26 P3 133 -0.600
26 P3 134 1.353
26 P3 135 3.306
26 P3 136 4.771
26 P3 137 4.283
26 P3 138 3.306
26 P3 139 2.330
26 P3 140 -0.112
26 P3 141 -1.577
26 P3 142 -2.065
26 P3 143 -2.553
26 P3 144 -2.065
26 P3 145 -1.088
26 P3 146 -0.600
26 P3 147 -0.112
26 P3 148 -1.088
26 P3 149 -2.553
26 P3 150 -3.530
26 P3 151 -3.530
26 P3 152 -3.042
26 P3 153 -2.553
26 P3 154 -2.065
26 P3 155 -2.065
26 P3 156 -2.065
26 P3 157 -2.553
26 P3 158 -3.530
26 P3 159 -5.483
26 P3 160 -8.413
26 P3 161 -10.854
26 P3 162 -11.342
26 P3 163 -9.878
26 P3 164 -7.924
26 P3 165 -6.460
26 P3 166 -6.460
26 P3 167 -8.413
26 P3 168 -10.366
26 P3 169 -11.342
26 P3 170 -11.342
26 P3 171 -10.366
26 P3 172 -9.878
26 P3 173 -10.366
26 P3 174 -10.366
26 P3 175 -9.878
26 P3 176 -8.413
26 P3 177 -7.436
26 P3 178 -7.924
26 P3 179 -9.878
26 P3 180 -12.319
26 P3 181 -14.272
26 P3 182 -15.249
26 P3 183 -14.760
26 P3 184 -13.295
26 P3 185 -11.831
26 P3 186 -10.854
26 P3 187 -10.854
26 P3 188 -11.342
26 P3 189 -12.807
26 P3 190 -14.272
26 P3 191 -14.272
26 P3 192 -13.784
26 P3 193 -11.831
26 P3 194 -10.366
26 P3 195 -10.366
26 P3 196 -11.342
26 P3 197 -12.319
26 P3 198 -12.319
26 P3 199 -11.342
26 P3 200 -9.878
26 P3 201 -9.878
26 P3 202 -11.831
26 P3 203 -14.760
26 P3 204 -16.713
26 P3 205 -16.713
26 P3 206 -14.760
26 P3 207 -13.295
26 P3 208 -12.319
26 P3 209 -12.807
26 P3 210 -13.295
26 P3 211 -12.807
26 P3 212 -11.342
26 P3 213 -10.366
26 P3 214 -10.854
26 P3 215 -12.807
26 P3 216 -15.249
26 P3 217 -17.202
26 P3 218 -16.713
26 P3 219 -15.249
26 P3 220 -13.295
26 P3 221 -11.831
26 P3 222 -11.342
26 P3 223 -11.342
26 P3 224 -11.342
26 P3 225 -11.342
26 P3 226 -11.831
26 P3 227 -12.807
26 P3 228 -13.784
26 P3 229 -14.760
26 P3 230 -15.249
26 P3 231 -15.249
26 P3 232 -14.760
26 P3 233 -14.272
26 P3 234 -13.295
26 P3 235 -12.807
26 P3 236 -12.807
26 P3 237 -14.760
26 P3 238 -17.202
26 P3 239 -19.155
26 P3 240 -18.667
26 P3 241 -17.202
26 P3 242 -15.249
26 P3 243 -15.249
26 P3 244 -16.713
26 P3 245 -18.667
26 P3 246 -19.155
26 P3 247 -18.178
26 P3 248 -16.713
26 P3 249 -15.737
26 P3 250 -17.202
26 P3 251 -20.131
26 P3 252 -22.573
26 P3 253 -22.573
26 P3 254 -19.643
26 P3 255 -14.760
# P4 chan 23
26 P4 0 -3.215
26 P4 1 -2.726
26 P4 2 -1.750
26 P4 3 -1.261
26 P4 4 -1.261
26 P4 5 -1.750
26 P4 6 -1.750
26 P4 7 -2.238
26 P4 8 -2.238
26 P4 9 -2.238
26 P4 10 -0.773
26 P4 11 2.157
26 P4 12 4.110
26 P4 13 5.086
26 P4 14 4.110
26 P4 15 1.668
26 P4 16 -0.773
26 P4 17 -1.750
26 P4 18 -1.261
26 P4 19 0.203
26 P4 20 1.180
26 P4 21 0.692
26 P4 22 -0.285
26 P4 23 -1.261
26 P4 24 -1.261
26 P4 25 -0.285
26 P4 26 0.203
26 P4 27 0.692
26 P4 28 1.180
26 P4 29 2.645
26 P4 30 4.110
26 P4 31 5.575
26 P4 32 5.086
26 P4 33 3.621
26 P4 34 1.180
26 P4 35 -0.773
26 P4 36 -1.261
26 P4 37 -0.773
26 P4 38 0.203
26 P4 39 -0.285
26 P4 40 -1.261
26 P4 41 -2.238
26 P4 42 -2.238
26 P4 43 -1.261
26 P4 44 -0.773
26 P4 45 -1.261
26 P4 46 -1.750
26 P4 47 -1.750
26 P4 48 -1.261
26 P4 49 -0.285
26 P4 50 0.203
26 P4 51 0.203
26 P4 52 0.203
26 P4 53 1.668
26 P4 54 3.133
26 P4 55 5.086
26 P4 56 5.575
26 P4 57 4.598
26 P4 58 1.668
26 P4 59 -0.773
26 P4 60 -2.726
26 P4 61 -3.215
26 P4 62 -2.726
26 P4 63 -1.750
26 P4 64 -0.285
26 P4 65 1.180
26 P4 66 1.668
26 P4 67 2.645
26 P4 68 3.621
26 P4 69 4.598
26 P4 70 6.063
26 P4 71 8.504
26 P4 72 10.457
26 P4 73 11.922
26 P4 74 12.410
26 P4 75 12.410
26 P4 76 11.922
26 P4 77 10.946
26 P4 78 8.993
26 P4 79 6.551
26 P4 80 4.110
26 P4 81 2.645
26 P4 82 2.645
26 P4 83 3.133
26 P4 84 4.110
26 P4 85 3.621
26 P4 86 2.157
26 P4 87 0.692
26 P4 88 0.203
26 P4 89 1.180
26 P4 90 3.133
26 P4 91 4.110
26 P4 92 4.598
26 P4 93 4.110
26 P4 94 3.621
26 P4 95 4.110
26 P4 96 5.086
26 P4 97 5.575
26 P4 98 4.598
26 P4 99 2.157
26 P4 100 0.203
26 P4 101 -0.285
26 P4 102 0.692
26 P4 103 2.645
26 P4 104 3.621
26 P4 105 3.621
26 P4 106 2.645
26 P4 107 1.668
26 P4 108 1.180
26 P4 109 1.668
26 P4 110 1.180
26 P4 111 -0.285
26 P4 112 -2.726
26 P4 113 -4.679
26 P4 114 -4.679
26 P4 115 -3.215
26 P4 116 -2.238
26 P4 117 -1.261
26 P4 118 -1.750
26 P4 119 -2.726
26 P4 120 -2.238
26 P4 121 -0.773
26 P4 122 0.203
26 P4 123 1.180
26 P4 124 1.180
26 P4 125 1.180
26 P4 126 1.668
26 P4 127 3.133
26 P4 128 3.621
26 P4 129 3.621
26 P4 130 2.645
26 P4 131 1.668
26 P4 132 1.668
26 P4 133 1.668
26 P4 134 2.645
26 P4 135 3.621
26 P4 136 4.110
26 P4 137 5.086
26 P4 138 5.575
26 P4 139 5.575
26 P4 140 5.575
26 P4 141 5.575
26 P4 142 6.063
26 P4 143 7.528
26 P4 144 8.993
26 P4 145 8.993
26 P4 146 7.528
26 P4 147 5.575
26 P4 148 3.621
26 P4 149 3.133
26 P4 150 3.621
26 P4 151 4.598
26 P4 152 5.086
26 P4 153 4.110
26 P4 154 3.621
26 P4 155 3.621
26 P4 156 4.598
26 P4 157 5.575
26 P4 158 4.598
26 P4 159 2.645
26 P4 160 0.203
26 P4 161 -1.261
26 P4 162 -1.750
26 P4 163 -0.773
26 P4 164 -0.773
26 P4 165 -0.773
26 P4 166 -2.238
26 P4 167 -2.726
26 P4 168 -2.726
26 P4 169 -2.238
26 P4 170 -1.261
26 P4 171 -0.773
26 P4 172 -1.261
26 P4 173 -1.261
26 P4 174 -0.285
26 P4 175 1.180
26 P4 176 2.645
26 P4 177 3.133
26 P4 178 2.645
26 P4 179 1.668
26 P4 180 0.203
26 P4 181 -1.261
26 P4 182 -3.215
26 P4 183 -5.168
26 P4 184 -7.121
26 P4 185 -8.097
26 P4 186 -8.097
26 P4 187 -7.121
26 P4 188 -6.632
26 P4 189 -6.144
26 P4 190 -6.632
26 P4 191 -6.144
26 P4 192 -5.168
26 P4 193 -4.679
26 P4 194 -4.191
26 P4 195 -4.679
26 P4 196 -5.656
26 P4 197 -5.656
26 P4 198 -4.679
26 P4 199 -3.215
26 P4 200 -2.726
26 P4 201 -2.726
26 P4 202 -4.191
26 P4 203 -5.656
26 P4 204 -6.144
26 P4 205 -6.144
26 P4 206 -5.656
26 P4 207 -4.679
26 P4 208 -4.191
26 P4 209 -3.703
26 P4 210 -2.726
26 P4 211 -2.238
26 P4 212 -1.750
26 P4 213 -1.750
26 P4 214 -2.238
26 P4 215 -2.238
26 P4 216 -1.261
26 P4 217 -0.773
26 P4 218 -0.285
26 P4 219 -0.285
26 P4 220 -0.773
26 P4 221 -1.261
26 P4 222 -0.773
26 P4 223 0.203
26 P4 224 0.692
26 P4 225 0.203
26 P4 226 -0.285
26 P4 227 -1.261
26 P4 228 -1.261
26 P4 229 -1.261
26 P4 230 -1.261
26 P4 231 -1.750
26 P4 232 -2.238
26 P4 233 -2.726
26 P4 234 -2.238
26 P4 235 -1.261
26 P4 236 -0.773
26 P4 237 -1.261
26 P4 238 -2.238
26 P4 239 -3.703
26 P4 240 -4.679
26 P4 241 -4.679
26 P4 242 -4.191
26 P4 243 -3.215
26 P4 244 -2.238
26 P4 245 -0.285
26 P4 246 1.668
26 P4 247 2.645
26 P4 248 3.133
26 P4 249 1.668
26 P4 250 0.203
26 P4 251 -0.285
26 P4 252 -0.773
26 P4 253 -0.773
26 P4 254 -1.261
26 P4 255 -2.238
# PZ chan 24
26 PZ 0 -6.795
26 PZ 1 -7.772
26 PZ 2 -8.748
26 PZ 3 -10.213
26 PZ 4 -10.701
26 PZ 5 -11.190
26 PZ 6 -11.678
26 PZ 7 -13.143
26 PZ 8 -15.584
26 PZ 9 -18.514
26 PZ 10 -19.491
26 PZ 11 -17.049
26 PZ 12 -13.143
26 PZ 13 -8.748
26 PZ 14 -7.284
26 PZ 15 -9.237
26 PZ 16 -12.655
26 PZ 17 -14.608
26 PZ 18 -13.143
26 PZ 19 -9.237
26 PZ 20 -4.842
26 PZ 21 -2.401
26 PZ 22 -2.401
26 PZ 23 -3.377
26 PZ 24 -3.866
26 PZ 25 -2.889
26 PZ 26 -1.424
26 PZ 27 0.041
26 PZ 28 -0.448
26 PZ 29 -1.912
26 PZ 30 -3.377
26 PZ 31 -3.866
26 PZ 32 -3.377
26 PZ 33 -2.889
26 PZ 34 -3.377
26 PZ 35 -4.354
26 PZ 36 -5.330
26 PZ 37 -6.307
26 PZ 38 -7.284
26 PZ 39 -9.237
26 PZ 40 -10.701
26 PZ 41 -11.190
26 PZ 42 -10.701
26 PZ 43 -9.237
26 PZ 44 -7.284
26 PZ 45 -6.795
26 PZ 46 -7.284
26 PZ 47 -8.260
26 PZ 48 -8.748
26 PZ 49 -7.772
26 PZ 50 -6.795
26 PZ 51 -5.819
26 PZ 52 -5.330
26 PZ 53 -5.819
26 PZ 54 -5.819
26 PZ 55 -4.354
26 PZ 56 -2.889
26 PZ 57 -2.401
26 PZ 58 -2.889
26 PZ 59 -4.354
26 PZ 60 -5.330
26 PZ 61 -4.842
26 PZ 62 -3.866
26 PZ 63 -2.401
26 PZ 64 -1.912
26 PZ 65 -1.912
26 PZ 66 -1.912
26 PZ 67 -0.936
26 PZ 68 1.017
26 PZ 69 2.970
26 PZ 70 4.435
26 PZ 71 5.412
26 PZ 72 5.900
26 PZ 73 7.365
26 PZ 74 8.830
26 PZ 75 9.806
26 PZ 76 8.341
26 PZ 77 3.947
26 PZ 78 -0.936
26 PZ 79 -4.842
26 PZ 80 -6.795
26 PZ 81 -6.307
26 PZ 82 -4.354
26 PZ 83 -3.377
26 PZ 84 -4.354
26 PZ 85 -5.330
26 PZ 86 -6.307
26 PZ 87 -5.330
26 PZ 88 -2.889
26 PZ 89 0.041
26 PZ 90 1.506
26 PZ 91 1.994
26 PZ 92 1.017
26 PZ 93 0.041
26 PZ 94 0.529
26 PZ 95 1.506
26 PZ 96 2.970
26 PZ 97 3.947
26 PZ 98 2.970
26 PZ 99 1.017
26 PZ 100 -0.936
26 PZ 101 -1.912
26 PZ 102 -1.912
26 PZ 103 -1.424
26 PZ 104 -0.936
26 PZ 105 -1.424
26 PZ 106 -2.889
26 PZ 107 -4.354
26 PZ 108 -5.819
26 PZ 109 -6.307
26 PZ 110 -5.819
26 PZ 111 -5.819
26 PZ 112 -5.819
26 PZ 113 -6.307
26 PZ 114 -7.284
26 PZ 115 -8.260
26 PZ 116 -8.260
26 PZ 117 -8.260
26 PZ 118 -8.260
26 PZ 119 -8.748
26 PZ 120 -10.213
26 PZ 121 -11.678
26 PZ 122 -12.166
26 PZ 123 -11.678
26 PZ 124 -9.725
26 PZ 125 -7.284
26 PZ 126 -6.795
26 PZ 127 -8.260
26 PZ 128 -11.678
26 PZ 129 -14.608
26 PZ 130 -15.584
26 PZ 131 -14.608
26 PZ 132 -11.678
26 PZ 133 -7.772
26 PZ 134 -4.842
26 PZ 135 -2.889
26 PZ 136 -1.912
26 PZ 137 -1.912
26 PZ 138 -2.401
26 PZ 139 -4.354
26 PZ 140 -6.307
26 PZ 141 -9.237
26 PZ 142 -11.190
26 PZ 143 -12.166
26 PZ 144 -13.143
26 PZ 145 -13.143
26 PZ 146 -13.143
26 PZ 147 -13.143
26 PZ 148 -12.655
26 PZ 149 -11.190
26 PZ 150 -9.725
26 PZ 151 -8.260
26 PZ 152 -8.748
26 PZ 153 -10.701
26 PZ 154 -12.655
26 PZ 155 -14.608
26 PZ 156 -14.608
26 PZ 157 -13.631
26 PZ 158 -12.166
26 PZ 159 -11.678
26 PZ 160 -11.678
26 PZ 161 -12.166
26 PZ 162 -12.166
26 PZ 163 -12.166
26 PZ 164 -12.655
26 PZ 165 -14.119
26 PZ 166 -16.073
26 PZ 167 -18.026
26 PZ 168 -17.537
26 PZ 169 -15.096
26 PZ 170 -12.166
26 PZ 171 -9.237
26 PZ 172 -7.772
26 PZ 173 -7.772
26 PZ 174 -8.260
26 PZ 175 -8.260
26 PZ 176 -8.260
26 PZ 177 -8.260
26 PZ 178 -9.237
26 PZ 179 -11.190
26 PZ 180 -13.631
26 PZ 181 -15.584
26 PZ 182 -17.537
26 PZ 183 -18.514
26 PZ 184 -19.002
26 PZ 185 -19.491
26 PZ 186 -20.467
26 PZ 187 -21.932
26 PZ 188 -22.420
26 PZ 189 -23.397
26 PZ 190 -22.909
26 PZ 191 -21.444
26 PZ 192 -19.979
26 PZ 193 -18.514
26 PZ 194 -18.514
26 PZ 195 -19.002
26 PZ 196 -20.467
26 PZ 197 -20.955
26 PZ 198 -20.467
26 PZ 199 -19.979
26 PZ 200 -20.467
26 PZ 201 -21.444
26 PZ 202 -23.885
26 PZ 203 -25.838
26 PZ 204 -26.326
26 PZ 205 -25.838
26 PZ 206 -23.397
26 PZ 207 -21.444
26 PZ 208 -20.467
26 PZ 209 -19.979
26 PZ 210 -19.979
26 PZ 211 -20.955
26 PZ 212 -22.909
26 PZ 213 -23.885
26 PZ 214 -23.885
26 PZ 215 -22.420
26 PZ 216 -20.467
26 PZ 217 -19.002
26 PZ 218 -19.491
26 PZ 219 -20.467
26 PZ 220 -21.932
26 PZ 221 -21.444
26 PZ 222 -19.979
26 PZ 223 -18.026
26 PZ 224 -17.537
26 PZ 225 -18.514
26 PZ 226 -19.979
26 PZ 227 -20.955
26 PZ 228 -19.979
26 PZ 229 -18.514
26 PZ 230 -17.049
26 PZ 231 -18.026
26 PZ 232 -19.979
26 PZ 233 -22.909
26 PZ 234 -23.885
26 PZ 235 -23.885
26 PZ 236 -23.397
26 PZ 237 -23.397
26 PZ 238 -24.373
26 PZ 239 -25.838
26 PZ 240 -27.303
26 PZ 241 -27.303
26 PZ 242 -26.815
26 PZ 243 -26.326
26 PZ 244 -26.815
26 PZ 245 -27.791
26 PZ 246 -27.791
26 PZ 247 -27.791
26 PZ 248 -26.815
26 PZ 249 -26.326
26 PZ 250 -26.326
26 PZ 251 -27.303
26 PZ 252 -28.280
26 PZ 253 -28.280
26 PZ 254 -27.303
26 PZ 255 -24.862
# P8 chan 25
26 P8 0 -9.308
26 P8 1 -9.308
26 P8 2 -7.843
26 P8 3 -5.890
26 P8 4 -3.448
26 P8 5 -1.984
26 P8 6 -1.495
26 P8 7 -2.472
26 P8 8 -3.937
26 P8 9 -4.913
26 P8 10 -4.425
26 P8 11 -1.984
26 P8 12 0.946
26 P8 13 3.387
26 P8 14 3.876
26 P8 15 1.923
26 P8 16 -0.519
26 P8 17 -1.984
26 P8 18 -2.472
26 P8 19 -1.984
26 P8 20 -1.495
26 P8 21 -2.472
26 P8 22 -4.425
26 P8 23 -6.378
26 P8 24 -7.843
26 P8 25 -7.355
26 P8 26 -6.378
26 P8 27 -4.913
26 P8 28 -3.448
26 P8 29 -2.472
26 P8 30 -1.495
26 P8 31 -1.495
26 P8 32 -2.960
26 P8 33 -5.402
26 P8 34 -7.843
26 P8 35 -8.820
26 P8 36 -7.843
26 P8 37 -5.402
26 P8 38 -3.448
26 P8 39 -3.448
26 P8 40 -4.913
26 P8 41 -6.378
26 P8 42 -5.890
26 P8 43 -3.448
26 P8 44 -1.495
26 P8 45 -1.495
26 P8 46 -3.448
26 P8 47 -6.378
26 P8 48 -8.331
26 P8 49 -8.331
26 P8 50 -7.843
26 P8 51 -6.866
26 P8 52 -6.378
26 P8 53 -5.402
26 P8 54 -3.448
26 P8 55 -1.007
26 P8 56 0.946
26 P8 57 0.946
26 P8 58 -1.007
26 P8 59 -2.960
26 P8 60 -4.913
26 P8 61 -5.402
26 P8 62 -5.402
26 P8 63 -4.913
26 P8 64 -4.425
26 P8 65 -3.448
26 P8 66 -2.472
26 P8 67 -1.007
26 P8 68 0.946
26 P8 69 2.899
26 P8 70 4.364
26 P8 71 6.805
26 P8 72 7.782
26 P8 73 9.247
26 P8 74 9.247
26 P8 75 9.735
26 P8 76 9.247
26 P8 77 8.270
26 P8 78 6.317
26 P8 79 2.411
26 P8 80 -1.984
26 P8 81 -4.913
26 P8 82 -6.866
26 P8 83 -5.890
26 P8 84 -4.913
26 P8 85 -4.425
26 P8 86 -5.402
26 P8 87 -6.866
26 P8 88 -7.355
26 P8 89 -6.378
26 P8 90 -4.425
26 P8 91 -2.472
26 P8 92 -2.960
26 P8 93 -4.913
26 P8 94 -7.843
26 P8 95 -10.284
26 P8 96 -11.261
26 P8 97 -11.261
26 P8 98 -10.773
26 P8 99 -10.284
26 P8 100 -10.773
26 P8 101 -11.749
26 P8 102 -12.238
26 P8 103 -11.749
26 P8 104 -11.261
26 P8 105 -11.261
26 P8 106 -11.749
26 P8 107 -11.261
26 P8 108 -10.773
26 P8 109 -10.773
26 P8 110 -12.238
26 P8 111 -15.167
26 P8 112 -18.585
26 P8 113 -21.027
26 P8 114 -21.027
26 P8 115 -19.073
26 P8 116 -17.609
26 P8 117 -17.120
26 P8 118 -18.097
26 P8 119 -19.562
26 P8 120 -19.562
26 P8 121 -17.120
26 P8 122 -14.679
26 P8 123 -12.726
26 P8 124 -12.238
26 P8 125 -12.726
26 P8 126 -13.702
26 P8 127 -13.702
26 P8 128 -13.702
26 P8 129 -13.702
26 P8 130 -13.702
26 P8 131 -13.702
26 P8 132 -13.214
26 P8 133 -12.726
26 P8 134 -12.238
26 P8 135 -11.749
26 P8 136 -10.773
26 P8 137 -8.820
26 P8 138 -6.866
26 P8 139 -5.402
26 P8 140 -5.890
26 P8 141 -6.866
26 P8 142 -7.355
26 P8 143 -7.843
26 P8 144 -6.866
26 P8 145 -7.355
26 P8 146 -9.308
26 P8 147 -11.749
26 P8 148 -14.191
26 P8 149 -14.191
26 P8 150 -12.726
26 P8 151 -11.261
26 P8 152 -10.773
26 P8 153 -11.261
26 P8 154 -12.238
26 P8 155 -12.726
26 P8 156 -12.726
26 P8 157 -13.214
26 P8 158 -15.656
26 P8 159 -18.585
26 P8 160 -21.027
26 P8 161 -22.003
26 P8 162 -21.515
26 P8 163 -21.027
26 P8 164 -21.515
26 P8 165 -22.491
26 P8 166 -24.445
26 P8 167 -24.933
26 P8 168 -24.445
26 P8 169 -22.491
26 P8 170 -20.050
26 P8 171 -18.097
26 P8 172 -16.632
26 P8 173 -16.144
26 P8 174 -16.144
26 P8 175 -16.144
26 P8 176 -15.656
26 P8 177 -14.679
26 P8 178 -13.702
26 P8 179 -13.214
26 P8 180 -14.679
26 P8 181 -18.097
26 P8 182 -22.491
26 P8 183 -26.398
26 P8 184 -28.351
26 P8 185 -27.863
26 P8 186 -26.398
26 P8 187 -24.933
26 P8 188 -24.445
26 P8 189 -24.445
26 P8 190 -23.468
26 P8 191 -22.491
26 P8 192 -21.027
26 P8 193 -21.027
26 P8 194 -22.491
26 P8 195 -23.956
26 P8 196 -24.445
26 P8 197 -22.491
26 P8 198 -19.073
26 P8 199 -16.144
26 P8 200 -16.144
26 P8 201 -18.585
26 P8 202 -22.003
26 P8 203 -24.445
26 P8 204 -24.933
26 P8 205 -23.956
26 P8 206 -22.003
26 P8 207 -20.050
26 P8 208 -18.097
26 P8 209 -16.632
26 P8 210 -14.679
26 P8 211 -14.679
26 P8 212 -15.167
26 P8 213 -17.609
26 P8 214 -20.050
26 P8 215 -21.027
26 P8 216 -21.027
26 P8 217 -20.538
26 P8 218 -21.027
26 P8 219 -22.003
26 P8 220 -22.491
26 P8 221 -22.003
26 P8 222 -19.562
26 P8 223 -16.632
26 P8 224 -15.656
26 P8 225 -16.632
26 P8 226 -19.073
26 P8 227 -21.027
26 P8 228 -21.515
26 P8 229 -20.050
26 P8 230 -18.585
26 P8 231 -18.585
26 P8 232 -20.050
26 P8 233 -22.980
26 P8 234 -25.909
26 P8 235 -27.374
26 P8 236 -27.863
26 P8 237 -27.374
26 P8 238 -26.886
26 P8 239 -26.398
26 P8 240 -26.398
26 P8 241 -26.886
26 P8 242 -27.374
26 P8 243 -27.374
26 P8 244 -26.886
26 P8 245 -25.909
26 P8 246 -23.468
26 P8 247 -20.538
26 P8 248 -17.609
26 P8 249 -15.656
26 P8 250 -14.679
26 P8 251 -15.167
26 P8 252 -16.144
26 P8 253 -17.120
26 P8 254 -17.609
26 P8 255 -18.097
# P7 chan 26
26 P7 0 -6.358
26 P7 1 -6.358
26 P7 2 -6.846
26 P7 3 -8.311
26 P7 4 -9.288
26 P7 5 -9.288
26 P7 6 -7.823
26 P7 7 -4.893
26 P7 8 -3.428
26 P7 9 -2.940
26 P7 10 -4.893
26 P7 11 -6.846
26 P7 12 -7.334
26 P7 13 -6.358
26 P7 14 -3.916
26 P7 15 -2.452
26 P7 16 -1.963
26 P7 17 -2.940
26 P7 18 -3.916
26 P7 19 -4.405
26 P7 20 -2.452
26 P7 21 -0.010
26 P7 22 2.431
26 P7 23 3.896
26 P7 24 4.873
26 P7 25 4.873
26 P7 26 5.361
26 P7 27 6.826
26 P7 28 7.314
26 P7 29 6.826
26 P7 30 3.408
26 P7 31 -0.498
26 P7 32 -5.381
26 P7 33 -9.288
26 P7 34 -10.752
26 P7 35 -10.264
26 P7 36 -8.311
26 P7 37 -5.381
26 P7 38 -3.428
26 P7 39 -3.916
26 P7 40 -5.870
26 P7 41 -8.799
26 P7 42 -11.241
26 P7 43 -11.729
26 P7 44 -10.752
26 P7 45 -10.264
26 P7 46 -9.776
26 P7 47 -9.288
26 P7 48 -8.311
26 P7 49 -5.870
26 P7 50 -3.428
26 P7 51 -0.987
26 P7 52 -0.498
26 P7 53 -0.987
26 P7 54 -2.452
26 P7 55 -3.428
26 P7 56 -3.916
26 P7 57 -3.916
26 P7 58 -3.428
26 P7 59 -2.452
26 P7 60 -0.498
26 P7 61 0.966
26 P7 62 1.943
26 P7 63 2.431
26 P7 64 2.920
26 P7 65 2.920
26 P7 66 3.896
26 P7 67 5.849
26 P7 68 8.291
26 P7 69 11.220
26 P7 70 13.173
26 P7 71 13.173
26 P7 72 13.173
26 P7 73 13.662
26 P7 74 15.127
26 P7 75 17.080
26 P7 76 18.056
26 P7 77 17.080
26 P7 78 14.150
26 P7 79 10.732
26 P7 80 8.779
26 P7 81 9.267
26 P7 82 11.709
26 P7 83 13.173
26 P7 84 12.685
26 P7 85 11.220
26 P7 86 9.755
26 P7 87 10.732
26 P7 88 13.173
26 P7 89 15.615
26 P7 90 17.080
26 P7 91 16.591
26 P7 92 14.638
26 P7 93 12.685
26 P7 94 11.220
26 P7 95 9.267
26 P7 96 6.826
26 P7 97 4.384
26 P7 98 3.408
26 P7 99 3.896
26 P7 100 5.849
26 P7 101 7.314
26 P7 102 7.314
26 P7 103 6.337
26 P7 104 5.361
26 P7 105 4.873
26 P7 106 4.384
26 P7 107 3.408
26 P7 108 1.455
26 P7 109 -0.498
26 P7 110 -1.963
26 P7 111 -1.475
26 P7 112 0.478
26 P7 113 1.943
26 P7 114 1.455
26 P7 115 -0.010
26 P7 116 -1.963
26 P7 117 -2.452
26 P7 118 -1.475
26 P7 119 0.478
26 P7 120 2.431
26 P7 121 3.896
26 P7 122 4.384
26 P7 123 4.873
26 P7 124 5.361
26 P7 125 4.873
26 P7 126 3.896
26 P7 127 2.431
26 P7 128 1.455
26 P7 129 1.943
26 P7 130 3.408
26 P7 131 5.361
26 P7 132 6.826
26 P7 133 8.779
26 P7 134 9.755
26 P7 135 10.732
26 P7 136 10.732
26 P7 137 9.755
26 P7 138 8.291
26 P7 139 6.337
26 P7 140 5.361
26 P7 141 4.384
26 P7 142 3.896
26 P7 143 2.920
26 P7 144 1.455
26 P7 145 -0.010
26 P7 146 0.478
26 P7 147 0.966
26 P7 148 1.455
26 P7 149 0.966
26 P7 150 -0.010
26 P7 151 -1.475
26 P7 152 -1.963
26 P7 153 -1.963
26 P7 154 -1.475
26 P7 155 -1.475
26 P7 156 -1.475
26 P7 157 -1.963
26 P7 158 -2.940
26 P7 159 -4.405
26 P7 160 -7.334
26 P7 161 -9.288
26 P7 162 -9.288
26 P7 163 -7.334
26 P7 164 -3.916
26 P7 165 -1.475
26 P7 166 -1.475
26 P7 167 -4.893
26 P7 168 -8.799
26 P7 169 -10.752
26 P7 170 -8.799
26 P7 171 -4.405
26 P7 172 -0.010
26 P7 173 2.431
26 P7 174 1.943
26 P7 175 0.478
26 P7 176 -0.010
26 P7 177 0.966
26 P7 178 2.431
26 P7 179 2.431
26 P7 180 0.478
26 P7 181 -3.428
26 P7 182 -6.846
26 P7 183 -8.311
26 P7 184 -6.846
26 P7 185 -2.940
26 P7 186 1.455
26 P7 187 3.896
26 P7 188 4.384
26 P7 189 3.408
26 P7 190 2.431
26 P7 191 1.943
26 P7 192 2.431
26 P7 193 2.920
26 P7 194 2.920
26 P7 195 2.920
26 P7 196 1.943
26 P7 197 1.943
26 P7 198 2.431
26 P7 199 2.431
26 P7 200 1.455
26 P7 201 -0.987
26 P7 202 -3.916
26 P7 203 -5.870
26 P7 204 -6.358
26 P7 205 -5.870
26 P7 206 -4.405
26 P7 207 -2.452
26 P7 208 -0.498
26 P7 209 2.431
26 P7 210 3.896
26 P7 211 4.384
26 P7 212 3.408
26 P7 213 1.455
26 P7 214 -0.010
26 P7 215 0.478
26 P7 216 2.431
26 P7 217 4.384
26 P7 218 5.849
26 P7 219 6.337
26 P7 220 7.802
26 P7 221 10.244
26 P7 222 14.150
26 P7 223 17.568
26 P7 224 18.056
26 P7 225 15.615
26 P7 226 11.220
26 P7 227 6.337
26 P7 228 4.873
26 P7 229 5.361
26 P7 230 6.337
26 P7 231 7.314
26 P7 232 7.802
26 P7 233 7.314
26 P7 234 7.802
26 P7 235 8.779
26 P7 236 9.267
26 P7 237 7.802
26 P7 238 6.337
26 P7 239 5.361
26 P7 240 6.337
26 P7 241 8.291
26 P7 242 10.244
26 P7 243 9.755
26 P7 244 7.802
26 P7 245 5.849
26 P7 246 5.361
26 P7 247 8.291
26 P7 248 11.709
26 P7 249 13.662
26 P7 250 12.685
26 P7 251 9.755
26 P7 252 6.337
26 P7 253 4.384
26 P7 254 4.384
26 P7 255 5.361
# PO2 chan 27
26 PO2 0 -6.246
26 PO2 1 -5.269
26 PO2 2 -4.781
26 PO2 3 -5.269
26 PO2 4 -6.246
26 PO2 5 -6.734
26 PO2 6 -7.222
26 PO2 7 -6.734
26 PO2 8 -6.246
26 PO2 9 -5.758
26 PO2 10 -4.293
26 PO2 11 -2.340
26 PO2 12 0.590
26 PO2 13 2.543
26 PO2 14 3.031
26 PO2 15 2.055
26 PO2 16 0.590
26 PO2 17 -0.875
26 PO2 18 -1.851
26 PO2 19 -1.851
26 PO2 20 -1.363
26 PO2 21 -1.363
26 PO2 22 -1.363
26 PO2 23 -0.875
26 PO2 24 -0.387
26 PO2 25 1.078
26 PO2 26 3.031
26 PO2 27 4.496
26 PO2 28 5.473
26 PO2 29 5.961
26 PO2 30 5.473
26 PO2 31 4.496
26 PO2 32 2.543
26 PO2 33 0.102
26 PO2 34 -1.851
26 PO2 35 -2.340
26 PO2 36 -1.363
26 PO2 37 0.102
26 PO2 38 1.567
26 PO2 39 1.567
26 PO2 40 0.102
26 PO2 41 -1.851
26 PO2 42 -2.340
26 PO2 43 -1.851
26 PO2 44 -0.875
26 PO2 45 -0.387
26 PO2 46 -0.387
26 PO2 47 -1.363
26 PO2 48 -1.363
26 PO2 49 -1.363
26 PO2 50 0.102
26 PO2 51 1.078
26 PO2 52 1.567
26 PO2 53 2.543
26 PO2 54 3.520
26 PO2 55 4.008
26 PO2 56 4.496
26 PO2 57 3.520
26 PO2 58 2.055
26 PO2 59 0.102
26 PO2 60 -0.875
26 PO2 61 -0.875
26 PO2 62 -0.387
26 PO2 63 0.102
26 PO2 64 1.078
26 PO2 65 1.567
26 PO2 66 2.055
26 PO2 67 3.031
26 PO2 68 4.496
26 PO2 69 5.473
26 PO2 70 6.938
26 PO2 71 8.403
26 PO2 72 9.867
26 PO2 73 11.820
26 PO2 74 13.774
26 PO2 75 15.238
26 PO2 76 15.238
26 PO2 77 14.262
26 PO2 78 10.844
26 PO2 79 7.426
26 PO2 80 4.496
26 PO2 81 3.031
26 PO2 82 3.520
26 PO2 83 4.496
26 PO2 84 4.985
26 PO2 85 4.496
26 PO2 86 3.031
26 PO2 87 1.567
26 PO2 88 1.567
26 PO2 89 3.031
26 PO2 90 4.985
26 PO2 91 5.961
26 PO2 92 5.961
26 PO2 93 4.985
26 PO2 94 4.496
26 PO2 95 4.496
26 PO2 96 4.008
26 PO2 97 4.008
26 PO2 98 3.520
26 PO2 99 2.543
26 PO2 100 1.567
26 PO2 101 1.567
26 PO2 102 1.567
26 PO2 103 2.055
26 PO2 104 2.055
26 PO2 105 1.078
26 PO2 106 -0.387
26 PO2 107 -1.363
26 PO2 108 -1.363
26 PO2 109 -0.875
26 PO2 110 -0.875
26 PO2 111 -1.363
26 PO2 112 -2.340
26 PO2 113 -3.316
26 PO2 114 -3.316
26 PO2 115 -2.340
26 PO2 116 -1.363
26 PO2 117 -1.363
26 PO2 118 -1.851
26 PO2 119 -2.828
26 PO2 120 -2.828
26 PO2 121 -1.851
26 PO2 122 0.590
26 PO2 123 2.055
26 PO2 124 3.031
26 PO2 125 2.055
26 PO2 126 0.590
26 PO2 127 -0.875
26 PO2 128 -1.363
26 PO2 129 -0.875
26 PO2 130 0.102
26 PO2 131 0.590
26 PO2 132 1.078
26 PO2 133 1.567
26 PO2 134 2.543
26 PO2 135 3.520
26 PO2 136 4.496
26 PO2 137 5.473
26 PO2 138 5.473
26 PO2 139 4.985
26 PO2 140 4.496
26 PO2 141 4.008
26 PO2 142 4.008
26 PO2 143 4.496
26 PO2 144 4.985
26 PO2 145 4.985
26 PO2 146 4.496
26 PO2 147 3.031
26 PO2 148 2.055
26 PO2 149 1.567
26 PO2 150 2.543
26 PO2 151 3.520
26 PO2 152 3.520
26 PO2 153 3.520
26 PO2 154 3.031
26 PO2 155 1.567
26 PO2 156 1.078
26 PO2 157 0.590
26 PO2 158 -0.387
26 PO2 159 -2.340
26 PO2 160 -4.781
26 PO2 161 -6.734
26 PO2 162 -8.199
26 PO2 163 -8.687
26 PO2 164 -8.199
26 PO2 165 -7.222
26 PO2 166 -7.222
26 PO2 167 -8.199
26 PO2 168 -8.687
26 PO2 169 -8.687
26 PO2 170 -8.199
26 PO2 171 -6.246
26 PO2 172 -4.293
26 PO2 173 -2.828
26 PO2 174 -1.363
26 PO2 175 -0.875
26 PO2 176 -1.363
26 PO2 177 -1.851
26 PO2 178 -2.340
26 PO2 179 -3.316
26 PO2 180 -4.781
26 PO2 181 -6.246
26 PO2 182 -7.711
26 PO2 183 -8.687
26 PO2 184 -9.176
26 PO2 185 -8.687
26 PO2 186 -8.199
26 PO2 187 -7.711
26 PO2 188 -8.687
26 PO2 189 -10.152
26 PO2 190 -11.129
26 PO2 191 -10.640
26 PO2 192 -9.664
26 PO2 193 -8.199
26 PO2 194 -7.222
26 PO2 195 -6.734
26 PO2 196 -6.246
26 PO2 197 -5.758
26 PO2 198 -3.805
26 PO2 199 -2.340
26 PO2 200 -1.851
26 PO2 201 -3.316
26 PO2 202 -5.269
26 PO2 203 -6.734
26 PO2 204 -7.222
26 PO2 205 -6.734
26 PO2 206 -5.269
26 PO2 207 -3.805
26 PO2 208 -2.828
26 PO2 209 -2.340
26 PO2 210 -1.363
26 PO2 211 -1.363
26 PO2 212 -1.851
26 PO2 213 -2.828
26 PO2 214 -4.293
26 PO2 215 -4.781
26 PO2 216 -4.293
26 PO2 217 -3.316
26 PO2 218 -3.316
26 PO2 219 -3.316
26 PO2 220 -3.805
26 PO2 221 -3.805
26 PO2 222 -2.340
26 PO2 223 -0.875
26 PO2 224 0.590
26 PO2 225 0.590
26 PO2 226 -0.387
26 PO2 227 -1.363
26 PO2 228 -0.875
26 PO2 229 -0.387
26 PO2 230 0.102
26 PO2 231 -0.387
26 PO2 232 -1.851
26 PO2 233 -3.316
26 PO2 234 -3.805
26 PO2 235 -3.316
26 PO2 236 -2.340
26 PO2 237 -2.340
26 PO2 238 -3.805
26 PO2 239 -5.758
26 PO2 240 -7.711
26 PO2 241 -7.711
26 PO2 242 -6.734
26 PO2 243 -5.269
26 PO2 244 -3.805
26 PO2 245 -2.828
26 PO2 246 -1.851
26 PO2 247 -0.875
26 PO2 248 -0.875
26 PO2 249 -1.363
26 PO2 250 -2.340
26 PO2 251 -3.805
26 PO2 252 -4.781
26 PO2 253 -5.269
26 PO2 254 -4.781
26 PO2 255 -3.316
# PO1 chan 28
26 PO1 0 -4.903
26 PO1 1 -4.415
26 PO1 2 -4.415
26 PO1 3 -3.927
26 PO1 4 -3.927
