# co2a0000447.rd
# 120 trials, 64 chans, 416 samples 368 post_stim samples
# 3.906000 msecs uV
# S2 match , trial 91
# FP1 chan 0
91 FP1 0 3.326
91 FP1 1 4.791
91 FP1 2 2.838
91 FP1 3 -0.092
91 FP1 4 -1.068
91 FP1 5 2.350
91 FP1 6 8.698
91 FP1 7 13.580
91 FP1 8 15.045
91 FP1 9 12.115
91 FP1 10 6.744
91 FP1 11 3.326
91 FP1 12 1.373
91 FP1 13 0.397
91 FP1 14 -1.068
91 FP1 15 -3.510
91 FP1 16 -5.951
91 FP1 17 -6.439
91 FP1 18 -4.974
91 FP1 19 -2.045
91 FP1 20 -0.092
91 FP1 21 1.373
91 FP1 22 2.838
91 FP1 23 5.280
91 FP1 24 8.209
91 FP1 25 11.139
91 FP1 26 13.092
91 FP1 27 15.045
91 FP1 28 17.487
91 FP1 29 20.905
91 FP1 30 23.346
91 FP1 31 22.858
91 FP1 32 20.416
91 FP1 33 16.510
91 FP1 34 13.092
91 FP1 35 11.627
91 FP1 36 11.139
91 FP1 37 10.651
91 FP1 38 9.674
91 FP1 39 8.209
91 FP1 40 6.744
91 FP1 41 4.791
91 FP1 42 1.862
91 FP1 43 -1.556
91 FP1 44 -3.998
91 FP1 45 -3.510
91 FP1 46 0.397
91 FP1 47 4.791
91 FP1 48 7.233
91 FP1 49 5.768
91 FP1 50 3.326
91 FP1 51 2.350
91 FP1 52 5.280
91 FP1 53 9.674
91 FP1 54 12.115
91 FP1 55 10.162
91 FP1 56 4.791
91 FP1 57 -0.092
91 FP1 58 -1.068
91 FP1 59 1.862
91 FP1 60 5.280
91 FP1 61 7.721
91 FP1 62 7.233
91 FP1 63 6.744
91 FP1 64 7.721
91 FP1 65 11.139
91 FP1 66 15.045
91 FP1 67 17.975
91 FP1 68 18.463
91 FP1 69 17.975
91 FP1 70 17.487
91 FP1 71 16.998
91 FP1 72 14.557
91 FP1 73 9.186
91 FP1 74 2.838
91 FP1 75 -2.045
91 FP1 76 -3.021
91 FP1 77 -0.092
91 FP1 78 4.303
91 FP1 79 6.744
91 FP1 80 6.744
91 FP1 81 4.303
91 FP1 82 2.350
91 FP1 83 0.885
91 FP1 84 -0.092
91 FP1 85 -1.556
91 FP1 86 -3.021
91 FP1 87 -3.510
91 FP1 88 -1.068
91 FP1 89 2.350
91 FP1 90 6.256
91 FP1 91 8.698
91 FP1 92 9.674
91 FP1 93 9.674
91 FP1 94 8.698
91 FP1 95 6.744
91 FP1 96 3.815
91 FP1 97 0.397
91 FP1 98 -3.021
91 FP1 99 -4.974
91 FP1 100 -3.998
91 FP1 101 -2.045
91 FP1 102 1.373
91 FP1 103 4.791
91 FP1 104 6.744
91 FP1 105 7.721
91 FP1 106 7.233
91 FP1 107 5.768
91 FP1 108 3.815
91 FP1 109 1.373
91 FP1 110 -1.068
91 FP1 111 -3.510
91 FP1 112 -5.463
91 FP1 113 -6.927
91 FP1 114 -5.463
91 FP1 115 -3.021
91 FP1 116 0.397
91 FP1 117 2.838
91 FP1 118 2.838
91 FP1 119 1.373
91 FP1 120 -0.580
91 FP1 121 -1.068
91 FP1 122 0.397
91 FP1 123 0.885
91 FP1 124 -0.092
91 FP1 125 -2.045
91 FP1 126 -4.486
91 FP1 127 -4.486
91 FP1 128 -1.556
91 FP1 129 1.373
91 FP1 130 2.350
91 FP1 131 -0.092
91 FP1 132 -3.998
91 FP1 133 -6.927
91 FP1 134 -5.951
91 FP1 135 -2.533
91 FP1 136 -0.092
91 FP1 137 -0.580
91 FP1 138 -4.974
91 FP1 139 -9.857
91 FP1 140 -12.299
91 FP1 141 -11.322
91 FP1 142 -8.881
91 FP1 143 -6.927
91 FP1 144 -7.904
91 FP1 145 -10.834
91 FP1 146 -12.787
91 FP1 147 -13.275
91 FP1 148 -11.322
91 FP1 149 -8.392
91 FP1 150 -6.927
91 FP1 151 -7.416
91 FP1 152 -9.369
91 FP1 153 -10.345
91 FP1 154 -9.857
91 FP1 155 -6.927
91 FP1 156 -3.510
91 FP1 157 -1.068
91 FP1 158 -1.556
91 FP1 159 -4.486
91 FP1 160 -8.881
91 FP1 161 -12.787
91 FP1 162 -14.252
91 FP1 163 -13.275
91 FP1 164 -10.345
91 FP1 165 -8.392
91 FP1 166 -8.392
91 FP1 167 -9.857
91 FP1 168 -11.810
91 FP1 169 -11.322
91 FP1 170 -8.392
91 FP1 171 -4.486
91 FP1 172 -1.556
91 FP1 173 -1.068
91 FP1 174 -3.021
91 FP1 175 -5.951
91 FP1 176 -7.904
91 FP1 177 -9.369
91 FP1 178 -10.345
91 FP1 179 -10.834
91 FP1 180 -10.345
91 FP1 181 -8.881
91 FP1 182 -7.904
91 FP1 183 -7.416
91 FP1 184 -7.904
91 FP1 185 -9.369
91 FP1 186 -10.345
91 FP1 187 -10.345
91 FP1 188 -9.369
91 FP1 189 -7.904
91 FP1 190 -7.904
91 FP1 191 -8.392
91 FP1 192 -10.345
91 FP1 193 -12.787
91 FP1 194 -15.228
91 FP1 195 -15.717
91 FP1 196 -13.763
91 FP1 197 -9.857
91 FP1 198 -4.974
91 FP1 199 -2.533
91 FP1 200 -3.510
91 FP1 201 -6.927
91 FP1 202 -10.834
91 FP1 203 -12.787
91 FP1 204 -12.299
91 FP1 205 -8.881
91 FP1 206 -5.463
91 FP1 207 -3.021
91 FP1 208 -2.533
91 FP1 209 -3.510
91 FP1 210 -5.951
91 FP1 211 -8.392
91 FP1 212 -9.369
91 FP1 213 -7.904
91 FP1 214 -4.486
91 FP1 215 -0.092
91 FP1 216 3.815
91 FP1 217 5.280
91 FP1 218 6.256
91 FP1 219 6.256
91 FP1 220 7.233
91 FP1 221 8.698
91 FP1 222 10.162
91 FP1 223 10.651
91 FP1 224 11.139
91 FP1 225 12.115
91 FP1 226 14.069
91 FP1 227 16.022
91 FP1 228 17.975
91 FP1 229 19.440
91 FP1 230 20.905
91 FP1 231 21.393
91 FP1 232 20.416
91 FP1 233 18.951
91 FP1 234 16.510
91 FP1 235 15.045
91 FP1 236 15.045
91 FP1 237 17.487
91 FP1 238 19.928
91 FP1 239 20.416
91 FP1 240 19.440
91 FP1 241 17.487
91 FP1 242 15.533
91 FP1 243 16.022
91 FP1 244 18.951
91 FP1 245 22.369
91 FP1 246 23.346
91 FP1 247 19.928
91 FP1 248 12.115
91 FP1 249 3.815
91 FP1 250 0.397
91 FP1 251 4.791
91 FP1 252 13.580
91 FP1 253 21.393
91 FP1 254 22.858
91 FP1 255 17.975
# FP2 chan 1
91 FP2 0 2.899
91 FP2 1 4.852
91 FP2 2 6.317
91 FP2 3 6.317
91 FP2 4 4.852
91 FP2 5 3.876
91 FP2 6 4.364
91 FP2 7 6.317
91 FP2 8 9.247
91 FP2 9 10.712
91 FP2 10 9.247
91 FP2 11 6.805
91 FP2 12 3.876
91 FP2 13 1.923
91 FP2 14 0.458
91 FP2 15 -0.519
91 FP2 16 -2.960
91 FP2 17 -4.913
91 FP2 18 -5.890
91 FP2 19 -4.913
91 FP2 20 -1.984
91 FP2 21 2.411
91 FP2 22 5.341
91 FP2 23 7.294
91 FP2 24 8.270
91 FP2 25 9.735
91 FP2 26 11.200
91 FP2 27 13.153
91 FP2 28 14.618
91 FP2 29 16.571
91 FP2 30 19.012
91 FP2 31 20.966
91 FP2 32 21.942
91 FP2 33 19.989
91 FP2 34 15.594
91 FP2 35 9.247
91 FP2 36 4.852
91 FP2 37 4.364
91 FP2 38 7.294
91 FP2 39 12.177
91 FP2 40 14.130
91 FP2 41 12.665
91 FP2 42 7.294
91 FP2 43 0.946
91 FP2 44 -2.960
91 FP2 45 -3.448
91 FP2 46 -1.495
91 FP2 47 1.434
91 FP2 48 4.852
91 FP2 49 6.805
91 FP2 50 8.759
91 FP2 51 10.712
91 FP2 52 12.177
91 FP2 53 12.665
91 FP2 54 10.712
91 FP2 55 7.294
91 FP2 56 4.364
91 FP2 57 1.923
91 FP2 58 1.923
91 FP2 59 3.387
91 FP2 60 5.829
91 FP2 61 7.782
91 FP2 62 8.759
91 FP2 63 8.759
91 FP2 64 8.759
91 FP2 65 9.735
91 FP2 66 12.177
91 FP2 67 15.106
91 FP2 68 17.059
91 FP2 69 18.524
91 FP2 70 18.036
91 FP2 71 17.059
91 FP2 72 15.106
91 FP2 73 12.665
91 FP2 74 10.223
91 FP2 75 7.294
91 FP2 76 5.341
91 FP2 77 4.364
91 FP2 78 3.387
91 FP2 79 2.411
91 FP2 80 0.946
91 FP2 81 -0.519
91 FP2 82 -0.031
91 FP2 83 1.434
91 FP2 84 2.899
91 FP2 85 3.876
91 FP2 86 3.387
91 FP2 87 2.899
91 FP2 88 2.899
91 FP2 89 5.341
91 FP2 90 8.270
91 FP2 91 10.712
91 FP2 92 11.688
91 FP2 93 11.200
91 FP2 94 9.735
91 FP2 95 8.270
91 FP2 96 6.805
91 FP2 97 4.852
91 FP2 98 2.411
91 FP2 99 0.946
91 FP2 100 0.946
91 FP2 101 2.411
91 FP2 102 4.364
91 FP2 103 6.317
91 FP2 104 7.294
91 FP2 105 7.782
91 FP2 106 8.270
91 FP2 107 9.247
91 FP2 108 8.270
91 FP2 109 6.317
91 FP2 110 1.923
91 FP2 111 -2.472
91 FP2 112 -4.913
91 FP2 113 -5.402
91 FP2 114 -3.937
91 FP2 115 -1.007
91 FP2 116 1.923
91 FP2 117 4.852
91 FP2 118 7.294
91 FP2 119 8.270
91 FP2 120 7.294
91 FP2 121 4.852
91 FP2 122 2.411
91 FP2 123 -0.031
91 FP2 124 -1.007
91 FP2 125 -1.984
91 FP2 126 -2.472
91 FP2 127 -2.960
91 FP2 128 -2.960
91 FP2 129 -2.472
91 FP2 130 -2.472
91 FP2 131 -2.472
91 FP2 132 -3.448
91 FP2 133 -3.448
91 FP2 134 -2.960
91 FP2 135 -1.984
91 FP2 136 -1.984
91 FP2 137 -2.960
91 FP2 138 -5.402
91 FP2 139 -7.843
91 FP2 140 -8.820
91 FP2 141 -8.820
91 FP2 142 -8.820
91 FP2 143 -9.308
91 FP2 144 -10.773
91 FP2 145 -12.238
91 FP2 146 -11.749
91 FP2 147 -9.796
91 FP2 148 -6.866
91 FP2 149 -5.402
91 FP2 150 -5.402
91 FP2 151 -6.866
91 FP2 152 -8.820
91 FP2 153 -9.308
91 FP2 154 -8.331
91 FP2 155 -6.378
91 FP2 156 -4.425
91 FP2 157 -2.472
91 FP2 158 -1.495
91 FP2 159 -1.495
91 FP2 160 -1.984
91 FP2 161 -4.425
91 FP2 162 -6.866
91 FP2 163 -9.308
91 FP2 164 -10.284
91 FP2 165 -10.284
91 FP2 166 -9.308
91 FP2 167 -8.331
91 FP2 168 -7.843
91 FP2 169 -7.355
91 FP2 170 -6.378
91 FP2 171 -4.425
91 FP2 172 -1.984
91 FP2 173 -0.519
91 FP2 174 -1.007
91 FP2 175 -3.448
91 FP2 176 -6.866
91 FP2 177 -10.284
91 FP2 178 -11.261
91 FP2 179 -9.308
91 FP2 180 -6.378
91 FP2 181 -3.448
91 FP2 182 -2.472
91 FP2 183 -4.913
91 FP2 184 -8.820
91 FP2 185 -11.261
91 FP2 186 -11.261
91 FP2 187 -8.820
91 FP2 188 -5.402
91 FP2 189 -3.448
91 FP2 190 -3.448
91 FP2 191 -5.402
91 FP2 192 -7.355
91 FP2 193 -8.331
91 FP2 194 -8.820
91 FP2 195 -8.820
91 FP2 196 -9.308
91 FP2 197 -9.308
91 FP2 198 -7.843
91 FP2 199 -5.402
91 FP2 200 -2.472
91 FP2 201 -0.519
91 FP2 202 -1.007
91 FP2 203 -2.960
91 FP2 204 -3.937
91 FP2 205 -2.960
91 FP2 206 -0.519
91 FP2 207 0.458
91 FP2 208 -1.007
91 FP2 209 -4.425
91 FP2 210 -7.843
91 FP2 211 -9.308
91 FP2 212 -7.355
91 FP2 213 -3.448
91 FP2 214 -0.031
91 FP2 215 2.411
91 FP2 216 4.852
91 FP2 217 7.294
91 FP2 218 10.712
91 FP2 219 13.153
91 FP2 220 14.130
91 FP2 221 13.153
91 FP2 222 12.177
91 FP2 223 12.177
91 FP2 224 13.641
91 FP2 225 17.059
91 FP2 226 20.966
91 FP2 227 22.919
91 FP2 228 23.407
91 FP2 229 22.430
91 FP2 230 21.454
91 FP2 231 20.477
91 FP2 232 19.501
91 FP2 233 20.477
91 FP2 234 22.430
91 FP2 235 25.360
91 FP2 236 27.802
91 FP2 237 28.290
91 FP2 238 26.337
91 FP2 239 22.430
91 FP2 240 19.501
91 FP2 241 18.524
91 FP2 242 20.477
91 FP2 243 23.895
91 FP2 244 26.337
91 FP2 245 25.848
91 FP2 246 22.430
91 FP2 247 17.548
91 FP2 248 13.641
91 FP2 249 11.200
91 FP2 250 10.712
91 FP2 251 11.200
91 FP2 252 13.153
91 FP2 253 15.106
91 FP2 254 16.083
91 FP2 255 16.083
# F7 chan 2
91 F7 0 -1.190
91 F7 1 -2.167
91 F7 2 -2.167
91 F7 3 -2.167
91 F7 4 -1.678
91 F7 5 -1.190
91 F7 6 0.763
91 F7 7 4.181
91 F7 8 7.599
91 F7 9 10.529
91 F7 10 11.017
91 F7 11 7.599
91 F7 12 2.716
91 F7 13 -2.167
91 F7 14 -5.096
91 F7 15 -6.073
91 F7 16 -6.073
91 F7 17 -6.073
91 F7 18 -7.050
91 F7 19 -9.003
91 F7 20 -9.491
91 F7 21 -7.538
91 F7 22 -3.632
91 F7 23 2.228
91 F7 24 7.599
91 F7 25 11.993
91 F7 26 14.435
91 F7 27 16.388
91 F7 28 17.365
91 F7 29 17.365
91 F7 30 17.365
91 F7 31 15.411
91 F7 32 13.947
91 F7 33 11.993
91 F7 34 10.529
91 F7 35 9.552
91 F7 36 8.575
91 F7 37 7.599
91 F7 38 7.111
91 F7 39 6.134
91 F7 40 4.181
91 F7 41 0.763
91 F7 42 -2.655
91 F7 43 -5.096
91 F7 44 -5.585
91 F7 45 -4.120
91 F7 46 -2.167
91 F7 47 -0.214
91 F7 48 0.275
91 F7 49 -0.214
91 F7 50 0.275
91 F7 51 1.251
91 F7 52 3.204
91 F7 53 4.669
91 F7 54 5.157
91 F7 55 3.693
91 F7 56 1.251
91 F7 57 -0.702
91 F7 58 -1.190
91 F7 59 0.763
91 F7 60 2.716
91 F7 61 4.181
91 F7 62 3.693
91 F7 63 2.716
91 F7 64 2.228
91 F7 65 3.204
91 F7 66 5.646
91 F7 67 8.575
91 F7 68 10.040
91 F7 69 10.040
91 F7 70 9.064
91 F7 71 7.111
91 F7 72 5.157
91 F7 73 3.204
91 F7 74 1.251
91 F7 75 -0.214
91 F7 76 -0.702
91 F7 77 -0.214
91 F7 78 0.275
91 F7 79 0.763
91 F7 80 -0.214
91 F7 81 -2.167
91 F7 82 -4.120
91 F7 83 -6.073
91 F7 84 -6.561
91 F7 85 -6.073
91 F7 86 -5.096
91 F7 87 -3.143
91 F7 88 -0.702
91 F7 89 1.251
91 F7 90 2.228
91 F7 91 1.740
91 F7 92 -0.214
91 F7 93 -3.143
91 F7 94 -5.585
91 F7 95 -6.073
91 F7 96 -5.096
91 F7 97 -3.143
91 F7 98 -2.655
91 F7 99 -3.143
91 F7 100 -4.120
91 F7 101 -5.585
91 F7 102 -5.096
91 F7 103 -3.143
91 F7 104 -1.190
91 F7 105 -0.702
91 F7 106 -1.678
91 F7 107 -3.143
91 F7 108 -4.120
91 F7 109 -5.096
91 F7 110 -6.073
91 F7 111 -7.050
91 F7 112 -8.514
91 F7 113 -8.514
91 F7 114 -6.561
91 F7 115 -3.632
91 F7 116 -1.190
91 F7 117 -0.214
91 F7 118 -1.190
91 F7 119 -3.143
91 F7 120 -4.120
91 F7 121 -4.120
91 F7 122 -3.143
91 F7 123 -2.655
91 F7 124 -3.143
91 F7 125 -4.120
91 F7 126 -4.608
91 F7 127 -4.608
91 F7 128 -3.632
91 F7 129 -3.143
91 F7 130 -3.632
91 F7 131 -4.120
91 F7 132 -5.585
91 F7 133 -5.585
91 F7 134 -4.120
91 F7 135 -3.143
91 F7 136 -3.143
91 F7 137 -4.608
91 F7 138 -7.538
91 F7 139 -10.468
91 F7 140 -11.444
91 F7 141 -11.932
91 F7 142 -11.444
91 F7 143 -11.932
91 F7 144 -12.909
91 F7 145 -13.885
91 F7 146 -14.862
91 F7 147 -13.885
91 F7 148 -11.932
91 F7 149 -10.956
91 F7 150 -10.468
91 F7 151 -11.932
91 F7 152 -13.397
91 F7 153 -14.374
91 F7 154 -12.909
91 F7 155 -10.956
91 F7 156 -8.514
91 F7 157 -7.538
91 F7 158 -8.514
91 F7 159 -11.444
91 F7 160 -13.885
91 F7 161 -14.862
91 F7 162 -14.374
91 F7 163 -12.421
91 F7 164 -10.468
91 F7 165 -8.026
91 F7 166 -7.050
91 F7 167 -6.561
91 F7 168 -7.050
91 F7 169 -7.538
91 F7 170 -8.026
91 F7 171 -8.026
91 F7 172 -6.073
91 F7 173 -3.143
91 F7 174 0.275
91 F7 175 2.716
91 F7 176 3.204
91 F7 177 0.763
91 F7 178 -1.678
91 F7 179 -3.143
91 F7 180 -3.143
91 F7 181 -2.167
91 F7 182 -3.143
91 F7 183 -6.561
91 F7 184 -10.468
91 F7 185 -12.421
91 F7 186 -10.956
91 F7 187 -7.538
91 F7 188 -4.120
91 F7 189 -4.120
91 F7 190 -6.561
91 F7 191 -9.003
91 F7 192 -9.003
91 F7 193 -5.096
91 F7 194 -1.190
91 F7 195 0.275
91 F7 196 -1.678
91 F7 197 -4.608
91 F7 198 -6.073
91 F7 199 -4.608
91 F7 200 -1.678
91 F7 201 -0.702
91 F7 202 -2.655
91 F7 203 -6.073
91 F7 204 -8.514
91 F7 205 -9.003
91 F7 206 -8.026
91 F7 207 -7.538
91 F7 208 -9.003
91 F7 209 -11.444
91 F7 210 -12.909
91 F7 211 -13.397
91 F7 212 -13.397
91 F7 213 -11.932
91 F7 214 -9.979
91 F7 215 -6.561
91 F7 216 -2.655
91 F7 217 1.251
91 F7 218 4.669
91 F7 219 6.134
91 F7 220 8.087
91 F7 221 9.552
91 F7 222 11.017
91 F7 223 11.505
91 F7 224 10.040
91 F7 225 7.599
91 F7 226 3.693
91 F7 227 2.228
91 F7 228 2.716
91 F7 229 5.157
91 F7 230 8.575
91 F7 231 11.505
91 F7 232 12.970
91 F7 233 13.458
91 F7 234 12.482
91 F7 235 11.505
91 F7 236 11.017
91 F7 237 11.993
91 F7 238 14.435
91 F7 239 15.411
91 F7 240 14.435
91 F7 241 10.529
91 F7 242 6.622
91 F7 243 7.111
91 F7 244 12.970
91 F7 245 20.782
91 F7 246 24.689
91 F7 247 21.759
91 F7 248 12.482
91 F7 249 2.228
91 F7 250 -2.655
91 F7 251 -0.214
91 F7 252 5.157
91 F7 253 9.552
91 F7 254 10.040
91 F7 255 7.599
# F8 chan 3
91 F8 0 4.252
91 F8 1 5.229
91 F8 2 4.252
91 F8 3 2.787
91 F8 4 0.834
91 F8 5 0.834
91 F8 6 3.276
91 F8 7 7.182
91 F8 8 9.623
91 F8 9 9.135
91 F8 10 5.717
91 F8 11 0.834
91 F8 12 -3.072
91 F8 13 -5.025
91 F8 14 -5.514
91 F8 15 -6.002
91 F8 16 -6.978
91 F8 17 -7.467
91 F8 18 -6.490
91 F8 19 -2.584
91 F8 20 1.811
91 F8 21 4.740
91 F8 22 4.252
91 F8 23 1.322
91 F8 24 -2.096
91 F8 25 -3.072
91 F8 26 -0.142
91 F8 27 6.694
91 F8 28 15.483
91 F8 29 21.830
91 F8 30 23.783
91 F8 31 21.342
91 F8 32 15.483
91 F8 33 8.158
91 F8 34 2.299
91 F8 35 -0.631
91 F8 36 -0.142
91 F8 37 2.787
91 F8 38 7.670
91 F8 39 11.088
91 F8 40 12.065
91 F8 41 9.135
91 F8 42 4.252
91 F8 43 -1.607
91 F8 44 -4.537
91 F8 45 -4.537
91 F8 46 -1.119
91 F8 47 3.276
91 F8 48 6.205
91 F8 49 7.670
91 F8 50 8.158
91 F8 51 8.647
91 F8 52 10.111
91 F8 53 10.600
91 F8 54 9.135
91 F8 55 4.252
91 F8 56 -0.631
91 F8 57 -4.537
91 F8 58 -5.025
91 F8 59 -2.096
91 F8 60 0.834
91 F8 61 2.299
91 F8 62 1.322
91 F8 63 -0.631
91 F8 64 -1.607
91 F8 65 -0.631
91 F8 66 2.299
91 F8 67 6.205
91 F8 68 9.135
91 F8 69 11.088
91 F8 70 10.600
91 F8 71 8.647
91 F8 72 4.740
91 F8 73 0.346
91 F8 74 -3.072
91 F8 75 -4.537
91 F8 76 -4.049
91 F8 77 -2.096
91 F8 78 -1.119
91 F8 79 -2.096
91 F8 80 -4.049
91 F8 81 -6.002
91 F8 82 -7.467
91 F8 83 -7.955
91 F8 84 -6.978
91 F8 85 -6.002
91 F8 86 -4.537
91 F8 87 -2.584
91 F8 88 -1.119
91 F8 89 0.834
91 F8 90 1.322
91 F8 91 1.811
91 F8 92 2.787
91 F8 93 3.764
91 F8 94 4.740
91 F8 95 4.740
91 F8 96 3.276
91 F8 97 -0.142
91 F8 98 -4.049
91 F8 99 -6.002
91 F8 100 -4.537
91 F8 101 -0.631
91 F8 102 3.276
91 F8 103 4.740
91 F8 104 3.276
91 F8 105 -1.119
91 F8 106 -5.514
91 F8 107 -7.467
91 F8 108 -6.490
91 F8 109 -3.560
91 F8 110 -1.119
91 F8 111 -1.607
91 F8 112 -4.537
91 F8 113 -7.955
91 F8 114 -9.420
91 F8 115 -7.955
91 F8 116 -4.049
91 F8 117 -0.631
91 F8 118 0.834
91 F8 119 -0.631
91 F8 120 -2.584
91 F8 121 -4.049
91 F8 122 -4.049
91 F8 123 -3.560
91 F8 124 -3.560
91 F8 125 -5.025
91 F8 126 -7.467
91 F8 127 -8.931
91 F8 128 -8.931
91 F8 129 -7.955
91 F8 130 -6.978
91 F8 131 -6.978
91 F8 132 -8.931
91 F8 133 -10.396
91 F8 134 -11.861
91 F8 135 -11.861
91 F8 136 -11.861
91 F8 137 -10.885
91 F8 138 -10.396
91 F8 139 -10.396
91 F8 140 -10.396
91 F8 141 -10.396
91 F8 142 -11.861
91 F8 143 -14.303
91 F8 144 -17.232
91 F8 145 -19.674
91 F8 146 -18.697
91 F8 147 -15.767
91 F8 148 -11.373
91 F8 149 -7.955
91 F8 150 -7.955
91 F8 151 -10.396
91 F8 152 -13.814
91 F8 153 -15.279
91 F8 154 -13.326
91 F8 155 -9.420
91 F8 156 -5.514
91 F8 157 -4.049
91 F8 158 -4.049
91 F8 159 -4.537
91 F8 160 -5.025
91 F8 161 -4.537
91 F8 162 -4.537
91 F8 163 -5.025
91 F8 164 -6.490
91 F8 165 -7.955
91 F8 166 -8.931
91 F8 167 -8.931
91 F8 168 -8.443
91 F8 169 -7.955
91 F8 170 -7.467
91 F8 171 -6.490
91 F8 172 -5.514
91 F8 173 -4.537
91 F8 174 -3.560
91 F8 175 -3.560
91 F8 176 -4.537
91 F8 177 -6.002
91 F8 178 -7.955
91 F8 179 -9.908
91 F8 180 -10.396
91 F8 181 -10.396
91 F8 182 -9.908
91 F8 183 -9.420
91 F8 184 -8.931
91 F8 185 -8.443
91 F8 186 -6.490
91 F8 187 -5.514
91 F8 188 -5.025
91 F8 189 -6.978
91 F8 190 -9.420
91 F8 191 -11.373
91 F8 192 -10.885
91 F8 193 -8.931
91 F8 194 -5.514
91 F8 195 -3.072
91 F8 196 -4.049
91 F8 197 -6.978
91 F8 198 -9.420
91 F8 199 -9.420
91 F8 200 -6.978
91 F8 201 -4.049
91 F8 202 -2.584
91 F8 203 -4.049
91 F8 204 -6.978
91 F8 205 -7.955
91 F8 206 -6.978
91 F8 207 -3.560
91 F8 208 -1.607
91 F8 209 -3.560
91 F8 210 -8.443
91 F8 211 -14.303
91 F8 212 -16.744
91 F8 213 -13.814
91 F8 214 -7.467
91 F8 215 -2.584
91 F8 216 -2.096
91 F8 217 -6.002
91 F8 218 -9.908
91 F8 219 -10.885
91 F8 220 -7.467
91 F8 221 -1.607
91 F8 222 3.276
91 F8 223 4.740
91 F8 224 3.276
91 F8 225 1.811
91 F8 226 1.322
91 F8 227 1.322
91 F8 228 1.322
91 F8 229 0.834
91 F8 230 -0.142
91 F8 231 0.346
91 F8 232 2.299
91 F8 233 4.740
91 F8 234 6.205
91 F8 235 6.694
91 F8 236 5.717
91 F8 237 4.740
91 F8 238 4.252
91 F8 239 4.252
91 F8 240 4.252
91 F8 241 4.740
91 F8 242 4.740
91 F8 243 5.229
91 F8 244 5.229
91 F8 245 4.252
91 F8 246 1.322
91 F8 247 -2.584
91 F8 248 -6.002
91 F8 249 -6.490
91 F8 250 -4.537
91 F8 251 -0.631
91 F8 252 2.299
91 F8 253 2.787
91 F8 254 0.346
91 F8 255 -2.584
# AF1 chan 4
91 AF1 0 2.594
91 AF1 1 3.571
91 AF1 2 3.571
91 AF1 3 1.617
91 AF1 4 -0.824
91 AF1 5 -0.824
91 AF1 6 0.641
91 AF1 7 4.059
91 AF1 8 6.989
91 AF1 9 8.453
91 AF1 10 7.965
91 AF1 11 5.524
91 AF1 12 3.082
91 AF1 13 1.129
91 AF1 14 0.153
91 AF1 15 -0.824
91 AF1 16 -1.312
91 AF1 17 -2.289
91 AF1 18 -2.289
91 AF1 19 -1.801
91 AF1 20 -0.336
91 AF1 21 2.106
91 AF1 22 5.035
91 AF1 23 7.965
91 AF1 24 10.895
91 AF1 25 12.848
91 AF1 26 13.336
91 AF1 27 13.336
91 AF1 28 13.824
91 AF1 29 14.801
91 AF1 30 16.266
91 AF1 31 16.754
91 AF1 32 16.754
91 AF1 33 14.801
91 AF1 34 11.383
91 AF1 35 8.453
91 AF1 36 6.500
91 AF1 37 6.012
91 AF1 38 6.989
91 AF1 39 7.965
91 AF1 40 7.965
91 AF1 41 6.012
91 AF1 42 2.594
91 AF1 43 -1.312
91 AF1 44 -3.754
91 AF1 45 -4.730
91 AF1 46 -4.242
91 AF1 47 -2.777
91 AF1 48 -1.312
91 AF1 49 -0.336
91 AF1 50 -0.336
91 AF1 51 0.153
91 AF1 52 1.617
91 AF1 53 4.059
91 AF1 54 5.524
91 AF1 55 6.012
91 AF1 56 3.571
91 AF1 57 -0.336
91 AF1 58 -3.265
91 AF1 59 -3.754
91 AF1 60 -1.312
91 AF1 61 3.082
91 AF1 62 6.989
91 AF1 63 8.453
91 AF1 64 8.942
91 AF1 65 7.965
91 AF1 66 7.965
91 AF1 67 8.942
91 AF1 68 10.406
91 AF1 69 11.383
91 AF1 70 11.383
91 AF1 71 10.406
91 AF1 72 7.477
91 AF1 73 3.082
91 AF1 74 -1.312
91 AF1 75 -4.730
91 AF1 76 -7.172
91 AF1 77 -7.172
91 AF1 78 -6.195
91 AF1 79 -5.219
91 AF1 80 -5.219
91 AF1 81 -6.195
91 AF1 82 -7.660
91 AF1 83 -9.125
91 AF1 84 -10.101
91 AF1 85 -10.101
91 AF1 86 -10.590
91 AF1 87 -10.101
91 AF1 88 -8.148
91 AF1 89 -5.219
91 AF1 90 -2.289
91 AF1 91 0.641
91 AF1 92 1.617
91 AF1 93 0.641
91 AF1 94 -2.777
91 AF1 95 -6.195
91 AF1 96 -9.125
91 AF1 97 -11.566
91 AF1 98 -13.031
91 AF1 99 -13.519
91 AF1 100 -13.031
91 AF1 101 -11.566
91 AF1 102 -10.101
91 AF1 103 -8.636
91 AF1 104 -8.148
91 AF1 105 -9.125
91 AF1 106 -10.101
91 AF1 107 -11.078
91 AF1 108 -11.566
91 AF1 109 -12.543
91 AF1 110 -14.496
91 AF1 111 -17.426
91 AF1 112 -19.867
91 AF1 113 -19.867
91 AF1 114 -17.426
91 AF1 115 -13.519
91 AF1 116 -9.613
91 AF1 117 -8.148
91 AF1 118 -8.636
91 AF1 119 -10.101
91 AF1 120 -11.078
91 AF1 121 -10.590
91 AF1 122 -9.125
91 AF1 123 -9.125
91 AF1 124 -9.613
91 AF1 125 -11.078
91 AF1 126 -12.054
91 AF1 127 -11.078
91 AF1 128 -10.101
91 AF1 129 -10.101
91 AF1 130 -11.566
91 AF1 131 -14.008
91 AF1 132 -15.961
91 AF1 133 -15.961
91 AF1 134 -13.519
91 AF1 135 -11.566
91 AF1 136 -11.078
91 AF1 137 -13.519
91 AF1 138 -17.426
91 AF1 139 -21.332
91 AF1 140 -23.773
91 AF1 141 -25.238
91 AF1 142 -25.726
91 AF1 143 -26.215
91 AF1 144 -26.215
91 AF1 145 -24.750
91 AF1 146 -23.285
91 AF1 147 -21.332
91 AF1 148 -19.867
91 AF1 149 -19.867
91 AF1 150 -20.355
91 AF1 151 -20.355
91 AF1 152 -19.867
91 AF1 153 -18.402
91 AF1 154 -16.937
91 AF1 155 -15.961
91 AF1 156 -15.472
91 AF1 157 -15.961
91 AF1 158 -16.449
91 AF1 159 -17.426
91 AF1 160 -18.890
91 AF1 161 -20.355
91 AF1 162 -22.308
91 AF1 163 -23.773
91 AF1 164 -24.261
91 AF1 165 -24.750
91 AF1 166 -23.773
91 AF1 167 -23.285
91 AF1 168 -23.285
91 AF1 169 -23.773
91 AF1 170 -23.773
91 AF1 171 -22.797
91 AF1 172 -20.844
91 AF1 173 -17.426
91 AF1 174 -14.008
91 AF1 175 -12.054
91 AF1 176 -11.078
91 AF1 177 -11.566
91 AF1 178 -12.054
91 AF1 179 -12.054
91 AF1 180 -11.078
91 AF1 181 -10.101
91 AF1 182 -10.590
91 AF1 183 -13.031
91 AF1 184 -16.937
91 AF1 185 -20.355
91 AF1 186 -21.820
91 AF1 187 -20.355
91 AF1 188 -17.914
91 AF1 189 -16.937
91 AF1 190 -17.426
91 AF1 191 -18.890
91 AF1 192 -20.355
91 AF1 193 -20.355
91 AF1 194 -19.379
91 AF1 195 -18.890
91 AF1 196 -19.867
91 AF1 197 -22.308
91 AF1 198 -24.750
91 AF1 199 -25.726
91 AF1 200 -24.261
91 AF1 201 -22.308
91 AF1 202 -21.332
91 AF1 203 -20.844
91 AF1 204 -21.332
91 AF1 205 -22.308
91 AF1 206 -21.820
91 AF1 207 -20.844
91 AF1 208 -20.844
91 AF1 209 -21.332
91 AF1 210 -22.797
91 AF1 211 -24.750
91 AF1 212 -26.215
91 AF1 213 -26.215
91 AF1 214 -23.773
91 AF1 215 -20.355
91 AF1 216 -16.449
91 AF1 217 -14.008
91 AF1 218 -12.543
91 AF1 219 -12.543
91 AF1 220 -12.543
91 AF1 221 -12.543
91 AF1 222 -11.566
91 AF1 223 -10.590
91 AF1 224 -9.125
91 AF1 225 -8.636
91 AF1 226 -9.125
91 AF1 227 -9.125
91 AF1 228 -9.613
91 AF1 229 -9.125
91 AF1 230 -8.148
91 AF1 231 -6.683
91 AF1 232 -5.219
91 AF1 233 -5.219
91 AF1 234 -5.219
91 AF1 235 -5.707
91 AF1 236 -5.219
91 AF1 237 -4.730
91 AF1 238 -3.754
91 AF1 239 -3.265
91 AF1 240 -3.265
91 AF1 241 -3.754
91 AF1 242 -4.242
91 AF1 243 -4.242
91 AF1 244 -4.242
91 AF1 245 -4.242
91 AF1 246 -5.219
91 AF1 247 -7.172
91 AF1 248 -8.636
91 AF1 249 -8.636
91 AF1 250 -7.172
91 AF1 251 -4.730
91 AF1 252 -3.265
91 AF1 253 -3.265
91 AF1 254 -4.730
91 AF1 255 -7.660
# AF2 chan 5
91 AF2 0 3.550
91 AF2 1 4.038
91 AF2 2 4.038
91 AF2 3 2.574
91 AF2 4 1.109
91 AF2 5 0.621
91 AF2 6 2.085
91 AF2 7 4.527
91 AF2 8 7.456
91 AF2 9 8.433
91 AF2 10 7.456
91 AF2 11 4.527
91 AF2 12 1.597
91 AF2 13 -0.844
91 AF2 14 -2.797
91 AF2 15 -4.262
91 AF2 16 -4.751
91 AF2 17 -5.239
91 AF2 18 -4.751
91 AF2 19 -3.286
91 AF2 20 -1.333
91 AF2 21 0.621
91 AF2 22 2.085
91 AF2 23 3.550
91 AF2 24 5.015
91 AF2 25 6.968
91 AF2 26 9.410
91 AF2 27 11.363
91 AF2 28 12.828
91 AF2 29 14.292
91 AF2 30 15.757
91 AF2 31 16.734
91 AF2 32 17.222
91 AF2 33 15.757
91 AF2 34 12.339
91 AF2 35 8.433
91 AF2 36 4.527
91 AF2 37 4.038
91 AF2 38 6.480
91 AF2 39 9.898
91 AF2 40 11.363
91 AF2 41 10.386
91 AF2 42 5.992
91 AF2 43 0.621
91 AF2 44 -3.286
91 AF2 45 -4.262
91 AF2 46 -2.309
91 AF2 47 0.621
91 AF2 48 3.062
91 AF2 49 4.038
91 AF2 50 4.527
91 AF2 51 5.015
91 AF2 52 6.480
91 AF2 53 8.433
91 AF2 54 8.433
91 AF2 55 6.480
91 AF2 56 2.574
91 AF2 57 -1.821
91 AF2 58 -4.262
91 AF2 59 -3.286
91 AF2 60 -0.844
91 AF2 61 2.574
91 AF2 62 4.527
91 AF2 63 5.503
91 AF2 64 5.503
91 AF2 65 6.480
91 AF2 66 8.921
91 AF2 67 11.851
91 AF2 68 14.781
91 AF2 69 16.246
91 AF2 70 15.757
91 AF2 71 14.292
91 AF2 72 11.851
91 AF2 73 8.921
91 AF2 74 5.992
91 AF2 75 3.550
91 AF2 76 1.597
91 AF2 77 1.109
91 AF2 78 1.109
91 AF2 79 1.597
91 AF2 80 1.597
91 AF2 81 1.109
91 AF2 82 -0.356
91 AF2 83 -1.333
91 AF2 84 -1.333
91 AF2 85 -1.333
91 AF2 86 -1.333
91 AF2 87 -0.844
91 AF2 88 -0.356
91 AF2 89 1.109
91 AF2 90 3.550
91 AF2 91 5.992
91 AF2 92 7.945
91 AF2 93 8.433
91 AF2 94 7.945
91 AF2 95 5.992
91 AF2 96 3.550
91 AF2 97 0.621
91 AF2 98 -1.821
91 AF2 99 -3.286
91 AF2 100 -3.286
91 AF2 101 -0.844
91 AF2 102 2.574
91 AF2 103 5.503
91 AF2 104 6.480
91 AF2 105 5.503
91 AF2 106 4.038
91 AF2 107 2.574
91 AF2 108 2.085
91 AF2 109 1.597
91 AF2 110 0.132
91 AF2 111 -2.797
91 AF2 112 -4.751
91 AF2 113 -6.215
91 AF2 114 -4.751
91 AF2 115 -1.333
91 AF2 116 2.085
91 AF2 117 4.527
91 AF2 118 5.503
91 AF2 119 5.015
91 AF2 120 3.550
91 AF2 121 2.574
91 AF2 122 1.109
91 AF2 123 -0.356
91 AF2 124 -1.333
91 AF2 125 -1.821
91 AF2 126 -1.821
91 AF2 127 -2.309
91 AF2 128 -2.309
91 AF2 129 -3.286
91 AF2 130 -4.751
91 AF2 131 -5.727
91 AF2 132 -5.727
91 AF2 133 -4.751
91 AF2 134 -3.774
91 AF2 135 -2.797
91 AF2 136 -3.286
91 AF2 137 -4.751
91 AF2 138 -6.215
91 AF2 139 -7.680
91 AF2 140 -8.657
91 AF2 141 -9.145
91 AF2 142 -9.633
91 AF2 143 -11.098
91 AF2 144 -12.563
91 AF2 145 -13.051
91 AF2 146 -12.563
91 AF2 147 -11.098
91 AF2 148 -8.657
91 AF2 149 -6.704
91 AF2 150 -6.704
91 AF2 151 -8.169
91 AF2 152 -9.633
91 AF2 153 -10.610
91 AF2 154 -9.633
91 AF2 155 -8.169
91 AF2 156 -5.727
91 AF2 157 -4.262
91 AF2 158 -4.262
91 AF2 159 -5.239
91 AF2 160 -6.215
91 AF2 161 -6.704
91 AF2 162 -7.192
91 AF2 163 -8.169
91 AF2 164 -8.657
91 AF2 165 -9.145
91 AF2 166 -9.145
91 AF2 167 -8.169
91 AF2 168 -7.192
91 AF2 169 -6.215
91 AF2 170 -5.727
91 AF2 171 -5.727
91 AF2 172 -5.239
91 AF2 173 -4.262
91 AF2 174 -3.286
91 AF2 175 -3.286
91 AF2 176 -4.751
91 AF2 177 -7.192
91 AF2 178 -8.169
91 AF2 179 -8.169
91 AF2 180 -6.215
91 AF2 181 -4.262
91 AF2 182 -3.286
91 AF2 183 -4.751
91 AF2 184 -6.704
91 AF2 185 -8.657
91 AF2 186 -9.145
91 AF2 187 -7.680
91 AF2 188 -6.215
91 AF2 189 -5.239
91 AF2 190 -5.239
91 AF2 191 -6.215
91 AF2 192 -6.704
91 AF2 193 -6.704
91 AF2 194 -6.704
91 AF2 195 -6.704
91 AF2 196 -6.704
91 AF2 197 -7.680
91 AF2 198 -7.680
91 AF2 199 -7.192
91 AF2 200 -5.727
91 AF2 201 -4.751
91 AF2 202 -4.262
91 AF2 203 -4.262
91 AF2 204 -4.751
91 AF2 205 -4.262
91 AF2 206 -3.286
91 AF2 207 -1.821
91 AF2 208 -2.309
91 AF2 209 -3.774
91 AF2 210 -6.215
91 AF2 211 -8.169
91 AF2 212 -9.145
91 AF2 213 -7.680
91 AF2 214 -4.751
91 AF2 215 -1.333
91 AF2 216 1.109
91 AF2 217 2.085
91 AF2 218 2.574
91 AF2 219 3.550
91 AF2 220 4.527
91 AF2 221 5.992
91 AF2 222 7.456
91 AF2 223 7.456
91 AF2 224 7.456
91 AF2 225 7.456
91 AF2 226 8.921
91 AF2 227 10.874
91 AF2 228 12.339
91 AF2 229 13.316
91 AF2 230 12.339
91 AF2 231 10.874
91 AF2 232 9.898
91 AF2 233 9.898
91 AF2 234 10.874
91 AF2 235 11.851
91 AF2 236 12.828
91 AF2 237 13.316
91 AF2 238 13.316
91 AF2 239 12.828
91 AF2 240 12.828
91 AF2 241 12.828
91 AF2 242 12.828
91 AF2 243 12.828
91 AF2 244 12.339
91 AF2 245 11.363
91 AF2 246 10.386
91 AF2 247 8.433
91 AF2 248 6.968
91 AF2 249 6.480
91 AF2 250 6.968
91 AF2 251 7.456
91 AF2 252 8.433
91 AF2 253 8.921
91 AF2 254 8.433
91 AF2 255 6.968
# FZ chan 6
91 FZ 0 4.974
91 FZ 1 4.974
91 FZ 2 3.998
91 FZ 3 3.021
91 FZ 4 1.556
91 FZ 5 1.556
91 FZ 6 1.556
91 FZ 7 2.533
91 FZ 8 3.998
91 FZ 9 6.439
91 FZ 10 7.904
91 FZ 11 7.904
91 FZ 12 6.439
91 FZ 13 3.998
91 FZ 14 1.068
91 FZ 15 -0.885
91 FZ 16 -1.373
91 FZ 17 -1.373
91 FZ 18 -0.397
91 FZ 19 1.556
91 FZ 20 3.021
91 FZ 21 4.974
91 FZ 22 6.439
91 FZ 23 6.927
91 FZ 24 7.416
91 FZ 25 7.416
91 FZ 26 6.927
91 FZ 27 7.416
91 FZ 28 8.881
91 FZ 29 10.834
91 FZ 30 14.252
91 FZ 31 17.670
91 FZ 32 20.111
91 FZ 33 19.623
91 FZ 34 16.693
91 FZ 35 11.810
91 FZ 36 6.927
91 FZ 37 4.486
91 FZ 38 4.974
91 FZ 39 7.416
91 FZ 40 9.369
91 FZ 41 9.369
91 FZ 42 6.927
91 FZ 43 3.510
91 FZ 44 0.092
91 FZ 45 0.092
91 FZ 46 1.068
91 FZ 47 2.045
91 FZ 48 2.533
91 FZ 49 1.556
91 FZ 50 0.092
91 FZ 51 0.092
91 FZ 52 1.068
91 FZ 53 3.998
91 FZ 54 5.951
91 FZ 55 6.439
91 FZ 56 3.998
91 FZ 57 0.580
91 FZ 58 -2.838
91 FZ 59 -4.303
91 FZ 60 -3.326
91 FZ 61 -0.397
91 FZ 62 2.533
91 FZ 63 4.974
91 FZ 64 6.439
91 FZ 65 7.416
91 FZ 66 8.881
91 FZ 67 11.322
91 FZ 68 13.275
91 FZ 69 14.740
91 FZ 70 14.740
91 FZ 71 13.763
91 FZ 72 12.299
91 FZ 73 10.834
91 FZ 74 9.857
91 FZ 75 10.345
91 FZ 76 11.810
91 FZ 77 13.763
91 FZ 78 15.228
91 FZ 79 15.717
91 FZ 80 15.228
91 FZ 81 13.763
91 FZ 82 12.299
91 FZ 83 11.322
91 FZ 84 10.834
91 FZ 85 9.857
91 FZ 86 8.881
91 FZ 87 8.392
91 FZ 88 9.369
91 FZ 89 11.322
91 FZ 90 13.763
91 FZ 91 15.717
91 FZ 92 16.693
91 FZ 93 16.693
91 FZ 94 16.693
91 FZ 95 16.693
91 FZ 96 15.717
91 FZ 97 13.275
91 FZ 98 9.369
91 FZ 99 5.951
91 FZ 100 4.486
91 FZ 101 5.951
91 FZ 102 9.857
91 FZ 103 13.275
91 FZ 104 15.228
91 FZ 105 15.228
91 FZ 106 13.275
91 FZ 107 10.834
91 FZ 108 9.857
91 FZ 109 8.881
91 FZ 110 7.904
91 FZ 111 5.951
91 FZ 112 3.998
91 FZ 113 2.533
91 FZ 114 3.021
91 FZ 115 4.974
91 FZ 116 7.416
91 FZ 117 9.369
91 FZ 118 10.345
91 FZ 119 9.857
91 FZ 120 8.392
91 FZ 121 7.416
91 FZ 122 5.951
91 FZ 123 5.463
91 FZ 124 4.486
91 FZ 125 4.486
91 FZ 126 3.510
91 FZ 127 2.533
91 FZ 128 1.068
91 FZ 129 -0.885
91 FZ 130 -2.350
91 FZ 131 -3.326
91 FZ 132 -3.326
91 FZ 133 -2.838
91 FZ 134 -1.862
91 FZ 135 -1.373
91 FZ 136 -1.373
91 FZ 137 -1.862
91 FZ 138 -2.838
91 FZ 139 -3.326
91 FZ 140 -4.303
91 FZ 141 -4.303
91 FZ 142 -4.303
91 FZ 143 -4.791
91 FZ 144 -5.280
91 FZ 145 -5.768
91 FZ 146 -5.280
91 FZ 147 -5.280
91 FZ 148 -4.791
91 FZ 149 -4.791
91 FZ 150 -5.768
91 FZ 151 -6.256
91 FZ 152 -7.233
91 FZ 153 -6.744
91 FZ 154 -6.256
91 FZ 155 -5.280
91 FZ 156 -3.815
91 FZ 157 -3.326
91 FZ 158 -2.350
91 FZ 159 -2.350
91 FZ 160 -2.838
91 FZ 161 -3.326
91 FZ 162 -4.791
91 FZ 163 -6.744
91 FZ 164 -8.209
91 FZ 165 -8.209
91 FZ 166 -7.721
91 FZ 167 -6.744
91 FZ 168 -5.768
91 FZ 169 -5.768
91 FZ 170 -5.768
91 FZ 171 -5.768
91 FZ 172 -6.256
91 FZ 173 -6.744
91 FZ 174 -6.744
91 FZ 175 -7.721
91 FZ 176 -7.721
91 FZ 177 -7.721
91 FZ 178 -7.721
91 FZ 179 -7.721
91 FZ 180 -7.721
91 FZ 181 -7.233
91 FZ 182 -7.721
91 FZ 183 -8.209
91 FZ 184 -9.186
91 FZ 185 -10.651
91 FZ 186 -12.115
91 FZ 187 -12.604
91 FZ 188 -12.115
91 FZ 189 -11.139
91 FZ 190 -10.162
91 FZ 191 -9.186
91 FZ 192 -9.186
91 FZ 193 -8.209
91 FZ 194 -7.233
91 FZ 195 -5.280
91 FZ 196 -4.303
91 FZ 197 -4.303
91 FZ 198 -5.280
91 FZ 199 -6.744
91 FZ 200 -6.744
91 FZ 201 -5.768
91 FZ 202 -3.326
91 FZ 203 -1.373
91 FZ 204 0.092
91 FZ 205 0.580
91 FZ 206 1.556
91 FZ 207 2.533
91 FZ 208 2.533
91 FZ 209 1.556
91 FZ 210 -1.373
91 FZ 211 -5.280
91 FZ 212 -7.721
91 FZ 213 -8.209
91 FZ 214 -6.256
91 FZ 215 -3.326
91 FZ 216 -0.397
91 FZ 217 1.068
91 FZ 218 1.556
91 FZ 219 1.556
91 FZ 220 2.045
91 FZ 221 3.021
91 FZ 222 3.510
91 FZ 223 2.533
91 FZ 224 1.068
91 FZ 225 -0.397
91 FZ 226 -0.397
91 FZ 227 0.092
91 FZ 228 2.045
91 FZ 229 3.021
91 FZ 230 3.510
91 FZ 231 2.533
91 FZ 232 1.556
91 FZ 233 1.068
91 FZ 234 1.556
91 FZ 235 2.533
91 FZ 236 4.486
91 FZ 237 6.439
91 FZ 238 8.881
91 FZ 239 10.834
91 FZ 240 11.322
91 FZ 241 11.322
91 FZ 242 9.857
91 FZ 243 8.881
91 FZ 244 7.904
91 FZ 245 7.416
91 FZ 246 6.927
91 FZ 247 6.439
91 FZ 248 5.463
91 FZ 249 4.486
91 FZ 250 5.463
91 FZ 251 6.927
91 FZ 252 8.392
91 FZ 253 9.369
91 FZ 254 8.392
91 FZ 255 6.927
# F4 chan 7
91 F4 0 3.510
91 F4 1 3.998
91 F4 2 3.510
91 F4 3 2.045
91 F4 4 1.556
91 F4 5 1.556
91 F4 6 3.021
91 F4 7 4.974
91 F4 8 6.439
91 F4 9 6.439
91 F4 10 5.463
91 F4 11 3.510
91 F4 12 1.068
91 F4 13 -0.397
91 F4 14 -2.350
91 F4 15 -3.815
91 F4 16 -5.280
91 F4 17 -6.744
91 F4 18 -7.233
91 F4 19 -7.233
91 F4 20 -5.280
91 F4 21 -3.815
91 F4 22 -2.350
91 F4 23 -1.373
91 F4 24 -1.373
91 F4 25 -0.397
91 F4 26 0.580
91 F4 27 2.045
91 F4 28 4.486
91 F4 29 6.927
91 F4 30 8.881
91 F4 31 10.834
91 F4 32 11.322
91 F4 33 10.345
91 F4 34 7.416
91 F4 35 3.510
91 F4 36 -0.397
91 F4 37 -2.350
91 F4 38 -1.862
91 F4 39 0.580
91 F4 40 3.021
91 F4 41 3.510
91 F4 42 2.533
91 F4 43 0.092
91 F4 44 -1.862
91 F4 45 -2.350
91 F4 46 -3.326
91 F4 47 -3.326
91 F4 48 -3.326
91 F4 49 -3.815
91 F4 50 -3.815
91 F4 51 -1.862
91 F4 52 0.580
91 F4 53 3.021
91 F4 54 4.486
91 F4 55 3.998
91 F4 56 1.068
91 F4 57 -1.862
91 F4 58 -4.791
91 F4 59 -5.280
91 F4 60 -3.815
91 F4 61 -1.862
91 F4 62 -0.397
91 F4 63 0.092
91 F4 64 0.092
91 F4 65 0.092
91 F4 66 1.556
91 F4 67 3.510
91 F4 68 5.951
91 F4 69 7.904
91 F4 70 7.904
91 F4 71 7.416
91 F4 72 4.486
91 F4 73 1.556
91 F4 74 -1.862
91 F4 75 -4.303
91 F4 76 -5.280
91 F4 77 -5.768
91 F4 78 -4.791
91 F4 79 -4.303
91 F4 80 -3.326
91 F4 81 -3.326
91 F4 82 -3.815
91 F4 83 -4.303
91 F4 84 -4.303
91 F4 85 -4.303
91 F4 86 -4.303
91 F4 87 -4.303
91 F4 88 -5.280
91 F4 89 -5.280
91 F4 90 -5.280
91 F4 91 -4.303
91 F4 92 -2.838
91 F4 93 -1.862
91 F4 94 -0.885
91 F4 95 -1.373
91 F4 96 -2.838
91 F4 97 -4.303
91 F4 98 -6.256
91 F4 99 -7.721
91 F4 100 -8.698
91 F4 101 -7.233
91 F4 102 -5.280
91 F4 103 -2.838
91 F4 104 -1.373
91 F4 105 -1.373
91 F4 106 -2.838
91 F4 107 -5.280
91 F4 108 -6.744
91 F4 109 -7.233
91 F4 110 -7.233
91 F4 111 -7.721
91 F4 112 -8.209
91 F4 113 -9.186
91 F4 114 -9.186
91 F4 115 -8.698
91 F4 116 -7.233
91 F4 117 -5.280
91 F4 118 -3.815
91 F4 119 -3.326
91 F4 120 -3.326
91 F4 121 -4.303
91 F4 122 -5.280
91 F4 123 -6.256
91 F4 124 -7.233
91 F4 125 -8.209
91 F4 126 -9.674
91 F4 127 -11.139
91 F4 128 -11.627
91 F4 129 -12.604
91 F4 130 -13.092
91 F4 131 -13.580
91 F4 132 -13.580
91 F4 133 -13.580
91 F4 134 -13.092
91 F4 135 -12.115
91 F4 136 -11.627
91 F4 137 -11.627
91 F4 138 -11.627
91 F4 139 -12.115
91 F4 140 -12.115
91 F4 141 -12.604
91 F4 142 -13.580
91 F4 143 -15.045
91 F4 144 -16.510
91 F4 145 -16.998
91 F4 146 -16.022
91 F4 147 -14.557
91 F4 148 -13.092
91 F4 149 -11.627
91 F4 150 -12.115
91 F4 151 -13.092
91 F4 152 -14.557
91 F4 153 -15.533
91 F4 154 -15.533
91 F4 155 -15.045
91 F4 156 -14.069
91 F4 157 -12.604
91 F4 158 -11.627
91 F4 159 -11.139
91 F4 160 -10.651
91 F4 161 -10.162
91 F4 162 -11.139
91 F4 163 -12.115
91 F4 164 -13.580
91 F4 165 -14.557
91 F4 166 -14.557
91 F4 167 -13.092
91 F4 168 -12.115
91 F4 169 -12.115
91 F4 170 -12.604
91 F4 171 -14.557
91 F4 172 -15.533
91 F4 173 -15.045
91 F4 174 -13.580
91 F4 175 -12.604
91 F4 176 -12.115
91 F4 177 -13.092
91 F4 178 -14.069
91 F4 179 -15.045
91 F4 180 -15.045
91 F4 181 -14.557
91 F4 182 -15.045
91 F4 183 -15.533
91 F4 184 -16.510
91 F4 185 -16.998
91 F4 186 -16.022
91 F4 187 -14.557
91 F4 188 -12.604
91 F4 189 -12.115
91 F4 190 -12.604
91 F4 191 -14.069
91 F4 192 -15.045
91 F4 193 -15.533
91 F4 194 -15.045
91 F4 195 -14.069
91 F4 196 -13.580
91 F4 197 -14.069
91 F4 198 -15.533
91 F4 199 -16.998
91 F4 200 -17.487
91 F4 201 -17.975
91 F4 202 -16.998
91 F4 203 -16.022
91 F4 204 -15.533
91 F4 205 -15.045
91 F4 206 -14.557
91 F4 207 -13.092
91 F4 208 -11.627
91 F4 209 -11.139
91 F4 210 -11.627
91 F4 211 -13.580
91 F4 212 -15.533
91 F4 213 -16.022
91 F4 214 -15.045
91 F4 215 -13.092
91 F4 216 -11.627
91 F4 217 -10.651
91 F4 218 -11.139
91 F4 219 -11.627
91 F4 220 -11.627
91 F4 221 -11.139
91 F4 222 -10.162
91 F4 223 -8.698
91 F4 224 -7.721
91 F4 225 -6.256
91 F4 226 -4.303
91 F4 227 -2.838
91 F4 228 -2.350
91 F4 229 -1.862
91 F4 230 -2.350
91 F4 231 -2.350
91 F4 232 -2.838
91 F4 233 -2.838
91 F4 234 -2.350
91 F4 235 -1.862
91 F4 236 -1.862
91 F4 237 -1.862
91 F4 238 -1.862
91 F4 239 -1.862
91 F4 240 -2.838
91 F4 241 -3.326
91 F4 242 -4.303
91 F4 243 -4.791
91 F4 244 -5.280
91 F4 245 -5.768
91 F4 246 -5.768
91 F4 247 -6.744
91 F4 248 -8.209
91 F4 249 -9.186
91 F4 250 -9.674
91 F4 251 -9.186
91 F4 252 -7.721
91 F4 253 -6.744
91 F4 254 -7.233
91 F4 255 -8.209
# F3 chan 8
91 F3 0 2.452
91 F3 1 2.452
91 F3 2 1.475
91 F3 3 0.498
91 F3 4 -0.966
91 F3 5 -0.966
91 F3 6 0.498
91 F3 7 3.428
91 F3 8 6.358
91 F3 9 8.311
91 F3 10 8.311
91 F3 11 6.358
91 F3 12 3.428
91 F3 13 0.010
91 F3 14 -2.431
91 F3 15 -3.408
91 F3 16 -3.896
91 F3 17 -3.408
91 F3 18 -3.408
91 F3 19 -2.920
91 F3 20 -2.431
91 F3 21 -0.478
91 F3 22 1.475
91 F3 23 4.405
91 F3 24 6.846
91 F3 25 8.799
91 F3 26 9.776
91 F3 27 10.752
91 F3 28 11.729
91 F3 29 13.682
91 F3 30 15.635
91 F3 31 17.100
91 F3 32 17.588
91 F3 33 16.612
91 F3 34 13.194
91 F3 35 9.776
91 F3 36 6.846
91 F3 37 5.381
91 F3 38 5.381
91 F3 39 6.358
91 F3 40 5.870
91 F3 41 4.405
91 F3 42 1.475
91 F3 43 -1.455
91 F3 44 -3.408
91 F3 45 -3.408
91 F3 46 -2.431
91 F3 47 -0.478
91 F3 48 0.498
91 F3 49 1.475
91 F3 50 1.963
91 F3 51 2.452
91 F3 52 3.916
91 F3 53 5.870
91 F3 54 6.358
91 F3 55 5.870
91 F3 56 3.916
91 F3 57 1.475
91 F3 58 0.010
91 F3 59 0.498
91 F3 60 1.475
91 F3 61 2.940
91 F3 62 3.916
91 F3 63 4.405
91 F3 64 5.381
91 F3 65 6.846
91 F3 66 8.799
91 F3 67 11.241
91 F3 68 12.705
91 F3 69 13.194
91 F3 70 12.705
91 F3 71 10.752
91 F3 72 8.311
91 F3 73 5.381
91 F3 74 2.452
91 F3 75 0.987
91 F3 76 1.475
91 F3 77 2.452
91 F3 78 4.405
91 F3 79 4.893
91 F3 80 4.893
91 F3 81 3.916
91 F3 82 2.452
91 F3 83 0.987
91 F3 84 0.010
91 F3 85 -0.478
91 F3 86 0.010
91 F3 87 0.987
91 F3 88 2.452
91 F3 89 3.916
91 F3 90 5.381
91 F3 91 5.870
91 F3 92 5.381
91 F3 93 4.405
91 F3 94 3.428
91 F3 95 2.452
91 F3 96 1.475
91 F3 97 0.010
91 F3 98 -0.966
91 F3 99 -1.943
91 F3 100 -1.943
91 F3 101 -0.478
91 F3 102 1.963
91 F3 103 4.405
91 F3 104 5.870
91 F3 105 6.358
91 F3 106 5.870
91 F3 107 4.405
91 F3 108 2.452
91 F3 109 0.498
91 F3 110 -2.431
91 F3 111 -4.873
91 F3 112 -5.849
91 F3 113 -4.873
91 F3 114 -1.943
91 F3 115 1.963
91 F3 116 4.893
91 F3 117 5.381
91 F3 118 4.893
91 F3 119 3.428
91 F3 120 1.963
91 F3 121 0.987
91 F3 122 0.498
91 F3 123 0.010
91 F3 124 -0.478
91 F3 125 0.498
91 F3 126 1.963
91 F3 127 3.428
91 F3 128 3.428
91 F3 129 1.475
91 F3 130 -2.431
91 F3 131 -4.873
91 F3 132 -5.361
91 F3 133 -3.408
91 F3 134 0.010
91 F3 135 2.452
91 F3 136 2.452
91 F3 137 0.498
91 F3 138 -1.455
91 F3 139 -3.408
91 F3 140 -4.384
91 F3 141 -4.873
91 F3 142 -5.361
91 F3 143 -6.337
91 F3 144 -7.314
91 F3 145 -6.826
91 F3 146 -5.849
91 F3 147 -3.896
91 F3 148 -2.920
91 F3 149 -2.920
91 F3 150 -3.408
91 F3 151 -4.873
91 F3 152 -5.849
91 F3 153 -6.337
91 F3 154 -5.361
91 F3 155 -4.873
91 F3 156 -3.896
91 F3 157 -3.408
91 F3 158 -2.920
91 F3 159 -3.408
91 F3 160 -4.384
91 F3 161 -5.361
91 F3 162 -6.337
91 F3 163 -7.314
91 F3 164 -7.802
91 F3 165 -6.826
91 F3 166 -5.849
91 F3 167 -4.384
91 F3 168 -3.408
91 F3 169 -3.408
91 F3 170 -3.408
91 F3 171 -3.408
91 F3 172 -2.920
91 F3 173 -2.431
91 F3 174 -1.455
91 F3 175 -1.455
91 F3 176 -1.455
91 F3 177 -2.920
91 F3 178 -3.408
91 F3 179 -2.431
91 F3 180 -1.455
91 F3 181 -0.478
91 F3 182 -0.966
91 F3 183 -3.408
91 F3 184 -6.826
91 F3 185 -9.267
91 F3 186 -9.755
91 F3 187 -9.267
91 F3 188 -7.314
91 F3 189 -6.337
91 F3 190 -5.849
91 F3 191 -6.337
91 F3 192 -6.337
91 F3 193 -5.361
91 F3 194 -4.873
91 F3 195 -5.361
91 F3 196 -7.314
91 F3 197 -8.291
91 F3 198 -9.267
91 F3 199 -8.291
91 F3 200 -6.337
91 F3 201 -5.361
91 F3 202 -5.849
91 F3 203 -6.826
91 F3 204 -7.314
91 F3 205 -6.826
91 F3 206 -6.337
91 F3 207 -5.849
91 F3 208 -6.826
91 F3 209 -8.291
91 F3 210 -9.755
91 F3 211 -10.244
91 F3 212 -9.755
91 F3 213 -8.291
91 F3 214 -6.337
91 F3 215 -3.408
91 F3 216 -0.966
91 F3 217 0.498
91 F3 218 1.475
91 F3 219 2.452
91 F3 220 2.940
91 F3 221 2.940
91 F3 222 3.916
91 F3 223 3.916
91 F3 224 3.428
91 F3 225 2.940
91 F3 226 1.475
91 F3 227 0.987
91 F3 228 1.475
91 F3 229 1.963
91 F3 230 2.940
91 F3 231 3.428
91 F3 232 3.428
91 F3 233 2.940
91 F3 234 2.452
91 F3 235 2.940
91 F3 236 3.916
91 F3 237 4.893
91 F3 238 4.893
91 F3 239 4.893
91 F3 240 4.893
91 F3 241 5.870
91 F3 242 7.823
91 F3 243 9.776
91 F3 244 11.241
91 F3 245 11.241
91 F3 246 9.288
91 F3 247 7.334
91 F3 248 5.381
91 F3 249 4.405
91 F3 250 4.405
91 F3 251 5.381
91 F3 252 6.358
91 F3 253 6.846
91 F3 254 6.846
91 F3 255 7.334
# FC6 chan 9
91 FC6 0 1.200
91 FC6 1 1.200
91 FC6 2 1.200
91 FC6 3 1.200
91 FC6 4 2.177
91 FC6 5 4.130
91 FC6 6 7.060
91 FC6 7 9.501
91 FC6 8 10.478
91 FC6 9 9.501
91 FC6 10 7.060
91 FC6 11 4.618
91 FC6 12 2.665
91 FC6 13 1.689
91 FC6 14 1.200
91 FC6 15 1.200
91 FC6 16 1.200
91 FC6 17 1.200
91 FC6 18 1.200
91 FC6 19 2.177
91 FC6 20 2.665
91 FC6 21 2.665
91 FC6 22 1.689
91 FC6 23 1.200
91 FC6 24 1.200
91 FC6 25 2.665
91 FC6 26 5.595
91 FC6 27 8.525
91 FC6 28 10.966
91 FC6 29 12.919
91 FC6 30 13.407
91 FC6 31 12.431
91 FC6 32 10.966
91 FC6 33 8.525
91 FC6 34 5.595
91 FC6 35 3.642
91 FC6 36 3.642
91 FC6 37 4.618
91 FC6 38 7.548
91 FC6 39 9.989
91 FC6 40 10.966
91 FC6 41 9.501
91 FC6 42 7.548
91 FC6 43 5.595
91 FC6 44 5.107
91 FC6 45 7.060
91 FC6 46 9.989
91 FC6 47 12.919
91 FC6 48 14.872
91 FC6 49 15.849
91 FC6 50 15.361
91 FC6 51 14.384
91 FC6 52 13.407
91 FC6 53 13.896
91 FC6 54 13.896
91 FC6 55 13.407
91 FC6 56 11.943
91 FC6 57 9.501
91 FC6 58 7.548
91 FC6 59 6.571
91 FC6 60 7.060
91 FC6 61 8.036
91 FC6 62 9.013
91 FC6 63 9.013
91 FC6 64 9.013
91 FC6 65 9.013
91 FC6 66 9.501
91 FC6 67 10.966
91 FC6 68 12.431
91 FC6 69 13.896
91 FC6 70 13.407
91 FC6 71 12.431
91 FC6 72 10.966
91 FC6 73 9.989
91 FC6 74 9.501
91 FC6 75 9.501
91 FC6 76 9.501
91 FC6 77 9.989
91 FC6 78 9.501
91 FC6 79 9.013
91 FC6 80 7.548
91 FC6 81 6.083
91 FC6 82 5.107
91 FC6 83 4.618
91 FC6 84 4.618
91 FC6 85 4.618
91 FC6 86 5.107
91 FC6 87 5.595
91 FC6 88 6.083
91 FC6 89 6.571
91 FC6 90 6.571
91 FC6 91 7.548
91 FC6 92 9.013
91 FC6 93 10.478
91 FC6 94 11.454
91 FC6 95 11.943
91 FC6 96 10.966
91 FC6 97 8.525
91 FC6 98 6.083
91 FC6 99 4.618
91 FC6 100 4.618
91 FC6 101 5.595
91 FC6 102 7.060
91 FC6 103 7.060
91 FC6 104 5.595
91 FC6 105 3.642
91 FC6 106 2.665
91 FC6 107 3.153
91 FC6 108 4.618
91 FC6 109 6.571
91 FC6 110 7.060
91 FC6 111 6.083
91 FC6 112 3.642
91 FC6 113 1.200
91 FC6 114 -0.264
91 FC6 115 0.224
91 FC6 116 1.200
91 FC6 117 2.177
91 FC6 118 2.665
91 FC6 119 2.665
91 FC6 120 2.665
91 FC6 121 3.153
91 FC6 122 4.130
91 FC6 123 4.618
91 FC6 124 4.618
91 FC6 125 3.153
91 FC6 126 1.689
91 FC6 127 -0.264
91 FC6 128 -0.753
91 FC6 129 -0.753
91 FC6 130 -0.264
91 FC6 131 -0.753
91 FC6 132 -2.218
91 FC6 133 -3.682
91 FC6 134 -4.659
91 FC6 135 -4.171
91 FC6 136 -3.194
91 FC6 137 -2.218
91 FC6 138 -2.218
91 FC6 139 -2.218
91 FC6 140 -3.194
91 FC6 141 -3.682
91 FC6 142 -3.682
91 FC6 143 -4.171
91 FC6 144 -4.659
91 FC6 145 -6.124
91 FC6 146 -6.612
91 FC6 147 -5.636
91 FC6 148 -3.682
91 FC6 149 -1.729
91 FC6 150 -1.729
91 FC6 151 -3.194
91 FC6 152 -5.636
91 FC6 153 -6.612
91 FC6 154 -5.636
91 FC6 155 -3.194
91 FC6 156 0.224
91 FC6 157 2.665
91 FC6 158 3.642
91 FC6 159 3.642
91 FC6 160 3.642
91 FC6 161 3.642
91 FC6 162 3.642
91 FC6 163 3.153
91 FC6 164 3.153
91 FC6 165 3.153
91 FC6 166 3.642
91 FC6 167 4.618
91 FC6 168 4.618
91 FC6 169 3.642
91 FC6 170 2.177
91 FC6 171 1.200
91 FC6 172 1.689
91 FC6 173 2.177
91 FC6 174 3.153
91 FC6 175 3.153
91 FC6 176 1.689
91 FC6 177 0.712
91 FC6 178 -0.264
91 FC6 179 -0.264
91 FC6 180 0.712
91 FC6 181 1.200
91 FC6 182 1.689
91 FC6 183 1.689
91 FC6 184 1.689
91 FC6 185 2.665
91 FC6 186 3.642
91 FC6 187 4.618
91 FC6 188 3.642
91 FC6 189 2.665
91 FC6 190 1.200
91 FC6 191 0.712
91 FC6 192 1.200
91 FC6 193 2.665
91 FC6 194 3.153
91 FC6 195 2.665
91 FC6 196 1.689
91 FC6 197 0.712
91 FC6 198 -0.264
91 FC6 199 0.224
91 FC6 200 1.200
91 FC6 201 2.177
91 FC6 202 2.665
91 FC6 203 2.665
91 FC6 204 2.665
91 FC6 205 3.642
91 FC6 206 5.107
91 FC6 207 7.060
91 FC6 208 7.548
91 FC6 209 6.083
91 FC6 210 2.665
91 FC6 211 0.224
91 FC6 212 -1.241
91 FC6 213 0.224
91 FC6 214 2.665
91 FC6 215 4.618
91 FC6 216 5.107
91 FC6 217 3.153
91 FC6 218 1.689
91 FC6 219 1.200
91 FC6 220 2.177
91 FC6 221 3.642
91 FC6 222 4.618
91 FC6 223 5.107
91 FC6 224 5.595
91 FC6 225 6.571
91 FC6 226 8.036
91 FC6 227 9.501
91 FC6 228 9.501
91 FC6 229 8.525
91 FC6 230 7.548
91 FC6 231 7.060
91 FC6 232 7.548
91 FC6 233 9.013
91 FC6 234 9.501
91 FC6 235 9.501
91 FC6 236 9.013
91 FC6 237 8.525
91 FC6 238 8.525
91 FC6 239 8.036
91 FC6 240 7.548
91 FC6 241 7.060
91 FC6 242 6.083
91 FC6 243 5.595
91 FC6 244 5.595
91 FC6 245 5.595
91 FC6 246 5.595
91 FC6 247 5.107
91 FC6 248 4.618
91 FC6 249 5.107
91 FC6 250 5.595
91 FC6 251 6.083
91 FC6 252 6.083
91 FC6 253 5.107
91 FC6 254 4.618
91 FC6 255 4.130
# FC5 chan 10
91 FC5 0 -0.773
91 FC5 1 -0.285
91 FC5 2 -0.773
91 FC5 3 -1.750
91 FC5 4 -2.238
91 FC5 5 -1.750
91 FC5 6 0.203
91 FC5 7 3.133
91 FC5 8 5.086
91 FC5 9 6.551
91 FC5 10 6.551
91 FC5 11 5.575
91 FC5 12 3.621
91 FC5 13 1.668
91 FC5 14 -0.285
91 FC5 15 -1.261
91 FC5 16 -2.726
91 FC5 17 -3.703
91 FC5 18 -4.191
91 FC5 19 -4.679
91 FC5 20 -4.191
91 FC5 21 -2.726
91 FC5 22 -0.773
91 FC5 23 2.157
91 FC5 24 5.086
91 FC5 25 8.016
91 FC5 26 9.969
91 FC5 27 10.946
91 FC5 28 11.922
91 FC5 29 12.899
91 FC5 30 13.875
91 FC5 31 14.364
91 FC5 32 14.364
91 FC5 33 13.387
91 FC5 34 11.922
91 FC5 35 10.457
91 FC5 36 8.993
91 FC5 37 7.528
91 FC5 38 5.575
91 FC5 39 3.133
91 FC5 40 0.692
91 FC5 41 -1.261
91 FC5 42 -2.238
91 FC5 43 -2.726
91 FC5 44 -3.215
91 FC5 45 -2.726
91 FC5 46 -1.750
91 FC5 47 -1.261
91 FC5 48 -0.285
91 FC5 49 0.203
91 FC5 50 0.203
91 FC5 51 0.692
91 FC5 52 1.180
91 FC5 53 2.645
91 FC5 54 4.110
91 FC5 55 5.086
91 FC5 56 5.575
91 FC5 57 6.063
91 FC5 58 6.063
91 FC5 59 6.063
91 FC5 60 5.086
91 FC5 61 4.110
91 FC5 62 2.645
91 FC5 63 2.157
91 FC5 64 2.645
91 FC5 65 4.110
91 FC5 66 6.551
91 FC5 67 8.016
91 FC5 68 8.504
91 FC5 69 8.016
91 FC5 70 8.016
91 FC5 71 7.528
91 FC5 72 6.063
91 FC5 73 4.598
91 FC5 74 2.645
91 FC5 75 1.668
91 FC5 76 1.180
91 FC5 77 1.180
91 FC5 78 2.157
91 FC5 79 2.157
91 FC5 80 2.645
91 FC5 81 2.157
91 FC5 82 1.668
91 FC5 83 1.180
91 FC5 84 0.692
91 FC5 85 0.692
91 FC5 86 0.203
91 FC5 87 1.180
91 FC5 88 2.157
91 FC5 89 3.133
91 FC5 90 3.621
91 FC5 91 2.157
91 FC5 92 0.692
91 FC5 93 -1.261
91 FC5 94 -2.238
91 FC5 95 -2.726
91 FC5 96 -1.750
91 FC5 97 -1.261
91 FC5 98 -0.773
91 FC5 99 -1.261
91 FC5 100 -1.261
91 FC5 101 -0.773
91 FC5 102 -0.285
91 FC5 103 1.668
91 FC5 104 3.133
91 FC5 105 4.598
91 FC5 106 5.086
91 FC5 107 4.598
91 FC5 108 3.133
91 FC5 109 0.692
91 FC5 110 -1.261
91 FC5 111 -3.215
91 FC5 112 -3.215
91 FC5 113 -2.238
91 FC5 114 0.203
91 FC5 115 2.645
91 FC5 116 3.621
91 FC5 117 3.621
91 FC5 118 2.645
91 FC5 119 1.668
91 FC5 120 1.668
91 FC5 121 1.668
91 FC5 122 1.668
91 FC5 123 1.668
91 FC5 124 1.668
91 FC5 125 2.157
91 FC5 126 4.110
91 FC5 127 6.063
91 FC5 128 7.039
91 FC5 129 6.063
91 FC5 130 3.621
91 FC5 131 1.180
91 FC5 132 0.203
91 FC5 133 0.692
91 FC5 134 2.157
91 FC5 135 3.621
91 FC5 136 3.621
91 FC5 137 2.157
91 FC5 138 0.692
91 FC5 139 -1.261
91 FC5 140 -2.238
91 FC5 141 -3.215
91 FC5 142 -4.191
91 FC5 143 -4.679
91 FC5 144 -5.168
91 FC5 145 -4.191
91 FC5 146 -2.726
91 FC5 147 -1.261
91 FC5 148 -0.773
91 FC5 149 -1.261
91 FC5 150 -2.238
91 FC5 151 -2.726
91 FC5 152 -3.215
91 FC5 153 -3.215
91 FC5 154 -3.215
91 FC5 155 -2.238
91 FC5 156 -1.750
91 FC5 157 -1.261
91 FC5 158 -1.261
91 FC5 159 -2.238
91 FC5 160 -3.703
91 FC5 161 -5.168
91 FC5 162 -6.632
91 FC5 163 -7.121
91 FC5 164 -7.121
91 FC5 165 -6.144
91 FC5 166 -4.679
91 FC5 167 -3.703
91 FC5 168 -2.726
91 FC5 169 -2.238
91 FC5 170 -2.238
91 FC5 171 -1.750
91 FC5 172 -0.285
91 FC5 173 0.692
91 FC5 174 1.668
91 FC5 175 1.668
91 FC5 176 1.180
91 FC5 177 0.203
91 FC5 178 -0.285
91 FC5 179 0.203
91 FC5 180 1.180
91 FC5 181 1.668
91 FC5 182 0.692
91 FC5 183 -1.750
91 FC5 184 -5.168
91 FC5 185 -7.121
91 FC5 186 -8.097
91 FC5 187 -7.121
91 FC5 188 -5.656
91 FC5 189 -4.679
91 FC5 190 -4.191
91 FC5 191 -4.191
91 FC5 192 -3.215
91 FC5 193 -2.726
91 FC5 194 -2.238
91 FC5 195 -2.726
91 FC5 196 -3.703
91 FC5 197 -3.703
91 FC5 198 -2.726
91 FC5 199 -0.285
91 FC5 200 0.692
91 FC5 201 0.203
91 FC5 202 -2.238
91 FC5 203 -4.679
91 FC5 204 -6.632
91 FC5 205 -7.121
91 FC5 206 -7.121
91 FC5 207 -7.121
91 FC5 208 -8.097
91 FC5 209 -9.074
91 FC5 210 -9.562
91 FC5 211 -9.562
91 FC5 212 -9.074
91 FC5 213 -8.097
91 FC5 214 -7.121
91 FC5 215 -5.656
91 FC5 216 -2.726
91 FC5 217 -0.285
91 FC5 218 1.668
91 FC5 219 3.133
91 FC5 220 3.133
91 FC5 221 1.668
91 FC5 222 0.203
91 FC5 223 -1.261
91 FC5 224 -2.238
91 FC5 225 -2.726
91 FC5 226 -2.726
91 FC5 227 -1.750
91 FC5 228 -1.261
91 FC5 229 -0.773
91 FC5 230 -0.773
91 FC5 231 -0.773
91 FC5 232 -0.773
91 FC5 233 -1.261
91 FC5 234 -1.261
91 FC5 235 -1.261
91 FC5 236 -0.773
91 FC5 237 0.692
91 FC5 238 1.668
91 FC5 239 2.157
91 FC5 240 1.668
91 FC5 241 1.668
91 FC5 242 3.133
91 FC5 243 5.575
91 FC5 244 8.016
91 FC5 245 9.481
91 FC5 246 8.504
91 FC5 247 5.575
91 FC5 248 2.157
91 FC5 249 0.692
91 FC5 250 0.692
91 FC5 251 2.157
91 FC5 252 3.133
91 FC5 253 3.621
91 FC5 254 4.110
91 FC5 255 4.110
# FC2 chan 11
91 FC2 0 1.017
91 FC2 1 1.017
91 FC2 2 0.529
91 FC2 3 0.041
91 FC2 4 -0.448
91 FC2 5 0.529
91 FC2 6 1.994
91 FC2 7 3.459
91 FC2 8 4.435
91 FC2 9 4.435
91 FC2 10 3.459
91 FC2 11 1.994
91 FC2 12 1.017
91 FC2 13 -0.448
91 FC2 14 -1.424
91 FC2 15 -1.912
91 FC2 16 -2.401
91 FC2 17 -2.401
91 FC2 18 -2.401
91 FC2 19 -1.912
91 FC2 20 -1.912
91 FC2 21 -1.912
91 FC2 22 -1.424
91 FC2 23 -0.448
91 FC2 24 1.017
91 FC2 25 2.482
91 FC2 26 3.459
91 FC2 27 3.947
91 FC2 28 4.435
91 FC2 29 4.924
91 FC2 30 5.412
91 FC2 31 5.900
91 FC2 32 5.412
91 FC2 33 3.947
91 FC2 34 1.994
91 FC2 35 0.041
91 FC2 36 -0.448
91 FC2 37 0.529
91 FC2 38 1.994
91 FC2 39 3.459
91 FC2 40 3.947
91 FC2 41 2.970
91 FC2 42 1.017
91 FC2 43 -0.936
91 FC2 44 -1.912
91 FC2 45 -1.424
91 FC2 46 -0.448
91 FC2 47 1.017
91 FC2 48 2.482
91 FC2 49 2.970
91 FC2 50 2.970
91 FC2 51 2.482
91 FC2 52 2.482
91 FC2 53 2.970
91 FC2 54 2.970
91 FC2 55 1.994
91 FC2 56 0.041
91 FC2 57 -2.401
91 FC2 58 -3.866
91 FC2 59 -3.377
91 FC2 60 -2.401
91 FC2 61 -0.448
91 FC2 62 0.529
91 FC2 63 0.529
91 FC2 64 0.041
91 FC2 65 0.041
91 FC2 66 1.017
91 FC2 67 1.994
91 FC2 68 2.970
91 FC2 69 2.970
91 FC2 70 2.482
91 FC2 71 1.506
91 FC2 72 0.529
91 FC2 73 0.041
91 FC2 74 -0.936
91 FC2 75 -1.912
91 FC2 76 -2.401
91 FC2 77 -2.401
91 FC2 78 -1.912
91 FC2 79 -1.424
91 FC2 80 -1.912
91 FC2 81 -2.401
91 FC2 82 -3.866
91 FC2 83 -4.842
91 FC2 84 -4.354
91 FC2 85 -4.354
91 FC2 86 -3.377
91 FC2 87 -3.377
91 FC2 88 -2.889
91 FC2 89 -2.889
91 FC2 90 -2.401
91 FC2 91 -1.424
91 FC2 92 -1.424
91 FC2 93 -1.424
91 FC2 94 -1.424
91 FC2 95 -1.424
91 FC2 96 -1.424
91 FC2 97 -2.401
91 FC2 98 -3.377
91 FC2 99 -4.354
91 FC2 100 -4.842
91 FC2 101 -3.866
91 FC2 102 -1.912
91 FC2 103 0.529
91 FC2 104 1.017
91 FC2 105 0.041
91 FC2 106 -2.401
91 FC2 107 -4.354
91 FC2 108 -4.354
91 FC2 109 -4.354
91 FC2 110 -3.377
91 FC2 111 -3.866
91 FC2 112 -4.354
91 FC2 113 -4.842
91 FC2 114 -4.842
91 FC2 115 -3.377
91 FC2 116 -1.912
91 FC2 117 -0.936
91 FC2 118 -0.448
91 FC2 119 -0.448
91 FC2 120 -1.424
91 FC2 121 -1.424
91 FC2 122 -1.912
91 FC2 123 -2.401
91 FC2 124 -3.377
91 FC2 125 -4.354
91 FC2 126 -4.842
91 FC2 127 -5.330
91 FC2 128 -4.842
91 FC2 129 -4.354
91 FC2 130 -4.354
91 FC2 131 -4.842
91 FC2 132 -5.330
91 FC2 133 -5.819
91 FC2 134 -5.819
91 FC2 135 -5.330
91 FC2 136 -4.842
91 FC2 137 -4.842
91 FC2 138 -5.330
91 FC2 139 -5.819
91 FC2 140 -5.819
91 FC2 141 -5.330
91 FC2 142 -5.330
91 FC2 143 -5.819
91 FC2 144 -5.819
91 FC2 145 -6.307
91 FC2 146 -6.307
91 FC2 147 -5.819
91 FC2 148 -5.330
91 FC2 149 -4.842
91 FC2 150 -4.842
91 FC2 151 -5.330
91 FC2 152 -5.819
91 FC2 153 -6.307
91 FC2 154 -6.307
91 FC2 155 -6.307
91 FC2 156 -5.819
91 FC2 157 -5.819
91 FC2 158 -4.842
91 FC2 159 -4.842
91 FC2 160 -4.842
91 FC2 161 -5.330
91 FC2 162 -5.819
91 FC2 163 -6.307
91 FC2 164 -5.819
91 FC2 165 -4.842
91 FC2 166 -4.354
91 FC2 167 -4.842
91 FC2 168 -5.330
91 FC2 169 -6.307
91 FC2 170 -7.284
91 FC2 171 -7.284
91 FC2 172 -5.819
91 FC2 173 -4.842
91 FC2 174 -4.354
91 FC2 175 -4.354
91 FC2 176 -5.330
91 FC2 177 -5.819
91 FC2 178 -5.819
91 FC2 179 -4.842
91 FC2 180 -3.866
91 FC2 181 -2.889
91 FC2 182 -2.401
91 FC2 183 -2.889
91 FC2 184 -3.377
91 FC2 185 -4.354
91 FC2 186 -4.842
91 FC2 187 -4.842
91 FC2 188 -4.842
91 FC2 189 -5.330
91 FC2 190 -4.842
91 FC2 191 -5.330
91 FC2 192 -5.819
91 FC2 193 -5.819
91 FC2 194 -5.330
91 FC2 195 -4.842
91 FC2 196 -5.330
91 FC2 197 -5.330
91 FC2 198 -6.307
91 FC2 199 -6.795
91 FC2 200 -6.307
91 FC2 201 -5.330
91 FC2 202 -4.354
91 FC2 203 -3.866
91 FC2 204 -3.866
91 FC2 205 -4.354
91 FC2 206 -4.842
91 FC2 207 -4.842
91 FC2 208 -5.330
91 FC2 209 -5.819
91 FC2 210 -6.307
91 FC2 211 -6.795
91 FC2 212 -6.795
91 FC2 213 -5.330
91 FC2 214 -4.354
91 FC2 215 -3.866
91 FC2 216 -3.866
91 FC2 217 -5.330
91 FC2 218 -6.307
91 FC2 219 -6.795
91 FC2 220 -5.330
91 FC2 221 -3.377
91 FC2 222 -1.912
91 FC2 223 -1.424
91 FC2 224 -0.936
91 FC2 225 -1.424
91 FC2 226 -0.936
91 FC2 227 -0.448
91 FC2 228 -0.448
91 FC2 229 -1.424
91 FC2 230 -2.401
91 FC2 231 -3.377
91 FC2 232 -3.377
91 FC2 233 -2.889
91 FC2 234 -1.424
91 FC2 235 -0.936
91 FC2 236 -0.448
91 FC2 237 0.041
91 FC2 238 -0.448
91 FC2 239 0.041
91 FC2 240 -0.448
91 FC2 241 -1.424
91 FC2 242 -1.912
91 FC2 243 -3.377
91 FC2 244 -3.866
91 FC2 245 -3.866
91 FC2 246 -3.866
91 FC2 247 -3.377
91 FC2 248 -3.377
91 FC2 249 -2.889
91 FC2 250 -2.889
91 FC2 251 -2.401
91 FC2 252 -2.401
91 FC2 253 -2.401
91 FC2 254 -2.401
91 FC2 255 -2.401
# FC1 chan 12
91 FC1 0 1.444
91 FC1 1 1.444
91 FC1 2 0.956
91 FC1 3 -0.020
91 FC1 4 -1.485
91 FC1 5 -1.973
91 FC1 6 -1.485
91 FC1 7 -0.020
91 FC1 8 2.421
91 FC1 9 4.374
91 FC1 10 5.351
91 FC1 11 5.351
91 FC1 12 3.886
91 FC1 13 1.933
91 FC1 14 -0.020
91 FC1 15 -1.485
91 FC1 16 -2.462
91 FC1 17 -2.950
91 FC1 18 -2.950
91 FC1 19 -2.950
91 FC1 20 -2.462
91 FC1 21 -1.485
91 FC1 22 -0.509
91 FC1 23 0.468
91 FC1 24 1.933
91 FC1 25 2.909
91 FC1 26 3.886
91 FC1 27 4.374
91 FC1 28 5.351
91 FC1 29 6.327
91 FC1 30 7.304
91 FC1 31 8.769
91 FC1 32 9.257
91 FC1 33 8.769
91 FC1 34 7.304
91 FC1 35 5.839
91 FC1 36 3.886
91 FC1 37 2.421
91 FC1 38 2.421
91 FC1 39 2.421
91 FC1 40 2.909
91 FC1 41 1.933
91 FC1 42 0.468
91 FC1 43 -1.485
91 FC1 44 -2.462
91 FC1 45 -2.950
91 FC1 46 -2.462
91 FC1 47 -1.485
91 FC1 48 -0.997
91 FC1 49 -0.509
91 FC1 50 -0.509
91 FC1 51 0.468
91 FC1 52 1.444
91 FC1 53 2.909
91 FC1 54 3.398
91 FC1 55 3.398
91 FC1 56 2.421
91 FC1 57 1.444
91 FC1 58 0.468
91 FC1 59 0.468
91 FC1 60 0.468
91 FC1 61 0.956
91 FC1 62 0.956
91 FC1 63 1.444
91 FC1 64 1.933
91 FC1 65 2.909
91 FC1 66 4.374
91 FC1 67 5.351
91 FC1 68 5.839
91 FC1 69 6.327
91 FC1 70 6.327
91 FC1 71 5.839
91 FC1 72 4.374
91 FC1 73 2.909
91 FC1 74 1.444
91 FC1 75 0.956
91 FC1 76 0.468
91 FC1 77 1.444
91 FC1 78 1.933
91 FC1 79 2.421
91 FC1 80 2.421
91 FC1 81 2.421
91 FC1 82 1.933
91 FC1 83 1.444
91 FC1 84 0.956
91 FC1 85 0.468
91 FC1 86 0.468
91 FC1 87 1.444
91 FC1 88 1.933
91 FC1 89 2.421
91 FC1 90 3.398
91 FC1 91 3.398
91 FC1 92 2.909
91 FC1 93 2.421
91 FC1 94 1.933
91 FC1 95 1.444
91 FC1 96 0.956
91 FC1 97 0.956
91 FC1 98 0.468
91 FC1 99 -0.509
91 FC1 100 -0.509
91 FC1 101 0.468
91 FC1 102 1.444
91 FC1 103 2.909
91 FC1 104 3.886
91 FC1 105 4.374
91 FC1 106 3.886
91 FC1 107 2.909
91 FC1 108 1.444
91 FC1 109 -0.020
91 FC1 110 -0.997
91 FC1 111 -1.973
91 FC1 112 -2.462
91 FC1 113 -1.973
91 FC1 114 -0.020
91 FC1 115 1.933
91 FC1 116 3.398
91 FC1 117 4.374
91 FC1 118 3.886
91 FC1 119 3.398
91 FC1 120 2.421
91 FC1 121 1.933
91 FC1 122 0.956
91 FC1 123 0.468
91 FC1 124 -0.020
91 FC1 125 -0.020
91 FC1 126 0.956
91 FC1 127 1.444
91 FC1 128 1.933
91 FC1 129 0.956
91 FC1 130 -0.020
91 FC1 131 -0.997
91 FC1 132 -1.485
91 FC1 133 -0.997
91 FC1 134 0.468
91 FC1 135 1.444
91 FC1 136 1.933
91 FC1 137 1.444
91 FC1 138 -0.020
91 FC1 139 -1.485
91 FC1 140 -1.973
91 FC1 141 -2.462
91 FC1 142 -2.462
91 FC1 143 -2.462
91 FC1 144 -2.462
91 FC1 145 -2.462
91 FC1 146 -1.973
91 FC1 147 -0.997
91 FC1 148 -0.509
91 FC1 149 -0.509
91 FC1 150 -0.509
91 FC1 151 -1.485
91 FC1 152 -1.485
91 FC1 153 -2.462
91 FC1 154 -2.462
91 FC1 155 -1.973
91 FC1 156 -1.485
91 FC1 157 -1.485
91 FC1 158 -1.485
91 FC1 159 -1.485
91 FC1 160 -1.973
91 FC1 161 -2.950
91 FC1 162 -3.438
91 FC1 163 -3.927
91 FC1 164 -3.438
91 FC1 165 -3.438
91 FC1 166 -2.462
91 FC1 167 -1.485
91 FC1 168 -1.485
91 FC1 169 -1.485
91 FC1 170 -1.485
91 FC1 171 -1.485
91 FC1 172 -1.485
91 FC1 173 -0.997
91 FC1 174 -0.509
91 FC1 175 -0.509
91 FC1 176 -0.509
91 FC1 177 -1.485
91 FC1 178 -1.973
91 FC1 179 -1.973
91 FC1 180 -0.997
91 FC1 181 -0.020
91 FC1 182 0.468
91 FC1 183 -0.020
91 FC1 184 -1.485
91 FC1 185 -2.950
91 FC1 186 -3.927
91 FC1 187 -3.438
91 FC1 188 -2.462
91 FC1 189 -1.973
91 FC1 190 -1.485
91 FC1 191 -1.485
91 FC1 192 -1.973
91 FC1 193 -1.973
91 FC1 194 -1.973
91 FC1 195 -1.973
91 FC1 196 -2.462
91 FC1 197 -2.462
91 FC1 198 -2.950
91 FC1 199 -1.973
91 FC1 200 -1.485
91 FC1 201 -0.997
91 FC1 202 -1.485
91 FC1 203 -2.462
91 FC1 204 -2.950
91 FC1 205 -3.438
91 FC1 206 -3.438
91 FC1 207 -3.438
91 FC1 208 -3.438
91 FC1 209 -3.927
91 FC1 210 -4.903
91 FC1 211 -4.903
91 FC1 212 -4.903
91 FC1 213 -4.415
91 FC1 214 -3.438
91 FC1 215 -1.973
91 FC1 216 -0.509
91 FC1 217 0.468
91 FC1 218 0.956
91 FC1 219 0.956
91 FC1 220 1.444
91 FC1 221 0.956
91 FC1 222 0.956
91 FC1 223 0.956
91 FC1 224 0.468
91 FC1 225 -0.020
91 FC1 226 -0.020
91 FC1 227 -0.020
91 FC1 228 -0.020
91 FC1 229 0.468
91 FC1 230 0.468
91 FC1 231 -0.020
91 FC1 232 -0.509
91 FC1 233 -0.997
91 FC1 234 -0.509
91 FC1 235 0.468
91 FC1 236 1.444
91 FC1 237 2.421
91 FC1 238 2.421
91 FC1 239 2.421
91 FC1 240 2.421
91 FC1 241 2.421
91 FC1 242 3.398
91 FC1 243 4.374
91 FC1 244 4.862
91 FC1 245 4.862
91 FC1 246 4.374
91 FC1 247 2.909
91 FC1 248 2.421
91 FC1 249 1.933
91 FC1 250 1.933
91 FC1 251 2.421
91 FC1 252 2.909
91 FC1 253 3.398
91 FC1 254 3.398
91 FC1 255 3.886
# T8 chan 13
91 T8 0 0.214
91 T8 1 2.167
91 T8 2 4.120
91 T8 3 6.561
91 T8 4 8.026
91 T8 5 9.979
91 T8 6 11.444
91 T8 7 11.932
91 T8 8 11.932
91 T8 9 10.468
91 T8 10 6.561
91 T8 11 1.190
91 T8 12 -4.181
91 T8 13 -8.575
91 T8 14 -11.017
91 T8 15 -11.017
91 T8 16 -9.064
91 T8 17 -6.134
91 T8 18 -3.693
91 T8 19 -0.763
91 T8 20 1.678
91 T8 21 3.632
91 T8 22 5.096
91 T8 23 6.073
91 T8 24 7.538
91 T8 25 9.979
91 T8 26 13.885
91 T8 27 17.303
91 T8 28 20.233
91 T8 29 20.721
91 T8 30 19.257
91 T8 31 15.839
91 T8 32 10.956
91 T8 33 6.561
91 T8 34 2.167
91 T8 35 -0.275
91 T8 36 -0.763
91 T8 37 -0.275
91 T8 38 1.190
91 T8 39 2.167
91 T8 40 2.167
91 T8 41 1.190
91 T8 42 0.214
91 T8 43 0.214
91 T8 44 1.678
91 T8 45 5.096
91 T8 46 9.491
91 T8 47 14.374
91 T8 48 18.280
91 T8 49 20.233
91 T8 50 20.233
91 T8 51 17.792
91 T8 52 15.350
91 T8 53 12.909
91 T8 54 10.956
91 T8 55 9.491
91 T8 56 8.514
91 T8 57 6.561
91 T8 58 4.120
91 T8 59 2.655
91 T8 60 2.167
91 T8 61 2.655
91 T8 62 4.120
91 T8 63 5.096
91 T8 64 6.073
91 T8 65 6.561
91 T8 66 7.538
91 T8 67 8.026
91 T8 68 8.026
91 T8 69 7.538
91 T8 70 6.073
91 T8 71 5.585
91 T8 72 5.096
91 T8 73 5.585
91 T8 74 6.073
91 T8 75 6.561
91 T8 76 6.561
91 T8 77 6.073
91 T8 78 5.096
91 T8 79 3.632
91 T8 80 1.678
91 T8 81 0.214
91 T8 82 -1.740
91 T8 83 -3.204
91 T8 84 -3.204
91 T8 85 -2.228
91 T8 86 -0.763
91 T8 87 0.702
91 T8 88 1.190
91 T8 89 0.702
91 T8 90 -0.275
91 T8 91 -0.275
91 T8 92 1.190
91 T8 93 4.120
91 T8 94 7.050
91 T8 95 8.514
91 T8 96 8.514
91 T8 97 6.561
91 T8 98 4.120
91 T8 99 2.655
91 T8 100 3.143
91 T8 101 3.632
91 T8 102 3.632
91 T8 103 2.655
91 T8 104 -0.275
91 T8 105 -2.716
91 T8 106 -3.693
91 T8 107 -2.228
91 T8 108 0.214
91 T8 109 2.655
91 T8 110 4.120
91 T8 111 3.632
91 T8 112 2.167
91 T8 113 0.214
91 T8 114 -1.251
91 T8 115 -1.740
91 T8 116 -2.228
91 T8 117 -2.228
91 T8 118 -2.228
91 T8 119 -1.740
91 T8 120 -0.275
91 T8 121 1.190
91 T8 122 3.143
91 T8 123 4.120
91 T8 124 3.632
91 T8 125 1.678
91 T8 126 -1.251
91 T8 127 -3.204
91 T8 128 -3.693
91 T8 129 -2.228
91 T8 130 -0.763
91 T8 131 0.214
91 T8 132 -0.763
91 T8 133 -2.716
91 T8 134 -4.181
91 T8 135 -4.669
91 T8 136 -4.181
91 T8 137 -3.204
91 T8 138 -2.228
91 T8 139 -1.740
91 T8 140 -1.740
91 T8 141 -0.763
91 T8 142 -0.275
91 T8 143 -0.275
91 T8 144 -2.228
91 T8 145 -4.669
91 T8 146 -7.111
91 T8 147 -8.087
91 T8 148 -6.622
91 T8 149 -4.669
91 T8 150 -3.693
91 T8 151 -4.181
91 T8 152 -6.134
91 T8 153 -7.599
91 T8 154 -7.111
91 T8 155 -4.669
91 T8 156 -1.251
91 T8 157 1.190
91 T8 158 2.655
91 T8 159 3.632
91 T8 160 3.632
91 T8 161 4.608
91 T8 162 4.608
91 T8 163 3.632
91 T8 164 2.167
91 T8 165 0.214
91 T8 166 -0.763
91 T8 167 -0.763
91 T8 168 -0.275
91 T8 169 -0.275
91 T8 170 -0.275
91 T8 171 -0.275
91 T8 172 0.702
91 T8 173 1.678
91 T8 174 2.655
91 T8 175 2.655
91 T8 176 1.678
91 T8 177 -0.275
91 T8 178 -0.763
91 T8 179 -0.275
91 T8 180 1.190
91 T8 181 3.143
91 T8 182 3.632
91 T8 183 3.632
91 T8 184 3.632
91 T8 185 3.632
91 T8 186 3.143
91 T8 187 2.655
91 T8 188 1.190
91 T8 189 -0.275
91 T8 190 -0.763
91 T8 191 0.214
91 T8 192 2.167
91 T8 193 3.632
91 T8 194 4.120
91 T8 195 3.143
91 T8 196 2.167
91 T8 197 1.678
91 T8 198 2.167
91 T8 199 3.632
91 T8 200 4.608
91 T8 201 4.608
91 T8 202 4.120
91 T8 203 3.143
91 T8 204 3.143
91 T8 205 4.120
91 T8 206 6.073
91 T8 207 7.538
91 T8 208 7.538
91 T8 209 6.073
91 T8 210 3.632
91 T8 211 0.702
91 T8 212 -0.763
91 T8 213 -0.275
91 T8 214 1.678
91 T8 215 3.632
91 T8 216 4.608
91 T8 217 3.632
91 T8 218 1.190
91 T8 219 -1.251
91 T8 220 -2.228
91 T8 221 -2.228
91 T8 222 -0.763
91 T8 223 -0.275
91 T8 224 -0.275
91 T8 225 -1.251
91 T8 226 -1.740
91 T8 227 -0.763
91 T8 228 0.214
91 T8 229 1.678
91 T8 230 2.655
91 T8 231 3.143
91 T8 232 3.632
91 T8 233 3.632
91 T8 234 3.632
91 T8 235 3.143
91 T8 236 3.632
91 T8 237 3.632
91 T8 238 4.120
91 T8 239 4.608
91 T8 240 4.608
91 T8 241 4.120
91 T8 242 3.143
91 T8 243 2.167
91 T8 244 1.190
91 T8 245 0.214
91 T8 246 -0.763
91 T8 247 -1.251
91 T8 248 -1.251
91 T8 249 -0.763
91 T8 250 -0.275
91 T8 251 -0.275
91 T8 252 -0.763
91 T8 253 -1.251
91 T8 254 -1.251
91 T8 255 -0.763
# T7 chan 14
91 T7 0 -5.056
91 T7 1 -4.567
91 T7 2 -3.591
91 T7 3 -3.103
91 T7 4 -1.638
91 T7 5 0.315
91 T7 6 2.757
91 T7 7 5.198
91 T7 8 6.175
91 T7 9 5.686
91 T7 10 3.733
91 T7 11 1.780
91 T7 12 0.315
91 T7 13 -0.661
91 T7 14 -0.661
91 T7 15 -1.149
91 T7 16 -2.126
91 T7 17 -3.591
91 T7 18 -4.567
91 T7 19 -4.567
91 T7 20 -4.079
91 T7 21 -1.638
91 T7 22 0.804
91 T7 23 4.222
91 T7 24 6.663
91 T7 25 10.081
91 T7 26 12.522
91 T7 27 14.476
91 T7 28 15.452
91 T7 29 15.452
91 T7 30 14.476
91 T7 31 12.522
91 T7 32 10.569
91 T7 33 10.081
91 T7 34 11.058
91 T7 35 13.011
91 T7 36 13.499
91 T7 37 11.546
91 T7 38 6.663
91 T7 39 0.804
91 T7 40 -4.567
91 T7 41 -7.009
91 T7 42 -6.521
91 T7 43 -5.056
91 T7 44 -3.591
91 T7 45 -2.614
91 T7 46 -2.126
91 T7 47 -1.149
91 T7 48 0.804
91 T7 49 2.268
91 T7 50 2.268
91 T7 51 1.780
91 T7 52 0.315
91 T7 53 -0.661
91 T7 54 0.315
91 T7 55 2.757
91 T7 56 5.686
91 T7 57 9.104
91 T7 58 11.058
91 T7 59 12.034
91 T7 60 10.569
91 T7 61 8.616
91 T7 62 6.663
91 T7 63 5.198
91 T7 64 5.686
91 T7 65 6.663
91 T7 66 7.640
91 T7 67 7.640
91 T7 68 6.663
91 T7 69 6.175
91 T7 70 5.198
91 T7 71 5.686
91 T7 72 6.175
91 T7 73 6.175
91 T7 74 5.686
91 T7 75 4.222
91 T7 76 2.757
91 T7 77 0.804
91 T7 78 -0.661
91 T7 79 -2.126
91 T7 80 -3.103
91 T7 81 -2.614
91 T7 82 -1.149
91 T7 83 0.315
91 T7 84 0.804
91 T7 85 1.292
91 T7 86 0.315
91 T7 87 -0.173
91 T7 88 -0.661
91 T7 89 -0.173
91 T7 90 0.315
91 T7 91 -0.173
91 T7 92 -1.638
91 T7 93 -3.591
91 T7 94 -5.056
91 T7 95 -5.544
91 T7 96 -5.056
91 T7 97 -4.079
91 T7 98 -2.614
91 T7 99 -2.126
91 T7 100 -2.126
91 T7 101 -2.614
91 T7 102 -2.614
91 T7 103 -1.638
91 T7 104 1.292
91 T7 105 4.222
91 T7 106 6.175
91 T7 107 6.175
91 T7 108 4.222
91 T7 109 1.780
91 T7 110 -0.661
91 T7 111 -1.638
91 T7 112 -1.149
91 T7 113 -0.661
91 T7 114 0.315
91 T7 115 0.804
91 T7 116 0.315
91 T7 117 -0.173
91 T7 118 -0.661
91 T7 119 -0.661
91 T7 120 -0.661
91 T7 121 -0.661
91 T7 122 -0.661
91 T7 123 -0.173
91 T7 124 0.804
91 T7 125 2.268
91 T7 126 5.198
91 T7 127 8.128
91 T7 128 10.081
91 T7 129 10.569
91 T7 130 9.593
91 T7 131 6.663
91 T7 132 3.733
91 T7 133 2.757
91 T7 134 2.757
91 T7 135 4.222
91 T7 136 4.710
91 T7 137 3.245
91 T7 138 1.292
91 T7 139 -2.126
91 T7 140 -4.567
91 T7 141 -6.032
91 T7 142 -6.521
91 T7 143 -6.032
91 T7 144 -5.544
91 T7 145 -4.567
91 T7 146 -3.103
91 T7 147 -1.638
91 T7 148 -1.149
91 T7 149 -0.661
91 T7 150 -0.661
91 T7 151 -0.661
91 T7 152 -0.173
91 T7 153 0.315
91 T7 154 0.315
91 T7 155 -0.173
91 T7 156 -0.661
91 T7 157 -1.149
91 T7 158 -2.126
91 T7 159 -3.103
91 T7 160 -4.567
91 T7 161 -5.544
91 T7 162 -7.009
91 T7 163 -7.497
91 T7 164 -7.985
91 T7 165 -7.985
91 T7 166 -8.474
91 T7 167 -7.985
91 T7 168 -7.009
91 T7 169 -5.056
91 T7 170 -2.614
91 T7 171 0.804
91 T7 172 3.733
91 T7 173 5.686
91 T7 174 6.663
91 T7 175 5.686
91 T7 176 4.710
91 T7 177 3.733
91 T7 178 3.733
91 T7 179 4.222
91 T7 180 4.710
91 T7 181 4.710
91 T7 182 3.733
91 T7 183 1.292
91 T7 184 -1.149
91 T7 185 -4.079
91 T7 186 -6.521
91 T7 187 -8.474
91 T7 188 -8.962
91 T7 189 -8.474
91 T7 190 -6.521
91 T7 191 -3.591
91 T7 192 -0.661
91 T7 193 0.315
91 T7 194 -0.173
91 T7 195 -1.638
91 T7 196 -1.638
91 T7 197 0.315
91 T7 198 3.733
91 T7 199 7.151
91 T7 200 7.640
91 T7 201 5.198
91 T7 202 0.804
91 T7 203 -4.079
91 T7 204 -7.497
91 T7 205 -9.450
91 T7 206 -9.939
91 T7 207 -10.427
91 T7 208 -10.915
91 T7 209 -10.915
91 T7 210 -11.403
91 T7 211 -11.403
91 T7 212 -11.403
91 T7 213 -10.915
91 T7 214 -10.427
91 T7 215 -8.474
91 T7 216 -6.032
91 T7 217 -2.614
91 T7 218 0.804
91 T7 219 2.757
91 T7 220 3.245
91 T7 221 1.292
91 T7 222 -1.638
91 T7 223 -5.056
91 T7 224 -7.009
91 T7 225 -7.009
91 T7 226 -5.056
91 T7 227 -3.103
91 T7 228 -1.638
91 T7 229 -2.126
91 T7 230 -3.591
91 T7 231 -4.567
91 T7 232 -6.032
91 T7 233 -6.521
91 T7 234 -7.497
91 T7 235 -7.985
91 T7 236 -8.474
91 T7 237 -7.497
91 T7 238 -6.032
91 T7 239 -4.079
91 T7 240 -2.126
91 T7 241 0.315
91 T7 242 2.757
91 T7 243 5.198
91 T7 244 6.175
91 T7 245 5.198
91 T7 246 2.757
91 T7 247 -0.661
91 T7 248 -2.126
91 T7 249 -1.638
91 T7 250 0.315
91 T7 251 1.780
91 T7 252 1.780
91 T7 253 0.315
91 T7 254 -0.661
91 T7 255 -1.149
# CZ chan 15
91 CZ 0 0.926
91 CZ 1 0.437
91 CZ 2 0.437
91 CZ 3 2.391
91 CZ 4 6.785
91 CZ 5 12.644
91 CZ 6 18.504
91 CZ 7 21.922
91 CZ 8 21.434
91 CZ 9 17.039
91 CZ 10 10.203
91 CZ 11 2.391
91 CZ 12 -2.981
91 CZ 13 -6.887
91 CZ 14 -7.863
91 CZ 15 -7.863
91 CZ 16 -7.375
91 CZ 17 -7.863
91 CZ 18 -8.840
91 CZ 19 -9.816
91 CZ 20 -9.816
91 CZ 21 -7.375
91 CZ 22 -2.981
91 CZ 23 3.367
91 CZ 24 10.203
91 CZ 25 16.551
91 CZ 26 21.434
91 CZ 27 24.851
91 CZ 28 26.805
91 CZ 29 27.293
91 CZ 30 25.828
91 CZ 31 23.387
91 CZ 32 19.969
91 CZ 33 16.062
91 CZ 34 13.621
91 CZ 35 12.644
91 CZ 36 13.621
91 CZ 37 14.109
91 CZ 38 13.133
91 CZ 39 9.715
91 CZ 40 4.832
91 CZ 41 -0.051
91 CZ 42 -3.957
91 CZ 43 -4.934
91 CZ 44 -4.934
91 CZ 45 -2.492
91 CZ 46 0.926
91 CZ 47 5.809
91 CZ 48 11.668
91 CZ 49 18.016
91 CZ 50 21.922
91 CZ 51 23.875
91 CZ 52 22.898
91 CZ 53 20.457
91 CZ 54 17.527
91 CZ 55 14.109
91 CZ 56 11.180
91 CZ 57 8.250
91 CZ 58 6.785
91 CZ 59 7.273
91 CZ 60 9.226
91 CZ 61 12.156
91 CZ 62 14.598
91 CZ 63 16.551
91 CZ 64 18.016
91 CZ 65 18.504
91 CZ 66 19.480
91 CZ 67 19.969
91 CZ 68 19.480
91 CZ 69 18.504
91 CZ 70 17.527
91 CZ 71 17.039
91 CZ 72 17.527
91 CZ 73 18.504
91 CZ 74 18.504
91 CZ 75 17.039
91 CZ 76 13.621
91 CZ 77 9.715
91 CZ 78 6.785
91 CZ 79 5.320
91 CZ 80 4.832
91 CZ 81 2.879
91 CZ 82 0.437
91 CZ 83 -2.004
91 CZ 84 -3.469
91 CZ 85 -1.516
91 CZ 86 2.879
91 CZ 87 7.762
91 CZ 88 11.180
91 CZ 89 12.644
91 CZ 90 12.644
91 CZ 91 12.156
91 CZ 92 12.644
91 CZ 93 13.133
91 CZ 94 13.621
91 CZ 95 12.644
91 CZ 96 10.203
91 CZ 97 6.785
91 CZ 98 4.344
91 CZ 99 2.879
91 CZ 100 2.879
91 CZ 101 4.344
91 CZ 102 5.809
91 CZ 103 6.785
91 CZ 104 6.297
91 CZ 105 5.320
91 CZ 106 4.832
91 CZ 107 4.832
91 CZ 108 6.297
91 CZ 109 7.273
91 CZ 110 6.785
91 CZ 111 4.344
91 CZ 112 1.414
91 CZ 113 -1.516
91 CZ 114 -3.469
91 CZ 115 -4.445
91 CZ 116 -5.422
91 CZ 117 -6.399
91 CZ 118 -7.863
91 CZ 119 -7.863
91 CZ 120 -6.887
91 CZ 121 -4.934
91 CZ 122 -2.981
91 CZ 123 -1.516
91 CZ 124 -1.027
91 CZ 125 -1.516
91 CZ 126 -1.027
91 CZ 127 -0.539
91 CZ 128 0.926
91 CZ 129 1.902
91 CZ 130 1.902
91 CZ 131 1.414
91 CZ 132 0.437
91 CZ 133 0.437
91 CZ 134 0.926
91 CZ 135 0.926
91 CZ 136 -1.027
91 CZ 137 -3.957
91 CZ 138 -7.375
91 CZ 139 -8.840
91 CZ 140 -8.352
91 CZ 141 -5.910
91 CZ 142 -4.445
91 CZ 143 -5.910
91 CZ 144 -9.328
91 CZ 145 -12.746
91 CZ 146 -14.699
91 CZ 147 -13.723
91 CZ 148 -11.281
91 CZ 149 -9.816
91 CZ 150 -9.328
91 CZ 151 -9.816
91 CZ 152 -9.816
91 CZ 153 -8.840
91 CZ 154 -7.375
91 CZ 155 -6.399
91 CZ 156 -5.910
91 CZ 157 -6.887
91 CZ 158 -6.887
91 CZ 159 -5.910
91 CZ 160 -3.957
91 CZ 161 -2.004
91 CZ 162 -2.004
91 CZ 163 -4.445
91 CZ 164 -7.375
91 CZ 165 -10.793
91 CZ 166 -12.746
91 CZ 167 -13.234
91 CZ 168 -11.281
91 CZ 169 -8.352
91 CZ 170 -4.934
91 CZ 171 -0.539
91 CZ 172 2.391
91 CZ 173 4.344
91 CZ 174 4.344
91 CZ 175 1.414
91 CZ 176 -2.492
91 CZ 177 -5.910
91 CZ 178 -6.399
91 CZ 179 -4.934
91 CZ 180 -1.027
91 CZ 181 1.902
91 CZ 182 1.902
91 CZ 183 -0.051
91 CZ 184 -2.981
91 CZ 185 -4.445
91 CZ 186 -3.957
91 CZ 187 -2.492
91 CZ 188 -2.004
91 CZ 189 -2.981
91 CZ 190 -4.934
91 CZ 191 -5.422
91 CZ 192 -5.422
91 CZ 193 -4.445
91 CZ 194 -3.469
91 CZ 195 -3.469
91 CZ 196 -3.469
91 CZ 197 -1.516
91 CZ 198 1.902
91 CZ 199 5.809
91 CZ 200 8.738
91 CZ 201 8.250
91 CZ 202 4.832
91 CZ 203 0.437
91 CZ 204 -2.981
91 CZ 205 -3.469
91 CZ 206 -2.004
91 CZ 207 -0.051
91 CZ 208 -0.051
91 CZ 209 -3.469
91 CZ 210 -8.352
91 CZ 211 -14.211
91 CZ 212 -18.117
91 CZ 213 -19.094
91 CZ 214 -18.606
91 CZ 215 -18.117
91 CZ 216 -18.606
91 CZ 217 -21.047
91 CZ 218 -23.488
91 CZ 219 -24.465
91 CZ 220 -23.977
91 CZ 221 -21.047
91 CZ 222 -18.117
91 CZ 223 -18.117
91 CZ 224 -21.535
91 CZ 225 -27.395
91 CZ 226 -31.789
91 CZ 227 -33.254
91 CZ 228 -30.813
91 CZ 229 -27.395
91 CZ 230 -25.441
91 CZ 231 -25.930
91 CZ 232 -28.371
91 CZ 233 -30.813
91 CZ 234 -31.301
91 CZ 235 -30.324
91 CZ 236 -28.859
91 CZ 237 -27.883
91 CZ 238 -27.883
91 CZ 239 -27.883
91 CZ 240 -28.371
91 CZ 241 -28.371
91 CZ 242 -27.883
91 CZ 243 -26.906
91 CZ 244 -25.930
91 CZ 245 -24.465
91 CZ 246 -22.512
91 CZ 247 -20.070
91 CZ 248 -17.629
91 CZ 249 -16.164
91 CZ 250 -15.676
91 CZ 251 -16.652
91 CZ 252 -17.629
91 CZ 253 -16.652
91 CZ 254 -13.723
91 CZ 255 -9.328
# C3 chan 16
91 C3 0 -2.380
91 C3 1 -1.892
91 C3 2 -1.892
91 C3 3 -2.869
91 C3 4 -3.845
91 C3 5 -3.845
91 C3 6 -3.357
91 C3 7 -1.404
91 C3 8 0.061
91 C3 9 2.014
91 C3 10 3.479
91 C3 11 4.456
91 C3 12 4.456
91 C3 13 3.967
91 C3 14 2.991
91 C3 15 1.038
91 C3 16 -0.916
91 C3 17 -2.380
91 C3 18 -3.357
91 C3 19 -3.845
91 C3 20 -4.333
91 C3 21 -3.845
91 C3 22 -3.357
91 C3 23 -2.380
91 C3 24 -0.916
91 C3 25 0.549
91 C3 26 2.014
91 C3 27 2.991
91 C3 28 3.967
91 C3 29 4.944
91 C3 30 5.432
91 C3 31 5.920
91 C3 32 5.920
91 C3 33 5.920
91 C3 34 6.409
91 C3 35 6.409
91 C3 36 5.920
91 C3 37 4.456
91 C3 38 2.502
91 C3 39 -0.427
91 C3 40 -2.380
91 C3 41 -3.357
91 C3 42 -2.869
91 C3 43 -2.380
91 C3 44 -2.380
91 C3 45 -2.380
91 C3 46 -2.869
91 C3 47 -2.380
91 C3 48 -1.892
91 C3 49 -1.404
91 C3 50 -0.916
91 C3 51 -0.916
91 C3 52 -0.427
91 C3 53 0.549
91 C3 54 2.014
91 C3 55 3.479
91 C3 56 5.432
91 C3 57 6.897
91 C3 58 7.385
91 C3 59 6.897
91 C3 60 5.432
91 C3 61 3.479
91 C3 62 1.526
91 C3 63 0.061
91 C3 64 -0.427
91 C3 65 -0.427
91 C3 66 0.549
91 C3 67 1.038
91 C3 68 1.526
91 C3 69 2.014
91 C3 70 2.014
91 C3 71 2.991
91 C3 72 3.479
91 C3 73 3.479
91 C3 74 2.991
91 C3 75 2.502
91 C3 76 1.526
91 C3 77 1.038
91 C3 78 0.061
91 C3 79 0.061
91 C3 80 0.549
91 C3 81 1.038
91 C3 82 2.014
91 C3 83 2.502
91 C3 84 2.502
91 C3 85 2.014
91 C3 86 1.038
91 C3 87 0.549
91 C3 88 0.549
91 C3 89 0.549
91 C3 90 0.061
91 C3 91 -0.427
91 C3 92 -1.404
91 C3 93 -2.380
91 C3 94 -2.869
91 C3 95 -2.869
91 C3 96 -1.404
91 C3 97 0.061
91 C3 98 1.526
91 C3 99 2.502
91 C3 100 2.014
91 C3 101 1.526
91 C3 102 0.549
91 C3 103 0.549
91 C3 104 1.526
91 C3 105 2.502
91 C3 106 2.991
91 C3 107 2.991
91 C3 108 1.526
91 C3 109 0.061
91 C3 110 -0.916
91 C3 111 -1.404
91 C3 112 -0.916
91 C3 113 0.061
91 C3 114 1.526
91 C3 115 2.991
91 C3 116 3.479
91 C3 117 4.456
91 C3 118 3.967
91 C3 119 3.479
91 C3 120 2.502
91 C3 121 1.526
91 C3 122 0.549
91 C3 123 0.061
91 C3 124 0.549
91 C3 125 1.526
91 C3 126 2.991
91 C3 127 4.456
91 C3 128 4.944
91 C3 129 3.967
91 C3 130 2.502
91 C3 131 1.526
91 C3 132 0.549
91 C3 133 0.549
91 C3 134 2.014
91 C3 135 2.991
91 C3 136 3.967
91 C3 137 3.479
91 C3 138 2.991
91 C3 139 1.526
91 C3 140 1.038
91 C3 141 0.061
91 C3 142 0.061
91 C3 143 -0.427
91 C3 144 -0.427
91 C3 145 0.061
91 C3 146 0.549
91 C3 147 0.549
91 C3 148 0.549
91 C3 149 0.549
91 C3 150 0.061
91 C3 151 -0.427
91 C3 152 -0.916
91 C3 153 -0.916
91 C3 154 -1.404
91 C3 155 -1.404
91 C3 156 -1.404
91 C3 157 -0.916
91 C3 158 0.061
91 C3 159 0.549
91 C3 160 1.038
91 C3 161 0.549
91 C3 162 0.061
91 C3 163 -0.427
91 C3 164 0.061
91 C3 165 0.549
91 C3 166 0.549
91 C3 167 1.038
91 C3 168 0.549
91 C3 169 0.549
91 C3 170 0.549
91 C3 171 1.038
91 C3 172 1.526
91 C3 173 2.014
91 C3 174 2.502
91 C3 175 2.502
91 C3 176 2.502
91 C3 177 2.502
91 C3 178 2.014
91 C3 179 2.502
91 C3 180 2.502
91 C3 181 2.991
91 C3 182 3.479
91 C3 183 2.991
91 C3 184 2.014
91 C3 185 0.549
91 C3 186 -0.427
91 C3 187 -1.404
91 C3 188 -0.916
91 C3 189 -0.916
91 C3 190 0.061
91 C3 191 0.549
91 C3 192 1.038
91 C3 193 1.038
91 C3 194 0.549
91 C3 195 0.061
91 C3 196 0.549
91 C3 197 1.038
91 C3 198 2.502
91 C3 199 3.479
91 C3 200 4.456
91 C3 201 3.967
91 C3 202 2.502
91 C3 203 0.549
91 C3 204 -0.916
91 C3 205 -1.404
91 C3 206 -1.892
91 C3 207 -2.380
91 C3 208 -2.380
91 C3 209 -2.380
91 C3 210 -1.892
91 C3 211 -1.404
91 C3 212 -1.404
91 C3 213 -1.404
91 C3 214 -1.404
91 C3 215 -0.427
91 C3 216 0.549
91 C3 217 2.014
91 C3 218 3.479
91 C3 219 3.967
91 C3 220 3.479
91 C3 221 2.014
91 C3 222 0.061
91 C3 223 -1.404
91 C3 224 -2.869
91 C3 225 -2.869
91 C3 226 -1.892
91 C3 227 -0.427
91 C3 228 0.549
91 C3 229 1.038
91 C3 230 0.549
91 C3 231 0.061
91 C3 232 -0.427
91 C3 233 -0.916
91 C3 234 -0.916
91 C3 235 -1.404
91 C3 236 -0.916
91 C3 237 -0.916
91 C3 238 -0.427
91 C3 239 0.061
91 C3 240 0.549
91 C3 241 1.526
91 C3 242 2.991
91 C3 243 4.456
91 C3 244 4.944
91 C3 245 4.944
91 C3 246 3.479
91 C3 247 1.526
91 C3 248 0.061
91 C3 249 -0.427
91 C3 250 0.549
91 C3 251 2.014
91 C3 252 2.991
91 C3 253 3.967
91 C3 254 3.967
91 C3 255 3.479
# C4 chan 17
91 C4 0 -1.221
91 C4 1 -0.244
91 C4 2 0.732
91 C4 3 2.197
91 C4 4 3.662
91 C4 5 4.150
91 C4 6 4.639
91 C4 7 3.662
91 C4 8 2.686
91 C4 9 1.221
91 C4 10 -0.732
91 C4 11 -2.197
91 C4 12 -3.174
91 C4 13 -3.662
91 C4 14 -3.662
91 C4 15 -2.686
91 C4 16 -1.221
91 C4 17 0.244
91 C4 18 1.709
91 C4 19 2.197
91 C4 20 2.197
91 C4 21 1.709
91 C4 22 1.221
91 C4 23 1.221
91 C4 24 1.221
91 C4 25 2.197
91 C4 26 2.686
91 C4 27 3.174
91 C4 28 2.686
91 C4 29 2.686
91 C4 30 1.221
91 C4 31 0.244
91 C4 32 -1.221
91 C4 33 -2.686
91 C4 34 -4.150
91 C4 35 -5.127
91 C4 36 -4.150
91 C4 37 -3.174
91 C4 38 -1.221
91 C4 39 0.244
91 C4 40 0.732
91 C4 41 0.732
91 C4 42 0.732
91 C4 43 0.732
91 C4 44 0.732
91 C4 45 0.732
91 C4 46 1.709
91 C4 47 2.686
91 C4 48 4.150
91 C4 49 4.639
91 C4 50 4.150
91 C4 51 3.174
91 C4 52 1.709
91 C4 53 0.244
91 C4 54 -0.732
91 C4 55 -1.221
91 C4 56 -1.221
91 C4 57 -1.221
91 C4 58 -1.709
91 C4 59 -1.709
91 C4 60 -1.221
91 C4 61 0.244
91 C4 62 1.221
91 C4 63 1.709
91 C4 64 1.709
91 C4 65 1.221
91 C4 66 0.732
91 C4 67 -0.244
91 C4 68 -0.732
91 C4 69 -1.221
91 C4 70 -2.197
91 C4 71 -2.686
91 C4 72 -2.686
91 C4 73 -2.686
91 C4 74 -1.709
91 C4 75 -0.732
91 C4 76 0.244
91 C4 77 0.732
91 C4 78 1.221
91 C4 79 0.732
91 C4 80 -0.244
91 C4 81 -1.709
91 C4 82 -3.174
91 C4 83 -4.150
91 C4 84 -4.150
91 C4 85 -3.662
91 C4 86 -3.174
91 C4 87 -2.197
91 C4 88 -2.197
91 C4 89 -2.197
91 C4 90 -2.686
91 C4 91 -2.686
91 C4 92 -1.709
91 C4 93 -0.244
91 C4 94 1.221
91 C4 95 2.197
91 C4 96 2.197
91 C4 97 1.221
91 C4 98 0.732
91 C4 99 -0.244
91 C4 100 0.244
91 C4 101 0.732
91 C4 102 0.244
91 C4 103 -0.732
91 C4 104 -2.197
91 C4 105 -3.662
91 C4 106 -4.150
91 C4 107 -3.174
91 C4 108 -1.709
91 C4 109 0.244
91 C4 110 1.221
91 C4 111 0.732
91 C4 112 -0.244
91 C4 113 -1.709
91 C4 114 -2.686
91 C4 115 -3.174
91 C4 116 -3.174
91 C4 117 -2.197
91 C4 118 -2.197
91 C4 119 -1.709
91 C4 120 -1.221
91 C4 121 -0.732
91 C4 122 0.732
91 C4 123 1.709
91 C4 124 1.709
91 C4 125 0.732
91 C4 126 -0.732
91 C4 127 -2.686
91 C4 128 -3.174
91 C4 129 -3.174
91 C4 130 -2.197
91 C4 131 -1.221
91 C4 132 -1.709
91 C4 133 -3.174
91 C4 134 -4.639
91 C4 135 -5.615
91 C4 136 -5.615
91 C4 137 -4.639
91 C4 138 -4.150
91 C4 139 -3.662
91 C4 140 -3.174
91 C4 141 -3.174
91 C4 142 -3.174
91 C4 143 -3.662
91 C4 144 -4.150
91 C4 145 -5.127
91 C4 146 -6.104
91 C4 147 -5.615
91 C4 148 -4.639
91 C4 149 -3.662
91 C4 150 -3.662
91 C4 151 -3.662
91 C4 152 -4.639
91 C4 153 -5.127
91 C4 154 -4.639
91 C4 155 -3.662
91 C4 156 -2.197
91 C4 157 -1.221
91 C4 158 -0.732
91 C4 159 -0.732
91 C4 160 -0.244
91 C4 161 -0.244
91 C4 162 -0.244
91 C4 163 -0.244
91 C4 164 -1.221
91 C4 165 -1.221
91 C4 166 -1.709
91 C4 167 -1.709
91 C4 168 -1.709
91 C4 169 -2.197
91 C4 170 -2.686
91 C4 171 -2.686
91 C4 172 -2.197
91 C4 173 -1.221
91 C4 174 -0.732
91 C4 175 -1.221
91 C4 176 -1.221
91 C4 177 -1.709
91 C4 178 -1.221
91 C4 179 -1.221
91 C4 180 -0.732
91 C4 181 -0.244
91 C4 182 -0.244
91 C4 183 -0.244
91 C4 184 0.244
91 C4 185 0.244
91 C4 186 0.244
91 C4 187 -0.244
91 C4 188 -0.732
91 C4 189 -1.221
91 C4 190 -1.221
91 C4 191 -0.732
91 C4 192 -0.244
91 C4 193 0.244
91 C4 194 0.732
91 C4 195 0.244
91 C4 196 -0.244
91 C4 197 -0.732
91 C4 198 -1.221
91 C4 199 -1.221
91 C4 200 -1.221
91 C4 201 -0.732
91 C4 202 -0.244
91 C4 203 0.732
91 C4 204 1.221
91 C4 205 1.709
91 C4 206 2.197
91 C4 207 2.197
91 C4 208 1.709
91 C4 209 0.732
91 C4 210 -0.732
91 C4 211 -1.709
91 C4 212 -1.709
91 C4 213 -1.221
91 C4 214 0.244
91 C4 215 0.244
91 C4 216 -0.244
91 C4 217 -2.197
91 C4 218 -3.662
91 C4 219 -4.150
91 C4 220 -4.150
91 C4 221 -3.662
91 C4 222 -3.174
91 C4 223 -2.197
91 C4 224 -1.709
91 C4 225 -1.221
91 C4 226 -0.244
91 C4 227 -0.244
91 C4 228 -0.244
91 C4 229 0.244
91 C4 230 0.244
91 C4 231 0.244
91 C4 232 0.732
91 C4 233 1.221
91 C4 234 0.732
91 C4 235 0.732
91 C4 236 0.244
91 C4 237 0.244
91 C4 238 -0.244
91 C4 239 -0.732
91 C4 240 -1.709
91 C4 241 -2.686
91 C4 242 -3.174
91 C4 243 -3.662
91 C4 244 -4.150
91 C4 245 -4.150
91 C4 246 -4.150
91 C4 247 -3.662
91 C4 248 -3.174
91 C4 249 -2.686
91 C4 250 -2.686
91 C4 251 -3.174
91 C4 252 -3.174
91 C4 253 -3.662
91 C4 254 -3.174
91 C4 255 -2.686
# CP5 chan 18
91 CP5 0 -5.035
91 CP5 1 -4.059
91 CP5 2 -3.571
91 CP5 3 -3.571
91 CP5 4 -4.059
91 CP5 5 -3.571
91 CP5 6 -3.082
91 CP5 7 -1.617
91 CP5 8 -0.153
91 CP5 9 0.824
91 CP5 10 1.312
91 CP5 11 1.312
91 CP5 12 1.312
91 CP5 13 1.312
91 CP5 14 0.824
91 CP5 15 0.824
91 CP5 16 0.336
91 CP5 17 -0.153
91 CP5 18 -1.129
91 CP5 19 -1.617
91 CP5 20 -2.106
91 CP5 21 -1.617
91 CP5 22 -1.129
91 CP5 23 -0.641
91 CP5 24 -0.153
91 CP5 25 0.824
91 CP5 26 2.289
91 CP5 27 3.754
91 CP5 28 5.707
91 CP5 29 6.195
91 CP5 30 5.707
91 CP5 31 3.265
91 CP5 32 1.801
91 CP5 33 1.801
91 CP5 34 4.242
91 CP5 35 6.683
91 CP5 36 7.660
91 CP5 37 6.195
91 CP5 38 2.289
91 CP5 39 -2.594
91 CP5 40 -5.524
91 CP5 41 -6.989
91 CP5 42 -6.012
91 CP5 43 -4.547
91 CP5 44 -3.571
91 CP5 45 -3.082
91 CP5 46 -3.082
91 CP5 47 -2.106
91 CP5 48 -0.153
91 CP5 49 0.824
91 CP5 50 1.312
91 CP5 51 0.336
91 CP5 52 -1.129
91 CP5 53 -1.129
91 CP5 54 -0.153
91 CP5 55 2.777
91 CP5 56 6.683
91 CP5 57 10.101
91 CP5 58 12.054
91 CP5 59 11.566
91 CP5 60 10.101
91 CP5 61 7.660
91 CP5 62 5.219
91 CP5 63 3.265
91 CP5 64 1.801
91 CP5 65 0.824
91 CP5 66 0.336
91 CP5 67 -0.641
91 CP5 68 -0.641
91 CP5 69 -0.641
91 CP5 70 0.824
91 CP5 71 2.777
91 CP5 72 4.242
91 CP5 73 5.707
91 CP5 74 6.195
91 CP5 75 4.730
91 CP5 76 3.265
91 CP5 77 0.824
91 CP5 78 -1.617
91 CP5 79 -3.082
91 CP5 80 -3.571
91 CP5 81 -2.106
91 CP5 82 0.336
91 CP5 83 2.289
91 CP5 84 3.265
91 CP5 85 3.265
91 CP5 86 1.801
91 CP5 87 0.336
91 CP5 88 -0.641
91 CP5 89 -1.617
91 CP5 90 -3.082
91 CP5 91 -4.059
91 CP5 92 -5.035
91 CP5 93 -5.524
91 CP5 94 -5.035
91 CP5 95 -3.571
91 CP5 96 -1.617
91 CP5 97 0.336
91 CP5 98 2.777
91 CP5 99 3.754
91 CP5 100 3.754
91 CP5 101 1.801
91 CP5 102 -0.153
91 CP5 103 -0.641
91 CP5 104 0.336
91 CP5 105 2.289
91 CP5 106 3.754
91 CP5 107 3.754
91 CP5 108 1.801
91 CP5 109 -0.641
91 CP5 110 -1.617
91 CP5 111 -1.129
91 CP5 112 0.336
91 CP5 113 1.801
91 CP5 114 3.265
91 CP5 115 3.754
91 CP5 116 4.730
91 CP5 117 5.707
91 CP5 118 6.195
91 CP5 119 5.707
91 CP5 120 3.754
91 CP5 121 2.289
91 CP5 122 1.801
91 CP5 123 1.312
91 CP5 124 2.289
91 CP5 125 3.754
91 CP5 126 5.219
91 CP5 127 6.683
91 CP5 128 7.660
91 CP5 129 7.660
91 CP5 130 6.683
91 CP5 131 5.219
91 CP5 132 3.754
91 CP5 133 3.754
91 CP5 134 4.730
91 CP5 135 6.195
91 CP5 136 7.660
91 CP5 137 7.660
91 CP5 138 6.683
91 CP5 139 4.730
91 CP5 140 2.777
91 CP5 141 1.801
91 CP5 142 1.312
91 CP5 143 1.312
91 CP5 144 1.312
91 CP5 145 1.801
91 CP5 146 1.312
91 CP5 147 1.312
91 CP5 148 1.312
91 CP5 149 1.801
91 CP5 150 2.289
91 CP5 151 2.777
91 CP5 152 2.777
91 CP5 153 2.289
91 CP5 154 1.312
91 CP5 155 0.824
91 CP5 156 0.824
91 CP5 157 1.801
91 CP5 158 2.777
91 CP5 159 3.754
91 CP5 160 4.730
91 CP5 161 4.730
91 CP5 162 3.754
91 CP5 163 3.265
91 CP5 164 2.289
91 CP5 165 1.801
91 CP5 166 0.824
91 CP5 167 0.824
91 CP5 168 0.336
91 CP5 169 0.824
91 CP5 170 2.289
91 CP5 171 3.754
91 CP5 172 5.707
91 CP5 173 6.683
91 CP5 174 6.683
91 CP5 175 6.195
91 CP5 176 6.195
91 CP5 177 6.683
91 CP5 178 6.683
91 CP5 179 7.172
91 CP5 180 7.172
91 CP5 181 6.683
91 CP5 182 6.683
91 CP5 183 6.683
91 CP5 184 5.219
91 CP5 185 3.754
91 CP5 186 0.824
91 CP5 187 -2.106
91 CP5 188 -2.106
91 CP5 189 -1.617
91 CP5 190 0.336
91 CP5 191 2.289
91 CP5 192 3.265
91 CP5 193 3.754
91 CP5 194 2.289
91 CP5 195 2.777
91 CP5 196 3.265
91 CP5 197 4.730
91 CP5 198 6.195
91 CP5 199 7.660
91 CP5 200 8.148
91 CP5 201 6.683
91 CP5 202 4.242
91 CP5 203 1.312
91 CP5 204 -1.129
91 CP5 205 -3.082
91 CP5 206 -3.571
91 CP5 207 -3.571
91 CP5 208 -3.082
91 CP5 209 -2.106
91 CP5 210 -1.129
91 CP5 211 0.336
91 CP5 212 0.824
91 CP5 213 0.824
91 CP5 214 -0.153
91 CP5 215 -0.153
91 CP5 216 0.824
91 CP5 217 2.777
91 CP5 218 4.730
91 CP5 219 5.707
91 CP5 220 4.242
91 CP5 221 0.336
91 CP5 222 -3.571
91 CP5 223 -6.500
91 CP5 224 -7.477
91 CP5 225 -6.500
91 CP5 226 -4.547
91 CP5 227 -3.082
91 CP5 228 -2.106
91 CP5 229 -1.129
91 CP5 230 -1.129
91 CP5 231 -1.129
91 CP5 232 -1.129
91 CP5 233 -2.106
91 CP5 234 -2.594
91 CP5 235 -3.082
91 CP5 236 -4.059
91 CP5 237 -4.547
91 CP5 238 -4.547
91 CP5 239 -3.571
91 CP5 240 -2.106
91 CP5 241 -0.153
91 CP5 242 1.801
91 CP5 243 2.777
91 CP5 244 2.777
91 CP5 245 1.312
91 CP5 246 -1.129
91 CP5 247 -3.082
91 CP5 248 -4.547
91 CP5 249 -4.059
91 CP5 250 -2.106
91 CP5 251 -0.641
91 CP5 252 0.824
91 CP5 253 0.824
91 CP5 254 0.824
91 CP5 255 0.336
# CP6 chan 19
91 CP6 0 -1.587
91 CP6 1 1.343
91 CP6 2 4.761
91 CP6 3 8.179
91 CP6 4 11.108
91 CP6 5 12.573
91 CP6 6 11.597
91 CP6 7 9.155
91 CP6 8 5.737
91 CP6 9 1.831
91 CP6 10 -2.075
91 CP6 11 -5.981
91 CP6 12 -8.423
91 CP6 13 -9.888
91 CP6 14 -9.888
91 CP6 15 -7.935
91 CP6 16 -5.005
91 CP6 17 -2.075
91 CP6 18 0.854
91 CP6 19 3.296
91 CP6 20 4.761
91 CP6 21 5.737
91 CP6 22 6.226
91 CP6 23 7.202
91 CP6 24 8.179
91 CP6 25 9.155
91 CP6 26 9.644
91 CP6 27 9.644
91 CP6 28 8.667
91 CP6 29 6.226
91 CP6 30 2.808
91 CP6 31 -0.610
91 CP6 32 -5.005
91 CP6 33 -7.935
91 CP6 34 -9.888
91 CP6 35 -9.888
91 CP6 36 -9.399
91 CP6 37 -8.423
91 CP6 38 -7.446
91 CP6 39 -6.958
91 CP6 40 -6.470
91 CP6 41 -5.005
91 CP6 42 -3.052
91 CP6 43 -1.099
91 CP6 44 0.854
91 CP6 45 2.808
91 CP6 46 4.272
91 CP6 47 7.202
91 CP6 48 10.620
91 CP6 49 13.062
91 CP6 50 14.038
91 CP6 51 12.085
91 CP6 52 8.667
91 CP6 53 4.761
91 CP6 54 2.319
91 CP6 55 0.854
91 CP6 56 0.366
91 CP6 57 -1.099
91 CP6 58 -2.563
91 CP6 59 -3.540
91 CP6 60 -3.540
91 CP6 61 -1.587
91 CP6 62 0.854
91 CP6 63 3.296
91 CP6 64 3.784
91 CP6 65 2.808
91 CP6 66 1.831
91 CP6 67 -0.122
91 CP6 68 -1.099
91 CP6 69 -2.075
91 CP6 70 -2.563
91 CP6 71 -3.052
91 CP6 72 -2.563
91 CP6 73 -2.075
91 CP6 74 -1.099
91 CP6 75 -1.099
91 CP6 76 -0.610
91 CP6 77 -0.610
91 CP6 78 -0.610
91 CP6 79 -0.610
91 CP6 80 -1.587
91 CP6 81 -3.540
91 CP6 82 -5.005
91 CP6 83 -5.981
91 CP6 84 -5.981
91 CP6 85 -5.493
91 CP6 86 -5.005
91 CP6 87 -5.005
91 CP6 88 -5.493
91 CP6 89 -5.981
91 CP6 90 -6.470
91 CP6 91 -5.493
91 CP6 92 -3.540
91 CP6 93 -1.099
91 CP6 94 1.343
91 CP6 95 2.808
91 CP6 96 3.296
91 CP6 97 3.296
91 CP6 98 2.808
91 CP6 99 1.831
91 CP6 100 0.854
91 CP6 101 -0.610
91 CP6 102 -3.052
91 CP6 103 -5.005
91 CP6 104 -6.470
91 CP6 105 -6.958
91 CP6 106 -5.981
91 CP6 107 -4.517
91 CP6 108 -2.563
91 CP6 109 0.366
91 CP6 110 1.831
91 CP6 111 2.319
91 CP6 112 1.343
91 CP6 113 -0.122
91 CP6 114 -2.075
91 CP6 115 -3.540
91 CP6 116 -4.517
91 CP6 117 -4.028
91 CP6 118 -3.540
91 CP6 119 -3.052
91 CP6 120 -2.563
91 CP6 121 -1.099
91 CP6 122 -0.122
91 CP6 123 1.831
91 CP6 124 2.319
91 CP6 125 1.831
91 CP6 126 0.366
91 CP6 127 -1.587
91 CP6 128 -2.563
91 CP6 129 -2.075
91 CP6 130 -1.099
91 CP6 131 -0.122
91 CP6 132 -0.122
91 CP6 133 -1.099
91 CP6 134 -2.563
91 CP6 135 -2.563
91 CP6 136 -2.563
91 CP6 137 -1.587
91 CP6 138 -1.099
91 CP6 139 -0.610
91 CP6 140 -0.122
91 CP6 141 0.854
91 CP6 142 1.343
91 CP6 143 1.343
91 CP6 144 -0.122
91 CP6 145 -2.075
91 CP6 146 -3.540
91 CP6 147 -3.540
91 CP6 148 -3.052
91 CP6 149 -1.587
91 CP6 150 -1.099
91 CP6 151 -2.075
91 CP6 152 -3.052
91 CP6 153 -3.540
91 CP6 154 -3.052
91 CP6 155 -1.587
91 CP6 156 0.366
91 CP6 157 1.343
91 CP6 158 1.831
91 CP6 159 1.831
91 CP6 160 2.319
91 CP6 161 3.296
91 CP6 162 3.784
91 CP6 163 3.784
91 CP6 164 3.296
91 CP6 165 2.808
91 CP6 166 1.831
91 CP6 167 0.854
91 CP6 168 0.366
91 CP6 169 -0.122
91 CP6 170 -0.122
91 CP6 171 0.854
91 CP6 172 1.831
91 CP6 173 2.319
91 CP6 174 1.831
91 CP6 175 0.854
91 CP6 176 -0.610
91 CP6 177 -1.099
91 CP6 178 -1.099
91 CP6 179 -0.122
91 CP6 180 1.343
91 CP6 181 2.319
91 CP6 182 1.831
91 CP6 183 1.343
91 CP6 184 0.366
91 CP6 185 -0.122
91 CP6 186 -1.099
91 CP6 187 -1.587
91 CP6 188 -2.075
91 CP6 189 -2.075
91 CP6 190 -1.099
91 CP6 191 0.366
91 CP6 192 1.343
91 CP6 193 2.319
91 CP6 194 2.319
91 CP6 195 2.319
91 CP6 196 1.831
91 CP6 197 1.831
91 CP6 198 1.831
91 CP6 199 1.343
91 CP6 200 1.343
91 CP6 201 0.854
91 CP6 202 0.854
91 CP6 203 0.854
91 CP6 204 1.831
91 CP6 205 3.296
91 CP6 206 5.249
91 CP6 207 6.226
91 CP6 208 6.226
91 CP6 209 5.249
91 CP6 210 3.784
91 CP6 211 2.319
91 CP6 212 1.831
91 CP6 213 2.319
91 CP6 214 3.296
91 CP6 215 3.784
91 CP6 216 3.784
91 CP6 217 2.319
91 CP6 218 0.366
91 CP6 219 -2.075
91 CP6 220 -4.028
91 CP6 221 -5.981
91 CP6 222 -6.470
91 CP6 223 -6.958
91 CP6 224 -5.981
91 CP6 225 -5.005
91 CP6 226 -3.540
91 CP6 227 -2.075
91 CP6 228 -1.099
91 CP6 229 -0.610
91 CP6 230 -0.122
91 CP6 231 0.854
91 CP6 232 1.831
91 CP6 233 2.808
91 CP6 234 2.808
91 CP6 235 1.343
91 CP6 236 -0.122
91 CP6 237 -2.075
91 CP6 238 -2.563
91 CP6 239 -3.052
91 CP6 240 -4.028
91 CP6 241 -5.005
91 CP6 242 -5.981
91 CP6 243 -6.958
91 CP6 244 -7.446
91 CP6 245 -7.446
91 CP6 246 -6.470
91 CP6 247 -5.981
91 CP6 248 -5.981
91 CP6 249 -6.470
91 CP6 250 -6.958
91 CP6 251 -7.446
91 CP6 252 -7.446
91 CP6 253 -5.981
91 CP6 254 -4.517
91 CP6 255 -2.563
# CP1 chan 20
91 CP1 0 -2.625
91 CP1 1 -2.625
91 CP1 2 -2.625
91 CP1 3 -3.113
91 CP1 4 -3.601
91 CP1 5 -3.601
91 CP1 6 -3.113
91 CP1 7 -2.136
91 CP1 8 -1.648
91 CP1 9 -1.160
91 CP1 10 -1.160
91 CP1 11 -0.671
91 CP1 12 -0.183
91 CP1 13 -0.183
91 CP1 14 -0.183
91 CP1 15 0.305
91 CP1 16 0.305
91 CP1 17 0.793
91 CP1 18 0.305
91 CP1 19 -0.183
91 CP1 20 -0.183
91 CP1 21 -0.671
91 CP1 22 -1.160
91 CP1 23 -1.648
91 CP1 24 -2.625
91 CP1 25 -3.601
91 CP1 26 -4.578
91 CP1 27 -4.578
91 CP1 28 -3.601
91 CP1 29 -3.113
91 CP1 30 -3.113
91 CP1 31 -4.089
91 CP1 32 -5.066
91 CP1 33 -4.578
91 CP1 34 -3.113
91 CP1 35 -1.160
91 CP1 36 -0.183
91 CP1 37 -0.671
91 CP1 38 -2.625
91 CP1 39 -5.066
91 CP1 40 -6.042
91 CP1 41 -5.554
91 CP1 42 -3.601
91 CP1 43 -2.136
91 CP1 44 -2.136
91 CP1 45 -2.625
91 CP1 46 -3.601
91 CP1 47 -3.601
91 CP1 48 -2.625
91 CP1 49 -1.648
91 CP1 50 -1.160
91 CP1 51 -1.648
91 CP1 52 -2.136
91 CP1 53 -2.625
91 CP1 54 -2.625
91 CP1 55 -2.136
91 CP1 56 -1.648
91 CP1 57 -0.671
91 CP1 58 -0.183
91 CP1 59 -0.183
91 CP1 60 -0.671
91 CP1 61 -1.648
91 CP1 62 -2.625
91 CP1 63 -3.601
91 CP1 64 -4.089
91 CP1 65 -4.089
91 CP1 66 -3.601
91 CP1 67 -3.601
91 CP1 68 -3.601
91 CP1 69 -3.113
91 CP1 70 -2.625
91 CP1 71 -2.136
91 CP1 72 -0.671
91 CP1 73 -0.183
91 CP1 74 0.305
91 CP1 75 -0.183
91 CP1 76 -1.160
91 CP1 77 -2.136
91 CP1 78 -2.625
91 CP1 79 -3.113
91 CP1 80 -3.113
91 CP1 81 -2.625
91 CP1 82 -2.136
91 CP1 83 -1.648
91 CP1 84 -1.160
91 CP1 85 -1.160
91 CP1 86 -1.160
91 CP1 87 -1.160
91 CP1 88 -1.160
91 CP1 89 -1.160
91 CP1 90 -1.160
91 CP1 91 -1.648
91 CP1 92 -2.136
91 CP1 93 -2.136
91 CP1 94 -1.648
91 CP1 95 -1.160
91 CP1 96 0.305
91 CP1 97 1.282
91 CP1 98 2.258
91 CP1 99 2.258
91 CP1 100 1.282
91 CP1 101 -0.183
91 CP1 102 -1.648
91 CP1 103 -2.136
91 CP1 104 -1.648
91 CP1 105 -0.671
91 CP1 106 0.305
91 CP1 107 0.305
91 CP1 108 -0.183
91 CP1 109 -1.160
91 CP1 110 -1.648
91 CP1 111 -1.160
91 CP1 112 0.305
91 CP1 113 0.793
91 CP1 114 1.282
91 CP1 115 0.793
91 CP1 116 0.305
91 CP1 117 0.305
91 CP1 118 0.305
91 CP1 119 0.793
91 CP1 120 -0.183
91 CP1 121 -1.160
91 CP1 122 -2.136
91 CP1 123 -2.625
91 CP1 124 -2.136
91 CP1 125 -1.160
91 CP1 126 0.305
91 CP1 127 0.793
91 CP1 128 1.282
91 CP1 129 1.282
91 CP1 130 0.793
91 CP1 131 0.305
91 CP1 132 0.305
91 CP1 133 0.305
91 CP1 134 0.305
91 CP1 135 0.793
91 CP1 136 1.282
91 CP1 137 1.770
91 CP1 138 1.770
91 CP1 139 1.770
91 CP1 140 1.770
91 CP1 141 1.282
91 CP1 142 1.282
91 CP1 143 1.282
91 CP1 144 1.282
91 CP1 145 1.770
91 CP1 146 1.282
91 CP1 147 0.793
91 CP1 148 0.793
91 CP1 149 0.793
91 CP1 150 0.793
91 CP1 151 1.282
91 CP1 152 1.282
91 CP1 153 0.305
91 CP1 154 -0.183
91 CP1 155 0.305
91 CP1 156 0.793
91 CP1 157 1.770
91 CP1 158 2.747
91 CP1 159 2.747
91 CP1 160 2.747
91 CP1 161 2.258
91 CP1 162 2.258
91 CP1 163 2.747
91 CP1 164 3.235
91 CP1 165 3.235
91 CP1 166 2.258
91 CP1 167 1.770
91 CP1 168 0.793
91 CP1 169 0.305
91 CP1 170 0.305
91 CP1 171 0.305
91 CP1 172 0.793
91 CP1 173 1.282
91 CP1 174 1.770
91 CP1 175 2.258
91 CP1 176 2.258
91 CP1 177 1.770
91 CP1 178 1.282
91 CP1 179 1.282
91 CP1 180 1.770
91 CP1 181 1.770
91 CP1 182 1.770
91 CP1 183 1.770
91 CP1 184 1.282
91 CP1 185 0.793
91 CP1 186 0.305
91 CP1 187 -0.183
91 CP1 188 -1.160
91 CP1 189 -1.648
91 CP1 190 -1.648
91 CP1 191 -1.648
91 CP1 192 -1.160
91 CP1 193 -1.160
91 CP1 194 -1.648
91 CP1 195 -1.648
91 CP1 196 -1.160
91 CP1 197 -0.671
91 CP1 198 0.305
91 CP1 199 0.305
91 CP1 200 -0.183
91 CP1 201 -1.648
91 CP1 202 -2.625
91 CP1 203 -3.113
91 CP1 204 -3.113
91 CP1 205 -3.113
91 CP1 206 -3.113
91 CP1 207 -3.113
91 CP1 208 -2.625
91 CP1 209 -2.136
91 CP1 210 -1.648
91 CP1 211 -1.160
91 CP1 212 -0.671
91 CP1 213 -0.671
91 CP1 214 -0.671
91 CP1 215 -1.160
91 CP1 216 -0.671
91 CP1 217 -0.183
91 CP1 218 0.305
91 CP1 219 0.305
91 CP1 220 -0.183
91 CP1 221 -1.648
91 CP1 222 -3.113
91 CP1 223 -4.089
91 CP1 224 -4.089
91 CP1 225 -3.601
91 CP1 226 -3.601
91 CP1 227 -3.601
91 CP1 228 -3.601
91 CP1 229 -3.113
91 CP1 230 -2.136
91 CP1 231 -1.160
91 CP1 232 -0.183
91 CP1 233 -0.183
91 CP1 234 -1.648
91 CP1 235 -3.113
91 CP1 236 -4.578
91 CP1 237 -5.554
91 CP1 238 -5.066
91 CP1 239 -4.578
91 CP1 240 -4.089
91 CP1 241 -3.113
91 CP1 242 -2.625
91 CP1 243 -2.136
91 CP1 244 -2.136
91 CP1 245 -2.136
91 CP1 246 -2.625
91 CP1 247 -3.601
91 CP1 248 -3.601
91 CP1 249 -3.113
91 CP1 250 -2.136
91 CP1 251 -1.160
91 CP1 252 -0.671
91 CP1 253 -0.671
91 CP1 254 -1.160
91 CP1 255 -1.648
# CP2 chan 21
91 CP2 0 0.519
91 CP2 1 1.007
91 CP2 2 1.495
91 CP2 3 2.472
91 CP2 4 2.472
91 CP2 5 1.984
91 CP2 6 0.519
91 CP2 7 -1.434
91 CP2 8 -2.899
91 CP2 9 -3.876
91 CP2 10 -4.852
91 CP2 11 -5.341
91 CP2 12 -5.341
91 CP2 13 -4.852
91 CP2 14 -3.876
91 CP2 15 -1.923
91 CP2 16 0.031
91 CP2 17 1.984
91 CP2 18 3.448
91 CP2 19 3.937
91 CP2 20 3.937
91 CP2 21 3.937
91 CP2 22 3.448
91 CP2 23 2.472
91 CP2 24 1.495
91 CP2 25 1.007
91 CP2 26 0.031
91 CP2 27 -0.946
91 CP2 28 -1.923
91 CP2 29 -3.876
91 CP2 30 -6.317
91 CP2 31 -8.759
91 CP2 32 -10.712
91 CP2 33 -10.712
91 CP2 34 -9.735
91 CP2 35 -7.782
91 CP2 36 -5.829
91 CP2 37 -4.852
91 CP2 38 -4.364
91 CP2 39 -3.876
91 CP2 40 -3.387
91 CP2 41 -1.923
91 CP2 42 -0.946
91 CP2 43 0.519
91 CP2 44 1.007
91 CP2 45 1.007
91 CP2 46 1.007
91 CP2 47 1.495
91 CP2 48 2.960
91 CP2 49 3.937
91 CP2 50 3.937
91 CP2 51 2.960
91 CP2 52 0.519
91 CP2 53 -1.923
91 CP2 54 -3.876
91 CP2 55 -3.876
91 CP2 56 -3.387
91 CP2 57 -2.411
91 CP2 58 -1.923
91 CP2 59 -1.923
91 CP2 60 -1.923
91 CP2 61 -0.946
91 CP2 62 0.031
91 CP2 63 0.519
91 CP2 64 1.007
91 CP2 65 0.031
91 CP2 66 -0.946
91 CP2 67 -1.923
91 CP2 68 -3.387
91 CP2 69 -4.364
91 CP2 70 -4.852
91 CP2 71 -4.852
91 CP2 72 -3.876
91 CP2 73 -2.411
91 CP2 74 -1.434
91 CP2 75 -0.458
91 CP2 76 0.031
91 CP2 77 0.031
91 CP2 78 -0.458
91 CP2 79 -0.946
91 CP2 80 -1.434
91 CP2 81 -1.923
91 CP2 82 -2.411
91 CP2 83 -2.899
91 CP2 84 -2.411
91 CP2 85 -1.923
91 CP2 86 -1.434
91 CP2 87 -1.434
91 CP2 88 -1.923
91 CP2 89 -2.411
91 CP2 90 -2.899
91 CP2 91 -2.899
91 CP2 92 -2.411
91 CP2 93 -1.434
91 CP2 94 -0.458
91 CP2 95 1.007
91 CP2 96 1.495
91 CP2 97 1.984
91 CP2 98 1.984
91 CP2 99 1.984
91 CP2 100 1.495
91 CP2 101 0.519
91 CP2 102 -0.458
91 CP2 103 -1.923
91 CP2 104 -2.899
91 CP2 105 -2.899
91 CP2 106 -2.899
91 CP2 107 -1.434
91 CP2 108 0.031
91 CP2 109 1.007
91 CP2 110 1.495
91 CP2 111 1.495
91 CP2 112 1.007
91 CP2 113 0.031
91 CP2 114 -1.434
91 CP2 115 -2.411
91 CP2 116 -2.899
91 CP2 117 -2.899
91 CP2 118 -2.411
91 CP2 119 -1.434
91 CP2 120 -0.946
91 CP2 121 -0.458
91 CP2 122 0.031
91 CP2 123 1.495
91 CP2 124 1.984
91 CP2 125 1.495
91 CP2 126 0.519
91 CP2 127 -0.458
91 CP2 128 -0.458
91 CP2 129 0.031
91 CP2 130 1.007
91 CP2 131 1.495
91 CP2 132 1.007
91 CP2 133 0.031
91 CP2 134 -0.946
91 CP2 135 -1.434
91 CP2 136 -0.946
91 CP2 137 -0.458
91 CP2 138 0.519
91 CP2 139 1.007
91 CP2 140 1.007
91 CP2 141 1.495
91 CP2 142 1.495
91 CP2 143 1.495
91 CP2 144 1.007
91 CP2 145 0.519
91 CP2 146 -0.458
91 CP2 147 -0.458
91 CP2 148 0.031
91 CP2 149 1.007
91 CP2 150 1.495
91 CP2 151 1.495
91 CP2 152 1.007
91 CP2 153 0.031
91 CP2 154 0.031
91 CP2 155 0.519
91 CP2 156 1.007
91 CP2 157 1.984
91 CP2 158 2.960
91 CP2 159 3.937
91 CP2 160 3.937
91 CP2 161 4.425
91 CP2 162 3.937
91 CP2 163 3.937
91 CP2 164 3.937
91 CP2 165 3.937
91 CP2 166 3.448
91 CP2 167 2.960
91 CP2 168 1.984
91 CP2 169 1.007
91 CP2 170 1.007
91 CP2 171 1.495
91 CP2 172 2.472
91 CP2 173 2.960
91 CP2 174 2.960
91 CP2 175 2.472
91 CP2 176 1.495
91 CP2 177 1.007
91 CP2 178 1.007
91 CP2 179 1.495
91 CP2 180 1.984
91 CP2 181 2.472
91 CP2 182 2.472
91 CP2 183 2.472
91 CP2 184 2.472
91 CP2 185 1.984
91 CP2 186 1.495
91 CP2 187 1.007
91 CP2 188 0.519
91 CP2 189 0.031
91 CP2 190 0.031
91 CP2 191 0.519
91 CP2 192 1.007
91 CP2 193 1.007
91 CP2 194 1.007
91 CP2 195 1.007
91 CP2 196 1.007
91 CP2 197 1.007
91 CP2 198 1.007
91 CP2 199 1.007
91 CP2 200 0.519
91 CP2 201 0.031
91 CP2 202 1.007
91 CP2 203 1.495
91 CP2 204 1.984
91 CP2 205 2.960
91 CP2 206 3.448
91 CP2 207 3.448
91 CP2 208 2.960
91 CP2 209 2.472
91 CP2 210 1.495
91 CP2 211 1.495
91 CP2 212 1.495
91 CP2 213 1.495
91 CP2 214 1.007
91 CP2 215 0.031
91 CP2 216 -0.458
91 CP2 217 -1.434
91 CP2 218 -1.923
91 CP2 219 -2.411
91 CP2 220 -2.899
91 CP2 221 -3.387
91 CP2 222 -3.876
91 CP2 223 -4.364
91 CP2 224 -3.876
91 CP2 225 -3.387
91 CP2 226 -2.411
91 CP2 227 -1.434
91 CP2 228 -0.946
91 CP2 229 -0.458
91 CP2 230 0.031
91 CP2 231 0.031
91 CP2 232 0.519
91 CP2 233 0.519
91 CP2 234 0.031
91 CP2 235 -0.946
91 CP2 236 -2.411
91 CP2 237 -3.387
91 CP2 238 -3.876
91 CP2 239 -4.364
91 CP2 240 -4.364
91 CP2 241 -4.852
91 CP2 242 -5.829
91 CP2 243 -6.317
91 CP2 244 -5.829
91 CP2 245 -4.852
91 CP2 246 -3.876
91 CP2 247 -2.899
91 CP2 248 -2.899
91 CP2 249 -3.387
91 CP2 250 -4.364
91 CP2 251 -4.364
91 CP2 252 -4.852
91 CP2 253 -4.852
91 CP2 254 -4.364
91 CP2 255 -3.876
# P3 chan 22
91 P3 0 -2.075
91 P3 1 -2.075
91 P3 2 -2.563
91 P3 3 -3.540
91 P3 4 -4.028
91 P3 5 -5.005
91 P3 6 -5.981
91 P3 7 -6.470
91 P3 8 -6.470
91 P3 9 -5.981
91 P3 10 -5.005
91 P3 11 -4.028
91 P3 12 -3.540
91 P3 13 -2.075
91 P3 14 -1.099
91 P3 15 0.854
91 P3 16 2.808
91 P3 17 4.761
91 P3 18 6.226
91 P3 19 5.737
91 P3 20 4.761
91 P3 21 3.296
91 P3 22 2.808
91 P3 23 1.831
91 P3 24 0.366
91 P3 25 -1.099
91 P3 26 -2.075
91 P3 27 -2.075
91 P3 28 -1.099
91 P3 29 -0.610
91 P3 30 -2.075
91 P3 31 -4.517
91 P3 32 -6.958
91 P3 33 -7.446
91 P3 34 -5.005
91 P3 35 -1.587
91 P3 36 1.831
91 P3 37 1.831
91 P3 38 -0.610
91 P3 39 -4.517
91 P3 40 -6.958
91 P3 41 -6.958
91 P3 42 -4.517
91 P3 43 -2.075
91 P3 44 -0.122
91 P3 45 -0.122
91 P3 46 0.366
91 P3 47 0.854
91 P3 48 3.296
91 P3 49 5.737
91 P3 50 7.202
91 P3 51 6.714
91 P3 52 4.761
91 P3 53 2.319
91 P3 54 1.343
91 P3 55 2.808
91 P3 56 5.737
91 P3 57 8.667
91 P3 58 10.132
91 P3 59 9.644
91 P3 60 7.690
91 P3 61 5.249
91 P3 62 3.784
91 P3 63 3.296
91 P3 64 4.272
91 P3 65 4.272
91 P3 66 4.272
91 P3 67 3.296
91 P3 68 2.319
91 P3 69 1.831
91 P3 70 2.808
91 P3 71 4.761
91 P3 72 6.714
91 P3 73 8.179
91 P3 74 8.667
91 P3 75 8.667
91 P3 76 7.690
91 P3 77 5.737
91 P3 78 3.784
91 P3 79 1.343
91 P3 80 0.366
91 P3 81 0.366
91 P3 82 1.831
91 P3 83 3.784
91 P3 84 5.249
91 P3 85 6.714
91 P3 86 6.714
91 P3 87 6.226
91 P3 88 5.249
91 P3 89 3.296
91 P3 90 2.319
91 P3 91 1.343
91 P3 92 0.854
91 P3 93 1.343
91 P3 94 2.808
91 P3 95 4.272
91 P3 96 6.226
91 P3 97 8.179
91 P3 98 9.644
91 P3 99 10.132
91 P3 100 9.644
91 P3 101 7.202
91 P3 102 4.272
91 P3 103 1.831
91 P3 104 0.854
91 P3 105 1.343
91 P3 106 2.319
91 P3 107 3.296
91 P3 108 3.784
91 P3 109 3.784
91 P3 110 4.272
91 P3 111 5.737
91 P3 112 8.179
91 P3 113 9.644
91 P3 114 10.132
91 P3 115 10.132
91 P3 116 10.132
91 P3 117 10.620
91 P3 118 11.108
91 P3 119 11.597
91 P3 120 10.620
91 P3 121 9.644
91 P3 122 8.179
91 P3 123 7.690
91 P3 124 8.179
91 P3 125 9.644
91 P3 126 11.597
91 P3 127 13.550
91 P3 128 15.503
91 P3 129 16.479
91 P3 130 15.991
91 P3 131 15.015
91 P3 132 14.038
91 P3 133 13.062
91 P3 134 12.573
91 P3 135 13.550
91 P3 136 14.526
91 P3 137 15.503
91 P3 138 15.015
91 P3 139 14.038
91 P3 140 12.573
91 P3 141 11.108
91 P3 142 9.644
91 P3 143 8.667
91 P3 144 7.690
91 P3 145 7.202
91 P3 146 6.714
91 P3 147 6.714
91 P3 148 6.226
91 P3 149 6.226
91 P3 150 6.226
91 P3 151 6.226
91 P3 152 7.202
91 P3 153 8.179
91 P3 154 8.667
91 P3 155 8.667
91 P3 156 8.179
91 P3 157 7.690
91 P3 158 7.690
91 P3 159 8.179
91 P3 160 8.667
91 P3 161 9.644
91 P3 162 10.132
91 P3 163 11.108
91 P3 164 10.620
91 P3 165 10.132
91 P3 166 9.155
91 P3 167 8.179
91 P3 168 7.690
91 P3 169 7.690
91 P3 170 8.667
91 P3 171 10.620
91 P3 172 11.597
91 P3 173 12.573
91 P3 174 13.062
91 P3 175 13.550
91 P3 176 13.550
91 P3 177 13.550
91 P3 178 13.550
91 P3 179 13.550
91 P3 180 13.550
91 P3 181 13.550
91 P3 182 14.038
91 P3 183 15.015
91 P3 184 15.015
91 P3 185 14.038
91 P3 186 11.597
91 P3 187 9.155
91 P3 188 7.202
91 P3 189 6.714
91 P3 190 8.667
91 P3 191 11.108
91 P3 192 13.062
91 P3 193 14.038
91 P3 194 14.038
91 P3 195 13.550
91 P3 196 13.550
91 P3 197 13.550
91 P3 198 13.062
91 P3 199 12.085
91 P3 200 10.132
91 P3 201 8.179
91 P3 202 7.202
91 P3 203 7.202
91 P3 204 6.714
91 P3 205 7.202
91 P3 206 7.202
91 P3 207 7.690
91 P3 208 9.155
91 P3 209 10.620
91 P3 210 11.597
91 P3 211 11.597
91 P3 212 10.132
91 P3 213 9.155
91 P3 214 8.179
91 P3 215 8.667
91 P3 216 10.132
91 P3 217 12.085
91 P3 218 13.062
91 P3 219 12.573
91 P3 220 10.620
91 P3 221 6.714
91 P3 222 2.808
91 P3 223 -0.610
91 P3 224 -2.075
91 P3 225 -1.099
91 P3 226 1.831
91 P3 227 5.249
91 P3 228 8.179
91 P3 229 9.644
91 P3 230 10.132
91 P3 231 10.132
91 P3 232 9.155
91 P3 233 8.179
91 P3 234 6.714
91 P3 235 4.272
91 P3 236 1.343
91 P3 237 -0.610
91 P3 238 -1.587
91 P3 239 -0.610
91 P3 240 0.854
91 P3 241 2.319
91 P3 242 2.808
91 P3 243 2.808
91 P3 244 2.808
91 P3 245 1.831
91 P3 246 1.343
91 P3 247 0.854
91 P3 248 1.343
91 P3 249 2.319
91 P3 250 3.784
91 P3 251 5.737
91 P3 252 7.690
91 P3 253 8.179
91 P3 254 6.714
91 P3 255 4.761
# P4 chan 23
91 P4 0 3.764
91 P4 1 5.229
91 P4 2 7.670
91 P4 3 10.600
91 P4 4 13.529
91 P4 5 14.994
91 P4 6 14.506
91 P4 7 12.553
91 P4 8 9.135
91 P4 9 5.229
91 P4 10 1.322
91 P4 11 -3.072
91 P4 12 -6.002
91 P4 13 -6.978
91 P4 14 -5.514
91 P4 15 -1.607
91 P4 16 3.276
91 P4 17 7.182
91 P4 18 9.623
91 P4 19 11.576
91 P4 20 14.018
91 P4 21 16.459
91 P4 22 17.924
91 P4 23 17.436
91 P4 24 15.483
91 P4 25 13.529
91 P4 26 11.576
91 P4 27 11.088
91 P4 28 10.600
91 P4 29 8.647
91 P4 30 4.740
91 P4 31 -0.142
91 P4 32 -4.049
91 P4 33 -4.537
91 P4 34 -2.584
91 P4 35 0.834
91 P4 36 3.276
91 P4 37 3.764
91 P4 38 3.764
91 P4 39 4.252
91 P4 40 6.205
91 P4 41 9.135
91 P4 42 12.065
91 P4 43 14.018
91 P4 44 14.506
91 P4 45 14.506
91 P4 46 15.971
91 P4 47 18.412
91 P4 48 22.807
91 P4 49 26.225
91 P4 50 27.201
91 P4 51 25.248
91 P4 52 22.319
91 P4 53 19.389
91 P4 54 16.947
91 P4 55 16.947
91 P4 56 16.947
91 P4 57 16.459
91 P4 58 15.483
91 P4 59 14.994
91 P4 60 14.506
91 P4 61 14.994
91 P4 62 16.947
91 P4 63 19.877
91 P4 64 23.295
91 P4 65 26.713
91 P4 66 29.643
91 P4 67 30.619
91 P4 68 30.619
91 P4 69 29.643
91 P4 70 29.154
91 P4 71 29.643
91 P4 72 30.619
91 P4 73 32.572
91 P4 74 33.061
91 P4 75 34.037
91 P4 76 35.014
91 P4 77 35.990
91 P4 78 36.967
91 P4 79 36.967
91 P4 80 35.014
91 P4 81 32.572
91 P4 82 31.108
91 P4 83 30.619
91 P4 84 32.084
91 P4 85 33.549
91 P4 86 33.549
91 P4 87 32.084
91 P4 88 30.131
91 P4 89 28.178
91 P4 90 28.666
91 P4 91 30.131
91 P4 92 32.084
91 P4 93 34.037
91 P4 94 35.502
91 P4 95 36.479
91 P4 96 36.967
91 P4 97 36.479
91 P4 98 35.990
91 P4 99 35.990
91 P4 100 35.990
91 P4 101 35.990
91 P4 102 35.502
91 P4 103 34.037
91 P4 104 31.596
91 P4 105 29.643
91 P4 106 29.154
91 P4 107 30.131
91 P4 108 32.572
91 P4 109 34.526
91 P4 110 35.502
91 P4 111 35.014
91 P4 112 33.061
91 P4 113 31.108
91 P4 114 29.643
91 P4 115 29.643
91 P4 116 30.619
91 P4 117 31.596
91 P4 118 33.061
91 P4 119 34.526
91 P4 120 36.479
91 P4 121 38.432
91 P4 122 40.385
91 P4 123 41.850
91 P4 124 42.826
91 P4 125 41.850
91 P4 126 40.873
91 P4 127 39.897
91 P4 128 38.920
91 P4 129 38.920
91 P4 130 38.920
91 P4 131 38.432
91 P4 132 36.967
91 P4 133 35.502
91 P4 134 33.061
91 P4 135 32.084
91 P4 136 31.596
91 P4 137 32.572
91 P4 138 34.037
91 P4 139 35.502
91 P4 140 36.967
91 P4 141 37.455
91 P4 142 36.967
91 P4 143 36.479
91 P4 144 35.014
91 P4 145 34.526
91 P4 146 35.014
91 P4 147 36.479
91 P4 148 38.432
91 P4 149 39.408
91 P4 150 37.944
91 P4 151 35.990
91 P4 152 34.037
91 P4 153 33.549
91 P4 154 34.526
91 P4 155 35.990
91 P4 156 36.479
91 P4 157 35.990
91 P4 158 35.014
91 P4 159 35.014
91 P4 160 35.014
91 P4 161 36.479
91 P4 162 37.944
91 P4 163 38.432
91 P4 164 38.432
91 P4 165 37.944
91 P4 166 36.967
91 P4 167 36.479
91 P4 168 35.990
91 P4 169 35.990
91 P4 170 35.990
91 P4 171 36.479
91 P4 172 37.455
91 P4 173 37.455
91 P4 174 36.967
91 P4 175 35.502
91 P4 176 33.549
91 P4 177 32.084
91 P4 178 31.596
91 P4 179 32.084
91 P4 180 33.061
91 P4 181 34.037
91 P4 182 34.526
91 P4 183 35.014
91 P4 184 35.502
91 P4 185 35.014
91 P4 186 34.526
91 P4 187 33.061
91 P4 188 31.108
91 P4 189 30.619
91 P4 190 31.108
91 P4 191 33.061
91 P4 192 35.014
91 P4 193 35.502
91 P4 194 34.526
91 P4 195 33.549
91 P4 196 32.572
91 P4 197 33.549
91 P4 198 35.014
91 P4 199 36.967
91 P4 200 37.944
91 P4 201 36.967
91 P4 202 35.014
91 P4 203 33.061
91 P4 204 31.596
91 P4 205 32.084
91 P4 206 34.037
91 P4 207 36.967
91 P4 208 38.920
91 P4 209 39.408
91 P4 210 38.920
91 P4 211 37.944
91 P4 212 37.455
91 P4 213 38.920
91 P4 214 40.385
91 P4 215 40.873
91 P4 216 40.385
91 P4 217 38.920
91 P4 218 36.479
91 P4 219 33.549
91 P4 220 30.619
91 P4 221 26.713
91 P4 222 23.295
91 P4 223 21.342
91 P4 224 21.342
91 P4 225 21.830
91 P4 226 22.807
91 P4 227 23.295
91 P4 228 23.783
91 P4 229 24.272
91 P4 230 25.736
91 P4 231 27.690
91 P4 232 30.131
91 P4 233 31.108
91 P4 234 31.596
91 P4 235 31.108
91 P4 236 30.619
91 P4 237 29.154
91 P4 238 27.690
91 P4 239 26.225
91 P4 240 24.760
91 P4 241 24.272
91 P4 242 24.272
91 P4 243 25.248
91 P4 244 26.225
91 P4 245 26.713
91 P4 246 27.690
91 P4 247 28.666
91 P4 248 29.643
91 P4 249 29.643
91 P4 250 28.666
91 P4 251 27.201
91 P4 252 25.736
91 P4 253 25.248
91 P4 254 26.225
91 P4 255 28.178
# PZ chan 24
91 PZ 0 0.020
91 PZ 1 0.509
91 PZ 2 0.997
91 PZ 3 1.485
91 PZ 4 0.509
91 PZ 5 -0.956
91 PZ 6 -2.421
91 PZ 7 -3.886
91 PZ 8 -4.374
91 PZ 9 -4.374
91 PZ 10 -4.374
91 PZ 11 -4.862
91 PZ 12 -5.839
91 PZ 13 -5.839
91 PZ 14 -4.862
91 PZ 15 -2.909
91 PZ 16 0.020
91 PZ 17 2.462
91 PZ 18 4.415
91 PZ 19 4.903
91 PZ 20 4.903
91 PZ 21 4.415
91 PZ 22 3.438
91 PZ 23 2.462
91 PZ 24 0.997
91 PZ 25 -0.956
91 PZ 26 -1.933
91 PZ 27 -2.421
91 PZ 28 -3.398
91 PZ 29 -4.862
91 PZ 30 -7.304
91 PZ 31 -10.234
91 PZ 32 -12.675
91 PZ 33 -13.652
91 PZ 34 -12.187
91 PZ 35 -9.745
91 PZ 36 -7.792
91 PZ 37 -6.327
91 PZ 38 -6.816
91 PZ 39 -7.792
91 PZ 40 -8.280
91 PZ 41 -7.304
91 PZ 42 -4.862
91 PZ 43 -2.421
91 PZ 44 -0.956
91 PZ 45 0.020
91 PZ 46 0.020
91 PZ 47 0.997
91 PZ 48 2.950
91 PZ 49 4.415
91 PZ 50 5.391
91 PZ 51 3.927
91 PZ 52 0.997
91 PZ 53 -1.933
91 PZ 54 -3.886
91 PZ 55 -4.374
91 PZ 56 -3.886
91 PZ 57 -2.909
91 PZ 58 -1.933
91 PZ 59 -2.421
91 PZ 60 -2.909
91 PZ 61 -2.909
91 PZ 62 -2.909
91 PZ 63 -2.909
91 PZ 64 -2.421
91 PZ 65 -2.421
91 PZ 66 -2.909
91 PZ 67 -3.886
91 PZ 68 -4.862
91 PZ 69 -5.351
91 PZ 70 -5.351
91 PZ 71 -3.886
91 PZ 72 -1.933
91 PZ 73 0.020
91 PZ 74 0.997
91 PZ 75 0.997
91 PZ 76 0.509
91 PZ 77 -1.444
91 PZ 78 -2.909
91 PZ 79 -4.374
91 PZ 80 -4.862
91 PZ 81 -4.862
91 PZ 82 -4.374
91 PZ 83 -2.909
91 PZ 84 -1.933
91 PZ 85 -0.956
91 PZ 86 0.020
91 PZ 87 0.020
91 PZ 88 -0.956
91 PZ 89 -1.444
91 PZ 90 -2.421
91 PZ 91 -2.909
91 PZ 92 -2.909
91 PZ 93 -2.421
91 PZ 94 -1.444
91 PZ 95 0.020
91 PZ 96 0.997
91 PZ 97 2.462
91 PZ 98 2.950
91 PZ 99 2.950
91 PZ 100 2.462
91 PZ 101 0.509
91 PZ 102 -1.444
91 PZ 103 -2.909
91 PZ 104 -3.398
91 PZ 105 -2.909
91 PZ 106 -1.933
91 PZ 107 -0.956
91 PZ 108 0.020
91 PZ 109 0.509
91 PZ 110 1.485
91 PZ 111 1.973
91 PZ 112 2.950
91 PZ 113 2.462
91 PZ 114 1.485
91 PZ 115 0.509
91 PZ 116 0.020
91 PZ 117 0.020
91 PZ 118 0.509
91 PZ 119 0.997
91 PZ 120 0.997
91 PZ 121 0.509
91 PZ 122 0.020
91 PZ 123 0.509
91 PZ 124 0.997
91 PZ 125 1.485
91 PZ 126 1.973
91 PZ 127 1.973
91 PZ 128 2.462
91 PZ 129 2.950
91 PZ 130 3.927
91 PZ 131 4.415
91 PZ 132 3.927
91 PZ 133 2.950
91 PZ 134 2.462
91 PZ 135 2.950
91 PZ 136 3.438
91 PZ 137 4.415
91 PZ 138 5.391
91 PZ 139 5.391
91 PZ 140 4.903
91 PZ 141 4.415
91 PZ 142 4.415
91 PZ 143 4.415
91 PZ 144 3.927
91 PZ 145 3.927
91 PZ 146 2.950
91 PZ 147 2.950
91 PZ 148 2.950
91 PZ 149 3.438
91 PZ 150 3.927
91 PZ 151 4.415
91 PZ 152 3.927
91 PZ 153 3.438
91 PZ 154 2.462
91 PZ 155 2.462
91 PZ 156 2.950
91 PZ 157 4.415
91 PZ 158 5.880
91 PZ 159 7.833
91 PZ 160 8.321
91 PZ 161 8.809
91 PZ 162 8.809
91 PZ 163 8.809
91 PZ 164 8.809
91 PZ 165 8.809
91 PZ 166 7.833
91 PZ 167 6.368
91 PZ 168 4.903
91 PZ 169 3.438
91 PZ 170 3.438
91 PZ 171 3.927
91 PZ 172 5.391
91 PZ 173 6.856
91 PZ 174 7.345
91 PZ 175 6.856
91 PZ 176 5.880
91 PZ 177 4.903
91 PZ 178 4.415
91 PZ 179 4.415
91 PZ 180 4.903
91 PZ 181 5.391
91 PZ 182 6.368
91 PZ 183 6.856
91 PZ 184 7.345
91 PZ 185 6.368
91 PZ 186 4.903
91 PZ 187 2.950
91 PZ 188 0.997
91 PZ 189 0.509
91 PZ 190 0.509
91 PZ 191 1.485
91 PZ 192 2.462
91 PZ 193 2.462
91 PZ 194 2.462
91 PZ 195 1.973
91 PZ 196 2.462
91 PZ 197 2.950
91 PZ 198 3.438
91 PZ 199 3.927
91 PZ 200 2.950
91 PZ 201 2.462
91 PZ 202 1.973
91 PZ 203 1.973
91 PZ 204 2.950
91 PZ 205 3.438
91 PZ 206 3.927
91 PZ 207 3.927
91 PZ 208 3.927
91 PZ 209 3.438
91 PZ 210 3.438
91 PZ 211 3.438
91 PZ 212 2.462
91 PZ 213 1.485
91 PZ 214 0.509
91 PZ 215 0.020
91 PZ 216 0.020
91 PZ 217 0.509
91 PZ 218 0.997
91 PZ 219 1.485
91 PZ 220 0.509
91 PZ 221 -0.468
91 PZ 222 -2.421
91 PZ 223 -4.374
91 PZ 224 -4.862
91 PZ 225 -4.862
91 PZ 226 -3.886
91 PZ 227 -2.909
91 PZ 228 -1.933
91 PZ 229 -0.956
91 PZ 230 -0.468
91 PZ 231 0.509
91 PZ 232 0.997
91 PZ 233 0.997
91 PZ 234 0.020
91 PZ 235 -1.444
91 PZ 236 -3.398
91 PZ 237 -4.862
91 PZ 238 -6.327
91 PZ 239 -6.327
91 PZ 240 -5.839
91 PZ 241 -5.351
91 PZ 242 -5.351
91 PZ 243 -4.862
91 PZ 244 -4.374
91 PZ 245 -3.886
91 PZ 246 -2.909
91 PZ 247 -2.909
91 PZ 248 -2.909
91 PZ 249 -2.909
91 PZ 250 -3.398
91 PZ 251 -2.909
91 PZ 252 -2.909
91 PZ 253 -2.909
91 PZ 254 -2.909
91 PZ 255 -3.886
# P8 chan 25
91 P8 0 4.008
91 P8 1 7.426
91 P8 2 11.820
91 P8 3 16.703
91 P8 4 20.121
91 P8 5 21.098
91 P8 6 19.633
91 P8 7 15.727
91 P8 8 10.356
91 P8 9 4.008
91 P8 10 -3.316
91 P8 11 -11.129
91 P8 12 -17.965
91 P8 13 -22.359
91 P8 14 -23.824
91 P8 15 -20.894
91 P8 16 -15.523
91 P8 17 -9.176
91 P8 18 -3.805
91 P8 19 0.590
91 P8 20 4.008
91 P8 21 7.426
91 P8 22 11.332
91 P8 23 14.750
91 P8 24 17.192
91 P8 25 19.633
91 P8 26 21.098
91 P8 27 21.098
91 P8 28 19.633
91 P8 29 15.727
91 P8 30 9.867
91 P8 31 2.543
91 P8 32 -5.269
91 P8 33 -12.105
91 P8 34 -16.988
91 P8 35 -18.941
91 P8 36 -18.941
91 P8 37 -17.476
91 P8 38 -16.988
91 P8 39 -16.500
91 P8 40 -16.012
91 P8 41 -14.547
91 P8 42 -11.617
91 P8 43 -8.199
91 P8 44 -4.781
91 P8 45 -1.851
91 P8 46 1.567
91 P8 47 5.473
91 P8 48 10.356
91 P8 49 15.238
91 P8 50 17.680
91 P8 51 17.192
91 P8 52 12.797
91 P8 53 7.426
91 P8 54 2.543
91 P8 55 0.102
91 P8 56 -1.363
91 P8 57 -2.828
91 P8 58 -5.269
91 P8 59 -7.222
91 P8 60 -8.199
91 P8 61 -6.734
91 P8 62 -4.293
91 P8 63 -0.875
91 P8 64 1.567
91 P8 65 1.567
91 P8 66 -0.387
91 P8 67 -2.340
91 P8 68 -4.781
91 P8 69 -6.246
91 P8 70 -6.734
91 P8 71 -5.758
91 P8 72 -4.293
91 P8 73 -1.851
91 P8 74 -0.875
91 P8 75 0.102
91 P8 76 -0.387
91 P8 77 -1.851
91 P8 78 -3.805
91 P8 79 -6.246
91 P8 80 -8.199
91 P8 81 -9.664
91 P8 82 -11.129
91 P8 83 -11.617
91 P8 84 -11.129
91 P8 85 -10.640
91 P8 86 -10.640
91 P8 87 -11.129
91 P8 88 -11.617
91 P8 89 -12.105
91 P8 90 -11.617
91 P8 91 -10.640
91 P8 92 -8.199
91 P8 93 -5.269
91 P8 94 -2.340
91 P8 95 -0.387
91 P8 96 1.078
91 P8 97 1.567
91 P8 98 1.078
91 P8 99 -0.387
91 P8 100 -2.340
91 P8 101 -4.781
91 P8 102 -7.222
91 P8 103 -9.664
91 P8 104 -11.129
91 P8 105 -11.617
91 P8 106 -11.129
91 P8 107 -9.664
91 P8 108 -7.222
91 P8 109 -5.269
91 P8 110 -2.828
91 P8 111 -1.363
91 P8 112 -0.875
91 P8 113 -1.851
91 P8 114 -4.293
91 P8 115 -6.246
91 P8 116 -7.711
91 P8 117 -7.222
91 P8 118 -5.269
91 P8 119 -3.316
91 P8 120 -1.851
91 P8 121 -1.363
91 P8 122 -0.387
91 P8 123 -0.387
91 P8 124 0.102
91 P8 125 -0.387
91 P8 126 -0.875
91 P8 127 -1.851
91 P8 128 -2.340
91 P8 129 -2.340
91 P8 130 -1.851
91 P8 131 -2.340
91 P8 132 -3.316
91 P8 133 -4.781
91 P8 134 -6.246
91 P8 135 -6.246
91 P8 136 -5.269
91 P8 137 -3.805
91 P8 138 -2.828
91 P8 139 -3.316
91 P8 140 -3.805
91 P8 141 -3.805
91 P8 142 -2.828
91 P8 143 -1.851
91 P8 144 -2.340
91 P8 145 -3.316
91 P8 146 -5.758
91 P8 147 -7.222
91 P8 148 -7.222
91 P8 149 -6.246
91 P8 150 -4.293
91 P8 151 -4.293
91 P8 152 -4.781
91 P8 153 -6.246
91 P8 154 -6.246
91 P8 155 -5.269
91 P8 156 -2.828
91 P8 157 -0.875
91 P8 158 0.590
91 P8 159 2.055
91 P8 160 2.543
91 P8 161 3.520
91 P8 162 3.031
91 P8 163 2.543
91 P8 164 1.567
91 P8 165 1.567
91 P8 166 1.567
91 P8 167 1.567
91 P8 168 1.078
91 P8 169 -0.387
91 P8 170 -0.875
91 P8 171 -0.387
91 P8 172 1.567
91 P8 173 3.520
91 P8 174 3.520
91 P8 175 2.055
91 P8 176 -0.387
91 P8 177 -1.851
91 P8 178 -1.363
91 P8 179 1.078
91 P8 180 4.008
91 P8 181 5.473
91 P8 182 4.496
91 P8 183 2.543
91 P8 184 0.102
91 P8 185 -2.340
91 P8 186 -4.293
91 P8 187 -6.734
91 P8 188 -7.222
91 P8 189 -6.246
91 P8 190 -2.340
91 P8 191 1.567
91 P8 192 5.961
91 P8 193 7.426
91 P8 194 6.938
91 P8 195 5.473
91 P8 196 4.008
91 P8 197 3.520
91 P8 198 4.008
91 P8 199 4.496
91 P8 200 3.520
91 P8 201 1.567
91 P8 202 -0.387
91 P8 203 -1.851
91 P8 204 -1.363
91 P8 205 1.078
91 P8 206 4.985
91 P8 207 8.891
91 P8 208 10.844
91 P8 209 11.332
91 P8 210 9.867
91 P8 211 7.914
91 P8 212 6.449
91 P8 213 6.449
91 P8 214 6.938
91 P8 215 7.426
91 P8 216 6.938
91 P8 217 4.985
91 P8 218 2.055
91 P8 219 -1.363
91 P8 220 -5.269
91 P8 221 -9.664
91 P8 222 -13.570
91 P8 223 -15.035
91 P8 224 -15.035
91 P8 225 -12.594
91 P8 226 -8.687
91 P8 227 -4.781
91 P8 228 -1.363
91 P8 229 0.590
91 P8 230 2.055
91 P8 231 3.031
91 P8 232 4.008
91 P8 233 4.496
91 P8 234 3.520
91 P8 235 2.055
91 P8 236 0.590
91 P8 237 -0.387
91 P8 238 -0.875
91 P8 239 -1.851
91 P8 240 -3.316
91 P8 241 -5.269
91 P8 242 -7.711
91 P8 243 -9.664
91 P8 244 -11.129
91 P8 245 -11.617
91 P8 246 -11.617
91 P8 247 -12.594
91 P8 248 -13.570
91 P8 249 -15.035
91 P8 250 -15.523
91 P8 251 -15.035
91 P8 252 -13.082
91 P8 253 -10.152
91 P8 254 -6.734
91 P8 255 -3.316
# P7 chan 26
91 P7 0 -2.391
91 P7 1 -2.879
91 P7 2 -2.879
91 P7 3 -1.414
91 P7 4 0.539
91 P7 5 2.981
91 P7 6 4.934
91 P7 7 5.422
91 P7 8 4.934
91 P7 9 2.981
91 P7 10 1.516
91 P7 11 0.539
91 P7 12 0.539
91 P7 13 1.516
91 P7 14 2.492
91 P7 15 3.957
91 P7 16 5.910
91 P7 17 7.863
91 P7 18 8.840
91 P7 19 9.816
91 P7 20 9.328
91 P7 21 8.840
91 P7 22 7.863
91 P7 23 7.863
91 P7 24 8.352
91 P7 25 9.328
91 P7 26 9.816
91 P7 27 10.793
91 P7 28 11.770
91 P7 29 11.281
91 P7 30 9.816
91 P7 31 7.863
91 P7 32 5.910
91 P7 33 5.910
91 P7 34 7.863
91 P7 35 11.281
91 P7 36 13.234
91 P7 37 12.746
91 P7 38 8.840
91 P7 39 2.981
91 P7 40 -0.926
91 P7 41 -2.879
91 P7 42 -2.879
91 P7 43 -1.902
91 P7 44 -1.902
91 P7 45 -1.414
91 P7 46 0.051
91 P7 47 3.469
91 P7 48 7.863
91 P7 49 11.281
91 P7 50 11.770
91 P7 51 10.305
91 P7 52 7.863
91 P7 53 6.887
91 P7 54 8.840
91 P7 55 12.258
91 P7 56 16.652
91 P7 57 20.070
91 P7 58 22.512
91 P7 59 23.488
91 P7 60 22.024
91 P7 61 19.094
91 P7 62 15.676
91 P7 63 12.258
91 P7 64 9.816
91 P7 65 9.328
91 P7 66 10.305
91 P7 67 11.281
91 P7 68 11.770
91 P7 69 11.770
91 P7 70 12.258
91 P7 71 13.234
91 P7 72 15.188
91 P7 73 17.141
91 P7 74 17.629
91 P7 75 17.141
91 P7 76 14.699
91 P7 77 10.793
91 P7 78 6.887
91 P7 79 3.957
91 P7 80 2.981
91 P7 81 4.445
91 P7 82 8.840
91 P7 83 13.723
91 P7 84 17.629
91 P7 85 19.094
91 P7 86 18.117
91 P7 87 15.676
91 P7 88 12.746
91 P7 89 11.281
91 P7 90 10.793
91 P7 91 10.793
91 P7 92 11.281
91 P7 93 10.793
91 P7 94 9.816
91 P7 95 8.352
91 P7 96 7.863
91 P7 97 8.840
91 P7 98 11.281
91 P7 99 13.723
91 P7 100 15.188
91 P7 101 15.676
91 P7 102 14.699
91 P7 103 14.211
91 P7 104 15.188
91 P7 105 17.141
91 P7 106 18.606
91 P7 107 19.582
91 P7 108 19.094
91 P7 109 18.606
91 P7 110 19.094
91 P7 111 20.070
91 P7 112 22.024
91 P7 113 23.000
91 P7 114 23.977
91 P7 115 25.441
91 P7 116 27.883
91 P7 117 30.324
91 P7 118 31.301
91 P7 119 30.324
91 P7 120 26.906
91 P7 121 23.000
91 P7 122 20.559
91 P7 123 20.070
91 P7 124 21.535
91 P7 125 23.488
91 P7 126 25.441
91 P7 127 27.395
91 P7 128 27.883
91 P7 129 26.418
91 P7 130 23.488
91 P7 131 19.094
91 P7 132 14.699
91 P7 133 13.723
91 P7 134 15.676
91 P7 135 20.070
91 P7 136 23.977
91 P7 137 24.465
91 P7 138 22.024
91 P7 139 18.117
91 P7 140 15.188
91 P7 141 13.723
91 P7 142 14.699
91 P7 143 14.699
91 P7 144 13.234
91 P7 145 11.770
91 P7 146 10.305
91 P7 147 10.793
91 P7 148 11.770
91 P7 149 13.234
91 P7 150 13.234
91 P7 151 12.258
91 P7 152 10.793
91 P7 153 9.328
91 P7 154 9.328
91 P7 155 9.328
91 P7 156 9.328
91 P7 157 8.352
91 P7 158 8.352
91 P7 159 9.816
91 P7 160 12.746
91 P7 161 15.676
91 P7 162 17.141
91 P7 163 16.652
91 P7 164 14.211
91 P7 165 11.770
91 P7 166 10.793
91 P7 167 11.281
91 P7 168 13.234
91 P7 169 15.188
91 P7 170 17.629
91 P7 171 19.094
91 P7 172 20.070
91 P7 173 20.070
91 P7 174 19.582
91 P7 175 19.094
91 P7 176 18.606
91 P7 177 18.606
91 P7 178 19.094
91 P7 179 18.606
91 P7 180 17.141
91 P7 181 15.676
91 P7 182 14.699
91 P7 183 14.699
91 P7 184 15.676
91 P7 185 16.164
91 P7 186 14.699
91 P7 187 11.770
91 P7 188 9.328
91 P7 189 7.863
91 P7 190 9.328
91 P7 191 12.258
91 P7 192 15.676
91 P7 193 18.117
91 P7 194 19.582
91 P7 195 21.047
91 P7 196 22.512
91 P7 197 23.488
91 P7 198 23.488
91 P7 199 21.535
91 P7 200 18.117
91 P7 201 14.211
91 P7 202 9.816
91 P7 203 6.887
91 P7 204 4.934
91 P7 205 3.469
91 P7 206 2.981
91 P7 207 3.469
91 P7 208 4.934
91 P7 209 7.375
91 P7 210 9.328
91 P7 211 11.281
91 P7 212 12.258
91 P7 213 12.746
91 P7 214 12.258
91 P7 215 12.258
91 P7 216 13.234
91 P7 217 14.699
91 P7 218 15.676
91 P7 219 15.188
91 P7 220 12.258
91 P7 221 7.863
91 P7 222 2.981
91 P7 223 -0.437
91 P7 224 -1.414
91 P7 225 0.051
91 P7 226 2.004
91 P7 227 3.957
91 P7 228 5.422
91 P7 229 6.887
91 P7 230 8.352
91 P7 231 9.328
91 P7 232 9.328
91 P7 233 8.352
91 P7 234 6.887
91 P7 235 4.445
91 P7 236 3.957
91 P7 237 4.445
91 P7 238 5.910
91 P7 239 7.863
91 P7 240 9.328
91 P7 241 9.816
91 P7 242 9.816
91 P7 243 9.328
91 P7 244 7.863
91 P7 245 5.422
91 P7 246 2.492
91 P7 247 -0.926
91 P7 248 -2.391
91 P7 249 -1.414
91 P7 250 1.027
91 P7 251 4.445
91 P7 252 6.399
91 P7 253 6.887
91 P7 254 6.399
91 P7 255 6.399
# PO2 chan 27
91 PO2 0 1.831
91 PO2 1 4.761
91 PO2 2 8.179
91 PO2 3 11.108
91 PO2 4 11.597
91 PO2 5 10.620
91 PO2 6 6.714
91 PO2 7 3.296
91 PO2 8 -0.610
91 PO2 9 -4.028
91 PO2 10 -8.423
91 PO2 11 -13.306
91 PO2 12 -17.212
91 PO2 13 -19.653
91 PO2 14 -19.165
91 PO2 15 -15.259
91 PO2 16 -10.376
91 PO2 17 -5.005
91 PO2 18 -1.099
91 PO2 19 1.831
91 PO2 20 4.272
91 PO2 21 5.737
91 PO2 22 7.202
91 PO2 23 7.690
91 PO2 24 7.690
91 PO2 25 6.714
91 PO2 26 6.226
91 PO2 27 4.761
91 PO2 28 3.296
91 PO2 29 -0.610
91 PO2 30 -5.981
91 PO2 31 -12.817
91 PO2 32 -18.677
91 PO2 33 -22.095
91 PO2 34 -22.583
91 PO2 35 -20.630
91 PO2 36 -18.188
91 PO2 37 -16.724
91 PO2 38 -16.235
91 PO2 39 -16.235
91 PO2 40 -15.747
91 PO2 41 -13.794
91 PO2 42 -10.376
91 PO2 43 -5.981
91 PO2 44 -3.052
91 PO2 45 -0.610
91 PO2 46 1.343
91 PO2 47 4.761
91 PO2 48 8.667
91 PO2 49 12.573
91 PO2 50 14.526
91 PO2 51 13.550
91 PO2 52 9.155
91 PO2 53 3.784
91 PO2 54 -0.610
91 PO2 55 -3.052
91 PO2 56 -4.517
91 PO2 57 -5.493
91 PO2 58 -6.470
91 PO2 59 -7.935
91 PO2 60 -8.911
91 PO2 61 -8.423
91 PO2 62 -6.958
91 PO2 63 -5.493
91 PO2 64 -4.517
91 PO2 65 -4.028
91 PO2 66 -5.005
91 PO2 67 -6.958
91 PO2 68 -8.423
91 PO2 69 -9.888
91 PO2 70 -10.376
91 PO2 71 -8.911
91 PO2 72 -6.470
91 PO2 73 -3.540
91 PO2 74 -2.075
91 PO2 75 -1.587
91 PO2 76 -3.052
91 PO2 77 -5.005
91 PO2 78 -7.446
91 PO2 79 -8.911
91 PO2 80 -10.376
91 PO2 81 -11.353
91 PO2 82 -11.841
91 PO2 83 -11.353
91 PO2 84 -10.376
91 PO2 85 -8.423
91 PO2 86 -6.958
91 PO2 87 -5.981
91 PO2 88 -5.981
91 PO2 89 -6.958
91 PO2 90 -7.935
91 PO2 91 -8.911
91 PO2 92 -8.423
91 PO2 93 -6.958
91 PO2 94 -5.493
91 PO2 95 -4.028
91 PO2 96 -3.052
91 PO2 97 -2.075
91 PO2 98 -2.075
91 PO2 99 -2.075
91 PO2 100 -3.052
91 PO2 101 -5.005
91 PO2 102 -6.958
91 PO2 103 -9.399
91 PO2 104 -10.864
91 PO2 105 -10.864
91 PO2 106 -9.399
91 PO2 107 -7.446
91 PO2 108 -5.981
91 PO2 109 -4.517
91 PO2 110 -4.028
91 PO2 111 -3.052
91 PO2 112 -3.052
91 PO2 113 -4.028
91 PO2 114 -5.005
91 PO2 115 -5.981
91 PO2 116 -6.470
91 PO2 117 -5.981
91 PO2 118 -5.005
91 PO2 119 -4.028
91 PO2 120 -4.028
91 PO2 121 -3.540
91 PO2 122 -3.052
91 PO2 123 -2.075
91 PO2 124 -1.099
91 PO2 125 -0.610
91 PO2 126 -1.099
91 PO2 127 -2.075
91 PO2 128 -2.563
91 PO2 129 -2.075
91 PO2 130 -1.099
91 PO2 131 -0.610
91 PO2 132 -1.099
91 PO2 133 -1.587
91 PO2 134 -2.563
91 PO2 135 -1.587
91 PO2 136 -0.122
91 PO2 137 1.343
91 PO2 138 2.808
91 PO2 139 2.808
91 PO2 140 2.319
91 PO2 141 1.343
91 PO2 142 1.831
91 PO2 143 1.831
91 PO2 144 1.831
91 PO2 145 1.831
91 PO2 146 1.343
91 PO2 147 0.854
91 PO2 148 0.366
91 PO2 149 0.854
91 PO2 150 1.343
91 PO2 151 1.831
91 PO2 152 1.343
91 PO2 153 0.854
91 PO2 154 0.854
91 PO2 155 0.854
91 PO2 156 2.319
91 PO2 157 4.272
91 PO2 158 6.226
91 PO2 159 8.179
91 PO2 160 9.644
91 PO2 161 10.132
91 PO2 162 10.132
91 PO2 163 9.644
91 PO2 164 9.155
91 PO2 165 9.155
91 PO2 166 7.690
91 PO2 167 6.226
91 PO2 168 3.784
91 PO2 169 2.319
91 PO2 170 2.319
91 PO2 171 3.784
91 PO2 172 6.714
91 PO2 173 8.667
91 PO2 174 9.644
91 PO2 175 8.179
91 PO2 176 6.714
91 PO2 177 4.761
91 PO2 178 4.761
91 PO2 179 5.249
91 PO2 180 6.226
91 PO2 181 7.202
91 PO2 182 7.690
91 PO2 183 8.179
91 PO2 184 7.690
91 PO2 185 6.714
91 PO2 186 4.761
91 PO2 187 1.831
91 PO2 188 -1.099
91 PO2 189 -2.075
91 PO2 190 -1.587
91 PO2 191 0.366
91 PO2 192 1.831
91 PO2 193 2.808
91 PO2 194 3.296
91 PO2 195 3.296
91 PO2 196 3.784
91 PO2 197 4.761
91 PO2 198 5.249
91 PO2 199 5.737
91 PO2 200 4.761
91 PO2 201 3.784
91 PO2 202 2.319
91 PO2 203 1.831
91 PO2 204 1.831
91 PO2 205 3.296
91 PO2 206 4.761
91 PO2 207 5.737
91 PO2 208 6.714
91 PO2 209 7.202
91 PO2 210 6.714
91 PO2 211 6.226
91 PO2 212 4.761
91 PO2 213 3.784
91 PO2 214 2.319
91 PO2 215 1.831
91 PO2 216 1.343
91 PO2 217 0.854
91 PO2 218 0.854
91 PO2 219 -0.122
91 PO2 220 -1.099
91 PO2 221 -3.052
91 PO2 222 -5.493
91 PO2 223 -7.446
91 PO2 224 -7.935
91 PO2 225 -7.446
91 PO2 226 -6.470
91 PO2 227 -5.493
91 PO2 228 -4.517
91 PO2 229 -3.052
91 PO2 230 -1.587
91 PO2 231 0.854
91 PO2 232 2.808
91 PO2 233 3.784
91 PO2 234 3.296
91 PO2 235 1.343
91 PO2 236 -2.075
91 PO2 237 -4.517
91 PO2 238 -6.470
91 PO2 239 -7.446
91 PO2 240 -8.423
91 PO2 241 -8.911
91 PO2 242 -9.399
91 PO2 243 -8.911
91 PO2 244 -8.423
91 PO2 245 -7.446
91 PO2 246 -6.470
