# co2a0000447.rd
# 120 trials, 64 chans, 416 samples 368 post_stim samples
# 3.906000 msecs uV
# S2 match , trial 9
# FP1 chan 0
9 FP1 0 2.187
9 FP1 1 4.140
9 FP1 2 4.628
9 FP1 3 3.652
9 FP1 4 1.699
9 FP1 5 -0.254
9 FP1 6 -1.719
9 FP1 7 -2.696
9 FP1 8 -3.672
9 FP1 9 -4.649
9 FP1 10 -4.649
9 FP1 11 -3.184
9 FP1 12 0.234
9 FP1 13 4.628
9 FP1 14 8.046
9 FP1 15 10.000
9 FP1 16 10.000
9 FP1 17 8.046
9 FP1 18 5.117
9 FP1 19 2.675
9 FP1 20 0.722
9 FP1 21 -1.231
9 FP1 22 -2.207
9 FP1 23 -2.207
9 FP1 24 -1.231
9 FP1 25 1.211
9 FP1 26 3.164
9 FP1 27 4.628
9 FP1 28 5.117
9 FP1 29 5.117
9 FP1 30 6.582
9 FP1 31 8.535
9 FP1 32 9.511
9 FP1 33 9.511
9 FP1 34 7.070
9 FP1 35 3.652
9 FP1 36 2.187
9 FP1 37 2.675
9 FP1 38 4.628
9 FP1 39 8.046
9 FP1 40 10.000
9 FP1 41 10.000
9 FP1 42 9.023
9 FP1 43 8.046
9 FP1 44 7.558
9 FP1 45 8.535
9 FP1 46 9.511
9 FP1 47 10.000
9 FP1 48 9.511
9 FP1 49 7.558
9 FP1 50 5.605
9 FP1 51 4.628
9 FP1 52 4.628
9 FP1 53 6.582
9 FP1 54 10.000
9 FP1 55 13.418
9 FP1 56 15.371
9 FP1 57 15.859
9 FP1 58 14.882
9 FP1 59 12.929
9 FP1 60 11.464
9 FP1 61 10.488
9 FP1 62 10.000
9 FP1 63 10.000
9 FP1 64 9.511
9 FP1 65 9.023
9 FP1 66 8.535
9 FP1 67 8.535
9 FP1 68 8.046
9 FP1 69 8.046
9 FP1 70 7.070
9 FP1 71 5.117
9 FP1 72 4.140
9 FP1 73 4.140
9 FP1 74 5.605
9 FP1 75 8.046
9 FP1 76 9.511
9 FP1 77 10.488
9 FP1 78 10.000
9 FP1 79 8.535
9 FP1 80 7.558
9 FP1 81 5.605
9 FP1 82 3.164
9 FP1 83 0.234
9 FP1 84 -2.207
9 FP1 85 -3.672
9 FP1 86 -4.161
9 FP1 87 -3.672
9 FP1 88 -3.672
9 FP1 89 -4.649
9 FP1 90 -4.649
9 FP1 91 -3.672
9 FP1 92 -2.696
9 FP1 93 -1.719
9 FP1 94 -1.231
9 FP1 95 -2.207
9 FP1 96 -1.231
9 FP1 97 0.722
9 FP1 98 4.140
9 FP1 99 7.558
9 FP1 100 9.511
9 FP1 101 8.046
9 FP1 102 4.140
9 FP1 103 0.722
9 FP1 104 -1.231
9 FP1 105 -0.254
9 FP1 106 1.699
9 FP1 107 3.164
9 FP1 108 2.675
9 FP1 109 0.722
9 FP1 110 -1.231
9 FP1 111 -2.207
9 FP1 112 -0.743
9 FP1 113 1.699
9 FP1 114 3.652
9 FP1 115 4.628
9 FP1 116 4.140
9 FP1 117 3.652
9 FP1 118 3.164
9 FP1 119 4.628
9 FP1 120 7.558
9 FP1 121 10.976
9 FP1 122 14.394
9 FP1 123 16.836
9 FP1 124 17.812
9 FP1 125 16.347
9 FP1 126 13.906
9 FP1 127 10.488
9 FP1 128 7.070
9 FP1 129 4.140
9 FP1 130 1.211
9 FP1 131 -1.231
9 FP1 132 -3.184
9 FP1 133 -4.649
9 FP1 134 -4.649
9 FP1 135 -3.184
9 FP1 136 -0.743
9 FP1 137 1.211
9 FP1 138 2.187
9 FP1 139 1.211
9 FP1 140 -0.254
9 FP1 141 -1.719
9 FP1 142 -2.207
9 FP1 143 -1.719
9 FP1 144 0.234
9 FP1 145 1.211
9 FP1 146 2.187
9 FP1 147 2.675
9 FP1 148 2.675
9 FP1 149 2.675
9 FP1 150 2.187
9 FP1 151 1.211
9 FP1 152 -0.254
9 FP1 153 -3.184
9 FP1 154 -5.625
9 FP1 155 -7.090
9 FP1 156 -6.602
9 FP1 157 -5.137
9 FP1 158 -3.184
9 FP1 159 -2.207
9 FP1 160 -2.696
9 FP1 161 -3.672
9 FP1 162 -5.137
9 FP1 163 -5.625
9 FP1 164 -4.649
9 FP1 165 -2.696
9 FP1 166 0.234
9 FP1 167 2.187
9 FP1 168 4.628
9 FP1 169 6.582
9 FP1 170 8.535
9 FP1 171 9.511
9 FP1 172 9.023
9 FP1 173 6.582
9 FP1 174 2.675
9 FP1 175 -1.231
9 FP1 176 -4.161
9 FP1 177 -5.625
9 FP1 178 -5.137
9 FP1 179 -4.161
9 FP1 180 -3.184
9 FP1 181 -2.696
9 FP1 182 -3.184
9 FP1 183 -3.184
9 FP1 184 -2.207
9 FP1 185 -0.254
9 FP1 186 3.164
9 FP1 187 5.605
9 FP1 188 6.582
9 FP1 189 6.093
9 FP1 190 3.652
9 FP1 191 1.699
9 FP1 192 0.234
9 FP1 193 -0.743
9 FP1 194 -1.719
9 FP1 195 -2.207
9 FP1 196 -2.696
9 FP1 197 -2.696
9 FP1 198 -2.207
9 FP1 199 -3.184
9 FP1 200 -5.137
9 FP1 201 -8.555
9 FP1 202 -10.508
9 FP1 203 -10.508
9 FP1 204 -7.579
9 FP1 205 -3.672
9 FP1 206 0.234
9 FP1 207 1.699
9 FP1 208 0.722
9 FP1 209 -1.231
9 FP1 210 -1.719
9 FP1 211 -0.743
9 FP1 212 0.722
9 FP1 213 2.187
9 FP1 214 1.211
9 FP1 215 -0.254
9 FP1 216 -1.719
9 FP1 217 -2.696
9 FP1 218 -2.696
9 FP1 219 -2.696
9 FP1 220 -2.696
9 FP1 221 -2.207
9 FP1 222 -0.743
9 FP1 223 1.211
9 FP1 224 4.140
9 FP1 225 6.093
9 FP1 226 6.582
9 FP1 227 5.117
9 FP1 228 2.675
9 FP1 229 0.234
9 FP1 230 -1.231
9 FP1 231 -1.719
9 FP1 232 -1.719
9 FP1 233 -0.254
9 FP1 234 2.675
9 FP1 235 6.582
9 FP1 236 10.000
9 FP1 237 11.464
9 FP1 238 10.976
9 FP1 239 8.046
9 FP1 240 3.652
9 FP1 241 0.722
9 FP1 242 -0.743
9 FP1 243 -0.743
9 FP1 244 -0.743
9 FP1 245 -0.254
9 FP1 246 -0.254
9 FP1 247 0.722
9 FP1 248 2.675
9 FP1 249 4.628
9 FP1 250 5.605
9 FP1 251 4.628
9 FP1 252 2.675
9 FP1 253 0.722
9 FP1 254 0.722
9 FP1 255 2.675
# FP2 chan 1
9 FP2 0 3.194
9 FP2 1 4.659
9 FP2 2 5.147
9 FP2 3 4.171
9 FP2 4 2.706
9 FP2 5 0.753
9 FP2 6 -0.712
9 FP2 7 -1.689
9 FP2 8 -2.665
9 FP2 9 -3.642
9 FP2 10 -3.153
9 FP2 11 -1.689
9 FP2 12 1.729
9 FP2 13 5.636
9 FP2 14 8.077
9 FP2 15 9.054
9 FP2 16 7.589
9 FP2 17 5.636
9 FP2 18 3.682
9 FP2 19 2.218
9 FP2 20 0.264
9 FP2 21 -1.200
9 FP2 22 -2.177
9 FP2 23 -2.177
9 FP2 24 -0.712
9 FP2 25 1.241
9 FP2 26 2.706
9 FP2 27 3.682
9 FP2 28 4.171
9 FP2 29 5.636
9 FP2 30 8.077
9 FP2 31 10.518
9 FP2 32 11.983
9 FP2 33 11.007
9 FP2 34 8.077
9 FP2 35 5.147
9 FP2 36 3.682
9 FP2 37 3.682
9 FP2 38 5.636
9 FP2 39 7.589
9 FP2 40 9.054
9 FP2 41 9.054
9 FP2 42 9.054
9 FP2 43 8.565
9 FP2 44 8.565
9 FP2 45 9.054
9 FP2 46 10.030
9 FP2 47 9.542
9 FP2 48 8.565
9 FP2 49 7.100
9 FP2 50 4.659
9 FP2 51 3.682
9 FP2 52 4.659
9 FP2 53 7.100
9 FP2 54 11.007
9 FP2 55 13.936
9 FP2 56 15.401
9 FP2 57 14.425
9 FP2 58 11.983
9 FP2 59 10.030
9 FP2 60 8.565
9 FP2 61 7.589
9 FP2 62 7.100
9 FP2 63 6.612
9 FP2 64 6.124
9 FP2 65 5.636
9 FP2 66 5.147
9 FP2 67 5.636
9 FP2 68 5.636
9 FP2 69 6.124
9 FP2 70 5.636
9 FP2 71 4.659
9 FP2 72 3.194
9 FP2 73 2.706
9 FP2 74 2.706
9 FP2 75 5.147
9 FP2 76 8.077
9 FP2 77 11.007
9 FP2 78 11.495
9 FP2 79 10.030
9 FP2 80 7.100
9 FP2 81 4.171
9 FP2 82 1.241
9 FP2 83 -1.200
9 FP2 84 -3.153
9 FP2 85 -4.618
9 FP2 86 -5.107
9 FP2 87 -5.107
9 FP2 88 -5.107
9 FP2 89 -4.618
9 FP2 90 -4.618
9 FP2 91 -4.618
9 FP2 92 -4.618
9 FP2 93 -4.618
9 FP2 94 -3.642
9 FP2 95 -3.153
9 FP2 96 -1.200
9 FP2 97 1.729
9 FP2 98 5.147
9 FP2 99 7.589
9 FP2 100 8.565
9 FP2 101 6.124
9 FP2 102 2.218
9 FP2 103 -1.200
9 FP2 104 -2.177
9 FP2 105 -1.200
9 FP2 106 1.241
9 FP2 107 2.218
9 FP2 108 1.729
9 FP2 109 -0.224
9 FP2 110 -2.177
9 FP2 111 -2.177
9 FP2 112 -1.200
9 FP2 113 0.264
9 FP2 114 1.241
9 FP2 115 1.241
9 FP2 116 1.241
9 FP2 117 1.729
9 FP2 118 2.218
9 FP2 119 2.706
9 FP2 120 4.171
9 FP2 121 6.124
9 FP2 122 9.542
9 FP2 123 13.448
9 FP2 124 16.378
9 FP2 125 16.866
9 FP2 126 14.913
9 FP2 127 10.518
9 FP2 128 6.124
9 FP2 129 2.218
9 FP2 130 -1.200
9 FP2 131 -3.642
9 FP2 132 -5.595
9 FP2 133 -5.595
9 FP2 134 -4.618
9 FP2 135 -1.689
9 FP2 136 1.729
9 FP2 137 3.682
9 FP2 138 4.171
9 FP2 139 2.218
9 FP2 140 -0.224
9 FP2 141 -2.665
9 FP2 142 -3.642
9 FP2 143 -2.177
9 FP2 144 -0.224
9 FP2 145 2.218
9 FP2 146 4.659
9 FP2 147 5.636
9 FP2 148 6.612
9 FP2 149 6.124
9 FP2 150 5.147
9 FP2 151 3.194
9 FP2 152 -0.224
9 FP2 153 -3.153
9 FP2 154 -5.595
9 FP2 155 -6.083
9 FP2 156 -4.618
9 FP2 157 -2.665
9 FP2 158 -1.200
9 FP2 159 -1.200
9 FP2 160 -1.689
9 FP2 161 -2.665
9 FP2 162 -3.642
9 FP2 163 -4.130
9 FP2 164 -4.618
9 FP2 165 -4.618
9 FP2 166 -3.153
9 FP2 167 -1.200
9 FP2 168 2.218
9 FP2 169 4.659
9 FP2 170 7.100
9 FP2 171 7.589
9 FP2 172 6.612
9 FP2 173 4.171
9 FP2 174 1.729
9 FP2 175 -0.224
9 FP2 176 -2.177
9 FP2 177 -2.665
9 FP2 178 -2.665
9 FP2 179 -1.689
9 FP2 180 -1.200
9 FP2 181 -1.689
9 FP2 182 -3.153
9 FP2 183 -3.642
9 FP2 184 -2.665
9 FP2 185 0.264
9 FP2 186 4.171
9 FP2 187 7.589
9 FP2 188 8.565
9 FP2 189 7.100
9 FP2 190 5.147
9 FP2 191 3.194
9 FP2 192 2.218
9 FP2 193 1.241
9 FP2 194 1.241
9 FP2 195 0.264
9 FP2 196 0.264
9 FP2 197 0.264
9 FP2 198 0.264
9 FP2 199 -0.712
9 FP2 200 -3.153
9 FP2 201 -4.618
9 FP2 202 -5.595
9 FP2 203 -3.642
9 FP2 204 -0.712
9 FP2 205 2.706
9 FP2 206 4.171
9 FP2 207 3.682
9 FP2 208 1.729
9 FP2 209 -0.224
9 FP2 210 -0.712
9 FP2 211 0.264
9 FP2 212 1.241
9 FP2 213 2.218
9 FP2 214 1.729
9 FP2 215 0.753
9 FP2 216 -0.712
9 FP2 217 -2.177
9 FP2 218 -2.665
9 FP2 219 -3.153
9 FP2 220 -3.153
9 FP2 221 -3.153
9 FP2 222 -2.177
9 FP2 223 0.753
9 FP2 224 4.659
9 FP2 225 8.565
9 FP2 226 10.518
9 FP2 227 10.518
9 FP2 228 7.589
9 FP2 229 3.682
9 FP2 230 0.264
9 FP2 231 -1.200
9 FP2 232 -1.200
9 FP2 233 0.753
9 FP2 234 4.659
9 FP2 235 8.565
9 FP2 236 11.983
9 FP2 237 12.960
9 FP2 238 10.518
9 FP2 239 6.612
9 FP2 240 2.218
9 FP2 241 -1.200
9 FP2 242 -2.177
9 FP2 243 -1.200
9 FP2 244 0.753
9 FP2 245 2.706
9 FP2 246 5.147
9 FP2 247 7.589
9 FP2 248 9.542
9 FP2 249 10.518
9 FP2 250 9.542
9 FP2 251 7.589
9 FP2 252 4.659
9 FP2 253 3.194
9 FP2 254 3.682
9 FP2 255 5.147
# F7 chan 2
9 F7 0 -3.357
9 F7 1 -1.892
9 F7 2 -0.916
9 F7 3 -1.892
9 F7 4 -2.869
9 F7 5 -3.845
9 F7 6 -4.333
9 F7 7 -4.822
9 F7 8 -5.310
9 F7 9 -6.775
9 F7 10 -7.263
9 F7 11 -5.798
9 F7 12 -2.380
9 F7 13 2.991
9 F7 14 7.385
9 F7 15 9.338
9 F7 16 8.850
9 F7 17 6.897
9 F7 18 4.456
9 F7 19 2.502
9 F7 20 1.038
9 F7 21 -0.916
9 F7 22 -2.380
9 F7 23 -2.869
9 F7 24 -0.427
9 F7 25 3.479
9 F7 26 8.362
9 F7 27 11.292
9 F7 28 11.292
9 F7 29 9.338
9 F7 30 6.897
9 F7 31 5.920
9 F7 32 5.432
9 F7 33 5.432
9 F7 34 4.456
9 F7 35 2.502
9 F7 36 1.038
9 F7 37 0.549
9 F7 38 2.502
9 F7 39 5.432
9 F7 40 7.874
9 F7 41 8.850
9 F7 42 8.850
9 F7 43 8.362
9 F7 44 8.850
9 F7 45 9.827
9 F7 46 11.780
9 F7 47 12.756
9 F7 48 12.268
9 F7 49 10.315
9 F7 50 8.850
9 F7 51 7.874
9 F7 52 7.874
9 F7 53 8.850
9 F7 54 10.803
9 F7 55 12.756
9 F7 56 13.733
9 F7 57 13.733
9 F7 58 12.268
9 F7 59 10.803
9 F7 60 8.850
9 F7 61 7.385
9 F7 62 5.920
9 F7 63 4.944
9 F7 64 3.967
9 F7 65 4.456
9 F7 66 5.920
9 F7 67 7.385
9 F7 68 8.362
9 F7 69 7.874
9 F7 70 5.432
9 F7 71 2.502
9 F7 72 0.061
9 F7 73 -0.427
9 F7 74 1.526
9 F7 75 5.432
9 F7 76 9.827
9 F7 77 13.733
9 F7 78 15.686
9 F7 79 16.174
9 F7 80 14.221
9 F7 81 11.292
9 F7 82 7.874
9 F7 83 4.456
9 F7 84 1.526
9 F7 85 0.061
9 F7 86 -1.404
9 F7 87 -0.916
9 F7 88 -0.916
9 F7 89 -0.427
9 F7 90 0.549
9 F7 91 0.549
9 F7 92 1.526
9 F7 93 2.014
9 F7 94 2.502
9 F7 95 2.991
9 F7 96 3.967
9 F7 97 5.432
9 F7 98 7.874
9 F7 99 9.827
9 F7 100 10.803
9 F7 101 9.827
9 F7 102 7.385
9 F7 103 3.967
9 F7 104 1.038
9 F7 105 0.061
9 F7 106 1.526
9 F7 107 3.479
9 F7 108 5.432
9 F7 109 5.432
9 F7 110 3.967
9 F7 111 2.014
9 F7 112 0.061
9 F7 113 0.549
9 F7 114 2.991
9 F7 115 6.409
9 F7 116 8.850
9 F7 117 10.315
9 F7 118 11.292
9 F7 119 12.756
9 F7 120 14.709
9 F7 121 18.127
9 F7 122 21.057
9 F7 123 22.034
9 F7 124 20.081
9 F7 125 16.663
9 F7 126 12.756
9 F7 127 9.827
9 F7 128 7.385
9 F7 129 4.944
9 F7 130 2.014
9 F7 131 -0.916
9 F7 132 -3.845
9 F7 133 -4.822
9 F7 134 -3.845
9 F7 135 -1.404
9 F7 136 1.038
9 F7 137 2.502
9 F7 138 2.502
9 F7 139 1.526
9 F7 140 0.061
9 F7 141 -0.427
9 F7 142 -0.916
9 F7 143 -1.892
9 F7 144 -2.869
9 F7 145 -3.845
9 F7 146 -3.845
9 F7 147 -2.380
9 F7 148 -0.916
9 F7 149 -0.427
9 F7 150 -1.404
9 F7 151 -4.333
9 F7 152 -7.263
9 F7 153 -8.240
9 F7 154 -7.263
9 F7 155 -4.333
9 F7 156 -2.380
9 F7 157 -1.404
9 F7 158 -1.892
9 F7 159 -2.869
9 F7 160 -3.357
9 F7 161 -3.845
9 F7 162 -3.845
9 F7 163 -3.357
9 F7 164 -2.380
9 F7 165 -0.427
9 F7 166 2.502
9 F7 167 6.897
9 F7 168 12.268
9 F7 169 16.174
9 F7 170 19.104
9 F7 171 19.104
9 F7 172 16.663
9 F7 173 10.803
9 F7 174 3.967
9 F7 175 -3.357
9 F7 176 -7.751
9 F7 177 -8.728
9 F7 178 -6.775
9 F7 179 -3.357
9 F7 180 -0.427
9 F7 181 0.549
9 F7 182 0.061
9 F7 183 -0.916
9 F7 184 -0.427
9 F7 185 1.526
9 F7 186 4.456
9 F7 187 6.897
9 F7 188 7.385
9 F7 189 5.920
9 F7 190 2.991
9 F7 191 0.061
9 F7 192 -2.380
9 F7 193 -3.357
9 F7 194 -3.357
9 F7 195 -3.357
9 F7 196 -3.357
9 F7 197 -4.333
9 F7 198 -6.287
9 F7 199 -8.728
9 F7 200 -11.658
9 F7 201 -14.099
9 F7 202 -16.541
9 F7 203 -17.029
9 F7 204 -15.076
9 F7 205 -10.193
9 F7 206 -5.310
9 F7 207 -0.916
9 F7 208 0.549
9 F7 209 0.061
9 F7 210 -0.916
9 F7 211 -1.404
9 F7 212 -1.404
9 F7 213 -1.404
9 F7 214 -1.892
9 F7 215 -3.845
9 F7 216 -5.310
9 F7 217 -5.798
9 F7 218 -4.822
9 F7 219 -3.845
9 F7 220 -2.869
9 F7 221 -2.380
9 F7 222 -1.892
9 F7 223 -0.427
9 F7 224 1.526
9 F7 225 2.502
9 F7 226 1.038
9 F7 227 -2.869
9 F7 228 -7.263
9 F7 229 -10.193
9 F7 230 -10.193
9 F7 231 -8.728
9 F7 232 -6.287
9 F7 233 -4.333
9 F7 234 -2.380
9 F7 235 -0.427
9 F7 236 1.526
9 F7 237 3.967
9 F7 238 5.432
9 F7 239 4.944
9 F7 240 2.502
9 F7 241 -0.916
9 F7 242 -4.333
9 F7 243 -6.287
9 F7 244 -8.240
9 F7 245 -9.216
9 F7 246 -10.193
9 F7 247 -10.681
9 F7 248 -9.705
9 F7 249 -8.240
9 F7 250 -7.751
9 F7 251 -7.263
9 F7 252 -7.751
9 F7 253 -8.240
9 F7 254 -7.263
9 F7 255 -4.333
# F8 chan 3
9 F8 0 0.651
9 F8 1 1.628
9 F8 2 2.116
9 F8 3 1.139
9 F8 4 0.163
9 F8 5 -1.302
9 F8 6 -2.279
9 F8 7 -2.767
9 F8 8 -3.255
9 F8 9 -3.255
9 F8 10 -2.767
9 F8 11 -1.302
9 F8 12 0.651
9 F8 13 3.092
9 F8 14 5.046
9 F8 15 6.022
9 F8 16 6.022
9 F8 17 5.534
9 F8 18 4.557
9 F8 19 3.581
9 F8 20 2.604
9 F8 21 1.139
9 F8 22 -0.326
9 F8 23 -1.302
9 F8 24 -1.302
9 F8 25 -0.814
9 F8 26 1.139
9 F8 27 3.092
9 F8 28 6.022
9 F8 29 9.440
9 F8 30 12.370
9 F8 31 13.835
9 F8 32 13.835
9 F8 33 10.905
9 F8 34 7.487
9 F8 35 4.557
9 F8 36 3.581
9 F8 37 5.046
9 F8 38 6.999
9 F8 39 8.464
9 F8 40 8.464
9 F8 41 6.999
9 F8 42 5.534
9 F8 43 5.046
9 F8 44 5.534
9 F8 45 6.022
9 F8 46 5.534
9 F8 47 5.046
9 F8 48 3.581
9 F8 49 2.604
9 F8 50 2.604
9 F8 51 2.604
9 F8 52 3.581
9 F8 53 5.046
9 F8 54 6.510
9 F8 55 8.464
9 F8 56 10.417
9 F8 57 11.393
9 F8 58 10.905
9 F8 59 9.440
9 F8 60 6.999
9 F8 61 5.046
9 F8 62 3.092
9 F8 63 1.628
9 F8 64 1.139
9 F8 65 0.651
9 F8 66 1.628
9 F8 67 3.092
9 F8 68 4.557
9 F8 69 6.022
9 F8 70 6.510
9 F8 71 6.022
9 F8 72 5.534
9 F8 73 6.510
9 F8 74 7.487
9 F8 75 9.440
9 F8 76 10.417
9 F8 77 10.905
9 F8 78 10.905
9 F8 79 11.393
9 F8 80 11.882
9 F8 81 10.905
9 F8 82 8.952
9 F8 83 5.534
9 F8 84 1.628
9 F8 85 -1.302
9 F8 86 -2.767
9 F8 87 -2.279
9 F8 88 -1.790
9 F8 89 -0.814
9 F8 90 -0.814
9 F8 91 -0.814
9 F8 92 -0.814
9 F8 93 -0.814
9 F8 94 0.163
9 F8 95 2.604
9 F8 96 6.022
9 F8 97 9.440
9 F8 98 12.370
9 F8 99 12.370
9 F8 100 9.440
9 F8 101 5.534
9 F8 102 1.139
9 F8 103 -1.302
9 F8 104 -1.302
9 F8 105 -0.326
9 F8 106 1.139
9 F8 107 1.139
9 F8 108 0.163
9 F8 109 -1.302
9 F8 110 -1.790
9 F8 111 -1.302
9 F8 112 -0.326
9 F8 113 1.139
9 F8 114 2.604
9 F8 115 2.604
9 F8 116 1.628
9 F8 117 0.651
9 F8 118 0.651
9 F8 119 2.116
9 F8 120 5.046
9 F8 121 8.952
9 F8 122 12.370
9 F8 123 14.811
9 F8 124 16.276
9 F8 125 15.788
9 F8 126 14.323
9 F8 127 11.393
9 F8 128 7.487
9 F8 129 3.581
9 F8 130 -0.814
9 F8 131 -4.232
9 F8 132 -5.697
9 F8 133 -5.208
9 F8 134 -2.279
9 F8 135 2.604
9 F8 136 6.999
9 F8 137 10.417
9 F8 138 10.417
9 F8 139 8.464
9 F8 140 3.581
9 F8 141 -1.302
9 F8 142 -4.720
9 F8 143 -5.697
9 F8 144 -3.743
9 F8 145 0.651
9 F8 146 6.510
9 F8 147 11.393
9 F8 148 14.323
9 F8 149 14.323
9 F8 150 11.882
9 F8 151 7.487
9 F8 152 2.116
9 F8 153 -2.279
9 F8 154 -5.208
9 F8 155 -6.185
9 F8 156 -5.697
9 F8 157 -4.720
9 F8 158 -3.743
9 F8 159 -2.279
9 F8 160 -1.790
9 F8 161 -1.302
9 F8 162 -1.790
9 F8 163 -1.790
9 F8 164 -2.279
9 F8 165 -3.255
9 F8 166 -3.255
9 F8 167 -3.255
9 F8 168 -1.790
9 F8 169 -0.814
9 F8 170 1.139
9 F8 171 2.116
9 F8 172 2.604
9 F8 173 3.092
9 F8 174 3.581
9 F8 175 4.069
9 F8 176 4.557
9 F8 177 4.069
9 F8 178 3.092
9 F8 179 1.628
9 F8 180 -0.326
9 F8 181 -1.790
9 F8 182 -2.279
9 F8 183 -1.790
9 F8 184 -0.326
9 F8 185 1.628
9 F8 186 4.557
9 F8 187 6.510
9 F8 188 7.487
9 F8 189 6.999
9 F8 190 5.534
9 F8 191 4.557
9 F8 192 4.069
9 F8 193 4.069
9 F8 194 4.069
9 F8 195 3.092
9 F8 196 2.116
9 F8 197 1.628
9 F8 198 2.116
9 F8 199 2.116
9 F8 200 2.116
9 F8 201 1.628
9 F8 202 1.139
9 F8 203 2.604
9 F8 204 4.557
9 F8 205 6.999
9 F8 206 8.464
9 F8 207 6.999
9 F8 208 4.557
9 F8 209 2.116
9 F8 210 0.651
9 F8 211 1.628
9 F8 212 3.092
9 F8 213 3.581
9 F8 214 2.604
9 F8 215 1.139
9 F8 216 -0.326
9 F8 217 -0.814
9 F8 218 -1.302
9 F8 219 -1.790
9 F8 220 -2.767
9 F8 221 -2.767
9 F8 222 -0.326
9 F8 223 4.069
9 F8 224 8.952
9 F8 225 12.370
9 F8 226 13.346
9 F8 227 11.882
9 F8 228 9.440
9 F8 229 6.999
9 F8 230 4.557
9 F8 231 3.092
9 F8 232 2.604
9 F8 233 3.581
9 F8 234 6.510
9 F8 235 9.440
9 F8 236 11.882
9 F8 237 10.905
9 F8 238 6.999
9 F8 239 2.116
9 F8 240 -2.279
9 F8 241 -3.255
9 F8 242 -0.814
9 F8 243 2.116
9 F8 244 4.557
9 F8 245 5.534
9 F8 246 6.022
9 F8 247 6.999
9 F8 248 9.440
9 F8 249 12.370
9 F8 250 14.323
9 F8 251 14.811
9 F8 252 13.835
9 F8 253 12.370
9 F8 254 10.417
9 F8 255 7.487
# AF1 chan 4
9 AF1 0 4.222
9 AF1 1 5.686
9 AF1 2 6.175
9 AF1 3 5.198
9 AF1 4 2.757
9 AF1 5 0.315
9 AF1 6 -1.638
9 AF1 7 -2.126
9 AF1 8 -2.614
9 AF1 9 -3.591
9 AF1 10 -4.079
9 AF1 11 -4.567
9 AF1 12 -3.591
9 AF1 13 -2.126
9 AF1 14 -0.173
9 AF1 15 1.780
9 AF1 16 2.757
9 AF1 17 2.268
9 AF1 18 0.804
9 AF1 19 -1.638
9 AF1 20 -4.079
9 AF1 21 -6.032
9 AF1 22 -7.009
9 AF1 23 -7.497
9 AF1 24 -6.521
9 AF1 25 -5.056
9 AF1 26 -3.103
9 AF1 27 -1.149
9 AF1 28 0.804
9 AF1 29 2.268
9 AF1 30 3.245
9 AF1 31 4.222
9 AF1 32 4.222
9 AF1 33 3.245
9 AF1 34 2.268
9 AF1 35 0.804
9 AF1 36 0.804
9 AF1 37 1.780
9 AF1 38 2.757
9 AF1 39 4.222
9 AF1 40 5.198
9 AF1 41 4.710
9 AF1 42 4.710
9 AF1 43 4.710
9 AF1 44 4.710
9 AF1 45 5.686
9 AF1 46 7.151
9 AF1 47 8.128
9 AF1 48 8.128
9 AF1 49 6.663
9 AF1 50 4.222
9 AF1 51 2.268
9 AF1 52 1.780
9 AF1 53 4.222
9 AF1 54 8.128
9 AF1 55 12.034
9 AF1 56 14.476
9 AF1 57 14.476
9 AF1 58 13.011
9 AF1 59 11.058
9 AF1 60 9.593
9 AF1 61 9.593
9 AF1 62 10.081
9 AF1 63 10.081
9 AF1 64 9.593
9 AF1 65 7.640
9 AF1 66 5.198
9 AF1 67 2.268
9 AF1 68 -0.173
9 AF1 69 -2.126
9 AF1 70 -3.591
9 AF1 71 -3.591
9 AF1 72 -3.103
9 AF1 73 -1.638
9 AF1 74 0.315
9 AF1 75 2.268
9 AF1 76 3.245
9 AF1 77 3.245
9 AF1 78 3.733
9 AF1 79 2.757
9 AF1 80 2.268
9 AF1 81 0.315
9 AF1 82 -2.614
9 AF1 83 -5.544
9 AF1 84 -7.497
9 AF1 85 -8.474
9 AF1 86 -8.474
9 AF1 87 -8.474
9 AF1 88 -8.474
9 AF1 89 -8.474
9 AF1 90 -8.474
9 AF1 91 -7.009
9 AF1 92 -5.544
9 AF1 93 -4.079
9 AF1 94 -3.591
9 AF1 95 -4.567
9 AF1 96 -5.056
9 AF1 97 -4.567
9 AF1 98 -2.614
9 AF1 99 -0.173
9 AF1 100 1.292
9 AF1 101 0.315
9 AF1 102 -2.126
9 AF1 103 -5.056
9 AF1 104 -6.521
9 AF1 105 -6.521
9 AF1 106 -5.056
9 AF1 107 -3.591
9 AF1 108 -3.591
9 AF1 109 -5.056
9 AF1 110 -7.497
9 AF1 111 -8.962
9 AF1 112 -8.962
9 AF1 113 -7.497
9 AF1 114 -6.032
9 AF1 115 -4.567
9 AF1 116 -4.567
9 AF1 117 -5.056
9 AF1 118 -5.056
9 AF1 119 -4.567
9 AF1 120 -2.614
9 AF1 121 0.804
9 AF1 122 4.222
9 AF1 123 7.151
9 AF1 124 8.128
9 AF1 125 7.151
9 AF1 126 4.222
9 AF1 127 0.315
9 AF1 128 -3.103
9 AF1 129 -5.056
9 AF1 130 -6.521
9 AF1 131 -8.474
9 AF1 132 -10.427
9 AF1 133 -12.380
9 AF1 134 -12.868
9 AF1 135 -11.892
9 AF1 136 -9.450
9 AF1 137 -7.497
9 AF1 138 -6.521
9 AF1 139 -7.497
9 AF1 140 -8.962
9 AF1 141 -9.450
9 AF1 142 -9.450
9 AF1 143 -8.474
9 AF1 144 -7.985
9 AF1 145 -7.985
9 AF1 146 -7.985
9 AF1 147 -7.009
9 AF1 148 -5.056
9 AF1 149 -3.103
9 AF1 150 -2.126
9 AF1 151 -2.614
9 AF1 152 -4.567
9 AF1 153 -7.009
9 AF1 154 -8.962
9 AF1 155 -9.939
9 AF1 156 -10.427
9 AF1 157 -10.427
9 AF1 158 -10.427
9 AF1 159 -9.939
9 AF1 160 -9.939
9 AF1 161 -9.450
9 AF1 162 -9.450
9 AF1 163 -9.450
9 AF1 164 -9.450
9 AF1 165 -7.497
9 AF1 166 -5.056
9 AF1 167 -0.661
9 AF1 168 3.245
9 AF1 169 7.640
9 AF1 170 10.081
9 AF1 171 10.081
9 AF1 172 8.128
9 AF1 173 4.710
9 AF1 174 0.804
9 AF1 175 -2.126
9 AF1 176 -4.079
9 AF1 177 -4.567
9 AF1 178 -4.567
9 AF1 179 -4.079
9 AF1 180 -4.079
9 AF1 181 -3.591
9 AF1 182 -2.614
9 AF1 183 -1.149
9 AF1 184 0.804
9 AF1 185 3.733
9 AF1 186 5.686
9 AF1 187 7.640
9 AF1 188 8.128
9 AF1 189 7.640
9 AF1 190 6.175
9 AF1 191 5.686
9 AF1 192 4.710
9 AF1 193 3.733
9 AF1 194 1.780
9 AF1 195 0.315
9 AF1 196 -1.149
9 AF1 197 -2.126
9 AF1 198 -2.126
9 AF1 199 -1.638
9 AF1 200 -1.638
9 AF1 201 -2.614
9 AF1 202 -3.591
9 AF1 203 -4.079
9 AF1 204 -2.614
9 AF1 205 0.315
9 AF1 206 3.245
9 AF1 207 4.710
9 AF1 208 4.222
9 AF1 209 2.757
9 AF1 210 2.268
9 AF1 211 4.222
9 AF1 212 8.128
9 AF1 213 12.034
9 AF1 214 13.011
9 AF1 215 10.081
9 AF1 216 5.686
9 AF1 217 1.780
9 AF1 218 0.315
9 AF1 219 1.292
9 AF1 220 2.757
9 AF1 221 4.222
9 AF1 222 4.710
9 AF1 223 4.222
9 AF1 224 4.222
9 AF1 225 5.198
9 AF1 226 6.175
9 AF1 227 7.151
9 AF1 228 6.663
9 AF1 229 6.175
9 AF1 230 4.710
9 AF1 231 3.733
9 AF1 232 3.245
9 AF1 233 3.733
9 AF1 234 6.175
9 AF1 235 9.104
9 AF1 236 13.011
9 AF1 237 14.476
9 AF1 238 13.987
9 AF1 239 11.058
9 AF1 240 6.663
9 AF1 241 3.245
9 AF1 242 1.292
9 AF1 243 1.292
9 AF1 244 2.268
9 AF1 245 2.757
9 AF1 246 3.733
9 AF1 247 5.198
9 AF1 248 7.640
9 AF1 249 9.593
9 AF1 250 10.081
9 AF1 251 8.616
9 AF1 252 6.175
9 AF1 253 4.222
9 AF1 254 4.222
9 AF1 255 6.175
# AF2 chan 5
9 AF2 0 1.862
9 AF2 1 3.326
9 AF2 2 3.815
9 AF2 3 3.326
9 AF2 4 1.862
9 AF2 5 0.885
9 AF2 6 0.397
9 AF2 7 -0.580
9 AF2 8 -1.556
9 AF2 9 -3.021
9 AF2 10 -3.021
9 AF2 11 -2.533
9 AF2 12 -0.092
9 AF2 13 3.815
9 AF2 14 6.744
9 AF2 15 8.209
9 AF2 16 7.721
9 AF2 17 6.744
9 AF2 18 4.791
9 AF2 19 3.326
9 AF2 20 2.350
9 AF2 21 0.885
9 AF2 22 -1.068
9 AF2 23 -2.045
9 AF2 24 -2.045
9 AF2 25 -0.580
9 AF2 26 1.373
9 AF2 27 2.838
9 AF2 28 4.791
9 AF2 29 6.256
9 AF2 30 7.721
9 AF2 31 9.186
9 AF2 32 9.186
9 AF2 33 7.721
9 AF2 34 5.280
9 AF2 35 3.326
9 AF2 36 2.350
9 AF2 37 3.326
9 AF2 38 5.768
9 AF2 39 8.209
9 AF2 40 9.186
9 AF2 41 8.209
9 AF2 42 6.744
9 AF2 43 5.768
9 AF2 44 5.280
9 AF2 45 6.256
9 AF2 46 7.233
9 AF2 47 7.233
9 AF2 48 6.744
9 AF2 49 5.768
9 AF2 50 4.791
9 AF2 51 4.791
9 AF2 52 5.768
9 AF2 53 6.744
9 AF2 54 9.186
9 AF2 55 11.139
9 AF2 56 12.604
9 AF2 57 13.092
9 AF2 58 12.115
9 AF2 59 11.139
9 AF2 60 9.674
9 AF2 61 9.186
9 AF2 62 8.698
9 AF2 63 8.209
9 AF2 64 7.233
9 AF2 65 5.768
9 AF2 66 5.280
9 AF2 67 5.280
9 AF2 68 5.768
9 AF2 69 6.256
9 AF2 70 6.256
9 AF2 71 5.768
9 AF2 72 4.791
9 AF2 73 4.791
9 AF2 74 5.280
9 AF2 75 6.744
9 AF2 76 8.209
9 AF2 77 9.186
9 AF2 78 9.186
9 AF2 79 8.209
9 AF2 80 6.744
9 AF2 81 5.280
9 AF2 82 3.326
9 AF2 83 1.373
9 AF2 84 -0.580
9 AF2 85 -1.556
9 AF2 86 -2.533
9 AF2 87 -3.021
9 AF2 88 -3.021
9 AF2 89 -3.510
9 AF2 90 -3.510
9 AF2 91 -3.510
9 AF2 92 -3.021
9 AF2 93 -2.533
9 AF2 94 -1.556
9 AF2 95 -0.580
9 AF2 96 1.373
9 AF2 97 4.303
9 AF2 98 6.744
9 AF2 99 8.209
9 AF2 100 7.233
9 AF2 101 4.791
9 AF2 102 1.862
9 AF2 103 -0.092
9 AF2 104 -0.580
9 AF2 105 0.885
9 AF2 106 2.838
9 AF2 107 3.326
9 AF2 108 2.838
9 AF2 109 0.397
9 AF2 110 -2.045
9 AF2 111 -3.510
9 AF2 112 -3.021
9 AF2 113 -1.556
9 AF2 114 -0.092
9 AF2 115 1.373
9 AF2 116 0.885
9 AF2 117 0.885
9 AF2 118 0.397
9 AF2 119 1.373
9 AF2 120 3.815
9 AF2 121 6.744
9 AF2 122 10.162
9 AF2 123 12.604
9 AF2 124 13.580
9 AF2 125 13.092
9 AF2 126 11.627
9 AF2 127 8.698
9 AF2 128 5.768
9 AF2 129 1.862
9 AF2 130 -1.556
9 AF2 131 -4.974
9 AF2 132 -6.927
9 AF2 133 -7.904
9 AF2 134 -6.927
9 AF2 135 -3.998
9 AF2 136 -1.068
9 AF2 137 1.862
9 AF2 138 2.838
9 AF2 139 1.862
9 AF2 140 -0.092
9 AF2 141 -2.045
9 AF2 142 -3.021
9 AF2 143 -3.021
9 AF2 144 -1.556
9 AF2 145 0.397
9 AF2 146 2.350
9 AF2 147 4.791
9 AF2 148 6.256
9 AF2 149 6.744
9 AF2 150 5.768
9 AF2 151 3.815
9 AF2 152 0.397
9 AF2 153 -2.533
9 AF2 154 -4.974
9 AF2 155 -5.463
9 AF2 156 -4.486
9 AF2 157 -2.533
9 AF2 158 -1.556
9 AF2 159 -0.580
9 AF2 160 -1.068
9 AF2 161 -2.533
9 AF2 162 -3.998
9 AF2 163 -4.974
9 AF2 164 -4.486
9 AF2 165 -3.510
9 AF2 166 -2.045
9 AF2 167 -0.580
9 AF2 168 1.373
9 AF2 169 2.838
9 AF2 170 4.303
9 AF2 171 5.280
9 AF2 172 5.768
9 AF2 173 4.303
9 AF2 174 1.862
9 AF2 175 -1.068
9 AF2 176 -3.510
9 AF2 177 -4.486
9 AF2 178 -3.998
9 AF2 179 -3.021
9 AF2 180 -2.533
9 AF2 181 -3.510
9 AF2 182 -3.998
9 AF2 183 -4.486
9 AF2 184 -3.021
9 AF2 185 -0.092
9 AF2 186 2.838
9 AF2 187 5.280
9 AF2 188 5.768
9 AF2 189 4.791
9 AF2 190 3.326
9 AF2 191 1.373
9 AF2 192 -0.092
9 AF2 193 -1.068
9 AF2 194 -1.556
9 AF2 195 -2.045
9 AF2 196 -2.045
9 AF2 197 -1.556
9 AF2 198 -1.556
9 AF2 199 -2.045
9 AF2 200 -3.510
9 AF2 201 -4.486
9 AF2 202 -4.974
9 AF2 203 -4.486
9 AF2 204 -2.533
9 AF2 205 -0.092
9 AF2 206 1.373
9 AF2 207 1.373
9 AF2 208 -0.092
9 AF2 209 -1.556
9 AF2 210 -2.045
9 AF2 211 -1.068
9 AF2 212 0.397
9 AF2 213 0.885
9 AF2 214 -0.092
9 AF2 215 -1.068
9 AF2 216 -2.045
9 AF2 217 -2.533
9 AF2 218 -1.556
9 AF2 219 -1.068
9 AF2 220 -2.045
9 AF2 221 -2.533
9 AF2 222 -2.533
9 AF2 223 -1.556
9 AF2 224 1.373
9 AF2 225 4.791
9 AF2 226 6.744
9 AF2 227 7.233
9 AF2 228 5.280
9 AF2 229 2.838
9 AF2 230 -0.092
9 AF2 231 -2.533
9 AF2 232 -3.021
9 AF2 233 -1.556
9 AF2 234 1.373
9 AF2 235 5.280
9 AF2 236 8.209
9 AF2 237 9.186
9 AF2 238 7.233
9 AF2 239 3.815
9 AF2 240 0.397
9 AF2 241 -1.556
9 AF2 242 -2.045
9 AF2 243 -1.068
9 AF2 244 -0.580
9 AF2 245 -0.092
9 AF2 246 0.885
9 AF2 247 2.838
9 AF2 248 5.280
9 AF2 249 7.233
9 AF2 250 7.233
9 AF2 251 5.768
9 AF2 252 3.326
9 AF2 253 1.373
9 AF2 254 0.885
9 AF2 255 1.373
# FZ chan 6
9 FZ 0 6.337
9 FZ 1 7.802
9 FZ 2 8.291
9 FZ 3 7.314
9 FZ 4 5.361
9 FZ 5 4.384
9 FZ 6 3.896
9 FZ 7 3.896
9 FZ 8 3.408
9 FZ 9 2.431
9 FZ 10 1.943
9 FZ 11 2.920
9 FZ 12 5.361
9 FZ 13 8.779
9 FZ 14 11.709
9 FZ 15 12.685
9 FZ 16 11.709
9 FZ 17 10.244
9 FZ 18 8.779
9 FZ 19 7.802
9 FZ 20 6.826
9 FZ 21 5.849
9 FZ 22 3.896
9 FZ 23 2.431
9 FZ 24 0.966
9 FZ 25 1.455
9 FZ 26 2.920
9 FZ 27 4.873
9 FZ 28 6.826
9 FZ 29 8.779
9 FZ 30 9.755
9 FZ 31 9.267
9 FZ 32 8.291
9 FZ 33 6.826
9 FZ 34 4.873
9 FZ 35 3.896
9 FZ 36 3.408
9 FZ 37 4.384
9 FZ 38 5.849
9 FZ 39 6.826
9 FZ 40 7.314
9 FZ 41 6.826
9 FZ 42 6.826
9 FZ 43 7.314
9 FZ 44 8.291
9 FZ 45 9.267
9 FZ 46 9.755
9 FZ 47 9.755
9 FZ 48 9.755
9 FZ 49 8.779
9 FZ 50 8.291
9 FZ 51 8.291
9 FZ 52 9.755
9 FZ 53 11.709
9 FZ 54 14.150
9 FZ 55 16.103
9 FZ 56 17.080
9 FZ 57 16.591
9 FZ 58 15.127
9 FZ 59 14.638
9 FZ 60 14.150
9 FZ 61 15.127
9 FZ 62 15.615
9 FZ 63 15.615
9 FZ 64 14.638
9 FZ 65 13.173
9 FZ 66 11.709
9 FZ 67 11.220
9 FZ 68 12.197
9 FZ 69 12.685
9 FZ 70 12.685
9 FZ 71 12.685
9 FZ 72 12.197
9 FZ 73 12.197
9 FZ 74 13.173
9 FZ 75 14.150
9 FZ 76 15.615
9 FZ 77 16.103
9 FZ 78 17.080
9 FZ 79 17.568
9 FZ 80 18.056
9 FZ 81 17.568
9 FZ 82 15.615
9 FZ 83 12.685
9 FZ 84 10.732
9 FZ 85 9.755
9 FZ 86 9.755
9 FZ 87 9.755
9 FZ 88 9.755
9 FZ 89 8.779
9 FZ 90 7.802
9 FZ 91 7.314
9 FZ 92 8.291
9 FZ 93 9.267
9 FZ 94 10.732
9 FZ 95 11.709
9 FZ 96 13.662
9 FZ 97 16.591
9 FZ 98 20.498
9 FZ 99 24.404
9 FZ 100 26.357
9 FZ 101 26.357
9 FZ 102 23.916
9 FZ 103 20.986
9 FZ 104 19.033
9 FZ 105 19.033
9 FZ 106 20.986
9 FZ 107 22.939
9 FZ 108 24.404
9 FZ 109 23.916
9 FZ 110 21.962
9 FZ 111 19.521
9 FZ 112 17.568
9 FZ 113 17.568
9 FZ 114 19.033
9 FZ 115 20.009
9 FZ 116 20.009
9 FZ 117 19.521
9 FZ 118 18.545
9 FZ 119 18.545
9 FZ 120 20.498
9 FZ 121 24.404
9 FZ 122 28.798
9 FZ 123 31.240
9 FZ 124 31.728
9 FZ 125 30.752
9 FZ 126 29.775
9 FZ 127 29.775
9 FZ 128 30.263
9 FZ 129 30.263
9 FZ 130 29.287
9 FZ 131 26.845
9 FZ 132 22.939
9 FZ 133 20.009
9 FZ 134 19.033
9 FZ 135 20.498
9 FZ 136 23.427
9 FZ 137 27.334
9 FZ 138 30.263
9 FZ 139 31.240
9 FZ 140 31.240
9 FZ 141 29.775
9 FZ 142 27.822
9 FZ 143 27.334
9 FZ 144 27.822
9 FZ 145 29.775
9 FZ 146 31.728
9 FZ 147 33.681
9 FZ 148 35.146
9 FZ 149 36.123
9 FZ 150 36.611
9 FZ 151 36.611
9 FZ 152 35.634
9 FZ 153 33.193
9 FZ 154 30.752
9 FZ 155 28.310
9 FZ 156 27.822
9 FZ 157 29.287
9 FZ 158 30.752
9 FZ 159 32.216
9 FZ 160 32.216
9 FZ 161 31.728
9 FZ 162 31.728
9 FZ 163 33.193
9 FZ 164 35.146
9 FZ 165 36.123
9 FZ 166 35.634
9 FZ 167 33.681
9 FZ 168 32.705
9 FZ 169 33.681
9 FZ 170 36.611
9 FZ 171 40.517
9 FZ 172 42.470
9 FZ 173 41.982
9 FZ 174 39.052
9 FZ 175 36.123
9 FZ 176 33.681
9 FZ 177 32.216
9 FZ 178 31.728
9 FZ 179 31.728
9 FZ 180 32.705
9 FZ 181 33.193
9 FZ 182 34.170
9 FZ 183 35.146
9 FZ 184 35.634
9 FZ 185 36.123
9 FZ 186 36.611
9 FZ 187 37.587
9 FZ 188 38.564
9 FZ 189 40.029
9 FZ 190 40.029
9 FZ 191 39.541
9 FZ 192 37.587
9 FZ 193 35.146
9 FZ 194 33.193
9 FZ 195 32.216
9 FZ 196 31.728
9 FZ 197 32.216
9 FZ 198 33.193
9 FZ 199 34.170
9 FZ 200 35.634
9 FZ 201 36.123
9 FZ 202 36.123
9 FZ 203 36.611
9 FZ 204 38.564
9 FZ 205 41.494
9 FZ 206 44.423
9 FZ 207 45.888
9 FZ 208 44.912
9 FZ 209 41.982
9 FZ 210 38.564
9 FZ 211 38.076
9 FZ 212 39.541
9 FZ 213 41.982
9 FZ 214 42.959
9 FZ 215 42.470
9 FZ 216 40.029
9 FZ 217 38.564
9 FZ 218 38.076
9 FZ 219 38.076
9 FZ 220 38.564
9 FZ 221 38.076
9 FZ 222 38.076
9 FZ 223 39.541
9 FZ 224 41.982
9 FZ 225 45.400
9 FZ 226 47.841
9 FZ 227 47.841
9 FZ 228 46.865
9 FZ 229 43.935
9 FZ 230 41.005
9 FZ 231 39.541
9 FZ 232 39.052
9 FZ 233 39.541
9 FZ 234 42.470
9 FZ 235 45.888
9 FZ 236 49.306
9 FZ 237 50.771
9 FZ 238 50.283
9 FZ 239 47.841
9 FZ 240 44.912
9 FZ 241 43.447
9 FZ 242 42.959
9 FZ 243 43.447
9 FZ 244 43.447
9 FZ 245 42.470
9 FZ 246 41.005
9 FZ 247 40.029
9 FZ 248 40.517
9 FZ 249 42.470
9 FZ 250 44.423
9 FZ 251 45.400
9 FZ 252 44.912
9 FZ 253 42.959
9 FZ 254 41.494
9 FZ 255 41.005
# F4 chan 7
9 F4 0 -0.366
9 F4 1 1.587
9 F4 2 2.563
9 F4 3 3.052
9 F4 4 3.052
9 F4 5 2.075
9 F4 6 1.587
9 F4 7 1.587
9 F4 8 0.610
9 F4 9 -0.366
9 F4 10 -1.343
9 F4 11 -1.343
9 F4 12 -0.366
9 F4 13 2.075
9 F4 14 5.493
9 F4 15 7.935
9 F4 16 8.911
9 F4 17 7.446
9 F4 18 5.005
9 F4 19 2.563
9 F4 20 1.099
9 F4 21 1.099
9 F4 22 1.099
9 F4 23 0.610
9 F4 24 -0.366
9 F4 25 -1.831
9 F4 26 -2.319
9 F4 27 -1.831
9 F4 28 1.099
9 F4 29 4.517
9 F4 30 7.935
9 F4 31 9.888
9 F4 32 9.888
9 F4 33 8.423
9 F4 34 5.981
9 F4 35 3.540
9 F4 36 2.075
9 F4 37 1.099
9 F4 38 1.099
9 F4 39 1.587
9 F4 40 2.563
9 F4 41 2.563
9 F4 42 2.563
9 F4 43 1.587
9 F4 44 1.099
9 F4 45 1.099
9 F4 46 1.099
9 F4 47 2.075
9 F4 48 1.587
9 F4 49 1.587
9 F4 50 0.610
9 F4 51 0.610
9 F4 52 1.099
9 F4 53 3.052
9 F4 54 5.981
9 F4 55 7.935
9 F4 56 9.399
9 F4 57 9.888
9 F4 58 9.888
9 F4 59 8.911
9 F4 60 7.446
9 F4 61 5.981
9 F4 62 4.517
9 F4 63 2.563
9 F4 64 1.587
9 F4 65 1.099
9 F4 66 1.099
9 F4 67 1.587
9 F4 68 2.563
9 F4 69 4.028
9 F4 70 5.005
9 F4 71 5.493
9 F4 72 5.981
9 F4 73 5.981
9 F4 74 6.470
9 F4 75 6.470
9 F4 76 6.958
9 F4 77 7.446
9 F4 78 7.446
9 F4 79 6.470
9 F4 80 5.981
9 F4 81 4.517
9 F4 82 4.028
9 F4 83 2.563
9 F4 84 1.587
9 F4 85 0.122
9 F4 86 -1.343
9 F4 87 -2.319
9 F4 88 -3.296
9 F4 89 -4.272
9 F4 90 -5.737
9 F4 91 -6.714
9 F4 92 -7.690
9 F4 93 -7.690
9 F4 94 -6.226
9 F4 95 -4.761
9 F4 96 -2.808
9 F4 97 -0.854
9 F4 98 1.099
9 F4 99 2.563
9 F4 100 3.540
9 F4 101 3.540
9 F4 102 2.563
9 F4 103 1.099
9 F4 104 0.610
9 F4 105 1.099
9 F4 106 2.563
9 F4 107 3.052
9 F4 108 2.563
9 F4 109 0.122
9 F4 110 -2.808
9 F4 111 -4.761
9 F4 112 -5.249
9 F4 113 -3.784
9 F4 114 -1.831
9 F4 115 0.610
9 F4 116 1.099
9 F4 117 1.099
9 F4 118 0.122
9 F4 119 -0.366
9 F4 120 -0.366
9 F4 121 1.099
9 F4 122 4.028
9 F4 123 6.958
9 F4 124 9.888
9 F4 125 11.353
9 F4 126 11.841
9 F4 127 11.353
9 F4 128 9.888
9 F4 129 7.935
9 F4 130 5.493
9 F4 131 2.075
9 F4 132 -1.343
9 F4 133 -4.272
9 F4 134 -5.249
9 F4 135 -4.761
9 F4 136 -1.343
9 F4 137 2.075
9 F4 138 4.517
9 F4 139 5.005
9 F4 140 3.540
9 F4 141 1.587
9 F4 142 -0.854
9 F4 143 -1.831
9 F4 144 -1.343
9 F4 145 0.122
9 F4 146 2.563
9 F4 147 5.493
9 F4 148 8.423
9 F4 149 10.376
9 F4 150 11.353
9 F4 151 10.376
9 F4 152 8.423
9 F4 153 5.005
9 F4 154 1.587
9 F4 155 -0.854
9 F4 156 -1.831
9 F4 157 -1.343
9 F4 158 -0.854
9 F4 159 -0.366
9 F4 160 -0.854
9 F4 161 -1.343
9 F4 162 -1.831
9 F4 163 -2.319
9 F4 164 -1.831
9 F4 165 -1.343
9 F4 166 -1.343
9 F4 167 -0.854
9 F4 168 -0.366
9 F4 169 -0.366
9 F4 170 -0.366
9 F4 171 -0.366
9 F4 172 -0.366
9 F4 173 -0.366
9 F4 174 -0.366
9 F4 175 -0.366
9 F4 176 0.122
9 F4 177 0.610
9 F4 178 0.610
9 F4 179 0.122
9 F4 180 -0.854
9 F4 181 -1.831
9 F4 182 -2.319
9 F4 183 -2.319
9 F4 184 -0.854
9 F4 185 0.610
9 F4 186 2.563
9 F4 187 4.517
9 F4 188 5.981
9 F4 189 6.958
9 F4 190 6.958
9 F4 191 6.470
9 F4 192 5.005
9 F4 193 3.540
9 F4 194 2.075
9 F4 195 1.587
9 F4 196 1.587
9 F4 197 1.587
9 F4 198 2.075
9 F4 199 2.075
9 F4 200 2.075
9 F4 201 1.587
9 F4 202 1.587
9 F4 203 2.563
9 F4 204 3.540
9 F4 205 4.517
9 F4 206 4.517
9 F4 207 3.540
9 F4 208 2.075
9 F4 209 1.099
9 F4 210 0.122
9 F4 211 0.610
9 F4 212 1.587
9 F4 213 2.075
9 F4 214 2.075
9 F4 215 1.099
9 F4 216 0.122
9 F4 217 0.122
9 F4 218 0.122
9 F4 219 -0.366
9 F4 220 -2.319
9 F4 221 -4.272
9 F4 222 -5.737
9 F4 223 -5.737
9 F4 224 -3.296
9 F4 225 -0.366
9 F4 226 2.563
9 F4 227 4.517
9 F4 228 4.517
9 F4 229 3.052
9 F4 230 0.610
9 F4 231 -1.831
9 F4 232 -4.272
9 F4 233 -4.761
9 F4 234 -3.784
9 F4 235 -0.854
9 F4 236 2.075
9 F4 237 4.028
9 F4 238 4.028
9 F4 239 2.563
9 F4 240 0.610
9 F4 241 -1.343
9 F4 242 -1.831
9 F4 243 -1.831
9 F4 244 -1.343
9 F4 245 -0.854
9 F4 246 -0.366
9 F4 247 1.099
9 F4 248 3.540
9 F4 249 5.005
9 F4 250 6.470
9 F4 251 6.470
9 F4 252 5.981
9 F4 253 5.493
9 F4 254 5.005
9 F4 255 4.028
# F3 chan 8
9 F3 0 0.936
9 F3 1 2.401
9 F3 2 3.377
9 F3 3 1.912
9 F3 4 -0.041
9 F3 5 -1.506
9 F3 6 -2.482
9 F3 7 -2.970
9 F3 8 -3.459
9 F3 9 -3.459
9 F3 10 -3.947
9 F3 11 -2.482
9 F3 12 0.448
9 F3 13 4.354
9 F3 14 7.284
9 F3 15 8.260
9 F3 16 7.284
9 F3 17 5.330
9 F3 18 2.889
9 F3 19 1.424
9 F3 20 -0.041
9 F3 21 -1.506
9 F3 22 -2.482
9 F3 23 -3.459
9 F3 24 -2.482
9 F3 25 -0.041
9 F3 26 2.401
9 F3 27 4.354
9 F3 28 4.842
9 F3 29 4.842
9 F3 30 4.842
9 F3 31 5.330
9 F3 32 5.330
9 F3 33 4.842
9 F3 34 3.866
9 F3 35 2.401
9 F3 36 1.424
9 F3 37 1.912
9 F3 38 4.354
9 F3 39 6.795
9 F3 40 8.260
9 F3 41 8.260
9 F3 42 7.772
9 F3 43 7.284
9 F3 44 6.795
9 F3 45 7.284
9 F3 46 7.772
9 F3 47 8.260
9 F3 48 7.284
9 F3 49 6.307
9 F3 50 4.842
9 F3 51 3.866
9 F3 52 4.842
9 F3 53 6.307
9 F3 54 8.260
9 F3 55 10.701
9 F3 56 12.166
9 F3 57 13.143
9 F3 58 13.143
9 F3 59 13.143
9 F3 60 12.655
9 F3 61 12.166
9 F3 62 11.678
9 F3 63 10.213
9 F3 64 8.748
9 F3 65 7.772
9 F3 66 7.284
9 F3 67 6.795
9 F3 68 6.307
9 F3 69 5.819
9 F3 70 4.354
9 F3 71 3.377
9 F3 72 2.889
9 F3 73 3.866
9 F3 74 5.330
9 F3 75 7.772
9 F3 76 9.237
9 F3 77 10.213
9 F3 78 10.213
9 F3 79 9.237
9 F3 80 7.772
9 F3 81 5.330
9 F3 82 3.377
9 F3 83 1.424
9 F3 84 0.448
9 F3 85 -0.041
9 F3 86 -0.529
9 F3 87 -1.017
9 F3 88 -1.506
9 F3 89 -1.994
9 F3 90 -1.994
9 F3 91 -1.506
9 F3 92 -0.041
9 F3 93 0.448
9 F3 94 0.448
9 F3 95 -0.041
9 F3 96 0.936
9 F3 97 2.889
9 F3 98 6.307
9 F3 99 8.260
9 F3 100 8.748
9 F3 101 7.284
9 F3 102 3.866
9 F3 103 1.424
9 F3 104 0.448
9 F3 105 1.424
9 F3 106 3.866
9 F3 107 4.842
9 F3 108 4.354
9 F3 109 2.401
9 F3 110 -0.041
9 F3 111 -1.506
9 F3 112 -1.017
9 F3 113 0.936
9 F3 114 2.889
9 F3 115 4.842
9 F3 116 5.330
9 F3 117 4.354
9 F3 118 3.866
9 F3 119 3.866
9 F3 120 5.819
9 F3 121 9.725
9 F3 122 13.143
9 F3 123 15.584
9 F3 124 16.073
9 F3 125 14.119
9 F3 126 11.190
9 F3 127 8.748
9 F3 128 6.795
9 F3 129 4.842
9 F3 130 2.889
9 F3 131 0.448
9 F3 132 -2.482
9 F3 133 -3.947
9 F3 134 -4.435
9 F3 135 -2.970
9 F3 136 -1.017
9 F3 137 0.448
9 F3 138 1.424
9 F3 139 1.912
9 F3 140 1.424
9 F3 141 1.424
9 F3 142 0.448
9 F3 143 -0.041
9 F3 144 -0.529
9 F3 145 -1.017
9 F3 146 -0.529
9 F3 147 0.448
9 F3 148 1.424
9 F3 149 2.889
9 F3 150 2.889
9 F3 151 1.912
9 F3 152 0.936
9 F3 153 -0.041
9 F3 154 -0.529
9 F3 155 -0.041
9 F3 156 0.448
9 F3 157 1.424
9 F3 158 1.424
9 F3 159 1.424
9 F3 160 0.448
9 F3 161 -1.017
9 F3 162 -2.482
9 F3 163 -2.970
9 F3 164 -2.482
9 F3 165 -1.017
9 F3 166 0.936
9 F3 167 4.354
9 F3 168 7.284
9 F3 169 10.213
9 F3 170 12.166
9 F3 171 12.655
9 F3 172 10.701
9 F3 173 6.795
9 F3 174 1.912
9 F3 175 -2.482
9 F3 176 -5.412
9 F3 177 -5.900
9 F3 178 -4.924
9 F3 179 -2.970
9 F3 180 -1.017
9 F3 181 -0.529
9 F3 182 -0.041
9 F3 183 -0.041
9 F3 184 0.448
9 F3 185 1.424
9 F3 186 3.377
9 F3 187 4.842
9 F3 188 5.819
9 F3 189 5.330
9 F3 190 3.377
9 F3 191 0.936
9 F3 192 -1.506
9 F3 193 -3.459
9 F3 194 -3.947
9 F3 195 -2.970
9 F3 196 -1.506
9 F3 197 -0.041
9 F3 198 -0.041
9 F3 199 -1.017
9 F3 200 -3.459
9 F3 201 -6.388
9 F3 202 -7.853
9 F3 203 -8.341
9 F3 204 -6.877
9 F3 205 -3.459
9 F3 206 -0.529
9 F3 207 1.424
9 F3 208 1.424
9 F3 209 1.424
9 F3 210 0.448
9 F3 211 0.448
9 F3 212 1.424
9 F3 213 1.912
9 F3 214 1.912
9 F3 215 1.424
9 F3 216 -0.041
9 F3 217 -1.017
9 F3 218 -1.506
9 F3 219 -1.017
9 F3 220 -1.017
9 F3 221 -1.017
9 F3 222 -0.529
9 F3 223 0.448
9 F3 224 1.424
9 F3 225 2.401
9 F3 226 1.912
9 F3 227 0.448
9 F3 228 -1.506
9 F3 229 -2.970
9 F3 230 -3.947
9 F3 231 -3.947
9 F3 232 -2.482
9 F3 233 -0.529
9 F3 234 1.912
9 F3 235 4.354
9 F3 236 6.795
9 F3 237 7.284
9 F3 238 6.307
9 F3 239 3.866
9 F3 240 1.424
9 F3 241 -1.017
9 F3 242 -2.970
9 F3 243 -3.947
9 F3 244 -4.924
9 F3 245 -5.412
9 F3 246 -5.900
9 F3 247 -4.924
9 F3 248 -2.970
9 F3 249 -0.529
9 F3 250 0.448
9 F3 251 -0.041
9 F3 252 -1.017
9 F3 253 -1.994
9 F3 254 -1.506
9 F3 255 0.448
# FC6 chan 9
9 FC6 0 -0.509
9 FC6 1 -0.020
9 FC6 2 0.956
9 FC6 3 1.444
9 FC6 4 0.956
9 FC6 5 0.956
9 FC6 6 -0.020
9 FC6 7 -0.509
9 FC6 8 -1.485
9 FC6 9 -1.973
9 FC6 10 -1.973
9 FC6 11 -0.997
9 FC6 12 0.956
9 FC6 13 2.909
9 FC6 14 4.862
9 FC6 15 4.862
9 FC6 16 3.886
9 FC6 17 1.933
9 FC6 18 -0.020
9 FC6 19 -0.509
9 FC6 20 -0.020
9 FC6 21 0.956
9 FC6 22 0.956
9 FC6 23 -0.509
9 FC6 24 -1.485
9 FC6 25 -1.973
9 FC6 26 -0.509
9 FC6 27 1.933
9 FC6 28 5.351
9 FC6 29 7.792
9 FC6 30 8.280
9 FC6 31 7.792
9 FC6 32 5.839
9 FC6 33 3.886
9 FC6 34 2.421
9 FC6 35 1.444
9 FC6 36 1.933
9 FC6 37 2.909
9 FC6 38 3.886
9 FC6 39 4.374
9 FC6 40 2.909
9 FC6 41 0.956
9 FC6 42 -0.509
9 FC6 43 -0.509
9 FC6 44 0.468
9 FC6 45 1.933
9 FC6 46 2.909
9 FC6 47 2.421
9 FC6 48 1.444
9 FC6 49 0.956
9 FC6 50 1.444
9 FC6 51 1.933
9 FC6 52 2.421
9 FC6 53 1.933
9 FC6 54 1.933
9 FC6 55 1.933
9 FC6 56 2.909
9 FC6 57 4.374
9 FC6 58 5.839
9 FC6 59 5.351
9 FC6 60 3.886
9 FC6 61 1.933
9 FC6 62 0.468
9 FC6 63 -0.997
9 FC6 64 -1.973
9 FC6 65 -2.950
9 FC6 66 -2.950
9 FC6 67 -2.462
9 FC6 68 -0.997
9 FC6 69 1.444
9 FC6 70 2.909
9 FC6 71 4.374
9 FC6 72 4.374
9 FC6 73 4.374
9 FC6 74 3.886
9 FC6 75 4.374
9 FC6 76 4.862
9 FC6 77 5.351
9 FC6 78 6.327
9 FC6 79 7.304
9 FC6 80 8.769
9 FC6 81 9.257
9 FC6 82 8.280
9 FC6 83 5.351
9 FC6 84 1.933
9 FC6 85 -0.997
9 FC6 86 -2.950
9 FC6 87 -3.438
9 FC6 88 -3.438
9 FC6 89 -3.438
9 FC6 90 -2.950
9 FC6 91 -2.950
9 FC6 92 -1.973
9 FC6 93 -0.997
9 FC6 94 0.956
9 FC6 95 1.933
9 FC6 96 3.398
9 FC6 97 4.374
9 FC6 98 4.862
9 FC6 99 5.839
9 FC6 100 5.839
9 FC6 101 5.351
9 FC6 102 4.374
9 FC6 103 2.421
9 FC6 104 1.444
9 FC6 105 0.468
9 FC6 106 -0.509
9 FC6 107 -0.997
9 FC6 108 -1.973
9 FC6 109 -2.462
9 FC6 110 -2.462
9 FC6 111 -2.462
9 FC6 112 -1.485
9 FC6 113 -0.997
9 FC6 114 -0.020
9 FC6 115 0.468
9 FC6 116 -0.020
9 FC6 117 -0.509
9 FC6 118 -0.997
9 FC6 119 0.468
9 FC6 120 2.909
9 FC6 121 6.327
9 FC6 122 9.257
9 FC6 123 11.210
9 FC6 124 11.210
9 FC6 125 10.234
9 FC6 126 8.280
9 FC6 127 6.816
9 FC6 128 5.351
9 FC6 129 3.398
9 FC6 130 0.956
9 FC6 131 -1.485
9 FC6 132 -3.438
9 FC6 133 -3.927
9 FC6 134 -2.462
9 FC6 135 -0.020
9 FC6 136 2.909
9 FC6 137 4.862
9 FC6 138 5.839
9 FC6 139 4.374
9 FC6 140 1.933
9 FC6 141 -0.020
9 FC6 142 -1.485
9 FC6 143 -1.485
9 FC6 144 0.468
9 FC6 145 3.398
9 FC6 146 7.304
9 FC6 147 10.722
9 FC6 148 12.675
9 FC6 149 12.675
9 FC6 150 10.722
9 FC6 151 7.304
9 FC6 152 3.398
9 FC6 153 0.468
9 FC6 154 -1.973
9 FC6 155 -2.950
9 FC6 156 -2.462
9 FC6 157 -1.973
9 FC6 158 -1.485
9 FC6 159 -1.485
9 FC6 160 -0.997
9 FC6 161 -0.997
9 FC6 162 -1.485
9 FC6 163 -1.485
9 FC6 164 -1.973
9 FC6 165 -2.462
9 FC6 166 -2.462
9 FC6 167 -2.462
9 FC6 168 -1.973
9 FC6 169 -1.485
9 FC6 170 -0.997
9 FC6 171 0.468
9 FC6 172 1.933
9 FC6 173 3.886
9 FC6 174 4.862
9 FC6 175 6.327
9 FC6 176 6.816
9 FC6 177 6.327
9 FC6 178 5.351
9 FC6 179 3.398
9 FC6 180 1.444
9 FC6 181 -0.020
9 FC6 182 -0.997
9 FC6 183 -0.509
9 FC6 184 0.956
9 FC6 185 3.398
9 FC6 186 5.839
9 FC6 187 7.792
9 FC6 188 7.792
9 FC6 189 6.816
9 FC6 190 5.839
9 FC6 191 5.351
9 FC6 192 5.351
9 FC6 193 4.862
9 FC6 194 4.862
9 FC6 195 4.374
9 FC6 196 3.886
9 FC6 197 3.886
9 FC6 198 3.886
9 FC6 199 4.374
9 FC6 200 4.374
9 FC6 201 3.886
9 FC6 202 3.886
9 FC6 203 4.374
9 FC6 204 5.839
9 FC6 205 7.792
9 FC6 206 9.257
9 FC6 207 9.745
9 FC6 208 8.769
9 FC6 209 7.792
9 FC6 210 6.327
9 FC6 211 5.839
9 FC6 212 5.351
9 FC6 213 3.886
9 FC6 214 2.909
9 FC6 215 2.421
9 FC6 216 2.909
9 FC6 217 3.886
9 FC6 218 4.374
9 FC6 219 3.886
9 FC6 220 2.421
9 FC6 221 1.444
9 FC6 222 1.933
9 FC6 223 4.862
9 FC6 224 8.769
9 FC6 225 12.187
9 FC6 226 14.140
9 FC6 227 14.628
9 FC6 228 13.652
9 FC6 229 11.698
9 FC6 230 9.745
9 FC6 231 7.792
9 FC6 232 6.327
9 FC6 233 5.351
9 FC6 234 6.327
9 FC6 235 8.280
9 FC6 236 9.257
9 FC6 237 8.769
9 FC6 238 5.839
9 FC6 239 1.933
9 FC6 240 -0.509
9 FC6 241 -0.997
9 FC6 242 0.956
9 FC6 243 3.886
9 FC6 244 6.327
9 FC6 245 7.792
9 FC6 246 8.280
9 FC6 247 8.769
9 FC6 248 9.745
9 FC6 249 11.210
9 FC6 250 12.187
9 FC6 251 11.698
9 FC6 252 11.698
9 FC6 253 11.210
9 FC6 254 10.722
9 FC6 255 9.745
# FC5 chan 10
9 FC5 0 -1.027
9 FC5 1 -1.516
9 FC5 2 -2.004
9 FC5 3 -3.957
9 FC5 4 -5.910
9 FC5 5 -6.887
9 FC5 6 -6.887
9 FC5 7 -6.399
9 FC5 8 -5.910
9 FC5 9 -5.422
9 FC5 10 -4.445
9 FC5 11 -2.492
9 FC5 12 0.926
9 FC5 13 4.832
9 FC5 14 7.273
9 FC5 15 8.250
9 FC5 16 6.785
9 FC5 17 4.832
9 FC5 18 2.391
9 FC5 19 1.414
9 FC5 20 -0.051
9 FC5 21 -1.027
9 FC5 22 -2.004
9 FC5 23 -2.004
9 FC5 24 -0.539
9 FC5 25 2.879
9 FC5 26 5.809
9 FC5 27 6.785
9 FC5 28 6.297
9 FC5 29 4.832
9 FC5 30 3.367
9 FC5 31 2.879
9 FC5 32 2.879
9 FC5 33 2.391
9 FC5 34 1.414
9 FC5 35 0.437
9 FC5 36 -0.051
9 FC5 37 0.926
9 FC5 38 3.367
9 FC5 39 5.809
9 FC5 40 7.273
9 FC5 41 7.762
9 FC5 42 7.273
9 FC5 43 5.809
9 FC5 44 5.809
9 FC5 45 5.809
9 FC5 46 5.809
9 FC5 47 5.809
9 FC5 48 4.832
9 FC5 49 3.367
9 FC5 50 1.902
9 FC5 51 0.926
9 FC5 52 0.926
9 FC5 53 2.391
9 FC5 54 4.344
9 FC5 55 6.297
9 FC5 56 7.762
9 FC5 57 8.738
9 FC5 58 9.226
9 FC5 59 8.738
9 FC5 60 8.250
9 FC5 61 7.762
9 FC5 62 6.297
9 FC5 63 5.320
9 FC5 64 4.344
9 FC5 65 4.832
9 FC5 66 5.320
9 FC5 67 5.809
9 FC5 68 5.320
9 FC5 69 3.367
9 FC5 70 1.414
9 FC5 71 -0.539
9 FC5 72 -1.516
9 FC5 73 -0.051
9 FC5 74 1.902
9 FC5 75 5.320
9 FC5 76 7.762
9 FC5 77 9.715
9 FC5 78 10.203
9 FC5 79 9.715
9 FC5 80 7.762
9 FC5 81 5.320
9 FC5 82 1.902
9 FC5 83 -1.027
9 FC5 84 -2.492
9 FC5 85 -3.469
9 FC5 86 -2.981
9 FC5 87 -2.492
9 FC5 88 -2.004
9 FC5 89 -1.516
9 FC5 90 -1.027
9 FC5 91 -0.539
9 FC5 92 -0.051
9 FC5 93 0.437
9 FC5 94 -0.539
9 FC5 95 -1.516
9 FC5 96 -2.004
9 FC5 97 -1.516
9 FC5 98 0.926
9 FC5 99 4.344
9 FC5 100 7.273
9 FC5 101 7.273
9 FC5 102 5.320
9 FC5 103 2.391
9 FC5 104 -0.539
9 FC5 105 -1.027
9 FC5 106 -0.539
9 FC5 107 1.414
9 FC5 108 1.902
9 FC5 109 1.902
9 FC5 110 0.926
9 FC5 111 -0.051
9 FC5 112 0.437
9 FC5 113 1.414
9 FC5 114 2.879
9 FC5 115 4.344
9 FC5 116 4.832
9 FC5 117 4.832
9 FC5 118 4.832
9 FC5 119 6.297
9 FC5 120 8.250
9 FC5 121 11.180
9 FC5 122 13.621
9 FC5 123 14.598
9 FC5 124 14.598
9 FC5 125 12.156
9 FC5 126 8.738
9 FC5 127 4.832
9 FC5 128 1.902
9 FC5 129 -0.051
9 FC5 130 -1.516
9 FC5 131 -2.981
9 FC5 132 -3.957
9 FC5 133 -4.445
9 FC5 134 -3.957
9 FC5 135 -2.492
9 FC5 136 -1.516
9 FC5 137 -0.051
9 FC5 138 0.926
9 FC5 139 0.926
9 FC5 140 0.926
9 FC5 141 0.437
9 FC5 142 -0.051
9 FC5 143 -0.051
9 FC5 144 -1.027
9 FC5 145 -1.027
9 FC5 146 -1.516
9 FC5 147 -1.516
9 FC5 148 -2.004
9 FC5 149 -2.004
9 FC5 150 -2.981
9 FC5 151 -3.469
9 FC5 152 -3.957
9 FC5 153 -3.957
9 FC5 154 -3.469
9 FC5 155 -2.492
9 FC5 156 -1.516
9 FC5 157 -1.027
9 FC5 158 -0.539
9 FC5 159 -0.539
9 FC5 160 -0.539
9 FC5 161 -0.539
9 FC5 162 -0.539
9 FC5 163 -0.539
9 FC5 164 -0.539
9 FC5 165 0.437
9 FC5 166 2.391
9 FC5 167 4.832
9 FC5 168 7.762
9 FC5 169 10.203
9 FC5 170 11.668
9 FC5 171 11.180
9 FC5 172 8.250
9 FC5 173 3.855
9 FC5 174 -1.516
9 FC5 175 -5.422
9 FC5 176 -7.375
9 FC5 177 -6.887
9 FC5 178 -4.934
9 FC5 179 -2.004
9 FC5 180 0.437
9 FC5 181 1.414
9 FC5 182 1.902
9 FC5 183 2.391
9 FC5 184 3.367
9 FC5 185 4.344
9 FC5 186 5.809
9 FC5 187 6.297
9 FC5 188 6.297
9 FC5 189 5.320
9 FC5 190 3.855
9 FC5 191 1.902
9 FC5 192 -0.051
9 FC5 193 -2.004
9 FC5 194 -2.492
9 FC5 195 -2.492
9 FC5 196 -2.004
9 FC5 197 -2.492
9 FC5 198 -3.469
9 FC5 199 -4.934
9 FC5 200 -7.863
9 FC5 201 -9.816
9 FC5 202 -11.281
9 FC5 203 -10.793
9 FC5 204 -8.352
9 FC5 205 -4.934
9 FC5 206 -2.004
9 FC5 207 0.437
9 FC5 208 1.414
9 FC5 209 1.414
9 FC5 210 0.926
9 FC5 211 0.926
9 FC5 212 1.414
9 FC5 213 1.902
9 FC5 214 1.902
9 FC5 215 0.926
9 FC5 216 -0.051
9 FC5 217 -0.539
9 FC5 218 -1.027
9 FC5 219 -0.539
9 FC5 220 -0.051
9 FC5 221 0.926
9 FC5 222 1.902
9 FC5 223 2.391
9 FC5 224 1.902
9 FC5 225 0.437
9 FC5 226 -1.516
9 FC5 227 -3.957
9 FC5 228 -5.422
9 FC5 229 -5.910
9 FC5 230 -4.445
9 FC5 231 -2.492
9 FC5 232 -0.051
9 FC5 233 2.879
9 FC5 234 5.809
9 FC5 235 7.762
9 FC5 236 8.738
9 FC5 237 8.738
9 FC5 238 7.762
9 FC5 239 5.809
9 FC5 240 3.367
9 FC5 241 1.414
9 FC5 242 -1.027
9 FC5 243 -2.981
9 FC5 244 -4.934
9 FC5 245 -6.887
9 FC5 246 -7.863
9 FC5 247 -7.863
9 FC5 248 -6.399
9 FC5 249 -4.934
9 FC5 250 -3.469
9 FC5 251 -2.981
9 FC5 252 -2.981
9 FC5 253 -2.492
9 FC5 254 -1.027
9 FC5 255 1.414
# FC2 chan 11
9 FC2 0 -0.132
9 FC2 1 0.844
9 FC2 2 1.821
9 FC2 3 1.821
9 FC2 4 1.821
9 FC2 5 1.333
9 FC2 6 -0.132
9 FC2 7 -1.597
9 FC2 8 -3.062
9 FC2 9 -4.038
9 FC2 10 -4.038
9 FC2 11 -3.062
9 FC2 12 -0.621
9 FC2 13 1.821
9 FC2 14 3.774
9 FC2 15 4.262
9 FC2 16 3.774
9 FC2 17 2.797
9 FC2 18 2.309
9 FC2 19 2.309
9 FC2 20 2.309
9 FC2 21 1.333
9 FC2 22 -0.132
9 FC2 23 -2.085
9 FC2 24 -4.038
9 FC2 25 -4.038
9 FC2 26 -2.574
9 FC2 27 -0.621
9 FC2 28 2.309
9 FC2 29 4.262
9 FC2 30 4.751
9 FC2 31 4.751
9 FC2 32 3.286
9 FC2 33 1.821
9 FC2 34 0.844
9 FC2 35 -0.132
9 FC2 36 0.356
9 FC2 37 0.844
9 FC2 38 1.821
9 FC2 39 2.797
9 FC2 40 3.286
9 FC2 41 3.774
9 FC2 42 3.286
9 FC2 43 2.797
9 FC2 44 2.309
9 FC2 45 1.821
9 FC2 46 1.333
9 FC2 47 1.333
9 FC2 48 1.821
9 FC2 49 2.309
9 FC2 50 3.286
9 FC2 51 3.286
9 FC2 52 2.797
9 FC2 53 2.309
9 FC2 54 2.309
9 FC2 55 2.797
9 FC2 56 3.774
9 FC2 57 5.239
9 FC2 58 5.727
9 FC2 59 5.727
9 FC2 60 5.727
9 FC2 61 5.727
9 FC2 62 5.239
9 FC2 63 4.262
9 FC2 64 2.797
9 FC2 65 0.356
9 FC2 66 -0.621
9 FC2 67 -1.109
9 FC2 68 0.356
9 FC2 69 1.821
9 FC2 70 3.286
9 FC2 71 3.286
9 FC2 72 3.286
9 FC2 73 3.286
9 FC2 74 3.286
9 FC2 75 3.774
9 FC2 76 4.751
9 FC2 77 5.727
9 FC2 78 6.215
9 FC2 79 5.727
9 FC2 80 4.751
9 FC2 81 3.286
9 FC2 82 2.309
9 FC2 83 1.333
9 FC2 84 0.356
9 FC2 85 -0.132
9 FC2 86 -1.109
9 FC2 87 -1.597
9 FC2 88 -1.597
9 FC2 89 -1.597
9 FC2 90 -1.597
9 FC2 91 -1.597
9 FC2 92 -2.085
9 FC2 93 -3.062
9 FC2 94 -3.062
9 FC2 95 -2.574
9 FC2 96 -0.132
9 FC2 97 1.821
9 FC2 98 3.286
9 FC2 99 3.286
9 FC2 100 1.821
9 FC2 101 -0.132
9 FC2 102 -2.085
9 FC2 103 -2.574
9 FC2 104 -2.085
9 FC2 105 -0.621
9 FC2 106 0.356
9 FC2 107 0.356
9 FC2 108 -1.109
9 FC2 109 -2.085
9 FC2 110 -3.062
9 FC2 111 -3.550
9 FC2 112 -3.062
9 FC2 113 -2.085
9 FC2 114 -1.597
9 FC2 115 -1.109
9 FC2 116 -0.621
9 FC2 117 -0.621
9 FC2 118 -0.621
9 FC2 119 -0.621
9 FC2 120 -0.132
9 FC2 121 0.844
9 FC2 122 2.797
9 FC2 123 4.262
9 FC2 124 6.215
9 FC2 125 6.704
9 FC2 126 6.704
9 FC2 127 5.727
9 FC2 128 4.262
9 FC2 129 1.821
9 FC2 130 -0.132
9 FC2 131 -2.574
9 FC2 132 -4.038
9 FC2 133 -4.527
9 FC2 134 -4.038
9 FC2 135 -3.062
9 FC2 136 -1.597
9 FC2 137 -0.621
9 FC2 138 -0.621
9 FC2 139 -1.597
9 FC2 140 -2.085
9 FC2 141 -3.062
9 FC2 142 -3.062
9 FC2 143 -2.574
9 FC2 144 -1.597
9 FC2 145 -0.132
9 FC2 146 1.333
9 FC2 147 3.286
9 FC2 148 5.239
9 FC2 149 5.239
9 FC2 150 4.751
9 FC2 151 3.286
9 FC2 152 1.333
9 FC2 153 -0.132
9 FC2 154 -0.621
9 FC2 155 -0.621
9 FC2 156 -0.132
9 FC2 157 0.844
9 FC2 158 1.333
9 FC2 159 1.333
9 FC2 160 0.844
9 FC2 161 -0.132
9 FC2 162 -1.597
9 FC2 163 -1.597
9 FC2 164 -1.597
9 FC2 165 -0.621
9 FC2 166 -0.621
9 FC2 167 -0.621
9 FC2 168 -0.621
9 FC2 169 -0.132
9 FC2 170 0.844
9 FC2 171 2.309
9 FC2 172 3.286
9 FC2 173 3.286
9 FC2 174 2.797
9 FC2 175 1.821
9 FC2 176 1.821
9 FC2 177 1.821
9 FC2 178 2.309
9 FC2 179 1.821
9 FC2 180 0.356
9 FC2 181 -1.109
9 FC2 182 -2.574
9 FC2 183 -3.062
9 FC2 184 -2.574
9 FC2 185 -1.597
9 FC2 186 -0.621
9 FC2 187 0.844
9 FC2 188 1.821
9 FC2 189 2.309
9 FC2 190 1.821
9 FC2 191 1.333
9 FC2 192 0.844
9 FC2 193 0.844
9 FC2 194 1.333
9 FC2 195 2.309
9 FC2 196 2.309
9 FC2 197 1.333
9 FC2 198 0.356
9 FC2 199 -0.132
9 FC2 200 0.356
9 FC2 201 1.333
9 FC2 202 1.821
9 FC2 203 1.333
9 FC2 204 0.844
9 FC2 205 0.844
9 FC2 206 1.333
9 FC2 207 2.309
9 FC2 208 2.309
9 FC2 209 2.309
9 FC2 210 1.333
9 FC2 211 0.844
9 FC2 212 0.844
9 FC2 213 0.844
9 FC2 214 1.333
9 FC2 215 1.821
9 FC2 216 1.821
9 FC2 217 1.821
9 FC2 218 2.309
9 FC2 219 1.821
9 FC2 220 1.333
9 FC2 221 -0.132
9 FC2 222 -0.621
9 FC2 223 0.356
9 FC2 224 2.309
9 FC2 225 4.751
9 FC2 226 6.704
9 FC2 227 7.680
9 FC2 228 6.704
9 FC2 229 5.239
9 FC2 230 3.286
9 FC2 231 1.821
9 FC2 232 0.844
9 FC2 233 0.844
9 FC2 234 1.821
9 FC2 235 3.286
9 FC2 236 4.262
9 FC2 237 4.751
9 FC2 238 4.751
9 FC2 239 3.774
9 FC2 240 2.797
9 FC2 241 2.797
9 FC2 242 3.286
9 FC2 243 4.262
9 FC2 244 4.751
9 FC2 245 4.262
9 FC2 246 4.751
9 FC2 247 5.239
9 FC2 248 6.704
9 FC2 249 7.680
9 FC2 250 8.169
9 FC2 251 7.680
9 FC2 252 5.727
9 FC2 253 3.774
9 FC2 254 2.797
9 FC2 255 2.309
# FC1 chan 12
9 FC1 0 0.448
9 FC1 1 0.936
9 FC1 2 0.936
9 FC1 3 0.448
9 FC1 4 -0.529
9 FC1 5 -1.017
9 FC1 6 -1.506
9 FC1 7 -1.506
9 FC1 8 -1.506
9 FC1 9 -1.994
9 FC1 10 -2.482
9 FC1 11 -2.482
9 FC1 12 -1.017
9 FC1 13 1.424
9 FC1 14 3.377
9 FC1 15 4.354
9 FC1 16 3.866
9 FC1 17 2.401
9 FC1 18 1.424
9 FC1 19 0.448
9 FC1 20 -0.041
9 FC1 21 -0.529
9 FC1 22 -1.017
9 FC1 23 -1.506
9 FC1 24 -1.506
9 FC1 25 -0.529
9 FC1 26 0.936
9 FC1 27 1.912
9 FC1 28 2.889
9 FC1 29 2.401
9 FC1 30 2.401
9 FC1 31 2.401
9 FC1 32 2.401
9 FC1 33 1.912
9 FC1 34 1.912
9 FC1 35 1.424
9 FC1 36 1.424
9 FC1 37 1.912
9 FC1 38 3.377
9 FC1 39 4.842
9 FC1 40 5.819
9 FC1 41 5.819
9 FC1 42 5.330
9 FC1 43 4.354
9 FC1 44 3.866
9 FC1 45 3.866
9 FC1 46 3.866
9 FC1 47 4.354
9 FC1 48 4.354
9 FC1 49 3.866
9 FC1 50 2.889
9 FC1 51 1.912
9 FC1 52 1.424
9 FC1 53 1.912
9 FC1 54 3.377
9 FC1 55 4.842
9 FC1 56 6.795
9 FC1 57 7.772
9 FC1 58 7.772
9 FC1 59 7.772
9 FC1 60 7.284
9 FC1 61 6.795
9 FC1 62 6.307
9 FC1 63 5.330
9 FC1 64 4.842
9 FC1 65 3.866
9 FC1 66 3.866
9 FC1 67 3.377
9 FC1 68 3.377
9 FC1 69 3.377
9 FC1 70 2.401
9 FC1 71 1.424
9 FC1 72 1.424
9 FC1 73 1.912
9 FC1 74 2.889
9 FC1 75 4.354
9 FC1 76 5.819
9 FC1 77 6.307
9 FC1 78 5.819
9 FC1 79 4.842
9 FC1 80 3.866
9 FC1 81 2.401
9 FC1 82 0.936
9 FC1 83 -0.041
9 FC1 84 -0.529
9 FC1 85 -0.041
9 FC1 86 -0.041
9 FC1 87 -0.529
9 FC1 88 -1.017
9 FC1 89 -1.506
9 FC1 90 -1.506
9 FC1 91 -1.017
9 FC1 92 -0.529
9 FC1 93 -0.529
9 FC1 94 -1.506
9 FC1 95 -1.017
9 FC1 96 -0.529
9 FC1 97 1.424
9 FC1 98 3.377
9 FC1 99 5.330
9 FC1 100 5.819
9 FC1 101 4.354
9 FC1 102 2.401
9 FC1 103 0.448
9 FC1 104 -0.041
9 FC1 105 0.448
9 FC1 106 1.912
9 FC1 107 3.377
9 FC1 108 3.377
9 FC1 109 1.912
9 FC1 110 -0.041
9 FC1 111 -1.017
9 FC1 112 -1.506
9 FC1 113 -1.017
9 FC1 114 0.448
9 FC1 115 1.424
9 FC1 116 1.912
9 FC1 117 1.912
9 FC1 118 1.424
9 FC1 119 1.912
9 FC1 120 2.401
9 FC1 121 4.354
9 FC1 122 5.819
9 FC1 123 7.284
9 FC1 124 7.772
9 FC1 125 7.284
9 FC1 126 6.307
9 FC1 127 5.330
9 FC1 128 3.866
9 FC1 129 2.401
9 FC1 130 0.936
9 FC1 131 -1.017
9 FC1 132 -2.482
9 FC1 133 -3.459
9 FC1 134 -2.970
9 FC1 135 -1.994
9 FC1 136 -0.529
9 FC1 137 0.936
9 FC1 138 1.424
9 FC1 139 1.424
9 FC1 140 0.448
9 FC1 141 -0.041
9 FC1 142 -0.529
9 FC1 143 -1.017
9 FC1 144 -1.506
9 FC1 145 -1.506
9 FC1 146 -0.529
9 FC1 147 0.448
9 FC1 148 1.912
9 FC1 149 3.377
9 FC1 150 3.866
9 FC1 151 3.377
9 FC1 152 1.912
9 FC1 153 0.448
9 FC1 154 -0.529
9 FC1 155 -0.529
9 FC1 156 -0.041
9 FC1 157 0.936
9 FC1 158 1.424
9 FC1 159 1.424
9 FC1 160 0.448
9 FC1 161 -0.529
9 FC1 162 -1.506
9 FC1 163 -1.994
9 FC1 164 -1.506
9 FC1 165 -0.041
9 FC1 166 0.936
9 FC1 167 2.401
9 FC1 168 3.866
9 FC1 169 4.842
9 FC1 170 5.819
9 FC1 171 5.819
9 FC1 172 5.330
9 FC1 173 3.866
9 FC1 174 1.424
9 FC1 175 -1.017
9 FC1 176 -2.482
9 FC1 177 -2.970
9 FC1 178 -1.994
9 FC1 179 -1.017
9 FC1 180 -0.041
9 FC1 181 -0.041
9 FC1 182 -0.041
9 FC1 183 -0.529
9 FC1 184 -0.529
9 FC1 185 0.448
9 FC1 186 1.912
9 FC1 187 2.889
9 FC1 188 3.377
9 FC1 189 2.889
9 FC1 190 1.912
9 FC1 191 0.448
9 FC1 192 -1.017
9 FC1 193 -1.994
9 FC1 194 -2.482
9 FC1 195 -1.994
9 FC1 196 -1.017
9 FC1 197 -0.041
9 FC1 198 0.448
9 FC1 199 -0.041
9 FC1 200 -1.017
9 FC1 201 -2.482
9 FC1 202 -3.459
9 FC1 203 -3.459
9 FC1 204 -3.459
9 FC1 205 -2.482
9 FC1 206 -1.506
9 FC1 207 -0.529
9 FC1 208 0.448
9 FC1 209 0.448
9 FC1 210 0.448
9 FC1 211 0.936
9 FC1 212 0.936
9 FC1 213 0.936
9 FC1 214 0.448
9 FC1 215 -0.041
9 FC1 216 -0.529
9 FC1 217 -0.529
9 FC1 218 -0.529
9 FC1 219 -0.041
9 FC1 220 -0.041
9 FC1 221 -0.041
9 FC1 222 -0.041
9 FC1 223 -0.041
9 FC1 224 0.448
9 FC1 225 0.448
9 FC1 226 0.448
9 FC1 227 -0.041
9 FC1 228 -1.017
9 FC1 229 -1.506
9 FC1 230 -1.994
9 FC1 231 -1.506
9 FC1 232 -0.529
9 FC1 233 0.936
9 FC1 234 2.401
9 FC1 235 3.866
9 FC1 236 4.842
9 FC1 237 4.842
9 FC1 238 4.354
9 FC1 239 2.889
9 FC1 240 1.424
9 FC1 241 -0.041
9 FC1 242 -1.017
9 FC1 243 -1.506
9 FC1 244 -1.994
9 FC1 245 -1.994
9 FC1 246 -2.482
9 FC1 247 -1.994
9 FC1 248 -1.017
9 FC1 249 -0.041
9 FC1 250 0.936
9 FC1 251 0.936
9 FC1 252 0.448
9 FC1 253 -0.041
9 FC1 254 0.448
9 FC1 255 1.424
# T8 chan 13
9 T8 0 1.149
9 T8 1 1.149
9 T8 2 1.149
9 T8 3 1.638
9 T8 4 1.638
9 T8 5 1.149
9 T8 6 -0.315
9 T8 7 -2.268
9 T8 8 -2.757
9 T8 9 -2.757
9 T8 10 -0.804
9 T8 11 2.126
9 T8 12 5.056
9 T8 13 7.497
9 T8 14 8.474
9 T8 15 7.497
9 T8 16 4.567
9 T8 17 2.614
9 T8 18 1.149
9 T8 19 1.638
9 T8 20 3.103
9 T8 21 3.591
9 T8 22 3.103
9 T8 23 1.638
9 T8 24 0.173
9 T8 25 0.661
9 T8 26 3.103
9 T8 27 7.009
9 T8 28 10.915
9 T8 29 13.845
9 T8 30 15.310
9 T8 31 15.310
9 T8 32 13.845
9 T8 33 10.915
9 T8 34 7.985
9 T8 35 5.544
9 T8 36 4.079
9 T8 37 4.079
9 T8 38 4.567
9 T8 39 4.079
9 T8 40 2.126
9 T8 41 -0.804
9 T8 42 -3.733
9 T8 43 -4.710
9 T8 44 -3.245
9 T8 45 -0.804
9 T8 46 0.661
9 T8 47 0.173
9 T8 48 -1.292
9 T8 49 -2.757
9 T8 50 -2.757
9 T8 51 -1.292
9 T8 52 0.661
9 T8 53 2.126
9 T8 54 3.103
9 T8 55 2.614
9 T8 56 3.103
9 T8 57 3.591
9 T8 58 4.079
9 T8 59 4.079
9 T8 60 2.126
9 T8 61 -1.780
9 T8 62 -5.686
9 T8 63 -8.616
9 T8 64 -8.616
9 T8 65 -7.151
9 T8 66 -4.710
9 T8 67 -2.757
9 T8 68 -1.780
9 T8 69 -1.780
9 T8 70 -0.804
9 T8 71 0.173
9 T8 72 1.149
9 T8 73 1.638
9 T8 74 1.638
9 T8 75 1.638
9 T8 76 2.126
9 T8 77 4.567
9 T8 78 6.521
9 T8 79 7.009
9 T8 80 6.521
9 T8 81 4.079
9 T8 82 1.638
9 T8 83 -0.804
9 T8 84 -2.268
9 T8 85 -3.733
9 T8 86 -5.198
9 T8 87 -7.151
9 T8 88 -8.616
9 T8 89 -8.128
9 T8 90 -5.686
9 T8 91 -3.245
9 T8 92 -0.315
9 T8 93 1.149
9 T8 94 1.149
9 T8 95 1.149
9 T8 96 1.638
9 T8 97 3.591
9 T8 98 5.544
9 T8 99 7.497
9 T8 100 7.497
9 T8 101 6.521
9 T8 102 4.079
9 T8 103 1.149
9 T8 104 -1.292
9 T8 105 -4.222
9 T8 106 -6.663
9 T8 107 -8.128
9 T8 108 -7.640
9 T8 109 -5.686
9 T8 110 -2.268
9 T8 111 0.173
9 T8 112 1.638
9 T8 113 1.638
9 T8 114 1.149
9 T8 115 0.173
9 T8 116 -0.804
9 T8 117 -1.292
9 T8 118 -0.804
9 T8 119 0.173
9 T8 120 3.103
9 T8 121 7.009
9 T8 122 10.427
9 T8 123 12.868
9 T8 124 12.868
9 T8 125 10.427
9 T8 126 7.009
9 T8 127 4.079
9 T8 128 1.638
9 T8 129 -0.315
9 T8 130 -1.292
9 T8 131 -2.268
9 T8 132 -3.245
9 T8 133 -3.245
9 T8 134 -1.780
9 T8 135 0.173
9 T8 136 2.126
9 T8 137 3.591
9 T8 138 3.591
9 T8 139 2.126
9 T8 140 0.173
9 T8 141 -2.268
9 T8 142 -3.245
9 T8 143 -2.757
9 T8 144 -0.315
9 T8 145 2.614
9 T8 146 5.056
9 T8 147 7.009
9 T8 148 7.497
9 T8 149 6.521
9 T8 150 5.056
9 T8 151 3.591
9 T8 152 1.638
9 T8 153 -0.315
9 T8 154 -2.757
9 T8 155 -4.222
9 T8 156 -5.198
9 T8 157 -5.686
9 T8 158 -5.686
9 T8 159 -4.710
9 T8 160 -3.733
9 T8 161 -2.757
9 T8 162 -1.780
9 T8 163 -1.780
9 T8 164 -1.780
9 T8 165 -2.757
9 T8 166 -3.733
9 T8 167 -4.222
9 T8 168 -4.710
9 T8 169 -4.710
9 T8 170 -4.222
9 T8 171 -2.757
9 T8 172 -1.292
9 T8 173 1.638
9 T8 174 5.056
9 T8 175 7.497
9 T8 176 8.962
9 T8 177 8.474
9 T8 178 6.032
9 T8 179 3.103
9 T8 180 -0.315
9 T8 181 -1.780
9 T8 182 -2.268
9 T8 183 -1.292
9 T8 184 -0.315
9 T8 185 1.149
9 T8 186 1.149
9 T8 187 1.149
9 T8 188 1.149
9 T8 189 1.149
9 T8 190 1.149
9 T8 191 1.149
9 T8 192 0.661
9 T8 193 0.661
9 T8 194 0.661
9 T8 195 0.661
9 T8 196 0.173
9 T8 197 -0.804
9 T8 198 -2.268
9 T8 199 -3.733
9 T8 200 -5.198
9 T8 201 -5.198
9 T8 202 -4.710
9 T8 203 -3.245
9 T8 204 -0.804
9 T8 205 1.149
9 T8 206 3.103
9 T8 207 4.079
9 T8 208 4.079
9 T8 209 2.126
9 T8 210 -0.315
9 T8 211 -3.245
9 T8 212 -5.198
9 T8 213 -6.175
9 T8 214 -5.686
9 T8 215 -4.710
9 T8 216 -3.733
9 T8 217 -2.757
9 T8 218 -2.268
9 T8 219 -2.757
9 T8 220 -3.733
9 T8 221 -3.733
9 T8 222 -2.268
9 T8 223 1.149
9 T8 224 5.056
9 T8 225 8.962
9 T8 226 10.915
9 T8 227 11.403
9 T8 228 10.427
9 T8 229 9.939
9 T8 230 8.962
9 T8 231 7.985
9 T8 232 7.009
9 T8 233 5.544
9 T8 234 4.567
9 T8 235 5.056
9 T8 236 5.544
9 T8 237 5.544
9 T8 238 3.591
9 T8 239 0.173
9 T8 240 -3.245
9 T8 241 -5.198
9 T8 242 -4.222
9 T8 243 -2.268
9 T8 244 1.149
9 T8 245 4.079
9 T8 246 6.521
9 T8 247 8.474
9 T8 248 9.939
9 T8 249 11.403
9 T8 250 11.403
9 T8 251 10.915
9 T8 252 10.427
9 T8 253 9.939
9 T8 254 9.450
9 T8 255 7.985
# T7 chan 14
9 T7 0 -3.265
9 T7 1 -6.195
9 T7 2 -9.613
9 T7 3 -12.054
9 T7 4 -14.008
9 T7 5 -14.008
9 T7 6 -13.031
9 T7 7 -11.566
9 T7 8 -10.590
9 T7 9 -9.613
9 T7 10 -7.660
9 T7 11 -4.730
9 T7 12 -0.336
9 T7 13 3.571
9 T7 14 6.012
9 T7 15 6.500
9 T7 16 5.524
9 T7 17 4.059
9 T7 18 3.082
9 T7 19 2.106
9 T7 20 0.641
9 T7 21 -0.336
9 T7 22 -0.824
9 T7 23 0.153
9 T7 24 3.082
9 T7 25 6.500
9 T7 26 9.430
9 T7 27 9.918
9 T7 28 7.965
9 T7 29 5.524
9 T7 30 3.571
9 T7 31 2.594
9 T7 32 2.106
9 T7 33 2.106
9 T7 34 0.641
9 T7 35 -0.824
9 T7 36 -1.801
9 T7 37 -1.312
9 T7 38 0.641
9 T7 39 2.594
9 T7 40 4.547
9 T7 41 4.547
9 T7 42 4.059
9 T7 43 3.571
9 T7 44 2.594
9 T7 45 3.082
9 T7 46 3.082
9 T7 47 3.571
9 T7 48 3.082
9 T7 49 2.106
9 T7 50 0.641
9 T7 51 -0.824
9 T7 52 -1.312
9 T7 53 -0.336
9 T7 54 1.129
9 T7 55 2.594
9 T7 56 3.082
9 T7 57 3.571
9 T7 58 3.571
9 T7 59 3.082
9 T7 60 2.106
9 T7 61 1.129
9 T7 62 -0.336
9 T7 63 -1.312
9 T7 64 -0.824
9 T7 65 0.641
9 T7 66 2.594
9 T7 67 4.547
9 T7 68 5.035
9 T7 69 3.082
9 T7 70 0.641
9 T7 71 -1.801
9 T7 72 -2.777
9 T7 73 -2.289
9 T7 74 -0.336
9 T7 75 3.082
9 T7 76 6.012
9 T7 77 7.965
9 T7 78 9.430
9 T7 79 8.942
9 T7 80 7.477
9 T7 81 4.547
9 T7 82 1.129
9 T7 83 -2.777
9 T7 84 -5.707
9 T7 85 -8.148
9 T7 86 -8.148
9 T7 87 -7.172
9 T7 88 -5.707
9 T7 89 -4.242
9 T7 90 -3.265
9 T7 91 -2.289
9 T7 92 -0.824
9 T7 93 0.153
9 T7 94 0.153
9 T7 95 -1.312
9 T7 96 -3.265
9 T7 97 -4.242
9 T7 98 -3.265
9 T7 99 -0.336
9 T7 100 4.059
9 T7 101 6.500
9 T7 102 6.500
9 T7 103 3.571
9 T7 104 -0.824
9 T7 105 -4.242
9 T7 106 -5.707
9 T7 107 -5.219
9 T7 108 -3.265
9 T7 109 -1.312
9 T7 110 0.153
9 T7 111 1.129
9 T7 112 2.594
9 T7 113 4.059
9 T7 114 5.524
9 T7 115 6.500
9 T7 116 6.989
9 T7 117 6.500
9 T7 118 6.989
9 T7 119 7.477
9 T7 120 9.918
9 T7 121 13.336
9 T7 122 16.266
9 T7 123 17.242
9 T7 124 16.266
9 T7 125 13.336
9 T7 126 8.453
9 T7 127 3.082
9 T7 128 -1.312
9 T7 129 -4.730
9 T7 130 -6.195
9 T7 131 -6.195
9 T7 132 -5.219
9 T7 133 -4.242
9 T7 134 -2.777
9 T7 135 -1.312
9 T7 136 -0.336
9 T7 137 1.129
9 T7 138 1.617
9 T7 139 1.617
9 T7 140 1.617
9 T7 141 1.617
9 T7 142 2.106
9 T7 143 2.594
9 T7 144 2.594
9 T7 145 1.617
9 T7 146 -0.336
9 T7 147 -2.777
9 T7 148 -5.707
9 T7 149 -8.148
9 T7 150 -10.101
9 T7 151 -11.078
9 T7 152 -11.566
9 T7 153 -11.078
9 T7 154 -9.613
9 T7 155 -7.660
9 T7 156 -6.683
9 T7 157 -5.219
9 T7 158 -5.219
9 T7 159 -4.242
9 T7 160 -2.777
9 T7 161 -0.824
9 T7 162 0.153
9 T7 163 0.153
9 T7 164 0.153
9 T7 165 0.641
9 T7 166 1.617
9 T7 167 3.571
9 T7 168 6.012
9 T7 169 7.477
9 T7 170 7.965
9 T7 171 6.012
9 T7 172 3.082
9 T7 173 -1.801
9 T7 174 -6.195
9 T7 175 -10.101
9 T7 176 -11.566
9 T7 177 -10.590
9 T7 178 -7.660
9 T7 179 -4.242
9 T7 180 -1.312
9 T7 181 1.129
9 T7 182 2.106
9 T7 183 3.082
9 T7 184 4.547
9 T7 185 6.012
9 T7 186 6.500
9 T7 187 6.989
9 T7 188 6.012
9 T7 189 5.035
9 T7 190 3.571
9 T7 191 2.594
9 T7 192 1.617
9 T7 193 0.641
9 T7 194 -0.824
9 T7 195 -2.777
9 T7 196 -4.730
9 T7 197 -7.172
9 T7 198 -10.101
9 T7 199 -12.543
9 T7 200 -14.984
9 T7 201 -16.937
9 T7 202 -17.914
9 T7 203 -16.937
9 T7 204 -14.984
9 T7 205 -11.078
9 T7 206 -6.195
9 T7 207 -1.801
9 T7 208 1.129
9 T7 209 2.106
9 T7 210 1.129
9 T7 211 0.153
9 T7 212 -0.824
9 T7 213 -1.312
9 T7 214 -1.801
9 T7 215 -2.777
9 T7 216 -3.754
9 T7 217 -3.754
9 T7 218 -3.265
9 T7 219 -1.312
9 T7 220 0.641
9 T7 221 2.594
9 T7 222 3.082
9 T7 223 2.106
9 T7 224 0.153
9 T7 225 -2.777
9 T7 226 -6.195
9 T7 227 -9.125
9 T7 228 -10.590
9 T7 229 -10.590
9 T7 230 -8.636
9 T7 231 -4.730
9 T7 232 0.153
9 T7 233 5.524
9 T7 234 8.942
9 T7 235 10.895
9 T7 236 11.383
9 T7 237 10.406
9 T7 238 9.430
9 T7 239 7.477
9 T7 240 5.035
9 T7 241 2.594
9 T7 242 0.153
9 T7 243 -1.801
9 T7 244 -4.730
9 T7 245 -7.172
9 T7 246 -9.125
9 T7 247 -10.590
9 T7 248 -11.078
9 T7 249 -10.590
9 T7 250 -9.125
9 T7 251 -7.660
9 T7 252 -6.195
9 T7 253 -3.754
9 T7 254 -0.336
9 T7 255 3.082
# CZ chan 15
9 CZ 0 0.397
9 CZ 1 -1.068
9 CZ 2 -2.533
9 CZ 3 -3.510
9 CZ 4 -4.486
9 CZ 5 -4.486
9 CZ 6 -3.998
9 CZ 7 -3.510
9 CZ 8 -3.510
9 CZ 9 -4.486
9 CZ 10 -3.510
9 CZ 11 -1.556
9 CZ 12 2.838
9 CZ 13 7.721
9 CZ 14 12.115
9 CZ 15 13.580
9 CZ 16 12.604
9 CZ 17 9.674
9 CZ 18 6.744
9 CZ 19 4.303
9 CZ 20 2.350
9 CZ 21 0.397
9 CZ 22 -1.068
9 CZ 23 -0.580
9 CZ 24 1.373
9 CZ 25 4.791
9 CZ 26 8.209
9 CZ 27 10.651
9 CZ 28 10.651
9 CZ 29 10.651
9 CZ 30 11.139
9 CZ 31 13.580
9 CZ 32 15.045
9 CZ 33 15.045
9 CZ 34 11.627
9 CZ 35 5.768
9 CZ 36 0.885
9 CZ 37 -1.556
9 CZ 38 -1.068
9 CZ 39 1.862
9 CZ 40 4.303
9 CZ 41 5.280
9 CZ 42 5.280
9 CZ 43 5.280
9 CZ 44 5.768
9 CZ 45 5.768
9 CZ 46 6.256
9 CZ 47 5.280
9 CZ 48 2.350
9 CZ 49 -0.580
9 CZ 50 -3.510
9 CZ 51 -4.486
9 CZ 52 -3.021
9 CZ 53 -0.580
9 CZ 54 1.373
9 CZ 55 2.350
9 CZ 56 1.862
9 CZ 57 0.885
9 CZ 58 -1.068
9 CZ 59 -3.021
9 CZ 60 -5.463
9 CZ 61 -7.904
9 CZ 62 -11.810
9 CZ 63 -14.252
9 CZ 64 -15.717
9 CZ 65 -15.228
9 CZ 66 -12.299
9 CZ 67 -8.881
9 CZ 68 -6.439
9 CZ 69 -7.416
9 CZ 70 -10.345
9 CZ 71 -14.740
9 CZ 72 -18.158
9 CZ 73 -19.135
9 CZ 74 -18.158
9 CZ 75 -15.228
9 CZ 76 -11.810
9 CZ 77 -8.392
9 CZ 78 -5.463
9 CZ 79 -3.998
9 CZ 80 -4.486
9 CZ 81 -7.904
9 CZ 82 -13.763
9 CZ 83 -19.135
9 CZ 84 -23.041
9 CZ 85 -24.017
9 CZ 86 -24.506
9 CZ 87 -24.506
9 CZ 88 -24.506
9 CZ 89 -24.506
9 CZ 90 -23.041
9 CZ 91 -20.111
9 CZ 92 -17.181
9 CZ 93 -16.693
9 CZ 94 -18.646
9 CZ 95 -23.041
9 CZ 96 -24.994
9 CZ 97 -22.552
9 CZ 98 -16.693
9 CZ 99 -8.881
9 CZ 100 -3.510
9 CZ 101 -3.021
9 CZ 102 -7.904
9 CZ 103 -14.740
9 CZ 104 -21.088
9 CZ 105 -24.506
9 CZ 106 -24.506
9 CZ 107 -22.064
9 CZ 108 -18.646
9 CZ 109 -15.228
9 CZ 110 -12.299
9 CZ 111 -9.857
9 CZ 112 -8.392
9 CZ 113 -7.904
9 CZ 114 -7.904
9 CZ 115 -9.369
9 CZ 116 -10.834
9 CZ 117 -12.299
9 CZ 118 -12.787
9 CZ 119 -10.345
9 CZ 120 -5.951
9 CZ 121 0.397
9 CZ 122 6.744
9 CZ 123 11.627
9 CZ 124 12.604
9 CZ 125 10.162
9 CZ 126 4.303
9 CZ 127 -2.045
9 CZ 128 -7.904
9 CZ 129 -12.787
9 CZ 130 -15.228
9 CZ 131 -16.205
9 CZ 132 -15.228
9 CZ 133 -13.275
9 CZ 134 -10.834
9 CZ 135 -8.881
9 CZ 136 -7.904
9 CZ 137 -8.881
9 CZ 138 -10.834
9 CZ 139 -12.787
9 CZ 140 -14.252
9 CZ 141 -15.228
9 CZ 142 -15.228
9 CZ 143 -14.252
9 CZ 144 -12.299
9 CZ 145 -10.345
9 CZ 146 -8.392
9 CZ 147 -7.904
9 CZ 148 -8.881
9 CZ 149 -11.322
9 CZ 150 -13.763
9 CZ 151 -15.228
9 CZ 152 -16.205
9 CZ 153 -17.181
9 CZ 154 -18.646
9 CZ 155 -21.088
9 CZ 156 -23.529
9 CZ 157 -25.482
9 CZ 158 -25.482
9 CZ 159 -24.017
9 CZ 160 -21.088
9 CZ 161 -17.181
9 CZ 162 -14.252
9 CZ 163 -13.275
9 CZ 164 -12.787
9 CZ 165 -13.275
9 CZ 166 -13.275
9 CZ 167 -11.810
9 CZ 168 -9.369
9 CZ 169 -5.951
9 CZ 170 -3.998
9 CZ 171 -3.510
9 CZ 172 -5.463
9 CZ 173 -8.392
9 CZ 174 -11.810
9 CZ 175 -13.275
9 CZ 176 -14.252
9 CZ 177 -15.228
9 CZ 178 -16.205
9 CZ 179 -17.181
9 CZ 180 -18.646
9 CZ 181 -19.135
9 CZ 182 -18.646
9 CZ 183 -16.205
9 CZ 184 -12.299
9 CZ 185 -7.416
9 CZ 186 -2.533
9 CZ 187 -0.092
9 CZ 188 -0.580
9 CZ 189 -3.998
9 CZ 190 -7.904
9 CZ 191 -9.857
9 CZ 192 -9.369
9 CZ 193 -7.416
9 CZ 194 -6.439
9 CZ 195 -8.392
9 CZ 196 -12.787
9 CZ 197 -17.670
9 CZ 198 -20.599
9 CZ 199 -21.576
9 CZ 200 -20.599
9 CZ 201 -20.599
9 CZ 202 -22.552
9 CZ 203 -24.017
9 CZ 204 -24.017
9 CZ 205 -21.088
9 CZ 206 -15.717
9 CZ 207 -10.834
9 CZ 208 -8.881
9 CZ 209 -9.857
9 CZ 210 -11.810
9 CZ 211 -13.763
9 CZ 212 -14.252
9 CZ 213 -14.252
9 CZ 214 -15.228
9 CZ 215 -17.181
9 CZ 216 -20.111
9 CZ 217 -22.064
9 CZ 218 -21.088
9 CZ 219 -18.646
9 CZ 220 -15.228
9 CZ 221 -11.810
9 CZ 222 -8.392
9 CZ 223 -4.974
9 CZ 224 -2.533
9 CZ 225 -1.068
9 CZ 226 -0.580
9 CZ 227 -1.068
9 CZ 228 -2.045
9 CZ 229 -2.533
9 CZ 230 -3.998
9 CZ 231 -4.974
9 CZ 232 -5.463
9 CZ 233 -4.974
9 CZ 234 -2.533
9 CZ 235 0.885
9 CZ 236 4.303
9 CZ 237 5.280
9 CZ 238 3.815
9 CZ 239 1.373
9 CZ 240 -0.580
9 CZ 241 -1.068
9 CZ 242 -0.580
9 CZ 243 -0.580
9 CZ 244 -1.068
9 CZ 245 -1.556
9 CZ 246 -1.068
9 CZ 247 1.373
9 CZ 248 4.303
9 CZ 249 6.744
9 CZ 250 6.256
9 CZ 251 3.326
9 CZ 252 0.885
9 CZ 253 0.397
9 CZ 254 2.350
9 CZ 255 5.768
# C3 chan 16
9 C3 0 -1.607
9 C3 1 -2.584
9 C3 2 -4.049
9 C3 3 -5.514
9 C3 4 -6.978
9 C3 5 -6.978
9 C3 6 -6.002
9 C3 7 -5.025
9 C3 8 -4.049
9 C3 9 -3.560
9 C3 10 -3.072
9 C3 11 -2.096
9 C3 12 -0.142
9 C3 13 1.811
9 C3 14 3.276
9 C3 15 3.276
9 C3 16 1.811
9 C3 17 0.346
9 C3 18 -1.119
9 C3 19 -2.096
9 C3 20 -2.584
9 C3 21 -2.584
9 C3 22 -2.096
9 C3 23 -0.631
9 C3 24 0.834
9 C3 25 3.276
9 C3 26 4.252
9 C3 27 4.252
9 C3 28 2.299
9 C3 29 0.346
9 C3 30 -1.119
9 C3 31 -1.607
9 C3 32 -1.607
9 C3 33 -2.096
9 C3 34 -2.584
9 C3 35 -3.072
9 C3 36 -2.584
9 C3 37 -1.607
9 C3 38 0.834
9 C3 39 2.299
9 C3 40 3.276
9 C3 41 2.787
9 C3 42 2.299
9 C3 43 0.834
9 C3 44 -0.142
9 C3 45 -1.119
9 C3 46 -1.607
9 C3 47 -1.607
9 C3 48 -1.607
9 C3 49 -1.607
9 C3 50 -2.584
9 C3 51 -3.072
9 C3 52 -3.560
9 C3 53 -3.560
9 C3 54 -2.584
9 C3 55 -1.119
9 C3 56 -0.142
9 C3 57 0.834
9 C3 58 1.322
9 C3 59 1.811
9 C3 60 1.811
9 C3 61 1.322
9 C3 62 0.346
9 C3 63 -0.631
9 C3 64 -1.119
9 C3 65 -0.631
9 C3 66 0.346
9 C3 67 0.346
9 C3 68 0.346
9 C3 69 -1.607
9 C3 70 -3.072
9 C3 71 -4.537
9 C3 72 -4.537
9 C3 73 -3.072
9 C3 74 -1.119
9 C3 75 1.322
9 C3 76 3.276
9 C3 77 4.740
9 C3 78 5.229
9 C3 79 4.252
9 C3 80 2.787
9 C3 81 0.834
9 C3 82 -1.607
9 C3 83 -3.560
9 C3 84 -4.537
9 C3 85 -4.537
9 C3 86 -4.049
9 C3 87 -2.584
9 C3 88 -1.119
9 C3 89 -0.631
9 C3 90 -0.142
9 C3 91 -0.631
9 C3 92 -0.631
9 C3 93 -1.119
9 C3 94 -1.607
9 C3 95 -3.072
9 C3 96 -4.049
9 C3 97 -4.049
9 C3 98 -3.072
9 C3 99 -0.142
9 C3 100 2.299
9 C3 101 3.764
9 C3 102 3.276
9 C3 103 1.322
9 C3 104 -1.607
9 C3 105 -3.072
9 C3 106 -3.072
9 C3 107 -2.096
9 C3 108 -0.631
9 C3 109 -0.142
9 C3 110 -0.142
9 C3 111 -0.631
9 C3 112 -1.119
9 C3 113 -0.631
9 C3 114 -0.142
9 C3 115 0.834
9 C3 116 1.322
9 C3 117 1.322
9 C3 118 1.322
9 C3 119 2.299
9 C3 120 3.276
9 C3 121 4.252
9 C3 122 5.229
9 C3 123 5.717
9 C3 124 5.717
9 C3 125 5.717
9 C3 126 4.252
9 C3 127 2.787
9 C3 128 1.322
9 C3 129 -0.142
9 C3 130 -1.607
9 C3 131 -2.096
9 C3 132 -2.096
9 C3 133 -1.607
9 C3 134 -1.119
9 C3 135 -0.631
9 C3 136 -0.631
9 C3 137 -0.631
9 C3 138 -1.119
9 C3 139 -1.607
9 C3 140 -2.096
9 C3 141 -2.096
9 C3 142 -1.119
9 C3 143 -0.631
9 C3 144 -0.142
9 C3 145 -0.631
9 C3 146 -1.119
9 C3 147 -2.096
9 C3 148 -2.584
9 C3 149 -3.072
9 C3 150 -2.584
9 C3 151 -2.584
9 C3 152 -2.096
9 C3 153 -1.607
9 C3 154 -0.631
9 C3 155 -0.142
9 C3 156 0.346
9 C3 157 0.834
9 C3 158 0.346
9 C3 159 -0.142
9 C3 160 -0.631
9 C3 161 -0.631
9 C3 162 -0.631
9 C3 163 -0.142
9 C3 164 0.346
9 C3 165 0.834
9 C3 166 2.299
9 C3 167 3.764
9 C3 168 5.229
9 C3 169 6.205
9 C3 170 6.205
9 C3 171 5.717
9 C3 172 4.252
9 C3 173 1.811
9 C3 174 -1.119
9 C3 175 -3.072
9 C3 176 -3.560
9 C3 177 -3.072
9 C3 178 -1.119
9 C3 179 0.834
9 C3 180 2.787
9 C3 181 3.764
9 C3 182 4.252
9 C3 183 3.764
9 C3 184 3.276
9 C3 185 2.787
9 C3 186 2.299
9 C3 187 2.299
9 C3 188 1.811
9 C3 189 1.322
9 C3 190 0.834
9 C3 191 0.346
9 C3 192 -0.631
9 C3 193 -1.119
9 C3 194 -0.631
9 C3 195 -0.631
9 C3 196 -0.142
9 C3 197 -0.631
9 C3 198 -1.607
9 C3 199 -3.072
9 C3 200 -4.537
9 C3 201 -6.002
9 C3 202 -6.490
9 C3 203 -6.490
9 C3 204 -5.514
9 C3 205 -4.537
9 C3 206 -3.072
9 C3 207 -1.607
9 C3 208 -0.142
9 C3 209 0.346
9 C3 210 0.346
9 C3 211 0.346
9 C3 212 0.346
9 C3 213 0.834
9 C3 214 0.834
9 C3 215 0.834
9 C3 216 0.834
9 C3 217 1.322
9 C3 218 1.322
9 C3 219 2.299
9 C3 220 2.787
9 C3 221 2.787
9 C3 222 2.299
9 C3 223 0.834
9 C3 224 -1.607
9 C3 225 -3.560
9 C3 226 -5.025
9 C3 227 -6.490
9 C3 228 -6.978
9 C3 229 -6.490
9 C3 230 -4.537
9 C3 231 -1.607
9 C3 232 1.322
9 C3 233 3.764
9 C3 234 5.229
9 C3 235 5.717
9 C3 236 5.229
9 C3 237 4.252
9 C3 238 3.276
9 C3 239 3.276
9 C3 240 2.299
9 C3 241 1.811
9 C3 242 0.346
9 C3 243 -1.119
9 C3 244 -3.560
9 C3 245 -5.025
9 C3 246 -6.490
9 C3 247 -6.978
9 C3 248 -6.978
9 C3 249 -6.002
9 C3 250 -5.025
9 C3 251 -4.049
9 C3 252 -3.072
9 C3 253 -2.096
9 C3 254 -1.119
9 C3 255 0.346
# C4 chan 17
9 C4 0 -0.071
9 C4 1 0.905
9 C4 2 1.882
9 C4 3 2.370
9 C4 4 1.394
9 C4 5 0.417
9 C4 6 -0.559
9 C4 7 -1.048
9 C4 8 -1.048
9 C4 9 -0.071
9 C4 10 0.417
9 C4 11 0.417
9 C4 12 0.417
9 C4 13 0.905
9 C4 14 1.394
9 C4 15 2.370
9 C4 16 2.858
9 C4 17 2.858
9 C4 18 2.370
9 C4 19 1.882
9 C4 20 1.882
9 C4 21 1.882
9 C4 22 0.905
9 C4 23 -0.559
9 C4 24 -2.024
9 C4 25 -2.513
9 C4 26 -1.536
9 C4 27 0.905
9 C4 28 3.835
9 C4 29 5.300
9 C4 30 5.300
9 C4 31 4.323
9 C4 32 2.370
9 C4 33 1.394
9 C4 34 0.417
9 C4 35 -0.071
9 C4 36 -0.559
9 C4 37 -1.048
9 C4 38 -1.048
9 C4 39 -1.048
9 C4 40 -2.024
9 C4 41 -3.001
9 C4 42 -3.977
9 C4 43 -4.466
9 C4 44 -3.977
9 C4 45 -3.489
9 C4 46 -3.001
9 C4 47 -3.001
9 C4 48 -3.001
9 C4 49 -2.024
9 C4 50 -0.559
9 C4 51 1.394
9 C4 52 2.858
9 C4 53 2.858
9 C4 54 1.882
9 C4 55 0.417
9 C4 56 -0.071
9 C4 57 0.417
9 C4 58 1.394
9 C4 59 1.394
9 C4 60 0.905
9 C4 61 -0.071
9 C4 62 -1.048
9 C4 63 -2.513
9 C4 64 -3.001
9 C4 65 -3.489
9 C4 66 -3.001
9 C4 67 -2.513
9 C4 68 -1.536
9 C4 69 -0.071
9 C4 70 0.417
9 C4 71 0.905
9 C4 72 0.417
9 C4 73 0.417
9 C4 74 0.905
9 C4 75 1.394
9 C4 76 2.370
9 C4 77 3.347
9 C4 78 3.835
9 C4 79 3.835
9 C4 80 3.835
9 C4 81 3.835
9 C4 82 3.347
9 C4 83 3.347
9 C4 84 2.858
9 C4 85 1.394
9 C4 86 -0.559
9 C4 87 -1.536
9 C4 88 -2.024
9 C4 89 -1.536
9 C4 90 -0.559
9 C4 91 0.417
9 C4 92 1.394
9 C4 93 1.394
9 C4 94 2.370
9 C4 95 2.858
9 C4 96 3.835
9 C4 97 4.323
9 C4 98 4.812
9 C4 99 5.300
9 C4 100 5.300
9 C4 101 5.300
9 C4 102 4.812
9 C4 103 4.323
9 C4 104 3.835
9 C4 105 2.858
9 C4 106 1.882
9 C4 107 0.417
9 C4 108 -0.071
9 C4 109 -0.559
9 C4 110 0.417
9 C4 111 0.905
9 C4 112 1.394
9 C4 113 1.882
9 C4 114 1.882
9 C4 115 1.394
9 C4 116 0.417
9 C4 117 -0.559
9 C4 118 -0.559
9 C4 119 -0.071
9 C4 120 1.394
9 C4 121 3.347
9 C4 122 5.300
9 C4 123 6.765
9 C4 124 7.741
9 C4 125 7.741
9 C4 126 6.765
9 C4 127 5.788
9 C4 128 3.835
9 C4 129 2.370
9 C4 130 0.417
9 C4 131 -0.071
9 C4 132 -0.559
9 C4 133 -1.048
9 C4 134 -1.048
9 C4 135 -0.559
9 C4 136 -0.559
9 C4 137 -0.559
9 C4 138 -0.559
9 C4 139 -0.559
9 C4 140 -1.536
9 C4 141 -1.048
9 C4 142 -1.048
9 C4 143 -0.071
9 C4 144 2.370
9 C4 145 4.323
9 C4 146 6.276
9 C4 147 6.765
9 C4 148 6.765
9 C4 149 5.300
9 C4 150 3.835
9 C4 151 2.370
9 C4 152 0.905
9 C4 153 -0.071
9 C4 154 -0.559
9 C4 155 -0.559
9 C4 156 -0.559
9 C4 157 -0.559
9 C4 158 -0.559
9 C4 159 -0.071
9 C4 160 0.417
9 C4 161 0.417
9 C4 162 0.417
9 C4 163 0.417
9 C4 164 -0.071
9 C4 165 -0.559
9 C4 166 -1.536
9 C4 167 -2.513
9 C4 168 -3.489
9 C4 169 -3.489
9 C4 170 -3.001
9 C4 171 -1.536
9 C4 172 0.417
9 C4 173 3.347
9 C4 174 5.788
9 C4 175 7.741
9 C4 176 8.230
9 C4 177 7.253
9 C4 178 5.300
9 C4 179 2.858
9 C4 180 0.905
9 C4 181 -0.559
9 C4 182 -0.559
9 C4 183 -0.559
9 C4 184 0.417
9 C4 185 1.394
9 C4 186 1.882
9 C4 187 2.370
9 C4 188 2.858
9 C4 189 3.347
9 C4 190 3.835
9 C4 191 4.323
9 C4 192 4.812
9 C4 193 4.812
9 C4 194 4.812
9 C4 195 4.323
9 C4 196 3.347
9 C4 197 2.858
9 C4 198 2.370
9 C4 199 2.370
9 C4 200 2.370
9 C4 201 2.370
9 C4 202 2.370
9 C4 203 2.370
9 C4 204 2.858
9 C4 205 4.323
9 C4 206 4.812
9 C4 207 5.300
9 C4 208 4.812
9 C4 209 3.347
9 C4 210 1.394
9 C4 211 0.417
9 C4 212 -0.071
9 C4 213 -0.071
9 C4 214 0.905
9 C4 215 1.394
9 C4 216 2.370
9 C4 217 2.858
9 C4 218 3.347
9 C4 219 2.370
9 C4 220 1.394
9 C4 221 0.417
9 C4 222 0.417
9 C4 223 1.394
9 C4 224 3.347
9 C4 225 5.300
9 C4 226 6.765
9 C4 227 7.741
9 C4 228 7.741
9 C4 229 7.253
9 C4 230 6.276
9 C4 231 4.812
9 C4 232 2.370
9 C4 233 0.905
9 C4 234 0.417
9 C4 235 1.394
9 C4 236 2.370
9 C4 237 2.858
9 C4 238 2.370
9 C4 239 0.905
9 C4 240 -0.071
9 C4 241 -0.071
9 C4 242 0.905
9 C4 243 2.370
9 C4 244 3.347
9 C4 245 4.812
9 C4 246 5.300
9 C4 247 6.276
9 C4 248 6.765
9 C4 249 6.765
9 C4 250 6.276
9 C4 251 5.300
9 C4 252 4.812
9 C4 253 4.812
9 C4 254 4.812
9 C4 255 4.323
# CP5 chan 18
9 CP5 0 -3.143
9 CP5 1 -6.561
9 CP5 2 -9.491
9 CP5 3 -10.956
9 CP5 4 -11.444
9 CP5 5 -10.468
9 CP5 6 -9.491
9 CP5 7 -8.026
9 CP5 8 -7.050
9 CP5 9 -6.073
9 CP5 10 -4.608
9 CP5 11 -2.655
9 CP5 12 -0.702
9 CP5 13 1.740
9 CP5 14 3.693
9 CP5 15 4.181
9 CP5 16 3.693
9 CP5 17 2.228
9 CP5 18 -0.702
9 CP5 19 -2.655
9 CP5 20 -4.120
9 CP5 21 -4.608
9 CP5 22 -3.632
9 CP5 23 -0.702
9 CP5 24 2.716
9 CP5 25 6.134
9 CP5 26 7.599
9 CP5 27 6.622
9 CP5 28 4.181
9 CP5 29 1.251
9 CP5 30 -1.190
9 CP5 31 -2.167
9 CP5 32 -2.655
9 CP5 33 -3.632
9 CP5 34 -5.096
9 CP5 35 -5.585
9 CP5 36 -5.585
9 CP5 37 -4.608
9 CP5 38 -2.655
9 CP5 39 -1.678
9 CP5 40 -1.678
9 CP5 41 -2.655
9 CP5 42 -3.632
9 CP5 43 -5.096
9 CP5 44 -6.073
9 CP5 45 -6.561
9 CP5 46 -7.050
9 CP5 47 -6.073
9 CP5 48 -6.073
9 CP5 49 -5.585
9 CP5 50 -5.585
9 CP5 51 -6.073
9 CP5 52 -6.073
9 CP5 53 -6.073
9 CP5 54 -5.096
9 CP5 55 -4.120
9 CP5 56 -3.143
9 CP5 57 -2.167
9 CP5 58 -1.678
9 CP5 59 -1.678
9 CP5 60 -2.167
9 CP5 61 -3.143
9 CP5 62 -4.608
9 CP5 63 -5.096
9 CP5 64 -5.096
9 CP5 65 -3.632
9 CP5 66 -1.678
9 CP5 67 -0.702
9 CP5 68 -0.702
9 CP5 69 -1.678
9 CP5 70 -3.143
9 CP5 71 -4.608
9 CP5 72 -4.608
9 CP5 73 -3.143
9 CP5 74 -1.190
9 CP5 75 1.251
9 CP5 76 3.204
9 CP5 77 5.157
9 CP5 78 6.134
9 CP5 79 6.134
9 CP5 80 5.157
9 CP5 81 2.716
9 CP5 82 -0.214
9 CP5 83 -3.632
9 CP5 84 -5.585
9 CP5 85 -6.073
9 CP5 86 -5.096
9 CP5 87 -2.655
9 CP5 88 -1.190
9 CP5 89 0.275
9 CP5 90 0.275
9 CP5 91 -0.214
9 CP5 92 -0.702
9 CP5 93 -1.190
9 CP5 94 -1.678
9 CP5 95 -2.655
9 CP5 96 -4.608
9 CP5 97 -5.585
9 CP5 98 -5.096
9 CP5 99 -3.143
9 CP5 100 0.275
9 CP5 101 3.204
9 CP5 102 3.693
9 CP5 103 2.228
9 CP5 104 -1.190
9 CP5 105 -5.096
9 CP5 106 -6.561
9 CP5 107 -6.073
9 CP5 108 -3.632
9 CP5 109 -1.190
9 CP5 110 0.763
9 CP5 111 1.740
9 CP5 112 1.740
9 CP5 113 1.251
9 CP5 114 1.251
9 CP5 115 1.251
9 CP5 116 1.251
9 CP5 117 2.228
9 CP5 118 2.716
9 CP5 119 4.181
9 CP5 120 5.646
9 CP5 121 7.111
9 CP5 122 8.575
9 CP5 123 9.064
9 CP5 124 9.064
9 CP5 125 8.087
9 CP5 126 6.134
9 CP5 127 3.204
9 CP5 128 -0.214
9 CP5 129 -2.655
9 CP5 130 -3.632
9 CP5 131 -2.655
9 CP5 132 -0.702
9 CP5 133 1.251
9 CP5 134 1.740
9 CP5 135 1.740
9 CP5 136 0.763
9 CP5 137 -0.214
9 CP5 138 -1.190
9 CP5 139 -1.678
9 CP5 140 -2.167
9 CP5 141 -1.678
9 CP5 142 -0.702
9 CP5 143 1.251
9 CP5 144 2.716
9 CP5 145 3.204
9 CP5 146 1.251
9 CP5 147 -1.678
9 CP5 148 -4.120
9 CP5 149 -6.073
9 CP5 150 -7.050
9 CP5 151 -6.561
9 CP5 152 -6.073
9 CP5 153 -5.585
9 CP5 154 -3.632
9 CP5 155 -3.143
9 CP5 156 -2.167
9 CP5 157 -1.678
9 CP5 158 -1.678
9 CP5 159 -0.702
9 CP5 160 0.275
9 CP5 161 0.763
9 CP5 162 0.763
9 CP5 163 0.275
9 CP5 164 0.275
9 CP5 165 0.763
9 CP5 166 2.228
9 CP5 167 4.181
9 CP5 168 5.646
9 CP5 169 5.646
9 CP5 170 5.157
9 CP5 171 3.693
9 CP5 172 1.251
9 CP5 173 -1.190
9 CP5 174 -3.632
9 CP5 175 -5.585
9 CP5 176 -5.585
9 CP5 177 -4.120
9 CP5 178 -1.190
9 CP5 179 1.740
9 CP5 180 4.181
9 CP5 181 5.646
9 CP5 182 6.134
9 CP5 183 6.134
9 CP5 184 5.646
9 CP5 185 4.669
9 CP5 186 3.693
9 CP5 187 2.716
9 CP5 188 1.740
9 CP5 189 0.763
9 CP5 190 0.275
9 CP5 191 0.275
9 CP5 192 1.251
9 CP5 193 1.251
9 CP5 194 1.740
9 CP5 195 1.251
9 CP5 196 0.275
9 CP5 197 -1.678
9 CP5 198 -4.120
9 CP5 199 -6.561
9 CP5 200 -9.003
9 CP5 201 -9.979
9 CP5 202 -10.468
9 CP5 203 -9.979
9 CP5 204 -8.514
9 CP5 205 -6.561
9 CP5 206 -4.120
9 CP5 207 -1.190
9 CP5 208 0.763
9 CP5 209 1.740
9 CP5 210 1.740
9 CP5 211 0.763
9 CP5 212 0.275
9 CP5 213 0.275
9 CP5 214 0.763
9 CP5 215 0.763
9 CP5 216 1.251
9 CP5 217 2.228
9 CP5 218 3.204
9 CP5 219 4.669
9 CP5 220 6.134
9 CP5 221 6.134
9 CP5 222 4.669
9 CP5 223 1.740
9 CP5 224 -2.167
9 CP5 225 -5.585
9 CP5 226 -9.003
9 CP5 227 -10.956
9 CP5 228 -11.932
9 CP5 229 -10.468
9 CP5 230 -7.050
9 CP5 231 -2.655
9 CP5 232 2.228
9 CP5 233 7.111
9 CP5 234 9.552
9 CP5 235 10.529
9 CP5 236 10.040
9 CP5 237 9.064
9 CP5 238 7.599
9 CP5 239 6.622
9 CP5 240 5.157
9 CP5 241 3.693
9 CP5 242 1.740
9 CP5 243 -0.702
9 CP5 244 -3.143
9 CP5 245 -5.096
9 CP5 246 -7.538
9 CP5 247 -9.003
9 CP5 248 -9.979
9 CP5 249 -9.979
9 CP5 250 -8.514
9 CP5 251 -7.050
9 CP5 252 -5.096
9 CP5 253 -3.143
9 CP5 254 -1.190
9 CP5 255 1.251
# CP6 chan 19
9 CP6 0 0.671
9 CP6 1 1.648
9 CP6 2 2.136
9 CP6 3 1.648
9 CP6 4 -0.305
9 CP6 5 -2.747
9 CP6 6 -4.211
9 CP6 7 -3.723
9 CP6 8 -2.747
9 CP6 9 0.183
9 CP6 10 2.136
9 CP6 11 3.601
9 CP6 12 4.578
9 CP6 13 4.089
9 CP6 14 3.601
9 CP6 15 2.625
9 CP6 16 1.648
9 CP6 17 0.671
9 CP6 18 0.183
9 CP6 19 0.671
9 CP6 20 1.160
9 CP6 21 1.160
9 CP6 22 0.671
9 CP6 23 -0.305
9 CP6 24 -0.793
9 CP6 25 0.183
9 CP6 26 2.625
9 CP6 27 6.531
9 CP6 28 9.949
9 CP6 29 11.902
9 CP6 30 11.902
9 CP6 31 9.949
9 CP6 32 7.019
9 CP6 33 4.089
9 CP6 34 1.648
9 CP6 35 -0.305
9 CP6 36 -1.770
9 CP6 37 -3.723
9 CP6 38 -5.676
9 CP6 39 -8.118
9 CP6 40 -11.536
9 CP6 41 -13.977
9 CP6 42 -15.442
9 CP6 43 -14.954
9 CP6 44 -12.512
9 CP6 45 -10.071
9 CP6 46 -8.118
9 CP6 47 -7.629
9 CP6 48 -7.629
9 CP6 49 -7.141
9 CP6 50 -5.188
9 CP6 51 -3.235
9 CP6 52 -1.282
9 CP6 53 -0.305
9 CP6 54 -0.793
9 CP6 55 -1.770
9 CP6 56 -1.770
9 CP6 57 -1.282
9 CP6 58 -0.305
9 CP6 59 -0.305
9 CP6 60 -0.793
9 CP6 61 -2.747
9 CP6 62 -5.188
9 CP6 63 -6.653
9 CP6 64 -7.141
9 CP6 65 -6.653
9 CP6 66 -4.700
9 CP6 67 -3.723
9 CP6 68 -2.747
9 CP6 69 -2.258
9 CP6 70 -2.258
9 CP6 71 -1.770
9 CP6 72 -0.305
9 CP6 73 1.160
9 CP6 74 3.113
9 CP6 75 4.578
9 CP6 76 5.554
9 CP6 77 6.042
9 CP6 78 6.042
9 CP6 79 5.066
9 CP6 80 4.089
9 CP6 81 3.113
9 CP6 82 2.136
9 CP6 83 1.648
9 CP6 84 1.160
9 CP6 85 0.183
9 CP6 86 -1.282
9 CP6 87 -2.747
9 CP6 88 -3.235
9 CP6 89 -1.770
9 CP6 90 -0.305
9 CP6 91 2.136
9 CP6 92 3.113
9 CP6 93 3.601
9 CP6 94 3.601
9 CP6 95 3.601
9 CP6 96 3.601
9 CP6 97 3.601
9 CP6 98 3.601
9 CP6 99 3.601
9 CP6 100 3.601
9 CP6 101 4.578
9 CP6 102 4.578
9 CP6 103 4.089
9 CP6 104 2.625
9 CP6 105 0.183
9 CP6 106 -2.258
9 CP6 107 -3.723
9 CP6 108 -3.723
9 CP6 109 -2.258
9 CP6 110 -1.282
9 CP6 111 -0.305
9 CP6 112 0.183
9 CP6 113 0.183
9 CP6 114 0.671
9 CP6 115 1.160
9 CP6 116 1.160
9 CP6 117 0.183
9 CP6 118 -0.793
9 CP6 119 -0.793
9 CP6 120 0.671
9 CP6 121 3.601
9 CP6 122 7.507
9 CP6 123 10.437
9 CP6 124 11.414
9 CP6 125 10.925
9 CP6 126 8.972
9 CP6 127 6.531
9 CP6 128 3.113
9 CP6 129 1.160
9 CP6 130 -0.305
9 CP6 131 -0.305
9 CP6 132 0.183
9 CP6 133 0.671
9 CP6 134 0.671
9 CP6 135 -0.305
9 CP6 136 -0.793
9 CP6 137 -0.793
9 CP6 138 -0.793
9 CP6 139 -0.793
9 CP6 140 -0.305
9 CP6 141 0.183
9 CP6 142 1.160
9 CP6 143 3.113
9 CP6 144 5.554
9 CP6 145 7.507
9 CP6 146 8.484
9 CP6 147 8.484
9 CP6 148 7.507
9 CP6 149 5.066
9 CP6 150 2.625
9 CP6 151 0.671
9 CP6 152 0.183
9 CP6 153 -0.305
9 CP6 154 0.183
9 CP6 155 0.671
9 CP6 156 0.671
9 CP6 157 0.671
9 CP6 158 1.160
9 CP6 159 1.648
9 CP6 160 3.113
9 CP6 161 4.089
9 CP6 162 4.578
9 CP6 163 4.089
9 CP6 164 3.113
9 CP6 165 1.648
9 CP6 166 -0.305
9 CP6 167 -2.258
9 CP6 168 -3.723
9 CP6 169 -4.211
9 CP6 170 -3.235
9 CP6 171 -0.793
9 CP6 172 3.113
9 CP6 173 7.996
9 CP6 174 12.390
9 CP6 175 15.808
9 CP6 176 16.296
9 CP6 177 14.832
9 CP6 178 11.902
9 CP6 179 8.972
9 CP6 180 6.531
9 CP6 181 5.554
9 CP6 182 5.554
9 CP6 183 5.554
9 CP6 184 5.554
9 CP6 185 4.578
9 CP6 186 3.601
9 CP6 187 3.113
9 CP6 188 3.113
9 CP6 189 3.113
9 CP6 190 4.089
9 CP6 191 5.554
9 CP6 192 7.507
9 CP6 193 8.972
9 CP6 194 9.460
9 CP6 195 8.484
9 CP6 196 6.531
9 CP6 197 4.089
9 CP6 198 3.113
9 CP6 199 2.136
9 CP6 200 2.136
9 CP6 201 1.648
9 CP6 202 1.160
9 CP6 203 2.136
9 CP6 204 3.601
9 CP6 205 6.531
9 CP6 206 9.460
9 CP6 207 11.414
9 CP6 208 11.414
9 CP6 209 8.972
9 CP6 210 6.042
9 CP6 211 3.601
9 CP6 212 1.648
9 CP6 213 1.648
9 CP6 214 2.625
9 CP6 215 4.089
9 CP6 216 4.578
9 CP6 217 5.066
9 CP6 218 5.554
9 CP6 219 5.066
9 CP6 220 4.578
9 CP6 221 4.578
9 CP6 222 4.578
9 CP6 223 4.578
9 CP6 224 5.554
9 CP6 225 6.531
9 CP6 226 7.507
9 CP6 227 9.460
9 CP6 228 10.925
9 CP6 229 11.902
9 CP6 230 11.414
9 CP6 231 9.949
9 CP6 232 7.507
9 CP6 233 5.066
9 CP6 234 3.601
9 CP6 235 3.113
9 CP6 236 3.113
9 CP6 237 3.113
9 CP6 238 2.136
9 CP6 239 1.160
9 CP6 240 0.671
9 CP6 241 1.160
9 CP6 242 2.136
9 CP6 243 3.601
9 CP6 244 5.066
9 CP6 245 7.507
9 CP6 246 9.460
9 CP6 247 11.414
9 CP6 248 12.390
9 CP6 249 11.902
9 CP6 250 9.949
9 CP6 251 7.996
9 CP6 252 6.531
9 CP6 253 6.042
9 CP6 254 6.042
9 CP6 255 5.066
# CP1 chan 20
9 CP1 0 0.366
9 CP1 1 -1.099
9 CP1 2 -2.563
9 CP1 3 -3.540
9 CP1 4 -3.052
9 CP1 5 -2.075
9 CP1 6 -1.099
9 CP1 7 -0.122
9 CP1 8 0.366
9 CP1 9 0.854
9 CP1 10 1.343
9 CP1 11 1.343
9 CP1 12 2.319
9 CP1 13 2.319
9 CP1 14 2.319
9 CP1 15 1.831
9 CP1 16 0.854
9 CP1 17 -0.122
9 CP1 18 -1.099
9 CP1 19 -1.587
9 CP1 20 -2.075
9 CP1 21 -1.587
9 CP1 22 -0.610
9 CP1 23 0.854
9 CP1 24 2.808
9 CP1 25 4.272
9 CP1 26 4.761
9 CP1 27 3.296
9 CP1 28 1.343
9 CP1 29 -0.610
9 CP1 30 -2.075
9 CP1 31 -2.075
9 CP1 32 -2.075
9 CP1 33 -2.075
9 CP1 34 -2.563
9 CP1 35 -3.052
9 CP1 36 -3.540
9 CP1 37 -3.052
9 CP1 38 -2.075
9 CP1 39 -1.587
9 CP1 40 -1.587
9 CP1 41 -2.563
9 CP1 42 -2.563
9 CP1 43 -3.052
9 CP1 44 -2.563
9 CP1 45 -2.563
9 CP1 46 -1.587
9 CP1 47 -1.587
9 CP1 48 -2.075
9 CP1 49 -2.563
9 CP1 50 -3.540
9 CP1 51 -3.540
9 CP1 52 -3.052
9 CP1 53 -2.563
9 CP1 54 -2.075
9 CP1 55 -1.587
9 CP1 56 -1.587
9 CP1 57 -1.587
9 CP1 58 -1.587
9 CP1 59 -1.587
9 CP1 60 -1.587
9 CP1 61 -2.563
9 CP1 62 -3.052
9 CP1 63 -3.052
9 CP1 64 -2.563
9 CP1 65 -1.587
9 CP1 66 -1.099
9 CP1 67 -0.610
9 CP1 68 -1.099
9 CP1 69 -1.099
9 CP1 70 -1.587
9 CP1 71 -1.587
9 CP1 72 -1.587
9 CP1 73 -1.099
9 CP1 74 -1.099
9 CP1 75 -0.610
9 CP1 76 -0.122
9 CP1 77 0.854
9 CP1 78 1.343
9 CP1 79 0.854
9 CP1 80 0.366
9 CP1 81 -0.610
9 CP1 82 -1.099
9 CP1 83 -1.099
9 CP1 84 -1.099
9 CP1 85 -0.610
9 CP1 86 0.366
9 CP1 87 0.854
9 CP1 88 1.831
9 CP1 89 2.808
9 CP1 90 2.319
9 CP1 91 1.831
9 CP1 92 1.831
9 CP1 93 1.343
9 CP1 94 1.343
9 CP1 95 0.854
9 CP1 96 0.366
9 CP1 97 -0.610
9 CP1 98 -1.099
9 CP1 99 -1.099
9 CP1 100 0.366
9 CP1 101 1.831
9 CP1 102 2.319
9 CP1 103 1.831
9 CP1 104 0.366
9 CP1 105 -1.099
9 CP1 106 -2.075
9 CP1 107 -1.587
9 CP1 108 -0.122
9 CP1 109 1.831
9 CP1 110 3.296
9 CP1 111 3.784
9 CP1 112 3.296
9 CP1 113 1.831
9 CP1 114 1.343
9 CP1 115 1.343
9 CP1 116 2.319
9 CP1 117 3.296
9 CP1 118 3.784
9 CP1 119 3.784
9 CP1 120 3.784
9 CP1 121 3.296
9 CP1 122 3.296
9 CP1 123 3.296
9 CP1 124 3.296
9 CP1 125 3.296
9 CP1 126 3.296
9 CP1 127 2.319
9 CP1 128 1.831
9 CP1 129 1.343
9 CP1 130 1.831
9 CP1 131 2.808
9 CP1 132 4.761
9 CP1 133 6.226
9 CP1 134 6.714
9 CP1 135 5.737
9 CP1 136 4.272
9 CP1 137 2.319
9 CP1 138 1.343
9 CP1 139 0.854
9 CP1 140 1.343
9 CP1 141 2.808
9 CP1 142 3.784
9 CP1 143 4.761
9 CP1 144 4.761
9 CP1 145 4.272
9 CP1 146 3.296
9 CP1 147 2.319
9 CP1 148 1.343
9 CP1 149 -0.610
9 CP1 150 -1.099
9 CP1 151 -1.587
9 CP1 152 -0.610
9 CP1 153 1.343
9 CP1 154 3.296
9 CP1 155 4.272
9 CP1 156 5.249
9 CP1 157 4.761
9 CP1 158 4.272
9 CP1 159 4.272
9 CP1 160 4.272
9 CP1 161 4.761
9 CP1 162 4.272
9 CP1 163 4.272
9 CP1 164 3.784
9 CP1 165 3.784
9 CP1 166 4.272
9 CP1 167 4.272
9 CP1 168 4.272
9 CP1 169 4.272
9 CP1 170 4.272
9 CP1 171 4.272
9 CP1 172 4.272
9 CP1 173 3.784
9 CP1 174 3.296
9 CP1 175 2.319
9 CP1 176 2.319
9 CP1 177 2.808
9 CP1 178 3.784
9 CP1 179 4.761
9 CP1 180 5.737
9 CP1 181 6.714
9 CP1 182 7.202
9 CP1 183 7.202
9 CP1 184 6.714
9 CP1 185 5.737
9 CP1 186 4.272
9 CP1 187 2.808
9 CP1 188 1.343
9 CP1 189 0.854
9 CP1 190 1.343
9 CP1 191 2.808
9 CP1 192 4.272
9 CP1 193 5.249
9 CP1 194 6.714
9 CP1 195 7.202
9 CP1 196 7.202
9 CP1 197 6.714
9 CP1 198 5.737
9 CP1 199 4.272
9 CP1 200 2.808
9 CP1 201 1.343
9 CP1 202 0.366
9 CP1 203 -0.122
9 CP1 204 -0.610
9 CP1 205 -0.610
9 CP1 206 -0.122
9 CP1 207 0.854
9 CP1 208 1.831
9 CP1 209 3.296
9 CP1 210 3.784
9 CP1 211 4.761
9 CP1 212 5.249
9 CP1 213 5.737
9 CP1 214 7.202
9 CP1 215 8.179
9 CP1 216 8.667
9 CP1 217 8.667
9 CP1 218 8.667
9 CP1 219 8.179
9 CP1 220 8.179
9 CP1 221 8.179
9 CP1 222 7.202
9 CP1 223 6.226
9 CP1 224 4.761
9 CP1 225 3.296
9 CP1 226 1.831
9 CP1 227 1.343
9 CP1 228 1.343
9 CP1 229 2.808
9 CP1 230 4.272
9 CP1 231 6.714
9 CP1 232 8.667
9 CP1 233 9.644
9 CP1 234 10.132
9 CP1 235 9.644
9 CP1 236 9.155
9 CP1 237 8.667
9 CP1 238 9.155
9 CP1 239 9.644
9 CP1 240 10.132
9 CP1 241 10.620
9 CP1 242 10.620
9 CP1 243 9.644
9 CP1 244 8.179
9 CP1 245 6.714
9 CP1 246 4.761
9 CP1 247 3.784
9 CP1 248 3.784
9 CP1 249 4.272
9 CP1 250 5.737
9 CP1 251 7.202
9 CP1 252 8.179
9 CP1 253 8.667
9 CP1 254 8.667
9 CP1 255 8.667
# CP2 chan 21
9 CP2 0 1.200
9 CP2 1 1.200
9 CP2 2 1.200
9 CP2 3 1.689
9 CP2 4 1.689
9 CP2 5 1.200
9 CP2 6 0.712
9 CP2 7 0.224
9 CP2 8 0.224
9 CP2 9 1.200
9 CP2 10 1.689
9 CP2 11 1.689
9 CP2 12 1.689
9 CP2 13 1.200
9 CP2 14 1.689
9 CP2 15 1.689
9 CP2 16 2.177
9 CP2 17 1.689
9 CP2 18 1.200
9 CP2 19 0.712
9 CP2 20 -0.264
9 CP2 21 -0.264
9 CP2 22 -0.264
9 CP2 23 -0.264
9 CP2 24 -0.264
9 CP2 25 -0.264
9 CP2 26 0.712
9 CP2 27 2.177
9 CP2 28 3.153
9 CP2 29 3.642
9 CP2 30 3.153
9 CP2 31 2.177
9 CP2 32 1.200
9 CP2 33 0.224
9 CP2 34 -0.753
9 CP2 35 -2.218
9 CP2 36 -3.682
9 CP2 37 -4.659
9 CP2 38 -5.147
9 CP2 39 -6.124
9 CP2 40 -6.612
9 CP2 41 -7.589
9 CP2 42 -8.077
9 CP2 43 -8.077
9 CP2 44 -7.100
9 CP2 45 -6.124
9 CP2 46 -5.147
9 CP2 47 -5.147
9 CP2 48 -4.659
9 CP2 49 -4.171
9 CP2 50 -2.706
9 CP2 51 -1.241
9 CP2 52 -0.264
9 CP2 53 -0.264
9 CP2 54 -1.241
9 CP2 55 -2.218
9 CP2 56 -2.706
9 CP2 57 -2.706
9 CP2 58 -3.194
9 CP2 59 -2.706
9 CP2 60 -3.194
9 CP2 61 -4.171
9 CP2 62 -4.659
9 CP2 63 -5.147
9 CP2 64 -4.659
9 CP2 65 -4.171
9 CP2 66 -3.682
9 CP2 67 -2.706
9 CP2 68 -2.218
9 CP2 69 -1.729
9 CP2 70 -1.241
9 CP2 71 -1.241
9 CP2 72 -0.753
9 CP2 73 -0.264
9 CP2 74 -0.264
9 CP2 75 0.224
9 CP2 76 0.224
9 CP2 77 0.712
9 CP2 78 0.712
9 CP2 79 0.712
9 CP2 80 0.224
9 CP2 81 0.224
9 CP2 82 0.712
9 CP2 83 0.712
9 CP2 84 0.712
9 CP2 85 0.712
9 CP2 86 0.224
9 CP2 87 -0.264
9 CP2 88 0.224
9 CP2 89 1.200
9 CP2 90 1.689
9 CP2 91 2.177
9 CP2 92 2.177
9 CP2 93 2.665
9 CP2 94 2.177
9 CP2 95 1.689
9 CP2 96 1.200
9 CP2 97 0.224
9 CP2 98 -0.264
9 CP2 99 -0.753
9 CP2 100 0.224
9 CP2 101 1.200
9 CP2 102 2.177
9 CP2 103 2.177
9 CP2 104 1.689
9 CP2 105 0.224
9 CP2 106 -1.729
9 CP2 107 -1.729
9 CP2 108 -1.241
9 CP2 109 -0.753
9 CP2 110 -0.264
9 CP2 111 0.712
9 CP2 112 1.200
9 CP2 113 1.200
9 CP2 114 1.689
9 CP2 115 1.200
9 CP2 116 1.200
9 CP2 117 1.200
9 CP2 118 0.712
9 CP2 119 0.712
9 CP2 120 1.200
9 CP2 121 1.689
9 CP2 122 2.177
9 CP2 123 3.153
9 CP2 124 3.642
9 CP2 125 3.642
9 CP2 126 3.153
9 CP2 127 1.689
9 CP2 128 0.224
9 CP2 129 -0.264
9 CP2 130 0.224
9 CP2 131 1.689
9 CP2 132 3.153
9 CP2 133 3.642
9 CP2 134 2.665
9 CP2 135 0.712
9 CP2 136 -0.753
9 CP2 137 -1.729
9 CP2 138 -1.729
9 CP2 139 -1.241
9 CP2 140 -0.753
9 CP2 141 0.224
9 CP2 142 1.200
9 CP2 143 2.665
9 CP2 144 4.130
9 CP2 145 5.107
9 CP2 146 4.618
9 CP2 147 3.153
9 CP2 148 1.200
9 CP2 149 -1.241
9 CP2 150 -2.218
9 CP2 151 -2.706
9 CP2 152 -1.729
9 CP2 153 -0.753
9 CP2 154 -0.264
9 CP2 155 0.712
9 CP2 156 0.712
9 CP2 157 0.712
9 CP2 158 1.200
9 CP2 159 1.200
9 CP2 160 1.689
9 CP2 161 2.177
9 CP2 162 1.689
9 CP2 163 1.200
9 CP2 164 0.712
9 CP2 165 -0.264
9 CP2 166 -1.729
9 CP2 167 -2.218
9 CP2 168 -3.194
9 CP2 169 -3.194
9 CP2 170 -3.194
9 CP2 171 -1.729
9 CP2 172 0.224
9 CP2 173 3.153
9 CP2 174 5.107
9 CP2 175 6.571
9 CP2 176 6.571
9 CP2 177 5.595
9 CP2 178 4.130
9 CP2 179 3.153
9 CP2 180 2.177
9 CP2 181 2.177
9 CP2 182 2.177
9 CP2 183 2.177
9 CP2 184 1.689
9 CP2 185 0.712
9 CP2 186 -0.753
9 CP2 187 -1.241
9 CP2 188 -1.729
9 CP2 189 -0.753
9 CP2 190 0.224
9 CP2 191 2.177
9 CP2 192 3.642
9 CP2 193 4.618
9 CP2 194 5.107
9 CP2 195 4.618
9 CP2 196 3.153
9 CP2 197 1.689
9 CP2 198 1.200
9 CP2 199 0.712
9 CP2 200 0.224
9 CP2 201 0.224
9 CP2 202 -0.264
9 CP2 203 0.224
9 CP2 204 0.224
9 CP2 205 0.712
9 CP2 206 1.200
9 CP2 207 2.177
9 CP2 208 2.177
9 CP2 209 1.689
9 CP2 210 0.712
9 CP2 211 0.224
9 CP2 212 0.224
9 CP2 213 0.712
9 CP2 214 1.689
9 CP2 215 3.153
9 CP2 216 3.153
9 CP2 217 3.642
9 CP2 218 2.665
9 CP2 219 2.177
9 CP2 220 1.200
9 CP2 221 0.712
9 CP2 222 0.224
9 CP2 223 -0.264
9 CP2 224 -0.264
9 CP2 225 0.224
9 CP2 226 0.712
9 CP2 227 1.689
9 CP2 228 2.665
9 CP2 229 3.153
9 CP2 230 3.153
9 CP2 231 2.665
9 CP2 232 2.177
9 CP2 233 1.200
9 CP2 234 0.224
9 CP2 235 -0.264
9 CP2 236 -0.264
9 CP2 237 -0.753
9 CP2 238 -1.241
9 CP2 239 -0.753
9 CP2 240 -0.264
9 CP2 241 0.712
9 CP2 242 1.200
9 CP2 243 1.689
9 CP2 244 1.689
9 CP2 245 1.689
9 CP2 246 2.177
9 CP2 247 2.177
9 CP2 248 2.665
9 CP2 249 1.689
9 CP2 250 1.200
9 CP2 251 0.712
9 CP2 252 0.712
9 CP2 253 1.200
9 CP2 254 0.712
9 CP2 255 0.224
# P3 chan 22
9 P3 0 -0.305
9 P3 1 -3.723
9 P3 2 -6.165
9 P3 3 -7.141
9 P3 4 -6.653
9 P3 5 -5.188
9 P3 6 -3.723
9 P3 7 -2.747
9 P3 8 -2.258
9 P3 9 -2.747
9 P3 10 -2.258
9 P3 11 -0.793
9 P3 12 1.648
9 P3 13 4.089
9 P3 14 6.042
9 P3 15 6.042
9 P3 16 4.578
9 P3 17 1.160
9 P3 18 -1.770
9 P3 19 -4.211
9 P3 20 -5.676
9 P3 21 -5.676
9 P3 22 -5.676
9 P3 23 -3.723
9 P3 24 -0.793
9 P3 25 2.625
9 P3 26 4.578
9 P3 27 4.089
9 P3 28 1.160
9 P3 29 -1.770
9 P3 30 -3.235
9 P3 31 -2.747
9 P3 32 -1.770
9 P3 33 -2.747
9 P3 34 -5.676
9 P3 35 -8.606
9 P3 36 -11.047
9 P3 37 -11.536
9 P3 38 -10.559
9 P3 39 -9.583
9 P3 40 -9.583
9 P3 41 -10.559
9 P3 42 -12.024
9 P3 43 -12.512
9 P3 44 -12.512
9 P3 45 -12.512
9 P3 46 -12.024
9 P3 47 -12.024
9 P3 48 -11.536
9 P3 49 -11.047
9 P3 50 -10.071
9 P3 51 -8.606
9 P3 52 -7.629
9 P3 53 -6.165
9 P3 54 -5.676
9 P3 55 -4.700
9 P3 56 -4.211
9 P3 57 -3.723
9 P3 58 -3.235
9 P3 59 -3.235
9 P3 60 -5.188
9 P3 61 -7.141
9 P3 62 -9.094
9 P3 63 -9.583
9 P3 64 -8.606
9 P3 65 -5.676
9 P3 66 -3.723
9 P3 67 -2.258
9 P3 68 -2.747
9 P3 69 -3.235
9 P3 70 -3.723
9 P3 71 -3.723
9 P3 72 -2.747
9 P3 73 -1.770
9 P3 74 -0.305
9 P3 75 1.160
9 P3 76 2.625
9 P3 77 3.601
9 P3 78 3.113
9 P3 79 2.136
9 P3 80 0.183
9 P3 81 -1.282
9 P3 82 -2.747
9 P3 83 -4.211
9 P3 84 -5.188
9 P3 85 -5.676
9 P3 86 -4.700
9 P3 87 -1.770
9 P3 88 0.183
9 P3 89 1.648
9 P3 90 1.160
9 P3 91 -0.305
9 P3 92 -1.770
9 P3 93 -2.747
9 P3 94 -2.258
9 P3 95 -2.258
9 P3 96 -3.723
9 P3 97 -5.188
9 P3 98 -6.165
9 P3 99 -5.188
9 P3 100 -2.747
9 P3 101 1.160
9 P3 102 3.113
9 P3 103 2.625
9 P3 104 -0.305
9 P3 105 -3.723
9 P3 106 -5.676
9 P3 107 -4.211
9 P3 108 -1.770
9 P3 109 1.160
9 P3 110 2.136
9 P3 111 2.136
9 P3 112 1.160
9 P3 113 0.183
9 P3 114 -0.305
9 P3 115 -0.305
9 P3 116 0.183
9 P3 117 0.671
9 P3 118 2.136
9 P3 119 3.601
9 P3 120 4.578
9 P3 121 4.578
9 P3 122 3.601
9 P3 123 3.113
9 P3 124 3.113
9 P3 125 3.601
9 P3 126 4.089
9 P3 127 2.625
9 P3 128 0.671
9 P3 129 -1.282
9 P3 130 -0.793
9 P3 131 1.648
9 P3 132 5.066
9 P3 133 7.996
9 P3 134 8.484
9 P3 135 7.507
9 P3 136 5.066
9 P3 137 2.625
9 P3 138 0.671
9 P3 139 -0.793
9 P3 140 -0.793
9 P3 141 0.183
9 P3 142 2.625
9 P3 143 4.578
9 P3 144 6.042
9 P3 145 5.554
9 P3 146 4.089
9 P3 147 2.136
9 P3 148 0.183
9 P3 149 -1.770
9 P3 150 -3.235
9 P3 151 -4.211
9 P3 152 -3.723
9 P3 153 -2.747
9 P3 154 -0.793
9 P3 155 0.183
9 P3 156 0.671
9 P3 157 0.183
9 P3 158 0.183
9 P3 159 1.160
9 P3 160 2.625
9 P3 161 3.601
9 P3 162 4.089
9 P3 163 3.601
9 P3 164 2.625
9 P3 165 2.625
9 P3 166 2.625
9 P3 167 3.113
9 P3 168 3.601
9 P3 169 3.113
9 P3 170 3.113
9 P3 171 3.113
9 P3 172 2.625
9 P3 173 2.136
9 P3 174 1.160
9 P3 175 0.183
9 P3 176 -0.793
9 P3 177 -0.793
9 P3 178 0.183
9 P3 179 1.648
9 P3 180 3.601
9 P3 181 6.042
9 P3 182 7.507
9 P3 183 7.996
9 P3 184 7.507
9 P3 185 6.042
9 P3 186 4.089
9 P3 187 2.136
9 P3 188 0.671
9 P3 189 -0.305
9 P3 190 -0.793
9 P3 191 0.183
9 P3 192 1.160
9 P3 193 2.625
9 P3 194 4.089
9 P3 195 5.066
9 P3 196 5.066
9 P3 197 3.601
9 P3 198 1.648
9 P3 199 -0.305
9 P3 200 -1.770
9 P3 201 -3.723
9 P3 202 -5.188
9 P3 203 -6.653
9 P3 204 -7.141
9 P3 205 -5.676
9 P3 206 -2.747
9 P3 207 0.671
9 P3 208 4.089
9 P3 209 5.066
9 P3 210 5.066
9 P3 211 5.066
9 P3 212 6.531
9 P3 213 8.484
9 P3 214 10.437
9 P3 215 11.414
9 P3 216 10.437
9 P3 217 9.460
9 P3 218 8.972
9 P3 219 9.949
9 P3 220 10.437
9 P3 221 9.460
9 P3 222 6.042
9 P3 223 1.160
9 P3 224 -3.235
9 P3 225 -7.141
9 P3 226 -9.583
9 P3 227 -11.047
9 P3 228 -10.559
9 P3 229 -8.118
9 P3 230 -4.211
9 P3 231 0.671
9 P3 232 6.042
9 P3 233 8.972
9 P3 234 10.437
9 P3 235 9.949
9 P3 236 8.484
9 P3 237 7.019
9 P3 238 6.531
9 P3 239 6.531
9 P3 240 6.042
9 P3 241 6.042
9 P3 242 4.578
9 P3 243 2.625
9 P3 244 -0.305
9 P3 245 -3.235
9 P3 246 -4.700
9 P3 247 -5.188
9 P3 248 -4.700
9 P3 249 -3.235
9 P3 250 -2.258
9 P3 251 -1.282
9 P3 252 -0.305
9 P3 253 0.671
9 P3 254 1.648
9 P3 255 2.625
# P4 chan 23
9 P4 0 5.880
9 P4 1 6.368
9 P4 2 6.856
9 P4 3 7.345
9 P4 4 7.345
9 P4 5 6.368
9 P4 6 5.391
9 P4 7 4.415
9 P4 8 4.415
9 P4 9 4.903
9 P4 10 6.368
9 P4 11 7.833
9 P4 12 8.321
9 P4 13 8.321
9 P4 14 7.833
9 P4 15 6.368
9 P4 16 5.391
9 P4 17 3.927
9 P4 18 3.438
9 P4 19 2.950
9 P4 20 1.973
9 P4 21 1.485
9 P4 22 0.997
9 P4 23 0.509
9 P4 24 1.485
9 P4 25 3.438
9 P4 26 5.880
9 P4 27 8.321
9 P4 28 10.274
9 P4 29 11.251
9 P4 30 12.227
9 P4 31 12.227
9 P4 32 11.251
9 P4 33 8.809
9 P4 34 4.903
9 P4 35 1.973
9 P4 36 0.020
9 P4 37 -1.444
9 P4 38 -2.421
9 P4 39 -4.862
9 P4 40 -7.304
9 P4 41 -9.745
9 P4 42 -9.745
9 P4 43 -8.280
9 P4 44 -5.351
9 P4 45 -2.909
9 P4 46 -2.421
9 P4 47 -1.933
9 P4 48 -0.468
9 P4 49 2.462
9 P4 50 6.856
9 P4 51 10.763
9 P4 52 12.716
9 P4 53 12.227
9 P4 54 10.274
9 P4 55 8.321
9 P4 56 7.345
9 P4 57 6.856
9 P4 58 6.368
9 P4 59 4.415
9 P4 60 2.950
9 P4 61 0.997
9 P4 62 -0.468
9 P4 63 -0.956
9 P4 64 -0.468
9 P4 65 0.020
9 P4 66 1.973
9 P4 67 3.438
9 P4 68 4.903
9 P4 69 6.368
9 P4 70 6.368
9 P4 71 5.391
9 P4 72 5.391
9 P4 73 5.880
9 P4 74 7.345
9 P4 75 8.809
9 P4 76 9.298
9 P4 77 7.833
9 P4 78 4.903
9 P4 79 2.462
9 P4 80 1.485
9 P4 81 1.485
9 P4 82 2.950
9 P4 83 4.415
9 P4 84 5.391
9 P4 85 5.880
9 P4 86 5.391
9 P4 87 4.903
9 P4 88 4.415
9 P4 89 4.903
9 P4 90 4.903
9 P4 91 4.903
9 P4 92 5.880
9 P4 93 5.880
9 P4 94 6.368
9 P4 95 7.833
9 P4 96 7.833
9 P4 97 6.368
9 P4 98 4.415
9 P4 99 2.950
9 P4 100 3.927
9 P4 101 6.368
9 P4 102 7.833
9 P4 103 7.833
9 P4 104 4.415
9 P4 105 0.509
9 P4 106 -2.421
9 P4 107 -2.909
9 P4 108 -1.444
9 P4 109 0.997
9 P4 110 2.462
9 P4 111 2.950
9 P4 112 3.438
9 P4 113 4.415
9 P4 114 4.903
9 P4 115 5.391
9 P4 116 4.415
9 P4 117 3.438
9 P4 118 2.950
9 P4 119 3.438
9 P4 120 5.880
9 P4 121 8.809
9 P4 122 12.716
9 P4 123 15.645
9 P4 124 17.598
9 P4 125 17.598
9 P4 126 15.157
9 P4 127 11.251
9 P4 128 6.856
9 P4 129 4.415
9 P4 130 4.415
9 P4 131 6.856
9 P4 132 8.809
9 P4 133 9.298
9 P4 134 7.345
9 P4 135 4.903
9 P4 136 3.438
9 P4 137 3.438
9 P4 138 4.415
9 P4 139 5.391
9 P4 140 6.368
9 P4 141 7.833
9 P4 142 10.274
9 P4 143 13.692
9 P4 144 17.598
9 P4 145 19.552
9 P4 146 19.552
9 P4 147 17.598
9 P4 148 14.181
9 P4 149 10.763
9 P4 150 8.321
9 P4 151 7.345
9 P4 152 7.833
9 P4 153 8.809
9 P4 154 9.786
9 P4 155 10.274
9 P4 156 10.763
9 P4 157 11.251
9 P4 158 12.227
9 P4 159 13.204
9 P4 160 14.669
9 P4 161 15.645
9 P4 162 15.645
9 P4 163 15.157
9 P4 164 13.692
9 P4 165 12.227
9 P4 166 9.786
9 P4 167 6.856
9 P4 168 4.415
9 P4 169 2.950
9 P4 170 2.950
9 P4 171 4.415
9 P4 172 8.321
9 P4 173 13.204
9 P4 174 17.598
9 P4 175 20.528
9 P4 176 21.993
9 P4 177 20.528
9 P4 178 18.575
9 P4 179 17.110
9 P4 180 15.645
9 P4 181 15.645
9 P4 182 15.157
9 P4 183 13.692
9 P4 184 11.251
9 P4 185 8.321
9 P4 186 5.880
9 P4 187 4.415
9 P4 188 4.903
9 P4 189 5.880
9 P4 190 8.321
9 P4 191 11.739
9 P4 192 15.157
9 P4 193 17.598
9 P4 194 18.087
9 P4 195 15.157
9 P4 196 11.739
9 P4 197 7.833
9 P4 198 5.880
9 P4 199 5.880
9 P4 200 6.856
9 P4 201 7.345
9 P4 202 7.345
9 P4 203 7.345
9 P4 204 7.833
9 P4 205 9.786
9 P4 206 12.227
9 P4 207 14.669
9 P4 208 16.134
9 P4 209 15.645
9 P4 210 14.181
9 P4 211 12.227
9 P4 212 10.763
9 P4 213 11.739
9 P4 214 13.692
9 P4 215 16.622
9 P4 216 18.575
9 P4 217 18.575
9 P4 218 16.134
9 P4 219 13.204
9 P4 220 10.274
9 P4 221 8.321
9 P4 222 6.856
9 P4 223 6.856
9 P4 224 6.856
9 P4 225 7.345
9 P4 226 8.809
9 P4 227 10.274
9 P4 228 12.227
9 P4 229 14.181
9 P4 230 15.157
9 P4 231 15.157
9 P4 232 14.669
9 P4 233 13.692
9 P4 234 12.227
9 P4 235 10.763
9 P4 236 9.298
9 P4 237 7.833
9 P4 238 7.345
9 P4 239 7.345
9 P4 240 8.321
9 P4 241 9.298
9 P4 242 9.298
9 P4 243 8.321
9 P4 244 7.345
9 P4 245 7.345
9 P4 246 9.298
9 P4 247 11.739
9 P4 248 13.204
9 P4 249 12.227
9 P4 250 10.763
9 P4 251 9.298
9 P4 252 9.298
9 P4 253 10.274
9 P4 254 10.763
9 P4 255 9.786
# PZ chan 24
9 PZ 0 0.183
9 PZ 1 -1.282
9 PZ 2 -2.258
9 PZ 3 -2.258
9 PZ 4 -1.282
9 PZ 5 -0.793
9 PZ 6 -0.305
9 PZ 7 0.183
9 PZ 8 0.671
9 PZ 9 1.648
9 PZ 10 2.625
9 PZ 11 3.601
9 PZ 12 4.089
9 PZ 13 4.578
9 PZ 14 4.089
9 PZ 15 3.113
9 PZ 16 1.160
9 PZ 17 -0.305
9 PZ 18 -2.258
9 PZ 19 -3.723
9 PZ 20 -4.700
9 PZ 21 -4.211
9 PZ 22 -3.235
9 PZ 23 -1.770
9 PZ 24 0.183
9 PZ 25 1.648
9 PZ 26 3.113
9 PZ 27 3.113
9 PZ 28 2.625
9 PZ 29 1.648
9 PZ 30 1.160
9 PZ 31 0.671
9 PZ 32 0.183
9 PZ 33 -1.282
9 PZ 34 -3.723
9 PZ 35 -5.188
9 PZ 36 -6.653
9 PZ 37 -7.629
9 PZ 38 -7.141
9 PZ 39 -7.141
9 PZ 40 -8.118
9 PZ 41 -9.583
9 PZ 42 -10.559
9 PZ 43 -11.047
9 PZ 44 -10.559
9 PZ 45 -9.583
9 PZ 46 -9.094
9 PZ 47 -8.606
9 PZ 48 -8.606
9 PZ 49 -7.629
9 PZ 50 -6.653
9 PZ 51 -4.700
9 PZ 52 -3.235
9 PZ 53 -2.747
9 PZ 54 -3.235
9 PZ 55 -3.723
9 PZ 56 -4.700
9 PZ 57 -5.188
9 PZ 58 -5.676
9 PZ 59 -6.165
9 PZ 60 -7.141
9 PZ 61 -8.118
9 PZ 62 -9.094
9 PZ 63 -9.583
9 PZ 64 -9.094
9 PZ 65 -7.629
9 PZ 66 -6.165
9 PZ 67 -4.700
9 PZ 68 -4.211
9 PZ 69 -4.211
9 PZ 70 -4.211
9 PZ 71 -4.211
9 PZ 72 -4.211
9 PZ 73 -3.723
9 PZ 74 -2.747
9 PZ 75 -1.770
9 PZ 76 -1.282
9 PZ 77 -0.305
9 PZ 78 -0.305
9 PZ 79 -0.793
9 PZ 80 -1.282
9 PZ 81 -2.258
9 PZ 82 -3.235
9 PZ 83 -3.723
9 PZ 84 -4.211
9 PZ 85 -3.723
9 PZ 86 -2.747
9 PZ 87 -1.282
9 PZ 88 0.183
9 PZ 89 1.160
9 PZ 90 1.160
9 PZ 91 1.160
9 PZ 92 0.671
9 PZ 93 0.183
9 PZ 94 -0.305
9 PZ 95 -0.793
9 PZ 96 -2.258
9 PZ 97 -3.723
9 PZ 98 -4.700
9 PZ 99 -5.188
9 PZ 100 -4.211
9 PZ 101 -2.258
9 PZ 102 -0.793
9 PZ 103 -0.793
9 PZ 104 -2.747
9 PZ 105 -4.700
9 PZ 106 -6.165
9 PZ 107 -6.653
9 PZ 108 -4.700
9 PZ 109 -2.747
9 PZ 110 -0.793
9 PZ 111 0.183
9 PZ 112 0.183
9 PZ 113 0.183
9 PZ 114 0.183
9 PZ 115 0.183
9 PZ 116 0.671
9 PZ 117 0.671
9 PZ 118 1.160
9 PZ 119 1.160
9 PZ 120 1.160
9 PZ 121 0.671
9 PZ 122 0.671
9 PZ 123 0.671
9 PZ 124 0.671
9 PZ 125 0.671
9 PZ 126 0.183
9 PZ 127 -0.793
9 PZ 128 -2.258
9 PZ 129 -2.258
9 PZ 130 -0.793
9 PZ 131 2.136
9 PZ 132 5.066
9 PZ 133 7.019
9 PZ 134 6.531
9 PZ 135 4.578
9 PZ 136 1.648
9 PZ 137 -0.793
9 PZ 138 -1.282
9 PZ 139 -1.282
9 PZ 140 -0.793
9 PZ 141 0.183
9 PZ 142 1.648
9 PZ 143 3.601
9 PZ 144 5.066
9 PZ 145 5.066
9 PZ 146 3.601
9 PZ 147 0.671
9 PZ 148 -2.258
9 PZ 149 -4.700
9 PZ 150 -6.165
9 PZ 151 -6.653
9 PZ 152 -5.676
9 PZ 153 -4.211
9 PZ 154 -2.747
9 PZ 155 -0.793
9 PZ 156 1.160
9 PZ 157 2.136
9 PZ 158 2.625
9 PZ 159 3.113
9 PZ 160 3.113
9 PZ 161 3.113
9 PZ 162 2.136
9 PZ 163 1.648
9 PZ 164 0.671
9 PZ 165 -0.305
9 PZ 166 -1.282
9 PZ 167 -1.770
9 PZ 168 -2.258
9 PZ 169 -2.258
9 PZ 170 -1.770
9 PZ 171 -0.793
9 PZ 172 1.160
9 PZ 173 2.136
9 PZ 174 3.601
9 PZ 175 3.601
9 PZ 176 3.113
9 PZ 177 2.625
9 PZ 178 2.136
9 PZ 179 2.136
9 PZ 180 2.625
9 PZ 181 4.089
9 PZ 182 4.089
9 PZ 183 3.601
9 PZ 184 2.136
9 PZ 185 0.183
9 PZ 186 -2.258
9 PZ 187 -3.235
9 PZ 188 -4.211
9 PZ 189 -3.723
9 PZ 190 -2.258
9 PZ 191 0.183
9 PZ 192 2.625
9 PZ 193 5.066
9 PZ 194 6.531
9 PZ 195 6.531
9 PZ 196 5.554
9 PZ 197 3.601
9 PZ 198 2.136
9 PZ 199 0.671
9 PZ 200 -0.793
9 PZ 201 -1.770
9 PZ 202 -2.747
9 PZ 203 -4.700
9 PZ 204 -5.676
9 PZ 205 -5.676
9 PZ 206 -4.700
9 PZ 207 -2.747
9 PZ 208 -0.793
9 PZ 209 0.183
9 PZ 210 0.671
9 PZ 211 0.671
9 PZ 212 1.160
9 PZ 213 2.136
9 PZ 214 3.113
9 PZ 215 4.578
9 PZ 216 5.554
9 PZ 217 5.554
9 PZ 218 5.066
9 PZ 219 5.066
9 PZ 220 4.578
9 PZ 221 3.601
9 PZ 222 2.136
9 PZ 223 -0.305
9 PZ 224 -2.747
9 PZ 225 -4.700
9 PZ 226 -5.676
9 PZ 227 -6.653
9 PZ 228 -6.165
9 PZ 229 -5.188
9 PZ 230 -3.235
9 PZ 231 -0.793
9 PZ 232 1.648
9 PZ 233 3.113
9 PZ 234 3.113
9 PZ 235 2.136
9 PZ 236 1.160
9 PZ 237 0.183
9 PZ 238 0.183
9 PZ 239 0.671
9 PZ 240 1.160
9 PZ 241 2.136
9 PZ 242 1.648
9 PZ 243 0.671
9 PZ 244 -0.305
9 PZ 245 -1.282
9 PZ 246 -1.770
9 PZ 247 -2.258
9 PZ 248 -2.258
9 PZ 249 -2.258
9 PZ 250 -2.258
9 PZ 251 -1.282
9 PZ 252 -0.793
9 PZ 253 -0.305
9 PZ 254 -0.305
9 PZ 255 -0.793
# P8 chan 25
9 P8 0 4.150
9 P8 1 2.197
9 P8 2 -0.244
9 P8 3 -3.174
9 P8 4 -6.104
9 P8 5 -7.568
9 P8 6 -8.545
9 P8 7 -7.568
9 P8 8 -5.127
9 P8 9 -1.709
9 P8 10 1.709
9 P8 11 5.127
9 P8 12 7.080
9 P8 13 7.568
9 P8 14 7.080
9 P8 15 5.615
9 P8 16 3.662
9 P8 17 1.221
9 P8 18 -0.732
9 P8 19 -1.221
9 P8 20 -1.221
9 P8 21 -0.732
9 P8 22 -0.732
9 P8 23 -1.709
9 P8 24 -1.709
9 P8 25 -0.244
9 P8 26 3.662
9 P8 27 9.521
9 P8 28 15.381
9 P8 29 19.775
9 P8 30 20.752
9 P8 31 18.799
9 P8 32 14.893
9 P8 33 9.521
9 P8 34 4.150
9 P8 35 -1.221
9 P8 36 -6.104
9 P8 37 -10.986
9 P8 38 -14.893
9 P8 39 -19.775
9 P8 40 -24.170
9 P8 41 -28.076
9 P8 42 -30.518
9 P8 43 -30.029
9 P8 44 -27.100
9 P8 45 -21.729
9 P8 46 -17.334
9 P8 47 -14.404
9 P8 48 -13.916
9 P8 49 -13.428
9 P8 50 -12.451
9 P8 51 -9.521
9 P8 52 -6.104
9 P8 53 -2.686
9 P8 54 -1.221
9 P8 55 -1.221
9 P8 56 -2.197
9 P8 57 -2.686
9 P8 58 -3.174
9 P8 59 -3.174
9 P8 60 -4.639
9 P8 61 -7.080
9 P8 62 -10.010
9 P8 63 -11.475
9 P8 64 -11.475
9 P8 65 -10.010
9 P8 66 -8.545
9 P8 67 -7.080
9 P8 68 -6.592
9 P8 69 -6.104
9 P8 70 -5.127
9 P8 71 -3.662
9 P8 72 -2.197
9 P8 73 -0.732
9 P8 74 0.732
9 P8 75 1.709
9 P8 76 2.686
9 P8 77 3.174
9 P8 78 3.174
9 P8 79 1.709
9 P8 80 0.244
9 P8 81 -1.709
9 P8 82 -3.662
9 P8 83 -5.127
9 P8 84 -6.592
9 P8 85 -8.545
9 P8 86 -10.498
9 P8 87 -10.986
9 P8 88 -10.498
9 P8 89 -8.057
9 P8 90 -4.150
9 P8 91 -1.709
9 P8 92 -0.244
9 P8 93 -0.244
9 P8 94 -1.221
9 P8 95 -1.709
9 P8 96 -2.197
9 P8 97 -1.709
9 P8 98 -1.709
9 P8 99 -2.197
9 P8 100 -2.686
9 P8 101 -3.174
9 P8 102 -3.174
9 P8 103 -3.662
9 P8 104 -5.127
9 P8 105 -8.057
9 P8 106 -11.475
9 P8 107 -13.428
9 P8 108 -13.428
9 P8 109 -11.963
9 P8 110 -9.521
9 P8 111 -7.080
9 P8 112 -6.104
9 P8 113 -5.615
9 P8 114 -5.127
9 P8 115 -4.639
9 P8 116 -4.150
9 P8 117 -3.662
9 P8 118 -3.174
9 P8 119 -3.174
9 P8 120 -1.709
9 P8 121 0.244
9 P8 122 3.174
9 P8 123 6.104
9 P8 124 8.057
9 P8 125 7.568
9 P8 126 5.127
9 P8 127 0.244
9 P8 128 -4.639
9 P8 129 -8.545
9 P8 130 -9.521
9 P8 131 -8.545
9 P8 132 -6.592
9 P8 133 -5.127
9 P8 134 -5.615
9 P8 135 -6.592
9 P8 136 -8.057
9 P8 137 -8.057
9 P8 138 -7.080
9 P8 139 -6.104
9 P8 140 -4.639
9 P8 141 -3.662
9 P8 142 -2.686
9 P8 143 -1.221
9 P8 144 0.244
9 P8 145 1.709
9 P8 146 1.709
9 P8 147 1.709
9 P8 148 0.244
9 P8 149 -2.197
9 P8 150 -4.639
9 P8 151 -6.104
9 P8 152 -6.592
9 P8 153 -6.104
9 P8 154 -5.615
9 P8 155 -6.104
9 P8 156 -7.080
9 P8 157 -8.545
9 P8 158 -9.033
9 P8 159 -7.568
9 P8 160 -4.639
9 P8 161 -1.709
9 P8 162 -0.244
9 P8 163 -1.221
9 P8 164 -3.174
9 P8 165 -5.127
9 P8 166 -6.592
9 P8 167 -8.545
9 P8 168 -9.521
9 P8 169 -10.498
9 P8 170 -10.010
9 P8 171 -7.568
9 P8 172 -3.174
9 P8 173 2.686
9 P8 174 8.545
9 P8 175 12.451
9 P8 176 13.916
9 P8 177 12.451
9 P8 178 9.521
9 P8 179 6.104
9 P8 180 3.662
9 P8 181 2.197
9 P8 182 1.709
9 P8 183 1.709
9 P8 184 0.732
9 P8 185 -0.244
9 P8 186 -2.197
9 P8 187 -3.174
9 P8 188 -4.150
9 P8 189 -4.150
9 P8 190 -2.686
9 P8 191 0.244
9 P8 192 3.662
9 P8 193 7.080
9 P8 194 8.057
9 P8 195 6.592
9 P8 196 2.686
9 P8 197 -2.197
9 P8 198 -6.104
9 P8 199 -7.568
9 P8 200 -7.568
9 P8 201 -7.080
9 P8 202 -6.592
9 P8 203 -6.592
9 P8 204 -5.615
9 P8 205 -3.174
9 P8 206 1.221
9 P8 207 5.127
9 P8 208 6.592
9 P8 209 5.127
9 P8 210 0.732
9 P8 211 -4.639
9 P8 212 -8.057
9 P8 213 -8.545
9 P8 214 -6.104
9 P8 215 -3.174
9 P8 216 -1.221
9 P8 217 -0.732
9 P8 218 -1.221
9 P8 219 -1.709
9 P8 220 -1.221
9 P8 221 0.244
9 P8 222 1.221
9 P8 223 2.197
9 P8 224 2.686
9 P8 225 3.174
9 P8 226 4.150
9 P8 227 5.127
9 P8 228 6.592
9 P8 229 7.568
9 P8 230 7.568
9 P8 231 7.080
9 P8 232 5.615
9 P8 233 3.662
9 P8 234 1.221
9 P8 235 -0.732
9 P8 236 -2.197
9 P8 237 -3.662
9 P8 238 -5.127
9 P8 239 -6.104
9 P8 240 -5.615
9 P8 241 -4.639
9 P8 242 -3.174
9 P8 243 -1.221
9 P8 244 0.732
9 P8 245 3.662
9 P8 246 7.568
9 P8 247 10.498
9 P8 248 11.475
9 P8 249 10.498
9 P8 250 7.568
9 P8 251 4.639
9 P8 252 2.686
9 P8 253 2.197
9 P8 254 0.732
9 P8 255 -1.221
# P7 chan 26
9 P7 0 -4.679
9 P7 1 -9.562
9 P7 2 -14.445
9 P7 3 -16.886
9 P7 4 -17.375
9 P7 5 -16.398
9 P7 6 -15.422
9 P7 7 -14.445
9 P7 8 -14.445
9 P7 9 -14.445
9 P7 10 -13.957
9 P7 11 -12.980
9 P7 12 -11.027
9 P7 13 -8.097
9 P7 14 -5.168
9 P7 15 -3.215
9 P7 16 -2.238
9 P7 17 -3.703
9 P7 18 -6.632
9 P7 19 -10.050
9 P7 20 -13.468
9 P7 21 -15.910
9 P7 22 -16.398
9 P7 23 -14.933
9 P7 24 -11.027
9 P7 25 -5.656
9 P7 26 0.203
9 P7 27 3.133
9 P7 28 3.621
9 P7 29 2.157
9 P7 30 -0.773
9 P7 31 -2.726
9 P7 32 -4.679
9 P7 33 -5.656
9 P7 34 -7.121
9 P7 35 -7.609
9 P7 36 -8.097
9 P7 37 -8.586
9 P7 38 -9.562
9 P7 39 -11.515
9 P7 40 -13.957
9 P7 41 -16.398
9 P7 42 -17.375
9 P7 43 -17.863
9 P7 44 -18.351
9 P7 45 -18.840
9 P7 46 -19.328
9 P7 47 -19.328
9 P7 48 -18.840
9 P7 49 -17.863
9 P7 50 -16.398
9 P7 51 -15.422
9 P7 52 -14.933
9 P7 53 -15.422
9 P7 54 -15.910
9 P7 55 -16.398
9 P7 56 -15.910
9 P7 57 -15.422
9 P7 58 -15.422
9 P7 59 -15.422
9 P7 60 -17.375
9 P7 61 -19.816
9 P7 62 -22.746
9 P7 63 -23.234
9 P7 64 -21.281
9 P7 65 -17.375
9 P7 66 -13.468
9 P7 67 -12.004
9 P7 68 -12.980
9 P7 69 -15.422
9 P7 70 -17.375
9 P7 71 -16.886
9 P7 72 -13.957
9 P7 73 -10.050
9 P7 74 -7.609
9 P7 75 -6.632
9 P7 76 -7.121
9 P7 77 -8.097
9 P7 78 -8.097
9 P7 79 -8.097
9 P7 80 -9.074
9 P7 81 -11.027
9 P7 82 -13.957
9 P7 83 -16.886
9 P7 84 -18.840
9 P7 85 -18.840
9 P7 86 -17.863
9 P7 87 -16.398
9 P7 88 -14.933
9 P7 89 -15.422
9 P7 90 -16.398
9 P7 91 -18.840
9 P7 92 -20.304
9 P7 93 -20.304
9 P7 94 -17.863
9 P7 95 -15.910
9 P7 96 -15.910
9 P7 97 -17.375
9 P7 98 -20.304
9 P7 99 -21.769
9 P7 100 -20.304
9 P7 101 -16.398
9 P7 102 -13.957
9 P7 103 -14.933
9 P7 104 -18.840
9 P7 105 -24.211
9 P7 106 -27.140
9 P7 107 -25.675
9 P7 108 -20.793
9 P7 109 -15.422
9 P7 110 -12.492
9 P7 111 -11.515
9 P7 112 -12.492
9 P7 113 -12.492
9 P7 114 -12.492
9 P7 115 -12.004
9 P7 116 -12.004
9 P7 117 -12.492
9 P7 118 -12.492
9 P7 119 -11.515
9 P7 120 -10.050
9 P7 121 -8.586
9 P7 122 -7.121
9 P7 123 -6.632
9 P7 124 -5.656
9 P7 125 -4.679
9 P7 126 -5.168
9 P7 127 -6.632
9 P7 128 -9.074
9 P7 129 -11.027
9 P7 130 -11.515
9 P7 131 -10.539
9 P7 132 -9.562
9 P7 133 -10.050
9 P7 134 -12.004
9 P7 135 -14.445
9 P7 136 -15.422
9 P7 137 -15.422
9 P7 138 -16.398
9 P7 139 -18.351
9 P7 140 -21.769
9 P7 141 -23.722
9 P7 142 -21.769
9 P7 143 -17.375
9 P7 144 -12.980
9 P7 145 -12.492
9 P7 146 -16.398
9 P7 147 -22.257
9 P7 148 -26.164
9 P7 149 -27.140
9 P7 150 -25.675
9 P7 151 -24.699
9 P7 152 -25.187
9 P7 153 -27.140
9 P7 154 -28.605
9 P7 155 -28.117
9 P7 156 -27.140
9 P7 157 -26.164
9 P7 158 -25.675
9 P7 159 -24.699
9 P7 160 -23.234
9 P7 161 -21.281
9 P7 162 -19.328
9 P7 163 -18.840
9 P7 164 -19.816
9 P7 165 -21.769
9 P7 166 -21.769
9 P7 167 -20.793
9 P7 168 -18.840
9 P7 169 -17.863
9 P7 170 -18.351
9 P7 171 -20.793
9 P7 172 -24.211
9 P7 173 -27.140
9 P7 174 -29.093
9 P7 175 -31.047
9 P7 176 -31.535
9 P7 177 -30.558
9 P7 178 -28.117
9 P7 179 -24.211
9 P7 180 -19.816
9 P7 181 -17.863
9 P7 182 -17.375
9 P7 183 -18.840
9 P7 184 -20.793
9 P7 185 -21.281
9 P7 186 -21.281
9 P7 187 -20.793
9 P7 188 -20.793
9 P7 189 -22.257
9 P7 190 -23.722
9 P7 191 -24.211
9 P7 192 -24.211
9 P7 193 -23.722
9 P7 194 -23.722
9 P7 195 -24.699
9 P7 196 -26.652
9 P7 197 -29.093
9 P7 198 -30.558
9 P7 199 -31.047
9 P7 200 -31.535
9 P7 201 -32.511
9 P7 202 -35.441
9 P7 203 -37.882
9 P7 204 -39.347
9 P7 205 -36.906
9 P7 206 -31.047
9 P7 207 -23.234
9 P7 208 -17.375
9 P7 209 -14.933
9 P7 210 -15.910
9 P7 211 -18.840
9 P7 212 -21.769
9 P7 213 -23.234
9 P7 214 -23.234
9 P7 215 -22.257
9 P7 216 -21.281
9 P7 217 -19.328
9 P7 218 -16.398
9 P7 219 -12.492
9 P7 220 -9.562
9 P7 221 -8.097
9 P7 222 -10.050
9 P7 223 -14.445
9 P7 224 -19.816
9 P7 225 -25.187
9 P7 226 -30.070
9 P7 227 -33.976
9 P7 228 -36.418
9 P7 229 -36.418
9 P7 230 -33.488
9 P7 231 -27.629
9 P7 232 -20.793
9 P7 233 -13.957
9 P7 234 -8.586
9 P7 235 -6.144
9 P7 236 -5.168
9 P7 237 -5.168
9 P7 238 -5.656
9 P7 239 -7.609
9 P7 240 -10.539
9 P7 241 -14.445
9 P7 242 -18.351
9 P7 243 -21.281
9 P7 244 -23.722
9 P7 245 -24.699
9 P7 246 -27.140
9 P7 247 -30.070
9 P7 248 -33.000
9 P7 249 -35.929
9 P7 250 -36.906
9 P7 251 -35.929
9 P7 252 -33.000
9 P7 253 -30.070
9 P7 254 -26.652
9 P7 255 -23.722
# PO2 chan 27
9 PO2 0 3.906
9 PO2 1 3.418
9 PO2 2 1.953
9 PO2 3 1.465
9 PO2 4 0.488
9 PO2 5 0.488
9 PO2 6 0.488
9 PO2 7 0.977
9 PO2 8 1.953
9 PO2 9 3.418
9 PO2 10 4.883
9 PO2 11 6.348
9 PO2 12 7.324
9 PO2 13 7.812
9 PO2 14 7.324
9 PO2 15 6.836
9 PO2 16 4.395
9 PO2 17 1.953
9 PO2 18 -0.977
9 PO2 19 -3.906
9 PO2 20 -5.859
9 PO2 21 -6.348
9 PO2 22 -6.348
9 PO2 23 -5.859
9 PO2 24 -4.395
9 PO2 25 -1.465
9 PO2 26 0.977
9 PO2 27 4.395
9 PO2 28 7.324
9 PO2 29 8.789
9 PO2 30 9.277
9 PO2 31 8.789
9 PO2 32 6.348
9 PO2 33 2.930
9 PO2 34 -1.465
9 PO2 35 -6.348
9 PO2 36 -10.742
9 PO2 37 -13.672
9 PO2 38 -15.625
9 PO2 39 -17.578
9 PO2 40 -20.020
9 PO2 41 -22.461
9 PO2 42 -23.438
9 PO2 43 -22.461
9 PO2 44 -19.531
9 PO2 45 -15.625
9 PO2 46 -12.695
9 PO2 47 -11.230
9 PO2 48 -10.742
9 PO2 49 -9.766
9 PO2 50 -7.812
9 PO2 51 -4.883
9 PO2 52 -1.953
9 PO2 53 0.000
9 PO2 54 0.000
9 PO2 55 -0.977
9 PO2 56 -2.441
9 PO2 57 -3.906
9 PO2 58 -5.371
9 PO2 59 -6.836
9 PO2 60 -8.301
9 PO2 61 -9.766
9 PO2 62 -11.230
9 PO2 63 -11.719
9 PO2 64 -11.230
9 PO2 65 -10.254
9 PO2 66 -9.277
9 PO2 67 -8.301
9 PO2 68 -7.324
9 PO2 69 -6.836
9 PO2 70 -6.348
9 PO2 71 -5.859
9 PO2 72 -4.395
9 PO2 73 -2.441
9 PO2 74 -0.488
9 PO2 75 0.977
9 PO2 76 2.441
9 PO2 77 2.930
9 PO2 78 1.953
9 PO2 79 0.488
9 PO2 80 -0.977
9 PO2 81 -2.441
9 PO2 82 -2.930
9 PO2 83 -3.906
9 PO2 84 -4.395
9 PO2 85 -5.371
9 PO2 86 -5.371
9 PO2 87 -5.371
9 PO2 88 -3.906
9 PO2 89 -1.953
9 PO2 90 -0.488
9 PO2 91 0.000
9 PO2 92 0.000
9 PO2 93 0.000
9 PO2 94 0.000
9 PO2 95 0.000
9 PO2 96 -0.488
9 PO2 97 -1.953
9 PO2 98 -3.906
9 PO2 99 -4.395
9 PO2 100 -3.906
9 PO2 101 -2.441
9 PO2 102 -0.488
9 PO2 103 -0.488
9 PO2 104 -2.441
9 PO2 105 -5.859
9 PO2 106 -9.277
9 PO2 107 -11.230
9 PO2 108 -10.742
9 PO2 109 -8.301
9 PO2 110 -5.859
9 PO2 111 -4.395
9 PO2 112 -3.418
9 PO2 113 -2.441
9 PO2 114 -1.465
9 PO2 115 0.488
9 PO2 116 1.953
9 PO2 117 2.930
9 PO2 118 3.418
9 PO2 119 3.418
9 PO2 120 3.906
9 PO2 121 3.906
9 PO2 122 4.883
9 PO2 123 5.371
9 PO2 124 5.859
9 PO2 125 5.859
9 PO2 126 5.371
9 PO2 127 3.418
9 PO2 128 0.977
9 PO2 129 -0.977
9 PO2 130 -0.977
9 PO2 131 1.465
9 PO2 132 3.906
9 PO2 133 6.348
9 PO2 134 6.348
9 PO2 135 4.395
9 PO2 136 2.441
9 PO2 137 0.977
9 PO2 138 0.977
9 PO2 139 1.465
9 PO2 140 2.930
9 PO2 141 4.395
9 PO2 142 6.348
9 PO2 143 8.301
9 PO2 144 9.277
9 PO2 145 8.301
9 PO2 146 6.348
9 PO2 147 3.418
9 PO2 148 0.000
9 PO2 149 -2.441
9 PO2 150 -3.906
9 PO2 151 -3.906
9 PO2 152 -2.930
9 PO2 153 -1.465
9 PO2 154 -0.488
9 PO2 155 0.488
9 PO2 156 0.488
9 PO2 157 0.000
9 PO2 158 0.000
9 PO2 159 0.488
9 PO2 160 1.953
9 PO2 161 3.418
9 PO2 162 3.906
9 PO2 163 3.418
9 PO2 164 2.930
9 PO2 165 1.953
9 PO2 166 0.977
9 PO2 167 0.000
9 PO2 168 -1.465
9 PO2 169 -2.441
9 PO2 170 -2.441
9 PO2 171 -0.977
9 PO2 172 1.953
9 PO2 173 5.371
9 PO2 174 8.301
9 PO2 175 9.766
9 PO2 176 9.277
9 PO2 177 7.324
9 PO2 178 5.859
9 PO2 179 4.883
9 PO2 180 4.883
9 PO2 181 6.348
9 PO2 182 7.812
9 PO2 183 7.812
9 PO2 184 6.348
9 PO2 185 4.395
9 PO2 186 0.977
9 PO2 187 -1.465
9 PO2 188 -2.930
9 PO2 189 -2.930
9 PO2 190 -0.977
9 PO2 191 2.441
9 PO2 192 6.348
9 PO2 193 8.789
9 PO2 194 9.766
9 PO2 195 7.812
9 PO2 196 4.395
9 PO2 197 0.488
9 PO2 198 -2.441
9 PO2 199 -3.418
9 PO2 200 -2.930
9 PO2 201 -2.930
9 PO2 202 -3.906
9 PO2 203 -5.859
9 PO2 204 -7.324
9 PO2 205 -7.324
9 PO2 206 -4.883
9 PO2 207 -0.977
9 PO2 208 1.953
9 PO2 209 3.418
9 PO2 210 2.441
9 PO2 211 0.977
9 PO2 212 0.488
9 PO2 213 0.977
9 PO2 214 2.441
9 PO2 215 3.906
9 PO2 216 4.395
9 PO2 217 3.906
9 PO2 218 2.930
9 PO2 219 1.953
9 PO2 220 0.977
9 PO2 221 -0.977
9 PO2 222 -3.418
9 PO2 223 -5.371
9 PO2 224 -6.348
9 PO2 225 -6.348
9 PO2 226 -5.371
9 PO2 227 -4.395
9 PO2 228 -2.930
9 PO2 229 -1.465
9 PO2 230 0.977
9 PO2 231 2.930
9 PO2 232 4.395
9 PO2 233 4.883
9 PO2 234 3.418
9 PO2 235 0.488
9 PO2 236 -2.930
9 PO2 237 -4.883
9 PO2 238 -5.859
9 PO2 239 -5.371
9 PO2 240 -3.906
9 PO2 241 -3.418
9 PO2 242 -3.418
9 PO2 243 -4.395
9 PO2 244 -5.371
9 PO2 245 -4.883
9 PO2 246 -3.418
9 PO2 247 -1.465
9 PO2 248 0.000
9 PO2 249 0.977
9 PO2 250 0.977
9 PO2 251 0.488
9 PO2 252 0.488
9 PO2 253 0.488
9 PO2 254 0.000
9 PO2 255 -1.465
# PO1 chan 28
9 PO1 0 0.437
9 PO1 1 -2.981
9 PO1 2 -5.422
9 PO1 3 -5.910
9 PO1 4 -5.422
9 PO1 5 -3.469
9 PO1 6 -2.492
9 PO1 7 -1.027
9 PO1 8 0.437
9 PO1 9 2.391
9 PO1 10 4.832
9 PO1 11 7.273
9 PO1 12 8.738
9 PO1 13 9.715
9 PO1 14 9.226
9 PO1 15 7.273
9 PO1 16 4.344
9 PO1 17 -0.051
9 PO1 18 -4.934
9 PO1 19 -8.840
9 PO1 20 -11.281
9 PO1 21 -11.770
9 PO1 22 -10.305
9 PO1 23 -6.887
9 PO1 24 -2.981
9 PO1 25 0.437
9 PO1 26 2.879
9 PO1 27 4.832
9 PO1 28 5.320
9 PO1 29 4.832
9 PO1 30 4.344
9 PO1 31 3.367
9 PO1 32 1.414
9 PO1 33 -1.516
9 PO1 34 -5.910
9 PO1 35 -9.816
9 PO1 36 -11.770
9 PO1 37 -12.746
9 PO1 38 -13.234
9 PO1 39 -14.211
9 PO1 40 -16.164
9 PO1 41 -18.117
9 PO1 42 -19.094
9 PO1 43 -19.094
9 PO1 44 -17.629
9 PO1 45 -16.164
9 PO1 46 -15.188
9 PO1 47 -15.188
9 PO1 48 -14.211
9 PO1 49 -12.746
9 PO1 50 -10.793
9 PO1 51 -8.352
9 PO1 52 -6.399
9 PO1 53 -5.422
9 PO1 54 -5.422
9 PO1 55 -6.399
9 PO1 56 -6.887
9 PO1 57 -7.375
9 PO1 58 -7.375
9 PO1 59 -8.352
9 PO1 60 -8.840
9 PO1 61 -10.793
9 PO1 62 -12.746
9 PO1 63 -14.211
9 PO1 64 -13.723
9 PO1 65 -12.258
9 PO1 66 -9.816
9 PO1 67 -8.352
9 PO1 68 -7.375
9 PO1 69 -7.375
9 PO1 70 -7.375
9 PO1 71 -6.887
9 PO1 72 -6.399
9 PO1 73 -4.934
9 PO1 74 -3.469
9 PO1 75 -2.004
9 PO1 76 -0.539
9 PO1 77 -0.051
9 PO1 78 -0.539
9 PO1 79 -1.516
9 PO1 80 -3.469
9 PO1 81 -5.422
9 PO1 82 -6.887
9 PO1 83 -8.352
9 PO1 84 -9.328
9 PO1 85 -9.328
9 PO1 86 -8.352
9 PO1 87 -6.399
9 PO1 88 -3.957
9 PO1 89 -2.492
9 PO1 90 -2.981
9 PO1 91 -4.445
9 PO1 92 -5.910
9 PO1 93 -6.399
9 PO1 94 -6.399
9 PO1 95 -6.399
9 PO1 96 -7.863
9 PO1 97 -10.305
9 PO1 98 -12.258
9 PO1 99 -11.770
9 PO1 100 -9.816
9 PO1 101 -6.399
9 PO1 102 -4.445
9 PO1 103 -5.422
9 PO1 104 -9.328
9 PO1 105 -14.211
9 PO1 106 -16.652
9 PO1 107 -15.676
9 PO1 108 -12.258
9 PO1 109 -8.352
9 PO1 110 -4.934
9 PO1 111 -3.469
9 PO1 112 -2.981
9 PO1 113 -2.492
9 PO1 114 -2.004
9 PO1 115 -1.027
9 PO1 116 -1.027
9 PO1 117 -1.027
9 PO1 118 -1.027
9 PO1 119 -0.539
9 PO1 120 -0.051
9 PO1 121 -0.539
9 PO1 122 -0.539
9 PO1 123 -0.539
9 PO1 124 -0.539
9 PO1 125 -0.051
9 PO1 126 -0.539
9 PO1 127 -2.492
9 PO1 128 -4.934
9 PO1 129 -5.422
9 PO1 130 -3.469
9 PO1 131 0.926
9 PO1 132 5.320
9 PO1 133 7.762
9 PO1 134 7.273
9 PO1 135 4.344
9 PO1 136 1.414
9 PO1 137 -1.516
9 PO1 138 -2.981
9 PO1 139 -4.445
9 PO1 140 -4.934
9 PO1 141 -3.957
9 PO1 142 -1.516
9 PO1 143 2.391
9 PO1 144 5.320
9 PO1 145 5.809
9 PO1 146 3.855
9 PO1 147 0.926
9 PO1 148 -2.981
9 PO1 149 -6.399
9 PO1 150 -9.328
9 PO1 151 -11.281
9 PO1 152 -11.770
9 PO1 153 -10.793
9 PO1 154 -8.352
9 PO1 155 -5.422
9 PO1 156 -2.981
9 PO1 157 -1.027
9 PO1 158 -0.539
9 PO1 159 0.437
9 PO1 160 1.414
9 PO1 161 1.414
9 PO1 162 1.414
9 PO1 163 0.437
9 PO1 164 -1.027
9 PO1 165 -2.004
9 PO1 166 -2.492
9 PO1 167 -3.469
9 PO1 168 -4.445
9 PO1 169 -4.934
9 PO1 170 -4.445
9 PO1 171 -2.492
9 PO1 172 -0.539
9 PO1 173 1.414
9 PO1 174 1.902
9 PO1 175 0.926
9 PO1 176 -1.027
9 PO1 177 -2.492
9 PO1 178 -2.492
9 PO1 179 -1.027
9 PO1 180 1.902
9 PO1 181 4.344
9 PO1 182 5.320
9 PO1 183 5.320
9 PO1 184 3.855
9 PO1 185 1.902
9 PO1 186 -0.051
9 PO1 187 -1.516
9 PO1 188 -2.981
9 PO1 189 -4.445
9 PO1 190 -4.445
9 PO1 191 -3.469
9 PO1 192 -1.516
9 PO1 193 1.414
9 PO1 194 3.855
9 PO1 195 4.832
9 PO1 196 4.832
9 PO1 197 3.855
9 PO1 198 2.391
9 PO1 199 0.926
9 PO1 200 -1.516
9 PO1 201 -3.957
9 PO1 202 -7.863
9 PO1 203 -11.281
9 PO1 204 -13.234
9 PO1 205 -13.234
9 PO1 206 -10.793
9 PO1 207 -6.887
9 PO1 208 -2.981
9 PO1 209 -1.516
9 PO1 210 -0.539
9 PO1 211 -0.539
9 PO1 212 0.437
9 PO1 213 2.879
9 PO1 214 5.320
9 PO1 215 7.273
9 PO1 216 7.762
9 PO1 217 7.762
9 PO1 218 8.250
9 PO1 219 9.226
9 PO1 220 9.715
9 PO1 221 8.738
9 PO1 222 5.320
9 PO1 223 -0.051
9 PO1 224 -5.910
9 PO1 225 -11.281
9 PO1 226 -14.699
9 PO1 227 -16.652
9 PO1 228 -15.676
9 PO1 229 -12.746
9 PO1 230 -7.863
9 PO1 231 -2.492
9 PO1 232 2.391
9 PO1 233 4.832
9 PO1 234 5.809
9 PO1 235 4.832
9 PO1 236 3.855
9 PO1 237 2.879
9 PO1 238 3.367
9 PO1 239 3.855
9 PO1 240 4.344
9 PO1 241 3.855
9 PO1 242 2.391
9 PO1 243 -0.539
9 PO1 244 -3.469
9 PO1 245 -4.934
9 PO1 246 -5.422
9 PO1 247 -4.445
9 PO1 248 -3.469
9 PO1 249 -2.492
9 PO1 250 -2.004
9 PO1 251 -1.027
9 PO1 252 -0.539
9 PO1 253 -0.051
9 PO1 254 -0.539
9 PO1 255 -1.516
# O2 chan 29
9 O2 0 6.022
9 O2 1 4.069
9 O2 2 1.628
9 O2 3 -0.326
9 O2 4 -2.279
9 O2 5 -3.743
9 O2 6 -4.232
9 O2 7 -3.255
9 O2 8 -1.302
9 O2 9 1.139
9 O2 10 4.069
9 O2 11 6.510
9 O2 12 8.464
9 O2 13 9.928
9 O2 14 10.417
9 O2 15 9.928
9 O2 16 8.464
9 O2 17 6.022
9 O2 18 3.092
9 O2 19 0.163
9 O2 20 -2.767
9 O2 21 -5.208
9 O2 22 -6.673
9 O2 23 -6.673
9 O2 24 -5.208
9 O2 25 -1.302
9 O2 26 3.092
9 O2 27 7.487
9 O2 28 10.905
9 O2 29 13.346
9 O2 30 14.323
9 O2 31 12.370
9 O2 32 8.952
9 O2 33 3.581
9 O2 34 -3.255
9 O2 35 -9.603
9 O2 36 -13.997
9 O2 37 -17.415
9 O2 38 -19.857
9 O2 39 -22.786
9 O2 40 -26.204
9 O2 41 -29.622
9 O2 42 -30.599
9 O2 43 -28.646
9 O2 44 -23.763
9 O2 45 -18.880
9 O2 46 -15.462
9 O2 47 -14.974
9 O2 48 -14.974
9 O2 49 -13.997
9 O2 50 -11.556
9 O2 51 -7.650
9 O2 52 -3.743
9 O2 53 -1.302
9 O2 54 -0.326
9 O2 55 -1.302
9 O2 56 -2.279
9 O2 57 -3.255
9 O2 58 -4.232
9 O2 59 -6.185
9 O2 60 -8.626
9 O2 61 -11.556
9 O2 62 -13.021
9 O2 63 -13.021
9 O2 64 -12.044
9 O2 65 -11.068
9 O2 66 -11.068
9 O2 67 -11.068
9 O2 68 -11.556
9 O2 69 -11.556
9 O2 70 -10.091
9 O2 71 -7.650
9 O2 72 -5.697
9 O2 73 -3.255
9 O2 74 -1.302
9 O2 75 0.651
9 O2 76 2.116
9 O2 77 2.604
9 O2 78 1.139
9 O2 79 -1.302
9 O2 80 -3.743
9 O2 81 -5.208
9 O2 82 -6.185
9 O2 83 -7.161
9 O2 84 -8.626
9 O2 85 -10.579
9 O2 86 -12.044
9 O2 87 -11.556
9 O2 88 -9.603
9 O2 89 -7.161
9 O2 90 -4.720
9 O2 91 -4.232
9 O2 92 -4.232
9 O2 93 -4.232
9 O2 94 -3.255
9 O2 95 -3.255
9 O2 96 -4.232
9 O2 97 -6.673
9 O2 98 -10.091
9 O2 99 -11.556
9 O2 100 -10.579
9 O2 101 -7.161
9 O2 102 -4.232
9 O2 103 -3.743
9 O2 104 -6.673
9 O2 105 -12.044
9 O2 106 -15.951
9 O2 107 -17.904
9 O2 108 -17.415
9 O2 109 -14.486
9 O2 110 -11.068
9 O2 111 -8.626
9 O2 112 -6.673
9 O2 113 -4.720
9 O2 114 -3.255
9 O2 115 -2.279
9 O2 116 -2.279
9 O2 117 -1.790
9 O2 118 -1.790
9 O2 119 -0.326
9 O2 120 1.628
9 O2 121 3.092
9 O2 122 4.069
9 O2 123 5.046
9 O2 124 5.534
9 O2 125 6.022
9 O2 126 5.046
9 O2 127 2.116
9 O2 128 -1.790
9 O2 129 -5.208
9 O2 130 -6.185
9 O2 131 -4.232
9 O2 132 -0.814
9 O2 133 1.628
9 O2 134 1.628
9 O2 135 0.163
9 O2 136 -1.790
9 O2 137 -2.767
9 O2 138 -2.767
9 O2 139 -2.279
9 O2 140 -1.790
9 O2 141 -0.326
9 O2 142 1.628
9 O2 143 3.581
9 O2 144 4.069
9 O2 145 3.581
9 O2 146 1.628
9 O2 147 -1.302
9 O2 148 -3.743
9 O2 149 -5.208
9 O2 150 -6.185
9 O2 151 -6.185
9 O2 152 -6.185
9 O2 153 -5.208
9 O2 154 -5.208
9 O2 155 -5.697
9 O2 156 -6.673
9 O2 157 -8.138
9 O2 158 -8.138
9 O2 159 -6.673
9 O2 160 -4.232
9 O2 161 -2.279
9 O2 162 -0.814
9 O2 163 -0.814
9 O2 164 -1.790
9 O2 165 -2.767
9 O2 166 -3.743
9 O2 167 -4.232
9 O2 168 -5.208
9 O2 169 -5.697
9 O2 170 -6.185
9 O2 171 -4.720
9 O2 172 -1.790
9 O2 173 2.604
9 O2 174 5.534
9 O2 175 6.999
9 O2 176 6.022
9 O2 177 3.581
9 O2 178 2.116
9 O2 179 1.139
9 O2 180 2.116
9 O2 181 4.069
9 O2 182 5.534
9 O2 183 6.022
9 O2 184 5.046
9 O2 185 3.581
9 O2 186 1.628
9 O2 187 0.651
9 O2 188 -0.814
9 O2 189 -1.302
9 O2 190 -0.814
9 O2 191 1.139
9 O2 192 4.069
9 O2 193 6.510
9 O2 194 7.975
9 O2 195 6.510
9 O2 196 3.581
9 O2 197 -0.814
9 O2 198 -4.232
9 O2 199 -5.697
9 O2 200 -6.185
9 O2 201 -6.673
9 O2 202 -8.626
9 O2 203 -10.091
9 O2 204 -11.068
9 O2 205 -9.115
9 O2 206 -4.232
9 O2 207 1.628
9 O2 208 5.534
9 O2 209 6.022
9 O2 210 3.092
9 O2 211 -0.814
9 O2 212 -2.767
9 O2 213 -2.279
9 O2 214 -0.326
9 O2 215 1.139
9 O2 216 1.139
9 O2 217 1.139
9 O2 218 0.651
9 O2 219 1.628
9 O2 220 2.116
9 O2 221 1.628
9 O2 222 -0.814
9 O2 223 -2.767
9 O2 224 -5.208
9 O2 225 -5.697
