# co2a0000447.rd
# 120 trials, 64 chans, 416 samples 368 post_stim samples
# 3.906000 msecs uV
# S2 match , trial 27
# FP1 chan 0
27 FP1 0 -5.259
27 FP1 1 -3.794
27 FP1 2 -2.330
27 FP1 3 -1.353
27 FP1 4 0.600
27 FP1 5 2.553
27 FP1 6 4.506
27 FP1 7 6.948
27 FP1 8 8.413
27 FP1 9 8.901
27 FP1 10 7.924
27 FP1 11 5.971
27 FP1 12 2.065
27 FP1 13 -1.841
27 FP1 14 -5.259
27 FP1 15 -7.212
27 FP1 16 -7.701
27 FP1 17 -7.701
27 FP1 18 -7.701
27 FP1 19 -8.677
27 FP1 20 -8.677
27 FP1 21 -7.701
27 FP1 22 -4.283
27 FP1 23 0.112
27 FP1 24 4.018
27 FP1 25 6.948
27 FP1 26 7.924
27 FP1 27 8.413
27 FP1 28 9.878
27 FP1 29 11.831
27 FP1 30 14.760
27 FP1 31 15.249
27 FP1 32 13.784
27 FP1 33 10.366
27 FP1 34 6.948
27 FP1 35 4.018
27 FP1 36 1.577
27 FP1 37 -0.376
27 FP1 38 -2.330
27 FP1 39 -3.306
27 FP1 40 -1.841
27 FP1 41 1.577
27 FP1 42 5.483
27 FP1 43 7.924
27 FP1 44 8.413
27 FP1 45 7.436
27 FP1 46 5.971
27 FP1 47 5.483
27 FP1 48 6.460
27 FP1 49 7.436
27 FP1 50 7.436
27 FP1 51 7.436
27 FP1 52 7.924
27 FP1 53 8.413
27 FP1 54 7.924
27 FP1 55 6.460
27 FP1 56 3.530
27 FP1 57 0.600
27 FP1 58 -0.865
27 FP1 59 0.600
27 FP1 60 3.530
27 FP1 61 5.483
27 FP1 62 5.971
27 FP1 63 3.042
27 FP1 64 -1.841
27 FP1 65 -7.212
27 FP1 66 -11.607
27 FP1 67 -14.048
27 FP1 68 -14.048
27 FP1 69 -11.607
27 FP1 70 -6.724
27 FP1 71 -1.841
27 FP1 72 2.553
27 FP1 73 4.506
27 FP1 74 4.506
27 FP1 75 3.530
27 FP1 76 2.065
27 FP1 77 0.600
27 FP1 78 -0.376
27 FP1 79 -1.841
27 FP1 80 -2.818
27 FP1 81 -2.818
27 FP1 82 -3.306
27 FP1 83 -3.306
27 FP1 84 -3.306
27 FP1 85 -3.306
27 FP1 86 -3.794
27 FP1 87 -2.818
27 FP1 88 -0.865
27 FP1 89 0.600
27 FP1 90 0.112
27 FP1 91 -2.330
27 FP1 92 -5.747
27 FP1 93 -9.165
27 FP1 94 -10.630
27 FP1 95 -10.142
27 FP1 96 -8.189
27 FP1 97 -6.724
27 FP1 98 -7.701
27 FP1 99 -9.654
27 FP1 100 -11.607
27 FP1 101 -12.095
27 FP1 102 -11.119
27 FP1 103 -9.165
27 FP1 104 -7.212
27 FP1 105 -6.236
27 FP1 106 -5.747
27 FP1 107 -5.259
27 FP1 108 -3.794
27 FP1 109 -2.818
27 FP1 110 -3.306
27 FP1 111 -4.283
27 FP1 112 -6.236
27 FP1 113 -8.189
27 FP1 114 -8.677
27 FP1 115 -7.701
27 FP1 116 -7.212
27 FP1 117 -7.212
27 FP1 118 -8.189
27 FP1 119 -8.677
27 FP1 120 -8.677
27 FP1 121 -7.701
27 FP1 122 -7.212
27 FP1 123 -7.212
27 FP1 124 -8.189
27 FP1 125 -9.165
27 FP1 126 -10.630
27 FP1 127 -11.119
27 FP1 128 -10.142
27 FP1 129 -8.677
27 FP1 130 -6.724
27 FP1 131 -5.259
27 FP1 132 -5.259
27 FP1 133 -6.724
27 FP1 134 -9.654
27 FP1 135 -12.095
27 FP1 136 -13.072
27 FP1 137 -11.607
27 FP1 138 -8.677
27 FP1 139 -5.259
27 FP1 140 -3.306
27 FP1 141 -3.306
27 FP1 142 -4.283
27 FP1 143 -4.771
27 FP1 144 -4.771
27 FP1 145 -3.794
27 FP1 146 -3.306
27 FP1 147 -3.306
27 FP1 148 -2.818
27 FP1 149 -2.330
27 FP1 150 -2.330
27 FP1 151 -3.794
27 FP1 152 -7.212
27 FP1 153 -12.095
27 FP1 154 -18.443
27 FP1 155 -22.837
27 FP1 156 -25.279
27 FP1 157 -24.790
27 FP1 158 -23.814
27 FP1 159 -21.372
27 FP1 160 -18.443
27 FP1 161 -14.048
27 FP1 162 -7.212
27 FP1 163 0.112
27 FP1 164 5.483
27 FP1 165 6.948
27 FP1 166 4.506
27 FP1 167 -1.353
27 FP1 168 -6.724
27 FP1 169 -8.677
27 FP1 170 -7.212
27 FP1 171 -4.283
27 FP1 172 -2.818
27 FP1 173 -3.794
27 FP1 174 -7.701
27 FP1 175 -11.607
27 FP1 176 -14.048
27 FP1 177 -12.583
27 FP1 178 -9.165
27 FP1 179 -5.259
27 FP1 180 -2.330
27 FP1 181 -0.376
27 FP1 182 0.112
27 FP1 183 -0.376
27 FP1 184 -1.841
27 FP1 185 -4.283
27 FP1 186 -5.747
27 FP1 187 -6.236
27 FP1 188 -4.771
27 FP1 189 -1.841
27 FP1 190 0.600
27 FP1 191 2.065
27 FP1 192 2.065
27 FP1 193 0.112
27 FP1 194 -1.841
27 FP1 195 -3.306
27 FP1 196 -3.794
27 FP1 197 -4.283
27 FP1 198 -4.771
27 FP1 199 -6.236
27 FP1 200 -8.189
27 FP1 201 -10.630
27 FP1 202 -12.583
27 FP1 203 -14.048
27 FP1 204 -14.537
27 FP1 205 -13.560
27 FP1 206 -10.142
27 FP1 207 -5.747
27 FP1 208 -0.865
27 FP1 209 2.065
27 FP1 210 2.553
27 FP1 211 1.577
27 FP1 212 -0.865
27 FP1 213 -2.330
27 FP1 214 -3.794
27 FP1 215 -4.771
27 FP1 216 -6.236
27 FP1 217 -7.701
27 FP1 218 -7.701
27 FP1 219 -7.212
27 FP1 220 -5.747
27 FP1 221 -4.283
27 FP1 222 -4.283
27 FP1 223 -5.747
27 FP1 224 -7.212
27 FP1 225 -9.165
27 FP1 226 -10.630
27 FP1 227 -11.119
27 FP1 228 -12.095
27 FP1 229 -12.095
27 FP1 230 -11.607
27 FP1 231 -9.654
27 FP1 232 -7.701
27 FP1 233 -6.236
27 FP1 234 -5.259
27 FP1 235 -6.236
27 FP1 236 -8.189
27 FP1 237 -10.142
27 FP1 238 -11.607
27 FP1 239 -12.583
27 FP1 240 -12.095
27 FP1 241 -9.654
27 FP1 242 -6.236
27 FP1 243 -2.330
27 FP1 244 -0.376
27 FP1 245 -0.865
27 FP1 246 -3.794
27 FP1 247 -7.701
27 FP1 248 -11.119
27 FP1 249 -11.607
27 FP1 250 -10.142
27 FP1 251 -7.701
27 FP1 252 -6.236
27 FP1 253 -5.259
27 FP1 254 -3.794
27 FP1 255 -1.841
# FP2 chan 1
27 FP2 0 -3.215
27 FP2 1 -1.750
27 FP2 2 -0.285
27 FP2 3 0.692
27 FP2 4 2.645
27 FP2 5 4.598
27 FP2 6 6.551
27 FP2 7 8.016
27 FP2 8 8.993
27 FP2 9 9.481
27 FP2 10 8.993
27 FP2 11 7.039
27 FP2 12 2.645
27 FP2 13 -2.726
27 FP2 14 -6.632
27 FP2 15 -8.097
27 FP2 16 -7.121
27 FP2 17 -4.191
27 FP2 18 -3.215
27 FP2 19 -3.703
27 FP2 20 -5.656
27 FP2 21 -6.632
27 FP2 22 -5.168
27 FP2 23 -1.750
27 FP2 24 3.133
27 FP2 25 6.551
27 FP2 26 8.993
27 FP2 27 10.946
27 FP2 28 13.387
27 FP2 29 15.828
27 FP2 30 16.805
27 FP2 31 16.317
27 FP2 32 14.364
27 FP2 33 11.434
27 FP2 34 8.504
27 FP2 35 7.039
27 FP2 36 5.575
27 FP2 37 3.621
27 FP2 38 0.692
27 FP2 39 -1.261
27 FP2 40 -1.750
27 FP2 41 0.203
27 FP2 42 3.621
27 FP2 43 6.063
27 FP2 44 7.528
27 FP2 45 7.528
27 FP2 46 7.039
27 FP2 47 7.039
27 FP2 48 7.528
27 FP2 49 8.016
27 FP2 50 9.481
27 FP2 51 10.457
27 FP2 52 11.922
27 FP2 53 12.899
27 FP2 54 12.410
27 FP2 55 9.481
27 FP2 56 5.086
27 FP2 57 0.203
27 FP2 58 -2.238
27 FP2 59 -1.261
27 FP2 60 2.645
27 FP2 61 6.551
27 FP2 62 8.016
27 FP2 63 6.063
27 FP2 64 1.668
27 FP2 65 -4.679
27 FP2 66 -9.562
27 FP2 67 -12.492
27 FP2 68 -12.492
27 FP2 69 -9.562
27 FP2 70 -4.191
27 FP2 71 0.692
27 FP2 72 5.086
27 FP2 73 7.528
27 FP2 74 8.016
27 FP2 75 7.039
27 FP2 76 5.575
27 FP2 77 4.110
27 FP2 78 2.645
27 FP2 79 1.180
27 FP2 80 0.203
27 FP2 81 -0.285
27 FP2 82 -0.285
27 FP2 83 -0.773
27 FP2 84 -1.261
27 FP2 85 -2.726
27 FP2 86 -3.215
27 FP2 87 -2.726
27 FP2 88 -0.773
27 FP2 89 1.180
27 FP2 90 1.668
27 FP2 91 -0.285
27 FP2 92 -3.703
27 FP2 93 -7.121
27 FP2 94 -9.074
27 FP2 95 -8.097
27 FP2 96 -5.656
27 FP2 97 -3.703
27 FP2 98 -4.191
27 FP2 99 -6.144
27 FP2 100 -8.586
27 FP2 101 -10.050
27 FP2 102 -9.074
27 FP2 103 -7.609
27 FP2 104 -6.144
27 FP2 105 -5.168
27 FP2 106 -3.215
27 FP2 107 -1.750
27 FP2 108 0.692
27 FP2 109 1.668
27 FP2 110 0.692
27 FP2 111 -2.726
27 FP2 112 -6.144
27 FP2 113 -8.097
27 FP2 114 -8.097
27 FP2 115 -7.121
27 FP2 116 -5.168
27 FP2 117 -4.679
27 FP2 118 -4.679
27 FP2 119 -4.191
27 FP2 120 -3.703
27 FP2 121 -2.726
27 FP2 122 -2.238
27 FP2 123 -3.215
27 FP2 124 -5.168
27 FP2 125 -7.609
27 FP2 126 -9.074
27 FP2 127 -8.586
27 FP2 128 -6.144
27 FP2 129 -3.215
27 FP2 130 -0.773
27 FP2 131 0.692
27 FP2 132 -0.285
27 FP2 133 -3.215
27 FP2 134 -7.121
27 FP2 135 -10.050
27 FP2 136 -11.515
27 FP2 137 -11.027
27 FP2 138 -9.074
27 FP2 139 -6.632
27 FP2 140 -4.191
27 FP2 141 -1.750
27 FP2 142 -0.285
27 FP2 143 0.692
27 FP2 144 0.692
27 FP2 145 0.203
27 FP2 146 -0.285
27 FP2 147 0.203
27 FP2 148 1.180
27 FP2 149 1.668
27 FP2 150 0.692
27 FP2 151 -2.238
27 FP2 152 -6.632
27 FP2 153 -12.004
27 FP2 154 -16.398
27 FP2 155 -19.816
27 FP2 156 -21.281
27 FP2 157 -21.769
27 FP2 158 -20.793
27 FP2 159 -18.840
27 FP2 160 -15.910
27 FP2 161 -12.004
27 FP2 162 -6.144
27 FP2 163 0.203
27 FP2 164 6.063
27 FP2 165 9.481
27 FP2 166 8.993
27 FP2 167 6.063
27 FP2 168 1.668
27 FP2 169 -0.773
27 FP2 170 -1.261
27 FP2 171 -0.773
27 FP2 172 -0.773
27 FP2 173 -2.726
27 FP2 174 -6.144
27 FP2 175 -8.097
27 FP2 176 -8.097
27 FP2 177 -5.168
27 FP2 178 -1.261
27 FP2 179 2.157
27 FP2 180 4.598
27 FP2 181 4.598
27 FP2 182 4.110
27 FP2 183 2.157
27 FP2 184 0.203
27 FP2 185 -1.261
27 FP2 186 -1.750
27 FP2 187 -1.261
27 FP2 188 1.668
27 FP2 189 5.086
27 FP2 190 7.039
27 FP2 191 6.551
27 FP2 192 4.598
27 FP2 193 2.157
27 FP2 194 0.203
27 FP2 195 -1.261
27 FP2 196 -1.750
27 FP2 197 -2.726
27 FP2 198 -4.679
27 FP2 199 -5.656
27 FP2 200 -6.632
27 FP2 201 -7.609
27 FP2 202 -9.562
27 FP2 203 -11.515
27 FP2 204 -12.980
27 FP2 205 -12.004
27 FP2 206 -8.097
27 FP2 207 -1.750
27 FP2 208 3.621
27 FP2 209 6.551
27 FP2 210 6.551
27 FP2 211 5.086
27 FP2 212 2.645
27 FP2 213 0.692
27 FP2 214 -1.261
27 FP2 215 -3.703
27 FP2 216 -7.121
27 FP2 217 -10.050
27 FP2 218 -11.027
27 FP2 219 -9.074
27 FP2 220 -6.144
27 FP2 221 -3.215
27 FP2 222 -2.238
27 FP2 223 -2.726
27 FP2 224 -4.191
27 FP2 225 -5.656
27 FP2 226 -6.144
27 FP2 227 -6.144
27 FP2 228 -6.632
27 FP2 229 -6.632
27 FP2 230 -6.632
27 FP2 231 -5.656
27 FP2 232 -4.191
27 FP2 233 -2.726
27 FP2 234 -2.238
27 FP2 235 -3.215
27 FP2 236 -4.679
27 FP2 237 -6.632
27 FP2 238 -8.097
27 FP2 239 -9.074
27 FP2 240 -9.074
27 FP2 241 -8.097
27 FP2 242 -5.656
27 FP2 243 -2.238
27 FP2 244 0.692
27 FP2 245 2.157
27 FP2 246 1.668
27 FP2 247 0.203
27 FP2 248 -1.750
27 FP2 249 -2.726
27 FP2 250 -2.726
27 FP2 251 -2.238
27 FP2 252 -2.238
27 FP2 253 -2.238
27 FP2 254 -1.261
27 FP2 255 1.180
# F7 chan 2
27 F7 0 -8.718
27 F7 1 -7.253
27 F7 2 -7.253
27 F7 3 -7.253
27 F7 4 -6.276
27 F7 5 -3.835
27 F7 6 -0.417
27 F7 7 3.001
27 F7 8 6.419
27 F7 9 8.372
27 F7 10 8.372
27 F7 11 6.907
27 F7 12 2.513
27 F7 13 -2.858
27 F7 14 -8.230
27 F7 15 -12.624
27 F7 16 -14.089
27 F7 17 -13.601
27 F7 18 -12.136
27 F7 19 -11.159
27 F7 20 -10.671
27 F7 21 -9.694
27 F7 22 -7.741
27 F7 23 -3.835
27 F7 24 0.559
27 F7 25 4.954
27 F7 26 6.907
27 F7 27 8.372
27 F7 28 9.349
27 F7 29 10.813
27 F7 30 13.255
27 F7 31 14.720
27 F7 32 14.231
27 F7 33 12.278
27 F7 34 9.349
27 F7 35 6.907
27 F7 36 3.489
27 F7 37 1.048
27 F7 38 -1.394
27 F7 39 -2.858
27 F7 40 -1.882
27 F7 41 0.559
27 F7 42 4.466
27 F7 43 7.884
27 F7 44 7.884
27 F7 45 5.931
27 F7 46 2.024
27 F7 47 -0.905
27 F7 48 -2.370
27 F7 49 -1.394
27 F7 50 1.048
27 F7 51 2.513
27 F7 52 3.489
27 F7 53 3.489
27 F7 54 2.513
27 F7 55 2.513
27 F7 56 3.001
27 F7 57 4.954
27 F7 58 8.372
27 F7 59 11.302
27 F7 60 12.767
27 F7 61 12.278
27 F7 62 9.349
27 F7 63 3.977
27 F7 64 -2.370
27 F7 65 -7.741
27 F7 66 -11.648
27 F7 67 -12.136
27 F7 68 -10.183
27 F7 69 -7.253
27 F7 70 -3.347
27 F7 71 0.071
27 F7 72 2.513
27 F7 73 3.489
27 F7 74 4.466
27 F7 75 4.466
27 F7 76 3.489
27 F7 77 2.024
27 F7 78 0.559
27 F7 79 -0.417
27 F7 80 -0.417
27 F7 81 1.536
27 F7 82 3.489
27 F7 83 5.931
27 F7 84 6.419
27 F7 85 5.931
27 F7 86 4.954
27 F7 87 4.954
27 F7 88 5.442
27 F7 89 6.419
27 F7 90 6.907
27 F7 91 5.442
27 F7 92 2.024
27 F7 93 -2.370
27 F7 94 -5.788
27 F7 95 -6.276
27 F7 96 -3.835
27 F7 97 0.071
27 F7 98 3.001
27 F7 99 2.024
27 F7 100 -0.905
27 F7 101 -4.812
27 F7 102 -6.765
27 F7 103 -6.765
27 F7 104 -4.812
27 F7 105 -2.370
27 F7 106 -0.905
27 F7 107 -0.417
27 F7 108 0.559
27 F7 109 2.513
27 F7 110 4.954
27 F7 111 5.931
27 F7 112 5.931
27 F7 113 4.466
27 F7 114 3.489
27 F7 115 3.001
27 F7 116 3.001
27 F7 117 3.001
27 F7 118 2.024
27 F7 119 1.536
27 F7 120 1.048
27 F7 121 1.048
27 F7 122 1.048
27 F7 123 0.071
27 F7 124 -1.882
27 F7 125 -3.835
27 F7 126 -5.788
27 F7 127 -6.276
27 F7 128 -5.300
27 F7 129 -4.323
27 F7 130 -3.835
27 F7 131 -3.835
27 F7 132 -3.835
27 F7 133 -4.323
27 F7 134 -4.323
27 F7 135 -3.347
27 F7 136 -1.882
27 F7 137 -0.417
27 F7 138 1.536
27 F7 139 2.513
27 F7 140 3.489
27 F7 141 3.977
27 F7 142 4.466
27 F7 143 4.466
27 F7 144 4.466
27 F7 145 4.466
27 F7 146 4.466
27 F7 147 5.442
27 F7 148 5.931
27 F7 149 6.907
27 F7 150 5.931
27 F7 151 3.001
27 F7 152 -0.905
27 F7 153 -5.300
27 F7 154 -9.206
27 F7 155 -11.648
27 F7 156 -13.601
27 F7 157 -14.089
27 F7 158 -14.577
27 F7 159 -14.577
27 F7 160 -12.624
27 F7 161 -8.718
27 F7 162 -2.858
27 F7 163 4.466
27 F7 164 11.302
27 F7 165 15.208
27 F7 166 15.696
27 F7 167 12.278
27 F7 168 7.884
27 F7 169 3.489
27 F7 170 0.559
27 F7 171 -0.417
27 F7 172 -1.394
27 F7 173 -2.370
27 F7 174 -4.812
27 F7 175 -6.765
27 F7 176 -7.741
27 F7 177 -7.253
27 F7 178 -5.300
27 F7 179 -2.370
27 F7 180 -0.417
27 F7 181 1.048
27 F7 182 1.536
27 F7 183 0.559
27 F7 184 -0.417
27 F7 185 -1.394
27 F7 186 -2.370
27 F7 187 -3.347
27 F7 188 -2.858
27 F7 189 -1.882
27 F7 190 0.559
27 F7 191 3.977
27 F7 192 6.907
27 F7 193 7.884
27 F7 194 6.419
27 F7 195 3.001
27 F7 196 -0.905
27 F7 197 -3.347
27 F7 198 -4.323
27 F7 199 -3.347
27 F7 200 -2.858
27 F7 201 -4.323
27 F7 202 -7.253
27 F7 203 -10.183
27 F7 204 -12.136
27 F7 205 -11.648
27 F7 206 -9.206
27 F7 207 -6.276
27 F7 208 -3.835
27 F7 209 -2.370
27 F7 210 -0.417
27 F7 211 2.024
27 F7 212 5.442
27 F7 213 7.884
27 F7 214 8.372
27 F7 215 7.395
27 F7 216 5.931
27 F7 217 4.954
27 F7 218 5.931
27 F7 219 8.860
27 F7 220 11.302
27 F7 221 12.767
27 F7 222 11.790
27 F7 223 8.860
27 F7 224 3.977
27 F7 225 -0.905
27 F7 226 -4.323
27 F7 227 -5.788
27 F7 228 -5.300
27 F7 229 -4.323
27 F7 230 -3.835
27 F7 231 -2.858
27 F7 232 -1.882
27 F7 233 -0.417
27 F7 234 1.536
27 F7 235 4.466
27 F7 236 5.931
27 F7 237 5.931
27 F7 238 3.977
27 F7 239 2.024
27 F7 240 1.536
27 F7 241 3.489
27 F7 242 7.395
27 F7 243 11.790
27 F7 244 12.767
27 F7 245 10.325
27 F7 246 3.977
27 F7 247 -2.370
27 F7 248 -7.253
27 F7 249 -8.230
27 F7 250 -5.300
27 F7 251 -0.905
27 F7 252 4.466
27 F7 253 8.860
27 F7 254 13.255
27 F7 255 16.184
# F8 chan 3
27 F8 0 -3.459
27 F8 1 0.936
27 F8 2 3.377
27 F8 3 4.354
27 F8 4 3.866
27 F8 5 2.889
27 F8 6 2.401
27 F8 7 2.889
27 F8 8 5.330
27 F8 9 7.284
27 F8 10 8.260
27 F8 11 7.284
27 F8 12 3.377
27 F8 13 -1.506
27 F8 14 -5.900
27 F8 15 -7.853
27 F8 16 -6.877
27 F8 17 -3.947
27 F8 18 -1.506
27 F8 19 -1.017
27 F8 20 -2.482
27 F8 21 -4.435
27 F8 22 -5.900
27 F8 23 -4.435
27 F8 24 -1.506
27 F8 25 2.889
27 F8 26 6.795
27 F8 27 10.213
27 F8 28 12.655
27 F8 29 14.608
27 F8 30 16.561
27 F8 31 18.026
27 F8 32 17.537
27 F8 33 15.096
27 F8 34 11.678
27 F8 35 7.772
27 F8 36 4.354
27 F8 37 1.424
27 F8 38 -1.506
27 F8 39 -3.947
27 F8 40 -5.412
27 F8 41 -4.924
27 F8 42 -2.970
27 F8 43 -0.529
27 F8 44 0.936
27 F8 45 0.448
27 F8 46 -1.506
27 F8 47 -3.459
27 F8 48 -2.970
27 F8 49 -1.017
27 F8 50 3.377
27 F8 51 7.772
27 F8 52 11.678
27 F8 53 13.631
27 F8 54 13.143
27 F8 55 9.725
27 F8 56 3.866
27 F8 57 -2.482
27 F8 58 -5.900
27 F8 59 -5.412
27 F8 60 -1.994
27 F8 61 2.401
27 F8 62 3.866
27 F8 63 1.424
27 F8 64 -4.435
27 F8 65 -10.783
27 F8 66 -14.689
27 F8 67 -15.666
27 F8 68 -13.713
27 F8 69 -10.295
27 F8 70 -6.877
27 F8 71 -3.459
27 F8 72 -1.017
27 F8 73 1.424
27 F8 74 2.889
27 F8 75 3.866
27 F8 76 3.866
27 F8 77 3.377
27 F8 78 1.912
27 F8 79 -0.041
27 F8 80 -1.506
27 F8 81 -2.482
27 F8 82 -3.459
27 F8 83 -4.435
27 F8 84 -5.412
27 F8 85 -6.877
27 F8 86 -7.853
27 F8 87 -6.877
27 F8 88 -5.412
27 F8 89 -2.970
27 F8 90 -1.994
27 F8 91 -3.459
27 F8 92 -6.388
27 F8 93 -10.295
27 F8 94 -11.759
27 F8 95 -11.271
27 F8 96 -9.318
27 F8 97 -6.877
27 F8 98 -5.412
27 F8 99 -6.388
27 F8 100 -7.853
27 F8 101 -8.830
27 F8 102 -8.830
27 F8 103 -7.853
27 F8 104 -6.388
27 F8 105 -4.924
27 F8 106 -3.459
27 F8 107 -1.506
27 F8 108 0.448
27 F8 109 0.936
27 F8 110 -0.041
27 F8 111 -2.482
27 F8 112 -5.900
27 F8 113 -8.341
27 F8 114 -9.318
27 F8 115 -9.318
27 F8 116 -8.341
27 F8 117 -6.388
27 F8 118 -4.924
27 F8 119 -3.947
27 F8 120 -2.970
27 F8 121 -2.482
27 F8 122 -2.970
27 F8 123 -4.435
27 F8 124 -6.877
27 F8 125 -8.830
27 F8 126 -9.806
27 F8 127 -9.318
27 F8 128 -7.365
27 F8 129 -4.924
27 F8 130 -2.970
27 F8 131 -3.459
27 F8 132 -5.412
27 F8 133 -8.830
27 F8 134 -11.759
27 F8 135 -12.736
27 F8 136 -12.736
27 F8 137 -12.248
27 F8 138 -12.248
27 F8 139 -12.248
27 F8 140 -11.271
27 F8 141 -8.830
27 F8 142 -5.412
27 F8 143 -1.994
27 F8 144 0.936
27 F8 145 1.424
27 F8 146 1.424
27 F8 147 1.912
27 F8 148 2.889
27 F8 149 3.377
27 F8 150 2.889
27 F8 151 -0.529
27 F8 152 -6.388
27 F8 153 -12.736
27 F8 154 -18.107
27 F8 155 -21.525
27 F8 156 -21.037
27 F8 157 -19.572
27 F8 158 -17.619
27 F8 159 -15.666
27 F8 160 -14.201
27 F8 161 -11.271
27 F8 162 -6.388
27 F8 163 -0.041
27 F8 164 6.307
27 F8 165 10.701
27 F8 166 12.655
27 F8 167 11.678
27 F8 168 9.725
27 F8 169 7.772
27 F8 170 7.284
27 F8 171 6.795
27 F8 172 5.330
27 F8 173 1.912
27 F8 174 -2.482
27 F8 175 -6.388
27 F8 176 -7.853
27 F8 177 -4.924
27 F8 178 0.448
27 F8 179 6.307
27 F8 180 10.213
27 F8 181 10.701
27 F8 182 8.748
27 F8 183 5.819
27 F8 184 2.889
27 F8 185 1.912
27 F8 186 1.912
27 F8 187 3.377
27 F8 188 5.330
27 F8 189 7.772
27 F8 190 9.237
27 F8 191 9.725
27 F8 192 8.260
27 F8 193 5.819
27 F8 194 2.401
27 F8 195 -0.529
27 F8 196 -2.482
27 F8 197 -2.970
27 F8 198 -2.970
27 F8 199 -3.459
27 F8 200 -4.435
27 F8 201 -6.388
27 F8 202 -8.830
27 F8 203 -10.295
27 F8 204 -10.783
27 F8 205 -8.830
27 F8 206 -4.924
27 F8 207 0.448
27 F8 208 5.330
27 F8 209 8.748
27 F8 210 9.725
27 F8 211 8.260
27 F8 212 5.330
27 F8 213 1.912
27 F8 214 -1.506
27 F8 215 -5.900
27 F8 216 -10.295
27 F8 217 -13.224
27 F8 218 -14.201
27 F8 219 -11.271
27 F8 220 -6.877
27 F8 221 -1.994
27 F8 222 0.448
27 F8 223 0.448
27 F8 224 -1.017
27 F8 225 -2.482
27 F8 226 -3.459
27 F8 227 -3.947
27 F8 228 -4.435
27 F8 229 -4.924
27 F8 230 -4.924
27 F8 231 -4.435
27 F8 232 -2.970
27 F8 233 -1.017
27 F8 234 -0.041
27 F8 235 -0.529
27 F8 236 -1.994
27 F8 237 -3.947
27 F8 238 -5.412
27 F8 239 -7.853
27 F8 240 -8.830
27 F8 241 -9.318
27 F8 242 -7.853
27 F8 243 -3.947
27 F8 244 0.448
27 F8 245 3.866
27 F8 246 5.819
27 F8 247 5.330
27 F8 248 3.377
27 F8 249 0.936
27 F8 250 -1.506
27 F8 251 -2.970
27 F8 252 -3.947
27 F8 253 -3.459
27 F8 254 -1.017
27 F8 255 2.889
# AF1 chan 4
27 AF1 0 -1.648
27 AF1 1 1.770
27 AF1 2 4.700
27 AF1 3 5.676
27 AF1 4 6.165
27 AF1 5 6.653
27 AF1 6 8.118
27 AF1 7 10.559
27 AF1 8 13.489
27 AF1 9 15.442
27 AF1 10 16.418
27 AF1 11 15.442
27 AF1 12 13.489
27 AF1 13 10.071
27 AF1 14 6.653
27 AF1 15 4.211
27 AF1 16 2.747
27 AF1 17 3.235
27 AF1 18 3.723
27 AF1 19 3.235
27 AF1 20 3.235
27 AF1 21 3.723
27 AF1 22 5.676
27 AF1 23 8.606
27 AF1 24 12.024
27 AF1 25 13.489
27 AF1 26 13.000
27 AF1 27 12.024
27 AF1 28 12.024
27 AF1 29 13.489
27 AF1 30 16.418
27 AF1 31 18.860
27 AF1 32 19.348
27 AF1 33 17.883
27 AF1 34 14.954
27 AF1 35 12.024
27 AF1 36 10.071
27 AF1 37 8.118
27 AF1 38 6.653
27 AF1 39 6.165
27 AF1 40 6.653
27 AF1 41 8.606
27 AF1 42 10.559
27 AF1 43 12.512
27 AF1 44 12.512
27 AF1 45 11.047
27 AF1 46 9.583
27 AF1 47 8.606
27 AF1 48 9.094
27 AF1 49 10.071
27 AF1 50 11.047
27 AF1 51 12.024
27 AF1 52 12.512
27 AF1 53 13.000
27 AF1 54 12.024
27 AF1 55 9.094
27 AF1 56 5.676
27 AF1 57 1.770
27 AF1 58 -0.183
27 AF1 59 0.793
27 AF1 60 3.235
27 AF1 61 5.676
27 AF1 62 5.188
27 AF1 63 1.770
27 AF1 64 -4.578
27 AF1 65 -10.925
27 AF1 66 -15.808
27 AF1 67 -18.250
27 AF1 68 -17.761
27 AF1 69 -14.832
27 AF1 70 -10.437
27 AF1 71 -6.042
27 AF1 72 -3.113
27 AF1 73 -2.136
27 AF1 74 -3.113
27 AF1 75 -5.554
27 AF1 76 -7.507
27 AF1 77 -8.972
27 AF1 78 -8.972
27 AF1 79 -7.996
27 AF1 80 -6.531
27 AF1 81 -5.066
27 AF1 82 -4.578
27 AF1 83 -4.089
27 AF1 84 -4.578
27 AF1 85 -6.042
27 AF1 86 -6.531
27 AF1 87 -6.042
27 AF1 88 -5.066
27 AF1 89 -2.625
27 AF1 90 -1.160
27 AF1 91 -1.648
27 AF1 92 -4.089
27 AF1 93 -7.507
27 AF1 94 -10.437
27 AF1 95 -11.902
27 AF1 96 -10.925
27 AF1 97 -9.460
27 AF1 98 -8.972
27 AF1 99 -10.437
27 AF1 100 -12.878
27 AF1 101 -15.808
27 AF1 102 -17.273
27 AF1 103 -17.273
27 AF1 104 -16.296
27 AF1 105 -15.320
27 AF1 106 -13.855
27 AF1 107 -13.367
27 AF1 108 -13.367
27 AF1 109 -14.832
27 AF1 110 -15.808
27 AF1 111 -17.273
27 AF1 112 -17.761
27 AF1 113 -17.273
27 AF1 114 -15.808
27 AF1 115 -14.343
27 AF1 116 -14.343
27 AF1 117 -14.832
27 AF1 118 -16.296
27 AF1 119 -17.761
27 AF1 120 -18.250
27 AF1 121 -17.761
27 AF1 122 -16.785
27 AF1 123 -15.808
27 AF1 124 -15.808
27 AF1 125 -16.785
27 AF1 126 -18.250
27 AF1 127 -19.226
27 AF1 128 -19.226
27 AF1 129 -18.738
27 AF1 130 -17.273
27 AF1 131 -15.808
27 AF1 132 -15.808
27 AF1 133 -17.761
27 AF1 134 -20.203
27 AF1 135 -22.156
27 AF1 136 -22.156
27 AF1 137 -21.179
27 AF1 138 -19.714
27 AF1 139 -18.738
27 AF1 140 -19.226
27 AF1 141 -19.714
27 AF1 142 -20.691
27 AF1 143 -20.691
27 AF1 144 -20.203
27 AF1 145 -19.226
27 AF1 146 -18.250
27 AF1 147 -16.785
27 AF1 148 -16.296
27 AF1 149 -15.808
27 AF1 150 -16.785
27 AF1 151 -18.250
27 AF1 152 -21.179
27 AF1 153 -24.597
27 AF1 154 -28.015
27 AF1 155 -31.433
27 AF1 156 -33.386
27 AF1 157 -34.363
27 AF1 158 -34.363
27 AF1 159 -33.386
27 AF1 160 -31.433
27 AF1 161 -27.527
27 AF1 162 -21.667
27 AF1 163 -15.320
27 AF1 164 -9.949
27 AF1 165 -7.019
27 AF1 166 -7.996
27 AF1 167 -11.414
27 AF1 168 -14.832
27 AF1 169 -16.296
27 AF1 170 -15.320
27 AF1 171 -13.855
27 AF1 172 -12.878
27 AF1 173 -13.367
27 AF1 174 -15.808
27 AF1 175 -19.714
27 AF1 176 -22.156
27 AF1 177 -23.621
27 AF1 178 -23.132
27 AF1 179 -21.667
27 AF1 180 -19.714
27 AF1 181 -19.226
27 AF1 182 -19.714
27 AF1 183 -21.179
27 AF1 184 -22.644
27 AF1 185 -23.621
27 AF1 186 -23.132
27 AF1 187 -21.667
27 AF1 188 -18.738
27 AF1 189 -15.320
27 AF1 190 -12.390
27 AF1 191 -9.949
27 AF1 192 -9.949
27 AF1 193 -10.925
27 AF1 194 -12.878
27 AF1 195 -14.832
27 AF1 196 -15.808
27 AF1 197 -16.296
27 AF1 198 -16.296
27 AF1 199 -17.273
27 AF1 200 -18.250
27 AF1 201 -20.691
27 AF1 202 -23.621
27 AF1 203 -25.574
27 AF1 204 -25.574
27 AF1 205 -22.156
27 AF1 206 -16.785
27 AF1 207 -10.925
27 AF1 208 -6.042
27 AF1 209 -5.066
27 AF1 210 -7.019
27 AF1 211 -10.437
27 AF1 212 -12.878
27 AF1 213 -14.343
27 AF1 214 -15.320
27 AF1 215 -16.296
27 AF1 216 -18.738
27 AF1 217 -20.691
27 AF1 218 -21.667
27 AF1 219 -20.203
27 AF1 220 -18.250
27 AF1 221 -16.785
27 AF1 222 -16.785
27 AF1 223 -18.250
27 AF1 224 -20.203
27 AF1 225 -21.667
27 AF1 226 -21.667
27 AF1 227 -21.667
27 AF1 228 -22.156
27 AF1 229 -22.644
27 AF1 230 -23.621
27 AF1 231 -23.621
27 AF1 232 -23.621
27 AF1 233 -23.132
27 AF1 234 -22.644
27 AF1 235 -23.132
27 AF1 236 -24.597
27 AF1 237 -26.062
27 AF1 238 -27.527
27 AF1 239 -27.527
27 AF1 240 -25.574
27 AF1 241 -22.644
27 AF1 242 -18.250
27 AF1 243 -14.343
27 AF1 244 -12.878
27 AF1 245 -14.343
27 AF1 246 -17.761
27 AF1 247 -21.179
27 AF1 248 -23.132
27 AF1 249 -23.132
27 AF1 250 -21.667
27 AF1 251 -20.691
27 AF1 252 -21.179
27 AF1 253 -22.644
27 AF1 254 -23.132
27 AF1 255 -21.667
# AF2 chan 5
27 AF2 0 -1.302
27 AF2 1 1.139
27 AF2 2 1.628
27 AF2 3 1.628
27 AF2 4 2.116
27 AF2 5 3.092
27 AF2 6 4.557
27 AF2 7 6.510
27 AF2 8 8.464
27 AF2 9 9.440
27 AF2 10 9.928
27 AF2 11 7.975
27 AF2 12 4.069
27 AF2 13 -0.814
27 AF2 14 -4.720
27 AF2 15 -6.185
27 AF2 16 -5.697
27 AF2 17 -3.743
27 AF2 18 -2.279
27 AF2 19 -2.279
27 AF2 20 -3.255
27 AF2 21 -4.232
27 AF2 22 -2.767
27 AF2 23 -0.326
27 AF2 24 3.581
27 AF2 25 6.510
27 AF2 26 7.975
27 AF2 27 8.952
27 AF2 28 10.417
27 AF2 29 12.370
27 AF2 30 14.323
27 AF2 31 14.811
27 AF2 32 13.835
27 AF2 33 11.393
27 AF2 34 8.464
27 AF2 35 6.510
27 AF2 36 5.046
27 AF2 37 3.092
27 AF2 38 1.628
27 AF2 39 -0.326
27 AF2 40 -0.814
27 AF2 41 0.651
27 AF2 42 3.092
27 AF2 43 6.022
27 AF2 44 7.487
27 AF2 45 7.487
27 AF2 46 6.999
27 AF2 47 6.510
27 AF2 48 6.999
27 AF2 49 8.464
27 AF2 50 9.440
27 AF2 51 10.417
27 AF2 52 10.905
27 AF2 53 11.882
27 AF2 54 10.905
27 AF2 55 8.464
27 AF2 56 4.557
27 AF2 57 1.139
27 AF2 58 -0.814
27 AF2 59 0.163
27 AF2 60 3.581
27 AF2 61 7.487
27 AF2 62 8.952
27 AF2 63 6.999
27 AF2 64 2.116
27 AF2 65 -3.255
27 AF2 66 -7.161
27 AF2 67 -9.115
27 AF2 68 -8.138
27 AF2 69 -4.720
27 AF2 70 -0.814
27 AF2 71 3.581
27 AF2 72 7.487
27 AF2 73 9.440
27 AF2 74 9.440
27 AF2 75 7.975
27 AF2 76 6.022
27 AF2 77 4.069
27 AF2 78 3.092
27 AF2 79 2.604
27 AF2 80 2.604
27 AF2 81 1.628
27 AF2 82 0.651
27 AF2 83 -0.326
27 AF2 84 -1.302
27 AF2 85 -2.279
27 AF2 86 -2.279
27 AF2 87 -0.814
27 AF2 88 0.651
27 AF2 89 2.604
27 AF2 90 3.092
27 AF2 91 1.628
27 AF2 92 -1.302
27 AF2 93 -4.232
27 AF2 94 -5.697
27 AF2 95 -5.697
27 AF2 96 -4.720
27 AF2 97 -3.743
27 AF2 98 -3.743
27 AF2 99 -4.232
27 AF2 100 -5.208
27 AF2 101 -6.185
27 AF2 102 -6.185
27 AF2 103 -5.697
27 AF2 104 -4.720
27 AF2 105 -3.255
27 AF2 106 -1.790
27 AF2 107 -0.326
27 AF2 108 1.139
27 AF2 109 0.651
27 AF2 110 -0.326
27 AF2 111 -2.767
27 AF2 112 -4.720
27 AF2 113 -6.185
27 AF2 114 -6.185
27 AF2 115 -5.208
27 AF2 116 -3.743
27 AF2 117 -2.767
27 AF2 118 -2.767
27 AF2 119 -3.255
27 AF2 120 -3.255
27 AF2 121 -2.767
27 AF2 122 -1.790
27 AF2 123 -1.302
27 AF2 124 -1.790
27 AF2 125 -3.743
27 AF2 126 -5.697
27 AF2 127 -7.161
27 AF2 128 -6.185
27 AF2 129 -3.743
27 AF2 130 -0.814
27 AF2 131 0.163
27 AF2 132 -0.814
27 AF2 133 -3.743
27 AF2 134 -7.650
27 AF2 135 -9.603
27 AF2 136 -9.603
27 AF2 137 -8.138
27 AF2 138 -6.185
27 AF2 139 -4.232
27 AF2 140 -2.767
27 AF2 141 -1.790
27 AF2 142 -0.814
27 AF2 143 -0.326
27 AF2 144 -0.326
27 AF2 145 -0.326
27 AF2 146 -0.326
27 AF2 147 0.163
27 AF2 148 1.139
27 AF2 149 2.116
27 AF2 150 1.628
27 AF2 151 -0.326
27 AF2 152 -4.232
27 AF2 153 -9.115
27 AF2 154 -13.997
27 AF2 155 -17.904
27 AF2 156 -18.880
27 AF2 157 -18.880
27 AF2 158 -17.904
27 AF2 159 -15.951
27 AF2 160 -13.509
27 AF2 161 -10.091
27 AF2 162 -4.720
27 AF2 163 1.139
27 AF2 164 6.510
27 AF2 165 9.440
27 AF2 166 9.440
27 AF2 167 6.999
27 AF2 168 3.581
27 AF2 169 1.139
27 AF2 170 0.651
27 AF2 171 0.651
27 AF2 172 1.139
27 AF2 173 -0.326
27 AF2 174 -3.255
27 AF2 175 -5.697
27 AF2 176 -7.161
27 AF2 177 -5.208
27 AF2 178 -1.790
27 AF2 179 2.604
27 AF2 180 5.534
27 AF2 181 6.510
27 AF2 182 5.534
27 AF2 183 3.581
27 AF2 184 2.116
27 AF2 185 1.139
27 AF2 186 0.651
27 AF2 187 1.628
27 AF2 188 2.604
27 AF2 189 4.557
27 AF2 190 6.510
27 AF2 191 7.487
27 AF2 192 6.510
27 AF2 193 5.046
27 AF2 194 3.092
27 AF2 195 1.139
27 AF2 196 -0.326
27 AF2 197 -0.814
27 AF2 198 -1.302
27 AF2 199 -2.279
27 AF2 200 -3.743
27 AF2 201 -5.697
27 AF2 202 -7.650
27 AF2 203 -8.626
27 AF2 204 -8.626
27 AF2 205 -6.185
27 AF2 206 -2.279
27 AF2 207 3.092
27 AF2 208 6.999
27 AF2 209 9.440
27 AF2 210 8.952
27 AF2 211 6.510
27 AF2 212 4.069
27 AF2 213 2.116
27 AF2 214 0.163
27 AF2 215 -2.279
27 AF2 216 -4.232
27 AF2 217 -6.185
27 AF2 218 -6.673
27 AF2 219 -5.208
27 AF2 220 -3.255
27 AF2 221 -0.814
27 AF2 222 -0.326
27 AF2 223 -0.814
27 AF2 224 -2.279
27 AF2 225 -3.255
27 AF2 226 -3.255
27 AF2 227 -3.255
27 AF2 228 -3.255
27 AF2 229 -3.255
27 AF2 230 -3.743
27 AF2 231 -3.255
27 AF2 232 -2.279
27 AF2 233 -1.302
27 AF2 234 -0.814
27 AF2 235 -0.814
27 AF2 236 -1.790
27 AF2 237 -3.255
27 AF2 238 -5.208
27 AF2 239 -6.185
27 AF2 240 -6.185
27 AF2 241 -4.720
27 AF2 242 -2.279
27 AF2 243 1.139
27 AF2 244 3.581
27 AF2 245 4.557
27 AF2 246 3.581
27 AF2 247 2.116
27 AF2 248 0.651
27 AF2 249 0.163
27 AF2 250 0.163
27 AF2 251 0.651
27 AF2 252 1.139
27 AF2 253 1.628
27 AF2 254 3.092
27 AF2 255 5.046
# FZ chan 6
27 FZ 0 4.395
27 FZ 1 8.301
27 FZ 2 8.789
27 FZ 3 7.324
27 FZ 4 4.395
27 FZ 5 2.441
27 FZ 6 2.930
27 FZ 7 5.371
27 FZ 8 9.766
27 FZ 9 13.184
27 FZ 10 14.648
27 FZ 11 13.672
27 FZ 12 11.719
27 FZ 13 8.789
27 FZ 14 6.348
27 FZ 15 3.906
27 FZ 16 2.441
27 FZ 17 2.441
27 FZ 18 2.930
27 FZ 19 4.395
27 FZ 20 4.883
27 FZ 21 4.883
27 FZ 22 4.395
27 FZ 23 5.371
27 FZ 24 7.324
27 FZ 25 9.766
27 FZ 26 11.719
27 FZ 27 12.207
27 FZ 28 11.230
27 FZ 29 10.254
27 FZ 30 9.766
27 FZ 31 10.254
27 FZ 32 10.254
27 FZ 33 9.766
27 FZ 34 8.301
27 FZ 35 5.859
27 FZ 36 3.906
27 FZ 37 2.441
27 FZ 38 1.953
27 FZ 39 0.977
27 FZ 40 0.488
27 FZ 41 0.488
27 FZ 42 1.953
27 FZ 43 4.395
27 FZ 44 7.324
27 FZ 45 8.789
27 FZ 46 9.277
27 FZ 47 7.812
27 FZ 48 6.348
27 FZ 49 5.371
27 FZ 50 5.371
27 FZ 51 5.859
27 FZ 52 6.348
27 FZ 53 6.836
27 FZ 54 5.859
27 FZ 55 4.395
27 FZ 56 1.953
27 FZ 57 -0.488
27 FZ 58 -1.953
27 FZ 59 -1.465
27 FZ 60 0.488
27 FZ 61 2.930
27 FZ 62 4.883
27 FZ 63 4.395
27 FZ 64 0.977
27 FZ 65 -3.906
27 FZ 66 -8.789
27 FZ 67 -12.695
27 FZ 68 -14.160
27 FZ 69 -12.695
27 FZ 70 -9.766
27 FZ 71 -6.348
27 FZ 72 -3.906
27 FZ 73 -2.441
27 FZ 74 -2.441
27 FZ 75 -3.906
27 FZ 76 -4.883
27 FZ 77 -5.371
27 FZ 78 -5.371
27 FZ 79 -5.859
27 FZ 80 -6.348
27 FZ 81 -6.836
27 FZ 82 -7.812
27 FZ 83 -8.301
27 FZ 84 -9.277
27 FZ 85 -11.230
27 FZ 86 -12.207
27 FZ 87 -13.184
27 FZ 88 -12.695
27 FZ 89 -11.719
27 FZ 90 -11.230
27 FZ 91 -11.719
27 FZ 92 -13.184
27 FZ 93 -15.137
27 FZ 94 -17.090
27 FZ 95 -18.066
27 FZ 96 -18.555
27 FZ 97 -18.555
27 FZ 98 -19.043
27 FZ 99 -20.020
27 FZ 100 -20.996
27 FZ 101 -22.949
27 FZ 102 -24.414
27 FZ 103 -25.391
27 FZ 104 -24.414
27 FZ 105 -22.461
27 FZ 106 -20.020
27 FZ 107 -18.066
27 FZ 108 -16.602
27 FZ 109 -17.090
27 FZ 110 -19.043
27 FZ 111 -21.484
27 FZ 112 -23.926
27 FZ 113 -24.902
27 FZ 114 -24.414
27 FZ 115 -23.438
27 FZ 116 -22.949
27 FZ 117 -23.438
27 FZ 118 -24.414
27 FZ 119 -24.902
27 FZ 120 -24.414
27 FZ 121 -22.949
27 FZ 122 -21.484
27 FZ 123 -20.996
27 FZ 124 -21.484
27 FZ 125 -22.949
27 FZ 126 -24.414
27 FZ 127 -25.391
27 FZ 128 -25.391
27 FZ 129 -23.926
27 FZ 130 -21.973
27 FZ 131 -20.020
27 FZ 132 -19.531
27 FZ 133 -20.996
27 FZ 134 -23.438
27 FZ 135 -25.879
27 FZ 136 -26.367
27 FZ 137 -25.391
27 FZ 138 -23.438
27 FZ 139 -21.484
27 FZ 140 -20.996
27 FZ 141 -21.973
27 FZ 142 -22.461
27 FZ 143 -21.973
27 FZ 144 -20.996
27 FZ 145 -19.531
27 FZ 146 -17.578
27 FZ 147 -15.625
27 FZ 148 -14.160
27 FZ 149 -13.184
27 FZ 150 -13.184
27 FZ 151 -14.160
27 FZ 152 -17.090
27 FZ 153 -21.484
27 FZ 154 -25.879
27 FZ 155 -29.785
27 FZ 156 -31.738
27 FZ 157 -32.227
27 FZ 158 -31.738
27 FZ 159 -30.762
27 FZ 160 -28.809
27 FZ 161 -25.391
27 FZ 162 -20.020
27 FZ 163 -14.160
27 FZ 164 -8.301
27 FZ 165 -4.883
27 FZ 166 -4.395
27 FZ 167 -6.348
27 FZ 168 -9.766
27 FZ 169 -12.695
27 FZ 170 -15.137
27 FZ 171 -16.113
27 FZ 172 -17.090
27 FZ 173 -18.066
27 FZ 174 -19.531
27 FZ 175 -21.484
27 FZ 176 -21.973
27 FZ 177 -21.484
27 FZ 178 -20.020
27 FZ 179 -18.066
27 FZ 180 -16.113
27 FZ 181 -15.625
27 FZ 182 -16.113
27 FZ 183 -17.090
27 FZ 184 -18.066
27 FZ 185 -18.066
27 FZ 186 -17.090
27 FZ 187 -16.113
27 FZ 188 -15.625
27 FZ 189 -15.137
27 FZ 190 -15.625
27 FZ 191 -15.625
27 FZ 192 -15.625
27 FZ 193 -15.625
27 FZ 194 -16.602
27 FZ 195 -18.066
27 FZ 196 -20.020
27 FZ 197 -21.973
27 FZ 198 -22.949
27 FZ 199 -22.949
27 FZ 200 -21.973
27 FZ 201 -20.508
27 FZ 202 -20.020
27 FZ 203 -20.020
27 FZ 204 -20.508
27 FZ 205 -19.043
27 FZ 206 -16.602
27 FZ 207 -13.184
27 FZ 208 -10.254
27 FZ 209 -9.277
27 FZ 210 -10.254
27 FZ 211 -12.207
27 FZ 212 -14.648
27 FZ 213 -17.090
27 FZ 214 -19.043
27 FZ 215 -20.996
27 FZ 216 -21.973
27 FZ 217 -21.484
27 FZ 218 -20.020
27 FZ 219 -18.066
27 FZ 220 -17.578
27 FZ 221 -18.066
27 FZ 222 -19.531
27 FZ 223 -20.508
27 FZ 224 -19.531
27 FZ 225 -17.578
27 FZ 226 -16.602
27 FZ 227 -16.602
27 FZ 228 -18.555
27 FZ 229 -20.020
27 FZ 230 -20.508
27 FZ 231 -19.043
27 FZ 232 -17.090
27 FZ 233 -16.113
27 FZ 234 -17.090
27 FZ 235 -18.555
27 FZ 236 -19.531
27 FZ 237 -20.020
27 FZ 238 -20.020
27 FZ 239 -20.020
27 FZ 240 -19.531
27 FZ 241 -19.043
27 FZ 242 -17.578
27 FZ 243 -16.113
27 FZ 244 -15.137
27 FZ 245 -14.648
27 FZ 246 -14.648
27 FZ 247 -14.648
27 FZ 248 -14.648
27 FZ 249 -15.137
27 FZ 250 -16.113
27 FZ 251 -17.090
27 FZ 252 -17.090
27 FZ 253 -15.625
27 FZ 254 -12.695
27 FZ 255 -9.766
# F4 chan 7
27 F4 0 -5.686
27 F4 1 -2.757
27 F4 2 -1.780
27 F4 3 -1.292
27 F4 4 -1.780
27 F4 5 -1.780
27 F4 6 -1.292
27 F4 7 -0.804
27 F4 8 0.173
27 F4 9 1.149
27 F4 10 2.614
27 F4 11 3.103
27 F4 12 2.126
27 F4 13 0.661
27 F4 14 -2.757
27 F4 15 -5.686
27 F4 16 -7.640
27 F4 17 -7.640
27 F4 18 -5.686
27 F4 19 -4.222
27 F4 20 -3.733
27 F4 21 -5.198
27 F4 22 -6.663
27 F4 23 -7.640
27 F4 24 -6.663
27 F4 25 -4.710
27 F4 26 -1.780
27 F4 27 -0.315
27 F4 28 1.149
27 F4 29 2.126
27 F4 30 3.103
27 F4 31 3.591
27 F4 32 3.103
27 F4 33 2.126
27 F4 34 1.638
27 F4 35 0.661
27 F4 36 0.173
27 F4 37 -0.315
27 F4 38 -1.780
27 F4 39 -4.222
27 F4 40 -7.151
27 F4 41 -8.616
27 F4 42 -8.616
27 F4 43 -7.151
27 F4 44 -5.198
27 F4 45 -3.733
27 F4 46 -2.757
27 F4 47 -2.757
27 F4 48 -2.757
27 F4 49 -2.757
27 F4 50 -1.292
27 F4 51 -0.315
27 F4 52 1.638
27 F4 53 3.103
27 F4 54 3.591
27 F4 55 2.126
27 F4 56 -1.292
27 F4 57 -5.686
27 F4 58 -9.104
27 F4 59 -9.593
27 F4 60 -7.151
27 F4 61 -3.733
27 F4 62 -1.292
27 F4 63 -0.804
27 F4 64 -3.245
27 F4 65 -6.663
27 F4 66 -10.569
27 F4 67 -13.011
27 F4 68 -14.476
27 F4 69 -14.476
27 F4 70 -13.011
27 F4 71 -10.081
27 F4 72 -6.663
27 F4 73 -2.757
27 F4 74 -0.315
27 F4 75 -0.315
27 F4 76 -0.315
27 F4 77 -0.804
27 F4 78 -0.804
27 F4 79 -0.804
27 F4 80 -0.804
27 F4 81 -1.780
27 F4 82 -3.733
27 F4 83 -6.175
27 F4 84 -8.128
27 F4 85 -10.081
27 F4 86 -11.058
27 F4 87 -12.034
27 F4 88 -11.546
27 F4 89 -9.593
27 F4 90 -7.640
27 F4 91 -6.663
27 F4 92 -6.175
27 F4 93 -7.640
27 F4 94 -9.593
27 F4 95 -10.569
27 F4 96 -10.569
27 F4 97 -9.593
27 F4 98 -8.616
27 F4 99 -8.616
27 F4 100 -8.616
27 F4 101 -9.593
27 F4 102 -9.593
27 F4 103 -9.593
27 F4 104 -9.104
27 F4 105 -9.104
27 F4 106 -8.616
27 F4 107 -7.151
27 F4 108 -6.175
27 F4 109 -5.686
27 F4 110 -5.198
27 F4 111 -6.175
27 F4 112 -7.151
27 F4 113 -8.616
27 F4 114 -9.593
27 F4 115 -10.081
27 F4 116 -10.081
27 F4 117 -10.081
27 F4 118 -10.081
27 F4 119 -10.081
27 F4 120 -9.593
27 F4 121 -9.104
27 F4 122 -8.616
27 F4 123 -8.128
27 F4 124 -8.616
27 F4 125 -9.593
27 F4 126 -11.058
27 F4 127 -11.546
27 F4 128 -12.034
27 F4 129 -12.034
27 F4 130 -11.058
27 F4 131 -10.569
27 F4 132 -10.081
27 F4 133 -10.569
27 F4 134 -11.546
27 F4 135 -13.011
27 F4 136 -13.987
27 F4 137 -13.987
27 F4 138 -13.499
27 F4 139 -13.011
27 F4 140 -12.522
27 F4 141 -11.546
27 F4 142 -10.081
27 F4 143 -9.104
27 F4 144 -8.128
27 F4 145 -8.128
27 F4 146 -9.104
27 F4 147 -9.593
27 F4 148 -9.593
27 F4 149 -8.616
27 F4 150 -7.151
27 F4 151 -6.663
27 F4 152 -8.128
27 F4 153 -11.546
27 F4 154 -16.429
27 F4 155 -21.311
27 F4 156 -24.729
27 F4 157 -26.194
27 F4 158 -27.171
27 F4 159 -26.683
27 F4 160 -25.218
27 F4 161 -23.753
27 F4 162 -21.311
27 F4 163 -17.893
27 F4 164 -13.987
27 F4 165 -9.104
27 F4 166 -5.686
27 F4 167 -3.733
27 F4 168 -4.222
27 F4 169 -5.686
27 F4 170 -8.616
27 F4 171 -10.081
27 F4 172 -11.058
27 F4 173 -12.034
27 F4 174 -13.499
27 F4 175 -15.452
27 F4 176 -17.405
27 F4 177 -17.893
27 F4 178 -16.429
27 F4 179 -13.499
27 F4 180 -10.569
27 F4 181 -9.104
27 F4 182 -9.593
27 F4 183 -11.058
27 F4 184 -12.034
27 F4 185 -13.011
27 F4 186 -12.522
27 F4 187 -12.034
27 F4 188 -11.058
27 F4 189 -10.081
27 F4 190 -9.593
27 F4 191 -8.616
27 F4 192 -8.128
27 F4 193 -9.104
27 F4 194 -10.569
27 F4 195 -12.034
27 F4 196 -13.499
27 F4 197 -14.476
27 F4 198 -15.452
27 F4 199 -15.940
27 F4 200 -16.917
27 F4 201 -17.405
27 F4 202 -17.893
27 F4 203 -17.893
27 F4 204 -17.405
27 F4 205 -15.452
27 F4 206 -13.011
27 F4 207 -9.104
27 F4 208 -5.198
27 F4 209 -2.268
27 F4 210 -1.292
27 F4 211 -3.245
27 F4 212 -6.175
27 F4 213 -10.569
27 F4 214 -13.987
27 F4 215 -16.917
27 F4 216 -19.358
27 F4 217 -20.823
27 F4 218 -21.800
27 F4 219 -21.800
27 F4 220 -20.823
27 F4 221 -19.847
27 F4 222 -19.847
27 F4 223 -19.847
27 F4 224 -20.823
27 F4 225 -21.800
27 F4 226 -21.800
27 F4 227 -21.311
27 F4 228 -21.311
27 F4 229 -21.800
27 F4 230 -22.776
27 F4 231 -23.753
27 F4 232 -23.753
27 F4 233 -23.265
27 F4 234 -21.800
27 F4 235 -20.823
27 F4 236 -20.823
27 F4 237 -21.311
27 F4 238 -22.288
27 F4 239 -22.776
27 F4 240 -22.288
27 F4 241 -20.823
27 F4 242 -18.870
27 F4 243 -16.917
27 F4 244 -14.964
27 F4 245 -13.987
27 F4 246 -13.011
27 F4 247 -12.522
27 F4 248 -12.034
27 F4 249 -12.522
27 F4 250 -13.011
27 F4 251 -14.476
27 F4 252 -15.940
27 F4 253 -16.917
27 F4 254 -16.429
27 F4 255 -14.964
# F3 chan 8
27 F3 0 -2.818
27 F3 1 -1.353
27 F3 2 -1.353
27 F3 3 -1.353
27 F3 4 -0.865
27 F3 5 0.600
27 F3 6 3.530
27 F3 7 6.460
27 F3 8 9.878
27 F3 9 12.319
27 F3 10 13.295
27 F3 11 11.342
27 F3 12 6.948
27 F3 13 2.065
27 F3 14 -2.330
27 F3 15 -4.771
27 F3 16 -5.259
27 F3 17 -4.771
27 F3 18 -4.771
27 F3 19 -5.747
27 F3 20 -6.724
27 F3 21 -6.236
27 F3 22 -3.306
27 F3 23 0.600
27 F3 24 4.506
27 F3 25 6.948
27 F3 26 7.924
27 F3 27 7.436
27 F3 28 7.436
27 F3 29 8.901
27 F3 30 9.878
27 F3 31 9.878
27 F3 32 8.413
27 F3 33 6.460
27 F3 34 4.506
27 F3 35 3.530
27 F3 36 2.553
27 F3 37 1.088
27 F3 38 0.112
27 F3 39 -0.865
27 F3 40 -0.376
27 F3 41 1.577
27 F3 42 4.995
27 F3 43 7.436
27 F3 44 8.413
27 F3 45 7.436
27 F3 46 5.971
27 F3 47 5.483
27 F3 48 5.483
27 F3 49 6.460
27 F3 50 7.436
27 F3 51 7.436
27 F3 52 7.436
27 F3 53 6.460
27 F3 54 5.483
27 F3 55 4.506
27 F3 56 4.018
27 F3 57 4.018
27 F3 58 4.995
27 F3 59 6.460
27 F3 60 8.413
27 F3 61 8.413
27 F3 62 7.436
27 F3 63 4.506
27 F3 64 0.600
27 F3 65 -3.306
27 F3 66 -6.724
27 F3 67 -7.701
27 F3 68 -7.212
27 F3 69 -3.794
27 F3 70 0.112
27 F3 71 4.506
27 F3 72 7.436
27 F3 73 8.901
27 F3 74 7.924
27 F3 75 5.971
27 F3 76 4.018
27 F3 77 3.042
27 F3 78 3.042
27 F3 79 3.042
27 F3 80 3.530
27 F3 81 3.042
27 F3 82 2.553
27 F3 83 2.065
27 F3 84 1.577
27 F3 85 1.088
27 F3 86 1.577
27 F3 87 2.553
27 F3 88 3.530
27 F3 89 4.506
27 F3 90 4.506
27 F3 91 3.042
27 F3 92 0.112
27 F3 93 -2.330
27 F3 94 -4.283
27 F3 95 -4.771
27 F3 96 -3.794
27 F3 97 -1.841
27 F3 98 -0.865
27 F3 99 -0.865
27 F3 100 -1.841
27 F3 101 -3.306
27 F3 102 -4.283
27 F3 103 -4.283
27 F3 104 -3.306
27 F3 105 -2.330
27 F3 106 -0.865
27 F3 107 0.112
27 F3 108 1.577
27 F3 109 3.042
27 F3 110 2.553
27 F3 111 1.577
27 F3 112 -0.376
27 F3 113 -1.841
27 F3 114 -2.330
27 F3 115 -1.841
27 F3 116 -1.353
27 F3 117 -0.376
27 F3 118 -0.376
27 F3 119 -0.865
27 F3 120 -0.865
27 F3 121 -0.376
27 F3 122 0.600
27 F3 123 1.088
27 F3 124 1.088
27 F3 125 -0.376
27 F3 126 -1.841
27 F3 127 -2.818
27 F3 128 -3.306
27 F3 129 -2.330
27 F3 130 -1.353
27 F3 131 -0.376
27 F3 132 -0.865
27 F3 133 -1.841
27 F3 134 -3.794
27 F3 135 -5.259
27 F3 136 -5.259
27 F3 137 -3.794
27 F3 138 -1.353
27 F3 139 0.600
27 F3 140 2.065
27 F3 141 2.065
27 F3 142 1.088
27 F3 143 0.112
27 F3 144 -0.865
27 F3 145 -0.376
27 F3 146 0.600
27 F3 147 2.065
27 F3 148 3.530
27 F3 149 4.018
27 F3 150 3.530
27 F3 151 1.577
27 F3 152 -1.841
27 F3 153 -5.747
27 F3 154 -9.654
27 F3 155 -12.583
27 F3 156 -14.537
27 F3 157 -15.025
27 F3 158 -14.537
27 F3 159 -13.072
27 F3 160 -10.142
27 F3 161 -6.236
27 F3 162 -0.865
27 F3 163 4.018
27 F3 164 7.436
27 F3 165 7.436
27 F3 166 4.995
27 F3 167 1.088
27 F3 168 -1.841
27 F3 169 -2.330
27 F3 170 -1.841
27 F3 171 -0.865
27 F3 172 -0.865
27 F3 173 -2.330
27 F3 174 -4.771
27 F3 175 -6.236
27 F3 176 -6.724
27 F3 177 -5.747
27 F3 178 -4.771
27 F3 179 -2.818
27 F3 180 -1.353
27 F3 181 -0.376
27 F3 182 0.112
27 F3 183 -0.865
27 F3 184 -1.841
27 F3 185 -3.794
27 F3 186 -4.771
27 F3 187 -4.771
27 F3 188 -2.818
27 F3 189 -0.376
27 F3 190 2.553
27 F3 191 4.995
27 F3 192 5.483
27 F3 193 4.995
27 F3 194 4.018
27 F3 195 2.065
27 F3 196 0.600
27 F3 197 -0.376
27 F3 198 -0.865
27 F3 199 -1.841
27 F3 200 -3.794
27 F3 201 -5.259
27 F3 202 -7.701
27 F3 203 -8.677
27 F3 204 -8.677
27 F3 205 -6.724
27 F3 206 -4.283
27 F3 207 -0.865
27 F3 208 1.088
27 F3 209 2.065
27 F3 210 2.065
27 F3 211 2.065
27 F3 212 1.577
27 F3 213 1.088
27 F3 214 0.112
27 F3 215 -1.353
27 F3 216 -1.841
27 F3 217 -2.330
27 F3 218 -1.353
27 F3 219 0.112
27 F3 220 0.600
27 F3 221 0.112
27 F3 222 -1.353
27 F3 223 -3.306
27 F3 224 -5.259
27 F3 225 -6.236
27 F3 226 -7.212
27 F3 227 -7.212
27 F3 228 -7.212
27 F3 229 -6.724
27 F3 230 -6.236
27 F3 231 -5.747
27 F3 232 -5.747
27 F3 233 -6.236
27 F3 234 -6.236
27 F3 235 -5.747
27 F3 236 -5.259
27 F3 237 -5.259
27 F3 238 -5.747
27 F3 239 -5.747
27 F3 240 -4.771
27 F3 241 -2.818
27 F3 242 0.112
27 F3 243 1.577
27 F3 244 1.577
27 F3 245 -0.865
27 F3 246 -4.283
27 F3 247 -6.724
27 F3 248 -8.189
27 F3 249 -7.701
27 F3 250 -6.724
27 F3 251 -5.259
27 F3 252 -4.283
27 F3 253 -3.306
27 F3 254 -1.841
27 F3 255 -0.865
# FC6 chan 9
27 FC6 0 -0.203
27 FC6 1 2.238
27 FC6 2 4.679
27 FC6 3 5.656
27 FC6 4 5.656
27 FC6 5 4.679
27 FC6 6 3.215
27 FC6 7 2.726
27 FC6 8 3.215
27 FC6 9 3.703
27 FC6 10 4.191
27 FC6 11 3.703
27 FC6 12 2.238
27 FC6 13 1.750
27 FC6 14 2.238
27 FC6 15 2.726
27 FC6 16 3.215
27 FC6 17 2.726
27 FC6 18 1.750
27 FC6 19 0.773
27 FC6 20 0.285
27 FC6 21 -1.668
27 FC6 22 -3.133
27 FC6 23 -4.598
27 FC6 24 -5.086
27 FC6 25 -3.621
27 FC6 26 -0.692
27 FC6 27 3.703
27 FC6 28 7.609
27 FC6 29 11.515
27 FC6 30 14.445
27 FC6 31 15.422
27 FC6 32 15.910
27 FC6 33 15.422
27 FC6 34 13.468
27 FC6 35 11.515
27 FC6 36 8.586
27 FC6 37 5.656
27 FC6 38 3.703
27 FC6 39 2.726
27 FC6 40 2.726
27 FC6 41 2.238
27 FC6 42 2.238
27 FC6 43 1.261
27 FC6 44 -0.203
27 FC6 45 -1.668
27 FC6 46 -3.133
27 FC6 47 -3.621
27 FC6 48 -3.133
27 FC6 49 -1.180
27 FC6 50 2.238
27 FC6 51 5.656
27 FC6 52 9.562
27 FC6 53 12.004
27 FC6 54 12.980
27 FC6 55 11.515
27 FC6 56 8.097
27 FC6 57 3.703
27 FC6 58 0.773
27 FC6 59 -0.692
27 FC6 60 -0.203
27 FC6 61 0.773
27 FC6 62 1.261
27 FC6 63 0.285
27 FC6 64 -1.668
27 FC6 65 -4.110
27 FC6 66 -6.063
27 FC6 67 -7.528
27 FC6 68 -8.016
27 FC6 69 -7.039
27 FC6 70 -5.575
27 FC6 71 -3.133
27 FC6 72 -0.692
27 FC6 73 1.750
27 FC6 74 3.215
27 FC6 75 4.191
27 FC6 76 4.679
27 FC6 77 4.679
27 FC6 78 4.679
27 FC6 79 4.191
27 FC6 80 3.703
27 FC6 81 2.726
27 FC6 82 1.750
27 FC6 83 0.773
27 FC6 84 -0.203
27 FC6 85 -1.668
27 FC6 86 -3.133
27 FC6 87 -4.110
27 FC6 88 -4.598
27 FC6 89 -3.621
27 FC6 90 -2.645
27 FC6 91 -3.133
27 FC6 92 -4.598
27 FC6 93 -6.551
27 FC6 94 -7.528
27 FC6 95 -7.039
27 FC6 96 -6.063
27 FC6 97 -4.598
27 FC6 98 -3.133
27 FC6 99 -3.133
27 FC6 100 -3.133
27 FC6 101 -3.133
27 FC6 102 -3.133
27 FC6 103 -3.133
27 FC6 104 -3.133
27 FC6 105 -2.645
27 FC6 106 -2.157
27 FC6 107 -1.180
27 FC6 108 -0.203
27 FC6 109 -0.203
27 FC6 110 -0.692
27 FC6 111 -1.180
27 FC6 112 -2.645
27 FC6 113 -3.621
27 FC6 114 -5.086
27 FC6 115 -6.063
27 FC6 116 -6.063
27 FC6 117 -4.598
27 FC6 118 -3.133
27 FC6 119 -1.668
27 FC6 120 -0.692
27 FC6 121 -0.692
27 FC6 122 -0.692
27 FC6 123 -1.180
27 FC6 124 -1.668
27 FC6 125 -2.645
27 FC6 126 -3.621
27 FC6 127 -4.110
27 FC6 128 -3.133
27 FC6 129 -1.668
27 FC6 130 -0.692
27 FC6 131 -0.692
27 FC6 132 -2.157
27 FC6 133 -4.598
27 FC6 134 -6.551
27 FC6 135 -8.016
27 FC6 136 -8.016
27 FC6 137 -8.504
27 FC6 138 -9.481
27 FC6 139 -9.969
27 FC6 140 -8.504
27 FC6 141 -5.575
27 FC6 142 -1.668
27 FC6 143 1.750
27 FC6 144 2.726
27 FC6 145 1.750
27 FC6 146 0.773
27 FC6 147 0.285
27 FC6 148 1.750
27 FC6 149 4.191
27 FC6 150 5.656
27 FC6 151 4.679
27 FC6 152 1.261
27 FC6 153 -3.133
27 FC6 154 -7.528
27 FC6 155 -10.457
27 FC6 156 -11.434
27 FC6 157 -10.946
27 FC6 158 -9.969
27 FC6 159 -8.016
27 FC6 160 -6.551
27 FC6 161 -4.110
27 FC6 162 -1.668
27 FC6 163 1.750
27 FC6 164 5.168
27 FC6 165 9.074
27 FC6 166 12.004
27 FC6 167 14.445
27 FC6 168 14.933
27 FC6 169 14.445
27 FC6 170 13.468
27 FC6 171 11.515
27 FC6 172 9.074
27 FC6 173 6.632
27 FC6 174 3.215
27 FC6 175 -0.203
27 FC6 176 -2.157
27 FC6 177 -2.157
27 FC6 178 -0.203
27 FC6 179 2.726
27 FC6 180 5.656
27 FC6 181 8.097
27 FC6 182 8.586
27 FC6 183 8.097
27 FC6 184 7.609
27 FC6 185 6.632
27 FC6 186 6.632
27 FC6 187 8.097
27 FC6 188 10.539
27 FC6 189 12.492
27 FC6 190 14.445
27 FC6 191 14.445
27 FC6 192 12.004
27 FC6 193 8.097
27 FC6 194 4.679
27 FC6 195 1.750
27 FC6 196 0.285
27 FC6 197 -0.203
27 FC6 198 0.773
27 FC6 199 1.750
27 FC6 200 1.750
27 FC6 201 0.773
27 FC6 202 -0.203
27 FC6 203 -1.180
27 FC6 204 -0.692
27 FC6 205 0.773
27 FC6 206 3.703
27 FC6 207 7.121
27 FC6 208 10.050
27 FC6 209 11.515
27 FC6 210 10.539
27 FC6 211 8.586
27 FC6 212 5.656
27 FC6 213 2.726
27 FC6 214 -0.203
27 FC6 215 -3.133
27 FC6 216 -6.063
27 FC6 217 -8.504
27 FC6 218 -9.969
27 FC6 219 -9.969
27 FC6 220 -8.016
27 FC6 221 -4.598
27 FC6 222 -1.180
27 FC6 223 1.750
27 FC6 224 2.238
27 FC6 225 2.238
27 FC6 226 1.261
27 FC6 227 0.285
27 FC6 228 0.285
27 FC6 229 0.285
27 FC6 230 0.285
27 FC6 231 0.773
27 FC6 232 1.261
27 FC6 233 1.261
27 FC6 234 1.261
27 FC6 235 0.773
27 FC6 236 -0.203
27 FC6 237 -1.180
27 FC6 238 -1.668
27 FC6 239 -2.645
27 FC6 240 -2.645
27 FC6 241 -3.133
27 FC6 242 -2.645
27 FC6 243 -1.668
27 FC6 244 -0.203
27 FC6 245 1.750
27 FC6 246 3.215
27 FC6 247 4.191
27 FC6 248 4.191
27 FC6 249 4.191
27 FC6 250 3.703
27 FC6 251 3.215
27 FC6 252 3.215
27 FC6 253 4.191
27 FC6 254 5.656
27 FC6 255 8.097
# FC5 chan 10
27 FC5 0 -4.466
27 FC5 1 -4.466
27 FC5 2 -5.442
27 FC5 3 -4.954
27 FC5 4 -3.977
27 FC5 5 -2.024
27 FC5 6 0.417
27 FC5 7 3.835
27 FC5 8 6.765
27 FC5 9 9.206
27 FC5 10 10.183
27 FC5 11 9.206
27 FC5 12 5.788
27 FC5 13 1.394
27 FC5 14 -3.001
27 FC5 15 -5.442
27 FC5 16 -6.419
27 FC5 17 -6.907
27 FC5 18 -7.395
27 FC5 19 -8.372
27 FC5 20 -9.349
27 FC5 21 -8.372
27 FC5 22 -5.442
27 FC5 23 -1.536
27 FC5 24 2.370
27 FC5 25 5.300
27 FC5 26 6.276
27 FC5 27 6.276
27 FC5 28 6.765
27 FC5 29 8.718
27 FC5 30 10.183
27 FC5 31 11.159
27 FC5 32 10.183
27 FC5 33 7.741
27 FC5 34 5.300
27 FC5 35 2.370
27 FC5 36 0.417
27 FC5 37 -1.536
27 FC5 38 -3.001
27 FC5 39 -3.977
27 FC5 40 -3.489
27 FC5 41 -1.536
27 FC5 42 1.394
27 FC5 43 3.347
27 FC5 44 3.347
27 FC5 45 1.394
27 FC5 46 -0.559
27 FC5 47 -2.513
27 FC5 48 -2.513
27 FC5 49 -1.048
27 FC5 50 0.417
27 FC5 51 1.394
27 FC5 52 0.905
27 FC5 53 0.417
27 FC5 54 0.417
27 FC5 55 1.882
27 FC5 56 4.323
27 FC5 57 7.253
27 FC5 58 9.206
27 FC5 59 10.183
27 FC5 60 8.718
27 FC5 61 5.788
27 FC5 62 1.882
27 FC5 63 -2.513
27 FC5 64 -6.907
27 FC5 65 -9.837
27 FC5 66 -10.813
27 FC5 67 -10.325
27 FC5 68 -8.860
27 FC5 69 -5.931
27 FC5 70 -3.001
27 FC5 71 -0.559
27 FC5 72 1.394
27 FC5 73 1.882
27 FC5 74 1.882
27 FC5 75 0.417
27 FC5 76 -1.536
27 FC5 77 -3.001
27 FC5 78 -3.977
27 FC5 79 -3.977
27 FC5 80 -3.001
27 FC5 81 -2.024
27 FC5 82 -0.559
27 FC5 83 0.417
27 FC5 84 0.905
27 FC5 85 0.905
27 FC5 86 0.905
27 FC5 87 1.394
27 FC5 88 1.394
27 FC5 89 1.882
27 FC5 90 1.394
27 FC5 91 -0.071
27 FC5 92 -2.513
27 FC5 93 -4.466
27 FC5 94 -5.442
27 FC5 95 -4.954
27 FC5 96 -3.489
27 FC5 97 -2.024
27 FC5 98 -1.048
27 FC5 99 -1.536
27 FC5 100 -3.001
27 FC5 101 -4.466
27 FC5 102 -5.442
27 FC5 103 -4.466
27 FC5 104 -3.977
27 FC5 105 -3.489
27 FC5 106 -3.001
27 FC5 107 -1.536
27 FC5 108 -0.071
27 FC5 109 1.882
27 FC5 110 3.347
27 FC5 111 3.347
27 FC5 112 2.370
27 FC5 113 0.905
27 FC5 114 0.417
27 FC5 115 0.417
27 FC5 116 1.394
27 FC5 117 1.882
27 FC5 118 1.882
27 FC5 119 1.394
27 FC5 120 0.417
27 FC5 121 0.417
27 FC5 122 0.417
27 FC5 123 -0.071
27 FC5 124 -1.536
27 FC5 125 -2.513
27 FC5 126 -3.489
27 FC5 127 -3.977
27 FC5 128 -3.489
27 FC5 129 -3.489
27 FC5 130 -3.977
27 FC5 131 -3.977
27 FC5 132 -4.954
27 FC5 133 -5.442
27 FC5 134 -4.954
27 FC5 135 -4.466
27 FC5 136 -3.489
27 FC5 137 -2.513
27 FC5 138 -0.559
27 FC5 139 0.417
27 FC5 140 1.394
27 FC5 141 0.905
27 FC5 142 -0.071
27 FC5 143 -1.048
27 FC5 144 -2.024
27 FC5 145 -1.536
27 FC5 146 -0.559
27 FC5 147 0.417
27 FC5 148 1.882
27 FC5 149 1.882
27 FC5 150 1.394
27 FC5 151 -0.559
27 FC5 152 -3.001
27 FC5 153 -5.931
27 FC5 154 -8.860
27 FC5 155 -10.813
27 FC5 156 -11.790
27 FC5 157 -11.302
27 FC5 158 -10.813
27 FC5 159 -9.349
27 FC5 160 -6.907
27 FC5 161 -3.489
27 FC5 162 0.905
27 FC5 163 5.300
27 FC5 164 7.253
27 FC5 165 6.765
27 FC5 166 4.323
27 FC5 167 0.905
27 FC5 168 -1.536
27 FC5 169 -2.024
27 FC5 170 -1.536
27 FC5 171 -0.071
27 FC5 172 -0.071
27 FC5 173 -1.048
27 FC5 174 -2.513
27 FC5 175 -3.001
27 FC5 176 -3.001
27 FC5 177 -1.536
27 FC5 178 -0.071
27 FC5 179 0.905
27 FC5 180 0.905
27 FC5 181 0.417
27 FC5 182 -0.559
27 FC5 183 -2.024
27 FC5 184 -3.489
27 FC5 185 -5.442
27 FC5 186 -6.907
27 FC5 187 -7.395
27 FC5 188 -5.931
27 FC5 189 -2.513
27 FC5 190 2.370
27 FC5 191 6.276
27 FC5 192 8.718
27 FC5 193 9.694
27 FC5 194 8.230
27 FC5 195 5.300
27 FC5 196 2.858
27 FC5 197 1.394
27 FC5 198 0.417
27 FC5 199 -0.559
27 FC5 200 -1.536
27 FC5 201 -3.489
27 FC5 202 -5.931
27 FC5 203 -8.372
27 FC5 204 -9.349
27 FC5 205 -9.349
27 FC5 206 -8.860
27 FC5 207 -8.372
27 FC5 208 -7.884
27 FC5 209 -6.907
27 FC5 210 -4.954
27 FC5 211 -1.536
27 FC5 212 1.882
27 FC5 213 4.812
27 FC5 214 5.788
27 FC5 215 6.276
27 FC5 216 5.788
27 FC5 217 5.788
27 FC5 218 6.765
27 FC5 219 7.253
27 FC5 220 7.253
27 FC5 221 5.300
27 FC5 222 1.882
27 FC5 223 -1.536
27 FC5 224 -5.442
27 FC5 225 -8.372
27 FC5 226 -10.325
27 FC5 227 -10.813
27 FC5 228 -10.325
27 FC5 229 -8.860
27 FC5 230 -7.884
27 FC5 231 -7.395
27 FC5 232 -7.395
27 FC5 233 -6.907
27 FC5 234 -5.931
27 FC5 235 -3.977
27 FC5 236 -2.024
27 FC5 237 -1.048
27 FC5 238 -0.559
27 FC5 239 -0.559
27 FC5 240 -0.071
27 FC5 241 1.882
27 FC5 242 3.835
27 FC5 243 5.300
27 FC5 244 4.812
27 FC5 245 1.394
27 FC5 246 -3.001
27 FC5 247 -7.395
27 FC5 248 -9.837
27 FC5 249 -9.837
27 FC5 250 -8.372
27 FC5 251 -5.931
27 FC5 252 -3.977
27 FC5 253 -2.513
27 FC5 254 -1.048
27 FC5 255 -0.071
# FC2 chan 11
27 FC2 0 0.041
27 FC2 1 0.529
27 FC2 2 0.529
27 FC2 3 0.041
27 FC2 4 -0.448
27 FC2 5 -1.424
27 FC2 6 -1.912
27 FC2 7 -1.424
27 FC2 8 0.529
27 FC2 9 2.482
27 FC2 10 3.947
27 FC2 11 3.459
27 FC2 12 1.017
27 FC2 13 -1.424
27 FC2 14 -2.401
27 FC2 15 -1.912
27 FC2 16 -1.424
27 FC2 17 -0.448
27 FC2 18 -0.448
27 FC2 19 -1.912
27 FC2 20 -2.401
27 FC2 21 -2.401
27 FC2 22 -1.912
27 FC2 23 -1.424
27 FC2 24 -0.448
27 FC2 25 0.529
27 FC2 26 1.506
27 FC2 27 2.482
27 FC2 28 3.459
27 FC2 29 4.435
27 FC2 30 4.924
27 FC2 31 5.412
27 FC2 32 6.388
27 FC2 33 7.365
27 FC2 34 7.853
27 FC2 35 7.853
27 FC2 36 6.388
27 FC2 37 3.459
27 FC2 38 1.506
27 FC2 39 -0.448
27 FC2 40 -0.936
27 FC2 41 -0.448
27 FC2 42 0.529
27 FC2 43 0.529
27 FC2 44 0.529
27 FC2 45 -0.448
27 FC2 46 -0.448
27 FC2 47 0.041
27 FC2 48 1.506
27 FC2 49 2.482
27 FC2 50 3.459
27 FC2 51 3.947
27 FC2 52 4.924
27 FC2 53 6.388
27 FC2 54 7.365
27 FC2 55 6.877
27 FC2 56 4.435
27 FC2 57 1.994
27 FC2 58 0.041
27 FC2 59 0.041
27 FC2 60 2.482
27 FC2 61 5.412
27 FC2 62 7.853
27 FC2 63 6.877
27 FC2 64 4.435
27 FC2 65 1.017
27 FC2 66 -1.424
27 FC2 67 -2.401
27 FC2 68 -2.401
27 FC2 69 -1.424
27 FC2 70 0.041
27 FC2 71 1.506
27 FC2 72 3.459
27 FC2 73 4.924
27 FC2 74 4.924
27 FC2 75 4.924
27 FC2 76 4.435
27 FC2 77 4.924
27 FC2 78 4.924
27 FC2 79 4.435
27 FC2 80 3.459
27 FC2 81 1.506
27 FC2 82 0.529
27 FC2 83 -0.448
27 FC2 84 -0.448
27 FC2 85 -0.936
27 FC2 86 -1.424
27 FC2 87 -1.424
27 FC2 88 -0.936
27 FC2 89 0.529
27 FC2 90 1.506
27 FC2 91 1.017
27 FC2 92 -0.448
27 FC2 93 -2.401
27 FC2 94 -3.866
27 FC2 95 -4.354
27 FC2 96 -4.354
27 FC2 97 -3.866
27 FC2 98 -4.354
27 FC2 99 -4.354
27 FC2 100 -4.842
27 FC2 101 -4.354
27 FC2 102 -3.866
27 FC2 103 -3.377
27 FC2 104 -2.401
27 FC2 105 -1.424
27 FC2 106 -0.448
27 FC2 107 0.529
27 FC2 108 1.017
27 FC2 109 1.017
27 FC2 110 0.529
27 FC2 111 -0.936
27 FC2 112 -1.912
27 FC2 113 -3.377
27 FC2 114 -4.354
27 FC2 115 -4.842
27 FC2 116 -4.354
27 FC2 117 -3.377
27 FC2 118 -2.401
27 FC2 119 -1.424
27 FC2 120 -0.936
27 FC2 121 0.041
27 FC2 122 1.017
27 FC2 123 1.994
27 FC2 124 2.482
27 FC2 125 1.506
27 FC2 126 0.041
27 FC2 127 -1.912
27 FC2 128 -2.401
27 FC2 129 -2.401
27 FC2 130 -1.912
27 FC2 131 -0.936
27 FC2 132 -1.424
27 FC2 133 -1.912
27 FC2 134 -3.377
27 FC2 135 -3.866
27 FC2 136 -3.866
27 FC2 137 -3.866
27 FC2 138 -3.377
27 FC2 139 -2.401
27 FC2 140 -1.424
27 FC2 141 -0.448
27 FC2 142 0.529
27 FC2 143 1.994
27 FC2 144 2.482
27 FC2 145 2.482
27 FC2 146 1.994
27 FC2 147 1.506
27 FC2 148 1.994
27 FC2 149 1.994
27 FC2 150 3.459
27 FC2 151 2.970
27 FC2 152 1.506
27 FC2 153 -0.936
27 FC2 154 -3.866
27 FC2 155 -6.307
27 FC2 156 -7.772
27 FC2 157 -7.772
27 FC2 158 -6.307
27 FC2 159 -5.330
27 FC2 160 -4.354
27 FC2 161 -2.889
27 FC2 162 -1.424
27 FC2 163 1.017
27 FC2 164 3.947
27 FC2 165 6.388
27 FC2 166 6.877
27 FC2 167 6.388
27 FC2 168 4.435
27 FC2 169 2.482
27 FC2 170 1.994
27 FC2 171 1.506
27 FC2 172 1.017
27 FC2 173 0.041
27 FC2 174 -1.912
27 FC2 175 -3.866
27 FC2 176 -4.354
27 FC2 177 -3.377
27 FC2 178 -1.912
27 FC2 179 0.529
27 FC2 180 2.482
27 FC2 181 3.947
27 FC2 182 4.435
27 FC2 183 3.459
27 FC2 184 2.970
27 FC2 185 1.994
27 FC2 186 2.482
27 FC2 187 4.435
27 FC2 188 6.388
27 FC2 189 7.853
27 FC2 190 8.830
27 FC2 191 8.341
27 FC2 192 6.877
27 FC2 193 5.900
27 FC2 194 4.435
27 FC2 195 3.459
27 FC2 196 1.994
27 FC2 197 0.529
27 FC2 198 -0.448
27 FC2 199 -1.424
27 FC2 200 -2.401
27 FC2 201 -2.889
27 FC2 202 -2.889
27 FC2 203 -2.401
27 FC2 204 -0.936
27 FC2 205 1.506
27 FC2 206 4.435
27 FC2 207 6.388
27 FC2 208 7.365
27 FC2 209 7.365
27 FC2 210 5.900
27 FC2 211 3.947
27 FC2 212 1.506
27 FC2 213 -0.448
27 FC2 214 -1.912
27 FC2 215 -2.889
27 FC2 216 -4.354
27 FC2 217 -4.354
27 FC2 218 -4.842
27 FC2 219 -5.330
27 FC2 220 -4.842
27 FC2 221 -4.842
27 FC2 222 -4.354
27 FC2 223 -3.377
27 FC2 224 -2.401
27 FC2 225 -1.912
27 FC2 226 -0.936
27 FC2 227 0.041
27 FC2 228 0.529
27 FC2 229 1.994
27 FC2 230 2.970
27 FC2 231 3.459
27 FC2 232 3.459
27 FC2 233 2.482
27 FC2 234 1.506
27 FC2 235 0.529
27 FC2 236 -0.448
27 FC2 237 -0.936
27 FC2 238 -1.424
27 FC2 239 -1.912
27 FC2 240 -1.912
27 FC2 241 -2.401
27 FC2 242 -2.401
27 FC2 243 -1.424
27 FC2 244 -0.448
27 FC2 245 1.506
27 FC2 246 2.970
27 FC2 247 3.459
27 FC2 248 2.482
27 FC2 249 1.994
27 FC2 250 1.506
27 FC2 251 1.506
27 FC2 252 1.994
27 FC2 253 1.017
27 FC2 254 1.017
27 FC2 255 1.506
# FC1 chan 12
27 FC1 0 -0.885
27 FC1 1 -0.397
27 FC1 2 -0.885
27 FC1 3 -0.885
27 FC1 4 -0.885
27 FC1 5 0.092
27 FC1 6 1.556
27 FC1 7 3.510
27 FC1 8 5.463
27 FC1 9 6.927
27 FC1 10 7.904
27 FC1 11 6.927
27 FC1 12 4.974
27 FC1 13 2.045
27 FC1 14 -0.885
27 FC1 15 -2.838
27 FC1 16 -3.815
27 FC1 17 -3.815
27 FC1 18 -3.326
27 FC1 19 -3.815
27 FC1 20 -3.815
27 FC1 21 -3.815
27 FC1 22 -1.862
27 FC1 23 0.580
27 FC1 24 3.021
27 FC1 25 4.486
27 FC1 26 5.463
27 FC1 27 4.974
27 FC1 28 4.486
27 FC1 29 4.974
27 FC1 30 4.974
27 FC1 31 4.974
27 FC1 32 4.486
27 FC1 33 3.998
27 FC1 34 3.021
27 FC1 35 2.533
27 FC1 36 2.533
27 FC1 37 1.556
27 FC1 38 0.092
27 FC1 39 -0.885
27 FC1 40 -0.885
27 FC1 41 -0.397
27 FC1 42 1.556
27 FC1 43 3.021
27 FC1 44 3.510
27 FC1 45 3.021
27 FC1 46 2.533
27 FC1 47 2.045
27 FC1 48 2.533
27 FC1 49 3.021
27 FC1 50 3.998
27 FC1 51 3.998
27 FC1 52 3.998
27 FC1 53 3.510
27 FC1 54 3.021
27 FC1 55 3.021
27 FC1 56 3.021
27 FC1 57 3.021
27 FC1 58 3.510
27 FC1 59 3.998
27 FC1 60 3.998
27 FC1 61 3.998
27 FC1 62 3.510
27 FC1 63 2.045
27 FC1 64 0.092
27 FC1 65 -1.862
27 FC1 66 -3.326
27 FC1 67 -4.303
27 FC1 68 -3.326
27 FC1 69 -1.373
27 FC1 70 1.068
27 FC1 71 3.021
27 FC1 72 4.974
27 FC1 73 5.951
27 FC1 74 5.951
27 FC1 75 4.974
27 FC1 76 3.510
27 FC1 77 2.533
27 FC1 78 2.045
27 FC1 79 2.045
27 FC1 80 2.045
27 FC1 81 2.533
27 FC1 82 1.556
27 FC1 83 1.068
27 FC1 84 0.580
27 FC1 85 0.580
27 FC1 86 0.580
27 FC1 87 0.580
27 FC1 88 0.580
27 FC1 89 0.580
27 FC1 90 0.580
27 FC1 91 0.580
27 FC1 92 -0.397
27 FC1 93 -1.373
27 FC1 94 -2.350
27 FC1 95 -2.838
27 FC1 96 -2.350
27 FC1 97 -1.862
27 FC1 98 -1.373
27 FC1 99 -0.885
27 FC1 100 -1.373
27 FC1 101 -2.350
27 FC1 102 -2.838
27 FC1 103 -2.838
27 FC1 104 -2.838
27 FC1 105 -2.350
27 FC1 106 -1.373
27 FC1 107 0.092
27 FC1 108 1.068
27 FC1 109 1.556
27 FC1 110 1.068
27 FC1 111 0.092
27 FC1 112 -0.885
27 FC1 113 -1.862
27 FC1 114 -1.862
27 FC1 115 -1.373
27 FC1 116 -0.397
27 FC1 117 0.092
27 FC1 118 0.092
27 FC1 119 0.092
27 FC1 120 0.092
27 FC1 121 0.580
27 FC1 122 0.580
27 FC1 123 1.068
27 FC1 124 1.068
27 FC1 125 0.580
27 FC1 126 0.092
27 FC1 127 -0.885
27 FC1 128 -1.373
27 FC1 129 -0.885
27 FC1 130 -0.397
27 FC1 131 0.092
27 FC1 132 0.092
27 FC1 133 -0.397
27 FC1 134 -1.862
27 FC1 135 -2.838
27 FC1 136 -3.326
27 FC1 137 -2.350
27 FC1 138 -0.885
27 FC1 139 0.580
27 FC1 140 1.068
27 FC1 141 1.068
27 FC1 142 0.092
27 FC1 143 -0.397
27 FC1 144 -0.397
27 FC1 145 -0.397
27 FC1 146 0.580
27 FC1 147 1.068
27 FC1 148 1.556
27 FC1 149 2.045
27 FC1 150 2.045
27 FC1 151 0.580
27 FC1 152 -1.373
27 FC1 153 -3.815
27 FC1 154 -6.744
27 FC1 155 -8.209
27 FC1 156 -8.698
27 FC1 157 -8.209
27 FC1 158 -7.233
27 FC1 159 -6.256
27 FC1 160 -5.280
27 FC1 161 -3.326
27 FC1 162 -0.885
27 FC1 163 1.556
27 FC1 164 3.510
27 FC1 165 3.510
27 FC1 166 2.045
27 FC1 167 -0.397
27 FC1 168 -2.350
27 FC1 169 -3.326
27 FC1 170 -2.838
27 FC1 171 -2.350
27 FC1 172 -1.862
27 FC1 173 -1.862
27 FC1 174 -2.350
27 FC1 175 -2.838
27 FC1 176 -2.350
27 FC1 177 -1.862
27 FC1 178 -0.885
27 FC1 179 0.092
27 FC1 180 0.580
27 FC1 181 1.068
27 FC1 182 0.580
27 FC1 183 -0.397
27 FC1 184 -1.373
27 FC1 185 -2.350
27 FC1 186 -2.838
27 FC1 187 -2.350
27 FC1 188 -1.373
27 FC1 189 0.580
27 FC1 190 2.045
27 FC1 191 3.510
27 FC1 192 4.486
27 FC1 193 4.486
27 FC1 194 4.486
27 FC1 195 3.998
27 FC1 196 3.510
27 FC1 197 2.533
27 FC1 198 2.045
27 FC1 199 0.580
27 FC1 200 -0.397
27 FC1 201 -1.862
27 FC1 202 -3.326
27 FC1 203 -3.815
27 FC1 204 -3.815
27 FC1 205 -3.326
27 FC1 206 -1.862
27 FC1 207 -0.397
27 FC1 208 0.580
27 FC1 209 1.068
27 FC1 210 1.556
27 FC1 211 1.556
27 FC1 212 1.068
27 FC1 213 1.068
27 FC1 214 1.068
27 FC1 215 0.580
27 FC1 216 0.580
27 FC1 217 0.580
27 FC1 218 0.580
27 FC1 219 1.068
27 FC1 220 1.068
27 FC1 221 0.580
27 FC1 222 -0.885
27 FC1 223 -2.838
27 FC1 224 -3.815
27 FC1 225 -4.303
27 FC1 226 -4.303
27 FC1 227 -3.815
27 FC1 228 -3.326
27 FC1 229 -2.838
27 FC1 230 -2.350
27 FC1 231 -2.350
27 FC1 232 -2.838
27 FC1 233 -3.326
27 FC1 234 -4.303
27 FC1 235 -4.303
27 FC1 236 -3.815
27 FC1 237 -3.815
27 FC1 238 -3.326
27 FC1 239 -2.350
27 FC1 240 -1.862
27 FC1 241 -0.397
27 FC1 242 0.580
27 FC1 243 1.556
27 FC1 244 1.556
27 FC1 245 0.580
27 FC1 246 -0.885
27 FC1 247 -2.350
27 FC1 248 -3.326
27 FC1 249 -3.326
27 FC1 250 -2.838
27 FC1 251 -1.862
27 FC1 252 -1.862
27 FC1 253 -1.373
27 FC1 254 -1.373
27 FC1 255 -0.885
# T8 chan 13
27 T8 0 -5.300
27 T8 1 -1.882
27 T8 2 1.048
27 T8 3 2.024
27 T8 4 2.024
27 T8 5 1.536
27 T8 6 1.048
27 T8 7 1.048
27 T8 8 2.024
27 T8 9 3.489
27 T8 10 3.489
27 T8 11 2.513
27 T8 12 1.048
27 T8 13 -0.417
27 T8 14 -0.905
27 T8 15 0.071
27 T8 16 1.048
27 T8 17 1.536
27 T8 18 1.048
27 T8 19 -0.417
27 T8 20 -3.347
27 T8 21 -5.788
27 T8 22 -7.741
27 T8 23 -9.206
27 T8 24 -8.230
27 T8 25 -5.788
27 T8 26 -2.370
27 T8 27 2.024
27 T8 28 6.419
27 T8 29 11.790
27 T8 30 16.673
27 T8 31 20.091
27 T8 32 21.556
27 T8 33 19.602
27 T8 34 15.208
27 T8 35 9.349
27 T8 36 3.489
27 T8 37 -1.394
27 T8 38 -4.812
27 T8 39 -6.765
27 T8 40 -8.230
27 T8 41 -9.206
27 T8 42 -9.694
27 T8 43 -9.694
27 T8 44 -10.671
27 T8 45 -12.624
27 T8 46 -14.577
27 T8 47 -16.042
27 T8 48 -15.066
27 T8 49 -12.624
27 T8 50 -7.253
27 T8 51 -1.394
27 T8 52 4.954
27 T8 53 9.837
27 T8 54 12.278
27 T8 55 12.767
27 T8 56 9.837
27 T8 57 4.466
27 T8 58 -0.905
27 T8 59 -5.300
27 T8 60 -7.741
27 T8 61 -8.230
27 T8 62 -8.718
27 T8 63 -9.206
27 T8 64 -11.159
27 T8 65 -13.601
27 T8 66 -16.530
27 T8 67 -18.483
27 T8 68 -19.948
27 T8 69 -20.437
27 T8 70 -18.972
27 T8 71 -16.530
27 T8 72 -13.112
27 T8 73 -8.718
27 T8 74 -5.300
27 T8 75 -2.858
27 T8 76 -2.858
27 T8 77 -3.347
27 T8 78 -4.323
27 T8 79 -4.812
27 T8 80 -4.812
27 T8 81 -4.812
27 T8 82 -4.323
27 T8 83 -4.812
27 T8 84 -6.765
27 T8 85 -9.206
27 T8 86 -12.136
27 T8 87 -13.601
27 T8 88 -14.089
27 T8 89 -13.601
27 T8 90 -13.601
27 T8 91 -14.577
27 T8 92 -16.530
27 T8 93 -17.995
27 T8 94 -17.507
27 T8 95 -15.066
27 T8 96 -11.648
27 T8 97 -8.718
27 T8 98 -7.741
27 T8 99 -8.718
27 T8 100 -9.694
27 T8 101 -9.694
27 T8 102 -9.206
27 T8 103 -7.253
27 T8 104 -6.765
27 T8 105 -6.276
27 T8 106 -6.765
27 T8 107 -6.765
27 T8 108 -5.788
27 T8 109 -5.300
27 T8 110 -4.812
27 T8 111 -5.300
27 T8 112 -7.741
27 T8 113 -10.671
27 T8 114 -13.601
27 T8 115 -15.066
27 T8 116 -15.066
27 T8 117 -13.601
27 T8 118 -11.159
27 T8 119 -8.230
27 T8 120 -5.788
27 T8 121 -4.812
27 T8 122 -5.300
27 T8 123 -7.253
27 T8 124 -10.183
27 T8 125 -12.136
27 T8 126 -12.624
27 T8 127 -11.159
27 T8 128 -8.718
27 T8 129 -6.765
27 T8 130 -7.253
27 T8 131 -9.206
27 T8 132 -12.624
27 T8 133 -15.554
27 T8 134 -17.995
27 T8 135 -18.972
27 T8 136 -19.948
27 T8 137 -20.437
27 T8 138 -20.437
27 T8 139 -19.948
27 T8 140 -17.995
27 T8 141 -15.066
27 T8 142 -11.648
27 T8 143 -8.718
27 T8 144 -7.253
27 T8 145 -6.276
27 T8 146 -5.300
27 T8 147 -4.323
27 T8 148 -2.370
27 T8 149 -0.905
27 T8 150 -0.905
27 T8 151 -2.858
27 T8 152 -7.741
27 T8 153 -13.601
27 T8 154 -17.995
27 T8 155 -20.925
27 T8 156 -20.925
27 T8 157 -19.460
27 T8 158 -16.530
27 T8 159 -14.577
27 T8 160 -13.112
27 T8 161 -11.648
27 T8 162 -10.183
27 T8 163 -8.230
27 T8 164 -5.300
27 T8 165 -2.370
27 T8 166 0.559
27 T8 167 2.513
27 T8 168 4.466
27 T8 169 4.954
27 T8 170 4.954
27 T8 171 4.466
27 T8 172 3.001
27 T8 173 0.559
27 T8 174 -3.347
27 T8 175 -7.741
27 T8 176 -11.159
27 T8 177 -11.648
27 T8 178 -9.206
27 T8 179 -5.300
27 T8 180 -1.394
27 T8 181 0.559
27 T8 182 -0.417
27 T8 183 -2.370
27 T8 184 -3.835
27 T8 185 -3.347
27 T8 186 -1.882
27 T8 187 0.559
27 T8 188 2.024
27 T8 189 2.513
27 T8 190 2.024
27 T8 191 1.536
27 T8 192 0.559
27 T8 193 -1.394
27 T8 194 -4.323
27 T8 195 -7.253
27 T8 196 -9.206
27 T8 197 -9.694
27 T8 198 -8.718
27 T8 199 -6.765
27 T8 200 -4.812
27 T8 201 -4.812
27 T8 202 -6.276
27 T8 203 -8.230
27 T8 204 -10.183
27 T8 205 -10.183
27 T8 206 -9.206
27 T8 207 -7.253
27 T8 208 -3.835
27 T8 209 -1.394
27 T8 210 0.559
27 T8 211 1.048
27 T8 212 1.048
27 T8 213 -0.905
27 T8 214 -3.347
27 T8 215 -5.788
27 T8 216 -9.206
27 T8 217 -11.648
27 T8 218 -14.089
27 T8 219 -14.577
27 T8 220 -13.601
27 T8 221 -10.671
27 T8 222 -7.253
27 T8 223 -4.323
27 T8 224 -2.370
27 T8 225 -2.370
27 T8 226 -3.347
27 T8 227 -4.323
27 T8 228 -4.323
27 T8 229 -3.835
27 T8 230 -2.858
27 T8 231 -1.882
27 T8 232 -1.394
27 T8 233 -1.882
27 T8 234 -3.347
27 T8 235 -5.300
27 T8 236 -6.765
27 T8 237 -7.741
27 T8 238 -7.253
27 T8 239 -6.765
27 T8 240 -6.276
27 T8 241 -6.276
27 T8 242 -6.765
27 T8 243 -6.765
27 T8 244 -5.788
27 T8 245 -4.323
27 T8 246 -3.347
27 T8 247 -3.347
27 T8 248 -3.835
27 T8 249 -4.323
27 T8 250 -4.812
27 T8 251 -3.835
27 T8 252 -2.858
27 T8 253 -1.882
27 T8 254 -0.905
27 T8 255 0.071
# T7 chan 14
27 T7 0 -8.311
27 T7 1 -8.799
27 T7 2 -9.288
27 T7 3 -8.799
27 T7 4 -7.334
27 T7 5 -5.870
27 T7 6 -3.428
27 T7 7 -2.452
27 T7 8 -0.010
27 T7 9 1.455
27 T7 10 2.920
27 T7 11 2.920
27 T7 12 0.966
27 T7 13 -2.452
27 T7 14 -6.846
27 T7 15 -9.776
27 T7 16 -11.241
27 T7 17 -11.729
27 T7 18 -11.729
27 T7 19 -12.705
27 T7 20 -13.682
27 T7 21 -13.682
27 T7 22 -11.729
27 T7 23 -8.311
27 T7 24 -4.405
27 T7 25 -1.475
27 T7 26 -0.010
27 T7 27 0.478
27 T7 28 1.455
27 T7 29 3.896
27 T7 30 7.314
27 T7 31 9.755
27 T7 32 10.244
27 T7 33 7.802
27 T7 34 3.896
27 T7 35 -0.498
27 T7 36 -4.405
27 T7 37 -7.823
27 T7 38 -9.776
27 T7 39 -11.729
27 T7 40 -11.729
27 T7 41 -10.264
27 T7 42 -7.823
27 T7 43 -5.381
27 T7 44 -4.893
27 T7 45 -6.846
27 T7 46 -10.264
27 T7 47 -12.217
27 T7 48 -12.705
27 T7 49 -11.729
27 T7 50 -10.264
27 T7 51 -10.264
27 T7 52 -10.752
27 T7 53 -11.241
27 T7 54 -10.264
27 T7 55 -6.846
27 T7 56 -2.940
27 T7 57 1.455
27 T7 58 3.896
27 T7 59 4.384
27 T7 60 2.920
27 T7 61 -0.498
27 T7 62 -5.870
27 T7 63 -11.729
27 T7 64 -17.588
27 T7 65 -21.495
27 T7 66 -22.959
27 T7 67 -21.495
27 T7 68 -19.053
27 T7 69 -16.612
27 T7 70 -14.170
27 T7 71 -13.194
27 T7 72 -11.729
27 T7 73 -11.241
27 T7 74 -11.729
27 T7 75 -13.194
27 T7 76 -16.123
27 T7 77 -18.565
27 T7 78 -19.541
27 T7 79 -18.565
27 T7 80 -15.635
27 T7 81 -12.217
27 T7 82 -9.288
27 T7 83 -7.823
27 T7 84 -7.823
27 T7 85 -8.311
27 T7 86 -9.288
27 T7 87 -9.288
27 T7 88 -8.799
27 T7 89 -7.823
27 T7 90 -7.334
27 T7 91 -7.823
27 T7 92 -9.288
27 T7 93 -11.241
27 T7 94 -13.194
27 T7 95 -14.659
27 T7 96 -15.147
27 T7 97 -14.170
27 T7 98 -13.682
27 T7 99 -14.170
27 T7 100 -15.635
27 T7 101 -16.612
27 T7 102 -17.588
27 T7 103 -16.612
27 T7 104 -15.147
27 T7 105 -13.194
27 T7 106 -11.241
27 T7 107 -9.776
27 T7 108 -7.823
27 T7 109 -5.870
27 T7 110 -3.428
27 T7 111 -2.940
27 T7 112 -2.940
27 T7 113 -3.916
27 T7 114 -4.893
27 T7 115 -5.870
27 T7 116 -5.381
27 T7 117 -4.405
27 T7 118 -3.916
27 T7 119 -4.405
27 T7 120 -5.381
27 T7 121 -7.334
27 T7 122 -9.776
27 T7 123 -12.705
27 T7 124 -15.147
27 T7 125 -16.612
27 T7 126 -16.123
27 T7 127 -14.659
27 T7 128 -12.705
27 T7 129 -12.217
27 T7 130 -12.705
27 T7 131 -14.170
27 T7 132 -15.147
27 T7 133 -15.147
27 T7 134 -13.682
27 T7 135 -11.729
27 T7 136 -10.752
27 T7 137 -10.264
27 T7 138 -10.264
27 T7 139 -9.288
27 T7 140 -7.823
27 T7 141 -7.823
27 T7 142 -8.311
27 T7 143 -10.264
27 T7 144 -11.241
27 T7 145 -11.729
27 T7 146 -10.752
27 T7 147 -9.288
27 T7 148 -8.311
27 T7 149 -7.823
27 T7 150 -8.311
27 T7 151 -8.799
27 T7 152 -10.752
27 T7 153 -13.194
27 T7 154 -16.123
27 T7 155 -18.565
27 T7 156 -19.053
27 T7 157 -18.565
27 T7 158 -16.612
27 T7 159 -14.659
27 T7 160 -12.217
27 T7 161 -8.799
27 T7 162 -4.405
27 T7 163 0.478
27 T7 164 4.384
27 T7 165 4.873
27 T7 166 2.431
27 T7 167 -1.963
27 T7 168 -5.870
27 T7 169 -8.311
27 T7 170 -8.311
27 T7 171 -7.823
27 T7 172 -7.334
27 T7 173 -7.823
27 T7 174 -8.799
27 T7 175 -8.799
27 T7 176 -7.823
27 T7 177 -5.870
27 T7 178 -3.916
27 T7 179 -2.940
27 T7 180 -2.452
27 T7 181 -3.428
27 T7 182 -4.893
27 T7 183 -7.823
27 T7 184 -10.752
27 T7 185 -13.194
27 T7 186 -14.659
27 T7 187 -14.659
27 T7 188 -13.194
27 T7 189 -9.288
27 T7 190 -4.893
27 T7 191 0.478
27 T7 192 4.384
27 T7 193 6.337
27 T7 194 5.361
27 T7 195 1.943
27 T7 196 -1.475
27 T7 197 -3.916
27 T7 198 -5.381
27 T7 199 -6.358
27 T7 200 -7.823
27 T7 201 -10.752
27 T7 202 -14.170
27 T7 203 -17.588
27 T7 204 -20.030
27 T7 205 -21.495
27 T7 206 -22.471
27 T7 207 -23.448
27 T7 208 -24.424
27 T7 209 -23.448
27 T7 210 -19.053
27 T7 211 -11.729
27 T7 212 -3.916
27 T7 213 1.943
27 T7 214 4.873
27 T7 215 5.849
27 T7 216 5.849
27 T7 217 5.849
27 T7 218 6.826
27 T7 219 7.802
27 T7 220 7.314
27 T7 221 4.873
27 T7 222 0.966
27 T7 223 -3.916
27 T7 224 -8.799
27 T7 225 -13.194
27 T7 226 -16.612
27 T7 227 -19.053
27 T7 228 -20.030
27 T7 229 -20.518
27 T7 230 -20.518
27 T7 231 -19.541
27 T7 232 -19.541
27 T7 233 -18.077
27 T7 234 -16.123
27 T7 235 -12.705
27 T7 236 -8.311
27 T7 237 -3.916
27 T7 238 -1.475
27 T7 239 -0.010
27 T7 240 0.966
27 T7 241 2.431
27 T7 242 3.896
27 T7 243 4.873
27 T7 244 3.896
27 T7 245 -0.010
27 T7 246 -5.381
27 T7 247 -11.729
27 T7 248 -16.123
27 T7 249 -18.077
27 T7 250 -17.100
27 T7 251 -14.170
27 T7 252 -10.752
27 T7 253 -7.823
27 T7 254 -5.870
27 T7 255 -4.405
# CZ chan 15
27 CZ 0 -10.040
27 CZ 1 -7.599
27 CZ 2 -5.646
27 CZ 3 -3.693
27 CZ 4 -1.251
27 CZ 5 0.702
27 CZ 6 2.167
27 CZ 7 2.655
27 CZ 8 2.167
27 CZ 9 1.678
27 CZ 10 2.167
27 CZ 11 1.678
27 CZ 12 -0.275
27 CZ 13 -3.204
27 CZ 14 -7.111
27 CZ 15 -9.552
27 CZ 16 -10.040
27 CZ 17 -9.064
27 CZ 18 -7.599
27 CZ 19 -7.111
27 CZ 20 -6.622
27 CZ 21 -5.646
27 CZ 22 -2.716
27 CZ 23 0.702
27 CZ 24 5.096
27 CZ 25 8.514
27 CZ 26 11.444
27 CZ 27 14.374
27 CZ 28 18.768
27 CZ 29 24.628
27 CZ 30 29.510
27 CZ 31 31.952
27 CZ 32 30.487
27 CZ 33 25.116
27 CZ 34 17.792
27 CZ 35 9.979
27 CZ 36 3.632
27 CZ 37 -1.251
27 CZ 38 -4.181
27 CZ 39 -5.157
27 CZ 40 -3.693
27 CZ 41 -0.275
27 CZ 42 4.120
27 CZ 43 7.050
27 CZ 44 6.561
27 CZ 45 3.143
27 CZ 46 -1.740
27 CZ 47 -4.669
27 CZ 48 -4.181
27 CZ 49 -0.275
27 CZ 50 5.096
27 CZ 51 9.979
27 CZ 52 13.397
27 CZ 53 15.350
27 CZ 54 15.839
27 CZ 55 14.862
27 CZ 56 11.932
27 CZ 57 8.514
27 CZ 58 5.585
27 CZ 59 3.632
27 CZ 60 3.632
27 CZ 61 3.632
27 CZ 62 2.167
27 CZ 63 -1.251
27 CZ 64 -6.134
27 CZ 65 -11.017
27 CZ 66 -14.923
27 CZ 67 -17.853
27 CZ 68 -19.806
27 CZ 69 -19.806
27 CZ 70 -18.829
27 CZ 71 -15.900
27 CZ 72 -11.505
27 CZ 73 -7.599
27 CZ 74 -4.669
27 CZ 75 -4.181
27 CZ 76 -6.134
27 CZ 77 -8.575
27 CZ 78 -10.529
27 CZ 79 -11.505
27 CZ 80 -11.993
27 CZ 81 -11.017
27 CZ 82 -10.529
27 CZ 83 -10.040
27 CZ 84 -10.529
27 CZ 85 -11.993
27 CZ 86 -12.482
27 CZ 87 -12.970
27 CZ 88 -11.993
27 CZ 89 -11.017
27 CZ 90 -11.993
27 CZ 91 -14.435
27 CZ 92 -18.829
27 CZ 93 -23.224
27 CZ 94 -25.665
27 CZ 95 -26.154
27 CZ 96 -23.712
27 CZ 97 -21.759
27 CZ 98 -20.782
27 CZ 99 -21.271
27 CZ 100 -22.736
27 CZ 101 -22.736
27 CZ 102 -20.782
27 CZ 103 -17.365
27 CZ 104 -13.947
27 CZ 105 -12.482
27 CZ 106 -11.993
27 CZ 107 -11.017
27 CZ 108 -9.064
27 CZ 109 -6.622
27 CZ 110 -5.157
27 CZ 111 -5.646
27 CZ 112 -9.064
27 CZ 113 -13.458
27 CZ 114 -16.876
27 CZ 115 -16.876
27 CZ 116 -14.435
27 CZ 117 -11.017
27 CZ 118 -9.552
27 CZ 119 -10.529
27 CZ 120 -13.947
27 CZ 121 -17.853
27 CZ 122 -21.271
27 CZ 123 -23.224
27 CZ 124 -23.712
27 CZ 125 -23.712
27 CZ 126 -22.736
27 CZ 127 -20.782
27 CZ 128 -17.365
27 CZ 129 -13.947
27 CZ 130 -12.970
27 CZ 131 -13.947
27 CZ 132 -17.365
27 CZ 133 -21.271
27 CZ 134 -24.689
27 CZ 135 -25.665
27 CZ 136 -25.177
27 CZ 137 -23.712
27 CZ 138 -22.247
27 CZ 139 -20.294
27 CZ 140 -17.853
27 CZ 141 -15.411
27 CZ 142 -12.970
27 CZ 143 -11.017
27 CZ 144 -11.017
27 CZ 145 -11.505
27 CZ 146 -11.505
27 CZ 147 -10.040
27 CZ 148 -7.599
27 CZ 149 -5.157
27 CZ 150 -5.646
27 CZ 151 -9.552
27 CZ 152 -16.876
27 CZ 153 -25.665
27 CZ 154 -33.966
27 CZ 155 -38.361
27 CZ 156 -39.825
27 CZ 157 -37.384
27 CZ 158 -32.990
27 CZ 159 -26.642
27 CZ 160 -19.806
27 CZ 161 -12.482
27 CZ 162 -5.646
27 CZ 163 0.214
27 CZ 164 4.120
27 CZ 165 5.096
27 CZ 166 3.632
27 CZ 167 -0.275
27 CZ 168 -4.181
27 CZ 169 -7.111
27 CZ 170 -8.087
27 CZ 171 -7.111
27 CZ 172 -5.646
27 CZ 173 -5.157
27 CZ 174 -8.087
27 CZ 175 -12.970
27 CZ 176 -17.365
27 CZ 177 -18.829
27 CZ 178 -14.923
27 CZ 179 -8.087
27 CZ 180 -0.763
27 CZ 181 2.655
27 CZ 182 1.190
27 CZ 183 -2.716
27 CZ 184 -6.622
27 CZ 185 -8.575
27 CZ 186 -8.087
27 CZ 187 -7.111
27 CZ 188 -6.622
27 CZ 189 -7.599
27 CZ 190 -8.575
27 CZ 191 -8.575
27 CZ 192 -8.087
27 CZ 193 -7.111
27 CZ 194 -7.111
27 CZ 195 -8.087
27 CZ 196 -9.064
27 CZ 197 -9.552
27 CZ 198 -9.064
27 CZ 199 -9.064
27 CZ 200 -10.040
27 CZ 201 -12.970
27 CZ 202 -16.876
27 CZ 203 -21.271
27 CZ 204 -24.200
27 CZ 205 -25.177
27 CZ 206 -24.200
27 CZ 207 -20.782
27 CZ 208 -15.900
27 CZ 209 -10.529
27 CZ 210 -6.134
27 CZ 211 -3.204
27 CZ 212 -1.740
27 CZ 213 -1.740
27 CZ 214 -2.228
27 CZ 215 -3.693
27 CZ 216 -6.134
27 CZ 217 -7.599
27 CZ 218 -8.575
27 CZ 219 -7.599
27 CZ 220 -5.646
27 CZ 221 -3.693
27 CZ 222 -3.204
27 CZ 223 -4.181
27 CZ 224 -6.622
27 CZ 225 -9.064
27 CZ 226 -11.017
27 CZ 227 -11.993
27 CZ 228 -12.482
27 CZ 229 -11.993
27 CZ 230 -11.505
27 CZ 231 -9.064
27 CZ 232 -6.622
27 CZ 233 -4.181
27 CZ 234 -3.693
27 CZ 235 -4.669
27 CZ 236 -7.111
27 CZ 237 -8.575
27 CZ 238 -7.599
27 CZ 239 -4.669
27 CZ 240 -1.740
27 CZ 241 0.214
27 CZ 242 1.678
27 CZ 243 2.167
27 CZ 244 3.143
27 CZ 245 3.632
27 CZ 246 2.655
27 CZ 247 0.702
27 CZ 248 -3.204
27 CZ 249 -6.622
27 CZ 250 -8.087
27 CZ 251 -7.599
27 CZ 252 -5.646
27 CZ 253 -3.204
27 CZ 254 -0.275
27 CZ 255 2.655
# C3 chan 16
27 C3 0 -2.584
27 C3 1 -2.584
27 C3 2 -3.072
27 C3 3 -3.072
27 C3 4 -2.584
27 C3 5 -1.119
27 C3 6 0.346
27 C3 7 2.299
27 C3 8 4.252
27 C3 9 6.205
27 C3 10 7.670
27 C3 11 7.182
27 C3 12 5.229
27 C3 13 2.299
27 C3 14 -0.631
27 C3 15 -3.072
27 C3 16 -4.049
27 C3 17 -4.537
27 C3 18 -5.025
27 C3 19 -6.490
27 C3 20 -7.467
27 C3 21 -7.955
27 C3 22 -5.514
27 C3 23 -2.584
27 C3 24 0.834
27 C3 25 3.276
27 C3 26 4.252
27 C3 27 4.252
27 C3 28 4.740
27 C3 29 5.229
27 C3 30 6.205
27 C3 31 7.182
27 C3 32 7.182
27 C3 33 5.229
27 C3 34 3.276
27 C3 35 0.834
27 C3 36 -1.119
27 C3 37 -2.584
27 C3 38 -4.049
27 C3 39 -5.025
27 C3 40 -5.025
27 C3 41 -4.537
27 C3 42 -3.072
27 C3 43 -1.607
27 C3 44 -1.607
27 C3 45 -2.584
27 C3 46 -4.537
27 C3 47 -5.514
27 C3 48 -4.537
27 C3 49 -3.072
27 C3 50 -1.119
27 C3 51 -0.142
27 C3 52 -0.142
27 C3 53 -0.142
27 C3 54 0.346
27 C3 55 2.299
27 C3 56 5.229
27 C3 57 7.182
27 C3 58 8.158
27 C3 59 7.182
27 C3 60 4.252
27 C3 61 -0.142
27 C3 62 -4.537
27 C3 63 -7.955
27 C3 64 -10.885
27 C3 65 -11.373
27 C3 66 -10.885
27 C3 67 -8.931
27 C3 68 -6.490
27 C3 69 -4.049
27 C3 70 -1.607
27 C3 71 -0.142
27 C3 72 0.834
27 C3 73 1.322
27 C3 74 1.322
27 C3 75 0.346
27 C3 76 -0.631
27 C3 77 -1.607
27 C3 78 -2.584
27 C3 79 -3.072
27 C3 80 -2.096
27 C3 81 -1.119
27 C3 82 -0.142
27 C3 83 0.346
27 C3 84 0.346
27 C3 85 -0.142
27 C3 86 -1.119
27 C3 87 -2.096
27 C3 88 -3.072
27 C3 89 -3.560
27 C3 90 -4.049
27 C3 91 -3.072
27 C3 92 -2.584
27 C3 93 -1.607
27 C3 94 -1.119
27 C3 95 -0.631
27 C3 96 -0.142
27 C3 97 -0.631
27 C3 98 -0.631
27 C3 99 -0.631
27 C3 100 -1.119
27 C3 101 -1.119
27 C3 102 -1.607
27 C3 103 -1.607
27 C3 104 -2.096
27 C3 105 -2.096
27 C3 106 -2.096
27 C3 107 -1.607
27 C3 108 -1.119
27 C3 109 -0.142
27 C3 110 0.834
27 C3 111 1.322
27 C3 112 1.322
27 C3 113 0.834
27 C3 114 0.834
27 C3 115 1.811
27 C3 116 2.787
27 C3 117 3.764
27 C3 118 3.764
27 C3 119 3.276
27 C3 120 2.299
27 C3 121 1.322
27 C3 122 0.346
27 C3 123 -0.142
27 C3 124 -0.631
27 C3 125 -0.631
27 C3 126 -0.631
27 C3 127 -0.631
27 C3 128 -0.631
27 C3 129 -1.607
27 C3 130 -2.584
27 C3 131 -3.560
27 C3 132 -4.049
27 C3 133 -3.560
27 C3 134 -2.584
27 C3 135 -1.607
27 C3 136 -1.119
27 C3 137 0.346
27 C3 138 1.322
27 C3 139 2.299
27 C3 140 2.787
27 C3 141 1.322
27 C3 142 -0.631
27 C3 143 -2.096
27 C3 144 -2.584
27 C3 145 -2.096
27 C3 146 -0.631
27 C3 147 0.834
27 C3 148 1.811
27 C3 149 1.322
27 C3 150 0.346
27 C3 151 -1.119
27 C3 152 -2.584
27 C3 153 -3.560
27 C3 154 -4.537
27 C3 155 -5.025
27 C3 156 -4.537
27 C3 157 -3.072
27 C3 158 -2.096
27 C3 159 -1.119
27 C3 160 -0.142
27 C3 161 0.834
27 C3 162 1.811
27 C3 163 2.299
27 C3 164 2.299
27 C3 165 0.346
27 C3 166 -2.096
27 C3 167 -4.537
27 C3 168 -5.025
27 C3 169 -4.049
27 C3 170 -2.096
27 C3 171 -0.631
27 C3 172 0.346
27 C3 173 0.834
27 C3 174 1.322
27 C3 175 2.299
27 C3 176 3.276
27 C3 177 4.252
27 C3 178 3.764
27 C3 179 3.276
27 C3 180 1.811
27 C3 181 -0.142
27 C3 182 -1.607
27 C3 183 -3.072
27 C3 184 -5.025
27 C3 185 -6.490
27 C3 186 -7.955
27 C3 187 -7.955
27 C3 188 -7.467
27 C3 189 -4.537
27 C3 190 -1.119
27 C3 191 2.787
27 C3 192 6.205
27 C3 193 8.647
27 C3 194 9.623
27 C3 195 8.647
27 C3 196 7.182
27 C3 197 5.229
27 C3 198 3.764
27 C3 199 2.787
27 C3 200 1.322
27 C3 201 -0.142
27 C3 202 -2.584
27 C3 203 -5.025
27 C3 204 -6.490
27 C3 205 -7.955
27 C3 206 -8.931
27 C3 207 -9.908
27 C3 208 -10.396
27 C3 209 -9.908
27 C3 210 -7.467
27 C3 211 -3.072
27 C3 212 1.322
27 C3 213 5.229
27 C3 214 7.670
27 C3 215 8.647
27 C3 216 8.647
27 C3 217 9.135
27 C3 218 9.623
27 C3 219 9.623
27 C3 220 8.647
27 C3 221 6.205
27 C3 222 3.764
27 C3 223 0.834
27 C3 224 -2.096
27 C3 225 -4.049
27 C3 226 -6.002
27 C3 227 -6.490
27 C3 228 -6.978
27 C3 229 -6.002
27 C3 230 -5.514
27 C3 231 -4.537
27 C3 232 -4.049
27 C3 233 -3.560
27 C3 234 -2.584
27 C3 235 -1.119
27 C3 236 0.346
27 C3 237 1.811
27 C3 238 3.276
27 C3 239 4.252
27 C3 240 5.229
27 C3 241 5.717
27 C3 242 5.717
27 C3 243 5.229
27 C3 244 3.276
27 C3 245 0.834
27 C3 246 -2.096
27 C3 247 -4.537
27 C3 248 -5.514
27 C3 249 -5.514
27 C3 250 -5.025
27 C3 251 -4.049
27 C3 252 -3.072
27 C3 253 -2.096
27 C3 254 -1.607
27 C3 255 -1.607
# C4 chan 17
27 C4 0 1.129
27 C4 1 1.617
27 C4 2 1.617
27 C4 3 0.641
27 C4 4 -0.336
27 C4 5 -1.312
27 C4 6 -1.801
27 C4 7 -1.312
27 C4 8 -0.824
27 C4 9 -0.824
27 C4 10 -0.336
27 C4 11 -0.336
27 C4 12 0.153
27 C4 13 1.129
27 C4 14 2.594
27 C4 15 4.059
27 C4 16 5.035
27 C4 17 5.524
27 C4 18 4.547
27 C4 19 3.082
27 C4 20 1.129
27 C4 21 -1.312
27 C4 22 -3.265
27 C4 23 -5.219
27 C4 24 -6.683
27 C4 25 -7.172
27 C4 26 -6.683
27 C4 27 -4.730
27 C4 28 -2.289
27 C4 29 1.129
27 C4 30 4.547
27 C4 31 7.965
27 C4 32 10.406
27 C4 33 10.895
27 C4 34 9.918
27 C4 35 7.965
27 C4 36 5.035
27 C4 37 2.594
27 C4 38 1.129
27 C4 39 -0.336
27 C4 40 -1.312
27 C4 41 -3.265
27 C4 42 -4.730
27 C4 43 -6.683
27 C4 44 -7.172
27 C4 45 -7.660
27 C4 46 -7.660
27 C4 47 -7.660
27 C4 48 -7.172
27 C4 49 -6.195
27 C4 50 -4.242
27 C4 51 -1.312
27 C4 52 2.106
27 C4 53 5.524
27 C4 54 7.477
27 C4 55 7.965
27 C4 56 6.012
27 C4 57 2.594
27 C4 58 0.153
27 C4 59 -0.824
27 C4 60 -1.312
27 C4 61 -0.336
27 C4 62 0.153
27 C4 63 -0.336
27 C4 64 -1.312
27 C4 65 -2.777
27 C4 66 -4.242
27 C4 67 -6.195
27 C4 68 -7.172
27 C4 69 -7.660
27 C4 70 -7.172
27 C4 71 -6.683
27 C4 72 -5.219
27 C4 73 -4.242
27 C4 74 -2.777
27 C4 75 -1.312
27 C4 76 0.153
27 C4 77 1.617
27 C4 78 3.082
27 C4 79 3.571
27 C4 80 3.571
27 C4 81 3.571
27 C4 82 2.594
27 C4 83 1.617
27 C4 84 0.641
27 C4 85 -0.824
27 C4 86 -1.312
27 C4 87 -1.312
27 C4 88 -1.312
27 C4 89 -0.824
27 C4 90 -1.312
27 C4 91 -2.777
27 C4 92 -4.242
27 C4 93 -5.219
27 C4 94 -4.730
27 C4 95 -3.265
27 C4 96 -1.801
27 C4 97 -0.336
27 C4 98 0.641
27 C4 99 0.641
27 C4 100 1.129
27 C4 101 1.129
27 C4 102 1.617
27 C4 103 1.617
27 C4 104 1.617
27 C4 105 1.129
27 C4 106 1.129
27 C4 107 1.129
27 C4 108 0.641
27 C4 109 0.641
27 C4 110 0.641
27 C4 111 -0.336
27 C4 112 -1.312
27 C4 113 -2.777
27 C4 114 -3.754
27 C4 115 -4.730
27 C4 116 -5.219
27 C4 117 -4.242
27 C4 118 -2.777
27 C4 119 -0.824
27 C4 120 0.153
27 C4 121 1.129
27 C4 122 1.129
27 C4 123 0.641
27 C4 124 0.641
27 C4 125 -0.336
27 C4 126 -0.824
27 C4 127 -1.312
27 C4 128 -1.312
27 C4 129 -0.824
27 C4 130 -0.336
27 C4 131 -0.336
27 C4 132 -0.824
27 C4 133 -1.801
27 C4 134 -3.265
27 C4 135 -4.242
27 C4 136 -5.707
27 C4 137 -6.683
27 C4 138 -7.172
27 C4 139 -6.683
27 C4 140 -5.219
27 C4 141 -2.777
27 C4 142 -0.336
27 C4 143 1.617
27 C4 144 1.617
27 C4 145 1.129
27 C4 146 0.153
27 C4 147 0.153
27 C4 148 1.129
27 C4 149 2.594
27 C4 150 3.571
27 C4 151 3.082
27 C4 152 1.129
27 C4 153 -1.312
27 C4 154 -4.242
27 C4 155 -5.707
27 C4 156 -6.683
27 C4 157 -6.195
27 C4 158 -6.195
27 C4 159 -5.707
27 C4 160 -5.219
27 C4 161 -4.730
27 C4 162 -3.754
27 C4 163 -1.801
27 C4 164 0.641
27 C4 165 4.059
27 C4 166 7.477
27 C4 167 9.430
27 C4 168 10.406
27 C4 169 9.430
27 C4 170 7.965
27 C4 171 6.012
27 C4 172 4.059
27 C4 173 2.594
27 C4 174 0.153
27 C4 175 -2.777
27 C4 176 -5.219
27 C4 177 -6.195
27 C4 178 -5.707
27 C4 179 -3.265
27 C4 180 -0.336
27 C4 181 1.129
27 C4 182 2.594
27 C4 183 2.106
27 C4 184 2.106
27 C4 185 3.082
27 C4 186 4.547
27 C4 187 6.012
27 C4 188 6.989
27 C4 189 7.477
27 C4 190 7.477
27 C4 191 6.500
27 C4 192 5.035
27 C4 193 2.594
27 C4 194 -0.336
27 C4 195 -2.777
27 C4 196 -5.707
27 C4 197 -6.683
27 C4 198 -6.683
27 C4 199 -5.219
27 C4 200 -3.265
27 C4 201 -1.801
27 C4 202 -0.824
27 C4 203 -0.824
27 C4 204 -0.336
27 C4 205 0.153
27 C4 206 1.129
27 C4 207 1.617
27 C4 208 2.594
27 C4 209 2.594
27 C4 210 2.594
27 C4 211 1.129
27 C4 212 1.129
27 C4 213 -0.336
27 C4 214 -1.801
27 C4 215 -3.754
27 C4 216 -5.707
27 C4 217 -7.172
27 C4 218 -8.148
27 C4 219 -8.148
27 C4 220 -7.172
27 C4 221 -5.219
27 C4 222 -2.777
27 C4 223 -0.824
27 C4 224 0.153
27 C4 225 0.153
27 C4 226 0.153
27 C4 227 -1.312
27 C4 228 -1.801
27 C4 229 -2.289
27 C4 230 -2.289
27 C4 231 -1.312
27 C4 232 0.153
27 C4 233 0.641
27 C4 234 0.641
27 C4 235 0.153
27 C4 236 -0.824
27 C4 237 -1.312
27 C4 238 -1.312
27 C4 239 -1.312
27 C4 240 -1.312
27 C4 241 -2.289
27 C4 242 -3.265
27 C4 243 -3.754
27 C4 244 -3.265
27 C4 245 -1.801
27 C4 246 -0.824
27 C4 247 0.153
27 C4 248 0.153
27 C4 249 0.153
27 C4 250 0.153
27 C4 251 0.153
27 C4 252 -0.336
27 C4 253 0.153
27 C4 254 0.641
27 C4 255 1.129
# CP5 chan 18
27 CP5 0 -6.989
27 CP5 1 -6.989
27 CP5 2 -6.989
27 CP5 3 -6.012
27 CP5 4 -4.547
27 CP5 5 -2.594
27 CP5 6 -0.153
27 CP5 7 2.289
27 CP5 8 4.242
27 CP5 9 6.195
27 CP5 10 7.172
27 CP5 11 6.683
27 CP5 12 4.730
27 CP5 13 1.312
27 CP5 14 -2.594
27 CP5 15 -5.524
27 CP5 16 -7.477
27 CP5 17 -8.453
27 CP5 18 -9.430
27 CP5 19 -9.918
27 CP5 20 -11.383
27 CP5 21 -11.383
27 CP5 22 -9.430
27 CP5 23 -6.500
27 CP5 24 -3.082
27 CP5 25 -0.153
27 CP5 26 1.312
27 CP5 27 1.801
27 CP5 28 2.777
27 CP5 29 4.730
27 CP5 30 7.660
27 CP5 31 10.101
27 CP5 32 10.590
27 CP5 33 8.148
27 CP5 34 3.265
27 CP5 35 -2.106
27 CP5 36 -6.500
27 CP5 37 -10.406
27 CP5 38 -13.336
27 CP5 39 -14.801
27 CP5 40 -15.289
27 CP5 41 -14.313
27 CP5 42 -12.848
27 CP5 43 -10.895
27 CP5 44 -9.918
27 CP5 45 -10.406
27 CP5 46 -11.871
27 CP5 47 -12.848
27 CP5 48 -11.871
27 CP5 49 -9.918
27 CP5 50 -7.477
27 CP5 51 -6.500
27 CP5 52 -5.524
27 CP5 53 -4.547
27 CP5 54 -2.594
27 CP5 55 0.824
27 CP5 56 3.754
27 CP5 57 5.219
27 CP5 58 5.219
27 CP5 59 3.265
27 CP5 60 -0.641
27 CP5 61 -5.035
27 CP5 62 -10.406
27 CP5 63 -15.289
27 CP5 64 -19.196
27 CP5 65 -20.660
27 CP5 66 -19.684
27 CP5 67 -16.266
27 CP5 68 -12.848
27 CP5 69 -9.918
27 CP5 70 -7.965
27 CP5 71 -7.477
27 CP5 72 -7.477
27 CP5 73 -7.477
27 CP5 74 -7.477
27 CP5 75 -8.453
27 CP5 76 -9.918
27 CP5 77 -10.895
27 CP5 78 -10.406
27 CP5 79 -8.942
27 CP5 80 -6.500
27 CP5 81 -4.547
27 CP5 82 -3.571
27 CP5 83 -4.059
27 CP5 84 -5.035
27 CP5 85 -6.012
27 CP5 86 -6.989
27 CP5 87 -7.477
27 CP5 88 -7.477
27 CP5 89 -7.477
27 CP5 90 -7.965
27 CP5 91 -7.477
27 CP5 92 -6.989
27 CP5 93 -5.524
27 CP5 94 -5.035
27 CP5 95 -4.547
27 CP5 96 -5.035
27 CP5 97 -5.035
27 CP5 98 -5.035
27 CP5 99 -5.035
27 CP5 100 -5.035
27 CP5 101 -5.524
27 CP5 102 -5.524
27 CP5 103 -5.524
27 CP5 104 -5.524
27 CP5 105 -5.035
27 CP5 106 -4.547
27 CP5 107 -4.059
27 CP5 108 -3.082
27 CP5 109 -2.106
27 CP5 110 -1.129
27 CP5 111 -0.641
27 CP5 112 -0.641
27 CP5 113 -0.641
27 CP5 114 -0.153
27 CP5 115 0.824
27 CP5 116 2.777
27 CP5 117 4.242
27 CP5 118 4.242
27 CP5 119 3.754
27 CP5 120 2.289
27 CP5 121 0.336
27 CP5 122 -2.106
27 CP5 123 -4.059
27 CP5 124 -4.547
27 CP5 125 -5.035
27 CP5 126 -4.059
27 CP5 127 -2.594
27 CP5 128 -2.106
27 CP5 129 -3.082
27 CP5 130 -5.035
27 CP5 131 -6.500
27 CP5 132 -6.989
27 CP5 133 -6.012
27 CP5 134 -4.547
27 CP5 135 -2.594
27 CP5 136 -1.129
27 CP5 137 -0.641
27 CP5 138 -0.153
27 CP5 139 0.336
27 CP5 140 -0.153
27 CP5 141 -1.617
27 CP5 142 -4.059
27 CP5 143 -6.012
27 CP5 144 -6.500
27 CP5 145 -5.035
27 CP5 146 -3.082
27 CP5 147 -1.129
27 CP5 148 -0.641
27 CP5 149 -1.129
27 CP5 150 -1.617
27 CP5 151 -2.594
27 CP5 152 -3.082
27 CP5 153 -4.059
27 CP5 154 -5.035
27 CP5 155 -5.035
27 CP5 156 -4.059
27 CP5 157 -2.594
27 CP5 158 -1.129
27 CP5 159 -0.153
27 CP5 160 0.336
27 CP5 161 0.336
27 CP5 162 0.824
27 CP5 163 1.312
27 CP5 164 0.336
27 CP5 165 -1.129
27 CP5 166 -3.082
27 CP5 167 -5.035
27 CP5 168 -5.524
27 CP5 169 -4.547
27 CP5 170 -2.594
27 CP5 171 -1.129
27 CP5 172 -0.641
27 CP5 173 -0.153
27 CP5 174 0.336
27 CP5 175 1.801
27 CP5 176 3.265
27 CP5 177 4.730
27 CP5 178 5.219
27 CP5 179 3.754
27 CP5 180 1.312
27 CP5 181 -1.617
27 CP5 182 -4.547
27 CP5 183 -7.477
27 CP5 184 -10.406
27 CP5 185 -12.848
27 CP5 186 -14.801
27 CP5 187 -15.289
27 CP5 188 -13.336
27 CP5 189 -9.430
27 CP5 190 -4.059
27 CP5 191 2.777
27 CP5 192 8.636
27 CP5 193 12.054
27 CP5 194 12.543
27 CP5 195 11.078
27 CP5 196 8.148
27 CP5 197 5.219
27 CP5 198 3.265
27 CP5 199 2.289
27 CP5 200 0.336
27 CP5 201 -3.082
27 CP5 202 -6.989
27 CP5 203 -11.383
27 CP5 204 -14.313
27 CP5 205 -17.242
27 CP5 206 -19.684
27 CP5 207 -22.614
27 CP5 208 -24.567
27 CP5 209 -23.102
27 CP5 210 -18.219
27 CP5 211 -10.406
27 CP5 212 -1.617
27 CP5 213 5.707
27 CP5 214 10.101
27 CP5 215 12.543
27 CP5 216 14.008
27 CP5 217 14.496
27 CP5 218 14.984
27 CP5 219 14.496
27 CP5 220 12.054
27 CP5 221 8.636
27 CP5 222 5.219
27 CP5 223 1.312
27 CP5 224 -2.594
27 CP5 225 -6.012
27 CP5 226 -9.430
27 CP5 227 -12.360
27 CP5 228 -13.824
27 CP5 229 -14.801
27 CP5 230 -14.313
27 CP5 231 -14.313
27 CP5 232 -14.313
27 CP5 233 -13.336
27 CP5 234 -10.406
27 CP5 235 -6.500
27 CP5 236 -1.617
27 CP5 237 3.265
27 CP5 238 7.172
27 CP5 239 10.101
27 CP5 240 12.054
27 CP5 241 12.543
27 CP5 242 12.054
27 CP5 243 10.101
27 CP5 244 5.707
27 CP5 245 0.336
27 CP5 246 -5.524
27 CP5 247 -9.918
27 CP5 248 -11.871
27 CP5 249 -11.383
27 CP5 250 -9.430
27 CP5 251 -6.989
27 CP5 252 -5.035
27 CP5 253 -3.571
27 CP5 254 -3.082
27 CP5 255 -3.571
# CP6 chan 19
27 CP6 0 2.197
27 CP6 1 3.174
27 CP6 2 3.174
27 CP6 3 2.197
27 CP6 4 1.709
27 CP6 5 0.732
27 CP6 6 0.732
27 CP6 7 1.221
27 CP6 8 2.197
27 CP6 9 2.686
27 CP6 10 2.686
27 CP6 11 2.686
27 CP6 12 2.686
27 CP6 13 3.662
27 CP6 14 4.639
27 CP6 15 6.104
27 CP6 16 6.592
27 CP6 17 6.592
27 CP6 18 5.127
27 CP6 19 2.686
27 CP6 20 0.244
27 CP6 21 -2.686
27 CP6 22 -5.615
27 CP6 23 -8.545
27 CP6 24 -10.498
27 CP6 25 -10.498
27 CP6 26 -9.033
27 CP6 27 -6.104
27 CP6 28 -1.709
27 CP6 29 3.174
27 CP6 30 8.545
27 CP6 31 12.939
27 CP6 32 14.893
27 CP6 33 13.428
27 CP6 34 9.521
27 CP6 35 3.662
27 CP6 36 -1.221
27 CP6 37 -5.127
27 CP6 38 -7.080
27 CP6 39 -8.545
27 CP6 40 -10.498
27 CP6 41 -12.451
27 CP6 42 -14.404
27 CP6 43 -15.381
27 CP6 44 -15.869
27 CP6 45 -15.869
27 CP6 46 -16.357
27 CP6 47 -17.334
27 CP6 48 -17.334
27 CP6 49 -16.357
27 CP6 50 -12.939
27 CP6 51 -7.080
27 CP6 52 -0.244
27 CP6 53 5.615
27 CP6 54 10.498
27 CP6 55 11.475
27 CP6 56 9.033
27 CP6 57 4.639
27 CP6 58 -0.732
27 CP6 59 -4.639
27 CP6 60 -6.592
27 CP6 61 -7.080
27 CP6 62 -6.592
27 CP6 63 -7.080
27 CP6 64 -9.033
27 CP6 65 -11.475
27 CP6 66 -13.916
27 CP6 67 -15.869
27 CP6 68 -17.334
27 CP6 69 -18.311
27 CP6 70 -18.311
27 CP6 71 -17.822
27 CP6 72 -16.357
27 CP6 73 -14.404
27 CP6 74 -11.963
27 CP6 75 -9.521
27 CP6 76 -7.080
27 CP6 77 -5.127
27 CP6 78 -3.662
27 CP6 79 -2.197
27 CP6 80 -0.732
27 CP6 81 -0.244
27 CP6 82 -0.244
27 CP6 83 -1.709
27 CP6 84 -3.662
27 CP6 85 -6.592
27 CP6 86 -7.568
27 CP6 87 -8.057
27 CP6 88 -8.057
27 CP6 89 -8.057
27 CP6 90 -10.010
27 CP6 91 -11.963
27 CP6 92 -13.428
27 CP6 93 -13.916
27 CP6 94 -12.451
27 CP6 95 -9.521
27 CP6 96 -7.080
27 CP6 97 -4.639
27 CP6 98 -3.174
27 CP6 99 -2.197
27 CP6 100 -1.709
27 CP6 101 -1.709
27 CP6 102 -1.221
27 CP6 103 -1.221
27 CP6 104 -1.709
27 CP6 105 -2.197
27 CP6 106 -2.686
27 CP6 107 -3.174
27 CP6 108 -3.174
27 CP6 109 -2.686
27 CP6 110 -2.197
27 CP6 111 -2.686
27 CP6 112 -3.662
27 CP6 113 -6.104
27 CP6 114 -8.545
27 CP6 115 -10.010
27 CP6 116 -10.010
27 CP6 117 -7.568
27 CP6 118 -4.639
27 CP6 119 -1.709
27 CP6 120 0.244
27 CP6 121 0.244
27 CP6 122 -0.732
27 CP6 123 -2.197
27 CP6 124 -3.174
27 CP6 125 -3.662
27 CP6 126 -2.686
27 CP6 127 -1.709
27 CP6 128 -1.221
27 CP6 129 -1.221
27 CP6 130 -2.686
27 CP6 131 -4.150
27 CP6 132 -5.615
27 CP6 133 -6.104
27 CP6 134 -6.104
27 CP6 135 -6.592
27 CP6 136 -7.568
27 CP6 137 -9.033
27 CP6 138 -10.498
27 CP6 139 -10.498
27 CP6 140 -8.545
27 CP6 141 -4.639
27 CP6 142 -2.197
27 CP6 143 -0.244
27 CP6 144 -0.732
27 CP6 145 -1.709
27 CP6 146 -2.197
27 CP6 147 -1.221
27 CP6 148 0.732
27 CP6 149 3.174
27 CP6 150 3.662
27 CP6 151 2.686
27 CP6 152 0.244
27 CP6 153 -2.686
27 CP6 154 -4.639
27 CP6 155 -5.615
27 CP6 156 -5.127
27 CP6 157 -4.150
27 CP6 158 -3.174
27 CP6 159 -3.174
27 CP6 160 -4.150
27 CP6 161 -5.127
27 CP6 162 -5.615
27 CP6 163 -5.127
27 CP6 164 -2.686
27 CP6 165 0.732
27 CP6 166 5.127
27 CP6 167 8.057
27 CP6 168 10.010
27 CP6 169 9.521
27 CP6 170 8.057
27 CP6 171 6.592
27 CP6 172 4.639
27 CP6 173 2.686
27 CP6 174 -0.244
27 CP6 175 -3.174
27 CP6 176 -5.615
27 CP6 177 -6.592
27 CP6 178 -6.104
27 CP6 179 -3.662
27 CP6 180 -2.197
27 CP6 181 -1.221
27 CP6 182 -1.709
27 CP6 183 -2.197
27 CP6 184 -1.221
27 CP6 185 -0.244
27 CP6 186 2.197
27 CP6 187 3.662
27 CP6 188 4.639
27 CP6 189 5.127
27 CP6 190 4.639
27 CP6 191 4.639
27 CP6 192 3.662
27 CP6 193 1.221
27 CP6 194 -2.197
27 CP6 195 -6.592
27 CP6 196 -9.521
27 CP6 197 -10.986
27 CP6 198 -10.010
27 CP6 199 -7.568
27 CP6 200 -4.639
27 CP6 201 -2.686
27 CP6 202 -1.709
27 CP6 203 -1.221
27 CP6 204 -2.197
27 CP6 205 -3.174
27 CP6 206 -4.150
27 CP6 207 -4.639
27 CP6 208 -4.639
27 CP6 209 -4.150
27 CP6 210 -3.174
27 CP6 211 -3.174
27 CP6 212 -3.662
27 CP6 213 -4.150
27 CP6 214 -4.150
27 CP6 215 -4.150
27 CP6 216 -4.639
27 CP6 217 -5.127
27 CP6 218 -6.592
27 CP6 219 -7.568
27 CP6 220 -6.592
27 CP6 221 -3.662
27 CP6 222 -0.244
27 CP6 223 2.197
27 CP6 224 3.662
27 CP6 225 2.686
27 CP6 226 0.732
27 CP6 227 -1.221
27 CP6 228 -2.686
27 CP6 229 -3.174
27 CP6 230 -2.686
27 CP6 231 -1.221
27 CP6 232 0.732
27 CP6 233 2.686
27 CP6 234 3.662
27 CP6 235 3.662
27 CP6 236 3.662
27 CP6 237 4.150
27 CP6 238 4.639
27 CP6 239 5.127
27 CP6 240 4.639
27 CP6 241 2.686
27 CP6 242 0.732
27 CP6 243 -1.221
27 CP6 244 -1.709
27 CP6 245 -1.221
27 CP6 246 -0.244
27 CP6 247 0.244
27 CP6 248 0.244
27 CP6 249 0.244
27 CP6 250 0.732
27 CP6 251 1.221
27 CP6 252 2.197
27 CP6 253 1.709
27 CP6 254 1.221
27 CP6 255 0.732
# CP1 chan 20
27 CP1 0 -1.770
27 CP1 1 -2.258
27 CP1 2 -1.282
27 CP1 3 -0.793
27 CP1 4 -0.305
27 CP1 5 0.183
27 CP1 6 0.671
27 CP1 7 0.671
27 CP1 8 1.160
27 CP1 9 1.160
27 CP1 10 1.160
27 CP1 11 0.671
27 CP1 12 -0.793
27 CP1 13 -2.258
27 CP1 14 -3.723
27 CP1 15 -4.700
27 CP1 16 -5.188
27 CP1 17 -5.188
27 CP1 18 -4.700
27 CP1 19 -4.700
27 CP1 20 -4.211
27 CP1 21 -3.235
27 CP1 22 -2.258
27 CP1 23 -1.282
27 CP1 24 -0.793
27 CP1 25 -0.305
27 CP1 26 0.183
27 CP1 27 0.671
27 CP1 28 0.671
27 CP1 29 1.160
27 CP1 30 1.648
27 CP1 31 2.136
27 CP1 32 2.136
27 CP1 33 1.160
27 CP1 34 -0.305
27 CP1 35 -1.770
27 CP1 36 -2.258
27 CP1 37 -3.723
27 CP1 38 -4.211
27 CP1 39 -5.188
27 CP1 40 -6.165
27 CP1 41 -6.165
27 CP1 42 -5.676
27 CP1 43 -4.700
27 CP1 44 -4.211
27 CP1 45 -3.723
27 CP1 46 -3.723
27 CP1 47 -3.723
27 CP1 48 -2.747
27 CP1 49 -2.258
27 CP1 50 -1.282
27 CP1 51 -1.282
27 CP1 52 -1.282
27 CP1 53 -0.793
27 CP1 54 -0.305
27 CP1 55 1.160
27 CP1 56 2.625
27 CP1 57 3.601
27 CP1 58 2.625
27 CP1 59 0.671
27 CP1 60 -1.770
27 CP1 61 -3.723
27 CP1 62 -5.188
27 CP1 63 -6.165
27 CP1 64 -6.653
27 CP1 65 -6.165
27 CP1 66 -5.188
27 CP1 67 -3.723
27 CP1 68 -2.258
27 CP1 69 -1.282
27 CP1 70 -1.770
27 CP1 71 -2.258
27 CP1 72 -3.235
27 CP1 73 -3.723
27 CP1 74 -3.723
27 CP1 75 -3.235
27 CP1 76 -2.747
27 CP1 77 -2.747
27 CP1 78 -2.747
27 CP1 79 -1.770
27 CP1 80 -1.282
27 CP1 81 -0.305
27 CP1 82 0.183
27 CP1 83 0.671
27 CP1 84 0.671
27 CP1 85 0.671
27 CP1 86 0.671
27 CP1 87 0.671
27 CP1 88 0.671
27 CP1 89 0.671
27 CP1 90 1.648
27 CP1 91 2.625
27 CP1 92 3.601
27 CP1 93 4.089
27 CP1 94 3.601
27 CP1 95 2.625
27 CP1 96 1.648
27 CP1 97 1.648
27 CP1 98 1.648
27 CP1 99 2.136
27 CP1 100 2.625
27 CP1 101 2.625
27 CP1 102 3.113
27 CP1 103 3.113
27 CP1 104 2.625
27 CP1 105 2.136
27 CP1 106 1.160
27 CP1 107 0.671
27 CP1 108 1.160
27 CP1 109 2.625
27 CP1 110 4.089
27 CP1 111 5.066
27 CP1 112 5.554
27 CP1 113 5.554
27 CP1 114 5.554
27 CP1 115 5.554
27 CP1 116 6.042
27 CP1 117 6.531
27 CP1 118 6.042
27 CP1 119 5.554
27 CP1 120 4.578
27 CP1 121 4.578
27 CP1 122 4.089
27 CP1 123 3.601
27 CP1 124 3.601
27 CP1 125 3.601
27 CP1 126 4.089
27 CP1 127 4.578
27 CP1 128 4.578
27 CP1 129 3.601
27 CP1 130 2.136
27 CP1 131 1.648
27 CP1 132 2.136
27 CP1 133 3.601
27 CP1 134 5.554
27 CP1 135 7.019
27 CP1 136 7.507
27 CP1 137 7.507
27 CP1 138 7.996
27 CP1 139 7.996
27 CP1 140 7.507
27 CP1 141 6.042
27 CP1 142 4.578
27 CP1 143 3.601
27 CP1 144 3.113
27 CP1 145 3.113
27 CP1 146 3.601
27 CP1 147 3.601
27 CP1 148 3.113
27 CP1 149 3.113
27 CP1 150 3.113
27 CP1 151 3.601
27 CP1 152 3.601
27 CP1 153 3.601
27 CP1 154 3.601
27 CP1 155 4.578
27 CP1 156 6.531
27 CP1 157 8.484
27 CP1 158 9.949
27 CP1 159 10.437
27 CP1 160 9.460
27 CP1 161 7.996
27 CP1 162 5.554
27 CP1 163 3.113
27 CP1 164 1.160
27 CP1 165 -0.793
27 CP1 166 -0.793
27 CP1 167 -0.305
27 CP1 168 0.671
27 CP1 169 2.625
27 CP1 170 3.601
27 CP1 171 4.089
27 CP1 172 4.578
27 CP1 173 5.554
27 CP1 174 6.531
27 CP1 175 7.996
27 CP1 176 8.484
27 CP1 177 7.996
27 CP1 178 6.531
27 CP1 179 5.066
27 CP1 180 3.113
27 CP1 181 1.160
27 CP1 182 -0.305
27 CP1 183 -1.282
27 CP1 184 -1.770
27 CP1 185 -2.258
27 CP1 186 -2.747
27 CP1 187 -3.235
27 CP1 188 -3.235
27 CP1 189 -2.258
27 CP1 190 -0.305
27 CP1 191 2.625
27 CP1 192 6.042
27 CP1 193 7.996
27 CP1 194 8.972
27 CP1 195 8.484
27 CP1 196 7.507
27 CP1 197 6.531
27 CP1 198 6.042
27 CP1 199 5.554
27 CP1 200 5.066
27 CP1 201 4.089
27 CP1 202 2.136
27 CP1 203 0.183
27 CP1 204 -1.770
27 CP1 205 -3.235
27 CP1 206 -5.188
27 CP1 207 -6.653
27 CP1 208 -7.629
27 CP1 209 -7.141
27 CP1 210 -5.188
27 CP1 211 -1.770
27 CP1 212 2.625
27 CP1 213 5.554
27 CP1 214 8.484
27 CP1 215 9.949
27 CP1 216 10.925
27 CP1 217 11.902
27 CP1 218 12.390
27 CP1 219 11.902
27 CP1 220 9.949
27 CP1 221 7.996
27 CP1 222 6.042
27 CP1 223 5.066
27 CP1 224 4.578
27 CP1 225 4.089
27 CP1 226 3.601
27 CP1 227 3.113
27 CP1 228 2.625
27 CP1 229 2.136
27 CP1 230 2.625
27 CP1 231 3.113
27 CP1 232 3.601
27 CP1 233 4.578
27 CP1 234 5.554
27 CP1 235 6.531
27 CP1 236 7.507
27 CP1 237 9.460
27 CP1 238 11.414
27 CP1 239 12.878
27 CP1 240 13.367
27 CP1 241 11.902
27 CP1 242 9.949
27 CP1 243 7.507
27 CP1 244 6.042
27 CP1 245 4.578
27 CP1 246 3.601
27 CP1 247 3.601
27 CP1 248 3.113
27 CP1 249 3.113
27 CP1 250 3.601
27 CP1 251 3.601
27 CP1 252 4.089
27 CP1 253 3.601
27 CP1 254 3.601
27 CP1 255 3.113
# CP2 chan 21
27 CP2 0 0.580
27 CP2 1 0.092
27 CP2 2 -0.397
27 CP2 3 -1.373
27 CP2 4 -2.350
27 CP2 5 -3.326
27 CP2 6 -3.326
27 CP2 7 -2.838
27 CP2 8 -1.862
27 CP2 9 -1.373
27 CP2 10 -0.885
27 CP2 11 -1.373
27 CP2 12 -0.885
27 CP2 13 -0.397
27 CP2 14 0.580
27 CP2 15 1.556
27 CP2 16 2.045
27 CP2 17 2.045
27 CP2 18 1.556
27 CP2 19 0.580
27 CP2 20 -0.885
27 CP2 21 -2.350
27 CP2 22 -4.303
27 CP2 23 -6.256
27 CP2 24 -7.721
27 CP2 25 -8.209
27 CP2 26 -7.721
27 CP2 27 -6.744
27 CP2 28 -4.791
27 CP2 29 -2.350
27 CP2 30 0.580
27 CP2 31 3.510
27 CP2 32 5.463
27 CP2 33 5.463
27 CP2 34 3.021
27 CP2 35 -0.397
27 CP2 36 -3.326
27 CP2 37 -4.791
27 CP2 38 -4.791
27 CP2 39 -4.791
27 CP2 40 -5.280
27 CP2 41 -6.744
27 CP2 42 -8.209
27 CP2 43 -8.698
27 CP2 44 -9.186
27 CP2 45 -8.698
27 CP2 46 -8.698
27 CP2 47 -9.186
27 CP2 48 -9.674
27 CP2 49 -9.186
27 CP2 50 -8.209
27 CP2 51 -5.280
27 CP2 52 -2.350
27 CP2 53 1.068
27 CP2 54 3.021
27 CP2 55 3.998
27 CP2 56 3.021
27 CP2 57 1.068
27 CP2 58 -1.373
27 CP2 59 -3.326
27 CP2 60 -4.791
27 CP2 61 -5.280
27 CP2 62 -4.791
27 CP2 63 -4.791
27 CP2 64 -5.280
27 CP2 65 -5.768
27 CP2 66 -6.256
27 CP2 67 -7.233
27 CP2 68 -7.721
27 CP2 69 -8.698
27 CP2 70 -9.674
27 CP2 71 -10.162
27 CP2 72 -10.162
27 CP2 73 -9.186
27 CP2 74 -7.721
27 CP2 75 -6.256
27 CP2 76 -5.280
27 CP2 77 -4.303
27 CP2 78 -3.326
27 CP2 79 -1.862
27 CP2 80 -0.397
27 CP2 81 0.580
27 CP2 82 1.068
27 CP2 83 0.580
27 CP2 84 -0.885
27 CP2 85 -1.862
27 CP2 86 -2.350
27 CP2 87 -2.350
27 CP2 88 -2.350
27 CP2 89 -2.350
27 CP2 90 -2.838
27 CP2 91 -3.326
27 CP2 92 -3.815
27 CP2 93 -3.326
27 CP2 94 -2.838
27 CP2 95 -2.350
27 CP2 96 -1.862
27 CP2 97 -1.862
27 CP2 98 -0.885
27 CP2 99 -0.397
27 CP2 100 0.580
27 CP2 101 1.068
27 CP2 102 1.556
27 CP2 103 1.556
27 CP2 104 1.068
27 CP2 105 0.580
27 CP2 106 -0.397
27 CP2 107 -0.885
27 CP2 108 -0.885
27 CP2 109 -0.885
27 CP2 110 -0.397
27 CP2 111 -0.397
27 CP2 112 -0.397
27 CP2 113 -1.373
27 CP2 114 -2.838
27 CP2 115 -3.815
27 CP2 116 -3.815
27 CP2 117 -2.838
27 CP2 118 -1.373
27 CP2 119 0.092
27 CP2 120 0.580
27 CP2 121 0.092
27 CP2 122 -0.397
27 CP2 123 -0.885
27 CP2 124 -0.397
27 CP2 125 -0.397
27 CP2 126 0.580
27 CP2 127 1.068
27 CP2 128 1.556
27 CP2 129 0.580
27 CP2 130 -0.397
27 CP2 131 -1.862
27 CP2 132 -2.350
27 CP2 133 -2.350
27 CP2 134 -1.862
27 CP2 135 -0.885
27 CP2 136 -0.885
27 CP2 137 -1.862
27 CP2 138 -2.350
27 CP2 139 -2.350
27 CP2 140 -1.373
27 CP2 141 0.092
27 CP2 142 1.068
27 CP2 143 1.556
27 CP2 144 1.068
27 CP2 145 0.580
27 CP2 146 0.580
27 CP2 147 1.068
27 CP2 148 1.556
27 CP2 149 2.533
27 CP2 150 2.533
27 CP2 151 2.533
27 CP2 152 2.045
27 CP2 153 1.556
27 CP2 154 1.556
27 CP2 155 1.556
27 CP2 156 2.533
27 CP2 157 3.021
27 CP2 158 3.510
27 CP2 159 3.021
27 CP2 160 2.045
27 CP2 161 0.580
27 CP2 162 -0.397
27 CP2 163 -0.885
27 CP2 164 -0.397
27 CP2 165 1.556
27 CP2 166 3.510
27 CP2 167 5.463
27 CP2 168 6.439
27 CP2 169 6.439
27 CP2 170 5.463
27 CP2 171 4.486
27 CP2 172 3.510
27 CP2 173 3.021
27 CP2 174 2.533
27 CP2 175 1.556
27 CP2 176 0.580
27 CP2 177 0.092
27 CP2 178 0.092
27 CP2 179 0.092
27 CP2 180 0.580
27 CP2 181 0.092
27 CP2 182 0.092
27 CP2 183 0.092
27 CP2 184 0.580
27 CP2 185 1.556
27 CP2 186 3.021
27 CP2 187 3.510
27 CP2 188 3.998
27 CP2 189 3.510
27 CP2 190 3.510
27 CP2 191 3.510
27 CP2 192 3.021
27 CP2 193 2.533
27 CP2 194 0.580
27 CP2 195 -0.885
27 CP2 196 -2.350
27 CP2 197 -2.838
27 CP2 198 -2.350
27 CP2 199 -0.885
27 CP2 200 0.580
27 CP2 201 1.556
27 CP2 202 2.533
27 CP2 203 2.045
27 CP2 204 1.556
27 CP2 205 0.580
27 CP2 206 -0.397
27 CP2 207 -1.373
27 CP2 208 -2.350
27 CP2 209 -2.350
27 CP2 210 -2.350
27 CP2 211 -1.862
27 CP2 212 -1.373
27 CP2 213 -0.397
27 CP2 214 0.092
27 CP2 215 0.580
27 CP2 216 1.068
27 CP2 217 1.068
27 CP2 218 0.580
27 CP2 219 0.092
27 CP2 220 0.580
27 CP2 221 1.556
27 CP2 222 3.021
27 CP2 223 3.998
27 CP2 224 3.510
27 CP2 225 2.533
27 CP2 226 0.580
27 CP2 227 -0.885
27 CP2 228 -1.862
27 CP2 229 -2.350
27 CP2 230 -1.373
27 CP2 231 0.092
27 CP2 232 2.533
27 CP2 233 4.486
27 CP2 234 5.463
27 CP2 235 5.951
27 CP2 236 5.951
27 CP2 237 5.951
27 CP2 238 6.439
27 CP2 239 6.439
27 CP2 240 5.463
27 CP2 241 3.510
27 CP2 242 1.068
27 CP2 243 -0.885
27 CP2 244 -1.373
27 CP2 245 -1.373
27 CP2 246 -0.885
27 CP2 247 -0.397
27 CP2 248 -0.397
27 CP2 249 0.092
27 CP2 250 0.580
27 CP2 251 1.068
27 CP2 252 1.556
27 CP2 253 1.556
27 CP2 254 1.068
27 CP2 255 0.092
# P3 chan 22
27 P3 0 -3.805
27 P3 1 -3.805
27 P3 2 -3.316
27 P3 3 -1.851
27 P3 4 0.590
27 P3 5 3.520
27 P3 6 5.961
27 P3 7 7.426
27 P3 8 8.403
27 P3 9 8.403
27 P3 10 7.914
27 P3 11 6.449
27 P3 12 3.520
27 P3 13 -0.387
27 P3 14 -4.293
27 P3 15 -6.734
27 P3 16 -7.222
27 P3 17 -6.734
27 P3 18 -6.246
27 P3 19 -6.734
27 P3 20 -6.734
27 P3 21 -6.246
27 P3 22 -3.805
27 P3 23 -0.387
27 P3 24 2.543
27 P3 25 3.520
27 P3 26 3.031
27 P3 27 2.055
27 P3 28 2.543
27 P3 29 5.473
27 P3 30 8.891
27 P3 31 11.820
27 P3 32 12.309
27 P3 33 8.891
27 P3 34 4.008
27 P3 35 -1.851
27 P3 36 -6.734
27 P3 37 -10.152
27 P3 38 -13.082
27 P3 39 -15.035
27 P3 40 -16.500
27 P3 41 -16.500
27 P3 42 -15.523
27 P3 43 -13.082
27 P3 44 -11.129
27 P3 45 -10.152
27 P3 46 -10.152
27 P3 47 -10.152
27 P3 48 -10.640
27 P3 49 -9.664
27 P3 50 -8.199
27 P3 51 -6.246
27 P3 52 -4.293
27 P3 53 -1.851
27 P3 54 0.590
27 P3 55 2.543
27 P3 56 3.031
27 P3 57 3.031
27 P3 58 1.078
27 P3 59 -1.851
27 P3 60 -5.758
27 P3 61 -9.176
27 P3 62 -12.594
27 P3 63 -15.523
27 P3 64 -17.965
27 P3 65 -18.453
27 P3 66 -16.988
27 P3 67 -14.058
27 P3 68 -10.640
27 P3 69 -8.199
27 P3 70 -6.734
27 P3 71 -7.222
27 P3 72 -7.711
27 P3 73 -7.711
27 P3 74 -7.711
27 P3 75 -7.711
27 P3 76 -7.711
27 P3 77 -7.711
27 P3 78 -6.734
27 P3 79 -4.781
27 P3 80 -2.340
27 P3 81 0.102
27 P3 82 1.078
27 P3 83 1.078
27 P3 84 0.590
27 P3 85 -0.387
27 P3 86 -0.875
27 P3 87 -1.851
27 P3 88 -3.805
27 P3 89 -5.758
27 P3 90 -6.734
27 P3 91 -6.734
27 P3 92 -5.758
27 P3 93 -5.269
27 P3 94 -4.781
27 P3 95 -5.269
27 P3 96 -5.269
27 P3 97 -4.781
27 P3 98 -3.805
27 P3 99 -2.828
27 P3 100 -2.828
27 P3 101 -3.316
27 P3 102 -3.316
27 P3 103 -2.828
27 P3 104 -1.851
27 P3 105 -1.851
27 P3 106 -2.340
27 P3 107 -3.805
27 P3 108 -4.293
27 P3 109 -3.805
27 P3 110 -2.828
27 P3 111 -2.828
27 P3 112 -3.805
27 P3 113 -4.781
27 P3 114 -5.269
27 P3 115 -3.805
27 P3 116 -1.851
27 P3 117 0.102
27 P3 118 1.078
27 P3 119 0.102
27 P3 120 -1.851
27 P3 121 -3.805
27 P3 122 -5.758
27 P3 123 -7.222
27 P3 124 -7.222
27 P3 125 -5.758
27 P3 126 -2.828
27 P3 127 -0.387
27 P3 128 -0.387
27 P3 129 -2.340
27 P3 130 -6.246
27 P3 131 -9.664
27 P3 132 -10.152
27 P3 133 -8.199
27 P3 134 -5.269
27 P3 135 -2.828
27 P3 136 -1.363
27 P3 137 -0.387
27 P3 138 0.102
27 P3 139 0.590
27 P3 140 0.102
27 P3 141 -2.828
27 P3 142 -5.758
27 P3 143 -7.711
27 P3 144 -7.222
27 P3 145 -4.293
27 P3 146 -1.363
27 P3 147 0.590
27 P3 148 0.590
27 P3 149 0.102
27 P3 150 -0.875
27 P3 151 -0.875
27 P3 152 -0.387
27 P3 153 -0.387
27 P3 154 0.102
27 P3 155 0.590
27 P3 156 2.543
27 P3 157 4.496
27 P3 158 5.961
27 P3 159 5.961
27 P3 160 4.008
27 P3 161 1.078
27 P3 162 -1.363
27 P3 163 -3.805
27 P3 164 -6.246
27 P3 165 -7.711
27 P3 166 -8.687
27 P3 167 -8.199
27 P3 168 -6.246
27 P3 169 -3.805
27 P3 170 -1.363
27 P3 171 -0.387
27 P3 172 0.102
27 P3 173 0.590
27 P3 174 2.055
27 P3 175 4.985
27 P3 176 6.449
27 P3 177 7.914
27 P3 178 6.449
27 P3 179 4.008
27 P3 180 0.102
27 P3 181 -3.805
27 P3 182 -6.734
27 P3 183 -10.152
27 P3 184 -12.594
27 P3 185 -15.035
27 P3 186 -16.988
27 P3 187 -17.965
27 P3 188 -16.988
27 P3 189 -13.082
27 P3 190 -6.734
27 P3 191 0.590
27 P3 192 7.914
27 P3 193 11.820
27 P3 194 12.797
27 P3 195 9.867
27 P3 196 6.938
27 P3 197 4.496
27 P3 198 3.520
27 P3 199 3.031
27 P3 200 0.590
27 P3 201 -3.316
27 P3 202 -8.687
27 P3 203 -13.082
27 P3 204 -16.500
27 P3 205 -18.941
27 P3 206 -21.871
27 P3 207 -25.289
27 P3 208 -28.219
27 P3 209 -28.219
27 P3 210 -24.312
27 P3 211 -17.476
27 P3 212 -8.687
27 P3 213 -1.363
27 P3 214 4.008
27 P3 215 8.403
27 P3 216 11.332
27 P3 217 13.774
27 P3 218 14.750
27 P3 219 13.774
27 P3 220 10.844
27 P3 221 6.938
27 P3 222 4.008
27 P3 223 1.078
27 P3 224 -1.363
27 P3 225 -3.805
27 P3 226 -7.222
27 P3 227 -10.640
27 P3 228 -13.570
27 P3 229 -16.012
27 P3 230 -17.476
27 P3 231 -18.453
27 P3 232 -17.965
27 P3 233 -15.523
27 P3 234 -10.640
27 P3 235 -5.269
27 P3 236 0.590
27 P3 237 6.449
27 P3 238 10.844
27 P3 239 14.262
27 P3 240 16.215
27 P3 241 16.215
27 P3 242 14.262
27 P3 243 9.867
27 P3 244 4.496
27 P3 245 -1.363
27 P3 246 -6.246
27 P3 247 -8.199
27 P3 248 -8.199
27 P3 249 -6.246
27 P3 250 -3.316
27 P3 251 -0.875
27 P3 252 0.102
27 P3 253 -0.387
27 P3 254 -1.363
27 P3 255 -2.828
# P4 chan 23
27 P4 0 1.312
27 P4 1 1.801
27 P4 2 1.801
27 P4 3 1.312
27 P4 4 1.312
27 P4 5 1.312
27 P4 6 2.289
27 P4 7 3.265
27 P4 8 4.730
27 P4 9 5.707
27 P4 10 6.195
27 P4 11 5.219
27 P4 12 3.265
27 P4 13 0.824
27 P4 14 -2.106
27 P4 15 -3.082
27 P4 16 -2.594
27 P4 17 -1.617
27 P4 18 -0.641
27 P4 19 -1.129
27 P4 20 -3.082
27 P4 21 -5.524
27 P4 22 -8.453
27 P4 23 -10.406
27 P4 24 -11.383
27 P4 25 -12.360
27 P4 26 -13.336
27 P4 27 -13.336
27 P4 28 -10.895
27 P4 29 -6.012
27 P4 30 0.336
27 P4 31 5.707
27 P4 32 7.660
27 P4 33 5.707
27 P4 34 0.336
27 P4 35 -5.524
27 P4 36 -9.430
27 P4 37 -11.383
27 P4 38 -11.383
27 P4 39 -11.871
27 P4 40 -13.336
27 P4 41 -15.289
27 P4 42 -17.242
27 P4 43 -17.731
27 P4 44 -18.219
27 P4 45 -19.196
27 P4 46 -21.149
27 P4 47 -24.078
27 P4 48 -26.031
27 P4 49 -25.543
27 P4 50 -22.125
27 P4 51 -16.754
27 P4 52 -10.895
27 P4 53 -6.012
27 P4 54 -3.082
27 P4 55 -3.082
27 P4 56 -4.547
27 P4 57 -7.477
27 P4 58 -10.895
27 P4 59 -13.824
27 P4 60 -15.778
27 P4 61 -17.242
27 P4 62 -19.196
27 P4 63 -20.660
27 P4 64 -22.125
27 P4 65 -22.614
27 P4 66 -22.614
27 P4 67 -23.102
27 P4 68 -23.102
27 P4 69 -24.567
27 P4 70 -26.520
27 P4 71 -27.496
27 P4 72 -27.008
27 P4 73 -25.055
27 P4 74 -23.102
27 P4 75 -21.149
27 P4 76 -20.660
27 P4 77 -20.172
27 P4 78 -18.707
27 P4 79 -15.778
27 P4 80 -12.360
27 P4 81 -9.918
27 P4 82 -9.430
27 P4 83 -10.895
27 P4 84 -13.336
27 P4 85 -16.266
27 P4 86 -18.219
27 P4 87 -19.196
27 P4 88 -19.684
27 P4 89 -20.172
27 P4 90 -21.149
27 P4 91 -21.637
27 P4 92 -22.125
27 P4 93 -21.637
27 P4 94 -20.660
27 P4 95 -19.684
27 P4 96 -17.731
27 P4 97 -15.778
27 P4 98 -14.801
27 P4 99 -14.313
27 P4 100 -14.801
27 P4 101 -16.266
27 P4 102 -17.242
27 P4 103 -18.219
27 P4 104 -18.707
27 P4 105 -18.707
27 P4 106 -17.731
27 P4 107 -16.754
27 P4 108 -15.778
27 P4 109 -15.778
27 P4 110 -15.778
27 P4 111 -16.266
27 P4 112 -17.242
27 P4 113 -18.707
27 P4 114 -20.172
27 P4 115 -21.149
27 P4 116 -21.149
27 P4 117 -20.172
27 P4 118 -18.219
27 P4 119 -17.731
27 P4 120 -17.731
27 P4 121 -18.707
27 P4 122 -19.196
27 P4 123 -19.196
27 P4 124 -17.731
27 P4 125 -16.266
27 P4 126 -14.801
27 P4 127 -14.313
27 P4 128 -13.824
27 P4 129 -14.313
27 P4 130 -15.289
27 P4 131 -16.754
27 P4 132 -18.707
27 P4 133 -18.707
27 P4 134 -17.731
27 P4 135 -15.778
27 P4 136 -14.801
27 P4 137 -15.289
27 P4 138 -16.266
27 P4 139 -16.754
27 P4 140 -15.289
27 P4 141 -12.848
27 P4 142 -11.383
27 P4 143 -11.871
27 P4 144 -14.313
27 P4 145 -16.754
27 P4 146 -17.242
27 P4 147 -15.778
27 P4 148 -12.848
27 P4 149 -10.895
27 P4 150 -10.895
27 P4 151 -11.871
27 P4 152 -12.848
27 P4 153 -13.824
27 P4 154 -13.336
27 P4 155 -12.848
27 P4 156 -12.360
27 P4 157 -12.360
27 P4 158 -12.360
27 P4 159 -12.848
27 P4 160 -14.313
27 P4 161 -16.754
27 P4 162 -19.684
27 P4 163 -21.637
27 P4 164 -20.660
27 P4 165 -16.754
27 P4 166 -11.383
27 P4 167 -6.989
27 P4 168 -4.547
27 P4 169 -5.035
27 P4 170 -6.500
27 P4 171 -8.942
27 P4 172 -10.895
27 P4 173 -12.360
27 P4 174 -14.801
27 P4 175 -17.731
27 P4 176 -20.172
27 P4 177 -20.660
27 P4 178 -18.707
27 P4 179 -15.778
27 P4 180 -13.824
27 P4 181 -14.313
27 P4 182 -15.778
27 P4 183 -17.731
27 P4 184 -18.219
27 P4 185 -16.754
27 P4 186 -14.801
27 P4 187 -13.336
27 P4 188 -13.824
27 P4 189 -14.313
27 P4 190 -13.824
27 P4 191 -12.848
27 P4 192 -12.360
27 P4 193 -12.360
27 P4 194 -13.336
27 P4 195 -15.289
27 P4 196 -17.242
27 P4 197 -18.219
27 P4 198 -17.731
27 P4 199 -17.731
27 P4 200 -17.242
27 P4 201 -16.266
27 P4 202 -15.289
27 P4 203 -13.824
27 P4 204 -14.313
27 P4 205 -16.266
27 P4 206 -19.196
27 P4 207 -22.125
27 P4 208 -23.102
27 P4 209 -23.102
27 P4 210 -22.614
27 P4 211 -23.102
27 P4 212 -23.590
27 P4 213 -22.614
27 P4 214 -20.172
27 P4 215 -16.754
27 P4 216 -14.313
27 P4 217 -13.336
27 P4 218 -13.824
27 P4 219 -14.313
27 P4 220 -13.824
27 P4 221 -12.360
27 P4 222 -11.383
27 P4 223 -11.871
27 P4 224 -13.824
27 P4 225 -16.754
27 P4 226 -19.684
27 P4 227 -22.125
27 P4 228 -23.590
27 P4 229 -23.590
27 P4 230 -21.637
27 P4 231 -17.242
27 P4 232 -11.871
27 P4 233 -6.989
27 P4 234 -4.547
27 P4 235 -4.059
27 P4 236 -3.571
27 P4 237 -2.106
27 P4 238 0.336
27 P4 239 1.801
27 P4 240 0.336
27 P4 241 -4.059
27 P4 242 -9.918
27 P4 243 -14.313
27 P4 244 -16.266
27 P4 245 -16.266
27 P4 246 -15.289
27 P4 247 -14.801
27 P4 248 -14.313
27 P4 249 -13.336
27 P4 250 -11.383
27 P4 251 -9.430
27 P4 252 -7.965
27 P4 253 -8.453
27 P4 254 -10.406
27 P4 255 -12.848
# PZ chan 24
27 PZ 0 -0.641
27 PZ 1 -0.153
27 PZ 2 0.336
27 PZ 3 0.824
27 PZ 4 1.801
27 PZ 5 1.801
27 PZ 6 2.289
27 PZ 7 2.289
27 PZ 8 2.777
27 PZ 9 2.289
27 PZ 10 1.801
27 PZ 11 0.336
27 PZ 12 -1.129
27 PZ 13 -3.082
27 PZ 14 -4.547
27 PZ 15 -5.035
27 PZ 16 -4.547
27 PZ 17 -4.059
27 PZ 18 -3.571
27 PZ 19 -4.059
27 PZ 20 -4.547
27 PZ 21 -5.035
27 PZ 22 -5.035
27 PZ 23 -5.035
27 PZ 24 -4.059
27 PZ 25 -3.571
27 PZ 26 -3.571
27 PZ 27 -3.082
27 PZ 28 -2.106
27 PZ 29 -0.153
27 PZ 30 2.777
27 PZ 31 5.219
27 PZ 32 5.707
27 PZ 33 3.754
27 PZ 34 -0.641
27 PZ 35 -5.524
27 PZ 36 -8.942
27 PZ 37 -10.895
27 PZ 38 -10.895
27 PZ 39 -10.406
27 PZ 40 -10.406
27 PZ 41 -10.895
27 PZ 42 -11.383
27 PZ 43 -11.383
27 PZ 44 -10.895
27 PZ 45 -9.918
27 PZ 46 -9.918
27 PZ 47 -9.430
27 PZ 48 -9.430
27 PZ 49 -8.942
27 PZ 50 -6.989
27 PZ 51 -4.547
27 PZ 52 -2.594
27 PZ 53 -0.153
27 PZ 54 1.312
27 PZ 55 1.801
27 PZ 56 1.801
27 PZ 57 0.824
27 PZ 58 -1.617
27 PZ 59 -4.547
27 PZ 60 -7.477
27 PZ 61 -9.430
27 PZ 62 -10.895
27 PZ 63 -11.383
27 PZ 64 -11.383
27 PZ 65 -10.895
27 PZ 66 -9.918
27 PZ 67 -9.430
27 PZ 68 -8.942
27 PZ 69 -8.942
27 PZ 70 -9.430
27 PZ 71 -9.918
27 PZ 72 -10.406
27 PZ 73 -10.406
27 PZ 74 -9.918
27 PZ 75 -8.942
27 PZ 76 -8.453
27 PZ 77 -7.965
27 PZ 78 -6.989
27 PZ 79 -5.524
27 PZ 80 -3.571
27 PZ 81 -1.617
27 PZ 82 -0.153
27 PZ 83 -0.641
27 PZ 84 -1.129
27 PZ 85 -2.106
27 PZ 86 -2.594
27 PZ 87 -3.082
27 PZ 88 -3.082
27 PZ 89 -3.082
27 PZ 90 -3.571
27 PZ 91 -4.059
27 PZ 92 -3.571
27 PZ 93 -3.082
27 PZ 94 -2.594
27 PZ 95 -2.106
27 PZ 96 -2.106
27 PZ 97 -2.106
27 PZ 98 -2.106
27 PZ 99 -1.617
27 PZ 100 -1.129
27 PZ 101 -1.129
27 PZ 102 -1.129
27 PZ 103 -0.641
27 PZ 104 -0.153
27 PZ 105 -0.153
27 PZ 106 -0.153
27 PZ 107 -1.129
27 PZ 108 -1.617
27 PZ 109 -1.617
27 PZ 110 -0.641
27 PZ 111 0.336
27 PZ 112 0.336
27 PZ 113 -0.641
27 PZ 114 -2.106
27 PZ 115 -2.594
27 PZ 116 -2.106
27 PZ 117 -0.641
27 PZ 118 0.824
27 PZ 119 1.801
27 PZ 120 1.312
27 PZ 121 0.336
27 PZ 122 -0.641
27 PZ 123 -1.129
27 PZ 124 -0.641
27 PZ 125 0.824
27 PZ 126 2.289
27 PZ 127 3.265
27 PZ 128 3.754
27 PZ 129 1.801
27 PZ 130 -0.641
27 PZ 131 -3.571
27 PZ 132 -5.035
27 PZ 133 -4.059
27 PZ 134 -1.617
27 PZ 135 0.824
27 PZ 136 2.289
27 PZ 137 2.289
27 PZ 138 1.801
27 PZ 139 1.801
27 PZ 140 2.289
27 PZ 141 2.777
27 PZ 142 2.289
27 PZ 143 1.801
27 PZ 144 0.824
27 PZ 145 -0.153
27 PZ 146 0.336
27 PZ 147 0.824
27 PZ 148 1.801
27 PZ 149 1.801
27 PZ 150 1.801
27 PZ 151 2.289
27 PZ 152 2.777
27 PZ 153 3.265
27 PZ 154 4.730
27 PZ 155 6.195
27 PZ 156 7.660
27 PZ 157 9.613
27 PZ 158 11.078
27 PZ 159 11.078
27 PZ 160 9.613
27 PZ 161 6.683
27 PZ 162 3.265
27 PZ 163 0.336
27 PZ 164 -1.617
27 PZ 165 -2.106
27 PZ 166 -1.617
27 PZ 167 0.336
27 PZ 168 2.289
27 PZ 169 4.242
27 PZ 170 5.219
27 PZ 171 5.707
27 PZ 172 6.195
27 PZ 173 7.172
27 PZ 174 7.660
27 PZ 175 8.148
27 PZ 176 8.636
27 PZ 177 8.636
27 PZ 178 7.172
27 PZ 179 5.219
27 PZ 180 2.777
27 PZ 181 -0.153
27 PZ 182 -2.594
27 PZ 183 -4.059
27 PZ 184 -4.059
27 PZ 185 -3.571
27 PZ 186 -3.082
27 PZ 187 -3.082
27 PZ 188 -3.082
27 PZ 189 -3.082
27 PZ 190 -1.617
27 PZ 191 1.312
27 PZ 192 4.242
27 PZ 193 6.683
27 PZ 194 7.660
27 PZ 195 7.172
27 PZ 196 6.195
27 PZ 197 5.219
27 PZ 198 5.707
27 PZ 199 6.195
27 PZ 200 6.195
27 PZ 201 5.219
27 PZ 202 3.754
27 PZ 203 1.312
27 PZ 204 -1.617
27 PZ 205 -4.547
27 PZ 206 -7.477
27 PZ 207 -9.918
27 PZ 208 -11.383
27 PZ 209 -10.406
27 PZ 210 -7.965
27 PZ 211 -4.547
27 PZ 212 -0.641
27 PZ 213 2.777
27 PZ 214 5.707
27 PZ 215 8.636
27 PZ 216 10.590
27 PZ 217 11.566
27 PZ 218 11.566
27 PZ 219 10.590
27 PZ 220 9.613
27 PZ 221 8.636
27 PZ 222 8.148
27 PZ 223 7.172
27 PZ 224 6.195
27 PZ 225 3.754
27 PZ 226 1.801
27 PZ 227 -0.153
27 PZ 228 -1.617
27 PZ 229 -2.594
27 PZ 230 -2.594
27 PZ 231 -1.617
27 PZ 232 0.336
27 PZ 233 3.265
27 PZ 234 6.195
27 PZ 235 9.125
27 PZ 236 11.078
27 PZ 237 12.543
27 PZ 238 14.008
27 PZ 239 14.984
27 PZ 240 14.984
27 PZ 241 13.519
27 PZ 242 11.078
27 PZ 243 7.172
27 PZ 244 3.754
27 PZ 245 1.312
27 PZ 246 -0.153
27 PZ 247 -0.153
27 PZ 248 0.336
27 PZ 249 1.312
27 PZ 250 2.777
27 PZ 251 3.265
27 PZ 252 3.754
27 PZ 253 3.265
27 PZ 254 2.289
27 PZ 255 1.312
# P8 chan 25
27 P8 0 4.761
27 P8 1 5.737
27 P8 2 5.737
27 P8 3 5.249
27 P8 4 4.761
27 P8 5 5.249
27 P8 6 5.737
27 P8 7 7.202
27 P8 8 8.667
27 P8 9 8.667
27 P8 10 8.179
27 P8 11 6.714
27 P8 12 4.761
27 P8 13 3.784
27 P8 14 2.808
27 P8 15 3.296
27 P8 16 4.272
27 P8 17 5.249
27 P8 18 4.761
27 P8 19 3.296
27 P8 20 1.343
27 P8 21 -1.587
27 P8 22 -4.517
27 P8 23 -6.958
27 P8 24 -7.935
27 P8 25 -7.935
27 P8 26 -6.470
27 P8 27 -2.563
27 P8 28 2.319
27 P8 29 8.667
27 P8 30 15.015
27 P8 31 19.409
27 P8 32 20.874
27 P8 33 17.456
27 P8 34 10.132
27 P8 35 1.343
27 P8 36 -7.446
27 P8 37 -13.306
27 P8 38 -16.235
27 P8 39 -18.188
27 P8 40 -19.165
27 P8 41 -20.142
27 P8 42 -21.118
27 P8 43 -20.630
27 P8 44 -20.142
27 P8 45 -19.165
27 P8 46 -19.165
27 P8 47 -20.630
27 P8 48 -20.630
27 P8 49 -19.165
27 P8 50 -14.282
27 P8 51 -6.958
27 P8 52 1.343
27 P8 53 8.667
27 P8 54 13.062
27 P8 55 14.038
27 P8 56 12.085
27 P8 57 7.690
27 P8 58 2.808
27 P8 59 -1.587
27 P8 60 -4.517
27 P8 61 -6.958
27 P8 62 -8.911
27 P8 63 -11.353
27 P8 64 -14.282
27 P8 65 -17.212
27 P8 66 -19.653
27 P8 67 -21.118
27 P8 68 -21.606
27 P8 69 -21.606
27 P8 70 -21.606
27 P8 71 -20.630
27 P8 72 -19.165
27 P8 73 -16.724
27 P8 74 -13.794
27 P8 75 -11.353
27 P8 76 -9.399
27 P8 77 -8.911
27 P8 78 -7.935
27 P8 79 -6.958
27 P8 80 -5.493
27 P8 81 -4.028
27 P8 82 -4.517
27 P8 83 -5.981
27 P8 84 -9.399
27 P8 85 -12.329
27 P8 86 -14.282
27 P8 87 -14.282
27 P8 88 -13.794
27 P8 89 -13.794
27 P8 90 -14.282
27 P8 91 -16.235
27 P8 92 -17.700
27 P8 93 -18.188
27 P8 94 -17.212
27 P8 95 -14.282
27 P8 96 -10.864
27 P8 97 -7.446
27 P8 98 -5.005
27 P8 99 -3.540
27 P8 100 -3.540
27 P8 101 -4.028
27 P8 102 -4.517
27 P8 103 -4.517
27 P8 104 -4.028
27 P8 105 -3.540
27 P8 106 -3.052
27 P8 107 -3.540
27 P8 108 -4.028
27 P8 109 -4.517
27 P8 110 -4.517
27 P8 111 -5.493
27 P8 112 -6.958
27 P8 113 -9.399
27 P8 114 -11.841
27 P8 115 -13.306
27 P8 116 -12.329
27 P8 117 -9.888
27 P8 118 -5.981
27 P8 119 -2.563
27 P8 120 -0.122
27 P8 121 0.366
27 P8 122 -0.610
27 P8 123 -3.052
27 P8 124 -5.005
27 P8 125 -5.981
27 P8 126 -5.005
27 P8 127 -2.563
27 P8 128 -0.610
27 P8 129 -0.122
27 P8 130 -2.563
27 P8 131 -6.470
27 P8 132 -10.376
27 P8 133 -11.841
27 P8 134 -10.864
27 P8 135 -9.888
27 P8 136 -9.888
27 P8 137 -11.353
27 P8 138 -13.306
27 P8 139 -12.817
27 P8 140 -10.376
27 P8 141 -6.958
27 P8 142 -4.028
27 P8 143 -3.052
27 P8 144 -4.028
27 P8 145 -5.005
27 P8 146 -4.517
27 P8 147 -2.075
27 P8 148 0.854
27 P8 149 2.808
27 P8 150 3.296
27 P8 151 1.343
27 P8 152 -1.587
27 P8 153 -4.517
27 P8 154 -5.493
27 P8 155 -5.005
27 P8 156 -2.563
27 P8 157 0.366
27 P8 158 2.319
27 P8 159 1.831
27 P8 160 0.366
27 P8 161 -1.587
27 P8 162 -3.540
27 P8 163 -4.028
27 P8 164 -2.563
27 P8 165 0.366
27 P8 166 4.272
27 P8 167 7.690
27 P8 168 9.155
27 P8 169 9.644
27 P8 170 8.667
27 P8 171 7.690
27 P8 172 6.714
27 P8 173 5.737
27 P8 174 3.784
27 P8 175 1.343
27 P8 176 -1.587
27 P8 177 -3.052
27 P8 178 -3.052
27 P8 179 -1.587
27 P8 180 -0.610
27 P8 181 -0.610
27 P8 182 -2.075
27 P8 183 -4.028
27 P8 184 -5.005
27 P8 185 -5.005
27 P8 186 -4.517
27 P8 187 -3.540
27 P8 188 -3.052
27 P8 189 -2.075
27 P8 190 -0.122
27 P8 191 1.831
27 P8 192 3.296
27 P8 193 3.296
27 P8 194 1.343
27 P8 195 -1.587
27 P8 196 -4.028
27 P8 197 -4.517
27 P8 198 -3.540
27 P8 199 -2.563
27 P8 200 -2.075
27 P8 201 -3.052
27 P8 202 -4.517
27 P8 203 -6.958
27 P8 204 -9.888
27 P8 205 -12.817
27 P8 206 -15.747
27 P8 207 -17.212
27 P8 208 -17.212
27 P8 209 -15.747
27 P8 210 -13.794
27 P8 211 -12.329
27 P8 212 -11.841
27 P8 213 -11.353
27 P8 214 -10.376
27 P8 215 -7.935
27 P8 216 -5.493
27 P8 217 -4.028
27 P8 218 -4.517
27 P8 219 -4.517
27 P8 220 -4.517
27 P8 221 -2.075
27 P8 222 0.854
27 P8 223 2.808
27 P8 224 2.319
27 P8 225 -0.610
27 P8 226 -5.493
27 P8 227 -9.888
27 P8 228 -13.306
27 P8 229 -14.282
27 P8 230 -13.306
27 P8 231 -10.864
27 P8 232 -7.446
27 P8 233 -5.005
27 P8 234 -3.052
27 P8 235 -2.075
27 P8 236 -1.099
27 P8 237 0.366
27 P8 238 2.808
27 P8 239 5.249
27 P8 240 6.226
27 P8 241 5.249
27 P8 242 2.808
27 P8 243 0.366
27 P8 244 -1.587
27 P8 245 -2.075
27 P8 246 -2.563
27 P8 247 -2.563
27 P8 248 -3.052
27 P8 249 -3.052
27 P8 250 -2.563
27 P8 251 -2.075
27 P8 252 -0.610
27 P8 253 -0.122
27 P8 254 -0.122
27 P8 255 -0.610
# P7 chan 26
27 P7 0 -1.526
27 P7 1 -2.014
27 P7 2 -1.526
27 P7 3 -0.549
27 P7 4 0.916
27 P7 5 3.357
27 P7 6 6.287
27 P7 7 8.728
27 P7 8 10.681
27 P7 9 10.681
27 P7 10 10.193
27 P7 11 8.728
27 P7 12 5.798
27 P7 13 3.357
27 P7 14 0.427
27 P7 15 -2.502
27 P7 16 -4.456
27 P7 17 -5.920
27 P7 18 -7.385
27 P7 19 -8.850
27 P7 20 -10.803
27 P7 21 -11.292
27 P7 22 -9.827
27 P7 23 -7.385
27 P7 24 -3.967
27 P7 25 -1.038
27 P7 26 0.916
27 P7 27 2.380
27 P7 28 4.333
27 P7 29 7.751
27 P7 30 11.658
27 P7 31 15.076
27 P7 32 16.541
27 P7 33 15.076
27 P7 34 9.705
27 P7 35 3.357
27 P7 36 -3.967
27 P7 37 -9.827
27 P7 38 -14.709
27 P7 39 -17.639
27 P7 40 -19.592
27 P7 41 -20.081
27 P7 42 -20.081
27 P7 43 -19.104
27 P7 44 -18.127
27 P7 45 -17.151
27 P7 46 -17.151
27 P7 47 -17.639
27 P7 48 -18.127
27 P7 49 -17.151
27 P7 50 -15.686
27 P7 51 -14.221
27 P7 52 -12.268
27 P7 53 -9.827
27 P7 54 -6.409
27 P7 55 -2.502
27 P7 56 0.427
27 P7 57 2.380
27 P7 58 1.892
27 P7 59 -1.038
27 P7 60 -5.432
27 P7 61 -10.803
27 P7 62 -16.663
27 P7 63 -23.010
27 P7 64 -28.870
27 P7 65 -31.799
27 P7 66 -31.311
27 P7 67 -26.917
27 P7 68 -21.057
27 P7 69 -16.174
27 P7 70 -12.756
27 P7 71 -11.292
27 P7 72 -11.292
27 P7 73 -12.268
27 P7 74 -13.733
27 P7 75 -16.174
27 P7 76 -18.616
27 P7 77 -19.104
27 P7 78 -17.151
27 P7 79 -11.780
27 P7 80 -5.432
27 P7 81 -0.549
27 P7 82 0.427
27 P7 83 -2.014
27 P7 84 -5.920
27 P7 85 -9.338
27 P7 86 -10.803
27 P7 87 -11.292
27 P7 88 -12.268
27 P7 89 -13.245
27 P7 90 -14.709
27 P7 91 -15.686
27 P7 92 -16.174
27 P7 93 -17.151
27 P7 94 -18.616
27 P7 95 -20.569
27 P7 96 -22.034
27 P7 97 -21.545
27 P7 98 -20.569
27 P7 99 -18.616
27 P7 100 -17.151
27 P7 101 -16.174
27 P7 102 -14.221
27 P7 103 -12.268
27 P7 104 -9.338
27 P7 105 -7.385
27 P7 106 -5.920
27 P7 107 -5.920
27 P7 108 -5.432
27 P7 109 -4.456
27 P7 110 -2.991
27 P7 111 -2.502
27 P7 112 -3.967
27 P7 113 -6.409
27 P7 114 -7.874
27 P7 115 -7.385
27 P7 116 -3.967
27 P7 117 0.427
27 P7 118 3.357
27 P7 119 3.845
27 P7 120 0.916
27 P7 121 -3.967
27 P7 122 -8.362
27 P7 123 -11.292
27 P7 124 -12.268
27 P7 125 -10.803
27 P7 126 -8.362
27 P7 127 -5.920
27 P7 128 -3.967
27 P7 129 -3.967
27 P7 130 -6.409
27 P7 131 -9.338
27 P7 132 -11.780
27 P7 133 -11.780
27 P7 134 -10.315
27 P7 135 -7.874
27 P7 136 -5.920
27 P7 137 -5.920
27 P7 138 -6.409
27 P7 139 -7.385
27 P7 140 -7.874
27 P7 141 -8.850
27 P7 142 -9.827
27 P7 143 -11.292
27 P7 144 -11.292
27 P7 145 -10.803
27 P7 146 -9.338
27 P7 147 -7.385
27 P7 148 -6.409
27 P7 149 -6.409
27 P7 150 -7.385
27 P7 151 -9.338
27 P7 152 -11.292
27 P7 153 -12.756
27 P7 154 -13.733
27 P7 155 -13.245
27 P7 156 -12.268
27 P7 157 -10.803
27 P7 158 -9.827
27 P7 159 -9.827
27 P7 160 -9.338
27 P7 161 -8.850
27 P7 162 -7.874
27 P7 163 -6.897
27 P7 164 -7.385
27 P7 165 -8.850
27 P7 166 -11.292
27 P7 167 -12.756
27 P7 168 -12.756
27 P7 169 -11.292
27 P7 170 -9.338
27 P7 171 -7.385
27 P7 172 -6.897
27 P7 173 -7.385
27 P7 174 -6.897
27 P7 175 -4.944
27 P7 176 -2.502
27 P7 177 0.427
27 P7 178 0.916
27 P7 179 -1.038
27 P7 180 -4.944
27 P7 181 -9.338
27 P7 182 -13.733
27 P7 183 -18.127
27 P7 184 -22.034
27 P7 185 -26.428
27 P7 186 -29.358
27 P7 187 -30.334
27 P7 188 -27.893
27 P7 189 -21.057
27 P7 190 -11.780
27 P7 191 -0.549
27 P7 192 8.728
27 P7 193 14.587
27 P7 194 15.564
27 P7 195 13.123
27 P7 196 9.216
27 P7 197 5.310
27 P7 198 2.380
27 P7 199 -0.549
27 P7 200 -4.456
27 P7 201 -9.827
27 P7 202 -16.663
27 P7 203 -22.522
27 P7 204 -27.893
27 P7 205 -31.799
27 P7 206 -35.706
27 P7 207 -40.588
27 P7 208 -44.006
27 P7 209 -44.983
27 P7 210 -41.565
27 P7 211 -33.264
27 P7 212 -23.010
27 P7 213 -12.756
27 P7 214 -3.967
27 P7 215 3.357
27 P7 216 8.240
27 P7 217 12.146
27 P7 218 14.099
27 P7 219 14.587
27 P7 220 12.634
27 P7 221 8.728
27 P7 222 4.333
27 P7 223 0.427
27 P7 224 -3.967
27 P7 225 -7.874
27 P7 226 -13.245
27 P7 227 -18.616
27 P7 228 -24.963
27 P7 229 -31.311
27 P7 230 -36.682
27 P7 231 -40.100
27 P7 232 -42.053
27 P7 233 -41.077
27 P7 234 -37.170
27 P7 235 -30.823
27 P7 236 -21.545
27 P7 237 -11.780
27 P7 238 -2.014
27 P7 239 4.822
27 P7 240 8.728
27 P7 241 9.216
27 P7 242 6.775
27 P7 243 2.380
27 P7 244 -3.967
27 P7 245 -11.292
27 P7 246 -18.616
27 P7 247 -23.987
27 P7 248 -25.940
27 P7 249 -24.963
27 P7 250 -22.034
27 P7 251 -20.081
27 P7 252 -19.592
27 P7 253 -20.081
27 P7 254 -21.545
27 P7 255 -22.522
# PO2 chan 27
27 PO2 0 0.875
27 PO2 1 1.851
27 PO2 2 1.851
27 PO2 3 1.851
27 PO2 4 1.851
27 PO2 5 2.340
27 PO2 6 3.316
27 PO2 7 4.781
27 PO2 8 5.758
27 PO2 9 5.269
27 PO2 10 3.805
27 PO2 11 0.875
27 PO2 12 -2.055
27 PO2 13 -4.008
27 PO2 14 -5.473
27 PO2 15 -5.961
27 PO2 16 -5.473
27 PO2 17 -4.496
27 PO2 18 -4.008
27 PO2 19 -4.496
27 PO2 20 -5.961
27 PO2 21 -7.914
27 PO2 22 -9.867
27 PO2 23 -10.844
27 PO2 24 -11.332
27 PO2 25 -10.844
27 PO2 26 -9.867
27 PO2 27 -7.914
27 PO2 28 -4.985
27 PO2 29 -0.590
27 PO2 30 4.293
27 PO2 31 8.687
27 PO2 32 10.152
27 PO2 33 7.222
27 PO2 34 0.387
27 PO2 35 -7.426
27 PO2 36 -14.750
27 PO2 37 -19.145
27 PO2 38 -21.098
27 PO2 39 -22.074
27 PO2 40 -22.563
27 PO2 41 -23.051
27 PO2 42 -23.051
27 PO2 43 -21.586
27 PO2 44 -20.121
27 PO2 45 -18.168
27 PO2 46 -17.192
27 PO2 47 -17.192
27 PO2 48 -16.215
27 PO2 49 -14.262
27 PO2 50 -10.844
27 PO2 51 -5.961
27 PO2 52 -1.078
27 PO2 53 2.828
27 PO2 54 5.758
27 PO2 55 6.246
27 PO2 56 4.781
27 PO2 57 0.387
27 PO2 58 -4.985
27 PO2 59 -10.356
27 PO2 60 -14.262
27 PO2 61 -16.703
27 PO2 62 -17.680
27 PO2 63 -18.168
27 PO2 64 -19.145
27 PO2 65 -20.610
27 PO2 66 -22.074
27 PO2 67 -22.563
27 PO2 68 -23.051
27 PO2 69 -23.051
27 PO2 70 -23.051
27 PO2 71 -23.051
27 PO2 72 -22.563
27 PO2 73 -21.098
27 PO2 74 -19.145
27 PO2 75 -17.680
27 PO2 76 -16.703
27 PO2 77 -15.727
27 PO2 78 -14.262
27 PO2 79 -11.332
27 PO2 80 -7.914
27 PO2 81 -5.961
27 PO2 82 -4.985
27 PO2 83 -5.961
27 PO2 84 -8.403
27 PO2 85 -10.356
27 PO2 86 -11.332
27 PO2 87 -11.332
27 PO2 88 -11.332
27 PO2 89 -12.309
27 PO2 90 -13.774
27 PO2 91 -15.727
27 PO2 92 -16.703
27 PO2 93 -16.703
27 PO2 94 -15.727
27 PO2 95 -15.238
27 PO2 96 -13.774
27 PO2 97 -12.309
27 PO2 98 -10.844
27 PO2 99 -9.379
27 PO2 100 -8.891
27 PO2 101 -8.891
27 PO2 102 -9.379
27 PO2 103 -8.891
27 PO2 104 -8.403
27 PO2 105 -7.914
27 PO2 106 -7.426
27 PO2 107 -7.914
27 PO2 108 -8.403
27 PO2 109 -8.891
27 PO2 110 -8.891
27 PO2 111 -8.891
27 PO2 112 -9.379
27 PO2 113 -11.332
27 PO2 114 -13.774
27 PO2 115 -14.750
27 PO2 116 -14.750
27 PO2 117 -12.797
27 PO2 118 -9.379
27 PO2 119 -6.938
27 PO2 120 -4.985
27 PO2 121 -4.985
27 PO2 122 -5.473
27 PO2 123 -5.961
27 PO2 124 -5.473
27 PO2 125 -3.520
27 PO2 126 -0.590
27 PO2 127 1.851
27 PO2 128 2.340
27 PO2 129 -0.102
27 PO2 130 -5.473
27 PO2 131 -10.844
27 PO2 132 -14.750
27 PO2 133 -15.238
27 PO2 134 -12.797
27 PO2 135 -9.379
27 PO2 136 -7.426
27 PO2 137 -7.914
27 PO2 138 -8.403
27 PO2 139 -8.403
27 PO2 140 -6.449
27 PO2 141 -4.496
27 PO2 142 -2.543
27 PO2 143 -2.543
27 PO2 144 -3.520
27 PO2 145 -4.985
27 PO2 146 -4.985
27 PO2 147 -4.008
27 PO2 148 -2.543
27 PO2 149 -1.567
27 PO2 150 -1.567
27 PO2 151 -2.543
27 PO2 152 -3.520
27 PO2 153 -4.008
27 PO2 154 -3.520
