# co2a0000364.rd
# 120 trials, 64 chans, 416 samples 368 post_stim samples
# 3.906000 msecs uV
# S1 obj , trial 46
# FP1 chan 0
46 FP1 0 4.496
46 FP1 1 1.567
46 FP1 2 -2.340
46 FP1 3 -3.316
46 FP1 4 -1.851
46 FP1 5 1.078
46 FP1 6 2.543
46 FP1 7 0.102
46 FP1 8 -3.316
46 FP1 9 -5.758
46 FP1 10 -5.269
46 FP1 11 -3.805
46 FP1 12 -2.828
46 FP1 13 -5.269
46 FP1 14 -8.199
46 FP1 15 -10.640
46 FP1 16 -10.640
46 FP1 17 -8.687
46 FP1 18 -6.246
46 FP1 19 -5.758
46 FP1 20 -6.734
46 FP1 21 -7.711
46 FP1 22 -8.199
46 FP1 23 -8.199
46 FP1 24 -6.734
46 FP1 25 -6.246
46 FP1 26 -5.269
46 FP1 27 -5.269
46 FP1 28 -5.269
46 FP1 29 -6.246
46 FP1 30 -7.711
46 FP1 31 -8.199
46 FP1 32 -7.711
46 FP1 33 -6.246
46 FP1 34 -5.269
46 FP1 35 -5.758
46 FP1 36 -7.222
46 FP1 37 -8.687
46 FP1 38 -10.152
46 FP1 39 -10.152
46 FP1 40 -8.687
46 FP1 41 -6.734
46 FP1 42 -5.269
46 FP1 43 -4.293
46 FP1 44 -3.805
46 FP1 45 -3.805
46 FP1 46 -4.293
46 FP1 47 -5.269
46 FP1 48 -5.269
46 FP1 49 -5.269
46 FP1 50 -4.781
46 FP1 51 -4.781
46 FP1 52 -4.781
46 FP1 53 -6.246
46 FP1 54 -8.199
46 FP1 55 -10.152
46 FP1 56 -12.594
46 FP1 57 -14.058
46 FP1 58 -14.547
46 FP1 59 -13.570
46 FP1 60 -11.129
46 FP1 61 -8.687
46 FP1 62 -7.711
46 FP1 63 -6.734
46 FP1 64 -8.199
46 FP1 65 -10.152
46 FP1 66 -12.594
46 FP1 67 -14.547
46 FP1 68 -16.500
46 FP1 69 -16.500
46 FP1 70 -15.523
46 FP1 71 -13.082
46 FP1 72 -9.176
46 FP1 73 -5.269
46 FP1 74 -2.828
46 FP1 75 -2.828
46 FP1 76 -3.805
46 FP1 77 -5.758
46 FP1 78 -7.222
46 FP1 79 -7.711
46 FP1 80 -7.222
46 FP1 81 -6.246
46 FP1 82 -5.269
46 FP1 83 -3.316
46 FP1 84 -1.363
46 FP1 85 0.102
46 FP1 86 1.078
46 FP1 87 1.078
46 FP1 88 -0.387
46 FP1 89 -1.363
46 FP1 90 -1.363
46 FP1 91 -0.387
46 FP1 92 0.590
46 FP1 93 0.590
46 FP1 94 0.102
46 FP1 95 0.590
46 FP1 96 3.031
46 FP1 97 6.449
46 FP1 98 10.356
46 FP1 99 11.820
46 FP1 100 11.332
46 FP1 101 8.891
46 FP1 102 7.426
46 FP1 103 7.426
46 FP1 104 7.426
46 FP1 105 6.449
46 FP1 106 4.008
46 FP1 107 1.078
46 FP1 108 0.590
46 FP1 109 4.008
46 FP1 110 8.891
46 FP1 111 12.309
46 FP1 112 11.332
46 FP1 113 5.961
46 FP1 114 0.590
46 FP1 115 -1.851
46 FP1 116 -0.875
46 FP1 117 3.031
46 FP1 118 5.473
46 FP1 119 5.473
46 FP1 120 3.520
46 FP1 121 2.055
46 FP1 122 2.055
46 FP1 123 4.008
46 FP1 124 5.961
46 FP1 125 6.449
46 FP1 126 4.985
46 FP1 127 2.543
46 FP1 128 1.078
46 FP1 129 0.590
46 FP1 130 0.102
46 FP1 131 0.590
46 FP1 132 0.590
46 FP1 133 0.590
46 FP1 134 0.590
46 FP1 135 0.102
46 FP1 136 -0.387
46 FP1 137 -0.875
46 FP1 138 -1.851
46 FP1 139 -1.851
46 FP1 140 -2.340
46 FP1 141 -2.340
46 FP1 142 -2.340
46 FP1 143 -2.828
46 FP1 144 -3.805
46 FP1 145 -4.293
46 FP1 146 -4.293
46 FP1 147 -3.805
46 FP1 148 -2.828
46 FP1 149 -2.340
46 FP1 150 -3.805
46 FP1 151 -6.734
46 FP1 152 -9.664
46 FP1 153 -10.152
46 FP1 154 -7.711
46 FP1 155 -3.316
46 FP1 156 0.590
46 FP1 157 1.078
46 FP1 158 -0.875
46 FP1 159 -4.781
46 FP1 160 -6.246
46 FP1 161 -4.781
46 FP1 162 -2.340
46 FP1 163 -0.875
46 FP1 164 -2.340
46 FP1 165 -4.781
46 FP1 166 -5.758
46 FP1 167 -4.293
46 FP1 168 -1.851
46 FP1 169 -0.387
46 FP1 170 -0.875
46 FP1 171 -2.828
46 FP1 172 -3.805
46 FP1 173 -1.851
46 FP1 174 1.567
46 FP1 175 4.008
46 FP1 176 4.008
46 FP1 177 2.055
46 FP1 178 -0.875
46 FP1 179 -2.340
46 FP1 180 -0.875
46 FP1 181 2.055
46 FP1 182 5.473
46 FP1 183 7.426
46 FP1 184 6.938
46 FP1 185 5.473
46 FP1 186 3.520
46 FP1 187 3.031
46 FP1 188 4.008
46 FP1 189 5.961
46 FP1 190 7.426
46 FP1 191 7.914
46 FP1 192 8.403
46 FP1 193 8.891
46 FP1 194 8.891
46 FP1 195 7.426
46 FP1 196 4.496
46 FP1 197 1.078
46 FP1 198 -0.387
46 FP1 199 -0.387
46 FP1 200 1.567
46 FP1 201 2.055
46 FP1 202 0.102
46 FP1 203 -2.828
46 FP1 204 -5.758
46 FP1 205 -5.269
46 FP1 206 -1.851
46 FP1 207 1.567
46 FP1 208 3.031
46 FP1 209 2.543
46 FP1 210 1.078
46 FP1 211 1.078
46 FP1 212 3.031
46 FP1 213 4.985
46 FP1 214 4.985
46 FP1 215 2.055
46 FP1 216 -1.363
46 FP1 217 -3.805
46 FP1 218 -3.316
46 FP1 219 -0.387
46 FP1 220 2.055
46 FP1 221 2.543
46 FP1 222 1.567
46 FP1 223 -0.387
46 FP1 224 -0.387
46 FP1 225 2.055
46 FP1 226 5.473
46 FP1 227 7.914
46 FP1 228 8.403
46 FP1 229 7.426
46 FP1 230 6.449
46 FP1 231 6.938
46 FP1 232 7.426
46 FP1 233 8.891
46 FP1 234 10.356
46 FP1 235 9.379
46 FP1 236 6.938
46 FP1 237 4.496
46 FP1 238 3.031
46 FP1 239 4.008
46 FP1 240 5.961
46 FP1 241 7.914
46 FP1 242 8.403
46 FP1 243 8.891
46 FP1 244 8.891
46 FP1 245 9.867
46 FP1 246 10.356
46 FP1 247 9.867
46 FP1 248 8.403
46 FP1 249 5.961
46 FP1 250 3.520
46 FP1 251 2.055
46 FP1 252 1.078
46 FP1 253 0.590
46 FP1 254 0.590
46 FP1 255 0.590
# FP2 chan 1
46 FP2 0 2.319
46 FP2 1 3.784
46 FP2 2 2.319
46 FP2 3 -1.099
46 FP2 4 -4.028
46 FP2 5 -4.517
46 FP2 6 -3.540
46 FP2 7 -2.563
46 FP2 8 -2.075
46 FP2 9 -1.587
46 FP2 10 -0.610
46 FP2 11 -0.610
46 FP2 12 -2.563
46 FP2 13 -6.470
46 FP2 14 -10.376
46 FP2 15 -11.841
46 FP2 16 -9.888
46 FP2 17 -6.470
46 FP2 18 -5.493
46 FP2 19 -7.446
46 FP2 20 -10.864
46 FP2 21 -12.329
46 FP2 22 -10.864
46 FP2 23 -8.423
46 FP2 24 -6.470
46 FP2 25 -5.981
46 FP2 26 -5.493
46 FP2 27 -4.028
46 FP2 28 -2.563
46 FP2 29 -2.075
46 FP2 30 -4.028
46 FP2 31 -6.958
46 FP2 32 -7.446
46 FP2 33 -5.981
46 FP2 34 -4.517
46 FP2 35 -5.981
46 FP2 36 -9.888
46 FP2 37 -15.259
46 FP2 38 -16.724
46 FP2 39 -13.794
46 FP2 40 -7.935
46 FP2 41 -3.052
46 FP2 42 -1.587
46 FP2 43 -2.075
46 FP2 44 -2.563
46 FP2 45 -2.075
46 FP2 46 -2.563
46 FP2 47 -3.540
46 FP2 48 -4.517
46 FP2 49 -4.517
46 FP2 50 -3.052
46 FP2 51 -3.052
46 FP2 52 -6.470
46 FP2 53 -12.817
46 FP2 54 -17.700
46 FP2 55 -18.188
46 FP2 56 -12.817
46 FP2 57 -5.005
46 FP2 58 -0.610
46 FP2 59 -1.099
46 FP2 60 -5.493
46 FP2 61 -9.399
46 FP2 62 -11.353
46 FP2 63 -11.353
46 FP2 64 -12.817
46 FP2 65 -16.235
46 FP2 66 -20.630
46 FP2 67 -22.583
46 FP2 68 -20.142
46 FP2 69 -14.282
46 FP2 70 -8.423
46 FP2 71 -4.517
46 FP2 72 -3.540
46 FP2 73 -4.028
46 FP2 74 -3.540
46 FP2 75 -2.563
46 FP2 76 -1.099
46 FP2 77 -2.563
46 FP2 78 -6.470
46 FP2 79 -11.841
46 FP2 80 -14.771
46 FP2 81 -14.282
46 FP2 82 -9.888
46 FP2 83 -3.052
46 FP2 84 2.319
46 FP2 85 5.249
46 FP2 86 5.249
46 FP2 87 3.296
46 FP2 88 1.343
46 FP2 89 0.366
46 FP2 90 0.366
46 FP2 91 -0.610
46 FP2 92 -2.563
46 FP2 93 -5.493
46 FP2 94 -5.981
46 FP2 95 -2.075
46 FP2 96 5.737
46 FP2 97 14.038
46 FP2 98 16.968
46 FP2 99 14.038
46 FP2 100 8.179
46 FP2 101 3.784
46 FP2 102 3.296
46 FP2 103 6.226
46 FP2 104 7.690
46 FP2 105 5.249
46 FP2 106 1.343
46 FP2 107 -0.610
46 FP2 108 1.343
46 FP2 109 7.202
46 FP2 110 11.597
46 FP2 111 12.085
46 FP2 112 8.179
46 FP2 113 3.784
46 FP2 114 1.343
46 FP2 115 1.343
46 FP2 116 3.296
46 FP2 117 4.272
46 FP2 118 5.249
46 FP2 119 7.202
46 FP2 120 9.644
46 FP2 121 10.620
46 FP2 122 9.155
46 FP2 123 4.272
46 FP2 124 -0.122
46 FP2 125 -2.563
46 FP2 126 -1.587
46 FP2 127 0.366
46 FP2 128 2.319
46 FP2 129 2.319
46 FP2 130 1.343
46 FP2 131 1.831
46 FP2 132 2.808
46 FP2 133 3.784
46 FP2 134 2.808
46 FP2 135 -0.122
46 FP2 136 -4.028
46 FP2 137 -6.470
46 FP2 138 -6.470
46 FP2 139 -4.028
46 FP2 140 -0.122
46 FP2 141 2.319
46 FP2 142 1.343
46 FP2 143 -1.587
46 FP2 144 -6.470
46 FP2 145 -8.423
46 FP2 146 -6.470
46 FP2 147 -2.075
46 FP2 148 0.366
46 FP2 149 -0.122
46 FP2 150 -5.493
46 FP2 151 -10.864
46 FP2 152 -14.282
46 FP2 153 -12.329
46 FP2 154 -6.958
46 FP2 155 -0.610
46 FP2 156 4.272
46 FP2 157 5.249
46 FP2 158 2.319
46 FP2 159 -3.052
46 FP2 160 -7.446
46 FP2 161 -9.399
46 FP2 162 -7.935
46 FP2 163 -4.517
46 FP2 164 -2.075
46 FP2 165 -1.587
46 FP2 166 -2.075
46 FP2 167 -1.587
46 FP2 168 -0.610
46 FP2 169 0.366
46 FP2 170 -0.610
46 FP2 171 -3.540
46 FP2 172 -5.981
46 FP2 173 -4.517
46 FP2 174 0.854
46 FP2 175 6.226
46 FP2 176 8.667
46 FP2 177 6.714
46 FP2 178 2.808
46 FP2 179 -1.099
46 FP2 180 -1.587
46 FP2 181 0.366
46 FP2 182 4.761
46 FP2 183 8.179
46 FP2 184 9.155
46 FP2 185 8.179
46 FP2 186 5.249
46 FP2 187 2.808
46 FP2 188 2.319
46 FP2 189 2.808
46 FP2 190 3.784
46 FP2 191 4.761
46 FP2 192 4.761
46 FP2 193 5.249
46 FP2 194 5.737
46 FP2 195 5.249
46 FP2 196 3.296
46 FP2 197 0.854
46 FP2 198 -1.099
46 FP2 199 -1.587
46 FP2 200 -1.099
46 FP2 201 -1.587
46 FP2 202 -3.052
46 FP2 203 -4.028
46 FP2 204 -4.028
46 FP2 205 -2.563
46 FP2 206 -1.587
46 FP2 207 -1.587
46 FP2 208 -2.075
46 FP2 209 -2.075
46 FP2 210 -1.099
46 FP2 211 1.343
46 FP2 212 2.808
46 FP2 213 2.319
46 FP2 214 0.854
46 FP2 215 -1.099
46 FP2 216 -2.563
46 FP2 217 -4.028
46 FP2 218 -5.005
46 FP2 219 -4.517
46 FP2 220 -1.587
46 FP2 221 1.343
46 FP2 222 3.296
46 FP2 223 2.319
46 FP2 224 -1.587
46 FP2 225 -5.005
46 FP2 226 -4.517
46 FP2 227 1.343
46 FP2 228 8.179
46 FP2 229 11.108
46 FP2 230 7.690
46 FP2 231 1.343
46 FP2 232 -3.540
46 FP2 233 -1.587
46 FP2 234 4.272
46 FP2 235 9.644
46 FP2 236 9.155
46 FP2 237 4.272
46 FP2 238 -1.587
46 FP2 239 -3.540
46 FP2 240 -0.610
46 FP2 241 3.784
46 FP2 242 5.737
46 FP2 243 5.249
46 FP2 244 4.761
46 FP2 245 5.737
46 FP2 246 9.155
46 FP2 247 11.108
46 FP2 248 10.132
46 FP2 249 6.226
46 FP2 250 2.319
46 FP2 251 -0.610
46 FP2 252 -1.099
46 FP2 253 -0.610
46 FP2 254 -1.587
46 FP2 255 -3.052
# F7 chan 2
46 F7 0 9.013
46 F7 1 6.571
46 F7 2 2.177
46 F7 3 -2.706
46 F7 4 -5.147
46 F7 5 -4.659
46 F7 6 -3.682
46 F7 7 -2.218
46 F7 8 -2.218
46 F7 9 -2.706
46 F7 10 -3.194
46 F7 11 -3.194
46 F7 12 -3.682
46 F7 13 -4.171
46 F7 14 -4.171
46 F7 15 -3.194
46 F7 16 -2.706
46 F7 17 -3.194
46 F7 18 -5.147
46 F7 19 -8.077
46 F7 20 -10.030
46 F7 21 -10.518
46 F7 22 -8.565
46 F7 23 -5.636
46 F7 24 -3.682
46 F7 25 -3.194
46 F7 26 -5.147
46 F7 27 -7.100
46 F7 28 -8.077
46 F7 29 -7.589
46 F7 30 -6.124
46 F7 31 -5.147
46 F7 32 -5.636
46 F7 33 -6.124
46 F7 34 -6.612
46 F7 35 -5.147
46 F7 36 -3.682
46 F7 37 -3.682
46 F7 38 -5.147
46 F7 39 -7.589
46 F7 40 -9.542
46 F7 41 -11.007
46 F7 42 -9.542
46 F7 43 -6.612
46 F7 44 -2.706
46 F7 45 -0.264
46 F7 46 -1.729
46 F7 47 -5.636
46 F7 48 -10.030
46 F7 49 -12.472
46 F7 50 -11.007
46 F7 51 -8.565
46 F7 52 -7.589
46 F7 53 -7.589
46 F7 54 -9.054
46 F7 55 -9.054
46 F7 56 -7.100
46 F7 57 -6.612
46 F7 58 -8.077
46 F7 59 -11.983
46 F7 60 -15.401
46 F7 61 -15.401
46 F7 62 -11.495
46 F7 63 -7.100
46 F7 64 -4.171
46 F7 65 -5.636
46 F7 66 -9.054
46 F7 67 -11.495
46 F7 68 -11.007
46 F7 69 -8.565
46 F7 70 -5.636
46 F7 71 -4.171
46 F7 72 -4.659
46 F7 73 -5.636
46 F7 74 -6.124
46 F7 75 -6.124
46 F7 76 -5.147
46 F7 77 -4.171
46 F7 78 -2.218
46 F7 79 -0.753
46 F7 80 0.224
46 F7 81 0.224
46 F7 82 -0.753
46 F7 83 -1.241
46 F7 84 -1.241
46 F7 85 -1.241
46 F7 86 -0.753
46 F7 87 -1.241
46 F7 88 -0.753
46 F7 89 0.224
46 F7 90 0.712
46 F7 91 1.200
46 F7 92 0.224
46 F7 93 -1.729
46 F7 94 -3.194
46 F7 95 -2.218
46 F7 96 0.712
46 F7 97 5.107
46 F7 98 9.013
46 F7 99 10.966
46 F7 100 10.966
46 F7 101 9.013
46 F7 102 7.060
46 F7 103 5.107
46 F7 104 2.177
46 F7 105 -1.241
46 F7 106 -3.194
46 F7 107 -3.682
46 F7 108 -0.753
46 F7 109 5.107
46 F7 110 10.478
46 F7 111 12.919
46 F7 112 10.478
46 F7 113 4.618
46 F7 114 -2.706
46 F7 115 -6.612
46 F7 116 -5.147
46 F7 117 -0.264
46 F7 118 5.107
46 F7 119 6.083
46 F7 120 1.689
46 F7 121 -4.171
46 F7 122 -7.589
46 F7 123 -5.636
46 F7 124 0.224
46 F7 125 5.107
46 F7 126 5.595
46 F7 127 2.177
46 F7 128 -3.682
46 F7 129 -7.100
46 F7 130 -6.612
46 F7 131 -4.171
46 F7 132 -2.218
46 F7 133 -2.706
46 F7 134 -5.636
46 F7 135 -7.589
46 F7 136 -6.612
46 F7 137 -3.194
46 F7 138 0.712
46 F7 139 0.712
46 F7 140 -3.194
46 F7 141 -9.054
46 F7 142 -11.495
46 F7 143 -9.054
46 F7 144 -3.194
46 F7 145 1.200
46 F7 146 0.224
46 F7 147 -5.147
46 F7 148 -11.007
46 F7 149 -12.960
46 F7 150 -10.518
46 F7 151 -5.636
46 F7 152 -2.706
46 F7 153 -3.194
46 F7 154 -4.659
46 F7 155 -4.659
46 F7 156 -3.194
46 F7 157 -1.241
46 F7 158 -0.753
46 F7 159 -3.682
46 F7 160 -7.100
46 F7 161 -8.565
46 F7 162 -7.589
46 F7 163 -6.612
46 F7 164 -6.612
46 F7 165 -6.612
46 F7 166 -5.147
46 F7 167 -1.729
46 F7 168 1.689
46 F7 169 2.177
46 F7 170 -1.729
46 F7 171 -6.612
46 F7 172 -8.565
46 F7 173 -5.147
46 F7 174 0.712
46 F7 175 4.130
46 F7 176 2.177
46 F7 177 -3.194
46 F7 178 -8.077
46 F7 179 -8.077
46 F7 180 -2.706
46 F7 181 4.618
46 F7 182 8.525
46 F7 183 8.525
46 F7 184 5.107
46 F7 185 1.689
46 F7 186 -0.264
46 F7 187 0.712
46 F7 188 2.665
46 F7 189 4.130
46 F7 190 4.618
46 F7 191 4.618
46 F7 192 5.595
46 F7 193 7.060
46 F7 194 9.013
46 F7 195 9.501
46 F7 196 7.548
46 F7 197 4.130
46 F7 198 1.200
46 F7 199 -2.218
46 F7 200 -3.194
46 F7 201 -4.171
46 F7 202 -6.124
46 F7 203 -8.077
46 F7 204 -9.542
46 F7 205 -8.565
46 F7 206 -4.171
46 F7 207 0.712
46 F7 208 5.107
46 F7 209 6.571
46 F7 210 5.107
46 F7 211 2.665
46 F7 212 1.200
46 F7 213 0.224
46 F7 214 -0.264
46 F7 215 -2.218
46 F7 216 -5.147
46 F7 217 -7.589
46 F7 218 -8.077
46 F7 219 -5.147
46 F7 220 -2.218
46 F7 221 0.712
46 F7 222 1.200
46 F7 223 0.224
46 F7 224 -1.241
46 F7 225 -1.729
46 F7 226 -0.753
46 F7 227 1.689
46 F7 228 4.618
46 F7 229 6.083
46 F7 230 6.083
46 F7 231 5.107
46 F7 232 3.642
46 F7 233 3.153
46 F7 234 4.130
46 F7 235 4.618
46 F7 236 4.130
46 F7 237 2.665
46 F7 238 1.689
46 F7 239 2.665
46 F7 240 6.083
46 F7 241 8.525
46 F7 242 8.036
46 F7 243 4.618
46 F7 244 0.224
46 F7 245 -1.729
46 F7 246 0.224
46 F7 247 3.642
46 F7 248 6.571
46 F7 249 6.083
46 F7 250 2.177
46 F7 251 -2.706
46 F7 252 -7.100
46 F7 253 -9.054
46 F7 254 -8.077
46 F7 255 -5.147
# F8 chan 3
46 F8 0 -14.181
46 F8 1 -7.345
46 F8 2 0.468
46 F8 3 -0.020
46 F8 4 -7.833
46 F8 5 -13.692
46 F8 6 -9.298
46 F8 7 4.862
46 F8 8 16.581
46 F8 9 17.558
46 F8 10 5.839
46 F8 11 -8.321
46 F8 12 -14.181
46 F8 13 -9.786
46 F8 14 -3.927
46 F8 15 -3.438
46 F8 16 -8.809
46 F8 17 -12.227
46 F8 18 -7.833
46 F8 19 2.421
46 F8 20 9.257
46 F8 21 5.351
46 F8 22 -5.391
46 F8 23 -13.204
46 F8 24 -12.716
46 F8 25 -6.368
46 F8 26 -2.950
46 F8 27 -7.345
46 F8 28 -14.669
46 F8 29 -15.157
46 F8 30 -4.903
46 F8 31 10.722
46 F8 32 20.976
46 F8 33 18.046
46 F8 34 4.374
46 F8 35 -9.786
46 F8 36 -17.598
46 F8 37 -16.622
46 F8 38 -11.251
46 F8 39 -6.368
46 F8 40 -3.438
46 F8 41 -0.509
46 F8 42 2.421
46 F8 43 5.351
46 F8 44 5.351
46 F8 45 1.933
46 F8 46 -2.462
46 F8 47 -5.391
46 F8 48 -4.903
46 F8 49 -4.415
46 F8 50 -7.345
46 F8 51 -14.181
46 F8 52 -20.040
46 F8 53 -19.552
46 F8 54 -9.786
46 F8 55 4.374
46 F8 56 14.140
46 F8 57 13.163
46 F8 58 3.398
46 F8 59 -8.321
46 F8 60 -12.227
46 F8 61 -7.833
46 F8 62 -1.485
46 F8 63 -0.997
46 F8 64 -9.786
46 F8 65 -22.481
46 F8 66 -28.341
46 F8 67 -22.970
46 F8 68 -7.833
46 F8 69 5.839
46 F8 70 11.210
46 F8 71 7.304
46 F8 72 -0.020
46 F8 73 -3.438
46 F8 74 -0.997
46 F8 75 3.398
46 F8 76 2.909
46 F8 77 -4.415
46 F8 78 -15.157
46 F8 79 -21.016
46 F8 80 -15.645
46 F8 81 -1.485
46 F8 82 13.652
46 F8 83 20.976
46 F8 84 17.069
46 F8 85 5.351
46 F8 86 -6.856
46 F8 87 -13.204
46 F8 88 -11.251
46 F8 89 -2.462
46 F8 90 7.304
46 F8 91 13.652
46 F8 92 13.652
46 F8 93 7.792
46 F8 94 1.444
46 F8 95 -0.020
46 F8 96 2.909
46 F8 97 7.304
46 F8 98 8.280
46 F8 99 4.374
46 F8 100 -0.997
46 F8 101 -1.485
46 F8 102 4.374
46 F8 103 13.163
46 F8 104 19.023
46 F8 105 15.605
46 F8 106 5.839
46 F8 107 -5.880
46 F8 108 -12.227
46 F8 109 -11.739
46 F8 110 -6.856
46 F8 111 -0.997
46 F8 112 4.374
46 F8 113 9.745
46 F8 114 15.116
46 F8 115 16.581
46 F8 116 11.210
46 F8 117 2.421
46 F8 118 -4.415
46 F8 119 -2.462
46 F8 120 6.816
46 F8 121 16.093
46 F8 122 15.605
46 F8 123 4.862
46 F8 124 -9.298
46 F8 125 -16.134
46 F8 126 -10.274
46 F8 127 4.374
46 F8 128 16.581
46 F8 129 19.023
46 F8 130 10.234
46 F8 131 -2.462
46 F8 132 -13.204
46 F8 133 -16.622
46 F8 134 -13.204
46 F8 135 -6.856
46 F8 136 -0.020
46 F8 137 5.839
46 F8 138 9.745
46 F8 139 10.234
46 F8 140 6.816
46 F8 141 -1.973
46 F8 142 -11.739
46 F8 143 -17.598
46 F8 144 -17.110
46 F8 145 -9.786
46 F8 146 -0.997
46 F8 147 4.862
46 F8 148 4.862
46 F8 149 0.956
46 F8 150 -1.973
46 F8 151 -2.950
46 F8 152 -2.950
46 F8 153 -3.927
46 F8 154 -6.368
46 F8 155 -6.368
46 F8 156 -4.415
46 F8 157 -2.462
46 F8 158 -3.927
46 F8 159 -9.786
46 F8 160 -14.181
46 F8 161 -11.251
46 F8 162 -0.020
46 F8 163 12.187
46 F8 164 17.069
46 F8 165 10.234
46 F8 166 -2.950
46 F8 167 -12.716
46 F8 168 -14.181
46 F8 169 -9.786
46 F8 170 -4.903
46 F8 171 -2.950
46 F8 172 -2.462
46 F8 173 1.444
46 F8 174 9.257
46 F8 175 18.046
46 F8 176 20.976
46 F8 177 16.093
46 F8 178 4.862
46 F8 179 -6.368
46 F8 180 -12.716
46 F8 181 -10.274
46 F8 182 -2.462
46 F8 183 7.304
46 F8 184 12.675
46 F8 185 12.675
46 F8 186 10.234
46 F8 187 8.769
46 F8 188 10.234
46 F8 189 12.187
46 F8 190 10.722
46 F8 191 4.862
46 F8 192 -2.950
46 F8 193 -7.345
46 F8 194 -4.903
46 F8 195 1.444
46 F8 196 6.816
46 F8 197 6.816
46 F8 198 3.886
46 F8 199 -0.509
46 F8 200 -3.927
46 F8 201 -6.368
46 F8 202 -7.833
46 F8 203 -6.856
46 F8 204 -1.973
46 F8 205 4.374
46 F8 206 8.280
46 F8 207 5.839
46 F8 208 -0.509
46 F8 209 -4.415
46 F8 210 -0.997
46 F8 211 7.304
46 F8 212 13.652
46 F8 213 11.210
46 F8 214 -0.020
46 F8 215 -13.204
46 F8 216 -19.552
46 F8 217 -16.622
46 F8 218 -4.415
46 F8 219 9.257
46 F8 220 18.046
46 F8 221 19.511
46 F8 222 13.652
46 F8 223 5.351
46 F8 224 -1.973
46 F8 225 -4.415
46 F8 226 -1.485
46 F8 227 1.933
46 F8 228 3.398
46 F8 229 -0.509
46 F8 230 -7.345
46 F8 231 -11.251
46 F8 232 -8.809
46 F8 233 -0.509
46 F8 234 7.304
46 F8 235 9.745
46 F8 236 5.351
46 F8 237 -0.997
46 F8 238 -3.438
46 F8 239 -0.509
46 F8 240 4.862
46 F8 241 5.351
46 F8 242 -1.973
46 F8 243 -10.763
46 F8 244 -12.227
46 F8 245 -3.438
46 F8 246 12.187
46 F8 247 23.905
46 F8 248 23.905
46 F8 249 13.163
46 F8 250 -0.509
46 F8 251 -7.833
46 F8 252 -6.368
46 F8 253 -1.485
46 F8 254 -0.997
46 F8 255 -7.345
# AF1 chan 4
46 AF1 0 3.662
46 AF1 1 2.686
46 AF1 2 1.221
46 AF1 3 -1.221
46 AF1 4 -2.197
46 AF1 5 -2.686
46 AF1 6 -1.709
46 AF1 7 -0.732
46 AF1 8 -0.244
46 AF1 9 0.244
46 AF1 10 -0.244
46 AF1 11 -1.709
46 AF1 12 -4.150
46 AF1 13 -7.080
46 AF1 14 -8.545
46 AF1 15 -8.057
46 AF1 16 -6.592
46 AF1 17 -5.127
46 AF1 18 -5.127
46 AF1 19 -6.104
46 AF1 20 -6.592
46 AF1 21 -6.104
46 AF1 22 -5.127
46 AF1 23 -4.639
46 AF1 24 -4.150
46 AF1 25 -3.662
46 AF1 26 -3.174
46 AF1 27 -2.686
46 AF1 28 -2.686
46 AF1 29 -4.639
46 AF1 30 -7.080
46 AF1 31 -8.545
46 AF1 32 -8.545
46 AF1 33 -6.592
46 AF1 34 -4.150
46 AF1 35 -3.174
46 AF1 36 -3.662
46 AF1 37 -5.127
46 AF1 38 -6.592
46 AF1 39 -6.104
46 AF1 40 -4.150
46 AF1 41 -2.197
46 AF1 42 -1.709
46 AF1 43 -2.197
46 AF1 44 -3.662
46 AF1 45 -5.127
46 AF1 46 -5.127
46 AF1 47 -3.174
46 AF1 48 -0.732
46 AF1 49 0.732
46 AF1 50 -0.244
46 AF1 51 -2.197
46 AF1 52 -4.150
46 AF1 53 -5.127
46 AF1 54 -5.127
46 AF1 55 -6.104
46 AF1 56 -7.568
46 AF1 57 -9.521
46 AF1 58 -10.498
46 AF1 59 -10.010
46 AF1 60 -8.545
46 AF1 61 -6.592
46 AF1 62 -5.615
46 AF1 63 -5.615
46 AF1 64 -6.592
46 AF1 65 -7.568
46 AF1 66 -9.033
46 AF1 67 -10.498
46 AF1 68 -10.986
46 AF1 69 -10.986
46 AF1 70 -10.010
46 AF1 71 -9.033
46 AF1 72 -8.057
46 AF1 73 -6.592
46 AF1 74 -5.615
46 AF1 75 -5.615
46 AF1 76 -7.080
46 AF1 77 -9.033
46 AF1 78 -9.521
46 AF1 79 -9.033
46 AF1 80 -6.592
46 AF1 81 -4.150
46 AF1 82 -2.686
46 AF1 83 -3.174
46 AF1 84 -4.150
46 AF1 85 -6.104
46 AF1 86 -7.080
46 AF1 87 -6.592
46 AF1 88 -6.104
46 AF1 89 -5.127
46 AF1 90 -3.662
46 AF1 91 -2.197
46 AF1 92 -0.732
46 AF1 93 0.244
46 AF1 94 0.732
46 AF1 95 0.244
46 AF1 96 -0.732
46 AF1 97 -1.709
46 AF1 98 -1.709
46 AF1 99 -0.244
46 AF1 100 1.709
46 AF1 101 3.174
46 AF1 102 4.150
46 AF1 103 4.150
46 AF1 104 3.174
46 AF1 105 1.221
46 AF1 106 -1.221
46 AF1 107 -2.197
46 AF1 108 -1.709
46 AF1 109 -0.244
46 AF1 110 2.197
46 AF1 111 4.150
46 AF1 112 4.150
46 AF1 113 2.686
46 AF1 114 -0.732
46 AF1 115 -3.174
46 AF1 116 -4.150
46 AF1 117 -3.174
46 AF1 118 -1.709
46 AF1 119 -0.244
46 AF1 120 0.244
46 AF1 121 -0.244
46 AF1 122 -0.732
46 AF1 123 -0.732
46 AF1 124 0.732
46 AF1 125 2.197
46 AF1 126 2.686
46 AF1 127 1.709
46 AF1 128 -0.244
46 AF1 129 -2.686
46 AF1 130 -3.662
46 AF1 131 -3.662
46 AF1 132 -1.709
46 AF1 133 0.244
46 AF1 134 2.197
46 AF1 135 1.709
46 AF1 136 0.732
46 AF1 137 -1.221
46 AF1 138 -2.686
46 AF1 139 -4.150
46 AF1 140 -4.150
46 AF1 141 -4.150
46 AF1 142 -4.639
46 AF1 143 -4.639
46 AF1 144 -4.150
46 AF1 145 -3.174
46 AF1 146 -1.709
46 AF1 147 -1.221
46 AF1 148 -2.197
46 AF1 149 -4.150
46 AF1 150 -7.080
46 AF1 151 -8.545
46 AF1 152 -9.033
46 AF1 153 -8.057
46 AF1 154 -6.592
46 AF1 155 -4.150
46 AF1 156 -2.197
46 AF1 157 -1.221
46 AF1 158 -1.221
46 AF1 159 -2.197
46 AF1 160 -4.639
46 AF1 161 -6.592
46 AF1 162 -7.568
46 AF1 163 -7.568
46 AF1 164 -6.592
46 AF1 165 -6.104
46 AF1 166 -5.615
46 AF1 167 -5.127
46 AF1 168 -4.150
46 AF1 169 -3.662
46 AF1 170 -2.686
46 AF1 171 -2.686
46 AF1 172 -3.662
46 AF1 173 -3.662
46 AF1 174 -3.662
46 AF1 175 -3.662
46 AF1 176 -2.686
46 AF1 177 -2.686
46 AF1 178 -2.686
46 AF1 179 -3.662
46 AF1 180 -3.662
46 AF1 181 -2.197
46 AF1 182 0.244
46 AF1 183 3.174
46 AF1 184 4.150
46 AF1 185 2.686
46 AF1 186 -0.244
46 AF1 187 -2.686
46 AF1 188 -2.197
46 AF1 189 1.221
46 AF1 190 5.615
46 AF1 191 8.057
46 AF1 192 8.545
46 AF1 193 6.592
46 AF1 194 4.639
46 AF1 195 2.686
46 AF1 196 1.221
46 AF1 197 -0.244
46 AF1 198 -1.221
46 AF1 199 -1.709
46 AF1 200 -2.197
46 AF1 201 -2.686
46 AF1 202 -2.686
46 AF1 203 -3.662
46 AF1 204 -4.150
46 AF1 205 -4.150
46 AF1 206 -3.662
46 AF1 207 -2.686
46 AF1 208 -1.709
46 AF1 209 -1.709
46 AF1 210 -1.709
46 AF1 211 -1.709
46 AF1 212 -1.221
46 AF1 213 -1.221
46 AF1 214 -0.732
46 AF1 215 -0.732
46 AF1 216 -0.732
46 AF1 217 -0.244
46 AF1 218 0.244
46 AF1 219 -0.732
46 AF1 220 -2.197
46 AF1 221 -4.150
46 AF1 222 -4.639
46 AF1 223 -3.662
46 AF1 224 -0.732
46 AF1 225 1.221
46 AF1 226 2.197
46 AF1 227 2.197
46 AF1 228 3.174
46 AF1 229 5.127
46 AF1 230 6.592
46 AF1 231 6.104
46 AF1 232 5.127
46 AF1 233 3.174
46 AF1 234 1.709
46 AF1 235 2.686
46 AF1 236 4.150
46 AF1 237 5.127
46 AF1 238 4.639
46 AF1 239 3.174
46 AF1 240 2.686
46 AF1 241 2.686
46 AF1 242 3.174
46 AF1 243 4.150
46 AF1 244 4.639
46 AF1 245 4.639
46 AF1 246 5.615
46 AF1 247 5.615
46 AF1 248 5.615
46 AF1 249 4.150
46 AF1 250 1.709
46 AF1 251 -1.221
46 AF1 252 -3.174
46 AF1 253 -4.150
46 AF1 254 -4.639
46 AF1 255 -4.150
# AF2 chan 5
46 AF2 0 5.096
46 AF2 1 3.632
46 AF2 2 1.678
46 AF2 3 -0.275
46 AF2 4 -0.763
46 AF2 5 -0.275
46 AF2 6 0.214
46 AF2 7 -0.275
46 AF2 8 -1.740
46 AF2 9 -2.716
46 AF2 10 -3.204
46 AF2 11 -3.204
46 AF2 12 -3.204
46 AF2 13 -3.693
46 AF2 14 -4.669
46 AF2 15 -5.646
46 AF2 16 -6.622
46 AF2 17 -6.622
46 AF2 18 -6.134
46 AF2 19 -4.669
46 AF2 20 -3.204
46 AF2 21 -3.204
46 AF2 22 -4.181
46 AF2 23 -6.622
46 AF2 24 -8.087
46 AF2 25 -8.087
46 AF2 26 -6.134
46 AF2 27 -2.716
46 AF2 28 -0.275
46 AF2 29 -0.275
46 AF2 30 -2.716
46 AF2 31 -5.646
46 AF2 32 -7.111
46 AF2 33 -6.622
46 AF2 34 -4.669
46 AF2 35 -3.693
46 AF2 36 -4.669
46 AF2 37 -7.111
46 AF2 38 -8.087
46 AF2 39 -6.622
46 AF2 40 -2.716
46 AF2 41 1.190
46 AF2 42 2.655
46 AF2 43 1.190
46 AF2 44 -2.716
46 AF2 45 -5.157
46 AF2 46 -5.157
46 AF2 47 -1.740
46 AF2 48 0.702
46 AF2 49 0.214
46 AF2 50 -2.716
46 AF2 51 -5.646
46 AF2 52 -5.157
46 AF2 53 -2.228
46 AF2 54 0.214
46 AF2 55 -0.763
46 AF2 56 -5.157
46 AF2 57 -9.552
46 AF2 58 -11.017
46 AF2 59 -9.064
46 AF2 60 -5.157
46 AF2 61 -3.693
46 AF2 62 -5.157
46 AF2 63 -8.087
46 AF2 64 -9.552
46 AF2 65 -9.064
46 AF2 66 -7.111
46 AF2 67 -6.622
46 AF2 68 -8.087
46 AF2 69 -10.529
46 AF2 70 -11.993
46 AF2 71 -10.529
46 AF2 72 -7.111
46 AF2 73 -3.204
46 AF2 74 -1.251
46 AF2 75 -3.204
46 AF2 76 -7.599
46 AF2 77 -11.505
46 AF2 78 -12.970
46 AF2 79 -10.529
46 AF2 80 -5.646
46 AF2 81 -1.251
46 AF2 82 0.214
46 AF2 83 -2.228
46 AF2 84 -5.646
46 AF2 85 -8.575
46 AF2 86 -8.087
46 AF2 87 -6.134
46 AF2 88 -3.204
46 AF2 89 -2.228
46 AF2 90 -2.228
46 AF2 91 -3.204
46 AF2 92 -3.204
46 AF2 93 -2.716
46 AF2 94 -2.716
46 AF2 95 -2.716
46 AF2 96 -3.204
46 AF2 97 -2.228
46 AF2 98 0.214
46 AF2 99 3.143
46 AF2 100 3.632
46 AF2 101 2.167
46 AF2 102 0.214
46 AF2 103 -0.763
46 AF2 104 0.702
46 AF2 105 2.167
46 AF2 106 1.678
46 AF2 107 -0.763
46 AF2 108 -4.181
46 AF2 109 -5.157
46 AF2 110 -2.716
46 AF2 111 2.655
46 AF2 112 6.561
46 AF2 113 6.561
46 AF2 114 3.632
46 AF2 115 -0.763
46 AF2 116 -3.204
46 AF2 117 -3.204
46 AF2 118 -2.228
46 AF2 119 -1.740
46 AF2 120 -2.228
46 AF2 121 -3.204
46 AF2 122 -2.228
46 AF2 123 -0.763
46 AF2 124 1.678
46 AF2 125 4.608
46 AF2 126 5.096
46 AF2 127 4.120
46 AF2 128 1.190
46 AF2 129 -3.204
46 AF2 130 -6.134
46 AF2 131 -6.622
46 AF2 132 -4.669
46 AF2 133 -0.763
46 AF2 134 3.143
46 AF2 135 5.096
46 AF2 136 5.096
46 AF2 137 2.655
46 AF2 138 -1.251
46 AF2 139 -4.669
46 AF2 140 -7.599
46 AF2 141 -9.064
46 AF2 142 -9.064
46 AF2 143 -8.087
46 AF2 144 -6.134
46 AF2 145 -3.204
46 AF2 146 -0.275
46 AF2 147 1.190
46 AF2 148 0.214
46 AF2 149 -2.716
46 AF2 150 -6.622
46 AF2 151 -9.552
46 AF2 152 -10.040
46 AF2 153 -8.087
46 AF2 154 -6.134
46 AF2 155 -4.669
46 AF2 156 -4.181
46 AF2 157 -4.669
46 AF2 158 -4.669
46 AF2 159 -4.181
46 AF2 160 -4.181
46 AF2 161 -5.157
46 AF2 162 -6.622
46 AF2 163 -8.575
46 AF2 164 -8.087
46 AF2 165 -5.646
46 AF2 166 -2.228
46 AF2 167 0.214
46 AF2 168 -0.275
46 AF2 169 -3.204
46 AF2 170 -5.646
46 AF2 171 -6.134
46 AF2 172 -4.181
46 AF2 173 -1.740
46 AF2 174 -1.251
46 AF2 175 -2.716
46 AF2 176 -4.669
46 AF2 177 -5.646
46 AF2 178 -3.204
46 AF2 179 -0.275
46 AF2 180 1.678
46 AF2 181 1.678
46 AF2 182 0.702
46 AF2 183 -0.275
46 AF2 184 -0.763
46 AF2 185 -0.275
46 AF2 186 -0.763
46 AF2 187 -1.740
46 AF2 188 -2.716
46 AF2 189 -2.228
46 AF2 190 0.214
46 AF2 191 2.167
46 AF2 192 3.632
46 AF2 193 3.143
46 AF2 194 1.678
46 AF2 195 -0.763
46 AF2 196 -3.204
46 AF2 197 -4.669
46 AF2 198 -5.646
46 AF2 199 -6.134
46 AF2 200 -4.669
46 AF2 201 -2.716
46 AF2 202 -1.740
46 AF2 203 -1.251
46 AF2 204 -2.228
46 AF2 205 -3.204
46 AF2 206 -3.204
46 AF2 207 -2.228
46 AF2 208 -2.228
46 AF2 209 -3.204
46 AF2 210 -4.669
46 AF2 211 -5.157
46 AF2 212 -5.157
46 AF2 213 -4.181
46 AF2 214 -3.204
46 AF2 215 -2.716
46 AF2 216 -1.740
46 AF2 217 -0.275
46 AF2 218 1.678
46 AF2 219 2.655
46 AF2 220 0.214
46 AF2 221 -4.181
46 AF2 222 -8.087
46 AF2 223 -8.575
46 AF2 224 -5.646
46 AF2 225 -1.740
46 AF2 226 0.702
46 AF2 227 1.190
46 AF2 228 1.190
46 AF2 229 2.167
46 AF2 230 3.632
46 AF2 231 4.120
46 AF2 232 2.655
46 AF2 233 -0.763
46 AF2 234 -3.693
46 AF2 235 -5.157
46 AF2 236 -3.693
46 AF2 237 0.214
46 AF2 238 3.632
46 AF2 239 6.073
46 AF2 240 5.585
46 AF2 241 3.143
46 AF2 242 0.702
46 AF2 243 -0.275
46 AF2 244 1.190
46 AF2 245 3.632
46 AF2 246 5.096
46 AF2 247 5.096
46 AF2 248 3.143
46 AF2 249 1.190
46 AF2 250 0.214
46 AF2 251 -0.275
46 AF2 252 -1.251
46 AF2 253 -3.693
46 AF2 254 -6.622
46 AF2 255 -8.575
# FZ chan 6
46 FZ 0 1.221
46 FZ 1 0.732
46 FZ 2 0.244
46 FZ 3 0.244
46 FZ 4 -0.244
46 FZ 5 -0.732
46 FZ 6 -1.221
46 FZ 7 -1.221
46 FZ 8 -0.732
46 FZ 9 -0.244
46 FZ 10 -0.244
46 FZ 11 -1.221
46 FZ 12 -3.662
46 FZ 13 -6.592
46 FZ 14 -7.568
46 FZ 15 -8.057
46 FZ 16 -7.080
46 FZ 17 -6.104
46 FZ 18 -5.615
46 FZ 19 -5.615
46 FZ 20 -5.127
46 FZ 21 -4.150
46 FZ 22 -4.150
46 FZ 23 -4.150
46 FZ 24 -4.639
46 FZ 25 -4.639
46 FZ 26 -4.150
46 FZ 27 -3.174
46 FZ 28 -3.174
46 FZ 29 -4.639
46 FZ 30 -6.104
46 FZ 31 -7.568
46 FZ 32 -7.568
46 FZ 33 -5.615
46 FZ 34 -4.150
46 FZ 35 -3.174
46 FZ 36 -3.662
46 FZ 37 -4.639
46 FZ 38 -5.127
46 FZ 39 -4.150
46 FZ 40 -3.174
46 FZ 41 -2.197
46 FZ 42 -2.197
46 FZ 43 -2.686
46 FZ 44 -3.662
46 FZ 45 -4.150
46 FZ 46 -3.662
46 FZ 47 -2.197
46 FZ 48 -0.244
46 FZ 49 0.732
46 FZ 50 0.244
46 FZ 51 -0.244
46 FZ 52 -1.221
46 FZ 53 -2.197
46 FZ 54 -3.174
46 FZ 55 -4.150
46 FZ 56 -5.127
46 FZ 57 -6.104
46 FZ 58 -6.592
46 FZ 59 -6.592
46 FZ 60 -6.104
46 FZ 61 -5.127
46 FZ 62 -4.150
46 FZ 63 -4.150
46 FZ 64 -3.662
46 FZ 65 -4.150
46 FZ 66 -5.127
46 FZ 67 -7.080
46 FZ 68 -8.545
46 FZ 69 -10.010
46 FZ 70 -10.010
46 FZ 71 -8.545
46 FZ 72 -6.592
46 FZ 73 -5.127
46 FZ 74 -4.639
46 FZ 75 -5.615
46 FZ 76 -7.568
46 FZ 77 -9.521
46 FZ 78 -10.498
46 FZ 79 -9.521
46 FZ 80 -7.568
46 FZ 81 -5.615
46 FZ 82 -4.639
46 FZ 83 -5.127
46 FZ 84 -6.592
46 FZ 85 -8.057
46 FZ 86 -8.545
46 FZ 87 -9.033
46 FZ 88 -8.545
46 FZ 89 -8.057
46 FZ 90 -7.080
46 FZ 91 -6.104
46 FZ 92 -4.639
46 FZ 93 -3.662
46 FZ 94 -3.174
46 FZ 95 -3.662
46 FZ 96 -5.127
46 FZ 97 -5.615
46 FZ 98 -6.104
46 FZ 99 -5.127
46 FZ 100 -3.662
46 FZ 101 -1.709
46 FZ 102 -1.221
46 FZ 103 -0.732
46 FZ 104 -1.221
46 FZ 105 -2.686
46 FZ 106 -3.662
46 FZ 107 -4.150
46 FZ 108 -4.150
46 FZ 109 -2.686
46 FZ 110 -1.709
46 FZ 111 -0.244
46 FZ 112 -0.244
46 FZ 113 -1.709
46 FZ 114 -3.662
46 FZ 115 -4.639
46 FZ 116 -4.639
46 FZ 117 -3.662
46 FZ 118 -3.174
46 FZ 119 -2.686
46 FZ 120 -3.174
46 FZ 121 -3.174
46 FZ 122 -2.197
46 FZ 123 -1.221
46 FZ 124 0.732
46 FZ 125 1.709
46 FZ 126 1.709
46 FZ 127 1.221
46 FZ 128 -0.244
46 FZ 129 -1.709
46 FZ 130 -2.197
46 FZ 131 -1.709
46 FZ 132 -0.244
46 FZ 133 1.221
46 FZ 134 2.686
46 FZ 135 2.686
46 FZ 136 1.709
46 FZ 137 0.732
46 FZ 138 -0.732
46 FZ 139 -2.197
46 FZ 140 -2.197
46 FZ 141 -2.686
46 FZ 142 -2.686
46 FZ 143 -2.686
46 FZ 144 -2.686
46 FZ 145 -2.197
46 FZ 146 -1.709
46 FZ 147 -1.221
46 FZ 148 -1.709
46 FZ 149 -2.197
46 FZ 150 -3.174
46 FZ 151 -4.150
46 FZ 152 -5.615
46 FZ 153 -6.104
46 FZ 154 -5.615
46 FZ 155 -4.150
46 FZ 156 -2.686
46 FZ 157 -1.709
46 FZ 158 -1.221
46 FZ 159 -2.197
46 FZ 160 -3.662
46 FZ 161 -4.150
46 FZ 162 -5.127
46 FZ 163 -5.615
46 FZ 164 -6.104
46 FZ 165 -6.592
46 FZ 166 -7.080
46 FZ 167 -6.104
46 FZ 168 -5.127
46 FZ 169 -4.150
46 FZ 170 -4.150
46 FZ 171 -5.127
46 FZ 172 -6.104
46 FZ 173 -7.080
46 FZ 174 -6.592
46 FZ 175 -5.615
46 FZ 176 -5.127
46 FZ 177 -4.150
46 FZ 178 -4.639
46 FZ 179 -5.127
46 FZ 180 -5.615
46 FZ 181 -5.127
46 FZ 182 -4.150
46 FZ 183 -2.686
46 FZ 184 -2.686
46 FZ 185 -3.174
46 FZ 186 -4.639
46 FZ 187 -5.127
46 FZ 188 -4.150
46 FZ 189 -1.709
46 FZ 190 0.732
46 FZ 191 2.197
46 FZ 192 2.197
46 FZ 193 1.221
46 FZ 194 -0.244
46 FZ 195 -1.709
46 FZ 196 -2.686
46 FZ 197 -3.174
46 FZ 198 -3.174
46 FZ 199 -3.174
46 FZ 200 -3.174
46 FZ 201 -3.174
46 FZ 202 -4.150
46 FZ 203 -5.127
46 FZ 204 -5.615
46 FZ 205 -5.127
46 FZ 206 -4.150
46 FZ 207 -3.662
46 FZ 208 -3.662
46 FZ 209 -4.150
46 FZ 210 -4.639
46 FZ 211 -4.639
46 FZ 212 -4.639
46 FZ 213 -3.662
46 FZ 214 -2.197
46 FZ 215 -1.709
46 FZ 216 -1.221
46 FZ 217 -1.221
46 FZ 218 -1.221
46 FZ 219 -1.709
46 FZ 220 -2.197
46 FZ 221 -3.662
46 FZ 222 -4.639
46 FZ 223 -5.127
46 FZ 224 -4.639
46 FZ 225 -3.174
46 FZ 226 -1.221
46 FZ 227 0.244
46 FZ 228 1.709
46 FZ 229 2.197
46 FZ 230 2.197
46 FZ 231 1.221
46 FZ 232 0.244
46 FZ 233 -0.244
46 FZ 234 -0.732
46 FZ 235 -0.732
46 FZ 236 -0.244
46 FZ 237 -0.244
46 FZ 238 -0.244
46 FZ 239 0.244
46 FZ 240 0.244
46 FZ 241 0.732
46 FZ 242 0.244
46 FZ 243 0.244
46 FZ 244 0.244
46 FZ 245 0.732
46 FZ 246 2.197
46 FZ 247 2.686
46 FZ 248 1.709
46 FZ 249 -0.244
46 FZ 250 -2.686
46 FZ 251 -4.150
46 FZ 252 -4.150
46 FZ 253 -4.150
46 FZ 254 -3.662
46 FZ 255 -4.639
# F4 chan 7
46 F4 0 1.180
46 F4 1 0.692
46 F4 2 0.692
46 F4 3 1.668
46 F4 4 1.180
46 F4 5 0.203
46 F4 6 -1.750
46 F4 7 -2.238
46 F4 8 -2.238
46 F4 9 -1.261
46 F4 10 -0.773
46 F4 11 -0.773
46 F4 12 -1.750
46 F4 13 -3.215
46 F4 14 -4.191
46 F4 15 -5.656
46 F4 16 -7.121
46 F4 17 -8.586
46 F4 18 -8.586
46 F4 19 -6.632
46 F4 20 -3.215
46 F4 21 -0.285
46 F4 22 0.203
46 F4 23 -1.750
46 F4 24 -4.679
46 F4 25 -6.144
46 F4 26 -5.656
46 F4 27 -4.191
46 F4 28 -2.726
46 F4 29 -3.703
46 F4 30 -5.168
46 F4 31 -6.632
46 F4 32 -6.144
46 F4 33 -4.191
46 F4 34 -2.726
46 F4 35 -2.238
46 F4 36 -2.238
46 F4 37 -2.726
46 F4 38 -2.238
46 F4 39 -1.261
46 F4 40 -0.773
46 F4 41 -1.750
46 F4 42 -3.215
46 F4 43 -4.679
46 F4 44 -5.656
46 F4 45 -5.656
46 F4 46 -4.679
46 F4 47 -3.215
46 F4 48 -0.773
46 F4 49 0.692
46 F4 50 0.692
46 F4 51 -0.285
46 F4 52 -1.750
46 F4 53 -1.750
46 F4 54 -1.261
46 F4 55 -0.773
46 F4 56 -1.750
46 F4 57 -4.191
46 F4 58 -7.121
46 F4 59 -10.050
46 F4 60 -11.027
46 F4 61 -10.050
46 F4 62 -7.121
46 F4 63 -3.703
46 F4 64 -0.773
46 F4 65 0.203
46 F4 66 -0.285
46 F4 67 -2.726
46 F4 68 -5.656
46 F4 69 -8.586
46 F4 70 -10.050
46 F4 71 -8.586
46 F4 72 -5.656
46 F4 73 -2.726
46 F4 74 -1.750
46 F4 75 -2.726
46 F4 76 -4.679
46 F4 77 -5.656
46 F4 78 -4.191
46 F4 79 -1.750
46 F4 80 0.203
46 F4 81 0.692
46 F4 82 -0.773
46 F4 83 -3.215
46 F4 84 -5.168
46 F4 85 -6.144
46 F4 86 -6.144
46 F4 87 -5.656
46 F4 88 -3.703
46 F4 89 -1.750
46 F4 90 0.203
46 F4 91 0.692
46 F4 92 -0.285
46 F4 93 -1.261
46 F4 94 -2.726
46 F4 95 -2.238
46 F4 96 -1.750
46 F4 97 -1.261
46 F4 98 -1.261
46 F4 99 -0.773
46 F4 100 -0.773
46 F4 101 -0.285
46 F4 102 -0.285
46 F4 103 -0.285
46 F4 104 0.203
46 F4 105 0.692
46 F4 106 2.157
46 F4 107 3.621
46 F4 108 4.598
46 F4 109 4.598
46 F4 110 2.157
46 F4 111 -1.261
46 F4 112 -4.191
46 F4 113 -5.168
46 F4 114 -4.191
46 F4 115 -1.750
46 F4 116 0.692
46 F4 117 1.180
46 F4 118 0.203
46 F4 119 -1.750
46 F4 120 -4.191
46 F4 121 -4.191
46 F4 122 -2.238
46 F4 123 0.692
46 F4 124 3.133
46 F4 125 3.621
46 F4 126 2.157
46 F4 127 0.692
46 F4 128 -0.773
46 F4 129 -1.261
46 F4 130 -2.238
46 F4 131 -2.238
46 F4 132 -1.750
46 F4 133 0.203
46 F4 134 1.668
46 F4 135 1.668
46 F4 136 0.692
46 F4 137 -0.285
46 F4 138 -1.750
46 F4 139 -2.238
46 F4 140 -2.726
46 F4 141 -3.215
46 F4 142 -4.191
46 F4 143 -5.168
46 F4 144 -6.144
46 F4 145 -5.656
46 F4 146 -5.656
46 F4 147 -5.168
46 F4 148 -5.656
46 F4 149 -4.679
46 F4 150 -3.215
46 F4 151 -1.750
46 F4 152 -0.773
46 F4 153 -2.238
46 F4 154 -4.679
46 F4 155 -7.121
46 F4 156 -7.609
46 F4 157 -6.144
46 F4 158 -4.191
46 F4 159 -2.238
46 F4 160 -1.750
46 F4 161 -1.750
46 F4 162 -1.750
46 F4 163 -2.238
46 F4 164 -2.726
46 F4 165 -3.215
46 F4 166 -3.703
46 F4 167 -3.703
46 F4 168 -3.215
46 F4 169 -2.726
46 F4 170 -3.215
46 F4 171 -4.191
46 F4 172 -5.168
46 F4 173 -5.168
46 F4 174 -3.703
46 F4 175 -0.773
46 F4 176 1.668
46 F4 177 3.133
46 F4 178 2.157
46 F4 179 0.692
46 F4 180 -1.750
46 F4 181 -3.215
46 F4 182 -4.679
46 F4 183 -4.679
46 F4 184 -4.679
46 F4 185 -3.703
46 F4 186 -1.750
46 F4 187 -0.285
46 F4 188 1.180
46 F4 189 2.645
46 F4 190 4.110
46 F4 191 5.086
46 F4 192 3.621
46 F4 193 -0.285
46 F4 194 -5.656
46 F4 195 -9.562
46 F4 196 -10.050
46 F4 197 -6.632
46 F4 198 -1.261
46 F4 199 1.668
46 F4 200 1.668
46 F4 201 -1.261
46 F4 202 -4.679
46 F4 203 -6.632
46 F4 204 -6.144
46 F4 205 -4.191
46 F4 206 -1.750
46 F4 207 -0.773
46 F4 208 -0.773
46 F4 209 -1.750
46 F4 210 -3.215
46 F4 211 -4.679
46 F4 212 -4.679
46 F4 213 -4.191
46 F4 214 -2.726
46 F4 215 -1.750
46 F4 216 -0.773
46 F4 217 -0.773
46 F4 218 -0.285
46 F4 219 0.203
46 F4 220 -0.773
46 F4 221 -2.238
46 F4 222 -4.679
46 F4 223 -6.144
46 F4 224 -6.144
46 F4 225 -5.168
46 F4 226 -2.726
46 F4 227 -1.261
46 F4 228 -0.773
46 F4 229 -1.261
46 F4 230 -1.261
46 F4 231 -0.773
46 F4 232 0.203
46 F4 233 0.692
46 F4 234 0.203
46 F4 235 -1.261
46 F4 236 -2.726
46 F4 237 -2.726
46 F4 238 -0.773
46 F4 239 1.180
46 F4 240 1.180
46 F4 241 -0.285
46 F4 242 -3.215
46 F4 243 -5.168
46 F4 244 -4.679
46 F4 245 -1.750
46 F4 246 1.668
46 F4 247 3.133
46 F4 248 2.157
46 F4 249 -0.285
46 F4 250 -2.726
46 F4 251 -3.215
46 F4 252 -2.726
46 F4 253 -1.750
46 F4 254 -1.750
46 F4 255 -3.703
# F3 chan 8
46 F3 0 1.394
46 F3 1 1.394
46 F3 2 0.417
46 F3 3 -0.559
46 F3 4 -2.024
46 F3 5 -3.489
46 F3 6 -3.977
46 F3 7 -2.513
46 F3 8 -0.559
46 F3 9 1.394
46 F3 10 2.370
46 F3 11 0.417
46 F3 12 -3.001
46 F3 13 -6.419
46 F3 14 -7.884
46 F3 15 -7.884
46 F3 16 -6.907
46 F3 17 -5.442
46 F3 18 -4.954
46 F3 19 -3.977
46 F3 20 -3.001
46 F3 21 -1.536
46 F3 22 -2.024
46 F3 23 -3.977
46 F3 24 -6.419
46 F3 25 -7.395
46 F3 26 -5.931
46 F3 27 -3.001
46 F3 28 -0.559
46 F3 29 -1.048
46 F3 30 -3.489
46 F3 31 -7.395
46 F3 32 -8.860
46 F3 33 -8.372
46 F3 34 -5.931
46 F3 35 -3.977
46 F3 36 -3.489
46 F3 37 -3.977
46 F3 38 -4.466
46 F3 39 -3.977
46 F3 40 -3.489
46 F3 41 -3.001
46 F3 42 -2.513
46 F3 43 -2.513
46 F3 44 -3.001
46 F3 45 -3.977
46 F3 46 -4.466
46 F3 47 -4.954
46 F3 48 -4.466
46 F3 49 -3.489
46 F3 50 -2.513
46 F3 51 -1.536
46 F3 52 -2.513
46 F3 53 -4.466
46 F3 54 -6.907
46 F3 55 -8.372
46 F3 56 -8.860
46 F3 57 -7.884
46 F3 58 -6.907
46 F3 59 -5.931
46 F3 60 -5.442
46 F3 61 -4.954
46 F3 62 -4.466
46 F3 63 -3.001
46 F3 64 -2.513
46 F3 65 -3.001
46 F3 66 -5.442
46 F3 67 -7.884
46 F3 68 -10.325
46 F3 69 -11.302
46 F3 70 -10.325
46 F3 71 -7.884
46 F3 72 -4.954
46 F3 73 -2.513
46 F3 74 -1.536
46 F3 75 -2.513
46 F3 76 -4.954
46 F3 77 -7.884
46 F3 78 -9.349
46 F3 79 -8.860
46 F3 80 -6.419
46 F3 81 -3.001
46 F3 82 -1.048
46 F3 83 -0.071
46 F3 84 -0.559
46 F3 85 -3.001
46 F3 86 -5.442
46 F3 87 -7.395
46 F3 88 -7.884
46 F3 89 -6.419
46 F3 90 -4.954
46 F3 91 -2.513
46 F3 92 -0.559
46 F3 93 1.394
46 F3 94 2.370
46 F3 95 2.370
46 F3 96 0.905
46 F3 97 -1.048
46 F3 98 -3.001
46 F3 99 -3.489
46 F3 100 -2.024
46 F3 101 0.905
46 F3 102 3.835
46 F3 103 5.300
46 F3 104 4.323
46 F3 105 1.394
46 F3 106 -2.513
46 F3 107 -4.466
46 F3 108 -4.466
46 F3 109 -2.024
46 F3 110 1.394
46 F3 111 3.835
46 F3 112 3.347
46 F3 113 1.394
46 F3 114 -1.536
46 F3 115 -3.001
46 F3 116 -2.513
46 F3 117 -1.536
46 F3 118 -0.559
46 F3 119 -1.536
46 F3 120 -3.977
46 F3 121 -6.419
46 F3 122 -6.419
46 F3 123 -4.954
46 F3 124 -1.536
46 F3 125 1.394
46 F3 126 2.370
46 F3 127 0.905
46 F3 128 -2.024
46 F3 129 -4.954
46 F3 130 -6.907
46 F3 131 -6.419
46 F3 132 -3.977
46 F3 133 -0.559
46 F3 134 2.858
46 F3 135 3.835
46 F3 136 2.370
46 F3 137 -0.559
46 F3 138 -3.489
46 F3 139 -5.442
46 F3 140 -5.442
46 F3 141 -4.466
46 F3 142 -3.489
46 F3 143 -3.489
46 F3 144 -4.466
46 F3 145 -4.954
46 F3 146 -4.954
46 F3 147 -3.001
46 F3 148 -1.536
46 F3 149 -1.048
46 F3 150 -2.024
46 F3 151 -3.489
46 F3 152 -3.977
46 F3 153 -3.977
46 F3 154 -3.977
46 F3 155 -4.466
46 F3 156 -5.442
46 F3 157 -5.931
46 F3 158 -4.954
46 F3 159 -3.977
46 F3 160 -2.513
46 F3 161 -3.001
46 F3 162 -3.977
46 F3 163 -4.954
46 F3 164 -4.954
46 F3 165 -4.466
46 F3 166 -3.977
46 F3 167 -4.466
46 F3 168 -5.442
46 F3 169 -6.419
46 F3 170 -6.419
46 F3 171 -5.931
46 F3 172 -5.442
46 F3 173 -5.442
46 F3 174 -5.442
46 F3 175 -5.442
46 F3 176 -3.977
46 F3 177 -2.513
46 F3 178 -2.024
46 F3 179 -2.024
46 F3 180 -2.024
46 F3 181 -2.513
46 F3 182 -2.024
46 F3 183 -0.559
46 F3 184 -0.071
46 F3 185 -0.071
46 F3 186 -1.536
46 F3 187 -2.024
46 F3 188 -1.048
46 F3 189 1.394
46 F3 190 4.323
46 F3 191 6.765
46 F3 192 7.253
46 F3 193 6.276
46 F3 194 4.323
46 F3 195 1.882
46 F3 196 -0.559
46 F3 197 -2.513
46 F3 198 -3.489
46 F3 199 -3.489
46 F3 200 -1.536
46 F3 201 0.905
46 F3 202 1.394
46 F3 203 0.417
46 F3 204 -2.513
46 F3 205 -4.466
46 F3 206 -4.954
46 F3 207 -3.001
46 F3 208 -1.048
46 F3 209 -0.559
46 F3 210 -2.024
46 F3 211 -3.489
46 F3 212 -4.466
46 F3 213 -3.489
46 F3 214 -1.048
46 F3 215 0.417
46 F3 216 0.417
46 F3 217 -1.048
46 F3 218 -2.513
46 F3 219 -3.001
46 F3 220 -3.489
46 F3 221 -3.489
46 F3 222 -3.977
46 F3 223 -3.977
46 F3 224 -3.489
46 F3 225 -2.024
46 F3 226 -0.071
46 F3 227 1.394
46 F3 228 2.858
46 F3 229 4.323
46 F3 230 5.300
46 F3 231 5.788
46 F3 232 4.812
46 F3 233 3.347
46 F3 234 2.370
46 F3 235 1.882
46 F3 236 2.370
46 F3 237 2.370
46 F3 238 2.370
46 F3 239 1.882
46 F3 240 1.394
46 F3 241 1.882
46 F3 242 2.370
46 F3 243 2.370
46 F3 244 2.370
46 F3 245 2.370
46 F3 246 3.347
46 F3 247 3.835
46 F3 248 2.858
46 F3 249 0.417
46 F3 250 -3.001
46 F3 251 -5.931
46 F3 252 -6.907
46 F3 253 -5.442
46 F3 254 -3.977
46 F3 255 -2.513
# FC6 chan 9
46 FC6 0 -0.549
46 FC6 1 -1.038
46 FC6 2 -0.549
46 FC6 3 -0.061
46 FC6 4 -0.061
46 FC6 5 -0.549
46 FC6 6 -1.526
46 FC6 7 -2.014
46 FC6 8 -2.014
46 FC6 9 -0.549
46 FC6 10 0.427
46 FC6 11 0.916
46 FC6 12 0.916
46 FC6 13 -0.549
46 FC6 14 -2.502
46 FC6 15 -4.456
46 FC6 16 -5.920
46 FC6 17 -6.409
46 FC6 18 -4.944
46 FC6 19 -3.479
46 FC6 20 -2.014
46 FC6 21 -2.014
46 FC6 22 -2.991
46 FC6 23 -4.456
46 FC6 24 -4.456
46 FC6 25 -2.991
46 FC6 26 -1.526
46 FC6 27 -1.526
46 FC6 28 -2.502
46 FC6 29 -3.479
46 FC6 30 -3.479
46 FC6 31 -2.014
46 FC6 32 -0.061
46 FC6 33 0.916
46 FC6 34 -0.549
46 FC6 35 -2.991
46 FC6 36 -5.432
46 FC6 37 -5.920
46 FC6 38 -4.456
46 FC6 39 -2.502
46 FC6 40 -1.526
46 FC6 41 -2.014
46 FC6 42 -3.479
46 FC6 43 -4.456
46 FC6 44 -4.944
46 FC6 45 -4.456
46 FC6 46 -3.967
46 FC6 47 -2.991
46 FC6 48 -2.502
46 FC6 49 -2.991
46 FC6 50 -3.479
46 FC6 51 -4.456
46 FC6 52 -4.456
46 FC6 53 -3.967
46 FC6 54 -2.502
46 FC6 55 -1.526
46 FC6 56 -1.526
46 FC6 57 -2.991
46 FC6 58 -4.944
46 FC6 59 -6.897
46 FC6 60 -7.874
46 FC6 61 -7.385
46 FC6 62 -5.920
46 FC6 63 -4.944
46 FC6 64 -4.456
46 FC6 65 -5.432
46 FC6 66 -5.432
46 FC6 67 -5.920
46 FC6 68 -4.944
46 FC6 69 -3.967
46 FC6 70 -2.991
46 FC6 71 -2.014
46 FC6 72 -1.038
46 FC6 73 0.427
46 FC6 74 1.404
46 FC6 75 1.404
46 FC6 76 0.427
46 FC6 77 -1.038
46 FC6 78 -2.014
46 FC6 79 -1.526
46 FC6 80 -0.549
46 FC6 81 1.404
46 FC6 82 2.380
46 FC6 83 2.869
46 FC6 84 2.380
46 FC6 85 1.892
46 FC6 86 0.916
46 FC6 87 0.916
46 FC6 88 1.404
46 FC6 89 2.380
46 FC6 90 2.869
46 FC6 91 2.869
46 FC6 92 1.892
46 FC6 93 0.427
46 FC6 94 -1.038
46 FC6 95 -1.038
46 FC6 96 0.427
46 FC6 97 2.869
46 FC6 98 4.822
46 FC6 99 5.798
46 FC6 100 5.310
46 FC6 101 3.845
46 FC6 102 2.380
46 FC6 103 0.916
46 FC6 104 0.916
46 FC6 105 1.404
46 FC6 106 2.380
46 FC6 107 2.869
46 FC6 108 3.357
46 FC6 109 3.357
46 FC6 110 2.869
46 FC6 111 2.380
46 FC6 112 1.404
46 FC6 113 0.916
46 FC6 114 0.427
46 FC6 115 0.427
46 FC6 116 0.427
46 FC6 117 0.427
46 FC6 118 0.916
46 FC6 119 2.380
46 FC6 120 3.357
46 FC6 121 4.822
46 FC6 122 4.822
46 FC6 123 3.357
46 FC6 124 0.427
46 FC6 125 -2.014
46 FC6 126 -2.991
46 FC6 127 -1.526
46 FC6 128 1.404
46 FC6 129 3.845
46 FC6 130 3.357
46 FC6 131 1.892
46 FC6 132 -0.061
46 FC6 133 -1.038
46 FC6 134 -1.038
46 FC6 135 -1.038
46 FC6 136 -1.038
46 FC6 137 -0.549
46 FC6 138 -1.038
46 FC6 139 -1.038
46 FC6 140 -1.526
46 FC6 141 -2.502
46 FC6 142 -4.456
46 FC6 143 -5.920
46 FC6 144 -6.409
46 FC6 145 -5.920
46 FC6 146 -3.479
46 FC6 147 -1.526
46 FC6 148 -0.061
46 FC6 149 0.916
46 FC6 150 0.427
46 FC6 151 -1.038
46 FC6 152 -2.502
46 FC6 153 -4.456
46 FC6 154 -5.432
46 FC6 155 -4.944
46 FC6 156 -3.967
46 FC6 157 -2.991
46 FC6 158 -2.502
46 FC6 159 -2.502
46 FC6 160 -2.502
46 FC6 161 -1.526
46 FC6 162 0.427
46 FC6 163 2.380
46 FC6 164 3.357
46 FC6 165 2.380
46 FC6 166 -0.061
46 FC6 167 -2.502
46 FC6 168 -3.967
46 FC6 169 -3.967
46 FC6 170 -2.991
46 FC6 171 -1.526
46 FC6 172 -0.061
46 FC6 173 1.404
46 FC6 174 3.357
46 FC6 175 4.822
46 FC6 176 5.798
46 FC6 177 5.798
46 FC6 178 4.822
46 FC6 179 2.380
46 FC6 180 0.916
46 FC6 181 0.427
46 FC6 182 1.404
46 FC6 183 3.357
46 FC6 184 4.333
46 FC6 185 4.333
46 FC6 186 3.845
46 FC6 187 3.357
46 FC6 188 3.845
46 FC6 189 4.333
46 FC6 190 4.822
46 FC6 191 4.333
46 FC6 192 2.380
46 FC6 193 -0.549
46 FC6 194 -2.502
46 FC6 195 -3.967
46 FC6 196 -3.479
46 FC6 197 -1.526
46 FC6 198 1.404
46 FC6 199 2.869
46 FC6 200 2.380
46 FC6 201 -0.061
46 FC6 202 -2.991
46 FC6 203 -3.967
46 FC6 204 -2.502
46 FC6 205 -0.061
46 FC6 206 2.380
46 FC6 207 2.380
46 FC6 208 0.916
46 FC6 209 -1.526
46 FC6 210 -2.014
46 FC6 211 -0.549
46 FC6 212 1.404
46 FC6 213 1.892
46 FC6 214 0.916
46 FC6 215 -0.549
46 FC6 216 -1.526
46 FC6 217 -0.549
46 FC6 218 1.892
46 FC6 219 3.845
46 FC6 220 3.845
46 FC6 221 1.892
46 FC6 222 -0.549
46 FC6 223 -2.991
46 FC6 224 -3.479
46 FC6 225 -2.502
46 FC6 226 -0.549
46 FC6 227 0.427
46 FC6 228 -0.061
46 FC6 229 -0.549
46 FC6 230 -1.526
46 FC6 231 -1.038
46 FC6 232 -0.061
46 FC6 233 0.916
46 FC6 234 0.427
46 FC6 235 -0.549
46 FC6 236 -2.014
46 FC6 237 -2.502
46 FC6 238 -1.038
46 FC6 239 -0.061
46 FC6 240 0.427
46 FC6 241 -1.038
46 FC6 242 -2.991
46 FC6 243 -4.456
46 FC6 244 -3.479
46 FC6 245 -1.038
46 FC6 246 2.380
46 FC6 247 4.822
46 FC6 248 5.310
46 FC6 249 3.845
46 FC6 250 1.892
46 FC6 251 -0.549
46 FC6 252 -2.014
46 FC6 253 -2.502
46 FC6 254 -2.502
46 FC6 255 -2.991
# FC5 chan 10
46 FC5 0 -6.185
46 FC5 1 -3.743
46 FC5 2 -0.814
46 FC5 3 -0.326
46 FC5 4 -2.279
46 FC5 5 -5.208
46 FC5 6 -3.743
46 FC5 7 1.139
46 FC5 8 6.022
46 FC5 9 7.975
46 FC5 10 4.069
46 FC5 11 -4.232
46 FC5 12 -12.044
46 FC5 13 -14.974
46 FC5 14 -12.044
46 FC5 15 -5.697
46 FC5 16 -1.302
46 FC5 17 -1.790
46 FC5 18 -5.208
46 FC5 19 -8.138
46 FC5 20 -7.161
46 FC5 21 -4.232
46 FC5 22 -0.814
46 FC5 23 -0.326
46 FC5 24 -1.790
46 FC5 25 -3.255
46 FC5 26 -3.255
46 FC5 27 -2.767
46 FC5 28 -3.743
46 FC5 29 -8.138
46 FC5 30 -13.021
46 FC5 31 -16.439
46 FC5 32 -15.462
46 FC5 33 -12.044
46 FC5 34 -8.138
46 FC5 35 -5.697
46 FC5 36 -4.720
46 FC5 37 -4.720
46 FC5 38 -5.208
46 FC5 39 -5.697
46 FC5 40 -6.185
46 FC5 41 -6.185
46 FC5 42 -6.185
46 FC5 43 -6.185
46 FC5 44 -8.138
46 FC5 45 -10.579
46 FC5 46 -12.044
46 FC5 47 -11.068
46 FC5 48 -9.115
46 FC5 49 -8.138
46 FC5 50 -9.603
46 FC5 51 -13.021
46 FC5 52 -14.486
46 FC5 53 -13.021
46 FC5 54 -9.115
46 FC5 55 -6.185
46 FC5 56 -6.185
46 FC5 57 -9.115
46 FC5 58 -13.021
46 FC5 59 -14.974
46 FC5 60 -14.486
46 FC5 61 -12.044
46 FC5 62 -8.626
46 FC5 63 -5.697
46 FC5 64 -4.232
46 FC5 65 -4.232
46 FC5 66 -4.720
46 FC5 67 -6.185
46 FC5 68 -7.161
46 FC5 69 -7.650
46 FC5 70 -6.673
46 FC5 71 -5.697
46 FC5 72 -4.720
46 FC5 73 -4.720
46 FC5 74 -6.185
46 FC5 75 -8.626
46 FC5 76 -11.068
46 FC5 77 -11.556
46 FC5 78 -9.115
46 FC5 79 -4.232
46 FC5 80 0.651
46 FC5 81 4.069
46 FC5 82 6.022
46 FC5 83 6.510
46 FC5 84 6.022
46 FC5 85 2.604
46 FC5 86 -2.767
46 FC5 87 -10.091
46 FC5 88 -14.486
46 FC5 89 -13.509
46 FC5 90 -8.138
46 FC5 91 -0.814
46 FC5 92 4.069
46 FC5 93 6.510
46 FC5 94 5.534
46 FC5 95 3.092
46 FC5 96 -0.814
46 FC5 97 -4.720
46 FC5 98 -7.161
46 FC5 99 -6.673
46 FC5 100 -3.743
46 FC5 101 1.139
46 FC5 102 4.557
46 FC5 103 5.534
46 FC5 104 4.557
46 FC5 105 3.581
46 FC5 106 3.581
46 FC5 107 4.069
46 FC5 108 4.069
46 FC5 109 3.092
46 FC5 110 2.604
46 FC5 111 3.581
46 FC5 112 5.534
46 FC5 113 7.487
46 FC5 114 7.487
46 FC5 115 5.046
46 FC5 116 0.651
46 FC5 117 -5.208
46 FC5 118 -10.091
46 FC5 119 -13.021
46 FC5 120 -12.533
46 FC5 121 -9.115
46 FC5 122 -3.743
46 FC5 123 0.163
46 FC5 124 1.628
46 FC5 125 0.651
46 FC5 126 -1.302
46 FC5 127 -2.279
46 FC5 128 -3.255
46 FC5 129 -5.208
46 FC5 130 -7.161
46 FC5 131 -8.138
46 FC5 132 -6.185
46 FC5 133 -1.302
46 FC5 134 3.092
46 FC5 135 5.046
46 FC5 136 2.604
46 FC5 137 -2.279
46 FC5 138 -7.161
46 FC5 139 -9.115
46 FC5 140 -8.138
46 FC5 141 -6.673
46 FC5 142 -6.185
46 FC5 143 -8.626
46 FC5 144 -11.068
46 FC5 145 -11.556
46 FC5 146 -8.138
46 FC5 147 -3.255
46 FC5 148 1.139
46 FC5 149 3.092
46 FC5 150 2.604
46 FC5 151 -1.302
46 FC5 152 -6.185
46 FC5 153 -12.044
46 FC5 154 -15.462
46 FC5 155 -15.462
46 FC5 156 -11.556
46 FC5 157 -6.185
46 FC5 158 -2.279
46 FC5 159 -2.767
46 FC5 160 -4.720
46 FC5 161 -5.208
46 FC5 162 -1.302
46 FC5 163 3.092
46 FC5 164 5.046
46 FC5 165 1.139
46 FC5 166 -7.161
46 FC5 167 -13.997
46 FC5 168 -15.951
46 FC5 169 -13.021
46 FC5 170 -8.138
46 FC5 171 -5.697
46 FC5 172 -5.697
46 FC5 173 -5.697
46 FC5 174 -2.767
46 FC5 175 2.604
46 FC5 176 6.510
46 FC5 177 4.557
46 FC5 178 -2.279
46 FC5 179 -11.068
46 FC5 180 -15.951
46 FC5 181 -13.997
46 FC5 182 -7.161
46 FC5 183 -0.814
46 FC5 184 1.628
46 FC5 185 0.651
46 FC5 186 -1.302
46 FC5 187 -0.814
46 FC5 188 2.116
46 FC5 189 6.022
46 FC5 190 7.975
46 FC5 191 5.534
46 FC5 192 0.651
46 FC5 193 -4.720
46 FC5 194 -7.650
46 FC5 195 -6.185
46 FC5 196 -2.279
46 FC5 197 1.628
46 FC5 198 1.628
46 FC5 199 -1.790
46 FC5 200 -4.720
46 FC5 201 -3.743
46 FC5 202 -0.326
46 FC5 203 1.628
46 FC5 204 -2.279
46 FC5 205 -11.068
46 FC5 206 -18.392
46 FC5 207 -18.392
46 FC5 208 -10.579
46 FC5 209 -0.326
46 FC5 210 4.069
46 FC5 211 0.163
46 FC5 212 -8.626
46 FC5 213 -13.021
46 FC5 214 -9.603
46 FC5 215 -1.302
46 FC5 216 5.046
46 FC5 217 4.557
46 FC5 218 -3.255
46 FC5 219 -12.044
46 FC5 220 -16.439
46 FC5 221 -14.974
46 FC5 222 -10.091
46 FC5 223 -6.185
46 FC5 224 -5.697
46 FC5 225 -8.138
46 FC5 226 -10.579
46 FC5 227 -10.579
46 FC5 228 -7.650
46 FC5 229 -3.255
46 FC5 230 1.139
46 FC5 231 3.581
46 FC5 232 4.557
46 FC5 233 4.069
46 FC5 234 3.092
46 FC5 235 2.116
46 FC5 236 0.651
46 FC5 237 -1.790
46 FC5 238 -3.743
46 FC5 239 -5.208
46 FC5 240 -5.208
46 FC5 241 -4.720
46 FC5 242 -3.743
46 FC5 243 -2.279
46 FC5 244 -1.790
46 FC5 245 -1.302
46 FC5 246 -0.814
46 FC5 247 0.163
46 FC5 248 0.163
46 FC5 249 -0.814
46 FC5 250 -3.743
46 FC5 251 -8.626
46 FC5 252 -13.021
46 FC5 253 -13.997
46 FC5 254 -10.579
46 FC5 255 -5.208
# FC2 chan 11
46 FC2 0 -0.356
46 FC2 1 -0.356
46 FC2 2 0.132
46 FC2 3 0.621
46 FC2 4 0.621
46 FC2 5 0.132
46 FC2 6 -0.844
46 FC2 7 -1.333
46 FC2 8 -1.333
46 FC2 9 -1.333
46 FC2 10 -0.356
46 FC2 11 -0.356
46 FC2 12 -0.844
46 FC2 13 -2.309
46 FC2 14 -3.774
46 FC2 15 -5.239
46 FC2 16 -5.727
46 FC2 17 -5.239
46 FC2 18 -4.751
46 FC2 19 -3.286
46 FC2 20 -2.797
46 FC2 21 -2.309
46 FC2 22 -2.309
46 FC2 23 -2.797
46 FC2 24 -2.309
46 FC2 25 -2.309
46 FC2 26 -2.309
46 FC2 27 -2.309
46 FC2 28 -2.309
46 FC2 29 -3.774
46 FC2 30 -3.774
46 FC2 31 -3.774
46 FC2 32 -3.286
46 FC2 33 -2.309
46 FC2 34 -2.309
46 FC2 35 -2.797
46 FC2 36 -3.286
46 FC2 37 -3.286
46 FC2 38 -2.797
46 FC2 39 -2.309
46 FC2 40 -1.821
46 FC2 41 -1.821
46 FC2 42 -1.821
46 FC2 43 -2.309
46 FC2 44 -2.797
46 FC2 45 -2.797
46 FC2 46 -1.821
46 FC2 47 -1.333
46 FC2 48 -0.844
46 FC2 49 -0.356
46 FC2 50 -0.844
46 FC2 51 -0.844
46 FC2 52 -0.844
46 FC2 53 -0.844
46 FC2 54 -0.844
46 FC2 55 -0.844
46 FC2 56 -1.333
46 FC2 57 -2.309
46 FC2 58 -2.797
46 FC2 59 -3.286
46 FC2 60 -3.286
46 FC2 61 -3.286
46 FC2 62 -2.797
46 FC2 63 -1.821
46 FC2 64 -1.333
46 FC2 65 -0.844
46 FC2 66 -1.333
46 FC2 67 -2.309
46 FC2 68 -3.774
46 FC2 69 -4.262
46 FC2 70 -4.262
46 FC2 71 -2.797
46 FC2 72 -1.333
46 FC2 73 -0.844
46 FC2 74 -0.844
46 FC2 75 -1.821
46 FC2 76 -2.797
46 FC2 77 -3.774
46 FC2 78 -3.774
46 FC2 79 -2.797
46 FC2 80 -1.821
46 FC2 81 -1.333
46 FC2 82 -1.333
46 FC2 83 -2.309
46 FC2 84 -3.286
46 FC2 85 -4.262
46 FC2 86 -4.751
46 FC2 87 -4.262
46 FC2 88 -2.797
46 FC2 89 -2.309
46 FC2 90 -1.821
46 FC2 91 -2.309
46 FC2 92 -3.286
46 FC2 93 -3.286
46 FC2 94 -2.797
46 FC2 95 -2.309
46 FC2 96 -1.821
46 FC2 97 -1.333
46 FC2 98 -1.821
46 FC2 99 -1.821
46 FC2 100 -1.333
46 FC2 101 -1.333
46 FC2 102 -1.333
46 FC2 103 -1.333
46 FC2 104 -1.333
46 FC2 105 -0.844
46 FC2 106 -0.356
46 FC2 107 0.132
46 FC2 108 0.132
46 FC2 109 0.132
46 FC2 110 -0.356
46 FC2 111 -1.333
46 FC2 112 -2.309
46 FC2 113 -2.309
46 FC2 114 -2.309
46 FC2 115 -1.333
46 FC2 116 -0.844
46 FC2 117 -0.844
46 FC2 118 -0.844
46 FC2 119 -0.844
46 FC2 120 -1.333
46 FC2 121 -1.333
46 FC2 122 -0.356
46 FC2 123 0.132
46 FC2 124 1.109
46 FC2 125 1.109
46 FC2 126 1.109
46 FC2 127 1.109
46 FC2 128 1.109
46 FC2 129 1.109
46 FC2 130 1.109
46 FC2 131 1.109
46 FC2 132 1.109
46 FC2 133 1.597
46 FC2 134 1.597
46 FC2 135 1.597
46 FC2 136 1.597
46 FC2 137 1.597
46 FC2 138 1.109
46 FC2 139 1.109
46 FC2 140 0.621
46 FC2 141 -0.356
46 FC2 142 -0.844
46 FC2 143 -1.333
46 FC2 144 -1.333
46 FC2 145 -0.844
46 FC2 146 0.132
46 FC2 147 0.621
46 FC2 148 0.621
46 FC2 149 0.621
46 FC2 150 0.621
46 FC2 151 -0.356
46 FC2 152 -1.821
46 FC2 153 -2.309
46 FC2 154 -2.797
46 FC2 155 -2.309
46 FC2 156 -1.333
46 FC2 157 -0.356
46 FC2 158 0.132
46 FC2 159 -0.356
46 FC2 160 -0.356
46 FC2 161 -0.356
46 FC2 162 -0.356
46 FC2 163 -0.844
46 FC2 164 -1.333
46 FC2 165 -2.309
46 FC2 166 -2.797
46 FC2 167 -2.797
46 FC2 168 -1.821
46 FC2 169 -1.333
46 FC2 170 -1.333
46 FC2 171 -1.333
46 FC2 172 -2.309
46 FC2 173 -2.797
46 FC2 174 -2.309
46 FC2 175 -1.821
46 FC2 176 -1.333
46 FC2 177 -0.356
46 FC2 178 -0.356
46 FC2 179 -1.333
46 FC2 180 -1.821
46 FC2 181 -2.309
46 FC2 182 -1.821
46 FC2 183 -1.821
46 FC2 184 -1.821
46 FC2 185 -1.821
46 FC2 186 -2.309
46 FC2 187 -1.821
46 FC2 188 -1.333
46 FC2 189 -0.356
46 FC2 190 0.621
46 FC2 191 0.621
46 FC2 192 0.132
46 FC2 193 -1.333
46 FC2 194 -2.797
46 FC2 195 -3.286
46 FC2 196 -3.286
46 FC2 197 -2.797
46 FC2 198 -1.333
46 FC2 199 -0.356
46 FC2 200 -0.356
46 FC2 201 -1.333
46 FC2 202 -2.309
46 FC2 203 -3.286
46 FC2 204 -3.286
46 FC2 205 -2.309
46 FC2 206 -1.333
46 FC2 207 -0.356
46 FC2 208 -0.356
46 FC2 209 -1.333
46 FC2 210 -1.821
46 FC2 211 -1.821
46 FC2 212 -1.821
46 FC2 213 -0.844
46 FC2 214 -0.844
46 FC2 215 -0.844
46 FC2 216 -0.844
46 FC2 217 -0.844
46 FC2 218 -0.356
46 FC2 219 0.132
46 FC2 220 0.132
46 FC2 221 -0.356
46 FC2 222 -1.821
46 FC2 223 -2.797
46 FC2 224 -2.797
46 FC2 225 -2.309
46 FC2 226 -0.844
46 FC2 227 -0.356
46 FC2 228 0.621
46 FC2 229 -0.356
46 FC2 230 -0.844
46 FC2 231 -1.333
46 FC2 232 -1.333
46 FC2 233 -0.844
46 FC2 234 -0.844
46 FC2 235 -0.844
46 FC2 236 -1.333
46 FC2 237 -1.821
46 FC2 238 -1.821
46 FC2 239 -1.333
46 FC2 240 -0.844
46 FC2 241 -1.333
46 FC2 242 -1.821
46 FC2 243 -2.309
46 FC2 244 -2.309
46 FC2 245 -1.333
46 FC2 246 0.132
46 FC2 247 1.109
46 FC2 248 0.621
46 FC2 249 -0.356
46 FC2 250 -1.333
46 FC2 251 -1.333
46 FC2 252 -1.821
46 FC2 253 -1.333
46 FC2 254 -1.821
46 FC2 255 -2.797
# FC1 chan 12
46 FC1 0 0.875
46 FC1 1 0.875
46 FC1 2 0.875
46 FC1 3 -0.102
46 FC1 4 -1.078
46 FC1 5 -1.567
46 FC1 6 -1.078
46 FC1 7 -0.102
46 FC1 8 0.875
46 FC1 9 1.363
46 FC1 10 1.363
46 FC1 11 -0.590
46 FC1 12 -2.543
46 FC1 13 -4.008
46 FC1 14 -4.985
46 FC1 15 -4.008
46 FC1 16 -3.520
46 FC1 17 -3.031
46 FC1 18 -3.520
46 FC1 19 -3.520
46 FC1 20 -2.543
46 FC1 21 -2.055
46 FC1 22 -1.567
46 FC1 23 -2.055
46 FC1 24 -2.543
46 FC1 25 -2.543
46 FC1 26 -2.055
46 FC1 27 -1.078
46 FC1 28 -1.078
46 FC1 29 -2.055
46 FC1 30 -4.008
46 FC1 31 -4.985
46 FC1 32 -5.473
46 FC1 33 -4.985
46 FC1 34 -3.520
46 FC1 35 -2.543
46 FC1 36 -2.055
46 FC1 37 -2.543
46 FC1 38 -2.543
46 FC1 39 -2.543
46 FC1 40 -2.543
46 FC1 41 -1.567
46 FC1 42 -1.567
46 FC1 43 -1.567
46 FC1 44 -2.055
46 FC1 45 -2.543
46 FC1 46 -2.543
46 FC1 47 -2.055
46 FC1 48 -1.567
46 FC1 49 -1.078
46 FC1 50 -0.590
46 FC1 51 -1.078
46 FC1 52 -2.055
46 FC1 53 -2.543
46 FC1 54 -3.520
46 FC1 55 -3.520
46 FC1 56 -3.520
46 FC1 57 -4.008
46 FC1 58 -3.520
46 FC1 59 -3.520
46 FC1 60 -3.520
46 FC1 61 -2.543
46 FC1 62 -1.567
46 FC1 63 -1.078
46 FC1 64 -1.078
46 FC1 65 -1.567
46 FC1 66 -3.031
46 FC1 67 -4.008
46 FC1 68 -4.985
46 FC1 69 -5.473
46 FC1 70 -5.473
46 FC1 71 -4.496
46 FC1 72 -3.520
46 FC1 73 -2.543
46 FC1 74 -2.055
46 FC1 75 -2.543
46 FC1 76 -4.008
46 FC1 77 -4.985
46 FC1 78 -5.473
46 FC1 79 -4.985
46 FC1 80 -3.520
46 FC1 81 -2.543
46 FC1 82 -1.567
46 FC1 83 -1.078
46 FC1 84 -1.567
46 FC1 85 -2.543
46 FC1 86 -3.520
46 FC1 87 -4.496
46 FC1 88 -4.985
46 FC1 89 -4.985
46 FC1 90 -4.496
46 FC1 91 -3.031
46 FC1 92 -1.567
46 FC1 93 0.387
46 FC1 94 0.875
46 FC1 95 0.875
46 FC1 96 -0.590
46 FC1 97 -2.055
46 FC1 98 -2.543
46 FC1 99 -2.055
46 FC1 100 -1.078
46 FC1 101 0.387
46 FC1 102 0.875
46 FC1 103 1.363
46 FC1 104 1.363
46 FC1 105 0.387
46 FC1 106 -0.590
46 FC1 107 -1.567
46 FC1 108 -2.055
46 FC1 109 -1.567
46 FC1 110 -0.102
46 FC1 111 1.363
46 FC1 112 1.851
46 FC1 113 1.363
46 FC1 114 -0.102
46 FC1 115 -1.078
46 FC1 116 -1.567
46 FC1 117 -1.078
46 FC1 118 -1.078
46 FC1 119 -1.567
46 FC1 120 -2.055
46 FC1 121 -2.543
46 FC1 122 -2.543
46 FC1 123 -1.567
46 FC1 124 -0.102
46 FC1 125 1.363
46 FC1 126 1.851
46 FC1 127 1.851
46 FC1 128 0.387
46 FC1 129 -1.078
46 FC1 130 -2.543
46 FC1 131 -2.543
46 FC1 132 -1.078
46 FC1 133 0.875
46 FC1 134 2.340
46 FC1 135 2.828
46 FC1 136 1.851
46 FC1 137 0.875
46 FC1 138 -0.590
46 FC1 139 -0.590
46 FC1 140 -0.102
46 FC1 141 -0.102
46 FC1 142 0.387
46 FC1 143 -0.590
46 FC1 144 -1.078
46 FC1 145 -1.567
46 FC1 146 -1.567
46 FC1 147 -0.590
46 FC1 148 0.387
46 FC1 149 0.875
46 FC1 150 0.387
46 FC1 151 -0.590
46 FC1 152 -1.078
46 FC1 153 -1.078
46 FC1 154 -1.567
46 FC1 155 -2.055
46 FC1 156 -2.055
46 FC1 157 -1.567
46 FC1 158 -1.078
46 FC1 159 -0.590
46 FC1 160 -0.590
46 FC1 161 -1.078
46 FC1 162 -1.567
46 FC1 163 -2.055
46 FC1 164 -1.567
46 FC1 165 -1.567
46 FC1 166 -2.543
46 FC1 167 -3.520
46 FC1 168 -4.008
46 FC1 169 -3.520
46 FC1 170 -3.031
46 FC1 171 -2.543
46 FC1 172 -2.543
46 FC1 173 -3.520
46 FC1 174 -3.520
46 FC1 175 -2.543
46 FC1 176 -1.567
46 FC1 177 -0.590
46 FC1 178 -1.078
46 FC1 179 -2.055
46 FC1 180 -3.031
46 FC1 181 -3.031
46 FC1 182 -1.567
46 FC1 183 -0.102
46 FC1 184 -0.102
46 FC1 185 -1.078
46 FC1 186 -1.567
46 FC1 187 -1.567
46 FC1 188 -0.102
46 FC1 189 1.851
46 FC1 190 3.805
46 FC1 191 4.293
46 FC1 192 3.316
46 FC1 193 2.828
46 FC1 194 2.340
46 FC1 195 1.363
46 FC1 196 0.387
46 FC1 197 -0.590
46 FC1 198 -1.567
46 FC1 199 -1.567
46 FC1 200 -0.590
46 FC1 201 0.387
46 FC1 202 0.387
46 FC1 203 -0.590
46 FC1 204 -2.055
46 FC1 205 -3.031
46 FC1 206 -3.031
46 FC1 207 -2.055
46 FC1 208 -0.590
46 FC1 209 -0.590
46 FC1 210 -1.078
46 FC1 211 -1.078
46 FC1 212 -1.567
46 FC1 213 -1.078
46 FC1 214 -0.590
46 FC1 215 -0.102
46 FC1 216 0.387
46 FC1 217 -0.102
46 FC1 218 -0.590
46 FC1 219 -0.590
46 FC1 220 -1.078
46 FC1 221 -2.055
46 FC1 222 -2.543
46 FC1 223 -2.543
46 FC1 224 -1.567
46 FC1 225 -1.078
46 FC1 226 0.387
46 FC1 227 0.875
46 FC1 228 1.363
46 FC1 229 2.340
46 FC1 230 2.828
46 FC1 231 2.828
46 FC1 232 2.828
46 FC1 233 1.851
46 FC1 234 1.363
46 FC1 235 1.363
46 FC1 236 1.851
46 FC1 237 1.363
46 FC1 238 1.363
46 FC1 239 0.875
46 FC1 240 0.875
46 FC1 241 2.340
46 FC1 242 2.340
46 FC1 243 2.340
46 FC1 244 1.851
46 FC1 245 1.363
46 FC1 246 2.340
46 FC1 247 2.340
46 FC1 248 1.363
46 FC1 249 -0.590
46 FC1 250 -2.543
46 FC1 251 -3.520
46 FC1 252 -3.520
46 FC1 253 -2.543
46 FC1 254 -1.567
46 FC1 255 -1.567
# T8 chan 13
46 T8 0 15.096
46 T8 1 8.748
46 T8 2 -2.482
46 T8 3 -11.271
46 T8 4 -13.224
46 T8 5 -7.853
46 T8 6 -0.529
46 T8 7 2.889
46 T8 8 0.448
46 T8 9 -4.435
46 T8 10 -8.341
46 T8 11 -7.365
46 T8 12 -2.482
46 T8 13 1.912
46 T8 14 4.354
46 T8 15 4.842
46 T8 16 3.866
46 T8 17 2.889
46 T8 18 2.889
46 T8 19 1.424
46 T8 20 -1.994
46 T8 21 -8.341
46 T8 22 -14.201
46 T8 23 -16.642
46 T8 24 -15.666
46 T8 25 -11.759
46 T8 26 -8.341
46 T8 27 -4.924
46 T8 28 -1.506
46 T8 29 2.889
46 T8 30 6.795
46 T8 31 9.237
46 T8 32 8.260
46 T8 33 4.842
46 T8 34 0.936
46 T8 35 -1.506
46 T8 36 -3.459
46 T8 37 -4.435
46 T8 38 -5.412
46 T8 39 -5.900
46 T8 40 -5.412
46 T8 41 -6.388
46 T8 42 -9.806
46 T8 43 -14.689
46 T8 44 -17.131
46 T8 45 -13.713
46 T8 46 -3.947
46 T8 47 6.795
46 T8 48 10.701
46 T8 49 5.819
46 T8 50 -5.412
46 T8 51 -13.713
46 T8 52 -15.177
46 T8 53 -10.783
46 T8 54 -6.388
46 T8 55 -6.388
46 T8 56 -9.318
46 T8 57 -11.759
46 T8 58 -9.318
46 T8 59 -5.412
46 T8 60 -4.435
46 T8 61 -7.853
46 T8 62 -12.248
46 T8 63 -13.224
46 T8 64 -8.341
46 T8 65 -2.482
46 T8 66 0.448
46 T8 67 -1.994
46 T8 68 -5.900
46 T8 69 -6.877
46 T8 70 -3.947
46 T8 71 -0.041
46 T8 72 1.424
46 T8 73 0.936
46 T8 74 0.448
46 T8 75 2.401
46 T8 76 5.330
46 T8 77 5.819
46 T8 78 3.377
46 T8 79 0.448
46 T8 80 1.424
46 T8 81 6.795
46 T8 82 11.190
46 T8 83 8.748
46 T8 84 -1.017
46 T8 85 -12.248
46 T8 86 -15.666
46 T8 87 -6.388
46 T8 88 10.701
46 T8 89 24.373
46 T8 90 25.838
46 T8 91 15.096
46 T8 92 -0.041
46 T8 93 -8.830
46 T8 94 -7.365
46 T8 95 1.424
46 T8 96 8.748
46 T8 97 10.213
46 T8 98 8.748
46 T8 99 8.260
46 T8 100 10.213
46 T8 101 12.655
46 T8 102 9.725
46 T8 103 1.912
46 T8 104 -5.412
46 T8 105 -6.388
46 T8 106 -1.506
46 T8 107 3.866
46 T8 108 4.842
46 T8 109 1.424
46 T8 110 -1.017
46 T8 111 3.377
46 T8 112 12.655
46 T8 113 19.002
46 T8 114 16.073
46 T8 115 5.330
46 T8 116 -3.947
46 T8 117 -4.924
46 T8 118 3.377
46 T8 119 12.166
46 T8 120 15.096
46 T8 121 11.190
46 T8 122 2.889
46 T8 123 -3.947
46 T8 124 -7.853
46 T8 125 -8.830
46 T8 126 -6.388
46 T8 127 0.448
46 T8 128 10.213
46 T8 129 19.491
46 T8 130 20.955
46 T8 131 14.119
46 T8 132 3.377
46 T8 133 -5.412
46 T8 134 -6.877
46 T8 135 -4.435
46 T8 136 -1.506
46 T8 137 -1.017
46 T8 138 -4.435
46 T8 139 -8.830
46 T8 140 -10.295
46 T8 141 -7.365
46 T8 142 -1.506
46 T8 143 4.842
46 T8 144 7.772
46 T8 145 5.330
46 T8 146 -1.506
46 T8 147 -7.365
46 T8 148 -10.295
46 T8 149 -7.853
46 T8 150 -2.482
46 T8 151 1.424
46 T8 152 1.424
46 T8 153 -1.017
46 T8 154 -2.970
46 T8 155 -3.459
46 T8 156 -1.994
46 T8 157 -2.482
46 T8 158 -4.924
46 T8 159 -6.877
46 T8 160 -6.388
46 T8 161 -0.529
46 T8 162 7.284
46 T8 163 12.655
46 T8 164 12.166
46 T8 165 6.795
46 T8 166 -1.017
46 T8 167 -6.388
46 T8 168 -6.877
46 T8 169 -2.970
46 T8 170 0.448
46 T8 171 0.448
46 T8 172 -3.459
46 T8 173 -7.365
46 T8 174 -5.900
46 T8 175 3.377
46 T8 176 16.073
46 T8 177 24.862
46 T8 178 23.885
46 T8 179 15.096
46 T8 180 5.330
46 T8 181 0.448
46 T8 182 0.936
46 T8 183 3.377
46 T8 184 2.401
46 T8 185 -1.506
46 T8 186 -3.947
46 T8 187 -1.017
46 T8 188 6.795
46 T8 189 14.119
46 T8 190 15.584
46 T8 191 9.725
46 T8 192 0.936
46 T8 193 -3.947
46 T8 194 -1.994
46 T8 195 3.866
46 T8 196 7.772
46 T8 197 6.307
46 T8 198 1.424
46 T8 199 -1.994
46 T8 200 -1.506
46 T8 201 1.912
46 T8 202 3.377
46 T8 203 0.936
46 T8 204 -3.459
46 T8 205 -4.435
46 T8 206 -1.506
46 T8 207 3.866
46 T8 208 5.330
46 T8 209 2.401
46 T8 210 -3.459
46 T8 211 -6.388
46 T8 212 -4.435
46 T8 213 1.912
46 T8 214 6.795
46 T8 215 6.307
46 T8 216 1.912
46 T8 217 -3.459
46 T8 218 -4.435
46 T8 219 -0.041
46 T8 220 5.819
46 T8 221 9.237
46 T8 222 5.330
46 T8 223 -3.459
46 T8 224 -10.783
46 T8 225 -11.759
46 T8 226 -5.412
46 T8 227 1.912
46 T8 228 4.354
46 T8 229 -0.041
46 T8 230 -6.388
46 T8 231 -7.365
46 T8 232 -1.506
46 T8 233 7.284
46 T8 234 11.678
46 T8 235 6.795
46 T8 236 -4.435
46 T8 237 -14.201
46 T8 238 -16.154
46 T8 239 -9.318
46 T8 240 -0.529
46 T8 241 2.401
46 T8 242 -0.529
46 T8 243 -4.924
46 T8 244 -3.947
46 T8 245 4.354
46 T8 246 15.096
46 T8 247 19.491
46 T8 248 13.631
46 T8 249 2.889
46 T8 250 -5.900
46 T8 251 -5.900
46 T8 252 -1.017
46 T8 253 1.912
46 T8 254 -1.017
46 T8 255 -9.806
# T7 chan 14
46 T7 0 0.753
46 T7 1 -1.689
46 T7 2 -3.153
46 T7 3 -4.618
46 T7 4 -5.107
46 T7 5 -3.642
46 T7 6 -0.224
46 T7 7 4.171
46 T7 8 6.612
46 T7 9 5.147
46 T7 10 0.753
46 T7 11 -4.130
46 T7 12 -6.571
46 T7 13 -6.083
46 T7 14 -2.665
46 T7 15 0.753
46 T7 16 2.706
46 T7 17 2.706
46 T7 18 1.241
46 T7 19 -0.224
46 T7 20 -2.177
46 T7 21 -3.642
46 T7 22 -4.618
46 T7 23 -5.595
46 T7 24 -5.595
46 T7 25 -5.107
46 T7 26 -3.153
46 T7 27 -1.200
46 T7 28 0.753
46 T7 29 0.753
46 T7 30 -1.200
46 T7 31 -4.618
46 T7 32 -6.571
46 T7 33 -7.548
46 T7 34 -6.571
46 T7 35 -5.107
46 T7 36 -4.618
46 T7 37 -5.595
46 T7 38 -6.083
46 T7 39 -5.595
46 T7 40 -4.130
46 T7 41 -2.665
46 T7 42 -3.642
46 T7 43 -5.595
46 T7 44 -6.571
46 T7 45 -6.083
46 T7 46 -3.642
46 T7 47 -2.665
46 T7 48 -5.107
46 T7 49 -10.478
46 T7 50 -14.384
46 T7 51 -14.872
46 T7 52 -11.454
46 T7 53 -7.548
46 T7 54 -6.571
46 T7 55 -8.525
46 T7 56 -10.966
46 T7 57 -11.454
46 T7 58 -8.525
46 T7 59 -5.107
46 T7 60 -3.642
46 T7 61 -4.130
46 T7 62 -5.595
46 T7 63 -6.083
46 T7 64 -5.595
46 T7 65 -5.107
46 T7 66 -6.083
46 T7 67 -7.548
46 T7 68 -8.036
46 T7 69 -7.060
46 T7 70 -5.107
46 T7 71 -3.153
46 T7 72 -1.689
46 T7 73 -0.224
46 T7 74 1.241
46 T7 75 1.729
46 T7 76 1.241
46 T7 77 -0.224
46 T7 78 -1.689
46 T7 79 -1.689
46 T7 80 -0.224
46 T7 81 1.241
46 T7 82 2.218
46 T7 83 2.706
46 T7 84 3.682
46 T7 85 5.636
46 T7 86 7.100
46 T7 87 7.100
46 T7 88 3.682
46 T7 89 -0.712
46 T7 90 -4.130
46 T7 91 -4.618
46 T7 92 -2.177
46 T7 93 0.753
46 T7 94 2.706
46 T7 95 4.171
46 T7 96 6.612
46 T7 97 9.054
46 T7 98 11.007
46 T7 99 9.054
46 T7 100 5.147
46 T7 101 1.729
46 T7 102 0.753
46 T7 103 2.218
46 T7 104 4.171
46 T7 105 5.147
46 T7 106 4.171
46 T7 107 3.194
46 T7 108 3.682
46 T7 109 4.659
46 T7 110 5.147
46 T7 111 4.659
46 T7 112 4.171
46 T7 113 4.171
46 T7 114 5.636
46 T7 115 7.100
46 T7 116 6.612
46 T7 117 4.659
46 T7 118 2.218
46 T7 119 1.241
46 T7 120 1.241
46 T7 121 1.241
46 T7 122 0.264
46 T7 123 -1.689
46 T7 124 -2.665
46 T7 125 -3.153
46 T7 126 -1.689
46 T7 127 0.264
46 T7 128 0.753
46 T7 129 0.264
46 T7 130 -1.200
46 T7 131 -2.177
46 T7 132 -2.177
46 T7 133 -1.689
46 T7 134 -2.177
46 T7 135 -4.130
46 T7 136 -6.571
46 T7 137 -7.060
46 T7 138 -6.083
46 T7 139 -3.642
46 T7 140 -1.200
46 T7 141 -0.712
46 T7 142 -1.689
46 T7 143 -2.177
46 T7 144 -2.177
46 T7 145 -1.200
46 T7 146 -1.200
46 T7 147 -4.130
46 T7 148 -8.525
46 T7 149 -12.919
46 T7 150 -13.896
46 T7 151 -9.501
46 T7 152 -1.689
46 T7 153 4.659
46 T7 154 7.589
46 T7 155 5.636
46 T7 156 0.753
46 T7 157 -4.130
46 T7 158 -7.060
46 T7 159 -8.525
46 T7 160 -9.501
46 T7 161 -9.013
46 T7 162 -6.571
46 T7 163 -2.177
46 T7 164 3.682
46 T7 165 7.589
46 T7 166 8.077
46 T7 167 5.147
46 T7 168 1.241
46 T7 169 -2.177
46 T7 170 -3.642
46 T7 171 -3.642
46 T7 172 -3.642
46 T7 173 -2.665
46 T7 174 -1.689
46 T7 175 1.241
46 T7 176 5.147
46 T7 177 8.077
46 T7 178 9.054
46 T7 179 9.054
46 T7 180 7.100
46 T7 181 4.659
46 T7 182 1.729
46 T7 183 -0.224
46 T7 184 -1.689
46 T7 185 -0.712
46 T7 186 1.241
46 T7 187 3.194
46 T7 188 4.171
46 T7 189 4.171
46 T7 190 4.659
46 T7 191 7.100
46 T7 192 10.518
46 T7 193 12.960
46 T7 194 11.983
46 T7 195 8.077
46 T7 196 3.682
46 T7 197 0.264
46 T7 198 -1.200
46 T7 199 -1.689
46 T7 200 -2.177
46 T7 201 -3.153
46 T7 202 -3.153
46 T7 203 -1.200
46 T7 204 2.218
46 T7 205 4.171
46 T7 206 3.194
46 T7 207 -1.689
46 T7 208 -6.571
46 T7 209 -8.036
46 T7 210 -5.595
46 T7 211 -1.200
46 T7 212 0.753
46 T7 213 0.264
46 T7 214 -3.153
46 T7 215 -5.107
46 T7 216 -4.130
46 T7 217 -0.224
46 T7 218 2.218
46 T7 219 1.241
46 T7 220 -2.177
46 T7 221 -6.083
46 T7 222 -8.036
46 T7 223 -6.571
46 T7 224 -4.130
46 T7 225 -2.665
46 T7 226 -3.642
46 T7 227 -5.107
46 T7 228 -5.107
46 T7 229 -2.665
46 T7 230 1.241
46 T7 231 4.171
46 T7 232 4.659
46 T7 233 3.682
46 T7 234 2.218
46 T7 235 2.218
46 T7 236 2.706
46 T7 237 2.218
46 T7 238 0.264
46 T7 239 -1.689
46 T7 240 -2.177
46 T7 241 0.753
46 T7 242 3.682
46 T7 243 5.147
46 T7 244 3.194
46 T7 245 -1.200
46 T7 246 -4.130
46 T7 247 -4.618
46 T7 248 -1.689
46 T7 249 1.729
46 T7 250 3.194
46 T7 251 2.706
46 T7 252 1.241
46 T7 253 0.753
46 T7 254 1.241
46 T7 255 1.241
# CZ chan 15
46 CZ 0 5.585
46 CZ 1 2.655
46 CZ 2 -3.693
46 CZ 3 -8.575
46 CZ 4 -9.552
46 CZ 5 -6.622
46 CZ 6 -2.716
46 CZ 7 -0.763
46 CZ 8 -1.740
46 CZ 9 -3.693
46 CZ 10 -4.181
46 CZ 11 -3.693
46 CZ 12 -4.669
46 CZ 13 -8.575
46 CZ 14 -12.970
46 CZ 15 -16.876
46 CZ 16 -18.829
46 CZ 17 -16.876
46 CZ 18 -12.970
46 CZ 19 -7.599
46 CZ 20 -2.716
46 CZ 21 -0.763
46 CZ 22 -1.251
46 CZ 23 -6.134
46 CZ 24 -11.017
46 CZ 25 -13.947
46 CZ 26 -12.482
46 CZ 27 -7.111
46 CZ 28 -1.251
46 CZ 29 3.143
46 CZ 30 3.632
46 CZ 31 0.702
46 CZ 32 -4.181
46 CZ 33 -8.087
46 CZ 34 -10.040
46 CZ 35 -8.575
46 CZ 36 -5.646
46 CZ 37 -2.716
46 CZ 38 -1.251
46 CZ 39 -2.228
46 CZ 40 -3.693
46 CZ 41 -4.181
46 CZ 42 -3.693
46 CZ 43 -1.740
46 CZ 44 -0.763
46 CZ 45 -0.763
46 CZ 46 -2.228
46 CZ 47 -4.181
46 CZ 48 -5.646
46 CZ 49 -6.622
46 CZ 50 -8.087
46 CZ 51 -9.064
46 CZ 52 -10.529
46 CZ 53 -10.529
46 CZ 54 -11.017
46 CZ 55 -11.993
46 CZ 56 -14.435
46 CZ 57 -17.853
46 CZ 58 -20.294
46 CZ 59 -20.782
46 CZ 60 -17.365
46 CZ 61 -10.529
46 CZ 62 -1.740
46 CZ 63 3.632
46 CZ 64 3.143
46 CZ 65 -2.228
46 CZ 66 -9.552
46 CZ 67 -14.435
46 CZ 68 -13.947
46 CZ 69 -10.040
46 CZ 70 -6.622
46 CZ 71 -5.157
46 CZ 72 -5.157
46 CZ 73 -3.204
46 CZ 74 1.190
46 CZ 75 7.050
46 CZ 76 11.444
46 CZ 77 10.956
46 CZ 78 6.073
46 CZ 79 0.702
46 CZ 80 -2.228
46 CZ 81 -1.740
46 CZ 82 2.167
46 CZ 83 5.585
46 CZ 84 8.026
46 CZ 85 7.538
46 CZ 86 5.585
46 CZ 87 4.120
46 CZ 88 3.143
46 CZ 89 5.096
46 CZ 90 9.003
46 CZ 91 12.909
46 CZ 92 14.862
46 CZ 93 13.885
46 CZ 94 10.468
46 CZ 95 7.538
46 CZ 96 9.491
46 CZ 97 14.862
46 CZ 98 21.210
46 CZ 99 24.628
46 CZ 100 23.651
46 CZ 101 20.721
46 CZ 102 19.257
46 CZ 103 20.721
46 CZ 104 21.698
46 CZ 105 18.768
46 CZ 106 11.444
46 CZ 107 5.096
46 CZ 108 4.120
46 CZ 109 10.956
46 CZ 110 20.721
46 CZ 111 26.093
46 CZ 112 23.651
46 CZ 113 14.862
46 CZ 114 7.050
46 CZ 115 5.585
46 CZ 116 10.956
46 CZ 117 17.303
46 CZ 118 19.257
46 CZ 119 17.303
46 CZ 120 13.397
46 CZ 121 11.932
46 CZ 122 12.909
46 CZ 123 13.885
46 CZ 124 13.397
46 CZ 125 11.444
46 CZ 126 10.956
46 CZ 127 12.421
46 CZ 128 14.374
46 CZ 129 12.909
46 CZ 130 8.514
46 CZ 131 3.143
46 CZ 132 1.190
46 CZ 133 4.120
46 CZ 134 9.003
46 CZ 135 11.932
46 CZ 136 10.956
46 CZ 137 7.050
46 CZ 138 2.655
46 CZ 139 -0.763
46 CZ 140 -2.716
46 CZ 141 -3.693
46 CZ 142 -3.693
46 CZ 143 -1.740
46 CZ 144 2.655
46 CZ 145 6.561
46 CZ 146 8.514
46 CZ 147 6.561
46 CZ 148 2.167
46 CZ 149 -2.228
46 CZ 150 -4.181
46 CZ 151 -3.204
46 CZ 152 -0.763
46 CZ 153 0.214
46 CZ 154 -0.763
46 CZ 155 -2.228
46 CZ 156 -3.693
46 CZ 157 -3.204
46 CZ 158 -0.763
46 CZ 159 1.190
46 CZ 160 2.655
46 CZ 161 2.167
46 CZ 162 0.702
46 CZ 163 -0.763
46 CZ 164 -1.251
46 CZ 165 0.214
46 CZ 166 2.655
46 CZ 167 5.096
46 CZ 168 7.050
46 CZ 169 7.050
46 CZ 170 5.096
46 CZ 171 3.632
46 CZ 172 3.632
46 CZ 173 6.073
46 CZ 174 10.956
46 CZ 175 15.350
46 CZ 176 17.792
46 CZ 177 17.303
46 CZ 178 14.862
46 CZ 179 11.932
46 CZ 180 10.956
46 CZ 181 11.444
46 CZ 182 13.885
46 CZ 183 14.374
46 CZ 184 13.397
46 CZ 185 11.932
46 CZ 186 9.979
46 CZ 187 9.979
46 CZ 188 12.421
46 CZ 189 15.839
46 CZ 190 19.745
46 CZ 191 21.698
46 CZ 192 19.745
46 CZ 193 14.374
46 CZ 194 5.096
46 CZ 195 -4.669
46 CZ 196 -11.017
46 CZ 197 -10.040
46 CZ 198 -2.228
46 CZ 199 7.538
46 CZ 200 12.421
46 CZ 201 9.491
46 CZ 202 1.190
46 CZ 203 -6.134
46 CZ 204 -6.134
46 CZ 205 0.702
46 CZ 206 9.003
46 CZ 207 11.932
46 CZ 208 9.491
46 CZ 209 3.143
46 CZ 210 1.190
46 CZ 211 3.632
46 CZ 212 9.491
46 CZ 213 13.885
46 CZ 214 13.885
46 CZ 215 10.468
46 CZ 216 5.585
46 CZ 217 3.143
46 CZ 218 2.167
46 CZ 219 2.167
46 CZ 220 1.678
46 CZ 221 0.214
46 CZ 222 -0.275
46 CZ 223 1.678
46 CZ 224 5.585
46 CZ 225 9.979
46 CZ 226 11.444
46 CZ 227 9.979
46 CZ 228 8.026
46 CZ 229 8.026
46 CZ 230 10.956
46 CZ 231 14.862
46 CZ 232 17.303
46 CZ 233 15.839
46 CZ 234 11.932
46 CZ 235 7.538
46 CZ 236 5.096
46 CZ 237 5.585
46 CZ 238 7.538
46 CZ 239 9.003
46 CZ 240 9.003
46 CZ 241 8.026
46 CZ 242 7.538
46 CZ 243 8.026
46 CZ 244 9.491
46 CZ 245 10.956
46 CZ 246 11.932
46 CZ 247 12.421
46 CZ 248 11.932
46 CZ 249 10.956
46 CZ 250 9.979
46 CZ 251 8.026
46 CZ 252 6.073
46 CZ 253 4.120
46 CZ 254 3.143
46 CZ 255 3.632
# C3 chan 16
46 C3 0 -0.773
46 C3 1 -1.750
46 C3 2 1.180
46 C3 3 2.157
46 C3 4 5.575
46 C3 5 1.180
46 C3 6 -4.191
46 C3 7 0.692
46 C3 8 -1.261
46 C3 9 -1.750
46 C3 10 1.668
46 C3 11 -1.261
46 C3 12 -2.238
46 C3 13 0.692
46 C3 14 0.203
46 C3 15 0.203
46 C3 16 -0.773
46 C3 17 0.203
46 C3 18 -4.191
46 C3 19 -0.285
46 C3 20 1.668
46 C3 21 2.157
46 C3 22 2.157
46 C3 23 0.203
46 C3 24 -1.261
46 C3 25 0.203
46 C3 26 -4.191
46 C3 27 -4.191
46 C3 28 -4.679
46 C3 29 -2.238
46 C3 30 0.692
46 C3 31 -2.238
46 C3 32 -1.261
46 C3 33 -0.773
46 C3 34 -0.773
46 C3 35 -5.168
46 C3 36 0.203
46 C3 37 -3.215
46 C3 38 -3.703
46 C3 39 -3.703
46 C3 40 -4.679
46 C3 41 -1.750
46 C3 42 -3.215
46 C3 43 -2.238
46 C3 44 -5.656
46 C3 45 -4.191
46 C3 46 -5.656
46 C3 47 -5.168
46 C3 48 -1.261
46 C3 49 -5.168
46 C3 50 -3.703
46 C3 51 -2.238
46 C3 52 -2.726
46 C3 53 -3.703
46 C3 54 -5.168
46 C3 55 -5.168
46 C3 56 -2.238
46 C3 57 -0.773
46 C3 58 -0.773
46 C3 59 -2.726
46 C3 60 -1.750
46 C3 61 -2.726
46 C3 62 -3.215
46 C3 63 -0.285
46 C3 64 -3.215
46 C3 65 -4.679
46 C3 66 -1.750
46 C3 67 -1.750
46 C3 68 -3.215
46 C3 69 0.692
46 C3 70 -3.215
46 C3 71 0.203
46 C3 72 1.180
46 C3 73 0.692
46 C3 74 2.645
46 C3 75 -0.285
46 C3 76 0.692
46 C3 77 1.180
46 C3 78 3.621
46 C3 79 1.180
46 C3 80 3.621
46 C3 81 2.157
46 C3 82 0.203
46 C3 83 -1.261
46 C3 84 -1.261
46 C3 85 0.203
46 C3 86 0.692
46 C3 87 0.203
46 C3 88 2.157
46 C3 89 2.645
46 C3 90 6.063
46 C3 91 1.668
46 C3 92 4.110
46 C3 93 4.110
46 C3 94 -0.285
46 C3 95 2.645
46 C3 96 2.645
46 C3 97 2.645
46 C3 98 8.016
46 C3 99 5.575
46 C3 100 3.621
46 C3 101 5.575
46 C3 102 0.203
46 C3 103 1.180
46 C3 104 1.180
46 C3 105 2.157
46 C3 106 4.598
46 C3 107 2.645
46 C3 108 3.621
46 C3 109 6.551
46 C3 110 0.203
46 C3 111 7.039
46 C3 112 4.598
46 C3 113 0.692
46 C3 114 -0.285
46 C3 115 0.203
46 C3 116 1.180
46 C3 117 -1.261
46 C3 118 -1.750
46 C3 119 1.180
46 C3 120 2.157
46 C3 121 1.180
46 C3 122 -0.285
46 C3 123 0.692
46 C3 124 -4.679
46 C3 125 -0.773
46 C3 126 -4.191
46 C3 127 0.203
46 C3 128 0.692
46 C3 129 -3.215
46 C3 130 -0.285
46 C3 131 3.133
46 C3 132 -5.656
46 C3 133 -2.726
46 C3 134 -2.726
46 C3 135 -1.750
46 C3 136 1.180
46 C3 137 -2.238
46 C3 138 -1.750
46 C3 139 1.180
46 C3 140 0.692
46 C3 141 -2.238
46 C3 142 -4.191
46 C3 143 -4.191
46 C3 144 -3.215
46 C3 145 0.203
46 C3 146 -0.773
46 C3 147 -2.238
46 C3 148 2.645
46 C3 149 2.645
46 C3 150 -0.285
46 C3 151 -0.773
46 C3 152 -0.773
46 C3 153 -2.726
46 C3 154 -2.726
46 C3 155 -5.168
46 C3 156 -2.238
46 C3 157 2.645
46 C3 158 1.180
46 C3 159 1.668
46 C3 160 2.645
46 C3 161 2.157
46 C3 162 -0.773
46 C3 163 -0.285
46 C3 164 -4.679
46 C3 165 -2.238
46 C3 166 -1.750
46 C3 167 1.180
46 C3 168 1.180
46 C3 169 -0.773
46 C3 170 1.180
46 C3 171 2.645
46 C3 172 6.063
46 C3 173 1.180
46 C3 174 -1.750
46 C3 175 1.668
46 C3 176 0.203
46 C3 177 0.692
46 C3 178 0.203
46 C3 179 1.668
46 C3 180 0.692
46 C3 181 1.180
46 C3 182 3.133
46 C3 183 2.157
46 C3 184 4.598
46 C3 185 1.180
46 C3 186 0.692
46 C3 187 2.645
46 C3 188 4.110
46 C3 189 7.039
46 C3 190 5.575
46 C3 191 1.180
46 C3 192 0.203
46 C3 193 -0.773
46 C3 194 -1.750
46 C3 195 -0.773
46 C3 196 0.203
46 C3 197 2.645
46 C3 198 -1.261
46 C3 199 -3.703
46 C3 200 0.692
46 C3 201 -0.285
46 C3 202 -2.238
46 C3 203 -2.238
46 C3 204 -1.750
46 C3 205 -1.750
46 C3 206 -2.238
46 C3 207 -1.261
46 C3 208 2.645
46 C3 209 -2.726
46 C3 210 0.203
46 C3 211 3.621
46 C3 212 -3.215
46 C3 213 3.133
46 C3 214 -4.191
46 C3 215 -1.750
46 C3 216 -5.656
46 C3 217 -5.168
46 C3 218 1.180
46 C3 219 -4.191
46 C3 220 -4.191
46 C3 221 -3.215
46 C3 222 -3.215
46 C3 223 -2.726
46 C3 224 1.180
46 C3 225 -0.773
46 C3 226 -2.238
46 C3 227 3.133
46 C3 228 2.645
46 C3 229 3.621
46 C3 230 -1.261
46 C3 231 2.157
46 C3 232 -1.750
46 C3 233 -0.773
46 C3 234 2.157
46 C3 235 -2.238
46 C3 236 0.203
46 C3 237 2.645
46 C3 238 3.133
46 C3 239 2.645
46 C3 240 0.692
46 C3 241 2.157
46 C3 242 -0.285
46 C3 243 -1.261
46 C3 244 0.692
46 C3 245 -1.261
46 C3 246 -2.726
46 C3 247 -1.261
46 C3 248 -1.261
46 C3 249 -2.238
46 C3 250 0.692
46 C3 251 -1.261
46 C3 252 -1.750
46 C3 253 -1.750
46 C3 254 -0.285
46 C3 255 0.203
# C4 chan 17
46 C4 0 -0.712
46 C4 1 -1.200
46 C4 2 -3.153
46 C4 3 -3.642
46 C4 4 -2.665
46 C4 5 0.753
46 C4 6 5.147
46 C4 7 1.241
46 C4 8 -1.689
46 C4 9 -1.200
46 C4 10 -5.595
46 C4 11 -2.177
46 C4 12 0.753
46 C4 13 -3.153
46 C4 14 0.753
46 C4 15 -5.595
46 C4 16 -2.177
46 C4 17 -2.665
46 C4 18 0.264
46 C4 19 -1.689
46 C4 20 -0.224
46 C4 21 -0.712
46 C4 22 0.264
46 C4 23 4.171
46 C4 24 0.264
46 C4 25 -3.153
46 C4 26 -0.224
46 C4 27 1.241
46 C4 28 1.729
46 C4 29 -0.224
46 C4 30 -1.689
46 C4 31 -3.153
46 C4 32 -2.177
46 C4 33 -1.200
46 C4 34 -0.712
46 C4 35 1.729
46 C4 36 -5.595
46 C4 37 -1.200
46 C4 38 -3.153
46 C4 39 -0.712
46 C4 40 -0.224
46 C4 41 -3.642
46 C4 42 -3.642
46 C4 43 -5.595
46 C4 44 -3.153
46 C4 45 -3.153
46 C4 46 -0.712
46 C4 47 -2.177
46 C4 48 -0.224
46 C4 49 -0.224
46 C4 50 -0.712
46 C4 51 -1.200
46 C4 52 -1.689
46 C4 53 -0.712
46 C4 54 -3.642
46 C4 55 -2.177
46 C4 56 0.264
46 C4 57 0.264
46 C4 58 -0.224
46 C4 59 2.218
46 C4 60 1.729
46 C4 61 -4.130
46 C4 62 0.753
46 C4 63 -3.642
46 C4 64 -0.712
46 C4 65 0.753
46 C4 66 -0.712
46 C4 67 -0.224
46 C4 68 4.171
46 C4 69 4.171
46 C4 70 3.194
46 C4 71 -0.224
46 C4 72 0.753
46 C4 73 3.682
46 C4 74 1.729
46 C4 75 3.682
46 C4 76 10.030
46 C4 77 4.659
46 C4 78 -0.224
46 C4 79 0.753
46 C4 80 -0.712
46 C4 81 2.218
46 C4 82 1.241
46 C4 83 2.706
46 C4 84 5.147
46 C4 85 3.682
46 C4 86 1.729
46 C4 87 1.729
46 C4 88 0.264
46 C4 89 1.729
46 C4 90 -0.712
46 C4 91 7.100
46 C4 92 6.612
46 C4 93 -3.642
46 C4 94 4.171
46 C4 95 3.682
46 C4 96 2.218
46 C4 97 3.194
46 C4 98 -0.224
46 C4 99 1.241
46 C4 100 0.264
46 C4 101 0.753
46 C4 102 1.729
46 C4 103 5.636
46 C4 104 3.194
46 C4 105 0.264
46 C4 106 -1.200
46 C4 107 2.706
46 C4 108 -0.712
46 C4 109 -0.712
46 C4 110 3.682
46 C4 111 4.659
46 C4 112 2.218
46 C4 113 4.659
46 C4 114 -0.712
46 C4 115 3.194
46 C4 116 7.100
46 C4 117 1.729
46 C4 118 -0.712
46 C4 119 0.753
46 C4 120 0.264
46 C4 121 -1.689
46 C4 122 2.706
46 C4 123 3.194
46 C4 124 4.171
46 C4 125 1.729
46 C4 126 6.612
46 C4 127 0.753
46 C4 128 0.753
46 C4 129 2.218
46 C4 130 0.264
46 C4 131 -3.153
46 C4 132 4.171
46 C4 133 -0.224
46 C4 134 -1.200
46 C4 135 1.241
46 C4 136 -2.177
46 C4 137 0.753
46 C4 138 -1.689
46 C4 139 -5.107
46 C4 140 -3.642
46 C4 141 1.729
46 C4 142 3.194
46 C4 143 4.659
46 C4 144 -0.224
46 C4 145 0.264
46 C4 146 -1.200
46 C4 147 -0.712
46 C4 148 -2.177
46 C4 149 -2.177
46 C4 150 2.706
46 C4 151 -2.665
46 C4 152 -4.130
46 C4 153 -3.153
46 C4 154 0.264
46 C4 155 2.706
46 C4 156 1.241
46 C4 157 -1.200
46 C4 158 1.241
46 C4 159 4.171
46 C4 160 4.171
46 C4 161 -1.689
46 C4 162 0.753
46 C4 163 -1.200
46 C4 164 6.124
46 C4 165 3.194
46 C4 166 -4.130
46 C4 167 -0.224
46 C4 168 -0.712
46 C4 169 2.706
46 C4 170 1.241
46 C4 171 1.729
46 C4 172 2.706
46 C4 173 1.729
46 C4 174 3.194
46 C4 175 0.264
46 C4 176 0.753
46 C4 177 1.729
46 C4 178 3.194
46 C4 179 0.753
46 C4 180 2.218
46 C4 181 3.682
46 C4 182 0.753
46 C4 183 7.100
46 C4 184 3.682
46 C4 185 -0.712
46 C4 186 0.264
46 C4 187 -1.689
46 C4 188 -1.689
46 C4 189 -7.060
46 C4 190 -3.642
46 C4 191 -1.689
46 C4 192 -0.712
46 C4 193 1.729
46 C4 194 0.753
46 C4 195 -0.224
46 C4 196 -0.224
46 C4 197 -1.200
46 C4 198 1.241
46 C4 199 -1.200
46 C4 200 1.241
46 C4 201 -0.712
46 C4 202 1.241
46 C4 203 -0.224
46 C4 204 -1.689
46 C4 205 -0.712
46 C4 206 1.241
46 C4 207 0.753
46 C4 208 -2.177
46 C4 209 3.682
46 C4 210 2.706
46 C4 211 0.753
46 C4 212 -2.177
46 C4 213 -3.153
46 C4 214 4.659
46 C4 215 -0.712
46 C4 216 1.241
46 C4 217 -2.177
46 C4 218 -5.107
46 C4 219 2.218
46 C4 220 -0.224
46 C4 221 -2.665
46 C4 222 -1.200
46 C4 223 -2.665
46 C4 224 -4.130
46 C4 225 -3.642
46 C4 226 -0.224
46 C4 227 1.241
46 C4 228 1.729
46 C4 229 -2.177
46 C4 230 5.147
46 C4 231 1.241
46 C4 232 -4.130
46 C4 233 -3.153
46 C4 234 -4.130
46 C4 235 -3.642
46 C4 236 -3.153
46 C4 237 -6.571
46 C4 238 -3.153
46 C4 239 -1.200
46 C4 240 -0.224
46 C4 241 -1.689
46 C4 242 2.218
46 C4 243 1.729
46 C4 244 0.264
46 C4 245 0.264
46 C4 246 -0.224
46 C4 247 4.659
46 C4 248 3.682
46 C4 249 -3.153
46 C4 250 -3.153
46 C4 251 -0.712
46 C4 252 -2.177
46 C4 253 1.241
46 C4 254 -2.665
46 C4 255 -2.665
# CP5 chan 18
46 CP5 0 -4.222
46 CP5 1 4.567
46 CP5 2 1.149
46 CP5 3 0.173
46 CP5 4 1.638
46 CP5 5 2.126
46 CP5 6 -2.268
46 CP5 7 5.544
46 CP5 8 -1.780
46 CP5 9 -4.222
46 CP5 10 8.962
46 CP5 11 3.591
46 CP5 12 0.173
46 CP5 13 -1.780
46 CP5 14 4.079
46 CP5 15 3.103
46 CP5 16 -1.780
46 CP5 17 -1.780
46 CP5 18 0.173
46 CP5 19 2.126
46 CP5 20 3.103
46 CP5 21 1.149
46 CP5 22 8.474
46 CP5 23 3.591
46 CP5 24 0.661
46 CP5 25 -5.198
46 CP5 26 -6.663
46 CP5 27 -5.198
46 CP5 28 -3.733
46 CP5 29 -11.058
46 CP5 30 -3.245
46 CP5 31 -1.780
46 CP5 32 3.103
46 CP5 33 -1.780
46 CP5 34 -0.804
46 CP5 35 -4.222
46 CP5 36 -2.268
46 CP5 37 -12.522
46 CP5 38 -5.686
46 CP5 39 -5.686
46 CP5 40 -5.686
46 CP5 41 -1.292
46 CP5 42 -5.198
46 CP5 43 -7.151
46 CP5 44 -10.569
46 CP5 45 -9.593
46 CP5 46 -13.011
46 CP5 47 -14.964
46 CP5 48 -4.222
46 CP5 49 -12.034
46 CP5 50 -1.292
46 CP5 51 -8.128
46 CP5 52 1.149
46 CP5 53 -5.198
46 CP5 54 -5.686
46 CP5 55 -4.222
46 CP5 56 -7.151
46 CP5 57 -7.151
46 CP5 58 -3.733
46 CP5 59 -6.663
46 CP5 60 -6.663
46 CP5 61 -5.198
46 CP5 62 -2.757
46 CP5 63 -3.733
46 CP5 64 2.126
46 CP5 65 -7.640
46 CP5 66 -0.315
46 CP5 67 -4.222
46 CP5 68 -7.640
46 CP5 69 -2.268
46 CP5 70 -2.268
46 CP5 71 2.126
46 CP5 72 4.079
46 CP5 73 -2.268
46 CP5 74 3.103
46 CP5 75 -0.804
46 CP5 76 -0.315
46 CP5 77 2.614
46 CP5 78 2.614
46 CP5 79 0.173
46 CP5 80 1.638
46 CP5 81 7.497
46 CP5 82 -5.686
46 CP5 83 2.614
46 CP5 84 -0.315
46 CP5 85 3.591
46 CP5 86 -1.292
46 CP5 87 -0.804
46 CP5 88 -2.268
46 CP5 89 1.638
46 CP5 90 8.474
46 CP5 91 4.567
46 CP5 92 6.032
46 CP5 93 5.544
46 CP5 94 0.661
46 CP5 95 4.567
46 CP5 96 2.614
46 CP5 97 4.079
46 CP5 98 8.962
46 CP5 99 4.079
46 CP5 100 1.638
46 CP5 101 8.474
46 CP5 102 -0.804
46 CP5 103 1.149
46 CP5 104 -3.245
46 CP5 105 3.591
46 CP5 106 6.521
46 CP5 107 3.591
46 CP5 108 7.985
46 CP5 109 12.868
46 CP5 110 0.661
46 CP5 111 9.939
46 CP5 112 7.009
46 CP5 113 -3.733
46 CP5 114 0.173
46 CP5 115 0.661
46 CP5 116 3.103
46 CP5 117 -1.780
46 CP5 118 -2.268
46 CP5 119 0.173
46 CP5 120 2.126
46 CP5 121 -3.245
46 CP5 122 -5.198
46 CP5 123 1.149
46 CP5 124 -4.222
46 CP5 125 0.661
46 CP5 126 0.173
46 CP5 127 1.149
46 CP5 128 -0.315
46 CP5 129 -6.663
46 CP5 130 -3.245
46 CP5 131 1.638
46 CP5 132 -10.569
46 CP5 133 -4.222
46 CP5 134 -5.686
46 CP5 135 -11.546
46 CP5 136 -0.315
46 CP5 137 -7.151
46 CP5 138 -6.175
46 CP5 139 5.056
46 CP5 140 3.103
46 CP5 141 -1.780
46 CP5 142 -9.593
46 CP5 143 -6.175
46 CP5 144 -10.081
46 CP5 145 -9.593
46 CP5 146 -11.058
46 CP5 147 0.661
46 CP5 148 4.079
46 CP5 149 2.614
46 CP5 150 -3.245
46 CP5 151 -3.733
46 CP5 152 1.638
46 CP5 153 -6.175
46 CP5 154 -5.686
46 CP5 155 -9.593
46 CP5 156 -12.034
46 CP5 157 6.521
46 CP5 158 -5.198
46 CP5 159 5.544
46 CP5 160 -1.292
46 CP5 161 6.032
46 CP5 162 -0.315
46 CP5 163 0.173
46 CP5 164 -2.757
46 CP5 165 -3.245
46 CP5 166 -7.151
46 CP5 167 2.126
46 CP5 168 3.103
46 CP5 169 -1.780
46 CP5 170 4.079
46 CP5 171 -0.804
46 CP5 172 3.591
46 CP5 173 4.567
46 CP5 174 1.638
46 CP5 175 -2.757
46 CP5 176 8.474
46 CP5 177 -3.733
46 CP5 178 -4.222
46 CP5 179 1.149
46 CP5 180 0.173
46 CP5 181 -0.315
46 CP5 182 4.079
46 CP5 183 -0.315
46 CP5 184 -0.315
46 CP5 185 -4.222
46 CP5 186 -4.222
46 CP5 187 3.103
46 CP5 188 5.056
46 CP5 189 17.751
46 CP5 190 10.915
46 CP5 191 2.614
46 CP5 192 0.173
46 CP5 193 2.614
46 CP5 194 -0.804
46 CP5 195 -6.175
46 CP5 196 -2.268
46 CP5 197 -9.593
46 CP5 198 6.032
46 CP5 199 -1.292
46 CP5 200 -3.733
46 CP5 201 -2.757
46 CP5 202 -8.616
46 CP5 203 -2.757
46 CP5 204 -7.151
46 CP5 205 -6.175
46 CP5 206 -4.710
46 CP5 207 -0.315
46 CP5 208 -0.804
46 CP5 209 -14.476
46 CP5 210 0.661
46 CP5 211 6.521
46 CP5 212 -10.081
46 CP5 213 6.521
46 CP5 214 -16.917
46 CP5 215 -6.663
46 CP5 216 -10.081
46 CP5 217 -9.104
46 CP5 218 0.173
46 CP5 219 -8.616
46 CP5 220 -6.663
46 CP5 221 -6.663
46 CP5 222 -15.940
46 CP5 223 -5.686
46 CP5 224 -1.292
46 CP5 225 -5.686
46 CP5 226 -3.245
46 CP5 227 -3.733
46 CP5 228 0.661
46 CP5 229 3.103
46 CP5 230 -3.245
46 CP5 231 -1.780
46 CP5 232 -4.710
46 CP5 233 -1.780
46 CP5 234 -7.151
46 CP5 235 -1.780
46 CP5 236 -2.757
46 CP5 237 4.567
46 CP5 238 0.173
46 CP5 239 -0.315
46 CP5 240 0.173
46 CP5 241 -2.757
46 CP5 242 -1.780
46 CP5 243 -8.616
46 CP5 244 -7.151
46 CP5 245 2.126
46 CP5 246 -4.710
46 CP5 247 3.103
46 CP5 248 -4.710
46 CP5 249 1.149
46 CP5 250 -0.315
46 CP5 251 -1.780
46 CP5 252 -3.733
46 CP5 253 -9.104
46 CP5 254 -5.686
46 CP5 255 -3.245
# CP6 chan 19
46 CP6 0 -2.330
46 CP6 1 -2.818
46 CP6 2 -2.330
46 CP6 3 -4.771
46 CP6 4 -6.236
46 CP6 5 4.018
46 CP6 6 5.483
46 CP6 7 -3.306
46 CP6 8 2.065
46 CP6 9 1.088
46 CP6 10 -0.865
46 CP6 11 4.995
46 CP6 12 7.436
46 CP6 13 0.112
46 CP6 14 4.995
46 CP6 15 -9.165
46 CP6 16 -5.259
46 CP6 17 -5.747
46 CP6 18 -1.353
46 CP6 19 -3.306
46 CP6 20 -1.841
46 CP6 21 -1.841
46 CP6 22 2.065
46 CP6 23 2.553
46 CP6 24 -1.353
46 CP6 25 0.600
46 CP6 26 -1.353
46 CP6 27 3.530
46 CP6 28 4.506
46 CP6 29 -2.330
46 CP6 30 -1.353
46 CP6 31 -8.677
46 CP6 32 -5.259
46 CP6 33 -7.701
46 CP6 34 -0.865
46 CP6 35 -2.818
46 CP6 36 -9.165
46 CP6 37 -6.724
46 CP6 38 -10.142
46 CP6 39 -8.677
46 CP6 40 -0.865
46 CP6 41 -7.212
46 CP6 42 -9.654
46 CP6 43 -12.583
46 CP6 44 -7.701
46 CP6 45 -7.701
46 CP6 46 -8.677
46 CP6 47 -7.701
46 CP6 48 -6.724
46 CP6 49 -7.212
46 CP6 50 -8.189
46 CP6 51 -9.165
46 CP6 52 -5.259
46 CP6 53 -3.794
46 CP6 54 -7.701
46 CP6 55 -7.701
46 CP6 56 -5.747
46 CP6 57 -1.353
46 CP6 58 -2.330
46 CP6 59 -1.841
46 CP6 60 -5.747
46 CP6 61 -4.771
46 CP6 62 -1.353
46 CP6 63 -8.189
46 CP6 64 -5.747
46 CP6 65 0.600
46 CP6 66 -3.306
46 CP6 67 -1.353
46 CP6 68 4.995
46 CP6 69 3.042
46 CP6 70 2.553
46 CP6 71 -2.818
46 CP6 72 0.600
46 CP6 73 1.577
46 CP6 74 1.088
46 CP6 75 7.436
46 CP6 76 9.878
46 CP6 77 -1.841
46 CP6 78 3.530
46 CP6 79 -0.865
46 CP6 80 0.112
46 CP6 81 -2.818
46 CP6 82 2.065
46 CP6 83 4.018
46 CP6 84 8.901
46 CP6 85 6.460
46 CP6 86 3.042
46 CP6 87 5.971
46 CP6 88 3.042
46 CP6 89 9.389
46 CP6 90 -2.330
46 CP6 91 4.018
46 CP6 92 -0.376
46 CP6 93 4.018
46 CP6 94 10.366
46 CP6 95 4.506
46 CP6 96 4.506
46 CP6 97 1.088
46 CP6 98 -0.865
46 CP6 99 2.065
46 CP6 100 3.042
46 CP6 101 -0.865
46 CP6 102 1.088
46 CP6 103 4.995
46 CP6 104 0.600
46 CP6 105 2.065
46 CP6 106 -1.353
46 CP6 107 1.577
46 CP6 108 3.530
46 CP6 109 -0.865
46 CP6 110 4.506
46 CP6 111 7.924
46 CP6 112 0.112
46 CP6 113 1.577
46 CP6 114 1.088
46 CP6 115 5.483
46 CP6 116 12.319
46 CP6 117 4.995
46 CP6 118 -5.259
46 CP6 119 -4.771
46 CP6 120 -2.330
46 CP6 121 -5.259
46 CP6 122 2.553
46 CP6 123 1.577
46 CP6 124 5.483
46 CP6 125 2.553
46 CP6 126 12.807
46 CP6 127 1.577
46 CP6 128 -1.841
46 CP6 129 4.506
46 CP6 130 -1.841
46 CP6 131 -8.677
46 CP6 132 -2.330
46 CP6 133 -3.306
46 CP6 134 -7.212
46 CP6 135 -4.771
46 CP6 136 -6.236
46 CP6 137 -0.865
46 CP6 138 -0.865
46 CP6 139 -9.165
46 CP6 140 -7.701
46 CP6 141 -0.865
46 CP6 142 -1.353
46 CP6 143 2.065
46 CP6 144 2.065
46 CP6 145 3.042
46 CP6 146 -4.771
46 CP6 147 -2.330
46 CP6 148 -5.259
46 CP6 149 -4.771
46 CP6 150 4.018
46 CP6 151 -6.724
46 CP6 152 -10.142
46 CP6 153 -3.794
46 CP6 154 -5.747
46 CP6 155 1.577
46 CP6 156 -2.330
46 CP6 157 -2.330
46 CP6 158 -0.376
46 CP6 159 4.995
46 CP6 160 5.483
46 CP6 161 -5.259
46 CP6 162 -5.747
46 CP6 163 -2.330
46 CP6 164 4.995
46 CP6 165 -2.818
46 CP6 166 -2.330
46 CP6 167 -3.306
46 CP6 168 -3.306
46 CP6 169 0.600
46 CP6 170 2.065
46 CP6 171 1.088
46 CP6 172 4.506
46 CP6 173 1.577
46 CP6 174 6.460
46 CP6 175 -0.376
46 CP6 176 0.600
46 CP6 177 0.600
46 CP6 178 2.553
46 CP6 179 -3.306
46 CP6 180 2.065
46 CP6 181 3.042
46 CP6 182 -0.376
46 CP6 183 4.995
46 CP6 184 -4.283
46 CP6 185 3.530
46 CP6 186 -5.747
46 CP6 187 -3.794
46 CP6 188 -3.794
46 CP6 189 -12.095
46 CP6 190 -1.353
46 CP6 191 -1.841
46 CP6 192 -1.353
46 CP6 193 2.065
46 CP6 194 3.530
46 CP6 195 -2.330
46 CP6 196 -0.865
46 CP6 197 -3.794
46 CP6 198 0.600
46 CP6 199 -4.771
46 CP6 200 -3.794
46 CP6 201 -7.701
46 CP6 202 -0.376
46 CP6 203 -6.236
46 CP6 204 -1.841
46 CP6 205 -5.747
46 CP6 206 -0.865
46 CP6 207 -2.330
46 CP6 208 -6.236
46 CP6 209 1.088
46 CP6 210 -4.771
46 CP6 211 -6.236
46 CP6 212 -5.259
46 CP6 213 -6.724
46 CP6 214 5.971
46 CP6 215 -3.794
46 CP6 216 0.112
46 CP6 217 -5.747
46 CP6 218 -13.560
46 CP6 219 -6.236
46 CP6 220 -4.771
46 CP6 221 -7.701
46 CP6 222 -5.259
46 CP6 223 -9.165
46 CP6 224 -12.583
46 CP6 225 -8.189
46 CP6 226 -3.306
46 CP6 227 -0.376
46 CP6 228 0.600
46 CP6 229 -5.747
46 CP6 230 4.995
46 CP6 231 -5.259
46 CP6 232 -10.142
46 CP6 233 -7.701
46 CP6 234 -11.119
46 CP6 235 -10.142
46 CP6 236 -6.236
46 CP6 237 -11.119
46 CP6 238 -9.654
46 CP6 239 2.065
46 CP6 240 2.553
46 CP6 241 -5.259
46 CP6 242 -1.353
46 CP6 243 0.112
46 CP6 244 0.600
46 CP6 245 0.112
46 CP6 246 -4.283
46 CP6 247 2.553
46 CP6 248 -1.353
46 CP6 249 0.112
46 CP6 250 -2.330
46 CP6 251 1.577
46 CP6 252 -1.353
46 CP6 253 -1.353
46 CP6 254 -2.330
46 CP6 255 -1.841
# CP1 chan 20
46 CP1 0 0.916
46 CP1 1 -0.061
46 CP1 2 -0.549
46 CP1 3 -1.526
46 CP1 4 -1.526
46 CP1 5 -1.038
46 CP1 6 0.427
46 CP1 7 1.892
46 CP1 8 2.869
46 CP1 9 2.380
46 CP1 10 1.892
46 CP1 11 0.916
46 CP1 12 0.916
46 CP1 13 1.892
46 CP1 14 2.869
46 CP1 15 4.333
46 CP1 16 4.822
46 CP1 17 4.822
46 CP1 18 3.845
46 CP1 19 2.869
46 CP1 20 2.380
46 CP1 21 2.380
46 CP1 22 1.892
46 CP1 23 1.892
46 CP1 24 1.892
46 CP1 25 1.404
46 CP1 26 1.404
46 CP1 27 1.892
46 CP1 28 2.380
46 CP1 29 1.892
46 CP1 30 1.404
46 CP1 31 0.427
46 CP1 32 -0.061
46 CP1 33 -0.061
46 CP1 34 -0.061
46 CP1 35 0.427
46 CP1 36 0.427
46 CP1 37 0.916
46 CP1 38 0.427
46 CP1 39 -0.061
46 CP1 40 -0.549
46 CP1 41 -1.038
46 CP1 42 -1.526
46 CP1 43 -1.526
46 CP1 44 -1.526
46 CP1 45 -1.526
46 CP1 46 -1.038
46 CP1 47 -1.526
46 CP1 48 -2.502
46 CP1 49 -3.479
46 CP1 50 -3.967
46 CP1 51 -4.456
46 CP1 52 -4.456
46 CP1 53 -2.991
46 CP1 54 -2.014
46 CP1 55 -1.526
46 CP1 56 -0.549
46 CP1 57 -0.549
46 CP1 58 -0.549
46 CP1 59 -0.549
46 CP1 60 -0.549
46 CP1 61 -0.549
46 CP1 62 -0.549
46 CP1 63 -0.549
46 CP1 64 -0.549
46 CP1 65 -0.061
46 CP1 66 -0.061
46 CP1 67 0.427
46 CP1 68 0.916
46 CP1 69 0.427
46 CP1 70 -0.061
46 CP1 71 -0.549
46 CP1 72 -1.526
46 CP1 73 -2.014
46 CP1 74 -1.526
46 CP1 75 -1.038
46 CP1 76 -0.061
46 CP1 77 1.404
46 CP1 78 1.892
46 CP1 79 1.892
46 CP1 80 1.892
46 CP1 81 1.404
46 CP1 82 1.404
46 CP1 83 1.404
46 CP1 84 2.380
46 CP1 85 2.869
46 CP1 86 2.380
46 CP1 87 1.892
46 CP1 88 1.404
46 CP1 89 1.404
46 CP1 90 1.892
46 CP1 91 2.380
46 CP1 92 2.380
46 CP1 93 2.380
46 CP1 94 1.892
46 CP1 95 2.380
46 CP1 96 2.869
46 CP1 97 3.357
46 CP1 98 3.357
46 CP1 99 2.380
46 CP1 100 1.404
46 CP1 101 0.916
46 CP1 102 1.404
46 CP1 103 2.380
46 CP1 104 2.869
46 CP1 105 2.869
46 CP1 106 1.892
46 CP1 107 0.916
46 CP1 108 0.427
46 CP1 109 0.427
46 CP1 110 0.916
46 CP1 111 1.892
46 CP1 112 2.380
46 CP1 113 2.869
46 CP1 114 3.357
46 CP1 115 3.357
46 CP1 116 2.869
46 CP1 117 1.892
46 CP1 118 0.916
46 CP1 119 0.427
46 CP1 120 0.427
46 CP1 121 0.916
46 CP1 122 0.427
46 CP1 123 -0.061
46 CP1 124 -1.038
46 CP1 125 -1.526
46 CP1 126 -1.038
46 CP1 127 -1.038
46 CP1 128 -0.549
46 CP1 129 -1.038
46 CP1 130 -1.038
46 CP1 131 -1.038
46 CP1 132 -1.038
46 CP1 133 -1.038
46 CP1 134 -1.038
46 CP1 135 -2.014
46 CP1 136 -2.991
46 CP1 137 -3.479
46 CP1 138 -3.479
46 CP1 139 -2.991
46 CP1 140 -2.991
46 CP1 141 -2.502
46 CP1 142 -1.526
46 CP1 143 -1.038
46 CP1 144 -0.549
46 CP1 145 -1.038
46 CP1 146 -2.014
46 CP1 147 -3.479
46 CP1 148 -4.456
46 CP1 149 -4.456
46 CP1 150 -2.991
46 CP1 151 -1.526
46 CP1 152 -0.061
46 CP1 153 0.916
46 CP1 154 0.427
46 CP1 155 -0.549
46 CP1 156 -1.526
46 CP1 157 -2.014
46 CP1 158 -2.014
46 CP1 159 -1.526
46 CP1 160 -1.038
46 CP1 161 -1.038
46 CP1 162 -0.061
46 CP1 163 0.916
46 CP1 164 1.404
46 CP1 165 1.892
46 CP1 166 1.892
46 CP1 167 0.916
46 CP1 168 -0.061
46 CP1 169 -1.038
46 CP1 170 -1.038
46 CP1 171 -0.549
46 CP1 172 -0.061
46 CP1 173 0.916
46 CP1 174 1.404
46 CP1 175 1.404
46 CP1 176 0.916
46 CP1 177 0.427
46 CP1 178 0.427
46 CP1 179 0.427
46 CP1 180 0.916
46 CP1 181 0.916
46 CP1 182 0.916
46 CP1 183 0.427
46 CP1 184 -0.061
46 CP1 185 0.427
46 CP1 186 0.916
46 CP1 187 0.916
46 CP1 188 0.427
46 CP1 189 -0.061
46 CP1 190 -1.038
46 CP1 191 -1.526
46 CP1 192 -1.526
46 CP1 193 -0.061
46 CP1 194 1.404
46 CP1 195 2.380
46 CP1 196 2.380
46 CP1 197 1.404
46 CP1 198 0.427
46 CP1 199 -0.549
46 CP1 200 -1.038
46 CP1 201 -0.549
46 CP1 202 -0.061
46 CP1 203 -0.061
46 CP1 204 -0.549
46 CP1 205 -1.038
46 CP1 206 -1.526
46 CP1 207 -2.014
46 CP1 208 -2.502
46 CP1 209 -2.502
46 CP1 210 -2.014
46 CP1 211 -1.526
46 CP1 212 -1.526
46 CP1 213 -1.526
46 CP1 214 -1.526
46 CP1 215 -2.014
46 CP1 216 -1.526
46 CP1 217 -1.526
46 CP1 218 -2.014
46 CP1 219 -2.502
46 CP1 220 -2.991
46 CP1 221 -3.479
46 CP1 222 -3.479
46 CP1 223 -2.991
46 CP1 224 -2.502
46 CP1 225 -2.502
46 CP1 226 -3.479
46 CP1 227 -3.967
46 CP1 228 -3.967
46 CP1 229 -2.991
46 CP1 230 -1.526
46 CP1 231 -0.061
46 CP1 232 -0.061
46 CP1 233 -0.549
46 CP1 234 -1.038
46 CP1 235 -1.526
46 CP1 236 -1.526
46 CP1 237 -1.526
46 CP1 238 -2.014
46 CP1 239 -2.502
46 CP1 240 -2.502
46 CP1 241 -1.526
46 CP1 242 -0.549
46 CP1 243 -0.061
46 CP1 244 -0.061
46 CP1 245 -0.549
46 CP1 246 -1.526
46 CP1 247 -1.526
46 CP1 248 -1.038
46 CP1 249 -0.549
46 CP1 250 -0.549
46 CP1 251 -0.061
46 CP1 252 -0.061
46 CP1 253 0.427
46 CP1 254 0.916
46 CP1 255 0.427
# CP2 chan 21
46 CP2 0 0.346
46 CP2 1 -0.142
46 CP2 2 -0.142
46 CP2 3 -0.631
46 CP2 4 -1.119
46 CP2 5 -1.119
46 CP2 6 -1.119
46 CP2 7 -1.119
46 CP2 8 -1.119
46 CP2 9 -1.119
46 CP2 10 -0.631
46 CP2 11 0.346
46 CP2 12 1.322
46 CP2 13 1.811
46 CP2 14 2.299
46 CP2 15 1.811
46 CP2 16 1.811
46 CP2 17 2.299
46 CP2 18 2.299
46 CP2 19 1.811
46 CP2 20 1.322
46 CP2 21 0.346
46 CP2 22 -0.631
46 CP2 23 -1.119
46 CP2 24 -0.142
46 CP2 25 0.346
46 CP2 26 0.834
46 CP2 27 0.834
46 CP2 28 0.834
46 CP2 29 0.346
46 CP2 30 0.834
46 CP2 31 0.834
46 CP2 32 0.834
46 CP2 33 -0.142
46 CP2 34 -0.631
46 CP2 35 -1.119
46 CP2 36 -1.607
46 CP2 37 -1.607
46 CP2 38 -1.607
46 CP2 39 -1.607
46 CP2 40 -1.119
46 CP2 41 -1.119
46 CP2 42 -1.607
46 CP2 43 -2.096
46 CP2 44 -2.584
46 CP2 45 -2.584
46 CP2 46 -2.584
46 CP2 47 -2.584
46 CP2 48 -3.072
46 CP2 49 -4.049
46 CP2 50 -5.025
46 CP2 51 -4.537
46 CP2 52 -3.560
46 CP2 53 -2.096
46 CP2 54 -1.119
46 CP2 55 -0.631
46 CP2 56 -0.631
46 CP2 57 -0.631
46 CP2 58 -0.142
46 CP2 59 0.346
46 CP2 60 0.346
46 CP2 61 -0.142
46 CP2 62 -1.119
46 CP2 63 -1.607
46 CP2 64 -1.607
46 CP2 65 -0.631
46 CP2 66 -0.142
46 CP2 67 0.346
46 CP2 68 0.346
46 CP2 69 0.346
46 CP2 70 0.834
46 CP2 71 1.322
46 CP2 72 2.299
46 CP2 73 2.299
46 CP2 74 2.299
46 CP2 75 1.811
46 CP2 76 1.811
46 CP2 77 1.811
46 CP2 78 2.299
46 CP2 79 2.787
46 CP2 80 2.787
46 CP2 81 2.299
46 CP2 82 1.811
46 CP2 83 1.811
46 CP2 84 1.811
46 CP2 85 1.811
46 CP2 86 2.787
46 CP2 87 3.276
46 CP2 88 4.252
46 CP2 89 4.740
46 CP2 90 4.252
46 CP2 91 3.764
46 CP2 92 2.299
46 CP2 93 0.834
46 CP2 94 0.834
46 CP2 95 1.322
46 CP2 96 2.787
46 CP2 97 3.276
46 CP2 98 3.764
46 CP2 99 2.787
46 CP2 100 1.811
46 CP2 101 0.834
46 CP2 102 0.834
46 CP2 103 1.322
46 CP2 104 1.322
46 CP2 105 1.811
46 CP2 106 1.811
46 CP2 107 1.811
46 CP2 108 1.811
46 CP2 109 2.299
46 CP2 110 1.322
46 CP2 111 0.834
46 CP2 112 0.346
46 CP2 113 0.834
46 CP2 114 1.811
46 CP2 115 3.276
46 CP2 116 3.764
46 CP2 117 4.252
46 CP2 118 3.764
46 CP2 119 3.764
46 CP2 120 3.276
46 CP2 121 2.787
46 CP2 122 2.299
46 CP2 123 0.834
46 CP2 124 -0.631
46 CP2 125 -1.607
46 CP2 126 -1.607
46 CP2 127 -0.142
46 CP2 128 1.322
46 CP2 129 3.276
46 CP2 130 3.764
46 CP2 131 3.276
46 CP2 132 1.811
46 CP2 133 0.346
46 CP2 134 -0.631
46 CP2 135 -1.119
46 CP2 136 -1.607
46 CP2 137 -1.607
46 CP2 138 -1.607
46 CP2 139 -1.607
46 CP2 140 -1.119
46 CP2 141 -1.119
46 CP2 142 -0.631
46 CP2 143 -1.119
46 CP2 144 -1.119
46 CP2 145 -1.119
46 CP2 146 -1.119
46 CP2 147 -0.631
46 CP2 148 -0.142
46 CP2 149 0.346
46 CP2 150 0.346
46 CP2 151 -0.142
46 CP2 152 -0.631
46 CP2 153 -0.631
46 CP2 154 -0.631
46 CP2 155 -0.142
46 CP2 156 -0.631
46 CP2 157 -0.631
46 CP2 158 -1.119
46 CP2 159 -1.119
46 CP2 160 -0.631
46 CP2 161 0.346
46 CP2 162 1.811
46 CP2 163 1.811
46 CP2 164 1.811
46 CP2 165 1.322
46 CP2 166 0.346
46 CP2 167 0.346
46 CP2 168 0.346
46 CP2 169 0.346
46 CP2 170 0.834
46 CP2 171 0.346
46 CP2 172 0.346
46 CP2 173 0.346
46 CP2 174 0.346
46 CP2 175 0.346
46 CP2 176 0.834
46 CP2 177 0.834
46 CP2 178 0.834
46 CP2 179 1.322
46 CP2 180 1.322
46 CP2 181 1.322
46 CP2 182 0.834
46 CP2 183 1.322
46 CP2 184 1.322
46 CP2 185 1.322
46 CP2 186 1.322
46 CP2 187 0.834
46 CP2 188 0.346
46 CP2 189 -1.119
46 CP2 190 -1.607
46 CP2 191 -3.072
46 CP2 192 -3.560
46 CP2 193 -3.560
46 CP2 194 -3.072
46 CP2 195 -1.607
46 CP2 196 -0.142
46 CP2 197 0.834
46 CP2 198 1.322
46 CP2 199 1.322
46 CP2 200 0.346
46 CP2 201 -0.631
46 CP2 202 -1.119
46 CP2 203 -1.119
46 CP2 204 -0.631
46 CP2 205 -0.142
46 CP2 206 -0.631
46 CP2 207 -1.119
46 CP2 208 -2.096
46 CP2 209 -2.096
46 CP2 210 -1.607
46 CP2 211 -1.119
46 CP2 212 -1.119
46 CP2 213 -1.119
46 CP2 214 -1.607
46 CP2 215 -2.096
46 CP2 216 -2.096
46 CP2 217 -2.096
46 CP2 218 -2.096
46 CP2 219 -2.096
46 CP2 220 -1.607
46 CP2 221 -1.607
46 CP2 222 -1.607
46 CP2 223 -2.096
46 CP2 224 -3.072
46 CP2 225 -3.072
46 CP2 226 -3.072
46 CP2 227 -3.072
46 CP2 228 -3.072
46 CP2 229 -3.560
46 CP2 230 -4.049
46 CP2 231 -3.072
46 CP2 232 -2.096
46 CP2 233 -1.119
46 CP2 234 -0.631
46 CP2 235 -0.631
46 CP2 236 -1.607
46 CP2 237 -3.072
46 CP2 238 -3.560
46 CP2 239 -4.049
46 CP2 240 -4.049
46 CP2 241 -3.560
46 CP2 242 -3.072
46 CP2 243 -3.072
46 CP2 244 -3.072
46 CP2 245 -2.584
46 CP2 246 -1.607
46 CP2 247 -0.142
46 CP2 248 0.834
46 CP2 249 1.811
46 CP2 250 1.811
46 CP2 251 1.322
46 CP2 252 1.322
46 CP2 253 0.834
46 CP2 254 0.834
46 CP2 255 0.834
# P3 chan 22
46 P3 0 0.427
46 P3 1 -0.061
46 P3 2 -2.014
46 P3 3 -4.456
46 P3 4 -5.920
46 P3 5 -4.456
46 P3 6 -1.038
46 P3 7 2.380
46 P3 8 4.333
46 P3 9 3.845
46 P3 10 1.892
46 P3 11 0.916
46 P3 12 1.404
46 P3 13 3.357
46 P3 14 5.798
46 P3 15 7.263
46 P3 16 7.751
46 P3 17 7.751
46 P3 18 6.775
46 P3 19 5.798
46 P3 20 4.822
46 P3 21 3.845
46 P3 22 2.380
46 P3 23 1.404
46 P3 24 0.916
46 P3 25 0.916
46 P3 26 1.892
46 P3 27 2.869
46 P3 28 3.845
46 P3 29 2.380
46 P3 30 -0.061
46 P3 31 -2.502
46 P3 32 -3.967
46 P3 33 -3.967
46 P3 34 -2.991
46 P3 35 -2.014
46 P3 36 -1.526
46 P3 37 -2.014
46 P3 38 -2.014
46 P3 39 -2.014
46 P3 40 -2.502
46 P3 41 -3.967
46 P3 42 -5.432
46 P3 43 -6.897
46 P3 44 -7.385
46 P3 45 -6.897
46 P3 46 -5.920
46 P3 47 -6.409
46 P3 48 -7.874
46 P3 49 -10.315
46 P3 50 -12.268
46 P3 51 -12.756
46 P3 52 -11.780
46 P3 53 -9.827
46 P3 54 -7.385
46 P3 55 -5.920
46 P3 56 -4.944
46 P3 57 -4.456
46 P3 58 -3.967
46 P3 59 -3.967
46 P3 60 -4.456
46 P3 61 -4.944
46 P3 62 -5.432
46 P3 63 -5.920
46 P3 64 -5.432
46 P3 65 -4.944
46 P3 66 -3.479
46 P3 67 -2.014
46 P3 68 -0.549
46 P3 69 -0.549
46 P3 70 -1.526
46 P3 71 -3.479
46 P3 72 -5.432
46 P3 73 -5.920
46 P3 74 -5.432
46 P3 75 -3.479
46 P3 76 -1.526
46 P3 77 -0.061
46 P3 78 0.427
46 P3 79 0.427
46 P3 80 0.427
46 P3 81 0.916
46 P3 82 1.404
46 P3 83 2.380
46 P3 84 2.380
46 P3 85 2.380
46 P3 86 1.404
46 P3 87 0.427
46 P3 88 -0.061
46 P3 89 0.916
46 P3 90 1.892
46 P3 91 2.380
46 P3 92 2.380
46 P3 93 1.892
46 P3 94 1.404
46 P3 95 2.380
46 P3 96 3.357
46 P3 97 4.333
46 P3 98 3.845
46 P3 99 2.380
46 P3 100 0.916
46 P3 101 0.916
46 P3 102 1.404
46 P3 103 2.869
46 P3 104 2.869
46 P3 105 1.404
46 P3 106 -0.549
46 P3 107 -1.038
46 P3 108 -0.549
46 P3 109 0.427
46 P3 110 1.892
46 P3 111 2.869
46 P3 112 2.869
46 P3 113 4.333
46 P3 114 5.310
46 P3 115 6.287
46 P3 116 4.822
46 P3 117 2.380
46 P3 118 -1.038
46 P3 119 -2.014
46 P3 120 -1.526
46 P3 121 -0.549
46 P3 122 -0.061
46 P3 123 -1.526
46 P3 124 -3.479
46 P3 125 -4.944
46 P3 126 -4.944
46 P3 127 -3.967
46 P3 128 -2.991
46 P3 129 -2.502
46 P3 130 -2.502
46 P3 131 -2.502
46 P3 132 -2.014
46 P3 133 -2.502
46 P3 134 -3.479
46 P3 135 -4.944
46 P3 136 -6.409
46 P3 137 -6.897
46 P3 138 -6.897
46 P3 139 -6.897
46 P3 140 -7.385
46 P3 141 -7.874
46 P3 142 -6.897
46 P3 143 -5.432
46 P3 144 -3.479
46 P3 145 -3.479
46 P3 146 -4.944
46 P3 147 -7.385
46 P3 148 -10.315
46 P3 149 -10.803
46 P3 150 -8.850
46 P3 151 -5.920
46 P3 152 -2.991
46 P3 153 -2.502
46 P3 154 -3.967
46 P3 155 -6.409
46 P3 156 -8.362
46 P3 157 -8.850
46 P3 158 -7.874
46 P3 159 -5.920
46 P3 160 -5.432
46 P3 161 -4.944
46 P3 162 -4.944
46 P3 163 -3.967
46 P3 164 -2.502
46 P3 165 -1.038
46 P3 166 -1.038
46 P3 167 -1.526
46 P3 168 -2.991
46 P3 169 -3.967
46 P3 170 -4.456
46 P3 171 -3.479
46 P3 172 -2.502
46 P3 173 -1.526
46 P3 174 -1.526
46 P3 175 -2.502
46 P3 176 -2.991
46 P3 177 -3.479
46 P3 178 -2.502
46 P3 179 -0.549
46 P3 180 0.427
46 P3 181 0.427
46 P3 182 -1.526
46 P3 183 -3.479
46 P3 184 -4.944
46 P3 185 -4.456
46 P3 186 -2.502
46 P3 187 -1.526
46 P3 188 -2.014
46 P3 189 -4.456
46 P3 190 -6.897
46 P3 191 -7.874
46 P3 192 -6.409
46 P3 193 -2.991
46 P3 194 0.427
46 P3 195 2.380
46 P3 196 2.869
46 P3 197 1.892
46 P3 198 -0.061
46 P3 199 -1.526
46 P3 200 -2.502
46 P3 201 -3.967
46 P3 202 -4.944
46 P3 203 -5.432
46 P3 204 -5.920
46 P3 205 -5.920
46 P3 206 -6.409
46 P3 207 -7.385
46 P3 208 -9.338
46 P3 209 -10.315
46 P3 210 -9.827
46 P3 211 -7.874
46 P3 212 -6.409
46 P3 213 -6.409
46 P3 214 -7.385
46 P3 215 -8.362
46 P3 216 -8.850
46 P3 217 -8.362
46 P3 218 -7.385
46 P3 219 -8.362
46 P3 220 -9.827
46 P3 221 -10.803
46 P3 222 -10.803
46 P3 223 -9.338
46 P3 224 -7.874
46 P3 225 -7.874
46 P3 226 -9.338
46 P3 227 -11.780
46 P3 228 -12.268
46 P3 229 -10.315
46 P3 230 -6.897
46 P3 231 -4.456
46 P3 232 -2.991
46 P3 233 -3.967
46 P3 234 -4.456
46 P3 235 -4.944
46 P3 236 -4.944
46 P3 237 -5.432
46 P3 238 -7.385
46 P3 239 -9.827
46 P3 240 -9.827
46 P3 241 -7.874
46 P3 242 -4.944
46 P3 243 -2.502
46 P3 244 -2.502
46 P3 245 -3.967
46 P3 246 -4.944
46 P3 247 -5.920
46 P3 248 -5.920
46 P3 249 -4.944
46 P3 250 -3.967
46 P3 251 -2.502
46 P3 252 -1.526
46 P3 253 -0.549
46 P3 254 -0.061
46 P3 255 -0.061
# P4 chan 23
46 P4 0 1.516
46 P4 1 0.539
46 P4 2 -0.926
46 P4 3 -2.391
46 P4 4 -2.879
46 P4 5 -2.391
46 P4 6 -1.902
46 P4 7 -1.414
46 P4 8 -0.926
46 P4 9 -0.437
46 P4 10 0.051
46 P4 11 0.539
46 P4 12 2.492
46 P4 13 3.957
46 P4 14 5.422
46 P4 15 6.399
46 P4 16 6.399
46 P4 17 6.399
46 P4 18 5.910
46 P4 19 4.445
46 P4 20 2.004
46 P4 21 -0.437
46 P4 22 -2.391
46 P4 23 -2.391
46 P4 24 -1.902
46 P4 25 0.051
46 P4 26 1.027
46 P4 27 2.004
46 P4 28 2.492
46 P4 29 2.492
46 P4 30 2.004
46 P4 31 0.539
46 P4 32 -0.926
46 P4 33 -2.391
46 P4 34 -3.367
46 P4 35 -4.344
46 P4 36 -4.832
46 P4 37 -5.809
46 P4 38 -6.785
46 P4 39 -6.785
46 P4 40 -5.809
46 P4 41 -5.809
46 P4 42 -6.785
46 P4 43 -8.250
46 P4 44 -9.226
46 P4 45 -9.226
46 P4 46 -7.762
46 P4 47 -7.273
46 P4 48 -8.250
46 P4 49 -10.203
46 P4 50 -12.156
46 P4 51 -12.156
46 P4 52 -10.203
46 P4 53 -7.273
46 P4 54 -5.320
46 P4 55 -4.832
46 P4 56 -5.320
46 P4 57 -5.320
46 P4 58 -3.855
46 P4 59 -2.879
46 P4 60 -2.391
46 P4 61 -3.367
46 P4 62 -4.832
46 P4 63 -5.320
46 P4 64 -4.344
46 P4 65 -2.879
46 P4 66 -1.902
46 P4 67 -2.391
46 P4 68 -2.879
46 P4 69 -3.367
46 P4 70 -2.391
46 P4 71 -0.926
46 P4 72 0.539
46 P4 73 1.516
46 P4 74 1.027
46 P4 75 0.539
46 P4 76 0.539
46 P4 77 1.027
46 P4 78 1.516
46 P4 79 2.004
46 P4 80 2.004
46 P4 81 2.004
46 P4 82 1.027
46 P4 83 0.539
46 P4 84 0.539
46 P4 85 0.539
46 P4 86 1.516
46 P4 87 2.492
46 P4 88 3.957
46 P4 89 4.934
46 P4 90 4.934
46 P4 91 4.445
46 P4 92 2.981
46 P4 93 1.516
46 P4 94 0.539
46 P4 95 1.027
46 P4 96 2.492
46 P4 97 2.981
46 P4 98 2.981
46 P4 99 2.004
46 P4 100 1.027
46 P4 101 0.539
46 P4 102 0.539
46 P4 103 0.051
46 P4 104 0.051
46 P4 105 -0.437
46 P4 106 0.051
46 P4 107 1.027
46 P4 108 2.004
46 P4 109 1.516
46 P4 110 0.539
46 P4 111 -0.926
46 P4 112 -1.414
46 P4 113 -0.926
46 P4 114 1.516
46 P4 115 2.981
46 P4 116 3.957
46 P4 117 3.957
46 P4 118 2.981
46 P4 119 2.492
46 P4 120 2.492
46 P4 121 2.004
46 P4 122 0.539
46 P4 123 -1.902
46 P4 124 -4.344
46 P4 125 -5.809
46 P4 126 -5.320
46 P4 127 -2.879
46 P4 128 1.027
46 P4 129 4.445
46 P4 130 4.934
46 P4 131 2.981
46 P4 132 0.539
46 P4 133 -1.902
46 P4 134 -2.879
46 P4 135 -3.367
46 P4 136 -3.855
46 P4 137 -4.832
46 P4 138 -6.297
46 P4 139 -7.273
46 P4 140 -6.785
46 P4 141 -6.297
46 P4 142 -5.320
46 P4 143 -5.320
46 P4 144 -5.320
46 P4 145 -6.297
46 P4 146 -6.297
46 P4 147 -4.832
46 P4 148 -2.879
46 P4 149 -1.414
46 P4 150 -1.414
46 P4 151 -2.391
46 P4 152 -3.855
46 P4 153 -5.320
46 P4 154 -5.320
46 P4 155 -4.832
46 P4 156 -4.344
46 P4 157 -5.320
46 P4 158 -6.297
46 P4 159 -6.785
46 P4 160 -5.809
46 P4 161 -3.855
46 P4 162 -1.414
46 P4 163 -0.437
46 P4 164 -0.437
46 P4 165 -1.414
46 P4 166 -2.879
46 P4 167 -3.367
46 P4 168 -3.367
46 P4 169 -2.879
46 P4 170 -2.879
46 P4 171 -2.879
46 P4 172 -2.879
46 P4 173 -2.391
46 P4 174 -1.414
46 P4 175 -0.926
46 P4 176 0.051
46 P4 177 0.539
46 P4 178 1.027
46 P4 179 0.539
46 P4 180 0.051
46 P4 181 -0.926
46 P4 182 -1.414
46 P4 183 -0.926
46 P4 184 -0.437
46 P4 185 0.051
46 P4 186 0.051
46 P4 187 -0.437
46 P4 188 -0.926
46 P4 189 -2.391
46 P4 190 -3.855
46 P4 191 -5.809
46 P4 192 -6.785
46 P4 193 -7.273
46 P4 194 -5.809
46 P4 195 -3.367
46 P4 196 -0.437
46 P4 197 2.004
46 P4 198 3.469
46 P4 199 2.492
46 P4 200 -0.437
46 P4 201 -2.879
46 P4 202 -3.855
46 P4 203 -4.344
46 P4 204 -3.855
46 P4 205 -3.855
46 P4 206 -4.344
46 P4 207 -5.320
46 P4 208 -6.297
46 P4 209 -6.297
46 P4 210 -5.809
46 P4 211 -4.832
46 P4 212 -5.320
46 P4 213 -5.320
46 P4 214 -5.809
46 P4 215 -5.809
46 P4 216 -5.809
46 P4 217 -5.809
46 P4 218 -5.809
46 P4 219 -5.320
46 P4 220 -5.320
46 P4 221 -5.320
46 P4 222 -6.297
46 P4 223 -7.762
46 P4 224 -9.226
46 P4 225 -9.715
46 P4 226 -9.226
46 P4 227 -8.250
46 P4 228 -8.250
46 P4 229 -8.738
46 P4 230 -9.226
46 P4 231 -7.762
46 P4 232 -5.320
46 P4 233 -2.879
46 P4 234 -1.902
46 P4 235 -3.367
46 P4 236 -5.809
46 P4 237 -8.738
46 P4 238 -10.203
46 P4 239 -10.203
46 P4 240 -9.715
46 P4 241 -8.738
46 P4 242 -8.250
46 P4 243 -7.273
46 P4 244 -6.297
46 P4 245 -4.344
46 P4 246 -2.879
46 P4 247 -1.414
46 P4 248 -0.437
46 P4 249 -0.437
46 P4 250 -0.437
46 P4 251 -0.926
46 P4 252 -1.414
46 P4 253 -1.414
46 P4 254 -1.902
46 P4 255 -1.414
# PZ chan 24
46 PZ 0 2.207
46 PZ 1 0.254
46 PZ 2 -1.699
46 PZ 3 -3.164
46 PZ 4 -2.675
46 PZ 5 -1.699
46 PZ 6 0.254
46 PZ 7 1.231
46 PZ 8 1.231
46 PZ 9 1.231
46 PZ 10 1.231
46 PZ 11 1.719
46 PZ 12 2.696
46 PZ 13 4.161
46 PZ 14 5.137
46 PZ 15 6.602
46 PZ 16 7.579
46 PZ 17 7.579
46 PZ 18 6.602
46 PZ 19 5.137
46 PZ 20 3.672
46 PZ 21 2.207
46 PZ 22 1.231
46 PZ 23 1.231
46 PZ 24 0.743
46 PZ 25 0.743
46 PZ 26 0.743
46 PZ 27 1.719
46 PZ 28 2.696
46 PZ 29 2.696
46 PZ 30 1.719
46 PZ 31 0.254
46 PZ 32 -0.722
46 PZ 33 -1.211
46 PZ 34 -1.211
46 PZ 35 -1.211
46 PZ 36 -1.211
46 PZ 37 -1.211
46 PZ 38 -1.211
46 PZ 39 -0.722
46 PZ 40 -0.722
46 PZ 41 -1.699
46 PZ 42 -3.164
46 PZ 43 -3.652
46 PZ 44 -4.140
46 PZ 45 -2.675
46 PZ 46 -2.675
46 PZ 47 -3.652
46 PZ 48 -5.605
46 PZ 49 -7.558
46 PZ 50 -8.046
46 PZ 51 -7.558
46 PZ 52 -5.605
46 PZ 53 -3.652
46 PZ 54 -3.164
46 PZ 55 -2.187
46 PZ 56 -1.699
46 PZ 57 -0.722
46 PZ 58 -0.234
46 PZ 59 -0.722
46 PZ 60 -1.211
46 PZ 61 -2.675
46 PZ 62 -3.652
46 PZ 63 -3.652
46 PZ 64 -2.675
46 PZ 65 -1.699
46 PZ 66 -0.234
46 PZ 67 0.743
46 PZ 68 1.719
46 PZ 69 1.231
46 PZ 70 0.743
46 PZ 71 -0.234
46 PZ 72 -1.211
46 PZ 73 -1.211
46 PZ 74 -1.211
46 PZ 75 -0.722
46 PZ 76 -0.234
46 PZ 77 0.743
46 PZ 78 2.207
46 PZ 79 2.696
46 PZ 80 2.207
46 PZ 81 1.719
46 PZ 82 1.231
46 PZ 83 1.719
46 PZ 84 2.696
46 PZ 85 2.696
46 PZ 86 2.696
46 PZ 87 2.696
46 PZ 88 3.184
46 PZ 89 4.161
46 PZ 90 5.137
46 PZ 91 4.649
46 PZ 92 2.696
46 PZ 93 0.743
46 PZ 94 0.254
46 PZ 95 2.207
46 PZ 96 4.161
46 PZ 97 5.137
46 PZ 98 3.672
46 PZ 99 2.207
46 PZ 100 1.231
46 PZ 101 1.231
46 PZ 102 2.207
46 PZ 103 2.207
46 PZ 104 2.207
46 PZ 105 2.207
46 PZ 106 2.207
46 PZ 107 3.184
46 PZ 108 3.184
46 PZ 109 2.696
46 PZ 110 1.231
46 PZ 111 1.231
46 PZ 112 2.207
46 PZ 113 4.161
46 PZ 114 5.137
46 PZ 115 5.625
46 PZ 116 5.137
46 PZ 117 4.649
46 PZ 118 4.161
46 PZ 119 4.649
46 PZ 120 4.161
46 PZ 121 2.696
46 PZ 122 1.231
46 PZ 123 -1.211
46 PZ 124 -2.675
46 PZ 125 -3.164
46 PZ 126 -2.675
46 PZ 127 -1.211
46 PZ 128 -0.234
46 PZ 129 1.231
46 PZ 130 1.231
46 PZ 131 0.254
46 PZ 132 -0.722
46 PZ 133 -2.187
46 PZ 134 -2.187
46 PZ 135 -2.675
46 PZ 136 -3.164
46 PZ 137 -4.140
46 PZ 138 -4.628
46 PZ 139 -4.628
46 PZ 140 -4.140
46 PZ 141 -3.164
46 PZ 142 -2.675
46 PZ 143 -2.675
46 PZ 144 -3.164
46 PZ 145 -3.652
46 PZ 146 -4.140
46 PZ 147 -4.628
46 PZ 148 -5.117
46 PZ 149 -4.628
46 PZ 150 -4.140
46 PZ 151 -3.164
46 PZ 152 -2.187
46 PZ 153 -1.699
46 PZ 154 -2.187
46 PZ 155 -3.164
46 PZ 156 -3.652
46 PZ 157 -3.652
46 PZ 158 -3.164
46 PZ 159 -2.675
46 PZ 160 -1.699
46 PZ 161 -1.211
46 PZ 162 -0.722
46 PZ 163 -0.722
46 PZ 164 -0.234
46 PZ 165 -0.234
46 PZ 166 -0.722
46 PZ 167 -0.722
46 PZ 168 -0.722
46 PZ 169 -1.211
46 PZ 170 -1.699
46 PZ 171 -1.699
46 PZ 172 -1.699
46 PZ 173 -1.699
46 PZ 174 -1.699
46 PZ 175 -2.187
46 PZ 176 -2.187
46 PZ 177 -1.699
46 PZ 178 -1.211
46 PZ 179 -0.722
46 PZ 180 -0.234
46 PZ 181 -0.722
46 PZ 182 -1.211
46 PZ 183 -1.211
46 PZ 184 -0.234
46 PZ 185 0.254
46 PZ 186 -0.234
46 PZ 187 -1.211
46 PZ 188 -3.652
46 PZ 189 -5.605
46 PZ 190 -6.582
46 PZ 191 -7.070
46 PZ 192 -7.070
46 PZ 193 -5.605
46 PZ 194 -4.628
46 PZ 195 -2.187
46 PZ 196 -0.234
46 PZ 197 0.743
46 PZ 198 -0.234
46 PZ 199 -1.699
46 PZ 200 -3.164
46 PZ 201 -4.140
46 PZ 202 -3.652
46 PZ 203 -3.164
46 PZ 204 -4.140
46 PZ 205 -4.628
46 PZ 206 -6.093
46 PZ 207 -7.070
46 PZ 208 -7.070
46 PZ 209 -6.582
46 PZ 210 -6.093
46 PZ 211 -6.093
46 PZ 212 -6.582
46 PZ 213 -7.070
46 PZ 214 -7.558
46 PZ 215 -7.558
46 PZ 216 -7.558
46 PZ 217 -8.046
46 PZ 218 -8.046
46 PZ 219 -8.046
46 PZ 220 -7.558
46 PZ 221 -7.070
46 PZ 222 -7.070
46 PZ 223 -7.070
46 PZ 224 -7.558
46 PZ 225 -8.046
46 PZ 226 -8.046
46 PZ 227 -8.535
46 PZ 228 -8.046
46 PZ 229 -7.070
46 PZ 230 -6.582
46 PZ 231 -5.605
46 PZ 232 -4.628
46 PZ 233 -4.628
46 PZ 234 -4.140
46 PZ 235 -4.628
46 PZ 236 -5.605
46 PZ 237 -6.582
46 PZ 238 -7.070
46 PZ 239 -7.070
46 PZ 240 -6.582
46 PZ 241 -5.605
46 PZ 242 -5.117
46 PZ 243 -5.117
46 PZ 244 -5.117
46 PZ 245 -4.628
46 PZ 246 -2.675
46 PZ 247 -1.211
46 PZ 248 -0.234
46 PZ 249 0.254
46 PZ 250 -0.722
46 PZ 251 -1.211
46 PZ 252 -1.699
46 PZ 253 -1.211
46 PZ 254 -0.234
46 PZ 255 0.743
# P8 chan 25
46 P8 0 -1.872
46 P8 1 -4.313
46 P8 2 -7.243
46 P8 3 -8.708
46 P8 4 -7.731
46 P8 5 -5.778
46 P8 6 -4.313
46 P8 7 -2.848
46 P8 8 -0.895
46 P8 9 1.058
46 P8 10 3.988
46 P8 11 5.941
46 P8 12 6.917
46 P8 13 5.941
46 P8 14 4.476
46 P8 15 3.988
46 P8 16 4.476
46 P8 17 5.452
46 P8 18 4.964
46 P8 19 2.035
46 P8 20 -1.872
46 P8 21 -5.290
46 P8 22 -6.266
46 P8 23 -4.801
46 P8 24 -2.848
46 P8 25 -0.407
46 P8 26 1.546
46 P8 27 3.011
46 P8 28 4.476
46 P8 29 5.452
46 P8 30 4.964
46 P8 31 3.011
46 P8 32 -0.407
46 P8 33 -3.337
46 P8 34 -5.290
46 P8 35 -6.755
46 P8 36 -8.219
46 P8 37 -8.219
46 P8 38 -7.243
46 P8 39 -5.778
46 P8 40 -5.290
46 P8 41 -7.243
46 P8 42 -10.661
46 P8 43 -12.614
46 P8 44 -12.614
46 P8 45 -9.684
46 P8 46 -7.731
46 P8 47 -8.708
46 P8 48 -12.614
46 P8 49 -16.032
46 P8 50 -17.008
46 P8 51 -15.544
46 P8 52 -13.102
46 P8 53 -12.126
46 P8 54 -12.126
46 P8 55 -12.126
46 P8 56 -11.149
46 P8 57 -10.173
46 P8 58 -9.684
46 P8 59 -10.173
46 P8 60 -11.149
46 P8 61 -11.149
46 P8 62 -9.684
46 P8 63 -7.731
46 P8 64 -5.778
46 P8 65 -5.290
46 P8 66 -5.290
46 P8 67 -4.801
46 P8 68 -3.825
46 P8 69 -2.848
46 P8 70 -1.872
46 P8 71 0.081
46 P8 72 1.546
46 P8 73 2.035
46 P8 74 2.035
46 P8 75 1.546
46 P8 76 0.570
46 P8 77 0.570
46 P8 78 2.035
46 P8 79 3.499
46 P8 80 4.476
46 P8 81 3.988
46 P8 82 3.011
46 P8 83 1.546
46 P8 84 1.546
46 P8 85 0.570
46 P8 86 0.570
46 P8 87 1.058
46 P8 88 3.499
46 P8 89 5.941
46 P8 90 7.894
46 P8 91 6.917
46 P8 92 3.499
46 P8 93 1.058
46 P8 94 0.081
46 P8 95 1.058
46 P8 96 3.011
46 P8 97 3.499
46 P8 98 3.499
46 P8 99 3.988
46 P8 100 4.476
46 P8 101 3.988
46 P8 102 0.570
46 P8 103 -2.848
46 P8 104 -4.313
46 P8 105 -3.337
46 P8 106 -0.407
46 P8 107 0.570
46 P8 108 -0.407
46 P8 109 -2.360
46 P8 110 -2.848
46 P8 111 -0.895
46 P8 112 2.035
46 P8 113 3.011
46 P8 114 1.546
46 P8 115 0.081
46 P8 116 0.570
46 P8 117 2.035
46 P8 118 3.499
46 P8 119 2.035
46 P8 120 -0.895
46 P8 121 -3.825
46 P8 122 -5.290
46 P8 123 -5.290
46 P8 124 -4.313
46 P8 125 -2.848
46 P8 126 -1.383
46 P8 127 1.058
46 P8 128 3.499
46 P8 129 4.476
46 P8 130 3.499
46 P8 131 0.570
46 P8 132 -1.383
46 P8 133 -2.848
46 P8 134 -3.825
46 P8 135 -5.778
46 P8 136 -8.708
46 P8 137 -10.173
46 P8 138 -9.196
46 P8 139 -7.243
46 P8 140 -5.290
46 P8 141 -5.778
46 P8 142 -8.219
46 P8 143 -11.149
46 P8 144 -12.126
46 P8 145 -11.149
46 P8 146 -8.219
46 P8 147 -4.313
46 P8 148 -2.360
46 P8 149 -1.383
46 P8 150 -2.848
46 P8 151 -5.778
46 P8 152 -8.219
46 P8 153 -8.708
46 P8 154 -8.219
46 P8 155 -6.755
46 P8 156 -6.755
46 P8 157 -8.219
46 P8 158 -9.684
46 P8 159 -9.196
46 P8 160 -7.731
46 P8 161 -5.290
46 P8 162 -3.825
46 P8 163 -3.825
46 P8 164 -4.313
46 P8 165 -4.313
46 P8 166 -3.825
46 P8 167 -3.825
46 P8 168 -4.313
46 P8 169 -4.801
46 P8 170 -4.801
46 P8 171 -4.313
46 P8 172 -3.337
46 P8 173 -1.872
46 P8 174 -0.895
46 P8 175 0.081
46 P8 176 1.546
46 P8 177 3.011
46 P8 178 2.523
46 P8 179 1.546
46 P8 180 -0.407
46 P8 181 -2.848
46 P8 182 -3.825
46 P8 183 -3.825
46 P8 184 -2.848
46 P8 185 -0.407
46 P8 186 0.570
46 P8 187 0.570
46 P8 188 -0.407
46 P8 189 -1.872
46 P8 190 -3.337
46 P8 191 -5.290
46 P8 192 -6.755
46 P8 193 -7.731
46 P8 194 -6.755
46 P8 195 -3.825
46 P8 196 1.058
46 P8 197 5.941
46 P8 198 7.894
46 P8 199 5.452
46 P8 200 0.081
46 P8 201 -4.801
46 P8 202 -6.755
46 P8 203 -6.755
46 P8 204 -5.778
46 P8 205 -4.801
46 P8 206 -5.778
46 P8 207 -7.243
46 P8 208 -8.219
46 P8 209 -7.731
46 P8 210 -6.266
46 P8 211 -5.778
46 P8 212 -6.266
46 P8 213 -7.731
46 P8 214 -9.196
46 P8 215 -10.173
46 P8 216 -9.684
46 P8 217 -7.731
46 P8 218 -5.290
46 P8 219 -3.337
46 P8 220 -3.337
46 P8 221 -5.778
46 P8 222 -10.173
46 P8 223 -13.590
46 P8 224 -14.079
46 P8 225 -12.126
46 P8 226 -8.708
46 P8 227 -7.243
46 P8 228 -7.731
46 P8 229 -10.173
46 P8 230 -10.661
46 P8 231 -7.731
46 P8 232 -3.337
46 P8 233 -0.407
46 P8 234 -1.872
46 P8 235 -6.266
46 P8 236 -11.637
46 P8 237 -14.079
46 P8 238 -13.590
46 P8 239 -11.637
46 P8 240 -10.661
46 P8 241 -10.661
46 P8 242 -10.173
46 P8 243 -7.731
46 P8 244 -3.337
46 P8 245 0.081
46 P8 246 1.546
46 P8 247 0.570
46 P8 248 -0.895
46 P8 249 -1.872
46 P8 250 -0.895
46 P8 251 -0.407
46 P8 252 -0.895
46 P8 253 -3.337
46 P8 254 -4.801
46 P8 255 -4.801
# P7 chan 26
46 P7 0 8.850
46 P7 1 2.014
46 P7 2 -6.775
46 P7 3 -11.658
46 P7 4 -9.216
46 P7 5 -1.892
46 P7 6 3.967
46 P7 7 4.456
46 P7 8 0.061
46 P7 9 -3.845
46 P7 10 -5.310
46 P7 11 -3.845
46 P7 12 -0.916
46 P7 13 2.502
46 P7 14 6.409
46 P7 15 10.803
46 P7 16 14.221
46 P7 17 13.245
46 P7 18 9.338
46 P7 19 4.456
46 P7 20 1.526
46 P7 21 1.038
46 P7 22 1.526
46 P7 23 1.038
46 P7 24 -0.427
46 P7 25 0.061
46 P7 26 2.502
46 P7 27 5.432
46 P7 28 5.432
46 P7 29 1.038
46 P7 30 -6.287
46 P7 31 -12.146
46 P7 32 -13.123
46 P7 33 -9.216
46 P7 34 -3.357
46 P7 35 1.038
46 P7 36 2.991
46 P7 37 2.991
46 P7 38 1.526
46 P7 39 -0.916
46 P7 40 -4.822
46 P7 41 -9.705
46 P7 42 -13.611
46 P7 43 -15.564
46 P7 44 -14.587
46 P7 45 -12.146
46 P7 46 -9.216
46 P7 47 -8.728
46 P7 48 -9.705
46 P7 49 -11.658
46 P7 50 -14.099
46 P7 51 -16.541
46 P7 52 -18.005
46 P7 53 -17.029
46 P7 54 -14.099
46 P7 55 -10.681
46 P7 56 -8.240
46 P7 57 -6.775
46 P7 58 -7.263
46 P7 59 -8.728
46 P7 60 -9.705
46 P7 61 -10.681
46 P7 62 -11.658
46 P7 63 -11.658
46 P7 64 -11.169
46 P7 65 -10.193
46 P7 66 -7.263
46 P7 67 -4.822
46 P7 68 -2.380
46 P7 69 -2.380
46 P7 70 -3.845
46 P7 71 -6.775
46 P7 72 -9.216
46 P7 73 -9.216
46 P7 74 -7.263
46 P7 75 -4.333
46 P7 76 -0.427
46 P7 77 2.014
46 P7 78 2.502
46 P7 79 1.526
46 P7 80 -0.427
46 P7 81 -2.380
46 P7 82 -3.357
46 P7 83 -3.357
46 P7 84 -3.357
46 P7 85 -3.845
46 P7 86 -4.822
46 P7 87 -5.310
46 P7 88 -3.845
46 P7 89 0.061
46 P7 90 3.479
46 P7 91 3.967
46 P7 92 0.549
46 P7 93 -3.357
46 P7 94 -3.845
46 P7 95 -0.916
46 P7 96 3.967
46 P7 97 6.409
46 P7 98 4.456
46 P7 99 0.061
46 P7 100 -3.357
46 P7 101 -3.845
46 P7 102 -2.380
46 P7 103 -0.916
46 P7 104 -0.916
46 P7 105 -1.404
46 P7 106 -0.916
46 P7 107 1.526
46 P7 108 2.502
46 P7 109 2.991
46 P7 110 2.014
46 P7 111 1.526
46 P7 112 2.502
46 P7 113 4.456
46 P7 114 4.456
46 P7 115 1.038
46 P7 116 -4.333
46 P7 117 -7.751
46 P7 118 -8.240
46 P7 119 -4.822
46 P7 120 -0.916
46 P7 121 1.038
46 P7 122 0.061
46 P7 123 -1.404
46 P7 124 -2.869
46 P7 125 -3.845
46 P7 126 -5.310
46 P7 127 -7.751
46 P7 128 -9.705
46 P7 129 -8.728
46 P7 130 -5.798
46 P7 131 -3.357
46 P7 132 -4.333
46 P7 133 -7.751
46 P7 134 -11.658
46 P7 135 -12.634
46 P7 136 -10.193
46 P7 137 -7.263
46 P7 138 -6.287
46 P7 139 -7.263
46 P7 140 -8.728
46 P7 141 -8.728
46 P7 142 -8.240
46 P7 143 -7.263
46 P7 144 -7.263
46 P7 145 -8.240
46 P7 146 -10.193
46 P7 147 -13.123
46 P7 148 -15.564
46 P7 149 -16.052
46 P7 150 -14.099
46 P7 151 -10.681
46 P7 152 -7.751
46 P7 153 -7.263
46 P7 154 -9.216
46 P7 155 -12.634
46 P7 156 -14.587
46 P7 157 -14.099
46 P7 158 -11.169
46 P7 159 -8.240
46 P7 160 -7.263
46 P7 161 -7.263
46 P7 162 -7.263
46 P7 163 -6.287
46 P7 164 -3.845
46 P7 165 -2.380
46 P7 166 -2.869
46 P7 167 -5.310
46 P7 168 -8.240
46 P7 169 -9.216
46 P7 170 -7.751
46 P7 171 -4.333
46 P7 172 -0.916
46 P7 173 -0.427
46 P7 174 -2.869
46 P7 175 -5.310
46 P7 176 -4.822
46 P7 177 -1.892
46 P7 178 1.526
46 P7 179 1.526
46 P7 180 -1.404
46 P7 181 -6.287
46 P7 182 -8.728
46 P7 183 -7.263
46 P7 184 -2.869
46 P7 185 1.038
46 P7 186 2.014
46 P7 187 -0.427
46 P7 188 -3.845
46 P7 189 -6.775
46 P7 190 -6.775
46 P7 191 -5.310
46 P7 192 -3.845
46 P7 193 -1.404
46 P7 194 0.549
46 P7 195 3.479
46 P7 196 6.897
46 P7 197 7.874
46 P7 198 6.409
46 P7 199 2.014
46 P7 200 -2.869
46 P7 201 -5.798
46 P7 202 -5.798
46 P7 203 -4.822
46 P7 204 -4.822
46 P7 205 -7.263
46 P7 206 -11.169
46 P7 207 -13.123
46 P7 208 -13.123
46 P7 209 -11.169
46 P7 210 -9.216
46 P7 211 -9.705
46 P7 212 -11.169
46 P7 213 -12.146
46 P7 214 -11.169
46 P7 215 -8.728
46 P7 216 -7.263
46 P7 217 -8.240
46 P7 218 -11.169
46 P7 219 -14.099
46 P7 220 -15.076
46 P7 221 -13.123
46 P7 222 -10.681
46 P7 223 -9.216
46 P7 224 -11.169
46 P7 225 -13.611
46 P7 226 -15.076
46 P7 227 -13.611
46 P7 228 -9.705
46 P7 229 -5.798
46 P7 230 -3.357
46 P7 231 -2.380
46 P7 232 -2.380
46 P7 233 -2.380
46 P7 234 -2.869
46 P7 235 -4.822
46 P7 236 -8.728
46 P7 237 -13.123
46 P7 238 -16.541
46 P7 239 -16.541
46 P7 240 -14.099
46 P7 241 -10.193
46 P7 242 -7.263
46 P7 243 -5.798
46 P7 244 -3.845
46 P7 245 -2.380
46 P7 246 -2.380
46 P7 247 -3.845
46 P7 248 -6.775
46 P7 249 -8.240
46 P7 250 -7.751
46 P7 251 -4.822
46 P7 252 -2.869
46 P7 253 -2.869
46 P7 254 -5.310
46 P7 255 -8.240
# PO2 chan 27
46 PO2 0 3.916
46 PO2 1 0.987
46 PO2 2 -2.431
46 PO2 3 -4.384
46 PO2 4 -4.384
46 PO2 5 -2.431
46 PO2 6 -0.478
46 PO2 7 0.498
46 PO2 8 0.987
46 PO2 9 0.498
46 PO2 10 0.987
46 PO2 11 1.963
46 PO2 12 3.428
46 PO2 13 6.358
46 PO2 14 8.799
46 PO2 15 11.729
46 PO2 16 13.682
46 PO2 17 13.194
46 PO2 18 10.752
46 PO2 19 6.846
46 PO2 20 3.428
46 PO2 21 0.987
46 PO2 22 0.010
46 PO2 23 0.010
46 PO2 24 -0.478
46 PO2 25 -0.478
46 PO2 26 0.010
46 PO2 27 1.475
46 PO2 28 2.940
46 PO2 29 2.940
46 PO2 30 0.987
46 PO2 31 -2.431
46 PO2 32 -5.361
46 PO2 33 -6.337
46 PO2 34 -5.849
46 PO2 35 -4.873
46 PO2 36 -4.384
46 PO2 37 -4.873
46 PO2 38 -5.361
46 PO2 39 -5.849
46 PO2 40 -6.337
46 PO2 41 -7.802
46 PO2 42 -9.755
46 PO2 43 -11.709
46 PO2 44 -11.709
46 PO2 45 -9.755
46 PO2 46 -7.802
46 PO2 47 -7.314
46 PO2 48 -9.755
46 PO2 49 -13.173
46 PO2 50 -15.127
46 PO2 51 -14.150
46 PO2 52 -11.709
46 PO2 53 -8.779
46 PO2 54 -7.314
46 PO2 55 -6.826
46 PO2 56 -6.337
46 PO2 57 -5.849
46 PO2 58 -4.384
46 PO2 59 -4.384
46 PO2 60 -5.849
46 PO2 61 -7.314
46 PO2 62 -7.802
46 PO2 63 -7.314
46 PO2 64 -6.337
46 PO2 65 -4.873
46 PO2 66 -3.896
46 PO2 67 -2.920
46 PO2 68 -2.431
46 PO2 69 -1.943
46 PO2 70 -1.943
46 PO2 71 -1.943
46 PO2 72 -2.431
46 PO2 73 -2.431
46 PO2 74 -1.943
46 PO2 75 -0.966
46 PO2 76 0.498
46 PO2 77 1.475
46 PO2 78 1.963
46 PO2 79 0.987
46 PO2 80 0.498
46 PO2 81 0.010
46 PO2 82 -0.478
46 PO2 83 0.498
46 PO2 84 0.987
46 PO2 85 1.475
46 PO2 86 1.475
46 PO2 87 1.963
46 PO2 88 3.428
46 PO2 89 5.381
46 PO2 90 5.870
46 PO2 91 4.405
46 PO2 92 1.475
46 PO2 93 -1.455
46 PO2 94 -1.455
46 PO2 95 0.987
46 PO2 96 3.916
46 PO2 97 4.893
46 PO2 98 3.428
46 PO2 99 1.475
46 PO2 100 0.987
46 PO2 101 1.475
46 PO2 102 1.963
46 PO2 103 1.475
46 PO2 104 0.498
46 PO2 105 -0.478
46 PO2 106 0.010
46 PO2 107 0.987
46 PO2 108 1.475
46 PO2 109 0.498
46 PO2 110 -0.478
46 PO2 111 -0.966
46 PO2 112 0.010
46 PO2 113 1.963
46 PO2 114 2.940
46 PO2 115 2.940
46 PO2 116 2.940
46 PO2 117 2.452
46 PO2 118 2.452
46 PO2 119 2.452
46 PO2 120 1.475
46 PO2 121 -0.478
46 PO2 122 -2.431
46 PO2 123 -4.384
46 PO2 124 -5.361
46 PO2 125 -5.361
46 PO2 126 -3.896
46 PO2 127 -2.431
46 PO2 128 -0.478
46 PO2 129 0.498
46 PO2 130 0.010
46 PO2 131 -0.966
46 PO2 132 -1.943
46 PO2 133 -2.920
46 PO2 134 -3.896
46 PO2 135 -4.873
46 PO2 136 -6.337
46 PO2 137 -7.314
46 PO2 138 -7.802
46 PO2 139 -7.802
46 PO2 140 -7.802
46 PO2 141 -7.802
46 PO2 142 -8.291
46 PO2 143 -8.779
46 PO2 144 -8.779
46 PO2 145 -8.291
46 PO2 146 -7.802
46 PO2 147 -8.291
46 PO2 148 -8.291
46 PO2 149 -8.291
46 PO2 150 -7.314
46 PO2 151 -6.826
46 PO2 152 -6.337
46 PO2 153 -5.849
46 PO2 154 -5.849
46 PO2 155 -6.826
46 PO2 156 -7.802
46 PO2 157 -8.291
46 PO2 158 -8.291
46 PO2 159 -7.314
46 PO2 160 -6.337
46 PO2 161 -4.873
46 PO2 162 -3.896
46 PO2 163 -3.896
46 PO2 164 -3.896
46 PO2 165 -3.896
46 PO2 166 -3.408
46 PO2 167 -3.408
46 PO2 168 -3.408
46 PO2 169 -3.896
46 PO2 170 -4.384
46 PO2 171 -4.384
46 PO2 172 -3.896
46 PO2 173 -3.896
46 PO2 174 -3.896
46 PO2 175 -3.896
46 PO2 176 -3.896
46 PO2 177 -2.431
46 PO2 178 -1.455
46 PO2 179 -0.478
46 PO2 180 -0.966
46 PO2 181 -2.431
46 PO2 182 -3.408
46 PO2 183 -3.408
46 PO2 184 -2.431
46 PO2 185 -1.455
46 PO2 186 -0.966
46 PO2 187 -2.431
46 PO2 188 -4.384
46 PO2 189 -6.337
46 PO2 190 -6.826
46 PO2 191 -7.802
46 PO2 192 -8.291
46 PO2 193 -7.802
46 PO2 194 -5.849
46 PO2 195 -1.455
46 PO2 196 2.940
46 PO2 197 5.381
46 PO2 198 4.405
46 PO2 199 0.498
46 PO2 200 -3.408
46 PO2 201 -5.849
46 PO2 202 -5.849
46 PO2 203 -4.873
46 PO2 204 -4.873
46 PO2 205 -6.826
46 PO2 206 -9.267
46 PO2 207 -10.244
46 PO2 208 -9.755
46 PO2 209 -8.779
46 PO2 210 -8.779
46 PO2 211 -9.755
46 PO2 212 -11.220
46 PO2 213 -12.197
46 PO2 214 -11.709
46 PO2 215 -11.220
46 PO2 216 -10.244
46 PO2 217 -9.755
46 PO2 218 -9.755
