# co2a0000418.rd
# 120 trials, 64 chans, 416 samples 368 post_stim samples
# 3.906000 msecs uV
# S2 nomatch, trial 115
# FP1 chan 0
115 FP1 0 3.296
115 FP1 1 2.319
115 FP1 2 2.808
115 FP1 3 3.296
115 FP1 4 3.296
115 FP1 5 2.319
115 FP1 6 0.854
115 FP1 7 -0.122
115 FP1 8 1.343
115 FP1 9 3.784
115 FP1 10 6.714
115 FP1 11 7.690
115 FP1 12 5.737
115 FP1 13 2.319
115 FP1 14 -0.122
115 FP1 15 -0.122
115 FP1 16 2.808
115 FP1 17 6.226
115 FP1 18 9.155
115 FP1 19 9.644
115 FP1 20 8.179
115 FP1 21 6.226
115 FP1 22 4.761
115 FP1 23 3.296
115 FP1 24 1.343
115 FP1 25 -2.075
115 FP1 26 -5.981
115 FP1 27 -7.935
115 FP1 28 -5.981
115 FP1 29 -0.610
115 FP1 30 6.226
115 FP1 31 9.644
115 FP1 32 8.667
115 FP1 33 4.272
115 FP1 34 -0.122
115 FP1 35 -1.587
115 FP1 36 -0.122
115 FP1 37 2.808
115 FP1 38 5.737
115 FP1 39 7.202
115 FP1 40 7.690
115 FP1 41 8.179
115 FP1 42 8.179
115 FP1 43 7.690
115 FP1 44 6.226
115 FP1 45 6.226
115 FP1 46 8.179
115 FP1 47 12.573
115 FP1 48 17.456
115 FP1 49 19.897
115 FP1 50 18.921
115 FP1 51 15.503
115 FP1 52 12.573
115 FP1 53 11.597
115 FP1 54 13.550
115 FP1 55 15.991
115 FP1 56 16.968
115 FP1 57 15.503
115 FP1 58 13.062
115 FP1 59 12.085
115 FP1 60 13.062
115 FP1 61 15.015
115 FP1 62 15.991
115 FP1 63 15.015
115 FP1 64 12.573
115 FP1 65 9.644
115 FP1 66 9.155
115 FP1 67 10.620
115 FP1 68 13.550
115 FP1 69 15.503
115 FP1 70 15.015
115 FP1 71 13.062
115 FP1 72 11.108
115 FP1 73 10.620
115 FP1 74 10.620
115 FP1 75 9.644
115 FP1 76 6.714
115 FP1 77 1.831
115 FP1 78 -2.075
115 FP1 79 -2.075
115 FP1 80 1.831
115 FP1 81 8.179
115 FP1 82 12.573
115 FP1 83 13.062
115 FP1 84 10.620
115 FP1 85 7.690
115 FP1 86 5.737
115 FP1 87 5.737
115 FP1 88 6.714
115 FP1 89 6.714
115 FP1 90 6.226
115 FP1 91 4.761
115 FP1 92 3.784
115 FP1 93 3.784
115 FP1 94 4.761
115 FP1 95 4.761
115 FP1 96 4.761
115 FP1 97 3.784
115 FP1 98 2.808
115 FP1 99 2.808
115 FP1 100 3.784
115 FP1 101 5.249
115 FP1 102 6.226
115 FP1 103 7.202
115 FP1 104 6.714
115 FP1 105 5.737
115 FP1 106 5.737
115 FP1 107 5.737
115 FP1 108 5.737
115 FP1 109 5.249
115 FP1 110 3.296
115 FP1 111 0.854
115 FP1 112 -0.610
115 FP1 113 -0.122
115 FP1 114 1.831
115 FP1 115 4.272
115 FP1 116 5.249
115 FP1 117 4.761
115 FP1 118 3.784
115 FP1 119 3.784
115 FP1 120 5.737
115 FP1 121 7.690
115 FP1 122 9.155
115 FP1 123 8.179
115 FP1 124 6.226
115 FP1 125 5.737
115 FP1 126 7.202
115 FP1 127 9.155
115 FP1 128 10.132
115 FP1 129 8.179
115 FP1 130 5.737
115 FP1 131 5.249
115 FP1 132 8.179
115 FP1 133 14.038
115 FP1 134 19.409
115 FP1 135 20.386
115 FP1 136 16.479
115 FP1 137 10.132
115 FP1 138 5.249
115 FP1 139 4.272
115 FP1 140 5.737
115 FP1 141 7.690
115 FP1 142 7.202
115 FP1 143 4.761
115 FP1 144 1.343
115 FP1 145 -1.099
115 FP1 146 -1.099
115 FP1 147 -0.610
115 FP1 148 0.366
115 FP1 149 0.366
115 FP1 150 -1.587
115 FP1 151 -3.540
115 FP1 152 -5.493
115 FP1 153 -5.981
115 FP1 154 -5.005
115 FP1 155 -4.028
115 FP1 156 -2.563
115 FP1 157 -2.075
115 FP1 158 -4.028
115 FP1 159 -7.935
115 FP1 160 -11.841
115 FP1 161 -14.771
115 FP1 162 -14.771
115 FP1 163 -12.817
115 FP1 164 -10.376
115 FP1 165 -9.399
115 FP1 166 -9.399
115 FP1 167 -10.864
115 FP1 168 -11.841
115 FP1 169 -11.841
115 FP1 170 -10.376
115 FP1 171 -9.399
115 FP1 172 -8.423
115 FP1 173 -9.399
115 FP1 174 -10.864
115 FP1 175 -11.841
115 FP1 176 -11.841
115 FP1 177 -11.353
115 FP1 178 -10.376
115 FP1 179 -10.376
115 FP1 180 -10.864
115 FP1 181 -10.864
115 FP1 182 -10.376
115 FP1 183 -9.888
115 FP1 184 -9.888
115 FP1 185 -10.864
115 FP1 186 -12.817
115 FP1 187 -14.771
115 FP1 188 -15.259
115 FP1 189 -14.282
115 FP1 190 -12.329
115 FP1 191 -10.864
115 FP1 192 -9.888
115 FP1 193 -8.911
115 FP1 194 -7.935
115 FP1 195 -6.470
115 FP1 196 -5.493
115 FP1 197 -5.981
115 FP1 198 -6.958
115 FP1 199 -7.446
115 FP1 200 -6.470
115 FP1 201 -4.028
115 FP1 202 -2.075
115 FP1 203 -2.075
115 FP1 204 -4.028
115 FP1 205 -6.958
115 FP1 206 -8.911
115 FP1 207 -8.423
115 FP1 208 -6.470
115 FP1 209 -5.005
115 FP1 210 -4.517
115 FP1 211 -5.493
115 FP1 212 -5.493
115 FP1 213 -5.005
115 FP1 214 -3.540
115 FP1 215 -2.075
115 FP1 216 -1.099
115 FP1 217 -0.122
115 FP1 218 1.831
115 FP1 219 4.761
115 FP1 220 8.179
115 FP1 221 11.108
115 FP1 222 13.062
115 FP1 223 14.526
115 FP1 224 16.968
115 FP1 225 21.362
115 FP1 226 28.687
115 FP1 227 36.987
115 FP1 228 45.288
115 FP1 229 51.147
115 FP1 230 54.565
115 FP1 231 55.542
115 FP1 232 56.519
115 FP1 233 57.495
115 FP1 234 58.960
115 FP1 235 60.425
115 FP1 236 60.913
115 FP1 237 61.401
115 FP1 238 60.913
115 FP1 239 60.425
115 FP1 240 58.960
115 FP1 241 56.030
115 FP1 242 52.124
115 FP1 243 47.729
115 FP1 244 44.312
115 FP1 245 41.870
115 FP1 246 40.405
115 FP1 247 37.476
115 FP1 248 32.104
115 FP1 249 24.780
115 FP1 250 17.944
115 FP1 251 13.062
115 FP1 252 12.573
115 FP1 253 15.015
115 FP1 254 18.921
115 FP1 255 21.362
# FP2 chan 1
115 FP2 0 8.280
115 FP2 1 10.722
115 FP2 2 11.210
115 FP2 3 8.769
115 FP2 4 4.374
115 FP2 5 1.444
115 FP2 6 0.956
115 FP2 7 2.909
115 FP2 8 5.839
115 FP2 9 6.816
115 FP2 10 5.839
115 FP2 11 3.886
115 FP2 12 2.909
115 FP2 13 4.374
115 FP2 14 7.304
115 FP2 15 9.745
115 FP2 16 10.722
115 FP2 17 10.234
115 FP2 18 9.745
115 FP2 19 11.210
115 FP2 20 13.163
115 FP2 21 13.652
115 FP2 22 10.722
115 FP2 23 5.839
115 FP2 24 0.468
115 FP2 25 -2.950
115 FP2 26 -3.438
115 FP2 27 -1.485
115 FP2 28 0.956
115 FP2 29 3.886
115 FP2 30 6.816
115 FP2 31 9.257
115 FP2 32 10.234
115 FP2 33 8.280
115 FP2 34 4.374
115 FP2 35 0.956
115 FP2 36 0.956
115 FP2 37 3.886
115 FP2 38 8.280
115 FP2 39 9.745
115 FP2 40 7.792
115 FP2 41 4.374
115 FP2 42 2.421
115 FP2 43 3.398
115 FP2 44 6.816
115 FP2 45 9.257
115 FP2 46 8.769
115 FP2 47 7.304
115 FP2 48 6.327
115 FP2 49 7.792
115 FP2 50 10.234
115 FP2 51 12.675
115 FP2 52 12.675
115 FP2 53 11.210
115 FP2 54 9.745
115 FP2 55 10.234
115 FP2 56 11.210
115 FP2 57 12.187
115 FP2 58 12.187
115 FP2 59 11.698
115 FP2 60 11.210
115 FP2 61 11.698
115 FP2 62 13.652
115 FP2 63 15.116
115 FP2 64 15.116
115 FP2 65 13.652
115 FP2 66 10.722
115 FP2 67 8.769
115 FP2 68 7.792
115 FP2 69 7.792
115 FP2 70 9.257
115 FP2 71 11.210
115 FP2 72 12.675
115 FP2 73 13.163
115 FP2 74 11.698
115 FP2 75 7.792
115 FP2 76 2.909
115 FP2 77 -1.973
115 FP2 78 -3.927
115 FP2 79 -2.462
115 FP2 80 1.444
115 FP2 81 5.351
115 FP2 82 7.304
115 FP2 83 6.327
115 FP2 84 4.374
115 FP2 85 2.421
115 FP2 86 1.933
115 FP2 87 3.398
115 FP2 88 4.862
115 FP2 89 5.839
115 FP2 90 5.839
115 FP2 91 4.862
115 FP2 92 3.398
115 FP2 93 1.933
115 FP2 94 0.468
115 FP2 95 -0.997
115 FP2 96 -2.462
115 FP2 97 -2.950
115 FP2 98 -2.950
115 FP2 99 -0.997
115 FP2 100 2.421
115 FP2 101 5.839
115 FP2 102 9.257
115 FP2 103 10.234
115 FP2 104 9.257
115 FP2 105 6.816
115 FP2 106 4.374
115 FP2 107 2.421
115 FP2 108 -0.020
115 FP2 109 -2.462
115 FP2 110 -5.391
115 FP2 111 -6.368
115 FP2 112 -4.415
115 FP2 113 -0.509
115 FP2 114 3.398
115 FP2 115 4.862
115 FP2 116 3.398
115 FP2 117 1.444
115 FP2 118 1.444
115 FP2 119 3.886
115 FP2 120 7.304
115 FP2 121 8.769
115 FP2 122 7.792
115 FP2 123 5.839
115 FP2 124 4.862
115 FP2 125 6.816
115 FP2 126 11.210
115 FP2 127 13.652
115 FP2 128 12.187
115 FP2 129 7.304
115 FP2 130 2.909
115 FP2 131 2.421
115 FP2 132 6.816
115 FP2 133 13.652
115 FP2 134 17.069
115 FP2 135 15.605
115 FP2 136 9.745
115 FP2 137 3.886
115 FP2 138 1.444
115 FP2 139 2.421
115 FP2 140 5.839
115 FP2 141 7.792
115 FP2 142 7.304
115 FP2 143 5.351
115 FP2 144 3.398
115 FP2 145 1.933
115 FP2 146 0.956
115 FP2 147 -0.020
115 FP2 148 -1.485
115 FP2 149 -2.950
115 FP2 150 -3.927
115 FP2 151 -4.903
115 FP2 152 -5.880
115 FP2 153 -7.345
115 FP2 154 -8.809
115 FP2 155 -9.298
115 FP2 156 -8.809
115 FP2 157 -6.856
115 FP2 158 -5.880
115 FP2 159 -7.345
115 FP2 160 -11.251
115 FP2 161 -16.134
115 FP2 162 -18.087
115 FP2 163 -17.110
115 FP2 164 -13.692
115 FP2 165 -10.763
115 FP2 166 -11.251
115 FP2 167 -14.669
115 FP2 168 -19.063
115 FP2 169 -21.016
115 FP2 170 -19.063
115 FP2 171 -15.157
115 FP2 172 -11.739
115 FP2 173 -12.227
115 FP2 174 -15.645
115 FP2 175 -19.063
115 FP2 176 -20.040
115 FP2 177 -18.087
115 FP2 178 -14.669
115 FP2 179 -12.716
115 FP2 180 -13.204
115 FP2 181 -14.669
115 FP2 182 -15.645
115 FP2 183 -15.157
115 FP2 184 -14.669
115 FP2 185 -14.669
115 FP2 186 -16.134
115 FP2 187 -17.598
115 FP2 188 -17.598
115 FP2 189 -15.645
115 FP2 190 -12.716
115 FP2 191 -10.274
115 FP2 192 -9.298
115 FP2 193 -10.274
115 FP2 194 -11.739
115 FP2 195 -12.716
115 FP2 196 -13.204
115 FP2 197 -12.227
115 FP2 198 -11.251
115 FP2 199 -9.786
115 FP2 200 -8.809
115 FP2 201 -7.833
115 FP2 202 -6.368
115 FP2 203 -4.903
115 FP2 204 -4.903
115 FP2 205 -5.880
115 FP2 206 -8.809
115 FP2 207 -11.739
115 FP2 208 -13.204
115 FP2 209 -11.739
115 FP2 210 -7.833
115 FP2 211 -3.927
115 FP2 212 -2.462
115 FP2 213 -4.415
115 FP2 214 -7.345
115 FP2 215 -9.786
115 FP2 216 -8.809
115 FP2 217 -4.903
115 FP2 218 0.468
115 FP2 219 3.886
115 FP2 220 6.327
115 FP2 221 7.304
115 FP2 222 8.769
115 FP2 223 11.698
115 FP2 224 16.093
115 FP2 225 21.464
115 FP2 226 27.812
115 FP2 227 34.159
115 FP2 228 40.019
115 FP2 229 44.902
115 FP2 230 47.343
115 FP2 231 47.831
115 FP2 232 47.831
115 FP2 233 48.808
115 FP2 234 51.737
115 FP2 235 56.132
115 FP2 236 61.015
115 FP2 237 62.968
115 FP2 238 61.503
115 FP2 239 57.109
115 FP2 240 51.249
115 FP2 241 47.343
115 FP2 242 45.390
115 FP2 243 45.878
115 FP2 244 45.878
115 FP2 245 44.902
115 FP2 246 40.507
115 FP2 247 34.159
115 FP2 248 26.835
115 FP2 249 20.487
115 FP2 250 16.093
115 FP2 251 14.628
115 FP2 252 16.093
115 FP2 253 18.534
115 FP2 254 20.976
115 FP2 255 21.464
# F7 chan 2
115 F7 0 3.489
115 F7 1 2.024
115 F7 2 1.048
115 F7 3 0.559
115 F7 4 0.071
115 F7 5 -0.905
115 F7 6 -0.417
115 F7 7 0.559
115 F7 8 3.977
115 F7 9 7.395
115 F7 10 9.837
115 F7 11 9.349
115 F7 12 6.907
115 F7 13 3.977
115 F7 14 2.024
115 F7 15 2.024
115 F7 16 2.513
115 F7 17 2.513
115 F7 18 1.536
115 F7 19 0.071
115 F7 20 -1.394
115 F7 21 -1.882
115 F7 22 -1.882
115 F7 23 -2.370
115 F7 24 -3.835
115 F7 25 -5.788
115 F7 26 -7.253
115 F7 27 -7.253
115 F7 28 -5.788
115 F7 29 -3.347
115 F7 30 -0.905
115 F7 31 1.536
115 F7 32 3.001
115 F7 33 4.466
115 F7 34 6.419
115 F7 35 8.372
115 F7 36 9.837
115 F7 37 10.813
115 F7 38 10.813
115 F7 39 10.325
115 F7 40 8.860
115 F7 41 8.372
115 F7 42 7.884
115 F7 43 8.372
115 F7 44 8.860
115 F7 45 10.325
115 F7 46 12.278
115 F7 47 13.743
115 F7 48 14.720
115 F7 49 14.231
115 F7 50 13.255
115 F7 51 11.790
115 F7 52 10.325
115 F7 53 9.837
115 F7 54 9.349
115 F7 55 9.837
115 F7 56 10.325
115 F7 57 10.325
115 F7 58 9.349
115 F7 59 7.884
115 F7 60 6.907
115 F7 61 5.931
115 F7 62 6.419
115 F7 63 6.907
115 F7 64 7.395
115 F7 65 7.884
115 F7 66 6.907
115 F7 67 6.907
115 F7 68 6.419
115 F7 69 5.931
115 F7 70 4.954
115 F7 71 3.977
115 F7 72 3.489
115 F7 73 3.001
115 F7 74 3.001
115 F7 75 2.024
115 F7 76 -0.417
115 F7 77 -1.882
115 F7 78 -2.370
115 F7 79 -0.905
115 F7 80 2.513
115 F7 81 5.931
115 F7 82 7.884
115 F7 83 8.372
115 F7 84 8.372
115 F7 85 7.884
115 F7 86 8.372
115 F7 87 7.884
115 F7 88 6.419
115 F7 89 3.489
115 F7 90 1.048
115 F7 91 -0.417
115 F7 92 0.071
115 F7 93 0.559
115 F7 94 0.559
115 F7 95 -0.417
115 F7 96 -2.370
115 F7 97 -3.347
115 F7 98 -2.858
115 F7 99 -1.882
115 F7 100 -0.905
115 F7 101 -1.394
115 F7 102 -2.858
115 F7 103 -3.347
115 F7 104 -3.347
115 F7 105 -1.394
115 F7 106 0.071
115 F7 107 1.048
115 F7 108 0.559
115 F7 109 -1.394
115 F7 110 -3.347
115 F7 111 -4.812
115 F7 112 -4.323
115 F7 113 -2.858
115 F7 114 -1.394
115 F7 115 -0.905
115 F7 116 -2.370
115 F7 117 -3.835
115 F7 118 -4.812
115 F7 119 -2.370
115 F7 120 3.001
115 F7 121 8.372
115 F7 122 12.767
115 F7 123 13.743
115 F7 124 12.278
115 F7 125 10.813
115 F7 126 8.860
115 F7 127 6.907
115 F7 128 3.489
115 F7 129 -0.905
115 F7 130 -3.347
115 F7 131 -2.858
115 F7 132 2.024
115 F7 133 8.372
115 F7 134 13.255
115 F7 135 14.720
115 F7 136 13.255
115 F7 137 9.837
115 F7 138 6.907
115 F7 139 4.954
115 F7 140 3.489
115 F7 141 1.048
115 F7 142 -1.882
115 F7 143 -3.835
115 F7 144 -4.323
115 F7 145 -2.858
115 F7 146 -0.417
115 F7 147 1.048
115 F7 148 0.071
115 F7 149 -2.370
115 F7 150 -5.788
115 F7 151 -8.718
115 F7 152 -9.206
115 F7 153 -7.741
115 F7 154 -5.300
115 F7 155 -2.858
115 F7 156 -1.394
115 F7 157 -1.882
115 F7 158 -3.835
115 F7 159 -6.276
115 F7 160 -8.230
115 F7 161 -9.694
115 F7 162 -10.183
115 F7 163 -10.671
115 F7 164 -10.671
115 F7 165 -11.159
115 F7 166 -10.671
115 F7 167 -9.694
115 F7 168 -7.741
115 F7 169 -5.300
115 F7 170 -4.323
115 F7 171 -5.788
115 F7 172 -7.741
115 F7 173 -9.694
115 F7 174 -10.183
115 F7 175 -9.694
115 F7 176 -8.230
115 F7 177 -6.765
115 F7 178 -4.812
115 F7 179 -2.370
115 F7 180 0.071
115 F7 181 1.536
115 F7 182 1.048
115 F7 183 -1.882
115 F7 184 -5.788
115 F7 185 -9.206
115 F7 186 -10.671
115 F7 187 -10.671
115 F7 188 -9.694
115 F7 189 -9.206
115 F7 190 -8.230
115 F7 191 -6.765
115 F7 192 -4.323
115 F7 193 -2.370
115 F7 194 -0.905
115 F7 195 0.559
115 F7 196 0.071
115 F7 197 -1.394
115 F7 198 -3.347
115 F7 199 -5.300
115 F7 200 -6.276
115 F7 201 -4.812
115 F7 202 -1.882
115 F7 203 1.048
115 F7 204 2.024
115 F7 205 1.048
115 F7 206 -1.882
115 F7 207 -4.323
115 F7 208 -4.812
115 F7 209 -2.858
115 F7 210 -0.905
115 F7 211 0.559
115 F7 212 0.071
115 F7 213 -0.905
115 F7 214 -1.882
115 F7 215 -1.394
115 F7 216 0.071
115 F7 217 1.536
115 F7 218 2.513
115 F7 219 3.489
115 F7 220 3.977
115 F7 221 4.466
115 F7 222 5.442
115 F7 223 6.419
115 F7 224 6.907
115 F7 225 7.884
115 F7 226 10.325
115 F7 227 13.743
115 F7 228 17.649
115 F7 229 20.091
115 F7 230 21.067
115 F7 231 20.579
115 F7 232 19.114
115 F7 233 18.138
115 F7 234 18.626
115 F7 235 19.602
115 F7 236 21.067
115 F7 237 22.532
115 F7 238 23.020
115 F7 239 23.020
115 F7 240 22.532
115 F7 241 21.556
115 F7 242 20.091
115 F7 243 18.138
115 F7 244 16.184
115 F7 245 14.231
115 F7 246 12.278
115 F7 247 9.837
115 F7 248 6.419
115 F7 249 2.513
115 F7 250 -0.417
115 F7 251 -1.882
115 F7 252 -1.394
115 F7 253 0.559
115 F7 254 2.513
115 F7 255 3.489
# F8 chan 3
115 F8 0 4.618
115 F8 1 7.060
115 F8 2 9.013
115 F8 3 9.501
115 F8 4 7.060
115 F8 5 4.130
115 F8 6 1.689
115 F8 7 0.712
115 F8 8 0.712
115 F8 9 0.224
115 F8 10 -0.264
115 F8 11 -1.241
115 F8 12 -1.241
115 F8 13 0.224
115 F8 14 2.665
115 F8 15 5.595
115 F8 16 8.036
115 F8 17 9.013
115 F8 18 8.525
115 F8 19 6.571
115 F8 20 4.618
115 F8 21 3.153
115 F8 22 3.642
115 F8 23 5.107
115 F8 24 6.083
115 F8 25 5.595
115 F8 26 3.642
115 F8 27 1.200
115 F8 28 -0.264
115 F8 29 0.224
115 F8 30 2.665
115 F8 31 4.618
115 F8 32 4.130
115 F8 33 1.689
115 F8 34 -0.264
115 F8 35 -0.264
115 F8 36 2.177
115 F8 37 5.595
115 F8 38 7.548
115 F8 39 6.571
115 F8 40 3.642
115 F8 41 1.689
115 F8 42 1.689
115 F8 43 3.642
115 F8 44 4.618
115 F8 45 3.642
115 F8 46 1.689
115 F8 47 1.200
115 F8 48 3.642
115 F8 49 7.548
115 F8 50 9.501
115 F8 51 7.548
115 F8 52 2.177
115 F8 53 -2.706
115 F8 54 -4.659
115 F8 55 -3.194
115 F8 56 -0.753
115 F8 57 0.712
115 F8 58 1.200
115 F8 59 2.177
115 F8 60 4.130
115 F8 61 7.060
115 F8 62 9.501
115 F8 63 9.013
115 F8 64 6.571
115 F8 65 2.665
115 F8 66 -0.264
115 F8 67 -0.264
115 F8 68 1.200
115 F8 69 3.642
115 F8 70 5.595
115 F8 71 6.571
115 F8 72 6.571
115 F8 73 5.107
115 F8 74 2.665
115 F8 75 -0.264
115 F8 76 -2.706
115 F8 77 -3.682
115 F8 78 -2.706
115 F8 79 0.224
115 F8 80 3.642
115 F8 81 5.595
115 F8 82 5.595
115 F8 83 3.642
115 F8 84 0.712
115 F8 85 -1.241
115 F8 86 -1.241
115 F8 87 1.200
115 F8 88 3.642
115 F8 89 4.618
115 F8 90 3.642
115 F8 91 0.712
115 F8 92 -3.194
115 F8 93 -6.612
115 F8 94 -9.542
115 F8 95 -11.007
115 F8 96 -11.983
115 F8 97 -12.472
115 F8 98 -11.983
115 F8 99 -10.518
115 F8 100 -7.589
115 F8 101 -4.171
115 F8 102 -2.218
115 F8 103 -1.241
115 F8 104 -1.729
115 F8 105 -2.218
115 F8 106 -2.706
115 F8 107 -2.706
115 F8 108 -2.218
115 F8 109 -3.194
115 F8 110 -5.147
115 F8 111 -7.589
115 F8 112 -10.030
115 F8 113 -11.007
115 F8 114 -10.518
115 F8 115 -9.054
115 F8 116 -6.124
115 F8 117 -2.706
115 F8 118 1.200
115 F8 119 4.618
115 F8 120 8.036
115 F8 121 9.989
115 F8 122 10.478
115 F8 123 9.989
115 F8 124 8.525
115 F8 125 6.571
115 F8 126 4.618
115 F8 127 1.200
115 F8 128 -2.706
115 F8 129 -6.124
115 F8 130 -7.100
115 F8 131 -4.659
115 F8 132 1.689
115 F8 133 9.501
115 F8 134 14.384
115 F8 135 14.872
115 F8 136 10.478
115 F8 137 5.595
115 F8 138 1.689
115 F8 139 0.712
115 F8 140 2.177
115 F8 141 2.177
115 F8 142 1.689
115 F8 143 -0.264
115 F8 144 -1.729
115 F8 145 -0.753
115 F8 146 1.689
115 F8 147 2.665
115 F8 148 1.200
115 F8 149 -2.706
115 F8 150 -7.100
115 F8 151 -10.030
115 F8 152 -10.030
115 F8 153 -7.589
115 F8 154 -5.636
115 F8 155 -5.147
115 F8 156 -5.636
115 F8 157 -6.612
115 F8 158 -6.612
115 F8 159 -5.147
115 F8 160 -4.659
115 F8 161 -4.659
115 F8 162 -6.612
115 F8 163 -8.077
115 F8 164 -9.054
115 F8 165 -8.565
115 F8 166 -8.077
115 F8 167 -9.054
115 F8 168 -11.007
115 F8 169 -13.448
115 F8 170 -15.401
115 F8 171 -15.401
115 F8 172 -13.936
115 F8 173 -12.960
115 F8 174 -12.960
115 F8 175 -13.936
115 F8 176 -15.889
115 F8 177 -15.889
115 F8 178 -15.401
115 F8 179 -12.960
115 F8 180 -10.030
115 F8 181 -7.589
115 F8 182 -5.636
115 F8 183 -5.636
115 F8 184 -7.100
115 F8 185 -9.054
115 F8 186 -10.518
115 F8 187 -11.007
115 F8 188 -11.495
115 F8 189 -11.495
115 F8 190 -11.495
115 F8 191 -11.495
115 F8 192 -11.007
115 F8 193 -9.542
115 F8 194 -8.077
115 F8 195 -7.589
115 F8 196 -8.565
115 F8 197 -9.054
115 F8 198 -9.054
115 F8 199 -7.589
115 F8 200 -6.124
115 F8 201 -5.147
115 F8 202 -5.636
115 F8 203 -7.100
115 F8 204 -8.077
115 F8 205 -7.589
115 F8 206 -8.077
115 F8 207 -8.565
115 F8 208 -9.542
115 F8 209 -10.030
115 F8 210 -7.100
115 F8 211 -3.194
115 F8 212 0.712
115 F8 213 0.712
115 F8 214 -2.706
115 F8 215 -6.612
115 F8 216 -8.077
115 F8 217 -5.636
115 F8 218 -0.753
115 F8 219 2.665
115 F8 220 2.665
115 F8 221 0.712
115 F8 222 -0.753
115 F8 223 0.224
115 F8 224 5.107
115 F8 225 9.989
115 F8 226 13.896
115 F8 227 14.872
115 F8 228 13.896
115 F8 229 12.431
115 F8 230 11.454
115 F8 231 9.989
115 F8 232 9.013
115 F8 233 8.036
115 F8 234 9.013
115 F8 235 11.943
115 F8 236 14.384
115 F8 237 15.361
115 F8 238 13.896
115 F8 239 11.943
115 F8 240 10.966
115 F8 241 11.454
115 F8 242 13.407
115 F8 243 13.896
115 F8 244 12.431
115 F8 245 9.989
115 F8 246 7.548
115 F8 247 6.571
115 F8 248 5.595
115 F8 249 3.642
115 F8 250 0.224
115 F8 251 -2.706
115 F8 252 -3.682
115 F8 253 -0.753
115 F8 254 4.618
115 F8 255 9.013
# AF1 chan 4
115 AF1 0 0.448
115 AF1 1 2.401
115 AF1 2 3.866
115 AF1 3 3.866
115 AF1 4 1.912
115 AF1 5 -0.529
115 AF1 6 -1.994
115 AF1 7 -1.506
115 AF1 8 -0.041
115 AF1 9 1.912
115 AF1 10 2.889
115 AF1 11 2.889
115 AF1 12 2.889
115 AF1 13 2.889
115 AF1 14 4.354
115 AF1 15 5.819
115 AF1 16 6.795
115 AF1 17 7.772
115 AF1 18 7.772
115 AF1 19 7.284
115 AF1 20 6.795
115 AF1 21 5.819
115 AF1 22 5.330
115 AF1 23 3.866
115 AF1 24 2.889
115 AF1 25 1.424
115 AF1 26 -0.529
115 AF1 27 -1.017
115 AF1 28 -1.506
115 AF1 29 -1.017
115 AF1 30 -0.041
115 AF1 31 0.936
115 AF1 32 2.401
115 AF1 33 3.377
115 AF1 34 3.866
115 AF1 35 3.866
115 AF1 36 3.377
115 AF1 37 3.377
115 AF1 38 2.889
115 AF1 39 2.401
115 AF1 40 1.912
115 AF1 41 1.912
115 AF1 42 2.401
115 AF1 43 3.377
115 AF1 44 4.842
115 AF1 45 7.284
115 AF1 46 9.725
115 AF1 47 11.678
115 AF1 48 12.655
115 AF1 49 13.143
115 AF1 50 13.143
115 AF1 51 12.655
115 AF1 52 11.678
115 AF1 53 11.190
115 AF1 54 10.701
115 AF1 55 10.701
115 AF1 56 10.701
115 AF1 57 11.190
115 AF1 58 12.166
115 AF1 59 13.631
115 AF1 60 14.119
115 AF1 61 14.608
115 AF1 62 14.608
115 AF1 63 14.119
115 AF1 64 13.631
115 AF1 65 13.143
115 AF1 66 11.678
115 AF1 67 10.213
115 AF1 68 8.748
115 AF1 69 8.260
115 AF1 70 9.725
115 AF1 71 11.190
115 AF1 72 12.166
115 AF1 73 11.190
115 AF1 74 8.748
115 AF1 75 4.842
115 AF1 76 0.936
115 AF1 77 -1.506
115 AF1 78 -2.482
115 AF1 79 -1.994
115 AF1 80 -0.041
115 AF1 81 2.889
115 AF1 82 5.330
115 AF1 83 7.284
115 AF1 84 8.260
115 AF1 85 8.260
115 AF1 86 7.772
115 AF1 87 7.772
115 AF1 88 8.260
115 AF1 89 8.748
115 AF1 90 9.237
115 AF1 91 9.237
115 AF1 92 8.260
115 AF1 93 7.772
115 AF1 94 6.795
115 AF1 95 6.307
115 AF1 96 6.307
115 AF1 97 6.795
115 AF1 98 8.260
115 AF1 99 9.725
115 AF1 100 10.701
115 AF1 101 10.701
115 AF1 102 10.701
115 AF1 103 10.213
115 AF1 104 9.725
115 AF1 105 10.701
115 AF1 106 11.678
115 AF1 107 11.678
115 AF1 108 10.213
115 AF1 109 8.748
115 AF1 110 7.284
115 AF1 111 6.795
115 AF1 112 7.284
115 AF1 113 8.260
115 AF1 114 8.260
115 AF1 115 7.284
115 AF1 116 5.330
115 AF1 117 3.866
115 AF1 118 3.377
115 AF1 119 4.354
115 AF1 120 5.819
115 AF1 121 7.772
115 AF1 122 9.237
115 AF1 123 10.213
115 AF1 124 10.701
115 AF1 125 10.701
115 AF1 126 9.237
115 AF1 127 6.795
115 AF1 128 4.354
115 AF1 129 2.401
115 AF1 130 3.377
115 AF1 131 6.307
115 AF1 132 10.701
115 AF1 133 13.631
115 AF1 134 15.096
115 AF1 135 14.608
115 AF1 136 13.143
115 AF1 137 12.655
115 AF1 138 13.143
115 AF1 139 14.119
115 AF1 140 14.608
115 AF1 141 13.143
115 AF1 142 10.213
115 AF1 143 7.284
115 AF1 144 5.819
115 AF1 145 6.307
115 AF1 146 7.772
115 AF1 147 8.748
115 AF1 148 8.748
115 AF1 149 7.772
115 AF1 150 5.330
115 AF1 151 3.377
115 AF1 152 0.936
115 AF1 153 -0.529
115 AF1 154 -1.994
115 AF1 155 -2.970
115 AF1 156 -3.459
115 AF1 157 -2.970
115 AF1 158 -2.482
115 AF1 159 -2.482
115 AF1 160 -3.459
115 AF1 161 -4.924
115 AF1 162 -6.388
115 AF1 163 -6.388
115 AF1 164 -5.412
115 AF1 165 -4.435
115 AF1 166 -3.459
115 AF1 167 -3.947
115 AF1 168 -5.412
115 AF1 169 -6.877
115 AF1 170 -6.877
115 AF1 171 -6.388
115 AF1 172 -4.924
115 AF1 173 -3.459
115 AF1 174 -2.482
115 AF1 175 -1.994
115 AF1 176 -2.482
115 AF1 177 -2.970
115 AF1 178 -3.947
115 AF1 179 -3.459
115 AF1 180 -2.482
115 AF1 181 -1.506
115 AF1 182 -1.017
115 AF1 183 -2.482
115 AF1 184 -4.435
115 AF1 185 -6.877
115 AF1 186 -7.853
115 AF1 187 -6.877
115 AF1 188 -5.900
115 AF1 189 -4.924
115 AF1 190 -3.947
115 AF1 191 -2.970
115 AF1 192 -1.506
115 AF1 193 -0.529
115 AF1 194 -0.041
115 AF1 195 -0.041
115 AF1 196 -1.017
115 AF1 197 -1.506
115 AF1 198 -1.017
115 AF1 199 -0.529
115 AF1 200 0.448
115 AF1 201 0.448
115 AF1 202 -0.041
115 AF1 203 -0.041
115 AF1 204 -0.041
115 AF1 205 0.448
115 AF1 206 0.448
115 AF1 207 -0.529
115 AF1 208 -2.482
115 AF1 209 -3.459
115 AF1 210 -3.947
115 AF1 211 -2.970
115 AF1 212 -1.506
115 AF1 213 -1.017
115 AF1 214 -0.529
115 AF1 215 -0.041
115 AF1 216 1.424
115 AF1 217 3.377
115 AF1 218 5.819
115 AF1 219 7.772
115 AF1 220 8.748
115 AF1 221 9.237
115 AF1 222 9.725
115 AF1 223 11.190
115 AF1 224 12.655
115 AF1 225 15.096
115 AF1 226 18.026
115 AF1 227 21.932
115 AF1 228 26.326
115 AF1 229 30.721
115 AF1 230 33.651
115 AF1 231 35.604
115 AF1 232 37.069
115 AF1 233 38.045
115 AF1 234 39.510
115 AF1 235 39.510
115 AF1 236 38.534
115 AF1 237 36.092
115 AF1 238 33.162
115 AF1 239 30.721
115 AF1 240 29.744
115 AF1 241 29.744
115 AF1 242 30.233
115 AF1 243 29.744
115 AF1 244 27.791
115 AF1 245 24.862
115 AF1 246 21.444
115 AF1 247 17.537
115 AF1 248 15.096
115 AF1 249 13.143
115 AF1 250 12.655
115 AF1 251 12.655
115 AF1 252 12.655
115 AF1 253 13.143
115 AF1 254 12.655
115 AF1 255 12.655
# AF2 chan 5
115 AF2 0 0.224
115 AF2 1 1.689
115 AF2 2 2.177
115 AF2 3 2.177
115 AF2 4 0.224
115 AF2 5 -1.729
115 AF2 6 -3.682
115 AF2 7 -4.171
115 AF2 8 -2.706
115 AF2 9 -1.241
115 AF2 10 1.200
115 AF2 11 2.177
115 AF2 12 3.153
115 AF2 13 3.642
115 AF2 14 3.642
115 AF2 15 4.130
115 AF2 16 5.595
115 AF2 17 7.060
115 AF2 18 8.525
115 AF2 19 9.013
115 AF2 20 8.036
115 AF2 21 7.548
115 AF2 22 6.571
115 AF2 23 5.595
115 AF2 24 4.618
115 AF2 25 3.153
115 AF2 26 1.200
115 AF2 27 0.224
115 AF2 28 0.224
115 AF2 29 1.200
115 AF2 30 2.177
115 AF2 31 2.665
115 AF2 32 2.177
115 AF2 33 1.689
115 AF2 34 1.200
115 AF2 35 0.712
115 AF2 36 0.712
115 AF2 37 0.712
115 AF2 38 0.224
115 AF2 39 -0.264
115 AF2 40 -0.753
115 AF2 41 -1.241
115 AF2 42 -2.218
115 AF2 43 -2.706
115 AF2 44 -2.218
115 AF2 45 0.224
115 AF2 46 2.665
115 AF2 47 5.107
115 AF2 48 7.060
115 AF2 49 7.060
115 AF2 50 6.571
115 AF2 51 5.595
115 AF2 52 4.618
115 AF2 53 4.618
115 AF2 54 4.618
115 AF2 55 5.107
115 AF2 56 5.595
115 AF2 57 7.060
115 AF2 58 9.013
115 AF2 59 10.478
115 AF2 60 11.454
115 AF2 61 11.454
115 AF2 62 10.966
115 AF2 63 10.478
115 AF2 64 9.989
115 AF2 65 9.989
115 AF2 66 9.013
115 AF2 67 8.036
115 AF2 68 6.571
115 AF2 69 6.083
115 AF2 70 6.571
115 AF2 71 7.548
115 AF2 72 8.036
115 AF2 73 7.060
115 AF2 74 4.618
115 AF2 75 0.712
115 AF2 76 -2.218
115 AF2 77 -5.147
115 AF2 78 -6.124
115 AF2 79 -4.659
115 AF2 80 -2.218
115 AF2 81 0.224
115 AF2 82 2.177
115 AF2 83 3.153
115 AF2 84 3.153
115 AF2 85 3.153
115 AF2 86 3.153
115 AF2 87 3.642
115 AF2 88 4.130
115 AF2 89 4.130
115 AF2 90 3.642
115 AF2 91 3.642
115 AF2 92 4.130
115 AF2 93 4.130
115 AF2 94 4.130
115 AF2 95 3.153
115 AF2 96 2.665
115 AF2 97 3.153
115 AF2 98 4.130
115 AF2 99 6.083
115 AF2 100 7.548
115 AF2 101 8.036
115 AF2 102 8.036
115 AF2 103 8.036
115 AF2 104 8.525
115 AF2 105 9.501
115 AF2 106 9.501
115 AF2 107 8.525
115 AF2 108 6.083
115 AF2 109 3.153
115 AF2 110 1.200
115 AF2 111 0.712
115 AF2 112 1.689
115 AF2 113 2.665
115 AF2 114 2.665
115 AF2 115 2.177
115 AF2 116 1.200
115 AF2 117 0.712
115 AF2 118 0.712
115 AF2 119 1.689
115 AF2 120 3.153
115 AF2 121 4.618
115 AF2 122 5.595
115 AF2 123 6.083
115 AF2 124 5.595
115 AF2 125 5.107
115 AF2 126 3.642
115 AF2 127 1.689
115 AF2 128 0.224
115 AF2 129 -0.264
115 AF2 130 0.712
115 AF2 131 3.642
115 AF2 132 7.548
115 AF2 133 9.989
115 AF2 134 10.966
115 AF2 135 10.478
115 AF2 136 9.501
115 AF2 137 8.525
115 AF2 138 8.036
115 AF2 139 8.525
115 AF2 140 8.525
115 AF2 141 7.548
115 AF2 142 6.571
115 AF2 143 5.107
115 AF2 144 4.618
115 AF2 145 4.130
115 AF2 146 4.618
115 AF2 147 5.595
115 AF2 148 5.107
115 AF2 149 4.130
115 AF2 150 1.689
115 AF2 151 -1.729
115 AF2 152 -3.682
115 AF2 153 -4.659
115 AF2 154 -4.659
115 AF2 155 -4.171
115 AF2 156 -4.171
115 AF2 157 -4.659
115 AF2 158 -6.612
115 AF2 159 -8.077
115 AF2 160 -9.542
115 AF2 161 -10.030
115 AF2 162 -10.518
115 AF2 163 -10.518
115 AF2 164 -11.007
115 AF2 165 -11.007
115 AF2 166 -10.518
115 AF2 167 -10.518
115 AF2 168 -11.007
115 AF2 169 -11.495
115 AF2 170 -12.472
115 AF2 171 -12.472
115 AF2 172 -11.495
115 AF2 173 -10.030
115 AF2 174 -8.565
115 AF2 175 -7.589
115 AF2 176 -7.589
115 AF2 177 -8.565
115 AF2 178 -10.030
115 AF2 179 -10.518
115 AF2 180 -9.054
115 AF2 181 -7.589
115 AF2 182 -5.636
115 AF2 183 -5.636
115 AF2 184 -6.612
115 AF2 185 -8.565
115 AF2 186 -10.030
115 AF2 187 -10.030
115 AF2 188 -8.565
115 AF2 189 -7.100
115 AF2 190 -6.124
115 AF2 191 -6.124
115 AF2 192 -6.124
115 AF2 193 -5.147
115 AF2 194 -3.682
115 AF2 195 -2.218
115 AF2 196 -1.729
115 AF2 197 -2.218
115 AF2 198 -3.194
115 AF2 199 -3.682
115 AF2 200 -3.194
115 AF2 201 -2.218
115 AF2 202 -2.218
115 AF2 203 -2.706
115 AF2 204 -4.171
115 AF2 205 -5.147
115 AF2 206 -5.147
115 AF2 207 -4.171
115 AF2 208 -3.194
115 AF2 209 -3.194
115 AF2 210 -4.171
115 AF2 211 -5.147
115 AF2 212 -5.636
115 AF2 213 -5.147
115 AF2 214 -3.682
115 AF2 215 -1.729
115 AF2 216 0.224
115 AF2 217 1.689
115 AF2 218 2.665
115 AF2 219 3.642
115 AF2 220 4.618
115 AF2 221 6.083
115 AF2 222 7.548
115 AF2 223 9.013
115 AF2 224 10.966
115 AF2 225 13.407
115 AF2 226 16.337
115 AF2 227 19.755
115 AF2 228 23.173
115 AF2 229 26.103
115 AF2 230 28.056
115 AF2 231 29.521
115 AF2 232 30.986
115 AF2 233 32.450
115 AF2 234 33.427
115 AF2 235 33.427
115 AF2 236 31.962
115 AF2 237 30.009
115 AF2 238 27.568
115 AF2 239 25.614
115 AF2 240 24.638
115 AF2 241 24.638
115 AF2 242 24.150
115 AF2 243 23.661
115 AF2 244 22.196
115 AF2 245 20.243
115 AF2 246 17.314
115 AF2 247 13.896
115 AF2 248 10.966
115 AF2 249 9.013
115 AF2 250 8.036
115 AF2 251 8.525
115 AF2 252 9.501
115 AF2 253 9.989
115 AF2 254 10.478
115 AF2 255 11.454
# FZ chan 6
115 FZ 0 -2.452
115 FZ 1 -0.987
115 FZ 2 -0.498
115 FZ 3 -0.498
115 FZ 4 -1.963
115 FZ 5 -2.940
115 FZ 6 -3.916
115 FZ 7 -3.916
115 FZ 8 -2.452
115 FZ 9 -1.475
115 FZ 10 -0.498
115 FZ 11 0.478
115 FZ 12 0.966
115 FZ 13 0.966
115 FZ 14 0.966
115 FZ 15 1.455
115 FZ 16 2.431
115 FZ 17 3.408
115 FZ 18 4.873
115 FZ 19 5.361
115 FZ 20 5.361
115 FZ 21 4.873
115 FZ 22 3.408
115 FZ 23 2.431
115 FZ 24 0.966
115 FZ 25 -0.010
115 FZ 26 -1.475
115 FZ 27 -2.452
115 FZ 28 -2.940
115 FZ 29 -2.452
115 FZ 30 -1.475
115 FZ 31 -0.987
115 FZ 32 -0.498
115 FZ 33 -0.987
115 FZ 34 -1.475
115 FZ 35 -1.963
115 FZ 36 -2.452
115 FZ 37 -1.963
115 FZ 38 -1.475
115 FZ 39 -1.475
115 FZ 40 -2.452
115 FZ 41 -3.428
115 FZ 42 -3.916
115 FZ 43 -2.940
115 FZ 44 -1.475
115 FZ 45 0.478
115 FZ 46 2.920
115 FZ 47 4.384
115 FZ 48 4.873
115 FZ 49 5.361
115 FZ 50 5.849
115 FZ 51 5.849
115 FZ 52 5.849
115 FZ 53 5.361
115 FZ 54 4.873
115 FZ 55 4.384
115 FZ 56 4.384
115 FZ 57 4.873
115 FZ 58 5.361
115 FZ 59 6.337
115 FZ 60 7.314
115 FZ 61 7.314
115 FZ 62 8.291
115 FZ 63 8.291
115 FZ 64 8.779
115 FZ 65 8.291
115 FZ 66 6.826
115 FZ 67 5.361
115 FZ 68 3.896
115 FZ 69 3.408
115 FZ 70 3.896
115 FZ 71 5.361
115 FZ 72 5.849
115 FZ 73 5.361
115 FZ 74 2.920
115 FZ 75 -0.010
115 FZ 76 -2.940
115 FZ 77 -5.381
115 FZ 78 -6.358
115 FZ 79 -5.870
115 FZ 80 -3.428
115 FZ 81 -0.498
115 FZ 82 1.455
115 FZ 83 3.408
115 FZ 84 4.384
115 FZ 85 4.384
115 FZ 86 4.384
115 FZ 87 4.873
115 FZ 88 5.361
115 FZ 89 6.337
115 FZ 90 6.826
115 FZ 91 7.314
115 FZ 92 7.802
115 FZ 93 7.802
115 FZ 94 7.802
115 FZ 95 7.802
115 FZ 96 7.802
115 FZ 97 8.291
115 FZ 98 8.779
115 FZ 99 9.755
115 FZ 100 10.732
115 FZ 101 10.732
115 FZ 102 10.732
115 FZ 103 10.732
115 FZ 104 10.732
115 FZ 105 11.220
115 FZ 106 11.709
115 FZ 107 11.220
115 FZ 108 9.267
115 FZ 109 6.826
115 FZ 110 5.361
115 FZ 111 4.873
115 FZ 112 5.361
115 FZ 113 5.849
115 FZ 114 5.849
115 FZ 115 5.361
115 FZ 116 3.408
115 FZ 117 1.943
115 FZ 118 1.455
115 FZ 119 0.966
115 FZ 120 1.455
115 FZ 121 1.943
115 FZ 122 1.943
115 FZ 123 1.455
115 FZ 124 0.966
115 FZ 125 0.966
115 FZ 126 -0.010
115 FZ 127 -0.010
115 FZ 128 -0.987
115 FZ 129 -0.987
115 FZ 130 -0.010
115 FZ 131 2.920
115 FZ 132 6.337
115 FZ 133 9.267
115 FZ 134 10.732
115 FZ 135 10.732
115 FZ 136 10.244
115 FZ 137 10.244
115 FZ 138 10.732
115 FZ 139 11.709
115 FZ 140 12.197
115 FZ 141 12.685
115 FZ 142 12.197
115 FZ 143 11.220
115 FZ 144 10.732
115 FZ 145 10.244
115 FZ 146 9.755
115 FZ 147 9.267
115 FZ 148 8.779
115 FZ 149 8.291
115 FZ 150 6.826
115 FZ 151 4.873
115 FZ 152 2.920
115 FZ 153 0.478
115 FZ 154 -0.498
115 FZ 155 -0.987
115 FZ 156 -0.498
115 FZ 157 -0.498
115 FZ 158 -0.987
115 FZ 159 -1.963
115 FZ 160 -3.428
115 FZ 161 -4.405
115 FZ 162 -4.893
115 FZ 163 -4.405
115 FZ 164 -3.916
115 FZ 165 -3.428
115 FZ 166 -3.916
115 FZ 167 -4.405
115 FZ 168 -4.893
115 FZ 169 -5.381
115 FZ 170 -5.381
115 FZ 171 -4.893
115 FZ 172 -3.916
115 FZ 173 -2.452
115 FZ 174 -0.987
115 FZ 175 -0.010
115 FZ 176 -0.010
115 FZ 177 -1.475
115 FZ 178 -2.940
115 FZ 179 -2.940
115 FZ 180 -2.452
115 FZ 181 -0.987
115 FZ 182 -0.010
115 FZ 183 -0.010
115 FZ 184 -0.987
115 FZ 185 -2.452
115 FZ 186 -3.428
115 FZ 187 -2.940
115 FZ 188 -1.963
115 FZ 189 -1.475
115 FZ 190 -1.475
115 FZ 191 -1.963
115 FZ 192 -1.475
115 FZ 193 -0.010
115 FZ 194 1.455
115 FZ 195 2.920
115 FZ 196 2.431
115 FZ 197 1.455
115 FZ 198 0.478
115 FZ 199 0.478
115 FZ 200 0.966
115 FZ 201 0.966
115 FZ 202 0.966
115 FZ 203 -0.010
115 FZ 204 -0.498
115 FZ 205 -0.987
115 FZ 206 -0.987
115 FZ 207 -0.987
115 FZ 208 -0.987
115 FZ 209 -1.475
115 FZ 210 -1.963
115 FZ 211 -1.963
115 FZ 212 -1.963
115 FZ 213 -1.475
115 FZ 214 -0.987
115 FZ 215 -0.010
115 FZ 216 1.455
115 FZ 217 2.920
115 FZ 218 3.896
115 FZ 219 4.873
115 FZ 220 4.873
115 FZ 221 4.873
115 FZ 222 5.361
115 FZ 223 5.849
115 FZ 224 7.314
115 FZ 225 8.291
115 FZ 226 9.755
115 FZ 227 11.709
115 FZ 228 13.173
115 FZ 229 14.638
115 FZ 230 16.103
115 FZ 231 17.568
115 FZ 232 19.033
115 FZ 233 20.498
115 FZ 234 21.474
115 FZ 235 21.474
115 FZ 236 20.498
115 FZ 237 18.545
115 FZ 238 16.103
115 FZ 239 14.638
115 FZ 240 13.662
115 FZ 241 14.150
115 FZ 242 14.638
115 FZ 243 14.638
115 FZ 244 13.662
115 FZ 245 12.197
115 FZ 246 9.755
115 FZ 247 7.802
115 FZ 248 6.337
115 FZ 249 5.849
115 FZ 250 5.849
115 FZ 251 5.849
115 FZ 252 6.337
115 FZ 253 6.337
115 FZ 254 6.826
115 FZ 255 7.802
# F4 chan 7
115 F4 0 -1.282
115 F4 1 -0.305
115 F4 2 -0.305
115 F4 3 -1.770
115 F4 4 -3.723
115 F4 5 -5.188
115 F4 6 -6.165
115 F4 7 -6.165
115 F4 8 -4.700
115 F4 9 -2.747
115 F4 10 -0.793
115 F4 11 1.160
115 F4 12 2.136
115 F4 13 2.625
115 F4 14 2.625
115 F4 15 2.136
115 F4 16 2.625
115 F4 17 4.089
115 F4 18 6.531
115 F4 19 8.484
115 F4 20 8.972
115 F4 21 8.484
115 F4 22 6.531
115 F4 23 4.089
115 F4 24 2.136
115 F4 25 0.671
115 F4 26 0.183
115 F4 27 0.183
115 F4 28 1.160
115 F4 29 2.136
115 F4 30 3.113
115 F4 31 3.601
115 F4 32 2.625
115 F4 33 0.671
115 F4 34 -1.282
115 F4 35 -2.258
115 F4 36 -2.258
115 F4 37 -1.770
115 F4 38 -1.282
115 F4 39 -1.770
115 F4 40 -3.723
115 F4 41 -5.188
115 F4 42 -6.165
115 F4 43 -5.676
115 F4 44 -4.211
115 F4 45 -2.258
115 F4 46 -0.793
115 F4 47 0.183
115 F4 48 1.160
115 F4 49 2.136
115 F4 50 3.113
115 F4 51 3.113
115 F4 52 3.113
115 F4 53 2.136
115 F4 54 1.648
115 F4 55 1.160
115 F4 56 1.648
115 F4 57 2.625
115 F4 58 4.089
115 F4 59 5.554
115 F4 60 6.531
115 F4 61 7.019
115 F4 62 7.019
115 F4 63 7.019
115 F4 64 6.042
115 F4 65 5.066
115 F4 66 3.601
115 F4 67 3.113
115 F4 68 3.113
115 F4 69 3.601
115 F4 70 4.089
115 F4 71 3.601
115 F4 72 2.625
115 F4 73 1.160
115 F4 74 -0.305
115 F4 75 -2.258
115 F4 76 -4.211
115 F4 77 -6.165
115 F4 78 -6.653
115 F4 79 -5.676
115 F4 80 -3.235
115 F4 81 -0.305
115 F4 82 2.136
115 F4 83 3.113
115 F4 84 3.113
115 F4 85 2.625
115 F4 86 2.625
115 F4 87 3.113
115 F4 88 3.601
115 F4 89 3.601
115 F4 90 3.601
115 F4 91 3.113
115 F4 92 2.625
115 F4 93 2.625
115 F4 94 2.136
115 F4 95 2.136
115 F4 96 2.136
115 F4 97 3.113
115 F4 98 5.066
115 F4 99 7.019
115 F4 100 7.996
115 F4 101 7.996
115 F4 102 7.019
115 F4 103 6.531
115 F4 104 7.019
115 F4 105 7.507
115 F4 106 7.507
115 F4 107 5.554
115 F4 108 3.113
115 F4 109 0.183
115 F4 110 -2.258
115 F4 111 -2.747
115 F4 112 -2.747
115 F4 113 -1.770
115 F4 114 -1.770
115 F4 115 -1.282
115 F4 116 -1.770
115 F4 117 -1.282
115 F4 118 -0.793
115 F4 119 -0.793
115 F4 120 -0.793
115 F4 121 -0.793
115 F4 122 -1.282
115 F4 123 -1.770
115 F4 124 -1.770
115 F4 125 -1.770
115 F4 126 -2.258
115 F4 127 -2.747
115 F4 128 -3.235
115 F4 129 -2.747
115 F4 130 -1.282
115 F4 131 0.671
115 F4 132 3.601
115 F4 133 5.554
115 F4 134 6.042
115 F4 135 5.554
115 F4 136 4.089
115 F4 137 2.625
115 F4 138 2.136
115 F4 139 2.136
115 F4 140 3.113
115 F4 141 4.089
115 F4 142 5.066
115 F4 143 5.554
115 F4 144 5.554
115 F4 145 5.066
115 F4 146 4.578
115 F4 147 3.601
115 F4 148 2.136
115 F4 149 0.671
115 F4 150 -1.282
115 F4 151 -3.723
115 F4 152 -5.188
115 F4 153 -6.165
115 F4 154 -6.653
115 F4 155 -6.165
115 F4 156 -5.676
115 F4 157 -5.676
115 F4 158 -6.653
115 F4 159 -8.118
115 F4 160 -10.071
115 F4 161 -11.047
115 F4 162 -12.024
115 F4 163 -12.512
115 F4 164 -12.512
115 F4 165 -12.512
115 F4 166 -13.489
115 F4 167 -13.977
115 F4 168 -14.465
115 F4 169 -14.954
115 F4 170 -14.954
115 F4 171 -14.954
115 F4 172 -14.465
115 F4 173 -13.489
115 F4 174 -11.536
115 F4 175 -10.559
115 F4 176 -10.559
115 F4 177 -11.047
115 F4 178 -12.512
115 F4 179 -12.512
115 F4 180 -11.047
115 F4 181 -8.606
115 F4 182 -6.165
115 F4 183 -5.676
115 F4 184 -6.165
115 F4 185 -8.118
115 F4 186 -9.583
115 F4 187 -8.606
115 F4 188 -7.141
115 F4 189 -6.165
115 F4 190 -6.165
115 F4 191 -7.141
115 F4 192 -7.141
115 F4 193 -6.165
115 F4 194 -4.211
115 F4 195 -2.747
115 F4 196 -2.258
115 F4 197 -2.258
115 F4 198 -2.747
115 F4 199 -3.235
115 F4 200 -2.258
115 F4 201 -1.770
115 F4 202 -1.282
115 F4 203 -2.258
115 F4 204 -3.235
115 F4 205 -4.700
115 F4 206 -5.188
115 F4 207 -5.188
115 F4 208 -5.676
115 F4 209 -5.676
115 F4 210 -5.676
115 F4 211 -5.676
115 F4 212 -4.700
115 F4 213 -3.723
115 F4 214 -3.235
115 F4 215 -2.258
115 F4 216 -1.770
115 F4 217 -1.282
115 F4 218 -0.793
115 F4 219 -0.305
115 F4 220 0.183
115 F4 221 0.671
115 F4 222 1.648
115 F4 223 3.113
115 F4 224 4.578
115 F4 225 6.531
115 F4 226 7.507
115 F4 227 8.484
115 F4 228 8.972
115 F4 229 8.972
115 F4 230 9.949
115 F4 231 10.925
115 F4 232 12.390
115 F4 233 14.343
115 F4 234 15.320
115 F4 235 15.320
115 F4 236 13.855
115 F4 237 11.414
115 F4 238 9.460
115 F4 239 7.996
115 F4 240 7.507
115 F4 241 7.996
115 F4 242 8.972
115 F4 243 8.972
115 F4 244 7.996
115 F4 245 6.042
115 F4 246 3.601
115 F4 247 1.648
115 F4 248 1.160
115 F4 249 1.160
115 F4 250 2.136
115 F4 251 3.113
115 F4 252 3.601
115 F4 253 4.089
115 F4 254 5.066
115 F4 255 6.042
# F3 chan 8
115 F3 0 -0.804
115 F3 1 -0.315
115 F3 2 -0.315
115 F3 3 -0.804
115 F3 4 -1.292
115 F3 5 -1.292
115 F3 6 -1.292
115 F3 7 0.173
115 F3 8 1.638
115 F3 9 2.614
115 F3 10 3.103
115 F3 11 2.614
115 F3 12 1.638
115 F3 13 0.661
115 F3 14 0.173
115 F3 15 0.661
115 F3 16 1.149
115 F3 17 2.126
115 F3 18 3.103
115 F3 19 2.614
115 F3 20 2.126
115 F3 21 0.661
115 F3 22 -0.804
115 F3 23 -1.780
115 F3 24 -2.757
115 F3 25 -3.733
115 F3 26 -4.710
115 F3 27 -6.175
115 F3 28 -6.175
115 F3 29 -6.175
115 F3 30 -4.710
115 F3 31 -3.733
115 F3 32 -3.245
115 F3 33 -3.245
115 F3 34 -2.757
115 F3 35 -2.268
115 F3 36 -0.315
115 F3 37 1.149
115 F3 38 2.126
115 F3 39 2.126
115 F3 40 0.661
115 F3 41 -0.315
115 F3 42 -0.315
115 F3 43 1.149
115 F3 44 3.591
115 F3 45 7.009
115 F3 46 9.939
115 F3 47 11.892
115 F3 48 12.868
115 F3 49 12.868
115 F3 50 12.380
115 F3 51 11.892
115 F3 52 10.915
115 F3 53 10.427
115 F3 54 9.450
115 F3 55 8.962
115 F3 56 7.985
115 F3 57 7.009
115 F3 58 6.521
115 F3 59 6.032
115 F3 60 6.032
115 F3 61 6.521
115 F3 62 7.497
115 F3 63 8.474
115 F3 64 9.450
115 F3 65 9.939
115 F3 66 8.474
115 F3 67 5.544
115 F3 68 3.103
115 F3 69 2.126
115 F3 70 2.614
115 F3 71 3.591
115 F3 72 5.056
115 F3 73 4.567
115 F3 74 2.614
115 F3 75 0.173
115 F3 76 -2.757
115 F3 77 -5.198
115 F3 78 -6.663
115 F3 79 -6.175
115 F3 80 -3.733
115 F3 81 -0.315
115 F3 82 3.103
115 F3 83 5.544
115 F3 84 6.032
115 F3 85 6.032
115 F3 86 5.544
115 F3 87 5.544
115 F3 88 6.521
115 F3 89 7.497
115 F3 90 8.474
115 F3 91 8.962
115 F3 92 8.474
115 F3 93 8.474
115 F3 94 8.474
115 F3 95 7.985
115 F3 96 7.985
115 F3 97 7.985
115 F3 98 8.474
115 F3 99 8.474
115 F3 100 7.985
115 F3 101 7.009
115 F3 102 5.544
115 F3 103 6.032
115 F3 104 7.009
115 F3 105 8.474
115 F3 106 9.450
115 F3 107 9.450
115 F3 108 7.985
115 F3 109 6.521
115 F3 110 6.032
115 F3 111 6.032
115 F3 112 7.009
115 F3 113 7.985
115 F3 114 7.497
115 F3 115 6.032
115 F3 116 3.591
115 F3 117 2.126
115 F3 118 1.149
115 F3 119 1.149
115 F3 120 2.126
115 F3 121 3.103
115 F3 122 3.591
115 F3 123 3.591
115 F3 124 3.591
115 F3 125 3.591
115 F3 126 3.103
115 F3 127 2.614
115 F3 128 1.149
115 F3 129 -0.315
115 F3 130 -0.315
115 F3 131 1.149
115 F3 132 3.591
115 F3 133 6.521
115 F3 134 8.474
115 F3 135 8.474
115 F3 136 8.474
115 F3 137 8.962
115 F3 138 9.939
115 F3 139 10.915
115 F3 140 11.403
115 F3 141 9.450
115 F3 142 7.009
115 F3 143 4.079
115 F3 144 2.126
115 F3 145 1.638
115 F3 146 2.126
115 F3 147 2.614
115 F3 148 3.103
115 F3 149 3.103
115 F3 150 3.103
115 F3 151 1.638
115 F3 152 0.173
115 F3 153 -2.757
115 F3 154 -4.710
115 F3 155 -6.175
115 F3 156 -6.175
115 F3 157 -5.198
115 F3 158 -4.222
115 F3 159 -4.222
115 F3 160 -5.198
115 F3 161 -6.175
115 F3 162 -6.175
115 F3 163 -5.198
115 F3 164 -4.222
115 F3 165 -4.222
115 F3 166 -5.198
115 F3 167 -6.663
115 F3 168 -7.640
115 F3 169 -8.128
115 F3 170 -7.640
115 F3 171 -7.151
115 F3 172 -5.686
115 F3 173 -4.222
115 F3 174 -2.268
115 F3 175 -0.804
115 F3 176 -0.804
115 F3 177 -1.292
115 F3 178 -2.757
115 F3 179 -3.245
115 F3 180 -2.757
115 F3 181 -1.780
115 F3 182 -1.292
115 F3 183 -2.268
115 F3 184 -4.222
115 F3 185 -5.198
115 F3 186 -4.710
115 F3 187 -3.245
115 F3 188 -2.268
115 F3 189 -1.780
115 F3 190 -2.268
115 F3 191 -2.268
115 F3 192 -0.804
115 F3 193 1.149
115 F3 194 2.126
115 F3 195 2.126
115 F3 196 1.149
115 F3 197 1.149
115 F3 198 1.638
115 F3 199 3.103
115 F3 200 4.079
115 F3 201 3.591
115 F3 202 2.126
115 F3 203 1.149
115 F3 204 1.638
115 F3 205 2.614
115 F3 206 3.591
115 F3 207 3.591
115 F3 208 2.614
115 F3 209 0.661
115 F3 210 -0.315
115 F3 211 -1.292
115 F3 212 -1.780
115 F3 213 -1.780
115 F3 214 -1.292
115 F3 215 -0.315
115 F3 216 1.638
115 F3 217 3.591
115 F3 218 5.544
115 F3 219 6.032
115 F3 220 6.032
115 F3 221 6.032
115 F3 222 5.544
115 F3 223 5.056
115 F3 224 4.567
115 F3 225 5.056
115 F3 226 6.521
115 F3 227 9.450
115 F3 228 13.845
115 F3 229 17.263
115 F3 230 19.216
115 F3 231 20.192
115 F3 232 20.681
115 F3 233 21.657
115 F3 234 22.146
115 F3 235 22.146
115 F3 236 20.681
115 F3 237 18.239
115 F3 238 15.798
115 F3 239 14.333
115 F3 240 14.821
115 F3 241 15.798
115 F3 242 16.774
115 F3 243 16.774
115 F3 244 15.310
115 F3 245 11.892
115 F3 246 8.474
115 F3 247 5.056
115 F3 248 3.103
115 F3 249 3.103
115 F3 250 5.056
115 F3 251 7.009
115 F3 252 7.985
115 F3 253 7.009
115 F3 254 5.056
115 F3 255 3.103
# FC6 chan 9
115 FC6 0 0.743
115 FC6 1 1.719
115 FC6 2 2.696
115 FC6 3 2.207
115 FC6 4 1.231
115 FC6 5 0.743
115 FC6 6 0.743
115 FC6 7 0.743
115 FC6 8 -0.234
115 FC6 9 -2.675
115 FC6 10 -4.140
115 FC6 11 -4.628
115 FC6 12 -2.187
115 FC6 13 0.743
115 FC6 14 3.184
115 FC6 15 4.161
115 FC6 16 3.184
115 FC6 17 2.207
115 FC6 18 2.696
115 FC6 19 4.649
115 FC6 20 6.602
115 FC6 21 7.090
115 FC6 22 6.114
115 FC6 23 4.161
115 FC6 24 2.207
115 FC6 25 1.231
115 FC6 26 0.743
115 FC6 27 1.231
115 FC6 28 2.207
115 FC6 29 3.184
115 FC6 30 3.672
115 FC6 31 3.672
115 FC6 32 2.696
115 FC6 33 0.743
115 FC6 34 -0.722
115 FC6 35 -1.699
115 FC6 36 -1.211
115 FC6 37 -0.234
115 FC6 38 1.231
115 FC6 39 1.719
115 FC6 40 1.231
115 FC6 41 0.743
115 FC6 42 0.743
115 FC6 43 1.231
115 FC6 44 1.719
115 FC6 45 1.231
115 FC6 46 0.254
115 FC6 47 -0.722
115 FC6 48 -0.722
115 FC6 49 -0.234
115 FC6 50 0.743
115 FC6 51 1.719
115 FC6 52 1.231
115 FC6 53 -0.722
115 FC6 54 -2.675
115 FC6 55 -3.652
115 FC6 56 -3.164
115 FC6 57 -1.699
115 FC6 58 0.254
115 FC6 59 1.719
115 FC6 60 2.207
115 FC6 61 2.207
115 FC6 62 1.719
115 FC6 63 2.207
115 FC6 64 2.207
115 FC6 65 1.719
115 FC6 66 -0.234
115 FC6 67 -1.699
115 FC6 68 -3.164
115 FC6 69 -2.675
115 FC6 70 -1.211
115 FC6 71 0.743
115 FC6 72 2.207
115 FC6 73 1.231
115 FC6 74 -1.211
115 FC6 75 -3.652
115 FC6 76 -4.628
115 FC6 77 -4.140
115 FC6 78 -2.187
115 FC6 79 -0.234
115 FC6 80 1.231
115 FC6 81 1.231
115 FC6 82 1.231
115 FC6 83 0.743
115 FC6 84 1.231
115 FC6 85 1.231
115 FC6 86 0.743
115 FC6 87 -0.234
115 FC6 88 -2.187
115 FC6 89 -3.652
115 FC6 90 -4.140
115 FC6 91 -4.628
115 FC6 92 -5.605
115 FC6 93 -7.070
115 FC6 94 -9.511
115 FC6 95 -11.464
115 FC6 96 -12.441
115 FC6 97 -11.464
115 FC6 98 -9.511
115 FC6 99 -6.582
115 FC6 100 -4.140
115 FC6 101 -3.164
115 FC6 102 -2.187
115 FC6 103 -2.187
115 FC6 104 -2.187
115 FC6 105 -2.187
115 FC6 106 -3.164
115 FC6 107 -4.140
115 FC6 108 -6.093
115 FC6 109 -7.558
115 FC6 110 -8.535
115 FC6 111 -9.023
115 FC6 112 -9.023
115 FC6 113 -8.535
115 FC6 114 -8.046
115 FC6 115 -6.582
115 FC6 116 -4.628
115 FC6 117 -2.675
115 FC6 118 0.743
115 FC6 119 3.672
115 FC6 120 5.625
115 FC6 121 6.602
115 FC6 122 6.114
115 FC6 123 4.161
115 FC6 124 2.207
115 FC6 125 1.231
115 FC6 126 0.743
115 FC6 127 1.231
115 FC6 128 2.207
115 FC6 129 3.184
115 FC6 130 4.161
115 FC6 131 5.137
115 FC6 132 6.114
115 FC6 133 6.602
115 FC6 134 6.114
115 FC6 135 4.161
115 FC6 136 1.719
115 FC6 137 -0.722
115 FC6 138 -1.699
115 FC6 139 -2.187
115 FC6 140 -1.699
115 FC6 141 -1.699
115 FC6 142 -1.699
115 FC6 143 -1.211
115 FC6 144 -0.722
115 FC6 145 0.254
115 FC6 146 0.743
115 FC6 147 1.719
115 FC6 148 1.719
115 FC6 149 1.231
115 FC6 150 0.254
115 FC6 151 -1.211
115 FC6 152 -3.164
115 FC6 153 -4.628
115 FC6 154 -5.605
115 FC6 155 -5.605
115 FC6 156 -5.117
115 FC6 157 -4.628
115 FC6 158 -4.628
115 FC6 159 -5.605
115 FC6 160 -7.070
115 FC6 161 -8.535
115 FC6 162 -8.535
115 FC6 163 -7.558
115 FC6 164 -6.093
115 FC6 165 -5.117
115 FC6 166 -5.117
115 FC6 167 -6.093
115 FC6 168 -7.558
115 FC6 169 -8.535
115 FC6 170 -9.023
115 FC6 171 -9.511
115 FC6 172 -10.000
115 FC6 173 -10.000
115 FC6 174 -10.488
115 FC6 175 -10.488
115 FC6 176 -10.488
115 FC6 177 -10.000
115 FC6 178 -10.000
115 FC6 179 -9.023
115 FC6 180 -8.046
115 FC6 181 -6.093
115 FC6 182 -4.140
115 FC6 183 -3.164
115 FC6 184 -3.164
115 FC6 185 -4.140
115 FC6 186 -5.117
115 FC6 187 -5.117
115 FC6 188 -5.117
115 FC6 189 -5.117
115 FC6 190 -5.605
115 FC6 191 -7.070
115 FC6 192 -8.046
115 FC6 193 -8.046
115 FC6 194 -7.558
115 FC6 195 -6.093
115 FC6 196 -5.605
115 FC6 197 -4.628
115 FC6 198 -3.652
115 FC6 199 -2.187
115 FC6 200 -0.722
115 FC6 201 0.743
115 FC6 202 0.743
115 FC6 203 -0.722
115 FC6 204 -2.675
115 FC6 205 -4.628
115 FC6 206 -5.117
115 FC6 207 -5.117
115 FC6 208 -4.628
115 FC6 209 -4.140
115 FC6 210 -3.652
115 FC6 211 -4.140
115 FC6 212 -4.628
115 FC6 213 -5.117
115 FC6 214 -5.605
115 FC6 215 -5.605
115 FC6 216 -5.117
115 FC6 217 -4.140
115 FC6 218 -3.652
115 FC6 219 -3.652
115 FC6 220 -3.652
115 FC6 221 -3.652
115 FC6 222 -2.675
115 FC6 223 -1.211
115 FC6 224 0.743
115 FC6 225 2.207
115 FC6 226 2.696
115 FC6 227 2.207
115 FC6 228 1.231
115 FC6 229 0.743
115 FC6 230 -0.234
115 FC6 231 -1.699
115 FC6 232 -2.675
115 FC6 233 -3.652
115 FC6 234 -3.164
115 FC6 235 -1.699
115 FC6 236 0.254
115 FC6 237 1.719
115 FC6 238 2.696
115 FC6 239 2.207
115 FC6 240 1.719
115 FC6 241 1.231
115 FC6 242 1.231
115 FC6 243 0.743
115 FC6 244 0.254
115 FC6 245 -0.722
115 FC6 246 -2.187
115 FC6 247 -3.164
115 FC6 248 -3.652
115 FC6 249 -3.164
115 FC6 250 -2.675
115 FC6 251 -1.699
115 FC6 252 -0.722
115 FC6 253 0.743
115 FC6 254 2.207
115 FC6 255 2.696
# FC5 chan 10
115 FC5 0 -0.122
115 FC5 1 -1.587
115 FC5 2 -2.075
115 FC5 3 -0.122
115 FC5 4 1.343
115 FC5 5 2.319
115 FC5 6 1.831
115 FC5 7 1.343
115 FC5 8 1.831
115 FC5 9 3.296
115 FC5 10 5.249
115 FC5 11 5.249
115 FC5 12 3.784
115 FC5 13 1.343
115 FC5 14 -0.122
115 FC5 15 -0.610
115 FC5 16 0.366
115 FC5 17 0.854
115 FC5 18 0.366
115 FC5 19 -1.099
115 FC5 20 -2.563
115 FC5 21 -3.540
115 FC5 22 -4.028
115 FC5 23 -5.005
115 FC5 24 -6.470
115 FC5 25 -7.935
115 FC5 26 -7.935
115 FC5 27 -5.493
115 FC5 28 -1.587
115 FC5 29 1.831
115 FC5 30 3.296
115 FC5 31 2.808
115 FC5 32 0.854
115 FC5 33 -0.610
115 FC5 34 -0.122
115 FC5 35 1.831
115 FC5 36 3.784
115 FC5 37 5.737
115 FC5 38 7.202
115 FC5 39 7.690
115 FC5 40 8.179
115 FC5 41 7.202
115 FC5 42 5.737
115 FC5 43 4.272
115 FC5 44 4.272
115 FC5 45 5.249
115 FC5 46 7.202
115 FC5 47 8.667
115 FC5 48 8.667
115 FC5 49 8.667
115 FC5 50 8.667
115 FC5 51 9.155
115 FC5 52 9.155
115 FC5 53 8.179
115 FC5 54 6.226
115 FC5 55 3.296
115 FC5 56 1.831
115 FC5 57 2.319
115 FC5 58 3.784
115 FC5 59 4.272
115 FC5 60 3.784
115 FC5 61 2.808
115 FC5 62 2.808
115 FC5 63 4.272
115 FC5 64 5.249
115 FC5 65 5.737
115 FC5 66 4.761
115 FC5 67 3.296
115 FC5 68 2.808
115 FC5 69 3.296
115 FC5 70 3.296
115 FC5 71 2.808
115 FC5 72 1.831
115 FC5 73 -0.122
115 FC5 74 -0.610
115 FC5 75 -0.610
115 FC5 76 -0.610
115 FC5 77 -0.610
115 FC5 78 -1.587
115 FC5 79 -1.099
115 FC5 80 0.854
115 FC5 81 3.784
115 FC5 82 6.226
115 FC5 83 7.202
115 FC5 84 6.226
115 FC5 85 4.761
115 FC5 86 3.784
115 FC5 87 4.272
115 FC5 88 4.761
115 FC5 89 5.249
115 FC5 90 4.272
115 FC5 91 2.319
115 FC5 92 0.854
115 FC5 93 0.366
115 FC5 94 0.854
115 FC5 95 1.831
115 FC5 96 1.831
115 FC5 97 1.343
115 FC5 98 0.366
115 FC5 99 -1.587
115 FC5 100 -2.563
115 FC5 101 -3.540
115 FC5 102 -3.540
115 FC5 103 -2.563
115 FC5 104 -2.075
115 FC5 105 -1.587
115 FC5 106 -2.075
115 FC5 107 -2.563
115 FC5 108 -2.563
115 FC5 109 -2.075
115 FC5 110 -1.099
115 FC5 111 -0.610
115 FC5 112 -0.122
115 FC5 113 -0.122
115 FC5 114 -0.122
115 FC5 115 -0.122
115 FC5 116 -0.122
115 FC5 117 -0.610
115 FC5 118 -0.610
115 FC5 119 0.366
115 FC5 120 2.808
115 FC5 121 5.249
115 FC5 122 7.690
115 FC5 123 8.667
115 FC5 124 8.667
115 FC5 125 8.179
115 FC5 126 8.179
115 FC5 127 7.202
115 FC5 128 5.249
115 FC5 129 2.808
115 FC5 130 0.366
115 FC5 131 -0.610
115 FC5 132 0.854
115 FC5 133 2.808
115 FC5 134 4.272
115 FC5 135 4.761
115 FC5 136 4.272
115 FC5 137 4.272
115 FC5 138 4.761
115 FC5 139 5.249
115 FC5 140 4.761
115 FC5 141 2.319
115 FC5 142 -0.610
115 FC5 143 -3.052
115 FC5 144 -3.540
115 FC5 145 -2.563
115 FC5 146 -1.587
115 FC5 147 -1.099
115 FC5 148 -1.587
115 FC5 149 -1.587
115 FC5 150 -1.587
115 FC5 151 -2.075
115 FC5 152 -2.563
115 FC5 153 -3.540
115 FC5 154 -4.517
115 FC5 155 -5.005
115 FC5 156 -4.028
115 FC5 157 -3.052
115 FC5 158 -2.563
115 FC5 159 -2.563
115 FC5 160 -3.540
115 FC5 161 -5.005
115 FC5 162 -5.493
115 FC5 163 -5.981
115 FC5 164 -5.981
115 FC5 165 -5.493
115 FC5 166 -5.005
115 FC5 167 -4.028
115 FC5 168 -4.028
115 FC5 169 -4.028
115 FC5 170 -4.517
115 FC5 171 -5.005
115 FC5 172 -5.005
115 FC5 173 -5.005
115 FC5 174 -4.517
115 FC5 175 -3.540
115 FC5 176 -3.052
115 FC5 177 -2.563
115 FC5 178 -1.587
115 FC5 179 -0.122
115 FC5 180 0.854
115 FC5 181 0.366
115 FC5 182 -0.610
115 FC5 183 -2.563
115 FC5 184 -4.028
115 FC5 185 -4.028
115 FC5 186 -3.540
115 FC5 187 -3.540
115 FC5 188 -4.028
115 FC5 189 -5.005
115 FC5 190 -5.005
115 FC5 191 -3.540
115 FC5 192 -1.099
115 FC5 193 1.343
115 FC5 194 1.831
115 FC5 195 0.854
115 FC5 196 -0.610
115 FC5 197 -0.610
115 FC5 198 -0.122
115 FC5 199 0.366
115 FC5 200 0.854
115 FC5 201 -0.610
115 FC5 202 -1.587
115 FC5 203 -2.563
115 FC5 204 -1.587
115 FC5 205 -0.122
115 FC5 206 1.343
115 FC5 207 2.319
115 FC5 208 2.319
115 FC5 209 1.831
115 FC5 210 1.343
115 FC5 211 0.854
115 FC5 212 0.366
115 FC5 213 -0.610
115 FC5 214 -0.610
115 FC5 215 -0.610
115 FC5 216 0.366
115 FC5 217 1.343
115 FC5 218 1.831
115 FC5 219 1.831
115 FC5 220 1.343
115 FC5 221 1.343
115 FC5 222 1.343
115 FC5 223 1.343
115 FC5 224 0.366
115 FC5 225 -0.122
115 FC5 226 -0.610
115 FC5 227 0.366
115 FC5 228 1.831
115 FC5 229 3.296
115 FC5 230 3.784
115 FC5 231 3.784
115 FC5 232 3.784
115 FC5 233 3.784
115 FC5 234 3.296
115 FC5 235 2.319
115 FC5 236 1.343
115 FC5 237 0.366
115 FC5 238 -0.122
115 FC5 239 1.343
115 FC5 240 3.296
115 FC5 241 5.249
115 FC5 242 6.714
115 FC5 243 6.714
115 FC5 244 5.737
115 FC5 245 3.784
115 FC5 246 1.343
115 FC5 247 -1.099
115 FC5 248 -3.052
115 FC5 249 -4.517
115 FC5 250 -5.005
115 FC5 251 -4.517
115 FC5 252 -4.028
115 FC5 253 -3.540
115 FC5 254 -2.563
115 FC5 255 -3.052
# FC2 chan 11
115 FC2 0 -1.506
115 FC2 1 -0.529
115 FC2 2 0.448
115 FC2 3 0.448
115 FC2 4 -0.529
115 FC2 5 -1.994
115 FC2 6 -3.459
115 FC2 7 -3.947
115 FC2 8 -3.947
115 FC2 9 -2.970
115 FC2 10 -1.994
115 FC2 11 -1.017
115 FC2 12 -0.041
115 FC2 13 0.448
115 FC2 14 0.936
115 FC2 15 0.936
115 FC2 16 1.424
115 FC2 17 1.912
115 FC2 18 2.401
115 FC2 19 2.889
115 FC2 20 2.889
115 FC2 21 2.401
115 FC2 22 1.424
115 FC2 23 0.936
115 FC2 24 -0.041
115 FC2 25 -0.529
115 FC2 26 -1.017
115 FC2 27 -1.506
115 FC2 28 -1.506
115 FC2 29 -1.506
115 FC2 30 -1.017
115 FC2 31 -1.017
115 FC2 32 -1.017
115 FC2 33 -1.506
115 FC2 34 -2.482
115 FC2 35 -3.459
115 FC2 36 -3.947
115 FC2 37 -3.459
115 FC2 38 -3.459
115 FC2 39 -3.947
115 FC2 40 -4.435
115 FC2 41 -4.924
115 FC2 42 -4.924
115 FC2 43 -4.924
115 FC2 44 -3.947
115 FC2 45 -2.970
115 FC2 46 -1.994
115 FC2 47 -1.506
115 FC2 48 -1.017
115 FC2 49 -0.529
115 FC2 50 -0.041
115 FC2 51 -0.041
115 FC2 52 -0.529
115 FC2 53 -0.529
115 FC2 54 -1.506
115 FC2 55 -1.017
115 FC2 56 -1.017
115 FC2 57 -0.529
115 FC2 58 0.448
115 FC2 59 0.936
115 FC2 60 1.424
115 FC2 61 1.424
115 FC2 62 1.424
115 FC2 63 0.936
115 FC2 64 0.448
115 FC2 65 -0.041
115 FC2 66 -0.529
115 FC2 67 -1.017
115 FC2 68 -1.506
115 FC2 69 -1.994
115 FC2 70 -1.506
115 FC2 71 -1.506
115 FC2 72 -1.506
115 FC2 73 -1.994
115 FC2 74 -2.970
115 FC2 75 -4.435
115 FC2 76 -5.900
115 FC2 77 -6.877
115 FC2 78 -6.877
115 FC2 79 -6.388
115 FC2 80 -4.924
115 FC2 81 -3.459
115 FC2 82 -2.482
115 FC2 83 -1.994
115 FC2 84 -1.994
115 FC2 85 -1.994
115 FC2 86 -1.994
115 FC2 87 -1.994
115 FC2 88 -1.994
115 FC2 89 -1.994
115 FC2 90 -1.994
115 FC2 91 -1.506
115 FC2 92 -1.017
115 FC2 93 -1.017
115 FC2 94 -1.506
115 FC2 95 -1.994
115 FC2 96 -1.994
115 FC2 97 -1.506
115 FC2 98 -1.017
115 FC2 99 -0.041
115 FC2 100 0.448
115 FC2 101 0.448
115 FC2 102 0.448
115 FC2 103 0.448
115 FC2 104 1.424
115 FC2 105 1.912
115 FC2 106 1.912
115 FC2 107 1.424
115 FC2 108 -0.041
115 FC2 109 -1.506
115 FC2 110 -2.970
115 FC2 111 -3.459
115 FC2 112 -2.970
115 FC2 113 -2.482
115 FC2 114 -2.482
115 FC2 115 -2.482
115 FC2 116 -2.482
115 FC2 117 -2.970
115 FC2 118 -3.459
115 FC2 119 -3.947
115 FC2 120 -4.435
115 FC2 121 -4.435
115 FC2 122 -4.435
115 FC2 123 -4.435
115 FC2 124 -4.924
115 FC2 125 -5.412
115 FC2 126 -5.900
115 FC2 127 -6.388
115 FC2 128 -5.900
115 FC2 129 -5.412
115 FC2 130 -4.435
115 FC2 131 -2.482
115 FC2 132 -1.017
115 FC2 133 0.448
115 FC2 134 0.936
115 FC2 135 0.936
115 FC2 136 0.448
115 FC2 137 0.448
115 FC2 138 0.448
115 FC2 139 0.936
115 FC2 140 1.912
115 FC2 141 2.401
115 FC2 142 2.401
115 FC2 143 2.401
115 FC2 144 1.912
115 FC2 145 1.424
115 FC2 146 1.424
115 FC2 147 0.936
115 FC2 148 0.936
115 FC2 149 -0.529
115 FC2 150 -1.994
115 FC2 151 -3.459
115 FC2 152 -4.924
115 FC2 153 -5.900
115 FC2 154 -5.900
115 FC2 155 -5.900
115 FC2 156 -5.412
115 FC2 157 -5.412
115 FC2 158 -5.900
115 FC2 159 -6.388
115 FC2 160 -7.365
115 FC2 161 -8.830
115 FC2 162 -8.830
115 FC2 163 -8.830
115 FC2 164 -8.341
115 FC2 165 -8.341
115 FC2 166 -8.341
115 FC2 167 -8.830
115 FC2 168 -9.318
115 FC2 169 -9.806
115 FC2 170 -9.806
115 FC2 171 -9.318
115 FC2 172 -8.830
115 FC2 173 -7.853
115 FC2 174 -7.365
115 FC2 175 -7.365
115 FC2 176 -7.365
115 FC2 177 -7.365
115 FC2 178 -7.853
115 FC2 179 -7.365
115 FC2 180 -6.388
115 FC2 181 -4.924
115 FC2 182 -3.947
115 FC2 183 -3.947
115 FC2 184 -3.947
115 FC2 185 -4.435
115 FC2 186 -4.435
115 FC2 187 -4.435
115 FC2 188 -3.947
115 FC2 189 -3.947
115 FC2 190 -4.435
115 FC2 191 -4.435
115 FC2 192 -4.435
115 FC2 193 -3.459
115 FC2 194 -2.970
115 FC2 195 -2.482
115 FC2 196 -2.482
115 FC2 197 -2.482
115 FC2 198 -2.482
115 FC2 199 -2.482
115 FC2 200 -2.482
115 FC2 201 -2.482
115 FC2 202 -2.970
115 FC2 203 -3.459
115 FC2 204 -3.947
115 FC2 205 -3.947
115 FC2 206 -3.947
115 FC2 207 -3.947
115 FC2 208 -3.947
115 FC2 209 -3.947
115 FC2 210 -4.435
115 FC2 211 -4.924
115 FC2 212 -4.924
115 FC2 213 -4.435
115 FC2 214 -3.947
115 FC2 215 -3.947
115 FC2 216 -3.459
115 FC2 217 -2.970
115 FC2 218 -2.970
115 FC2 219 -2.482
115 FC2 220 -2.482
115 FC2 221 -1.994
115 FC2 222 -1.017
115 FC2 223 -0.529
115 FC2 224 0.448
115 FC2 225 0.936
115 FC2 226 1.424
115 FC2 227 1.424
115 FC2 228 0.936
115 FC2 229 0.936
115 FC2 230 0.936
115 FC2 231 0.936
115 FC2 232 1.912
115 FC2 233 3.377
115 FC2 234 4.842
115 FC2 235 5.330
115 FC2 236 4.842
115 FC2 237 3.377
115 FC2 238 2.401
115 FC2 239 1.424
115 FC2 240 1.424
115 FC2 241 1.912
115 FC2 242 1.912
115 FC2 243 1.912
115 FC2 244 1.424
115 FC2 245 0.448
115 FC2 246 -0.041
115 FC2 247 -0.529
115 FC2 248 -0.041
115 FC2 249 0.448
115 FC2 250 0.448
115 FC2 251 0.448
115 FC2 252 0.448
115 FC2 253 0.936
115 FC2 254 1.912
115 FC2 255 2.889
# FC1 chan 12
115 FC1 0 -0.570
115 FC1 1 -0.570
115 FC1 2 -0.570
115 FC1 3 -0.570
115 FC1 4 -1.058
115 FC1 5 -0.570
115 FC1 6 -0.570
115 FC1 7 -0.570
115 FC1 8 0.407
115 FC1 9 0.895
115 FC1 10 1.383
115 FC1 11 1.383
115 FC1 12 0.895
115 FC1 13 0.407
115 FC1 14 -0.081
115 FC1 15 0.407
115 FC1 16 0.407
115 FC1 17 1.383
115 FC1 18 2.360
115 FC1 19 2.360
115 FC1 20 1.872
115 FC1 21 0.895
115 FC1 22 0.407
115 FC1 23 -0.081
115 FC1 24 -0.081
115 FC1 25 -0.570
115 FC1 26 -1.546
115 FC1 27 -2.523
115 FC1 28 -3.011
115 FC1 29 -3.011
115 FC1 30 -2.523
115 FC1 31 -2.035
115 FC1 32 -1.058
115 FC1 33 -0.570
115 FC1 34 -0.081
115 FC1 35 -0.081
115 FC1 36 0.407
115 FC1 37 0.895
115 FC1 38 0.895
115 FC1 39 0.895
115 FC1 40 0.895
115 FC1 41 0.407
115 FC1 42 0.407
115 FC1 43 1.383
115 FC1 44 2.360
115 FC1 45 3.337
115 FC1 46 4.313
115 FC1 47 5.290
115 FC1 48 5.778
115 FC1 49 6.266
115 FC1 50 6.266
115 FC1 51 5.778
115 FC1 52 4.801
115 FC1 53 4.313
115 FC1 54 3.337
115 FC1 55 2.848
115 FC1 56 2.848
115 FC1 57 2.848
115 FC1 58 2.848
115 FC1 59 2.360
115 FC1 60 2.360
115 FC1 61 1.872
115 FC1 62 2.360
115 FC1 63 3.337
115 FC1 64 4.313
115 FC1 65 4.801
115 FC1 66 4.313
115 FC1 67 3.337
115 FC1 68 1.872
115 FC1 69 1.872
115 FC1 70 1.872
115 FC1 71 2.848
115 FC1 72 3.825
115 FC1 73 3.825
115 FC1 74 2.848
115 FC1 75 0.895
115 FC1 76 -1.058
115 FC1 77 -3.011
115 FC1 78 -3.988
115 FC1 79 -3.499
115 FC1 80 -2.523
115 FC1 81 -0.570
115 FC1 82 0.895
115 FC1 83 2.360
115 FC1 84 2.360
115 FC1 85 2.360
115 FC1 86 2.360
115 FC1 87 2.848
115 FC1 88 3.825
115 FC1 89 4.313
115 FC1 90 4.801
115 FC1 91 5.290
115 FC1 92 5.778
115 FC1 93 5.778
115 FC1 94 5.778
115 FC1 95 5.778
115 FC1 96 5.290
115 FC1 97 5.290
115 FC1 98 5.778
115 FC1 99 5.778
115 FC1 100 6.266
115 FC1 101 5.778
115 FC1 102 5.778
115 FC1 103 5.290
115 FC1 104 5.290
115 FC1 105 5.290
115 FC1 106 5.778
115 FC1 107 5.778
115 FC1 108 5.290
115 FC1 109 4.313
115 FC1 110 3.825
115 FC1 111 3.337
115 FC1 112 3.337
115 FC1 113 2.848
115 FC1 114 2.360
115 FC1 115 1.872
115 FC1 116 0.895
115 FC1 117 -0.081
115 FC1 118 -0.570
115 FC1 119 -1.058
115 FC1 120 -1.546
115 FC1 121 -1.546
115 FC1 122 -1.546
115 FC1 123 -1.546
115 FC1 124 -1.058
115 FC1 125 -1.058
115 FC1 126 -2.035
115 FC1 127 -2.523
115 FC1 128 -3.499
115 FC1 129 -3.988
115 FC1 130 -3.988
115 FC1 131 -3.011
115 FC1 132 -1.546
115 FC1 133 0.407
115 FC1 134 1.383
115 FC1 135 1.872
115 FC1 136 1.383
115 FC1 137 1.872
115 FC1 138 2.360
115 FC1 139 3.825
115 FC1 140 4.313
115 FC1 141 4.313
115 FC1 142 3.825
115 FC1 143 2.848
115 FC1 144 2.360
115 FC1 145 1.872
115 FC1 146 1.383
115 FC1 147 1.383
115 FC1 148 0.895
115 FC1 149 0.407
115 FC1 150 -0.081
115 FC1 151 -0.570
115 FC1 152 -2.035
115 FC1 153 -3.011
115 FC1 154 -4.476
115 FC1 155 -4.964
115 FC1 156 -4.964
115 FC1 157 -4.476
115 FC1 158 -3.499
115 FC1 159 -3.499
115 FC1 160 -3.988
115 FC1 161 -4.964
115 FC1 162 -5.452
115 FC1 163 -5.941
115 FC1 164 -5.941
115 FC1 165 -5.941
115 FC1 166 -5.941
115 FC1 167 -6.429
115 FC1 168 -6.917
115 FC1 169 -7.406
115 FC1 170 -7.406
115 FC1 171 -7.406
115 FC1 172 -6.429
115 FC1 173 -5.452
115 FC1 174 -4.476
115 FC1 175 -3.011
115 FC1 176 -2.523
115 FC1 177 -2.523
115 FC1 178 -3.011
115 FC1 179 -2.523
115 FC1 180 -2.035
115 FC1 181 -1.058
115 FC1 182 -1.058
115 FC1 183 -1.058
115 FC1 184 -2.035
115 FC1 185 -2.523
115 FC1 186 -2.523
115 FC1 187 -1.546
115 FC1 188 -0.570
115 FC1 189 -0.081
115 FC1 190 -0.081
115 FC1 191 -0.081
115 FC1 192 0.407
115 FC1 193 1.383
115 FC1 194 1.872
115 FC1 195 1.872
115 FC1 196 1.383
115 FC1 197 0.895
115 FC1 198 0.895
115 FC1 199 0.895
115 FC1 200 1.383
115 FC1 201 1.872
115 FC1 202 1.383
115 FC1 203 0.895
115 FC1 204 0.407
115 FC1 205 0.407
115 FC1 206 0.895
115 FC1 207 0.895
115 FC1 208 0.407
115 FC1 209 -0.081
115 FC1 210 -0.570
115 FC1 211 -0.570
115 FC1 212 -0.570
115 FC1 213 -0.081
115 FC1 214 0.407
115 FC1 215 1.383
115 FC1 216 2.360
115 FC1 217 3.337
115 FC1 218 3.825
115 FC1 219 3.825
115 FC1 220 3.337
115 FC1 221 3.337
115 FC1 222 3.337
115 FC1 223 3.337
115 FC1 224 3.337
115 FC1 225 3.337
115 FC1 226 3.825
115 FC1 227 4.313
115 FC1 228 5.290
115 FC1 229 6.266
115 FC1 230 7.243
115 FC1 231 7.731
115 FC1 232 8.708
115 FC1 233 9.196
115 FC1 234 9.684
115 FC1 235 9.684
115 FC1 236 8.708
115 FC1 237 7.243
115 FC1 238 6.266
115 FC1 239 5.778
115 FC1 240 5.778
115 FC1 241 6.266
115 FC1 242 7.243
115 FC1 243 7.731
115 FC1 244 7.243
115 FC1 245 6.266
115 FC1 246 5.290
115 FC1 247 4.313
115 FC1 248 3.337
115 FC1 249 3.337
115 FC1 250 3.337
115 FC1 251 3.825
115 FC1 252 3.825
115 FC1 253 3.825
115 FC1 254 3.337
115 FC1 255 3.337
# T8 chan 13
115 T8 0 3.326
115 T8 1 7.721
115 T8 2 12.115
115 T8 3 13.092
115 T8 4 10.651
115 T8 5 6.256
115 T8 6 2.838
115 T8 7 1.862
115 T8 8 0.397
115 T8 9 -2.533
115 T8 10 -6.927
115 T8 11 -10.834
115 T8 12 -9.857
115 T8 13 -3.998
115 T8 14 4.791
115 T8 15 11.139
115 T8 16 12.604
115 T8 17 9.674
115 T8 18 5.768
115 T8 19 3.326
115 T8 20 2.838
115 T8 21 3.815
115 T8 22 3.815
115 T8 23 3.326
115 T8 24 2.838
115 T8 25 3.815
115 T8 26 6.256
115 T8 27 7.721
115 T8 28 7.721
115 T8 29 5.768
115 T8 30 3.815
115 T8 31 2.350
115 T8 32 1.862
115 T8 33 0.885
115 T8 34 -0.580
115 T8 35 -1.556
115 T8 36 -1.556
115 T8 37 1.373
115 T8 38 5.280
115 T8 39 8.209
115 T8 40 8.698
115 T8 41 8.209
115 T8 42 8.209
115 T8 43 8.698
115 T8 44 9.674
115 T8 45 8.698
115 T8 46 5.280
115 T8 47 0.885
115 T8 48 -1.556
115 T8 49 -1.068
115 T8 50 1.862
115 T8 51 3.815
115 T8 52 3.815
115 T8 53 0.397
115 T8 54 -2.533
115 T8 55 -3.998
115 T8 56 -3.510
115 T8 57 -1.556
115 T8 58 -1.068
115 T8 59 -2.045
115 T8 60 -3.510
115 T8 61 -3.021
115 T8 62 -0.580
115 T8 63 1.862
115 T8 64 2.838
115 T8 65 1.373
115 T8 66 -1.556
115 T8 67 -3.998
115 T8 68 -3.998
115 T8 69 -3.510
115 T8 70 -3.021
115 T8 71 -3.021
115 T8 72 -3.021
115 T8 73 -2.533
115 T8 74 -1.068
115 T8 75 -0.092
115 T8 76 -0.580
115 T8 77 -1.556
115 T8 78 -2.533
115 T8 79 -1.556
115 T8 80 0.885
115 T8 81 2.350
115 T8 82 2.350
115 T8 83 1.373
115 T8 84 0.397
115 T8 85 0.397
115 T8 86 0.397
115 T8 87 -0.580
115 T8 88 -3.998
115 T8 89 -8.392
115 T8 90 -11.810
115 T8 91 -13.763
115 T8 92 -13.275
115 T8 93 -13.275
115 T8 94 -15.717
115 T8 95 -18.158
115 T8 96 -19.623
115 T8 97 -18.646
115 T8 98 -15.228
115 T8 99 -11.322
115 T8 100 -9.857
115 T8 101 -10.345
115 T8 102 -10.834
115 T8 103 -10.834
115 T8 104 -9.369
115 T8 105 -7.416
115 T8 106 -6.927
115 T8 107 -7.904
115 T8 108 -9.857
115 T8 109 -11.810
115 T8 110 -12.787
115 T8 111 -13.275
115 T8 112 -13.275
115 T8 113 -12.787
115 T8 114 -12.299
115 T8 115 -10.834
115 T8 116 -8.881
115 T8 117 -6.439
115 T8 118 -3.998
115 T8 119 -2.045
115 T8 120 0.885
115 T8 121 3.815
115 T8 122 7.233
115 T8 123 10.162
115 T8 124 11.139
115 T8 125 9.674
115 T8 126 6.744
115 T8 127 3.815
115 T8 128 1.862
115 T8 129 1.373
115 T8 130 2.838
115 T8 131 4.791
115 T8 132 5.768
115 T8 133 5.280
115 T8 134 3.815
115 T8 135 1.862
115 T8 136 -0.580
115 T8 137 -3.021
115 T8 138 -4.974
115 T8 139 -6.927
115 T8 140 -8.392
115 T8 141 -7.904
115 T8 142 -6.927
115 T8 143 -5.463
115 T8 144 -4.974
115 T8 145 -4.486
115 T8 146 -4.486
115 T8 147 -3.021
115 T8 148 -0.580
115 T8 149 1.373
115 T8 150 1.373
115 T8 151 -1.068
115 T8 152 -4.486
115 T8 153 -6.927
115 T8 154 -7.904
115 T8 155 -6.927
115 T8 156 -6.439
115 T8 157 -7.416
115 T8 158 -9.369
115 T8 159 -10.834
115 T8 160 -10.834
115 T8 161 -8.392
115 T8 162 -4.974
115 T8 163 -2.045
115 T8 164 -1.068
115 T8 165 -1.556
115 T8 166 -2.045
115 T8 167 -2.533
115 T8 168 -2.045
115 T8 169 -2.045
115 T8 170 -3.021
115 T8 171 -5.463
115 T8 172 -7.904
115 T8 173 -10.834
115 T8 174 -13.275
115 T8 175 -15.228
115 T8 176 -15.717
115 T8 177 -14.252
115 T8 178 -9.369
115 T8 179 -3.021
115 T8 180 2.350
115 T8 181 3.815
115 T8 182 1.862
115 T8 183 -2.533
115 T8 184 -5.951
115 T8 185 -6.927
115 T8 186 -5.463
115 T8 187 -3.998
115 T8 188 -3.998
115 T8 189 -5.951
115 T8 190 -7.416
115 T8 191 -7.904
115 T8 192 -6.927
115 T8 193 -4.974
115 T8 194 -3.998
115 T8 195 -4.486
115 T8 196 -5.951
115 T8 197 -6.927
115 T8 198 -6.927
115 T8 199 -4.974
115 T8 200 -3.021
115 T8 201 -0.580
115 T8 202 1.373
115 T8 203 1.862
115 T8 204 0.397
115 T8 205 -1.556
115 T8 206 -3.510
115 T8 207 -4.486
115 T8 208 -3.998
115 T8 209 -3.021
115 T8 210 -1.068
115 T8 211 -0.580
115 T8 212 -1.556
115 T8 213 -3.998
115 T8 214 -7.416
115 T8 215 -8.881
115 T8 216 -9.369
115 T8 217 -8.392
115 T8 218 -7.416
115 T8 219 -6.439
115 T8 220 -6.439
115 T8 221 -6.439
115 T8 222 -5.463
115 T8 223 -4.486
115 T8 224 -3.998
115 T8 225 -3.510
115 T8 226 -4.486
115 T8 227 -5.463
115 T8 228 -6.927
115 T8 229 -8.392
115 T8 230 -10.345
115 T8 231 -12.787
115 T8 232 -15.228
115 T8 233 -17.181
115 T8 234 -18.646
115 T8 235 -19.623
115 T8 236 -19.623
115 T8 237 -18.646
115 T8 238 -15.717
115 T8 239 -11.322
115 T8 240 -5.951
115 T8 241 -2.045
115 T8 242 -1.068
115 T8 243 -3.510
115 T8 244 -7.904
115 T8 245 -12.787
115 T8 246 -15.717
115 T8 247 -16.205
115 T8 248 -14.740
115 T8 249 -11.810
115 T8 250 -9.369
115 T8 251 -7.904
115 T8 252 -7.904
115 T8 253 -8.881
115 T8 254 -9.369
115 T8 255 -8.881
# T7 chan 14
115 T7 0 -0.071
115 T7 1 -0.559
115 T7 2 0.905
115 T7 3 1.882
115 T7 4 2.370
115 T7 5 1.882
115 T7 6 1.882
115 T7 7 3.347
115 T7 8 5.788
115 T7 9 6.765
115 T7 10 6.765
115 T7 11 5.300
115 T7 12 3.835
115 T7 13 3.347
115 T7 14 3.835
115 T7 15 4.323
115 T7 16 3.347
115 T7 17 1.394
115 T7 18 -1.048
115 T7 19 -3.489
115 T7 20 -5.442
115 T7 21 -6.419
115 T7 22 -7.395
115 T7 23 -6.907
115 T7 24 -5.931
115 T7 25 -3.489
115 T7 26 -0.559
115 T7 27 1.882
115 T7 28 3.835
115 T7 29 4.812
115 T7 30 5.788
115 T7 31 6.276
115 T7 32 6.765
115 T7 33 6.276
115 T7 34 6.276
115 T7 35 6.276
115 T7 36 7.253
115 T7 37 8.718
115 T7 38 9.694
115 T7 39 9.206
115 T7 40 7.741
115 T7 41 6.276
115 T7 42 4.812
115 T7 43 4.323
115 T7 44 4.323
115 T7 45 4.812
115 T7 46 5.300
115 T7 47 6.276
115 T7 48 7.253
115 T7 49 7.741
115 T7 50 6.765
115 T7 51 4.812
115 T7 52 1.882
115 T7 53 -0.071
115 T7 54 -0.559
115 T7 55 -0.071
115 T7 56 0.417
115 T7 57 0.905
115 T7 58 0.905
115 T7 59 0.417
115 T7 60 0.417
115 T7 61 0.905
115 T7 62 0.905
115 T7 63 0.417
115 T7 64 -0.559
115 T7 65 -1.048
115 T7 66 -1.048
115 T7 67 -0.559
115 T7 68 -0.071
115 T7 69 -0.071
115 T7 70 0.417
115 T7 71 1.394
115 T7 72 2.370
115 T7 73 3.347
115 T7 74 2.858
115 T7 75 1.394
115 T7 76 -1.048
115 T7 77 -2.024
115 T7 78 -2.513
115 T7 79 -1.536
115 T7 80 0.417
115 T7 81 1.882
115 T7 82 4.323
115 T7 83 6.276
115 T7 84 7.253
115 T7 85 7.253
115 T7 86 5.788
115 T7 87 3.347
115 T7 88 1.394
115 T7 89 0.417
115 T7 90 -0.071
115 T7 91 -1.048
115 T7 92 -3.489
115 T7 93 -6.419
115 T7 94 -8.372
115 T7 95 -8.860
115 T7 96 -7.884
115 T7 97 -6.907
115 T7 98 -6.907
115 T7 99 -7.884
115 T7 100 -9.837
115 T7 101 -11.302
115 T7 102 -11.790
115 T7 103 -11.790
115 T7 104 -11.790
115 T7 105 -11.790
115 T7 106 -11.790
115 T7 107 -11.790
115 T7 108 -11.302
115 T7 109 -10.813
115 T7 110 -10.813
115 T7 111 -11.302
115 T7 112 -11.302
115 T7 113 -10.813
115 T7 114 -8.860
115 T7 115 -5.931
115 T7 116 -3.489
115 T7 117 -2.024
115 T7 118 -1.048
115 T7 119 -0.071
115 T7 120 1.394
115 T7 121 3.835
115 T7 122 7.253
115 T7 123 10.183
115 T7 124 12.624
115 T7 125 13.601
115 T7 126 13.601
115 T7 127 12.136
115 T7 128 10.671
115 T7 129 8.718
115 T7 130 6.765
115 T7 131 4.812
115 T7 132 3.347
115 T7 133 2.858
115 T7 134 2.370
115 T7 135 3.347
115 T7 136 3.347
115 T7 137 2.858
115 T7 138 0.905
115 T7 139 -2.024
115 T7 140 -4.954
115 T7 141 -7.395
115 T7 142 -8.860
115 T7 143 -8.372
115 T7 144 -7.395
115 T7 145 -5.931
115 T7 146 -4.954
115 T7 147 -4.466
115 T7 148 -4.954
115 T7 149 -5.442
115 T7 150 -5.442
115 T7 151 -4.954
115 T7 152 -3.489
115 T7 153 -2.024
115 T7 154 -1.048
115 T7 155 -0.559
115 T7 156 -1.048
115 T7 157 -2.513
115 T7 158 -3.977
115 T7 159 -5.442
115 T7 160 -5.931
115 T7 161 -6.907
115 T7 162 -7.395
115 T7 163 -7.395
115 T7 164 -7.395
115 T7 165 -7.395
115 T7 166 -7.395
115 T7 167 -7.395
115 T7 168 -7.395
115 T7 169 -6.907
115 T7 170 -6.419
115 T7 171 -5.442
115 T7 172 -3.977
115 T7 173 -3.977
115 T7 174 -4.466
115 T7 175 -5.442
115 T7 176 -5.931
115 T7 177 -4.954
115 T7 178 -3.489
115 T7 179 -2.024
115 T7 180 -1.536
115 T7 181 -3.001
115 T7 182 -4.466
115 T7 183 -5.931
115 T7 184 -6.419
115 T7 185 -5.442
115 T7 186 -3.977
115 T7 187 -3.001
115 T7 188 -2.024
115 T7 189 -2.024
115 T7 190 -2.024
115 T7 191 -1.536
115 T7 192 -1.536
115 T7 193 -1.536
115 T7 194 -2.513
115 T7 195 -3.489
115 T7 196 -3.977
115 T7 197 -3.489
115 T7 198 -2.513
115 T7 199 -1.048
115 T7 200 -1.048
115 T7 201 -1.536
115 T7 202 -2.024
115 T7 203 -2.513
115 T7 204 -2.024
115 T7 205 -0.559
115 T7 206 -0.071
115 T7 207 -0.559
115 T7 208 -2.513
115 T7 209 -3.977
115 T7 210 -4.466
115 T7 211 -3.977
115 T7 212 -3.001
115 T7 213 -2.024
115 T7 214 -1.536
115 T7 215 -1.536
115 T7 216 -2.024
115 T7 217 -2.513
115 T7 218 -3.001
115 T7 219 -3.489
115 T7 220 -4.466
115 T7 221 -4.954
115 T7 222 -4.954
115 T7 223 -4.954
115 T7 224 -5.931
115 T7 225 -6.907
115 T7 226 -7.395
115 T7 227 -7.884
115 T7 228 -6.907
115 T7 229 -6.907
115 T7 230 -7.884
115 T7 231 -10.325
115 T7 232 -13.743
115 T7 233 -16.673
115 T7 234 -17.161
115 T7 235 -16.184
115 T7 236 -13.743
115 T7 237 -11.790
115 T7 238 -10.325
115 T7 239 -9.349
115 T7 240 -8.372
115 T7 241 -7.395
115 T7 242 -6.419
115 T7 243 -5.931
115 T7 244 -4.954
115 T7 245 -3.977
115 T7 246 -3.001
115 T7 247 -3.001
115 T7 248 -4.954
115 T7 249 -8.372
115 T7 250 -12.767
115 T7 251 -15.208
115 T7 252 -15.696
115 T7 253 -15.208
115 T7 254 -14.720
115 T7 255 -15.208
# CZ chan 15
115 CZ 0 12.787
115 CZ 1 14.740
115 CZ 2 15.228
115 CZ 3 15.228
115 CZ 4 13.763
115 CZ 5 12.299
115 CZ 6 11.322
115 CZ 7 11.810
115 CZ 8 11.810
115 CZ 9 11.322
115 CZ 10 9.857
115 CZ 11 7.904
115 CZ 12 7.416
115 CZ 13 8.881
115 CZ 14 11.810
115 CZ 15 14.252
115 CZ 16 15.717
115 CZ 17 14.740
115 CZ 18 12.299
115 CZ 19 9.369
115 CZ 20 6.927
115 CZ 21 6.439
115 CZ 22 6.439
115 CZ 23 6.927
115 CZ 24 6.439
115 CZ 25 4.974
115 CZ 26 2.533
115 CZ 27 0.580
115 CZ 28 0.092
115 CZ 29 2.045
115 CZ 30 5.951
115 CZ 31 10.345
115 CZ 32 13.275
115 CZ 33 13.763
115 CZ 34 12.299
115 CZ 35 11.322
115 CZ 36 11.322
115 CZ 37 13.275
115 CZ 38 15.717
115 CZ 39 17.670
115 CZ 40 18.646
115 CZ 41 18.158
115 CZ 42 17.670
115 CZ 43 17.670
115 CZ 44 18.158
115 CZ 45 18.646
115 CZ 46 17.670
115 CZ 47 17.181
115 CZ 48 16.693
115 CZ 49 17.181
115 CZ 50 18.158
115 CZ 51 18.158
115 CZ 52 17.181
115 CZ 53 15.228
115 CZ 54 14.252
115 CZ 55 14.740
115 CZ 56 15.228
115 CZ 57 16.205
115 CZ 58 16.205
115 CZ 59 15.228
115 CZ 60 14.252
115 CZ 61 14.740
115 CZ 62 15.717
115 CZ 63 16.205
115 CZ 64 15.228
115 CZ 65 13.763
115 CZ 66 11.810
115 CZ 67 11.810
115 CZ 68 14.252
115 CZ 69 16.693
115 CZ 70 18.646
115 CZ 71 17.670
115 CZ 72 16.205
115 CZ 73 14.740
115 CZ 74 14.252
115 CZ 75 14.740
115 CZ 76 14.740
115 CZ 77 13.275
115 CZ 78 11.322
115 CZ 79 9.857
115 CZ 80 10.345
115 CZ 81 11.810
115 CZ 82 13.763
115 CZ 83 14.740
115 CZ 84 14.740
115 CZ 85 14.740
115 CZ 86 14.252
115 CZ 87 13.275
115 CZ 88 11.810
115 CZ 89 9.369
115 CZ 90 6.439
115 CZ 91 3.998
115 CZ 92 2.045
115 CZ 93 -0.397
115 CZ 94 -4.303
115 CZ 95 -9.674
115 CZ 96 -14.557
115 CZ 97 -16.998
115 CZ 98 -16.022
115 CZ 99 -12.604
115 CZ 100 -8.698
115 CZ 101 -7.233
115 CZ 102 -7.721
115 CZ 103 -9.674
115 CZ 104 -11.627
115 CZ 105 -12.115
115 CZ 106 -11.139
115 CZ 107 -10.162
115 CZ 108 -10.162
115 CZ 109 -11.139
115 CZ 110 -12.604
115 CZ 111 -12.604
115 CZ 112 -11.139
115 CZ 113 -8.698
115 CZ 114 -6.256
115 CZ 115 -4.303
115 CZ 116 -3.815
115 CZ 117 -2.838
115 CZ 118 -1.373
115 CZ 119 2.045
115 CZ 120 5.951
115 CZ 121 10.345
115 CZ 122 13.275
115 CZ 123 13.275
115 CZ 124 9.857
115 CZ 125 4.486
115 CZ 126 -1.862
115 CZ 127 -8.209
115 CZ 128 -13.092
115 CZ 129 -14.069
115 CZ 130 -11.139
115 CZ 131 -4.791
115 CZ 132 3.510
115 CZ 133 10.345
115 CZ 134 13.275
115 CZ 135 11.322
115 CZ 136 6.439
115 CZ 137 0.580
115 CZ 138 -2.838
115 CZ 139 -4.303
115 CZ 140 -3.815
115 CZ 141 -3.815
115 CZ 142 -4.791
115 CZ 143 -6.744
115 CZ 144 -9.186
115 CZ 145 -10.651
115 CZ 146 -10.162
115 CZ 147 -8.698
115 CZ 148 -7.233
115 CZ 149 -6.744
115 CZ 150 -7.721
115 CZ 151 -9.674
115 CZ 152 -12.115
115 CZ 153 -13.092
115 CZ 154 -11.627
115 CZ 155 -8.698
115 CZ 156 -7.233
115 CZ 157 -6.744
115 CZ 158 -9.186
115 CZ 159 -13.580
115 CZ 160 -17.487
115 CZ 161 -20.416
115 CZ 162 -20.905
115 CZ 163 -19.440
115 CZ 164 -17.487
115 CZ 165 -15.533
115 CZ 166 -15.533
115 CZ 167 -16.510
115 CZ 168 -19.440
115 CZ 169 -21.881
115 CZ 170 -23.346
115 CZ 171 -22.858
115 CZ 172 -20.416
115 CZ 173 -16.998
115 CZ 174 -16.022
115 CZ 175 -17.487
115 CZ 176 -20.905
115 CZ 177 -24.323
115 CZ 178 -25.299
115 CZ 179 -23.346
115 CZ 180 -19.440
115 CZ 181 -15.533
115 CZ 182 -14.069
115 CZ 183 -14.557
115 CZ 184 -16.998
115 CZ 185 -19.440
115 CZ 186 -21.881
115 CZ 187 -22.858
115 CZ 188 -22.858
115 CZ 189 -21.881
115 CZ 190 -19.928
115 CZ 191 -18.463
115 CZ 192 -17.975
115 CZ 193 -18.951
115 CZ 194 -19.928
115 CZ 195 -19.928
115 CZ 196 -18.463
115 CZ 197 -16.510
115 CZ 198 -14.557
115 CZ 199 -13.580
115 CZ 200 -13.092
115 CZ 201 -13.092
115 CZ 202 -12.115
115 CZ 203 -11.139
115 CZ 204 -10.651
115 CZ 205 -11.627
115 CZ 206 -13.580
115 CZ 207 -15.533
115 CZ 208 -16.510
115 CZ 209 -15.533
115 CZ 210 -13.092
115 CZ 211 -11.627
115 CZ 212 -12.115
115 CZ 213 -15.045
115 CZ 214 -19.440
115 CZ 215 -22.858
115 CZ 216 -26.276
115 CZ 217 -28.717
115 CZ 218 -30.670
115 CZ 219 -31.647
115 CZ 220 -31.647
115 CZ 221 -30.670
115 CZ 222 -30.670
115 CZ 223 -33.600
115 CZ 224 -37.994
115 CZ 225 -42.877
115 CZ 226 -43.854
115 CZ 227 -41.412
115 CZ 228 -38.483
115 CZ 229 -39.459
115 CZ 230 -46.783
115 CZ 231 -56.549
115 CZ 232 -64.850
115 CZ 233 -67.291
115 CZ 234 -64.362
115 CZ 235 -60.944
115 CZ 236 -59.967
115 CZ 237 -61.432
115 CZ 238 -62.408
115 CZ 239 -60.455
115 CZ 240 -56.061
115 CZ 241 -51.666
115 CZ 242 -49.713
115 CZ 243 -50.690
115 CZ 244 -51.666
115 CZ 245 -51.178
115 CZ 246 -50.201
115 CZ 247 -49.713
115 CZ 248 -52.155
115 CZ 249 -55.573
115 CZ 250 -57.526
115 CZ 251 -56.061
115 CZ 252 -51.178
115 CZ 253 -45.807
115 CZ 254 -42.389
115 CZ 255 -41.412
# C3 chan 16
115 C3 0 -0.427
115 C3 1 -1.404
115 C3 2 -1.892
115 C3 3 -1.892
115 C3 4 -0.916
115 C3 5 -0.427
115 C3 6 0.549
115 C3 7 1.526
115 C3 8 2.502
115 C3 9 3.479
115 C3 10 2.991
115 C3 11 2.014
115 C3 12 1.038
115 C3 13 0.061
115 C3 14 0.061
115 C3 15 0.061
115 C3 16 0.061
115 C3 17 -0.427
115 C3 18 -0.916
115 C3 19 -2.380
115 C3 20 -2.869
115 C3 21 -3.357
115 C3 22 -2.869
115 C3 23 -2.380
115 C3 24 -1.892
115 C3 25 -1.892
115 C3 26 -1.892
115 C3 27 -1.404
115 C3 28 -1.404
115 C3 29 -0.916
115 C3 30 -0.916
115 C3 31 -0.427
115 C3 32 -0.427
115 C3 33 0.061
115 C3 34 0.061
115 C3 35 0.549
115 C3 36 1.038
115 C3 37 2.014
115 C3 38 2.991
115 C3 39 3.967
115 C3 40 3.967
115 C3 41 3.479
115 C3 42 2.991
115 C3 43 2.502
115 C3 44 2.014
115 C3 45 2.014
115 C3 46 2.502
115 C3 47 2.991
115 C3 48 3.967
115 C3 49 3.967
115 C3 50 3.479
115 C3 51 2.014
115 C3 52 1.038
115 C3 53 0.061
115 C3 54 -0.427
115 C3 55 -0.916
115 C3 56 -0.427
115 C3 57 -0.916
115 C3 58 -0.916
115 C3 59 -0.916
115 C3 60 -0.916
115 C3 61 -0.916
115 C3 62 -0.427
115 C3 63 0.061
115 C3 64 0.549
115 C3 65 1.038
115 C3 66 1.526
115 C3 67 1.038
115 C3 68 1.038
115 C3 69 0.549
115 C3 70 0.061
115 C3 71 -0.427
115 C3 72 -0.427
115 C3 73 0.061
115 C3 74 0.061
115 C3 75 0.549
115 C3 76 0.061
115 C3 77 -0.916
115 C3 78 -1.404
115 C3 79 -1.404
115 C3 80 -0.916
115 C3 81 0.549
115 C3 82 1.526
115 C3 83 2.502
115 C3 84 2.502
115 C3 85 2.014
115 C3 86 1.526
115 C3 87 1.526
115 C3 88 2.014
115 C3 89 2.014
115 C3 90 2.014
115 C3 91 1.038
115 C3 92 0.061
115 C3 93 -0.427
115 C3 94 -0.427
115 C3 95 0.061
115 C3 96 0.549
115 C3 97 1.038
115 C3 98 0.061
115 C3 99 -0.916
115 C3 100 -1.892
115 C3 101 -2.380
115 C3 102 -2.869
115 C3 103 -3.357
115 C3 104 -3.845
115 C3 105 -4.822
115 C3 106 -5.798
115 C3 107 -5.798
115 C3 108 -4.822
115 C3 109 -4.333
115 C3 110 -3.357
115 C3 111 -3.357
115 C3 112 -3.357
115 C3 113 -2.869
115 C3 114 -2.380
115 C3 115 -1.404
115 C3 116 -0.916
115 C3 117 -0.916
115 C3 118 -1.404
115 C3 119 -1.404
115 C3 120 -0.916
115 C3 121 0.549
115 C3 122 2.014
115 C3 123 3.479
115 C3 124 3.967
115 C3 125 4.456
115 C3 126 4.456
115 C3 127 3.479
115 C3 128 2.991
115 C3 129 1.526
115 C3 130 0.061
115 C3 131 -1.404
115 C3 132 -2.380
115 C3 133 -2.869
115 C3 134 -2.869
115 C3 135 -2.380
115 C3 136 -2.380
115 C3 137 -2.380
115 C3 138 -2.869
115 C3 139 -2.869
115 C3 140 -3.357
115 C3 141 -3.845
115 C3 142 -4.333
115 C3 143 -4.333
115 C3 144 -4.333
115 C3 145 -4.333
115 C3 146 -4.822
115 C3 147 -4.822
115 C3 148 -4.822
115 C3 149 -4.333
115 C3 150 -3.845
115 C3 151 -2.869
115 C3 152 -2.380
115 C3 153 -2.380
115 C3 154 -2.869
115 C3 155 -2.869
115 C3 156 -3.357
115 C3 157 -2.869
115 C3 158 -2.869
115 C3 159 -2.869
115 C3 160 -2.869
115 C3 161 -2.869
115 C3 162 -2.869
115 C3 163 -2.869
115 C3 164 -3.357
115 C3 165 -3.845
115 C3 166 -4.333
115 C3 167 -4.333
115 C3 168 -4.333
115 C3 169 -3.357
115 C3 170 -2.869
115 C3 171 -2.380
115 C3 172 -2.380
115 C3 173 -1.892
115 C3 174 -1.892
115 C3 175 -1.404
115 C3 176 -1.404
115 C3 177 -1.404
115 C3 178 -1.404
115 C3 179 -0.916
115 C3 180 -0.916
115 C3 181 -0.916
115 C3 182 -1.404
115 C3 183 -1.892
115 C3 184 -2.380
115 C3 185 -2.380
115 C3 186 -1.892
115 C3 187 -0.916
115 C3 188 -0.916
115 C3 189 -0.916
115 C3 190 -0.916
115 C3 191 -0.427
115 C3 192 0.061
115 C3 193 0.549
115 C3 194 0.061
115 C3 195 -0.427
115 C3 196 -0.916
115 C3 197 -0.916
115 C3 198 -0.916
115 C3 199 0.061
115 C3 200 0.061
115 C3 201 0.061
115 C3 202 0.061
115 C3 203 0.061
115 C3 204 0.549
115 C3 205 1.038
115 C3 206 1.038
115 C3 207 0.061
115 C3 208 -0.916
115 C3 209 -0.916
115 C3 210 -0.916
115 C3 211 -0.427
115 C3 212 0.061
115 C3 213 0.061
115 C3 214 0.061
115 C3 215 0.061
115 C3 216 0.061
115 C3 217 0.061
115 C3 218 0.061
115 C3 219 0.061
115 C3 220 -0.427
115 C3 221 -0.427
115 C3 222 -0.916
115 C3 223 -1.404
115 C3 224 -2.380
115 C3 225 -2.869
115 C3 226 -3.357
115 C3 227 -2.869
115 C3 228 -1.404
115 C3 229 -0.427
115 C3 230 0.061
115 C3 231 -0.427
115 C3 232 -1.404
115 C3 233 -2.380
115 C3 234 -3.357
115 C3 235 -3.845
115 C3 236 -4.822
115 C3 237 -4.822
115 C3 238 -5.310
115 C3 239 -4.822
115 C3 240 -3.845
115 C3 241 -2.380
115 C3 242 -0.427
115 C3 243 1.038
115 C3 244 2.014
115 C3 245 2.014
115 C3 246 2.014
115 C3 247 0.549
115 C3 248 -1.404
115 C3 249 -3.357
115 C3 250 -5.310
115 C3 251 -6.775
115 C3 252 -6.775
115 C3 253 -6.775
115 C3 254 -7.263
115 C3 255 -7.263
# C4 chan 17
115 C4 0 1.180
115 C4 1 1.668
115 C4 2 2.645
115 C4 3 2.645
115 C4 4 2.157
115 C4 5 0.692
115 C4 6 -0.285
115 C4 7 -1.261
115 C4 8 -1.750
115 C4 9 -1.750
115 C4 10 -1.750
115 C4 11 -1.750
115 C4 12 -1.261
115 C4 13 -0.285
115 C4 14 0.692
115 C4 15 1.668
115 C4 16 2.157
115 C4 17 2.157
115 C4 18 1.668
115 C4 19 2.157
115 C4 20 2.645
115 C4 21 2.645
115 C4 22 2.645
115 C4 23 2.645
115 C4 24 1.668
115 C4 25 1.668
115 C4 26 2.645
115 C4 27 3.621
115 C4 28 4.598
115 C4 29 5.086
115 C4 30 5.086
115 C4 31 3.621
115 C4 32 2.157
115 C4 33 1.180
115 C4 34 0.203
115 C4 35 -0.285
115 C4 36 0.203
115 C4 37 1.180
115 C4 38 1.668
115 C4 39 1.668
115 C4 40 1.668
115 C4 41 1.668
115 C4 42 1.668
115 C4 43 1.180
115 C4 44 1.180
115 C4 45 0.203
115 C4 46 -0.773
115 C4 47 -1.261
115 C4 48 -1.261
115 C4 49 -1.261
115 C4 50 -0.773
115 C4 51 -0.773
115 C4 52 -0.773
115 C4 53 -0.285
115 C4 54 0.203
115 C4 55 0.203
115 C4 56 1.180
115 C4 57 1.180
115 C4 58 1.180
115 C4 59 0.692
115 C4 60 0.203
115 C4 61 -0.285
115 C4 62 -0.773
115 C4 63 -0.773
115 C4 64 -0.285
115 C4 65 -0.285
115 C4 66 -0.285
115 C4 67 -0.773
115 C4 68 -1.261
115 C4 69 -1.261
115 C4 70 -0.773
115 C4 71 -0.773
115 C4 72 -0.773
115 C4 73 -1.261
115 C4 74 -1.750
115 C4 75 -2.238
115 C4 76 -2.238
115 C4 77 -1.750
115 C4 78 -0.773
115 C4 79 0.203
115 C4 80 0.692
115 C4 81 0.692
115 C4 82 0.692
115 C4 83 0.203
115 C4 84 -0.773
115 C4 85 -1.261
115 C4 86 -1.750
115 C4 87 -2.238
115 C4 88 -2.238
115 C4 89 -2.238
115 C4 90 -1.750
115 C4 91 -2.726
115 C4 92 -3.215
115 C4 93 -3.703
115 C4 94 -4.679
115 C4 95 -4.679
115 C4 96 -4.679
115 C4 97 -4.679
115 C4 98 -3.703
115 C4 99 -3.215
115 C4 100 -2.238
115 C4 101 -1.750
115 C4 102 -1.261
115 C4 103 -0.773
115 C4 104 0.203
115 C4 105 0.692
115 C4 106 0.692
115 C4 107 0.203
115 C4 108 -0.773
115 C4 109 -1.750
115 C4 110 -2.238
115 C4 111 -2.238
115 C4 112 -2.238
115 C4 113 -1.750
115 C4 114 -1.261
115 C4 115 -0.285
115 C4 116 0.692
115 C4 117 2.157
115 C4 118 4.110
115 C4 119 5.086
115 C4 120 5.575
115 C4 121 5.575
115 C4 122 5.575
115 C4 123 6.063
115 C4 124 6.063
115 C4 125 6.063
115 C4 126 5.086
115 C4 127 4.598
115 C4 128 4.598
115 C4 129 5.086
115 C4 130 5.575
115 C4 131 5.575
115 C4 132 5.575
115 C4 133 4.598
115 C4 134 3.621
115 C4 135 3.133
115 C4 136 2.157
115 C4 137 1.668
115 C4 138 0.692
115 C4 139 0.203
115 C4 140 0.203
115 C4 141 0.692
115 C4 142 1.180
115 C4 143 1.180
115 C4 144 1.180
115 C4 145 1.668
115 C4 146 1.668
115 C4 147 2.645
115 C4 148 3.133
115 C4 149 3.133
115 C4 150 2.157
115 C4 151 0.692
115 C4 152 -0.285
115 C4 153 -0.773
115 C4 154 -0.773
115 C4 155 -0.285
115 C4 156 -0.773
115 C4 157 -1.261
115 C4 158 -1.750
115 C4 159 -1.750
115 C4 160 -1.261
115 C4 161 -1.261
115 C4 162 -1.261
115 C4 163 -1.261
115 C4 164 -1.261
115 C4 165 -0.285
115 C4 166 0.203
115 C4 167 0.692
115 C4 168 0.203
115 C4 169 -0.285
115 C4 170 -0.773
115 C4 171 -1.261
115 C4 172 -1.261
115 C4 173 -2.238
115 C4 174 -3.215
115 C4 175 -4.679
115 C4 176 -5.168
115 C4 177 -4.191
115 C4 178 -2.238
115 C4 179 -0.773
115 C4 180 0.203
115 C4 181 0.692
115 C4 182 1.180
115 C4 183 1.180
115 C4 184 1.668
115 C4 185 2.157
115 C4 186 1.668
115 C4 187 0.692
115 C4 188 0.203
115 C4 189 -0.285
115 C4 190 0.203
115 C4 191 0.203
115 C4 192 0.203
115 C4 193 -0.285
115 C4 194 -0.773
115 C4 195 -0.285
115 C4 196 -0.285
115 C4 197 -0.285
115 C4 198 0.203
115 C4 199 0.203
115 C4 200 0.692
115 C4 201 1.668
115 C4 202 2.157
115 C4 203 2.157
115 C4 204 1.668
115 C4 205 0.203
115 C4 206 -0.285
115 C4 207 -0.285
115 C4 208 0.203
115 C4 209 1.180
115 C4 210 1.180
115 C4 211 1.180
115 C4 212 0.203
115 C4 213 0.203
115 C4 214 -0.285
115 C4 215 -0.285
115 C4 216 -0.773
115 C4 217 -1.261
115 C4 218 -1.750
115 C4 219 -1.750
115 C4 220 -1.750
115 C4 221 -0.285
115 C4 222 1.180
115 C4 223 2.157
115 C4 224 3.133
115 C4 225 3.621
115 C4 226 3.133
115 C4 227 1.668
115 C4 228 0.203
115 C4 229 -1.261
115 C4 230 -2.238
115 C4 231 -2.726
115 C4 232 -2.726
115 C4 233 -2.726
115 C4 234 -2.726
115 C4 235 -1.750
115 C4 236 -0.773
115 C4 237 0.692
115 C4 238 1.668
115 C4 239 2.645
115 C4 240 2.645
115 C4 241 2.157
115 C4 242 1.180
115 C4 243 -0.285
115 C4 244 -1.750
115 C4 245 -2.726
115 C4 246 -3.215
115 C4 247 -2.238
115 C4 248 -0.773
115 C4 249 1.180
115 C4 250 2.645
115 C4 251 3.133
115 C4 252 3.133
115 C4 253 3.133
115 C4 254 3.133
115 C4 255 3.621
# CP5 chan 18
115 CP5 0 1.577
115 CP5 1 -0.376
115 CP5 2 -0.376
115 CP5 3 0.112
115 CP5 4 1.088
115 CP5 5 2.065
115 CP5 6 2.553
115 CP5 7 4.018
115 CP5 8 5.483
115 CP5 9 5.971
115 CP5 10 5.483
115 CP5 11 4.018
115 CP5 12 2.553
115 CP5 13 1.577
115 CP5 14 2.065
115 CP5 15 2.553
115 CP5 16 3.042
115 CP5 17 2.553
115 CP5 18 1.088
115 CP5 19 -0.865
115 CP5 20 -1.841
115 CP5 21 -2.330
115 CP5 22 -1.841
115 CP5 23 -0.865
115 CP5 24 -0.376
115 CP5 25 0.600
115 CP5 26 1.088
115 CP5 27 1.577
115 CP5 28 2.553
115 CP5 29 3.530
115 CP5 30 4.018
115 CP5 31 4.018
115 CP5 32 3.530
115 CP5 33 3.042
115 CP5 34 2.553
115 CP5 35 3.042
115 CP5 36 4.506
115 CP5 37 6.460
115 CP5 38 8.413
115 CP5 39 9.389
115 CP5 40 9.878
115 CP5 41 9.878
115 CP5 42 8.901
115 CP5 43 7.924
115 CP5 44 6.460
115 CP5 45 4.995
115 CP5 46 4.018
115 CP5 47 4.018
115 CP5 48 4.018
115 CP5 49 4.018
115 CP5 50 3.042
115 CP5 51 1.577
115 CP5 52 -0.376
115 CP5 53 -1.841
115 CP5 54 -1.841
115 CP5 55 -1.841
115 CP5 56 -0.865
115 CP5 57 0.112
115 CP5 58 0.112
115 CP5 59 -0.376
115 CP5 60 -0.865
115 CP5 61 -1.841
115 CP5 62 -1.841
115 CP5 63 -1.353
115 CP5 64 -0.865
115 CP5 65 0.112
115 CP5 66 1.577
115 CP5 67 3.042
115 CP5 68 3.530
115 CP5 69 3.530
115 CP5 70 3.042
115 CP5 71 2.065
115 CP5 72 1.577
115 CP5 73 1.088
115 CP5 74 1.577
115 CP5 75 2.065
115 CP5 76 2.065
115 CP5 77 2.065
115 CP5 78 1.577
115 CP5 79 2.065
115 CP5 80 3.042
115 CP5 81 4.995
115 CP5 82 6.460
115 CP5 83 6.948
115 CP5 84 6.460
115 CP5 85 4.995
115 CP5 86 4.018
115 CP5 87 3.530
115 CP5 88 3.530
115 CP5 89 3.530
115 CP5 90 3.042
115 CP5 91 1.088
115 CP5 92 -1.841
115 CP5 93 -3.794
115 CP5 94 -4.771
115 CP5 95 -4.283
115 CP5 96 -3.794
115 CP5 97 -3.794
115 CP5 98 -4.771
115 CP5 99 -6.236
115 CP5 100 -7.701
115 CP5 101 -8.189
115 CP5 102 -8.189
115 CP5 103 -8.677
115 CP5 104 -9.654
115 CP5 105 -10.630
115 CP5 106 -11.607
115 CP5 107 -11.119
115 CP5 108 -10.142
115 CP5 109 -9.165
115 CP5 110 -9.165
115 CP5 111 -9.165
115 CP5 112 -9.165
115 CP5 113 -8.189
115 CP5 114 -6.236
115 CP5 115 -3.794
115 CP5 116 -2.330
115 CP5 117 -1.353
115 CP5 118 -0.865
115 CP5 119 0.600
115 CP5 120 2.553
115 CP5 121 4.995
115 CP5 122 8.413
115 CP5 123 10.854
115 CP5 124 13.295
115 CP5 125 14.760
115 CP5 126 15.737
115 CP5 127 15.737
115 CP5 128 14.760
115 CP5 129 12.807
115 CP5 130 9.878
115 CP5 131 6.460
115 CP5 132 3.530
115 CP5 133 1.577
115 CP5 134 0.600
115 CP5 135 0.600
115 CP5 136 0.600
115 CP5 137 0.112
115 CP5 138 -1.353
115 CP5 139 -3.306
115 CP5 140 -5.259
115 CP5 141 -6.724
115 CP5 142 -7.212
115 CP5 143 -6.236
115 CP5 144 -5.747
115 CP5 145 -5.259
115 CP5 146 -5.747
115 CP5 147 -5.747
115 CP5 148 -5.747
115 CP5 149 -5.259
115 CP5 150 -3.794
115 CP5 151 -2.330
115 CP5 152 -0.865
115 CP5 153 0.112
115 CP5 154 0.600
115 CP5 155 1.088
115 CP5 156 1.088
115 CP5 157 1.088
115 CP5 158 0.600
115 CP5 159 0.600
115 CP5 160 0.600
115 CP5 161 0.600
115 CP5 162 0.600
115 CP5 163 -0.865
115 CP5 164 -2.818
115 CP5 165 -4.283
115 CP5 166 -4.771
115 CP5 167 -3.794
115 CP5 168 -1.841
115 CP5 169 0.112
115 CP5 170 1.577
115 CP5 171 1.577
115 CP5 172 1.088
115 CP5 173 0.112
115 CP5 174 0.112
115 CP5 175 0.600
115 CP5 176 0.600
115 CP5 177 1.577
115 CP5 178 1.577
115 CP5 179 1.577
115 CP5 180 0.600
115 CP5 181 -0.376
115 CP5 182 -1.841
115 CP5 183 -2.818
115 CP5 184 -2.330
115 CP5 185 -0.865
115 CP5 186 1.088
115 CP5 187 3.042
115 CP5 188 3.042
115 CP5 189 3.042
115 CP5 190 2.553
115 CP5 191 2.553
115 CP5 192 3.042
115 CP5 193 3.042
115 CP5 194 1.577
115 CP5 195 -0.865
115 CP5 196 -2.330
115 CP5 197 -2.330
115 CP5 198 -1.353
115 CP5 199 0.600
115 CP5 200 1.577
115 CP5 201 2.065
115 CP5 202 2.553
115 CP5 203 2.553
115 CP5 204 3.042
115 CP5 205 2.553
115 CP5 206 1.577
115 CP5 207 0.112
115 CP5 208 -0.865
115 CP5 209 -0.865
115 CP5 210 0.112
115 CP5 211 1.088
115 CP5 212 2.065
115 CP5 213 2.065
115 CP5 214 1.577
115 CP5 215 1.088
115 CP5 216 0.600
115 CP5 217 0.600
115 CP5 218 0.112
115 CP5 219 -0.376
115 CP5 220 -1.353
115 CP5 221 -2.330
115 CP5 222 -3.306
115 CP5 223 -3.794
115 CP5 224 -4.283
115 CP5 225 -4.283
115 CP5 226 -4.283
115 CP5 227 -3.794
115 CP5 228 -3.306
115 CP5 229 -2.818
115 CP5 230 -3.306
115 CP5 231 -5.747
115 CP5 232 -8.677
115 CP5 233 -11.119
115 CP5 234 -12.583
115 CP5 235 -13.560
115 CP5 236 -14.048
115 CP5 237 -14.537
115 CP5 238 -14.537
115 CP5 239 -13.560
115 CP5 240 -11.607
115 CP5 241 -8.677
115 CP5 242 -4.771
115 CP5 243 -0.865
115 CP5 244 2.065
115 CP5 245 4.018
115 CP5 246 4.506
115 CP5 247 3.530
115 CP5 248 0.600
115 CP5 249 -3.794
115 CP5 250 -8.189
115 CP5 251 -11.607
115 CP5 252 -13.072
115 CP5 253 -13.560
115 CP5 254 -13.560
115 CP5 255 -13.072
# CP6 chan 19
115 CP6 0 3.754
115 CP6 1 4.730
115 CP6 2 6.195
115 CP6 3 6.683
115 CP6 4 5.707
115 CP6 5 4.242
115 CP6 6 2.289
115 CP6 7 0.824
115 CP6 8 0.336
115 CP6 9 -0.641
115 CP6 10 -2.106
115 CP6 11 -3.082
115 CP6 12 -2.594
115 CP6 13 -1.129
115 CP6 14 0.824
115 CP6 15 2.777
115 CP6 16 2.777
115 CP6 17 1.801
115 CP6 18 0.824
115 CP6 19 0.824
115 CP6 20 1.801
115 CP6 21 3.265
115 CP6 22 3.754
115 CP6 23 3.754
115 CP6 24 3.754
115 CP6 25 4.242
115 CP6 26 5.707
115 CP6 27 8.148
115 CP6 28 9.125
115 CP6 29 9.125
115 CP6 30 7.660
115 CP6 31 5.219
115 CP6 32 3.265
115 CP6 33 1.312
115 CP6 34 0.824
115 CP6 35 0.824
115 CP6 36 1.312
115 CP6 37 2.777
115 CP6 38 4.242
115 CP6 39 5.707
115 CP6 40 6.683
115 CP6 41 7.660
115 CP6 42 7.660
115 CP6 43 7.172
115 CP6 44 6.195
115 CP6 45 4.242
115 CP6 46 1.801
115 CP6 47 -0.153
115 CP6 48 -2.106
115 CP6 49 -3.571
115 CP6 50 -4.059
115 CP6 51 -4.547
115 CP6 52 -5.035
115 CP6 53 -5.035
115 CP6 54 -4.547
115 CP6 55 -3.571
115 CP6 56 -2.594
115 CP6 57 -2.106
115 CP6 58 -1.617
115 CP6 59 -2.106
115 CP6 60 -2.594
115 CP6 61 -2.594
115 CP6 62 -2.106
115 CP6 63 -1.129
115 CP6 64 -1.129
115 CP6 65 -1.129
115 CP6 66 -2.594
115 CP6 67 -3.571
115 CP6 68 -4.059
115 CP6 69 -3.571
115 CP6 70 -2.106
115 CP6 71 -1.129
115 CP6 72 -1.129
115 CP6 73 -1.617
115 CP6 74 -2.594
115 CP6 75 -2.594
115 CP6 76 -2.106
115 CP6 77 -1.129
115 CP6 78 -0.153
115 CP6 79 -0.153
115 CP6 80 -0.641
115 CP6 81 -1.617
115 CP6 82 -2.594
115 CP6 83 -3.082
115 CP6 84 -2.594
115 CP6 85 -1.617
115 CP6 86 -1.617
115 CP6 87 -2.594
115 CP6 88 -4.059
115 CP6 89 -5.524
115 CP6 90 -7.477
115 CP6 91 -8.942
115 CP6 92 -10.406
115 CP6 93 -11.871
115 CP6 94 -12.848
115 CP6 95 -13.336
115 CP6 96 -12.848
115 CP6 97 -11.383
115 CP6 98 -10.406
115 CP6 99 -9.430
115 CP6 100 -8.942
115 CP6 101 -8.453
115 CP6 102 -7.477
115 CP6 103 -6.989
115 CP6 104 -6.500
115 CP6 105 -6.500
115 CP6 106 -6.989
115 CP6 107 -7.965
115 CP6 108 -9.430
115 CP6 109 -10.406
115 CP6 110 -11.383
115 CP6 111 -11.871
115 CP6 112 -11.871
115 CP6 113 -11.383
115 CP6 114 -10.406
115 CP6 115 -7.965
115 CP6 116 -5.524
115 CP6 117 -2.106
115 CP6 118 0.336
115 CP6 119 2.777
115 CP6 120 3.754
115 CP6 121 4.730
115 CP6 122 5.707
115 CP6 123 6.683
115 CP6 124 7.172
115 CP6 125 7.660
115 CP6 126 7.172
115 CP6 127 7.172
115 CP6 128 7.660
115 CP6 129 8.148
115 CP6 130 8.636
115 CP6 131 8.148
115 CP6 132 6.195
115 CP6 133 3.754
115 CP6 134 1.312
115 CP6 135 -0.641
115 CP6 136 -1.129
115 CP6 137 -2.106
115 CP6 138 -2.594
115 CP6 139 -3.571
115 CP6 140 -4.547
115 CP6 141 -5.524
115 CP6 142 -6.012
115 CP6 143 -6.012
115 CP6 144 -5.524
115 CP6 145 -4.547
115 CP6 146 -2.594
115 CP6 147 -0.641
115 CP6 148 1.312
115 CP6 149 1.801
115 CP6 150 0.824
115 CP6 151 -0.641
115 CP6 152 -2.594
115 CP6 153 -3.082
115 CP6 154 -3.082
115 CP6 155 -3.082
115 CP6 156 -2.594
115 CP6 157 -2.594
115 CP6 158 -3.082
115 CP6 159 -3.082
115 CP6 160 -2.594
115 CP6 161 -2.594
115 CP6 162 -2.594
115 CP6 163 -2.594
115 CP6 164 -1.617
115 CP6 165 -0.641
115 CP6 166 0.824
115 CP6 167 1.801
115 CP6 168 2.777
115 CP6 169 2.777
115 CP6 170 2.289
115 CP6 171 0.824
115 CP6 172 -0.641
115 CP6 173 -3.571
115 CP6 174 -6.500
115 CP6 175 -8.453
115 CP6 176 -8.453
115 CP6 177 -6.989
115 CP6 178 -4.547
115 CP6 179 -2.594
115 CP6 180 -2.106
115 CP6 181 -2.106
115 CP6 182 -2.106
115 CP6 183 -1.617
115 CP6 184 -1.129
115 CP6 185 -1.617
115 CP6 186 -2.594
115 CP6 187 -4.059
115 CP6 188 -4.547
115 CP6 189 -3.571
115 CP6 190 -2.106
115 CP6 191 -1.129
115 CP6 192 -1.129
115 CP6 193 -2.106
115 CP6 194 -3.082
115 CP6 195 -4.059
115 CP6 196 -4.059
115 CP6 197 -3.571
115 CP6 198 -3.082
115 CP6 199 -2.594
115 CP6 200 -2.106
115 CP6 201 -1.129
115 CP6 202 -0.153
115 CP6 203 -0.153
115 CP6 204 -0.641
115 CP6 205 -1.617
115 CP6 206 -2.106
115 CP6 207 -1.617
115 CP6 208 -0.641
115 CP6 209 0.336
115 CP6 210 0.336
115 CP6 211 0.336
115 CP6 212 -0.641
115 CP6 213 -1.617
115 CP6 214 -2.594
115 CP6 215 -4.059
115 CP6 216 -5.524
115 CP6 217 -6.989
115 CP6 218 -7.965
115 CP6 219 -7.477
115 CP6 220 -6.500
115 CP6 221 -4.547
115 CP6 222 -3.082
115 CP6 223 -1.617
115 CP6 224 -1.129
115 CP6 225 -1.617
115 CP6 226 -3.571
115 CP6 227 -6.500
115 CP6 228 -9.918
115 CP6 229 -12.360
115 CP6 230 -14.313
115 CP6 231 -15.289
115 CP6 232 -15.289
115 CP6 233 -15.289
115 CP6 234 -14.801
115 CP6 235 -13.336
115 CP6 236 -11.871
115 CP6 237 -9.430
115 CP6 238 -6.989
115 CP6 239 -5.035
115 CP6 240 -4.547
115 CP6 241 -5.035
115 CP6 242 -6.012
115 CP6 243 -7.477
115 CP6 244 -8.942
115 CP6 245 -10.406
115 CP6 246 -11.383
115 CP6 247 -10.895
115 CP6 248 -9.918
115 CP6 249 -8.453
115 CP6 250 -7.965
115 CP6 251 -7.477
115 CP6 252 -7.965
115 CP6 253 -7.477
115 CP6 254 -6.012
115 CP6 255 -4.547
# CP1 chan 20
115 CP1 0 0.122
115 CP1 1 -0.854
115 CP1 2 -0.854
115 CP1 3 -0.366
115 CP1 4 0.610
115 CP1 5 1.099
115 CP1 6 1.587
115 CP1 7 2.075
115 CP1 8 3.052
115 CP1 9 3.052
115 CP1 10 3.052
115 CP1 11 2.075
115 CP1 12 1.099
115 CP1 13 0.610
115 CP1 14 0.122
115 CP1 15 0.610
115 CP1 16 0.122
115 CP1 17 -0.366
115 CP1 18 -1.343
115 CP1 19 -2.319
115 CP1 20 -2.319
115 CP1 21 -1.831
115 CP1 22 -1.343
115 CP1 23 -0.366
115 CP1 24 0.610
115 CP1 25 1.099
115 CP1 26 1.099
115 CP1 27 1.099
115 CP1 28 0.610
115 CP1 29 0.122
115 CP1 30 0.122
115 CP1 31 0.122
115 CP1 32 0.610
115 CP1 33 1.099
115 CP1 34 1.587
115 CP1 35 1.587
115 CP1 36 1.587
115 CP1 37 2.075
115 CP1 38 2.563
115 CP1 39 3.540
115 CP1 40 4.028
115 CP1 41 4.028
115 CP1 42 3.540
115 CP1 43 3.052
115 CP1 44 2.075
115 CP1 45 1.587
115 CP1 46 1.099
115 CP1 47 1.587
115 CP1 48 1.587
115 CP1 49 1.587
115 CP1 50 1.099
115 CP1 51 -0.366
115 CP1 52 -1.343
115 CP1 53 -1.831
115 CP1 54 -1.343
115 CP1 55 -0.854
115 CP1 56 0.122
115 CP1 57 0.122
115 CP1 58 -0.366
115 CP1 59 -0.854
115 CP1 60 -1.343
115 CP1 61 -1.343
115 CP1 62 -1.343
115 CP1 63 -0.854
115 CP1 64 -0.366
115 CP1 65 0.122
115 CP1 66 1.099
115 CP1 67 2.075
115 CP1 68 2.563
115 CP1 69 2.075
115 CP1 70 1.587
115 CP1 71 0.610
115 CP1 72 0.122
115 CP1 73 0.610
115 CP1 74 1.587
115 CP1 75 2.563
115 CP1 76 3.052
115 CP1 77 3.052
115 CP1 78 3.052
115 CP1 79 3.052
115 CP1 80 2.563
115 CP1 81 2.563
115 CP1 82 2.075
115 CP1 83 2.075
115 CP1 84 1.587
115 CP1 85 2.075
115 CP1 86 2.563
115 CP1 87 3.052
115 CP1 88 3.540
115 CP1 89 3.052
115 CP1 90 2.563
115 CP1 91 1.099
115 CP1 92 0.122
115 CP1 93 -0.366
115 CP1 94 -0.366
115 CP1 95 0.122
115 CP1 96 0.122
115 CP1 97 0.122
115 CP1 98 -0.366
115 CP1 99 -1.343
115 CP1 100 -2.319
115 CP1 101 -3.296
115 CP1 102 -3.296
115 CP1 103 -3.784
115 CP1 104 -4.272
115 CP1 105 -4.761
115 CP1 106 -5.249
115 CP1 107 -4.761
115 CP1 108 -3.784
115 CP1 109 -2.319
115 CP1 110 -1.343
115 CP1 111 -1.343
115 CP1 112 -1.831
115 CP1 113 -2.319
115 CP1 114 -1.831
115 CP1 115 -1.343
115 CP1 116 -0.366
115 CP1 117 0.122
115 CP1 118 0.122
115 CP1 119 0.610
115 CP1 120 1.099
115 CP1 121 2.563
115 CP1 122 4.028
115 CP1 123 5.493
115 CP1 124 5.981
115 CP1 125 6.470
115 CP1 126 6.958
115 CP1 127 7.446
115 CP1 128 7.935
115 CP1 129 7.446
115 CP1 130 6.470
115 CP1 131 4.517
115 CP1 132 2.563
115 CP1 133 1.099
115 CP1 134 0.122
115 CP1 135 -0.366
115 CP1 136 -0.366
115 CP1 137 -0.366
115 CP1 138 -0.366
115 CP1 139 -1.343
115 CP1 140 -1.831
115 CP1 141 -2.319
115 CP1 142 -2.319
115 CP1 143 -2.319
115 CP1 144 -1.831
115 CP1 145 -1.831
115 CP1 146 -1.831
115 CP1 147 -2.319
115 CP1 148 -2.319
115 CP1 149 -1.831
115 CP1 150 -0.854
115 CP1 151 0.610
115 CP1 152 1.587
115 CP1 153 2.563
115 CP1 154 3.052
115 CP1 155 3.540
115 CP1 156 3.540
115 CP1 157 3.540
115 CP1 158 4.028
115 CP1 159 4.517
115 CP1 160 4.517
115 CP1 161 4.517
115 CP1 162 4.517
115 CP1 163 4.028
115 CP1 164 3.052
115 CP1 165 2.075
115 CP1 166 1.587
115 CP1 167 1.587
115 CP1 168 2.075
115 CP1 169 3.052
115 CP1 170 3.540
115 CP1 171 3.540
115 CP1 172 3.540
115 CP1 173 3.540
115 CP1 174 3.052
115 CP1 175 3.052
115 CP1 176 3.540
115 CP1 177 3.540
115 CP1 178 3.052
115 CP1 179 2.563
115 CP1 180 1.587
115 CP1 181 1.587
115 CP1 182 0.610
115 CP1 183 0.610
115 CP1 184 1.099
115 CP1 185 2.075
115 CP1 186 2.075
115 CP1 187 2.075
115 CP1 188 2.075
115 CP1 189 2.563
115 CP1 190 2.563
115 CP1 191 2.563
115 CP1 192 2.075
115 CP1 193 1.587
115 CP1 194 0.610
115 CP1 195 0.610
115 CP1 196 0.610
115 CP1 197 1.099
115 CP1 198 1.587
115 CP1 199 1.587
115 CP1 200 1.587
115 CP1 201 1.587
115 CP1 202 2.075
115 CP1 203 2.563
115 CP1 204 3.052
115 CP1 205 3.052
115 CP1 206 2.075
115 CP1 207 1.099
115 CP1 208 0.610
115 CP1 209 0.122
115 CP1 210 0.610
115 CP1 211 1.099
115 CP1 212 1.587
115 CP1 213 1.587
115 CP1 214 1.587
115 CP1 215 1.587
115 CP1 216 1.099
115 CP1 217 0.610
115 CP1 218 0.122
115 CP1 219 0.122
115 CP1 220 -0.854
115 CP1 221 -1.343
115 CP1 222 -1.831
115 CP1 223 -2.808
115 CP1 224 -2.808
115 CP1 225 -2.808
115 CP1 226 -2.319
115 CP1 227 -1.831
115 CP1 228 -0.854
115 CP1 229 -0.366
115 CP1 230 -0.366
115 CP1 231 -1.343
115 CP1 232 -2.808
115 CP1 233 -4.272
115 CP1 234 -5.737
115 CP1 235 -7.202
115 CP1 236 -7.690
115 CP1 237 -7.690
115 CP1 238 -7.202
115 CP1 239 -6.226
115 CP1 240 -5.249
115 CP1 241 -4.761
115 CP1 242 -3.296
115 CP1 243 -1.831
115 CP1 244 -0.366
115 CP1 245 1.099
115 CP1 246 1.587
115 CP1 247 1.587
115 CP1 248 -0.366
115 CP1 249 -1.831
115 CP1 250 -3.296
115 CP1 251 -4.272
115 CP1 252 -4.761
115 CP1 253 -4.761
115 CP1 254 -5.737
115 CP1 255 -6.226
# CP2 chan 21
115 CP2 0 1.333
115 CP2 1 0.844
115 CP2 2 1.333
115 CP2 3 1.333
115 CP2 4 1.821
115 CP2 5 1.821
115 CP2 6 1.821
115 CP2 7 1.333
115 CP2 8 1.333
115 CP2 9 0.844
115 CP2 10 0.844
115 CP2 11 0.356
115 CP2 12 0.844
115 CP2 13 0.844
115 CP2 14 0.844
115 CP2 15 0.844
115 CP2 16 -0.132
115 CP2 17 -0.621
115 CP2 18 -1.109
115 CP2 19 -1.109
115 CP2 20 -0.621
115 CP2 21 0.356
115 CP2 22 0.844
115 CP2 23 1.333
115 CP2 24 1.821
115 CP2 25 2.309
115 CP2 26 3.774
115 CP2 27 4.262
115 CP2 28 4.751
115 CP2 29 3.774
115 CP2 30 3.286
115 CP2 31 2.309
115 CP2 32 2.309
115 CP2 33 1.821
115 CP2 34 1.821
115 CP2 35 1.821
115 CP2 36 1.333
115 CP2 37 1.821
115 CP2 38 1.821
115 CP2 39 2.309
115 CP2 40 3.286
115 CP2 41 3.286
115 CP2 42 3.286
115 CP2 43 2.309
115 CP2 44 1.821
115 CP2 45 0.844
115 CP2 46 0.356
115 CP2 47 0.356
115 CP2 48 0.356
115 CP2 49 0.356
115 CP2 50 -0.132
115 CP2 51 -0.621
115 CP2 52 -1.109
115 CP2 53 -1.597
115 CP2 54 -1.109
115 CP2 55 -0.132
115 CP2 56 0.356
115 CP2 57 0.356
115 CP2 58 0.356
115 CP2 59 -0.132
115 CP2 60 -0.621
115 CP2 61 -1.109
115 CP2 62 -0.621
115 CP2 63 -0.621
115 CP2 64 -0.621
115 CP2 65 -0.132
115 CP2 66 0.356
115 CP2 67 0.844
115 CP2 68 1.333
115 CP2 69 1.333
115 CP2 70 0.844
115 CP2 71 0.844
115 CP2 72 0.844
115 CP2 73 0.844
115 CP2 74 0.844
115 CP2 75 1.821
115 CP2 76 2.309
115 CP2 77 3.286
115 CP2 78 3.774
115 CP2 79 3.774
115 CP2 80 2.309
115 CP2 81 0.844
115 CP2 82 -0.621
115 CP2 83 -1.109
115 CP2 84 -1.109
115 CP2 85 -0.132
115 CP2 86 0.356
115 CP2 87 0.844
115 CP2 88 0.844
115 CP2 89 0.356
115 CP2 90 -0.621
115 CP2 91 -1.109
115 CP2 92 -1.597
115 CP2 93 -2.085
115 CP2 94 -2.085
115 CP2 95 -2.085
115 CP2 96 -1.597
115 CP2 97 -1.597
115 CP2 98 -2.085
115 CP2 99 -2.574
115 CP2 100 -2.574
115 CP2 101 -2.574
115 CP2 102 -2.085
115 CP2 103 -1.597
115 CP2 104 -1.597
115 CP2 105 -1.597
115 CP2 106 -2.085
115 CP2 107 -2.574
115 CP2 108 -2.085
115 CP2 109 -1.597
115 CP2 110 -1.597
115 CP2 111 -1.597
115 CP2 112 -2.085
115 CP2 113 -2.574
115 CP2 114 -2.085
115 CP2 115 -0.621
115 CP2 116 0.844
115 CP2 117 2.309
115 CP2 118 3.286
115 CP2 119 3.286
115 CP2 120 3.774
115 CP2 121 4.262
115 CP2 122 4.751
115 CP2 123 5.239
115 CP2 124 5.727
115 CP2 125 5.727
115 CP2 126 6.704
115 CP2 127 7.680
115 CP2 128 8.169
115 CP2 129 8.657
115 CP2 130 8.169
115 CP2 131 6.704
115 CP2 132 5.239
115 CP2 133 3.774
115 CP2 134 3.286
115 CP2 135 3.286
115 CP2 136 2.797
115 CP2 137 2.309
115 CP2 138 1.333
115 CP2 139 0.844
115 CP2 140 0.356
115 CP2 141 -0.132
115 CP2 142 -0.132
115 CP2 143 -0.621
115 CP2 144 -0.621
115 CP2 145 -0.132
115 CP2 146 0.356
115 CP2 147 0.844
115 CP2 148 1.821
115 CP2 149 1.821
115 CP2 150 2.309
115 CP2 151 2.309
115 CP2 152 2.309
115 CP2 153 2.309
115 CP2 154 2.309
115 CP2 155 2.797
115 CP2 156 2.797
115 CP2 157 2.797
115 CP2 158 2.797
115 CP2 159 3.286
115 CP2 160 3.286
115 CP2 161 3.774
115 CP2 162 3.774
115 CP2 163 3.774
115 CP2 164 4.262
115 CP2 165 4.262
115 CP2 166 4.751
115 CP2 167 4.262
115 CP2 168 4.262
115 CP2 169 4.751
115 CP2 170 4.751
115 CP2 171 4.751
115 CP2 172 4.262
115 CP2 173 2.797
115 CP2 174 1.333
115 CP2 175 0.356
115 CP2 176 0.356
115 CP2 177 0.844
115 CP2 178 1.333
115 CP2 179 1.821
115 CP2 180 1.333
115 CP2 181 0.844
115 CP2 182 0.844
115 CP2 183 0.844
115 CP2 184 1.333
115 CP2 185 0.844
115 CP2 186 0.356
115 CP2 187 -0.621
115 CP2 188 -0.621
115 CP2 189 -0.132
115 CP2 190 0.356
115 CP2 191 0.356
115 CP2 192 -0.132
115 CP2 193 -0.621
115 CP2 194 -0.621
115 CP2 195 -0.132
115 CP2 196 0.356
115 CP2 197 0.356
115 CP2 198 0.356
115 CP2 199 -0.621
115 CP2 200 -0.621
115 CP2 201 -0.132
115 CP2 202 0.356
115 CP2 203 1.333
115 CP2 204 1.333
115 CP2 205 0.844
115 CP2 206 0.356
115 CP2 207 0.356
115 CP2 208 0.356
115 CP2 209 0.844
115 CP2 210 1.333
115 CP2 211 1.821
115 CP2 212 1.333
115 CP2 213 0.844
115 CP2 214 0.356
115 CP2 215 -0.621
115 CP2 216 -2.085
115 CP2 217 -3.062
115 CP2 218 -3.550
115 CP2 219 -3.550
115 CP2 220 -3.062
115 CP2 221 -2.574
115 CP2 222 -2.574
115 CP2 223 -2.574
115 CP2 224 -2.085
115 CP2 225 -2.085
115 CP2 226 -2.574
115 CP2 227 -3.062
115 CP2 228 -4.038
115 CP2 229 -5.015
115 CP2 230 -5.503
115 CP2 231 -5.992
115 CP2 232 -6.480
115 CP2 233 -6.968
115 CP2 234 -7.456
115 CP2 235 -7.456
115 CP2 236 -6.480
115 CP2 237 -5.015
115 CP2 238 -4.038
115 CP2 239 -3.062
115 CP2 240 -3.062
115 CP2 241 -4.038
115 CP2 242 -4.527
115 CP2 243 -5.015
115 CP2 244 -5.015
115 CP2 245 -4.527
115 CP2 246 -4.527
115 CP2 247 -4.038
115 CP2 248 -3.550
115 CP2 249 -3.062
115 CP2 250 -2.574
115 CP2 251 -2.085
115 CP2 252 -2.574
115 CP2 253 -2.574
115 CP2 254 -2.574
115 CP2 255 -3.062
# P3 chan 22
115 P3 0 2.330
115 P3 1 0.376
115 P3 2 -0.112
115 P3 3 1.841
115 P3 4 3.794
115 P3 5 5.259
115 P3 6 5.259
115 P3 7 5.259
115 P3 8 5.747
115 P3 9 5.747
115 P3 10 4.771
115 P3 11 2.818
115 P3 12 0.865
115 P3 13 0.376
115 P3 14 0.376
115 P3 15 1.841
115 P3 16 2.330
115 P3 17 1.841
115 P3 18 0.865
115 P3 19 -0.600
115 P3 20 -1.577
115 P3 21 -1.088
115 P3 22 0.376
115 P3 23 2.330
115 P3 24 3.794
115 P3 25 5.259
115 P3 26 5.259
115 P3 27 5.259
115 P3 28 4.283
115 P3 29 3.306
115 P3 30 2.330
115 P3 31 1.353
115 P3 32 1.353
115 P3 33 1.841
115 P3 34 2.818
115 P3 35 4.283
115 P3 36 5.747
115 P3 37 7.701
115 P3 38 9.654
115 P3 39 11.119
115 P3 40 12.583
115 P3 41 13.072
115 P3 42 12.583
115 P3 43 10.142
115 P3 44 7.212
115 P3 45 4.771
115 P3 46 3.306
115 P3 47 2.330
115 P3 48 1.841
115 P3 49 0.865
115 P3 50 -1.088
115 P3 51 -3.042
115 P3 52 -4.995
115 P3 53 -5.971
115 P3 54 -5.971
115 P3 55 -5.483
115 P3 56 -4.018
115 P3 57 -3.042
115 P3 58 -3.042
115 P3 59 -3.530
115 P3 60 -4.018
115 P3 61 -4.506
115 P3 62 -4.506
115 P3 63 -4.018
115 P3 64 -2.553
115 P3 65 -1.088
115 P3 66 1.353
115 P3 67 3.306
115 P3 68 4.771
115 P3 69 4.283
115 P3 70 1.841
115 P3 71 -0.600
115 P3 72 -2.553
115 P3 73 -2.553
115 P3 74 -0.600
115 P3 75 0.865
115 P3 76 1.353
115 P3 77 1.353
115 P3 78 0.865
115 P3 79 1.353
115 P3 80 2.330
115 P3 81 3.306
115 P3 82 3.794
115 P3 83 3.306
115 P3 84 2.818
115 P3 85 2.330
115 P3 86 2.330
115 P3 87 2.818
115 P3 88 2.818
115 P3 89 1.841
115 P3 90 -0.112
115 P3 91 -3.042
115 P3 92 -5.483
115 P3 93 -6.948
115 P3 94 -7.436
115 P3 95 -6.948
115 P3 96 -6.948
115 P3 97 -8.413
115 P3 98 -10.854
115 P3 99 -12.807
115 P3 100 -14.272
115 P3 101 -13.784
115 P3 102 -13.295
115 P3 103 -13.784
115 P3 104 -14.760
115 P3 105 -16.225
115 P3 106 -16.713
115 P3 107 -15.737
115 P3 108 -13.784
115 P3 109 -11.831
115 P3 110 -10.854
115 P3 111 -11.342
115 P3 112 -12.319
115 P3 113 -11.831
115 P3 114 -10.366
115 P3 115 -8.413
115 P3 116 -5.971
115 P3 117 -4.506
115 P3 118 -4.018
115 P3 119 -3.042
115 P3 120 -1.088
115 P3 121 1.841
115 P3 122 4.771
115 P3 123 7.701
115 P3 124 10.142
115 P3 125 11.607
115 P3 126 13.072
115 P3 127 14.048
115 P3 128 14.048
115 P3 129 13.072
115 P3 130 10.142
115 P3 131 6.724
115 P3 132 2.818
115 P3 133 -0.600
115 P3 134 -2.065
115 P3 135 -2.553
115 P3 136 -2.065
115 P3 137 -2.065
115 P3 138 -3.042
115 P3 139 -4.995
115 P3 140 -7.436
115 P3 141 -9.878
115 P3 142 -9.878
115 P3 143 -9.389
115 P3 144 -7.924
115 P3 145 -6.948
115 P3 146 -6.948
115 P3 147 -7.924
115 P3 148 -8.901
115 P3 149 -7.924
115 P3 150 -5.971
115 P3 151 -3.530
115 P3 152 -1.088
115 P3 153 0.376
115 P3 154 0.865
115 P3 155 1.353
115 P3 156 1.353
115 P3 157 1.353
115 P3 158 1.353
115 P3 159 1.353
115 P3 160 1.841
115 P3 161 1.841
115 P3 162 1.353
115 P3 163 -0.600
115 P3 164 -3.530
115 P3 165 -5.971
115 P3 166 -6.460
115 P3 167 -4.506
115 P3 168 -2.065
115 P3 169 0.376
115 P3 170 1.353
115 P3 171 0.865
115 P3 172 -0.600
115 P3 173 -1.577
115 P3 174 -1.088
115 P3 175 -0.112
115 P3 176 0.865
115 P3 177 1.353
115 P3 178 0.376
115 P3 179 -0.600
115 P3 180 -2.553
115 P3 181 -4.018
115 P3 182 -4.506
115 P3 183 -4.506
115 P3 184 -3.042
115 P3 185 -1.577
115 P3 186 -0.112
115 P3 187 0.865
115 P3 188 0.865
115 P3 189 0.865
115 P3 190 1.353
115 P3 191 1.353
115 P3 192 0.865
115 P3 193 -0.600
115 P3 194 -2.553
115 P3 195 -4.018
115 P3 196 -4.506
115 P3 197 -3.530
115 P3 198 -2.065
115 P3 199 -0.600
115 P3 200 0.376
115 P3 201 0.865
115 P3 202 1.841
115 P3 203 2.330
115 P3 204 2.330
115 P3 205 1.353
115 P3 206 -0.112
115 P3 207 -1.577
115 P3 208 -2.065
115 P3 209 -1.577
115 P3 210 -0.600
115 P3 211 0.865
115 P3 212 1.841
115 P3 213 2.330
115 P3 214 2.330
115 P3 215 2.330
115 P3 216 0.865
115 P3 217 -0.600
115 P3 218 -2.553
115 P3 219 -4.018
115 P3 220 -5.483
115 P3 221 -6.460
115 P3 222 -7.924
115 P3 223 -8.901
115 P3 224 -8.901
115 P3 225 -8.413
115 P3 226 -6.460
115 P3 227 -4.018
115 P3 228 -2.065
115 P3 229 -1.577
115 P3 230 -2.065
115 P3 231 -4.506
115 P3 232 -7.924
115 P3 233 -11.831
115 P3 234 -16.225
115 P3 235 -19.643
115 P3 236 -22.085
115 P3 237 -23.061
115 P3 238 -22.085
115 P3 239 -20.131
115 P3 240 -17.690
115 P3 241 -13.784
115 P3 242 -9.878
115 P3 243 -5.483
115 P3 244 -1.088
115 P3 245 2.330
115 P3 246 3.794
115 P3 247 2.818
115 P3 248 -0.600
115 P3 249 -5.971
115 P3 250 -10.854
115 P3 251 -14.272
115 P3 252 -16.225
115 P3 253 -17.202
115 P3 254 -18.178
115 P3 255 -18.178
# P4 chan 23
115 P4 0 3.805
115 P4 1 3.316
115 P4 2 3.316
115 P4 3 3.805
115 P4 4 4.293
115 P4 5 4.781
115 P4 6 4.781
115 P4 7 3.805
115 P4 8 2.340
115 P4 9 0.387
115 P4 10 -0.590
115 P4 11 -1.078
115 P4 12 -0.590
115 P4 13 0.387
115 P4 14 1.363
115 P4 15 1.363
115 P4 16 -0.590
115 P4 17 -2.543
115 P4 18 -4.008
115 P4 19 -3.031
115 P4 20 -0.590
115 P4 21 2.828
115 P4 22 5.269
115 P4 23 6.246
115 P4 24 7.222
115 P4 25 8.687
115 P4 26 11.129
115 P4 27 12.594
115 P4 28 13.082
115 P4 29 11.617
115 P4 30 8.687
115 P4 31 6.246
115 P4 32 4.781
115 P4 33 4.293
115 P4 34 4.781
115 P4 35 5.269
115 P4 36 5.269
115 P4 37 5.269
115 P4 38 5.758
115 P4 39 6.734
115 P4 40 8.199
115 P4 41 9.176
115 P4 42 9.176
115 P4 43 7.222
115 P4 44 4.781
115 P4 45 1.851
115 P4 46 -0.102
115 P4 47 -1.078
115 P4 48 -1.567
115 P4 49 -1.567
115 P4 50 -2.543
115 P4 51 -4.008
115 P4 52 -4.496
115 P4 53 -4.496
115 P4 54 -4.008
115 P4 55 -3.031
115 P4 56 -2.055
115 P4 57 -1.567
115 P4 58 -1.567
115 P4 59 -2.055
115 P4 60 -2.055
115 P4 61 -2.055
115 P4 62 -1.567
115 P4 63 -0.590
115 P4 64 0.387
115 P4 65 1.363
115 P4 66 1.363
115 P4 67 0.875
115 P4 68 0.387
115 P4 69 -0.102
115 P4 70 -0.102
115 P4 71 -0.590
115 P4 72 -0.590
115 P4 73 -0.102
115 P4 74 -0.102
115 P4 75 0.875
115 P4 76 2.340
115 P4 77 4.293
115 P4 78 5.269
115 P4 79 4.293
115 P4 80 1.851
115 P4 81 -1.567
115 P4 82 -4.008
115 P4 83 -4.496
115 P4 84 -3.031
115 P4 85 -1.567
115 P4 86 -0.590
115 P4 87 -0.590
115 P4 88 -1.567
115 P4 89 -2.543
115 P4 90 -4.008
115 P4 91 -5.473
115 P4 92 -6.938
115 P4 93 -8.403
115 P4 94 -8.891
115 P4 95 -8.403
115 P4 96 -7.426
115 P4 97 -6.938
115 P4 98 -6.938
115 P4 99 -8.403
115 P4 100 -9.867
115 P4 101 -10.356
115 P4 102 -9.867
115 P4 103 -8.891
115 P4 104 -7.914
115 P4 105 -7.426
115 P4 106 -7.914
115 P4 107 -8.403
115 P4 108 -8.891
115 P4 109 -8.891
115 P4 110 -9.379
115 P4 111 -10.356
115 P4 112 -11.332
115 P4 113 -11.332
115 P4 114 -10.356
115 P4 115 -7.914
115 P4 116 -4.496
115 P4 117 -1.567
115 P4 118 0.387
115 P4 119 0.875
115 P4 120 1.363
115 P4 121 2.340
115 P4 122 4.293
115 P4 123 6.246
115 P4 124 7.711
115 P4 125 8.687
115 P4 126 9.664
115 P4 127 11.129
115 P4 128 13.082
115 P4 129 14.058
115 P4 130 13.082
115 P4 131 10.152
115 P4 132 6.734
115 P4 133 3.316
115 P4 134 1.851
115 P4 135 0.875
115 P4 136 -0.102
115 P4 137 -1.078
115 P4 138 -2.055
115 P4 139 -2.543
115 P4 140 -3.031
115 P4 141 -3.520
115 P4 142 -4.496
115 P4 143 -5.961
115 P4 144 -6.938
115 P4 145 -6.938
115 P4 146 -4.985
115 P4 147 -2.055
115 P4 148 0.387
115 P4 149 1.363
115 P4 150 0.875
115 P4 151 -0.102
115 P4 152 -1.078
115 P4 153 -1.078
115 P4 154 -1.078
115 P4 155 -1.078
115 P4 156 -1.078
115 P4 157 -1.567
115 P4 158 -1.567
115 P4 159 -1.567
115 P4 160 -0.590
115 P4 161 -0.102
115 P4 162 -0.102
115 P4 163 0.387
115 P4 164 0.875
115 P4 165 1.851
115 P4 166 2.340
115 P4 167 2.828
115 P4 168 3.316
115 P4 169 4.293
115 P4 170 4.781
115 P4 171 4.781
115 P4 172 3.316
115 P4 173 0.875
115 P4 174 -2.055
115 P4 175 -4.008
115 P4 176 -4.496
115 P4 177 -3.031
115 P4 178 -2.055
115 P4 179 -1.078
115 P4 180 -1.078
115 P4 181 -1.078
115 P4 182 -0.102
115 P4 183 -0.102
115 P4 184 -0.590
115 P4 185 -2.055
115 P4 186 -4.008
115 P4 187 -4.985
115 P4 188 -4.008
115 P4 189 -2.055
115 P4 190 0.387
115 P4 191 0.875
115 P4 192 -0.102
115 P4 193 -1.567
115 P4 194 -2.055
115 P4 195 -1.567
115 P4 196 -0.590
115 P4 197 -1.078
115 P4 198 -2.055
115 P4 199 -3.520
115 P4 200 -3.520
115 P4 201 -3.031
115 P4 202 -1.567
115 P4 203 -0.102
115 P4 204 0.387
115 P4 205 -0.102
115 P4 206 -0.102
115 P4 207 0.875
115 P4 208 1.851
115 P4 209 2.340
115 P4 210 2.828
115 P4 211 2.340
115 P4 212 1.851
115 P4 213 0.875
115 P4 214 -0.590
115 P4 215 -3.520
115 P4 216 -6.938
115 P4 217 -9.379
115 P4 218 -10.356
115 P4 219 -8.891
115 P4 220 -6.938
115 P4 221 -4.008
115 P4 222 -2.543
115 P4 223 -1.078
115 P4 224 -1.078
115 P4 225 -1.567
115 P4 226 -3.520
115 P4 227 -6.938
115 P4 228 -10.844
115 P4 229 -13.774
115 P4 230 -15.727
115 P4 231 -16.703
115 P4 232 -16.703
115 P4 233 -17.192
115 P4 234 -17.192
115 P4 235 -16.215
115 P4 236 -13.285
115 P4 237 -9.867
115 P4 238 -6.449
115 P4 239 -4.496
115 P4 240 -4.985
115 P4 241 -6.449
115 P4 242 -8.403
115 P4 243 -10.356
115 P4 244 -11.332
115 P4 245 -12.797
115 P4 246 -13.774
115 P4 247 -13.285
115 P4 248 -11.820
115 P4 249 -9.379
115 P4 250 -6.938
115 P4 251 -5.961
115 P4 252 -5.473
115 P4 253 -5.473
115 P4 254 -5.473
115 P4 255 -5.961
# PZ chan 24
115 PZ 0 2.319
115 PZ 1 0.854
115 PZ 2 -0.122
115 PZ 3 0.854
115 PZ 4 2.319
115 PZ 5 3.784
115 PZ 6 4.272
115 PZ 7 4.272
115 PZ 8 3.784
115 PZ 9 2.319
115 PZ 10 1.343
115 PZ 11 0.366
115 PZ 12 0.366
115 PZ 13 0.366
115 PZ 14 0.854
115 PZ 15 0.854
115 PZ 16 -0.122
115 PZ 17 -1.587
115 PZ 18 -3.052
115 PZ 19 -3.052
115 PZ 20 -2.075
115 PZ 21 -0.610
115 PZ 22 0.366
115 PZ 23 1.343
115 PZ 24 1.831
115 PZ 25 2.808
115 PZ 26 3.784
115 PZ 27 4.761
115 PZ 28 4.761
115 PZ 29 4.272
115 PZ 30 2.808
115 PZ 31 1.831
115 PZ 32 2.319
115 PZ 33 2.808
115 PZ 34 3.784
115 PZ 35 4.272
115 PZ 36 4.272
115 PZ 37 4.272
115 PZ 38 4.761
115 PZ 39 5.737
115 PZ 40 7.202
115 PZ 41 7.690
115 PZ 42 7.202
115 PZ 43 5.737
115 PZ 44 3.784
115 PZ 45 2.319
115 PZ 46 1.831
115 PZ 47 2.319
115 PZ 48 2.808
115 PZ 49 2.319
115 PZ 50 1.343
115 PZ 51 -0.122
115 PZ 52 -1.587
115 PZ 53 -2.075
115 PZ 54 -2.075
115 PZ 55 -2.075
115 PZ 56 -1.587
115 PZ 57 -2.075
115 PZ 58 -2.075
115 PZ 59 -2.563
115 PZ 60 -2.563
115 PZ 61 -2.563
115 PZ 62 -2.075
115 PZ 63 -2.075
115 PZ 64 -2.075
115 PZ 65 -0.610
115 PZ 66 0.854
115 PZ 67 2.808
115 PZ 68 3.784
115 PZ 69 3.296
115 PZ 70 2.319
115 PZ 71 0.854
115 PZ 72 0.854
115 PZ 73 0.854
115 PZ 74 1.831
115 PZ 75 3.296
115 PZ 76 4.272
115 PZ 77 5.737
115 PZ 78 6.226
115 PZ 79 5.737
115 PZ 80 4.272
115 PZ 81 1.831
115 PZ 82 -0.610
115 PZ 83 -1.587
115 PZ 84 -1.587
115 PZ 85 -0.610
115 PZ 86 0.854
115 PZ 87 1.343
115 PZ 88 1.343
115 PZ 89 0.366
115 PZ 90 -0.610
115 PZ 91 -1.587
115 PZ 92 -3.052
115 PZ 93 -3.540
115 PZ 94 -3.540
115 PZ 95 -3.540
115 PZ 96 -3.052
115 PZ 97 -3.052
115 PZ 98 -4.517
115 PZ 99 -6.470
115 PZ 100 -8.911
115 PZ 101 -10.376
115 PZ 102 -10.376
115 PZ 103 -9.399
115 PZ 104 -9.399
115 PZ 105 -9.399
115 PZ 106 -9.888
115 PZ 107 -9.888
115 PZ 108 -8.911
115 PZ 109 -7.446
115 PZ 110 -6.470
115 PZ 111 -6.470
115 PZ 112 -7.446
115 PZ 113 -8.423
115 PZ 114 -8.423
115 PZ 115 -6.958
115 PZ 116 -4.517
115 PZ 117 -2.075
115 PZ 118 -0.610
115 PZ 119 -0.122
115 PZ 120 0.366
115 PZ 121 0.854
115 PZ 122 2.319
115 PZ 123 3.784
115 PZ 124 5.249
115 PZ 125 6.714
115 PZ 126 8.179
115 PZ 127 9.644
115 PZ 128 11.108
115 PZ 129 11.597
115 PZ 130 10.620
115 PZ 131 7.690
115 PZ 132 4.272
115 PZ 133 1.343
115 PZ 134 -0.610
115 PZ 135 -1.587
115 PZ 136 -2.075
115 PZ 137 -2.075
115 PZ 138 -3.052
115 PZ 139 -4.517
115 PZ 140 -5.493
115 PZ 141 -6.958
115 PZ 142 -6.958
115 PZ 143 -6.470
115 PZ 144 -5.981
115 PZ 145 -5.005
115 PZ 146 -5.005
115 PZ 147 -5.005
115 PZ 148 -5.005
115 PZ 149 -4.517
115 PZ 150 -3.052
115 PZ 151 -1.099
115 PZ 152 0.854
115 PZ 153 1.831
115 PZ 154 2.319
115 PZ 155 2.319
115 PZ 156 2.319
115 PZ 157 2.319
115 PZ 158 2.808
115 PZ 159 3.296
115 PZ 160 4.272
115 PZ 161 4.272
115 PZ 162 3.784
115 PZ 163 2.808
115 PZ 164 1.831
115 PZ 165 0.854
115 PZ 166 0.854
115 PZ 167 0.854
115 PZ 168 1.343
115 PZ 169 1.831
115 PZ 170 2.808
115 PZ 171 3.296
115 PZ 172 2.808
115 PZ 173 1.831
115 PZ 174 0.366
115 PZ 175 -1.099
115 PZ 176 -1.587
115 PZ 177 -1.099
115 PZ 178 -0.610
115 PZ 179 -0.610
115 PZ 180 -1.587
115 PZ 181 -2.563
115 PZ 182 -3.052
115 PZ 183 -2.563
115 PZ 184 -2.075
115 PZ 185 -1.587
115 PZ 186 -2.075
115 PZ 187 -3.052
115 PZ 188 -3.052
115 PZ 189 -2.563
115 PZ 190 -1.587
115 PZ 191 -1.099
115 PZ 192 -1.587
115 PZ 193 -2.563
115 PZ 194 -3.540
115 PZ 195 -3.540
115 PZ 196 -2.075
115 PZ 197 -1.587
115 PZ 198 -1.587
115 PZ 199 -2.563
115 PZ 200 -3.540
115 PZ 201 -4.028
115 PZ 202 -3.052
115 PZ 203 -1.099
115 PZ 204 -0.122
115 PZ 205 0.366
115 PZ 206 -0.610
115 PZ 207 -1.587
115 PZ 208 -2.075
115 PZ 209 -2.075
115 PZ 210 -1.587
115 PZ 211 -0.610
115 PZ 212 0.366
115 PZ 213 0.854
115 PZ 214 0.366
115 PZ 215 -0.610
115 PZ 216 -2.563
115 PZ 217 -4.517
115 PZ 218 -6.470
115 PZ 219 -7.446
115 PZ 220 -7.935
115 PZ 221 -8.423
115 PZ 222 -8.423
115 PZ 223 -8.423
115 PZ 224 -8.423
115 PZ 225 -7.935
115 PZ 226 -7.935
115 PZ 227 -7.446
115 PZ 228 -7.446
115 PZ 229 -7.446
115 PZ 230 -7.446
115 PZ 231 -8.423
115 PZ 232 -9.399
115 PZ 233 -11.841
115 PZ 234 -13.794
115 PZ 235 -15.259
115 PZ 236 -15.747
115 PZ 237 -14.282
115 PZ 238 -12.329
115 PZ 239 -10.864
115 PZ 240 -10.864
115 PZ 241 -11.353
115 PZ 242 -11.841
115 PZ 243 -11.353
115 PZ 244 -9.888
115 PZ 245 -7.935
115 PZ 246 -6.958
115 PZ 247 -6.470
115 PZ 248 -6.958
115 PZ 249 -7.446
115 PZ 250 -7.446
115 PZ 251 -7.446
115 PZ 252 -6.958
115 PZ 253 -6.958
115 PZ 254 -7.446
115 PZ 255 -8.423
# P8 chan 25
115 P8 0 7.273
115 P8 1 9.226
115 P8 2 12.156
115 P8 3 13.133
115 P8 4 12.644
115 P8 5 10.691
115 P8 6 8.738
115 P8 7 7.273
115 P8 8 6.785
115 P8 9 5.320
115 P8 10 3.855
115 P8 11 2.391
115 P8 12 1.414
115 P8 13 2.391
115 P8 14 4.344
115 P8 15 5.809
115 P8 16 6.297
115 P8 17 5.320
115 P8 18 3.367
115 P8 19 2.879
115 P8 20 3.367
115 P8 21 4.832
115 P8 22 5.809
115 P8 23 6.297
115 P8 24 6.297
115 P8 25 7.762
115 P8 26 11.180
115 P8 27 14.598
115 P8 28 17.039
115 P8 29 17.527
115 P8 30 16.062
115 P8 31 13.133
115 P8 32 10.691
115 P8 33 8.738
115 P8 34 7.273
115 P8 35 6.297
115 P8 36 6.297
115 P8 37 7.273
115 P8 38 10.203
115 P8 39 13.621
115 P8 40 16.551
115 P8 41 18.016
115 P8 42 17.039
115 P8 43 14.109
115 P8 44 9.715
115 P8 45 6.297
115 P8 46 3.367
115 P8 47 2.879
115 P8 48 1.902
115 P8 49 0.437
115 P8 50 -2.492
115 P8 51 -4.934
115 P8 52 -6.887
115 P8 53 -7.375
115 P8 54 -6.399
115 P8 55 -4.445
115 P8 56 -2.981
115 P8 57 -2.492
115 P8 58 -2.492
115 P8 59 -2.492
115 P8 60 -1.516
115 P8 61 0.437
115 P8 62 2.391
115 P8 63 3.855
115 P8 64 4.344
115 P8 65 4.344
115 P8 66 4.344
115 P8 67 3.855
115 P8 68 3.367
115 P8 69 2.879
115 P8 70 2.391
115 P8 71 1.902
115 P8 72 1.902
115 P8 73 1.414
115 P8 74 0.926
115 P8 75 0.437
115 P8 76 0.926
115 P8 77 1.414
115 P8 78 2.391
115 P8 79 2.391
115 P8 80 1.414
115 P8 81 -1.027
115 P8 82 -2.492
115 P8 83 -2.981
115 P8 84 -1.027
115 P8 85 1.414
115 P8 86 3.367
115 P8 87 2.879
115 P8 88 -0.051
115 P8 89 -3.957
115 P8 90 -7.375
115 P8 91 -10.305
115 P8 92 -12.258
115 P8 93 -13.234
115 P8 94 -13.723
115 P8 95 -13.234
115 P8 96 -12.258
115 P8 97 -11.281
115 P8 98 -11.281
115 P8 99 -11.770
115 P8 100 -12.258
115 P8 101 -12.746
115 P8 102 -12.258
115 P8 103 -11.281
115 P8 104 -10.305
115 P8 105 -9.816
115 P8 106 -9.816
115 P8 107 -11.281
115 P8 108 -12.746
115 P8 109 -14.211
115 P8 110 -15.188
115 P8 111 -15.188
115 P8 112 -15.188
115 P8 113 -14.699
115 P8 114 -13.234
115 P8 115 -11.281
115 P8 116 -8.352
115 P8 117 -4.934
115 P8 118 -1.516
115 P8 119 0.926
115 P8 120 2.391
115 P8 121 3.367
115 P8 122 4.832
115 P8 123 6.297
115 P8 124 7.762
115 P8 125 9.226
115 P8 126 10.691
115 P8 127 12.644
115 P8 128 15.086
115 P8 129 16.551
115 P8 130 16.062
115 P8 131 12.644
115 P8 132 7.762
115 P8 133 2.879
115 P8 134 -0.539
115 P8 135 -1.516
115 P8 136 -2.004
115 P8 137 -2.492
115 P8 138 -4.445
115 P8 139 -7.375
115 P8 140 -9.816
115 P8 141 -10.793
115 P8 142 -11.281
115 P8 143 -11.770
115 P8 144 -12.746
115 P8 145 -12.258
115 P8 146 -9.816
115 P8 147 -5.422
115 P8 148 -1.516
115 P8 149 0.926
115 P8 150 0.437
115 P8 151 -2.492
115 P8 152 -4.934
115 P8 153 -5.422
115 P8 154 -4.445
115 P8 155 -2.492
115 P8 156 -2.004
115 P8 157 -2.492
115 P8 158 -3.469
115 P8 159 -3.469
115 P8 160 -2.492
115 P8 161 -1.027
115 P8 162 -0.539
115 P8 163 -0.539
115 P8 164 -1.516
115 P8 165 -1.516
115 P8 166 -0.539
115 P8 167 2.391
115 P8 168 4.344
115 P8 169 5.320
115 P8 170 4.832
115 P8 171 2.391
115 P8 172 -1.027
115 P8 173 -4.934
115 P8 174 -7.863
115 P8 175 -8.840
115 P8 176 -7.863
115 P8 177 -5.422
115 P8 178 -2.492
115 P8 179 -1.027
115 P8 180 -1.027
115 P8 181 -1.516
115 P8 182 -1.516
115 P8 183 -1.516
115 P8 184 -1.516
115 P8 185 -2.492
115 P8 186 -4.445
115 P8 187 -6.399
115 P8 188 -6.399
115 P8 189 -4.934
115 P8 190 -2.492
115 P8 191 -1.027
115 P8 192 -1.027
115 P8 193 -2.492
115 P8 194 -3.957
115 P8 195 -3.957
115 P8 196 -2.981
115 P8 197 -1.516
115 P8 198 -1.027
115 P8 199 -1.516
115 P8 200 -1.516
115 P8 201 -0.539
115 P8 202 0.437
115 P8 203 1.414
115 P8 204 0.926
115 P8 205 -0.051
115 P8 206 -0.539
115 P8 207 -0.051
115 P8 208 1.902
115 P8 209 3.367
115 P8 210 3.855
115 P8 211 3.367
115 P8 212 1.902
115 P8 213 0.437
115 P8 214 -1.027
115 P8 215 -2.492
115 P8 216 -4.445
115 P8 217 -5.910
115 P8 218 -6.887
115 P8 219 -6.887
115 P8 220 -5.910
115 P8 221 -4.445
115 P8 222 -2.492
115 P8 223 -1.027
115 P8 224 -0.051
115 P8 225 -0.539
115 P8 226 -3.469
115 P8 227 -8.352
115 P8 228 -14.211
115 P8 229 -19.094
115 P8 230 -23.000
115 P8 231 -23.977
115 P8 232 -23.000
115 P8 233 -21.535
115 P8 234 -20.070
115 P8 235 -18.606
115 P8 236 -16.652
115 P8 237 -13.723
115 P8 238 -10.793
115 P8 239 -7.375
115 P8 240 -4.934
115 P8 241 -4.445
115 P8 242 -5.422
115 P8 243 -7.863
115 P8 244 -10.793
115 P8 245 -13.234
115 P8 246 -14.211
115 P8 247 -14.211
115 P8 248 -13.234
115 P8 249 -13.234
115 P8 250 -13.723
115 P8 251 -14.699
115 P8 252 -15.188
115 P8 253 -14.211
115 P8 254 -10.793
115 P8 255 -6.887
# P7 chan 26
115 P7 0 3.286
115 P7 1 1.821
115 P7 2 2.309
115 P7 3 3.774
115 P7 4 4.262
115 P7 5 3.774
115 P7 6 2.797
115 P7 7 3.286
115 P7 8 4.751
115 P7 9 5.727
115 P7 10 5.239
115 P7 11 2.797
115 P7 12 -0.132
115 P7 13 -1.109
115 P7 14 -0.621
115 P7 15 0.844
115 P7 16 2.309
115 P7 17 3.286
115 P7 18 2.797
115 P7 19 1.333
115 P7 20 0.356
115 P7 21 -0.621
115 P7 22 -0.621
115 P7 23 -0.621
115 P7 24 -0.621
115 P7 25 -0.132
115 P7 26 1.333
115 P7 27 3.286
115 P7 28 5.239
115 P7 29 6.704
115 P7 30 7.192
115 P7 31 6.215
115 P7 32 4.751
115 P7 33 3.774
115 P7 34 3.774
115 P7 35 5.239
115 P7 36 7.192
115 P7 37 9.633
115 P7 38 11.098
115 P7 39 11.587
115 P7 40 12.075
115 P7 41 12.563
115 P7 42 13.051
115 P7 43 13.051
115 P7 44 11.587
115 P7 45 8.657
115 P7 46 5.239
115 P7 47 2.797
115 P7 48 1.821
115 P7 49 1.333
115 P7 50 -0.621
115 P7 51 -3.550
115 P7 52 -6.968
115 P7 53 -9.898
115 P7 54 -10.386
115 P7 55 -8.433
115 P7 56 -5.992
115 P7 57 -4.038
115 P7 58 -3.550
115 P7 59 -4.527
115 P7 60 -5.503
115 P7 61 -5.992
115 P7 62 -5.992
115 P7 63 -5.503
115 P7 64 -5.503
115 P7 65 -5.015
115 P7 66 -3.062
115 P7 67 0.356
115 P7 68 3.774
115 P7 69 5.239
115 P7 70 4.262
115 P7 71 0.844
115 P7 72 -2.574
115 P7 73 -3.550
115 P7 74 -3.062
115 P7 75 -1.597
115 P7 76 -1.597
115 P7 77 -2.085
115 P7 78 -3.062
115 P7 79 -3.062
115 P7 80 -1.109
115 P7 81 0.844
115 P7 82 2.797
115 P7 83 2.797
115 P7 84 1.333
115 P7 85 -0.132
115 P7 86 -1.597
115 P7 87 -2.085
115 P7 88 -2.085
115 P7 89 -2.574
115 P7 90 -4.038
115 P7 91 -5.992
115 P7 92 -8.921
115 P7 93 -12.339
115 P7 94 -14.781
115 P7 95 -16.246
115 P7 96 -16.734
115 P7 97 -16.734
115 P7 98 -16.734
115 P7 99 -17.222
115 P7 100 -18.199
115 P7 101 -19.175
115 P7 102 -20.152
115 P7 103 -21.128
115 P7 104 -21.617
115 P7 105 -22.593
115 P7 106 -23.081
115 P7 107 -23.081
115 P7 108 -22.105
115 P7 109 -21.617
