# co2a0000418.rd
# 120 trials, 64 chans, 416 samples 368 post_stim samples
# 3.906000 msecs uV
# S1 obj , trial 44
# FP1 chan 0
44 FP1 0 5.361
44 FP1 1 2.920
44 FP1 2 -0.498
44 FP1 3 -2.940
44 FP1 4 -3.916
44 FP1 5 -4.893
44 FP1 6 -5.870
44 FP1 7 -7.823
44 FP1 8 -9.776
44 FP1 9 -10.752
44 FP1 10 -10.264
44 FP1 11 -9.288
44 FP1 12 -9.288
44 FP1 13 -9.776
44 FP1 14 -10.264
44 FP1 15 -9.288
44 FP1 16 -7.334
44 FP1 17 -4.893
44 FP1 18 -4.405
44 FP1 19 -5.381
44 FP1 20 -6.846
44 FP1 21 -7.334
44 FP1 22 -5.870
44 FP1 23 -3.916
44 FP1 24 -2.452
44 FP1 25 -2.452
44 FP1 26 -3.428
44 FP1 27 -4.893
44 FP1 28 -6.358
44 FP1 29 -7.334
44 FP1 30 -7.334
44 FP1 31 -6.358
44 FP1 32 -3.428
44 FP1 33 -0.010
44 FP1 34 2.431
44 FP1 35 3.408
44 FP1 36 3.408
44 FP1 37 1.943
44 FP1 38 0.478
44 FP1 39 -0.987
44 FP1 40 -1.963
44 FP1 41 -2.452
44 FP1 42 -0.987
44 FP1 43 1.943
44 FP1 44 5.849
44 FP1 45 8.779
44 FP1 46 8.779
44 FP1 47 6.826
44 FP1 48 3.896
44 FP1 49 2.431
44 FP1 50 3.408
44 FP1 51 5.849
44 FP1 52 7.314
44 FP1 53 6.337
44 FP1 54 3.408
44 FP1 55 -0.010
44 FP1 56 -1.963
44 FP1 57 -0.987
44 FP1 58 1.943
44 FP1 59 4.384
44 FP1 60 5.361
44 FP1 61 4.873
44 FP1 62 2.431
44 FP1 63 0.966
44 FP1 64 0.966
44 FP1 65 2.920
44 FP1 66 6.826
44 FP1 67 9.755
44 FP1 68 11.220
44 FP1 69 10.244
44 FP1 70 7.314
44 FP1 71 4.384
44 FP1 72 2.431
44 FP1 73 1.943
44 FP1 74 3.408
44 FP1 75 5.849
44 FP1 76 9.267
44 FP1 77 11.709
44 FP1 78 12.685
44 FP1 79 11.709
44 FP1 80 8.291
44 FP1 81 3.896
44 FP1 82 0.478
44 FP1 83 -0.010
44 FP1 84 2.431
44 FP1 85 6.337
44 FP1 86 9.267
44 FP1 87 11.220
44 FP1 88 10.732
44 FP1 89 9.755
44 FP1 90 9.267
44 FP1 91 9.755
44 FP1 92 10.732
44 FP1 93 10.732
44 FP1 94 9.267
44 FP1 95 6.826
44 FP1 96 5.849
44 FP1 97 6.337
44 FP1 98 8.291
44 FP1 99 10.732
44 FP1 100 11.220
44 FP1 101 8.779
44 FP1 102 4.384
44 FP1 103 0.478
44 FP1 104 -0.987
44 FP1 105 -0.498
44 FP1 106 1.943
44 FP1 107 3.896
44 FP1 108 3.896
44 FP1 109 1.943
44 FP1 110 -0.010
44 FP1 111 -0.987
44 FP1 112 -0.498
44 FP1 113 1.455
44 FP1 114 1.943
44 FP1 115 0.966
44 FP1 116 -2.452
44 FP1 117 -5.381
44 FP1 118 -6.846
44 FP1 119 -4.893
44 FP1 120 -0.987
44 FP1 121 2.920
44 FP1 122 3.408
44 FP1 123 0.478
44 FP1 124 -4.405
44 FP1 125 -9.288
44 FP1 126 -12.217
44 FP1 127 -11.729
44 FP1 128 -9.776
44 FP1 129 -8.311
44 FP1 130 -7.334
44 FP1 131 -7.823
44 FP1 132 -8.799
44 FP1 133 -8.311
44 FP1 134 -4.893
44 FP1 135 -0.498
44 FP1 136 3.896
44 FP1 137 6.826
44 FP1 138 6.826
44 FP1 139 4.384
44 FP1 140 1.455
44 FP1 141 -0.010
44 FP1 142 0.478
44 FP1 143 3.408
44 FP1 144 4.873
44 FP1 145 4.873
44 FP1 146 2.431
44 FP1 147 -1.475
44 FP1 148 -6.358
44 FP1 149 -9.288
44 FP1 150 -11.241
44 FP1 151 -11.241
44 FP1 152 -10.752
44 FP1 153 -9.776
44 FP1 154 -9.288
44 FP1 155 -8.799
44 FP1 156 -7.823
44 FP1 157 -6.358
44 FP1 158 -4.405
44 FP1 159 -3.428
44 FP1 160 -2.452
44 FP1 161 -2.452
44 FP1 162 -1.475
44 FP1 163 -0.498
44 FP1 164 0.478
44 FP1 165 -0.010
44 FP1 166 -1.475
44 FP1 167 -2.940
44 FP1 168 -2.940
44 FP1 169 -1.963
44 FP1 170 -0.498
44 FP1 171 -0.010
44 FP1 172 -0.498
44 FP1 173 -1.963
44 FP1 174 -3.428
44 FP1 175 -4.405
44 FP1 176 -3.916
44 FP1 177 -2.940
44 FP1 178 -1.475
44 FP1 179 0.478
44 FP1 180 2.920
44 FP1 181 4.384
44 FP1 182 3.896
44 FP1 183 1.943
44 FP1 184 -0.010
44 FP1 185 -0.498
44 FP1 186 0.966
44 FP1 187 2.920
44 FP1 188 4.873
44 FP1 189 5.849
44 FP1 190 5.361
44 FP1 191 3.408
44 FP1 192 1.455
44 FP1 193 -0.987
44 FP1 194 -3.428
44 FP1 195 -5.381
44 FP1 196 -5.870
44 FP1 197 -4.893
44 FP1 198 -2.452
44 FP1 199 -0.010
44 FP1 200 0.966
44 FP1 201 1.455
44 FP1 202 0.966
44 FP1 203 0.966
44 FP1 204 0.966
44 FP1 205 0.966
44 FP1 206 1.943
44 FP1 207 2.920
44 FP1 208 4.384
44 FP1 209 6.337
44 FP1 210 6.826
44 FP1 211 5.361
44 FP1 212 2.920
44 FP1 213 0.478
44 FP1 214 -0.498
44 FP1 215 1.455
44 FP1 216 4.873
44 FP1 217 8.291
44 FP1 218 8.779
44 FP1 219 7.314
44 FP1 220 4.384
44 FP1 221 1.943
44 FP1 222 1.943
44 FP1 223 3.408
44 FP1 224 5.361
44 FP1 225 6.337
44 FP1 226 6.826
44 FP1 227 6.337
44 FP1 228 6.337
44 FP1 229 5.849
44 FP1 230 3.896
44 FP1 231 0.966
44 FP1 232 -2.452
44 FP1 233 -3.916
44 FP1 234 -2.940
44 FP1 235 -0.987
44 FP1 236 -0.010
44 FP1 237 -1.963
44 FP1 238 -5.870
44 FP1 239 -8.311
44 FP1 240 -7.334
44 FP1 241 -2.940
44 FP1 242 1.455
44 FP1 243 3.408
44 FP1 244 1.943
44 FP1 245 -0.498
44 FP1 246 -1.475
44 FP1 247 0.478
44 FP1 248 3.896
44 FP1 249 5.361
44 FP1 250 4.873
44 FP1 251 2.431
44 FP1 252 0.966
44 FP1 253 0.966
44 FP1 254 2.431
44 FP1 255 2.431
# FP2 chan 1
44 FP2 0 6.917
44 FP2 1 5.452
44 FP2 2 3.011
44 FP2 3 0.570
44 FP2 4 -1.872
44 FP2 5 -3.825
44 FP2 6 -4.313
44 FP2 7 -3.825
44 FP2 8 -2.848
44 FP2 9 -2.360
44 FP2 10 -3.337
44 FP2 11 -5.778
44 FP2 12 -9.196
44 FP2 13 -11.149
44 FP2 14 -11.637
44 FP2 15 -10.173
44 FP2 16 -8.219
44 FP2 17 -5.778
44 FP2 18 -4.801
44 FP2 19 -4.801
44 FP2 20 -6.266
44 FP2 21 -7.243
44 FP2 22 -6.266
44 FP2 23 -4.313
44 FP2 24 -1.383
44 FP2 25 0.570
44 FP2 26 1.058
44 FP2 27 -0.407
44 FP2 28 -2.360
44 FP2 29 -2.360
44 FP2 30 -0.407
44 FP2 31 3.988
44 FP2 32 6.917
44 FP2 33 7.894
44 FP2 34 6.429
44 FP2 35 3.988
44 FP2 36 2.035
44 FP2 37 0.570
44 FP2 38 -0.895
44 FP2 39 -2.360
44 FP2 40 -2.360
44 FP2 41 0.570
44 FP2 42 6.917
44 FP2 43 14.242
44 FP2 44 19.124
44 FP2 45 19.124
44 FP2 46 14.730
44 FP2 47 9.847
44 FP2 48 7.406
44 FP2 49 7.894
44 FP2 50 9.847
44 FP2 51 10.824
44 FP2 52 8.382
44 FP2 53 4.964
44 FP2 54 2.035
44 FP2 55 2.035
44 FP2 56 3.988
44 FP2 57 5.941
44 FP2 58 5.941
44 FP2 59 3.011
44 FP2 60 -0.407
44 FP2 61 -1.383
44 FP2 62 1.058
44 FP2 63 5.452
44 FP2 64 9.847
44 FP2 65 11.312
44 FP2 66 9.847
44 FP2 67 7.406
44 FP2 68 5.452
44 FP2 69 5.452
44 FP2 70 5.941
44 FP2 71 6.429
44 FP2 72 5.941
44 FP2 73 5.452
44 FP2 74 6.429
44 FP2 75 8.382
44 FP2 76 10.824
44 FP2 77 12.777
44 FP2 78 12.288
44 FP2 79 9.847
44 FP2 80 6.917
44 FP2 81 5.452
44 FP2 82 6.917
44 FP2 83 9.359
44 FP2 84 12.288
44 FP2 85 13.753
44 FP2 86 13.265
44 FP2 87 11.312
44 FP2 88 10.335
44 FP2 89 10.824
44 FP2 90 12.288
44 FP2 91 13.753
44 FP2 92 13.753
44 FP2 93 12.777
44 FP2 94 11.312
44 FP2 95 10.824
44 FP2 96 10.824
44 FP2 97 11.312
44 FP2 98 10.824
44 FP2 99 9.359
44 FP2 100 7.406
44 FP2 101 5.452
44 FP2 102 4.476
44 FP2 103 3.499
44 FP2 104 1.546
44 FP2 105 -0.407
44 FP2 106 -2.360
44 FP2 107 -2.360
44 FP2 108 0.081
44 FP2 109 3.499
44 FP2 110 6.429
44 FP2 111 7.406
44 FP2 112 4.964
44 FP2 113 2.035
44 FP2 114 -0.895
44 FP2 115 -2.848
44 FP2 116 -3.825
44 FP2 117 -3.337
44 FP2 118 -2.360
44 FP2 119 0.081
44 FP2 120 3.011
44 FP2 121 6.429
44 FP2 122 7.406
44 FP2 123 4.964
44 FP2 124 0.570
44 FP2 125 -4.313
44 FP2 126 -7.243
44 FP2 127 -7.243
44 FP2 128 -5.290
44 FP2 129 -3.825
44 FP2 130 -3.825
44 FP2 131 -4.313
44 FP2 132 -4.801
44 FP2 133 -2.848
44 FP2 134 1.058
44 FP2 135 5.452
44 FP2 136 8.382
44 FP2 137 8.382
44 FP2 138 6.917
44 FP2 139 4.476
44 FP2 140 3.011
44 FP2 141 3.011
44 FP2 142 3.988
44 FP2 143 4.964
44 FP2 144 5.941
44 FP2 145 4.964
44 FP2 146 3.011
44 FP2 147 -0.895
44 FP2 148 -4.801
44 FP2 149 -9.196
44 FP2 150 -12.126
44 FP2 151 -13.590
44 FP2 152 -13.102
44 FP2 153 -11.637
44 FP2 154 -10.661
44 FP2 155 -9.684
44 FP2 156 -9.684
44 FP2 157 -9.196
44 FP2 158 -7.731
44 FP2 159 -5.778
44 FP2 160 -2.360
44 FP2 161 1.058
44 FP2 162 3.011
44 FP2 163 3.988
44 FP2 164 3.988
44 FP2 165 3.011
44 FP2 166 3.011
44 FP2 167 3.499
44 FP2 168 4.476
44 FP2 169 4.964
44 FP2 170 3.988
44 FP2 171 2.035
44 FP2 172 -0.407
44 FP2 173 -1.383
44 FP2 174 0.081
44 FP2 175 2.035
44 FP2 176 4.476
44 FP2 177 5.941
44 FP2 178 5.941
44 FP2 179 4.476
44 FP2 180 2.523
44 FP2 181 1.546
44 FP2 182 1.546
44 FP2 183 3.011
44 FP2 184 5.452
44 FP2 185 8.382
44 FP2 186 11.312
44 FP2 187 13.265
44 FP2 188 13.753
44 FP2 189 12.288
44 FP2 190 8.870
44 FP2 191 3.499
44 FP2 192 -0.895
44 FP2 193 -4.313
44 FP2 194 -4.801
44 FP2 195 -3.337
44 FP2 196 -1.383
44 FP2 197 1.058
44 FP2 198 2.035
44 FP2 199 3.011
44 FP2 200 3.499
44 FP2 201 4.476
44 FP2 202 5.452
44 FP2 203 6.429
44 FP2 204 6.917
44 FP2 205 6.917
44 FP2 206 6.429
44 FP2 207 5.452
44 FP2 208 4.964
44 FP2 209 4.964
44 FP2 210 6.429
44 FP2 211 7.894
44 FP2 212 8.382
44 FP2 213 7.894
44 FP2 214 6.429
44 FP2 215 5.452
44 FP2 216 4.964
44 FP2 217 5.452
44 FP2 218 5.452
44 FP2 219 4.964
44 FP2 220 3.011
44 FP2 221 2.035
44 FP2 222 3.011
44 FP2 223 4.476
44 FP2 224 5.941
44 FP2 225 6.917
44 FP2 226 6.429
44 FP2 227 6.917
44 FP2 228 7.406
44 FP2 229 8.382
44 FP2 230 7.406
44 FP2 231 4.476
44 FP2 232 1.058
44 FP2 233 -1.383
44 FP2 234 -1.383
44 FP2 235 -0.407
44 FP2 236 0.081
44 FP2 237 -1.383
44 FP2 238 -4.801
44 FP2 239 -6.755
44 FP2 240 -6.266
44 FP2 241 -2.360
44 FP2 242 1.546
44 FP2 243 4.964
44 FP2 244 5.941
44 FP2 245 4.476
44 FP2 246 3.011
44 FP2 247 2.523
44 FP2 248 2.035
44 FP2 249 2.523
44 FP2 250 3.988
44 FP2 251 4.476
44 FP2 252 4.476
44 FP2 253 3.988
44 FP2 254 2.523
44 FP2 255 1.058
# F7 chan 2
44 F7 0 1.078
44 F7 1 -0.387
44 F7 2 -3.316
44 F7 3 -6.246
44 F7 4 -7.711
44 F7 5 -8.687
44 F7 6 -9.176
44 F7 7 -10.152
44 F7 8 -11.617
44 F7 9 -12.594
44 F7 10 -13.570
44 F7 11 -14.058
44 F7 12 -15.035
44 F7 13 -15.523
44 F7 14 -15.035
44 F7 15 -13.570
44 F7 16 -11.129
44 F7 17 -8.687
44 F7 18 -8.199
44 F7 19 -9.664
44 F7 20 -12.105
44 F7 21 -13.570
44 F7 22 -13.082
44 F7 23 -10.152
44 F7 24 -6.734
44 F7 25 -4.781
44 F7 26 -5.269
44 F7 27 -8.687
44 F7 28 -12.105
44 F7 29 -14.547
44 F7 30 -14.547
44 F7 31 -12.105
44 F7 32 -8.687
44 F7 33 -5.758
44 F7 34 -3.805
44 F7 35 -3.316
44 F7 36 -4.293
44 F7 37 -6.246
44 F7 38 -8.199
44 F7 39 -9.664
44 F7 40 -10.640
44 F7 41 -10.640
44 F7 42 -9.176
44 F7 43 -6.246
44 F7 44 -2.340
44 F7 45 0.590
44 F7 46 1.567
44 F7 47 0.102
44 F7 48 -3.316
44 F7 49 -6.246
44 F7 50 -6.734
44 F7 51 -4.293
44 F7 52 -0.387
44 F7 53 2.543
44 F7 54 3.520
44 F7 55 2.543
44 F7 56 1.078
44 F7 57 0.102
44 F7 58 -0.387
44 F7 59 -1.363
44 F7 60 -2.340
44 F7 61 -3.316
44 F7 62 -2.828
44 F7 63 -1.363
44 F7 64 2.055
44 F7 65 4.985
44 F7 66 6.449
44 F7 67 5.473
44 F7 68 2.543
44 F7 69 -1.363
44 F7 70 -4.781
44 F7 71 -6.246
44 F7 72 -4.781
44 F7 73 -1.363
44 F7 74 3.520
44 F7 75 7.914
44 F7 76 9.379
44 F7 77 8.403
44 F7 78 5.961
44 F7 79 3.520
44 F7 80 2.055
44 F7 81 0.590
44 F7 82 -0.875
44 F7 83 -3.316
44 F7 84 -5.758
44 F7 85 -7.222
44 F7 86 -6.246
44 F7 87 -2.828
44 F7 88 -0.387
44 F7 89 1.078
44 F7 90 -0.387
44 F7 91 -1.851
44 F7 92 -2.828
44 F7 93 -1.851
44 F7 94 0.590
44 F7 95 2.543
44 F7 96 2.543
44 F7 97 2.055
44 F7 98 2.543
44 F7 99 3.520
44 F7 100 5.961
44 F7 101 6.449
44 F7 102 4.008
44 F7 103 -0.875
44 F7 104 -5.269
44 F7 105 -7.222
44 F7 106 -4.781
44 F7 107 -0.875
44 F7 108 2.055
44 F7 109 1.567
44 F7 110 -1.851
44 F7 111 -5.269
44 F7 112 -6.246
44 F7 113 -5.758
44 F7 114 -4.293
44 F7 115 -4.293
44 F7 116 -5.758
44 F7 117 -7.711
44 F7 118 -7.222
44 F7 119 -4.781
44 F7 120 -0.875
44 F7 121 1.078
44 F7 122 0.590
44 F7 123 -2.828
44 F7 124 -6.734
44 F7 125 -9.176
44 F7 126 -11.129
44 F7 127 -12.105
44 F7 128 -12.105
44 F7 129 -11.129
44 F7 130 -8.687
44 F7 131 -5.758
44 F7 132 -4.293
44 F7 133 -4.293
44 F7 134 -6.734
44 F7 135 -8.687
44 F7 136 -9.176
44 F7 137 -7.222
44 F7 138 -4.293
44 F7 139 -1.851
44 F7 140 -0.387
44 F7 141 -0.387
44 F7 142 -0.387
44 F7 143 0.102
44 F7 144 1.078
44 F7 145 0.590
44 F7 146 -0.387
44 F7 147 -2.340
44 F7 148 -2.828
44 F7 149 -2.340
44 F7 150 -1.851
44 F7 151 -1.851
44 F7 152 -3.316
44 F7 153 -4.781
44 F7 154 -5.758
44 F7 155 -4.293
44 F7 156 -2.340
44 F7 157 -0.387
44 F7 158 0.590
44 F7 159 -0.875
44 F7 160 -2.340
44 F7 161 -2.340
44 F7 162 -0.875
44 F7 163 1.567
44 F7 164 3.520
44 F7 165 3.520
44 F7 166 1.078
44 F7 167 -1.851
44 F7 168 -3.805
44 F7 169 -3.805
44 F7 170 -2.828
44 F7 171 -1.851
44 F7 172 -2.340
44 F7 173 -3.805
44 F7 174 -5.758
44 F7 175 -6.734
44 F7 176 -6.246
44 F7 177 -5.269
44 F7 178 -3.316
44 F7 179 -1.851
44 F7 180 -0.387
44 F7 181 0.102
44 F7 182 0.590
44 F7 183 0.590
44 F7 184 -1.363
44 F7 185 -2.828
44 F7 186 -3.805
44 F7 187 -2.828
44 F7 188 0.102
44 F7 189 3.520
44 F7 190 5.473
44 F7 191 4.008
44 F7 192 0.102
44 F7 193 -4.781
44 F7 194 -7.711
44 F7 195 -7.711
44 F7 196 -5.269
44 F7 197 -2.340
44 F7 198 -0.387
44 F7 199 0.102
44 F7 200 0.102
44 F7 201 0.102
44 F7 202 0.590
44 F7 203 2.055
44 F7 204 3.031
44 F7 205 3.520
44 F7 206 3.520
44 F7 207 3.031
44 F7 208 2.543
44 F7 209 2.543
44 F7 210 3.031
44 F7 211 3.031
44 F7 212 2.055
44 F7 213 0.102
44 F7 214 -2.340
44 F7 215 -3.805
44 F7 216 -3.316
44 F7 217 -1.851
44 F7 218 0.590
44 F7 219 2.055
44 F7 220 2.543
44 F7 221 1.567
44 F7 222 0.590
44 F7 223 -0.875
44 F7 224 -1.363
44 F7 225 -0.387
44 F7 226 0.590
44 F7 227 2.055
44 F7 228 2.055
44 F7 229 0.590
44 F7 230 -1.363
44 F7 231 -2.828
44 F7 232 -2.340
44 F7 233 -0.875
44 F7 234 0.102
44 F7 235 -0.875
44 F7 236 -3.316
44 F7 237 -6.734
44 F7 238 -8.199
44 F7 239 -7.222
44 F7 240 -3.316
44 F7 241 0.590
44 F7 242 2.055
44 F7 243 0.102
44 F7 244 -4.293
44 F7 245 -7.711
44 F7 246 -9.176
44 F7 247 -7.711
44 F7 248 -4.293
44 F7 249 -1.363
44 F7 250 0.590
44 F7 251 1.078
44 F7 252 0.590
44 F7 253 -1.363
44 F7 254 -3.805
44 F7 255 -6.246
# F8 chan 3
44 F8 0 3.225
44 F8 1 3.225
44 F8 2 1.760
44 F8 3 0.783
44 F8 4 -0.682
44 F8 5 -2.146
44 F8 6 -5.076
44 F8 7 -8.006
44 F8 8 -10.447
44 F8 9 -10.935
44 F8 10 -9.959
44 F8 11 -8.982
44 F8 12 -8.494
44 F8 13 -9.471
44 F8 14 -10.447
44 F8 15 -10.447
44 F8 16 -8.982
44 F8 17 -6.541
44 F8 18 -5.076
44 F8 19 -4.588
44 F8 20 -5.076
44 F8 21 -4.588
44 F8 22 -3.123
44 F8 23 -1.170
44 F8 24 0.783
44 F8 25 0.783
44 F8 26 -1.658
44 F8 27 -4.588
44 F8 28 -5.564
44 F8 29 -3.611
44 F8 30 1.760
44 F8 31 7.619
44 F8 32 11.525
44 F8 33 12.014
44 F8 34 9.572
44 F8 35 5.666
44 F8 36 2.248
44 F8 37 -0.682
44 F8 38 -2.146
44 F8 39 -1.170
44 F8 40 0.783
44 F8 41 4.201
44 F8 42 7.131
44 F8 43 9.572
44 F8 44 11.037
44 F8 45 11.037
44 F8 46 10.549
44 F8 47 11.037
44 F8 48 11.037
44 F8 49 10.549
44 F8 50 9.572
44 F8 51 8.596
44 F8 52 6.643
44 F8 53 4.690
44 F8 54 1.760
44 F8 55 -1.658
44 F8 56 -4.588
44 F8 57 -7.029
44 F8 58 -7.517
44 F8 59 -5.564
44 F8 60 -1.658
44 F8 61 3.225
44 F8 62 7.131
44 F8 63 9.084
44 F8 64 9.084
44 F8 65 7.619
44 F8 66 7.131
44 F8 67 6.643
44 F8 68 6.643
44 F8 69 6.643
44 F8 70 6.154
44 F8 71 5.666
44 F8 72 4.690
44 F8 73 4.201
44 F8 74 4.690
44 F8 75 5.178
44 F8 76 6.154
44 F8 77 7.131
44 F8 78 8.108
44 F8 79 8.108
44 F8 80 6.643
44 F8 81 5.178
44 F8 82 3.225
44 F8 83 2.736
44 F8 84 2.736
44 F8 85 3.225
44 F8 86 3.225
44 F8 87 3.225
44 F8 88 2.736
44 F8 89 2.248
44 F8 90 3.225
44 F8 91 4.690
44 F8 92 5.178
44 F8 93 5.666
44 F8 94 4.201
44 F8 95 2.736
44 F8 96 2.248
44 F8 97 2.736
44 F8 98 4.690
44 F8 99 6.154
44 F8 100 6.643
44 F8 101 5.666
44 F8 102 4.690
44 F8 103 2.736
44 F8 104 0.295
44 F8 105 -1.658
44 F8 106 -4.100
44 F8 107 -5.564
44 F8 108 -5.076
44 F8 109 -2.635
44 F8 110 0.295
44 F8 111 2.736
44 F8 112 2.248
44 F8 113 -0.193
44 F8 114 -3.123
44 F8 115 -4.588
44 F8 116 -4.100
44 F8 117 -1.658
44 F8 118 0.783
44 F8 119 2.248
44 F8 120 2.248
44 F8 121 1.760
44 F8 122 1.272
44 F8 123 1.272
44 F8 124 0.295
44 F8 125 -2.146
44 F8 126 -5.564
44 F8 127 -9.471
44 F8 128 -10.935
44 F8 129 -10.935
44 F8 130 -9.471
44 F8 131 -7.029
44 F8 132 -5.564
44 F8 133 -4.100
44 F8 134 -2.635
44 F8 135 -1.170
44 F8 136 0.783
44 F8 137 1.272
44 F8 138 0.783
44 F8 139 -0.682
44 F8 140 -1.658
44 F8 141 -1.658
44 F8 142 -0.682
44 F8 143 -0.193
44 F8 144 -0.193
44 F8 145 -1.170
44 F8 146 -2.635
44 F8 147 -2.635
44 F8 148 -2.146
44 F8 149 -2.635
44 F8 150 -4.588
44 F8 151 -8.494
44 F8 152 -12.400
44 F8 153 -14.353
44 F8 154 -12.889
44 F8 155 -8.982
44 F8 156 -5.076
44 F8 157 -3.123
44 F8 158 -2.635
44 F8 159 -2.635
44 F8 160 -1.170
44 F8 161 1.272
44 F8 162 3.225
44 F8 163 4.201
44 F8 164 3.713
44 F8 165 2.248
44 F8 166 1.760
44 F8 167 2.736
44 F8 168 4.690
44 F8 169 6.643
44 F8 170 7.619
44 F8 171 6.643
44 F8 172 4.690
44 F8 173 2.248
44 F8 174 0.295
44 F8 175 -0.193
44 F8 176 0.295
44 F8 177 2.248
44 F8 178 3.713
44 F8 179 3.713
44 F8 180 2.736
44 F8 181 1.272
44 F8 182 1.272
44 F8 183 3.713
44 F8 184 8.108
44 F8 185 13.479
44 F8 186 16.408
44 F8 187 16.408
44 F8 188 12.502
44 F8 189 8.108
44 F8 190 4.201
44 F8 191 2.248
44 F8 192 1.760
44 F8 193 0.783
44 F8 194 -0.682
44 F8 195 -2.635
44 F8 196 -4.100
44 F8 197 -4.100
44 F8 198 -2.635
44 F8 199 -0.193
44 F8 200 2.736
44 F8 201 5.666
44 F8 202 7.131
44 F8 203 6.643
44 F8 204 5.178
44 F8 205 2.736
44 F8 206 1.760
44 F8 207 2.248
44 F8 208 4.201
44 F8 209 5.666
44 F8 210 6.154
44 F8 211 4.690
44 F8 212 2.248
44 F8 213 -0.193
44 F8 214 -1.170
44 F8 215 -0.682
44 F8 216 -0.193
44 F8 217 0.783
44 F8 218 1.272
44 F8 219 0.783
44 F8 220 0.295
44 F8 221 -0.193
44 F8 222 0.295
44 F8 223 0.295
44 F8 224 1.272
44 F8 225 2.736
44 F8 226 4.690
44 F8 227 6.643
44 F8 228 8.596
44 F8 229 7.619
44 F8 230 4.690
44 F8 231 0.783
44 F8 232 -2.146
44 F8 233 -2.635
44 F8 234 -1.170
44 F8 235 0.783
44 F8 236 0.295
44 F8 237 -2.146
44 F8 238 -5.564
44 F8 239 -7.029
44 F8 240 -6.541
44 F8 241 -4.100
44 F8 242 -1.658
44 F8 243 -1.658
44 F8 244 -3.611
44 F8 245 -6.541
44 F8 246 -8.006
44 F8 247 -6.541
44 F8 248 -3.123
44 F8 249 1.272
44 F8 250 4.201
44 F8 251 4.201
44 F8 252 2.248
44 F8 253 -0.682
44 F8 254 -2.146
44 F8 255 -2.146
# AF1 chan 4
44 AF1 0 9.562
44 AF1 1 7.609
44 AF1 2 4.191
44 AF1 3 0.773
44 AF1 4 -1.668
44 AF1 5 -2.645
44 AF1 6 -3.133
44 AF1 7 -3.621
44 AF1 8 -4.598
44 AF1 9 -4.598
44 AF1 10 -4.110
44 AF1 11 -3.621
44 AF1 12 -3.621
44 AF1 13 -4.110
44 AF1 14 -4.598
44 AF1 15 -5.086
44 AF1 16 -5.086
44 AF1 17 -4.598
44 AF1 18 -4.110
44 AF1 19 -4.598
44 AF1 20 -5.575
44 AF1 21 -6.551
44 AF1 22 -7.039
44 AF1 23 -6.063
44 AF1 24 -5.086
44 AF1 25 -4.110
44 AF1 26 -4.598
44 AF1 27 -6.063
44 AF1 28 -7.528
44 AF1 29 -7.528
44 AF1 30 -6.551
44 AF1 31 -4.110
44 AF1 32 -0.692
44 AF1 33 2.238
44 AF1 34 4.191
44 AF1 35 4.679
44 AF1 36 3.703
44 AF1 37 1.261
44 AF1 38 -1.180
44 AF1 39 -3.133
44 AF1 40 -2.645
44 AF1 41 0.285
44 AF1 42 4.679
44 AF1 43 9.562
44 AF1 44 12.492
44 AF1 45 13.468
44 AF1 46 12.004
44 AF1 47 9.074
44 AF1 48 6.632
44 AF1 49 5.168
44 AF1 50 3.703
44 AF1 51 3.215
44 AF1 52 3.215
44 AF1 53 4.191
44 AF1 54 6.144
44 AF1 55 7.609
44 AF1 56 8.097
44 AF1 57 7.121
44 AF1 58 4.191
44 AF1 59 1.261
44 AF1 60 -0.203
44 AF1 61 0.773
44 AF1 62 2.726
44 AF1 63 5.168
44 AF1 64 6.632
44 AF1 65 7.121
44 AF1 66 7.609
44 AF1 67 7.609
44 AF1 68 7.609
44 AF1 69 6.632
44 AF1 70 4.679
44 AF1 71 3.215
44 AF1 72 2.726
44 AF1 73 4.191
44 AF1 74 6.144
44 AF1 75 8.586
44 AF1 76 9.562
44 AF1 77 8.586
44 AF1 78 7.121
44 AF1 79 5.656
44 AF1 80 4.679
44 AF1 81 4.679
44 AF1 82 5.168
44 AF1 83 5.656
44 AF1 84 6.632
44 AF1 85 8.097
44 AF1 86 9.074
44 AF1 87 10.050
44 AF1 88 10.539
44 AF1 89 11.027
44 AF1 90 10.539
44 AF1 91 10.050
44 AF1 92 9.074
44 AF1 93 8.097
44 AF1 94 7.121
44 AF1 95 6.632
44 AF1 96 7.121
44 AF1 97 7.609
44 AF1 98 8.586
44 AF1 99 8.586
44 AF1 100 7.609
44 AF1 101 5.656
44 AF1 102 2.726
44 AF1 103 0.773
44 AF1 104 -1.180
44 AF1 105 -1.180
44 AF1 106 -1.180
44 AF1 107 -1.180
44 AF1 108 -0.203
44 AF1 109 0.285
44 AF1 110 0.773
44 AF1 111 1.261
44 AF1 112 1.750
44 AF1 113 0.773
44 AF1 114 -0.203
44 AF1 115 -1.180
44 AF1 116 -1.180
44 AF1 117 0.285
44 AF1 118 2.726
44 AF1 119 5.168
44 AF1 120 6.144
44 AF1 121 5.656
44 AF1 122 2.726
44 AF1 123 -0.203
44 AF1 124 -3.621
44 AF1 125 -5.575
44 AF1 126 -6.551
44 AF1 127 -7.039
44 AF1 128 -7.039
44 AF1 129 -6.063
44 AF1 130 -5.086
44 AF1 131 -3.621
44 AF1 132 -2.157
44 AF1 133 -0.692
44 AF1 134 0.285
44 AF1 135 1.261
44 AF1 136 1.750
44 AF1 137 2.238
44 AF1 138 3.703
44 AF1 139 5.168
44 AF1 140 6.632
44 AF1 141 7.121
44 AF1 142 6.632
44 AF1 143 5.656
44 AF1 144 3.215
44 AF1 145 0.773
44 AF1 146 -1.668
44 AF1 147 -3.621
44 AF1 148 -5.575
44 AF1 149 -7.039
44 AF1 150 -8.504
44 AF1 151 -9.969
44 AF1 152 -10.457
44 AF1 153 -9.969
44 AF1 154 -8.993
44 AF1 155 -7.528
44 AF1 156 -6.063
44 AF1 157 -5.086
44 AF1 158 -3.621
44 AF1 159 -1.668
44 AF1 160 0.773
44 AF1 161 2.726
44 AF1 162 3.703
44 AF1 163 4.191
44 AF1 164 3.215
44 AF1 165 2.238
44 AF1 166 0.285
44 AF1 167 -1.180
44 AF1 168 -2.157
44 AF1 169 -2.157
44 AF1 170 -1.668
44 AF1 171 -0.692
44 AF1 172 0.285
44 AF1 173 0.285
44 AF1 174 -0.203
44 AF1 175 -1.180
44 AF1 176 -1.180
44 AF1 177 -0.692
44 AF1 178 0.773
44 AF1 179 1.261
44 AF1 180 1.261
44 AF1 181 0.773
44 AF1 182 0.285
44 AF1 183 0.773
44 AF1 184 0.773
44 AF1 185 1.750
44 AF1 186 2.238
44 AF1 187 2.726
44 AF1 188 2.238
44 AF1 189 2.238
44 AF1 190 1.261
44 AF1 191 -0.203
44 AF1 192 -2.157
44 AF1 193 -3.621
44 AF1 194 -4.110
44 AF1 195 -4.110
44 AF1 196 -2.645
44 AF1 197 -1.180
44 AF1 198 -0.203
44 AF1 199 0.773
44 AF1 200 1.261
44 AF1 201 1.750
44 AF1 202 1.750
44 AF1 203 1.750
44 AF1 204 1.750
44 AF1 205 1.750
44 AF1 206 2.238
44 AF1 207 3.703
44 AF1 208 5.656
44 AF1 209 7.609
44 AF1 210 8.097
44 AF1 211 6.632
44 AF1 212 4.191
44 AF1 213 0.773
44 AF1 214 -1.180
44 AF1 215 -1.668
44 AF1 216 -0.692
44 AF1 217 2.238
44 AF1 218 4.679
44 AF1 219 6.144
44 AF1 220 6.144
44 AF1 221 5.168
44 AF1 222 4.679
44 AF1 223 3.703
44 AF1 224 3.215
44 AF1 225 2.726
44 AF1 226 2.238
44 AF1 227 1.261
44 AF1 228 0.773
44 AF1 229 0.285
44 AF1 230 0.285
44 AF1 231 0.285
44 AF1 232 0.285
44 AF1 233 0.285
44 AF1 234 -0.692
44 AF1 235 -2.157
44 AF1 236 -3.133
44 AF1 237 -3.621
44 AF1 238 -3.133
44 AF1 239 -1.668
44 AF1 240 -0.692
44 AF1 241 0.285
44 AF1 242 1.261
44 AF1 243 1.261
44 AF1 244 1.750
44 AF1 245 2.238
44 AF1 246 2.726
44 AF1 247 2.726
44 AF1 248 2.238
44 AF1 249 1.261
44 AF1 250 0.285
44 AF1 251 0.285
44 AF1 252 1.261
44 AF1 253 2.238
44 AF1 254 2.238
44 AF1 255 2.238
# AF2 chan 5
44 AF2 0 10.681
44 AF2 1 8.728
44 AF2 2 5.310
44 AF2 3 1.404
44 AF2 4 -1.038
44 AF2 5 -2.502
44 AF2 6 -2.991
44 AF2 7 -3.967
44 AF2 8 -4.456
44 AF2 9 -4.944
44 AF2 10 -4.456
44 AF2 11 -3.479
44 AF2 12 -2.991
44 AF2 13 -2.991
44 AF2 14 -3.967
44 AF2 15 -4.944
44 AF2 16 -4.944
44 AF2 17 -3.967
44 AF2 18 -3.479
44 AF2 19 -3.479
44 AF2 20 -4.944
44 AF2 21 -6.897
44 AF2 22 -7.385
44 AF2 23 -6.409
44 AF2 24 -3.967
44 AF2 25 -2.014
44 AF2 26 -1.038
44 AF2 27 -2.502
44 AF2 28 -4.456
44 AF2 29 -6.409
44 AF2 30 -5.920
44 AF2 31 -3.479
44 AF2 32 0.427
44 AF2 33 4.333
44 AF2 34 6.287
44 AF2 35 6.287
44 AF2 36 3.845
44 AF2 37 0.916
44 AF2 38 -1.038
44 AF2 39 -1.038
44 AF2 40 0.427
44 AF2 41 4.333
44 AF2 42 7.751
44 AF2 43 11.169
44 AF2 44 13.611
44 AF2 45 14.099
44 AF2 46 13.611
44 AF2 47 12.146
44 AF2 48 10.193
44 AF2 49 8.240
44 AF2 50 6.287
44 AF2 51 5.798
44 AF2 52 5.310
44 AF2 53 6.287
44 AF2 54 6.775
44 AF2 55 6.775
44 AF2 56 6.287
44 AF2 57 4.333
44 AF2 58 2.380
44 AF2 59 0.916
44 AF2 60 0.916
44 AF2 61 1.404
44 AF2 62 2.380
44 AF2 63 4.333
44 AF2 64 5.310
44 AF2 65 6.287
44 AF2 66 7.263
44 AF2 67 8.240
44 AF2 68 7.751
44 AF2 69 6.775
44 AF2 70 4.822
44 AF2 71 2.869
44 AF2 72 1.892
44 AF2 73 2.869
44 AF2 74 4.333
44 AF2 75 5.798
44 AF2 76 6.775
44 AF2 77 7.263
44 AF2 78 7.263
44 AF2 79 6.775
44 AF2 80 6.775
44 AF2 81 5.798
44 AF2 82 5.310
44 AF2 83 4.822
44 AF2 84 5.798
44 AF2 85 7.751
44 AF2 86 10.193
44 AF2 87 11.658
44 AF2 88 12.146
44 AF2 89 11.658
44 AF2 90 10.681
44 AF2 91 9.216
44 AF2 92 8.240
44 AF2 93 7.751
44 AF2 94 7.263
44 AF2 95 6.775
44 AF2 96 5.798
44 AF2 97 5.310
44 AF2 98 5.310
44 AF2 99 4.822
44 AF2 100 4.822
44 AF2 101 4.333
44 AF2 102 2.869
44 AF2 103 1.404
44 AF2 104 -0.061
44 AF2 105 -1.526
44 AF2 106 -1.526
44 AF2 107 -1.038
44 AF2 108 -0.061
44 AF2 109 1.404
44 AF2 110 2.380
44 AF2 111 2.380
44 AF2 112 1.892
44 AF2 113 0.916
44 AF2 114 -0.549
44 AF2 115 -1.526
44 AF2 116 -1.038
44 AF2 117 1.404
44 AF2 118 4.822
44 AF2 119 8.240
44 AF2 120 9.216
44 AF2 121 8.240
44 AF2 122 5.310
44 AF2 123 1.892
44 AF2 124 -1.038
44 AF2 125 -2.991
44 AF2 126 -3.967
44 AF2 127 -3.967
44 AF2 128 -3.479
44 AF2 129 -2.502
44 AF2 130 -1.038
44 AF2 131 0.427
44 AF2 132 0.916
44 AF2 133 1.404
44 AF2 134 1.892
44 AF2 135 2.380
44 AF2 136 3.357
44 AF2 137 4.822
44 AF2 138 6.287
44 AF2 139 7.263
44 AF2 140 8.240
44 AF2 141 8.728
44 AF2 142 8.240
44 AF2 143 6.775
44 AF2 144 4.822
44 AF2 145 1.892
44 AF2 146 -1.038
44 AF2 147 -2.991
44 AF2 148 -4.456
44 AF2 149 -4.944
44 AF2 150 -5.920
44 AF2 151 -7.385
44 AF2 152 -8.850
44 AF2 153 -9.338
44 AF2 154 -8.850
44 AF2 155 -7.385
44 AF2 156 -5.920
44 AF2 157 -4.944
44 AF2 158 -3.967
44 AF2 159 -2.014
44 AF2 160 0.427
44 AF2 161 3.845
44 AF2 162 5.798
44 AF2 163 6.775
44 AF2 164 5.798
44 AF2 165 4.333
44 AF2 166 2.380
44 AF2 167 1.404
44 AF2 168 1.404
44 AF2 169 2.380
44 AF2 170 3.845
44 AF2 171 4.822
44 AF2 172 4.822
44 AF2 173 4.822
44 AF2 174 4.333
44 AF2 175 3.357
44 AF2 176 2.869
44 AF2 177 2.869
44 AF2 178 2.869
44 AF2 179 3.357
44 AF2 180 3.845
44 AF2 181 3.845
44 AF2 182 3.845
44 AF2 183 4.333
44 AF2 184 5.310
44 AF2 185 6.287
44 AF2 186 6.775
44 AF2 187 7.263
44 AF2 188 6.775
44 AF2 189 5.798
44 AF2 190 4.822
44 AF2 191 3.357
44 AF2 192 1.404
44 AF2 193 0.427
44 AF2 194 -1.038
44 AF2 195 -1.038
44 AF2 196 -0.061
44 AF2 197 1.404
44 AF2 198 3.357
44 AF2 199 4.333
44 AF2 200 5.310
44 AF2 201 5.310
44 AF2 202 5.798
44 AF2 203 5.798
44 AF2 204 5.798
44 AF2 205 5.310
44 AF2 206 5.798
44 AF2 207 6.775
44 AF2 208 8.240
44 AF2 209 9.216
44 AF2 210 9.705
44 AF2 211 8.728
44 AF2 212 6.775
44 AF2 213 4.333
44 AF2 214 2.869
44 AF2 215 2.869
44 AF2 216 4.333
44 AF2 217 5.798
44 AF2 218 6.775
44 AF2 219 7.263
44 AF2 220 6.287
44 AF2 221 5.310
44 AF2 222 4.822
44 AF2 223 4.333
44 AF2 224 4.333
44 AF2 225 4.822
44 AF2 226 5.310
44 AF2 227 5.798
44 AF2 228 6.287
44 AF2 229 5.798
44 AF2 230 4.822
44 AF2 231 3.357
44 AF2 232 1.892
44 AF2 233 0.916
44 AF2 234 1.404
44 AF2 235 1.892
44 AF2 236 1.892
44 AF2 237 1.404
44 AF2 238 0.427
44 AF2 239 -0.061
44 AF2 240 0.427
44 AF2 241 1.892
44 AF2 242 3.357
44 AF2 243 3.845
44 AF2 244 3.845
44 AF2 245 3.845
44 AF2 246 4.333
44 AF2 247 5.310
44 AF2 248 6.287
44 AF2 249 6.287
44 AF2 250 5.310
44 AF2 251 4.333
44 AF2 252 4.333
44 AF2 253 4.822
44 AF2 254 5.310
44 AF2 255 5.310
# FZ chan 6
44 FZ 0 9.389
44 FZ 1 8.413
44 FZ 2 5.971
44 FZ 3 3.042
44 FZ 4 0.600
44 FZ 5 -0.376
44 FZ 6 -0.865
44 FZ 7 -1.353
44 FZ 8 -1.841
44 FZ 9 -2.330
44 FZ 10 -1.841
44 FZ 11 -1.353
44 FZ 12 -0.865
44 FZ 13 -1.353
44 FZ 14 -1.841
44 FZ 15 -2.818
44 FZ 16 -2.818
44 FZ 17 -2.330
44 FZ 18 -2.330
44 FZ 19 -2.818
44 FZ 20 -3.794
44 FZ 21 -5.747
44 FZ 22 -6.724
44 FZ 23 -6.236
44 FZ 24 -4.283
44 FZ 25 -2.818
44 FZ 26 -2.330
44 FZ 27 -3.306
44 FZ 28 -4.771
44 FZ 29 -5.747
44 FZ 30 -5.259
44 FZ 31 -3.794
44 FZ 32 -0.376
44 FZ 33 2.553
44 FZ 34 4.506
44 FZ 35 5.483
44 FZ 36 4.506
44 FZ 37 2.553
44 FZ 38 1.088
44 FZ 39 0.112
44 FZ 40 0.600
44 FZ 41 3.042
44 FZ 42 5.971
44 FZ 43 9.878
44 FZ 44 12.319
44 FZ 45 13.295
44 FZ 46 12.807
44 FZ 47 11.342
44 FZ 48 8.901
44 FZ 49 6.948
44 FZ 50 4.995
44 FZ 51 4.018
44 FZ 52 4.506
44 FZ 53 5.483
44 FZ 54 6.460
44 FZ 55 7.924
44 FZ 56 8.413
44 FZ 57 7.436
44 FZ 58 5.483
44 FZ 59 3.042
44 FZ 60 2.065
44 FZ 61 1.577
44 FZ 62 1.577
44 FZ 63 2.553
44 FZ 64 4.018
44 FZ 65 4.506
44 FZ 66 5.483
44 FZ 67 5.971
44 FZ 68 5.971
44 FZ 69 5.483
44 FZ 70 4.506
44 FZ 71 3.042
44 FZ 72 2.065
44 FZ 73 2.553
44 FZ 74 3.530
44 FZ 75 5.483
44 FZ 76 6.948
44 FZ 77 7.924
44 FZ 78 7.924
44 FZ 79 6.948
44 FZ 80 5.971
44 FZ 81 5.483
44 FZ 82 4.995
44 FZ 83 5.483
44 FZ 84 6.460
44 FZ 85 7.924
44 FZ 86 9.878
44 FZ 87 11.342
44 FZ 88 11.831
44 FZ 89 11.342
44 FZ 90 9.878
44 FZ 91 8.413
44 FZ 92 6.948
44 FZ 93 6.460
44 FZ 94 5.971
44 FZ 95 5.483
44 FZ 96 4.995
44 FZ 97 4.995
44 FZ 98 5.483
44 FZ 99 5.483
44 FZ 100 4.995
44 FZ 101 4.018
44 FZ 102 3.042
44 FZ 103 1.577
44 FZ 104 1.088
44 FZ 105 0.600
44 FZ 106 1.088
44 FZ 107 1.577
44 FZ 108 2.065
44 FZ 109 3.042
44 FZ 110 3.530
44 FZ 111 4.018
44 FZ 112 4.018
44 FZ 113 3.530
44 FZ 114 2.553
44 FZ 115 2.065
44 FZ 116 2.553
44 FZ 117 4.018
44 FZ 118 5.971
44 FZ 119 7.924
44 FZ 120 8.901
44 FZ 121 8.413
44 FZ 122 5.971
44 FZ 123 3.042
44 FZ 124 0.112
44 FZ 125 -2.330
44 FZ 126 -3.794
44 FZ 127 -4.283
44 FZ 128 -3.306
44 FZ 129 -1.841
44 FZ 130 -0.865
44 FZ 131 0.600
44 FZ 132 0.600
44 FZ 133 0.600
44 FZ 134 1.088
44 FZ 135 1.577
44 FZ 136 2.553
44 FZ 137 3.530
44 FZ 138 4.506
44 FZ 139 5.483
44 FZ 140 6.460
44 FZ 141 6.948
44 FZ 142 6.948
44 FZ 143 5.483
44 FZ 144 3.530
44 FZ 145 1.088
44 FZ 146 -2.330
44 FZ 147 -3.306
44 FZ 148 -4.283
44 FZ 149 -4.771
44 FZ 150 -5.259
44 FZ 151 -6.724
44 FZ 152 -7.212
44 FZ 153 -7.212
44 FZ 154 -6.236
44 FZ 155 -4.771
44 FZ 156 -2.818
44 FZ 157 -2.330
44 FZ 158 -1.353
44 FZ 159 -0.376
44 FZ 160 1.088
44 FZ 161 3.042
44 FZ 162 4.506
44 FZ 163 4.995
44 FZ 164 4.018
44 FZ 165 2.553
44 FZ 166 0.600
44 FZ 167 -0.376
44 FZ 168 -0.376
44 FZ 169 0.600
44 FZ 170 2.065
44 FZ 171 2.553
44 FZ 172 3.042
44 FZ 173 2.065
44 FZ 174 1.088
44 FZ 175 0.600
44 FZ 176 0.112
44 FZ 177 1.088
44 FZ 178 1.577
44 FZ 179 2.553
44 FZ 180 3.042
44 FZ 181 2.553
44 FZ 182 2.553
44 FZ 183 1.577
44 FZ 184 1.577
44 FZ 185 1.577
44 FZ 186 1.577
44 FZ 187 2.553
44 FZ 188 3.042
44 FZ 189 3.530
44 FZ 190 3.042
44 FZ 191 1.577
44 FZ 192 0.112
44 FZ 193 -0.865
44 FZ 194 -1.841
44 FZ 195 -1.841
44 FZ 196 -0.865
44 FZ 197 0.600
44 FZ 198 1.577
44 FZ 199 2.553
44 FZ 200 3.042
44 FZ 201 4.018
44 FZ 202 4.506
44 FZ 203 4.506
44 FZ 204 4.018
44 FZ 205 4.018
44 FZ 206 4.018
44 FZ 207 4.995
44 FZ 208 6.460
44 FZ 209 7.436
44 FZ 210 7.436
44 FZ 211 5.971
44 FZ 212 3.530
44 FZ 213 1.088
44 FZ 214 -0.865
44 FZ 215 -0.865
44 FZ 216 0.112
44 FZ 217 2.065
44 FZ 218 3.530
44 FZ 219 4.018
44 FZ 220 3.530
44 FZ 221 2.065
44 FZ 222 0.600
44 FZ 223 0.112
44 FZ 224 0.112
44 FZ 225 1.088
44 FZ 226 1.577
44 FZ 227 2.065
44 FZ 228 2.065
44 FZ 229 2.065
44 FZ 230 2.065
44 FZ 231 1.577
44 FZ 232 1.088
44 FZ 233 1.088
44 FZ 234 1.088
44 FZ 235 1.088
44 FZ 236 1.088
44 FZ 237 1.088
44 FZ 238 1.577
44 FZ 239 2.065
44 FZ 240 2.065
44 FZ 241 2.553
44 FZ 242 2.553
44 FZ 243 2.553
44 FZ 244 2.553
44 FZ 245 3.042
44 FZ 246 4.018
44 FZ 247 4.995
44 FZ 248 4.995
44 FZ 249 4.506
44 FZ 250 3.530
44 FZ 251 2.553
44 FZ 252 2.553
44 FZ 253 3.530
44 FZ 254 3.530
44 FZ 255 4.018
# F4 chan 7
44 F4 0 8.687
44 F4 1 8.199
44 F4 2 5.269
44 F4 3 1.363
44 F4 4 -1.567
44 F4 5 -3.031
44 F4 6 -4.008
44 F4 7 -4.496
44 F4 8 -4.496
44 F4 9 -4.496
44 F4 10 -3.520
44 F4 11 -3.031
44 F4 12 -2.543
44 F4 13 -3.520
44 F4 14 -4.985
44 F4 15 -5.473
44 F4 16 -4.985
44 F4 17 -3.520
44 F4 18 -2.543
44 F4 19 -2.543
44 F4 20 -3.520
44 F4 21 -5.473
44 F4 22 -6.938
44 F4 23 -6.938
44 F4 24 -5.473
44 F4 25 -3.031
44 F4 26 -1.567
44 F4 27 -1.567
44 F4 28 -3.031
44 F4 29 -4.496
44 F4 30 -4.985
44 F4 31 -4.008
44 F4 32 -1.567
44 F4 33 1.363
44 F4 34 3.805
44 F4 35 4.293
44 F4 36 2.828
44 F4 37 1.363
44 F4 38 0.387
44 F4 39 0.875
44 F4 40 2.340
44 F4 41 4.781
44 F4 42 7.222
44 F4 43 9.176
44 F4 44 10.640
44 F4 45 11.617
44 F4 46 11.617
44 F4 47 10.640
44 F4 48 8.687
44 F4 49 5.758
44 F4 50 3.316
44 F4 51 1.851
44 F4 52 1.363
44 F4 53 2.340
44 F4 54 3.316
44 F4 55 4.293
44 F4 56 4.293
44 F4 57 3.805
44 F4 58 2.340
44 F4 59 0.387
44 F4 60 -1.078
44 F4 61 -1.567
44 F4 62 -1.567
44 F4 63 -0.590
44 F4 64 0.387
44 F4 65 1.363
44 F4 66 1.851
44 F4 67 2.340
44 F4 68 2.828
44 F4 69 2.828
44 F4 70 2.828
44 F4 71 1.851
44 F4 72 0.875
44 F4 73 -0.102
44 F4 74 0.387
44 F4 75 1.363
44 F4 76 2.828
44 F4 77 3.805
44 F4 78 4.293
44 F4 79 3.316
44 F4 80 2.340
44 F4 81 0.875
44 F4 82 -0.102
44 F4 83 -0.102
44 F4 84 1.363
44 F4 85 3.316
44 F4 86 5.758
44 F4 87 7.711
44 F4 88 7.711
44 F4 89 6.734
44 F4 90 5.269
44 F4 91 2.828
44 F4 92 1.363
44 F4 93 -0.102
44 F4 94 -0.590
44 F4 95 -1.078
44 F4 96 -1.567
44 F4 97 -1.567
44 F4 98 -1.567
44 F4 99 -0.590
44 F4 100 -0.102
44 F4 101 -0.102
44 F4 102 -0.590
44 F4 103 -2.055
44 F4 104 -4.008
44 F4 105 -4.985
44 F4 106 -4.985
44 F4 107 -4.008
44 F4 108 -2.543
44 F4 109 -0.590
44 F4 110 0.875
44 F4 111 1.363
44 F4 112 1.363
44 F4 113 0.387
44 F4 114 -1.078
44 F4 115 -2.055
44 F4 116 -2.055
44 F4 117 -0.590
44 F4 118 1.851
44 F4 119 5.269
44 F4 120 7.222
44 F4 121 7.711
44 F4 122 6.246
44 F4 123 3.316
44 F4 124 -0.102
44 F4 125 -2.543
44 F4 126 -4.496
44 F4 127 -4.496
44 F4 128 -4.008
44 F4 129 -2.543
44 F4 130 -1.567
44 F4 131 -1.078
44 F4 132 -1.078
44 F4 133 -1.078
44 F4 134 -1.078
44 F4 135 -0.590
44 F4 136 1.363
44 F4 137 3.805
44 F4 138 5.758
44 F4 139 6.246
44 F4 140 6.246
44 F4 141 4.781
44 F4 142 3.805
44 F4 143 2.340
44 F4 144 0.875
44 F4 145 -1.567
44 F4 146 -3.520
44 F4 147 -4.496
44 F4 148 -4.985
44 F4 149 -4.985
44 F4 150 -5.473
44 F4 151 -7.426
44 F4 152 -9.379
44 F4 153 -10.844
44 F4 154 -10.356
44 F4 155 -8.403
44 F4 156 -5.961
44 F4 157 -4.008
44 F4 158 -2.055
44 F4 159 -0.590
44 F4 160 0.875
44 F4 161 2.340
44 F4 162 3.316
44 F4 163 2.828
44 F4 164 1.363
44 F4 165 -0.102
44 F4 166 -1.078
44 F4 167 -0.590
44 F4 168 0.875
44 F4 169 2.340
44 F4 170 3.316
44 F4 171 3.316
44 F4 172 2.828
44 F4 173 2.340
44 F4 174 1.363
44 F4 175 0.875
44 F4 176 -0.102
44 F4 177 -0.102
44 F4 178 -0.102
44 F4 179 0.387
44 F4 180 0.875
44 F4 181 0.387
44 F4 182 0.387
44 F4 183 0.875
44 F4 184 2.340
44 F4 185 4.293
44 F4 186 5.269
44 F4 187 5.269
44 F4 188 4.293
44 F4 189 2.828
44 F4 190 1.363
44 F4 191 0.875
44 F4 192 -0.102
44 F4 193 -1.078
44 F4 194 -2.543
44 F4 195 -3.031
44 F4 196 -3.031
44 F4 197 -1.078
44 F4 198 1.363
44 F4 199 3.316
44 F4 200 4.293
44 F4 201 4.781
44 F4 202 4.781
44 F4 203 4.781
44 F4 204 4.781
44 F4 205 3.805
44 F4 206 3.316
44 F4 207 3.316
44 F4 208 4.293
44 F4 209 5.758
44 F4 210 6.246
44 F4 211 6.246
44 F4 212 4.293
44 F4 213 2.340
44 F4 214 0.387
44 F4 215 -0.102
44 F4 216 0.387
44 F4 217 1.363
44 F4 218 1.851
44 F4 219 1.851
44 F4 220 0.387
44 F4 221 -1.567
44 F4 222 -2.543
44 F4 223 -2.543
44 F4 224 -1.567
44 F4 225 -0.590
44 F4 226 0.387
44 F4 227 1.363
44 F4 228 1.851
44 F4 229 2.340
44 F4 230 2.340
44 F4 231 1.851
44 F4 232 0.875
44 F4 233 -0.590
44 F4 234 -1.567
44 F4 235 -2.055
44 F4 236 -2.543
44 F4 237 -2.543
44 F4 238 -3.031
44 F4 239 -3.031
44 F4 240 -2.543
44 F4 241 -2.055
44 F4 242 -1.567
44 F4 243 -2.055
44 F4 244 -2.543
44 F4 245 -2.055
44 F4 246 -1.078
44 F4 247 -0.102
44 F4 248 0.387
44 F4 249 0.387
44 F4 250 -0.590
44 F4 251 -1.078
44 F4 252 -0.590
44 F4 253 -0.102
44 F4 254 0.875
44 F4 255 0.875
# F3 chan 8
44 F3 0 6.989
44 F3 1 5.524
44 F3 2 3.082
44 F3 3 0.641
44 F3 4 -0.824
44 F3 5 -1.312
44 F3 6 -1.312
44 F3 7 -2.289
44 F3 8 -2.777
44 F3 9 -3.265
44 F3 10 -3.265
44 F3 11 -2.777
44 F3 12 -2.289
44 F3 13 -2.777
44 F3 14 -3.265
44 F3 15 -3.754
44 F3 16 -4.242
44 F3 17 -4.730
44 F3 18 -5.707
44 F3 19 -7.660
44 F3 20 -9.613
44 F3 21 -10.101
44 F3 22 -9.613
44 F3 23 -8.148
44 F3 24 -6.195
44 F3 25 -5.707
44 F3 26 -6.195
44 F3 27 -7.172
44 F3 28 -8.148
44 F3 29 -8.148
44 F3 30 -6.683
44 F3 31 -4.242
44 F3 32 -1.801
44 F3 33 1.617
44 F3 34 4.547
44 F3 35 6.012
44 F3 36 6.012
44 F3 37 4.059
44 F3 38 0.641
44 F3 39 -2.289
44 F3 40 -2.777
44 F3 41 -0.824
44 F3 42 2.594
44 F3 43 6.012
44 F3 44 7.965
44 F3 45 7.965
44 F3 46 6.989
44 F3 47 5.524
44 F3 48 4.059
44 F3 49 2.106
44 F3 50 0.641
44 F3 51 -0.336
44 F3 52 0.641
44 F3 53 2.594
44 F3 54 6.012
44 F3 55 8.453
44 F3 56 8.942
44 F3 57 7.477
44 F3 58 4.547
44 F3 59 2.106
44 F3 60 0.641
44 F3 61 0.153
44 F3 62 0.153
44 F3 63 0.153
44 F3 64 0.641
44 F3 65 1.129
44 F3 66 2.594
44 F3 67 4.547
44 F3 68 5.524
44 F3 69 5.035
44 F3 70 3.082
44 F3 71 1.129
44 F3 72 -0.336
44 F3 73 0.153
44 F3 74 2.106
44 F3 75 5.035
44 F3 76 6.012
44 F3 77 6.012
44 F3 78 5.524
44 F3 79 4.547
44 F3 80 3.571
44 F3 81 3.571
44 F3 82 3.082
44 F3 83 3.082
44 F3 84 3.082
44 F3 85 3.571
44 F3 86 4.547
44 F3 87 6.012
44 F3 88 7.477
44 F3 89 8.453
44 F3 90 8.453
44 F3 91 7.477
44 F3 92 6.500
44 F3 93 5.035
44 F3 94 4.059
44 F3 95 3.082
44 F3 96 3.082
44 F3 97 3.571
44 F3 98 4.547
44 F3 99 6.012
44 F3 100 5.524
44 F3 101 3.571
44 F3 102 1.129
44 F3 103 -1.312
44 F3 104 -2.777
44 F3 105 -2.777
44 F3 106 -1.801
44 F3 107 -0.824
44 F3 108 -0.336
44 F3 109 -0.336
44 F3 110 -0.336
44 F3 111 0.153
44 F3 112 0.153
44 F3 113 -0.336
44 F3 114 -1.801
44 F3 115 -2.289
44 F3 116 -1.312
44 F3 117 1.617
44 F3 118 5.035
44 F3 119 7.965
44 F3 120 8.453
44 F3 121 6.989
44 F3 122 3.571
44 F3 123 0.641
44 F3 124 -2.289
44 F3 125 -4.242
44 F3 126 -5.219
44 F3 127 -5.707
44 F3 128 -5.707
44 F3 129 -4.730
44 F3 130 -3.265
44 F3 131 -1.801
44 F3 132 -0.336
44 F3 133 0.641
44 F3 134 1.129
44 F3 135 0.641
44 F3 136 0.641
44 F3 137 0.641
44 F3 138 1.617
44 F3 139 3.082
44 F3 140 5.035
44 F3 141 7.477
44 F3 142 7.965
44 F3 143 6.989
44 F3 144 5.035
44 F3 145 1.617
44 F3 146 -1.312
44 F3 147 -3.265
44 F3 148 -4.730
44 F3 149 -5.219
44 F3 150 -5.707
44 F3 151 -6.195
44 F3 152 -5.707
44 F3 153 -4.242
44 F3 154 -2.289
44 F3 155 -0.824
44 F3 156 0.641
44 F3 157 1.129
44 F3 158 2.106
44 F3 159 2.594
44 F3 160 3.571
44 F3 161 3.571
44 F3 162 4.059
44 F3 163 3.571
44 F3 164 3.082
44 F3 165 2.106
44 F3 166 0.153
44 F3 167 -1.312
44 F3 168 -2.777
44 F3 169 -3.265
44 F3 170 -2.289
44 F3 171 -0.824
44 F3 172 0.641
44 F3 173 0.641
44 F3 174 -0.336
44 F3 175 -2.289
44 F3 176 -3.265
44 F3 177 -3.754
44 F3 178 -3.265
44 F3 179 -2.289
44 F3 180 -0.336
44 F3 181 0.641
44 F3 182 1.129
44 F3 183 0.153
44 F3 184 -1.801
44 F3 185 -4.242
44 F3 186 -4.730
44 F3 187 -3.754
44 F3 188 -1.312
44 F3 189 1.129
44 F3 190 1.617
44 F3 191 1.129
44 F3 192 -0.824
44 F3 193 -3.265
44 F3 194 -4.242
44 F3 195 -3.754
44 F3 196 -2.289
44 F3 197 -0.824
44 F3 198 1.129
44 F3 199 3.082
44 F3 200 4.547
44 F3 201 5.035
44 F3 202 5.524
44 F3 203 4.547
44 F3 204 3.082
44 F3 205 2.106
44 F3 206 2.594
44 F3 207 4.547
44 F3 208 6.989
44 F3 209 8.942
44 F3 210 9.430
44 F3 211 7.477
44 F3 212 4.547
44 F3 213 0.641
44 F3 214 -1.801
44 F3 215 -2.289
44 F3 216 -0.824
44 F3 217 2.106
44 F3 218 5.035
44 F3 219 7.477
44 F3 220 7.477
44 F3 221 6.500
44 F3 222 4.547
44 F3 223 3.082
44 F3 224 1.617
44 F3 225 1.129
44 F3 226 0.153
44 F3 227 -0.824
44 F3 228 -1.801
44 F3 229 -2.289
44 F3 230 -1.801
44 F3 231 -1.312
44 F3 232 -0.824
44 F3 233 -1.312
44 F3 234 -1.801
44 F3 235 -2.289
44 F3 236 -2.289
44 F3 237 -1.801
44 F3 238 -0.824
44 F3 239 0.641
44 F3 240 2.594
44 F3 241 3.571
44 F3 242 4.059
44 F3 243 3.571
44 F3 244 3.082
44 F3 245 3.082
44 F3 246 3.082
44 F3 247 2.594
44 F3 248 2.106
44 F3 249 0.641
44 F3 250 -0.336
44 F3 251 -0.336
44 F3 252 0.641
44 F3 253 1.617
44 F3 254 2.594
44 F3 255 3.082
# FC6 chan 9
44 FC6 0 4.954
44 FC6 1 4.954
44 FC6 2 3.001
44 FC6 3 0.559
44 FC6 4 -2.370
44 FC6 5 -4.812
44 FC6 6 -6.765
44 FC6 7 -7.253
44 FC6 8 -7.253
44 FC6 9 -6.276
44 FC6 10 -5.300
44 FC6 11 -5.300
44 FC6 12 -6.276
44 FC6 13 -7.741
44 FC6 14 -9.694
44 FC6 15 -10.183
44 FC6 16 -9.206
44 FC6 17 -7.253
44 FC6 18 -3.835
44 FC6 19 -1.394
44 FC6 20 0.071
44 FC6 21 -0.417
44 FC6 22 -1.882
44 FC6 23 -3.347
44 FC6 24 -3.347
44 FC6 25 -2.370
44 FC6 26 -1.394
44 FC6 27 -0.905
44 FC6 28 -2.370
44 FC6 29 -3.835
44 FC6 30 -4.323
44 FC6 31 -2.370
44 FC6 32 1.536
44 FC6 33 5.442
44 FC6 34 7.884
44 FC6 35 6.907
44 FC6 36 3.977
44 FC6 37 0.559
44 FC6 38 -1.394
44 FC6 39 -0.905
44 FC6 40 1.536
44 FC6 41 3.977
44 FC6 42 5.442
44 FC6 43 5.442
44 FC6 44 4.954
44 FC6 45 4.466
44 FC6 46 4.954
44 FC6 47 5.931
44 FC6 48 6.419
44 FC6 49 5.931
44 FC6 50 3.977
44 FC6 51 1.048
44 FC6 52 -1.882
44 FC6 53 -3.835
44 FC6 54 -4.323
44 FC6 55 -4.323
44 FC6 56 -4.323
44 FC6 57 -3.835
44 FC6 58 -3.347
44 FC6 59 -2.858
44 FC6 60 -2.370
44 FC6 61 -1.394
44 FC6 62 -0.905
44 FC6 63 -0.905
44 FC6 64 -0.905
44 FC6 65 -0.417
44 FC6 66 0.559
44 FC6 67 2.024
44 FC6 68 3.001
44 FC6 69 3.977
44 FC6 70 3.489
44 FC6 71 2.024
44 FC6 72 0.559
44 FC6 73 -0.417
44 FC6 74 -0.905
44 FC6 75 0.071
44 FC6 76 1.048
44 FC6 77 2.024
44 FC6 78 1.536
44 FC6 79 1.048
44 FC6 80 -0.905
44 FC6 81 -1.882
44 FC6 82 -2.370
44 FC6 83 -1.882
44 FC6 84 -0.417
44 FC6 85 0.071
44 FC6 86 -0.417
44 FC6 87 -1.882
44 FC6 88 -2.858
44 FC6 89 -2.858
44 FC6 90 -2.370
44 FC6 91 -1.882
44 FC6 92 -1.882
44 FC6 93 -1.882
44 FC6 94 -2.370
44 FC6 95 -2.370
44 FC6 96 -1.882
44 FC6 97 -1.882
44 FC6 98 -1.394
44 FC6 99 -0.417
44 FC6 100 1.048
44 FC6 101 2.024
44 FC6 102 2.024
44 FC6 103 0.071
44 FC6 104 -3.347
44 FC6 105 -6.276
44 FC6 106 -6.765
44 FC6 107 -5.788
44 FC6 108 -3.835
44 FC6 109 -2.858
44 FC6 110 -2.370
44 FC6 111 -2.858
44 FC6 112 -1.882
44 FC6 113 -0.417
44 FC6 114 0.559
44 FC6 115 0.559
44 FC6 116 -0.417
44 FC6 117 -1.882
44 FC6 118 -1.882
44 FC6 119 -0.905
44 FC6 120 0.559
44 FC6 121 1.048
44 FC6 122 0.559
44 FC6 123 -0.905
44 FC6 124 -2.370
44 FC6 125 -3.347
44 FC6 126 -4.323
44 FC6 127 -5.788
44 FC6 128 -7.253
44 FC6 129 -7.741
44 FC6 130 -7.253
44 FC6 131 -5.788
44 FC6 132 -4.812
44 FC6 133 -4.323
44 FC6 134 -4.323
44 FC6 135 -3.347
44 FC6 136 -1.394
44 FC6 137 1.536
44 FC6 138 3.001
44 FC6 139 3.001
44 FC6 140 1.048
44 FC6 141 -0.905
44 FC6 142 -1.394
44 FC6 143 -0.905
44 FC6 144 0.071
44 FC6 145 0.071
44 FC6 146 -0.905
44 FC6 147 -1.882
44 FC6 148 -2.858
44 FC6 149 -3.835
44 FC6 150 -5.788
44 FC6 151 -7.741
44 FC6 152 -9.694
44 FC6 153 -10.671
44 FC6 154 -9.694
44 FC6 155 -7.741
44 FC6 156 -5.300
44 FC6 157 -3.835
44 FC6 158 -3.347
44 FC6 159 -2.858
44 FC6 160 -0.905
44 FC6 161 2.024
44 FC6 162 4.466
44 FC6 163 6.419
44 FC6 164 5.931
44 FC6 165 4.954
44 FC6 166 3.001
44 FC6 167 2.024
44 FC6 168 1.536
44 FC6 169 1.048
44 FC6 170 1.048
44 FC6 171 1.536
44 FC6 172 2.513
44 FC6 173 3.489
44 FC6 174 3.977
44 FC6 175 3.489
44 FC6 176 3.001
44 FC6 177 2.024
44 FC6 178 1.536
44 FC6 179 1.048
44 FC6 180 0.559
44 FC6 181 0.559
44 FC6 182 1.048
44 FC6 183 3.489
44 FC6 184 6.907
44 FC6 185 10.813
44 FC6 186 12.767
44 FC6 187 11.790
44 FC6 188 8.860
44 FC6 189 5.442
44 FC6 190 2.513
44 FC6 191 1.048
44 FC6 192 0.559
44 FC6 193 -0.417
44 FC6 194 -1.882
44 FC6 195 -2.858
44 FC6 196 -2.858
44 FC6 197 -1.882
44 FC6 198 0.071
44 FC6 199 1.536
44 FC6 200 2.513
44 FC6 201 2.513
44 FC6 202 3.001
44 FC6 203 3.001
44 FC6 204 3.489
44 FC6 205 3.489
44 FC6 206 3.001
44 FC6 207 3.001
44 FC6 208 3.001
44 FC6 209 3.001
44 FC6 210 3.001
44 FC6 211 3.001
44 FC6 212 2.024
44 FC6 213 0.559
44 FC6 214 -0.905
44 FC6 215 -2.370
44 FC6 216 -2.858
44 FC6 217 -2.370
44 FC6 218 -1.882
44 FC6 219 -1.394
44 FC6 220 -0.905
44 FC6 221 -1.394
44 FC6 222 -0.905
44 FC6 223 -0.417
44 FC6 224 0.559
44 FC6 225 1.536
44 FC6 226 1.536
44 FC6 227 2.024
44 FC6 228 2.024
44 FC6 229 3.001
44 FC6 230 3.489
44 FC6 231 3.001
44 FC6 232 1.536
44 FC6 233 -0.905
44 FC6 234 -2.858
44 FC6 235 -3.835
44 FC6 236 -3.835
44 FC6 237 -3.835
44 FC6 238 -4.323
44 FC6 239 -4.812
44 FC6 240 -5.300
44 FC6 241 -4.812
44 FC6 242 -4.323
44 FC6 243 -3.835
44 FC6 244 -3.347
44 FC6 245 -2.858
44 FC6 246 -2.370
44 FC6 247 -1.394
44 FC6 248 -1.394
44 FC6 249 -2.370
44 FC6 250 -3.347
44 FC6 251 -4.323
44 FC6 252 -3.835
44 FC6 253 -2.858
44 FC6 254 -1.394
44 FC6 255 -0.905
# FC5 chan 10
44 FC5 0 0.336
44 FC5 1 -0.153
44 FC5 2 -1.129
44 FC5 3 -2.106
44 FC5 4 -2.106
44 FC5 5 -1.617
44 FC5 6 -1.617
44 FC5 7 -2.594
44 FC5 8 -4.059
44 FC5 9 -4.059
44 FC5 10 -3.571
44 FC5 11 -3.082
44 FC5 12 -4.059
44 FC5 13 -6.500
44 FC5 14 -8.942
44 FC5 15 -10.406
44 FC5 16 -9.430
44 FC5 17 -7.965
44 FC5 18 -6.989
44 FC5 19 -8.453
44 FC5 20 -10.406
44 FC5 21 -10.895
44 FC5 22 -8.942
44 FC5 23 -6.012
44 FC5 24 -4.547
44 FC5 25 -4.547
44 FC5 26 -6.989
44 FC5 27 -9.430
44 FC5 28 -10.406
44 FC5 29 -8.942
44 FC5 30 -6.012
44 FC5 31 -2.106
44 FC5 32 0.824
44 FC5 33 2.777
44 FC5 34 3.754
44 FC5 35 3.754
44 FC5 36 2.289
44 FC5 37 0.336
44 FC5 38 -3.082
44 FC5 39 -6.012
44 FC5 40 -8.453
44 FC5 41 -8.453
44 FC5 42 -6.989
44 FC5 43 -4.059
44 FC5 44 -1.129
44 FC5 45 -0.153
44 FC5 46 -0.641
44 FC5 47 -2.594
44 FC5 48 -4.059
44 FC5 49 -4.547
44 FC5 50 -4.059
44 FC5 51 -3.082
44 FC5 52 -1.617
44 FC5 53 0.824
44 FC5 54 3.265
44 FC5 55 6.683
44 FC5 56 8.636
44 FC5 57 8.636
44 FC5 58 6.683
44 FC5 59 3.265
44 FC5 60 0.336
44 FC5 61 -1.617
44 FC5 62 -2.594
44 FC5 63 -2.594
44 FC5 64 -2.594
44 FC5 65 -2.594
44 FC5 66 -1.129
44 FC5 67 0.336
44 FC5 68 0.824
44 FC5 69 0.336
44 FC5 70 -2.106
44 FC5 71 -4.059
44 FC5 72 -4.547
44 FC5 73 -2.594
44 FC5 74 0.336
44 FC5 75 3.265
44 FC5 76 4.730
44 FC5 77 4.730
44 FC5 78 4.730
44 FC5 79 5.219
44 FC5 80 5.707
44 FC5 81 5.707
44 FC5 82 3.754
44 FC5 83 0.824
44 FC5 84 -2.594
44 FC5 85 -5.035
44 FC5 86 -5.524
44 FC5 87 -5.035
44 FC5 88 -4.547
44 FC5 89 -5.035
44 FC5 90 -5.035
44 FC5 91 -4.547
44 FC5 92 -2.106
44 FC5 93 0.336
44 FC5 94 1.801
44 FC5 95 1.312
44 FC5 96 0.824
44 FC5 97 0.824
44 FC5 98 2.777
44 FC5 99 4.730
44 FC5 100 5.219
44 FC5 101 3.754
44 FC5 102 0.336
44 FC5 103 -2.106
44 FC5 104 -2.106
44 FC5 105 -0.641
44 FC5 106 0.336
44 FC5 107 0.336
44 FC5 108 -1.129
44 FC5 109 -3.082
44 FC5 110 -4.059
44 FC5 111 -4.059
44 FC5 112 -4.547
44 FC5 113 -5.524
44 FC5 114 -7.477
44 FC5 115 -8.942
44 FC5 116 -8.453
44 FC5 117 -6.012
44 FC5 118 -2.106
44 FC5 119 1.801
44 FC5 120 3.265
44 FC5 121 2.289
44 FC5 122 0.336
44 FC5 123 -2.106
44 FC5 124 -3.082
44 FC5 125 -3.571
44 FC5 126 -4.547
44 FC5 127 -6.012
44 FC5 128 -7.477
44 FC5 129 -7.965
44 FC5 130 -6.500
44 FC5 131 -2.594
44 FC5 132 0.336
44 FC5 133 0.824
44 FC5 134 -1.129
44 FC5 135 -4.059
44 FC5 136 -6.500
44 FC5 137 -6.500
44 FC5 138 -5.524
44 FC5 139 -4.059
44 FC5 140 -3.082
44 FC5 141 -2.106
44 FC5 142 0.336
44 FC5 143 3.265
44 FC5 144 6.195
44 FC5 145 6.683
44 FC5 146 4.242
44 FC5 147 0.824
44 FC5 148 -2.106
44 FC5 149 -2.594
44 FC5 150 -1.617
44 FC5 151 -1.129
44 FC5 152 -1.129
44 FC5 153 -1.617
44 FC5 154 -1.617
44 FC5 155 -0.641
44 FC5 156 1.801
44 FC5 157 3.265
44 FC5 158 3.265
44 FC5 159 1.801
44 FC5 160 0.824
44 FC5 161 0.824
44 FC5 162 1.801
44 FC5 163 2.289
44 FC5 164 2.289
44 FC5 165 0.824
44 FC5 166 -1.129
44 FC5 167 -2.594
44 FC5 168 -2.594
44 FC5 169 -1.129
44 FC5 170 0.336
44 FC5 171 0.824
44 FC5 172 0.824
44 FC5 173 -0.641
44 FC5 174 -2.594
44 FC5 175 -4.059
44 FC5 176 -5.524
44 FC5 177 -6.012
44 FC5 178 -5.524
44 FC5 179 -4.547
44 FC5 180 -3.082
44 FC5 181 -1.129
44 FC5 182 0.824
44 FC5 183 1.312
44 FC5 184 0.824
44 FC5 185 -0.153
44 FC5 186 -0.641
44 FC5 187 -0.641
44 FC5 188 0.824
44 FC5 189 1.801
44 FC5 190 1.801
44 FC5 191 0.824
44 FC5 192 -1.617
44 FC5 193 -3.571
44 FC5 194 -4.059
44 FC5 195 -4.059
44 FC5 196 -2.594
44 FC5 197 -1.617
44 FC5 198 -0.641
44 FC5 199 0.336
44 FC5 200 0.824
44 FC5 201 0.824
44 FC5 202 1.312
44 FC5 203 1.801
44 FC5 204 1.801
44 FC5 205 2.289
44 FC5 206 3.265
44 FC5 207 4.730
44 FC5 208 5.707
44 FC5 209 6.195
44 FC5 210 4.730
44 FC5 211 2.289
44 FC5 212 -0.153
44 FC5 213 -2.594
44 FC5 214 -4.059
44 FC5 215 -4.547
44 FC5 216 -3.082
44 FC5 217 -0.641
44 FC5 218 2.777
44 FC5 219 5.219
44 FC5 220 5.707
44 FC5 221 3.754
44 FC5 222 1.312
44 FC5 223 -0.153
44 FC5 224 -0.153
44 FC5 225 0.824
44 FC5 226 0.824
44 FC5 227 -0.641
44 FC5 228 -3.082
44 FC5 229 -4.547
44 FC5 230 -4.059
44 FC5 231 -2.106
44 FC5 232 0.336
44 FC5 233 1.801
44 FC5 234 1.312
44 FC5 235 -0.153
44 FC5 236 -1.129
44 FC5 237 -1.617
44 FC5 238 -1.617
44 FC5 239 -1.617
44 FC5 240 -2.106
44 FC5 241 -2.106
44 FC5 242 -1.617
44 FC5 243 -0.641
44 FC5 244 -0.153
44 FC5 245 -0.153
44 FC5 246 -1.617
44 FC5 247 -3.571
44 FC5 248 -5.524
44 FC5 249 -6.012
44 FC5 250 -5.035
44 FC5 251 -2.594
44 FC5 252 -1.617
44 FC5 253 -2.106
44 FC5 254 -3.571
44 FC5 255 -4.547
# FC2 chan 11
44 FC2 0 5.809
44 FC2 1 4.832
44 FC2 2 2.879
44 FC2 3 1.414
44 FC2 4 -0.051
44 FC2 5 -1.027
44 FC2 6 -1.027
44 FC2 7 -1.516
44 FC2 8 -2.004
44 FC2 9 -2.492
44 FC2 10 -2.492
44 FC2 11 -2.492
44 FC2 12 -2.492
44 FC2 13 -2.981
44 FC2 14 -2.981
44 FC2 15 -2.981
44 FC2 16 -2.981
44 FC2 17 -2.492
44 FC2 18 -2.004
44 FC2 19 -2.004
44 FC2 20 -2.492
44 FC2 21 -2.981
44 FC2 22 -3.469
44 FC2 23 -3.469
44 FC2 24 -2.981
44 FC2 25 -2.492
44 FC2 26 -2.004
44 FC2 27 -2.492
44 FC2 28 -3.469
44 FC2 29 -3.957
44 FC2 30 -3.957
44 FC2 31 -2.981
44 FC2 32 -1.027
44 FC2 33 0.926
44 FC2 34 2.391
44 FC2 35 2.391
44 FC2 36 1.414
44 FC2 37 -0.539
44 FC2 38 -2.004
44 FC2 39 -2.492
44 FC2 40 -1.516
44 FC2 41 0.437
44 FC2 42 2.879
44 FC2 43 4.832
44 FC2 44 5.809
44 FC2 45 6.297
44 FC2 46 5.809
44 FC2 47 4.832
44 FC2 48 3.855
44 FC2 49 2.391
44 FC2 50 1.414
44 FC2 51 -0.051
44 FC2 52 -0.539
44 FC2 53 -0.539
44 FC2 54 -0.539
44 FC2 55 0.437
44 FC2 56 0.926
44 FC2 57 0.437
44 FC2 58 -0.051
44 FC2 59 -0.539
44 FC2 60 -1.516
44 FC2 61 -2.004
44 FC2 62 -2.004
44 FC2 63 -1.516
44 FC2 64 -1.027
44 FC2 65 -0.051
44 FC2 66 0.926
44 FC2 67 1.902
44 FC2 68 1.902
44 FC2 69 1.902
44 FC2 70 0.926
44 FC2 71 -0.051
44 FC2 72 -0.539
44 FC2 73 -1.027
44 FC2 74 -1.516
44 FC2 75 -1.027
44 FC2 76 -0.051
44 FC2 77 0.437
44 FC2 78 0.926
44 FC2 79 0.926
44 FC2 80 0.437
44 FC2 81 -0.539
44 FC2 82 -1.027
44 FC2 83 -1.516
44 FC2 84 -1.027
44 FC2 85 -0.051
44 FC2 86 1.414
44 FC2 87 1.902
44 FC2 88 2.391
44 FC2 89 1.902
44 FC2 90 1.414
44 FC2 91 0.437
44 FC2 92 -0.051
44 FC2 93 -0.539
44 FC2 94 -1.027
44 FC2 95 -1.027
44 FC2 96 -1.027
44 FC2 97 -1.027
44 FC2 98 -1.027
44 FC2 99 -1.516
44 FC2 100 -1.516
44 FC2 101 -1.516
44 FC2 102 -1.516
44 FC2 103 -2.004
44 FC2 104 -2.492
44 FC2 105 -2.492
44 FC2 106 -2.981
44 FC2 107 -2.492
44 FC2 108 -1.027
44 FC2 109 -0.051
44 FC2 110 0.926
44 FC2 111 1.414
44 FC2 112 1.414
44 FC2 113 1.414
44 FC2 114 0.926
44 FC2 115 0.926
44 FC2 116 0.926
44 FC2 117 0.926
44 FC2 118 1.902
44 FC2 119 2.391
44 FC2 120 2.879
44 FC2 121 2.879
44 FC2 122 2.391
44 FC2 123 1.414
44 FC2 124 0.437
44 FC2 125 -1.027
44 FC2 126 -2.004
44 FC2 127 -2.004
44 FC2 128 -1.516
44 FC2 129 -1.027
44 FC2 130 -0.051
44 FC2 131 -0.051
44 FC2 132 -0.051
44 FC2 133 -0.051
44 FC2 134 0.437
44 FC2 135 1.414
44 FC2 136 2.391
44 FC2 137 2.879
44 FC2 138 3.367
44 FC2 139 3.855
44 FC2 140 3.855
44 FC2 141 3.855
44 FC2 142 3.855
44 FC2 143 3.367
44 FC2 144 2.391
44 FC2 145 0.437
44 FC2 146 -1.027
44 FC2 147 -2.004
44 FC2 148 -2.492
44 FC2 149 -2.492
44 FC2 150 -2.981
44 FC2 151 -3.957
44 FC2 152 -5.422
44 FC2 153 -5.910
44 FC2 154 -5.910
44 FC2 155 -4.445
44 FC2 156 -3.469
44 FC2 157 -2.004
44 FC2 158 -1.027
44 FC2 159 -0.051
44 FC2 160 0.926
44 FC2 161 1.902
44 FC2 162 2.391
44 FC2 163 2.391
44 FC2 164 1.902
44 FC2 165 0.926
44 FC2 166 -0.051
44 FC2 167 -0.051
44 FC2 168 -0.051
44 FC2 169 0.926
44 FC2 170 1.902
44 FC2 171 1.414
44 FC2 172 0.926
44 FC2 173 0.437
44 FC2 174 -0.051
44 FC2 175 -0.051
44 FC2 176 -0.539
44 FC2 177 -0.051
44 FC2 178 0.437
44 FC2 179 0.437
44 FC2 180 0.437
44 FC2 181 0.437
44 FC2 182 -0.051
44 FC2 183 -0.051
44 FC2 184 0.437
44 FC2 185 0.926
44 FC2 186 1.414
44 FC2 187 1.414
44 FC2 188 1.414
44 FC2 189 0.926
44 FC2 190 0.437
44 FC2 191 -0.051
44 FC2 192 -1.027
44 FC2 193 -1.516
44 FC2 194 -2.492
44 FC2 195 -2.981
44 FC2 196 -2.492
44 FC2 197 -2.004
44 FC2 198 -1.027
44 FC2 199 -0.539
44 FC2 200 -0.051
44 FC2 201 0.437
44 FC2 202 1.414
44 FC2 203 1.902
44 FC2 204 1.902
44 FC2 205 1.902
44 FC2 206 1.902
44 FC2 207 1.902
44 FC2 208 2.391
44 FC2 209 2.391
44 FC2 210 1.902
44 FC2 211 1.414
44 FC2 212 0.437
44 FC2 213 -1.027
44 FC2 214 -1.516
44 FC2 215 -2.004
44 FC2 216 -1.516
44 FC2 217 -1.027
44 FC2 218 -0.539
44 FC2 219 -1.027
44 FC2 220 -1.516
44 FC2 221 -2.004
44 FC2 222 -2.492
44 FC2 223 -2.492
44 FC2 224 -2.492
44 FC2 225 -2.004
44 FC2 226 -1.516
44 FC2 227 -0.539
44 FC2 228 -0.051
44 FC2 229 0.926
44 FC2 230 0.926
44 FC2 231 0.437
44 FC2 232 -1.027
44 FC2 233 -2.004
44 FC2 234 -2.981
44 FC2 235 -3.469
44 FC2 236 -3.469
44 FC2 237 -2.981
44 FC2 238 -2.981
44 FC2 239 -2.492
44 FC2 240 -2.004
44 FC2 241 -2.004
44 FC2 242 -2.004
44 FC2 243 -2.004
44 FC2 244 -2.004
44 FC2 245 -1.516
44 FC2 246 -1.027
44 FC2 247 -0.539
44 FC2 248 -1.027
44 FC2 249 -1.516
44 FC2 250 -2.004
44 FC2 251 -2.492
44 FC2 252 -2.004
44 FC2 253 -2.004
44 FC2 254 -2.004
44 FC2 255 -2.004
# FC1 chan 12
44 FC1 0 4.150
44 FC1 1 3.662
44 FC1 2 2.197
44 FC1 3 0.732
44 FC1 4 0.244
44 FC1 5 0.244
44 FC1 6 1.221
44 FC1 7 1.709
44 FC1 8 1.221
44 FC1 9 1.221
44 FC1 10 0.732
44 FC1 11 0.732
44 FC1 12 0.732
44 FC1 13 0.732
44 FC1 14 0.732
44 FC1 15 -0.244
44 FC1 16 -0.732
44 FC1 17 -1.221
44 FC1 18 -2.197
44 FC1 19 -3.174
44 FC1 20 -5.127
44 FC1 21 -6.104
44 FC1 22 -7.080
44 FC1 23 -6.592
44 FC1 24 -5.127
44 FC1 25 -3.662
44 FC1 26 -2.686
44 FC1 27 -3.174
44 FC1 28 -3.174
44 FC1 29 -2.686
44 FC1 30 -1.709
44 FC1 31 -0.244
44 FC1 32 1.221
44 FC1 33 2.686
44 FC1 34 3.662
44 FC1 35 4.150
44 FC1 36 3.662
44 FC1 37 2.197
44 FC1 38 0.244
44 FC1 39 -1.709
44 FC1 40 -2.686
44 FC1 41 -2.686
44 FC1 42 -1.221
44 FC1 43 0.732
44 FC1 44 2.197
44 FC1 45 2.686
44 FC1 46 2.686
44 FC1 47 1.709
44 FC1 48 0.732
44 FC1 49 -0.244
44 FC1 50 -1.221
44 FC1 51 -1.221
44 FC1 52 -0.244
44 FC1 53 1.709
44 FC1 54 4.150
44 FC1 55 5.615
44 FC1 56 6.104
44 FC1 57 5.127
44 FC1 58 3.174
44 FC1 59 1.221
44 FC1 60 -0.244
44 FC1 61 -0.732
44 FC1 62 -1.709
44 FC1 63 -2.197
44 FC1 64 -2.197
44 FC1 65 -2.197
44 FC1 66 -1.221
44 FC1 67 -0.244
44 FC1 68 -0.244
44 FC1 69 -0.244
44 FC1 70 -1.221
44 FC1 71 -2.197
44 FC1 72 -2.197
44 FC1 73 -1.709
44 FC1 74 -0.244
44 FC1 75 1.709
44 FC1 76 3.174
44 FC1 77 3.662
44 FC1 78 3.662
44 FC1 79 3.662
44 FC1 80 2.686
44 FC1 81 2.197
44 FC1 82 1.221
44 FC1 83 0.732
44 FC1 84 0.732
44 FC1 85 0.732
44 FC1 86 1.709
44 FC1 87 2.197
44 FC1 88 2.197
44 FC1 89 1.709
44 FC1 90 1.221
44 FC1 91 0.244
44 FC1 92 -0.244
44 FC1 93 -0.732
44 FC1 94 -0.732
44 FC1 95 -0.732
44 FC1 96 -0.244
44 FC1 97 0.244
44 FC1 98 1.709
44 FC1 99 2.197
44 FC1 100 2.197
44 FC1 101 1.709
44 FC1 102 0.732
44 FC1 103 0.244
44 FC1 104 -0.732
44 FC1 105 -0.244
44 FC1 106 0.244
44 FC1 107 0.244
44 FC1 108 0.244
44 FC1 109 0.244
44 FC1 110 0.244
44 FC1 111 0.244
44 FC1 112 -0.244
44 FC1 113 -0.244
44 FC1 114 -0.732
44 FC1 115 -0.244
44 FC1 116 1.221
44 FC1 117 3.174
44 FC1 118 5.127
44 FC1 119 6.592
44 FC1 120 6.592
44 FC1 121 6.104
44 FC1 122 4.639
44 FC1 123 3.662
44 FC1 124 2.197
44 FC1 125 0.732
44 FC1 126 -0.244
44 FC1 127 -0.732
44 FC1 128 -0.732
44 FC1 129 -0.244
44 FC1 130 0.732
44 FC1 131 1.221
44 FC1 132 1.709
44 FC1 133 1.221
44 FC1 134 1.221
44 FC1 135 1.221
44 FC1 136 1.221
44 FC1 137 1.709
44 FC1 138 2.197
44 FC1 139 3.174
44 FC1 140 4.150
44 FC1 141 5.615
44 FC1 142 6.592
44 FC1 143 7.080
44 FC1 144 5.615
44 FC1 145 3.662
44 FC1 146 1.221
44 FC1 147 -0.732
44 FC1 148 -1.221
44 FC1 149 -0.732
44 FC1 150 -0.244
44 FC1 151 -0.244
44 FC1 152 -0.244
44 FC1 153 0.244
44 FC1 154 1.221
44 FC1 155 2.197
44 FC1 156 3.174
44 FC1 157 3.662
44 FC1 158 3.174
44 FC1 159 2.686
44 FC1 160 2.686
44 FC1 161 3.174
44 FC1 162 3.662
44 FC1 163 4.150
44 FC1 164 4.150
44 FC1 165 3.174
44 FC1 166 1.709
44 FC1 167 0.732
44 FC1 168 -0.244
44 FC1 169 -0.244
44 FC1 170 0.244
44 FC1 171 0.732
44 FC1 172 0.732
44 FC1 173 1.221
44 FC1 174 0.732
44 FC1 175 0.732
44 FC1 176 0.244
44 FC1 177 -0.244
44 FC1 178 -0.244
44 FC1 179 -0.244
44 FC1 180 0.732
44 FC1 181 1.709
44 FC1 182 2.686
44 FC1 183 2.686
44 FC1 184 1.709
44 FC1 185 0.732
44 FC1 186 0.244
44 FC1 187 0.244
44 FC1 188 1.709
44 FC1 189 2.686
44 FC1 190 3.662
44 FC1 191 3.174
44 FC1 192 1.709
44 FC1 193 -0.244
44 FC1 194 -0.732
44 FC1 195 -0.732
44 FC1 196 -0.244
44 FC1 197 1.221
44 FC1 198 2.686
44 FC1 199 3.662
44 FC1 200 4.150
44 FC1 201 4.150
44 FC1 202 3.662
44 FC1 203 2.686
44 FC1 204 1.709
44 FC1 205 1.709
44 FC1 206 2.686
44 FC1 207 4.150
44 FC1 208 6.104
44 FC1 209 7.080
44 FC1 210 7.080
44 FC1 211 6.104
44 FC1 212 3.662
44 FC1 213 1.709
44 FC1 214 0.244
44 FC1 215 -0.244
44 FC1 216 -0.244
44 FC1 217 0.244
44 FC1 218 1.709
44 FC1 219 2.197
44 FC1 220 2.197
44 FC1 221 1.709
44 FC1 222 1.221
44 FC1 223 0.244
44 FC1 224 -0.244
44 FC1 225 0.244
44 FC1 226 0.244
44 FC1 227 0.732
44 FC1 228 0.244
44 FC1 229 0.244
44 FC1 230 0.244
44 FC1 231 0.244
44 FC1 232 0.732
44 FC1 233 1.221
44 FC1 234 1.709
44 FC1 235 2.197
44 FC1 236 2.197
44 FC1 237 2.197
44 FC1 238 2.686
44 FC1 239 2.686
44 FC1 240 2.197
44 FC1 241 2.197
44 FC1 242 1.709
44 FC1 243 1.221
44 FC1 244 1.221
44 FC1 245 1.221
44 FC1 246 1.221
44 FC1 247 1.221
44 FC1 248 0.732
44 FC1 249 0.244
44 FC1 250 -0.244
44 FC1 251 -0.244
44 FC1 252 0.244
44 FC1 253 0.732
44 FC1 254 1.709
44 FC1 255 1.709
# T8 chan 13
44 T8 0 -0.417
44 T8 1 -0.905
44 T8 2 -0.417
44 T8 3 1.048
44 T8 4 2.024
44 T8 5 0.071
44 T8 6 -2.858
44 T8 7 -6.276
44 T8 8 -8.230
44 T8 9 -8.230
44 T8 10 -7.253
44 T8 11 -7.253
44 T8 12 -10.183
44 T8 13 -14.577
44 T8 14 -17.995
44 T8 15 -17.995
44 T8 16 -14.577
44 T8 17 -9.694
44 T8 18 -4.323
44 T8 19 -0.905
44 T8 20 0.559
44 T8 21 0.559
44 T8 22 1.536
44 T8 23 2.024
44 T8 24 2.513
44 T8 25 1.536
44 T8 26 -0.417
44 T8 27 -3.347
44 T8 28 -4.812
44 T8 29 -3.835
44 T8 30 -0.905
44 T8 31 3.001
44 T8 32 7.395
44 T8 33 9.837
44 T8 34 10.813
44 T8 35 9.349
44 T8 36 5.931
44 T8 37 1.536
44 T8 38 -2.370
44 T8 39 -4.323
44 T8 40 -3.835
44 T8 41 -0.417
44 T8 42 3.977
44 T8 43 6.907
44 T8 44 6.907
44 T8 45 3.489
44 T8 46 -0.905
44 T8 47 -2.858
44 T8 48 -2.370
44 T8 49 0.071
44 T8 50 1.048
44 T8 51 0.071
44 T8 52 -3.347
44 T8 53 -6.276
44 T8 54 -8.230
44 T8 55 -8.718
44 T8 56 -8.230
44 T8 57 -9.206
44 T8 58 -9.694
44 T8 59 -9.694
44 T8 60 -7.741
44 T8 61 -3.835
44 T8 62 0.071
44 T8 63 3.001
44 T8 64 3.001
44 T8 65 1.048
44 T8 66 -1.394
44 T8 67 -2.858
44 T8 68 -2.858
44 T8 69 -2.370
44 T8 70 -1.882
44 T8 71 -2.370
44 T8 72 -1.882
44 T8 73 -0.417
44 T8 74 2.513
44 T8 75 4.954
44 T8 76 4.466
44 T8 77 1.536
44 T8 78 -3.347
44 T8 79 -7.253
44 T8 80 -9.206
44 T8 81 -7.741
44 T8 82 -4.323
44 T8 83 -0.905
44 T8 84 0.071
44 T8 85 -0.905
44 T8 86 -3.835
44 T8 87 -7.741
44 T8 88 -10.183
44 T8 89 -11.159
44 T8 90 -11.159
44 T8 91 -9.694
44 T8 92 -8.230
44 T8 93 -6.276
44 T8 94 -4.812
44 T8 95 -3.835
44 T8 96 -2.370
44 T8 97 -0.905
44 T8 98 1.048
44 T8 99 2.024
44 T8 100 2.513
44 T8 101 1.536
44 T8 102 0.071
44 T8 103 -2.370
44 T8 104 -4.323
44 T8 105 -5.788
44 T8 106 -7.253
44 T8 107 -8.718
44 T8 108 -9.206
44 T8 109 -8.230
44 T8 110 -5.788
44 T8 111 -2.370
44 T8 112 0.559
44 T8 113 1.048
44 T8 114 -0.905
44 T8 115 -3.347
44 T8 116 -5.300
44 T8 117 -6.765
44 T8 118 -6.765
44 T8 119 -6.765
44 T8 120 -5.788
44 T8 121 -4.323
44 T8 122 -1.882
44 T8 123 0.559
44 T8 124 1.536
44 T8 125 -0.417
44 T8 126 -4.812
44 T8 127 -10.183
44 T8 128 -14.089
44 T8 129 -15.554
44 T8 130 -14.577
44 T8 131 -12.136
44 T8 132 -8.718
44 T8 133 -6.276
44 T8 134 -3.835
44 T8 135 -2.370
44 T8 136 -1.882
44 T8 137 -2.370
44 T8 138 -5.300
44 T8 139 -7.741
44 T8 140 -9.206
44 T8 141 -8.718
44 T8 142 -6.276
44 T8 143 -1.882
44 T8 144 2.024
44 T8 145 3.977
44 T8 146 3.489
44 T8 147 1.048
44 T8 148 -2.858
44 T8 149 -6.765
44 T8 150 -10.183
44 T8 151 -11.648
44 T8 152 -11.159
44 T8 153 -8.718
44 T8 154 -5.788
44 T8 155 -3.347
44 T8 156 -2.858
44 T8 157 -4.323
44 T8 158 -5.788
44 T8 159 -6.276
44 T8 160 -4.323
44 T8 161 -2.370
44 T8 162 -0.417
44 T8 163 1.048
44 T8 164 2.024
44 T8 165 3.489
44 T8 166 4.954
44 T8 167 5.442
44 T8 168 3.977
44 T8 169 1.536
44 T8 170 -1.882
44 T8 171 -3.835
44 T8 172 -3.835
44 T8 173 -2.858
44 T8 174 -0.905
44 T8 175 1.048
44 T8 176 3.977
44 T8 177 5.931
44 T8 178 7.395
44 T8 179 5.931
44 T8 180 3.001
44 T8 181 0.559
44 T8 182 0.071
44 T8 183 2.513
44 T8 184 6.907
44 T8 185 10.813
44 T8 186 12.278
44 T8 187 12.278
44 T8 188 9.837
44 T8 189 7.884
44 T8 190 5.931
44 T8 191 4.466
44 T8 192 3.001
44 T8 193 0.071
44 T8 194 -2.858
44 T8 195 -5.300
44 T8 196 -6.765
44 T8 197 -6.765
44 T8 198 -4.812
44 T8 199 -2.858
44 T8 200 -0.417
44 T8 201 2.024
44 T8 202 3.001
44 T8 203 3.489
44 T8 204 3.001
44 T8 205 1.536
44 T8 206 0.559
44 T8 207 -0.417
44 T8 208 0.071
44 T8 209 2.024
44 T8 210 3.977
44 T8 211 4.954
44 T8 212 4.466
44 T8 213 2.024
44 T8 214 -1.882
44 T8 215 -5.788
44 T8 216 -9.206
44 T8 217 -10.183
44 T8 218 -8.718
44 T8 219 -5.300
44 T8 220 -0.417
44 T8 221 3.977
44 T8 222 5.931
44 T8 223 5.442
44 T8 224 3.489
44 T8 225 1.536
44 T8 226 0.071
44 T8 227 0.559
44 T8 228 1.536
44 T8 229 3.977
44 T8 230 5.442
44 T8 231 4.954
44 T8 232 3.001
44 T8 233 0.071
44 T8 234 -2.858
44 T8 235 -5.300
44 T8 236 -7.253
44 T8 237 -8.718
44 T8 238 -10.671
44 T8 239 -11.648
44 T8 240 -10.183
44 T8 241 -6.765
44 T8 242 -1.882
44 T8 243 1.048
44 T8 244 1.048
44 T8 245 -2.370
44 T8 246 -6.276
44 T8 247 -8.718
44 T8 248 -7.741
44 T8 249 -5.788
44 T8 250 -4.323
44 T8 251 -5.300
44 T8 252 -6.765
44 T8 253 -8.230
44 T8 254 -7.741
44 T8 255 -6.765
# T7 chan 14
44 T7 0 -6.632
44 T7 1 -5.168
44 T7 2 -3.703
44 T7 3 -3.215
44 T7 4 -2.238
44 T7 5 -1.750
44 T7 6 -1.261
44 T7 7 -1.261
44 T7 8 -2.238
44 T7 9 -4.191
44 T7 10 -6.144
44 T7 11 -8.586
44 T7 12 -10.050
44 T7 13 -11.515
44 T7 14 -12.004
44 T7 15 -12.492
44 T7 16 -12.492
44 T7 17 -12.004
44 T7 18 -11.515
44 T7 19 -11.027
44 T7 20 -11.027
44 T7 21 -11.027
44 T7 22 -10.539
44 T7 23 -9.562
44 T7 24 -7.121
44 T7 25 -4.679
44 T7 26 -2.726
44 T7 27 -2.238
44 T7 28 -3.215
44 T7 29 -3.703
44 T7 30 -4.679
44 T7 31 -4.679
44 T7 32 -4.679
44 T7 33 -5.168
44 T7 34 -5.656
44 T7 35 -6.144
44 T7 36 -6.144
44 T7 37 -5.168
44 T7 38 -4.679
44 T7 39 -4.679
44 T7 40 -5.656
44 T7 41 -7.609
44 T7 42 -9.562
44 T7 43 -11.027
44 T7 44 -12.492
44 T7 45 -12.492
44 T7 46 -11.515
44 T7 47 -10.050
44 T7 48 -8.097
44 T7 49 -6.632
44 T7 50 -5.168
44 T7 51 -3.215
44 T7 52 -1.750
44 T7 53 0.203
44 T7 54 2.645
44 T7 55 3.621
44 T7 56 4.598
44 T7 57 4.598
44 T7 58 3.621
44 T7 59 2.645
44 T7 60 0.692
44 T7 61 -0.773
44 T7 62 -2.238
44 T7 63 -3.215
44 T7 64 -4.191
44 T7 65 -5.168
44 T7 66 -6.632
44 T7 67 -8.097
44 T7 68 -9.562
44 T7 69 -10.050
44 T7 70 -10.050
44 T7 71 -8.586
44 T7 72 -7.121
44 T7 73 -4.679
44 T7 74 -2.238
44 T7 75 0.692
44 T7 76 3.133
44 T7 77 4.110
44 T7 78 3.621
44 T7 79 2.157
44 T7 80 0.203
44 T7 81 -1.261
44 T7 82 -2.238
44 T7 83 -4.191
44 T7 84 -6.632
44 T7 85 -9.562
44 T7 86 -12.004
44 T7 87 -13.957
44 T7 88 -14.445
44 T7 89 -14.445
44 T7 90 -13.957
44 T7 91 -12.492
44 T7 92 -11.027
44 T7 93 -9.074
44 T7 94 -7.121
44 T7 95 -5.168
44 T7 96 -3.703
44 T7 97 -2.726
44 T7 98 -2.238
44 T7 99 -1.261
44 T7 100 -0.285
44 T7 101 0.203
44 T7 102 -0.285
44 T7 103 -2.238
44 T7 104 -4.679
44 T7 105 -6.144
44 T7 106 -6.144
44 T7 107 -5.656
44 T7 108 -4.679
44 T7 109 -5.168
44 T7 110 -7.121
44 T7 111 -10.050
44 T7 112 -12.492
44 T7 113 -13.468
44 T7 114 -12.980
44 T7 115 -12.492
44 T7 116 -12.004
44 T7 117 -12.492
44 T7 118 -12.980
44 T7 119 -12.980
44 T7 120 -12.004
44 T7 121 -10.050
44 T7 122 -8.097
44 T7 123 -6.632
44 T7 124 -6.144
44 T7 125 -5.656
44 T7 126 -4.679
44 T7 127 -3.703
44 T7 128 -3.215
44 T7 129 -3.703
44 T7 130 -5.168
44 T7 131 -7.609
44 T7 132 -9.562
44 T7 133 -10.539
44 T7 134 -9.562
44 T7 135 -8.586
44 T7 136 -8.097
44 T7 137 -8.586
44 T7 138 -9.562
44 T7 139 -11.027
44 T7 140 -10.539
44 T7 141 -9.562
44 T7 142 -7.121
44 T7 143 -4.191
44 T7 144 -0.773
44 T7 145 2.157
44 T7 146 4.110
44 T7 147 4.598
44 T7 148 2.645
44 T7 149 0.203
44 T7 150 -2.238
44 T7 151 -3.703
44 T7 152 -3.703
44 T7 153 -3.215
44 T7 154 -2.238
44 T7 155 -1.750
44 T7 156 -2.238
44 T7 157 -2.726
44 T7 158 -3.215
44 T7 159 -3.215
44 T7 160 -2.726
44 T7 161 -2.238
44 T7 162 -2.238
44 T7 163 -1.750
44 T7 164 -0.773
44 T7 165 0.203
44 T7 166 1.180
44 T7 167 1.180
44 T7 168 -0.285
44 T7 169 -2.726
44 T7 170 -5.168
44 T7 171 -7.121
44 T7 172 -7.121
44 T7 173 -7.121
44 T7 174 -7.609
44 T7 175 -8.097
44 T7 176 -9.562
44 T7 177 -10.050
44 T7 178 -9.074
44 T7 179 -6.144
44 T7 180 -3.215
44 T7 181 -0.773
44 T7 182 -0.773
44 T7 183 -1.750
44 T7 184 -2.726
44 T7 185 -3.215
44 T7 186 -2.238
44 T7 187 -0.285
44 T7 188 1.180
44 T7 189 0.692
44 T7 190 -1.261
44 T7 191 -4.679
44 T7 192 -8.586
44 T7 193 -11.515
44 T7 194 -12.980
44 T7 195 -12.980
44 T7 196 -11.027
44 T7 197 -8.097
44 T7 198 -4.679
44 T7 199 -2.726
44 T7 200 -2.238
44 T7 201 -2.726
44 T7 202 -3.215
44 T7 203 -2.238
44 T7 204 -0.285
44 T7 205 1.180
44 T7 206 1.180
44 T7 207 -1.261
44 T7 208 -3.703
44 T7 209 -5.656
44 T7 210 -6.144
44 T7 211 -5.168
44 T7 212 -3.703
44 T7 213 -3.215
44 T7 214 -3.215
44 T7 215 -3.703
44 T7 216 -4.679
44 T7 217 -5.656
44 T7 218 -6.144
44 T7 219 -6.632
44 T7 220 -6.144
44 T7 221 -5.168
44 T7 222 -3.703
44 T7 223 -2.238
44 T7 224 -1.261
44 T7 225 -0.773
44 T7 226 -1.750
44 T7 227 -2.726
44 T7 228 -3.215
44 T7 229 -4.191
44 T7 230 -4.679
44 T7 231 -6.144
44 T7 232 -6.632
44 T7 233 -6.632
44 T7 234 -6.144
44 T7 235 -5.168
44 T7 236 -5.168
44 T7 237 -6.144
44 T7 238 -8.097
44 T7 239 -10.050
44 T7 240 -10.050
44 T7 241 -10.050
44 T7 242 -9.074
44 T7 243 -9.074
44 T7 244 -9.562
44 T7 245 -11.027
44 T7 246 -12.492
44 T7 247 -12.980
44 T7 248 -12.980
44 T7 249 -12.492
44 T7 250 -11.515
44 T7 251 -11.027
44 T7 252 -10.539
44 T7 253 -9.074
44 T7 254 -8.097
44 T7 255 -7.121
# CZ chan 15
44 CZ 0 0.743
44 CZ 1 -2.187
44 CZ 2 -6.582
44 CZ 3 -10.000
44 CZ 4 -12.441
44 CZ 5 -12.441
44 CZ 6 -11.953
44 CZ 7 -11.953
44 CZ 8 -13.418
44 CZ 9 -15.859
44 CZ 10 -17.812
44 CZ 11 -19.277
44 CZ 12 -20.253
44 CZ 13 -20.742
44 CZ 14 -20.742
44 CZ 15 -21.230
44 CZ 16 -20.253
44 CZ 17 -17.812
44 CZ 18 -14.882
44 CZ 19 -11.953
44 CZ 20 -9.511
44 CZ 21 -8.535
44 CZ 22 -8.046
44 CZ 23 -7.558
44 CZ 24 -6.582
44 CZ 25 -5.605
44 CZ 26 -5.605
44 CZ 27 -7.070
44 CZ 28 -9.511
44 CZ 29 -10.976
44 CZ 30 -10.488
44 CZ 31 -7.558
44 CZ 32 -3.164
44 CZ 33 0.254
44 CZ 34 1.231
44 CZ 35 -0.234
44 CZ 36 -3.652
44 CZ 37 -7.070
44 CZ 38 -9.511
44 CZ 39 -10.976
44 CZ 40 -10.488
44 CZ 41 -8.535
44 CZ 42 -5.117
44 CZ 43 -1.699
44 CZ 44 0.743
44 CZ 45 0.743
44 CZ 46 -0.722
44 CZ 47 -3.164
44 CZ 48 -4.628
44 CZ 49 -4.140
44 CZ 50 -2.675
44 CZ 51 -1.211
44 CZ 52 -1.699
44 CZ 53 -3.652
44 CZ 54 -7.558
44 CZ 55 -12.929
44 CZ 56 -18.300
44 CZ 57 -23.671
44 CZ 58 -27.089
44 CZ 59 -27.578
44 CZ 60 -23.183
44 CZ 61 -15.859
44 CZ 62 -7.558
44 CZ 63 -0.722
44 CZ 64 2.207
44 CZ 65 1.231
44 CZ 66 -1.211
44 CZ 67 -3.164
44 CZ 68 -3.164
44 CZ 69 -2.675
44 CZ 70 -2.187
44 CZ 71 -2.675
44 CZ 72 -2.675
44 CZ 73 -1.699
44 CZ 74 0.254
44 CZ 75 2.207
44 CZ 76 3.184
44 CZ 77 2.207
44 CZ 78 0.743
44 CZ 79 -0.722
44 CZ 80 -1.211
44 CZ 81 -1.699
44 CZ 82 -1.699
44 CZ 83 -2.675
44 CZ 84 -3.164
44 CZ 85 -4.140
44 CZ 86 -4.628
44 CZ 87 -5.605
44 CZ 88 -6.093
44 CZ 89 -5.605
44 CZ 90 -5.117
44 CZ 91 -3.652
44 CZ 92 -2.187
44 CZ 93 -0.722
44 CZ 94 -0.234
44 CZ 95 0.254
44 CZ 96 0.743
44 CZ 97 1.231
44 CZ 98 1.719
44 CZ 99 2.207
44 CZ 100 2.207
44 CZ 101 1.719
44 CZ 102 0.254
44 CZ 103 -1.211
44 CZ 104 -2.675
44 CZ 105 -4.140
44 CZ 106 -5.117
44 CZ 107 -6.093
44 CZ 108 -7.070
44 CZ 109 -8.535
44 CZ 110 -9.511
44 CZ 111 -10.488
44 CZ 112 -11.953
44 CZ 113 -12.929
44 CZ 114 -14.394
44 CZ 115 -16.347
44 CZ 116 -18.300
44 CZ 117 -19.765
44 CZ 118 -19.277
44 CZ 119 -17.324
44 CZ 120 -14.882
44 CZ 121 -12.441
44 CZ 122 -10.488
44 CZ 123 -10.976
44 CZ 124 -11.953
44 CZ 125 -14.394
44 CZ 126 -17.324
44 CZ 127 -20.253
44 CZ 128 -22.207
44 CZ 129 -23.183
44 CZ 130 -22.695
44 CZ 131 -22.207
44 CZ 132 -21.718
44 CZ 133 -21.230
44 CZ 134 -20.253
44 CZ 135 -17.812
44 CZ 136 -14.394
44 CZ 137 -11.464
44 CZ 138 -9.511
44 CZ 139 -8.535
44 CZ 140 -9.511
44 CZ 141 -10.000
44 CZ 142 -10.488
44 CZ 143 -10.000
44 CZ 144 -9.023
44 CZ 145 -8.046
44 CZ 146 -7.070
44 CZ 147 -7.070
44 CZ 148 -8.046
44 CZ 149 -10.488
44 CZ 150 -13.418
44 CZ 151 -16.347
44 CZ 152 -18.789
44 CZ 153 -19.277
44 CZ 154 -18.300
44 CZ 155 -17.324
44 CZ 156 -16.347
44 CZ 157 -15.371
44 CZ 158 -15.371
44 CZ 159 -14.882
44 CZ 160 -13.418
44 CZ 161 -10.976
44 CZ 162 -8.046
44 CZ 163 -4.628
44 CZ 164 -1.699
44 CZ 165 -0.722
44 CZ 166 -0.722
44 CZ 167 -1.699
44 CZ 168 -3.164
44 CZ 169 -5.605
44 CZ 170 -7.070
44 CZ 171 -8.046
44 CZ 172 -9.023
44 CZ 173 -10.000
44 CZ 174 -10.488
44 CZ 175 -10.488
44 CZ 176 -9.511
44 CZ 177 -8.046
44 CZ 178 -7.070
44 CZ 179 -6.582
44 CZ 180 -6.582
44 CZ 181 -6.582
44 CZ 182 -5.605
44 CZ 183 -4.628
44 CZ 184 -3.164
44 CZ 185 -2.187
44 CZ 186 -1.211
44 CZ 187 -0.722
44 CZ 188 -0.234
44 CZ 189 0.254
44 CZ 190 -0.722
44 CZ 191 -3.164
44 CZ 192 -6.582
44 CZ 193 -9.511
44 CZ 194 -11.464
44 CZ 195 -11.464
44 CZ 196 -10.000
44 CZ 197 -8.046
44 CZ 198 -6.582
44 CZ 199 -6.582
44 CZ 200 -6.582
44 CZ 201 -6.582
44 CZ 202 -5.117
44 CZ 203 -4.140
44 CZ 204 -2.675
44 CZ 205 -1.699
44 CZ 206 -1.699
44 CZ 207 -1.699
44 CZ 208 -2.187
44 CZ 209 -2.675
44 CZ 210 -4.140
44 CZ 211 -5.605
44 CZ 212 -8.046
44 CZ 213 -10.976
44 CZ 214 -13.418
44 CZ 215 -14.394
44 CZ 216 -13.906
44 CZ 217 -11.953
44 CZ 218 -9.023
44 CZ 219 -6.093
44 CZ 220 -4.140
44 CZ 221 -3.652
44 CZ 222 -3.652
44 CZ 223 -3.652
44 CZ 224 -3.652
44 CZ 225 -3.164
44 CZ 226 -2.675
44 CZ 227 -1.699
44 CZ 228 -0.722
44 CZ 229 -0.722
44 CZ 230 -1.699
44 CZ 231 -4.140
44 CZ 232 -7.558
44 CZ 233 -10.976
44 CZ 234 -12.929
44 CZ 235 -12.929
44 CZ 236 -11.953
44 CZ 237 -11.953
44 CZ 238 -13.418
44 CZ 239 -15.859
44 CZ 240 -17.812
44 CZ 241 -18.300
44 CZ 242 -17.324
44 CZ 243 -14.882
44 CZ 244 -11.953
44 CZ 245 -10.488
44 CZ 246 -10.000
44 CZ 247 -10.000
44 CZ 248 -10.488
44 CZ 249 -10.488
44 CZ 250 -9.511
44 CZ 251 -8.535
44 CZ 252 -8.046
44 CZ 253 -9.023
44 CZ 254 -11.953
44 CZ 255 -15.371
# C3 chan 16
44 C3 0 -4.323
44 C3 1 -3.347
44 C3 2 -2.370
44 C3 3 -1.882
44 C3 4 0.071
44 C3 5 1.536
44 C3 6 3.489
44 C3 7 4.466
44 C3 8 4.466
44 C3 9 3.977
44 C3 10 3.489
44 C3 11 2.513
44 C3 12 1.536
44 C3 13 0.559
44 C3 14 -0.905
44 C3 15 -2.370
44 C3 16 -3.347
44 C3 17 -4.323
44 C3 18 -5.788
44 C3 19 -6.765
44 C3 20 -8.230
44 C3 21 -8.718
44 C3 22 -8.230
44 C3 23 -7.253
44 C3 24 -5.788
44 C3 25 -3.835
44 C3 26 -2.858
44 C3 27 -1.882
44 C3 28 -0.905
44 C3 29 1.048
44 C3 30 2.513
44 C3 31 3.489
44 C3 32 3.489
44 C3 33 3.001
44 C3 34 2.513
44 C3 35 2.513
44 C3 36 2.513
44 C3 37 2.513
44 C3 38 1.536
44 C3 39 -0.417
44 C3 40 -3.835
44 C3 41 -7.253
44 C3 42 -9.694
44 C3 43 -11.159
44 C3 44 -11.159
44 C3 45 -10.671
44 C3 46 -9.206
44 C3 47 -7.741
44 C3 48 -6.276
44 C3 49 -4.323
44 C3 50 -2.858
44 C3 51 -0.905
44 C3 52 1.536
44 C3 53 3.489
44 C3 54 5.442
44 C3 55 6.419
44 C3 56 6.419
44 C3 57 5.931
44 C3 58 5.442
44 C3 59 3.977
44 C3 60 2.024
44 C3 61 0.071
44 C3 62 -2.370
44 C3 63 -4.812
44 C3 64 -6.276
44 C3 65 -7.741
44 C3 66 -8.718
44 C3 67 -9.206
44 C3 68 -9.206
44 C3 69 -9.206
44 C3 70 -8.718
44 C3 71 -7.253
44 C3 72 -6.276
44 C3 73 -4.812
44 C3 74 -2.858
44 C3 75 -0.905
44 C3 76 1.048
44 C3 77 2.513
44 C3 78 3.489
44 C3 79 3.489
44 C3 80 3.001
44 C3 81 2.513
44 C3 82 1.536
44 C3 83 0.071
44 C3 84 -1.882
44 C3 85 -4.323
44 C3 86 -6.765
44 C3 87 -8.718
44 C3 88 -8.718
44 C3 89 -8.230
44 C3 90 -7.741
44 C3 91 -7.741
44 C3 92 -7.741
44 C3 93 -7.741
44 C3 94 -6.765
44 C3 95 -4.812
44 C3 96 -2.370
44 C3 97 -0.417
44 C3 98 0.559
44 C3 99 1.536
44 C3 100 2.024
44 C3 101 2.024
44 C3 102 2.024
44 C3 103 1.048
44 C3 104 0.071
44 C3 105 -0.417
44 C3 106 -0.905
44 C3 107 -1.394
44 C3 108 -2.858
44 C3 109 -4.323
44 C3 110 -6.765
44 C3 111 -8.718
44 C3 112 -10.183
44 C3 113 -11.159
44 C3 114 -11.159
44 C3 115 -10.671
44 C3 116 -9.694
44 C3 117 -8.230
44 C3 118 -5.788
44 C3 119 -3.347
44 C3 120 -1.394
44 C3 121 0.071
44 C3 122 0.071
44 C3 123 0.559
44 C3 124 0.071
44 C3 125 0.559
44 C3 126 0.559
44 C3 127 0.071
44 C3 128 -0.417
44 C3 129 -1.394
44 C3 130 -2.370
44 C3 131 -3.347
44 C3 132 -4.323
44 C3 133 -4.812
44 C3 134 -5.300
44 C3 135 -5.300
44 C3 136 -6.276
44 C3 137 -7.253
44 C3 138 -8.230
44 C3 139 -8.230
44 C3 140 -8.230
44 C3 141 -6.276
44 C3 142 -3.835
44 C3 143 -1.394
44 C3 144 0.559
44 C3 145 1.536
44 C3 146 1.536
44 C3 147 1.048
44 C3 148 0.559
44 C3 149 0.071
44 C3 150 0.071
44 C3 151 0.559
44 C3 152 1.048
44 C3 153 1.536
44 C3 154 1.048
44 C3 155 1.048
44 C3 156 0.559
44 C3 157 0.559
44 C3 158 0.071
44 C3 159 -0.417
44 C3 160 -1.882
44 C3 161 -2.858
44 C3 162 -3.835
44 C3 163 -3.347
44 C3 164 -2.370
44 C3 165 -0.905
44 C3 166 -0.417
44 C3 167 -0.417
44 C3 168 -1.394
44 C3 169 -2.858
44 C3 170 -3.347
44 C3 171 -2.858
44 C3 172 -2.370
44 C3 173 -1.882
44 C3 174 -2.858
44 C3 175 -3.835
44 C3 176 -4.812
44 C3 177 -5.300
44 C3 178 -5.300
44 C3 179 -4.323
44 C3 180 -3.347
44 C3 181 -2.858
44 C3 182 -1.882
44 C3 183 -1.882
44 C3 184 -1.882
44 C3 185 -2.370
44 C3 186 -2.858
44 C3 187 -3.347
44 C3 188 -2.858
44 C3 189 -2.370
44 C3 190 -1.882
44 C3 191 -2.370
44 C3 192 -3.347
44 C3 193 -4.812
44 C3 194 -5.300
44 C3 195 -4.812
44 C3 196 -3.835
44 C3 197 -2.370
44 C3 198 -1.394
44 C3 199 -0.417
44 C3 200 -0.905
44 C3 201 -1.882
44 C3 202 -2.858
44 C3 203 -3.347
44 C3 204 -2.858
44 C3 205 -1.882
44 C3 206 -0.905
44 C3 207 0.071
44 C3 208 0.071
44 C3 209 -0.905
44 C3 210 -1.394
44 C3 211 -1.882
44 C3 212 -1.882
44 C3 213 -1.394
44 C3 214 -0.905
44 C3 215 -0.417
44 C3 216 -0.905
44 C3 217 -1.394
44 C3 218 -1.882
44 C3 219 -1.882
44 C3 220 -1.882
44 C3 221 -1.882
44 C3 222 -1.882
44 C3 223 -2.370
44 C3 224 -2.858
44 C3 225 -3.347
44 C3 226 -3.835
44 C3 227 -4.812
44 C3 228 -5.788
44 C3 229 -6.276
44 C3 230 -6.276
44 C3 231 -5.300
44 C3 232 -4.323
44 C3 233 -2.858
44 C3 234 -1.394
44 C3 235 -0.905
44 C3 236 -0.417
44 C3 237 -0.417
44 C3 238 -0.417
44 C3 239 -1.394
44 C3 240 -2.370
44 C3 241 -3.347
44 C3 242 -4.323
44 C3 243 -5.788
44 C3 244 -6.765
44 C3 245 -7.253
44 C3 246 -7.741
44 C3 247 -7.741
44 C3 248 -8.230
44 C3 249 -8.230
44 C3 250 -8.230
44 C3 251 -7.741
44 C3 252 -6.765
44 C3 253 -5.788
44 C3 254 -4.812
44 C3 255 -4.323
# C4 chan 17
44 C4 0 0.081
44 C4 1 0.570
44 C4 2 0.570
44 C4 3 0.081
44 C4 4 -0.407
44 C4 5 -1.872
44 C4 6 -2.848
44 C4 7 -2.848
44 C4 8 -2.360
44 C4 9 -1.872
44 C4 10 -1.872
44 C4 11 -2.848
44 C4 12 -4.313
44 C4 13 -5.778
44 C4 14 -6.266
44 C4 15 -5.290
44 C4 16 -3.337
44 C4 17 -1.383
44 C4 18 1.058
44 C4 19 2.035
44 C4 20 2.523
44 C4 21 2.523
44 C4 22 2.035
44 C4 23 1.058
44 C4 24 0.570
44 C4 25 -1.383
44 C4 26 -2.360
44 C4 27 -2.848
44 C4 28 -2.848
44 C4 29 -1.872
44 C4 30 -0.895
44 C4 31 0.570
44 C4 32 2.035
44 C4 33 3.011
44 C4 34 3.499
44 C4 35 3.011
44 C4 36 2.035
44 C4 37 1.058
44 C4 38 0.570
44 C4 39 0.570
44 C4 40 1.058
44 C4 41 2.035
44 C4 42 2.523
44 C4 43 3.011
44 C4 44 2.523
44 C4 45 2.035
44 C4 46 1.546
44 C4 47 1.546
44 C4 48 2.035
44 C4 49 2.523
44 C4 50 2.035
44 C4 51 0.570
44 C4 52 -1.872
44 C4 53 -4.313
44 C4 54 -5.290
44 C4 55 -5.290
44 C4 56 -3.825
44 C4 57 -1.872
44 C4 58 -0.407
44 C4 59 0.570
44 C4 60 0.570
44 C4 61 0.570
44 C4 62 0.570
44 C4 63 0.570
44 C4 64 0.570
44 C4 65 0.081
44 C4 66 0.081
44 C4 67 0.081
44 C4 68 1.058
44 C4 69 2.035
44 C4 70 2.523
44 C4 71 2.035
44 C4 72 0.570
44 C4 73 -1.383
44 C4 74 -2.848
44 C4 75 -4.313
44 C4 76 -4.313
44 C4 77 -4.313
44 C4 78 -3.337
44 C4 79 -2.848
44 C4 80 -2.360
44 C4 81 -1.872
44 C4 82 -1.383
44 C4 83 -1.383
44 C4 84 -1.872
44 C4 85 -2.360
44 C4 86 -3.337
44 C4 87 -4.313
44 C4 88 -4.801
44 C4 89 -5.290
44 C4 90 -4.801
44 C4 91 -4.313
44 C4 92 -3.337
44 C4 93 -3.337
44 C4 94 -3.337
44 C4 95 -3.825
44 C4 96 -4.313
44 C4 97 -4.313
44 C4 98 -4.313
44 C4 99 -3.825
44 C4 100 -3.825
44 C4 101 -3.825
44 C4 102 -3.825
44 C4 103 -3.825
44 C4 104 -3.825
44 C4 105 -3.825
44 C4 106 -4.313
44 C4 107 -4.313
44 C4 108 -4.313
44 C4 109 -3.825
44 C4 110 -3.337
44 C4 111 -2.360
44 C4 112 -1.872
44 C4 113 -0.895
44 C4 114 -0.407
44 C4 115 0.081
44 C4 116 -0.407
44 C4 117 -1.872
44 C4 118 -3.337
44 C4 119 -3.825
44 C4 120 -3.337
44 C4 121 -2.360
44 C4 122 -1.383
44 C4 123 -0.895
44 C4 124 -0.895
44 C4 125 -1.383
44 C4 126 -1.872
44 C4 127 -2.360
44 C4 128 -2.360
44 C4 129 -2.360
44 C4 130 -2.360
44 C4 131 -2.360
44 C4 132 -1.872
44 C4 133 -1.383
44 C4 134 -0.895
44 C4 135 -0.407
44 C4 136 0.570
44 C4 137 1.058
44 C4 138 1.546
44 C4 139 2.035
44 C4 140 1.546
44 C4 141 1.058
44 C4 142 0.081
44 C4 143 -0.407
44 C4 144 -0.407
44 C4 145 0.081
44 C4 146 0.570
44 C4 147 0.570
44 C4 148 0.081
44 C4 149 -0.895
44 C4 150 -2.360
44 C4 151 -3.337
44 C4 152 -4.801
44 C4 153 -5.290
44 C4 154 -5.290
44 C4 155 -4.801
44 C4 156 -4.313
44 C4 157 -2.360
44 C4 158 -0.895
44 C4 159 0.570
44 C4 160 1.058
44 C4 161 2.035
44 C4 162 2.523
44 C4 163 3.011
44 C4 164 3.011
44 C4 165 3.499
44 C4 166 3.011
44 C4 167 2.523
44 C4 168 2.035
44 C4 169 1.546
44 C4 170 1.058
44 C4 171 1.058
44 C4 172 1.546
44 C4 173 2.035
44 C4 174 2.523
44 C4 175 2.523
44 C4 176 2.035
44 C4 177 2.523
44 C4 178 2.523
44 C4 179 2.523
44 C4 180 2.035
44 C4 181 1.058
44 C4 182 1.058
44 C4 183 2.035
44 C4 184 3.499
44 C4 185 4.964
44 C4 186 5.941
44 C4 187 4.964
44 C4 188 3.988
44 C4 189 3.499
44 C4 190 3.011
44 C4 191 3.499
44 C4 192 3.011
44 C4 193 1.546
44 C4 194 0.081
44 C4 195 -0.895
44 C4 196 -1.383
44 C4 197 -0.407
44 C4 198 0.570
44 C4 199 1.058
44 C4 200 2.035
44 C4 201 2.035
44 C4 202 3.011
44 C4 203 3.988
44 C4 204 3.988
44 C4 205 3.499
44 C4 206 2.523
44 C4 207 2.035
44 C4 208 1.058
44 C4 209 1.058
44 C4 210 0.570
44 C4 211 0.081
44 C4 212 0.081
44 C4 213 -0.407
44 C4 214 -0.407
44 C4 215 -0.407
44 C4 216 0.081
44 C4 217 -0.407
44 C4 218 -0.407
44 C4 219 -0.407
44 C4 220 0.081
44 C4 221 1.058
44 C4 222 2.035
44 C4 223 3.011
44 C4 224 3.011
44 C4 225 2.523
44 C4 226 2.523
44 C4 227 3.011
44 C4 228 3.988
44 C4 229 4.476
44 C4 230 4.476
44 C4 231 3.011
44 C4 232 1.058
44 C4 233 -0.895
44 C4 234 -2.360
44 C4 235 -3.337
44 C4 236 -3.337
44 C4 237 -2.360
44 C4 238 -1.383
44 C4 239 0.081
44 C4 240 0.570
44 C4 241 1.546
44 C4 242 1.546
44 C4 243 1.546
44 C4 244 1.546
44 C4 245 1.058
44 C4 246 0.570
44 C4 247 0.081
44 C4 248 -0.895
44 C4 249 -1.383
44 C4 250 -1.383
44 C4 251 -1.872
44 C4 252 -1.872
44 C4 253 -2.360
44 C4 254 -2.360
44 C4 255 -1.872
# CP5 chan 18
44 CP5 0 -4.435
44 CP5 1 -2.970
44 CP5 2 -1.994
44 CP5 3 -1.506
44 CP5 4 0.448
44 CP5 5 2.889
44 CP5 6 5.330
44 CP5 7 6.307
44 CP5 8 5.330
44 CP5 9 3.377
44 CP5 10 1.424
44 CP5 11 -0.529
44 CP5 12 -1.506
44 CP5 13 -2.970
44 CP5 14 -4.435
44 CP5 15 -6.388
44 CP5 16 -7.365
44 CP5 17 -7.853
44 CP5 18 -7.853
44 CP5 19 -6.877
44 CP5 20 -6.388
44 CP5 21 -5.412
44 CP5 22 -4.435
44 CP5 23 -3.459
44 CP5 24 -2.482
44 CP5 25 -1.994
44 CP5 26 -1.506
44 CP5 27 -0.529
44 CP5 28 0.448
44 CP5 29 2.401
44 CP5 30 3.866
44 CP5 31 3.866
44 CP5 32 1.912
44 CP5 33 -0.041
44 CP5 34 -1.017
44 CP5 35 -1.017
44 CP5 36 -0.041
44 CP5 37 1.424
44 CP5 38 0.936
44 CP5 39 -0.529
44 CP5 40 -3.947
44 CP5 41 -7.365
44 CP5 42 -10.783
44 CP5 43 -12.736
44 CP5 44 -14.201
44 CP5 45 -14.689
44 CP5 46 -14.201
44 CP5 47 -13.224
44 CP5 48 -12.248
44 CP5 49 -10.783
44 CP5 50 -8.830
44 CP5 51 -6.388
44 CP5 52 -2.970
44 CP5 53 -0.041
44 CP5 54 2.889
44 CP5 55 4.354
44 CP5 56 4.842
44 CP5 57 4.842
44 CP5 58 4.842
44 CP5 59 4.354
44 CP5 60 2.401
44 CP5 61 -0.529
44 CP5 62 -4.435
44 CP5 63 -7.365
44 CP5 64 -8.830
44 CP5 65 -9.318
44 CP5 66 -9.318
44 CP5 67 -9.318
44 CP5 68 -9.318
44 CP5 69 -9.806
44 CP5 70 -9.806
44 CP5 71 -8.830
44 CP5 72 -7.853
44 CP5 73 -6.877
44 CP5 74 -5.412
44 CP5 75 -3.459
44 CP5 76 -1.506
44 CP5 77 0.448
44 CP5 78 1.912
44 CP5 79 1.912
44 CP5 80 0.936
44 CP5 81 -0.529
44 CP5 82 -2.482
44 CP5 83 -4.924
44 CP5 84 -7.853
44 CP5 85 -11.271
44 CP5 86 -14.201
44 CP5 87 -15.666
44 CP5 88 -15.177
44 CP5 89 -14.201
44 CP5 90 -12.736
44 CP5 91 -12.248
44 CP5 92 -12.248
44 CP5 93 -11.759
44 CP5 94 -10.295
44 CP5 95 -8.341
44 CP5 96 -5.900
44 CP5 97 -3.947
44 CP5 98 -2.482
44 CP5 99 -1.017
44 CP5 100 -0.041
44 CP5 101 -0.041
44 CP5 102 -0.041
44 CP5 103 -1.017
44 CP5 104 -1.017
44 CP5 105 -1.017
44 CP5 106 -0.529
44 CP5 107 -0.529
44 CP5 108 -1.994
44 CP5 109 -4.435
44 CP5 110 -7.853
44 CP5 111 -9.806
44 CP5 112 -11.271
44 CP5 113 -11.271
44 CP5 114 -11.271
44 CP5 115 -11.759
44 CP5 116 -12.248
44 CP5 117 -12.736
44 CP5 118 -11.759
44 CP5 119 -9.806
44 CP5 120 -6.388
44 CP5 121 -3.947
44 CP5 122 -1.994
44 CP5 123 -1.017
44 CP5 124 -0.529
44 CP5 125 -0.041
44 CP5 126 0.448
44 CP5 127 0.936
44 CP5 128 0.448
44 CP5 129 -1.017
44 CP5 130 -2.970
44 CP5 131 -4.924
44 CP5 132 -6.388
44 CP5 133 -6.388
44 CP5 134 -6.388
44 CP5 135 -5.900
44 CP5 136 -6.388
44 CP5 137 -7.853
44 CP5 138 -8.341
44 CP5 139 -8.341
44 CP5 140 -7.853
44 CP5 141 -6.877
44 CP5 142 -6.388
44 CP5 143 -4.924
44 CP5 144 -2.482
44 CP5 145 0.448
44 CP5 146 2.889
44 CP5 147 3.866
44 CP5 148 3.377
44 CP5 149 2.401
44 CP5 150 1.912
44 CP5 151 2.889
44 CP5 152 4.354
44 CP5 153 5.330
44 CP5 154 3.866
44 CP5 155 1.424
44 CP5 156 -0.529
44 CP5 157 -1.017
44 CP5 158 0.448
44 CP5 159 1.912
44 CP5 160 2.889
44 CP5 161 1.424
44 CP5 162 0.448
44 CP5 163 -0.529
44 CP5 164 -0.041
44 CP5 165 0.936
44 CP5 166 1.912
44 CP5 167 1.424
44 CP5 168 -0.041
44 CP5 169 -1.994
44 CP5 170 -2.482
44 CP5 171 -1.994
44 CP5 172 -1.017
44 CP5 173 -1.017
44 CP5 174 -2.482
44 CP5 175 -4.435
44 CP5 176 -5.900
44 CP5 177 -5.900
44 CP5 178 -4.924
44 CP5 179 -3.459
44 CP5 180 -1.994
44 CP5 181 -0.529
44 CP5 182 0.936
44 CP5 183 2.401
44 CP5 184 3.377
44 CP5 185 2.889
44 CP5 186 1.912
44 CP5 187 0.936
44 CP5 188 0.448
44 CP5 189 -0.041
44 CP5 190 -0.041
44 CP5 191 -1.506
44 CP5 192 -3.459
44 CP5 193 -5.900
44 CP5 194 -7.365
44 CP5 195 -6.877
44 CP5 196 -4.924
44 CP5 197 -1.506
44 CP5 198 0.448
44 CP5 199 1.424
44 CP5 200 0.936
44 CP5 201 -1.017
44 CP5 202 -1.994
44 CP5 203 -1.994
44 CP5 204 -0.041
44 CP5 205 2.889
44 CP5 206 3.866
44 CP5 207 2.889
44 CP5 208 0.448
44 CP5 209 -1.994
44 CP5 210 -2.970
44 CP5 211 -1.506
44 CP5 212 0.936
44 CP5 213 3.377
44 CP5 214 4.842
44 CP5 215 4.354
44 CP5 216 2.401
44 CP5 217 0.936
44 CP5 218 -0.529
44 CP5 219 -0.529
44 CP5 220 -0.041
44 CP5 221 0.936
44 CP5 222 0.936
44 CP5 223 0.936
44 CP5 224 -0.041
44 CP5 225 -0.529
44 CP5 226 -1.506
44 CP5 227 -1.506
44 CP5 228 -1.994
44 CP5 229 -1.994
44 CP5 230 -1.994
44 CP5 231 -1.506
44 CP5 232 -0.041
44 CP5 233 1.424
44 CP5 234 1.912
44 CP5 235 2.401
44 CP5 236 1.912
44 CP5 237 0.936
44 CP5 238 0.448
44 CP5 239 -0.529
44 CP5 240 -1.017
44 CP5 241 -1.994
44 CP5 242 -2.482
44 CP5 243 -3.947
44 CP5 244 -4.924
44 CP5 245 -6.388
44 CP5 246 -7.853
44 CP5 247 -8.830
44 CP5 248 -9.806
44 CP5 249 -9.806
44 CP5 250 -9.318
44 CP5 251 -8.830
44 CP5 252 -7.365
44 CP5 253 -5.412
44 CP5 254 -3.459
44 CP5 255 -1.506
# CP6 chan 19
44 CP6 0 -3.784
44 CP6 1 -2.808
44 CP6 2 -0.366
44 CP6 3 1.099
44 CP6 4 0.610
44 CP6 5 -1.831
44 CP6 6 -4.761
44 CP6 7 -6.226
44 CP6 8 -6.714
44 CP6 9 -5.249
44 CP6 10 -4.761
44 CP6 11 -6.714
44 CP6 12 -9.644
44 CP6 13 -12.573
44 CP6 14 -14.038
44 CP6 15 -12.573
44 CP6 16 -8.667
44 CP6 17 -4.272
44 CP6 18 -0.366
44 CP6 19 2.075
44 CP6 20 3.052
44 CP6 21 4.028
44 CP6 22 4.517
44 CP6 23 4.028
44 CP6 24 3.052
44 CP6 25 1.587
44 CP6 26 -0.366
44 CP6 27 -1.831
44 CP6 28 -1.343
44 CP6 29 -0.366
44 CP6 30 1.099
44 CP6 31 2.075
44 CP6 32 2.075
44 CP6 33 1.587
44 CP6 34 1.099
44 CP6 35 1.099
44 CP6 36 0.610
44 CP6 37 0.122
44 CP6 38 -0.854
44 CP6 39 -1.343
44 CP6 40 -1.831
44 CP6 41 -0.854
44 CP6 42 -0.366
44 CP6 43 -0.854
44 CP6 44 -2.319
44 CP6 45 -4.272
44 CP6 46 -5.737
44 CP6 47 -6.226
44 CP6 48 -5.249
44 CP6 49 -3.784
44 CP6 50 -3.296
44 CP6 51 -4.761
44 CP6 52 -7.690
44 CP6 53 -10.620
44 CP6 54 -12.085
44 CP6 55 -11.597
44 CP6 56 -10.132
44 CP6 57 -7.690
44 CP6 58 -5.737
44 CP6 59 -4.761
44 CP6 60 -4.272
44 CP6 61 -3.784
44 CP6 62 -3.296
44 CP6 63 -2.808
44 CP6 64 -3.296
44 CP6 65 -4.272
44 CP6 66 -4.761
44 CP6 67 -4.761
44 CP6 68 -3.296
44 CP6 69 -1.831
44 CP6 70 -0.854
44 CP6 71 -0.366
44 CP6 72 -1.831
44 CP6 73 -3.784
44 CP6 74 -6.226
44 CP6 75 -7.202
44 CP6 76 -7.690
44 CP6 77 -7.202
44 CP6 78 -6.226
44 CP6 79 -6.226
44 CP6 80 -6.714
44 CP6 81 -6.714
44 CP6 82 -6.714
44 CP6 83 -6.714
44 CP6 84 -7.202
44 CP6 85 -8.667
44 CP6 86 -11.108
44 CP6 87 -13.550
44 CP6 88 -14.526
44 CP6 89 -14.038
44 CP6 90 -12.085
44 CP6 91 -9.644
44 CP6 92 -8.179
44 CP6 93 -7.690
44 CP6 94 -8.667
44 CP6 95 -9.155
44 CP6 96 -9.644
44 CP6 97 -8.667
44 CP6 98 -7.202
44 CP6 99 -6.226
44 CP6 100 -5.737
44 CP6 101 -5.249
44 CP6 102 -5.737
44 CP6 103 -5.737
44 CP6 104 -6.714
44 CP6 105 -8.179
44 CP6 106 -9.644
44 CP6 107 -10.620
44 CP6 108 -11.108
44 CP6 109 -10.132
44 CP6 110 -9.155
44 CP6 111 -7.690
44 CP6 112 -7.202
44 CP6 113 -7.202
44 CP6 114 -6.714
44 CP6 115 -6.226
44 CP6 116 -6.714
44 CP6 117 -7.690
44 CP6 118 -9.644
44 CP6 119 -10.620
44 CP6 120 -10.132
44 CP6 121 -8.179
44 CP6 122 -6.226
44 CP6 123 -4.761
44 CP6 124 -4.761
44 CP6 125 -6.226
44 CP6 126 -8.179
44 CP6 127 -9.644
44 CP6 128 -11.108
44 CP6 129 -12.573
44 CP6 130 -13.550
44 CP6 131 -13.550
44 CP6 132 -12.085
44 CP6 133 -10.132
44 CP6 134 -8.667
44 CP6 135 -7.690
44 CP6 136 -8.179
44 CP6 137 -8.667
44 CP6 138 -8.667
44 CP6 139 -8.179
44 CP6 140 -7.202
44 CP6 141 -7.202
44 CP6 142 -7.690
44 CP6 143 -8.179
44 CP6 144 -7.202
44 CP6 145 -5.249
44 CP6 146 -3.296
44 CP6 147 -2.319
44 CP6 148 -3.784
44 CP6 149 -5.737
44 CP6 150 -8.179
44 CP6 151 -9.644
44 CP6 152 -11.108
44 CP6 153 -12.085
44 CP6 154 -13.062
44 CP6 155 -13.550
44 CP6 156 -13.062
44 CP6 157 -10.620
44 CP6 158 -7.690
44 CP6 159 -5.737
44 CP6 160 -4.272
44 CP6 161 -4.761
44 CP6 162 -5.249
44 CP6 163 -5.249
44 CP6 164 -4.272
44 CP6 165 -2.319
44 CP6 166 -1.831
44 CP6 167 -2.319
44 CP6 168 -4.761
44 CP6 169 -7.202
44 CP6 170 -8.667
44 CP6 171 -8.667
44 CP6 172 -7.202
44 CP6 173 -6.226
44 CP6 174 -5.737
44 CP6 175 -6.226
44 CP6 176 -6.226
44 CP6 177 -5.249
44 CP6 178 -3.784
44 CP6 179 -3.784
44 CP6 180 -4.761
44 CP6 181 -5.737
44 CP6 182 -6.226
44 CP6 183 -4.761
44 CP6 184 -2.319
44 CP6 185 -0.366
44 CP6 186 0.122
44 CP6 187 -1.831
44 CP6 188 -3.296
44 CP6 189 -4.272
44 CP6 190 -3.784
44 CP6 191 -3.784
44 CP6 192 -3.784
44 CP6 193 -5.737
44 CP6 194 -8.179
44 CP6 195 -9.644
44 CP6 196 -10.132
44 CP6 197 -10.132
44 CP6 198 -9.644
44 CP6 199 -9.644
44 CP6 200 -9.644
44 CP6 201 -8.667
44 CP6 202 -7.202
44 CP6 203 -5.249
44 CP6 204 -4.272
44 CP6 205 -4.272
44 CP6 206 -5.737
44 CP6 207 -6.714
44 CP6 208 -7.690
44 CP6 209 -8.179
44 CP6 210 -7.690
44 CP6 211 -7.690
44 CP6 212 -7.690
44 CP6 213 -7.690
44 CP6 214 -8.179
44 CP6 215 -8.667
44 CP6 216 -9.155
44 CP6 217 -9.644
44 CP6 218 -10.132
44 CP6 219 -9.155
44 CP6 220 -6.714
44 CP6 221 -3.784
44 CP6 222 -1.343
44 CP6 223 -0.366
44 CP6 224 -0.854
44 CP6 225 -1.831
44 CP6 226 -2.319
44 CP6 227 -2.319
44 CP6 228 -1.831
44 CP6 229 -2.319
44 CP6 230 -3.296
44 CP6 231 -5.737
44 CP6 232 -8.179
44 CP6 233 -11.108
44 CP6 234 -13.550
44 CP6 235 -15.503
44 CP6 236 -15.991
44 CP6 237 -14.526
44 CP6 238 -12.573
44 CP6 239 -9.644
44 CP6 240 -6.714
44 CP6 241 -5.249
44 CP6 242 -4.272
44 CP6 243 -4.272
44 CP6 244 -4.761
44 CP6 245 -6.226
44 CP6 246 -7.690
44 CP6 247 -10.132
44 CP6 248 -11.597
44 CP6 249 -13.062
44 CP6 250 -14.526
44 CP6 251 -15.503
44 CP6 252 -16.479
44 CP6 253 -16.968
44 CP6 254 -15.991
44 CP6 255 -13.550
# CP1 chan 20
44 CP1 0 -5.615
44 CP1 1 -5.127
44 CP1 2 -3.662
44 CP1 3 -2.197
44 CP1 4 -0.732
44 CP1 5 0.732
44 CP1 6 1.709
44 CP1 7 2.197
44 CP1 8 2.197
44 CP1 9 2.197
44 CP1 10 2.197
44 CP1 11 1.709
44 CP1 12 1.221
44 CP1 13 0.244
44 CP1 14 -0.244
44 CP1 15 -1.221
44 CP1 16 -1.221
44 CP1 17 -1.709
44 CP1 18 -1.709
44 CP1 19 -1.709
44 CP1 20 -1.709
44 CP1 21 -2.197
44 CP1 22 -1.709
44 CP1 23 -1.709
44 CP1 24 -1.221
44 CP1 25 -0.732
44 CP1 26 -0.244
44 CP1 27 0.732
44 CP1 28 1.709
44 CP1 29 2.197
44 CP1 30 2.197
44 CP1 31 1.709
44 CP1 32 0.244
44 CP1 33 -1.221
44 CP1 34 -1.709
44 CP1 35 -1.709
44 CP1 36 -0.732
44 CP1 37 0.244
44 CP1 38 0.244
44 CP1 39 -0.244
44 CP1 40 -2.197
44 CP1 41 -4.639
44 CP1 42 -7.568
44 CP1 43 -9.521
44 CP1 44 -10.498
44 CP1 45 -10.986
44 CP1 46 -10.010
44 CP1 47 -9.521
44 CP1 48 -8.545
44 CP1 49 -7.080
44 CP1 50 -5.615
44 CP1 51 -3.662
44 CP1 52 -2.197
44 CP1 53 -1.221
44 CP1 54 -0.244
44 CP1 55 -0.244
44 CP1 56 0.244
44 CP1 57 0.732
44 CP1 58 1.221
44 CP1 59 1.221
44 CP1 60 0.244
44 CP1 61 -0.732
44 CP1 62 -2.686
44 CP1 63 -3.662
44 CP1 64 -4.150
44 CP1 65 -4.639
44 CP1 66 -5.127
44 CP1 67 -6.104
44 CP1 68 -7.080
44 CP1 69 -7.568
44 CP1 70 -7.568
44 CP1 71 -6.592
44 CP1 72 -5.615
44 CP1 73 -5.127
44 CP1 74 -4.150
44 CP1 75 -3.174
44 CP1 76 -2.197
44 CP1 77 -1.709
44 CP1 78 -1.221
44 CP1 79 -1.709
44 CP1 80 -1.709
44 CP1 81 -1.709
44 CP1 82 -1.709
44 CP1 83 -2.686
44 CP1 84 -3.662
44 CP1 85 -5.615
44 CP1 86 -7.080
44 CP1 87 -8.057
44 CP1 88 -7.568
44 CP1 89 -7.080
44 CP1 90 -7.080
44 CP1 91 -7.080
44 CP1 92 -7.080
44 CP1 93 -7.080
44 CP1 94 -6.104
44 CP1 95 -5.127
44 CP1 96 -4.150
44 CP1 97 -3.174
44 CP1 98 -2.197
44 CP1 99 -1.709
44 CP1 100 -0.732
44 CP1 101 -0.244
44 CP1 102 0.244
44 CP1 103 -0.244
44 CP1 104 -0.732
44 CP1 105 -1.221
44 CP1 106 -1.221
44 CP1 107 -1.709
44 CP1 108 -2.197
44 CP1 109 -3.662
44 CP1 110 -4.639
44 CP1 111 -6.104
44 CP1 112 -6.592
44 CP1 113 -7.080
44 CP1 114 -7.568
44 CP1 115 -8.057
44 CP1 116 -8.057
44 CP1 117 -8.057
44 CP1 118 -7.080
44 CP1 119 -6.104
44 CP1 120 -4.639
44 CP1 121 -3.662
44 CP1 122 -3.174
44 CP1 123 -2.197
44 CP1 124 -1.709
44 CP1 125 -0.732
44 CP1 126 -0.244
44 CP1 127 -0.244
44 CP1 128 -1.221
44 CP1 129 -2.197
44 CP1 130 -3.174
44 CP1 131 -4.150
44 CP1 132 -4.639
44 CP1 133 -4.639
44 CP1 134 -5.127
44 CP1 135 -5.127
44 CP1 136 -5.615
44 CP1 137 -6.104
44 CP1 138 -6.592
44 CP1 139 -6.592
44 CP1 140 -7.080
44 CP1 141 -7.080
44 CP1 142 -6.592
44 CP1 143 -5.127
44 CP1 144 -3.174
44 CP1 145 -1.221
44 CP1 146 0.244
44 CP1 147 0.732
44 CP1 148 0.244
44 CP1 149 -0.244
44 CP1 150 -0.732
44 CP1 151 -0.244
44 CP1 152 0.244
44 CP1 153 0.732
44 CP1 154 0.244
44 CP1 155 -0.732
44 CP1 156 -1.709
44 CP1 157 -2.686
44 CP1 158 -3.174
44 CP1 159 -3.662
44 CP1 160 -4.150
44 CP1 161 -5.127
44 CP1 162 -5.615
44 CP1 163 -5.615
44 CP1 164 -5.127
44 CP1 165 -4.150
44 CP1 166 -3.174
44 CP1 167 -2.686
44 CP1 168 -3.174
44 CP1 169 -3.662
44 CP1 170 -4.150
44 CP1 171 -4.639
44 CP1 172 -4.150
44 CP1 173 -4.150
44 CP1 174 -4.150
44 CP1 175 -4.639
44 CP1 176 -5.127
44 CP1 177 -6.104
44 CP1 178 -6.104
44 CP1 179 -6.592
44 CP1 180 -6.104
44 CP1 181 -5.615
44 CP1 182 -5.127
44 CP1 183 -4.639
44 CP1 184 -5.127
44 CP1 185 -4.639
44 CP1 186 -4.639
44 CP1 187 -4.639
44 CP1 188 -4.639
44 CP1 189 -5.127
44 CP1 190 -5.615
44 CP1 191 -6.104
44 CP1 192 -5.615
44 CP1 193 -5.615
44 CP1 194 -5.127
44 CP1 195 -4.639
44 CP1 196 -4.150
44 CP1 197 -3.174
44 CP1 198 -2.686
44 CP1 199 -2.686
44 CP1 200 -3.662
44 CP1 201 -5.127
44 CP1 202 -6.592
44 CP1 203 -7.080
44 CP1 204 -6.104
44 CP1 205 -5.127
44 CP1 206 -4.639
44 CP1 207 -5.127
44 CP1 208 -5.615
44 CP1 209 -6.592
44 CP1 210 -6.592
44 CP1 211 -5.615
44 CP1 212 -4.150
44 CP1 213 -2.197
44 CP1 214 -1.709
44 CP1 215 -2.197
44 CP1 216 -3.174
44 CP1 217 -4.150
44 CP1 218 -4.150
44 CP1 219 -4.150
44 CP1 220 -3.662
44 CP1 221 -3.662
44 CP1 222 -3.662
44 CP1 223 -4.150
44 CP1 224 -4.639
44 CP1 225 -5.127
44 CP1 226 -5.615
44 CP1 227 -6.104
44 CP1 228 -6.104
44 CP1 229 -6.104
44 CP1 230 -5.615
44 CP1 231 -5.127
44 CP1 232 -4.150
44 CP1 233 -3.662
44 CP1 234 -2.686
44 CP1 235 -2.197
44 CP1 236 -1.709
44 CP1 237 -2.197
44 CP1 238 -2.686
44 CP1 239 -3.662
44 CP1 240 -4.639
44 CP1 241 -5.615
44 CP1 242 -6.104
44 CP1 243 -6.104
44 CP1 244 -6.104
44 CP1 245 -7.080
44 CP1 246 -8.057
44 CP1 247 -9.033
44 CP1 248 -9.521
44 CP1 249 -9.521
44 CP1 250 -9.033
44 CP1 251 -8.057
44 CP1 252 -7.080
44 CP1 253 -6.104
44 CP1 254 -5.127
44 CP1 255 -5.127
# CP2 chan 21
44 CP2 0 -3.510
44 CP2 1 -3.021
44 CP2 2 -1.556
44 CP2 3 -0.580
44 CP2 4 -0.580
44 CP2 5 -1.556
44 CP2 6 -2.533
44 CP2 7 -3.021
44 CP2 8 -3.021
44 CP2 9 -2.533
44 CP2 10 -2.533
44 CP2 11 -2.533
44 CP2 12 -2.533
44 CP2 13 -2.533
44 CP2 14 -2.045
44 CP2 15 -1.068
44 CP2 16 -0.092
44 CP2 17 0.885
44 CP2 18 1.862
44 CP2 19 3.326
44 CP2 20 4.303
44 CP2 21 5.280
44 CP2 22 5.280
44 CP2 23 4.303
44 CP2 24 3.326
44 CP2 25 1.862
44 CP2 26 0.885
44 CP2 27 0.397
44 CP2 28 -0.092
44 CP2 29 -0.580
44 CP2 30 -1.556
44 CP2 31 -2.045
44 CP2 32 -3.021
44 CP2 33 -3.510
44 CP2 34 -3.510
44 CP2 35 -3.510
44 CP2 36 -2.533
44 CP2 37 -1.556
44 CP2 38 -1.068
44 CP2 39 -0.092
44 CP2 40 -0.092
44 CP2 41 -0.092
44 CP2 42 -0.580
44 CP2 43 -1.068
44 CP2 44 -2.045
44 CP2 45 -3.510
44 CP2 46 -3.998
44 CP2 47 -4.486
44 CP2 48 -3.998
44 CP2 49 -3.510
44 CP2 50 -3.021
44 CP2 51 -3.021
44 CP2 52 -3.998
44 CP2 53 -5.463
44 CP2 54 -6.439
44 CP2 55 -5.951
44 CP2 56 -4.974
44 CP2 57 -3.510
44 CP2 58 -1.556
44 CP2 59 -0.580
44 CP2 60 -0.092
44 CP2 61 0.397
44 CP2 62 0.885
44 CP2 63 0.885
44 CP2 64 0.885
44 CP2 65 0.397
44 CP2 66 -0.092
44 CP2 67 -0.580
44 CP2 68 -0.580
44 CP2 69 -0.580
44 CP2 70 -1.068
44 CP2 71 -1.556
44 CP2 72 -2.045
44 CP2 73 -3.021
44 CP2 74 -3.510
44 CP2 75 -3.998
44 CP2 76 -4.486
44 CP2 77 -4.974
44 CP2 78 -4.486
44 CP2 79 -3.998
44 CP2 80 -3.510
44 CP2 81 -3.021
44 CP2 82 -2.045
44 CP2 83 -2.533
44 CP2 84 -3.021
44 CP2 85 -3.998
44 CP2 86 -4.974
44 CP2 87 -5.951
44 CP2 88 -6.439
44 CP2 89 -5.951
44 CP2 90 -5.463
44 CP2 91 -4.486
44 CP2 92 -3.998
44 CP2 93 -3.510
44 CP2 94 -3.510
44 CP2 95 -3.510
44 CP2 96 -3.998
44 CP2 97 -4.486
44 CP2 98 -4.486
44 CP2 99 -3.998
44 CP2 100 -3.510
44 CP2 101 -2.533
44 CP2 102 -2.045
44 CP2 103 -2.533
44 CP2 104 -2.533
44 CP2 105 -3.021
44 CP2 106 -3.021
44 CP2 107 -3.021
44 CP2 108 -3.021
44 CP2 109 -2.533
44 CP2 110 -2.533
44 CP2 111 -2.045
44 CP2 112 -2.045
44 CP2 113 -1.556
44 CP2 114 -1.556
44 CP2 115 -2.045
44 CP2 116 -3.021
44 CP2 117 -4.486
44 CP2 118 -5.951
44 CP2 119 -6.439
44 CP2 120 -5.951
44 CP2 121 -4.974
44 CP2 122 -3.998
44 CP2 123 -3.021
44 CP2 124 -2.533
44 CP2 125 -2.045
44 CP2 126 -1.556
44 CP2 127 -2.045
44 CP2 128 -2.533
44 CP2 129 -3.510
44 CP2 130 -3.998
44 CP2 131 -4.486
44 CP2 132 -4.486
44 CP2 133 -3.998
44 CP2 134 -3.998
44 CP2 135 -3.998
44 CP2 136 -4.486
44 CP2 137 -4.486
44 CP2 138 -4.486
44 CP2 139 -3.998
44 CP2 140 -4.974
44 CP2 141 -5.463
44 CP2 142 -6.439
44 CP2 143 -6.439
44 CP2 144 -5.463
44 CP2 145 -3.998
44 CP2 146 -2.533
44 CP2 147 -2.045
44 CP2 148 -2.045
44 CP2 149 -3.021
44 CP2 150 -3.510
44 CP2 151 -3.510
44 CP2 152 -3.510
44 CP2 153 -3.510
44 CP2 154 -3.998
44 CP2 155 -4.486
44 CP2 156 -4.486
44 CP2 157 -3.998
44 CP2 158 -3.998
44 CP2 159 -3.510
44 CP2 160 -3.998
44 CP2 161 -4.486
44 CP2 162 -4.974
44 CP2 163 -4.974
44 CP2 164 -4.486
44 CP2 165 -3.510
44 CP2 166 -3.510
44 CP2 167 -3.021
44 CP2 168 -3.510
44 CP2 169 -4.486
44 CP2 170 -4.974
44 CP2 171 -4.974
44 CP2 172 -3.998
44 CP2 173 -3.510
44 CP2 174 -3.021
44 CP2 175 -2.533
44 CP2 176 -3.021
44 CP2 177 -3.510
44 CP2 178 -3.998
44 CP2 179 -4.486
44 CP2 180 -4.974
44 CP2 181 -4.974
44 CP2 182 -4.974
44 CP2 183 -4.974
44 CP2 184 -4.486
44 CP2 185 -3.998
44 CP2 186 -4.486
44 CP2 187 -4.974
44 CP2 188 -5.463
44 CP2 189 -5.951
44 CP2 190 -5.463
44 CP2 191 -4.974
44 CP2 192 -4.486
44 CP2 193 -3.998
44 CP2 194 -3.998
44 CP2 195 -3.510
44 CP2 196 -3.510
44 CP2 197 -3.510
44 CP2 198 -3.998
44 CP2 199 -3.998
44 CP2 200 -4.974
44 CP2 201 -4.974
44 CP2 202 -5.463
44 CP2 203 -5.463
44 CP2 204 -5.463
44 CP2 205 -5.951
44 CP2 206 -6.439
44 CP2 207 -7.416
44 CP2 208 -7.904
44 CP2 209 -7.904
44 CP2 210 -7.904
44 CP2 211 -7.416
44 CP2 212 -6.927
44 CP2 213 -5.951
44 CP2 214 -5.463
44 CP2 215 -5.463
44 CP2 216 -5.463
44 CP2 217 -5.951
44 CP2 218 -5.951
44 CP2 219 -4.974
44 CP2 220 -3.510
44 CP2 221 -2.045
44 CP2 222 -1.556
44 CP2 223 -2.045
44 CP2 224 -3.021
44 CP2 225 -3.998
44 CP2 226 -4.486
44 CP2 227 -4.486
44 CP2 228 -3.998
44 CP2 229 -3.510
44 CP2 230 -3.510
44 CP2 231 -4.486
44 CP2 232 -5.463
44 CP2 233 -6.439
44 CP2 234 -7.416
44 CP2 235 -7.416
44 CP2 236 -7.416
44 CP2 237 -7.416
44 CP2 238 -6.927
44 CP2 239 -5.951
44 CP2 240 -5.463
44 CP2 241 -4.486
44 CP2 242 -3.510
44 CP2 243 -3.021
44 CP2 244 -2.533
44 CP2 245 -3.510
44 CP2 246 -4.974
44 CP2 247 -6.439
44 CP2 248 -6.927
44 CP2 249 -7.904
44 CP2 250 -7.904
44 CP2 251 -8.392
44 CP2 252 -8.392
44 CP2 253 -8.881
44 CP2 254 -8.392
44 CP2 255 -7.416
# P3 chan 22
44 P3 0 -7.660
44 P3 1 -5.219
44 P3 2 -3.265
44 P3 3 -1.801
44 P3 4 0.641
44 P3 5 3.082
44 P3 6 5.524
44 P3 7 6.989
44 P3 8 6.500
44 P3 9 5.035
44 P3 10 2.594
44 P3 11 1.129
44 P3 12 -0.336
44 P3 13 -1.801
44 P3 14 -3.265
44 P3 15 -5.219
44 P3 16 -6.195
44 P3 17 -5.707
44 P3 18 -5.219
44 P3 19 -4.242
44 P3 20 -3.265
44 P3 21 -2.777
44 P3 22 -2.777
44 P3 23 -1.801
44 P3 24 -0.824
44 P3 25 0.641
44 P3 26 2.106
44 P3 27 3.571
44 P3 28 5.524
44 P3 29 6.500
44 P3 30 6.500
44 P3 31 4.059
44 P3 32 1.129
44 P3 33 -1.801
44 P3 34 -3.265
44 P3 35 -2.777
44 P3 36 -1.312
44 P3 37 -0.336
44 P3 38 -0.336
44 P3 39 -1.801
44 P3 40 -4.730
44 P3 41 -8.636
44 P3 42 -13.031
44 P3 43 -16.449
44 P3 44 -18.890
44 P3 45 -19.867
44 P3 46 -19.867
44 P3 47 -19.379
44 P3 48 -18.890
44 P3 49 -18.402
44 P3 50 -16.449
44 P3 51 -13.031
44 P3 52 -9.613
44 P3 53 -6.195
44 P3 54 -3.265
44 P3 55 -1.312
44 P3 56 0.153
44 P3 57 1.617
44 P3 58 2.594
44 P3 59 2.106
44 P3 60 0.153
44 P3 61 -3.265
44 P3 62 -6.683
44 P3 63 -9.613
44 P3 64 -10.590
44 P3 65 -10.590
44 P3 66 -10.101
44 P3 67 -10.590
44 P3 68 -11.566
44 P3 69 -12.543
44 P3 70 -13.031
44 P3 71 -12.054
44 P3 72 -11.566
44 P3 73 -11.078
44 P3 74 -11.078
44 P3 75 -10.101
44 P3 76 -8.636
44 P3 77 -6.195
44 P3 78 -4.730
44 P3 79 -4.242
44 P3 80 -5.219
44 P3 81 -6.683
44 P3 82 -9.125
44 P3 83 -11.566
44 P3 84 -14.984
44 P3 85 -18.402
44 P3 86 -20.844
44 P3 87 -21.332
44 P3 88 -20.355
44 P3 89 -18.402
44 P3 90 -17.914
44 P3 91 -17.914
44 P3 92 -18.402
44 P3 93 -17.426
44 P3 94 -16.449
44 P3 95 -14.008
44 P3 96 -12.054
44 P3 97 -11.078
44 P3 98 -10.101
44 P3 99 -9.125
44 P3 100 -7.660
44 P3 101 -5.707
44 P3 102 -5.219
44 P3 103 -5.219
44 P3 104 -5.219
44 P3 105 -4.730
44 P3 106 -3.265
44 P3 107 -3.754
44 P3 108 -5.219
44 P3 109 -9.125
44 P3 110 -13.031
44 P3 111 -14.984
44 P3 112 -15.472
44 P3 113 -14.984
44 P3 114 -15.472
44 P3 115 -16.937
44 P3 116 -18.402
44 P3 117 -18.890
44 P3 118 -17.914
44 P3 119 -15.472
44 P3 120 -13.031
44 P3 121 -11.078
44 P3 122 -9.613
44 P3 123 -8.148
44 P3 124 -6.195
44 P3 125 -4.730
44 P3 126 -4.242
44 P3 127 -4.730
44 P3 128 -6.683
44 P3 129 -9.125
44 P3 130 -11.566
44 P3 131 -13.031
44 P3 132 -13.519
44 P3 133 -13.031
44 P3 134 -12.054
44 P3 135 -12.054
44 P3 136 -12.543
44 P3 137 -13.519
44 P3 138 -13.519
44 P3 139 -13.519
44 P3 140 -14.008
44 P3 141 -14.496
44 P3 142 -14.984
44 P3 143 -14.496
44 P3 144 -11.566
44 P3 145 -7.172
44 P3 146 -3.265
44 P3 147 -2.289
44 P3 148 -3.265
44 P3 149 -4.730
44 P3 150 -4.730
44 P3 151 -2.777
44 P3 152 -0.824
44 P3 153 -0.336
44 P3 154 -2.777
44 P3 155 -6.195
44 P3 156 -9.125
44 P3 157 -9.125
44 P3 158 -7.660
44 P3 159 -6.195
44 P3 160 -7.172
44 P3 161 -9.125
44 P3 162 -11.078
44 P3 163 -11.078
44 P3 164 -9.613
44 P3 165 -7.660
44 P3 166 -6.683
44 P3 167 -7.172
44 P3 168 -8.148
44 P3 169 -9.125
44 P3 170 -8.636
44 P3 171 -7.660
44 P3 172 -7.660
44 P3 173 -8.636
44 P3 174 -10.590
44 P3 175 -12.543
44 P3 176 -14.008
44 P3 177 -14.008
44 P3 178 -13.519
44 P3 179 -13.031
44 P3 180 -11.566
44 P3 181 -10.101
44 P3 182 -8.636
44 P3 183 -6.683
44 P3 184 -5.707
44 P3 185 -5.219
44 P3 186 -5.707
44 P3 187 -7.172
44 P3 188 -8.636
44 P3 189 -10.101
44 P3 190 -11.078
44 P3 191 -12.054
44 P3 192 -13.031
44 P3 193 -13.519
44 P3 194 -13.519
44 P3 195 -12.543
44 P3 196 -10.590
44 P3 197 -7.660
44 P3 198 -5.707
44 P3 199 -6.195
44 P3 200 -8.636
44 P3 201 -12.543
44 P3 202 -14.984
44 P3 203 -14.496
44 P3 204 -12.054
44 P3 205 -9.125
44 P3 206 -8.148
44 P3 207 -9.613
44 P3 208 -12.543
44 P3 209 -14.496
44 P3 210 -14.496
44 P3 211 -11.566
44 P3 212 -8.148
44 P3 213 -5.707
44 P3 214 -4.730
44 P3 215 -5.707
44 P3 216 -6.683
44 P3 217 -7.172
44 P3 218 -7.172
44 P3 219 -6.195
44 P3 220 -5.707
44 P3 221 -6.683
44 P3 222 -8.148
44 P3 223 -9.613
44 P3 224 -10.101
44 P3 225 -10.101
44 P3 226 -9.613
44 P3 227 -9.613
44 P3 228 -10.101
44 P3 229 -10.101
44 P3 230 -9.125
44 P3 231 -8.148
44 P3 232 -7.172
44 P3 233 -6.683
44 P3 234 -7.172
44 P3 235 -8.148
44 P3 236 -9.125
44 P3 237 -9.613
44 P3 238 -10.101
44 P3 239 -10.101
44 P3 240 -11.078
44 P3 241 -12.054
44 P3 242 -12.543
44 P3 243 -13.031
44 P3 244 -14.008
44 P3 245 -15.472
44 P3 246 -17.426
44 P3 247 -19.867
44 P3 248 -21.332
44 P3 249 -21.820
44 P3 250 -21.332
44 P3 251 -20.355
44 P3 252 -18.402
44 P3 253 -16.937
44 P3 254 -14.496
44 P3 255 -12.054
# P4 chan 23
44 P4 0 -7.202
44 P4 1 -4.761
44 P4 2 -1.831
44 P4 3 0.122
44 P4 4 0.122
44 P4 5 -1.831
44 P4 6 -3.296
44 P4 7 -4.272
44 P4 8 -3.784
44 P4 9 -3.784
44 P4 10 -4.272
44 P4 11 -6.714
44 P4 12 -8.667
44 P4 13 -10.132
44 P4 14 -9.644
44 P4 15 -7.690
44 P4 16 -4.761
44 P4 17 -1.831
44 P4 18 1.099
44 P4 19 4.028
44 P4 20 6.470
44 P4 21 8.423
44 P4 22 8.911
44 P4 23 7.935
44 P4 24 5.981
44 P4 25 4.028
44 P4 26 2.563
44 P4 27 2.075
44 P4 28 2.075
44 P4 29 1.099
44 P4 30 -0.366
44 P4 31 -2.319
44 P4 32 -4.761
44 P4 33 -6.714
44 P4 34 -8.179
44 P4 35 -8.179
44 P4 36 -7.202
44 P4 37 -5.737
44 P4 38 -4.272
44 P4 39 -3.296
44 P4 40 -3.296
44 P4 41 -3.784
44 P4 42 -4.761
44 P4 43 -6.226
44 P4 44 -8.179
44 P4 45 -10.132
44 P4 46 -12.085
44 P4 47 -13.550
44 P4 48 -13.550
44 P4 49 -12.085
44 P4 50 -11.108
44 P4 51 -11.108
44 P4 52 -12.573
44 P4 53 -14.038
44 P4 54 -15.015
44 P4 55 -13.550
44 P4 56 -11.108
44 P4 57 -7.690
44 P4 58 -5.249
44 P4 59 -4.272
44 P4 60 -3.784
44 P4 61 -3.296
44 P4 62 -2.808
44 P4 63 -2.319
44 P4 64 -2.319
44 P4 65 -3.296
44 P4 66 -4.761
44 P4 67 -6.226
44 P4 68 -6.226
44 P4 69 -6.226
44 P4 70 -6.226
44 P4 71 -6.714
44 P4 72 -7.690
44 P4 73 -9.155
44 P4 74 -10.620
44 P4 75 -11.597
44 P4 76 -12.085
44 P4 77 -12.573
44 P4 78 -12.085
44 P4 79 -11.597
44 P4 80 -10.132
44 P4 81 -9.644
44 P4 82 -9.644
44 P4 83 -11.108
44 P4 84 -13.550
44 P4 85 -15.991
44 P4 86 -17.944
44 P4 87 -18.921
44 P4 88 -18.921
44 P4 89 -17.944
44 P4 90 -16.479
44 P4 91 -15.015
44 P4 92 -13.550
44 P4 93 -12.573
44 P4 94 -12.085
44 P4 95 -12.573
44 P4 96 -13.550
44 P4 97 -13.550
44 P4 98 -12.573
44 P4 99 -11.108
44 P4 100 -9.155
44 P4 101 -8.179
44 P4 102 -8.667
44 P4 103 -9.644
44 P4 104 -11.108
44 P4 105 -12.085
44 P4 106 -13.550
44 P4 107 -14.038
44 P4 108 -13.550
44 P4 109 -12.573
44 P4 110 -12.085
44 P4 111 -11.108
44 P4 112 -10.132
44 P4 113 -9.155
44 P4 114 -8.667
44 P4 115 -9.155
44 P4 116 -11.108
44 P4 117 -12.573
44 P4 118 -14.038
44 P4 119 -14.038
44 P4 120 -13.062
44 P4 121 -10.620
44 P4 122 -8.667
44 P4 123 -7.690
44 P4 124 -7.690
44 P4 125 -7.690
44 P4 126 -8.667
44 P4 127 -10.132
44 P4 128 -11.597
44 P4 129 -13.550
44 P4 130 -15.015
44 P4 131 -15.015
44 P4 132 -14.038
44 P4 133 -12.573
44 P4 134 -11.597
44 P4 135 -11.597
44 P4 136 -11.597
44 P4 137 -10.620
44 P4 138 -9.155
44 P4 139 -8.667
44 P4 140 -8.667
44 P4 141 -10.132
44 P4 142 -11.108
44 P4 143 -10.132
44 P4 144 -7.690
44 P4 145 -4.761
44 P4 146 -3.296
44 P4 147 -3.784
44 P4 148 -5.737
44 P4 149 -7.690
44 P4 150 -8.667
44 P4 151 -8.667
44 P4 152 -8.667
44 P4 153 -9.155
44 P4 154 -11.108
44 P4 155 -12.573
44 P4 156 -12.573
44 P4 157 -11.108
44 P4 158 -9.155
44 P4 159 -7.690
44 P4 160 -7.690
44 P4 161 -8.179
44 P4 162 -8.667
44 P4 163 -8.179
44 P4 164 -6.714
44 P4 165 -5.737
44 P4 166 -4.761
44 P4 167 -5.249
44 P4 168 -6.714
44 P4 169 -8.667
44 P4 170 -10.620
44 P4 171 -11.597
44 P4 172 -11.108
44 P4 173 -10.620
44 P4 174 -9.644
44 P4 175 -9.155
44 P4 176 -9.155
44 P4 177 -9.644
44 P4 178 -9.155
44 P4 179 -8.667
44 P4 180 -8.667
44 P4 181 -9.155
44 P4 182 -9.155
44 P4 183 -8.179
44 P4 184 -6.714
44 P4 185 -5.249
44 P4 186 -4.761
44 P4 187 -5.737
44 P4 188 -7.202
44 P4 189 -8.179
44 P4 190 -8.179
44 P4 191 -7.202
44 P4 192 -6.226
44 P4 193 -6.226
44 P4 194 -6.714
44 P4 195 -7.202
44 P4 196 -7.202
44 P4 197 -7.202
44 P4 198 -7.690
44 P4 199 -9.155
44 P4 200 -10.132
44 P4 201 -10.132
44 P4 202 -9.155
44 P4 203 -7.690
44 P4 204 -7.690
44 P4 205 -8.667
44 P4 206 -10.620
44 P4 207 -12.085
44 P4 208 -12.573
44 P4 209 -12.085
44 P4 210 -11.597
44 P4 211 -11.108
44 P4 212 -10.132
44 P4 213 -9.644
44 P4 214 -8.667
44 P4 215 -8.667
44 P4 216 -9.155
44 P4 217 -9.644
44 P4 218 -9.644
44 P4 219 -7.690
44 P4 220 -3.784
44 P4 221 0.122
44 P4 222 2.075
44 P4 223 2.075
44 P4 224 0.610
44 P4 225 -1.343
44 P4 226 -2.808
44 P4 227 -3.296
44 P4 228 -4.272
44 P4 229 -5.249
44 P4 230 -6.226
44 P4 231 -8.179
44 P4 232 -10.132
44 P4 233 -12.085
44 P4 234 -15.015
44 P4 235 -17.456
44 P4 236 -17.944
44 P4 237 -16.479
44 P4 238 -13.062
44 P4 239 -9.155
44 P4 240 -5.249
44 P4 241 -2.808
44 P4 242 -1.343
44 P4 243 -0.366
44 P4 244 -0.854
44 P4 245 -2.808
44 P4 246 -5.737
44 P4 247 -10.132
44 P4 248 -13.550
44 P4 249 -15.991
44 P4 250 -17.944
44 P4 251 -19.897
44 P4 252 -21.362
44 P4 253 -21.851
44 P4 254 -19.897
44 P4 255 -16.968
# PZ chan 24
44 PZ 0 -6.877
44 PZ 1 -6.877
44 PZ 2 -5.412
44 PZ 3 -4.435
44 PZ 4 -3.947
44 PZ 5 -4.435
44 PZ 6 -4.924
44 PZ 7 -5.412
44 PZ 8 -4.924
44 PZ 9 -4.924
44 PZ 10 -4.435
44 PZ 11 -3.459
44 PZ 12 -2.970
44 PZ 13 -2.482
44 PZ 14 -1.994
44 PZ 15 -1.017
44 PZ 16 -0.529
44 PZ 17 0.448
44 PZ 18 1.424
44 PZ 19 2.889
44 PZ 20 4.842
44 PZ 21 6.795
44 PZ 22 7.284
44 PZ 23 6.307
44 PZ 24 4.354
44 PZ 25 2.401
44 PZ 26 0.448
44 PZ 27 -1.017
44 PZ 28 -1.994
44 PZ 29 -2.970
44 PZ 30 -4.924
44 PZ 31 -7.365
44 PZ 32 -9.318
44 PZ 33 -9.806
44 PZ 34 -9.318
44 PZ 35 -7.853
44 PZ 36 -5.900
44 PZ 37 -3.947
44 PZ 38 -1.994
44 PZ 39 -1.017
44 PZ 40 -1.506
44 PZ 41 -2.970
44 PZ 42 -5.412
44 PZ 43 -8.341
44 PZ 44 -10.783
44 PZ 45 -12.248
44 PZ 46 -13.713
44 PZ 47 -14.689
44 PZ 48 -15.177
44 PZ 49 -14.689
44 PZ 50 -14.201
44 PZ 51 -13.224
44 PZ 52 -12.736
44 PZ 53 -12.248
44 PZ 54 -11.759
44 PZ 55 -10.783
44 PZ 56 -8.830
44 PZ 57 -6.388
44 PZ 58 -3.947
44 PZ 59 -1.994
44 PZ 60 -1.506
44 PZ 61 -1.506
44 PZ 62 -1.506
44 PZ 63 -1.506
44 PZ 64 -1.506
44 PZ 65 -1.994
44 PZ 66 -3.459
44 PZ 67 -4.435
44 PZ 68 -5.900
44 PZ 69 -7.365
44 PZ 70 -8.341
44 PZ 71 -9.318
44 PZ 72 -9.806
44 PZ 73 -9.806
44 PZ 74 -10.295
44 PZ 75 -10.295
44 PZ 76 -10.295
44 PZ 77 -10.783
44 PZ 78 -10.783
44 PZ 79 -10.295
44 PZ 80 -8.830
44 PZ 81 -7.853
44 PZ 82 -7.853
44 PZ 83 -7.853
44 PZ 84 -8.830
44 PZ 85 -10.783
44 PZ 86 -12.248
44 PZ 87 -12.736
44 PZ 88 -13.224
44 PZ 89 -13.224
44 PZ 90 -13.224
44 PZ 91 -13.224
44 PZ 92 -12.248
44 PZ 93 -11.759
44 PZ 94 -10.783
44 PZ 95 -10.783
44 PZ 96 -10.783
44 PZ 97 -10.783
44 PZ 98 -10.295
44 PZ 99 -8.830
44 PZ 100 -7.365
44 PZ 101 -5.900
44 PZ 102 -5.412
44 PZ 103 -5.412
44 PZ 104 -6.388
44 PZ 105 -6.877
44 PZ 106 -6.388
44 PZ 107 -6.388
44 PZ 108 -5.900
44 PZ 109 -6.388
44 PZ 110 -7.365
44 PZ 111 -7.853
44 PZ 112 -7.853
44 PZ 113 -7.365
44 PZ 114 -6.877
44 PZ 115 -7.853
44 PZ 116 -9.318
44 PZ 117 -11.271
44 PZ 118 -12.248
44 PZ 119 -11.759
44 PZ 120 -10.783
44 PZ 121 -9.318
44 PZ 122 -7.853
44 PZ 123 -6.388
44 PZ 124 -5.412
44 PZ 125 -3.947
44 PZ 126 -2.970
44 PZ 127 -2.482
44 PZ 128 -2.970
44 PZ 129 -4.435
44 PZ 130 -5.412
44 PZ 131 -5.900
44 PZ 132 -6.388
44 PZ 133 -6.388
44 PZ 134 -6.877
44 PZ 135 -7.365
44 PZ 136 -7.365
44 PZ 137 -6.877
44 PZ 138 -6.877
44 PZ 139 -7.365
44 PZ 140 -8.341
44 PZ 141 -9.806
44 PZ 142 -10.783
44 PZ 143 -10.295
44 PZ 144 -7.853
44 PZ 145 -4.924
44 PZ 146 -2.482
44 PZ 147 -1.506
44 PZ 148 -1.506
44 PZ 149 -1.506
44 PZ 150 -1.506
44 PZ 151 -1.017
44 PZ 152 -0.529
44 PZ 153 -0.041
44 PZ 154 -0.529
44 PZ 155 -1.506
44 PZ 156 -2.970
44 PZ 157 -3.459
44 PZ 158 -3.947
44 PZ 159 -4.435
44 PZ 160 -4.924
44 PZ 161 -5.412
44 PZ 162 -6.388
44 PZ 163 -6.877
44 PZ 164 -7.365
44 PZ 165 -6.877
44 PZ 166 -5.900
44 PZ 167 -4.924
44 PZ 168 -4.435
44 PZ 169 -5.412
44 PZ 170 -6.388
44 PZ 171 -7.365
44 PZ 172 -7.365
44 PZ 173 -6.388
44 PZ 174 -5.412
44 PZ 175 -5.412
44 PZ 176 -5.900
44 PZ 177 -6.877
44 PZ 178 -7.365
44 PZ 179 -7.853
44 PZ 180 -7.365
44 PZ 181 -6.877
44 PZ 182 -6.877
44 PZ 183 -7.365
44 PZ 184 -7.365
44 PZ 185 -7.365
44 PZ 186 -6.877
44 PZ 187 -6.388
44 PZ 188 -7.365
44 PZ 189 -7.853
44 PZ 190 -8.341
44 PZ 191 -8.830
44 PZ 192 -7.853
44 PZ 193 -6.877
44 PZ 194 -6.388
44 PZ 195 -5.900
44 PZ 196 -5.900
44 PZ 197 -5.900
44 PZ 198 -5.900
44 PZ 199 -6.388
44 PZ 200 -7.365
44 PZ 201 -8.341
44 PZ 202 -9.318
44 PZ 203 -9.806
44 PZ 204 -9.318
44 PZ 205 -9.318
44 PZ 206 -9.318
44 PZ 207 -9.318
44 PZ 208 -10.295
44 PZ 209 -11.271
44 PZ 210 -11.271
44 PZ 211 -10.783
44 PZ 212 -9.806
44 PZ 213 -8.830
44 PZ 214 -7.853
44 PZ 215 -7.853
44 PZ 216 -7.853
44 PZ 217 -8.341
44 PZ 218 -8.341
44 PZ 219 -7.365
44 PZ 220 -4.924
44 PZ 221 -2.970
44 PZ 222 -2.482
44 PZ 223 -2.970
44 PZ 224 -4.435
44 PZ 225 -5.900
44 PZ 226 -6.877
44 PZ 227 -7.365
44 PZ 228 -7.365
44 PZ 229 -7.365
44 PZ 230 -7.365
44 PZ 231 -7.853
44 PZ 232 -7.365
44 PZ 233 -7.853
44 PZ 234 -8.341
44 PZ 235 -8.830
44 PZ 236 -9.318
44 PZ 237 -9.806
44 PZ 238 -9.806
44 PZ 239 -10.295
44 PZ 240 -10.295
44 PZ 241 -9.806
44 PZ 242 -9.318
44 PZ 243 -8.341
44 PZ 244 -8.341
44 PZ 245 -9.806
44 PZ 246 -11.759
44 PZ 247 -13.713
44 PZ 248 -14.689
44 PZ 249 -15.177
44 PZ 250 -14.689
44 PZ 251 -14.201
44 PZ 252 -13.713
44 PZ 253 -14.201
44 PZ 254 -13.713
44 PZ 255 -12.736
# P8 chan 25
44 P8 0 -8.535
44 P8 1 -7.070
44 P8 2 -2.675
44 P8 3 0.743
44 P8 4 1.231
44 P8 5 -1.211
44 P8 6 -5.117
44 P8 7 -8.046
44 P8 8 -9.023
44 P8 9 -8.046
44 P8 10 -7.558
44 P8 11 -9.023
44 P8 12 -12.929
44 P8 13 -17.324
44 P8 14 -19.765
44 P8 15 -19.277
44 P8 16 -15.371
44 P8 17 -10.000
44 P8 18 -5.117
44 P8 19 -1.211
44 P8 20 1.231
44 P8 21 2.696
44 P8 22 4.161
44 P8 23 5.137
44 P8 24 5.137
44 P8 25 4.161
44 P8 26 2.696
44 P8 27 2.207
44 P8 28 2.696
44 P8 29 4.649
44 P8 30 5.625
44 P8 31 4.649
44 P8 32 2.696
44 P8 33 -0.722
44 P8 34 -2.187
44 P8 35 -2.187
44 P8 36 0.743
44 P8 37 3.184
44 P8 38 3.672
44 P8 39 2.696
44 P8 40 0.254
44 P8 41 -1.211
44 P8 42 -1.699
44 P8 43 -1.211
44 P8 44 -1.699
44 P8 45 -4.140
44 P8 46 -7.558
44 P8 47 -10.976
44 P8 48 -11.953
44 P8 49 -10.488
44 P8 50 -9.023
44 P8 51 -9.023
44 P8 52 -11.464
44 P8 53 -15.371
44 P8 54 -17.812
44 P8 55 -17.812
44 P8 56 -14.882
44 P8 57 -10.976
44 P8 58 -7.558
44 P8 59 -5.605
44 P8 60 -4.628
44 P8 61 -4.628
44 P8 62 -4.140
44 P8 63 -3.652
44 P8 64 -3.652
44 P8 65 -4.140
44 P8 66 -4.140
44 P8 67 -4.140
44 P8 68 -4.140
44 P8 69 -4.628
44 P8 70 -6.093
44 P8 71 -7.558
44 P8 72 -9.023
44 P8 73 -10.000
44 P8 74 -10.000
44 P8 75 -10.000
44 P8 76 -10.488
44 P8 77 -11.953
44 P8 78 -13.418
44 P8 79 -13.906
44 P8 80 -13.418
44 P8 81 -12.441
44 P8 82 -12.441
44 P8 83 -13.906
44 P8 84 -16.836
44 P8 85 -20.253
44 P8 86 -23.183
44 P8 87 -24.160
44 P8 88 -23.671
44 P8 89 -22.695
44 P8 90 -21.230
44 P8 91 -20.253
44 P8 92 -18.789
44 P8 93 -17.812
44 P8 94 -17.812
44 P8 95 -18.300
44 P8 96 -19.765
44 P8 97 -19.765
44 P8 98 -17.812
44 P8 99 -13.906
44 P8 100 -9.511
44 P8 101 -7.558
44 P8 102 -8.046
44 P8 103 -10.976
44 P8 104 -14.394
44 P8 105 -16.836
44 P8 106 -17.324
44 P8 107 -17.812
44 P8 108 -18.300
44 P8 109 -18.789
44 P8 110 -19.277
44 P8 111 -18.300
44 P8 112 -16.347
44 P8 113 -14.394
44 P8 114 -13.418
44 P8 115 -13.906
44 P8 116 -15.371
44 P8 117 -17.324
44 P8 118 -18.300
44 P8 119 -18.300
44 P8 120 -16.836
44 P8 121 -14.882
44 P8 122 -12.929
44 P8 123 -11.464
44 P8 124 -11.464
44 P8 125 -12.441
44 P8 126 -15.371
44 P8 127 -18.789
44 P8 128 -22.207
44 P8 129 -23.671
44 P8 130 -23.671
44 P8 131 -22.207
44 P8 132 -19.765
44 P8 133 -17.812
44 P8 134 -16.836
44 P8 135 -16.347
44 P8 136 -15.859
44 P8 137 -13.906
44 P8 138 -11.953
44 P8 139 -10.976
44 P8 140 -10.976
44 P8 141 -11.464
44 P8 142 -10.976
44 P8 143 -9.023
44 P8 144 -6.093
44 P8 145 -3.164
44 P8 146 -1.211
44 P8 147 -1.211
44 P8 148 -3.164
44 P8 149 -5.605
44 P8 150 -7.558
44 P8 151 -9.023
44 P8 152 -10.488
44 P8 153 -12.441
44 P8 154 -13.418
44 P8 155 -13.906
44 P8 156 -13.418
44 P8 157 -11.953
44 P8 158 -10.488
44 P8 159 -9.511
44 P8 160 -9.023
44 P8 161 -9.023
44 P8 162 -9.511
44 P8 163 -9.511
44 P8 164 -8.535
44 P8 165 -7.070
44 P8 166 -6.093
44 P8 167 -5.605
44 P8 168 -6.582
44 P8 169 -9.023
44 P8 170 -11.953
44 P8 171 -13.906
44 P8 172 -14.394
44 P8 173 -13.418
44 P8 174 -12.441
44 P8 175 -11.953
44 P8 176 -12.441
44 P8 177 -11.953
44 P8 178 -10.488
44 P8 179 -8.046
44 P8 180 -5.605
44 P8 181 -4.628
44 P8 182 -4.628
44 P8 183 -5.117
44 P8 184 -5.117
44 P8 185 -3.652
44 P8 186 -2.187
44 P8 187 -0.722
44 P8 188 -1.211
44 P8 189 -3.164
44 P8 190 -5.117
44 P8 191 -6.582
44 P8 192 -7.558
44 P8 193 -8.046
44 P8 194 -9.023
44 P8 195 -10.000
44 P8 196 -11.464
44 P8 197 -12.929
44 P8 198 -13.906
44 P8 199 -14.394
44 P8 200 -13.906
44 P8 201 -12.441
44 P8 202 -10.488
44 P8 203 -8.535
44 P8 204 -6.582
44 P8 205 -5.117
44 P8 206 -4.628
44 P8 207 -4.628
44 P8 208 -5.605
44 P8 209 -6.582
44 P8 210 -8.535
44 P8 211 -10.000
44 P8 212 -11.464
44 P8 213 -12.441
44 P8 214 -12.929
44 P8 215 -13.418
44 P8 216 -13.906
44 P8 217 -13.906
44 P8 218 -12.441
44 P8 219 -10.000
44 P8 220 -6.093
44 P8 221 -1.211
44 P8 222 2.696
44 P8 223 5.625
44 P8 224 6.602
44 P8 225 5.625
44 P8 226 3.184
44 P8 227 0.254
44 P8 228 -3.652
44 P8 229 -7.558
44 P8 230 -10.976
44 P8 231 -13.418
44 P8 232 -15.371
44 P8 233 -16.836
44 P8 234 -18.789
44 P8 235 -19.765
44 P8 236 -20.253
44 P8 237 -18.789
44 P8 238 -15.859
44 P8 239 -11.953
44 P8 240 -8.046
44 P8 241 -5.605
44 P8 242 -4.140
44 P8 243 -3.652
44 P8 244 -4.628
44 P8 245 -7.070
44 P8 246 -10.488
44 P8 247 -14.394
44 P8 248 -18.789
44 P8 249 -22.695
44 P8 250 -25.625
44 P8 251 -27.089
44 P8 252 -26.601
44 P8 253 -25.625
44 P8 254 -23.183
44 P8 255 -20.253
# P7 chan 26
44 P7 0 -3.042
44 P7 1 -1.577
44 P7 2 -2.065
44 P7 3 -3.530
44 P7 4 -3.042
44 P7 5 -0.112
44 P7 6 3.794
44 P7 7 6.724
44 P7 8 5.747
44 P7 9 2.818
44 P7 10 -0.600
44 P7 11 -3.042
44 P7 12 -4.018
44 P7 13 -4.995
44 P7 14 -6.948
44 P7 15 -9.389
44 P7 16 -11.831
44 P7 17 -11.831
44 P7 18 -9.878
44 P7 19 -6.948
44 P7 20 -4.506
44 P7 21 -3.530
44 P7 22 -3.530
44 P7 23 -3.530
44 P7 24 -3.042
44 P7 25 -2.065
44 P7 26 -1.577
44 P7 27 -0.112
44 P7 28 1.353
44 P7 29 3.306
44 P7 30 4.283
44 P7 31 2.818
44 P7 32 -0.600
44 P7 33 -4.995
44 P7 34 -6.948
44 P7 35 -6.460
44 P7 36 -3.530
44 P7 37 -1.577
44 P7 38 -2.065
44 P7 39 -4.506
44 P7 40 -7.924
44 P7 41 -11.342
44 P7 42 -14.760
44 P7 43 -16.713
44 P7 44 -18.178
44 P7 45 -18.667
44 P7 46 -18.667
44 P7 47 -18.178
44 P7 48 -18.178
44 P7 49 -18.667
44 P7 50 -18.178
44 P7 51 -16.225
44 P7 52 -11.831
44 P7 53 -6.460
44 P7 54 -1.088
44 P7 55 2.818
44 P7 56 5.259
44 P7 57 6.236
44 P7 58 6.724
44 P7 59 5.747
44 P7 60 2.330
44 P7 61 -2.553
44 P7 62 -7.924
44 P7 63 -12.319
44 P7 64 -14.272
44 P7 65 -13.295
44 P7 66 -11.342
44 P7 67 -9.878
44 P7 68 -9.878
44 P7 69 -11.342
44 P7 70 -13.295
44 P7 71 -14.760
44 P7 72 -15.249
44 P7 73 -14.760
44 P7 74 -13.295
44 P7 75 -10.854
44 P7 76 -8.413
44 P7 77 -6.460
44 P7 78 -5.971
44 P7 79 -6.460
44 P7 80 -8.413
44 P7 81 -10.366
44 P7 82 -13.295
44 P7 83 -15.737
44 P7 84 -19.155
44 P7 85 -23.061
44 P7 86 -25.991
44 P7 87 -27.456
44 P7 88 -26.479
44 P7 89 -25.014
44 P7 90 -23.549
44 P7 91 -23.061
44 P7 92 -23.061
44 P7 93 -22.085
44 P7 94 -20.131
44 P7 95 -17.690
44 P7 96 -16.225
44 P7 97 -15.737
44 P7 98 -15.249
44 P7 99 -14.272
44 P7 100 -12.319
44 P7 101 -10.366
44 P7 102 -8.413
44 P7 103 -7.436
44 P7 104 -6.948
44 P7 105 -6.460
44 P7 106 -6.460
44 P7 107 -7.436
44 P7 108 -10.366
44 P7 109 -14.760
44 P7 110 -18.667
44 P7 111 -20.620
44 P7 112 -21.108
44 P7 113 -19.643
44 P7 114 -19.155
44 P7 115 -20.620
44 P7 116 -22.573
44 P7 117 -23.549
44 P7 118 -22.573
44 P7 119 -20.131
44 P7 120 -17.202
44 P7 121 -14.760
44 P7 122 -13.784
44 P7 123 -13.295
44 P7 124 -13.295
44 P7 125 -12.319
44 P7 126 -11.342
44 P7 127 -9.878
44 P7 128 -9.878
44 P7 129 -11.342
44 P7 130 -14.272
44 P7 131 -17.202
44 P7 132 -18.178
44 P7 133 -17.202
44 P7 134 -15.737
44 P7 135 -14.760
44 P7 136 -15.737
44 P7 137 -16.713
44 P7 138 -16.713
44 P7 139 -15.737
44 P7 140 -13.784
44 P7 141 -13.295
44 P7 142 -14.272
44 P7 143 -14.272
44 P7 144 -12.319
44 P7 145 -8.413
44 P7 146 -4.506
44 P7 147 -3.042
44 P7 148 -4.018
44 P7 149 -5.483
44 P7 150 -5.971
44 P7 151 -4.018
44 P7 152 -1.577
44 P7 153 -1.088
44 P7 154 -4.018
44 P7 155 -8.413
44 P7 156 -10.854
44 P7 157 -9.878
44 P7 158 -6.460
44 P7 159 -3.530
44 P7 160 -3.042
44 P7 161 -5.483
44 P7 162 -8.901
44 P7 163 -10.854
44 P7 164 -9.878
44 P7 165 -6.948
44 P7 166 -4.506
44 P7 167 -4.018
44 P7 168 -5.483
44 P7 169 -7.924
44 P7 170 -8.413
44 P7 171 -8.413
44 P7 172 -7.436
44 P7 173 -8.901
44 P7 174 -11.831
44 P7 175 -15.249
44 P7 176 -17.690
44 P7 177 -17.690
44 P7 178 -16.225
44 P7 179 -13.784
44 P7 180 -11.342
44 P7 181 -9.878
44 P7 182 -8.413
44 P7 183 -6.460
44 P7 184 -4.995
44 P7 185 -3.530
44 P7 186 -3.530
44 P7 187 -4.018
44 P7 188 -5.971
44 P7 189 -7.924
44 P7 190 -10.366
44 P7 191 -12.807
44 P7 192 -16.225
44 P7 193 -18.178
44 P7 194 -19.155
44 P7 195 -19.155
44 P7 196 -16.713
44 P7 197 -13.295
44 P7 198 -10.366
44 P7 199 -9.878
44 P7 200 -11.342
44 P7 201 -14.272
44 P7 202 -14.760
44 P7 203 -12.319
44 P7 204 -7.924
44 P7 205 -3.042
44 P7 206 -2.065
44 P7 207 -5.483
44 P7 208 -11.831
44 P7 209 -17.690
44 P7 210 -19.155
44 P7 211 -16.225
44 P7 212 -10.366
44 P7 213 -5.483
44 P7 214 -4.018
44 P7 215 -5.971
44 P7 216 -9.389
44 P7 217 -12.807
44 P7 218 -14.760
44 P7 219 -14.272
44 P7 220 -12.319
44 P7 221 -10.366
44 P7 222 -9.389
44 P7 223 -8.901
44 P7 224 -8.901
44 P7 225 -9.878
44 P7 226 -10.366
44 P7 227 -10.854
44 P7 228 -11.831
44 P7 229 -12.319
44 P7 230 -12.319
44 P7 231 -11.831
44 P7 232 -11.342
44 P7 233 -10.854
44 P7 234 -11.342
44 P7 235 -12.807
44 P7 236 -15.249
44 P7 237 -17.690
44 P7 238 -19.643
44 P7 239 -20.620
44 P7 240 -20.620
44 P7 241 -19.155
44 P7 242 -17.690
44 P7 243 -16.225
44 P7 244 -16.225
44 P7 245 -17.690
44 P7 246 -21.108
44 P7 247 -24.526
44 P7 248 -26.967
44 P7 249 -27.944
44 P7 250 -27.944
44 P7 251 -26.479
44 P7 252 -24.526
44 P7 253 -23.061
44 P7 254 -20.620
44 P7 255 -17.690
# PO2 chan 27
44 PO2 0 -9.542
44 PO2 1 -8.565
44 PO2 2 -5.636
44 PO2 3 -2.706
44 PO2 4 -1.241
44 PO2 5 -2.218
44 PO2 6 -3.682
44 PO2 7 -5.147
44 PO2 8 -5.636
44 PO2 9 -6.124
44 PO2 10 -7.100
44 PO2 11 -8.565
44 PO2 12 -10.030
44 PO2 13 -10.030
44 PO2 14 -9.054
44 PO2 15 -7.100
44 PO2 16 -5.636
44 PO2 17 -3.682
44 PO2 18 -1.729
44 PO2 19 1.689
44 PO2 20 5.595
44 PO2 21 8.525
44 PO2 22 9.989
44 PO2 23 9.013
44 PO2 24 7.548
44 PO2 25 5.595
44 PO2 26 4.130
44 PO2 27 3.642
44 PO2 28 2.665
44 PO2 29 1.200
44 PO2 30 -1.729
44 PO2 31 -4.171
44 PO2 32 -6.124
44 PO2 33 -7.589
44 PO2 34 -7.589
44 PO2 35 -7.589
44 PO2 36 -6.612
44 PO2 37 -5.147
44 PO2 38 -3.682
44 PO2 39 -2.706
44 PO2 40 -2.706
44 PO2 41 -4.171
44 PO2 42 -7.100
44 PO2 43 -10.030
44 PO2 44 -12.472
44 PO2 45 -14.425
44 PO2 46 -15.889
44 PO2 47 -17.843
44 PO2 48 -18.819
44 PO2 49 -18.331
44 PO2 50 -16.866
44 PO2 51 -14.913
44 PO2 52 -14.425
44 PO2 53 -14.913
44 PO2 54 -15.889
44 PO2 55 -15.401
44 PO2 56 -12.472
44 PO2 57 -7.100
44 PO2 58 -1.241
44 PO2 59 1.689
44 PO2 60 1.689
44 PO2 61 -0.264
44 PO2 62 -3.194
44 PO2 63 -4.171
44 PO2 64 -3.682
44 PO2 65 -3.194
44 PO2 66 -3.682
44 PO2 67 -5.147
44 PO2 68 -7.100
44 PO2 69 -9.054
44 PO2 70 -10.030
44 PO2 71 -10.518
44 PO2 72 -11.007
44 PO2 73 -11.495
44 PO2 74 -11.495
44 PO2 75 -11.983
44 PO2 76 -12.960
44 PO2 77 -13.448
44 PO2 78 -13.936
44 PO2 79 -13.448
44 PO2 80 -12.472
44 PO2 81 -11.495
44 PO2 82 -11.007
44 PO2 83 -12.960
44 PO2 84 -15.889
44 PO2 85 -19.796
44 PO2 86 -22.237
44 PO2 87 -22.725
44 PO2 88 -22.237
44 PO2 89 -20.772
44 PO2 90 -19.796
44 PO2 91 -18.819
44 PO2 92 -17.354
44 PO2 93 -15.401
44 PO2 94 -13.936
44 PO2 95 -14.425
44 PO2 96 -15.401
44 PO2 97 -15.889
44 PO2 98 -14.913
44 PO2 99 -11.983
44 PO2 100 -8.077
44 PO2 101 -6.124
44 PO2 102 -6.124
44 PO2 103 -8.565
44 PO2 104 -11.495
44 PO2 105 -12.960
44 PO2 106 -13.448
44 PO2 107 -12.960
44 PO2 108 -13.936
44 PO2 109 -14.425
44 PO2 110 -14.913
44 PO2 111 -13.936
44 PO2 112 -11.495
44 PO2 113 -9.542
44 PO2 114 -9.054
44 PO2 115 -11.495
44 PO2 116 -15.401
44 PO2 117 -17.843
44 PO2 118 -17.843
44 PO2 119 -15.889
44 PO2 120 -11.983
44 PO2 121 -9.542
44 PO2 122 -9.054
44 PO2 123 -9.054
44 PO2 124 -10.030
44 PO2 125 -10.518
44 PO2 126 -11.495
44 PO2 127 -12.472
44 PO2 128 -13.448
44 PO2 129 -13.936
44 PO2 130 -13.936
44 PO2 131 -13.936
44 PO2 132 -13.936
44 PO2 133 -14.913
44 PO2 134 -16.866
44 PO2 135 -17.354
44 PO2 136 -16.378
44 PO2 137 -13.936
44 PO2 138 -11.495
44 PO2 139 -10.518
44 PO2 140 -11.007
44 PO2 141 -11.983
44 PO2 142 -11.983
44 PO2 143 -10.518
44 PO2 144 -7.589
44 PO2 145 -4.659
44 PO2 146 -3.682
44 PO2 147 -5.147
44 PO2 148 -7.589
44 PO2 149 -10.030
44 PO2 150 -11.007
44 PO2 151 -10.518
44 PO2 152 -9.054
44 PO2 153 -8.565
44 PO2 154 -9.054
44 PO2 155 -10.518
44 PO2 156 -11.983
44 PO2 157 -12.960
44 PO2 158 -12.960
44 PO2 159 -11.983
44 PO2 160 -10.030
44 PO2 161 -8.565
44 PO2 162 -7.589
44 PO2 163 -8.077
44 PO2 164 -9.054
44 PO2 165 -9.542
44 PO2 166 -8.565
44 PO2 167 -7.100
44 PO2 168 -6.124
44 PO2 169 -7.589
44 PO2 170 -11.007
44 PO2 171 -14.913
44 PO2 172 -16.378
44 PO2 173 -15.401
44 PO2 174 -13.448
44 PO2 175 -12.472
44 PO2 176 -13.448
44 PO2 177 -14.913
44 PO2 178 -15.889
44 PO2 179 -14.913
44 PO2 180 -11.983
44 PO2 181 -9.054
44 PO2 182 -7.589
44 PO2 183 -8.077
44 PO2 184 -9.054
44 PO2 185 -8.565
44 PO2 186 -7.589
44 PO2 187 -6.124
44 PO2 188 -6.124
44 PO2 189 -8.077
