# co2c0000341.rd
# 120 trials, 64 chans, 416 samples 368 post_stim samples
# 3.906000 msecs uV
# S1 obj , trial 12
# FP1 chan 0
12 FP1 0 7.721
12 FP1 1 5.768
12 FP1 2 3.815
12 FP1 3 2.350
12 FP1 4 1.862
12 FP1 5 2.350
12 FP1 6 3.326
12 FP1 7 4.791
12 FP1 8 6.744
12 FP1 9 9.186
12 FP1 10 11.627
12 FP1 11 12.604
12 FP1 12 11.627
12 FP1 13 9.186
12 FP1 14 6.256
12 FP1 15 4.791
12 FP1 16 3.815
12 FP1 17 3.326
12 FP1 18 2.350
12 FP1 19 0.885
12 FP1 20 -0.580
12 FP1 21 -2.045
12 FP1 22 -2.045
12 FP1 23 -0.580
12 FP1 24 1.373
12 FP1 25 3.326
12 FP1 26 3.326
12 FP1 27 1.373
12 FP1 28 -0.092
12 FP1 29 -1.556
12 FP1 30 -1.068
12 FP1 31 -0.092
12 FP1 32 -0.092
12 FP1 33 -1.068
12 FP1 34 -3.510
12 FP1 35 -5.951
12 FP1 36 -5.951
12 FP1 37 -3.510
12 FP1 38 -0.092
12 FP1 39 2.838
12 FP1 40 3.326
12 FP1 41 0.885
12 FP1 42 -3.510
12 FP1 43 -6.439
12 FP1 44 -7.416
12 FP1 45 -4.974
12 FP1 46 -1.068
12 FP1 47 1.862
12 FP1 48 1.862
12 FP1 49 -0.092
12 FP1 50 -3.510
12 FP1 51 -5.463
12 FP1 52 -6.439
12 FP1 53 -5.951
12 FP1 54 -4.974
12 FP1 55 -3.998
12 FP1 56 -3.998
12 FP1 57 -3.510
12 FP1 58 -3.021
12 FP1 59 -2.533
12 FP1 60 -2.045
12 FP1 61 -1.556
12 FP1 62 -2.045
12 FP1 63 -3.021
12 FP1 64 -3.510
12 FP1 65 -1.068
12 FP1 66 2.838
12 FP1 67 7.721
12 FP1 68 11.627
12 FP1 69 13.092
12 FP1 70 12.115
12 FP1 71 8.209
12 FP1 72 2.838
12 FP1 73 -2.045
12 FP1 74 -5.463
12 FP1 75 -5.463
12 FP1 76 -2.533
12 FP1 77 2.350
12 FP1 78 6.256
12 FP1 79 7.721
12 FP1 80 6.256
12 FP1 81 3.326
12 FP1 82 0.397
12 FP1 83 -0.580
12 FP1 84 1.373
12 FP1 85 4.303
12 FP1 86 8.209
12 FP1 87 10.162
12 FP1 88 10.651
12 FP1 89 8.698
12 FP1 90 5.768
12 FP1 91 2.838
12 FP1 92 0.397
12 FP1 93 -0.580
12 FP1 94 -1.556
12 FP1 95 -2.533
12 FP1 96 -3.998
12 FP1 97 -6.439
12 FP1 98 -7.904
12 FP1 99 -10.345
12 FP1 100 -11.810
12 FP1 101 -13.763
12 FP1 102 -14.740
12 FP1 103 -15.717
12 FP1 104 -15.717
12 FP1 105 -14.740
12 FP1 106 -14.252
12 FP1 107 -13.275
12 FP1 108 -12.299
12 FP1 109 -11.810
12 FP1 110 -12.299
12 FP1 111 -13.275
12 FP1 112 -14.252
12 FP1 113 -15.228
12 FP1 114 -15.228
12 FP1 115 -15.717
12 FP1 116 -15.717
12 FP1 117 -15.717
12 FP1 118 -15.228
12 FP1 119 -15.717
12 FP1 120 -17.181
12 FP1 121 -18.646
12 FP1 122 -20.111
12 FP1 123 -20.599
12 FP1 124 -20.111
12 FP1 125 -18.158
12 FP1 126 -16.205
12 FP1 127 -13.763
12 FP1 128 -11.810
12 FP1 129 -11.322
12 FP1 130 -12.299
12 FP1 131 -14.740
12 FP1 132 -17.670
12 FP1 133 -20.111
12 FP1 134 -21.576
12 FP1 135 -20.599
12 FP1 136 -18.646
12 FP1 137 -15.717
12 FP1 138 -13.275
12 FP1 139 -12.787
12 FP1 140 -12.787
12 FP1 141 -14.252
12 FP1 142 -15.228
12 FP1 143 -15.717
12 FP1 144 -16.205
12 FP1 145 -16.205
12 FP1 146 -16.205
12 FP1 147 -15.717
12 FP1 148 -15.228
12 FP1 149 -15.228
12 FP1 150 -15.228
12 FP1 151 -15.717
12 FP1 152 -16.205
12 FP1 153 -15.717
12 FP1 154 -14.252
12 FP1 155 -10.834
12 FP1 156 -7.904
12 FP1 157 -6.927
12 FP1 158 -7.904
12 FP1 159 -10.834
12 FP1 160 -13.275
12 FP1 161 -14.252
12 FP1 162 -13.275
12 FP1 163 -10.834
12 FP1 164 -8.881
12 FP1 165 -7.904
12 FP1 166 -8.392
12 FP1 167 -8.881
12 FP1 168 -8.881
12 FP1 169 -9.369
12 FP1 170 -9.857
12 FP1 171 -10.834
12 FP1 172 -10.834
12 FP1 173 -9.857
12 FP1 174 -7.416
12 FP1 175 -3.998
12 FP1 176 -0.580
12 FP1 177 2.350
12 FP1 178 4.303
12 FP1 179 5.768
12 FP1 180 7.721
12 FP1 181 8.698
12 FP1 182 9.186
12 FP1 183 9.186
12 FP1 184 7.721
12 FP1 185 6.744
12 FP1 186 6.744
12 FP1 187 7.233
12 FP1 188 8.209
12 FP1 189 8.698
12 FP1 190 8.698
12 FP1 191 8.209
12 FP1 192 7.721
12 FP1 193 7.721
12 FP1 194 7.721
12 FP1 195 7.233
12 FP1 196 6.256
12 FP1 197 6.256
12 FP1 198 8.209
12 FP1 199 11.139
12 FP1 200 14.069
12 FP1 201 15.045
12 FP1 202 14.069
12 FP1 203 11.627
12 FP1 204 9.674
12 FP1 205 9.186
12 FP1 206 10.651
12 FP1 207 13.092
12 FP1 208 15.045
12 FP1 209 16.998
12 FP1 210 17.487
12 FP1 211 16.510
12 FP1 212 15.045
12 FP1 213 12.604
12 FP1 214 10.651
12 FP1 215 10.162
12 FP1 216 10.162
12 FP1 217 11.139
12 FP1 218 11.627
12 FP1 219 11.627
12 FP1 220 10.651
12 FP1 221 9.674
12 FP1 222 10.651
12 FP1 223 13.092
12 FP1 224 16.510
12 FP1 225 18.463
12 FP1 226 18.951
12 FP1 227 16.998
12 FP1 228 14.069
12 FP1 229 11.139
12 FP1 230 9.674
12 FP1 231 9.674
12 FP1 232 10.162
12 FP1 233 10.651
12 FP1 234 10.162
12 FP1 235 8.698
12 FP1 236 7.721
12 FP1 237 8.698
12 FP1 238 11.139
12 FP1 239 14.069
12 FP1 240 15.045
12 FP1 241 13.580
12 FP1 242 10.651
12 FP1 243 6.744
12 FP1 244 3.326
12 FP1 245 1.373
12 FP1 246 0.397
12 FP1 247 0.397
12 FP1 248 0.885
12 FP1 249 1.373
12 FP1 250 2.350
12 FP1 251 3.815
12 FP1 252 4.303
12 FP1 253 5.280
12 FP1 254 4.791
12 FP1 255 3.326
# FP2 chan 1
12 FP2 0 12.817
12 FP2 1 9.399
12 FP2 2 5.493
12 FP2 3 3.052
12 FP2 4 2.563
12 FP2 5 3.052
12 FP2 6 4.517
12 FP2 7 6.470
12 FP2 8 8.911
12 FP2 9 10.864
12 FP2 10 12.817
12 FP2 11 13.306
12 FP2 12 12.817
12 FP2 13 11.353
12 FP2 14 9.888
12 FP2 15 8.911
12 FP2 16 7.446
12 FP2 17 5.981
12 FP2 18 4.028
12 FP2 19 1.587
12 FP2 20 -0.366
12 FP2 21 -1.343
12 FP2 22 -0.854
12 FP2 23 -0.366
12 FP2 24 1.099
12 FP2 25 1.587
12 FP2 26 1.587
12 FP2 27 0.122
12 FP2 28 -1.343
12 FP2 29 -2.319
12 FP2 30 -1.343
12 FP2 31 0.122
12 FP2 32 1.099
12 FP2 33 0.122
12 FP2 34 -3.296
12 FP2 35 -6.226
12 FP2 36 -7.202
12 FP2 37 -4.761
12 FP2 38 -1.343
12 FP2 39 2.563
12 FP2 40 3.540
12 FP2 41 1.099
12 FP2 42 -2.808
12 FP2 43 -5.737
12 FP2 44 -5.737
12 FP2 45 -3.296
12 FP2 46 0.122
12 FP2 47 2.075
12 FP2 48 1.587
12 FP2 49 -0.854
12 FP2 50 -2.808
12 FP2 51 -4.272
12 FP2 52 -3.784
12 FP2 53 -2.808
12 FP2 54 -1.343
12 FP2 55 -0.854
12 FP2 56 -0.366
12 FP2 57 -0.854
12 FP2 58 -1.343
12 FP2 59 -1.831
12 FP2 60 -1.831
12 FP2 61 -1.343
12 FP2 62 -1.343
12 FP2 63 -1.831
12 FP2 64 -1.831
12 FP2 65 0.122
12 FP2 66 4.028
12 FP2 67 8.911
12 FP2 68 12.817
12 FP2 69 14.282
12 FP2 70 12.817
12 FP2 71 8.423
12 FP2 72 3.540
12 FP2 73 -1.343
12 FP2 74 -3.784
12 FP2 75 -3.784
12 FP2 76 -0.366
12 FP2 77 4.028
12 FP2 78 7.446
12 FP2 79 8.423
12 FP2 80 6.958
12 FP2 81 3.540
12 FP2 82 0.610
12 FP2 83 -0.366
12 FP2 84 1.099
12 FP2 85 4.028
12 FP2 86 7.935
12 FP2 87 10.376
12 FP2 88 11.841
12 FP2 89 10.864
12 FP2 90 8.423
12 FP2 91 5.493
12 FP2 92 3.052
12 FP2 93 2.075
12 FP2 94 1.099
12 FP2 95 0.122
12 FP2 96 -0.854
12 FP2 97 -2.319
12 FP2 98 -4.272
12 FP2 99 -7.202
12 FP2 100 -9.155
12 FP2 101 -11.108
12 FP2 102 -12.573
12 FP2 103 -13.062
12 FP2 104 -13.062
12 FP2 105 -12.573
12 FP2 106 -11.597
12 FP2 107 -10.620
12 FP2 108 -10.132
12 FP2 109 -10.132
12 FP2 110 -11.108
12 FP2 111 -12.573
12 FP2 112 -14.038
12 FP2 113 -14.526
12 FP2 114 -15.503
12 FP2 115 -15.015
12 FP2 116 -14.526
12 FP2 117 -14.038
12 FP2 118 -14.038
12 FP2 119 -14.526
12 FP2 120 -15.991
12 FP2 121 -17.456
12 FP2 122 -18.921
12 FP2 123 -19.409
12 FP2 124 -18.921
12 FP2 125 -17.944
12 FP2 126 -15.991
12 FP2 127 -14.038
12 FP2 128 -12.085
12 FP2 129 -11.108
12 FP2 130 -11.108
12 FP2 131 -13.550
12 FP2 132 -16.968
12 FP2 133 -19.409
12 FP2 134 -21.362
12 FP2 135 -20.386
12 FP2 136 -18.433
12 FP2 137 -15.991
12 FP2 138 -14.526
12 FP2 139 -14.038
12 FP2 140 -14.526
12 FP2 141 -15.015
12 FP2 142 -15.503
12 FP2 143 -15.503
12 FP2 144 -15.503
12 FP2 145 -15.991
12 FP2 146 -15.991
12 FP2 147 -15.991
12 FP2 148 -15.991
12 FP2 149 -15.503
12 FP2 150 -15.503
12 FP2 151 -15.991
12 FP2 152 -15.991
12 FP2 153 -15.015
12 FP2 154 -13.062
12 FP2 155 -10.620
12 FP2 156 -8.179
12 FP2 157 -7.690
12 FP2 158 -8.667
12 FP2 159 -11.597
12 FP2 160 -13.062
12 FP2 161 -13.062
12 FP2 162 -11.108
12 FP2 163 -8.667
12 FP2 164 -7.202
12 FP2 165 -6.714
12 FP2 166 -7.690
12 FP2 167 -9.155
12 FP2 168 -10.132
12 FP2 169 -10.620
12 FP2 170 -10.620
12 FP2 171 -10.620
12 FP2 172 -10.620
12 FP2 173 -9.155
12 FP2 174 -6.714
12 FP2 175 -3.296
12 FP2 176 0.122
12 FP2 177 2.563
12 FP2 178 4.517
12 FP2 179 5.981
12 FP2 180 7.446
12 FP2 181 8.423
12 FP2 182 9.399
12 FP2 183 9.888
12 FP2 184 8.911
12 FP2 185 7.446
12 FP2 186 6.470
12 FP2 187 6.470
12 FP2 188 6.958
12 FP2 189 7.935
12 FP2 190 8.911
12 FP2 191 9.399
12 FP2 192 9.399
12 FP2 193 9.888
12 FP2 194 9.399
12 FP2 195 8.911
12 FP2 196 7.935
12 FP2 197 7.935
12 FP2 198 9.888
12 FP2 199 12.329
12 FP2 200 14.771
12 FP2 201 16.235
12 FP2 202 15.259
12 FP2 203 13.306
12 FP2 204 11.841
12 FP2 205 11.841
12 FP2 206 12.817
12 FP2 207 15.259
12 FP2 208 18.188
12 FP2 209 19.653
12 FP2 210 20.142
12 FP2 211 18.677
12 FP2 212 15.747
12 FP2 213 12.817
12 FP2 214 10.376
12 FP2 215 9.399
12 FP2 216 9.888
12 FP2 217 10.864
12 FP2 218 11.841
12 FP2 219 11.841
12 FP2 220 11.353
12 FP2 221 10.376
12 FP2 222 10.864
12 FP2 223 13.306
12 FP2 224 17.212
12 FP2 225 20.142
12 FP2 226 21.118
12 FP2 227 19.653
12 FP2 228 15.259
12 FP2 229 11.841
12 FP2 230 9.399
12 FP2 231 9.888
12 FP2 232 11.353
12 FP2 233 11.841
12 FP2 234 10.864
12 FP2 235 9.399
12 FP2 236 8.423
12 FP2 237 9.888
12 FP2 238 12.329
12 FP2 239 14.771
12 FP2 240 15.747
12 FP2 241 14.282
12 FP2 242 10.864
12 FP2 243 7.935
12 FP2 244 5.005
12 FP2 245 2.563
12 FP2 246 1.587
12 FP2 247 1.099
12 FP2 248 1.099
12 FP2 249 2.563
12 FP2 250 3.540
12 FP2 251 5.005
12 FP2 252 5.981
12 FP2 253 6.470
12 FP2 254 5.493
12 FP2 255 3.540
# F7 chan 2
12 F7 0 2.136
12 F7 1 2.625
12 F7 2 3.113
12 F7 3 3.601
12 F7 4 3.601
12 F7 5 3.601
12 F7 6 2.625
12 F7 7 2.625
12 F7 8 3.601
12 F7 9 6.531
12 F7 10 9.949
12 F7 11 12.390
12 F7 12 12.878
12 F7 13 10.925
12 F7 14 7.507
12 F7 15 4.089
12 F7 16 0.671
12 F7 17 -1.282
12 F7 18 -3.235
12 F7 19 -4.211
12 F7 20 -4.700
12 F7 21 -3.723
12 F7 22 -1.282
12 F7 23 2.136
12 F7 24 5.066
12 F7 25 6.531
12 F7 26 5.554
12 F7 27 3.601
12 F7 28 2.136
12 F7 29 1.160
12 F7 30 2.136
12 F7 31 3.113
12 F7 32 2.625
12 F7 33 1.648
12 F7 34 -0.793
12 F7 35 -2.747
12 F7 36 -2.747
12 F7 37 -1.282
12 F7 38 1.648
12 F7 39 3.113
12 F7 40 3.113
12 F7 41 0.183
12 F7 42 -4.211
12 F7 43 -7.629
12 F7 44 -8.118
12 F7 45 -5.188
12 F7 46 0.671
12 F7 47 5.554
12 F7 48 7.996
12 F7 49 7.019
12 F7 50 4.089
12 F7 51 1.160
12 F7 52 -1.282
12 F7 53 -1.770
12 F7 54 -2.258
12 F7 55 -2.258
12 F7 56 -2.747
12 F7 57 -2.747
12 F7 58 -2.258
12 F7 59 -1.770
12 F7 60 -1.770
12 F7 61 -2.258
12 F7 62 -3.723
12 F7 63 -5.676
12 F7 64 -5.188
12 F7 65 -3.235
12 F7 66 0.671
12 F7 67 5.554
12 F7 68 9.460
12 F7 69 10.925
12 F7 70 10.925
12 F7 71 8.484
12 F7 72 4.578
12 F7 73 0.671
12 F7 74 -1.770
12 F7 75 -1.770
12 F7 76 0.671
12 F7 77 4.578
12 F7 78 8.484
12 F7 79 10.437
12 F7 80 9.949
12 F7 81 8.484
12 F7 82 6.531
12 F7 83 6.042
12 F7 84 7.019
12 F7 85 8.484
12 F7 86 10.437
12 F7 87 11.414
12 F7 88 10.925
12 F7 89 8.972
12 F7 90 6.531
12 F7 91 4.089
12 F7 92 1.160
12 F7 93 -1.282
12 F7 94 -3.235
12 F7 95 -4.700
12 F7 96 -5.188
12 F7 97 -4.700
12 F7 98 -4.700
12 F7 99 -6.653
12 F7 100 -9.094
12 F7 101 -11.536
12 F7 102 -13.000
12 F7 103 -13.489
12 F7 104 -12.512
12 F7 105 -11.536
12 F7 106 -11.536
12 F7 107 -11.536
12 F7 108 -11.536
12 F7 109 -10.559
12 F7 110 -9.583
12 F7 111 -9.094
12 F7 112 -8.606
12 F7 113 -9.583
12 F7 114 -11.047
12 F7 115 -13.000
12 F7 116 -14.465
12 F7 117 -15.442
12 F7 118 -15.930
12 F7 119 -15.930
12 F7 120 -16.418
12 F7 121 -16.907
12 F7 122 -17.395
12 F7 123 -17.395
12 F7 124 -17.395
12 F7 125 -16.907
12 F7 126 -15.930
12 F7 127 -15.930
12 F7 128 -15.442
12 F7 129 -14.954
12 F7 130 -14.954
12 F7 131 -15.442
12 F7 132 -17.395
12 F7 133 -19.348
12 F7 134 -20.325
12 F7 135 -19.836
12 F7 136 -17.883
12 F7 137 -14.954
12 F7 138 -12.512
12 F7 139 -11.047
12 F7 140 -11.536
12 F7 141 -12.512
12 F7 142 -14.465
12 F7 143 -15.442
12 F7 144 -15.930
12 F7 145 -15.442
12 F7 146 -13.977
12 F7 147 -13.000
12 F7 148 -12.024
12 F7 149 -11.536
12 F7 150 -12.512
12 F7 151 -13.977
12 F7 152 -15.930
12 F7 153 -16.907
12 F7 154 -15.930
12 F7 155 -13.489
12 F7 156 -10.071
12 F7 157 -8.118
12 F7 158 -8.118
12 F7 159 -10.071
12 F7 160 -12.024
12 F7 161 -13.000
12 F7 162 -12.512
12 F7 163 -11.047
12 F7 164 -10.071
12 F7 165 -9.583
12 F7 166 -9.583
12 F7 167 -9.583
12 F7 168 -10.071
12 F7 169 -10.559
12 F7 170 -12.024
12 F7 171 -13.000
12 F7 172 -13.977
12 F7 173 -13.000
12 F7 174 -10.071
12 F7 175 -6.165
12 F7 176 -2.747
12 F7 177 0.183
12 F7 178 1.160
12 F7 179 1.648
12 F7 180 2.136
12 F7 181 3.113
12 F7 182 2.625
12 F7 183 1.160
12 F7 184 -0.305
12 F7 185 -0.793
12 F7 186 0.671
12 F7 187 3.113
12 F7 188 5.066
12 F7 189 5.066
12 F7 190 2.625
12 F7 191 -0.305
12 F7 192 -2.747
12 F7 193 -3.235
12 F7 194 -2.747
12 F7 195 -2.258
12 F7 196 -2.258
12 F7 197 -1.770
12 F7 198 -0.305
12 F7 199 2.625
12 F7 200 5.554
12 F7 201 7.019
12 F7 202 6.531
12 F7 203 4.578
12 F7 204 3.113
12 F7 205 3.113
12 F7 206 4.578
12 F7 207 6.531
12 F7 208 8.484
12 F7 209 9.460
12 F7 210 9.949
12 F7 211 10.437
12 F7 212 9.949
12 F7 213 8.484
12 F7 214 7.507
12 F7 215 7.019
12 F7 216 7.019
12 F7 217 7.507
12 F7 218 7.019
12 F7 219 5.554
12 F7 220 4.578
12 F7 221 4.578
12 F7 222 6.531
12 F7 223 9.460
12 F7 224 12.390
12 F7 225 13.367
12 F7 226 11.902
12 F7 227 8.484
12 F7 228 5.066
12 F7 229 3.113
12 F7 230 3.113
12 F7 231 4.089
12 F7 232 5.066
12 F7 233 5.554
12 F7 234 4.578
12 F7 235 3.113
12 F7 236 3.113
12 F7 237 4.578
12 F7 238 7.507
12 F7 239 10.437
12 F7 240 11.902
12 F7 241 10.437
12 F7 242 6.531
12 F7 243 2.625
12 F7 244 -0.305
12 F7 245 -0.793
12 F7 246 0.183
12 F7 247 1.648
12 F7 248 2.136
12 F7 249 1.160
12 F7 250 0.183
12 F7 251 -0.793
12 F7 252 -0.305
12 F7 253 1.648
12 F7 254 3.113
12 F7 255 3.601
# F8 chan 3
12 F8 0 9.633
12 F8 1 5.727
12 F8 2 1.333
12 F8 3 -1.109
12 F8 4 -2.085
12 F8 5 -0.621
12 F8 6 1.821
12 F8 7 3.774
12 F8 8 5.727
12 F8 9 7.192
12 F8 10 8.169
12 F8 11 9.145
12 F8 12 9.633
12 F8 13 10.122
12 F8 14 10.122
12 F8 15 8.657
12 F8 16 5.727
12 F8 17 1.333
12 F8 18 -2.574
12 F8 19 -5.503
12 F8 20 -5.503
12 F8 21 -4.038
12 F8 22 -1.597
12 F8 23 0.356
12 F8 24 0.356
12 F8 25 -1.109
12 F8 26 -3.062
12 F8 27 -4.527
12 F8 28 -4.527
12 F8 29 -3.062
12 F8 30 -0.132
12 F8 31 2.309
12 F8 32 2.309
12 F8 33 -0.132
12 F8 34 -4.527
12 F8 35 -8.921
12 F8 36 -10.874
12 F8 37 -9.410
12 F8 38 -5.992
12 F8 39 -2.574
12 F8 40 -1.109
12 F8 41 -2.574
12 F8 42 -5.015
12 F8 43 -6.480
12 F8 44 -5.503
12 F8 45 -2.085
12 F8 46 1.333
12 F8 47 3.774
12 F8 48 4.751
12 F8 49 3.774
12 F8 50 3.286
12 F8 51 3.774
12 F8 52 4.751
12 F8 53 5.239
12 F8 54 4.751
12 F8 55 3.774
12 F8 56 2.309
12 F8 57 0.356
12 F8 58 -0.621
12 F8 59 -1.597
12 F8 60 -2.574
12 F8 61 -2.574
12 F8 62 -3.550
12 F8 63 -4.038
12 F8 64 -4.038
12 F8 65 -2.085
12 F8 66 1.821
12 F8 67 6.215
12 F8 68 11.098
12 F8 69 13.051
12 F8 70 11.587
12 F8 71 7.192
12 F8 72 0.844
12 F8 73 -4.527
12 F8 74 -6.968
12 F8 75 -5.503
12 F8 76 -2.085
12 F8 77 1.333
12 F8 78 3.774
12 F8 79 4.751
12 F8 80 4.262
12 F8 81 3.286
12 F8 82 2.309
12 F8 83 2.309
12 F8 84 2.797
12 F8 85 4.262
12 F8 86 6.215
12 F8 87 8.169
12 F8 88 9.633
12 F8 89 9.633
12 F8 90 8.657
12 F8 91 7.192
12 F8 92 5.239
12 F8 93 3.774
12 F8 94 1.821
12 F8 95 0.844
12 F8 96 -0.132
12 F8 97 -1.109
12 F8 98 -2.085
12 F8 99 -4.527
12 F8 100 -7.456
12 F8 101 -10.386
12 F8 102 -12.828
12 F8 103 -13.316
12 F8 104 -12.828
12 F8 105 -11.363
12 F8 106 -10.386
12 F8 107 -10.386
12 F8 108 -10.874
12 F8 109 -11.363
12 F8 110 -12.339
12 F8 111 -13.316
12 F8 112 -14.292
12 F8 113 -15.757
12 F8 114 -16.734
12 F8 115 -17.222
12 F8 116 -16.246
12 F8 117 -15.269
12 F8 118 -15.269
12 F8 119 -15.757
12 F8 120 -18.199
12 F8 121 -20.640
12 F8 122 -22.593
12 F8 123 -23.570
12 F8 124 -23.081
12 F8 125 -21.617
12 F8 126 -20.152
12 F8 127 -18.199
12 F8 128 -16.734
12 F8 129 -15.757
12 F8 130 -15.757
12 F8 131 -16.734
12 F8 132 -19.175
12 F8 133 -21.128
12 F8 134 -22.593
12 F8 135 -22.593
12 F8 136 -21.128
12 F8 137 -19.663
12 F8 138 -18.199
12 F8 139 -17.222
12 F8 140 -16.734
12 F8 141 -16.734
12 F8 142 -17.710
12 F8 143 -18.687
12 F8 144 -19.175
12 F8 145 -19.175
12 F8 146 -18.687
12 F8 147 -18.199
12 F8 148 -17.222
12 F8 149 -17.222
12 F8 150 -16.734
12 F8 151 -15.757
12 F8 152 -14.781
12 F8 153 -12.828
12 F8 154 -11.363
12 F8 155 -9.898
12 F8 156 -9.410
12 F8 157 -9.898
12 F8 158 -10.874
12 F8 159 -11.851
12 F8 160 -12.339
12 F8 161 -10.874
12 F8 162 -8.921
12 F8 163 -6.480
12 F8 164 -5.503
12 F8 165 -5.015
12 F8 166 -5.992
12 F8 167 -6.968
12 F8 168 -7.945
12 F8 169 -8.433
12 F8 170 -8.921
12 F8 171 -8.433
12 F8 172 -8.433
12 F8 173 -6.968
12 F8 174 -5.015
12 F8 175 -2.085
12 F8 176 0.844
12 F8 177 4.262
12 F8 178 6.704
12 F8 179 8.657
12 F8 180 9.145
12 F8 181 8.657
12 F8 182 6.704
12 F8 183 5.239
12 F8 184 3.286
12 F8 185 2.797
12 F8 186 2.797
12 F8 187 3.774
12 F8 188 4.751
12 F8 189 4.751
12 F8 190 4.751
12 F8 191 3.774
12 F8 192 2.309
12 F8 193 1.333
12 F8 194 0.356
12 F8 195 -0.132
12 F8 196 -0.621
12 F8 197 -0.132
12 F8 198 1.333
12 F8 199 2.309
12 F8 200 3.286
12 F8 201 3.286
12 F8 202 1.821
12 F8 203 0.356
12 F8 204 -1.597
12 F8 205 -2.574
12 F8 206 -2.085
12 F8 207 -0.621
12 F8 208 1.821
12 F8 209 3.774
12 F8 210 4.262
12 F8 211 3.286
12 F8 212 1.333
12 F8 213 -1.109
12 F8 214 -4.038
12 F8 215 -5.503
12 F8 216 -5.992
12 F8 217 -4.527
12 F8 218 -2.574
12 F8 219 -1.109
12 F8 220 -0.132
12 F8 221 -0.132
12 F8 222 -0.132
12 F8 223 2.309
12 F8 224 5.239
12 F8 225 8.657
12 F8 226 10.610
12 F8 227 10.122
12 F8 228 6.704
12 F8 229 3.774
12 F8 230 1.821
12 F8 231 2.309
12 F8 232 4.262
12 F8 233 5.239
12 F8 234 5.239
12 F8 235 4.751
12 F8 236 4.751
12 F8 237 6.215
12 F8 238 8.657
12 F8 239 10.122
12 F8 240 9.633
12 F8 241 8.657
12 F8 242 6.704
12 F8 243 5.239
12 F8 244 4.751
12 F8 245 3.286
12 F8 246 1.333
12 F8 247 -1.597
12 F8 248 -2.574
12 F8 249 -2.085
12 F8 250 0.844
12 F8 251 3.774
12 F8 252 5.727
12 F8 253 6.215
12 F8 254 4.751
12 F8 255 3.286
# AF1 chan 4
12 AF1 0 7.609
12 AF1 1 6.144
12 AF1 2 5.168
12 AF1 3 4.191
12 AF1 4 3.703
12 AF1 5 4.191
12 AF1 6 4.679
12 AF1 7 5.656
12 AF1 8 7.121
12 AF1 9 9.074
12 AF1 10 10.539
12 AF1 11 11.027
12 AF1 12 9.562
12 AF1 13 7.121
12 AF1 14 4.679
12 AF1 15 3.703
12 AF1 16 4.191
12 AF1 17 4.191
12 AF1 18 3.215
12 AF1 19 1.261
12 AF1 20 -1.180
12 AF1 21 -3.133
12 AF1 22 -3.133
12 AF1 23 -1.180
12 AF1 24 1.750
12 AF1 25 3.215
12 AF1 26 4.191
12 AF1 27 3.215
12 AF1 28 2.726
12 AF1 29 2.238
12 AF1 30 2.726
12 AF1 31 3.215
12 AF1 32 2.726
12 AF1 33 1.261
12 AF1 34 -1.180
12 AF1 35 -3.133
12 AF1 36 -2.645
12 AF1 37 0.285
12 AF1 38 4.679
12 AF1 39 8.097
12 AF1 40 8.586
12 AF1 41 5.656
12 AF1 42 1.261
12 AF1 43 -2.645
12 AF1 44 -3.133
12 AF1 45 -0.203
12 AF1 46 3.703
12 AF1 47 6.632
12 AF1 48 6.632
12 AF1 49 4.191
12 AF1 50 0.773
12 AF1 51 -2.157
12 AF1 52 -3.133
12 AF1 53 -2.645
12 AF1 54 -1.668
12 AF1 55 -0.203
12 AF1 56 0.773
12 AF1 57 1.261
12 AF1 58 2.238
12 AF1 59 2.726
12 AF1 60 2.726
12 AF1 61 2.238
12 AF1 62 1.261
12 AF1 63 1.261
12 AF1 64 2.238
12 AF1 65 5.168
12 AF1 66 8.586
12 AF1 67 12.004
12 AF1 68 14.933
12 AF1 69 15.422
12 AF1 70 13.957
12 AF1 71 10.539
12 AF1 72 6.144
12 AF1 73 2.238
12 AF1 74 -0.203
12 AF1 75 -0.692
12 AF1 76 1.261
12 AF1 77 4.679
12 AF1 78 7.121
12 AF1 79 8.097
12 AF1 80 6.144
12 AF1 81 2.726
12 AF1 82 -0.203
12 AF1 83 -1.668
12 AF1 84 -0.692
12 AF1 85 2.726
12 AF1 86 6.144
12 AF1 87 8.097
12 AF1 88 8.097
12 AF1 89 6.144
12 AF1 90 3.215
12 AF1 91 0.773
12 AF1 92 -1.668
12 AF1 93 -3.133
12 AF1 94 -4.598
12 AF1 95 -6.063
12 AF1 96 -7.039
12 AF1 97 -8.504
12 AF1 98 -9.481
12 AF1 99 -11.434
12 AF1 100 -12.899
12 AF1 101 -14.852
12 AF1 102 -15.828
12 AF1 103 -16.317
12 AF1 104 -15.828
12 AF1 105 -13.875
12 AF1 106 -12.410
12 AF1 107 -10.457
12 AF1 108 -9.481
12 AF1 109 -8.993
12 AF1 110 -8.993
12 AF1 111 -9.481
12 AF1 112 -10.946
12 AF1 113 -11.434
12 AF1 114 -11.434
12 AF1 115 -11.434
12 AF1 116 -10.946
12 AF1 117 -10.457
12 AF1 118 -9.969
12 AF1 119 -9.969
12 AF1 120 -10.457
12 AF1 121 -10.946
12 AF1 122 -12.410
12 AF1 123 -13.387
12 AF1 124 -13.387
12 AF1 125 -12.410
12 AF1 126 -10.457
12 AF1 127 -8.016
12 AF1 128 -6.551
12 AF1 129 -6.551
12 AF1 130 -7.528
12 AF1 131 -9.969
12 AF1 132 -12.899
12 AF1 133 -15.828
12 AF1 134 -17.293
12 AF1 135 -17.293
12 AF1 136 -15.340
12 AF1 137 -12.899
12 AF1 138 -10.457
12 AF1 139 -9.481
12 AF1 140 -10.457
12 AF1 141 -11.922
12 AF1 142 -13.875
12 AF1 143 -14.364
12 AF1 144 -14.852
12 AF1 145 -14.852
12 AF1 146 -14.852
12 AF1 147 -15.340
12 AF1 148 -15.340
12 AF1 149 -15.340
12 AF1 150 -15.828
12 AF1 151 -16.317
12 AF1 152 -17.293
12 AF1 153 -16.317
12 AF1 154 -13.875
12 AF1 155 -10.457
12 AF1 156 -7.528
12 AF1 157 -7.039
12 AF1 158 -8.504
12 AF1 159 -11.922
12 AF1 160 -13.387
12 AF1 161 -13.875
12 AF1 162 -12.410
12 AF1 163 -10.946
12 AF1 164 -9.969
12 AF1 165 -9.481
12 AF1 166 -8.993
12 AF1 167 -8.993
12 AF1 168 -9.481
12 AF1 169 -9.969
12 AF1 170 -11.434
12 AF1 171 -11.922
12 AF1 172 -12.410
12 AF1 173 -10.946
12 AF1 174 -8.993
12 AF1 175 -6.063
12 AF1 176 -3.133
12 AF1 177 -0.203
12 AF1 178 2.238
12 AF1 179 4.191
12 AF1 180 6.144
12 AF1 181 7.121
12 AF1 182 7.121
12 AF1 183 6.144
12 AF1 184 5.168
12 AF1 185 4.679
12 AF1 186 4.679
12 AF1 187 4.679
12 AF1 188 5.656
12 AF1 189 5.168
12 AF1 190 5.168
12 AF1 191 5.168
12 AF1 192 5.168
12 AF1 193 5.168
12 AF1 194 4.191
12 AF1 195 2.726
12 AF1 196 1.261
12 AF1 197 1.261
12 AF1 198 3.703
12 AF1 199 7.121
12 AF1 200 11.027
12 AF1 201 12.492
12 AF1 202 12.004
12 AF1 203 10.539
12 AF1 204 8.586
12 AF1 205 8.586
12 AF1 206 10.539
12 AF1 207 12.980
12 AF1 208 14.933
12 AF1 209 15.910
12 AF1 210 16.398
12 AF1 211 15.910
12 AF1 212 14.445
12 AF1 213 12.492
12 AF1 214 11.027
12 AF1 215 10.539
12 AF1 216 11.027
12 AF1 217 12.492
12 AF1 218 12.980
12 AF1 219 12.980
12 AF1 220 12.492
12 AF1 221 12.492
12 AF1 222 14.445
12 AF1 223 16.886
12 AF1 224 19.816
12 AF1 225 21.769
12 AF1 226 21.769
12 AF1 227 19.816
12 AF1 228 17.375
12 AF1 229 14.933
12 AF1 230 13.468
12 AF1 231 13.468
12 AF1 232 13.957
12 AF1 233 13.468
12 AF1 234 12.004
12 AF1 235 10.539
12 AF1 236 10.050
12 AF1 237 11.515
12 AF1 238 13.957
12 AF1 239 16.398
12 AF1 240 17.375
12 AF1 241 15.422
12 AF1 242 12.492
12 AF1 243 8.586
12 AF1 244 5.656
12 AF1 245 3.215
12 AF1 246 1.750
12 AF1 247 1.261
12 AF1 248 1.750
12 AF1 249 2.238
12 AF1 250 3.215
12 AF1 251 4.191
12 AF1 252 4.679
12 AF1 253 5.168
12 AF1 254 4.191
12 AF1 255 3.215
# AF2 chan 5
12 AF2 0 12.044
12 AF2 1 8.626
12 AF2 2 4.720
12 AF2 3 2.767
12 AF2 4 2.767
12 AF2 5 3.743
12 AF2 6 4.720
12 AF2 7 6.673
12 AF2 8 8.626
12 AF2 9 10.579
12 AF2 10 12.044
12 AF2 11 12.044
12 AF2 12 11.068
12 AF2 13 9.603
12 AF2 14 9.115
12 AF2 15 9.115
12 AF2 16 9.115
12 AF2 17 8.138
12 AF2 18 5.697
12 AF2 19 2.279
12 AF2 20 -0.651
12 AF2 21 -2.116
12 AF2 22 -2.116
12 AF2 23 -0.163
12 AF2 24 1.790
12 AF2 25 3.255
12 AF2 26 3.255
12 AF2 27 2.279
12 AF2 28 1.302
12 AF2 29 1.302
12 AF2 30 1.790
12 AF2 31 2.279
12 AF2 32 2.279
12 AF2 33 0.814
12 AF2 34 -1.139
12 AF2 35 -2.604
12 AF2 36 -2.116
12 AF2 37 0.326
12 AF2 38 4.232
12 AF2 39 7.650
12 AF2 40 8.626
12 AF2 41 6.673
12 AF2 42 3.255
12 AF2 43 0.326
12 AF2 44 -0.163
12 AF2 45 2.279
12 AF2 46 5.697
12 AF2 47 7.650
12 AF2 48 7.161
12 AF2 49 4.720
12 AF2 50 1.302
12 AF2 51 -0.651
12 AF2 52 -0.651
12 AF2 53 0.326
12 AF2 54 2.279
12 AF2 55 3.743
12 AF2 56 4.232
12 AF2 57 4.232
12 AF2 58 3.743
12 AF2 59 3.255
12 AF2 60 2.767
12 AF2 61 2.767
12 AF2 62 2.767
12 AF2 63 3.255
12 AF2 64 4.232
12 AF2 65 6.185
12 AF2 66 9.603
12 AF2 67 13.021
12 AF2 68 15.462
12 AF2 69 15.951
12 AF2 70 14.486
12 AF2 71 11.556
12 AF2 72 8.138
12 AF2 73 4.232
12 AF2 74 1.302
12 AF2 75 0.326
12 AF2 76 1.790
12 AF2 77 4.720
12 AF2 78 7.650
12 AF2 79 8.626
12 AF2 80 7.650
12 AF2 81 3.743
12 AF2 82 0.326
12 AF2 83 -2.116
12 AF2 84 -1.139
12 AF2 85 1.790
12 AF2 86 6.185
12 AF2 87 9.115
12 AF2 88 10.579
12 AF2 89 9.603
12 AF2 90 7.161
12 AF2 91 4.232
12 AF2 92 1.790
12 AF2 93 0.814
12 AF2 94 -0.163
12 AF2 95 -0.651
12 AF2 96 -1.628
12 AF2 97 -3.092
12 AF2 98 -5.046
12 AF2 99 -6.999
12 AF2 100 -8.952
12 AF2 101 -10.417
12 AF2 102 -11.882
12 AF2 103 -12.370
12 AF2 104 -10.905
12 AF2 105 -9.928
12 AF2 106 -7.975
12 AF2 107 -6.510
12 AF2 108 -5.046
12 AF2 109 -5.046
12 AF2 110 -5.534
12 AF2 111 -6.999
12 AF2 112 -8.464
12 AF2 113 -9.928
12 AF2 114 -10.417
12 AF2 115 -9.928
12 AF2 116 -8.952
12 AF2 117 -7.487
12 AF2 118 -6.510
12 AF2 119 -6.022
12 AF2 120 -6.999
12 AF2 121 -7.975
12 AF2 122 -9.928
12 AF2 123 -10.905
12 AF2 124 -10.905
12 AF2 125 -9.440
12 AF2 126 -6.999
12 AF2 127 -4.557
12 AF2 128 -3.092
12 AF2 129 -2.604
12 AF2 130 -4.557
12 AF2 131 -6.999
12 AF2 132 -10.905
12 AF2 133 -13.346
12 AF2 134 -14.811
12 AF2 135 -14.323
12 AF2 136 -12.858
12 AF2 137 -10.905
12 AF2 138 -9.928
12 AF2 139 -9.928
12 AF2 140 -10.417
12 AF2 141 -11.393
12 AF2 142 -11.882
12 AF2 143 -11.882
12 AF2 144 -11.882
12 AF2 145 -11.882
12 AF2 146 -12.370
12 AF2 147 -12.858
12 AF2 148 -12.858
12 AF2 149 -13.346
12 AF2 150 -13.835
12 AF2 151 -15.299
12 AF2 152 -15.299
12 AF2 153 -14.323
12 AF2 154 -11.393
12 AF2 155 -7.975
12 AF2 156 -5.534
12 AF2 157 -5.534
12 AF2 158 -6.999
12 AF2 159 -9.440
12 AF2 160 -10.417
12 AF2 161 -9.928
12 AF2 162 -8.464
12 AF2 163 -6.999
12 AF2 164 -6.510
12 AF2 165 -6.510
12 AF2 166 -6.999
12 AF2 167 -7.975
12 AF2 168 -8.952
12 AF2 169 -9.928
12 AF2 170 -10.905
12 AF2 171 -11.393
12 AF2 172 -10.417
12 AF2 173 -8.952
12 AF2 174 -6.022
12 AF2 175 -3.581
12 AF2 176 -0.651
12 AF2 177 1.302
12 AF2 178 3.743
12 AF2 179 5.697
12 AF2 180 7.161
12 AF2 181 8.138
12 AF2 182 8.626
12 AF2 183 8.626
12 AF2 184 7.161
12 AF2 185 6.185
12 AF2 186 5.208
12 AF2 187 4.720
12 AF2 188 5.208
12 AF2 189 6.185
12 AF2 190 7.161
12 AF2 191 8.138
12 AF2 192 9.115
12 AF2 193 9.115
12 AF2 194 8.626
12 AF2 195 6.673
12 AF2 196 6.185
12 AF2 197 6.185
12 AF2 198 8.626
12 AF2 199 12.044
12 AF2 200 14.974
12 AF2 201 16.927
12 AF2 202 16.439
12 AF2 203 14.974
12 AF2 204 13.509
12 AF2 205 13.509
12 AF2 206 14.974
12 AF2 207 17.415
12 AF2 208 20.345
12 AF2 209 21.322
12 AF2 210 21.810
12 AF2 211 19.857
12 AF2 212 17.415
12 AF2 213 14.486
12 AF2 214 12.533
12 AF2 215 12.044
12 AF2 216 13.021
12 AF2 217 14.486
12 AF2 218 15.951
12 AF2 219 15.951
12 AF2 220 15.462
12 AF2 221 15.462
12 AF2 222 15.951
12 AF2 223 18.392
12 AF2 224 20.833
12 AF2 225 23.763
12 AF2 226 24.740
12 AF2 227 23.763
12 AF2 228 21.322
12 AF2 229 17.904
12 AF2 230 15.462
12 AF2 231 14.974
12 AF2 232 15.462
12 AF2 233 15.951
12 AF2 234 15.951
12 AF2 235 14.974
12 AF2 236 14.486
12 AF2 237 15.462
12 AF2 238 16.927
12 AF2 239 18.392
12 AF2 240 18.880
12 AF2 241 17.904
12 AF2 242 15.462
12 AF2 243 13.021
12 AF2 244 10.091
12 AF2 245 7.161
12 AF2 246 5.208
12 AF2 247 4.232
12 AF2 248 4.232
12 AF2 249 5.208
12 AF2 250 7.161
12 AF2 251 8.138
12 AF2 252 8.626
12 AF2 253 8.138
12 AF2 254 7.161
12 AF2 255 5.697
# FZ chan 6
12 FZ 0 7.395
12 FZ 1 5.931
12 FZ 2 4.954
12 FZ 3 5.442
12 FZ 4 5.931
12 FZ 5 6.907
12 FZ 6 7.395
12 FZ 7 7.395
12 FZ 8 7.395
12 FZ 9 7.884
12 FZ 10 8.372
12 FZ 11 8.372
12 FZ 12 7.395
12 FZ 13 6.907
12 FZ 14 6.419
12 FZ 15 6.907
12 FZ 16 7.395
12 FZ 17 6.907
12 FZ 18 4.954
12 FZ 19 2.024
12 FZ 20 -0.905
12 FZ 21 -2.370
12 FZ 22 -1.882
12 FZ 23 0.071
12 FZ 24 3.001
12 FZ 25 4.954
12 FZ 26 6.419
12 FZ 27 6.419
12 FZ 28 5.442
12 FZ 29 4.954
12 FZ 30 3.977
12 FZ 31 3.489
12 FZ 32 2.513
12 FZ 33 1.536
12 FZ 34 0.559
12 FZ 35 0.559
12 FZ 36 1.536
12 FZ 37 4.466
12 FZ 38 7.884
12 FZ 39 10.325
12 FZ 40 11.302
12 FZ 41 9.837
12 FZ 42 6.907
12 FZ 43 4.466
12 FZ 44 3.977
12 FZ 45 5.931
12 FZ 46 9.349
12 FZ 47 11.302
12 FZ 48 11.302
12 FZ 49 8.372
12 FZ 50 4.954
12 FZ 51 2.513
12 FZ 52 1.536
12 FZ 53 2.024
12 FZ 54 3.001
12 FZ 55 4.466
12 FZ 56 5.931
12 FZ 57 7.395
12 FZ 58 8.372
12 FZ 59 8.372
12 FZ 60 7.395
12 FZ 61 6.907
12 FZ 62 6.419
12 FZ 63 7.395
12 FZ 64 8.860
12 FZ 65 10.813
12 FZ 66 12.767
12 FZ 67 14.231
12 FZ 68 15.208
12 FZ 69 14.720
12 FZ 70 13.255
12 FZ 71 10.813
12 FZ 72 7.884
12 FZ 73 4.954
12 FZ 74 2.024
12 FZ 75 1.048
12 FZ 76 1.536
12 FZ 77 3.489
12 FZ 78 5.931
12 FZ 79 6.419
12 FZ 80 4.954
12 FZ 81 1.536
12 FZ 82 -2.370
12 FZ 83 -4.323
12 FZ 84 -3.347
12 FZ 85 -0.417
12 FZ 86 3.489
12 FZ 87 6.419
12 FZ 88 6.907
12 FZ 89 5.442
12 FZ 90 3.001
12 FZ 91 0.559
12 FZ 92 -1.394
12 FZ 93 -2.370
12 FZ 94 -3.347
12 FZ 95 -4.323
12 FZ 96 -4.812
12 FZ 97 -5.788
12 FZ 98 -6.765
12 FZ 99 -8.230
12 FZ 100 -9.694
12 FZ 101 -11.159
12 FZ 102 -12.136
12 FZ 103 -12.136
12 FZ 104 -11.159
12 FZ 105 -9.206
12 FZ 106 -6.765
12 FZ 107 -4.812
12 FZ 108 -3.347
12 FZ 109 -2.858
12 FZ 110 -3.835
12 FZ 111 -5.788
12 FZ 112 -7.741
12 FZ 113 -9.206
12 FZ 114 -9.206
12 FZ 115 -8.718
12 FZ 116 -7.253
12 FZ 117 -5.300
12 FZ 118 -4.323
12 FZ 119 -3.347
12 FZ 120 -2.858
12 FZ 121 -3.347
12 FZ 122 -4.812
12 FZ 123 -6.765
12 FZ 124 -7.741
12 FZ 125 -6.765
12 FZ 126 -4.812
12 FZ 127 -2.370
12 FZ 128 -0.905
12 FZ 129 -0.905
12 FZ 130 -2.858
12 FZ 131 -5.788
12 FZ 132 -8.718
12 FZ 133 -10.671
12 FZ 134 -12.624
12 FZ 135 -12.624
12 FZ 136 -11.648
12 FZ 137 -10.183
12 FZ 138 -9.206
12 FZ 139 -8.718
12 FZ 140 -9.694
12 FZ 141 -11.159
12 FZ 142 -12.136
12 FZ 143 -12.624
12 FZ 144 -12.136
12 FZ 145 -12.136
12 FZ 146 -11.648
12 FZ 147 -12.624
12 FZ 148 -12.624
12 FZ 149 -13.601
12 FZ 150 -14.577
12 FZ 151 -16.042
12 FZ 152 -17.019
12 FZ 153 -16.530
12 FZ 154 -13.601
12 FZ 155 -9.694
12 FZ 156 -6.765
12 FZ 157 -6.276
12 FZ 158 -8.230
12 FZ 159 -10.671
12 FZ 160 -12.624
12 FZ 161 -12.624
12 FZ 162 -11.159
12 FZ 163 -9.694
12 FZ 164 -8.718
12 FZ 165 -9.206
12 FZ 166 -9.694
12 FZ 167 -10.183
12 FZ 168 -10.671
12 FZ 169 -11.159
12 FZ 170 -12.136
12 FZ 171 -12.624
12 FZ 172 -12.136
12 FZ 173 -11.159
12 FZ 174 -9.206
12 FZ 175 -7.253
12 FZ 176 -4.812
12 FZ 177 -2.370
12 FZ 178 0.071
12 FZ 179 1.536
12 FZ 180 3.001
12 FZ 181 3.977
12 FZ 182 4.466
12 FZ 183 3.977
12 FZ 184 3.001
12 FZ 185 1.536
12 FZ 186 0.559
12 FZ 187 -0.417
12 FZ 188 -0.905
12 FZ 189 -0.417
12 FZ 190 0.559
12 FZ 191 2.024
12 FZ 192 3.001
12 FZ 193 3.001
12 FZ 194 2.024
12 FZ 195 0.071
12 FZ 196 -1.394
12 FZ 197 -0.905
12 FZ 198 2.024
12 FZ 199 6.419
12 FZ 200 10.325
12 FZ 201 12.278
12 FZ 202 11.302
12 FZ 203 9.837
12 FZ 204 8.372
12 FZ 205 8.372
12 FZ 206 10.325
12 FZ 207 12.278
12 FZ 208 14.231
12 FZ 209 15.696
12 FZ 210 15.696
12 FZ 211 14.720
12 FZ 212 12.767
12 FZ 213 10.813
12 FZ 214 9.349
12 FZ 215 9.349
12 FZ 216 10.813
12 FZ 217 12.767
12 FZ 218 14.720
12 FZ 219 14.720
12 FZ 220 14.720
12 FZ 221 14.231
12 FZ 222 15.208
12 FZ 223 17.161
12 FZ 224 19.602
12 FZ 225 21.556
12 FZ 226 22.532
12 FZ 227 21.067
12 FZ 228 19.114
12 FZ 229 16.673
12 FZ 230 15.208
12 FZ 231 14.231
12 FZ 232 14.231
12 FZ 233 13.743
12 FZ 234 13.255
12 FZ 235 13.255
12 FZ 236 13.743
12 FZ 237 14.720
12 FZ 238 15.696
12 FZ 239 16.184
12 FZ 240 16.184
12 FZ 241 15.208
12 FZ 242 13.255
12 FZ 243 10.813
12 FZ 244 7.884
12 FZ 245 4.954
12 FZ 246 2.513
12 FZ 247 2.024
12 FZ 248 3.001
12 FZ 249 4.466
12 FZ 250 5.442
12 FZ 251 6.419
12 FZ 252 6.419
12 FZ 253 6.419
12 FZ 254 5.442
12 FZ 255 4.466
# F4 chan 7
12 F4 0 10.925
12 F4 1 7.019
12 F4 2 2.625
12 F4 3 0.671
12 F4 4 0.183
12 F4 5 1.160
12 F4 6 3.113
12 F4 7 5.066
12 F4 8 6.531
12 F4 9 7.996
12 F4 10 8.484
12 F4 11 8.484
12 F4 12 8.972
12 F4 13 8.972
12 F4 14 9.460
12 F4 15 9.460
12 F4 16 8.484
12 F4 17 6.042
12 F4 18 3.113
12 F4 19 -0.305
12 F4 20 -2.747
12 F4 21 -3.235
12 F4 22 -2.258
12 F4 23 -0.793
12 F4 24 1.160
12 F4 25 1.160
12 F4 26 1.648
12 F4 27 0.671
12 F4 28 0.183
12 F4 29 0.183
12 F4 30 1.160
12 F4 31 2.136
12 F4 32 2.136
12 F4 33 1.160
12 F4 34 -0.793
12 F4 35 -2.258
12 F4 36 -1.770
12 F4 37 0.671
12 F4 38 4.578
12 F4 39 7.996
12 F4 40 8.484
12 F4 41 6.531
12 F4 42 3.601
12 F4 43 1.160
12 F4 44 1.160
12 F4 45 3.601
12 F4 46 7.019
12 F4 47 8.972
12 F4 48 8.484
12 F4 49 6.531
12 F4 50 4.089
12 F4 51 2.625
12 F4 52 3.113
12 F4 53 4.578
12 F4 54 5.554
12 F4 55 6.531
12 F4 56 6.042
12 F4 57 5.066
12 F4 58 4.089
12 F4 59 3.113
12 F4 60 2.625
12 F4 61 2.136
12 F4 62 2.625
12 F4 63 4.089
12 F4 64 5.066
12 F4 65 7.019
12 F4 66 8.972
12 F4 67 10.437
12 F4 68 11.902
12 F4 69 11.414
12 F4 70 10.925
12 F4 71 8.484
12 F4 72 5.554
12 F4 73 2.625
12 F4 74 -0.305
12 F4 75 -0.305
12 F4 76 0.671
12 F4 77 2.625
12 F4 78 4.578
12 F4 79 5.066
12 F4 80 4.089
12 F4 81 1.648
12 F4 82 -0.793
12 F4 83 -2.747
12 F4 84 -2.258
12 F4 85 -0.305
12 F4 86 3.113
12 F4 87 6.042
12 F4 88 7.507
12 F4 89 7.019
12 F4 90 5.554
12 F4 91 3.113
12 F4 92 1.648
12 F4 93 0.671
12 F4 94 0.183
12 F4 95 -0.305
12 F4 96 -1.282
12 F4 97 -2.258
12 F4 98 -3.235
12 F4 99 -4.700
12 F4 100 -6.165
12 F4 101 -8.118
12 F4 102 -9.583
12 F4 103 -9.583
12 F4 104 -8.606
12 F4 105 -7.141
12 F4 106 -5.188
12 F4 107 -4.211
12 F4 108 -3.723
12 F4 109 -3.723
12 F4 110 -4.211
12 F4 111 -5.188
12 F4 112 -6.653
12 F4 113 -8.118
12 F4 114 -8.606
12 F4 115 -8.606
12 F4 116 -7.629
12 F4 117 -6.653
12 F4 118 -5.676
12 F4 119 -5.676
12 F4 120 -6.165
12 F4 121 -8.118
12 F4 122 -10.071
12 F4 123 -11.047
12 F4 124 -10.559
12 F4 125 -9.094
12 F4 126 -6.653
12 F4 127 -4.700
12 F4 128 -3.723
12 F4 129 -3.723
12 F4 130 -5.188
12 F4 131 -7.629
12 F4 132 -11.047
12 F4 133 -13.000
12 F4 134 -13.977
12 F4 135 -13.489
12 F4 136 -12.024
12 F4 137 -11.047
12 F4 138 -10.559
12 F4 139 -10.559
12 F4 140 -11.047
12 F4 141 -11.536
12 F4 142 -11.047
12 F4 143 -10.559
12 F4 144 -10.559
12 F4 145 -10.559
12 F4 146 -10.559
12 F4 147 -11.047
12 F4 148 -11.536
12 F4 149 -12.512
12 F4 150 -13.977
12 F4 151 -14.465
12 F4 152 -13.977
12 F4 153 -12.024
12 F4 154 -9.583
12 F4 155 -7.629
12 F4 156 -6.653
12 F4 157 -7.629
12 F4 158 -9.583
12 F4 159 -10.559
12 F4 160 -10.559
12 F4 161 -9.094
12 F4 162 -7.141
12 F4 163 -6.165
12 F4 164 -6.165
12 F4 165 -6.653
12 F4 166 -7.629
12 F4 167 -8.606
12 F4 168 -9.583
12 F4 169 -11.047
12 F4 170 -12.024
12 F4 171 -12.024
12 F4 172 -11.047
12 F4 173 -9.094
12 F4 174 -6.653
12 F4 175 -4.211
12 F4 176 -2.258
12 F4 177 0.183
12 F4 178 2.136
12 F4 179 3.601
12 F4 180 5.066
12 F4 181 5.554
12 F4 182 5.554
12 F4 183 5.066
12 F4 184 3.601
12 F4 185 2.625
12 F4 186 1.648
12 F4 187 1.160
12 F4 188 1.648
12 F4 189 2.136
12 F4 190 4.578
12 F4 191 5.554
12 F4 192 6.042
12 F4 193 6.042
12 F4 194 5.066
12 F4 195 3.601
12 F4 196 3.113
12 F4 197 2.625
12 F4 198 4.089
12 F4 199 6.531
12 F4 200 8.972
12 F4 201 10.437
12 F4 202 9.949
12 F4 203 7.996
12 F4 204 6.531
12 F4 205 6.042
12 F4 206 7.507
12 F4 207 9.460
12 F4 208 12.390
12 F4 209 13.367
12 F4 210 13.367
12 F4 211 11.902
12 F4 212 8.972
12 F4 213 6.531
12 F4 214 4.578
12 F4 215 4.089
12 F4 216 5.554
12 F4 217 7.019
12 F4 218 8.972
12 F4 219 9.460
12 F4 220 8.972
12 F4 221 7.996
12 F4 222 7.996
12 F4 223 9.949
12 F4 224 12.878
12 F4 225 16.785
12 F4 226 18.250
12 F4 227 17.273
12 F4 228 14.343
12 F4 229 11.414
12 F4 230 8.972
12 F4 231 8.972
12 F4 232 9.460
12 F4 233 10.437
12 F4 234 10.437
12 F4 235 9.949
12 F4 236 10.437
12 F4 237 11.414
12 F4 238 12.878
12 F4 239 13.855
12 F4 240 13.367
12 F4 241 12.878
12 F4 242 12.390
12 F4 243 11.414
12 F4 244 9.460
12 F4 245 6.531
12 F4 246 3.601
12 F4 247 1.160
12 F4 248 1.160
12 F4 249 2.625
12 F4 250 4.089
12 F4 251 5.554
12 F4 252 6.042
12 F4 253 5.554
12 F4 254 4.089
12 F4 255 2.625
# F3 chan 8
12 F3 0 3.143
12 F3 1 4.120
12 F3 2 4.608
12 F3 3 4.608
12 F3 4 4.608
12 F3 5 3.632
12 F3 6 2.655
12 F3 7 2.167
12 F3 8 3.632
12 F3 9 5.096
12 F3 10 7.050
12 F3 11 7.538
12 F3 12 6.073
12 F3 13 4.120
12 F3 14 1.678
12 F3 15 0.214
12 F3 16 0.214
12 F3 17 0.214
12 F3 18 -0.275
12 F3 19 -1.740
12 F3 20 -2.716
12 F3 21 -3.204
12 F3 22 -2.716
12 F3 23 -0.763
12 F3 24 1.678
12 F3 25 3.632
12 F3 26 4.608
12 F3 27 4.120
12 F3 28 3.143
12 F3 29 2.655
12 F3 30 2.167
12 F3 31 2.655
12 F3 32 2.167
12 F3 33 0.702
12 F3 34 -0.763
12 F3 35 -1.740
12 F3 36 -1.251
12 F3 37 1.190
12 F3 38 5.096
12 F3 39 7.050
12 F3 40 7.050
12 F3 41 4.608
12 F3 42 0.214
12 F3 43 -2.716
12 F3 44 -3.693
12 F3 45 -0.763
12 F3 46 3.143
12 F3 47 6.561
12 F3 48 8.026
12 F3 49 6.073
12 F3 50 3.143
12 F3 51 0.214
12 F3 52 -1.251
12 F3 53 -2.228
12 F3 54 -1.740
12 F3 55 -0.763
12 F3 56 0.214
12 F3 57 1.190
12 F3 58 2.167
12 F3 59 2.167
12 F3 60 2.167
12 F3 61 1.190
12 F3 62 0.214
12 F3 63 -0.275
12 F3 64 0.702
12 F3 65 2.655
12 F3 66 5.585
12 F3 67 8.514
12 F3 68 10.956
12 F3 69 11.932
12 F3 70 10.468
12 F3 71 8.514
12 F3 72 5.096
12 F3 73 1.678
12 F3 74 -0.763
12 F3 75 -1.251
12 F3 76 0.702
12 F3 77 3.143
12 F3 78 5.585
12 F3 79 6.561
12 F3 80 6.073
12 F3 81 3.632
12 F3 82 1.678
12 F3 83 0.702
12 F3 84 1.190
12 F3 85 3.143
12 F3 86 5.096
12 F3 87 6.073
12 F3 88 5.585
12 F3 89 3.632
12 F3 90 1.190
12 F3 91 -1.251
12 F3 92 -3.204
12 F3 93 -5.157
12 F3 94 -7.111
12 F3 95 -8.087
12 F3 96 -8.575
12 F3 97 -8.575
12 F3 98 -8.575
12 F3 99 -9.552
12 F3 100 -10.529
12 F3 101 -12.482
12 F3 102 -12.970
12 F3 103 -12.482
12 F3 104 -11.017
12 F3 105 -9.064
12 F3 106 -8.087
12 F3 107 -7.111
12 F3 108 -6.622
12 F3 109 -6.622
12 F3 110 -6.134
12 F3 111 -6.134
12 F3 112 -6.134
12 F3 113 -6.622
12 F3 114 -7.599
12 F3 115 -8.087
12 F3 116 -8.575
12 F3 117 -8.575
12 F3 118 -8.575
12 F3 119 -8.087
12 F3 120 -7.599
12 F3 121 -7.111
12 F3 122 -7.599
12 F3 123 -8.087
12 F3 124 -8.575
12 F3 125 -8.087
12 F3 126 -7.111
12 F3 127 -5.646
12 F3 128 -4.669
12 F3 129 -3.693
12 F3 130 -3.693
12 F3 131 -5.646
12 F3 132 -8.087
12 F3 133 -10.529
12 F3 134 -12.482
12 F3 135 -12.970
12 F3 136 -11.505
12 F3 137 -8.575
12 F3 138 -6.134
12 F3 139 -4.669
12 F3 140 -5.157
12 F3 141 -6.622
12 F3 142 -8.087
12 F3 143 -9.064
12 F3 144 -9.552
12 F3 145 -9.552
12 F3 146 -9.552
12 F3 147 -9.552
12 F3 148 -9.552
12 F3 149 -9.552
12 F3 150 -9.552
12 F3 151 -10.040
12 F3 152 -11.017
12 F3 153 -11.017
12 F3 154 -10.040
12 F3 155 -7.599
12 F3 156 -4.669
12 F3 157 -3.693
12 F3 158 -4.669
12 F3 159 -6.622
12 F3 160 -8.575
12 F3 161 -9.552
12 F3 162 -8.575
12 F3 163 -7.599
12 F3 164 -7.111
12 F3 165 -6.622
12 F3 166 -6.134
12 F3 167 -5.646
12 F3 168 -5.157
12 F3 169 -5.157
12 F3 170 -6.134
12 F3 171 -7.599
12 F3 172 -9.064
12 F3 173 -8.575
12 F3 174 -7.111
12 F3 175 -4.669
12 F3 176 -2.228
12 F3 177 0.214
12 F3 178 2.167
12 F3 179 3.632
12 F3 180 4.608
12 F3 181 5.096
12 F3 182 4.608
12 F3 183 4.120
12 F3 184 3.143
12 F3 185 2.655
12 F3 186 3.632
12 F3 187 4.608
12 F3 188 5.096
12 F3 189 4.608
12 F3 190 3.632
12 F3 191 2.167
12 F3 192 1.190
12 F3 193 0.702
12 F3 194 0.702
12 F3 195 -0.275
12 F3 196 -0.763
12 F3 197 -0.275
12 F3 198 1.678
12 F3 199 4.608
12 F3 200 8.514
12 F3 201 10.468
12 F3 202 9.979
12 F3 203 8.026
12 F3 204 6.561
12 F3 205 6.561
12 F3 206 7.050
12 F3 207 9.979
12 F3 208 11.444
12 F3 209 12.909
12 F3 210 13.397
12 F3 211 13.397
12 F3 212 12.421
12 F3 213 11.444
12 F3 214 10.468
12 F3 215 10.468
12 F3 216 10.956
12 F3 217 11.444
12 F3 218 11.444
12 F3 219 11.444
12 F3 220 10.956
12 F3 221 10.956
12 F3 222 12.421
12 F3 223 14.862
12 F3 224 16.815
12 F3 225 17.303
12 F3 226 16.815
12 F3 227 14.374
12 F3 228 11.932
12 F3 229 10.468
12 F3 230 9.979
12 F3 231 9.491
12 F3 232 9.979
12 F3 233 9.003
12 F3 234 7.538
12 F3 235 6.561
12 F3 236 6.561
12 F3 237 8.514
12 F3 238 11.444
12 F3 239 13.885
12 F3 240 14.862
12 F3 241 13.885
12 F3 242 10.956
12 F3 243 7.538
12 F3 244 4.120
12 F3 245 2.167
12 F3 246 1.190
12 F3 247 1.190
12 F3 248 1.190
12 F3 249 1.190
12 F3 250 1.190
12 F3 251 1.190
12 F3 252 2.655
12 F3 253 3.632
12 F3 254 4.120
12 F3 255 3.632
# FC6 chan 9
12 FC6 0 8.545
12 FC6 1 5.127
12 FC6 2 1.221
12 FC6 3 -2.197
12 FC6 4 -3.662
12 FC6 5 -3.174
12 FC6 6 -1.709
12 FC6 7 0.244
12 FC6 8 1.709
12 FC6 9 2.686
12 FC6 10 3.662
12 FC6 11 4.150
12 FC6 12 5.127
12 FC6 13 5.615
12 FC6 14 5.615
12 FC6 15 5.127
12 FC6 16 3.174
12 FC6 17 0.244
12 FC6 18 -2.197
12 FC6 19 -3.662
12 FC6 20 -3.662
12 FC6 21 -2.686
12 FC6 22 -1.221
12 FC6 23 -0.732
12 FC6 24 -1.221
12 FC6 25 -2.686
12 FC6 26 -4.150
12 FC6 27 -5.615
12 FC6 28 -6.104
12 FC6 29 -5.615
12 FC6 30 -3.662
12 FC6 31 -1.709
12 FC6 32 -0.732
12 FC6 33 -1.709
12 FC6 34 -3.662
12 FC6 35 -5.127
12 FC6 36 -5.615
12 FC6 37 -3.662
12 FC6 38 -1.221
12 FC6 39 0.732
12 FC6 40 0.732
12 FC6 41 -1.709
12 FC6 42 -5.127
12 FC6 43 -6.592
12 FC6 44 -6.104
12 FC6 45 -3.662
12 FC6 46 -0.244
12 FC6 47 2.686
12 FC6 48 3.174
12 FC6 49 3.174
12 FC6 50 2.686
12 FC6 51 2.686
12 FC6 52 3.174
12 FC6 53 3.662
12 FC6 54 3.174
12 FC6 55 2.686
12 FC6 56 2.197
12 FC6 57 0.732
12 FC6 58 0.244
12 FC6 59 -0.732
12 FC6 60 -1.709
12 FC6 61 -3.174
12 FC6 62 -3.662
12 FC6 63 -3.174
12 FC6 64 -1.709
12 FC6 65 0.732
12 FC6 66 3.174
12 FC6 67 5.615
12 FC6 68 7.568
12 FC6 69 7.568
12 FC6 70 6.592
12 FC6 71 4.150
12 FC6 72 0.244
12 FC6 73 -3.174
12 FC6 74 -5.615
12 FC6 75 -5.127
12 FC6 76 -3.174
12 FC6 77 -0.732
12 FC6 78 0.732
12 FC6 79 1.221
12 FC6 80 0.732
12 FC6 81 0.244
12 FC6 82 -0.244
12 FC6 83 0.244
12 FC6 84 1.221
12 FC6 85 2.686
12 FC6 86 4.150
12 FC6 87 5.615
12 FC6 88 6.592
12 FC6 89 6.592
12 FC6 90 5.127
12 FC6 91 3.662
12 FC6 92 2.197
12 FC6 93 1.709
12 FC6 94 1.221
12 FC6 95 1.221
12 FC6 96 0.732
12 FC6 97 0.244
12 FC6 98 -1.221
12 FC6 99 -2.686
12 FC6 100 -4.639
12 FC6 101 -6.104
12 FC6 102 -7.568
12 FC6 103 -8.545
12 FC6 104 -8.545
12 FC6 105 -8.057
12 FC6 106 -7.080
12 FC6 107 -6.104
12 FC6 108 -5.127
12 FC6 109 -5.615
12 FC6 110 -6.592
12 FC6 111 -7.568
12 FC6 112 -8.545
12 FC6 113 -9.521
12 FC6 114 -9.521
12 FC6 115 -9.033
12 FC6 116 -7.568
12 FC6 117 -6.592
12 FC6 118 -6.592
12 FC6 119 -7.080
12 FC6 120 -9.033
12 FC6 121 -11.475
12 FC6 122 -13.428
12 FC6 123 -13.916
12 FC6 124 -13.428
12 FC6 125 -11.963
12 FC6 126 -10.498
12 FC6 127 -9.033
12 FC6 128 -8.057
12 FC6 129 -7.080
12 FC6 130 -7.080
12 FC6 131 -7.568
12 FC6 132 -9.033
12 FC6 133 -10.986
12 FC6 134 -12.451
12 FC6 135 -12.939
12 FC6 136 -11.963
12 FC6 137 -10.986
12 FC6 138 -10.010
12 FC6 139 -9.033
12 FC6 140 -8.057
12 FC6 141 -7.568
12 FC6 142 -7.080
12 FC6 143 -7.080
12 FC6 144 -7.568
12 FC6 145 -8.057
12 FC6 146 -8.057
12 FC6 147 -8.057
12 FC6 148 -7.568
12 FC6 149 -8.057
12 FC6 150 -8.545
12 FC6 151 -8.545
12 FC6 152 -7.568
12 FC6 153 -6.592
12 FC6 154 -5.127
12 FC6 155 -4.150
12 FC6 156 -4.150
12 FC6 157 -4.639
12 FC6 158 -5.615
12 FC6 159 -6.104
12 FC6 160 -5.615
12 FC6 161 -4.639
12 FC6 162 -3.174
12 FC6 163 -1.709
12 FC6 164 -1.221
12 FC6 165 -1.709
12 FC6 166 -2.197
12 FC6 167 -3.174
12 FC6 168 -4.639
12 FC6 169 -5.615
12 FC6 170 -5.615
12 FC6 171 -5.615
12 FC6 172 -4.639
12 FC6 173 -3.662
12 FC6 174 -2.197
12 FC6 175 -0.244
12 FC6 176 2.197
12 FC6 177 4.639
12 FC6 178 7.568
12 FC6 179 9.521
12 FC6 180 10.010
12 FC6 181 9.521
12 FC6 182 8.545
12 FC6 183 7.080
12 FC6 184 6.104
12 FC6 185 5.127
12 FC6 186 4.639
12 FC6 187 4.639
12 FC6 188 5.127
12 FC6 189 5.127
12 FC6 190 5.615
12 FC6 191 5.127
12 FC6 192 4.639
12 FC6 193 3.662
12 FC6 194 3.174
12 FC6 195 2.686
12 FC6 196 2.197
12 FC6 197 1.709
12 FC6 198 2.197
12 FC6 199 2.686
12 FC6 200 3.662
12 FC6 201 3.662
12 FC6 202 2.686
12 FC6 203 1.221
12 FC6 204 -0.732
12 FC6 205 -1.709
12 FC6 206 -0.732
12 FC6 207 0.732
12 FC6 208 2.686
12 FC6 209 3.174
12 FC6 210 3.662
12 FC6 211 2.686
12 FC6 212 1.221
12 FC6 213 -0.244
12 FC6 214 -1.709
12 FC6 215 -3.174
12 FC6 216 -3.174
12 FC6 217 -2.686
12 FC6 218 -1.221
12 FC6 219 0.244
12 FC6 220 1.221
12 FC6 221 1.709
12 FC6 222 1.709
12 FC6 223 2.686
12 FC6 224 4.639
12 FC6 225 7.080
12 FC6 226 8.057
12 FC6 227 7.080
12 FC6 228 4.639
12 FC6 229 2.197
12 FC6 230 0.244
12 FC6 231 0.732
12 FC6 232 1.709
12 FC6 233 3.174
12 FC6 234 3.662
12 FC6 235 3.662
12 FC6 236 3.662
12 FC6 237 5.127
12 FC6 238 6.104
12 FC6 239 7.080
12 FC6 240 7.568
12 FC6 241 6.592
12 FC6 242 6.592
12 FC6 243 6.592
12 FC6 244 6.104
12 FC6 245 4.639
12 FC6 246 2.197
12 FC6 247 -0.732
12 FC6 248 -2.197
12 FC6 249 -1.709
12 FC6 250 0.732
12 FC6 251 3.174
12 FC6 252 4.639
12 FC6 253 5.127
12 FC6 254 4.639
12 FC6 255 4.150
# FC5 chan 10
12 FC5 0 1.556
12 FC5 1 3.021
12 FC5 2 4.486
12 FC5 3 4.486
12 FC5 4 3.998
12 FC5 5 2.045
12 FC5 6 1.068
12 FC5 7 1.556
12 FC5 8 3.998
12 FC5 9 6.439
12 FC5 10 8.881
12 FC5 11 9.369
12 FC5 12 7.904
12 FC5 13 5.463
12 FC5 14 2.533
12 FC5 15 0.580
12 FC5 16 -0.885
12 FC5 17 -2.350
12 FC5 18 -2.838
12 FC5 19 -3.326
12 FC5 20 -2.350
12 FC5 21 0.092
12 FC5 22 2.533
12 FC5 23 4.974
12 FC5 24 6.439
12 FC5 25 6.439
12 FC5 26 5.951
12 FC5 27 4.486
12 FC5 28 3.021
12 FC5 29 2.533
12 FC5 30 2.533
12 FC5 31 3.021
12 FC5 32 2.533
12 FC5 33 1.068
12 FC5 34 -0.397
12 FC5 35 -1.862
12 FC5 36 -1.373
12 FC5 37 0.580
12 FC5 38 3.021
12 FC5 39 3.998
12 FC5 40 3.510
12 FC5 41 0.580
12 FC5 42 -2.838
12 FC5 43 -4.303
12 FC5 44 -4.791
12 FC5 45 -2.838
12 FC5 46 1.068
12 FC5 47 4.486
12 FC5 48 6.439
12 FC5 49 6.439
12 FC5 50 4.974
12 FC5 51 3.021
12 FC5 52 1.068
12 FC5 53 -0.397
12 FC5 54 -1.373
12 FC5 55 -1.862
12 FC5 56 -1.862
12 FC5 57 -1.373
12 FC5 58 -0.885
12 FC5 59 -0.397
12 FC5 60 -0.397
12 FC5 61 -0.885
12 FC5 62 -2.350
12 FC5 63 -3.326
12 FC5 64 -3.326
12 FC5 65 -2.838
12 FC5 66 -0.397
12 FC5 67 2.533
12 FC5 68 5.951
12 FC5 69 7.904
12 FC5 70 7.904
12 FC5 71 6.439
12 FC5 72 3.998
12 FC5 73 1.068
12 FC5 74 -0.397
12 FC5 75 0.092
12 FC5 76 2.533
12 FC5 77 5.951
12 FC5 78 8.392
12 FC5 79 9.857
12 FC5 80 9.857
12 FC5 81 8.881
12 FC5 82 7.904
12 FC5 83 7.416
12 FC5 84 7.416
12 FC5 85 8.392
12 FC5 86 9.369
12 FC5 87 10.345
12 FC5 88 10.345
12 FC5 89 9.369
12 FC5 90 7.904
12 FC5 91 5.463
12 FC5 92 3.021
12 FC5 93 0.092
12 FC5 94 -1.862
12 FC5 95 -2.350
12 FC5 96 -2.350
12 FC5 97 -1.862
12 FC5 98 -2.350
12 FC5 99 -3.326
12 FC5 100 -4.791
12 FC5 101 -6.256
12 FC5 102 -6.256
12 FC5 103 -5.768
12 FC5 104 -4.791
12 FC5 105 -3.815
12 FC5 106 -3.326
12 FC5 107 -3.326
12 FC5 108 -3.815
12 FC5 109 -4.303
12 FC5 110 -4.303
12 FC5 111 -3.815
12 FC5 112 -3.326
12 FC5 113 -3.815
12 FC5 114 -5.280
12 FC5 115 -7.233
12 FC5 116 -9.186
12 FC5 117 -10.651
12 FC5 118 -10.651
12 FC5 119 -10.162
12 FC5 120 -9.186
12 FC5 121 -8.209
12 FC5 122 -7.721
12 FC5 123 -7.721
12 FC5 124 -7.233
12 FC5 125 -6.744
12 FC5 126 -6.256
12 FC5 127 -6.256
12 FC5 128 -5.768
12 FC5 129 -4.791
12 FC5 130 -4.303
12 FC5 131 -4.791
12 FC5 132 -6.256
12 FC5 133 -8.209
12 FC5 134 -10.162
12 FC5 135 -10.162
12 FC5 136 -9.186
12 FC5 137 -7.233
12 FC5 138 -4.791
12 FC5 139 -3.326
12 FC5 140 -2.838
12 FC5 141 -3.326
12 FC5 142 -4.303
12 FC5 143 -5.280
12 FC5 144 -5.768
12 FC5 145 -5.768
12 FC5 146 -4.791
12 FC5 147 -3.815
12 FC5 148 -3.326
12 FC5 149 -2.838
12 FC5 150 -3.326
12 FC5 151 -4.791
12 FC5 152 -6.256
12 FC5 153 -7.721
12 FC5 154 -7.721
12 FC5 155 -6.256
12 FC5 156 -4.303
12 FC5 157 -2.350
12 FC5 158 -1.862
12 FC5 159 -2.838
12 FC5 160 -4.303
12 FC5 161 -5.280
12 FC5 162 -5.280
12 FC5 163 -3.815
12 FC5 164 -2.350
12 FC5 165 -2.350
12 FC5 166 -2.350
12 FC5 167 -2.838
12 FC5 168 -2.838
12 FC5 169 -2.838
12 FC5 170 -3.326
12 FC5 171 -3.815
12 FC5 172 -4.791
12 FC5 173 -4.791
12 FC5 174 -3.326
12 FC5 175 -1.862
12 FC5 176 0.580
12 FC5 177 1.556
12 FC5 178 1.556
12 FC5 179 1.068
12 FC5 180 1.556
12 FC5 181 2.045
12 FC5 182 2.045
12 FC5 183 1.556
12 FC5 184 0.580
12 FC5 185 0.580
12 FC5 186 2.045
12 FC5 187 3.998
12 FC5 188 4.974
12 FC5 189 4.974
12 FC5 190 2.045
12 FC5 191 -0.885
12 FC5 192 -2.838
12 FC5 193 -3.326
12 FC5 194 -2.838
12 FC5 195 -2.350
12 FC5 196 -2.350
12 FC5 197 -2.350
12 FC5 198 -1.862
12 FC5 199 -0.397
12 FC5 200 1.556
12 FC5 201 2.533
12 FC5 202 2.045
12 FC5 203 1.068
12 FC5 204 -0.397
12 FC5 205 -0.397
12 FC5 206 1.068
12 FC5 207 2.533
12 FC5 208 4.486
12 FC5 209 5.463
12 FC5 210 6.927
12 FC5 211 7.904
12 FC5 212 7.904
12 FC5 213 6.439
12 FC5 214 4.974
12 FC5 215 4.486
12 FC5 216 4.974
12 FC5 217 4.974
12 FC5 218 4.974
12 FC5 219 4.486
12 FC5 220 3.510
12 FC5 221 3.510
12 FC5 222 4.486
12 FC5 223 6.927
12 FC5 224 8.392
12 FC5 225 8.392
12 FC5 226 6.439
12 FC5 227 3.998
12 FC5 228 1.068
12 FC5 229 -0.397
12 FC5 230 -0.397
12 FC5 231 0.580
12 FC5 232 1.556
12 FC5 233 1.556
12 FC5 234 1.556
12 FC5 235 1.556
12 FC5 236 2.533
12 FC5 237 4.974
12 FC5 238 7.904
12 FC5 239 10.345
12 FC5 240 10.834
12 FC5 241 9.857
12 FC5 242 6.439
12 FC5 243 3.510
12 FC5 244 1.556
12 FC5 245 1.068
12 FC5 246 1.556
12 FC5 247 2.533
12 FC5 248 2.045
12 FC5 249 1.068
12 FC5 250 -0.397
12 FC5 251 -0.885
12 FC5 252 -0.397
12 FC5 253 2.045
12 FC5 254 3.998
12 FC5 255 4.486
# FC2 chan 11
12 FC2 0 5.920
12 FC2 1 4.456
12 FC2 2 2.502
12 FC2 3 1.526
12 FC2 4 1.526
12 FC2 5 1.038
12 FC2 6 1.526
12 FC2 7 2.014
12 FC2 8 2.991
12 FC2 9 2.991
12 FC2 10 3.479
12 FC2 11 3.967
12 FC2 12 3.967
12 FC2 13 4.944
12 FC2 14 4.944
12 FC2 15 4.456
12 FC2 16 3.479
12 FC2 17 2.502
12 FC2 18 1.038
12 FC2 19 -0.427
12 FC2 20 -1.404
12 FC2 21 -1.404
12 FC2 22 -1.404
12 FC2 23 -0.916
12 FC2 24 0.549
12 FC2 25 1.038
12 FC2 26 2.014
12 FC2 27 1.526
12 FC2 28 1.526
12 FC2 29 1.038
12 FC2 30 0.549
12 FC2 31 0.549
12 FC2 32 0.549
12 FC2 33 1.038
12 FC2 34 1.526
12 FC2 35 1.526
12 FC2 36 2.502
12 FC2 37 3.479
12 FC2 38 4.456
12 FC2 39 4.456
12 FC2 40 4.456
12 FC2 41 3.479
12 FC2 42 2.502
12 FC2 43 1.526
12 FC2 44 1.526
12 FC2 45 2.502
12 FC2 46 3.967
12 FC2 47 5.432
12 FC2 48 5.432
12 FC2 49 4.456
12 FC2 50 3.479
12 FC2 51 2.991
12 FC2 52 2.502
12 FC2 53 2.502
12 FC2 54 2.991
12 FC2 55 3.967
12 FC2 56 4.456
12 FC2 57 4.456
12 FC2 58 3.967
12 FC2 59 2.991
12 FC2 60 2.014
12 FC2 61 1.038
12 FC2 62 1.038
12 FC2 63 2.014
12 FC2 64 3.479
12 FC2 65 4.944
12 FC2 66 6.409
12 FC2 67 6.897
12 FC2 68 6.897
12 FC2 69 5.432
12 FC2 70 4.456
12 FC2 71 3.479
12 FC2 72 2.014
12 FC2 73 1.038
12 FC2 74 -0.427
12 FC2 75 -0.916
12 FC2 76 -0.427
12 FC2 77 0.549
12 FC2 78 1.526
12 FC2 79 1.526
12 FC2 80 0.549
12 FC2 81 -0.916
12 FC2 82 -2.380
12 FC2 83 -2.869
12 FC2 84 -1.892
12 FC2 85 -0.427
12 FC2 86 1.526
12 FC2 87 2.502
12 FC2 88 2.991
12 FC2 89 2.502
12 FC2 90 1.526
12 FC2 91 0.549
12 FC2 92 0.061
12 FC2 93 0.061
12 FC2 94 0.061
12 FC2 95 -0.427
12 FC2 96 -0.427
12 FC2 97 -0.916
12 FC2 98 -1.892
12 FC2 99 -2.380
12 FC2 100 -2.869
12 FC2 101 -3.357
12 FC2 102 -3.845
12 FC2 103 -4.333
12 FC2 104 -4.333
12 FC2 105 -3.357
12 FC2 106 -2.380
12 FC2 107 -0.916
12 FC2 108 0.061
12 FC2 109 0.061
12 FC2 110 -0.427
12 FC2 111 -1.892
12 FC2 112 -3.357
12 FC2 113 -3.845
12 FC2 114 -4.333
12 FC2 115 -3.845
12 FC2 116 -2.380
12 FC2 117 -1.404
12 FC2 118 -0.427
12 FC2 119 0.061
12 FC2 120 -0.427
12 FC2 121 -1.404
12 FC2 122 -2.380
12 FC2 123 -3.357
12 FC2 124 -3.845
12 FC2 125 -2.869
12 FC2 126 -1.892
12 FC2 127 -0.427
12 FC2 128 0.061
12 FC2 129 0.061
12 FC2 130 -0.916
12 FC2 131 -2.380
12 FC2 132 -3.845
12 FC2 133 -4.822
12 FC2 134 -5.310
12 FC2 135 -4.822
12 FC2 136 -4.333
12 FC2 137 -4.333
12 FC2 138 -3.845
12 FC2 139 -3.845
12 FC2 140 -4.333
12 FC2 141 -4.333
12 FC2 142 -4.333
12 FC2 143 -3.845
12 FC2 144 -3.357
12 FC2 145 -3.357
12 FC2 146 -3.357
12 FC2 147 -3.845
12 FC2 148 -4.822
12 FC2 149 -5.798
12 FC2 150 -6.287
12 FC2 151 -6.287
12 FC2 152 -5.798
12 FC2 153 -4.333
12 FC2 154 -3.357
12 FC2 155 -2.869
12 FC2 156 -2.380
12 FC2 157 -2.869
12 FC2 158 -3.357
12 FC2 159 -3.845
12 FC2 160 -3.845
12 FC2 161 -3.357
12 FC2 162 -2.869
12 FC2 163 -1.892
12 FC2 164 -1.892
12 FC2 165 -2.380
12 FC2 166 -2.869
12 FC2 167 -3.845
12 FC2 168 -4.333
12 FC2 169 -5.310
12 FC2 170 -5.798
12 FC2 171 -5.798
12 FC2 172 -5.798
12 FC2 173 -4.822
12 FC2 174 -3.845
12 FC2 175 -2.869
12 FC2 176 -0.916
12 FC2 177 0.549
12 FC2 178 2.014
12 FC2 179 2.991
12 FC2 180 2.991
12 FC2 181 2.991
12 FC2 182 2.991
12 FC2 183 2.502
12 FC2 184 2.502
12 FC2 185 2.014
12 FC2 186 1.526
12 FC2 187 0.549
12 FC2 188 0.061
12 FC2 189 0.061
12 FC2 190 1.038
12 FC2 191 2.502
12 FC2 192 2.991
12 FC2 193 3.479
12 FC2 194 2.502
12 FC2 195 1.038
12 FC2 196 0.549
12 FC2 197 1.038
12 FC2 198 2.014
12 FC2 199 3.479
12 FC2 200 4.944
12 FC2 201 5.432
12 FC2 202 4.944
12 FC2 203 3.967
12 FC2 204 2.991
12 FC2 205 2.502
12 FC2 206 2.991
12 FC2 207 3.479
12 FC2 208 4.944
12 FC2 209 5.432
12 FC2 210 5.432
12 FC2 211 4.944
12 FC2 212 3.967
12 FC2 213 2.502
12 FC2 214 1.526
12 FC2 215 1.526
12 FC2 216 2.502
12 FC2 217 3.479
12 FC2 218 4.456
12 FC2 219 4.456
12 FC2 220 3.967
12 FC2 221 3.479
12 FC2 222 3.967
12 FC2 223 4.944
12 FC2 224 5.920
12 FC2 225 7.385
12 FC2 226 7.874
12 FC2 227 7.874
12 FC2 228 6.897
12 FC2 229 5.432
12 FC2 230 4.456
12 FC2 231 3.967
12 FC2 232 3.967
12 FC2 233 4.456
12 FC2 234 4.944
12 FC2 235 5.432
12 FC2 236 5.432
12 FC2 237 5.920
12 FC2 238 5.432
12 FC2 239 5.432
12 FC2 240 5.432
12 FC2 241 5.920
12 FC2 242 6.409
12 FC2 243 6.409
12 FC2 244 5.432
12 FC2 245 3.479
12 FC2 246 1.526
12 FC2 247 0.061
12 FC2 248 -0.427
12 FC2 249 0.061
12 FC2 250 1.526
12 FC2 251 2.502
12 FC2 252 2.991
12 FC2 253 2.991
12 FC2 254 2.991
12 FC2 255 2.502
# FC1 chan 12
12 FC1 0 1.434
12 FC1 1 1.923
12 FC1 2 3.387
12 FC1 3 4.852
12 FC1 4 5.341
12 FC1 5 4.852
12 FC1 6 3.876
12 FC1 7 3.387
12 FC1 8 3.387
12 FC1 9 3.876
12 FC1 10 3.876
12 FC1 11 3.876
12 FC1 12 2.899
12 FC1 13 1.923
12 FC1 14 1.923
12 FC1 15 1.923
12 FC1 16 1.923
12 FC1 17 1.434
12 FC1 18 0.458
12 FC1 19 -1.007
12 FC1 20 -1.007
12 FC1 21 -1.007
12 FC1 22 -0.031
12 FC1 23 1.434
12 FC1 24 2.411
12 FC1 25 3.876
12 FC1 26 4.364
12 FC1 27 4.364
12 FC1 28 3.387
12 FC1 29 2.899
12 FC1 30 2.411
12 FC1 31 2.411
12 FC1 32 2.411
12 FC1 33 1.923
12 FC1 34 1.434
12 FC1 35 1.434
12 FC1 36 2.411
12 FC1 37 3.387
12 FC1 38 4.364
12 FC1 39 5.341
12 FC1 40 5.829
12 FC1 41 5.341
12 FC1 42 4.364
12 FC1 43 3.387
12 FC1 44 2.899
12 FC1 45 3.876
12 FC1 46 4.852
12 FC1 47 6.317
12 FC1 48 6.317
12 FC1 49 5.829
12 FC1 50 4.364
12 FC1 51 2.899
12 FC1 52 1.923
12 FC1 53 1.434
12 FC1 54 1.434
12 FC1 55 1.434
12 FC1 56 2.411
12 FC1 57 2.899
12 FC1 58 2.899
12 FC1 59 3.387
12 FC1 60 2.411
12 FC1 61 1.923
12 FC1 62 1.434
12 FC1 63 1.434
12 FC1 64 1.434
12 FC1 65 1.923
12 FC1 66 3.387
12 FC1 67 4.364
12 FC1 68 5.341
12 FC1 69 5.829
12 FC1 70 5.341
12 FC1 71 4.852
12 FC1 72 3.387
12 FC1 73 1.923
12 FC1 74 0.946
12 FC1 75 0.458
12 FC1 76 0.946
12 FC1 77 1.434
12 FC1 78 2.411
12 FC1 79 3.387
12 FC1 80 3.876
12 FC1 81 3.387
12 FC1 82 1.923
12 FC1 83 1.434
12 FC1 84 1.434
12 FC1 85 2.411
12 FC1 86 3.387
12 FC1 87 4.364
12 FC1 88 3.876
12 FC1 89 2.411
12 FC1 90 0.946
12 FC1 91 -0.031
12 FC1 92 -1.007
12 FC1 93 -1.984
12 FC1 94 -2.960
12 FC1 95 -3.937
12 FC1 96 -4.425
12 FC1 97 -4.425
12 FC1 98 -3.937
12 FC1 99 -4.425
12 FC1 100 -4.913
12 FC1 101 -5.890
12 FC1 102 -6.378
12 FC1 103 -5.890
12 FC1 104 -4.913
12 FC1 105 -3.448
12 FC1 106 -2.472
12 FC1 107 -2.472
12 FC1 108 -2.472
12 FC1 109 -2.472
12 FC1 110 -2.472
12 FC1 111 -2.960
12 FC1 112 -3.448
12 FC1 113 -3.937
12 FC1 114 -4.425
12 FC1 115 -4.913
12 FC1 116 -4.913
12 FC1 117 -4.913
12 FC1 118 -3.937
12 FC1 119 -3.937
12 FC1 120 -3.448
12 FC1 121 -2.960
12 FC1 122 -3.448
12 FC1 123 -3.937
12 FC1 124 -4.425
12 FC1 125 -3.937
12 FC1 126 -2.960
12 FC1 127 -1.495
12 FC1 128 -1.007
12 FC1 129 -1.007
12 FC1 130 -1.984
12 FC1 131 -2.960
12 FC1 132 -3.937
12 FC1 133 -5.402
12 FC1 134 -6.378
12 FC1 135 -6.378
12 FC1 136 -6.378
12 FC1 137 -5.402
12 FC1 138 -4.913
12 FC1 139 -4.425
12 FC1 140 -4.425
12 FC1 141 -4.913
12 FC1 142 -5.402
12 FC1 143 -5.890
12 FC1 144 -5.890
12 FC1 145 -6.378
12 FC1 146 -6.378
12 FC1 147 -6.866
12 FC1 148 -6.866
12 FC1 149 -6.378
12 FC1 150 -6.378
12 FC1 151 -6.866
12 FC1 152 -7.355
12 FC1 153 -7.843
12 FC1 154 -7.355
12 FC1 155 -5.890
12 FC1 156 -3.937
12 FC1 157 -3.937
12 FC1 158 -5.402
12 FC1 159 -6.378
12 FC1 160 -7.355
12 FC1 161 -6.866
12 FC1 162 -6.378
12 FC1 163 -5.890
12 FC1 164 -5.890
12 FC1 165 -5.890
12 FC1 166 -5.890
12 FC1 167 -5.402
12 FC1 168 -4.425
12 FC1 169 -4.425
12 FC1 170 -4.913
12 FC1 171 -5.402
12 FC1 172 -6.378
12 FC1 173 -5.890
12 FC1 174 -5.402
12 FC1 175 -4.425
12 FC1 176 -2.960
12 FC1 177 -1.984
12 FC1 178 -1.495
12 FC1 179 -1.007
12 FC1 180 -0.519
12 FC1 181 -0.519
12 FC1 182 -0.031
12 FC1 183 -0.031
12 FC1 184 -0.519
12 FC1 185 -0.519
12 FC1 186 -1.007
12 FC1 187 -1.007
12 FC1 188 -1.495
12 FC1 189 -1.495
12 FC1 190 -1.495
12 FC1 191 -1.495
12 FC1 192 -1.007
12 FC1 193 -1.495
12 FC1 194 -1.984
12 FC1 195 -2.472
12 FC1 196 -2.472
12 FC1 197 -2.472
12 FC1 198 -1.007
12 FC1 199 1.434
12 FC1 200 3.387
12 FC1 201 3.876
12 FC1 202 3.387
12 FC1 203 1.923
12 FC1 204 0.458
12 FC1 205 0.458
12 FC1 206 1.434
12 FC1 207 3.387
12 FC1 208 4.852
12 FC1 209 5.341
12 FC1 210 5.341
12 FC1 211 4.852
12 FC1 212 3.876
12 FC1 213 2.899
12 FC1 214 2.411
12 FC1 215 2.899
12 FC1 216 3.876
12 FC1 217 4.852
12 FC1 218 4.852
12 FC1 219 4.364
12 FC1 220 4.364
12 FC1 221 4.364
12 FC1 222 5.341
12 FC1 223 6.805
12 FC1 224 7.782
12 FC1 225 8.759
12 FC1 226 8.759
12 FC1 227 7.294
12 FC1 228 5.829
12 FC1 229 4.364
12 FC1 230 3.876
12 FC1 231 3.876
12 FC1 232 3.876
12 FC1 233 3.876
12 FC1 234 3.387
12 FC1 235 3.387
12 FC1 236 4.364
12 FC1 237 5.341
12 FC1 238 6.317
12 FC1 239 7.294
12 FC1 240 7.294
12 FC1 241 7.294
12 FC1 242 6.317
12 FC1 243 4.852
12 FC1 244 3.387
12 FC1 245 1.923
12 FC1 246 0.458
12 FC1 247 0.458
12 FC1 248 0.458
12 FC1 249 0.946
12 FC1 250 0.946
12 FC1 251 0.946
12 FC1 252 0.946
12 FC1 253 1.434
12 FC1 254 1.434
12 FC1 255 1.434
# T8 chan 13
12 T8 0 9.115
12 T8 1 7.161
12 T8 2 3.255
12 T8 3 -0.163
12 T8 4 -3.092
12 T8 5 -3.581
12 T8 6 -3.092
12 T8 7 -2.116
12 T8 8 -1.139
12 T8 9 -0.651
12 T8 10 0.326
12 T8 11 1.302
12 T8 12 3.255
12 T8 13 4.720
12 T8 14 5.208
12 T8 15 4.232
12 T8 16 1.790
12 T8 17 -0.651
12 T8 18 -3.581
12 T8 19 -4.557
12 T8 20 -4.069
12 T8 21 -3.092
12 T8 22 -1.628
12 T8 23 -1.139
12 T8 24 -1.139
12 T8 25 -3.092
12 T8 26 -5.534
12 T8 27 -7.975
12 T8 28 -9.928
12 T8 29 -9.440
12 T8 30 -7.487
12 T8 31 -5.534
12 T8 32 -4.069
12 T8 33 -4.557
12 T8 34 -6.510
12 T8 35 -8.952
12 T8 36 -9.928
12 T8 37 -8.952
12 T8 38 -6.510
12 T8 39 -5.534
12 T8 40 -6.510
12 T8 41 -9.440
12 T8 42 -12.370
12 T8 43 -13.835
12 T8 44 -12.858
12 T8 45 -9.928
12 T8 46 -6.022
12 T8 47 -3.092
12 T8 48 -0.651
12 T8 49 1.302
12 T8 50 2.767
12 T8 51 3.743
12 T8 52 3.255
12 T8 53 2.279
12 T8 54 0.326
12 T8 55 -1.628
12 T8 56 -2.116
12 T8 57 -2.604
12 T8 58 -2.604
12 T8 59 -3.581
12 T8 60 -4.557
12 T8 61 -5.534
12 T8 62 -6.022
12 T8 63 -6.022
12 T8 64 -5.046
12 T8 65 -3.092
12 T8 66 -0.163
12 T8 67 3.255
12 T8 68 6.185
12 T8 69 8.138
12 T8 70 6.673
12 T8 71 2.279
12 T8 72 -3.581
12 T8 73 -7.975
12 T8 74 -9.928
12 T8 75 -8.464
12 T8 76 -5.046
12 T8 77 -2.116
12 T8 78 -0.163
12 T8 79 0.814
12 T8 80 1.302
12 T8 81 1.790
12 T8 82 2.767
12 T8 83 4.232
12 T8 84 5.697
12 T8 85 7.161
12 T8 86 8.138
12 T8 87 8.626
12 T8 88 9.115
12 T8 89 8.626
12 T8 90 7.161
12 T8 91 5.697
12 T8 92 4.720
12 T8 93 4.232
12 T8 94 4.720
12 T8 95 5.208
12 T8 96 5.208
12 T8 97 4.232
12 T8 98 2.767
12 T8 99 0.326
12 T8 100 -2.116
12 T8 101 -4.069
12 T8 102 -6.510
12 T8 103 -7.487
12 T8 104 -7.975
12 T8 105 -7.487
12 T8 106 -6.999
12 T8 107 -6.510
12 T8 108 -6.999
12 T8 109 -7.975
12 T8 110 -8.952
12 T8 111 -9.440
12 T8 112 -9.440
12 T8 113 -9.440
12 T8 114 -10.417
12 T8 115 -10.905
12 T8 116 -10.905
12 T8 117 -10.417
12 T8 118 -9.928
12 T8 119 -10.417
12 T8 120 -11.882
12 T8 121 -14.811
12 T8 122 -17.253
12 T8 123 -18.229
12 T8 124 -17.741
12 T8 125 -16.764
12 T8 126 -15.788
12 T8 127 -15.299
12 T8 128 -14.811
12 T8 129 -12.858
12 T8 130 -10.905
12 T8 131 -9.440
12 T8 132 -9.928
12 T8 133 -11.393
12 T8 134 -13.835
12 T8 135 -15.299
12 T8 136 -15.299
12 T8 137 -14.323
12 T8 138 -12.370
12 T8 139 -10.905
12 T8 140 -9.928
12 T8 141 -9.440
12 T8 142 -8.952
12 T8 143 -8.464
12 T8 144 -7.975
12 T8 145 -7.975
12 T8 146 -8.464
12 T8 147 -7.975
12 T8 148 -6.999
12 T8 149 -6.022
12 T8 150 -5.534
12 T8 151 -5.046
12 T8 152 -5.534
12 T8 153 -5.534
12 T8 154 -5.534
12 T8 155 -5.046
12 T8 156 -4.557
12 T8 157 -5.046
12 T8 158 -6.022
12 T8 159 -6.999
12 T8 160 -6.999
12 T8 161 -6.510
12 T8 162 -5.046
12 T8 163 -3.581
12 T8 164 -2.116
12 T8 165 -1.139
12 T8 166 -1.139
12 T8 167 -2.116
12 T8 168 -3.092
12 T8 169 -4.557
12 T8 170 -5.046
12 T8 171 -4.069
12 T8 172 -3.092
12 T8 173 -2.116
12 T8 174 -0.163
12 T8 175 1.302
12 T8 176 3.743
12 T8 177 5.697
12 T8 178 7.650
12 T8 179 8.626
12 T8 180 8.138
12 T8 181 7.650
12 T8 182 6.673
12 T8 183 5.208
12 T8 184 3.743
12 T8 185 2.279
12 T8 186 1.790
12 T8 187 1.790
12 T8 188 2.767
12 T8 189 3.255
12 T8 190 2.279
12 T8 191 0.814
12 T8 192 -1.628
12 T8 193 -4.069
12 T8 194 -4.557
12 T8 195 -4.557
12 T8 196 -4.069
12 T8 197 -4.557
12 T8 198 -4.557
12 T8 199 -5.046
12 T8 200 -5.046
12 T8 201 -5.534
12 T8 202 -6.510
12 T8 203 -8.464
12 T8 204 -10.417
12 T8 205 -11.393
12 T8 206 -10.417
12 T8 207 -8.952
12 T8 208 -6.999
12 T8 209 -6.022
12 T8 210 -5.046
12 T8 211 -5.046
12 T8 212 -6.022
12 T8 213 -6.999
12 T8 214 -7.975
12 T8 215 -9.928
12 T8 216 -10.905
12 T8 217 -11.393
12 T8 218 -9.928
12 T8 219 -7.975
12 T8 220 -6.022
12 T8 221 -4.557
12 T8 222 -3.092
12 T8 223 -1.628
12 T8 224 -0.163
12 T8 225 0.326
12 T8 226 -0.163
12 T8 227 -2.604
12 T8 228 -5.534
12 T8 229 -7.975
12 T8 230 -7.975
12 T8 231 -6.022
12 T8 232 -2.604
12 T8 233 -0.163
12 T8 234 0.326
12 T8 235 -0.163
12 T8 236 -1.139
12 T8 237 -0.651
12 T8 238 0.814
12 T8 239 2.279
12 T8 240 2.767
12 T8 241 2.279
12 T8 242 1.790
12 T8 243 2.279
12 T8 244 3.255
12 T8 245 3.255
12 T8 246 2.279
12 T8 247 0.326
12 T8 248 -1.139
12 T8 249 -1.139
12 T8 250 1.302
12 T8 251 4.232
12 T8 252 6.185
12 T8 253 6.673
12 T8 254 6.185
12 T8 255 5.697
# T7 chan 14
12 T7 0 2.380
12 T7 1 1.892
12 T7 2 0.916
12 T7 3 -0.061
12 T7 4 -0.549
12 T7 5 -1.038
12 T7 6 -0.061
12 T7 7 1.404
12 T7 8 4.333
12 T7 9 7.263
12 T7 10 9.216
12 T7 11 9.216
12 T7 12 7.263
12 T7 13 4.822
12 T7 14 1.892
12 T7 15 -1.038
12 T7 16 -3.479
12 T7 17 -5.920
12 T7 18 -6.897
12 T7 19 -6.409
12 T7 20 -3.479
12 T7 21 0.916
12 T7 22 5.310
12 T7 23 8.240
12 T7 24 9.216
12 T7 25 8.240
12 T7 26 5.798
12 T7 27 2.869
12 T7 28 0.916
12 T7 29 0.427
12 T7 30 0.427
12 T7 31 0.916
12 T7 32 0.427
12 T7 33 -1.526
12 T7 34 -4.456
12 T7 35 -6.897
12 T7 36 -7.385
12 T7 37 -5.920
12 T7 38 -4.456
12 T7 39 -4.456
12 T7 40 -5.432
12 T7 41 -7.385
12 T7 42 -9.827
12 T7 43 -10.315
12 T7 44 -9.338
12 T7 45 -6.409
12 T7 46 -2.502
12 T7 47 0.427
12 T7 48 1.892
12 T7 49 2.380
12 T7 50 1.892
12 T7 51 1.404
12 T7 52 0.427
12 T7 53 -1.526
12 T7 54 -3.479
12 T7 55 -5.432
12 T7 56 -6.409
12 T7 57 -6.409
12 T7 58 -6.409
12 T7 59 -6.409
12 T7 60 -6.897
12 T7 61 -7.385
12 T7 62 -8.362
12 T7 63 -8.850
12 T7 64 -8.850
12 T7 65 -7.874
12 T7 66 -5.920
12 T7 67 -2.991
12 T7 68 -0.549
12 T7 69 1.404
12 T7 70 2.380
12 T7 71 1.404
12 T7 72 -1.526
12 T7 73 -3.967
12 T7 74 -5.432
12 T7 75 -4.456
12 T7 76 -1.526
12 T7 77 1.892
12 T7 78 5.310
12 T7 79 6.287
12 T7 80 6.287
12 T7 81 5.798
12 T7 82 5.798
12 T7 83 6.287
12 T7 84 7.263
12 T7 85 8.240
12 T7 86 9.216
12 T7 87 9.216
12 T7 88 9.216
12 T7 89 8.728
12 T7 90 7.263
12 T7 91 5.798
12 T7 92 4.333
12 T7 93 2.380
12 T7 94 1.404
12 T7 95 0.427
12 T7 96 0.916
12 T7 97 1.404
12 T7 98 0.427
12 T7 99 -1.038
12 T7 100 -3.967
12 T7 101 -6.409
12 T7 102 -7.874
12 T7 103 -7.874
12 T7 104 -6.409
12 T7 105 -4.944
12 T7 106 -4.456
12 T7 107 -4.944
12 T7 108 -6.409
12 T7 109 -7.874
12 T7 110 -8.362
12 T7 111 -7.385
12 T7 112 -6.409
12 T7 113 -6.409
12 T7 114 -7.874
12 T7 115 -10.315
12 T7 116 -13.245
12 T7 117 -14.709
12 T7 118 -14.709
12 T7 119 -14.221
12 T7 120 -14.221
12 T7 121 -14.221
12 T7 122 -14.221
12 T7 123 -14.221
12 T7 124 -13.733
12 T7 125 -13.245
12 T7 126 -12.756
12 T7 127 -12.756
12 T7 128 -12.268
12 T7 129 -11.292
12 T7 130 -10.803
12 T7 131 -11.292
12 T7 132 -12.268
12 T7 133 -13.245
12 T7 134 -13.733
12 T7 135 -13.733
12 T7 136 -13.245
12 T7 137 -12.268
12 T7 138 -10.803
12 T7 139 -8.850
12 T7 140 -7.385
12 T7 141 -5.920
12 T7 142 -5.920
12 T7 143 -6.409
12 T7 144 -6.897
12 T7 145 -7.385
12 T7 146 -5.920
12 T7 147 -4.944
12 T7 148 -3.967
12 T7 149 -3.479
12 T7 150 -4.456
12 T7 151 -5.920
12 T7 152 -7.874
12 T7 153 -10.315
12 T7 154 -10.803
12 T7 155 -10.315
12 T7 156 -7.874
12 T7 157 -5.432
12 T7 158 -4.456
12 T7 159 -4.944
12 T7 160 -5.920
12 T7 161 -6.897
12 T7 162 -6.897
12 T7 163 -5.432
12 T7 164 -3.479
12 T7 165 -3.479
12 T7 166 -3.967
12 T7 167 -4.944
12 T7 168 -5.432
12 T7 169 -5.920
12 T7 170 -6.409
12 T7 171 -6.409
12 T7 172 -5.432
12 T7 173 -4.456
12 T7 174 -2.014
12 T7 175 -0.549
12 T7 176 0.427
12 T7 177 -0.549
12 T7 178 -2.014
12 T7 179 -2.991
12 T7 180 -2.991
12 T7 181 -2.014
12 T7 182 -1.526
12 T7 183 -2.014
12 T7 184 -3.479
12 T7 185 -3.479
12 T7 186 -2.014
12 T7 187 0.916
12 T7 188 3.845
12 T7 189 3.845
12 T7 190 2.380
12 T7 191 -0.549
12 T7 192 -2.991
12 T7 193 -4.456
12 T7 194 -3.967
12 T7 195 -3.479
12 T7 196 -3.479
12 T7 197 -3.967
12 T7 198 -3.479
12 T7 199 -2.991
12 T7 200 -2.014
12 T7 201 -1.526
12 T7 202 -1.526
12 T7 203 -2.502
12 T7 204 -3.967
12 T7 205 -4.944
12 T7 206 -4.456
12 T7 207 -3.967
12 T7 208 -2.014
12 T7 209 -0.549
12 T7 210 1.404
12 T7 211 1.892
12 T7 212 1.404
12 T7 213 -0.549
12 T7 214 -2.502
12 T7 215 -3.967
12 T7 216 -3.967
12 T7 217 -2.991
12 T7 218 -2.502
12 T7 219 -2.502
12 T7 220 -2.991
12 T7 221 -2.502
12 T7 222 -1.526
12 T7 223 -0.061
12 T7 224 0.916
12 T7 225 -0.061
12 T7 226 -3.479
12 T7 227 -6.897
12 T7 228 -10.315
12 T7 229 -11.292
12 T7 230 -9.827
12 T7 231 -6.897
12 T7 232 -3.967
12 T7 233 -2.502
12 T7 234 -2.014
12 T7 235 -1.526
12 T7 236 -1.038
12 T7 237 1.404
12 T7 238 3.845
12 T7 239 5.798
12 T7 240 5.798
12 T7 241 4.333
12 T7 242 0.916
12 T7 243 -2.014
12 T7 244 -3.479
12 T7 245 -2.502
12 T7 246 -0.549
12 T7 247 0.916
12 T7 248 0.916
12 T7 249 -1.038
12 T7 250 -2.991
12 T7 251 -4.456
12 T7 252 -3.967
12 T7 253 -1.526
12 T7 254 1.404
12 T7 255 3.357
# CZ chan 15
12 CZ 0 14.343
12 CZ 1 11.414
12 CZ 2 7.996
12 CZ 3 6.531
12 CZ 4 7.507
12 CZ 5 9.460
12 CZ 6 12.390
12 CZ 7 14.343
12 CZ 8 16.785
12 CZ 9 18.738
12 CZ 10 20.691
12 CZ 11 21.667
12 CZ 12 21.667
12 CZ 13 20.203
12 CZ 14 18.250
12 CZ 15 15.808
12 CZ 16 12.878
12 CZ 17 9.949
12 CZ 18 7.507
12 CZ 19 6.531
12 CZ 20 7.996
12 CZ 21 9.949
12 CZ 22 12.878
12 CZ 23 14.832
12 CZ 24 16.785
12 CZ 25 17.273
12 CZ 26 16.296
12 CZ 27 13.367
12 CZ 28 10.925
12 CZ 29 9.460
12 CZ 30 10.925
12 CZ 31 13.855
12 CZ 32 14.832
12 CZ 33 13.855
12 CZ 34 9.949
12 CZ 35 5.066
12 CZ 36 1.648
12 CZ 37 0.671
12 CZ 38 1.160
12 CZ 39 1.160
12 CZ 40 0.671
12 CZ 41 0.671
12 CZ 42 0.183
12 CZ 43 1.160
12 CZ 44 2.136
12 CZ 45 2.625
12 CZ 46 3.601
12 CZ 47 4.089
12 CZ 48 5.554
12 CZ 49 7.019
12 CZ 50 7.996
12 CZ 51 7.507
12 CZ 52 6.042
12 CZ 53 3.601
12 CZ 54 1.648
12 CZ 55 0.671
12 CZ 56 1.160
12 CZ 57 1.160
12 CZ 58 0.671
12 CZ 59 0.671
12 CZ 60 0.183
12 CZ 61 -0.305
12 CZ 62 -1.282
12 CZ 63 -2.258
12 CZ 64 -3.723
12 CZ 65 -4.211
12 CZ 66 -1.770
12 CZ 67 3.601
12 CZ 68 9.949
12 CZ 69 15.320
12 CZ 70 16.785
12 CZ 71 11.902
12 CZ 72 3.601
12 CZ 73 -5.188
12 CZ 74 -10.071
12 CZ 75 -8.118
12 CZ 76 -1.282
12 CZ 77 7.019
12 CZ 78 12.390
12 CZ 79 13.855
12 CZ 80 13.367
12 CZ 81 11.902
12 CZ 82 12.390
12 CZ 83 13.855
12 CZ 84 16.296
12 CZ 85 18.738
12 CZ 86 21.179
12 CZ 87 23.132
12 CZ 88 24.597
12 CZ 89 23.621
12 CZ 90 22.156
12 CZ 91 19.714
12 CZ 92 17.273
12 CZ 93 15.808
12 CZ 94 14.343
12 CZ 95 13.367
12 CZ 96 12.878
12 CZ 97 11.902
12 CZ 98 9.949
12 CZ 99 7.507
12 CZ 100 4.089
12 CZ 101 0.671
12 CZ 102 -2.258
12 CZ 103 -4.211
12 CZ 104 -5.188
12 CZ 105 -5.188
12 CZ 106 -5.676
12 CZ 107 -6.165
12 CZ 108 -6.653
12 CZ 109 -6.653
12 CZ 110 -6.165
12 CZ 111 -6.165
12 CZ 112 -7.629
12 CZ 113 -9.583
12 CZ 114 -13.000
12 CZ 115 -15.930
12 CZ 116 -17.395
12 CZ 117 -18.372
12 CZ 118 -18.860
12 CZ 119 -20.325
12 CZ 120 -22.766
12 CZ 121 -24.231
12 CZ 122 -24.231
12 CZ 123 -23.743
12 CZ 124 -22.766
12 CZ 125 -21.790
12 CZ 126 -21.301
12 CZ 127 -20.813
12 CZ 128 -19.348
12 CZ 129 -17.395
12 CZ 130 -16.907
12 CZ 131 -17.395
12 CZ 132 -18.860
12 CZ 133 -19.836
12 CZ 134 -19.836
12 CZ 135 -18.372
12 CZ 136 -16.907
12 CZ 137 -15.442
12 CZ 138 -14.465
12 CZ 139 -13.489
12 CZ 140 -13.489
12 CZ 141 -14.954
12 CZ 142 -17.395
12 CZ 143 -21.790
12 CZ 144 -26.184
12 CZ 145 -30.090
12 CZ 146 -31.067
12 CZ 147 -29.114
12 CZ 148 -24.719
12 CZ 149 -19.348
12 CZ 150 -14.465
12 CZ 151 -11.536
12 CZ 152 -11.047
12 CZ 153 -12.024
12 CZ 154 -12.024
12 CZ 155 -11.536
12 CZ 156 -9.583
12 CZ 157 -8.606
12 CZ 158 -8.606
12 CZ 159 -9.583
12 CZ 160 -10.559
12 CZ 161 -10.071
12 CZ 162 -8.118
12 CZ 163 -5.676
12 CZ 164 -4.211
12 CZ 165 -2.747
12 CZ 166 -2.747
12 CZ 167 -3.235
12 CZ 168 -3.723
12 CZ 169 -5.676
12 CZ 170 -5.188
12 CZ 171 -5.676
12 CZ 172 -4.700
12 CZ 173 -2.258
12 CZ 174 1.648
12 CZ 175 5.554
12 CZ 176 9.460
12 CZ 177 11.414
12 CZ 178 12.390
12 CZ 179 12.390
12 CZ 180 12.390
12 CZ 181 13.855
12 CZ 182 14.832
12 CZ 183 15.808
12 CZ 184 14.832
12 CZ 185 13.367
12 CZ 186 11.902
12 CZ 187 11.902
12 CZ 188 12.390
12 CZ 189 13.367
12 CZ 190 12.878
12 CZ 191 10.437
12 CZ 192 7.996
12 CZ 193 7.019
12 CZ 194 7.996
12 CZ 195 9.949
12 CZ 196 11.902
12 CZ 197 12.390
12 CZ 198 12.390
12 CZ 199 12.878
12 CZ 200 13.855
12 CZ 201 15.320
12 CZ 202 15.320
12 CZ 203 13.367
12 CZ 204 10.437
12 CZ 205 7.507
12 CZ 206 6.531
12 CZ 207 7.019
12 CZ 208 9.460
12 CZ 209 12.390
12 CZ 210 14.832
12 CZ 211 14.832
12 CZ 212 12.390
12 CZ 213 7.996
12 CZ 214 4.089
12 CZ 215 2.625
12 CZ 216 3.113
12 CZ 217 4.578
12 CZ 218 6.042
12 CZ 219 5.554
12 CZ 220 4.089
12 CZ 221 4.089
12 CZ 222 5.066
12 CZ 223 7.996
12 CZ 224 11.414
12 CZ 225 13.855
12 CZ 226 13.367
12 CZ 227 9.949
12 CZ 228 5.066
12 CZ 229 1.160
12 CZ 230 0.183
12 CZ 231 2.625
12 CZ 232 6.531
12 CZ 233 9.949
12 CZ 234 10.437
12 CZ 235 9.949
12 CZ 236 8.972
12 CZ 237 9.460
12 CZ 238 11.902
12 CZ 239 13.855
12 CZ 240 13.855
12 CZ 241 10.925
12 CZ 242 6.531
12 CZ 243 3.601
12 CZ 244 2.625
12 CZ 245 3.601
12 CZ 246 5.066
12 CZ 247 5.554
12 CZ 248 6.531
12 CZ 249 7.019
12 CZ 250 7.996
12 CZ 251 9.460
12 CZ 252 10.925
12 CZ 253 11.414
12 CZ 254 11.414
12 CZ 255 10.925
# C3 chan 16
12 C3 0 0.631
12 C3 1 1.119
12 C3 2 1.119
12 C3 3 0.631
12 C3 4 1.119
12 C3 5 3.560
12 C3 6 6.490
12 C3 7 6.978
12 C3 8 4.537
12 C3 9 2.584
12 C3 10 1.607
12 C3 11 1.119
12 C3 12 -0.346
12 C3 13 -0.834
12 C3 14 -1.322
12 C3 15 -2.299
12 C3 16 -4.252
12 C3 17 -3.764
12 C3 18 -0.346
12 C3 19 2.584
12 C3 20 4.049
12 C3 21 5.025
12 C3 22 6.490
12 C3 23 6.978
12 C3 24 5.514
12 C3 25 4.049
12 C3 26 4.049
12 C3 27 5.514
12 C3 28 5.514
12 C3 29 4.537
12 C3 30 2.096
12 C3 31 0.142
12 C3 32 -1.322
12 C3 33 -2.299
12 C3 34 -2.787
12 C3 35 -1.811
12 C3 36 0.142
12 C3 37 1.607
12 C3 38 1.607
12 C3 39 -0.346
12 C3 40 -1.811
12 C3 41 -3.276
12 C3 42 -4.252
12 C3 43 -3.764
12 C3 44 -2.787
12 C3 45 -1.322
12 C3 46 -0.346
12 C3 47 0.631
12 C3 48 1.607
12 C3 49 1.119
12 C3 50 0.631
12 C3 51 -0.834
12 C3 52 -1.322
12 C3 53 -0.834
12 C3 54 -1.811
12 C3 55 -2.787
12 C3 56 -2.787
12 C3 57 -0.834
12 C3 58 1.119
12 C3 59 0.631
12 C3 60 -0.346
12 C3 61 -0.834
12 C3 62 -1.322
12 C3 63 -2.299
12 C3 64 -2.299
12 C3 65 0.142
12 C3 66 2.584
12 C3 67 3.560
12 C3 68 3.072
12 C3 69 3.560
12 C3 70 3.560
12 C3 71 2.584
12 C3 72 1.119
12 C3 73 2.096
12 C3 74 4.537
12 C3 75 6.002
12 C3 76 6.002
12 C3 77 6.978
12 C3 78 8.443
12 C3 79 7.955
12 C3 80 6.490
12 C3 81 5.514
12 C3 82 5.514
12 C3 83 6.490
12 C3 84 6.002
12 C3 85 5.025
12 C3 86 5.514
12 C3 87 6.490
12 C3 88 6.978
12 C3 89 4.537
12 C3 90 2.096
12 C3 91 1.607
12 C3 92 0.631
12 C3 93 -0.346
12 C3 94 -0.346
12 C3 95 0.631
12 C3 96 0.631
12 C3 97 -1.322
12 C3 98 -3.276
12 C3 99 -3.276
12 C3 100 -1.811
12 C3 101 -0.834
12 C3 102 -0.834
12 C3 103 -0.834
12 C3 104 -0.346
12 C3 105 -0.346
12 C3 106 -1.322
12 C3 107 -3.276
12 C3 108 -2.787
12 C3 109 -0.834
12 C3 110 0.142
12 C3 111 -0.834
12 C3 112 -2.299
12 C3 113 -2.787
12 C3 114 -3.276
12 C3 115 -3.764
12 C3 116 -4.740
12 C3 117 -5.229
12 C3 118 -5.717
12 C3 119 -4.740
12 C3 120 -2.787
12 C3 121 -1.811
12 C3 122 -3.276
12 C3 123 -4.252
12 C3 124 -3.276
12 C3 125 -1.322
12 C3 126 -1.322
12 C3 127 -1.322
12 C3 128 -0.834
12 C3 129 0.142
12 C3 130 -0.834
12 C3 131 -2.299
12 C3 132 -3.276
12 C3 133 -4.252
12 C3 134 -4.740
12 C3 135 -4.740
12 C3 136 -2.787
12 C3 137 -0.834
12 C3 138 -0.346
12 C3 139 -0.346
12 C3 140 -0.346
12 C3 141 0.142
12 C3 142 -0.834
12 C3 143 -2.787
12 C3 144 -2.787
12 C3 145 -1.811
12 C3 146 0.631
12 C3 147 1.607
12 C3 148 1.119
12 C3 149 -0.346
12 C3 150 -3.276
12 C3 151 -5.229
12 C3 152 -6.694
12 C3 153 -5.229
12 C3 154 -3.276
12 C3 155 -2.299
12 C3 156 -3.276
12 C3 157 -4.740
12 C3 158 -4.252
12 C3 159 -2.787
12 C3 160 -1.811
12 C3 161 -1.811
12 C3 162 -1.811
12 C3 163 -1.811
12 C3 164 -1.811
12 C3 165 -1.811
12 C3 166 -1.811
12 C3 167 -1.322
12 C3 168 -1.811
12 C3 169 -2.787
12 C3 170 -3.276
12 C3 171 -1.811
12 C3 172 -0.834
12 C3 173 -1.322
12 C3 174 -4.252
12 C3 175 -6.205
12 C3 176 -7.182
12 C3 177 -6.694
12 C3 178 -5.717
12 C3 179 -4.252
12 C3 180 -4.252
12 C3 181 -4.740
12 C3 182 -4.252
12 C3 183 -2.787
12 C3 184 -0.834
12 C3 185 0.631
12 C3 186 0.631
12 C3 187 -0.346
12 C3 188 -1.322
12 C3 189 -2.787
12 C3 190 -4.252
12 C3 191 -3.764
12 C3 192 -3.276
12 C3 193 -3.764
12 C3 194 -4.252
12 C3 195 -5.229
12 C3 196 -5.229
12 C3 197 -4.740
12 C3 198 -5.229
12 C3 199 -6.205
12 C3 200 -6.694
12 C3 201 -6.694
12 C3 202 -6.205
12 C3 203 -6.205
12 C3 204 -7.182
12 C3 205 -6.205
12 C3 206 -3.276
12 C3 207 -0.346
12 C3 208 1.119
12 C3 209 1.607
12 C3 210 1.119
12 C3 211 1.119
12 C3 212 0.631
12 C3 213 0.142
12 C3 214 -0.346
12 C3 215 -1.322
12 C3 216 -2.787
12 C3 217 -2.787
12 C3 218 -1.322
12 C3 219 0.142
12 C3 220 0.142
12 C3 221 0.142
12 C3 222 1.119
12 C3 223 1.607
12 C3 224 -0.346
12 C3 225 -3.764
12 C3 226 -6.205
12 C3 227 -6.205
12 C3 228 -5.717
12 C3 229 -5.229
12 C3 230 -5.229
12 C3 231 -4.252
12 C3 232 -2.787
12 C3 233 -2.299
12 C3 234 -2.299
12 C3 235 -0.346
12 C3 236 4.537
12 C3 237 6.490
12 C3 238 5.514
12 C3 239 3.072
12 C3 240 1.607
12 C3 241 0.631
12 C3 242 0.142
12 C3 243 1.607
12 C3 244 3.560
12 C3 245 4.537
12 C3 246 2.584
12 C3 247 0.631
12 C3 248 -1.322
12 C3 249 -1.322
12 C3 250 1.119
12 C3 251 3.072
12 C3 252 4.049
12 C3 253 3.560
12 C3 254 1.607
12 C3 255 -0.346
# C4 chan 17
12 C4 0 -0.183
12 C4 1 -3.601
12 C4 2 -6.042
12 C4 3 -6.531
12 C4 4 -5.554
12 C4 5 -3.601
12 C4 6 -1.648
12 C4 7 -0.183
12 C4 8 0.305
12 C4 9 0.793
12 C4 10 2.747
12 C4 11 4.211
12 C4 12 3.235
12 C4 13 1.770
12 C4 14 1.770
12 C4 15 2.258
12 C4 16 1.282
12 C4 17 -1.160
12 C4 18 -0.671
12 C4 19 0.793
12 C4 20 1.282
12 C4 21 -0.183
12 C4 22 -0.671
12 C4 23 -0.671
12 C4 24 -3.113
12 C4 25 -6.042
12 C4 26 -7.019
12 C4 27 -5.066
12 C4 28 -4.578
12 C4 29 -4.089
12 C4 30 -3.601
12 C4 31 -1.648
12 C4 32 -0.671
12 C4 33 -1.648
12 C4 34 -1.160
12 C4 35 0.793
12 C4 36 2.747
12 C4 37 2.258
12 C4 38 -0.183
12 C4 39 -3.601
12 C4 40 -7.019
12 C4 41 -8.484
12 C4 42 -7.996
12 C4 43 -5.554
12 C4 44 -4.089
12 C4 45 -3.113
12 C4 46 -1.648
12 C4 47 0.305
12 C4 48 1.282
12 C4 49 1.282
12 C4 50 0.305
12 C4 51 0.305
12 C4 52 0.305
12 C4 53 0.793
12 C4 54 0.305
12 C4 55 -0.671
12 C4 56 -1.160
12 C4 57 -0.671
12 C4 58 -1.160
12 C4 59 -3.113
12 C4 60 -4.089
12 C4 61 -2.136
12 C4 62 0.793
12 C4 63 2.258
12 C4 64 2.258
12 C4 65 3.235
12 C4 66 5.676
12 C4 67 6.165
12 C4 68 3.723
12 C4 69 1.770
12 C4 70 0.793
12 C4 71 -0.183
12 C4 72 -2.136
12 C4 73 -2.136
12 C4 74 0.305
12 C4 75 1.282
12 C4 76 -0.183
12 C4 77 -1.648
12 C4 78 -1.160
12 C4 79 -0.671
12 C4 80 -0.671
12 C4 81 -0.671
12 C4 82 0.305
12 C4 83 1.770
12 C4 84 2.258
12 C4 85 3.235
12 C4 86 3.723
12 C4 87 3.235
12 C4 88 2.258
12 C4 89 1.770
12 C4 90 1.770
12 C4 91 2.747
12 C4 92 3.723
12 C4 93 3.723
12 C4 94 3.235
12 C4 95 2.747
12 C4 96 3.235
12 C4 97 3.235
12 C4 98 1.770
12 C4 99 -0.183
12 C4 100 -2.136
12 C4 101 -2.625
12 C4 102 -3.601
12 C4 103 -3.601
12 C4 104 -2.625
12 C4 105 -1.648
12 C4 106 -0.671
12 C4 107 -0.671
12 C4 108 -0.671
12 C4 109 -1.648
12 C4 110 -2.136
12 C4 111 -1.160
12 C4 112 -0.183
12 C4 113 -0.183
12 C4 114 -0.183
12 C4 115 0.793
12 C4 116 1.770
12 C4 117 -0.183
12 C4 118 -3.113
12 C4 119 -4.578
12 C4 120 -3.601
12 C4 121 -2.625
12 C4 122 -4.578
12 C4 123 -6.042
12 C4 124 -5.554
12 C4 125 -3.601
12 C4 126 -2.136
12 C4 127 -2.625
12 C4 128 -2.625
12 C4 129 -2.136
12 C4 130 -2.136
12 C4 131 -3.601
12 C4 132 -5.066
12 C4 133 -5.554
12 C4 134 -4.578
12 C4 135 -4.089
12 C4 136 -3.601
12 C4 137 -2.136
12 C4 138 -0.671
12 C4 139 -0.183
12 C4 140 -0.183
12 C4 141 -0.183
12 C4 142 -0.183
12 C4 143 -0.183
12 C4 144 -0.183
12 C4 145 -1.160
12 C4 146 -2.136
12 C4 147 -2.625
12 C4 148 -3.113
12 C4 149 -3.601
12 C4 150 -2.625
12 C4 151 -1.160
12 C4 152 -1.648
12 C4 153 -2.625
12 C4 154 -1.648
12 C4 155 -0.671
12 C4 156 -1.160
12 C4 157 -2.136
12 C4 158 -1.648
12 C4 159 -0.183
12 C4 160 -0.183
12 C4 161 -1.160
12 C4 162 -0.183
12 C4 163 1.770
12 C4 164 0.793
12 C4 165 -2.136
12 C4 166 -4.578
12 C4 167 -4.089
12 C4 168 -3.113
12 C4 169 -2.625
12 C4 170 -3.113
12 C4 171 -3.113
12 C4 172 -2.625
12 C4 173 -1.160
12 C4 174 0.305
12 C4 175 1.770
12 C4 176 2.747
12 C4 177 4.700
12 C4 178 5.676
12 C4 179 5.676
12 C4 180 3.723
12 C4 181 2.258
12 C4 182 1.770
12 C4 183 1.770
12 C4 184 1.770
12 C4 185 2.258
12 C4 186 2.258
12 C4 187 1.282
12 C4 188 0.305
12 C4 189 0.793
12 C4 190 1.770
12 C4 191 1.770
12 C4 192 0.793
12 C4 193 0.793
12 C4 194 1.282
12 C4 195 0.793
12 C4 196 0.305
12 C4 197 0.305
12 C4 198 0.793
12 C4 199 -0.671
12 C4 200 -2.136
12 C4 201 -2.625
12 C4 202 -3.601
12 C4 203 -4.578
12 C4 204 -4.089
12 C4 205 -2.625
12 C4 206 -2.136
12 C4 207 -3.113
12 C4 208 -3.601
12 C4 209 -2.625
12 C4 210 -1.648
12 C4 211 -2.625
12 C4 212 -4.089
12 C4 213 -5.066
12 C4 214 -4.578
12 C4 215 -3.601
12 C4 216 -2.136
12 C4 217 -0.671
12 C4 218 -2.136
12 C4 219 -1.648
12 C4 220 -1.160
12 C4 221 -0.671
12 C4 222 -0.671
12 C4 223 0.305
12 C4 224 0.305
12 C4 225 -0.671
12 C4 226 -2.136
12 C4 227 -2.625
12 C4 228 -2.136
12 C4 229 -1.160
12 C4 230 -1.160
12 C4 231 -0.671
12 C4 232 -0.183
12 C4 233 -0.183
12 C4 234 0.305
12 C4 235 0.793
12 C4 236 -0.183
12 C4 237 -1.648
12 C4 238 -2.136
12 C4 239 0.305
12 C4 240 3.723
12 C4 241 6.653
12 C4 242 6.653
12 C4 243 5.188
12 C4 244 3.235
12 C4 245 1.770
12 C4 246 -0.183
12 C4 247 -1.160
12 C4 248 -1.160
12 C4 249 -0.671
12 C4 250 0.305
12 C4 251 0.793
12 C4 252 1.282
12 C4 253 3.235
12 C4 254 4.211
12 C4 255 4.700
# CP5 chan 18
12 CP5 0 -1.465
12 CP5 1 -2.441
12 CP5 2 -3.906
12 CP5 3 -2.441
12 CP5 4 0.488
12 CP5 5 2.930
12 CP5 6 5.859
12 CP5 7 7.812
12 CP5 8 7.324
12 CP5 9 5.371
12 CP5 10 3.418
12 CP5 11 1.953
12 CP5 12 -0.977
12 CP5 13 -3.906
12 CP5 14 -5.859
12 CP5 15 -7.324
12 CP5 16 -8.301
12 CP5 17 -6.348
12 CP5 18 -0.977
12 CP5 19 4.883
12 CP5 20 7.812
12 CP5 21 9.766
12 CP5 22 10.742
12 CP5 23 11.719
12 CP5 24 10.254
12 CP5 25 7.324
12 CP5 26 4.883
12 CP5 27 4.395
12 CP5 28 5.371
12 CP5 29 4.883
12 CP5 30 1.953
12 CP5 31 -1.465
12 CP5 32 -3.906
12 CP5 33 -4.883
12 CP5 34 -4.883
12 CP5 35 -4.395
12 CP5 36 -3.418
12 CP5 37 -2.930
12 CP5 38 -4.395
12 CP5 39 -6.348
12 CP5 40 -7.812
12 CP5 41 -7.812
12 CP5 42 -6.836
12 CP5 43 -4.883
12 CP5 44 -3.906
12 CP5 45 -2.441
12 CP5 46 0.000
12 CP5 47 1.953
12 CP5 48 1.953
12 CP5 49 1.465
12 CP5 50 1.465
12 CP5 51 0.000
12 CP5 52 -1.953
12 CP5 53 -1.953
12 CP5 54 -1.465
12 CP5 55 -3.418
12 CP5 56 -5.371
12 CP5 57 -4.883
12 CP5 58 -1.953
12 CP5 59 -0.977
12 CP5 60 -1.953
12 CP5 61 -2.930
12 CP5 62 -2.441
12 CP5 63 -1.953
12 CP5 64 -2.441
12 CP5 65 -1.465
12 CP5 66 1.953
12 CP5 67 3.418
12 CP5 68 2.930
12 CP5 69 1.953
12 CP5 70 0.977
12 CP5 71 -0.488
12 CP5 72 -1.953
12 CP5 73 0.000
12 CP5 74 2.441
12 CP5 75 3.418
12 CP5 76 4.395
12 CP5 77 5.859
12 CP5 78 7.324
12 CP5 79 6.348
12 CP5 80 5.859
12 CP5 81 5.859
12 CP5 82 5.859
12 CP5 83 6.348
12 CP5 84 6.836
12 CP5 85 7.324
12 CP5 86 7.324
12 CP5 87 8.301
12 CP5 88 8.301
12 CP5 89 5.859
12 CP5 90 2.441
12 CP5 91 1.465
12 CP5 92 1.953
12 CP5 93 2.441
12 CP5 94 1.953
12 CP5 95 2.930
12 CP5 96 2.930
12 CP5 97 0.977
12 CP5 98 -2.441
12 CP5 99 -3.906
12 CP5 100 -2.441
12 CP5 101 0.000
12 CP5 102 1.465
12 CP5 103 0.977
12 CP5 104 0.977
12 CP5 105 0.000
12 CP5 106 -1.465
12 CP5 107 -3.418
12 CP5 108 -2.930
12 CP5 109 -0.977
12 CP5 110 1.465
12 CP5 111 0.977
12 CP5 112 -1.465
12 CP5 113 -2.930
12 CP5 114 -2.930
12 CP5 115 -2.441
12 CP5 116 -4.395
12 CP5 117 -7.324
12 CP5 118 -7.324
12 CP5 119 -4.395
12 CP5 120 -2.441
12 CP5 121 -3.906
12 CP5 122 -6.836
12 CP5 123 -7.812
12 CP5 124 -6.348
12 CP5 125 -4.883
12 CP5 126 -4.395
12 CP5 127 -4.395
12 CP5 128 -3.906
12 CP5 129 -3.906
12 CP5 130 -4.395
12 CP5 131 -4.883
12 CP5 132 -5.371
12 CP5 133 -5.859
12 CP5 134 -7.324
12 CP5 135 -7.324
12 CP5 136 -5.371
12 CP5 137 -2.441
12 CP5 138 -0.488
12 CP5 139 -0.488
12 CP5 140 0.000
12 CP5 141 0.000
12 CP5 142 0.488
12 CP5 143 0.488
12 CP5 144 1.465
12 CP5 145 2.930
12 CP5 146 2.930
12 CP5 147 2.930
12 CP5 148 2.441
12 CP5 149 0.977
12 CP5 150 -2.930
12 CP5 151 -7.812
12 CP5 152 -9.277
12 CP5 153 -6.348
12 CP5 154 -3.418
12 CP5 155 -2.930
12 CP5 156 -3.906
12 CP5 157 -4.395
12 CP5 158 -3.418
12 CP5 159 -1.953
12 CP5 160 -0.977
12 CP5 161 -0.488
12 CP5 162 -0.488
12 CP5 163 0.000
12 CP5 164 0.488
12 CP5 165 0.000
12 CP5 166 -0.977
12 CP5 167 -3.418
12 CP5 168 -5.371
12 CP5 169 -5.371
12 CP5 170 -2.930
12 CP5 171 0.488
12 CP5 172 1.953
12 CP5 173 0.488
12 CP5 174 -2.930
12 CP5 175 -5.859
12 CP5 176 -7.324
12 CP5 177 -6.836
12 CP5 178 -4.883
12 CP5 179 -4.883
12 CP5 180 -6.836
12 CP5 181 -8.789
12 CP5 182 -7.324
12 CP5 183 -4.395
12 CP5 184 -1.953
12 CP5 185 -0.488
12 CP5 186 1.465
12 CP5 187 2.441
12 CP5 188 0.488
12 CP5 189 -2.930
12 CP5 190 -4.883
12 CP5 191 -3.906
12 CP5 192 -3.418
12 CP5 193 -4.395
12 CP5 194 -6.348
12 CP5 195 -7.324
12 CP5 196 -8.301
12 CP5 197 -8.789
12 CP5 198 -8.789
12 CP5 199 -9.277
12 CP5 200 -9.277
12 CP5 201 -9.766
12 CP5 202 -9.277
12 CP5 203 -9.277
12 CP5 204 -9.766
12 CP5 205 -9.766
12 CP5 206 -8.301
12 CP5 207 -5.371
12 CP5 208 -1.465
12 CP5 209 -0.977
12 CP5 210 -2.441
12 CP5 211 -4.883
12 CP5 212 -5.371
12 CP5 213 -5.371
12 CP5 214 -5.859
12 CP5 215 -7.324
12 CP5 216 -7.812
12 CP5 217 -6.348
12 CP5 218 -3.418
12 CP5 219 -1.953
12 CP5 220 -0.488
12 CP5 221 0.000
12 CP5 222 -0.977
12 CP5 223 -4.395
12 CP5 224 -9.766
12 CP5 225 -13.672
12 CP5 226 -15.625
12 CP5 227 -14.648
12 CP5 228 -12.695
12 CP5 229 -10.254
12 CP5 230 -7.812
12 CP5 231 -4.883
12 CP5 232 -2.441
12 CP5 233 -2.441
12 CP5 234 -2.930
12 CP5 235 -0.977
12 CP5 236 2.441
12 CP5 237 3.906
12 CP5 238 1.465
12 CP5 239 -2.930
12 CP5 240 -5.859
12 CP5 241 -4.883
12 CP5 242 -2.930
12 CP5 243 -1.953
12 CP5 244 -1.953
12 CP5 245 0.000
12 CP5 246 0.977
12 CP5 247 -0.977
12 CP5 248 -5.859
12 CP5 249 -8.301
12 CP5 250 -5.371
12 CP5 251 -1.465
12 CP5 252 0.977
12 CP5 253 0.488
12 CP5 254 0.000
12 CP5 255 -0.488
# CP6 chan 19
12 CP6 0 -0.478
12 CP6 1 -3.896
12 CP6 2 -7.314
12 CP6 3 -9.267
12 CP6 4 -9.267
12 CP6 5 -8.291
12 CP6 6 -6.337
12 CP6 7 -3.896
12 CP6 8 -0.966
12 CP6 9 0.010
12 CP6 10 1.475
12 CP6 11 4.405
12 CP6 12 5.381
12 CP6 13 3.916
12 CP6 14 2.452
12 CP6 15 2.452
12 CP6 16 0.987
12 CP6 17 -1.455
12 CP6 18 -1.455
12 CP6 19 0.498
12 CP6 20 0.498
12 CP6 21 -0.966
12 CP6 22 -1.455
12 CP6 23 -1.455
12 CP6 24 -3.896
12 CP6 25 -7.802
12 CP6 26 -10.732
12 CP6 27 -10.244
12 CP6 28 -7.802
12 CP6 29 -5.849
12 CP6 30 -6.826
12 CP6 31 -7.802
12 CP6 32 -6.337
12 CP6 33 -4.384
12 CP6 34 -4.873
12 CP6 35 -6.337
12 CP6 36 -5.849
12 CP6 37 -5.361
12 CP6 38 -5.849
12 CP6 39 -9.267
12 CP6 40 -12.685
12 CP6 41 -14.150
12 CP6 42 -13.662
12 CP6 43 -12.197
12 CP6 44 -11.220
12 CP6 45 -8.779
12 CP6 46 -4.873
12 CP6 47 -1.455
12 CP6 48 0.010
12 CP6 49 0.010
12 CP6 50 -0.966
12 CP6 51 -2.431
12 CP6 52 -3.408
12 CP6 53 -2.431
12 CP6 54 -1.455
12 CP6 55 -2.920
12 CP6 56 -4.384
12 CP6 57 -3.408
12 CP6 58 -2.431
12 CP6 59 -3.896
12 CP6 60 -5.849
12 CP6 61 -5.361
12 CP6 62 -2.431
12 CP6 63 -1.455
12 CP6 64 -0.478
12 CP6 65 2.452
12 CP6 66 6.846
12 CP6 67 7.823
12 CP6 68 3.916
12 CP6 69 -0.478
12 CP6 70 -2.920
12 CP6 71 -3.896
12 CP6 72 -4.873
12 CP6 73 -4.384
12 CP6 74 -3.408
12 CP6 75 -1.943
12 CP6 76 -0.966
12 CP6 77 -0.966
12 CP6 78 -0.966
12 CP6 79 -0.966
12 CP6 80 0.498
12 CP6 81 1.963
12 CP6 82 1.963
12 CP6 83 1.963
12 CP6 84 3.916
12 CP6 85 5.870
12 CP6 86 5.870
12 CP6 87 3.916
12 CP6 88 2.452
12 CP6 89 1.963
12 CP6 90 2.452
12 CP6 91 2.940
12 CP6 92 5.870
12 CP6 93 8.799
12 CP6 94 8.311
12 CP6 95 5.870
12 CP6 96 4.893
12 CP6 97 6.358
12 CP6 98 5.870
12 CP6 99 1.963
12 CP6 100 -1.455
12 CP6 101 -1.455
12 CP6 102 -0.966
12 CP6 103 -2.431
12 CP6 104 -4.384
12 CP6 105 -4.384
12 CP6 106 -4.384
12 CP6 107 -4.384
12 CP6 108 -4.384
12 CP6 109 -4.873
12 CP6 110 -4.384
12 CP6 111 -2.920
12 CP6 112 -2.920
12 CP6 113 -4.384
12 CP6 114 -3.896
12 CP6 115 -1.455
12 CP6 116 -1.943
12 CP6 117 -5.849
12 CP6 118 -9.267
12 CP6 119 -8.779
12 CP6 120 -6.337
12 CP6 121 -7.314
12 CP6 122 -10.244
12 CP6 123 -12.197
12 CP6 124 -12.685
12 CP6 125 -11.709
12 CP6 126 -10.732
12 CP6 127 -8.779
12 CP6 128 -6.337
12 CP6 129 -5.849
12 CP6 130 -6.337
12 CP6 131 -7.802
12 CP6 132 -9.267
12 CP6 133 -10.244
12 CP6 134 -11.220
12 CP6 135 -10.732
12 CP6 136 -9.267
12 CP6 137 -7.802
12 CP6 138 -6.337
12 CP6 139 -4.384
12 CP6 140 -2.920
12 CP6 141 -2.431
12 CP6 142 -2.431
12 CP6 143 -0.966
12 CP6 144 0.987
12 CP6 145 0.498
12 CP6 146 -1.943
12 CP6 147 -4.384
12 CP6 148 -4.384
12 CP6 149 -3.896
12 CP6 150 -3.896
12 CP6 151 -3.896
12 CP6 152 -3.408
12 CP6 153 -3.408
12 CP6 154 -2.920
12 CP6 155 -1.943
12 CP6 156 -2.920
12 CP6 157 -5.361
12 CP6 158 -5.849
12 CP6 159 -4.384
12 CP6 160 -3.408
12 CP6 161 -3.896
12 CP6 162 -3.896
12 CP6 163 -2.431
12 CP6 164 -2.431
12 CP6 165 -4.384
12 CP6 166 -5.361
12 CP6 167 -5.849
12 CP6 168 -5.849
12 CP6 169 -6.337
12 CP6 170 -5.361
12 CP6 171 -3.896
12 CP6 172 -3.408
12 CP6 173 -2.920
12 CP6 174 -1.455
12 CP6 175 -0.478
12 CP6 176 0.498
12 CP6 177 1.963
12 CP6 178 3.916
12 CP6 179 3.428
12 CP6 180 0.987
12 CP6 181 -1.943
12 CP6 182 -2.431
12 CP6 183 -1.455
12 CP6 184 -1.943
12 CP6 185 -2.920
12 CP6 186 -1.943
12 CP6 187 -1.455
12 CP6 188 -3.896
12 CP6 189 -6.337
12 CP6 190 -5.849
12 CP6 191 -4.384
12 CP6 192 -5.361
12 CP6 193 -6.826
12 CP6 194 -6.826
12 CP6 195 -6.826
12 CP6 196 -7.314
12 CP6 197 -7.802
12 CP6 198 -7.314
12 CP6 199 -7.802
12 CP6 200 -8.779
12 CP6 201 -9.755
12 CP6 202 -10.732
12 CP6 203 -11.709
12 CP6 204 -10.732
12 CP6 205 -9.755
12 CP6 206 -11.220
12 CP6 207 -13.662
12 CP6 208 -13.662
12 CP6 209 -10.732
12 CP6 210 -9.267
12 CP6 211 -11.709
12 CP6 212 -13.173
12 CP6 213 -13.662
12 CP6 214 -13.173
12 CP6 215 -12.685
12 CP6 216 -12.197
12 CP6 217 -11.220
12 CP6 218 -9.267
12 CP6 219 -7.802
12 CP6 220 -5.849
12 CP6 221 -4.873
12 CP6 222 -5.849
12 CP6 223 -7.314
12 CP6 224 -8.291
12 CP6 225 -9.755
12 CP6 226 -11.709
12 CP6 227 -13.173
12 CP6 228 -12.197
12 CP6 229 -9.755
12 CP6 230 -6.337
12 CP6 231 -5.361
12 CP6 232 -5.849
12 CP6 233 -5.361
12 CP6 234 -3.896
12 CP6 235 -3.896
12 CP6 236 -5.361
12 CP6 237 -6.826
12 CP6 238 -6.826
12 CP6 239 -4.873
12 CP6 240 -2.920
12 CP6 241 0.010
12 CP6 242 2.452
12 CP6 243 2.452
12 CP6 244 0.498
12 CP6 245 -0.478
12 CP6 246 -0.966
12 CP6 247 -1.455
12 CP6 248 -1.943
12 CP6 249 -1.455
12 CP6 250 -1.455
12 CP6 251 -2.431
12 CP6 252 -2.920
12 CP6 253 -1.455
12 CP6 254 1.475
12 CP6 255 3.428
# CP1 chan 20
12 CP1 0 -5.361
12 CP1 1 -4.384
12 CP1 2 -4.384
12 CP1 3 -4.384
12 CP1 4 -4.384
12 CP1 5 -3.896
12 CP1 6 -1.455
12 CP1 7 0.987
12 CP1 8 3.916
12 CP1 9 4.893
12 CP1 10 4.405
12 CP1 11 2.452
12 CP1 12 0.498
12 CP1 13 -0.478
12 CP1 14 -0.966
12 CP1 15 -1.455
12 CP1 16 -2.431
12 CP1 17 -3.896
12 CP1 18 -5.361
12 CP1 19 -5.361
12 CP1 20 -3.408
12 CP1 21 -0.478
12 CP1 22 2.452
12 CP1 23 4.405
12 CP1 24 5.381
12 CP1 25 4.893
12 CP1 26 4.405
12 CP1 27 3.916
12 CP1 28 3.916
12 CP1 29 3.916
12 CP1 30 3.428
12 CP1 31 2.452
12 CP1 32 0.987
12 CP1 33 -0.478
12 CP1 34 -1.943
12 CP1 35 -3.408
12 CP1 36 -3.896
12 CP1 37 -3.408
12 CP1 38 -2.920
12 CP1 39 -2.431
12 CP1 40 -2.431
12 CP1 41 -2.920
12 CP1 42 -4.384
12 CP1 43 -4.873
12 CP1 44 -5.849
12 CP1 45 -5.361
12 CP1 46 -4.384
12 CP1 47 -3.408
12 CP1 48 -2.431
12 CP1 49 -1.455
12 CP1 50 -0.966
12 CP1 51 -0.478
12 CP1 52 0.010
12 CP1 53 -0.478
12 CP1 54 -0.966
12 CP1 55 -1.455
12 CP1 56 -1.943
12 CP1 57 -1.455
12 CP1 58 -0.966
12 CP1 59 0.010
12 CP1 60 0.498
12 CP1 61 1.475
12 CP1 62 1.475
12 CP1 63 1.475
12 CP1 64 0.498
12 CP1 65 -0.478
12 CP1 66 -0.966
12 CP1 67 -0.478
12 CP1 68 0.498
12 CP1 69 1.963
12 CP1 70 2.940
12 CP1 71 2.940
12 CP1 72 2.452
12 CP1 73 1.475
12 CP1 74 0.987
12 CP1 75 1.475
12 CP1 76 1.963
12 CP1 77 2.940
12 CP1 78 3.428
12 CP1 79 3.916
12 CP1 80 4.405
12 CP1 81 4.405
12 CP1 82 3.916
12 CP1 83 3.428
12 CP1 84 2.452
12 CP1 85 2.452
12 CP1 86 2.452
12 CP1 87 2.452
12 CP1 88 2.940
12 CP1 89 3.916
12 CP1 90 3.916
12 CP1 91 3.428
12 CP1 92 2.940
12 CP1 93 1.963
12 CP1 94 1.475
12 CP1 95 1.475
12 CP1 96 1.963
12 CP1 97 2.940
12 CP1 98 2.940
12 CP1 99 2.452
12 CP1 100 1.963
12 CP1 101 1.963
12 CP1 102 2.452
12 CP1 103 2.940
12 CP1 104 3.916
12 CP1 105 4.405
12 CP1 106 3.916
12 CP1 107 3.428
12 CP1 108 2.452
12 CP1 109 1.475
12 CP1 110 0.987
12 CP1 111 1.963
12 CP1 112 3.428
12 CP1 113 4.893
12 CP1 114 4.893
12 CP1 115 4.405
12 CP1 116 3.428
12 CP1 117 2.452
12 CP1 118 1.963
12 CP1 119 1.475
12 CP1 120 1.475
12 CP1 121 1.963
12 CP1 122 1.963
12 CP1 123 2.452
12 CP1 124 1.475
12 CP1 125 0.010
12 CP1 126 -1.455
12 CP1 127 -2.920
12 CP1 128 -2.431
12 CP1 129 -1.455
12 CP1 130 -0.478
12 CP1 131 0.010
12 CP1 132 0.010
12 CP1 133 -0.478
12 CP1 134 -1.455
12 CP1 135 -1.455
12 CP1 136 -1.455
12 CP1 137 -1.455
12 CP1 138 -1.455
12 CP1 139 -0.966
12 CP1 140 0.010
12 CP1 141 0.987
12 CP1 142 1.475
12 CP1 143 1.475
12 CP1 144 0.987
12 CP1 145 0.498
12 CP1 146 0.498
12 CP1 147 1.475
12 CP1 148 2.452
12 CP1 149 3.428
12 CP1 150 2.940
12 CP1 151 1.963
12 CP1 152 -0.478
12 CP1 153 -2.431
12 CP1 154 -3.408
12 CP1 155 -3.408
12 CP1 156 -2.431
12 CP1 157 -0.966
12 CP1 158 -0.478
12 CP1 159 -0.966
12 CP1 160 -1.943
12 CP1 161 -2.431
12 CP1 162 -2.431
12 CP1 163 -0.966
12 CP1 164 0.010
12 CP1 165 0.498
12 CP1 166 0.010
12 CP1 167 -0.966
12 CP1 168 -1.943
12 CP1 169 -1.455
12 CP1 170 -0.966
12 CP1 171 -0.478
12 CP1 172 0.498
12 CP1 173 0.987
12 CP1 174 0.498
12 CP1 175 -1.455
12 CP1 176 -3.408
12 CP1 177 -6.337
12 CP1 178 -8.779
12 CP1 179 -9.755
12 CP1 180 -9.267
12 CP1 181 -7.314
12 CP1 182 -6.337
12 CP1 183 -5.361
12 CP1 184 -5.849
12 CP1 185 -5.849
12 CP1 186 -4.384
12 CP1 187 -2.431
12 CP1 188 -0.478
12 CP1 189 0.010
12 CP1 190 -1.455
12 CP1 191 -3.408
12 CP1 192 -5.361
12 CP1 193 -5.849
12 CP1 194 -5.361
12 CP1 195 -5.361
12 CP1 196 -4.873
12 CP1 197 -6.337
12 CP1 198 -7.802
12 CP1 199 -8.779
12 CP1 200 -9.755
12 CP1 201 -9.755
12 CP1 202 -9.267
12 CP1 203 -8.779
12 CP1 204 -8.779
12 CP1 205 -8.779
12 CP1 206 -8.291
12 CP1 207 -7.802
12 CP1 208 -7.314
12 CP1 209 -6.337
12 CP1 210 -5.361
12 CP1 211 -3.896
12 CP1 212 -3.408
12 CP1 213 -3.408
12 CP1 214 -4.384
12 CP1 215 -5.849
12 CP1 216 -6.826
12 CP1 217 -7.314
12 CP1 218 -7.314
12 CP1 219 -6.826
12 CP1 220 -5.361
12 CP1 221 -3.896
12 CP1 222 -3.408
12 CP1 223 -2.920
12 CP1 224 -3.408
12 CP1 225 -5.361
12 CP1 226 -7.802
12 CP1 227 -9.755
12 CP1 228 -11.220
12 CP1 229 -11.709
12 CP1 230 -10.732
12 CP1 231 -8.291
12 CP1 232 -5.849
12 CP1 233 -3.896
12 CP1 234 -3.408
12 CP1 235 -2.920
12 CP1 236 -3.408
12 CP1 237 -3.408
12 CP1 238 -3.408
12 CP1 239 -2.920
12 CP1 240 -2.920
12 CP1 241 -3.408
12 CP1 242 -4.873
12 CP1 243 -5.849
12 CP1 244 -5.361
12 CP1 245 -2.920
12 CP1 246 0.010
12 CP1 247 1.475
12 CP1 248 1.963
12 CP1 249 0.498
12 CP1 250 -1.455
12 CP1 251 -2.431
12 CP1 252 -2.431
12 CP1 253 -0.966
12 CP1 254 0.010
12 CP1 255 0.498
# CP2 chan 21
12 CP2 0 1.526
12 CP2 1 -0.427
12 CP2 2 -3.357
12 CP2 3 -6.775
12 CP2 4 -9.705
12 CP2 5 -10.193
12 CP2 6 -8.728
12 CP2 7 -5.798
12 CP2 8 -2.869
12 CP2 9 -1.404
12 CP2 10 -0.427
12 CP2 11 0.061
12 CP2 12 0.061
12 CP2 13 0.549
12 CP2 14 1.038
12 CP2 15 1.038
12 CP2 16 0.549
12 CP2 17 -0.427
12 CP2 18 -0.916
12 CP2 19 -0.916
12 CP2 20 -0.427
12 CP2 21 0.061
12 CP2 22 0.061
12 CP2 23 -0.427
12 CP2 24 -1.404
12 CP2 25 -2.380
12 CP2 26 -3.845
12 CP2 27 -4.333
12 CP2 28 -4.822
12 CP2 29 -4.822
12 CP2 30 -4.333
12 CP2 31 -2.869
12 CP2 32 -1.892
12 CP2 33 -1.892
12 CP2 34 -1.404
12 CP2 35 -2.380
12 CP2 36 -2.869
12 CP2 37 -3.845
12 CP2 38 -3.845
12 CP2 39 -4.333
12 CP2 40 -4.822
12 CP2 41 -5.798
12 CP2 42 -6.287
12 CP2 43 -6.775
12 CP2 44 -6.775
12 CP2 45 -6.287
12 CP2 46 -5.310
12 CP2 47 -3.845
12 CP2 48 -2.380
12 CP2 49 -1.404
12 CP2 50 -0.427
12 CP2 51 0.549
12 CP2 52 1.038
12 CP2 53 0.549
12 CP2 54 -0.427
12 CP2 55 -1.404
12 CP2 56 -1.404
12 CP2 57 -0.916
12 CP2 58 -0.427
12 CP2 59 -0.427
12 CP2 60 -0.427
12 CP2 61 -0.427
12 CP2 62 -0.916
12 CP2 63 -0.427
12 CP2 64 0.061
12 CP2 65 0.061
12 CP2 66 1.038
12 CP2 67 1.526
12 CP2 68 2.014
12 CP2 69 2.014
12 CP2 70 1.526
12 CP2 71 1.038
12 CP2 72 0.061
12 CP2 73 -0.916
12 CP2 74 -0.427
12 CP2 75 0.061
12 CP2 76 1.526
12 CP2 77 1.526
12 CP2 78 1.038
12 CP2 79 0.549
12 CP2 80 -0.427
12 CP2 81 -0.427
12 CP2 82 -0.427
12 CP2 83 -0.427
12 CP2 84 0.061
12 CP2 85 0.061
12 CP2 86 0.061
12 CP2 87 0.061
12 CP2 88 0.061
12 CP2 89 0.061
12 CP2 90 0.061
12 CP2 91 0.061
12 CP2 92 0.549
12 CP2 93 1.526
12 CP2 94 2.991
12 CP2 95 4.456
12 CP2 96 5.920
12 CP2 97 5.920
12 CP2 98 5.920
12 CP2 99 5.432
12 CP2 100 5.432
12 CP2 101 5.432
12 CP2 102 4.944
12 CP2 103 4.456
12 CP2 104 2.991
12 CP2 105 2.502
12 CP2 106 2.502
12 CP2 107 2.502
12 CP2 108 2.991
12 CP2 109 2.014
12 CP2 110 2.014
12 CP2 111 2.014
12 CP2 112 3.479
12 CP2 113 4.944
12 CP2 114 5.920
12 CP2 115 5.920
12 CP2 116 5.432
12 CP2 117 4.944
12 CP2 118 3.967
12 CP2 119 3.479
12 CP2 120 2.502
12 CP2 121 2.502
12 CP2 122 2.502
12 CP2 123 2.991
12 CP2 124 2.502
12 CP2 125 1.038
12 CP2 126 -0.916
12 CP2 127 -2.380
12 CP2 128 -2.869
12 CP2 129 -2.380
12 CP2 130 -0.916
12 CP2 131 0.549
12 CP2 132 0.549
12 CP2 133 0.549
12 CP2 134 0.061
12 CP2 135 -0.427
12 CP2 136 -0.916
12 CP2 137 -0.916
12 CP2 138 -0.916
12 CP2 139 -0.427
12 CP2 140 0.549
12 CP2 141 2.014
12 CP2 142 3.479
12 CP2 143 3.967
12 CP2 144 3.967
12 CP2 145 3.967
12 CP2 146 3.967
12 CP2 147 3.967
12 CP2 148 3.967
12 CP2 149 3.479
12 CP2 150 2.991
12 CP2 151 2.014
12 CP2 152 1.038
12 CP2 153 1.038
12 CP2 154 1.526
12 CP2 155 2.014
12 CP2 156 2.502
12 CP2 157 2.502
12 CP2 158 2.014
12 CP2 159 1.526
12 CP2 160 1.526
12 CP2 161 1.038
12 CP2 162 1.038
12 CP2 163 1.526
12 CP2 164 2.014
12 CP2 165 2.014
12 CP2 166 1.526
12 CP2 167 0.549
12 CP2 168 -0.916
12 CP2 169 -1.404
12 CP2 170 -0.916
12 CP2 171 0.061
12 CP2 172 1.038
12 CP2 173 1.526
12 CP2 174 0.549
12 CP2 175 -0.427
12 CP2 176 -1.404
12 CP2 177 -1.404
12 CP2 178 -0.916
12 CP2 179 -0.916
12 CP2 180 -0.916
12 CP2 181 -0.916
12 CP2 182 -1.892
12 CP2 183 -2.380
12 CP2 184 -2.869
12 CP2 185 -2.380
12 CP2 186 -1.404
12 CP2 187 -0.427
12 CP2 188 0.549
12 CP2 189 0.549
12 CP2 190 -0.427
12 CP2 191 -1.892
12 CP2 192 -2.380
12 CP2 193 -2.380
12 CP2 194 -1.892
12 CP2 195 -1.404
12 CP2 196 -0.916
12 CP2 197 -1.404
12 CP2 198 -2.380
12 CP2 199 -3.357
12 CP2 200 -4.333
12 CP2 201 -4.822
12 CP2 202 -4.822
12 CP2 203 -4.822
12 CP2 204 -4.822
12 CP2 205 -4.822
12 CP2 206 -5.310
12 CP2 207 -5.798
12 CP2 208 -6.287
12 CP2 209 -6.775
12 CP2 210 -6.775
12 CP2 211 -6.287
12 CP2 212 -5.798
12 CP2 213 -4.333
12 CP2 214 -4.822
12 CP2 215 -5.310
12 CP2 216 -6.287
12 CP2 217 -7.263
12 CP2 218 -6.775
12 CP2 219 -5.798
12 CP2 220 -3.845
12 CP2 221 -3.357
12 CP2 222 -3.357
12 CP2 223 -3.845
12 CP2 224 -4.822
12 CP2 225 -5.310
12 CP2 226 -5.798
12 CP2 227 -6.287
12 CP2 228 -5.798
12 CP2 229 -5.798
12 CP2 230 -4.822
12 CP2 231 -3.845
12 CP2 232 -2.380
12 CP2 233 -1.404
12 CP2 234 -0.916
12 CP2 235 -1.404
12 CP2 236 -2.380
12 CP2 237 -3.357
12 CP2 238 -4.333
12 CP2 239 -5.310
12 CP2 240 -5.798
12 CP2 241 -5.310
12 CP2 242 -4.333
12 CP2 243 -1.892
12 CP2 244 1.038
12 CP2 245 3.967
12 CP2 246 4.944
12 CP2 247 3.967
12 CP2 248 2.502
12 CP2 249 0.549
12 CP2 250 -0.916
12 CP2 251 -0.916
12 CP2 252 -1.404
12 CP2 253 -1.404
12 CP2 254 -0.916
12 CP2 255 0.061
# P3 chan 22
12 P3 0 -10.376
12 P3 1 -10.376
12 P3 2 -10.864
12 P3 3 -10.864
12 P3 4 -9.399
12 P3 5 -6.470
12 P3 6 -1.099
12 P3 7 4.272
12 P3 8 9.155
12 P3 9 11.597
12 P3 10 10.132
12 P3 11 7.202
12 P3 12 3.296
12 P3 13 -0.610
12 P3 14 -3.540
12 P3 15 -6.470
12 P3 16 -8.911
12 P3 17 -10.864
12 P3 18 -11.353
12 P3 19 -9.399
12 P3 20 -5.005
12 P3 21 0.854
12 P3 22 6.226
12 P3 23 9.644
12 P3 24 11.108
12 P3 25 10.620
12 P3 26 9.155
12 P3 27 8.667
12 P3 28 7.690
12 P3 29 6.714
12 P3 30 5.249
12 P3 31 3.296
12 P3 32 1.831
12 P3 33 -0.610
12 P3 34 -2.563
12 P3 35 -5.005
12 P3 36 -6.958
12 P3 37 -7.935
12 P3 38 -7.935
12 P3 39 -7.935
12 P3 40 -8.423
12 P3 41 -9.399
12 P3 42 -10.864
12 P3 43 -11.353
12 P3 44 -10.376
12 P3 45 -7.935
12 P3 46 -4.517
12 P3 47 -2.075
12 P3 48 -0.610
12 P3 49 0.366
12 P3 50 1.343
12 P3 51 1.831
12 P3 52 2.319
12 P3 53 1.831
12 P3 54 0.854
12 P3 55 -0.122
12 P3 56 -1.099
12 P3 57 -1.587
12 P3 58 -1.099
12 P3 59 -0.610
12 P3 60 -0.122
12 P3 61 1.831
12 P3 62 3.296
12 P3 63 4.272
12 P3 64 4.272
12 P3 65 3.296
12 P3 66 2.319
12 P3 67 2.319
12 P3 68 3.784
12 P3 69 5.249
12 P3 70 5.737
12 P3 71 4.272
12 P3 72 1.831
12 P3 73 -0.122
12 P3 74 -0.610
12 P3 75 0.366
12 P3 76 2.319
12 P3 77 3.784
12 P3 78 4.272
12 P3 79 4.761
12 P3 80 5.249
12 P3 81 5.249
12 P3 82 5.737
12 P3 83 5.249
12 P3 84 5.249
12 P3 85 5.249
12 P3 86 6.226
12 P3 87 7.690
12 P3 88 9.644
12 P3 89 9.644
12 P3 90 9.155
12 P3 91 7.202
12 P3 92 5.249
12 P3 93 4.272
12 P3 94 3.784
12 P3 95 4.272
12 P3 96 5.249
12 P3 97 5.737
12 P3 98 5.249
12 P3 99 4.761
12 P3 100 3.296
12 P3 101 2.808
12 P3 102 2.319
12 P3 103 3.296
12 P3 104 4.272
12 P3 105 5.249
12 P3 106 5.249
12 P3 107 3.784
12 P3 108 1.343
12 P3 109 -1.099
12 P3 110 -1.099
12 P3 111 0.366
12 P3 112 3.296
12 P3 113 5.249
12 P3 114 5.737
12 P3 115 4.761
12 P3 116 2.808
12 P3 117 1.831
12 P3 118 0.366
12 P3 119 -0.122
12 P3 120 -0.122
12 P3 121 0.366
12 P3 122 0.854
12 P3 123 0.366
12 P3 124 -0.610
12 P3 125 -3.540
12 P3 126 -6.958
12 P3 127 -8.911
12 P3 128 -8.911
12 P3 129 -7.446
12 P3 130 -5.981
12 P3 131 -5.005
12 P3 132 -5.005
12 P3 133 -5.981
12 P3 134 -5.493
12 P3 135 -5.005
12 P3 136 -5.005
12 P3 137 -5.493
12 P3 138 -5.981
12 P3 139 -5.981
12 P3 140 -4.517
12 P3 141 -1.587
12 P3 142 0.854
12 P3 143 2.319
12 P3 144 2.319
12 P3 145 1.831
12 P3 146 2.319
12 P3 147 3.784
12 P3 148 4.761
12 P3 149 4.272
12 P3 150 2.319
12 P3 151 -1.099
12 P3 152 -4.517
12 P3 153 -7.446
12 P3 154 -8.911
12 P3 155 -8.911
12 P3 156 -6.958
12 P3 157 -4.517
12 P3 158 -2.075
12 P3 159 -2.075
12 P3 160 -2.563
12 P3 161 -4.028
12 P3 162 -4.028
12 P3 163 -2.563
12 P3 164 -0.610
12 P3 165 0.854
12 P3 166 0.366
12 P3 167 -2.075
12 P3 168 -4.517
12 P3 169 -6.470
12 P3 170 -6.958
12 P3 171 -5.981
12 P3 172 -4.028
12 P3 173 -2.075
12 P3 174 -1.099
12 P3 175 -2.563
12 P3 176 -5.005
12 P3 177 -8.911
12 P3 178 -10.864
12 P3 179 -10.864
12 P3 180 -9.399
12 P3 181 -7.446
12 P3 182 -6.958
12 P3 183 -8.911
12 P3 184 -10.864
12 P3 185 -11.353
12 P3 186 -8.911
12 P3 187 -5.005
12 P3 188 -1.099
12 P3 189 -0.122
12 P3 190 -2.563
12 P3 191 -5.981
12 P3 192 -8.911
12 P3 193 -10.864
12 P3 194 -9.888
12 P3 195 -8.911
12 P3 196 -8.911
12 P3 197 -10.376
12 P3 198 -11.841
12 P3 199 -13.306
12 P3 200 -13.794
12 P3 201 -13.306
12 P3 202 -12.817
12 P3 203 -12.329
12 P3 204 -12.817
12 P3 205 -12.817
12 P3 206 -12.329
12 P3 207 -11.841
12 P3 208 -11.353
12 P3 209 -10.376
12 P3 210 -9.399
12 P3 211 -8.423
12 P3 212 -8.423
12 P3 213 -9.399
12 P3 214 -11.353
12 P3 215 -13.794
12 P3 216 -15.747
12 P3 217 -16.235
12 P3 218 -14.771
12 P3 219 -12.817
12 P3 220 -9.888
12 P3 221 -7.446
12 P3 222 -5.493
12 P3 223 -5.005
12 P3 224 -6.470
12 P3 225 -9.888
12 P3 226 -14.771
12 P3 227 -20.142
12 P3 228 -23.560
12 P3 229 -24.048
12 P3 230 -21.606
12 P3 231 -16.724
12 P3 232 -11.353
12 P3 233 -6.470
12 P3 234 -4.028
12 P3 235 -3.052
12 P3 236 -3.540
12 P3 237 -4.517
12 P3 238 -5.493
12 P3 239 -5.981
12 P3 240 -7.446
12 P3 241 -9.888
12 P3 242 -12.817
12 P3 243 -13.794
12 P3 244 -13.306
12 P3 245 -9.399
12 P3 246 -4.517
12 P3 247 -1.099
12 P3 248 -0.610
12 P3 249 -3.540
12 P3 250 -7.446
12 P3 251 -9.399
12 P3 252 -9.888
12 P3 253 -7.446
12 P3 254 -4.517
12 P3 255 -2.075
# P4 chan 23
12 P4 0 5.483
12 P4 1 3.042
12 P4 2 -1.841
12 P4 3 -7.701
12 P4 4 -12.095
12 P4 5 -14.048
12 P4 6 -13.072
12 P4 7 -10.142
12 P4 8 -6.236
12 P4 9 -2.818
12 P4 10 0.600
12 P4 11 3.042
12 P4 12 4.995
12 P4 13 6.460
12 P4 14 6.948
12 P4 15 6.460
12 P4 16 4.506
12 P4 17 2.553
12 P4 18 1.088
12 P4 19 0.112
12 P4 20 -0.376
12 P4 21 0.112
12 P4 22 0.600
12 P4 23 1.088
12 P4 24 1.088
12 P4 25 0.600
12 P4 26 -0.865
12 P4 27 -2.818
12 P4 28 -4.283
12 P4 29 -5.259
12 P4 30 -6.236
12 P4 31 -5.259
12 P4 32 -4.771
12 P4 33 -4.283
12 P4 34 -4.771
12 P4 35 -5.747
12 P4 36 -6.724
12 P4 37 -7.212
12 P4 38 -7.701
12 P4 39 -9.165
12 P4 40 -10.142
12 P4 41 -12.095
12 P4 42 -13.072
12 P4 43 -14.537
12 P4 44 -14.537
12 P4 45 -14.048
12 P4 46 -12.583
12 P4 47 -9.165
12 P4 48 -5.259
12 P4 49 -1.353
12 P4 50 1.577
12 P4 51 2.065
12 P4 52 1.577
12 P4 53 -0.376
12 P4 54 -1.841
12 P4 55 -2.330
12 P4 56 -1.841
12 P4 57 -0.865
12 P4 58 -0.376
12 P4 59 -0.376
12 P4 60 -0.865
12 P4 61 -0.865
12 P4 62 -0.865
12 P4 63 -1.353
12 P4 64 -1.353
12 P4 65 0.112
12 P4 66 2.065
12 P4 67 4.506
12 P4 68 6.948
12 P4 69 7.924
12 P4 70 5.971
12 P4 71 3.042
12 P4 72 -0.376
12 P4 73 -1.353
12 P4 74 -0.865
12 P4 75 0.600
12 P4 76 2.553
12 P4 77 3.042
12 P4 78 2.553
12 P4 79 1.577
12 P4 80 1.088
12 P4 81 0.600
12 P4 82 1.088
12 P4 83 1.088
12 P4 84 1.088
12 P4 85 1.577
12 P4 86 2.065
12 P4 87 3.530
12 P4 88 4.506
12 P4 89 4.995
12 P4 90 4.995
12 P4 91 4.018
12 P4 92 4.018
12 P4 93 5.971
12 P4 94 8.413
12 P4 95 11.342
12 P4 96 12.807
12 P4 97 12.807
12 P4 98 11.342
12 P4 99 9.878
12 P4 100 8.901
12 P4 101 8.413
12 P4 102 7.436
12 P4 103 5.971
12 P4 104 4.018
12 P4 105 2.065
12 P4 106 1.088
12 P4 107 1.088
12 P4 108 0.600
12 P4 109 -0.376
12 P4 110 -0.865
12 P4 111 -0.865
12 P4 112 0.112
12 P4 113 2.065
12 P4 114 3.042
12 P4 115 3.042
12 P4 116 2.065
12 P4 117 1.088
12 P4 118 -0.376
12 P4 119 -0.865
12 P4 120 -1.353
12 P4 121 -1.841
12 P4 122 -2.818
12 P4 123 -3.306
12 P4 124 -4.283
12 P4 125 -6.236
12 P4 126 -8.677
12 P4 127 -10.630
12 P4 128 -11.119
12 P4 129 -9.165
12 P4 130 -6.236
12 P4 131 -3.794
12 P4 132 -3.794
12 P4 133 -4.771
12 P4 134 -6.724
12 P4 135 -7.701
12 P4 136 -7.212
12 P4 137 -6.724
12 P4 138 -6.236
12 P4 139 -5.747
12 P4 140 -4.283
12 P4 141 -1.353
12 P4 142 1.577
12 P4 143 4.018
12 P4 144 4.506
12 P4 145 4.506
12 P4 146 4.018
12 P4 147 4.018
12 P4 148 4.018
12 P4 149 3.042
12 P4 150 0.112
12 P4 151 -2.330
12 P4 152 -3.794
12 P4 153 -3.794
12 P4 154 -2.330
12 P4 155 -0.376
12 P4 156 0.112
12 P4 157 -0.376
12 P4 158 -1.841
12 P4 159 -2.818
12 P4 160 -3.794
12 P4 161 -4.283
12 P4 162 -4.283
12 P4 163 -3.794
12 P4 164 -3.306
12 P4 165 -2.818
12 P4 166 -2.818
12 P4 167 -4.283
12 P4 168 -5.747
12 P4 169 -6.724
12 P4 170 -7.701
12 P4 171 -6.724
12 P4 172 -5.259
12 P4 173 -4.771
12 P4 174 -4.771
12 P4 175 -5.747
12 P4 176 -6.724
12 P4 177 -6.236
12 P4 178 -5.259
12 P4 179 -3.306
12 P4 180 -2.330
12 P4 181 -1.841
12 P4 182 -2.818
12 P4 183 -4.283
12 P4 184 -5.259
12 P4 185 -5.747
12 P4 186 -5.259
12 P4 187 -4.771
12 P4 188 -5.259
12 P4 189 -6.236
12 P4 190 -9.165
12 P4 191 -11.607
12 P4 192 -13.072
12 P4 193 -13.072
12 P4 194 -12.095
12 P4 195 -11.119
12 P4 196 -10.630
12 P4 197 -10.142
12 P4 198 -9.654
12 P4 199 -9.165
12 P4 200 -8.677
12 P4 201 -8.677
12 P4 202 -8.677
12 P4 203 -9.165
12 P4 204 -9.654
12 P4 205 -10.142
12 P4 206 -10.630
12 P4 207 -11.607
12 P4 208 -13.072
12 P4 209 -15.025
12 P4 210 -16.490
12 P4 211 -16.001
12 P4 212 -15.025
12 P4 213 -13.072
12 P4 214 -12.583
12 P4 215 -13.560
12 P4 216 -15.025
12 P4 217 -16.001
12 P4 218 -15.025
12 P4 219 -12.583
12 P4 220 -9.654
12 P4 221 -7.212
12 P4 222 -6.724
12 P4 223 -7.212
12 P4 224 -8.677
12 P4 225 -9.654
12 P4 226 -11.607
12 P4 227 -13.072
12 P4 228 -14.048
12 P4 229 -14.537
12 P4 230 -13.560
12 P4 231 -10.630
12 P4 232 -7.701
12 P4 233 -4.771
12 P4 234 -3.794
12 P4 235 -3.794
12 P4 236 -5.259
12 P4 237 -6.724
12 P4 238 -7.701
12 P4 239 -8.189
12 P4 240 -8.189
12 P4 241 -7.212
12 P4 242 -5.747
12 P4 243 -2.818
12 P4 244 0.600
12 P4 245 4.018
12 P4 246 5.483
12 P4 247 4.995
12 P4 248 2.553
12 P4 249 -0.376
12 P4 250 -2.330
12 P4 251 -3.306
12 P4 252 -3.306
12 P4 253 -2.818
12 P4 254 -2.818
12 P4 255 -1.353
# PZ chan 24
12 PZ 0 -5.422
12 PZ 1 -8.840
12 PZ 2 -12.258
12 PZ 3 -15.188
12 PZ 4 -15.188
12 PZ 5 -12.258
12 PZ 6 -7.863
12 PZ 7 -3.469
12 PZ 8 -0.051
12 PZ 9 1.414
12 PZ 10 1.902
12 PZ 11 2.391
12 PZ 12 1.902
12 PZ 13 1.902
12 PZ 14 0.926
12 PZ 15 -1.027
12 PZ 16 -3.469
12 PZ 17 -5.910
12 PZ 18 -6.887
12 PZ 19 -6.887
12 PZ 20 -5.422
12 PZ 21 -2.981
12 PZ 22 -1.516
12 PZ 23 -1.027
12 PZ 24 -1.516
12 PZ 25 -1.516
12 PZ 26 -1.027
12 PZ 27 -0.539
12 PZ 28 -0.539
12 PZ 29 -0.539
12 PZ 30 -0.539
12 PZ 31 -1.027
12 PZ 32 -1.516
12 PZ 33 -2.981
12 PZ 34 -4.934
12 PZ 35 -6.887
12 PZ 36 -7.863
12 PZ 37 -8.352
12 PZ 38 -8.840
12 PZ 39 -8.840
12 PZ 40 -9.328
12 PZ 41 -9.816
12 PZ 42 -10.793
12 PZ 43 -10.305
12 PZ 44 -9.816
12 PZ 45 -9.328
12 PZ 46 -7.863
12 PZ 47 -5.910
12 PZ 48 -3.469
12 PZ 49 -1.516
12 PZ 50 -0.051
12 PZ 51 0.437
12 PZ 52 0.437
12 PZ 53 -0.539
12 PZ 54 -1.516
12 PZ 55 -1.516
12 PZ 56 -1.516
12 PZ 57 -1.027
12 PZ 58 -1.027
12 PZ 59 -1.027
12 PZ 60 -0.539
12 PZ 61 -0.051
12 PZ 62 0.437
12 PZ 63 -0.051
12 PZ 64 -1.027
12 PZ 65 -1.516
12 PZ 66 -2.004
12 PZ 67 -1.027
12 PZ 68 -0.051
12 PZ 69 -0.051
12 PZ 70 -0.539
12 PZ 71 -1.516
12 PZ 72 -2.004
12 PZ 73 -1.516
12 PZ 74 -1.027
12 PZ 75 -0.051
12 PZ 76 0.437
12 PZ 77 0.926
12 PZ 78 0.926
12 PZ 79 0.926
12 PZ 80 0.437
12 PZ 81 -0.539
12 PZ 82 -1.027
12 PZ 83 -1.516
12 PZ 84 -1.516
12 PZ 85 -1.516
12 PZ 86 -1.027
12 PZ 87 -0.539
12 PZ 88 -0.051
12 PZ 89 0.437
12 PZ 90 0.437
12 PZ 91 -0.051
12 PZ 92 -0.051
12 PZ 93 1.414
12 PZ 94 2.879
12 PZ 95 4.344
12 PZ 96 5.809
12 PZ 97 6.297
12 PZ 98 6.785
12 PZ 99 7.273
12 PZ 100 7.762
12 PZ 101 7.762
12 PZ 102 7.273
12 PZ 103 6.785
12 PZ 104 6.297
12 PZ 105 6.785
12 PZ 106 6.785
12 PZ 107 5.809
12 PZ 108 4.344
12 PZ 109 2.879
12 PZ 110 2.879
12 PZ 111 4.344
12 PZ 112 6.785
12 PZ 113 8.250
12 PZ 114 8.738
12 PZ 115 8.738
12 PZ 116 7.762
12 PZ 117 7.273
12 PZ 118 6.297
12 PZ 119 5.809
12 PZ 120 4.832
12 PZ 121 5.320
12 PZ 122 5.809
12 PZ 123 5.320
12 PZ 124 2.879
12 PZ 125 -1.027
12 PZ 126 -4.445
12 PZ 127 -6.399
12 PZ 128 -5.422
12 PZ 129 -3.957
12 PZ 130 -2.492
12 PZ 131 -1.516
12 PZ 132 -1.027
12 PZ 133 -1.027
12 PZ 134 -0.539
12 PZ 135 -0.539
12 PZ 136 -2.004
12 PZ 137 -2.981
12 PZ 138 -3.469
12 PZ 139 -2.492
12 PZ 140 -0.051
12 PZ 141 2.391
12 PZ 142 3.855
12 PZ 143 3.855
12 PZ 144 4.344
12 PZ 145 4.832
12 PZ 146 6.297
12 PZ 147 7.273
12 PZ 148 7.273
12 PZ 149 5.809
12 PZ 150 3.367
12 PZ 151 0.926
12 PZ 152 -1.027
12 PZ 153 -1.516
12 PZ 154 -1.516
12 PZ 155 -0.051
12 PZ 156 1.414
12 PZ 157 1.902
12 PZ 158 1.414
12 PZ 159 -0.539
12 PZ 160 -2.492
12 PZ 161 -2.981
12 PZ 162 -2.004
12 PZ 163 -0.051
12 PZ 164 0.926
12 PZ 165 0.437
12 PZ 166 -0.539
12 PZ 167 -2.492
12 PZ 168 -2.981
12 PZ 169 -2.981
12 PZ 170 -2.004
12 PZ 171 -0.539
12 PZ 172 -0.051
12 PZ 173 -0.051
12 PZ 174 -1.516
12 PZ 175 -3.957
12 PZ 176 -6.887
12 PZ 177 -8.352
12 PZ 178 -8.352
12 PZ 179 -7.375
12 PZ 180 -6.887
12 PZ 181 -7.375
12 PZ 182 -8.840
12 PZ 183 -10.305
12 PZ 184 -10.305
12 PZ 185 -8.352
12 PZ 186 -4.934
12 PZ 187 -2.492
12 PZ 188 -1.516
12 PZ 189 -2.981
12 PZ 190 -4.445
12 PZ 191 -6.399
12 PZ 192 -7.863
12 PZ 193 -7.863
12 PZ 194 -7.863
12 PZ 195 -7.375
12 PZ 196 -7.375
12 PZ 197 -8.352
12 PZ 198 -9.816
12 PZ 199 -11.281
12 PZ 200 -12.258
12 PZ 201 -12.258
12 PZ 202 -11.281
12 PZ 203 -10.305
12 PZ 204 -9.816
12 PZ 205 -9.816
12 PZ 206 -10.305
12 PZ 207 -11.281
12 PZ 208 -11.770
12 PZ 209 -11.770
12 PZ 210 -10.793
12 PZ 211 -8.840
12 PZ 212 -7.375
12 PZ 213 -7.863
12 PZ 214 -10.305
12 PZ 215 -13.234
12 PZ 216 -15.188
12 PZ 217 -15.188
12 PZ 218 -13.723
12 PZ 219 -11.770
12 PZ 220 -9.816
12 PZ 221 -7.863
12 PZ 222 -7.375
12 PZ 223 -7.863
12 PZ 224 -9.328
12 PZ 225 -11.770
12 PZ 226 -13.723
12 PZ 227 -15.188
12 PZ 228 -15.676
12 PZ 229 -14.699
12 PZ 230 -12.258
12 PZ 231 -9.328
12 PZ 232 -6.887
12 PZ 233 -4.934
12 PZ 234 -4.445
12 PZ 235 -5.422
12 PZ 236 -6.887
12 PZ 237 -7.863
12 PZ 238 -8.840
12 PZ 239 -9.328
12 PZ 240 -10.793
12 PZ 241 -12.258
12 PZ 242 -12.746
12 PZ 243 -11.281
12 PZ 244 -6.887
12 PZ 245 -2.004
12 PZ 246 1.414
12 PZ 247 1.902
12 PZ 248 -0.051
12 PZ 249 -2.004
12 PZ 250 -3.957
12 PZ 251 -4.445
12 PZ 252 -4.934
12 PZ 253 -4.934
12 PZ 254 -4.445
12 PZ 255 -3.469
# P8 chan 25
12 P8 0 4.924
12 P8 1 0.529
12 P8 2 -4.842
12 P8 3 -9.237
12 P8 4 -11.190
12 P8 5 -12.166
12 P8 6 -12.166
12 P8 7 -11.678
12 P8 8 -10.213
12 P8 9 -7.284
12 P8 10 -3.377
12 P8 11 0.041
12 P8 12 2.482
12 P8 13 3.947
12 P8 14 4.435
12 P8 15 3.459
12 P8 16 1.506
12 P8 17 -0.936
12 P8 18 -2.889
12 P8 19 -3.866
12 P8 20 -2.889
12 P8 21 -1.424
12 P8 22 -0.936
12 P8 23 -1.424
12 P8 24 -2.889
12 P8 25 -4.354
12 P8 26 -5.819
12 P8 27 -7.772
12 P8 28 -9.237
12 P8 29 -9.725
12 P8 30 -8.748
12 P8 31 -7.284
12 P8 32 -6.307
12 P8 33 -6.795
12 P8 34 -8.260
12 P8 35 -9.725
12 P8 36 -9.237
12 P8 37 -8.748
12 P8 38 -8.748
12 P8 39 -10.701
12 P8 40 -13.631
12 P8 41 -15.584
12 P8 42 -17.049
12 P8 43 -18.026
12 P8 44 -17.537
12 P8 45 -16.073
12 P8 46 -13.143
12 P8 47 -9.237
12 P8 48 -4.354
12 P8 49 0.041
12 P8 50 1.506
12 P8 51 0.529
12 P8 52 -1.912
12 P8 53 -4.842
12 P8 54 -5.819
12 P8 55 -5.819
12 P8 56 -4.842
12 P8 57 -4.354
12 P8 58 -4.842
12 P8 59 -5.330
12 P8 60 -5.819
12 P8 61 -6.307
12 P8 62 -6.795
12 P8 63 -6.795
12 P8 64 -6.795
12 P8 65 -4.842
12 P8 66 -0.448
12 P8 67 3.947
12 P8 68 6.877
12 P8 69 6.388
12 P8 70 2.482
12 P8 71 -2.889
12 P8 72 -7.284
12 P8 73 -8.748
12 P8 74 -7.772
12 P8 75 -5.819
12 P8 76 -4.354
12 P8 77 -2.889
12 P8 78 -1.912
12 P8 79 -0.448
12 P8 80 0.041
12 P8 81 0.529
12 P8 82 0.529
12 P8 83 1.017
12 P8 84 2.482
12 P8 85 4.924
12 P8 86 6.388
12 P8 87 7.853
12 P8 88 7.853
12 P8 89 6.877
12 P8 90 5.412
12 P8 91 4.435
12 P8 92 4.435
12 P8 93 6.388
12 P8 94 8.830
12 P8 95 10.783
12 P8 96 10.783
12 P8 97 8.830
12 P8 98 6.388
12 P8 99 4.924
12 P8 100 4.435
12 P8 101 3.947
12 P8 102 1.994
12 P8 103 -0.936
12 P8 104 -2.889
12 P8 105 -4.354
12 P8 106 -4.842
12 P8 107 -5.330
12 P8 108 -6.795
12 P8 109 -8.260
12 P8 110 -8.260
12 P8 111 -7.284
12 P8 112 -6.795
12 P8 113 -6.795
12 P8 114 -8.260
12 P8 115 -9.237
12 P8 116 -9.237
12 P8 117 -7.284
12 P8 118 -6.795
12 P8 119 -7.772
12 P8 120 -9.725
12 P8 121 -11.678
12 P8 122 -12.166
12 P8 123 -11.678
12 P8 124 -12.166
12 P8 125 -15.096
12 P8 126 -18.026
12 P8 127 -19.002
12 P8 128 -16.561
12 P8 129 -12.655
12 P8 130 -9.237
12 P8 131 -8.748
12 P8 132 -10.213
12 P8 133 -11.678
12 P8 134 -13.143
12 P8 135 -13.143
12 P8 136 -13.143
12 P8 137 -13.631
12 P8 138 -14.119
12 P8 139 -13.143
12 P8 140 -10.701
12 P8 141 -6.795
12 P8 142 -3.866
12 P8 143 -1.912
12 P8 144 -0.936
12 P8 145 -0.448
12 P8 146 0.041
12 P8 147 1.017
12 P8 148 0.529
12 P8 149 -1.424
12 P8 150 -4.842
12 P8 151 -6.795
12 P8 152 -7.772
12 P8 153 -6.307
12 P8 154 -5.330
12 P8 155 -4.842
12 P8 156 -5.330
12 P8 157 -6.307
12 P8 158 -7.284
12 P8 159 -7.772
12 P8 160 -8.260
12 P8 161 -8.748
12 P8 162 -8.748
12 P8 163 -7.772
12 P8 164 -6.307
12 P8 165 -4.842
12 P8 166 -5.330
12 P8 167 -6.307
12 P8 168 -7.772
12 P8 169 -9.237
12 P8 170 -9.725
12 P8 171 -9.237
12 P8 172 -8.748
12 P8 173 -6.795
12 P8 174 -5.330
12 P8 175 -4.354
12 P8 176 -3.866
12 P8 177 -2.889
12 P8 178 -1.424
12 P8 179 1.017
12 P8 180 2.482
12 P8 181 2.970
12 P8 182 1.506
12 P8 183 -1.912
12 P8 184 -3.866
12 P8 185 -4.842
12 P8 186 -3.866
12 P8 187 -2.889
12 P8 188 -3.377
12 P8 189 -5.819
12 P8 190 -9.237
12 P8 191 -12.166
12 P8 192 -14.119
12 P8 193 -14.608
12 P8 194 -15.096
12 P8 195 -14.608
12 P8 196 -14.119
12 P8 197 -13.143
12 P8 198 -12.166
12 P8 199 -11.678
12 P8 200 -11.190
12 P8 201 -10.701
12 P8 202 -11.678
12 P8 203 -12.655
12 P8 204 -12.655
12 P8 205 -13.143
12 P8 206 -13.143
12 P8 207 -14.119
12 P8 208 -15.584
12 P8 209 -17.537
12 P8 210 -18.514
12 P8 211 -17.537
12 P8 212 -16.073
12 P8 213 -15.096
12 P8 214 -17.049
12 P8 215 -19.979
12 P8 216 -22.909
12 P8 217 -22.909
12 P8 218 -20.955
12 P8 219 -17.537
12 P8 220 -15.096
12 P8 221 -13.143
12 P8 222 -11.678
12 P8 223 -10.213
12 P8 224 -9.725
12 P8 225 -11.190
12 P8 226 -14.608
12 P8 227 -18.514
12 P8 228 -21.444
12 P8 229 -21.932
12 P8 230 -19.491
12 P8 231 -15.584
12 P8 232 -11.678
12 P8 233 -8.748
12 P8 234 -8.260
12 P8 235 -8.748
12 P8 236 -9.237
12 P8 237 -9.725
12 P8 238 -9.725
12 P8 239 -9.237
12 P8 240 -9.237
12 P8 241 -8.748
12 P8 242 -7.284
12 P8 243 -5.330
12 P8 244 -2.401
12 P8 245 -0.448
12 P8 246 0.041
12 P8 247 -0.936
12 P8 248 -2.401
12 P8 249 -3.866
12 P8 250 -4.354
12 P8 251 -4.354
12 P8 252 -4.842
12 P8 253 -5.819
12 P8 254 -5.819
12 P8 255 -4.354
# P7 chan 26
12 P7 0 -2.096
12 P7 1 -3.560
12 P7 2 -5.025
12 P7 3 -5.514
12 P7 4 -5.025
12 P7 5 -3.072
12 P7 6 -0.142
12 P7 7 3.764
12 P7 8 6.694
12 P7 9 8.158
12 P7 10 7.182
12 P7 11 4.740
12 P7 12 0.834
12 P7 13 -3.072
12 P7 14 -6.002
12 P7 15 -8.443
12 P7 16 -10.396
12 P7 17 -10.396
12 P7 18 -7.467
12 P7 19 -2.096
12 P7 20 4.740
12 P7 21 11.576
12 P7 22 16.459
12 P7 23 17.924
12 P7 24 16.947
12 P7 25 14.506
12 P7 26 12.553
12 P7 27 10.111
12 P7 28 7.670
12 P7 29 5.717
12 P7 30 4.252
12 P7 31 3.764
12 P7 32 2.787
12 P7 33 0.834
12 P7 34 -1.607
12 P7 35 -4.537
12 P7 36 -6.002
12 P7 37 -6.490
12 P7 38 -6.490
12 P7 39 -7.467
12 P7 40 -9.908
12 P7 41 -11.861
12 P7 42 -12.349
12 P7 43 -10.396
12 P7 44 -6.978
12 P7 45 -3.072
12 P7 46 -0.631
12 P7 47 0.346
12 P7 48 0.834
12 P7 49 2.299
12 P7 50 3.764
12 P7 51 4.252
12 P7 52 2.787
12 P7 53 0.346
12 P7 54 -2.096
12 P7 55 -3.072
12 P7 56 -4.049
12 P7 57 -4.537
12 P7 58 -6.002
12 P7 59 -6.002
12 P7 60 -5.514
12 P7 61 -3.560
12 P7 62 -1.607
12 P7 63 -2.096
12 P7 64 -2.584
12 P7 65 -2.584
12 P7 66 -1.119
12 P7 67 1.811
12 P7 68 4.252
12 P7 69 4.252
12 P7 70 2.299
12 P7 71 -0.631
12 P7 72 -3.072
12 P7 73 -4.537
12 P7 74 -4.537
12 P7 75 -3.560
12 P7 76 -1.607
12 P7 77 0.834
12 P7 78 2.787
12 P7 79 3.764
12 P7 80 3.764
12 P7 81 3.276
12 P7 82 3.276
12 P7 83 4.252
12 P7 84 5.717
12 P7 85 7.670
12 P7 86 8.647
12 P7 87 9.623
12 P7 88 9.135
12 P7 89 8.647
12 P7 90 7.182
12 P7 91 5.229
12 P7 92 3.276
12 P7 93 2.299
12 P7 94 2.787
12 P7 95 3.764
12 P7 96 4.740
12 P7 97 4.740
12 P7 98 3.276
12 P7 99 0.346
12 P7 100 -2.584
12 P7 101 -4.049
12 P7 102 -3.560
12 P7 103 -1.607
12 P7 104 0.834
12 P7 105 2.299
12 P7 106 0.834
12 P7 107 -2.096
12 P7 108 -4.537
12 P7 109 -5.514
12 P7 110 -4.049
12 P7 111 -1.607
12 P7 112 0.346
12 P7 113 0.834
12 P7 114 -1.119
12 P7 115 -3.072
12 P7 116 -4.537
12 P7 117 -5.025
12 P7 118 -6.490
12 P7 119 -7.467
12 P7 120 -8.443
12 P7 121 -8.443
12 P7 122 -7.955
12 P7 123 -7.955
12 P7 124 -8.931
12 P7 125 -10.885
12 P7 126 -11.861
12 P7 127 -11.373
12 P7 128 -9.420
12 P7 129 -7.955
12 P7 130 -7.955
12 P7 131 -9.908
12 P7 132 -10.885
12 P7 133 -10.885
12 P7 134 -10.396
12 P7 135 -10.396
12 P7 136 -11.861
12 P7 137 -12.349
12 P7 138 -11.373
12 P7 139 -7.955
12 P7 140 -4.049
12 P7 141 -0.631
12 P7 142 0.834
12 P7 143 1.322
12 P7 144 2.299
12 P7 145 3.276
12 P7 146 4.252
12 P7 147 3.764
12 P7 148 1.322
12 P7 149 -1.119
12 P7 150 -3.560
12 P7 151 -6.002
12 P7 152 -9.420
12 P7 153 -12.838
12 P7 154 -14.791
12 P7 155 -12.838
12 P7 156 -7.955
12 P7 157 -3.072
12 P7 158 -2.096
12 P7 159 -4.049
12 P7 160 -6.490
12 P7 161 -6.978
12 P7 162 -4.049
12 P7 163 -0.631
12 P7 164 1.322
12 P7 165 0.346
12 P7 166 -1.607
12 P7 167 -3.560
12 P7 168 -5.025
12 P7 169 -6.978
12 P7 170 -8.443
12 P7 171 -8.931
12 P7 172 -6.490
12 P7 173 -2.584
12 P7 174 -0.142
12 P7 175 -0.142
12 P7 176 -3.560
12 P7 177 -6.978
12 P7 178 -7.467
12 P7 179 -5.514
12 P7 180 -3.072
12 P7 181 -2.584
12 P7 182 -5.514
12 P7 183 -8.931
12 P7 184 -9.908
12 P7 185 -7.955
12 P7 186 -3.560
12 P7 187 -0.631
12 P7 188 -0.142
12 P7 189 -2.584
12 P7 190 -6.002
12 P7 191 -8.443
12 P7 192 -9.420
12 P7 193 -9.908
12 P7 194 -9.908
12 P7 195 -9.420
12 P7 196 -9.420
12 P7 197 -9.420
12 P7 198 -9.908
12 P7 199 -10.396
12 P7 200 -9.908
12 P7 201 -8.931
12 P7 202 -8.443
12 P7 203 -8.443
12 P7 204 -8.931
12 P7 205 -9.908
12 P7 206 -11.373
12 P7 207 -11.861
12 P7 208 -10.885
12 P7 209 -9.420
12 P7 210 -7.467
12 P7 211 -6.490
12 P7 212 -8.443
12 P7 213 -11.373
12 P7 214 -14.791
12 P7 215 -16.744
12 P7 216 -16.744
12 P7 217 -15.279
12 P7 218 -13.326
12 P7 219 -11.373
12 P7 220 -9.420
12 P7 221 -6.978
12 P7 222 -5.514
12 P7 223 -5.514
12 P7 224 -7.955
12 P7 225 -13.326
12 P7 226 -19.674
12 P7 227 -24.556
12 P7 228 -25.533
12 P7 229 -23.092
12 P7 230 -17.721
12 P7 231 -11.373
12 P7 232 -6.978
12 P7 233 -4.049
12 P7 234 -3.560
12 P7 235 -3.560
12 P7 236 -4.049
12 P7 237 -4.537
12 P7 238 -4.537
12 P7 239 -5.025
12 P7 240 -6.002
12 P7 241 -8.931
12 P7 242 -11.373
12 P7 243 -11.861
12 P7 244 -9.420
12 P7 245 -5.514
12 P7 246 -2.584
12 P7 247 -2.584
12 P7 248 -6.002
12 P7 249 -10.396
12 P7 250 -13.814
12 P7 251 -14.791
12 P7 252 -12.838
12 P7 253 -8.931
12 P7 254 -4.537
12 P7 255 -1.607
# PO2 chan 27
12 PO2 0 2.035
12 PO2 1 -2.360
12 PO2 2 -7.243
12 PO2 3 -11.637
12 PO2 4 -13.590
12 PO2 5 -13.102
12 PO2 6 -10.661
12 PO2 7 -7.731
12 PO2 8 -3.825
12 PO2 9 1.058
12 PO2 10 5.452
12 PO2 11 7.894
12 PO2 12 8.870
12 PO2 13 7.894
12 PO2 14 6.429
12 PO2 15 4.476
12 PO2 16 2.035
12 PO2 17 -0.895
12 PO2 18 -3.337
12 PO2 19 -3.825
12 PO2 20 -2.360
12 PO2 21 -0.895
12 PO2 22 0.081
12 PO2 23 0.081
12 PO2 24 -0.895
12 PO2 25 -1.383
12 PO2 26 -1.872
12 PO2 27 -2.848
12 PO2 28 -4.801
12 PO2 29 -6.266
12 PO2 30 -6.755
12 PO2 31 -5.778
12 PO2 32 -5.290
12 PO2 33 -6.266
12 PO2 34 -8.219
12 PO2 35 -9.196
12 PO2 36 -9.196
12 PO2 37 -9.196
12 PO2 38 -10.173
12 PO2 39 -11.637
12 PO2 40 -13.590
12 PO2 41 -14.567
12 PO2 42 -14.567
12 PO2 43 -14.567
12 PO2 44 -14.567
12 PO2 45 -14.567
12 PO2 46 -11.637
12 PO2 47 -7.243
12 PO2 48 -1.872
12 PO2 49 2.523
12 PO2 50 3.988
12 PO2 51 3.988
12 PO2 52 2.523
12 PO2 53 1.546
12 PO2 54 1.058
12 PO2 55 1.546
12 PO2 56 2.523
12 PO2 57 2.035
12 PO2 58 1.546
12 PO2 59 1.058
12 PO2 60 0.570
12 PO2 61 2.035
12 PO2 62 2.523
12 PO2 63 2.035
12 PO2 64 1.546
12 PO2 65 1.546
12 PO2 66 3.011
12 PO2 67 5.941
12 PO2 68 7.406
12 PO2 69 6.429
12 PO2 70 3.011
12 PO2 71 -0.895
12 PO2 72 -2.848
12 PO2 73 -1.872
12 PO2 74 0.570
12 PO2 75 1.546
12 PO2 76 1.546
12 PO2 77 1.058
12 PO2 78 2.035
12 PO2 79 3.499
12 PO2 80 4.964
12 PO2 81 4.476
12 PO2 82 3.011
12 PO2 83 1.546
12 PO2 84 1.546
12 PO2 85 3.499
12 PO2 86 5.941
12 PO2 87 8.382
12 PO2 88 9.847
12 PO2 89 9.359
12 PO2 90 7.894
12 PO2 91 5.941
12 PO2 92 6.429
12 PO2 93 8.382
12 PO2 94 11.800
12 PO2 95 14.242
12 PO2 96 14.730
12 PO2 97 12.777
12 PO2 98 10.824
12 PO2 99 9.847
12 PO2 100 9.359
12 PO2 101 7.894
12 PO2 102 6.429
12 PO2 103 3.988
12 PO2 104 2.523
12 PO2 105 2.523
12 PO2 106 3.011
12 PO2 107 3.011
12 PO2 108 2.035
12 PO2 109 0.081
12 PO2 110 -0.895
12 PO2 111 -0.407
12 PO2 112 1.546
12 PO2 113 3.499
12 PO2 114 3.988
12 PO2 115 3.011
12 PO2 116 1.546
12 PO2 117 1.058
12 PO2 118 1.058
12 PO2 119 1.058
12 PO2 120 1.058
12 PO2 121 1.058
12 PO2 122 1.058
12 PO2 123 0.570
12 PO2 124 -1.383
12 PO2 125 -5.290
12 PO2 126 -9.196
12 PO2 127 -10.661
12 PO2 128 -9.684
12 PO2 129 -6.755
12 PO2 130 -4.313
12 PO2 131 -4.801
12 PO2 132 -6.266
12 PO2 133 -7.731
12 PO2 134 -7.243
12 PO2 135 -6.755
12 PO2 136 -6.266
12 PO2 137 -7.731
12 PO2 138 -8.708
12 PO2 139 -8.219
12 PO2 140 -4.801
12 PO2 141 0.570
12 PO2 142 4.964
12 PO2 143 6.429
12 PO2 144 5.941
12 PO2 145 6.429
12 PO2 146 7.894
12 PO2 147 9.359
12 PO2 148 8.382
12 PO2 149 3.988
12 PO2 150 -1.383
12 PO2 151 -4.801
12 PO2 152 -5.290
12 PO2 153 -3.337
12 PO2 154 -1.383
12 PO2 155 -0.407
12 PO2 156 -0.895
12 PO2 157 -1.383
12 PO2 158 -2.360
12 PO2 159 -3.337
12 PO2 160 -4.313
12 PO2 161 -4.801
12 PO2 162 -3.825
12 PO2 163 -1.872
12 PO2 164 -0.407
12 PO2 165 0.081
12 PO2 166 -0.895
12 PO2 167 -2.848
12 PO2 168 -4.313
12 PO2 169 -5.290
12 PO2 170 -5.290
12 PO2 171 -4.313
12 PO2 172 -2.848
12 PO2 173 -1.872
12 PO2 174 -2.360
12 PO2 175 -3.825
12 PO2 176 -5.778
12 PO2 177 -5.778
12 PO2 178 -3.825
12 PO2 179 0.081
12 PO2 180 2.523
12 PO2 181 2.523
12 PO2 182 -0.407
12 PO2 183 -3.337
12 PO2 184 -4.313
12 PO2 185 -3.337
12 PO2 186 -1.383
12 PO2 187 -0.895
12 PO2 188 -2.848
12 PO2 189 -5.778
12 PO2 190 -9.684
12 PO2 191 -12.126
12 PO2 192 -13.590
12 PO2 193 -14.079
12 PO2 194 -14.079
12 PO2 195 -13.102
12 PO2 196 -11.637
12 PO2 197 -10.661
12 PO2 198 -9.196
12 PO2 199 -8.708
12 PO2 200 -8.219
12 PO2 201 -7.731
12 PO2 202 -7.243
12 PO2 203 -6.755
12 PO2 204 -6.755
12 PO2 205 -6.266
12 PO2 206 -6.266
12 PO2 207 -6.755
12 PO2 208 -9.196
12 PO2 209 -11.637
12 PO2 210 -11.637
12 PO2 211 -10.173
12 PO2 212 -8.219
12 PO2 213 -9.196
12 PO2 214 -11.637
12 PO2 215 -16.032
12 PO2 216 -18.473
