# co2c0000351.rd
# 120 trials, 64 chans, 416 samples 368 post_stim samples
# 3.906000 msecs uV
# S1 obj , trial 44
# FP1 chan 0
44 FP1 0 -11.312
44 FP1 1 -22.542
44 FP1 2 -22.542
44 FP1 3 -13.265
44 FP1 4 -2.523
44 FP1 5 0.895
44 FP1 6 -4.476
44 FP1 7 -12.777
44 FP1 8 -16.683
44 FP1 9 -11.800
44 FP1 10 -2.035
44 FP1 11 5.290
44 FP1 12 5.778
44 FP1 13 0.895
44 FP1 14 -4.476
44 FP1 15 -4.964
44 FP1 16 -1.546
44 FP1 17 1.872
44 FP1 18 2.360
44 FP1 19 -0.081
44 FP1 20 -2.523
44 FP1 21 -3.988
44 FP1 22 -3.499
44 FP1 23 -3.988
44 FP1 24 -5.941
44 FP1 25 -9.359
44 FP1 26 -11.800
44 FP1 27 -11.800
44 FP1 28 -10.335
44 FP1 29 -8.382
44 FP1 30 -7.406
44 FP1 31 -6.917
44 FP1 32 -6.429
44 FP1 33 -5.452
44 FP1 34 -5.941
44 FP1 35 -7.406
44 FP1 36 -9.847
44 FP1 37 -10.335
44 FP1 38 -8.870
44 FP1 39 -5.452
44 FP1 40 -3.011
44 FP1 41 -4.964
44 FP1 42 -9.359
44 FP1 43 -13.753
44 FP1 44 -13.265
44 FP1 45 -8.870
44 FP1 46 -2.523
44 FP1 47 0.895
44 FP1 48 -1.546
44 FP1 49 -7.406
44 FP1 50 -10.824
44 FP1 51 -9.847
44 FP1 52 -4.964
44 FP1 53 -1.546
44 FP1 54 -1.546
44 FP1 55 -5.941
44 FP1 56 -10.824
44 FP1 57 -12.288
44 FP1 58 -10.335
44 FP1 59 -5.941
44 FP1 60 -3.499
44 FP1 61 -3.499
44 FP1 62 -5.452
44 FP1 63 -7.894
44 FP1 64 -10.335
44 FP1 65 -14.242
44 FP1 66 -18.636
44 FP1 67 -24.007
44 FP1 68 -26.937
44 FP1 69 -26.449
44 FP1 70 -23.519
44 FP1 71 -20.589
44 FP1 72 -19.124
44 FP1 73 -20.101
44 FP1 74 -21.077
44 FP1 75 -21.077
44 FP1 76 -19.613
44 FP1 77 -17.171
44 FP1 78 -15.706
44 FP1 79 -13.753
44 FP1 80 -10.335
44 FP1 81 -5.941
44 FP1 82 -2.523
44 FP1 83 -2.523
44 FP1 84 -6.429
44 FP1 85 -13.265
44 FP1 86 -18.636
44 FP1 87 -20.589
44 FP1 88 -19.124
44 FP1 89 -16.195
44 FP1 90 -14.730
44 FP1 91 -15.706
44 FP1 92 -18.636
44 FP1 93 -21.077
44 FP1 94 -23.031
44 FP1 95 -24.007
44 FP1 96 -23.519
44 FP1 97 -22.542
44 FP1 98 -20.101
44 FP1 99 -16.683
44 FP1 100 -13.265
44 FP1 101 -11.312
44 FP1 102 -10.335
44 FP1 103 -11.312
44 FP1 104 -12.288
44 FP1 105 -12.777
44 FP1 106 -11.312
44 FP1 107 -8.382
44 FP1 108 -5.941
44 FP1 109 -4.476
44 FP1 110 -6.429
44 FP1 111 -10.824
44 FP1 112 -16.195
44 FP1 113 -21.077
44 FP1 114 -24.984
44 FP1 115 -27.913
44 FP1 116 -31.331
44 FP1 117 -34.749
44 FP1 118 -38.167
44 FP1 119 -39.632
44 FP1 120 -39.144
44 FP1 121 -37.191
44 FP1 122 -35.238
44 FP1 123 -32.796
44 FP1 124 -29.867
44 FP1 125 -24.984
44 FP1 126 -19.613
44 FP1 127 -13.753
44 FP1 128 -8.382
44 FP1 129 -4.476
44 FP1 130 -1.058
44 FP1 131 1.383
44 FP1 132 3.825
44 FP1 133 5.290
44 FP1 134 5.290
44 FP1 135 4.313
44 FP1 136 1.872
44 FP1 137 -0.570
44 FP1 138 -3.011
44 FP1 139 -4.964
44 FP1 140 -8.382
44 FP1 141 -13.753
44 FP1 142 -20.101
44 FP1 143 -24.984
44 FP1 144 -27.425
44 FP1 145 -27.425
44 FP1 146 -26.937
44 FP1 147 -28.402
44 FP1 148 -33.773
44 FP1 149 -40.120
44 FP1 150 -45.003
44 FP1 151 -45.492
44 FP1 152 -41.585
44 FP1 153 -37.679
44 FP1 154 -35.238
44 FP1 155 -35.238
44 FP1 156 -36.702
44 FP1 157 -36.702
44 FP1 158 -34.261
44 FP1 159 -29.378
44 FP1 160 -24.495
44 FP1 161 -20.589
44 FP1 162 -18.636
44 FP1 163 -16.683
44 FP1 164 -14.242
44 FP1 165 -10.335
44 FP1 166 -6.429
44 FP1 167 -3.011
44 FP1 168 -0.570
44 FP1 169 0.895
44 FP1 170 0.895
44 FP1 171 0.407
44 FP1 172 -0.081
44 FP1 173 -0.570
44 FP1 174 -1.058
44 FP1 175 -2.035
44 FP1 176 -4.476
44 FP1 177 -8.382
44 FP1 178 -12.777
44 FP1 179 -16.195
44 FP1 180 -17.660
44 FP1 181 -18.636
44 FP1 182 -20.101
44 FP1 183 -24.007
44 FP1 184 -30.355
44 FP1 185 -36.702
44 FP1 186 -38.656
44 FP1 187 -35.726
44 FP1 188 -28.890
44 FP1 189 -22.542
44 FP1 190 -20.101
44 FP1 191 -20.589
44 FP1 192 -22.542
44 FP1 193 -22.054
44 FP1 194 -17.660
44 FP1 195 -12.288
44 FP1 196 -8.382
44 FP1 197 -6.429
44 FP1 198 -5.941
44 FP1 199 -3.988
44 FP1 200 -0.081
44 FP1 201 4.801
44 FP1 202 7.731
44 FP1 203 7.731
44 FP1 204 5.290
44 FP1 205 3.337
44 FP1 206 3.337
44 FP1 207 5.290
44 FP1 208 6.755
44 FP1 209 6.266
44 FP1 210 1.872
44 FP1 211 -4.476
44 FP1 212 -8.382
44 FP1 213 -10.335
44 FP1 214 -8.382
44 FP1 215 -6.917
44 FP1 216 -7.894
44 FP1 217 -12.777
44 FP1 218 -18.636
44 FP1 219 -22.542
44 FP1 220 -22.542
44 FP1 221 -19.124
44 FP1 222 -14.242
44 FP1 223 -10.824
44 FP1 224 -8.382
44 FP1 225 -6.429
44 FP1 226 -5.452
44 FP1 227 -5.452
44 FP1 228 -7.894
44 FP1 229 -12.288
44 FP1 230 -16.195
44 FP1 231 -19.613
44 FP1 232 -22.542
44 FP1 233 -25.472
44 FP1 234 -29.378
44 FP1 235 -32.308
44 FP1 236 -33.773
44 FP1 237 -33.285
44 FP1 238 -31.820
44 FP1 239 -31.820
44 FP1 240 -32.796
44 FP1 241 -33.773
44 FP1 242 -31.820
44 FP1 243 -27.913
44 FP1 244 -24.495
44 FP1 245 -23.031
44 FP1 246 -23.031
44 FP1 247 -23.031
44 FP1 248 -21.077
44 FP1 249 -17.660
44 FP1 250 -14.242
44 FP1 251 -11.312
44 FP1 252 -10.335
44 FP1 253 -8.870
44 FP1 254 -5.941
44 FP1 255 -2.035
# FP2 chan 1
44 FP2 0 -7.202
44 FP2 1 -11.597
44 FP2 2 -9.155
44 FP2 3 -2.808
44 FP2 4 2.563
44 FP2 5 4.028
44 FP2 6 1.587
44 FP2 7 -1.343
44 FP2 8 -2.319
44 FP2 9 -0.854
44 FP2 10 1.587
44 FP2 11 2.563
44 FP2 12 2.075
44 FP2 13 0.610
44 FP2 14 1.099
44 FP2 15 3.540
44 FP2 16 5.981
44 FP2 17 6.470
44 FP2 18 4.028
44 FP2 19 -1.343
44 FP2 20 -5.737
44 FP2 21 -7.202
44 FP2 22 -6.226
44 FP2 23 -3.784
44 FP2 24 -3.784
44 FP2 25 -6.714
44 FP2 26 -10.132
44 FP2 27 -12.085
44 FP2 28 -11.108
44 FP2 29 -8.179
44 FP2 30 -4.761
44 FP2 31 -2.808
44 FP2 32 -3.296
44 FP2 33 -4.761
44 FP2 34 -4.761
44 FP2 35 -3.784
44 FP2 36 -1.831
44 FP2 37 0.122
44 FP2 38 0.610
44 FP2 39 -0.854
44 FP2 40 -2.808
44 FP2 41 -3.296
44 FP2 42 -1.831
44 FP2 43 0.610
44 FP2 44 2.075
44 FP2 45 2.075
44 FP2 46 0.122
44 FP2 47 -1.343
44 FP2 48 -1.831
44 FP2 49 -0.854
44 FP2 50 0.122
44 FP2 51 -0.854
44 FP2 52 -2.319
44 FP2 53 -4.272
44 FP2 54 -5.737
44 FP2 55 -7.202
44 FP2 56 -8.667
44 FP2 57 -10.620
44 FP2 58 -10.620
44 FP2 59 -7.202
44 FP2 60 -1.343
44 FP2 61 3.540
44 FP2 62 4.028
44 FP2 63 -0.854
44 FP2 64 -9.155
44 FP2 65 -16.968
44 FP2 66 -21.362
44 FP2 67 -21.851
44 FP2 68 -19.897
44 FP2 69 -17.944
44 FP2 70 -15.991
44 FP2 71 -15.015
44 FP2 72 -13.550
44 FP2 73 -12.573
44 FP2 74 -12.573
44 FP2 75 -13.062
44 FP2 76 -14.038
44 FP2 77 -14.526
44 FP2 78 -14.038
44 FP2 79 -12.573
44 FP2 80 -10.132
44 FP2 81 -6.714
44 FP2 82 -2.808
44 FP2 83 -0.366
44 FP2 84 -0.366
44 FP2 85 -3.296
44 FP2 86 -7.690
44 FP2 87 -12.085
44 FP2 88 -14.526
44 FP2 89 -14.526
44 FP2 90 -14.038
44 FP2 91 -14.038
44 FP2 92 -15.503
44 FP2 93 -16.968
44 FP2 94 -17.944
44 FP2 95 -16.968
44 FP2 96 -14.038
44 FP2 97 -11.108
44 FP2 98 -8.179
44 FP2 99 -6.226
44 FP2 100 -5.249
44 FP2 101 -4.272
44 FP2 102 -3.296
44 FP2 103 -2.319
44 FP2 104 -0.366
44 FP2 105 1.587
44 FP2 106 2.563
44 FP2 107 2.563
44 FP2 108 0.610
44 FP2 109 -2.808
44 FP2 110 -6.714
44 FP2 111 -9.644
44 FP2 112 -10.620
44 FP2 113 -11.108
44 FP2 114 -12.085
44 FP2 115 -15.015
44 FP2 116 -19.897
44 FP2 117 -24.780
44 FP2 118 -28.198
44 FP2 119 -29.175
44 FP2 120 -28.198
44 FP2 121 -27.222
44 FP2 122 -26.245
44 FP2 123 -25.757
44 FP2 124 -24.292
44 FP2 125 -19.897
44 FP2 126 -14.038
44 FP2 127 -7.690
44 FP2 128 -1.831
44 FP2 129 2.075
44 FP2 130 5.005
44 FP2 131 7.446
44 FP2 132 9.888
44 FP2 133 12.329
44 FP2 134 13.306
44 FP2 135 12.817
44 FP2 136 10.376
44 FP2 137 6.958
44 FP2 138 3.540
44 FP2 139 0.610
44 FP2 140 -1.343
44 FP2 141 -2.808
44 FP2 142 -4.272
44 FP2 143 -5.737
44 FP2 144 -8.667
44 FP2 145 -12.573
44 FP2 146 -17.944
44 FP2 147 -23.315
44 FP2 148 -28.198
44 FP2 149 -31.616
44 FP2 150 -33.081
44 FP2 151 -32.593
44 FP2 152 -30.151
44 FP2 153 -27.222
44 FP2 154 -25.757
44 FP2 155 -26.245
44 FP2 156 -27.710
44 FP2 157 -29.175
44 FP2 158 -27.222
44 FP2 159 -22.827
44 FP2 160 -16.968
44 FP2 161 -12.573
44 FP2 162 -11.597
44 FP2 163 -11.597
44 FP2 164 -11.108
44 FP2 165 -8.667
44 FP2 166 -4.761
44 FP2 167 -1.831
44 FP2 168 -0.854
44 FP2 169 -0.366
44 FP2 170 1.587
44 FP2 171 5.981
44 FP2 172 9.888
44 FP2 173 10.376
44 FP2 174 6.958
44 FP2 175 0.610
44 FP2 176 -4.761
44 FP2 177 -6.714
44 FP2 178 -4.761
44 FP2 179 -3.784
44 FP2 180 -6.226
44 FP2 181 -13.062
44 FP2 182 -22.339
44 FP2 183 -29.175
44 FP2 184 -30.640
44 FP2 185 -27.710
44 FP2 186 -21.851
44 FP2 187 -17.456
44 FP2 188 -16.479
44 FP2 189 -17.944
44 FP2 190 -19.409
44 FP2 191 -19.897
44 FP2 192 -18.433
44 FP2 193 -15.991
44 FP2 194 -12.573
44 FP2 195 -8.667
44 FP2 196 -5.249
44 FP2 197 -2.319
44 FP2 198 -0.366
44 FP2 199 1.099
44 FP2 200 2.075
44 FP2 201 4.028
44 FP2 202 6.470
44 FP2 203 8.423
44 FP2 204 9.399
44 FP2 205 8.423
44 FP2 206 6.958
44 FP2 207 5.493
44 FP2 208 5.493
44 FP2 209 6.470
44 FP2 210 6.958
44 FP2 211 5.005
44 FP2 212 1.099
44 FP2 213 -3.784
44 FP2 214 -6.714
44 FP2 215 -6.714
44 FP2 216 -6.226
44 FP2 217 -7.202
44 FP2 218 -10.620
44 FP2 219 -15.503
44 FP2 220 -17.456
44 FP2 221 -15.015
44 FP2 222 -8.179
44 FP2 223 -0.366
44 FP2 224 5.493
44 FP2 225 5.981
44 FP2 226 2.563
44 FP2 227 -2.808
44 FP2 228 -7.690
44 FP2 229 -10.132
44 FP2 230 -10.132
44 FP2 231 -9.155
44 FP2 232 -9.155
44 FP2 233 -13.062
44 FP2 234 -18.921
44 FP2 235 -24.780
44 FP2 236 -27.710
44 FP2 237 -27.222
44 FP2 238 -25.269
44 FP2 239 -23.315
44 FP2 240 -22.827
44 FP2 241 -23.804
44 FP2 242 -24.292
44 FP2 243 -22.827
44 FP2 244 -20.386
44 FP2 245 -16.968
44 FP2 246 -14.038
44 FP2 247 -11.108
44 FP2 248 -8.667
44 FP2 249 -7.202
44 FP2 250 -7.202
44 FP2 251 -7.690
44 FP2 252 -8.667
44 FP2 253 -8.179
44 FP2 254 -5.737
44 FP2 255 -2.319
# F7 chan 2
44 F7 0 -5.361
44 F7 1 -6.826
44 F7 2 -6.826
44 F7 3 -4.873
44 F7 4 -3.408
44 F7 5 -2.920
44 F7 6 -4.384
44 F7 7 -5.849
44 F7 8 -5.849
44 F7 9 -3.896
44 F7 10 -1.455
44 F7 11 -0.478
44 F7 12 -0.966
44 F7 13 -2.431
44 F7 14 -2.920
44 F7 15 -0.478
44 F7 16 2.452
44 F7 17 4.893
44 F7 18 4.893
44 F7 19 3.916
44 F7 20 1.963
44 F7 21 0.498
44 F7 22 -0.478
44 F7 23 -2.431
44 F7 24 -5.361
44 F7 25 -9.267
44 F7 26 -11.709
44 F7 27 -12.685
44 F7 28 -11.220
44 F7 29 -8.291
44 F7 30 -6.337
44 F7 31 -5.361
44 F7 32 -5.849
44 F7 33 -6.337
44 F7 34 -6.826
44 F7 35 -7.314
44 F7 36 -6.337
44 F7 37 -4.873
44 F7 38 -2.920
44 F7 39 -1.455
44 F7 40 -0.478
44 F7 41 -0.966
44 F7 42 -1.943
44 F7 43 -3.896
44 F7 44 -5.361
44 F7 45 -5.849
44 F7 46 -6.826
44 F7 47 -7.314
44 F7 48 -6.826
44 F7 49 -5.849
44 F7 50 -3.408
44 F7 51 -0.478
44 F7 52 1.475
44 F7 53 0.987
44 F7 54 -1.943
44 F7 55 -4.873
44 F7 56 -6.826
44 F7 57 -7.314
44 F7 58 -5.849
44 F7 59 -3.408
44 F7 60 -2.431
44 F7 61 -2.431
44 F7 62 -3.896
44 F7 63 -7.314
44 F7 64 -11.709
44 F7 65 -15.615
44 F7 66 -19.521
44 F7 67 -20.986
44 F7 68 -20.986
44 F7 69 -20.009
44 F7 70 -18.545
44 F7 71 -17.568
44 F7 72 -16.591
44 F7 73 -15.127
44 F7 74 -13.662
44 F7 75 -11.709
44 F7 76 -8.779
44 F7 77 -6.337
44 F7 78 -3.896
44 F7 79 -1.455
44 F7 80 0.987
44 F7 81 2.452
44 F7 82 2.940
44 F7 83 2.940
44 F7 84 2.452
44 F7 85 0.498
44 F7 86 -1.943
44 F7 87 -4.384
44 F7 88 -6.826
44 F7 89 -9.267
44 F7 90 -12.197
44 F7 91 -15.615
44 F7 92 -19.033
44 F7 93 -21.962
44 F7 94 -24.404
44 F7 95 -25.380
44 F7 96 -24.892
44 F7 97 -24.404
44 F7 98 -23.916
44 F7 99 -22.451
44 F7 100 -20.498
44 F7 101 -17.080
44 F7 102 -13.173
44 F7 103 -9.755
44 F7 104 -7.314
44 F7 105 -5.849
44 F7 106 -3.896
44 F7 107 -0.478
44 F7 108 4.405
44 F7 109 7.823
44 F7 110 9.288
44 F7 111 8.311
44 F7 112 5.381
44 F7 113 2.940
44 F7 114 0.498
44 F7 115 -1.943
44 F7 116 -5.361
44 F7 117 -9.267
44 F7 118 -12.685
44 F7 119 -14.638
44 F7 120 -14.638
44 F7 121 -14.638
44 F7 122 -15.127
44 F7 123 -16.591
44 F7 124 -17.080
44 F7 125 -16.591
44 F7 126 -14.150
44 F7 127 -11.709
44 F7 128 -9.755
44 F7 129 -9.267
44 F7 130 -8.779
44 F7 131 -8.291
44 F7 132 -7.802
44 F7 133 -6.826
44 F7 134 -6.826
44 F7 135 -7.802
44 F7 136 -8.291
44 F7 137 -8.291
44 F7 138 -8.291
44 F7 139 -8.291
44 F7 140 -9.267
44 F7 141 -11.709
44 F7 142 -13.662
44 F7 143 -15.615
44 F7 144 -16.103
44 F7 145 -15.615
44 F7 146 -15.615
44 F7 147 -16.103
44 F7 148 -17.568
44 F7 149 -19.033
44 F7 150 -19.521
44 F7 151 -19.521
44 F7 152 -19.521
44 F7 153 -19.521
44 F7 154 -20.009
44 F7 155 -20.498
44 F7 156 -20.498
44 F7 157 -18.545
44 F7 158 -15.615
44 F7 159 -12.685
44 F7 160 -10.244
44 F7 161 -8.779
44 F7 162 -7.314
44 F7 163 -5.849
44 F7 164 -3.896
44 F7 165 -1.943
44 F7 166 -1.455
44 F7 167 -1.943
44 F7 168 -2.920
44 F7 169 -3.896
44 F7 170 -3.408
44 F7 171 -1.943
44 F7 172 -0.966
44 F7 173 -1.943
44 F7 174 -4.384
44 F7 175 -7.802
44 F7 176 -10.244
44 F7 177 -11.709
44 F7 178 -12.197
44 F7 179 -13.662
44 F7 180 -15.615
44 F7 181 -19.033
44 F7 182 -22.451
44 F7 183 -24.892
44 F7 184 -25.869
44 F7 185 -25.380
44 F7 186 -24.404
44 F7 187 -23.427
44 F7 188 -21.962
44 F7 189 -20.498
44 F7 190 -18.545
44 F7 191 -14.638
44 F7 192 -9.755
44 F7 193 -4.873
44 F7 194 -0.966
44 F7 195 1.963
44 F7 196 4.405
44 F7 197 5.870
44 F7 198 7.823
44 F7 199 10.264
44 F7 200 12.705
44 F7 201 14.170
44 F7 202 15.147
44 F7 203 15.147
44 F7 204 13.682
44 F7 205 11.241
44 F7 206 7.823
44 F7 207 3.428
44 F7 208 -0.478
44 F7 209 -3.896
44 F7 210 -5.849
44 F7 211 -7.314
44 F7 212 -9.755
44 F7 213 -13.662
44 F7 214 -18.545
44 F7 215 -22.939
44 F7 216 -26.845
44 F7 217 -29.287
44 F7 218 -30.263
44 F7 219 -31.240
44 F7 220 -30.263
44 F7 221 -28.798
44 F7 222 -24.892
44 F7 223 -18.545
44 F7 224 -11.220
44 F7 225 -4.384
44 F7 226 0.010
44 F7 227 0.987
44 F7 228 -1.943
44 F7 229 -5.849
44 F7 230 -8.291
44 F7 231 -9.755
44 F7 232 -10.244
44 F7 233 -10.732
44 F7 234 -12.197
44 F7 235 -14.638
44 F7 236 -16.103
44 F7 237 -16.103
44 F7 238 -16.591
44 F7 239 -18.545
44 F7 240 -21.962
44 F7 241 -25.380
44 F7 242 -27.334
44 F7 243 -25.869
44 F7 244 -22.451
44 F7 245 -19.521
44 F7 246 -18.056
44 F7 247 -17.568
44 F7 248 -17.568
44 F7 249 -16.591
44 F7 250 -15.127
44 F7 251 -14.150
44 F7 252 -14.150
44 F7 253 -14.150
44 F7 254 -13.662
44 F7 255 -10.244
# F8 chan 3
44 F8 0 -2.075
44 F8 1 -1.587
44 F8 2 0.854
44 F8 3 2.808
44 F8 4 3.296
44 F8 5 1.831
44 F8 6 -0.610
44 F8 7 -0.122
44 F8 8 3.296
44 F8 9 6.714
44 F8 10 7.690
44 F8 11 4.761
44 F8 12 -0.122
44 F8 13 -3.052
44 F8 14 -1.099
44 F8 15 3.784
44 F8 16 8.667
44 F8 17 9.155
44 F8 18 6.714
44 F8 19 3.296
44 F8 20 1.831
44 F8 21 2.808
44 F8 22 4.272
44 F8 23 3.784
44 F8 24 -0.122
44 F8 25 -4.517
44 F8 26 -6.470
44 F8 27 -5.005
44 F8 28 -0.610
44 F8 29 3.296
44 F8 30 3.784
44 F8 31 0.854
44 F8 32 -2.563
44 F8 33 -4.517
44 F8 34 -3.540
44 F8 35 -0.610
44 F8 36 2.319
44 F8 37 5.249
44 F8 38 7.690
44 F8 39 10.132
44 F8 40 11.108
44 F8 41 10.132
44 F8 42 8.179
44 F8 43 6.226
44 F8 44 5.737
44 F8 45 7.202
44 F8 46 8.667
44 F8 47 8.179
44 F8 48 5.737
44 F8 49 2.808
44 F8 50 1.831
44 F8 51 3.296
44 F8 52 5.737
44 F8 53 7.202
44 F8 54 5.737
44 F8 55 2.319
44 F8 56 -1.099
44 F8 57 -1.587
44 F8 58 0.366
44 F8 59 3.296
44 F8 60 5.737
44 F8 61 6.226
44 F8 62 4.272
44 F8 63 1.831
44 F8 64 -1.587
44 F8 65 -3.540
44 F8 66 -5.005
44 F8 67 -5.981
44 F8 68 -6.958
44 F8 69 -6.958
44 F8 70 -6.958
44 F8 71 -6.958
44 F8 72 -5.981
44 F8 73 -5.493
44 F8 74 -5.005
44 F8 75 -5.493
44 F8 76 -5.493
44 F8 77 -4.517
44 F8 78 -2.075
44 F8 79 1.831
44 F8 80 6.226
44 F8 81 9.155
44 F8 82 10.620
44 F8 83 10.132
44 F8 84 9.155
44 F8 85 7.690
44 F8 86 6.226
44 F8 87 4.761
44 F8 88 2.319
44 F8 89 -0.610
44 F8 90 -3.540
44 F8 91 -6.470
44 F8 92 -7.935
44 F8 93 -8.911
44 F8 94 -7.935
44 F8 95 -6.958
44 F8 96 -5.981
44 F8 97 -5.493
44 F8 98 -5.005
44 F8 99 -4.517
44 F8 100 -4.517
44 F8 101 -4.028
44 F8 102 -3.052
44 F8 103 -2.075
44 F8 104 -0.610
44 F8 105 1.343
44 F8 106 3.784
44 F8 107 7.202
44 F8 108 11.108
44 F8 109 13.550
44 F8 110 14.038
44 F8 111 13.550
44 F8 112 13.062
44 F8 113 12.085
44 F8 114 11.108
44 F8 115 8.179
44 F8 116 4.272
44 F8 117 -0.610
44 F8 118 -4.028
44 F8 119 -5.981
44 F8 120 -5.981
44 F8 121 -5.005
44 F8 122 -5.493
44 F8 123 -6.958
44 F8 124 -8.911
44 F8 125 -8.911
44 F8 126 -6.958
44 F8 127 -4.517
44 F8 128 -2.075
44 F8 129 -1.099
44 F8 130 -1.587
44 F8 131 -2.563
44 F8 132 -2.563
44 F8 133 -0.122
44 F8 134 4.761
44 F8 135 9.155
44 F8 136 12.573
44 F8 137 14.038
44 F8 138 14.038
44 F8 139 12.573
44 F8 140 11.597
44 F8 141 10.620
44 F8 142 8.667
44 F8 143 7.202
44 F8 144 4.272
44 F8 145 1.343
44 F8 146 -1.099
44 F8 147 -3.052
44 F8 148 -5.005
44 F8 149 -7.935
44 F8 150 -10.864
44 F8 151 -12.817
44 F8 152 -13.794
44 F8 153 -12.329
44 F8 154 -9.888
44 F8 155 -7.935
44 F8 156 -7.446
44 F8 157 -7.446
44 F8 158 -6.958
44 F8 159 -5.005
44 F8 160 -1.587
44 F8 161 0.366
44 F8 162 -0.122
44 F8 163 -2.075
44 F8 164 -4.028
44 F8 165 -4.517
44 F8 166 -3.052
44 F8 167 -1.099
44 F8 168 1.343
44 F8 169 2.808
44 F8 170 5.737
44 F8 171 9.155
44 F8 172 12.573
44 F8 173 13.550
44 F8 174 11.108
44 F8 175 7.202
44 F8 176 3.296
44 F8 177 0.854
44 F8 178 -0.610
44 F8 179 -2.075
44 F8 180 -5.493
44 F8 181 -10.864
44 F8 182 -15.259
44 F8 183 -17.700
44 F8 184 -17.212
44 F8 185 -14.771
44 F8 186 -12.329
44 F8 187 -10.864
44 F8 188 -9.888
44 F8 189 -8.423
44 F8 190 -6.470
44 F8 191 -4.028
44 F8 192 -2.075
44 F8 193 -0.122
44 F8 194 2.808
44 F8 195 6.226
44 F8 196 10.132
44 F8 197 14.038
44 F8 198 15.991
44 F8 199 17.456
44 F8 200 18.433
44 F8 201 19.897
44 F8 202 21.851
44 F8 203 22.339
44 F8 204 20.386
44 F8 205 16.968
44 F8 206 13.550
44 F8 207 12.085
44 F8 208 13.062
44 F8 209 14.526
44 F8 210 14.038
44 F8 211 11.108
44 F8 212 5.737
44 F8 213 -0.122
44 F8 214 -4.028
44 F8 215 -6.470
44 F8 216 -7.935
44 F8 217 -9.888
44 F8 218 -12.817
44 F8 219 -15.259
44 F8 220 -15.747
44 F8 221 -12.817
44 F8 222 -7.935
44 F8 223 -2.563
44 F8 224 2.319
44 F8 225 5.249
44 F8 226 7.690
44 F8 227 8.179
44 F8 228 8.179
44 F8 229 6.226
44 F8 230 3.296
44 F8 231 1.343
44 F8 232 -0.122
44 F8 233 -1.587
44 F8 234 -3.052
44 F8 235 -5.005
44 F8 236 -6.958
44 F8 237 -7.446
44 F8 238 -7.935
44 F8 239 -8.423
44 F8 240 -9.888
44 F8 241 -12.329
44 F8 242 -13.794
44 F8 243 -13.794
44 F8 244 -11.841
44 F8 245 -8.423
44 F8 246 -5.981
44 F8 247 -5.493
44 F8 248 -5.981
44 F8 249 -6.470
44 F8 250 -5.981
44 F8 251 -4.517
44 F8 252 -3.540
44 F8 253 -3.052
44 F8 254 -2.075
44 F8 255 -1.099
# AF1 chan 4
44 AF1 0 -2.879
44 AF1 1 -6.785
44 AF1 2 -9.715
44 AF1 3 -12.156
44 AF1 4 -15.086
44 AF1 5 -18.992
44 AF1 6 -20.457
44 AF1 7 -17.527
44 AF1 8 -9.715
44 AF1 9 -1.902
44 AF1 10 1.516
44 AF1 11 -1.902
44 AF1 12 -10.203
44 AF1 13 -16.551
44 AF1 14 -15.086
44 AF1 15 -7.273
44 AF1 16 2.492
44 AF1 17 6.399
44 AF1 18 2.004
44 AF1 19 -6.785
44 AF1 20 -13.133
44 AF1 21 -12.156
44 AF1 22 -4.344
44 AF1 23 2.981
44 AF1 24 4.934
44 AF1 25 -0.926
44 AF1 26 -10.203
44 AF1 27 -16.062
44 AF1 28 -15.574
44 AF1 29 -10.203
44 AF1 30 -4.832
44 AF1 31 -2.391
44 AF1 32 -3.855
44 AF1 33 -6.297
44 AF1 34 -6.785
44 AF1 35 -5.320
44 AF1 36 -4.344
44 AF1 37 -5.809
44 AF1 38 -9.715
44 AF1 39 -13.133
44 AF1 40 -14.598
44 AF1 41 -12.644
44 AF1 42 -9.715
44 AF1 43 -6.785
44 AF1 44 -5.809
44 AF1 45 -7.273
44 AF1 46 -7.762
44 AF1 47 -8.250
44 AF1 48 -7.273
44 AF1 49 -6.785
44 AF1 50 -7.273
44 AF1 51 -8.738
44 AF1 52 -10.691
44 AF1 53 -11.180
44 AF1 54 -9.226
44 AF1 55 -5.320
44 AF1 56 -1.414
44 AF1 57 1.516
44 AF1 58 1.027
44 AF1 59 -0.437
44 AF1 60 -1.902
44 AF1 61 -2.391
44 AF1 62 -2.391
44 AF1 63 -4.344
44 AF1 64 -9.226
44 AF1 65 -15.574
44 AF1 66 -21.434
44 AF1 67 -23.875
44 AF1 68 -23.387
44 AF1 69 -21.434
44 AF1 70 -18.992
44 AF1 71 -18.016
44 AF1 72 -17.527
44 AF1 73 -17.039
44 AF1 74 -17.527
44 AF1 75 -18.016
44 AF1 76 -18.992
44 AF1 77 -18.992
44 AF1 78 -18.016
44 AF1 79 -15.574
44 AF1 80 -14.109
44 AF1 81 -13.621
44 AF1 82 -13.621
44 AF1 83 -11.668
44 AF1 84 -7.273
44 AF1 85 -2.879
44 AF1 86 0.051
44 AF1 87 -1.902
44 AF1 88 -6.297
44 AF1 89 -10.691
44 AF1 90 -12.644
44 AF1 91 -11.668
44 AF1 92 -9.715
44 AF1 93 -9.715
44 AF1 94 -11.180
44 AF1 95 -13.621
44 AF1 96 -14.598
44 AF1 97 -13.621
44 AF1 98 -11.180
44 AF1 99 -9.226
44 AF1 100 -8.738
44 AF1 101 -8.250
44 AF1 102 -7.273
44 AF1 103 -5.320
44 AF1 104 -3.367
44 AF1 105 -2.879
44 AF1 106 -4.832
44 AF1 107 -6.785
44 AF1 108 -8.250
44 AF1 109 -8.250
44 AF1 110 -8.250
44 AF1 111 -9.715
44 AF1 112 -14.109
44 AF1 113 -19.969
44 AF1 114 -25.828
44 AF1 115 -30.711
44 AF1 116 -34.129
44 AF1 117 -36.082
44 AF1 118 -37.059
44 AF1 119 -36.570
44 AF1 120 -35.105
44 AF1 121 -32.664
44 AF1 122 -30.223
44 AF1 123 -28.269
44 AF1 124 -25.340
44 AF1 125 -20.457
44 AF1 126 -12.644
44 AF1 127 -4.832
44 AF1 128 2.492
44 AF1 129 5.422
44 AF1 130 5.910
44 AF1 131 5.910
44 AF1 132 7.863
44 AF1 133 11.281
44 AF1 134 13.723
44 AF1 135 13.234
44 AF1 136 9.328
44 AF1 137 3.469
44 AF1 138 -2.391
44 AF1 139 -5.809
44 AF1 140 -7.762
44 AF1 141 -10.691
44 AF1 142 -15.574
44 AF1 143 -20.945
44 AF1 144 -25.828
44 AF1 145 -29.246
44 AF1 146 -30.223
44 AF1 147 -30.223
44 AF1 148 -30.711
44 AF1 149 -32.176
44 AF1 150 -36.082
44 AF1 151 -38.523
44 AF1 152 -39.988
44 AF1 153 -38.523
44 AF1 154 -35.594
44 AF1 155 -33.152
44 AF1 156 -32.176
44 AF1 157 -31.687
44 AF1 158 -30.223
44 AF1 159 -26.316
44 AF1 160 -20.457
44 AF1 161 -13.133
44 AF1 162 -7.762
44 AF1 163 -4.832
44 AF1 164 -3.367
44 AF1 165 -1.902
44 AF1 166 0.539
44 AF1 167 3.469
44 AF1 168 6.887
44 AF1 169 9.816
44 AF1 170 11.770
44 AF1 171 12.258
44 AF1 172 11.281
44 AF1 173 8.840
44 AF1 174 5.422
44 AF1 175 2.492
44 AF1 176 -0.437
44 AF1 177 -2.879
44 AF1 178 -5.809
44 AF1 179 -9.715
44 AF1 180 -15.086
44 AF1 181 -20.945
44 AF1 182 -25.340
44 AF1 183 -27.293
44 AF1 184 -26.805
44 AF1 185 -25.340
44 AF1 186 -24.363
44 AF1 187 -25.828
44 AF1 188 -28.269
44 AF1 189 -30.223
44 AF1 190 -28.758
44 AF1 191 -23.875
44 AF1 192 -17.527
44 AF1 193 -12.644
44 AF1 194 -11.180
44 AF1 195 -12.644
44 AF1 196 -15.086
44 AF1 197 -15.574
44 AF1 198 -12.644
44 AF1 199 -7.273
44 AF1 200 -1.414
44 AF1 201 2.981
44 AF1 202 6.399
44 AF1 203 8.840
44 AF1 204 10.793
44 AF1 205 11.770
44 AF1 206 10.305
44 AF1 207 6.887
44 AF1 208 2.492
44 AF1 209 -1.414
44 AF1 210 -2.391
44 AF1 211 -1.414
44 AF1 212 0.539
44 AF1 213 0.539
44 AF1 214 -0.926
44 AF1 215 -4.344
44 AF1 216 -8.250
44 AF1 217 -11.180
44 AF1 218 -12.644
44 AF1 219 -13.621
44 AF1 220 -13.621
44 AF1 221 -13.621
44 AF1 222 -13.133
44 AF1 223 -11.668
44 AF1 224 -9.226
44 AF1 225 -6.297
44 AF1 226 -4.344
44 AF1 227 -5.320
44 AF1 228 -9.715
44 AF1 229 -15.086
44 AF1 230 -19.480
44 AF1 231 -20.945
44 AF1 232 -20.945
44 AF1 233 -21.922
44 AF1 234 -24.363
44 AF1 235 -27.781
44 AF1 236 -27.781
44 AF1 237 -23.875
44 AF1 238 -18.504
44 AF1 239 -16.062
44 AF1 240 -20.457
44 AF1 241 -28.269
44 AF1 242 -34.617
44 AF1 243 -33.152
44 AF1 244 -22.898
44 AF1 245 -9.715
44 AF1 246 0.539
44 AF1 247 2.981
44 AF1 248 -1.414
44 AF1 249 -6.297
44 AF1 250 -8.738
44 AF1 251 -8.250
44 AF1 252 -7.273
44 AF1 253 -8.250
44 AF1 254 -9.715
44 AF1 255 -8.250
# AF2 chan 5
44 AF2 0 -0.600
44 AF2 1 -3.042
44 AF2 2 -4.506
44 AF2 3 -4.995
44 AF2 4 -5.971
44 AF2 5 -7.924
44 AF2 6 -8.413
44 AF2 7 -6.948
44 AF2 8 -4.018
44 AF2 9 -1.088
44 AF2 10 -1.577
44 AF2 11 -4.995
44 AF2 12 -8.901
44 AF2 13 -10.366
44 AF2 14 -7.436
44 AF2 15 -2.553
44 AF2 16 1.353
44 AF2 17 1.353
44 AF2 18 -2.065
44 AF2 19 -5.971
44 AF2 20 -8.413
44 AF2 21 -7.436
44 AF2 22 -4.995
44 AF2 23 -3.530
44 AF2 24 -4.506
44 AF2 25 -7.436
44 AF2 26 -9.878
44 AF2 27 -10.854
44 AF2 28 -9.389
44 AF2 29 -6.460
44 AF2 30 -4.506
44 AF2 31 -4.506
44 AF2 32 -5.971
44 AF2 33 -8.413
44 AF2 34 -9.389
44 AF2 35 -8.901
44 AF2 36 -6.948
44 AF2 37 -4.506
44 AF2 38 -2.065
44 AF2 39 -0.600
44 AF2 40 -0.600
44 AF2 41 -1.577
44 AF2 42 -2.553
44 AF2 43 -2.553
44 AF2 44 -2.065
44 AF2 45 0.376
44 AF2 46 1.353
44 AF2 47 1.353
44 AF2 48 -1.577
44 AF2 49 -4.018
44 AF2 50 -5.971
44 AF2 51 -5.483
44 AF2 52 -4.018
44 AF2 53 -3.042
44 AF2 54 -4.018
44 AF2 55 -5.971
44 AF2 56 -6.948
44 AF2 57 -6.460
44 AF2 58 -4.018
44 AF2 59 -1.088
44 AF2 60 1.353
44 AF2 61 1.353
44 AF2 62 -0.600
44 AF2 63 -4.018
44 AF2 64 -7.924
44 AF2 65 -11.342
44 AF2 66 -13.784
44 AF2 67 -15.249
44 AF2 68 -15.737
44 AF2 69 -15.737
44 AF2 70 -15.737
44 AF2 71 -15.737
44 AF2 72 -15.737
44 AF2 73 -14.760
44 AF2 74 -14.272
44 AF2 75 -12.807
44 AF2 76 -11.831
44 AF2 77 -10.854
44 AF2 78 -9.878
44 AF2 79 -8.901
44 AF2 80 -8.413
44 AF2 81 -8.413
44 AF2 82 -8.901
44 AF2 83 -8.901
44 AF2 84 -8.413
44 AF2 85 -7.924
44 AF2 86 -7.436
44 AF2 87 -7.436
44 AF2 88 -8.413
44 AF2 89 -9.878
44 AF2 90 -10.854
44 AF2 91 -11.831
44 AF2 92 -11.831
44 AF2 93 -11.831
44 AF2 94 -11.342
44 AF2 95 -10.854
44 AF2 96 -9.389
44 AF2 97 -7.436
44 AF2 98 -5.971
44 AF2 99 -4.506
44 AF2 100 -3.530
44 AF2 101 -2.065
44 AF2 102 -0.600
44 AF2 103 0.865
44 AF2 104 1.353
44 AF2 105 0.376
44 AF2 106 -2.065
44 AF2 107 -4.018
44 AF2 108 -4.506
44 AF2 109 -4.995
44 AF2 110 -4.995
44 AF2 111 -6.948
44 AF2 112 -9.878
44 AF2 113 -14.272
44 AF2 114 -19.643
44 AF2 115 -25.503
44 AF2 116 -30.385
44 AF2 117 -34.292
44 AF2 118 -36.245
44 AF2 119 -35.268
44 AF2 120 -32.827
44 AF2 121 -29.897
44 AF2 122 -26.967
44 AF2 123 -25.014
44 AF2 124 -22.573
44 AF2 125 -18.667
44 AF2 126 -12.319
44 AF2 127 -5.483
44 AF2 128 0.865
44 AF2 129 4.771
44 AF2 130 6.724
44 AF2 131 8.189
44 AF2 132 10.142
44 AF2 133 12.583
44 AF2 134 15.025
44 AF2 135 15.513
44 AF2 136 14.537
44 AF2 137 11.607
44 AF2 138 8.189
44 AF2 139 4.771
44 AF2 140 0.865
44 AF2 141 -3.042
44 AF2 142 -7.924
44 AF2 143 -13.295
44 AF2 144 -18.667
44 AF2 145 -22.085
44 AF2 146 -24.526
44 AF2 147 -25.503
44 AF2 148 -27.456
44 AF2 149 -29.409
44 AF2 150 -31.850
44 AF2 151 -33.803
44 AF2 152 -34.780
44 AF2 153 -34.780
44 AF2 154 -34.292
44 AF2 155 -33.803
44 AF2 156 -33.315
44 AF2 157 -31.362
44 AF2 158 -27.944
44 AF2 159 -23.061
44 AF2 160 -18.178
44 AF2 161 -13.784
44 AF2 162 -10.854
44 AF2 163 -8.901
44 AF2 164 -6.460
44 AF2 165 -3.042
44 AF2 166 0.376
44 AF2 167 3.794
44 AF2 168 6.724
44 AF2 169 9.654
44 AF2 170 12.583
44 AF2 171 14.537
44 AF2 172 15.513
44 AF2 173 13.560
44 AF2 174 9.654
44 AF2 175 5.747
44 AF2 176 2.330
44 AF2 177 -0.600
44 AF2 178 -3.530
44 AF2 179 -5.971
44 AF2 180 -9.878
44 AF2 181 -14.272
44 AF2 182 -17.690
44 AF2 183 -19.643
44 AF2 184 -20.620
44 AF2 185 -21.108
44 AF2 186 -21.108
44 AF2 187 -21.596
44 AF2 188 -22.573
44 AF2 189 -22.573
44 AF2 190 -21.596
44 AF2 191 -18.667
44 AF2 192 -14.760
44 AF2 193 -11.831
44 AF2 194 -10.854
44 AF2 195 -11.831
44 AF2 196 -13.784
44 AF2 197 -13.784
44 AF2 198 -10.854
44 AF2 199 -5.483
44 AF2 200 0.865
44 AF2 201 6.236
44 AF2 202 9.654
44 AF2 203 11.119
44 AF2 204 12.095
44 AF2 205 12.583
44 AF2 206 12.583
44 AF2 207 12.095
44 AF2 208 9.165
44 AF2 209 5.747
44 AF2 210 2.330
44 AF2 211 0.376
44 AF2 212 -0.112
44 AF2 213 -0.600
44 AF2 214 -1.577
44 AF2 215 -3.530
44 AF2 216 -5.483
44 AF2 217 -6.460
44 AF2 218 -6.948
44 AF2 219 -7.436
44 AF2 220 -7.924
44 AF2 221 -8.901
44 AF2 222 -8.901
44 AF2 223 -6.460
44 AF2 224 -3.042
44 AF2 225 0.376
44 AF2 226 1.353
44 AF2 227 0.376
44 AF2 228 -4.018
44 AF2 229 -8.413
44 AF2 230 -13.295
44 AF2 231 -16.713
44 AF2 232 -19.643
44 AF2 233 -21.108
44 AF2 234 -22.085
44 AF2 235 -21.108
44 AF2 236 -19.643
44 AF2 237 -17.690
44 AF2 238 -16.713
44 AF2 239 -17.202
44 AF2 240 -18.667
44 AF2 241 -21.108
44 AF2 242 -22.085
44 AF2 243 -20.620
44 AF2 244 -16.713
44 AF2 245 -10.366
44 AF2 246 -4.018
44 AF2 247 0.376
44 AF2 248 1.353
44 AF2 249 -0.600
44 AF2 250 -3.042
44 AF2 251 -4.506
44 AF2 252 -3.530
44 AF2 253 -1.088
44 AF2 254 1.353
44 AF2 255 3.306
# FZ chan 6
44 FZ 0 -4.435
44 FZ 1 -3.947
44 FZ 2 -3.947
44 FZ 3 -5.412
44 FZ 4 -7.365
44 FZ 5 -8.830
44 FZ 6 -9.806
44 FZ 7 -9.318
44 FZ 8 -9.318
44 FZ 9 -8.830
44 FZ 10 -8.830
44 FZ 11 -8.830
44 FZ 12 -8.341
44 FZ 13 -6.877
44 FZ 14 -5.412
44 FZ 15 -3.947
44 FZ 16 -3.459
44 FZ 17 -3.947
44 FZ 18 -4.435
44 FZ 19 -3.459
44 FZ 20 -1.994
44 FZ 21 -1.506
44 FZ 22 -1.994
44 FZ 23 -5.412
44 FZ 24 -8.341
44 FZ 25 -9.806
44 FZ 26 -8.830
44 FZ 27 -5.900
44 FZ 28 -3.947
44 FZ 29 -2.970
44 FZ 30 -3.947
44 FZ 31 -5.412
44 FZ 32 -6.388
44 FZ 33 -6.877
44 FZ 34 -6.877
44 FZ 35 -6.877
44 FZ 36 -6.877
44 FZ 37 -5.900
44 FZ 38 -3.947
44 FZ 39 -2.970
44 FZ 40 -1.994
44 FZ 41 -3.459
44 FZ 42 -4.435
44 FZ 43 -5.412
44 FZ 44 -4.435
44 FZ 45 -2.970
44 FZ 46 -1.506
44 FZ 47 -1.994
44 FZ 48 -3.459
44 FZ 49 -4.435
44 FZ 50 -4.435
44 FZ 51 -2.970
44 FZ 52 -1.017
44 FZ 53 -0.041
44 FZ 54 -0.529
44 FZ 55 -1.994
44 FZ 56 -3.459
44 FZ 57 -3.947
44 FZ 58 -2.970
44 FZ 59 -0.041
44 FZ 60 1.912
44 FZ 61 2.889
44 FZ 62 1.424
44 FZ 63 -1.994
44 FZ 64 -5.900
44 FZ 65 -9.318
44 FZ 66 -12.248
44 FZ 67 -13.224
44 FZ 68 -13.224
44 FZ 69 -13.224
44 FZ 70 -13.224
44 FZ 71 -13.224
44 FZ 72 -13.713
44 FZ 73 -13.713
44 FZ 74 -13.713
44 FZ 75 -13.224
44 FZ 76 -12.736
44 FZ 77 -12.248
44 FZ 78 -11.271
44 FZ 79 -10.783
44 FZ 80 -9.318
44 FZ 81 -8.341
44 FZ 82 -7.853
44 FZ 83 -7.365
44 FZ 84 -6.388
44 FZ 85 -6.388
44 FZ 86 -4.924
44 FZ 87 -4.435
44 FZ 88 -3.947
44 FZ 89 -3.947
44 FZ 90 -4.435
44 FZ 91 -4.924
44 FZ 92 -5.900
44 FZ 93 -6.388
44 FZ 94 -5.412
44 FZ 95 -4.435
44 FZ 96 -2.970
44 FZ 97 -1.994
44 FZ 98 -1.994
44 FZ 99 -1.994
44 FZ 100 -1.506
44 FZ 101 -1.017
44 FZ 102 0.448
44 FZ 103 1.912
44 FZ 104 1.912
44 FZ 105 0.936
44 FZ 106 -1.017
44 FZ 107 -3.459
44 FZ 108 -5.900
44 FZ 109 -8.341
44 FZ 110 -11.271
44 FZ 111 -14.201
44 FZ 112 -17.131
44 FZ 113 -20.060
44 FZ 114 -23.478
44 FZ 115 -27.873
44 FZ 116 -32.267
44 FZ 117 -35.197
44 FZ 118 -36.174
44 FZ 119 -34.709
44 FZ 120 -31.291
44 FZ 121 -27.384
44 FZ 122 -24.455
44 FZ 123 -21.525
44 FZ 124 -18.107
44 FZ 125 -12.736
44 FZ 126 -6.388
44 FZ 127 -0.529
44 FZ 128 3.866
44 FZ 129 6.795
44 FZ 130 8.260
44 FZ 131 10.213
44 FZ 132 12.166
44 FZ 133 14.119
44 FZ 134 14.119
44 FZ 135 12.655
44 FZ 136 9.725
44 FZ 137 6.307
44 FZ 138 2.401
44 FZ 139 -1.017
44 FZ 140 -4.924
44 FZ 141 -9.318
44 FZ 142 -13.713
44 FZ 143 -17.131
44 FZ 144 -20.060
44 FZ 145 -22.013
44 FZ 146 -23.478
44 FZ 147 -25.431
44 FZ 148 -27.873
44 FZ 149 -30.314
44 FZ 150 -31.779
44 FZ 151 -32.267
44 FZ 152 -32.267
44 FZ 153 -31.779
44 FZ 154 -31.779
44 FZ 155 -31.291
44 FZ 156 -29.338
44 FZ 157 -25.920
44 FZ 158 -21.037
44 FZ 159 -15.666
44 FZ 160 -10.783
44 FZ 161 -7.365
44 FZ 162 -5.412
44 FZ 163 -2.970
44 FZ 164 -0.041
44 FZ 165 3.866
44 FZ 166 7.284
44 FZ 167 10.213
44 FZ 168 11.678
44 FZ 169 12.655
44 FZ 170 13.631
44 FZ 171 14.119
44 FZ 172 14.119
44 FZ 173 11.678
44 FZ 174 7.772
44 FZ 175 3.377
44 FZ 176 -1.017
44 FZ 177 -4.435
44 FZ 178 -5.900
44 FZ 179 -7.365
44 FZ 180 -9.318
44 FZ 181 -12.248
44 FZ 182 -16.154
44 FZ 183 -19.084
44 FZ 184 -20.060
44 FZ 185 -19.572
44 FZ 186 -18.107
44 FZ 187 -17.619
44 FZ 188 -17.619
44 FZ 189 -18.107
44 FZ 190 -18.107
44 FZ 191 -16.154
44 FZ 192 -13.224
44 FZ 193 -10.295
44 FZ 194 -9.318
44 FZ 195 -10.783
44 FZ 196 -13.224
44 FZ 197 -13.713
44 FZ 198 -12.248
44 FZ 199 -7.365
44 FZ 200 -1.017
44 FZ 201 4.354
44 FZ 202 8.748
44 FZ 203 10.701
44 FZ 204 11.678
44 FZ 205 11.190
44 FZ 206 9.725
44 FZ 207 7.772
44 FZ 208 5.819
44 FZ 209 3.866
44 FZ 210 2.401
44 FZ 211 0.936
44 FZ 212 -1.017
44 FZ 213 -3.947
44 FZ 214 -7.365
44 FZ 215 -9.318
44 FZ 216 -10.295
44 FZ 217 -9.318
44 FZ 218 -7.365
44 FZ 219 -6.388
44 FZ 220 -6.388
44 FZ 221 -6.388
44 FZ 222 -6.388
44 FZ 223 -4.924
44 FZ 224 -2.970
44 FZ 225 -2.482
44 FZ 226 -3.947
44 FZ 227 -6.388
44 FZ 228 -9.806
44 FZ 229 -12.248
44 FZ 230 -13.713
44 FZ 231 -15.177
44 FZ 232 -16.642
44 FZ 233 -17.619
44 FZ 234 -17.619
44 FZ 235 -16.154
44 FZ 236 -13.713
44 FZ 237 -11.759
44 FZ 238 -11.271
44 FZ 239 -11.759
44 FZ 240 -13.224
44 FZ 241 -13.224
44 FZ 242 -11.759
44 FZ 243 -8.830
44 FZ 244 -6.388
44 FZ 245 -3.459
44 FZ 246 -0.529
44 FZ 247 1.424
44 FZ 248 2.889
44 FZ 249 2.401
44 FZ 250 0.448
44 FZ 251 -2.482
44 FZ 252 -4.435
44 FZ 253 -3.947
44 FZ 254 -1.506
44 FZ 255 1.424
# F4 chan 7
44 F4 0 1.455
44 F4 1 4.873
44 F4 2 4.873
44 F4 3 3.408
44 F4 4 0.478
44 F4 5 -1.963
44 F4 6 -2.940
44 F4 7 -2.940
44 F4 8 -3.428
44 F4 9 -3.428
44 F4 10 -2.452
44 F4 11 -0.010
44 F4 12 1.943
44 F4 13 2.920
44 F4 14 1.455
44 F4 15 -1.475
44 F4 16 -3.916
44 F4 17 -4.405
44 F4 18 -2.940
44 F4 19 -0.010
44 F4 20 1.943
44 F4 21 1.943
44 F4 22 -0.987
44 F4 23 -4.405
44 F4 24 -7.823
44 F4 25 -8.799
44 F4 26 -7.334
44 F4 27 -4.893
44 F4 28 -2.452
44 F4 29 -1.475
44 F4 30 -2.452
44 F4 31 -4.405
44 F4 32 -5.381
44 F4 33 -5.870
44 F4 34 -4.405
44 F4 35 -1.963
44 F4 36 0.966
44 F4 37 3.896
44 F4 38 5.361
44 F4 39 6.337
44 F4 40 6.337
44 F4 41 5.849
44 F4 42 6.337
44 F4 43 7.802
44 F4 44 9.267
44 F4 45 10.244
44 F4 46 9.267
44 F4 47 6.337
44 F4 48 3.408
44 F4 49 1.455
44 F4 50 0.966
44 F4 51 1.943
44 F4 52 2.431
44 F4 53 1.943
44 F4 54 0.478
44 F4 55 -1.475
44 F4 56 -3.428
44 F4 57 -3.916
44 F4 58 -2.940
44 F4 59 0.478
44 F4 60 3.408
44 F4 61 5.361
44 F4 62 4.873
44 F4 63 0.966
44 F4 64 -3.916
44 F4 65 -8.311
44 F4 66 -10.264
44 F4 67 -9.288
44 F4 68 -7.334
44 F4 69 -5.870
44 F4 70 -5.381
44 F4 71 -5.870
44 F4 72 -6.358
44 F4 73 -5.870
44 F4 74 -4.893
44 F4 75 -4.893
44 F4 76 -5.381
44 F4 77 -6.358
44 F4 78 -5.381
44 F4 79 -3.916
44 F4 80 -0.987
44 F4 81 0.478
44 F4 82 0.478
44 F4 83 -0.498
44 F4 84 -0.987
44 F4 85 -0.498
44 F4 86 -0.010
44 F4 87 -0.498
44 F4 88 -1.963
44 F4 89 -3.916
44 F4 90 -5.870
44 F4 91 -6.846
44 F4 92 -6.846
44 F4 93 -5.870
44 F4 94 -4.893
44 F4 95 -3.428
44 F4 96 -1.963
44 F4 97 -0.987
44 F4 98 -0.010
44 F4 99 -0.498
44 F4 100 -1.475
44 F4 101 -1.963
44 F4 102 -0.987
44 F4 103 1.455
44 F4 104 3.896
44 F4 105 5.849
44 F4 106 5.361
44 F4 107 4.873
44 F4 108 3.408
44 F4 109 1.943
44 F4 110 0.966
44 F4 111 -0.987
44 F4 112 -3.916
44 F4 113 -7.334
44 F4 114 -10.752
44 F4 115 -14.170
44 F4 116 -17.100
44 F4 117 -19.541
44 F4 118 -21.006
44 F4 119 -21.495
44 F4 120 -21.006
44 F4 121 -20.030
44 F4 122 -18.565
44 F4 123 -17.100
44 F4 124 -14.170
44 F4 125 -10.264
44 F4 126 -5.870
44 F4 127 -1.475
44 F4 128 1.943
44 F4 129 3.896
44 F4 130 5.849
44 F4 131 8.291
44 F4 132 11.220
44 F4 133 14.150
44 F4 134 15.615
44 F4 135 15.127
44 F4 136 13.662
44 F4 137 11.709
44 F4 138 9.755
44 F4 139 8.291
44 F4 140 6.826
44 F4 141 3.408
44 F4 142 -0.987
44 F4 143 -4.893
44 F4 144 -7.823
44 F4 145 -9.776
44 F4 146 -11.729
44 F4 147 -14.170
44 F4 148 -17.588
44 F4 149 -21.495
44 F4 150 -24.424
44 F4 151 -25.889
44 F4 152 -25.401
44 F4 153 -23.936
44 F4 154 -22.471
44 F4 155 -21.006
44 F4 156 -19.541
44 F4 157 -17.100
44 F4 158 -13.682
44 F4 159 -9.776
44 F4 160 -6.358
44 F4 161 -3.428
44 F4 162 -2.452
44 F4 163 -1.963
44 F4 164 -1.963
44 F4 165 -1.475
44 F4 166 0.966
44 F4 167 4.384
44 F4 168 8.291
44 F4 169 12.197
44 F4 170 14.638
44 F4 171 15.615
44 F4 172 14.638
44 F4 173 12.685
44 F4 174 9.755
44 F4 175 6.826
44 F4 176 3.896
44 F4 177 1.943
44 F4 178 -0.010
44 F4 179 -2.452
44 F4 180 -4.893
44 F4 181 -7.334
44 F4 182 -9.776
44 F4 183 -11.241
44 F4 184 -11.729
44 F4 185 -11.241
44 F4 186 -11.241
44 F4 187 -11.729
44 F4 188 -12.705
44 F4 189 -14.170
44 F4 190 -13.194
44 F4 191 -10.264
44 F4 192 -5.870
44 F4 193 -1.475
44 F4 194 0.478
44 F4 195 -0.010
44 F4 196 -2.452
44 F4 197 -3.428
44 F4 198 -1.963
44 F4 199 2.431
44 F4 200 8.291
44 F4 201 14.150
44 F4 202 17.080
44 F4 203 17.568
44 F4 204 16.591
44 F4 205 14.150
44 F4 206 11.709
44 F4 207 9.755
44 F4 208 8.291
44 F4 209 8.291
44 F4 210 7.802
44 F4 211 6.826
44 F4 212 4.384
44 F4 213 -0.498
44 F4 214 -5.870
44 F4 215 -9.288
44 F4 216 -9.776
44 F4 217 -6.846
44 F4 218 -3.428
44 F4 219 -1.475
44 F4 220 -1.963
44 F4 221 -3.916
44 F4 222 -4.893
44 F4 223 -3.428
44 F4 224 0.478
44 F4 225 4.873
44 F4 226 6.826
44 F4 227 5.849
44 F4 228 2.431
44 F4 229 -1.963
44 F4 230 -5.381
44 F4 231 -6.846
44 F4 232 -8.311
44 F4 233 -8.311
44 F4 234 -8.311
44 F4 235 -7.823
44 F4 236 -6.846
44 F4 237 -6.358
44 F4 238 -6.358
44 F4 239 -7.823
44 F4 240 -9.776
44 F4 241 -10.752
44 F4 242 -10.752
44 F4 243 -8.799
44 F4 244 -5.870
44 F4 245 -2.452
44 F4 246 0.966
44 F4 247 2.920
44 F4 248 3.408
44 F4 249 2.920
44 F4 250 0.966
44 F4 251 -0.498
44 F4 252 -0.987
44 F4 253 -0.010
44 F4 254 2.431
44 F4 255 5.849
# F3 chan 8
44 F3 0 -5.391
44 F3 1 -5.880
44 F3 2 -6.368
44 F3 3 -8.321
44 F3 4 -10.763
44 F3 5 -13.692
44 F3 6 -14.181
44 F3 7 -12.716
44 F3 8 -8.809
44 F3 9 -5.391
44 F3 10 -3.438
44 F3 11 -3.927
44 F3 12 -5.391
44 F3 13 -6.368
44 F3 14 -5.391
44 F3 15 -2.950
44 F3 16 -0.997
44 F3 17 -0.509
44 F3 18 -0.997
44 F3 19 -1.485
44 F3 20 -0.997
44 F3 21 -0.509
44 F3 22 -0.020
44 F3 23 -1.973
44 F3 24 -4.415
44 F3 25 -7.345
44 F3 26 -8.321
44 F3 27 -7.833
44 F3 28 -5.880
44 F3 29 -4.903
44 F3 30 -4.415
44 F3 31 -4.415
44 F3 32 -4.415
44 F3 33 -4.415
44 F3 34 -3.927
44 F3 35 -3.927
44 F3 36 -4.415
44 F3 37 -4.415
44 F3 38 -2.950
44 F3 39 -0.997
44 F3 40 0.468
44 F3 41 -0.509
44 F3 42 -2.950
44 F3 43 -6.368
44 F3 44 -8.809
44 F3 45 -8.321
44 F3 46 -6.368
44 F3 47 -3.927
44 F3 48 -2.950
44 F3 49 -2.950
44 F3 50 -3.927
44 F3 51 -3.927
44 F3 52 -2.950
44 F3 53 -1.485
44 F3 54 -0.509
44 F3 55 -0.509
44 F3 56 -1.485
44 F3 57 -2.462
44 F3 58 -1.973
44 F3 59 -0.509
44 F3 60 0.956
44 F3 61 1.444
44 F3 62 -0.020
44 F3 63 -3.438
44 F3 64 -6.856
44 F3 65 -10.763
44 F3 66 -12.716
44 F3 67 -14.181
44 F3 68 -14.669
44 F3 69 -15.157
44 F3 70 -15.157
44 F3 71 -14.669
44 F3 72 -13.204
44 F3 73 -12.227
44 F3 74 -11.739
44 F3 75 -11.251
44 F3 76 -10.763
44 F3 77 -9.786
44 F3 78 -7.345
44 F3 79 -4.415
44 F3 80 -2.462
44 F3 81 -1.485
44 F3 82 -1.485
44 F3 83 -2.462
44 F3 84 -3.927
44 F3 85 -4.903
44 F3 86 -5.391
44 F3 87 -5.391
44 F3 88 -5.391
44 F3 89 -5.391
44 F3 90 -5.880
44 F3 91 -6.368
44 F3 92 -7.345
44 F3 93 -8.809
44 F3 94 -10.274
44 F3 95 -11.251
44 F3 96 -12.227
44 F3 97 -11.739
44 F3 98 -10.763
44 F3 99 -9.298
44 F3 100 -7.833
44 F3 101 -6.856
44 F3 102 -5.391
44 F3 103 -4.903
44 F3 104 -3.927
44 F3 105 -3.438
44 F3 106 -2.950
44 F3 107 -1.485
44 F3 108 -0.509
44 F3 109 -0.509
44 F3 110 -1.973
44 F3 111 -5.391
44 F3 112 -9.298
44 F3 113 -13.204
44 F3 114 -16.622
44 F3 115 -20.040
44 F3 116 -22.970
44 F3 117 -25.411
44 F3 118 -26.388
44 F3 119 -26.388
44 F3 120 -25.411
44 F3 121 -23.458
44 F3 122 -21.505
44 F3 123 -19.063
44 F3 124 -15.645
44 F3 125 -11.739
44 F3 126 -7.345
44 F3 127 -4.415
44 F3 128 -1.973
44 F3 129 -0.509
44 F3 130 1.444
44 F3 131 3.886
44 F3 132 5.839
44 F3 133 5.839
44 F3 134 4.374
44 F3 135 2.421
44 F3 136 0.468
44 F3 137 -0.997
44 F3 138 -2.462
44 F3 139 -4.903
44 F3 140 -7.833
44 F3 141 -11.739
44 F3 142 -15.157
44 F3 143 -17.598
44 F3 144 -19.063
44 F3 145 -20.040
44 F3 146 -20.528
44 F3 147 -21.505
44 F3 148 -22.481
44 F3 149 -23.458
44 F3 150 -24.434
44 F3 151 -24.434
44 F3 152 -24.434
44 F3 153 -24.434
44 F3 154 -24.923
44 F3 155 -24.923
44 F3 156 -23.458
44 F3 157 -21.016
44 F3 158 -17.598
44 F3 159 -13.692
44 F3 160 -9.786
44 F3 161 -6.856
44 F3 162 -4.415
44 F3 163 -1.485
44 F3 164 1.444
44 F3 165 3.886
44 F3 166 5.839
44 F3 167 6.327
44 F3 168 5.839
44 F3 169 4.862
44 F3 170 5.351
44 F3 171 6.816
44 F3 172 8.280
44 F3 173 7.792
44 F3 174 4.374
44 F3 175 0.468
44 F3 176 -3.927
44 F3 177 -6.368
44 F3 178 -7.345
44 F3 179 -7.833
44 F3 180 -9.786
44 F3 181 -12.227
44 F3 182 -15.645
44 F3 183 -19.063
44 F3 184 -21.993
44 F3 185 -23.458
44 F3 186 -23.458
44 F3 187 -21.993
44 F3 188 -20.040
44 F3 189 -17.110
44 F3 190 -14.181
44 F3 191 -12.227
44 F3 192 -10.763
44 F3 193 -9.786
44 F3 194 -8.321
44 F3 195 -6.856
44 F3 196 -5.880
44 F3 197 -4.903
44 F3 198 -3.927
44 F3 199 -0.997
44 F3 200 2.909
44 F3 201 8.280
44 F3 202 12.675
44 F3 203 14.628
44 F3 204 13.652
44 F3 205 10.722
44 F3 206 7.304
44 F3 207 5.351
44 F3 208 4.862
44 F3 209 4.374
44 F3 210 2.909
44 F3 211 -0.020
44 F3 212 -4.903
44 F3 213 -8.809
44 F3 214 -11.251
44 F3 215 -11.739
44 F3 216 -12.227
44 F3 217 -12.716
44 F3 218 -13.692
44 F3 219 -14.669
44 F3 220 -15.157
44 F3 221 -14.181
44 F3 222 -12.227
44 F3 223 -8.321
44 F3 224 -4.415
44 F3 225 -0.997
44 F3 226 1.444
44 F3 227 1.933
44 F3 228 -0.020
44 F3 229 -4.415
44 F3 230 -8.809
44 F3 231 -11.739
44 F3 232 -13.692
44 F3 233 -13.692
44 F3 234 -13.204
44 F3 235 -11.739
44 F3 236 -11.251
44 F3 237 -11.251
44 F3 238 -11.739
44 F3 239 -12.716
44 F3 240 -13.204
44 F3 241 -12.716
44 F3 242 -13.204
44 F3 243 -13.204
44 F3 244 -12.716
44 F3 245 -11.251
44 F3 246 -8.809
44 F3 247 -5.391
44 F3 248 -2.950
44 F3 249 -1.973
44 F3 250 -2.950
44 F3 251 -4.415
44 F3 252 -5.391
44 F3 253 -4.415
44 F3 254 -1.973
44 F3 255 0.468
# FC6 chan 9
44 FC6 0 1.892
44 FC6 1 3.845
44 FC6 2 3.845
44 FC6 3 3.845
44 FC6 4 3.357
44 FC6 5 3.845
44 FC6 6 3.845
44 FC6 7 2.869
44 FC6 8 0.916
44 FC6 9 -1.038
44 FC6 10 -1.038
44 FC6 11 1.404
44 FC6 12 4.333
44 FC6 13 5.798
44 FC6 14 5.310
44 FC6 15 3.357
44 FC6 16 1.892
44 FC6 17 1.404
44 FC6 18 2.869
44 FC6 19 4.333
44 FC6 20 4.822
44 FC6 21 3.357
44 FC6 22 1.892
44 FC6 23 0.916
44 FC6 24 0.916
44 FC6 25 0.916
44 FC6 26 0.427
44 FC6 27 -0.549
44 FC6 28 -1.038
44 FC6 29 -1.038
44 FC6 30 -0.061
44 FC6 31 0.916
44 FC6 32 1.892
44 FC6 33 1.892
44 FC6 34 1.892
44 FC6 35 2.869
44 FC6 36 4.333
44 FC6 37 6.287
44 FC6 38 7.263
44 FC6 39 7.751
44 FC6 40 8.240
44 FC6 41 8.728
44 FC6 42 10.193
44 FC6 43 12.146
44 FC6 44 13.123
44 FC6 45 13.123
44 FC6 46 11.169
44 FC6 47 8.728
44 FC6 48 6.287
44 FC6 49 4.822
44 FC6 50 3.845
44 FC6 51 4.333
44 FC6 52 4.822
44 FC6 53 5.310
44 FC6 54 3.845
44 FC6 55 1.892
44 FC6 56 -0.061
44 FC6 57 -1.038
44 FC6 58 -0.549
44 FC6 59 2.380
44 FC6 60 5.798
44 FC6 61 8.240
44 FC6 62 8.240
44 FC6 63 5.798
44 FC6 64 1.404
44 FC6 65 -2.502
44 FC6 66 -4.944
44 FC6 67 -5.432
44 FC6 68 -3.967
44 FC6 69 -3.479
44 FC6 70 -3.967
44 FC6 71 -4.944
44 FC6 72 -5.432
44 FC6 73 -5.920
44 FC6 74 -5.432
44 FC6 75 -5.432
44 FC6 76 -4.944
44 FC6 77 -4.456
44 FC6 78 -2.991
44 FC6 79 -1.038
44 FC6 80 1.404
44 FC6 81 3.357
44 FC6 82 4.822
44 FC6 83 5.798
44 FC6 84 5.798
44 FC6 85 5.798
44 FC6 86 5.798
44 FC6 87 5.310
44 FC6 88 4.822
44 FC6 89 3.357
44 FC6 90 2.380
44 FC6 91 0.427
44 FC6 92 -2.014
44 FC6 93 -3.967
44 FC6 94 -5.432
44 FC6 95 -5.432
44 FC6 96 -4.456
44 FC6 97 -3.479
44 FC6 98 -2.991
44 FC6 99 -3.967
44 FC6 100 -5.432
44 FC6 101 -6.409
44 FC6 102 -5.920
44 FC6 103 -3.967
44 FC6 104 -1.526
44 FC6 105 0.427
44 FC6 106 1.892
44 FC6 107 2.869
44 FC6 108 4.333
44 FC6 109 6.287
44 FC6 110 8.240
44 FC6 111 9.216
44 FC6 112 9.216
44 FC6 113 8.240
44 FC6 114 6.287
44 FC6 115 3.845
44 FC6 116 1.404
44 FC6 117 -0.549
44 FC6 118 -1.526
44 FC6 119 -2.991
44 FC6 120 -4.456
44 FC6 121 -6.409
44 FC6 122 -8.850
44 FC6 123 -10.803
44 FC6 124 -11.292
44 FC6 125 -9.338
44 FC6 126 -6.409
44 FC6 127 -3.967
44 FC6 128 -2.502
44 FC6 129 -2.502
44 FC6 130 -2.014
44 FC6 131 -0.549
44 FC6 132 1.892
44 FC6 133 4.822
44 FC6 134 6.287
44 FC6 135 6.775
44 FC6 136 7.263
44 FC6 137 8.240
44 FC6 138 10.193
44 FC6 139 12.146
44 FC6 140 13.123
44 FC6 141 11.658
44 FC6 142 8.728
44 FC6 143 5.310
44 FC6 144 2.869
44 FC6 145 0.916
44 FC6 146 -0.549
44 FC6 147 -2.991
44 FC6 148 -6.409
44 FC6 149 -9.827
44 FC6 150 -12.268
44 FC6 151 -13.245
44 FC6 152 -12.268
44 FC6 153 -10.803
44 FC6 154 -9.827
44 FC6 155 -8.850
44 FC6 156 -7.874
44 FC6 157 -6.409
44 FC6 158 -4.456
44 FC6 159 -2.502
44 FC6 160 -2.014
44 FC6 161 -2.991
44 FC6 162 -4.944
44 FC6 163 -5.920
44 FC6 164 -6.409
44 FC6 165 -5.432
44 FC6 166 -2.991
44 FC6 167 -0.061
44 FC6 168 3.357
44 FC6 169 7.263
44 FC6 170 11.169
44 FC6 171 13.611
44 FC6 172 14.099
44 FC6 173 13.123
44 FC6 174 11.169
44 FC6 175 8.728
44 FC6 176 6.775
44 FC6 177 5.310
44 FC6 178 3.357
44 FC6 179 0.916
44 FC6 180 -1.526
44 FC6 181 -3.967
44 FC6 182 -5.432
44 FC6 183 -6.409
44 FC6 184 -7.385
44 FC6 185 -7.874
44 FC6 186 -8.850
44 FC6 187 -9.827
44 FC6 188 -10.315
44 FC6 189 -10.803
44 FC6 190 -9.338
44 FC6 191 -6.409
44 FC6 192 -2.014
44 FC6 193 2.380
44 FC6 194 5.798
44 FC6 195 6.775
44 FC6 196 6.775
44 FC6 197 6.775
44 FC6 198 7.751
44 FC6 199 10.681
44 FC6 200 14.587
44 FC6 201 18.005
44 FC6 202 20.935
44 FC6 203 21.423
44 FC6 204 20.935
44 FC6 205 19.470
44 FC6 206 17.029
44 FC6 207 14.587
44 FC6 208 12.146
44 FC6 209 10.193
44 FC6 210 8.728
44 FC6 211 8.240
44 FC6 212 7.263
44 FC6 213 4.822
44 FC6 214 0.427
44 FC6 215 -4.456
44 FC6 216 -7.385
44 FC6 217 -8.362
44 FC6 218 -7.385
44 FC6 219 -6.897
44 FC6 220 -7.385
44 FC6 221 -8.850
44 FC6 222 -9.338
44 FC6 223 -6.897
44 FC6 224 -1.526
44 FC6 225 3.357
44 FC6 226 5.798
44 FC6 227 5.310
44 FC6 228 2.380
44 FC6 229 -0.061
44 FC6 230 -0.549
44 FC6 231 -0.061
44 FC6 232 0.916
44 FC6 233 0.427
44 FC6 234 -0.061
44 FC6 235 -1.038
44 FC6 236 -0.061
44 FC6 237 0.916
44 FC6 238 1.892
44 FC6 239 0.427
44 FC6 240 -2.014
44 FC6 241 -4.944
44 FC6 242 -5.920
44 FC6 243 -4.944
44 FC6 244 -2.502
44 FC6 245 -0.549
44 FC6 246 -0.061
44 FC6 247 -0.061
44 FC6 248 -0.061
44 FC6 249 -0.061
44 FC6 250 -1.038
44 FC6 251 -2.991
44 FC6 252 -5.432
44 FC6 253 -5.920
44 FC6 254 -4.456
44 FC6 255 -0.549
# FC5 chan 10
44 FC5 0 -2.391
44 FC5 1 -2.391
44 FC5 2 -2.391
44 FC5 3 -1.902
44 FC5 4 -3.367
44 FC5 5 -4.344
44 FC5 6 -5.320
44 FC5 7 -5.320
44 FC5 8 -3.855
44 FC5 9 -0.926
44 FC5 10 1.027
44 FC5 11 1.516
44 FC5 12 1.027
44 FC5 13 0.051
44 FC5 14 0.539
44 FC5 15 2.004
44 FC5 16 4.445
44 FC5 17 6.399
44 FC5 18 6.399
44 FC5 19 5.422
44 FC5 20 2.981
44 FC5 21 1.516
44 FC5 22 0.051
44 FC5 23 -1.414
44 FC5 24 -3.855
44 FC5 25 -6.297
44 FC5 26 -8.250
44 FC5 27 -8.250
44 FC5 28 -5.809
44 FC5 29 -2.879
44 FC5 30 -0.437
44 FC5 31 0.539
44 FC5 32 0.539
44 FC5 33 0.051
44 FC5 34 0.051
44 FC5 35 1.027
44 FC5 36 2.004
44 FC5 37 2.981
44 FC5 38 3.957
44 FC5 39 4.934
44 FC5 40 5.422
44 FC5 41 5.910
44 FC5 42 4.934
44 FC5 43 2.981
44 FC5 44 1.516
44 FC5 45 0.051
44 FC5 46 -0.437
44 FC5 47 -0.437
44 FC5 48 0.051
44 FC5 49 1.516
44 FC5 50 3.469
44 FC5 51 5.422
44 FC5 52 6.399
44 FC5 53 6.399
44 FC5 54 4.934
44 FC5 55 2.492
44 FC5 56 1.027
44 FC5 57 0.539
44 FC5 58 2.004
44 FC5 59 3.469
44 FC5 60 4.445
44 FC5 61 4.445
44 FC5 62 2.492
44 FC5 63 -0.437
44 FC5 64 -3.855
44 FC5 65 -6.297
44 FC5 66 -7.762
44 FC5 67 -8.738
44 FC5 68 -9.226
44 FC5 69 -9.715
44 FC5 70 -9.226
44 FC5 71 -8.738
44 FC5 72 -7.762
44 FC5 73 -6.785
44 FC5 74 -5.809
44 FC5 75 -5.320
44 FC5 76 -3.855
44 FC5 77 -1.902
44 FC5 78 0.539
44 FC5 79 2.981
44 FC5 80 5.422
44 FC5 81 6.399
44 FC5 82 6.887
44 FC5 83 5.910
44 FC5 84 5.422
44 FC5 85 3.957
44 FC5 86 2.492
44 FC5 87 0.539
44 FC5 88 -1.902
44 FC5 89 -4.832
44 FC5 90 -6.785
44 FC5 91 -9.226
44 FC5 92 -11.668
44 FC5 93 -13.621
44 FC5 94 -16.062
44 FC5 95 -17.527
44 FC5 96 -18.504
44 FC5 97 -18.992
44 FC5 98 -18.504
44 FC5 99 -18.016
44 FC5 100 -16.062
44 FC5 101 -13.621
44 FC5 102 -10.203
44 FC5 103 -6.785
44 FC5 104 -3.367
44 FC5 105 -0.926
44 FC5 106 1.516
44 FC5 107 4.445
44 FC5 108 7.375
44 FC5 109 10.305
44 FC5 110 11.281
44 FC5 111 10.793
44 FC5 112 8.352
44 FC5 113 5.422
44 FC5 114 2.004
44 FC5 115 -0.926
44 FC5 116 -3.855
44 FC5 117 -6.785
44 FC5 118 -8.738
44 FC5 119 -9.715
44 FC5 120 -9.715
44 FC5 121 -9.715
44 FC5 122 -9.226
44 FC5 123 -9.715
44 FC5 124 -9.715
44 FC5 125 -9.715
44 FC5 126 -8.738
44 FC5 127 -7.273
44 FC5 128 -6.297
44 FC5 129 -5.809
44 FC5 130 -5.809
44 FC5 131 -5.320
44 FC5 132 -5.320
44 FC5 133 -5.809
44 FC5 134 -6.297
44 FC5 135 -6.785
44 FC5 136 -7.273
44 FC5 137 -7.273
44 FC5 138 -7.273
44 FC5 139 -7.273
44 FC5 140 -8.250
44 FC5 141 -10.203
44 FC5 142 -11.668
44 FC5 143 -12.156
44 FC5 144 -11.668
44 FC5 145 -11.180
44 FC5 146 -10.203
44 FC5 147 -10.691
44 FC5 148 -11.180
44 FC5 149 -11.668
44 FC5 150 -12.156
44 FC5 151 -12.156
44 FC5 152 -12.644
44 FC5 153 -14.109
44 FC5 154 -15.574
44 FC5 155 -16.551
44 FC5 156 -16.062
44 FC5 157 -14.109
44 FC5 158 -10.691
44 FC5 159 -7.273
44 FC5 160 -4.832
44 FC5 161 -3.855
44 FC5 162 -3.367
44 FC5 163 -1.902
44 FC5 164 -0.437
44 FC5 165 1.516
44 FC5 166 3.469
44 FC5 167 3.957
44 FC5 168 2.981
44 FC5 169 1.516
44 FC5 170 0.539
44 FC5 171 1.027
44 FC5 172 2.004
44 FC5 173 2.004
44 FC5 174 0.051
44 FC5 175 -3.367
44 FC5 176 -6.785
44 FC5 177 -8.250
44 FC5 178 -8.250
44 FC5 179 -7.762
44 FC5 180 -8.250
44 FC5 181 -10.203
44 FC5 182 -13.621
44 FC5 183 -16.551
44 FC5 184 -18.504
44 FC5 185 -18.992
44 FC5 186 -18.016
44 FC5 187 -17.039
44 FC5 188 -15.574
44 FC5 189 -14.109
44 FC5 190 -12.156
44 FC5 191 -9.226
44 FC5 192 -5.809
44 FC5 193 -2.391
44 FC5 194 1.027
44 FC5 195 3.469
44 FC5 196 5.422
44 FC5 197 6.887
44 FC5 198 8.352
44 FC5 199 10.305
44 FC5 200 11.770
44 FC5 201 13.723
44 FC5 202 15.676
44 FC5 203 16.652
44 FC5 204 16.164
44 FC5 205 13.723
44 FC5 206 9.816
44 FC5 207 4.934
44 FC5 208 2.004
44 FC5 209 0.051
44 FC5 210 -0.926
44 FC5 211 -1.902
44 FC5 212 -4.832
44 FC5 213 -9.226
44 FC5 214 -14.109
44 FC5 215 -18.504
44 FC5 216 -20.945
44 FC5 217 -21.922
44 FC5 218 -21.434
44 FC5 219 -21.434
44 FC5 220 -20.457
44 FC5 221 -18.992
44 FC5 222 -15.574
44 FC5 223 -10.691
44 FC5 224 -5.320
44 FC5 225 -0.437
44 FC5 226 2.492
44 FC5 227 2.981
44 FC5 228 2.004
44 FC5 229 0.539
44 FC5 230 -0.926
44 FC5 231 -2.391
44 FC5 232 -3.367
44 FC5 233 -3.855
44 FC5 234 -3.855
44 FC5 235 -3.367
44 FC5 236 -1.902
44 FC5 237 -1.902
44 FC5 238 -2.879
44 FC5 239 -5.809
44 FC5 240 -9.715
44 FC5 241 -12.644
44 FC5 242 -14.598
44 FC5 243 -13.621
44 FC5 244 -11.180
44 FC5 245 -8.738
44 FC5 246 -7.273
44 FC5 247 -6.785
44 FC5 248 -6.785
44 FC5 249 -7.762
44 FC5 250 -7.762
44 FC5 251 -8.250
44 FC5 252 -8.738
44 FC5 253 -8.250
44 FC5 254 -7.273
44 FC5 255 -4.832
# FC2 chan 11
44 FC2 0 0.671
44 FC2 1 0.671
44 FC2 2 -0.305
44 FC2 3 -1.770
44 FC2 4 -2.258
44 FC2 5 -3.235
44 FC2 6 -3.235
44 FC2 7 -2.747
44 FC2 8 -2.747
44 FC2 9 -2.747
44 FC2 10 -2.747
44 FC2 11 -2.258
44 FC2 12 -1.770
44 FC2 13 -2.258
44 FC2 14 -2.258
44 FC2 15 -2.258
44 FC2 16 -2.258
44 FC2 17 -2.258
44 FC2 18 -1.770
44 FC2 19 -0.793
44 FC2 20 0.183
44 FC2 21 0.183
44 FC2 22 0.183
44 FC2 23 -0.305
44 FC2 24 -1.282
44 FC2 25 -2.258
44 FC2 26 -2.258
44 FC2 27 -2.258
44 FC2 28 -1.770
44 FC2 29 -2.258
44 FC2 30 -2.258
44 FC2 31 -2.747
44 FC2 32 -3.235
44 FC2 33 -3.235
44 FC2 34 -3.235
44 FC2 35 -3.235
44 FC2 36 -2.747
44 FC2 37 -2.258
44 FC2 38 -1.282
44 FC2 39 -0.305
44 FC2 40 0.183
44 FC2 41 0.671
44 FC2 42 1.160
44 FC2 43 1.648
44 FC2 44 3.113
44 FC2 45 4.089
44 FC2 46 4.089
44 FC2 47 3.601
44 FC2 48 2.136
44 FC2 49 0.671
44 FC2 50 0.183
44 FC2 51 0.671
44 FC2 52 1.648
44 FC2 53 1.648
44 FC2 54 1.648
44 FC2 55 0.183
44 FC2 56 -0.305
44 FC2 57 -0.793
44 FC2 58 -0.305
44 FC2 59 1.160
44 FC2 60 2.136
44 FC2 61 3.113
44 FC2 62 2.136
44 FC2 63 0.183
44 FC2 64 -2.258
44 FC2 65 -4.211
44 FC2 66 -5.188
44 FC2 67 -5.188
44 FC2 68 -4.700
44 FC2 69 -4.211
44 FC2 70 -3.723
44 FC2 71 -3.723
44 FC2 72 -4.211
44 FC2 73 -5.188
44 FC2 74 -5.188
44 FC2 75 -5.676
44 FC2 76 -6.165
44 FC2 77 -6.165
44 FC2 78 -6.165
44 FC2 79 -5.188
44 FC2 80 -4.700
44 FC2 81 -3.723
44 FC2 82 -3.235
44 FC2 83 -2.747
44 FC2 84 -1.770
44 FC2 85 -1.282
44 FC2 86 -0.793
44 FC2 87 -0.793
44 FC2 88 -0.793
44 FC2 89 -0.793
44 FC2 90 -1.282
44 FC2 91 -1.282
44 FC2 92 -1.282
44 FC2 93 -1.282
44 FC2 94 -1.282
44 FC2 95 -0.793
44 FC2 96 -0.305
44 FC2 97 0.183
44 FC2 98 0.183
44 FC2 99 -0.305
44 FC2 100 -1.282
44 FC2 101 -1.770
44 FC2 102 -1.770
44 FC2 103 -1.282
44 FC2 104 -0.793
44 FC2 105 -0.793
44 FC2 106 -1.282
44 FC2 107 -2.258
44 FC2 108 -4.211
44 FC2 109 -5.676
44 FC2 110 -7.141
44 FC2 111 -8.118
44 FC2 112 -9.583
44 FC2 113 -11.047
44 FC2 114 -12.512
44 FC2 115 -14.465
44 FC2 116 -16.418
44 FC2 117 -17.395
44 FC2 118 -17.883
44 FC2 119 -16.907
44 FC2 120 -15.930
44 FC2 121 -14.954
44 FC2 122 -13.977
44 FC2 123 -12.512
44 FC2 124 -10.071
44 FC2 125 -7.141
44 FC2 126 -3.723
44 FC2 127 -0.793
44 FC2 128 1.160
44 FC2 129 2.625
44 FC2 130 4.089
44 FC2 131 6.531
44 FC2 132 8.484
44 FC2 133 10.437
44 FC2 134 10.437
44 FC2 135 9.460
44 FC2 136 7.507
44 FC2 137 4.578
44 FC2 138 2.625
44 FC2 139 0.671
44 FC2 140 -1.282
44 FC2 141 -3.723
44 FC2 142 -6.165
44 FC2 143 -8.118
44 FC2 144 -10.071
44 FC2 145 -11.047
44 FC2 146 -12.024
44 FC2 147 -13.977
44 FC2 148 -15.930
44 FC2 149 -17.883
44 FC2 150 -19.348
44 FC2 151 -19.836
44 FC2 152 -18.860
44 FC2 153 -17.883
44 FC2 154 -16.418
44 FC2 155 -14.954
44 FC2 156 -13.000
44 FC2 157 -10.559
44 FC2 158 -7.141
44 FC2 159 -4.211
44 FC2 160 -2.258
44 FC2 161 -0.305
44 FC2 162 0.183
44 FC2 163 0.671
44 FC2 164 1.160
44 FC2 165 2.136
44 FC2 166 3.601
44 FC2 167 5.554
44 FC2 168 7.019
44 FC2 169 8.484
44 FC2 170 9.460
44 FC2 171 9.460
44 FC2 172 8.484
44 FC2 173 6.531
44 FC2 174 3.601
44 FC2 175 0.671
44 FC2 176 -1.770
44 FC2 177 -3.723
44 FC2 178 -4.700
44 FC2 179 -5.188
44 FC2 180 -5.676
44 FC2 181 -6.653
44 FC2 182 -7.141
44 FC2 183 -7.629
44 FC2 184 -7.629
44 FC2 185 -6.653
44 FC2 186 -6.165
44 FC2 187 -6.653
44 FC2 188 -7.141
44 FC2 189 -7.629
44 FC2 190 -6.653
44 FC2 191 -4.700
44 FC2 192 -2.258
44 FC2 193 -0.793
44 FC2 194 -0.305
44 FC2 195 -1.282
44 FC2 196 -2.747
44 FC2 197 -3.723
44 FC2 198 -2.747
44 FC2 199 -0.793
44 FC2 200 2.136
44 FC2 201 4.578
44 FC2 202 6.042
44 FC2 203 7.019
44 FC2 204 7.019
44 FC2 205 6.531
44 FC2 206 5.066
44 FC2 207 3.601
44 FC2 208 1.648
44 FC2 209 -0.305
44 FC2 210 -1.770
44 FC2 211 -3.235
44 FC2 212 -4.700
44 FC2 213 -6.165
44 FC2 214 -7.141
44 FC2 215 -7.141
44 FC2 216 -6.165
44 FC2 217 -4.211
44 FC2 218 -2.747
44 FC2 219 -1.770
44 FC2 220 -1.770
44 FC2 221 -2.258
44 FC2 222 -1.770
44 FC2 223 -0.793
44 FC2 224 0.183
44 FC2 225 1.160
44 FC2 226 0.183
44 FC2 227 -1.770
44 FC2 228 -3.723
44 FC2 229 -5.188
44 FC2 230 -5.188
44 FC2 231 -5.188
44 FC2 232 -4.700
44 FC2 233 -4.211
44 FC2 234 -3.723
44 FC2 235 -3.235
44 FC2 236 -2.258
44 FC2 237 -1.770
44 FC2 238 -1.282
44 FC2 239 -1.770
44 FC2 240 -2.258
44 FC2 241 -2.747
44 FC2 242 -1.770
44 FC2 243 -0.305
44 FC2 244 1.160
44 FC2 245 2.625
44 FC2 246 4.089
44 FC2 247 5.066
44 FC2 248 4.578
44 FC2 249 3.601
44 FC2 250 2.136
44 FC2 251 -0.305
44 FC2 252 -1.770
44 FC2 253 -1.770
44 FC2 254 -0.305
44 FC2 255 1.160
# FC1 chan 12
44 FC1 0 -2.553
44 FC1 1 -2.065
44 FC1 2 -2.553
44 FC1 3 -4.018
44 FC1 4 -6.460
44 FC1 5 -8.413
44 FC1 6 -9.389
44 FC1 7 -8.413
44 FC1 8 -6.948
44 FC1 9 -5.483
44 FC1 10 -4.995
44 FC1 11 -5.483
44 FC1 12 -5.971
44 FC1 13 -4.995
44 FC1 14 -4.018
44 FC1 15 -3.042
44 FC1 16 -2.065
44 FC1 17 -2.065
44 FC1 18 -2.553
44 FC1 19 -3.042
44 FC1 20 -2.553
44 FC1 21 -2.553
44 FC1 22 -2.553
44 FC1 23 -4.018
44 FC1 24 -4.995
44 FC1 25 -5.971
44 FC1 26 -5.483
44 FC1 27 -4.018
44 FC1 28 -2.065
44 FC1 29 -1.088
44 FC1 30 -1.088
44 FC1 31 -1.088
44 FC1 32 -1.577
44 FC1 33 -2.065
44 FC1 34 -2.065
44 FC1 35 -2.065
44 FC1 36 -2.065
44 FC1 37 -2.065
44 FC1 38 -1.577
44 FC1 39 -0.112
44 FC1 40 0.376
44 FC1 41 0.376
44 FC1 42 -1.088
44 FC1 43 -2.553
44 FC1 44 -3.042
44 FC1 45 -3.042
44 FC1 46 -2.553
44 FC1 47 -2.065
44 FC1 48 -2.065
44 FC1 49 -3.042
44 FC1 50 -3.042
44 FC1 51 -2.065
44 FC1 52 -0.600
44 FC1 53 0.376
44 FC1 54 0.865
44 FC1 55 0.376
44 FC1 56 -0.112
44 FC1 57 0.376
44 FC1 58 0.865
44 FC1 59 2.330
44 FC1 60 2.818
44 FC1 61 2.330
44 FC1 62 0.376
44 FC1 63 -1.577
44 FC1 64 -3.530
44 FC1 65 -5.483
44 FC1 66 -5.971
44 FC1 67 -6.948
44 FC1 68 -7.924
44 FC1 69 -7.924
44 FC1 70 -7.924
44 FC1 71 -6.948
44 FC1 72 -6.460
44 FC1 73 -6.460
44 FC1 74 -6.948
44 FC1 75 -7.924
44 FC1 76 -7.924
44 FC1 77 -7.436
44 FC1 78 -6.460
44 FC1 79 -5.483
44 FC1 80 -4.995
44 FC1 81 -4.995
44 FC1 82 -4.995
44 FC1 83 -4.995
44 FC1 84 -4.506
44 FC1 85 -4.018
44 FC1 86 -3.530
44 FC1 87 -3.042
44 FC1 88 -3.042
44 FC1 89 -2.065
44 FC1 90 -2.065
44 FC1 91 -2.065
44 FC1 92 -2.553
44 FC1 93 -3.530
44 FC1 94 -4.018
44 FC1 95 -4.506
44 FC1 96 -4.018
44 FC1 97 -4.018
44 FC1 98 -3.530
44 FC1 99 -3.530
44 FC1 100 -3.042
44 FC1 101 -2.065
44 FC1 102 -1.088
44 FC1 103 -0.112
44 FC1 104 0.376
44 FC1 105 -0.112
44 FC1 106 -1.088
44 FC1 107 -2.065
44 FC1 108 -3.530
44 FC1 109 -4.995
44 FC1 110 -7.436
44 FC1 111 -10.366
44 FC1 112 -13.295
44 FC1 113 -16.713
44 FC1 114 -19.155
44 FC1 115 -21.596
44 FC1 116 -23.061
44 FC1 117 -24.038
44 FC1 118 -24.038
44 FC1 119 -22.573
44 FC1 120 -20.131
44 FC1 121 -17.690
44 FC1 122 -15.249
44 FC1 123 -12.319
44 FC1 124 -9.878
44 FC1 125 -6.460
44 FC1 126 -3.530
44 FC1 127 -0.112
44 FC1 128 1.353
44 FC1 129 2.818
44 FC1 130 3.306
44 FC1 131 3.794
44 FC1 132 4.771
44 FC1 133 4.771
44 FC1 134 4.283
44 FC1 135 3.306
44 FC1 136 0.865
44 FC1 137 -1.577
44 FC1 138 -4.018
44 FC1 139 -6.460
44 FC1 140 -8.413
44 FC1 141 -10.366
44 FC1 142 -12.319
44 FC1 143 -13.295
44 FC1 144 -14.272
44 FC1 145 -14.760
44 FC1 146 -14.760
44 FC1 147 -15.737
44 FC1 148 -16.713
44 FC1 149 -17.202
44 FC1 150 -18.178
44 FC1 151 -18.178
44 FC1 152 -18.178
44 FC1 153 -17.690
44 FC1 154 -17.202
44 FC1 155 -16.225
44 FC1 156 -14.760
44 FC1 157 -12.319
44 FC1 158 -9.389
44 FC1 159 -5.971
44 FC1 160 -3.042
44 FC1 161 -1.088
44 FC1 162 -0.112
44 FC1 163 1.353
44 FC1 164 2.818
44 FC1 165 4.771
44 FC1 166 6.724
44 FC1 167 7.701
44 FC1 168 8.189
44 FC1 169 7.212
44 FC1 170 6.236
44 FC1 171 5.747
44 FC1 172 4.771
44 FC1 173 3.306
44 FC1 174 0.376
44 FC1 175 -3.042
44 FC1 176 -6.460
44 FC1 177 -8.901
44 FC1 178 -9.389
44 FC1 179 -8.901
44 FC1 180 -8.901
44 FC1 181 -9.878
44 FC1 182 -11.831
44 FC1 183 -13.784
44 FC1 184 -14.760
44 FC1 185 -13.295
44 FC1 186 -12.319
44 FC1 187 -10.854
44 FC1 188 -9.878
44 FC1 189 -8.901
44 FC1 190 -7.436
44 FC1 191 -5.483
44 FC1 192 -3.042
44 FC1 193 -2.065
44 FC1 194 -2.065
44 FC1 195 -3.042
44 FC1 196 -4.995
44 FC1 197 -5.971
44 FC1 198 -4.506
44 FC1 199 -2.065
44 FC1 200 1.353
44 FC1 201 3.794
44 FC1 202 5.259
44 FC1 203 5.747
44 FC1 204 5.747
44 FC1 205 4.771
44 FC1 206 3.794
44 FC1 207 2.330
44 FC1 208 0.376
44 FC1 209 -1.577
44 FC1 210 -3.042
44 FC1 211 -4.506
44 FC1 212 -6.460
44 FC1 213 -8.413
44 FC1 214 -9.878
44 FC1 215 -10.854
44 FC1 216 -10.366
44 FC1 217 -9.389
44 FC1 218 -7.924
44 FC1 219 -6.948
44 FC1 220 -6.460
44 FC1 221 -5.483
44 FC1 222 -4.018
44 FC1 223 -1.577
44 FC1 224 0.376
44 FC1 225 0.865
44 FC1 226 0.376
44 FC1 227 -1.088
44 FC1 228 -2.065
44 FC1 229 -3.042
44 FC1 230 -4.018
44 FC1 231 -4.995
44 FC1 232 -5.483
44 FC1 233 -5.971
44 FC1 234 -5.483
44 FC1 235 -4.018
44 FC1 236 -2.065
44 FC1 237 -1.577
44 FC1 238 -2.065
44 FC1 239 -3.530
44 FC1 240 -4.506
44 FC1 241 -4.506
44 FC1 242 -3.530
44 FC1 243 -2.065
44 FC1 244 -0.600
44 FC1 245 0.376
44 FC1 246 0.865
44 FC1 247 1.353
44 FC1 248 1.353
44 FC1 249 0.865
44 FC1 250 -1.088
44 FC1 251 -2.065
44 FC1 252 -3.042
44 FC1 253 -2.553
44 FC1 254 -1.577
44 FC1 255 -1.088
# T8 chan 13
44 T8 0 -1.129
44 T8 1 0.336
44 T8 2 2.777
44 T8 3 5.219
44 T8 4 7.172
44 T8 5 7.172
44 T8 6 6.195
44 T8 7 4.730
44 T8 8 4.242
44 T8 9 4.730
44 T8 10 5.707
44 T8 11 6.195
44 T8 12 5.219
44 T8 13 3.265
44 T8 14 1.312
44 T8 15 0.824
44 T8 16 2.289
44 T8 17 5.219
44 T8 18 7.172
44 T8 19 8.148
44 T8 20 7.660
44 T8 21 6.195
44 T8 22 5.707
44 T8 23 5.219
44 T8 24 4.730
44 T8 25 3.265
44 T8 26 1.801
44 T8 27 0.336
44 T8 28 0.824
44 T8 29 2.289
44 T8 30 3.754
44 T8 31 4.242
44 T8 32 3.265
44 T8 33 2.289
44 T8 34 1.801
44 T8 35 4.242
44 T8 36 6.683
44 T8 37 9.613
44 T8 38 11.078
44 T8 39 10.590
44 T8 40 9.613
44 T8 41 9.125
44 T8 42 9.125
44 T8 43 9.613
44 T8 44 9.125
44 T8 45 8.148
44 T8 46 5.707
44 T8 47 3.754
44 T8 48 2.777
44 T8 49 2.289
44 T8 50 3.265
44 T8 51 4.242
44 T8 52 5.707
44 T8 53 5.707
44 T8 54 4.730
44 T8 55 3.754
44 T8 56 2.289
44 T8 57 1.801
44 T8 58 2.777
44 T8 59 5.219
44 T8 60 7.660
44 T8 61 10.101
44 T8 62 10.590
44 T8 63 9.613
44 T8 64 6.195
44 T8 65 2.777
44 T8 66 -0.153
44 T8 67 -1.617
44 T8 68 -2.106
44 T8 69 -2.594
44 T8 70 -2.594
44 T8 71 -3.571
44 T8 72 -4.547
44 T8 73 -5.035
44 T8 74 -5.524
44 T8 75 -5.035
44 T8 76 -4.059
44 T8 77 -2.106
44 T8 78 0.336
44 T8 79 2.777
44 T8 80 5.707
44 T8 81 8.636
44 T8 82 11.078
44 T8 83 13.519
44 T8 84 14.496
44 T8 85 14.008
44 T8 86 13.031
44 T8 87 11.566
44 T8 88 10.590
44 T8 89 9.125
44 T8 90 7.660
44 T8 91 5.219
44 T8 92 1.801
44 T8 93 -2.106
44 T8 94 -5.035
44 T8 95 -6.012
44 T8 96 -5.035
44 T8 97 -3.082
44 T8 98 -2.106
44 T8 99 -2.106
44 T8 100 -3.571
44 T8 101 -5.524
44 T8 102 -5.524
44 T8 103 -5.035
44 T8 104 -3.082
44 T8 105 -1.129
44 T8 106 1.801
44 T8 107 4.730
44 T8 108 8.148
44 T8 109 13.031
44 T8 110 17.426
44 T8 111 20.355
44 T8 112 22.308
44 T8 113 22.308
44 T8 114 21.332
44 T8 115 19.379
44 T8 116 16.937
44 T8 117 14.496
44 T8 118 11.566
44 T8 119 9.125
44 T8 120 6.195
44 T8 121 3.265
44 T8 122 0.336
44 T8 123 -2.594
44 T8 124 -4.547
44 T8 125 -5.524
44 T8 126 -5.524
44 T8 127 -4.547
44 T8 128 -3.571
44 T8 129 -3.082
44 T8 130 -3.082
44 T8 131 -3.571
44 T8 132 -3.571
44 T8 133 -3.082
44 T8 134 -1.617
44 T8 135 1.312
44 T8 136 4.730
44 T8 137 8.148
44 T8 138 11.566
44 T8 139 14.496
44 T8 140 15.472
44 T8 141 15.961
44 T8 142 15.472
44 T8 143 14.008
44 T8 144 12.543
44 T8 145 10.590
44 T8 146 8.148
44 T8 147 5.707
44 T8 148 3.265
44 T8 149 0.824
44 T8 150 -1.129
44 T8 151 -2.106
44 T8 152 -2.594
44 T8 153 -2.594
44 T8 154 -2.106
44 T8 155 -1.617
44 T8 156 -1.617
44 T8 157 -1.617
44 T8 158 -1.129
44 T8 159 -0.641
44 T8 160 -0.641
44 T8 161 -1.129
44 T8 162 -2.594
44 T8 163 -3.571
44 T8 164 -4.059
44 T8 165 -3.571
44 T8 166 -2.106
44 T8 167 -0.153
44 T8 168 1.801
44 T8 169 4.730
44 T8 170 7.172
44 T8 171 10.101
44 T8 172 13.031
44 T8 173 13.519
44 T8 174 13.031
44 T8 175 10.590
44 T8 176 7.660
44 T8 177 5.219
44 T8 178 3.265
44 T8 179 0.824
44 T8 180 -1.617
44 T8 181 -5.035
44 T8 182 -7.965
44 T8 183 -9.918
44 T8 184 -10.895
44 T8 185 -11.383
44 T8 186 -10.895
44 T8 187 -10.406
44 T8 188 -10.406
44 T8 189 -9.918
44 T8 190 -8.942
44 T8 191 -6.989
44 T8 192 -4.059
44 T8 193 -0.153
44 T8 194 3.754
44 T8 195 6.683
44 T8 196 9.125
44 T8 197 10.101
44 T8 198 11.078
44 T8 199 13.519
44 T8 200 16.937
44 T8 201 20.355
44 T8 202 22.797
44 T8 203 22.797
44 T8 204 21.820
44 T8 205 19.867
44 T8 206 18.402
44 T8 207 17.426
44 T8 208 16.937
44 T8 209 16.449
44 T8 210 16.449
44 T8 211 15.472
44 T8 212 13.031
44 T8 213 8.148
44 T8 214 1.801
44 T8 215 -4.547
44 T8 216 -9.918
44 T8 217 -12.360
44 T8 218 -12.848
44 T8 219 -12.848
44 T8 220 -13.336
44 T8 221 -14.313
44 T8 222 -13.824
44 T8 223 -10.895
44 T8 224 -5.035
44 T8 225 1.312
44 T8 226 5.707
44 T8 227 7.172
44 T8 228 5.707
44 T8 229 3.265
44 T8 230 1.801
44 T8 231 1.801
44 T8 232 2.777
44 T8 233 2.777
44 T8 234 2.289
44 T8 235 0.824
44 T8 236 0.336
44 T8 237 0.336
44 T8 238 0.336
44 T8 239 -0.641
44 T8 240 -3.571
44 T8 241 -6.012
44 T8 242 -7.965
44 T8 243 -7.477
44 T8 244 -6.012
44 T8 245 -5.035
44 T8 246 -5.524
44 T8 247 -6.012
44 T8 248 -5.524
44 T8 249 -4.059
44 T8 250 -3.082
44 T8 251 -3.571
44 T8 252 -6.012
44 T8 253 -8.453
44 T8 254 -8.453
44 T8 255 -5.524
# T7 chan 14
44 T7 0 -2.319
44 T7 1 -0.854
44 T7 2 1.587
44 T7 3 4.517
44 T7 4 5.981
44 T7 5 5.005
44 T7 6 2.075
44 T7 7 -0.854
44 T7 8 -0.854
44 T7 9 1.587
44 T7 10 5.005
44 T7 11 6.958
44 T7 12 5.493
44 T7 13 1.099
44 T7 14 -3.784
44 T7 15 -5.249
44 T7 16 -3.296
44 T7 17 2.075
44 T7 18 7.446
44 T7 19 10.376
44 T7 20 10.376
44 T7 21 7.446
44 T7 22 4.517
44 T7 23 1.587
44 T7 24 -0.854
44 T7 25 -3.296
44 T7 26 -4.761
44 T7 27 -5.737
44 T7 28 -5.249
44 T7 29 -3.296
44 T7 30 -0.366
44 T7 31 2.075
44 T7 32 3.540
44 T7 33 3.540
44 T7 34 3.540
44 T7 35 3.540
44 T7 36 3.540
44 T7 37 3.540
44 T7 38 4.028
44 T7 39 5.005
44 T7 40 6.958
44 T7 41 8.911
44 T7 42 10.376
44 T7 43 8.911
44 T7 44 5.005
44 T7 45 0.610
44 T7 46 -2.319
44 T7 47 -1.831
44 T7 48 0.610
44 T7 49 3.540
44 T7 50 6.470
44 T7 51 7.935
44 T7 52 7.935
44 T7 53 6.958
44 T7 54 5.493
44 T7 55 4.028
44 T7 56 2.563
44 T7 57 3.052
44 T7 58 5.005
44 T7 59 6.958
44 T7 60 8.911
44 T7 61 8.423
44 T7 62 6.958
44 T7 63 4.517
44 T7 64 2.563
44 T7 65 0.122
44 T7 66 -0.854
44 T7 67 -2.808
44 T7 68 -4.761
44 T7 69 -7.202
44 T7 70 -8.667
44 T7 71 -9.155
44 T7 72 -9.155
44 T7 73 -8.179
44 T7 74 -6.226
44 T7 75 -4.761
44 T7 76 -2.319
44 T7 77 1.587
44 T7 78 5.981
44 T7 79 9.399
44 T7 80 11.841
44 T7 81 11.841
44 T7 82 11.353
44 T7 83 10.376
44 T7 84 9.888
44 T7 85 9.399
44 T7 86 8.911
44 T7 87 7.446
44 T7 88 4.517
44 T7 89 0.122
44 T7 90 -4.761
44 T7 91 -10.132
44 T7 92 -14.038
44 T7 93 -15.991
44 T7 94 -15.503
44 T7 95 -13.062
44 T7 96 -11.108
44 T7 97 -10.620
44 T7 98 -12.573
44 T7 99 -14.526
44 T7 100 -15.015
44 T7 101 -12.085
44 T7 102 -5.737
44 T7 103 0.122
44 T7 104 4.517
44 T7 105 6.470
44 T7 106 7.935
44 T7 107 10.376
44 T7 108 14.771
44 T7 109 19.653
44 T7 110 23.071
44 T7 111 23.560
44 T7 112 22.095
44 T7 113 19.653
44 T7 114 17.212
44 T7 115 14.771
44 T7 116 10.864
44 T7 117 6.470
44 T7 118 2.075
44 T7 119 0.610
44 T7 120 1.099
44 T7 121 2.075
44 T7 122 1.587
44 T7 123 -0.854
44 T7 124 -4.272
44 T7 125 -5.737
44 T7 126 -4.761
44 T7 127 -2.808
44 T7 128 -1.343
44 T7 129 -1.343
44 T7 130 -3.296
44 T7 131 -6.226
44 T7 132 -8.179
44 T7 133 -9.155
44 T7 134 -9.155
44 T7 135 -8.179
44 T7 136 -7.690
44 T7 137 -5.737
44 T7 138 -4.272
44 T7 139 -2.808
44 T7 140 -1.831
44 T7 141 -1.343
44 T7 142 -0.854
44 T7 143 -0.854
44 T7 144 -1.343
44 T7 145 -2.808
44 T7 146 -4.761
44 T7 147 -7.202
44 T7 148 -8.667
44 T7 149 -7.202
44 T7 150 -4.761
44 T7 151 -2.808
44 T7 152 -2.808
44 T7 153 -5.737
44 T7 154 -9.644
44 T7 155 -12.085
44 T7 156 -11.108
44 T7 157 -7.690
44 T7 158 -3.784
44 T7 159 -0.854
44 T7 160 -0.366
44 T7 161 -0.366
44 T7 162 -0.854
44 T7 163 -0.366
44 T7 164 1.587
44 T7 165 3.540
44 T7 166 4.517
44 T7 167 4.517
44 T7 168 3.540
44 T7 169 2.563
44 T7 170 2.075
44 T7 171 3.540
44 T7 172 5.005
44 T7 173 5.005
44 T7 174 3.052
44 T7 175 -0.366
44 T7 176 -4.761
44 T7 177 -6.714
44 T7 178 -7.202
44 T7 179 -6.226
44 T7 180 -5.737
44 T7 181 -7.690
44 T7 182 -11.597
44 T7 183 -16.479
44 T7 184 -18.921
44 T7 185 -18.433
44 T7 186 -14.526
44 T7 187 -10.132
44 T7 188 -7.690
44 T7 189 -7.202
44 T7 190 -8.667
44 T7 191 -8.667
44 T7 192 -5.737
44 T7 193 -0.366
44 T7 194 5.981
44 T7 195 11.841
44 T7 196 15.747
44 T7 197 17.212
44 T7 198 18.188
44 T7 199 19.165
44 T7 200 20.630
44 T7 201 22.583
44 T7 202 24.536
44 T7 203 25.024
44 T7 204 23.071
44 T7 205 20.142
44 T7 206 14.771
44 T7 207 9.399
44 T7 208 4.028
44 T7 209 2.075
44 T7 210 3.052
44 T7 211 5.005
44 T7 212 5.493
44 T7 213 2.563
44 T7 214 -5.249
44 T7 215 -14.038
44 T7 216 -21.362
44 T7 217 -24.780
44 T7 218 -24.292
44 T7 219 -21.851
44 T7 220 -19.897
44 T7 221 -17.944
44 T7 222 -15.503
44 T7 223 -11.597
44 T7 224 -6.226
44 T7 225 -0.366
44 T7 226 4.517
44 T7 227 6.958
44 T7 228 6.958
44 T7 229 5.493
44 T7 230 3.540
44 T7 231 2.075
44 T7 232 1.099
44 T7 233 0.122
44 T7 234 -0.854
44 T7 235 -0.854
44 T7 236 0.610
44 T7 237 2.075
44 T7 238 3.052
44 T7 239 1.099
44 T7 240 -4.272
44 T7 241 -10.620
44 T7 242 -14.038
44 T7 243 -13.550
44 T7 244 -9.644
44 T7 245 -6.226
44 T7 246 -4.761
44 T7 247 -6.226
44 T7 248 -8.179
44 T7 249 -8.179
44 T7 250 -6.226
44 T7 251 -4.761
44 T7 252 -5.249
44 T7 253 -8.667
44 T7 254 -11.108
44 T7 255 -10.132
# CZ chan 15
44 CZ 0 0.092
44 CZ 1 0.092
44 CZ 2 0.580
44 CZ 3 2.045
44 CZ 4 2.533
44 CZ 5 2.045
44 CZ 6 0.580
44 CZ 7 -1.373
44 CZ 8 -0.885
44 CZ 9 2.045
44 CZ 10 6.439
44 CZ 11 9.857
44 CZ 12 11.322
44 CZ 13 10.834
44 CZ 14 10.834
44 CZ 15 11.322
44 CZ 16 12.299
44 CZ 17 12.299
44 CZ 18 10.345
44 CZ 19 7.416
44 CZ 20 3.998
44 CZ 21 2.533
44 CZ 22 2.045
44 CZ 23 0.580
44 CZ 24 -2.838
44 CZ 25 -5.768
44 CZ 26 -7.721
44 CZ 27 -5.768
44 CZ 28 -1.373
44 CZ 29 3.510
44 CZ 30 6.439
44 CZ 31 6.439
44 CZ 32 4.974
44 CZ 33 3.510
44 CZ 34 3.021
44 CZ 35 5.463
44 CZ 36 8.881
44 CZ 37 12.787
44 CZ 38 16.693
44 CZ 39 19.623
44 CZ 40 20.599
44 CZ 41 19.135
44 CZ 42 16.205
44 CZ 43 12.787
44 CZ 44 10.834
44 CZ 45 10.834
44 CZ 46 13.275
44 CZ 47 16.205
44 CZ 48 18.158
44 CZ 49 19.623
44 CZ 50 20.599
44 CZ 51 21.088
44 CZ 52 20.599
44 CZ 53 18.646
44 CZ 54 16.205
44 CZ 55 12.787
44 CZ 56 9.857
44 CZ 57 8.881
44 CZ 58 10.834
44 CZ 59 15.717
44 CZ 60 20.599
44 CZ 61 23.529
44 CZ 62 22.064
44 CZ 63 16.205
44 CZ 64 8.392
44 CZ 65 2.533
44 CZ 66 0.580
44 CZ 67 2.045
44 CZ 68 4.486
44 CZ 69 5.951
44 CZ 70 5.463
44 CZ 71 4.974
44 CZ 72 6.439
44 CZ 73 9.857
44 CZ 74 14.252
44 CZ 75 17.670
44 CZ 76 18.646
44 CZ 77 18.646
44 CZ 78 19.135
44 CZ 79 20.599
44 CZ 80 24.017
44 CZ 81 27.435
44 CZ 82 30.365
44 CZ 83 31.830
44 CZ 84 31.830
44 CZ 85 29.877
44 CZ 86 26.459
44 CZ 87 22.552
44 CZ 88 19.135
44 CZ 89 15.717
44 CZ 90 12.787
44 CZ 91 9.857
44 CZ 92 6.927
44 CZ 93 3.510
44 CZ 94 1.556
44 CZ 95 0.580
44 CZ 96 2.045
44 CZ 97 3.998
44 CZ 98 7.416
44 CZ 99 11.322
44 CZ 100 15.228
44 CZ 101 19.135
44 CZ 102 22.552
44 CZ 103 24.994
44 CZ 104 26.459
44 CZ 105 27.435
44 CZ 106 29.388
44 CZ 107 33.295
44 CZ 108 36.713
44 CZ 109 40.131
44 CZ 110 40.619
44 CZ 111 39.154
44 CZ 112 38.177
44 CZ 113 36.713
44 CZ 114 35.736
44 CZ 115 32.318
44 CZ 116 26.947
44 CZ 117 20.599
44 CZ 118 16.693
44 CZ 119 16.205
44 CZ 120 18.646
44 CZ 121 20.111
44 CZ 122 18.158
44 CZ 123 13.763
44 CZ 124 9.857
44 CZ 125 10.834
44 CZ 126 16.205
44 CZ 127 24.017
44 CZ 128 29.388
44 CZ 129 31.342
44 CZ 130 30.853
44 CZ 131 29.877
44 CZ 132 29.388
44 CZ 133 30.853
44 CZ 134 32.806
44 CZ 135 34.760
44 CZ 136 36.713
44 CZ 137 38.177
44 CZ 138 38.666
44 CZ 139 37.201
44 CZ 140 34.271
44 CZ 141 29.877
44 CZ 142 26.947
44 CZ 143 25.482
44 CZ 144 24.994
44 CZ 145 24.506
44 CZ 146 22.064
44 CZ 147 17.181
44 CZ 148 12.299
44 CZ 149 8.881
44 CZ 150 8.392
44 CZ 151 9.857
44 CZ 152 12.299
44 CZ 153 14.252
44 CZ 154 14.740
44 CZ 155 14.740
44 CZ 156 15.228
44 CZ 157 16.693
44 CZ 158 18.646
44 CZ 159 21.088
44 CZ 160 22.064
44 CZ 161 23.041
44 CZ 162 24.506
44 CZ 163 26.947
44 CZ 164 30.365
44 CZ 165 32.806
44 CZ 166 33.295
44 CZ 167 31.342
44 CZ 168 28.900
44 CZ 169 26.947
44 CZ 170 25.970
44 CZ 171 25.482
44 CZ 172 24.994
44 CZ 173 24.017
44 CZ 174 23.529
44 CZ 175 24.017
44 CZ 176 24.994
44 CZ 177 24.994
44 CZ 178 24.017
44 CZ 179 20.111
44 CZ 180 15.228
44 CZ 181 9.857
44 CZ 182 5.463
44 CZ 183 2.045
44 CZ 184 0.580
44 CZ 185 1.068
44 CZ 186 3.021
44 CZ 187 6.927
44 CZ 188 11.810
44 CZ 189 15.717
44 CZ 190 19.135
44 CZ 191 22.552
44 CZ 192 26.459
44 CZ 193 31.830
44 CZ 194 37.689
44 CZ 195 42.084
44 CZ 196 45.013
44 CZ 197 46.478
44 CZ 198 47.455
44 CZ 199 49.896
44 CZ 200 53.802
44 CZ 201 57.220
44 CZ 202 59.174
44 CZ 203 58.197
44 CZ 204 55.267
44 CZ 205 50.873
44 CZ 206 45.502
44 CZ 207 39.642
44 CZ 208 33.783
44 CZ 209 29.388
44 CZ 210 26.459
44 CZ 211 25.482
44 CZ 212 24.506
44 CZ 213 22.064
44 CZ 214 17.670
44 CZ 215 11.810
44 CZ 216 7.416
44 CZ 217 6.927
44 CZ 218 9.369
44 CZ 219 12.299
44 CZ 220 13.763
44 CZ 221 13.275
44 CZ 222 13.763
44 CZ 223 18.646
44 CZ 224 27.435
44 CZ 225 38.177
44 CZ 226 45.502
44 CZ 227 46.478
44 CZ 228 41.595
44 CZ 229 34.271
44 CZ 230 28.412
44 CZ 231 25.482
44 CZ 232 24.017
44 CZ 233 22.064
44 CZ 234 19.135
44 CZ 235 16.693
44 CZ 236 16.205
44 CZ 237 16.205
44 CZ 238 15.228
44 CZ 239 12.299
44 CZ 240 7.904
44 CZ 241 4.974
44 CZ 242 5.463
44 CZ 243 8.881
44 CZ 244 11.810
44 CZ 245 11.810
44 CZ 246 9.857
44 CZ 247 9.369
44 CZ 248 12.299
44 CZ 249 18.646
44 CZ 250 24.506
44 CZ 251 26.947
44 CZ 252 24.506
44 CZ 253 21.576
44 CZ 254 22.552
44 CZ 255 27.924
# C3 chan 16
44 C3 0 3.540
44 C3 1 4.028
44 C3 2 4.517
44 C3 3 5.493
44 C3 4 5.981
44 C3 5 5.981
44 C3 6 5.493
44 C3 7 5.493
44 C3 8 5.005
44 C3 9 5.005
44 C3 10 4.517
44 C3 11 3.052
44 C3 12 2.075
44 C3 13 0.610
44 C3 14 0.610
44 C3 15 0.610
44 C3 16 0.610
44 C3 17 -0.366
44 C3 18 -1.831
44 C3 19 -2.319
44 C3 20 -2.319
44 C3 21 -1.831
44 C3 22 -1.343
44 C3 23 -1.831
44 C3 24 -3.296
44 C3 25 -4.272
44 C3 26 -5.249
44 C3 27 -4.272
44 C3 28 -2.319
44 C3 29 0.122
44 C3 30 2.075
44 C3 31 3.052
44 C3 32 3.052
44 C3 33 3.540
44 C3 34 5.005
44 C3 35 6.470
44 C3 36 7.935
44 C3 37 8.423
44 C3 38 8.911
44 C3 39 8.423
44 C3 40 8.423
44 C3 41 7.446
44 C3 42 6.470
44 C3 43 4.517
44 C3 44 2.075
44 C3 45 0.122
44 C3 46 -1.831
44 C3 47 -3.296
44 C3 48 -3.784
44 C3 49 -4.272
44 C3 50 -3.784
44 C3 51 -2.808
44 C3 52 -1.831
44 C3 53 -1.831
44 C3 54 -1.831
44 C3 55 -2.319
44 C3 56 -2.808
44 C3 57 -1.831
44 C3 58 0.610
44 C3 59 3.052
44 C3 60 5.493
44 C3 61 6.958
44 C3 62 6.470
44 C3 63 5.493
44 C3 64 4.517
44 C3 65 3.540
44 C3 66 3.052
44 C3 67 2.075
44 C3 68 1.587
44 C3 69 0.122
44 C3 70 -0.854
44 C3 71 -1.831
44 C3 72 -2.319
44 C3 73 -2.319
44 C3 74 -2.319
44 C3 75 -1.831
44 C3 76 -0.854
44 C3 77 0.122
44 C3 78 1.099
44 C3 79 2.075
44 C3 80 3.052
44 C3 81 3.540
44 C3 82 4.517
44 C3 83 4.517
44 C3 84 4.028
44 C3 85 3.540
44 C3 86 3.540
44 C3 87 3.052
44 C3 88 2.563
44 C3 89 2.075
44 C3 90 1.099
44 C3 91 -0.366
44 C3 92 -1.831
44 C3 93 -3.296
44 C3 94 -4.272
44 C3 95 -5.249
44 C3 96 -6.226
44 C3 97 -6.714
44 C3 98 -6.714
44 C3 99 -6.226
44 C3 100 -5.249
44 C3 101 -2.808
44 C3 102 -0.366
44 C3 103 1.587
44 C3 104 3.052
44 C3 105 4.517
44 C3 106 5.493
44 C3 107 7.446
44 C3 108 9.399
44 C3 109 10.864
44 C3 110 11.841
44 C3 111 10.864
44 C3 112 9.399
44 C3 113 6.958
44 C3 114 5.005
44 C3 115 2.563
44 C3 116 1.099
44 C3 117 -0.366
44 C3 118 -1.831
44 C3 119 -1.343
44 C3 120 -1.343
44 C3 121 -0.854
44 C3 122 -1.343
44 C3 123 -1.831
44 C3 124 -2.319
44 C3 125 -2.319
44 C3 126 -2.319
44 C3 127 -2.808
44 C3 128 -2.808
44 C3 129 -3.296
44 C3 130 -4.272
44 C3 131 -4.272
44 C3 132 -4.272
44 C3 133 -4.761
44 C3 134 -4.761
44 C3 135 -4.272
44 C3 136 -3.296
44 C3 137 -1.831
44 C3 138 0.122
44 C3 139 1.587
44 C3 140 2.075
44 C3 141 2.075
44 C3 142 1.587
44 C3 143 1.099
44 C3 144 1.099
44 C3 145 1.099
44 C3 146 0.610
44 C3 147 0.122
44 C3 148 -0.366
44 C3 149 -0.854
44 C3 150 -1.831
44 C3 151 -2.319
44 C3 152 -3.784
44 C3 153 -4.761
44 C3 154 -6.226
44 C3 155 -7.690
44 C3 156 -8.667
44 C3 157 -9.155
44 C3 158 -8.179
44 C3 159 -7.202
44 C3 160 -5.737
44 C3 161 -5.249
44 C3 162 -5.249
44 C3 163 -4.272
44 C3 164 -2.808
44 C3 165 -0.366
44 C3 166 1.099
44 C3 167 1.587
44 C3 168 1.099
44 C3 169 1.099
44 C3 170 1.099
44 C3 171 2.075
44 C3 172 3.540
44 C3 173 4.028
44 C3 174 2.563
44 C3 175 1.099
44 C3 176 -0.854
44 C3 177 -1.831
44 C3 178 -1.831
44 C3 179 -1.831
44 C3 180 -2.319
44 C3 181 -4.272
44 C3 182 -6.714
44 C3 183 -9.155
44 C3 184 -10.620
44 C3 185 -11.108
44 C3 186 -11.108
44 C3 187 -10.620
44 C3 188 -9.644
44 C3 189 -9.155
44 C3 190 -8.179
44 C3 191 -7.690
44 C3 192 -6.714
44 C3 193 -4.761
44 C3 194 -2.319
44 C3 195 0.122
44 C3 196 1.587
44 C3 197 3.052
44 C3 198 3.540
44 C3 199 4.517
44 C3 200 6.470
44 C3 201 7.935
44 C3 202 9.399
44 C3 203 10.376
44 C3 204 10.376
44 C3 205 9.399
44 C3 206 7.935
44 C3 207 5.981
44 C3 208 5.493
44 C3 209 5.005
44 C3 210 5.493
44 C3 211 5.005
44 C3 212 3.052
44 C3 213 -0.366
44 C3 214 -5.249
44 C3 215 -9.644
44 C3 216 -13.062
44 C3 217 -15.015
44 C3 218 -15.991
44 C3 219 -15.503
44 C3 220 -15.015
44 C3 221 -13.550
44 C3 222 -11.108
44 C3 223 -8.667
44 C3 224 -4.761
44 C3 225 -1.831
44 C3 226 1.099
44 C3 227 2.563
44 C3 228 2.563
44 C3 229 2.075
44 C3 230 1.099
44 C3 231 0.610
44 C3 232 0.122
44 C3 233 0.122
44 C3 234 0.610
44 C3 235 1.099
44 C3 236 1.587
44 C3 237 1.587
44 C3 238 1.099
44 C3 239 -0.366
44 C3 240 -3.296
44 C3 241 -5.249
44 C3 242 -6.226
44 C3 243 -6.226
44 C3 244 -5.737
44 C3 245 -5.249
44 C3 246 -6.226
44 C3 247 -7.202
44 C3 248 -7.690
44 C3 249 -7.690
44 C3 250 -6.714
44 C3 251 -5.737
44 C3 252 -5.249
44 C3 253 -5.737
44 C3 254 -6.226
44 C3 255 -6.226
# C4 chan 17
44 C4 0 0.854
44 C4 1 1.831
44 C4 2 2.808
44 C4 3 4.272
44 C4 4 5.249
44 C4 5 6.226
44 C4 6 6.226
44 C4 7 4.761
44 C4 8 3.296
44 C4 9 2.319
44 C4 10 1.831
44 C4 11 1.831
44 C4 12 2.319
44 C4 13 1.343
44 C4 14 0.366
44 C4 15 -1.099
44 C4 16 -1.099
44 C4 17 -0.122
44 C4 18 1.831
44 C4 19 3.784
44 C4 20 4.761
44 C4 21 4.761
44 C4 22 4.272
44 C4 23 3.784
44 C4 24 3.784
44 C4 25 3.296
44 C4 26 3.296
44 C4 27 2.808
44 C4 28 2.319
44 C4 29 1.831
44 C4 30 1.831
44 C4 31 2.319
44 C4 32 1.831
44 C4 33 1.343
44 C4 34 -0.122
44 C4 35 -0.610
44 C4 36 -0.122
44 C4 37 0.854
44 C4 38 1.831
44 C4 39 2.808
44 C4 40 3.296
44 C4 41 4.272
44 C4 42 5.249
44 C4 43 6.714
44 C4 44 7.690
44 C4 45 7.202
44 C4 46 6.226
44 C4 47 4.761
44 C4 48 3.296
44 C4 49 2.808
44 C4 50 2.808
44 C4 51 3.784
44 C4 52 4.272
44 C4 53 4.272
44 C4 54 3.296
44 C4 55 1.343
44 C4 56 -0.610
44 C4 57 -1.587
44 C4 58 -1.587
44 C4 59 0.366
44 C4 60 2.319
44 C4 61 4.272
44 C4 62 4.761
44 C4 63 3.296
44 C4 64 1.343
44 C4 65 -0.122
44 C4 66 -1.099
44 C4 67 -0.122
44 C4 68 0.366
44 C4 69 0.366
44 C4 70 -0.610
44 C4 71 -1.587
44 C4 72 -3.052
44 C4 73 -3.540
44 C4 74 -4.028
44 C4 75 -4.028
44 C4 76 -4.517
44 C4 77 -5.005
44 C4 78 -4.517
44 C4 79 -3.052
44 C4 80 -0.610
44 C4 81 1.831
44 C4 82 4.272
44 C4 83 5.737
44 C4 84 6.714
44 C4 85 7.202
44 C4 86 7.690
44 C4 87 7.690
44 C4 88 7.690
44 C4 89 7.202
44 C4 90 6.714
44 C4 91 5.249
44 C4 92 3.296
44 C4 93 1.831
44 C4 94 0.366
44 C4 95 -0.610
44 C4 96 -0.610
44 C4 97 -0.610
44 C4 98 -1.099
44 C4 99 -2.563
44 C4 100 -4.028
44 C4 101 -6.470
44 C4 102 -7.446
44 C4 103 -6.958
44 C4 104 -5.981
44 C4 105 -4.028
44 C4 106 -2.563
44 C4 107 -0.610
44 C4 108 0.854
44 C4 109 2.808
44 C4 110 4.761
44 C4 111 6.226
44 C4 112 7.202
44 C4 113 7.202
44 C4 114 6.714
44 C4 115 5.737
44 C4 116 4.761
44 C4 117 3.784
44 C4 118 3.296
44 C4 119 2.808
44 C4 120 1.343
44 C4 121 -1.099
44 C4 122 -3.540
44 C4 123 -5.493
44 C4 124 -6.470
44 C4 125 -6.470
44 C4 126 -5.493
44 C4 127 -4.517
44 C4 128 -4.028
44 C4 129 -3.540
44 C4 130 -3.052
44 C4 131 -1.587
44 C4 132 -0.122
44 C4 133 1.343
44 C4 134 2.808
44 C4 135 4.272
44 C4 136 5.737
44 C4 137 7.202
44 C4 138 8.667
44 C4 139 9.644
44 C4 140 10.132
44 C4 141 9.644
44 C4 142 8.667
44 C4 143 7.202
44 C4 144 6.226
44 C4 145 4.761
44 C4 146 3.296
44 C4 147 1.831
44 C4 148 -0.610
44 C4 149 -3.052
44 C4 150 -5.005
44 C4 151 -5.981
44 C4 152 -6.470
44 C4 153 -5.981
44 C4 154 -5.005
44 C4 155 -4.517
44 C4 156 -4.028
44 C4 157 -4.517
44 C4 158 -4.028
44 C4 159 -4.028
44 C4 160 -4.517
44 C4 161 -5.493
44 C4 162 -6.470
44 C4 163 -6.958
44 C4 164 -6.958
44 C4 165 -5.981
44 C4 166 -3.540
44 C4 167 -0.610
44 C4 168 2.808
44 C4 169 6.226
44 C4 170 9.155
44 C4 171 11.597
44 C4 172 12.573
44 C4 173 12.573
44 C4 174 11.108
44 C4 175 9.644
44 C4 176 8.179
44 C4 177 6.714
44 C4 178 5.737
44 C4 179 4.761
44 C4 180 2.808
44 C4 181 1.343
44 C4 182 -0.122
44 C4 183 -1.587
44 C4 184 -2.563
44 C4 185 -3.540
44 C4 186 -4.517
44 C4 187 -5.981
44 C4 188 -7.935
44 C4 189 -8.911
44 C4 190 -8.911
44 C4 191 -8.423
44 C4 192 -5.981
44 C4 193 -4.028
44 C4 194 -1.587
44 C4 195 -0.122
44 C4 196 0.854
44 C4 197 1.831
44 C4 198 3.296
44 C4 199 5.737
44 C4 200 8.179
44 C4 201 11.108
44 C4 202 12.573
44 C4 203 13.550
44 C4 204 13.062
44 C4 205 12.573
44 C4 206 11.108
44 C4 207 9.644
44 C4 208 8.667
44 C4 209 7.690
44 C4 210 6.714
44 C4 211 6.226
44 C4 212 4.761
44 C4 213 2.319
44 C4 214 -0.122
44 C4 215 -3.052
44 C4 216 -4.517
44 C4 217 -5.005
44 C4 218 -4.517
44 C4 219 -5.005
44 C4 220 -6.470
44 C4 221 -7.935
44 C4 222 -8.911
44 C4 223 -7.446
44 C4 224 -5.493
44 C4 225 -2.563
44 C4 226 -1.099
44 C4 227 -1.099
44 C4 228 -1.587
44 C4 229 -1.099
44 C4 230 -0.122
44 C4 231 1.831
44 C4 232 4.272
44 C4 233 5.249
44 C4 234 5.249
44 C4 235 4.761
44 C4 236 3.784
44 C4 237 3.296
44 C4 238 2.808
44 C4 239 1.831
44 C4 240 0.366
44 C4 241 -1.099
44 C4 242 -1.587
44 C4 243 -1.587
44 C4 244 -0.610
44 C4 245 -0.122
44 C4 246 0.366
44 C4 247 -0.122
44 C4 248 -0.610
44 C4 249 -1.587
44 C4 250 -3.052
44 C4 251 -4.517
44 C4 252 -5.981
44 C4 253 -5.981
44 C4 254 -5.005
44 C4 255 -2.563
# CP5 chan 18
44 CP5 0 3.174
44 CP5 1 5.615
44 CP5 2 8.545
44 CP5 3 10.498
44 CP5 4 11.475
44 CP5 5 11.475
44 CP5 6 10.498
44 CP5 7 10.010
44 CP5 8 9.521
44 CP5 9 9.033
44 CP5 10 8.057
44 CP5 11 7.080
44 CP5 12 5.127
44 CP5 13 3.662
44 CP5 14 3.174
44 CP5 15 2.686
44 CP5 16 3.174
44 CP5 17 3.662
44 CP5 18 4.150
44 CP5 19 5.127
44 CP5 20 6.104
44 CP5 21 7.568
44 CP5 22 7.080
44 CP5 23 5.127
44 CP5 24 1.709
44 CP5 25 -2.686
44 CP5 26 -5.127
44 CP5 27 -4.639
44 CP5 28 -1.709
44 CP5 29 2.197
44 CP5 30 4.639
44 CP5 31 5.127
44 CP5 32 5.127
44 CP5 33 5.615
44 CP5 34 8.057
44 CP5 35 11.475
44 CP5 36 13.916
44 CP5 37 14.404
44 CP5 38 13.916
44 CP5 39 12.939
44 CP5 40 12.939
44 CP5 41 12.939
44 CP5 42 11.963
44 CP5 43 9.521
44 CP5 44 5.615
44 CP5 45 1.709
44 CP5 46 -0.244
44 CP5 47 -1.709
44 CP5 48 -1.221
44 CP5 49 -0.244
44 CP5 50 1.221
44 CP5 51 2.686
44 CP5 52 3.662
44 CP5 53 4.639
44 CP5 54 4.639
44 CP5 55 3.662
44 CP5 56 3.174
44 CP5 57 3.662
44 CP5 58 6.104
44 CP5 59 9.521
44 CP5 60 12.451
44 CP5 61 13.428
44 CP5 62 13.428
44 CP5 63 11.963
44 CP5 64 10.010
44 CP5 65 8.057
44 CP5 66 7.080
44 CP5 67 5.615
44 CP5 68 4.150
44 CP5 69 2.197
44 CP5 70 0.244
44 CP5 71 -2.197
44 CP5 72 -3.174
44 CP5 73 -4.150
44 CP5 74 -3.174
44 CP5 75 -1.221
44 CP5 76 0.732
44 CP5 77 2.686
44 CP5 78 4.639
44 CP5 79 6.104
44 CP5 80 7.568
44 CP5 81 9.033
44 CP5 82 10.498
44 CP5 83 11.475
44 CP5 84 12.451
44 CP5 85 11.963
44 CP5 86 10.498
44 CP5 87 9.033
44 CP5 88 7.568
44 CP5 89 5.615
44 CP5 90 2.686
44 CP5 91 -0.244
44 CP5 92 -3.174
44 CP5 93 -5.615
44 CP5 94 -7.080
44 CP5 95 -8.057
44 CP5 96 -8.545
44 CP5 97 -9.033
44 CP5 98 -9.033
44 CP5 99 -8.545
44 CP5 100 -6.592
44 CP5 101 -3.662
44 CP5 102 -0.244
44 CP5 103 3.662
44 CP5 104 6.104
44 CP5 105 8.545
44 CP5 106 10.986
44 CP5 107 13.916
44 CP5 108 17.822
44 CP5 109 20.752
44 CP5 110 22.705
44 CP5 111 23.193
44 CP5 112 22.217
44 CP5 113 20.264
44 CP5 114 18.799
44 CP5 115 16.357
44 CP5 116 13.916
44 CP5 117 10.986
44 CP5 118 9.033
44 CP5 119 8.057
44 CP5 120 8.057
44 CP5 121 8.057
44 CP5 122 6.592
44 CP5 123 4.639
44 CP5 124 1.709
44 CP5 125 -0.244
44 CP5 126 -1.709
44 CP5 127 -2.686
44 CP5 128 -3.662
44 CP5 129 -5.127
44 CP5 130 -7.080
44 CP5 131 -8.545
44 CP5 132 -10.010
44 CP5 133 -10.498
44 CP5 134 -10.498
44 CP5 135 -9.033
44 CP5 136 -6.592
44 CP5 137 -2.686
44 CP5 138 1.709
44 CP5 139 5.615
44 CP5 140 7.568
44 CP5 141 8.545
44 CP5 142 9.033
44 CP5 143 8.545
44 CP5 144 8.057
44 CP5 145 7.568
44 CP5 146 7.568
44 CP5 147 6.104
44 CP5 148 5.127
44 CP5 149 4.150
44 CP5 150 3.174
44 CP5 151 2.686
44 CP5 152 1.709
44 CP5 153 -0.244
44 CP5 154 -2.686
44 CP5 155 -5.127
44 CP5 156 -7.080
44 CP5 157 -7.568
44 CP5 158 -6.592
44 CP5 159 -5.615
44 CP5 160 -5.127
44 CP5 161 -5.127
44 CP5 162 -4.639
44 CP5 163 -3.662
44 CP5 164 -2.197
44 CP5 165 0.244
44 CP5 166 1.221
44 CP5 167 1.221
44 CP5 168 0.732
44 CP5 169 0.732
44 CP5 170 2.197
44 CP5 171 5.127
44 CP5 172 7.080
44 CP5 173 7.080
44 CP5 174 5.615
44 CP5 175 2.686
44 CP5 176 1.221
44 CP5 177 0.732
44 CP5 178 1.221
44 CP5 179 1.709
44 CP5 180 0.732
44 CP5 181 -1.709
44 CP5 182 -4.639
44 CP5 183 -7.080
44 CP5 184 -9.033
44 CP5 185 -9.521
44 CP5 186 -10.010
44 CP5 187 -10.010
44 CP5 188 -10.010
44 CP5 189 -10.010
44 CP5 190 -10.010
44 CP5 191 -9.033
44 CP5 192 -6.104
44 CP5 193 -2.197
44 CP5 194 3.174
44 CP5 195 8.545
44 CP5 196 12.939
44 CP5 197 15.381
44 CP5 198 17.334
44 CP5 199 17.822
44 CP5 200 19.287
44 CP5 201 20.752
44 CP5 202 22.217
44 CP5 203 23.193
44 CP5 204 22.217
44 CP5 205 20.264
44 CP5 206 17.334
44 CP5 207 14.404
44 CP5 208 12.939
44 CP5 209 12.939
44 CP5 210 14.404
44 CP5 211 14.893
44 CP5 212 12.451
44 CP5 213 7.080
44 CP5 214 -1.221
44 CP5 215 -10.010
44 CP5 216 -16.846
44 CP5 217 -20.752
44 CP5 218 -21.729
44 CP5 219 -21.729
44 CP5 220 -21.240
44 CP5 221 -19.775
44 CP5 222 -16.357
44 CP5 223 -10.986
44 CP5 224 -4.639
44 CP5 225 1.709
44 CP5 226 6.592
44 CP5 227 8.545
44 CP5 228 9.033
44 CP5 229 8.057
44 CP5 230 7.080
44 CP5 231 6.592
44 CP5 232 7.080
44 CP5 233 7.568
44 CP5 234 7.568
44 CP5 235 8.057
44 CP5 236 8.057
44 CP5 237 8.057
44 CP5 238 7.080
44 CP5 239 4.150
44 CP5 240 0.244
44 CP5 241 -4.150
44 CP5 242 -6.592
44 CP5 243 -7.080
44 CP5 244 -6.104
44 CP5 245 -6.104
44 CP5 246 -6.592
44 CP5 247 -8.057
44 CP5 248 -9.033
44 CP5 249 -8.545
44 CP5 250 -7.568
44 CP5 251 -7.080
44 CP5 252 -7.080
44 CP5 253 -8.057
44 CP5 254 -8.057
44 CP5 255 -6.592
# CP6 chan 19
44 CP6 0 3.143
44 CP6 1 5.585
44 CP6 2 8.026
44 CP6 3 10.468
44 CP6 4 12.421
44 CP6 5 12.909
44 CP6 6 11.932
44 CP6 7 10.468
44 CP6 8 8.514
44 CP6 9 7.538
44 CP6 10 6.561
44 CP6 11 6.073
44 CP6 12 5.096
44 CP6 13 3.143
44 CP6 14 1.678
44 CP6 15 0.702
44 CP6 16 1.190
44 CP6 17 3.632
44 CP6 18 6.073
44 CP6 19 8.514
44 CP6 20 9.491
44 CP6 21 9.003
44 CP6 22 9.003
44 CP6 23 9.003
44 CP6 24 9.003
44 CP6 25 9.491
44 CP6 26 9.003
44 CP6 27 8.026
44 CP6 28 7.538
44 CP6 29 7.538
44 CP6 30 8.026
44 CP6 31 8.514
44 CP6 32 8.026
44 CP6 33 7.050
44 CP6 34 7.050
44 CP6 35 8.514
44 CP6 36 9.979
44 CP6 37 11.444
44 CP6 38 11.444
44 CP6 39 10.956
44 CP6 40 10.956
44 CP6 41 11.444
44 CP6 42 11.932
44 CP6 43 11.932
44 CP6 44 10.468
44 CP6 45 8.026
44 CP6 46 5.096
44 CP6 47 3.143
44 CP6 48 2.167
44 CP6 49 2.655
44 CP6 50 4.120
44 CP6 51 5.585
44 CP6 52 6.561
44 CP6 53 7.538
44 CP6 54 7.050
44 CP6 55 6.073
44 CP6 56 5.096
44 CP6 57 4.608
44 CP6 58 5.096
44 CP6 59 7.050
44 CP6 60 9.979
44 CP6 61 11.932
44 CP6 62 12.421
44 CP6 63 11.932
44 CP6 64 9.979
44 CP6 65 8.514
44 CP6 66 7.538
44 CP6 67 7.050
44 CP6 68 6.561
44 CP6 69 5.585
44 CP6 70 3.632
44 CP6 71 1.678
44 CP6 72 -0.275
44 CP6 73 -1.251
44 CP6 74 -0.763
44 CP6 75 -0.275
44 CP6 76 0.702
44 CP6 77 1.190
44 CP6 78 3.143
44 CP6 79 5.585
44 CP6 80 9.003
44 CP6 81 12.909
44 CP6 82 16.327
44 CP6 83 18.768
44 CP6 84 19.745
44 CP6 85 19.745
44 CP6 86 18.768
44 CP6 87 18.280
44 CP6 88 17.303
44 CP6 89 16.327
44 CP6 90 14.374
44 CP6 91 11.444
44 CP6 92 7.538
44 CP6 93 3.632
44 CP6 94 1.190
44 CP6 95 0.214
44 CP6 96 0.214
44 CP6 97 0.702
44 CP6 98 0.214
44 CP6 99 -0.763
44 CP6 100 -2.716
44 CP6 101 -4.669
44 CP6 102 -5.646
44 CP6 103 -5.646
44 CP6 104 -4.181
44 CP6 105 -1.740
44 CP6 106 1.190
44 CP6 107 5.585
44 CP6 108 10.468
44 CP6 109 15.839
44 CP6 110 20.233
44 CP6 111 23.651
44 CP6 112 25.116
44 CP6 113 26.093
44 CP6 114 25.604
44 CP6 115 24.139
44 CP6 116 22.675
44 CP6 117 20.233
44 CP6 118 18.280
44 CP6 119 15.839
44 CP6 120 12.909
44 CP6 121 9.003
44 CP6 122 4.120
44 CP6 123 -0.275
44 CP6 124 -4.181
44 CP6 125 -6.134
44 CP6 126 -6.622
44 CP6 127 -6.134
44 CP6 128 -6.134
44 CP6 129 -6.622
44 CP6 130 -6.622
44 CP6 131 -7.111
44 CP6 132 -6.622
44 CP6 133 -5.646
44 CP6 134 -3.204
44 CP6 135 0.214
44 CP6 136 4.120
44 CP6 137 8.514
44 CP6 138 12.909
44 CP6 139 16.327
44 CP6 140 19.257
44 CP6 141 20.721
44 CP6 142 21.210
44 CP6 143 21.210
44 CP6 144 19.745
44 CP6 145 18.280
44 CP6 146 16.327
44 CP6 147 13.885
44 CP6 148 10.956
44 CP6 149 8.514
44 CP6 150 6.073
44 CP6 151 4.608
44 CP6 152 3.632
44 CP6 153 3.143
44 CP6 154 2.167
44 CP6 155 1.190
44 CP6 156 -0.275
44 CP6 157 -2.228
44 CP6 158 -3.693
44 CP6 159 -5.646
44 CP6 160 -6.622
44 CP6 161 -7.599
44 CP6 162 -8.087
44 CP6 163 -7.111
44 CP6 164 -6.134
44 CP6 165 -3.693
44 CP6 166 -1.251
44 CP6 167 0.702
44 CP6 168 3.632
44 CP6 169 7.050
44 CP6 170 10.956
44 CP6 171 14.862
44 CP6 172 17.792
44 CP6 173 18.280
44 CP6 174 17.303
44 CP6 175 15.350
44 CP6 176 13.397
44 CP6 177 11.932
44 CP6 178 9.491
44 CP6 179 6.561
44 CP6 180 3.143
44 CP6 181 -0.275
44 CP6 182 -2.716
44 CP6 183 -4.181
44 CP6 184 -5.157
44 CP6 185 -6.134
44 CP6 186 -7.111
44 CP6 187 -8.575
44 CP6 188 -10.529
44 CP6 189 -12.482
44 CP6 190 -13.458
44 CP6 191 -13.458
44 CP6 192 -11.017
44 CP6 193 -7.111
44 CP6 194 -2.228
44 CP6 195 1.678
44 CP6 196 5.096
44 CP6 197 7.538
44 CP6 198 9.979
44 CP6 199 13.397
44 CP6 200 17.792
44 CP6 201 21.210
44 CP6 202 23.651
44 CP6 203 24.628
44 CP6 204 23.651
44 CP6 205 22.675
44 CP6 206 21.698
44 CP6 207 21.210
44 CP6 208 21.210
44 CP6 209 20.721
44 CP6 210 20.721
44 CP6 211 20.233
44 CP6 212 17.792
44 CP6 213 13.397
44 CP6 214 6.561
44 CP6 215 -0.763
44 CP6 216 -7.599
44 CP6 217 -11.505
44 CP6 218 -13.458
44 CP6 219 -14.435
44 CP6 220 -15.411
44 CP6 221 -16.388
44 CP6 222 -15.411
44 CP6 223 -12.970
44 CP6 224 -7.599
44 CP6 225 -2.228
44 CP6 226 2.655
44 CP6 227 5.585
44 CP6 228 6.561
44 CP6 229 7.050
44 CP6 230 8.514
44 CP6 231 10.468
44 CP6 232 12.421
44 CP6 233 13.397
44 CP6 234 13.397
44 CP6 235 12.421
44 CP6 236 11.444
44 CP6 237 9.979
44 CP6 238 8.514
44 CP6 239 6.073
44 CP6 240 3.143
44 CP6 241 -0.275
44 CP6 242 -2.228
44 CP6 243 -3.204
44 CP6 244 -3.204
44 CP6 245 -3.693
44 CP6 246 -3.693
44 CP6 247 -3.693
44 CP6 248 -2.716
44 CP6 249 -1.740
44 CP6 250 -1.740
44 CP6 251 -2.716
44 CP6 252 -4.669
44 CP6 253 -6.134
44 CP6 254 -5.646
44 CP6 255 -3.693
# CP1 chan 20
44 CP1 0 5.371
44 CP1 1 6.836
44 CP1 2 8.789
44 CP1 3 10.254
44 CP1 4 11.230
44 CP1 5 11.719
44 CP1 6 11.719
44 CP1 7 11.230
44 CP1 8 10.254
44 CP1 9 8.789
44 CP1 10 7.324
44 CP1 11 5.371
44 CP1 12 3.418
44 CP1 13 1.953
44 CP1 14 0.488
44 CP1 15 -0.488
44 CP1 16 -1.953
44 CP1 17 -3.418
44 CP1 18 -3.906
44 CP1 19 -4.395
44 CP1 20 -3.418
44 CP1 21 -2.441
44 CP1 22 -0.977
44 CP1 23 0.000
44 CP1 24 0.000
44 CP1 25 0.000
44 CP1 26 0.000
44 CP1 27 0.977
44 CP1 28 2.441
44 CP1 29 4.883
44 CP1 30 6.348
44 CP1 31 7.324
44 CP1 32 7.812
44 CP1 33 7.812
44 CP1 34 8.789
44 CP1 35 10.254
44 CP1 36 11.719
44 CP1 37 12.207
44 CP1 38 12.207
44 CP1 39 11.230
44 CP1 40 10.254
44 CP1 41 9.277
44 CP1 42 7.812
44 CP1 43 6.836
44 CP1 44 4.395
44 CP1 45 1.953
44 CP1 46 -0.977
44 CP1 47 -2.441
44 CP1 48 -3.418
44 CP1 49 -3.906
44 CP1 50 -3.418
44 CP1 51 -3.418
44 CP1 52 -3.418
44 CP1 53 -3.418
44 CP1 54 -3.418
44 CP1 55 -3.418
44 CP1 56 -3.418
44 CP1 57 -2.930
44 CP1 58 -0.977
44 CP1 59 1.953
44 CP1 60 4.395
44 CP1 61 6.348
44 CP1 62 7.812
44 CP1 63 8.301
44 CP1 64 8.301
44 CP1 65 7.812
44 CP1 66 8.301
44 CP1 67 8.301
44 CP1 68 7.812
44 CP1 69 6.836
44 CP1 70 5.371
44 CP1 71 3.418
44 CP1 72 1.953
44 CP1 73 1.465
44 CP1 74 1.465
44 CP1 75 1.953
44 CP1 76 2.441
44 CP1 77 2.930
44 CP1 78 3.418
44 CP1 79 3.418
44 CP1 80 3.906
44 CP1 81 4.395
44 CP1 82 4.395
44 CP1 83 4.883
44 CP1 84 4.883
44 CP1 85 5.371
44 CP1 86 5.371
44 CP1 87 5.859
44 CP1 88 6.348
44 CP1 89 6.836
44 CP1 90 6.836
44 CP1 91 5.859
44 CP1 92 5.371
44 CP1 93 4.395
44 CP1 94 3.906
44 CP1 95 3.906
44 CP1 96 3.418
44 CP1 97 2.930
44 CP1 98 2.441
44 CP1 99 2.441
44 CP1 100 2.441
44 CP1 101 2.930
44 CP1 102 4.395
44 CP1 103 5.371
44 CP1 104 5.859
44 CP1 105 6.348
44 CP1 106 6.836
44 CP1 107 7.324
44 CP1 108 8.789
44 CP1 109 10.254
44 CP1 110 11.719
44 CP1 111 12.695
44 CP1 112 12.695
44 CP1 113 12.695
44 CP1 114 12.695
44 CP1 115 11.719
44 CP1 116 11.719
44 CP1 117 11.719
44 CP1 118 11.719
44 CP1 119 12.207
44 CP1 120 12.207
44 CP1 121 12.207
44 CP1 122 10.742
44 CP1 123 9.277
44 CP1 124 6.836
44 CP1 125 4.883
44 CP1 126 2.930
44 CP1 127 0.977
44 CP1 128 -0.977
44 CP1 129 -2.441
44 CP1 130 -4.395
44 CP1 131 -5.371
44 CP1 132 -6.836
44 CP1 133 -7.324
44 CP1 134 -7.324
44 CP1 135 -5.371
44 CP1 136 -2.930
44 CP1 137 0.000
44 CP1 138 3.418
44 CP1 139 6.348
44 CP1 140 8.301
44 CP1 141 9.277
44 CP1 142 10.254
44 CP1 143 10.254
44 CP1 144 9.766
44 CP1 145 9.766
44 CP1 146 9.766
44 CP1 147 10.254
44 CP1 148 10.742
44 CP1 149 10.742
44 CP1 150 10.254
44 CP1 151 9.766
44 CP1 152 8.301
44 CP1 153 6.836
44 CP1 154 4.883
44 CP1 155 2.441
44 CP1 156 -0.977
44 CP1 157 -3.418
44 CP1 158 -5.371
44 CP1 159 -6.348
44 CP1 160 -6.836
44 CP1 161 -6.836
44 CP1 162 -6.348
44 CP1 163 -5.859
44 CP1 164 -4.883
44 CP1 165 -3.906
44 CP1 166 -2.930
44 CP1 167 -2.441
44 CP1 168 -2.441
44 CP1 169 -1.953
44 CP1 170 -0.488
44 CP1 171 1.465
44 CP1 172 3.906
44 CP1 173 5.371
44 CP1 174 5.371
44 CP1 175 5.371
44 CP1 176 5.371
44 CP1 177 6.348
44 CP1 178 7.324
44 CP1 179 7.812
44 CP1 180 7.324
44 CP1 181 5.859
44 CP1 182 3.906
44 CP1 183 2.441
44 CP1 184 1.465
44 CP1 185 0.977
44 CP1 186 0.000
44 CP1 187 -0.977
44 CP1 188 -1.953
44 CP1 189 -3.418
44 CP1 190 -5.371
44 CP1 191 -6.348
44 CP1 192 -6.836
44 CP1 193 -5.371
44 CP1 194 -3.418
44 CP1 195 -0.488
44 CP1 196 1.465
44 CP1 197 2.441
44 CP1 198 2.930
44 CP1 199 2.930
44 CP1 200 3.906
44 CP1 201 4.883
44 CP1 202 6.348
44 CP1 203 7.324
44 CP1 204 7.812
44 CP1 205 7.324
44 CP1 206 6.348
44 CP1 207 6.348
44 CP1 208 6.836
44 CP1 209 8.789
44 CP1 210 10.742
44 CP1 211 11.719
44 CP1 212 11.230
44 CP1 213 8.789
44 CP1 214 4.883
44 CP1 215 0.000
44 CP1 216 -3.906
44 CP1 217 -6.836
44 CP1 218 -8.301
44 CP1 219 -9.277
44 CP1 220 -9.277
44 CP1 221 -9.277
44 CP1 222 -8.789
44 CP1 223 -7.324
44 CP1 224 -4.883
44 CP1 225 -1.953
44 CP1 226 0.977
44 CP1 227 3.418
44 CP1 228 4.883
44 CP1 229 5.371
44 CP1 230 5.371
44 CP1 231 5.371
44 CP1 232 5.371
44 CP1 233 5.371
44 CP1 234 4.395
44 CP1 235 4.395
44 CP1 236 3.906
44 CP1 237 3.906
44 CP1 238 3.418
44 CP1 239 2.441
44 CP1 240 0.000
44 CP1 241 -1.465
44 CP1 242 -2.930
44 CP1 243 -3.418
44 CP1 244 -3.906
44 CP1 245 -4.395
44 CP1 246 -5.371
44 CP1 247 -6.348
44 CP1 248 -6.836
44 CP1 249 -6.348
44 CP1 250 -4.883
44 CP1 251 -3.418
44 CP1 252 -2.930
44 CP1 253 -3.418
44 CP1 254 -3.906
44 CP1 255 -3.906
# CP2 chan 21
44 CP2 0 3.123
44 CP2 1 4.100
44 CP2 2 6.053
44 CP2 3 8.006
44 CP2 4 9.471
44 CP2 5 10.447
44 CP2 6 9.959
44 CP2 7 9.471
44 CP2 8 8.006
44 CP2 9 6.541
44 CP2 10 5.564
44 CP2 11 4.588
44 CP2 12 3.611
44 CP2 13 2.635
44 CP2 14 1.658
44 CP2 15 0.682
44 CP2 16 0.682
44 CP2 17 1.658
44 CP2 18 3.611
44 CP2 19 5.076
44 CP2 20 6.541
44 CP2 21 7.029
44 CP2 22 7.517
44 CP2 23 8.006
44 CP2 24 8.494
44 CP2 25 8.494
44 CP2 26 8.006
44 CP2 27 7.029
44 CP2 28 6.541
44 CP2 29 6.053
44 CP2 30 6.053
44 CP2 31 6.053
44 CP2 32 5.564
44 CP2 33 5.076
44 CP2 34 4.588
44 CP2 35 5.076
44 CP2 36 5.564
44 CP2 37 6.053
44 CP2 38 6.053
44 CP2 39 6.053
44 CP2 40 6.053
44 CP2 41 6.541
44 CP2 42 7.517
44 CP2 43 8.006
44 CP2 44 7.517
44 CP2 45 6.541
44 CP2 46 5.076
44 CP2 47 4.100
44 CP2 48 4.100
44 CP2 49 4.100
44 CP2 50 4.588
44 CP2 51 5.076
44 CP2 52 5.564
44 CP2 53 5.076
44 CP2 54 4.588
44 CP2 55 4.100
44 CP2 56 3.123
44 CP2 57 2.146
44 CP2 58 1.658
44 CP2 59 2.635
44 CP2 60 4.100
44 CP2 61 5.564
44 CP2 62 6.541
44 CP2 63 7.029
44 CP2 64 6.541
44 CP2 65 6.541
44 CP2 66 7.029
44 CP2 67 7.517
44 CP2 68 8.006
44 CP2 69 7.517
44 CP2 70 6.053
44 CP2 71 4.588
44 CP2 72 3.123
44 CP2 73 2.635
44 CP2 74 2.635
44 CP2 75 3.123
44 CP2 76 3.123
44 CP2 77 2.635
44 CP2 78 3.123
44 CP2 79 4.100
44 CP2 80 5.564
44 CP2 81 7.029
44 CP2 82 8.494
44 CP2 83 9.471
44 CP2 84 9.959
44 CP2 85 9.959
44 CP2 86 10.447
44 CP2 87 10.935
44 CP2 88 10.935
44 CP2 89 11.424
44 CP2 90 10.447
44 CP2 91 9.959
44 CP2 92 8.494
44 CP2 93 7.517
44 CP2 94 6.541
44 CP2 95 6.541
44 CP2 96 6.053
44 CP2 97 5.564
44 CP2 98 4.588
44 CP2 99 3.123
44 CP2 100 1.658
44 CP2 101 0.193
44 CP2 102 -0.783
44 CP2 103 -1.272
44 CP2 104 -1.272
44 CP2 105 -0.783
44 CP2 106 -0.295
44 CP2 107 1.170
44 CP2 108 3.611
44 CP2 109 6.541
44 CP2 110 9.471
44 CP2 111 12.400
44 CP2 112 14.842
44 CP2 113 15.818
44 CP2 114 16.795
44 CP2 115 17.283
44 CP2 116 17.283
44 CP2 117 17.771
44 CP2 118 17.771
44 CP2 119 17.283
44 CP2 120 15.818
44 CP2 121 13.377
44 CP2 122 10.447
44 CP2 123 7.517
44 CP2 124 4.100
44 CP2 125 1.658
44 CP2 126 -0.295
44 CP2 127 -1.760
44 CP2 128 -3.225
44 CP2 129 -4.201
44 CP2 130 -5.178
44 CP2 131 -6.154
44 CP2 132 -7.131
44 CP2 133 -6.643
44 CP2 134 -5.666
44 CP2 135 -3.713
44 CP2 136 -0.783
44 CP2 137 2.146
44 CP2 138 5.076
44 CP2 139 7.517
44 CP2 140 9.959
44 CP2 141 11.912
44 CP2 142 13.377
44 CP2 143 14.353
44 CP2 144 14.353
44 CP2 145 14.353
44 CP2 146 14.353
44 CP2 147 14.353
44 CP2 148 13.865
44 CP2 149 13.377
44 CP2 150 12.889
44 CP2 151 11.912
44 CP2 152 10.935
44 CP2 153 9.959
44 CP2 154 8.494
44 CP2 155 6.541
44 CP2 156 4.100
44 CP2 157 0.682
44 CP2 158 -1.760
44 CP2 159 -3.713
44 CP2 160 -5.178
44 CP2 161 -6.643
44 CP2 162 -7.131
44 CP2 163 -7.619
44 CP2 164 -7.131
44 CP2 165 -6.154
44 CP2 166 -4.690
44 CP2 167 -3.713
44 CP2 168 -2.248
44 CP2 169 0.193
44 CP2 170 2.635
44 CP2 171 5.564
44 CP2 172 8.006
44 CP2 173 9.959
44 CP2 174 10.447
44 CP2 175 11.424
44 CP2 176 11.912
44 CP2 177 12.400
44 CP2 178 12.889
44 CP2 179 12.400
44 CP2 180 11.424
44 CP2 181 9.959
44 CP2 182 8.982
44 CP2 183 8.494
44 CP2 184 7.517
44 CP2 185 6.541
44 CP2 186 5.076
44 CP2 187 3.123
44 CP2 188 0.193
44 CP2 189 -2.736
44 CP2 190 -5.178
44 CP2 191 -7.619
44 CP2 192 -8.108
44 CP2 193 -7.131
44 CP2 194 -5.178
44 CP2 195 -2.248
44 CP2 196 0.193
44 CP2 197 1.658
44 CP2 198 2.146
44 CP2 199 2.635
44 CP2 200 3.611
44 CP2 201 5.076
44 CP2 202 6.053
44 CP2 203 7.029
44 CP2 204 7.029
44 CP2 205 7.029
44 CP2 206 7.029
44 CP2 207 7.029
44 CP2 208 8.006
44 CP2 209 9.471
44 CP2 210 10.935
44 CP2 211 12.400
44 CP2 212 13.377
44 CP2 213 12.400
44 CP2 214 9.471
44 CP2 215 6.053
44 CP2 216 3.123
44 CP2 217 0.682
44 CP2 218 -1.272
44 CP2 219 -2.248
44 CP2 220 -3.713
44 CP2 221 -5.178
44 CP2 222 -6.643
44 CP2 223 -6.154
44 CP2 224 -4.690
44 CP2 225 -2.248
44 CP2 226 0.193
44 CP2 227 2.146
44 CP2 228 3.123
44 CP2 229 4.100
44 CP2 230 6.053
44 CP2 231 7.517
44 CP2 232 8.982
44 CP2 233 9.471
44 CP2 234 8.494
44 CP2 235 7.029
44 CP2 236 6.053
44 CP2 237 5.564
44 CP2 238 5.076
44 CP2 239 4.588
44 CP2 240 3.123
44 CP2 241 1.170
44 CP2 242 -0.295
44 CP2 243 -1.272
44 CP2 244 -1.760
44 CP2 245 -2.248
44 CP2 246 -2.736
44 CP2 247 -2.736
44 CP2 248 -2.248
44 CP2 249 -1.272
44 CP2 250 -0.295
44 CP2 251 0.193
44 CP2 252 0.193
44 CP2 253 0.193
44 CP2 254 0.682
44 CP2 255 0.682
# P3 chan 22
44 P3 0 7.477
44 P3 1 9.918
44 P3 2 12.848
44 P3 3 15.289
44 P3 4 17.242
44 P3 5 17.242
44 P3 6 16.754
44 P3 7 15.289
44 P3 8 13.336
44 P3 9 11.871
44 P3 10 9.918
44 P3 11 7.965
44 P3 12 5.524
44 P3 13 3.082
44 P3 14 1.129
44 P3 15 0.153
44 P3 16 -0.336
44 P3 17 0.153
44 P3 18 0.641
44 P3 19 2.106
44 P3 20 3.571
44 P3 21 5.524
44 P3 22 6.012
44 P3 23 5.524
44 P3 24 3.571
44 P3 25 1.129
44 P3 26 0.153
44 P3 27 0.641
44 P3 28 2.594
44 P3 29 5.524
44 P3 30 7.477
44 P3 31 8.453
44 P3 32 8.453
44 P3 33 9.430
44 P3 34 11.383
44 P3 35 14.313
44 P3 36 16.754
44 P3 37 17.242
44 P3 38 16.754
44 P3 39 15.289
44 P3 40 13.824
44 P3 41 13.336
44 P3 42 11.871
44 P3 43 8.942
44 P3 44 5.524
44 P3 45 2.106
44 P3 46 -1.312
44 P3 47 -3.265
44 P3 48 -3.754
44 P3 49 -3.754
44 P3 50 -3.265
44 P3 51 -2.289
44 P3 52 -1.312
44 P3 53 -0.336
44 P3 54 -0.336
44 P3 55 0.153
44 P3 56 0.153
44 P3 57 1.129
44 P3 58 3.082
44 P3 59 6.500
44 P3 60 9.918
44 P3 61 12.360
44 P3 62 13.336
44 P3 63 12.848
44 P3 64 12.360
44 P3 65 11.383
44 P3 66 10.895
44 P3 67 10.895
44 P3 68 9.918
44 P3 69 7.965
44 P3 70 5.524
44 P3 71 3.082
44 P3 72 1.617
44 P3 73 0.641
44 P3 74 1.129
44 P3 75 2.594
44 P3 76 4.059
44 P3 77 5.035
44 P3 78 6.500
44 P3 79 7.477
44 P3 80 8.942
44 P3 81 10.406
44 P3 82 11.871
44 P3 83 12.848
44 P3 84 13.336
44 P3 85 12.848
44 P3 86 12.360
44 P3 87 11.871
44 P3 88 11.383
44 P3 89 10.406
44 P3 90 8.942
44 P3 91 6.500
44 P3 92 4.547
44 P3 93 2.594
44 P3 94 1.129
44 P3 95 0.641
44 P3 96 0.641
44 P3 97 -0.336
44 P3 98 -0.824
44 P3 99 -0.824
44 P3 100 0.153
44 P3 101 2.594
44 P3 102 5.035
44 P3 103 7.477
44 P3 104 8.942
44 P3 105 10.406
44 P3 106 11.871
44 P3 107 13.824
44 P3 108 16.754
44 P3 109 19.684
44 P3 110 22.125
44 P3 111 23.102
44 P3 112 23.102
44 P3 113 22.125
44 P3 114 21.149
44 P3 115 20.172
44 P3 116 18.707
44 P3 117 17.242
44 P3 118 16.754
44 P3 119 16.266
44 P3 120 16.266
44 P3 121 14.801
44 P3 122 12.848
44 P3 123 9.918
44 P3 124 6.989
44 P3 125 4.059
44 P3 126 2.106
44 P3 127 -0.336
44 P3 128 -2.289
44 P3 129 -5.219
44 P3 130 -7.660
44 P3 131 -9.613
44 P3 132 -10.590
44 P3 133 -10.590
44 P3 134 -9.125
44 P3 135 -5.707
44 P3 136 -1.312
44 P3 137 4.059
44 P3 138 8.942
44 P3 139 12.848
44 P3 140 16.266
44 P3 141 17.731
44 P3 142 18.219
44 P3 143 17.731
44 P3 144 16.266
44 P3 145 15.289
44 P3 146 13.824
44 P3 147 13.336
44 P3 148 13.336
44 P3 149 12.360
44 P3 150 12.360
44 P3 151 11.383
44 P3 152 9.918
44 P3 153 7.965
44 P3 154 5.524
44 P3 155 2.106
44 P3 156 -1.312
44 P3 157 -4.242
44 P3 158 -5.707
44 P3 159 -6.195
44 P3 160 -6.683
44 P3 161 -7.172
44 P3 162 -7.660
44 P3 163 -7.172
44 P3 164 -6.683
44 P3 165 -5.707
44 P3 166 -5.219
44 P3 167 -4.242
44 P3 168 -3.754
44 P3 169 -1.312
44 P3 170 2.594
44 P3 171 6.989
44 P3 172 9.918
44 P3 173 10.895
44 P3 174 10.406
44 P3 175 9.430
44 P3 176 8.942
44 P3 177 9.430
44 P3 178 9.918
44 P3 179 9.430
44 P3 180 7.477
44 P3 181 4.547
44 P3 182 2.106
44 P3 183 0.153
44 P3 184 -1.801
44 P3 185 -2.777
44 P3 186 -3.754
44 P3 187 -5.219
44 P3 188 -7.172
44 P3 189 -8.636
44 P3 190 -10.590
44 P3 191 -11.078
44 P3 192 -9.613
44 P3 193 -6.195
44 P3 194 -1.312
44 P3 195 4.059
44 P3 196 7.965
44 P3 197 9.918
44 P3 198 11.383
44 P3 199 11.871
44 P3 200 13.336
44 P3 201 15.778
44 P3 202 18.219
44 P3 203 19.196
44 P3 204 19.196
44 P3 205 17.731
44 P3 206 15.778
44 P3 207 14.801
44 P3 208 15.289
44 P3 209 17.242
44 P3 210 20.172
44 P3 211 21.637
44 P3 212 20.172
44 P3 213 15.289
44 P3 214 6.989
44 P3 215 -2.289
44 P3 216 -10.590
44 P3 217 -16.449
44 P3 218 -19.379
44 P3 219 -20.844
44 P3 220 -20.355
44 P3 221 -18.890
44 P3 222 -15.472
44 P3 223 -10.590
44 P3 224 -3.754
44 P3 225 2.594
44 P3 226 8.453
44 P3 227 11.383
44 P3 228 12.848
44 P3 229 12.360
44 P3 230 12.360
44 P3 231 11.871
44 P3 232 11.871
44 P3 233 11.383
44 P3 234 10.406
44 P3 235 8.942
44 P3 236 7.965
44 P3 237 6.989
44 P3 238 5.035
44 P3 239 2.594
44 P3 240 -1.312
44 P3 241 -5.219
44 P3 242 -7.660
44 P3 243 -8.636
44 P3 244 -8.636
44 P3 245 -8.636
44 P3 246 -10.101
44 P3 247 -11.078
44 P3 248 -11.566
44 P3 249 -10.590
44 P3 250 -8.148
44 P3 251 -6.195
44 P3 252 -5.219
44 P3 253 -5.219
44 P3 254 -4.730
44 P3 255 -3.754
# P4 chan 23
44 P4 0 6.215
44 P4 1 8.657
44 P4 2 11.098
44 P4 3 13.540
44 P4 4 15.004
44 P4 5 15.004
44 P4 6 13.540
44 P4 7 11.587
44 P4 8 9.633
44 P4 9 7.680
44 P4 10 5.727
44 P4 11 4.262
44 P4 12 2.797
44 P4 13 0.844
44 P4 14 -1.109
44 P4 15 -1.597
44 P4 16 -0.621
44 P4 17 1.333
44 P4 18 4.262
44 P4 19 7.192
44 P4 20 9.145
44 P4 21 10.122
44 P4 22 11.098
44 P4 23 11.587
44 P4 24 11.587
44 P4 25 11.098
44 P4 26 9.633
44 P4 27 8.169
44 P4 28 7.680
44 P4 29 7.192
44 P4 30 7.192
44 P4 31 7.192
44 P4 32 6.704
44 P4 33 6.215
44 P4 34 6.215
44 P4 35 7.680
44 P4 36 9.145
44 P4 37 10.122
44 P4 38 9.633
44 P4 39 9.633
44 P4 40 9.145
44 P4 41 9.633
44 P4 42 10.122
44 P4 43 9.633
44 P4 44 8.169
44 P4 45 5.239
44 P4 46 2.309
44 P4 47 0.844
44 P4 48 0.356
44 P4 49 1.333
44 P4 50 2.797
44 P4 51 4.262
44 P4 52 5.727
44 P4 53 6.215
44 P4 54 6.215
44 P4 55 5.727
44 P4 56 4.751
44 P4 57 4.262
44 P4 58 4.751
44 P4 59 6.215
44 P4 60 8.169
44 P4 61 9.633
44 P4 62 10.122
44 P4 63 9.633
44 P4 64 8.657
44 P4 65 8.169
44 P4 66 8.169
44 P4 67 8.657
44 P4 68 8.657
44 P4 69 7.680
44 P4 70 5.727
44 P4 71 3.774
44 P4 72 2.309
44 P4 73 1.821
44 P4 74 2.309
44 P4 75 3.774
44 P4 76 5.239
44 P4 77 6.215
44 P4 78 7.192
44 P4 79 9.145
44 P4 80 11.587
44 P4 81 14.516
44 P4 82 16.958
44 P4 83 18.422
44 P4 84 18.911
44 P4 85 18.422
44 P4 86 17.934
44 P4 87 16.958
44 P4 88 16.469
44 P4 89 15.004
44 P4 90 12.563
44 P4 91 10.122
44 P4 92 7.680
44 P4 93 5.239
44 P4 94 3.774
44 P4 95 3.774
44 P4 96 3.774
44 P4 97 3.774
44 P4 98 3.286
44 P4 99 2.797
44 P4 100 1.821
44 P4 101 1.333
44 P4 102 0.844
44 P4 103 0.356
44 P4 104 0.844
44 P4 105 1.821
44 P4 106 3.774
44 P4 107 6.704
44 P4 108 10.122
44 P4 109 14.516
44 P4 110 18.422
44 P4 111 21.840
44 P4 112 24.282
44 P4 113 25.747
44 P4 114 25.747
44 P4 115 25.258
44 P4 116 24.282
44 P4 117 22.817
44 P4 118 20.864
44 P4 119 19.399
44 P4 120 17.446
44 P4 121 14.028
44 P4 122 10.122
44 P4 123 5.239
44 P4 124 1.333
44 P4 125 -1.597
44 P4 126 -3.062
44 P4 127 -3.062
44 P4 128 -3.550
44 P4 129 -4.527
44 P4 130 -5.992
44 P4 131 -7.456
44 P4 132 -7.456
44 P4 133 -6.480
44 P4 134 -4.527
44 P4 135 -0.621
44 P4 136 3.286
44 P4 137 7.680
44 P4 138 11.587
44 P4 139 15.004
44 P4 140 17.446
44 P4 141 19.399
44 P4 142 20.376
44 P4 143 20.376
44 P4 144 19.887
44 P4 145 19.399
44 P4 146 17.934
44 P4 147 16.958
44 P4 148 15.981
44 P4 149 14.516
44 P4 150 13.051
44 P4 151 11.587
44 P4 152 10.610
44 P4 153 9.633
44 P4 154 8.169
44 P4 155 6.215
44 P4 156 3.286
44 P4 157 0.356
44 P4 158 -2.574
44 P4 159 -4.527
44 P4 160 -5.992
44 P4 161 -6.968
44 P4 162 -6.968
44 P4 163 -6.480
44 P4 164 -5.503
44 P4 165 -4.038
44 P4 166 -2.085
44 P4 167 -0.132
44 P4 168 1.821
44 P4 169 4.262
44 P4 170 7.680
44 P4 171 12.075
44 P4 172 15.004
44 P4 173 16.469
44 P4 174 16.469
44 P4 175 15.493
44 P4 176 14.516
44 P4 177 13.540
44 P4 178 12.563
44 P4 179 10.610
44 P4 180 8.169
44 P4 181 5.239
44 P4 182 2.797
44 P4 183 1.333
44 P4 184 0.844
44 P4 185 -0.132
44 P4 186 -1.109
44 P4 187 -3.550
44 P4 188 -6.480
44 P4 189 -9.410
44 P4 190 -12.339
44 P4 191 -13.316
44 P4 192 -12.339
44 P4 193 -9.410
44 P4 194 -5.015
44 P4 195 -0.621
44 P4 196 2.309
44 P4 197 4.751
44 P4 198 6.215
44 P4 199 9.145
44 P4 200 12.075
44 P4 201 15.981
44 P4 202 18.422
44 P4 203 19.399
44 P4 204 18.911
44 P4 205 17.934
44 P4 206 16.958
44 P4 207 16.958
44 P4 208 17.934
44 P4 209 18.911
44 P4 210 20.864
44 P4 211 21.352
44 P4 212 20.376
44 P4 213 15.981
44 P4 214 9.145
44 P4 215 0.844
44 P4 216 -6.480
44 P4 217 -11.851
44 P4 218 -14.781
44 P4 219 -16.246
44 P4 220 -16.734
44 P4 221 -16.734
44 P4 222 -14.781
44 P4 223 -10.874
44 P4 224 -5.015
44 P4 225 0.844
44 P4 226 5.727
44 P4 227 8.657
44 P4 228 10.122
44 P4 229 11.098
44 P4 230 12.563
44 P4 231 14.028
44 P4 232 15.004
44 P4 233 15.004
44 P4 234 13.051
44 P4 235 11.098
44 P4 236 9.145
44 P4 237 7.192
44 P4 238 5.239
44 P4 239 2.309
44 P4 240 -1.597
44 P4 241 -5.015
44 P4 242 -7.945
44 P4 243 -8.921
44 P4 244 -9.410
44 P4 245 -9.898
44 P4 246 -9.410
44 P4 247 -9.410
44 P4 248 -7.945
44 P4 249 -5.992
44 P4 250 -3.550
44 P4 251 -1.597
44 P4 252 -1.109
44 P4 253 -1.109
44 P4 254 -0.132
44 P4 255 1.333
# PZ chan 24
44 PZ 0 8.016
44 PZ 1 10.457
44 PZ 2 12.899
44 PZ 3 15.340
44 PZ 4 17.293
44 PZ 5 17.782
44 PZ 6 16.805
44 PZ 7 14.852
44 PZ 8 12.899
44 PZ 9 10.457
44 PZ 10 8.016
44 PZ 11 6.063
44 PZ 12 3.621
44 PZ 13 1.668
44 PZ 14 -0.285
44 PZ 15 -0.773
44 PZ 16 -0.773
44 PZ 17 -0.285
44 PZ 18 1.668
44 PZ 19 3.621
44 PZ 20 5.575
44 PZ 21 7.528
44 PZ 22 9.481
44 PZ 23 10.457
44 PZ 24 10.946
44 PZ 25 10.457
44 PZ 26 9.969
44 PZ 27 9.481
44 PZ 28 9.481
44 PZ 29 9.969
44 PZ 30 10.946
44 PZ 31 10.946
44 PZ 32 10.457
44 PZ 33 9.969
44 PZ 34 10.457
44 PZ 35 12.410
44 PZ 36 13.875
44 PZ 37 14.364
44 PZ 38 13.875
44 PZ 39 12.899
44 PZ 40 11.922
44 PZ 41 11.434
44 PZ 42 10.946
44 PZ 43 9.969
44 PZ 44 8.016
44 PZ 45 5.086
44 PZ 46 2.645
44 PZ 47 1.180
44 PZ 48 0.692
44 PZ 49 1.668
44 PZ 50 2.645
44 PZ 51 3.621
44 PZ 52 4.598
44 PZ 53 5.086
44 PZ 54 5.086
44 PZ 55 5.086
44 PZ 56 4.110
44 PZ 57 4.110
44 PZ 58 4.598
44 PZ 59 6.063
44 PZ 60 8.504
44 PZ 61 10.457
44 PZ 62 11.434
44 PZ 63 11.922
44 PZ 64 11.434
44 PZ 65 11.434
44 PZ 66 11.434
44 PZ 67 12.410
44 PZ 68 11.922
44 PZ 69 10.946
44 PZ 70 8.993
44 PZ 71 7.039
44 PZ 72 5.086
44 PZ 73 4.598
44 PZ 74 5.086
44 PZ 75 5.575
44 PZ 76 6.551
44 PZ 77 7.528
44 PZ 78 8.016
44 PZ 79 8.504
44 PZ 80 9.969
44 PZ 81 11.434
44 PZ 82 12.410
44 PZ 83 12.899
44 PZ 84 12.899
44 PZ 85 12.410
44 PZ 86 12.410
44 PZ 87 12.410
44 PZ 88 12.899
44 PZ 89 12.410
44 PZ 90 11.922
44 PZ 91 10.457
44 PZ 92 9.481
44 PZ 93 8.016
44 PZ 94 8.016
44 PZ 95 8.504
44 PZ 96 8.504
44 PZ 97 8.016
44 PZ 98 7.039
44 PZ 99 6.063
44 PZ 100 5.575
44 PZ 101 5.575
44 PZ 102 5.575
44 PZ 103 5.575
44 PZ 104 5.575
44 PZ 105 5.086
44 PZ 106 4.598
44 PZ 107 5.575
44 PZ 108 7.528
44 PZ 109 10.457
44 PZ 110 13.875
44 PZ 111 17.293
44 PZ 112 20.223
44 PZ 113 21.688
44 PZ 114 22.664
44 PZ 115 22.664
44 PZ 116 23.153
44 PZ 117 22.664
44 PZ 118 23.153
44 PZ 119 23.153
44 PZ 120 22.176
44 PZ 121 20.223
44 PZ 122 17.782
44 PZ 123 13.875
44 PZ 124 10.457
44 PZ 125 6.551
44 PZ 126 3.621
44 PZ 127 1.180
44 PZ 128 -1.261
44 PZ 129 -3.703
44 PZ 130 -6.144
44 PZ 131 -8.586
44 PZ 132 -10.539
44 PZ 133 -11.027
44 PZ 134 -10.050
44 PZ 135 -6.632
44 PZ 136 -2.726
44 PZ 137 2.157
44 PZ 138 6.551
44 PZ 139 10.457
44 PZ 140 13.875
44 PZ 141 16.317
44 PZ 142 18.270
44 PZ 143 18.758
44 PZ 144 18.758
44 PZ 145 18.758
44 PZ 146 18.270
44 PZ 147 18.758
44 PZ 148 19.735
44 PZ 149 20.223
44 PZ 150 20.223
44 PZ 151 19.246
44 PZ 152 18.758
44 PZ 153 16.805
44 PZ 154 14.364
44 PZ 155 10.457
44 PZ 156 6.063
44 PZ 157 1.668
44 PZ 158 -2.238
44 PZ 159 -4.679
44 PZ 160 -6.144
44 PZ 161 -7.121
44 PZ 162 -7.609
44 PZ 163 -8.097
44 PZ 164 -7.609
44 PZ 165 -7.609
44 PZ 166 -6.632
44 PZ 167 -6.144
44 PZ 168 -5.168
44 PZ 169 -2.726
44 PZ 170 0.692
44 PZ 171 5.086
44 PZ 172 9.481
44 PZ 173 11.922
44 PZ 174 13.387
44 PZ 175 14.364
44 PZ 176 14.852
44 PZ 177 15.828
44 PZ 178 16.317
44 PZ 179 16.317
44 PZ 180 14.852
44 PZ 181 12.899
44 PZ 182 10.946
44 PZ 183 9.969
44 PZ 184 9.481
44 PZ 185 8.504
44 PZ 186 7.039
44 PZ 187 4.598
44 PZ 188 1.180
44 PZ 189 -2.726
44 PZ 190 -6.632
44 PZ 191 -9.074
44 PZ 192 -10.050
44 PZ 193 -8.586
44 PZ 194 -5.168
44 PZ 195 -1.750
44 PZ 196 1.668
44 PZ 197 3.133
44 PZ 198 4.110
44 PZ 199 4.598
44 PZ 200 6.063
44 PZ 201 8.016
44 PZ 202 9.969
44 PZ 203 10.946
44 PZ 204 11.434
44 PZ 205 10.946
44 PZ 206 10.457
44 PZ 207 10.946
44 PZ 208 12.410
44 PZ 209 15.828
44 PZ 210 19.246
44 PZ 211 22.176
44 PZ 212 22.664
44 PZ 213 20.223
44 PZ 214 14.364
44 PZ 215 7.039
44 PZ 216 -0.285
44 PZ 217 -5.656
44 PZ 218 -9.074
44 PZ 219 -10.539
44 PZ 220 -11.515
44 PZ 221 -12.004
44 PZ 222 -11.027
44 PZ 223 -7.609
44 PZ 224 -2.726
44 PZ 225 2.645
44 PZ 226 7.528
44 PZ 227 10.457
44 PZ 228 12.410
44 PZ 229 13.387
44 PZ 230 14.852
44 PZ 231 15.828
44 PZ 232 15.828
44 PZ 233 14.852
44 PZ 234 11.922
44 PZ 235 8.993
44 PZ 236 6.063
44 PZ 237 4.110
44 PZ 238 2.645
44 PZ 239 0.692
44 PZ 240 -1.750
44 PZ 241 -4.679
44 PZ 242 -7.609
44 PZ 243 -9.074
44 PZ 244 -9.562
44 PZ 245 -10.050
44 PZ 246 -10.539
44 PZ 247 -10.050
44 PZ 248 -9.074
44 PZ 249 -6.632
44 PZ 250 -3.215
44 PZ 251 -0.285
44 PZ 252 1.668
44 PZ 253 3.133
44 PZ 254 4.110
44 PZ 255 5.086
# P8 chan 25
44 P8 0 2.197
44 P8 1 4.639
44 P8 2 7.080
44 P8 3 9.521
44 P8 4 10.498
44 P8 5 10.498
44 P8 6 9.033
44 P8 7 7.568
44 P8 8 6.104
44 P8 9 5.615
44 P8 10 5.615
44 P8 11 4.639
44 P8 12 3.662
44 P8 13 1.221
44 P8 14 0.244
44 P8 15 -0.244
44 P8 16 0.732
44 P8 17 3.174
44 P8 18 6.104
44 P8 19 8.545
44 P8 20 10.010
44 P8 21 10.498
44 P8 22 10.010
44 P8 23 10.010
44 P8 24 9.521
44 P8 25 8.545
44 P8 26 7.080
44 P8 27 6.104
44 P8 28 5.615
44 P8 29 6.104
44 P8 30 6.104
44 P8 31 5.615
44 P8 32 4.639
44 P8 33 4.150
44 P8 34 5.127
44 P8 35 7.080
44 P8 36 9.521
44 P8 37 10.986
44 P8 38 10.498
44 P8 39 10.010
44 P8 40 9.521
44 P8 41 9.521
44 P8 42 9.033
44 P8 43 8.545
44 P8 44 6.104
44 P8 45 3.174
44 P8 46 0.244
44 P8 47 -1.709
44 P8 48 -1.709
44 P8 49 -0.732
44 P8 50 0.732
44 P8 51 2.686
44 P8 52 4.150
44 P8 53 5.127
44 P8 54 5.127
44 P8 55 5.127
44 P8 56 4.639
44 P8 57 4.639
44 P8 58 5.127
44 P8 59 7.080
44 P8 60 9.521
44 P8 61 10.498
44 P8 62 10.986
44 P8 63 10.010
44 P8 64 8.057
44 P8 65 6.104
44 P8 66 5.615
44 P8 67 5.127
44 P8 68 4.639
44 P8 69 3.662
44 P8 70 2.197
44 P8 71 0.732
44 P8 72 -0.244
44 P8 73 0.244
44 P8 74 0.732
44 P8 75 2.197
44 P8 76 4.150
44 P8 77 5.127
44 P8 78 7.080
44 P8 79 9.033
44 P8 80 11.963
44 P8 81 15.381
44 P8 82 18.799
44 P8 83 21.240
44 P8 84 22.217
44 P8 85 21.240
44 P8 86 20.264
44 P8 87 18.799
44 P8 88 17.334
44 P8 89 15.381
44 P8 90 12.939
44 P8 91 10.010
44 P8 92 5.615
44 P8 93 1.709
44 P8 94 -1.221
44 P8 95 -1.709
44 P8 96 -1.221
44 P8 97 -0.244
44 P8 98 0.732
44 P8 99 0.732
44 P8 100 0.244
44 P8 101 -0.732
44 P8 102 -0.732
44 P8 103 -0.732
44 P8 104 0.244
44 P8 105 2.197
44 P8 106 5.127
44 P8 107 8.545
44 P8 108 13.428
44 P8 109 18.311
44 P8 110 22.217
44 P8 111 25.635
44 P8 112 27.588
44 P8 113 28.076
44 P8 114 27.588
44 P8 115 26.123
44 P8 116 23.682
44 P8 117 20.752
44 P8 118 17.334
44 P8 119 14.893
44 P8 120 11.963
44 P8 121 8.545
44 P8 122 4.150
44 P8 123 -0.244
44 P8 124 -4.150
44 P8 125 -6.104
44 P8 126 -5.615
44 P8 127 -4.639
44 P8 128 -3.174
44 P8 129 -3.174
44 P8 130 -3.662
44 P8 131 -4.150
44 P8 132 -4.150
44 P8 133 -3.662
44 P8 134 -1.709
44 P8 135 0.732
44 P8 136 4.150
44 P8 137 8.057
44 P8 138 11.963
44 P8 139 14.893
44 P8 140 16.846
44 P8 141 17.822
44 P8 142 17.822
44 P8 143 17.822
44 P8 144 16.846
44 P8 145 15.381
44 P8 146 12.939
44 P8 147 10.986
44 P8 148 8.545
44 P8 149 6.104
44 P8 150 4.639
44 P8 151 3.662
44 P8 152 3.174
44 P8 153 3.174
44 P8 154 3.174
44 P8 155 2.686
44 P8 156 1.709
44 P8 157 0.732
44 P8 158 -0.244
44 P8 159 -0.244
44 P8 160 -0.244
44 P8 161 -0.244
44 P8 162 -0.732
44 P8 163 -1.221
44 P8 164 -0.732
44 P8 165 -0.244
44 P8 166 0.244
44 P8 167 0.732
44 P8 168 1.221
44 P8 169 2.686
44 P8 170 5.127
44 P8 171 8.545
44 P8 172 11.475
44 P8 173 12.451
44 P8 174 11.475
44 P8 175 9.033
44 P8 176 6.592
44 P8 177 4.639
44 P8 178 2.686
44 P8 179 0.244
44 P8 180 -2.686
44 P8 181 -5.615
44 P8 182 -8.545
44 P8 183 -9.521
44 P8 184 -10.010
44 P8 185 -10.010
44 P8 186 -10.498
44 P8 187 -11.475
44 P8 188 -12.939
44 P8 189 -14.404
44 P8 190 -14.893
44 P8 191 -14.404
44 P8 192 -11.475
44 P8 193 -7.080
44 P8 194 -1.709
44 P8 195 2.686
44 P8 196 5.615
44 P8 197 7.080
44 P8 198 8.545
44 P8 199 10.986
44 P8 200 14.404
44 P8 201 17.822
44 P8 202 19.775
44 P8 203 19.775
44 P8 204 18.799
44 P8 205 17.334
44 P8 206 16.846
44 P8 207 16.846
44 P8 208 17.822
44 P8 209 19.287
44 P8 210 19.775
44 P8 211 19.287
44 P8 212 16.846
44 P8 213 11.963
44 P8 214 3.662
44 P8 215 -5.615
44 P8 216 -14.404
44 P8 217 -20.264
44 P8 218 -23.193
44 P8 219 -23.193
44 P8 220 -21.240
44 P8 221 -18.799
44 P8 222 -15.381
44 P8 223 -10.498
44 P8 224 -4.639
44 P8 225 1.221
44 P8 226 6.104
44 P8 227 8.545
44 P8 228 9.033
44 P8 229 8.057
44 P8 230 7.568
44 P8 231 7.568
44 P8 232 8.057
44 P8 233 8.057
44 P8 234 8.057
44 P8 235 7.080
44 P8 236 6.104
44 P8 237 4.639
44 P8 238 2.686
44 P8 239 -0.244
44 P8 240 -4.150
44 P8 241 -8.545
44 P8 242 -11.475
44 P8 243 -12.939
44 P8 244 -12.939
44 P8 245 -13.428
44 P8 246 -12.939
44 P8 247 -11.963
44 P8 248 -10.010
44 P8 249 -7.568
44 P8 250 -5.127
44 P8 251 -4.150
44 P8 252 -4.639
44 P8 253 -5.615
44 P8 254 -5.615
44 P8 255 -4.639
# P7 chan 26
44 P7 0 3.153
44 P7 1 5.107
44 P7 2 7.548
44 P7 3 10.478
44 P7 4 11.943
44 P7 5 12.431
44 P7 6 11.454
44 P7 7 10.478
44 P7 8 9.501
44 P7 9 9.989
44 P7 10 9.989
44 P7 11 9.501
44 P7 12 7.548
44 P7 13 5.107
44 P7 14 4.130
44 P7 15 4.130
44 P7 16 6.083
44 P7 17 8.525
44 P7 18 10.966
44 P7 19 12.919
44 P7 20 14.384
44 P7 21 15.361
44 P7 22 14.872
44 P7 23 11.943
44 P7 24 6.571
44 P7 25 1.200
44 P7 26 -2.706
44 P7 27 -3.682
44 P7 28 -1.729
44 P7 29 1.200
44 P7 30 3.642
44 P7 31 4.130
44 P7 32 3.642
44 P7 33 4.618
44 P7 34 7.060
44 P7 35 10.966
44 P7 36 13.407
44 P7 37 14.384
44 P7 38 13.407
44 P7 39 12.431
44 P7 40 11.454
44 P7 41 10.966
44 P7 42 9.989
44 P7 43 7.548
44 P7 44 4.130
44 P7 45 0.224
44 P7 46 -2.218
44 P7 47 -2.706
44 P7 48 -2.218
44 P7 49 -0.753
44 P7 50 0.712
44 P7 51 2.665
44 P7 52 4.618
44 P7 53 6.083
44 P7 54 6.571
44 P7 55 6.083
44 P7 56 5.107
44 P7 57 4.618
44 P7 58 5.595
44 P7 59 8.525
44 P7 60 11.454
44 P7 61 13.407
44 P7 62 13.407
44 P7 63 11.943
44 P7 64 9.501
44 P7 65 7.548
44 P7 66 6.083
44 P7 67 5.595
44 P7 68 4.130
44 P7 69 2.665
44 P7 70 0.712
44 P7 71 -0.753
44 P7 72 -1.729
44 P7 73 -1.729
44 P7 74 -0.753
44 P7 75 1.200
44 P7 76 3.642
44 P7 77 5.595
44 P7 78 8.036
44 P7 79 9.989
44 P7 80 11.454
44 P7 81 13.407
44 P7 82 15.361
44 P7 83 17.314
44 P7 84 17.802
44 P7 85 17.314
44 P7 86 15.849
44 P7 87 13.407
44 P7 88 10.966
44 P7 89 8.036
44 P7 90 5.107
44 P7 91 1.689
44 P7 92 -1.729
44 P7 93 -4.659
44 P7 94 -7.100
44 P7 95 -7.589
44 P7 96 -7.589
44 P7 97 -7.589
44 P7 98 -7.589
44 P7 99 -7.100
44 P7 100 -5.147
44 P7 101 -2.218
44 P7 102 2.177
44 P7 103 6.571
44 P7 104 9.501
44 P7 105 11.454
44 P7 106 13.407
44 P7 107 15.849
44 P7 108 19.755
44 P7 109 23.661
44 P7 110 26.591
44 P7 111 27.568
44 P7 112 27.079
44 P7 113 25.614
44 P7 114 24.150
44 P7 115 22.196
44 P7 116 19.755
44 P7 117 16.825
44 P7 118 13.896
44 P7 119 12.919
44 P7 120 11.943
44 P7 121 11.454
44 P7 122 9.501
44 P7 123 7.060
44 P7 124 3.642
44 P7 125 1.689
44 P7 126 0.712
44 P7 127 0.224
44 P7 128 -0.753
44 P7 129 -2.218
44 P7 130 -4.659
44 P7 131 -6.612
44 P7 132 -8.077
44 P7 133 -8.565
44 P7 134 -9.054
44 P7 135 -8.565
44 P7 136 -6.612
44 P7 137 -3.194
44 P7 138 1.200
44 P7 139 5.107
44 P7 140 9.013
44 P7 141 10.966
44 P7 142 11.943
44 P7 143 11.943
44 P7 144 10.966
44 P7 145 9.989
44 P7 146 8.525
44 P7 147 7.060
44 P7 148 6.083
44 P7 149 5.107
44 P7 150 4.618
44 P7 151 4.130
44 P7 152 3.642
44 P7 153 2.177
44 P7 154 0.224
44 P7 155 -1.241
44 P7 156 -2.706
44 P7 157 -2.706
44 P7 158 -1.729
44 P7 159 0.224
44 P7 160 0.712
44 P7 161 0.712
44 P7 162 0.224
44 P7 163 -0.264
44 P7 164 -0.264
44 P7 165 0.224
44 P7 166 0.224
44 P7 167 -0.753
44 P7 168 -1.241
44 P7 169 -0.753
44 P7 170 1.200
44 P7 171 4.130
44 P7 172 6.571
44 P7 173 6.083
44 P7 174 4.130
44 P7 175 1.200
44 P7 176 -0.753
44 P7 177 -1.241
44 P7 178 -0.264
44 P7 179 -0.264
44 P7 180 -1.729
44 P7 181 -4.171
44 P7 182 -7.100
44 P7 183 -10.030
44 P7 184 -11.983
44 P7 185 -12.960
44 P7 186 -12.960
44 P7 187 -12.960
44 P7 188 -12.472
44 P7 189 -11.983
44 P7 190 -11.007
44 P7 191 -9.542
44 P7 192 -5.636
44 P7 193 -0.264
44 P7 194 6.571
44 P7 195 12.919
44 P7 196 17.802
44 P7 197 19.755
44 P7 198 20.243
44 P7 199 21.220
44 P7 200 22.196
44 P7 201 24.150
44 P7 202 25.614
44 P7 203 26.103
44 P7 204 24.638
44 P7 205 22.685
44 P7 206 19.755
44 P7 207 17.802
44 P7 208 16.825
44 P7 209 17.802
44 P7 210 19.755
44 P7 211 20.732
44 P7 212 18.290
44 P7 213 11.943
44 P7 214 2.665
44 P7 215 -8.077
44 P7 216 -17.354
44 P7 217 -22.725
44 P7 218 -24.679
44 P7 219 -23.702
44 P7 220 -22.237
44 P7 221 -19.796
44 P7 222 -15.401
44 P7 223 -9.542
44 P7 224 -1.729
44 P7 225 6.083
44 P7 226 11.943
44 P7 227 14.872
44 P7 228 14.384
44 P7 229 12.431
44 P7 230 9.501
44 P7 231 8.036
44 P7 232 8.525
44 P7 233 9.013
44 P7 234 9.013
44 P7 235 9.013
44 P7 236 8.525
44 P7 237 8.036
44 P7 238 6.571
44 P7 239 4.130
44 P7 240 -0.264
44 P7 241 -5.147
44 P7 242 -8.565
44 P7 243 -9.542
44 P7 244 -9.054
44 P7 245 -8.077
44 P7 246 -7.589
44 P7 247 -8.077
44 P7 248 -8.565
44 P7 249 -8.077
44 P7 250 -6.124
44 P7 251 -5.147
44 P7 252 -4.659
44 P7 253 -5.147
44 P7 254 -5.147
44 P7 255 -3.194
# PO2 chan 27
44 PO2 0 10.345
44 PO2 1 13.275
44 PO2 2 16.693
44 PO2 3 18.646
44 PO2 4 20.111
44 PO2 5 19.623
44 PO2 6 17.670
44 PO2 7 15.228
44 PO2 8 12.787
44 PO2 9 10.345
44 PO2 10 7.904
44 PO2 11 4.974
44 PO2 12 2.533
44 PO2 13 -0.397
44 PO2 14 -2.350
44 PO2 15 -2.838
44 PO2 16 -1.862
44 PO2 17 0.580
44 PO2 18 4.486
44 PO2 19 8.392
44 PO2 20 11.810
44 PO2 21 15.717
44 PO2 22 18.158
44 PO2 23 19.135
44 PO2 24 19.135
44 PO2 25 17.670
44 PO2 26 15.228
44 PO2 27 13.275
44 PO2 28 11.810
44 PO2 29 11.322
44 PO2 30 10.834
44 PO2 31 10.345
44 PO2 32 8.881
44 PO2 33 8.392
44 PO2 34 9.369
44 PO2 35 11.322
44 PO2 36 13.275
44 PO2 37 13.763
44 PO2 38 13.275
44 PO2 39 12.787
44 PO2 40 11.810
44 PO2 41 12.299
44 PO2 42 12.299
44 PO2 43 11.322
44 PO2 44 8.881
44 PO2 45 5.463
44 PO2 46 3.021
44 PO2 47 1.556
44 PO2 48 2.045
44 PO2 49 3.998
44 PO2 50 6.439
44 PO2 51 8.392
44 PO2 52 9.857
44 PO2 53 11.322
44 PO2 54 11.810
44 PO2 55 11.810
44 PO2 56 11.322
44 PO2 57 10.834
44 PO2 58 10.834
44 PO2 59 11.810
44 PO2 60 12.787
44 PO2 61 13.763
44 PO2 62 13.763
44 PO2 63 12.787
44 PO2 64 11.322
44 PO2 65 10.834
44 PO2 66 10.834
44 PO2 67 11.322
44 PO2 68 11.810
44 PO2 69 10.345
44 PO2 70 8.392
44 PO2 71 5.951
44 PO2 72 4.486
44 PO2 73 4.974
44 PO2 74 6.439
44 PO2 75 8.392
44 PO2 76 10.345
44 PO2 77 11.810
44 PO2 78 12.787
44 PO2 79 14.740
44 PO2 80 17.181
44 PO2 81 20.111
44 PO2 82 22.064
44 PO2 83 23.041
44 PO2 84 22.552
44 PO2 85 21.088
44 PO2 86 19.623
44 PO2 87 18.158
44 PO2 88 17.181
44 PO2 89 15.228
44 PO2 90 12.787
44 PO2 91 9.857
44 PO2 92 6.927
44 PO2 93 4.974
44 PO2 94 3.998
44 PO2 95 4.486
44 PO2 96 4.486
44 PO2 97 4.974
44 PO2 98 4.486
44 PO2 99 4.486
44 PO2 100 3.998
44 PO2 101 4.486
44 PO2 102 4.974
44 PO2 103 5.463
44 PO2 104 5.463
44 PO2 105 5.463
44 PO2 106 6.439
44 PO2 107 8.392
44 PO2 108 11.810
44 PO2 109 16.205
44 PO2 110 20.599
44 PO2 111 24.506
44 PO2 112 27.435
44 PO2 113 29.388
44 PO2 114 29.877
44 PO2 115 28.900
44 PO2 116 27.435
44 PO2 117 25.970
44 PO2 118 24.017
44 PO2 119 22.552
44 PO2 120 20.111
44 PO2 121 17.181
44 PO2 122 13.275
44 PO2 123 8.392
44 PO2 124 3.998
44 PO2 125 0.580
44 PO2 126 -1.373
44 PO2 127 -2.350
44 PO2 128 -2.838
44 PO2 129 -4.791
44 PO2 130 -6.256
44 PO2 131 -7.721
44 PO2 132 -8.698
44 PO2 133 -7.721
44 PO2 134 -4.791
44 PO2 135 -0.397
44 PO2 136 4.486
44 PO2 137 9.369
44 PO2 138 13.763
44 PO2 139 17.181
44 PO2 140 19.623
44 PO2 141 21.088
44 PO2 142 21.576
44 PO2 143 21.576
44 PO2 144 20.599
44 PO2 145 19.623
44 PO2 146 18.646
44 PO2 147 18.646
44 PO2 148 18.158
44 PO2 149 17.181
44 PO2 150 16.693
44 PO2 151 15.717
44 PO2 152 15.228
44 PO2 153 14.252
44 PO2 154 12.787
44 PO2 155 9.857
44 PO2 156 6.439
44 PO2 157 2.533
44 PO2 158 0.092
44 PO2 159 -1.862
44 PO2 160 -2.350
44 PO2 161 -2.838
44 PO2 162 -2.838
44 PO2 163 -3.326
44 PO2 164 -2.838
44 PO2 165 -2.350
44 PO2 166 -1.373
44 PO2 167 -0.885
44 PO2 168 1.068
44 PO2 169 3.510
44 PO2 170 7.904
44 PO2 171 12.299
44 PO2 172 16.205
44 PO2 173 18.158
44 PO2 174 17.670
44 PO2 175 16.693
44 PO2 176 15.228
44 PO2 177 14.740
44 PO2 178 13.763
44 PO2 179 11.810
44 PO2 180 8.881
