# co2c0000384.rd
# 120 trials, 64 chans, 416 samples 368 post_stim samples
# 3.906000 msecs uV
# S1 obj , trial 24
# FP1 chan 0
24 FP1 0 -12.817
24 FP1 1 -15.259
24 FP1 2 -7.446
24 FP1 3 3.296
24 FP1 4 9.644
24 FP1 5 7.202
24 FP1 6 -0.610
24 FP1 7 -7.446
24 FP1 8 -10.376
24 FP1 9 -8.911
24 FP1 10 -5.493
24 FP1 11 -1.099
24 FP1 12 3.296
24 FP1 13 8.179
24 FP1 14 11.108
24 FP1 15 9.155
24 FP1 16 1.831
24 FP1 17 -8.423
24 FP1 18 -16.235
24 FP1 19 -16.235
24 FP1 20 -8.423
24 FP1 21 2.319
24 FP1 22 9.155
24 FP1 23 7.202
24 FP1 24 -1.587
24 FP1 25 -11.841
24 FP1 26 -18.188
24 FP1 27 -19.653
24 FP1 28 -16.235
24 FP1 29 -10.864
24 FP1 30 -4.028
24 FP1 31 2.319
24 FP1 32 8.179
24 FP1 33 9.644
24 FP1 34 6.714
24 FP1 35 0.366
24 FP1 36 -5.493
24 FP1 37 -6.958
24 FP1 38 -3.540
24 FP1 39 2.319
24 FP1 40 5.249
24 FP1 41 3.784
24 FP1 42 -0.122
24 FP1 43 -1.099
24 FP1 44 3.296
24 FP1 45 11.597
24 FP1 46 16.968
24 FP1 47 15.015
24 FP1 48 4.272
24 FP1 49 -7.935
24 FP1 50 -15.259
24 FP1 51 -12.329
24 FP1 52 -3.540
24 FP1 53 3.784
24 FP1 54 2.808
24 FP1 55 -6.470
24 FP1 56 -16.235
24 FP1 57 -20.142
24 FP1 58 -14.771
24 FP1 59 -5.981
24 FP1 60 -1.587
24 FP1 61 -5.005
24 FP1 62 -13.794
24 FP1 63 -21.606
24 FP1 64 -22.583
24 FP1 65 -16.235
24 FP1 66 -5.981
24 FP1 67 2.319
24 FP1 68 5.737
24 FP1 69 3.784
24 FP1 70 -3.052
24 FP1 71 -12.329
24 FP1 72 -20.142
24 FP1 73 -22.095
24 FP1 74 -17.700
24 FP1 75 -8.423
24 FP1 76 -0.610
24 FP1 77 1.343
24 FP1 78 -3.540
24 FP1 79 -10.376
24 FP1 80 -14.771
24 FP1 81 -12.817
24 FP1 82 -7.935
24 FP1 83 -5.005
24 FP1 84 -6.470
24 FP1 85 -11.841
24 FP1 86 -15.747
24 FP1 87 -12.329
24 FP1 88 -4.028
24 FP1 89 6.226
24 FP1 90 10.132
24 FP1 91 5.249
24 FP1 92 -6.958
24 FP1 93 -18.188
24 FP1 94 -19.653
24 FP1 95 -10.376
24 FP1 96 5.737
24 FP1 97 17.456
24 FP1 98 15.015
24 FP1 99 -1.099
24 FP1 100 -23.071
24 FP1 101 -37.720
24 FP1 102 -37.231
24 FP1 103 -22.095
24 FP1 104 -2.563
24 FP1 105 11.108
24 FP1 106 13.062
24 FP1 107 4.761
24 FP1 108 -8.423
24 FP1 109 -18.677
24 FP1 110 -21.606
24 FP1 111 -16.235
24 FP1 112 -6.958
24 FP1 113 0.366
24 FP1 114 -0.122
24 FP1 115 -10.376
24 FP1 116 -26.001
24 FP1 117 -37.720
24 FP1 118 -38.696
24 FP1 119 -26.001
24 FP1 120 -6.958
24 FP1 121 7.690
24 FP1 122 10.132
24 FP1 123 -1.099
24 FP1 124 -19.653
24 FP1 125 -35.278
24 FP1 126 -43.091
24 FP1 127 -42.603
24 FP1 128 -36.743
24 FP1 129 -30.396
24 FP1 130 -24.536
24 FP1 131 -20.142
24 FP1 132 -19.165
24 FP1 133 -21.606
24 FP1 134 -26.001
24 FP1 135 -30.884
24 FP1 136 -32.349
24 FP1 137 -29.419
24 FP1 138 -24.048
24 FP1 139 -20.142
24 FP1 140 -19.653
24 FP1 141 -21.118
24 FP1 142 -21.606
24 FP1 143 -17.700
24 FP1 144 -11.841
24 FP1 145 -9.399
24 FP1 146 -13.794
24 FP1 147 -24.048
24 FP1 148 -33.325
24 FP1 149 -32.837
24 FP1 150 -20.142
24 FP1 151 -1.099
24 FP1 152 13.062
24 FP1 153 13.550
24 FP1 154 0.366
24 FP1 155 -18.677
24 FP1 156 -32.837
24 FP1 157 -35.278
24 FP1 158 -26.978
24 FP1 159 -13.306
24 FP1 160 -0.122
24 FP1 161 9.644
24 FP1 162 13.550
24 FP1 163 9.155
24 FP1 164 -3.540
24 FP1 165 -20.630
24 FP1 166 -32.837
24 FP1 167 -31.372
24 FP1 168 -15.747
24 FP1 169 6.226
24 FP1 170 21.851
24 FP1 171 22.339
24 FP1 172 7.690
24 FP1 173 -12.817
24 FP1 174 -26.489
24 FP1 175 -26.978
24 FP1 176 -16.235
24 FP1 177 -1.587
24 FP1 178 10.132
24 FP1 179 14.038
24 FP1 180 10.620
24 FP1 181 1.343
24 FP1 182 -7.935
24 FP1 183 -13.794
24 FP1 184 -13.306
24 FP1 185 -6.470
24 FP1 186 2.319
24 FP1 187 9.644
24 FP1 188 11.597
24 FP1 189 9.644
24 FP1 190 5.249
24 FP1 191 0.854
24 FP1 192 -1.587
24 FP1 193 -2.075
24 FP1 194 -1.099
24 FP1 195 1.343
24 FP1 196 5.249
24 FP1 197 8.667
24 FP1 198 10.132
24 FP1 199 7.690
24 FP1 200 3.784
24 FP1 201 -0.122
24 FP1 202 -1.587
24 FP1 203 -0.610
24 FP1 204 1.343
24 FP1 205 0.854
24 FP1 206 -2.563
24 FP1 207 -6.958
24 FP1 208 -9.399
24 FP1 209 -8.423
24 FP1 210 -6.470
24 FP1 211 -7.935
24 FP1 212 -14.282
24 FP1 213 -22.583
24 FP1 214 -26.001
24 FP1 215 -19.653
24 FP1 216 -4.517
24 FP1 217 10.132
24 FP1 218 15.015
24 FP1 219 9.155
24 FP1 220 -2.563
24 FP1 221 -9.888
24 FP1 222 -6.470
24 FP1 223 3.296
24 FP1 224 10.620
24 FP1 225 10.132
24 FP1 226 2.319
24 FP1 227 -4.517
24 FP1 228 -4.028
24 FP1 229 4.272
24 FP1 230 13.062
24 FP1 231 15.015
24 FP1 232 7.690
24 FP1 233 -2.563
24 FP1 234 -6.470
24 FP1 235 -0.610
24 FP1 236 11.597
24 FP1 237 20.386
24 FP1 238 18.921
24 FP1 239 7.690
24 FP1 240 -2.563
24 FP1 241 -3.540
24 FP1 242 6.226
24 FP1 243 19.897
24 FP1 244 26.733
24 FP1 245 20.874
24 FP1 246 7.202
24 FP1 247 -5.005
24 FP1 248 -9.399
24 FP1 249 -5.493
24 FP1 250 0.854
24 FP1 251 5.737
24 FP1 252 8.667
24 FP1 253 11.597
24 FP1 254 15.503
24 FP1 255 17.944
# FP2 chan 1
24 FP2 0 1.322
24 FP2 1 -2.584
24 FP2 2 -4.537
24 FP2 3 -2.584
24 FP2 4 0.834
24 FP2 5 3.764
24 FP2 6 3.764
24 FP2 7 0.346
24 FP2 8 -3.072
24 FP2 9 -6.002
24 FP2 10 -6.490
24 FP2 11 -4.537
24 FP2 12 -0.142
24 FP2 13 4.740
24 FP2 14 9.135
24 FP2 15 10.111
24 FP2 16 7.182
24 FP2 17 -0.631
24 FP2 18 -8.931
24 FP2 19 -14.791
24 FP2 20 -14.791
24 FP2 21 -9.420
24 FP2 22 -2.584
24 FP2 23 2.299
24 FP2 24 2.299
24 FP2 25 -0.631
24 FP2 26 -4.049
24 FP2 27 -6.002
24 FP2 28 -6.002
24 FP2 29 -4.537
24 FP2 30 -3.560
24 FP2 31 -2.584
24 FP2 32 -2.584
24 FP2 33 -3.072
24 FP2 34 -3.560
24 FP2 35 -3.560
24 FP2 36 -3.072
24 FP2 37 -1.607
24 FP2 38 0.346
24 FP2 39 2.299
24 FP2 40 3.764
24 FP2 41 4.740
24 FP2 42 5.717
24 FP2 43 7.182
24 FP2 44 7.670
24 FP2 45 6.205
24 FP2 46 2.787
24 FP2 47 -2.096
24 FP2 48 -6.490
24 FP2 49 -8.443
24 FP2 50 -7.467
24 FP2 51 -5.514
24 FP2 52 -4.537
24 FP2 53 -6.490
24 FP2 54 -9.908
24 FP2 55 -11.861
24 FP2 56 -11.861
24 FP2 57 -9.420
24 FP2 58 -7.467
24 FP2 59 -7.467
24 FP2 60 -9.420
24 FP2 61 -11.861
24 FP2 62 -12.838
24 FP2 63 -11.373
24 FP2 64 -8.443
24 FP2 65 -6.002
24 FP2 66 -4.537
24 FP2 67 -4.049
24 FP2 68 -4.049
24 FP2 69 -5.514
24 FP2 70 -7.955
24 FP2 71 -11.861
24 FP2 72 -14.303
24 FP2 73 -14.303
24 FP2 74 -10.885
24 FP2 75 -6.002
24 FP2 76 -2.584
24 FP2 77 -2.584
24 FP2 78 -4.537
24 FP2 79 -6.490
24 FP2 80 -6.978
24 FP2 81 -5.514
24 FP2 82 -4.049
24 FP2 83 -4.049
24 FP2 84 -4.537
24 FP2 85 -6.002
24 FP2 86 -6.978
24 FP2 87 -6.490
24 FP2 88 -6.490
24 FP2 89 -6.002
24 FP2 90 -5.514
24 FP2 91 -4.049
24 FP2 92 -2.584
24 FP2 93 -0.142
24 FP2 94 1.322
24 FP2 95 1.322
24 FP2 96 0.346
24 FP2 97 -1.607
24 FP2 98 -3.072
24 FP2 99 -5.025
24 FP2 100 -6.490
24 FP2 101 -7.467
24 FP2 102 -7.955
24 FP2 103 -7.955
24 FP2 104 -6.978
24 FP2 105 -5.025
24 FP2 106 -3.072
24 FP2 107 -1.119
24 FP2 108 -0.142
24 FP2 109 -1.607
24 FP2 110 -4.537
24 FP2 111 -9.908
24 FP2 112 -14.303
24 FP2 113 -16.256
24 FP2 114 -13.814
24 FP2 115 -9.908
24 FP2 116 -6.002
24 FP2 117 -5.514
24 FP2 118 -8.443
24 FP2 119 -12.349
24 FP2 120 -14.303
24 FP2 121 -13.814
24 FP2 122 -10.396
24 FP2 123 -8.931
24 FP2 124 -9.420
24 FP2 125 -12.349
24 FP2 126 -16.256
24 FP2 127 -20.162
24 FP2 128 -22.603
24 FP2 129 -24.556
24 FP2 130 -26.021
24 FP2 131 -26.510
24 FP2 132 -26.021
24 FP2 133 -25.533
24 FP2 134 -23.580
24 FP2 135 -22.115
24 FP2 136 -20.162
24 FP2 137 -19.674
24 FP2 138 -20.650
24 FP2 139 -23.092
24 FP2 140 -25.533
24 FP2 141 -26.998
24 FP2 142 -25.533
24 FP2 143 -21.139
24 FP2 144 -16.744
24 FP2 145 -14.303
24 FP2 146 -15.767
24 FP2 147 -19.674
24 FP2 148 -22.115
24 FP2 149 -21.139
24 FP2 150 -17.232
24 FP2 151 -12.349
24 FP2 152 -9.908
24 FP2 153 -11.861
24 FP2 154 -15.279
24 FP2 155 -18.209
24 FP2 156 -18.697
24 FP2 157 -17.232
24 FP2 158 -14.791
24 FP2 159 -12.349
24 FP2 160 -10.396
24 FP2 161 -7.467
24 FP2 162 -4.049
24 FP2 163 -2.096
24 FP2 164 -4.049
24 FP2 165 -9.420
24 FP2 166 -14.303
24 FP2 167 -16.744
24 FP2 168 -14.303
24 FP2 169 -9.420
24 FP2 170 -6.490
24 FP2 171 -6.978
24 FP2 172 -10.396
24 FP2 173 -12.838
24 FP2 174 -11.861
24 FP2 175 -8.443
24 FP2 176 -5.514
24 FP2 177 -4.537
24 FP2 178 -6.002
24 FP2 179 -6.978
24 FP2 180 -6.978
24 FP2 181 -6.002
24 FP2 182 -5.025
24 FP2 183 -6.002
24 FP2 184 -6.002
24 FP2 185 -4.049
24 FP2 186 -0.631
24 FP2 187 2.787
24 FP2 188 3.276
24 FP2 189 0.834
24 FP2 190 -1.607
24 FP2 191 -2.096
24 FP2 192 0.834
24 FP2 193 5.229
24 FP2 194 7.182
24 FP2 195 6.694
24 FP2 196 4.252
24 FP2 197 2.299
24 FP2 198 2.787
24 FP2 199 5.229
24 FP2 200 7.670
24 FP2 201 9.623
24 FP2 202 10.111
24 FP2 203 8.647
24 FP2 204 6.694
24 FP2 205 3.276
24 FP2 206 0.834
24 FP2 207 -0.631
24 FP2 208 -0.142
24 FP2 209 2.299
24 FP2 210 4.252
24 FP2 211 4.740
24 FP2 212 2.299
24 FP2 213 -1.119
24 FP2 214 -4.537
24 FP2 215 -5.025
24 FP2 216 -2.584
24 FP2 217 2.299
24 FP2 218 7.182
24 FP2 219 9.135
24 FP2 220 7.670
24 FP2 221 2.787
24 FP2 222 -2.096
24 FP2 223 -4.537
24 FP2 224 -4.049
24 FP2 225 -1.119
24 FP2 226 2.299
24 FP2 227 4.252
24 FP2 228 5.229
24 FP2 229 5.717
24 FP2 230 6.694
24 FP2 231 8.647
24 FP2 232 10.111
24 FP2 233 10.600
24 FP2 234 8.647
24 FP2 235 6.205
24 FP2 236 4.740
24 FP2 237 4.252
24 FP2 238 4.740
24 FP2 239 4.740
24 FP2 240 4.252
24 FP2 241 3.276
24 FP2 242 3.276
24 FP2 243 4.252
24 FP2 244 5.717
24 FP2 245 5.717
24 FP2 246 4.740
24 FP2 247 2.787
24 FP2 248 2.299
24 FP2 249 2.787
24 FP2 250 4.740
24 FP2 251 6.694
24 FP2 252 7.182
24 FP2 253 6.205
24 FP2 254 4.252
24 FP2 255 2.299
# F7 chan 2
24 F7 0 -15.798
24 F7 1 -12.868
24 F7 2 -5.056
24 F7 3 3.733
24 F7 4 9.593
24 F7 5 9.593
24 F7 6 5.198
24 F7 7 -2.126
24 F7 8 -9.450
24 F7 9 -14.333
24 F7 10 -15.310
24 F7 11 -12.380
24 F7 12 -5.544
24 F7 13 2.757
24 F7 14 7.640
24 F7 15 7.151
24 F7 16 1.292
24 F7 17 -6.032
24 F7 18 -10.915
24 F7 19 -10.427
24 F7 20 -5.056
24 F7 21 1.292
24 F7 22 4.710
24 F7 23 2.268
24 F7 24 -6.032
24 F7 25 -15.798
24 F7 26 -22.634
24 F7 27 -22.634
24 F7 28 -14.821
24 F7 29 -2.614
24 F7 30 7.640
24 F7 31 11.058
24 F7 32 6.175
24 F7 33 -2.614
24 F7 34 -7.985
24 F7 35 -6.032
24 F7 36 2.268
24 F7 37 10.569
24 F7 38 11.546
24 F7 39 4.222
24 F7 40 -6.032
24 F7 41 -10.915
24 F7 42 -5.544
24 F7 43 5.198
24 F7 44 13.987
24 F7 45 13.011
24 F7 46 3.733
24 F7 47 -5.544
24 F7 48 -7.985
24 F7 49 -3.591
24 F7 50 1.780
24 F7 51 0.804
24 F7 52 -6.521
24 F7 53 -13.845
24 F7 54 -14.333
24 F7 55 -7.497
24 F7 56 0.804
24 F7 57 3.733
24 F7 58 -1.638
24 F7 59 -10.427
24 F7 60 -15.310
24 F7 61 -13.845
24 F7 62 -7.009
24 F7 63 -2.614
24 F7 64 -2.614
24 F7 65 -5.544
24 F7 66 -7.497
24 F7 67 -7.009
24 F7 68 -6.521
24 F7 69 -9.450
24 F7 70 -15.798
24 F7 71 -20.681
24 F7 72 -19.216
24 F7 73 -11.403
24 F7 74 -2.126
24 F7 75 0.315
24 F7 76 -6.032
24 F7 77 -17.751
24 F7 78 -26.052
24 F7 79 -25.564
24 F7 80 -17.263
24 F7 81 -7.985
24 F7 82 -4.079
24 F7 83 -7.009
24 F7 84 -13.357
24 F7 85 -16.774
24 F7 86 -14.333
24 F7 87 -7.009
24 F7 88 -0.173
24 F7 89 2.757
24 F7 90 -1.149
24 F7 91 -8.474
24 F7 92 -15.310
24 F7 93 -17.263
24 F7 94 -14.333
24 F7 95 -8.962
24 F7 96 -4.567
24 F7 97 -3.591
24 F7 98 -6.521
24 F7 99 -10.915
24 F7 100 -14.333
24 F7 101 -14.821
24 F7 102 -12.868
24 F7 103 -9.939
24 F7 104 -7.497
24 F7 105 -5.544
24 F7 106 -3.103
24 F7 107 -1.149
24 F7 108 -1.638
24 F7 109 -6.032
24 F7 110 -13.845
24 F7 111 -22.634
24 F7 112 -27.028
24 F7 113 -24.099
24 F7 114 -14.333
24 F7 115 -3.591
24 F7 116 1.292
24 F7 117 -3.591
24 F7 118 -15.310
24 F7 119 -28.493
24 F7 120 -35.817
24 F7 121 -35.329
24 F7 122 -28.982
24 F7 123 -21.169
24 F7 124 -15.310
24 F7 125 -13.845
24 F7 126 -16.286
24 F7 127 -21.657
24 F7 128 -28.493
24 F7 129 -35.329
24 F7 130 -39.235
24 F7 131 -38.747
24 F7 132 -34.353
24 F7 133 -27.028
24 F7 134 -20.192
24 F7 135 -17.751
24 F7 136 -20.192
24 F7 137 -26.540
24 F7 138 -31.423
24 F7 139 -31.911
24 F7 140 -26.052
24 F7 141 -16.774
24 F7 142 -9.939
24 F7 143 -7.985
24 F7 144 -11.403
24 F7 145 -16.774
24 F7 146 -18.728
24 F7 147 -16.286
24 F7 148 -10.915
24 F7 149 -7.009
24 F7 150 -6.521
24 F7 151 -9.450
24 F7 152 -11.892
24 F7 153 -12.868
24 F7 154 -11.892
24 F7 155 -10.915
24 F7 156 -10.427
24 F7 157 -10.915
24 F7 158 -9.939
24 F7 159 -6.032
24 F7 160 -1.149
24 F7 161 1.780
24 F7 162 0.804
24 F7 163 -3.591
24 F7 164 -8.962
24 F7 165 -10.915
24 F7 166 -7.985
24 F7 167 -2.126
24 F7 168 2.268
24 F7 169 1.780
24 F7 170 -3.103
24 F7 171 -8.474
24 F7 172 -10.915
24 F7 173 -8.962
24 F7 174 -4.079
24 F7 175 -0.173
24 F7 176 1.292
24 F7 177 0.315
24 F7 178 -0.661
24 F7 179 -0.661
24 F7 180 1.292
24 F7 181 3.245
24 F7 182 4.710
24 F7 183 4.222
24 F7 184 1.292
24 F7 185 -1.149
24 F7 186 -2.126
24 F7 187 -0.173
24 F7 188 3.733
24 F7 189 8.128
24 F7 190 9.104
24 F7 191 7.151
24 F7 192 3.245
24 F7 193 -1.149
24 F7 194 -4.079
24 F7 195 -5.056
24 F7 196 -3.591
24 F7 197 -1.638
24 F7 198 -1.638
24 F7 199 -3.103
24 F7 200 -6.521
24 F7 201 -9.450
24 F7 202 -11.892
24 F7 203 -12.380
24 F7 204 -12.380
24 F7 205 -12.868
24 F7 206 -12.380
24 F7 207 -10.915
24 F7 208 -7.497
24 F7 209 -4.567
24 F7 210 -4.567
24 F7 211 -7.985
24 F7 212 -12.868
24 F7 213 -15.798
24 F7 214 -14.333
24 F7 215 -9.939
24 F7 216 -6.032
24 F7 217 -6.521
24 F7 218 -10.915
24 F7 219 -15.798
24 F7 220 -17.263
24 F7 221 -13.845
24 F7 222 -7.985
24 F7 223 -3.591
24 F7 224 -1.638
24 F7 225 -2.126
24 F7 226 -1.638
24 F7 227 -0.661
24 F7 228 0.804
24 F7 229 1.780
24 F7 230 2.268
24 F7 231 3.245
24 F7 232 4.222
24 F7 233 4.710
24 F7 234 3.733
24 F7 235 1.292
24 F7 236 -1.149
24 F7 237 -2.126
24 F7 238 -2.126
24 F7 239 -3.103
24 F7 240 -5.056
24 F7 241 -5.544
24 F7 242 -3.591
24 F7 243 1.292
24 F7 244 5.198
24 F7 245 6.175
24 F7 246 3.245
24 F7 247 -1.149
24 F7 248 -3.591
24 F7 249 -1.638
24 F7 250 3.245
24 F7 251 8.128
24 F7 252 11.058
24 F7 253 11.058
24 F7 254 9.593
24 F7 255 6.663
# F8 chan 3
24 F8 0 -7.304
24 F8 1 -6.816
24 F8 2 -2.909
24 F8 3 0.997
24 F8 4 2.462
24 F8 5 0.997
24 F8 6 -1.933
24 F8 7 -5.351
24 F8 8 -7.792
24 F8 9 -9.745
24 F8 10 -11.210
24 F8 11 -10.234
24 F8 12 -6.816
24 F8 13 -1.933
24 F8 14 1.485
24 F8 15 0.997
24 F8 16 -3.398
24 F8 17 -9.257
24 F8 18 -13.163
24 F8 19 -13.652
24 F8 20 -12.675
24 F8 21 -12.187
24 F8 22 -13.163
24 F8 23 -14.628
24 F8 24 -14.140
24 F8 25 -10.722
24 F8 26 -6.327
24 F8 27 -3.398
24 F8 28 -2.909
24 F8 29 -4.862
24 F8 30 -7.792
24 F8 31 -9.257
24 F8 32 -9.745
24 F8 33 -8.769
24 F8 34 -8.280
24 F8 35 -7.792
24 F8 36 -7.792
24 F8 37 -8.280
24 F8 38 -7.792
24 F8 39 -7.304
24 F8 40 -6.327
24 F8 41 -5.351
24 F8 42 -4.374
24 F8 43 -3.398
24 F8 44 -3.398
24 F8 45 -3.886
24 F8 46 -5.351
24 F8 47 -6.816
24 F8 48 -8.280
24 F8 49 -10.234
24 F8 50 -12.675
24 F8 51 -14.628
24 F8 52 -15.116
24 F8 53 -13.163
24 F8 54 -10.722
24 F8 55 -8.280
24 F8 56 -9.257
24 F8 57 -12.675
24 F8 58 -17.558
24 F8 59 -20.976
24 F8 60 -20.976
24 F8 61 -18.046
24 F8 62 -13.652
24 F8 63 -11.210
24 F8 64 -11.210
24 F8 65 -12.675
24 F8 66 -14.140
24 F8 67 -14.140
24 F8 68 -13.652
24 F8 69 -13.163
24 F8 70 -14.140
24 F8 71 -16.581
24 F8 72 -18.046
24 F8 73 -18.046
24 F8 74 -16.581
24 F8 75 -14.628
24 F8 76 -13.163
24 F8 77 -11.698
24 F8 78 -9.257
24 F8 79 -4.374
24 F8 80 0.509
24 F8 81 1.973
24 F8 82 -2.421
24 F8 83 -11.698
24 F8 84 -19.999
24 F8 85 -22.929
24 F8 86 -18.534
24 F8 87 -9.257
24 F8 88 -3.398
24 F8 89 -4.374
24 F8 90 -11.210
24 F8 91 -18.534
24 F8 92 -19.999
24 F8 93 -14.628
24 F8 94 -4.862
24 F8 95 3.438
24 F8 96 6.368
24 F8 97 3.927
24 F8 98 -2.421
24 F8 99 -9.257
24 F8 100 -16.093
24 F8 101 -20.976
24 F8 102 -22.929
24 F8 103 -19.999
24 F8 104 -12.187
24 F8 105 -2.909
24 F8 106 4.415
24 F8 107 6.856
24 F8 108 2.950
24 F8 109 -5.351
24 F8 110 -14.140
24 F8 111 -20.976
24 F8 112 -22.441
24 F8 113 -19.511
24 F8 114 -13.652
24 F8 115 -8.769
24 F8 116 -6.327
24 F8 117 -6.816
24 F8 118 -8.769
24 F8 119 -8.769
24 F8 120 -7.304
24 F8 121 -5.839
24 F8 122 -6.816
24 F8 123 -10.722
24 F8 124 -16.581
24 F8 125 -20.976
24 F8 126 -21.952
24 F8 127 -20.976
24 F8 128 -19.511
24 F8 129 -19.511
24 F8 130 -21.952
24 F8 131 -25.370
24 F8 132 -27.812
24 F8 133 -28.788
24 F8 134 -27.812
24 F8 135 -25.859
24 F8 136 -22.929
24 F8 137 -19.999
24 F8 138 -18.534
24 F8 139 -19.023
24 F8 140 -20.976
24 F8 141 -23.905
24 F8 142 -26.347
24 F8 143 -26.347
24 F8 144 -23.905
24 F8 145 -21.464
24 F8 146 -19.511
24 F8 147 -19.023
24 F8 148 -19.511
24 F8 149 -19.999
24 F8 150 -20.487
24 F8 151 -21.464
24 F8 152 -22.441
24 F8 153 -21.952
24 F8 154 -19.023
24 F8 155 -14.140
24 F8 156 -9.257
24 F8 157 -6.816
24 F8 158 -8.280
24 F8 159 -12.187
24 F8 160 -14.628
24 F8 161 -13.652
24 F8 162 -9.745
24 F8 163 -6.327
24 F8 164 -6.327
24 F8 165 -10.234
24 F8 166 -16.581
24 F8 167 -21.952
24 F8 168 -22.929
24 F8 169 -19.999
24 F8 170 -14.140
24 F8 171 -9.257
24 F8 172 -7.304
24 F8 173 -9.257
24 F8 174 -12.675
24 F8 175 -15.605
24 F8 176 -15.605
24 F8 177 -12.187
24 F8 178 -6.816
24 F8 179 -2.421
24 F8 180 -0.956
24 F8 181 -1.933
24 F8 182 -3.886
24 F8 183 -4.862
24 F8 184 -4.374
24 F8 185 -2.909
24 F8 186 -1.444
24 F8 187 0.509
24 F8 188 1.973
24 F8 189 2.950
24 F8 190 2.462
24 F8 191 0.509
24 F8 192 -1.444
24 F8 193 -2.421
24 F8 194 -0.468
24 F8 195 3.438
24 F8 196 8.321
24 F8 197 11.739
24 F8 198 13.692
24 F8 199 13.204
24 F8 200 12.227
24 F8 201 9.786
24 F8 202 7.833
24 F8 203 6.856
24 F8 204 7.833
24 F8 205 9.298
24 F8 206 10.274
24 F8 207 9.298
24 F8 208 4.903
24 F8 209 -0.468
24 F8 210 -4.374
24 F8 211 -4.862
24 F8 212 -0.468
24 F8 213 6.368
24 F8 214 12.227
24 F8 215 12.227
24 F8 216 6.368
24 F8 217 -1.444
24 F8 218 -6.327
24 F8 219 -5.351
24 F8 220 0.509
24 F8 221 6.856
24 F8 222 8.809
24 F8 223 5.391
24 F8 224 -1.444
24 F8 225 -7.792
24 F8 226 -9.257
24 F8 227 -5.839
24 F8 228 0.020
24 F8 229 5.391
24 F8 230 7.833
24 F8 231 6.856
24 F8 232 4.415
24 F8 233 2.462
24 F8 234 0.997
24 F8 235 -0.956
24 F8 236 -3.886
24 F8 237 -7.304
24 F8 238 -9.745
24 F8 239 -9.745
24 F8 240 -6.327
24 F8 241 -2.421
24 F8 242 1.973
24 F8 243 4.903
24 F8 244 5.880
24 F8 245 4.415
24 F8 246 0.997
24 F8 247 -3.886
24 F8 248 -8.769
24 F8 249 -11.210
24 F8 250 -8.769
24 F8 251 -2.421
24 F8 252 3.927
24 F8 253 6.368
24 F8 254 1.973
24 F8 255 -8.280
# AF1 chan 4
24 AF1 0 5.066
24 AF1 1 5.554
24 AF1 2 5.066
24 AF1 3 4.089
24 AF1 4 2.625
24 AF1 5 1.648
24 AF1 6 1.160
24 AF1 7 0.671
24 AF1 8 0.671
24 AF1 9 0.671
24 AF1 10 1.160
24 AF1 11 2.625
24 AF1 12 5.066
24 AF1 13 7.507
24 AF1 14 8.972
24 AF1 15 7.996
24 AF1 16 6.042
24 AF1 17 3.601
24 AF1 18 1.648
24 AF1 19 0.183
24 AF1 20 -0.305
24 AF1 21 -2.258
24 AF1 22 -4.211
24 AF1 23 -6.165
24 AF1 24 -6.165
24 AF1 25 -3.723
24 AF1 26 -0.793
24 AF1 27 1.160
24 AF1 28 0.671
24 AF1 29 -1.282
24 AF1 30 -2.747
24 AF1 31 -1.770
24 AF1 32 1.160
24 AF1 33 4.578
24 AF1 34 6.042
24 AF1 35 5.554
24 AF1 36 3.113
24 AF1 37 1.160
24 AF1 38 1.160
24 AF1 39 2.625
24 AF1 40 5.066
24 AF1 41 7.019
24 AF1 42 6.531
24 AF1 43 5.554
24 AF1 44 3.601
24 AF1 45 3.113
24 AF1 46 4.089
24 AF1 47 5.066
24 AF1 48 5.066
24 AF1 49 2.625
24 AF1 50 -0.793
24 AF1 51 -3.723
24 AF1 52 -4.700
24 AF1 53 -3.235
24 AF1 54 -1.282
24 AF1 55 -0.793
24 AF1 56 -2.747
24 AF1 57 -5.676
24 AF1 58 -7.629
24 AF1 59 -7.629
24 AF1 60 -6.165
24 AF1 61 -4.700
24 AF1 62 -3.723
24 AF1 63 -3.723
24 AF1 64 -3.723
24 AF1 65 -2.747
24 AF1 66 -1.770
24 AF1 67 -0.793
24 AF1 68 -0.305
24 AF1 69 -1.282
24 AF1 70 -2.747
24 AF1 71 -4.700
24 AF1 72 -6.653
24 AF1 73 -7.629
24 AF1 74 -7.629
24 AF1 75 -5.676
24 AF1 76 -2.747
24 AF1 77 -0.305
24 AF1 78 0.183
24 AF1 79 -0.793
24 AF1 80 -3.235
24 AF1 81 -5.188
24 AF1 82 -5.676
24 AF1 83 -4.700
24 AF1 84 -2.747
24 AF1 85 -1.282
24 AF1 86 -1.282
24 AF1 87 -1.770
24 AF1 88 -2.747
24 AF1 89 -2.747
24 AF1 90 -2.747
24 AF1 91 -2.258
24 AF1 92 -1.770
24 AF1 93 -0.793
24 AF1 94 0.671
24 AF1 95 2.625
24 AF1 96 3.113
24 AF1 97 2.625
24 AF1 98 0.183
24 AF1 99 -2.258
24 AF1 100 -4.700
24 AF1 101 -5.188
24 AF1 102 -3.723
24 AF1 103 -1.770
24 AF1 104 0.183
24 AF1 105 1.160
24 AF1 106 2.625
24 AF1 107 3.113
24 AF1 108 3.601
24 AF1 109 2.136
24 AF1 110 0.183
24 AF1 111 -2.747
24 AF1 112 -5.188
24 AF1 113 -5.676
24 AF1 114 -4.700
24 AF1 115 -3.235
24 AF1 116 -2.258
24 AF1 117 -3.235
24 AF1 118 -5.676
24 AF1 119 -8.118
24 AF1 120 -8.118
24 AF1 121 -6.165
24 AF1 122 -3.235
24 AF1 123 -1.770
24 AF1 124 -3.235
24 AF1 125 -7.141
24 AF1 126 -11.047
24 AF1 127 -13.489
24 AF1 128 -13.489
24 AF1 129 -11.536
24 AF1 130 -10.071
24 AF1 131 -10.559
24 AF1 132 -13.000
24 AF1 133 -15.442
24 AF1 134 -16.418
24 AF1 135 -15.442
24 AF1 136 -13.489
24 AF1 137 -11.047
24 AF1 138 -9.583
24 AF1 139 -9.094
24 AF1 140 -9.094
24 AF1 141 -9.583
24 AF1 142 -10.071
24 AF1 143 -10.559
24 AF1 144 -10.559
24 AF1 145 -10.071
24 AF1 146 -9.094
24 AF1 147 -8.118
24 AF1 148 -8.118
24 AF1 149 -8.606
24 AF1 150 -9.583
24 AF1 151 -9.094
24 AF1 152 -7.629
24 AF1 153 -5.676
24 AF1 154 -4.700
24 AF1 155 -4.700
24 AF1 156 -4.700
24 AF1 157 -4.211
24 AF1 158 -2.258
24 AF1 159 0.671
24 AF1 160 3.113
24 AF1 161 4.089
24 AF1 162 4.089
24 AF1 163 4.089
24 AF1 164 4.578
24 AF1 165 5.554
24 AF1 166 6.042
24 AF1 167 6.042
24 AF1 168 4.089
24 AF1 169 2.136
24 AF1 170 1.648
24 AF1 171 3.601
24 AF1 172 6.042
24 AF1 173 8.484
24 AF1 174 8.972
24 AF1 175 7.019
24 AF1 176 4.089
24 AF1 177 1.648
24 AF1 178 2.136
24 AF1 179 5.066
24 AF1 180 9.460
24 AF1 181 12.878
24 AF1 182 12.878
24 AF1 183 10.437
24 AF1 184 6.531
24 AF1 185 3.601
24 AF1 186 3.113
24 AF1 187 6.042
24 AF1 188 10.437
24 AF1 189 13.855
24 AF1 190 15.320
24 AF1 191 14.343
24 AF1 192 12.878
24 AF1 193 11.414
24 AF1 194 11.414
24 AF1 195 12.878
24 AF1 196 15.808
24 AF1 197 18.250
24 AF1 198 19.714
24 AF1 199 19.714
24 AF1 200 17.761
24 AF1 201 15.808
24 AF1 202 13.855
24 AF1 203 12.878
24 AF1 204 12.878
24 AF1 205 11.902
24 AF1 206 10.437
24 AF1 207 8.972
24 AF1 208 8.484
24 AF1 209 9.949
24 AF1 210 12.878
24 AF1 211 15.320
24 AF1 212 15.320
24 AF1 213 12.390
24 AF1 214 9.460
24 AF1 215 7.996
24 AF1 216 8.972
24 AF1 217 10.925
24 AF1 218 11.902
24 AF1 219 10.437
24 AF1 220 7.996
24 AF1 221 5.554
24 AF1 222 5.554
24 AF1 223 7.996
24 AF1 224 11.414
24 AF1 225 14.343
24 AF1 226 14.832
24 AF1 227 14.343
24 AF1 228 13.855
24 AF1 229 15.320
24 AF1 230 17.273
24 AF1 231 18.738
24 AF1 232 18.738
24 AF1 233 16.785
24 AF1 234 14.343
24 AF1 235 12.878
24 AF1 236 12.390
24 AF1 237 12.878
24 AF1 238 12.390
24 AF1 239 11.902
24 AF1 240 10.925
24 AF1 241 12.390
24 AF1 242 14.832
24 AF1 243 17.273
24 AF1 244 18.250
24 AF1 245 16.296
24 AF1 246 13.855
24 AF1 247 12.390
24 AF1 248 13.855
24 AF1 249 16.296
24 AF1 250 17.761
24 AF1 251 17.761
24 AF1 252 15.808
24 AF1 253 14.343
24 AF1 254 14.832
24 AF1 255 16.785
# AF2 chan 5
24 AF2 0 1.414
24 AF2 1 0.926
24 AF2 2 0.926
24 AF2 3 0.926
24 AF2 4 -0.051
24 AF2 5 -0.539
24 AF2 6 -1.516
24 AF2 7 -2.492
24 AF2 8 -2.492
24 AF2 9 -2.492
24 AF2 10 -2.004
24 AF2 11 -1.027
24 AF2 12 1.414
24 AF2 13 3.855
24 AF2 14 5.809
24 AF2 15 5.809
24 AF2 16 3.855
24 AF2 17 -0.051
24 AF2 18 -3.469
24 AF2 19 -6.887
24 AF2 20 -8.352
24 AF2 21 -9.328
24 AF2 22 -9.816
24 AF2 23 -10.305
24 AF2 24 -8.840
24 AF2 25 -6.887
24 AF2 26 -4.934
24 AF2 27 -3.469
24 AF2 28 -3.957
24 AF2 29 -5.422
24 AF2 30 -6.887
24 AF2 31 -6.399
24 AF2 32 -5.422
24 AF2 33 -4.445
24 AF2 34 -4.445
24 AF2 35 -5.910
24 AF2 36 -6.887
24 AF2 37 -6.399
24 AF2 38 -3.469
24 AF2 39 0.437
24 AF2 40 3.367
24 AF2 41 3.855
24 AF2 42 2.879
24 AF2 43 1.414
24 AF2 44 -0.051
24 AF2 45 -0.539
24 AF2 46 -0.539
24 AF2 47 -0.539
24 AF2 48 -2.492
24 AF2 49 -4.934
24 AF2 50 -7.375
24 AF2 51 -9.328
24 AF2 52 -9.328
24 AF2 53 -8.840
24 AF2 54 -7.863
24 AF2 55 -7.863
24 AF2 56 -8.840
24 AF2 57 -10.305
24 AF2 58 -11.281
24 AF2 59 -11.770
24 AF2 60 -11.770
24 AF2 61 -11.281
24 AF2 62 -10.793
24 AF2 63 -9.816
24 AF2 64 -9.328
24 AF2 65 -8.352
24 AF2 66 -7.375
24 AF2 67 -6.887
24 AF2 68 -6.399
24 AF2 69 -7.375
24 AF2 70 -8.352
24 AF2 71 -9.816
24 AF2 72 -11.281
24 AF2 73 -11.770
24 AF2 74 -11.281
24 AF2 75 -9.328
24 AF2 76 -6.887
24 AF2 77 -4.934
24 AF2 78 -4.445
24 AF2 79 -4.934
24 AF2 80 -5.910
24 AF2 81 -7.375
24 AF2 82 -7.863
24 AF2 83 -8.352
24 AF2 84 -9.328
24 AF2 85 -10.305
24 AF2 86 -10.793
24 AF2 87 -10.305
24 AF2 88 -8.840
24 AF2 89 -6.887
24 AF2 90 -5.910
24 AF2 91 -5.910
24 AF2 92 -6.399
24 AF2 93 -5.910
24 AF2 94 -4.934
24 AF2 95 -3.469
24 AF2 96 -2.004
24 AF2 97 -1.516
24 AF2 98 -2.492
24 AF2 99 -4.445
24 AF2 100 -7.375
24 AF2 101 -9.816
24 AF2 102 -10.793
24 AF2 103 -9.816
24 AF2 104 -7.863
24 AF2 105 -4.934
24 AF2 106 -2.004
24 AF2 107 -0.051
24 AF2 108 0.437
24 AF2 109 -1.027
24 AF2 110 -3.469
24 AF2 111 -7.375
24 AF2 112 -10.305
24 AF2 113 -12.258
24 AF2 114 -12.258
24 AF2 115 -11.281
24 AF2 116 -9.816
24 AF2 117 -9.328
24 AF2 118 -10.305
24 AF2 119 -11.281
24 AF2 120 -11.770
24 AF2 121 -10.305
24 AF2 122 -8.352
24 AF2 123 -7.375
24 AF2 124 -9.328
24 AF2 125 -12.746
24 AF2 126 -17.141
24 AF2 127 -20.559
24 AF2 128 -21.535
24 AF2 129 -21.047
24 AF2 130 -20.070
24 AF2 131 -20.070
24 AF2 132 -20.559
24 AF2 133 -21.535
24 AF2 134 -22.024
24 AF2 135 -21.047
24 AF2 136 -19.582
24 AF2 137 -18.606
24 AF2 138 -17.629
24 AF2 139 -17.141
24 AF2 140 -17.141
24 AF2 141 -17.141
24 AF2 142 -17.141
24 AF2 143 -17.141
24 AF2 144 -17.629
24 AF2 145 -17.629
24 AF2 146 -17.141
24 AF2 147 -17.141
24 AF2 148 -17.141
24 AF2 149 -16.652
24 AF2 150 -16.164
24 AF2 151 -14.211
24 AF2 152 -12.258
24 AF2 153 -10.793
24 AF2 154 -10.793
24 AF2 155 -11.770
24 AF2 156 -12.746
24 AF2 157 -12.746
24 AF2 158 -11.281
24 AF2 159 -8.840
24 AF2 160 -6.887
24 AF2 161 -5.422
24 AF2 162 -4.445
24 AF2 163 -4.445
24 AF2 164 -4.445
24 AF2 165 -5.422
24 AF2 166 -6.887
24 AF2 167 -8.352
24 AF2 168 -9.816
24 AF2 169 -9.816
24 AF2 170 -8.840
24 AF2 171 -6.887
24 AF2 172 -5.422
24 AF2 173 -4.445
24 AF2 174 -4.934
24 AF2 175 -5.422
24 AF2 176 -5.910
24 AF2 177 -5.422
24 AF2 178 -3.469
24 AF2 179 -1.516
24 AF2 180 0.437
24 AF2 181 0.437
24 AF2 182 -0.539
24 AF2 183 -2.492
24 AF2 184 -4.445
24 AF2 185 -4.445
24 AF2 186 -3.469
24 AF2 187 -1.516
24 AF2 188 0.437
24 AF2 189 2.391
24 AF2 190 2.391
24 AF2 191 1.902
24 AF2 192 1.414
24 AF2 193 1.902
24 AF2 194 3.367
24 AF2 195 4.832
24 AF2 196 6.785
24 AF2 197 7.762
24 AF2 198 8.250
24 AF2 199 8.250
24 AF2 200 7.762
24 AF2 201 6.785
24 AF2 202 5.809
24 AF2 203 4.832
24 AF2 204 3.367
24 AF2 205 2.391
24 AF2 206 1.414
24 AF2 207 0.926
24 AF2 208 1.414
24 AF2 209 2.391
24 AF2 210 3.367
24 AF2 211 2.879
24 AF2 212 2.391
24 AF2 213 0.926
24 AF2 214 -0.051
24 AF2 215 -0.051
24 AF2 216 0.437
24 AF2 217 1.902
24 AF2 218 2.391
24 AF2 219 1.902
24 AF2 220 0.437
24 AF2 221 -1.027
24 AF2 222 -2.004
24 AF2 223 -2.492
24 AF2 224 -1.516
24 AF2 225 -0.539
24 AF2 226 0.437
24 AF2 227 1.414
24 AF2 228 3.367
24 AF2 229 5.320
24 AF2 230 6.785
24 AF2 231 6.785
24 AF2 232 5.809
24 AF2 233 3.855
24 AF2 234 2.391
24 AF2 235 1.414
24 AF2 236 1.414
24 AF2 237 1.414
24 AF2 238 0.926
24 AF2 239 -0.539
24 AF2 240 -1.516
24 AF2 241 -0.539
24 AF2 242 1.902
24 AF2 243 4.832
24 AF2 244 5.809
24 AF2 245 4.832
24 AF2 246 2.391
24 AF2 247 0.437
24 AF2 248 -0.539
24 AF2 249 -0.051
24 AF2 250 0.926
24 AF2 251 1.902
24 AF2 252 2.391
24 AF2 253 2.391
24 AF2 254 2.391
24 AF2 255 2.391
# FZ chan 6
24 FZ 0 1.892
24 FZ 1 1.892
24 FZ 2 2.380
24 FZ 3 1.892
24 FZ 4 0.916
24 FZ 5 -0.549
24 FZ 6 -1.038
24 FZ 7 -0.549
24 FZ 8 -0.061
24 FZ 9 0.916
24 FZ 10 0.916
24 FZ 11 1.404
24 FZ 12 1.892
24 FZ 13 2.380
24 FZ 14 2.380
24 FZ 15 1.404
24 FZ 16 0.427
24 FZ 17 -1.038
24 FZ 18 -2.502
24 FZ 19 -3.479
24 FZ 20 -4.456
24 FZ 21 -5.920
24 FZ 22 -7.385
24 FZ 23 -8.362
24 FZ 24 -7.874
24 FZ 25 -5.920
24 FZ 26 -3.967
24 FZ 27 -2.991
24 FZ 28 -3.479
24 FZ 29 -3.967
24 FZ 30 -4.456
24 FZ 31 -3.479
24 FZ 32 -2.014
24 FZ 33 -1.526
24 FZ 34 -2.991
24 FZ 35 -4.456
24 FZ 36 -5.920
24 FZ 37 -5.432
24 FZ 38 -3.479
24 FZ 39 -0.549
24 FZ 40 1.892
24 FZ 41 2.869
24 FZ 42 1.892
24 FZ 43 0.916
24 FZ 44 -0.549
24 FZ 45 -1.038
24 FZ 46 -0.549
24 FZ 47 -0.061
24 FZ 48 -0.061
24 FZ 49 -1.526
24 FZ 50 -3.967
24 FZ 51 -6.409
24 FZ 52 -7.385
24 FZ 53 -7.874
24 FZ 54 -6.897
24 FZ 55 -6.409
24 FZ 56 -6.409
24 FZ 57 -6.897
24 FZ 58 -8.362
24 FZ 59 -9.338
24 FZ 60 -8.850
24 FZ 61 -8.362
24 FZ 62 -6.897
24 FZ 63 -6.409
24 FZ 64 -5.920
24 FZ 65 -5.920
24 FZ 66 -6.409
24 FZ 67 -5.920
24 FZ 68 -5.920
24 FZ 69 -5.920
24 FZ 70 -6.409
24 FZ 71 -6.897
24 FZ 72 -7.874
24 FZ 73 -7.874
24 FZ 74 -6.897
24 FZ 75 -5.920
24 FZ 76 -4.456
24 FZ 77 -3.967
24 FZ 78 -4.456
24 FZ 79 -5.432
24 FZ 80 -6.409
24 FZ 81 -7.385
24 FZ 82 -8.362
24 FZ 83 -8.362
24 FZ 84 -8.362
24 FZ 85 -7.874
24 FZ 86 -7.385
24 FZ 87 -7.385
24 FZ 88 -6.897
24 FZ 89 -6.897
24 FZ 90 -6.897
24 FZ 91 -6.897
24 FZ 92 -6.409
24 FZ 93 -5.432
24 FZ 94 -4.456
24 FZ 95 -3.479
24 FZ 96 -3.479
24 FZ 97 -3.967
24 FZ 98 -4.944
24 FZ 99 -5.920
24 FZ 100 -6.897
24 FZ 101 -7.385
24 FZ 102 -7.385
24 FZ 103 -6.897
24 FZ 104 -6.409
24 FZ 105 -5.920
24 FZ 106 -4.456
24 FZ 107 -2.014
24 FZ 108 -1.038
24 FZ 109 -0.549
24 FZ 110 -2.014
24 FZ 111 -3.967
24 FZ 112 -6.409
24 FZ 113 -7.874
24 FZ 114 -8.362
24 FZ 115 -8.362
24 FZ 116 -7.874
24 FZ 117 -8.362
24 FZ 118 -9.338
24 FZ 119 -9.827
24 FZ 120 -9.338
24 FZ 121 -7.874
24 FZ 122 -5.920
24 FZ 123 -4.944
24 FZ 124 -5.920
24 FZ 125 -8.362
24 FZ 126 -10.803
24 FZ 127 -13.245
24 FZ 128 -14.709
24 FZ 129 -14.221
24 FZ 130 -14.221
24 FZ 131 -14.221
24 FZ 132 -15.198
24 FZ 133 -16.174
24 FZ 134 -16.174
24 FZ 135 -15.198
24 FZ 136 -13.245
24 FZ 137 -11.292
24 FZ 138 -9.338
24 FZ 139 -8.362
24 FZ 140 -8.362
24 FZ 141 -9.338
24 FZ 142 -10.315
24 FZ 143 -11.780
24 FZ 144 -12.268
24 FZ 145 -11.780
24 FZ 146 -11.292
24 FZ 147 -9.827
24 FZ 148 -8.850
24 FZ 149 -7.874
24 FZ 150 -7.874
24 FZ 151 -7.874
24 FZ 152 -7.874
24 FZ 153 -7.385
24 FZ 154 -6.897
24 FZ 155 -6.897
24 FZ 156 -6.897
24 FZ 157 -6.897
24 FZ 158 -6.897
24 FZ 159 -5.920
24 FZ 160 -4.456
24 FZ 161 -2.991
24 FZ 162 -2.014
24 FZ 163 -1.038
24 FZ 164 -1.038
24 FZ 165 -1.526
24 FZ 166 -2.014
24 FZ 167 -2.991
24 FZ 168 -3.967
24 FZ 169 -4.944
24 FZ 170 -5.432
24 FZ 171 -4.456
24 FZ 172 -3.479
24 FZ 173 -2.014
24 FZ 174 -1.038
24 FZ 175 -1.526
24 FZ 176 -2.502
24 FZ 177 -3.479
24 FZ 178 -2.991
24 FZ 179 -1.526
24 FZ 180 0.916
24 FZ 181 2.380
24 FZ 182 2.869
24 FZ 183 1.892
24 FZ 184 0.427
24 FZ 185 -1.526
24 FZ 186 -2.502
24 FZ 187 -2.014
24 FZ 188 -0.549
24 FZ 189 1.404
24 FZ 190 1.892
24 FZ 191 1.892
24 FZ 192 1.892
24 FZ 193 1.404
24 FZ 194 1.404
24 FZ 195 2.380
24 FZ 196 3.845
24 FZ 197 5.310
24 FZ 198 5.798
24 FZ 199 5.310
24 FZ 200 3.845
24 FZ 201 2.869
24 FZ 202 2.380
24 FZ 203 2.380
24 FZ 204 2.380
24 FZ 205 1.892
24 FZ 206 1.404
24 FZ 207 1.404
24 FZ 208 1.892
24 FZ 209 3.357
24 FZ 210 4.822
24 FZ 211 5.310
24 FZ 212 4.822
24 FZ 213 2.869
24 FZ 214 1.404
24 FZ 215 1.892
24 FZ 216 3.357
24 FZ 217 5.310
24 FZ 218 6.287
24 FZ 219 5.310
24 FZ 220 2.869
24 FZ 221 0.427
24 FZ 222 -0.549
24 FZ 223 0.427
24 FZ 224 2.380
24 FZ 225 3.845
24 FZ 226 4.333
24 FZ 227 3.845
24 FZ 228 3.845
24 FZ 229 4.333
24 FZ 230 5.310
24 FZ 231 6.775
24 FZ 232 6.775
24 FZ 233 5.798
24 FZ 234 4.333
24 FZ 235 3.357
24 FZ 236 2.869
24 FZ 237 1.892
24 FZ 238 1.404
24 FZ 239 1.404
24 FZ 240 1.404
24 FZ 241 3.357
24 FZ 242 4.822
24 FZ 243 5.798
24 FZ 244 6.287
24 FZ 245 5.310
24 FZ 246 4.822
24 FZ 247 4.822
24 FZ 248 5.310
24 FZ 249 4.822
24 FZ 250 4.333
24 FZ 251 3.845
24 FZ 252 3.357
24 FZ 253 3.845
24 FZ 254 5.310
24 FZ 255 6.287
# F4 chan 7
24 F4 0 -2.421
24 F4 1 -1.933
24 F4 2 -0.468
24 F4 3 -0.956
24 F4 4 -1.933
24 F4 5 -3.886
24 F4 6 -5.351
24 F4 7 -6.327
24 F4 8 -6.327
24 F4 9 -5.351
24 F4 10 -4.862
24 F4 11 -3.886
24 F4 12 -2.421
24 F4 13 -0.468
24 F4 14 0.509
24 F4 15 0.509
24 F4 16 -0.468
24 F4 17 -3.398
24 F4 18 -6.327
24 F4 19 -9.257
24 F4 20 -11.210
24 F4 21 -13.163
24 F4 22 -14.140
24 F4 23 -13.652
24 F4 24 -11.210
24 F4 25 -7.304
24 F4 26 -3.398
24 F4 27 -1.444
24 F4 28 -1.933
24 F4 29 -3.886
24 F4 30 -6.327
24 F4 31 -7.304
24 F4 32 -8.280
24 F4 33 -8.280
24 F4 34 -9.257
24 F4 35 -9.745
24 F4 36 -9.257
24 F4 37 -6.816
24 F4 38 -3.398
24 F4 39 0.997
24 F4 40 3.438
24 F4 41 3.927
24 F4 42 2.462
24 F4 43 0.509
24 F4 44 -1.444
24 F4 45 -2.421
24 F4 46 -1.933
24 F4 47 -1.444
24 F4 48 -0.956
24 F4 49 -1.933
24 F4 50 -2.909
24 F4 51 -4.374
24 F4 52 -4.862
24 F4 53 -3.886
24 F4 54 -3.398
24 F4 55 -3.398
24 F4 56 -4.862
24 F4 57 -7.304
24 F4 58 -9.257
24 F4 59 -10.722
24 F4 60 -10.722
24 F4 61 -9.745
24 F4 62 -8.769
24 F4 63 -8.769
24 F4 64 -8.769
24 F4 65 -9.257
24 F4 66 -8.769
24 F4 67 -8.280
24 F4 68 -7.792
24 F4 69 -7.792
24 F4 70 -8.280
24 F4 71 -9.745
24 F4 72 -10.722
24 F4 73 -11.210
24 F4 74 -10.722
24 F4 75 -9.745
24 F4 76 -8.769
24 F4 77 -7.304
24 F4 78 -6.327
24 F4 79 -5.351
24 F4 80 -4.374
24 F4 81 -4.374
24 F4 82 -4.862
24 F4 83 -7.304
24 F4 84 -9.745
24 F4 85 -12.187
24 F4 86 -12.675
24 F4 87 -12.187
24 F4 88 -11.210
24 F4 89 -9.257
24 F4 90 -8.769
24 F4 91 -7.792
24 F4 92 -6.327
24 F4 93 -4.374
24 F4 94 -2.909
24 F4 95 -1.933
24 F4 96 -2.421
24 F4 97 -2.909
24 F4 98 -3.398
24 F4 99 -4.862
24 F4 100 -6.816
24 F4 101 -9.257
24 F4 102 -12.187
24 F4 103 -14.140
24 F4 104 -13.163
24 F4 105 -9.257
24 F4 106 -4.374
24 F4 107 -0.468
24 F4 108 0.509
24 F4 109 -1.933
24 F4 110 -6.327
24 F4 111 -10.722
24 F4 112 -13.163
24 F4 113 -13.163
24 F4 114 -12.187
24 F4 115 -10.722
24 F4 116 -10.234
24 F4 117 -10.234
24 F4 118 -10.722
24 F4 119 -10.722
24 F4 120 -10.722
24 F4 121 -10.234
24 F4 122 -9.745
24 F4 123 -10.234
24 F4 124 -11.210
24 F4 125 -13.163
24 F4 126 -15.605
24 F4 127 -19.023
24 F4 128 -20.976
24 F4 129 -21.464
24 F4 130 -21.464
24 F4 131 -20.976
24 F4 132 -21.464
24 F4 133 -22.929
24 F4 134 -23.905
24 F4 135 -24.394
24 F4 136 -22.441
24 F4 137 -20.487
24 F4 138 -19.023
24 F4 139 -19.023
24 F4 140 -20.976
24 F4 141 -22.929
24 F4 142 -24.882
24 F4 143 -26.347
24 F4 144 -25.370
24 F4 145 -24.394
24 F4 146 -22.929
24 F4 147 -22.441
24 F4 148 -21.464
24 F4 149 -20.976
24 F4 150 -20.976
24 F4 151 -19.999
24 F4 152 -19.023
24 F4 153 -19.023
24 F4 154 -19.023
24 F4 155 -19.023
24 F4 156 -19.023
24 F4 157 -18.534
24 F4 158 -18.534
24 F4 159 -18.046
24 F4 160 -16.581
24 F4 161 -15.605
24 F4 162 -13.652
24 F4 163 -12.187
24 F4 164 -11.698
24 F4 165 -12.675
24 F4 166 -14.628
24 F4 167 -17.069
24 F4 168 -18.534
24 F4 169 -18.534
24 F4 170 -17.069
24 F4 171 -15.605
24 F4 172 -15.116
24 F4 173 -15.116
24 F4 174 -15.605
24 F4 175 -15.116
24 F4 176 -13.652
24 F4 177 -11.698
24 F4 178 -9.745
24 F4 179 -8.280
24 F4 180 -7.304
24 F4 181 -6.816
24 F4 182 -6.327
24 F4 183 -6.816
24 F4 184 -7.792
24 F4 185 -9.257
24 F4 186 -10.722
24 F4 187 -10.234
24 F4 188 -8.280
24 F4 189 -5.351
24 F4 190 -2.909
24 F4 191 -1.933
24 F4 192 -2.421
24 F4 193 -3.398
24 F4 194 -3.398
24 F4 195 -1.444
24 F4 196 0.509
24 F4 197 1.973
24 F4 198 2.462
24 F4 199 1.973
24 F4 200 1.973
24 F4 201 2.462
24 F4 202 2.950
24 F4 203 2.462
24 F4 204 1.485
24 F4 205 0.020
24 F4 206 -1.444
24 F4 207 -0.956
24 F4 208 -0.468
24 F4 209 0.509
24 F4 210 0.997
24 F4 211 0.509
24 F4 212 0.020
24 F4 213 0.020
24 F4 214 0.509
24 F4 215 0.997
24 F4 216 0.997
24 F4 217 0.020
24 F4 218 -1.444
24 F4 219 -2.421
24 F4 220 -2.909
24 F4 221 -3.398
24 F4 222 -5.351
24 F4 223 -6.816
24 F4 224 -8.280
24 F4 225 -8.280
24 F4 226 -7.304
24 F4 227 -4.374
24 F4 228 -0.956
24 F4 229 1.485
24 F4 230 2.462
24 F4 231 1.973
24 F4 232 0.997
24 F4 233 -0.468
24 F4 234 -1.933
24 F4 235 -2.421
24 F4 236 -3.398
24 F4 237 -4.374
24 F4 238 -5.351
24 F4 239 -5.351
24 F4 240 -4.862
24 F4 241 -2.909
24 F4 242 -1.444
24 F4 243 0.020
24 F4 244 0.020
24 F4 245 -0.956
24 F4 246 -2.421
24 F4 247 -3.886
24 F4 248 -5.351
24 F4 249 -6.327
24 F4 250 -6.327
24 F4 251 -6.327
24 F4 252 -5.351
24 F4 253 -3.886
24 F4 254 -2.909
24 F4 255 -2.909
# F3 chan 8
24 F3 0 1.760
24 F3 1 4.690
24 F3 2 7.131
24 F3 3 8.108
24 F3 4 8.108
24 F3 5 7.131
24 F3 6 4.201
24 F3 7 1.760
24 F3 8 -0.193
24 F3 9 -1.170
24 F3 10 -0.193
24 F3 11 1.760
24 F3 12 2.248
24 F3 13 2.248
24 F3 14 0.783
24 F3 15 -1.170
24 F3 16 -1.658
24 F3 17 -1.658
24 F3 18 -0.193
24 F3 19 -0.193
24 F3 20 -1.658
24 F3 21 -4.100
24 F3 22 -6.541
24 F3 23 -8.006
24 F3 24 -7.517
24 F3 25 -6.053
24 F3 26 -4.588
24 F3 27 -4.100
24 F3 28 -5.076
24 F3 29 -7.029
24 F3 30 -8.006
24 F3 31 -6.541
24 F3 32 -2.635
24 F3 33 1.760
24 F3 34 4.690
24 F3 35 3.713
24 F3 36 -0.682
24 F3 37 -6.541
24 F3 38 -10.935
24 F3 39 -10.935
24 F3 40 -8.006
24 F3 41 -4.100
24 F3 42 -1.658
24 F3 43 -1.658
24 F3 44 -2.635
24 F3 45 -3.611
24 F3 46 -2.146
24 F3 47 0.295
24 F3 48 1.272
24 F3 49 -1.170
24 F3 50 -6.053
24 F3 51 -11.424
24 F3 52 -13.865
24 F3 53 -12.400
24 F3 54 -9.471
24 F3 55 -6.053
24 F3 56 -5.564
24 F3 57 -7.029
24 F3 58 -9.471
24 F3 59 -11.424
24 F3 60 -12.400
24 F3 61 -12.400
24 F3 62 -11.912
24 F3 63 -11.912
24 F3 64 -12.400
24 F3 65 -13.377
24 F3 66 -14.842
24 F3 67 -16.795
24 F3 68 -17.771
24 F3 69 -17.771
24 F3 70 -17.283
24 F3 71 -15.818
24 F3 72 -14.353
24 F3 73 -12.889
24 F3 74 -12.400
24 F3 75 -11.424
24 F3 76 -10.447
24 F3 77 -10.935
24 F3 78 -11.912
24 F3 79 -14.842
24 F3 80 -17.771
24 F3 81 -19.725
24 F3 82 -19.236
24 F3 83 -17.283
24 F3 84 -14.353
24 F3 85 -11.424
24 F3 86 -8.982
24 F3 87 -6.541
24 F3 88 -5.564
24 F3 89 -5.076
24 F3 90 -7.029
24 F3 91 -9.471
24 F3 92 -10.935
24 F3 93 -9.959
24 F3 94 -5.564
24 F3 95 0.295
24 F3 96 4.690
24 F3 97 5.178
24 F3 98 2.248
24 F3 99 -1.170
24 F3 100 -1.658
24 F3 101 1.760
24 F3 102 5.666
24 F3 103 6.643
24 F3 104 3.225
24 F3 105 -3.123
24 F3 106 -8.006
24 F3 107 -9.959
24 F3 108 -8.006
24 F3 109 -5.076
24 F3 110 -4.588
24 F3 111 -6.541
24 F3 112 -10.447
24 F3 113 -12.889
24 F3 114 -12.889
24 F3 115 -10.935
24 F3 116 -9.471
24 F3 117 -10.447
24 F3 118 -12.889
24 F3 119 -15.818
24 F3 120 -17.283
24 F3 121 -17.283
24 F3 122 -17.771
24 F3 123 -19.236
24 F3 124 -22.654
24 F3 125 -26.072
24 F3 126 -27.049
24 F3 127 -25.096
24 F3 128 -21.678
24 F3 129 -19.236
24 F3 130 -20.701
24 F3 131 -25.096
24 F3 132 -29.978
24 F3 133 -33.885
24 F3 134 -34.861
24 F3 135 -32.908
24 F3 136 -29.978
24 F3 137 -28.025
24 F3 138 -27.049
24 F3 139 -26.072
24 F3 140 -24.119
24 F3 141 -21.678
24 F3 142 -21.189
24 F3 143 -22.166
24 F3 144 -23.631
24 F3 145 -23.631
24 F3 146 -20.701
24 F3 147 -15.818
24 F3 148 -10.935
24 F3 149 -9.471
24 F3 150 -11.912
24 F3 151 -15.818
24 F3 152 -19.725
24 F3 153 -21.189
24 F3 154 -20.213
24 F3 155 -19.236
24 F3 156 -18.260
24 F3 157 -18.260
24 F3 158 -18.260
24 F3 159 -17.771
24 F3 160 -17.283
24 F3 161 -17.771
24 F3 162 -18.260
24 F3 163 -18.260
24 F3 164 -17.283
24 F3 165 -13.865
24 F3 166 -10.935
24 F3 167 -9.471
24 F3 168 -10.447
24 F3 169 -12.889
24 F3 170 -13.865
24 F3 171 -12.889
24 F3 172 -9.471
24 F3 173 -5.564
24 F3 174 -4.588
24 F3 175 -6.053
24 F3 176 -8.982
24 F3 177 -10.935
24 F3 178 -9.959
24 F3 179 -6.541
24 F3 180 -3.611
24 F3 181 -3.611
24 F3 182 -5.076
24 F3 183 -8.982
24 F3 184 -12.400
24 F3 185 -14.842
24 F3 186 -16.795
24 F3 187 -16.795
24 F3 188 -15.330
24 F3 189 -12.889
24 F3 190 -9.471
24 F3 191 -6.541
24 F3 192 -6.053
24 F3 193 -7.517
24 F3 194 -8.982
24 F3 195 -9.471
24 F3 196 -7.029
24 F3 197 -4.100
24 F3 198 -3.123
24 F3 199 -5.564
24 F3 200 -10.935
24 F3 201 -16.307
24 F3 202 -18.748
24 F3 203 -17.283
24 F3 204 -13.865
24 F3 205 -10.447
24 F3 206 -9.471
24 F3 207 -10.935
24 F3 208 -12.889
24 F3 209 -13.377
24 F3 210 -12.400
24 F3 211 -11.912
24 F3 212 -13.377
24 F3 213 -18.260
24 F3 214 -23.631
24 F3 215 -27.537
24 F3 216 -28.514
24 F3 217 -26.560
24 F3 218 -22.654
24 F3 219 -20.701
24 F3 220 -21.189
24 F3 221 -23.142
24 F3 222 -25.096
24 F3 223 -25.096
24 F3 224 -23.142
24 F3 225 -20.213
24 F3 226 -17.771
24 F3 227 -16.795
24 F3 228 -17.283
24 F3 229 -18.260
24 F3 230 -18.748
24 F3 231 -19.236
24 F3 232 -19.725
24 F3 233 -19.725
24 F3 234 -20.701
24 F3 235 -21.189
24 F3 236 -23.142
24 F3 237 -25.584
24 F3 238 -29.002
24 F3 239 -30.955
24 F3 240 -30.955
24 F3 241 -28.514
24 F3 242 -24.607
24 F3 243 -23.142
24 F3 244 -23.631
24 F3 245 -26.072
24 F3 246 -27.049
24 F3 247 -25.584
24 F3 248 -21.678
24 F3 249 -19.236
24 F3 250 -18.748
24 F3 251 -21.678
24 F3 252 -25.096
24 F3 253 -26.072
24 F3 254 -25.096
24 F3 255 -23.631
# FC6 chan 9
24 FC6 0 -4.567
24 FC6 1 -5.544
24 FC6 2 -5.056
24 FC6 3 -3.591
24 FC6 4 -2.126
24 FC6 5 -1.638
24 FC6 6 -2.126
24 FC6 7 -4.079
24 FC6 8 -5.056
24 FC6 9 -6.032
24 FC6 10 -5.544
24 FC6 11 -3.591
24 FC6 12 -1.638
24 FC6 13 0.315
24 FC6 14 1.292
24 FC6 15 1.292
24 FC6 16 0.315
24 FC6 17 -1.149
24 FC6 18 -3.591
24 FC6 19 -6.032
24 FC6 20 -8.474
24 FC6 21 -9.939
24 FC6 22 -11.403
24 FC6 23 -11.403
24 FC6 24 -10.915
24 FC6 25 -8.962
24 FC6 26 -7.009
24 FC6 27 -5.056
24 FC6 28 -4.079
24 FC6 29 -3.591
24 FC6 30 -4.079
24 FC6 31 -5.544
24 FC6 32 -7.009
24 FC6 33 -7.985
24 FC6 34 -8.474
24 FC6 35 -7.985
24 FC6 36 -7.009
24 FC6 37 -6.032
24 FC6 38 -4.079
24 FC6 39 -2.126
24 FC6 40 -1.149
24 FC6 41 -1.149
24 FC6 42 -2.614
24 FC6 43 -4.079
24 FC6 44 -5.544
24 FC6 45 -6.521
24 FC6 46 -6.521
24 FC6 47 -6.521
24 FC6 48 -6.521
24 FC6 49 -7.009
24 FC6 50 -7.497
24 FC6 51 -7.985
24 FC6 52 -8.474
24 FC6 53 -7.497
24 FC6 54 -7.009
24 FC6 55 -6.032
24 FC6 56 -6.032
24 FC6 57 -6.032
24 FC6 58 -7.009
24 FC6 59 -7.497
24 FC6 60 -7.985
24 FC6 61 -8.474
24 FC6 62 -8.962
24 FC6 63 -9.939
24 FC6 64 -10.915
24 FC6 65 -10.915
24 FC6 66 -9.939
24 FC6 67 -8.474
24 FC6 68 -7.009
24 FC6 69 -6.521
24 FC6 70 -7.497
24 FC6 71 -8.962
24 FC6 72 -9.939
24 FC6 73 -10.915
24 FC6 74 -10.915
24 FC6 75 -9.939
24 FC6 76 -8.474
24 FC6 77 -7.009
24 FC6 78 -5.056
24 FC6 79 -3.591
24 FC6 80 -2.126
24 FC6 81 -1.638
24 FC6 82 -2.126
24 FC6 83 -3.591
24 FC6 84 -6.032
24 FC6 85 -7.985
24 FC6 86 -8.962
24 FC6 87 -8.962
24 FC6 88 -9.450
24 FC6 89 -9.939
24 FC6 90 -10.427
24 FC6 91 -9.939
24 FC6 92 -8.962
24 FC6 93 -7.009
24 FC6 94 -4.567
24 FC6 95 -2.614
24 FC6 96 -1.638
24 FC6 97 -2.126
24 FC6 98 -3.103
24 FC6 99 -5.056
24 FC6 100 -7.009
24 FC6 101 -8.962
24 FC6 102 -10.915
24 FC6 103 -11.403
24 FC6 104 -9.939
24 FC6 105 -7.009
24 FC6 106 -4.079
24 FC6 107 -1.149
24 FC6 108 -0.661
24 FC6 109 -1.638
24 FC6 110 -4.567
24 FC6 111 -7.497
24 FC6 112 -9.939
24 FC6 113 -10.427
24 FC6 114 -8.962
24 FC6 115 -7.009
24 FC6 116 -5.056
24 FC6 117 -5.056
24 FC6 118 -6.032
24 FC6 119 -7.497
24 FC6 120 -8.962
24 FC6 121 -8.962
24 FC6 122 -8.474
24 FC6 123 -7.985
24 FC6 124 -7.985
24 FC6 125 -8.962
24 FC6 126 -10.427
24 FC6 127 -11.892
24 FC6 128 -13.845
24 FC6 129 -15.310
24 FC6 130 -17.751
24 FC6 131 -20.681
24 FC6 132 -22.146
24 FC6 133 -22.146
24 FC6 134 -20.681
24 FC6 135 -17.751
24 FC6 136 -14.821
24 FC6 137 -12.868
24 FC6 138 -12.868
24 FC6 139 -13.845
24 FC6 140 -14.333
24 FC6 141 -15.310
24 FC6 142 -16.286
24 FC6 143 -17.751
24 FC6 144 -18.728
24 FC6 145 -19.216
24 FC6 146 -18.239
24 FC6 147 -16.286
24 FC6 148 -14.333
24 FC6 149 -13.845
24 FC6 150 -14.333
24 FC6 151 -15.310
24 FC6 152 -15.310
24 FC6 153 -14.821
24 FC6 154 -12.868
24 FC6 155 -11.403
24 FC6 156 -10.915
24 FC6 157 -10.915
24 FC6 158 -11.892
24 FC6 159 -12.380
24 FC6 160 -12.380
24 FC6 161 -11.892
24 FC6 162 -9.939
24 FC6 163 -8.474
24 FC6 164 -7.497
24 FC6 165 -8.474
24 FC6 166 -9.939
24 FC6 167 -11.892
24 FC6 168 -12.868
24 FC6 169 -12.380
24 FC6 170 -11.892
24 FC6 171 -10.915
24 FC6 172 -10.915
24 FC6 173 -11.403
24 FC6 174 -10.915
24 FC6 175 -9.450
24 FC6 176 -7.497
24 FC6 177 -5.544
24 FC6 178 -3.103
24 FC6 179 -2.126
24 FC6 180 -1.638
24 FC6 181 -1.149
24 FC6 182 -1.149
24 FC6 183 -1.149
24 FC6 184 -1.638
24 FC6 185 -2.126
24 FC6 186 -2.614
24 FC6 187 -2.614
24 FC6 188 -1.149
24 FC6 189 -0.173
24 FC6 190 0.804
24 FC6 191 1.292
24 FC6 192 1.292
24 FC6 193 1.780
24 FC6 194 2.268
24 FC6 195 3.245
24 FC6 196 3.733
24 FC6 197 3.733
24 FC6 198 3.733
24 FC6 199 3.733
24 FC6 200 4.222
24 FC6 201 5.198
24 FC6 202 5.686
24 FC6 203 5.686
24 FC6 204 4.710
24 FC6 205 3.245
24 FC6 206 1.780
24 FC6 207 0.804
24 FC6 208 -0.173
24 FC6 209 -0.173
24 FC6 210 -0.661
24 FC6 211 -0.661
24 FC6 212 0.315
24 FC6 213 1.780
24 FC6 214 3.245
24 FC6 215 4.222
24 FC6 216 3.245
24 FC6 217 1.292
24 FC6 218 -1.149
24 FC6 219 -2.614
24 FC6 220 -2.614
24 FC6 221 -1.638
24 FC6 222 -1.638
24 FC6 223 -3.103
24 FC6 224 -4.567
24 FC6 225 -5.544
24 FC6 226 -4.567
24 FC6 227 -2.614
24 FC6 228 -0.173
24 FC6 229 1.292
24 FC6 230 0.804
24 FC6 231 0.315
24 FC6 232 -1.149
24 FC6 233 -1.638
24 FC6 234 -2.126
24 FC6 235 -3.103
24 FC6 236 -4.567
24 FC6 237 -7.009
24 FC6 238 -8.474
24 FC6 239 -8.474
24 FC6 240 -7.497
24 FC6 241 -6.032
24 FC6 242 -4.079
24 FC6 243 -3.591
24 FC6 244 -3.591
24 FC6 245 -3.591
24 FC6 246 -3.591
24 FC6 247 -3.591
24 FC6 248 -3.591
24 FC6 249 -3.591
24 FC6 250 -4.079
24 FC6 251 -4.079
24 FC6 252 -3.103
24 FC6 253 -3.103
24 FC6 254 -4.079
24 FC6 255 -5.544
# FC5 chan 10
24 FC5 0 -6.236
24 FC5 1 -3.306
24 FC5 2 0.112
24 FC5 3 0.600
24 FC5 4 -1.841
24 FC5 5 -7.701
24 FC5 6 -13.560
24 FC5 7 -17.955
24 FC5 8 -17.955
24 FC5 9 -15.025
24 FC5 10 -11.119
24 FC5 11 -8.677
24 FC5 12 -8.677
24 FC5 13 -10.142
24 FC5 14 -11.607
24 FC5 15 -11.607
24 FC5 16 -10.630
24 FC5 17 -9.654
24 FC5 18 -10.142
24 FC5 19 -12.583
24 FC5 20 -14.537
24 FC5 21 -15.025
24 FC5 22 -13.560
24 FC5 23 -10.630
24 FC5 24 -8.677
24 FC5 25 -7.212
24 FC5 26 -7.701
24 FC5 27 -8.677
24 FC5 28 -10.142
24 FC5 29 -11.607
24 FC5 30 -11.607
24 FC5 31 -10.630
24 FC5 32 -8.677
24 FC5 33 -3.794
24 FC5 34 1.088
24 FC5 35 4.506
24 FC5 36 4.018
24 FC5 37 -0.376
24 FC5 38 -6.724
24 FC5 39 -11.607
24 FC5 40 -12.095
24 FC5 41 -9.165
24 FC5 42 -5.259
24 FC5 43 -2.818
24 FC5 44 -3.306
24 FC5 45 -4.283
24 FC5 46 -3.794
24 FC5 47 -1.841
24 FC5 48 0.600
24 FC5 49 0.600
24 FC5 50 -3.306
24 FC5 51 -7.701
24 FC5 52 -10.630
24 FC5 53 -9.654
24 FC5 54 -6.236
24 FC5 55 -3.794
24 FC5 56 -3.794
24 FC5 57 -5.259
24 FC5 58 -7.701
24 FC5 59 -8.189
24 FC5 60 -6.724
24 FC5 61 -4.771
24 FC5 62 -2.330
24 FC5 63 -1.353
24 FC5 64 -0.865
24 FC5 65 -2.330
24 FC5 66 -4.283
24 FC5 67 -7.212
24 FC5 68 -10.630
24 FC5 69 -13.072
24 FC5 70 -13.072
24 FC5 71 -11.119
24 FC5 72 -7.701
24 FC5 73 -4.283
24 FC5 74 -2.818
24 FC5 75 -2.330
24 FC5 76 -3.306
24 FC5 77 -5.259
24 FC5 78 -7.212
24 FC5 79 -8.189
24 FC5 80 -7.701
24 FC5 81 -5.747
24 FC5 82 -2.818
24 FC5 83 -0.376
24 FC5 84 0.600
24 FC5 85 1.088
24 FC5 86 1.577
24 FC5 87 2.065
24 FC5 88 3.042
24 FC5 89 3.042
24 FC5 90 1.088
24 FC5 91 -1.841
24 FC5 92 -3.794
24 FC5 93 -4.283
24 FC5 94 -3.306
24 FC5 95 -1.841
24 FC5 96 -1.353
24 FC5 97 -3.306
24 FC5 98 -5.259
24 FC5 99 -5.259
24 FC5 100 -2.818
24 FC5 101 1.577
24 FC5 102 4.995
24 FC5 103 4.995
24 FC5 104 2.065
24 FC5 105 -1.841
24 FC5 106 -5.747
24 FC5 107 -7.701
24 FC5 108 -8.189
24 FC5 109 -7.701
24 FC5 110 -6.236
24 FC5 111 -4.283
24 FC5 112 -2.818
24 FC5 113 -2.330
24 FC5 114 -2.818
24 FC5 115 -4.771
24 FC5 116 -7.701
24 FC5 117 -10.142
24 FC5 118 -10.630
24 FC5 119 -10.630
24 FC5 120 -9.654
24 FC5 121 -9.654
24 FC5 122 -10.630
24 FC5 123 -12.583
24 FC5 124 -14.048
24 FC5 125 -15.025
24 FC5 126 -14.048
24 FC5 127 -12.095
24 FC5 128 -9.654
24 FC5 129 -7.212
24 FC5 130 -6.236
24 FC5 131 -7.701
24 FC5 132 -10.142
24 FC5 133 -13.072
24 FC5 134 -15.513
24 FC5 135 -15.513
24 FC5 136 -13.560
24 FC5 137 -11.607
24 FC5 138 -9.654
24 FC5 139 -7.701
24 FC5 140 -5.259
24 FC5 141 -2.818
24 FC5 142 -0.376
24 FC5 143 0.600
24 FC5 144 1.088
24 FC5 145 1.088
24 FC5 146 0.600
24 FC5 147 0.600
24 FC5 148 2.065
24 FC5 149 3.042
24 FC5 150 3.042
24 FC5 151 2.553
24 FC5 152 1.088
24 FC5 153 -0.865
24 FC5 154 -1.353
24 FC5 155 -1.353
24 FC5 156 0.112
24 FC5 157 2.065
24 FC5 158 4.018
24 FC5 159 4.506
24 FC5 160 4.506
24 FC5 161 3.530
24 FC5 162 1.577
24 FC5 163 -0.376
24 FC5 164 -2.818
24 FC5 165 -4.283
24 FC5 166 -4.771
24 FC5 167 -3.794
24 FC5 168 -2.330
24 FC5 169 -0.865
24 FC5 170 0.600
24 FC5 171 0.600
24 FC5 172 0.600
24 FC5 173 0.600
24 FC5 174 1.088
24 FC5 175 2.065
24 FC5 176 2.553
24 FC5 177 2.553
24 FC5 178 2.553
24 FC5 179 2.553
24 FC5 180 2.553
24 FC5 181 3.042
24 FC5 182 3.042
24 FC5 183 2.065
24 FC5 184 1.577
24 FC5 185 1.577
24 FC5 186 3.042
24 FC5 187 5.483
24 FC5 188 8.413
24 FC5 189 10.366
24 FC5 190 10.366
24 FC5 191 9.878
24 FC5 192 7.924
24 FC5 193 6.460
24 FC5 194 5.971
24 FC5 195 5.971
24 FC5 196 6.460
24 FC5 197 6.460
24 FC5 198 5.483
24 FC5 199 4.018
24 FC5 200 2.065
24 FC5 201 0.112
24 FC5 202 -0.865
24 FC5 203 -0.376
24 FC5 204 1.088
24 FC5 205 2.553
24 FC5 206 2.553
24 FC5 207 0.112
24 FC5 208 -2.818
24 FC5 209 -4.771
24 FC5 210 -4.283
24 FC5 211 -2.330
24 FC5 212 -0.376
24 FC5 213 -0.376
24 FC5 214 -1.841
24 FC5 215 -3.306
24 FC5 216 -2.818
24 FC5 217 -1.353
24 FC5 218 0.112
24 FC5 219 1.577
24 FC5 220 1.577
24 FC5 221 1.577
24 FC5 222 1.088
24 FC5 223 2.065
24 FC5 224 3.042
24 FC5 225 4.018
24 FC5 226 4.018
24 FC5 227 4.506
24 FC5 228 4.506
24 FC5 229 5.483
24 FC5 230 5.483
24 FC5 231 4.506
24 FC5 232 2.553
24 FC5 233 0.112
24 FC5 234 -1.841
24 FC5 235 -2.818
24 FC5 236 -2.330
24 FC5 237 -1.353
24 FC5 238 0.112
24 FC5 239 0.600
24 FC5 240 1.088
24 FC5 241 1.577
24 FC5 242 1.577
24 FC5 243 1.088
24 FC5 244 0.600
24 FC5 245 0.112
24 FC5 246 0.600
24 FC5 247 2.553
24 FC5 248 4.995
24 FC5 249 5.971
24 FC5 250 5.483
24 FC5 251 4.018
24 FC5 252 3.042
24 FC5 253 2.553
24 FC5 254 3.042
24 FC5 255 4.018
# FC2 chan 11
24 FC2 0 -1.180
24 FC2 1 -1.180
24 FC2 2 -0.692
24 FC2 3 -0.203
24 FC2 4 0.285
24 FC2 5 0.285
24 FC2 6 0.285
24 FC2 7 0.285
24 FC2 8 0.773
24 FC2 9 0.773
24 FC2 10 0.773
24 FC2 11 1.261
24 FC2 12 2.238
24 FC2 13 3.215
24 FC2 14 3.703
24 FC2 15 4.191
24 FC2 16 3.703
24 FC2 17 3.215
24 FC2 18 1.750
24 FC2 19 0.773
24 FC2 20 -0.692
24 FC2 21 -2.157
24 FC2 22 -3.621
24 FC2 23 -4.110
24 FC2 24 -3.621
24 FC2 25 -2.645
24 FC2 26 -1.668
24 FC2 27 -0.692
24 FC2 28 -0.203
24 FC2 29 -0.692
24 FC2 30 -0.692
24 FC2 31 -0.692
24 FC2 32 -1.180
24 FC2 33 -2.157
24 FC2 34 -3.621
24 FC2 35 -4.598
24 FC2 36 -4.598
24 FC2 37 -3.621
24 FC2 38 -1.668
24 FC2 39 0.773
24 FC2 40 2.238
24 FC2 41 2.726
24 FC2 42 2.238
24 FC2 43 1.750
24 FC2 44 1.261
24 FC2 45 1.261
24 FC2 46 0.773
24 FC2 47 0.773
24 FC2 48 0.285
24 FC2 49 -0.203
24 FC2 50 -1.180
24 FC2 51 -1.668
24 FC2 52 -2.157
24 FC2 53 -1.668
24 FC2 54 -1.180
24 FC2 55 -1.668
24 FC2 56 -2.645
24 FC2 57 -3.621
24 FC2 58 -4.598
24 FC2 59 -5.575
24 FC2 60 -5.575
24 FC2 61 -5.086
24 FC2 62 -4.598
24 FC2 63 -4.598
24 FC2 64 -5.086
24 FC2 65 -5.575
24 FC2 66 -6.063
24 FC2 67 -5.575
24 FC2 68 -5.086
24 FC2 69 -4.110
24 FC2 70 -4.110
24 FC2 71 -4.598
24 FC2 72 -4.598
24 FC2 73 -4.598
24 FC2 74 -4.598
24 FC2 75 -4.598
24 FC2 76 -4.110
24 FC2 77 -3.621
24 FC2 78 -3.621
24 FC2 79 -3.621
24 FC2 80 -3.621
24 FC2 81 -4.110
24 FC2 82 -4.598
24 FC2 83 -5.575
24 FC2 84 -6.551
24 FC2 85 -7.528
24 FC2 86 -8.016
24 FC2 87 -8.016
24 FC2 88 -8.016
24 FC2 89 -8.016
24 FC2 90 -7.528
24 FC2 91 -6.551
24 FC2 92 -5.575
24 FC2 93 -4.110
24 FC2 94 -3.133
24 FC2 95 -2.645
24 FC2 96 -2.645
24 FC2 97 -2.645
24 FC2 98 -3.133
24 FC2 99 -3.621
24 FC2 100 -4.110
24 FC2 101 -5.086
24 FC2 102 -6.063
24 FC2 103 -6.551
24 FC2 104 -5.575
24 FC2 105 -3.133
24 FC2 106 -0.692
24 FC2 107 1.261
24 FC2 108 2.238
24 FC2 109 1.261
24 FC2 110 -0.692
24 FC2 111 -2.645
24 FC2 112 -4.110
24 FC2 113 -4.598
24 FC2 114 -4.110
24 FC2 115 -3.133
24 FC2 116 -2.645
24 FC2 117 -2.157
24 FC2 118 -2.645
24 FC2 119 -2.645
24 FC2 120 -2.645
24 FC2 121 -1.668
24 FC2 122 -0.692
24 FC2 123 -0.692
24 FC2 124 -1.180
24 FC2 125 -2.645
24 FC2 126 -5.086
24 FC2 127 -6.551
24 FC2 128 -7.528
24 FC2 129 -8.504
24 FC2 130 -8.504
24 FC2 131 -8.993
24 FC2 132 -9.481
24 FC2 133 -9.969
24 FC2 134 -8.993
24 FC2 135 -8.016
24 FC2 136 -6.551
24 FC2 137 -5.086
24 FC2 138 -4.110
24 FC2 139 -4.110
24 FC2 140 -4.598
24 FC2 141 -5.575
24 FC2 142 -7.528
24 FC2 143 -8.504
24 FC2 144 -8.993
24 FC2 145 -8.993
24 FC2 146 -8.504
24 FC2 147 -7.528
24 FC2 148 -6.551
24 FC2 149 -5.575
24 FC2 150 -4.598
24 FC2 151 -3.621
24 FC2 152 -2.157
24 FC2 153 -1.180
24 FC2 154 -0.203
24 FC2 155 -0.203
24 FC2 156 -0.203
24 FC2 157 -0.692
24 FC2 158 -1.668
24 FC2 159 -2.157
24 FC2 160 -2.157
24 FC2 161 -1.180
24 FC2 162 0.285
24 FC2 163 1.750
24 FC2 164 1.750
24 FC2 165 0.285
24 FC2 166 -1.668
24 FC2 167 -3.621
24 FC2 168 -4.110
24 FC2 169 -3.621
24 FC2 170 -3.133
24 FC2 171 -2.645
24 FC2 172 -2.645
24 FC2 173 -2.645
24 FC2 174 -2.157
24 FC2 175 -1.180
24 FC2 176 -0.203
24 FC2 177 0.773
24 FC2 178 1.261
24 FC2 179 1.750
24 FC2 180 2.238
24 FC2 181 3.215
24 FC2 182 4.191
24 FC2 183 4.679
24 FC2 184 3.703
24 FC2 185 3.215
24 FC2 186 2.238
24 FC2 187 2.238
24 FC2 188 3.703
24 FC2 189 5.168
24 FC2 190 6.632
24 FC2 191 7.121
24 FC2 192 7.121
24 FC2 193 6.144
24 FC2 194 6.632
24 FC2 195 7.609
24 FC2 196 8.586
24 FC2 197 9.074
24 FC2 198 8.586
24 FC2 199 7.609
24 FC2 200 7.121
24 FC2 201 7.609
24 FC2 202 8.586
24 FC2 203 9.074
24 FC2 204 9.074
24 FC2 205 8.586
24 FC2 206 7.609
24 FC2 207 7.121
24 FC2 208 8.097
24 FC2 209 9.074
24 FC2 210 10.050
24 FC2 211 10.539
24 FC2 212 9.562
24 FC2 213 9.074
24 FC2 214 8.586
24 FC2 215 9.074
24 FC2 216 10.050
24 FC2 217 11.027
24 FC2 218 10.539
24 FC2 219 9.074
24 FC2 220 7.609
24 FC2 221 6.632
24 FC2 222 6.144
24 FC2 223 7.121
24 FC2 224 7.609
24 FC2 225 8.097
24 FC2 226 8.097
24 FC2 227 8.097
24 FC2 228 8.586
24 FC2 229 9.074
24 FC2 230 9.562
24 FC2 231 10.050
24 FC2 232 9.074
24 FC2 233 7.609
24 FC2 234 6.144
24 FC2 235 5.168
24 FC2 236 4.679
24 FC2 237 4.191
24 FC2 238 3.703
24 FC2 239 3.703
24 FC2 240 4.191
24 FC2 241 5.168
24 FC2 242 5.656
24 FC2 243 5.656
24 FC2 244 5.656
24 FC2 245 4.191
24 FC2 246 3.703
24 FC2 247 3.215
24 FC2 248 3.215
24 FC2 249 3.215
24 FC2 250 3.215
24 FC2 251 3.703
24 FC2 252 4.679
24 FC2 253 6.144
24 FC2 254 7.121
24 FC2 255 7.121
# FC1 chan 12
24 FC1 0 3.469
24 FC1 1 4.445
24 FC1 2 4.934
24 FC1 3 4.445
24 FC1 4 2.981
24 FC1 5 0.539
24 FC1 6 -0.926
24 FC1 7 -1.414
24 FC1 8 -0.926
24 FC1 9 0.051
24 FC1 10 1.027
24 FC1 11 1.516
24 FC1 12 1.027
24 FC1 13 0.539
24 FC1 14 0.051
24 FC1 15 -0.926
24 FC1 16 -1.414
24 FC1 17 -1.902
24 FC1 18 -1.902
24 FC1 19 -1.902
24 FC1 20 -1.414
24 FC1 21 -1.414
24 FC1 22 -1.902
24 FC1 23 -1.902
24 FC1 24 -1.902
24 FC1 25 -1.902
24 FC1 26 -1.414
24 FC1 27 -1.414
24 FC1 28 -1.414
24 FC1 29 -0.926
24 FC1 30 -0.437
24 FC1 31 1.027
24 FC1 32 2.492
24 FC1 33 3.957
24 FC1 34 4.934
24 FC1 35 4.445
24 FC1 36 3.469
24 FC1 37 1.516
24 FC1 38 0.539
24 FC1 39 -0.437
24 FC1 40 0.051
24 FC1 41 1.027
24 FC1 42 2.004
24 FC1 43 2.492
24 FC1 44 2.004
24 FC1 45 1.516
24 FC1 46 2.004
24 FC1 47 2.492
24 FC1 48 2.492
24 FC1 49 1.516
24 FC1 50 -0.437
24 FC1 51 -2.391
24 FC1 52 -2.879
24 FC1 53 -2.879
24 FC1 54 -1.902
24 FC1 55 -0.926
24 FC1 56 -1.414
24 FC1 57 -2.391
24 FC1 58 -3.367
24 FC1 59 -3.855
24 FC1 60 -3.367
24 FC1 61 -2.391
24 FC1 62 -1.902
24 FC1 63 -1.902
24 FC1 64 -1.414
24 FC1 65 -1.414
24 FC1 66 -0.926
24 FC1 67 -0.437
24 FC1 68 -0.926
24 FC1 69 -1.902
24 FC1 70 -2.879
24 FC1 71 -3.855
24 FC1 72 -4.344
24 FC1 73 -3.855
24 FC1 74 -2.879
24 FC1 75 -1.902
24 FC1 76 -0.926
24 FC1 77 -1.414
24 FC1 78 -2.391
24 FC1 79 -3.855
24 FC1 80 -5.320
24 FC1 81 -5.809
24 FC1 82 -5.809
24 FC1 83 -5.320
24 FC1 84 -5.320
24 FC1 85 -4.344
24 FC1 86 -4.344
24 FC1 87 -3.855
24 FC1 88 -4.344
24 FC1 89 -4.344
24 FC1 90 -4.832
24 FC1 91 -5.809
24 FC1 92 -6.785
24 FC1 93 -6.785
24 FC1 94 -6.785
24 FC1 95 -6.785
24 FC1 96 -6.785
24 FC1 97 -6.785
24 FC1 98 -6.785
24 FC1 99 -6.785
24 FC1 100 -6.785
24 FC1 101 -5.809
24 FC1 102 -4.832
24 FC1 103 -4.344
24 FC1 104 -3.855
24 FC1 105 -3.855
24 FC1 106 -3.855
24 FC1 107 -4.344
24 FC1 108 -4.344
24 FC1 109 -3.855
24 FC1 110 -2.879
24 FC1 111 -2.879
24 FC1 112 -3.367
24 FC1 113 -4.832
24 FC1 114 -6.297
24 FC1 115 -7.273
24 FC1 116 -7.762
24 FC1 117 -7.273
24 FC1 118 -6.297
24 FC1 119 -5.809
24 FC1 120 -5.320
24 FC1 121 -5.809
24 FC1 122 -6.297
24 FC1 123 -6.785
24 FC1 124 -6.785
24 FC1 125 -7.273
24 FC1 126 -8.250
24 FC1 127 -9.715
24 FC1 128 -10.203
24 FC1 129 -10.691
24 FC1 130 -10.203
24 FC1 131 -10.691
24 FC1 132 -11.180
24 FC1 133 -12.156
24 FC1 134 -12.644
24 FC1 135 -12.156
24 FC1 136 -11.180
24 FC1 137 -9.715
24 FC1 138 -8.250
24 FC1 139 -7.762
24 FC1 140 -7.762
24 FC1 141 -7.273
24 FC1 142 -7.273
24 FC1 143 -7.273
24 FC1 144 -7.273
24 FC1 145 -7.762
24 FC1 146 -7.762
24 FC1 147 -7.273
24 FC1 148 -6.785
24 FC1 149 -6.785
24 FC1 150 -6.297
24 FC1 151 -6.297
24 FC1 152 -6.297
24 FC1 153 -6.297
24 FC1 154 -6.297
24 FC1 155 -6.297
24 FC1 156 -5.809
24 FC1 157 -4.832
24 FC1 158 -3.367
24 FC1 159 -2.391
24 FC1 160 -1.902
24 FC1 161 -1.902
24 FC1 162 -2.391
24 FC1 163 -2.879
24 FC1 164 -2.879
24 FC1 165 -2.391
24 FC1 166 -1.902
24 FC1 167 -1.414
24 FC1 168 -1.902
24 FC1 169 -1.902
24 FC1 170 -1.902
24 FC1 171 -1.414
24 FC1 172 0.051
24 FC1 173 1.516
24 FC1 174 2.004
24 FC1 175 2.004
24 FC1 176 1.516
24 FC1 177 1.027
24 FC1 178 1.516
24 FC1 179 2.492
24 FC1 180 3.469
24 FC1 181 4.445
24 FC1 182 4.445
24 FC1 183 3.469
24 FC1 184 2.981
24 FC1 185 2.004
24 FC1 186 2.004
24 FC1 187 2.492
24 FC1 188 2.981
24 FC1 189 3.469
24 FC1 190 3.469
24 FC1 191 3.469
24 FC1 192 2.981
24 FC1 193 2.492
24 FC1 194 2.492
24 FC1 195 2.981
24 FC1 196 3.957
24 FC1 197 4.934
24 FC1 198 5.422
24 FC1 199 4.934
24 FC1 200 3.469
24 FC1 201 1.516
24 FC1 202 0.051
24 FC1 203 -0.437
24 FC1 204 -0.437
24 FC1 205 0.051
24 FC1 206 0.539
24 FC1 207 1.027
24 FC1 208 1.027
24 FC1 209 2.004
24 FC1 210 3.469
24 FC1 211 4.445
24 FC1 212 4.445
24 FC1 213 3.469
24 FC1 214 2.492
24 FC1 215 1.516
24 FC1 216 1.516
24 FC1 217 2.492
24 FC1 218 3.469
24 FC1 219 3.469
24 FC1 220 2.981
24 FC1 221 1.516
24 FC1 222 1.516
24 FC1 223 2.004
24 FC1 224 3.469
24 FC1 225 4.934
24 FC1 226 4.934
24 FC1 227 4.445
24 FC1 228 3.957
24 FC1 229 4.445
24 FC1 230 4.934
24 FC1 231 5.910
24 FC1 232 5.910
24 FC1 233 4.934
24 FC1 234 2.981
24 FC1 235 2.004
24 FC1 236 1.027
24 FC1 237 1.027
24 FC1 238 1.027
24 FC1 239 1.516
24 FC1 240 2.492
24 FC1 241 3.469
24 FC1 242 4.445
24 FC1 243 4.934
24 FC1 244 4.445
24 FC1 245 3.957
24 FC1 246 3.957
24 FC1 247 4.445
24 FC1 248 4.445
24 FC1 249 3.957
24 FC1 250 2.492
24 FC1 251 1.516
24 FC1 252 1.516
24 FC1 253 2.492
24 FC1 254 4.445
24 FC1 255 5.910
# T8 chan 13
24 T8 0 0.183
24 T8 1 0.183
24 T8 2 1.160
24 T8 3 1.160
24 T8 4 0.671
24 T8 5 -1.282
24 T8 6 -4.700
24 T8 7 -8.118
24 T8 8 -10.071
24 T8 9 -10.559
24 T8 10 -9.094
24 T8 11 -5.676
24 T8 12 -2.258
24 T8 13 0.671
24 T8 14 2.625
24 T8 15 3.601
24 T8 16 4.089
24 T8 17 3.601
24 T8 18 0.671
24 T8 19 -3.723
24 T8 20 -8.606
24 T8 21 -12.024
24 T8 22 -13.489
24 T8 23 -13.000
24 T8 24 -11.047
24 T8 25 -8.606
24 T8 26 -6.653
24 T8 27 -4.211
24 T8 28 -1.770
24 T8 29 0.183
24 T8 30 -0.305
24 T8 31 -1.770
24 T8 32 -4.211
24 T8 33 -5.676
24 T8 34 -4.700
24 T8 35 -1.770
24 T8 36 0.671
24 T8 37 2.136
24 T8 38 2.136
24 T8 39 1.160
24 T8 40 -1.282
24 T8 41 -3.235
24 T8 42 -4.700
24 T8 43 -6.165
24 T8 44 -7.141
24 T8 45 -7.629
24 T8 46 -8.118
24 T8 47 -9.094
24 T8 48 -9.583
24 T8 49 -10.071
24 T8 50 -9.583
24 T8 51 -9.094
24 T8 52 -8.606
24 T8 53 -8.606
24 T8 54 -9.094
24 T8 55 -8.118
24 T8 56 -6.653
24 T8 57 -4.700
24 T8 58 -3.723
24 T8 59 -4.211
24 T8 60 -6.653
24 T8 61 -10.071
24 T8 62 -13.000
24 T8 63 -13.489
24 T8 64 -12.024
24 T8 65 -8.606
24 T8 66 -5.676
24 T8 67 -3.235
24 T8 68 -2.747
24 T8 69 -3.235
24 T8 70 -3.235
24 T8 71 -4.211
24 T8 72 -5.188
24 T8 73 -7.629
24 T8 74 -10.071
24 T8 75 -11.536
24 T8 76 -10.559
24 T8 77 -7.629
24 T8 78 -3.235
24 T8 79 0.183
24 T8 80 1.648
24 T8 81 1.648
24 T8 82 0.183
24 T8 83 -0.793
24 T8 84 -0.793
24 T8 85 -0.305
24 T8 86 0.183
24 T8 87 -0.305
24 T8 88 -2.258
24 T8 89 -4.211
24 T8 90 -6.165
24 T8 91 -6.653
24 T8 92 -6.165
24 T8 93 -4.700
24 T8 94 -3.723
24 T8 95 -3.235
24 T8 96 -3.723
24 T8 97 -4.211
24 T8 98 -5.188
24 T8 99 -6.165
24 T8 100 -7.141
24 T8 101 -8.118
24 T8 102 -8.606
24 T8 103 -8.118
24 T8 104 -7.629
24 T8 105 -6.653
24 T8 106 -6.165
24 T8 107 -5.676
24 T8 108 -5.188
24 T8 109 -5.676
24 T8 110 -7.629
24 T8 111 -10.559
24 T8 112 -13.977
24 T8 113 -15.442
24 T8 114 -13.977
24 T8 115 -10.071
24 T8 116 -6.165
24 T8 117 -4.211
24 T8 118 -5.676
24 T8 119 -9.583
24 T8 120 -13.000
24 T8 121 -15.442
24 T8 122 -14.954
24 T8 123 -13.977
24 T8 124 -13.489
24 T8 125 -14.465
24 T8 126 -15.930
24 T8 127 -17.883
24 T8 128 -19.348
24 T8 129 -20.813
24 T8 130 -22.766
24 T8 131 -25.696
24 T8 132 -28.137
24 T8 133 -27.649
24 T8 134 -25.696
24 T8 135 -22.766
24 T8 136 -20.813
24 T8 137 -20.813
24 T8 138 -21.790
24 T8 139 -21.790
24 T8 140 -20.813
24 T8 141 -18.860
24 T8 142 -18.860
24 T8 143 -20.325
24 T8 144 -22.766
24 T8 145 -23.743
24 T8 146 -21.301
24 T8 147 -17.883
24 T8 148 -14.465
24 T8 149 -13.489
24 T8 150 -15.930
24 T8 151 -18.372
24 T8 152 -19.836
24 T8 153 -18.860
24 T8 154 -17.395
24 T8 155 -14.954
24 T8 156 -14.465
24 T8 157 -14.954
24 T8 158 -15.930
24 T8 159 -17.395
24 T8 160 -18.372
24 T8 161 -18.372
24 T8 162 -16.418
24 T8 163 -14.465
24 T8 164 -12.512
24 T8 165 -11.536
24 T8 166 -13.000
24 T8 167 -14.954
24 T8 168 -15.930
24 T8 169 -16.418
24 T8 170 -16.907
24 T8 171 -16.907
24 T8 172 -17.883
24 T8 173 -18.372
24 T8 174 -17.883
24 T8 175 -15.442
24 T8 176 -11.536
24 T8 177 -8.118
24 T8 178 -6.165
24 T8 179 -4.700
24 T8 180 -4.700
24 T8 181 -4.700
24 T8 182 -4.700
24 T8 183 -5.188
24 T8 184 -6.165
24 T8 185 -7.141
24 T8 186 -6.653
24 T8 187 -5.188
24 T8 188 -3.723
24 T8 189 -2.258
24 T8 190 -2.258
24 T8 191 -1.770
24 T8 192 -1.282
24 T8 193 -0.305
24 T8 194 1.160
24 T8 195 2.136
24 T8 196 1.648
24 T8 197 0.671
24 T8 198 -0.305
24 T8 199 -0.305
24 T8 200 0.183
24 T8 201 1.160
24 T8 202 1.648
24 T8 203 1.648
24 T8 204 1.160
24 T8 205 0.183
24 T8 206 -1.282
24 T8 207 -3.235
24 T8 208 -4.700
24 T8 209 -5.676
24 T8 210 -6.165
24 T8 211 -5.676
24 T8 212 -3.723
24 T8 213 -1.282
24 T8 214 1.160
24 T8 215 2.136
24 T8 216 1.160
24 T8 217 -1.770
24 T8 218 -4.211
24 T8 219 -6.165
24 T8 220 -6.165
24 T8 221 -6.165
24 T8 222 -7.629
24 T8 223 -10.071
24 T8 224 -11.536
24 T8 225 -11.047
24 T8 226 -8.606
24 T8 227 -4.700
24 T8 228 -1.770
24 T8 229 -1.770
24 T8 230 -3.723
24 T8 231 -6.165
24 T8 232 -6.165
24 T8 233 -4.700
24 T8 234 -2.258
24 T8 235 -1.282
24 T8 236 -3.723
24 T8 237 -7.141
24 T8 238 -11.047
24 T8 239 -12.512
24 T8 240 -11.047
24 T8 241 -9.094
24 T8 242 -6.653
24 T8 243 -5.676
24 T8 244 -5.188
24 T8 245 -5.188
24 T8 246 -3.723
24 T8 247 -1.770
24 T8 248 0.183
24 T8 249 1.648
24 T8 250 2.625
24 T8 251 2.136
24 T8 252 1.160
24 T8 253 -0.793
24 T8 254 -2.747
24 T8 255 -5.188
# T7 chan 14
24 T7 0 3.703
24 T7 1 3.703
24 T7 2 3.703
24 T7 3 1.750
24 T7 4 -2.645
24 T7 5 -9.481
24 T7 6 -15.340
24 T7 7 -16.805
24 T7 8 -12.899
24 T7 9 -7.039
24 T7 10 -2.157
24 T7 11 -0.692
24 T7 12 -1.180
24 T7 13 -1.180
24 T7 14 0.773
24 T7 15 3.215
24 T7 16 3.703
24 T7 17 1.261
24 T7 18 -4.110
24 T7 19 -9.481
24 T7 20 -12.410
24 T7 21 -10.946
24 T7 22 -7.039
24 T7 23 -2.645
24 T7 24 -0.203
24 T7 25 1.261
24 T7 26 1.750
24 T7 27 1.750
24 T7 28 0.773
24 T7 29 -1.180
24 T7 30 -4.598
24 T7 31 -6.063
24 T7 32 -4.110
24 T7 33 1.261
24 T7 34 7.609
24 T7 35 11.515
24 T7 36 11.027
24 T7 37 5.656
24 T7 38 -0.692
24 T7 39 -5.575
24 T7 40 -7.528
24 T7 41 -6.063
24 T7 42 -3.133
24 T7 43 -1.668
24 T7 44 -2.645
24 T7 45 -5.086
24 T7 46 -7.039
24 T7 47 -8.016
24 T7 48 -7.528
24 T7 49 -5.575
24 T7 50 -4.110
24 T7 51 -2.645
24 T7 52 -1.668
24 T7 53 -2.157
24 T7 54 -4.110
24 T7 55 -8.016
24 T7 56 -12.410
24 T7 57 -14.364
24 T7 58 -14.364
24 T7 59 -11.434
24 T7 60 -7.528
24 T7 61 -4.110
24 T7 62 -0.692
24 T7 63 3.703
24 T7 64 6.632
24 T7 65 6.144
24 T7 66 0.773
24 T7 67 -8.016
24 T7 68 -16.805
24 T7 69 -20.711
24 T7 70 -16.805
24 T7 71 -8.504
24 T7 72 -0.203
24 T7 73 3.703
24 T7 74 2.238
24 T7 75 -3.133
24 T7 76 -8.504
24 T7 77 -12.899
24 T7 78 -14.364
24 T7 79 -13.875
24 T7 80 -12.410
24 T7 81 -9.481
24 T7 82 -5.086
24 T7 83 -0.692
24 T7 84 2.238
24 T7 85 2.238
24 T7 86 -0.203
24 T7 87 -3.621
24 T7 88 -6.551
24 T7 89 -8.016
24 T7 90 -8.504
24 T7 91 -9.481
24 T7 92 -9.969
24 T7 93 -8.993
24 T7 94 -8.016
24 T7 95 -7.039
24 T7 96 -7.528
24 T7 97 -9.969
24 T7 98 -13.387
24 T7 99 -14.852
24 T7 100 -12.410
24 T7 101 -8.016
24 T7 102 -4.110
24 T7 103 -2.645
24 T7 104 -4.598
24 T7 105 -8.016
24 T7 106 -10.946
24 T7 107 -12.410
24 T7 108 -13.875
24 T7 109 -15.828
24 T7 110 -17.782
24 T7 111 -18.758
24 T7 112 -17.782
24 T7 113 -15.828
24 T7 114 -14.364
24 T7 115 -14.364
24 T7 116 -15.828
24 T7 117 -18.758
24 T7 118 -22.176
24 T7 119 -24.129
24 T7 120 -24.618
24 T7 121 -23.153
24 T7 122 -20.711
24 T7 123 -19.735
24 T7 124 -21.200
24 T7 125 -25.594
24 T7 126 -31.453
24 T7 127 -35.360
24 T7 128 -34.871
24 T7 129 -30.477
24 T7 130 -25.594
24 T7 131 -23.641
24 T7 132 -26.082
24 T7 133 -30.477
24 T7 134 -32.918
24 T7 135 -31.453
24 T7 136 -27.059
24 T7 137 -23.153
24 T7 138 -23.153
24 T7 139 -25.106
24 T7 140 -26.082
24 T7 141 -23.153
24 T7 142 -15.828
24 T7 143 -7.039
24 T7 144 -1.180
24 T7 145 0.285
24 T7 146 -2.157
24 T7 147 -5.086
24 T7 148 -8.016
24 T7 149 -9.481
24 T7 150 -11.434
24 T7 151 -11.922
24 T7 152 -10.946
24 T7 153 -7.528
24 T7 154 -2.157
24 T7 155 2.726
24 T7 156 4.191
24 T7 157 1.261
24 T7 158 -3.133
24 T7 159 -7.039
24 T7 160 -7.039
24 T7 161 -6.063
24 T7 162 -6.551
24 T7 163 -10.457
24 T7 164 -16.805
24 T7 165 -20.711
24 T7 166 -20.223
24 T7 167 -14.852
24 T7 168 -8.993
24 T7 169 -6.551
24 T7 170 -8.504
24 T7 171 -11.922
24 T7 172 -13.875
24 T7 173 -12.410
24 T7 174 -8.993
24 T7 175 -7.039
24 T7 176 -7.528
24 T7 177 -9.481
24 T7 178 -10.457
24 T7 179 -9.969
24 T7 180 -8.504
24 T7 181 -8.016
24 T7 182 -8.993
24 T7 183 -11.434
24 T7 184 -11.922
24 T7 185 -9.481
24 T7 186 -6.063
24 T7 187 -2.645
24 T7 188 -1.668
24 T7 189 -2.157
24 T7 190 -2.645
24 T7 191 -1.180
24 T7 192 1.750
24 T7 193 2.238
24 T7 194 -1.668
24 T7 195 -8.993
24 T7 196 -16.805
24 T7 197 -19.735
24 T7 198 -16.805
24 T7 199 -10.457
24 T7 200 -5.086
24 T7 201 -5.575
24 T7 202 -10.946
24 T7 203 -17.293
24 T7 204 -19.246
24 T7 205 -16.317
24 T7 206 -11.434
24 T7 207 -9.969
24 T7 208 -13.875
24 T7 209 -20.711
24 T7 210 -25.106
24 T7 211 -23.641
24 T7 212 -16.805
24 T7 213 -9.481
24 T7 214 -7.039
24 T7 215 -9.481
24 T7 216 -14.852
24 T7 217 -18.270
24 T7 218 -16.805
24 T7 219 -11.922
24 T7 220 -6.551
24 T7 221 -4.110
24 T7 222 -6.063
24 T7 223 -10.457
24 T7 224 -13.387
24 T7 225 -12.899
24 T7 226 -8.016
24 T7 227 -2.645
24 T7 228 0.773
24 T7 229 0.773
24 T7 230 -1.668
24 T7 231 -4.598
24 T7 232 -6.551
24 T7 233 -6.063
24 T7 234 -5.575
24 T7 235 -5.086
24 T7 236 -5.086
24 T7 237 -5.086
24 T7 238 -3.133
24 T7 239 -0.203
24 T7 240 2.726
24 T7 241 4.191
24 T7 242 3.215
24 T7 243 -0.203
24 T7 244 -3.621
24 T7 245 -6.063
24 T7 246 -5.575
24 T7 247 -3.133
24 T7 248 0.285
24 T7 249 2.726
24 T7 250 4.191
24 T7 251 3.703
24 T7 252 3.215
24 T7 253 3.215
24 T7 254 3.215
24 T7 255 3.215
# CZ chan 15
24 CZ 0 -1.963
24 CZ 1 -0.010
24 CZ 2 1.943
24 CZ 3 1.943
24 CZ 4 -0.498
24 CZ 5 -5.381
24 CZ 6 -10.752
24 CZ 7 -14.659
24 CZ 8 -15.635
24 CZ 9 -13.682
24 CZ 10 -10.264
24 CZ 11 -6.358
24 CZ 12 -1.963
24 CZ 13 2.920
24 CZ 14 6.826
24 CZ 15 9.755
24 CZ 16 8.779
24 CZ 17 4.873
24 CZ 18 -0.498
24 CZ 19 -4.405
24 CZ 20 -5.870
24 CZ 21 -4.405
24 CZ 22 -2.452
24 CZ 23 -0.987
24 CZ 24 -0.987
24 CZ 25 -1.475
24 CZ 26 -1.963
24 CZ 27 -1.963
24 CZ 28 -1.475
24 CZ 29 -0.498
24 CZ 30 -0.010
24 CZ 31 -0.010
24 CZ 32 -0.010
24 CZ 33 -0.010
24 CZ 34 -0.010
24 CZ 35 1.943
24 CZ 36 4.873
24 CZ 37 7.802
24 CZ 38 9.755
24 CZ 39 8.779
24 CZ 40 5.849
24 CZ 41 2.920
24 CZ 42 0.966
24 CZ 43 1.943
24 CZ 44 3.896
24 CZ 45 5.361
24 CZ 46 5.361
24 CZ 47 2.431
24 CZ 48 -2.452
24 CZ 49 -7.823
24 CZ 50 -12.705
24 CZ 51 -16.612
24 CZ 52 -18.565
24 CZ 53 -19.053
24 CZ 54 -18.565
24 CZ 55 -17.588
24 CZ 56 -17.588
24 CZ 57 -19.541
24 CZ 58 -21.495
24 CZ 59 -21.983
24 CZ 60 -20.030
24 CZ 61 -16.123
24 CZ 62 -11.729
24 CZ 63 -8.799
24 CZ 64 -7.823
24 CZ 65 -7.823
24 CZ 66 -7.823
24 CZ 67 -6.846
24 CZ 68 -5.870
24 CZ 69 -6.846
24 CZ 70 -9.288
24 CZ 71 -12.705
24 CZ 72 -15.147
24 CZ 73 -15.635
24 CZ 74 -15.147
24 CZ 75 -14.659
24 CZ 76 -15.147
24 CZ 77 -16.612
24 CZ 78 -16.612
24 CZ 79 -15.147
24 CZ 80 -11.729
24 CZ 81 -9.288
24 CZ 82 -8.311
24 CZ 83 -9.776
24 CZ 84 -11.729
24 CZ 85 -13.194
24 CZ 86 -12.705
24 CZ 87 -10.752
24 CZ 88 -8.799
24 CZ 89 -8.311
24 CZ 90 -8.311
24 CZ 91 -7.823
24 CZ 92 -6.358
24 CZ 93 -3.916
24 CZ 94 -2.940
24 CZ 95 -4.405
24 CZ 96 -7.823
24 CZ 97 -11.729
24 CZ 98 -14.170
24 CZ 99 -13.682
24 CZ 100 -11.729
24 CZ 101 -9.288
24 CZ 102 -7.823
24 CZ 103 -7.334
24 CZ 104 -6.846
24 CZ 105 -5.870
24 CZ 106 -4.893
24 CZ 107 -5.381
24 CZ 108 -7.823
24 CZ 109 -11.729
24 CZ 110 -17.100
24 CZ 111 -21.495
24 CZ 112 -24.424
24 CZ 113 -24.424
24 CZ 114 -22.959
24 CZ 115 -20.030
24 CZ 116 -18.077
24 CZ 117 -17.588
24 CZ 118 -18.565
24 CZ 119 -20.030
24 CZ 120 -21.983
24 CZ 121 -22.959
24 CZ 122 -24.424
24 CZ 123 -26.377
24 CZ 124 -28.819
24 CZ 125 -31.260
24 CZ 126 -32.725
24 CZ 127 -33.213
24 CZ 128 -33.213
24 CZ 129 -33.213
24 CZ 130 -33.213
24 CZ 131 -34.190
24 CZ 132 -35.655
24 CZ 133 -37.120
24 CZ 134 -38.584
24 CZ 135 -39.561
24 CZ 136 -39.073
24 CZ 137 -37.608
24 CZ 138 -34.678
24 CZ 139 -32.237
24 CZ 140 -30.284
24 CZ 141 -30.284
24 CZ 142 -31.260
24 CZ 143 -32.237
24 CZ 144 -32.725
24 CZ 145 -32.725
24 CZ 146 -31.260
24 CZ 147 -30.284
24 CZ 148 -28.819
24 CZ 149 -28.330
24 CZ 150 -27.354
24 CZ 151 -26.377
24 CZ 152 -25.401
24 CZ 153 -24.424
24 CZ 154 -23.448
24 CZ 155 -21.983
24 CZ 156 -20.518
24 CZ 157 -18.565
24 CZ 158 -17.588
24 CZ 159 -18.077
24 CZ 160 -20.030
24 CZ 161 -22.471
24 CZ 162 -23.448
24 CZ 163 -23.448
24 CZ 164 -21.495
24 CZ 165 -20.518
24 CZ 166 -21.495
24 CZ 167 -23.936
24 CZ 168 -27.354
24 CZ 169 -28.819
24 CZ 170 -27.354
24 CZ 171 -24.424
24 CZ 172 -21.495
24 CZ 173 -20.030
24 CZ 174 -20.030
24 CZ 175 -20.518
24 CZ 176 -20.030
24 CZ 177 -18.077
24 CZ 178 -16.612
24 CZ 179 -16.123
24 CZ 180 -17.100
24 CZ 181 -19.053
24 CZ 182 -20.030
24 CZ 183 -19.053
24 CZ 184 -16.123
24 CZ 185 -11.729
24 CZ 186 -7.823
24 CZ 187 -4.893
24 CZ 188 -4.405
24 CZ 189 -4.893
24 CZ 190 -5.381
24 CZ 191 -5.381
24 CZ 192 -4.405
24 CZ 193 -3.916
24 CZ 194 -4.405
24 CZ 195 -5.870
24 CZ 196 -7.823
24 CZ 197 -9.288
24 CZ 198 -9.288
24 CZ 199 -7.823
24 CZ 200 -6.358
24 CZ 201 -5.870
24 CZ 202 -7.334
24 CZ 203 -9.288
24 CZ 204 -10.264
24 CZ 205 -9.776
24 CZ 206 -9.288
24 CZ 207 -9.776
24 CZ 208 -11.729
24 CZ 209 -13.682
24 CZ 210 -15.635
24 CZ 211 -15.147
24 CZ 212 -13.194
24 CZ 213 -11.729
24 CZ 214 -12.705
24 CZ 215 -16.123
24 CZ 216 -20.518
24 CZ 217 -24.424
24 CZ 218 -24.913
24 CZ 219 -22.471
24 CZ 220 -19.541
24 CZ 221 -17.588
24 CZ 222 -18.077
24 CZ 223 -20.518
24 CZ 224 -23.448
24 CZ 225 -24.424
24 CZ 226 -23.448
24 CZ 227 -20.030
24 CZ 228 -16.123
24 CZ 229 -13.194
24 CZ 230 -11.241
24 CZ 231 -10.752
24 CZ 232 -9.776
24 CZ 233 -8.799
24 CZ 234 -6.846
24 CZ 235 -5.870
24 CZ 236 -5.870
24 CZ 237 -8.311
24 CZ 238 -10.752
24 CZ 239 -11.729
24 CZ 240 -10.752
24 CZ 241 -8.311
24 CZ 242 -5.870
24 CZ 243 -5.870
24 CZ 244 -8.311
24 CZ 245 -10.752
24 CZ 246 -11.241
24 CZ 247 -8.311
24 CZ 248 -3.916
24 CZ 249 -0.010
24 CZ 250 2.431
24 CZ 251 2.920
24 CZ 252 2.920
24 CZ 253 2.920
24 CZ 254 2.920
24 CZ 255 2.920
# C3 chan 16
24 C3 0 0.305
24 C3 1 1.770
24 C3 2 2.747
24 C3 3 3.235
24 C3 4 2.258
24 C3 5 0.305
24 C3 6 -1.648
24 C3 7 -3.113
24 C3 8 -3.113
24 C3 9 -2.625
24 C3 10 -1.648
24 C3 11 -0.671
24 C3 12 -0.671
24 C3 13 -1.160
24 C3 14 -1.648
24 C3 15 -2.136
24 C3 16 -3.113
24 C3 17 -4.089
24 C3 18 -5.066
24 C3 19 -5.554
24 C3 20 -4.089
24 C3 21 -2.136
24 C3 22 0.793
24 C3 23 3.235
24 C3 24 5.188
24 C3 25 5.188
24 C3 26 4.211
24 C3 27 2.258
24 C3 28 -0.183
24 C3 29 -1.648
24 C3 30 -3.113
24 C3 31 -2.625
24 C3 32 -1.160
24 C3 33 1.770
24 C3 34 5.188
24 C3 35 7.141
24 C3 36 6.653
24 C3 37 3.235
24 C3 38 -1.160
24 C3 39 -5.066
24 C3 40 -7.019
24 C3 41 -6.042
24 C3 42 -4.089
24 C3 43 -2.625
24 C3 44 -2.136
24 C3 45 -2.136
24 C3 46 -1.648
24 C3 47 -1.160
24 C3 48 -0.183
24 C3 49 0.305
24 C3 50 -0.183
24 C3 51 -1.160
24 C3 52 -1.648
24 C3 53 -0.671
24 C3 54 -0.183
24 C3 55 0.793
24 C3 56 0.793
24 C3 57 0.305
24 C3 58 0.305
24 C3 59 0.793
24 C3 60 0.793
24 C3 61 1.282
24 C3 62 1.282
24 C3 63 1.282
24 C3 64 1.770
24 C3 65 2.258
24 C3 66 2.747
24 C3 67 1.770
24 C3 68 0.305
24 C3 69 -1.648
24 C3 70 -3.113
24 C3 71 -3.601
24 C3 72 -3.601
24 C3 73 -3.601
24 C3 74 -3.601
24 C3 75 -3.601
24 C3 76 -3.601
24 C3 77 -3.113
24 C3 78 -2.625
24 C3 79 -2.625
24 C3 80 -3.601
24 C3 81 -4.089
24 C3 82 -5.066
24 C3 83 -4.578
24 C3 84 -4.089
24 C3 85 -3.113
24 C3 86 -2.625
24 C3 87 -2.136
24 C3 88 -2.136
24 C3 89 -1.648
24 C3 90 -2.136
24 C3 91 -3.601
24 C3 92 -5.554
24 C3 93 -7.019
24 C3 94 -7.507
24 C3 95 -7.996
24 C3 96 -7.507
24 C3 97 -7.507
24 C3 98 -7.507
24 C3 99 -6.531
24 C3 100 -4.578
24 C3 101 -2.136
24 C3 102 0.305
24 C3 103 1.282
24 C3 104 0.305
24 C3 105 -2.136
24 C3 106 -4.578
24 C3 107 -7.507
24 C3 108 -8.972
24 C3 109 -9.949
24 C3 110 -9.460
24 C3 111 -8.484
24 C3 112 -6.531
24 C3 113 -5.066
24 C3 114 -4.089
24 C3 115 -4.089
24 C3 116 -4.578
24 C3 117 -6.042
24 C3 118 -7.507
24 C3 119 -8.484
24 C3 120 -9.460
24 C3 121 -10.437
24 C3 122 -10.925
24 C3 123 -10.925
24 C3 124 -10.925
24 C3 125 -10.437
24 C3 126 -9.460
24 C3 127 -7.996
24 C3 128 -6.531
24 C3 129 -5.066
24 C3 130 -5.066
24 C3 131 -5.554
24 C3 132 -7.019
24 C3 133 -8.972
24 C3 134 -9.949
24 C3 135 -10.925
24 C3 136 -11.414
24 C3 137 -11.414
24 C3 138 -10.437
24 C3 139 -9.460
24 C3 140 -7.019
24 C3 141 -4.089
24 C3 142 -1.160
24 C3 143 0.793
24 C3 144 1.770
24 C3 145 0.793
24 C3 146 -0.183
24 C3 147 -1.160
24 C3 148 -1.160
24 C3 149 -1.648
24 C3 150 -2.136
24 C3 151 -2.136
24 C3 152 -1.648
24 C3 153 -1.160
24 C3 154 -0.671
24 C3 155 -0.183
24 C3 156 -0.183
24 C3 157 -0.183
24 C3 158 -0.671
24 C3 159 -1.160
24 C3 160 -1.648
24 C3 161 -2.625
24 C3 162 -3.601
24 C3 163 -4.578
24 C3 164 -5.554
24 C3 165 -5.554
24 C3 166 -5.066
24 C3 167 -4.089
24 C3 168 -3.113
24 C3 169 -2.625
24 C3 170 -2.136
24 C3 171 -1.160
24 C3 172 -0.671
24 C3 173 -0.183
24 C3 174 -0.183
24 C3 175 -0.183
24 C3 176 -1.160
24 C3 177 -1.648
24 C3 178 -1.648
24 C3 179 -1.160
24 C3 180 -0.671
24 C3 181 -0.671
24 C3 182 -1.648
24 C3 183 -2.625
24 C3 184 -3.601
24 C3 185 -3.113
24 C3 186 -2.625
24 C3 187 -1.648
24 C3 188 -0.183
24 C3 189 -0.183
24 C3 190 -0.183
24 C3 191 -0.183
24 C3 192 -0.183
24 C3 193 -0.671
24 C3 194 -1.648
24 C3 195 -3.113
24 C3 196 -4.578
24 C3 197 -5.554
24 C3 198 -5.554
24 C3 199 -4.578
24 C3 200 -4.578
24 C3 201 -5.554
24 C3 202 -7.019
24 C3 203 -8.484
24 C3 204 -8.484
24 C3 205 -7.019
24 C3 206 -5.066
24 C3 207 -4.578
24 C3 208 -5.066
24 C3 209 -6.042
24 C3 210 -6.531
24 C3 211 -6.042
24 C3 212 -4.578
24 C3 213 -3.113
24 C3 214 -2.625
24 C3 215 -3.601
24 C3 216 -5.066
24 C3 217 -5.554
24 C3 218 -5.066
24 C3 219 -3.601
24 C3 220 -2.625
24 C3 221 -2.625
24 C3 222 -3.113
24 C3 223 -4.578
24 C3 224 -4.578
24 C3 225 -4.089
24 C3 226 -2.136
24 C3 227 -1.160
24 C3 228 -0.671
24 C3 229 -1.160
24 C3 230 -2.136
24 C3 231 -2.136
24 C3 232 -2.625
24 C3 233 -2.625
24 C3 234 -2.136
24 C3 235 -2.625
24 C3 236 -3.601
24 C3 237 -4.089
24 C3 238 -4.578
24 C3 239 -4.578
24 C3 240 -4.089
24 C3 241 -3.601
24 C3 242 -3.601
24 C3 243 -3.601
24 C3 244 -3.601
24 C3 245 -3.113
24 C3 246 -2.625
24 C3 247 -1.648
24 C3 248 -0.671
24 C3 249 0.793
24 C3 250 0.793
24 C3 251 0.305
24 C3 252 -0.183
24 C3 253 -0.671
24 C3 254 -1.648
24 C3 255 -2.136
# C4 chan 17
24 C4 0 -4.486
24 C4 1 -5.463
24 C4 2 -5.951
24 C4 3 -4.974
24 C4 4 -3.510
24 C4 5 -2.045
24 C4 6 -1.068
24 C4 7 -1.068
24 C4 8 -2.045
24 C4 9 -3.510
24 C4 10 -3.510
24 C4 11 -3.510
24 C4 12 -2.045
24 C4 13 -0.092
24 C4 14 1.373
24 C4 15 2.350
24 C4 16 2.350
24 C4 17 1.373
24 C4 18 -0.092
24 C4 19 -1.556
24 C4 20 -3.021
24 C4 21 -3.998
24 C4 22 -4.974
24 C4 23 -5.463
24 C4 24 -5.951
24 C4 25 -5.463
24 C4 26 -4.486
24 C4 27 -2.533
24 C4 28 -1.068
24 C4 29 0.397
24 C4 30 0.397
24 C4 31 -0.580
24 C4 32 -2.045
24 C4 33 -3.998
24 C4 34 -5.463
24 C4 35 -5.951
24 C4 36 -5.463
24 C4 37 -3.998
24 C4 38 -2.533
24 C4 39 -0.580
24 C4 40 0.397
24 C4 41 -0.092
24 C4 42 -1.556
24 C4 43 -2.045
24 C4 44 -3.021
24 C4 45 -3.510
24 C4 46 -3.998
24 C4 47 -4.974
24 C4 48 -5.463
24 C4 49 -5.463
24 C4 50 -4.974
24 C4 51 -3.510
24 C4 52 -2.045
24 C4 53 -1.556
24 C4 54 -1.068
24 C4 55 -1.068
24 C4 56 -0.580
24 C4 57 -0.092
24 C4 58 0.397
24 C4 59 -0.092
24 C4 60 -1.068
24 C4 61 -2.533
24 C4 62 -3.510
24 C4 63 -4.486
24 C4 64 -4.974
24 C4 65 -3.998
24 C4 66 -3.510
24 C4 67 -2.533
24 C4 68 -2.045
24 C4 69 -2.045
24 C4 70 -2.045
24 C4 71 -2.533
24 C4 72 -3.021
24 C4 73 -2.533
24 C4 74 -2.533
24 C4 75 -1.556
24 C4 76 -0.580
24 C4 77 0.397
24 C4 78 1.862
24 C4 79 2.350
24 C4 80 2.838
24 C4 81 2.838
24 C4 82 2.350
24 C4 83 2.350
24 C4 84 2.350
24 C4 85 1.862
24 C4 86 0.397
24 C4 87 -1.068
24 C4 88 -3.021
24 C4 89 -3.998
24 C4 90 -3.998
24 C4 91 -2.533
24 C4 92 -0.580
24 C4 93 1.862
24 C4 94 3.326
24 C4 95 3.815
24 C4 96 3.326
24 C4 97 2.350
24 C4 98 0.885
24 C4 99 -1.068
24 C4 100 -3.021
24 C4 101 -4.974
24 C4 102 -5.463
24 C4 103 -5.463
24 C4 104 -3.510
24 C4 105 -2.045
24 C4 106 0.397
24 C4 107 1.373
24 C4 108 1.862
24 C4 109 0.885
24 C4 110 -0.580
24 C4 111 -2.533
24 C4 112 -4.486
24 C4 113 -5.463
24 C4 114 -4.486
24 C4 115 -3.510
24 C4 116 -2.045
24 C4 117 -1.068
24 C4 118 -1.556
24 C4 119 -2.533
24 C4 120 -3.510
24 C4 121 -3.998
24 C4 122 -3.510
24 C4 123 -2.533
24 C4 124 -1.556
24 C4 125 -1.068
24 C4 126 -1.068
24 C4 127 -2.533
24 C4 128 -4.486
24 C4 129 -6.439
24 C4 130 -8.392
24 C4 131 -9.857
24 C4 132 -9.857
24 C4 133 -9.369
24 C4 134 -7.416
24 C4 135 -5.463
24 C4 136 -3.510
24 C4 137 -2.045
24 C4 138 -1.556
24 C4 139 -1.556
24 C4 140 -2.045
24 C4 141 -3.021
24 C4 142 -4.486
24 C4 143 -5.463
24 C4 144 -6.439
24 C4 145 -6.439
24 C4 146 -5.951
24 C4 147 -4.974
24 C4 148 -4.486
24 C4 149 -4.486
24 C4 150 -4.974
24 C4 151 -5.463
24 C4 152 -5.463
24 C4 153 -5.463
24 C4 154 -5.463
24 C4 155 -5.463
24 C4 156 -5.463
24 C4 157 -5.463
24 C4 158 -5.463
24 C4 159 -5.463
24 C4 160 -5.463
24 C4 161 -4.486
24 C4 162 -3.998
24 C4 163 -3.021
24 C4 164 -2.045
24 C4 165 -2.045
24 C4 166 -2.533
24 C4 167 -3.021
24 C4 168 -3.510
24 C4 169 -3.510
24 C4 170 -3.510
24 C4 171 -3.510
24 C4 172 -3.510
24 C4 173 -3.510
24 C4 174 -3.510
24 C4 175 -2.533
24 C4 176 -1.068
24 C4 177 0.397
24 C4 178 1.373
24 C4 179 1.862
24 C4 180 1.862
24 C4 181 1.373
24 C4 182 1.373
24 C4 183 0.885
24 C4 184 0.397
24 C4 185 -0.092
24 C4 186 -1.068
24 C4 187 -1.068
24 C4 188 -0.580
24 C4 189 0.397
24 C4 190 1.862
24 C4 191 2.350
24 C4 192 1.862
24 C4 193 1.373
24 C4 194 1.373
24 C4 195 1.373
24 C4 196 1.373
24 C4 197 1.373
24 C4 198 1.373
24 C4 199 0.885
24 C4 200 0.885
24 C4 201 1.862
24 C4 202 2.838
24 C4 203 3.815
24 C4 204 4.791
24 C4 205 4.303
24 C4 206 3.326
24 C4 207 1.862
24 C4 208 1.373
24 C4 209 0.885
24 C4 210 1.373
24 C4 211 1.862
24 C4 212 2.838
24 C4 213 3.815
24 C4 214 4.791
24 C4 215 5.280
24 C4 216 4.303
24 C4 217 2.838
24 C4 218 0.885
24 C4 219 -0.092
24 C4 220 -0.092
24 C4 221 0.397
24 C4 222 0.397
24 C4 223 -0.580
24 C4 224 -1.068
24 C4 225 -1.556
24 C4 226 -0.580
24 C4 227 0.885
24 C4 228 2.350
24 C4 229 2.350
24 C4 230 1.862
24 C4 231 0.397
24 C4 232 -0.092
24 C4 233 -0.092
24 C4 234 0.397
24 C4 235 0.397
24 C4 236 -0.580
24 C4 237 -1.556
24 C4 238 -3.021
24 C4 239 -3.510
24 C4 240 -3.998
24 C4 241 -3.510
24 C4 242 -2.533
24 C4 243 -1.556
24 C4 244 -0.092
24 C4 245 0.885
24 C4 246 1.373
24 C4 247 1.373
24 C4 248 0.885
24 C4 249 0.397
24 C4 250 0.885
24 C4 251 1.373
24 C4 252 2.350
24 C4 253 2.350
24 C4 254 1.373
24 C4 255 -0.092
# CP5 chan 18
24 CP5 0 2.289
24 CP5 1 3.265
24 CP5 2 4.242
24 CP5 3 3.754
24 CP5 4 2.289
24 CP5 5 0.336
24 CP5 6 -2.106
24 CP5 7 -3.571
24 CP5 8 -4.059
24 CP5 9 -4.059
24 CP5 10 -4.059
24 CP5 11 -3.571
24 CP5 12 -2.106
24 CP5 13 -0.641
24 CP5 14 0.824
24 CP5 15 1.312
24 CP5 16 0.336
24 CP5 17 -1.617
24 CP5 18 -4.059
24 CP5 19 -6.012
24 CP5 20 -5.524
24 CP5 21 -2.106
24 CP5 22 2.777
24 CP5 23 8.148
24 CP5 24 11.078
24 CP5 25 12.543
24 CP5 26 12.543
24 CP5 27 11.078
24 CP5 28 9.613
24 CP5 29 7.660
24 CP5 30 5.219
24 CP5 31 3.754
24 CP5 32 3.754
24 CP5 33 5.219
24 CP5 34 7.660
24 CP5 35 9.613
24 CP5 36 9.125
24 CP5 37 5.707
24 CP5 38 0.336
24 CP5 39 -4.547
24 CP5 40 -7.477
24 CP5 41 -7.965
24 CP5 42 -6.012
24 CP5 43 -4.059
24 CP5 44 -3.082
24 CP5 45 -2.594
24 CP5 46 -2.106
24 CP5 47 -1.129
24 CP5 48 0.336
24 CP5 49 1.312
24 CP5 50 1.801
24 CP5 51 1.801
24 CP5 52 1.801
24 CP5 53 2.289
24 CP5 54 2.777
24 CP5 55 3.754
24 CP5 56 3.754
24 CP5 57 4.242
24 CP5 58 4.730
24 CP5 59 5.707
24 CP5 60 6.195
24 CP5 61 5.707
24 CP5 62 5.707
24 CP5 63 5.707
24 CP5 64 6.683
24 CP5 65 8.148
24 CP5 66 9.125
24 CP5 67 8.636
24 CP5 68 6.683
24 CP5 69 4.730
24 CP5 70 3.265
24 CP5 71 3.265
24 CP5 72 3.265
24 CP5 73 2.777
24 CP5 74 1.801
24 CP5 75 0.336
24 CP5 76 -0.641
24 CP5 77 -0.641
24 CP5 78 0.824
24 CP5 79 1.312
24 CP5 80 1.312
24 CP5 81 0.824
24 CP5 82 0.824
24 CP5 83 0.824
24 CP5 84 1.801
24 CP5 85 2.777
24 CP5 86 3.265
24 CP5 87 4.242
24 CP5 88 4.242
24 CP5 89 4.242
24 CP5 90 3.265
24 CP5 91 1.312
24 CP5 92 -1.617
24 CP5 93 -3.571
24 CP5 94 -4.059
24 CP5 95 -4.059
24 CP5 96 -4.059
24 CP5 97 -4.547
24 CP5 98 -6.012
24 CP5 99 -6.989
24 CP5 100 -6.012
24 CP5 101 -4.059
24 CP5 102 -1.129
24 CP5 103 0.824
24 CP5 104 0.824
24 CP5 105 -1.129
24 CP5 106 -4.059
24 CP5 107 -6.500
24 CP5 108 -8.942
24 CP5 109 -10.895
24 CP5 110 -11.871
24 CP5 111 -11.871
24 CP5 112 -10.406
24 CP5 113 -7.965
24 CP5 114 -6.012
24 CP5 115 -4.547
24 CP5 116 -4.547
24 CP5 117 -6.012
24 CP5 118 -7.477
24 CP5 119 -8.453
24 CP5 120 -8.942
24 CP5 121 -8.942
24 CP5 122 -9.430
24 CP5 123 -10.895
24 CP5 124 -12.360
24 CP5 125 -13.824
24 CP5 126 -13.336
24 CP5 127 -11.871
24 CP5 128 -9.430
24 CP5 129 -6.989
24 CP5 130 -6.500
24 CP5 131 -7.477
24 CP5 132 -9.430
24 CP5 133 -11.383
24 CP5 134 -12.360
24 CP5 135 -12.360
24 CP5 136 -12.848
24 CP5 137 -12.848
24 CP5 138 -12.848
24 CP5 139 -11.871
24 CP5 140 -9.430
24 CP5 141 -6.012
24 CP5 142 -2.106
24 CP5 143 0.336
24 CP5 144 1.801
24 CP5 145 1.312
24 CP5 146 0.336
24 CP5 147 -0.641
24 CP5 148 -1.617
24 CP5 149 -2.594
24 CP5 150 -3.082
24 CP5 151 -3.082
24 CP5 152 -2.106
24 CP5 153 -1.129
24 CP5 154 0.824
24 CP5 155 1.312
24 CP5 156 1.312
24 CP5 157 0.824
24 CP5 158 0.336
24 CP5 159 -0.153
24 CP5 160 -1.129
24 CP5 161 -2.594
24 CP5 162 -5.035
24 CP5 163 -6.989
24 CP5 164 -8.453
24 CP5 165 -8.942
24 CP5 166 -8.942
24 CP5 167 -7.965
24 CP5 168 -7.477
24 CP5 169 -6.989
24 CP5 170 -6.500
24 CP5 171 -5.035
24 CP5 172 -4.059
24 CP5 173 -2.594
24 CP5 174 -2.106
24 CP5 175 -2.594
24 CP5 176 -4.059
24 CP5 177 -4.547
24 CP5 178 -5.035
24 CP5 179 -5.035
24 CP5 180 -5.524
24 CP5 181 -6.012
24 CP5 182 -6.500
24 CP5 183 -6.500
24 CP5 184 -5.524
24 CP5 185 -3.571
24 CP5 186 -1.617
24 CP5 187 -0.641
24 CP5 188 0.336
24 CP5 189 -0.153
24 CP5 190 -0.153
24 CP5 191 -0.153
24 CP5 192 -0.153
24 CP5 193 -1.129
24 CP5 194 -3.082
24 CP5 195 -6.012
24 CP5 196 -8.453
24 CP5 197 -10.406
24 CP5 198 -10.406
24 CP5 199 -9.430
24 CP5 200 -8.453
24 CP5 201 -7.965
24 CP5 202 -8.942
24 CP5 203 -10.406
24 CP5 204 -11.383
24 CP5 205 -10.406
24 CP5 206 -8.942
24 CP5 207 -7.477
24 CP5 208 -7.965
24 CP5 209 -8.942
24 CP5 210 -10.895
24 CP5 211 -10.895
24 CP5 212 -9.430
24 CP5 213 -6.989
24 CP5 214 -5.035
24 CP5 215 -5.035
24 CP5 216 -6.989
24 CP5 217 -9.430
24 CP5 218 -10.406
24 CP5 219 -8.942
24 CP5 220 -6.012
24 CP5 221 -4.547
24 CP5 222 -5.524
24 CP5 223 -7.965
24 CP5 224 -10.895
24 CP5 225 -11.871
24 CP5 226 -9.918
24 CP5 227 -6.500
24 CP5 228 -3.571
24 CP5 229 -3.082
24 CP5 230 -4.059
24 CP5 231 -5.524
24 CP5 232 -5.524
24 CP5 233 -4.547
24 CP5 234 -3.082
24 CP5 235 -2.594
24 CP5 236 -3.082
24 CP5 237 -4.059
24 CP5 238 -4.547
24 CP5 239 -4.547
24 CP5 240 -4.059
24 CP5 241 -3.571
24 CP5 242 -4.059
24 CP5 243 -4.547
24 CP5 244 -4.547
24 CP5 245 -4.059
24 CP5 246 -3.082
24 CP5 247 -1.129
24 CP5 248 0.824
24 CP5 249 2.777
24 CP5 250 3.754
24 CP5 251 4.242
24 CP5 252 3.265
24 CP5 253 1.801
24 CP5 254 0.336
24 CP5 255 -1.617
# CP6 chan 19
24 CP6 0 0.977
24 CP6 1 2.930
24 CP6 2 4.395
24 CP6 3 5.859
24 CP6 4 5.859
24 CP6 5 4.395
24 CP6 6 1.953
24 CP6 7 -0.977
24 CP6 8 -2.930
24 CP6 9 -3.418
24 CP6 10 -2.930
24 CP6 11 -1.953
24 CP6 12 -0.488
24 CP6 13 0.977
24 CP6 14 3.418
24 CP6 15 5.859
24 CP6 16 7.324
24 CP6 17 6.348
24 CP6 18 4.395
24 CP6 19 0.977
24 CP6 20 -0.977
24 CP6 21 -0.977
24 CP6 22 0.000
24 CP6 23 1.465
24 CP6 24 1.953
24 CP6 25 1.953
24 CP6 26 2.441
24 CP6 27 3.906
24 CP6 28 6.836
24 CP6 29 8.301
24 CP6 30 7.812
24 CP6 31 5.371
24 CP6 32 2.441
24 CP6 33 0.977
24 CP6 34 1.465
24 CP6 35 2.930
24 CP6 36 3.418
24 CP6 37 2.930
24 CP6 38 1.953
24 CP6 39 0.000
24 CP6 40 -0.977
24 CP6 41 -1.953
24 CP6 42 -2.930
24 CP6 43 -3.906
24 CP6 44 -5.371
24 CP6 45 -5.859
24 CP6 46 -5.859
24 CP6 47 -5.371
24 CP6 48 -4.883
24 CP6 49 -3.418
24 CP6 50 -1.953
24 CP6 51 0.000
24 CP6 52 2.441
24 CP6 53 4.395
24 CP6 54 5.371
24 CP6 55 5.371
24 CP6 56 4.883
24 CP6 57 4.395
24 CP6 58 3.906
24 CP6 59 2.930
24 CP6 60 1.953
24 CP6 61 0.977
24 CP6 62 0.000
24 CP6 63 -0.488
24 CP6 64 -0.977
24 CP6 65 -0.977
24 CP6 66 -0.488
24 CP6 67 0.488
24 CP6 68 1.465
24 CP6 69 2.441
24 CP6 70 3.418
24 CP6 71 3.418
24 CP6 72 2.930
24 CP6 73 1.953
24 CP6 74 0.488
24 CP6 75 -0.488
24 CP6 76 0.000
24 CP6 77 0.977
24 CP6 78 3.418
24 CP6 79 4.395
24 CP6 80 5.371
24 CP6 81 4.883
24 CP6 82 5.371
24 CP6 83 5.859
24 CP6 84 6.836
24 CP6 85 7.812
24 CP6 86 7.812
24 CP6 87 6.836
24 CP6 88 4.395
24 CP6 89 2.441
24 CP6 90 0.977
24 CP6 91 1.465
24 CP6 92 2.441
24 CP6 93 3.906
24 CP6 94 4.883
24 CP6 95 5.371
24 CP6 96 5.859
24 CP6 97 4.883
24 CP6 98 3.418
24 CP6 99 1.465
24 CP6 100 -0.488
24 CP6 101 -0.977
24 CP6 102 -0.977
24 CP6 103 0.000
24 CP6 104 0.977
24 CP6 105 0.977
24 CP6 106 0.000
24 CP6 107 -1.465
24 CP6 108 -1.953
24 CP6 109 -2.930
24 CP6 110 -3.418
24 CP6 111 -4.395
24 CP6 112 -5.371
24 CP6 113 -5.859
24 CP6 114 -5.371
24 CP6 115 -3.906
24 CP6 116 -2.930
24 CP6 117 -2.930
24 CP6 118 -3.906
24 CP6 119 -5.859
24 CP6 120 -7.324
24 CP6 121 -6.836
24 CP6 122 -5.371
24 CP6 123 -3.418
24 CP6 124 -1.953
24 CP6 125 -1.953
24 CP6 126 -1.953
24 CP6 127 -2.930
24 CP6 128 -3.418
24 CP6 129 -4.395
24 CP6 130 -6.836
24 CP6 131 -9.766
24 CP6 132 -12.695
24 CP6 133 -13.672
24 CP6 134 -12.207
24 CP6 135 -9.277
24 CP6 136 -5.859
24 CP6 137 -2.930
24 CP6 138 -1.465
24 CP6 139 -1.465
24 CP6 140 -1.465
24 CP6 141 -1.953
24 CP6 142 -2.441
24 CP6 143 -3.418
24 CP6 144 -4.395
24 CP6 145 -5.371
24 CP6 146 -5.859
24 CP6 147 -5.371
24 CP6 148 -4.395
24 CP6 149 -4.395
24 CP6 150 -4.395
24 CP6 151 -4.883
24 CP6 152 -4.883
24 CP6 153 -5.371
24 CP6 154 -4.883
24 CP6 155 -5.371
24 CP6 156 -5.371
24 CP6 157 -5.859
24 CP6 158 -5.371
24 CP6 159 -5.371
24 CP6 160 -4.395
24 CP6 161 -3.906
24 CP6 162 -3.418
24 CP6 163 -3.418
24 CP6 164 -3.418
24 CP6 165 -3.906
24 CP6 166 -4.395
24 CP6 167 -4.883
24 CP6 168 -5.371
24 CP6 169 -5.371
24 CP6 170 -5.371
24 CP6 171 -4.883
24 CP6 172 -4.395
24 CP6 173 -3.906
24 CP6 174 -3.418
24 CP6 175 -3.906
24 CP6 176 -3.906
24 CP6 177 -3.906
24 CP6 178 -2.441
24 CP6 179 0.000
24 CP6 180 2.441
24 CP6 181 4.395
24 CP6 182 5.859
24 CP6 183 6.348
24 CP6 184 5.859
24 CP6 185 5.859
24 CP6 186 6.836
24 CP6 187 7.324
24 CP6 188 7.812
24 CP6 189 6.836
24 CP6 190 5.859
24 CP6 191 4.395
24 CP6 192 3.906
24 CP6 193 3.906
24 CP6 194 4.395
24 CP6 195 4.395
24 CP6 196 3.906
24 CP6 197 2.930
24 CP6 198 1.953
24 CP6 199 1.465
24 CP6 200 3.418
24 CP6 201 6.348
24 CP6 202 9.277
24 CP6 203 11.230
24 CP6 204 11.230
24 CP6 205 10.254
24 CP6 206 9.277
24 CP6 207 8.301
24 CP6 208 7.324
24 CP6 209 5.859
24 CP6 210 3.906
24 CP6 211 3.418
24 CP6 212 4.395
24 CP6 213 6.836
24 CP6 214 9.766
24 CP6 215 11.230
24 CP6 216 8.789
24 CP6 217 5.859
24 CP6 218 2.441
24 CP6 219 1.953
24 CP6 220 3.906
24 CP6 221 5.859
24 CP6 222 5.859
24 CP6 223 3.906
24 CP6 224 1.953
24 CP6 225 1.465
24 CP6 226 2.930
24 CP6 227 4.883
24 CP6 228 6.348
24 CP6 229 5.859
24 CP6 230 4.395
24 CP6 231 3.418
24 CP6 232 4.395
24 CP6 233 6.348
24 CP6 234 7.812
24 CP6 235 7.812
24 CP6 236 6.348
24 CP6 237 3.906
24 CP6 238 2.441
24 CP6 239 1.953
24 CP6 240 2.441
24 CP6 241 3.418
24 CP6 242 3.906
24 CP6 243 3.906
24 CP6 244 3.418
24 CP6 245 3.906
24 CP6 246 4.883
24 CP6 247 7.324
24 CP6 248 10.742
24 CP6 249 13.672
24 CP6 250 16.602
24 CP6 251 17.578
24 CP6 252 17.090
24 CP6 253 14.160
24 CP6 254 10.254
24 CP6 255 6.836
# CP1 chan 20
24 CP1 0 1.322
24 CP1 1 2.299
24 CP1 2 3.276
24 CP1 3 3.764
24 CP1 4 3.764
24 CP1 5 3.764
24 CP1 6 3.276
24 CP1 7 2.299
24 CP1 8 1.322
24 CP1 9 0.346
24 CP1 10 -0.142
24 CP1 11 -0.142
24 CP1 12 0.834
24 CP1 13 1.811
24 CP1 14 2.299
24 CP1 15 2.299
24 CP1 16 2.299
24 CP1 17 1.811
24 CP1 18 1.322
24 CP1 19 1.322
24 CP1 20 2.787
24 CP1 21 5.229
24 CP1 22 7.670
24 CP1 23 10.111
24 CP1 24 11.576
24 CP1 25 12.553
24 CP1 26 13.041
24 CP1 27 12.065
24 CP1 28 10.600
24 CP1 29 9.135
24 CP1 30 7.182
24 CP1 31 5.717
24 CP1 32 5.229
24 CP1 33 5.717
24 CP1 34 6.694
24 CP1 35 7.670
24 CP1 36 7.670
24 CP1 37 6.694
24 CP1 38 4.740
24 CP1 39 2.299
24 CP1 40 0.834
24 CP1 41 0.346
24 CP1 42 0.834
24 CP1 43 1.322
24 CP1 44 1.811
24 CP1 45 1.811
24 CP1 46 1.811
24 CP1 47 2.299
24 CP1 48 3.276
24 CP1 49 4.740
24 CP1 50 5.717
24 CP1 51 6.694
24 CP1 52 7.182
24 CP1 53 7.182
24 CP1 54 7.182
24 CP1 55 7.182
24 CP1 56 7.670
24 CP1 57 8.158
24 CP1 58 9.135
24 CP1 59 9.623
24 CP1 60 9.135
24 CP1 61 8.158
24 CP1 62 7.182
24 CP1 63 5.717
24 CP1 64 5.229
24 CP1 65 4.740
24 CP1 66 5.229
24 CP1 67 6.205
24 CP1 68 6.694
24 CP1 69 6.694
24 CP1 70 5.717
24 CP1 71 4.740
24 CP1 72 3.764
24 CP1 73 3.764
24 CP1 74 3.764
24 CP1 75 4.252
24 CP1 76 4.740
24 CP1 77 4.252
24 CP1 78 4.740
24 CP1 79 4.740
24 CP1 80 5.229
24 CP1 81 5.229
24 CP1 82 4.252
24 CP1 83 3.764
24 CP1 84 3.764
24 CP1 85 3.764
24 CP1 86 4.740
24 CP1 87 5.229
24 CP1 88 5.229
24 CP1 89 5.229
24 CP1 90 3.764
24 CP1 91 2.299
24 CP1 92 0.346
24 CP1 93 -0.631
24 CP1 94 -0.631
24 CP1 95 -0.142
24 CP1 96 -0.142
24 CP1 97 -0.142
24 CP1 98 -0.631
24 CP1 99 -0.631
24 CP1 100 -0.142
24 CP1 101 1.322
24 CP1 102 2.299
24 CP1 103 3.276
24 CP1 104 3.276
24 CP1 105 2.787
24 CP1 106 1.322
24 CP1 107 -0.142
24 CP1 108 -1.119
24 CP1 109 -1.607
24 CP1 110 -1.119
24 CP1 111 -0.142
24 CP1 112 0.834
24 CP1 113 1.322
24 CP1 114 1.322
24 CP1 115 1.322
24 CP1 116 0.834
24 CP1 117 0.346
24 CP1 118 -0.142
24 CP1 119 -0.631
24 CP1 120 -1.607
24 CP1 121 -2.096
24 CP1 122 -2.584
24 CP1 123 -2.584
24 CP1 124 -2.584
24 CP1 125 -2.584
24 CP1 126 -2.096
24 CP1 127 -0.631
24 CP1 128 0.834
24 CP1 129 1.811
24 CP1 130 2.299
24 CP1 131 2.299
24 CP1 132 1.811
24 CP1 133 1.811
24 CP1 134 1.811
24 CP1 135 2.299
24 CP1 136 1.322
24 CP1 137 0.346
24 CP1 138 -1.119
24 CP1 139 -2.096
24 CP1 140 -1.119
24 CP1 141 -0.142
24 CP1 142 1.811
24 CP1 143 3.276
24 CP1 144 3.764
24 CP1 145 3.276
24 CP1 146 2.787
24 CP1 147 2.299
24 CP1 148 1.811
24 CP1 149 1.811
24 CP1 150 1.322
24 CP1 151 0.834
24 CP1 152 0.834
24 CP1 153 1.322
24 CP1 154 1.811
24 CP1 155 2.787
24 CP1 156 3.276
24 CP1 157 3.276
24 CP1 158 3.764
24 CP1 159 3.276
24 CP1 160 2.787
24 CP1 161 2.299
24 CP1 162 1.322
24 CP1 163 0.346
24 CP1 164 -0.142
24 CP1 165 -0.631
24 CP1 166 -0.142
24 CP1 167 0.346
24 CP1 168 0.834
24 CP1 169 1.322
24 CP1 170 1.811
24 CP1 171 2.299
24 CP1 172 2.787
24 CP1 173 3.276
24 CP1 174 3.764
24 CP1 175 3.764
24 CP1 176 2.787
24 CP1 177 2.299
24 CP1 178 1.811
24 CP1 179 1.811
24 CP1 180 2.787
24 CP1 181 3.276
24 CP1 182 3.764
24 CP1 183 3.764
24 CP1 184 3.764
24 CP1 185 4.252
24 CP1 186 5.229
24 CP1 187 5.717
24 CP1 188 6.205
24 CP1 189 6.694
24 CP1 190 6.694
24 CP1 191 6.694
24 CP1 192 7.182
24 CP1 193 6.694
24 CP1 194 6.205
24 CP1 195 4.740
24 CP1 196 3.764
24 CP1 197 2.787
24 CP1 198 2.299
24 CP1 199 3.276
24 CP1 200 3.764
24 CP1 201 4.252
24 CP1 202 4.252
24 CP1 203 3.764
24 CP1 204 3.764
24 CP1 205 4.252
24 CP1 206 5.229
24 CP1 207 6.205
24 CP1 208 6.694
24 CP1 209 6.205
24 CP1 210 5.717
24 CP1 211 5.717
24 CP1 212 6.205
24 CP1 213 7.182
24 CP1 214 8.158
24 CP1 215 8.158
24 CP1 216 6.694
24 CP1 217 5.229
24 CP1 218 4.740
24 CP1 219 5.717
24 CP1 220 7.670
24 CP1 221 8.647
24 CP1 222 8.647
24 CP1 223 7.182
24 CP1 224 4.740
24 CP1 225 3.764
24 CP1 226 4.252
24 CP1 227 5.229
24 CP1 228 6.205
24 CP1 229 6.205
24 CP1 230 6.205
24 CP1 231 6.205
24 CP1 232 6.205
24 CP1 233 7.182
24 CP1 234 8.158
24 CP1 235 8.647
24 CP1 236 8.647
24 CP1 237 8.647
24 CP1 238 8.158
24 CP1 239 8.158
24 CP1 240 8.158
24 CP1 241 8.647
24 CP1 242 8.647
24 CP1 243 9.135
24 CP1 244 8.647
24 CP1 245 9.135
24 CP1 246 9.623
24 CP1 247 10.600
24 CP1 248 11.576
24 CP1 249 12.553
24 CP1 250 13.041
24 CP1 251 12.553
24 CP1 252 11.576
24 CP1 253 10.600
24 CP1 254 9.623
24 CP1 255 8.647
# CP2 chan 21
24 CP2 0 0.570
24 CP2 1 0.570
24 CP2 2 0.570
24 CP2 3 1.058
24 CP2 4 2.035
24 CP2 5 2.035
24 CP2 6 2.523
24 CP2 7 2.035
24 CP2 8 1.058
24 CP2 9 -0.407
24 CP2 10 -1.383
24 CP2 11 -1.383
24 CP2 12 -0.895
24 CP2 13 0.081
24 CP2 14 2.035
24 CP2 15 3.011
24 CP2 16 3.988
24 CP2 17 3.988
24 CP2 18 3.499
24 CP2 19 2.523
24 CP2 20 2.035
24 CP2 21 2.035
24 CP2 22 2.035
24 CP2 23 2.523
24 CP2 24 2.523
24 CP2 25 3.011
24 CP2 26 3.499
24 CP2 27 4.476
24 CP2 28 5.452
24 CP2 29 4.964
24 CP2 30 3.988
24 CP2 31 2.035
24 CP2 32 1.058
24 CP2 33 0.081
24 CP2 34 0.081
24 CP2 35 0.570
24 CP2 36 0.570
24 CP2 37 1.058
24 CP2 38 1.058
24 CP2 39 1.546
24 CP2 40 1.546
24 CP2 41 0.570
24 CP2 42 0.081
24 CP2 43 -1.383
24 CP2 44 -2.360
24 CP2 45 -2.848
24 CP2 46 -2.848
24 CP2 47 -2.848
24 CP2 48 -2.360
24 CP2 49 -1.872
24 CP2 50 -0.895
24 CP2 51 0.081
24 CP2 52 1.546
24 CP2 53 2.035
24 CP2 54 2.523
24 CP2 55 2.035
24 CP2 56 2.035
24 CP2 57 2.523
24 CP2 58 3.011
24 CP2 59 3.011
24 CP2 60 3.011
24 CP2 61 2.035
24 CP2 62 1.058
24 CP2 63 0.081
24 CP2 64 -0.895
24 CP2 65 -0.895
24 CP2 66 0.081
24 CP2 67 0.570
24 CP2 68 1.546
24 CP2 69 2.035
24 CP2 70 2.523
24 CP2 71 3.011
24 CP2 72 3.011
24 CP2 73 3.011
24 CP2 74 3.011
24 CP2 75 3.011
24 CP2 76 3.011
24 CP2 77 3.499
24 CP2 78 3.988
24 CP2 79 4.476
24 CP2 80 4.964
24 CP2 81 4.964
24 CP2 82 4.476
24 CP2 83 4.476
24 CP2 84 4.964
24 CP2 85 5.452
24 CP2 86 4.964
24 CP2 87 3.988
24 CP2 88 3.011
24 CP2 89 2.035
24 CP2 90 2.035
24 CP2 91 2.035
24 CP2 92 2.523
24 CP2 93 3.011
24 CP2 94 3.988
24 CP2 95 3.988
24 CP2 96 3.988
24 CP2 97 3.499
24 CP2 98 3.011
24 CP2 99 2.035
24 CP2 100 0.570
24 CP2 101 -0.407
24 CP2 102 -0.895
24 CP2 103 -0.895
24 CP2 104 -0.407
24 CP2 105 0.081
24 CP2 106 0.570
24 CP2 107 1.058
24 CP2 108 1.058
24 CP2 109 0.570
24 CP2 110 0.081
24 CP2 111 -0.895
24 CP2 112 -1.383
24 CP2 113 -1.383
24 CP2 114 -0.895
24 CP2 115 -0.407
24 CP2 116 0.081
24 CP2 117 0.570
24 CP2 118 0.570
24 CP2 119 0.081
24 CP2 120 0.081
24 CP2 121 -0.407
24 CP2 122 -0.407
24 CP2 123 -0.407
24 CP2 124 -0.407
24 CP2 125 -0.407
24 CP2 126 -0.407
24 CP2 127 0.081
24 CP2 128 0.081
24 CP2 129 0.081
24 CP2 130 -0.407
24 CP2 131 -1.383
24 CP2 132 -1.872
24 CP2 133 -1.872
24 CP2 134 -0.895
24 CP2 135 -0.407
24 CP2 136 0.570
24 CP2 137 1.058
24 CP2 138 1.058
24 CP2 139 0.570
24 CP2 140 0.570
24 CP2 141 0.570
24 CP2 142 0.081
24 CP2 143 0.081
24 CP2 144 0.081
24 CP2 145 -0.407
24 CP2 146 -0.407
24 CP2 147 -0.407
24 CP2 148 0.081
24 CP2 149 0.081
24 CP2 150 0.081
24 CP2 151 0.570
24 CP2 152 1.058
24 CP2 153 1.058
24 CP2 154 1.058
24 CP2 155 0.570
24 CP2 156 0.081
24 CP2 157 0.081
24 CP2 158 0.081
24 CP2 159 0.081
24 CP2 160 0.081
24 CP2 161 0.570
24 CP2 162 0.570
24 CP2 163 0.081
24 CP2 164 0.081
24 CP2 165 0.081
24 CP2 166 0.081
24 CP2 167 -0.407
24 CP2 168 -0.407
24 CP2 169 -0.407
24 CP2 170 0.081
24 CP2 171 0.081
24 CP2 172 0.081
24 CP2 173 0.081
24 CP2 174 0.081
24 CP2 175 0.081
24 CP2 176 -0.407
24 CP2 177 0.081
24 CP2 178 1.058
24 CP2 179 1.546
24 CP2 180 1.546
24 CP2 181 1.546
24 CP2 182 1.546
24 CP2 183 2.035
24 CP2 184 2.035
24 CP2 185 2.523
24 CP2 186 2.523
24 CP2 187 2.035
24 CP2 188 2.035
24 CP2 189 2.035
24 CP2 190 2.035
24 CP2 191 1.546
24 CP2 192 1.546
24 CP2 193 1.546
24 CP2 194 1.546
24 CP2 195 1.058
24 CP2 196 1.058
24 CP2 197 0.570
24 CP2 198 1.058
24 CP2 199 1.546
24 CP2 200 2.523
24 CP2 201 3.011
24 CP2 202 3.988
24 CP2 203 3.988
24 CP2 204 3.988
24 CP2 205 3.988
24 CP2 206 3.499
24 CP2 207 3.011
24 CP2 208 2.035
24 CP2 209 1.058
24 CP2 210 0.570
24 CP2 211 0.570
24 CP2 212 2.035
24 CP2 213 3.988
24 CP2 214 4.964
24 CP2 215 5.452
24 CP2 216 3.988
24 CP2 217 2.035
24 CP2 218 0.081
24 CP2 219 0.081
24 CP2 220 0.570
24 CP2 221 1.546
24 CP2 222 2.035
24 CP2 223 1.058
24 CP2 224 0.081
24 CP2 225 -0.407
24 CP2 226 0.081
24 CP2 227 1.058
24 CP2 228 1.546
24 CP2 229 2.035
24 CP2 230 1.546
24 CP2 231 1.058
24 CP2 232 0.570
24 CP2 233 1.546
24 CP2 234 2.035
24 CP2 235 3.011
24 CP2 236 3.011
24 CP2 237 2.035
24 CP2 238 1.546
24 CP2 239 1.058
24 CP2 240 0.570
24 CP2 241 0.570
24 CP2 242 0.570
24 CP2 243 0.570
24 CP2 244 0.570
24 CP2 245 0.570
24 CP2 246 0.570
24 CP2 247 1.546
24 CP2 248 2.035
24 CP2 249 3.011
24 CP2 250 4.476
24 CP2 251 4.964
24 CP2 252 4.964
24 CP2 253 3.988
24 CP2 254 2.523
24 CP2 255 1.546
# P3 chan 22
24 P3 0 2.706
24 P3 1 4.171
24 P3 2 5.636
24 P3 3 5.636
24 P3 4 5.636
24 P3 5 4.659
24 P3 6 3.194
24 P3 7 1.241
24 P3 8 -0.224
24 P3 9 -2.177
24 P3 10 -3.153
24 P3 11 -3.642
24 P3 12 -3.153
24 P3 13 -2.177
24 P3 14 -1.200
24 P3 15 -0.224
24 P3 16 -0.224
24 P3 17 -0.712
24 P3 18 -1.689
24 P3 19 -1.200
24 P3 20 1.241
24 P3 21 5.147
24 P3 22 10.030
24 P3 23 13.936
24 P3 24 16.866
24 P3 25 18.331
24 P3 26 18.331
24 P3 27 17.843
24 P3 28 16.378
24 P3 29 13.936
24 P3 30 11.007
24 P3 31 7.589
24 P3 32 5.147
24 P3 33 4.659
24 P3 34 5.636
24 P3 35 6.612
24 P3 36 5.636
24 P3 37 2.706
24 P3 38 -1.200
24 P3 39 -4.618
24 P3 40 -7.060
24 P3 41 -7.060
24 P3 42 -6.571
24 P3 43 -5.595
24 P3 44 -5.107
24 P3 45 -4.618
24 P3 46 -3.642
24 P3 47 -2.177
24 P3 48 -0.712
24 P3 49 0.753
24 P3 50 1.241
24 P3 51 2.218
24 P3 52 3.194
24 P3 53 4.659
24 P3 54 5.636
24 P3 55 5.636
24 P3 56 6.124
24 P3 57 6.612
24 P3 58 7.589
24 P3 59 9.054
24 P3 60 9.542
24 P3 61 8.565
24 P3 62 6.612
24 P3 63 5.636
24 P3 64 5.636
24 P3 65 7.589
24 P3 66 9.542
24 P3 67 11.007
24 P3 68 10.518
24 P3 69 9.542
24 P3 70 8.077
24 P3 71 6.612
24 P3 72 5.636
24 P3 73 4.659
24 P3 74 3.682
24 P3 75 2.218
24 P3 76 1.729
24 P3 77 2.218
24 P3 78 3.682
24 P3 79 4.171
24 P3 80 3.682
24 P3 81 2.706
24 P3 82 2.218
24 P3 83 2.706
24 P3 84 4.171
24 P3 85 6.124
24 P3 86 7.589
24 P3 87 8.565
24 P3 88 8.077
24 P3 89 7.100
24 P3 90 5.147
24 P3 91 2.706
24 P3 92 0.753
24 P3 93 -1.200
24 P3 94 -2.177
24 P3 95 -2.177
24 P3 96 -2.665
24 P3 97 -3.153
24 P3 98 -4.130
24 P3 99 -5.107
24 P3 100 -5.107
24 P3 101 -3.153
24 P3 102 -1.200
24 P3 103 -0.224
24 P3 104 -0.224
24 P3 105 -1.689
24 P3 106 -3.642
24 P3 107 -6.083
24 P3 108 -7.548
24 P3 109 -8.525
24 P3 110 -8.036
24 P3 111 -7.548
24 P3 112 -6.083
24 P3 113 -4.130
24 P3 114 -2.665
24 P3 115 -1.200
24 P3 116 -1.689
24 P3 117 -2.665
24 P3 118 -3.642
24 P3 119 -4.618
24 P3 120 -5.107
24 P3 121 -4.618
24 P3 122 -5.107
24 P3 123 -6.083
24 P3 124 -6.571
24 P3 125 -7.060
24 P3 126 -6.083
24 P3 127 -3.642
24 P3 128 -1.689
24 P3 129 -0.224
24 P3 130 -0.224
24 P3 131 -1.689
24 P3 132 -2.665
24 P3 133 -3.153
24 P3 134 -3.153
24 P3 135 -3.153
24 P3 136 -4.130
24 P3 137 -5.595
24 P3 138 -6.571
24 P3 139 -7.060
24 P3 140 -5.107
24 P3 141 -2.665
24 P3 142 -0.224
24 P3 143 1.729
24 P3 144 2.218
24 P3 145 1.729
24 P3 146 0.753
24 P3 147 -0.224
24 P3 148 -0.712
24 P3 149 -1.200
24 P3 150 -1.200
24 P3 151 -0.712
24 P3 152 -0.224
24 P3 153 0.753
24 P3 154 1.729
24 P3 155 2.218
24 P3 156 2.218
24 P3 157 1.729
24 P3 158 2.218
24 P3 159 1.729
24 P3 160 0.753
24 P3 161 -1.200
24 P3 162 -3.642
24 P3 163 -6.083
24 P3 164 -7.548
24 P3 165 -8.036
24 P3 166 -8.036
24 P3 167 -7.548
24 P3 168 -7.060
24 P3 169 -6.083
24 P3 170 -4.618
24 P3 171 -2.665
24 P3 172 -1.200
24 P3 173 -0.712
24 P3 174 -1.689
24 P3 175 -3.642
24 P3 176 -5.595
24 P3 177 -6.571
24 P3 178 -7.060
24 P3 179 -6.571
24 P3 180 -6.571
24 P3 181 -6.083
24 P3 182 -6.083
24 P3 183 -5.595
24 P3 184 -4.618
24 P3 185 -3.153
24 P3 186 -1.689
24 P3 187 -0.712
24 P3 188 -0.224
24 P3 189 -0.224
24 P3 190 0.264
24 P3 191 0.753
24 P3 192 1.241
24 P3 193 0.753
24 P3 194 -0.224
24 P3 195 -2.665
24 P3 196 -5.107
24 P3 197 -7.060
24 P3 198 -8.036
24 P3 199 -7.060
24 P3 200 -6.083
24 P3 201 -5.107
24 P3 202 -5.107
24 P3 203 -5.595
24 P3 204 -6.083
24 P3 205 -5.595
24 P3 206 -4.618
24 P3 207 -4.130
24 P3 208 -4.130
24 P3 209 -4.618
24 P3 210 -5.595
24 P3 211 -5.595
24 P3 212 -4.130
24 P3 213 -2.177
24 P3 214 -0.712
24 P3 215 -1.200
24 P3 216 -3.642
24 P3 217 -6.083
24 P3 218 -7.548
24 P3 219 -7.060
24 P3 220 -5.107
24 P3 221 -4.618
24 P3 222 -6.083
24 P3 223 -9.013
24 P3 224 -11.454
24 P3 225 -12.431
24 P3 226 -10.966
24 P3 227 -8.525
24 P3 228 -6.571
24 P3 229 -6.083
24 P3 230 -6.571
24 P3 231 -7.060
24 P3 232 -6.571
24 P3 233 -4.618
24 P3 234 -2.665
24 P3 235 -1.200
24 P3 236 -0.712
24 P3 237 -0.712
24 P3 238 -1.200
24 P3 239 -1.200
24 P3 240 -1.689
24 P3 241 -2.177
24 P3 242 -2.665
24 P3 243 -3.153
24 P3 244 -3.642
24 P3 245 -3.153
24 P3 246 -2.665
24 P3 247 -0.712
24 P3 248 1.729
24 P3 249 4.659
24 P3 250 6.124
24 P3 251 6.124
24 P3 252 4.171
24 P3 253 1.241
24 P3 254 -1.200
24 P3 255 -3.153
# P4 chan 23
24 P4 0 2.584
24 P4 1 4.537
24 P4 2 6.002
24 P4 3 6.978
24 P4 4 6.978
24 P4 5 6.002
24 P4 6 4.537
24 P4 7 2.096
24 P4 8 -0.346
24 P4 9 -1.811
24 P4 10 -2.787
24 P4 11 -2.299
24 P4 12 -1.322
24 P4 13 0.631
24 P4 14 3.072
24 P4 15 5.025
24 P4 16 6.002
24 P4 17 6.002
24 P4 18 5.025
24 P4 19 4.049
24 P4 20 4.049
24 P4 21 5.025
24 P4 22 6.002
24 P4 23 6.978
24 P4 24 7.955
24 P4 25 8.931
24 P4 26 10.396
24 P4 27 12.349
24 P4 28 13.326
24 P4 29 12.838
24 P4 30 10.396
24 P4 31 7.467
24 P4 32 4.537
24 P4 33 3.072
24 P4 34 3.072
24 P4 35 3.560
24 P4 36 3.560
24 P4 37 3.072
24 P4 38 1.607
24 P4 39 0.631
24 P4 40 -0.834
24 P4 41 -1.811
24 P4 42 -2.787
24 P4 43 -4.252
24 P4 44 -4.740
24 P4 45 -5.229
24 P4 46 -4.740
24 P4 47 -4.252
24 P4 48 -3.276
24 P4 49 -1.322
24 P4 50 1.119
24 P4 51 3.560
24 P4 52 6.002
24 P4 53 7.467
24 P4 54 7.467
24 P4 55 6.978
24 P4 56 6.978
24 P4 57 6.978
24 P4 58 7.467
24 P4 59 7.467
24 P4 60 7.467
24 P4 61 6.490
24 P4 62 5.025
24 P4 63 4.049
24 P4 64 3.560
24 P4 65 3.560
24 P4 66 4.049
24 P4 67 5.025
24 P4 68 5.514
24 P4 69 5.514
24 P4 70 6.490
24 P4 71 6.490
24 P4 72 6.490
24 P4 73 6.002
24 P4 74 5.514
24 P4 75 5.025
24 P4 76 4.537
24 P4 77 4.537
24 P4 78 5.025
24 P4 79 6.002
24 P4 80 6.002
24 P4 81 6.002
24 P4 82 6.002
24 P4 83 6.978
24 P4 84 7.467
24 P4 85 8.931
24 P4 86 9.420
24 P4 87 8.931
24 P4 88 7.955
24 P4 89 6.002
24 P4 90 4.049
24 P4 91 2.584
24 P4 92 1.607
24 P4 93 2.096
24 P4 94 2.584
24 P4 95 3.072
24 P4 96 3.560
24 P4 97 2.584
24 P4 98 1.607
24 P4 99 0.142
24 P4 100 -1.322
24 P4 101 -1.811
24 P4 102 -1.811
24 P4 103 -0.834
24 P4 104 -0.834
24 P4 105 -0.834
24 P4 106 -1.322
24 P4 107 -1.811
24 P4 108 -1.811
24 P4 109 -2.299
24 P4 110 -2.787
24 P4 111 -3.764
24 P4 112 -5.229
24 P4 113 -5.229
24 P4 114 -4.740
24 P4 115 -3.764
24 P4 116 -2.787
24 P4 117 -2.787
24 P4 118 -2.787
24 P4 119 -3.764
24 P4 120 -4.252
24 P4 121 -3.764
24 P4 122 -3.276
24 P4 123 -3.276
24 P4 124 -3.764
24 P4 125 -4.252
24 P4 126 -3.764
24 P4 127 -2.787
24 P4 128 -1.322
24 P4 129 -0.834
24 P4 130 -1.322
24 P4 131 -2.787
24 P4 132 -4.740
24 P4 133 -5.229
24 P4 134 -4.252
24 P4 135 -2.787
24 P4 136 -1.322
24 P4 137 -0.834
24 P4 138 -0.834
24 P4 139 -0.346
24 P4 140 -0.346
24 P4 141 -0.346
24 P4 142 -0.346
24 P4 143 -1.322
24 P4 144 -2.299
24 P4 145 -2.787
24 P4 146 -2.787
24 P4 147 -2.299
24 P4 148 -2.787
24 P4 149 -3.276
24 P4 150 -3.764
24 P4 151 -3.764
24 P4 152 -2.787
24 P4 153 -1.811
24 P4 154 -1.322
24 P4 155 -1.811
24 P4 156 -2.299
24 P4 157 -2.787
24 P4 158 -2.787
24 P4 159 -2.299
24 P4 160 -1.811
24 P4 161 -1.811
24 P4 162 -3.276
24 P4 163 -4.740
24 P4 164 -5.717
24 P4 165 -5.717
24 P4 166 -5.229
24 P4 167 -4.740
24 P4 168 -4.740
24 P4 169 -4.740
24 P4 170 -4.740
24 P4 171 -4.252
24 P4 172 -3.764
24 P4 173 -3.764
24 P4 174 -4.740
24 P4 175 -5.229
24 P4 176 -6.205
24 P4 177 -5.717
24 P4 178 -4.252
24 P4 179 -2.299
24 P4 180 -1.322
24 P4 181 -0.834
24 P4 182 -0.346
24 P4 183 -0.346
24 P4 184 0.142
24 P4 185 1.119
24 P4 186 1.607
24 P4 187 1.607
24 P4 188 1.607
24 P4 189 0.631
24 P4 190 0.142
24 P4 191 0.142
24 P4 192 0.142
24 P4 193 -0.834
24 P4 194 -0.834
24 P4 195 -1.811
24 P4 196 -2.787
24 P4 197 -3.764
24 P4 198 -3.764
24 P4 199 -2.787
24 P4 200 -0.834
24 P4 201 1.119
24 P4 202 3.072
24 P4 203 4.049
24 P4 204 4.049
24 P4 205 3.560
24 P4 206 3.072
24 P4 207 2.096
24 P4 208 1.119
24 P4 209 -0.346
24 P4 210 -1.811
24 P4 211 -1.811
24 P4 212 -0.834
24 P4 213 1.607
24 P4 214 3.560
24 P4 215 4.049
24 P4 216 2.096
24 P4 217 -0.346
24 P4 218 -2.299
24 P4 219 -2.299
24 P4 220 -0.346
24 P4 221 0.631
24 P4 222 0.631
24 P4 223 -0.834
24 P4 224 -2.787
24 P4 225 -3.764
24 P4 226 -2.787
24 P4 227 -0.834
24 P4 228 0.631
24 P4 229 0.142
24 P4 230 -0.346
24 P4 231 -0.834
24 P4 232 -0.834
24 P4 233 1.119
24 P4 234 3.072
24 P4 235 4.049
24 P4 236 3.560
24 P4 237 2.096
24 P4 238 0.631
24 P4 239 -0.346
24 P4 240 -0.834
24 P4 241 -1.322
24 P4 242 -1.322
24 P4 243 -1.322
24 P4 244 -1.322
24 P4 245 -0.346
24 P4 246 0.142
24 P4 247 1.607
24 P4 248 3.560
24 P4 249 6.002
24 P4 250 8.931
24 P4 251 10.885
24 P4 252 10.885
24 P4 253 8.443
24 P4 254 5.025
24 P4 255 2.096
# PZ chan 24
24 PZ 0 1.017
24 PZ 1 1.994
24 PZ 2 2.970
24 PZ 3 3.459
24 PZ 4 3.459
24 PZ 5 2.970
24 PZ 6 1.994
24 PZ 7 0.529
24 PZ 8 -0.936
24 PZ 9 -2.401
24 PZ 10 -3.377
24 PZ 11 -4.354
24 PZ 12 -3.866
24 PZ 13 -2.889
24 PZ 14 -1.912
24 PZ 15 -0.936
24 PZ 16 -0.448
24 PZ 17 -0.936
24 PZ 18 -1.424
24 PZ 19 -1.424
24 PZ 20 -0.448
24 PZ 21 1.994
24 PZ 22 4.435
24 PZ 23 6.877
24 PZ 24 8.341
24 PZ 25 8.830
24 PZ 26 9.318
24 PZ 27 9.318
24 PZ 28 8.830
24 PZ 29 7.853
24 PZ 30 5.412
24 PZ 31 2.970
24 PZ 32 0.529
24 PZ 33 -0.448
24 PZ 34 0.529
24 PZ 35 1.506
24 PZ 36 1.994
24 PZ 37 1.017
24 PZ 38 -1.424
24 PZ 39 -3.866
24 PZ 40 -5.819
24 PZ 41 -6.795
24 PZ 42 -7.772
24 PZ 43 -7.772
24 PZ 44 -7.284
24 PZ 45 -7.284
24 PZ 46 -6.795
24 PZ 47 -6.795
24 PZ 48 -6.307
24 PZ 49 -5.330
24 PZ 50 -4.842
24 PZ 51 -3.866
24 PZ 52 -2.401
24 PZ 53 -1.424
24 PZ 54 -1.424
24 PZ 55 -1.424
24 PZ 56 -1.424
24 PZ 57 -0.936
24 PZ 58 -0.448
24 PZ 59 0.529
24 PZ 60 0.041
24 PZ 61 -1.424
24 PZ 62 -3.377
24 PZ 63 -5.330
24 PZ 64 -6.307
24 PZ 65 -6.307
24 PZ 66 -5.330
24 PZ 67 -3.866
24 PZ 68 -2.889
24 PZ 69 -2.401
24 PZ 70 -2.889
24 PZ 71 -2.889
24 PZ 72 -3.377
24 PZ 73 -3.377
24 PZ 74 -3.866
24 PZ 75 -3.866
24 PZ 76 -3.866
24 PZ 77 -3.866
24 PZ 78 -2.889
24 PZ 79 -2.889
24 PZ 80 -2.401
24 PZ 81 -2.889
24 PZ 82 -3.377
24 PZ 83 -2.889
24 PZ 84 -2.401
24 PZ 85 -0.936
24 PZ 86 -0.448
24 PZ 87 -0.448
24 PZ 88 -1.424
24 PZ 89 -3.377
24 PZ 90 -4.842
24 PZ 91 -6.795
24 PZ 92 -8.260
24 PZ 93 -8.748
24 PZ 94 -8.748
24 PZ 95 -8.748
24 PZ 96 -8.748
24 PZ 97 -9.237
24 PZ 98 -9.725
24 PZ 99 -10.701
24 PZ 100 -11.190
24 PZ 101 -11.190
24 PZ 102 -10.701
24 PZ 103 -10.701
24 PZ 104 -10.701
24 PZ 105 -11.678
24 PZ 106 -12.655
24 PZ 107 -13.143
24 PZ 108 -13.143
24 PZ 109 -13.143
24 PZ 110 -13.143
24 PZ 111 -13.143
24 PZ 112 -13.143
24 PZ 113 -12.655
24 PZ 114 -12.166
24 PZ 115 -11.190
24 PZ 116 -10.701
24 PZ 117 -11.190
24 PZ 118 -11.678
24 PZ 119 -11.678
24 PZ 120 -10.701
24 PZ 121 -10.701
24 PZ 122 -10.213
24 PZ 123 -10.701
24 PZ 124 -11.678
24 PZ 125 -12.166
24 PZ 126 -11.678
24 PZ 127 -10.213
24 PZ 128 -8.748
24 PZ 129 -7.772
24 PZ 130 -8.260
24 PZ 131 -9.237
24 PZ 132 -9.725
24 PZ 133 -9.725
24 PZ 134 -9.237
24 PZ 135 -8.748
24 PZ 136 -9.237
24 PZ 137 -9.725
24 PZ 138 -10.701
24 PZ 139 -11.190
24 PZ 140 -10.701
24 PZ 141 -10.213
24 PZ 142 -9.237
24 PZ 143 -8.748
24 PZ 144 -8.748
24 PZ 145 -9.725
24 PZ 146 -10.213
24 PZ 147 -10.701
24 PZ 148 -11.190
24 PZ 149 -11.190
24 PZ 150 -11.190
24 PZ 151 -10.701
24 PZ 152 -10.213
24 PZ 153 -9.237
24 PZ 154 -8.748
24 PZ 155 -8.748
24 PZ 156 -8.748
24 PZ 157 -8.748
24 PZ 158 -8.260
24 PZ 159 -8.260
24 PZ 160 -8.260
24 PZ 161 -9.725
24 PZ 162 -11.190
24 PZ 163 -12.655
24 PZ 164 -14.119
24 PZ 165 -14.608
24 PZ 166 -14.608
24 PZ 167 -14.608
24 PZ 168 -14.119
24 PZ 169 -13.631
24 PZ 170 -13.631
24 PZ 171 -13.143
24 PZ 172 -12.655
24 PZ 173 -12.166
24 PZ 174 -12.655
24 PZ 175 -14.119
24 PZ 176 -15.584
24 PZ 177 -16.561
24 PZ 178 -16.561
24 PZ 179 -16.073
24 PZ 180 -15.584
24 PZ 181 -15.096
24 PZ 182 -14.608
24 PZ 183 -14.608
24 PZ 184 -14.119
24 PZ 185 -12.655
24 PZ 186 -11.190
24 PZ 187 -9.725
24 PZ 188 -9.725
24 PZ 189 -9.725
24 PZ 190 -10.213
24 PZ 191 -10.701
24 PZ 192 -11.190
24 PZ 193 -11.678
24 PZ 194 -12.166
24 PZ 195 -13.631
24 PZ 196 -15.584
24 PZ 197 -16.073
24 PZ 198 -16.073
24 PZ 199 -15.096
24 PZ 200 -13.143
24 PZ 201 -11.678
24 PZ 202 -11.190
24 PZ 203 -11.678
24 PZ 204 -11.678
24 PZ 205 -11.678
24 PZ 206 -11.190
24 PZ 207 -10.701
24 PZ 208 -11.190
24 PZ 209 -12.166
24 PZ 210 -13.143
24 PZ 211 -14.119
24 PZ 212 -13.143
24 PZ 213 -11.678
24 PZ 214 -10.213
24 PZ 215 -10.701
24 PZ 216 -12.655
24 PZ 217 -15.096
24 PZ 218 -16.561
24 PZ 219 -16.073
24 PZ 220 -14.119
24 PZ 221 -12.655
24 PZ 222 -12.166
24 PZ 223 -13.631
24 PZ 224 -15.584
24 PZ 225 -16.561
24 PZ 226 -16.073
24 PZ 227 -14.608
24 PZ 228 -13.143
24 PZ 229 -12.655
24 PZ 230 -13.631
24 PZ 231 -14.119
24 PZ 232 -13.631
24 PZ 233 -12.166
24 PZ 234 -9.725
24 PZ 235 -8.260
24 PZ 236 -7.772
24 PZ 237 -8.260
24 PZ 238 -9.237
24 PZ 239 -10.701
24 PZ 240 -11.678
24 PZ 241 -11.678
24 PZ 242 -12.166
24 PZ 243 -12.655
24 PZ 244 -13.631
24 PZ 245 -13.631
24 PZ 246 -13.143
24 PZ 247 -12.166
24 PZ 248 -10.701
24 PZ 249 -8.748
24 PZ 250 -7.284
24 PZ 251 -6.307
24 PZ 252 -7.284
24 PZ 253 -9.725
24 PZ 254 -12.166
24 PZ 255 -14.119
# P8 chan 25
24 P8 0 4.425
24 P8 1 8.820
24 P8 2 11.749
24 P8 3 12.726
24 P8 4 11.261
24 P8 5 6.866
24 P8 6 1.984
24 P8 7 -2.899
24 P8 8 -5.341
24 P8 9 -6.805
24 P8 10 -6.805
24 P8 11 -5.341
24 P8 12 -2.899
24 P8 13 0.031
24 P8 14 3.937
24 P8 15 7.355
24 P8 16 8.820
24 P8 17 7.843
24 P8 18 5.890
24 P8 19 3.937
24 P8 20 2.960
24 P8 21 3.448
24 P8 22 4.913
24 P8 23 6.378
24 P8 24 7.355
24 P8 25 8.331
24 P8 26 10.284
24 P8 27 13.214
24 P8 28 16.144
24 P8 29 16.632
24 P8 30 14.679
24 P8 31 11.261
24 P8 32 7.843
24 P8 33 5.890
24 P8 34 5.402
24 P8 35 5.402
24 P8 36 4.425
24 P8 37 2.472
24 P8 38 -0.946
24 P8 39 -3.876
24 P8 40 -5.829
24 P8 41 -7.294
24 P8 42 -8.759
24 P8 43 -9.247
24 P8 44 -9.735
24 P8 45 -9.247
24 P8 46 -7.782
24 P8 47 -6.317
24 P8 48 -4.852
24 P8 49 -3.876
24 P8 50 -1.923
24 P8 51 1.007
24 P8 52 3.448
24 P8 53 5.402
24 P8 54 6.378
24 P8 55 5.890
24 P8 56 4.913
24 P8 57 4.425
24 P8 58 4.425
24 P8 59 4.913
24 P8 60 5.890
24 P8 61 6.378
24 P8 62 5.890
24 P8 63 5.402
24 P8 64 4.913
24 P8 65 4.913
24 P8 66 4.913
24 P8 67 5.890
24 P8 68 6.866
24 P8 69 7.355
24 P8 70 7.355
24 P8 71 6.866
24 P8 72 5.890
24 P8 73 4.425
24 P8 74 2.960
24 P8 75 1.984
24 P8 76 1.495
24 P8 77 1.495
24 P8 78 1.495
24 P8 79 1.984
24 P8 80 1.984
24 P8 81 1.984
24 P8 82 1.984
24 P8 83 2.960
24 P8 84 4.425
24 P8 85 6.378
24 P8 86 8.820
24 P8 87 10.284
24 P8 88 9.796
24 P8 89 8.331
24 P8 90 5.890
24 P8 91 2.960
24 P8 92 1.007
24 P8 93 -0.458
24 P8 94 -0.458
24 P8 95 -0.458
24 P8 96 -0.458
24 P8 97 -1.434
24 P8 98 -2.899
24 P8 99 -4.364
24 P8 100 -4.852
24 P8 101 -4.364
24 P8 102 -3.387
24 P8 103 -2.899
24 P8 104 -2.899
24 P8 105 -3.876
24 P8 106 -4.852
24 P8 107 -5.341
24 P8 108 -4.852
24 P8 109 -4.852
24 P8 110 -5.341
24 P8 111 -6.805
24 P8 112 -9.247
24 P8 113 -10.712
24 P8 114 -10.712
24 P8 115 -9.247
24 P8 116 -7.782
24 P8 117 -6.805
24 P8 118 -7.782
24 P8 119 -8.759
24 P8 120 -10.223
24 P8 121 -10.223
24 P8 122 -10.223
24 P8 123 -10.223
24 P8 124 -10.712
24 P8 125 -11.200
24 P8 126 -11.200
24 P8 127 -10.712
24 P8 128 -9.247
24 P8 129 -8.759
24 P8 130 -10.712
24 P8 131 -13.641
24 P8 132 -16.083
24 P8 133 -17.059
24 P8 134 -15.594
24 P8 135 -12.665
24 P8 136 -9.735
24 P8 137 -7.782
24 P8 138 -7.294
24 P8 139 -6.805
24 P8 140 -6.805
24 P8 141 -6.317
24 P8 142 -6.805
24 P8 143 -7.294
24 P8 144 -8.759
24 P8 145 -9.247
24 P8 146 -9.735
24 P8 147 -9.735
24 P8 148 -9.247
24 P8 149 -10.223
24 P8 150 -11.200
24 P8 151 -11.200
24 P8 152 -10.712
24 P8 153 -9.247
24 P8 154 -8.759
24 P8 155 -9.247
24 P8 156 -10.712
24 P8 157 -12.665
24 P8 158 -13.153
24 P8 159 -12.177
24 P8 160 -10.712
24 P8 161 -9.735
24 P8 162 -10.712
24 P8 163 -12.665
24 P8 164 -14.618
24 P8 165 -16.083
24 P8 166 -16.083
24 P8 167 -15.594
24 P8 168 -15.594
24 P8 169 -16.083
24 P8 170 -16.083
24 P8 171 -15.594
24 P8 172 -15.106
24 P8 173 -14.618
24 P8 174 -15.106
24 P8 175 -16.571
24 P8 176 -17.548
24 P8 177 -17.059
24 P8 178 -15.594
24 P8 179 -13.153
24 P8 180 -11.200
24 P8 181 -10.223
24 P8 182 -9.735
24 P8 183 -9.735
24 P8 184 -8.270
24 P8 185 -6.317
24 P8 186 -4.364
24 P8 187 -2.899
24 P8 188 -3.387
24 P8 189 -4.364
24 P8 190 -5.341
24 P8 191 -5.829
24 P8 192 -5.341
24 P8 193 -4.852
24 P8 194 -5.341
24 P8 195 -6.317
24 P8 196 -7.294
24 P8 197 -8.270
24 P8 198 -8.759
24 P8 199 -7.782
24 P8 200 -6.317
24 P8 201 -4.364
24 P8 202 -1.923
24 P8 203 -0.946
24 P8 204 -0.458
24 P8 205 -0.946
24 P8 206 -1.923
24 P8 207 -2.411
24 P8 208 -3.876
24 P8 209 -6.317
24 P8 210 -8.759
24 P8 211 -10.223
24 P8 212 -9.247
24 P8 213 -6.805
24 P8 214 -3.876
24 P8 215 -2.411
24 P8 216 -3.876
24 P8 217 -6.317
24 P8 218 -8.270
24 P8 219 -7.294
24 P8 220 -5.341
24 P8 221 -3.387
24 P8 222 -3.387
24 P8 223 -6.317
24 P8 224 -9.735
24 P8 225 -12.665
24 P8 226 -12.665
24 P8 227 -10.223
24 P8 228 -8.759
24 P8 229 -8.270
24 P8 230 -9.247
24 P8 231 -10.223
24 P8 232 -9.247
24 P8 233 -7.294
24 P8 234 -4.852
24 P8 235 -2.899
24 P8 236 -3.876
24 P8 237 -6.317
24 P8 238 -8.270
24 P8 239 -10.223
24 P8 240 -10.223
24 P8 241 -10.223
24 P8 242 -9.735
24 P8 243 -9.735
24 P8 244 -9.735
24 P8 245 -8.759
24 P8 246 -6.805
24 P8 247 -3.876
24 P8 248 0.519
24 P8 249 5.402
24 P8 250 10.284
24 P8 251 12.726
24 P8 252 12.238
24 P8 253 7.843
24 P8 254 1.495
24 P8 255 -4.364
# P7 chan 26
24 P7 0 1.638
24 P7 1 3.591
24 P7 2 4.079
24 P7 3 4.079
24 P7 4 2.614
24 P7 5 -0.315
24 P7 6 -2.757
24 P7 7 -5.198
24 P7 8 -6.663
24 P7 9 -7.640
24 P7 10 -8.128
24 P7 11 -8.128
24 P7 12 -7.151
24 P7 13 -5.198
24 P7 14 -2.757
24 P7 15 -0.804
24 P7 16 0.173
24 P7 17 -0.315
24 P7 18 -1.780
24 P7 19 -2.757
24 P7 20 -1.780
24 P7 21 2.126
24 P7 22 7.497
24 P7 23 13.357
24 P7 24 17.263
24 P7 25 19.216
24 P7 26 19.216
24 P7 27 19.216
24 P7 28 18.239
24 P7 29 16.774
24 P7 30 14.333
24 P7 31 10.915
24 P7 32 7.497
24 P7 33 5.056
24 P7 34 4.567
24 P7 35 5.056
24 P7 36 4.079
24 P7 37 1.638
24 P7 38 -2.757
24 P7 39 -8.128
24 P7 40 -11.546
24 P7 41 -13.011
24 P7 42 -12.522
24 P7 43 -11.058
24 P7 44 -9.593
24 P7 45 -8.128
24 P7 46 -6.175
24 P7 47 -4.710
24 P7 48 -2.757
24 P7 49 -1.780
24 P7 50 -1.292
24 P7 51 -1.292
24 P7 52 -0.315
24 P7 53 0.661
24 P7 54 2.126
24 P7 55 3.103
24 P7 56 2.614
24 P7 57 3.103
24 P7 58 3.591
24 P7 59 5.056
24 P7 60 7.009
24 P7 61 7.985
24 P7 62 7.497
24 P7 63 7.497
24 P7 64 7.497
24 P7 65 8.962
24 P7 66 11.403
24 P7 67 13.357
24 P7 68 13.357
24 P7 69 11.403
24 P7 70 7.985
24 P7 71 5.056
24 P7 72 2.614
24 P7 73 1.149
24 P7 74 -0.315
24 P7 75 -1.292
24 P7 76 -1.780
24 P7 77 -1.292
24 P7 78 -0.315
24 P7 79 0.173
24 P7 80 0.173
24 P7 81 -1.292
24 P7 82 -1.780
24 P7 83 -1.780
24 P7 84 0.661
24 P7 85 3.591
24 P7 86 7.009
24 P7 87 9.450
24 P7 88 9.939
24 P7 89 8.962
24 P7 90 6.521
24 P7 91 3.591
24 P7 92 -0.315
24 P7 93 -3.733
24 P7 94 -5.686
24 P7 95 -6.663
24 P7 96 -6.663
24 P7 97 -7.640
24 P7 98 -9.104
24 P7 99 -10.569
24 P7 100 -10.569
24 P7 101 -9.104
24 P7 102 -6.663
24 P7 103 -4.222
24 P7 104 -3.245
24 P7 105 -4.710
24 P7 106 -7.151
24 P7 107 -10.569
24 P7 108 -12.522
24 P7 109 -13.499
24 P7 110 -13.499
24 P7 111 -13.499
24 P7 112 -12.522
24 P7 113 -11.058
24 P7 114 -9.104
24 P7 115 -7.151
24 P7 116 -6.663
24 P7 117 -7.151
24 P7 118 -9.104
24 P7 119 -11.058
24 P7 120 -12.034
24 P7 121 -12.034
24 P7 122 -12.522
24 P7 123 -13.987
24 P7 124 -16.429
24 P7 125 -17.893
24 P7 126 -16.917
24 P7 127 -13.987
24 P7 128 -10.569
24 P7 129 -8.128
24 P7 130 -8.128
24 P7 131 -10.081
24 P7 132 -12.522
24 P7 133 -13.499
24 P7 134 -13.499
24 P7 135 -13.011
24 P7 136 -13.499
24 P7 137 -14.964
24 P7 138 -15.940
24 P7 139 -14.964
24 P7 140 -12.522
24 P7 141 -8.616
24 P7 142 -4.710
24 P7 143 -2.757
24 P7 144 -3.245
24 P7 145 -3.733
24 P7 146 -4.222
24 P7 147 -4.222
24 P7 148 -4.222
24 P7 149 -5.198
24 P7 150 -6.175
24 P7 151 -6.175
24 P7 152 -5.198
24 P7 153 -4.222
24 P7 154 -2.757
24 P7 155 -2.268
24 P7 156 -2.268
24 P7 157 -2.268
24 P7 158 -2.268
24 P7 159 -2.268
24 P7 160 -3.733
24 P7 161 -6.663
24 P7 162 -10.081
24 P7 163 -13.499
24 P7 164 -15.452
24 P7 165 -16.429
24 P7 166 -16.429
24 P7 167 -16.917
24 P7 168 -17.405
24 P7 169 -16.917
24 P7 170 -15.452
24 P7 171 -13.011
24 P7 172 -10.081
24 P7 173 -8.616
24 P7 174 -8.616
24 P7 175 -9.593
24 P7 176 -11.058
24 P7 177 -12.034
24 P7 178 -13.011
24 P7 179 -13.499
24 P7 180 -14.476
24 P7 181 -14.964
24 P7 182 -14.964
24 P7 183 -13.499
24 P7 184 -11.058
24 P7 185 -8.128
24 P7 186 -6.175
24 P7 187 -5.198
24 P7 188 -4.222
24 P7 189 -3.733
24 P7 190 -2.757
24 P7 191 -2.268
24 P7 192 -1.780
24 P7 193 -2.268
24 P7 194 -4.222
24 P7 195 -7.151
24 P7 196 -10.081
24 P7 197 -12.034
24 P7 198 -12.522
24 P7 199 -12.034
24 P7 200 -10.081
24 P7 201 -9.104
24 P7 202 -8.128
24 P7 203 -9.104
24 P7 204 -10.081
24 P7 205 -11.058
24 P7 206 -11.546
24 P7 207 -11.058
24 P7 208 -11.058
24 P7 209 -12.034
24 P7 210 -13.011
24 P7 211 -13.011
24 P7 212 -11.058
24 P7 213 -8.128
24 P7 214 -5.198
24 P7 215 -4.710
24 P7 216 -6.175
24 P7 217 -9.104
24 P7 218 -10.569
24 P7 219 -10.081
24 P7 220 -8.616
24 P7 221 -7.640
24 P7 222 -9.104
24 P7 223 -13.499
24 P7 224 -17.405
24 P7 225 -19.358
24 P7 226 -17.405
24 P7 227 -13.011
24 P7 228 -8.616
24 P7 229 -6.663
24 P7 230 -7.151
24 P7 231 -8.128
24 P7 232 -8.128
24 P7 233 -6.175
24 P7 234 -3.733
24 P7 235 -2.268
24 P7 236 -2.757
24 P7 237 -4.710
24 P7 238 -6.175
24 P7 239 -6.663
24 P7 240 -6.175
24 P7 241 -5.198
24 P7 242 -5.198
24 P7 243 -5.686
24 P7 244 -6.663
24 P7 245 -6.663
24 P7 246 -4.710
24 P7 247 -0.804
24 P7 248 3.591
24 P7 249 7.497
24 P7 250 9.450
24 P7 251 9.450
24 P7 252 7.009
24 P7 253 3.103
24 P7 254 -0.315
24 P7 255 -3.245
# PO2 chan 27
24 PO2 0 4.100
24 PO2 1 8.006
24 PO2 2 10.447
24 PO2 3 11.424
24 PO2 4 10.935
24 PO2 5 8.982
24 PO2 6 6.053
24 PO2 7 3.123
24 PO2 8 0.193
24 PO2 9 -2.248
24 PO2 10 -3.225
24 PO2 11 -3.225
24 PO2 12 -1.760
24 PO2 13 0.193
24 PO2 14 3.123
24 PO2 15 5.076
24 PO2 16 6.053
24 PO2 17 5.564
24 PO2 18 5.076
24 PO2 19 4.588
24 PO2 20 5.564
24 PO2 21 7.517
24 PO2 22 9.959
24 PO2 23 12.400
24 PO2 24 14.842
24 PO2 25 16.795
24 PO2 26 18.748
24 PO2 27 21.189
24 PO2 28 21.189
24 PO2 29 19.725
24 PO2 30 15.818
24 PO2 31 10.935
24 PO2 32 6.541
24 PO2 33 4.588
24 PO2 34 4.100
24 PO2 35 5.076
24 PO2 36 4.100
24 PO2 37 2.635
24 PO2 38 -0.295
24 PO2 39 -3.225
24 PO2 40 -5.178
24 PO2 41 -6.643
24 PO2 42 -7.131
24 PO2 43 -7.131
24 PO2 44 -6.643
24 PO2 45 -6.154
24 PO2 46 -5.178
24 PO2 47 -3.713
24 PO2 48 -1.760
24 PO2 49 0.193
24 PO2 50 3.123
24 PO2 51 5.564
24 PO2 52 8.006
24 PO2 53 9.471
24 PO2 54 9.471
24 PO2 55 8.982
24 PO2 56 8.006
24 PO2 57 8.006
24 PO2 58 8.982
24 PO2 59 9.959
24 PO2 60 10.447
24 PO2 61 9.471
24 PO2 62 7.517
24 PO2 63 6.541
24 PO2 64 5.564
24 PO2 65 5.564
24 PO2 66 6.541
24 PO2 67 7.517
24 PO2 68 7.517
24 PO2 69 7.517
24 PO2 70 7.517
24 PO2 71 7.517
24 PO2 72 7.517
24 PO2 73 7.029
24 PO2 74 6.053
24 PO2 75 6.053
24 PO2 76 5.076
24 PO2 77 5.076
24 PO2 78 5.076
24 PO2 79 5.076
24 PO2 80 5.076
24 PO2 81 4.588
24 PO2 82 4.588
24 PO2 83 5.076
24 PO2 84 7.029
24 PO2 85 8.982
24 PO2 86 10.935
24 PO2 87 12.400
24 PO2 88 11.912
24 PO2 89 9.959
24 PO2 90 7.517
24 PO2 91 4.588
24 PO2 92 2.635
24 PO2 93 1.658
24 PO2 94 1.658
24 PO2 95 2.146
24 PO2 96 2.146
24 PO2 97 1.658
24 PO2 98 -0.295
24 PO2 99 -1.760
24 PO2 100 -3.225
24 PO2 101 -2.736
24 PO2 102 -2.248
24 PO2 103 -1.272
24 PO2 104 -1.760
24 PO2 105 -2.736
24 PO2 106 -4.201
24 PO2 107 -5.666
24 PO2 108 -5.666
24 PO2 109 -5.666
24 PO2 110 -6.154
24 PO2 111 -6.643
24 PO2 112 -7.619
24 PO2 113 -8.108
24 PO2 114 -7.131
24 PO2 115 -6.643
24 PO2 116 -5.666
24 PO2 117 -6.154
24 PO2 118 -6.643
24 PO2 119 -6.643
24 PO2 120 -5.666
24 PO2 121 -4.201
24 PO2 122 -3.713
24 PO2 123 -4.690
24 PO2 124 -6.154
24 PO2 125 -7.131
24 PO2 126 -6.643
24 PO2 127 -4.201
24 PO2 128 -1.760
24 PO2 129 -0.295
24 PO2 130 -0.295
24 PO2 131 -2.248
24 PO2 132 -4.201
24 PO2 133 -5.178
24 PO2 134 -4.201
24 PO2 135 -2.736
24 PO2 136 -1.760
24 PO2 137 -2.248
24 PO2 138 -2.248
24 PO2 139 -2.248
24 PO2 140 -1.760
24 PO2 141 -0.783
24 PO2 142 -0.295
24 PO2 143 -0.783
24 PO2 144 -1.760
24 PO2 145 -2.736
24 PO2 146 -3.713
24 PO2 147 -4.201
24 PO2 148 -4.690
24 PO2 149 -5.666
24 PO2 150 -6.154
24 PO2 151 -5.178
24 PO2 152 -4.201
24 PO2 153 -3.225
24 PO2 154 -2.736
24 PO2 155 -2.736
24 PO2 156 -3.713
