# co2c0000355.rd
# 120 trials, 64 chans, 416 samples 368 post_stim samples
# 3.906000 msecs uV
# S1 obj , trial 30
# FP1 chan 0
30 FP1 0 -0.264
30 FP1 1 2.665
30 FP1 2 7.548
30 FP1 3 10.478
30 FP1 4 8.525
30 FP1 5 1.200
30 FP1 6 -8.565
30 FP1 7 -15.889
30 FP1 8 -18.331
30 FP1 9 -14.913
30 FP1 10 -8.077
30 FP1 11 -1.729
30 FP1 12 2.177
30 FP1 13 5.107
30 FP1 14 8.036
30 FP1 15 11.943
30 FP1 16 14.384
30 FP1 17 11.943
30 FP1 18 5.107
30 FP1 19 -4.171
30 FP1 20 -11.007
30 FP1 21 -11.495
30 FP1 22 -6.124
30 FP1 23 0.224
30 FP1 24 2.177
30 FP1 25 -1.729
30 FP1 26 -9.542
30 FP1 27 -13.936
30 FP1 28 -10.518
30 FP1 29 0.224
30 FP1 30 13.407
30 FP1 31 21.708
30 FP1 32 21.708
30 FP1 33 16.337
30 FP1 34 9.989
30 FP1 35 6.571
30 FP1 36 6.083
30 FP1 37 6.083
30 FP1 38 6.083
30 FP1 39 5.595
30 FP1 40 7.548
30 FP1 41 12.431
30 FP1 42 20.243
30 FP1 43 25.614
30 FP1 44 26.591
30 FP1 45 22.196
30 FP1 46 15.849
30 FP1 47 10.478
30 FP1 48 9.501
30 FP1 49 11.943
30 FP1 50 14.872
30 FP1 51 15.361
30 FP1 52 11.454
30 FP1 53 5.107
30 FP1 54 -0.753
30 FP1 55 -4.171
30 FP1 56 -5.636
30 FP1 57 -6.612
30 FP1 58 -7.100
30 FP1 59 -6.124
30 FP1 60 -0.753
30 FP1 61 8.525
30 FP1 62 19.267
30 FP1 63 27.079
30 FP1 64 27.568
30 FP1 65 21.708
30 FP1 66 12.431
30 FP1 67 5.595
30 FP1 68 4.130
30 FP1 69 6.083
30 FP1 70 7.060
30 FP1 71 6.083
30 FP1 72 4.130
30 FP1 73 4.130
30 FP1 74 7.548
30 FP1 75 11.454
30 FP1 76 11.943
30 FP1 77 7.548
30 FP1 78 1.689
30 FP1 79 -0.753
30 FP1 80 1.689
30 FP1 81 5.107
30 FP1 82 4.130
30 FP1 83 -3.682
30 FP1 84 -12.960
30 FP1 85 -16.378
30 FP1 86 -11.007
30 FP1 87 0.712
30 FP1 88 9.013
30 FP1 89 8.036
30 FP1 90 -1.241
30 FP1 91 -10.518
30 FP1 92 -11.983
30 FP1 93 -4.171
30 FP1 94 8.036
30 FP1 95 16.825
30 FP1 96 16.337
30 FP1 97 9.013
30 FP1 98 -0.753
30 FP1 99 -6.612
30 FP1 100 -7.589
30 FP1 101 -3.194
30 FP1 102 3.153
30 FP1 103 9.013
30 FP1 104 12.431
30 FP1 105 13.407
30 FP1 106 12.431
30 FP1 107 10.966
30 FP1 108 11.943
30 FP1 109 14.384
30 FP1 110 17.314
30 FP1 111 18.290
30 FP1 112 16.825
30 FP1 113 12.431
30 FP1 114 7.548
30 FP1 115 4.130
30 FP1 116 2.177
30 FP1 117 2.665
30 FP1 118 5.595
30 FP1 119 9.989
30 FP1 120 15.361
30 FP1 121 18.778
30 FP1 122 19.755
30 FP1 123 16.337
30 FP1 124 9.501
30 FP1 125 2.177
30 FP1 126 -1.729
30 FP1 127 -0.753
30 FP1 128 4.618
30 FP1 129 12.431
30 FP1 130 18.290
30 FP1 131 19.755
30 FP1 132 17.314
30 FP1 133 13.896
30 FP1 134 12.919
30 FP1 135 14.872
30 FP1 136 17.314
30 FP1 137 19.267
30 FP1 138 18.778
30 FP1 139 16.825
30 FP1 140 14.384
30 FP1 141 10.966
30 FP1 142 6.571
30 FP1 143 1.689
30 FP1 144 -1.729
30 FP1 145 0.224
30 FP1 146 7.060
30 FP1 147 17.314
30 FP1 148 24.150
30 FP1 149 23.173
30 FP1 150 13.896
30 FP1 151 0.224
30 FP1 152 -10.030
30 FP1 153 -12.472
30 FP1 154 -7.589
30 FP1 155 1.689
30 FP1 156 9.989
30 FP1 157 16.825
30 FP1 158 21.220
30 FP1 159 23.661
30 FP1 160 22.685
30 FP1 161 17.314
30 FP1 162 9.989
30 FP1 163 4.618
30 FP1 164 4.618
30 FP1 165 9.989
30 FP1 166 14.872
30 FP1 167 13.896
30 FP1 168 6.083
30 FP1 169 -2.218
30 FP1 170 -4.659
30 FP1 171 2.665
30 FP1 172 14.384
30 FP1 173 23.661
30 FP1 174 27.079
30 FP1 175 26.591
30 FP1 176 28.056
30 FP1 177 33.915
30 FP1 178 40.263
30 FP1 179 39.286
30 FP1 180 25.614
30 FP1 181 4.618
30 FP1 182 -12.960
30 FP1 183 -17.354
30 FP1 184 -6.612
30 FP1 185 12.431
30 FP1 186 27.568
30 FP1 187 32.939
30 FP1 188 30.497
30 FP1 189 25.614
30 FP1 190 23.173
30 FP1 191 23.173
30 FP1 192 21.708
30 FP1 193 17.314
30 FP1 194 11.454
30 FP1 195 8.036
30 FP1 196 8.036
30 FP1 197 9.013
30 FP1 198 7.548
30 FP1 199 3.642
30 FP1 200 0.712
30 FP1 201 1.200
30 FP1 202 5.595
30 FP1 203 9.989
30 FP1 204 11.454
30 FP1 205 9.989
30 FP1 206 9.989
30 FP1 207 12.919
30 FP1 208 16.825
30 FP1 209 18.290
30 FP1 210 14.872
30 FP1 211 9.013
30 FP1 212 6.083
30 FP1 213 8.036
30 FP1 214 14.872
30 FP1 215 21.708
30 FP1 216 23.173
30 FP1 217 19.755
30 FP1 218 13.896
30 FP1 219 9.013
30 FP1 220 6.571
30 FP1 221 6.083
30 FP1 222 6.083
30 FP1 223 8.036
30 FP1 224 10.966
30 FP1 225 14.872
30 FP1 226 18.290
30 FP1 227 19.267
30 FP1 228 16.825
30 FP1 229 12.431
30 FP1 230 9.013
30 FP1 231 6.571
30 FP1 232 4.618
30 FP1 233 2.177
30 FP1 234 -0.753
30 FP1 235 -1.241
30 FP1 236 2.177
30 FP1 237 8.525
30 FP1 238 14.384
30 FP1 239 15.849
30 FP1 240 11.943
30 FP1 241 5.107
30 FP1 242 -1.729
30 FP1 243 -6.612
30 FP1 244 -6.612
30 FP1 245 -3.682
30 FP1 246 1.689
30 FP1 247 6.571
30 FP1 248 8.525
30 FP1 249 8.525
30 FP1 250 8.036
30 FP1 251 9.989
30 FP1 252 15.361
30 FP1 253 21.708
30 FP1 254 24.638
30 FP1 255 19.755
# FP2 chan 1
30 FP2 0 -12.329
30 FP2 1 -12.329
30 FP2 2 -7.446
30 FP2 3 -3.540
30 FP2 4 -3.052
30 FP2 5 -5.493
30 FP2 6 -8.423
30 FP2 7 -9.888
30 FP2 8 -11.353
30 FP2 9 -14.282
30 FP2 10 -16.235
30 FP2 11 -13.306
30 FP2 12 -4.028
30 FP2 13 9.155
30 FP2 14 17.944
30 FP2 15 17.944
30 FP2 16 9.155
30 FP2 17 -2.075
30 FP2 18 -8.423
30 FP2 19 -8.911
30 FP2 20 -7.446
30 FP2 21 -7.935
30 FP2 22 -11.353
30 FP2 23 -13.794
30 FP2 24 -10.864
30 FP2 25 -2.563
30 FP2 26 6.226
30 FP2 27 9.644
30 FP2 28 6.714
30 FP2 29 1.343
30 FP2 30 -1.099
30 FP2 31 2.319
30 FP2 32 9.155
30 FP2 33 14.526
30 FP2 34 16.479
30 FP2 35 15.015
30 FP2 36 12.085
30 FP2 37 10.132
30 FP2 38 9.155
30 FP2 39 6.714
30 FP2 40 3.296
30 FP2 41 0.854
30 FP2 42 1.343
30 FP2 43 5.249
30 FP2 44 11.597
30 FP2 45 17.944
30 FP2 46 22.827
30 FP2 47 25.757
30 FP2 48 26.733
30 FP2 49 26.245
30 FP2 50 22.827
30 FP2 51 16.968
30 FP2 52 8.179
30 FP2 53 -2.563
30 FP2 54 -11.841
30 FP2 55 -15.259
30 FP2 56 -12.329
30 FP2 57 -4.028
30 FP2 58 4.272
30 FP2 59 8.179
30 FP2 60 9.644
30 FP2 61 10.620
30 FP2 62 14.038
30 FP2 63 20.386
30 FP2 64 24.780
30 FP2 65 23.315
30 FP2 66 15.503
30 FP2 67 6.226
30 FP2 68 0.366
30 FP2 69 1.343
30 FP2 70 5.737
30 FP2 71 9.155
30 FP2 72 7.202
30 FP2 73 0.854
30 FP2 74 -5.493
30 FP2 75 -7.446
30 FP2 76 -2.563
30 FP2 77 5.249
30 FP2 78 10.620
30 FP2 79 11.597
30 FP2 80 7.690
30 FP2 81 2.319
30 FP2 82 -2.075
30 FP2 83 -3.540
30 FP2 84 -4.028
30 FP2 85 -4.028
30 FP2 86 -4.517
30 FP2 87 -4.028
30 FP2 88 -2.563
30 FP2 89 -1.587
30 FP2 90 -3.052
30 FP2 91 -6.470
30 FP2 92 -8.911
30 FP2 93 -7.935
30 FP2 94 -2.563
30 FP2 95 3.784
30 FP2 96 6.714
30 FP2 97 5.737
30 FP2 98 3.296
30 FP2 99 2.319
30 FP2 100 3.784
30 FP2 101 5.737
30 FP2 102 4.761
30 FP2 103 1.831
30 FP2 104 -0.610
30 FP2 105 1.343
30 FP2 106 8.179
30 FP2 107 15.991
30 FP2 108 21.851
30 FP2 109 22.827
30 FP2 110 20.386
30 FP2 111 16.968
30 FP2 112 13.550
30 FP2 113 9.644
30 FP2 114 3.784
30 FP2 115 -2.075
30 FP2 116 -5.493
30 FP2 117 -2.563
30 FP2 118 5.737
30 FP2 119 14.526
30 FP2 120 19.897
30 FP2 121 19.409
30 FP2 122 15.991
30 FP2 123 14.526
30 FP2 124 15.503
30 FP2 125 17.944
30 FP2 126 15.991
30 FP2 127 10.132
30 FP2 128 2.319
30 FP2 129 -0.610
30 FP2 130 4.761
30 FP2 131 15.991
30 FP2 132 25.757
30 FP2 133 29.175
30 FP2 134 26.733
30 FP2 135 22.827
30 FP2 136 22.339
30 FP2 137 26.245
30 FP2 138 29.663
30 FP2 139 28.687
30 FP2 140 21.362
30 FP2 141 9.155
30 FP2 142 -3.052
30 FP2 143 -9.888
30 FP2 144 -10.376
30 FP2 145 -6.470
30 FP2 146 -0.122
30 FP2 147 6.226
30 FP2 148 12.085
30 FP2 149 17.456
30 FP2 150 19.897
30 FP2 151 18.921
30 FP2 152 12.573
30 FP2 153 2.808
30 FP2 154 -6.470
30 FP2 155 -10.376
30 FP2 156 -6.470
30 FP2 157 3.296
30 FP2 158 15.015
30 FP2 159 22.827
30 FP2 160 23.804
30 FP2 161 17.944
30 FP2 162 9.644
30 FP2 163 3.784
30 FP2 164 2.808
30 FP2 165 6.226
30 FP2 166 10.620
30 FP2 167 13.062
30 FP2 168 11.108
30 FP2 169 5.737
30 FP2 170 -1.099
30 FP2 171 -5.005
30 FP2 172 -3.540
30 FP2 173 3.784
30 FP2 174 14.038
30 FP2 175 24.292
30 FP2 176 31.128
30 FP2 177 34.546
30 FP2 178 34.546
30 FP2 179 32.104
30 FP2 180 26.245
30 FP2 181 16.968
30 FP2 182 6.714
30 FP2 183 -1.099
30 FP2 184 -3.052
30 FP2 185 1.343
30 FP2 186 9.155
30 FP2 187 15.015
30 FP2 188 16.968
30 FP2 189 13.550
30 FP2 190 10.132
30 FP2 191 9.155
30 FP2 192 11.597
30 FP2 193 15.991
30 FP2 194 18.433
30 FP2 195 16.479
30 FP2 196 9.644
30 FP2 197 0.854
30 FP2 198 -5.493
30 FP2 199 -6.958
30 FP2 200 -2.075
30 FP2 201 4.761
30 FP2 202 9.644
30 FP2 203 9.644
30 FP2 204 6.714
30 FP2 205 4.761
30 FP2 206 7.202
30 FP2 207 13.062
30 FP2 208 16.968
30 FP2 209 13.062
30 FP2 210 3.296
30 FP2 211 -5.981
30 FP2 212 -6.470
30 FP2 213 5.249
30 FP2 214 22.339
30 FP2 215 34.058
30 FP2 216 32.104
30 FP2 217 18.921
30 FP2 218 4.272
30 FP2 219 -2.563
30 FP2 220 1.343
30 FP2 221 9.644
30 FP2 222 13.550
30 FP2 223 8.667
30 FP2 224 -0.610
30 FP2 225 -5.981
30 FP2 226 -1.099
30 FP2 227 11.597
30 FP2 228 22.339
30 FP2 229 22.339
30 FP2 230 10.620
30 FP2 231 -5.981
30 FP2 232 -17.700
30 FP2 233 -18.188
30 FP2 234 -9.888
30 FP2 235 -0.122
30 FP2 236 5.249
30 FP2 237 5.249
30 FP2 238 2.808
30 FP2 239 2.808
30 FP2 240 5.737
30 FP2 241 8.667
30 FP2 242 8.179
30 FP2 243 1.343
30 FP2 244 -8.911
30 FP2 245 -18.188
30 FP2 246 -21.606
30 FP2 247 -16.235
30 FP2 248 -5.981
30 FP2 249 3.784
30 FP2 250 8.179
30 FP2 251 6.226
30 FP2 252 1.831
30 FP2 253 1.831
30 FP2 254 7.202
30 FP2 255 15.503
# F7 chan 2
30 F7 0 -5.656
30 F7 1 -5.168
30 F7 2 -5.656
30 F7 3 -8.586
30 F7 4 -12.004
30 F7 5 -11.515
30 F7 6 -5.656
30 F7 7 2.645
30 F7 8 7.039
30 F7 9 5.086
30 F7 10 -1.261
30 F7 11 -5.656
30 F7 12 -4.679
30 F7 13 0.203
30 F7 14 4.110
30 F7 15 5.575
30 F7 16 5.086
30 F7 17 5.575
30 F7 18 7.528
30 F7 19 8.504
30 F7 20 5.086
30 F7 21 -3.215
30 F7 22 -12.492
30 F7 23 -18.840
30 F7 24 -20.793
30 F7 25 -19.816
30 F7 26 -18.351
30 F7 27 -16.886
30 F7 28 -15.422
30 F7 29 -11.027
30 F7 30 -4.191
30 F7 31 5.086
30 F7 32 13.875
30 F7 33 20.711
30 F7 34 23.641
30 F7 35 21.688
30 F7 36 14.852
30 F7 37 6.551
30 F7 38 1.180
30 F7 39 2.157
30 F7 40 7.039
30 F7 41 11.922
30 F7 42 11.922
30 F7 43 7.528
30 F7 44 3.133
30 F7 45 3.133
30 F7 46 7.528
30 F7 47 12.410
30 F7 48 13.875
30 F7 49 11.434
30 F7 50 8.016
30 F7 51 7.528
30 F7 52 7.528
30 F7 53 4.110
30 F7 54 -4.679
30 F7 55 -15.910
30 F7 56 -21.281
30 F7 57 -17.375
30 F7 58 -7.609
30 F7 59 1.180
30 F7 60 1.180
30 F7 61 -6.144
30 F7 62 -12.492
30 F7 63 -10.539
30 F7 64 1.668
30 F7 65 16.317
30 F7 66 24.618
30 F7 67 23.641
30 F7 68 15.828
30 F7 69 8.016
30 F7 70 5.086
30 F7 71 6.551
30 F7 72 7.039
30 F7 73 2.645
30 F7 74 -5.168
30 F7 75 -12.492
30 F7 76 -13.468
30 F7 77 -7.609
30 F7 78 3.133
30 F7 79 12.410
30 F7 80 16.317
30 F7 81 14.364
30 F7 82 8.993
30 F7 83 2.645
30 F7 84 -3.703
30 F7 85 -9.562
30 F7 86 -15.422
30 F7 87 -18.351
30 F7 88 -15.422
30 F7 89 -6.144
30 F7 90 5.575
30 F7 91 13.875
30 F7 92 15.340
30 F7 93 11.434
30 F7 94 4.598
30 F7 95 -0.773
30 F7 96 -4.191
30 F7 97 -5.168
30 F7 98 -3.215
30 F7 99 1.668
30 F7 100 9.481
30 F7 101 18.270
30 F7 102 24.129
30 F7 103 26.082
30 F7 104 23.153
30 F7 105 17.782
30 F7 106 10.946
30 F7 107 3.621
30 F7 108 -1.750
30 F7 109 -1.261
30 F7 110 7.039
30 F7 111 21.688
30 F7 112 35.360
30 F7 113 40.243
30 F7 114 32.918
30 F7 115 17.782
30 F7 116 3.133
30 F7 117 -4.679
30 F7 118 -2.726
30 F7 119 2.645
30 F7 120 6.063
30 F7 121 4.598
30 F7 122 1.180
30 F7 123 0.203
30 F7 124 2.645
30 F7 125 6.551
30 F7 126 7.528
30 F7 127 2.645
30 F7 128 -4.679
30 F7 129 -9.074
30 F7 130 -5.168
30 F7 131 6.063
30 F7 132 17.782
30 F7 133 21.688
30 F7 134 16.317
30 F7 135 6.063
30 F7 136 -0.773
30 F7 137 2.645
30 F7 138 12.899
30 F7 139 20.711
30 F7 140 17.782
30 F7 141 4.598
30 F7 142 -10.539
30 F7 143 -16.886
30 F7 144 -10.539
30 F7 145 1.668
30 F7 146 9.969
30 F7 147 8.504
30 F7 148 1.180
30 F7 149 -4.679
30 F7 150 -3.215
30 F7 151 2.645
30 F7 152 7.528
30 F7 153 6.063
30 F7 154 0.203
30 F7 155 -3.215
30 F7 156 1.180
30 F7 157 11.922
30 F7 158 22.176
30 F7 159 24.129
30 F7 160 15.340
30 F7 161 2.157
30 F7 162 -7.121
30 F7 163 -6.632
30 F7 164 2.157
30 F7 165 11.434
30 F7 166 13.875
30 F7 167 8.504
30 F7 168 -0.285
30 F7 169 -4.679
30 F7 170 -2.238
30 F7 171 3.621
30 F7 172 7.039
30 F7 173 3.621
30 F7 174 -2.726
30 F7 175 -4.679
30 F7 176 3.133
30 F7 177 18.758
30 F7 178 32.918
30 F7 179 37.801
30 F7 180 30.477
30 F7 181 15.828
30 F7 182 2.645
30 F7 183 -5.656
30 F7 184 -7.609
30 F7 185 -6.144
30 F7 186 -1.261
30 F7 187 7.528
30 F7 188 19.735
30 F7 189 29.500
30 F7 190 32.430
30 F7 191 26.082
30 F7 192 13.875
30 F7 193 3.133
30 F7 194 -0.773
30 F7 195 2.645
30 F7 196 8.504
30 F7 197 11.922
30 F7 198 12.410
30 F7 199 10.946
30 F7 200 9.969
30 F7 201 9.481
30 F7 202 6.551
30 F7 203 1.180
30 F7 204 -4.191
30 F7 205 -4.191
30 F7 206 1.668
30 F7 207 11.922
30 F7 208 19.246
30 F7 209 18.758
30 F7 210 9.969
30 F7 211 -1.750
30 F7 212 -10.539
30 F7 213 -11.027
30 F7 214 -2.238
30 F7 215 11.434
30 F7 216 24.129
30 F7 217 31.453
30 F7 218 30.477
30 F7 219 23.641
30 F7 220 15.828
30 F7 221 12.410
30 F7 222 14.364
30 F7 223 18.270
30 F7 224 19.246
30 F7 225 14.852
30 F7 226 5.575
30 F7 227 -2.726
30 F7 228 -6.144
30 F7 229 -1.750
30 F7 230 6.551
30 F7 231 13.387
30 F7 232 13.875
30 F7 233 8.993
30 F7 234 2.157
30 F7 235 -0.773
30 F7 236 2.157
30 F7 237 8.504
30 F7 238 13.875
30 F7 239 13.387
30 F7 240 8.016
30 F7 241 1.180
30 F7 242 -4.679
30 F7 243 -9.562
30 F7 244 -12.980
30 F7 245 -13.957
30 F7 246 -11.027
30 F7 247 -3.215
30 F7 248 6.551
30 F7 249 13.875
30 F7 250 13.875
30 F7 251 7.039
30 F7 252 -2.726
30 F7 253 -8.097
30 F7 254 -4.679
30 F7 255 4.110
# F8 chan 3
30 F8 0 -5.269
30 F8 1 -15.523
30 F8 2 -24.312
30 F8 3 -25.289
30 F8 4 -19.430
30 F8 5 -12.105
30 F8 6 -8.199
30 F8 7 -9.176
30 F8 8 -11.617
30 F8 9 -11.617
30 F8 10 -8.199
30 F8 11 -5.269
30 F8 12 -5.269
30 F8 13 -8.687
30 F8 14 -11.617
30 F8 15 -8.687
30 F8 16 0.102
30 F8 17 10.844
30 F8 18 16.215
30 F8 19 13.774
30 F8 20 6.449
30 F8 21 -0.387
30 F8 22 -1.851
30 F8 23 -0.875
30 F8 24 -1.851
30 F8 25 -7.711
30 F8 26 -16.988
30 F8 27 -22.359
30 F8 28 -18.941
30 F8 29 -6.734
30 F8 30 7.426
30 F8 31 16.215
30 F8 32 15.727
30 F8 33 9.379
30 F8 34 5.473
30 F8 35 7.914
30 F8 36 16.703
30 F8 37 24.516
30 F8 38 25.981
30 F8 39 20.121
30 F8 40 10.356
30 F8 41 2.543
30 F8 42 0.590
30 F8 43 3.520
30 F8 44 8.403
30 F8 45 11.820
30 F8 46 12.309
30 F8 47 10.356
30 F8 48 7.426
30 F8 49 4.496
30 F8 50 5.961
30 F8 51 11.332
30 F8 52 18.656
30 F8 53 22.074
30 F8 54 17.680
30 F8 55 6.938
30 F8 56 -4.293
30 F8 57 -7.711
30 F8 58 -0.387
30 F8 59 12.309
30 F8 60 20.610
30 F8 61 19.633
30 F8 62 11.820
30 F8 63 6.938
30 F8 64 10.356
30 F8 65 19.145
30 F8 66 23.051
30 F8 67 15.727
30 F8 68 -0.387
30 F8 69 -15.035
30 F8 70 -16.988
30 F8 71 -6.734
30 F8 72 5.961
30 F8 73 9.867
30 F8 74 2.543
30 F8 75 -7.711
30 F8 76 -9.176
30 F8 77 2.055
30 F8 78 19.145
30 F8 79 28.910
30 F8 80 23.051
30 F8 81 5.473
30 F8 82 -11.617
30 F8 83 -18.941
30 F8 84 -14.058
30 F8 85 -5.269
30 F8 86 -2.340
30 F8 87 -8.199
30 F8 88 -15.523
30 F8 89 -15.523
30 F8 90 -5.269
30 F8 91 10.356
30 F8 92 21.098
30 F8 93 20.610
30 F8 94 10.356
30 F8 95 -2.340
30 F8 96 -10.640
30 F8 97 -12.594
30 F8 98 -11.617
30 F8 99 -9.664
30 F8 100 -6.734
30 F8 101 -1.363
30 F8 102 5.961
30 F8 103 13.285
30 F8 104 16.703
30 F8 105 16.703
30 F8 106 15.727
30 F8 107 16.215
30 F8 108 18.656
30 F8 109 19.633
30 F8 110 16.703
30 F8 111 10.356
30 F8 112 4.496
30 F8 113 3.031
30 F8 114 6.449
30 F8 115 11.820
30 F8 116 16.215
30 F8 117 18.656
30 F8 118 20.121
30 F8 119 21.586
30 F8 120 22.563
30 F8 121 19.145
30 F8 122 10.844
30 F8 123 1.078
30 F8 124 -4.781
30 F8 125 -1.851
30 F8 126 8.403
30 F8 127 18.656
30 F8 128 23.051
30 F8 129 19.145
30 F8 130 11.820
30 F8 131 7.914
30 F8 132 10.844
30 F8 133 19.145
30 F8 134 26.469
30 F8 135 27.934
30 F8 136 23.539
30 F8 137 16.215
30 F8 138 11.332
30 F8 139 9.867
30 F8 140 9.867
30 F8 141 7.914
30 F8 142 4.008
30 F8 143 0.590
30 F8 144 0.102
30 F8 145 2.543
30 F8 146 5.473
30 F8 147 7.426
30 F8 148 6.449
30 F8 149 3.520
30 F8 150 0.590
30 F8 151 -0.875
30 F8 152 -1.363
30 F8 153 -1.851
30 F8 154 -1.851
30 F8 155 -1.851
30 F8 156 -2.340
30 F8 157 -2.340
30 F8 158 0.102
30 F8 159 4.496
30 F8 160 10.844
30 F8 161 14.750
30 F8 162 13.285
30 F8 163 5.473
30 F8 164 -3.316
30 F8 165 -9.176
30 F8 166 -6.734
30 F8 167 1.567
30 F8 168 9.379
30 F8 169 10.356
30 F8 170 2.055
30 F8 171 -11.129
30 F8 172 -21.383
30 F8 173 -21.871
30 F8 174 -11.617
30 F8 175 4.496
30 F8 176 19.633
30 F8 177 28.422
30 F8 178 29.399
30 F8 179 23.539
30 F8 180 12.797
30 F8 181 0.590
30 F8 182 -11.617
30 F8 183 -19.918
30 F8 184 -21.871
30 F8 185 -16.988
30 F8 186 -7.222
30 F8 187 3.520
30 F8 188 10.356
30 F8 189 12.309
30 F8 190 10.356
30 F8 191 5.961
30 F8 192 3.031
30 F8 193 1.078
30 F8 194 -0.387
30 F8 195 -2.340
30 F8 196 -4.293
30 F8 197 -4.781
30 F8 198 -2.828
30 F8 199 0.102
30 F8 200 1.567
30 F8 201 0.590
30 F8 202 -2.340
30 F8 203 -5.758
30 F8 204 -7.222
30 F8 205 -6.734
30 F8 206 -5.758
30 F8 207 -6.246
30 F8 208 -7.222
30 F8 209 -6.246
30 F8 210 -0.875
30 F8 211 6.449
30 F8 212 11.332
30 F8 213 8.891
30 F8 214 1.078
30 F8 215 -6.246
30 F8 216 -6.246
30 F8 217 2.543
30 F8 218 14.750
30 F8 219 22.074
30 F8 220 20.121
30 F8 221 10.844
30 F8 222 3.031
30 F8 223 0.590
30 F8 224 3.031
30 F8 225 4.008
30 F8 226 -1.851
30 F8 227 -12.594
30 F8 228 -22.847
30 F8 229 -24.801
30 F8 230 -16.500
30 F8 231 -3.316
30 F8 232 7.426
30 F8 233 9.379
30 F8 234 2.543
30 F8 235 -6.734
30 F8 236 -12.105
30 F8 237 -10.640
30 F8 238 -6.246
30 F8 239 -4.781
30 F8 240 -9.176
30 F8 241 -17.965
30 F8 242 -24.312
30 F8 243 -22.359
30 F8 244 -14.547
30 F8 245 -6.246
30 F8 246 -4.293
30 F8 247 -9.176
30 F8 248 -16.012
30 F8 249 -18.941
30 F8 250 -14.058
30 F8 251 -5.269
30 F8 252 0.590
30 F8 253 1.078
30 F8 254 -2.340
30 F8 255 -3.316
# AF1 chan 4
30 AF1 0 0.570
30 AF1 1 -2.848
30 AF1 2 -2.848
30 AF1 3 -0.895
30 AF1 4 1.058
30 AF1 5 0.081
30 AF1 6 -2.848
30 AF1 7 -6.266
30 AF1 8 -8.708
30 AF1 9 -8.708
30 AF1 10 -6.755
30 AF1 11 -2.848
30 AF1 12 1.058
30 AF1 13 5.941
30 AF1 14 8.870
30 AF1 15 10.335
30 AF1 16 9.847
30 AF1 17 7.894
30 AF1 18 4.964
30 AF1 19 2.523
30 AF1 20 -0.407
30 AF1 21 -2.360
30 AF1 22 -3.825
30 AF1 23 -4.313
30 AF1 24 -3.337
30 AF1 25 -2.360
30 AF1 26 -1.383
30 AF1 27 -1.383
30 AF1 28 -1.383
30 AF1 29 0.081
30 AF1 30 3.011
30 AF1 31 7.894
30 AF1 32 12.288
30 AF1 33 14.730
30 AF1 34 14.730
30 AF1 35 13.753
30 AF1 36 11.800
30 AF1 37 9.359
30 AF1 38 7.894
30 AF1 39 6.917
30 AF1 40 6.429
30 AF1 41 7.894
30 AF1 42 10.335
30 AF1 43 14.242
30 AF1 44 16.683
30 AF1 45 18.148
30 AF1 46 17.660
30 AF1 47 16.195
30 AF1 48 14.242
30 AF1 49 13.265
30 AF1 50 12.288
30 AF1 51 10.335
30 AF1 52 7.406
30 AF1 53 2.523
30 AF1 54 -2.360
30 AF1 55 -6.266
30 AF1 56 -7.243
30 AF1 57 -5.290
30 AF1 58 -1.383
30 AF1 59 3.011
30 AF1 60 6.429
30 AF1 61 9.847
30 AF1 62 12.777
30 AF1 63 15.706
30 AF1 64 17.171
30 AF1 65 16.683
30 AF1 66 14.242
30 AF1 67 10.824
30 AF1 68 7.406
30 AF1 69 5.452
30 AF1 70 4.964
30 AF1 71 5.452
30 AF1 72 5.941
30 AF1 73 5.452
30 AF1 74 4.476
30 AF1 75 3.011
30 AF1 76 2.523
30 AF1 77 2.523
30 AF1 78 3.499
30 AF1 79 4.476
30 AF1 80 3.499
30 AF1 81 1.546
30 AF1 82 -1.872
30 AF1 83 -5.290
30 AF1 84 -7.731
30 AF1 85 -8.219
30 AF1 86 -7.243
30 AF1 87 -5.778
30 AF1 88 -5.290
30 AF1 89 -4.801
30 AF1 90 -5.290
30 AF1 91 -4.313
30 AF1 92 -2.848
30 AF1 93 -0.895
30 AF1 94 1.058
30 AF1 95 3.011
30 AF1 96 3.499
30 AF1 97 3.988
30 AF1 98 4.476
30 AF1 99 3.499
30 AF1 100 2.523
30 AF1 101 1.058
30 AF1 102 0.570
30 AF1 103 2.035
30 AF1 104 3.988
30 AF1 105 6.429
30 AF1 106 8.382
30 AF1 107 9.359
30 AF1 108 10.335
30 AF1 109 11.312
30 AF1 110 12.288
30 AF1 111 12.288
30 AF1 112 10.824
30 AF1 113 7.406
30 AF1 114 3.499
30 AF1 115 0.570
30 AF1 116 -0.407
30 AF1 117 0.570
30 AF1 118 3.499
30 AF1 119 6.917
30 AF1 120 9.359
30 AF1 121 10.335
30 AF1 122 9.359
30 AF1 123 6.917
30 AF1 124 3.988
30 AF1 125 1.546
30 AF1 126 0.081
30 AF1 127 -0.407
30 AF1 128 0.081
30 AF1 129 1.546
30 AF1 130 4.476
30 AF1 131 8.382
30 AF1 132 11.800
30 AF1 133 14.242
30 AF1 134 14.730
30 AF1 135 14.242
30 AF1 136 13.753
30 AF1 137 14.242
30 AF1 138 14.730
30 AF1 139 14.242
30 AF1 140 11.312
30 AF1 141 4.964
30 AF1 142 -1.872
30 AF1 143 -6.266
30 AF1 144 -6.755
30 AF1 145 -2.848
30 AF1 146 3.011
30 AF1 147 6.917
30 AF1 148 7.894
30 AF1 149 6.429
30 AF1 150 3.011
30 AF1 151 0.081
30 AF1 152 -1.383
30 AF1 153 -1.872
30 AF1 154 -1.383
30 AF1 155 0.081
30 AF1 156 2.523
30 AF1 157 6.429
30 AF1 158 11.312
30 AF1 159 14.730
30 AF1 160 15.706
30 AF1 161 12.777
30 AF1 162 7.406
30 AF1 163 3.499
30 AF1 164 2.523
30 AF1 165 4.476
30 AF1 166 6.917
30 AF1 167 8.382
30 AF1 168 6.917
30 AF1 169 3.988
30 AF1 170 1.546
30 AF1 171 0.570
30 AF1 172 2.523
30 AF1 173 5.941
30 AF1 174 10.335
30 AF1 175 16.195
30 AF1 176 22.542
30 AF1 177 27.425
30 AF1 178 29.378
30 AF1 179 26.937
30 AF1 180 19.613
30 AF1 181 11.312
30 AF1 182 3.499
30 AF1 183 0.081
30 AF1 184 1.058
30 AF1 185 5.452
30 AF1 186 11.312
30 AF1 187 15.218
30 AF1 188 17.171
30 AF1 189 17.660
30 AF1 190 17.660
30 AF1 191 17.171
30 AF1 192 17.171
30 AF1 193 17.171
30 AF1 194 16.683
30 AF1 195 15.218
30 AF1 196 13.265
30 AF1 197 9.847
30 AF1 198 4.964
30 AF1 199 0.570
30 AF1 200 -1.383
30 AF1 201 0.570
30 AF1 202 5.941
30 AF1 203 11.800
30 AF1 204 14.730
30 AF1 205 15.218
30 AF1 206 12.777
30 AF1 207 9.847
30 AF1 208 8.382
30 AF1 209 7.894
30 AF1 210 7.894
30 AF1 211 7.406
30 AF1 212 6.917
30 AF1 213 8.382
30 AF1 214 11.800
30 AF1 215 14.730
30 AF1 216 16.195
30 AF1 217 15.218
30 AF1 218 12.288
30 AF1 219 9.847
30 AF1 220 9.847
30 AF1 221 11.312
30 AF1 222 13.265
30 AF1 223 13.265
30 AF1 224 11.312
30 AF1 225 8.382
30 AF1 226 5.941
30 AF1 227 4.964
30 AF1 228 5.452
30 AF1 229 5.941
30 AF1 230 5.452
30 AF1 231 4.476
30 AF1 232 2.523
30 AF1 233 1.058
30 AF1 234 1.058
30 AF1 235 3.011
30 AF1 236 6.429
30 AF1 237 10.824
30 AF1 238 13.753
30 AF1 239 14.242
30 AF1 240 12.288
30 AF1 241 7.894
30 AF1 242 2.523
30 AF1 243 -1.872
30 AF1 244 -4.801
30 AF1 245 -6.266
30 AF1 246 -5.290
30 AF1 247 -1.872
30 AF1 248 3.011
30 AF1 249 7.894
30 AF1 250 12.288
30 AF1 251 14.730
30 AF1 252 14.730
30 AF1 253 13.753
30 AF1 254 12.288
30 AF1 255 11.312
# AF2 chan 5
30 AF2 0 -0.712
30 AF2 1 -5.595
30 AF2 2 -7.548
30 AF2 3 -6.571
30 AF2 4 -4.130
30 AF2 5 -2.665
30 AF2 6 -3.642
30 AF2 7 -5.595
30 AF2 8 -9.013
30 AF2 9 -11.454
30 AF2 10 -10.966
30 AF2 11 -8.036
30 AF2 12 -3.153
30 AF2 13 2.218
30 AF2 14 7.100
30 AF2 15 9.542
30 AF2 16 10.030
30 AF2 17 9.054
30 AF2 18 6.612
30 AF2 19 3.682
30 AF2 20 -0.712
30 AF2 21 -4.618
30 AF2 22 -6.571
30 AF2 23 -6.083
30 AF2 24 -3.642
30 AF2 25 -1.200
30 AF2 26 0.264
30 AF2 27 0.264
30 AF2 28 0.264
30 AF2 29 2.218
30 AF2 30 5.147
30 AF2 31 9.542
30 AF2 32 12.472
30 AF2 33 13.448
30 AF2 34 12.960
30 AF2 35 11.983
30 AF2 36 11.495
30 AF2 37 10.518
30 AF2 38 9.054
30 AF2 39 7.100
30 AF2 40 6.124
30 AF2 41 6.612
30 AF2 42 10.030
30 AF2 43 14.425
30 AF2 44 18.331
30 AF2 45 19.796
30 AF2 46 18.331
30 AF2 47 14.425
30 AF2 48 10.518
30 AF2 49 9.542
30 AF2 50 10.030
30 AF2 51 11.983
30 AF2 52 12.472
30 AF2 53 10.518
30 AF2 54 6.124
30 AF2 55 1.241
30 AF2 56 -1.689
30 AF2 57 -0.712
30 AF2 58 3.194
30 AF2 59 8.565
30 AF2 60 12.472
30 AF2 61 14.913
30 AF2 62 15.889
30 AF2 63 16.378
30 AF2 64 17.354
30 AF2 65 17.354
30 AF2 66 16.378
30 AF2 67 13.936
30 AF2 68 10.030
30 AF2 69 7.100
30 AF2 70 5.147
30 AF2 71 4.171
30 AF2 72 4.659
30 AF2 73 4.171
30 AF2 74 3.682
30 AF2 75 3.194
30 AF2 76 4.171
30 AF2 77 6.124
30 AF2 78 9.054
30 AF2 79 10.030
30 AF2 80 9.054
30 AF2 81 5.147
30 AF2 82 -0.224
30 AF2 83 -5.107
30 AF2 84 -7.548
30 AF2 85 -8.036
30 AF2 86 -7.060
30 AF2 87 -5.595
30 AF2 88 -5.107
30 AF2 89 -3.642
30 AF2 90 -2.177
30 AF2 91 0.264
30 AF2 92 2.218
30 AF2 93 3.682
30 AF2 94 3.194
30 AF2 95 1.729
30 AF2 96 0.753
30 AF2 97 -0.224
30 AF2 98 0.264
30 AF2 99 1.241
30 AF2 100 2.218
30 AF2 101 3.194
30 AF2 102 3.682
30 AF2 103 4.659
30 AF2 104 6.124
30 AF2 105 8.077
30 AF2 106 10.030
30 AF2 107 11.983
30 AF2 108 13.936
30 AF2 109 15.401
30 AF2 110 15.889
30 AF2 111 15.401
30 AF2 112 12.472
30 AF2 113 8.565
30 AF2 114 4.659
30 AF2 115 1.241
30 AF2 116 0.264
30 AF2 117 2.706
30 AF2 118 6.612
30 AF2 119 11.007
30 AF2 120 14.425
30 AF2 121 14.913
30 AF2 122 12.960
30 AF2 123 10.518
30 AF2 124 8.565
30 AF2 125 7.589
30 AF2 126 7.589
30 AF2 127 7.100
30 AF2 128 6.612
30 AF2 129 6.612
30 AF2 130 8.077
30 AF2 131 11.495
30 AF2 132 15.889
30 AF2 133 19.796
30 AF2 134 21.749
30 AF2 135 20.772
30 AF2 136 18.819
30 AF2 137 17.354
30 AF2 138 17.354
30 AF2 139 16.866
30 AF2 140 14.913
30 AF2 141 10.518
30 AF2 142 3.682
30 AF2 143 -2.177
30 AF2 144 -5.107
30 AF2 145 -3.642
30 AF2 146 0.264
30 AF2 147 4.659
30 AF2 148 8.077
30 AF2 149 8.565
30 AF2 150 7.589
30 AF2 151 5.147
30 AF2 152 2.706
30 AF2 153 0.264
30 AF2 154 -1.689
30 AF2 155 -2.665
30 AF2 156 -0.712
30 AF2 157 3.194
30 AF2 158 9.054
30 AF2 159 13.448
30 AF2 160 15.889
30 AF2 161 13.448
30 AF2 162 8.077
30 AF2 163 2.706
30 AF2 164 0.264
30 AF2 165 1.241
30 AF2 166 4.171
30 AF2 167 6.124
30 AF2 168 5.636
30 AF2 169 3.194
30 AF2 170 1.241
30 AF2 171 0.753
30 AF2 172 2.218
30 AF2 173 5.636
30 AF2 174 9.542
30 AF2 175 13.936
30 AF2 176 19.307
30 AF2 177 24.190
30 AF2 178 26.143
30 AF2 179 23.702
30 AF2 180 16.866
30 AF2 181 7.589
30 AF2 182 0.264
30 AF2 183 -1.689
30 AF2 184 1.241
30 AF2 185 6.124
30 AF2 186 11.007
30 AF2 187 12.960
30 AF2 188 12.960
30 AF2 189 12.472
30 AF2 190 12.472
30 AF2 191 12.960
30 AF2 192 13.448
30 AF2 193 12.960
30 AF2 194 12.472
30 AF2 195 11.495
30 AF2 196 10.518
30 AF2 197 8.077
30 AF2 198 4.171
30 AF2 199 -0.224
30 AF2 200 -2.665
30 AF2 201 -1.689
30 AF2 202 2.706
30 AF2 203 7.589
30 AF2 204 10.518
30 AF2 205 11.007
30 AF2 206 9.542
30 AF2 207 8.077
30 AF2 208 7.589
30 AF2 209 7.589
30 AF2 210 8.077
30 AF2 211 7.589
30 AF2 212 7.589
30 AF2 213 8.565
30 AF2 214 10.518
30 AF2 215 12.960
30 AF2 216 13.936
30 AF2 217 12.960
30 AF2 218 11.007
30 AF2 219 9.054
30 AF2 220 8.565
30 AF2 221 9.054
30 AF2 222 9.054
30 AF2 223 8.077
30 AF2 224 5.147
30 AF2 225 3.194
30 AF2 226 2.218
30 AF2 227 2.706
30 AF2 228 4.171
30 AF2 229 4.659
30 AF2 230 4.171
30 AF2 231 2.218
30 AF2 232 -0.224
30 AF2 233 -1.689
30 AF2 234 -2.665
30 AF2 235 -1.689
30 AF2 236 0.264
30 AF2 237 2.706
30 AF2 238 6.124
30 AF2 239 8.077
30 AF2 240 8.077
30 AF2 241 6.612
30 AF2 242 3.682
30 AF2 243 -0.224
30 AF2 244 -3.642
30 AF2 245 -6.571
30 AF2 246 -8.036
30 AF2 247 -7.548
30 AF2 248 -4.618
30 AF2 249 0.264
30 AF2 250 5.147
30 AF2 251 8.565
30 AF2 252 11.007
30 AF2 253 11.007
30 AF2 254 10.518
30 AF2 255 10.030
# FZ chan 6
30 FZ 0 3.886
30 FZ 1 -0.020
30 FZ 2 -1.973
30 FZ 3 -1.973
30 FZ 4 -1.485
30 FZ 5 -2.462
30 FZ 6 -3.927
30 FZ 7 -6.856
30 FZ 8 -8.809
30 FZ 9 -9.298
30 FZ 10 -6.856
30 FZ 11 -3.438
30 FZ 12 0.956
30 FZ 13 4.862
30 FZ 14 7.304
30 FZ 15 8.280
30 FZ 16 8.280
30 FZ 17 6.816
30 FZ 18 4.862
30 FZ 19 2.421
30 FZ 20 -0.509
30 FZ 21 -2.462
30 FZ 22 -3.438
30 FZ 23 -2.950
30 FZ 24 -1.973
30 FZ 25 -0.997
30 FZ 26 -0.509
30 FZ 27 -0.020
30 FZ 28 1.444
30 FZ 29 3.886
30 FZ 30 6.327
30 FZ 31 8.280
30 FZ 32 8.769
30 FZ 33 7.792
30 FZ 34 6.816
30 FZ 35 6.327
30 FZ 36 5.839
30 FZ 37 4.862
30 FZ 38 3.886
30 FZ 39 2.909
30 FZ 40 2.909
30 FZ 41 4.374
30 FZ 42 7.304
30 FZ 43 10.234
30 FZ 44 11.698
30 FZ 45 11.698
30 FZ 46 9.745
30 FZ 47 7.304
30 FZ 48 5.839
30 FZ 49 5.351
30 FZ 50 5.839
30 FZ 51 6.327
30 FZ 52 6.327
30 FZ 53 4.374
30 FZ 54 1.444
30 FZ 55 -1.485
30 FZ 56 -1.973
30 FZ 57 -0.509
30 FZ 58 2.421
30 FZ 59 5.351
30 FZ 60 7.304
30 FZ 61 8.280
30 FZ 62 9.257
30 FZ 63 10.234
30 FZ 64 11.698
30 FZ 65 13.163
30 FZ 66 13.163
30 FZ 67 12.187
30 FZ 68 9.257
30 FZ 69 6.327
30 FZ 70 3.886
30 FZ 71 2.909
30 FZ 72 2.909
30 FZ 73 2.909
30 FZ 74 2.909
30 FZ 75 2.909
30 FZ 76 2.909
30 FZ 77 3.398
30 FZ 78 3.886
30 FZ 79 3.886
30 FZ 80 2.909
30 FZ 81 0.468
30 FZ 82 -2.950
30 FZ 83 -5.880
30 FZ 84 -7.345
30 FZ 85 -7.345
30 FZ 86 -7.345
30 FZ 87 -6.856
30 FZ 88 -6.368
30 FZ 89 -6.368
30 FZ 90 -5.880
30 FZ 91 -4.415
30 FZ 92 -2.462
30 FZ 93 -1.485
30 FZ 94 -0.509
30 FZ 95 -0.020
30 FZ 96 -0.020
30 FZ 97 0.956
30 FZ 98 1.933
30 FZ 99 2.421
30 FZ 100 2.421
30 FZ 101 1.933
30 FZ 102 1.933
30 FZ 103 1.933
30 FZ 104 2.909
30 FZ 105 4.374
30 FZ 106 5.839
30 FZ 107 7.792
30 FZ 108 9.257
30 FZ 109 10.234
30 FZ 110 10.722
30 FZ 111 9.745
30 FZ 112 7.792
30 FZ 113 4.862
30 FZ 114 1.933
30 FZ 115 -0.020
30 FZ 116 -0.997
30 FZ 117 -0.509
30 FZ 118 1.444
30 FZ 119 3.398
30 FZ 120 5.351
30 FZ 121 5.839
30 FZ 122 5.351
30 FZ 123 4.374
30 FZ 124 3.398
30 FZ 125 1.933
30 FZ 126 0.956
30 FZ 127 0.468
30 FZ 128 -0.020
30 FZ 129 0.956
30 FZ 130 2.909
30 FZ 131 5.351
30 FZ 132 7.792
30 FZ 133 10.234
30 FZ 134 11.210
30 FZ 135 10.722
30 FZ 136 10.234
30 FZ 137 9.745
30 FZ 138 9.257
30 FZ 139 8.280
30 FZ 140 5.839
30 FZ 141 1.933
30 FZ 142 -2.462
30 FZ 143 -5.391
30 FZ 144 -5.880
30 FZ 145 -3.927
30 FZ 146 -0.997
30 FZ 147 1.933
30 FZ 148 3.398
30 FZ 149 2.909
30 FZ 150 0.956
30 FZ 151 -1.485
30 FZ 152 -3.438
30 FZ 153 -4.415
30 FZ 154 -4.415
30 FZ 155 -2.950
30 FZ 156 0.468
30 FZ 157 4.374
30 FZ 158 8.280
30 FZ 159 10.722
30 FZ 160 11.210
30 FZ 161 8.769
30 FZ 162 4.862
30 FZ 163 1.444
30 FZ 164 -0.509
30 FZ 165 -0.020
30 FZ 166 1.933
30 FZ 167 2.909
30 FZ 168 1.933
30 FZ 169 -0.020
30 FZ 170 -1.973
30 FZ 171 -2.462
30 FZ 172 -0.509
30 FZ 173 2.909
30 FZ 174 6.816
30 FZ 175 11.210
30 FZ 176 14.628
30 FZ 177 17.069
30 FZ 178 17.558
30 FZ 179 15.605
30 FZ 180 10.722
30 FZ 181 4.862
30 FZ 182 -0.509
30 FZ 183 -2.462
30 FZ 184 -0.997
30 FZ 185 2.909
30 FZ 186 6.816
30 FZ 187 9.745
30 FZ 188 11.210
30 FZ 189 11.210
30 FZ 190 11.210
30 FZ 191 11.210
30 FZ 192 12.187
30 FZ 193 12.187
30 FZ 194 11.698
30 FZ 195 10.234
30 FZ 196 8.280
30 FZ 197 5.351
30 FZ 198 1.933
30 FZ 199 -0.020
30 FZ 200 -0.020
30 FZ 201 2.421
30 FZ 202 5.839
30 FZ 203 9.257
30 FZ 204 11.210
30 FZ 205 11.210
30 FZ 206 8.769
30 FZ 207 6.816
30 FZ 208 5.351
30 FZ 209 4.374
30 FZ 210 4.862
30 FZ 211 5.351
30 FZ 212 5.839
30 FZ 213 6.327
30 FZ 214 7.304
30 FZ 215 8.280
30 FZ 216 8.280
30 FZ 217 7.792
30 FZ 218 6.816
30 FZ 219 5.839
30 FZ 220 5.839
30 FZ 221 6.327
30 FZ 222 6.816
30 FZ 223 5.351
30 FZ 224 3.398
30 FZ 225 0.468
30 FZ 226 -1.485
30 FZ 227 -1.973
30 FZ 228 -0.997
30 FZ 229 0.956
30 FZ 230 2.421
30 FZ 231 3.398
30 FZ 232 2.909
30 FZ 233 1.933
30 FZ 234 0.956
30 FZ 235 0.956
30 FZ 236 2.421
30 FZ 237 5.351
30 FZ 238 7.792
30 FZ 239 9.257
30 FZ 240 9.257
30 FZ 241 6.327
30 FZ 242 2.909
30 FZ 243 -0.020
30 FZ 244 -1.973
30 FZ 245 -2.950
30 FZ 246 -3.438
30 FZ 247 -2.462
30 FZ 248 -0.509
30 FZ 249 2.909
30 FZ 250 6.327
30 FZ 251 9.257
30 FZ 252 10.722
30 FZ 253 9.745
30 FZ 254 7.792
30 FZ 255 5.839
# F4 chan 7
30 F4 0 -1.841
30 F4 1 -6.724
30 F4 2 -8.677
30 F4 3 -7.701
30 F4 4 -4.771
30 F4 5 -2.330
30 F4 6 -2.330
30 F4 7 -5.259
30 F4 8 -9.165
30 F4 9 -11.119
30 F4 10 -10.142
30 F4 11 -6.724
30 F4 12 -1.353
30 F4 13 2.553
30 F4 14 4.995
30 F4 15 6.948
30 F4 16 6.948
30 F4 17 7.436
30 F4 18 7.436
30 F4 19 4.995
30 F4 20 1.577
30 F4 21 -2.330
30 F4 22 -4.771
30 F4 23 -5.747
30 F4 24 -4.283
30 F4 25 -3.306
30 F4 26 -2.330
30 F4 27 -1.841
30 F4 28 -0.376
30 F4 29 3.530
30 F4 30 7.436
30 F4 31 10.854
30 F4 32 11.831
30 F4 33 10.366
30 F4 34 8.901
30 F4 35 7.924
30 F4 36 7.924
30 F4 37 7.924
30 F4 38 7.436
30 F4 39 5.971
30 F4 40 4.995
30 F4 41 5.971
30 F4 42 8.413
30 F4 43 11.342
30 F4 44 13.295
30 F4 45 13.295
30 F4 46 10.854
30 F4 47 7.924
30 F4 48 5.971
30 F4 49 6.460
30 F4 50 8.901
30 F4 51 12.319
30 F4 52 13.784
30 F4 53 12.807
30 F4 54 9.878
30 F4 55 5.971
30 F4 56 3.042
30 F4 57 3.530
30 F4 58 6.948
30 F4 59 11.342
30 F4 60 15.737
30 F4 61 17.690
30 F4 62 18.178
30 F4 63 17.202
30 F4 64 16.713
30 F4 65 16.713
30 F4 66 15.737
30 F4 67 13.295
30 F4 68 8.901
30 F4 69 4.018
30 F4 70 0.600
30 F4 71 0.112
30 F4 72 1.577
30 F4 73 3.530
30 F4 74 4.506
30 F4 75 4.506
30 F4 76 5.971
30 F4 77 8.413
30 F4 78 11.342
30 F4 79 12.807
30 F4 80 9.878
30 F4 81 3.530
30 F4 82 -3.794
30 F4 83 -8.189
30 F4 84 -9.165
30 F4 85 -7.701
30 F4 86 -5.747
30 F4 87 -5.259
30 F4 88 -6.236
30 F4 89 -6.236
30 F4 90 -4.771
30 F4 91 -1.353
30 F4 92 1.577
30 F4 93 2.553
30 F4 94 1.577
30 F4 95 -0.376
30 F4 96 -1.841
30 F4 97 -2.330
30 F4 98 -2.330
30 F4 99 -1.353
30 F4 100 -0.376
30 F4 101 1.577
30 F4 102 4.018
30 F4 103 7.436
30 F4 104 9.878
30 F4 105 11.831
30 F4 106 12.807
30 F4 107 14.272
30 F4 108 15.249
30 F4 109 16.225
30 F4 110 15.737
30 F4 111 12.807
30 F4 112 9.389
30 F4 113 4.995
30 F4 114 2.553
30 F4 115 2.553
30 F4 116 4.995
30 F4 117 8.413
30 F4 118 12.319
30 F4 119 15.249
30 F4 120 16.225
30 F4 121 15.737
30 F4 122 13.784
30 F4 123 11.342
30 F4 124 8.901
30 F4 125 7.924
30 F4 126 7.924
30 F4 127 7.436
30 F4 128 6.948
30 F4 129 6.948
30 F4 130 7.924
30 F4 131 10.366
30 F4 132 14.272
30 F4 133 17.690
30 F4 134 18.667
30 F4 135 17.690
30 F4 136 15.249
30 F4 137 13.784
30 F4 138 14.272
30 F4 139 15.249
30 F4 140 14.272
30 F4 141 9.878
30 F4 142 2.553
30 F4 143 -4.283
30 F4 144 -7.701
30 F4 145 -6.236
30 F4 146 -1.353
30 F4 147 3.042
30 F4 148 4.995
30 F4 149 4.506
30 F4 150 2.065
30 F4 151 0.600
30 F4 152 0.112
30 F4 153 0.600
30 F4 154 1.088
30 F4 155 1.088
30 F4 156 0.600
30 F4 157 1.577
30 F4 158 4.506
30 F4 159 7.924
30 F4 160 9.389
30 F4 161 7.924
30 F4 162 3.530
30 F4 163 -1.841
30 F4 164 -4.283
30 F4 165 -3.306
30 F4 166 0.600
30 F4 167 4.018
30 F4 168 4.506
30 F4 169 2.553
30 F4 170 -0.376
30 F4 171 -2.818
30 F4 172 -3.306
30 F4 173 -1.841
30 F4 174 1.577
30 F4 175 5.483
30 F4 176 10.366
30 F4 177 13.784
30 F4 178 15.249
30 F4 179 12.807
30 F4 180 6.460
30 F4 181 -0.865
30 F4 182 -5.747
30 F4 183 -6.724
30 F4 184 -3.794
30 F4 185 0.600
30 F4 186 3.530
30 F4 187 4.995
30 F4 188 4.995
30 F4 189 4.506
30 F4 190 4.995
30 F4 191 6.460
30 F4 192 7.924
30 F4 193 8.901
30 F4 194 8.901
30 F4 195 8.413
30 F4 196 6.460
30 F4 197 3.530
30 F4 198 -0.376
30 F4 199 -3.306
30 F4 200 -5.259
30 F4 201 -4.283
30 F4 202 -0.865
30 F4 203 2.553
30 F4 204 4.995
30 F4 205 4.995
30 F4 206 3.530
30 F4 207 1.088
30 F4 208 0.112
30 F4 209 1.577
30 F4 210 4.506
30 F4 211 7.924
30 F4 212 9.389
30 F4 213 8.901
30 F4 214 7.436
30 F4 215 5.971
30 F4 216 4.995
30 F4 217 4.995
30 F4 218 4.995
30 F4 219 4.995
30 F4 220 5.483
30 F4 221 5.971
30 F4 222 4.995
30 F4 223 4.018
30 F4 224 0.600
30 F4 225 -1.841
30 F4 226 -4.283
30 F4 227 -4.771
30 F4 228 -4.283
30 F4 229 -3.306
30 F4 230 -2.330
30 F4 231 -1.353
30 F4 232 -2.330
30 F4 233 -4.283
30 F4 234 -5.747
30 F4 235 -6.236
30 F4 236 -4.771
30 F4 237 -0.865
30 F4 238 3.042
30 F4 239 4.506
30 F4 240 3.042
30 F4 241 -1.353
30 F4 242 -6.236
30 F4 243 -8.677
30 F4 244 -8.677
30 F4 245 -7.701
30 F4 246 -7.701
30 F4 247 -7.701
30 F4 248 -7.701
30 F4 249 -5.259
30 F4 250 0.112
30 F4 251 5.483
30 F4 252 8.413
30 F4 253 8.413
30 F4 254 5.971
30 F4 255 3.530
# F3 chan 8
30 F3 0 2.024
30 F3 1 0.071
30 F3 2 1.048
30 F3 3 3.489
30 F3 4 3.489
30 F3 5 1.048
30 F3 6 -3.347
30 F3 7 -7.741
30 F3 8 -9.694
30 F3 9 -8.718
30 F3 10 -4.812
30 F3 11 0.071
30 F3 12 4.954
30 F3 13 8.860
30 F3 14 9.837
30 F3 15 8.372
30 F3 16 5.442
30 F3 17 2.024
30 F3 18 0.071
30 F3 19 -0.417
30 F3 20 0.071
30 F3 21 0.071
30 F3 22 -0.417
30 F3 23 -1.394
30 F3 24 -2.858
30 F3 25 -3.347
30 F3 26 -3.835
30 F3 27 -3.347
30 F3 28 -1.882
30 F3 29 1.048
30 F3 30 3.977
30 F3 31 6.419
30 F3 32 7.884
30 F3 33 7.884
30 F3 34 8.372
30 F3 35 9.349
30 F3 36 9.837
30 F3 37 8.860
30 F3 38 6.419
30 F3 39 3.489
30 F3 40 2.513
30 F3 41 3.977
30 F3 42 8.372
30 F3 43 12.767
30 F3 44 15.208
30 F3 45 14.720
30 F3 46 12.767
30 F3 47 10.325
30 F3 48 8.860
30 F3 49 9.349
30 F3 50 8.860
30 F3 51 7.884
30 F3 52 3.977
30 F3 53 -0.905
30 F3 54 -5.788
30 F3 55 -7.741
30 F3 56 -7.741
30 F3 57 -5.788
30 F3 58 -2.370
30 F3 59 0.071
30 F3 60 2.513
30 F3 61 4.954
30 F3 62 7.884
30 F3 63 11.302
30 F3 64 13.255
30 F3 65 13.255
30 F3 66 11.790
30 F3 67 9.349
30 F3 68 7.884
30 F3 69 7.884
30 F3 70 8.372
30 F3 71 8.372
30 F3 72 7.395
30 F3 73 5.931
30 F3 74 4.954
30 F3 75 4.466
30 F3 76 4.466
30 F3 77 4.466
30 F3 78 3.489
30 F3 79 2.024
30 F3 80 1.048
30 F3 81 0.071
30 F3 82 0.071
30 F3 83 0.071
30 F3 84 -0.905
30 F3 85 -1.882
30 F3 86 -3.835
30 F3 87 -5.300
30 F3 88 -6.765
30 F3 89 -7.741
30 F3 90 -7.741
30 F3 91 -5.788
30 F3 92 -3.347
30 F3 93 0.071
30 F3 94 3.977
30 F3 95 6.907
30 F3 96 8.860
30 F3 97 9.349
30 F3 98 8.372
30 F3 99 5.442
30 F3 100 2.513
30 F3 101 0.071
30 F3 102 1.048
30 F3 103 3.489
30 F3 104 7.395
30 F3 105 10.325
30 F3 106 12.278
30 F3 107 12.278
30 F3 108 11.302
30 F3 109 10.325
30 F3 110 9.837
30 F3 111 9.349
30 F3 112 8.860
30 F3 113 6.907
30 F3 114 4.954
30 F3 115 3.001
30 F3 116 1.536
30 F3 117 1.048
30 F3 118 2.513
30 F3 119 5.442
30 F3 120 8.860
30 F3 121 11.302
30 F3 122 10.813
30 F3 123 6.907
30 F3 124 1.536
30 F3 125 -3.835
30 F3 126 -6.765
30 F3 127 -6.765
30 F3 128 -4.323
30 F3 129 -0.417
30 F3 130 3.489
30 F3 131 6.419
30 F3 132 8.372
30 F3 133 9.837
30 F3 134 10.813
30 F3 135 10.813
30 F3 136 11.302
30 F3 137 10.813
30 F3 138 10.325
30 F3 139 8.372
30 F3 140 4.466
30 F3 141 -0.417
30 F3 142 -5.300
30 F3 143 -7.741
30 F3 144 -7.253
30 F3 145 -3.347
30 F3 146 1.048
30 F3 147 4.466
30 F3 148 5.442
30 F3 149 3.001
30 F3 150 -0.417
30 F3 151 -3.347
30 F3 152 -4.812
30 F3 153 -4.323
30 F3 154 -1.882
30 F3 155 0.559
30 F3 156 3.489
30 F3 157 5.442
30 F3 158 7.395
30 F3 159 8.372
30 F3 160 8.372
30 F3 161 6.907
30 F3 162 4.954
30 F3 163 3.001
30 F3 164 2.513
30 F3 165 3.001
30 F3 166 3.977
30 F3 167 3.977
30 F3 168 2.513
30 F3 169 0.071
30 F3 170 -1.882
30 F3 171 -1.394
30 F3 172 1.048
30 F3 173 4.954
30 F3 174 8.860
30 F3 175 11.790
30 F3 176 14.231
30 F3 177 15.696
30 F3 178 15.696
30 F3 179 15.208
30 F3 180 12.278
30 F3 181 7.395
30 F3 182 2.024
30 F3 183 -1.882
30 F3 184 -2.370
30 F3 185 1.048
30 F3 186 6.419
30 F3 187 10.325
30 F3 188 12.278
30 F3 189 12.278
30 F3 190 11.790
30 F3 191 12.767
30 F3 192 14.720
30 F3 193 16.673
30 F3 194 16.673
30 F3 195 14.231
30 F3 196 8.860
30 F3 197 3.001
30 F3 198 -1.394
30 F3 199 -3.347
30 F3 200 -2.370
30 F3 201 1.048
30 F3 202 5.931
30 F3 203 10.813
30 F3 204 12.767
30 F3 205 12.767
30 F3 206 10.813
30 F3 207 7.395
30 F3 208 3.977
30 F3 209 2.513
30 F3 210 2.024
30 F3 211 2.513
30 F3 212 4.466
30 F3 213 6.419
30 F3 214 8.860
30 F3 215 9.349
30 F3 216 8.860
30 F3 217 7.395
30 F3 218 5.931
30 F3 219 5.442
30 F3 220 6.419
30 F3 221 7.395
30 F3 222 7.395
30 F3 223 5.931
30 F3 224 3.489
30 F3 225 0.559
30 F3 226 -0.417
30 F3 227 -0.417
30 F3 228 1.536
30 F3 229 3.977
30 F3 230 5.442
30 F3 231 4.954
30 F3 232 2.024
30 F3 233 -1.882
30 F3 234 -3.347
30 F3 235 -1.882
30 F3 236 2.513
30 F3 237 7.884
30 F3 238 11.790
30 F3 239 12.278
30 F3 240 8.860
30 F3 241 3.977
30 F3 242 -0.417
30 F3 243 -3.835
30 F3 244 -5.300
30 F3 245 -5.788
30 F3 246 -4.812
30 F3 247 -2.858
30 F3 248 0.071
30 F3 249 3.001
30 F3 250 6.419
30 F3 251 8.372
30 F3 252 8.860
30 F3 253 8.372
30 F3 254 6.907
30 F3 255 5.442
# FC6 chan 9
30 FC6 0 -9.654
30 FC6 1 -14.048
30 FC6 2 -15.025
30 FC6 3 -13.072
30 FC6 4 -9.165
30 FC6 5 -6.236
30 FC6 6 -5.259
30 FC6 7 -6.724
30 FC6 8 -9.654
30 FC6 9 -11.119
30 FC6 10 -9.654
30 FC6 11 -5.747
30 FC6 12 0.112
30 FC6 13 4.995
30 FC6 14 7.436
30 FC6 15 7.436
30 FC6 16 6.460
30 FC6 17 4.995
30 FC6 18 4.506
30 FC6 19 3.530
30 FC6 20 2.065
30 FC6 21 -0.376
30 FC6 22 -3.306
30 FC6 23 -5.747
30 FC6 24 -7.701
30 FC6 25 -8.677
30 FC6 26 -7.701
30 FC6 27 -5.747
30 FC6 28 -1.841
30 FC6 29 2.553
30 FC6 30 5.971
30 FC6 31 8.901
30 FC6 32 8.901
30 FC6 33 8.901
30 FC6 34 9.389
30 FC6 35 10.366
30 FC6 36 11.342
30 FC6 37 11.342
30 FC6 38 9.878
30 FC6 39 7.436
30 FC6 40 4.506
30 FC6 41 3.042
30 FC6 42 3.042
30 FC6 43 4.506
30 FC6 44 6.460
30 FC6 45 8.413
30 FC6 46 9.878
30 FC6 47 10.366
30 FC6 48 9.878
30 FC6 49 9.878
30 FC6 50 9.878
30 FC6 51 10.366
30 FC6 52 10.366
30 FC6 53 9.389
30 FC6 54 6.948
30 FC6 55 4.506
30 FC6 56 2.553
30 FC6 57 2.553
30 FC6 58 4.506
30 FC6 59 7.924
30 FC6 60 11.342
30 FC6 61 13.295
30 FC6 62 13.784
30 FC6 63 13.295
30 FC6 64 12.319
30 FC6 65 10.854
30 FC6 66 7.924
30 FC6 67 4.018
30 FC6 68 0.600
30 FC6 69 -0.865
30 FC6 70 0.112
30 FC6 71 3.042
30 FC6 72 5.483
30 FC6 73 6.460
30 FC6 74 6.460
30 FC6 75 6.460
30 FC6 76 7.924
30 FC6 77 11.342
30 FC6 78 14.760
30 FC6 79 15.249
30 FC6 80 11.831
30 FC6 81 5.971
30 FC6 82 1.088
30 FC6 83 -1.841
30 FC6 84 -2.818
30 FC6 85 -2.330
30 FC6 86 -2.330
30 FC6 87 -2.818
30 FC6 88 -2.818
30 FC6 89 -1.353
30 FC6 90 1.088
30 FC6 91 3.530
30 FC6 92 4.506
30 FC6 93 3.530
30 FC6 94 1.577
30 FC6 95 -0.376
30 FC6 96 -1.841
30 FC6 97 -3.306
30 FC6 98 -3.306
30 FC6 99 -2.818
30 FC6 100 -0.376
30 FC6 101 3.530
30 FC6 102 8.413
30 FC6 103 12.319
30 FC6 104 15.249
30 FC6 105 17.202
30 FC6 106 17.690
30 FC6 107 18.667
30 FC6 108 18.178
30 FC6 109 16.713
30 FC6 110 13.784
30 FC6 111 9.389
30 FC6 112 5.483
30 FC6 113 3.530
30 FC6 114 4.018
30 FC6 115 6.948
30 FC6 116 10.854
30 FC6 117 14.272
30 FC6 118 17.690
30 FC6 119 19.643
30 FC6 120 20.620
30 FC6 121 18.667
30 FC6 122 15.249
30 FC6 123 10.854
30 FC6 124 7.436
30 FC6 125 5.971
30 FC6 126 6.460
30 FC6 127 7.436
30 FC6 128 7.924
30 FC6 129 7.924
30 FC6 130 8.901
30 FC6 131 10.854
30 FC6 132 14.272
30 FC6 133 17.690
30 FC6 134 19.155
30 FC6 135 17.690
30 FC6 136 14.760
30 FC6 137 12.319
30 FC6 138 12.319
30 FC6 139 12.807
30 FC6 140 11.831
30 FC6 141 7.924
30 FC6 142 2.065
30 FC6 143 -3.306
30 FC6 144 -5.747
30 FC6 145 -4.283
30 FC6 146 -0.376
30 FC6 147 3.530
30 FC6 148 5.483
30 FC6 149 4.995
30 FC6 150 4.018
30 FC6 151 2.553
30 FC6 152 1.577
30 FC6 153 1.088
30 FC6 154 1.088
30 FC6 155 1.577
30 FC6 156 2.065
30 FC6 157 3.530
30 FC6 158 4.995
30 FC6 159 6.460
30 FC6 160 5.971
30 FC6 161 3.530
30 FC6 162 -0.376
30 FC6 163 -4.771
30 FC6 164 -7.212
30 FC6 165 -6.236
30 FC6 166 -3.794
30 FC6 167 -0.376
30 FC6 168 2.065
30 FC6 169 1.577
30 FC6 170 -0.376
30 FC6 171 -3.306
30 FC6 172 -4.771
30 FC6 173 -4.771
30 FC6 174 -2.330
30 FC6 175 1.088
30 FC6 176 5.971
30 FC6 177 9.389
30 FC6 178 10.366
30 FC6 179 7.924
30 FC6 180 2.065
30 FC6 181 -3.794
30 FC6 182 -7.701
30 FC6 183 -8.189
30 FC6 184 -5.747
30 FC6 185 -2.330
30 FC6 186 -0.376
30 FC6 187 -0.376
30 FC6 188 -1.353
30 FC6 189 -2.330
30 FC6 190 -2.330
30 FC6 191 -0.865
30 FC6 192 1.088
30 FC6 193 2.065
30 FC6 194 1.577
30 FC6 195 0.112
30 FC6 196 -1.353
30 FC6 197 -2.330
30 FC6 198 -2.330
30 FC6 199 -2.330
30 FC6 200 -2.330
30 FC6 201 -3.306
30 FC6 202 -3.794
30 FC6 203 -4.283
30 FC6 204 -4.283
30 FC6 205 -4.283
30 FC6 206 -5.259
30 FC6 207 -6.724
30 FC6 208 -6.724
30 FC6 209 -4.771
30 FC6 210 0.112
30 FC6 211 4.995
30 FC6 212 8.901
30 FC6 213 9.389
30 FC6 214 7.436
30 FC6 215 4.018
30 FC6 216 2.065
30 FC6 217 2.065
30 FC6 218 3.530
30 FC6 219 4.995
30 FC6 220 4.995
30 FC6 221 3.042
30 FC6 222 -0.376
30 FC6 223 -3.306
30 FC6 224 -5.747
30 FC6 225 -6.236
30 FC6 226 -5.259
30 FC6 227 -3.794
30 FC6 228 -2.330
30 FC6 229 -1.841
30 FC6 230 -3.306
30 FC6 231 -5.747
30 FC6 232 -8.677
30 FC6 233 -11.119
30 FC6 234 -11.607
30 FC6 235 -10.630
30 FC6 236 -8.189
30 FC6 237 -5.747
30 FC6 238 -4.771
30 FC6 239 -4.771
30 FC6 240 -6.724
30 FC6 241 -9.654
30 FC6 242 -12.583
30 FC6 243 -14.537
30 FC6 244 -15.513
30 FC6 245 -15.025
30 FC6 246 -13.072
30 FC6 247 -10.630
30 FC6 248 -7.212
30 FC6 249 -4.283
30 FC6 250 -1.353
30 FC6 251 1.088
30 FC6 252 2.553
30 FC6 253 3.042
30 FC6 254 3.042
30 FC6 255 3.530
# FC5 chan 10
30 FC5 0 -1.587
30 FC5 1 -3.052
30 FC5 2 -2.563
30 FC5 3 -0.610
30 FC5 4 0.366
30 FC5 5 -0.610
30 FC5 6 -3.052
30 FC5 7 -6.470
30 FC5 8 -8.423
30 FC5 9 -7.446
30 FC5 10 -3.540
30 FC5 11 1.831
30 FC5 12 6.714
30 FC5 13 9.644
30 FC5 14 9.155
30 FC5 15 6.714
30 FC5 16 3.296
30 FC5 17 -0.122
30 FC5 18 -2.563
30 FC5 19 -3.540
30 FC5 20 -4.517
30 FC5 21 -5.005
30 FC5 22 -6.470
30 FC5 23 -7.446
30 FC5 24 -8.423
30 FC5 25 -8.911
30 FC5 26 -8.423
30 FC5 27 -6.470
30 FC5 28 -3.540
30 FC5 29 -0.122
30 FC5 30 2.319
30 FC5 31 3.784
30 FC5 32 3.784
30 FC5 33 5.249
30 FC5 34 8.179
30 FC5 35 12.573
30 FC5 36 14.526
30 FC5 37 12.573
30 FC5 38 7.202
30 FC5 39 1.831
30 FC5 40 -0.122
30 FC5 41 3.296
30 FC5 42 9.644
30 FC5 43 15.503
30 FC5 44 17.944
30 FC5 45 16.479
30 FC5 46 14.526
30 FC5 47 13.062
30 FC5 48 13.062
30 FC5 49 13.550
30 FC5 50 11.597
30 FC5 51 6.226
30 FC5 52 -1.099
30 FC5 53 -8.423
30 FC5 54 -13.306
30 FC5 55 -14.771
30 FC5 56 -13.794
30 FC5 57 -11.353
30 FC5 58 -8.423
30 FC5 59 -5.005
30 FC5 60 -1.099
30 FC5 61 4.272
30 FC5 62 9.155
30 FC5 63 13.062
30 FC5 64 14.526
30 FC5 65 13.062
30 FC5 66 9.644
30 FC5 67 6.714
30 FC5 68 5.249
30 FC5 69 6.226
30 FC5 70 7.690
30 FC5 71 8.179
30 FC5 72 7.202
30 FC5 73 5.249
30 FC5 74 4.272
30 FC5 75 3.784
30 FC5 76 3.296
30 FC5 77 2.319
30 FC5 78 1.343
30 FC5 79 0.366
30 FC5 80 0.854
30 FC5 81 3.296
30 FC5 82 6.714
30 FC5 83 7.690
30 FC5 84 6.226
30 FC5 85 2.808
30 FC5 86 -0.610
30 FC5 87 -3.052
30 FC5 88 -4.028
30 FC5 89 -4.028
30 FC5 90 -3.540
30 FC5 91 -2.075
30 FC5 92 1.343
30 FC5 93 5.249
30 FC5 94 9.644
30 FC5 95 12.573
30 FC5 96 13.550
30 FC5 97 13.550
30 FC5 98 11.597
30 FC5 99 8.667
30 FC5 100 5.737
30 FC5 101 4.272
30 FC5 102 5.249
30 FC5 103 8.667
30 FC5 104 13.550
30 FC5 105 17.456
30 FC5 106 18.433
30 FC5 107 16.479
30 FC5 108 13.550
30 FC5 109 11.597
30 FC5 110 11.597
30 FC5 111 13.062
30 FC5 112 14.038
30 FC5 113 13.550
30 FC5 114 10.620
30 FC5 115 6.226
30 FC5 116 2.319
30 FC5 117 0.854
30 FC5 118 2.319
30 FC5 119 6.226
30 FC5 120 11.597
30 FC5 121 15.015
30 FC5 122 14.526
30 FC5 123 9.644
30 FC5 124 1.831
30 FC5 125 -6.470
30 FC5 126 -11.841
30 FC5 127 -12.329
30 FC5 128 -8.911
30 FC5 129 -3.052
30 FC5 130 2.808
30 FC5 131 6.714
30 FC5 132 9.155
30 FC5 133 9.644
30 FC5 134 10.132
30 FC5 135 10.620
30 FC5 136 12.085
30 FC5 137 13.550
30 FC5 138 13.550
30 FC5 139 11.108
30 FC5 140 5.737
30 FC5 141 -0.610
30 FC5 142 -6.470
30 FC5 143 -8.423
30 FC5 144 -6.958
30 FC5 145 -2.563
30 FC5 146 1.831
30 FC5 147 4.761
30 FC5 148 4.761
30 FC5 149 2.808
30 FC5 150 0.366
30 FC5 151 -1.587
30 FC5 152 -2.563
30 FC5 153 -1.587
30 FC5 154 0.854
30 FC5 155 3.784
30 FC5 156 6.226
30 FC5 157 8.179
30 FC5 158 8.179
30 FC5 159 6.714
30 FC5 160 5.249
30 FC5 161 3.296
30 FC5 162 2.808
30 FC5 163 3.784
30 FC5 164 4.761
30 FC5 165 5.249
30 FC5 166 4.272
30 FC5 167 1.831
30 FC5 168 -0.122
30 FC5 169 -1.587
30 FC5 170 -1.099
30 FC5 171 -0.122
30 FC5 172 1.831
30 FC5 173 3.296
30 FC5 174 5.249
30 FC5 175 7.202
30 FC5 176 10.132
30 FC5 177 13.550
30 FC5 178 15.991
30 FC5 179 17.456
30 FC5 180 15.503
30 FC5 181 10.132
30 FC5 182 2.808
30 FC5 183 -3.052
30 FC5 184 -5.005
30 FC5 185 -1.587
30 FC5 186 4.272
30 FC5 187 10.132
30 FC5 188 13.062
30 FC5 189 13.550
30 FC5 190 13.062
30 FC5 191 14.038
30 FC5 192 15.991
30 FC5 193 17.944
30 FC5 194 15.991
30 FC5 195 10.620
30 FC5 196 3.296
30 FC5 197 -3.052
30 FC5 198 -5.493
30 FC5 199 -4.517
30 FC5 200 -1.099
30 FC5 201 2.319
30 FC5 202 4.761
30 FC5 203 6.226
30 FC5 204 7.202
30 FC5 205 8.667
30 FC5 206 8.667
30 FC5 207 6.714
30 FC5 208 4.272
30 FC5 209 1.831
30 FC5 210 1.343
30 FC5 211 3.296
30 FC5 212 6.714
30 FC5 213 9.644
30 FC5 214 10.620
30 FC5 215 9.155
30 FC5 216 7.202
30 FC5 217 6.714
30 FC5 218 8.179
30 FC5 219 10.132
30 FC5 220 11.597
30 FC5 221 11.108
30 FC5 222 8.667
30 FC5 223 5.737
30 FC5 224 3.784
30 FC5 225 3.784
30 FC5 226 5.249
30 FC5 227 6.714
30 FC5 228 7.690
30 FC5 229 8.179
30 FC5 230 7.202
30 FC5 231 4.272
30 FC5 232 0.854
30 FC5 233 -2.563
30 FC5 234 -4.517
30 FC5 235 -3.540
30 FC5 236 0.366
30 FC5 237 4.761
30 FC5 238 7.690
30 FC5 239 8.179
30 FC5 240 5.737
30 FC5 241 1.831
30 FC5 242 -2.075
30 FC5 243 -4.517
30 FC5 244 -6.470
30 FC5 245 -7.446
30 FC5 246 -7.446
30 FC5 247 -5.981
30 FC5 248 -3.540
30 FC5 249 -0.122
30 FC5 250 3.784
30 FC5 251 7.690
30 FC5 252 9.155
30 FC5 253 9.155
30 FC5 254 7.202
30 FC5 255 4.272
# FC2 chan 11
30 FC2 0 2.411
30 FC2 1 -1.495
30 FC2 2 -3.448
30 FC2 3 -3.937
30 FC2 4 -2.472
30 FC2 5 -1.007
30 FC2 6 -0.519
30 FC2 7 -1.495
30 FC2 8 -2.960
30 FC2 9 -3.937
30 FC2 10 -3.448
30 FC2 11 -1.495
30 FC2 12 1.434
30 FC2 13 3.876
30 FC2 14 5.829
30 FC2 15 6.805
30 FC2 16 6.805
30 FC2 17 6.317
30 FC2 18 5.341
30 FC2 19 3.387
30 FC2 20 0.946
30 FC2 21 -1.495
30 FC2 22 -3.448
30 FC2 23 -4.913
30 FC2 24 -5.402
30 FC2 25 -4.913
30 FC2 26 -3.937
30 FC2 27 -1.984
30 FC2 28 0.946
30 FC2 29 4.364
30 FC2 30 6.805
30 FC2 31 8.270
30 FC2 32 8.270
30 FC2 33 6.317
30 FC2 34 3.876
30 FC2 35 2.899
30 FC2 36 2.411
30 FC2 37 2.899
30 FC2 38 3.387
30 FC2 39 3.387
30 FC2 40 3.387
30 FC2 41 3.387
30 FC2 42 4.364
30 FC2 43 5.341
30 FC2 44 6.805
30 FC2 45 6.805
30 FC2 46 5.829
30 FC2 47 3.876
30 FC2 48 2.411
30 FC2 49 1.923
30 FC2 50 3.387
30 FC2 51 5.829
30 FC2 52 7.294
30 FC2 53 7.294
30 FC2 54 5.829
30 FC2 55 3.876
30 FC2 56 2.411
30 FC2 57 3.387
30 FC2 58 5.341
30 FC2 59 7.782
30 FC2 60 9.247
30 FC2 61 8.759
30 FC2 62 8.270
30 FC2 63 7.782
30 FC2 64 7.782
30 FC2 65 8.759
30 FC2 66 9.247
30 FC2 67 8.270
30 FC2 68 6.317
30 FC2 69 4.364
30 FC2 70 2.899
30 FC2 71 1.923
30 FC2 72 1.923
30 FC2 73 2.899
30 FC2 74 2.899
30 FC2 75 3.387
30 FC2 76 4.364
30 FC2 77 6.317
30 FC2 78 8.270
30 FC2 79 8.759
30 FC2 80 6.805
30 FC2 81 3.387
30 FC2 82 -0.519
30 FC2 83 -3.937
30 FC2 84 -5.402
30 FC2 85 -4.913
30 FC2 86 -4.425
30 FC2 87 -2.960
30 FC2 88 -2.472
30 FC2 89 -1.984
30 FC2 90 -1.007
30 FC2 91 -0.031
30 FC2 92 0.458
30 FC2 93 0.458
30 FC2 94 -0.031
30 FC2 95 -0.031
30 FC2 96 -0.031
30 FC2 97 0.458
30 FC2 98 1.923
30 FC2 99 2.899
30 FC2 100 3.876
30 FC2 101 4.852
30 FC2 102 5.341
30 FC2 103 5.829
30 FC2 104 6.805
30 FC2 105 7.294
30 FC2 106 8.270
30 FC2 107 9.247
30 FC2 108 10.223
30 FC2 109 10.712
30 FC2 110 10.712
30 FC2 111 9.247
30 FC2 112 7.294
30 FC2 113 5.341
30 FC2 114 4.364
30 FC2 115 4.364
30 FC2 116 4.852
30 FC2 117 6.317
30 FC2 118 7.782
30 FC2 119 8.759
30 FC2 120 9.735
30 FC2 121 10.223
30 FC2 122 10.223
30 FC2 123 9.735
30 FC2 124 9.247
30 FC2 125 8.270
30 FC2 126 7.782
30 FC2 127 7.294
30 FC2 128 7.294
30 FC2 129 6.805
30 FC2 130 7.782
30 FC2 131 8.759
30 FC2 132 10.223
30 FC2 133 11.200
30 FC2 134 12.177
30 FC2 135 12.177
30 FC2 136 11.688
30 FC2 137 10.712
30 FC2 138 10.223
30 FC2 139 9.247
30 FC2 140 7.294
30 FC2 141 4.852
30 FC2 142 1.923
30 FC2 143 -0.519
30 FC2 144 -1.495
30 FC2 145 -0.519
30 FC2 146 1.434
30 FC2 147 3.387
30 FC2 148 4.852
30 FC2 149 4.852
30 FC2 150 3.387
30 FC2 151 1.923
30 FC2 152 0.458
30 FC2 153 -0.031
30 FC2 154 0.458
30 FC2 155 1.923
30 FC2 156 3.876
30 FC2 157 5.829
30 FC2 158 7.294
30 FC2 159 8.270
30 FC2 160 7.294
30 FC2 161 5.341
30 FC2 162 2.899
30 FC2 163 0.458
30 FC2 164 -0.031
30 FC2 165 0.458
30 FC2 166 2.411
30 FC2 167 4.364
30 FC2 168 5.341
30 FC2 169 4.852
30 FC2 170 4.364
30 FC2 171 3.876
30 FC2 172 3.876
30 FC2 173 3.876
30 FC2 174 4.364
30 FC2 175 5.341
30 FC2 176 6.317
30 FC2 177 7.782
30 FC2 178 8.270
30 FC2 179 7.782
30 FC2 180 5.829
30 FC2 181 3.387
30 FC2 182 1.434
30 FC2 183 1.434
30 FC2 184 2.411
30 FC2 185 4.364
30 FC2 186 5.829
30 FC2 187 5.829
30 FC2 188 4.852
30 FC2 189 3.876
30 FC2 190 3.387
30 FC2 191 3.876
30 FC2 192 4.852
30 FC2 193 5.341
30 FC2 194 6.317
30 FC2 195 6.317
30 FC2 196 5.829
30 FC2 197 4.852
30 FC2 198 3.387
30 FC2 199 2.411
30 FC2 200 1.923
30 FC2 201 2.411
30 FC2 202 2.899
30 FC2 203 3.876
30 FC2 204 3.387
30 FC2 205 2.411
30 FC2 206 0.946
30 FC2 207 -0.031
30 FC2 208 0.946
30 FC2 209 2.899
30 FC2 210 5.341
30 FC2 211 7.294
30 FC2 212 8.270
30 FC2 213 7.782
30 FC2 214 6.805
30 FC2 215 5.829
30 FC2 216 5.341
30 FC2 217 4.852
30 FC2 218 3.876
30 FC2 219 3.387
30 FC2 220 2.411
30 FC2 221 1.923
30 FC2 222 0.946
30 FC2 223 -0.519
30 FC2 224 -1.007
30 FC2 225 -1.495
30 FC2 226 -1.495
30 FC2 227 -0.519
30 FC2 228 0.458
30 FC2 229 1.434
30 FC2 230 1.923
30 FC2 231 2.411
30 FC2 232 2.411
30 FC2 233 1.923
30 FC2 234 1.434
30 FC2 235 1.434
30 FC2 236 1.434
30 FC2 237 1.434
30 FC2 238 1.923
30 FC2 239 1.434
30 FC2 240 0.458
30 FC2 241 -0.519
30 FC2 242 -1.495
30 FC2 243 -2.472
30 FC2 244 -2.472
30 FC2 245 -2.960
30 FC2 246 -3.448
30 FC2 247 -3.448
30 FC2 248 -2.960
30 FC2 249 -1.495
30 FC2 250 1.434
30 FC2 251 3.876
30 FC2 252 4.852
30 FC2 253 4.852
30 FC2 254 3.387
30 FC2 255 1.923
# FC1 chan 12
30 FC1 0 4.150
30 FC1 1 2.686
30 FC1 2 2.197
30 FC1 3 2.197
30 FC1 4 1.709
30 FC1 5 -0.244
30 FC1 6 -3.174
30 FC1 7 -6.104
30 FC1 8 -7.080
30 FC1 9 -6.592
30 FC1 10 -4.150
30 FC1 11 -0.244
30 FC1 12 3.174
30 FC1 13 5.127
30 FC1 14 5.615
30 FC1 15 4.639
30 FC1 16 2.686
30 FC1 17 0.732
30 FC1 18 -0.244
30 FC1 19 -1.221
30 FC1 20 -1.709
30 FC1 21 -1.221
30 FC1 22 -1.221
30 FC1 23 -0.732
30 FC1 24 -0.244
30 FC1 25 -0.244
30 FC1 26 0.244
30 FC1 27 0.244
30 FC1 28 0.244
30 FC1 29 1.221
30 FC1 30 2.197
30 FC1 31 3.174
30 FC1 32 3.662
30 FC1 33 3.662
30 FC1 34 4.150
30 FC1 35 4.150
30 FC1 36 4.639
30 FC1 37 3.662
30 FC1 38 2.197
30 FC1 39 1.221
30 FC1 40 0.732
30 FC1 41 2.197
30 FC1 42 4.639
30 FC1 43 6.592
30 FC1 44 7.080
30 FC1 45 6.104
30 FC1 46 4.150
30 FC1 47 2.197
30 FC1 48 2.197
30 FC1 49 2.686
30 FC1 50 4.150
30 FC1 51 4.639
30 FC1 52 3.662
30 FC1 53 1.709
30 FC1 54 -0.732
30 FC1 55 -2.686
30 FC1 56 -3.662
30 FC1 57 -3.662
30 FC1 58 -2.686
30 FC1 59 -2.197
30 FC1 60 -1.221
30 FC1 61 -0.244
30 FC1 62 1.709
30 FC1 63 3.662
30 FC1 64 6.592
30 FC1 65 8.057
30 FC1 66 8.545
30 FC1 67 8.545
30 FC1 68 7.568
30 FC1 69 6.592
30 FC1 70 5.615
30 FC1 71 4.639
30 FC1 72 4.150
30 FC1 73 3.174
30 FC1 74 2.197
30 FC1 75 1.709
30 FC1 76 1.221
30 FC1 77 1.221
30 FC1 78 1.709
30 FC1 79 1.709
30 FC1 80 2.197
30 FC1 81 2.686
30 FC1 82 2.197
30 FC1 83 1.709
30 FC1 84 0.732
30 FC1 85 0.244
30 FC1 86 -1.221
30 FC1 87 -1.709
30 FC1 88 -2.686
30 FC1 89 -3.662
30 FC1 90 -3.662
30 FC1 91 -3.174
30 FC1 92 -1.709
30 FC1 93 0.732
30 FC1 94 2.686
30 FC1 95 4.150
30 FC1 96 5.127
30 FC1 97 5.127
30 FC1 98 5.127
30 FC1 99 4.639
30 FC1 100 3.662
30 FC1 101 2.686
30 FC1 102 2.686
30 FC1 103 3.174
30 FC1 104 4.150
30 FC1 105 5.615
30 FC1 106 6.592
30 FC1 107 8.057
30 FC1 108 8.545
30 FC1 109 8.545
30 FC1 110 9.033
30 FC1 111 8.545
30 FC1 112 8.057
30 FC1 113 6.104
30 FC1 114 4.150
30 FC1 115 2.197
30 FC1 116 0.244
30 FC1 117 -0.244
30 FC1 118 -0.244
30 FC1 119 0.732
30 FC1 120 2.197
30 FC1 121 3.174
30 FC1 122 3.662
30 FC1 123 3.174
30 FC1 124 2.197
30 FC1 125 0.244
30 FC1 126 -1.221
30 FC1 127 -1.709
30 FC1 128 -1.709
30 FC1 129 -0.732
30 FC1 130 1.221
30 FC1 131 3.174
30 FC1 132 4.639
30 FC1 133 6.104
30 FC1 134 7.080
30 FC1 135 7.568
30 FC1 136 8.057
30 FC1 137 7.568
30 FC1 138 7.080
30 FC1 139 5.615
30 FC1 140 3.174
30 FC1 141 0.244
30 FC1 142 -2.197
30 FC1 143 -3.662
30 FC1 144 -3.174
30 FC1 145 -1.709
30 FC1 146 0.244
30 FC1 147 1.709
30 FC1 148 1.709
30 FC1 149 1.221
30 FC1 150 -0.244
30 FC1 151 -1.709
30 FC1 152 -2.686
30 FC1 153 -2.197
30 FC1 154 -0.732
30 FC1 155 1.709
30 FC1 156 4.639
30 FC1 157 7.080
30 FC1 158 9.033
30 FC1 159 9.521
30 FC1 160 9.033
30 FC1 161 7.080
30 FC1 162 5.615
30 FC1 163 4.150
30 FC1 164 3.662
30 FC1 165 4.150
30 FC1 166 4.150
30 FC1 167 3.662
30 FC1 168 2.686
30 FC1 169 1.221
30 FC1 170 0.244
30 FC1 171 0.244
30 FC1 172 1.709
30 FC1 173 3.662
30 FC1 174 5.615
30 FC1 175 7.568
30 FC1 176 9.033
30 FC1 177 10.010
30 FC1 178 9.521
30 FC1 179 8.057
30 FC1 180 5.127
30 FC1 181 1.709
30 FC1 182 -0.732
30 FC1 183 -1.709
30 FC1 184 -0.732
30 FC1 185 2.197
30 FC1 186 5.615
30 FC1 187 8.057
30 FC1 188 9.521
30 FC1 189 10.010
30 FC1 190 10.010
30 FC1 191 10.498
30 FC1 192 10.986
30 FC1 193 11.475
30 FC1 194 10.498
30 FC1 195 8.057
30 FC1 196 5.127
30 FC1 197 2.686
30 FC1 198 0.732
30 FC1 199 0.244
30 FC1 200 1.221
30 FC1 201 3.174
30 FC1 202 5.615
30 FC1 203 7.568
30 FC1 204 8.545
30 FC1 205 8.545
30 FC1 206 6.592
30 FC1 207 4.639
30 FC1 208 2.686
30 FC1 209 1.221
30 FC1 210 0.732
30 FC1 211 1.709
30 FC1 212 3.174
30 FC1 213 4.639
30 FC1 214 6.104
30 FC1 215 7.080
30 FC1 216 7.080
30 FC1 217 6.592
30 FC1 218 5.615
30 FC1 219 5.127
30 FC1 220 4.639
30 FC1 221 4.639
30 FC1 222 4.150
30 FC1 223 2.686
30 FC1 224 1.221
30 FC1 225 -0.244
30 FC1 226 -0.732
30 FC1 227 -0.244
30 FC1 228 1.709
30 FC1 229 3.174
30 FC1 230 4.639
30 FC1 231 5.127
30 FC1 232 4.639
30 FC1 233 3.174
30 FC1 234 2.197
30 FC1 235 2.686
30 FC1 236 4.150
30 FC1 237 6.104
30 FC1 238 8.545
30 FC1 239 9.033
30 FC1 240 8.545
30 FC1 241 6.592
30 FC1 242 4.150
30 FC1 243 2.197
30 FC1 244 0.244
30 FC1 245 -0.732
30 FC1 246 -1.221
30 FC1 247 -0.244
30 FC1 248 1.221
30 FC1 249 3.662
30 FC1 250 5.615
30 FC1 251 7.080
30 FC1 252 7.568
30 FC1 253 6.592
30 FC1 254 4.639
30 FC1 255 3.174
# T8 chan 13
30 T8 0 -19.765
30 T8 1 -25.625
30 T8 2 -22.695
30 T8 3 -12.929
30 T8 4 -2.675
30 T8 5 2.207
30 T8 6 0.743
30 T8 7 -4.140
30 T8 8 -9.511
30 T8 9 -12.441
30 T8 10 -14.394
30 T8 11 -14.882
30 T8 12 -13.418
30 T8 13 -6.582
30 T8 14 5.137
30 T8 15 18.809
30 T8 16 28.086
30 T8 17 27.110
30 T8 18 18.321
30 T8 19 6.114
30 T8 20 -0.722
30 T8 21 -0.722
30 T8 22 1.719
30 T8 23 0.254
30 T8 24 -7.070
30 T8 25 -16.347
30 T8 26 -20.742
30 T8 27 -14.882
30 T8 28 -1.699
30 T8 29 10.997
30 T8 30 16.368
30 T8 31 11.973
30 T8 32 3.672
30 T8 33 -0.234
30 T8 34 4.161
30 T8 35 15.391
30 T8 36 25.157
30 T8 37 27.110
30 T8 38 19.786
30 T8 39 7.090
30 T8 40 -2.675
30 T8 41 -4.628
30 T8 42 0.743
30 T8 43 9.532
30 T8 44 16.368
30 T8 45 18.809
30 T8 46 17.832
30 T8 47 14.414
30 T8 48 9.532
30 T8 49 6.114
30 T8 50 4.161
30 T8 51 5.137
30 T8 52 9.532
30 T8 53 14.414
30 T8 54 14.903
30 T8 55 9.532
30 T8 56 1.231
30 T8 57 -5.605
30 T8 58 -4.628
30 T8 59 2.207
30 T8 60 10.997
30 T8 61 15.391
30 T8 62 13.926
30 T8 63 8.067
30 T8 64 4.161
30 T8 65 4.161
30 T8 66 6.602
30 T8 67 9.043
30 T8 68 8.555
30 T8 69 6.114
30 T8 70 4.161
30 T8 71 3.184
30 T8 72 4.161
30 T8 73 5.137
30 T8 74 5.137
30 T8 75 5.137
30 T8 76 7.579
30 T8 77 13.438
30 T8 78 21.739
30 T8 79 28.575
30 T8 80 31.016
30 T8 81 26.622
30 T8 82 17.832
30 T8 83 8.067
30 T8 84 -0.234
30 T8 85 -5.117
30 T8 86 -8.046
30 T8 87 -8.046
30 T8 88 -3.164
30 T8 89 7.090
30 T8 90 19.297
30 T8 91 27.598
30 T8 92 27.110
30 T8 93 17.344
30 T8 94 3.672
30 T8 95 -7.558
30 T8 96 -11.464
30 T8 97 -8.046
30 T8 98 0.254
30 T8 99 9.532
30 T8 100 16.856
30 T8 101 20.762
30 T8 102 20.274
30 T8 103 16.368
30 T8 104 10.997
30 T8 105 8.067
30 T8 106 8.555
30 T8 107 13.926
30 T8 108 19.297
30 T8 109 22.715
30 T8 110 22.715
30 T8 111 20.274
30 T8 112 16.856
30 T8 113 14.903
30 T8 114 13.438
30 T8 115 12.950
30 T8 116 12.950
30 T8 117 12.461
30 T8 118 12.461
30 T8 119 11.973
30 T8 120 11.973
30 T8 121 12.461
30 T8 122 14.414
30 T8 123 17.832
30 T8 124 20.762
30 T8 125 20.762
30 T8 126 16.856
30 T8 127 9.532
30 T8 128 2.207
30 T8 129 -2.675
30 T8 130 -1.699
30 T8 131 4.161
30 T8 132 13.926
30 T8 133 24.668
30 T8 134 31.993
30 T8 135 32.969
30 T8 136 26.622
30 T8 137 16.856
30 T8 138 7.090
30 T8 139 3.184
30 T8 140 4.161
30 T8 141 8.067
30 T8 142 10.020
30 T8 143 7.090
30 T8 144 0.254
30 T8 145 -5.605
30 T8 146 -7.558
30 T8 147 -3.652
30 T8 148 2.207
30 T8 149 7.090
30 T8 150 7.090
30 T8 151 4.161
30 T8 152 -0.234
30 T8 153 -1.211
30 T8 154 0.743
30 T8 155 5.137
30 T8 156 9.043
30 T8 157 10.508
30 T8 158 9.043
30 T8 159 6.602
30 T8 160 4.161
30 T8 161 1.231
30 T8 162 -2.675
30 T8 163 -7.070
30 T8 164 -10.976
30 T8 165 -12.929
30 T8 166 -11.464
30 T8 167 -6.582
30 T8 168 -0.722
30 T8 169 4.161
30 T8 170 6.114
30 T8 171 5.137
30 T8 172 2.207
30 T8 173 -0.722
30 T8 174 -1.699
30 T8 175 -0.234
30 T8 176 3.184
30 T8 177 6.114
30 T8 178 7.579
30 T8 179 6.602
30 T8 180 3.672
30 T8 181 0.254
30 T8 182 -3.652
30 T8 183 -8.046
30 T8 184 -11.464
30 T8 185 -13.418
30 T8 186 -11.464
30 T8 187 -5.605
30 T8 188 2.207
30 T8 189 7.090
30 T8 190 7.090
30 T8 191 2.696
30 T8 192 -2.187
30 T8 193 -5.117
30 T8 194 -5.605
30 T8 195 -5.117
30 T8 196 -5.605
30 T8 197 -6.582
30 T8 198 -6.093
30 T8 199 -3.652
30 T8 200 -0.722
30 T8 201 0.743
30 T8 202 0.254
30 T8 203 -2.187
30 T8 204 -4.628
30 T8 205 -7.070
30 T8 206 -8.535
30 T8 207 -9.511
30 T8 208 -9.511
30 T8 209 -8.535
30 T8 210 -5.605
30 T8 211 -1.211
30 T8 212 3.672
30 T8 213 7.579
30 T8 214 10.508
30 T8 215 10.508
30 T8 216 8.067
30 T8 217 4.161
30 T8 218 0.743
30 T8 219 0.743
30 T8 220 3.672
30 T8 221 5.137
30 T8 222 4.161
30 T8 223 -1.699
30 T8 224 -8.046
30 T8 225 -11.464
30 T8 226 -9.511
30 T8 227 -4.140
30 T8 228 -0.234
30 T8 229 -1.699
30 T8 230 -7.070
30 T8 231 -11.953
30 T8 232 -12.929
30 T8 233 -10.000
30 T8 234 -8.046
30 T8 235 -10.000
30 T8 236 -14.882
30 T8 237 -17.324
30 T8 238 -15.371
30 T8 239 -8.535
30 T8 240 -4.140
30 T8 241 -5.605
30 T8 242 -14.394
30 T8 243 -23.671
30 T8 244 -28.066
30 T8 245 -24.648
30 T8 246 -16.836
30 T8 247 -10.976
30 T8 248 -8.535
30 T8 249 -7.558
30 T8 250 -5.605
30 T8 251 -0.722
30 T8 252 3.184
30 T8 253 4.161
30 T8 254 2.207
30 T8 255 1.719
# T7 chan 14
30 T7 0 2.167
30 T7 1 0.702
30 T7 2 -3.693
30 T7 3 -8.575
30 T7 4 -11.017
30 T7 5 -9.552
30 T7 6 -5.157
30 T7 7 -1.251
30 T7 8 0.214
30 T7 9 -1.251
30 T7 10 -3.204
30 T7 11 -3.204
30 T7 12 -0.275
30 T7 13 5.096
30 T7 14 10.468
30 T7 15 13.397
30 T7 16 12.909
30 T7 17 9.491
30 T7 18 4.120
30 T7 19 -1.251
30 T7 20 -6.134
30 T7 21 -9.552
30 T7 22 -11.993
30 T7 23 -14.435
30 T7 24 -16.876
30 T7 25 -18.341
30 T7 26 -18.829
30 T7 27 -16.876
30 T7 28 -11.993
30 T7 29 -3.693
30 T7 30 4.608
30 T7 31 11.444
30 T7 32 15.350
30 T7 33 15.839
30 T7 34 14.862
30 T7 35 13.397
30 T7 36 13.885
30 T7 37 14.862
30 T7 38 13.397
30 T7 39 10.468
30 T7 40 5.096
30 T7 41 2.167
30 T7 42 2.655
30 T7 43 7.538
30 T7 44 13.885
30 T7 45 19.745
30 T7 46 22.675
30 T7 47 23.163
30 T7 48 22.186
30 T7 49 18.768
30 T7 50 13.397
30 T7 51 5.585
30 T7 52 -2.228
30 T7 53 -9.064
30 T7 54 -12.970
30 T7 55 -14.923
30 T7 56 -15.900
30 T7 57 -14.923
30 T7 58 -10.040
30 T7 59 -2.228
30 T7 60 7.050
30 T7 61 13.885
30 T7 62 15.839
30 T7 63 14.374
30 T7 64 11.444
30 T7 65 10.956
30 T7 66 11.932
30 T7 67 11.932
30 T7 68 8.514
30 T7 69 3.143
30 T7 70 1.190
30 T7 71 3.632
30 T7 72 10.468
30 T7 73 15.839
30 T7 74 15.839
30 T7 75 9.979
30 T7 76 2.655
30 T7 77 -1.740
30 T7 78 -0.275
30 T7 79 4.608
30 T7 80 9.491
30 T7 81 10.956
30 T7 82 9.491
30 T7 83 7.050
30 T7 84 6.073
30 T7 85 6.561
30 T7 86 7.538
30 T7 87 7.538
30 T7 88 7.050
30 T7 89 7.050
30 T7 90 8.026
30 T7 91 10.468
30 T7 92 11.444
30 T7 93 11.932
30 T7 94 12.421
30 T7 95 11.932
30 T7 96 10.468
30 T7 97 5.096
30 T7 98 -0.763
30 T7 99 -4.669
30 T7 100 -2.228
30 T7 101 7.050
30 T7 102 18.768
30 T7 103 26.581
30 T7 104 26.581
30 T7 105 20.721
30 T7 106 14.374
30 T7 107 11.932
30 T7 108 13.397
30 T7 109 15.350
30 T7 110 14.862
30 T7 111 10.956
30 T7 112 6.073
30 T7 113 2.655
30 T7 114 1.678
30 T7 115 1.678
30 T7 116 1.678
30 T7 117 2.167
30 T7 118 5.096
30 T7 119 9.491
30 T7 120 14.374
30 T7 121 14.374
30 T7 122 8.514
30 T7 123 -2.228
30 T7 124 -12.970
30 T7 125 -18.829
30 T7 126 -16.876
30 T7 127 -10.529
30 T7 128 -3.693
30 T7 129 0.702
30 T7 130 1.678
30 T7 131 2.167
30 T7 132 4.120
30 T7 133 8.026
30 T7 134 12.909
30 T7 135 15.839
30 T7 136 16.815
30 T7 137 14.862
30 T7 138 10.956
30 T7 139 4.608
30 T7 140 -2.716
30 T7 141 -11.505
30 T7 142 -16.876
30 T7 143 -16.876
30 T7 144 -10.529
30 T7 145 0.214
30 T7 146 8.514
30 T7 147 9.979
30 T7 148 4.608
30 T7 149 -4.181
30 T7 150 -10.040
30 T7 151 -9.552
30 T7 152 -3.693
30 T7 153 2.167
30 T7 154 4.608
30 T7 155 2.655
30 T7 156 -0.275
30 T7 157 -0.763
30 T7 158 1.678
30 T7 159 4.120
30 T7 160 3.632
30 T7 161 -0.275
30 T7 162 -5.157
30 T7 163 -7.599
30 T7 164 -5.157
30 T7 165 -1.251
30 T7 166 0.702
30 T7 167 -0.275
30 T7 168 -3.204
30 T7 169 -4.669
30 T7 170 -3.204
30 T7 171 -0.763
30 T7 172 0.214
30 T7 173 -1.251
30 T7 174 -3.693
30 T7 175 -2.228
30 T7 176 5.096
30 T7 177 14.862
30 T7 178 22.186
30 T7 179 22.186
30 T7 180 14.374
30 T7 181 3.632
30 T7 182 -3.693
30 T7 183 -5.646
30 T7 184 -3.204
30 T7 185 0.214
30 T7 186 1.678
30 T7 187 2.655
30 T7 188 3.632
30 T7 189 6.073
30 T7 190 9.003
30 T7 191 11.932
30 T7 192 13.397
30 T7 193 13.397
30 T7 194 11.444
30 T7 195 7.538
30 T7 196 1.678
30 T7 197 -4.181
30 T7 198 -7.599
30 T7 199 -8.087
30 T7 200 -6.622
30 T7 201 -4.669
30 T7 202 -4.669
30 T7 203 -5.157
30 T7 204 -5.157
30 T7 205 -3.204
30 T7 206 0.214
30 T7 207 2.655
30 T7 208 2.167
30 T7 209 0.214
30 T7 210 -2.228
30 T7 211 -1.740
30 T7 212 1.190
30 T7 213 4.608
30 T7 214 7.050
30 T7 215 7.538
30 T7 216 7.538
30 T7 217 7.538
30 T7 218 8.514
30 T7 219 9.003
30 T7 220 7.050
30 T7 221 4.120
30 T7 222 1.678
30 T7 223 1.678
30 T7 224 3.632
30 T7 225 6.561
30 T7 226 7.050
30 T7 227 5.585
30 T7 228 3.632
30 T7 229 2.167
30 T7 230 1.678
30 T7 231 0.702
30 T7 232 -1.251
30 T7 233 -4.181
30 T7 234 -6.134
30 T7 235 -5.646
30 T7 236 -4.181
30 T7 237 -3.693
30 T7 238 -4.181
30 T7 239 -4.181
30 T7 240 -3.204
30 T7 241 -2.228
30 T7 242 -1.740
30 T7 243 -3.693
30 T7 244 -8.087
30 T7 245 -12.482
30 T7 246 -14.435
30 T7 247 -12.970
30 T7 248 -8.575
30 T7 249 -2.716
30 T7 250 3.143
30 T7 251 7.050
30 T7 252 8.514
30 T7 253 6.561
30 T7 254 3.632
30 T7 255 3.143
# CZ chan 15
30 CZ 0 -1.841
30 CZ 1 -4.771
30 CZ 2 -6.724
30 CZ 3 -5.747
30 CZ 4 -4.283
30 CZ 5 -4.771
30 CZ 6 -9.165
30 CZ 7 -15.513
30 CZ 8 -21.372
30 CZ 9 -23.326
30 CZ 10 -18.931
30 CZ 11 -10.142
30 CZ 12 -1.841
30 CZ 13 3.042
30 CZ 14 4.995
30 CZ 15 4.506
30 CZ 16 4.018
30 CZ 17 4.018
30 CZ 18 3.042
30 CZ 19 0.112
30 CZ 20 -4.283
30 CZ 21 -8.677
30 CZ 22 -11.119
30 CZ 23 -12.095
30 CZ 24 -11.607
30 CZ 25 -12.095
30 CZ 26 -14.048
30 CZ 27 -14.537
30 CZ 28 -12.583
30 CZ 29 -6.724
30 CZ 30 1.577
30 CZ 31 8.901
30 CZ 32 14.760
30 CZ 33 17.690
30 CZ 34 18.178
30 CZ 35 18.178
30 CZ 36 18.178
30 CZ 37 17.202
30 CZ 38 14.760
30 CZ 39 10.854
30 CZ 40 6.460
30 CZ 41 3.530
30 CZ 42 3.530
30 CZ 43 6.460
30 CZ 44 11.831
30 CZ 45 16.713
30 CZ 46 19.155
30 CZ 47 18.667
30 CZ 48 15.737
30 CZ 49 12.319
30 CZ 50 8.413
30 CZ 51 5.483
30 CZ 52 1.577
30 CZ 53 -4.283
30 CZ 54 -11.607
30 CZ 55 -18.443
30 CZ 56 -22.349
30 CZ 57 -21.372
30 CZ 58 -15.513
30 CZ 59 -7.212
30 CZ 60 0.112
30 CZ 61 4.506
30 CZ 62 5.971
30 CZ 63 6.460
30 CZ 64 8.413
30 CZ 65 11.342
30 CZ 66 12.319
30 CZ 67 9.878
30 CZ 68 3.530
30 CZ 69 -4.283
30 CZ 70 -9.654
30 CZ 71 -11.119
30 CZ 72 -10.630
30 CZ 73 -10.142
30 CZ 74 -11.119
30 CZ 75 -11.607
30 CZ 76 -9.654
30 CZ 77 -4.283
30 CZ 78 2.553
30 CZ 79 6.460
30 CZ 80 5.971
30 CZ 81 1.577
30 CZ 82 -4.283
30 CZ 83 -7.212
30 CZ 84 -7.212
30 CZ 85 -6.236
30 CZ 86 -5.747
30 CZ 87 -6.236
30 CZ 88 -7.212
30 CZ 89 -5.747
30 CZ 90 -3.306
30 CZ 91 0.112
30 CZ 92 2.553
30 CZ 93 3.042
30 CZ 94 2.065
30 CZ 95 -0.376
30 CZ 96 -2.330
30 CZ 97 -4.283
30 CZ 98 -4.283
30 CZ 99 -3.306
30 CZ 100 0.112
30 CZ 101 4.018
30 CZ 102 7.436
30 CZ 103 9.389
30 CZ 104 10.366
30 CZ 105 10.366
30 CZ 106 10.366
30 CZ 107 11.342
30 CZ 108 11.831
30 CZ 109 12.807
30 CZ 110 12.807
30 CZ 111 11.831
30 CZ 112 10.366
30 CZ 113 7.924
30 CZ 114 5.971
30 CZ 115 4.018
30 CZ 116 3.530
30 CZ 117 4.995
30 CZ 118 7.924
30 CZ 119 11.342
30 CZ 120 14.760
30 CZ 121 15.249
30 CZ 122 12.807
30 CZ 123 7.924
30 CZ 124 2.553
30 CZ 125 -0.376
30 CZ 126 -1.353
30 CZ 127 0.112
30 CZ 128 2.065
30 CZ 129 4.506
30 CZ 130 6.460
30 CZ 131 8.901
30 CZ 132 12.319
30 CZ 133 15.249
30 CZ 134 16.713
30 CZ 135 16.225
30 CZ 136 14.760
30 CZ 137 12.807
30 CZ 138 10.854
30 CZ 139 6.948
30 CZ 140 1.577
30 CZ 141 -5.747
30 CZ 142 -12.095
30 CZ 143 -15.513
30 CZ 144 -13.560
30 CZ 145 -8.677
30 CZ 146 -2.818
30 CZ 147 0.600
30 CZ 148 1.577
30 CZ 149 1.577
30 CZ 150 2.553
30 CZ 151 3.530
30 CZ 152 3.530
30 CZ 153 1.577
30 CZ 154 -1.353
30 CZ 155 -2.818
30 CZ 156 -1.353
30 CZ 157 2.065
30 CZ 158 6.460
30 CZ 159 8.413
30 CZ 160 7.436
30 CZ 161 4.018
30 CZ 162 0.600
30 CZ 163 -1.841
30 CZ 164 -2.818
30 CZ 165 -2.330
30 CZ 166 -1.841
30 CZ 167 -2.330
30 CZ 168 -4.283
30 CZ 169 -5.747
30 CZ 170 -6.724
30 CZ 171 -7.212
30 CZ 172 -5.747
30 CZ 173 -2.818
30 CZ 174 1.577
30 CZ 175 8.413
30 CZ 176 16.713
30 CZ 177 24.038
30 CZ 178 27.944
30 CZ 179 25.991
30 CZ 180 19.155
30 CZ 181 9.878
30 CZ 182 1.088
30 CZ 183 -4.771
30 CZ 184 -6.236
30 CZ 185 -5.259
30 CZ 186 -3.306
30 CZ 187 -0.376
30 CZ 188 2.065
30 CZ 189 5.483
30 CZ 190 8.901
30 CZ 191 10.366
30 CZ 192 9.389
30 CZ 193 6.460
30 CZ 194 2.553
30 CZ 195 -1.353
30 CZ 196 -5.747
30 CZ 197 -9.654
30 CZ 198 -13.560
30 CZ 199 -17.466
30 CZ 200 -19.419
30 CZ 201 -19.419
30 CZ 202 -16.978
30 CZ 203 -13.560
30 CZ 204 -10.142
30 CZ 205 -7.212
30 CZ 206 -6.236
30 CZ 207 -6.236
30 CZ 208 -6.724
30 CZ 209 -7.701
30 CZ 210 -7.701
30 CZ 211 -6.724
30 CZ 212 -5.259
30 CZ 213 -3.794
30 CZ 214 -3.306
30 CZ 215 -4.771
30 CZ 216 -6.724
30 CZ 217 -6.236
30 CZ 218 -3.306
30 CZ 219 1.577
30 CZ 220 4.018
30 CZ 221 2.553
30 CZ 222 -3.794
30 CZ 223 -10.142
30 CZ 224 -13.072
30 CZ 225 -10.142
30 CZ 226 -3.794
30 CZ 227 0.600
30 CZ 228 -0.376
30 CZ 229 -6.724
30 CZ 230 -15.025
30 CZ 231 -20.884
30 CZ 232 -24.302
30 CZ 233 -25.767
30 CZ 234 -27.232
30 CZ 235 -29.185
30 CZ 236 -30.162
30 CZ 237 -28.208
30 CZ 238 -24.790
30 CZ 239 -21.861
30 CZ 240 -22.837
30 CZ 241 -27.720
30 CZ 242 -34.068
30 CZ 243 -37.974
30 CZ 244 -37.486
30 CZ 245 -35.044
30 CZ 246 -32.603
30 CZ 247 -31.626
30 CZ 248 -31.138
30 CZ 249 -28.697
30 CZ 250 -23.326
30 CZ 251 -16.978
30 CZ 252 -12.583
30 CZ 253 -11.119
30 CZ 254 -12.095
30 CZ 255 -14.537
# C3 chan 16
30 C3 0 1.485
30 C3 1 1.973
30 C3 2 3.438
30 C3 3 4.903
30 C3 4 5.391
30 C3 5 4.415
30 C3 6 2.950
30 C3 7 0.509
30 C3 8 -1.933
30 C3 9 -2.421
30 C3 10 -0.956
30 C3 11 1.485
30 C3 12 4.415
30 C3 13 5.880
30 C3 14 6.368
30 C3 15 4.903
30 C3 16 2.950
30 C3 17 0.020
30 C3 18 -2.421
30 C3 19 -4.374
30 C3 20 -5.351
30 C3 21 -6.327
30 C3 22 -5.839
30 C3 23 -4.862
30 C3 24 -2.909
30 C3 25 -1.444
30 C3 26 0.509
30 C3 27 0.997
30 C3 28 0.997
30 C3 29 0.997
30 C3 30 0.997
30 C3 31 2.462
30 C3 32 3.927
30 C3 33 6.368
30 C3 34 8.809
30 C3 35 9.786
30 C3 36 8.321
30 C3 37 5.391
30 C3 38 0.997
30 C3 39 -1.933
30 C3 40 -1.933
30 C3 41 0.997
30 C3 42 4.903
30 C3 43 7.833
30 C3 44 9.786
30 C3 45 9.298
30 C3 46 8.321
30 C3 47 7.345
30 C3 48 5.880
30 C3 49 4.415
30 C3 50 1.973
30 C3 51 -0.956
30 C3 52 -3.398
30 C3 53 -4.862
30 C3 54 -5.351
30 C3 55 -5.351
30 C3 56 -6.327
30 C3 57 -6.816
30 C3 58 -6.816
30 C3 59 -4.862
30 C3 60 -2.421
30 C3 61 0.509
30 C3 62 2.462
30 C3 63 4.415
30 C3 64 5.391
30 C3 65 5.880
30 C3 66 5.880
30 C3 67 5.880
30 C3 68 4.903
30 C3 69 4.415
30 C3 70 4.415
30 C3 71 4.903
30 C3 72 5.391
30 C3 73 5.880
30 C3 74 5.391
30 C3 75 3.927
30 C3 76 2.462
30 C3 77 0.997
30 C3 78 0.997
30 C3 79 1.973
30 C3 80 3.927
30 C3 81 5.880
30 C3 82 7.833
30 C3 83 9.298
30 C3 84 8.809
30 C3 85 7.833
30 C3 86 6.368
30 C3 87 4.415
30 C3 88 2.950
30 C3 89 1.973
30 C3 90 1.973
30 C3 91 2.462
30 C3 92 3.438
30 C3 93 4.415
30 C3 94 5.391
30 C3 95 5.880
30 C3 96 6.368
30 C3 97 7.345
30 C3 98 7.345
30 C3 99 6.856
30 C3 100 6.368
30 C3 101 6.368
30 C3 102 6.856
30 C3 103 8.321
30 C3 104 9.298
30 C3 105 9.786
30 C3 106 9.298
30 C3 107 8.321
30 C3 108 7.833
30 C3 109 8.809
30 C3 110 10.274
30 C3 111 11.739
30 C3 112 12.227
30 C3 113 11.251
30 C3 114 8.809
30 C3 115 4.903
30 C3 116 1.973
30 C3 117 0.509
30 C3 118 1.485
30 C3 119 3.438
30 C3 120 5.880
30 C3 121 7.345
30 C3 122 6.856
30 C3 123 4.415
30 C3 124 0.997
30 C3 125 -1.933
30 C3 126 -4.374
30 C3 127 -4.862
30 C3 128 -3.398
30 C3 129 -0.468
30 C3 130 2.950
30 C3 131 5.880
30 C3 132 8.321
30 C3 133 9.786
30 C3 134 9.786
30 C3 135 9.786
30 C3 136 9.786
30 C3 137 10.274
30 C3 138 10.274
30 C3 139 9.298
30 C3 140 7.345
30 C3 141 3.438
30 C3 142 -0.468
30 C3 143 -2.909
30 C3 144 -2.909
30 C3 145 -1.933
30 C3 146 -0.468
30 C3 147 0.509
30 C3 148 0.020
30 C3 149 -0.468
30 C3 150 -0.956
30 C3 151 -1.444
30 C3 152 -1.444
30 C3 153 -0.468
30 C3 154 0.509
30 C3 155 2.950
30 C3 156 5.391
30 C3 157 7.345
30 C3 158 8.321
30 C3 159 7.345
30 C3 160 4.903
30 C3 161 2.462
30 C3 162 0.997
30 C3 163 1.485
30 C3 164 2.462
30 C3 165 3.438
30 C3 166 3.438
30 C3 167 2.950
30 C3 168 1.973
30 C3 169 0.997
30 C3 170 0.997
30 C3 171 0.997
30 C3 172 0.997
30 C3 173 1.485
30 C3 174 1.485
30 C3 175 2.462
30 C3 176 3.927
30 C3 177 5.391
30 C3 178 6.368
30 C3 179 6.368
30 C3 180 4.903
30 C3 181 1.973
30 C3 182 -1.444
30 C3 183 -3.886
30 C3 184 -4.374
30 C3 185 -2.421
30 C3 186 0.997
30 C3 187 3.927
30 C3 188 6.368
30 C3 189 7.833
30 C3 190 8.809
30 C3 191 9.786
30 C3 192 10.763
30 C3 193 10.274
30 C3 194 8.321
30 C3 195 4.903
30 C3 196 1.485
30 C3 197 -1.933
30 C3 198 -2.909
30 C3 199 -2.909
30 C3 200 -2.421
30 C3 201 -0.956
30 C3 202 0.509
30 C3 203 1.485
30 C3 204 3.438
30 C3 205 4.415
30 C3 206 3.927
30 C3 207 1.485
30 C3 208 -2.421
30 C3 209 -5.351
30 C3 210 -5.839
30 C3 211 -3.886
30 C3 212 0.020
30 C3 213 3.438
30 C3 214 5.880
30 C3 215 6.856
30 C3 216 7.345
30 C3 217 7.345
30 C3 218 7.833
30 C3 219 7.833
30 C3 220 6.856
30 C3 221 5.391
30 C3 222 2.950
30 C3 223 0.997
30 C3 224 -0.468
30 C3 225 -0.956
30 C3 226 -0.468
30 C3 227 0.509
30 C3 228 1.973
30 C3 229 2.950
30 C3 230 2.950
30 C3 231 1.973
30 C3 232 -0.468
30 C3 233 -3.398
30 C3 234 -4.862
30 C3 235 -5.351
30 C3 236 -2.909
30 C3 237 0.020
30 C3 238 3.438
30 C3 239 5.880
30 C3 240 6.368
30 C3 241 5.880
30 C3 242 3.927
30 C3 243 2.462
30 C3 244 0.020
30 C3 245 -2.421
30 C3 246 -3.886
30 C3 247 -3.398
30 C3 248 -1.933
30 C3 249 1.485
30 C3 250 4.415
30 C3 251 6.856
30 C3 252 7.833
30 C3 253 7.345
30 C3 254 5.391
30 C3 255 2.950
# C4 chan 17
30 C4 0 -12.177
30 C4 1 -13.641
30 C4 2 -12.665
30 C4 3 -9.247
30 C4 4 -3.876
30 C4 5 0.519
30 C4 6 3.448
30 C4 7 3.937
30 C4 8 2.960
30 C4 9 2.472
30 C4 10 2.472
30 C4 11 2.960
30 C4 12 4.425
30 C4 13 5.402
30 C4 14 6.378
30 C4 15 7.355
30 C4 16 7.355
30 C4 17 7.355
30 C4 18 5.890
30 C4 19 4.425
30 C4 20 2.960
30 C4 21 1.495
30 C4 22 -0.458
30 C4 23 -2.411
30 C4 24 -5.341
30 C4 25 -6.805
30 C4 26 -6.317
30 C4 27 -3.876
30 C4 28 0.031
30 C4 29 3.937
30 C4 30 5.890
30 C4 31 4.913
30 C4 32 3.448
30 C4 33 1.984
30 C4 34 1.984
30 C4 35 2.960
30 C4 36 4.425
30 C4 37 4.913
30 C4 38 3.448
30 C4 39 2.472
30 C4 40 1.495
30 C4 41 1.984
30 C4 42 2.960
30 C4 43 4.913
30 C4 44 6.866
30 C4 45 7.355
30 C4 46 7.843
30 C4 47 6.866
30 C4 48 5.402
30 C4 49 3.937
30 C4 50 3.448
30 C4 51 4.425
30 C4 52 6.378
30 C4 53 8.331
30 C4 54 8.820
30 C4 55 7.355
30 C4 56 5.402
30 C4 57 3.937
30 C4 58 4.425
30 C4 59 6.378
30 C4 60 8.331
30 C4 61 8.820
30 C4 62 7.843
30 C4 63 5.402
30 C4 64 3.448
30 C4 65 1.495
30 C4 66 0.519
30 C4 67 0.031
30 C4 68 -0.946
30 C4 69 -0.458
30 C4 70 1.495
30 C4 71 4.913
30 C4 72 8.331
30 C4 73 10.773
30 C4 74 11.261
30 C4 75 11.261
30 C4 76 12.238
30 C4 77 13.702
30 C4 78 15.167
30 C4 79 15.167
30 C4 80 12.238
30 C4 81 7.355
30 C4 82 2.472
30 C4 83 -1.434
30 C4 84 -3.387
30 C4 85 -2.899
30 C4 86 -2.411
30 C4 87 -1.434
30 C4 88 -0.458
30 C4 89 1.495
30 C4 90 2.960
30 C4 91 3.448
30 C4 92 2.472
30 C4 93 -0.458
30 C4 94 -3.876
30 C4 95 -6.317
30 C4 96 -7.294
30 C4 97 -6.805
30 C4 98 -4.364
30 C4 99 -1.434
30 C4 100 2.472
30 C4 101 6.378
30 C4 102 9.796
30 C4 103 12.238
30 C4 104 13.702
30 C4 105 14.191
30 C4 106 14.191
30 C4 107 13.214
30 C4 108 11.749
30 C4 109 9.308
30 C4 110 6.378
30 C4 111 3.448
30 C4 112 1.984
30 C4 113 1.984
30 C4 114 3.448
30 C4 115 6.378
30 C4 116 9.308
30 C4 117 11.749
30 C4 118 13.702
30 C4 119 14.679
30 C4 120 14.679
30 C4 121 13.214
30 C4 122 10.284
30 C4 123 6.866
30 C4 124 4.425
30 C4 125 2.960
30 C4 126 3.448
30 C4 127 4.913
30 C4 128 6.378
30 C4 129 6.378
30 C4 130 6.866
30 C4 131 7.843
30 C4 132 9.796
30 C4 133 11.749
30 C4 134 12.238
30 C4 135 11.261
30 C4 136 8.820
30 C4 137 6.866
30 C4 138 5.402
30 C4 139 5.402
30 C4 140 4.913
30 C4 141 3.448
30 C4 142 1.495
30 C4 143 -0.458
30 C4 144 -1.434
30 C4 145 -0.946
30 C4 146 1.007
30 C4 147 2.472
30 C4 148 3.448
30 C4 149 3.448
30 C4 150 2.472
30 C4 151 0.519
30 C4 152 -1.434
30 C4 153 -2.899
30 C4 154 -2.899
30 C4 155 -1.434
30 C4 156 0.031
30 C4 157 2.472
30 C4 158 3.937
30 C4 159 3.937
30 C4 160 2.472
30 C4 161 -0.458
30 C4 162 -3.387
30 C4 163 -6.317
30 C4 164 -7.782
30 C4 165 -7.294
30 C4 166 -4.852
30 C4 167 -2.411
30 C4 168 0.031
30 C4 169 1.495
30 C4 170 1.984
30 C4 171 1.007
30 C4 172 -0.458
30 C4 173 -1.923
30 C4 174 -2.411
30 C4 175 -1.923
30 C4 176 -1.434
30 C4 177 -0.946
30 C4 178 -1.434
30 C4 179 -2.899
30 C4 180 -4.852
30 C4 181 -5.829
30 C4 182 -5.341
30 C4 183 -3.876
30 C4 184 -2.899
30 C4 185 -2.411
30 C4 186 -2.899
30 C4 187 -4.852
30 C4 188 -6.317
30 C4 189 -6.805
30 C4 190 -5.829
30 C4 191 -4.852
30 C4 192 -3.387
30 C4 193 -2.411
30 C4 194 -1.923
30 C4 195 -1.923
30 C4 196 -1.434
30 C4 197 -0.458
30 C4 198 1.007
30 C4 199 2.472
30 C4 200 2.960
30 C4 201 1.984
30 C4 202 -0.458
30 C4 203 -3.387
30 C4 204 -6.317
30 C4 205 -8.759
30 C4 206 -10.712
30 C4 207 -11.200
30 C4 208 -10.223
30 C4 209 -7.782
30 C4 210 -3.876
30 C4 211 0.519
30 C4 212 3.448
30 C4 213 4.425
30 C4 214 3.448
30 C4 215 1.984
30 C4 216 0.519
30 C4 217 0.519
30 C4 218 1.007
30 C4 219 1.007
30 C4 220 0.031
30 C4 221 -2.411
30 C4 222 -4.852
30 C4 223 -6.317
30 C4 224 -6.805
30 C4 225 -6.805
30 C4 226 -5.341
30 C4 227 -3.876
30 C4 228 -2.411
30 C4 229 -1.923
30 C4 230 -1.923
30 C4 231 -3.876
30 C4 232 -5.341
30 C4 233 -5.829
30 C4 234 -6.317
30 C4 235 -5.341
30 C4 236 -3.876
30 C4 237 -3.876
30 C4 238 -4.852
30 C4 239 -6.317
30 C4 240 -8.270
30 C4 241 -10.223
30 C4 242 -11.688
30 C4 243 -11.688
30 C4 244 -10.712
30 C4 245 -9.247
30 C4 246 -5.829
30 C4 247 -2.899
30 C4 248 0.031
30 C4 249 1.984
30 C4 250 3.448
30 C4 251 4.425
30 C4 252 4.425
30 C4 253 4.425
30 C4 254 3.937
30 C4 255 3.448
# CP5 chan 18
30 CP5 0 -1.862
30 CP5 1 -2.350
30 CP5 2 -2.350
30 CP5 3 -0.885
30 CP5 4 0.580
30 CP5 5 1.556
30 CP5 6 1.556
30 CP5 7 0.580
30 CP5 8 0.092
30 CP5 9 1.068
30 CP5 10 3.021
30 CP5 11 5.951
30 CP5 12 8.392
30 CP5 13 9.857
30 CP5 14 10.345
30 CP5 15 9.857
30 CP5 16 8.881
30 CP5 17 6.927
30 CP5 18 3.510
30 CP5 19 -0.397
30 CP5 20 -4.303
30 CP5 21 -7.233
30 CP5 22 -9.674
30 CP5 23 -10.162
30 CP5 24 -9.674
30 CP5 25 -8.698
30 CP5 26 -6.744
30 CP5 27 -4.791
30 CP5 28 -2.838
30 CP5 29 -0.397
30 CP5 30 2.533
30 CP5 31 5.463
30 CP5 32 9.369
30 CP5 33 13.763
30 CP5 34 17.670
30 CP5 35 19.623
30 CP5 36 18.158
30 CP5 37 12.787
30 CP5 38 5.951
30 CP5 39 0.580
30 CP5 40 -1.373
30 CP5 41 1.556
30 CP5 42 5.951
30 CP5 43 10.345
30 CP5 44 12.299
30 CP5 45 12.299
30 CP5 46 12.299
30 CP5 47 11.810
30 CP5 48 11.810
30 CP5 49 9.857
30 CP5 50 4.974
30 CP5 51 -0.885
30 CP5 52 -5.280
30 CP5 53 -7.721
30 CP5 54 -7.721
30 CP5 55 -7.233
30 CP5 56 -6.744
30 CP5 57 -7.233
30 CP5 58 -6.256
30 CP5 59 -3.326
30 CP5 60 1.556
30 CP5 61 5.951
30 CP5 62 9.369
30 CP5 63 10.345
30 CP5 64 10.834
30 CP5 65 11.322
30 CP5 66 11.810
30 CP5 67 11.322
30 CP5 68 9.857
30 CP5 69 7.416
30 CP5 70 6.439
30 CP5 71 7.416
30 CP5 72 9.857
30 CP5 73 12.299
30 CP5 74 12.787
30 CP5 75 10.834
30 CP5 76 7.416
30 CP5 77 4.486
30 CP5 78 4.486
30 CP5 79 6.439
30 CP5 80 9.857
30 CP5 81 12.787
30 CP5 82 15.228
30 CP5 83 17.181
30 CP5 84 17.670
30 CP5 85 17.670
30 CP5 86 16.205
30 CP5 87 13.763
30 CP5 88 11.810
30 CP5 89 9.857
30 CP5 90 8.881
30 CP5 91 8.392
30 CP5 92 7.904
30 CP5 93 6.927
30 CP5 94 5.951
30 CP5 95 5.463
30 CP5 96 5.951
30 CP5 97 6.439
30 CP5 98 6.439
30 CP5 99 6.927
30 CP5 100 6.927
30 CP5 101 8.881
30 CP5 102 10.834
30 CP5 103 12.787
30 CP5 104 14.740
30 CP5 105 14.252
30 CP5 106 12.787
30 CP5 107 10.345
30 CP5 108 8.392
30 CP5 109 6.927
30 CP5 110 7.416
30 CP5 111 9.369
30 CP5 112 10.834
30 CP5 113 10.345
30 CP5 114 7.904
30 CP5 115 3.510
30 CP5 116 -0.885
30 CP5 117 -1.862
30 CP5 118 0.580
30 CP5 119 5.463
30 CP5 120 9.857
30 CP5 121 10.834
30 CP5 122 7.904
30 CP5 123 2.045
30 CP5 124 -4.303
30 CP5 125 -8.209
30 CP5 126 -9.674
30 CP5 127 -8.698
30 CP5 128 -5.768
30 CP5 129 -1.373
30 CP5 130 3.510
30 CP5 131 8.392
30 CP5 132 11.810
30 CP5 133 13.763
30 CP5 134 14.252
30 CP5 135 14.252
30 CP5 136 14.740
30 CP5 137 15.717
30 CP5 138 16.205
30 CP5 139 13.763
30 CP5 140 8.881
30 CP5 141 2.533
30 CP5 142 -3.326
30 CP5 143 -6.256
30 CP5 144 -6.256
30 CP5 145 -3.815
30 CP5 146 -1.373
30 CP5 147 1.068
30 CP5 148 2.045
30 CP5 149 2.045
30 CP5 150 1.556
30 CP5 151 0.580
30 CP5 152 -0.885
30 CP5 153 -1.373
30 CP5 154 -0.397
30 CP5 155 2.533
30 CP5 156 6.439
30 CP5 157 9.857
30 CP5 158 9.857
30 CP5 159 6.439
30 CP5 160 0.580
30 CP5 161 -5.768
30 CP5 162 -8.698
30 CP5 163 -6.744
30 CP5 164 -2.838
30 CP5 165 1.068
30 CP5 166 2.045
30 CP5 167 1.068
30 CP5 168 -0.397
30 CP5 169 0.092
30 CP5 170 1.556
30 CP5 171 3.998
30 CP5 172 5.463
30 CP5 173 4.974
30 CP5 174 3.510
30 CP5 175 3.510
30 CP5 176 4.486
30 CP5 177 6.927
30 CP5 178 8.881
30 CP5 179 8.392
30 CP5 180 4.974
30 CP5 181 -0.885
30 CP5 182 -6.744
30 CP5 183 -10.162
30 CP5 184 -9.674
30 CP5 185 -6.744
30 CP5 186 -2.838
30 CP5 187 2.045
30 CP5 188 5.463
30 CP5 189 8.881
30 CP5 190 11.322
30 CP5 191 13.275
30 CP5 192 13.763
30 CP5 193 12.787
30 CP5 194 9.369
30 CP5 195 4.486
30 CP5 196 -0.397
30 CP5 197 -4.791
30 CP5 198 -7.721
30 CP5 199 -8.698
30 CP5 200 -8.698
30 CP5 201 -8.209
30 CP5 202 -6.744
30 CP5 203 -4.303
30 CP5 204 -1.373
30 CP5 205 0.580
30 CP5 206 0.580
30 CP5 207 -1.862
30 CP5 208 -5.280
30 CP5 209 -8.209
30 CP5 210 -9.186
30 CP5 211 -6.744
30 CP5 212 -2.838
30 CP5 213 1.556
30 CP5 214 4.974
30 CP5 215 6.927
30 CP5 216 8.881
30 CP5 217 9.857
30 CP5 218 10.345
30 CP5 219 10.834
30 CP5 220 10.345
30 CP5 221 9.369
30 CP5 222 7.416
30 CP5 223 4.486
30 CP5 224 1.556
30 CP5 225 -0.885
30 CP5 226 -1.862
30 CP5 227 -2.350
30 CP5 228 -1.373
30 CP5 229 -0.397
30 CP5 230 0.580
30 CP5 231 0.092
30 CP5 232 -1.862
30 CP5 233 -3.326
30 CP5 234 -4.303
30 CP5 235 -3.815
30 CP5 236 -2.350
30 CP5 237 -0.885
30 CP5 238 0.092
30 CP5 239 0.580
30 CP5 240 0.092
30 CP5 241 0.092
30 CP5 242 -0.397
30 CP5 243 -0.885
30 CP5 244 -2.350
30 CP5 245 -3.815
30 CP5 246 -5.768
30 CP5 247 -6.256
30 CP5 248 -4.303
30 CP5 249 -0.397
30 CP5 250 4.974
30 CP5 251 8.881
30 CP5 252 10.834
30 CP5 253 10.834
30 CP5 254 9.369
30 CP5 255 7.904
# CP6 chan 19
30 CP6 0 -12.665
30 CP6 1 -15.594
30 CP6 2 -14.130
30 CP6 3 -9.247
30 CP6 4 -2.899
30 CP6 5 0.519
30 CP6 6 0.519
30 CP6 7 -1.923
30 CP6 8 -3.876
30 CP6 9 -2.899
30 CP6 10 0.519
30 CP6 11 3.937
30 CP6 12 6.866
30 CP6 13 8.331
30 CP6 14 8.820
30 CP6 15 9.796
30 CP6 16 10.773
30 CP6 17 10.773
30 CP6 18 9.796
30 CP6 19 7.843
30 CP6 20 6.378
30 CP6 21 4.913
30 CP6 22 2.960
30 CP6 23 0.519
30 CP6 24 -2.899
30 CP6 25 -5.829
30 CP6 26 -6.317
30 CP6 27 -4.364
30 CP6 28 0.031
30 CP6 29 3.448
30 CP6 30 4.425
30 CP6 31 2.960
30 CP6 32 1.495
30 CP6 33 1.984
30 CP6 34 5.402
30 CP6 35 10.284
30 CP6 36 13.214
30 CP6 37 12.238
30 CP6 38 7.843
30 CP6 39 1.495
30 CP6 40 -2.899
30 CP6 41 -3.876
30 CP6 42 -1.434
30 CP6 43 1.984
30 CP6 44 5.402
30 CP6 45 7.843
30 CP6 46 9.796
30 CP6 47 10.284
30 CP6 48 10.284
30 CP6 49 8.820
30 CP6 50 6.378
30 CP6 51 4.425
30 CP6 52 3.937
30 CP6 53 4.913
30 CP6 54 4.425
30 CP6 55 2.960
30 CP6 56 -0.458
30 CP6 57 -3.387
30 CP6 58 -3.387
30 CP6 59 0.031
30 CP6 60 4.913
30 CP6 61 9.308
30 CP6 62 10.284
30 CP6 63 8.331
30 CP6 64 5.402
30 CP6 65 2.960
30 CP6 66 1.984
30 CP6 67 1.495
30 CP6 68 0.519
30 CP6 69 0.519
30 CP6 70 1.495
30 CP6 71 4.425
30 CP6 72 8.820
30 CP6 73 13.214
30 CP6 74 16.144
30 CP6 75 17.609
30 CP6 76 18.097
30 CP6 77 19.562
30 CP6 78 21.515
30 CP6 79 22.980
30 CP6 80 22.491
30 CP6 81 19.073
30 CP6 82 14.679
30 CP6 83 10.284
30 CP6 84 6.866
30 CP6 85 4.913
30 CP6 86 3.448
30 CP6 87 2.960
30 CP6 88 3.448
30 CP6 89 5.402
30 CP6 90 7.355
30 CP6 91 7.843
30 CP6 92 5.890
30 CP6 93 1.984
30 CP6 94 -1.923
30 CP6 95 -4.364
30 CP6 96 -4.852
30 CP6 97 -3.876
30 CP6 98 -1.923
30 CP6 99 0.031
30 CP6 100 2.960
30 CP6 101 6.866
30 CP6 102 11.261
30 CP6 103 15.167
30 CP6 104 17.609
30 CP6 105 18.585
30 CP6 106 17.609
30 CP6 107 16.144
30 CP6 108 13.702
30 CP6 109 9.796
30 CP6 110 4.913
30 CP6 111 0.519
30 CP6 112 -0.946
30 CP6 113 0.519
30 CP6 114 4.425
30 CP6 115 9.308
30 CP6 116 13.702
30 CP6 117 16.632
30 CP6 118 18.585
30 CP6 119 20.050
30 CP6 120 20.538
30 CP6 121 19.562
30 CP6 122 15.656
30 CP6 123 10.773
30 CP6 124 5.890
30 CP6 125 3.448
30 CP6 126 3.937
30 CP6 127 5.402
30 CP6 128 6.378
30 CP6 129 6.866
30 CP6 130 8.331
30 CP6 131 11.261
30 CP6 132 15.167
30 CP6 133 18.585
30 CP6 134 20.050
30 CP6 135 18.097
30 CP6 136 15.167
30 CP6 137 11.749
30 CP6 138 8.820
30 CP6 139 5.890
30 CP6 140 2.472
30 CP6 141 -0.458
30 CP6 142 -2.411
30 CP6 143 -2.899
30 CP6 144 -1.434
30 CP6 145 1.007
30 CP6 146 3.448
30 CP6 147 5.402
30 CP6 148 6.866
30 CP6 149 7.843
30 CP6 150 6.866
30 CP6 151 4.913
30 CP6 152 1.007
30 CP6 153 -1.923
30 CP6 154 -2.899
30 CP6 155 -0.946
30 CP6 156 2.472
30 CP6 157 5.890
30 CP6 158 6.866
30 CP6 159 4.425
30 CP6 160 0.031
30 CP6 161 -5.341
30 CP6 162 -9.247
30 CP6 163 -11.200
30 CP6 164 -11.200
30 CP6 165 -9.735
30 CP6 166 -8.270
30 CP6 167 -6.317
30 CP6 168 -3.876
30 CP6 169 -1.434
30 CP6 170 0.031
30 CP6 171 1.495
30 CP6 172 1.495
30 CP6 173 1.495
30 CP6 174 2.472
30 CP6 175 4.425
30 CP6 176 5.890
30 CP6 177 5.890
30 CP6 178 2.960
30 CP6 179 -3.387
30 CP6 180 -9.247
30 CP6 181 -13.153
30 CP6 182 -14.130
30 CP6 183 -12.177
30 CP6 184 -9.247
30 CP6 185 -7.294
30 CP6 186 -6.805
30 CP6 187 -7.294
30 CP6 188 -6.317
30 CP6 189 -4.852
30 CP6 190 -2.411
30 CP6 191 -0.458
30 CP6 192 0.031
30 CP6 193 -0.946
30 CP6 194 -1.923
30 CP6 195 -3.387
30 CP6 196 -3.876
30 CP6 197 -3.387
30 CP6 198 -1.923
30 CP6 199 0.031
30 CP6 200 1.007
30 CP6 201 1.007
30 CP6 202 0.031
30 CP6 203 -2.899
30 CP6 204 -5.341
30 CP6 205 -8.270
30 CP6 206 -10.712
30 CP6 207 -12.177
30 CP6 208 -12.177
30 CP6 209 -9.247
30 CP6 210 -5.341
30 CP6 211 -0.458
30 CP6 212 2.960
30 CP6 213 2.960
30 CP6 214 1.007
30 CP6 215 -0.458
30 CP6 216 -0.458
30 CP6 217 1.495
30 CP6 218 4.425
30 CP6 219 5.890
30 CP6 220 3.937
30 CP6 221 0.031
30 CP6 222 -4.364
30 CP6 223 -7.782
30 CP6 224 -8.759
30 CP6 225 -7.782
30 CP6 226 -5.341
30 CP6 227 -3.387
30 CP6 228 -1.923
30 CP6 229 -3.387
30 CP6 230 -6.805
30 CP6 231 -11.688
30 CP6 232 -16.083
30 CP6 233 -17.059
30 CP6 234 -15.106
30 CP6 235 -10.223
30 CP6 236 -6.805
30 CP6 237 -5.829
30 CP6 238 -8.759
30 CP6 239 -12.665
30 CP6 240 -16.083
30 CP6 241 -18.036
30 CP6 242 -18.524
30 CP6 243 -18.524
30 CP6 244 -17.548
30 CP6 245 -15.594
30 CP6 246 -11.200
30 CP6 247 -5.829
30 CP6 248 -1.434
30 CP6 249 1.495
30 CP6 250 1.495
30 CP6 251 0.031
30 CP6 252 -0.458
30 CP6 253 -0.458
30 CP6 254 1.495
30 CP6 255 3.448
# CP1 chan 20
30 CP1 0 -1.027
30 CP1 1 0.926
30 CP1 2 2.391
30 CP1 3 3.855
30 CP1 4 4.832
30 CP1 5 4.832
30 CP1 6 4.344
30 CP1 7 3.855
30 CP1 8 2.879
30 CP1 9 2.391
30 CP1 10 2.391
30 CP1 11 2.879
30 CP1 12 3.855
30 CP1 13 4.344
30 CP1 14 4.832
30 CP1 15 4.344
30 CP1 16 3.367
30 CP1 17 1.902
30 CP1 18 -0.051
30 CP1 19 -2.004
30 CP1 20 -3.957
30 CP1 21 -4.934
30 CP1 22 -5.422
30 CP1 23 -4.445
30 CP1 24 -2.492
30 CP1 25 -1.027
30 CP1 26 -0.051
30 CP1 27 -0.051
30 CP1 28 -0.539
30 CP1 29 -1.027
30 CP1 30 -1.027
30 CP1 31 0.437
30 CP1 32 2.879
30 CP1 33 5.809
30 CP1 34 8.738
30 CP1 35 10.203
30 CP1 36 9.226
30 CP1 37 6.297
30 CP1 38 2.879
30 CP1 39 -0.051
30 CP1 40 -1.027
30 CP1 41 -0.051
30 CP1 42 1.414
30 CP1 43 3.367
30 CP1 44 4.344
30 CP1 45 4.344
30 CP1 46 3.855
30 CP1 47 2.391
30 CP1 48 0.437
30 CP1 49 -1.516
30 CP1 50 -3.469
30 CP1 51 -4.445
30 CP1 52 -3.957
30 CP1 53 -2.492
30 CP1 54 -1.027
30 CP1 55 -0.051
30 CP1 56 0.437
30 CP1 57 -0.051
30 CP1 58 -0.051
30 CP1 59 0.926
30 CP1 60 2.391
30 CP1 61 3.855
30 CP1 62 3.855
30 CP1 63 2.391
30 CP1 64 0.926
30 CP1 65 -0.051
30 CP1 66 -0.051
30 CP1 67 0.437
30 CP1 68 1.414
30 CP1 69 2.391
30 CP1 70 3.367
30 CP1 71 4.832
30 CP1 72 6.297
30 CP1 73 8.250
30 CP1 74 9.226
30 CP1 75 8.250
30 CP1 76 6.297
30 CP1 77 4.344
30 CP1 78 2.879
30 CP1 79 3.367
30 CP1 80 5.320
30 CP1 81 8.250
30 CP1 82 11.180
30 CP1 83 13.133
30 CP1 84 13.621
30 CP1 85 12.156
30 CP1 86 10.691
30 CP1 87 9.715
30 CP1 88 8.738
30 CP1 89 7.762
30 CP1 90 6.785
30 CP1 91 5.320
30 CP1 92 3.367
30 CP1 93 1.902
30 CP1 94 0.437
30 CP1 95 -0.051
30 CP1 96 -0.051
30 CP1 97 0.437
30 CP1 98 1.414
30 CP1 99 2.391
30 CP1 100 3.367
30 CP1 101 4.832
30 CP1 102 5.809
30 CP1 103 6.297
30 CP1 104 6.297
30 CP1 105 4.832
30 CP1 106 2.391
30 CP1 107 0.437
30 CP1 108 -0.539
30 CP1 109 -0.051
30 CP1 110 1.414
30 CP1 111 3.367
30 CP1 112 4.832
30 CP1 113 4.832
30 CP1 114 4.344
30 CP1 115 3.367
30 CP1 116 2.879
30 CP1 117 2.879
30 CP1 118 3.855
30 CP1 119 5.320
30 CP1 120 5.809
30 CP1 121 4.832
30 CP1 122 2.879
30 CP1 123 0.926
30 CP1 124 -1.027
30 CP1 125 -1.516
30 CP1 126 -1.027
30 CP1 127 -0.051
30 CP1 128 1.414
30 CP1 129 3.367
30 CP1 130 4.832
30 CP1 131 6.297
30 CP1 132 7.273
30 CP1 133 7.762
30 CP1 134 6.785
30 CP1 135 5.809
30 CP1 136 5.320
30 CP1 137 5.809
30 CP1 138 6.297
30 CP1 139 7.273
30 CP1 140 6.785
30 CP1 141 5.809
30 CP1 142 4.832
30 CP1 143 3.855
30 CP1 144 3.367
30 CP1 145 3.367
30 CP1 146 3.367
30 CP1 147 3.855
30 CP1 148 3.855
30 CP1 149 3.855
30 CP1 150 3.855
30 CP1 151 2.879
30 CP1 152 1.902
30 CP1 153 0.437
30 CP1 154 -0.539
30 CP1 155 -0.539
30 CP1 156 -0.051
30 CP1 157 0.926
30 CP1 158 1.414
30 CP1 159 0.437
30 CP1 160 -0.539
30 CP1 161 -2.004
30 CP1 162 -2.492
30 CP1 163 -2.492
30 CP1 164 -2.492
30 CP1 165 -1.516
30 CP1 166 -0.539
30 CP1 167 0.437
30 CP1 168 2.391
30 CP1 169 4.344
30 CP1 170 5.809
30 CP1 171 6.297
30 CP1 172 6.785
30 CP1 173 6.297
30 CP1 174 4.832
30 CP1 175 3.367
30 CP1 176 1.902
30 CP1 177 -0.051
30 CP1 178 -1.516
30 CP1 179 -2.981
30 CP1 180 -4.445
30 CP1 181 -4.934
30 CP1 182 -5.422
30 CP1 183 -4.934
30 CP1 184 -4.445
30 CP1 185 -3.469
30 CP1 186 -2.492
30 CP1 187 -2.004
30 CP1 188 -1.027
30 CP1 189 -0.051
30 CP1 190 1.414
30 CP1 191 2.391
30 CP1 192 3.855
30 CP1 193 4.344
30 CP1 194 3.855
30 CP1 195 2.879
30 CP1 196 1.414
30 CP1 197 -0.051
30 CP1 198 -1.027
30 CP1 199 -1.516
30 CP1 200 -1.516
30 CP1 201 -1.516
30 CP1 202 -1.516
30 CP1 203 -2.004
30 CP1 204 -2.004
30 CP1 205 -1.516
30 CP1 206 -2.004
30 CP1 207 -2.492
30 CP1 208 -2.981
30 CP1 209 -3.957
30 CP1 210 -3.957
30 CP1 211 -2.004
30 CP1 212 -0.051
30 CP1 213 2.879
30 CP1 214 5.320
30 CP1 215 5.809
30 CP1 216 5.809
30 CP1 217 5.320
30 CP1 218 5.320
30 CP1 219 5.320
30 CP1 220 5.809
30 CP1 221 5.320
30 CP1 222 4.832
30 CP1 223 3.367
30 CP1 224 1.902
30 CP1 225 0.437
30 CP1 226 -0.539
30 CP1 227 -1.027
30 CP1 228 -1.516
30 CP1 229 -1.516
30 CP1 230 -1.516
30 CP1 231 -2.492
30 CP1 232 -3.469
30 CP1 233 -4.445
30 CP1 234 -5.422
30 CP1 235 -5.910
30 CP1 236 -4.934
30 CP1 237 -2.981
30 CP1 238 -1.516
30 CP1 239 -0.051
30 CP1 240 0.437
30 CP1 241 0.437
30 CP1 242 0.437
30 CP1 243 0.437
30 CP1 244 0.926
30 CP1 245 1.902
30 CP1 246 2.391
30 CP1 247 2.879
30 CP1 248 3.367
30 CP1 249 3.367
30 CP1 250 3.855
30 CP1 251 4.344
30 CP1 252 5.320
30 CP1 253 5.320
30 CP1 254 5.320
30 CP1 255 4.832
# CP2 chan 21
30 CP2 0 -7.192
30 CP2 1 -6.215
30 CP2 2 -4.262
30 CP2 3 -1.333
30 CP2 4 1.597
30 CP2 5 4.038
30 CP2 6 5.992
30 CP2 7 6.480
30 CP2 8 5.992
30 CP2 9 5.503
30 CP2 10 4.527
30 CP2 11 4.038
30 CP2 12 3.550
30 CP2 13 3.550
30 CP2 14 3.550
30 CP2 15 4.038
30 CP2 16 4.527
30 CP2 17 4.527
30 CP2 18 4.527
30 CP2 19 3.550
30 CP2 20 2.574
30 CP2 21 1.109
30 CP2 22 1.109
30 CP2 23 1.109
30 CP2 24 0.621
30 CP2 25 0.132
30 CP2 26 -0.844
30 CP2 27 -0.844
30 CP2 28 -1.333
30 CP2 29 -1.333
30 CP2 30 -1.821
30 CP2 31 -1.821
30 CP2 32 -1.333
30 CP2 33 0.621
30 CP2 34 3.062
30 CP2 35 5.992
30 CP2 36 6.968
30 CP2 37 6.480
30 CP2 38 4.038
30 CP2 39 1.597
30 CP2 40 -0.356
30 CP2 41 -0.844
30 CP2 42 -0.356
30 CP2 43 1.109
30 CP2 44 2.574
30 CP2 45 3.550
30 CP2 46 4.038
30 CP2 47 3.062
30 CP2 48 2.085
30 CP2 49 0.132
30 CP2 50 -1.333
30 CP2 51 -1.821
30 CP2 52 -0.356
30 CP2 53 1.597
30 CP2 54 2.574
30 CP2 55 3.062
30 CP2 56 2.085
30 CP2 57 1.109
30 CP2 58 1.109
30 CP2 59 3.062
30 CP2 60 4.527
30 CP2 61 5.503
30 CP2 62 5.015
30 CP2 63 2.574
30 CP2 64 0.132
30 CP2 65 -1.821
30 CP2 66 -1.821
30 CP2 67 -1.821
30 CP2 68 -0.844
30 CP2 69 0.132
30 CP2 70 1.597
30 CP2 71 4.527
30 CP2 72 7.456
30 CP2 73 10.386
30 CP2 74 11.851
30 CP2 75 11.851
30 CP2 76 10.874
30 CP2 77 9.898
30 CP2 78 9.410
30 CP2 79 10.386
30 CP2 80 10.874
30 CP2 81 10.874
30 CP2 82 9.898
30 CP2 83 8.921
30 CP2 84 6.968
30 CP2 85 5.015
30 CP2 86 3.550
30 CP2 87 3.062
30 CP2 88 3.062
30 CP2 89 4.038
30 CP2 90 4.038
30 CP2 91 4.038
30 CP2 92 2.085
30 CP2 93 0.132
30 CP2 94 -1.821
30 CP2 95 -3.286
30 CP2 96 -3.286
30 CP2 97 -2.797
30 CP2 98 -0.844
30 CP2 99 0.621
30 CP2 100 2.574
30 CP2 101 4.527
30 CP2 102 5.992
30 CP2 103 7.456
30 CP2 104 7.945
30 CP2 105 6.968
30 CP2 106 5.503
30 CP2 107 4.038
30 CP2 108 2.085
30 CP2 109 1.109
30 CP2 110 0.132
30 CP2 111 0.132
30 CP2 112 0.621
30 CP2 113 1.109
30 CP2 114 2.574
30 CP2 115 4.038
30 CP2 116 5.992
30 CP2 117 7.456
30 CP2 118 8.921
30 CP2 119 9.898
30 CP2 120 9.898
30 CP2 121 9.410
30 CP2 122 7.456
30 CP2 123 5.015
30 CP2 124 2.574
30 CP2 125 2.085
30 CP2 126 3.062
30 CP2 127 5.015
30 CP2 128 6.480
30 CP2 129 7.456
30 CP2 130 7.945
30 CP2 131 7.945
30 CP2 132 8.433
30 CP2 133 8.921
30 CP2 134 7.945
30 CP2 135 5.992
30 CP2 136 3.550
30 CP2 137 2.085
30 CP2 138 1.597
30 CP2 139 2.574
30 CP2 140 3.550
30 CP2 141 4.038
30 CP2 142 4.038
30 CP2 143 4.038
30 CP2 144 4.527
30 CP2 145 5.503
30 CP2 146 6.968
30 CP2 147 7.945
30 CP2 148 8.433
30 CP2 149 7.945
30 CP2 150 6.968
30 CP2 151 5.015
30 CP2 152 3.062
30 CP2 153 0.621
30 CP2 154 -0.844
30 CP2 155 -1.821
30 CP2 156 -1.333
30 CP2 157 0.132
30 CP2 158 1.109
30 CP2 159 1.597
30 CP2 160 0.621
30 CP2 161 -1.333
30 CP2 162 -3.774
30 CP2 163 -5.239
30 CP2 164 -6.215
30 CP2 165 -5.727
30 CP2 166 -4.262
30 CP2 167 -1.821
30 CP2 168 1.109
30 CP2 169 3.550
30 CP2 170 5.992
30 CP2 171 6.968
30 CP2 172 7.456
30 CP2 173 6.968
30 CP2 174 6.480
30 CP2 175 5.503
30 CP2 176 4.527
30 CP2 177 2.085
30 CP2 178 -0.844
30 CP2 179 -4.262
30 CP2 180 -6.704
30 CP2 181 -7.192
30 CP2 182 -6.704
30 CP2 183 -4.751
30 CP2 184 -3.286
30 CP2 185 -2.797
30 CP2 186 -3.286
30 CP2 187 -3.286
30 CP2 188 -3.286
30 CP2 189 -2.797
30 CP2 190 -1.333
30 CP2 191 -0.356
30 CP2 192 0.132
30 CP2 193 0.132
30 CP2 194 -0.356
30 CP2 195 -0.844
30 CP2 196 -0.356
30 CP2 197 1.109
30 CP2 198 2.574
30 CP2 199 4.527
30 CP2 200 5.503
30 CP2 201 5.015
30 CP2 202 3.550
30 CP2 203 1.109
30 CP2 204 -0.844
30 CP2 205 -2.309
30 CP2 206 -2.797
30 CP2 207 -3.286
30 CP2 208 -3.774
30 CP2 209 -3.286
30 CP2 210 -1.821
30 CP2 211 0.621
30 CP2 212 2.574
30 CP2 213 4.038
30 CP2 214 4.527
30 CP2 215 4.038
30 CP2 216 4.038
30 CP2 217 3.550
30 CP2 218 5.015
30 CP2 219 5.992
30 CP2 220 5.503
30 CP2 221 4.527
30 CP2 222 2.574
30 CP2 223 0.621
30 CP2 224 -0.356
30 CP2 225 -0.844
30 CP2 226 -0.356
30 CP2 227 0.132
30 CP2 228 0.132
30 CP2 229 0.132
30 CP2 230 -0.844
30 CP2 231 -2.309
30 CP2 232 -4.262
30 CP2 233 -4.751
30 CP2 234 -5.239
30 CP2 235 -4.262
30 CP2 236 -3.286
30 CP2 237 -3.286
30 CP2 238 -3.774
30 CP2 239 -4.751
30 CP2 240 -5.239
30 CP2 241 -5.727
30 CP2 242 -5.239
30 CP2 243 -4.751
30 CP2 244 -3.286
30 CP2 245 -1.333
30 CP2 246 1.109
30 CP2 247 3.062
30 CP2 248 4.527
30 CP2 249 4.527
30 CP2 250 4.527
30 CP2 251 4.527
30 CP2 252 4.527
30 CP2 253 5.015
30 CP2 254 5.992
30 CP2 255 6.480
# P3 chan 22
30 P3 0 -2.787
30 P3 1 -1.811
30 P3 2 -0.346
30 P3 3 0.631
30 P3 4 1.607
30 P3 5 2.584
30 P3 6 3.560
30 P3 7 4.537
30 P3 8 6.002
30 P3 9 6.978
30 P3 10 7.955
30 P3 11 8.443
30 P3 12 9.420
30 P3 13 10.396
30 P3 14 10.885
30 P3 15 10.885
30 P3 16 9.908
30 P3 17 7.955
30 P3 18 5.025
30 P3 19 0.631
30 P3 20 -3.276
30 P3 21 -7.670
30 P3 22 -11.088
30 P3 23 -12.553
30 P3 24 -11.088
30 P3 25 -8.647
30 P3 26 -5.717
30 P3 27 -3.276
30 P3 28 -2.299
30 P3 29 -2.299
30 P3 30 -1.811
30 P3 31 1.119
30 P3 32 6.002
30 P3 33 12.349
30 P3 34 18.209
30 P3 35 20.650
30 P3 36 19.185
30 P3 37 13.814
30 P3 38 7.467
30 P3 39 1.607
30 P3 40 -1.811
30 P3 41 -1.322
30 P3 42 1.607
30 P3 43 4.537
30 P3 44 6.978
30 P3 45 7.955
30 P3 46 7.467
30 P3 47 5.514
30 P3 48 3.560
30 P3 49 0.631
30 P3 50 -2.299
30 P3 51 -4.740
30 P3 52 -6.205
30 P3 53 -5.717
30 P3 54 -4.252
30 P3 55 -3.276
30 P3 56 -2.787
30 P3 57 -2.787
30 P3 58 -0.834
30 P3 59 2.584
30 P3 60 6.978
30 P3 61 10.396
30 P3 62 11.373
30 P3 63 9.908
30 P3 64 7.955
30 P3 65 6.490
30 P3 66 6.490
30 P3 67 6.978
30 P3 68 6.978
30 P3 69 6.490
30 P3 70 6.490
30 P3 71 7.955
30 P3 72 10.885
30 P3 73 14.791
30 P3 74 16.744
30 P3 75 16.256
30 P3 76 13.326
30 P3 77 9.908
30 P3 78 8.443
30 P3 79 9.420
30 P3 80 12.838
30 P3 81 16.256
30 P3 82 18.697
30 P3 83 19.185
30 P3 84 18.697
30 P3 85 17.721
30 P3 86 16.256
30 P3 87 14.791
30 P3 88 13.326
30 P3 89 11.861
30 P3 90 9.908
30 P3 91 7.467
30 P3 92 5.514
30 P3 93 3.072
30 P3 94 0.631
30 P3 95 -1.322
30 P3 96 -2.787
30 P3 97 -3.276
30 P3 98 -2.787
30 P3 99 -0.834
30 P3 100 1.119
30 P3 101 3.072
30 P3 102 5.025
30 P3 103 6.002
30 P3 104 6.490
30 P3 105 5.514
30 P3 106 4.049
30 P3 107 1.607
30 P3 108 -0.834
30 P3 109 -2.787
30 P3 110 -2.299
30 P3 111 -0.834
30 P3 112 1.607
30 P3 113 3.072
30 P3 114 3.072
30 P3 115 1.119
30 P3 116 -0.834
30 P3 117 -0.346
30 P3 118 2.096
30 P3 119 6.002
30 P3 120 8.931
30 P3 121 8.931
30 P3 122 5.514
30 P3 123 0.631
30 P3 124 -3.276
30 P3 125 -5.717
30 P3 126 -6.205
30 P3 127 -5.229
30 P3 128 -3.276
30 P3 129 -0.346
30 P3 130 3.560
30 P3 131 7.467
30 P3 132 10.396
30 P3 133 11.861
30 P3 134 12.349
30 P3 135 11.861
30 P3 136 11.861
30 P3 137 12.349
30 P3 138 12.349
30 P3 139 11.373
30 P3 140 8.443
30 P3 141 4.537
30 P3 142 0.631
30 P3 143 -1.811
30 P3 144 -2.787
30 P3 145 -2.787
30 P3 146 -1.811
30 P3 147 0.142
30 P3 148 2.096
30 P3 149 4.049
30 P3 150 5.025
30 P3 151 4.049
30 P3 152 1.119
30 P3 153 -1.322
30 P3 154 -2.299
30 P3 155 -1.322
30 P3 156 1.119
30 P3 157 2.584
30 P3 158 1.607
30 P3 159 -1.322
30 P3 160 -4.740
30 P3 161 -8.158
30 P3 162 -8.647
30 P3 163 -8.647
30 P3 164 -6.694
30 P3 165 -5.229
30 P3 166 -3.764
30 P3 167 -1.811
30 P3 168 0.631
30 P3 169 4.049
30 P3 170 6.490
30 P3 171 7.955
30 P3 172 7.955
30 P3 173 7.467
30 P3 174 6.978
30 P3 175 5.514
30 P3 176 4.537
30 P3 177 2.584
30 P3 178 -0.346
30 P3 179 -3.764
30 P3 180 -8.158
30 P3 181 -12.553
30 P3 182 -15.483
30 P3 183 -16.459
30 P3 184 -15.483
30 P3 185 -12.553
30 P3 186 -8.647
30 P3 187 -4.740
30 P3 188 -0.834
30 P3 189 2.584
30 P3 190 6.002
30 P3 191 8.931
30 P3 192 10.885
30 P3 193 10.396
30 P3 194 7.955
30 P3 195 4.049
30 P3 196 -1.322
30 P3 197 -5.229
30 P3 198 -7.670
30 P3 199 -8.647
30 P3 200 -8.647
30 P3 201 -8.158
30 P3 202 -7.670
30 P3 203 -7.182
30 P3 204 -6.205
30 P3 205 -5.229
30 P3 206 -4.740
30 P3 207 -5.229
30 P3 208 -6.205
30 P3 209 -6.694
30 P3 210 -6.205
30 P3 211 -3.764
30 P3 212 0.142
30 P3 213 4.049
30 P3 214 7.467
30 P3 215 8.931
30 P3 216 9.420
30 P3 217 8.443
30 P3 218 7.955
30 P3 219 7.467
30 P3 220 6.978
30 P3 221 6.490
30 P3 222 6.002
30 P3 223 4.049
30 P3 224 1.607
30 P3 225 -1.322
30 P3 226 -3.276
30 P3 227 -4.252
30 P3 228 -3.764
30 P3 229 -3.276
30 P3 230 -2.787
30 P3 231 -2.787
30 P3 232 -4.252
30 P3 233 -5.717
30 P3 234 -6.205
30 P3 235 -6.205
30 P3 236 -4.740
30 P3 237 -2.787
30 P3 238 -1.811
30 P3 239 -1.811
30 P3 240 -2.787
30 P3 241 -3.764
30 P3 242 -3.764
30 P3 243 -3.276
30 P3 244 -2.299
30 P3 245 -1.322
30 P3 246 0.142
30 P3 247 1.119
30 P3 248 2.584
30 P3 249 5.025
30 P3 250 7.467
30 P3 251 9.420
30 P3 252 10.396
30 P3 253 10.396
30 P3 254 9.420
30 P3 255 8.443
# P4 chan 23
30 P4 0 -9.501
30 P4 1 -9.501
30 P4 2 -7.060
30 P4 3 -3.642
30 P4 4 0.264
30 P4 5 3.682
30 P4 6 4.659
30 P4 7 4.659
30 P4 8 4.659
30 P4 9 4.659
30 P4 10 5.636
30 P4 11 6.612
30 P4 12 7.100
30 P4 13 7.100
30 P4 14 7.100
30 P4 15 8.077
30 P4 16 9.542
30 P4 17 11.007
30 P4 18 11.495
30 P4 19 9.542
30 P4 20 7.100
30 P4 21 4.171
30 P4 22 1.729
30 P4 23 0.264
30 P4 24 0.264
30 P4 25 -0.224
30 P4 26 -0.224
30 P4 27 0.264
30 P4 28 1.241
30 P4 29 1.241
30 P4 30 0.264
30 P4 31 -1.200
30 P4 32 -1.200
30 P4 33 0.753
30 P4 34 4.659
30 P4 35 9.054
30 P4 36 11.495
30 P4 37 10.030
30 P4 38 5.636
30 P4 39 0.753
30 P4 40 -2.665
30 P4 41 -3.642
30 P4 42 -2.177
30 P4 43 0.264
30 P4 44 3.682
30 P4 45 6.124
30 P4 46 7.589
30 P4 47 8.077
30 P4 48 7.100
30 P4 49 5.147
30 P4 50 3.682
30 P4 51 2.706
30 P4 52 3.682
30 P4 53 4.659
30 P4 54 4.171
30 P4 55 2.218
30 P4 56 -0.224
30 P4 57 -1.689
30 P4 58 -1.200
30 P4 59 2.218
30 P4 60 6.124
30 P4 61 8.565
30 P4 62 8.565
30 P4 63 6.612
30 P4 64 4.171
30 P4 65 2.706
30 P4 66 2.218
30 P4 67 2.706
30 P4 68 3.194
30 P4 69 3.682
30 P4 70 4.171
30 P4 71 6.124
30 P4 72 10.030
30 P4 73 13.936
30 P4 74 16.866
30 P4 75 17.843
30 P4 76 17.354
30 P4 77 17.354
30 P4 78 18.819
30 P4 79 21.261
30 P4 80 23.702
30 P4 81 24.679
30 P4 82 23.214
30 P4 83 19.307
30 P4 84 14.425
30 P4 85 10.030
30 P4 86 7.100
30 P4 87 5.636
30 P4 88 6.124
30 P4 89 6.612
30 P4 90 5.636
30 P4 91 4.659
30 P4 92 1.729
30 P4 93 -0.712
30 P4 94 -3.153
30 P4 95 -4.130
30 P4 96 -4.130
30 P4 97 -3.153
30 P4 98 -1.200
30 P4 99 1.241
30 P4 100 3.682
30 P4 101 6.124
30 P4 102 8.565
30 P4 103 10.030
30 P4 104 11.007
30 P4 105 10.518
30 P4 106 9.542
30 P4 107 7.100
30 P4 108 4.171
30 P4 109 1.729
30 P4 110 -0.224
30 P4 111 -0.712
30 P4 112 -0.224
30 P4 113 1.241
30 P4 114 3.682
30 P4 115 5.147
30 P4 116 7.100
30 P4 117 9.054
30 P4 118 10.518
30 P4 119 11.983
30 P4 120 12.960
30 P4 121 12.472
30 P4 122 10.030
30 P4 123 6.612
30 P4 124 3.682
30 P4 125 2.218
30 P4 126 2.706
30 P4 127 4.659
30 P4 128 6.124
30 P4 129 7.100
30 P4 130 7.589
30 P4 131 9.054
30 P4 132 11.007
30 P4 133 12.960
30 P4 134 13.448
30 P4 135 11.007
30 P4 136 8.077
30 P4 137 5.147
30 P4 138 3.194
30 P4 139 1.729
30 P4 140 0.753
30 P4 141 -0.712
30 P4 142 -1.200
30 P4 143 -0.224
30 P4 144 1.729
30 P4 145 4.171
30 P4 146 7.100
30 P4 147 8.565
30 P4 148 10.030
30 P4 149 10.518
30 P4 150 10.030
30 P4 151 8.565
30 P4 152 5.636
30 P4 153 1.729
30 P4 154 -1.200
30 P4 155 -2.177
30 P4 156 -0.712
30 P4 157 1.729
30 P4 158 3.682
30 P4 159 3.682
30 P4 160 0.753
30 P4 161 -3.153
30 P4 162 -7.060
30 P4 163 -9.501
30 P4 164 -10.478
30 P4 165 -9.989
30 P4 166 -8.036
30 P4 167 -5.107
30 P4 168 -1.200
30 P4 169 3.194
30 P4 170 6.612
30 P4 171 8.565
30 P4 172 9.542
30 P4 173 10.030
30 P4 174 10.518
30 P4 175 10.518
30 P4 176 9.054
30 P4 177 5.636
30 P4 178 0.264
30 P4 179 -6.083
30 P4 180 -11.454
30 P4 181 -13.896
30 P4 182 -13.896
30 P4 183 -12.431
30 P4 184 -10.478
30 P4 185 -8.525
30 P4 186 -7.060
30 P4 187 -5.595
30 P4 188 -3.153
30 P4 189 -0.712
30 P4 190 1.729
30 P4 191 3.194
30 P4 192 3.682
30 P4 193 3.194
30 P4 194 1.729
30 P4 195 0.264
30 P4 196 -0.224
30 P4 197 0.264
30 P4 198 1.729
30 P4 199 4.171
30 P4 200 5.147
30 P4 201 5.147
30 P4 202 3.194
30 P4 203 0.264
30 P4 204 -1.689
30 P4 205 -3.153
30 P4 206 -4.618
30 P4 207 -5.595
30 P4 208 -6.571
30 P4 209 -5.595
30 P4 210 -3.153
30 P4 211 0.264
30 P4 212 3.194
30 P4 213 4.171
30 P4 214 4.171
30 P4 215 3.682
30 P4 216 4.171
30 P4 217 6.124
30 P4 218 8.077
30 P4 219 9.542
30 P4 220 8.565
30 P4 221 6.124
30 P4 222 2.706
30 P4 223 0.264
30 P4 224 -1.200
30 P4 225 -1.689
30 P4 226 -1.689
30 P4 227 -0.712
30 P4 228 -0.224
30 P4 229 -0.712
30 P4 230 -1.689
30 P4 231 -4.618
30 P4 232 -7.548
30 P4 233 -8.525
30 P4 234 -7.548
30 P4 235 -5.107
30 P4 236 -3.153
30 P4 237 -3.642
30 P4 238 -6.083
30 P4 239 -9.989
30 P4 240 -12.431
30 P4 241 -13.407
30 P4 242 -12.431
30 P4 243 -10.478
30 P4 244 -8.036
30 P4 245 -4.618
30 P4 246 -0.712
30 P4 247 3.194
30 P4 248 6.124
30 P4 249 7.100
30 P4 250 6.612
30 P4 251 6.124
30 P4 252 6.124
30 P4 253 6.612
30 P4 254 8.077
30 P4 255 9.054
# PZ chan 24
30 PZ 0 -3.286
30 PZ 1 -0.844
30 PZ 2 2.085
30 PZ 3 4.038
30 PZ 4 5.015
30 PZ 5 5.992
30 PZ 6 6.968
30 PZ 7 7.945
30 PZ 8 7.945
30 PZ 9 6.968
30 PZ 10 5.992
30 PZ 11 5.503
30 PZ 12 5.503
30 PZ 13 5.992
30 PZ 14 5.992
30 PZ 15 6.968
30 PZ 16 6.968
30 PZ 17 6.968
30 PZ 18 5.992
30 PZ 19 4.038
30 PZ 20 1.109
30 PZ 21 -1.333
30 PZ 22 -2.797
30 PZ 23 -2.309
30 PZ 24 -1.333
30 PZ 25 -0.356
30 PZ 26 -0.356
30 PZ 27 -1.821
30 PZ 28 -4.262
30 PZ 29 -5.727
30 PZ 30 -6.704
30 PZ 31 -5.239
30 PZ 32 -1.333
30 PZ 33 3.550
30 PZ 34 8.433
30 PZ 35 11.363
30 PZ 36 11.363
30 PZ 37 8.921
30 PZ 38 4.527
30 PZ 39 0.132
30 PZ 40 -2.309
30 PZ 41 -2.797
30 PZ 42 -1.333
30 PZ 43 1.597
30 PZ 44 4.038
30 PZ 45 5.503
30 PZ 46 5.503
30 PZ 47 3.550
30 PZ 48 1.597
30 PZ 49 -1.333
30 PZ 50 -3.774
30 PZ 51 -4.751
30 PZ 52 -4.262
30 PZ 53 -2.309
30 PZ 54 -0.356
30 PZ 55 0.621
30 PZ 56 1.109
30 PZ 57 1.109
30 PZ 58 2.574
30 PZ 59 4.527
30 PZ 60 6.480
30 PZ 61 7.456
30 PZ 62 6.480
30 PZ 63 3.062
30 PZ 64 -0.356
30 PZ 65 -2.797
30 PZ 66 -3.286
30 PZ 67 -2.309
30 PZ 68 -0.844
30 PZ 69 0.621
30 PZ 70 2.085
30 PZ 71 4.527
30 PZ 72 7.945
30 PZ 73 11.851
30 PZ 74 13.804
30 PZ 75 13.804
30 PZ 76 11.363
30 PZ 77 8.433
30 PZ 78 6.968
30 PZ 79 7.456
30 PZ 80 9.410
30 PZ 81 12.339
30 PZ 82 14.292
30 PZ 83 13.804
30 PZ 84 11.851
30 PZ 85 9.410
30 PZ 86 7.945
30 PZ 87 7.456
30 PZ 88 7.945
30 PZ 89 8.433
30 PZ 90 7.945
30 PZ 91 5.992
30 PZ 92 2.574
30 PZ 93 -0.844
30 PZ 94 -3.774
30 PZ 95 -5.239
30 PZ 96 -5.727
30 PZ 97 -5.727
30 PZ 98 -4.262
30 PZ 99 -3.286
30 PZ 100 -1.333
30 PZ 101 0.621
30 PZ 102 2.574
30 PZ 103 3.550
30 PZ 104 3.550
30 PZ 105 2.574
30 PZ 106 0.132
30 PZ 107 -2.309
30 PZ 108 -4.751
30 PZ 109 -5.727
30 PZ 110 -5.727
30 PZ 111 -4.262
30 PZ 112 -2.309
30 PZ 113 -0.844
30 PZ 114 0.132
30 PZ 115 0.621
30 PZ 116 1.597
30 PZ 117 3.550
30 PZ 118 5.992
30 PZ 119 8.921
30 PZ 120 10.386
30 PZ 121 10.386
30 PZ 122 8.433
30 PZ 123 5.503
30 PZ 124 3.062
30 PZ 125 2.574
30 PZ 126 3.550
30 PZ 127 5.503
30 PZ 128 6.968
30 PZ 129 7.945
30 PZ 130 7.945
30 PZ 131 8.433
30 PZ 132 9.410
30 PZ 133 8.921
30 PZ 134 7.456
30 PZ 135 5.015
30 PZ 136 2.574
30 PZ 137 1.597
30 PZ 138 1.597
30 PZ 139 3.062
30 PZ 140 4.527
30 PZ 141 5.015
30 PZ 142 5.015
30 PZ 143 5.015
30 PZ 144 5.992
30 PZ 145 7.456
30 PZ 146 8.921
30 PZ 147 10.386
30 PZ 148 11.363
30 PZ 149 11.363
30 PZ 150 10.874
30 PZ 151 9.410
30 PZ 152 6.480
30 PZ 153 3.550
30 PZ 154 0.621
30 PZ 155 -1.333
30 PZ 156 -1.821
30 PZ 157 -1.821
30 PZ 158 -0.844
30 PZ 159 -0.844
30 PZ 160 -1.333
30 PZ 161 -2.797
30 PZ 162 -4.751
30 PZ 163 -6.215
30 PZ 164 -7.192
30 PZ 165 -6.704
30 PZ 166 -5.239
30 PZ 167 -2.309
30 PZ 168 1.109
30 PZ 169 5.503
30 PZ 170 8.921
30 PZ 171 11.851
30 PZ 172 13.804
30 PZ 173 15.269
30 PZ 174 15.269
30 PZ 175 14.292
30 PZ 176 11.851
30 PZ 177 8.433
30 PZ 178 3.550
30 PZ 179 -1.333
30 PZ 180 -5.727
30 PZ 181 -8.169
30 PZ 182 -9.145
30 PZ 183 -9.145
30 PZ 184 -8.169
30 PZ 185 -7.192
30 PZ 186 -6.704
30 PZ 187 -6.215
30 PZ 188 -4.751
30 PZ 189 -2.797
30 PZ 190 -0.844
30 PZ 191 1.597
30 PZ 192 3.062
30 PZ 193 4.038
30 PZ 194 4.038
30 PZ 195 2.574
30 PZ 196 1.597
30 PZ 197 1.597
30 PZ 198 2.574
30 PZ 199 4.038
30 PZ 200 5.015
30 PZ 201 4.527
30 PZ 202 3.550
30 PZ 203 2.085
30 PZ 204 1.597
30 PZ 205 1.597
30 PZ 206 2.085
30 PZ 207 3.062
30 PZ 208 2.574
30 PZ 209 2.574
30 PZ 210 3.062
30 PZ 211 4.527
30 PZ 212 5.992
30 PZ 213 7.945
30 PZ 214 8.921
30 PZ 215 8.433
30 PZ 216 7.456
30 PZ 217 7.456
30 PZ 218 7.456
30 PZ 219 7.945
30 PZ 220 8.433
30 PZ 221 8.433
30 PZ 222 7.456
30 PZ 223 5.992
30 PZ 224 4.527
30 PZ 225 3.062
30 PZ 226 2.085
30 PZ 227 2.085
30 PZ 228 1.597
30 PZ 229 1.597
30 PZ 230 0.621
30 PZ 231 -0.844
30 PZ 232 -2.797
30 PZ 233 -4.751
30 PZ 234 -5.727
30 PZ 235 -6.215
30 PZ 236 -5.239
30 PZ 237 -4.262
30 PZ 238 -4.262
30 PZ 239 -3.774
30 PZ 240 -3.774
30 PZ 241 -4.262
30 PZ 242 -3.774
30 PZ 243 -2.309
30 PZ 244 -0.356
30 PZ 245 2.085
30 PZ 246 4.527
30 PZ 247 6.480
30 PZ 248 6.968
30 PZ 249 6.968
30 PZ 250 6.968
30 PZ 251 7.456
30 PZ 252 8.433
30 PZ 253 9.410
30 PZ 254 10.386
30 PZ 255 10.874
# P8 chan 25
30 P8 0 -9.979
30 P8 1 -14.862
30 P8 2 -14.862
30 P8 3 -9.491
30 P8 4 -3.143
30 P8 5 0.763
30 P8 6 -1.190
30 P8 7 -6.073
30 P8 8 -9.003
30 P8 9 -7.538
30 P8 10 -1.190
30 P8 11 7.599
30 P8 12 12.970
30 P8 13 14.435
30 P8 14 12.970
30 P8 15 11.505
30 P8 16 11.993
30 P8 17 14.435
30 P8 18 16.876
30 P8 19 16.876
30 P8 20 14.435
30 P8 21 10.040
30 P8 22 5.157
30 P8 23 -0.214
30 P8 24 -4.608
30 P8 25 -8.026
30 P8 26 -8.026
30 P8 27 -4.608
30 P8 28 1.740
30 P8 29 8.575
30 P8 30 11.505
30 P8 31 10.529
30 P8 32 7.111
30 P8 33 6.134
30 P8 34 9.064
30 P8 35 15.411
30 P8 36 21.271
30 P8 37 22.736
30 P8 38 17.853
30 P8 39 10.040
30 P8 40 1.740
30 P8 41 -2.655
30 P8 42 -2.655
30 P8 43 0.275
30 P8 44 4.181
30 P8 45 6.134
30 P8 46 7.599
30 P8 47 8.575
30 P8 48 9.552
30 P8 49 9.552
30 P8 50 8.575
30 P8 51 5.646
30 P8 52 1.740
30 P8 53 -1.678
30 P8 54 -3.632
30 P8 55 -4.608
30 P8 56 -6.073
30 P8 57 -6.561
30 P8 58 -6.561
30 P8 59 -4.120
30 P8 60 1.251
30 P8 61 7.599
30 P8 62 12.970
30 P8 63 14.923
30 P8 64 14.435
30 P8 65 12.970
30 P8 66 11.993
30 P8 67 11.505
30 P8 68 10.529
30 P8 69 8.087
30 P8 70 4.669
30 P8 71 3.693
30 P8 72 5.646
30 P8 73 12.482
30 P8 74 19.806
30 P8 75 24.200
30 P8 76 25.177
30 P8 77 24.200
30 P8 78 24.200
30 P8 79 27.130
30 P8 80 31.036
30 P8 81 33.478
30 P8 82 32.013
30 P8 83 27.130
30 P8 84 21.271
30 P8 85 17.365
30 P8 86 16.388
30 P8 87 16.876
30 P8 88 17.853
30 P8 89 16.876
30 P8 90 13.947
30 P8 91 9.552
30 P8 92 5.157
30 P8 93 1.740
30 P8 94 0.275
30 P8 95 0.275
30 P8 96 1.251
30 P8 97 2.716
30 P8 98 3.693
30 P8 99 4.181
30 P8 100 5.646
30 P8 101 9.064
30 P8 102 13.458
30 P8 103 18.341
30 P8 104 22.247
30 P8 105 24.200
30 P8 106 23.224
30 P8 107 20.294
30 P8 108 15.900
30 P8 109 9.064
30 P8 110 1.251
30 P8 111 -5.096
30 P8 112 -7.538
30 P8 113 -3.632
30 P8 114 4.669
30 P8 115 12.970
30 P8 116 17.365
30 P8 117 17.853
30 P8 118 16.876
30 P8 119 17.365
30 P8 120 19.806
30 P8 121 21.271
30 P8 122 18.829
30 P8 123 11.993
30 P8 124 4.181
30 P8 125 -1.190
30 P8 126 -2.167
30 P8 127 0.275
30 P8 128 3.693
30 P8 129 6.134
30 P8 130 8.575
30 P8 131 12.970
30 P8 132 19.318
30 P8 133 25.177
30 P8 134 27.618
30 P8 135 25.665
30 P8 136 19.806
30 P8 137 13.947
30 P8 138 8.575
30 P8 139 4.181
30 P8 140 -0.702
30 P8 141 -6.073
30 P8 142 -9.979
30 P8 143 -9.491
30 P8 144 -4.608
30 P8 145 3.693
30 P8 146 10.529
30 P8 147 13.458
30 P8 148 12.482
30 P8 149 9.552
30 P8 150 7.111
30 P8 151 7.111
30 P8 152 8.575
30 P8 153 9.552
30 P8 154 9.064
30 P8 155 8.575
30 P8 156 9.064
30 P8 157 10.529
30 P8 158 11.505
30 P8 159 8.575
30 P8 160 1.251
30 P8 161 -8.514
30 P8 162 -15.350
30 P8 163 -18.280
30 P8 164 -16.327
30 P8 165 -12.909
30 P8 166 -11.932
30 P8 167 -12.421
30 P8 168 -12.909
30 P8 169 -10.956
30 P8 170 -6.073
30 P8 171 -0.214
30 P8 172 4.181
30 P8 173 6.622
30 P8 174 8.087
30 P8 175 10.529
30 P8 176 12.482
30 P8 177 12.970
30 P8 178 9.064
30 P8 179 1.251
30 P8 180 -8.026
30 P8 181 -14.862
30 P8 182 -18.280
30 P8 183 -17.792
30 P8 184 -15.839
30 P8 185 -13.885
30 P8 186 -11.932
30 P8 187 -9.491
30 P8 188 -5.585
30 P8 189 -1.190
30 P8 190 3.204
30 P8 191 5.646
30 P8 192 5.646
30 P8 193 4.181
30 P8 194 1.740
30 P8 195 -1.190
30 P8 196 -4.608
30 P8 197 -6.561
30 P8 198 -6.561
30 P8 199 -5.096
30 P8 200 -2.655
30 P8 201 -0.702
30 P8 202 -0.214
30 P8 203 -1.678
30 P8 204 -4.120
30 P8 205 -7.538
30 P8 206 -11.444
30 P8 207 -14.374
30 P8 208 -14.862
30 P8 209 -12.909
30 P8 210 -8.026
30 P8 211 -2.655
30 P8 212 0.763
30 P8 213 1.251
30 P8 214 0.275
30 P8 215 -0.214
30 P8 216 2.228
30 P8 217 6.622
30 P8 218 10.040
30 P8 219 10.040
30 P8 220 6.134
30 P8 221 -0.702
30 P8 222 -6.561
30 P8 223 -9.491
30 P8 224 -9.491
30 P8 225 -7.050
30 P8 226 -3.632
30 P8 227 -0.214
30 P8 228 1.740
30 P8 229 0.763
30 P8 230 -4.608
30 P8 231 -13.885
30 P8 232 -22.186
30 P8 233 -24.628
30 P8 234 -19.745
30 P8 235 -10.468
30 P8 236 -2.167
30 P8 237 -1.190
30 P8 238 -7.538
30 P8 239 -16.327
30 P8 240 -22.186
30 P8 241 -23.651
30 P8 242 -22.186
30 P8 243 -20.233
30 P8 244 -18.768
30 P8 245 -16.327
30 P8 246 -11.444
30 P8 247 -4.120
30 P8 248 1.740
30 P8 249 4.181
30 P8 250 1.251
30 P8 251 -3.632
30 P8 252 -6.561
30 P8 253 -6.073
30 P8 254 -2.167
30 P8 255 1.740
# P7 chan 26
30 P7 0 -5.931
30 P7 1 -10.325
30 P7 2 -10.813
30 P7 3 -9.349
30 P7 4 -7.395
30 P7 5 -6.419
30 P7 6 -6.907
30 P7 7 -5.931
30 P7 8 -3.489
30 P7 9 1.394
30 P7 10 6.276
30 P7 11 9.694
30 P7 12 11.159
30 P7 13 12.136
30 P7 14 13.601
30 P7 15 15.554
30 P7 16 16.530
30 P7 17 15.066
30 P7 18 10.671
30 P7 19 3.347
30 P7 20 -3.977
30 P7 21 -11.302
30 P7 22 -16.673
30 P7 23 -21.067
30 P7 24 -24.485
30 P7 25 -26.438
30 P7 26 -24.485
30 P7 27 -20.091
30 P7 28 -13.255
30 P7 29 -7.395
30 P7 30 -2.513
30 P7 31 1.394
30 P7 32 7.253
30 P7 33 14.577
30 P7 34 23.366
30 P7 35 30.691
30 P7 36 33.132
30 P7 37 29.226
30 P7 38 20.925
30 P7 39 11.159
30 P7 40 3.835
30 P7 41 1.394
30 P7 42 2.370
30 P7 43 5.300
30 P7 44 7.253
30 P7 45 7.741
30 P7 46 7.253
30 P7 47 7.253
30 P7 48 7.253
30 P7 49 6.276
30 P7 50 3.347
30 P7 51 -1.536
30 P7 52 -6.907
30 P7 53 -9.837
30 P7 54 -10.325
30 P7 55 -8.860
30 P7 56 -6.419
30 P7 57 -4.466
30 P7 58 -2.513
30 P7 59 1.394
30 P7 60 6.765
30 P7 61 13.112
30 P7 62 17.995
30 P7 63 20.925
30 P7 64 20.925
30 P7 65 19.460
30 P7 66 16.530
30 P7 67 14.577
30 P7 68 12.624
30 P7 69 11.648
30 P7 70 12.136
30 P7 71 13.601
30 P7 72 16.042
30 P7 73 17.995
30 P7 74 17.995
30 P7 75 16.530
30 P7 76 14.089
30 P7 77 12.136
30 P7 78 11.159
30 P7 79 12.624
30 P7 80 16.042
30 P7 81 20.437
30 P7 82 24.831
30 P7 83 27.761
30 P7 84 29.226
30 P7 85 27.761
30 P7 86 24.831
30 P7 87 20.925
30 P7 88 17.019
30 P7 89 14.089
30 P7 90 11.648
30 P7 91 10.671
30 P7 92 9.694
30 P7 93 9.206
30 P7 94 8.230
30 P7 95 7.253
30 P7 96 5.788
30 P7 97 3.347
30 P7 98 1.882
30 P7 99 1.882
30 P7 100 3.835
30 P7 101 7.741
30 P7 102 11.159
30 P7 103 14.089
30 P7 104 15.066
30 P7 105 14.577
30 P7 106 13.112
30 P7 107 10.671
30 P7 108 6.765
30 P7 109 1.882
30 P7 110 -1.048
30 P7 111 -0.559
30 P7 112 2.370
30 P7 113 6.765
30 P7 114 7.741
30 P7 115 4.323
30 P7 116 -1.536
30 P7 117 -4.466
30 P7 118 -2.513
30 P7 119 3.835
30 P7 120 9.694
30 P7 121 11.159
30 P7 122 6.276
30 P7 123 -3.001
30 P7 124 -12.278
30 P7 125 -17.649
30 P7 126 -19.114
30 P7 127 -16.673
30 P7 128 -12.278
30 P7 129 -5.442
30 P7 130 1.882
30 P7 131 8.230
30 P7 132 13.112
30 P7 133 16.530
30 P7 134 17.995
30 P7 135 19.460
30 P7 136 20.925
30 P7 137 21.413
30 P7 138 20.437
30 P7 139 15.554
30 P7 140 7.741
30 P7 141 -0.559
30 P7 142 -7.395
30 P7 143 -11.790
30 P7 144 -12.767
30 P7 145 -11.302
30 P7 146 -7.884
30 P7 147 -2.513
30 P7 148 2.858
30 P7 149 7.741
30 P7 150 9.206
30 P7 151 7.253
30 P7 152 2.858
30 P7 153 0.417
30 P7 154 1.394
30 P7 155 6.765
30 P7 156 13.112
30 P7 157 16.042
30 P7 158 13.112
30 P7 159 3.835
30 P7 160 -7.884
30 P7 161 -19.114
30 P7 162 -23.020
30 P7 163 -20.091
30 P7 164 -12.767
30 P7 165 -5.442
30 P7 166 -1.536
30 P7 167 -1.536
30 P7 168 -2.024
30 P7 169 -1.048
30 P7 170 2.370
30 P7 171 7.253
30 P7 172 9.694
30 P7 173 8.718
30 P7 174 6.276
30 P7 175 4.812
30 P7 176 5.788
30 P7 177 9.206
30 P7 178 12.136
30 P7 179 11.159
30 P7 180 5.788
30 P7 181 -3.001
30 P7 182 -11.302
30 P7 183 -16.673
30 P7 184 -17.161
30 P7 185 -14.231
30 P7 186 -9.837
30 P7 187 -4.954
30 P7 188 0.417
30 P7 189 5.788
30 P7 190 11.159
30 P7 191 15.554
30 P7 192 17.019
30 P7 193 15.066
30 P7 194 11.159
30 P7 195 5.300
30 P7 196 -1.536
30 P7 197 -7.884
30 P7 198 -12.767
30 P7 199 -16.673
30 P7 200 -17.161
30 P7 201 -16.184
30 P7 202 -13.255
30 P7 203 -11.302
30 P7 204 -10.325
30 P7 205 -10.813
30 P7 206 -12.278
30 P7 207 -12.767
30 P7 208 -12.278
30 P7 209 -11.790
30 P7 210 -11.302
30 P7 211 -9.837
30 P7 212 -6.907
30 P7 213 -2.024
30 P7 214 4.812
30 P7 215 10.671
30 P7 216 13.601
30 P7 217 13.601
30 P7 218 11.159
30 P7 219 8.230
30 P7 220 7.253
30 P7 221 6.765
30 P7 222 6.276
30 P7 223 4.323
30 P7 224 0.417
30 P7 225 -3.977
30 P7 226 -7.884
30 P7 227 -10.325
30 P7 228 -10.813
30 P7 229 -9.837
30 P7 230 -7.884
30 P7 231 -5.442
30 P7 232 -3.489
30 P7 233 -1.536
30 P7 234 -0.071
30 P7 235 1.882
30 P7 236 2.858
30 P7 237 3.347
30 P7 238 1.394
30 P7 239 -2.024
30 P7 240 -5.931
30 P7 241 -8.372
30 P7 242 -9.349
30 P7 243 -8.372
30 P7 244 -7.884
30 P7 245 -8.860
30 P7 246 -9.837
30 P7 247 -8.860
30 P7 248 -4.466
30 P7 249 2.370
30 P7 250 8.718
30 P7 251 12.624
30 P7 252 13.112
30 P7 253 11.159
30 P7 254 9.694
30 P7 255 9.694
# PO2 chan 27
30 PO2 0 -10.244
30 PO2 1 -8.291
30 PO2 2 -5.849
30 PO2 3 -3.896
30 PO2 4 -2.920
30 PO2 5 -1.455
30 PO2 6 0.010
30 PO2 7 1.963
30 PO2 8 3.916
30 PO2 9 4.893
30 PO2 10 5.381
30 PO2 11 5.870
30 PO2 12 5.870
30 PO2 13 5.870
30 PO2 14 6.358
30 PO2 15 7.334
30 PO2 16 8.799
30 PO2 17 9.776
30 PO2 18 10.264
30 PO2 19 7.823
30 PO2 20 2.940
30 PO2 21 -1.943
30 PO2 22 -5.361
30 PO2 23 -6.337
30 PO2 24 -5.361
30 PO2 25 -3.408
30 PO2 26 -1.943
30 PO2 27 -1.455
30 PO2 28 -2.920
30 PO2 29 -5.361
30 PO2 30 -7.802
30 PO2 31 -9.755
30 PO2 32 -8.779
30 PO2 33 -5.849
30 PO2 34 -1.455
30 PO2 35 1.963
30 PO2 36 3.428
30 PO2 37 0.987
30 PO2 38 -3.408
30 PO2 39 -8.291
30 PO2 40 -11.709
30 PO2 41 -12.197
30 PO2 42 -10.244
30 PO2 43 -6.337
30 PO2 44 -2.431
30 PO2 45 0.498
30 PO2 46 2.452
30 PO2 47 2.452
30 PO2 48 0.498
30 PO2 49 -1.455
30 PO2 50 -2.920
30 PO2 51 -2.920
30 PO2 52 -2.431
30 PO2 53 -2.431
30 PO2 54 -4.384
30 PO2 55 -6.826
30 PO2 56 -9.267
30 PO2 57 -10.244
30 PO2 58 -7.314
30 PO2 59 -2.920
30 PO2 60 1.963
30 PO2 61 4.893
30 PO2 62 3.916
30 PO2 63 1.963
30 PO2 64 -0.478
30 PO2 65 -1.943
30 PO2 66 -1.455
30 PO2 67 0.010
30 PO2 68 1.475
30 PO2 69 1.963
30 PO2 70 2.452
30 PO2 71 3.428
30 PO2 72 6.358
30 PO2 73 10.264
30 PO2 74 13.194
30 PO2 75 14.170
30 PO2 76 13.194
30 PO2 77 12.705
30 PO2 78 13.194
30 PO2 79 16.612
30 PO2 80 21.006
30 PO2 81 23.936
30 PO2 82 23.448
30 PO2 83 19.053
30 PO2 84 12.705
30 PO2 85 6.358
30 PO2 86 2.452
30 PO2 87 1.963
30 PO2 88 1.963
30 PO2 89 2.452
30 PO2 90 0.498
30 PO2 91 -2.920
30 PO2 92 -6.826
30 PO2 93 -10.732
30 PO2 94 -13.662
30 PO2 95 -15.127
30 PO2 96 -16.103
30 PO2 97 -15.615
30 PO2 98 -13.662
30 PO2 99 -10.732
30 PO2 100 -7.314
30 PO2 101 -4.873
30 PO2 102 -3.408
30 PO2 103 -2.920
30 PO2 104 -2.920
30 PO2 105 -3.408
30 PO2 106 -4.384
30 PO2 107 -6.826
30 PO2 108 -9.267
30 PO2 109 -11.220
30 PO2 110 -11.220
30 PO2 111 -9.755
30 PO2 112 -7.314
30 PO2 113 -5.849
30 PO2 114 -5.849
30 PO2 115 -6.826
30 PO2 116 -6.826
30 PO2 117 -5.361
30 PO2 118 -2.920
30 PO2 119 -0.478
30 PO2 120 0.987
30 PO2 121 0.987
30 PO2 122 -0.478
30 PO2 123 -1.943
30 PO2 124 -3.408
30 PO2 125 -4.384
30 PO2 126 -4.873
30 PO2 127 -4.873
30 PO2 128 -4.873
30 PO2 129 -3.896
30 PO2 130 -2.920
30 PO2 131 -0.966
30 PO2 132 0.987
30 PO2 133 2.452
30 PO2 134 2.452
30 PO2 135 0.987
30 PO2 136 -0.966
30 PO2 137 -2.920
30 PO2 138 -4.873
30 PO2 139 -5.849
30 PO2 140 -7.314
30 PO2 141 -8.291
30 PO2 142 -8.779
30 PO2 143 -8.779
30 PO2 144 -7.802
30 PO2 145 -5.849
30 PO2 146 -3.408
30 PO2 147 -0.966
30 PO2 148 0.987
30 PO2 149 2.940
30 PO2 150 3.428
30 PO2 151 2.452
30 PO2 152 0.010
30 PO2 153 -3.408
30 PO2 154 -6.826
30 PO2 155 -8.779
30 PO2 156 -9.267
30 PO2 157 -8.291
30 PO2 158 -6.826
30 PO2 159 -5.849
30 PO2 160 -6.337
30 PO2 161 -8.779
30 PO2 162 -12.197
30 PO2 163 -15.615
30 PO2 164 -18.056
30 PO2 165 -19.033
30 PO2 166 -18.056
30 PO2 167 -14.150
30 PO2 168 -9.267
30 PO2 169 -3.896
30 PO2 170 0.987
30 PO2 171 4.893
30 PO2 172 7.823
30 PO2 173 9.776
30 PO2 174 10.264
30 PO2 175 9.776
30 PO2 176 7.823
30 PO2 177 2.940
30 PO2 178 -3.408
30 PO2 179 -10.732
30 PO2 180 -17.080
30 PO2 181 -20.986
30 PO2 182 -22.939
30 PO2 183 -22.939
30 PO2 184 -22.451
30 PO2 185 -20.986
30 PO2 186 -19.033
30 PO2 187 -15.615
30 PO2 188 -10.732
30 PO2 189 -5.849
30 PO2 190 -0.966
30 PO2 191 0.987
30 PO2 192 0.987
30 PO2 193 -1.943
30 PO2 194 -5.361
30 PO2 195 -8.779
30 PO2 196 -10.732
30 PO2 197 -10.244
30 PO2 198 -8.291
30 PO2 199 -5.849
30 PO2 200 -4.873
30 PO2 201 -5.361
30 PO2 202 -6.337
30 PO2 203 -8.291
30 PO2 204 -8.779
30 PO2 205 -9.267
30 PO2 206 -9.755
30 PO2 207 -10.732
30 PO2 208 -11.220
30 PO2 209 -11.220
30 PO2 210 -9.267
30 PO2 211 -7.314
30 PO2 212 -5.361
30 PO2 213 -3.896
30 PO2 214 -3.408
30 PO2 215 -2.920
30 PO2 216 -2.431
30 PO2 217 -1.455
30 PO2 218 0.010
30 PO2 219 0.498
30 PO2 220 0.498
30 PO2 221 -0.478
30 PO2 222 -1.943
30 PO2 223 -3.408
30 PO2 224 -5.849
30 PO2 225 -7.802
30 PO2 226 -9.755
30 PO2 227 -11.220
30 PO2 228 -11.709
30 PO2 229 -11.220
30 PO2 230 -11.709
30 PO2 231 -12.685
30 PO2 232 -14.150
30 PO2 233 -15.615
30 PO2 234 -15.127
30 PO2 235 -14.150
30 PO2 236 -13.173
30 PO2 237 -13.662
30 PO2 238 -16.591
30 PO2 239 -20.498
30 PO2 240 -23.427
30 PO2 241 -24.892
30 PO2 242 -23.916
30 PO2 243 -20.986
30 PO2 244 -17.080
30 PO2 245 -12.685
30 PO2 246 -9.267
30 PO2 247 -5.849
30 PO2 248 -3.896
30 PO2 249 -1.943
30 PO2 250 -0.966
30 PO2 251 0.010
30 PO2 252 1.475
30 PO2 253 2.452
30 PO2 254 2.452
30 PO2 255 2.452
# PO1 chan 28
30 PO1 0 -7.243
30 PO1 1 -5.778
30 PO1 2 -3.825
30 PO1 3 -2.848
30 PO1 4 -1.872
30 PO1 5 -0.407
30 PO1 6 3.011
30 PO1 7 5.941
30 PO1 8 8.870
30 PO1 9 9.359
30 PO1 10 9.359
30 PO1 11 9.359
30 PO1 12 10.335
30 PO1 13 11.800
30 PO1 14 12.288
30 PO1 15 12.777
30 PO1 16 12.288
30 PO1 17 10.824
30 PO1 18 8.870
30 PO1 19 4.964
30 PO1 20 0.081
30 PO1 21 -5.778
30 PO1 22 -11.149
