# co2a0000430.rd
# 120 trials, 64 chans, 416 samples 368 post_stim samples
# 3.906000 msecs uV
# S2 nomatch, trial 29
# FP1 chan 0
29 FP1 0 -4.445
29 FP1 1 -2.492
29 FP1 2 -0.539
29 FP1 3 0.926
29 FP1 4 1.902
29 FP1 5 2.391
29 FP1 6 0.926
29 FP1 7 -1.516
29 FP1 8 -4.934
29 FP1 9 -6.887
29 FP1 10 -7.375
29 FP1 11 -5.422
29 FP1 12 -3.469
29 FP1 13 -2.004
29 FP1 14 -2.004
29 FP1 15 -2.981
29 FP1 16 -3.469
29 FP1 17 -3.469
29 FP1 18 -1.027
29 FP1 19 1.902
29 FP1 20 5.809
29 FP1 21 7.762
29 FP1 22 8.738
29 FP1 23 7.273
29 FP1 24 5.809
29 FP1 25 4.344
29 FP1 26 4.344
29 FP1 27 4.344
29 FP1 28 3.367
29 FP1 29 1.902
29 FP1 30 0.926
29 FP1 31 0.926
29 FP1 32 2.391
29 FP1 33 4.832
29 FP1 34 6.297
29 FP1 35 5.809
29 FP1 36 4.832
29 FP1 37 4.344
29 FP1 38 5.320
29 FP1 39 7.273
29 FP1 40 9.715
29 FP1 41 10.203
29 FP1 42 10.203
29 FP1 43 9.715
29 FP1 44 10.203
29 FP1 45 11.180
29 FP1 46 12.644
29 FP1 47 13.621
29 FP1 48 12.644
29 FP1 49 11.668
29 FP1 50 10.691
29 FP1 51 11.180
29 FP1 52 12.644
29 FP1 53 14.109
29 FP1 54 14.598
29 FP1 55 14.598
29 FP1 56 12.644
29 FP1 57 10.203
29 FP1 58 6.785
29 FP1 59 2.391
29 FP1 60 -2.981
29 FP1 61 -7.863
29 FP1 62 -11.281
29 FP1 63 -11.281
29 FP1 64 -9.328
29 FP1 65 -5.422
29 FP1 66 -1.027
29 FP1 67 2.391
29 FP1 68 4.344
29 FP1 69 4.832
29 FP1 70 4.832
29 FP1 71 4.344
29 FP1 72 4.344
29 FP1 73 5.809
29 FP1 74 7.762
29 FP1 75 10.203
29 FP1 76 11.180
29 FP1 77 9.715
29 FP1 78 7.273
29 FP1 79 4.344
29 FP1 80 3.367
29 FP1 81 3.855
29 FP1 82 6.785
29 FP1 83 9.715
29 FP1 84 11.668
29 FP1 85 11.668
29 FP1 86 10.691
29 FP1 87 10.203
29 FP1 88 9.715
29 FP1 89 10.691
29 FP1 90 11.668
29 FP1 91 13.133
29 FP1 92 14.109
29 FP1 93 15.086
29 FP1 94 15.086
29 FP1 95 15.086
29 FP1 96 14.598
29 FP1 97 14.109
29 FP1 98 13.133
29 FP1 99 13.133
29 FP1 100 13.621
29 FP1 101 15.086
29 FP1 102 16.551
29 FP1 103 17.039
29 FP1 104 16.551
29 FP1 105 14.109
29 FP1 106 11.668
29 FP1 107 9.715
29 FP1 108 7.762
29 FP1 109 5.809
29 FP1 110 3.855
29 FP1 111 1.414
29 FP1 112 -0.051
29 FP1 113 -1.027
29 FP1 114 -1.516
29 FP1 115 -2.004
29 FP1 116 -3.957
29 FP1 117 -6.887
29 FP1 118 -9.328
29 FP1 119 -9.816
29 FP1 120 -7.375
29 FP1 121 -3.957
29 FP1 122 -1.027
29 FP1 123 -0.051
29 FP1 124 -0.051
29 FP1 125 -1.027
29 FP1 126 -1.027
29 FP1 127 -0.051
29 FP1 128 0.437
29 FP1 129 -0.051
29 FP1 130 -1.027
29 FP1 131 -1.516
29 FP1 132 -0.051
29 FP1 133 2.879
29 FP1 134 6.297
29 FP1 135 8.738
29 FP1 136 9.715
29 FP1 137 8.250
29 FP1 138 6.785
29 FP1 139 5.320
29 FP1 140 2.879
29 FP1 141 0.926
29 FP1 142 -2.004
29 FP1 143 -4.934
29 FP1 144 -6.887
29 FP1 145 -6.399
29 FP1 146 -4.445
29 FP1 147 -1.516
29 FP1 148 0.926
29 FP1 149 2.391
29 FP1 150 2.879
29 FP1 151 1.902
29 FP1 152 -0.051
29 FP1 153 -3.469
29 FP1 154 -7.375
29 FP1 155 -10.793
29 FP1 156 -12.746
29 FP1 157 -12.746
29 FP1 158 -11.770
29 FP1 159 -10.305
29 FP1 160 -8.840
29 FP1 161 -8.352
29 FP1 162 -8.352
29 FP1 163 -7.863
29 FP1 164 -6.399
29 FP1 165 -5.422
29 FP1 166 -4.934
29 FP1 167 -4.445
29 FP1 168 -3.957
29 FP1 169 -2.981
29 FP1 170 -2.492
29 FP1 171 -2.981
29 FP1 172 -3.957
29 FP1 173 -5.910
29 FP1 174 -7.375
29 FP1 175 -6.887
29 FP1 176 -4.934
29 FP1 177 -1.516
29 FP1 178 1.902
29 FP1 179 4.344
29 FP1 180 4.832
29 FP1 181 4.832
29 FP1 182 4.344
29 FP1 183 5.320
29 FP1 184 6.297
29 FP1 185 5.809
29 FP1 186 3.855
29 FP1 187 -0.051
29 FP1 188 -3.957
29 FP1 189 -5.910
29 FP1 190 -3.957
29 FP1 191 0.926
29 FP1 192 7.273
29 FP1 193 11.668
29 FP1 194 13.133
29 FP1 195 11.668
29 FP1 196 8.738
29 FP1 197 5.320
29 FP1 198 2.391
29 FP1 199 -1.027
29 FP1 200 -3.469
29 FP1 201 -5.422
29 FP1 202 -5.910
29 FP1 203 -3.469
29 FP1 204 0.437
29 FP1 205 4.832
29 FP1 206 8.738
29 FP1 207 10.203
29 FP1 208 9.715
29 FP1 209 7.762
29 FP1 210 5.809
29 FP1 211 2.879
29 FP1 212 0.926
29 FP1 213 -0.539
29 FP1 214 0.437
29 FP1 215 2.391
29 FP1 216 6.297
29 FP1 217 10.203
29 FP1 218 13.133
29 FP1 219 14.109
29 FP1 220 13.133
29 FP1 221 10.691
29 FP1 222 7.762
29 FP1 223 4.832
29 FP1 224 2.391
29 FP1 225 0.926
29 FP1 226 -0.051
29 FP1 227 -0.539
29 FP1 228 -0.051
29 FP1 229 0.437
29 FP1 230 0.437
29 FP1 231 -0.051
29 FP1 232 -0.539
29 FP1 233 -1.027
29 FP1 234 -1.516
29 FP1 235 -1.516
29 FP1 236 -2.004
29 FP1 237 -2.492
29 FP1 238 -3.469
29 FP1 239 -3.957
29 FP1 240 -4.445
29 FP1 241 -3.469
29 FP1 242 -1.516
29 FP1 243 -0.051
29 FP1 244 0.926
29 FP1 245 1.414
29 FP1 246 0.437
29 FP1 247 -1.027
29 FP1 248 -2.981
29 FP1 249 -4.934
29 FP1 250 -6.399
29 FP1 251 -6.399
29 FP1 252 -5.422
29 FP1 253 -3.469
29 FP1 254 -0.539
29 FP1 255 1.902
# FP2 chan 1
29 FP2 0 -2.411
29 FP2 1 3.937
29 FP2 2 9.308
29 FP2 3 12.726
29 FP2 4 13.702
29 FP2 5 12.238
29 FP2 6 8.820
29 FP2 7 4.425
29 FP2 8 1.007
29 FP2 9 -2.411
29 FP2 10 -3.876
29 FP2 11 -3.876
29 FP2 12 -2.411
29 FP2 13 1.007
29 FP2 14 3.448
29 FP2 15 5.890
29 FP2 16 6.866
29 FP2 17 6.866
29 FP2 18 7.843
29 FP2 19 8.820
29 FP2 20 9.796
29 FP2 21 10.284
29 FP2 22 9.308
29 FP2 23 7.843
29 FP2 24 7.843
29 FP2 25 10.284
29 FP2 26 14.191
29 FP2 27 18.585
29 FP2 28 20.538
29 FP2 29 19.073
29 FP2 30 16.144
29 FP2 31 14.191
29 FP2 32 14.191
29 FP2 33 16.632
29 FP2 34 18.585
29 FP2 35 19.562
29 FP2 36 18.585
29 FP2 37 17.120
29 FP2 38 15.656
29 FP2 39 16.144
29 FP2 40 17.120
29 FP2 41 17.609
29 FP2 42 19.073
29 FP2 43 21.027
29 FP2 44 24.933
29 FP2 45 28.839
29 FP2 46 31.281
29 FP2 47 30.304
29 FP2 48 25.909
29 FP2 49 21.515
29 FP2 50 20.050
29 FP2 51 22.003
29 FP2 52 26.398
29 FP2 53 29.816
29 FP2 54 30.792
29 FP2 55 28.839
29 FP2 56 25.909
29 FP2 57 23.956
29 FP2 58 22.491
29 FP2 59 20.538
29 FP2 60 17.120
29 FP2 61 12.238
29 FP2 62 7.355
29 FP2 63 4.425
29 FP2 64 4.913
29 FP2 65 6.866
29 FP2 66 10.284
29 FP2 67 12.726
29 FP2 68 14.191
29 FP2 69 15.656
29 FP2 70 16.632
29 FP2 71 18.097
29 FP2 72 19.562
29 FP2 73 21.027
29 FP2 74 22.980
29 FP2 75 24.445
29 FP2 76 25.421
29 FP2 77 23.956
29 FP2 78 21.027
29 FP2 79 18.097
29 FP2 80 16.144
29 FP2 81 16.632
29 FP2 82 17.609
29 FP2 83 18.585
29 FP2 84 18.585
29 FP2 85 17.120
29 FP2 86 16.144
29 FP2 87 16.632
29 FP2 88 18.585
29 FP2 89 20.538
29 FP2 90 21.515
29 FP2 91 20.538
29 FP2 92 19.073
29 FP2 93 19.073
29 FP2 94 20.538
29 FP2 95 22.491
29 FP2 96 22.980
29 FP2 97 22.003
29 FP2 98 20.050
29 FP2 99 18.585
29 FP2 100 20.050
29 FP2 101 22.491
29 FP2 102 25.909
29 FP2 103 27.374
29 FP2 104 26.886
29 FP2 105 24.445
29 FP2 106 21.515
29 FP2 107 18.585
29 FP2 108 16.632
29 FP2 109 14.679
29 FP2 110 13.214
29 FP2 111 12.238
29 FP2 112 12.238
29 FP2 113 11.749
29 FP2 114 11.261
29 FP2 115 10.284
29 FP2 116 8.820
29 FP2 117 7.355
29 FP2 118 5.890
29 FP2 119 5.890
29 FP2 120 6.866
29 FP2 121 8.820
29 FP2 122 10.284
29 FP2 123 10.284
29 FP2 124 10.284
29 FP2 125 10.284
29 FP2 126 10.284
29 FP2 127 11.261
29 FP2 128 11.749
29 FP2 129 12.238
29 FP2 130 11.749
29 FP2 131 12.238
29 FP2 132 13.702
29 FP2 133 16.144
29 FP2 134 19.562
29 FP2 135 22.003
29 FP2 136 22.491
29 FP2 137 21.027
29 FP2 138 19.073
29 FP2 139 17.120
29 FP2 140 15.656
29 FP2 141 14.679
29 FP2 142 13.702
29 FP2 143 11.749
29 FP2 144 10.773
29 FP2 145 11.261
29 FP2 146 14.191
29 FP2 147 18.097
29 FP2 148 21.515
29 FP2 149 24.445
29 FP2 150 25.421
29 FP2 151 24.445
29 FP2 152 22.003
29 FP2 153 18.097
29 FP2 154 13.214
29 FP2 155 9.308
29 FP2 156 6.866
29 FP2 157 6.378
29 FP2 158 7.843
29 FP2 159 10.284
29 FP2 160 11.749
29 FP2 161 12.726
29 FP2 162 13.214
29 FP2 163 14.679
29 FP2 164 17.120
29 FP2 165 20.050
29 FP2 166 22.491
29 FP2 167 23.468
29 FP2 168 22.980
29 FP2 169 22.003
29 FP2 170 21.027
29 FP2 171 21.027
29 FP2 172 21.027
29 FP2 173 21.027
29 FP2 174 22.003
29 FP2 175 23.468
29 FP2 176 25.909
29 FP2 177 27.863
29 FP2 178 29.327
29 FP2 179 29.327
29 FP2 180 28.351
29 FP2 181 28.351
29 FP2 182 30.304
29 FP2 183 33.722
29 FP2 184 36.652
29 FP2 185 36.652
29 FP2 186 32.745
29 FP2 187 26.886
29 FP2 188 21.515
29 FP2 189 19.562
29 FP2 190 21.515
29 FP2 191 25.909
29 FP2 192 30.304
29 FP2 193 33.234
29 FP2 194 33.234
29 FP2 195 30.792
29 FP2 196 27.374
29 FP2 197 24.445
29 FP2 198 21.515
29 FP2 199 20.538
29 FP2 200 20.538
29 FP2 201 22.491
29 FP2 202 25.909
29 FP2 203 29.327
29 FP2 204 31.769
29 FP2 205 32.257
29 FP2 206 30.792
29 FP2 207 28.839
29 FP2 208 26.886
29 FP2 209 26.398
29 FP2 210 25.421
29 FP2 211 23.956
29 FP2 212 21.515
29 FP2 213 20.050
29 FP2 214 19.562
29 FP2 215 20.538
29 FP2 216 23.956
29 FP2 217 27.374
29 FP2 218 30.304
29 FP2 219 31.281
29 FP2 220 30.792
29 FP2 221 28.839
29 FP2 222 25.421
29 FP2 223 21.515
29 FP2 224 17.120
29 FP2 225 13.702
29 FP2 226 11.261
29 FP2 227 10.773
29 FP2 228 11.749
29 FP2 229 13.702
29 FP2 230 15.167
29 FP2 231 17.120
29 FP2 232 18.097
29 FP2 233 18.585
29 FP2 234 18.097
29 FP2 235 17.120
29 FP2 236 16.144
29 FP2 237 15.656
29 FP2 238 15.656
29 FP2 239 16.632
29 FP2 240 18.097
29 FP2 241 19.562
29 FP2 242 20.538
29 FP2 243 21.515
29 FP2 244 22.491
29 FP2 245 22.980
29 FP2 246 22.980
29 FP2 247 22.980
29 FP2 248 22.003
29 FP2 249 20.538
29 FP2 250 19.073
29 FP2 251 18.097
29 FP2 252 17.120
29 FP2 253 17.609
29 FP2 254 19.073
29 FP2 255 21.515
# F7 chan 2
29 F7 0 4.944
29 F7 1 7.385
29 F7 2 8.850
29 F7 3 10.315
29 F7 4 11.292
29 F7 5 12.268
29 F7 6 12.268
29 F7 7 10.803
29 F7 8 9.338
29 F7 9 7.385
29 F7 10 6.409
29 F7 11 6.409
29 F7 12 6.897
29 F7 13 7.385
29 F7 14 6.409
29 F7 15 5.432
29 F7 16 4.456
29 F7 17 4.944
29 F7 18 7.385
29 F7 19 11.780
29 F7 20 15.686
29 F7 21 17.639
29 F7 22 17.151
29 F7 23 13.733
29 F7 24 9.338
29 F7 25 6.409
29 F7 26 4.944
29 F7 27 5.432
29 F7 28 6.409
29 F7 29 7.385
29 F7 30 8.850
29 F7 31 10.803
29 F7 32 13.733
29 F7 33 17.151
29 F7 34 18.616
29 F7 35 18.616
29 F7 36 17.151
29 F7 37 15.198
29 F7 38 14.221
29 F7 39 15.198
29 F7 40 16.174
29 F7 41 16.174
29 F7 42 15.686
29 F7 43 15.686
29 F7 44 16.174
29 F7 45 18.616
29 F7 46 20.569
29 F7 47 22.522
29 F7 48 23.010
29 F7 49 22.522
29 F7 50 23.010
29 F7 51 23.987
29 F7 52 26.428
29 F7 53 28.870
29 F7 54 29.846
29 F7 55 29.358
29 F7 56 25.940
29 F7 57 22.034
29 F7 58 16.663
29 F7 59 12.268
29 F7 60 8.362
29 F7 61 5.920
29 F7 62 4.456
29 F7 63 3.967
29 F7 64 5.432
29 F7 65 7.874
29 F7 66 10.803
29 F7 67 13.733
29 F7 68 16.174
29 F7 69 17.639
29 F7 70 18.127
29 F7 71 18.616
29 F7 72 18.616
29 F7 73 18.616
29 F7 74 19.104
29 F7 75 18.616
29 F7 76 17.639
29 F7 77 15.686
29 F7 78 13.245
29 F7 79 11.780
29 F7 80 11.292
29 F7 81 13.245
29 F7 82 16.174
29 F7 83 19.104
29 F7 84 21.057
29 F7 85 21.545
29 F7 86 21.057
29 F7 87 20.081
29 F7 88 18.616
29 F7 89 17.639
29 F7 90 17.151
29 F7 91 18.127
29 F7 92 19.592
29 F7 93 21.545
29 F7 94 23.499
29 F7 95 24.475
29 F7 96 24.475
29 F7 97 24.475
29 F7 98 23.987
29 F7 99 23.987
29 F7 100 24.475
29 F7 101 25.452
29 F7 102 25.940
29 F7 103 25.940
29 F7 104 24.475
29 F7 105 22.522
29 F7 106 19.592
29 F7 107 16.663
29 F7 108 14.709
29 F7 109 13.733
29 F7 110 13.245
29 F7 111 13.245
29 F7 112 13.245
29 F7 113 12.756
29 F7 114 12.268
29 F7 115 11.292
29 F7 116 8.850
29 F7 117 7.385
29 F7 118 5.432
29 F7 119 3.479
29 F7 120 2.991
29 F7 121 3.479
29 F7 122 4.456
29 F7 123 5.432
29 F7 124 5.920
29 F7 125 5.432
29 F7 126 5.432
29 F7 127 5.432
29 F7 128 5.432
29 F7 129 5.432
29 F7 130 5.432
29 F7 131 6.409
29 F7 132 7.874
29 F7 133 9.338
29 F7 134 10.315
29 F7 135 9.338
29 F7 136 7.874
29 F7 137 5.920
29 F7 138 4.944
29 F7 139 4.944
29 F7 140 5.432
29 F7 141 4.944
29 F7 142 4.456
29 F7 143 3.967
29 F7 144 4.456
29 F7 145 6.409
29 F7 146 9.338
29 F7 147 11.292
29 F7 148 11.292
29 F7 149 9.338
29 F7 150 5.432
29 F7 151 2.502
29 F7 152 0.061
29 F7 153 -0.916
29 F7 154 -1.892
29 F7 155 -1.892
29 F7 156 -0.916
29 F7 157 1.038
29 F7 158 3.479
29 F7 159 5.920
29 F7 160 6.409
29 F7 161 5.432
29 F7 162 3.967
29 F7 163 3.479
29 F7 164 4.456
29 F7 165 6.409
29 F7 166 7.874
29 F7 167 7.385
29 F7 168 6.897
29 F7 169 6.897
29 F7 170 8.362
29 F7 171 10.315
29 F7 172 11.780
29 F7 173 10.803
29 F7 174 8.850
29 F7 175 7.874
29 F7 176 7.874
29 F7 177 9.338
29 F7 178 11.292
29 F7 179 10.803
29 F7 180 9.338
29 F7 181 7.874
29 F7 182 8.362
29 F7 183 11.780
29 F7 184 15.198
29 F7 185 17.151
29 F7 186 15.686
29 F7 187 11.780
29 F7 188 7.385
29 F7 189 5.920
29 F7 190 7.874
29 F7 191 12.268
29 F7 192 16.663
29 F7 193 19.104
29 F7 194 19.592
29 F7 195 17.639
29 F7 196 16.174
29 F7 197 14.709
29 F7 198 12.756
29 F7 199 10.803
29 F7 200 7.874
29 F7 201 5.432
29 F7 202 5.432
29 F7 203 7.385
29 F7 204 10.315
29 F7 205 13.733
29 F7 206 15.198
29 F7 207 15.686
29 F7 208 15.198
29 F7 209 14.709
29 F7 210 13.245
29 F7 211 10.803
29 F7 212 6.897
29 F7 213 2.991
29 F7 214 2.014
29 F7 215 3.479
29 F7 216 8.362
29 F7 217 14.221
29 F7 218 17.639
29 F7 219 18.127
29 F7 220 15.686
29 F7 221 12.268
29 F7 222 9.338
29 F7 223 7.874
29 F7 224 7.874
29 F7 225 8.362
29 F7 226 8.362
29 F7 227 7.874
29 F7 228 7.385
29 F7 229 5.920
29 F7 230 4.456
29 F7 231 2.991
29 F7 232 2.014
29 F7 233 1.526
29 F7 234 1.038
29 F7 235 0.061
29 F7 236 -1.892
29 F7 237 -4.333
29 F7 238 -5.798
29 F7 239 -5.310
29 F7 240 -2.869
29 F7 241 1.038
29 F7 242 4.944
29 F7 243 6.897
29 F7 244 6.897
29 F7 245 5.920
29 F7 246 4.456
29 F7 247 3.967
29 F7 248 3.479
29 F7 249 2.991
29 F7 250 2.014
29 F7 251 1.038
29 F7 252 2.502
29 F7 253 5.432
29 F7 254 9.338
29 F7 255 13.733
# F8 chan 3
29 F8 0 -2.472
29 F8 1 2.899
29 F8 2 6.805
29 F8 3 9.247
29 F8 4 10.712
29 F8 5 11.200
29 F8 6 10.223
29 F8 7 6.805
29 F8 8 1.923
29 F8 9 -2.472
29 F8 10 -4.913
29 F8 11 -3.937
29 F8 12 -1.007
29 F8 13 2.411
29 F8 14 4.364
29 F8 15 5.829
29 F8 16 6.805
29 F8 17 8.759
29 F8 18 10.712
29 F8 19 12.177
29 F8 20 12.177
29 F8 21 11.688
29 F8 22 11.200
29 F8 23 12.177
29 F8 24 14.130
29 F8 25 16.083
29 F8 26 16.083
29 F8 27 14.130
29 F8 28 10.223
29 F8 29 6.805
29 F8 30 5.341
29 F8 31 6.805
29 F8 32 11.200
29 F8 33 16.571
29 F8 34 20.966
29 F8 35 22.919
29 F8 36 21.942
29 F8 37 19.501
29 F8 38 17.059
29 F8 39 15.594
29 F8 40 16.571
29 F8 41 19.012
29 F8 42 22.430
29 F8 43 25.848
29 F8 44 29.266
29 F8 45 30.731
29 F8 46 30.243
29 F8 47 27.802
29 F8 48 24.872
29 F8 49 21.454
29 F8 50 19.989
29 F8 51 19.989
29 F8 52 21.942
29 F8 53 23.895
29 F8 54 25.848
29 F8 55 25.848
29 F8 56 24.872
29 F8 57 22.430
29 F8 58 19.501
29 F8 59 15.594
29 F8 60 11.688
29 F8 61 7.782
29 F8 62 5.341
29 F8 63 3.876
29 F8 64 4.852
29 F8 65 6.805
29 F8 66 10.223
29 F8 67 12.665
29 F8 68 13.641
29 F8 69 14.618
29 F8 70 15.106
29 F8 71 15.594
29 F8 72 17.059
29 F8 73 18.524
29 F8 74 19.989
29 F8 75 20.966
29 F8 76 21.942
29 F8 77 21.942
29 F8 78 22.430
29 F8 79 21.942
29 F8 80 19.989
29 F8 81 17.548
29 F8 82 14.618
29 F8 83 12.177
29 F8 84 11.688
29 F8 85 12.665
29 F8 86 15.106
29 F8 87 18.036
29 F8 88 20.477
29 F8 89 21.942
29 F8 90 22.919
29 F8 91 22.919
29 F8 92 22.430
29 F8 93 21.454
29 F8 94 19.989
29 F8 95 19.501
29 F8 96 19.501
29 F8 97 19.989
29 F8 98 21.454
29 F8 99 22.430
29 F8 100 23.407
29 F8 101 24.384
29 F8 102 25.848
29 F8 103 27.313
29 F8 104 28.290
29 F8 105 27.802
29 F8 106 25.360
29 F8 107 22.919
29 F8 108 19.989
29 F8 109 18.524
29 F8 110 18.036
29 F8 111 18.524
29 F8 112 18.036
29 F8 113 16.571
29 F8 114 14.618
29 F8 115 13.641
29 F8 116 14.130
29 F8 117 16.083
29 F8 118 18.036
29 F8 119 18.524
29 F8 120 17.548
29 F8 121 15.594
29 F8 122 14.130
29 F8 123 13.641
29 F8 124 14.130
29 F8 125 14.618
29 F8 126 14.618
29 F8 127 13.641
29 F8 128 13.641
29 F8 129 14.130
29 F8 130 15.594
29 F8 131 17.548
29 F8 132 19.501
29 F8 133 20.477
29 F8 134 21.454
29 F8 135 20.966
29 F8 136 20.966
29 F8 137 20.477
29 F8 138 20.966
29 F8 139 21.454
29 F8 140 21.454
29 F8 141 20.477
29 F8 142 18.524
29 F8 143 15.594
29 F8 144 13.153
29 F8 145 12.177
29 F8 146 13.153
29 F8 147 15.594
29 F8 148 18.036
29 F8 149 19.989
29 F8 150 20.966
29 F8 151 20.966
29 F8 152 19.989
29 F8 153 18.524
29 F8 154 16.571
29 F8 155 14.618
29 F8 156 13.641
29 F8 157 14.130
29 F8 158 16.083
29 F8 159 18.036
29 F8 160 19.501
29 F8 161 19.989
29 F8 162 20.477
29 F8 163 21.454
29 F8 164 21.454
29 F8 165 21.942
29 F8 166 21.454
29 F8 167 20.966
29 F8 168 21.942
29 F8 169 22.919
29 F8 170 24.872
29 F8 171 26.337
29 F8 172 27.313
29 F8 173 27.313
29 F8 174 27.802
29 F8 175 28.778
29 F8 176 29.266
29 F8 177 28.778
29 F8 178 27.313
29 F8 179 25.848
29 F8 180 25.848
29 F8 181 28.778
29 F8 182 33.661
29 F8 183 39.032
29 F8 184 41.962
29 F8 185 41.962
29 F8 186 38.544
29 F8 187 34.149
29 F8 188 31.219
29 F8 189 30.243
29 F8 190 31.708
29 F8 191 36.102
29 F8 192 39.520
29 F8 193 41.473
29 F8 194 40.497
29 F8 195 37.079
29 F8 196 31.708
29 F8 197 26.825
29 F8 198 23.895
29 F8 199 23.895
29 F8 200 26.825
29 F8 201 30.731
29 F8 202 34.637
29 F8 203 36.102
29 F8 204 34.637
29 F8 205 31.708
29 F8 206 28.290
29 F8 207 26.825
29 F8 208 27.313
29 F8 209 30.243
29 F8 210 32.684
29 F8 211 34.149
29 F8 212 33.661
29 F8 213 31.219
29 F8 214 27.802
29 F8 215 24.872
29 F8 216 23.407
29 F8 217 24.384
29 F8 218 27.313
29 F8 219 30.731
29 F8 220 32.196
29 F8 221 30.731
29 F8 222 26.825
29 F8 223 20.966
29 F8 224 16.083
29 F8 225 13.641
29 F8 226 14.130
29 F8 227 16.083
29 F8 228 19.012
29 F8 229 20.966
29 F8 230 21.942
29 F8 231 21.454
29 F8 232 19.989
29 F8 233 18.524
29 F8 234 17.548
29 F8 235 17.059
29 F8 236 17.548
29 F8 237 18.524
29 F8 238 19.989
29 F8 239 21.942
29 F8 240 23.895
29 F8 241 24.872
29 F8 242 25.360
29 F8 243 25.848
29 F8 244 25.848
29 F8 245 26.825
29 F8 246 27.802
29 F8 247 28.778
29 F8 248 30.243
29 F8 249 30.731
29 F8 250 29.755
29 F8 251 28.290
29 F8 252 26.825
29 F8 253 26.337
29 F8 254 26.337
29 F8 255 27.313
# AF1 chan 4
29 AF1 0 0.844
29 AF1 1 2.797
29 AF1 2 4.262
29 AF1 3 3.774
29 AF1 4 3.286
29 AF1 5 2.797
29 AF1 6 2.309
29 AF1 7 2.309
29 AF1 8 2.797
29 AF1 9 2.797
29 AF1 10 3.286
29 AF1 11 3.774
29 AF1 12 4.262
29 AF1 13 3.774
29 AF1 14 1.821
29 AF1 15 -0.621
29 AF1 16 -2.574
29 AF1 17 -2.574
29 AF1 18 0.356
29 AF1 19 4.262
29 AF1 20 8.657
29 AF1 21 11.098
29 AF1 22 11.587
29 AF1 23 9.633
29 AF1 24 7.192
29 AF1 25 5.239
29 AF1 26 4.262
29 AF1 27 4.262
29 AF1 28 3.774
29 AF1 29 3.286
29 AF1 30 3.774
29 AF1 31 6.215
29 AF1 32 9.633
29 AF1 33 13.540
29 AF1 34 15.493
29 AF1 35 15.493
29 AF1 36 14.028
29 AF1 37 13.051
29 AF1 38 12.563
29 AF1 39 12.075
29 AF1 40 11.587
29 AF1 41 10.122
29 AF1 42 8.169
29 AF1 43 7.192
29 AF1 44 9.145
29 AF1 45 12.563
29 AF1 46 16.469
29 AF1 47 18.911
29 AF1 48 18.911
29 AF1 49 17.934
29 AF1 50 17.446
29 AF1 51 17.934
29 AF1 52 19.887
29 AF1 53 21.352
29 AF1 54 21.840
29 AF1 55 21.352
29 AF1 56 20.864
29 AF1 57 19.887
29 AF1 58 17.934
29 AF1 59 15.004
29 AF1 60 10.610
29 AF1 61 5.727
29 AF1 62 1.821
29 AF1 63 0.844
29 AF1 64 2.309
29 AF1 65 6.215
29 AF1 66 10.122
29 AF1 67 12.075
29 AF1 68 12.563
29 AF1 69 11.587
29 AF1 70 10.610
29 AF1 71 10.610
29 AF1 72 11.587
29 AF1 73 14.028
29 AF1 74 15.981
29 AF1 75 17.934
29 AF1 76 17.934
29 AF1 77 16.958
29 AF1 78 15.493
29 AF1 79 13.540
29 AF1 80 12.075
29 AF1 81 12.075
29 AF1 82 12.563
29 AF1 83 14.516
29 AF1 84 15.981
29 AF1 85 16.958
29 AF1 86 16.958
29 AF1 87 16.958
29 AF1 88 16.958
29 AF1 89 17.934
29 AF1 90 18.911
29 AF1 91 19.887
29 AF1 92 20.376
29 AF1 93 20.376
29 AF1 94 19.399
29 AF1 95 17.934
29 AF1 96 16.469
29 AF1 97 15.981
29 AF1 98 15.981
29 AF1 99 16.958
29 AF1 100 18.911
29 AF1 101 21.352
29 AF1 102 23.305
29 AF1 103 24.770
29 AF1 104 24.770
29 AF1 105 23.305
29 AF1 106 20.864
29 AF1 107 18.422
29 AF1 108 15.493
29 AF1 109 13.540
29 AF1 110 13.051
29 AF1 111 13.540
29 AF1 112 14.516
29 AF1 113 15.981
29 AF1 114 15.981
29 AF1 115 14.028
29 AF1 116 10.122
29 AF1 117 6.215
29 AF1 118 3.774
29 AF1 119 3.286
29 AF1 120 5.239
29 AF1 121 8.169
29 AF1 122 11.098
29 AF1 123 13.540
29 AF1 124 15.004
29 AF1 125 15.981
29 AF1 126 15.981
29 AF1 127 15.493
29 AF1 128 14.516
29 AF1 129 13.540
29 AF1 130 12.075
29 AF1 131 11.098
29 AF1 132 11.587
29 AF1 133 13.051
29 AF1 134 14.516
29 AF1 135 15.981
29 AF1 136 16.469
29 AF1 137 16.958
29 AF1 138 16.958
29 AF1 139 16.958
29 AF1 140 16.958
29 AF1 141 17.446
29 AF1 142 17.446
29 AF1 143 16.958
29 AF1 144 16.469
29 AF1 145 15.981
29 AF1 146 15.981
29 AF1 147 16.469
29 AF1 148 17.446
29 AF1 149 18.422
29 AF1 150 17.934
29 AF1 151 16.958
29 AF1 152 15.004
29 AF1 153 12.075
29 AF1 154 9.145
29 AF1 155 6.215
29 AF1 156 5.239
29 AF1 157 5.239
29 AF1 158 6.215
29 AF1 159 8.169
29 AF1 160 9.633
29 AF1 161 11.587
29 AF1 162 13.051
29 AF1 163 14.028
29 AF1 164 14.028
29 AF1 165 13.540
29 AF1 166 12.075
29 AF1 167 10.610
29 AF1 168 10.610
29 AF1 169 11.098
29 AF1 170 12.075
29 AF1 171 13.051
29 AF1 172 13.051
29 AF1 173 13.051
29 AF1 174 13.051
29 AF1 175 14.516
29 AF1 176 16.958
29 AF1 177 19.399
29 AF1 178 20.864
29 AF1 179 20.864
29 AF1 180 20.864
29 AF1 181 19.887
29 AF1 182 19.399
29 AF1 183 19.399
29 AF1 184 18.422
29 AF1 185 16.958
29 AF1 186 14.516
29 AF1 187 11.587
29 AF1 188 9.633
29 AF1 189 9.633
29 AF1 190 12.563
29 AF1 191 16.958
29 AF1 192 22.329
29 AF1 193 25.747
29 AF1 194 26.723
29 AF1 195 25.258
29 AF1 196 21.352
29 AF1 197 16.958
29 AF1 198 13.051
29 AF1 199 10.610
29 AF1 200 8.657
29 AF1 201 9.145
29 AF1 202 11.098
29 AF1 203 14.028
29 AF1 204 17.446
29 AF1 205 19.887
29 AF1 206 20.864
29 AF1 207 20.376
29 AF1 208 19.399
29 AF1 209 17.934
29 AF1 210 16.469
29 AF1 211 15.004
29 AF1 212 13.540
29 AF1 213 12.075
29 AF1 214 11.587
29 AF1 215 11.587
29 AF1 216 12.563
29 AF1 217 14.028
29 AF1 218 15.493
29 AF1 219 16.469
29 AF1 220 15.981
29 AF1 221 15.004
29 AF1 222 13.540
29 AF1 223 13.051
29 AF1 224 12.563
29 AF1 225 12.563
29 AF1 226 12.075
29 AF1 227 11.587
29 AF1 228 10.610
29 AF1 229 9.633
29 AF1 230 9.145
29 AF1 231 9.145
29 AF1 232 9.633
29 AF1 233 10.122
29 AF1 234 10.610
29 AF1 235 11.098
29 AF1 236 11.587
29 AF1 237 11.587
29 AF1 238 11.098
29 AF1 239 10.122
29 AF1 240 9.633
29 AF1 241 10.610
29 AF1 242 13.051
29 AF1 243 16.469
29 AF1 244 19.399
29 AF1 245 21.840
29 AF1 246 22.817
29 AF1 247 22.329
29 AF1 248 20.376
29 AF1 249 17.934
29 AF1 250 15.981
29 AF1 251 14.028
29 AF1 252 13.051
29 AF1 253 14.516
29 AF1 254 16.469
29 AF1 255 18.911
# AF2 chan 5
29 AF2 0 0.458
29 AF2 1 3.387
29 AF2 2 5.341
29 AF2 3 6.805
29 AF2 4 6.805
29 AF2 5 6.317
29 AF2 6 5.341
29 AF2 7 4.364
29 AF2 8 3.876
29 AF2 9 3.387
29 AF2 10 3.876
29 AF2 11 3.876
29 AF2 12 4.364
29 AF2 13 3.876
29 AF2 14 3.387
29 AF2 15 1.923
29 AF2 16 1.923
29 AF2 17 2.899
29 AF2 18 5.829
29 AF2 19 9.247
29 AF2 20 11.688
29 AF2 21 12.665
29 AF2 22 11.200
29 AF2 23 9.247
29 AF2 24 8.270
29 AF2 25 7.782
29 AF2 26 8.270
29 AF2 27 9.247
29 AF2 28 9.735
29 AF2 29 10.223
29 AF2 30 11.200
29 AF2 31 12.177
29 AF2 32 13.641
29 AF2 33 14.618
29 AF2 34 15.106
29 AF2 35 15.106
29 AF2 36 14.130
29 AF2 37 13.153
29 AF2 38 12.177
29 AF2 39 10.712
29 AF2 40 10.223
29 AF2 41 10.712
29 AF2 42 12.177
29 AF2 43 14.618
29 AF2 44 17.059
29 AF2 45 19.012
29 AF2 46 20.477
29 AF2 47 20.477
29 AF2 48 19.012
29 AF2 49 17.059
29 AF2 50 15.594
29 AF2 51 15.594
29 AF2 52 17.548
29 AF2 53 19.989
29 AF2 54 22.919
29 AF2 55 24.384
29 AF2 56 24.384
29 AF2 57 22.430
29 AF2 58 19.989
29 AF2 59 15.594
29 AF2 60 11.200
29 AF2 61 6.317
29 AF2 62 2.899
29 AF2 63 0.946
29 AF2 64 2.411
29 AF2 65 5.341
29 AF2 66 8.759
29 AF2 67 10.712
29 AF2 68 10.712
29 AF2 69 9.735
29 AF2 70 9.735
29 AF2 71 11.200
29 AF2 72 14.618
29 AF2 73 17.059
29 AF2 74 19.501
29 AF2 75 19.501
29 AF2 76 19.501
29 AF2 77 19.501
29 AF2 78 19.501
29 AF2 79 19.989
29 AF2 80 19.501
29 AF2 81 18.524
29 AF2 82 18.036
29 AF2 83 18.524
29 AF2 84 19.989
29 AF2 85 21.454
29 AF2 86 21.942
29 AF2 87 21.942
29 AF2 88 21.942
29 AF2 89 22.919
29 AF2 90 23.895
29 AF2 91 25.360
29 AF2 92 25.360
29 AF2 93 24.384
29 AF2 94 22.430
29 AF2 95 20.966
29 AF2 96 20.966
29 AF2 97 21.942
29 AF2 98 22.919
29 AF2 99 23.407
29 AF2 100 24.384
29 AF2 101 25.360
29 AF2 102 27.313
29 AF2 103 28.778
29 AF2 104 29.755
29 AF2 105 29.266
29 AF2 106 27.313
29 AF2 107 24.384
29 AF2 108 21.454
29 AF2 109 19.501
29 AF2 110 18.524
29 AF2 111 19.012
29 AF2 112 20.966
29 AF2 113 22.919
29 AF2 114 23.407
29 AF2 115 21.454
29 AF2 116 17.548
29 AF2 117 13.153
29 AF2 118 10.712
29 AF2 119 12.177
29 AF2 120 16.083
29 AF2 121 19.989
29 AF2 122 21.942
29 AF2 123 21.942
29 AF2 124 20.966
29 AF2 125 19.989
29 AF2 126 19.989
29 AF2 127 20.477
29 AF2 128 20.477
29 AF2 129 19.989
29 AF2 130 18.524
29 AF2 131 18.524
29 AF2 132 20.477
29 AF2 133 22.919
29 AF2 134 25.360
29 AF2 135 26.337
29 AF2 136 24.872
29 AF2 137 23.407
29 AF2 138 21.942
29 AF2 139 21.454
29 AF2 140 21.942
29 AF2 141 22.430
29 AF2 142 21.942
29 AF2 143 21.454
29 AF2 144 21.454
29 AF2 145 23.407
29 AF2 146 25.360
29 AF2 147 27.313
29 AF2 148 27.802
29 AF2 149 28.290
29 AF2 150 27.802
29 AF2 151 27.313
29 AF2 152 25.360
29 AF2 153 22.430
29 AF2 154 18.036
29 AF2 155 13.641
29 AF2 156 11.688
29 AF2 157 12.665
29 AF2 158 15.106
29 AF2 159 17.548
29 AF2 160 19.012
29 AF2 161 19.989
29 AF2 162 20.966
29 AF2 163 23.407
29 AF2 164 24.872
29 AF2 165 24.872
29 AF2 166 22.430
29 AF2 167 19.501
29 AF2 168 17.059
29 AF2 169 17.548
29 AF2 170 19.012
29 AF2 171 20.966
29 AF2 172 20.966
29 AF2 173 19.989
29 AF2 174 19.501
29 AF2 175 20.966
29 AF2 176 24.384
29 AF2 177 28.290
29 AF2 178 30.243
29 AF2 179 29.755
29 AF2 180 27.802
29 AF2 181 26.825
29 AF2 182 27.313
29 AF2 183 29.266
29 AF2 184 30.243
29 AF2 185 28.290
29 AF2 186 24.384
29 AF2 187 19.989
29 AF2 188 17.059
29 AF2 189 17.548
29 AF2 190 20.477
29 AF2 191 24.872
29 AF2 192 28.778
29 AF2 193 31.219
29 AF2 194 31.708
29 AF2 195 30.243
29 AF2 196 27.313
29 AF2 197 23.407
29 AF2 198 19.501
29 AF2 199 16.571
29 AF2 200 16.083
29 AF2 201 18.524
29 AF2 202 22.919
29 AF2 203 27.313
29 AF2 204 29.755
29 AF2 205 29.266
29 AF2 206 27.313
29 AF2 207 25.360
29 AF2 208 23.895
29 AF2 209 23.895
29 AF2 210 23.895
29 AF2 211 23.895
29 AF2 212 23.895
29 AF2 213 23.895
29 AF2 214 23.407
29 AF2 215 23.407
29 AF2 216 23.407
29 AF2 217 24.384
29 AF2 218 26.825
29 AF2 219 29.755
29 AF2 220 31.708
29 AF2 221 32.196
29 AF2 222 30.243
29 AF2 223 26.825
29 AF2 224 23.407
29 AF2 225 20.966
29 AF2 226 19.989
29 AF2 227 19.012
29 AF2 228 18.036
29 AF2 229 16.571
29 AF2 230 16.083
29 AF2 231 17.548
29 AF2 232 19.501
29 AF2 233 21.942
29 AF2 234 22.919
29 AF2 235 22.919
29 AF2 236 21.454
29 AF2 237 20.477
29 AF2 238 19.012
29 AF2 239 18.524
29 AF2 240 18.036
29 AF2 241 18.036
29 AF2 242 19.501
29 AF2 243 21.942
29 AF2 244 25.848
29 AF2 245 29.755
29 AF2 246 32.196
29 AF2 247 32.684
29 AF2 248 31.219
29 AF2 249 28.290
29 AF2 250 25.360
29 AF2 251 23.407
29 AF2 252 22.430
29 AF2 253 22.919
29 AF2 254 23.895
29 AF2 255 25.360
# FZ chan 6
29 FZ 0 0.997
29 FZ 1 2.462
29 FZ 2 3.438
29 FZ 3 3.438
29 FZ 4 3.438
29 FZ 5 3.438
29 FZ 6 3.438
29 FZ 7 3.927
29 FZ 8 4.415
29 FZ 9 5.880
29 FZ 10 6.856
29 FZ 11 7.345
29 FZ 12 6.856
29 FZ 13 5.880
29 FZ 14 3.438
29 FZ 15 0.997
29 FZ 16 -0.956
29 FZ 17 -0.956
29 FZ 18 0.997
29 FZ 19 3.927
29 FZ 20 6.856
29 FZ 21 8.809
29 FZ 22 8.809
29 FZ 23 7.833
29 FZ 24 6.856
29 FZ 25 5.391
29 FZ 26 4.903
29 FZ 27 3.927
29 FZ 28 3.438
29 FZ 29 3.438
29 FZ 30 4.415
29 FZ 31 5.880
29 FZ 32 7.833
29 FZ 33 9.298
29 FZ 34 9.298
29 FZ 35 9.298
29 FZ 36 8.321
29 FZ 37 7.833
29 FZ 38 7.345
29 FZ 39 6.856
29 FZ 40 5.880
29 FZ 41 4.903
29 FZ 42 3.927
29 FZ 43 3.927
29 FZ 44 5.880
29 FZ 45 8.321
29 FZ 46 10.763
29 FZ 47 12.227
29 FZ 48 12.227
29 FZ 49 11.251
29 FZ 50 10.274
29 FZ 51 9.786
29 FZ 52 10.763
29 FZ 53 12.227
29 FZ 54 14.181
29 FZ 55 15.645
29 FZ 56 17.110
29 FZ 57 17.598
29 FZ 58 17.110
29 FZ 59 14.181
29 FZ 60 9.786
29 FZ 61 4.903
29 FZ 62 0.509
29 FZ 63 -1.444
29 FZ 64 -0.956
29 FZ 65 0.997
29 FZ 66 3.927
29 FZ 67 5.880
29 FZ 68 5.880
29 FZ 69 5.391
29 FZ 70 4.415
29 FZ 71 4.903
29 FZ 72 5.880
29 FZ 73 8.321
29 FZ 74 10.763
29 FZ 75 12.716
29 FZ 76 13.204
29 FZ 77 13.204
29 FZ 78 12.227
29 FZ 79 10.763
29 FZ 80 10.274
29 FZ 81 10.763
29 FZ 82 11.739
29 FZ 83 13.692
29 FZ 84 14.669
29 FZ 85 15.157
29 FZ 86 15.157
29 FZ 87 14.181
29 FZ 88 14.669
29 FZ 89 15.645
29 FZ 90 17.110
29 FZ 91 19.063
29 FZ 92 20.040
29 FZ 93 20.040
29 FZ 94 19.552
29 FZ 95 18.087
29 FZ 96 17.110
29 FZ 97 16.134
29 FZ 98 16.622
29 FZ 99 17.598
29 FZ 100 19.552
29 FZ 101 21.505
29 FZ 102 23.458
29 FZ 103 24.923
29 FZ 104 24.923
29 FZ 105 24.434
29 FZ 106 22.481
29 FZ 107 20.040
29 FZ 108 18.087
29 FZ 109 16.622
29 FZ 110 17.110
29 FZ 111 18.575
29 FZ 112 20.528
29 FZ 113 22.481
29 FZ 114 22.481
29 FZ 115 19.552
29 FZ 116 15.157
29 FZ 117 11.251
29 FZ 118 8.809
29 FZ 119 9.298
29 FZ 120 12.227
29 FZ 121 15.645
29 FZ 122 18.575
29 FZ 123 20.040
29 FZ 124 20.528
29 FZ 125 20.528
29 FZ 126 20.528
29 FZ 127 20.528
29 FZ 128 20.040
29 FZ 129 19.552
29 FZ 130 18.575
29 FZ 131 17.598
29 FZ 132 17.598
29 FZ 133 18.087
29 FZ 134 18.575
29 FZ 135 19.552
29 FZ 136 20.528
29 FZ 137 21.016
29 FZ 138 21.016
29 FZ 139 21.016
29 FZ 140 21.016
29 FZ 141 21.505
29 FZ 142 21.993
29 FZ 143 22.481
29 FZ 144 22.481
29 FZ 145 22.481
29 FZ 146 22.481
29 FZ 147 22.970
29 FZ 148 23.458
29 FZ 149 23.458
29 FZ 150 23.458
29 FZ 151 22.970
29 FZ 152 21.505
29 FZ 153 19.552
29 FZ 154 17.598
29 FZ 155 15.645
29 FZ 156 14.669
29 FZ 157 14.181
29 FZ 158 15.157
29 FZ 159 16.134
29 FZ 160 17.598
29 FZ 161 19.063
29 FZ 162 20.040
29 FZ 163 21.016
29 FZ 164 20.528
29 FZ 165 19.552
29 FZ 166 17.598
29 FZ 167 16.134
29 FZ 168 16.134
29 FZ 169 16.622
29 FZ 170 17.598
29 FZ 171 18.087
29 FZ 172 18.087
29 FZ 173 17.598
29 FZ 174 17.598
29 FZ 175 18.087
29 FZ 176 20.040
29 FZ 177 22.481
29 FZ 178 23.458
29 FZ 179 23.946
29 FZ 180 22.970
29 FZ 181 21.505
29 FZ 182 20.040
29 FZ 183 18.575
29 FZ 184 16.622
29 FZ 185 15.645
29 FZ 186 14.669
29 FZ 187 14.181
29 FZ 188 14.181
29 FZ 189 14.669
29 FZ 190 16.134
29 FZ 191 18.087
29 FZ 192 20.528
29 FZ 193 22.970
29 FZ 194 24.434
29 FZ 195 24.434
29 FZ 196 22.970
29 FZ 197 20.040
29 FZ 198 16.622
29 FZ 199 13.692
29 FZ 200 12.227
29 FZ 201 13.204
29 FZ 202 15.645
29 FZ 203 19.063
29 FZ 204 21.993
29 FZ 205 23.458
29 FZ 206 22.481
29 FZ 207 21.016
29 FZ 208 19.063
29 FZ 209 18.575
29 FZ 210 18.575
29 FZ 211 19.063
29 FZ 212 19.552
29 FZ 213 19.063
29 FZ 214 18.575
29 FZ 215 17.110
29 FZ 216 15.645
29 FZ 217 15.157
29 FZ 218 15.157
29 FZ 219 15.645
29 FZ 220 17.110
29 FZ 221 18.087
29 FZ 222 18.575
29 FZ 223 18.575
29 FZ 224 18.087
29 FZ 225 17.110
29 FZ 226 16.134
29 FZ 227 14.669
29 FZ 228 13.204
29 FZ 229 12.716
29 FZ 230 12.716
29 FZ 231 12.716
29 FZ 232 13.692
29 FZ 233 14.181
29 FZ 234 15.157
29 FZ 235 15.645
29 FZ 236 15.645
29 FZ 237 15.645
29 FZ 238 14.669
29 FZ 239 12.716
29 FZ 240 11.739
29 FZ 241 11.739
29 FZ 242 13.692
29 FZ 243 16.622
29 FZ 244 20.040
29 FZ 245 22.481
29 FZ 246 23.458
29 FZ 247 22.481
29 FZ 248 20.528
29 FZ 249 17.598
29 FZ 250 15.157
29 FZ 251 13.692
29 FZ 252 13.204
29 FZ 253 14.181
29 FZ 254 15.157
29 FZ 255 16.134
# F4 chan 7
29 F4 0 0.865
29 F4 1 3.306
29 F4 2 4.771
29 F4 3 5.747
29 F4 4 5.747
29 F4 5 5.259
29 F4 6 4.771
29 F4 7 3.794
29 F4 8 3.306
29 F4 9 3.306
29 F4 10 4.283
29 F4 11 5.259
29 F4 12 5.259
29 F4 13 4.283
29 F4 14 2.818
29 F4 15 0.865
29 F4 16 1.353
29 F4 17 3.306
29 F4 18 6.724
29 F4 19 9.654
29 F4 20 11.119
29 F4 21 11.119
29 F4 22 10.142
29 F4 23 9.165
29 F4 24 9.165
29 F4 25 9.654
29 F4 26 9.654
29 F4 27 9.654
29 F4 28 9.165
29 F4 29 10.142
29 F4 30 11.119
29 F4 31 13.072
29 F4 32 14.048
29 F4 33 14.048
29 F4 34 13.560
29 F4 35 13.072
29 F4 36 12.095
29 F4 37 11.119
29 F4 38 9.654
29 F4 39 8.677
29 F4 40 8.189
29 F4 41 9.654
29 F4 42 12.095
29 F4 43 15.025
29 F4 44 17.955
29 F4 45 19.419
29 F4 46 17.955
29 F4 47 16.001
29 F4 48 13.072
29 F4 49 11.607
29 F4 50 12.095
29 F4 51 14.048
29 F4 52 16.978
29 F4 53 19.908
29 F4 54 21.861
29 F4 55 22.349
29 F4 56 22.349
29 F4 57 21.372
29 F4 58 18.931
29 F4 59 16.001
29 F4 60 12.583
29 F4 61 9.654
29 F4 62 7.701
29 F4 63 6.724
29 F4 64 7.212
29 F4 65 7.701
29 F4 66 8.189
29 F4 67 8.677
29 F4 68 8.189
29 F4 69 8.677
29 F4 70 8.677
29 F4 71 10.630
29 F4 72 12.583
29 F4 73 15.513
29 F4 74 17.466
29 F4 75 18.443
29 F4 76 18.443
29 F4 77 17.955
29 F4 78 16.978
29 F4 79 16.001
29 F4 80 15.513
29 F4 81 15.025
29 F4 82 14.048
29 F4 83 14.048
29 F4 84 14.048
29 F4 85 14.537
29 F4 86 15.513
29 F4 87 16.490
29 F4 88 17.955
29 F4 89 19.419
29 F4 90 20.396
29 F4 91 21.372
29 F4 92 20.884
29 F4 93 19.908
29 F4 94 17.955
29 F4 95 16.978
29 F4 96 16.001
29 F4 97 16.490
29 F4 98 17.466
29 F4 99 18.931
29 F4 100 19.908
29 F4 101 20.884
29 F4 102 21.861
29 F4 103 23.326
29 F4 104 24.302
29 F4 105 24.790
29 F4 106 24.302
29 F4 107 21.861
29 F4 108 18.931
29 F4 109 16.490
29 F4 110 15.513
29 F4 111 15.513
29 F4 112 16.978
29 F4 113 17.466
29 F4 114 16.490
29 F4 115 14.537
29 F4 116 12.095
29 F4 117 10.630
29 F4 118 11.119
29 F4 119 13.072
29 F4 120 16.001
29 F4 121 18.443
29 F4 122 19.419
29 F4 123 18.931
29 F4 124 17.955
29 F4 125 16.001
29 F4 126 14.048
29 F4 127 13.072
29 F4 128 12.583
29 F4 129 13.072
29 F4 130 14.537
29 F4 131 16.490
29 F4 132 18.931
29 F4 133 20.396
29 F4 134 21.372
29 F4 135 21.372
29 F4 136 20.396
29 F4 137 18.931
29 F4 138 16.978
29 F4 139 16.490
29 F4 140 16.001
29 F4 141 16.001
29 F4 142 16.001
29 F4 143 15.513
29 F4 144 16.001
29 F4 145 16.978
29 F4 146 19.419
29 F4 147 21.372
29 F4 148 22.837
29 F4 149 23.326
29 F4 150 22.349
29 F4 151 20.396
29 F4 152 18.443
29 F4 153 15.513
29 F4 154 13.072
29 F4 155 10.630
29 F4 156 9.165
29 F4 157 9.165
29 F4 158 10.142
29 F4 159 12.095
29 F4 160 14.048
29 F4 161 16.490
29 F4 162 18.443
29 F4 163 19.419
29 F4 164 19.908
29 F4 165 18.443
29 F4 166 16.490
29 F4 167 14.537
29 F4 168 14.048
29 F4 169 14.048
29 F4 170 15.025
29 F4 171 15.513
29 F4 172 16.001
29 F4 173 16.978
29 F4 174 18.443
29 F4 175 20.396
29 F4 176 21.372
29 F4 177 22.349
29 F4 178 21.861
29 F4 179 20.396
29 F4 180 19.908
29 F4 181 20.396
29 F4 182 20.884
29 F4 183 21.861
29 F4 184 21.372
29 F4 185 19.419
29 F4 186 16.978
29 F4 187 15.025
29 F4 188 14.537
29 F4 189 15.513
29 F4 190 18.443
29 F4 191 21.861
29 F4 192 25.279
29 F4 193 27.720
29 F4 194 27.720
29 F4 195 25.767
29 F4 196 21.372
29 F4 197 16.978
29 F4 198 13.072
29 F4 199 11.607
29 F4 200 13.560
29 F4 201 17.955
29 F4 202 23.326
29 F4 203 27.720
29 F4 204 29.185
29 F4 205 27.232
29 F4 206 22.837
29 F4 207 18.931
29 F4 208 16.978
29 F4 209 17.466
29 F4 210 19.908
29 F4 211 22.837
29 F4 212 24.790
29 F4 213 24.790
29 F4 214 23.326
29 F4 215 20.396
29 F4 216 17.466
29 F4 217 15.513
29 F4 218 16.001
29 F4 219 18.443
29 F4 220 21.372
29 F4 221 23.326
29 F4 222 23.814
29 F4 223 21.372
29 F4 224 18.443
29 F4 225 15.025
29 F4 226 12.095
29 F4 227 11.119
29 F4 228 11.119
29 F4 229 12.095
29 F4 230 13.072
29 F4 231 15.513
29 F4 232 16.978
29 F4 233 18.443
29 F4 234 18.931
29 F4 235 19.419
29 F4 236 18.931
29 F4 237 18.443
29 F4 238 17.955
29 F4 239 16.978
29 F4 240 16.490
29 F4 241 16.490
29 F4 242 17.466
29 F4 243 19.908
29 F4 244 22.349
29 F4 245 24.790
29 F4 246 26.255
29 F4 247 26.744
29 F4 248 25.279
29 F4 249 22.837
29 F4 250 20.396
29 F4 251 18.443
29 F4 252 16.978
29 F4 253 17.466
29 F4 254 17.955
29 F4 255 18.931
# F3 chan 8
29 F3 0 8.921
29 F3 1 9.898
29 F3 2 9.410
29 F3 3 7.945
29 F3 4 6.480
29 F3 5 5.503
29 F3 6 4.527
29 F3 7 4.527
29 F3 8 5.015
29 F3 9 5.992
29 F3 10 7.945
29 F3 11 9.898
29 F3 12 10.874
29 F3 13 10.874
29 F3 14 8.921
29 F3 15 5.503
29 F3 16 2.085
29 F3 17 0.132
29 F3 18 0.621
29 F3 19 4.527
29 F3 20 9.898
29 F3 21 14.781
29 F3 22 17.222
29 F3 23 17.222
29 F3 24 14.781
29 F3 25 11.851
29 F3 26 9.898
29 F3 27 8.433
29 F3 28 7.456
29 F3 29 6.480
29 F3 30 6.968
29 F3 31 8.433
29 F3 32 12.339
29 F3 33 16.734
29 F3 34 20.640
29 F3 35 21.617
29 F3 36 21.128
29 F3 37 19.663
29 F3 38 17.710
29 F3 39 16.246
29 F3 40 14.781
29 F3 41 12.828
29 F3 42 10.386
29 F3 43 8.921
29 F3 44 9.410
29 F3 45 11.363
29 F3 46 15.269
29 F3 47 19.175
29 F3 48 21.617
29 F3 49 22.593
29 F3 50 23.081
29 F3 51 23.081
29 F3 52 23.570
29 F3 53 24.546
29 F3 54 25.035
29 F3 55 25.523
29 F3 56 25.035
29 F3 57 24.058
29 F3 58 22.105
29 F3 59 18.687
29 F3 60 14.292
29 F3 61 9.410
29 F3 62 5.503
29 F3 63 4.527
29 F3 64 5.992
29 F3 65 9.898
29 F3 66 14.781
29 F3 67 18.199
29 F3 68 19.663
29 F3 69 18.199
29 F3 70 15.757
29 F3 71 14.781
29 F3 72 14.781
29 F3 73 16.246
29 F3 74 18.687
29 F3 75 20.640
29 F3 76 20.640
29 F3 77 20.152
29 F3 78 18.199
29 F3 79 17.222
29 F3 80 16.734
29 F3 81 17.710
29 F3 82 19.175
29 F3 83 22.105
29 F3 84 24.058
29 F3 85 24.546
29 F3 86 23.570
29 F3 87 21.617
29 F3 88 19.663
29 F3 89 19.175
29 F3 90 20.152
29 F3 91 22.105
29 F3 92 24.546
29 F3 93 26.499
29 F3 94 26.988
29 F3 95 25.523
29 F3 96 24.058
29 F3 97 22.105
29 F3 98 21.128
29 F3 99 21.128
29 F3 100 23.081
29 F3 101 25.523
29 F3 102 28.453
29 F3 103 30.406
29 F3 104 29.917
29 F3 105 27.476
29 F3 106 23.570
29 F3 107 20.640
29 F3 108 19.175
29 F3 109 19.175
29 F3 110 21.617
29 F3 111 24.058
29 F3 112 26.499
29 F3 113 26.988
29 F3 114 25.523
29 F3 115 22.105
29 F3 116 16.734
29 F3 117 11.363
29 F3 118 7.456
29 F3 119 6.480
29 F3 120 8.433
29 F3 121 12.339
29 F3 122 16.734
29 F3 123 20.152
29 F3 124 22.593
29 F3 125 23.570
29 F3 126 23.570
29 F3 127 23.081
29 F3 128 21.617
29 F3 129 19.663
29 F3 130 17.222
29 F3 131 14.781
29 F3 132 14.292
29 F3 133 14.781
29 F3 134 16.246
29 F3 135 17.222
29 F3 136 18.687
29 F3 137 19.663
29 F3 138 20.152
29 F3 139 21.128
29 F3 140 21.617
29 F3 141 22.593
29 F3 142 23.570
29 F3 143 24.058
29 F3 144 24.546
29 F3 145 25.035
29 F3 146 25.523
29 F3 147 26.011
29 F3 148 26.011
29 F3 149 25.035
29 F3 150 24.058
29 F3 151 22.593
29 F3 152 20.640
29 F3 153 18.687
29 F3 154 17.222
29 F3 155 16.246
29 F3 156 16.246
29 F3 157 17.222
29 F3 158 18.687
29 F3 159 21.128
29 F3 160 22.593
29 F3 161 23.570
29 F3 162 23.570
29 F3 163 22.105
29 F3 164 19.663
29 F3 165 17.222
29 F3 166 15.757
29 F3 167 15.269
29 F3 168 15.757
29 F3 169 16.734
29 F3 170 17.222
29 F3 171 17.710
29 F3 172 18.199
29 F3 173 18.199
29 F3 174 19.175
29 F3 175 20.640
29 F3 176 22.593
29 F3 177 24.058
29 F3 178 25.523
29 F3 179 25.523
29 F3 180 24.546
29 F3 181 23.570
29 F3 182 23.081
29 F3 183 22.593
29 F3 184 22.105
29 F3 185 21.617
29 F3 186 20.152
29 F3 187 18.199
29 F3 188 16.734
29 F3 189 16.246
29 F3 190 17.710
29 F3 191 21.128
29 F3 192 25.523
29 F3 193 28.941
29 F3 194 30.406
29 F3 195 29.917
29 F3 196 27.476
29 F3 197 24.058
29 F3 198 20.152
29 F3 199 17.222
29 F3 200 15.269
29 F3 201 15.269
29 F3 202 16.734
29 F3 203 19.175
29 F3 204 21.617
29 F3 205 23.570
29 F3 206 23.570
29 F3 207 23.570
29 F3 208 23.570
29 F3 209 24.058
29 F3 210 24.058
29 F3 211 24.058
29 F3 212 23.570
29 F3 213 22.593
29 F3 214 21.617
29 F3 215 21.617
29 F3 216 22.105
29 F3 217 22.105
29 F3 218 22.105
29 F3 219 21.128
29 F3 220 19.175
29 F3 221 17.710
29 F3 222 17.222
29 F3 223 18.199
29 F3 224 20.640
29 F3 225 23.081
29 F3 226 24.058
29 F3 227 23.081
29 F3 228 21.617
29 F3 229 19.663
29 F3 230 18.687
29 F3 231 17.710
29 F3 232 17.710
29 F3 233 17.710
29 F3 234 17.710
29 F3 235 17.710
29 F3 236 17.710
29 F3 237 17.710
29 F3 238 17.710
29 F3 239 16.734
29 F3 240 17.222
29 F3 241 18.687
29 F3 242 20.152
29 F3 243 23.081
29 F3 244 25.035
29 F3 245 26.011
29 F3 246 26.011
29 F3 247 25.035
29 F3 248 23.081
29 F3 249 21.128
29 F3 250 19.663
29 F3 251 18.687
29 F3 252 19.175
29 F3 253 20.640
29 F3 254 23.081
29 F3 255 25.035
# FC6 chan 9
29 FC6 0 -3.469
29 FC6 1 -1.027
29 FC6 2 1.902
29 FC6 3 4.832
29 FC6 4 7.273
29 FC6 5 8.738
29 FC6 6 8.250
29 FC6 7 5.809
29 FC6 8 4.344
29 FC6 9 2.391
29 FC6 10 2.391
29 FC6 11 2.879
29 FC6 12 2.879
29 FC6 13 1.902
29 FC6 14 0.437
29 FC6 15 0.437
29 FC6 16 2.391
29 FC6 17 5.809
29 FC6 18 9.226
29 FC6 19 11.180
29 FC6 20 11.180
29 FC6 21 10.203
29 FC6 22 10.691
29 FC6 23 12.644
29 FC6 24 14.598
29 FC6 25 15.574
29 FC6 26 14.598
29 FC6 27 12.156
29 FC6 28 9.715
29 FC6 29 8.250
29 FC6 30 8.250
29 FC6 31 9.715
29 FC6 32 12.156
29 FC6 33 14.109
29 FC6 34 15.574
29 FC6 35 16.551
29 FC6 36 16.062
29 FC6 37 14.598
29 FC6 38 12.644
29 FC6 39 12.156
29 FC6 40 13.133
29 FC6 41 16.062
29 FC6 42 19.480
29 FC6 43 21.922
29 FC6 44 22.898
29 FC6 45 21.922
29 FC6 46 19.969
29 FC6 47 18.504
29 FC6 48 17.527
29 FC6 49 17.527
29 FC6 50 18.992
29 FC6 51 20.457
29 FC6 52 22.410
29 FC6 53 23.875
29 FC6 54 24.851
29 FC6 55 24.851
29 FC6 56 23.875
29 FC6 57 21.922
29 FC6 58 19.480
29 FC6 59 16.551
29 FC6 60 13.621
29 FC6 61 11.668
29 FC6 62 10.203
29 FC6 63 9.715
29 FC6 64 9.715
29 FC6 65 10.203
29 FC6 66 11.668
29 FC6 67 12.156
29 FC6 68 12.644
29 FC6 69 13.133
29 FC6 70 13.621
29 FC6 71 15.086
29 FC6 72 16.551
29 FC6 73 18.992
29 FC6 74 20.457
29 FC6 75 20.945
29 FC6 76 20.945
29 FC6 77 20.945
29 FC6 78 20.945
29 FC6 79 20.457
29 FC6 80 19.969
29 FC6 81 18.504
29 FC6 82 16.551
29 FC6 83 14.598
29 FC6 84 14.109
29 FC6 85 14.598
29 FC6 86 16.551
29 FC6 87 18.504
29 FC6 88 20.457
29 FC6 89 21.434
29 FC6 90 21.922
29 FC6 91 21.922
29 FC6 92 21.434
29 FC6 93 20.457
29 FC6 94 19.480
29 FC6 95 18.016
29 FC6 96 17.039
29 FC6 97 17.039
29 FC6 98 18.016
29 FC6 99 19.480
29 FC6 100 20.945
29 FC6 101 21.434
29 FC6 102 22.410
29 FC6 103 22.898
29 FC6 104 23.875
29 FC6 105 23.875
29 FC6 106 22.898
29 FC6 107 20.945
29 FC6 108 18.992
29 FC6 109 17.039
29 FC6 110 16.551
29 FC6 111 17.039
29 FC6 112 16.551
29 FC6 113 15.574
29 FC6 114 13.621
29 FC6 115 12.156
29 FC6 116 11.668
29 FC6 117 13.133
29 FC6 118 15.574
29 FC6 119 17.527
29 FC6 120 18.504
29 FC6 121 17.527
29 FC6 122 16.062
29 FC6 123 15.086
29 FC6 124 14.109
29 FC6 125 13.621
29 FC6 126 13.133
29 FC6 127 12.156
29 FC6 128 11.668
29 FC6 129 12.156
29 FC6 130 13.133
29 FC6 131 14.598
29 FC6 132 15.574
29 FC6 133 17.039
29 FC6 134 17.527
29 FC6 135 17.527
29 FC6 136 17.527
29 FC6 137 17.039
29 FC6 138 17.039
29 FC6 139 16.551
29 FC6 140 16.062
29 FC6 141 15.086
29 FC6 142 13.133
29 FC6 143 11.180
29 FC6 144 9.715
29 FC6 145 9.715
29 FC6 146 10.691
29 FC6 147 12.644
29 FC6 148 14.109
29 FC6 149 14.598
29 FC6 150 14.109
29 FC6 151 13.621
29 FC6 152 13.133
29 FC6 153 13.133
29 FC6 154 13.621
29 FC6 155 13.133
29 FC6 156 12.644
29 FC6 157 12.156
29 FC6 158 11.668
29 FC6 159 12.644
29 FC6 160 14.109
29 FC6 161 16.062
29 FC6 162 18.016
29 FC6 163 18.992
29 FC6 164 18.992
29 FC6 165 18.016
29 FC6 166 16.551
29 FC6 167 15.086
29 FC6 168 15.086
29 FC6 169 16.062
29 FC6 170 17.039
29 FC6 171 18.504
29 FC6 172 18.992
29 FC6 173 19.969
29 FC6 174 20.945
29 FC6 175 21.922
29 FC6 176 22.410
29 FC6 177 21.434
29 FC6 178 20.457
29 FC6 179 18.992
29 FC6 180 19.480
29 FC6 181 21.434
29 FC6 182 24.363
29 FC6 183 26.805
29 FC6 184 27.293
29 FC6 185 26.316
29 FC6 186 24.363
29 FC6 187 22.410
29 FC6 188 20.945
29 FC6 189 20.457
29 FC6 190 21.434
29 FC6 191 22.898
29 FC6 192 24.851
29 FC6 193 25.828
29 FC6 194 24.851
29 FC6 195 22.410
29 FC6 196 18.504
29 FC6 197 15.086
29 FC6 198 13.133
29 FC6 199 14.109
29 FC6 200 17.039
29 FC6 201 21.434
29 FC6 202 24.851
29 FC6 203 25.828
29 FC6 204 24.363
29 FC6 205 20.945
29 FC6 206 17.039
29 FC6 207 15.086
29 FC6 208 15.574
29 FC6 209 18.504
29 FC6 210 22.410
29 FC6 211 26.316
29 FC6 212 28.269
29 FC6 213 27.293
29 FC6 214 25.340
29 FC6 215 21.922
29 FC6 216 18.992
29 FC6 217 18.016
29 FC6 218 19.480
29 FC6 219 22.898
29 FC6 220 25.828
29 FC6 221 26.316
29 FC6 222 23.875
29 FC6 223 19.480
29 FC6 224 16.062
29 FC6 225 13.621
29 FC6 226 13.621
29 FC6 227 15.086
29 FC6 228 17.527
29 FC6 229 18.992
29 FC6 230 19.480
29 FC6 231 18.992
29 FC6 232 18.504
29 FC6 233 18.016
29 FC6 234 18.016
29 FC6 235 18.504
29 FC6 236 18.992
29 FC6 237 19.969
29 FC6 238 20.457
29 FC6 239 20.945
29 FC6 240 21.434
29 FC6 241 21.922
29 FC6 242 22.410
29 FC6 243 23.387
29 FC6 244 24.363
29 FC6 245 24.851
29 FC6 246 25.340
29 FC6 247 25.340
29 FC6 248 25.340
29 FC6 249 24.851
29 FC6 250 24.363
29 FC6 251 24.363
29 FC6 252 23.875
29 FC6 253 23.387
29 FC6 254 22.898
29 FC6 255 22.898
# FC5 chan 10
29 FC5 0 7.579
29 FC5 1 8.555
29 FC5 2 8.067
29 FC5 3 7.579
29 FC5 4 6.602
29 FC5 5 6.114
29 FC5 6 6.602
29 FC5 7 6.602
29 FC5 8 6.114
29 FC5 9 4.649
29 FC5 10 3.672
29 FC5 11 3.184
29 FC5 12 3.184
29 FC5 13 4.161
29 FC5 14 4.161
29 FC5 15 2.696
29 FC5 16 0.254
29 FC5 17 -2.187
29 FC5 18 -2.675
29 FC5 19 -0.722
29 FC5 20 3.672
29 FC5 21 7.579
29 FC5 22 9.532
29 FC5 23 9.532
29 FC5 24 7.579
29 FC5 25 5.137
29 FC5 26 4.161
29 FC5 27 3.672
29 FC5 28 3.672
29 FC5 29 2.696
29 FC5 30 1.719
29 FC5 31 1.231
29 FC5 32 2.207
29 FC5 33 4.649
29 FC5 34 8.067
29 FC5 35 11.485
29 FC5 36 13.438
29 FC5 37 13.438
29 FC5 38 11.973
29 FC5 39 10.508
29 FC5 40 8.555
29 FC5 41 7.090
29 FC5 42 5.625
29 FC5 43 4.161
29 FC5 44 3.184
29 FC5 45 3.184
29 FC5 46 5.137
29 FC5 47 8.067
29 FC5 48 11.973
29 FC5 49 15.391
29 FC5 50 17.832
29 FC5 51 18.809
29 FC5 52 19.297
29 FC5 53 18.321
29 FC5 54 17.344
29 FC5 55 16.368
29 FC5 56 14.414
29 FC5 57 11.485
29 FC5 58 8.555
29 FC5 59 5.625
29 FC5 60 3.184
29 FC5 61 1.231
29 FC5 62 0.743
29 FC5 63 0.254
29 FC5 64 0.743
29 FC5 65 2.696
29 FC5 66 6.114
29 FC5 67 9.532
29 FC5 68 11.973
29 FC5 69 12.950
29 FC5 70 12.461
29 FC5 71 11.485
29 FC5 72 10.997
29 FC5 73 11.485
29 FC5 74 12.461
29 FC5 75 12.950
29 FC5 76 13.438
29 FC5 77 13.438
29 FC5 78 12.950
29 FC5 79 12.950
29 FC5 80 13.438
29 FC5 81 14.414
29 FC5 82 15.879
29 FC5 83 16.856
29 FC5 84 18.321
29 FC5 85 18.809
29 FC5 86 17.832
29 FC5 87 15.879
29 FC5 88 13.438
29 FC5 89 11.973
29 FC5 90 11.973
29 FC5 91 13.438
29 FC5 92 15.879
29 FC5 93 18.321
29 FC5 94 20.762
29 FC5 95 22.227
29 FC5 96 22.715
29 FC5 97 23.204
29 FC5 98 23.204
29 FC5 99 23.204
29 FC5 100 22.715
29 FC5 101 23.204
29 FC5 102 23.204
29 FC5 103 22.715
29 FC5 104 21.739
29 FC5 105 19.786
29 FC5 106 16.856
29 FC5 107 14.414
29 FC5 108 13.438
29 FC5 109 14.414
29 FC5 110 15.879
29 FC5 111 17.832
29 FC5 112 19.297
29 FC5 113 18.809
29 FC5 114 17.344
29 FC5 115 14.903
29 FC5 116 11.485
29 FC5 117 8.067
29 FC5 118 5.625
29 FC5 119 3.672
29 FC5 120 3.672
29 FC5 121 4.649
29 FC5 122 6.602
29 FC5 123 9.043
29 FC5 124 11.973
29 FC5 125 13.926
29 FC5 126 14.414
29 FC5 127 13.438
29 FC5 128 11.485
29 FC5 129 9.532
29 FC5 130 8.067
29 FC5 131 8.067
29 FC5 132 9.043
29 FC5 133 10.508
29 FC5 134 11.973
29 FC5 135 11.973
29 FC5 136 10.997
29 FC5 137 11.485
29 FC5 138 11.973
29 FC5 139 12.461
29 FC5 140 13.926
29 FC5 141 15.879
29 FC5 142 17.344
29 FC5 143 18.809
29 FC5 144 18.809
29 FC5 145 18.809
29 FC5 146 18.809
29 FC5 147 18.809
29 FC5 148 18.809
29 FC5 149 18.321
29 FC5 150 17.344
29 FC5 151 15.879
29 FC5 152 14.903
29 FC5 153 14.414
29 FC5 154 13.926
29 FC5 155 14.414
29 FC5 156 15.391
29 FC5 157 16.856
29 FC5 158 17.832
29 FC5 159 18.809
29 FC5 160 19.297
29 FC5 161 18.809
29 FC5 162 17.344
29 FC5 163 15.879
29 FC5 164 13.438
29 FC5 165 12.461
29 FC5 166 11.973
29 FC5 167 12.461
29 FC5 168 13.926
29 FC5 169 15.879
29 FC5 170 17.832
29 FC5 171 18.321
29 FC5 172 17.832
29 FC5 173 16.856
29 FC5 174 15.879
29 FC5 175 16.368
29 FC5 176 18.809
29 FC5 177 20.274
29 FC5 178 21.250
29 FC5 179 20.762
29 FC5 180 19.786
29 FC5 181 18.321
29 FC5 182 18.809
29 FC5 183 20.274
29 FC5 184 22.715
29 FC5 185 24.180
29 FC5 186 23.692
29 FC5 187 21.739
29 FC5 188 18.809
29 FC5 189 16.856
29 FC5 190 16.368
29 FC5 191 18.321
29 FC5 192 21.739
29 FC5 193 24.668
29 FC5 194 26.622
29 FC5 195 26.622
29 FC5 196 25.157
29 FC5 197 22.715
29 FC5 198 20.762
29 FC5 199 20.274
29 FC5 200 20.762
29 FC5 201 21.250
29 FC5 202 21.250
29 FC5 203 20.762
29 FC5 204 20.274
29 FC5 205 19.786
29 FC5 206 19.786
29 FC5 207 21.250
29 FC5 208 23.204
29 FC5 209 25.157
29 FC5 210 25.645
29 FC5 211 24.668
29 FC5 212 22.227
29 FC5 213 20.274
29 FC5 214 19.297
29 FC5 215 20.274
29 FC5 216 22.715
29 FC5 217 24.668
29 FC5 218 25.157
29 FC5 219 24.180
29 FC5 220 22.227
29 FC5 221 20.274
29 FC5 222 19.786
29 FC5 223 20.762
29 FC5 224 22.227
29 FC5 225 23.204
29 FC5 226 24.180
29 FC5 227 23.692
29 FC5 228 23.204
29 FC5 229 22.715
29 FC5 230 22.227
29 FC5 231 22.227
29 FC5 232 22.227
29 FC5 233 22.227
29 FC5 234 22.715
29 FC5 235 22.227
29 FC5 236 21.250
29 FC5 237 20.274
29 FC5 238 19.786
29 FC5 239 20.274
29 FC5 240 21.739
29 FC5 241 23.692
29 FC5 242 25.157
29 FC5 243 25.645
29 FC5 244 25.157
29 FC5 245 24.668
29 FC5 246 23.692
29 FC5 247 23.692
29 FC5 248 24.180
29 FC5 249 23.692
29 FC5 250 23.692
29 FC5 251 24.180
29 FC5 252 25.157
29 FC5 253 27.110
29 FC5 254 29.063
29 FC5 255 31.016
# FC2 chan 11
29 FC2 0 2.330
29 FC2 1 2.818
29 FC2 2 3.306
29 FC2 3 3.794
29 FC2 4 4.283
29 FC2 5 5.259
29 FC2 6 5.747
29 FC2 7 7.212
29 FC2 8 8.189
29 FC2 9 9.165
29 FC2 10 9.165
29 FC2 11 8.677
29 FC2 12 8.189
29 FC2 13 6.724
29 FC2 14 5.747
29 FC2 15 5.259
29 FC2 16 5.259
29 FC2 17 5.747
29 FC2 18 6.724
29 FC2 19 6.724
29 FC2 20 6.724
29 FC2 21 5.747
29 FC2 22 6.236
29 FC2 23 7.212
29 FC2 24 9.165
29 FC2 25 11.119
29 FC2 26 11.607
29 FC2 27 11.119
29 FC2 28 11.119
29 FC2 29 10.630
29 FC2 30 10.630
29 FC2 31 11.119
29 FC2 32 11.119
29 FC2 33 9.654
29 FC2 34 8.189
29 FC2 35 6.724
29 FC2 36 6.236
29 FC2 37 6.236
29 FC2 38 5.747
29 FC2 39 5.747
29 FC2 40 6.236
29 FC2 41 7.212
29 FC2 42 8.677
29 FC2 43 10.142
29 FC2 44 12.095
29 FC2 45 13.072
29 FC2 46 13.560
29 FC2 47 13.072
29 FC2 48 12.583
29 FC2 49 12.095
29 FC2 50 11.607
29 FC2 51 12.095
29 FC2 52 13.072
29 FC2 53 14.048
29 FC2 54 16.001
29 FC2 55 17.466
29 FC2 56 19.419
29 FC2 57 20.884
29 FC2 58 21.372
29 FC2 59 20.884
29 FC2 60 17.955
29 FC2 61 14.537
29 FC2 62 11.119
29 FC2 63 8.189
29 FC2 64 6.724
29 FC2 65 6.236
29 FC2 66 6.236
29 FC2 67 6.236
29 FC2 68 6.236
29 FC2 69 6.724
29 FC2 70 7.212
29 FC2 71 9.165
29 FC2 72 10.630
29 FC2 73 12.095
29 FC2 74 13.560
29 FC2 75 14.537
29 FC2 76 14.537
29 FC2 77 14.537
29 FC2 78 14.537
29 FC2 79 14.537
29 FC2 80 14.048
29 FC2 81 13.560
29 FC2 82 13.560
29 FC2 83 14.048
29 FC2 84 14.048
29 FC2 85 14.537
29 FC2 86 15.025
29 FC2 87 15.513
29 FC2 88 16.490
29 FC2 89 16.978
29 FC2 90 17.955
29 FC2 91 18.443
29 FC2 92 18.443
29 FC2 93 18.443
29 FC2 94 18.443
29 FC2 95 17.955
29 FC2 96 17.955
29 FC2 97 17.466
29 FC2 98 16.978
29 FC2 99 16.978
29 FC2 100 16.978
29 FC2 101 17.466
29 FC2 102 18.443
29 FC2 103 19.419
29 FC2 104 20.396
29 FC2 105 21.372
29 FC2 106 20.884
29 FC2 107 20.396
29 FC2 108 18.443
29 FC2 109 17.466
29 FC2 110 16.490
29 FC2 111 16.978
29 FC2 112 18.931
29 FC2 113 19.908
29 FC2 114 19.908
29 FC2 115 17.955
29 FC2 116 14.537
29 FC2 117 12.095
29 FC2 118 11.607
29 FC2 119 13.072
29 FC2 120 15.513
29 FC2 121 17.955
29 FC2 122 18.931
29 FC2 123 18.931
29 FC2 124 17.955
29 FC2 125 16.490
29 FC2 126 16.001
29 FC2 127 16.001
29 FC2 128 16.490
29 FC2 129 17.955
29 FC2 130 18.931
29 FC2 131 19.908
29 FC2 132 19.908
29 FC2 133 19.908
29 FC2 134 19.908
29 FC2 135 19.908
29 FC2 136 20.396
29 FC2 137 21.372
29 FC2 138 21.372
29 FC2 139 21.372
29 FC2 140 21.372
29 FC2 141 21.372
29 FC2 142 21.861
29 FC2 143 22.349
29 FC2 144 22.837
29 FC2 145 22.837
29 FC2 146 22.349
29 FC2 147 21.861
29 FC2 148 21.372
29 FC2 149 20.396
29 FC2 150 19.908
29 FC2 151 19.419
29 FC2 152 19.908
29 FC2 153 20.396
29 FC2 154 20.396
29 FC2 155 19.908
29 FC2 156 18.931
29 FC2 157 16.978
29 FC2 158 16.001
29 FC2 159 15.513
29 FC2 160 16.001
29 FC2 161 17.955
29 FC2 162 19.908
29 FC2 163 21.372
29 FC2 164 21.372
29 FC2 165 19.908
29 FC2 166 17.466
29 FC2 167 16.001
29 FC2 168 16.490
29 FC2 169 17.466
29 FC2 170 19.419
29 FC2 171 20.396
29 FC2 172 20.396
29 FC2 173 19.419
29 FC2 174 18.443
29 FC2 175 17.955
29 FC2 176 17.955
29 FC2 177 18.443
29 FC2 178 19.419
29 FC2 179 20.396
29 FC2 180 20.884
29 FC2 181 20.396
29 FC2 182 18.443
29 FC2 183 15.513
29 FC2 184 13.560
29 FC2 185 13.072
29 FC2 186 15.025
29 FC2 187 17.955
29 FC2 188 20.884
29 FC2 189 21.372
29 FC2 190 20.396
29 FC2 191 18.931
29 FC2 192 18.443
29 FC2 193 19.908
29 FC2 194 22.349
29 FC2 195 24.790
29 FC2 196 25.767
29 FC2 197 23.814
29 FC2 198 20.884
29 FC2 199 17.466
29 FC2 200 16.001
29 FC2 201 16.490
29 FC2 202 19.908
29 FC2 203 22.837
29 FC2 204 25.767
29 FC2 205 26.255
29 FC2 206 24.302
29 FC2 207 20.884
29 FC2 208 17.955
29 FC2 209 16.490
29 FC2 210 17.466
29 FC2 211 19.908
29 FC2 212 22.837
29 FC2 213 24.790
29 FC2 214 24.790
29 FC2 215 22.837
29 FC2 216 19.419
29 FC2 217 16.978
29 FC2 218 16.001
29 FC2 219 16.978
29 FC2 220 19.419
29 FC2 221 21.861
29 FC2 222 22.837
29 FC2 223 22.349
29 FC2 224 20.396
29 FC2 225 17.955
29 FC2 226 16.490
29 FC2 227 15.513
29 FC2 228 16.001
29 FC2 229 16.001
29 FC2 230 16.490
29 FC2 231 16.001
29 FC2 232 15.513
29 FC2 233 16.490
29 FC2 234 17.955
29 FC2 235 19.908
29 FC2 236 21.861
29 FC2 237 21.861
29 FC2 238 20.884
29 FC2 239 18.443
29 FC2 240 16.001
29 FC2 241 15.025
29 FC2 242 15.513
29 FC2 243 17.466
29 FC2 244 19.908
29 FC2 245 22.349
29 FC2 246 23.326
29 FC2 247 23.814
29 FC2 248 22.837
29 FC2 249 21.861
29 FC2 250 19.908
29 FC2 251 17.955
29 FC2 252 16.490
29 FC2 253 15.513
29 FC2 254 15.513
29 FC2 255 16.490
# FC1 chan 12
29 FC1 0 7.304
29 FC1 1 6.327
29 FC1 2 5.351
29 FC1 3 4.374
29 FC1 4 4.862
29 FC1 5 4.862
29 FC1 6 5.351
29 FC1 7 6.816
29 FC1 8 8.280
29 FC1 9 9.257
29 FC1 10 10.234
29 FC1 11 11.210
29 FC1 12 11.698
29 FC1 13 11.210
29 FC1 14 9.745
29 FC1 15 7.792
29 FC1 16 4.862
29 FC1 17 1.933
29 FC1 18 0.956
29 FC1 19 1.444
29 FC1 20 4.374
29 FC1 21 7.792
29 FC1 22 11.210
29 FC1 23 13.163
29 FC1 24 13.163
29 FC1 25 12.187
29 FC1 26 10.722
29 FC1 27 9.257
29 FC1 28 8.769
29 FC1 29 8.769
29 FC1 30 8.769
29 FC1 31 9.257
29 FC1 32 10.234
29 FC1 33 11.210
29 FC1 34 12.675
29 FC1 35 13.652
29 FC1 36 14.140
29 FC1 37 14.140
29 FC1 38 13.652
29 FC1 39 12.675
29 FC1 40 11.210
29 FC1 41 9.745
29 FC1 42 8.769
29 FC1 43 8.280
29 FC1 44 9.257
29 FC1 45 10.722
29 FC1 46 12.675
29 FC1 47 14.628
29 FC1 48 16.093
29 FC1 49 16.093
29 FC1 50 15.605
29 FC1 51 15.605
29 FC1 52 15.605
29 FC1 53 16.093
29 FC1 54 17.558
29 FC1 55 19.023
29 FC1 56 20.976
29 FC1 57 21.952
29 FC1 58 21.952
29 FC1 59 20.976
29 FC1 60 18.046
29 FC1 61 14.140
29 FC1 62 10.234
29 FC1 63 7.792
29 FC1 64 7.304
29 FC1 65 8.769
29 FC1 66 11.210
29 FC1 67 13.652
29 FC1 68 15.116
29 FC1 69 15.605
29 FC1 70 15.116
29 FC1 71 14.628
29 FC1 72 14.628
29 FC1 73 15.116
29 FC1 74 15.605
29 FC1 75 15.605
29 FC1 76 16.093
29 FC1 77 16.093
29 FC1 78 15.605
29 FC1 79 15.605
29 FC1 80 15.605
29 FC1 81 16.093
29 FC1 82 17.069
29 FC1 83 18.534
29 FC1 84 19.511
29 FC1 85 19.511
29 FC1 86 18.046
29 FC1 87 16.581
29 FC1 88 15.605
29 FC1 89 15.605
29 FC1 90 16.093
29 FC1 91 17.558
29 FC1 92 19.023
29 FC1 93 20.487
29 FC1 94 20.976
29 FC1 95 21.464
29 FC1 96 20.487
29 FC1 97 19.511
29 FC1 98 18.534
29 FC1 99 18.046
29 FC1 100 18.534
29 FC1 101 19.511
29 FC1 102 20.976
29 FC1 103 22.441
29 FC1 104 22.441
29 FC1 105 21.952
29 FC1 106 20.976
29 FC1 107 19.999
29 FC1 108 19.023
29 FC1 109 18.534
29 FC1 110 19.023
29 FC1 111 19.999
29 FC1 112 21.464
29 FC1 113 22.441
29 FC1 114 22.441
29 FC1 115 19.999
29 FC1 116 16.093
29 FC1 117 12.187
29 FC1 118 9.745
29 FC1 119 9.745
29 FC1 120 11.210
29 FC1 121 14.140
29 FC1 122 16.581
29 FC1 123 18.534
29 FC1 124 19.023
29 FC1 125 19.511
29 FC1 126 19.511
29 FC1 127 19.511
29 FC1 128 18.534
29 FC1 129 18.046
29 FC1 130 16.581
29 FC1 131 15.605
29 FC1 132 15.116
29 FC1 133 15.116
29 FC1 134 16.093
29 FC1 135 17.069
29 FC1 136 18.534
29 FC1 137 19.511
29 FC1 138 20.487
29 FC1 139 21.464
29 FC1 140 21.464
29 FC1 141 21.952
29 FC1 142 22.441
29 FC1 143 22.929
29 FC1 144 22.929
29 FC1 145 22.929
29 FC1 146 22.441
29 FC1 147 21.952
29 FC1 148 21.952
29 FC1 149 21.464
29 FC1 150 20.976
29 FC1 151 19.999
29 FC1 152 19.999
29 FC1 153 19.023
29 FC1 154 18.534
29 FC1 155 18.534
29 FC1 156 18.046
29 FC1 157 18.046
29 FC1 158 18.534
29 FC1 159 18.534
29 FC1 160 18.534
29 FC1 161 19.023
29 FC1 162 19.511
29 FC1 163 19.511
29 FC1 164 19.023
29 FC1 165 17.558
29 FC1 166 16.093
29 FC1 167 15.605
29 FC1 168 15.605
29 FC1 169 16.093
29 FC1 170 17.069
29 FC1 171 17.069
29 FC1 172 17.069
29 FC1 173 16.093
29 FC1 174 16.093
29 FC1 175 16.581
29 FC1 176 18.046
29 FC1 177 19.511
29 FC1 178 20.976
29 FC1 179 21.464
29 FC1 180 20.976
29 FC1 181 18.534
29 FC1 182 16.093
29 FC1 183 13.652
29 FC1 184 12.675
29 FC1 185 13.163
29 FC1 186 15.116
29 FC1 187 17.558
29 FC1 188 18.534
29 FC1 189 18.046
29 FC1 190 16.581
29 FC1 191 16.093
29 FC1 192 16.581
29 FC1 193 19.511
29 FC1 194 22.929
29 FC1 195 25.370
29 FC1 196 25.370
29 FC1 197 23.417
29 FC1 198 19.999
29 FC1 199 17.069
29 FC1 200 15.116
29 FC1 201 15.116
29 FC1 202 17.069
29 FC1 203 19.511
29 FC1 204 20.976
29 FC1 205 21.464
29 FC1 206 20.487
29 FC1 207 19.023
29 FC1 208 17.558
29 FC1 209 18.046
29 FC1 210 18.534
29 FC1 211 19.999
29 FC1 212 20.976
29 FC1 213 21.464
29 FC1 214 20.976
29 FC1 215 19.999
29 FC1 216 19.023
29 FC1 217 18.046
29 FC1 218 18.046
29 FC1 219 18.046
29 FC1 220 17.558
29 FC1 221 18.534
29 FC1 222 19.511
29 FC1 223 20.487
29 FC1 224 21.464
29 FC1 225 21.464
29 FC1 226 21.464
29 FC1 227 20.487
29 FC1 228 19.511
29 FC1 229 19.023
29 FC1 230 19.023
29 FC1 231 18.534
29 FC1 232 18.534
29 FC1 233 18.534
29 FC1 234 18.534
29 FC1 235 19.511
29 FC1 236 20.487
29 FC1 237 20.487
29 FC1 238 19.999
29 FC1 239 18.534
29 FC1 240 17.069
29 FC1 241 16.581
29 FC1 242 17.069
29 FC1 243 19.511
29 FC1 244 21.464
29 FC1 245 23.417
29 FC1 246 23.905
29 FC1 247 23.417
29 FC1 248 22.441
29 FC1 249 20.487
29 FC1 250 19.023
29 FC1 251 18.534
29 FC1 252 18.046
29 FC1 253 18.534
29 FC1 254 19.511
29 FC1 255 20.976
# T8 chan 13
29 T8 0 -5.381
29 T8 1 -3.428
29 T8 2 -0.010
29 T8 3 3.408
29 T8 4 5.361
29 T8 5 6.826
29 T8 6 7.314
29 T8 7 7.314
29 T8 8 6.826
29 T8 9 5.849
29 T8 10 3.896
29 T8 11 1.455
29 T8 12 -1.963
29 T8 13 -4.405
29 T8 14 -4.893
29 T8 15 -2.452
29 T8 16 1.455
29 T8 17 6.337
29 T8 18 10.732
29 T8 19 12.685
29 T8 20 13.662
29 T8 21 13.662
29 T8 22 14.150
29 T8 23 15.127
29 T8 24 16.103
29 T8 25 14.638
29 T8 26 12.197
29 T8 27 9.267
29 T8 28 7.314
29 T8 29 6.826
29 T8 30 7.802
29 T8 31 8.291
29 T8 32 9.267
29 T8 33 10.732
29 T8 34 12.197
29 T8 35 15.127
29 T8 36 17.568
29 T8 37 19.033
29 T8 38 18.545
29 T8 39 18.545
29 T8 40 18.545
29 T8 41 19.521
29 T8 42 20.986
29 T8 43 21.962
29 T8 44 20.986
29 T8 45 19.033
29 T8 46 17.080
29 T8 47 15.615
29 T8 48 15.615
29 T8 49 17.080
29 T8 50 19.033
29 T8 51 20.986
29 T8 52 21.474
29 T8 53 21.474
29 T8 54 20.986
29 T8 55 20.009
29 T8 56 18.545
29 T8 57 17.080
29 T8 58 15.615
29 T8 59 14.150
29 T8 60 13.662
29 T8 61 12.685
29 T8 62 11.709
29 T8 63 10.732
29 T8 64 10.244
29 T8 65 10.244
29 T8 66 11.220
29 T8 67 12.197
29 T8 68 13.662
29 T8 69 14.638
29 T8 70 15.127
29 T8 71 16.103
29 T8 72 17.080
29 T8 73 18.056
29 T8 74 18.545
29 T8 75 18.545
29 T8 76 18.545
29 T8 77 18.545
29 T8 78 18.545
29 T8 79 18.545
29 T8 80 17.568
29 T8 81 16.103
29 T8 82 14.150
29 T8 83 12.685
29 T8 84 13.173
29 T8 85 14.150
29 T8 86 16.591
29 T8 87 18.545
29 T8 88 19.521
29 T8 89 19.521
29 T8 90 19.521
29 T8 91 19.033
29 T8 92 18.545
29 T8 93 18.545
29 T8 94 18.056
29 T8 95 17.568
29 T8 96 17.080
29 T8 97 16.591
29 T8 98 17.568
29 T8 99 19.033
29 T8 100 20.498
29 T8 101 21.474
29 T8 102 21.962
29 T8 103 21.962
29 T8 104 21.474
29 T8 105 20.498
29 T8 106 20.498
29 T8 107 19.521
29 T8 108 17.568
29 T8 109 15.615
29 T8 110 14.150
29 T8 111 12.197
29 T8 112 11.220
29 T8 113 10.732
29 T8 114 10.244
29 T8 115 10.732
29 T8 116 12.197
29 T8 117 14.638
29 T8 118 17.568
29 T8 119 19.033
29 T8 120 19.033
29 T8 121 16.591
29 T8 122 13.662
29 T8 123 11.709
29 T8 124 10.732
29 T8 125 11.220
29 T8 126 12.197
29 T8 127 13.173
29 T8 128 13.173
29 T8 129 13.173
29 T8 130 12.685
29 T8 131 13.173
29 T8 132 13.662
29 T8 133 14.638
29 T8 134 15.127
29 T8 135 15.615
29 T8 136 16.591
29 T8 137 17.080
29 T8 138 17.080
29 T8 139 16.103
29 T8 140 14.150
29 T8 141 11.709
29 T8 142 9.755
29 T8 143 7.314
29 T8 144 6.337
29 T8 145 5.849
29 T8 146 6.337
29 T8 147 7.314
29 T8 148 7.802
29 T8 149 8.291
29 T8 150 8.779
29 T8 151 9.267
29 T8 152 10.244
29 T8 153 11.709
29 T8 154 12.685
29 T8 155 13.662
29 T8 156 13.662
29 T8 157 13.662
29 T8 158 13.662
29 T8 159 13.662
29 T8 160 13.662
29 T8 161 13.662
29 T8 162 14.150
29 T8 163 14.638
29 T8 164 14.638
29 T8 165 15.127
29 T8 166 15.127
29 T8 167 15.127
29 T8 168 15.615
29 T8 169 16.103
29 T8 170 16.591
29 T8 171 18.056
29 T8 172 19.033
29 T8 173 20.498
29 T8 174 21.474
29 T8 175 22.451
29 T8 176 22.451
29 T8 177 21.962
29 T8 178 21.474
29 T8 179 21.474
29 T8 180 21.474
29 T8 181 22.451
29 T8 182 23.916
29 T8 183 26.357
29 T8 184 28.310
29 T8 185 30.263
29 T8 186 30.752
29 T8 187 30.752
29 T8 188 29.287
29 T8 189 26.357
29 T8 190 23.916
29 T8 191 21.962
29 T8 192 20.986
29 T8 193 20.986
29 T8 194 21.474
29 T8 195 20.498
29 T8 196 18.545
29 T8 197 16.103
29 T8 198 14.638
29 T8 199 15.127
29 T8 200 16.591
29 T8 201 18.056
29 T8 202 19.033
29 T8 203 18.545
29 T8 204 17.568
29 T8 205 16.591
29 T8 206 16.591
29 T8 207 18.056
29 T8 208 20.498
29 T8 209 23.427
29 T8 210 26.357
29 T8 211 28.310
29 T8 212 28.798
29 T8 213 27.334
29 T8 214 23.916
29 T8 215 20.009
29 T8 216 17.080
29 T8 217 16.591
29 T8 218 18.545
29 T8 219 21.474
29 T8 220 22.939
29 T8 221 21.962
29 T8 222 19.033
29 T8 223 15.615
29 T8 224 13.173
29 T8 225 13.173
29 T8 226 14.638
29 T8 227 16.591
29 T8 228 18.056
29 T8 229 19.033
29 T8 230 18.545
29 T8 231 18.056
29 T8 232 17.080
29 T8 233 16.591
29 T8 234 16.103
29 T8 235 16.103
29 T8 236 16.103
29 T8 237 17.080
29 T8 238 18.056
29 T8 239 19.521
29 T8 240 20.009
29 T8 241 21.474
29 T8 242 22.451
29 T8 243 23.916
29 T8 244 24.404
29 T8 245 24.404
29 T8 246 23.427
29 T8 247 22.451
29 T8 248 21.474
29 T8 249 21.474
29 T8 250 21.962
29 T8 251 22.451
29 T8 252 22.939
29 T8 253 22.939
29 T8 254 23.427
29 T8 255 24.404
# T7 chan 14
29 T7 0 4.313
29 T7 1 4.801
29 T7 2 5.778
29 T7 3 6.266
29 T7 4 8.219
29 T7 5 9.196
29 T7 6 10.173
29 T7 7 10.173
29 T7 8 8.708
29 T7 9 6.266
29 T7 10 3.825
29 T7 11 2.360
29 T7 12 2.360
29 T7 13 3.825
29 T7 14 4.801
29 T7 15 5.290
29 T7 16 4.313
29 T7 17 3.337
29 T7 18 3.825
29 T7 19 6.266
29 T7 20 10.173
29 T7 21 14.567
29 T7 22 16.520
29 T7 23 15.055
29 T7 24 11.637
29 T7 25 7.731
29 T7 26 5.778
29 T7 27 6.266
29 T7 28 7.731
29 T7 29 8.708
29 T7 30 8.708
29 T7 31 7.731
29 T7 32 6.755
29 T7 33 7.243
29 T7 34 9.196
29 T7 35 11.149
29 T7 36 13.590
29 T7 37 15.544
29 T7 38 17.497
29 T7 39 19.450
29 T7 40 21.403
29 T7 41 22.380
29 T7 42 21.891
29 T7 43 20.915
29 T7 44 19.450
29 T7 45 17.985
29 T7 46 17.497
29 T7 47 17.008
29 T7 48 18.473
29 T7 49 20.426
29 T7 50 22.380
29 T7 51 23.844
29 T7 52 23.356
29 T7 53 21.403
29 T7 54 18.473
29 T7 55 16.032
29 T7 56 14.567
29 T7 57 14.079
29 T7 58 13.590
29 T7 59 13.102
29 T7 60 11.637
29 T7 61 10.661
29 T7 62 9.196
29 T7 63 8.219
29 T7 64 8.219
29 T7 65 9.196
29 T7 66 10.661
29 T7 67 12.614
29 T7 68 14.079
29 T7 69 15.544
29 T7 70 16.032
29 T7 71 17.008
29 T7 72 17.497
29 T7 73 17.985
29 T7 74 18.962
29 T7 75 19.938
29 T7 76 20.426
29 T7 77 20.915
29 T7 78 20.915
29 T7 79 20.426
29 T7 80 19.450
29 T7 81 18.473
29 T7 82 17.985
29 T7 83 17.985
29 T7 84 17.985
29 T7 85 17.497
29 T7 86 16.032
29 T7 87 14.079
29 T7 88 12.614
29 T7 89 12.126
29 T7 90 13.102
29 T7 91 15.055
29 T7 92 17.008
29 T7 93 18.962
29 T7 94 19.938
29 T7 95 21.403
29 T7 96 22.868
29 T7 97 24.333
29 T7 98 26.286
29 T7 99 27.262
29 T7 100 27.262
29 T7 101 26.286
29 T7 102 25.309
29 T7 103 23.844
29 T7 104 21.891
29 T7 105 19.938
29 T7 106 17.985
29 T7 107 16.032
29 T7 108 15.544
29 T7 109 16.032
29 T7 110 16.520
29 T7 111 16.520
29 T7 112 15.544
29 T7 113 14.567
29 T7 114 13.590
29 T7 115 13.102
29 T7 116 12.614
29 T7 117 12.614
29 T7 118 11.149
29 T7 119 9.196
29 T7 120 7.243
29 T7 121 5.290
29 T7 122 4.801
29 T7 123 5.290
29 T7 124 6.755
29 T7 125 7.731
29 T7 126 9.196
29 T7 127 10.173
29 T7 128 10.661
29 T7 129 10.661
29 T7 130 10.661
29 T7 131 11.149
29 T7 132 12.614
29 T7 133 14.079
29 T7 134 16.032
29 T7 135 16.520
29 T7 136 15.544
29 T7 137 13.590
29 T7 138 12.614
29 T7 139 13.102
29 T7 140 14.567
29 T7 141 16.520
29 T7 142 17.985
29 T7 143 17.985
29 T7 144 17.497
29 T7 145 16.032
29 T7 146 16.032
29 T7 147 15.544
29 T7 148 15.544
29 T7 149 14.567
29 T7 150 13.590
29 T7 151 12.614
29 T7 152 12.126
29 T7 153 12.614
29 T7 154 13.590
29 T7 155 14.567
29 T7 156 15.055
29 T7 157 16.032
29 T7 158 16.520
29 T7 159 17.008
29 T7 160 16.032
29 T7 161 14.567
29 T7 162 12.614
29 T7 163 10.661
29 T7 164 10.661
29 T7 165 11.637
29 T7 166 13.102
29 T7 167 14.567
29 T7 168 15.544
29 T7 169 15.544
29 T7 170 17.008
29 T7 171 18.473
29 T7 172 19.450
29 T7 173 19.450
29 T7 174 18.473
29 T7 175 17.497
29 T7 176 17.008
29 T7 177 17.985
29 T7 178 19.450
29 T7 179 19.938
29 T7 180 19.450
29 T7 181 19.450
29 T7 182 20.915
29 T7 183 24.333
29 T7 184 28.727
29 T7 185 32.633
29 T7 186 33.122
29 T7 187 30.192
29 T7 188 25.798
29 T7 189 21.891
29 T7 190 20.915
29 T7 191 22.868
29 T7 192 25.798
29 T7 193 28.239
29 T7 194 29.215
29 T7 195 28.239
29 T7 196 26.286
29 T7 197 25.309
29 T7 198 24.821
29 T7 199 25.309
29 T7 200 26.286
29 T7 201 25.798
29 T7 202 24.821
29 T7 203 22.868
29 T7 204 20.915
29 T7 205 20.915
29 T7 206 21.891
29 T7 207 24.333
29 T7 208 26.774
29 T7 209 28.239
29 T7 210 27.751
29 T7 211 25.798
29 T7 212 22.868
29 T7 213 20.426
29 T7 214 19.450
29 T7 215 19.938
29 T7 216 21.891
29 T7 217 24.333
29 T7 218 25.309
29 T7 219 25.309
29 T7 220 24.333
29 T7 221 23.356
29 T7 222 23.356
29 T7 223 23.844
29 T7 224 24.821
29 T7 225 24.821
29 T7 226 24.333
29 T7 227 22.868
29 T7 228 21.403
29 T7 229 20.915
29 T7 230 20.915
29 T7 231 21.891
29 T7 232 22.868
29 T7 233 23.844
29 T7 234 23.844
29 T7 235 22.380
29 T7 236 20.915
29 T7 237 18.962
29 T7 238 17.985
29 T7 239 17.985
29 T7 240 19.450
29 T7 241 21.891
29 T7 242 23.844
29 T7 243 24.333
29 T7 244 23.844
29 T7 245 22.868
29 T7 246 22.380
29 T7 247 21.891
29 T7 248 22.868
29 T7 249 23.844
29 T7 250 25.309
29 T7 251 26.286
29 T7 252 27.262
29 T7 253 28.239
29 T7 254 29.215
29 T7 255 30.192
# CZ chan 15
29 CZ 0 -1.628
29 CZ 1 -1.139
29 CZ 2 0.814
29 CZ 3 4.720
29 CZ 4 9.603
29 CZ 5 14.486
29 CZ 6 16.927
29 CZ 7 14.974
29 CZ 8 10.579
29 CZ 9 5.208
29 CZ 10 1.302
29 CZ 11 -0.651
29 CZ 12 -1.139
29 CZ 13 -1.628
29 CZ 14 -2.116
29 CZ 15 -2.116
29 CZ 16 -0.651
29 CZ 17 2.279
29 CZ 18 5.697
29 CZ 19 8.138
29 CZ 20 9.603
29 CZ 21 9.115
29 CZ 22 7.161
29 CZ 23 6.185
29 CZ 24 5.697
29 CZ 25 6.673
29 CZ 26 7.650
29 CZ 27 9.115
29 CZ 28 9.115
29 CZ 29 8.138
29 CZ 30 7.650
29 CZ 31 8.626
29 CZ 32 11.068
29 CZ 33 14.486
29 CZ 34 16.439
29 CZ 35 16.439
29 CZ 36 14.974
29 CZ 37 13.997
29 CZ 38 14.486
29 CZ 39 16.927
29 CZ 40 20.833
29 CZ 41 24.251
29 CZ 42 26.693
29 CZ 43 28.158
29 CZ 44 29.622
29 CZ 45 30.599
29 CZ 46 30.599
29 CZ 47 29.134
29 CZ 48 27.181
29 CZ 49 25.716
29 CZ 50 25.716
29 CZ 51 27.669
29 CZ 52 30.599
29 CZ 53 32.064
29 CZ 54 31.576
29 CZ 55 29.622
29 CZ 56 27.181
29 CZ 57 24.251
29 CZ 58 21.810
29 CZ 59 19.368
29 CZ 60 16.927
29 CZ 61 14.486
29 CZ 62 12.533
29 CZ 63 11.068
29 CZ 64 10.579
29 CZ 65 11.556
29 CZ 66 13.997
29 CZ 67 16.927
29 CZ 68 19.857
29 CZ 69 22.786
29 CZ 70 24.740
29 CZ 71 25.716
29 CZ 72 25.228
29 CZ 73 24.740
29 CZ 74 24.740
29 CZ 75 24.251
29 CZ 76 24.251
29 CZ 77 23.763
29 CZ 78 23.763
29 CZ 79 23.275
29 CZ 80 22.298
29 CZ 81 21.322
29 CZ 82 20.345
29 CZ 83 20.345
29 CZ 84 21.810
29 CZ 85 24.740
29 CZ 86 28.158
29 CZ 87 30.599
29 CZ 88 33.040
29 CZ 89 32.552
29 CZ 90 31.576
29 CZ 91 30.111
29 CZ 92 29.134
29 CZ 93 29.134
29 CZ 94 29.622
29 CZ 95 31.087
29 CZ 96 33.040
29 CZ 97 34.993
29 CZ 98 36.458
29 CZ 99 36.947
29 CZ 100 36.458
29 CZ 101 34.993
29 CZ 102 34.017
29 CZ 103 33.529
29 CZ 104 34.017
29 CZ 105 34.017
29 CZ 106 32.552
29 CZ 107 29.622
29 CZ 108 25.716
29 CZ 109 20.833
29 CZ 110 16.927
29 CZ 111 13.997
29 CZ 112 11.556
29 CZ 113 10.091
29 CZ 114 9.115
29 CZ 115 10.091
29 CZ 116 11.556
29 CZ 117 13.509
29 CZ 118 13.997
29 CZ 119 13.509
29 CZ 120 11.068
29 CZ 121 7.650
29 CZ 122 4.720
29 CZ 123 2.279
29 CZ 124 1.790
29 CZ 125 2.767
29 CZ 126 3.743
29 CZ 127 5.697
29 CZ 128 6.673
29 CZ 129 7.650
29 CZ 130 8.138
29 CZ 131 9.603
29 CZ 132 11.068
29 CZ 133 13.509
29 CZ 134 16.439
29 CZ 135 18.392
29 CZ 136 18.880
29 CZ 137 18.392
29 CZ 138 17.415
29 CZ 139 15.462
29 CZ 140 13.509
29 CZ 141 11.556
29 CZ 142 9.115
29 CZ 143 6.673
29 CZ 144 5.697
29 CZ 145 5.697
29 CZ 146 7.161
29 CZ 147 9.115
29 CZ 148 11.068
29 CZ 149 12.533
29 CZ 150 13.997
29 CZ 151 14.486
29 CZ 152 13.997
29 CZ 153 13.021
29 CZ 154 11.556
29 CZ 155 10.579
29 CZ 156 10.579
29 CZ 157 11.068
29 CZ 158 12.533
29 CZ 159 13.997
29 CZ 160 13.997
29 CZ 161 13.509
29 CZ 162 13.509
29 CZ 163 14.486
29 CZ 164 16.439
29 CZ 165 18.392
29 CZ 166 19.368
29 CZ 167 20.345
29 CZ 168 20.833
29 CZ 169 21.322
29 CZ 170 22.786
29 CZ 171 24.740
29 CZ 172 25.716
29 CZ 173 25.228
29 CZ 174 24.251
29 CZ 175 22.786
29 CZ 176 21.810
29 CZ 177 21.322
29 CZ 178 20.345
29 CZ 179 19.857
29 CZ 180 19.857
29 CZ 181 22.298
29 CZ 182 27.181
29 CZ 183 33.529
29 CZ 184 39.388
29 CZ 185 42.806
29 CZ 186 41.829
29 CZ 187 37.435
29 CZ 188 31.576
29 CZ 189 26.204
29 CZ 190 23.275
29 CZ 191 23.275
29 CZ 192 24.740
29 CZ 193 26.204
29 CZ 194 26.204
29 CZ 195 24.740
29 CZ 196 22.786
29 CZ 197 21.810
29 CZ 198 22.298
29 CZ 199 23.763
29 CZ 200 24.740
29 CZ 201 24.251
29 CZ 202 22.786
29 CZ 203 20.833
29 CZ 204 20.833
29 CZ 205 21.322
29 CZ 206 22.298
29 CZ 207 23.275
29 CZ 208 23.275
29 CZ 209 22.786
29 CZ 210 21.810
29 CZ 211 20.345
29 CZ 212 18.880
29 CZ 213 17.415
29 CZ 214 17.904
29 CZ 215 19.857
29 CZ 216 22.298
29 CZ 217 24.740
29 CZ 218 26.693
29 CZ 219 26.693
29 CZ 220 25.228
29 CZ 221 23.275
29 CZ 222 20.833
29 CZ 223 17.904
29 CZ 224 15.951
29 CZ 225 14.486
29 CZ 226 14.486
29 CZ 227 14.486
29 CZ 228 15.462
29 CZ 229 16.439
29 CZ 230 17.415
29 CZ 231 17.904
29 CZ 232 18.392
29 CZ 233 18.880
29 CZ 234 17.904
29 CZ 235 16.927
29 CZ 236 14.974
29 CZ 237 13.021
29 CZ 238 11.556
29 CZ 239 12.044
29 CZ 240 13.997
29 CZ 241 17.415
29 CZ 242 20.345
29 CZ 243 21.810
29 CZ 244 21.322
29 CZ 245 20.833
29 CZ 246 20.833
29 CZ 247 21.322
29 CZ 248 21.810
29 CZ 249 21.322
29 CZ 250 20.345
29 CZ 251 18.880
29 CZ 252 18.392
29 CZ 253 20.345
29 CZ 254 23.763
29 CZ 255 26.693
# C3 chan 16
29 C3 0 8.514
29 C3 1 6.561
29 C3 2 5.096
29 C3 3 5.096
29 C3 4 5.096
29 C3 5 5.096
29 C3 6 6.073
29 C3 7 6.561
29 C3 8 7.050
29 C3 9 7.050
29 C3 10 7.050
29 C3 11 7.050
29 C3 12 8.026
29 C3 13 9.491
29 C3 14 9.979
29 C3 15 8.514
29 C3 16 6.073
29 C3 17 2.167
29 C3 18 -0.275
29 C3 19 -0.275
29 C3 20 2.655
29 C3 21 7.050
29 C3 22 11.444
29 C3 23 14.374
29 C3 24 14.862
29 C3 25 13.885
29 C3 26 12.909
29 C3 27 11.932
29 C3 28 11.932
29 C3 29 10.956
29 C3 30 9.491
29 C3 31 7.050
29 C3 32 4.608
29 C3 33 4.608
29 C3 34 7.538
29 C3 35 12.421
29 C3 36 17.303
29 C3 37 19.745
29 C3 38 20.233
29 C3 39 18.768
29 C3 40 16.327
29 C3 41 13.885
29 C3 42 11.932
29 C3 43 9.491
29 C3 44 7.538
29 C3 45 7.050
29 C3 46 8.026
29 C3 47 10.468
29 C3 48 13.885
29 C3 49 17.303
29 C3 50 19.257
29 C3 51 19.745
29 C3 52 18.768
29 C3 53 17.792
29 C3 54 16.815
29 C3 55 16.327
29 C3 56 15.839
29 C3 57 15.350
29 C3 58 15.350
29 C3 59 15.350
29 C3 60 15.839
29 C3 61 14.862
29 C3 62 13.885
29 C3 63 11.444
29 C3 64 9.979
29 C3 65 9.979
29 C3 66 11.444
29 C3 67 14.374
29 C3 68 17.303
29 C3 69 19.745
29 C3 70 20.233
29 C3 71 19.745
29 C3 72 18.280
29 C3 73 17.303
29 C3 74 16.815
29 C3 75 16.327
29 C3 76 16.327
29 C3 77 15.839
29 C3 78 15.839
29 C3 79 16.815
29 C3 80 17.792
29 C3 81 19.257
29 C3 82 20.721
29 C3 83 21.210
29 C3 84 20.721
29 C3 85 19.745
29 C3 86 17.792
29 C3 87 15.839
29 C3 88 13.885
29 C3 89 12.909
29 C3 90 12.909
29 C3 91 13.885
29 C3 92 15.839
29 C3 93 18.280
29 C3 94 21.210
29 C3 95 23.163
29 C3 96 24.139
29 C3 97 23.651
29 C3 98 22.675
29 C3 99 21.210
29 C3 100 20.233
29 C3 101 19.745
29 C3 102 19.257
29 C3 103 18.768
29 C3 104 18.768
29 C3 105 18.768
29 C3 106 19.257
29 C3 107 20.721
29 C3 108 21.698
29 C3 109 22.675
29 C3 110 22.675
29 C3 111 22.186
29 C3 112 21.698
29 C3 113 20.721
29 C3 114 20.721
29 C3 115 20.233
29 C3 116 19.257
29 C3 117 17.303
29 C3 118 15.350
29 C3 119 13.885
29 C3 120 13.397
29 C3 121 13.885
29 C3 122 15.350
29 C3 123 17.303
29 C3 124 19.257
29 C3 125 20.233
29 C3 126 21.210
29 C3 127 20.233
29 C3 128 18.280
29 C3 129 16.327
29 C3 130 14.374
29 C3 131 13.397
29 C3 132 13.885
29 C3 133 14.862
29 C3 134 16.815
29 C3 135 17.792
29 C3 136 18.768
29 C3 137 19.257
29 C3 138 19.257
29 C3 139 19.745
29 C3 140 20.233
29 C3 141 20.721
29 C3 142 21.210
29 C3 143 21.698
29 C3 144 21.698
29 C3 145 21.698
29 C3 146 20.721
29 C3 147 20.233
29 C3 148 19.745
29 C3 149 19.257
29 C3 150 19.257
29 C3 151 19.257
29 C3 152 19.745
29 C3 153 19.745
29 C3 154 19.745
29 C3 155 20.233
29 C3 156 20.233
29 C3 157 20.233
29 C3 158 19.745
29 C3 159 19.745
29 C3 160 20.233
29 C3 161 19.745
29 C3 162 19.745
29 C3 163 18.768
29 C3 164 17.792
29 C3 165 16.815
29 C3 166 16.327
29 C3 167 16.815
29 C3 168 17.303
29 C3 169 17.303
29 C3 170 17.303
29 C3 171 17.792
29 C3 172 18.768
29 C3 173 18.768
29 C3 174 19.257
29 C3 175 19.257
29 C3 176 19.745
29 C3 177 19.745
29 C3 178 20.233
29 C3 179 20.233
29 C3 180 19.745
29 C3 181 18.768
29 C3 182 17.792
29 C3 183 17.792
29 C3 184 18.768
29 C3 185 21.210
29 C3 186 23.163
29 C3 187 24.139
29 C3 188 23.163
29 C3 189 21.210
29 C3 190 19.745
29 C3 191 19.257
29 C3 192 21.210
29 C3 193 23.163
29 C3 194 25.604
29 C3 195 26.581
29 C3 196 26.093
29 C3 197 24.628
29 C3 198 23.163
29 C3 199 21.698
29 C3 200 21.698
29 C3 201 21.698
29 C3 202 21.698
29 C3 203 21.210
29 C3 204 20.721
29 C3 205 19.745
29 C3 206 19.257
29 C3 207 19.257
29 C3 208 20.721
29 C3 209 22.675
29 C3 210 23.651
29 C3 211 24.139
29 C3 212 23.163
29 C3 213 21.698
29 C3 214 20.233
29 C3 215 19.745
29 C3 216 20.721
29 C3 217 21.698
29 C3 218 22.186
29 C3 219 21.698
29 C3 220 21.698
29 C3 221 22.186
29 C3 222 23.651
29 C3 223 24.628
29 C3 224 26.093
29 C3 225 25.604
29 C3 226 24.628
29 C3 227 23.163
29 C3 228 22.186
29 C3 229 21.698
29 C3 230 22.186
29 C3 231 22.675
29 C3 232 23.163
29 C3 233 23.651
29 C3 234 24.139
29 C3 235 24.139
29 C3 236 23.651
29 C3 237 22.675
29 C3 238 21.698
29 C3 239 20.721
29 C3 240 20.721
29 C3 241 21.210
29 C3 242 21.698
29 C3 243 21.698
29 C3 244 22.186
29 C3 245 22.675
29 C3 246 23.163
29 C3 247 23.651
29 C3 248 24.139
29 C3 249 24.139
29 C3 250 24.139
29 C3 251 24.628
29 C3 252 25.604
29 C3 253 27.069
29 C3 254 27.557
29 C3 255 28.046
# C4 chan 17
29 C4 0 -1.831
29 C4 1 -3.296
29 C4 2 -3.784
29 C4 3 -3.296
29 C4 4 -1.831
29 C4 5 0.122
29 C4 6 2.563
29 C4 7 4.517
29 C4 8 6.958
29 C4 9 8.911
29 C4 10 9.399
29 C4 11 8.423
29 C4 12 5.981
29 C4 13 4.028
29 C4 14 2.563
29 C4 15 3.540
29 C4 16 5.981
29 C4 17 8.911
29 C4 18 10.376
29 C4 19 9.399
29 C4 20 6.470
29 C4 21 4.517
29 C4 22 4.028
29 C4 23 6.958
29 C4 24 10.864
29 C4 25 13.794
29 C4 26 14.771
29 C4 27 13.306
29 C4 28 11.353
29 C4 29 9.399
29 C4 30 8.423
29 C4 31 8.423
29 C4 32 8.911
29 C4 33 9.399
29 C4 34 9.888
29 C4 35 10.864
29 C4 36 10.376
29 C4 37 8.911
29 C4 38 6.470
29 C4 39 4.517
29 C4 40 4.028
29 C4 41 5.005
29 C4 42 7.446
29 C4 43 9.399
29 C4 44 10.864
29 C4 45 11.353
29 C4 46 10.376
29 C4 47 10.376
29 C4 48 10.864
29 C4 49 11.841
29 C4 50 13.306
29 C4 51 13.794
29 C4 52 14.771
29 C4 53 15.747
29 C4 54 16.235
29 C4 55 16.724
29 C4 56 16.724
29 C4 57 16.724
29 C4 58 16.235
29 C4 59 15.747
29 C4 60 16.235
29 C4 61 16.235
29 C4 62 15.259
29 C4 63 14.282
29 C4 64 12.329
29 C4 65 10.376
29 C4 66 8.911
29 C4 67 8.911
29 C4 68 8.911
29 C4 69 10.376
29 C4 70 11.353
29 C4 71 12.817
29 C4 72 13.306
29 C4 73 13.794
29 C4 74 13.794
29 C4 75 13.794
29 C4 76 14.771
29 C4 77 15.259
29 C4 78 16.235
29 C4 79 17.212
29 C4 80 17.212
29 C4 81 16.724
29 C4 82 15.259
29 C4 83 14.282
29 C4 84 13.794
29 C4 85 13.794
29 C4 86 14.771
29 C4 87 15.259
29 C4 88 16.235
29 C4 89 17.212
29 C4 90 17.700
29 C4 91 17.700
29 C4 92 17.700
29 C4 93 17.212
29 C4 94 16.724
29 C4 95 15.747
29 C4 96 14.771
29 C4 97 14.282
29 C4 98 13.794
29 C4 99 14.282
29 C4 100 14.771
29 C4 101 15.259
29 C4 102 16.235
29 C4 103 16.724
29 C4 104 18.188
29 C4 105 20.142
29 C4 106 21.118
29 C4 107 21.118
29 C4 108 20.142
29 C4 109 18.188
29 C4 110 16.724
29 C4 111 16.235
29 C4 112 16.235
29 C4 113 16.235
29 C4 114 15.747
29 C4 115 15.259
29 C4 116 15.259
29 C4 117 15.747
29 C4 118 17.212
29 C4 119 18.677
29 C4 120 19.653
29 C4 121 19.165
29 C4 122 18.188
29 C4 123 17.212
29 C4 124 16.235
29 C4 125 16.235
29 C4 126 16.235
29 C4 127 16.724
29 C4 128 17.700
29 C4 129 18.188
29 C4 130 18.677
29 C4 131 18.188
29 C4 132 17.212
29 C4 133 15.747
29 C4 134 15.259
29 C4 135 15.259
29 C4 136 16.235
29 C4 137 17.212
29 C4 138 17.212
29 C4 139 17.212
29 C4 140 16.724
29 C4 141 16.724
29 C4 142 16.724
29 C4 143 16.235
29 C4 144 15.747
29 C4 145 14.771
29 C4 146 13.794
29 C4 147 12.817
29 C4 148 12.329
29 C4 149 12.329
29 C4 150 13.306
29 C4 151 14.282
29 C4 152 15.747
29 C4 153 18.188
29 C4 154 19.653
29 C4 155 20.630
29 C4 156 20.142
29 C4 157 18.677
29 C4 158 16.235
29 C4 159 14.282
29 C4 160 13.794
29 C4 161 14.282
29 C4 162 16.235
29 C4 163 17.700
29 C4 164 18.677
29 C4 165 18.677
29 C4 166 18.188
29 C4 167 17.700
29 C4 168 18.677
29 C4 169 19.653
29 C4 170 20.630
29 C4 171 20.142
29 C4 172 19.165
29 C4 173 19.165
29 C4 174 19.165
29 C4 175 20.630
29 C4 176 21.606
29 C4 177 21.606
29 C4 178 22.095
29 C4 179 22.095
29 C4 180 22.583
29 C4 181 23.071
29 C4 182 22.583
29 C4 183 20.630
29 C4 184 18.188
29 C4 185 17.212
29 C4 186 18.677
29 C4 187 21.606
29 C4 188 24.536
29 C4 189 25.513
29 C4 190 24.048
29 C4 191 20.630
29 C4 192 18.677
29 C4 193 18.677
29 C4 194 20.142
29 C4 195 21.606
29 C4 196 22.095
29 C4 197 21.118
29 C4 198 19.165
29 C4 199 17.700
29 C4 200 17.700
29 C4 201 18.677
29 C4 202 20.142
29 C4 203 21.118
29 C4 204 22.095
29 C4 205 22.095
29 C4 206 20.630
29 C4 207 18.677
29 C4 208 17.212
29 C4 209 17.700
29 C4 210 19.653
29 C4 211 23.071
29 C4 212 26.001
29 C4 213 26.978
29 C4 214 25.513
29 C4 215 22.583
29 C4 216 19.653
29 C4 217 17.700
29 C4 218 18.677
29 C4 219 20.630
29 C4 220 23.071
29 C4 221 24.048
29 C4 222 23.071
29 C4 223 20.630
29 C4 224 18.677
29 C4 225 17.700
29 C4 226 18.677
29 C4 227 20.142
29 C4 228 21.606
29 C4 229 22.095
29 C4 230 21.118
29 C4 231 19.165
29 C4 232 17.700
29 C4 233 17.700
29 C4 234 19.653
29 C4 235 21.606
29 C4 236 24.048
29 C4 237 25.024
29 C4 238 24.536
29 C4 239 23.560
29 C4 240 22.095
29 C4 241 21.118
29 C4 242 20.630
29 C4 243 20.630
29 C4 244 20.630
29 C4 245 21.118
29 C4 246 22.583
29 C4 247 24.048
29 C4 248 25.513
29 C4 249 26.001
29 C4 250 25.024
29 C4 251 24.048
29 C4 252 22.583
29 C4 253 21.606
29 C4 254 21.118
29 C4 255 21.606
# CP5 chan 18
29 CP5 0 4.222
29 CP5 1 3.245
29 CP5 2 3.733
29 CP5 3 4.222
29 CP5 4 5.198
29 CP5 5 6.175
29 CP5 6 6.663
29 CP5 7 6.175
29 CP5 8 5.686
29 CP5 9 4.222
29 CP5 10 3.733
29 CP5 11 3.245
29 CP5 12 3.245
29 CP5 13 3.733
29 CP5 14 4.710
29 CP5 15 5.198
29 CP5 16 4.710
29 CP5 17 3.733
29 CP5 18 3.733
29 CP5 19 4.222
29 CP5 20 7.151
29 CP5 21 10.569
29 CP5 22 13.011
29 CP5 23 13.499
29 CP5 24 12.522
29 CP5 25 10.569
29 CP5 26 9.593
29 CP5 27 9.593
29 CP5 28 10.569
29 CP5 29 11.058
29 CP5 30 10.081
29 CP5 31 7.640
29 CP5 32 5.686
29 CP5 33 4.710
29 CP5 34 5.198
29 CP5 35 8.128
29 CP5 36 12.034
29 CP5 37 14.964
29 CP5 38 17.405
29 CP5 39 18.870
29 CP5 40 19.358
29 CP5 41 19.358
29 CP5 42 18.382
29 CP5 43 16.917
29 CP5 44 14.964
29 CP5 45 13.499
29 CP5 46 13.011
29 CP5 47 13.499
29 CP5 48 14.964
29 CP5 49 16.429
29 CP5 50 17.405
29 CP5 51 16.917
29 CP5 52 15.452
29 CP5 53 14.476
29 CP5 54 13.499
29 CP5 55 13.011
29 CP5 56 13.499
29 CP5 57 13.499
29 CP5 58 14.476
29 CP5 59 14.964
29 CP5 60 15.452
29 CP5 61 15.940
29 CP5 62 14.964
29 CP5 63 13.499
29 CP5 64 12.034
29 CP5 65 11.058
29 CP5 66 11.058
29 CP5 67 12.522
29 CP5 68 14.964
29 CP5 69 17.405
29 CP5 70 19.358
29 CP5 71 20.335
29 CP5 72 19.847
29 CP5 73 19.358
29 CP5 74 19.358
29 CP5 75 18.870
29 CP5 76 18.870
29 CP5 77 18.870
29 CP5 78 17.893
29 CP5 79 16.917
29 CP5 80 16.429
29 CP5 81 15.940
29 CP5 82 15.452
29 CP5 83 14.964
29 CP5 84 13.499
29 CP5 85 11.546
29 CP5 86 9.593
29 CP5 87 8.616
29 CP5 88 8.616
29 CP5 89 9.593
29 CP5 90 10.081
29 CP5 91 11.058
29 CP5 92 12.522
29 CP5 93 13.987
29 CP5 94 15.940
29 CP5 95 18.382
29 CP5 96 20.335
29 CP5 97 21.800
29 CP5 98 21.800
29 CP5 99 21.311
29 CP5 100 19.847
29 CP5 101 18.382
29 CP5 102 16.917
29 CP5 103 16.429
29 CP5 104 16.429
29 CP5 105 16.917
29 CP5 106 17.405
29 CP5 107 17.893
29 CP5 108 18.870
29 CP5 109 19.358
29 CP5 110 19.847
29 CP5 111 19.358
29 CP5 112 18.382
29 CP5 113 16.917
29 CP5 114 16.429
29 CP5 115 16.429
29 CP5 116 16.917
29 CP5 117 17.405
29 CP5 118 16.429
29 CP5 119 14.964
29 CP5 120 12.522
29 CP5 121 10.569
29 CP5 122 10.081
29 CP5 123 10.081
29 CP5 124 11.058
29 CP5 125 12.034
29 CP5 126 11.546
29 CP5 127 10.081
29 CP5 128 8.616
29 CP5 129 7.151
29 CP5 130 6.663
29 CP5 131 7.151
29 CP5 132 9.104
29 CP5 133 11.058
29 CP5 134 12.522
29 CP5 135 12.522
29 CP5 136 12.522
29 CP5 137 12.522
29 CP5 138 13.011
29 CP5 139 13.499
29 CP5 140 13.987
29 CP5 141 14.476
29 CP5 142 15.452
29 CP5 143 15.452
29 CP5 144 15.452
29 CP5 145 13.987
29 CP5 146 13.011
29 CP5 147 12.034
29 CP5 148 11.546
29 CP5 149 11.546
29 CP5 150 12.522
29 CP5 151 13.011
29 CP5 152 13.499
29 CP5 153 14.476
29 CP5 154 15.452
29 CP5 155 15.940
29 CP5 156 16.429
29 CP5 157 15.452
29 CP5 158 14.964
29 CP5 159 14.476
29 CP5 160 14.476
29 CP5 161 14.476
29 CP5 162 14.964
29 CP5 163 14.964
29 CP5 164 14.964
29 CP5 165 14.476
29 CP5 166 14.964
29 CP5 167 15.452
29 CP5 168 15.940
29 CP5 169 15.940
29 CP5 170 15.940
29 CP5 171 16.429
29 CP5 172 17.405
29 CP5 173 18.382
29 CP5 174 18.870
29 CP5 175 18.870
29 CP5 176 18.870
29 CP5 177 18.870
29 CP5 178 19.358
29 CP5 179 18.870
29 CP5 180 18.870
29 CP5 181 17.893
29 CP5 182 17.893
29 CP5 183 19.358
29 CP5 184 22.288
29 CP5 185 25.218
29 CP5 186 26.194
29 CP5 187 25.706
29 CP5 188 23.265
29 CP5 189 20.823
29 CP5 190 19.847
29 CP5 191 20.823
29 CP5 192 22.776
29 CP5 193 24.241
29 CP5 194 25.218
29 CP5 195 24.729
29 CP5 196 23.265
29 CP5 197 22.288
29 CP5 198 21.800
29 CP5 199 22.288
29 CP5 200 22.288
29 CP5 201 21.800
29 CP5 202 20.335
29 CP5 203 17.893
29 CP5 204 15.452
29 CP5 205 13.987
29 CP5 206 13.987
29 CP5 207 16.429
29 CP5 208 19.847
29 CP5 209 23.265
29 CP5 210 25.218
29 CP5 211 25.218
29 CP5 212 23.265
29 CP5 213 20.823
29 CP5 214 19.358
29 CP5 215 18.870
29 CP5 216 20.335
29 CP5 217 21.800
29 CP5 218 22.776
29 CP5 219 22.776
29 CP5 220 22.288
29 CP5 221 22.776
29 CP5 222 23.753
29 CP5 223 25.218
29 CP5 224 26.194
29 CP5 225 26.194
29 CP5 226 24.729
29 CP5 227 22.288
29 CP5 228 20.823
29 CP5 229 20.335
29 CP5 230 21.311
29 CP5 231 22.776
29 CP5 232 24.729
29 CP5 233 25.706
29 CP5 234 25.706
29 CP5 235 24.241
29 CP5 236 22.776
29 CP5 237 20.335
29 CP5 238 18.870
29 CP5 239 18.382
29 CP5 240 18.870
29 CP5 241 19.847
29 CP5 242 20.823
29 CP5 243 21.311
29 CP5 244 21.311
29 CP5 245 20.823
29 CP5 246 20.335
29 CP5 247 20.335
29 CP5 248 21.311
29 CP5 249 22.776
29 CP5 250 24.241
29 CP5 251 26.194
29 CP5 252 27.659
29 CP5 253 29.124
29 CP5 254 29.124
29 CP5 255 29.612
# CP6 chan 19
29 CP6 0 -5.564
29 CP6 1 -5.076
29 CP6 2 -4.100
29 CP6 3 -2.635
29 CP6 4 -1.170
29 CP6 5 -0.682
29 CP6 6 0.295
29 CP6 7 1.272
29 CP6 8 3.225
29 CP6 9 3.713
29 CP6 10 3.713
29 CP6 11 1.760
29 CP6 12 -0.682
29 CP6 13 -3.123
29 CP6 14 -4.100
29 CP6 15 -2.146
29 CP6 16 1.760
29 CP6 17 6.154
29 CP6 18 9.572
29 CP6 19 10.549
29 CP6 20 9.572
29 CP6 21 8.596
29 CP6 22 8.108
29 CP6 23 8.596
29 CP6 24 9.084
29 CP6 25 9.572
29 CP6 26 8.108
29 CP6 27 6.154
29 CP6 28 4.690
29 CP6 29 4.201
29 CP6 30 4.201
29 CP6 31 5.178
29 CP6 32 6.154
29 CP6 33 7.619
29 CP6 34 9.084
29 CP6 35 11.525
29 CP6 36 12.990
29 CP6 37 13.479
29 CP6 38 12.502
29 CP6 39 11.037
29 CP6 40 10.061
29 CP6 41 9.572
29 CP6 42 10.549
29 CP6 43 10.549
29 CP6 44 10.061
29 CP6 45 8.596
29 CP6 46 7.619
29 CP6 47 7.619
29 CP6 48 9.084
29 CP6 49 11.525
29 CP6 50 13.967
29 CP6 51 15.432
29 CP6 52 15.432
29 CP6 53 14.943
29 CP6 54 13.479
29 CP6 55 12.014
29 CP6 56 10.549
29 CP6 57 9.084
29 CP6 58 8.596
29 CP6 59 9.572
29 CP6 60 11.037
29 CP6 61 12.990
29 CP6 62 13.479
29 CP6 63 12.990
29 CP6 64 11.525
29 CP6 65 10.061
29 CP6 66 9.572
29 CP6 67 10.061
29 CP6 68 11.037
29 CP6 69 11.525
29 CP6 70 11.037
29 CP6 71 10.061
29 CP6 72 8.596
29 CP6 73 8.108
29 CP6 74 7.619
29 CP6 75 7.619
29 CP6 76 8.108
29 CP6 77 9.084
29 CP6 78 10.549
29 CP6 79 12.014
29 CP6 80 12.502
29 CP6 81 12.014
29 CP6 82 11.037
29 CP6 83 11.037
29 CP6 84 11.525
29 CP6 85 12.990
29 CP6 86 14.455
29 CP6 87 15.432
29 CP6 88 15.432
29 CP6 89 14.943
29 CP6 90 14.943
29 CP6 91 14.943
29 CP6 92 14.943
29 CP6 93 14.943
29 CP6 94 14.455
29 CP6 95 13.479
29 CP6 96 12.014
29 CP6 97 10.549
29 CP6 98 10.061
29 CP6 99 10.061
29 CP6 100 11.037
29 CP6 101 12.502
29 CP6 102 13.479
29 CP6 103 13.967
29 CP6 104 13.967
29 CP6 105 13.967
29 CP6 106 13.479
29 CP6 107 13.967
29 CP6 108 13.479
29 CP6 109 12.502
29 CP6 110 11.037
29 CP6 111 10.061
29 CP6 112 9.572
29 CP6 113 9.084
29 CP6 114 9.572
29 CP6 115 10.549
29 CP6 116 12.014
29 CP6 117 13.967
29 CP6 118 15.920
29 CP6 119 16.897
29 CP6 120 17.873
29 CP6 121 17.385
29 CP6 122 15.920
29 CP6 123 14.455
29 CP6 124 13.479
29 CP6 125 12.502
29 CP6 126 12.502
29 CP6 127 13.479
29 CP6 128 13.967
29 CP6 129 14.455
29 CP6 130 13.967
29 CP6 131 12.502
29 CP6 132 11.037
29 CP6 133 9.572
29 CP6 134 10.061
29 CP6 135 11.037
29 CP6 136 12.990
29 CP6 137 14.455
29 CP6 138 14.455
29 CP6 139 13.967
29 CP6 140 12.014
29 CP6 141 10.549
29 CP6 142 9.572
29 CP6 143 8.596
29 CP6 144 7.619
29 CP6 145 6.643
29 CP6 146 6.154
29 CP6 147 5.666
29 CP6 148 5.666
29 CP6 149 6.643
29 CP6 150 7.619
29 CP6 151 9.084
29 CP6 152 11.037
29 CP6 153 12.502
29 CP6 154 13.479
29 CP6 155 13.479
29 CP6 156 12.990
29 CP6 157 11.525
29 CP6 158 10.549
29 CP6 159 10.061
29 CP6 160 10.061
29 CP6 161 11.037
29 CP6 162 12.014
29 CP6 163 12.990
29 CP6 164 12.990
29 CP6 165 12.502
29 CP6 166 12.014
29 CP6 167 12.990
29 CP6 168 14.943
29 CP6 169 16.408
29 CP6 170 17.873
29 CP6 171 17.873
29 CP6 172 17.385
29 CP6 173 17.385
29 CP6 174 18.361
29 CP6 175 19.338
29 CP6 176 20.803
29 CP6 177 20.803
29 CP6 178 21.291
29 CP6 179 21.291
29 CP6 180 21.291
29 CP6 181 21.779
29 CP6 182 21.291
29 CP6 183 21.291
29 CP6 184 21.291
29 CP6 185 22.756
29 CP6 186 24.709
29 CP6 187 27.150
29 CP6 188 28.615
29 CP6 189 28.127
29 CP6 190 25.686
29 CP6 191 22.756
29 CP6 192 19.826
29 CP6 193 17.873
29 CP6 194 16.897
29 CP6 195 16.408
29 CP6 196 15.920
29 CP6 197 15.920
29 CP6 198 15.920
29 CP6 199 16.408
29 CP6 200 16.897
29 CP6 201 16.408
29 CP6 202 15.432
29 CP6 203 14.455
29 CP6 204 13.479
29 CP6 205 12.990
29 CP6 206 12.990
29 CP6 207 12.990
29 CP6 208 14.455
29 CP6 209 16.897
29 CP6 210 19.826
29 CP6 211 22.756
29 CP6 212 23.733
29 CP6 213 22.756
29 CP6 214 20.315
29 CP6 215 17.385
29 CP6 216 15.432
29 CP6 217 15.432
29 CP6 218 16.897
29 CP6 219 18.850
29 CP6 220 19.826
29 CP6 221 19.338
29 CP6 222 17.385
29 CP6 223 15.432
29 CP6 224 13.967
29 CP6 225 14.455
29 CP6 226 16.897
29 CP6 227 19.338
29 CP6 228 21.779
29 CP6 229 21.779
29 CP6 230 20.803
29 CP6 231 18.361
29 CP6 232 16.408
29 CP6 233 15.920
29 CP6 234 16.408
29 CP6 235 17.873
29 CP6 236 19.338
29 CP6 237 20.315
29 CP6 238 20.315
29 CP6 239 20.803
29 CP6 240 20.803
29 CP6 241 21.291
29 CP6 242 21.291
29 CP6 243 21.291
29 CP6 244 20.803
29 CP6 245 19.826
29 CP6 246 19.338
29 CP6 247 18.850
29 CP6 248 19.338
29 CP6 249 20.315
29 CP6 250 21.779
29 CP6 251 22.756
29 CP6 252 23.244
29 CP6 253 23.244
29 CP6 254 22.756
29 CP6 255 22.268
# CP1 chan 20
29 CP1 0 2.675
29 CP1 1 1.211
29 CP1 2 0.722
29 CP1 3 1.211
29 CP1 4 1.699
29 CP1 5 2.675
29 CP1 6 4.140
29 CP1 7 5.117
29 CP1 8 6.093
29 CP1 9 5.605
29 CP1 10 5.117
29 CP1 11 4.140
29 CP1 12 4.140
29 CP1 13 4.628
29 CP1 14 5.117
29 CP1 15 4.628
29 CP1 16 3.652
29 CP1 17 1.211
29 CP1 18 0.234
29 CP1 19 0.234
29 CP1 20 1.699
29 CP1 21 4.140
29 CP1 22 7.558
29 CP1 23 10.000
29 CP1 24 10.976
29 CP1 25 10.976
29 CP1 26 10.976
29 CP1 27 10.488
29 CP1 28 10.976
29 CP1 29 10.488
29 CP1 30 9.511
29 CP1 31 7.070
29 CP1 32 4.628
29 CP1 33 3.164
29 CP1 34 3.164
29 CP1 35 6.093
29 CP1 36 9.511
29 CP1 37 12.441
29 CP1 38 13.418
29 CP1 39 12.929
29 CP1 40 12.441
29 CP1 41 11.464
29 CP1 42 11.464
29 CP1 43 10.488
29 CP1 44 9.023
29 CP1 45 7.558
29 CP1 46 6.093
29 CP1 47 6.582
29 CP1 48 7.070
29 CP1 49 9.023
29 CP1 50 10.488
29 CP1 51 10.976
29 CP1 52 11.464
29 CP1 53 10.976
29 CP1 54 10.976
29 CP1 55 10.976
29 CP1 56 10.976
29 CP1 57 11.464
29 CP1 58 12.929
29 CP1 59 14.394
29 CP1 60 15.859
29 CP1 61 16.836
29 CP1 62 16.347
29 CP1 63 15.371
29 CP1 64 13.418
29 CP1 65 11.464
29 CP1 66 10.000
29 CP1 67 10.488
29 CP1 68 11.953
29 CP1 69 14.394
29 CP1 70 16.836
29 CP1 71 17.324
29 CP1 72 16.347
29 CP1 73 15.371
29 CP1 74 13.906
29 CP1 75 13.906
29 CP1 76 14.394
29 CP1 77 15.371
29 CP1 78 16.347
29 CP1 79 16.347
29 CP1 80 16.347
29 CP1 81 16.836
29 CP1 82 17.324
29 CP1 83 17.324
29 CP1 84 16.836
29 CP1 85 15.859
29 CP1 86 14.394
29 CP1 87 13.418
29 CP1 88 13.418
29 CP1 89 13.418
29 CP1 90 13.906
29 CP1 91 13.906
29 CP1 92 14.882
29 CP1 93 15.859
29 CP1 94 17.324
29 CP1 95 18.789
29 CP1 96 20.253
29 CP1 97 19.765
29 CP1 98 19.277
29 CP1 99 17.812
29 CP1 100 16.836
29 CP1 101 15.859
29 CP1 102 15.859
29 CP1 103 15.859
29 CP1 104 16.347
29 CP1 105 17.812
29 CP1 106 19.765
29 CP1 107 22.207
29 CP1 108 23.671
29 CP1 109 24.160
29 CP1 110 23.183
29 CP1 111 21.718
29 CP1 112 20.253
29 CP1 113 19.277
29 CP1 114 19.277
29 CP1 115 20.253
29 CP1 116 20.742
29 CP1 117 20.742
29 CP1 118 20.253
29 CP1 119 19.277
29 CP1 120 18.300
29 CP1 121 17.812
29 CP1 122 17.812
29 CP1 123 18.789
29 CP1 124 19.765
29 CP1 125 20.742
29 CP1 126 20.742
29 CP1 127 20.253
29 CP1 128 18.789
29 CP1 129 17.324
29 CP1 130 16.347
29 CP1 131 15.859
29 CP1 132 15.859
29 CP1 133 16.347
29 CP1 134 16.836
29 CP1 135 17.812
29 CP1 136 18.789
29 CP1 137 19.765
29 CP1 138 19.765
29 CP1 139 19.765
29 CP1 140 19.765
29 CP1 141 19.765
29 CP1 142 19.765
29 CP1 143 19.277
29 CP1 144 18.789
29 CP1 145 17.812
29 CP1 146 16.836
29 CP1 147 16.836
29 CP1 148 17.324
29 CP1 149 18.789
29 CP1 150 20.253
29 CP1 151 20.742
29 CP1 152 21.718
29 CP1 153 22.207
29 CP1 154 22.695
29 CP1 155 22.695
29 CP1 156 22.695
29 CP1 157 21.230
29 CP1 158 19.765
29 CP1 159 18.789
29 CP1 160 19.277
29 CP1 161 19.765
29 CP1 162 20.253
29 CP1 163 19.765
29 CP1 164 19.277
29 CP1 165 18.789
29 CP1 166 18.789
29 CP1 167 18.789
29 CP1 168 18.789
29 CP1 169 18.300
29 CP1 170 17.812
29 CP1 171 17.812
29 CP1 172 18.789
29 CP1 173 20.253
29 CP1 174 21.718
29 CP1 175 21.230
29 CP1 176 20.742
29 CP1 177 19.765
29 CP1 178 19.765
29 CP1 179 20.253
29 CP1 180 19.765
29 CP1 181 18.789
29 CP1 182 17.324
29 CP1 183 16.836
29 CP1 184 17.812
29 CP1 185 20.742
29 CP1 186 23.671
29 CP1 187 25.625
29 CP1 188 25.625
29 CP1 189 23.183
29 CP1 190 20.742
29 CP1 191 18.789
29 CP1 192 18.300
29 CP1 193 18.789
29 CP1 194 20.742
29 CP1 195 22.207
29 CP1 196 22.695
29 CP1 197 22.695
29 CP1 198 21.718
29 CP1 199 20.742
29 CP1 200 20.253
29 CP1 201 19.765
29 CP1 202 19.277
29 CP1 203 18.300
29 CP1 204 16.836
29 CP1 205 15.859
29 CP1 206 15.371
29 CP1 207 16.347
29 CP1 208 18.300
29 CP1 209 20.742
29 CP1 210 22.695
29 CP1 211 23.183
29 CP1 212 22.695
29 CP1 213 21.230
29 CP1 214 19.765
29 CP1 215 18.789
29 CP1 216 18.789
29 CP1 217 18.789
29 CP1 218 19.277
29 CP1 219 19.765
29 CP1 220 21.230
29 CP1 221 22.695
29 CP1 222 24.160
29 CP1 223 24.648
29 CP1 224 23.671
29 CP1 225 22.207
29 CP1 226 20.253
29 CP1 227 18.789
29 CP1 228 18.789
29 CP1 229 19.765
29 CP1 230 20.742
29 CP1 231 21.718
29 CP1 232 22.207
29 CP1 233 23.183
29 CP1 234 23.671
29 CP1 235 23.671
29 CP1 236 22.695
29 CP1 237 21.230
29 CP1 238 19.765
29 CP1 239 18.789
29 CP1 240 18.789
29 CP1 241 19.765
29 CP1 242 19.765
29 CP1 243 19.765
29 CP1 244 19.277
29 CP1 245 19.277
29 CP1 246 20.253
29 CP1 247 20.742
29 CP1 248 21.230
29 CP1 249 21.718
29 CP1 250 22.207
29 CP1 251 23.183
29 CP1 252 23.671
29 CP1 253 24.160
29 CP1 254 24.160
29 CP1 255 23.671
# CP2 chan 21
29 CP2 0 1.831
29 CP2 1 -0.610
29 CP2 2 -3.052
29 CP2 3 -4.517
29 CP2 4 -5.005
29 CP2 5 -4.517
29 CP2 6 -2.075
29 CP2 7 0.366
29 CP2 8 3.296
29 CP2 9 4.761
29 CP2 10 4.761
29 CP2 11 3.784
29 CP2 12 2.319
29 CP2 13 0.854
29 CP2 14 0.366
29 CP2 15 1.343
29 CP2 16 2.319
29 CP2 17 3.296
29 CP2 18 2.808
29 CP2 19 1.831
29 CP2 20 0.366
29 CP2 21 0.366
29 CP2 22 1.343
29 CP2 23 4.272
29 CP2 24 7.202
29 CP2 25 8.667
29 CP2 26 8.179
29 CP2 27 7.202
29 CP2 28 6.226
29 CP2 29 5.737
29 CP2 30 5.737
29 CP2 31 5.249
29 CP2 32 4.272
29 CP2 33 3.296
29 CP2 34 2.808
29 CP2 35 3.784
29 CP2 36 4.272
29 CP2 37 4.272
29 CP2 38 3.296
29 CP2 39 2.319
29 CP2 40 2.319
29 CP2 41 3.784
29 CP2 42 5.249
29 CP2 43 6.226
29 CP2 44 5.737
29 CP2 45 4.272
29 CP2 46 2.319
29 CP2 47 1.831
29 CP2 48 1.831
29 CP2 49 2.319
29 CP2 50 2.808
29 CP2 51 2.808
29 CP2 52 2.808
29 CP2 53 3.784
29 CP2 54 4.761
29 CP2 55 5.737
29 CP2 56 5.737
29 CP2 57 6.226
29 CP2 58 7.202
29 CP2 59 8.667
29 CP2 60 10.620
29 CP2 61 12.573
29 CP2 62 12.573
29 CP2 63 11.108
29 CP2 64 8.667
29 CP2 65 6.226
29 CP2 66 4.761
29 CP2 67 4.272
29 CP2 68 4.272
29 CP2 69 4.761
29 CP2 70 5.249
29 CP2 71 5.249
29 CP2 72 4.761
29 CP2 73 4.761
29 CP2 74 5.249
29 CP2 75 5.737
29 CP2 76 6.714
29 CP2 77 8.179
29 CP2 78 10.132
29 CP2 79 11.108
29 CP2 80 10.620
29 CP2 81 10.132
29 CP2 82 8.667
29 CP2 83 7.690
29 CP2 84 7.202
29 CP2 85 7.202
29 CP2 86 8.179
29 CP2 87 8.179
29 CP2 88 8.667
29 CP2 89 8.179
29 CP2 90 7.690
29 CP2 91 7.202
29 CP2 92 6.714
29 CP2 93 6.714
29 CP2 94 6.714
29 CP2 95 6.714
29 CP2 96 6.714
29 CP2 97 5.737
29 CP2 98 5.249
29 CP2 99 4.761
29 CP2 100 4.761
29 CP2 101 5.249
29 CP2 102 5.737
29 CP2 103 6.714
29 CP2 104 7.690
29 CP2 105 8.667
29 CP2 106 10.132
29 CP2 107 12.085
29 CP2 108 13.062
29 CP2 109 13.062
29 CP2 110 12.085
29 CP2 111 10.620
29 CP2 112 10.132
29 CP2 113 9.644
29 CP2 114 9.155
29 CP2 115 9.644
29 CP2 116 9.644
29 CP2 117 10.620
29 CP2 118 11.597
29 CP2 119 12.573
29 CP2 120 12.573
29 CP2 121 12.085
29 CP2 122 11.108
29 CP2 123 10.620
29 CP2 124 10.132
29 CP2 125 10.620
29 CP2 126 11.597
29 CP2 127 12.573
29 CP2 128 13.062
29 CP2 129 13.550
29 CP2 130 13.550
29 CP2 131 12.573
29 CP2 132 10.620
29 CP2 133 9.155
29 CP2 134 7.690
29 CP2 135 7.690
29 CP2 136 8.667
29 CP2 137 9.644
29 CP2 138 10.620
29 CP2 139 11.597
29 CP2 140 11.597
29 CP2 141 12.085
29 CP2 142 12.085
29 CP2 143 11.597
29 CP2 144 10.620
29 CP2 145 9.155
29 CP2 146 7.202
29 CP2 147 5.737
29 CP2 148 4.761
29 CP2 149 5.249
29 CP2 150 6.714
29 CP2 151 8.667
29 CP2 152 11.108
29 CP2 153 13.062
29 CP2 154 14.526
29 CP2 155 15.015
29 CP2 156 15.015
29 CP2 157 13.550
29 CP2 158 11.597
29 CP2 159 9.644
29 CP2 160 9.155
29 CP2 161 9.644
29 CP2 162 11.108
29 CP2 163 12.573
29 CP2 164 13.062
29 CP2 165 13.550
29 CP2 166 14.038
29 CP2 167 14.526
29 CP2 168 15.015
29 CP2 169 15.015
29 CP2 170 14.526
29 CP2 171 13.550
29 CP2 172 14.038
29 CP2 173 14.526
29 CP2 174 15.503
29 CP2 175 16.479
29 CP2 176 16.479
29 CP2 177 15.503
29 CP2 178 15.015
29 CP2 179 15.015
29 CP2 180 15.015
29 CP2 181 14.526
29 CP2 182 12.573
29 CP2 183 10.620
29 CP2 184 9.644
29 CP2 185 11.108
29 CP2 186 15.015
29 CP2 187 19.409
29 CP2 188 21.851
29 CP2 189 21.851
29 CP2 190 18.433
29 CP2 191 14.038
29 CP2 192 10.620
29 CP2 193 10.132
29 CP2 194 10.620
29 CP2 195 12.085
29 CP2 196 12.573
29 CP2 197 12.573
29 CP2 198 11.597
29 CP2 199 11.108
29 CP2 200 10.620
29 CP2 201 10.132
29 CP2 202 9.644
29 CP2 203 9.644
29 CP2 204 9.155
29 CP2 205 9.155
29 CP2 206 8.667
29 CP2 207 8.667
29 CP2 208 8.667
29 CP2 209 10.132
29 CP2 210 12.573
29 CP2 211 15.015
29 CP2 212 16.968
29 CP2 213 16.968
29 CP2 214 15.991
29 CP2 215 13.550
29 CP2 216 12.573
29 CP2 217 11.597
29 CP2 218 12.085
29 CP2 219 12.573
29 CP2 220 13.550
29 CP2 221 14.526
29 CP2 222 15.015
29 CP2 223 15.015
29 CP2 224 15.015
29 CP2 225 14.526
29 CP2 226 14.038
29 CP2 227 14.038
29 CP2 228 14.526
29 CP2 229 14.526
29 CP2 230 14.038
29 CP2 231 13.062
29 CP2 232 12.573
29 CP2 233 13.550
29 CP2 234 15.015
29 CP2 235 16.479
29 CP2 236 17.456
29 CP2 237 17.456
29 CP2 238 16.479
29 CP2 239 15.503
29 CP2 240 14.526
29 CP2 241 13.550
29 CP2 242 13.062
29 CP2 243 12.573
29 CP2 244 12.573
29 CP2 245 13.062
29 CP2 246 14.038
29 CP2 247 15.991
29 CP2 248 17.456
29 CP2 249 18.433
29 CP2 250 18.921
29 CP2 251 19.409
29 CP2 252 18.433
29 CP2 253 17.456
29 CP2 254 15.991
29 CP2 255 15.015
# P3 chan 22
29 P3 0 0.722
29 P3 1 -0.254
29 P3 2 -0.254
29 P3 3 0.234
29 P3 4 1.211
29 P3 5 2.675
29 P3 6 3.652
29 P3 7 4.140
29 P3 8 3.652
29 P3 9 1.699
29 P3 10 -0.254
29 P3 11 -0.743
29 P3 12 -0.254
29 P3 13 1.211
29 P3 14 2.675
29 P3 15 3.164
29 P3 16 3.164
29 P3 17 2.675
29 P3 18 3.164
29 P3 19 5.117
29 P3 20 8.535
29 P3 21 11.953
29 P3 22 14.394
29 P3 23 14.882
29 P3 24 13.418
29 P3 25 11.464
29 P3 26 10.488
29 P3 27 11.464
29 P3 28 12.929
29 P3 29 14.394
29 P3 30 13.418
29 P3 31 10.976
29 P3 32 7.558
29 P3 33 5.117
29 P3 34 4.628
29 P3 35 5.605
29 P3 36 8.535
29 P3 37 11.464
29 P3 38 14.394
29 P3 39 16.836
29 P3 40 19.277
29 P3 41 21.230
29 P3 42 21.718
29 P3 43 20.742
29 P3 44 18.789
29 P3 45 16.836
29 P3 46 15.371
29 P3 47 15.371
29 P3 48 15.859
29 P3 49 16.836
29 P3 50 17.324
29 P3 51 17.324
29 P3 52 16.836
29 P3 53 15.859
29 P3 54 15.371
29 P3 55 14.394
29 P3 56 14.394
29 P3 57 14.882
29 P3 58 15.859
29 P3 59 17.812
29 P3 60 20.253
29 P3 61 22.207
29 P3 62 23.671
29 P3 63 24.160
29 P3 64 23.183
29 P3 65 21.230
29 P3 66 19.277
29 P3 67 18.300
29 P3 68 19.277
29 P3 69 21.718
29 P3 70 24.160
29 P3 71 25.136
29 P3 72 24.160
29 P3 73 23.183
29 P3 74 22.207
29 P3 75 22.207
29 P3 76 23.183
29 P3 77 24.160
29 P3 78 24.160
29 P3 79 23.671
29 P3 80 22.207
29 P3 81 21.230
29 P3 82 20.253
29 P3 83 19.765
29 P3 84 18.300
29 P3 85 16.836
29 P3 86 15.859
29 P3 87 15.371
29 P3 88 15.859
29 P3 89 16.836
29 P3 90 17.812
29 P3 91 17.812
29 P3 92 17.812
29 P3 93 17.812
29 P3 94 18.300
29 P3 95 19.765
29 P3 96 20.742
29 P3 97 20.742
29 P3 98 20.742
29 P3 99 20.253
29 P3 100 19.765
29 P3 101 19.277
29 P3 102 19.765
29 P3 103 20.253
29 P3 104 20.253
29 P3 105 21.230
29 P3 106 21.718
29 P3 107 23.183
29 P3 108 24.160
29 P3 109 24.648
29 P3 110 23.183
29 P3 111 20.742
29 P3 112 18.789
29 P3 113 17.812
29 P3 114 18.789
29 P3 115 21.230
29 P3 116 23.671
29 P3 117 25.136
29 P3 118 24.648
29 P3 119 22.695
29 P3 120 20.253
29 P3 121 18.300
29 P3 122 17.324
29 P3 123 17.324
29 P3 124 17.324
29 P3 125 17.324
29 P3 126 16.836
29 P3 127 15.859
29 P3 128 14.882
29 P3 129 14.882
29 P3 130 14.882
29 P3 131 15.859
29 P3 132 16.836
29 P3 133 17.324
29 P3 134 18.300
29 P3 135 19.277
29 P3 136 19.765
29 P3 137 20.742
29 P3 138 20.742
29 P3 139 20.742
29 P3 140 19.765
29 P3 141 19.277
29 P3 142 18.300
29 P3 143 17.324
29 P3 144 16.347
29 P3 145 14.882
29 P3 146 13.906
29 P3 147 13.906
29 P3 148 14.882
29 P3 149 16.347
29 P3 150 18.789
29 P3 151 20.253
29 P3 152 21.230
29 P3 153 22.207
29 P3 154 22.695
29 P3 155 22.695
29 P3 156 21.718
29 P3 157 20.253
29 P3 158 18.789
29 P3 159 18.789
29 P3 160 19.277
29 P3 161 20.253
29 P3 162 20.253
29 P3 163 19.765
29 P3 164 19.277
29 P3 165 20.253
29 P3 166 21.718
29 P3 167 22.695
29 P3 168 22.695
29 P3 169 21.230
29 P3 170 20.253
29 P3 171 19.765
29 P3 172 22.207
29 P3 173 25.136
29 P3 174 27.089
29 P3 175 27.578
29 P3 176 26.601
29 P3 177 25.625
29 P3 178 25.136
29 P3 179 25.136
29 P3 180 24.648
29 P3 181 24.160
29 P3 182 23.671
29 P3 183 25.136
29 P3 184 28.066
29 P3 185 32.461
29 P3 186 34.414
29 P3 187 34.902
29 P3 188 32.949
29 P3 189 30.019
29 P3 190 27.578
29 P3 191 26.601
29 P3 192 26.601
29 P3 193 26.601
29 P3 194 26.601
29 P3 195 26.601
29 P3 196 26.601
29 P3 197 26.601
29 P3 198 27.578
29 P3 199 28.554
29 P3 200 28.554
29 P3 201 27.578
29 P3 202 24.648
29 P3 203 20.742
29 P3 204 17.812
29 P3 205 16.836
29 P3 206 18.789
29 P3 207 22.207
29 P3 208 26.113
29 P3 209 29.043
29 P3 210 30.019
29 P3 211 29.043
29 P3 212 26.601
29 P3 213 24.160
29 P3 214 23.183
29 P3 215 22.695
29 P3 216 23.671
29 P3 217 24.648
29 P3 218 25.625
29 P3 219 27.089
29 P3 220 28.554
29 P3 221 30.507
29 P3 222 32.461
29 P3 223 33.437
29 P3 224 32.461
29 P3 225 30.507
29 P3 226 28.554
29 P3 227 26.601
29 P3 228 26.601
29 P3 229 27.089
29 P3 230 29.043
29 P3 231 31.484
29 P3 232 33.437
29 P3 233 35.390
29 P3 234 36.367
29 P3 235 34.414
29 P3 236 31.484
29 P3 237 28.066
29 P3 238 26.113
29 P3 239 25.625
29 P3 240 27.089
29 P3 241 28.554
29 P3 242 29.531
29 P3 243 29.531
29 P3 244 29.043
29 P3 245 29.043
29 P3 246 29.043
29 P3 247 30.019
29 P3 248 30.996
29 P3 249 32.461
29 P3 250 32.949
29 P3 251 33.925
29 P3 252 34.414
29 P3 253 34.902
29 P3 254 34.902
29 P3 255 34.902
# P4 chan 23
29 P4 0 -2.248
29 P4 1 -3.225
29 P4 2 -3.713
29 P4 3 -4.201
29 P4 4 -4.690
29 P4 5 -4.201
29 P4 6 -2.248
29 P4 7 -0.295
29 P4 8 1.658
29 P4 9 2.635
29 P4 10 1.658
29 P4 11 -0.295
29 P4 12 -2.736
29 P4 13 -3.713
29 P4 14 -3.713
29 P4 15 -1.272
29 P4 16 2.635
29 P4 17 6.053
29 P4 18 8.006
29 P4 19 7.517
29 P4 20 6.541
29 P4 21 6.053
29 P4 22 6.541
29 P4 23 8.006
29 P4 24 8.982
29 P4 25 8.494
29 P4 26 6.541
29 P4 27 3.611
29 P4 28 2.635
29 P4 29 3.611
29 P4 30 5.076
29 P4 31 6.541
29 P4 32 7.517
29 P4 33 8.006
29 P4 34 9.959
29 P4 35 11.912
29 P4 36 13.377
29 P4 37 13.865
29 P4 38 12.400
29 P4 39 11.424
29 P4 40 10.935
29 P4 41 11.424
29 P4 42 12.400
29 P4 43 11.912
29 P4 44 10.935
29 P4 45 9.471
29 P4 46 8.006
29 P4 47 8.494
29 P4 48 9.959
29 P4 49 11.912
29 P4 50 12.889
29 P4 51 13.377
29 P4 52 13.377
29 P4 53 12.400
29 P4 54 12.400
29 P4 55 10.935
29 P4 56 9.959
29 P4 57 8.494
29 P4 58 8.494
29 P4 59 11.424
29 P4 60 15.330
29 P4 61 19.725
29 P4 62 22.654
29 P4 63 23.631
29 P4 64 22.654
29 P4 65 21.189
29 P4 66 20.213
29 P4 67 19.725
29 P4 68 19.725
29 P4 69 19.725
29 P4 70 19.236
29 P4 71 17.771
29 P4 72 16.307
29 P4 73 14.353
29 P4 74 13.377
29 P4 75 13.377
29 P4 76 14.353
29 P4 77 16.307
29 P4 78 18.748
29 P4 79 20.213
29 P4 80 20.701
29 P4 81 20.701
29 P4 82 20.213
29 P4 83 19.725
29 P4 84 20.213
29 P4 85 21.189
29 P4 86 21.678
29 P4 87 21.678
29 P4 88 21.189
29 P4 89 20.701
29 P4 90 19.236
29 P4 91 18.748
29 P4 92 18.260
29 P4 93 18.260
29 P4 94 17.771
29 P4 95 17.283
29 P4 96 16.307
29 P4 97 15.330
29 P4 98 15.330
29 P4 99 15.330
29 P4 100 16.307
29 P4 101 17.283
29 P4 102 17.771
29 P4 103 18.748
29 P4 104 19.236
29 P4 105 19.725
29 P4 106 20.701
29 P4 107 21.189
29 P4 108 21.189
29 P4 109 21.678
29 P4 110 21.678
29 P4 111 21.189
29 P4 112 20.213
29 P4 113 19.236
29 P4 114 18.260
29 P4 115 18.260
29 P4 116 20.213
29 P4 117 23.142
29 P4 118 25.584
29 P4 119 26.560
29 P4 120 25.584
29 P4 121 24.119
29 P4 122 22.654
29 P4 123 22.166
29 P4 124 21.678
29 P4 125 21.678
29 P4 126 21.678
29 P4 127 22.166
29 P4 128 22.654
29 P4 129 23.142
29 P4 130 22.654
29 P4 131 21.678
29 P4 132 20.213
29 P4 133 19.236
29 P4 134 19.236
29 P4 135 19.725
29 P4 136 20.701
29 P4 137 20.701
29 P4 138 19.725
29 P4 139 19.236
29 P4 140 18.260
29 P4 141 18.260
29 P4 142 18.748
29 P4 143 18.260
29 P4 144 17.771
29 P4 145 15.330
29 P4 146 13.865
29 P4 147 13.377
29 P4 148 13.865
29 P4 149 15.818
29 P4 150 17.771
29 P4 151 19.725
29 P4 152 21.189
29 P4 153 22.166
29 P4 154 23.142
29 P4 155 24.119
29 P4 156 24.119
29 P4 157 23.142
29 P4 158 21.678
29 P4 159 20.701
29 P4 160 20.701
29 P4 161 21.678
29 P4 162 22.654
29 P4 163 23.142
29 P4 164 22.654
29 P4 165 22.166
29 P4 166 22.654
29 P4 167 23.631
29 P4 168 25.096
29 P4 169 25.096
29 P4 170 24.119
29 P4 171 23.142
29 P4 172 23.631
29 P4 173 25.584
29 P4 174 28.025
29 P4 175 29.490
29 P4 176 29.490
29 P4 177 28.514
29 P4 178 27.537
29 P4 179 26.560
29 P4 180 26.072
29 P4 181 25.584
29 P4 182 24.607
29 P4 183 24.119
29 P4 184 26.072
29 P4 185 29.490
29 P4 186 33.885
29 P4 187 37.791
29 P4 188 38.767
29 P4 189 36.814
29 P4 190 32.908
29 P4 191 28.514
29 P4 192 25.096
29 P4 193 22.654
29 P4 194 21.678
29 P4 195 21.678
29 P4 196 22.166
29 P4 197 22.654
29 P4 198 23.631
29 P4 199 24.607
29 P4 200 25.096
29 P4 201 24.119
29 P4 202 22.654
29 P4 203 20.701
29 P4 204 19.725
29 P4 205 19.236
29 P4 206 19.725
29 P4 207 21.678
29 P4 208 24.119
29 P4 209 27.049
29 P4 210 29.490
29 P4 211 30.955
29 P4 212 31.443
29 P4 213 30.467
29 P4 214 29.002
29 P4 215 28.025
29 P4 216 27.049
29 P4 217 27.537
29 P4 218 28.025
29 P4 219 28.514
29 P4 220 29.002
29 P4 221 29.490
29 P4 222 29.490
29 P4 223 29.002
29 P4 224 29.002
29 P4 225 29.490
29 P4 226 30.955
29 P4 227 32.420
29 P4 228 32.420
29 P4 229 31.932
29 P4 230 30.467
29 P4 231 29.002
29 P4 232 28.025
29 P4 233 28.514
29 P4 234 29.490
29 P4 235 30.955
29 P4 236 31.443
29 P4 237 32.420
29 P4 238 32.908
29 P4 239 32.908
29 P4 240 32.420
29 P4 241 31.443
29 P4 242 29.490
29 P4 243 28.025
29 P4 244 26.072
29 P4 245 25.096
29 P4 246 25.096
29 P4 247 26.072
29 P4 248 28.025
29 P4 249 30.467
29 P4 250 33.396
29 P4 251 35.350
29 P4 252 35.350
29 P4 253 33.885
29 P4 254 31.932
29 P4 255 30.467
# PZ chan 24
29 PZ 0 -0.651
29 PZ 1 -2.604
29 PZ 2 -3.581
29 PZ 3 -3.581
29 PZ 4 -2.604
29 PZ 5 -1.628
29 PZ 6 0.326
29 PZ 7 2.279
29 PZ 8 4.720
29 PZ 9 5.208
29 PZ 10 4.232
29 PZ 11 2.279
29 PZ 12 -0.163
29 PZ 13 -2.116
29 PZ 14 -3.092
29 PZ 15 -2.604
29 PZ 16 -2.116
29 PZ 17 -0.651
29 PZ 18 0.326
29 PZ 19 1.790
29 PZ 20 3.743
29 PZ 21 6.185
29 PZ 22 8.138
29 PZ 23 9.115
29 PZ 24 9.115
29 PZ 25 7.650
29 PZ 26 6.185
29 PZ 27 5.208
29 PZ 28 4.720
29 PZ 29 5.697
29 PZ 30 6.185
29 PZ 31 6.185
29 PZ 32 6.185
29 PZ 33 5.697
29 PZ 34 5.697
29 PZ 35 7.161
29 PZ 36 8.138
29 PZ 37 9.603
29 PZ 38 10.091
29 PZ 39 11.068
29 PZ 40 12.044
29 PZ 41 13.021
29 PZ 42 13.997
29 PZ 43 13.509
29 PZ 44 12.044
29 PZ 45 9.603
29 PZ 46 7.161
29 PZ 47 6.185
29 PZ 48 6.673
29 PZ 49 7.161
29 PZ 50 8.138
29 PZ 51 8.138
29 PZ 52 7.650
29 PZ 53 7.650
29 PZ 54 7.650
29 PZ 55 7.650
29 PZ 56 7.650
29 PZ 57 7.161
29 PZ 58 8.138
29 PZ 59 9.603
29 PZ 60 13.021
29 PZ 61 15.951
29 PZ 62 18.392
29 PZ 63 18.392
29 PZ 64 17.415
29 PZ 65 15.462
29 PZ 66 13.997
29 PZ 67 13.509
29 PZ 68 13.997
29 PZ 69 14.486
29 PZ 70 14.974
29 PZ 71 14.486
29 PZ 72 13.509
29 PZ 73 12.044
29 PZ 74 11.068
29 PZ 75 11.068
29 PZ 76 12.044
29 PZ 77 13.021
29 PZ 78 14.974
29 PZ 79 16.439
29 PZ 80 16.927
29 PZ 81 16.927
29 PZ 82 16.439
29 PZ 83 15.951
29 PZ 84 15.462
29 PZ 85 14.486
29 PZ 86 13.997
29 PZ 87 13.997
29 PZ 88 13.997
29 PZ 89 14.486
29 PZ 90 14.486
29 PZ 91 14.486
29 PZ 92 13.509
29 PZ 93 13.997
29 PZ 94 13.509
29 PZ 95 13.997
29 PZ 96 14.486
29 PZ 97 13.997
29 PZ 98 13.021
29 PZ 99 11.556
29 PZ 100 11.068
29 PZ 101 10.579
29 PZ 102 11.068
29 PZ 103 12.533
29 PZ 104 13.997
29 PZ 105 15.951
29 PZ 106 17.904
29 PZ 107 19.857
29 PZ 108 21.322
29 PZ 109 22.298
29 PZ 110 21.810
29 PZ 111 20.345
29 PZ 112 18.880
29 PZ 113 17.415
29 PZ 114 16.439
29 PZ 115 16.927
29 PZ 116 18.392
29 PZ 117 19.857
29 PZ 118 20.833
29 PZ 119 20.833
29 PZ 120 20.345
29 PZ 121 19.368
29 PZ 122 18.880
29 PZ 123 18.392
29 PZ 124 18.392
29 PZ 125 18.880
29 PZ 126 18.880
29 PZ 127 18.392
29 PZ 128 17.904
29 PZ 129 17.415
29 PZ 130 16.927
29 PZ 131 16.439
29 PZ 132 15.951
29 PZ 133 15.462
29 PZ 134 14.974
29 PZ 135 14.974
29 PZ 136 15.462
29 PZ 137 15.951
29 PZ 138 16.439
29 PZ 139 16.439
29 PZ 140 15.951
29 PZ 141 15.462
29 PZ 142 15.462
29 PZ 143 15.462
29 PZ 144 14.974
29 PZ 145 13.509
29 PZ 146 12.044
29 PZ 147 11.556
29 PZ 148 12.044
29 PZ 149 13.997
29 PZ 150 16.439
29 PZ 151 18.880
29 PZ 152 19.857
29 PZ 153 20.345
29 PZ 154 20.345
29 PZ 155 20.345
29 PZ 156 19.857
29 PZ 157 19.368
29 PZ 158 18.880
29 PZ 159 17.904
29 PZ 160 17.904
29 PZ 161 18.392
29 PZ 162 18.392
29 PZ 163 17.904
29 PZ 164 17.415
29 PZ 165 17.415
29 PZ 166 17.415
29 PZ 167 18.880
29 PZ 168 19.368
29 PZ 169 18.880
29 PZ 170 17.415
29 PZ 171 16.927
29 PZ 172 16.927
29 PZ 173 18.392
29 PZ 174 20.345
29 PZ 175 21.810
29 PZ 176 22.298
29 PZ 177 21.810
29 PZ 178 21.322
29 PZ 179 20.833
29 PZ 180 20.345
29 PZ 181 19.857
29 PZ 182 19.368
29 PZ 183 18.880
29 PZ 184 19.857
29 PZ 185 22.298
29 PZ 186 25.228
29 PZ 187 27.669
29 PZ 188 28.646
29 PZ 189 27.181
29 PZ 190 24.740
29 PZ 191 21.322
29 PZ 192 18.880
29 PZ 193 17.415
29 PZ 194 16.927
29 PZ 195 17.904
29 PZ 196 18.392
29 PZ 197 19.368
29 PZ 198 19.368
29 PZ 199 19.368
29 PZ 200 19.368
29 PZ 201 18.880
29 PZ 202 17.415
29 PZ 203 15.462
29 PZ 204 13.509
29 PZ 205 12.533
29 PZ 206 12.533
29 PZ 207 13.997
29 PZ 208 16.439
29 PZ 209 19.857
29 PZ 210 21.810
29 PZ 211 23.275
29 PZ 212 23.275
29 PZ 213 22.786
29 PZ 214 22.298
29 PZ 215 22.298
29 PZ 216 21.810
29 PZ 217 21.810
29 PZ 218 21.810
29 PZ 219 21.810
29 PZ 220 22.298
29 PZ 221 23.275
29 PZ 222 24.740
29 PZ 223 25.228
29 PZ 224 25.228
29 PZ 225 24.740
29 PZ 226 24.251
29 PZ 227 23.275
29 PZ 228 22.786
29 PZ 229 22.298
29 PZ 230 22.786
29 PZ 231 23.275
29 PZ 232 24.740
29 PZ 233 26.693
29 PZ 234 28.158
29 PZ 235 28.646
29 PZ 236 28.158
29 PZ 237 26.693
29 PZ 238 25.716
29 PZ 239 25.228
29 PZ 240 25.716
29 PZ 241 26.204
29 PZ 242 26.204
29 PZ 243 24.740
29 PZ 244 23.275
29 PZ 245 22.786
29 PZ 246 22.786
29 PZ 247 23.763
29 PZ 248 25.716
29 PZ 249 27.181
29 PZ 250 28.646
29 PZ 251 29.622
29 PZ 252 29.622
29 PZ 253 29.134
29 PZ 254 28.646
29 PZ 255 27.669
# P8 chan 25
29 P8 0 -5.870
29 P8 1 -5.381
29 P8 2 -2.940
29 P8 3 -0.498
29 P8 4 0.966
29 P8 5 1.455
29 P8 6 1.943
29 P8 7 1.943
29 P8 8 2.431
29 P8 9 1.943
29 P8 10 -0.010
29 P8 11 -2.940
29 P8 12 -6.358
29 P8 13 -8.311
29 P8 14 -6.846
29 P8 15 -2.940
29 P8 16 2.920
29 P8 17 8.779
29 P8 18 12.197
29 P8 19 13.662
29 P8 20 13.173
29 P8 21 12.685
29 P8 22 12.197
29 P8 23 12.197
29 P8 24 11.220
29 P8 25 8.779
29 P8 26 5.849
29 P8 27 3.896
29 P8 28 3.896
29 P8 29 6.337
29 P8 30 8.779
29 P8 31 10.244
29 P8 32 9.755
29 P8 33 8.779
29 P8 34 8.779
29 P8 35 10.244
29 P8 36 12.685
29 P8 37 14.150
29 P8 38 14.638
29 P8 39 14.150
29 P8 40 14.638
29 P8 41 16.103
29 P8 42 17.080
29 P8 43 17.568
29 P8 44 15.615
29 P8 45 12.197
29 P8 46 8.779
29 P8 47 7.802
29 P8 48 9.267
29 P8 49 12.197
29 P8 50 15.615
29 P8 51 17.568
29 P8 52 17.568
29 P8 53 17.080
29 P8 54 16.103
29 P8 55 15.127
29 P8 56 13.173
29 P8 57 10.732
29 P8 58 8.779
29 P8 59 8.291
29 P8 60 9.267
29 P8 61 11.220
29 P8 62 14.150
29 P8 63 16.103
29 P8 64 16.591
29 P8 65 17.080
29 P8 66 17.080
29 P8 67 17.568
29 P8 68 17.568
29 P8 69 16.591
29 P8 70 15.127
29 P8 71 14.638
29 P8 72 14.150
29 P8 73 15.615
29 P8 74 17.080
29 P8 75 17.568
29 P8 76 17.568
29 P8 77 16.591
29 P8 78 16.103
29 P8 79 15.127
29 P8 80 14.150
29 P8 81 13.173
29 P8 82 12.197
29 P8 83 12.197
29 P8 84 13.173
29 P8 85 14.638
29 P8 86 16.591
29 P8 87 17.568
29 P8 88 17.080
29 P8 89 15.615
29 P8 90 14.150
29 P8 91 12.685
29 P8 92 12.197
29 P8 93 12.197
29 P8 94 13.173
29 P8 95 13.173
29 P8 96 12.685
29 P8 97 11.709
29 P8 98 11.220
29 P8 99 12.197
29 P8 100 13.662
29 P8 101 14.638
29 P8 102 15.615
29 P8 103 15.127
29 P8 104 14.150
29 P8 105 12.685
29 P8 106 11.709
29 P8 107 11.220
29 P8 108 10.244
29 P8 109 9.755
29 P8 110 8.779
29 P8 111 8.291
29 P8 112 7.802
29 P8 113 6.826
29 P8 114 5.849
29 P8 115 5.849
29 P8 116 6.826
29 P8 117 9.267
29 P8 118 12.685
29 P8 119 15.615
29 P8 120 16.103
29 P8 121 14.150
29 P8 122 11.220
29 P8 123 8.779
29 P8 124 7.802
29 P8 125 7.802
29 P8 126 8.291
29 P8 127 9.267
29 P8 128 9.267
29 P8 129 8.779
29 P8 130 7.802
29 P8 131 6.826
29 P8 132 6.337
29 P8 133 6.337
29 P8 134 7.314
29 P8 135 8.779
29 P8 136 10.732
29 P8 137 12.197
29 P8 138 11.709
29 P8 139 11.220
29 P8 140 9.267
29 P8 141 7.802
29 P8 142 6.337
29 P8 143 5.361
29 P8 144 4.384
29 P8 145 3.408
29 P8 146 2.431
29 P8 147 2.431
29 P8 148 2.920
29 P8 149 4.384
29 P8 150 5.849
29 P8 151 6.826
29 P8 152 7.314
29 P8 153 7.314
29 P8 154 7.802
29 P8 155 8.291
29 P8 156 9.267
29 P8 157 10.244
29 P8 158 10.732
29 P8 159 10.732
29 P8 160 9.755
29 P8 161 9.755
29 P8 162 9.755
29 P8 163 10.244
29 P8 164 10.244
29 P8 165 10.244
29 P8 166 10.244
29 P8 167 10.732
29 P8 168 11.220
29 P8 169 12.685
29 P8 170 14.150
29 P8 171 16.103
29 P8 172 17.080
29 P8 173 18.545
29 P8 174 19.033
29 P8 175 19.521
29 P8 176 19.521
29 P8 177 19.033
29 P8 178 18.056
29 P8 179 17.568
29 P8 180 18.056
29 P8 181 18.545
29 P8 182 19.521
29 P8 183 21.474
29 P8 184 23.916
29 P8 185 26.845
29 P8 186 30.263
29 P8 187 32.216
29 P8 188 31.728
29 P8 189 28.798
29 P8 190 24.892
29 P8 191 20.986
29 P8 192 19.033
29 P8 193 19.033
29 P8 194 20.009
29 P8 195 20.009
29 P8 196 19.033
29 P8 197 18.056
29 P8 198 17.080
29 P8 199 17.080
29 P8 200 17.568
29 P8 201 18.056
29 P8 202 17.080
29 P8 203 15.127
29 P8 204 13.173
29 P8 205 12.685
29 P8 206 14.638
29 P8 207 18.056
29 P8 208 21.962
29 P8 209 25.380
29 P8 210 27.822
29 P8 211 28.798
29 P8 212 28.310
29 P8 213 27.334
29 P8 214 25.380
29 P8 215 23.427
29 P8 216 21.962
29 P8 217 21.962
29 P8 218 22.451
29 P8 219 23.427
29 P8 220 23.427
29 P8 221 21.962
29 P8 222 19.521
29 P8 223 18.056
29 P8 224 18.545
29 P8 225 21.474
29 P8 226 25.380
29 P8 227 29.287
29 P8 228 31.240
29 P8 229 30.752
29 P8 230 29.287
29 P8 231 27.334
29 P8 232 25.380
29 P8 233 23.916
29 P8 234 23.427
29 P8 235 22.939
29 P8 236 22.939
29 P8 237 23.916
29 P8 238 25.869
29 P8 239 27.822
29 P8 240 29.287
29 P8 241 30.263
29 P8 242 30.752
29 P8 243 30.752
29 P8 244 30.263
29 P8 245 29.287
29 P8 246 27.822
29 P8 247 25.380
29 P8 248 24.892
29 P8 249 25.380
29 P8 250 27.822
29 P8 251 29.287
29 P8 252 29.775
29 P8 253 28.310
29 P8 254 26.845
29 P8 255 26.845
# P7 chan 26
29 P7 0 0.173
29 P7 1 1.149
29 P7 2 1.638
29 P7 3 2.614
29 P7 4 4.079
29 P7 5 5.056
29 P7 6 6.032
29 P7 7 5.544
29 P7 8 3.591
29 P7 9 0.661
29 P7 10 -2.268
29 P7 11 -3.245
29 P7 12 -1.292
29 P7 13 2.126
29 P7 14 5.056
29 P7 15 6.521
29 P7 16 6.032
29 P7 17 5.056
29 P7 18 5.056
29 P7 19 7.497
29 P7 20 11.403
29 P7 21 14.333
29 P7 22 14.821
29 P7 23 11.892
29 P7 24 7.497
29 P7 25 4.079
29 P7 26 3.591
29 P7 27 6.521
29 P7 28 10.427
29 P7 29 12.868
29 P7 30 12.868
29 P7 31 10.915
29 P7 32 7.985
29 P7 33 5.056
29 P7 34 3.591
29 P7 35 3.103
29 P7 36 4.079
29 P7 37 6.032
29 P7 38 9.450
29 P7 39 13.357
29 P7 40 17.263
29 P7 41 19.216
29 P7 42 19.216
29 P7 43 17.751
29 P7 44 14.821
29 P7 45 11.403
29 P7 46 7.497
29 P7 47 4.567
29 P7 48 2.614
29 P7 49 1.149
29 P7 50 0.661
29 P7 51 0.661
29 P7 52 0.661
29 P7 53 0.173
29 P7 54 0.173
29 P7 55 0.173
29 P7 56 1.149
29 P7 57 2.126
29 P7 58 3.591
29 P7 59 4.567
29 P7 60 4.567
29 P7 61 5.056
29 P7 62 5.056
29 P7 63 4.567
29 P7 64 3.591
29 P7 65 1.638
29 P7 66 -0.315
29 P7 67 -1.292
29 P7 68 -0.315
29 P7 69 2.126
29 P7 70 4.567
29 P7 71 7.009
29 P7 72 7.497
29 P7 73 7.497
29 P7 74 7.009
29 P7 75 7.497
29 P7 76 7.985
29 P7 77 8.474
29 P7 78 7.985
29 P7 79 6.032
29 P7 80 3.103
29 P7 81 0.173
29 P7 82 -1.780
29 P7 83 -2.757
29 P7 84 -3.245
29 P7 85 -3.733
29 P7 86 -3.733
29 P7 87 -3.733
29 P7 88 -3.245
29 P7 89 -2.268
29 P7 90 -1.780
29 P7 91 -1.780
29 P7 92 -1.780
29 P7 93 -2.268
29 P7 94 -2.268
29 P7 95 -1.292
29 P7 96 -0.315
29 P7 97 1.149
29 P7 98 1.638
29 P7 99 1.149
29 P7 100 0.661
29 P7 101 0.173
29 P7 102 0.173
29 P7 103 0.173
29 P7 104 0.173
29 P7 105 -0.804
29 P7 106 -2.268
29 P7 107 -3.245
29 P7 108 -3.733
29 P7 109 -3.733
29 P7 110 -3.733
29 P7 111 -4.710
29 P7 112 -5.686
29 P7 113 -5.686
29 P7 114 -5.198
29 P7 115 -2.757
29 P7 116 -0.804
29 P7 117 -0.315
29 P7 118 -1.780
29 P7 119 -4.710
29 P7 120 -7.640
29 P7 121 -9.593
29 P7 122 -10.081
29 P7 123 -9.593
29 P7 124 -10.081
29 P7 125 -11.058
29 P7 126 -13.011
29 P7 127 -14.476
29 P7 128 -14.964
29 P7 129 -13.987
29 P7 130 -12.034
29 P7 131 -9.593
29 P7 132 -7.151
29 P7 133 -5.198
29 P7 134 -4.222
29 P7 135 -4.222
29 P7 136 -4.222
29 P7 137 -4.222
29 P7 138 -4.222
29 P7 139 -3.733
29 P7 140 -3.245
29 P7 141 -3.245
29 P7 142 -3.245
29 P7 143 -4.222
29 P7 144 -5.686
29 P7 145 -6.663
29 P7 146 -8.128
29 P7 147 -8.616
29 P7 148 -8.616
29 P7 149 -7.640
29 P7 150 -6.663
29 P7 151 -5.198
29 P7 152 -4.222
29 P7 153 -3.245
29 P7 154 -2.757
29 P7 155 -2.757
29 P7 156 -3.245
29 P7 157 -4.222
29 P7 158 -5.198
29 P7 159 -4.710
29 P7 160 -3.245
29 P7 161 -2.268
29 P7 162 -2.268
29 P7 163 -3.245
29 P7 164 -4.710
29 P7 165 -5.198
29 P7 166 -3.733
29 P7 167 -1.780
29 P7 168 0.173
29 P7 169 0.661
29 P7 170 0.173
29 P7 171 0.661
29 P7 172 2.126
29 P7 173 4.079
29 P7 174 6.032
29 P7 175 7.009
29 P7 176 6.521
29 P7 177 5.544
29 P7 178 5.056
29 P7 179 4.567
29 P7 180 4.079
29 P7 181 3.591
29 P7 182 4.079
29 P7 183 7.009
29 P7 184 11.892
29 P7 185 16.774
29 P7 186 19.216
29 P7 187 18.239
29 P7 188 14.821
29 P7 189 10.427
29 P7 190 8.474
29 P7 191 8.962
29 P7 192 10.427
29 P7 193 11.403
29 P7 194 11.403
29 P7 195 9.450
29 P7 196 7.985
29 P7 197 7.497
29 P7 198 7.985
29 P7 199 9.450
29 P7 200 9.939
29 P7 201 9.450
29 P7 202 7.497
29 P7 203 4.567
29 P7 204 2.126
29 P7 205 1.638
29 P7 206 3.103
29 P7 207 6.521
29 P7 208 9.939
29 P7 209 12.868
29 P7 210 13.357
29 P7 211 11.892
29 P7 212 8.962
29 P7 213 6.521
29 P7 214 5.544
29 P7 215 6.032
29 P7 216 7.497
29 P7 217 8.474
29 P7 218 8.962
29 P7 219 8.962
29 P7 220 8.962
29 P7 221 10.427
29 P7 222 11.892
29 P7 223 13.357
29 P7 224 13.357
29 P7 225 12.868
29 P7 226 11.892
29 P7 227 10.915
29 P7 228 9.450
29 P7 229 9.450
29 P7 230 9.939
29 P7 231 12.380
29 P7 232 15.310
29 P7 233 18.239
29 P7 234 19.216
29 P7 235 17.263
29 P7 236 13.357
29 P7 237 9.939
29 P7 238 7.985
29 P7 239 8.474
29 P7 240 10.915
29 P7 241 13.357
29 P7 242 14.821
29 P7 243 14.821
29 P7 244 13.845
29 P7 245 12.868
29 P7 246 11.892
29 P7 247 11.403
29 P7 248 11.403
29 P7 249 12.380
29 P7 250 13.845
29 P7 251 16.286
29 P7 252 18.239
29 P7 253 19.704
29 P7 254 20.192
29 P7 255 20.681
# PO2 chan 27
29 PO2 0 -0.427
29 PO2 1 -1.404
29 PO2 2 -1.892
29 PO2 3 -1.892
29 PO2 4 -1.404
29 PO2 5 -0.916
29 PO2 6 0.061
29 PO2 7 1.526
29 PO2 8 2.502
29 PO2 9 2.502
29 PO2 10 1.038
29 PO2 11 -0.916
29 PO2 12 -2.869
29 PO2 13 -4.333
29 PO2 14 -3.845
29 PO2 15 -1.892
29 PO2 16 1.526
29 PO2 17 4.944
29 PO2 18 8.362
29 PO2 19 10.315
29 PO2 20 11.780
29 PO2 21 11.780
29 PO2 22 12.268
29 PO2 23 11.780
29 PO2 24 9.827
29 PO2 25 6.409
29 PO2 26 2.502
29 PO2 27 0.061
29 PO2 28 -0.427
29 PO2 29 0.549
29 PO2 30 3.479
29 PO2 31 5.432
29 PO2 32 6.409
29 PO2 33 6.409
29 PO2 34 6.897
29 PO2 35 8.362
29 PO2 36 10.315
29 PO2 37 12.268
29 PO2 38 13.733
29 PO2 39 15.198
29 PO2 40 16.174
29 PO2 41 17.151
29 PO2 42 17.639
29 PO2 43 16.663
29 PO2 44 14.709
29 PO2 45 11.780
29 PO2 46 9.827
29 PO2 47 9.338
29 PO2 48 10.803
29 PO2 49 12.756
29 PO2 50 14.221
29 PO2 51 14.709
29 PO2 52 13.733
29 PO2 53 12.756
29 PO2 54 11.780
29 PO2 55 11.292
29 PO2 56 10.315
29 PO2 57 8.850
29 PO2 58 7.874
29 PO2 59 8.362
29 PO2 60 11.292
29 PO2 61 15.198
29 PO2 62 19.104
29 PO2 63 22.034
29 PO2 64 22.522
29 PO2 65 21.057
29 PO2 66 19.592
29 PO2 67 19.104
29 PO2 68 20.081
29 PO2 69 21.057
29 PO2 70 21.057
29 PO2 71 20.569
29 PO2 72 19.104
29 PO2 73 17.639
29 PO2 74 17.151
29 PO2 75 17.151
29 PO2 76 18.127
29 PO2 77 19.104
29 PO2 78 19.592
29 PO2 79 19.592
29 PO2 80 19.104
29 PO2 81 19.104
29 PO2 82 19.104
29 PO2 83 20.081
29 PO2 84 21.057
29 PO2 85 22.034
29 PO2 86 22.522
29 PO2 87 23.010
29 PO2 88 22.522
29 PO2 89 21.057
29 PO2 90 19.592
29 PO2 91 18.616
29 PO2 92 17.639
29 PO2 93 17.151
29 PO2 94 17.151
29 PO2 95 17.151
29 PO2 96 16.663
29 PO2 97 16.174
29 PO2 98 15.686
29 PO2 99 15.686
29 PO2 100 16.663
29 PO2 101 17.151
29 PO2 102 17.639
29 PO2 103 18.616
29 PO2 104 19.104
29 PO2 105 20.081
29 PO2 106 20.569
29 PO2 107 21.545
29 PO2 108 22.034
29 PO2 109 22.522
29 PO2 110 22.522
29 PO2 111 22.034
29 PO2 112 20.569
29 PO2 113 19.104
29 PO2 114 17.151
29 PO2 115 17.151
29 PO2 116 19.104
29 PO2 117 22.522
29 PO2 118 25.940
29 PO2 119 27.405
29 PO2 120 26.917
29 PO2 121 25.452
29 PO2 122 23.987
29 PO2 123 22.522
29 PO2 124 22.034
29 PO2 125 21.545
29 PO2 126 21.057
29 PO2 127 21.057
29 PO2 128 20.569
29 PO2 129 21.057
29 PO2 130 21.545
29 PO2 131 21.545
29 PO2 132 21.545
29 PO2 133 21.057
29 PO2 134 21.057
29 PO2 135 21.545
29 PO2 136 22.034
29 PO2 137 22.034
29 PO2 138 21.545
29 PO2 139 20.569
29 PO2 140 19.592
29 PO2 141 19.592
29 PO2 142 19.592
29 PO2 143 19.104
29 PO2 144 18.127
29 PO2 145 16.174
29 PO2 146 14.709
29 PO2 147 14.221
29 PO2 148 15.686
29 PO2 149 18.616
29 PO2 150 21.057
29 PO2 151 22.522
29 PO2 152 22.522
29 PO2 153 22.034
29 PO2 154 21.545
29 PO2 155 21.545
29 PO2 156 22.034
29 PO2 157 22.522
29 PO2 158 22.522
29 PO2 159 23.010
29 PO2 160 23.499
29 PO2 161 23.987
29 PO2 162 23.499
29 PO2 163 22.522
29 PO2 164 21.057
29 PO2 165 20.569
29 PO2 166 22.034
29 PO2 167 23.987
29 PO2 168 25.940
29 PO2 169 26.428
29 PO2 170 25.940
29 PO2 171 25.940
29 PO2 172 26.917
29 PO2 173 28.870
29 PO2 174 30.823
29 PO2 175 31.311
29 PO2 176 30.823
29 PO2 177 28.870
29 PO2 178 27.893
29 PO2 179 27.405
29 PO2 180 27.893
29 PO2 181 28.381
29 PO2 182 29.358
29 PO2 183 30.823
29 PO2 184 33.264
29 PO2 185 37.170
29 PO2 186 40.588
