# co2a0000438.rd
# 120 trials, 64 chans, 416 samples 368 post_stim samples
# 3.906000 msecs uV
# S1 obj , trial 50
# FP1 chan 0
50 FP1 0 9.715
50 FP1 1 9.226
50 FP1 2 10.203
50 FP1 3 10.691
50 FP1 4 12.644
50 FP1 5 14.109
50 FP1 6 15.574
50 FP1 7 15.086
50 FP1 8 13.621
50 FP1 9 12.156
50 FP1 10 11.180
50 FP1 11 12.156
50 FP1 12 13.621
50 FP1 13 14.109
50 FP1 14 14.598
50 FP1 15 14.598
50 FP1 16 15.086
50 FP1 17 15.574
50 FP1 18 15.086
50 FP1 19 13.133
50 FP1 20 10.203
50 FP1 21 7.273
50 FP1 22 5.809
50 FP1 23 6.297
50 FP1 24 6.785
50 FP1 25 6.785
50 FP1 26 5.809
50 FP1 27 5.320
50 FP1 28 5.809
50 FP1 29 6.785
50 FP1 30 7.762
50 FP1 31 7.762
50 FP1 32 7.762
50 FP1 33 8.250
50 FP1 34 9.226
50 FP1 35 10.203
50 FP1 36 9.715
50 FP1 37 7.762
50 FP1 38 4.344
50 FP1 39 1.902
50 FP1 40 1.414
50 FP1 41 3.367
50 FP1 42 5.320
50 FP1 43 5.809
50 FP1 44 5.809
50 FP1 45 5.320
50 FP1 46 5.809
50 FP1 47 7.273
50 FP1 48 7.762
50 FP1 49 7.762
50 FP1 50 6.785
50 FP1 51 6.297
50 FP1 52 6.785
50 FP1 53 8.250
50 FP1 54 9.226
50 FP1 55 9.715
50 FP1 56 9.226
50 FP1 57 9.715
50 FP1 58 11.180
50 FP1 59 12.644
50 FP1 60 13.133
50 FP1 61 11.668
50 FP1 62 9.715
50 FP1 63 8.250
50 FP1 64 8.250
50 FP1 65 9.226
50 FP1 66 8.738
50 FP1 67 6.297
50 FP1 68 2.879
50 FP1 69 0.437
50 FP1 70 1.414
50 FP1 71 4.344
50 FP1 72 7.273
50 FP1 73 8.250
50 FP1 74 6.785
50 FP1 75 4.832
50 FP1 76 3.367
50 FP1 77 3.367
50 FP1 78 3.855
50 FP1 79 2.879
50 FP1 80 -0.051
50 FP1 81 -3.469
50 FP1 82 -5.422
50 FP1 83 -4.934
50 FP1 84 -2.004
50 FP1 85 1.902
50 FP1 86 4.344
50 FP1 87 4.344
50 FP1 88 2.391
50 FP1 89 0.926
50 FP1 90 0.926
50 FP1 91 2.879
50 FP1 92 5.809
50 FP1 93 8.738
50 FP1 94 10.203
50 FP1 95 10.203
50 FP1 96 8.738
50 FP1 97 6.785
50 FP1 98 4.832
50 FP1 99 4.344
50 FP1 100 4.832
50 FP1 101 5.320
50 FP1 102 5.320
50 FP1 103 5.320
50 FP1 104 5.809
50 FP1 105 7.273
50 FP1 106 9.226
50 FP1 107 10.203
50 FP1 108 10.691
50 FP1 109 10.203
50 FP1 110 10.203
50 FP1 111 11.180
50 FP1 112 13.621
50 FP1 113 15.086
50 FP1 114 16.551
50 FP1 115 17.039
50 FP1 116 18.016
50 FP1 117 18.992
50 FP1 118 20.457
50 FP1 119 20.457
50 FP1 120 18.992
50 FP1 121 16.062
50 FP1 122 13.133
50 FP1 123 13.133
50 FP1 124 15.574
50 FP1 125 19.480
50 FP1 126 22.898
50 FP1 127 24.851
50 FP1 128 24.363
50 FP1 129 23.387
50 FP1 130 22.898
50 FP1 131 23.387
50 FP1 132 22.898
50 FP1 133 20.945
50 FP1 134 17.527
50 FP1 135 14.109
50 FP1 136 12.156
50 FP1 137 11.668
50 FP1 138 13.133
50 FP1 139 14.109
50 FP1 140 14.109
50 FP1 141 14.109
50 FP1 142 13.133
50 FP1 143 13.133
50 FP1 144 14.598
50 FP1 145 17.039
50 FP1 146 19.969
50 FP1 147 23.387
50 FP1 148 25.828
50 FP1 149 25.828
50 FP1 150 24.363
50 FP1 151 20.945
50 FP1 152 18.016
50 FP1 153 17.527
50 FP1 154 19.969
50 FP1 155 22.898
50 FP1 156 24.363
50 FP1 157 22.410
50 FP1 158 18.992
50 FP1 159 16.062
50 FP1 160 16.062
50 FP1 161 18.992
50 FP1 162 21.922
50 FP1 163 23.387
50 FP1 164 22.410
50 FP1 165 19.969
50 FP1 166 18.504
50 FP1 167 18.504
50 FP1 168 20.457
50 FP1 169 22.898
50 FP1 170 23.387
50 FP1 171 21.922
50 FP1 172 18.992
50 FP1 173 16.551
50 FP1 174 16.062
50 FP1 175 17.039
50 FP1 176 19.480
50 FP1 177 19.969
50 FP1 178 18.992
50 FP1 179 17.039
50 FP1 180 15.086
50 FP1 181 15.574
50 FP1 182 18.016
50 FP1 183 21.922
50 FP1 184 24.363
50 FP1 185 23.875
50 FP1 186 20.457
50 FP1 187 16.062
50 FP1 188 12.644
50 FP1 189 11.668
50 FP1 190 13.621
50 FP1 191 17.039
50 FP1 192 19.969
50 FP1 193 20.457
50 FP1 194 18.992
50 FP1 195 15.086
50 FP1 196 11.668
50 FP1 197 10.203
50 FP1 198 11.180
50 FP1 199 12.644
50 FP1 200 13.621
50 FP1 201 13.133
50 FP1 202 11.180
50 FP1 203 9.715
50 FP1 204 9.715
50 FP1 205 11.668
50 FP1 206 12.644
50 FP1 207 11.668
50 FP1 208 9.226
50 FP1 209 6.785
50 FP1 210 6.785
50 FP1 211 9.226
50 FP1 212 12.644
50 FP1 213 14.109
50 FP1 214 12.644
50 FP1 215 10.203
50 FP1 216 9.226
50 FP1 217 10.691
50 FP1 218 13.621
50 FP1 219 16.062
50 FP1 220 16.062
50 FP1 221 14.109
50 FP1 222 12.644
50 FP1 223 13.133
50 FP1 224 15.086
50 FP1 225 16.062
50 FP1 226 15.574
50 FP1 227 12.644
50 FP1 228 10.203
50 FP1 229 7.762
50 FP1 230 6.785
50 FP1 231 6.297
50 FP1 232 5.320
50 FP1 233 4.344
50 FP1 234 4.344
50 FP1 235 5.320
50 FP1 236 6.785
50 FP1 237 8.250
50 FP1 238 9.226
50 FP1 239 9.715
50 FP1 240 9.715
50 FP1 241 8.738
50 FP1 242 6.785
50 FP1 243 3.367
50 FP1 244 -0.539
50 FP1 245 -3.469
50 FP1 246 -3.957
50 FP1 247 -2.492
50 FP1 248 -0.539
50 FP1 249 1.414
50 FP1 250 2.391
50 FP1 251 2.391
50 FP1 252 1.414
50 FP1 253 1.414
50 FP1 254 2.391
50 FP1 255 3.367
# FP2 chan 1
50 FP2 0 9.471
50 FP2 1 11.912
50 FP2 2 13.377
50 FP2 3 13.377
50 FP2 4 12.889
50 FP2 5 12.400
50 FP2 6 11.912
50 FP2 7 11.424
50 FP2 8 10.935
50 FP2 9 10.935
50 FP2 10 10.935
50 FP2 11 11.424
50 FP2 12 10.447
50 FP2 13 9.959
50 FP2 14 8.982
50 FP2 15 9.959
50 FP2 16 11.912
50 FP2 17 13.865
50 FP2 18 14.353
50 FP2 19 13.377
50 FP2 20 11.424
50 FP2 21 8.982
50 FP2 22 6.541
50 FP2 23 4.100
50 FP2 24 1.658
50 FP2 25 -0.783
50 FP2 26 -1.760
50 FP2 27 -0.295
50 FP2 28 1.658
50 FP2 29 4.100
50 FP2 30 5.076
50 FP2 31 5.564
50 FP2 32 5.076
50 FP2 33 5.076
50 FP2 34 6.541
50 FP2 35 7.517
50 FP2 36 7.517
50 FP2 37 6.053
50 FP2 38 3.611
50 FP2 39 0.682
50 FP2 40 -0.783
50 FP2 41 -0.783
50 FP2 42 0.682
50 FP2 43 2.146
50 FP2 44 3.123
50 FP2 45 2.146
50 FP2 46 0.193
50 FP2 47 -0.783
50 FP2 48 -0.783
50 FP2 49 1.658
50 FP2 50 5.564
50 FP2 51 8.494
50 FP2 52 9.471
50 FP2 53 8.494
50 FP2 54 7.029
50 FP2 55 7.029
50 FP2 56 8.982
50 FP2 57 11.912
50 FP2 58 13.865
50 FP2 59 13.377
50 FP2 60 10.935
50 FP2 61 7.517
50 FP2 62 5.076
50 FP2 63 5.076
50 FP2 64 6.053
50 FP2 65 8.006
50 FP2 66 8.982
50 FP2 67 8.494
50 FP2 68 7.029
50 FP2 69 4.588
50 FP2 70 2.635
50 FP2 71 1.658
50 FP2 72 1.658
50 FP2 73 2.146
50 FP2 74 2.635
50 FP2 75 2.635
50 FP2 76 2.146
50 FP2 77 2.146
50 FP2 78 1.658
50 FP2 79 2.146
50 FP2 80 2.146
50 FP2 81 2.146
50 FP2 82 0.682
50 FP2 83 -0.295
50 FP2 84 -0.295
50 FP2 85 -0.295
50 FP2 86 0.682
50 FP2 87 2.146
50 FP2 88 3.123
50 FP2 89 3.611
50 FP2 90 5.076
50 FP2 91 6.541
50 FP2 92 8.982
50 FP2 93 11.424
50 FP2 94 12.889
50 FP2 95 12.400
50 FP2 96 11.424
50 FP2 97 9.471
50 FP2 98 8.006
50 FP2 99 8.006
50 FP2 100 8.006
50 FP2 101 8.006
50 FP2 102 8.494
50 FP2 103 8.982
50 FP2 104 9.471
50 FP2 105 9.471
50 FP2 106 7.517
50 FP2 107 4.100
50 FP2 108 0.193
50 FP2 109 -1.272
50 FP2 110 1.170
50 FP2 111 6.541
50 FP2 112 11.424
50 FP2 113 13.377
50 FP2 114 11.912
50 FP2 115 9.471
50 FP2 116 8.982
50 FP2 117 10.935
50 FP2 118 13.865
50 FP2 119 14.353
50 FP2 120 10.935
50 FP2 121 5.564
50 FP2 122 2.635
50 FP2 123 4.100
50 FP2 124 9.471
50 FP2 125 15.330
50 FP2 126 18.748
50 FP2 127 19.236
50 FP2 128 17.283
50 FP2 129 16.307
50 FP2 130 17.283
50 FP2 131 18.748
50 FP2 132 19.725
50 FP2 133 18.748
50 FP2 134 16.795
50 FP2 135 14.353
50 FP2 136 13.377
50 FP2 137 12.889
50 FP2 138 11.912
50 FP2 139 10.935
50 FP2 140 9.471
50 FP2 141 8.494
50 FP2 142 8.494
50 FP2 143 9.471
50 FP2 144 11.424
50 FP2 145 14.353
50 FP2 146 17.771
50 FP2 147 21.678
50 FP2 148 23.142
50 FP2 149 22.166
50 FP2 150 17.771
50 FP2 151 13.377
50 FP2 152 10.935
50 FP2 153 12.400
50 FP2 154 17.771
50 FP2 155 23.142
50 FP2 156 26.560
50 FP2 157 25.584
50 FP2 158 21.678
50 FP2 159 18.260
50 FP2 160 16.307
50 FP2 161 16.307
50 FP2 162 17.771
50 FP2 163 19.236
50 FP2 164 21.189
50 FP2 165 22.654
50 FP2 166 23.631
50 FP2 167 24.607
50 FP2 168 24.119
50 FP2 169 23.631
50 FP2 170 22.654
50 FP2 171 22.166
50 FP2 172 22.166
50 FP2 173 21.678
50 FP2 174 21.678
50 FP2 175 22.166
50 FP2 176 23.142
50 FP2 177 23.631
50 FP2 178 23.631
50 FP2 179 21.678
50 FP2 180 19.236
50 FP2 181 16.795
50 FP2 182 17.283
50 FP2 183 20.213
50 FP2 184 23.631
50 FP2 185 26.560
50 FP2 186 27.049
50 FP2 187 24.607
50 FP2 188 22.654
50 FP2 189 22.166
50 FP2 190 23.631
50 FP2 191 25.584
50 FP2 192 25.096
50 FP2 193 21.678
50 FP2 194 16.307
50 FP2 195 12.400
50 FP2 196 11.912
50 FP2 197 14.353
50 FP2 198 18.748
50 FP2 199 20.701
50 FP2 200 20.213
50 FP2 201 17.771
50 FP2 202 16.307
50 FP2 203 15.818
50 FP2 204 16.795
50 FP2 205 16.795
50 FP2 206 15.330
50 FP2 207 13.377
50 FP2 208 12.889
50 FP2 209 13.865
50 FP2 210 16.307
50 FP2 211 17.771
50 FP2 212 17.771
50 FP2 213 16.795
50 FP2 214 15.330
50 FP2 215 14.842
50 FP2 216 15.330
50 FP2 217 17.283
50 FP2 218 19.725
50 FP2 219 21.678
50 FP2 220 23.142
50 FP2 221 23.142
50 FP2 222 22.166
50 FP2 223 20.701
50 FP2 224 18.748
50 FP2 225 16.795
50 FP2 226 14.842
50 FP2 227 13.377
50 FP2 228 12.889
50 FP2 229 12.889
50 FP2 230 14.353
50 FP2 231 16.307
50 FP2 232 17.771
50 FP2 233 17.771
50 FP2 234 16.307
50 FP2 235 14.842
50 FP2 236 13.377
50 FP2 237 12.889
50 FP2 238 12.400
50 FP2 239 12.889
50 FP2 240 13.377
50 FP2 241 14.353
50 FP2 242 15.330
50 FP2 243 15.330
50 FP2 244 13.377
50 FP2 245 10.935
50 FP2 246 9.471
50 FP2 247 10.447
50 FP2 248 13.377
50 FP2 249 15.818
50 FP2 250 14.842
50 FP2 251 11.912
50 FP2 252 8.982
50 FP2 253 8.982
50 FP2 254 12.400
50 FP2 255 15.818
# F7 chan 2
50 F7 0 6.551
50 F7 1 9.481
50 F7 2 13.387
50 F7 3 17.293
50 F7 4 20.711
50 F7 5 22.176
50 F7 6 21.688
50 F7 7 18.758
50 F7 8 13.387
50 F7 9 8.016
50 F7 10 4.598
50 F7 11 5.086
50 F7 12 8.504
50 F7 13 12.899
50 F7 14 14.852
50 F7 15 14.852
50 F7 16 12.899
50 F7 17 11.434
50 F7 18 9.969
50 F7 19 8.016
50 F7 20 5.086
50 F7 21 3.133
50 F7 22 2.645
50 F7 23 4.598
50 F7 24 6.063
50 F7 25 5.575
50 F7 26 2.645
50 F7 27 -0.285
50 F7 28 -0.285
50 F7 29 3.133
50 F7 30 6.551
50 F7 31 7.528
50 F7 32 6.551
50 F7 33 5.086
50 F7 34 5.086
50 F7 35 6.551
50 F7 36 6.551
50 F7 37 2.645
50 F7 38 -2.726
50 F7 39 -7.121
50 F7 40 -6.632
50 F7 41 -1.261
50 F7 42 4.598
50 F7 43 8.504
50 F7 44 8.016
50 F7 45 6.551
50 F7 46 5.575
50 F7 47 7.039
50 F7 48 8.504
50 F7 49 8.504
50 F7 50 6.551
50 F7 51 3.621
50 F7 52 2.645
50 F7 53 3.133
50 F7 54 5.086
50 F7 55 6.551
50 F7 56 6.551
50 F7 57 6.063
50 F7 58 5.575
50 F7 59 6.063
50 F7 60 7.039
50 F7 61 8.016
50 F7 62 8.504
50 F7 63 9.481
50 F7 64 10.457
50 F7 65 9.969
50 F7 66 8.016
50 F7 67 4.598
50 F7 68 1.180
50 F7 69 -0.285
50 F7 70 0.203
50 F7 71 0.692
50 F7 72 -0.285
50 F7 73 -3.215
50 F7 74 -6.632
50 F7 75 -8.097
50 F7 76 -6.144
50 F7 77 -2.238
50 F7 78 0.203
50 F7 79 0.203
50 F7 80 -2.238
50 F7 81 -5.168
50 F7 82 -7.121
50 F7 83 -7.609
50 F7 84 -7.121
50 F7 85 -7.121
50 F7 86 -7.609
50 F7 87 -7.609
50 F7 88 -6.144
50 F7 89 -3.703
50 F7 90 -0.285
50 F7 91 2.157
50 F7 92 3.621
50 F7 93 3.621
50 F7 94 2.645
50 F7 95 1.180
50 F7 96 -0.285
50 F7 97 -1.261
50 F7 98 -0.773
50 F7 99 0.692
50 F7 100 2.157
50 F7 101 3.133
50 F7 102 4.598
50 F7 103 5.575
50 F7 104 7.039
50 F7 105 8.016
50 F7 106 7.528
50 F7 107 5.086
50 F7 108 2.645
50 F7 109 2.157
50 F7 110 4.598
50 F7 111 8.993
50 F7 112 12.899
50 F7 113 13.387
50 F7 114 10.457
50 F7 115 7.039
50 F7 116 5.086
50 F7 117 6.551
50 F7 118 8.993
50 F7 119 9.481
50 F7 120 6.551
50 F7 121 0.692
50 F7 122 -3.703
50 F7 123 -3.703
50 F7 124 1.180
50 F7 125 8.016
50 F7 126 13.387
50 F7 127 14.852
50 F7 128 12.410
50 F7 129 8.504
50 F7 130 5.086
50 F7 131 4.110
50 F7 132 5.086
50 F7 133 7.528
50 F7 134 9.481
50 F7 135 8.993
50 F7 136 4.598
50 F7 137 -2.238
50 F7 138 -8.586
50 F7 139 -11.027
50 F7 140 -8.586
50 F7 141 -4.191
50 F7 142 -0.773
50 F7 143 -0.773
50 F7 144 -2.726
50 F7 145 -4.191
50 F7 146 -2.238
50 F7 147 2.645
50 F7 148 7.528
50 F7 149 9.969
50 F7 150 8.993
50 F7 151 6.551
50 F7 152 5.086
50 F7 153 5.575
50 F7 154 7.528
50 F7 155 9.969
50 F7 156 11.922
50 F7 157 12.899
50 F7 158 13.387
50 F7 159 13.875
50 F7 160 13.875
50 F7 161 13.875
50 F7 162 12.899
50 F7 163 11.922
50 F7 164 11.922
50 F7 165 12.410
50 F7 166 14.364
50 F7 167 15.828
50 F7 168 16.317
50 F7 169 15.828
50 F7 170 13.387
50 F7 171 9.481
50 F7 172 5.086
50 F7 173 2.645
50 F7 174 2.157
50 F7 175 4.598
50 F7 176 8.016
50 F7 177 10.457
50 F7 178 11.922
50 F7 179 10.946
50 F7 180 8.993
50 F7 181 7.039
50 F7 182 6.063
50 F7 183 5.575
50 F7 184 5.575
50 F7 185 5.575
50 F7 186 5.086
50 F7 187 4.598
50 F7 188 3.621
50 F7 189 3.133
50 F7 190 3.621
50 F7 191 4.598
50 F7 192 6.063
50 F7 193 7.039
50 F7 194 5.575
50 F7 195 3.133
50 F7 196 1.180
50 F7 197 0.692
50 F7 198 2.157
50 F7 199 3.133
50 F7 200 2.645
50 F7 201 -0.285
50 F7 202 -2.238
50 F7 203 -2.238
50 F7 204 1.668
50 F7 205 6.063
50 F7 206 8.016
50 F7 207 6.063
50 F7 208 2.157
50 F7 209 -0.285
50 F7 210 1.180
50 F7 211 4.598
50 F7 212 8.504
50 F7 213 8.504
50 F7 214 6.063
50 F7 215 3.621
50 F7 216 5.086
50 F7 217 9.969
50 F7 218 15.828
50 F7 219 18.270
50 F7 220 16.805
50 F7 221 11.922
50 F7 222 6.551
50 F7 223 3.621
50 F7 224 2.157
50 F7 225 1.668
50 F7 226 2.645
50 F7 227 3.621
50 F7 228 4.598
50 F7 229 4.598
50 F7 230 2.157
50 F7 231 -0.773
50 F7 232 -2.238
50 F7 233 -1.750
50 F7 234 0.203
50 F7 235 0.692
50 F7 236 -1.261
50 F7 237 -4.191
50 F7 238 -6.144
50 F7 239 -4.679
50 F7 240 -1.261
50 F7 241 0.692
50 F7 242 -1.261
50 F7 243 -6.144
50 F7 244 -10.539
50 F7 245 -12.004
50 F7 246 -10.539
50 F7 247 -9.074
50 F7 248 -9.074
50 F7 249 -12.004
50 F7 250 -14.933
50 F7 251 -16.398
50 F7 252 -14.445
50 F7 253 -10.050
50 F7 254 -6.144
50 F7 255 -3.703
# F8 chan 3
50 F8 0 6.846
50 F8 1 6.358
50 F8 2 7.823
50 F8 3 10.264
50 F8 4 11.729
50 F8 5 10.752
50 F8 6 7.823
50 F8 7 4.893
50 F8 8 4.405
50 F8 9 5.870
50 F8 10 8.799
50 F8 11 10.264
50 F8 12 10.264
50 F8 13 9.776
50 F8 14 9.776
50 F8 15 11.241
50 F8 16 13.682
50 F8 17 14.659
50 F8 18 13.682
50 F8 19 11.729
50 F8 20 9.288
50 F8 21 7.334
50 F8 22 5.870
50 F8 23 4.893
50 F8 24 4.405
50 F8 25 4.405
50 F8 26 5.870
50 F8 27 7.334
50 F8 28 9.288
50 F8 29 10.264
50 F8 30 10.752
50 F8 31 10.264
50 F8 32 9.776
50 F8 33 10.264
50 F8 34 10.752
50 F8 35 11.241
50 F8 36 10.264
50 F8 37 8.799
50 F8 38 7.334
50 F8 39 5.381
50 F8 40 4.405
50 F8 41 3.428
50 F8 42 2.940
50 F8 43 2.940
50 F8 44 3.428
50 F8 45 3.916
50 F8 46 3.916
50 F8 47 4.405
50 F8 48 4.893
50 F8 49 5.870
50 F8 50 6.846
50 F8 51 7.334
50 F8 52 6.846
50 F8 53 4.893
50 F8 54 3.428
50 F8 55 2.452
50 F8 56 2.940
50 F8 57 4.405
50 F8 58 4.893
50 F8 59 3.916
50 F8 60 0.987
50 F8 61 -1.455
50 F8 62 -1.943
50 F8 63 0.010
50 F8 64 2.452
50 F8 65 3.428
50 F8 66 1.963
50 F8 67 -0.478
50 F8 68 -1.455
50 F8 69 0.498
50 F8 70 3.916
50 F8 71 6.846
50 F8 72 7.334
50 F8 73 5.381
50 F8 74 1.963
50 F8 75 0.010
50 F8 76 -0.478
50 F8 77 0.498
50 F8 78 1.963
50 F8 79 2.452
50 F8 80 2.452
50 F8 81 1.963
50 F8 82 0.987
50 F8 83 0.010
50 F8 84 -0.966
50 F8 85 -1.455
50 F8 86 -1.943
50 F8 87 -2.920
50 F8 88 -4.873
50 F8 89 -6.826
50 F8 90 -7.314
50 F8 91 -5.849
50 F8 92 -2.431
50 F8 93 1.475
50 F8 94 4.405
50 F8 95 4.893
50 F8 96 2.940
50 F8 97 0.498
50 F8 98 -0.966
50 F8 99 -1.455
50 F8 100 -1.943
50 F8 101 -1.943
50 F8 102 -0.966
50 F8 103 0.498
50 F8 104 1.963
50 F8 105 1.475
50 F8 106 -1.455
50 F8 107 -7.314
50 F8 108 -11.709
50 F8 109 -13.173
50 F8 110 -10.244
50 F8 111 -3.896
50 F8 112 2.452
50 F8 113 5.870
50 F8 114 5.870
50 F8 115 4.893
50 F8 116 3.916
50 F8 117 3.916
50 F8 118 3.916
50 F8 119 2.940
50 F8 120 0.498
50 F8 121 -0.966
50 F8 122 -1.455
50 F8 123 0.498
50 F8 124 2.940
50 F8 125 4.405
50 F8 126 5.381
50 F8 127 5.870
50 F8 128 5.870
50 F8 129 5.381
50 F8 130 4.405
50 F8 131 2.452
50 F8 132 0.010
50 F8 133 -0.966
50 F8 134 -1.943
50 F8 135 -2.431
50 F8 136 -3.408
50 F8 137 -4.384
50 F8 138 -5.361
50 F8 139 -4.384
50 F8 140 -2.431
50 F8 141 0.010
50 F8 142 1.475
50 F8 143 1.963
50 F8 144 1.475
50 F8 145 1.475
50 F8 146 2.940
50 F8 147 4.893
50 F8 148 6.846
50 F8 149 7.823
50 F8 150 7.334
50 F8 151 7.334
50 F8 152 7.334
50 F8 153 8.311
50 F8 154 8.799
50 F8 155 8.311
50 F8 156 6.846
50 F8 157 4.405
50 F8 158 1.475
50 F8 159 -0.966
50 F8 160 -2.431
50 F8 161 -2.431
50 F8 162 -0.966
50 F8 163 0.987
50 F8 164 1.963
50 F8 165 2.452
50 F8 166 2.940
50 F8 167 2.452
50 F8 168 2.452
50 F8 169 1.963
50 F8 170 1.963
50 F8 171 1.475
50 F8 172 0.010
50 F8 173 -1.455
50 F8 174 -2.431
50 F8 175 -2.431
50 F8 176 -1.455
50 F8 177 -0.966
50 F8 178 -1.455
50 F8 179 -2.431
50 F8 180 -3.408
50 F8 181 -3.408
50 F8 182 -0.966
50 F8 183 1.963
50 F8 184 4.893
50 F8 185 5.870
50 F8 186 4.405
50 F8 187 1.963
50 F8 188 -0.478
50 F8 189 -0.478
50 F8 190 1.475
50 F8 191 3.428
50 F8 192 3.916
50 F8 193 2.452
50 F8 194 -0.478
50 F8 195 -3.408
50 F8 196 -4.873
50 F8 197 -4.384
50 F8 198 -3.408
50 F8 199 -3.896
50 F8 200 -5.849
50 F8 201 -8.779
50 F8 202 -10.732
50 F8 203 -10.244
50 F8 204 -8.291
50 F8 205 -6.337
50 F8 206 -6.337
50 F8 207 -6.826
50 F8 208 -8.291
50 F8 209 -8.291
50 F8 210 -8.291
50 F8 211 -8.291
50 F8 212 -9.267
50 F8 213 -10.732
50 F8 214 -11.709
50 F8 215 -12.197
50 F8 216 -11.709
50 F8 217 -10.732
50 F8 218 -9.267
50 F8 219 -6.826
50 F8 220 -3.408
50 F8 221 -1.943
50 F8 222 -2.431
50 F8 223 -5.849
50 F8 224 -10.732
50 F8 225 -13.173
50 F8 226 -12.685
50 F8 227 -9.267
50 F8 228 -5.849
50 F8 229 -4.384
50 F8 230 -5.849
50 F8 231 -8.779
50 F8 232 -11.709
50 F8 233 -12.197
50 F8 234 -12.197
50 F8 235 -11.709
50 F8 236 -12.685
50 F8 237 -12.685
50 F8 238 -12.197
50 F8 239 -9.755
50 F8 240 -7.314
50 F8 241 -5.849
50 F8 242 -6.826
50 F8 243 -9.755
50 F8 244 -13.662
50 F8 245 -17.080
50 F8 246 -18.545
50 F8 247 -17.568
50 F8 248 -15.615
50 F8 249 -12.685
50 F8 250 -10.244
50 F8 251 -9.267
50 F8 252 -10.732
50 F8 253 -12.685
50 F8 254 -14.638
50 F8 255 -16.103
# AF1 chan 4
50 AF1 0 7.029
50 AF1 1 8.982
50 AF1 2 10.447
50 AF1 3 12.889
50 AF1 4 14.842
50 AF1 5 15.330
50 AF1 6 13.865
50 AF1 7 10.935
50 AF1 8 7.517
50 AF1 9 5.564
50 AF1 10 5.564
50 AF1 11 7.517
50 AF1 12 9.471
50 AF1 13 10.935
50 AF1 14 11.424
50 AF1 15 11.912
50 AF1 16 12.889
50 AF1 17 13.377
50 AF1 18 12.889
50 AF1 19 9.959
50 AF1 20 6.053
50 AF1 21 2.635
50 AF1 22 0.682
50 AF1 23 0.682
50 AF1 24 1.170
50 AF1 25 1.170
50 AF1 26 0.682
50 AF1 27 1.170
50 AF1 28 2.635
50 AF1 29 4.588
50 AF1 30 6.053
50 AF1 31 5.076
50 AF1 32 3.123
50 AF1 33 0.682
50 AF1 34 0.193
50 AF1 35 1.170
50 AF1 36 2.146
50 AF1 37 1.658
50 AF1 38 -0.295
50 AF1 39 -2.248
50 AF1 40 -2.248
50 AF1 41 -0.783
50 AF1 42 2.146
50 AF1 43 4.588
50 AF1 44 5.076
50 AF1 45 4.100
50 AF1 46 3.123
50 AF1 47 3.611
50 AF1 48 4.100
50 AF1 49 5.076
50 AF1 50 6.053
50 AF1 51 7.029
50 AF1 52 8.494
50 AF1 53 9.959
50 AF1 54 10.935
50 AF1 55 10.935
50 AF1 56 9.959
50 AF1 57 8.494
50 AF1 58 7.517
50 AF1 59 7.029
50 AF1 60 6.541
50 AF1 61 4.588
50 AF1 62 2.146
50 AF1 63 0.682
50 AF1 64 1.170
50 AF1 65 3.123
50 AF1 66 5.564
50 AF1 67 5.564
50 AF1 68 3.123
50 AF1 69 -0.295
50 AF1 70 -3.225
50 AF1 71 -3.225
50 AF1 72 -2.248
50 AF1 73 -1.272
50 AF1 74 -2.248
50 AF1 75 -4.201
50 AF1 76 -6.154
50 AF1 77 -7.131
50 AF1 78 -6.643
50 AF1 79 -5.666
50 AF1 80 -5.178
50 AF1 81 -5.666
50 AF1 82 -6.643
50 AF1 83 -7.131
50 AF1 84 -6.643
50 AF1 85 -5.178
50 AF1 86 -2.736
50 AF1 87 -0.295
50 AF1 88 0.682
50 AF1 89 1.170
50 AF1 90 0.682
50 AF1 91 0.682
50 AF1 92 1.658
50 AF1 93 4.100
50 AF1 94 6.053
50 AF1 95 7.029
50 AF1 96 7.029
50 AF1 97 5.076
50 AF1 98 2.635
50 AF1 99 0.193
50 AF1 100 -1.272
50 AF1 101 -2.248
50 AF1 102 -2.248
50 AF1 103 -1.760
50 AF1 104 -2.248
50 AF1 105 -2.736
50 AF1 106 -3.713
50 AF1 107 -5.178
50 AF1 108 -5.666
50 AF1 109 -5.666
50 AF1 110 -4.201
50 AF1 111 -2.736
50 AF1 112 -1.272
50 AF1 113 -0.783
50 AF1 114 -1.272
50 AF1 115 -0.783
50 AF1 116 -0.783
50 AF1 117 -0.295
50 AF1 118 -0.295
50 AF1 119 -1.272
50 AF1 120 -4.201
50 AF1 121 -6.643
50 AF1 122 -8.108
50 AF1 123 -7.131
50 AF1 124 -4.201
50 AF1 125 -1.272
50 AF1 126 0.682
50 AF1 127 1.658
50 AF1 128 1.170
50 AF1 129 1.170
50 AF1 130 1.170
50 AF1 131 1.658
50 AF1 132 2.146
50 AF1 133 1.170
50 AF1 134 -0.295
50 AF1 135 -2.248
50 AF1 136 -4.201
50 AF1 137 -4.690
50 AF1 138 -4.690
50 AF1 139 -3.713
50 AF1 140 -3.225
50 AF1 141 -3.225
50 AF1 142 -4.201
50 AF1 143 -5.666
50 AF1 144 -6.154
50 AF1 145 -5.178
50 AF1 146 -1.760
50 AF1 147 2.635
50 AF1 148 6.053
50 AF1 149 7.517
50 AF1 150 5.564
50 AF1 151 2.635
50 AF1 152 -0.783
50 AF1 153 -1.760
50 AF1 154 -0.295
50 AF1 155 2.635
50 AF1 156 5.076
50 AF1 157 5.076
50 AF1 158 4.100
50 AF1 159 2.146
50 AF1 160 2.146
50 AF1 161 3.611
50 AF1 162 5.076
50 AF1 163 5.564
50 AF1 164 4.588
50 AF1 165 3.123
50 AF1 166 3.123
50 AF1 167 4.588
50 AF1 168 7.517
50 AF1 169 10.447
50 AF1 170 10.935
50 AF1 171 9.471
50 AF1 172 6.541
50 AF1 173 4.100
50 AF1 174 3.123
50 AF1 175 4.100
50 AF1 176 5.564
50 AF1 177 5.564
50 AF1 178 4.100
50 AF1 179 1.658
50 AF1 180 -0.783
50 AF1 181 -1.760
50 AF1 182 0.193
50 AF1 183 2.635
50 AF1 184 4.588
50 AF1 185 4.588
50 AF1 186 2.635
50 AF1 187 -0.295
50 AF1 188 -2.248
50 AF1 189 -2.248
50 AF1 190 -1.272
50 AF1 191 0.193
50 AF1 192 -0.295
50 AF1 193 -1.760
50 AF1 194 -4.201
50 AF1 195 -7.131
50 AF1 196 -8.596
50 AF1 197 -8.108
50 AF1 198 -6.154
50 AF1 199 -3.713
50 AF1 200 -2.736
50 AF1 201 -3.225
50 AF1 202 -5.178
50 AF1 203 -7.131
50 AF1 204 -8.108
50 AF1 205 -7.131
50 AF1 206 -6.643
50 AF1 207 -6.154
50 AF1 208 -8.108
50 AF1 209 -9.572
50 AF1 210 -10.061
50 AF1 211 -9.084
50 AF1 212 -6.154
50 AF1 213 -4.201
50 AF1 214 -3.713
50 AF1 215 -5.178
50 AF1 216 -5.666
50 AF1 217 -5.178
50 AF1 218 -2.736
50 AF1 219 -0.295
50 AF1 220 0.682
50 AF1 221 -0.295
50 AF1 222 -2.248
50 AF1 223 -3.713
50 AF1 224 -4.690
50 AF1 225 -5.178
50 AF1 226 -5.666
50 AF1 227 -6.643
50 AF1 228 -7.619
50 AF1 229 -8.596
50 AF1 230 -8.596
50 AF1 231 -9.084
50 AF1 232 -10.061
50 AF1 233 -11.037
50 AF1 234 -12.502
50 AF1 235 -13.479
50 AF1 236 -14.455
50 AF1 237 -15.432
50 AF1 238 -14.943
50 AF1 239 -13.967
50 AF1 240 -12.502
50 AF1 241 -11.525
50 AF1 242 -12.990
50 AF1 243 -15.432
50 AF1 244 -18.361
50 AF1 245 -20.315
50 AF1 246 -20.803
50 AF1 247 -18.850
50 AF1 248 -17.873
50 AF1 249 -17.873
50 AF1 250 -19.338
50 AF1 251 -20.803
50 AF1 252 -21.779
50 AF1 253 -20.803
50 AF1 254 -18.850
50 AF1 255 -16.897
# AF2 chan 5
50 AF2 0 6.541
50 AF2 1 7.029
50 AF2 2 8.494
50 AF2 3 9.959
50 AF2 4 10.935
50 AF2 5 11.424
50 AF2 6 10.447
50 AF2 7 8.006
50 AF2 8 5.564
50 AF2 9 4.588
50 AF2 10 4.100
50 AF2 11 4.588
50 AF2 12 5.076
50 AF2 13 5.076
50 AF2 14 6.053
50 AF2 15 8.006
50 AF2 16 10.935
50 AF2 17 13.865
50 AF2 18 14.353
50 AF2 19 12.889
50 AF2 20 8.982
50 AF2 21 5.564
50 AF2 22 3.123
50 AF2 23 1.658
50 AF2 24 1.170
50 AF2 25 0.682
50 AF2 26 0.193
50 AF2 27 0.193
50 AF2 28 1.170
50 AF2 29 2.146
50 AF2 30 3.123
50 AF2 31 3.611
50 AF2 32 3.123
50 AF2 33 2.635
50 AF2 34 2.635
50 AF2 35 2.146
50 AF2 36 1.658
50 AF2 37 -0.295
50 AF2 38 -1.760
50 AF2 39 -3.713
50 AF2 40 -3.713
50 AF2 41 -2.248
50 AF2 42 -0.783
50 AF2 43 1.170
50 AF2 44 2.635
50 AF2 45 3.123
50 AF2 46 3.123
50 AF2 47 2.635
50 AF2 48 1.658
50 AF2 49 1.170
50 AF2 50 2.146
50 AF2 51 3.611
50 AF2 52 5.076
50 AF2 53 6.541
50 AF2 54 6.541
50 AF2 55 5.564
50 AF2 56 5.076
50 AF2 57 5.564
50 AF2 58 5.564
50 AF2 59 5.564
50 AF2 60 4.100
50 AF2 61 1.170
50 AF2 62 -1.760
50 AF2 63 -2.736
50 AF2 64 -1.760
50 AF2 65 0.682
50 AF2 66 2.635
50 AF2 67 3.611
50 AF2 68 3.123
50 AF2 69 1.170
50 AF2 70 0.193
50 AF2 71 -0.783
50 AF2 72 -2.248
50 AF2 73 -3.225
50 AF2 74 -4.690
50 AF2 75 -5.178
50 AF2 76 -5.178
50 AF2 77 -3.713
50 AF2 78 -2.736
50 AF2 79 -1.272
50 AF2 80 -0.783
50 AF2 81 -1.272
50 AF2 82 -1.760
50 AF2 83 -1.760
50 AF2 84 -1.760
50 AF2 85 -0.783
50 AF2 86 1.170
50 AF2 87 3.123
50 AF2 88 5.076
50 AF2 89 6.053
50 AF2 90 7.029
50 AF2 91 8.494
50 AF2 92 10.447
50 AF2 93 12.889
50 AF2 94 14.842
50 AF2 95 15.330
50 AF2 96 13.865
50 AF2 97 11.424
50 AF2 98 8.982
50 AF2 99 7.029
50 AF2 100 7.029
50 AF2 101 7.517
50 AF2 102 8.006
50 AF2 103 8.494
50 AF2 104 8.494
50 AF2 105 8.006
50 AF2 106 7.029
50 AF2 107 4.588
50 AF2 108 2.146
50 AF2 109 0.682
50 AF2 110 0.682
50 AF2 111 2.146
50 AF2 112 4.100
50 AF2 113 5.564
50 AF2 114 6.053
50 AF2 115 6.541
50 AF2 116 7.029
50 AF2 117 7.517
50 AF2 118 8.494
50 AF2 119 7.517
50 AF2 120 5.564
50 AF2 121 2.635
50 AF2 122 1.658
50 AF2 123 3.123
50 AF2 124 7.029
50 AF2 125 10.935
50 AF2 126 12.889
50 AF2 127 13.377
50 AF2 128 12.400
50 AF2 129 11.912
50 AF2 130 12.400
50 AF2 131 13.865
50 AF2 132 14.842
50 AF2 133 13.865
50 AF2 134 11.912
50 AF2 135 9.959
50 AF2 136 8.982
50 AF2 137 8.494
50 AF2 138 8.494
50 AF2 139 8.006
50 AF2 140 7.029
50 AF2 141 5.564
50 AF2 142 4.588
50 AF2 143 4.588
50 AF2 144 6.053
50 AF2 145 8.006
50 AF2 146 10.935
50 AF2 147 13.865
50 AF2 148 16.307
50 AF2 149 16.795
50 AF2 150 15.818
50 AF2 151 13.377
50 AF2 152 10.447
50 AF2 153 8.982
50 AF2 154 9.471
50 AF2 155 11.912
50 AF2 156 13.865
50 AF2 157 13.865
50 AF2 158 12.400
50 AF2 159 10.447
50 AF2 160 8.982
50 AF2 161 9.471
50 AF2 162 11.424
50 AF2 163 13.377
50 AF2 164 14.353
50 AF2 165 14.353
50 AF2 166 13.377
50 AF2 167 13.377
50 AF2 168 14.842
50 AF2 169 16.795
50 AF2 170 17.771
50 AF2 171 17.283
50 AF2 172 14.842
50 AF2 173 12.400
50 AF2 174 11.424
50 AF2 175 12.400
50 AF2 176 14.353
50 AF2 177 15.818
50 AF2 178 16.307
50 AF2 179 15.330
50 AF2 180 13.865
50 AF2 181 13.377
50 AF2 182 14.842
50 AF2 183 17.283
50 AF2 184 18.748
50 AF2 185 19.236
50 AF2 186 17.771
50 AF2 187 16.307
50 AF2 188 15.330
50 AF2 189 15.818
50 AF2 190 16.307
50 AF2 191 16.307
50 AF2 192 15.330
50 AF2 193 13.377
50 AF2 194 11.424
50 AF2 195 9.471
50 AF2 196 8.494
50 AF2 197 8.006
50 AF2 198 8.982
50 AF2 199 9.471
50 AF2 200 9.959
50 AF2 201 8.982
50 AF2 202 8.006
50 AF2 203 6.541
50 AF2 204 6.053
50 AF2 205 6.053
50 AF2 206 5.564
50 AF2 207 4.588
50 AF2 208 3.611
50 AF2 209 3.123
50 AF2 210 4.100
50 AF2 211 5.564
50 AF2 212 7.029
50 AF2 213 7.029
50 AF2 214 6.053
50 AF2 215 4.588
50 AF2 216 4.588
50 AF2 217 6.541
50 AF2 218 10.447
50 AF2 219 13.865
50 AF2 220 16.307
50 AF2 221 15.818
50 AF2 222 14.842
50 AF2 223 13.377
50 AF2 224 11.912
50 AF2 225 10.935
50 AF2 226 9.471
50 AF2 227 8.006
50 AF2 228 6.541
50 AF2 229 5.564
50 AF2 230 5.076
50 AF2 231 4.588
50 AF2 232 4.100
50 AF2 233 3.123
50 AF2 234 2.635
50 AF2 235 2.146
50 AF2 236 2.146
50 AF2 237 2.146
50 AF2 238 2.146
50 AF2 239 3.123
50 AF2 240 4.100
50 AF2 241 5.076
50 AF2 242 5.076
50 AF2 243 3.611
50 AF2 244 1.170
50 AF2 245 -1.272
50 AF2 246 -2.736
50 AF2 247 -2.248
50 AF2 248 -0.783
50 AF2 249 -0.295
50 AF2 250 -0.783
50 AF2 251 -2.248
50 AF2 252 -2.736
50 AF2 253 -2.248
50 AF2 254 0.682
50 AF2 255 3.123
# FZ chan 6
50 FZ 0 2.899
50 FZ 1 3.876
50 FZ 2 5.341
50 FZ 3 6.317
50 FZ 4 7.294
50 FZ 5 7.294
50 FZ 6 5.829
50 FZ 7 3.876
50 FZ 8 1.923
50 FZ 9 0.946
50 FZ 10 1.434
50 FZ 11 2.411
50 FZ 12 3.876
50 FZ 13 4.852
50 FZ 14 6.317
50 FZ 15 7.294
50 FZ 16 8.759
50 FZ 17 9.735
50 FZ 18 9.247
50 FZ 19 7.294
50 FZ 20 4.364
50 FZ 21 1.434
50 FZ 22 -1.007
50 FZ 23 -1.984
50 FZ 24 -2.472
50 FZ 25 -1.984
50 FZ 26 -1.495
50 FZ 27 -0.519
50 FZ 28 -0.031
50 FZ 29 0.946
50 FZ 30 0.946
50 FZ 31 0.458
50 FZ 32 -0.031
50 FZ 33 -0.519
50 FZ 34 -1.007
50 FZ 35 -1.007
50 FZ 36 -1.984
50 FZ 37 -3.937
50 FZ 38 -5.402
50 FZ 39 -5.890
50 FZ 40 -4.425
50 FZ 41 -1.984
50 FZ 42 0.458
50 FZ 43 1.923
50 FZ 44 1.923
50 FZ 45 1.923
50 FZ 46 2.899
50 FZ 47 3.387
50 FZ 48 3.876
50 FZ 49 3.387
50 FZ 50 2.899
50 FZ 51 2.899
50 FZ 52 3.876
50 FZ 53 5.341
50 FZ 54 6.805
50 FZ 55 7.294
50 FZ 56 6.805
50 FZ 57 5.341
50 FZ 58 4.852
50 FZ 59 4.852
50 FZ 60 4.852
50 FZ 61 3.876
50 FZ 62 2.899
50 FZ 63 1.923
50 FZ 64 1.434
50 FZ 65 1.923
50 FZ 66 2.899
50 FZ 67 3.876
50 FZ 68 3.387
50 FZ 69 2.411
50 FZ 70 1.923
50 FZ 71 0.946
50 FZ 72 0.458
50 FZ 73 -0.519
50 FZ 74 -1.984
50 FZ 75 -2.472
50 FZ 76 -2.960
50 FZ 77 -2.472
50 FZ 78 -1.984
50 FZ 79 -1.495
50 FZ 80 -1.495
50 FZ 81 -1.495
50 FZ 82 -1.007
50 FZ 83 -1.007
50 FZ 84 -0.519
50 FZ 85 -0.031
50 FZ 86 -0.031
50 FZ 87 0.946
50 FZ 88 1.923
50 FZ 89 3.387
50 FZ 90 5.341
50 FZ 91 7.294
50 FZ 92 9.247
50 FZ 93 11.200
50 FZ 94 11.688
50 FZ 95 11.688
50 FZ 96 10.712
50 FZ 97 9.247
50 FZ 98 7.294
50 FZ 99 5.341
50 FZ 100 4.852
50 FZ 101 4.364
50 FZ 102 4.364
50 FZ 103 4.852
50 FZ 104 4.364
50 FZ 105 3.387
50 FZ 106 1.434
50 FZ 107 -0.519
50 FZ 108 -1.984
50 FZ 109 -1.984
50 FZ 110 -0.519
50 FZ 111 0.946
50 FZ 112 2.899
50 FZ 113 3.876
50 FZ 114 3.387
50 FZ 115 2.899
50 FZ 116 2.899
50 FZ 117 2.899
50 FZ 118 3.876
50 FZ 119 3.876
50 FZ 120 2.411
50 FZ 121 -0.031
50 FZ 122 -1.495
50 FZ 123 -1.007
50 FZ 124 1.434
50 FZ 125 5.341
50 FZ 126 8.759
50 FZ 127 10.223
50 FZ 128 10.712
50 FZ 129 10.223
50 FZ 130 10.223
50 FZ 131 11.200
50 FZ 132 11.688
50 FZ 133 11.200
50 FZ 134 9.735
50 FZ 135 8.270
50 FZ 136 6.805
50 FZ 137 6.317
50 FZ 138 6.317
50 FZ 139 6.805
50 FZ 140 6.805
50 FZ 141 6.317
50 FZ 142 4.364
50 FZ 143 2.899
50 FZ 144 1.923
50 FZ 145 2.411
50 FZ 146 4.364
50 FZ 147 6.805
50 FZ 148 8.759
50 FZ 149 9.735
50 FZ 150 8.759
50 FZ 151 7.294
50 FZ 152 4.852
50 FZ 153 3.876
50 FZ 154 4.364
50 FZ 155 5.829
50 FZ 156 7.294
50 FZ 157 7.294
50 FZ 158 6.805
50 FZ 159 5.341
50 FZ 160 4.364
50 FZ 161 4.852
50 FZ 162 5.829
50 FZ 163 6.805
50 FZ 164 6.805
50 FZ 165 5.829
50 FZ 166 4.852
50 FZ 167 4.852
50 FZ 168 5.829
50 FZ 169 7.782
50 FZ 170 9.247
50 FZ 171 9.247
50 FZ 172 7.782
50 FZ 173 5.341
50 FZ 174 3.876
50 FZ 175 3.876
50 FZ 176 4.852
50 FZ 177 5.829
50 FZ 178 5.829
50 FZ 179 4.364
50 FZ 180 3.387
50 FZ 181 3.387
50 FZ 182 5.341
50 FZ 183 7.294
50 FZ 184 8.270
50 FZ 185 7.782
50 FZ 186 5.341
50 FZ 187 2.899
50 FZ 188 1.434
50 FZ 189 1.434
50 FZ 190 2.899
50 FZ 191 2.899
50 FZ 192 2.411
50 FZ 193 0.946
50 FZ 194 -1.495
50 FZ 195 -3.448
50 FZ 196 -4.425
50 FZ 197 -3.937
50 FZ 198 -2.960
50 FZ 199 -2.472
50 FZ 200 -1.984
50 FZ 201 -1.984
50 FZ 202 -2.472
50 FZ 203 -2.472
50 FZ 204 -2.472
50 FZ 205 -2.960
50 FZ 206 -3.448
50 FZ 207 -4.913
50 FZ 208 -6.378
50 FZ 209 -6.866
50 FZ 210 -6.378
50 FZ 211 -4.425
50 FZ 212 -2.472
50 FZ 213 -1.984
50 FZ 214 -2.472
50 FZ 215 -3.937
50 FZ 216 -3.937
50 FZ 217 -2.960
50 FZ 218 0.458
50 FZ 219 3.387
50 FZ 220 4.364
50 FZ 221 3.876
50 FZ 222 1.923
50 FZ 223 -0.519
50 FZ 224 -1.984
50 FZ 225 -2.960
50 FZ 226 -3.937
50 FZ 227 -4.425
50 FZ 228 -5.402
50 FZ 229 -6.378
50 FZ 230 -6.378
50 FZ 231 -6.866
50 FZ 232 -7.355
50 FZ 233 -7.843
50 FZ 234 -8.820
50 FZ 235 -9.796
50 FZ 236 -10.773
50 FZ 237 -11.261
50 FZ 238 -10.773
50 FZ 239 -9.796
50 FZ 240 -7.843
50 FZ 241 -6.866
50 FZ 242 -6.866
50 FZ 243 -8.331
50 FZ 244 -10.284
50 FZ 245 -12.238
50 FZ 246 -12.726
50 FZ 247 -12.238
50 FZ 248 -10.773
50 FZ 249 -10.284
50 FZ 250 -10.284
50 FZ 251 -10.284
50 FZ 252 -9.796
50 FZ 253 -8.820
50 FZ 254 -6.866
50 FZ 255 -6.378
# F4 chan 7
50 F4 0 3.530
50 F4 1 4.018
50 F4 2 5.483
50 F4 3 6.948
50 F4 4 7.436
50 F4 5 6.948
50 F4 6 5.483
50 F4 7 3.530
50 F4 8 2.065
50 F4 9 1.577
50 F4 10 2.065
50 F4 11 3.042
50 F4 12 3.530
50 F4 13 4.018
50 F4 14 4.506
50 F4 15 5.971
50 F4 16 8.413
50 F4 17 10.366
50 F4 18 11.342
50 F4 19 10.366
50 F4 20 7.436
50 F4 21 3.530
50 F4 22 1.088
50 F4 23 -0.376
50 F4 24 -0.865
50 F4 25 0.112
50 F4 26 1.088
50 F4 27 2.065
50 F4 28 3.042
50 F4 29 3.042
50 F4 30 2.553
50 F4 31 2.065
50 F4 32 2.065
50 F4 33 1.577
50 F4 34 2.065
50 F4 35 2.065
50 F4 36 1.577
50 F4 37 0.600
50 F4 38 -0.865
50 F4 39 -1.353
50 F4 40 -1.841
50 F4 41 -1.841
50 F4 42 -1.841
50 F4 43 -1.353
50 F4 44 -0.865
50 F4 45 -0.376
50 F4 46 0.112
50 F4 47 0.600
50 F4 48 0.600
50 F4 49 0.600
50 F4 50 2.065
50 F4 51 4.018
50 F4 52 6.460
50 F4 53 7.924
50 F4 54 7.436
50 F4 55 5.971
50 F4 56 4.506
50 F4 57 4.018
50 F4 58 4.018
50 F4 59 4.018
50 F4 60 1.577
50 F4 61 -1.841
50 F4 62 -4.771
50 F4 63 -5.259
50 F4 64 -3.794
50 F4 65 -0.376
50 F4 66 2.553
50 F4 67 3.530
50 F4 68 3.042
50 F4 69 2.065
50 F4 70 2.065
50 F4 71 2.065
50 F4 72 1.088
50 F4 73 -0.865
50 F4 74 -2.330
50 F4 75 -3.306
50 F4 76 -2.330
50 F4 77 -0.376
50 F4 78 1.577
50 F4 79 2.553
50 F4 80 2.065
50 F4 81 1.088
50 F4 82 0.112
50 F4 83 -0.376
50 F4 84 -0.376
50 F4 85 -1.353
50 F4 86 -2.330
50 F4 87 -2.818
50 F4 88 -2.330
50 F4 89 -0.865
50 F4 90 1.577
50 F4 91 4.018
50 F4 92 5.971
50 F4 93 6.948
50 F4 94 6.948
50 F4 95 6.460
50 F4 96 5.483
50 F4 97 4.506
50 F4 98 3.042
50 F4 99 2.065
50 F4 100 2.065
50 F4 101 1.577
50 F4 102 2.065
50 F4 103 2.553
50 F4 104 2.553
50 F4 105 2.065
50 F4 106 0.112
50 F4 107 -2.330
50 F4 108 -4.283
50 F4 109 -4.771
50 F4 110 -3.794
50 F4 111 -1.353
50 F4 112 0.112
50 F4 113 0.600
50 F4 114 0.112
50 F4 115 -0.376
50 F4 116 0.112
50 F4 117 1.088
50 F4 118 1.577
50 F4 119 1.088
50 F4 120 -0.376
50 F4 121 -1.841
50 F4 122 -1.841
50 F4 123 0.112
50 F4 124 3.042
50 F4 125 5.483
50 F4 126 6.460
50 F4 127 5.971
50 F4 128 5.483
50 F4 129 5.971
50 F4 130 6.948
50 F4 131 7.924
50 F4 132 7.436
50 F4 133 5.971
50 F4 134 4.506
50 F4 135 3.042
50 F4 136 2.065
50 F4 137 1.577
50 F4 138 1.577
50 F4 139 1.577
50 F4 140 1.577
50 F4 141 1.577
50 F4 142 1.577
50 F4 143 1.577
50 F4 144 1.577
50 F4 145 2.065
50 F4 146 4.506
50 F4 147 7.436
50 F4 148 9.389
50 F4 149 9.878
50 F4 150 7.924
50 F4 151 5.483
50 F4 152 3.042
50 F4 153 3.042
50 F4 154 4.018
50 F4 155 5.483
50 F4 156 6.460
50 F4 157 5.483
50 F4 158 3.042
50 F4 159 1.577
50 F4 160 0.600
50 F4 161 1.088
50 F4 162 1.088
50 F4 163 0.600
50 F4 164 0.112
50 F4 165 -0.376
50 F4 166 0.112
50 F4 167 1.577
50 F4 168 4.018
50 F4 169 6.460
50 F4 170 7.924
50 F4 171 7.436
50 F4 172 5.971
50 F4 173 4.018
50 F4 174 3.042
50 F4 175 3.042
50 F4 176 4.995
50 F4 177 5.971
50 F4 178 6.948
50 F4 179 5.971
50 F4 180 4.506
50 F4 181 3.530
50 F4 182 4.506
50 F4 183 6.460
50 F4 184 8.413
50 F4 185 9.389
50 F4 186 8.901
50 F4 187 7.436
50 F4 188 5.971
50 F4 189 5.971
50 F4 190 6.948
50 F4 191 7.924
50 F4 192 7.924
50 F4 193 6.460
50 F4 194 4.018
50 F4 195 1.088
50 F4 196 -0.865
50 F4 197 -1.353
50 F4 198 -0.865
50 F4 199 0.112
50 F4 200 1.088
50 F4 201 0.600
50 F4 202 -0.376
50 F4 203 -0.865
50 F4 204 -0.865
50 F4 205 -1.353
50 F4 206 -1.841
50 F4 207 -2.818
50 F4 208 -3.794
50 F4 209 -3.306
50 F4 210 -2.330
50 F4 211 -0.865
50 F4 212 -0.376
50 F4 213 -1.841
50 F4 214 -3.794
50 F4 215 -5.259
50 F4 216 -4.771
50 F4 217 -3.306
50 F4 218 -0.865
50 F4 219 1.577
50 F4 220 2.553
50 F4 221 3.042
50 F4 222 2.065
50 F4 223 1.088
50 F4 224 -0.376
50 F4 225 -1.353
50 F4 226 -2.818
50 F4 227 -3.306
50 F4 228 -2.818
50 F4 229 -2.818
50 F4 230 -2.330
50 F4 231 -2.818
50 F4 232 -3.306
50 F4 233 -3.794
50 F4 234 -4.283
50 F4 235 -4.283
50 F4 236 -4.283
50 F4 237 -4.283
50 F4 238 -4.771
50 F4 239 -4.283
50 F4 240 -2.818
50 F4 241 -1.353
50 F4 242 -1.353
50 F4 243 -3.306
50 F4 244 -6.236
50 F4 245 -8.677
50 F4 246 -10.142
50 F4 247 -9.165
50 F4 248 -7.212
50 F4 249 -5.259
50 F4 250 -4.771
50 F4 251 -5.259
50 F4 252 -5.747
50 F4 253 -6.236
50 F4 254 -5.747
50 F4 255 -4.771
# F3 chan 8
50 F3 0 7.812
50 F3 1 9.277
50 F3 2 10.742
50 F3 3 11.719
50 F3 4 12.695
50 F3 5 12.207
50 F3 6 10.742
50 F3 7 8.301
50 F3 8 5.859
50 F3 9 4.395
50 F3 10 4.395
50 F3 11 5.371
50 F3 12 7.324
50 F3 13 9.277
50 F3 14 10.254
50 F3 15 11.230
50 F3 16 11.230
50 F3 17 10.254
50 F3 18 7.324
50 F3 19 4.395
50 F3 20 1.465
50 F3 21 -0.488
50 F3 22 -0.488
50 F3 23 -0.488
50 F3 24 -0.488
50 F3 25 0.000
50 F3 26 0.000
50 F3 27 0.977
50 F3 28 2.441
50 F3 29 3.906
50 F3 30 3.906
50 F3 31 3.418
50 F3 32 1.953
50 F3 33 1.465
50 F3 34 1.465
50 F3 35 1.465
50 F3 36 0.488
50 F3 37 -1.465
50 F3 38 -3.906
50 F3 39 -4.883
50 F3 40 -3.418
50 F3 41 -0.977
50 F3 42 1.465
50 F3 43 2.930
50 F3 44 2.930
50 F3 45 2.930
50 F3 46 3.906
50 F3 47 5.371
50 F3 48 6.836
50 F3 49 6.348
50 F3 50 4.883
50 F3 51 3.418
50 F3 52 2.441
50 F3 53 3.418
50 F3 54 4.883
50 F3 55 5.859
50 F3 56 5.859
50 F3 57 5.371
50 F3 58 5.371
50 F3 59 5.859
50 F3 60 7.324
50 F3 61 7.812
50 F3 62 7.324
50 F3 63 5.371
50 F3 64 3.906
50 F3 65 3.418
50 F3 66 3.418
50 F3 67 3.906
50 F3 68 3.906
50 F3 69 2.441
50 F3 70 0.488
50 F3 71 -1.465
50 F3 72 -2.441
50 F3 73 -2.441
50 F3 74 -2.441
50 F3 75 -2.441
50 F3 76 -3.418
50 F3 77 -4.883
50 F3 78 -5.371
50 F3 79 -5.371
50 F3 80 -4.395
50 F3 81 -2.441
50 F3 82 -1.953
50 F3 83 -2.441
50 F3 84 -3.418
50 F3 85 -3.906
50 F3 86 -3.418
50 F3 87 -1.953
50 F3 88 0.000
50 F3 89 1.465
50 F3 90 2.930
50 F3 91 4.395
50 F3 92 6.836
50 F3 93 9.766
50 F3 94 12.207
50 F3 95 12.695
50 F3 96 11.719
50 F3 97 9.277
50 F3 98 6.836
50 F3 99 4.883
50 F3 100 3.906
50 F3 101 2.930
50 F3 102 2.930
50 F3 103 2.930
50 F3 104 2.441
50 F3 105 2.441
50 F3 106 1.953
50 F3 107 1.465
50 F3 108 1.465
50 F3 109 1.953
50 F3 110 3.418
50 F3 111 4.883
50 F3 112 5.371
50 F3 113 4.395
50 F3 114 2.930
50 F3 115 2.441
50 F3 116 2.441
50 F3 117 2.930
50 F3 118 3.418
50 F3 119 2.930
50 F3 120 0.977
50 F3 121 -1.953
50 F3 122 -4.395
50 F3 123 -4.883
50 F3 124 -2.930
50 F3 125 0.977
50 F3 126 4.883
50 F3 127 7.324
50 F3 128 7.812
50 F3 129 6.836
50 F3 130 5.371
50 F3 131 4.395
50 F3 132 4.883
50 F3 133 5.371
50 F3 134 4.883
50 F3 135 2.930
50 F3 136 0.000
50 F3 137 -2.441
50 F3 138 -2.930
50 F3 139 -1.465
50 F3 140 1.465
50 F3 141 2.930
50 F3 142 1.465
50 F3 143 -1.953
50 F3 144 -4.883
50 F3 145 -5.371
50 F3 146 -2.441
50 F3 147 1.953
50 F3 148 5.859
50 F3 149 7.324
50 F3 150 5.859
50 F3 151 3.418
50 F3 152 1.465
50 F3 153 2.441
50 F3 154 4.395
50 F3 155 6.836
50 F3 156 7.812
50 F3 157 7.324
50 F3 158 7.324
50 F3 159 6.836
50 F3 160 7.812
50 F3 161 9.277
50 F3 162 10.742
50 F3 163 11.230
50 F3 164 10.742
50 F3 165 9.766
50 F3 166 8.301
50 F3 167 8.301
50 F3 168 9.277
50 F3 169 11.230
50 F3 170 12.695
50 F3 171 13.184
50 F3 172 11.230
50 F3 173 8.789
50 F3 174 7.324
50 F3 175 6.836
50 F3 176 8.301
50 F3 177 10.254
50 F3 178 10.742
50 F3 179 9.766
50 F3 180 8.789
50 F3 181 8.789
50 F3 182 10.254
50 F3 183 12.695
50 F3 184 13.672
50 F3 185 13.184
50 F3 186 10.742
50 F3 187 8.301
50 F3 188 7.324
50 F3 189 8.301
50 F3 190 9.766
50 F3 191 10.742
50 F3 192 10.742
50 F3 193 9.277
50 F3 194 7.324
50 F3 195 5.859
50 F3 196 5.859
50 F3 197 5.859
50 F3 198 6.348
50 F3 199 6.836
50 F3 200 6.836
50 F3 201 6.348
50 F3 202 6.836
50 F3 203 7.324
50 F3 204 7.812
50 F3 205 7.812
50 F3 206 7.324
50 F3 207 5.371
50 F3 208 4.395
50 F3 209 3.906
50 F3 210 5.371
50 F3 211 8.301
50 F3 212 11.230
50 F3 213 11.719
50 F3 214 10.254
50 F3 215 7.324
50 F3 216 6.348
50 F3 217 8.301
50 F3 218 12.695
50 F3 219 17.090
50 F3 220 19.531
50 F3 221 18.066
50 F3 222 14.160
50 F3 223 10.742
50 F3 224 8.301
50 F3 225 7.324
50 F3 226 6.836
50 F3 227 6.348
50 F3 228 4.883
50 F3 229 2.930
50 F3 230 1.953
50 F3 231 1.465
50 F3 232 0.977
50 F3 233 0.977
50 F3 234 0.977
50 F3 235 0.000
50 F3 236 -1.465
50 F3 237 -2.441
50 F3 238 -2.930
50 F3 239 -1.465
50 F3 240 0.977
50 F3 241 2.441
50 F3 242 1.953
50 F3 243 -0.488
50 F3 244 -3.906
50 F3 245 -6.348
50 F3 246 -7.324
50 F3 247 -6.348
50 F3 248 -5.371
50 F3 249 -5.371
50 F3 250 -6.348
50 F3 251 -7.324
50 F3 252 -6.348
50 F3 253 -4.395
50 F3 254 -1.953
50 F3 255 0.000
# FC6 chan 9
50 FC6 0 4.395
50 FC6 1 4.883
50 FC6 2 5.371
50 FC6 3 6.348
50 FC6 4 7.324
50 FC6 5 6.836
50 FC6 6 5.371
50 FC6 7 2.930
50 FC6 8 1.465
50 FC6 9 1.953
50 FC6 10 3.906
50 FC6 11 5.859
50 FC6 12 6.836
50 FC6 13 7.324
50 FC6 14 7.324
50 FC6 15 7.812
50 FC6 16 9.277
50 FC6 17 10.254
50 FC6 18 10.254
50 FC6 19 9.766
50 FC6 20 7.812
50 FC6 21 5.859
50 FC6 22 4.395
50 FC6 23 4.395
50 FC6 24 4.395
50 FC6 25 4.883
50 FC6 26 4.883
50 FC6 27 5.371
50 FC6 28 5.371
50 FC6 29 5.371
50 FC6 30 4.883
50 FC6 31 4.883
50 FC6 32 4.883
50 FC6 33 5.859
50 FC6 34 7.812
50 FC6 35 9.277
50 FC6 36 9.766
50 FC6 37 8.789
50 FC6 38 7.324
50 FC6 39 5.371
50 FC6 40 3.906
50 FC6 41 3.906
50 FC6 42 4.395
50 FC6 43 5.371
50 FC6 44 6.348
50 FC6 45 6.348
50 FC6 46 6.348
50 FC6 47 5.859
50 FC6 48 5.859
50 FC6 49 6.348
50 FC6 50 7.324
50 FC6 51 8.301
50 FC6 52 8.789
50 FC6 53 7.812
50 FC6 54 6.348
50 FC6 55 4.395
50 FC6 56 3.418
50 FC6 57 3.418
50 FC6 58 4.395
50 FC6 59 4.395
50 FC6 60 3.418
50 FC6 61 1.465
50 FC6 62 0.977
50 FC6 63 1.953
50 FC6 64 4.395
50 FC6 65 5.859
50 FC6 66 6.348
50 FC6 67 5.371
50 FC6 68 4.395
50 FC6 69 4.883
50 FC6 70 6.836
50 FC6 71 8.301
50 FC6 72 8.789
50 FC6 73 7.324
50 FC6 74 4.883
50 FC6 75 3.418
50 FC6 76 2.930
50 FC6 77 3.906
50 FC6 78 4.883
50 FC6 79 4.883
50 FC6 80 4.395
50 FC6 81 3.418
50 FC6 82 2.930
50 FC6 83 2.930
50 FC6 84 1.953
50 FC6 85 1.465
50 FC6 86 0.000
50 FC6 87 -0.488
50 FC6 88 0.000
50 FC6 89 0.977
50 FC6 90 1.953
50 FC6 91 2.930
50 FC6 92 4.395
50 FC6 93 5.859
50 FC6 94 7.324
50 FC6 95 8.301
50 FC6 96 8.301
50 FC6 97 6.836
50 FC6 98 4.883
50 FC6 99 3.418
50 FC6 100 2.930
50 FC6 101 3.418
50 FC6 102 4.395
50 FC6 103 5.859
50 FC6 104 5.859
50 FC6 105 4.883
50 FC6 106 1.465
50 FC6 107 -1.953
50 FC6 108 -4.395
50 FC6 109 -4.395
50 FC6 110 -1.953
50 FC6 111 1.465
50 FC6 112 4.883
50 FC6 113 6.836
50 FC6 114 6.836
50 FC6 115 7.324
50 FC6 116 7.812
50 FC6 117 8.301
50 FC6 118 7.812
50 FC6 119 5.859
50 FC6 120 3.906
50 FC6 121 2.930
50 FC6 122 3.418
50 FC6 123 5.371
50 FC6 124 7.812
50 FC6 125 9.277
50 FC6 126 9.766
50 FC6 127 9.277
50 FC6 128 8.789
50 FC6 129 8.789
50 FC6 130 8.301
50 FC6 131 7.812
50 FC6 132 6.836
50 FC6 133 5.371
50 FC6 134 3.906
50 FC6 135 2.930
50 FC6 136 1.953
50 FC6 137 0.977
50 FC6 138 0.488
50 FC6 139 0.977
50 FC6 140 1.953
50 FC6 141 3.418
50 FC6 142 4.395
50 FC6 143 5.371
50 FC6 144 5.859
50 FC6 145 6.348
50 FC6 146 6.836
50 FC6 147 7.812
50 FC6 148 9.277
50 FC6 149 9.766
50 FC6 150 9.766
50 FC6 151 9.277
50 FC6 152 8.789
50 FC6 153 8.301
50 FC6 154 7.324
50 FC6 155 7.324
50 FC6 156 7.324
50 FC6 157 6.348
50 FC6 158 5.371
50 FC6 159 3.906
50 FC6 160 2.441
50 FC6 161 1.465
50 FC6 162 0.977
50 FC6 163 1.465
50 FC6 164 1.465
50 FC6 165 1.465
50 FC6 166 1.465
50 FC6 167 1.465
50 FC6 168 1.953
50 FC6 169 2.930
50 FC6 170 3.906
50 FC6 171 3.906
50 FC6 172 2.930
50 FC6 173 0.977
50 FC6 174 -0.977
50 FC6 175 -1.465
50 FC6 176 -0.977
50 FC6 177 0.000
50 FC6 178 0.977
50 FC6 179 0.488
50 FC6 180 -0.977
50 FC6 181 -1.465
50 FC6 182 0.000
50 FC6 183 3.418
50 FC6 184 6.836
50 FC6 185 8.789
50 FC6 186 8.301
50 FC6 187 5.859
50 FC6 188 2.930
50 FC6 189 1.465
50 FC6 190 2.441
50 FC6 191 4.395
50 FC6 192 6.348
50 FC6 193 5.859
50 FC6 194 3.418
50 FC6 195 0.000
50 FC6 196 -2.441
50 FC6 197 -2.441
50 FC6 198 -1.465
50 FC6 199 -0.488
50 FC6 200 -0.488
50 FC6 201 -1.953
50 FC6 202 -3.418
50 FC6 203 -4.395
50 FC6 204 -3.418
50 FC6 205 -2.441
50 FC6 206 -2.441
50 FC6 207 -3.906
50 FC6 208 -5.371
50 FC6 209 -6.348
50 FC6 210 -6.348
50 FC6 211 -5.859
50 FC6 212 -4.883
50 FC6 213 -4.883
50 FC6 214 -5.371
50 FC6 215 -5.859
50 FC6 216 -4.883
50 FC6 217 -2.441
50 FC6 218 0.488
50 FC6 219 2.930
50 FC6 220 4.395
50 FC6 221 4.395
50 FC6 222 2.441
50 FC6 223 0.000
50 FC6 224 -2.930
50 FC6 225 -4.883
50 FC6 226 -5.371
50 FC6 227 -3.906
50 FC6 228 -2.441
50 FC6 229 -1.465
50 FC6 230 -1.465
50 FC6 231 -2.930
50 FC6 232 -4.395
50 FC6 233 -5.371
50 FC6 234 -5.859
50 FC6 235 -5.371
50 FC6 236 -4.395
50 FC6 237 -3.906
50 FC6 238 -2.930
50 FC6 239 -1.465
50 FC6 240 0.977
50 FC6 241 3.418
50 FC6 242 4.395
50 FC6 243 3.418
50 FC6 244 1.465
50 FC6 245 -0.977
50 FC6 246 -2.930
50 FC6 247 -3.418
50 FC6 248 -1.953
50 FC6 249 -0.488
50 FC6 250 0.488
50 FC6 251 0.000
50 FC6 252 -0.977
50 FC6 253 -2.441
50 FC6 254 -3.418
50 FC6 255 -4.395
# FC5 chan 10
50 FC5 0 16.795
50 FC5 1 17.283
50 FC5 2 15.330
50 FC5 3 11.424
50 FC5 4 8.006
50 FC5 5 7.029
50 FC5 6 7.517
50 FC5 7 8.982
50 FC5 8 9.471
50 FC5 9 8.982
50 FC5 10 8.494
50 FC5 11 9.471
50 FC5 12 11.912
50 FC5 13 13.865
50 FC5 14 14.353
50 FC5 15 11.424
50 FC5 16 7.517
50 FC5 17 4.588
50 FC5 18 4.100
50 FC5 19 6.053
50 FC5 20 7.517
50 FC5 21 7.029
50 FC5 22 3.611
50 FC5 23 -0.295
50 FC5 24 -3.225
50 FC5 25 -3.713
50 FC5 26 -2.248
50 FC5 27 0.193
50 FC5 28 0.682
50 FC5 29 -0.295
50 FC5 30 -0.295
50 FC5 31 1.170
50 FC5 32 4.588
50 FC5 33 8.982
50 FC5 34 10.447
50 FC5 35 8.006
50 FC5 36 2.146
50 FC5 37 -4.201
50 FC5 38 -7.131
50 FC5 39 -5.178
50 FC5 40 -0.295
50 FC5 41 4.100
50 FC5 42 5.564
50 FC5 43 3.123
50 FC5 44 -0.783
50 FC5 45 -1.760
50 FC5 46 0.193
50 FC5 47 5.076
50 FC5 48 8.006
50 FC5 49 7.029
50 FC5 50 2.635
50 FC5 51 -2.248
50 FC5 52 -4.201
50 FC5 53 -2.736
50 FC5 54 1.170
50 FC5 55 4.588
50 FC5 56 5.564
50 FC5 57 4.100
50 FC5 58 2.635
50 FC5 59 3.123
50 FC5 60 4.588
50 FC5 61 6.541
50 FC5 62 6.541
50 FC5 63 4.588
50 FC5 64 1.170
50 FC5 65 -1.760
50 FC5 66 -2.736
50 FC5 67 -2.736
50 FC5 68 -2.248
50 FC5 69 -2.736
50 FC5 70 -4.690
50 FC5 71 -6.643
50 FC5 72 -8.108
50 FC5 73 -7.619
50 FC5 74 -6.643
50 FC5 75 -6.643
50 FC5 76 -8.108
50 FC5 77 -10.061
50 FC5 78 -11.037
50 FC5 79 -9.572
50 FC5 80 -6.154
50 FC5 81 -3.225
50 FC5 82 -3.225
50 FC5 83 -8.108
50 FC5 84 -14.455
50 FC5 85 -19.826
50 FC5 86 -19.826
50 FC5 87 -15.432
50 FC5 88 -9.084
50 FC5 89 -5.178
50 FC5 90 -4.690
50 FC5 91 -5.666
50 FC5 92 -5.666
50 FC5 93 -2.736
50 FC5 94 1.658
50 FC5 95 4.100
50 FC5 96 3.123
50 FC5 97 -0.295
50 FC5 98 -3.225
50 FC5 99 -3.225
50 FC5 100 -1.272
50 FC5 101 0.682
50 FC5 102 1.170
50 FC5 103 -1.272
50 FC5 104 -4.690
50 FC5 105 -5.666
50 FC5 106 -4.201
50 FC5 107 -1.272
50 FC5 108 2.146
50 FC5 109 3.611
50 FC5 110 3.123
50 FC5 111 2.635
50 FC5 112 2.635
50 FC5 113 3.123
50 FC5 114 3.611
50 FC5 115 2.146
50 FC5 116 -0.295
50 FC5 117 -2.248
50 FC5 118 -1.760
50 FC5 119 0.193
50 FC5 120 2.146
50 FC5 121 0.682
50 FC5 122 -4.690
50 FC5 123 -10.549
50 FC5 124 -13.479
50 FC5 125 -10.061
50 FC5 126 -2.248
50 FC5 127 5.076
50 FC5 128 7.029
50 FC5 129 4.100
50 FC5 130 -0.295
50 FC5 131 -2.736
50 FC5 132 -1.272
50 FC5 133 2.635
50 FC5 134 4.100
50 FC5 135 0.682
50 FC5 136 -6.154
50 FC5 137 -12.502
50 FC5 138 -14.943
50 FC5 139 -11.525
50 FC5 140 -6.154
50 FC5 141 -2.736
50 FC5 142 -4.201
50 FC5 143 -9.084
50 FC5 144 -14.455
50 FC5 145 -15.920
50 FC5 146 -12.990
50 FC5 147 -7.131
50 FC5 148 -2.248
50 FC5 149 -0.295
50 FC5 150 -1.272
50 FC5 151 -3.713
50 FC5 152 -5.178
50 FC5 153 -4.690
50 FC5 154 -3.713
50 FC5 155 -1.760
50 FC5 156 -0.783
50 FC5 157 -0.295
50 FC5 158 -0.295
50 FC5 159 0.193
50 FC5 160 0.682
50 FC5 161 1.658
50 FC5 162 2.635
50 FC5 163 3.123
50 FC5 164 1.658
50 FC5 165 -1.272
50 FC5 166 -5.178
50 FC5 167 -7.131
50 FC5 168 -5.178
50 FC5 169 -0.295
50 FC5 170 4.100
50 FC5 171 4.100
50 FC5 172 -1.272
50 FC5 173 -8.596
50 FC5 174 -14.943
50 FC5 175 -15.920
50 FC5 176 -11.525
50 FC5 177 -7.131
50 FC5 178 -4.690
50 FC5 179 -6.154
50 FC5 180 -8.596
50 FC5 181 -9.572
50 FC5 182 -7.131
50 FC5 183 -4.201
50 FC5 184 -2.248
50 FC5 185 -3.713
50 FC5 186 -6.643
50 FC5 187 -9.084
50 FC5 188 -9.084
50 FC5 189 -7.131
50 FC5 190 -3.713
50 FC5 191 -2.736
50 FC5 192 -4.201
50 FC5 193 -7.131
50 FC5 194 -9.572
50 FC5 195 -10.549
50 FC5 196 -8.596
50 FC5 197 -5.666
50 FC5 198 -3.713
50 FC5 199 -3.713
50 FC5 200 -4.690
50 FC5 201 -6.643
50 FC5 202 -7.131
50 FC5 203 -5.666
50 FC5 204 -3.225
50 FC5 205 -1.272
50 FC5 206 -1.760
50 FC5 207 -3.225
50 FC5 208 -5.666
50 FC5 209 -5.178
50 FC5 210 -1.760
50 FC5 211 3.611
50 FC5 212 8.494
50 FC5 213 8.494
50 FC5 214 3.123
50 FC5 215 -5.178
50 FC5 216 -11.037
50 FC5 217 -10.061
50 FC5 218 -2.736
50 FC5 219 6.053
50 FC5 220 11.424
50 FC5 221 9.471
50 FC5 222 2.635
50 FC5 223 -4.201
50 FC5 224 -7.131
50 FC5 225 -6.154
50 FC5 226 -3.713
50 FC5 227 -2.248
50 FC5 228 -4.201
50 FC5 229 -8.108
50 FC5 230 -10.549
50 FC5 231 -10.549
50 FC5 232 -8.108
50 FC5 233 -5.666
50 FC5 234 -4.690
50 FC5 235 -7.131
50 FC5 236 -12.990
50 FC5 237 -18.850
50 FC5 238 -21.291
50 FC5 239 -17.873
50 FC5 240 -11.525
50 FC5 241 -5.666
50 FC5 242 -5.178
50 FC5 243 -9.572
50 FC5 244 -15.432
50 FC5 245 -17.873
50 FC5 246 -15.920
50 FC5 247 -11.525
50 FC5 248 -10.549
50 FC5 249 -14.455
50 FC5 250 -19.826
50 FC5 251 -22.268
50 FC5 252 -18.850
50 FC5 253 -11.525
50 FC5 254 -4.201
50 FC5 255 -0.295
# FC2 chan 11
50 FC2 0 0.214
50 FC2 1 0.702
50 FC2 2 2.167
50 FC2 3 3.143
50 FC2 4 3.632
50 FC2 5 3.632
50 FC2 6 2.167
50 FC2 7 0.702
50 FC2 8 -0.763
50 FC2 9 -0.763
50 FC2 10 0.702
50 FC2 11 2.167
50 FC2 12 4.120
50 FC2 13 5.096
50 FC2 14 6.073
50 FC2 15 6.561
50 FC2 16 6.561
50 FC2 17 6.073
50 FC2 18 5.585
50 FC2 19 4.608
50 FC2 20 3.143
50 FC2 21 1.190
50 FC2 22 -0.275
50 FC2 23 -0.763
50 FC2 24 0.214
50 FC2 25 1.190
50 FC2 26 2.167
50 FC2 27 3.143
50 FC2 28 2.655
50 FC2 29 2.167
50 FC2 30 1.190
50 FC2 31 1.190
50 FC2 32 1.190
50 FC2 33 1.678
50 FC2 34 2.655
50 FC2 35 2.167
50 FC2 36 1.190
50 FC2 37 -0.275
50 FC2 38 -1.740
50 FC2 39 -2.716
50 FC2 40 -2.228
50 FC2 41 -1.740
50 FC2 42 -0.763
50 FC2 43 0.214
50 FC2 44 0.702
50 FC2 45 1.190
50 FC2 46 1.190
50 FC2 47 1.190
50 FC2 48 0.702
50 FC2 49 0.214
50 FC2 50 0.702
50 FC2 51 1.678
50 FC2 52 2.655
50 FC2 53 3.632
50 FC2 54 3.143
50 FC2 55 2.655
50 FC2 56 2.167
50 FC2 57 2.167
50 FC2 58 2.655
50 FC2 59 2.655
50 FC2 60 2.167
50 FC2 61 1.190
50 FC2 62 -0.275
50 FC2 63 -0.763
50 FC2 64 -0.275
50 FC2 65 1.190
50 FC2 66 2.167
50 FC2 67 3.143
50 FC2 68 3.632
50 FC2 69 4.120
50 FC2 70 5.096
50 FC2 71 5.096
50 FC2 72 4.120
50 FC2 73 2.655
50 FC2 74 0.702
50 FC2 75 -0.763
50 FC2 76 -1.251
50 FC2 77 -1.251
50 FC2 78 -1.251
50 FC2 79 -1.740
50 FC2 80 -2.228
50 FC2 81 -2.228
50 FC2 82 -2.228
50 FC2 83 -1.251
50 FC2 84 -0.763
50 FC2 85 -0.275
50 FC2 86 0.214
50 FC2 87 0.702
50 FC2 88 1.678
50 FC2 89 2.655
50 FC2 90 3.143
50 FC2 91 3.632
50 FC2 92 4.608
50 FC2 93 5.585
50 FC2 94 6.073
50 FC2 95 6.561
50 FC2 96 6.073
50 FC2 97 4.608
50 FC2 98 2.655
50 FC2 99 0.702
50 FC2 100 -0.763
50 FC2 101 -0.275
50 FC2 102 0.702
50 FC2 103 1.190
50 FC2 104 1.190
50 FC2 105 -0.763
50 FC2 106 -3.204
50 FC2 107 -5.646
50 FC2 108 -6.622
50 FC2 109 -5.646
50 FC2 110 -3.204
50 FC2 111 -0.763
50 FC2 112 0.702
50 FC2 113 1.190
50 FC2 114 0.214
50 FC2 115 -0.763
50 FC2 116 -1.251
50 FC2 117 -0.763
50 FC2 118 -0.763
50 FC2 119 -1.740
50 FC2 120 -3.204
50 FC2 121 -4.669
50 FC2 122 -5.646
50 FC2 123 -4.669
50 FC2 124 -2.716
50 FC2 125 -0.763
50 FC2 126 1.190
50 FC2 127 2.167
50 FC2 128 2.655
50 FC2 129 2.655
50 FC2 130 2.655
50 FC2 131 2.167
50 FC2 132 1.190
50 FC2 133 0.702
50 FC2 134 0.214
50 FC2 135 0.702
50 FC2 136 1.190
50 FC2 137 1.678
50 FC2 138 1.190
50 FC2 139 0.702
50 FC2 140 0.214
50 FC2 141 0.214
50 FC2 142 -0.763
50 FC2 143 -1.251
50 FC2 144 -2.228
50 FC2 145 -2.716
50 FC2 146 -2.228
50 FC2 147 -0.275
50 FC2 148 2.167
50 FC2 149 3.143
50 FC2 150 3.143
50 FC2 151 0.702
50 FC2 152 -2.228
50 FC2 153 -4.181
50 FC2 154 -4.669
50 FC2 155 -3.693
50 FC2 156 -2.716
50 FC2 157 -2.228
50 FC2 158 -2.716
50 FC2 159 -3.693
50 FC2 160 -4.181
50 FC2 161 -4.181
50 FC2 162 -4.181
50 FC2 163 -3.693
50 FC2 164 -3.693
50 FC2 165 -3.693
50 FC2 166 -4.181
50 FC2 167 -3.693
50 FC2 168 -2.716
50 FC2 169 -1.251
50 FC2 170 -0.275
50 FC2 171 0.214
50 FC2 172 -0.763
50 FC2 173 -2.228
50 FC2 174 -3.693
50 FC2 175 -4.181
50 FC2 176 -3.693
50 FC2 177 -2.716
50 FC2 178 -1.740
50 FC2 179 -1.251
50 FC2 180 -1.251
50 FC2 181 -1.251
50 FC2 182 -0.275
50 FC2 183 0.702
50 FC2 184 1.678
50 FC2 185 1.190
50 FC2 186 0.214
50 FC2 187 -1.740
50 FC2 188 -3.693
50 FC2 189 -4.181
50 FC2 190 -3.693
50 FC2 191 -2.716
50 FC2 192 -2.228
50 FC2 193 -2.228
50 FC2 194 -3.204
50 FC2 195 -4.669
50 FC2 196 -5.157
50 FC2 197 -5.157
50 FC2 198 -4.669
50 FC2 199 -4.181
50 FC2 200 -3.204
50 FC2 201 -3.204
50 FC2 202 -3.693
50 FC2 203 -4.181
50 FC2 204 -4.669
50 FC2 205 -5.646
50 FC2 206 -6.622
50 FC2 207 -7.599
50 FC2 208 -8.087
50 FC2 209 -8.575
50 FC2 210 -8.575
50 FC2 211 -8.087
50 FC2 212 -7.111
50 FC2 213 -7.111
50 FC2 214 -7.111
50 FC2 215 -7.599
50 FC2 216 -7.111
50 FC2 217 -6.134
50 FC2 218 -3.693
50 FC2 219 -1.740
50 FC2 220 0.214
50 FC2 221 0.214
50 FC2 222 -0.763
50 FC2 223 -3.204
50 FC2 224 -5.646
50 FC2 225 -7.599
50 FC2 226 -8.575
50 FC2 227 -8.575
50 FC2 228 -8.087
50 FC2 229 -7.599
50 FC2 230 -6.622
50 FC2 231 -5.646
50 FC2 232 -5.157
50 FC2 233 -5.646
50 FC2 234 -6.622
50 FC2 235 -8.087
50 FC2 236 -9.552
50 FC2 237 -10.040
50 FC2 238 -9.064
50 FC2 239 -7.111
50 FC2 240 -5.157
50 FC2 241 -3.693
50 FC2 242 -3.204
50 FC2 243 -4.669
50 FC2 244 -6.134
50 FC2 245 -7.599
50 FC2 246 -8.575
50 FC2 247 -8.087
50 FC2 248 -7.599
50 FC2 249 -6.622
50 FC2 250 -5.646
50 FC2 251 -4.669
50 FC2 252 -4.669
50 FC2 253 -4.181
50 FC2 254 -4.669
50 FC2 255 -5.157
# FC1 chan 12
50 FC1 0 3.693
50 FC1 1 4.181
50 FC1 2 4.181
50 FC1 3 3.693
50 FC1 4 3.693
50 FC1 5 4.181
50 FC1 6 4.669
50 FC1 7 4.181
50 FC1 8 3.204
50 FC1 9 2.716
50 FC1 10 3.693
50 FC1 11 6.134
50 FC1 12 10.040
50 FC1 13 13.458
50 FC1 14 13.947
50 FC1 15 12.970
50 FC1 16 11.017
50 FC1 17 10.040
50 FC1 18 10.529
50 FC1 19 11.017
50 FC1 20 10.040
50 FC1 21 7.599
50 FC1 22 4.669
50 FC1 23 2.716
50 FC1 24 2.716
50 FC1 25 4.181
50 FC1 26 5.646
50 FC1 27 5.646
50 FC1 28 4.669
50 FC1 29 1.740
50 FC1 30 -0.702
50 FC1 31 -1.678
50 FC1 32 -1.678
50 FC1 33 0.275
50 FC1 34 3.204
50 FC1 35 5.157
50 FC1 36 6.134
50 FC1 37 5.646
50 FC1 38 3.693
50 FC1 39 2.716
50 FC1 40 2.716
50 FC1 41 3.693
50 FC1 42 5.157
50 FC1 43 6.134
50 FC1 44 6.134
50 FC1 45 6.134
50 FC1 46 6.622
50 FC1 47 7.599
50 FC1 48 8.575
50 FC1 49 8.087
50 FC1 50 6.622
50 FC1 51 4.669
50 FC1 52 3.693
50 FC1 53 4.669
50 FC1 54 6.134
50 FC1 55 7.111
50 FC1 56 7.599
50 FC1 57 7.111
50 FC1 58 6.622
50 FC1 59 7.111
50 FC1 60 8.087
50 FC1 61 8.575
50 FC1 62 8.575
50 FC1 63 8.087
50 FC1 64 7.111
50 FC1 65 7.599
50 FC1 66 8.087
50 FC1 67 8.575
50 FC1 68 8.575
50 FC1 69 7.111
50 FC1 70 5.646
50 FC1 71 4.181
50 FC1 72 3.204
50 FC1 73 2.228
50 FC1 74 0.763
50 FC1 75 -0.702
50 FC1 76 -2.655
50 FC1 77 -3.632
50 FC1 78 -3.143
50 FC1 79 -1.190
50 FC1 80 1.251
50 FC1 81 2.716
50 FC1 82 2.228
50 FC1 83 0.763
50 FC1 84 -1.678
50 FC1 85 -2.655
50 FC1 86 -2.655
50 FC1 87 -1.190
50 FC1 88 1.251
50 FC1 89 3.204
50 FC1 90 5.157
50 FC1 91 7.111
50 FC1 92 9.552
50 FC1 93 12.482
50 FC1 94 14.923
50 FC1 95 16.876
50 FC1 96 16.388
50 FC1 97 14.435
50 FC1 98 12.482
50 FC1 99 11.505
50 FC1 100 11.017
50 FC1 101 11.017
50 FC1 102 11.017
50 FC1 103 10.529
50 FC1 104 9.552
50 FC1 105 8.575
50 FC1 106 8.575
50 FC1 107 9.064
50 FC1 108 9.552
50 FC1 109 10.529
50 FC1 110 11.505
50 FC1 111 12.970
50 FC1 112 13.947
50 FC1 113 13.458
50 FC1 114 12.482
50 FC1 115 11.017
50 FC1 116 10.040
50 FC1 117 9.552
50 FC1 118 10.040
50 FC1 119 9.552
50 FC1 120 8.575
50 FC1 121 6.622
50 FC1 122 4.669
50 FC1 123 3.693
50 FC1 124 4.181
50 FC1 125 6.622
50 FC1 126 9.552
50 FC1 127 11.993
50 FC1 128 13.947
50 FC1 129 14.435
50 FC1 130 14.435
50 FC1 131 13.458
50 FC1 132 11.993
50 FC1 133 11.505
50 FC1 134 11.017
50 FC1 135 10.529
50 FC1 136 10.040
50 FC1 137 9.064
50 FC1 138 8.087
50 FC1 139 8.087
50 FC1 140 9.064
50 FC1 141 9.552
50 FC1 142 10.040
50 FC1 143 9.064
50 FC1 144 7.599
50 FC1 145 7.111
50 FC1 146 8.087
50 FC1 147 11.017
50 FC1 148 13.458
50 FC1 149 13.947
50 FC1 150 12.482
50 FC1 151 10.040
50 FC1 152 8.575
50 FC1 153 8.087
50 FC1 154 9.064
50 FC1 155 9.552
50 FC1 156 9.552
50 FC1 157 9.552
50 FC1 158 9.552
50 FC1 159 10.529
50 FC1 160 11.993
50 FC1 161 13.947
50 FC1 162 15.411
50 FC1 163 15.411
50 FC1 164 14.923
50 FC1 165 13.947
50 FC1 166 13.458
50 FC1 167 12.970
50 FC1 168 14.435
50 FC1 169 15.900
50 FC1 170 16.388
50 FC1 171 15.411
50 FC1 172 12.970
50 FC1 173 9.552
50 FC1 174 7.599
50 FC1 175 8.087
50 FC1 176 11.017
50 FC1 177 13.947
50 FC1 178 15.900
50 FC1 179 15.900
50 FC1 180 14.923
50 FC1 181 13.947
50 FC1 182 14.923
50 FC1 183 17.365
50 FC1 184 18.829
50 FC1 185 18.829
50 FC1 186 17.365
50 FC1 187 14.435
50 FC1 188 12.970
50 FC1 189 11.993
50 FC1 190 12.970
50 FC1 191 13.947
50 FC1 192 13.947
50 FC1 193 13.458
50 FC1 194 11.505
50 FC1 195 10.040
50 FC1 196 9.552
50 FC1 197 11.017
50 FC1 198 12.482
50 FC1 199 13.458
50 FC1 200 13.947
50 FC1 201 13.458
50 FC1 202 12.970
50 FC1 203 12.482
50 FC1 204 12.482
50 FC1 205 12.482
50 FC1 206 11.505
50 FC1 207 10.040
50 FC1 208 9.064
50 FC1 209 9.552
50 FC1 210 11.993
50 FC1 211 14.435
50 FC1 212 16.388
50 FC1 213 15.900
50 FC1 214 13.947
50 FC1 215 10.529
50 FC1 216 9.552
50 FC1 217 11.017
50 FC1 218 14.435
50 FC1 219 17.853
50 FC1 220 19.806
50 FC1 221 19.318
50 FC1 222 16.876
50 FC1 223 14.435
50 FC1 224 12.970
50 FC1 225 11.993
50 FC1 226 11.993
50 FC1 227 11.505
50 FC1 228 11.017
50 FC1 229 10.529
50 FC1 230 10.040
50 FC1 231 9.064
50 FC1 232 8.087
50 FC1 233 7.111
50 FC1 234 6.134
50 FC1 235 5.646
50 FC1 236 5.157
50 FC1 237 5.646
50 FC1 238 6.622
50 FC1 239 9.064
50 FC1 240 11.505
50 FC1 241 12.970
50 FC1 242 12.970
50 FC1 243 11.017
50 FC1 244 9.064
50 FC1 245 7.599
50 FC1 246 7.111
50 FC1 247 7.111
50 FC1 248 7.111
50 FC1 249 6.134
50 FC1 250 5.646
50 FC1 251 6.622
50 FC1 252 8.575
50 FC1 253 11.017
50 FC1 254 12.482
50 FC1 255 12.482
# T8 chan 13
50 T8 0 8.403
50 T8 1 8.403
50 T8 2 9.379
50 T8 3 10.844
50 T8 4 11.332
50 T8 5 10.356
50 T8 6 8.403
50 T8 7 6.938
50 T8 8 6.938
50 T8 9 8.403
50 T8 10 10.356
50 T8 11 12.309
50 T8 12 13.285
50 T8 13 13.285
50 T8 14 13.285
50 T8 15 14.262
50 T8 16 15.727
50 T8 17 17.192
50 T8 18 17.680
50 T8 19 16.215
50 T8 20 13.774
50 T8 21 11.332
50 T8 22 9.867
50 T8 23 9.379
50 T8 24 9.379
50 T8 25 9.379
50 T8 26 9.379
50 T8 27 8.403
50 T8 28 7.914
50 T8 29 8.891
50 T8 30 10.356
50 T8 31 11.820
50 T8 32 13.774
50 T8 33 15.238
50 T8 34 16.703
50 T8 35 17.680
50 T8 36 17.680
50 T8 37 17.192
50 T8 38 15.238
50 T8 39 12.309
50 T8 40 10.844
50 T8 41 10.356
50 T8 42 10.844
50 T8 43 11.820
50 T8 44 12.797
50 T8 45 12.797
50 T8 46 11.820
50 T8 47 10.844
50 T8 48 10.356
50 T8 49 9.867
50 T8 50 9.867
50 T8 51 10.356
50 T8 52 9.867
50 T8 53 8.403
50 T8 54 6.938
50 T8 55 5.473
50 T8 56 5.473
50 T8 57 5.961
50 T8 58 6.449
50 T8 59 6.449
50 T8 60 4.496
50 T8 61 2.543
50 T8 62 1.567
50 T8 63 3.031
50 T8 64 5.473
50 T8 65 7.426
50 T8 66 8.403
50 T8 67 8.403
50 T8 68 7.914
50 T8 69 8.403
50 T8 70 9.379
50 T8 71 11.332
50 T8 72 12.309
50 T8 73 11.332
50 T8 74 9.379
50 T8 75 7.426
50 T8 76 6.938
50 T8 77 7.426
50 T8 78 8.403
50 T8 79 8.891
50 T8 80 7.914
50 T8 81 5.473
50 T8 82 2.543
50 T8 83 -0.387
50 T8 84 -2.340
50 T8 85 -3.316
50 T8 86 -3.805
50 T8 87 -4.293
50 T8 88 -4.293
50 T8 89 -3.805
50 T8 90 -2.828
50 T8 91 -0.875
50 T8 92 1.567
50 T8 93 4.008
50 T8 94 5.473
50 T8 95 5.961
50 T8 96 5.473
50 T8 97 4.008
50 T8 98 2.055
50 T8 99 1.078
50 T8 100 0.590
50 T8 101 1.567
50 T8 102 3.031
50 T8 103 4.008
50 T8 104 4.008
50 T8 105 1.567
50 T8 106 -3.316
50 T8 107 -7.222
50 T8 108 -9.664
50 T8 109 -9.176
50 T8 110 -5.269
50 T8 111 -0.387
50 T8 112 4.008
50 T8 113 6.449
50 T8 114 6.449
50 T8 115 6.449
50 T8 116 6.449
50 T8 117 6.938
50 T8 118 5.961
50 T8 119 4.496
50 T8 120 2.543
50 T8 121 0.590
50 T8 122 1.078
50 T8 123 3.520
50 T8 124 5.961
50 T8 125 7.914
50 T8 126 7.914
50 T8 127 7.426
50 T8 128 6.938
50 T8 129 6.449
50 T8 130 6.449
50 T8 131 5.473
50 T8 132 3.520
50 T8 133 1.078
50 T8 134 -0.875
50 T8 135 -1.851
50 T8 136 -2.340
50 T8 137 -2.340
50 T8 138 -2.828
50 T8 139 -3.316
50 T8 140 -3.805
50 T8 141 -2.828
50 T8 142 -1.363
50 T8 143 0.102
50 T8 144 1.078
50 T8 145 1.567
50 T8 146 2.543
50 T8 147 4.496
50 T8 148 6.938
50 T8 149 9.867
50 T8 150 11.332
50 T8 151 9.867
50 T8 152 7.426
50 T8 153 4.496
50 T8 154 2.543
50 T8 155 2.543
50 T8 156 3.031
50 T8 157 3.031
50 T8 158 0.590
50 T8 159 -1.851
50 T8 160 -3.805
50 T8 161 -4.293
50 T8 162 -3.316
50 T8 163 -2.340
50 T8 164 -2.340
50 T8 165 -3.316
50 T8 166 -4.781
50 T8 167 -5.269
50 T8 168 -4.781
50 T8 169 -3.316
50 T8 170 -2.340
50 T8 171 -2.340
50 T8 172 -4.293
50 T8 173 -5.758
50 T8 174 -6.734
50 T8 175 -6.246
50 T8 176 -5.269
50 T8 177 -3.805
50 T8 178 -3.316
50 T8 179 -3.805
50 T8 180 -4.293
50 T8 181 -3.805
50 T8 182 -1.851
50 T8 183 1.567
50 T8 184 4.008
50 T8 185 4.985
50 T8 186 3.031
50 T8 187 0.102
50 T8 188 -2.340
50 T8 189 -2.828
50 T8 190 -1.851
50 T8 191 0.102
50 T8 192 1.078
50 T8 193 0.590
50 T8 194 -1.363
50 T8 195 -4.293
50 T8 196 -6.734
50 T8 197 -8.199
50 T8 198 -8.199
50 T8 199 -8.199
50 T8 200 -8.199
50 T8 201 -8.199
50 T8 202 -9.176
50 T8 203 -9.176
50 T8 204 -8.687
50 T8 205 -8.199
50 T8 206 -8.199
50 T8 207 -9.176
50 T8 208 -10.640
50 T8 209 -11.617
50 T8 210 -11.129
50 T8 211 -10.152
50 T8 212 -8.199
50 T8 213 -7.222
50 T8 214 -6.734
50 T8 215 -5.758
50 T8 216 -4.293
50 T8 217 -2.340
50 T8 218 0.102
50 T8 219 2.055
50 T8 220 2.543
50 T8 221 1.567
50 T8 222 -0.875
50 T8 223 -3.316
50 T8 224 -6.246
50 T8 225 -7.222
50 T8 226 -6.734
50 T8 227 -5.269
50 T8 228 -3.316
50 T8 229 -2.340
50 T8 230 -2.828
50 T8 231 -4.293
50 T8 232 -5.758
50 T8 233 -6.734
50 T8 234 -6.246
50 T8 235 -6.246
50 T8 236 -6.246
50 T8 237 -6.246
50 T8 238 -5.758
50 T8 239 -4.293
50 T8 240 -3.316
50 T8 241 -2.340
50 T8 242 -2.828
50 T8 243 -4.781
50 T8 244 -6.734
50 T8 245 -8.687
50 T8 246 -8.687
50 T8 247 -8.199
50 T8 248 -7.222
50 T8 249 -7.222
50 T8 250 -7.711
50 T8 251 -8.687
50 T8 252 -8.687
50 T8 253 -8.687
50 T8 254 -8.199
50 T8 255 -8.687
# T7 chan 14
50 T7 0 8.138
50 T7 1 8.626
50 T7 2 11.068
50 T7 3 13.509
50 T7 4 14.974
50 T7 5 13.509
50 T7 6 10.579
50 T7 7 7.161
50 T7 8 6.185
50 T7 9 7.161
50 T7 10 8.626
50 T7 11 9.115
50 T7 12 8.626
50 T7 13 8.626
50 T7 14 9.603
50 T7 15 13.509
50 T7 16 17.415
50 T7 17 18.392
50 T7 18 14.974
50 T7 19 9.115
50 T7 20 3.255
50 T7 21 0.814
50 T7 22 2.279
50 T7 23 5.697
50 T7 24 7.161
50 T7 25 5.697
50 T7 26 1.790
50 T7 27 -2.116
50 T7 28 -2.116
50 T7 29 0.814
50 T7 30 4.232
50 T7 31 5.697
50 T7 32 4.720
50 T7 33 3.255
50 T7 34 3.255
50 T7 35 5.697
50 T7 36 7.650
50 T7 37 7.161
50 T7 38 2.767
50 T7 39 -2.604
50 T7 40 -5.534
50 T7 41 -4.557
50 T7 42 0.326
50 T7 43 5.208
50 T7 44 7.650
50 T7 45 6.185
50 T7 46 2.767
50 T7 47 -1.139
50 T7 48 -3.092
50 T7 49 -3.092
50 T7 50 -2.116
50 T7 51 -1.139
50 T7 52 0.326
50 T7 53 1.790
50 T7 54 2.767
50 T7 55 1.790
50 T7 56 0.326
50 T7 57 -0.651
50 T7 58 -0.651
50 T7 59 0.814
50 T7 60 1.302
50 T7 61 0.814
50 T7 62 -1.139
50 T7 63 -3.581
50 T7 64 -5.046
50 T7 65 -5.046
50 T7 66 -4.069
50 T7 67 -3.092
50 T7 68 -2.116
50 T7 69 -1.139
50 T7 70 0.326
50 T7 71 0.814
50 T7 72 -0.651
50 T7 73 -4.069
50 T7 74 -7.975
50 T7 75 -10.905
50 T7 76 -10.905
50 T7 77 -8.952
50 T7 78 -6.510
50 T7 79 -4.557
50 T7 80 -4.069
50 T7 81 -5.534
50 T7 82 -7.975
50 T7 83 -10.417
50 T7 84 -11.393
50 T7 85 -10.905
50 T7 86 -8.464
50 T7 87 -6.022
50 T7 88 -4.557
50 T7 89 -5.534
50 T7 90 -6.999
50 T7 91 -6.999
50 T7 92 -4.557
50 T7 93 -0.651
50 T7 94 2.767
50 T7 95 2.767
50 T7 96 -0.163
50 T7 97 -3.581
50 T7 98 -4.557
50 T7 99 -3.581
50 T7 100 -2.116
50 T7 101 -1.139
50 T7 102 -1.139
50 T7 103 -0.163
50 T7 104 2.767
50 T7 105 5.697
50 T7 106 7.161
50 T7 107 5.697
50 T7 108 2.767
50 T7 109 0.814
50 T7 110 1.302
50 T7 111 3.743
50 T7 112 6.185
50 T7 113 4.720
50 T7 114 0.814
50 T7 115 -3.092
50 T7 116 -4.069
50 T7 117 -2.604
50 T7 118 -0.163
50 T7 119 -0.651
50 T7 120 -3.581
50 T7 121 -6.999
50 T7 122 -6.999
50 T7 123 -2.604
50 T7 124 3.255
50 T7 125 8.138
50 T7 126 9.115
50 T7 127 8.138
50 T7 128 6.185
50 T7 129 6.673
50 T7 130 7.650
50 T7 131 7.650
50 T7 132 6.185
50 T7 133 2.767
50 T7 134 0.326
50 T7 135 -0.163
50 T7 136 0.326
50 T7 137 -0.651
50 T7 138 -3.581
50 T7 139 -7.975
50 T7 140 -12.370
50 T7 141 -13.835
50 T7 142 -12.370
50 T7 143 -8.952
50 T7 144 -5.046
50 T7 145 -3.092
50 T7 146 -2.116
50 T7 147 -1.139
50 T7 148 -0.651
50 T7 149 0.814
50 T7 150 0.814
50 T7 151 0.814
50 T7 152 -0.651
50 T7 153 -1.139
50 T7 154 -1.139
50 T7 155 -0.163
50 T7 156 1.302
50 T7 157 2.767
50 T7 158 3.743
50 T7 159 3.743
50 T7 160 3.743
50 T7 161 4.232
50 T7 162 4.720
50 T7 163 4.720
50 T7 164 4.232
50 T7 165 3.255
50 T7 166 1.790
50 T7 167 0.814
50 T7 168 0.814
50 T7 169 1.302
50 T7 170 1.790
50 T7 171 1.302
50 T7 172 -0.163
50 T7 173 -2.604
50 T7 174 -4.069
50 T7 175 -4.557
50 T7 176 -4.069
50 T7 177 -4.069
50 T7 178 -4.557
50 T7 179 -6.022
50 T7 180 -7.487
50 T7 181 -6.999
50 T7 182 -5.534
50 T7 183 -2.604
50 T7 184 -1.139
50 T7 185 -1.139
50 T7 186 -3.092
50 T7 187 -6.022
50 T7 188 -7.487
50 T7 189 -6.999
50 T7 190 -5.046
50 T7 191 -3.092
50 T7 192 -2.116
50 T7 193 -2.116
50 T7 194 -3.092
50 T7 195 -4.557
50 T7 196 -6.022
50 T7 197 -6.999
50 T7 198 -7.487
50 T7 199 -6.022
50 T7 200 -4.069
50 T7 201 -3.092
50 T7 202 -3.092
50 T7 203 -4.557
50 T7 204 -6.022
50 T7 205 -6.022
50 T7 206 -5.534
50 T7 207 -5.534
50 T7 208 -6.022
50 T7 209 -6.999
50 T7 210 -7.487
50 T7 211 -6.999
50 T7 212 -4.557
50 T7 213 -1.139
50 T7 214 1.790
50 T7 215 3.743
50 T7 216 3.743
50 T7 217 3.255
50 T7 218 2.767
50 T7 219 2.279
50 T7 220 3.255
50 T7 221 3.743
50 T7 222 3.255
50 T7 223 2.279
50 T7 224 0.814
50 T7 225 0.326
50 T7 226 1.790
50 T7 227 3.255
50 T7 228 3.743
50 T7 229 1.790
50 T7 230 -1.628
50 T7 231 -4.557
50 T7 232 -5.534
50 T7 233 -5.534
50 T7 234 -5.534
50 T7 235 -6.022
50 T7 236 -6.999
50 T7 237 -6.510
50 T7 238 -3.581
50 T7 239 0.326
50 T7 240 2.767
50 T7 241 2.767
50 T7 242 -0.651
50 T7 243 -4.557
50 T7 244 -7.975
50 T7 245 -8.952
50 T7 246 -8.952
50 T7 247 -7.975
50 T7 248 -7.487
50 T7 249 -7.487
50 T7 250 -7.975
50 T7 251 -9.440
50 T7 252 -10.905
50 T7 253 -11.882
50 T7 254 -11.393
50 T7 255 -8.952
# CZ chan 15
50 CZ 0 11.932
50 CZ 1 7.538
50 CZ 2 6.073
50 CZ 3 7.538
50 CZ 4 10.468
50 CZ 5 13.885
50 CZ 6 14.862
50 CZ 7 13.397
50 CZ 8 10.468
50 CZ 9 7.538
50 CZ 10 7.050
50 CZ 11 8.514
50 CZ 12 10.956
50 CZ 13 11.932
50 CZ 14 9.491
50 CZ 15 3.632
50 CZ 16 -2.716
50 CZ 17 -6.134
50 CZ 18 -3.693
50 CZ 19 2.655
50 CZ 20 9.979
50 CZ 21 12.421
50 CZ 22 9.491
50 CZ 23 3.632
50 CZ 24 -1.251
50 CZ 25 -2.228
50 CZ 26 1.190
50 CZ 27 3.632
50 CZ 28 2.655
50 CZ 29 -1.740
50 CZ 30 -6.134
50 CZ 31 -6.134
50 CZ 32 -1.251
50 CZ 33 6.561
50 CZ 34 11.932
50 CZ 35 12.909
50 CZ 36 9.979
50 CZ 37 6.073
50 CZ 38 4.120
50 CZ 39 3.143
50 CZ 40 1.678
50 CZ 41 -0.763
50 CZ 42 -3.204
50 CZ 43 -3.693
50 CZ 44 -1.740
50 CZ 45 0.214
50 CZ 46 0.214
50 CZ 47 -3.204
50 CZ 48 -6.622
50 CZ 49 -7.111
50 CZ 50 -4.181
50 CZ 51 -0.275
50 CZ 52 1.190
50 CZ 53 -1.251
50 CZ 54 -5.157
50 CZ 55 -6.622
50 CZ 56 -5.157
50 CZ 57 -1.251
50 CZ 58 1.190
50 CZ 59 1.190
50 CZ 60 -0.763
50 CZ 61 -1.251
50 CZ 62 0.214
50 CZ 63 3.143
50 CZ 64 5.096
50 CZ 65 5.096
50 CZ 66 3.632
50 CZ 67 1.678
50 CZ 68 -1.740
50 CZ 69 -6.134
50 CZ 70 -11.505
50 CZ 71 -13.458
50 CZ 72 -11.017
50 CZ 73 -2.716
50 CZ 74 5.585
50 CZ 75 9.003
50 CZ 76 4.120
50 CZ 77 -6.134
50 CZ 78 -14.923
50 CZ 79 -17.365
50 CZ 80 -12.482
50 CZ 81 -5.157
50 CZ 82 -1.251
50 CZ 83 -3.204
50 CZ 84 -7.599
50 CZ 85 -12.970
50 CZ 86 -15.900
50 CZ 87 -17.853
50 CZ 88 -19.318
50 CZ 89 -19.806
50 CZ 90 -18.341
50 CZ 91 -14.923
50 CZ 92 -10.040
50 CZ 93 -7.599
50 CZ 94 -10.529
50 CZ 95 -15.900
50 CZ 96 -20.294
50 CZ 97 -20.294
50 CZ 98 -16.876
50 CZ 99 -13.458
50 CZ 100 -13.458
50 CZ 101 -16.388
50 CZ 102 -18.829
50 CZ 103 -17.853
50 CZ 104 -13.458
50 CZ 105 -8.575
50 CZ 106 -8.575
50 CZ 107 -13.947
50 CZ 108 -20.782
50 CZ 109 -23.224
50 CZ 110 -20.294
50 CZ 111 -13.458
50 CZ 112 -6.622
50 CZ 113 -5.157
50 CZ 114 -6.622
50 CZ 115 -7.111
50 CZ 116 -4.181
50 CZ 117 0.702
50 CZ 118 3.143
50 CZ 119 -0.275
50 CZ 120 -7.599
50 CZ 121 -12.970
50 CZ 122 -11.505
50 CZ 123 -3.204
50 CZ 124 6.073
50 CZ 125 9.979
50 CZ 126 7.538
50 CZ 127 0.702
50 CZ 128 -5.157
50 CZ 129 -7.111
50 CZ 130 -5.646
50 CZ 131 -3.204
50 CZ 132 -0.763
50 CZ 133 -0.763
50 CZ 134 -2.716
50 CZ 135 -6.622
50 CZ 136 -12.482
50 CZ 137 -17.365
50 CZ 138 -19.806
50 CZ 139 -18.341
50 CZ 140 -13.947
50 CZ 141 -9.552
50 CZ 142 -8.575
50 CZ 143 -10.529
50 CZ 144 -13.458
50 CZ 145 -14.923
50 CZ 146 -13.458
50 CZ 147 -10.529
50 CZ 148 -6.134
50 CZ 149 -1.740
50 CZ 150 2.655
50 CZ 151 6.073
50 CZ 152 7.050
50 CZ 153 4.608
50 CZ 154 -0.275
50 CZ 155 -5.646
50 CZ 156 -7.599
50 CZ 157 -6.134
50 CZ 158 -2.228
50 CZ 159 -0.763
50 CZ 160 -2.228
50 CZ 161 -6.134
50 CZ 162 -8.575
50 CZ 163 -7.111
50 CZ 164 -1.740
50 CZ 165 2.167
50 CZ 166 1.678
50 CZ 167 -4.181
50 CZ 168 -11.505
50 CZ 169 -16.388
50 CZ 170 -15.411
50 CZ 171 -11.017
50 CZ 172 -7.599
50 CZ 173 -8.087
50 CZ 174 -11.505
50 CZ 175 -15.411
50 CZ 176 -16.876
50 CZ 177 -15.900
50 CZ 178 -14.435
50 CZ 179 -14.923
50 CZ 180 -16.388
50 CZ 181 -16.388
50 CZ 182 -14.435
50 CZ 183 -10.529
50 CZ 184 -8.575
50 CZ 185 -10.040
50 CZ 186 -14.923
50 CZ 187 -19.318
50 CZ 188 -19.806
50 CZ 189 -15.411
50 CZ 190 -8.575
50 CZ 191 -2.228
50 CZ 192 0.214
50 CZ 193 -1.740
50 CZ 194 -6.622
50 CZ 195 -11.505
50 CZ 196 -14.435
50 CZ 197 -15.900
50 CZ 198 -15.900
50 CZ 199 -16.388
50 CZ 200 -18.341
50 CZ 201 -20.294
50 CZ 202 -22.247
50 CZ 203 -22.247
50 CZ 204 -21.759
50 CZ 205 -19.806
50 CZ 206 -17.365
50 CZ 207 -16.388
50 CZ 208 -16.388
50 CZ 209 -17.365
50 CZ 210 -20.294
50 CZ 211 -22.247
50 CZ 212 -22.736
50 CZ 213 -21.271
50 CZ 214 -17.853
50 CZ 215 -14.923
50 CZ 216 -13.458
50 CZ 217 -13.458
50 CZ 218 -14.435
50 CZ 219 -13.947
50 CZ 220 -11.993
50 CZ 221 -10.040
50 CZ 222 -10.529
50 CZ 223 -14.435
50 CZ 224 -20.782
50 CZ 225 -25.665
50 CZ 226 -26.642
50 CZ 227 -23.224
50 CZ 228 -18.829
50 CZ 229 -16.388
50 CZ 230 -17.853
50 CZ 231 -21.759
50 CZ 232 -25.665
50 CZ 233 -27.618
50 CZ 234 -26.642
50 CZ 235 -24.200
50 CZ 236 -21.759
50 CZ 237 -20.294
50 CZ 238 -19.318
50 CZ 239 -18.829
50 CZ 240 -19.318
50 CZ 241 -20.782
50 CZ 242 -22.736
50 CZ 243 -25.665
50 CZ 244 -27.618
50 CZ 245 -28.107
50 CZ 246 -27.618
50 CZ 247 -25.665
50 CZ 248 -24.200
50 CZ 249 -23.224
50 CZ 250 -23.224
50 CZ 251 -24.689
50 CZ 252 -27.130
50 CZ 253 -30.548
50 CZ 254 -33.966
50 CZ 255 -35.919
# C3 chan 16
50 C3 0 4.395
50 C3 1 4.883
50 C3 2 4.883
50 C3 3 4.883
50 C3 4 5.371
50 C3 5 5.859
50 C3 6 6.348
50 C3 7 5.859
50 C3 8 4.883
50 C3 9 4.395
50 C3 10 4.883
50 C3 11 5.859
50 C3 12 6.836
50 C3 13 7.812
50 C3 14 6.836
50 C3 15 5.859
50 C3 16 4.395
50 C3 17 4.395
50 C3 18 5.371
50 C3 19 6.348
50 C3 20 6.348
50 C3 21 4.883
50 C3 22 2.930
50 C3 23 0.977
50 C3 24 -0.488
50 C3 25 -0.977
50 C3 26 -0.977
50 C3 27 -0.977
50 C3 28 -0.488
50 C3 29 -0.977
50 C3 30 -0.488
50 C3 31 -0.488
50 C3 32 0.488
50 C3 33 1.465
50 C3 34 2.441
50 C3 35 2.930
50 C3 36 2.441
50 C3 37 0.977
50 C3 38 -0.977
50 C3 39 -0.977
50 C3 40 0.000
50 C3 41 1.953
50 C3 42 3.906
50 C3 43 4.883
50 C3 44 4.395
50 C3 45 3.906
50 C3 46 4.395
50 C3 47 5.371
50 C3 48 6.836
50 C3 49 7.812
50 C3 50 7.324
50 C3 51 5.859
50 C3 52 4.395
50 C3 53 2.930
50 C3 54 2.441
50 C3 55 2.930
50 C3 56 4.395
50 C3 57 6.348
50 C3 58 8.301
50 C3 59 9.277
50 C3 60 9.277
50 C3 61 7.324
50 C3 62 4.883
50 C3 63 2.930
50 C3 64 2.441
50 C3 65 2.441
50 C3 66 2.930
50 C3 67 3.418
50 C3 68 3.418
50 C3 69 2.930
50 C3 70 1.953
50 C3 71 0.977
50 C3 72 0.000
50 C3 73 -0.488
50 C3 74 -1.953
50 C3 75 -2.930
50 C3 76 -3.906
50 C3 77 -4.883
50 C3 78 -5.371
50 C3 79 -4.883
50 C3 80 -3.906
50 C3 81 -3.418
50 C3 82 -3.418
50 C3 83 -4.883
50 C3 84 -6.348
50 C3 85 -7.812
50 C3 86 -7.324
50 C3 87 -5.371
50 C3 88 -2.441
50 C3 89 0.488
50 C3 90 1.465
50 C3 91 0.488
50 C3 92 -0.977
50 C3 93 -1.953
50 C3 94 -1.953
50 C3 95 -0.488
50 C3 96 0.977
50 C3 97 1.465
50 C3 98 0.977
50 C3 99 0.000
50 C3 100 -0.977
50 C3 101 -0.977
50 C3 102 -0.977
50 C3 103 -1.465
50 C3 104 -1.953
50 C3 105 -2.441
50 C3 106 -2.930
50 C3 107 -1.953
50 C3 108 -0.977
50 C3 109 0.000
50 C3 110 0.488
50 C3 111 0.488
50 C3 112 0.977
50 C3 113 0.977
50 C3 114 0.977
50 C3 115 0.000
50 C3 116 -0.977
50 C3 117 -1.953
50 C3 118 -2.441
50 C3 119 -1.953
50 C3 120 -1.953
50 C3 121 -3.418
50 C3 122 -4.883
50 C3 123 -6.348
50 C3 124 -5.371
50 C3 125 -1.953
50 C3 126 1.465
50 C3 127 4.395
50 C3 128 4.395
50 C3 129 1.465
50 C3 130 -0.977
50 C3 131 -1.953
50 C3 132 -0.977
50 C3 133 0.977
50 C3 134 2.441
50 C3 135 1.953
50 C3 136 0.000
50 C3 137 -2.930
50 C3 138 -4.395
50 C3 139 -4.883
50 C3 140 -3.906
50 C3 141 -2.930
50 C3 142 -3.418
50 C3 143 -4.883
50 C3 144 -5.859
50 C3 145 -5.859
50 C3 146 -3.906
50 C3 147 -0.488
50 C3 148 1.953
50 C3 149 2.930
50 C3 150 0.977
50 C3 151 -1.465
50 C3 152 -2.930
50 C3 153 -2.930
50 C3 154 -1.465
50 C3 155 0.488
50 C3 156 1.953
50 C3 157 2.441
50 C3 158 2.441
50 C3 159 2.441
50 C3 160 2.930
50 C3 161 2.930
50 C3 162 3.418
50 C3 163 3.418
50 C3 164 3.906
50 C3 165 3.418
50 C3 166 2.441
50 C3 167 1.465
50 C3 168 0.977
50 C3 169 0.488
50 C3 170 0.488
50 C3 171 0.000
50 C3 172 -1.953
50 C3 173 -5.371
50 C3 174 -7.812
50 C3 175 -8.789
50 C3 176 -7.812
50 C3 177 -6.836
50 C3 178 -5.859
50 C3 179 -6.348
50 C3 180 -7.812
50 C3 181 -8.301
50 C3 182 -6.836
50 C3 183 -4.395
50 C3 184 -2.441
50 C3 185 -1.953
50 C3 186 -2.930
50 C3 187 -4.883
50 C3 188 -5.859
50 C3 189 -5.859
50 C3 190 -5.859
50 C3 191 -6.836
50 C3 192 -7.812
50 C3 193 -9.277
50 C3 194 -8.789
50 C3 195 -7.812
50 C3 196 -6.836
50 C3 197 -6.836
50 C3 198 -7.324
50 C3 199 -9.277
50 C3 200 -9.766
50 C3 201 -9.766
50 C3 202 -9.277
50 C3 203 -8.789
50 C3 204 -8.789
50 C3 205 -8.789
50 C3 206 -8.789
50 C3 207 -8.301
50 C3 208 -8.301
50 C3 209 -8.301
50 C3 210 -8.301
50 C3 211 -7.812
50 C3 212 -6.348
50 C3 213 -4.883
50 C3 214 -3.906
50 C3 215 -3.906
50 C3 216 -4.395
50 C3 217 -3.906
50 C3 218 -1.953
50 C3 219 0.977
50 C3 220 2.930
50 C3 221 2.441
50 C3 222 -0.488
50 C3 223 -3.418
50 C3 224 -5.859
50 C3 225 -5.859
50 C3 226 -5.371
50 C3 227 -4.883
50 C3 228 -5.859
50 C3 229 -7.812
50 C3 230 -9.277
50 C3 231 -9.277
50 C3 232 -8.301
50 C3 233 -7.812
50 C3 234 -7.812
50 C3 235 -9.766
50 C3 236 -11.719
50 C3 237 -11.719
50 C3 238 -9.766
50 C3 239 -5.859
50 C3 240 -1.953
50 C3 241 -0.488
50 C3 242 -1.953
50 C3 243 -4.883
50 C3 244 -7.324
50 C3 245 -7.812
50 C3 246 -6.348
50 C3 247 -4.395
50 C3 248 -3.906
50 C3 249 -4.883
50 C3 250 -6.836
50 C3 251 -7.812
50 C3 252 -7.324
50 C3 253 -5.859
50 C3 254 -4.883
50 C3 255 -5.371
# C4 chan 17
50 C4 0 2.665
50 C4 1 3.153
50 C4 2 3.642
50 C4 3 3.153
50 C4 4 2.177
50 C4 5 -0.264
50 C4 6 -2.218
50 C4 7 -3.194
50 C4 8 -2.218
50 C4 9 1.200
50 C4 10 4.618
50 C4 11 7.060
50 C4 12 8.525
50 C4 13 8.036
50 C4 14 8.036
50 C4 15 9.013
50 C4 16 9.501
50 C4 17 9.013
50 C4 18 7.548
50 C4 19 5.107
50 C4 20 3.153
50 C4 21 2.177
50 C4 22 2.665
50 C4 23 4.618
50 C4 24 6.571
50 C4 25 7.060
50 C4 26 6.571
50 C4 27 5.107
50 C4 28 3.642
50 C4 29 2.177
50 C4 30 2.177
50 C4 31 3.153
50 C4 32 3.642
50 C4 33 4.130
50 C4 34 4.618
50 C4 35 5.107
50 C4 36 5.595
50 C4 37 5.107
50 C4 38 3.153
50 C4 39 0.712
50 C4 40 -0.753
50 C4 41 -0.753
50 C4 42 1.689
50 C4 43 3.642
50 C4 44 5.595
50 C4 45 5.107
50 C4 46 3.642
50 C4 47 1.689
50 C4 48 0.712
50 C4 49 0.712
50 C4 50 1.689
50 C4 51 2.177
50 C4 52 1.200
50 C4 53 -0.264
50 C4 54 -1.729
50 C4 55 -2.218
50 C4 56 -1.241
50 C4 57 -0.264
50 C4 58 1.200
50 C4 59 1.200
50 C4 60 -0.264
50 C4 61 -1.729
50 C4 62 -2.706
50 C4 63 -2.706
50 C4 64 -1.729
50 C4 65 -0.264
50 C4 66 0.224
50 C4 67 0.224
50 C4 68 -0.264
50 C4 69 -0.264
50 C4 70 1.200
50 C4 71 3.153
50 C4 72 4.130
50 C4 73 3.642
50 C4 74 1.689
50 C4 75 -0.753
50 C4 76 -2.218
50 C4 77 -2.218
50 C4 78 -1.241
50 C4 79 -0.753
50 C4 80 -0.753
50 C4 81 -1.241
50 C4 82 -1.241
50 C4 83 -1.729
50 C4 84 -1.729
50 C4 85 -2.218
50 C4 86 -2.706
50 C4 87 -3.194
50 C4 88 -2.706
50 C4 89 -1.241
50 C4 90 -0.264
50 C4 91 1.200
50 C4 92 1.689
50 C4 93 2.177
50 C4 94 2.177
50 C4 95 1.689
50 C4 96 0.712
50 C4 97 -0.753
50 C4 98 -2.218
50 C4 99 -3.194
50 C4 100 -3.682
50 C4 101 -3.194
50 C4 102 -2.218
50 C4 103 -1.729
50 C4 104 -1.241
50 C4 105 -2.218
50 C4 106 -4.659
50 C4 107 -7.100
50 C4 108 -8.565
50 C4 109 -8.565
50 C4 110 -5.636
50 C4 111 -2.218
50 C4 112 1.200
50 C4 113 2.665
50 C4 114 2.177
50 C4 115 0.224
50 C4 116 -2.218
50 C4 117 -3.194
50 C4 118 -4.171
50 C4 119 -5.147
50 C4 120 -7.100
50 C4 121 -9.054
50 C4 122 -10.030
50 C4 123 -9.542
50 C4 124 -8.565
50 C4 125 -7.589
50 C4 126 -7.100
50 C4 127 -7.100
50 C4 128 -6.612
50 C4 129 -4.659
50 C4 130 -3.194
50 C4 131 -2.706
50 C4 132 -3.194
50 C4 133 -4.659
50 C4 134 -6.124
50 C4 135 -6.612
50 C4 136 -6.124
50 C4 137 -5.147
50 C4 138 -6.124
50 C4 139 -7.100
50 C4 140 -8.565
50 C4 141 -9.542
50 C4 142 -9.054
50 C4 143 -7.589
50 C4 144 -6.612
50 C4 145 -5.147
50 C4 146 -4.171
50 C4 147 -3.682
50 C4 148 -3.194
50 C4 149 -3.682
50 C4 150 -4.659
50 C4 151 -6.612
50 C4 152 -8.077
50 C4 153 -8.565
50 C4 154 -8.565
50 C4 155 -8.077
50 C4 156 -7.589
50 C4 157 -8.565
50 C4 158 -9.542
50 C4 159 -10.518
50 C4 160 -11.007
50 C4 161 -11.007
50 C4 162 -11.495
50 C4 163 -12.472
50 C4 164 -14.425
50 C4 165 -15.889
50 C4 166 -16.378
50 C4 167 -15.401
50 C4 168 -13.448
50 C4 169 -11.495
50 C4 170 -11.495
50 C4 171 -11.983
50 C4 172 -12.472
50 C4 173 -13.448
50 C4 174 -13.936
50 C4 175 -13.448
50 C4 176 -12.960
50 C4 177 -12.472
50 C4 178 -11.983
50 C4 179 -11.007
50 C4 180 -11.007
50 C4 181 -11.007
50 C4 182 -10.518
50 C4 183 -10.518
50 C4 184 -10.030
50 C4 185 -9.542
50 C4 186 -10.030
50 C4 187 -11.495
50 C4 188 -13.448
50 C4 189 -14.913
50 C4 190 -14.913
50 C4 191 -13.448
50 C4 192 -11.983
50 C4 193 -11.495
50 C4 194 -12.472
50 C4 195 -15.401
50 C4 196 -17.354
50 C4 197 -17.843
50 C4 198 -16.866
50 C4 199 -15.889
50 C4 200 -14.913
50 C4 201 -15.401
50 C4 202 -16.866
50 C4 203 -17.843
50 C4 204 -18.331
50 C4 205 -18.819
50 C4 206 -19.307
50 C4 207 -20.284
50 C4 208 -20.772
50 C4 209 -20.284
50 C4 210 -18.819
50 C4 211 -17.354
50 C4 212 -15.889
50 C4 213 -15.889
50 C4 214 -16.378
50 C4 215 -16.866
50 C4 216 -17.354
50 C4 217 -17.354
50 C4 218 -15.889
50 C4 219 -14.425
50 C4 220 -12.960
50 C4 221 -12.960
50 C4 222 -14.425
50 C4 223 -17.354
50 C4 224 -20.284
50 C4 225 -21.261
50 C4 226 -21.261
50 C4 227 -19.796
50 C4 228 -18.819
50 C4 229 -17.843
50 C4 230 -17.354
50 C4 231 -16.378
50 C4 232 -15.401
50 C4 233 -14.913
50 C4 234 -15.889
50 C4 235 -17.354
50 C4 236 -19.307
50 C4 237 -19.307
50 C4 238 -17.843
50 C4 239 -14.913
50 C4 240 -11.983
50 C4 241 -10.030
50 C4 242 -8.565
50 C4 243 -8.565
50 C4 244 -8.077
50 C4 245 -8.565
50 C4 246 -10.518
50 C4 247 -11.495
50 C4 248 -11.983
50 C4 249 -10.518
50 C4 250 -9.054
50 C4 251 -8.565
50 C4 252 -9.542
50 C4 253 -11.495
50 C4 254 -13.448
50 C4 255 -14.425
# CP5 chan 18
50 CP5 0 12.248
50 CP5 1 13.713
50 CP5 2 14.201
50 CP5 3 12.736
50 CP5 4 10.783
50 CP5 5 8.830
50 CP5 6 7.365
50 CP5 7 7.853
50 CP5 8 9.806
50 CP5 9 12.736
50 CP5 10 16.154
50 CP5 11 18.595
50 CP5 12 19.572
50 CP5 13 19.084
50 CP5 14 17.131
50 CP5 15 15.177
50 CP5 16 13.713
50 CP5 17 12.736
50 CP5 18 13.224
50 CP5 19 13.713
50 CP5 20 14.201
50 CP5 21 13.713
50 CP5 22 12.248
50 CP5 23 11.271
50 CP5 24 10.295
50 CP5 25 9.318
50 CP5 26 8.830
50 CP5 27 8.830
50 CP5 28 9.318
50 CP5 29 10.295
50 CP5 30 12.248
50 CP5 31 14.201
50 CP5 32 16.154
50 CP5 33 18.107
50 CP5 34 20.549
50 CP5 35 21.525
50 CP5 36 21.037
50 CP5 37 19.572
50 CP5 38 17.131
50 CP5 39 15.666
50 CP5 40 15.177
50 CP5 41 16.154
50 CP5 42 16.642
50 CP5 43 15.666
50 CP5 44 14.201
50 CP5 45 13.224
50 CP5 46 14.201
50 CP5 47 16.154
50 CP5 48 18.595
50 CP5 49 19.084
50 CP5 50 18.595
50 CP5 51 17.131
50 CP5 52 15.666
50 CP5 53 14.689
50 CP5 54 13.713
50 CP5 55 12.248
50 CP5 56 10.783
50 CP5 57 10.295
50 CP5 58 11.271
50 CP5 59 13.224
50 CP5 60 14.689
50 CP5 61 14.689
50 CP5 62 13.713
50 CP5 63 13.224
50 CP5 64 13.713
50 CP5 65 15.177
50 CP5 66 17.131
50 CP5 67 17.619
50 CP5 68 17.131
50 CP5 69 15.666
50 CP5 70 15.666
50 CP5 71 16.154
50 CP5 72 16.642
50 CP5 73 17.131
50 CP5 74 16.154
50 CP5 75 15.177
50 CP5 76 14.689
50 CP5 77 14.201
50 CP5 78 13.224
50 CP5 79 11.759
50 CP5 80 10.295
50 CP5 81 9.806
50 CP5 82 10.295
50 CP5 83 11.271
50 CP5 84 11.759
50 CP5 85 10.783
50 CP5 86 9.318
50 CP5 87 8.830
50 CP5 88 10.295
50 CP5 89 12.736
50 CP5 90 14.689
50 CP5 91 15.177
50 CP5 92 14.201
50 CP5 93 13.224
50 CP5 94 14.201
50 CP5 95 16.642
50 CP5 96 18.595
50 CP5 97 18.595
50 CP5 98 15.666
50 CP5 99 11.759
50 CP5 100 9.806
50 CP5 101 9.806
50 CP5 102 10.783
50 CP5 103 11.271
50 CP5 104 10.295
50 CP5 105 9.318
50 CP5 106 9.318
50 CP5 107 11.271
50 CP5 108 15.177
50 CP5 109 18.107
50 CP5 110 19.084
50 CP5 111 18.107
50 CP5 112 17.131
50 CP5 113 16.154
50 CP5 114 16.642
50 CP5 115 16.642
50 CP5 116 16.642
50 CP5 117 16.642
50 CP5 118 16.154
50 CP5 119 15.177
50 CP5 120 14.689
50 CP5 121 13.713
50 CP5 122 13.224
50 CP5 123 13.713
50 CP5 124 15.177
50 CP5 125 17.619
50 CP5 126 19.572
50 CP5 127 21.037
50 CP5 128 21.037
50 CP5 129 20.549
50 CP5 130 19.572
50 CP5 131 18.107
50 CP5 132 17.131
50 CP5 133 17.131
50 CP5 134 18.107
50 CP5 135 19.572
50 CP5 136 20.060
50 CP5 137 18.595
50 CP5 138 15.177
50 CP5 139 11.271
50 CP5 140 8.830
50 CP5 141 7.853
50 CP5 142 8.830
50 CP5 143 9.806
50 CP5 144 10.295
50 CP5 145 10.783
50 CP5 146 12.248
50 CP5 147 14.689
50 CP5 148 17.131
50 CP5 149 18.107
50 CP5 150 16.642
50 CP5 151 14.201
50 CP5 152 12.736
50 CP5 153 12.736
50 CP5 154 14.689
50 CP5 155 17.619
50 CP5 156 19.572
50 CP5 157 20.549
50 CP5 158 20.549
50 CP5 159 20.060
50 CP5 160 20.549
50 CP5 161 20.549
50 CP5 162 21.037
50 CP5 163 21.037
50 CP5 164 20.549
50 CP5 165 19.572
50 CP5 166 18.107
50 CP5 167 17.619
50 CP5 168 16.642
50 CP5 169 16.154
50 CP5 170 15.666
50 CP5 171 14.689
50 CP5 172 13.224
50 CP5 173 12.248
50 CP5 174 11.759
50 CP5 175 12.248
50 CP5 176 13.713
50 CP5 177 14.689
50 CP5 178 14.201
50 CP5 179 13.224
50 CP5 180 11.759
50 CP5 181 11.271
50 CP5 182 12.736
50 CP5 183 14.689
50 CP5 184 16.154
50 CP5 185 15.177
50 CP5 186 13.224
50 CP5 187 10.783
50 CP5 188 9.806
50 CP5 189 10.295
50 CP5 190 11.271
50 CP5 191 11.759
50 CP5 192 11.759
50 CP5 193 11.271
50 CP5 194 11.759
50 CP5 195 12.248
50 CP5 196 13.224
50 CP5 197 12.736
50 CP5 198 11.759
50 CP5 199 9.806
50 CP5 200 7.853
50 CP5 201 6.877
50 CP5 202 7.365
50 CP5 203 8.830
50 CP5 204 10.295
50 CP5 205 11.759
50 CP5 206 13.224
50 CP5 207 13.713
50 CP5 208 13.713
50 CP5 209 13.224
50 CP5 210 12.736
50 CP5 211 13.713
50 CP5 212 14.689
50 CP5 213 16.642
50 CP5 214 18.107
50 CP5 215 18.107
50 CP5 216 18.595
50 CP5 217 19.572
50 CP5 218 21.525
50 CP5 219 23.966
50 CP5 220 25.431
50 CP5 221 23.966
50 CP5 222 21.525
50 CP5 223 18.595
50 CP5 224 16.642
50 CP5 225 17.131
50 CP5 226 19.084
50 CP5 227 20.549
50 CP5 228 20.549
50 CP5 229 20.060
50 CP5 230 18.595
50 CP5 231 17.619
50 CP5 232 16.642
50 CP5 233 15.177
50 CP5 234 14.201
50 CP5 235 13.224
50 CP5 236 12.736
50 CP5 237 14.689
50 CP5 238 17.619
50 CP5 239 21.037
50 CP5 240 22.990
50 CP5 241 22.990
50 CP5 242 21.037
50 CP5 243 17.619
50 CP5 244 14.689
50 CP5 245 14.201
50 CP5 246 15.177
50 CP5 247 16.154
50 CP5 248 16.154
50 CP5 249 14.689
50 CP5 250 14.201
50 CP5 251 15.177
50 CP5 252 17.131
50 CP5 253 19.084
50 CP5 254 19.084
50 CP5 255 16.642
# CP6 chan 19
50 CP6 0 3.703
50 CP6 1 3.703
50 CP6 2 4.679
50 CP6 3 6.632
50 CP6 4 7.121
50 CP6 5 6.144
50 CP6 6 4.191
50 CP6 7 2.238
50 CP6 8 1.261
50 CP6 9 2.726
50 CP6 10 4.679
50 CP6 11 6.144
50 CP6 12 7.121
50 CP6 13 6.144
50 CP6 14 4.679
50 CP6 15 3.703
50 CP6 16 3.703
50 CP6 17 4.191
50 CP6 18 4.679
50 CP6 19 4.679
50 CP6 20 3.703
50 CP6 21 1.750
50 CP6 22 0.285
50 CP6 23 -0.203
50 CP6 24 0.773
50 CP6 25 2.726
50 CP6 26 4.191
50 CP6 27 5.656
50 CP6 28 6.632
50 CP6 29 6.632
50 CP6 30 6.632
50 CP6 31 6.144
50 CP6 32 6.144
50 CP6 33 6.632
50 CP6 34 8.586
50 CP6 35 10.050
50 CP6 36 10.539
50 CP6 37 9.562
50 CP6 38 7.121
50 CP6 39 4.191
50 CP6 40 2.726
50 CP6 41 2.726
50 CP6 42 4.191
50 CP6 43 5.168
50 CP6 44 6.632
50 CP6 45 7.121
50 CP6 46 7.609
50 CP6 47 7.609
50 CP6 48 7.609
50 CP6 49 6.632
50 CP6 50 5.656
50 CP6 51 5.168
50 CP6 52 4.679
50 CP6 53 3.703
50 CP6 54 2.238
50 CP6 55 1.261
50 CP6 56 0.285
50 CP6 57 0.285
50 CP6 58 0.773
50 CP6 59 1.261
50 CP6 60 0.773
50 CP6 61 0.285
50 CP6 62 0.773
50 CP6 63 2.238
50 CP6 64 4.191
50 CP6 65 5.168
50 CP6 66 4.679
50 CP6 67 3.215
50 CP6 68 2.238
50 CP6 69 2.726
50 CP6 70 5.168
50 CP6 71 7.609
50 CP6 72 8.097
50 CP6 73 7.121
50 CP6 74 4.679
50 CP6 75 2.238
50 CP6 76 1.750
50 CP6 77 2.238
50 CP6 78 3.703
50 CP6 79 3.703
50 CP6 80 2.726
50 CP6 81 0.773
50 CP6 82 -1.180
50 CP6 83 -3.133
50 CP6 84 -3.621
50 CP6 85 -3.621
50 CP6 86 -4.110
50 CP6 87 -5.575
50 CP6 88 -6.063
50 CP6 89 -6.063
50 CP6 90 -5.086
50 CP6 91 -2.645
50 CP6 92 -0.203
50 CP6 93 1.261
50 CP6 94 2.238
50 CP6 95 1.750
50 CP6 96 0.285
50 CP6 97 -1.668
50 CP6 98 -3.133
50 CP6 99 -4.598
50 CP6 100 -5.575
50 CP6 101 -5.086
50 CP6 102 -3.621
50 CP6 103 -2.157
50 CP6 104 -1.180
50 CP6 105 -1.180
50 CP6 106 -3.133
50 CP6 107 -5.575
50 CP6 108 -6.063
50 CP6 109 -4.598
50 CP6 110 -2.645
50 CP6 111 0.773
50 CP6 112 3.215
50 CP6 113 4.679
50 CP6 114 4.679
50 CP6 115 4.679
50 CP6 116 4.191
50 CP6 117 2.726
50 CP6 118 0.773
50 CP6 119 -1.668
50 CP6 120 -3.133
50 CP6 121 -3.621
50 CP6 122 -3.133
50 CP6 123 -1.668
50 CP6 124 -1.180
50 CP6 125 -1.180
50 CP6 126 -1.180
50 CP6 127 -1.180
50 CP6 128 -1.180
50 CP6 129 -0.692
50 CP6 130 -1.180
50 CP6 131 -2.645
50 CP6 132 -4.110
50 CP6 133 -4.598
50 CP6 134 -4.598
50 CP6 135 -3.621
50 CP6 136 -3.133
50 CP6 137 -3.621
50 CP6 138 -5.086
50 CP6 139 -6.063
50 CP6 140 -6.063
50 CP6 141 -4.598
50 CP6 142 -2.157
50 CP6 143 0.285
50 CP6 144 2.238
50 CP6 145 3.215
50 CP6 146 3.215
50 CP6 147 3.703
50 CP6 148 4.679
50 CP6 149 4.679
50 CP6 150 3.703
50 CP6 151 1.750
50 CP6 152 -0.692
50 CP6 153 -2.645
50 CP6 154 -3.133
50 CP6 155 -3.133
50 CP6 156 -3.133
50 CP6 157 -3.133
50 CP6 158 -2.645
50 CP6 159 -2.645
50 CP6 160 -2.157
50 CP6 161 -2.157
50 CP6 162 -3.133
50 CP6 163 -4.110
50 CP6 164 -4.598
50 CP6 165 -4.598
50 CP6 166 -4.598
50 CP6 167 -4.598
50 CP6 168 -5.575
50 CP6 169 -7.039
50 CP6 170 -8.993
50 CP6 171 -9.969
50 CP6 172 -10.457
50 CP6 173 -10.457
50 CP6 174 -10.457
50 CP6 175 -9.969
50 CP6 176 -8.993
50 CP6 177 -8.016
50 CP6 178 -7.039
50 CP6 179 -7.039
50 CP6 180 -8.016
50 CP6 181 -8.504
50 CP6 182 -7.528
50 CP6 183 -5.086
50 CP6 184 -2.645
50 CP6 185 -1.180
50 CP6 186 -2.157
50 CP6 187 -4.598
50 CP6 188 -7.039
50 CP6 189 -7.039
50 CP6 190 -5.575
50 CP6 191 -3.133
50 CP6 192 -2.157
50 CP6 193 -3.621
50 CP6 194 -5.575
50 CP6 195 -7.528
50 CP6 196 -8.504
50 CP6 197 -8.504
50 CP6 198 -8.504
50 CP6 199 -8.993
50 CP6 200 -9.969
50 CP6 201 -11.434
50 CP6 202 -11.922
50 CP6 203 -11.922
50 CP6 204 -11.434
50 CP6 205 -10.946
50 CP6 206 -11.434
50 CP6 207 -12.410
50 CP6 208 -13.387
50 CP6 209 -13.875
50 CP6 210 -13.875
50 CP6 211 -12.899
50 CP6 212 -11.434
50 CP6 213 -9.969
50 CP6 214 -8.504
50 CP6 215 -7.528
50 CP6 216 -7.039
50 CP6 217 -6.551
50 CP6 218 -5.575
50 CP6 219 -5.086
50 CP6 220 -4.110
50 CP6 221 -4.598
50 CP6 222 -6.063
50 CP6 223 -8.504
50 CP6 224 -10.946
50 CP6 225 -11.922
50 CP6 226 -10.946
50 CP6 227 -8.504
50 CP6 228 -6.551
50 CP6 229 -6.063
50 CP6 230 -6.551
50 CP6 231 -7.528
50 CP6 232 -8.504
50 CP6 233 -9.481
50 CP6 234 -9.969
50 CP6 235 -10.457
50 CP6 236 -10.946
50 CP6 237 -10.457
50 CP6 238 -9.481
50 CP6 239 -8.016
50 CP6 240 -6.063
50 CP6 241 -5.575
50 CP6 242 -5.575
50 CP6 243 -6.063
50 CP6 244 -6.063
50 CP6 245 -6.551
50 CP6 246 -6.063
50 CP6 247 -6.063
50 CP6 248 -6.063
50 CP6 249 -6.063
50 CP6 250 -6.063
50 CP6 251 -6.063
50 CP6 252 -6.063
50 CP6 253 -6.063
50 CP6 254 -6.551
50 CP6 255 -6.551
# CP1 chan 20
50 CP1 0 1.383
50 CP1 1 2.848
50 CP1 2 3.825
50 CP1 3 4.313
50 CP1 4 3.337
50 CP1 5 1.383
50 CP1 6 -0.570
50 CP1 7 -2.523
50 CP1 8 -3.499
50 CP1 9 -2.523
50 CP1 10 -0.570
50 CP1 11 1.872
50 CP1 12 3.825
50 CP1 13 4.801
50 CP1 14 3.825
50 CP1 15 1.872
50 CP1 16 0.407
50 CP1 17 -0.570
50 CP1 18 -0.570
50 CP1 19 -0.570
50 CP1 20 -0.570
50 CP1 21 -0.570
50 CP1 22 -0.081
50 CP1 23 0.895
50 CP1 24 2.360
50 CP1 25 3.337
50 CP1 26 3.337
50 CP1 27 1.872
50 CP1 28 0.407
50 CP1 29 -0.570
50 CP1 30 -1.546
50 CP1 31 -2.035
50 CP1 32 -1.546
50 CP1 33 -0.570
50 CP1 34 1.383
50 CP1 35 2.848
50 CP1 36 3.337
50 CP1 37 2.360
50 CP1 38 0.895
50 CP1 39 -0.570
50 CP1 40 -0.570
50 CP1 41 -0.081
50 CP1 42 1.383
50 CP1 43 1.872
50 CP1 44 2.360
50 CP1 45 2.360
50 CP1 46 2.360
50 CP1 47 2.360
50 CP1 48 2.848
50 CP1 49 2.848
50 CP1 50 2.360
50 CP1 51 2.360
50 CP1 52 1.872
50 CP1 53 1.383
50 CP1 54 0.895
50 CP1 55 -0.081
50 CP1 56 -0.570
50 CP1 57 -0.570
50 CP1 58 0.407
50 CP1 59 1.872
50 CP1 60 3.337
50 CP1 61 3.825
50 CP1 62 3.825
50 CP1 63 2.848
50 CP1 64 2.360
50 CP1 65 2.360
50 CP1 66 3.337
50 CP1 67 5.290
50 CP1 68 6.266
50 CP1 69 6.755
50 CP1 70 6.266
50 CP1 71 5.778
50 CP1 72 4.313
50 CP1 73 3.337
50 CP1 74 2.360
50 CP1 75 0.895
50 CP1 76 -0.570
50 CP1 77 -1.058
50 CP1 78 -1.546
50 CP1 79 -2.035
50 CP1 80 -2.523
50 CP1 81 -3.988
50 CP1 82 -5.941
50 CP1 83 -7.406
50 CP1 84 -7.406
50 CP1 85 -6.429
50 CP1 86 -4.476
50 CP1 87 -3.499
50 CP1 88 -3.011
50 CP1 89 -3.499
50 CP1 90 -3.988
50 CP1 91 -3.988
50 CP1 92 -3.011
50 CP1 93 -1.546
50 CP1 94 -0.570
50 CP1 95 -0.570
50 CP1 96 -1.546
50 CP1 97 -3.499
50 CP1 98 -4.964
50 CP1 99 -5.452
50 CP1 100 -5.452
50 CP1 101 -4.476
50 CP1 102 -3.988
50 CP1 103 -3.499
50 CP1 104 -3.499
50 CP1 105 -4.476
50 CP1 106 -4.964
50 CP1 107 -5.452
50 CP1 108 -4.964
50 CP1 109 -3.499
50 CP1 110 -1.058
50 CP1 111 0.407
50 CP1 112 0.895
50 CP1 113 0.407
50 CP1 114 -1.058
50 CP1 115 -2.523
50 CP1 116 -3.011
50 CP1 117 -3.011
50 CP1 118 -3.011
50 CP1 119 -3.011
50 CP1 120 -3.011
50 CP1 121 -3.988
50 CP1 122 -4.476
50 CP1 123 -4.476
50 CP1 124 -3.988
50 CP1 125 -3.011
50 CP1 126 -1.058
50 CP1 127 0.407
50 CP1 128 0.895
50 CP1 129 0.407
50 CP1 130 -0.570
50 CP1 131 -1.546
50 CP1 132 -1.546
50 CP1 133 -0.570
50 CP1 134 1.383
50 CP1 135 2.848
50 CP1 136 2.848
50 CP1 137 0.407
50 CP1 138 -2.523
50 CP1 139 -4.476
50 CP1 140 -5.452
50 CP1 141 -4.964
50 CP1 142 -4.476
50 CP1 143 -4.476
50 CP1 144 -5.452
50 CP1 145 -5.941
50 CP1 146 -4.964
50 CP1 147 -2.523
50 CP1 148 0.407
50 CP1 149 2.360
50 CP1 150 1.872
50 CP1 151 -0.081
50 CP1 152 -2.523
50 CP1 153 -3.499
50 CP1 154 -3.011
50 CP1 155 -1.058
50 CP1 156 -0.081
50 CP1 157 0.895
50 CP1 158 1.383
50 CP1 159 2.360
50 CP1 160 3.337
50 CP1 161 3.825
50 CP1 162 2.360
50 CP1 163 0.407
50 CP1 164 -1.546
50 CP1 165 -2.523
50 CP1 166 -2.523
50 CP1 167 -2.035
50 CP1 168 -1.546
50 CP1 169 -2.035
50 CP1 170 -3.499
50 CP1 171 -4.476
50 CP1 172 -5.452
50 CP1 173 -6.429
50 CP1 174 -6.429
50 CP1 175 -6.429
50 CP1 176 -6.429
50 CP1 177 -5.941
50 CP1 178 -5.941
50 CP1 179 -7.406
50 CP1 180 -9.359
50 CP1 181 -10.335
50 CP1 182 -10.824
50 CP1 183 -8.870
50 CP1 184 -6.917
50 CP1 185 -5.941
50 CP1 186 -6.917
50 CP1 187 -9.359
50 CP1 188 -11.312
50 CP1 189 -12.288
50 CP1 190 -12.288
50 CP1 191 -11.800
50 CP1 192 -11.800
50 CP1 193 -12.288
50 CP1 194 -12.288
50 CP1 195 -12.288
50 CP1 196 -11.312
50 CP1 197 -9.847
50 CP1 198 -8.382
50 CP1 199 -7.406
50 CP1 200 -6.917
50 CP1 201 -6.429
50 CP1 202 -5.452
50 CP1 203 -4.964
50 CP1 204 -4.964
50 CP1 205 -5.452
50 CP1 206 -6.429
50 CP1 207 -7.406
50 CP1 208 -7.894
50 CP1 209 -8.382
50 CP1 210 -8.382
50 CP1 211 -8.382
50 CP1 212 -7.406
50 CP1 213 -6.429
50 CP1 214 -5.452
50 CP1 215 -5.452
50 CP1 216 -5.941
50 CP1 217 -6.429
50 CP1 218 -5.452
50 CP1 219 -3.988
50 CP1 220 -1.546
50 CP1 221 0.407
50 CP1 222 0.895
50 CP1 223 -0.081
50 CP1 224 -2.035
50 CP1 225 -3.011
50 CP1 226 -3.499
50 CP1 227 -3.011
50 CP1 228 -3.011
50 CP1 229 -3.011
50 CP1 230 -3.988
50 CP1 231 -4.476
50 CP1 232 -5.452
50 CP1 233 -5.452
50 CP1 234 -5.941
50 CP1 235 -6.429
50 CP1 236 -6.917
50 CP1 237 -6.917
50 CP1 238 -5.452
50 CP1 239 -3.499
50 CP1 240 -1.058
50 CP1 241 0.407
50 CP1 242 0.407
50 CP1 243 -1.546
50 CP1 244 -3.499
50 CP1 245 -4.476
50 CP1 246 -4.476
50 CP1 247 -3.499
50 CP1 248 -2.523
50 CP1 249 -2.523
50 CP1 250 -3.011
50 CP1 251 -3.499
50 CP1 252 -3.499
50 CP1 253 -3.988
50 CP1 254 -3.499
50 CP1 255 -3.988
# CP2 chan 21
50 CP2 0 2.747
50 CP2 1 2.747
50 CP2 2 2.747
50 CP2 3 2.747
50 CP2 4 2.258
50 CP2 5 1.282
50 CP2 6 -0.671
50 CP2 7 -2.136
50 CP2 8 -3.113
50 CP2 9 -3.113
50 CP2 10 -1.160
50 CP2 11 0.793
50 CP2 12 2.747
50 CP2 13 3.235
50 CP2 14 2.747
50 CP2 15 1.282
50 CP2 16 1.282
50 CP2 17 1.770
50 CP2 18 2.747
50 CP2 19 3.723
50 CP2 20 3.723
50 CP2 21 2.258
50 CP2 22 0.793
50 CP2 23 -0.183
50 CP2 24 -0.183
50 CP2 25 1.282
50 CP2 26 2.258
50 CP2 27 2.747
50 CP2 28 2.258
50 CP2 29 1.282
50 CP2 30 0.305
50 CP2 31 -0.183
50 CP2 32 -0.183
50 CP2 33 0.793
50 CP2 34 1.770
50 CP2 35 3.235
50 CP2 36 3.723
50 CP2 37 2.747
50 CP2 38 1.282
50 CP2 39 -0.183
50 CP2 40 -1.160
50 CP2 41 -0.671
50 CP2 42 1.282
50 CP2 43 3.235
50 CP2 44 5.188
50 CP2 45 5.676
50 CP2 46 5.188
50 CP2 47 4.211
50 CP2 48 2.747
50 CP2 49 1.770
50 CP2 50 0.793
50 CP2 51 0.793
50 CP2 52 0.793
50 CP2 53 1.282
50 CP2 54 1.282
50 CP2 55 0.793
50 CP2 56 0.793
50 CP2 57 0.793
50 CP2 58 1.282
50 CP2 59 1.770
50 CP2 60 2.258
50 CP2 61 1.770
50 CP2 62 1.282
50 CP2 63 1.282
50 CP2 64 1.282
50 CP2 65 1.282
50 CP2 66 1.770
50 CP2 67 1.770
50 CP2 68 1.770
50 CP2 69 2.747
50 CP2 70 3.723
50 CP2 71 4.211
50 CP2 72 4.700
50 CP2 73 3.723
50 CP2 74 2.258
50 CP2 75 0.793
50 CP2 76 0.305
50 CP2 77 -0.671
50 CP2 78 -1.648
50 CP2 79 -2.625
50 CP2 80 -3.113
50 CP2 81 -3.601
50 CP2 82 -4.089
50 CP2 83 -4.089
50 CP2 84 -3.601
50 CP2 85 -3.113
50 CP2 86 -2.625
50 CP2 87 -1.160
50 CP2 88 -0.183
50 CP2 89 0.305
50 CP2 90 0.793
50 CP2 91 1.282
50 CP2 92 1.282
50 CP2 93 1.282
50 CP2 94 1.282
50 CP2 95 0.305
50 CP2 96 -0.671
50 CP2 97 -2.136
50 CP2 98 -3.113
50 CP2 99 -4.089
50 CP2 100 -4.089
50 CP2 101 -3.601
50 CP2 102 -2.625
50 CP2 103 -2.136
50 CP2 104 -2.625
50 CP2 105 -3.601
50 CP2 106 -5.066
50 CP2 107 -6.042
50 CP2 108 -6.042
50 CP2 109 -4.578
50 CP2 110 -2.625
50 CP2 111 0.305
50 CP2 112 2.258
50 CP2 113 3.235
50 CP2 114 2.747
50 CP2 115 2.258
50 CP2 116 1.282
50 CP2 117 0.305
50 CP2 118 -0.671
50 CP2 119 -1.648
50 CP2 120 -2.625
50 CP2 121 -3.601
50 CP2 122 -4.089
50 CP2 123 -4.578
50 CP2 124 -4.089
50 CP2 125 -3.601
50 CP2 126 -3.113
50 CP2 127 -2.625
50 CP2 128 -2.136
50 CP2 129 -2.136
50 CP2 130 -2.136
50 CP2 131 -2.136
50 CP2 132 -2.625
50 CP2 133 -3.113
50 CP2 134 -3.113
50 CP2 135 -2.625
50 CP2 136 -2.625
50 CP2 137 -2.625
50 CP2 138 -3.113
50 CP2 139 -3.113
50 CP2 140 -2.625
50 CP2 141 -2.136
50 CP2 142 -1.160
50 CP2 143 -1.160
50 CP2 144 -1.160
50 CP2 145 -1.160
50 CP2 146 -0.671
50 CP2 147 0.793
50 CP2 148 1.770
50 CP2 149 2.747
50 CP2 150 1.770
50 CP2 151 0.793
50 CP2 152 -1.160
50 CP2 153 -1.648
50 CP2 154 -1.160
50 CP2 155 -0.671
50 CP2 156 -0.183
50 CP2 157 -0.671
50 CP2 158 -1.160
50 CP2 159 -1.648
50 CP2 160 -1.160
50 CP2 161 -1.160
50 CP2 162 -2.625
50 CP2 163 -4.089
50 CP2 164 -6.042
50 CP2 165 -7.019
50 CP2 166 -6.531
50 CP2 167 -5.554
50 CP2 168 -4.578
50 CP2 169 -4.089
50 CP2 170 -4.578
50 CP2 171 -5.554
50 CP2 172 -6.531
50 CP2 173 -7.507
50 CP2 174 -8.484
50 CP2 175 -8.972
50 CP2 176 -8.972
50 CP2 177 -8.484
50 CP2 178 -7.507
50 CP2 179 -7.507
50 CP2 180 -7.996
50 CP2 181 -8.484
50 CP2 182 -8.972
50 CP2 183 -7.996
50 CP2 184 -6.531
50 CP2 185 -5.066
50 CP2 186 -5.554
50 CP2 187 -7.507
50 CP2 188 -10.437
50 CP2 189 -11.902
50 CP2 190 -11.414
50 CP2 191 -9.460
50 CP2 192 -7.507
50 CP2 193 -6.042
50 CP2 194 -5.554
50 CP2 195 -5.066
50 CP2 196 -5.066
50 CP2 197 -5.066
50 CP2 198 -5.066
50 CP2 199 -6.042
50 CP2 200 -7.507
50 CP2 201 -9.460
50 CP2 202 -10.925
50 CP2 203 -11.902
50 CP2 204 -11.414
50 CP2 205 -10.925
50 CP2 206 -10.925
50 CP2 207 -10.437
50 CP2 208 -10.437
50 CP2 209 -10.437
50 CP2 210 -9.460
50 CP2 211 -8.484
50 CP2 212 -7.507
50 CP2 213 -6.531
50 CP2 214 -6.042
50 CP2 215 -6.042
50 CP2 216 -6.042
50 CP2 217 -5.554
50 CP2 218 -5.066
50 CP2 219 -3.601
50 CP2 220 -3.601
50 CP2 221 -4.089
50 CP2 222 -5.554
50 CP2 223 -7.019
50 CP2 224 -8.484
50 CP2 225 -8.972
50 CP2 226 -8.972
50 CP2 227 -7.996
50 CP2 228 -7.507
50 CP2 229 -7.507
50 CP2 230 -7.507
50 CP2 231 -6.531
50 CP2 232 -5.554
50 CP2 233 -4.578
50 CP2 234 -4.578
50 CP2 235 -5.554
50 CP2 236 -7.507
50 CP2 237 -8.484
50 CP2 238 -7.507
50 CP2 239 -5.066
50 CP2 240 -2.136
50 CP2 241 -1.160
50 CP2 242 -1.160
50 CP2 243 -3.113
50 CP2 244 -4.578
50 CP2 245 -5.066
50 CP2 246 -4.578
50 CP2 247 -3.601
50 CP2 248 -3.601
50 CP2 249 -4.578
50 CP2 250 -5.554
50 CP2 251 -7.019
50 CP2 252 -7.019
50 CP2 253 -7.507
50 CP2 254 -7.507
50 CP2 255 -7.996
# P3 chan 22
50 P3 0 8.158
50 P3 1 7.670
50 P3 2 7.182
50 P3 3 7.182
50 P3 4 6.694
50 P3 5 5.717
50 P3 6 3.764
50 P3 7 1.811
50 P3 8 0.346
50 P3 9 0.346
50 P3 10 1.322
50 P3 11 2.787
50 P3 12 4.252
50 P3 13 4.740
50 P3 14 4.252
50 P3 15 3.276
50 P3 16 2.299
50 P3 17 1.322
50 P3 18 0.834
50 P3 19 0.346
50 P3 20 0.346
50 P3 21 1.322
50 P3 22 1.811
50 P3 23 2.299
50 P3 24 1.322
50 P3 25 0.346
50 P3 26 -1.119
50 P3 27 -2.096
50 P3 28 -2.096
50 P3 29 -2.584
50 P3 30 -3.072
50 P3 31 -3.560
50 P3 32 -3.072
50 P3 33 -1.607
50 P3 34 -0.142
50 P3 35 1.322
50 P3 36 1.811
50 P3 37 0.834
50 P3 38 -1.119
50 P3 39 -2.096
50 P3 40 -2.584
50 P3 41 -1.607
50 P3 42 -1.119
50 P3 43 -0.631
50 P3 44 -0.142
50 P3 45 0.834
50 P3 46 2.299
50 P3 47 3.764
50 P3 48 4.740
50 P3 49 4.740
50 P3 50 4.740
50 P3 51 4.252
50 P3 52 3.764
50 P3 53 2.787
50 P3 54 0.346
50 P3 55 -2.584
50 P3 56 -4.049
50 P3 57 -3.072
50 P3 58 0.346
50 P3 59 3.276
50 P3 60 3.764
50 P3 61 2.299
50 P3 62 0.346
50 P3 63 -0.631
50 P3 64 1.322
50 P3 65 3.276
50 P3 66 4.252
50 P3 67 3.276
50 P3 68 1.811
50 P3 69 0.834
50 P3 70 1.811
50 P3 71 4.740
50 P3 72 6.694
50 P3 73 6.694
50 P3 74 4.252
50 P3 75 0.834
50 P3 76 -1.607
50 P3 77 -2.584
50 P3 78 -2.096
50 P3 79 -1.119
50 P3 80 -0.631
50 P3 81 -0.631
50 P3 82 -0.631
50 P3 83 -1.119
50 P3 84 -1.119
50 P3 85 -1.119
50 P3 86 -1.119
50 P3 87 -1.119
50 P3 88 -1.119
50 P3 89 -0.631
50 P3 90 0.346
50 P3 91 1.322
50 P3 92 2.299
50 P3 93 2.787
50 P3 94 2.299
50 P3 95 0.834
50 P3 96 -0.142
50 P3 97 -1.119
50 P3 98 -2.096
50 P3 99 -2.096
50 P3 100 -2.096
50 P3 101 -1.119
50 P3 102 -0.631
50 P3 103 0.834
50 P3 104 1.322
50 P3 105 0.834
50 P3 106 -0.142
50 P3 107 -1.119
50 P3 108 -1.119
50 P3 109 -0.142
50 P3 110 2.299
50 P3 111 3.764
50 P3 112 4.252
50 P3 113 2.787
50 P3 114 0.346
50 P3 115 -1.607
50 P3 116 -1.607
50 P3 117 -0.631
50 P3 118 0.834
50 P3 119 1.322
50 P3 120 0.346
50 P3 121 -0.631
50 P3 122 -1.607
50 P3 123 -0.631
50 P3 124 0.834
50 P3 125 3.276
50 P3 126 5.717
50 P3 127 8.158
50 P3 128 9.623
50 P3 129 9.135
50 P3 130 6.694
50 P3 131 4.252
50 P3 132 2.299
50 P3 133 2.299
50 P3 134 4.252
50 P3 135 6.694
50 P3 136 7.182
50 P3 137 5.229
50 P3 138 1.322
50 P3 139 -2.096
50 P3 140 -3.560
50 P3 141 -2.584
50 P3 142 -1.119
50 P3 143 -1.119
50 P3 144 -2.096
50 P3 145 -3.072
50 P3 146 -2.584
50 P3 147 0.346
50 P3 148 3.764
50 P3 149 6.205
50 P3 150 6.205
50 P3 151 4.252
50 P3 152 1.811
50 P3 153 -0.142
50 P3 154 -0.142
50 P3 155 0.834
50 P3 156 2.787
50 P3 157 4.252
50 P3 158 5.717
50 P3 159 6.205
50 P3 160 6.205
50 P3 161 6.205
50 P3 162 5.229
50 P3 163 4.740
50 P3 164 4.252
50 P3 165 3.764
50 P3 166 3.276
50 P3 167 2.787
50 P3 168 2.787
50 P3 169 2.787
50 P3 170 1.811
50 P3 171 -0.142
50 P3 172 -3.560
50 P3 173 -6.978
50 P3 174 -8.931
50 P3 175 -8.931
50 P3 176 -6.002
50 P3 177 -3.560
50 P3 178 -2.584
50 P3 179 -3.560
50 P3 180 -6.002
50 P3 181 -7.955
50 P3 182 -7.955
50 P3 183 -6.490
50 P3 184 -5.025
50 P3 185 -4.537
50 P3 186 -6.002
50 P3 187 -7.955
50 P3 188 -8.931
50 P3 189 -9.420
50 P3 190 -9.420
50 P3 191 -9.908
50 P3 192 -8.931
50 P3 193 -6.978
50 P3 194 -4.049
50 P3 195 -1.607
50 P3 196 -1.119
50 P3 197 -3.560
50 P3 198 -7.467
50 P3 199 -9.908
50 P3 200 -10.885
50 P3 201 -9.420
50 P3 202 -8.443
50 P3 203 -8.443
50 P3 204 -9.420
50 P3 205 -10.396
50 P3 206 -9.908
50 P3 207 -7.955
50 P3 208 -6.490
50 P3 209 -5.025
50 P3 210 -4.049
50 P3 211 -2.584
50 P3 212 -0.142
50 P3 213 2.299
50 P3 214 4.740
50 P3 215 5.229
50 P3 216 4.740
50 P3 217 3.764
50 P3 218 3.276
50 P3 219 3.764
50 P3 220 4.740
50 P3 221 4.740
50 P3 222 3.764
50 P3 223 1.811
50 P3 224 0.346
50 P3 225 -0.142
50 P3 226 -0.142
50 P3 227 0.346
50 P3 228 0.834
50 P3 229 -0.142
50 P3 230 -1.119
50 P3 231 -1.607
50 P3 232 -1.119
50 P3 233 -0.631
50 P3 234 -0.142
50 P3 235 -0.142
50 P3 236 -0.142
50 P3 237 0.834
50 P3 238 2.787
50 P3 239 5.229
50 P3 240 7.182
50 P3 241 7.182
50 P3 242 5.229
50 P3 243 2.787
50 P3 244 0.834
50 P3 245 0.346
50 P3 246 0.346
50 P3 247 0.834
50 P3 248 0.834
50 P3 249 0.346
50 P3 250 0.346
50 P3 251 0.346
50 P3 252 0.834
50 P3 253 0.834
50 P3 254 0.346
50 P3 255 -0.142
# P4 chan 23
50 P4 0 1.740
50 P4 1 1.740
50 P4 2 1.740
50 P4 3 2.228
50 P4 4 1.740
50 P4 5 0.275
50 P4 6 -1.678
50 P4 7 -3.632
50 P4 8 -3.632
50 P4 9 -2.167
50 P4 10 0.763
50 P4 11 3.204
50 P4 12 4.181
50 P4 13 3.204
50 P4 14 1.251
50 P4 15 -0.214
50 P4 16 -0.702
50 P4 17 0.275
50 P4 18 1.251
50 P4 19 0.763
50 P4 20 -0.702
50 P4 21 -2.655
50 P4 22 -3.632
50 P4 23 -3.632
50 P4 24 -3.143
50 P4 25 -2.167
50 P4 26 -2.167
50 P4 27 -2.167
50 P4 28 -2.167
50 P4 29 -1.678
50 P4 30 -0.214
50 P4 31 1.251
50 P4 32 2.716
50 P4 33 4.181
50 P4 34 5.157
50 P4 35 7.111
50 P4 36 7.599
50 P4 37 7.111
50 P4 38 4.669
50 P4 39 0.763
50 P4 40 -1.678
50 P4 41 -2.167
50 P4 42 -0.702
50 P4 43 2.228
50 P4 44 5.157
50 P4 45 6.134
50 P4 46 5.646
50 P4 47 4.181
50 P4 48 3.204
50 P4 49 2.228
50 P4 50 2.228
50 P4 51 2.228
50 P4 52 1.251
50 P4 53 0.275
50 P4 54 -1.190
50 P4 55 -2.167
50 P4 56 -2.655
50 P4 57 -2.167
50 P4 58 -0.702
50 P4 59 0.275
50 P4 60 0.763
50 P4 61 0.763
50 P4 62 1.251
50 P4 63 1.740
50 P4 64 2.716
50 P4 65 3.204
50 P4 66 3.204
50 P4 67 2.716
50 P4 68 2.716
50 P4 69 3.693
50 P4 70 6.134
50 P4 71 8.575
50 P4 72 10.529
50 P4 73 10.529
50 P4 74 8.575
50 P4 75 6.134
50 P4 76 3.693
50 P4 77 2.716
50 P4 78 2.716
50 P4 79 3.204
50 P4 80 2.716
50 P4 81 1.251
50 P4 82 -0.702
50 P4 83 -2.655
50 P4 84 -3.632
50 P4 85 -3.632
50 P4 86 -3.632
50 P4 87 -4.120
50 P4 88 -5.096
50 P4 89 -5.585
50 P4 90 -5.096
50 P4 91 -3.632
50 P4 92 -1.190
50 P4 93 0.763
50 P4 94 1.740
50 P4 95 1.251
50 P4 96 0.275
50 P4 97 -0.702
50 P4 98 -1.190
50 P4 99 -1.678
50 P4 100 -1.678
50 P4 101 -1.678
50 P4 102 -0.702
50 P4 103 0.275
50 P4 104 1.251
50 P4 105 0.763
50 P4 106 -1.678
50 P4 107 -4.120
50 P4 108 -6.073
50 P4 109 -6.073
50 P4 110 -3.632
50 P4 111 -0.214
50 P4 112 2.716
50 P4 113 3.204
50 P4 114 2.228
50 P4 115 0.763
50 P4 116 -0.214
50 P4 117 -0.214
50 P4 118 0.275
50 P4 119 0.275
50 P4 120 -0.702
50 P4 121 -2.167
50 P4 122 -3.143
50 P4 123 -3.143
50 P4 124 -2.167
50 P4 125 -1.678
50 P4 126 -2.167
50 P4 127 -2.655
50 P4 128 -2.655
50 P4 129 -2.655
50 P4 130 -2.167
50 P4 131 -1.678
50 P4 132 -1.678
50 P4 133 -1.678
50 P4 134 -1.190
50 P4 135 -1.190
50 P4 136 -1.678
50 P4 137 -3.632
50 P4 138 -6.073
50 P4 139 -8.514
50 P4 140 -9.003
50 P4 141 -8.026
50 P4 142 -6.561
50 P4 143 -5.096
50 P4 144 -4.608
50 P4 145 -3.632
50 P4 146 -2.655
50 P4 147 -0.702
50 P4 148 1.251
50 P4 149 2.228
50 P4 150 1.740
50 P4 151 -0.214
50 P4 152 -2.655
50 P4 153 -3.632
50 P4 154 -3.143
50 P4 155 -2.167
50 P4 156 -1.678
50 P4 157 -1.190
50 P4 158 -1.678
50 P4 159 -2.167
50 P4 160 -2.655
50 P4 161 -3.143
50 P4 162 -4.120
50 P4 163 -5.096
50 P4 164 -6.561
50 P4 165 -7.538
50 P4 166 -8.514
50 P4 167 -9.491
50 P4 168 -9.979
50 P4 169 -11.444
50 P4 170 -13.397
50 P4 171 -15.350
50 P4 172 -16.815
50 P4 173 -17.303
50 P4 174 -16.815
50 P4 175 -15.839
50 P4 176 -14.374
50 P4 177 -13.885
50 P4 178 -13.885
50 P4 179 -15.350
50 P4 180 -17.303
50 P4 181 -18.768
50 P4 182 -19.745
50 P4 183 -19.257
50 P4 184 -18.768
50 P4 185 -19.257
50 P4 186 -20.233
50 P4 187 -22.186
50 P4 188 -23.163
50 P4 189 -22.675
50 P4 190 -21.210
50 P4 191 -19.257
50 P4 192 -18.280
50 P4 193 -17.792
50 P4 194 -17.792
50 P4 195 -18.280
50 P4 196 -18.768
50 P4 197 -19.745
50 P4 198 -20.721
50 P4 199 -21.698
50 P4 200 -22.186
50 P4 201 -22.186
50 P4 202 -22.186
50 P4 203 -22.675
50 P4 204 -23.163
50 P4 205 -24.139
50 P4 206 -24.628
50 P4 207 -24.628
50 P4 208 -24.628
50 P4 209 -24.628
50 P4 210 -25.116
50 P4 211 -25.604
50 P4 212 -25.116
50 P4 213 -24.628
50 P4 214 -23.163
50 P4 215 -21.698
50 P4 216 -20.233
50 P4 217 -19.257
50 P4 218 -19.257
50 P4 219 -18.280
50 P4 220 -18.280
50 P4 221 -19.257
50 P4 222 -20.721
50 P4 223 -22.675
50 P4 224 -24.628
50 P4 225 -25.116
50 P4 226 -24.139
50 P4 227 -22.675
50 P4 228 -20.721
50 P4 229 -20.721
50 P4 230 -20.721
50 P4 231 -20.721
50 P4 232 -19.745
50 P4 233 -18.768
50 P4 234 -18.280
50 P4 235 -18.768
50 P4 236 -19.257
50 P4 237 -19.257
50 P4 238 -17.303
50 P4 239 -14.862
50 P4 240 -12.421
50 P4 241 -10.956
50 P4 242 -10.468
50 P4 243 -11.444
50 P4 244 -12.421
50 P4 245 -13.397
50 P4 246 -13.397
50 P4 247 -12.909
50 P4 248 -11.932
50 P4 249 -10.956
50 P4 250 -10.956
50 P4 251 -11.932
50 P4 252 -13.885
50 P4 253 -15.350
50 P4 254 -16.327
50 P4 255 -16.327
# PZ chan 24
50 PZ 0 5.239
50 PZ 1 5.727
50 PZ 2 6.704
50 PZ 3 7.680
50 PZ 4 7.680
50 PZ 5 6.704
50 PZ 6 4.262
50 PZ 7 1.333
50 PZ 8 -0.621
50 PZ 9 -1.597
50 PZ 10 -0.132
50 PZ 11 1.333
50 PZ 12 2.797
50 PZ 13 2.797
50 PZ 14 1.821
50 PZ 15 0.356
50 PZ 16 -1.597
50 PZ 17 -3.062
50 PZ 18 -3.550
50 PZ 19 -4.527
50 PZ 20 -4.038
50 PZ 21 -3.550
50 PZ 22 -1.597
50 PZ 23 -0.132
50 PZ 24 0.844
50 PZ 25 0.356
50 PZ 26 -1.109
50 PZ 27 -2.085
50 PZ 28 -1.597
50 PZ 29 -0.621
50 PZ 30 0.844
50 PZ 31 1.821
50 PZ 32 2.797
50 PZ 33 4.262
50 PZ 34 7.192
50 PZ 35 11.098
50 PZ 36 13.540
50 PZ 37 13.051
50 PZ 38 9.145
50 PZ 39 4.751
50 PZ 40 1.821
50 PZ 41 1.821
50 PZ 42 3.774
50 PZ 43 5.727
50 PZ 44 6.215
50 PZ 45 5.239
50 PZ 46 4.751
50 PZ 47 5.239
50 PZ 48 6.215
50 PZ 49 6.704
50 PZ 50 5.239
50 PZ 51 1.821
50 PZ 52 -2.085
50 PZ 53 -5.015
50 PZ 54 -5.992
50 PZ 55 -5.015
50 PZ 56 -3.062
50 PZ 57 -0.621
50 PZ 58 1.333
50 PZ 59 2.309
50 PZ 60 2.309
50 PZ 61 1.333
50 PZ 62 -0.132
50 PZ 63 -1.109
50 PZ 64 -1.109
50 PZ 65 0.356
50 PZ 66 0.844
50 PZ 67 0.356
50 PZ 68 -0.621
50 PZ 69 -2.085
50 PZ 70 -2.085
50 PZ 71 -0.621
50 PZ 72 1.333
50 PZ 73 1.821
50 PZ 74 1.333
50 PZ 75 -0.621
50 PZ 76 -3.062
50 PZ 77 -4.527
50 PZ 78 -5.503
50 PZ 79 -5.992
50 PZ 80 -5.503
50 PZ 81 -5.015
50 PZ 82 -4.038
50 PZ 83 -3.062
50 PZ 84 -2.574
50 PZ 85 -3.062
50 PZ 86 -4.527
50 PZ 87 -5.015
50 PZ 88 -4.527
50 PZ 89 -3.062
50 PZ 90 -1.109
50 PZ 91 0.844
50 PZ 92 2.309
50 PZ 93 3.286
50 PZ 94 3.286
50 PZ 95 3.286
50 PZ 96 1.821
50 PZ 97 -0.621
50 PZ 98 -4.038
50 PZ 99 -6.480
50 PZ 100 -6.968
50 PZ 101 -5.503
50 PZ 102 -2.085
50 PZ 103 0.356
50 PZ 104 2.309
50 PZ 105 2.309
50 PZ 106 1.333
50 PZ 107 0.844
50 PZ 108 0.844
50 PZ 109 2.797
50 PZ 110 4.751
50 PZ 111 5.727
50 PZ 112 6.215
50 PZ 113 5.727
50 PZ 114 5.239
50 PZ 115 5.239
50 PZ 116 6.215
50 PZ 117 7.192
50 PZ 118 7.192
50 PZ 119 5.727
50 PZ 120 3.774
50 PZ 121 2.309
50 PZ 122 2.309
50 PZ 123 4.262
50 PZ 124 6.704
50 PZ 125 8.657
50 PZ 126 10.122
50 PZ 127 10.610
50 PZ 128 10.610
50 PZ 129 10.122
50 PZ 130 8.657
50 PZ 131 6.215
50 PZ 132 3.774
50 PZ 133 2.309
50 PZ 134 2.797
50 PZ 135 3.774
50 PZ 136 4.262
50 PZ 137 2.797
50 PZ 138 0.356
50 PZ 139 -1.597
50 PZ 140 -2.085
50 PZ 141 -0.132
50 PZ 142 1.333
50 PZ 143 0.844
50 PZ 144 -1.597
50 PZ 145 -4.527
50 PZ 146 -5.015
50 PZ 147 -2.574
50 PZ 148 1.821
50 PZ 149 4.262
50 PZ 150 3.286
50 PZ 151 -1.109
50 PZ 152 -5.503
50 PZ 153 -6.968
50 PZ 154 -5.015
50 PZ 155 -1.109
50 PZ 156 1.333
50 PZ 157 0.844
50 PZ 158 -1.597
50 PZ 159 -4.038
50 PZ 160 -5.015
50 PZ 161 -3.550
50 PZ 162 -1.109
50 PZ 163 -0.132
50 PZ 164 -0.132
50 PZ 165 -1.597
50 PZ 166 -3.062
50 PZ 167 -4.038
50 PZ 168 -5.015
50 PZ 169 -5.992
50 PZ 170 -7.456
50 PZ 171 -8.921
50 PZ 172 -10.386
50 PZ 173 -11.363
50 PZ 174 -12.339
50 PZ 175 -12.828
50 PZ 176 -13.316
50 PZ 177 -12.339
50 PZ 178 -10.874
50 PZ 179 -9.410
50 PZ 180 -8.433
50 PZ 181 -9.410
50 PZ 182 -10.386
50 PZ 183 -11.851
50 PZ 184 -11.851
50 PZ 185 -11.363
50 PZ 186 -11.363
50 PZ 187 -12.828
50 PZ 188 -14.781
50 PZ 189 -15.757
50 PZ 190 -15.269
50 PZ 191 -11.851
50 PZ 192 -7.456
50 PZ 193 -4.038
50 PZ 194 -3.062
50 PZ 195 -4.038
50 PZ 196 -5.503
50 PZ 197 -6.480
50 PZ 198 -5.992
50 PZ 199 -5.503
50 PZ 200 -6.480
50 PZ 201 -8.921
50 PZ 202 -11.851
50 PZ 203 -12.828
50 PZ 204 -12.828
50 PZ 205 -11.363
50 PZ 206 -10.874
50 PZ 207 -12.339
50 PZ 208 -15.269
50 PZ 209 -18.199
50 PZ 210 -19.663
50 PZ 211 -18.687
50 PZ 212 -16.734
50 PZ 213 -13.804
50 PZ 214 -11.363
50 PZ 215 -8.921
50 PZ 216 -6.968
50 PZ 217 -5.503
50 PZ 218 -4.038
50 PZ 219 -3.550
50 PZ 220 -4.527
50 PZ 221 -6.480
50 PZ 222 -8.921
50 PZ 223 -11.363
50 PZ 224 -13.316
50 PZ 225 -13.804
50 PZ 226 -13.316
50 PZ 227 -12.339
50 PZ 228 -11.851
50 PZ 229 -10.874
50 PZ 230 -9.898
50 PZ 231 -7.945
50 PZ 232 -5.992
50 PZ 233 -4.527
50 PZ 234 -4.038
50 PZ 235 -5.015
50 PZ 236 -6.480
50 PZ 237 -7.456
50 PZ 238 -6.968
50 PZ 239 -4.038
50 PZ 240 -0.132
50 PZ 241 3.286
50 PZ 242 5.239
50 PZ 243 5.727
50 PZ 244 4.751
50 PZ 245 4.262
50 PZ 246 4.262
50 PZ 247 4.751
50 PZ 248 5.239
50 PZ 249 4.262
50 PZ 250 1.821
50 PZ 251 -0.132
50 PZ 252 -1.109
50 PZ 253 -1.109
50 PZ 254 -0.132
50 PZ 255 0.356
# P8 chan 25
50 P8 0 3.164
50 P8 1 3.652
50 P8 2 4.140
50 P8 3 4.140
50 P8 4 4.140
50 P8 5 2.675
50 P8 6 0.722
50 P8 7 -1.719
50 P8 8 -3.184
50 P8 9 -2.696
50 P8 10 -0.254
50 P8 11 2.187
50 P8 12 3.652
50 P8 13 3.652
50 P8 14 2.187
50 P8 15 0.234
50 P8 16 -1.231
50 P8 17 -1.719
50 P8 18 -2.207
50 P8 19 -2.696
50 P8 20 -3.672
50 P8 21 -4.161
50 P8 22 -4.649
50 P8 23 -4.649
50 P8 24 -4.161
50 P8 25 -4.161
50 P8 26 -4.649
50 P8 27 -4.161
50 P8 28 -3.184
50 P8 29 -0.254
50 P8 30 3.164
50 P8 31 5.605
50 P8 32 7.558
50 P8 33 8.046
50 P8 34 8.046
50 P8 35 8.046
50 P8 36 8.046
50 P8 37 7.070
50 P8 38 4.628
50 P8 39 0.722
50 P8 40 -2.696
50 P8 41 -5.137
50 P8 42 -5.625
50 P8 43 -5.137
50 P8 44 -4.161
50 P8 45 -3.672
50 P8 46 -4.161
50 P8 47 -4.649
50 P8 48 -5.137
50 P8 49 -4.161
50 P8 50 -1.719
50 P8 51 0.234
50 P8 52 0.234
50 P8 53 -0.743
50 P8 54 -3.672
50 P8 55 -6.114
50 P8 56 -6.602
50 P8 57 -5.137
50 P8 58 -2.696
50 P8 59 -0.743
50 P8 60 -1.231
50 P8 61 -3.672
50 P8 62 -5.625
50 P8 63 -5.625
50 P8 64 -2.207
50 P8 65 1.699
50 P8 66 4.140
50 P8 67 3.652
50 P8 68 2.187
50 P8 69 1.699
50 P8 70 4.140
50 P8 71 8.535
50 P8 72 10.976
50 P8 73 10.000
50 P8 74 4.628
50 P8 75 -1.719
50 P8 76 -5.625
50 P8 77 -5.625
50 P8 78 -3.184
50 P8 79 -0.743
50 P8 80 -1.231
50 P8 81 -4.649
50 P8 82 -7.579
50 P8 83 -9.532
50 P8 84 -8.555
50 P8 85 -7.579
50 P8 86 -8.555
50 P8 87 -11.485
50 P8 88 -14.414
50 P8 89 -15.391
50 P8 90 -12.950
50 P8 91 -8.555
50 P8 92 -4.649
50 P8 93 -3.184
50 P8 94 -4.161
50 P8 95 -6.114
50 P8 96 -7.090
50 P8 97 -7.090
50 P8 98 -7.090
50 P8 99 -7.579
50 P8 100 -9.043
50 P8 101 -10.508
50 P8 102 -10.020
50 P8 103 -9.043
50 P8 104 -7.579
50 P8 105 -8.555
50 P8 106 -11.485
50 P8 107 -15.391
50 P8 108 -18.321
50 P8 109 -18.809
50 P8 110 -16.856
50 P8 111 -13.438
50 P8 112 -11.485
50 P8 113 -10.020
50 P8 114 -9.532
50 P8 115 -7.579
50 P8 116 -5.137
50 P8 117 -3.184
50 P8 118 -3.184
50 P8 119 -4.649
50 P8 120 -6.602
50 P8 121 -7.090
50 P8 122 -5.137
50 P8 123 -2.207
50 P8 124 -0.743
50 P8 125 -1.231
50 P8 126 -3.184
50 P8 127 -4.649
50 P8 128 -5.137
50 P8 129 -3.672
50 P8 130 -2.207
50 P8 131 -1.719
50 P8 132 -1.719
50 P8 133 -3.184
50 P8 134 -4.161
50 P8 135 -5.137
50 P8 136 -5.625
50 P8 137 -7.090
50 P8 138 -9.532
50 P8 139 -10.997
50 P8 140 -10.997
50 P8 141 -8.555
50 P8 142 -5.137
50 P8 143 -2.207
50 P8 144 -1.719
50 P8 145 -3.184
50 P8 146 -4.161
50 P8 147 -3.184
50 P8 148 -0.743
50 P8 149 2.187
50 P8 150 3.652
50 P8 151 1.699
50 P8 152 -2.207
50 P8 153 -6.114
50 P8 154 -7.579
50 P8 155 -7.579
50 P8 156 -7.090
50 P8 157 -7.090
50 P8 158 -8.555
50 P8 159 -10.508
50 P8 160 -11.485
50 P8 161 -11.485
50 P8 162 -10.997
50 P8 163 -11.973
50 P8 164 -13.926
50 P8 165 -16.856
50 P8 166 -19.297
50 P8 167 -20.274
50 P8 168 -20.762
50 P8 169 -21.250
50 P8 170 -21.739
50 P8 171 -21.739
50 P8 172 -21.250
50 P8 173 -19.786
50 P8 174 -17.344
50 P8 175 -15.391
50 P8 176 -13.438
50 P8 177 -12.950
50 P8 178 -12.950
50 P8 179 -13.926
50 P8 180 -15.391
50 P8 181 -15.391
50 P8 182 -14.414
50 P8 183 -12.461
50 P8 184 -10.508
50 P8 185 -10.508
50 P8 186 -12.950
50 P8 187 -16.856
50 P8 188 -19.786
50 P8 189 -20.762
50 P8 190 -18.321
50 P8 191 -14.903
50 P8 192 -12.461
50 P8 193 -12.950
50 P8 194 -15.879
50 P8 195 -19.786
50 P8 196 -22.715
50 P8 197 -24.180
50 P8 198 -24.180
50 P8 199 -24.668
50 P8 200 -24.180
50 P8 201 -24.668
50 P8 202 -24.180
50 P8 203 -22.715
50 P8 204 -21.250
50 P8 205 -20.762
50 P8 206 -21.739
50 P8 207 -23.204
50 P8 208 -24.180
50 P8 209 -23.204
50 P8 210 -21.250
50 P8 211 -19.297
50 P8 212 -18.809
50 P8 213 -19.786
50 P8 214 -20.762
50 P8 215 -20.762
50 P8 216 -19.297
50 P8 217 -17.344
50 P8 218 -14.903
50 P8 219 -13.926
50 P8 220 -13.438
50 P8 221 -13.926
50 P8 222 -15.879
50 P8 223 -18.321
50 P8 224 -20.274
50 P8 225 -21.250
50 P8 226 -20.274
50 P8 227 -17.344
50 P8 228 -13.438
50 P8 229 -10.997
50 P8 230 -9.532
50 P8 231 -10.020
50 P8 232 -10.508
50 P8 233 -10.508
50 P8 234 -10.020
50 P8 235 -9.532
50 P8 236 -9.043
50 P8 237 -8.067
50 P8 238 -7.090
50 P8 239 -5.625
50 P8 240 -5.625
50 P8 241 -6.602
50 P8 242 -9.043
50 P8 243 -11.973
50 P8 244 -14.903
50 P8 245 -16.856
50 P8 246 -17.832
50 P8 247 -17.832
50 P8 248 -16.856
50 P8 249 -15.879
50 P8 250 -15.391
50 P8 251 -15.391
50 P8 252 -16.856
50 P8 253 -19.297
50 P8 254 -21.739
50 P8 255 -23.204
# P7 chan 26
50 P7 0 1.190
50 P7 1 2.655
50 P7 2 4.608
50 P7 3 6.073
50 P7 4 6.073
50 P7 5 5.585
50 P7 6 4.120
50 P7 7 2.655
50 P7 8 2.655
50 P7 9 3.632
50 P7 10 5.585
50 P7 11 6.073
50 P7 12 5.585
50 P7 13 3.632
50 P7 14 1.678
50 P7 15 1.190
50 P7 16 1.678
50 P7 17 2.655
50 P7 18 3.143
50 P7 19 2.655
50 P7 20 1.190
50 P7 21 -1.251
50 P7 22 -2.228
50 P7 23 -3.204
50 P7 24 -3.204
50 P7 25 -4.181
50 P7 26 -5.157
50 P7 27 -5.157
50 P7 28 -4.669
50 P7 29 -2.716
50 P7 30 -1.251
50 P7 31 0.214
50 P7 32 1.190
50 P7 33 1.190
50 P7 34 2.167
50 P7 35 3.632
50 P7 36 4.608
50 P7 37 4.120
50 P7 38 2.655
50 P7 39 1.678
50 P7 40 2.167
50 P7 41 3.632
50 P7 42 5.096
50 P7 43 6.073
50 P7 44 6.561
50 P7 45 6.073
50 P7 46 5.585
50 P7 47 5.585
50 P7 48 4.120
50 P7 49 1.678
50 P7 50 -1.251
50 P7 51 -3.693
50 P7 52 -4.669
50 P7 53 -3.693
50 P7 54 -2.716
50 P7 55 -2.228
50 P7 56 -2.716
50 P7 57 -3.693
50 P7 58 -3.204
50 P7 59 -1.740
50 P7 60 0.214
50 P7 61 2.167
50 P7 62 3.143
50 P7 63 2.655
50 P7 64 2.655
50 P7 65 3.143
50 P7 66 3.632
50 P7 67 4.120
50 P7 68 5.096
50 P7 69 6.073
50 P7 70 7.050
50 P7 71 8.026
50 P7 72 7.538
50 P7 73 5.096
50 P7 74 2.655
50 P7 75 0.214
50 P7 76 -0.275
50 P7 77 0.214
50 P7 78 2.655
50 P7 79 3.632
50 P7 80 4.120
50 P7 81 3.143
50 P7 82 1.190
50 P7 83 -0.275
50 P7 84 -1.251
50 P7 85 -1.251
50 P7 86 -0.763
50 P7 87 0.214
50 P7 88 1.190
50 P7 89 2.167
50 P7 90 4.120
50 P7 91 5.585
50 P7 92 8.026
50 P7 93 10.468
50 P7 94 11.932
50 P7 95 11.932
50 P7 96 10.956
50 P7 97 9.003
50 P7 98 6.561
50 P7 99 4.608
50 P7 100 3.143
50 P7 101 2.167
50 P7 102 1.678
50 P7 103 2.167
50 P7 104 3.143
50 P7 105 5.096
50 P7 106 6.561
50 P7 107 8.026
50 P7 108 9.003
50 P7 109 9.491
50 P7 110 9.003
50 P7 111 8.026
50 P7 112 6.561
50 P7 113 4.608
50 P7 114 2.655
50 P7 115 0.702
50 P7 116 0.214
50 P7 117 0.702
50 P7 118 1.678
50 P7 119 1.678
50 P7 120 0.702
50 P7 121 -0.275
50 P7 122 -0.763
50 P7 123 -0.275
50 P7 124 2.167
50 P7 125 5.585
50 P7 126 8.026
50 P7 127 9.979
50 P7 128 10.956
50 P7 129 10.956
50 P7 130 9.491
50 P7 131 7.538
50 P7 132 5.096
50 P7 133 2.655
50 P7 134 1.190
50 P7 135 0.214
50 P7 136 -0.275
50 P7 137 -1.251
50 P7 138 -3.204
50 P7 139 -5.646
50 P7 140 -7.599
50 P7 141 -7.599
50 P7 142 -7.111
50 P7 143 -5.646
50 P7 144 -5.157
50 P7 145 -4.669
50 P7 146 -4.181
50 P7 147 -3.204
50 P7 148 -1.251
50 P7 149 -0.275
50 P7 150 1.190
50 P7 151 1.190
50 P7 152 0.702
50 P7 153 1.190
50 P7 154 1.678
50 P7 155 3.143
50 P7 156 3.632
50 P7 157 4.608
50 P7 158 5.096
50 P7 159 5.585
50 P7 160 6.073
50 P7 161 6.561
50 P7 162 7.050
50 P7 163 7.050
50 P7 164 6.561
50 P7 165 6.561
50 P7 166 6.073
50 P7 167 5.585
50 P7 168 4.120
50 P7 169 2.167
50 P7 170 -0.275
50 P7 171 -2.228
50 P7 172 -3.693
50 P7 173 -4.669
50 P7 174 -5.157
50 P7 175 -4.669
50 P7 176 -4.181
50 P7 177 -3.693
50 P7 178 -4.669
50 P7 179 -6.134
50 P7 180 -8.575
50 P7 181 -10.040
50 P7 182 -11.017
50 P7 183 -10.040
50 P7 184 -8.575
50 P7 185 -7.111
50 P7 186 -8.087
50 P7 187 -10.040
50 P7 188 -13.458
50 P7 189 -15.900
50 P7 190 -16.876
50 P7 191 -16.388
50 P7 192 -14.923
50 P7 193 -13.458
50 P7 194 -12.482
50 P7 195 -13.458
50 P7 196 -14.435
50 P7 197 -16.388
50 P7 198 -17.853
50 P7 199 -18.829
50 P7 200 -18.829
50 P7 201 -18.341
50 P7 202 -17.853
50 P7 203 -16.388
50 P7 204 -14.923
50 P7 205 -13.458
50 P7 206 -12.482
50 P7 207 -11.993
50 P7 208 -12.482
50 P7 209 -13.458
50 P7 210 -13.947
50 P7 211 -14.435
50 P7 212 -13.947
50 P7 213 -12.482
50 P7 214 -10.529
50 P7 215 -8.087
50 P7 216 -6.134
50 P7 217 -5.157
50 P7 218 -5.157
50 P7 219 -5.646
50 P7 220 -6.622
50 P7 221 -7.111
50 P7 222 -8.087
50 P7 223 -9.552
50 P7 224 -10.529
50 P7 225 -10.529
50 P7 226 -10.040
50 P7 227 -9.064
50 P7 228 -9.552
50 P7 229 -10.529
50 P7 230 -11.993
50 P7 231 -12.482
50 P7 232 -12.970
50 P7 233 -12.970
50 P7 234 -12.970
50 P7 235 -13.947
50 P7 236 -15.411
50 P7 237 -15.411
50 P7 238 -14.435
50 P7 239 -12.482
50 P7 240 -11.017
50 P7 241 -11.017
50 P7 242 -11.993
50 P7 243 -14.435
50 P7 244 -15.900
50 P7 245 -17.365
50 P7 246 -17.853
50 P7 247 -16.876
50 P7 248 -16.388
50 P7 249 -15.411
50 P7 250 -14.923
50 P7 251 -14.435
50 P7 252 -14.435
50 P7 253 -14.923
50 P7 254 -15.900
50 P7 255 -15.900
# PO2 chan 27
50 PO2 0 6.042
50 PO2 1 5.554
50 PO2 2 6.042
50 PO2 3 7.019
50 PO2 4 7.019
50 PO2 5 5.554
50 PO2 6 3.113
50 PO2 7 0.183
50 PO2 8 -1.282
50 PO2 9 -0.305
50 PO2 10 2.136
50 PO2 11 4.089
50 PO2 12 5.066
50 PO2 13 4.578
50 PO2 14 2.625
50 PO2 15 0.671
50 PO2 16 0.183
50 PO2 17 1.160
50 PO2 18 2.136
50 PO2 19 2.625
50 PO2 20 2.136
50 PO2 21 1.160
50 PO2 22 0.183
50 PO2 23 0.183
50 PO2 24 0.671
50 PO2 25 1.160
50 PO2 26 1.160
50 PO2 27 0.671
50 PO2 28 0.671
50 PO2 29 1.648
50 PO2 30 3.113
50 PO2 31 5.066
50 PO2 32 6.531
50 PO2 33 7.507
50 PO2 34 8.484
50 PO2 35 9.460
50 PO2 36 9.949
50 PO2 37 9.460
50 PO2 38 7.996
50 PO2 39 6.042
50 PO2 40 4.089
50 PO2 41 3.601
50 PO2 42 4.089
50 PO2 43 5.066
50 PO2 44 6.042
50 PO2 45 6.042
50 PO2 46 6.531
50 PO2 47 6.042
50 PO2 48 5.554
50 PO2 49 4.578
50 PO2 50 4.089
50 PO2 51 4.089
50 PO2 52 4.089
50 PO2 53 4.089
50 PO2 54 3.601
50 PO2 55 3.113
50 PO2 56 2.136
50 PO2 57 1.648
50 PO2 58 2.136
50 PO2 59 2.625
50 PO2 60 3.113
50 PO2 61 3.113
50 PO2 62 2.625
50 PO2 63 2.625
50 PO2 64 3.601
50 PO2 65 4.578
50 PO2 66 5.554
50 PO2 67 6.042
50 PO2 68 6.531
50 PO2 69 7.019
50 PO2 70 8.972
50 PO2 71 10.925
50 PO2 72 11.902
50 PO2 73 11.414
50 PO2 74 9.460
50 PO2 75 6.531
50 PO2 76 4.089
50 PO2 77 3.113
50 PO2 78 3.113
50 PO2 79 3.601
50 PO2 80 4.089
50 PO2 81 3.601
50 PO2 82 2.625
50 PO2 83 1.648
50 PO2 84 0.671
50 PO2 85 -0.305
50 PO2 86 -0.793
50 PO2 87 -1.770
50 PO2 88 -2.747
50 PO2 89 -2.747
50 PO2 90 -1.770
50 PO2 91 -0.305
50 PO2 92 1.160
50 PO2 93 3.113
50 PO2 94 3.601
50 PO2 95 3.601
50 PO2 96 2.625
50 PO2 97 1.160
50 PO2 98 0.183
50 PO2 99 -0.305
50 PO2 100 0.183
50 PO2 101 0.183
50 PO2 102 1.160
50 PO2 103 1.648
50 PO2 104 2.136
50 PO2 105 1.648
50 PO2 106 1.160
50 PO2 107 0.183
50 PO2 108 0.183
50 PO2 109 0.671
50 PO2 110 2.625
50 PO2 111 4.089
50 PO2 112 5.066
50 PO2 113 5.066
50 PO2 114 4.089
50 PO2 115 2.625
50 PO2 116 2.625
50 PO2 117 3.113
50 PO2 118 3.601
50 PO2 119 3.113
50 PO2 120 1.648
50 PO2 121 -0.305
50 PO2 122 -0.793
50 PO2 123 -0.305
50 PO2 124 1.160
50 PO2 125 2.625
50 PO2 126 3.113
50 PO2 127 3.113
50 PO2 128 3.113
50 PO2 129 3.113
50 PO2 130 3.113
50 PO2 131 2.136
50 PO2 132 1.160
50 PO2 133 1.160
50 PO2 134 1.648
50 PO2 135 2.625
50 PO2 136 2.625
50 PO2 137 1.648
50 PO2 138 -1.282
50 PO2 139 -3.723
50 PO2 140 -4.700
50 PO2 141 -3.235
50 PO2 142 -0.793
50 PO2 143 1.160
50 PO2 144 2.136
50 PO2 145 2.136
50 PO2 146 2.136
50 PO2 147 3.113
50 PO2 148 5.066
50 PO2 149 6.042
50 PO2 150 6.042
50 PO2 151 4.089
50 PO2 152 2.625
50 PO2 153 1.648
50 PO2 154 1.160
50 PO2 155 1.648
50 PO2 156 1.648
50 PO2 157 1.160
50 PO2 158 1.160
50 PO2 159 0.671
50 PO2 160 1.648
50 PO2 161 1.648
50 PO2 162 1.648
50 PO2 163 0.183
50 PO2 164 -1.282
50 PO2 165 -2.747
50 PO2 166 -3.723
50 PO2 167 -4.700
50 PO2 168 -5.676
50 PO2 169 -7.141
50 PO2 170 -8.606
50 PO2 171 -10.559
50 PO2 172 -11.536
50 PO2 173 -12.024
50 PO2 174 -11.536
50 PO2 175 -10.559
50 PO2 176 -9.583
50 PO2 177 -8.606
50 PO2 178 -8.118
50 PO2 179 -9.094
50 PO2 180 -10.559
50 PO2 181 -11.536
50 PO2 182 -11.047
50 PO2 183 -9.094
50 PO2 184 -7.629
50 PO2 185 -7.629
50 PO2 186 -9.583
50 PO2 187 -12.512
50 PO2 188 -15.442
50 PO2 189 -15.930
50 PO2 190 -13.977
50 PO2 191 -11.536
50 PO2 192 -9.094
50 PO2 193 -8.118
50 PO2 194 -8.118
50 PO2 195 -9.094
50 PO2 196 -10.559
50 PO2 197 -11.536
50 PO2 198 -13.000
50 PO2 199 -14.465
50 PO2 200 -15.442
50 PO2 201 -15.442
50 PO2 202 -14.954
50 PO2 203 -14.465
50 PO2 204 -13.977
50 PO2 205 -13.977
50 PO2 206 -13.489
50 PO2 207 -13.000
50 PO2 208 -12.512
50 PO2 209 -13.000
50 PO2 210 -13.977
50 PO2 211 -14.465
50 PO2 212 -14.465
50 PO2 213 -13.489
50 PO2 214 -12.024
50 PO2 215 -10.559
50 PO2 216 -9.094
50 PO2 217 -9.094
50 PO2 218 -9.094
50 PO2 219 -8.606
50 PO2 220 -9.094
50 PO2 221 -9.583
50 PO2 222 -10.559
50 PO2 223 -12.512
50 PO2 224 -13.489
50 PO2 225 -13.489
50 PO2 226 -12.512
50 PO2 227 -11.047
50 PO2 228 -9.583
50 PO2 229 -8.606
50 PO2 230 -8.118
50 PO2 231 -8.118
50 PO2 232 -7.629
50 PO2 233 -8.118
50 PO2 234 -8.606
50 PO2 235 -9.583
50 PO2 236 -10.559
50 PO2 237 -9.583
50 PO2 238 -8.118
50 PO2 239 -6.165
50 PO2 240 -5.188
