# co2a0000377.rd
# 120 trials, 64 chans, 416 samples 368 post_stim samples
# 3.906000 msecs uV
# S1 obj , trial 12
# FP1 chan 0
12 FP1 0 -2.340
12 FP1 1 -1.851
12 FP1 2 -2.340
12 FP1 3 -4.293
12 FP1 4 -6.734
12 FP1 5 -8.687
12 FP1 6 -9.176
12 FP1 7 -9.176
12 FP1 8 -8.199
12 FP1 9 -6.734
12 FP1 10 -5.758
12 FP1 11 -6.246
12 FP1 12 -7.711
12 FP1 13 -10.640
12 FP1 14 -14.547
12 FP1 15 -17.965
12 FP1 16 -20.406
12 FP1 17 -20.894
12 FP1 18 -19.430
12 FP1 19 -16.012
12 FP1 20 -12.105
12 FP1 21 -8.687
12 FP1 22 -6.734
12 FP1 23 -6.246
12 FP1 24 -5.758
12 FP1 25 -5.269
12 FP1 26 -3.805
12 FP1 27 -2.340
12 FP1 28 -1.851
12 FP1 29 -2.828
12 FP1 30 -3.805
12 FP1 31 -4.293
12 FP1 32 -4.293
12 FP1 33 -3.805
12 FP1 34 -4.293
12 FP1 35 -5.758
12 FP1 36 -8.199
12 FP1 37 -10.640
12 FP1 38 -10.640
12 FP1 39 -8.687
12 FP1 40 -6.734
12 FP1 41 -5.269
12 FP1 42 -5.269
12 FP1 43 -6.734
12 FP1 44 -7.711
12 FP1 45 -7.711
12 FP1 46 -6.734
12 FP1 47 -6.246
12 FP1 48 -6.246
12 FP1 49 -6.734
12 FP1 50 -7.711
12 FP1 51 -7.711
12 FP1 52 -7.222
12 FP1 53 -6.246
12 FP1 54 -4.293
12 FP1 55 -2.828
12 FP1 56 -1.851
12 FP1 57 -1.851
12 FP1 58 -2.828
12 FP1 59 -4.781
12 FP1 60 -6.734
12 FP1 61 -9.176
12 FP1 62 -10.152
12 FP1 63 -9.664
12 FP1 64 -8.687
12 FP1 65 -7.222
12 FP1 66 -5.758
12 FP1 67 -4.293
12 FP1 68 -2.340
12 FP1 69 -0.875
12 FP1 70 0.590
12 FP1 71 1.567
12 FP1 72 1.567
12 FP1 73 0.590
12 FP1 74 -0.387
12 FP1 75 -1.851
12 FP1 76 -1.851
12 FP1 77 -0.387
12 FP1 78 2.543
12 FP1 79 4.496
12 FP1 80 5.961
12 FP1 81 5.473
12 FP1 82 4.496
12 FP1 83 3.520
12 FP1 84 3.031
12 FP1 85 3.031
12 FP1 86 3.520
12 FP1 87 4.008
12 FP1 88 4.496
12 FP1 89 4.496
12 FP1 90 4.985
12 FP1 91 4.496
12 FP1 92 4.008
12 FP1 93 3.031
12 FP1 94 2.055
12 FP1 95 2.543
12 FP1 96 3.520
12 FP1 97 4.496
12 FP1 98 4.985
12 FP1 99 4.985
12 FP1 100 3.520
12 FP1 101 1.078
12 FP1 102 -1.363
12 FP1 103 -3.316
12 FP1 104 -3.805
12 FP1 105 -1.851
12 FP1 106 2.543
12 FP1 107 7.426
12 FP1 108 11.332
12 FP1 109 12.797
12 FP1 110 11.820
12 FP1 111 8.891
12 FP1 112 5.961
12 FP1 113 3.520
12 FP1 114 2.543
12 FP1 115 2.055
12 FP1 116 2.055
12 FP1 117 1.567
12 FP1 118 0.102
12 FP1 119 -2.340
12 FP1 120 -4.781
12 FP1 121 -6.734
12 FP1 122 -6.734
12 FP1 123 -5.269
12 FP1 124 -3.316
12 FP1 125 -2.340
12 FP1 126 -2.340
12 FP1 127 -3.316
12 FP1 128 -4.293
12 FP1 129 -4.781
12 FP1 130 -3.805
12 FP1 131 -3.805
12 FP1 132 -3.316
12 FP1 133 -3.805
12 FP1 134 -3.316
12 FP1 135 -1.851
12 FP1 136 -0.387
12 FP1 137 0.102
12 FP1 138 -1.363
12 FP1 139 -4.293
12 FP1 140 -6.734
12 FP1 141 -8.199
12 FP1 142 -8.199
12 FP1 143 -7.711
12 FP1 144 -6.734
12 FP1 145 -6.246
12 FP1 146 -4.781
12 FP1 147 -3.316
12 FP1 148 -1.363
12 FP1 149 0.590
12 FP1 150 2.055
12 FP1 151 3.031
12 FP1 152 4.008
12 FP1 153 4.985
12 FP1 154 5.473
12 FP1 155 5.961
12 FP1 156 5.473
12 FP1 157 4.985
12 FP1 158 4.008
12 FP1 159 3.520
12 FP1 160 3.031
12 FP1 161 2.055
12 FP1 162 0.590
12 FP1 163 -0.875
12 FP1 164 -2.340
12 FP1 165 -3.805
12 FP1 166 -5.269
12 FP1 167 -6.734
12 FP1 168 -7.711
12 FP1 169 -8.199
12 FP1 170 -7.711
12 FP1 171 -6.734
12 FP1 172 -4.781
12 FP1 173 -2.828
12 FP1 174 -0.875
12 FP1 175 0.102
12 FP1 176 0.590
12 FP1 177 1.078
12 FP1 178 1.078
12 FP1 179 1.078
12 FP1 180 0.590
12 FP1 181 0.590
12 FP1 182 0.590
12 FP1 183 0.590
12 FP1 184 0.102
12 FP1 185 -1.851
12 FP1 186 -4.293
12 FP1 187 -7.222
12 FP1 188 -8.687
12 FP1 189 -9.176
12 FP1 190 -7.711
12 FP1 191 -5.758
12 FP1 192 -3.805
12 FP1 193 -2.340
12 FP1 194 -0.387
12 FP1 195 1.078
12 FP1 196 3.031
12 FP1 197 3.520
12 FP1 198 3.520
12 FP1 199 2.543
12 FP1 200 1.567
12 FP1 201 1.078
12 FP1 202 1.567
12 FP1 203 1.567
12 FP1 204 1.567
12 FP1 205 0.590
12 FP1 206 -1.363
12 FP1 207 -3.316
12 FP1 208 -5.269
12 FP1 209 -6.246
12 FP1 210 -6.734
12 FP1 211 -7.711
12 FP1 212 -8.199
12 FP1 213 -9.176
12 FP1 214 -8.687
12 FP1 215 -7.711
12 FP1 216 -5.758
12 FP1 217 -3.316
12 FP1 218 -2.340
12 FP1 219 -2.828
12 FP1 220 -4.293
12 FP1 221 -5.758
12 FP1 222 -7.711
12 FP1 223 -8.687
12 FP1 224 -10.152
12 FP1 225 -12.105
12 FP1 226 -14.058
12 FP1 227 -16.500
12 FP1 228 -17.965
12 FP1 229 -18.453
12 FP1 230 -18.941
12 FP1 231 -17.965
12 FP1 232 -16.012
12 FP1 233 -13.570
12 FP1 234 -10.640
12 FP1 235 -8.687
12 FP1 236 -7.711
12 FP1 237 -8.199
12 FP1 238 -9.176
12 FP1 239 -10.152
12 FP1 240 -10.640
12 FP1 241 -11.129
12 FP1 242 -11.617
12 FP1 243 -12.105
12 FP1 244 -12.594
12 FP1 245 -12.105
12 FP1 246 -10.640
12 FP1 247 -10.152
12 FP1 248 -9.176
12 FP1 249 -9.176
12 FP1 250 -8.687
12 FP1 251 -8.199
12 FP1 252 -7.711
12 FP1 253 -7.711
12 FP1 254 -8.199
12 FP1 255 -8.199
# FP2 chan 1
12 FP2 0 -3.387
12 FP2 1 -3.387
12 FP2 2 -4.364
12 FP2 3 -6.317
12 FP2 4 -8.759
12 FP2 5 -10.223
12 FP2 6 -11.200
12 FP2 7 -10.712
12 FP2 8 -9.247
12 FP2 9 -7.782
12 FP2 10 -7.294
12 FP2 11 -7.782
12 FP2 12 -9.735
12 FP2 13 -13.153
12 FP2 14 -17.059
12 FP2 15 -20.477
12 FP2 16 -22.919
12 FP2 17 -22.919
12 FP2 18 -20.966
12 FP2 19 -17.059
12 FP2 20 -13.153
12 FP2 21 -9.735
12 FP2 22 -7.782
12 FP2 23 -6.317
12 FP2 24 -5.829
12 FP2 25 -4.852
12 FP2 26 -3.876
12 FP2 27 -3.387
12 FP2 28 -3.387
12 FP2 29 -3.876
12 FP2 30 -5.341
12 FP2 31 -6.317
12 FP2 32 -6.805
12 FP2 33 -6.805
12 FP2 34 -7.294
12 FP2 35 -8.759
12 FP2 36 -9.735
12 FP2 37 -11.200
12 FP2 38 -11.200
12 FP2 39 -9.735
12 FP2 40 -8.759
12 FP2 41 -8.759
12 FP2 42 -9.247
12 FP2 43 -9.735
12 FP2 44 -9.735
12 FP2 45 -9.247
12 FP2 46 -8.270
12 FP2 47 -7.782
12 FP2 48 -8.270
12 FP2 49 -9.735
12 FP2 50 -11.200
12 FP2 51 -11.688
12 FP2 52 -11.688
12 FP2 53 -10.712
12 FP2 54 -9.247
12 FP2 55 -7.294
12 FP2 56 -5.829
12 FP2 57 -5.341
12 FP2 58 -6.805
12 FP2 59 -8.759
12 FP2 60 -10.712
12 FP2 61 -12.177
12 FP2 62 -12.665
12 FP2 63 -11.688
12 FP2 64 -10.712
12 FP2 65 -10.223
12 FP2 66 -8.759
12 FP2 67 -6.805
12 FP2 68 -3.876
12 FP2 69 -0.946
12 FP2 70 1.495
12 FP2 71 1.495
12 FP2 72 0.519
12 FP2 73 -0.946
12 FP2 74 -2.411
12 FP2 75 -2.899
12 FP2 76 -2.411
12 FP2 77 -0.946
12 FP2 78 1.007
12 FP2 79 1.984
12 FP2 80 2.960
12 FP2 81 3.448
12 FP2 82 3.937
12 FP2 83 4.425
12 FP2 84 4.425
12 FP2 85 3.937
12 FP2 86 2.472
12 FP2 87 1.984
12 FP2 88 2.472
12 FP2 89 3.448
12 FP2 90 4.425
12 FP2 91 3.937
12 FP2 92 2.472
12 FP2 93 0.519
12 FP2 94 -0.458
12 FP2 95 -0.458
12 FP2 96 0.519
12 FP2 97 1.495
12 FP2 98 1.984
12 FP2 99 1.007
12 FP2 100 -0.458
12 FP2 101 -2.411
12 FP2 102 -4.364
12 FP2 103 -5.341
12 FP2 104 -4.364
12 FP2 105 -1.923
12 FP2 106 1.984
12 FP2 107 5.402
12 FP2 108 7.843
12 FP2 109 7.355
12 FP2 110 5.890
12 FP2 111 3.448
12 FP2 112 1.495
12 FP2 113 0.519
12 FP2 114 0.031
12 FP2 115 -0.458
12 FP2 116 -1.434
12 FP2 117 -1.923
12 FP2 118 -2.411
12 FP2 119 -3.876
12 FP2 120 -5.829
12 FP2 121 -7.294
12 FP2 122 -8.270
12 FP2 123 -7.782
12 FP2 124 -6.317
12 FP2 125 -4.364
12 FP2 126 -3.387
12 FP2 127 -2.411
12 FP2 128 -2.899
12 FP2 129 -4.364
12 FP2 130 -6.805
12 FP2 131 -8.759
12 FP2 132 -9.735
12 FP2 133 -9.247
12 FP2 134 -7.294
12 FP2 135 -4.852
12 FP2 136 -3.387
12 FP2 137 -3.387
12 FP2 138 -5.341
12 FP2 139 -8.270
12 FP2 140 -10.712
12 FP2 141 -11.688
12 FP2 142 -11.688
12 FP2 143 -10.223
12 FP2 144 -8.759
12 FP2 145 -7.294
12 FP2 146 -6.317
12 FP2 147 -5.341
12 FP2 148 -4.364
12 FP2 149 -2.411
12 FP2 150 -0.458
12 FP2 151 1.984
12 FP2 152 3.937
12 FP2 153 4.913
12 FP2 154 4.425
12 FP2 155 3.448
12 FP2 156 2.472
12 FP2 157 1.984
12 FP2 158 1.495
12 FP2 159 1.007
12 FP2 160 0.031
12 FP2 161 -1.923
12 FP2 162 -3.387
12 FP2 163 -3.876
12 FP2 164 -3.387
12 FP2 165 -3.876
12 FP2 166 -4.852
12 FP2 167 -6.805
12 FP2 168 -8.759
12 FP2 169 -9.247
12 FP2 170 -8.270
12 FP2 171 -6.317
12 FP2 172 -3.876
12 FP2 173 -1.923
12 FP2 174 -0.946
12 FP2 175 -0.946
12 FP2 176 -0.946
12 FP2 177 -0.946
12 FP2 178 -1.434
12 FP2 179 -0.946
12 FP2 180 -1.434
12 FP2 181 -1.434
12 FP2 182 -1.434
12 FP2 183 -1.434
12 FP2 184 -2.411
12 FP2 185 -3.876
12 FP2 186 -5.341
12 FP2 187 -6.805
12 FP2 188 -8.270
12 FP2 189 -8.759
12 FP2 190 -8.759
12 FP2 191 -8.270
12 FP2 192 -7.782
12 FP2 193 -5.829
12 FP2 194 -3.387
12 FP2 195 -0.458
12 FP2 196 1.495
12 FP2 197 2.472
12 FP2 198 1.984
12 FP2 199 0.031
12 FP2 200 -0.946
12 FP2 201 -1.923
12 FP2 202 -1.923
12 FP2 203 -1.434
12 FP2 204 -1.434
12 FP2 205 -2.899
12 FP2 206 -5.341
12 FP2 207 -7.782
12 FP2 208 -10.223
12 FP2 209 -11.200
12 FP2 210 -11.200
12 FP2 211 -9.735
12 FP2 212 -8.759
12 FP2 213 -8.270
12 FP2 214 -9.247
12 FP2 215 -9.735
12 FP2 216 -9.735
12 FP2 217 -8.270
12 FP2 218 -6.317
12 FP2 219 -5.341
12 FP2 220 -5.829
12 FP2 221 -7.782
12 FP2 222 -10.712
12 FP2 223 -13.641
12 FP2 224 -16.571
12 FP2 225 -19.012
12 FP2 226 -20.966
12 FP2 227 -21.942
12 FP2 228 -22.430
12 FP2 229 -22.430
12 FP2 230 -21.454
12 FP2 231 -20.477
12 FP2 232 -18.524
12 FP2 233 -15.594
12 FP2 234 -11.688
12 FP2 235 -9.247
12 FP2 236 -8.759
12 FP2 237 -9.735
12 FP2 238 -11.200
12 FP2 239 -12.665
12 FP2 240 -13.153
12 FP2 241 -13.153
12 FP2 242 -13.153
12 FP2 243 -13.641
12 FP2 244 -14.618
12 FP2 245 -15.106
12 FP2 246 -15.594
12 FP2 247 -14.618
12 FP2 248 -13.641
12 FP2 249 -12.177
12 FP2 250 -11.200
12 FP2 251 -10.712
12 FP2 252 -10.223
12 FP2 253 -10.712
12 FP2 254 -11.688
12 FP2 255 -13.153
# F7 chan 2
12 F7 0 1.027
12 F7 1 3.469
12 F7 2 2.492
12 F7 3 -0.926
12 F7 4 -4.832
12 F7 5 -7.762
12 F7 6 -8.738
12 F7 7 -7.762
12 F7 8 -5.809
12 F7 9 -4.344
12 F7 10 -3.367
12 F7 11 -3.367
12 F7 12 -4.344
12 F7 13 -6.297
12 F7 14 -8.738
12 F7 15 -12.156
12 F7 16 -15.086
12 F7 17 -17.527
12 F7 18 -17.527
12 F7 19 -15.086
12 F7 20 -10.691
12 F7 21 -6.297
12 F7 22 -2.391
12 F7 23 -1.414
12 F7 24 -1.902
12 F7 25 -2.391
12 F7 26 -1.902
12 F7 27 -0.926
12 F7 28 0.539
12 F7 29 0.539
12 F7 30 0.539
12 F7 31 0.539
12 F7 32 1.516
12 F7 33 2.981
12 F7 34 3.957
12 F7 35 2.492
12 F7 36 -0.926
12 F7 37 -4.344
12 F7 38 -5.320
12 F7 39 -3.855
12 F7 40 0.051
12 F7 41 3.469
12 F7 42 5.422
12 F7 43 5.422
12 F7 44 4.445
12 F7 45 3.469
12 F7 46 2.981
12 F7 47 2.492
12 F7 48 1.516
12 F7 49 0.051
12 F7 50 0.051
12 F7 51 1.027
12 F7 52 2.981
12 F7 53 5.422
12 F7 54 6.887
12 F7 55 7.863
12 F7 56 7.375
12 F7 57 6.887
12 F7 58 5.422
12 F7 59 3.469
12 F7 60 1.516
12 F7 61 -0.437
12 F7 62 -1.414
12 F7 63 -1.414
12 F7 64 -0.926
12 F7 65 0.539
12 F7 66 2.004
12 F7 67 3.469
12 F7 68 3.957
12 F7 69 4.445
12 F7 70 4.445
12 F7 71 4.445
12 F7 72 4.445
12 F7 73 3.957
12 F7 74 2.981
12 F7 75 2.004
12 F7 76 2.004
12 F7 77 2.981
12 F7 78 5.422
12 F7 79 8.352
12 F7 80 9.816
12 F7 81 9.816
12 F7 82 8.352
12 F7 83 5.910
12 F7 84 3.469
12 F7 85 2.004
12 F7 86 2.004
12 F7 87 2.981
12 F7 88 4.445
12 F7 89 5.910
12 F7 90 6.399
12 F7 91 5.910
12 F7 92 4.445
12 F7 93 2.492
12 F7 94 1.516
12 F7 95 2.004
12 F7 96 2.981
12 F7 97 3.957
12 F7 98 4.934
12 F7 99 4.445
12 F7 100 2.981
12 F7 101 0.539
12 F7 102 -3.367
12 F7 103 -6.297
12 F7 104 -6.785
12 F7 105 -4.344
12 F7 106 0.539
12 F7 107 5.910
12 F7 108 9.816
12 F7 109 9.816
12 F7 110 6.399
12 F7 111 1.516
12 F7 112 -2.879
12 F7 113 -5.320
12 F7 114 -5.320
12 F7 115 -4.344
12 F7 116 -2.391
12 F7 117 -1.414
12 F7 118 -2.391
12 F7 119 -5.320
12 F7 120 -8.250
12 F7 121 -10.203
12 F7 122 -9.715
12 F7 123 -7.762
12 F7 124 -6.297
12 F7 125 -5.809
12 F7 126 -7.273
12 F7 127 -8.738
12 F7 128 -8.738
12 F7 129 -7.273
12 F7 130 -5.320
12 F7 131 -3.855
12 F7 132 -3.367
12 F7 133 -3.367
12 F7 134 -2.879
12 F7 135 -1.902
12 F7 136 -1.414
12 F7 137 -1.902
12 F7 138 -3.855
12 F7 139 -6.297
12 F7 140 -7.762
12 F7 141 -7.762
12 F7 142 -7.762
12 F7 143 -7.273
12 F7 144 -7.273
12 F7 145 -7.273
12 F7 146 -6.785
12 F7 147 -4.832
12 F7 148 -2.391
12 F7 149 -0.437
12 F7 150 0.539
12 F7 151 1.516
12 F7 152 2.981
12 F7 153 4.445
12 F7 154 5.422
12 F7 155 5.422
12 F7 156 4.445
12 F7 157 2.981
12 F7 158 2.004
12 F7 159 2.004
12 F7 160 2.492
12 F7 161 2.981
12 F7 162 2.004
12 F7 163 0.539
12 F7 164 -0.926
12 F7 165 -2.391
12 F7 166 -2.879
12 F7 167 -2.879
12 F7 168 -2.391
12 F7 169 -2.879
12 F7 170 -3.367
12 F7 171 -3.367
12 F7 172 -2.391
12 F7 173 -0.437
12 F7 174 1.516
12 F7 175 3.469
12 F7 176 4.934
12 F7 177 5.422
12 F7 178 5.910
12 F7 179 6.399
12 F7 180 6.887
12 F7 181 7.375
12 F7 182 7.375
12 F7 183 7.375
12 F7 184 6.399
12 F7 185 3.957
12 F7 186 1.027
12 F7 187 -2.391
12 F7 188 -4.832
12 F7 189 -5.320
12 F7 190 -3.855
12 F7 191 -1.414
12 F7 192 0.539
12 F7 193 1.516
12 F7 194 1.516
12 F7 195 2.492
12 F7 196 3.469
12 F7 197 4.445
12 F7 198 4.934
12 F7 199 3.469
12 F7 200 1.516
12 F7 201 0.051
12 F7 202 0.539
12 F7 203 2.004
12 F7 204 2.492
12 F7 205 2.004
12 F7 206 0.051
12 F7 207 -1.414
12 F7 208 -1.902
12 F7 209 -0.926
12 F7 210 -0.926
12 F7 211 -1.414
12 F7 212 -3.367
12 F7 213 -5.809
12 F7 214 -5.809
12 F7 215 -3.855
12 F7 216 0.051
12 F7 217 3.469
12 F7 218 4.934
12 F7 219 3.469
12 F7 220 0.539
12 F7 221 -2.391
12 F7 222 -4.344
12 F7 223 -4.832
12 F7 224 -5.809
12 F7 225 -7.273
12 F7 226 -9.715
12 F7 227 -11.668
12 F7 228 -13.133
12 F7 229 -14.109
12 F7 230 -14.109
12 F7 231 -13.133
12 F7 232 -12.156
12 F7 233 -9.715
12 F7 234 -7.273
12 F7 235 -6.297
12 F7 236 -5.809
12 F7 237 -6.297
12 F7 238 -6.297
12 F7 239 -5.809
12 F7 240 -4.832
12 F7 241 -4.344
12 F7 242 -4.832
12 F7 243 -5.809
12 F7 244 -6.297
12 F7 245 -5.320
12 F7 246 -4.344
12 F7 247 -2.391
12 F7 248 -1.414
12 F7 249 -0.926
12 F7 250 -0.437
12 F7 251 0.539
12 F7 252 2.004
12 F7 253 2.981
12 F7 254 3.469
12 F7 255 2.981
# F8 chan 3
12 F8 0 -3.448
12 F8 1 -3.937
12 F8 2 -4.913
12 F8 3 -6.378
12 F8 4 -7.843
12 F8 5 -9.308
12 F8 6 -9.796
12 F8 7 -8.820
12 F8 8 -7.355
12 F8 9 -6.378
12 F8 10 -6.866
12 F8 11 -8.820
12 F8 12 -12.238
12 F8 13 -14.679
12 F8 14 -17.120
12 F8 15 -18.585
12 F8 16 -20.050
12 F8 17 -20.538
12 F8 18 -20.050
12 F8 19 -17.609
12 F8 20 -13.702
12 F8 21 -9.796
12 F8 22 -7.355
12 F8 23 -6.378
12 F8 24 -6.378
12 F8 25 -5.890
12 F8 26 -5.402
12 F8 27 -4.425
12 F8 28 -3.937
12 F8 29 -4.425
12 F8 30 -5.402
12 F8 31 -6.378
12 F8 32 -6.378
12 F8 33 -5.890
12 F8 34 -5.402
12 F8 35 -5.402
12 F8 36 -5.402
12 F8 37 -4.913
12 F8 38 -3.448
12 F8 39 -1.984
12 F8 40 -1.984
12 F8 41 -3.448
12 F8 42 -4.425
12 F8 43 -4.425
12 F8 44 -2.472
12 F8 45 -0.031
12 F8 46 0.946
12 F8 47 0.458
12 F8 48 -1.495
12 F8 49 -3.937
12 F8 50 -5.890
12 F8 51 -6.378
12 F8 52 -6.866
12 F8 53 -6.378
12 F8 54 -5.402
12 F8 55 -2.472
12 F8 56 -0.031
12 F8 57 2.411
12 F8 58 1.923
12 F8 59 -0.031
12 F8 60 -2.472
12 F8 61 -2.960
12 F8 62 -1.984
12 F8 63 -0.519
12 F8 64 0.458
12 F8 65 0.458
12 F8 66 -0.031
12 F8 67 0.946
12 F8 68 3.387
12 F8 69 6.317
12 F8 70 7.782
12 F8 71 6.805
12 F8 72 3.876
12 F8 73 0.946
12 F8 74 -1.007
12 F8 75 -1.007
12 F8 76 -0.031
12 F8 77 0.946
12 F8 78 0.946
12 F8 79 0.458
12 F8 80 0.458
12 F8 81 1.434
12 F8 82 3.387
12 F8 83 5.829
12 F8 84 7.294
12 F8 85 6.317
12 F8 86 4.364
12 F8 87 3.387
12 F8 88 3.876
12 F8 89 5.341
12 F8 90 6.805
12 F8 91 5.829
12 F8 92 2.899
12 F8 93 0.458
12 F8 94 -1.495
12 F8 95 -1.495
12 F8 96 -1.007
12 F8 97 -1.007
12 F8 98 -1.984
12 F8 99 -2.960
12 F8 100 -3.448
12 F8 101 -3.937
12 F8 102 -4.913
12 F8 103 -5.890
12 F8 104 -6.866
12 F8 105 -5.890
12 F8 106 -2.960
12 F8 107 0.458
12 F8 108 2.411
12 F8 109 1.434
12 F8 110 -1.007
12 F8 111 -3.448
12 F8 112 -4.913
12 F8 113 -4.913
12 F8 114 -4.913
12 F8 115 -4.913
12 F8 116 -5.890
12 F8 117 -7.355
12 F8 118 -8.331
12 F8 119 -9.796
12 F8 120 -11.749
12 F8 121 -13.702
12 F8 122 -13.702
12 F8 123 -12.726
12 F8 124 -10.284
12 F8 125 -7.355
12 F8 126 -5.890
12 F8 127 -5.402
12 F8 128 -6.866
12 F8 129 -9.796
12 F8 130 -13.214
12 F8 131 -14.679
12 F8 132 -15.167
12 F8 133 -13.702
12 F8 134 -11.261
12 F8 135 -9.308
12 F8 136 -8.820
12 F8 137 -9.308
12 F8 138 -10.773
12 F8 139 -11.749
12 F8 140 -11.749
12 F8 141 -11.749
12 F8 142 -10.773
12 F8 143 -10.284
12 F8 144 -8.331
12 F8 145 -7.355
12 F8 146 -6.378
12 F8 147 -6.866
12 F8 148 -6.866
12 F8 149 -6.378
12 F8 150 -3.937
12 F8 151 -0.031
12 F8 152 2.411
12 F8 153 2.899
12 F8 154 1.923
12 F8 155 -0.031
12 F8 156 -0.031
12 F8 157 0.458
12 F8 158 1.434
12 F8 159 0.946
12 F8 160 -0.519
12 F8 161 -1.984
12 F8 162 -2.472
12 F8 163 -1.984
12 F8 164 -1.984
12 F8 165 -3.448
12 F8 166 -6.378
12 F8 167 -8.820
12 F8 168 -8.820
12 F8 169 -7.355
12 F8 170 -4.913
12 F8 171 -2.960
12 F8 172 -1.984
12 F8 173 -1.495
12 F8 174 -0.031
12 F8 175 1.434
12 F8 176 2.899
12 F8 177 3.876
12 F8 178 3.387
12 F8 179 3.387
12 F8 180 2.899
12 F8 181 2.411
12 F8 182 2.411
12 F8 183 1.434
12 F8 184 0.458
12 F8 185 -1.007
12 F8 186 -2.472
12 F8 187 -3.448
12 F8 188 -3.937
12 F8 189 -3.937
12 F8 190 -3.937
12 F8 191 -3.448
12 F8 192 -3.448
12 F8 193 -2.960
12 F8 194 -1.984
12 F8 195 -1.007
12 F8 196 0.458
12 F8 197 0.946
12 F8 198 -0.031
12 F8 199 -1.984
12 F8 200 -3.448
12 F8 201 -3.448
12 F8 202 -2.472
12 F8 203 -0.519
12 F8 204 -0.031
12 F8 205 -1.007
12 F8 206 -3.937
12 F8 207 -6.378
12 F8 208 -8.331
12 F8 209 -8.331
12 F8 210 -7.843
12 F8 211 -6.866
12 F8 212 -5.890
12 F8 213 -6.378
12 F8 214 -7.355
12 F8 215 -8.331
12 F8 216 -9.308
12 F8 217 -9.308
12 F8 218 -8.820
12 F8 219 -8.331
12 F8 220 -8.820
12 F8 221 -10.284
12 F8 222 -13.214
12 F8 223 -16.144
12 F8 224 -19.562
12 F8 225 -21.515
12 F8 226 -22.003
12 F8 227 -22.491
12 F8 228 -22.980
12 F8 229 -23.468
12 F8 230 -23.468
12 F8 231 -22.003
12 F8 232 -18.585
12 F8 233 -13.702
12 F8 234 -8.331
12 F8 235 -5.890
12 F8 236 -5.402
12 F8 237 -5.890
12 F8 238 -6.378
12 F8 239 -5.890
12 F8 240 -5.402
12 F8 241 -5.402
12 F8 242 -6.378
12 F8 243 -8.331
12 F8 244 -9.796
12 F8 245 -10.284
12 F8 246 -10.284
12 F8 247 -9.796
12 F8 248 -8.820
12 F8 249 -7.355
12 F8 250 -4.913
12 F8 251 -2.960
12 F8 252 -2.472
12 F8 253 -2.960
12 F8 254 -4.913
12 F8 255 -6.866
# AF1 chan 4
12 AF1 0 -3.377
12 AF1 1 -2.889
12 AF1 2 -2.889
12 AF1 3 -4.354
12 AF1 4 -5.819
12 AF1 5 -6.795
12 AF1 6 -6.795
12 AF1 7 -6.795
12 AF1 8 -5.819
12 AF1 9 -4.354
12 AF1 10 -3.377
12 AF1 11 -3.377
12 AF1 12 -4.842
12 AF1 13 -7.284
12 AF1 14 -9.725
12 AF1 15 -12.655
12 AF1 16 -14.608
12 AF1 17 -14.608
12 AF1 18 -13.143
12 AF1 19 -10.701
12 AF1 20 -7.284
12 AF1 21 -4.842
12 AF1 22 -3.377
12 AF1 23 -3.377
12 AF1 24 -2.889
12 AF1 25 -1.912
12 AF1 26 -0.448
12 AF1 27 1.017
12 AF1 28 1.506
12 AF1 29 1.017
12 AF1 30 -0.936
12 AF1 31 -2.401
12 AF1 32 -2.401
12 AF1 33 -3.377
12 AF1 34 -3.866
12 AF1 35 -4.842
12 AF1 36 -6.795
12 AF1 37 -7.772
12 AF1 38 -7.772
12 AF1 39 -6.795
12 AF1 40 -5.330
12 AF1 41 -4.354
12 AF1 42 -4.842
12 AF1 43 -5.819
12 AF1 44 -6.307
12 AF1 45 -5.819
12 AF1 46 -4.842
12 AF1 47 -3.377
12 AF1 48 -3.377
12 AF1 49 -3.866
12 AF1 50 -4.354
12 AF1 51 -4.842
12 AF1 52 -4.354
12 AF1 53 -3.377
12 AF1 54 -1.912
12 AF1 55 -0.448
12 AF1 56 0.529
12 AF1 57 1.017
12 AF1 58 0.041
12 AF1 59 -1.912
12 AF1 60 -3.866
12 AF1 61 -5.819
12 AF1 62 -6.307
12 AF1 63 -6.307
12 AF1 64 -4.842
12 AF1 65 -3.377
12 AF1 66 -1.424
12 AF1 67 0.041
12 AF1 68 1.506
12 AF1 69 2.482
12 AF1 70 3.459
12 AF1 71 3.459
12 AF1 72 2.970
12 AF1 73 2.482
12 AF1 74 1.506
12 AF1 75 1.017
12 AF1 76 1.506
12 AF1 77 2.482
12 AF1 78 4.435
12 AF1 79 5.900
12 AF1 80 6.388
12 AF1 81 5.900
12 AF1 82 4.924
12 AF1 83 3.459
12 AF1 84 3.459
12 AF1 85 3.947
12 AF1 86 4.435
12 AF1 87 4.924
12 AF1 88 4.924
12 AF1 89 4.924
12 AF1 90 4.924
12 AF1 91 4.435
12 AF1 92 3.459
12 AF1 93 2.482
12 AF1 94 1.994
12 AF1 95 2.482
12 AF1 96 3.459
12 AF1 97 4.924
12 AF1 98 5.900
12 AF1 99 5.412
12 AF1 100 3.947
12 AF1 101 1.506
12 AF1 102 -0.448
12 AF1 103 -1.912
12 AF1 104 -1.912
12 AF1 105 0.041
12 AF1 106 3.459
12 AF1 107 7.365
12 AF1 108 9.806
12 AF1 109 10.295
12 AF1 110 9.318
12 AF1 111 7.365
12 AF1 112 4.924
12 AF1 113 2.970
12 AF1 114 2.970
12 AF1 115 2.970
12 AF1 116 3.459
12 AF1 117 3.459
12 AF1 118 1.994
12 AF1 119 -0.936
12 AF1 120 -3.866
12 AF1 121 -6.307
12 AF1 122 -6.795
12 AF1 123 -5.330
12 AF1 124 -3.377
12 AF1 125 -1.424
12 AF1 126 -1.424
12 AF1 127 -1.912
12 AF1 128 -2.889
12 AF1 129 -3.377
12 AF1 130 -3.866
12 AF1 131 -3.866
12 AF1 132 -3.866
12 AF1 133 -3.866
12 AF1 134 -3.377
12 AF1 135 -1.912
12 AF1 136 -0.936
12 AF1 137 -0.448
12 AF1 138 -1.424
12 AF1 139 -2.889
12 AF1 140 -4.842
12 AF1 141 -5.819
12 AF1 142 -5.819
12 AF1 143 -5.330
12 AF1 144 -4.354
12 AF1 145 -4.354
12 AF1 146 -3.377
12 AF1 147 -1.912
12 AF1 148 -0.448
12 AF1 149 1.506
12 AF1 150 2.970
12 AF1 151 4.435
12 AF1 152 4.924
12 AF1 153 5.412
12 AF1 154 5.900
12 AF1 155 6.388
12 AF1 156 6.388
12 AF1 157 5.900
12 AF1 158 5.412
12 AF1 159 4.435
12 AF1 160 2.970
12 AF1 161 1.994
12 AF1 162 0.529
12 AF1 163 -0.448
12 AF1 164 -1.424
12 AF1 165 -2.889
12 AF1 166 -4.842
12 AF1 167 -6.307
12 AF1 168 -7.284
12 AF1 169 -7.772
12 AF1 170 -6.795
12 AF1 171 -5.330
12 AF1 172 -3.377
12 AF1 173 -1.912
12 AF1 174 -0.936
12 AF1 175 0.041
12 AF1 176 1.017
12 AF1 177 1.017
12 AF1 178 1.506
12 AF1 179 1.017
12 AF1 180 0.529
12 AF1 181 -0.448
12 AF1 182 -0.936
12 AF1 183 -0.936
12 AF1 184 -1.424
12 AF1 185 -2.401
12 AF1 186 -4.842
12 AF1 187 -7.284
12 AF1 188 -8.748
12 AF1 189 -9.237
12 AF1 190 -7.772
12 AF1 191 -5.330
12 AF1 192 -2.889
12 AF1 193 -1.424
12 AF1 194 0.041
12 AF1 195 1.017
12 AF1 196 1.506
12 AF1 197 1.994
12 AF1 198 1.994
12 AF1 199 1.017
12 AF1 200 0.041
12 AF1 201 -0.448
12 AF1 202 -0.448
12 AF1 203 0.041
12 AF1 204 -0.448
12 AF1 205 -1.424
12 AF1 206 -2.889
12 AF1 207 -4.354
12 AF1 208 -5.330
12 AF1 209 -5.819
12 AF1 210 -5.819
12 AF1 211 -6.307
12 AF1 212 -6.795
12 AF1 213 -7.772
12 AF1 214 -8.260
12 AF1 215 -7.284
12 AF1 216 -5.330
12 AF1 217 -3.377
12 AF1 218 -1.424
12 AF1 219 -1.912
12 AF1 220 -3.377
12 AF1 221 -4.842
12 AF1 222 -5.819
12 AF1 223 -6.795
12 AF1 224 -7.284
12 AF1 225 -8.748
12 AF1 226 -10.213
12 AF1 227 -11.678
12 AF1 228 -13.143
12 AF1 229 -14.608
12 AF1 230 -14.608
12 AF1 231 -14.119
12 AF1 232 -12.655
12 AF1 233 -10.701
12 AF1 234 -8.748
12 AF1 235 -6.795
12 AF1 236 -6.307
12 AF1 237 -6.307
12 AF1 238 -7.284
12 AF1 239 -7.772
12 AF1 240 -9.237
12 AF1 241 -9.725
12 AF1 242 -10.213
12 AF1 243 -10.701
12 AF1 244 -10.213
12 AF1 245 -9.725
12 AF1 246 -8.260
12 AF1 247 -7.772
12 AF1 248 -7.284
12 AF1 249 -7.284
12 AF1 250 -7.772
12 AF1 251 -7.772
12 AF1 252 -7.284
12 AF1 253 -6.795
12 AF1 254 -6.795
12 AF1 255 -6.795
# AF2 chan 5
12 AF2 0 -3.448
12 AF2 1 -2.960
12 AF2 2 -3.448
12 AF2 3 -4.425
12 AF2 4 -5.890
12 AF2 5 -7.355
12 AF2 6 -7.355
12 AF2 7 -6.866
12 AF2 8 -5.890
12 AF2 9 -4.425
12 AF2 10 -3.937
12 AF2 11 -3.937
12 AF2 12 -4.913
12 AF2 13 -7.355
12 AF2 14 -10.284
12 AF2 15 -12.726
12 AF2 16 -14.679
12 AF2 17 -15.167
12 AF2 18 -13.702
12 AF2 19 -11.261
12 AF2 20 -7.843
12 AF2 21 -5.402
12 AF2 22 -3.937
12 AF2 23 -3.448
12 AF2 24 -2.960
12 AF2 25 -1.984
12 AF2 26 -0.519
12 AF2 27 0.946
12 AF2 28 1.434
12 AF2 29 0.458
12 AF2 30 -1.007
12 AF2 31 -2.960
12 AF2 32 -3.937
12 AF2 33 -4.425
12 AF2 34 -5.402
12 AF2 35 -5.890
12 AF2 36 -7.355
12 AF2 37 -7.843
12 AF2 38 -7.355
12 AF2 39 -6.378
12 AF2 40 -5.402
12 AF2 41 -5.890
12 AF2 42 -6.866
12 AF2 43 -7.843
12 AF2 44 -7.843
12 AF2 45 -7.355
12 AF2 46 -5.402
12 AF2 47 -4.425
12 AF2 48 -4.425
12 AF2 49 -4.913
12 AF2 50 -5.890
12 AF2 51 -6.866
12 AF2 52 -6.866
12 AF2 53 -6.378
12 AF2 54 -4.913
12 AF2 55 -2.960
12 AF2 56 -1.984
12 AF2 57 -1.007
12 AF2 58 -1.984
12 AF2 59 -3.937
12 AF2 60 -5.890
12 AF2 61 -7.355
12 AF2 62 -7.355
12 AF2 63 -6.866
12 AF2 64 -5.890
12 AF2 65 -4.913
12 AF2 66 -3.448
12 AF2 67 -1.495
12 AF2 68 0.458
12 AF2 69 2.899
12 AF2 70 3.876
12 AF2 71 4.364
12 AF2 72 3.387
12 AF2 73 1.923
12 AF2 74 0.946
12 AF2 75 0.458
12 AF2 76 1.434
12 AF2 77 2.411
12 AF2 78 3.387
12 AF2 79 4.364
12 AF2 80 4.852
12 AF2 81 4.852
12 AF2 82 4.364
12 AF2 83 4.364
12 AF2 84 4.852
12 AF2 85 4.364
12 AF2 86 3.876
12 AF2 87 3.876
12 AF2 88 3.876
12 AF2 89 3.876
12 AF2 90 4.364
12 AF2 91 3.876
12 AF2 92 3.387
12 AF2 93 1.923
12 AF2 94 0.946
12 AF2 95 1.434
12 AF2 96 2.411
12 AF2 97 3.387
12 AF2 98 4.364
12 AF2 99 3.876
12 AF2 100 2.411
12 AF2 101 0.458
12 AF2 102 -1.495
12 AF2 103 -2.472
12 AF2 104 -1.984
12 AF2 105 -0.031
12 AF2 106 3.387
12 AF2 107 6.317
12 AF2 108 7.782
12 AF2 109 8.270
12 AF2 110 6.317
12 AF2 111 4.852
12 AF2 112 3.387
12 AF2 113 2.899
12 AF2 114 2.411
12 AF2 115 2.899
12 AF2 116 2.899
12 AF2 117 1.923
12 AF2 118 0.458
12 AF2 119 -1.495
12 AF2 120 -3.937
12 AF2 121 -5.402
12 AF2 122 -6.378
12 AF2 123 -5.402
12 AF2 124 -3.448
12 AF2 125 -1.495
12 AF2 126 -0.519
12 AF2 127 -0.519
12 AF2 128 -1.495
12 AF2 129 -3.448
12 AF2 130 -5.402
12 AF2 131 -6.378
12 AF2 132 -6.866
12 AF2 133 -6.378
12 AF2 134 -4.913
12 AF2 135 -2.960
12 AF2 136 -1.495
12 AF2 137 -1.495
12 AF2 138 -2.472
12 AF2 139 -4.425
12 AF2 140 -5.890
12 AF2 141 -6.378
12 AF2 142 -5.890
12 AF2 143 -4.913
12 AF2 144 -3.937
12 AF2 145 -3.448
12 AF2 146 -2.960
12 AF2 147 -2.472
12 AF2 148 -1.495
12 AF2 149 -0.031
12 AF2 150 1.923
12 AF2 151 3.876
12 AF2 152 5.341
12 AF2 153 6.317
12 AF2 154 6.317
12 AF2 155 5.341
12 AF2 156 4.852
12 AF2 157 4.364
12 AF2 158 3.876
12 AF2 159 2.899
12 AF2 160 1.434
12 AF2 161 -0.031
12 AF2 162 -1.495
12 AF2 163 -1.984
12 AF2 164 -2.960
12 AF2 165 -3.937
12 AF2 166 -5.402
12 AF2 167 -7.355
12 AF2 168 -8.820
12 AF2 169 -8.820
12 AF2 170 -7.355
12 AF2 171 -5.402
12 AF2 172 -3.448
12 AF2 173 -1.495
12 AF2 174 -0.519
12 AF2 175 -0.031
12 AF2 176 0.458
12 AF2 177 0.458
12 AF2 178 0.458
12 AF2 179 -0.031
12 AF2 180 -0.519
12 AF2 181 -1.007
12 AF2 182 -1.495
12 AF2 183 -1.495
12 AF2 184 -1.984
12 AF2 185 -2.960
12 AF2 186 -4.425
12 AF2 187 -6.378
12 AF2 188 -7.843
12 AF2 189 -7.843
12 AF2 190 -7.355
12 AF2 191 -5.890
12 AF2 192 -4.425
12 AF2 193 -2.960
12 AF2 194 -1.984
12 AF2 195 -0.031
12 AF2 196 0.946
12 AF2 197 1.923
12 AF2 198 1.434
12 AF2 199 0.458
12 AF2 200 -1.007
12 AF2 201 -1.495
12 AF2 202 -1.495
12 AF2 203 -1.007
12 AF2 204 -1.007
12 AF2 205 -1.984
12 AF2 206 -3.937
12 AF2 207 -5.890
12 AF2 208 -6.866
12 AF2 209 -7.355
12 AF2 210 -6.866
12 AF2 211 -6.378
12 AF2 212 -6.866
12 AF2 213 -7.843
12 AF2 214 -8.331
12 AF2 215 -8.820
12 AF2 216 -7.843
12 AF2 217 -7.355
12 AF2 218 -5.402
12 AF2 219 -4.913
12 AF2 220 -5.402
12 AF2 221 -6.378
12 AF2 222 -7.355
12 AF2 223 -9.308
12 AF2 224 -10.284
12 AF2 225 -12.238
12 AF2 226 -13.214
12 AF2 227 -14.679
12 AF2 228 -15.167
12 AF2 229 -15.656
12 AF2 230 -15.656
12 AF2 231 -15.167
12 AF2 232 -14.191
12 AF2 233 -11.749
12 AF2 234 -9.308
12 AF2 235 -6.866
12 AF2 236 -5.890
12 AF2 237 -6.378
12 AF2 238 -7.355
12 AF2 239 -8.331
12 AF2 240 -9.308
12 AF2 241 -9.796
12 AF2 242 -9.796
12 AF2 243 -10.284
12 AF2 244 -10.773
12 AF2 245 -10.773
12 AF2 246 -10.284
12 AF2 247 -9.796
12 AF2 248 -9.308
12 AF2 249 -8.820
12 AF2 250 -8.820
12 AF2 251 -8.331
12 AF2 252 -7.843
12 AF2 253 -8.331
12 AF2 254 -8.820
12 AF2 255 -8.820
# FZ chan 6
12 FZ 0 -3.754
12 FZ 1 -3.265
12 FZ 2 -3.754
12 FZ 3 -3.754
12 FZ 4 -4.242
12 FZ 5 -5.219
12 FZ 6 -5.219
12 FZ 7 -5.219
12 FZ 8 -4.242
12 FZ 9 -2.777
12 FZ 10 -2.289
12 FZ 11 -1.801
12 FZ 12 -3.265
12 FZ 13 -5.219
12 FZ 14 -7.660
12 FZ 15 -9.613
12 FZ 16 -11.078
12 FZ 17 -11.078
12 FZ 18 -9.613
12 FZ 19 -7.660
12 FZ 20 -5.219
12 FZ 21 -2.777
12 FZ 22 -2.289
12 FZ 23 -2.289
12 FZ 24 -2.289
12 FZ 25 -1.312
12 FZ 26 0.641
12 FZ 27 2.106
12 FZ 28 3.082
12 FZ 29 1.617
12 FZ 30 0.153
12 FZ 31 -1.801
12 FZ 32 -2.289
12 FZ 33 -2.777
12 FZ 34 -3.265
12 FZ 35 -4.242
12 FZ 36 -5.707
12 FZ 37 -6.683
12 FZ 38 -6.195
12 FZ 39 -5.219
12 FZ 40 -4.242
12 FZ 41 -4.242
12 FZ 42 -5.219
12 FZ 43 -6.195
12 FZ 44 -6.195
12 FZ 45 -5.707
12 FZ 46 -3.754
12 FZ 47 -2.777
12 FZ 48 -2.777
12 FZ 49 -3.265
12 FZ 50 -3.754
12 FZ 51 -4.242
12 FZ 52 -3.754
12 FZ 53 -3.754
12 FZ 54 -2.777
12 FZ 55 -1.801
12 FZ 56 -0.824
12 FZ 57 -0.336
12 FZ 58 -0.824
12 FZ 59 -2.289
12 FZ 60 -4.242
12 FZ 61 -6.195
12 FZ 62 -6.683
12 FZ 63 -6.195
12 FZ 64 -5.219
12 FZ 65 -3.754
12 FZ 66 -2.289
12 FZ 67 -0.336
12 FZ 68 1.129
12 FZ 69 2.106
12 FZ 70 3.082
12 FZ 71 2.594
12 FZ 72 1.617
12 FZ 73 0.641
12 FZ 74 0.641
12 FZ 75 0.641
12 FZ 76 1.617
12 FZ 77 2.594
12 FZ 78 4.059
12 FZ 79 4.547
12 FZ 80 4.547
12 FZ 81 4.059
12 FZ 82 3.571
12 FZ 83 3.571
12 FZ 84 3.082
12 FZ 85 3.571
12 FZ 86 3.571
12 FZ 87 3.571
12 FZ 88 3.571
12 FZ 89 3.571
12 FZ 90 3.571
12 FZ 91 3.082
12 FZ 92 2.106
12 FZ 93 1.129
12 FZ 94 1.129
12 FZ 95 1.617
12 FZ 96 2.594
12 FZ 97 3.571
12 FZ 98 4.059
12 FZ 99 3.571
12 FZ 100 2.594
12 FZ 101 0.641
12 FZ 102 -0.824
12 FZ 103 -2.289
12 FZ 104 -1.801
12 FZ 105 0.153
12 FZ 106 2.594
12 FZ 107 5.524
12 FZ 108 6.989
12 FZ 109 6.989
12 FZ 110 6.012
12 FZ 111 4.547
12 FZ 112 3.571
12 FZ 113 2.594
12 FZ 114 2.594
12 FZ 115 3.082
12 FZ 116 3.082
12 FZ 117 2.594
12 FZ 118 1.617
12 FZ 119 -0.336
12 FZ 120 -2.777
12 FZ 121 -5.219
12 FZ 122 -5.707
12 FZ 123 -4.242
12 FZ 124 -2.777
12 FZ 125 -0.824
12 FZ 126 -0.336
12 FZ 127 -0.336
12 FZ 128 -1.312
12 FZ 129 -2.777
12 FZ 130 -3.265
12 FZ 131 -3.754
12 FZ 132 -4.242
12 FZ 133 -3.754
12 FZ 134 -3.265
12 FZ 135 -1.801
12 FZ 136 -0.824
12 FZ 137 -0.336
12 FZ 138 -0.824
12 FZ 139 -1.801
12 FZ 140 -3.265
12 FZ 141 -4.242
12 FZ 142 -3.754
12 FZ 143 -3.754
12 FZ 144 -3.265
12 FZ 145 -2.777
12 FZ 146 -2.289
12 FZ 147 -1.312
12 FZ 148 -0.336
12 FZ 149 1.617
12 FZ 150 3.082
12 FZ 151 4.547
12 FZ 152 5.524
12 FZ 153 6.012
12 FZ 154 6.012
12 FZ 155 6.012
12 FZ 156 6.012
12 FZ 157 5.524
12 FZ 158 5.035
12 FZ 159 4.547
12 FZ 160 3.082
12 FZ 161 1.617
12 FZ 162 1.129
12 FZ 163 0.153
12 FZ 164 -0.336
12 FZ 165 -1.801
12 FZ 166 -3.265
12 FZ 167 -4.730
12 FZ 168 -5.707
12 FZ 169 -5.707
12 FZ 170 -4.730
12 FZ 171 -3.265
12 FZ 172 -1.312
12 FZ 173 0.153
12 FZ 174 1.129
12 FZ 175 1.617
12 FZ 176 2.106
12 FZ 177 2.106
12 FZ 178 2.106
12 FZ 179 1.617
12 FZ 180 1.129
12 FZ 181 0.153
12 FZ 182 0.153
12 FZ 183 -0.336
12 FZ 184 -0.336
12 FZ 185 -0.824
12 FZ 186 -2.777
12 FZ 187 -4.730
12 FZ 188 -6.683
12 FZ 189 -6.683
12 FZ 190 -5.707
12 FZ 191 -3.754
12 FZ 192 -2.289
12 FZ 193 -0.336
12 FZ 194 0.153
12 FZ 195 1.129
12 FZ 196 1.617
12 FZ 197 1.617
12 FZ 198 1.617
12 FZ 199 1.129
12 FZ 200 0.641
12 FZ 201 0.153
12 FZ 202 0.153
12 FZ 203 0.153
12 FZ 204 0.153
12 FZ 205 -0.824
12 FZ 206 -1.801
12 FZ 207 -3.265
12 FZ 208 -3.754
12 FZ 209 -4.242
12 FZ 210 -4.242
12 FZ 211 -4.242
12 FZ 212 -4.730
12 FZ 213 -5.707
12 FZ 214 -5.707
12 FZ 215 -5.707
12 FZ 216 -4.242
12 FZ 217 -2.777
12 FZ 218 -2.289
12 FZ 219 -1.801
12 FZ 220 -2.777
12 FZ 221 -3.265
12 FZ 222 -3.754
12 FZ 223 -3.754
12 FZ 224 -4.242
12 FZ 225 -5.219
12 FZ 226 -6.683
12 FZ 227 -8.636
12 FZ 228 -9.613
12 FZ 229 -10.590
12 FZ 230 -10.590
12 FZ 231 -10.101
12 FZ 232 -9.613
12 FZ 233 -8.148
12 FZ 234 -6.195
12 FZ 235 -4.730
12 FZ 236 -3.754
12 FZ 237 -3.754
12 FZ 238 -5.219
12 FZ 239 -5.707
12 FZ 240 -6.683
12 FZ 241 -7.172
12 FZ 242 -7.660
12 FZ 243 -8.148
12 FZ 244 -8.148
12 FZ 245 -7.660
12 FZ 246 -7.172
12 FZ 247 -6.195
12 FZ 248 -5.707
12 FZ 249 -6.195
12 FZ 250 -6.195
12 FZ 251 -6.195
12 FZ 252 -6.195
12 FZ 253 -5.707
12 FZ 254 -5.707
12 FZ 255 -5.707
# F4 chan 7
12 F4 0 -2.604
12 F4 1 -2.604
12 F4 2 -3.092
12 F4 3 -4.069
12 F4 4 -5.534
12 F4 5 -6.510
12 F4 6 -6.999
12 F4 7 -6.510
12 F4 8 -5.046
12 F4 9 -4.069
12 F4 10 -3.092
12 F4 11 -3.581
12 F4 12 -4.557
12 F4 13 -6.510
12 F4 14 -8.464
12 F4 15 -9.928
12 F4 16 -11.393
12 F4 17 -12.370
12 F4 18 -11.882
12 F4 19 -9.928
12 F4 20 -7.487
12 F4 21 -4.557
12 F4 22 -3.581
12 F4 23 -3.092
12 F4 24 -2.604
12 F4 25 -2.116
12 F4 26 -1.139
12 F4 27 0.326
12 F4 28 0.814
12 F4 29 0.326
12 F4 30 -0.651
12 F4 31 -2.116
12 F4 32 -3.092
12 F4 33 -4.069
12 F4 34 -5.046
12 F4 35 -6.022
12 F4 36 -6.510
12 F4 37 -6.022
12 F4 38 -4.557
12 F4 39 -3.581
12 F4 40 -3.092
12 F4 41 -4.069
12 F4 42 -5.534
12 F4 43 -6.510
12 F4 44 -6.510
12 F4 45 -5.046
12 F4 46 -3.581
12 F4 47 -2.604
12 F4 48 -2.604
12 F4 49 -3.581
12 F4 50 -4.557
12 F4 51 -5.534
12 F4 52 -6.022
12 F4 53 -6.022
12 F4 54 -4.557
12 F4 55 -3.092
12 F4 56 -1.139
12 F4 57 -0.651
12 F4 58 -1.139
12 F4 59 -2.604
12 F4 60 -4.557
12 F4 61 -5.534
12 F4 62 -5.046
12 F4 63 -4.069
12 F4 64 -3.092
12 F4 65 -2.604
12 F4 66 -2.116
12 F4 67 -0.651
12 F4 68 1.790
12 F4 69 4.232
12 F4 70 5.697
12 F4 71 6.185
12 F4 72 4.720
12 F4 73 2.767
12 F4 74 1.302
12 F4 75 0.814
12 F4 76 1.790
12 F4 77 2.767
12 F4 78 3.743
12 F4 79 3.743
12 F4 80 3.743
12 F4 81 4.232
12 F4 82 4.232
12 F4 83 5.208
12 F4 84 5.697
12 F4 85 5.208
12 F4 86 4.232
12 F4 87 3.743
12 F4 88 3.743
12 F4 89 4.232
12 F4 90 4.720
12 F4 91 4.720
12 F4 92 3.743
12 F4 93 2.767
12 F4 94 2.279
12 F4 95 1.790
12 F4 96 2.767
12 F4 97 3.255
12 F4 98 3.255
12 F4 99 2.767
12 F4 100 2.279
12 F4 101 0.326
12 F4 102 -0.651
12 F4 103 -1.628
12 F4 104 -1.139
12 F4 105 0.326
12 F4 106 3.255
12 F4 107 5.208
12 F4 108 5.697
12 F4 109 4.720
12 F4 110 2.767
12 F4 111 0.814
12 F4 112 0.326
12 F4 113 0.814
12 F4 114 1.302
12 F4 115 1.790
12 F4 116 1.302
12 F4 117 -0.163
12 F4 118 -1.628
12 F4 119 -3.092
12 F4 120 -4.557
12 F4 121 -6.022
12 F4 122 -6.022
12 F4 123 -4.557
12 F4 124 -2.604
12 F4 125 -0.651
12 F4 126 0.814
12 F4 127 0.814
12 F4 128 -1.139
12 F4 129 -3.581
12 F4 130 -6.510
12 F4 131 -7.975
12 F4 132 -7.975
12 F4 133 -6.999
12 F4 134 -4.557
12 F4 135 -3.092
12 F4 136 -2.116
12 F4 137 -2.116
12 F4 138 -3.581
12 F4 139 -4.557
12 F4 140 -5.534
12 F4 141 -5.046
12 F4 142 -4.557
12 F4 143 -3.581
12 F4 144 -2.604
12 F4 145 -2.116
12 F4 146 -1.628
12 F4 147 -1.628
12 F4 148 -1.139
12 F4 149 -0.163
12 F4 150 2.279
12 F4 151 4.720
12 F4 152 6.185
12 F4 153 7.161
12 F4 154 6.673
12 F4 155 5.697
12 F4 156 4.232
12 F4 157 3.743
12 F4 158 3.255
12 F4 159 2.279
12 F4 160 1.302
12 F4 161 0.326
12 F4 162 -0.163
12 F4 163 -0.651
12 F4 164 -1.139
12 F4 165 -2.604
12 F4 166 -4.557
12 F4 167 -6.510
12 F4 168 -7.487
12 F4 169 -6.999
12 F4 170 -5.046
12 F4 171 -2.604
12 F4 172 -0.651
12 F4 173 1.302
12 F4 174 1.790
12 F4 175 2.279
12 F4 176 2.767
12 F4 177 3.255
12 F4 178 3.255
12 F4 179 2.767
12 F4 180 2.279
12 F4 181 1.302
12 F4 182 0.814
12 F4 183 0.814
12 F4 184 0.326
12 F4 185 -0.651
12 F4 186 -1.628
12 F4 187 -2.604
12 F4 188 -3.581
12 F4 189 -3.581
12 F4 190 -3.092
12 F4 191 -2.116
12 F4 192 -1.139
12 F4 193 -0.163
12 F4 194 0.814
12 F4 195 2.279
12 F4 196 2.767
12 F4 197 3.255
12 F4 198 2.279
12 F4 199 0.814
12 F4 200 -0.651
12 F4 201 -0.651
12 F4 202 -0.163
12 F4 203 0.814
12 F4 204 0.814
12 F4 205 -0.163
12 F4 206 -2.116
12 F4 207 -4.069
12 F4 208 -6.022
12 F4 209 -6.022
12 F4 210 -5.046
12 F4 211 -4.557
12 F4 212 -4.069
12 F4 213 -5.046
12 F4 214 -6.510
12 F4 215 -7.487
12 F4 216 -6.999
12 F4 217 -6.999
12 F4 218 -6.510
12 F4 219 -5.534
12 F4 220 -6.022
12 F4 221 -6.510
12 F4 222 -7.975
12 F4 223 -9.440
12 F4 224 -10.417
12 F4 225 -12.370
12 F4 226 -13.346
12 F4 227 -13.835
12 F4 228 -14.323
12 F4 229 -14.323
12 F4 230 -14.323
12 F4 231 -13.346
12 F4 232 -11.393
12 F4 233 -9.440
12 F4 234 -6.999
12 F4 235 -5.046
12 F4 236 -4.069
12 F4 237 -4.557
12 F4 238 -5.046
12 F4 239 -6.022
12 F4 240 -6.022
12 F4 241 -6.022
12 F4 242 -6.022
12 F4 243 -6.999
12 F4 244 -7.487
12 F4 245 -7.975
12 F4 246 -8.464
12 F4 247 -7.975
12 F4 248 -7.487
12 F4 249 -6.999
12 F4 250 -6.022
12 F4 251 -5.046
12 F4 252 -4.557
12 F4 253 -4.557
12 F4 254 -5.046
12 F4 255 -6.022
# F3 chan 8
12 F3 0 -3.042
12 F3 1 -2.065
12 F3 2 -1.577
12 F3 3 -2.553
12 F3 4 -3.530
12 F3 5 -4.506
12 F3 6 -5.483
12 F3 7 -4.995
12 F3 8 -4.018
12 F3 9 -2.065
12 F3 10 -0.600
12 F3 11 -1.088
12 F3 12 -3.042
12 F3 13 -4.995
12 F3 14 -8.413
12 F3 15 -10.854
12 F3 16 -12.319
12 F3 17 -12.319
12 F3 18 -11.342
12 F3 19 -8.901
12 F3 20 -5.971
12 F3 21 -4.018
12 F3 22 -2.553
12 F3 23 -2.553
12 F3 24 -2.065
12 F3 25 -1.577
12 F3 26 -0.112
12 F3 27 1.841
12 F3 28 2.818
12 F3 29 2.818
12 F3 30 1.841
12 F3 31 0.376
12 F3 32 -0.112
12 F3 33 -0.600
12 F3 34 -1.088
12 F3 35 -2.065
12 F3 36 -4.018
12 F3 37 -5.483
12 F3 38 -5.971
12 F3 39 -4.995
12 F3 40 -3.530
12 F3 41 -2.553
12 F3 42 -2.065
12 F3 43 -2.065
12 F3 44 -2.553
12 F3 45 -2.065
12 F3 46 -1.577
12 F3 47 -1.577
12 F3 48 -1.577
12 F3 49 -2.065
12 F3 50 -2.553
12 F3 51 -2.065
12 F3 52 -1.577
12 F3 53 -0.112
12 F3 54 0.865
12 F3 55 1.841
12 F3 56 2.818
12 F3 57 2.818
12 F3 58 2.330
12 F3 59 0.865
12 F3 60 -1.577
12 F3 61 -3.042
12 F3 62 -3.530
12 F3 63 -3.042
12 F3 64 -2.065
12 F3 65 -0.600
12 F3 66 0.865
12 F3 67 1.841
12 F3 68 3.306
12 F3 69 3.794
12 F3 70 4.283
12 F3 71 3.794
12 F3 72 3.306
12 F3 73 2.330
12 F3 74 1.841
12 F3 75 1.841
12 F3 76 2.330
12 F3 77 3.794
12 F3 78 5.747
12 F3 79 7.212
12 F3 80 7.701
12 F3 81 6.724
12 F3 82 5.259
12 F3 83 3.794
12 F3 84 3.306
12 F3 85 3.306
12 F3 86 3.794
12 F3 87 4.771
12 F3 88 5.259
12 F3 89 5.747
12 F3 90 5.259
12 F3 91 4.771
12 F3 92 3.794
12 F3 93 2.818
12 F3 94 2.330
12 F3 95 3.306
12 F3 96 4.283
12 F3 97 5.747
12 F3 98 6.724
12 F3 99 6.236
12 F3 100 4.283
12 F3 101 2.330
12 F3 102 -0.112
12 F3 103 -1.088
12 F3 104 -0.600
12 F3 105 1.353
12 F3 106 4.283
12 F3 107 7.212
12 F3 108 9.165
12 F3 109 10.142
12 F3 110 9.165
12 F3 111 6.724
12 F3 112 4.283
12 F3 113 2.330
12 F3 114 1.841
12 F3 115 2.330
12 F3 116 4.283
12 F3 117 4.771
12 F3 118 3.794
12 F3 119 1.353
12 F3 120 -2.553
12 F3 121 -4.995
12 F3 122 -5.483
12 F3 123 -4.506
12 F3 124 -2.065
12 F3 125 -0.112
12 F3 126 0.376
12 F3 127 0.376
12 F3 128 -0.112
12 F3 129 -0.112
12 F3 130 -0.112
12 F3 131 0.376
12 F3 132 -0.600
12 F3 133 -1.088
12 F3 134 -1.577
12 F3 135 -0.600
12 F3 136 0.865
12 F3 137 1.841
12 F3 138 1.841
12 F3 139 -0.112
12 F3 140 -1.577
12 F3 141 -2.553
12 F3 142 -2.553
12 F3 143 -2.065
12 F3 144 -1.577
12 F3 145 -1.577
12 F3 146 -1.577
12 F3 147 -0.600
12 F3 148 1.353
12 F3 149 4.283
12 F3 150 5.747
12 F3 151 6.724
12 F3 152 6.236
12 F3 153 6.236
12 F3 154 6.236
12 F3 155 7.212
12 F3 156 7.701
12 F3 157 7.701
12 F3 158 6.724
12 F3 159 5.259
12 F3 160 4.283
12 F3 161 3.794
12 F3 162 3.306
12 F3 163 2.818
12 F3 164 1.841
12 F3 165 -0.112
12 F3 166 -1.577
12 F3 167 -2.553
12 F3 168 -3.042
12 F3 169 -3.042
12 F3 170 -3.042
12 F3 171 -2.065
12 F3 172 -0.600
12 F3 173 0.865
12 F3 174 2.818
12 F3 175 3.794
12 F3 176 4.771
12 F3 177 4.771
12 F3 178 5.259
12 F3 179 5.259
12 F3 180 4.771
12 F3 181 4.771
12 F3 182 4.283
12 F3 183 4.283
12 F3 184 3.306
12 F3 185 1.841
12 F3 186 -0.600
12 F3 187 -3.530
12 F3 188 -4.995
12 F3 189 -5.483
12 F3 190 -3.530
12 F3 191 -0.600
12 F3 192 1.841
12 F3 193 3.306
12 F3 194 3.306
12 F3 195 3.306
12 F3 196 2.818
12 F3 197 2.818
12 F3 198 3.306
12 F3 199 3.306
12 F3 200 2.818
12 F3 201 2.330
12 F3 202 1.841
12 F3 203 1.353
12 F3 204 0.865
12 F3 205 0.376
12 F3 206 -0.600
12 F3 207 -1.088
12 F3 208 -1.088
12 F3 209 -1.577
12 F3 210 -2.065
12 F3 211 -3.042
12 F3 212 -4.506
12 F3 213 -5.483
12 F3 214 -5.483
12 F3 215 -4.018
12 F3 216 -1.088
12 F3 217 0.865
12 F3 218 1.841
12 F3 219 0.865
12 F3 220 -1.088
12 F3 221 -2.553
12 F3 222 -3.530
12 F3 223 -3.530
12 F3 224 -3.042
12 F3 225 -4.018
12 F3 226 -4.995
12 F3 227 -7.436
12 F3 228 -9.389
12 F3 229 -10.854
12 F3 230 -11.342
12 F3 231 -10.854
12 F3 232 -9.389
12 F3 233 -7.436
12 F3 234 -5.971
12 F3 235 -4.995
12 F3 236 -4.506
12 F3 237 -4.506
12 F3 238 -4.995
12 F3 239 -5.483
12 F3 240 -5.971
12 F3 241 -6.460
12 F3 242 -6.948
12 F3 243 -6.948
12 F3 244 -6.460
12 F3 245 -5.483
12 F3 246 -4.018
12 F3 247 -3.530
12 F3 248 -3.042
12 F3 249 -3.530
12 F3 250 -4.018
12 F3 251 -3.530
12 F3 252 -3.042
12 F3 253 -2.553
12 F3 254 -2.553
12 F3 255 -2.553
# FC6 chan 9
12 FC6 0 0.193
12 FC6 1 -0.783
12 FC6 2 -2.248
12 FC6 3 -4.201
12 FC6 4 -6.154
12 FC6 5 -7.131
12 FC6 6 -7.131
12 FC6 7 -6.643
12 FC6 8 -5.666
12 FC6 9 -4.690
12 FC6 10 -5.178
12 FC6 11 -5.666
12 FC6 12 -6.643
12 FC6 13 -7.131
12 FC6 14 -7.619
12 FC6 15 -9.084
12 FC6 16 -10.061
12 FC6 17 -11.525
12 FC6 18 -11.525
12 FC6 19 -10.549
12 FC6 20 -8.108
12 FC6 21 -5.178
12 FC6 22 -3.713
12 FC6 23 -2.736
12 FC6 24 -3.225
12 FC6 25 -3.713
12 FC6 26 -3.713
12 FC6 27 -2.736
12 FC6 28 -2.248
12 FC6 29 -2.248
12 FC6 30 -2.736
12 FC6 31 -3.713
12 FC6 32 -4.690
12 FC6 33 -5.178
12 FC6 34 -4.690
12 FC6 35 -4.201
12 FC6 36 -3.225
12 FC6 37 -2.248
12 FC6 38 -0.783
12 FC6 39 0.193
12 FC6 40 0.193
12 FC6 41 -0.295
12 FC6 42 -1.272
12 FC6 43 -2.248
12 FC6 44 -1.760
12 FC6 45 -0.783
12 FC6 46 0.682
12 FC6 47 0.682
12 FC6 48 0.193
12 FC6 49 -1.272
12 FC6 50 -2.248
12 FC6 51 -3.225
12 FC6 52 -3.225
12 FC6 53 -2.736
12 FC6 54 -1.760
12 FC6 55 -0.783
12 FC6 56 1.170
12 FC6 57 2.146
12 FC6 58 2.635
12 FC6 59 1.658
12 FC6 60 0.193
12 FC6 61 -0.783
12 FC6 62 -0.783
12 FC6 63 0.682
12 FC6 64 1.658
12 FC6 65 2.635
12 FC6 66 2.635
12 FC6 67 3.123
12 FC6 68 3.611
12 FC6 69 5.076
12 FC6 70 5.564
12 FC6 71 5.564
12 FC6 72 4.100
12 FC6 73 2.635
12 FC6 74 1.170
12 FC6 75 0.682
12 FC6 76 1.170
12 FC6 77 1.658
12 FC6 78 1.658
12 FC6 79 1.170
12 FC6 80 0.682
12 FC6 81 1.658
12 FC6 82 3.123
12 FC6 83 5.076
12 FC6 84 6.053
12 FC6 85 5.564
12 FC6 86 4.100
12 FC6 87 3.123
12 FC6 88 3.611
12 FC6 89 5.076
12 FC6 90 6.053
12 FC6 91 5.564
12 FC6 92 4.588
12 FC6 93 2.635
12 FC6 94 1.658
12 FC6 95 1.658
12 FC6 96 1.658
12 FC6 97 1.658
12 FC6 98 0.682
12 FC6 99 0.193
12 FC6 100 0.193
12 FC6 101 -0.295
12 FC6 102 -0.783
12 FC6 103 -1.760
12 FC6 104 -2.248
12 FC6 105 -1.760
12 FC6 106 0.193
12 FC6 107 2.146
12 FC6 108 3.611
12 FC6 109 2.635
12 FC6 110 0.682
12 FC6 111 -1.760
12 FC6 112 -2.736
12 FC6 113 -2.736
12 FC6 114 -2.248
12 FC6 115 -2.736
12 FC6 116 -3.713
12 FC6 117 -5.178
12 FC6 118 -6.643
12 FC6 119 -7.619
12 FC6 120 -7.619
12 FC6 121 -8.596
12 FC6 122 -8.596
12 FC6 123 -7.619
12 FC6 124 -6.154
12 FC6 125 -3.713
12 FC6 126 -2.736
12 FC6 127 -2.736
12 FC6 128 -4.201
12 FC6 129 -6.154
12 FC6 130 -8.596
12 FC6 131 -10.061
12 FC6 132 -10.061
12 FC6 133 -9.084
12 FC6 134 -7.131
12 FC6 135 -5.666
12 FC6 136 -4.690
12 FC6 137 -5.666
12 FC6 138 -6.643
12 FC6 139 -7.619
12 FC6 140 -8.108
12 FC6 141 -7.131
12 FC6 142 -5.666
12 FC6 143 -4.201
12 FC6 144 -3.713
12 FC6 145 -3.713
12 FC6 146 -4.201
12 FC6 147 -4.201
12 FC6 148 -4.690
12 FC6 149 -3.713
12 FC6 150 -2.248
12 FC6 151 0.193
12 FC6 152 2.635
12 FC6 153 3.611
12 FC6 154 3.123
12 FC6 155 1.658
12 FC6 156 0.193
12 FC6 157 -0.295
12 FC6 158 0.193
12 FC6 159 0.682
12 FC6 160 0.682
12 FC6 161 0.193
12 FC6 162 -0.783
12 FC6 163 -1.760
12 FC6 164 -3.225
12 FC6 165 -4.201
12 FC6 166 -6.154
12 FC6 167 -7.131
12 FC6 168 -7.619
12 FC6 169 -6.643
12 FC6 170 -4.690
12 FC6 171 -2.736
12 FC6 172 -1.760
12 FC6 173 -0.295
12 FC6 174 0.682
12 FC6 175 1.658
12 FC6 176 3.123
12 FC6 177 4.100
12 FC6 178 4.100
12 FC6 179 3.611
12 FC6 180 2.635
12 FC6 181 1.658
12 FC6 182 1.170
12 FC6 183 0.682
12 FC6 184 0.193
12 FC6 185 -0.295
12 FC6 186 -0.783
12 FC6 187 -1.272
12 FC6 188 -1.272
12 FC6 189 -1.272
12 FC6 190 -0.783
12 FC6 191 -0.783
12 FC6 192 -0.295
12 FC6 193 0.193
12 FC6 194 0.682
12 FC6 195 1.658
12 FC6 196 2.146
12 FC6 197 1.658
12 FC6 198 0.193
12 FC6 199 -0.783
12 FC6 200 -1.760
12 FC6 201 -1.272
12 FC6 202 -0.295
12 FC6 203 1.170
12 FC6 204 1.658
12 FC6 205 0.682
12 FC6 206 -1.272
12 FC6 207 -3.225
12 FC6 208 -4.690
12 FC6 209 -4.201
12 FC6 210 -3.713
12 FC6 211 -2.248
12 FC6 212 -2.248
12 FC6 213 -2.736
12 FC6 214 -4.201
12 FC6 215 -5.178
12 FC6 216 -6.643
12 FC6 217 -6.643
12 FC6 218 -6.154
12 FC6 219 -5.666
12 FC6 220 -5.666
12 FC6 221 -6.643
12 FC6 222 -8.596
12 FC6 223 -11.037
12 FC6 224 -12.990
12 FC6 225 -14.943
12 FC6 226 -15.432
12 FC6 227 -15.920
12 FC6 228 -15.920
12 FC6 229 -15.432
12 FC6 230 -14.943
12 FC6 231 -13.479
12 FC6 232 -10.549
12 FC6 233 -7.131
12 FC6 234 -4.201
12 FC6 235 -2.736
12 FC6 236 -2.248
12 FC6 237 -2.736
12 FC6 238 -2.736
12 FC6 239 -2.736
12 FC6 240 -2.248
12 FC6 241 -2.248
12 FC6 242 -2.736
12 FC6 243 -4.201
12 FC6 244 -5.178
12 FC6 245 -6.154
12 FC6 246 -6.643
12 FC6 247 -6.643
12 FC6 248 -6.154
12 FC6 249 -4.690
12 FC6 250 -2.736
12 FC6 251 -0.783
12 FC6 252 0.193
12 FC6 253 0.682
12 FC6 254 -0.783
12 FC6 255 -2.248
# FC5 chan 10
12 FC5 0 -3.082
12 FC5 1 -0.153
12 FC5 2 1.801
12 FC5 3 1.312
12 FC5 4 -0.641
12 FC5 5 -3.571
12 FC5 6 -6.500
12 FC5 7 -6.989
12 FC5 8 -5.035
12 FC5 9 -2.106
12 FC5 10 0.336
12 FC5 11 0.824
12 FC5 12 -1.617
12 FC5 13 -4.059
12 FC5 14 -6.012
12 FC5 15 -8.453
12 FC5 16 -10.406
12 FC5 17 -12.360
12 FC5 18 -13.336
12 FC5 19 -11.871
12 FC5 20 -7.965
12 FC5 21 -3.082
12 FC5 22 -0.153
12 FC5 23 0.336
12 FC5 24 -1.617
12 FC5 25 -3.571
12 FC5 26 -3.571
12 FC5 27 -1.129
12 FC5 28 1.801
12 FC5 29 3.265
12 FC5 30 2.777
12 FC5 31 0.824
12 FC5 32 0.336
12 FC5 33 0.824
12 FC5 34 1.801
12 FC5 35 1.312
12 FC5 36 -0.641
12 FC5 37 -3.571
12 FC5 38 -5.524
12 FC5 39 -5.035
12 FC5 40 -2.106
12 FC5 41 1.312
12 FC5 42 3.754
12 FC5 43 5.219
12 FC5 44 5.219
12 FC5 45 3.754
12 FC5 46 2.289
12 FC5 47 0.824
12 FC5 48 -0.641
12 FC5 49 -1.129
12 FC5 50 -0.641
12 FC5 51 0.336
12 FC5 52 1.801
12 FC5 53 2.777
12 FC5 54 3.265
12 FC5 55 4.242
12 FC5 56 5.219
12 FC5 57 5.219
12 FC5 58 4.730
12 FC5 59 3.754
12 FC5 60 2.777
12 FC5 61 1.801
12 FC5 62 1.312
12 FC5 63 0.336
12 FC5 64 -0.153
12 FC5 65 -0.641
12 FC5 66 0.336
12 FC5 67 1.801
12 FC5 68 3.265
12 FC5 69 4.242
12 FC5 70 4.242
12 FC5 71 3.265
12 FC5 72 2.289
12 FC5 73 1.801
12 FC5 74 1.801
12 FC5 75 1.312
12 FC5 76 1.312
12 FC5 77 1.801
12 FC5 78 3.265
12 FC5 79 5.707
12 FC5 80 7.660
12 FC5 81 8.148
12 FC5 82 6.683
12 FC5 83 4.242
12 FC5 84 2.777
12 FC5 85 2.289
12 FC5 86 3.265
12 FC5 87 3.754
12 FC5 88 4.730
12 FC5 89 4.730
12 FC5 90 4.242
12 FC5 91 3.754
12 FC5 92 3.265
12 FC5 93 1.801
12 FC5 94 0.824
12 FC5 95 0.824
12 FC5 96 1.801
12 FC5 97 3.754
12 FC5 98 4.730
12 FC5 99 4.730
12 FC5 100 2.289
12 FC5 101 -0.153
12 FC5 102 -2.106
12 FC5 103 -2.106
12 FC5 104 -1.129
12 FC5 105 -0.153
12 FC5 106 0.824
12 FC5 107 0.824
12 FC5 108 2.289
12 FC5 109 4.242
12 FC5 110 5.707
12 FC5 111 4.730
12 FC5 112 1.312
12 FC5 113 -3.082
12 FC5 114 -5.524
12 FC5 115 -5.035
12 FC5 116 -2.106
12 FC5 117 0.824
12 FC5 118 0.336
12 FC5 119 -2.594
12 FC5 120 -6.500
12 FC5 121 -8.942
12 FC5 122 -8.453
12 FC5 123 -6.012
12 FC5 124 -3.571
12 FC5 125 -2.106
12 FC5 126 -2.594
12 FC5 127 -3.082
12 FC5 128 -2.594
12 FC5 129 -1.129
12 FC5 130 0.336
12 FC5 131 0.336
12 FC5 132 -2.594
12 FC5 133 -5.035
12 FC5 134 -5.524
12 FC5 135 -3.571
12 FC5 136 -0.641
12 FC5 137 1.312
12 FC5 138 0.336
12 FC5 139 -2.106
12 FC5 140 -4.059
12 FC5 141 -3.571
12 FC5 142 -1.617
12 FC5 143 -0.153
12 FC5 144 -1.617
12 FC5 145 -4.547
12 FC5 146 -6.989
12 FC5 147 -6.500
12 FC5 148 -3.082
12 FC5 149 2.289
12 FC5 150 5.707
12 FC5 151 5.707
12 FC5 152 3.754
12 FC5 153 2.289
12 FC5 154 2.777
12 FC5 155 4.730
12 FC5 156 5.707
12 FC5 157 5.219
12 FC5 158 2.777
12 FC5 159 -0.153
12 FC5 160 -0.641
12 FC5 161 0.824
12 FC5 162 2.777
12 FC5 163 3.265
12 FC5 164 2.289
12 FC5 165 0.824
12 FC5 166 -0.153
12 FC5 167 -0.153
12 FC5 168 0.336
12 FC5 169 -0.153
12 FC5 170 -1.617
12 FC5 171 -2.594
12 FC5 172 -2.106
12 FC5 173 0.336
12 FC5 174 3.265
12 FC5 175 5.707
12 FC5 176 5.707
12 FC5 177 5.219
12 FC5 178 5.219
12 FC5 179 5.707
12 FC5 180 7.172
12 FC5 181 8.148
12 FC5 182 8.148
12 FC5 183 6.683
12 FC5 184 4.730
12 FC5 185 2.289
12 FC5 186 0.336
12 FC5 187 -1.617
12 FC5 188 -2.594
12 FC5 189 -2.106
12 FC5 190 -0.641
12 FC5 191 1.801
12 FC5 192 4.242
12 FC5 193 5.219
12 FC5 194 4.730
12 FC5 195 3.265
12 FC5 196 2.289
12 FC5 197 1.801
12 FC5 198 1.801
12 FC5 199 1.801
12 FC5 200 1.312
12 FC5 201 0.336
12 FC5 202 -1.129
12 FC5 203 -1.617
12 FC5 204 -0.641
12 FC5 205 0.824
12 FC5 206 2.289
12 FC5 207 3.754
12 FC5 208 4.242
12 FC5 209 3.754
12 FC5 210 1.801
12 FC5 211 -1.129
12 FC5 212 -4.547
12 FC5 213 -6.500
12 FC5 214 -5.524
12 FC5 215 -2.594
12 FC5 216 1.312
12 FC5 217 4.242
12 FC5 218 5.219
12 FC5 219 3.754
12 FC5 220 1.801
12 FC5 221 0.336
12 FC5 222 -0.153
12 FC5 223 -0.153
12 FC5 224 -1.129
12 FC5 225 -3.082
12 FC5 226 -5.035
12 FC5 227 -7.477
12 FC5 228 -9.430
12 FC5 229 -10.895
12 FC5 230 -11.871
12 FC5 231 -11.383
12 FC5 232 -9.918
12 FC5 233 -7.477
12 FC5 234 -5.035
12 FC5 235 -4.059
12 FC5 236 -4.059
12 FC5 237 -4.547
12 FC5 238 -5.035
12 FC5 239 -5.035
12 FC5 240 -4.547
12 FC5 241 -4.547
12 FC5 242 -4.547
12 FC5 243 -4.547
12 FC5 244 -4.059
12 FC5 245 -3.571
12 FC5 246 -3.082
12 FC5 247 -3.082
12 FC5 248 -2.594
12 FC5 249 -2.106
12 FC5 250 -0.641
12 FC5 251 0.336
12 FC5 252 1.312
12 FC5 253 1.312
12 FC5 254 0.824
12 FC5 255 0.824
# FC2 chan 11
12 FC2 0 -1.200
12 FC2 1 -1.689
12 FC2 2 -1.689
12 FC2 3 -2.177
12 FC2 4 -2.665
12 FC2 5 -2.665
12 FC2 6 -2.665
12 FC2 7 -2.177
12 FC2 8 -1.689
12 FC2 9 -1.200
12 FC2 10 -1.200
12 FC2 11 -1.200
12 FC2 12 -1.689
12 FC2 13 -2.177
12 FC2 14 -2.665
12 FC2 15 -4.130
12 FC2 16 -5.107
12 FC2 17 -5.595
12 FC2 18 -5.107
12 FC2 19 -4.130
12 FC2 20 -2.665
12 FC2 21 -1.689
12 FC2 22 -0.712
12 FC2 23 -0.712
12 FC2 24 -0.712
12 FC2 25 -0.224
12 FC2 26 0.753
12 FC2 27 1.729
12 FC2 28 2.706
12 FC2 29 2.218
12 FC2 30 1.241
12 FC2 31 -0.224
12 FC2 32 -0.712
12 FC2 33 -1.200
12 FC2 34 -1.689
12 FC2 35 -2.177
12 FC2 36 -2.177
12 FC2 37 -1.689
12 FC2 38 -1.200
12 FC2 39 -0.712
12 FC2 40 -0.712
12 FC2 41 -1.200
12 FC2 42 -2.177
12 FC2 43 -3.642
12 FC2 44 -3.642
12 FC2 45 -3.153
12 FC2 46 -2.177
12 FC2 47 -1.200
12 FC2 48 -0.224
12 FC2 49 -0.224
12 FC2 50 -0.712
12 FC2 51 -1.200
12 FC2 52 -1.689
12 FC2 53 -2.177
12 FC2 54 -2.177
12 FC2 55 -2.177
12 FC2 56 -1.200
12 FC2 57 -0.712
12 FC2 58 -0.224
12 FC2 59 -0.712
12 FC2 60 -1.689
12 FC2 61 -2.177
12 FC2 62 -2.665
12 FC2 63 -2.177
12 FC2 64 -2.177
12 FC2 65 -1.200
12 FC2 66 -1.200
12 FC2 67 0.264
12 FC2 68 1.241
12 FC2 69 2.706
12 FC2 70 3.194
12 FC2 71 3.194
12 FC2 72 2.706
12 FC2 73 1.729
12 FC2 74 1.729
12 FC2 75 1.729
12 FC2 76 2.218
12 FC2 77 2.706
12 FC2 78 3.194
12 FC2 79 3.194
12 FC2 80 3.194
12 FC2 81 3.682
12 FC2 82 3.682
12 FC2 83 4.171
12 FC2 84 4.171
12 FC2 85 4.171
12 FC2 86 3.682
12 FC2 87 3.682
12 FC2 88 3.682
12 FC2 89 4.171
12 FC2 90 4.171
12 FC2 91 3.682
12 FC2 92 3.194
12 FC2 93 3.194
12 FC2 94 2.706
12 FC2 95 3.194
12 FC2 96 3.682
12 FC2 97 3.682
12 FC2 98 3.682
12 FC2 99 2.706
12 FC2 100 1.729
12 FC2 101 1.241
12 FC2 102 0.264
12 FC2 103 0.264
12 FC2 104 0.264
12 FC2 105 1.241
12 FC2 106 2.706
12 FC2 107 3.682
12 FC2 108 4.171
12 FC2 109 3.682
12 FC2 110 2.706
12 FC2 111 1.729
12 FC2 112 1.241
12 FC2 113 1.729
12 FC2 114 2.218
12 FC2 115 2.706
12 FC2 116 2.218
12 FC2 117 1.241
12 FC2 118 0.264
12 FC2 119 -0.712
12 FC2 120 -1.200
12 FC2 121 -1.689
12 FC2 122 -1.689
12 FC2 123 -1.200
12 FC2 124 -0.224
12 FC2 125 0.753
12 FC2 126 1.241
12 FC2 127 0.753
12 FC2 128 -0.224
12 FC2 129 -1.200
12 FC2 130 -2.665
12 FC2 131 -3.153
12 FC2 132 -3.642
12 FC2 133 -3.153
12 FC2 134 -2.665
12 FC2 135 -1.689
12 FC2 136 -1.200
12 FC2 137 -0.712
12 FC2 138 -0.712
12 FC2 139 -1.200
12 FC2 140 -1.200
12 FC2 141 -1.689
12 FC2 142 -1.689
12 FC2 143 -1.689
12 FC2 144 -1.200
12 FC2 145 -1.200
12 FC2 146 -1.689
12 FC2 147 -0.712
12 FC2 148 -0.712
12 FC2 149 0.264
12 FC2 150 1.241
12 FC2 151 2.706
12 FC2 152 4.171
12 FC2 153 4.659
12 FC2 154 4.659
12 FC2 155 4.171
12 FC2 156 3.682
12 FC2 157 3.194
12 FC2 158 3.194
12 FC2 159 3.194
12 FC2 160 2.706
12 FC2 161 2.218
12 FC2 162 1.241
12 FC2 163 0.753
12 FC2 164 0.264
12 FC2 165 -0.224
12 FC2 166 -1.200
12 FC2 167 -2.177
12 FC2 168 -2.665
12 FC2 169 -2.177
12 FC2 170 -1.200
12 FC2 171 0.264
12 FC2 172 1.729
12 FC2 173 2.218
12 FC2 174 2.706
12 FC2 175 2.706
12 FC2 176 3.194
12 FC2 177 3.194
12 FC2 178 3.194
12 FC2 179 3.194
12 FC2 180 2.218
12 FC2 181 1.241
12 FC2 182 0.753
12 FC2 183 0.753
12 FC2 184 0.753
12 FC2 185 0.753
12 FC2 186 0.264
12 FC2 187 -0.712
12 FC2 188 -1.200
12 FC2 189 -1.689
12 FC2 190 -1.689
12 FC2 191 -1.200
12 FC2 192 -0.712
12 FC2 193 0.264
12 FC2 194 0.753
12 FC2 195 1.729
12 FC2 196 2.706
12 FC2 197 2.706
12 FC2 198 1.729
12 FC2 199 0.753
12 FC2 200 0.264
12 FC2 201 0.264
12 FC2 202 0.753
12 FC2 203 1.729
12 FC2 204 1.729
12 FC2 205 0.753
12 FC2 206 -0.712
12 FC2 207 -2.177
12 FC2 208 -3.153
12 FC2 209 -3.153
12 FC2 210 -2.665
12 FC2 211 -1.689
12 FC2 212 -1.689
12 FC2 213 -2.177
12 FC2 214 -3.153
12 FC2 215 -3.153
12 FC2 216 -3.642
12 FC2 217 -3.642
12 FC2 218 -3.153
12 FC2 219 -2.665
12 FC2 220 -2.665
12 FC2 221 -2.177
12 FC2 222 -2.177
12 FC2 223 -2.665
12 FC2 224 -3.153
12 FC2 225 -4.130
12 FC2 226 -5.107
12 FC2 227 -5.595
12 FC2 228 -6.083
12 FC2 229 -6.083
12 FC2 230 -6.571
12 FC2 231 -6.083
12 FC2 232 -5.107
12 FC2 233 -4.130
12 FC2 234 -2.665
12 FC2 235 -1.689
12 FC2 236 -1.200
12 FC2 237 -1.689
12 FC2 238 -2.177
12 FC2 239 -2.665
12 FC2 240 -2.665
12 FC2 241 -3.153
12 FC2 242 -3.153
12 FC2 243 -3.642
12 FC2 244 -4.130
12 FC2 245 -4.618
12 FC2 246 -4.618
12 FC2 247 -4.130
12 FC2 248 -3.642
12 FC2 249 -3.153
12 FC2 250 -2.665
12 FC2 251 -2.177
12 FC2 252 -2.177
12 FC2 253 -2.177
12 FC2 254 -2.177
12 FC2 255 -2.665
# FC1 chan 12
12 FC1 0 -2.848
12 FC1 1 -1.383
12 FC1 2 -0.895
12 FC1 3 -0.895
12 FC1 4 -1.383
12 FC1 5 -2.360
12 FC1 6 -2.848
12 FC1 7 -2.360
12 FC1 8 -1.383
12 FC1 9 0.081
12 FC1 10 0.570
12 FC1 11 0.570
12 FC1 12 -0.895
12 FC1 13 -2.848
12 FC1 14 -4.801
12 FC1 15 -6.266
12 FC1 16 -7.243
12 FC1 17 -7.243
12 FC1 18 -6.266
12 FC1 19 -4.313
12 FC1 20 -2.360
12 FC1 21 -0.895
12 FC1 22 -0.407
12 FC1 23 -0.407
12 FC1 24 -0.895
12 FC1 25 -0.407
12 FC1 26 1.058
12 FC1 27 2.523
12 FC1 28 3.011
12 FC1 29 3.499
12 FC1 30 2.523
12 FC1 31 1.546
12 FC1 32 0.570
12 FC1 33 0.081
12 FC1 34 -0.407
12 FC1 35 -0.895
12 FC1 36 -1.872
12 FC1 37 -2.848
12 FC1 38 -3.337
12 FC1 39 -2.848
12 FC1 40 -1.383
12 FC1 41 -0.895
12 FC1 42 -0.407
12 FC1 43 -0.407
12 FC1 44 -0.407
12 FC1 45 0.081
12 FC1 46 0.081
12 FC1 47 -0.407
12 FC1 48 -0.407
12 FC1 49 -0.895
12 FC1 50 -0.895
12 FC1 51 -0.407
12 FC1 52 -0.407
12 FC1 53 0.081
12 FC1 54 0.081
12 FC1 55 0.570
12 FC1 56 1.546
12 FC1 57 2.035
12 FC1 58 2.035
12 FC1 59 1.058
12 FC1 60 -0.407
12 FC1 61 -1.872
12 FC1 62 -2.360
12 FC1 63 -2.360
12 FC1 64 -1.383
12 FC1 65 -0.407
12 FC1 66 1.058
12 FC1 67 2.035
12 FC1 68 2.523
12 FC1 69 3.499
12 FC1 70 3.499
12 FC1 71 3.011
12 FC1 72 2.035
12 FC1 73 1.058
12 FC1 74 0.570
12 FC1 75 1.058
12 FC1 76 1.546
12 FC1 77 3.011
12 FC1 78 3.988
12 FC1 79 4.476
12 FC1 80 4.964
12 FC1 81 3.988
12 FC1 82 3.011
12 FC1 83 2.035
12 FC1 84 1.546
12 FC1 85 2.035
12 FC1 86 2.523
12 FC1 87 3.011
12 FC1 88 3.988
12 FC1 89 3.988
12 FC1 90 3.499
12 FC1 91 2.523
12 FC1 92 2.035
12 FC1 93 1.546
12 FC1 94 1.058
12 FC1 95 1.058
12 FC1 96 2.035
12 FC1 97 3.011
12 FC1 98 3.011
12 FC1 99 2.523
12 FC1 100 1.546
12 FC1 101 -0.407
12 FC1 102 -1.383
12 FC1 103 -1.872
12 FC1 104 -0.895
12 FC1 105 0.570
12 FC1 106 2.035
12 FC1 107 3.011
12 FC1 108 3.988
12 FC1 109 4.476
12 FC1 110 4.476
12 FC1 111 3.499
12 FC1 112 2.035
12 FC1 113 0.570
12 FC1 114 0.570
12 FC1 115 1.058
12 FC1 116 2.035
12 FC1 117 3.011
12 FC1 118 2.523
12 FC1 119 1.058
12 FC1 120 -1.383
12 FC1 121 -3.337
12 FC1 122 -3.825
12 FC1 123 -3.337
12 FC1 124 -1.383
12 FC1 125 0.081
12 FC1 126 0.570
12 FC1 127 0.570
12 FC1 128 0.570
12 FC1 129 0.081
12 FC1 130 0.081
12 FC1 131 -0.407
12 FC1 132 -0.895
12 FC1 133 -1.383
12 FC1 134 -1.383
12 FC1 135 -0.407
12 FC1 136 0.570
12 FC1 137 1.058
12 FC1 138 1.058
12 FC1 139 0.081
12 FC1 140 -0.895
12 FC1 141 -1.383
12 FC1 142 -1.383
12 FC1 143 -0.895
12 FC1 144 -0.895
12 FC1 145 -0.895
12 FC1 146 -0.895
12 FC1 147 -0.407
12 FC1 148 1.058
12 FC1 149 2.523
12 FC1 150 4.476
12 FC1 151 4.964
12 FC1 152 4.964
12 FC1 153 4.476
12 FC1 154 4.476
12 FC1 155 4.964
12 FC1 156 5.452
12 FC1 157 5.452
12 FC1 158 4.964
12 FC1 159 3.988
12 FC1 160 3.499
12 FC1 161 3.011
12 FC1 162 3.011
12 FC1 163 2.523
12 FC1 164 1.546
12 FC1 165 0.570
12 FC1 166 -0.407
12 FC1 167 -0.895
12 FC1 168 -1.383
12 FC1 169 -1.383
12 FC1 170 -1.383
12 FC1 171 -0.407
12 FC1 172 0.570
12 FC1 173 2.035
12 FC1 174 3.011
12 FC1 175 3.988
12 FC1 176 4.476
12 FC1 177 4.476
12 FC1 178 4.476
12 FC1 179 3.988
12 FC1 180 3.988
12 FC1 181 3.988
12 FC1 182 3.988
12 FC1 183 3.499
12 FC1 184 3.499
12 FC1 185 2.035
12 FC1 186 0.081
12 FC1 187 -1.872
12 FC1 188 -2.848
12 FC1 189 -3.337
12 FC1 190 -1.872
12 FC1 191 0.081
12 FC1 192 2.035
12 FC1 193 2.523
12 FC1 194 2.523
12 FC1 195 2.035
12 FC1 196 2.035
12 FC1 197 2.035
12 FC1 198 2.035
12 FC1 199 2.523
12 FC1 200 2.035
12 FC1 201 2.035
12 FC1 202 1.546
12 FC1 203 1.546
12 FC1 204 1.058
12 FC1 205 0.570
12 FC1 206 0.081
12 FC1 207 0.570
12 FC1 208 0.570
12 FC1 209 1.058
12 FC1 210 0.570
12 FC1 211 -0.407
12 FC1 212 -1.383
12 FC1 213 -2.360
12 FC1 214 -2.360
12 FC1 215 -0.895
12 FC1 216 0.570
12 FC1 217 2.035
12 FC1 218 2.035
12 FC1 219 1.546
12 FC1 220 1.058
12 FC1 221 0.570
12 FC1 222 0.570
12 FC1 223 0.570
12 FC1 224 0.570
12 FC1 225 0.081
12 FC1 226 -0.895
12 FC1 227 -2.360
12 FC1 228 -3.825
12 FC1 229 -4.801
12 FC1 230 -5.290
12 FC1 231 -5.290
12 FC1 232 -4.801
12 FC1 233 -3.825
12 FC1 234 -2.360
12 FC1 235 -1.383
12 FC1 236 -0.895
12 FC1 237 -0.895
12 FC1 238 -1.383
12 FC1 239 -2.360
12 FC1 240 -2.848
12 FC1 241 -3.825
12 FC1 242 -3.825
12 FC1 243 -3.825
12 FC1 244 -3.337
12 FC1 245 -2.360
12 FC1 246 -1.383
12 FC1 247 -0.895
12 FC1 248 -0.895
12 FC1 249 -1.383
12 FC1 250 -2.360
12 FC1 251 -2.360
12 FC1 252 -2.360
12 FC1 253 -1.872
12 FC1 254 -0.895
12 FC1 255 -0.895
# T8 chan 13
12 T8 0 4.089
12 T8 1 3.113
12 T8 2 0.671
12 T8 3 -3.235
12 T8 4 -6.653
12 T8 5 -9.094
12 T8 6 -9.583
12 T8 7 -8.606
12 T8 8 -7.141
12 T8 9 -7.141
12 T8 10 -8.606
12 T8 11 -10.071
12 T8 12 -11.536
12 T8 13 -11.047
12 T8 14 -9.583
12 T8 15 -9.094
12 T8 16 -9.583
12 T8 17 -11.047
12 T8 18 -11.536
12 T8 19 -10.071
12 T8 20 -7.141
12 T8 21 -3.723
12 T8 22 -1.282
12 T8 23 -1.282
12 T8 24 -3.235
12 T8 25 -5.188
12 T8 26 -6.653
12 T8 27 -7.141
12 T8 28 -8.118
12 T8 29 -8.606
12 T8 30 -8.606
12 T8 31 -8.118
12 T8 32 -5.676
12 T8 33 -3.723
12 T8 34 -2.258
12 T8 35 -2.258
12 T8 36 -2.258
12 T8 37 -1.770
12 T8 38 -0.305
12 T8 39 1.648
12 T8 40 2.625
12 T8 41 2.136
12 T8 42 1.160
12 T8 43 0.671
12 T8 44 0.671
12 T8 45 1.648
12 T8 46 2.136
12 T8 47 1.160
12 T8 48 -0.793
12 T8 49 -3.235
12 T8 50 -4.700
12 T8 51 -4.700
12 T8 52 -3.723
12 T8 53 -2.258
12 T8 54 -1.282
12 T8 55 -0.305
12 T8 56 0.671
12 T8 57 2.136
12 T8 58 3.113
12 T8 59 3.113
12 T8 60 2.136
12 T8 61 1.160
12 T8 62 0.183
12 T8 63 1.160
12 T8 64 2.136
12 T8 65 3.113
12 T8 66 3.113
12 T8 67 2.136
12 T8 68 0.671
12 T8 69 -0.305
12 T8 70 -0.305
12 T8 71 -0.305
12 T8 72 0.183
12 T8 73 0.183
12 T8 74 -0.793
12 T8 75 -1.282
12 T8 76 -1.770
12 T8 77 -2.747
12 T8 78 -3.723
12 T8 79 -4.211
12 T8 80 -4.211
12 T8 81 -2.747
12 T8 82 -0.305
12 T8 83 2.625
12 T8 84 4.578
12 T8 85 5.066
12 T8 86 4.578
12 T8 87 4.089
12 T8 88 4.578
12 T8 89 5.554
12 T8 90 6.042
12 T8 91 6.042
12 T8 92 4.089
12 T8 93 2.136
12 T8 94 1.160
12 T8 95 0.671
12 T8 96 0.671
12 T8 97 0.671
12 T8 98 0.671
12 T8 99 0.183
12 T8 100 0.183
12 T8 101 0.183
12 T8 102 -0.305
12 T8 103 -0.305
12 T8 104 -0.305
12 T8 105 0.183
12 T8 106 1.160
12 T8 107 3.113
12 T8 108 4.089
12 T8 109 4.089
12 T8 110 3.113
12 T8 111 1.648
12 T8 112 0.183
12 T8 113 -1.282
12 T8 114 -2.747
12 T8 115 -4.211
12 T8 116 -6.165
12 T8 117 -6.653
12 T8 118 -6.653
12 T8 119 -6.165
12 T8 120 -6.165
12 T8 121 -6.653
12 T8 122 -7.141
12 T8 123 -7.141
12 T8 124 -6.165
12 T8 125 -4.211
12 T8 126 -3.235
12 T8 127 -2.747
12 T8 128 -4.211
12 T8 129 -6.165
12 T8 130 -7.629
12 T8 131 -8.118
12 T8 132 -7.629
12 T8 133 -6.165
12 T8 134 -4.211
12 T8 135 -3.235
12 T8 136 -2.747
12 T8 137 -3.235
12 T8 138 -4.211
12 T8 139 -5.676
12 T8 140 -6.165
12 T8 141 -6.165
12 T8 142 -5.676
12 T8 143 -4.700
12 T8 144 -4.211
12 T8 145 -4.700
12 T8 146 -4.700
12 T8 147 -5.188
12 T8 148 -5.188
12 T8 149 -4.211
12 T8 150 -2.258
12 T8 151 -0.305
12 T8 152 0.671
12 T8 153 1.160
12 T8 154 0.183
12 T8 155 -0.793
12 T8 156 -1.770
12 T8 157 -1.282
12 T8 158 -0.305
12 T8 159 0.671
12 T8 160 1.648
12 T8 161 1.648
12 T8 162 0.671
12 T8 163 -0.305
12 T8 164 -1.770
12 T8 165 -3.723
12 T8 166 -5.676
12 T8 167 -6.165
12 T8 168 -5.676
12 T8 169 -4.700
12 T8 170 -3.235
12 T8 171 -1.770
12 T8 172 -0.793
12 T8 173 0.671
12 T8 174 2.136
12 T8 175 4.089
12 T8 176 5.066
12 T8 177 5.554
12 T8 178 5.066
12 T8 179 4.089
12 T8 180 3.601
12 T8 181 3.113
12 T8 182 2.625
12 T8 183 1.160
12 T8 184 0.183
12 T8 185 -0.305
12 T8 186 -0.305
12 T8 187 -0.305
12 T8 188 0.671
12 T8 189 1.160
12 T8 190 1.160
12 T8 191 1.160
12 T8 192 1.160
12 T8 193 1.648
12 T8 194 1.648
12 T8 195 1.648
12 T8 196 1.160
12 T8 197 -0.305
12 T8 198 -1.282
12 T8 199 -1.770
12 T8 200 -1.770
12 T8 201 -0.305
12 T8 202 1.160
12 T8 203 2.625
12 T8 204 2.625
12 T8 205 1.648
12 T8 206 -0.305
12 T8 207 -2.258
12 T8 208 -3.235
12 T8 209 -2.747
12 T8 210 -1.770
12 T8 211 -0.793
12 T8 212 0.671
12 T8 213 1.160
12 T8 214 0.183
12 T8 215 -1.770
12 T8 216 -3.723
12 T8 217 -5.676
12 T8 218 -6.165
12 T8 219 -5.676
12 T8 220 -5.188
12 T8 221 -6.165
12 T8 222 -9.094
12 T8 223 -13.000
12 T8 224 -16.418
12 T8 225 -17.883
12 T8 226 -17.883
12 T8 227 -16.907
12 T8 228 -16.907
12 T8 229 -16.907
12 T8 230 -16.418
12 T8 231 -13.977
12 T8 232 -10.071
12 T8 233 -5.676
12 T8 234 -2.258
12 T8 235 -0.793
12 T8 236 -1.282
12 T8 237 -2.258
12 T8 238 -2.747
12 T8 239 -2.747
12 T8 240 -1.770
12 T8 241 -1.770
12 T8 242 -2.258
12 T8 243 -3.235
12 T8 244 -4.700
12 T8 245 -6.165
12 T8 246 -7.141
12 T8 247 -7.629
12 T8 248 -7.629
12 T8 249 -5.676
12 T8 250 -2.747
12 T8 251 1.160
12 T8 252 4.089
12 T8 253 4.578
12 T8 254 3.601
12 T8 255 0.671
# T7 chan 14
12 T7 0 -2.350
12 T7 1 2.045
12 T7 2 0.092
12 T7 3 -6.744
12 T7 4 -12.115
12 T7 5 -10.651
12 T7 6 -1.373
12 T7 7 8.392
12 T7 8 9.369
12 T7 9 0.580
12 T7 10 -11.627
12 T7 11 -16.998
12 T7 12 -10.651
12 T7 13 1.556
12 T7 14 9.369
12 T7 15 3.998
12 T7 16 -10.162
12 T7 17 -22.369
12 T7 18 -22.369
12 T7 19 -11.627
12 T7 20 3.510
12 T7 21 10.834
12 T7 22 7.904
12 T7 23 0.092
12 T7 24 -4.791
12 T7 25 -3.326
12 T7 26 0.580
12 T7 27 1.068
12 T7 28 -3.815
12 T7 29 -11.627
12 T7 30 -16.510
12 T7 31 -13.580
12 T7 32 -4.303
12 T7 33 6.439
12 T7 34 13.275
12 T7 35 14.740
12 T7 36 11.810
12 T7 37 6.927
12 T7 38 1.556
12 T7 39 -2.838
12 T7 40 -4.303
12 T7 41 -2.838
12 T7 42 0.580
12 T7 43 3.510
12 T7 44 3.510
12 T7 45 0.580
12 T7 46 -2.838
12 T7 47 -4.303
12 T7 48 -2.350
12 T7 49 3.021
12 T7 50 8.392
12 T7 51 10.834
12 T7 52 9.857
12 T7 53 6.439
12 T7 54 3.021
12 T7 55 1.068
12 T7 56 0.580
12 T7 57 0.580
12 T7 58 -1.373
12 T7 59 -3.326
12 T7 60 -3.815
12 T7 61 -0.885
12 T7 62 5.463
12 T7 63 12.787
12 T7 64 16.205
12 T7 65 13.763
12 T7 66 6.439
12 T7 67 -2.350
12 T7 68 -8.698
12 T7 69 -10.162
12 T7 70 -7.721
12 T7 71 -4.303
12 T7 72 -0.397
12 T7 73 2.045
12 T7 74 4.486
12 T7 75 6.439
12 T7 76 7.416
12 T7 77 7.416
12 T7 78 5.463
12 T7 79 3.021
12 T7 80 2.533
12 T7 81 3.510
12 T7 82 4.974
12 T7 83 4.486
12 T7 84 1.068
12 T7 85 -2.838
12 T7 86 -4.791
12 T7 87 -1.862
12 T7 88 3.998
12 T7 89 8.392
12 T7 90 8.881
12 T7 91 5.463
12 T7 92 3.021
12 T7 93 3.510
12 T7 94 6.439
12 T7 95 7.904
12 T7 96 4.486
12 T7 97 -2.350
12 T7 98 -8.698
12 T7 99 -9.674
12 T7 100 -4.791
12 T7 101 0.580
12 T7 102 2.533
12 T7 103 0.092
12 T7 104 -2.350
12 T7 105 -0.397
12 T7 106 4.486
12 T7 107 8.881
12 T7 108 8.392
12 T7 109 3.021
12 T7 110 -2.838
12 T7 111 -4.303
12 T7 112 -0.397
12 T7 113 2.533
12 T7 114 0.580
12 T7 115 -7.233
12 T7 116 -15.533
12 T7 117 -19.440
12 T7 118 -16.510
12 T7 119 -8.698
12 T7 120 -0.397
12 T7 121 3.998
12 T7 122 4.974
12 T7 123 3.021
12 T7 124 -0.885
12 T7 125 -5.768
12 T7 126 -10.651
12 T7 127 -12.604
12 T7 128 -9.674
12 T7 129 -3.326
12 T7 130 2.533
12 T7 131 3.998
12 T7 132 -0.885
12 T7 133 -8.209
12 T7 134 -12.115
12 T7 135 -9.674
12 T7 136 0.092
12 T7 137 10.834
12 T7 138 16.205
12 T7 139 12.787
12 T7 140 1.556
12 T7 141 -9.674
12 T7 142 -14.557
12 T7 143 -11.139
12 T7 144 -2.350
12 T7 145 3.510
12 T7 146 3.021
12 T7 147 -2.838
12 T7 148 -8.698
12 T7 149 -7.233
12 T7 150 2.533
12 T7 151 14.740
12 T7 152 21.576
12 T7 153 18.646
12 T7 154 6.927
12 T7 155 -6.256
12 T7 156 -12.604
12 T7 157 -10.651
12 T7 158 -2.838
12 T7 159 3.998
12 T7 160 4.974
12 T7 161 1.068
12 T7 162 -3.326
12 T7 163 -3.815
12 T7 164 1.068
12 T7 165 7.904
12 T7 166 13.275
12 T7 167 12.787
12 T7 168 7.416
12 T7 169 -1.373
12 T7 170 -8.209
12 T7 171 -10.162
12 T7 172 -6.256
12 T7 173 1.068
12 T7 174 7.416
12 T7 175 9.857
12 T7 176 7.416
12 T7 177 3.021
12 T7 178 -0.397
12 T7 179 0.580
12 T7 180 3.998
12 T7 181 8.392
12 T7 182 10.345
12 T7 183 8.881
12 T7 184 5.463
12 T7 185 2.533
12 T7 186 1.556
12 T7 187 3.021
12 T7 188 4.974
12 T7 189 4.974
12 T7 190 2.533
12 T7 191 -1.373
12 T7 192 -3.815
12 T7 193 -2.838
12 T7 194 1.556
12 T7 195 6.927
12 T7 196 9.857
12 T7 197 8.881
12 T7 198 5.951
12 T7 199 2.045
12 T7 200 -0.397
12 T7 201 -0.885
12 T7 202 -0.397
12 T7 203 0.092
12 T7 204 1.068
12 T7 205 2.533
12 T7 206 3.998
12 T7 207 4.486
12 T7 208 2.045
12 T7 209 -1.862
12 T7 210 -4.303
12 T7 211 -2.350
12 T7 212 4.486
12 T7 213 11.810
12 T7 214 14.252
12 T7 215 10.834
12 T7 216 4.974
12 T7 217 2.045
12 T7 218 4.486
12 T7 219 8.881
12 T7 220 10.345
12 T7 221 3.998
12 T7 222 -7.721
12 T7 223 -17.487
12 T7 224 -20.416
12 T7 225 -14.069
12 T7 226 -3.815
12 T7 227 3.510
12 T7 228 3.998
12 T7 229 -1.862
12 T7 230 -8.209
12 T7 231 -10.651
12 T7 232 -8.698
12 T7 233 -5.280
12 T7 234 -3.815
12 T7 235 -5.768
12 T7 236 -7.721
12 T7 237 -7.233
12 T7 238 -4.303
12 T7 239 -0.885
12 T7 240 -1.862
12 T7 241 -6.744
12 T7 242 -11.139
12 T7 243 -12.115
12 T7 244 -6.744
12 T7 245 1.068
12 T7 246 6.439
12 T7 247 5.463
12 T7 248 -1.373
12 T7 249 -8.698
12 T7 250 -10.162
12 T7 251 -4.303
12 T7 252 5.463
12 T7 253 12.787
12 T7 254 13.763
12 T7 255 8.392
# CZ chan 15
12 CZ 0 1.709
12 CZ 1 3.174
12 CZ 2 0.732
12 CZ 3 -4.150
12 CZ 4 -10.498
12 CZ 5 -15.381
12 CZ 6 -17.334
12 CZ 7 -16.357
12 CZ 8 -14.404
12 CZ 9 -11.963
12 CZ 10 -10.986
12 CZ 11 -13.428
12 CZ 12 -17.822
12 CZ 13 -23.193
12 CZ 14 -28.076
12 CZ 15 -31.494
12 CZ 16 -33.936
12 CZ 17 -34.912
12 CZ 18 -32.959
12 CZ 19 -28.076
12 CZ 20 -20.264
12 CZ 21 -11.475
12 CZ 22 -5.127
12 CZ 23 -2.686
12 CZ 24 -4.639
12 CZ 25 -8.545
12 CZ 26 -10.986
12 CZ 27 -11.963
12 CZ 28 -11.963
12 CZ 29 -11.475
12 CZ 30 -11.963
12 CZ 31 -11.963
12 CZ 32 -10.010
12 CZ 33 -7.568
12 CZ 34 -4.639
12 CZ 35 -4.639
12 CZ 36 -7.080
12 CZ 37 -10.986
12 CZ 38 -13.916
12 CZ 39 -14.893
12 CZ 40 -12.451
12 CZ 41 -9.521
12 CZ 42 -7.080
12 CZ 43 -6.592
12 CZ 44 -7.080
12 CZ 45 -8.057
12 CZ 46 -8.545
12 CZ 47 -9.521
12 CZ 48 -10.010
12 CZ 49 -11.963
12 CZ 50 -13.916
12 CZ 51 -14.893
12 CZ 52 -14.404
12 CZ 53 -12.939
12 CZ 54 -10.498
12 CZ 55 -8.545
12 CZ 56 -8.545
12 CZ 57 -9.521
12 CZ 58 -10.986
12 CZ 59 -11.963
12 CZ 60 -12.939
12 CZ 61 -14.404
12 CZ 62 -16.846
12 CZ 63 -19.287
12 CZ 64 -19.775
12 CZ 65 -17.822
12 CZ 66 -14.893
12 CZ 67 -12.451
12 CZ 68 -11.963
12 CZ 69 -12.939
12 CZ 70 -13.428
12 CZ 71 -12.451
12 CZ 72 -10.498
12 CZ 73 -10.010
12 CZ 74 -11.963
12 CZ 75 -15.869
12 CZ 76 -18.799
12 CZ 77 -18.799
12 CZ 78 -16.846
12 CZ 79 -13.916
12 CZ 80 -11.475
12 CZ 81 -10.986
12 CZ 82 -11.475
12 CZ 83 -12.939
12 CZ 84 -15.381
12 CZ 85 -18.311
12 CZ 86 -19.287
12 CZ 87 -17.334
12 CZ 88 -11.963
12 CZ 89 -5.127
12 CZ 90 -0.732
12 CZ 91 -1.709
12 CZ 92 -8.057
12 CZ 93 -16.357
12 CZ 94 -22.217
12 CZ 95 -23.193
12 CZ 96 -19.775
12 CZ 97 -15.381
12 CZ 98 -14.404
12 CZ 99 -17.822
12 CZ 100 -22.217
12 CZ 101 -24.170
12 CZ 102 -22.217
12 CZ 103 -16.846
12 CZ 104 -12.939
12 CZ 105 -12.939
12 CZ 106 -16.357
12 CZ 107 -18.311
12 CZ 108 -17.334
12 CZ 109 -11.963
12 CZ 110 -6.592
12 CZ 111 -4.639
12 CZ 112 -8.545
12 CZ 113 -14.893
12 CZ 114 -19.287
12 CZ 115 -20.752
12 CZ 116 -19.775
12 CZ 117 -20.264
12 CZ 118 -22.217
12 CZ 119 -25.146
12 CZ 120 -25.635
12 CZ 121 -24.170
12 CZ 122 -22.217
12 CZ 123 -23.193
12 CZ 124 -27.588
12 CZ 125 -31.494
12 CZ 126 -31.494
12 CZ 127 -27.100
12 CZ 128 -20.264
12 CZ 129 -16.357
12 CZ 130 -17.822
12 CZ 131 -23.193
12 CZ 132 -28.076
12 CZ 133 -29.541
12 CZ 134 -27.588
12 CZ 135 -23.682
12 CZ 136 -19.775
12 CZ 137 -17.334
12 CZ 138 -17.822
12 CZ 139 -19.775
12 CZ 140 -23.682
12 CZ 141 -27.588
12 CZ 142 -30.029
12 CZ 143 -29.541
12 CZ 144 -26.123
12 CZ 145 -23.193
12 CZ 146 -20.264
12 CZ 147 -19.287
12 CZ 148 -19.775
12 CZ 149 -20.752
12 CZ 150 -20.264
12 CZ 151 -18.311
12 CZ 152 -13.916
12 CZ 153 -9.033
12 CZ 154 -6.104
12 CZ 155 -7.080
12 CZ 156 -10.498
12 CZ 157 -15.381
12 CZ 158 -17.822
12 CZ 159 -16.846
12 CZ 160 -14.404
12 CZ 161 -12.451
12 CZ 162 -13.428
12 CZ 163 -16.357
12 CZ 164 -18.311
12 CZ 165 -17.822
12 CZ 166 -16.846
12 CZ 167 -17.822
12 CZ 168 -21.729
12 CZ 169 -25.635
12 CZ 170 -26.611
12 CZ 171 -22.217
12 CZ 172 -14.404
12 CZ 173 -8.545
12 CZ 174 -6.592
12 CZ 175 -10.010
12 CZ 176 -15.869
12 CZ 177 -20.264
12 CZ 178 -20.752
12 CZ 179 -17.334
12 CZ 180 -11.963
12 CZ 181 -7.080
12 CZ 182 -5.615
12 CZ 183 -9.033
12 CZ 184 -15.381
12 CZ 185 -22.705
12 CZ 186 -27.588
12 CZ 187 -28.564
12 CZ 188 -26.123
12 CZ 189 -23.193
12 CZ 190 -22.217
12 CZ 191 -24.170
12 CZ 192 -27.100
12 CZ 193 -28.076
12 CZ 194 -27.100
12 CZ 195 -25.146
12 CZ 196 -24.170
12 CZ 197 -24.170
12 CZ 198 -23.193
12 CZ 199 -19.775
12 CZ 200 -15.381
12 CZ 201 -11.963
12 CZ 202 -11.963
12 CZ 203 -15.381
12 CZ 204 -19.775
12 CZ 205 -22.705
12 CZ 206 -24.170
12 CZ 207 -23.682
12 CZ 208 -23.682
12 CZ 209 -23.193
12 CZ 210 -22.217
12 CZ 211 -21.729
12 CZ 212 -23.682
12 CZ 213 -27.100
12 CZ 214 -31.494
12 CZ 215 -31.982
12 CZ 216 -27.588
12 CZ 217 -20.264
12 CZ 218 -14.404
12 CZ 219 -13.916
12 CZ 220 -18.799
12 CZ 221 -25.146
12 CZ 222 -30.029
12 CZ 223 -32.471
12 CZ 224 -34.424
12 CZ 225 -37.842
12 CZ 226 -42.236
12 CZ 227 -46.631
12 CZ 228 -49.072
12 CZ 229 -49.072
12 CZ 230 -48.096
12 CZ 231 -46.631
12 CZ 232 -43.213
12 CZ 233 -36.865
12 CZ 234 -28.076
12 CZ 235 -18.799
12 CZ 236 -14.893
12 CZ 237 -17.334
12 CZ 238 -25.146
12 CZ 239 -32.959
12 CZ 240 -35.889
12 CZ 241 -32.471
12 CZ 242 -25.635
12 CZ 243 -20.264
12 CZ 244 -19.287
12 CZ 245 -23.193
12 CZ 246 -28.076
12 CZ 247 -31.494
12 CZ 248 -31.006
12 CZ 249 -28.076
12 CZ 250 -24.658
12 CZ 251 -21.240
12 CZ 252 -19.287
12 CZ 253 -19.775
12 CZ 254 -20.752
12 CZ 255 -23.193
# C3 chan 16
12 C3 0 -0.844
12 C3 1 1.109
12 C3 2 2.085
12 C3 3 2.085
12 C3 4 1.109
12 C3 5 -0.844
12 C3 6 -2.797
12 C3 7 -3.286
12 C3 8 -2.309
12 C3 9 -0.844
12 C3 10 1.109
12 C3 11 1.597
12 C3 12 1.109
12 C3 13 -0.356
12 C3 14 -1.821
12 C3 15 -3.286
12 C3 16 -4.262
12 C3 17 -4.751
12 C3 18 -5.239
12 C3 19 -4.751
12 C3 20 -2.797
12 C3 21 -0.356
12 C3 22 2.085
12 C3 23 3.062
12 C3 24 2.085
12 C3 25 -0.356
12 C3 26 -2.309
12 C3 27 -3.286
12 C3 28 -2.309
12 C3 29 -0.844
12 C3 30 0.621
12 C3 31 1.597
12 C3 32 2.085
12 C3 33 2.085
12 C3 34 2.085
12 C3 35 1.109
12 C3 36 0.132
12 C3 37 -1.821
12 C3 38 -2.797
12 C3 39 -2.309
12 C3 40 0.132
12 C3 41 2.574
12 C3 42 5.015
12 C3 43 5.503
12 C3 44 5.015
12 C3 45 3.062
12 C3 46 1.109
12 C3 47 -0.844
12 C3 48 -2.309
12 C3 49 -2.797
12 C3 50 -2.309
12 C3 51 -0.356
12 C3 52 1.109
12 C3 53 3.062
12 C3 54 4.038
12 C3 55 5.015
12 C3 56 5.015
12 C3 57 4.527
12 C3 58 4.038
12 C3 59 2.574
12 C3 60 1.597
12 C3 61 0.621
12 C3 62 1.109
12 C3 63 1.597
12 C3 64 2.085
12 C3 65 2.085
12 C3 66 1.597
12 C3 67 1.597
12 C3 68 2.085
12 C3 69 2.574
12 C3 70 3.550
12 C3 71 4.038
12 C3 72 4.038
12 C3 73 3.550
12 C3 74 2.574
12 C3 75 1.109
12 C3 76 0.132
12 C3 77 0.621
12 C3 78 1.597
12 C3 79 3.550
12 C3 80 5.015
12 C3 81 5.503
12 C3 82 4.527
12 C3 83 3.062
12 C3 84 1.597
12 C3 85 1.597
12 C3 86 2.574
12 C3 87 3.550
12 C3 88 5.015
12 C3 89 5.503
12 C3 90 5.992
12 C3 91 5.503
12 C3 92 4.038
12 C3 93 2.085
12 C3 94 0.621
12 C3 95 -0.356
12 C3 96 0.621
12 C3 97 2.085
12 C3 98 3.550
12 C3 99 4.038
12 C3 100 3.062
12 C3 101 1.109
12 C3 102 0.132
12 C3 103 0.132
12 C3 104 0.621
12 C3 105 1.109
12 C3 106 1.109
12 C3 107 1.597
12 C3 108 2.574
12 C3 109 4.038
12 C3 110 4.527
12 C3 111 3.062
12 C3 112 0.132
12 C3 113 -2.797
12 C3 114 -3.774
12 C3 115 -2.797
12 C3 116 -0.844
12 C3 117 1.109
12 C3 118 1.597
12 C3 119 0.621
12 C3 120 -1.333
12 C3 121 -2.309
12 C3 122 -2.309
12 C3 123 -1.821
12 C3 124 -0.844
12 C3 125 -0.356
12 C3 126 0.132
12 C3 127 0.621
12 C3 128 1.109
12 C3 129 1.597
12 C3 130 1.109
12 C3 131 0.132
12 C3 132 -0.844
12 C3 133 -0.844
12 C3 134 -0.356
12 C3 135 1.109
12 C3 136 2.574
12 C3 137 2.574
12 C3 138 1.597
12 C3 139 0.132
12 C3 140 -0.356
12 C3 141 0.132
12 C3 142 1.109
12 C3 143 1.597
12 C3 144 1.109
12 C3 145 0.132
12 C3 146 -0.356
12 C3 147 0.132
12 C3 148 1.109
12 C3 149 3.062
12 C3 150 3.550
12 C3 151 3.550
12 C3 152 2.574
12 C3 153 1.597
12 C3 154 1.109
12 C3 155 1.597
12 C3 156 1.597
12 C3 157 1.109
12 C3 158 0.132
12 C3 159 -0.356
12 C3 160 0.132
12 C3 161 0.621
12 C3 162 1.109
12 C3 163 1.109
12 C3 164 0.132
12 C3 165 -0.356
12 C3 166 -0.356
12 C3 167 0.132
12 C3 168 0.621
12 C3 169 0.621
12 C3 170 -0.356
12 C3 171 -0.844
12 C3 172 -0.844
12 C3 173 0.132
12 C3 174 1.109
12 C3 175 2.085
12 C3 176 2.085
12 C3 177 1.597
12 C3 178 1.597
12 C3 179 2.574
12 C3 180 3.062
12 C3 181 3.550
12 C3 182 4.038
12 C3 183 3.550
12 C3 184 2.574
12 C3 185 2.085
12 C3 186 1.109
12 C3 187 0.132
12 C3 188 -0.844
12 C3 189 -0.356
12 C3 190 0.621
12 C3 191 2.085
12 C3 192 3.550
12 C3 193 4.038
12 C3 194 3.062
12 C3 195 1.597
12 C3 196 0.132
12 C3 197 -0.356
12 C3 198 0.132
12 C3 199 0.132
12 C3 200 0.132
12 C3 201 -0.356
12 C3 202 -0.844
12 C3 203 -1.333
12 C3 204 -1.333
12 C3 205 -0.844
12 C3 206 1.109
12 C3 207 2.574
12 C3 208 4.038
12 C3 209 4.038
12 C3 210 3.550
12 C3 211 1.597
12 C3 212 0.132
12 C3 213 -0.844
12 C3 214 -0.356
12 C3 215 1.109
12 C3 216 3.062
12 C3 217 4.038
12 C3 218 4.038
12 C3 219 3.062
12 C3 220 2.085
12 C3 221 1.109
12 C3 222 0.621
12 C3 223 0.132
12 C3 224 -0.356
12 C3 225 -1.333
12 C3 226 -2.309
12 C3 227 -3.286
12 C3 228 -4.262
12 C3 229 -4.751
12 C3 230 -4.262
12 C3 231 -3.774
12 C3 232 -3.286
12 C3 233 -3.286
12 C3 234 -3.286
12 C3 235 -3.774
12 C3 236 -3.774
12 C3 237 -3.774
12 C3 238 -3.286
12 C3 239 -3.286
12 C3 240 -3.286
12 C3 241 -3.286
12 C3 242 -3.286
12 C3 243 -2.797
12 C3 244 -2.309
12 C3 245 -1.821
12 C3 246 -2.309
12 C3 247 -2.309
12 C3 248 -2.309
12 C3 249 -1.821
12 C3 250 -1.333
12 C3 251 -0.844
12 C3 252 -0.356
12 C3 253 -0.356
12 C3 254 -0.356
12 C3 255 -0.356
# C4 chan 17
12 C4 0 2.970
12 C4 1 1.017
12 C4 2 -0.936
12 C4 3 -2.889
12 C4 4 -3.866
12 C4 5 -3.866
12 C4 6 -3.377
12 C4 7 -2.889
12 C4 8 -2.889
12 C4 9 -3.377
12 C4 10 -3.866
12 C4 11 -4.354
12 C4 12 -3.866
12 C4 13 -2.889
12 C4 14 -1.912
12 C4 15 -0.936
12 C4 16 -0.448
12 C4 17 -0.936
12 C4 18 -1.912
12 C4 19 -2.889
12 C4 20 -2.401
12 C4 21 -1.912
12 C4 22 -0.936
12 C4 23 -0.448
12 C4 24 -0.448
12 C4 25 -1.424
12 C4 26 -2.401
12 C4 27 -2.401
12 C4 28 -2.401
12 C4 29 -2.401
12 C4 30 -1.912
12 C4 31 -1.912
12 C4 32 -1.912
12 C4 33 -2.401
12 C4 34 -1.912
12 C4 35 -1.424
12 C4 36 -0.448
12 C4 37 0.529
12 C4 38 1.017
12 C4 39 1.017
12 C4 40 1.017
12 C4 41 1.017
12 C4 42 0.041
12 C4 43 -0.448
12 C4 44 -0.936
12 C4 45 -0.936
12 C4 46 -0.448
12 C4 47 -0.448
12 C4 48 -0.448
12 C4 49 -0.936
12 C4 50 -0.936
12 C4 51 -1.912
12 C4 52 -1.912
12 C4 53 -1.424
12 C4 54 -0.936
12 C4 55 -0.448
12 C4 56 0.529
12 C4 57 0.529
12 C4 58 0.529
12 C4 59 0.529
12 C4 60 0.041
12 C4 61 0.041
12 C4 62 0.529
12 C4 63 1.017
12 C4 64 1.506
12 C4 65 1.506
12 C4 66 1.506
12 C4 67 1.017
12 C4 68 0.529
12 C4 69 1.017
12 C4 70 1.017
12 C4 71 1.506
12 C4 72 1.994
12 C4 73 1.994
12 C4 74 1.994
12 C4 75 1.994
12 C4 76 1.506
12 C4 77 0.529
12 C4 78 0.041
12 C4 79 -0.448
12 C4 80 -0.448
12 C4 81 1.017
12 C4 82 1.994
12 C4 83 2.970
12 C4 84 2.970
12 C4 85 2.482
12 C4 86 1.506
12 C4 87 1.017
12 C4 88 1.506
12 C4 89 2.970
12 C4 90 3.459
12 C4 91 3.459
12 C4 92 2.970
12 C4 93 2.482
12 C4 94 1.994
12 C4 95 1.994
12 C4 96 1.994
12 C4 97 1.994
12 C4 98 1.506
12 C4 99 1.506
12 C4 100 1.994
12 C4 101 1.994
12 C4 102 2.482
12 C4 103 1.994
12 C4 104 1.506
12 C4 105 1.506
12 C4 106 1.994
12 C4 107 2.482
12 C4 108 2.970
12 C4 109 2.482
12 C4 110 1.017
12 C4 111 0.041
12 C4 112 -0.936
12 C4 113 -0.936
12 C4 114 -0.936
12 C4 115 -0.936
12 C4 116 -0.936
12 C4 117 -1.424
12 C4 118 -1.912
12 C4 119 -1.912
12 C4 120 -1.424
12 C4 121 -1.424
12 C4 122 -1.424
12 C4 123 -1.424
12 C4 124 -1.424
12 C4 125 -0.936
12 C4 126 -0.936
12 C4 127 -0.448
12 C4 128 -0.448
12 C4 129 -1.424
12 C4 130 -2.401
12 C4 131 -3.377
12 C4 132 -3.377
12 C4 133 -2.401
12 C4 134 -1.424
12 C4 135 -0.448
12 C4 136 -0.448
12 C4 137 -1.424
12 C4 138 -2.889
12 C4 139 -2.889
12 C4 140 -2.401
12 C4 141 -0.936
12 C4 142 0.041
12 C4 143 0.041
12 C4 144 -0.448
12 C4 145 -0.936
12 C4 146 -1.424
12 C4 147 -1.424
12 C4 148 -1.424
12 C4 149 -1.424
12 C4 150 -1.424
12 C4 151 -0.448
12 C4 152 0.529
12 C4 153 1.017
12 C4 154 1.017
12 C4 155 -0.448
12 C4 156 -1.424
12 C4 157 -1.912
12 C4 158 -0.936
12 C4 159 0.041
12 C4 160 1.017
12 C4 161 1.017
12 C4 162 0.041
12 C4 163 -0.936
12 C4 164 -1.424
12 C4 165 -1.912
12 C4 166 -2.401
12 C4 167 -2.889
12 C4 168 -3.377
12 C4 169 -3.377
12 C4 170 -2.889
12 C4 171 -1.912
12 C4 172 -0.448
12 C4 173 0.041
12 C4 174 0.041
12 C4 175 0.041
12 C4 176 0.041
12 C4 177 0.529
12 C4 178 1.017
12 C4 179 1.506
12 C4 180 1.017
12 C4 181 0.041
12 C4 182 -0.936
12 C4 183 -1.424
12 C4 184 -0.936
12 C4 185 0.041
12 C4 186 1.017
12 C4 187 1.506
12 C4 188 1.994
12 C4 189 1.506
12 C4 190 1.017
12 C4 191 0.529
12 C4 192 0.529
12 C4 193 0.529
12 C4 194 1.017
12 C4 195 1.017
12 C4 196 1.017
12 C4 197 1.017
12 C4 198 0.041
12 C4 199 -0.936
12 C4 200 -1.424
12 C4 201 -0.936
12 C4 202 0.041
12 C4 203 1.506
12 C4 204 2.482
12 C4 205 1.994
12 C4 206 0.529
12 C4 207 -0.936
12 C4 208 -1.912
12 C4 209 -2.401
12 C4 210 -1.912
12 C4 211 -0.448
12 C4 212 0.041
12 C4 213 -0.448
12 C4 214 -0.936
12 C4 215 -1.912
12 C4 216 -3.377
12 C4 217 -3.866
12 C4 218 -3.866
12 C4 219 -3.866
12 C4 220 -4.354
12 C4 221 -4.842
12 C4 222 -5.819
12 C4 223 -6.795
12 C4 224 -7.772
12 C4 225 -8.260
12 C4 226 -7.772
12 C4 227 -7.284
12 C4 228 -6.795
12 C4 229 -6.307
12 C4 230 -5.330
12 C4 231 -4.842
12 C4 232 -3.377
12 C4 233 -1.912
12 C4 234 -1.424
12 C4 235 -0.936
12 C4 236 -1.424
12 C4 237 -1.912
12 C4 238 -2.401
12 C4 239 -2.401
12 C4 240 -2.401
12 C4 241 -1.912
12 C4 242 -1.912
12 C4 243 -1.912
12 C4 244 -2.889
12 C4 245 -3.377
12 C4 246 -3.866
12 C4 247 -3.866
12 C4 248 -3.377
12 C4 249 -2.401
12 C4 250 -0.448
12 C4 251 0.529
12 C4 252 1.017
12 C4 253 0.529
12 C4 254 -0.448
12 C4 255 -1.424
# CP5 chan 18
12 CP5 0 -0.326
12 CP5 1 2.116
12 CP5 2 2.604
12 CP5 3 1.628
12 CP5 4 -0.326
12 CP5 5 -2.767
12 CP5 6 -4.232
12 CP5 7 -4.720
12 CP5 8 -4.232
12 CP5 9 -2.767
12 CP5 10 -0.326
12 CP5 11 1.628
12 CP5 12 3.581
12 CP5 13 4.069
12 CP5 14 4.557
12 CP5 15 3.581
12 CP5 16 2.116
12 CP5 17 0.163
12 CP5 18 -1.302
12 CP5 19 -2.767
12 CP5 20 -2.279
12 CP5 21 -0.326
12 CP5 22 2.604
12 CP5 23 4.557
12 CP5 24 4.557
12 CP5 25 1.628
12 CP5 26 -1.790
12 CP5 27 -4.720
12 CP5 28 -5.208
12 CP5 29 -3.743
12 CP5 30 -0.326
12 CP5 31 2.604
12 CP5 32 5.046
12 CP5 33 6.022
12 CP5 34 6.510
12 CP5 35 6.022
12 CP5 36 4.557
12 CP5 37 2.116
12 CP5 38 0.163
12 CP5 39 0.651
12 CP5 40 2.604
12 CP5 41 6.510
12 CP5 42 9.440
12 CP5 43 10.417
12 CP5 44 9.440
12 CP5 45 6.510
12 CP5 46 3.581
12 CP5 47 1.139
12 CP5 48 0.163
12 CP5 49 0.163
12 CP5 50 1.139
12 CP5 51 3.092
12 CP5 52 5.534
12 CP5 53 7.975
12 CP5 54 10.417
12 CP5 55 10.905
12 CP5 56 9.928
12 CP5 57 8.464
12 CP5 58 6.999
12 CP5 59 6.022
12 CP5 60 6.022
12 CP5 61 6.510
12 CP5 62 6.999
12 CP5 63 6.999
12 CP5 64 6.999
12 CP5 65 6.510
12 CP5 66 5.534
12 CP5 67 4.557
12 CP5 68 4.069
12 CP5 69 4.557
12 CP5 70 5.046
12 CP5 71 6.510
12 CP5 72 7.487
12 CP5 73 6.999
12 CP5 74 5.534
12 CP5 75 3.092
12 CP5 76 1.139
12 CP5 77 1.139
12 CP5 78 2.604
12 CP5 79 5.534
12 CP5 80 8.464
12 CP5 81 8.952
12 CP5 82 7.975
12 CP5 83 5.534
12 CP5 84 3.581
12 CP5 85 3.581
12 CP5 86 4.557
12 CP5 87 6.999
12 CP5 88 8.952
12 CP5 89 10.417
12 CP5 90 10.417
12 CP5 91 9.440
12 CP5 92 7.487
12 CP5 93 5.046
12 CP5 94 2.116
12 CP5 95 0.651
12 CP5 96 1.139
12 CP5 97 2.604
12 CP5 98 4.557
12 CP5 99 6.510
12 CP5 100 6.999
12 CP5 101 6.022
12 CP5 102 5.046
12 CP5 103 3.581
12 CP5 104 3.092
12 CP5 105 3.581
12 CP5 106 4.069
12 CP5 107 4.557
12 CP5 108 5.534
12 CP5 109 6.022
12 CP5 110 5.534
12 CP5 111 3.581
12 CP5 112 0.651
12 CP5 113 -2.767
12 CP5 114 -4.720
12 CP5 115 -4.720
12 CP5 116 -3.255
12 CP5 117 -0.814
12 CP5 118 1.139
12 CP5 119 1.139
12 CP5 120 1.139
12 CP5 121 0.163
12 CP5 122 -0.326
12 CP5 123 -1.302
12 CP5 124 -1.302
12 CP5 125 -0.814
12 CP5 126 0.163
12 CP5 127 1.628
12 CP5 128 3.092
12 CP5 129 3.581
12 CP5 130 3.092
12 CP5 131 2.116
12 CP5 132 1.628
12 CP5 133 1.628
12 CP5 134 3.092
12 CP5 135 4.557
12 CP5 136 6.022
12 CP5 137 5.534
12 CP5 138 4.069
12 CP5 139 2.604
12 CP5 140 1.628
12 CP5 141 1.628
12 CP5 142 2.116
12 CP5 143 2.604
12 CP5 144 3.092
12 CP5 145 3.092
12 CP5 146 3.092
12 CP5 147 3.581
12 CP5 148 4.557
12 CP5 149 5.046
12 CP5 150 4.557
12 CP5 151 4.069
12 CP5 152 3.092
12 CP5 153 2.116
12 CP5 154 1.628
12 CP5 155 1.139
12 CP5 156 0.163
12 CP5 157 -1.302
12 CP5 158 -2.279
12 CP5 159 -2.279
12 CP5 160 -0.814
12 CP5 161 0.163
12 CP5 162 1.139
12 CP5 163 1.139
12 CP5 164 0.651
12 CP5 165 0.651
12 CP5 166 1.139
12 CP5 167 1.628
12 CP5 168 2.116
12 CP5 169 2.116
12 CP5 170 1.628
12 CP5 171 1.628
12 CP5 172 1.628
12 CP5 173 2.116
12 CP5 174 2.116
12 CP5 175 2.116
12 CP5 176 2.116
12 CP5 177 2.604
12 CP5 178 3.581
12 CP5 179 5.046
12 CP5 180 6.022
12 CP5 181 6.022
12 CP5 182 5.534
12 CP5 183 4.557
12 CP5 184 4.069
12 CP5 185 3.581
12 CP5 186 3.581
12 CP5 187 3.581
12 CP5 188 3.581
12 CP5 189 4.557
12 CP5 190 5.534
12 CP5 191 6.510
12 CP5 192 7.487
12 CP5 193 7.487
12 CP5 194 6.999
12 CP5 195 5.534
12 CP5 196 4.069
12 CP5 197 3.581
12 CP5 198 2.604
12 CP5 199 1.628
12 CP5 200 0.651
12 CP5 201 -0.326
12 CP5 202 -0.326
12 CP5 203 0.163
12 CP5 204 1.628
12 CP5 205 3.581
12 CP5 206 5.046
12 CP5 207 6.999
12 CP5 208 7.975
12 CP5 209 8.464
12 CP5 210 7.975
12 CP5 211 6.999
12 CP5 212 5.534
12 CP5 213 4.557
12 CP5 214 4.557
12 CP5 215 6.022
12 CP5 216 7.487
12 CP5 217 8.464
12 CP5 218 8.464
12 CP5 219 7.487
12 CP5 220 5.534
12 CP5 221 3.581
12 CP5 222 1.628
12 CP5 223 0.651
12 CP5 224 -0.814
12 CP5 225 -1.790
12 CP5 226 -1.790
12 CP5 227 -1.790
12 CP5 228 -0.326
12 CP5 229 0.651
12 CP5 230 1.628
12 CP5 231 2.116
12 CP5 232 1.628
12 CP5 233 0.651
12 CP5 234 -1.302
12 CP5 235 -2.279
12 CP5 236 -2.279
12 CP5 237 -1.302
12 CP5 238 0.163
12 CP5 239 1.628
12 CP5 240 1.628
12 CP5 241 0.651
12 CP5 242 -0.326
12 CP5 243 -0.326
12 CP5 244 -0.814
12 CP5 245 -0.326
12 CP5 246 -0.326
12 CP5 247 -0.326
12 CP5 248 0.651
12 CP5 249 1.628
12 CP5 250 3.581
12 CP5 251 5.046
12 CP5 252 6.022
12 CP5 253 6.510
12 CP5 254 6.510
12 CP5 255 6.510
# CP6 chan 19
12 CP6 0 8.942
12 CP6 1 6.500
12 CP6 2 2.594
12 CP6 3 -1.312
12 CP6 4 -4.730
12 CP6 5 -6.683
12 CP6 6 -6.683
12 CP6 7 -6.683
12 CP6 8 -7.172
12 CP6 9 -8.636
12 CP6 10 -9.125
12 CP6 11 -9.125
12 CP6 12 -7.172
12 CP6 13 -3.754
12 CP6 14 -0.336
12 CP6 15 3.082
12 CP6 16 4.059
12 CP6 17 3.571
12 CP6 18 2.106
12 CP6 19 1.129
12 CP6 20 0.641
12 CP6 21 1.617
12 CP6 22 2.594
12 CP6 23 2.594
12 CP6 24 1.129
12 CP6 25 -1.312
12 CP6 26 -4.242
12 CP6 27 -6.683
12 CP6 28 -8.148
12 CP6 29 -8.148
12 CP6 30 -7.172
12 CP6 31 -6.195
12 CP6 32 -3.754
12 CP6 33 -1.801
12 CP6 34 0.641
12 CP6 35 2.594
12 CP6 36 3.571
12 CP6 37 4.059
12 CP6 38 4.547
12 CP6 39 5.035
12 CP6 40 5.035
12 CP6 41 4.547
12 CP6 42 4.059
12 CP6 43 4.059
12 CP6 44 4.059
12 CP6 45 4.059
12 CP6 46 4.059
12 CP6 47 3.082
12 CP6 48 1.617
12 CP6 49 0.153
12 CP6 50 -1.312
12 CP6 51 -1.312
12 CP6 52 -0.336
12 CP6 53 0.641
12 CP6 54 2.106
12 CP6 55 3.082
12 CP6 56 4.059
12 CP6 57 4.059
12 CP6 58 4.059
12 CP6 59 4.059
12 CP6 60 4.059
12 CP6 61 4.059
12 CP6 62 4.059
12 CP6 63 4.547
12 CP6 64 4.547
12 CP6 65 5.035
12 CP6 66 4.059
12 CP6 67 3.082
12 CP6 68 1.617
12 CP6 69 0.641
12 CP6 70 -0.336
12 CP6 71 -0.336
12 CP6 72 0.641
12 CP6 73 1.129
12 CP6 74 1.617
12 CP6 75 1.129
12 CP6 76 -0.336
12 CP6 77 -2.289
12 CP6 78 -3.754
12 CP6 79 -4.242
12 CP6 80 -2.777
12 CP6 81 -0.824
12 CP6 82 1.617
12 CP6 83 3.082
12 CP6 84 3.571
12 CP6 85 2.594
12 CP6 86 1.129
12 CP6 87 0.641
12 CP6 88 1.617
12 CP6 89 3.082
12 CP6 90 4.547
12 CP6 91 4.547
12 CP6 92 3.571
12 CP6 93 2.594
12 CP6 94 1.617
12 CP6 95 1.617
12 CP6 96 1.617
12 CP6 97 1.617
12 CP6 98 1.129
12 CP6 99 1.617
12 CP6 100 2.594
12 CP6 101 3.571
12 CP6 102 4.547
12 CP6 103 4.059
12 CP6 104 3.571
12 CP6 105 2.594
12 CP6 106 2.594
12 CP6 107 3.082
12 CP6 108 3.571
12 CP6 109 3.571
12 CP6 110 2.106
12 CP6 111 0.641
12 CP6 112 -0.824
12 CP6 113 -1.801
12 CP6 114 -2.777
12 CP6 115 -3.754
12 CP6 116 -4.242
12 CP6 117 -4.242
12 CP6 118 -3.754
12 CP6 119 -2.777
12 CP6 120 -2.289
12 CP6 121 -1.312
12 CP6 122 -1.801
12 CP6 123 -2.777
12 CP6 124 -2.777
12 CP6 125 -2.777
12 CP6 126 -2.289
12 CP6 127 -1.801
12 CP6 128 -1.801
12 CP6 129 -2.289
12 CP6 130 -3.265
12 CP6 131 -4.242
12 CP6 132 -4.242
12 CP6 133 -2.777
12 CP6 134 -0.336
12 CP6 135 1.617
12 CP6 136 1.617
12 CP6 137 0.641
12 CP6 138 -1.801
12 CP6 139 -3.265
12 CP6 140 -3.265
12 CP6 141 -2.289
12 CP6 142 -1.312
12 CP6 143 -0.824
12 CP6 144 -1.312
12 CP6 145 -1.801
12 CP6 146 -1.801
12 CP6 147 -2.289
12 CP6 148 -2.777
12 CP6 149 -2.777
12 CP6 150 -3.265
12 CP6 151 -3.265
12 CP6 152 -2.289
12 CP6 153 -1.801
12 CP6 154 -2.289
12 CP6 155 -3.754
12 CP6 156 -4.730
12 CP6 157 -4.730
12 CP6 158 -3.754
12 CP6 159 -2.289
12 CP6 160 -0.824
12 CP6 161 0.153
12 CP6 162 -0.336
12 CP6 163 -1.312
12 CP6 164 -2.777
12 CP6 165 -3.754
12 CP6 166 -4.242
12 CP6 167 -4.730
12 CP6 168 -4.242
12 CP6 169 -4.242
12 CP6 170 -3.754
12 CP6 171 -3.754
12 CP6 172 -3.265
12 CP6 173 -2.777
12 CP6 174 -2.777
12 CP6 175 -2.289
12 CP6 176 -1.801
12 CP6 177 -1.801
12 CP6 178 -1.312
12 CP6 179 -0.824
12 CP6 180 -0.824
12 CP6 181 -1.312
12 CP6 182 -1.801
12 CP6 183 -2.289
12 CP6 184 -1.801
12 CP6 185 -0.824
12 CP6 186 1.129
12 CP6 187 3.082
12 CP6 188 4.059
12 CP6 189 4.059
12 CP6 190 3.571
12 CP6 191 3.082
12 CP6 192 2.594
12 CP6 193 2.106
12 CP6 194 1.617
12 CP6 195 1.129
12 CP6 196 0.153
12 CP6 197 -0.824
12 CP6 198 -1.801
12 CP6 199 -1.801
12 CP6 200 -1.801
12 CP6 201 -0.824
12 CP6 202 0.641
12 CP6 203 2.106
12 CP6 204 2.594
12 CP6 205 2.106
12 CP6 206 1.617
12 CP6 207 0.153
12 CP6 208 -0.336
12 CP6 209 -0.336
12 CP6 210 0.153
12 CP6 211 1.129
12 CP6 212 2.106
12 CP6 213 2.106
12 CP6 214 2.106
12 CP6 215 1.129
12 CP6 216 -0.336
12 CP6 217 -1.801
12 CP6 218 -3.265
12 CP6 219 -3.754
12 CP6 220 -4.242
12 CP6 221 -5.219
12 CP6 222 -7.660
12 CP6 223 -10.101
12 CP6 224 -11.566
12 CP6 225 -12.054
12 CP6 226 -11.078
12 CP6 227 -9.125
12 CP6 228 -7.660
12 CP6 229 -6.683
12 CP6 230 -5.707
12 CP6 231 -3.754
12 CP6 232 -2.289
12 CP6 233 -0.824
12 CP6 234 -0.336
12 CP6 235 -0.824
12 CP6 236 -1.312
12 CP6 237 -1.801
12 CP6 238 -1.801
12 CP6 239 -1.801
12 CP6 240 -2.289
12 CP6 241 -2.289
12 CP6 242 -2.777
12 CP6 243 -3.265
12 CP6 244 -3.265
12 CP6 245 -3.265
12 CP6 246 -3.754
12 CP6 247 -3.754
12 CP6 248 -3.754
12 CP6 249 -2.289
12 CP6 250 0.153
12 CP6 251 2.594
12 CP6 252 4.059
12 CP6 253 4.547
12 CP6 254 3.571
12 CP6 255 2.106
# CP1 chan 20
12 CP1 0 2.309
12 CP1 1 3.286
12 CP1 2 3.286
12 CP1 3 1.821
12 CP1 4 0.356
12 CP1 5 -0.621
12 CP1 6 -1.109
12 CP1 7 -1.109
12 CP1 8 -0.621
12 CP1 9 -0.132
12 CP1 10 0.844
12 CP1 11 1.821
12 CP1 12 2.309
12 CP1 13 2.797
12 CP1 14 3.286
12 CP1 15 3.286
12 CP1 16 3.774
12 CP1 17 3.286
12 CP1 18 2.797
12 CP1 19 2.309
12 CP1 20 1.821
12 CP1 21 1.821
12 CP1 22 2.797
12 CP1 23 3.286
12 CP1 24 2.797
12 CP1 25 0.844
12 CP1 26 -1.597
12 CP1 27 -3.550
12 CP1 28 -4.038
12 CP1 29 -3.062
12 CP1 30 -0.621
12 CP1 31 1.333
12 CP1 32 2.797
12 CP1 33 3.774
12 CP1 34 3.286
12 CP1 35 2.797
12 CP1 36 2.309
12 CP1 37 1.333
12 CP1 38 1.333
12 CP1 39 1.333
12 CP1 40 2.797
12 CP1 41 4.262
12 CP1 42 5.727
12 CP1 43 6.215
12 CP1 44 5.727
12 CP1 45 4.262
12 CP1 46 2.309
12 CP1 47 0.844
12 CP1 48 -0.132
12 CP1 49 -0.621
12 CP1 50 -0.132
12 CP1 51 0.844
12 CP1 52 2.797
12 CP1 53 4.262
12 CP1 54 6.215
12 CP1 55 7.192
12 CP1 56 6.704
12 CP1 57 6.215
12 CP1 58 4.751
12 CP1 59 3.774
12 CP1 60 4.262
12 CP1 61 4.262
12 CP1 62 4.751
12 CP1 63 5.239
12 CP1 64 5.239
12 CP1 65 4.751
12 CP1 66 4.262
12 CP1 67 3.774
12 CP1 68 3.286
12 CP1 69 2.797
12 CP1 70 2.797
12 CP1 71 3.286
12 CP1 72 3.774
12 CP1 73 4.262
12 CP1 74 3.286
12 CP1 75 1.821
12 CP1 76 -0.132
12 CP1 77 -1.597
12 CP1 78 -1.109
12 CP1 79 -0.132
12 CP1 80 1.821
12 CP1 81 3.286
12 CP1 82 3.774
12 CP1 83 2.797
12 CP1 84 1.821
12 CP1 85 1.333
12 CP1 86 0.844
12 CP1 87 1.333
12 CP1 88 2.309
12 CP1 89 3.286
12 CP1 90 4.262
12 CP1 91 4.262
12 CP1 92 3.774
12 CP1 93 2.309
12 CP1 94 0.844
12 CP1 95 -0.132
12 CP1 96 -0.132
12 CP1 97 0.844
12 CP1 98 1.821
12 CP1 99 3.286
12 CP1 100 3.774
12 CP1 101 3.774
12 CP1 102 3.774
12 CP1 103 3.286
12 CP1 104 2.797
12 CP1 105 2.797
12 CP1 106 2.309
12 CP1 107 1.821
12 CP1 108 2.309
12 CP1 109 2.797
12 CP1 110 2.797
12 CP1 111 2.309
12 CP1 112 0.844
12 CP1 113 -1.109
12 CP1 114 -2.085
12 CP1 115 -2.574
12 CP1 116 -1.109
12 CP1 117 0.356
12 CP1 118 1.333
12 CP1 119 1.821
12 CP1 120 1.333
12 CP1 121 1.333
12 CP1 122 1.333
12 CP1 123 1.821
12 CP1 124 1.821
12 CP1 125 1.333
12 CP1 126 1.333
12 CP1 127 1.821
12 CP1 128 1.821
12 CP1 129 2.309
12 CP1 130 2.309
12 CP1 131 1.821
12 CP1 132 1.333
12 CP1 133 1.333
12 CP1 134 2.309
12 CP1 135 3.286
12 CP1 136 3.774
12 CP1 137 3.286
12 CP1 138 2.309
12 CP1 139 1.333
12 CP1 140 0.844
12 CP1 141 0.844
12 CP1 142 2.309
12 CP1 143 3.286
12 CP1 144 3.774
12 CP1 145 4.262
12 CP1 146 3.774
12 CP1 147 3.286
12 CP1 148 2.797
12 CP1 149 1.821
12 CP1 150 1.333
12 CP1 151 0.356
12 CP1 152 -0.621
12 CP1 153 -1.109
12 CP1 154 -1.597
12 CP1 155 -2.085
12 CP1 156 -3.062
12 CP1 157 -4.038
12 CP1 158 -4.527
12 CP1 159 -3.550
12 CP1 160 -2.574
12 CP1 161 -1.109
12 CP1 162 -0.132
12 CP1 163 0.356
12 CP1 164 0.356
12 CP1 165 0.356
12 CP1 166 0.356
12 CP1 167 0.844
12 CP1 168 1.333
12 CP1 169 1.333
12 CP1 170 0.844
12 CP1 171 -0.132
12 CP1 172 -1.109
12 CP1 173 -1.597
12 CP1 174 -1.597
12 CP1 175 -1.109
12 CP1 176 -1.109
12 CP1 177 -1.109
12 CP1 178 -1.109
12 CP1 179 -1.109
12 CP1 180 -0.621
12 CP1 181 -0.132
12 CP1 182 0.356
12 CP1 183 0.356
12 CP1 184 0.356
12 CP1 185 0.844
12 CP1 186 1.333
12 CP1 187 2.309
12 CP1 188 2.797
12 CP1 189 3.774
12 CP1 190 4.262
12 CP1 191 4.751
12 CP1 192 4.751
12 CP1 193 4.262
12 CP1 194 3.286
12 CP1 195 1.821
12 CP1 196 0.844
12 CP1 197 -0.621
12 CP1 198 -1.109
12 CP1 199 -1.109
12 CP1 200 -1.109
12 CP1 201 -1.109
12 CP1 202 -1.109
12 CP1 203 -1.109
12 CP1 204 -0.621
12 CP1 205 0.356
12 CP1 206 1.821
12 CP1 207 3.286
12 CP1 208 4.262
12 CP1 209 4.751
12 CP1 210 3.774
12 CP1 211 2.797
12 CP1 212 1.821
12 CP1 213 1.821
12 CP1 214 2.309
12 CP1 215 3.286
12 CP1 216 3.774
12 CP1 217 3.774
12 CP1 218 2.797
12 CP1 219 1.821
12 CP1 220 0.356
12 CP1 221 -0.132
12 CP1 222 -0.621
12 CP1 223 -0.621
12 CP1 224 -0.621
12 CP1 225 -0.621
12 CP1 226 -0.132
12 CP1 227 0.844
12 CP1 228 1.821
12 CP1 229 2.797
12 CP1 230 3.286
12 CP1 231 2.797
12 CP1 232 2.309
12 CP1 233 0.844
12 CP1 234 -1.109
12 CP1 235 -2.574
12 CP1 236 -3.062
12 CP1 237 -3.062
12 CP1 238 -2.085
12 CP1 239 -1.109
12 CP1 240 -0.621
12 CP1 241 -0.621
12 CP1 242 -0.621
12 CP1 243 -0.621
12 CP1 244 -0.132
12 CP1 245 0.356
12 CP1 246 0.356
12 CP1 247 -0.132
12 CP1 248 -0.132
12 CP1 249 -0.132
12 CP1 250 0.844
12 CP1 251 1.821
12 CP1 252 1.821
12 CP1 253 2.309
12 CP1 254 1.821
12 CP1 255 1.333
# CP2 chan 21
12 CP2 0 5.351
12 CP2 1 3.886
12 CP2 2 2.421
12 CP2 3 -0.020
12 CP2 4 -0.997
12 CP2 5 -1.485
12 CP2 6 -1.485
12 CP2 7 -1.485
12 CP2 8 -1.973
12 CP2 9 -2.950
12 CP2 10 -2.950
12 CP2 11 -2.462
12 CP2 12 -0.997
12 CP2 13 0.956
12 CP2 14 3.398
12 CP2 15 5.351
12 CP2 16 6.327
12 CP2 17 5.839
12 CP2 18 4.862
12 CP2 19 2.909
12 CP2 20 1.933
12 CP2 21 1.444
12 CP2 22 1.933
12 CP2 23 1.933
12 CP2 24 1.444
12 CP2 25 -0.020
12 CP2 26 -1.485
12 CP2 27 -2.950
12 CP2 28 -3.438
12 CP2 29 -2.950
12 CP2 30 -2.462
12 CP2 31 -1.973
12 CP2 32 -0.997
12 CP2 33 -0.020
12 CP2 34 1.444
12 CP2 35 2.421
12 CP2 36 2.909
12 CP2 37 3.398
12 CP2 38 3.398
12 CP2 39 2.909
12 CP2 40 2.909
12 CP2 41 2.909
12 CP2 42 3.398
12 CP2 43 3.398
12 CP2 44 2.909
12 CP2 45 2.421
12 CP2 46 1.933
12 CP2 47 1.444
12 CP2 48 0.956
12 CP2 49 0.468
12 CP2 50 -0.509
12 CP2 51 -0.509
12 CP2 52 -0.020
12 CP2 53 1.444
12 CP2 54 2.421
12 CP2 55 2.909
12 CP2 56 3.398
12 CP2 57 2.909
12 CP2 58 2.421
12 CP2 59 2.421
12 CP2 60 2.909
12 CP2 61 3.398
12 CP2 62 3.886
12 CP2 63 3.886
12 CP2 64 3.886
12 CP2 65 3.398
12 CP2 66 2.909
12 CP2 67 1.933
12 CP2 68 0.956
12 CP2 69 -0.020
12 CP2 70 -0.509
12 CP2 71 -0.020
12 CP2 72 0.956
12 CP2 73 1.444
12 CP2 74 1.933
12 CP2 75 0.956
12 CP2 76 -0.509
12 CP2 77 -1.973
12 CP2 78 -2.950
12 CP2 79 -2.950
12 CP2 80 -1.485
12 CP2 81 0.468
12 CP2 82 1.444
12 CP2 83 2.421
12 CP2 84 1.933
12 CP2 85 0.956
12 CP2 86 -0.509
12 CP2 87 -0.997
12 CP2 88 -0.509
12 CP2 89 0.468
12 CP2 90 1.444
12 CP2 91 1.933
12 CP2 92 1.933
12 CP2 93 0.956
12 CP2 94 -0.020
12 CP2 95 -0.020
12 CP2 96 -0.509
12 CP2 97 -0.020
12 CP2 98 0.468
12 CP2 99 1.444
12 CP2 100 2.421
12 CP2 101 3.398
12 CP2 102 3.886
12 CP2 103 3.886
12 CP2 104 2.909
12 CP2 105 2.421
12 CP2 106 1.444
12 CP2 107 0.956
12 CP2 108 1.444
12 CP2 109 1.444
12 CP2 110 0.956
12 CP2 111 0.468
12 CP2 112 -0.020
12 CP2 113 -0.997
12 CP2 114 -1.485
12 CP2 115 -1.485
12 CP2 116 -1.973
12 CP2 117 -1.485
12 CP2 118 -0.997
12 CP2 119 0.468
12 CP2 120 1.444
12 CP2 121 2.421
12 CP2 122 2.909
12 CP2 123 2.421
12 CP2 124 0.956
12 CP2 125 0.468
12 CP2 126 -0.020
12 CP2 127 0.468
12 CP2 128 0.956
12 CP2 129 0.956
12 CP2 130 0.956
12 CP2 131 0.468
12 CP2 132 0.956
12 CP2 133 1.444
12 CP2 134 2.421
12 CP2 135 2.909
12 CP2 136 2.421
12 CP2 137 1.444
12 CP2 138 -0.020
12 CP2 139 -0.509
12 CP2 140 -0.509
12 CP2 141 0.468
12 CP2 142 1.933
12 CP2 143 2.421
12 CP2 144 2.909
12 CP2 145 2.909
12 CP2 146 2.421
12 CP2 147 1.444
12 CP2 148 -0.020
12 CP2 149 -0.997
12 CP2 150 -1.973
12 CP2 151 -2.462
12 CP2 152 -2.462
12 CP2 153 -2.462
12 CP2 154 -2.950
12 CP2 155 -3.927
12 CP2 156 -4.415
12 CP2 157 -4.903
12 CP2 158 -3.927
12 CP2 159 -3.438
12 CP2 160 -2.462
12 CP2 161 -1.973
12 CP2 162 -1.485
12 CP2 163 -1.485
12 CP2 164 -0.997
12 CP2 165 -0.997
12 CP2 166 -0.997
12 CP2 167 -0.997
12 CP2 168 -0.997
12 CP2 169 -0.509
12 CP2 170 -0.997
12 CP2 171 -1.485
12 CP2 172 -2.462
12 CP2 173 -2.950
12 CP2 174 -3.927
12 CP2 175 -3.927
12 CP2 176 -3.927
12 CP2 177 -3.927
12 CP2 178 -3.438
12 CP2 179 -2.950
12 CP2 180 -2.950
12 CP2 181 -2.950
12 CP2 182 -2.950
12 CP2 183 -2.462
12 CP2 184 -1.973
12 CP2 185 -0.509
12 CP2 186 1.444
12 CP2 187 2.909
12 CP2 188 3.886
12 CP2 189 4.374
12 CP2 190 3.886
12 CP2 191 2.909
12 CP2 192 1.933
12 CP2 193 1.444
12 CP2 194 0.468
12 CP2 195 -0.020
12 CP2 196 -0.997
12 CP2 197 -1.485
12 CP2 198 -1.973
12 CP2 199 -1.973
12 CP2 200 -1.973
12 CP2 201 -1.485
12 CP2 202 -0.997
12 CP2 203 -0.509
12 CP2 204 0.468
12 CP2 205 0.468
12 CP2 206 0.956
12 CP2 207 1.444
12 CP2 208 1.444
12 CP2 209 1.444
12 CP2 210 1.444
12 CP2 211 1.444
12 CP2 212 1.444
12 CP2 213 1.933
12 CP2 214 1.933
12 CP2 215 2.421
12 CP2 216 1.444
12 CP2 217 0.468
12 CP2 218 -0.509
12 CP2 219 -1.485
12 CP2 220 -1.973
12 CP2 221 -2.462
12 CP2 222 -3.438
12 CP2 223 -4.415
12 CP2 224 -5.391
12 CP2 225 -4.903
12 CP2 226 -3.438
12 CP2 227 -1.485
12 CP2 228 -0.020
12 CP2 229 1.444
12 CP2 230 2.421
12 CP2 231 2.909
12 CP2 232 2.909
12 CP2 233 2.421
12 CP2 234 1.444
12 CP2 235 -0.020
12 CP2 236 -0.509
12 CP2 237 -0.997
12 CP2 238 -0.997
12 CP2 239 -0.997
12 CP2 240 -0.509
12 CP2 241 -0.020
12 CP2 242 -0.020
12 CP2 243 -0.020
12 CP2 244 -0.020
12 CP2 245 -0.020
12 CP2 246 -0.509
12 CP2 247 -0.997
12 CP2 248 -0.997
12 CP2 249 -0.020
12 CP2 250 0.956
12 CP2 251 2.421
12 CP2 252 3.398
12 CP2 253 3.398
12 CP2 254 2.421
12 CP2 255 1.933
# P3 chan 22
12 P3 0 4.110
12 P3 1 5.086
12 P3 2 3.621
12 P3 3 1.180
12 P3 4 -1.750
12 P3 5 -3.703
12 P3 6 -4.191
12 P3 7 -4.191
12 P3 8 -3.215
12 P3 9 -2.238
12 P3 10 -0.285
12 P3 11 2.645
12 P3 12 5.575
12 P3 13 7.528
12 P3 14 8.504
12 P3 15 8.504
12 P3 16 8.016
12 P3 17 7.039
12 P3 18 6.063
12 P3 19 4.110
12 P3 20 2.645
12 P3 21 2.157
12 P3 22 3.133
12 P3 23 4.598
12 P3 24 4.598
12 P3 25 3.133
12 P3 26 -0.773
12 P3 27 -4.191
12 P3 28 -5.656
12 P3 29 -5.168
12 P3 30 -2.238
12 P3 31 1.180
12 P3 32 5.086
12 P3 33 7.039
12 P3 34 7.528
12 P3 35 7.039
12 P3 36 5.575
12 P3 37 4.598
12 P3 38 4.110
12 P3 39 4.598
12 P3 40 6.063
12 P3 41 8.016
12 P3 42 9.969
12 P3 43 10.457
12 P3 44 8.993
12 P3 45 6.551
12 P3 46 4.110
12 P3 47 2.645
12 P3 48 2.157
12 P3 49 2.157
12 P3 50 3.133
12 P3 51 5.086
12 P3 52 7.039
12 P3 53 9.481
12 P3 54 11.434
12 P3 55 11.922
12 P3 56 10.946
12 P3 57 9.969
12 P3 58 8.504
12 P3 59 8.016
12 P3 60 8.993
12 P3 61 9.969
12 P3 62 10.457
12 P3 63 9.969
12 P3 64 8.993
12 P3 65 8.504
12 P3 66 8.016
12 P3 67 8.016
12 P3 68 7.528
12 P3 69 6.551
12 P3 70 6.063
12 P3 71 6.063
12 P3 72 6.551
12 P3 73 7.039
12 P3 74 6.063
12 P3 75 3.621
12 P3 76 0.692
12 P3 77 -1.750
12 P3 78 -1.261
12 P3 79 1.180
12 P3 80 4.110
12 P3 81 6.063
12 P3 82 6.551
12 P3 83 5.575
12 P3 84 4.110
12 P3 85 3.621
12 P3 86 3.621
12 P3 87 5.086
12 P3 88 6.551
12 P3 89 8.016
12 P3 90 8.504
12 P3 91 8.016
12 P3 92 6.551
12 P3 93 4.110
12 P3 94 2.157
12 P3 95 1.180
12 P3 96 1.180
12 P3 97 2.645
12 P3 98 4.598
12 P3 99 6.551
12 P3 100 8.016
12 P3 101 8.504
12 P3 102 8.504
12 P3 103 8.504
12 P3 104 7.528
12 P3 105 6.551
12 P3 106 5.086
12 P3 107 4.110
12 P3 108 3.621
12 P3 109 3.621
12 P3 110 3.621
12 P3 111 2.157
12 P3 112 0.203
12 P3 113 -2.238
12 P3 114 -4.191
12 P3 115 -4.191
12 P3 116 -3.215
12 P3 117 -1.750
12 P3 118 -0.285
12 P3 119 0.692
12 P3 120 1.180
12 P3 121 1.668
12 P3 122 2.157
12 P3 123 1.668
12 P3 124 1.180
12 P3 125 1.180
12 P3 126 1.180
12 P3 127 2.645
12 P3 128 4.110
12 P3 129 4.598
12 P3 130 4.598
12 P3 131 3.133
12 P3 132 2.157
12 P3 133 2.157
12 P3 134 3.621
12 P3 135 5.575
12 P3 136 7.039
12 P3 137 6.551
12 P3 138 5.086
12 P3 139 3.133
12 P3 140 1.668
12 P3 141 1.668
12 P3 142 2.645
12 P3 143 4.110
12 P3 144 5.086
12 P3 145 6.063
12 P3 146 6.551
12 P3 147 6.063
12 P3 148 5.086
12 P3 149 3.621
12 P3 150 1.668
12 P3 151 0.692
12 P3 152 0.203
12 P3 153 -0.285
12 P3 154 -1.750
12 P3 155 -3.703
12 P3 156 -6.144
12 P3 157 -7.609
12 P3 158 -7.609
12 P3 159 -6.144
12 P3 160 -4.679
12 P3 161 -2.726
12 P3 162 -1.750
12 P3 163 -0.773
12 P3 164 -0.773
12 P3 165 -0.285
12 P3 166 0.203
12 P3 167 0.692
12 P3 168 1.180
12 P3 169 1.180
12 P3 170 0.692
12 P3 171 -0.285
12 P3 172 -1.261
12 P3 173 -2.238
12 P3 174 -2.238
12 P3 175 -2.238
12 P3 176 -1.750
12 P3 177 -1.750
12 P3 178 -0.773
12 P3 179 -0.285
12 P3 180 0.203
12 P3 181 0.692
12 P3 182 0.692
12 P3 183 0.692
12 P3 184 0.692
12 P3 185 1.668
12 P3 186 2.645
12 P3 187 4.110
12 P3 188 5.086
12 P3 189 6.063
12 P3 190 7.039
12 P3 191 8.016
12 P3 192 8.504
12 P3 193 8.016
12 P3 194 6.063
12 P3 195 3.621
12 P3 196 1.180
12 P3 197 -0.773
12 P3 198 -1.750
12 P3 199 -1.750
12 P3 200 -2.238
12 P3 201 -1.750
12 P3 202 -1.750
12 P3 203 -1.261
12 P3 204 -0.285
12 P3 205 1.668
12 P3 206 3.621
12 P3 207 5.575
12 P3 208 6.551
12 P3 209 7.039
12 P3 210 6.063
12 P3 211 5.086
12 P3 212 4.110
12 P3 213 4.110
12 P3 214 5.086
12 P3 215 6.551
12 P3 216 7.039
12 P3 217 7.039
12 P3 218 5.575
12 P3 219 3.621
12 P3 220 2.157
12 P3 221 0.203
12 P3 222 -0.773
12 P3 223 -2.238
12 P3 224 -2.726
12 P3 225 -2.726
12 P3 226 -1.750
12 P3 227 1.180
12 P3 228 3.621
12 P3 229 6.063
12 P3 230 7.528
12 P3 231 7.039
12 P3 232 5.086
12 P3 233 1.668
12 P3 234 -1.261
12 P3 235 -3.215
12 P3 236 -3.703
12 P3 237 -2.726
12 P3 238 -0.773
12 P3 239 -0.285
12 P3 240 -0.285
12 P3 241 -0.773
12 P3 242 -1.750
12 P3 243 -0.773
12 P3 244 -0.285
12 P3 245 0.203
12 P3 246 0.203
12 P3 247 0.203
12 P3 248 0.203
12 P3 249 1.180
12 P3 250 2.645
12 P3 251 4.110
12 P3 252 5.086
12 P3 253 5.575
12 P3 254 5.086
12 P3 255 4.598
# P4 chan 23
12 P4 0 11.414
12 P4 1 9.460
12 P4 2 6.042
12 P4 3 1.160
12 P4 4 -2.258
12 P4 5 -4.700
12 P4 6 -5.676
12 P4 7 -5.676
12 P4 8 -6.165
12 P4 9 -7.141
12 P4 10 -7.629
12 P4 11 -6.165
12 P4 12 -3.235
12 P4 13 1.160
12 P4 14 5.554
12 P4 15 9.460
12 P4 16 10.925
12 P4 17 10.925
12 P4 18 9.460
12 P4 19 7.019
12 P4 20 6.042
12 P4 21 5.554
12 P4 22 5.554
12 P4 23 5.554
12 P4 24 4.089
12 P4 25 1.160
12 P4 26 -2.258
12 P4 27 -4.700
12 P4 28 -6.653
12 P4 29 -6.653
12 P4 30 -5.676
12 P4 31 -3.723
12 P4 32 -0.793
12 P4 33 2.136
12 P4 34 4.578
12 P4 35 6.042
12 P4 36 7.019
12 P4 37 7.507
12 P4 38 7.507
12 P4 39 7.507
12 P4 40 7.996
12 P4 41 7.996
12 P4 42 7.996
12 P4 43 7.996
12 P4 44 7.996
12 P4 45 7.996
12 P4 46 7.019
12 P4 47 5.066
12 P4 48 3.601
12 P4 49 2.136
12 P4 50 1.648
12 P4 51 2.136
12 P4 52 3.601
12 P4 53 5.554
12 P4 54 7.019
12 P4 55 7.507
12 P4 56 7.996
12 P4 57 7.507
12 P4 58 7.507
12 P4 59 7.507
12 P4 60 7.507
12 P4 61 7.996
12 P4 62 7.996
12 P4 63 7.996
12 P4 64 7.996
12 P4 65 7.507
12 P4 66 7.019
12 P4 67 6.042
12 P4 68 5.066
12 P4 69 3.113
12 P4 70 2.136
12 P4 71 2.136
12 P4 72 2.625
12 P4 73 3.601
12 P4 74 4.089
12 P4 75 2.625
12 P4 76 0.671
12 P4 77 -2.258
12 P4 78 -3.723
12 P4 79 -3.235
12 P4 80 -0.793
12 P4 81 1.648
12 P4 82 4.089
12 P4 83 5.554
12 P4 84 5.066
12 P4 85 4.089
12 P4 86 2.625
12 P4 87 1.648
12 P4 88 2.625
12 P4 89 4.089
12 P4 90 5.066
12 P4 91 5.554
12 P4 92 4.578
12 P4 93 3.601
12 P4 94 2.625
12 P4 95 2.136
12 P4 96 2.136
12 P4 97 3.113
12 P4 98 3.601
12 P4 99 5.066
12 P4 100 6.531
12 P4 101 7.996
12 P4 102 8.484
12 P4 103 8.484
12 P4 104 7.507
12 P4 105 6.531
12 P4 106 5.554
12 P4 107 5.066
12 P4 108 4.578
12 P4 109 4.578
12 P4 110 3.601
12 P4 111 2.625
12 P4 112 1.160
12 P4 113 -0.793
12 P4 114 -2.258
12 P4 115 -2.747
12 P4 116 -2.747
12 P4 117 -2.258
12 P4 118 -0.793
12 P4 119 0.671
12 P4 120 2.136
12 P4 121 3.113
12 P4 122 2.625
12 P4 123 1.648
12 P4 124 0.671
12 P4 125 0.671
12 P4 126 0.671
12 P4 127 1.648
12 P4 128 2.136
12 P4 129 2.136
12 P4 130 1.160
12 P4 131 0.183
12 P4 132 0.183
12 P4 133 1.160
12 P4 134 3.113
12 P4 135 5.066
12 P4 136 5.554
12 P4 137 4.578
12 P4 138 2.136
12 P4 139 0.671
12 P4 140 0.183
12 P4 141 1.160
12 P4 142 2.136
12 P4 143 3.113
12 P4 144 3.113
12 P4 145 3.601
12 P4 146 3.113
12 P4 147 2.136
12 P4 148 1.160
12 P4 149 -0.793
12 P4 150 -1.770
12 P4 151 -2.258
12 P4 152 -2.258
12 P4 153 -2.258
12 P4 154 -3.235
12 P4 155 -4.700
12 P4 156 -6.165
12 P4 157 -7.141
12 P4 158 -6.165
12 P4 159 -4.700
12 P4 160 -2.258
12 P4 161 -0.793
12 P4 162 -0.305
12 P4 163 -0.305
12 P4 164 -0.793
12 P4 165 -0.793
12 P4 166 -1.282
12 P4 167 -1.770
12 P4 168 -1.770
12 P4 169 -1.770
12 P4 170 -2.258
12 P4 171 -2.747
12 P4 172 -3.723
12 P4 173 -4.211
12 P4 174 -4.211
12 P4 175 -4.211
12 P4 176 -3.723
12 P4 177 -3.235
12 P4 178 -2.747
12 P4 179 -2.747
12 P4 180 -2.747
12 P4 181 -3.235
12 P4 182 -3.235
12 P4 183 -2.747
12 P4 184 -1.282
12 P4 185 0.671
12 P4 186 2.625
12 P4 187 5.066
12 P4 188 7.019
12 P4 189 7.019
12 P4 190 6.531
12 P4 191 5.554
12 P4 192 4.578
12 P4 193 3.601
12 P4 194 2.625
12 P4 195 1.160
12 P4 196 -0.793
12 P4 197 -1.770
12 P4 198 -2.747
12 P4 199 -2.747
12 P4 200 -1.770
12 P4 201 -0.793
12 P4 202 0.671
12 P4 203 1.648
12 P4 204 2.625
12 P4 205 3.113
12 P4 206 3.113
12 P4 207 3.601
12 P4 208 3.601
12 P4 209 3.601
12 P4 210 3.601
12 P4 211 3.601
12 P4 212 3.601
12 P4 213 4.578
12 P4 214 5.554
12 P4 215 5.554
12 P4 216 4.578
12 P4 217 3.113
12 P4 218 1.648
12 P4 219 0.183
12 P4 220 -1.282
12 P4 221 -2.747
12 P4 222 -4.700
12 P4 223 -6.653
12 P4 224 -7.629
12 P4 225 -7.141
12 P4 226 -5.188
12 P4 227 -2.258
12 P4 228 0.183
12 P4 229 2.136
12 P4 230 3.113
12 P4 231 4.089
12 P4 232 4.578
12 P4 233 4.578
12 P4 234 3.113
12 P4 235 1.160
12 P4 236 0.183
12 P4 237 -0.793
12 P4 238 -0.793
12 P4 239 -0.793
12 P4 240 -0.793
12 P4 241 -1.770
12 P4 242 -2.258
12 P4 243 -1.770
12 P4 244 -1.282
12 P4 245 -0.305
12 P4 246 -0.305
12 P4 247 -0.305
12 P4 248 0.183
12 P4 249 1.160
12 P4 250 3.601
12 P4 251 5.554
12 P4 252 6.531
12 P4 253 7.019
12 P4 254 6.042
12 P4 255 4.578
# PZ chan 24
12 PZ 0 6.490
12 PZ 1 6.002
12 PZ 2 4.537
12 PZ 3 1.607
12 PZ 4 -0.346
12 PZ 5 -1.811
12 PZ 6 -2.299
12 PZ 7 -2.299
12 PZ 8 -2.299
12 PZ 9 -2.299
12 PZ 10 -1.811
12 PZ 11 0.142
12 PZ 12 2.096
12 PZ 13 4.537
12 PZ 14 6.978
12 PZ 15 8.443
12 PZ 16 8.931
12 PZ 17 8.931
12 PZ 18 7.467
12 PZ 19 5.514
12 PZ 20 4.049
12 PZ 21 3.072
12 PZ 22 3.560
12 PZ 23 3.560
12 PZ 24 3.560
12 PZ 25 2.096
12 PZ 26 -0.834
12 PZ 27 -3.276
12 PZ 28 -5.229
12 PZ 29 -5.229
12 PZ 30 -3.276
12 PZ 31 -0.346
12 PZ 32 2.096
12 PZ 33 4.049
12 PZ 34 5.025
12 PZ 35 5.514
12 PZ 36 5.514
12 PZ 37 5.514
12 PZ 38 5.025
12 PZ 39 5.514
12 PZ 40 6.002
12 PZ 41 6.490
12 PZ 42 7.467
12 PZ 43 7.955
12 PZ 44 7.467
12 PZ 45 6.490
12 PZ 46 5.025
12 PZ 47 3.560
12 PZ 48 2.096
12 PZ 49 1.119
12 PZ 50 1.119
12 PZ 51 2.096
12 PZ 52 3.560
12 PZ 53 6.002
12 PZ 54 7.467
12 PZ 55 8.443
12 PZ 56 8.443
12 PZ 57 7.955
12 PZ 58 6.978
12 PZ 59 6.978
12 PZ 60 7.467
12 PZ 61 7.955
12 PZ 62 7.955
12 PZ 63 7.955
12 PZ 64 7.467
12 PZ 65 6.490
12 PZ 66 6.002
12 PZ 67 5.514
12 PZ 68 4.537
12 PZ 69 3.560
12 PZ 70 3.072
12 PZ 71 2.584
12 PZ 72 3.560
12 PZ 73 4.049
12 PZ 74 4.049
12 PZ 75 2.096
12 PZ 76 -0.346
12 PZ 77 -2.787
12 PZ 78 -3.764
12 PZ 79 -2.787
12 PZ 80 -0.346
12 PZ 81 2.584
12 PZ 82 4.049
12 PZ 83 4.537
12 PZ 84 4.049
12 PZ 85 3.072
12 PZ 86 2.096
12 PZ 87 2.096
12 PZ 88 2.584
12 PZ 89 3.560
12 PZ 90 5.025
12 PZ 91 5.514
12 PZ 92 5.025
12 PZ 93 3.560
12 PZ 94 1.607
12 PZ 95 0.631
12 PZ 96 0.631
12 PZ 97 1.607
12 PZ 98 3.072
12 PZ 99 5.025
12 PZ 100 6.490
12 PZ 101 7.467
12 PZ 102 8.443
12 PZ 103 7.955
12 PZ 104 7.467
12 PZ 105 6.002
12 PZ 106 5.025
12 PZ 107 4.049
12 PZ 108 3.560
12 PZ 109 3.560
12 PZ 110 3.560
12 PZ 111 2.584
12 PZ 112 1.607
12 PZ 113 -0.346
12 PZ 114 -1.811
12 PZ 115 -2.299
12 PZ 116 -2.299
12 PZ 117 -0.834
12 PZ 118 0.631
12 PZ 119 2.096
12 PZ 120 3.072
12 PZ 121 3.560
12 PZ 122 4.049
12 PZ 123 3.560
12 PZ 124 3.072
12 PZ 125 3.072
12 PZ 126 2.584
12 PZ 127 3.072
12 PZ 128 3.560
12 PZ 129 4.537
12 PZ 130 4.049
12 PZ 131 3.560
12 PZ 132 3.072
12 PZ 133 3.560
12 PZ 134 4.537
12 PZ 135 6.002
12 PZ 136 6.490
12 PZ 137 5.514
12 PZ 138 4.049
12 PZ 139 2.584
12 PZ 140 1.607
12 PZ 141 2.584
12 PZ 142 4.049
12 PZ 143 5.514
12 PZ 144 6.490
12 PZ 145 6.978
12 PZ 146 6.490
12 PZ 147 5.514
12 PZ 148 4.049
12 PZ 149 2.096
12 PZ 150 0.631
12 PZ 151 -0.834
12 PZ 152 -1.322
12 PZ 153 -1.811
12 PZ 154 -2.787
12 PZ 155 -3.764
12 PZ 156 -5.229
12 PZ 157 -6.694
12 PZ 158 -6.694
12 PZ 159 -5.229
12 PZ 160 -3.764
12 PZ 161 -1.811
12 PZ 162 -0.346
12 PZ 163 0.142
12 PZ 164 0.631
12 PZ 165 0.631
12 PZ 166 1.119
12 PZ 167 1.607
12 PZ 168 1.607
12 PZ 169 1.607
12 PZ 170 1.119
12 PZ 171 -0.346
12 PZ 172 -1.811
12 PZ 173 -2.787
12 PZ 174 -3.276
12 PZ 175 -3.276
12 PZ 176 -2.787
12 PZ 177 -2.787
12 PZ 178 -2.787
12 PZ 179 -2.787
12 PZ 180 -2.787
12 PZ 181 -2.787
12 PZ 182 -2.299
12 PZ 183 -1.811
12 PZ 184 -0.834
12 PZ 185 0.631
12 PZ 186 3.072
12 PZ 187 5.025
12 PZ 188 6.978
12 PZ 189 7.467
12 PZ 190 7.467
12 PZ 191 7.467
12 PZ 192 6.978
12 PZ 193 6.002
12 PZ 194 4.537
12 PZ 195 2.584
12 PZ 196 0.142
12 PZ 197 -1.811
12 PZ 198 -2.787
12 PZ 199 -2.299
12 PZ 200 -2.299
12 PZ 201 -1.322
12 PZ 202 -0.834
12 PZ 203 -0.346
12 PZ 204 0.142
12 PZ 205 1.607
12 PZ 206 3.072
12 PZ 207 4.537
12 PZ 208 5.514
12 PZ 209 6.002
12 PZ 210 5.514
12 PZ 211 4.537
12 PZ 212 3.560
12 PZ 213 4.049
12 PZ 214 4.537
12 PZ 215 5.514
12 PZ 216 6.002
12 PZ 217 5.025
12 PZ 218 3.560
12 PZ 219 1.607
12 PZ 220 0.142
12 PZ 221 -0.834
12 PZ 222 -2.299
12 PZ 223 -3.764
12 PZ 224 -4.740
12 PZ 225 -3.764
12 PZ 226 -2.299
12 PZ 227 0.631
12 PZ 228 3.560
12 PZ 229 5.514
12 PZ 230 6.490
12 PZ 231 6.490
12 PZ 232 5.514
12 PZ 233 3.560
12 PZ 234 1.607
12 PZ 235 -0.834
12 PZ 236 -2.299
12 PZ 237 -2.787
12 PZ 238 -2.299
12 PZ 239 -1.811
12 PZ 240 -0.834
12 PZ 241 -0.834
12 PZ 242 -0.834
12 PZ 243 -0.834
12 PZ 244 -0.346
12 PZ 245 0.142
12 PZ 246 0.631
12 PZ 247 0.142
12 PZ 248 0.631
12 PZ 249 1.119
12 PZ 250 2.584
12 PZ 251 4.049
12 PZ 252 4.537
12 PZ 253 5.025
12 PZ 254 4.537
12 PZ 255 3.072
# P8 chan 25
12 P8 0 12.858
12 P8 1 10.905
12 P8 2 6.022
12 P8 3 -0.326
12 P8 4 -6.673
12 P8 5 -11.068
12 P8 6 -13.021
12 P8 7 -13.509
12 P8 8 -13.509
12 P8 9 -13.997
12 P8 10 -14.486
12 P8 11 -13.509
12 P8 12 -9.603
12 P8 13 -3.743
12 P8 14 2.604
12 P8 15 7.487
12 P8 16 9.440
12 P8 17 8.952
12 P8 18 6.510
12 P8 19 5.046
12 P8 20 5.046
12 P8 21 6.022
12 P8 22 6.510
12 P8 23 5.046
12 P8 24 1.628
12 P8 25 -3.255
12 P8 26 -8.138
12 P8 27 -12.044
12 P8 28 -14.486
12 P8 29 -15.462
12 P8 30 -14.486
12 P8 31 -12.044
12 P8 32 -8.626
12 P8 33 -4.232
12 P8 34 -0.326
12 P8 35 1.628
12 P8 36 2.604
12 P8 37 2.604
12 P8 38 3.092
12 P8 39 3.581
12 P8 40 4.069
12 P8 41 4.069
12 P8 42 3.581
12 P8 43 3.581
12 P8 44 4.069
12 P8 45 4.069
12 P8 46 3.581
12 P8 47 2.116
12 P8 48 0.163
12 P8 49 -1.302
12 P8 50 -2.279
12 P8 51 -1.790
12 P8 52 -0.814
12 P8 53 1.139
12 P8 54 2.604
12 P8 55 3.092
12 P8 56 4.069
12 P8 57 4.557
12 P8 58 4.557
12 P8 59 4.557
12 P8 60 4.069
12 P8 61 4.069
12 P8 62 4.069
12 P8 63 4.557
12 P8 64 4.557
12 P8 65 4.069
12 P8 66 3.581
12 P8 67 2.604
12 P8 68 1.628
12 P8 69 0.651
12 P8 70 -0.326
12 P8 71 -0.814
12 P8 72 -0.814
12 P8 73 -0.326
12 P8 74 0.163
12 P8 75 -0.326
12 P8 76 -1.790
12 P8 77 -4.232
12 P8 78 -6.185
12 P8 79 -6.185
12 P8 80 -4.720
12 P8 81 -0.814
12 P8 82 3.092
12 P8 83 6.022
12 P8 84 6.510
12 P8 85 5.534
12 P8 86 4.557
12 P8 87 4.557
12 P8 88 6.022
12 P8 89 7.487
12 P8 90 8.464
12 P8 91 7.975
12 P8 92 6.510
12 P8 93 5.534
12 P8 94 5.046
12 P8 95 5.046
12 P8 96 5.046
12 P8 97 4.557
12 P8 98 4.069
12 P8 99 4.557
12 P8 100 5.534
12 P8 101 6.999
12 P8 102 8.464
12 P8 103 8.952
12 P8 104 8.952
12 P8 105 9.440
12 P8 106 9.928
12 P8 107 9.928
12 P8 108 9.928
12 P8 109 8.464
12 P8 110 6.022
12 P8 111 3.581
12 P8 112 1.139
12 P8 113 -0.814
12 P8 114 -2.279
12 P8 115 -3.743
12 P8 116 -4.720
12 P8 117 -4.232
12 P8 118 -3.255
12 P8 119 -1.302
12 P8 120 -0.326
12 P8 121 0.163
12 P8 122 -0.814
12 P8 123 -1.790
12 P8 124 -2.767
12 P8 125 -2.767
12 P8 126 -1.302
12 P8 127 -0.326
12 P8 128 0.651
12 P8 129 0.163
12 P8 130 -1.790
12 P8 131 -3.255
12 P8 132 -3.743
12 P8 133 -1.790
12 P8 134 1.139
12 P8 135 4.557
12 P8 136 6.022
12 P8 137 5.046
12 P8 138 3.092
12 P8 139 0.163
12 P8 140 -0.814
12 P8 141 -0.814
12 P8 142 -0.326
12 P8 143 0.651
12 P8 144 1.139
12 P8 145 0.651
12 P8 146 0.651
12 P8 147 -0.326
12 P8 148 -0.814
12 P8 149 -1.790
12 P8 150 -2.279
12 P8 151 -2.279
12 P8 152 -1.302
12 P8 153 -0.814
12 P8 154 -1.302
12 P8 155 -2.279
12 P8 156 -3.743
12 P8 157 -4.720
12 P8 158 -4.232
12 P8 159 -2.279
12 P8 160 0.163
12 P8 161 1.628
12 P8 162 2.116
12 P8 163 0.651
12 P8 164 -1.790
12 P8 165 -4.232
12 P8 166 -5.208
12 P8 167 -5.208
12 P8 168 -4.232
12 P8 169 -3.743
12 P8 170 -3.743
12 P8 171 -4.720
12 P8 172 -5.208
12 P8 173 -4.232
12 P8 174 -2.279
12 P8 175 -0.814
12 P8 176 -0.326
12 P8 177 0.163
12 P8 178 -0.326
12 P8 179 -0.326
12 P8 180 -0.326
12 P8 181 -0.326
12 P8 182 -1.302
12 P8 183 -2.279
12 P8 184 -2.767
12 P8 185 -1.790
12 P8 186 0.651
12 P8 187 3.092
12 P8 188 4.557
12 P8 189 5.046
12 P8 190 5.046
12 P8 191 4.069
12 P8 192 4.069
12 P8 193 4.069
12 P8 194 3.092
12 P8 195 1.628
12 P8 196 -0.814
12 P8 197 -2.767
12 P8 198 -3.743
12 P8 199 -3.255
12 P8 200 -2.279
12 P8 201 -0.814
12 P8 202 0.651
12 P8 203 2.116
12 P8 204 2.604
12 P8 205 2.604
12 P8 206 1.628
12 P8 207 0.651
12 P8 208 -0.326
12 P8 209 -0.814
12 P8 210 -0.814
12 P8 211 0.163
12 P8 212 1.139
12 P8 213 2.604
12 P8 214 3.092
12 P8 215 2.604
12 P8 216 0.651
12 P8 217 -0.814
12 P8 218 -2.279
12 P8 219 -2.767
12 P8 220 -3.255
12 P8 221 -4.720
12 P8 222 -7.650
12 P8 223 -11.068
12 P8 224 -13.509
12 P8 225 -13.509
12 P8 226 -12.044
12 P8 227 -10.091
12 P8 228 -8.138
12 P8 229 -6.673
12 P8 230 -5.208
12 P8 231 -2.767
12 P8 232 -0.326
12 P8 233 1.628
12 P8 234 1.628
12 P8 235 0.163
12 P8 236 -1.302
12 P8 237 -1.790
12 P8 238 -1.790
12 P8 239 -1.790
12 P8 240 -2.767
12 P8 241 -4.232
12 P8 242 -5.208
12 P8 243 -5.208
12 P8 244 -4.232
12 P8 245 -4.232
12 P8 246 -4.232
12 P8 247 -4.720
12 P8 248 -4.720
12 P8 249 -2.767
12 P8 250 0.163
12 P8 251 3.092
12 P8 252 5.046
12 P8 253 5.046
12 P8 254 4.069
12 P8 255 2.116
# P7 chan 26
12 P7 0 0.214
12 P7 1 2.167
12 P7 2 2.167
12 P7 3 0.214
12 P7 4 -2.228
12 P7 5 -4.669
12 P7 6 -5.157
12 P7 7 -5.646
12 P7 8 -5.157
12 P7 9 -4.669
12 P7 10 -2.716
12 P7 11 0.214
12 P7 12 5.096
12 P7 13 9.003
12 P7 14 10.956
12 P7 15 10.468
12 P7 16 8.514
12 P7 17 6.073
12 P7 18 3.632
12 P7 19 2.167
12 P7 20 0.214
12 P7 21 -0.275
12 P7 22 -0.275
12 P7 23 1.678
12 P7 24 3.143
12 P7 25 3.143
12 P7 26 0.702
12 P7 27 -3.693
12 P7 28 -7.599
12 P7 29 -9.064
12 P7 30 -7.111
12 P7 31 -3.204
12 P7 32 1.678
12 P7 33 5.585
12 P7 34 7.050
12 P7 35 6.561
12 P7 36 4.608
12 P7 37 2.655
12 P7 38 1.190
12 P7 39 1.678
12 P7 40 3.632
12 P7 41 6.561
12 P7 42 8.514
12 P7 43 9.003
12 P7 44 6.561
12 P7 45 3.632
12 P7 46 1.678
12 P7 47 1.190
12 P7 48 1.678
12 P7 49 2.655
12 P7 50 3.143
12 P7 51 4.120
12 P7 52 5.585
12 P7 53 9.003
12 P7 54 11.444
12 P7 55 12.421
12 P7 56 11.444
12 P7 57 8.026
12 P7 58 5.585
12 P7 59 5.585
12 P7 60 7.050
12 P7 61 9.491
12 P7 62 10.468
12 P7 63 9.979
12 P7 64 8.514
12 P7 65 7.538
12 P7 66 8.026
12 P7 67 8.514
12 P7 68 8.514
12 P7 69 7.538
12 P7 70 5.585
12 P7 71 4.608
12 P7 72 5.585
12 P7 73 6.561
12 P7 74 7.050
12 P7 75 5.096
12 P7 76 2.167
12 P7 77 0.214
12 P7 78 1.190
12 P7 79 5.096
12 P7 80 9.491
12 P7 81 11.932
12 P7 82 10.956
12 P7 83 7.538
12 P7 84 4.120
12 P7 85 3.143
12 P7 86 5.585
12 P7 87 9.491
12 P7 88 12.909
12 P7 89 13.397
12 P7 90 11.444
12 P7 91 8.026
12 P7 92 4.608
12 P7 93 3.143
12 P7 94 2.655
12 P7 95 3.632
12 P7 96 4.608
12 P7 97 6.073
12 P7 98 7.050
12 P7 99 8.514
12 P7 100 9.979
12 P7 101 10.468
12 P7 102 10.956
12 P7 103 9.491
12 P7 104 7.538
12 P7 105 6.073
12 P7 106 4.608
12 P7 107 4.120
12 P7 108 4.120
12 P7 109 4.120
12 P7 110 3.143
12 P7 111 1.678
12 P7 112 -0.275
12 P7 113 -3.204
12 P7 114 -5.646
12 P7 115 -7.111
12 P7 116 -7.111
12 P7 117 -5.157
12 P7 118 -3.204
12 P7 119 -1.251
12 P7 120 -0.275
12 P7 121 -1.251
12 P7 122 -2.228
12 P7 123 -3.693
12 P7 124 -4.669
12 P7 125 -3.693
12 P7 126 -2.228
12 P7 127 -0.275
12 P7 128 2.167
12 P7 129 3.143
12 P7 130 3.632
12 P7 131 2.655
12 P7 132 1.678
12 P7 133 1.678
12 P7 134 2.655
12 P7 135 4.120
12 P7 136 5.096
12 P7 137 5.585
12 P7 138 4.120
12 P7 139 2.167
12 P7 140 0.214
12 P7 141 -0.763
12 P7 142 -0.763
12 P7 143 0.214
12 P7 144 1.678
12 P7 145 2.167
12 P7 146 2.167
12 P7 147 2.167
12 P7 148 1.678
12 P7 149 1.190
12 P7 150 1.190
12 P7 151 0.702
12 P7 152 0.214
12 P7 153 -0.763
12 P7 154 -2.228
12 P7 155 -4.181
12 P7 156 -7.111
12 P7 157 -9.064
12 P7 158 -10.040
12 P7 159 -9.064
12 P7 160 -6.622
12 P7 161 -4.181
12 P7 162 -2.716
12 P7 163 -2.228
12 P7 164 -2.716
12 P7 165 -3.204
12 P7 166 -3.204
12 P7 167 -3.204
12 P7 168 -3.204
12 P7 169 -3.693
12 P7 170 -4.669
12 P7 171 -4.669
12 P7 172 -3.693
12 P7 173 -2.716
12 P7 174 -1.251
12 P7 175 -0.763
12 P7 176 -0.763
12 P7 177 -0.763
12 P7 178 0.214
12 P7 179 1.678
12 P7 180 3.143
12 P7 181 3.632
12 P7 182 2.655
12 P7 183 1.678
12 P7 184 1.190
12 P7 185 1.190
12 P7 186 1.190
12 P7 187 1.678
12 P7 188 1.190
12 P7 189 0.702
12 P7 190 0.702
12 P7 191 1.678
12 P7 192 3.632
12 P7 193 4.608
12 P7 194 4.120
12 P7 195 2.167
12 P7 196 0.214
12 P7 197 -1.740
12 P7 198 -2.716
12 P7 199 -3.693
12 P7 200 -4.669
12 P7 201 -5.646
12 P7 202 -6.134
12 P7 203 -4.669
12 P7 204 -2.228
12 P7 205 0.702
12 P7 206 3.143
12 P7 207 4.120
12 P7 208 4.120
12 P7 209 4.120
12 P7 210 3.632
12 P7 211 3.632
12 P7 212 3.143
12 P7 213 3.143
12 P7 214 2.655
12 P7 215 2.655
12 P7 216 3.632
12 P7 217 4.608
12 P7 218 5.096
12 P7 219 4.120
12 P7 220 2.167
12 P7 221 -1.251
12 P7 222 -4.669
12 P7 223 -7.599
12 P7 224 -8.575
12 P7 225 -8.087
12 P7 226 -6.134
12 P7 227 -2.716
12 P7 228 1.190
12 P7 229 4.120
12 P7 230 5.585
12 P7 231 4.120
12 P7 232 1.678
12 P7 233 -2.228
12 P7 234 -5.646
12 P7 235 -7.111
12 P7 236 -6.622
12 P7 237 -4.669
12 P7 238 -2.716
12 P7 239 -2.228
12 P7 240 -2.716
12 P7 241 -4.181
12 P7 242 -4.669
12 P7 243 -5.157
12 P7 244 -4.669
12 P7 245 -4.669
12 P7 246 -4.669
12 P7 247 -4.669
12 P7 248 -3.204
12 P7 249 -0.763
12 P7 250 1.678
12 P7 251 4.120
12 P7 252 5.096
12 P7 253 5.585
12 P7 254 5.585
12 P7 255 6.073
# PO2 chan 27
12 PO2 0 12.573
12 PO2 1 11.597
12 PO2 2 7.690
12 PO2 3 2.319
12 PO2 4 -2.563
12 PO2 5 -5.493
12 PO2 6 -6.958
12 PO2 7 -7.446
12 PO2 8 -8.423
12 PO2 9 -8.911
12 PO2 10 -8.423
12 PO2 11 -6.470
12 PO2 12 -3.052
12 PO2 13 2.319
12 PO2 14 7.202
12 PO2 15 11.108
12 PO2 16 13.062
12 PO2 17 13.062
12 PO2 18 11.108
12 PO2 19 8.667
12 PO2 20 6.226
12 PO2 21 4.761
12 PO2 22 4.761
12 PO2 23 4.761
12 PO2 24 3.296
12 PO2 25 0.366
12 PO2 26 -4.028
12 PO2 27 -8.423
12 PO2 28 -10.864
12 PO2 29 -11.353
12 PO2 30 -9.399
12 PO2 31 -5.493
12 PO2 32 -1.587
12 PO2 33 2.319
12 PO2 34 4.761
12 PO2 35 6.226
12 PO2 36 6.714
12 PO2 37 6.714
12 PO2 38 6.714
12 PO2 39 6.714
12 PO2 40 6.714
12 PO2 41 7.202
12 PO2 42 7.202
12 PO2 43 7.690
12 PO2 44 7.690
12 PO2 45 7.202
12 PO2 46 5.249
12 PO2 47 3.296
12 PO2 48 0.854
12 PO2 49 -0.610
12 PO2 50 -1.099
12 PO2 51 0.854
12 PO2 52 2.808
12 PO2 53 5.249
12 PO2 54 7.202
12 PO2 55 8.179
12 PO2 56 8.179
12 PO2 57 8.179
12 PO2 58 7.202
12 PO2 59 7.202
12 PO2 60 7.690
12 PO2 61 8.179
12 PO2 62 8.179
12 PO2 63 7.690
12 PO2 64 7.202
12 PO2 65 6.226
12 PO2 66 6.226
12 PO2 67 5.737
12 PO2 68 4.761
12 PO2 69 3.296
12 PO2 70 1.831
12 PO2 71 1.343
12 PO2 72 1.831
12 PO2 73 2.808
12 PO2 74 2.808
12 PO2 75 0.854
12 PO2 76 -2.075
12 PO2 77 -5.005
12 PO2 78 -6.958
12 PO2 79 -5.981
12 PO2 80 -2.563
12 PO2 81 1.831
12 PO2 82 5.737
12 PO2 83 8.179
12 PO2 84 8.179
12 PO2 85 7.690
12 PO2 86 6.714
12 PO2 87 6.226
12 PO2 88 7.202
12 PO2 89 8.667
12 PO2 90 9.644
12 PO2 91 10.132
12 PO2 92 9.644
12 PO2 93 8.179
12 PO2 94 6.714
12 PO2 95 6.226
12 PO2 96 6.714
12 PO2 97 7.690
12 PO2 98 9.155
12 PO2 99 10.620
12 PO2 100 13.062
12 PO2 101 14.526
12 PO2 102 15.991
12 PO2 103 16.479
12 PO2 104 16.479
12 PO2 105 15.503
12 PO2 106 14.038
12 PO2 107 13.062
12 PO2 108 12.085
12 PO2 109 12.085
12 PO2 110 11.108
12 PO2 111 9.644
12 PO2 112 7.202
12 PO2 113 4.761
12 PO2 114 3.784
12 PO2 115 3.296
12 PO2 116 4.272
12 PO2 117 6.226
12 PO2 118 7.202
12 PO2 119 8.667
12 PO2 120 9.155
12 PO2 121 9.155
12 PO2 122 9.155
12 PO2 123 8.667
12 PO2 124 8.179
12 PO2 125 8.179
12 PO2 126 8.179
12 PO2 127 9.155
12 PO2 128 10.620
12 PO2 129 11.108
12 PO2 130 10.620
12 PO2 131 9.644
12 PO2 132 8.667
12 PO2 133 9.155
12 PO2 134 11.597
12 PO2 135 14.038
12 PO2 136 15.503
12 PO2 137 14.526
12 PO2 138 12.573
12 PO2 139 10.132
12 PO2 140 9.155
12 PO2 141 10.132
12 PO2 142 11.108
12 PO2 143 12.085
12 PO2 144 12.573
12 PO2 145 12.573
12 PO2 146 12.573
12 PO2 147 11.597
12 PO2 148 10.132
12 PO2 149 8.179
12 PO2 150 6.226
12 PO2 151 5.737
12 PO2 152 5.249
12 PO2 153 5.249
12 PO2 154 4.272
12 PO2 155 1.831
12 PO2 156 -1.099
12 PO2 157 -2.563
12 PO2 158 -2.075
12 PO2 159 0.366
12 PO2 160 2.808
12 PO2 161 5.249
12 PO2 162 6.226
12 PO2 163 6.226
12 PO2 164 5.737
12 PO2 165 5.249
12 PO2 166 4.761
12 PO2 167 4.761
12 PO2 168 5.249
12 PO2 169 4.761
12 PO2 170 4.272
12 PO2 171 3.296
12 PO2 172 1.831
12 PO2 173 0.854
12 PO2 174 0.366
12 PO2 175 0.854
12 PO2 176 1.831
12 PO2 177 2.808
12 PO2 178 3.296
12 PO2 179 3.784
12 PO2 180 3.296
12 PO2 181 3.296
12 PO2 182 2.808
12 PO2 183 2.808
12 PO2 184 3.784
12 PO2 185 5.249
12 PO2 186 7.202
12 PO2 187 9.155
12 PO2 188 11.108
12 PO2 189 12.085
12 PO2 190 12.085
12 PO2 191 11.597
12 PO2 192 10.620
12 PO2 193 9.155
12 PO2 194 7.202
12 PO2 195 4.761
12 PO2 196 2.808
12 PO2 197 0.854
12 PO2 198 0.366
12 PO2 199 0.366
12 PO2 200 1.343
12 PO2 201 2.319
12 PO2 202 3.296
12 PO2 203 4.272
12 PO2 204 5.249
12 PO2 205 6.226
12 PO2 206 7.202
12 PO2 207 8.179
12 PO2 208 8.179
12 PO2 209 7.690
12 PO2 210 6.714
12 PO2 211 5.737
12 PO2 212 5.249
12 PO2 213 6.226
12 PO2 214 7.202
12 PO2 215 8.667
12 PO2 216 8.667
12 PO2 217 7.690
12 PO2 218 5.249
12 PO2 219 2.808
12 PO2 220 1.343
12 PO2 221 -0.610
12 PO2 222 -3.052
12 PO2 223 -5.005
12 PO2 224 -6.470
12 PO2 225 -6.470
12 PO2 226 -4.517
12 PO2 227 -1.099
12 PO2 228 2.808
12 PO2 229 5.737
12 PO2 230 7.690
12 PO2 231 8.179
12 PO2 232 8.179
12 PO2 233 7.202
12 PO2 234 5.249
12 PO2 235 2.319
12 PO2 236 0.854
12 PO2 237 -0.122
12 PO2 238 0.366
12 PO2 239 0.366
12 PO2 240 -0.122
12 PO2 241 -1.587
12 PO2 242 -2.563
12 PO2 243 -2.563
12 PO2 244 -2.075
12 PO2 245 -1.099
12 PO2 246 -0.610
12 PO2 247 -0.122
12 PO2 248 0.366
12 PO2 249 1.343
12 PO2 250 3.296
12 PO2 251 5.249
12 PO2 252 6.714
12 PO2 253 6.714
12 PO2 254 5.737
12 PO2 255 4.272
# PO1 chan 28
12 PO1 0 8.525
12 PO1 1 8.036
12 PO1 2 5.107
12 PO1 3 0.712
12 PO1 4 -3.682
12 PO1 5 -6.124
12 PO1 6 -6.612
12 PO1 7 -6.124
12 PO1 8 -5.147
12 PO1 9 -3.194
12 PO1 10 -0.753
12 PO1 11 2.665
