# co2a0000377.rd
# 120 trials, 64 chans, 416 samples 368 post_stim samples
# 3.906000 msecs uV
# S1 obj , trial 92
# FP1 chan 0
92 FP1 0 -2.675
92 FP1 1 -0.234
92 FP1 2 1.231
92 FP1 3 0.743
92 FP1 4 -1.211
92 FP1 5 -4.140
92 FP1 6 -6.582
92 FP1 7 -7.070
92 FP1 8 -6.093
92 FP1 9 -5.117
92 FP1 10 -5.605
92 FP1 11 -6.093
92 FP1 12 -8.046
92 FP1 13 -8.535
92 FP1 14 -8.535
92 FP1 15 -7.558
92 FP1 16 -6.582
92 FP1 17 -6.582
92 FP1 18 -7.558
92 FP1 19 -8.535
92 FP1 20 -9.511
92 FP1 21 -9.023
92 FP1 22 -8.046
92 FP1 23 -5.605
92 FP1 24 -2.675
92 FP1 25 -0.234
92 FP1 26 1.719
92 FP1 27 2.696
92 FP1 28 3.672
92 FP1 29 4.161
92 FP1 30 4.161
92 FP1 31 4.649
92 FP1 32 3.672
92 FP1 33 1.719
92 FP1 34 -0.722
92 FP1 35 -2.675
92 FP1 36 -3.652
92 FP1 37 -2.675
92 FP1 38 -1.699
92 FP1 39 -1.211
92 FP1 40 -1.699
92 FP1 41 -2.187
92 FP1 42 -1.699
92 FP1 43 -0.722
92 FP1 44 0.743
92 FP1 45 1.719
92 FP1 46 2.207
92 FP1 47 2.207
92 FP1 48 1.719
92 FP1 49 1.719
92 FP1 50 2.696
92 FP1 51 2.696
92 FP1 52 2.207
92 FP1 53 0.743
92 FP1 54 -0.722
92 FP1 55 -1.699
92 FP1 56 -2.187
92 FP1 57 -1.699
92 FP1 58 -1.699
92 FP1 59 -1.699
92 FP1 60 -2.675
92 FP1 61 -3.652
92 FP1 62 -4.140
92 FP1 63 -3.164
92 FP1 64 -1.699
92 FP1 65 0.254
92 FP1 66 2.207
92 FP1 67 2.696
92 FP1 68 2.207
92 FP1 69 0.743
92 FP1 70 -2.187
92 FP1 71 -5.117
92 FP1 72 -6.582
92 FP1 73 -6.582
92 FP1 74 -5.117
92 FP1 75 -2.187
92 FP1 76 0.743
92 FP1 77 2.207
92 FP1 78 1.231
92 FP1 79 -1.699
92 FP1 80 -4.628
92 FP1 81 -7.558
92 FP1 82 -8.535
92 FP1 83 -9.023
92 FP1 84 -7.558
92 FP1 85 -6.093
92 FP1 86 -3.652
92 FP1 87 -0.234
92 FP1 88 3.184
92 FP1 89 5.625
92 FP1 90 5.137
92 FP1 91 3.184
92 FP1 92 0.254
92 FP1 93 -2.187
92 FP1 94 -2.675
92 FP1 95 -2.187
92 FP1 96 -1.699
92 FP1 97 -2.187
92 FP1 98 -3.652
92 FP1 99 -5.605
92 FP1 100 -6.582
92 FP1 101 -6.582
92 FP1 102 -5.605
92 FP1 103 -4.140
92 FP1 104 -1.699
92 FP1 105 -0.234
92 FP1 106 -0.234
92 FP1 107 -1.699
92 FP1 108 -3.652
92 FP1 109 -4.140
92 FP1 110 -3.164
92 FP1 111 -1.211
92 FP1 112 0.254
92 FP1 113 -1.211
92 FP1 114 -4.628
92 FP1 115 -8.046
92 FP1 116 -10.488
92 FP1 117 -10.488
92 FP1 118 -7.558
92 FP1 119 -4.628
92 FP1 120 -2.187
92 FP1 121 -1.211
92 FP1 122 -1.699
92 FP1 123 -2.675
92 FP1 124 -3.652
92 FP1 125 -4.628
92 FP1 126 -4.140
92 FP1 127 -2.675
92 FP1 128 -0.722
92 FP1 129 1.719
92 FP1 130 2.207
92 FP1 131 1.719
92 FP1 132 -0.722
92 FP1 133 -3.652
92 FP1 134 -6.582
92 FP1 135 -8.535
92 FP1 136 -9.511
92 FP1 137 -10.000
92 FP1 138 -9.511
92 FP1 139 -9.023
92 FP1 140 -8.046
92 FP1 141 -7.558
92 FP1 142 -7.070
92 FP1 143 -7.070
92 FP1 144 -7.070
92 FP1 145 -7.070
92 FP1 146 -6.582
92 FP1 147 -6.093
92 FP1 148 -4.628
92 FP1 149 -3.164
92 FP1 150 -2.187
92 FP1 151 -1.699
92 FP1 152 -2.675
92 FP1 153 -4.628
92 FP1 154 -7.070
92 FP1 155 -8.535
92 FP1 156 -9.023
92 FP1 157 -8.046
92 FP1 158 -6.582
92 FP1 159 -4.628
92 FP1 160 -2.675
92 FP1 161 -1.211
92 FP1 162 -0.722
92 FP1 163 -1.699
92 FP1 164 -3.164
92 FP1 165 -4.140
92 FP1 166 -3.652
92 FP1 167 -2.187
92 FP1 168 -0.722
92 FP1 169 0.254
92 FP1 170 0.254
92 FP1 171 -0.234
92 FP1 172 -0.234
92 FP1 173 0.254
92 FP1 174 0.743
92 FP1 175 0.743
92 FP1 176 0.254
92 FP1 177 -0.722
92 FP1 178 -1.699
92 FP1 179 -2.675
92 FP1 180 -3.164
92 FP1 181 -3.652
92 FP1 182 -4.628
92 FP1 183 -5.117
92 FP1 184 -4.628
92 FP1 185 -3.652
92 FP1 186 -2.187
92 FP1 187 -1.211
92 FP1 188 -1.699
92 FP1 189 -2.675
92 FP1 190 -4.628
92 FP1 191 -5.117
92 FP1 192 -4.628
92 FP1 193 -3.164
92 FP1 194 -2.675
92 FP1 195 -2.675
92 FP1 196 -4.140
92 FP1 197 -4.628
92 FP1 198 -5.605
92 FP1 199 -5.605
92 FP1 200 -7.070
92 FP1 201 -10.000
92 FP1 202 -13.418
92 FP1 203 -16.836
92 FP1 204 -17.324
92 FP1 205 -15.859
92 FP1 206 -12.929
92 FP1 207 -11.464
92 FP1 208 -11.953
92 FP1 209 -14.394
92 FP1 210 -16.347
92 FP1 211 -16.836
92 FP1 212 -16.347
92 FP1 213 -15.371
92 FP1 214 -14.882
92 FP1 215 -14.882
92 FP1 216 -14.882
92 FP1 217 -14.394
92 FP1 218 -12.929
92 FP1 219 -11.953
92 FP1 220 -11.464
92 FP1 221 -11.953
92 FP1 222 -12.929
92 FP1 223 -13.418
92 FP1 224 -12.929
92 FP1 225 -12.441
92 FP1 226 -12.929
92 FP1 227 -13.418
92 FP1 228 -13.906
92 FP1 229 -14.394
92 FP1 230 -13.418
92 FP1 231 -11.953
92 FP1 232 -10.000
92 FP1 233 -7.558
92 FP1 234 -6.093
92 FP1 235 -6.582
92 FP1 236 -8.535
92 FP1 237 -10.976
92 FP1 238 -12.441
92 FP1 239 -11.464
92 FP1 240 -8.535
92 FP1 241 -5.605
92 FP1 242 -3.652
92 FP1 243 -3.652
92 FP1 244 -5.605
92 FP1 245 -7.070
92 FP1 246 -8.046
92 FP1 247 -8.046
92 FP1 248 -7.070
92 FP1 249 -6.582
92 FP1 250 -5.605
92 FP1 251 -4.628
92 FP1 252 -3.164
92 FP1 253 -1.699
92 FP1 254 -1.699
92 FP1 255 -2.187
# FP2 chan 1
92 FP2 0 0.224
92 FP2 1 2.177
92 FP2 2 3.153
92 FP2 3 3.153
92 FP2 4 1.200
92 FP2 5 -1.241
92 FP2 6 -3.682
92 FP2 7 -5.147
92 FP2 8 -5.636
92 FP2 9 -6.124
92 FP2 10 -7.100
92 FP2 11 -8.077
92 FP2 12 -9.054
92 FP2 13 -9.542
92 FP2 14 -9.542
92 FP2 15 -9.054
92 FP2 16 -8.565
92 FP2 17 -8.077
92 FP2 18 -8.077
92 FP2 19 -8.565
92 FP2 20 -9.542
92 FP2 21 -10.030
92 FP2 22 -9.054
92 FP2 23 -7.589
92 FP2 24 -4.659
92 FP2 25 -1.729
92 FP2 26 1.200
92 FP2 27 2.665
92 FP2 28 3.642
92 FP2 29 4.130
92 FP2 30 4.618
92 FP2 31 5.107
92 FP2 32 4.130
92 FP2 33 3.153
92 FP2 34 1.200
92 FP2 35 -0.264
92 FP2 36 -0.753
92 FP2 37 0.224
92 FP2 38 0.712
92 FP2 39 0.712
92 FP2 40 0.224
92 FP2 41 0.224
92 FP2 42 0.712
92 FP2 43 2.177
92 FP2 44 3.642
92 FP2 45 4.130
92 FP2 46 4.130
92 FP2 47 2.665
92 FP2 48 1.200
92 FP2 49 0.712
92 FP2 50 0.712
92 FP2 51 0.712
92 FP2 52 0.224
92 FP2 53 -0.753
92 FP2 54 -1.241
92 FP2 55 -1.241
92 FP2 56 -0.753
92 FP2 57 -0.264
92 FP2 58 -0.753
92 FP2 59 -2.218
92 FP2 60 -4.171
92 FP2 61 -5.636
92 FP2 62 -5.147
92 FP2 63 -3.682
92 FP2 64 -0.753
92 FP2 65 1.200
92 FP2 66 2.177
92 FP2 67 2.177
92 FP2 68 0.712
92 FP2 69 -1.241
92 FP2 70 -3.194
92 FP2 71 -4.659
92 FP2 72 -5.147
92 FP2 73 -5.147
92 FP2 74 -3.682
92 FP2 75 -1.241
92 FP2 76 1.200
92 FP2 77 2.665
92 FP2 78 2.177
92 FP2 79 -0.264
92 FP2 80 -4.171
92 FP2 81 -8.077
92 FP2 82 -10.518
92 FP2 83 -11.007
92 FP2 84 -10.030
92 FP2 85 -7.589
92 FP2 86 -4.659
92 FP2 87 -1.729
92 FP2 88 1.200
92 FP2 89 2.665
92 FP2 90 2.177
92 FP2 91 0.224
92 FP2 92 -2.218
92 FP2 93 -3.682
92 FP2 94 -3.682
92 FP2 95 -3.682
92 FP2 96 -3.194
92 FP2 97 -4.659
92 FP2 98 -6.612
92 FP2 99 -9.542
92 FP2 100 -10.518
92 FP2 101 -10.518
92 FP2 102 -9.054
92 FP2 103 -6.612
92 FP2 104 -4.171
92 FP2 105 -2.706
92 FP2 106 -2.218
92 FP2 107 -3.194
92 FP2 108 -4.171
92 FP2 109 -5.147
92 FP2 110 -4.659
92 FP2 111 -3.682
92 FP2 112 -3.682
92 FP2 113 -5.147
92 FP2 114 -8.077
92 FP2 115 -11.983
92 FP2 116 -13.936
92 FP2 117 -13.448
92 FP2 118 -11.495
92 FP2 119 -8.077
92 FP2 120 -5.636
92 FP2 121 -4.659
92 FP2 122 -4.171
92 FP2 123 -4.659
92 FP2 124 -4.659
92 FP2 125 -4.659
92 FP2 126 -4.171
92 FP2 127 -4.171
92 FP2 128 -4.171
92 FP2 129 -3.682
92 FP2 130 -2.706
92 FP2 131 -2.218
92 FP2 132 -1.729
92 FP2 133 -2.706
92 FP2 134 -5.636
92 FP2 135 -8.565
92 FP2 136 -11.007
92 FP2 137 -12.472
92 FP2 138 -12.472
92 FP2 139 -11.983
92 FP2 140 -11.007
92 FP2 141 -10.518
92 FP2 142 -10.518
92 FP2 143 -10.518
92 FP2 144 -11.007
92 FP2 145 -11.495
92 FP2 146 -11.007
92 FP2 147 -10.030
92 FP2 148 -8.565
92 FP2 149 -6.124
92 FP2 150 -4.171
92 FP2 151 -3.682
92 FP2 152 -5.147
92 FP2 153 -7.589
92 FP2 154 -11.007
92 FP2 155 -13.448
92 FP2 156 -13.936
92 FP2 157 -12.472
92 FP2 158 -10.030
92 FP2 159 -7.589
92 FP2 160 -6.124
92 FP2 161 -5.147
92 FP2 162 -5.147
92 FP2 163 -5.147
92 FP2 164 -4.659
92 FP2 165 -4.659
92 FP2 166 -3.682
92 FP2 167 -3.194
92 FP2 168 -2.706
92 FP2 169 -2.218
92 FP2 170 -1.729
92 FP2 171 -1.241
92 FP2 172 -0.264
92 FP2 173 0.224
92 FP2 174 -0.264
92 FP2 175 -0.753
92 FP2 176 -1.729
92 FP2 177 -2.218
92 FP2 178 -1.729
92 FP2 179 -1.729
92 FP2 180 -2.218
92 FP2 181 -3.682
92 FP2 182 -5.636
92 FP2 183 -7.589
92 FP2 184 -7.589
92 FP2 185 -6.124
92 FP2 186 -3.682
92 FP2 187 -1.729
92 FP2 188 -1.729
92 FP2 189 -3.194
92 FP2 190 -4.659
92 FP2 191 -5.636
92 FP2 192 -5.636
92 FP2 193 -5.147
92 FP2 194 -4.659
92 FP2 195 -5.636
92 FP2 196 -6.612
92 FP2 197 -7.589
92 FP2 198 -7.589
92 FP2 199 -8.077
92 FP2 200 -9.542
92 FP2 201 -12.472
92 FP2 202 -16.378
92 FP2 203 -18.331
92 FP2 204 -18.819
92 FP2 205 -16.378
92 FP2 206 -14.425
92 FP2 207 -13.936
92 FP2 208 -15.401
92 FP2 209 -17.843
92 FP2 210 -19.307
92 FP2 211 -18.819
92 FP2 212 -16.866
92 FP2 213 -15.401
92 FP2 214 -14.425
92 FP2 215 -14.425
92 FP2 216 -13.936
92 FP2 217 -12.472
92 FP2 218 -11.007
92 FP2 219 -10.030
92 FP2 220 -10.518
92 FP2 221 -12.472
92 FP2 222 -13.936
92 FP2 223 -14.913
92 FP2 224 -14.913
92 FP2 225 -14.425
92 FP2 226 -14.425
92 FP2 227 -14.913
92 FP2 228 -15.889
92 FP2 229 -16.378
92 FP2 230 -15.889
92 FP2 231 -14.913
92 FP2 232 -13.448
92 FP2 233 -11.983
92 FP2 234 -11.007
92 FP2 235 -11.495
92 FP2 236 -12.472
92 FP2 237 -13.936
92 FP2 238 -14.425
92 FP2 239 -13.936
92 FP2 240 -11.983
92 FP2 241 -9.542
92 FP2 242 -7.589
92 FP2 243 -7.100
92 FP2 244 -7.589
92 FP2 245 -9.542
92 FP2 246 -11.495
92 FP2 247 -12.960
92 FP2 248 -13.448
92 FP2 249 -12.472
92 FP2 250 -10.518
92 FP2 251 -7.100
92 FP2 252 -4.659
92 FP2 253 -3.682
92 FP2 254 -4.171
92 FP2 255 -5.147
# F7 chan 2
92 F7 0 -2.675
92 F7 1 0.254
92 F7 2 2.207
92 F7 3 2.207
92 F7 4 0.254
92 F7 5 -2.187
92 F7 6 -4.140
92 F7 7 -4.628
92 F7 8 -3.652
92 F7 9 -3.164
92 F7 10 -3.164
92 F7 11 -3.652
92 F7 12 -4.628
92 F7 13 -4.628
92 F7 14 -4.628
92 F7 15 -4.628
92 F7 16 -4.628
92 F7 17 -5.605
92 F7 18 -6.582
92 F7 19 -6.582
92 F7 20 -6.582
92 F7 21 -5.605
92 F7 22 -4.140
92 F7 23 -2.675
92 F7 24 -0.722
92 F7 25 0.743
92 F7 26 1.719
92 F7 27 2.696
92 F7 28 3.672
92 F7 29 5.625
92 F7 30 7.579
92 F7 31 8.067
92 F7 32 6.602
92 F7 33 2.696
92 F7 34 -2.187
92 F7 35 -6.093
92 F7 36 -7.558
92 F7 37 -7.070
92 F7 38 -5.605
92 F7 39 -4.140
92 F7 40 -3.652
92 F7 41 -2.675
92 F7 42 -2.187
92 F7 43 -1.211
92 F7 44 0.254
92 F7 45 0.743
92 F7 46 1.231
92 F7 47 1.719
92 F7 48 2.696
92 F7 49 4.161
92 F7 50 4.649
92 F7 51 3.672
92 F7 52 1.719
92 F7 53 -1.211
92 F7 54 -3.164
92 F7 55 -4.140
92 F7 56 -4.140
92 F7 57 -3.652
92 F7 58 -3.652
92 F7 59 -3.652
92 F7 60 -4.140
92 F7 61 -4.140
92 F7 62 -4.140
92 F7 63 -3.652
92 F7 64 -2.675
92 F7 65 -1.211
92 F7 66 0.254
92 F7 67 1.231
92 F7 68 0.743
92 F7 69 -2.187
92 F7 70 -6.582
92 F7 71 -9.511
92 F7 72 -10.488
92 F7 73 -8.046
92 F7 74 -4.140
92 F7 75 -0.234
92 F7 76 2.207
92 F7 77 1.719
92 F7 78 0.254
92 F7 79 -2.187
92 F7 80 -3.652
92 F7 81 -4.628
92 F7 82 -5.117
92 F7 83 -4.628
92 F7 84 -4.628
92 F7 85 -3.164
92 F7 86 -0.234
92 F7 87 3.184
92 F7 88 7.090
92 F7 89 8.555
92 F7 90 7.579
92 F7 91 4.649
92 F7 92 1.719
92 F7 93 -1.211
92 F7 94 -1.699
92 F7 95 -1.211
92 F7 96 -0.234
92 F7 97 0.254
92 F7 98 0.743
92 F7 99 0.743
92 F7 100 0.254
92 F7 101 0.254
92 F7 102 1.719
92 F7 103 3.672
92 F7 104 6.114
92 F7 105 7.579
92 F7 106 6.602
92 F7 107 3.184
92 F7 108 -0.722
92 F7 109 -2.675
92 F7 110 -1.211
92 F7 111 2.207
92 F7 112 5.137
92 F7 113 5.625
92 F7 114 3.184
92 F7 115 -0.234
92 F7 116 -3.164
92 F7 117 -3.164
92 F7 118 -0.722
92 F7 119 2.696
92 F7 120 6.114
92 F7 121 7.090
92 F7 122 7.090
92 F7 123 5.137
92 F7 124 3.184
92 F7 125 1.231
92 F7 126 0.254
92 F7 127 1.231
92 F7 128 3.672
92 F7 129 6.114
92 F7 130 7.579
92 F7 131 6.602
92 F7 132 3.672
92 F7 133 -0.234
92 F7 134 -4.140
92 F7 135 -6.582
92 F7 136 -8.046
92 F7 137 -8.535
92 F7 138 -8.535
92 F7 139 -8.535
92 F7 140 -7.558
92 F7 141 -6.093
92 F7 142 -4.628
92 F7 143 -3.652
92 F7 144 -2.675
92 F7 145 -2.675
92 F7 146 -2.675
92 F7 147 -2.187
92 F7 148 -1.699
92 F7 149 0.254
92 F7 150 2.207
92 F7 151 3.184
92 F7 152 2.696
92 F7 153 0.743
92 F7 154 -2.675
92 F7 155 -5.117
92 F7 156 -6.582
92 F7 157 -7.070
92 F7 158 -5.605
92 F7 159 -4.140
92 F7 160 -2.675
92 F7 161 -0.722
92 F7 162 0.254
92 F7 163 -0.234
92 F7 164 -2.187
92 F7 165 -4.140
92 F7 166 -5.117
92 F7 167 -4.140
92 F7 168 -2.675
92 F7 169 -1.211
92 F7 170 -1.211
92 F7 171 -2.187
92 F7 172 -2.675
92 F7 173 -2.675
92 F7 174 -1.211
92 F7 175 0.254
92 F7 176 -0.234
92 F7 177 -1.699
92 F7 178 -3.652
92 F7 179 -5.117
92 F7 180 -5.605
92 F7 181 -5.117
92 F7 182 -4.140
92 F7 183 -3.164
92 F7 184 -2.187
92 F7 185 -1.211
92 F7 186 -0.722
92 F7 187 -0.722
92 F7 188 -1.699
92 F7 189 -4.140
92 F7 190 -6.582
92 F7 191 -8.535
92 F7 192 -9.023
92 F7 193 -8.046
92 F7 194 -5.605
92 F7 195 -3.652
92 F7 196 -2.187
92 F7 197 -1.699
92 F7 198 -2.675
92 F7 199 -4.140
92 F7 200 -7.070
92 F7 201 -10.976
92 F7 202 -15.371
92 F7 203 -18.300
92 F7 204 -18.300
92 F7 205 -15.371
92 F7 206 -10.976
92 F7 207 -8.046
92 F7 208 -7.070
92 F7 209 -8.535
92 F7 210 -11.464
92 F7 211 -13.418
92 F7 212 -13.906
92 F7 213 -13.418
92 F7 214 -13.418
92 F7 215 -13.418
92 F7 216 -12.929
92 F7 217 -12.441
92 F7 218 -11.464
92 F7 219 -10.976
92 F7 220 -11.464
92 F7 221 -12.441
92 F7 222 -12.929
92 F7 223 -12.441
92 F7 224 -11.953
92 F7 225 -10.976
92 F7 226 -10.976
92 F7 227 -11.464
92 F7 228 -10.976
92 F7 229 -10.000
92 F7 230 -8.046
92 F7 231 -5.117
92 F7 232 -2.675
92 F7 233 -1.211
92 F7 234 -0.722
92 F7 235 -2.187
92 F7 236 -5.117
92 F7 237 -9.511
92 F7 238 -12.441
92 F7 239 -13.418
92 F7 240 -10.976
92 F7 241 -7.070
92 F7 242 -4.140
92 F7 243 -3.164
92 F7 244 -4.140
92 F7 245 -5.117
92 F7 246 -5.117
92 F7 247 -3.652
92 F7 248 -2.675
92 F7 249 -1.699
92 F7 250 -1.699
92 F7 251 -2.187
92 F7 252 -1.699
92 F7 253 -1.211
92 F7 254 -0.234
92 F7 255 -0.234
# F8 chan 3
92 F8 0 2.136
92 F8 1 6.042
92 F8 2 7.996
92 F8 3 7.507
92 F8 4 4.578
92 F8 5 1.160
92 F8 6 -1.770
92 F8 7 -3.235
92 F8 8 -3.723
92 F8 9 -3.723
92 F8 10 -3.723
92 F8 11 -4.211
92 F8 12 -4.700
92 F8 13 -4.700
92 F8 14 -4.211
92 F8 15 -3.235
92 F8 16 -2.258
92 F8 17 -2.258
92 F8 18 -2.747
92 F8 19 -4.700
92 F8 20 -6.165
92 F8 21 -6.165
92 F8 22 -4.700
92 F8 23 -0.793
92 F8 24 2.625
92 F8 25 5.066
92 F8 26 6.042
92 F8 27 6.531
92 F8 28 7.019
92 F8 29 7.019
92 F8 30 6.531
92 F8 31 5.554
92 F8 32 4.578
92 F8 33 4.578
92 F8 34 4.578
92 F8 35 5.066
92 F8 36 4.578
92 F8 37 3.113
92 F8 38 0.671
92 F8 39 -0.793
92 F8 40 0.183
92 F8 41 2.625
92 F8 42 5.066
92 F8 43 7.019
92 F8 44 7.507
92 F8 45 7.507
92 F8 46 7.019
92 F8 47 6.042
92 F8 48 5.066
92 F8 49 4.089
92 F8 50 3.113
92 F8 51 2.136
92 F8 52 1.648
92 F8 53 0.671
92 F8 54 0.183
92 F8 55 0.183
92 F8 56 0.671
92 F8 57 1.648
92 F8 58 1.160
92 F8 59 -0.305
92 F8 60 -3.235
92 F8 61 -5.188
92 F8 62 -4.211
92 F8 63 -1.282
92 F8 64 2.136
92 F8 65 3.601
92 F8 66 3.113
92 F8 67 0.671
92 F8 68 -1.770
92 F8 69 -2.747
92 F8 70 -1.282
92 F8 71 0.671
92 F8 72 2.625
92 F8 73 3.113
92 F8 74 4.089
92 F8 75 6.042
92 F8 76 8.972
92 F8 77 11.902
92 F8 78 11.414
92 F8 79 7.996
92 F8 80 2.136
92 F8 81 -2.258
92 F8 82 -4.211
92 F8 83 -3.235
92 F8 84 -0.793
92 F8 85 1.160
92 F8 86 1.648
92 F8 87 2.625
92 F8 88 4.089
92 F8 89 5.554
92 F8 90 6.042
92 F8 91 4.089
92 F8 92 0.671
92 F8 93 -1.770
92 F8 94 -2.258
92 F8 95 -1.282
92 F8 96 0.183
92 F8 97 1.160
92 F8 98 0.671
92 F8 99 -0.793
92 F8 100 -2.258
92 F8 101 -2.258
92 F8 102 -0.305
92 F8 103 1.648
92 F8 104 4.089
92 F8 105 5.554
92 F8 106 4.578
92 F8 107 2.625
92 F8 108 0.671
92 F8 109 -0.793
92 F8 110 0.183
92 F8 111 2.136
92 F8 112 3.113
92 F8 113 2.136
92 F8 114 -0.793
92 F8 115 -4.700
92 F8 116 -7.141
92 F8 117 -7.629
92 F8 118 -5.676
92 F8 119 -3.235
92 F8 120 -1.770
92 F8 121 -0.793
92 F8 122 -0.305
92 F8 123 1.160
92 F8 124 3.113
92 F8 125 4.578
92 F8 126 4.089
92 F8 127 2.625
92 F8 128 2.136
92 F8 129 2.625
92 F8 130 4.578
92 F8 131 7.019
92 F8 132 7.996
92 F8 133 7.507
92 F8 134 5.066
92 F8 135 1.648
92 F8 136 -1.282
92 F8 137 -3.235
92 F8 138 -3.235
92 F8 139 -2.258
92 F8 140 -0.305
92 F8 141 0.671
92 F8 142 0.671
92 F8 143 -0.305
92 F8 144 -1.770
92 F8 145 -2.747
92 F8 146 -3.235
92 F8 147 -2.258
92 F8 148 -0.305
92 F8 149 1.160
92 F8 150 2.625
92 F8 151 2.625
92 F8 152 2.136
92 F8 153 0.671
92 F8 154 -1.770
92 F8 155 -3.235
92 F8 156 -3.723
92 F8 157 -3.235
92 F8 158 -1.282
92 F8 159 0.183
92 F8 160 0.671
92 F8 161 0.183
92 F8 162 -0.305
92 F8 163 -0.305
92 F8 164 0.671
92 F8 165 1.648
92 F8 166 2.625
92 F8 167 3.113
92 F8 168 3.601
92 F8 169 4.089
92 F8 170 4.578
92 F8 171 5.554
92 F8 172 6.531
92 F8 173 7.507
92 F8 174 7.507
92 F8 175 7.507
92 F8 176 7.019
92 F8 177 6.531
92 F8 178 6.042
92 F8 179 5.066
92 F8 180 3.601
92 F8 181 2.625
92 F8 182 2.136
92 F8 183 2.136
92 F8 184 2.625
92 F8 185 3.601
92 F8 186 3.601
92 F8 187 3.113
92 F8 188 2.136
92 F8 189 0.671
92 F8 190 -0.793
92 F8 191 -2.258
92 F8 192 -2.747
92 F8 193 -1.770
92 F8 194 -0.793
92 F8 195 0.183
92 F8 196 0.671
92 F8 197 1.648
92 F8 198 2.136
92 F8 199 1.648
92 F8 200 -0.793
92 F8 201 -5.188
92 F8 202 -9.583
92 F8 203 -11.047
92 F8 204 -10.071
92 F8 205 -6.653
92 F8 206 -3.723
92 F8 207 -3.235
92 F8 208 -5.188
92 F8 209 -7.141
92 F8 210 -7.629
92 F8 211 -6.165
92 F8 212 -4.211
92 F8 213 -4.211
92 F8 214 -5.188
92 F8 215 -6.165
92 F8 216 -5.676
92 F8 217 -2.747
92 F8 218 0.183
92 F8 219 1.648
92 F8 220 -0.305
92 F8 221 -4.211
92 F8 222 -7.629
92 F8 223 -9.094
92 F8 224 -9.094
92 F8 225 -8.118
92 F8 226 -8.118
92 F8 227 -9.094
92 F8 228 -10.071
92 F8 229 -10.071
92 F8 230 -9.094
92 F8 231 -7.629
92 F8 232 -6.165
92 F8 233 -5.188
92 F8 234 -4.700
92 F8 235 -5.188
92 F8 236 -6.165
92 F8 237 -8.118
92 F8 238 -9.094
92 F8 239 -8.606
92 F8 240 -6.165
92 F8 241 -2.258
92 F8 242 1.160
92 F8 243 2.625
92 F8 244 1.648
92 F8 245 -0.305
92 F8 246 -2.747
92 F8 247 -3.235
92 F8 248 -2.258
92 F8 249 0.183
92 F8 250 2.625
92 F8 251 4.578
92 F8 252 5.554
92 F8 253 6.042
92 F8 254 5.554
92 F8 255 4.578
# AF1 chan 4
92 AF1 0 0.214
92 AF1 1 2.167
92 AF1 2 2.655
92 AF1 3 2.167
92 AF1 4 -0.275
92 AF1 5 -2.716
92 AF1 6 -4.669
92 AF1 7 -4.669
92 AF1 8 -3.693
92 AF1 9 -2.716
92 AF1 10 -3.204
92 AF1 11 -4.181
92 AF1 12 -5.646
92 AF1 13 -6.622
92 AF1 14 -6.622
92 AF1 15 -5.646
92 AF1 16 -4.669
92 AF1 17 -3.693
92 AF1 18 -4.181
92 AF1 19 -4.669
92 AF1 20 -5.646
92 AF1 21 -6.622
92 AF1 22 -6.134
92 AF1 23 -4.669
92 AF1 24 -2.716
92 AF1 25 -0.275
92 AF1 26 1.190
92 AF1 27 2.167
92 AF1 28 2.167
92 AF1 29 2.167
92 AF1 30 2.655
92 AF1 31 3.143
92 AF1 32 3.143
92 AF1 33 2.167
92 AF1 34 0.214
92 AF1 35 -1.251
92 AF1 36 -1.740
92 AF1 37 -1.740
92 AF1 38 -1.251
92 AF1 39 -0.763
92 AF1 40 -1.740
92 AF1 41 -2.716
92 AF1 42 -2.716
92 AF1 43 -1.740
92 AF1 44 -0.275
92 AF1 45 1.190
92 AF1 46 1.678
92 AF1 47 1.190
92 AF1 48 0.702
92 AF1 49 0.702
92 AF1 50 1.190
92 AF1 51 1.190
92 AF1 52 1.190
92 AF1 53 0.214
92 AF1 54 -1.251
92 AF1 55 -1.740
92 AF1 56 -1.740
92 AF1 57 -0.763
92 AF1 58 0.214
92 AF1 59 0.702
92 AF1 60 0.214
92 AF1 61 -0.275
92 AF1 62 -0.275
92 AF1 63 0.214
92 AF1 64 1.678
92 AF1 65 3.143
92 AF1 66 4.608
92 AF1 67 5.096
92 AF1 68 4.120
92 AF1 69 2.655
92 AF1 70 0.214
92 AF1 71 -2.228
92 AF1 72 -3.693
92 AF1 73 -4.181
92 AF1 74 -3.204
92 AF1 75 -0.275
92 AF1 76 1.678
92 AF1 77 3.143
92 AF1 78 2.655
92 AF1 79 0.702
92 AF1 80 -3.204
92 AF1 81 -6.134
92 AF1 82 -8.087
92 AF1 83 -8.087
92 AF1 84 -6.622
92 AF1 85 -4.181
92 AF1 86 -1.740
92 AF1 87 0.702
92 AF1 88 2.655
92 AF1 89 3.632
92 AF1 90 3.632
92 AF1 91 2.167
92 AF1 92 0.214
92 AF1 93 -1.740
92 AF1 94 -2.228
92 AF1 95 -1.740
92 AF1 96 -0.763
92 AF1 97 -0.763
92 AF1 98 -1.740
92 AF1 99 -3.693
92 AF1 100 -5.646
92 AF1 101 -6.622
92 AF1 102 -5.646
92 AF1 103 -4.181
92 AF1 104 -1.740
92 AF1 105 0.214
92 AF1 106 0.214
92 AF1 107 -0.763
92 AF1 108 -2.228
92 AF1 109 -3.204
92 AF1 110 -2.228
92 AF1 111 -0.763
92 AF1 112 -0.275
92 AF1 113 -1.251
92 AF1 114 -4.181
92 AF1 115 -6.622
92 AF1 116 -8.575
92 AF1 117 -8.087
92 AF1 118 -6.622
92 AF1 119 -3.693
92 AF1 120 -1.251
92 AF1 121 -0.275
92 AF1 122 -0.275
92 AF1 123 -0.275
92 AF1 124 -0.763
92 AF1 125 -0.763
92 AF1 126 -0.275
92 AF1 127 0.214
92 AF1 128 1.678
92 AF1 129 3.143
92 AF1 130 4.120
92 AF1 131 4.120
92 AF1 132 2.655
92 AF1 133 0.702
92 AF1 134 -1.740
92 AF1 135 -4.181
92 AF1 136 -5.646
92 AF1 137 -5.646
92 AF1 138 -5.646
92 AF1 139 -5.157
92 AF1 140 -5.157
92 AF1 141 -4.669
92 AF1 142 -4.669
92 AF1 143 -4.181
92 AF1 144 -3.693
92 AF1 145 -3.204
92 AF1 146 -2.716
92 AF1 147 -2.228
92 AF1 148 -1.251
92 AF1 149 -0.275
92 AF1 150 0.214
92 AF1 151 0.214
92 AF1 152 -0.763
92 AF1 153 -1.740
92 AF1 154 -3.693
92 AF1 155 -5.157
92 AF1 156 -5.646
92 AF1 157 -5.157
92 AF1 158 -4.181
92 AF1 159 -2.716
92 AF1 160 -1.251
92 AF1 161 -0.275
92 AF1 162 0.214
92 AF1 163 -0.275
92 AF1 164 -1.251
92 AF1 165 -2.228
92 AF1 166 -2.228
92 AF1 167 -1.740
92 AF1 168 -1.251
92 AF1 169 -0.763
92 AF1 170 0.214
92 AF1 171 0.214
92 AF1 172 1.190
92 AF1 173 2.167
92 AF1 174 2.655
92 AF1 175 2.655
92 AF1 176 1.678
92 AF1 177 0.702
92 AF1 178 0.214
92 AF1 179 0.214
92 AF1 180 0.702
92 AF1 181 0.702
92 AF1 182 -0.275
92 AF1 183 -1.251
92 AF1 184 -1.740
92 AF1 185 -1.251
92 AF1 186 -0.275
92 AF1 187 0.702
92 AF1 188 0.702
92 AF1 189 -0.275
92 AF1 190 -1.740
92 AF1 191 -2.228
92 AF1 192 -2.228
92 AF1 193 -1.251
92 AF1 194 -1.251
92 AF1 195 -1.740
92 AF1 196 -2.228
92 AF1 197 -3.204
92 AF1 198 -3.693
92 AF1 199 -4.181
92 AF1 200 -5.646
92 AF1 201 -8.087
92 AF1 202 -11.017
92 AF1 203 -13.458
92 AF1 204 -13.458
92 AF1 205 -12.482
92 AF1 206 -10.040
92 AF1 207 -9.064
92 AF1 208 -9.064
92 AF1 209 -10.529
92 AF1 210 -12.482
92 AF1 211 -12.970
92 AF1 212 -11.993
92 AF1 213 -11.017
92 AF1 214 -10.040
92 AF1 215 -10.040
92 AF1 216 -10.040
92 AF1 217 -9.552
92 AF1 218 -8.575
92 AF1 219 -8.087
92 AF1 220 -8.087
92 AF1 221 -8.575
92 AF1 222 -9.552
92 AF1 223 -10.040
92 AF1 224 -10.040
92 AF1 225 -10.040
92 AF1 226 -10.040
92 AF1 227 -10.529
92 AF1 228 -10.529
92 AF1 229 -10.040
92 AF1 230 -9.064
92 AF1 231 -7.599
92 AF1 232 -5.646
92 AF1 233 -3.693
92 AF1 234 -2.716
92 AF1 235 -2.716
92 AF1 236 -4.181
92 AF1 237 -6.134
92 AF1 238 -7.599
92 AF1 239 -7.111
92 AF1 240 -5.157
92 AF1 241 -1.740
92 AF1 242 0.214
92 AF1 243 0.214
92 AF1 244 -1.740
92 AF1 245 -4.181
92 AF1 246 -6.134
92 AF1 247 -6.622
92 AF1 248 -6.134
92 AF1 249 -5.157
92 AF1 250 -4.181
92 AF1 251 -3.204
92 AF1 252 -1.740
92 AF1 253 -1.251
92 AF1 254 -1.251
92 AF1 255 -2.228
# AF2 chan 5
92 AF2 0 1.587
92 AF2 1 3.052
92 AF2 2 4.028
92 AF2 3 3.052
92 AF2 4 0.610
92 AF2 5 -1.831
92 AF2 6 -3.296
92 AF2 7 -4.272
92 AF2 8 -3.784
92 AF2 9 -3.784
92 AF2 10 -4.272
92 AF2 11 -5.249
92 AF2 12 -6.226
92 AF2 13 -6.714
92 AF2 14 -6.714
92 AF2 15 -5.737
92 AF2 16 -5.737
92 AF2 17 -5.249
92 AF2 18 -5.249
92 AF2 19 -5.737
92 AF2 20 -6.714
92 AF2 21 -7.202
92 AF2 22 -6.714
92 AF2 23 -5.249
92 AF2 24 -2.808
92 AF2 25 0.122
92 AF2 26 2.075
92 AF2 27 3.052
92 AF2 28 3.052
92 AF2 29 2.563
92 AF2 30 2.563
92 AF2 31 2.563
92 AF2 32 2.563
92 AF2 33 2.563
92 AF2 34 2.075
92 AF2 35 1.587
92 AF2 36 1.587
92 AF2 37 1.587
92 AF2 38 1.099
92 AF2 39 0.610
92 AF2 40 -0.366
92 AF2 41 -0.854
92 AF2 42 -0.854
92 AF2 43 0.122
92 AF2 44 1.587
92 AF2 45 2.563
92 AF2 46 2.563
92 AF2 47 1.099
92 AF2 48 0.122
92 AF2 49 -0.366
92 AF2 50 0.122
92 AF2 51 0.122
92 AF2 52 0.610
92 AF2 53 0.122
92 AF2 54 -0.366
92 AF2 55 -0.854
92 AF2 56 -0.366
92 AF2 57 0.122
92 AF2 58 0.610
92 AF2 59 0.122
92 AF2 60 -0.854
92 AF2 61 -1.831
92 AF2 62 -1.343
92 AF2 63 0.122
92 AF2 64 2.075
92 AF2 65 4.028
92 AF2 66 5.493
92 AF2 67 5.493
92 AF2 68 4.517
92 AF2 69 2.563
92 AF2 70 1.099
92 AF2 71 0.122
92 AF2 72 -0.854
92 AF2 73 -1.343
92 AF2 74 -0.854
92 AF2 75 0.610
92 AF2 76 2.563
92 AF2 77 4.517
92 AF2 78 4.517
92 AF2 79 2.563
92 AF2 80 -0.854
92 AF2 81 -4.761
92 AF2 82 -7.202
92 AF2 83 -7.690
92 AF2 84 -6.714
92 AF2 85 -4.761
92 AF2 86 -2.319
92 AF2 87 -0.366
92 AF2 88 1.587
92 AF2 89 2.563
92 AF2 90 2.563
92 AF2 91 1.099
92 AF2 92 -0.366
92 AF2 93 -1.831
92 AF2 94 -1.831
92 AF2 95 -1.343
92 AF2 96 -0.854
92 AF2 97 -1.831
92 AF2 98 -3.296
92 AF2 99 -5.737
92 AF2 100 -7.202
92 AF2 101 -8.179
92 AF2 102 -7.202
92 AF2 103 -5.249
92 AF2 104 -2.808
92 AF2 105 -0.854
92 AF2 106 -0.366
92 AF2 107 -1.343
92 AF2 108 -2.319
92 AF2 109 -3.296
92 AF2 110 -2.808
92 AF2 111 -1.831
92 AF2 112 -1.831
92 AF2 113 -3.296
92 AF2 114 -5.737
92 AF2 115 -8.179
92 AF2 116 -9.644
92 AF2 117 -9.644
92 AF2 118 -8.179
92 AF2 119 -6.226
92 AF2 120 -4.272
92 AF2 121 -3.296
92 AF2 122 -2.319
92 AF2 123 -1.831
92 AF2 124 -0.854
92 AF2 125 -0.366
92 AF2 126 -0.366
92 AF2 127 -0.366
92 AF2 128 -0.366
92 AF2 129 0.122
92 AF2 130 1.099
92 AF2 131 2.075
92 AF2 132 2.075
92 AF2 133 1.099
92 AF2 134 -0.854
92 AF2 135 -2.808
92 AF2 136 -4.761
92 AF2 137 -5.249
92 AF2 138 -5.249
92 AF2 139 -5.249
92 AF2 140 -5.249
92 AF2 141 -5.249
92 AF2 142 -4.761
92 AF2 143 -4.272
92 AF2 144 -3.784
92 AF2 145 -3.296
92 AF2 146 -2.808
92 AF2 147 -2.319
92 AF2 148 -1.343
92 AF2 149 -0.366
92 AF2 150 0.122
92 AF2 151 0.122
92 AF2 152 -0.366
92 AF2 153 -1.831
92 AF2 154 -3.784
92 AF2 155 -5.249
92 AF2 156 -5.737
92 AF2 157 -5.249
92 AF2 158 -3.784
92 AF2 159 -2.319
92 AF2 160 -1.343
92 AF2 161 -0.854
92 AF2 162 -0.854
92 AF2 163 -1.343
92 AF2 164 -1.831
92 AF2 165 -1.831
92 AF2 166 -1.343
92 AF2 167 -0.854
92 AF2 168 0.122
92 AF2 169 0.610
92 AF2 170 1.099
92 AF2 171 1.587
92 AF2 172 2.563
92 AF2 173 3.540
92 AF2 174 4.028
92 AF2 175 3.540
92 AF2 176 2.563
92 AF2 177 2.075
92 AF2 178 2.075
92 AF2 179 2.563
92 AF2 180 3.052
92 AF2 181 3.052
92 AF2 182 1.587
92 AF2 183 0.122
92 AF2 184 -0.366
92 AF2 185 0.122
92 AF2 186 1.587
92 AF2 187 2.563
92 AF2 188 3.052
92 AF2 189 2.075
92 AF2 190 0.610
92 AF2 191 -0.366
92 AF2 192 -0.366
92 AF2 193 -0.366
92 AF2 194 -0.366
92 AF2 195 -0.854
92 AF2 196 -1.831
92 AF2 197 -2.319
92 AF2 198 -2.808
92 AF2 199 -3.296
92 AF2 200 -4.272
92 AF2 201 -6.226
92 AF2 202 -8.667
92 AF2 203 -11.108
92 AF2 204 -11.597
92 AF2 205 -10.132
92 AF2 206 -8.667
92 AF2 207 -7.690
92 AF2 208 -8.179
92 AF2 209 -9.644
92 AF2 210 -10.620
92 AF2 211 -10.132
92 AF2 212 -8.667
92 AF2 213 -7.202
92 AF2 214 -6.714
92 AF2 215 -6.714
92 AF2 216 -7.202
92 AF2 217 -6.714
92 AF2 218 -5.737
92 AF2 219 -4.761
92 AF2 220 -4.272
92 AF2 221 -5.737
92 AF2 222 -7.202
92 AF2 223 -8.667
92 AF2 224 -9.155
92 AF2 225 -9.644
92 AF2 226 -9.644
92 AF2 227 -9.644
92 AF2 228 -10.132
92 AF2 229 -9.644
92 AF2 230 -9.644
92 AF2 231 -8.179
92 AF2 232 -6.714
92 AF2 233 -4.761
92 AF2 234 -3.784
92 AF2 235 -3.296
92 AF2 236 -4.272
92 AF2 237 -4.761
92 AF2 238 -5.737
92 AF2 239 -4.761
92 AF2 240 -2.808
92 AF2 241 -0.854
92 AF2 242 1.099
92 AF2 243 1.099
92 AF2 244 -0.366
92 AF2 245 -2.808
92 AF2 246 -5.737
92 AF2 247 -7.202
92 AF2 248 -7.202
92 AF2 249 -6.226
92 AF2 250 -3.784
92 AF2 251 -1.343
92 AF2 252 0.610
92 AF2 253 0.610
92 AF2 254 0.122
92 AF2 255 -1.343
# FZ chan 6
92 FZ 0 2.055
92 FZ 1 4.008
92 FZ 2 4.008
92 FZ 3 3.031
92 FZ 4 0.590
92 FZ 5 -1.363
92 FZ 6 -2.340
92 FZ 7 -2.340
92 FZ 8 -1.363
92 FZ 9 -0.875
92 FZ 10 -1.363
92 FZ 11 -2.340
92 FZ 12 -3.805
92 FZ 13 -4.293
92 FZ 14 -4.293
92 FZ 15 -3.805
92 FZ 16 -2.828
92 FZ 17 -2.340
92 FZ 18 -1.851
92 FZ 19 -2.340
92 FZ 20 -3.805
92 FZ 21 -4.293
92 FZ 22 -4.293
92 FZ 23 -3.316
92 FZ 24 -1.363
92 FZ 25 0.590
92 FZ 26 2.055
92 FZ 27 2.543
92 FZ 28 2.543
92 FZ 29 2.543
92 FZ 30 2.543
92 FZ 31 2.543
92 FZ 32 3.031
92 FZ 33 2.543
92 FZ 34 2.055
92 FZ 35 1.078
92 FZ 36 0.590
92 FZ 37 0.590
92 FZ 38 0.590
92 FZ 39 0.590
92 FZ 40 -0.875
92 FZ 41 -1.363
92 FZ 42 -1.363
92 FZ 43 -0.387
92 FZ 44 0.590
92 FZ 45 1.567
92 FZ 46 2.055
92 FZ 47 1.567
92 FZ 48 0.590
92 FZ 49 0.590
92 FZ 50 0.590
92 FZ 51 1.078
92 FZ 52 1.078
92 FZ 53 1.078
92 FZ 54 0.590
92 FZ 55 0.102
92 FZ 56 0.590
92 FZ 57 1.078
92 FZ 58 2.055
92 FZ 59 2.055
92 FZ 60 2.055
92 FZ 61 1.078
92 FZ 62 1.078
92 FZ 63 1.567
92 FZ 64 3.031
92 FZ 65 4.496
92 FZ 66 5.961
92 FZ 67 5.961
92 FZ 68 4.985
92 FZ 69 3.520
92 FZ 70 1.567
92 FZ 71 0.590
92 FZ 72 -0.387
92 FZ 73 -0.875
92 FZ 74 -0.387
92 FZ 75 0.590
92 FZ 76 2.055
92 FZ 77 3.520
92 FZ 78 4.008
92 FZ 79 2.055
92 FZ 80 -0.875
92 FZ 81 -3.805
92 FZ 82 -5.758
92 FZ 83 -6.246
92 FZ 84 -4.781
92 FZ 85 -2.828
92 FZ 86 -0.387
92 FZ 87 1.078
92 FZ 88 2.055
92 FZ 89 2.543
92 FZ 90 2.543
92 FZ 91 1.567
92 FZ 92 0.102
92 FZ 93 -0.875
92 FZ 94 -1.363
92 FZ 95 -0.875
92 FZ 96 -0.387
92 FZ 97 0.102
92 FZ 98 -0.875
92 FZ 99 -3.316
92 FZ 100 -4.781
92 FZ 101 -6.246
92 FZ 102 -5.269
92 FZ 103 -3.805
92 FZ 104 -0.875
92 FZ 105 0.590
92 FZ 106 0.590
92 FZ 107 0.102
92 FZ 108 -0.875
92 FZ 109 -1.363
92 FZ 110 -1.363
92 FZ 111 -0.875
92 FZ 112 -0.875
92 FZ 113 -2.340
92 FZ 114 -3.805
92 FZ 115 -5.758
92 FZ 116 -6.734
92 FZ 117 -6.734
92 FZ 118 -5.269
92 FZ 119 -3.805
92 FZ 120 -2.340
92 FZ 121 -1.851
92 FZ 122 -1.363
92 FZ 123 -1.363
92 FZ 124 -0.387
92 FZ 125 0.102
92 FZ 126 0.590
92 FZ 127 1.078
92 FZ 128 1.078
92 FZ 129 1.567
92 FZ 130 2.055
92 FZ 131 2.543
92 FZ 132 1.567
92 FZ 133 0.590
92 FZ 134 -1.363
92 FZ 135 -3.316
92 FZ 136 -4.293
92 FZ 137 -4.781
92 FZ 138 -4.293
92 FZ 139 -4.293
92 FZ 140 -4.293
92 FZ 141 -3.805
92 FZ 142 -3.805
92 FZ 143 -2.828
92 FZ 144 -2.340
92 FZ 145 -1.363
92 FZ 146 -1.363
92 FZ 147 -0.875
92 FZ 148 -0.387
92 FZ 149 0.590
92 FZ 150 0.590
92 FZ 151 0.102
92 FZ 152 0.102
92 FZ 153 -1.363
92 FZ 154 -2.340
92 FZ 155 -3.316
92 FZ 156 -3.805
92 FZ 157 -3.805
92 FZ 158 -3.316
92 FZ 159 -2.340
92 FZ 160 -1.363
92 FZ 161 -0.875
92 FZ 162 -0.875
92 FZ 163 -1.363
92 FZ 164 -1.851
92 FZ 165 -2.340
92 FZ 166 -2.340
92 FZ 167 -1.363
92 FZ 168 -1.363
92 FZ 169 -0.875
92 FZ 170 -0.387
92 FZ 171 0.590
92 FZ 172 1.567
92 FZ 173 2.543
92 FZ 174 3.520
92 FZ 175 3.031
92 FZ 176 2.055
92 FZ 177 1.078
92 FZ 178 1.078
92 FZ 179 2.055
92 FZ 180 2.543
92 FZ 181 3.031
92 FZ 182 2.055
92 FZ 183 0.590
92 FZ 184 0.102
92 FZ 185 0.102
92 FZ 186 1.078
92 FZ 187 1.567
92 FZ 188 1.567
92 FZ 189 0.590
92 FZ 190 -0.387
92 FZ 191 -0.875
92 FZ 192 -0.387
92 FZ 193 0.102
92 FZ 194 0.102
92 FZ 195 -0.875
92 FZ 196 -1.363
92 FZ 197 -2.340
92 FZ 198 -2.340
92 FZ 199 -2.340
92 FZ 200 -3.316
92 FZ 201 -4.781
92 FZ 202 -7.222
92 FZ 203 -8.687
92 FZ 204 -8.687
92 FZ 205 -7.711
92 FZ 206 -6.734
92 FZ 207 -5.758
92 FZ 208 -6.246
92 FZ 209 -7.222
92 FZ 210 -7.711
92 FZ 211 -7.711
92 FZ 212 -7.222
92 FZ 213 -6.246
92 FZ 214 -5.758
92 FZ 215 -5.758
92 FZ 216 -5.758
92 FZ 217 -5.758
92 FZ 218 -4.781
92 FZ 219 -4.293
92 FZ 220 -4.293
92 FZ 221 -5.269
92 FZ 222 -6.246
92 FZ 223 -6.734
92 FZ 224 -7.711
92 FZ 225 -7.711
92 FZ 226 -8.199
92 FZ 227 -8.199
92 FZ 228 -8.199
92 FZ 229 -7.711
92 FZ 230 -6.246
92 FZ 231 -5.269
92 FZ 232 -3.316
92 FZ 233 -2.340
92 FZ 234 -0.875
92 FZ 235 -1.363
92 FZ 236 -2.340
92 FZ 237 -3.805
92 FZ 238 -4.293
92 FZ 239 -3.805
92 FZ 240 -1.363
92 FZ 241 1.078
92 FZ 242 2.543
92 FZ 243 2.055
92 FZ 244 0.102
92 FZ 245 -2.340
92 FZ 246 -4.293
92 FZ 247 -5.269
92 FZ 248 -4.781
92 FZ 249 -3.805
92 FZ 250 -2.340
92 FZ 251 -0.875
92 FZ 252 0.590
92 FZ 253 0.590
92 FZ 254 0.102
92 FZ 255 -1.363
# F4 chan 7
92 F4 0 2.533
92 F4 1 4.974
92 F4 2 5.951
92 F4 3 4.486
92 F4 4 2.045
92 F4 5 -0.885
92 F4 6 -3.326
92 F4 7 -4.303
92 F4 8 -3.815
92 F4 9 -3.815
92 F4 10 -3.326
92 F4 11 -3.815
92 F4 12 -3.815
92 F4 13 -4.303
92 F4 14 -4.303
92 F4 15 -3.815
92 F4 16 -3.326
92 F4 17 -3.815
92 F4 18 -4.303
92 F4 19 -5.280
92 F4 20 -6.744
92 F4 21 -6.744
92 F4 22 -5.768
92 F4 23 -3.326
92 F4 24 -0.397
92 F4 25 2.045
92 F4 26 3.510
92 F4 27 3.510
92 F4 28 2.533
92 F4 29 1.068
92 F4 30 0.580
92 F4 31 0.580
92 F4 32 1.068
92 F4 33 2.533
92 F4 34 3.510
92 F4 35 3.998
92 F4 36 3.998
92 F4 37 3.021
92 F4 38 1.556
92 F4 39 0.092
92 F4 40 -0.885
92 F4 41 -0.885
92 F4 42 0.092
92 F4 43 1.556
92 F4 44 2.533
92 F4 45 3.021
92 F4 46 2.533
92 F4 47 1.068
92 F4 48 -0.885
92 F4 49 -1.862
92 F4 50 -2.838
92 F4 51 -2.838
92 F4 52 -2.350
92 F4 53 -2.350
92 F4 54 -1.862
92 F4 55 -1.373
92 F4 56 -0.397
92 F4 57 0.092
92 F4 58 -0.397
92 F4 59 -1.373
92 F4 60 -2.350
92 F4 61 -3.326
92 F4 62 -2.350
92 F4 63 0.092
92 F4 64 2.533
92 F4 65 4.974
92 F4 66 5.463
92 F4 67 4.486
92 F4 68 3.021
92 F4 69 1.556
92 F4 70 1.068
92 F4 71 0.580
92 F4 72 0.092
92 F4 73 0.092
92 F4 74 0.580
92 F4 75 2.045
92 F4 76 3.998
92 F4 77 5.951
92 F4 78 5.463
92 F4 79 3.510
92 F4 80 -0.397
92 F4 81 -3.815
92 F4 82 -6.256
92 F4 83 -6.256
92 F4 84 -4.791
92 F4 85 -2.838
92 F4 86 -0.885
92 F4 87 0.580
92 F4 88 1.556
92 F4 89 1.556
92 F4 90 0.580
92 F4 91 -0.885
92 F4 92 -2.350
92 F4 93 -3.326
92 F4 94 -2.838
92 F4 95 -1.373
92 F4 96 -0.397
92 F4 97 -0.885
92 F4 98 -2.838
92 F4 99 -5.280
92 F4 100 -7.233
92 F4 101 -7.721
92 F4 102 -6.256
92 F4 103 -3.815
92 F4 104 -0.885
92 F4 105 0.580
92 F4 106 0.580
92 F4 107 -0.397
92 F4 108 -1.862
92 F4 109 -3.326
92 F4 110 -2.838
92 F4 111 -2.838
92 F4 112 -2.350
92 F4 113 -3.326
92 F4 114 -5.768
92 F4 115 -7.721
92 F4 116 -9.186
92 F4 117 -9.186
92 F4 118 -8.698
92 F4 119 -7.233
92 F4 120 -6.744
92 F4 121 -5.280
92 F4 122 -3.815
92 F4 123 -2.350
92 F4 124 -0.885
92 F4 125 0.092
92 F4 126 -0.397
92 F4 127 -1.373
92 F4 128 -2.350
92 F4 129 -1.862
92 F4 130 -0.885
92 F4 131 0.580
92 F4 132 1.556
92 F4 133 1.556
92 F4 134 0.092
92 F4 135 -1.862
92 F4 136 -3.326
92 F4 137 -4.791
92 F4 138 -5.280
92 F4 139 -4.791
92 F4 140 -4.791
92 F4 141 -3.815
92 F4 142 -3.326
92 F4 143 -3.326
92 F4 144 -3.326
92 F4 145 -3.326
92 F4 146 -3.326
92 F4 147 -2.350
92 F4 148 -1.373
92 F4 149 -0.397
92 F4 150 0.580
92 F4 151 0.580
92 F4 152 -0.397
92 F4 153 -1.862
92 F4 154 -3.815
92 F4 155 -4.791
92 F4 156 -4.791
92 F4 157 -4.791
92 F4 158 -3.815
92 F4 159 -2.838
92 F4 160 -2.350
92 F4 161 -2.350
92 F4 162 -2.838
92 F4 163 -3.326
92 F4 164 -2.838
92 F4 165 -2.350
92 F4 166 -1.373
92 F4 167 -0.885
92 F4 168 -0.885
92 F4 169 -0.397
92 F4 170 0.092
92 F4 171 1.556
92 F4 172 2.533
92 F4 173 3.021
92 F4 174 3.510
92 F4 175 3.021
92 F4 176 2.533
92 F4 177 2.533
92 F4 178 3.510
92 F4 179 3.998
92 F4 180 4.486
92 F4 181 3.998
92 F4 182 3.021
92 F4 183 2.045
92 F4 184 1.068
92 F4 185 1.556
92 F4 186 2.533
92 F4 187 3.021
92 F4 188 3.021
92 F4 189 1.556
92 F4 190 0.580
92 F4 191 0.092
92 F4 192 -0.397
92 F4 193 -0.397
92 F4 194 -0.397
92 F4 195 -1.373
92 F4 196 -2.350
92 F4 197 -2.350
92 F4 198 -2.838
92 F4 199 -2.838
92 F4 200 -3.815
92 F4 201 -5.280
92 F4 202 -7.721
92 F4 203 -9.186
92 F4 204 -9.186
92 F4 205 -8.209
92 F4 206 -6.256
92 F4 207 -5.768
92 F4 208 -6.256
92 F4 209 -7.233
92 F4 210 -7.721
92 F4 211 -6.744
92 F4 212 -4.791
92 F4 213 -3.815
92 F4 214 -3.326
92 F4 215 -4.303
92 F4 216 -4.791
92 F4 217 -3.815
92 F4 218 -2.350
92 F4 219 -1.373
92 F4 220 -1.373
92 F4 221 -3.326
92 F4 222 -5.280
92 F4 223 -7.721
92 F4 224 -9.186
92 F4 225 -9.674
92 F4 226 -9.674
92 F4 227 -9.674
92 F4 228 -9.674
92 F4 229 -9.186
92 F4 230 -8.209
92 F4 231 -7.233
92 F4 232 -6.256
92 F4 233 -4.791
92 F4 234 -4.303
92 F4 235 -4.303
92 F4 236 -4.791
92 F4 237 -5.280
92 F4 238 -5.280
92 F4 239 -4.791
92 F4 240 -2.350
92 F4 241 0.092
92 F4 242 2.045
92 F4 243 2.045
92 F4 244 -0.397
92 F4 245 -3.326
92 F4 246 -6.744
92 F4 247 -8.209
92 F4 248 -7.721
92 F4 249 -5.768
92 F4 250 -2.350
92 F4 251 0.580
92 F4 252 2.045
92 F4 253 2.045
92 F4 254 0.580
92 F4 255 -1.862
# F3 chan 8
92 F3 0 0.763
92 F3 1 3.204
92 F3 2 3.693
92 F3 3 2.716
92 F3 4 0.275
92 F3 5 -2.167
92 F3 6 -2.655
92 F3 7 -2.655
92 F3 8 -1.190
92 F3 9 -0.214
92 F3 10 -0.702
92 F3 11 -1.678
92 F3 12 -3.143
92 F3 13 -4.120
92 F3 14 -4.608
92 F3 15 -3.632
92 F3 16 -2.655
92 F3 17 -2.655
92 F3 18 -2.167
92 F3 19 -2.655
92 F3 20 -3.632
92 F3 21 -4.608
92 F3 22 -4.120
92 F3 23 -2.655
92 F3 24 -1.190
92 F3 25 0.763
92 F3 26 1.740
92 F3 27 1.740
92 F3 28 1.740
92 F3 29 1.740
92 F3 30 3.204
92 F3 31 4.181
92 F3 32 4.181
92 F3 33 2.228
92 F3 34 -0.214
92 F3 35 -2.655
92 F3 36 -3.632
92 F3 37 -3.143
92 F3 38 -2.167
92 F3 39 -1.190
92 F3 40 -1.678
92 F3 41 -2.655
92 F3 42 -3.143
92 F3 43 -2.655
92 F3 44 -1.678
92 F3 45 -0.214
92 F3 46 0.763
92 F3 47 0.763
92 F3 48 0.763
92 F3 49 0.763
92 F3 50 0.763
92 F3 51 0.763
92 F3 52 0.275
92 F3 53 -0.702
92 F3 54 -2.167
92 F3 55 -2.655
92 F3 56 -2.167
92 F3 57 -1.190
92 F3 58 0.275
92 F3 59 1.251
92 F3 60 1.251
92 F3 61 0.763
92 F3 62 -0.214
92 F3 63 -0.214
92 F3 64 0.275
92 F3 65 1.740
92 F3 66 3.204
92 F3 67 3.693
92 F3 68 2.716
92 F3 69 0.763
92 F3 70 -2.167
92 F3 71 -4.120
92 F3 72 -5.096
92 F3 73 -5.096
92 F3 74 -3.632
92 F3 75 -1.190
92 F3 76 1.251
92 F3 77 2.716
92 F3 78 2.716
92 F3 79 0.275
92 F3 80 -2.655
92 F3 81 -6.073
92 F3 82 -7.050
92 F3 83 -7.538
92 F3 84 -6.073
92 F3 85 -4.120
92 F3 86 -1.678
92 F3 87 0.763
92 F3 88 2.716
92 F3 89 3.693
92 F3 90 3.204
92 F3 91 1.740
92 F3 92 -0.214
92 F3 93 -2.167
92 F3 94 -2.655
92 F3 95 -2.655
92 F3 96 -1.190
92 F3 97 -0.214
92 F3 98 -0.214
92 F3 99 -1.190
92 F3 100 -2.655
92 F3 101 -4.608
92 F3 102 -4.120
92 F3 103 -2.655
92 F3 104 -0.702
92 F3 105 0.763
92 F3 106 0.763
92 F3 107 -0.702
92 F3 108 -2.167
92 F3 109 -3.143
92 F3 110 -2.655
92 F3 111 -1.678
92 F3 112 -0.702
92 F3 113 -1.190
92 F3 114 -2.655
92 F3 115 -5.096
92 F3 116 -6.561
92 F3 117 -6.561
92 F3 118 -4.608
92 F3 119 -2.167
92 F3 120 -0.214
92 F3 121 1.251
92 F3 122 0.763
92 F3 123 -0.214
92 F3 124 -1.190
92 F3 125 -1.190
92 F3 126 -0.702
92 F3 127 0.275
92 F3 128 1.740
92 F3 129 3.204
92 F3 130 4.181
92 F3 131 4.181
92 F3 132 2.716
92 F3 133 -0.214
92 F3 134 -3.143
92 F3 135 -5.585
92 F3 136 -6.561
92 F3 137 -6.561
92 F3 138 -6.073
92 F3 139 -5.585
92 F3 140 -4.608
92 F3 141 -4.608
92 F3 142 -4.120
92 F3 143 -3.632
92 F3 144 -3.143
92 F3 145 -2.655
92 F3 146 -3.143
92 F3 147 -2.655
92 F3 148 -2.167
92 F3 149 -1.190
92 F3 150 -0.214
92 F3 151 0.275
92 F3 152 -0.214
92 F3 153 -1.678
92 F3 154 -3.143
92 F3 155 -4.608
92 F3 156 -5.096
92 F3 157 -5.096
92 F3 158 -4.608
92 F3 159 -3.632
92 F3 160 -2.655
92 F3 161 -1.190
92 F3 162 -0.702
92 F3 163 -0.702
92 F3 164 -2.167
92 F3 165 -3.143
92 F3 166 -3.632
92 F3 167 -3.143
92 F3 168 -2.655
92 F3 169 -1.678
92 F3 170 -1.190
92 F3 171 -1.190
92 F3 172 -0.214
92 F3 173 0.763
92 F3 174 1.740
92 F3 175 1.740
92 F3 176 0.763
92 F3 177 -1.190
92 F3 178 -2.167
92 F3 179 -1.678
92 F3 180 -0.702
92 F3 181 0.275
92 F3 182 0.275
92 F3 183 -0.702
92 F3 184 -1.190
92 F3 185 -1.190
92 F3 186 -0.214
92 F3 187 0.275
92 F3 188 -0.214
92 F3 189 -1.678
92 F3 190 -3.143
92 F3 191 -4.608
92 F3 192 -4.608
92 F3 193 -3.143
92 F3 194 -1.678
92 F3 195 -0.702
92 F3 196 -0.702
92 F3 197 -1.678
92 F3 198 -2.655
92 F3 199 -3.632
92 F3 200 -5.585
92 F3 201 -8.026
92 F3 202 -10.956
92 F3 203 -13.397
92 F3 204 -13.397
92 F3 205 -11.444
92 F3 206 -9.003
92 F3 207 -7.050
92 F3 208 -7.050
92 F3 209 -8.514
92 F3 210 -9.979
92 F3 211 -10.468
92 F3 212 -10.468
92 F3 213 -9.003
92 F3 214 -8.514
92 F3 215 -8.514
92 F3 216 -8.514
92 F3 217 -8.026
92 F3 218 -8.026
92 F3 219 -7.538
92 F3 220 -7.538
92 F3 221 -8.026
92 F3 222 -8.514
92 F3 223 -8.026
92 F3 224 -8.026
92 F3 225 -7.538
92 F3 226 -7.538
92 F3 227 -7.538
92 F3 228 -8.026
92 F3 229 -7.050
92 F3 230 -6.073
92 F3 231 -4.608
92 F3 232 -2.655
92 F3 233 -0.702
92 F3 234 -0.214
92 F3 235 -1.190
92 F3 236 -3.143
92 F3 237 -5.585
92 F3 238 -7.538
92 F3 239 -7.538
92 F3 240 -5.585
92 F3 241 -2.655
92 F3 242 -0.702
92 F3 243 -0.214
92 F3 244 -1.678
92 F3 245 -2.655
92 F3 246 -4.120
92 F3 247 -4.120
92 F3 248 -3.632
92 F3 249 -3.632
92 F3 250 -3.143
92 F3 251 -2.655
92 F3 252 -2.167
92 F3 253 -1.678
92 F3 254 -2.167
92 F3 255 -2.655
# FC6 chan 9
92 FC6 0 1.689
92 FC6 1 4.130
92 FC6 2 5.107
92 FC6 3 4.618
92 FC6 4 2.177
92 FC6 5 -0.753
92 FC6 6 -4.171
92 FC6 7 -6.124
92 FC6 8 -6.612
92 FC6 9 -5.636
92 FC6 10 -4.171
92 FC6 11 -3.194
92 FC6 12 -2.706
92 FC6 13 -2.218
92 FC6 14 -2.218
92 FC6 15 -1.729
92 FC6 16 -1.241
92 FC6 17 -2.218
92 FC6 18 -3.682
92 FC6 19 -6.124
92 FC6 20 -7.589
92 FC6 21 -7.100
92 FC6 22 -5.147
92 FC6 23 -1.729
92 FC6 24 1.689
92 FC6 25 4.130
92 FC6 26 5.107
92 FC6 27 5.107
92 FC6 28 3.642
92 FC6 29 2.177
92 FC6 30 1.200
92 FC6 31 0.712
92 FC6 32 0.712
92 FC6 33 1.689
92 FC6 34 2.665
92 FC6 35 3.642
92 FC6 36 3.153
92 FC6 37 1.689
92 FC6 38 -0.264
92 FC6 39 -2.218
92 FC6 40 -2.706
92 FC6 41 -1.241
92 FC6 42 -0.264
92 FC6 43 1.200
92 FC6 44 2.177
92 FC6 45 2.177
92 FC6 46 1.689
92 FC6 47 0.712
92 FC6 48 -0.264
92 FC6 49 -1.241
92 FC6 50 -2.218
92 FC6 51 -3.682
92 FC6 52 -3.682
92 FC6 53 -3.682
92 FC6 54 -3.194
92 FC6 55 -2.218
92 FC6 56 -1.729
92 FC6 57 -1.241
92 FC6 58 -2.218
92 FC6 59 -3.682
92 FC6 60 -5.636
92 FC6 61 -6.612
92 FC6 62 -6.124
92 FC6 63 -3.682
92 FC6 64 -1.241
92 FC6 65 0.712
92 FC6 66 0.712
92 FC6 67 -0.753
92 FC6 68 -2.706
92 FC6 69 -3.682
92 FC6 70 -2.706
92 FC6 71 -1.241
92 FC6 72 -0.264
92 FC6 73 0.712
92 FC6 74 1.200
92 FC6 75 2.665
92 FC6 76 4.618
92 FC6 77 6.571
92 FC6 78 6.571
92 FC6 79 4.130
92 FC6 80 1.200
92 FC6 81 -1.729
92 FC6 82 -3.194
92 FC6 83 -2.706
92 FC6 84 -1.241
92 FC6 85 -0.264
92 FC6 86 0.712
92 FC6 87 0.712
92 FC6 88 1.200
92 FC6 89 1.689
92 FC6 90 1.200
92 FC6 91 -1.241
92 FC6 92 -3.682
92 FC6 93 -5.147
92 FC6 94 -5.147
92 FC6 95 -3.194
92 FC6 96 -0.753
92 FC6 97 0.224
92 FC6 98 -0.264
92 FC6 99 -2.218
92 FC6 100 -4.171
92 FC6 101 -4.171
92 FC6 102 -2.706
92 FC6 103 -0.753
92 FC6 104 1.689
92 FC6 105 2.177
92 FC6 106 1.689
92 FC6 107 0.224
92 FC6 108 -1.729
92 FC6 109 -2.218
92 FC6 110 -2.218
92 FC6 111 -1.729
92 FC6 112 -1.241
92 FC6 113 -2.218
92 FC6 114 -4.171
92 FC6 115 -6.612
92 FC6 116 -8.077
92 FC6 117 -8.565
92 FC6 118 -8.077
92 FC6 119 -7.100
92 FC6 120 -6.612
92 FC6 121 -5.636
92 FC6 122 -3.682
92 FC6 123 -1.729
92 FC6 124 0.224
92 FC6 125 1.200
92 FC6 126 0.712
92 FC6 127 -1.241
92 FC6 128 -2.218
92 FC6 129 -2.218
92 FC6 130 -0.753
92 FC6 131 1.689
92 FC6 132 3.153
92 FC6 133 3.153
92 FC6 134 2.177
92 FC6 135 0.224
92 FC6 136 -1.729
92 FC6 137 -3.194
92 FC6 138 -3.682
92 FC6 139 -3.194
92 FC6 140 -2.218
92 FC6 141 -1.729
92 FC6 142 -1.241
92 FC6 143 -1.241
92 FC6 144 -1.729
92 FC6 145 -2.706
92 FC6 146 -2.706
92 FC6 147 -2.218
92 FC6 148 -0.753
92 FC6 149 0.224
92 FC6 150 1.200
92 FC6 151 1.200
92 FC6 152 0.224
92 FC6 153 -1.729
92 FC6 154 -3.194
92 FC6 155 -4.659
92 FC6 156 -4.659
92 FC6 157 -3.682
92 FC6 158 -2.218
92 FC6 159 -1.241
92 FC6 160 -0.753
92 FC6 161 -0.753
92 FC6 162 -0.753
92 FC6 163 -0.753
92 FC6 164 -0.264
92 FC6 165 0.224
92 FC6 166 1.200
92 FC6 167 1.200
92 FC6 168 1.689
92 FC6 169 1.689
92 FC6 170 2.665
92 FC6 171 3.153
92 FC6 172 4.130
92 FC6 173 4.618
92 FC6 174 5.107
92 FC6 175 4.618
92 FC6 176 4.618
92 FC6 177 4.618
92 FC6 178 4.618
92 FC6 179 4.130
92 FC6 180 3.642
92 FC6 181 2.665
92 FC6 182 2.177
92 FC6 183 2.177
92 FC6 184 2.665
92 FC6 185 3.153
92 FC6 186 3.153
92 FC6 187 2.177
92 FC6 188 1.200
92 FC6 189 -0.753
92 FC6 190 -2.218
92 FC6 191 -3.194
92 FC6 192 -3.194
92 FC6 193 -2.218
92 FC6 194 -1.729
92 FC6 195 -1.241
92 FC6 196 -1.241
92 FC6 197 -1.241
92 FC6 198 -1.729
92 FC6 199 -1.729
92 FC6 200 -2.706
92 FC6 201 -5.147
92 FC6 202 -7.589
92 FC6 203 -8.565
92 FC6 204 -8.565
92 FC6 205 -6.124
92 FC6 206 -3.682
92 FC6 207 -2.218
92 FC6 208 -1.729
92 FC6 209 -2.706
92 FC6 210 -2.706
92 FC6 211 -2.218
92 FC6 212 -1.241
92 FC6 213 -1.241
92 FC6 214 -2.218
92 FC6 215 -3.682
92 FC6 216 -4.171
92 FC6 217 -2.706
92 FC6 218 -0.753
92 FC6 219 1.200
92 FC6 220 1.200
92 FC6 221 -1.241
92 FC6 222 -4.659
92 FC6 223 -7.589
92 FC6 224 -9.542
92 FC6 225 -10.030
92 FC6 226 -9.054
92 FC6 227 -9.054
92 FC6 228 -9.054
92 FC6 229 -9.054
92 FC6 230 -9.054
92 FC6 231 -8.565
92 FC6 232 -7.589
92 FC6 233 -6.124
92 FC6 234 -4.659
92 FC6 235 -4.171
92 FC6 236 -5.147
92 FC6 237 -6.612
92 FC6 238 -8.077
92 FC6 239 -8.077
92 FC6 240 -5.636
92 FC6 241 -2.218
92 FC6 242 0.712
92 FC6 243 2.177
92 FC6 244 0.712
92 FC6 245 -2.706
92 FC6 246 -6.124
92 FC6 247 -7.100
92 FC6 248 -5.147
92 FC6 249 -1.729
92 FC6 250 1.200
92 FC6 251 3.642
92 FC6 252 3.642
92 FC6 253 2.665
92 FC6 254 1.689
92 FC6 255 0.712
# FC5 chan 10
92 FC5 0 0.468
92 FC5 1 3.886
92 FC5 2 4.862
92 FC5 3 2.909
92 FC5 4 -0.020
92 FC5 5 -2.462
92 FC5 6 -2.950
92 FC5 7 -1.973
92 FC5 8 -0.020
92 FC5 9 0.956
92 FC5 10 0.956
92 FC5 11 -0.509
92 FC5 12 -1.973
92 FC5 13 -2.950
92 FC5 14 -3.438
92 FC5 15 -3.438
92 FC5 16 -2.950
92 FC5 17 -2.950
92 FC5 18 -3.927
92 FC5 19 -4.903
92 FC5 20 -5.880
92 FC5 21 -5.880
92 FC5 22 -3.927
92 FC5 23 -1.485
92 FC5 24 0.956
92 FC5 25 1.933
92 FC5 26 1.933
92 FC5 27 0.956
92 FC5 28 0.956
92 FC5 29 2.421
92 FC5 30 5.351
92 FC5 31 7.792
92 FC5 32 7.792
92 FC5 33 4.862
92 FC5 34 -0.020
92 FC5 35 -4.903
92 FC5 36 -6.368
92 FC5 37 -5.391
92 FC5 38 -3.438
92 FC5 39 -1.973
92 FC5 40 -2.462
92 FC5 41 -3.927
92 FC5 42 -4.415
92 FC5 43 -3.438
92 FC5 44 -0.997
92 FC5 45 0.956
92 FC5 46 1.444
92 FC5 47 0.956
92 FC5 48 0.468
92 FC5 49 0.468
92 FC5 50 0.956
92 FC5 51 1.444
92 FC5 52 0.468
92 FC5 53 -1.485
92 FC5 54 -3.438
92 FC5 55 -4.415
92 FC5 56 -3.927
92 FC5 57 -2.950
92 FC5 58 -1.973
92 FC5 59 -1.485
92 FC5 60 -2.462
92 FC5 61 -2.950
92 FC5 62 -3.438
92 FC5 63 -2.462
92 FC5 64 -0.997
92 FC5 65 -0.020
92 FC5 66 -0.020
92 FC5 67 -0.997
92 FC5 68 -2.950
92 FC5 69 -5.391
92 FC5 70 -7.345
92 FC5 71 -9.298
92 FC5 72 -9.298
92 FC5 73 -8.321
92 FC5 74 -5.391
92 FC5 75 -1.485
92 FC5 76 1.933
92 FC5 77 3.886
92 FC5 78 3.398
92 FC5 79 0.956
92 FC5 80 -1.973
92 FC5 81 -5.391
92 FC5 82 -6.856
92 FC5 83 -6.856
92 FC5 84 -5.880
92 FC5 85 -3.438
92 FC5 86 -0.997
92 FC5 87 1.444
92 FC5 88 3.398
92 FC5 89 5.351
92 FC5 90 5.351
92 FC5 91 3.886
92 FC5 92 0.956
92 FC5 93 -1.973
92 FC5 94 -3.927
92 FC5 95 -4.415
92 FC5 96 -2.462
92 FC5 97 -0.020
92 FC5 98 1.933
92 FC5 99 2.421
92 FC5 100 1.933
92 FC5 101 0.468
92 FC5 102 -0.509
92 FC5 103 -0.509
92 FC5 104 -0.020
92 FC5 105 0.468
92 FC5 106 -0.020
92 FC5 107 -0.997
92 FC5 108 -2.950
92 FC5 109 -4.415
92 FC5 110 -3.927
92 FC5 111 -1.973
92 FC5 112 -0.020
92 FC5 113 0.956
92 FC5 114 0.468
92 FC5 115 -1.485
92 FC5 116 -3.438
92 FC5 117 -4.415
92 FC5 118 -2.462
92 FC5 119 0.468
92 FC5 120 2.909
92 FC5 121 3.398
92 FC5 122 1.933
92 FC5 123 -0.997
92 FC5 124 -3.927
92 FC5 125 -4.903
92 FC5 126 -3.927
92 FC5 127 -1.973
92 FC5 128 0.956
92 FC5 129 2.421
92 FC5 130 3.398
92 FC5 131 2.421
92 FC5 132 0.956
92 FC5 133 -2.462
92 FC5 134 -5.391
92 FC5 135 -8.321
92 FC5 136 -9.786
92 FC5 137 -10.274
92 FC5 138 -10.274
92 FC5 139 -9.298
92 FC5 140 -8.321
92 FC5 141 -6.368
92 FC5 142 -4.415
92 FC5 143 -3.438
92 FC5 144 -3.438
92 FC5 145 -4.903
92 FC5 146 -6.368
92 FC5 147 -5.880
92 FC5 148 -3.927
92 FC5 149 -0.020
92 FC5 150 3.398
92 FC5 151 4.374
92 FC5 152 2.421
92 FC5 153 -1.485
92 FC5 154 -5.391
92 FC5 155 -7.833
92 FC5 156 -7.833
92 FC5 157 -6.856
92 FC5 158 -5.880
92 FC5 159 -4.903
92 FC5 160 -3.927
92 FC5 161 -1.973
92 FC5 162 -0.509
92 FC5 163 -0.020
92 FC5 164 -0.997
92 FC5 165 -3.438
92 FC5 166 -5.391
92 FC5 167 -5.880
92 FC5 168 -4.903
92 FC5 169 -3.438
92 FC5 170 -1.485
92 FC5 171 -0.509
92 FC5 172 -0.509
92 FC5 173 -0.509
92 FC5 174 -0.509
92 FC5 175 -0.997
92 FC5 176 -2.462
92 FC5 177 -3.927
92 FC5 178 -5.880
92 FC5 179 -5.880
92 FC5 180 -4.903
92 FC5 181 -3.438
92 FC5 182 -1.973
92 FC5 183 -1.485
92 FC5 184 -0.997
92 FC5 185 -0.509
92 FC5 186 0.468
92 FC5 187 0.468
92 FC5 188 -1.485
92 FC5 189 -5.391
92 FC5 190 -9.298
92 FC5 191 -11.251
92 FC5 192 -10.274
92 FC5 193 -6.368
92 FC5 194 -1.973
92 FC5 195 0.956
92 FC5 196 1.444
92 FC5 197 -0.020
92 FC5 198 -2.462
92 FC5 199 -4.903
92 FC5 200 -6.856
92 FC5 201 -10.274
92 FC5 202 -13.692
92 FC5 203 -16.622
92 FC5 204 -17.110
92 FC5 205 -14.181
92 FC5 206 -9.786
92 FC5 207 -6.368
92 FC5 208 -4.903
92 FC5 209 -5.880
92 FC5 210 -8.321
92 FC5 211 -9.786
92 FC5 212 -10.274
92 FC5 213 -9.298
92 FC5 214 -8.321
92 FC5 215 -8.321
92 FC5 216 -8.321
92 FC5 217 -8.321
92 FC5 218 -8.321
92 FC5 219 -8.321
92 FC5 220 -9.298
92 FC5 221 -10.274
92 FC5 222 -10.274
92 FC5 223 -9.786
92 FC5 224 -8.809
92 FC5 225 -7.833
92 FC5 226 -7.345
92 FC5 227 -7.345
92 FC5 228 -7.345
92 FC5 229 -6.856
92 FC5 230 -5.391
92 FC5 231 -3.927
92 FC5 232 -1.973
92 FC5 233 -0.509
92 FC5 234 -0.020
92 FC5 235 -0.509
92 FC5 236 -3.438
92 FC5 237 -6.856
92 FC5 238 -10.274
92 FC5 239 -11.739
92 FC5 240 -11.251
92 FC5 241 -8.809
92 FC5 242 -5.391
92 FC5 243 -3.438
92 FC5 244 -2.462
92 FC5 245 -1.973
92 FC5 246 -1.973
92 FC5 247 -1.973
92 FC5 248 -1.973
92 FC5 249 -1.485
92 FC5 250 -1.973
92 FC5 251 -2.462
92 FC5 252 -3.438
92 FC5 253 -3.438
92 FC5 254 -3.927
92 FC5 255 -3.927
# FC2 chan 11
92 FC2 0 1.383
92 FC2 1 2.848
92 FC2 2 2.848
92 FC2 3 2.360
92 FC2 4 0.895
92 FC2 5 -0.570
92 FC2 6 -1.058
92 FC2 7 -1.058
92 FC2 8 -1.058
92 FC2 9 -0.570
92 FC2 10 -1.058
92 FC2 11 -1.546
92 FC2 12 -2.523
92 FC2 13 -2.523
92 FC2 14 -3.011
92 FC2 15 -2.523
92 FC2 16 -2.035
92 FC2 17 -1.546
92 FC2 18 -1.058
92 FC2 19 -2.035
92 FC2 20 -2.523
92 FC2 21 -3.011
92 FC2 22 -3.011
92 FC2 23 -2.035
92 FC2 24 -0.081
92 FC2 25 1.383
92 FC2 26 2.848
92 FC2 27 2.848
92 FC2 28 2.360
92 FC2 29 0.895
92 FC2 30 0.407
92 FC2 31 -0.081
92 FC2 32 0.407
92 FC2 33 1.383
92 FC2 34 2.360
92 FC2 35 2.848
92 FC2 36 3.337
92 FC2 37 2.848
92 FC2 38 1.872
92 FC2 39 0.407
92 FC2 40 -0.570
92 FC2 41 -0.570
92 FC2 42 -0.570
92 FC2 43 0.407
92 FC2 44 1.383
92 FC2 45 1.872
92 FC2 46 1.383
92 FC2 47 -0.081
92 FC2 48 -1.058
92 FC2 49 -2.035
92 FC2 50 -2.035
92 FC2 51 -2.035
92 FC2 52 -0.570
92 FC2 53 -0.570
92 FC2 54 -0.081
92 FC2 55 -0.081
92 FC2 56 -0.081
92 FC2 57 -0.081
92 FC2 58 -0.081
92 FC2 59 -0.081
92 FC2 60 -0.570
92 FC2 61 -0.570
92 FC2 62 -0.570
92 FC2 63 0.407
92 FC2 64 1.872
92 FC2 65 3.337
92 FC2 66 4.313
92 FC2 67 3.825
92 FC2 68 3.337
92 FC2 69 2.848
92 FC2 70 2.360
92 FC2 71 2.360
92 FC2 72 1.872
92 FC2 73 0.895
92 FC2 74 0.407
92 FC2 75 0.895
92 FC2 76 1.383
92 FC2 77 2.360
92 FC2 78 2.848
92 FC2 79 1.872
92 FC2 80 0.407
92 FC2 81 -1.058
92 FC2 82 -2.523
92 FC2 83 -2.523
92 FC2 84 -1.546
92 FC2 85 -0.081
92 FC2 86 0.407
92 FC2 87 0.895
92 FC2 88 0.895
92 FC2 89 0.407
92 FC2 90 -0.570
92 FC2 91 -2.035
92 FC2 92 -2.523
92 FC2 93 -2.523
92 FC2 94 -2.035
92 FC2 95 -0.081
92 FC2 96 0.895
92 FC2 97 1.383
92 FC2 98 -0.081
92 FC2 99 -2.035
92 FC2 100 -3.499
92 FC2 101 -3.988
92 FC2 102 -3.011
92 FC2 103 -1.546
92 FC2 104 0.895
92 FC2 105 2.360
92 FC2 106 2.848
92 FC2 107 2.360
92 FC2 108 1.383
92 FC2 109 0.407
92 FC2 110 -0.081
92 FC2 111 -0.570
92 FC2 112 -1.546
92 FC2 113 -2.523
92 FC2 114 -3.499
92 FC2 115 -3.988
92 FC2 116 -3.988
92 FC2 117 -3.988
92 FC2 118 -3.988
92 FC2 119 -3.988
92 FC2 120 -3.988
92 FC2 121 -3.988
92 FC2 122 -3.011
92 FC2 123 -1.546
92 FC2 124 -0.081
92 FC2 125 0.895
92 FC2 126 0.895
92 FC2 127 0.407
92 FC2 128 -0.081
92 FC2 129 -0.570
92 FC2 130 -0.570
92 FC2 131 -0.081
92 FC2 132 -0.081
92 FC2 133 0.407
92 FC2 134 -0.081
92 FC2 135 -0.570
92 FC2 136 -1.058
92 FC2 137 -2.035
92 FC2 138 -2.523
92 FC2 139 -2.523
92 FC2 140 -2.523
92 FC2 141 -2.523
92 FC2 142 -2.035
92 FC2 143 -1.058
92 FC2 144 -0.570
92 FC2 145 -0.081
92 FC2 146 0.407
92 FC2 147 0.895
92 FC2 148 0.407
92 FC2 149 0.895
92 FC2 150 0.407
92 FC2 151 0.407
92 FC2 152 0.407
92 FC2 153 0.895
92 FC2 154 0.407
92 FC2 155 -0.081
92 FC2 156 -0.570
92 FC2 157 -1.058
92 FC2 158 -1.058
92 FC2 159 -1.058
92 FC2 160 -0.570
92 FC2 161 -0.081
92 FC2 162 0.407
92 FC2 163 0.895
92 FC2 164 0.895
92 FC2 165 0.895
92 FC2 166 0.895
92 FC2 167 0.407
92 FC2 168 0.407
92 FC2 169 0.895
92 FC2 170 1.383
92 FC2 171 1.872
92 FC2 172 2.848
92 FC2 173 3.337
92 FC2 174 3.825
92 FC2 175 3.825
92 FC2 176 3.337
92 FC2 177 3.337
92 FC2 178 3.825
92 FC2 179 4.313
92 FC2 180 4.801
92 FC2 181 4.313
92 FC2 182 2.848
92 FC2 183 1.872
92 FC2 184 1.383
92 FC2 185 1.383
92 FC2 186 1.872
92 FC2 187 2.360
92 FC2 188 2.360
92 FC2 189 2.360
92 FC2 190 1.872
92 FC2 191 1.383
92 FC2 192 0.895
92 FC2 193 0.895
92 FC2 194 0.407
92 FC2 195 -0.081
92 FC2 196 -0.081
92 FC2 197 -0.081
92 FC2 198 0.407
92 FC2 199 0.895
92 FC2 200 0.407
92 FC2 201 -0.570
92 FC2 202 -2.035
92 FC2 203 -2.523
92 FC2 204 -2.523
92 FC2 205 -2.035
92 FC2 206 -1.058
92 FC2 207 -1.058
92 FC2 208 -1.546
92 FC2 209 -2.035
92 FC2 210 -1.546
92 FC2 211 -1.058
92 FC2 212 -0.570
92 FC2 213 -0.570
92 FC2 214 -0.570
92 FC2 215 -1.058
92 FC2 216 -1.546
92 FC2 217 -1.546
92 FC2 218 -1.058
92 FC2 219 -0.081
92 FC2 220 -0.081
92 FC2 221 -0.570
92 FC2 222 -1.058
92 FC2 223 -3.011
92 FC2 224 -3.988
92 FC2 225 -5.452
92 FC2 226 -5.941
92 FC2 227 -5.941
92 FC2 228 -5.941
92 FC2 229 -4.964
92 FC2 230 -3.988
92 FC2 231 -3.011
92 FC2 232 -2.035
92 FC2 233 -1.058
92 FC2 234 -0.570
92 FC2 235 -1.058
92 FC2 236 -1.546
92 FC2 237 -2.035
92 FC2 238 -2.035
92 FC2 239 -1.058
92 FC2 240 0.407
92 FC2 241 2.360
92 FC2 242 3.337
92 FC2 243 2.848
92 FC2 244 0.895
92 FC2 245 -1.546
92 FC2 246 -3.988
92 FC2 247 -4.964
92 FC2 248 -4.476
92 FC2 249 -3.011
92 FC2 250 -0.570
92 FC2 251 1.383
92 FC2 252 2.360
92 FC2 253 2.360
92 FC2 254 1.383
92 FC2 255 -0.081
# FC1 chan 12
92 FC1 0 1.923
92 FC1 1 3.387
92 FC1 2 3.387
92 FC1 3 2.899
92 FC1 4 0.946
92 FC1 5 -0.519
92 FC1 6 -1.007
92 FC1 7 -0.031
92 FC1 8 0.946
92 FC1 9 1.434
92 FC1 10 1.434
92 FC1 11 0.458
92 FC1 12 -1.007
92 FC1 13 -1.984
92 FC1 14 -2.472
92 FC1 15 -1.495
92 FC1 16 -1.007
92 FC1 17 -0.031
92 FC1 18 -0.031
92 FC1 19 -0.519
92 FC1 20 -1.984
92 FC1 21 -2.472
92 FC1 22 -2.472
92 FC1 23 -1.495
92 FC1 24 -0.031
92 FC1 25 1.434
92 FC1 26 1.434
92 FC1 27 1.434
92 FC1 28 1.434
92 FC1 29 1.434
92 FC1 30 2.411
92 FC1 31 3.387
92 FC1 32 3.876
92 FC1 33 2.899
92 FC1 34 0.946
92 FC1 35 -0.519
92 FC1 36 -1.495
92 FC1 37 -1.007
92 FC1 38 -0.031
92 FC1 39 0.946
92 FC1 40 0.458
92 FC1 41 -0.031
92 FC1 42 -1.007
92 FC1 43 -1.007
92 FC1 44 -0.031
92 FC1 45 0.946
92 FC1 46 1.923
92 FC1 47 1.923
92 FC1 48 1.923
92 FC1 49 1.923
92 FC1 50 1.923
92 FC1 51 1.923
92 FC1 52 1.434
92 FC1 53 0.458
92 FC1 54 -0.031
92 FC1 55 -0.031
92 FC1 56 0.458
92 FC1 57 1.434
92 FC1 58 2.899
92 FC1 59 2.899
92 FC1 60 2.899
92 FC1 61 2.411
92 FC1 62 1.923
92 FC1 63 1.923
92 FC1 64 2.411
92 FC1 65 2.899
92 FC1 66 3.876
92 FC1 67 3.387
92 FC1 68 2.899
92 FC1 69 1.923
92 FC1 70 0.458
92 FC1 71 -0.519
92 FC1 72 -1.495
92 FC1 73 -1.007
92 FC1 74 -0.031
92 FC1 75 1.434
92 FC1 76 2.899
92 FC1 77 3.876
92 FC1 78 3.876
92 FC1 79 2.899
92 FC1 80 0.946
92 FC1 81 -1.495
92 FC1 82 -3.448
92 FC1 83 -3.448
92 FC1 84 -2.960
92 FC1 85 -1.007
92 FC1 86 0.458
92 FC1 87 1.923
92 FC1 88 2.899
92 FC1 89 2.899
92 FC1 90 2.899
92 FC1 91 1.923
92 FC1 92 1.434
92 FC1 93 0.458
92 FC1 94 -0.031
92 FC1 95 -0.031
92 FC1 96 0.946
92 FC1 97 1.434
92 FC1 98 1.434
92 FC1 99 0.458
92 FC1 100 -0.031
92 FC1 101 -1.495
92 FC1 102 -1.495
92 FC1 103 -0.519
92 FC1 104 0.458
92 FC1 105 0.946
92 FC1 106 0.946
92 FC1 107 0.458
92 FC1 108 -0.519
92 FC1 109 -1.007
92 FC1 110 -0.519
92 FC1 111 -0.031
92 FC1 112 0.458
92 FC1 113 0.458
92 FC1 114 -0.519
92 FC1 115 -1.984
92 FC1 116 -2.960
92 FC1 117 -2.960
92 FC1 118 -1.984
92 FC1 119 -0.519
92 FC1 120 0.458
92 FC1 121 0.946
92 FC1 122 0.458
92 FC1 123 -0.031
92 FC1 124 -0.519
92 FC1 125 -0.031
92 FC1 126 -0.031
92 FC1 127 0.458
92 FC1 128 0.946
92 FC1 129 1.434
92 FC1 130 2.411
92 FC1 131 2.411
92 FC1 132 1.923
92 FC1 133 -0.031
92 FC1 134 -1.984
92 FC1 135 -3.937
92 FC1 136 -4.425
92 FC1 137 -4.425
92 FC1 138 -3.937
92 FC1 139 -2.960
92 FC1 140 -2.472
92 FC1 141 -2.472
92 FC1 142 -1.984
92 FC1 143 -1.495
92 FC1 144 -1.495
92 FC1 145 -1.495
92 FC1 146 -1.495
92 FC1 147 -1.495
92 FC1 148 -1.495
92 FC1 149 -0.031
92 FC1 150 0.946
92 FC1 151 1.434
92 FC1 152 0.946
92 FC1 153 -0.031
92 FC1 154 -1.007
92 FC1 155 -1.984
92 FC1 156 -2.472
92 FC1 157 -2.472
92 FC1 158 -2.472
92 FC1 159 -1.495
92 FC1 160 -1.007
92 FC1 161 -0.031
92 FC1 162 0.458
92 FC1 163 -0.031
92 FC1 164 -1.007
92 FC1 165 -1.984
92 FC1 166 -2.472
92 FC1 167 -2.472
92 FC1 168 -1.984
92 FC1 169 -1.495
92 FC1 170 -0.519
92 FC1 171 -0.031
92 FC1 172 0.458
92 FC1 173 1.434
92 FC1 174 1.923
92 FC1 175 1.434
92 FC1 176 0.458
92 FC1 177 -0.519
92 FC1 178 -1.495
92 FC1 179 -1.007
92 FC1 180 -0.031
92 FC1 181 0.946
92 FC1 182 1.434
92 FC1 183 0.946
92 FC1 184 0.458
92 FC1 185 -0.031
92 FC1 186 -0.031
92 FC1 187 -0.031
92 FC1 188 -1.007
92 FC1 189 -1.984
92 FC1 190 -2.960
92 FC1 191 -2.960
92 FC1 192 -1.984
92 FC1 193 -1.007
92 FC1 194 -0.031
92 FC1 195 0.458
92 FC1 196 -0.031
92 FC1 197 -0.519
92 FC1 198 -1.495
92 FC1 199 -2.472
92 FC1 200 -3.448
92 FC1 201 -4.913
92 FC1 202 -6.378
92 FC1 203 -7.355
92 FC1 204 -6.866
92 FC1 205 -5.402
92 FC1 206 -4.425
92 FC1 207 -3.448
92 FC1 208 -3.937
92 FC1 209 -4.913
92 FC1 210 -5.402
92 FC1 211 -5.402
92 FC1 212 -4.913
92 FC1 213 -3.937
92 FC1 214 -3.448
92 FC1 215 -2.960
92 FC1 216 -3.448
92 FC1 217 -3.448
92 FC1 218 -3.448
92 FC1 219 -3.448
92 FC1 220 -3.448
92 FC1 221 -3.937
92 FC1 222 -4.425
92 FC1 223 -4.425
92 FC1 224 -3.937
92 FC1 225 -3.448
92 FC1 226 -2.960
92 FC1 227 -2.960
92 FC1 228 -2.960
92 FC1 229 -2.472
92 FC1 230 -2.472
92 FC1 231 -1.984
92 FC1 232 -1.007
92 FC1 233 -0.031
92 FC1 234 0.458
92 FC1 235 -0.031
92 FC1 236 -1.007
92 FC1 237 -2.472
92 FC1 238 -3.448
92 FC1 239 -2.960
92 FC1 240 -1.984
92 FC1 241 -0.031
92 FC1 242 1.434
92 FC1 243 1.434
92 FC1 244 0.458
92 FC1 245 -0.031
92 FC1 246 -1.007
92 FC1 247 -1.495
92 FC1 248 -1.007
92 FC1 249 -1.495
92 FC1 250 -1.495
92 FC1 251 -1.007
92 FC1 252 -0.519
92 FC1 253 -0.031
92 FC1 254 -0.519
92 FC1 255 -1.984
# T8 chan 13
92 T8 0 0.610
92 T8 1 1.587
92 T8 2 2.075
92 T8 3 2.075
92 T8 4 1.099
92 T8 5 -0.854
92 T8 6 -3.784
92 T8 7 -6.226
92 T8 8 -6.714
92 T8 9 -6.226
92 T8 10 -5.249
92 T8 11 -3.296
92 T8 12 -2.808
92 T8 13 -2.319
92 T8 14 -2.808
92 T8 15 -3.296
92 T8 16 -3.784
92 T8 17 -3.784
92 T8 18 -4.761
92 T8 19 -6.226
92 T8 20 -7.202
92 T8 21 -7.690
92 T8 22 -5.737
92 T8 23 -2.319
92 T8 24 1.099
92 T8 25 4.028
92 T8 26 5.981
92 T8 27 5.981
92 T8 28 5.981
92 T8 29 5.005
92 T8 30 4.028
92 T8 31 2.563
92 T8 32 0.610
92 T8 33 -0.366
92 T8 34 -0.366
92 T8 35 0.122
92 T8 36 0.122
92 T8 37 -0.854
92 T8 38 -3.296
92 T8 39 -4.761
92 T8 40 -4.761
92 T8 41 -2.808
92 T8 42 -0.366
92 T8 43 1.099
92 T8 44 1.587
92 T8 45 0.610
92 T8 46 0.122
92 T8 47 1.099
92 T8 48 2.075
92 T8 49 2.563
92 T8 50 1.587
92 T8 51 -0.366
92 T8 52 -1.831
92 T8 53 -2.808
92 T8 54 -1.831
92 T8 55 -0.854
92 T8 56 -0.854
92 T8 57 -1.831
92 T8 58 -4.761
92 T8 59 -7.690
92 T8 60 -10.132
92 T8 61 -10.132
92 T8 62 -9.644
92 T8 63 -8.179
92 T8 64 -7.202
92 T8 65 -7.202
92 T8 66 -7.690
92 T8 67 -8.667
92 T8 68 -9.155
92 T8 69 -9.155
92 T8 70 -8.179
92 T8 71 -6.226
92 T8 72 -3.784
92 T8 73 -1.343
92 T8 74 0.122
92 T8 75 1.587
92 T8 76 2.075
92 T8 77 2.563
92 T8 78 3.052
92 T8 79 2.563
92 T8 80 1.587
92 T8 81 0.122
92 T8 82 -1.343
92 T8 83 -2.319
92 T8 84 -2.808
92 T8 85 -2.808
92 T8 86 -2.319
92 T8 87 -1.343
92 T8 88 -0.366
92 T8 89 0.122
92 T8 90 0.122
92 T8 91 -1.343
92 T8 92 -2.808
92 T8 93 -4.761
92 T8 94 -5.737
92 T8 95 -5.737
92 T8 96 -4.761
92 T8 97 -3.296
92 T8 98 -2.319
92 T8 99 -2.808
92 T8 100 -3.296
92 T8 101 -4.272
92 T8 102 -4.272
92 T8 103 -2.808
92 T8 104 -0.854
92 T8 105 0.122
92 T8 106 -0.854
92 T8 107 -3.296
92 T8 108 -5.249
92 T8 109 -6.226
92 T8 110 -5.249
92 T8 111 -2.808
92 T8 112 -0.366
92 T8 113 -0.366
92 T8 114 -1.831
92 T8 115 -4.761
92 T8 116 -7.202
92 T8 117 -8.179
92 T8 118 -7.690
92 T8 119 -6.226
92 T8 120 -5.737
92 T8 121 -5.249
92 T8 122 -4.761
92 T8 123 -3.784
92 T8 124 -1.831
92 T8 125 -0.366
92 T8 126 -0.366
92 T8 127 -1.831
92 T8 128 -3.784
92 T8 129 -3.784
92 T8 130 -2.808
92 T8 131 -0.854
92 T8 132 0.122
92 T8 133 0.122
92 T8 134 -0.854
92 T8 135 -2.808
92 T8 136 -3.784
92 T8 137 -4.272
92 T8 138 -4.761
92 T8 139 -5.249
92 T8 140 -5.249
92 T8 141 -5.249
92 T8 142 -4.761
92 T8 143 -5.249
92 T8 144 -5.249
92 T8 145 -5.737
92 T8 146 -6.226
92 T8 147 -5.737
92 T8 148 -4.272
92 T8 149 -1.831
92 T8 150 0.122
92 T8 151 0.122
92 T8 152 -0.854
92 T8 153 -3.296
92 T8 154 -4.761
92 T8 155 -6.226
92 T8 156 -5.737
92 T8 157 -4.761
92 T8 158 -2.808
92 T8 159 -0.854
92 T8 160 0.610
92 T8 161 1.587
92 T8 162 1.587
92 T8 163 0.610
92 T8 164 0.122
92 T8 165 0.610
92 T8 166 1.587
92 T8 167 2.563
92 T8 168 4.028
92 T8 169 4.028
92 T8 170 4.028
92 T8 171 4.028
92 T8 172 4.028
92 T8 173 5.005
92 T8 174 5.005
92 T8 175 5.005
92 T8 176 4.517
92 T8 177 3.540
92 T8 178 3.052
92 T8 179 2.075
92 T8 180 1.099
92 T8 181 -0.366
92 T8 182 -1.831
92 T8 183 -2.808
92 T8 184 -1.831
92 T8 185 -0.854
92 T8 186 0.610
92 T8 187 1.587
92 T8 188 0.610
92 T8 189 -1.831
92 T8 190 -4.761
92 T8 191 -6.226
92 T8 192 -6.226
92 T8 193 -4.272
92 T8 194 -1.831
92 T8 195 -0.854
92 T8 196 -1.343
92 T8 197 -1.343
92 T8 198 -1.831
92 T8 199 -1.831
92 T8 200 -3.296
92 T8 201 -5.737
92 T8 202 -8.667
92 T8 203 -10.132
92 T8 204 -9.155
92 T8 205 -6.226
92 T8 206 -1.831
92 T8 207 0.122
92 T8 208 0.122
92 T8 209 -0.854
92 T8 210 -2.319
92 T8 211 -2.319
92 T8 212 -1.831
92 T8 213 -1.831
92 T8 214 -3.296
92 T8 215 -4.761
92 T8 216 -5.249
92 T8 217 -3.296
92 T8 218 -0.854
92 T8 219 1.099
92 T8 220 0.610
92 T8 221 -1.831
92 T8 222 -5.249
92 T8 223 -7.690
92 T8 224 -8.667
92 T8 225 -8.179
92 T8 226 -7.202
92 T8 227 -6.226
92 T8 228 -6.714
92 T8 229 -7.690
92 T8 230 -8.179
92 T8 231 -8.667
92 T8 232 -7.690
92 T8 233 -5.737
92 T8 234 -3.296
92 T8 235 -0.854
92 T8 236 -0.854
92 T8 237 -2.808
92 T8 238 -6.226
92 T8 239 -8.179
92 T8 240 -7.202
92 T8 241 -3.784
92 T8 242 0.122
92 T8 243 2.563
92 T8 244 1.587
92 T8 245 -1.831
92 T8 246 -4.272
92 T8 247 -4.761
92 T8 248 -2.319
92 T8 249 1.099
92 T8 250 4.028
92 T8 251 5.005
92 T8 252 4.517
92 T8 253 4.028
92 T8 254 4.028
92 T8 255 4.517
# T7 chan 14
92 T7 0 3.103
92 T7 1 11.403
92 T7 2 14.333
92 T7 3 9.939
92 T7 4 1.638
92 T7 5 -5.198
92 T7 6 -7.151
92 T7 7 -3.733
92 T7 8 1.149
92 T7 9 2.614
92 T7 10 0.661
92 T7 11 -3.733
92 T7 12 -6.663
92 T7 13 -7.151
92 T7 14 -6.663
92 T7 15 -5.198
92 T7 16 -3.245
92 T7 17 -0.804
92 T7 18 2.614
92 T7 19 4.079
92 T7 20 2.126
92 T7 21 -2.268
92 T7 22 -6.663
92 T7 23 -8.616
92 T7 24 -5.686
92 T7 25 -0.804
92 T7 26 3.591
92 T7 27 5.544
92 T7 28 6.032
92 T7 29 6.521
92 T7 30 7.497
92 T7 31 7.009
92 T7 32 4.079
92 T7 33 -0.315
92 T7 34 -3.733
92 T7 35 -3.733
92 T7 36 -1.292
92 T7 37 0.661
92 T7 38 -1.292
92 T7 39 -7.151
92 T7 40 -12.034
92 T7 41 -10.569
92 T7 42 -3.245
92 T7 43 5.056
92 T7 44 7.985
92 T7 45 3.103
92 T7 46 -4.710
92 T7 47 -8.128
92 T7 48 -2.757
92 T7 49 7.009
92 T7 50 12.380
92 T7 51 7.497
92 T7 52 -3.733
92 T7 53 -12.522
92 T7 54 -11.546
92 T7 55 -1.780
92 T7 56 7.009
92 T7 57 7.985
92 T7 58 -0.315
92 T7 59 -11.546
92 T7 60 -16.429
92 T7 61 -12.522
92 T7 62 -6.175
92 T7 63 -4.222
92 T7 64 -9.104
92 T7 65 -16.917
92 T7 66 -19.847
92 T7 67 -13.987
92 T7 68 -5.198
92 T7 69 0.661
92 T7 70 -0.804
92 T7 71 -6.175
92 T7 72 -9.593
92 T7 73 -7.151
92 T7 74 -0.315
92 T7 75 4.567
92 T7 76 3.103
92 T7 77 -3.245
92 T7 78 -9.104
92 T7 79 -10.081
92 T7 80 -5.686
92 T7 81 0.173
92 T7 82 0.661
92 T7 83 -4.710
92 T7 84 -11.058
92 T7 85 -12.034
92 T7 86 -4.710
92 T7 87 7.985
92 T7 88 18.728
92 T7 89 19.704
92 T7 90 10.915
92 T7 91 -0.804
92 T7 92 -8.616
92 T7 93 -8.128
92 T7 94 -1.780
92 T7 95 3.591
92 T7 96 4.079
92 T7 97 0.173
92 T7 98 -4.710
92 T7 99 -7.151
92 T7 100 -7.151
92 T7 101 -6.175
92 T7 102 -4.222
92 T7 103 0.173
92 T7 104 6.521
92 T7 105 13.357
92 T7 106 15.310
92 T7 107 9.450
92 T7 108 -0.315
92 T7 109 -7.151
92 T7 110 -7.640
92 T7 111 -0.804
92 T7 112 6.521
92 T7 113 7.985
92 T7 114 2.614
92 T7 115 -5.198
92 T7 116 -10.081
92 T7 117 -9.104
92 T7 118 -6.175
92 T7 119 -6.175
92 T7 120 -9.104
92 T7 121 -11.546
92 T7 122 -7.151
92 T7 123 4.079
92 T7 124 16.286
92 T7 125 20.681
92 T7 126 13.845
92 T7 127 0.661
92 T7 128 -10.081
92 T7 129 -11.058
92 T7 130 -2.757
92 T7 131 5.056
92 T7 132 5.544
92 T7 133 -4.222
92 T7 134 -16.917
92 T7 135 -24.241
92 T7 136 -21.800
92 T7 137 -12.522
92 T7 138 -3.245
92 T7 139 0.173
92 T7 140 -3.245
92 T7 141 -10.081
92 T7 142 -14.476
92 T7 143 -13.987
92 T7 144 -8.616
92 T7 145 -0.804
92 T7 146 6.032
92 T7 147 7.985
92 T7 148 5.056
92 T7 149 -0.315
92 T7 150 -4.710
92 T7 151 -5.686
92 T7 152 -2.757
92 T7 153 1.149
92 T7 154 3.103
92 T7 155 1.149
92 T7 156 -3.245
92 T7 157 -7.640
92 T7 158 -10.081
92 T7 159 -10.081
92 T7 160 -9.104
92 T7 161 -7.640
92 T7 162 -4.710
92 T7 163 -0.315
92 T7 164 4.079
92 T7 165 6.521
92 T7 166 4.567
92 T7 167 -0.804
92 T7 168 -5.686
92 T7 169 -7.151
92 T7 170 -3.245
92 T7 171 1.149
92 T7 172 3.591
92 T7 173 1.638
92 T7 174 -2.757
92 T7 175 -6.175
92 T7 176 -7.640
92 T7 177 -7.640
92 T7 178 -6.175
92 T7 179 -4.710
92 T7 180 -1.292
92 T7 181 2.126
92 T7 182 4.079
92 T7 183 2.614
92 T7 184 -1.292
92 T7 185 -5.686
92 T7 186 -6.175
92 T7 187 -3.245
92 T7 188 0.661
92 T7 189 1.149
92 T7 190 -3.245
92 T7 191 -9.593
92 T7 192 -13.987
92 T7 193 -13.499
92 T7 194 -10.081
92 T7 195 -5.198
92 T7 196 -1.292
92 T7 197 2.614
92 T7 198 7.009
92 T7 199 11.403
92 T7 200 11.403
92 T7 201 4.079
92 T7 202 -10.081
92 T7 203 -24.241
92 T7 204 -29.612
92 T7 205 -23.753
92 T7 206 -10.569
92 T7 207 1.149
92 T7 208 5.056
92 T7 209 1.638
92 T7 210 -5.686
92 T7 211 -10.081
92 T7 212 -10.081
92 T7 213 -7.640
92 T7 214 -5.686
92 T7 215 -7.151
92 T7 216 -10.081
92 T7 217 -13.499
92 T7 218 -14.964
92 T7 219 -13.499
92 T7 220 -10.081
92 T7 221 -5.198
92 T7 222 -0.804
92 T7 223 1.149
92 T7 224 -0.804
92 T7 225 -7.151
92 T7 226 -12.522
92 T7 227 -13.987
92 T7 228 -9.104
92 T7 229 -0.804
92 T7 230 5.056
92 T7 231 5.544
92 T7 232 0.173
92 T7 233 -6.175
92 T7 234 -8.616
92 T7 235 -8.128
92 T7 236 -6.663
92 T7 237 -8.128
92 T7 238 -11.546
92 T7 239 -12.034
92 T7 240 -7.151
92 T7 241 3.103
92 T7 242 11.892
92 T7 243 13.845
92 T7 244 7.497
92 T7 245 -2.757
92 T7 246 -9.104
92 T7 247 -8.128
92 T7 248 -1.780
92 T7 249 3.591
92 T7 250 5.056
92 T7 251 2.126
92 T7 252 -1.292
92 T7 253 -3.733
92 T7 254 -3.733
92 T7 255 -2.757
# CZ chan 15
92 CZ 0 -1.506
92 CZ 1 9.237
92 CZ 2 16.073
92 CZ 3 15.584
92 CZ 4 7.772
92 CZ 5 -1.017
92 CZ 6 -4.924
92 CZ 7 -2.482
92 CZ 8 2.401
92 CZ 9 3.866
92 CZ 10 -0.529
92 CZ 11 -6.877
92 CZ 12 -8.341
92 CZ 13 -3.947
92 CZ 14 3.866
92 CZ 15 6.795
92 CZ 16 1.912
92 CZ 17 -8.830
92 CZ 18 -18.107
92 CZ 19 -20.060
92 CZ 20 -12.736
92 CZ 21 -1.994
92 CZ 22 5.819
92 CZ 23 5.819
92 CZ 24 0.936
92 CZ 25 -4.435
92 CZ 26 -4.435
92 CZ 27 1.424
92 CZ 28 10.701
92 CZ 29 18.026
92 CZ 30 19.002
92 CZ 31 14.119
92 CZ 32 5.330
92 CZ 33 -3.459
92 CZ 34 -7.853
92 CZ 35 -7.853
92 CZ 36 -2.970
92 CZ 37 3.377
92 CZ 38 8.260
92 CZ 39 9.237
92 CZ 40 6.307
92 CZ 41 1.912
92 CZ 42 -0.529
92 CZ 43 0.936
92 CZ 44 5.330
92 CZ 45 8.748
92 CZ 46 9.237
92 CZ 47 6.795
92 CZ 48 5.330
92 CZ 49 5.819
92 CZ 50 8.260
92 CZ 51 9.725
92 CZ 52 6.795
92 CZ 53 1.912
92 CZ 54 -1.994
92 CZ 55 -1.506
92 CZ 56 1.424
92 CZ 57 4.354
92 CZ 58 2.889
92 CZ 59 -2.482
92 CZ 60 -8.830
92 CZ 61 -11.759
92 CZ 62 -10.783
92 CZ 63 -8.830
92 CZ 64 -8.341
92 CZ 65 -9.806
92 CZ 66 -10.783
92 CZ 67 -9.806
92 CZ 68 -6.877
92 CZ 69 -3.459
92 CZ 70 -1.506
92 CZ 71 -1.994
92 CZ 72 -2.482
92 CZ 73 -1.506
92 CZ 74 -0.041
92 CZ 75 1.912
92 CZ 76 1.912
92 CZ 77 0.936
92 CZ 78 -1.017
92 CZ 79 -1.994
92 CZ 80 -1.506
92 CZ 81 0.448
92 CZ 82 3.866
92 CZ 83 5.819
92 CZ 84 4.842
92 CZ 85 1.912
92 CZ 86 0.448
92 CZ 87 2.401
92 CZ 88 9.237
92 CZ 89 16.561
92 CZ 90 19.002
92 CZ 91 14.119
92 CZ 92 3.866
92 CZ 93 -5.412
92 CZ 94 -8.341
92 CZ 95 -4.435
92 CZ 96 1.912
92 CZ 97 5.330
92 CZ 98 4.842
92 CZ 99 1.424
92 CZ 100 -0.041
92 CZ 101 1.912
92 CZ 102 5.330
92 CZ 103 8.748
92 CZ 104 10.213
92 CZ 105 10.213
92 CZ 106 8.748
92 CZ 107 7.284
92 CZ 108 6.307
92 CZ 109 5.819
92 CZ 110 6.307
92 CZ 111 8.260
92 CZ 112 10.701
92 CZ 113 11.678
92 CZ 114 8.748
92 CZ 115 3.377
92 CZ 116 -2.970
92 CZ 117 -5.900
92 CZ 118 -4.435
92 CZ 119 0.936
92 CZ 120 5.819
92 CZ 121 8.260
92 CZ 122 5.819
92 CZ 123 0.936
92 CZ 124 -2.970
92 CZ 125 -3.947
92 CZ 126 -2.482
92 CZ 127 -0.041
92 CZ 128 1.912
92 CZ 129 3.377
92 CZ 130 4.354
92 CZ 131 4.842
92 CZ 132 3.866
92 CZ 133 1.424
92 CZ 134 -2.482
92 CZ 135 -6.388
92 CZ 136 -8.341
92 CZ 137 -8.341
92 CZ 138 -6.388
92 CZ 139 -4.924
92 CZ 140 -3.947
92 CZ 141 -4.435
92 CZ 142 -5.412
92 CZ 143 -7.365
92 CZ 144 -8.830
92 CZ 145 -10.295
92 CZ 146 -9.806
92 CZ 147 -6.877
92 CZ 148 -1.017
92 CZ 149 5.819
92 CZ 150 11.190
92 CZ 151 10.701
92 CZ 152 5.819
92 CZ 153 -1.506
92 CZ 154 -6.388
92 CZ 155 -6.877
92 CZ 156 -2.482
92 CZ 157 3.866
92 CZ 158 8.748
92 CZ 159 10.701
92 CZ 160 10.213
92 CZ 161 8.260
92 CZ 162 6.307
92 CZ 163 4.842
92 CZ 164 5.819
92 CZ 165 9.237
92 CZ 166 14.119
92 CZ 167 17.537
92 CZ 168 19.002
92 CZ 169 16.561
92 CZ 170 12.655
92 CZ 171 9.725
92 CZ 172 10.213
92 CZ 173 13.143
92 CZ 174 17.049
92 CZ 175 19.002
92 CZ 176 19.002
92 CZ 177 16.561
92 CZ 178 13.631
92 CZ 179 10.701
92 CZ 180 8.260
92 CZ 181 5.330
92 CZ 182 1.424
92 CZ 183 -1.994
92 CZ 184 -2.970
92 CZ 185 -1.017
92 CZ 186 2.889
92 CZ 187 6.795
92 CZ 188 8.748
92 CZ 189 7.284
92 CZ 190 5.330
92 CZ 191 3.377
92 CZ 192 2.889
92 CZ 193 2.889
92 CZ 194 1.912
92 CZ 195 -0.041
92 CZ 196 -1.994
92 CZ 197 -0.529
92 CZ 198 5.330
92 CZ 199 12.655
92 CZ 200 16.561
92 CZ 201 13.143
92 CZ 202 3.377
92 CZ 203 -8.341
92 CZ 204 -15.666
92 CZ 205 -14.201
92 CZ 206 -6.877
92 CZ 207 1.912
92 CZ 208 7.772
92 CZ 209 8.260
92 CZ 210 5.819
92 CZ 211 1.912
92 CZ 212 -2.482
92 CZ 213 -6.877
92 CZ 214 -11.271
92 CZ 215 -13.713
92 CZ 216 -10.783
92 CZ 217 -2.970
92 CZ 218 5.819
92 CZ 219 10.701
92 CZ 220 9.237
92 CZ 221 2.401
92 CZ 222 -4.924
92 CZ 223 -8.341
92 CZ 224 -7.853
92 CZ 225 -5.412
92 CZ 226 -3.947
92 CZ 227 -2.970
92 CZ 228 -1.994
92 CZ 229 -0.529
92 CZ 230 1.912
92 CZ 231 3.377
92 CZ 232 2.401
92 CZ 233 0.448
92 CZ 234 -1.506
92 CZ 235 -2.482
92 CZ 236 -1.994
92 CZ 237 -0.529
92 CZ 238 1.424
92 CZ 239 3.377
92 CZ 240 4.354
92 CZ 241 3.377
92 CZ 242 0.936
92 CZ 243 -0.041
92 CZ 244 1.912
92 CZ 245 6.795
92 CZ 246 11.678
92 CZ 247 14.608
92 CZ 248 12.655
92 CZ 249 7.772
92 CZ 250 3.866
92 CZ 251 3.866
92 CZ 252 7.772
92 CZ 253 12.655
92 CZ 254 14.608
92 CZ 255 13.143
# C3 chan 16
92 C3 0 0.875
92 C3 1 1.851
92 C3 2 2.340
92 C3 3 1.851
92 C3 4 -0.102
92 C3 5 -2.055
92 C3 6 -3.520
92 C3 7 -3.520
92 C3 8 -2.543
92 C3 9 -1.078
92 C3 10 -0.102
92 C3 11 0.387
92 C3 12 -0.102
92 C3 13 -0.590
92 C3 14 -0.590
92 C3 15 -0.590
92 C3 16 -0.590
92 C3 17 -1.078
92 C3 18 -2.543
92 C3 19 -3.520
92 C3 20 -4.008
92 C3 21 -3.520
92 C3 22 -2.543
92 C3 23 -1.078
92 C3 24 -0.102
92 C3 25 0.387
92 C3 26 -0.102
92 C3 27 -0.102
92 C3 28 -0.102
92 C3 29 1.363
92 C3 30 2.828
92 C3 31 3.805
92 C3 32 3.805
92 C3 33 2.340
92 C3 34 -0.590
92 C3 35 -3.520
92 C3 36 -4.985
92 C3 37 -4.985
92 C3 38 -3.520
92 C3 39 -1.078
92 C3 40 -0.102
92 C3 41 -0.102
92 C3 42 -0.590
92 C3 43 -1.078
92 C3 44 -1.567
92 C3 45 -1.567
92 C3 46 -1.078
92 C3 47 -0.102
92 C3 48 0.387
92 C3 49 0.875
92 C3 50 0.387
92 C3 51 -0.590
92 C3 52 -2.055
92 C3 53 -4.008
92 C3 54 -4.985
92 C3 55 -4.985
92 C3 56 -4.008
92 C3 57 -3.031
92 C3 58 -2.055
92 C3 59 -1.567
92 C3 60 -2.055
92 C3 61 -2.055
92 C3 62 -2.055
92 C3 63 -2.055
92 C3 64 -1.567
92 C3 65 -1.567
92 C3 66 -2.055
92 C3 67 -3.520
92 C3 68 -4.985
92 C3 69 -6.449
92 C3 70 -7.426
92 C3 71 -7.914
92 C3 72 -6.938
92 C3 73 -4.985
92 C3 74 -2.543
92 C3 75 -0.590
92 C3 76 0.875
92 C3 77 1.363
92 C3 78 0.875
92 C3 79 0.387
92 C3 80 -0.590
92 C3 81 -2.543
92 C3 82 -4.008
92 C3 83 -4.496
92 C3 84 -4.496
92 C3 85 -3.520
92 C3 86 -2.055
92 C3 87 -0.102
92 C3 88 0.875
92 C3 89 1.363
92 C3 90 1.851
92 C3 91 1.851
92 C3 92 1.363
92 C3 93 0.387
92 C3 94 -0.590
92 C3 95 -2.055
92 C3 96 -3.031
92 C3 97 -2.543
92 C3 98 -1.078
92 C3 99 0.875
92 C3 100 2.340
92 C3 101 2.828
92 C3 102 1.851
92 C3 103 -0.102
92 C3 104 -2.055
92 C3 105 -3.520
92 C3 106 -4.496
92 C3 107 -5.473
92 C3 108 -6.449
92 C3 109 -6.449
92 C3 110 -5.473
92 C3 111 -3.520
92 C3 112 -1.078
92 C3 113 0.387
92 C3 114 -0.102
92 C3 115 -1.078
92 C3 116 -2.543
92 C3 117 -3.031
92 C3 118 -2.055
92 C3 119 -0.590
92 C3 120 0.387
92 C3 121 0.387
92 C3 122 -0.590
92 C3 123 -2.055
92 C3 124 -3.031
92 C3 125 -4.008
92 C3 126 -4.496
92 C3 127 -4.008
92 C3 128 -3.520
92 C3 129 -2.055
92 C3 130 -0.590
92 C3 131 -0.102
92 C3 132 -0.590
92 C3 133 -2.543
92 C3 134 -4.496
92 C3 135 -5.961
92 C3 136 -6.938
92 C3 137 -6.938
92 C3 138 -6.449
92 C3 139 -5.473
92 C3 140 -4.496
92 C3 141 -3.520
92 C3 142 -3.031
92 C3 143 -2.543
92 C3 144 -3.520
92 C3 145 -4.496
92 C3 146 -5.473
92 C3 147 -4.985
92 C3 148 -3.031
92 C3 149 -0.102
92 C3 150 2.340
92 C3 151 2.340
92 C3 152 1.363
92 C3 153 -1.078
92 C3 154 -4.008
92 C3 155 -4.985
92 C3 156 -4.985
92 C3 157 -4.008
92 C3 158 -3.031
92 C3 159 -2.055
92 C3 160 -1.078
92 C3 161 -0.590
92 C3 162 -0.590
92 C3 163 -1.078
92 C3 164 -2.543
92 C3 165 -3.520
92 C3 166 -3.520
92 C3 167 -3.031
92 C3 168 -2.055
92 C3 169 -0.590
92 C3 170 -0.102
92 C3 171 -0.590
92 C3 172 -1.078
92 C3 173 -1.078
92 C3 174 -1.078
92 C3 175 -1.078
92 C3 176 -2.055
92 C3 177 -3.031
92 C3 178 -4.008
92 C3 179 -4.985
92 C3 180 -4.496
92 C3 181 -3.520
92 C3 182 -1.567
92 C3 183 -0.102
92 C3 184 0.387
92 C3 185 0.875
92 C3 186 -0.102
92 C3 187 -1.567
92 C3 188 -3.031
92 C3 189 -4.985
92 C3 190 -5.961
92 C3 191 -6.449
92 C3 192 -4.985
92 C3 193 -2.543
92 C3 194 0.387
92 C3 195 1.851
92 C3 196 2.828
92 C3 197 1.851
92 C3 198 0.387
92 C3 199 -2.055
92 C3 200 -4.985
92 C3 201 -7.914
92 C3 202 -10.356
92 C3 203 -11.820
92 C3 204 -11.332
92 C3 205 -8.891
92 C3 206 -5.473
92 C3 207 -3.520
92 C3 208 -2.543
92 C3 209 -2.543
92 C3 210 -3.520
92 C3 211 -4.008
92 C3 212 -4.008
92 C3 213 -4.008
92 C3 214 -4.008
92 C3 215 -4.008
92 C3 216 -4.008
92 C3 217 -4.008
92 C3 218 -3.520
92 C3 219 -4.008
92 C3 220 -4.008
92 C3 221 -5.473
92 C3 222 -5.961
92 C3 223 -5.961
92 C3 224 -5.473
92 C3 225 -3.520
92 C3 226 -1.078
92 C3 227 0.875
92 C3 228 1.363
92 C3 229 0.387
92 C3 230 -0.590
92 C3 231 -1.078
92 C3 232 -0.590
92 C3 233 0.387
92 C3 234 1.363
92 C3 235 0.387
92 C3 236 -2.055
92 C3 237 -4.985
92 C3 238 -6.938
92 C3 239 -7.426
92 C3 240 -6.938
92 C3 241 -5.473
92 C3 242 -4.008
92 C3 243 -3.031
92 C3 244 -1.567
92 C3 245 -0.102
92 C3 246 1.363
92 C3 247 1.851
92 C3 248 1.363
92 C3 249 -0.590
92 C3 250 -2.055
92 C3 251 -3.520
92 C3 252 -4.008
92 C3 253 -4.496
92 C3 254 -4.496
92 C3 255 -4.496
# C4 chan 17
92 C4 0 0.763
92 C4 1 1.740
92 C4 2 1.740
92 C4 3 0.763
92 C4 4 -0.214
92 C4 5 -2.167
92 C4 6 -4.120
92 C4 7 -4.608
92 C4 8 -4.120
92 C4 9 -3.143
92 C4 10 -1.678
92 C4 11 -1.190
92 C4 12 -1.190
92 C4 13 -1.190
92 C4 14 -1.190
92 C4 15 -1.190
92 C4 16 -1.190
92 C4 17 -1.678
92 C4 18 -3.143
92 C4 19 -4.120
92 C4 20 -4.608
92 C4 21 -4.120
92 C4 22 -2.655
92 C4 23 -0.702
92 C4 24 0.763
92 C4 25 2.228
92 C4 26 2.716
92 C4 27 2.716
92 C4 28 2.716
92 C4 29 1.251
92 C4 30 -0.214
92 C4 31 -1.190
92 C4 32 -2.167
92 C4 33 -1.190
92 C4 34 -0.214
92 C4 35 1.251
92 C4 36 1.251
92 C4 37 0.275
92 C4 38 -1.190
92 C4 39 -2.655
92 C4 40 -2.655
92 C4 41 -2.167
92 C4 42 -1.190
92 C4 43 -0.214
92 C4 44 -0.214
92 C4 45 -0.702
92 C4 46 -1.190
92 C4 47 -1.190
92 C4 48 -1.678
92 C4 49 -2.167
92 C4 50 -2.655
92 C4 51 -3.143
92 C4 52 -3.143
92 C4 53 -3.143
92 C4 54 -3.143
92 C4 55 -2.655
92 C4 56 -2.655
92 C4 57 -2.655
92 C4 58 -3.143
92 C4 59 -3.143
92 C4 60 -3.632
92 C4 61 -4.120
92 C4 62 -3.632
92 C4 63 -3.143
92 C4 64 -2.167
92 C4 65 -1.678
92 C4 66 -1.678
92 C4 67 -2.167
92 C4 68 -2.655
92 C4 69 -2.167
92 C4 70 -1.190
92 C4 71 -0.214
92 C4 72 -0.214
92 C4 73 -1.190
92 C4 74 -2.655
92 C4 75 -3.632
92 C4 76 -3.143
92 C4 77 -1.678
92 C4 78 -0.214
92 C4 79 0.275
92 C4 80 0.275
92 C4 81 -0.702
92 C4 82 -1.190
92 C4 83 -1.190
92 C4 84 -0.702
92 C4 85 -0.214
92 C4 86 -0.214
92 C4 87 -0.702
92 C4 88 -0.702
92 C4 89 -1.190
92 C4 90 -2.655
92 C4 91 -4.608
92 C4 92 -7.538
92 C4 93 -9.003
92 C4 94 -9.003
92 C4 95 -6.073
92 C4 96 -3.143
92 C4 97 -0.702
92 C4 98 0.275
92 C4 99 -0.702
92 C4 100 -2.167
92 C4 101 -2.655
92 C4 102 -1.678
92 C4 103 -0.214
92 C4 104 1.251
92 C4 105 2.228
92 C4 106 1.251
92 C4 107 0.275
92 C4 108 -1.190
92 C4 109 -2.167
92 C4 110 -2.655
92 C4 111 -4.120
92 C4 112 -4.608
92 C4 113 -5.585
92 C4 114 -6.073
92 C4 115 -6.073
92 C4 116 -5.096
92 C4 117 -5.096
92 C4 118 -4.608
92 C4 119 -5.096
92 C4 120 -6.073
92 C4 121 -5.585
92 C4 122 -4.120
92 C4 123 -2.655
92 C4 124 -1.190
92 C4 125 -1.190
92 C4 126 -2.167
92 C4 127 -3.632
92 C4 128 -4.120
92 C4 129 -4.120
92 C4 130 -3.143
92 C4 131 -2.655
92 C4 132 -1.678
92 C4 133 -0.702
92 C4 134 -0.214
92 C4 135 -0.214
92 C4 136 -0.214
92 C4 137 -1.190
92 C4 138 -2.167
92 C4 139 -2.655
92 C4 140 -2.655
92 C4 141 -1.190
92 C4 142 -0.702
92 C4 143 -0.702
92 C4 144 -1.190
92 C4 145 -1.678
92 C4 146 -1.678
92 C4 147 -1.678
92 C4 148 -1.190
92 C4 149 -1.190
92 C4 150 -1.190
92 C4 151 -1.678
92 C4 152 -1.678
92 C4 153 -2.167
92 C4 154 -2.655
92 C4 155 -2.655
92 C4 156 -2.655
92 C4 157 -2.655
92 C4 158 -1.190
92 C4 159 -0.214
92 C4 160 1.251
92 C4 161 1.251
92 C4 162 1.251
92 C4 163 1.251
92 C4 164 0.763
92 C4 165 0.763
92 C4 166 1.251
92 C4 167 0.763
92 C4 168 0.763
92 C4 169 1.251
92 C4 170 1.740
92 C4 171 2.228
92 C4 172 2.228
92 C4 173 1.251
92 C4 174 0.763
92 C4 175 0.275
92 C4 176 0.763
92 C4 177 1.251
92 C4 178 1.740
92 C4 179 2.716
92 C4 180 2.716
92 C4 181 2.228
92 C4 182 1.740
92 C4 183 1.251
92 C4 184 1.740
92 C4 185 1.740
92 C4 186 1.740
92 C4 187 1.251
92 C4 188 0.275
92 C4 189 -1.190
92 C4 190 -2.167
92 C4 191 -3.143
92 C4 192 -3.143
92 C4 193 -3.143
92 C4 194 -2.655
92 C4 195 -2.655
92 C4 196 -1.678
92 C4 197 -1.190
92 C4 198 -0.214
92 C4 199 0.275
92 C4 200 0.275
92 C4 201 -1.190
92 C4 202 -3.143
92 C4 203 -4.608
92 C4 204 -4.608
92 C4 205 -3.632
92 C4 206 -1.678
92 C4 207 -0.214
92 C4 208 0.763
92 C4 209 0.763
92 C4 210 0.763
92 C4 211 0.275
92 C4 212 -0.214
92 C4 213 -1.190
92 C4 214 -2.167
92 C4 215 -3.143
92 C4 216 -3.143
92 C4 217 -2.167
92 C4 218 -0.702
92 C4 219 0.763
92 C4 220 1.251
92 C4 221 0.763
92 C4 222 -0.702
92 C4 223 -2.655
92 C4 224 -4.120
92 C4 225 -4.608
92 C4 226 -4.120
92 C4 227 -4.120
92 C4 228 -4.120
92 C4 229 -4.120
92 C4 230 -5.096
92 C4 231 -5.096
92 C4 232 -4.120
92 C4 233 -2.167
92 C4 234 -0.702
92 C4 235 -0.702
92 C4 236 -1.678
92 C4 237 -4.120
92 C4 238 -6.073
92 C4 239 -6.561
92 C4 240 -5.096
92 C4 241 -2.655
92 C4 242 0.275
92 C4 243 1.251
92 C4 244 0.275
92 C4 245 -2.655
92 C4 246 -4.120
92 C4 247 -4.608
92 C4 248 -3.632
92 C4 249 -1.678
92 C4 250 0.275
92 C4 251 0.275
92 C4 252 -0.702
92 C4 253 -1.190
92 C4 254 -1.678
92 C4 255 -0.702
# CP5 chan 18
92 CP5 0 -0.203
92 CP5 1 1.750
92 CP5 2 2.726
92 CP5 3 2.726
92 CP5 4 1.261
92 CP5 5 -1.180
92 CP5 6 -3.621
92 CP5 7 -4.598
92 CP5 8 -4.598
92 CP5 9 -3.621
92 CP5 10 -2.157
92 CP5 11 -1.180
92 CP5 12 -0.203
92 CP5 13 0.773
92 CP5 14 1.261
92 CP5 15 1.261
92 CP5 16 -0.203
92 CP5 17 -2.645
92 CP5 18 -5.086
92 CP5 19 -6.063
92 CP5 20 -5.575
92 CP5 21 -3.133
92 CP5 22 -0.203
92 CP5 23 1.750
92 CP5 24 2.238
92 CP5 25 1.750
92 CP5 26 1.261
92 CP5 27 0.773
92 CP5 28 1.750
92 CP5 29 3.215
92 CP5 30 4.679
92 CP5 31 5.168
92 CP5 32 4.191
92 CP5 33 2.238
92 CP5 34 -0.692
92 CP5 35 -3.621
92 CP5 36 -5.086
92 CP5 37 -5.575
92 CP5 38 -4.598
92 CP5 39 -3.133
92 CP5 40 -2.157
92 CP5 41 -1.180
92 CP5 42 -1.180
92 CP5 43 -1.180
92 CP5 44 -1.668
92 CP5 45 -2.157
92 CP5 46 -1.668
92 CP5 47 -0.692
92 CP5 48 0.773
92 CP5 49 1.750
92 CP5 50 1.261
92 CP5 51 -0.692
92 CP5 52 -2.645
92 CP5 53 -4.598
92 CP5 54 -5.086
92 CP5 55 -4.598
92 CP5 56 -4.598
92 CP5 57 -5.086
92 CP5 58 -5.575
92 CP5 59 -6.063
92 CP5 60 -6.063
92 CP5 61 -4.598
92 CP5 62 -3.621
92 CP5 63 -3.133
92 CP5 64 -3.621
92 CP5 65 -4.598
92 CP5 66 -5.575
92 CP5 67 -7.039
92 CP5 68 -7.528
92 CP5 69 -8.504
92 CP5 70 -8.504
92 CP5 71 -8.016
92 CP5 72 -6.063
92 CP5 73 -3.621
92 CP5 74 -0.692
92 CP5 75 1.261
92 CP5 76 1.750
92 CP5 77 1.750
92 CP5 78 -0.203
92 CP5 79 -1.180
92 CP5 80 -1.668
92 CP5 81 -2.157
92 CP5 82 -2.157
92 CP5 83 -2.157
92 CP5 84 -2.645
92 CP5 85 -2.645
92 CP5 86 -2.157
92 CP5 87 -0.692
92 CP5 88 1.261
92 CP5 89 2.726
92 CP5 90 3.703
92 CP5 91 3.703
92 CP5 92 3.215
92 CP5 93 2.238
92 CP5 94 1.750
92 CP5 95 0.285
92 CP5 96 -1.180
92 CP5 97 -1.668
92 CP5 98 -1.180
92 CP5 99 1.261
92 CP5 100 3.703
92 CP5 101 5.168
92 CP5 102 5.168
92 CP5 103 3.215
92 CP5 104 1.261
92 CP5 105 -1.180
92 CP5 106 -2.157
92 CP5 107 -3.621
92 CP5 108 -4.598
92 CP5 109 -4.598
92 CP5 110 -3.621
92 CP5 111 -0.692
92 CP5 112 2.238
92 CP5 113 4.679
92 CP5 114 4.191
92 CP5 115 2.238
92 CP5 116 -0.203
92 CP5 117 -2.645
92 CP5 118 -2.157
92 CP5 119 -0.692
92 CP5 120 1.261
92 CP5 121 2.726
92 CP5 122 2.726
92 CP5 123 1.750
92 CP5 124 -0.203
92 CP5 125 -2.157
92 CP5 126 -3.621
92 CP5 127 -4.110
92 CP5 128 -3.133
92 CP5 129 -1.668
92 CP5 130 -0.203
92 CP5 131 0.285
92 CP5 132 -0.203
92 CP5 133 -2.157
92 CP5 134 -4.110
92 CP5 135 -6.063
92 CP5 136 -6.551
92 CP5 137 -6.551
92 CP5 138 -5.575
92 CP5 139 -5.086
92 CP5 140 -4.110
92 CP5 141 -3.621
92 CP5 142 -3.133
92 CP5 143 -3.133
92 CP5 144 -2.645
92 CP5 145 -2.645
92 CP5 146 -3.133
92 CP5 147 -2.645
92 CP5 148 -1.180
92 CP5 149 1.261
92 CP5 150 3.703
92 CP5 151 4.679
92 CP5 152 3.215
92 CP5 153 -0.203
92 CP5 154 -4.110
92 CP5 155 -6.551
92 CP5 156 -7.039
92 CP5 157 -5.086
92 CP5 158 -3.133
92 CP5 159 -1.180
92 CP5 160 -0.203
92 CP5 161 -1.180
92 CP5 162 -1.668
92 CP5 163 -3.133
92 CP5 164 -4.598
92 CP5 165 -5.575
92 CP5 166 -5.086
92 CP5 167 -3.621
92 CP5 168 -1.180
92 CP5 169 1.261
92 CP5 170 2.238
92 CP5 171 0.773
92 CP5 172 -1.180
92 CP5 173 -3.133
92 CP5 174 -3.621
92 CP5 175 -3.133
92 CP5 176 -2.157
92 CP5 177 -2.645
92 CP5 178 -4.598
92 CP5 179 -6.551
92 CP5 180 -7.528
92 CP5 181 -7.039
92 CP5 182 -5.086
92 CP5 183 -2.645
92 CP5 184 -1.180
92 CP5 185 -1.180
92 CP5 186 -1.668
92 CP5 187 -2.645
92 CP5 188 -3.621
92 CP5 189 -4.598
92 CP5 190 -6.063
92 CP5 191 -6.551
92 CP5 192 -6.063
92 CP5 193 -3.621
92 CP5 194 -0.203
92 CP5 195 3.215
92 CP5 196 4.679
92 CP5 197 4.191
92 CP5 198 2.238
92 CP5 199 -0.692
92 CP5 200 -4.598
92 CP5 201 -8.993
92 CP5 202 -13.387
92 CP5 203 -16.317
92 CP5 204 -16.317
92 CP5 205 -13.387
92 CP5 206 -8.504
92 CP5 207 -3.133
92 CP5 208 -0.203
92 CP5 209 0.285
92 CP5 210 -1.180
92 CP5 211 -2.645
92 CP5 212 -3.621
92 CP5 213 -4.110
92 CP5 214 -4.110
92 CP5 215 -4.598
92 CP5 216 -4.598
92 CP5 217 -4.598
92 CP5 218 -4.598
92 CP5 219 -4.110
92 CP5 220 -4.110
92 CP5 221 -5.575
92 CP5 222 -6.551
92 CP5 223 -6.551
92 CP5 224 -6.063
92 CP5 225 -3.621
92 CP5 226 -0.692
92 CP5 227 1.750
92 CP5 228 2.726
92 CP5 229 2.238
92 CP5 230 1.261
92 CP5 231 0.773
92 CP5 232 1.261
92 CP5 233 2.726
92 CP5 234 3.215
92 CP5 235 2.238
92 CP5 236 -1.180
92 CP5 237 -5.086
92 CP5 238 -8.504
92 CP5 239 -9.481
92 CP5 240 -8.504
92 CP5 241 -6.063
92 CP5 242 -2.645
92 CP5 243 0.285
92 CP5 244 1.750
92 CP5 245 2.238
92 CP5 246 2.238
92 CP5 247 1.750
92 CP5 248 0.773
92 CP5 249 0.285
92 CP5 250 -0.203
92 CP5 251 -1.180
92 CP5 252 -2.645
92 CP5 253 -3.621
92 CP5 254 -3.621
92 CP5 255 -1.668
# CP6 chan 19
92 CP6 0 1.190
92 CP6 1 1.678
92 CP6 2 1.678
92 CP6 3 1.190
92 CP6 4 0.214
92 CP6 5 -1.740
92 CP6 6 -4.181
92 CP6 7 -5.646
92 CP6 8 -5.646
92 CP6 9 -4.181
92 CP6 10 -2.228
92 CP6 11 -0.763
92 CP6 12 -0.275
92 CP6 13 -0.763
92 CP6 14 -1.251
92 CP6 15 -1.251
92 CP6 16 -1.251
92 CP6 17 -1.740
92 CP6 18 -2.716
92 CP6 19 -4.181
92 CP6 20 -5.157
92 CP6 21 -4.181
92 CP6 22 -2.228
92 CP6 23 -0.275
92 CP6 24 1.678
92 CP6 25 3.143
92 CP6 26 3.632
92 CP6 27 4.608
92 CP6 28 4.608
92 CP6 29 3.632
92 CP6 30 1.678
92 CP6 31 -0.763
92 CP6 32 -2.716
92 CP6 33 -3.204
92 CP6 34 -2.716
92 CP6 35 -1.740
92 CP6 36 -1.740
92 CP6 37 -3.204
92 CP6 38 -5.157
92 CP6 39 -5.646
92 CP6 40 -4.669
92 CP6 41 -2.228
92 CP6 42 -0.763
92 CP6 43 0.214
92 CP6 44 -0.275
92 CP6 45 -1.251
92 CP6 46 -1.251
92 CP6 47 -0.763
92 CP6 48 0.214
92 CP6 49 0.702
92 CP6 50 -0.275
92 CP6 51 -1.251
92 CP6 52 -2.228
92 CP6 53 -2.228
92 CP6 54 -2.228
92 CP6 55 -1.251
92 CP6 56 -1.251
92 CP6 57 -1.740
92 CP6 58 -2.716
92 CP6 59 -3.693
92 CP6 60 -4.669
92 CP6 61 -4.669
92 CP6 62 -4.181
92 CP6 63 -4.181
92 CP6 64 -3.693
92 CP6 65 -4.181
92 CP6 66 -4.669
92 CP6 67 -5.646
92 CP6 68 -6.134
92 CP6 69 -5.646
92 CP6 70 -4.181
92 CP6 71 -2.228
92 CP6 72 -1.251
92 CP6 73 -1.251
92 CP6 74 -2.228
92 CP6 75 -2.228
92 CP6 76 -1.740
92 CP6 77 -0.763
92 CP6 78 1.190
92 CP6 79 2.167
92 CP6 80 2.167
92 CP6 81 1.190
92 CP6 82 0.214
92 CP6 83 -0.763
92 CP6 84 -1.740
92 CP6 85 -2.716
92 CP6 86 -2.716
92 CP6 87 -2.716
92 CP6 88 -1.740
92 CP6 89 -0.763
92 CP6 90 -0.763
92 CP6 91 -2.228
92 CP6 92 -4.181
92 CP6 93 -6.134
92 CP6 94 -7.111
92 CP6 95 -5.157
92 CP6 96 -2.716
92 CP6 97 -0.275
92 CP6 98 0.214
92 CP6 99 -0.275
92 CP6 100 -1.251
92 CP6 101 -1.740
92 CP6 102 -1.251
92 CP6 103 -0.275
92 CP6 104 0.214
92 CP6 105 0.214
92 CP6 106 -0.763
92 CP6 107 -2.228
92 CP6 108 -3.693
92 CP6 109 -4.181
92 CP6 110 -3.693
92 CP6 111 -3.204
92 CP6 112 -2.228
92 CP6 113 -1.251
92 CP6 114 -0.763
92 CP6 115 -1.251
92 CP6 116 -1.740
92 CP6 117 -2.228
92 CP6 118 -2.716
92 CP6 119 -2.716
92 CP6 120 -2.716
92 CP6 121 -2.228
92 CP6 122 -1.740
92 CP6 123 -1.740
92 CP6 124 -1.740
92 CP6 125 -2.716
92 CP6 126 -4.181
92 CP6 127 -5.157
92 CP6 128 -5.157
92 CP6 129 -4.669
92 CP6 130 -3.204
92 CP6 131 -2.228
92 CP6 132 -1.251
92 CP6 133 -0.763
92 CP6 134 0.214
92 CP6 135 0.214
92 CP6 136 0.214
92 CP6 137 -0.275
92 CP6 138 -0.763
92 CP6 139 -1.251
92 CP6 140 -0.763
92 CP6 141 -0.275
92 CP6 142 0.214
92 CP6 143 0.214
92 CP6 144 -0.763
92 CP6 145 -2.716
92 CP6 146 -3.693
92 CP6 147 -3.693
92 CP6 148 -2.716
92 CP6 149 -2.228
92 CP6 150 -1.740
92 CP6 151 -2.228
92 CP6 152 -2.716
92 CP6 153 -3.693
92 CP6 154 -4.669
92 CP6 155 -4.669
92 CP6 156 -4.669
92 CP6 157 -3.204
92 CP6 158 -1.251
92 CP6 159 0.702
92 CP6 160 1.678
92 CP6 161 2.167
92 CP6 162 1.190
92 CP6 163 0.214
92 CP6 164 -0.763
92 CP6 165 -0.275
92 CP6 166 0.702
92 CP6 167 1.190
92 CP6 168 1.190
92 CP6 169 1.190
92 CP6 170 0.702
92 CP6 171 0.214
92 CP6 172 -0.275
92 CP6 173 -0.763
92 CP6 174 -0.763
92 CP6 175 -0.763
92 CP6 176 -0.763
92 CP6 177 -0.275
92 CP6 178 -0.275
92 CP6 179 -0.763
92 CP6 180 -1.740
92 CP6 181 -2.228
92 CP6 182 -2.228
92 CP6 183 -1.251
92 CP6 184 -0.763
92 CP6 185 0.214
92 CP6 186 0.702
92 CP6 187 0.702
92 CP6 188 -0.763
92 CP6 189 -2.228
92 CP6 190 -4.669
92 CP6 191 -6.622
92 CP6 192 -6.622
92 CP6 193 -5.646
92 CP6 194 -4.181
92 CP6 195 -2.228
92 CP6 196 -1.740
92 CP6 197 -1.740
92 CP6 198 -2.228
92 CP6 199 -2.228
92 CP6 200 -3.204
92 CP6 201 -5.157
92 CP6 202 -6.622
92 CP6 203 -7.599
92 CP6 204 -7.111
92 CP6 205 -5.157
92 CP6 206 -2.228
92 CP6 207 0.214
92 CP6 208 1.190
92 CP6 209 1.190
92 CP6 210 0.214
92 CP6 211 -0.275
92 CP6 212 -1.251
92 CP6 213 -2.716
92 CP6 214 -4.181
92 CP6 215 -5.646
92 CP6 216 -5.646
92 CP6 217 -3.693
92 CP6 218 -1.251
92 CP6 219 0.702
92 CP6 220 1.190
92 CP6 221 0.214
92 CP6 222 -1.740
92 CP6 223 -3.204
92 CP6 224 -3.693
92 CP6 225 -2.228
92 CP6 226 -0.763
92 CP6 227 -0.275
92 CP6 228 -1.251
92 CP6 229 -3.204
92 CP6 230 -4.669
92 CP6 231 -5.157
92 CP6 232 -4.181
92 CP6 233 -1.251
92 CP6 234 1.190
92 CP6 235 2.167
92 CP6 236 1.190
92 CP6 237 -2.228
92 CP6 238 -6.134
92 CP6 239 -8.575
92 CP6 240 -7.599
92 CP6 241 -5.157
92 CP6 242 -1.251
92 CP6 243 0.702
92 CP6 244 0.702
92 CP6 245 -1.251
92 CP6 246 -2.716
92 CP6 247 -3.693
92 CP6 248 -1.740
92 CP6 249 0.214
92 CP6 250 1.678
92 CP6 251 1.678
92 CP6 252 0.702
92 CP6 253 0.214
92 CP6 254 0.702
92 CP6 255 2.655
# CP1 chan 20
92 CP1 0 -0.275
92 CP1 1 0.214
92 CP1 2 -0.275
92 CP1 3 -0.275
92 CP1 4 -1.251
92 CP1 5 -2.716
92 CP1 6 -3.693
92 CP1 7 -4.181
92 CP1 8 -3.693
92 CP1 9 -2.716
92 CP1 10 -1.740
92 CP1 11 -0.763
92 CP1 12 -0.275
92 CP1 13 0.214
92 CP1 14 0.702
92 CP1 15 0.702
92 CP1 16 0.214
92 CP1 17 -0.275
92 CP1 18 -1.251
92 CP1 19 -1.740
92 CP1 20 -1.251
92 CP1 21 -0.275
92 CP1 22 0.214
92 CP1 23 0.702
92 CP1 24 0.214
92 CP1 25 -0.763
92 CP1 26 -1.251
92 CP1 27 -1.251
92 CP1 28 -0.763
92 CP1 29 0.214
92 CP1 30 0.702
92 CP1 31 1.190
92 CP1 32 0.702
92 CP1 33 -0.275
92 CP1 34 -1.251
92 CP1 35 -2.228
92 CP1 36 -2.716
92 CP1 37 -2.716
92 CP1 38 -2.716
92 CP1 39 -1.740
92 CP1 40 -0.275
92 CP1 41 0.702
92 CP1 42 0.702
92 CP1 43 -0.275
92 CP1 44 -1.740
92 CP1 45 -3.204
92 CP1 46 -3.204
92 CP1 47 -2.716
92 CP1 48 -1.251
92 CP1 49 -0.275
92 CP1 50 -0.275
92 CP1 51 -1.740
92 CP1 52 -3.204
92 CP1 53 -4.669
92 CP1 54 -5.157
92 CP1 55 -4.181
92 CP1 56 -3.204
92 CP1 57 -2.716
92 CP1 58 -2.228
92 CP1 59 -2.228
92 CP1 60 -1.740
92 CP1 61 -1.740
92 CP1 62 -1.251
92 CP1 63 -1.740
92 CP1 64 -1.740
92 CP1 65 -2.716
92 CP1 66 -3.204
92 CP1 67 -4.181
92 CP1 68 -4.669
92 CP1 69 -4.669
92 CP1 70 -4.669
92 CP1 71 -4.181
92 CP1 72 -3.204
92 CP1 73 -2.716
92 CP1 74 -2.228
92 CP1 75 -1.251
92 CP1 76 -1.251
92 CP1 77 -1.740
92 CP1 78 -1.740
92 CP1 79 -1.740
92 CP1 80 -1.740
92 CP1 81 -1.251
92 CP1 82 -1.740
92 CP1 83 -2.228
92 CP1 84 -2.716
92 CP1 85 -3.204
92 CP1 86 -2.716
92 CP1 87 -1.740
92 CP1 88 -0.763
92 CP1 89 -0.275
92 CP1 90 0.214
92 CP1 91 0.702
92 CP1 92 1.190
92 CP1 93 1.190
92 CP1 94 0.702
92 CP1 95 0.214
92 CP1 96 -0.763
92 CP1 97 -1.740
92 CP1 98 -0.763
92 CP1 99 0.214
92 CP1 100 1.190
92 CP1 101 1.678
92 CP1 102 1.190
92 CP1 103 -0.275
92 CP1 104 -2.228
92 CP1 105 -3.693
92 CP1 106 -4.669
92 CP1 107 -5.157
92 CP1 108 -5.157
92 CP1 109 -4.669
92 CP1 110 -3.693
92 CP1 111 -1.740
92 CP1 112 0.702
92 CP1 113 2.167
92 CP1 114 2.655
92 CP1 115 1.678
92 CP1 116 0.702
92 CP1 117 -0.763
92 CP1 118 -0.763
92 CP1 119 -0.275
92 CP1 120 0.702
92 CP1 121 1.190
92 CP1 122 1.190
92 CP1 123 0.214
92 CP1 124 -0.763
92 CP1 125 -2.716
92 CP1 126 -4.669
92 CP1 127 -5.157
92 CP1 128 -5.157
92 CP1 129 -4.181
92 CP1 130 -2.716
92 CP1 131 -1.251
92 CP1 132 -0.763
92 CP1 133 -0.763
92 CP1 134 -2.228
92 CP1 135 -3.204
92 CP1 136 -3.693
92 CP1 137 -3.693
92 CP1 138 -3.204
92 CP1 139 -2.228
92 CP1 140 -0.763
92 CP1 141 -0.275
92 CP1 142 -0.275
92 CP1 143 -0.763
92 CP1 144 -1.740
92 CP1 145 -3.204
92 CP1 146 -4.181
92 CP1 147 -4.181
92 CP1 148 -3.204
92 CP1 149 -1.251
92 CP1 150 0.214
92 CP1 151 0.702
92 CP1 152 0.214
92 CP1 153 -2.228
92 CP1 154 -4.181
92 CP1 155 -5.157
92 CP1 156 -4.669
92 CP1 157 -3.204
92 CP1 158 -0.763
92 CP1 159 0.702
92 CP1 160 1.190
92 CP1 161 -0.275
92 CP1 162 -2.228
92 CP1 163 -3.693
92 CP1 164 -4.669
92 CP1 165 -4.181
92 CP1 166 -2.716
92 CP1 167 -1.740
92 CP1 168 -0.275
92 CP1 169 0.214
92 CP1 170 -0.275
92 CP1 171 -1.740
92 CP1 172 -3.204
92 CP1 173 -4.181
92 CP1 174 -5.157
92 CP1 175 -4.669
92 CP1 176 -4.669
92 CP1 177 -4.181
92 CP1 178 -4.181
92 CP1 179 -4.669
92 CP1 180 -5.157
92 CP1 181 -4.669
92 CP1 182 -3.693
92 CP1 183 -2.228
92 CP1 184 -1.251
92 CP1 185 -1.251
92 CP1 186 -2.228
92 CP1 187 -3.204
92 CP1 188 -4.181
92 CP1 189 -5.157
92 CP1 190 -5.157
92 CP1 191 -5.157
92 CP1 192 -4.669
92 CP1 193 -3.693
92 CP1 194 -2.228
92 CP1 195 -0.763
92 CP1 196 -0.275
92 CP1 197 -1.251
92 CP1 198 -2.228
92 CP1 199 -3.204
92 CP1 200 -4.181
92 CP1 201 -5.157
92 CP1 202 -6.134
92 CP1 203 -7.111
92 CP1 204 -7.111
92 CP1 205 -5.646
92 CP1 206 -3.693
92 CP1 207 -1.740
92 CP1 208 -0.275
92 CP1 209 -0.763
92 CP1 210 -1.251
92 CP1 211 -2.228
92 CP1 212 -2.716
92 CP1 213 -2.716
92 CP1 214 -2.716
92 CP1 215 -3.204
92 CP1 216 -3.204
92 CP1 217 -3.204
92 CP1 218 -2.716
92 CP1 219 -2.716
92 CP1 220 -2.716
92 CP1 221 -3.204
92 CP1 222 -3.204
92 CP1 223 -2.716
92 CP1 224 -1.251
92 CP1 225 1.190
92 CP1 226 3.143
92 CP1 227 4.608
92 CP1 228 4.608
92 CP1 229 3.632
92 CP1 230 1.678
92 CP1 231 0.214
92 CP1 232 -0.275
92 CP1 233 -0.763
92 CP1 234 -0.763
92 CP1 235 -1.740
92 CP1 236 -2.716
92 CP1 237 -4.669
92 CP1 238 -5.646
92 CP1 239 -6.622
92 CP1 240 -6.622
92 CP1 241 -6.134
92 CP1 242 -4.669
92 CP1 243 -3.693
92 CP1 244 -2.228
92 CP1 245 -0.763
92 CP1 246 -0.275
92 CP1 247 0.214
92 CP1 248 -0.275
92 CP1 249 -0.275
92 CP1 250 -0.763
92 CP1 251 -1.740
92 CP1 252 -3.204
92 CP1 253 -3.693
92 CP1 254 -3.693
92 CP1 255 -2.716
# CP2 chan 21
92 CP2 0 0.651
92 CP2 1 1.139
92 CP2 2 0.651
92 CP2 3 -0.326
92 CP2 4 -0.814
92 CP2 5 -1.790
92 CP2 6 -2.767
92 CP2 7 -3.255
92 CP2 8 -3.255
92 CP2 9 -2.767
92 CP2 10 -1.790
92 CP2 11 -0.814
92 CP2 12 -0.326
92 CP2 13 0.163
92 CP2 14 0.163
92 CP2 15 0.163
92 CP2 16 -0.814
92 CP2 17 -1.302
92 CP2 18 -1.790
92 CP2 19 -2.279
92 CP2 20 -1.790
92 CP2 21 -0.814
92 CP2 22 0.163
92 CP2 23 0.651
92 CP2 24 0.651
92 CP2 25 0.163
92 CP2 26 0.163
92 CP2 27 0.163
92 CP2 28 0.163
92 CP2 29 0.163
92 CP2 30 -0.814
92 CP2 31 -1.790
92 CP2 32 -2.767
92 CP2 33 -2.767
92 CP2 34 -2.279
92 CP2 35 -1.302
92 CP2 36 -0.814
92 CP2 37 -1.302
92 CP2 38 -2.279
92 CP2 39 -2.279
92 CP2 40 -2.279
92 CP2 41 -1.302
92 CP2 42 -0.814
92 CP2 43 -0.814
92 CP2 44 -1.302
92 CP2 45 -2.279
92 CP2 46 -2.279
92 CP2 47 -2.279
92 CP2 48 -1.790
92 CP2 49 -1.302
92 CP2 50 -2.279
92 CP2 51 -2.767
92 CP2 52 -3.255
92 CP2 53 -3.255
92 CP2 54 -3.255
92 CP2 55 -2.279
92 CP2 56 -1.790
92 CP2 57 -1.790
92 CP2 58 -2.279
92 CP2 59 -2.279
92 CP2 60 -2.279
92 CP2 61 -1.790
92 CP2 62 -1.790
92 CP2 63 -1.790
92 CP2 64 -2.279
92 CP2 65 -2.279
92 CP2 66 -3.255
92 CP2 67 -3.743
92 CP2 68 -3.743
92 CP2 69 -3.255
92 CP2 70 -2.767
92 CP2 71 -2.279
92 CP2 72 -1.790
92 CP2 73 -2.767
92 CP2 74 -3.255
92 CP2 75 -4.232
92 CP2 76 -4.232
92 CP2 77 -3.743
92 CP2 78 -2.279
92 CP2 79 -0.814
92 CP2 80 -0.326
92 CP2 81 0.163
92 CP2 82 -0.326
92 CP2 83 -0.814
92 CP2 84 -1.302
92 CP2 85 -1.790
92 CP2 86 -2.279
92 CP2 87 -1.790
92 CP2 88 -1.790
92 CP2 89 -2.279
92 CP2 90 -2.767
92 CP2 91 -3.743
92 CP2 92 -4.232
92 CP2 93 -4.720
92 CP2 94 -4.232
92 CP2 95 -2.767
92 CP2 96 -1.302
92 CP2 97 -0.814
92 CP2 98 0.163
92 CP2 99 -0.326
92 CP2 100 -0.814
92 CP2 101 -0.814
92 CP2 102 -0.326
92 CP2 103 -0.326
92 CP2 104 0.163
92 CP2 105 -0.326
92 CP2 106 -0.814
92 CP2 107 -2.279
92 CP2 108 -2.767
92 CP2 109 -3.743
92 CP2 110 -4.232
92 CP2 111 -3.743
92 CP2 112 -3.255
92 CP2 113 -1.790
92 CP2 114 -0.814
92 CP2 115 0.651
92 CP2 116 0.651
92 CP2 117 0.651
92 CP2 118 -0.326
92 CP2 119 -0.814
92 CP2 120 -0.814
92 CP2 121 -0.814
92 CP2 122 -0.814
92 CP2 123 -0.326
92 CP2 124 -0.814
92 CP2 125 -1.790
92 CP2 126 -2.767
92 CP2 127 -3.743
92 CP2 128 -4.232
92 CP2 129 -4.232
92 CP2 130 -3.743
92 CP2 131 -3.255
92 CP2 132 -2.279
92 CP2 133 -1.302
92 CP2 134 -0.814
92 CP2 135 0.163
92 CP2 136 0.163
92 CP2 137 0.651
92 CP2 138 0.651
92 CP2 139 0.651
92 CP2 140 0.651
92 CP2 141 0.651
92 CP2 142 1.139
92 CP2 143 0.163
92 CP2 144 -0.814
92 CP2 145 -1.790
92 CP2 146 -2.279
92 CP2 147 -2.279
92 CP2 148 -2.279
92 CP2 149 -1.790
92 CP2 150 -2.279
92 CP2 151 -2.767
92 CP2 152 -3.743
92 CP2 153 -4.232
92 CP2 154 -4.720
92 CP2 155 -4.232
92 CP2 156 -3.255
92 CP2 157 -1.790
92 CP2 158 -0.326
92 CP2 159 1.139
92 CP2 160 1.139
92 CP2 161 0.651
92 CP2 162 -0.814
92 CP2 163 -2.279
92 CP2 164 -2.767
92 CP2 165 -2.279
92 CP2 166 -1.302
92 CP2 167 -0.814
92 CP2 168 0.163
92 CP2 169 -0.326
92 CP2 170 -0.814
92 CP2 171 -1.790
92 CP2 172 -2.767
92 CP2 173 -4.232
92 CP2 174 -5.208
92 CP2 175 -5.697
92 CP2 176 -4.720
92 CP2 177 -3.743
92 CP2 178 -2.279
92 CP2 179 -1.790
92 CP2 180 -1.790
92 CP2 181 -2.279
92 CP2 182 -2.279
92 CP2 183 -2.279
92 CP2 184 -1.302
92 CP2 185 -1.302
92 CP2 186 -1.302
92 CP2 187 -1.302
92 CP2 188 -1.790
92 CP2 189 -2.767
92 CP2 190 -3.255
92 CP2 191 -4.232
92 CP2 192 -4.232
92 CP2 193 -4.232
92 CP2 194 -4.232
92 CP2 195 -4.232
92 CP2 196 -4.232
92 CP2 197 -4.232
92 CP2 198 -3.255
92 CP2 199 -2.767
92 CP2 200 -2.279
92 CP2 201 -2.279
92 CP2 202 -2.767
92 CP2 203 -2.767
92 CP2 204 -3.255
92 CP2 205 -2.279
92 CP2 206 -1.302
92 CP2 207 -0.814
92 CP2 208 0.163
92 CP2 209 0.163
92 CP2 210 0.163
92 CP2 211 -0.814
92 CP2 212 -1.790
92 CP2 213 -2.279
92 CP2 214 -3.255
92 CP2 215 -3.743
92 CP2 216 -3.743
92 CP2 217 -3.255
92 CP2 218 -2.279
92 CP2 219 -1.302
92 CP2 220 -1.302
92 CP2 221 -1.302
92 CP2 222 -1.302
92 CP2 223 -0.814
92 CP2 224 0.163
92 CP2 225 1.139
92 CP2 226 2.116
92 CP2 227 2.604
92 CP2 228 1.628
92 CP2 229 0.163
92 CP2 230 -1.302
92 CP2 231 -1.790
92 CP2 232 -1.302
92 CP2 233 -0.326
92 CP2 234 0.651
92 CP2 235 0.163
92 CP2 236 -1.302
92 CP2 237 -3.255
92 CP2 238 -5.208
92 CP2 239 -6.673
92 CP2 240 -6.673
92 CP2 241 -5.697
92 CP2 242 -4.232
92 CP2 243 -2.767
92 CP2 244 -2.279
92 CP2 245 -2.279
92 CP2 246 -2.279
92 CP2 247 -1.790
92 CP2 248 -0.814
92 CP2 249 0.163
92 CP2 250 0.651
92 CP2 251 0.651
92 CP2 252 -0.814
92 CP2 253 -1.790
92 CP2 254 -1.790
92 CP2 255 -0.814
# P3 chan 22
92 P3 0 0.407
92 P3 1 1.383
92 P3 2 1.383
92 P3 3 0.895
92 P3 4 -1.058
92 P3 5 -3.011
92 P3 6 -4.964
92 P3 7 -5.941
92 P3 8 -5.452
92 P3 9 -3.988
92 P3 10 -2.523
92 P3 11 -1.058
92 P3 12 0.407
92 P3 13 1.383
92 P3 14 1.872
92 P3 15 1.383
92 P3 16 -0.081
92 P3 17 -2.035
92 P3 18 -3.011
92 P3 19 -3.011
92 P3 20 -2.035
92 P3 21 0.407
92 P3 22 2.360
92 P3 23 2.848
92 P3 24 1.872
92 P3 25 0.895
92 P3 26 0.407
92 P3 27 0.895
92 P3 28 2.360
92 P3 29 3.337
92 P3 30 4.313
92 P3 31 3.825
92 P3 32 2.848
92 P3 33 1.383
92 P3 34 -0.081
92 P3 35 -1.546
92 P3 36 -2.035
92 P3 37 -3.011
92 P3 38 -3.011
92 P3 39 -2.035
92 P3 40 -0.570
92 P3 41 1.383
92 P3 42 2.360
92 P3 43 1.872
92 P3 44 -0.570
92 P3 45 -3.011
92 P3 46 -3.988
92 P3 47 -3.499
92 P3 48 -1.058
92 P3 49 0.407
92 P3 50 0.407
92 P3 51 -1.546
92 P3 52 -3.988
92 P3 53 -4.964
92 P3 54 -4.964
92 P3 55 -3.499
92 P3 56 -2.523
92 P3 57 -2.523
92 P3 58 -3.011
92 P3 59 -3.499
92 P3 60 -2.523
92 P3 61 -1.058
92 P3 62 0.407
92 P3 63 0.895
92 P3 64 -0.570
92 P3 65 -1.546
92 P3 66 -3.499
92 P3 67 -4.476
92 P3 68 -5.452
92 P3 69 -5.452
92 P3 70 -4.476
92 P3 71 -2.523
92 P3 72 -1.058
92 P3 73 0.407
92 P3 74 0.895
92 P3 75 0.407
92 P3 76 -0.570
92 P3 77 -1.546
92 P3 78 -2.035
92 P3 79 -1.546
92 P3 80 -1.058
92 P3 81 -0.570
92 P3 82 -0.081
92 P3 83 -0.081
92 P3 84 -1.058
92 P3 85 -1.546
92 P3 86 -1.546
92 P3 87 -0.570
92 P3 88 0.895
92 P3 89 2.848
92 P3 90 3.337
92 P3 91 3.825
92 P3 92 4.313
92 P3 93 4.801
92 P3 94 4.801
92 P3 95 4.313
92 P3 96 2.848
92 P3 97 1.383
92 P3 98 0.895
92 P3 99 1.872
92 P3 100 3.337
92 P3 101 4.801
92 P3 102 4.313
92 P3 103 2.848
92 P3 104 0.895
92 P3 105 -0.570
92 P3 106 -1.546
92 P3 107 -2.035
92 P3 108 -3.011
92 P3 109 -3.011
92 P3 110 -2.035
92 P3 111 0.407
92 P3 112 3.825
92 P3 113 6.266
92 P3 114 6.755
92 P3 115 5.290
92 P3 116 3.337
92 P3 117 1.872
92 P3 118 1.383
92 P3 119 2.360
92 P3 120 3.337
92 P3 121 3.825
92 P3 122 3.825
92 P3 123 2.848
92 P3 124 1.383
92 P3 125 -0.570
92 P3 126 -3.011
92 P3 127 -4.476
92 P3 128 -4.964
92 P3 129 -3.988
92 P3 130 -2.523
92 P3 131 -1.058
92 P3 132 -0.081
92 P3 133 -0.570
92 P3 134 -2.035
92 P3 135 -3.988
92 P3 136 -4.964
92 P3 137 -4.476
92 P3 138 -3.011
92 P3 139 -1.058
92 P3 140 0.895
92 P3 141 1.383
92 P3 142 1.383
92 P3 143 0.407
92 P3 144 -0.570
92 P3 145 -2.035
92 P3 146 -3.011
92 P3 147 -3.011
92 P3 148 -1.546
92 P3 149 0.407
92 P3 150 2.360
92 P3 151 3.337
92 P3 152 2.360
92 P3 153 -0.570
92 P3 154 -3.988
92 P3 155 -6.429
92 P3 156 -6.917
92 P3 157 -4.964
92 P3 158 -2.035
92 P3 159 0.895
92 P3 160 2.360
92 P3 161 0.895
92 P3 162 -2.035
92 P3 163 -4.476
92 P3 164 -5.941
92 P3 165 -5.941
92 P3 166 -3.988
92 P3 167 -2.523
92 P3 168 -1.058
92 P3 169 -0.570
92 P3 170 -0.570
92 P3 171 -1.546
92 P3 172 -3.499
92 P3 173 -5.452
92 P3 174 -6.429
92 P3 175 -6.429
92 P3 176 -5.941
92 P3 177 -5.452
92 P3 178 -5.941
92 P3 179 -7.406
92 P3 180 -8.382
92 P3 181 -8.382
92 P3 182 -6.917
92 P3 183 -3.988
92 P3 184 -2.523
92 P3 185 -2.035
92 P3 186 -3.011
92 P3 187 -4.476
92 P3 188 -5.941
92 P3 189 -6.429
92 P3 190 -6.917
92 P3 191 -6.429
92 P3 192 -5.452
92 P3 193 -3.499
92 P3 194 -1.058
92 P3 195 0.895
92 P3 196 1.383
92 P3 197 0.895
92 P3 198 -1.058
92 P3 199 -2.523
92 P3 200 -4.964
92 P3 201 -7.894
92 P3 202 -10.824
92 P3 203 -13.265
92 P3 204 -13.265
92 P3 205 -10.824
92 P3 206 -6.429
92 P3 207 -2.035
92 P3 208 0.895
92 P3 209 1.872
92 P3 210 0.895
92 P3 211 -1.058
92 P3 212 -2.035
92 P3 213 -3.011
92 P3 214 -3.499
92 P3 215 -3.988
92 P3 216 -4.476
92 P3 217 -4.964
92 P3 218 -4.964
92 P3 219 -3.988
92 P3 220 -3.499
92 P3 221 -3.988
92 P3 222 -3.988
92 P3 223 -3.499
92 P3 224 -1.546
92 P3 225 1.383
92 P3 226 4.313
92 P3 227 7.243
92 P3 228 8.219
92 P3 229 7.243
92 P3 230 4.801
92 P3 231 2.848
92 P3 232 1.383
92 P3 233 1.383
92 P3 234 0.895
92 P3 235 -0.570
92 P3 236 -3.011
92 P3 237 -5.941
92 P3 238 -8.382
92 P3 239 -9.359
92 P3 240 -8.382
92 P3 241 -5.941
92 P3 242 -3.011
92 P3 243 -0.081
92 P3 244 1.872
92 P3 245 2.360
92 P3 246 2.360
92 P3 247 1.383
92 P3 248 0.895
92 P3 249 0.407
92 P3 250 -0.081
92 P3 251 -0.570
92 P3 252 -1.546
92 P3 253 -2.523
92 P3 254 -2.523
92 P3 255 -1.058
# P4 chan 23
92 P4 0 1.658
92 P4 1 2.146
92 P4 2 1.658
92 P4 3 0.682
92 P4 4 -0.295
92 P4 5 -2.248
92 P4 6 -3.713
92 P4 7 -5.178
92 P4 8 -5.178
92 P4 9 -4.201
92 P4 10 -2.736
92 P4 11 -1.760
92 P4 12 -1.272
92 P4 13 -1.272
92 P4 14 -1.272
92 P4 15 -0.783
92 P4 16 -0.783
92 P4 17 -1.272
92 P4 18 -2.248
92 P4 19 -3.225
92 P4 20 -3.225
92 P4 21 -2.248
92 P4 22 -0.295
92 P4 23 1.170
92 P4 24 1.658
92 P4 25 1.658
92 P4 26 2.146
92 P4 27 2.146
92 P4 28 2.635
92 P4 29 1.658
92 P4 30 -0.295
92 P4 31 -2.736
92 P4 32 -5.178
92 P4 33 -5.666
92 P4 34 -5.178
92 P4 35 -3.713
92 P4 36 -3.225
92 P4 37 -4.201
92 P4 38 -5.178
92 P4 39 -5.666
92 P4 40 -4.690
92 P4 41 -2.248
92 P4 42 -0.295
92 P4 43 0.193
92 P4 44 -1.272
92 P4 45 -2.248
92 P4 46 -2.736
92 P4 47 -1.760
92 P4 48 -0.295
92 P4 49 0.193
92 P4 50 -0.783
92 P4 51 -2.248
92 P4 52 -3.713
92 P4 53 -4.201
92 P4 54 -3.225
92 P4 55 -2.248
92 P4 56 -1.272
92 P4 57 -1.272
92 P4 58 -1.760
92 P4 59 -2.248
92 P4 60 -2.736
92 P4 61 -2.736
92 P4 62 -2.248
92 P4 63 -1.760
92 P4 64 -1.760
92 P4 65 -2.248
92 P4 66 -3.713
92 P4 67 -4.690
92 P4 68 -5.178
92 P4 69 -5.178
92 P4 70 -3.713
92 P4 71 -2.248
92 P4 72 -1.760
92 P4 73 -2.248
92 P4 74 -3.713
92 P4 75 -4.690
92 P4 76 -4.690
92 P4 77 -3.713
92 P4 78 -1.760
92 P4 79 0.193
92 P4 80 0.682
92 P4 81 0.193
92 P4 82 -0.783
92 P4 83 -1.760
92 P4 84 -2.736
92 P4 85 -3.713
92 P4 86 -3.713
92 P4 87 -3.713
92 P4 88 -2.736
92 P4 89 -1.760
92 P4 90 -1.272
92 P4 91 -1.760
92 P4 92 -3.225
92 P4 93 -4.201
92 P4 94 -4.201
92 P4 95 -2.736
92 P4 96 -1.272
92 P4 97 -0.295
92 P4 98 0.193
92 P4 99 -0.295
92 P4 100 -0.783
92 P4 101 -0.783
92 P4 102 -0.783
92 P4 103 -0.295
92 P4 104 -0.295
92 P4 105 -0.295
92 P4 106 -1.760
92 P4 107 -2.736
92 P4 108 -4.201
92 P4 109 -4.690
92 P4 110 -4.690
92 P4 111 -3.713
92 P4 112 -1.760
92 P4 113 0.682
92 P4 114 2.146
92 P4 115 3.123
92 P4 116 2.146
92 P4 117 1.170
92 P4 118 -0.295
92 P4 119 -0.783
92 P4 120 -0.295
92 P4 121 0.682
92 P4 122 0.682
92 P4 123 0.193
92 P4 124 -1.272
92 P4 125 -3.225
92 P4 126 -4.690
92 P4 127 -5.178
92 P4 128 -4.690
92 P4 129 -4.201
92 P4 130 -3.713
92 P4 131 -2.736
92 P4 132 -2.248
92 P4 133 -1.760
92 P4 134 -0.783
92 P4 135 -0.295
92 P4 136 -0.295
92 P4 137 -0.295
92 P4 138 -0.295
92 P4 139 0.193
92 P4 140 1.170
92 P4 141 2.146
92 P4 142 2.635
92 P4 143 1.170
92 P4 144 -0.295
92 P4 145 -2.248
92 P4 146 -3.713
92 P4 147 -3.713
92 P4 148 -3.225
92 P4 149 -2.248
92 P4 150 -1.272
92 P4 151 -1.760
92 P4 152 -2.736
92 P4 153 -4.201
92 P4 154 -5.178
92 P4 155 -5.666
92 P4 156 -5.178
92 P4 157 -2.736
92 P4 158 -0.295
92 P4 159 2.146
92 P4 160 3.123
92 P4 161 2.146
92 P4 162 0.193
92 P4 163 -1.760
92 P4 164 -2.736
92 P4 165 -2.248
92 P4 166 -0.783
92 P4 167 0.193
92 P4 168 0.193
92 P4 169 -0.295
92 P4 170 -1.272
92 P4 171 -2.248
92 P4 172 -3.225
92 P4 173 -4.690
92 P4 174 -5.178
92 P4 175 -5.666
92 P4 176 -5.178
92 P4 177 -3.713
92 P4 178 -2.736
92 P4 179 -2.736
92 P4 180 -3.225
92 P4 181 -4.201
92 P4 182 -3.713
92 P4 183 -2.248
92 P4 184 -1.272
92 P4 185 -0.295
92 P4 186 -0.295
92 P4 187 -0.783
92 P4 188 -2.248
92 P4 189 -3.225
92 P4 190 -4.690
92 P4 191 -5.666
92 P4 192 -6.154
92 P4 193 -5.178
92 P4 194 -4.201
92 P4 195 -3.225
92 P4 196 -2.248
92 P4 197 -2.248
92 P4 198 -2.248
92 P4 199 -2.736
92 P4 200 -3.713
92 P4 201 -4.690
92 P4 202 -5.666
92 P4 203 -6.154
92 P4 204 -6.154
92 P4 205 -4.201
92 P4 206 -2.248
92 P4 207 -0.295
92 P4 208 1.170
92 P4 209 2.146
92 P4 210 1.658
92 P4 211 0.193
92 P4 212 -1.272
92 P4 213 -3.225
92 P4 214 -5.178
92 P4 215 -6.154
92 P4 216 -5.666
92 P4 217 -5.178
92 P4 218 -2.736
92 P4 219 -0.783
92 P4 220 0.193
92 P4 221 0.193
92 P4 222 -0.295
92 P4 223 -0.295
92 P4 224 0.682
92 P4 225 2.146
92 P4 226 3.611
92 P4 227 4.100
92 P4 228 3.123
92 P4 229 1.170
92 P4 230 -1.272
92 P4 231 -2.248
92 P4 232 -1.760
92 P4 233 0.193
92 P4 234 1.658
92 P4 235 2.635
92 P4 236 1.170
92 P4 237 -2.248
92 P4 238 -6.643
92 P4 239 -9.084
92 P4 240 -9.084
92 P4 241 -7.131
92 P4 242 -4.201
92 P4 243 -1.272
92 P4 244 -0.295
92 P4 245 -0.783
92 P4 246 -1.272
92 P4 247 -1.272
92 P4 248 0.193
92 P4 249 1.658
92 P4 250 2.635
92 P4 251 1.658
92 P4 252 0.193
92 P4 253 -0.783
92 P4 254 -0.295
92 P4 255 1.170
# PZ chan 24
92 PZ 0 1.617
92 PZ 1 1.617
92 PZ 2 1.129
92 PZ 3 0.153
92 PZ 4 -0.824
92 PZ 5 -2.289
92 PZ 6 -3.265
92 PZ 7 -4.242
92 PZ 8 -3.754
92 PZ 9 -3.265
92 PZ 10 -1.801
92 PZ 11 -0.824
92 PZ 12 0.153
92 PZ 13 0.641
92 PZ 14 0.641
92 PZ 15 0.153
92 PZ 16 -0.336
92 PZ 17 -0.824
92 PZ 18 -1.801
92 PZ 19 -1.801
92 PZ 20 -1.312
92 PZ 21 -0.336
92 PZ 22 1.129
92 PZ 23 1.617
92 PZ 24 1.129
92 PZ 25 0.153
92 PZ 26 -0.336
92 PZ 27 -0.336
92 PZ 28 0.153
92 PZ 29 1.129
92 PZ 30 0.641
92 PZ 31 -0.336
92 PZ 32 -1.312
92 PZ 33 -1.801
92 PZ 34 -1.801
92 PZ 35 -1.312
92 PZ 36 -1.312
92 PZ 37 -2.289
92 PZ 38 -2.777
92 PZ 39 -2.777
92 PZ 40 -1.312
92 PZ 41 0.153
92 PZ 42 1.617
92 PZ 43 1.617
92 PZ 44 -0.336
92 PZ 45 -2.289
92 PZ 46 -3.265
92 PZ 47 -2.777
92 PZ 48 -0.824
92 PZ 49 0.153
92 PZ 50 -0.336
92 PZ 51 -1.801
92 PZ 52 -3.754
92 PZ 53 -4.730
92 PZ 54 -3.754
92 PZ 55 -2.777
92 PZ 56 -1.801
92 PZ 57 -1.312
92 PZ 58 -1.312
92 PZ 59 -1.801
92 PZ 60 -1.801
92 PZ 61 -1.312
92 PZ 62 -0.336
92 PZ 63 0.153
92 PZ 64 -0.336
92 PZ 65 -1.312
92 PZ 66 -2.777
92 PZ 67 -3.265
92 PZ 68 -4.242
92 PZ 69 -3.754
92 PZ 70 -2.777
92 PZ 71 -1.801
92 PZ 72 -0.824
92 PZ 73 -1.312
92 PZ 74 -1.801
92 PZ 75 -2.777
92 PZ 76 -3.265
92 PZ 77 -3.754
92 PZ 78 -3.265
92 PZ 79 -1.801
92 PZ 80 -1.312
92 PZ 81 -0.824
92 PZ 82 -0.824
92 PZ 83 -1.312
92 PZ 84 -2.289
92 PZ 85 -2.777
92 PZ 86 -2.777
92 PZ 87 -2.289
92 PZ 88 -1.312
92 PZ 89 -0.824
92 PZ 90 -0.336
92 PZ 91 -0.336
92 PZ 92 0.153
92 PZ 93 0.153
92 PZ 94 0.641
92 PZ 95 1.129
92 PZ 96 0.641
92 PZ 97 0.153
92 PZ 98 0.153
92 PZ 99 0.153
92 PZ 100 0.641
92 PZ 101 1.617
92 PZ 102 1.129
92 PZ 103 0.641
92 PZ 104 -0.336
92 PZ 105 -1.312
92 PZ 106 -1.801
92 PZ 107 -2.777
92 PZ 108 -3.265
92 PZ 109 -4.242
92 PZ 110 -3.754
92 PZ 111 -2.289
92 PZ 112 0.153
92 PZ 113 2.594
92 PZ 114 4.059
92 PZ 115 4.547
92 PZ 116 3.571
92 PZ 117 2.106
92 PZ 118 1.617
92 PZ 119 1.129
92 PZ 120 1.617
92 PZ 121 2.106
92 PZ 122 2.106
92 PZ 123 1.129
92 PZ 124 -0.336
92 PZ 125 -1.801
92 PZ 126 -3.265
92 PZ 127 -4.730
92 PZ 128 -5.219
92 PZ 129 -4.730
92 PZ 130 -3.754
92 PZ 131 -2.777
92 PZ 132 -2.289
92 PZ 133 -1.312
92 PZ 134 -1.312
92 PZ 135 -1.801
92 PZ 136 -2.289
92 PZ 137 -2.289
92 PZ 138 -1.312
92 PZ 139 -0.336
92 PZ 140 0.641
92 PZ 141 1.129
92 PZ 142 1.129
92 PZ 143 0.153
92 PZ 144 -1.312
92 PZ 145 -2.777
92 PZ 146 -3.754
92 PZ 147 -3.754
92 PZ 148 -3.265
92 PZ 149 -1.801
92 PZ 150 -0.336
92 PZ 151 -0.336
92 PZ 152 -1.312
92 PZ 153 -3.265
92 PZ 154 -5.707
92 PZ 155 -6.683
92 PZ 156 -5.707
92 PZ 157 -3.265
92 PZ 158 -0.824
92 PZ 159 1.617
92 PZ 160 2.106
92 PZ 161 1.129
92 PZ 162 -1.801
92 PZ 163 -4.242
92 PZ 164 -5.707
92 PZ 165 -5.219
92 PZ 166 -3.754
92 PZ 167 -2.289
92 PZ 168 -0.824
92 PZ 169 -0.336
92 PZ 170 -1.312
92 PZ 171 -2.777
92 PZ 172 -4.730
92 PZ 173 -6.683
92 PZ 174 -7.660
92 PZ 175 -7.660
92 PZ 176 -7.172
92 PZ 177 -5.707
92 PZ 178 -5.219
92 PZ 179 -4.730
92 PZ 180 -5.219
92 PZ 181 -5.219
92 PZ 182 -4.730
92 PZ 183 -3.265
92 PZ 184 -2.289
92 PZ 185 -1.801
92 PZ 186 -2.289
92 PZ 187 -2.777
92 PZ 188 -3.754
92 PZ 189 -4.242
92 PZ 190 -5.219
92 PZ 191 -5.219
92 PZ 192 -5.219
92 PZ 193 -4.242
92 PZ 194 -3.265
92 PZ 195 -2.289
92 PZ 196 -1.801
92 PZ 197 -2.289
92 PZ 198 -2.777
92 PZ 199 -3.265
92 PZ 200 -3.754
92 PZ 201 -4.242
92 PZ 202 -5.219
92 PZ 203 -5.707
92 PZ 204 -5.707
92 PZ 205 -4.730
92 PZ 206 -2.777
92 PZ 207 -0.336
92 PZ 208 1.617
92 PZ 209 2.106
92 PZ 210 1.617
92 PZ 211 0.153
92 PZ 212 -1.312
92 PZ 213 -2.777
92 PZ 214 -3.265
92 PZ 215 -4.242
92 PZ 216 -4.242
92 PZ 217 -4.242
92 PZ 218 -3.754
92 PZ 219 -2.777
92 PZ 220 -1.801
92 PZ 221 -1.801
92 PZ 222 -1.312
92 PZ 223 -0.824
92 PZ 224 1.129
92 PZ 225 3.571
92 PZ 226 6.500
92 PZ 227 8.453
92 PZ 228 8.453
92 PZ 229 6.500
92 PZ 230 3.571
92 PZ 231 1.129
92 PZ 232 -0.336
92 PZ 233 0.153
92 PZ 234 0.153
92 PZ 235 -0.336
92 PZ 236 -2.289
92 PZ 237 -4.730
92 PZ 238 -6.683
92 PZ 239 -8.148
92 PZ 240 -8.148
92 PZ 241 -6.683
92 PZ 242 -4.730
92 PZ 243 -2.777
92 PZ 244 -1.312
92 PZ 245 -0.824
92 PZ 246 -0.336
92 PZ 247 0.153
92 PZ 248 1.617
92 PZ 249 2.106
92 PZ 250 2.594
92 PZ 251 2.106
92 PZ 252 0.641
92 PZ 253 -0.336
92 PZ 254 -0.824
92 PZ 255 -0.336
# P8 chan 25
92 P8 0 0.926
92 P8 1 1.414
92 P8 2 0.926
92 P8 3 0.437
92 P8 4 -0.051
92 P8 5 -1.516
92 P8 6 -3.957
92 P8 7 -5.910
92 P8 8 -6.887
92 P8 9 -6.887
92 P8 10 -6.399
92 P8 11 -5.422
92 P8 12 -5.422
92 P8 13 -5.422
92 P8 14 -5.422
92 P8 15 -4.934
92 P8 16 -4.934
92 P8 17 -4.934
92 P8 18 -5.910
92 P8 19 -7.375
92 P8 20 -7.863
92 P8 21 -6.887
92 P8 22 -4.445
92 P8 23 -2.004
92 P8 24 0.437
92 P8 25 1.414
92 P8 26 2.391
92 P8 27 3.367
92 P8 28 3.855
92 P8 29 2.879
92 P8 30 0.437
92 P8 31 -2.981
92 P8 32 -6.399
92 P8 33 -8.352
92 P8 34 -8.840
92 P8 35 -8.352
92 P8 36 -8.352
92 P8 37 -8.840
92 P8 38 -10.793
92 P8 39 -11.281
92 P8 40 -9.816
92 P8 41 -7.375
92 P8 42 -4.445
92 P8 43 -3.469
92 P8 44 -4.445
92 P8 45 -5.910
92 P8 46 -6.399
92 P8 47 -5.422
92 P8 48 -2.981
92 P8 49 -1.027
92 P8 50 -1.027
92 P8 51 -2.004
92 P8 52 -3.957
92 P8 53 -4.934
92 P8 54 -4.445
92 P8 55 -2.981
92 P8 56 -2.981
92 P8 57 -3.469
92 P8 58 -5.422
92 P8 59 -7.375
92 P8 60 -9.328
92 P8 61 -10.305
92 P8 62 -10.305
92 P8 63 -8.840
92 P8 64 -7.863
92 P8 65 -7.863
92 P8 66 -8.840
92 P8 67 -10.305
92 P8 68 -10.793
92 P8 69 -10.305
92 P8 70 -8.840
92 P8 71 -6.399
92 P8 72 -4.934
92 P8 73 -4.934
92 P8 74 -5.910
92 P8 75 -6.887
92 P8 76 -6.399
92 P8 77 -4.445
92 P8 78 -2.492
92 P8 79 -1.516
92 P8 80 -2.492
92 P8 81 -4.445
92 P8 82 -5.910
92 P8 83 -6.887
92 P8 84 -7.375
92 P8 85 -7.375
92 P8 86 -7.375
92 P8 87 -6.887
92 P8 88 -5.422
92 P8 89 -2.492
92 P8 90 -0.539
92 P8 91 -0.051
92 P8 92 -1.516
92 P8 93 -3.957
92 P8 94 -6.399
92 P8 95 -6.887
92 P8 96 -5.910
92 P8 97 -4.445
92 P8 98 -3.957
92 P8 99 -4.934
92 P8 100 -6.399
92 P8 101 -7.375
92 P8 102 -7.375
92 P8 103 -6.399
92 P8 104 -5.422
92 P8 105 -5.910
92 P8 106 -7.375
92 P8 107 -9.328
92 P8 108 -10.793
92 P8 109 -10.793
92 P8 110 -9.328
92 P8 111 -6.399
92 P8 112 -3.469
92 P8 113 -1.027
92 P8 114 -0.539
92 P8 115 -1.516
92 P8 116 -3.957
92 P8 117 -6.887
92 P8 118 -8.840
92 P8 119 -8.840
92 P8 120 -7.375
92 P8 121 -5.910
92 P8 122 -4.934
92 P8 123 -5.910
92 P8 124 -7.375
92 P8 125 -9.328
92 P8 126 -10.305
92 P8 127 -10.305
92 P8 128 -8.840
92 P8 129 -7.863
92 P8 130 -7.375
92 P8 131 -6.887
92 P8 132 -6.399
92 P8 133 -5.422
92 P8 134 -4.934
92 P8 135 -4.445
92 P8 136 -5.422
92 P8 137 -7.375
92 P8 138 -8.352
92 P8 139 -8.352
92 P8 140 -6.887
92 P8 141 -4.934
92 P8 142 -2.981
92 P8 143 -3.469
92 P8 144 -5.422
92 P8 145 -7.863
92 P8 146 -9.328
92 P8 147 -9.328
92 P8 148 -7.375
92 P8 149 -5.422
92 P8 150 -4.445
92 P8 151 -4.445
92 P8 152 -4.934
92 P8 153 -6.887
92 P8 154 -8.352
92 P8 155 -8.840
92 P8 156 -9.328
92 P8 157 -7.863
92 P8 158 -5.422
92 P8 159 -2.492
92 P8 160 -0.539
92 P8 161 -0.539
92 P8 162 -1.516
92 P8 163 -3.957
92 P8 164 -5.422
92 P8 165 -4.934
92 P8 166 -2.981
92 P8 167 -1.027
92 P8 168 -0.051
92 P8 169 -0.051
92 P8 170 -1.027
92 P8 171 -2.004
92 P8 172 -2.981
92 P8 173 -2.981
92 P8 174 -2.981
92 P8 175 -2.981
92 P8 176 -2.492
92 P8 177 -2.492
92 P8 178 -2.981
92 P8 179 -4.445
92 P8 180 -5.910
92 P8 181 -6.887
92 P8 182 -6.887
92 P8 183 -5.910
92 P8 184 -4.445
92 P8 185 -3.469
92 P8 186 -2.981
92 P8 187 -2.981
92 P8 188 -3.469
92 P8 189 -4.934
92 P8 190 -6.887
92 P8 191 -8.840
92 P8 192 -9.328
92 P8 193 -8.840
92 P8 194 -6.399
92 P8 195 -3.957
92 P8 196 -2.492
92 P8 197 -2.004
92 P8 198 -3.469
92 P8 199 -4.934
92 P8 200 -6.399
92 P8 201 -7.863
92 P8 202 -9.328
92 P8 203 -9.328
92 P8 204 -8.840
92 P8 205 -6.399
92 P8 206 -3.957
92 P8 207 -1.516
92 P8 208 0.437
92 P8 209 0.437
92 P8 210 -0.051
92 P8 211 -1.027
92 P8 212 -2.492
92 P8 213 -4.445
92 P8 214 -6.399
92 P8 215 -7.863
92 P8 216 -7.375
92 P8 217 -5.422
92 P8 218 -2.492
92 P8 219 0.437
92 P8 220 0.926
92 P8 221 -1.027
92 P8 222 -3.957
92 P8 223 -5.910
92 P8 224 -6.399
92 P8 225 -4.445
92 P8 226 -2.004
92 P8 227 -0.539
92 P8 228 -0.539
92 P8 229 -2.492
92 P8 230 -4.934
92 P8 231 -5.910
92 P8 232 -4.934
92 P8 233 -2.004
92 P8 234 1.902
92 P8 235 3.855
92 P8 236 3.367
92 P8 237 0.437
92 P8 238 -3.469
92 P8 239 -6.399
92 P8 240 -6.887
92 P8 241 -4.445
92 P8 242 -1.027
92 P8 243 0.926
92 P8 244 0.437
92 P8 245 -2.004
92 P8 246 -5.422
92 P8 247 -6.399
92 P8 248 -5.422
92 P8 249 -2.981
92 P8 250 -0.539
92 P8 251 -0.051
92 P8 252 -0.539
92 P8 253 -1.027
92 P8 254 -0.051
92 P8 255 2.391
# P7 chan 26
92 P7 0 -1.058
92 P7 1 0.895
92 P7 2 2.360
92 P7 3 2.360
92 P7 4 0.895
92 P7 5 -1.546
92 P7 6 -3.499
92 P7 7 -3.988
92 P7 8 -3.499
92 P7 9 -3.011
92 P7 10 -3.011
92 P7 11 -2.523
92 P7 12 -1.546
92 P7 13 -0.081
92 P7 14 0.895
92 P7 15 0.895
92 P7 16 -1.058
92 P7 17 -3.988
92 P7 18 -5.941
92 P7 19 -6.917
92 P7 20 -5.452
92 P7 21 -3.499
92 P7 22 -1.058
92 P7 23 0.895
92 P7 24 1.872
92 P7 25 1.872
92 P7 26 1.872
92 P7 27 2.360
92 P7 28 4.313
92 P7 29 6.755
92 P7 30 8.708
92 P7 31 9.196
92 P7 32 7.243
92 P7 33 3.337
92 P7 34 -0.570
92 P7 35 -3.011
92 P7 36 -3.988
92 P7 37 -3.499
92 P7 38 -2.523
92 P7 39 -2.523
92 P7 40 -2.523
92 P7 41 -2.035
92 P7 42 -1.546
92 P7 43 -1.058
92 P7 44 -1.546
92 P7 45 -2.523
92 P7 46 -3.011
92 P7 47 -2.035
92 P7 48 -0.081
92 P7 49 1.872
92 P7 50 2.360
92 P7 51 1.383
92 P7 52 -0.081
92 P7 53 -1.058
92 P7 54 -1.058
92 P7 55 -1.058
92 P7 56 -2.035
92 P7 57 -4.964
92 P7 58 -7.894
92 P7 59 -8.870
92 P7 60 -7.894
92 P7 61 -4.964
92 P7 62 -2.035
92 P7 63 -1.058
92 P7 64 -2.523
92 P7 65 -5.941
92 P7 66 -8.870
92 P7 67 -9.847
92 P7 68 -9.847
92 P7 69 -8.870
92 P7 70 -6.917
92 P7 71 -3.988
92 P7 72 -1.058
92 P7 73 1.872
92 P7 74 4.313
92 P7 75 4.801
92 P7 76 3.337
92 P7 77 0.895
92 P7 78 -2.035
92 P7 79 -3.011
92 P7 80 -2.523
92 P7 81 -0.570
92 P7 82 0.895
92 P7 83 1.383
92 P7 84 0.895
92 P7 85 0.407
92 P7 86 0.895
92 P7 87 2.848
92 P7 88 5.290
92 P7 89 7.243
92 P7 90 8.219
92 P7 91 8.219
92 P7 92 8.708
92 P7 93 9.684
92 P7 94 10.173
92 P7 95 8.708
92 P7 96 5.778
92 P7 97 2.848
92 P7 98 1.383
92 P7 99 2.360
92 P7 100 5.290
92 P7 101 7.243
92 P7 102 6.755
92 P7 103 4.313
92 P7 104 1.872
92 P7 105 1.383
92 P7 106 1.872
92 P7 107 2.360
92 P7 108 1.872
92 P7 109 0.407
92 P7 110 0.407
92 P7 111 1.872
92 P7 112 5.290
92 P7 113 7.731
92 P7 114 7.731
92 P7 115 5.778
92 P7 116 2.848
92 P7 117 0.895
92 P7 118 -0.081
92 P7 119 0.407
92 P7 120 1.383
92 P7 121 2.848
92 P7 122 3.825
92 P7 123 4.313
92 P7 124 3.825
92 P7 125 1.383
92 P7 126 -1.546
92 P7 127 -3.988
92 P7 128 -4.964
92 P7 129 -3.499
92 P7 130 -0.081
92 P7 131 1.872
92 P7 132 1.872
92 P7 133 -0.081
92 P7 134 -4.476
92 P7 135 -7.894
92 P7 136 -8.870
92 P7 137 -7.406
92 P7 138 -3.988
92 P7 139 -0.570
92 P7 140 1.383
92 P7 141 1.383
92 P7 142 0.895
92 P7 143 -0.570
92 P7 144 -1.058
92 P7 145 -1.058
92 P7 146 -0.570
92 P7 147 0.407
92 P7 148 2.360
92 P7 149 4.801
92 P7 150 6.755
92 P7 151 7.243
92 P7 152 6.266
92 P7 153 2.848
92 P7 154 -1.058
92 P7 155 -4.476
92 P7 156 -5.452
92 P7 157 -4.476
92 P7 158 -1.546
92 P7 159 1.383
92 P7 160 3.825
92 P7 161 4.313
92 P7 162 2.848
92 P7 163 0.407
92 P7 164 -2.523
92 P7 165 -5.452
92 P7 166 -6.429
92 P7 167 -4.476
92 P7 168 -0.081
92 P7 169 4.313
92 P7 170 6.266
92 P7 171 4.801
92 P7 172 1.383
92 P7 173 -1.546
92 P7 174 -2.523
92 P7 175 -0.570
92 P7 176 0.895
92 P7 177 0.895
92 P7 178 -2.035
92 P7 179 -5.452
92 P7 180 -7.894
92 P7 181 -6.917
92 P7 182 -3.988
92 P7 183 -0.570
92 P7 184 1.872
92 P7 185 1.872
92 P7 186 0.407
92 P7 187 -1.058
92 P7 188 -2.523
92 P7 189 -4.476
92 P7 190 -5.941
92 P7 191 -5.941
92 P7 192 -4.476
92 P7 193 -0.081
92 P7 194 3.825
92 P7 195 6.755
92 P7 196 7.243
92 P7 197 5.778
92 P7 198 3.337
92 P7 199 1.383
92 P7 200 -1.058
92 P7 201 -4.964
92 P7 202 -10.335
92 P7 203 -15.706
92 P7 204 -17.660
92 P7 205 -14.730
92 P7 206 -8.382
92 P7 207 -1.058
92 P7 208 3.825
92 P7 209 4.313
92 P7 210 1.872
92 P7 211 -1.058
92 P7 212 -2.035
92 P7 213 -1.546
92 P7 214 -0.570
92 P7 215 -0.570
92 P7 216 -1.546
92 P7 217 -3.011
92 P7 218 -3.499
92 P7 219 -3.011
92 P7 220 -2.035
92 P7 221 -2.035
92 P7 222 -3.011
92 P7 223 -4.476
92 P7 224 -4.476
92 P7 225 -2.035
92 P7 226 1.383
92 P7 227 4.801
92 P7 228 7.243
92 P7 229 7.243
92 P7 230 6.266
92 P7 231 5.290
92 P7 232 5.290
92 P7 233 6.266
92 P7 234 6.266
92 P7 235 5.290
92 P7 236 1.872
92 P7 237 -2.523
92 P7 238 -5.941
92 P7 239 -6.917
92 P7 240 -4.964
92 P7 241 -1.546
92 P7 242 2.360
92 P7 243 5.778
92 P7 244 7.243
92 P7 245 7.731
92 P7 246 6.755
92 P7 247 4.801
92 P7 248 3.337
92 P7 249 3.337
92 P7 250 3.825
92 P7 251 3.825
92 P7 252 3.337
92 P7 253 2.360
92 P7 254 1.872
92 P7 255 2.848
# PO2 chan 27
92 PO2 0 3.947
92 PO2 1 4.435
92 PO2 2 3.459
92 PO2 3 2.482
92 PO2 4 1.506
92 PO2 5 0.041
92 PO2 6 -1.424
92 PO2 7 -2.889
92 PO2 8 -3.866
92 PO2 9 -3.377
92 PO2 10 -2.401
92 PO2 11 -1.424
92 PO2 12 -0.448
92 PO2 13 -0.448
92 PO2 14 -0.448
92 PO2 15 -0.448
92 PO2 16 -0.936
92 PO2 17 -1.424
92 PO2 18 -2.401
92 PO2 19 -2.889
92 PO2 20 -2.401
92 PO2 21 -0.448
92 PO2 22 1.506
92 PO2 23 2.970
92 PO2 24 2.970
92 PO2 25 2.482
92 PO2 26 1.994
92 PO2 27 2.482
92 PO2 28 3.459
92 PO2 29 3.459
92 PO2 30 1.506
92 PO2 31 -1.424
92 PO2 32 -3.866
92 PO2 33 -5.819
92 PO2 34 -5.819
92 PO2 35 -5.330
92 PO2 36 -4.354
92 PO2 37 -4.842
92 PO2 38 -5.819
92 PO2 39 -6.307
92 PO2 40 -4.354
92 PO2 41 -1.424
92 PO2 42 1.017
92 PO2 43 1.506
92 PO2 44 0.041
92 PO2 45 -2.401
92 PO2 46 -4.354
92 PO2 47 -3.866
92 PO2 48 -2.401
92 PO2 49 -0.936
92 PO2 50 -1.424
92 PO2 51 -2.889
92 PO2 52 -5.330
92 PO2 53 -6.307
92 PO2 54 -5.330
92 PO2 55 -4.354
92 PO2 56 -3.377
92 PO2 57 -3.377
92 PO2 58 -4.354
92 PO2 59 -5.819
92 PO2 60 -6.307
92 PO2 61 -5.330
92 PO2 62 -4.354
92 PO2 63 -3.866
92 PO2 64 -3.377
92 PO2 65 -4.354
92 PO2 66 -5.819
92 PO2 67 -7.284
92 PO2 68 -7.772
92 PO2 69 -7.772
92 PO2 70 -6.307
92 PO2 71 -4.354
92 PO2 72 -3.377
92 PO2 73 -4.354
92 PO2 74 -5.819
92 PO2 75 -7.284
92 PO2 76 -8.748
92 PO2 77 -8.260
92 PO2 78 -7.284
92 PO2 79 -6.307
92 PO2 80 -6.307
92 PO2 81 -6.307
92 PO2 82 -6.307
92 PO2 83 -6.795
92 PO2 84 -7.284
92 PO2 85 -8.260
92 PO2 86 -8.748
92 PO2 87 -7.772
92 PO2 88 -6.307
92 PO2 89 -4.354
92 PO2 90 -2.401
92 PO2 91 -2.401
92 PO2 92 -2.889
92 PO2 93 -3.866
92 PO2 94 -5.330
92 PO2 95 -4.842
92 PO2 96 -4.354
92 PO2 97 -3.866
92 PO2 98 -4.842
92 PO2 99 -5.819
92 PO2 100 -6.307
92 PO2 101 -6.795
92 PO2 102 -6.307
92 PO2 103 -5.819
92 PO2 104 -5.819
92 PO2 105 -7.284
92 PO2 106 -8.748
92 PO2 107 -10.701
92 PO2 108 -11.678
92 PO2 109 -12.166
92 PO2 110 -10.701
92 PO2 111 -8.748
92 PO2 112 -5.330
92 PO2 113 -2.401
92 PO2 114 -0.936
92 PO2 115 -0.936
92 PO2 116 -2.889
92 PO2 117 -5.819
92 PO2 118 -7.284
92 PO2 119 -7.772
92 PO2 120 -7.284
92 PO2 121 -6.307
92 PO2 122 -6.307
92 PO2 123 -7.772
92 PO2 124 -9.725
92 PO2 125 -12.166
92 PO2 126 -13.631
92 PO2 127 -13.631
92 PO2 128 -13.143
92 PO2 129 -12.655
92 PO2 130 -12.166
92 PO2 131 -12.166
92 PO2 132 -11.678
92 PO2 133 -11.190
92 PO2 134 -10.701
92 PO2 135 -11.190
92 PO2 136 -11.678
92 PO2 137 -12.655
92 PO2 138 -12.166
92 PO2 139 -11.190
92 PO2 140 -9.237
92 PO2 141 -7.284
92 PO2 142 -6.307
92 PO2 143 -7.284
92 PO2 144 -9.725
92 PO2 145 -12.655
92 PO2 146 -14.608
92 PO2 147 -14.608
92 PO2 148 -12.655
92 PO2 149 -10.701
92 PO2 150 -9.725
92 PO2 151 -9.237
92 PO2 152 -10.213
92 PO2 153 -12.655
92 PO2 154 -14.608
92 PO2 155 -15.584
92 PO2 156 -15.096
92 PO2 157 -12.655
92 PO2 158 -8.748
92 PO2 159 -5.330
92 PO2 160 -3.377
92 PO2 161 -4.842
92 PO2 162 -7.772
92 PO2 163 -10.701
92 PO2 164 -12.166
92 PO2 165 -11.190
92 PO2 166 -8.748
92 PO2 167 -6.795
92 PO2 168 -6.307
92 PO2 169 -6.795
92 PO2 170 -7.772
92 PO2 171 -9.237
92 PO2 172 -10.213
92 PO2 173 -11.190
92 PO2 174 -12.655
92 PO2 175 -12.655
92 PO2 176 -11.678
92 PO2 177 -10.213
92 PO2 178 -9.237
92 PO2 179 -9.237
92 PO2 180 -10.701
92 PO2 181 -11.190
92 PO2 182 -10.701
92 PO2 183 -8.748
92 PO2 184 -6.795
92 PO2 185 -5.330
92 PO2 186 -5.330
92 PO2 187 -6.307
92 PO2 188 -7.284
92 PO2 189 -7.772
92 PO2 190 -8.260
92 PO2 191 -8.748
92 PO2 192 -8.260
92 PO2 193 -7.284
92 PO2 194 -5.819
92 PO2 195 -4.354
92 PO2 196 -2.889
92 PO2 197 -2.889
92 PO2 198 -3.377
92 PO2 199 -4.842
92 PO2 200 -6.795
92 PO2 201 -8.748
92 PO2 202 -10.213
92 PO2 203 -11.190
92 PO2 204 -11.190
92 PO2 205 -9.237
92 PO2 206 -6.307
92 PO2 207 -3.377
