# co2c0000396.rd
# 120 trials, 64 chans, 416 samples 368 post_stim samples
# 3.906000 msecs uV
# S1 obj , trial 68
# FP1 chan 0
68 FP1 0 -1.780
68 FP1 1 -1.780
68 FP1 2 -1.292
68 FP1 3 0.173
68 FP1 4 1.638
68 FP1 5 3.591
68 FP1 6 5.056
68 FP1 7 6.032
68 FP1 8 6.032
68 FP1 9 4.567
68 FP1 10 3.103
68 FP1 11 2.126
68 FP1 12 2.614
68 FP1 13 3.103
68 FP1 14 4.079
68 FP1 15 5.056
68 FP1 16 6.032
68 FP1 17 7.009
68 FP1 18 8.474
68 FP1 19 8.962
68 FP1 20 8.962
68 FP1 21 7.497
68 FP1 22 5.544
68 FP1 23 3.591
68 FP1 24 2.126
68 FP1 25 1.638
68 FP1 26 0.661
68 FP1 27 -0.804
68 FP1 28 -2.757
68 FP1 29 -4.222
68 FP1 30 -3.733
68 FP1 31 -0.804
68 FP1 32 3.591
68 FP1 33 8.474
68 FP1 34 12.380
68 FP1 35 14.821
68 FP1 36 16.774
68 FP1 37 19.216
68 FP1 38 22.634
68 FP1 39 25.075
68 FP1 40 26.540
68 FP1 41 25.075
68 FP1 42 22.634
68 FP1 43 20.681
68 FP1 44 21.169
68 FP1 45 22.146
68 FP1 46 22.146
68 FP1 47 18.728
68 FP1 48 13.845
68 FP1 49 8.474
68 FP1 50 5.544
68 FP1 51 6.032
68 FP1 52 7.009
68 FP1 53 6.032
68 FP1 54 1.638
68 FP1 55 -2.757
68 FP1 56 -4.710
68 FP1 57 -1.780
68 FP1 58 4.567
68 FP1 59 10.427
68 FP1 60 12.868
68 FP1 61 10.915
68 FP1 62 7.009
68 FP1 63 4.567
68 FP1 64 5.056
68 FP1 65 7.009
68 FP1 66 9.450
68 FP1 67 9.450
68 FP1 68 8.962
68 FP1 69 8.962
68 FP1 70 10.915
68 FP1 71 13.357
68 FP1 72 16.774
68 FP1 73 17.263
68 FP1 74 17.263
68 FP1 75 17.263
68 FP1 76 16.286
68 FP1 77 15.310
68 FP1 78 13.357
68 FP1 79 11.403
68 FP1 80 8.474
68 FP1 81 6.521
68 FP1 82 4.079
68 FP1 83 1.638
68 FP1 84 -1.292
68 FP1 85 -3.733
68 FP1 86 -4.222
68 FP1 87 -2.268
68 FP1 88 1.149
68 FP1 89 3.591
68 FP1 90 4.567
68 FP1 91 4.079
68 FP1 92 4.079
68 FP1 93 5.544
68 FP1 94 8.474
68 FP1 95 11.403
68 FP1 96 12.868
68 FP1 97 11.892
68 FP1 98 9.939
68 FP1 99 7.985
68 FP1 100 7.009
68 FP1 101 7.497
68 FP1 102 7.985
68 FP1 103 8.474
68 FP1 104 8.962
68 FP1 105 9.939
68 FP1 106 10.427
68 FP1 107 9.939
68 FP1 108 8.962
68 FP1 109 7.009
68 FP1 110 5.544
68 FP1 111 4.079
68 FP1 112 3.591
68 FP1 113 3.591
68 FP1 114 4.079
68 FP1 115 5.056
68 FP1 116 6.521
68 FP1 117 7.497
68 FP1 118 6.521
68 FP1 119 3.103
68 FP1 120 -0.315
68 FP1 121 -1.780
68 FP1 122 -0.315
68 FP1 123 2.614
68 FP1 124 5.056
68 FP1 125 5.544
68 FP1 126 3.591
68 FP1 127 0.661
68 FP1 128 -1.780
68 FP1 129 -2.757
68 FP1 130 -1.292
68 FP1 131 0.661
68 FP1 132 3.103
68 FP1 133 3.591
68 FP1 134 2.614
68 FP1 135 -0.315
68 FP1 136 -2.268
68 FP1 137 -3.733
68 FP1 138 -3.245
68 FP1 139 -1.780
68 FP1 140 -1.780
68 FP1 141 -2.268
68 FP1 142 -2.757
68 FP1 143 -0.804
68 FP1 144 3.103
68 FP1 145 8.962
68 FP1 146 12.868
68 FP1 147 13.845
68 FP1 148 11.403
68 FP1 149 7.009
68 FP1 150 4.079
68 FP1 151 4.079
68 FP1 152 6.032
68 FP1 153 8.962
68 FP1 154 10.427
68 FP1 155 10.915
68 FP1 156 10.915
68 FP1 157 10.915
68 FP1 158 11.403
68 FP1 159 11.403
68 FP1 160 10.427
68 FP1 161 7.985
68 FP1 162 5.056
68 FP1 163 3.591
68 FP1 164 3.103
68 FP1 165 3.591
68 FP1 166 4.567
68 FP1 167 5.544
68 FP1 168 5.544
68 FP1 169 6.521
68 FP1 170 7.497
68 FP1 171 8.474
68 FP1 172 8.474
68 FP1 173 7.497
68 FP1 174 7.009
68 FP1 175 7.009
68 FP1 176 7.497
68 FP1 177 8.962
68 FP1 178 9.939
68 FP1 179 9.450
68 FP1 180 7.009
68 FP1 181 4.079
68 FP1 182 2.126
68 FP1 183 2.126
68 FP1 184 3.591
68 FP1 185 5.544
68 FP1 186 7.009
68 FP1 187 7.497
68 FP1 188 7.009
68 FP1 189 7.009
68 FP1 190 7.497
68 FP1 191 7.985
68 FP1 192 8.962
68 FP1 193 9.450
68 FP1 194 8.474
68 FP1 195 7.497
68 FP1 196 5.544
68 FP1 197 3.591
68 FP1 198 3.103
68 FP1 199 2.614
68 FP1 200 2.614
68 FP1 201 2.614
68 FP1 202 2.126
68 FP1 203 0.661
68 FP1 204 0.661
68 FP1 205 0.661
68 FP1 206 1.638
68 FP1 207 1.149
68 FP1 208 -0.315
68 FP1 209 -2.757
68 FP1 210 -6.175
68 FP1 211 -9.104
68 FP1 212 -10.081
68 FP1 213 -9.593
68 FP1 214 -8.128
68 FP1 215 -6.175
68 FP1 216 -3.733
68 FP1 217 -1.292
68 FP1 218 1.638
68 FP1 219 3.591
68 FP1 220 4.567
68 FP1 221 3.591
68 FP1 222 1.149
68 FP1 223 -1.292
68 FP1 224 -3.733
68 FP1 225 -4.222
68 FP1 226 -2.757
68 FP1 227 -1.292
68 FP1 228 -0.315
68 FP1 229 -0.804
68 FP1 230 -2.268
68 FP1 231 -2.757
68 FP1 232 -3.245
68 FP1 233 -2.757
68 FP1 234 -3.245
68 FP1 235 -4.710
68 FP1 236 -7.151
68 FP1 237 -8.616
68 FP1 238 -8.128
68 FP1 239 -5.198
68 FP1 240 -1.292
68 FP1 241 1.149
68 FP1 242 1.638
68 FP1 243 1.149
68 FP1 244 1.638
68 FP1 245 2.614
68 FP1 246 4.079
68 FP1 247 4.567
68 FP1 248 2.614
68 FP1 249 0.173
68 FP1 250 -1.780
68 FP1 251 -2.268
68 FP1 252 -0.315
68 FP1 253 2.614
68 FP1 254 5.056
68 FP1 255 6.032
# FP2 chan 1
68 FP2 0 4.140
68 FP2 1 5.117
68 FP2 2 5.605
68 FP2 3 6.582
68 FP2 4 7.070
68 FP2 5 7.558
68 FP2 6 8.046
68 FP2 7 8.535
68 FP2 8 8.046
68 FP2 9 7.558
68 FP2 10 8.046
68 FP2 11 9.511
68 FP2 12 12.441
68 FP2 13 14.882
68 FP2 14 15.859
68 FP2 15 14.882
68 FP2 16 12.929
68 FP2 17 11.464
68 FP2 18 11.464
68 FP2 19 11.464
68 FP2 20 11.464
68 FP2 21 10.976
68 FP2 22 9.023
68 FP2 23 7.070
68 FP2 24 5.117
68 FP2 25 3.164
68 FP2 26 0.722
68 FP2 27 -2.207
68 FP2 28 -6.114
68 FP2 29 -8.555
68 FP2 30 -7.579
68 FP2 31 -1.719
68 FP2 32 7.558
68 FP2 33 15.859
68 FP2 34 19.765
68 FP2 35 18.789
68 FP2 36 15.371
68 FP2 37 13.906
68 FP2 38 16.836
68 FP2 39 22.695
68 FP2 40 27.578
68 FP2 41 27.578
68 FP2 42 23.671
68 FP2 43 18.789
68 FP2 44 16.836
68 FP2 45 17.324
68 FP2 46 18.300
68 FP2 47 16.347
68 FP2 48 12.441
68 FP2 49 9.023
68 FP2 50 7.558
68 FP2 51 8.535
68 FP2 52 7.558
68 FP2 53 3.164
68 FP2 54 -3.184
68 FP2 55 -7.579
68 FP2 56 -6.602
68 FP2 57 0.722
68 FP2 58 9.511
68 FP2 59 15.371
68 FP2 60 14.394
68 FP2 61 9.023
68 FP2 62 3.652
68 FP2 63 1.699
68 FP2 64 5.117
68 FP2 65 9.511
68 FP2 66 11.464
68 FP2 67 9.511
68 FP2 68 6.093
68 FP2 69 5.117
68 FP2 70 7.558
68 FP2 71 12.441
68 FP2 72 14.882
68 FP2 73 13.418
68 FP2 74 8.535
68 FP2 75 4.140
68 FP2 76 3.164
68 FP2 77 5.117
68 FP2 78 7.558
68 FP2 79 7.558
68 FP2 80 5.605
68 FP2 81 2.675
68 FP2 82 0.722
68 FP2 83 -0.254
68 FP2 84 -0.743
68 FP2 85 -1.231
68 FP2 86 -1.719
68 FP2 87 -1.231
68 FP2 88 0.722
68 FP2 89 2.187
68 FP2 90 2.187
68 FP2 91 0.722
68 FP2 92 -1.231
68 FP2 93 -1.231
68 FP2 94 0.234
68 FP2 95 3.652
68 FP2 96 7.070
68 FP2 97 9.511
68 FP2 98 10.000
68 FP2 99 10.000
68 FP2 100 9.023
68 FP2 101 7.558
68 FP2 102 5.117
68 FP2 103 3.164
68 FP2 104 1.699
68 FP2 105 0.722
68 FP2 106 0.722
68 FP2 107 0.722
68 FP2 108 0.722
68 FP2 109 1.699
68 FP2 110 3.652
68 FP2 111 6.582
68 FP2 112 8.046
68 FP2 113 9.023
68 FP2 114 9.511
68 FP2 115 9.511
68 FP2 116 10.000
68 FP2 117 9.023
68 FP2 118 6.093
68 FP2 119 1.699
68 FP2 120 -2.207
68 FP2 121 -3.672
68 FP2 122 -1.719
68 FP2 123 2.675
68 FP2 124 5.605
68 FP2 125 5.605
68 FP2 126 1.211
68 FP2 127 -4.161
68 FP2 128 -7.090
68 FP2 129 -5.137
68 FP2 130 1.211
68 FP2 131 8.535
68 FP2 132 11.464
68 FP2 133 8.046
68 FP2 134 0.234
68 FP2 135 -6.114
68 FP2 136 -7.090
68 FP2 137 -3.672
68 FP2 138 0.234
68 FP2 139 1.211
68 FP2 140 -2.207
68 FP2 141 -7.579
68 FP2 142 -10.020
68 FP2 143 -7.090
68 FP2 144 -0.254
68 FP2 145 6.093
68 FP2 146 9.023
68 FP2 147 7.558
68 FP2 148 4.140
68 FP2 149 2.675
68 FP2 150 4.140
68 FP2 151 7.070
68 FP2 152 9.023
68 FP2 153 8.535
68 FP2 154 6.582
68 FP2 155 5.605
68 FP2 156 5.605
68 FP2 157 7.070
68 FP2 158 8.046
68 FP2 159 8.535
68 FP2 160 8.535
68 FP2 161 10.000
68 FP2 162 11.464
68 FP2 163 11.464
68 FP2 164 8.535
68 FP2 165 4.140
68 FP2 166 0.722
68 FP2 167 -0.743
68 FP2 168 0.722
68 FP2 169 2.187
68 FP2 170 2.675
68 FP2 171 1.699
68 FP2 172 1.211
68 FP2 173 2.187
68 FP2 174 6.093
68 FP2 175 9.511
68 FP2 176 11.464
68 FP2 177 11.464
68 FP2 178 8.535
68 FP2 179 4.629
68 FP2 180 2.675
68 FP2 181 2.675
68 FP2 182 5.117
68 FP2 183 7.558
68 FP2 184 8.535
68 FP2 185 7.558
68 FP2 186 5.117
68 FP2 187 3.164
68 FP2 188 2.675
68 FP2 189 3.652
68 FP2 190 5.117
68 FP2 191 6.582
68 FP2 192 8.535
68 FP2 193 11.464
68 FP2 194 13.906
68 FP2 195 15.371
68 FP2 196 14.394
68 FP2 197 10.488
68 FP2 198 4.629
68 FP2 199 0.234
68 FP2 200 -0.743
68 FP2 201 1.211
68 FP2 202 5.117
68 FP2 203 7.558
68 FP2 204 7.558
68 FP2 205 4.629
68 FP2 206 1.699
68 FP2 207 0.722
68 FP2 208 1.699
68 FP2 209 2.675
68 FP2 210 1.211
68 FP2 211 -2.207
68 FP2 212 -5.137
68 FP2 213 -5.137
68 FP2 214 -1.719
68 FP2 215 3.164
68 FP2 216 6.582
68 FP2 217 6.093
68 FP2 218 3.164
68 FP2 219 1.211
68 FP2 220 3.164
68 FP2 221 8.046
68 FP2 222 12.441
68 FP2 223 12.929
68 FP2 224 10.488
68 FP2 225 6.582
68 FP2 226 6.093
68 FP2 227 10.000
68 FP2 228 15.371
68 FP2 229 19.277
68 FP2 230 17.812
68 FP2 231 13.418
68 FP2 232 8.535
68 FP2 233 6.582
68 FP2 234 7.558
68 FP2 235 9.023
68 FP2 236 9.511
68 FP2 237 9.023
68 FP2 238 9.023
68 FP2 239 10.976
68 FP2 240 14.394
68 FP2 241 16.836
68 FP2 242 16.836
68 FP2 243 15.371
68 FP2 244 13.906
68 FP2 245 14.394
68 FP2 246 16.347
68 FP2 247 17.812
68 FP2 248 17.324
68 FP2 249 15.371
68 FP2 250 12.929
68 FP2 251 10.976
68 FP2 252 11.464
68 FP2 253 14.394
68 FP2 254 18.789
68 FP2 255 22.207
# F7 chan 2
68 F7 0 1.770
68 F7 1 -1.160
68 F7 2 -1.648
68 F7 3 -0.671
68 F7 4 0.793
68 F7 5 1.770
68 F7 6 2.258
68 F7 7 2.258
68 F7 8 3.723
68 F7 9 7.141
68 F7 10 11.536
68 F7 11 15.930
68 F7 12 17.395
68 F7 13 14.954
68 F7 14 9.583
68 F7 15 4.211
68 F7 16 2.747
68 F7 17 5.676
68 F7 18 11.047
68 F7 19 14.465
68 F7 20 15.442
68 F7 21 14.954
68 F7 22 14.465
68 F7 23 13.977
68 F7 24 13.000
68 F7 25 9.094
68 F7 26 3.723
68 F7 27 -0.183
68 F7 28 0.305
68 F7 29 5.188
68 F7 30 12.024
68 F7 31 15.930
68 F7 32 15.442
68 F7 33 13.489
68 F7 34 13.000
68 F7 35 14.954
68 F7 36 18.372
68 F7 37 21.301
68 F7 38 22.766
68 F7 39 24.231
68 F7 40 27.161
68 F7 41 29.602
68 F7 42 28.625
68 F7 43 23.254
68 F7 44 14.465
68 F7 45 7.141
68 F7 46 4.700
68 F7 47 7.629
68 F7 48 11.047
68 F7 49 10.559
68 F7 50 6.165
68 F7 51 0.305
68 F7 52 -2.625
68 F7 53 -1.160
68 F7 54 1.770
68 F7 55 3.723
68 F7 56 2.258
68 F7 57 -0.671
68 F7 58 -2.136
68 F7 59 -1.160
68 F7 60 2.258
68 F7 61 5.676
68 F7 62 8.118
68 F7 63 8.606
68 F7 64 8.606
68 F7 65 8.118
68 F7 66 8.606
68 F7 67 10.071
68 F7 68 12.024
68 F7 69 14.465
68 F7 70 15.930
68 F7 71 15.930
68 F7 72 14.465
68 F7 73 11.047
68 F7 74 7.141
68 F7 75 5.188
68 F7 76 5.188
68 F7 77 8.118
68 F7 78 11.536
68 F7 79 13.977
68 F7 80 13.977
68 F7 81 11.047
68 F7 82 7.629
68 F7 83 5.188
68 F7 84 3.723
68 F7 85 2.747
68 F7 86 0.793
68 F7 87 -2.136
68 F7 88 -4.089
68 F7 89 -3.601
68 F7 90 -0.183
68 F7 91 4.700
68 F7 92 9.583
68 F7 93 12.512
68 F7 94 13.489
68 F7 95 12.512
68 F7 96 10.071
68 F7 97 7.629
68 F7 98 5.676
68 F7 99 6.165
68 F7 100 8.118
68 F7 101 10.559
68 F7 102 10.559
68 F7 103 7.141
68 F7 104 1.282
68 F7 105 -3.113
68 F7 106 -2.625
68 F7 107 2.258
68 F7 108 7.629
68 F7 109 10.071
68 F7 110 8.606
68 F7 111 6.165
68 F7 112 5.188
68 F7 113 6.653
68 F7 114 9.094
68 F7 115 9.094
68 F7 116 5.676
68 F7 117 -0.183
68 F7 118 -5.066
68 F7 119 -6.531
68 F7 120 -5.066
68 F7 121 -1.648
68 F7 122 0.793
68 F7 123 1.770
68 F7 124 2.747
68 F7 125 4.700
68 F7 126 8.118
68 F7 127 11.047
68 F7 128 10.559
68 F7 129 5.188
68 F7 130 -3.113
68 F7 131 -9.460
68 F7 132 -11.414
68 F7 133 -7.507
68 F7 134 -2.136
68 F7 135 0.305
68 F7 136 -0.183
68 F7 137 -2.136
68 F7 138 -3.601
68 F7 139 -3.601
68 F7 140 -3.113
68 F7 141 -4.578
68 F7 142 -7.507
68 F7 143 -9.460
68 F7 144 -7.507
68 F7 145 -1.648
68 F7 146 5.188
68 F7 147 9.583
68 F7 148 9.583
68 F7 149 7.629
68 F7 150 5.676
68 F7 151 6.165
68 F7 152 7.141
68 F7 153 6.653
68 F7 154 5.188
68 F7 155 3.723
68 F7 156 3.235
68 F7 157 5.676
68 F7 158 8.606
68 F7 159 10.071
68 F7 160 8.118
68 F7 161 3.723
68 F7 162 -1.160
68 F7 163 -4.089
68 F7 164 -5.066
68 F7 165 -4.578
68 F7 166 -3.601
68 F7 167 -3.113
68 F7 168 -1.648
68 F7 169 0.305
68 F7 170 3.723
68 F7 171 5.188
68 F7 172 3.723
68 F7 173 -0.183
68 F7 174 -5.554
68 F7 175 -8.484
68 F7 176 -9.460
68 F7 177 -7.996
68 F7 178 -6.531
68 F7 179 -6.531
68 F7 180 -7.996
68 F7 181 -8.972
68 F7 182 -8.484
68 F7 183 -7.019
68 F7 184 -5.066
68 F7 185 -4.089
68 F7 186 -3.601
68 F7 187 -3.601
68 F7 188 -3.601
68 F7 189 -2.625
68 F7 190 -2.625
68 F7 191 -3.601
68 F7 192 -5.066
68 F7 193 -5.066
68 F7 194 -4.089
68 F7 195 -2.625
68 F7 196 -2.625
68 F7 197 -5.066
68 F7 198 -8.972
68 F7 199 -11.414
68 F7 200 -11.414
68 F7 201 -8.972
68 F7 202 -7.507
68 F7 203 -7.996
68 F7 204 -10.437
68 F7 205 -11.414
68 F7 206 -10.437
68 F7 207 -9.460
68 F7 208 -9.460
68 F7 209 -12.878
68 F7 210 -16.296
68 F7 211 -17.273
68 F7 212 -14.832
68 F7 213 -11.902
68 F7 214 -11.414
68 F7 215 -13.367
68 F7 216 -16.296
68 F7 217 -14.343
68 F7 218 -7.507
68 F7 219 1.282
68 F7 220 5.676
68 F7 221 3.723
68 F7 222 -3.601
68 F7 223 -9.949
68 F7 224 -12.390
68 F7 225 -9.949
68 F7 226 -5.554
68 F7 227 -2.625
68 F7 228 -2.625
68 F7 229 -5.066
68 F7 230 -7.507
68 F7 231 -8.972
68 F7 232 -8.484
68 F7 233 -7.507
68 F7 234 -6.042
68 F7 235 -6.042
68 F7 236 -5.554
68 F7 237 -5.554
68 F7 238 -5.554
68 F7 239 -4.578
68 F7 240 -4.089
68 F7 241 -3.601
68 F7 242 -3.601
68 F7 243 -2.136
68 F7 244 0.305
68 F7 245 3.723
68 F7 246 5.188
68 F7 247 4.700
68 F7 248 1.770
68 F7 249 0.305
68 F7 250 0.305
68 F7 251 3.235
68 F7 252 5.676
68 F7 253 5.676
68 F7 254 4.211
68 F7 255 3.723
# F8 chan 3
68 F8 0 9.318
68 F8 1 0.529
68 F8 2 -5.819
68 F8 3 -7.772
68 F8 4 -5.330
68 F8 5 -2.401
68 F8 6 -0.448
68 F8 7 0.041
68 F8 8 0.529
68 F8 9 1.506
68 F8 10 2.970
68 F8 11 4.435
68 F8 12 5.412
68 F8 13 6.877
68 F8 14 7.853
68 F8 15 7.365
68 F8 16 4.924
68 F8 17 0.529
68 F8 18 -2.889
68 F8 19 -2.401
68 F8 20 1.994
68 F8 21 9.318
68 F8 22 15.177
68 F8 23 15.177
68 F8 24 10.295
68 F8 25 3.947
68 F8 26 0.041
68 F8 27 0.041
68 F8 28 1.994
68 F8 29 2.482
68 F8 30 -0.448
68 F8 31 -4.354
68 F8 32 -5.819
68 F8 33 -2.401
68 F8 34 5.900
68 F8 35 14.201
68 F8 36 19.572
68 F8 37 21.037
68 F8 38 20.549
68 F8 39 19.572
68 F8 40 18.595
68 F8 41 17.619
68 F8 42 15.177
68 F8 43 11.759
68 F8 44 8.341
68 F8 45 6.388
68 F8 46 6.388
68 F8 47 7.365
68 F8 48 7.853
68 F8 49 6.877
68 F8 50 2.970
68 F8 51 -2.401
68 F8 52 -7.284
68 F8 53 -9.725
68 F8 54 -9.725
68 F8 55 -8.748
68 F8 56 -7.772
68 F8 57 -7.284
68 F8 58 -6.307
68 F8 59 -2.889
68 F8 60 1.506
68 F8 61 5.900
68 F8 62 7.365
68 F8 63 6.388
68 F8 64 6.388
68 F8 65 9.806
68 F8 66 15.666
68 F8 67 20.549
68 F8 68 21.525
68 F8 69 17.619
68 F8 70 12.248
68 F8 71 6.388
68 F8 72 1.506
68 F8 73 -3.377
68 F8 74 -6.795
68 F8 75 -7.772
68 F8 76 -3.866
68 F8 77 2.970
68 F8 78 9.806
68 F8 79 12.248
68 F8 80 10.295
68 F8 81 6.877
68 F8 82 5.412
68 F8 83 6.877
68 F8 84 8.830
68 F8 85 6.388
68 F8 86 -0.936
68 F8 87 -10.213
68 F8 88 -16.561
68 F8 89 -16.073
68 F8 90 -9.725
68 F8 91 -0.936
68 F8 92 5.900
68 F8 93 9.806
68 F8 94 11.271
68 F8 95 12.248
68 F8 96 11.759
68 F8 97 9.318
68 F8 98 4.924
68 F8 99 0.529
68 F8 100 -2.889
68 F8 101 -4.842
68 F8 102 -4.842
68 F8 103 -3.377
68 F8 104 -0.448
68 F8 105 3.947
68 F8 106 9.806
68 F8 107 13.713
68 F8 108 13.713
68 F8 109 9.318
68 F8 110 4.435
68 F8 111 2.482
68 F8 112 3.947
68 F8 113 6.877
68 F8 114 7.853
68 F8 115 5.900
68 F8 116 2.482
68 F8 117 2.482
68 F8 118 6.388
68 F8 119 10.783
68 F8 120 11.759
68 F8 121 6.877
68 F8 122 0.041
68 F8 123 -3.866
68 F8 124 -1.912
68 F8 125 3.459
68 F8 126 7.853
68 F8 127 7.853
68 F8 128 4.924
68 F8 129 2.970
68 F8 130 2.970
68 F8 131 4.435
68 F8 132 4.435
68 F8 133 3.459
68 F8 134 1.994
68 F8 135 3.459
68 F8 136 5.900
68 F8 137 7.853
68 F8 138 7.365
68 F8 139 3.459
68 F8 140 0.041
68 F8 141 -0.936
68 F8 142 0.529
68 F8 143 2.970
68 F8 144 2.970
68 F8 145 1.017
68 F8 146 -1.424
68 F8 147 -2.401
68 F8 148 -0.936
68 F8 149 3.459
68 F8 150 8.830
68 F8 151 14.689
68 F8 152 18.595
68 F8 153 20.549
68 F8 154 21.525
68 F8 155 20.060
68 F8 156 16.642
68 F8 157 9.806
68 F8 158 2.482
68 F8 159 -2.401
68 F8 160 -1.912
68 F8 161 4.924
68 F8 162 13.713
68 F8 163 18.595
68 F8 164 16.154
68 F8 165 8.830
68 F8 166 1.017
68 F8 167 -1.912
68 F8 168 0.041
68 F8 169 2.482
68 F8 170 3.947
68 F8 171 2.970
68 F8 172 2.482
68 F8 173 4.435
68 F8 174 8.341
68 F8 175 11.271
68 F8 176 10.783
68 F8 177 7.365
68 F8 178 1.994
68 F8 179 -1.424
68 F8 180 -2.401
68 F8 181 -1.424
68 F8 182 1.017
68 F8 183 4.924
68 F8 184 9.806
68 F8 185 14.689
68 F8 186 16.154
68 F8 187 11.759
68 F8 188 1.994
68 F8 189 -7.772
68 F8 190 -12.655
68 F8 191 -10.213
68 F8 192 -2.401
68 F8 193 5.412
68 F8 194 9.806
68 F8 195 10.783
68 F8 196 10.783
68 F8 197 10.783
68 F8 198 10.783
68 F8 199 9.318
68 F8 200 5.900
68 F8 201 2.482
68 F8 202 1.994
68 F8 203 4.924
68 F8 204 8.341
68 F8 205 9.318
68 F8 206 4.924
68 F8 207 -2.889
68 F8 208 -8.748
68 F8 209 -9.237
68 F8 210 -4.842
68 F8 211 0.041
68 F8 212 1.994
68 F8 213 -0.448
68 F8 214 -3.866
68 F8 215 -3.866
68 F8 216 1.017
68 F8 217 8.341
68 F8 218 12.736
68 F8 219 12.248
68 F8 220 7.853
68 F8 221 3.947
68 F8 222 4.435
68 F8 223 8.341
68 F8 224 12.736
68 F8 225 14.689
68 F8 226 14.689
68 F8 227 14.689
68 F8 228 16.154
68 F8 229 18.595
68 F8 230 20.549
68 F8 231 20.549
68 F8 232 20.060
68 F8 233 19.572
68 F8 234 19.084
68 F8 235 17.131
68 F8 236 13.713
68 F8 237 9.318
68 F8 238 5.412
68 F8 239 3.459
68 F8 240 2.970
68 F8 241 4.435
68 F8 242 7.365
68 F8 243 11.759
68 F8 244 18.595
68 F8 245 25.431
68 F8 246 28.849
68 F8 247 27.384
68 F8 248 22.502
68 F8 249 16.642
68 F8 250 12.736
68 F8 251 10.783
68 F8 252 10.783
68 F8 253 10.783
68 F8 254 11.271
68 F8 255 12.736
# AF1 chan 4
68 AF1 0 2.157
68 AF1 1 2.645
68 AF1 2 3.133
68 AF1 3 4.598
68 AF1 4 5.575
68 AF1 5 6.551
68 AF1 6 7.528
68 AF1 7 8.016
68 AF1 8 8.504
68 AF1 9 8.993
68 AF1 10 8.504
68 AF1 11 8.016
68 AF1 12 8.016
68 AF1 13 8.504
68 AF1 14 9.481
68 AF1 15 9.969
68 AF1 16 9.481
68 AF1 17 7.528
68 AF1 18 5.575
68 AF1 19 4.110
68 AF1 20 4.110
68 AF1 21 4.110
68 AF1 22 4.110
68 AF1 23 3.133
68 AF1 24 1.180
68 AF1 25 -0.285
68 AF1 26 -1.750
68 AF1 27 -2.726
68 AF1 28 -4.191
68 AF1 29 -5.168
68 AF1 30 -6.144
68 AF1 31 -4.191
68 AF1 32 -0.285
68 AF1 33 4.110
68 AF1 34 8.504
68 AF1 35 10.457
68 AF1 36 11.434
68 AF1 37 11.922
68 AF1 38 13.387
68 AF1 39 15.340
68 AF1 40 16.805
68 AF1 41 17.293
68 AF1 42 16.805
68 AF1 43 15.828
68 AF1 44 14.852
68 AF1 45 14.852
68 AF1 46 13.875
68 AF1 47 11.922
68 AF1 48 8.993
68 AF1 49 5.575
68 AF1 50 3.621
68 AF1 51 3.133
68 AF1 52 3.621
68 AF1 53 3.621
68 AF1 54 2.645
68 AF1 55 1.180
68 AF1 56 0.203
68 AF1 57 0.203
68 AF1 58 1.180
68 AF1 59 3.133
68 AF1 60 4.598
68 AF1 61 5.086
68 AF1 62 4.110
68 AF1 63 3.621
68 AF1 64 3.621
68 AF1 65 4.110
68 AF1 66 5.575
68 AF1 67 6.063
68 AF1 68 6.063
68 AF1 69 5.575
68 AF1 70 5.575
68 AF1 71 5.575
68 AF1 72 6.063
68 AF1 73 6.551
68 AF1 74 6.551
68 AF1 75 5.575
68 AF1 76 5.086
68 AF1 77 5.575
68 AF1 78 5.575
68 AF1 79 6.063
68 AF1 80 5.086
68 AF1 81 3.133
68 AF1 82 0.203
68 AF1 83 -2.726
68 AF1 84 -5.168
68 AF1 85 -6.632
68 AF1 86 -6.632
68 AF1 87 -5.656
68 AF1 88 -3.703
68 AF1 89 -2.238
68 AF1 90 -0.773
68 AF1 91 0.203
68 AF1 92 0.692
68 AF1 93 2.157
68 AF1 94 3.621
68 AF1 95 4.598
68 AF1 96 4.598
68 AF1 97 3.133
68 AF1 98 1.668
68 AF1 99 0.692
68 AF1 100 0.692
68 AF1 101 1.668
68 AF1 102 2.645
68 AF1 103 1.668
68 AF1 104 0.692
68 AF1 105 0.692
68 AF1 106 1.668
68 AF1 107 3.133
68 AF1 108 4.110
68 AF1 109 3.133
68 AF1 110 1.180
68 AF1 111 -0.285
68 AF1 112 -0.285
68 AF1 113 1.180
68 AF1 114 3.621
68 AF1 115 4.110
68 AF1 116 3.133
68 AF1 117 0.203
68 AF1 118 -2.726
68 AF1 119 -4.191
68 AF1 120 -4.679
68 AF1 121 -4.191
68 AF1 122 -3.215
68 AF1 123 -2.238
68 AF1 124 -1.261
68 AF1 125 -0.285
68 AF1 126 0.203
68 AF1 127 -0.285
68 AF1 128 -2.238
68 AF1 129 -4.191
68 AF1 130 -5.168
68 AF1 131 -4.191
68 AF1 132 -2.726
68 AF1 133 -0.773
68 AF1 134 -1.261
68 AF1 135 -4.191
68 AF1 136 -8.097
68 AF1 137 -11.027
68 AF1 138 -12.004
68 AF1 139 -10.539
68 AF1 140 -7.609
68 AF1 141 -5.168
68 AF1 142 -4.191
68 AF1 143 -3.215
68 AF1 144 -2.238
68 AF1 145 -0.773
68 AF1 146 1.668
68 AF1 147 3.133
68 AF1 148 3.621
68 AF1 149 3.621
68 AF1 150 3.621
68 AF1 151 3.621
68 AF1 152 5.086
68 AF1 153 5.575
68 AF1 154 6.063
68 AF1 155 5.575
68 AF1 156 5.086
68 AF1 157 4.598
68 AF1 158 5.086
68 AF1 159 4.598
68 AF1 160 4.110
68 AF1 161 2.645
68 AF1 162 1.668
68 AF1 163 0.203
68 AF1 164 -0.773
68 AF1 165 -1.750
68 AF1 166 -3.703
68 AF1 167 -4.679
68 AF1 168 -4.191
68 AF1 169 -2.726
68 AF1 170 -0.285
68 AF1 171 1.668
68 AF1 172 2.645
68 AF1 173 1.668
68 AF1 174 0.692
68 AF1 175 0.203
68 AF1 176 0.692
68 AF1 177 1.668
68 AF1 178 2.645
68 AF1 179 3.133
68 AF1 180 2.157
68 AF1 181 0.692
68 AF1 182 0.203
68 AF1 183 0.692
68 AF1 184 2.157
68 AF1 185 4.110
68 AF1 186 5.086
68 AF1 187 6.063
68 AF1 188 7.039
68 AF1 189 7.039
68 AF1 190 7.528
68 AF1 191 7.528
68 AF1 192 7.039
68 AF1 193 6.551
68 AF1 194 6.551
68 AF1 195 6.551
68 AF1 196 5.575
68 AF1 197 3.621
68 AF1 198 1.668
68 AF1 199 -0.773
68 AF1 200 -2.238
68 AF1 201 -2.238
68 AF1 202 -1.261
68 AF1 203 -0.773
68 AF1 204 -0.285
68 AF1 205 -0.285
68 AF1 206 -1.261
68 AF1 207 -2.238
68 AF1 208 -3.215
68 AF1 209 -4.191
68 AF1 210 -5.168
68 AF1 211 -6.144
68 AF1 212 -7.121
68 AF1 213 -7.609
68 AF1 214 -7.609
68 AF1 215 -7.121
68 AF1 216 -5.656
68 AF1 217 -3.703
68 AF1 218 -1.261
68 AF1 219 1.180
68 AF1 220 2.645
68 AF1 221 2.645
68 AF1 222 1.180
68 AF1 223 -0.773
68 AF1 224 -2.238
68 AF1 225 -1.750
68 AF1 226 0.203
68 AF1 227 1.668
68 AF1 228 2.645
68 AF1 229 2.157
68 AF1 230 1.180
68 AF1 231 1.180
68 AF1 232 1.668
68 AF1 233 3.133
68 AF1 234 3.621
68 AF1 235 2.645
68 AF1 236 0.692
68 AF1 237 -0.773
68 AF1 238 -0.285
68 AF1 239 1.668
68 AF1 240 4.110
68 AF1 241 6.063
68 AF1 242 7.528
68 AF1 243 8.016
68 AF1 244 8.993
68 AF1 245 10.457
68 AF1 246 10.946
68 AF1 247 10.457
68 AF1 248 8.993
68 AF1 249 7.528
68 AF1 250 7.039
68 AF1 251 7.528
68 AF1 252 8.993
68 AF1 253 10.457
68 AF1 254 12.410
68 AF1 255 13.387
# AF2 chan 5
68 AF2 0 2.462
68 AF2 1 2.950
68 AF2 2 4.903
68 AF2 3 6.856
68 AF2 4 7.833
68 AF2 5 7.833
68 AF2 6 7.345
68 AF2 7 6.856
68 AF2 8 6.856
68 AF2 9 7.833
68 AF2 10 8.809
68 AF2 11 9.786
68 AF2 12 10.274
68 AF2 13 10.763
68 AF2 14 10.763
68 AF2 15 10.274
68 AF2 16 8.809
68 AF2 17 6.856
68 AF2 18 4.903
68 AF2 19 3.438
68 AF2 20 2.462
68 AF2 21 1.973
68 AF2 22 1.485
68 AF2 23 0.509
68 AF2 24 0.020
68 AF2 25 -0.956
68 AF2 26 -1.933
68 AF2 27 -2.909
68 AF2 28 -4.862
68 AF2 29 -6.327
68 AF2 30 -6.327
68 AF2 31 -3.886
68 AF2 32 -0.468
68 AF2 33 2.950
68 AF2 34 5.391
68 AF2 35 7.833
68 AF2 36 9.786
68 AF2 37 12.716
68 AF2 38 15.645
68 AF2 39 17.598
68 AF2 40 17.598
68 AF2 41 16.134
68 AF2 42 14.669
68 AF2 43 13.692
68 AF2 44 13.692
68 AF2 45 14.669
68 AF2 46 13.692
68 AF2 47 11.739
68 AF2 48 8.809
68 AF2 49 5.391
68 AF2 50 2.950
68 AF2 51 2.462
68 AF2 52 2.950
68 AF2 53 3.438
68 AF2 54 3.438
68 AF2 55 2.462
68 AF2 56 0.997
68 AF2 57 0.020
68 AF2 58 0.997
68 AF2 59 2.950
68 AF2 60 5.391
68 AF2 61 6.856
68 AF2 62 6.368
68 AF2 63 4.415
68 AF2 64 2.950
68 AF2 65 2.950
68 AF2 66 3.927
68 AF2 67 5.880
68 AF2 68 6.856
68 AF2 69 7.345
68 AF2 70 6.368
68 AF2 71 5.391
68 AF2 72 4.903
68 AF2 73 4.415
68 AF2 74 3.927
68 AF2 75 3.438
68 AF2 76 3.438
68 AF2 77 4.415
68 AF2 78 5.880
68 AF2 79 6.856
68 AF2 80 6.368
68 AF2 81 4.415
68 AF2 82 1.973
68 AF2 83 -0.468
68 AF2 84 -2.421
68 AF2 85 -3.398
68 AF2 86 -3.398
68 AF2 87 -2.909
68 AF2 88 -2.909
68 AF2 89 -2.421
68 AF2 90 -1.933
68 AF2 91 -0.956
68 AF2 92 0.509
68 AF2 93 1.973
68 AF2 94 3.438
68 AF2 95 4.903
68 AF2 96 4.903
68 AF2 97 3.927
68 AF2 98 2.462
68 AF2 99 0.997
68 AF2 100 0.997
68 AF2 101 1.485
68 AF2 102 1.973
68 AF2 103 1.485
68 AF2 104 0.997
68 AF2 105 0.997
68 AF2 106 1.973
68 AF2 107 3.438
68 AF2 108 4.903
68 AF2 109 4.415
68 AF2 110 2.950
68 AF2 111 0.997
68 AF2 112 -0.468
68 AF2 113 0.020
68 AF2 114 1.485
68 AF2 115 3.438
68 AF2 116 3.927
68 AF2 117 3.438
68 AF2 118 1.973
68 AF2 119 0.020
68 AF2 120 -0.956
68 AF2 121 -1.444
68 AF2 122 -0.956
68 AF2 123 -0.956
68 AF2 124 -0.468
68 AF2 125 0.020
68 AF2 126 0.509
68 AF2 127 1.485
68 AF2 128 0.997
68 AF2 129 0.020
68 AF2 130 -2.421
68 AF2 131 -3.886
68 AF2 132 -3.398
68 AF2 133 -1.933
68 AF2 134 -0.956
68 AF2 135 -0.956
68 AF2 136 -3.398
68 AF2 137 -6.327
68 AF2 138 -8.769
68 AF2 139 -8.769
68 AF2 140 -6.816
68 AF2 141 -4.862
68 AF2 142 -3.398
68 AF2 143 -3.886
68 AF2 144 -4.374
68 AF2 145 -3.398
68 AF2 146 -1.933
68 AF2 147 0.020
68 AF2 148 0.997
68 AF2 149 1.485
68 AF2 150 0.997
68 AF2 151 1.485
68 AF2 152 3.438
68 AF2 153 5.391
68 AF2 154 6.368
68 AF2 155 6.368
68 AF2 156 5.880
68 AF2 157 4.903
68 AF2 158 3.438
68 AF2 159 2.462
68 AF2 160 1.973
68 AF2 161 1.485
68 AF2 162 1.485
68 AF2 163 0.997
68 AF2 164 0.997
68 AF2 165 0.509
68 AF2 166 -0.468
68 AF2 167 -1.444
68 AF2 168 -1.444
68 AF2 169 -0.956
68 AF2 170 0.997
68 AF2 171 2.462
68 AF2 172 3.438
68 AF2 173 3.438
68 AF2 174 2.462
68 AF2 175 1.485
68 AF2 176 1.485
68 AF2 177 2.950
68 AF2 178 3.927
68 AF2 179 4.415
68 AF2 180 3.927
68 AF2 181 3.438
68 AF2 182 2.950
68 AF2 183 3.927
68 AF2 184 5.391
68 AF2 185 6.856
68 AF2 186 7.833
68 AF2 187 7.345
68 AF2 188 6.856
68 AF2 189 6.368
68 AF2 190 6.368
68 AF2 191 6.368
68 AF2 192 6.368
68 AF2 193 7.345
68 AF2 194 7.345
68 AF2 195 7.345
68 AF2 196 6.368
68 AF2 197 4.415
68 AF2 198 1.485
68 AF2 199 -0.468
68 AF2 200 -0.956
68 AF2 201 0.020
68 AF2 202 0.997
68 AF2 203 1.485
68 AF2 204 0.997
68 AF2 205 0.020
68 AF2 206 0.020
68 AF2 207 -0.468
68 AF2 208 -0.468
68 AF2 209 -1.444
68 AF2 210 -2.909
68 AF2 211 -4.862
68 AF2 212 -5.351
68 AF2 213 -5.351
68 AF2 214 -4.374
68 AF2 215 -3.398
68 AF2 216 -2.421
68 AF2 217 -1.933
68 AF2 218 -0.468
68 AF2 219 2.462
68 AF2 220 4.903
68 AF2 221 6.368
68 AF2 222 5.391
68 AF2 223 4.415
68 AF2 224 3.927
68 AF2 225 5.391
68 AF2 226 7.345
68 AF2 227 9.298
68 AF2 228 9.298
68 AF2 229 7.345
68 AF2 230 5.391
68 AF2 231 4.903
68 AF2 232 6.368
68 AF2 233 8.809
68 AF2 234 10.274
68 AF2 235 10.274
68 AF2 236 8.321
68 AF2 237 6.856
68 AF2 238 6.368
68 AF2 239 6.856
68 AF2 240 8.321
68 AF2 241 9.786
68 AF2 242 10.763
68 AF2 243 11.251
68 AF2 244 12.716
68 AF2 245 13.692
68 AF2 246 14.181
68 AF2 247 13.692
68 AF2 248 12.227
68 AF2 249 10.763
68 AF2 250 10.274
68 AF2 251 10.763
68 AF2 252 12.227
68 AF2 253 13.692
68 AF2 254 14.669
68 AF2 255 14.669
# FZ chan 6
68 FZ 0 1.394
68 FZ 1 1.882
68 FZ 2 2.858
68 FZ 3 3.835
68 FZ 4 5.300
68 FZ 5 5.788
68 FZ 6 6.276
68 FZ 7 5.788
68 FZ 8 5.300
68 FZ 9 5.300
68 FZ 10 5.300
68 FZ 11 5.788
68 FZ 12 6.765
68 FZ 13 6.765
68 FZ 14 6.276
68 FZ 15 5.788
68 FZ 16 4.323
68 FZ 17 2.858
68 FZ 18 1.394
68 FZ 19 0.905
68 FZ 20 0.417
68 FZ 21 -0.071
68 FZ 22 -1.048
68 FZ 23 -1.536
68 FZ 24 -2.024
68 FZ 25 -2.513
68 FZ 26 -2.513
68 FZ 27 -3.977
68 FZ 28 -5.442
68 FZ 29 -6.907
68 FZ 30 -7.884
68 FZ 31 -6.419
68 FZ 32 -3.489
68 FZ 33 -1.048
68 FZ 34 1.394
68 FZ 35 2.858
68 FZ 36 3.347
68 FZ 37 4.323
68 FZ 38 5.300
68 FZ 39 6.765
68 FZ 40 7.741
68 FZ 41 8.230
68 FZ 42 8.718
68 FZ 43 8.230
68 FZ 44 7.741
68 FZ 45 7.253
68 FZ 46 6.276
68 FZ 47 4.812
68 FZ 48 3.347
68 FZ 49 1.394
68 FZ 50 0.417
68 FZ 51 -0.071
68 FZ 52 -0.071
68 FZ 53 0.905
68 FZ 54 1.394
68 FZ 55 1.394
68 FZ 56 0.905
68 FZ 57 0.905
68 FZ 58 0.905
68 FZ 59 2.370
68 FZ 60 3.347
68 FZ 61 3.835
68 FZ 62 3.835
68 FZ 63 2.370
68 FZ 64 1.394
68 FZ 65 0.905
68 FZ 66 1.882
68 FZ 67 3.347
68 FZ 68 4.323
68 FZ 69 4.323
68 FZ 70 3.835
68 FZ 71 2.858
68 FZ 72 2.370
68 FZ 73 1.882
68 FZ 74 1.882
68 FZ 75 1.394
68 FZ 76 1.394
68 FZ 77 1.882
68 FZ 78 2.370
68 FZ 79 2.858
68 FZ 80 2.370
68 FZ 81 0.905
68 FZ 82 -1.536
68 FZ 83 -3.977
68 FZ 84 -5.442
68 FZ 85 -5.442
68 FZ 86 -5.442
68 FZ 87 -4.954
68 FZ 88 -4.466
68 FZ 89 -3.977
68 FZ 90 -3.001
68 FZ 91 -2.024
68 FZ 92 -1.048
68 FZ 93 -0.071
68 FZ 94 -0.071
68 FZ 95 -0.071
68 FZ 96 -0.559
68 FZ 97 -0.559
68 FZ 98 -0.559
68 FZ 99 -0.071
68 FZ 100 0.417
68 FZ 101 0.417
68 FZ 102 -0.071
68 FZ 103 -0.559
68 FZ 104 -2.024
68 FZ 105 -1.536
68 FZ 106 -0.559
68 FZ 107 1.394
68 FZ 108 2.370
68 FZ 109 1.394
68 FZ 110 -0.559
68 FZ 111 -2.513
68 FZ 112 -3.489
68 FZ 113 -3.001
68 FZ 114 -1.536
68 FZ 115 -0.559
68 FZ 116 -0.559
68 FZ 117 -1.536
68 FZ 118 -3.001
68 FZ 119 -3.977
68 FZ 120 -3.977
68 FZ 121 -3.977
68 FZ 122 -3.977
68 FZ 123 -3.489
68 FZ 124 -3.001
68 FZ 125 -2.024
68 FZ 126 -1.536
68 FZ 127 -1.536
68 FZ 128 -2.024
68 FZ 129 -3.001
68 FZ 130 -4.466
68 FZ 131 -4.954
68 FZ 132 -4.466
68 FZ 133 -3.977
68 FZ 134 -3.977
68 FZ 135 -4.954
68 FZ 136 -7.395
68 FZ 137 -9.837
68 FZ 138 -10.813
68 FZ 139 -10.325
68 FZ 140 -8.860
68 FZ 141 -6.907
68 FZ 142 -5.931
68 FZ 143 -5.931
68 FZ 144 -6.419
68 FZ 145 -6.419
68 FZ 146 -4.954
68 FZ 147 -3.489
68 FZ 148 -2.024
68 FZ 149 -1.536
68 FZ 150 -2.024
68 FZ 151 -2.024
68 FZ 152 -1.536
68 FZ 153 -0.559
68 FZ 154 0.417
68 FZ 155 0.905
68 FZ 156 0.905
68 FZ 157 0.905
68 FZ 158 0.417
68 FZ 159 -0.071
68 FZ 160 -0.559
68 FZ 161 -2.024
68 FZ 162 -3.001
68 FZ 163 -3.489
68 FZ 164 -3.977
68 FZ 165 -4.466
68 FZ 166 -5.442
68 FZ 167 -5.931
68 FZ 168 -5.931
68 FZ 169 -5.442
68 FZ 170 -3.977
68 FZ 171 -2.024
68 FZ 172 -0.559
68 FZ 173 -0.071
68 FZ 174 -0.071
68 FZ 175 -0.071
68 FZ 176 -0.071
68 FZ 177 0.905
68 FZ 178 1.882
68 FZ 179 2.370
68 FZ 180 2.370
68 FZ 181 2.370
68 FZ 182 2.858
68 FZ 183 3.347
68 FZ 184 3.835
68 FZ 185 4.812
68 FZ 186 5.788
68 FZ 187 6.276
68 FZ 188 6.276
68 FZ 189 6.276
68 FZ 190 6.276
68 FZ 191 5.788
68 FZ 192 5.788
68 FZ 193 5.788
68 FZ 194 5.300
68 FZ 195 4.323
68 FZ 196 2.858
68 FZ 197 0.905
68 FZ 198 -0.559
68 FZ 199 -2.024
68 FZ 200 -3.001
68 FZ 201 -3.001
68 FZ 202 -2.513
68 FZ 203 -2.024
68 FZ 204 -1.536
68 FZ 205 -1.048
68 FZ 206 -0.559
68 FZ 207 -1.048
68 FZ 208 -2.024
68 FZ 209 -3.489
68 FZ 210 -4.954
68 FZ 211 -5.931
68 FZ 212 -6.419
68 FZ 213 -6.419
68 FZ 214 -6.419
68 FZ 215 -5.931
68 FZ 216 -5.442
68 FZ 217 -3.977
68 FZ 218 -2.024
68 FZ 219 -0.559
68 FZ 220 0.905
68 FZ 221 0.905
68 FZ 222 -0.071
68 FZ 223 -1.048
68 FZ 224 -2.024
68 FZ 225 -1.536
68 FZ 226 -0.071
68 FZ 227 0.905
68 FZ 228 1.882
68 FZ 229 0.905
68 FZ 230 0.417
68 FZ 231 0.417
68 FZ 232 1.394
68 FZ 233 2.858
68 FZ 234 4.323
68 FZ 235 4.323
68 FZ 236 3.347
68 FZ 237 2.370
68 FZ 238 1.882
68 FZ 239 2.858
68 FZ 240 3.835
68 FZ 241 4.812
68 FZ 242 5.788
68 FZ 243 6.276
68 FZ 244 7.253
68 FZ 245 7.741
68 FZ 246 7.741
68 FZ 247 7.253
68 FZ 248 6.276
68 FZ 249 5.300
68 FZ 250 4.812
68 FZ 251 5.300
68 FZ 252 6.276
68 FZ 253 7.253
68 FZ 254 8.230
68 FZ 255 8.718
# F4 chan 7
68 F4 0 3.469
68 F4 1 3.957
68 F4 2 3.957
68 F4 3 4.445
68 F4 4 5.910
68 F4 5 6.887
68 F4 6 6.887
68 F4 7 5.910
68 F4 8 4.934
68 F4 9 5.422
68 F4 10 6.399
68 F4 11 8.352
68 F4 12 9.328
68 F4 13 8.352
68 F4 14 5.910
68 F4 15 3.469
68 F4 16 2.492
68 F4 17 2.492
68 F4 18 4.445
68 F4 19 4.934
68 F4 20 3.957
68 F4 21 1.027
68 F4 22 -2.391
68 F4 23 -5.320
68 F4 24 -5.320
68 F4 25 -3.855
68 F4 26 -1.902
68 F4 27 -1.414
68 F4 28 -3.367
68 F4 29 -5.320
68 F4 30 -6.297
68 F4 31 -4.832
68 F4 32 -1.414
68 F4 33 1.516
68 F4 34 3.469
68 F4 35 4.934
68 F4 36 6.399
68 F4 37 8.352
68 F4 38 10.305
68 F4 39 12.258
68 F4 40 12.258
68 F4 41 11.281
68 F4 42 9.816
68 F4 43 8.352
68 F4 44 7.863
68 F4 45 7.375
68 F4 46 7.375
68 F4 47 6.399
68 F4 48 5.422
68 F4 49 3.469
68 F4 50 2.004
68 F4 51 1.027
68 F4 52 1.027
68 F4 53 1.516
68 F4 54 2.492
68 F4 55 2.004
68 F4 56 1.027
68 F4 57 -0.926
68 F4 58 -1.414
68 F4 59 -0.437
68 F4 60 2.492
68 F4 61 5.422
68 F4 62 6.887
68 F4 63 6.399
68 F4 64 4.445
68 F4 65 3.469
68 F4 66 3.957
68 F4 67 5.910
68 F4 68 8.352
68 F4 69 9.328
68 F4 70 8.840
68 F4 71 6.399
68 F4 72 3.469
68 F4 73 1.027
68 F4 74 -0.437
68 F4 75 0.051
68 F4 76 2.004
68 F4 77 3.469
68 F4 78 4.934
68 F4 79 4.445
68 F4 80 3.469
68 F4 81 2.004
68 F4 82 1.027
68 F4 83 1.027
68 F4 84 1.027
68 F4 85 1.027
68 F4 86 0.051
68 F4 87 -1.414
68 F4 88 -1.902
68 F4 89 -1.414
68 F4 90 0.051
68 F4 91 1.027
68 F4 92 2.004
68 F4 93 1.516
68 F4 94 0.539
68 F4 95 0.051
68 F4 96 0.539
68 F4 97 2.004
68 F4 98 3.957
68 F4 99 4.934
68 F4 100 4.445
68 F4 101 2.004
68 F4 102 -0.437
68 F4 103 -1.902
68 F4 104 -0.926
68 F4 105 1.516
68 F4 106 4.934
68 F4 107 7.375
68 F4 108 6.887
68 F4 109 3.957
68 F4 110 1.027
68 F4 111 -0.437
68 F4 112 -0.437
68 F4 113 1.027
68 F4 114 2.004
68 F4 115 1.516
68 F4 116 0.539
68 F4 117 -0.926
68 F4 118 -0.437
68 F4 119 0.051
68 F4 120 1.027
68 F4 121 0.539
68 F4 122 -1.414
68 F4 123 -2.879
68 F4 124 -2.391
68 F4 125 0.539
68 F4 126 3.957
68 F4 127 6.399
68 F4 128 5.422
68 F4 129 2.004
68 F4 130 -2.391
68 F4 131 -6.297
68 F4 132 -6.785
68 F4 133 -5.320
68 F4 134 -2.879
68 F4 135 -1.902
68 F4 136 -2.879
68 F4 137 -5.320
68 F4 138 -7.762
68 F4 139 -8.250
68 F4 140 -6.297
68 F4 141 -2.879
68 F4 142 -0.437
68 F4 143 0.539
68 F4 144 -0.437
68 F4 145 -1.902
68 F4 146 -2.879
68 F4 147 -3.367
68 F4 148 -3.367
68 F4 149 -2.879
68 F4 150 -2.391
68 F4 151 -1.414
68 F4 152 0.051
68 F4 153 2.004
68 F4 154 3.957
68 F4 155 5.422
68 F4 156 6.887
68 F4 157 6.887
68 F4 158 5.422
68 F4 159 3.469
68 F4 160 1.027
68 F4 161 -0.437
68 F4 162 -0.926
68 F4 163 0.539
68 F4 164 2.492
68 F4 165 3.957
68 F4 166 3.469
68 F4 167 2.492
68 F4 168 0.539
68 F4 169 -0.437
68 F4 170 0.051
68 F4 171 1.516
68 F4 172 3.469
68 F4 173 3.957
68 F4 174 2.981
68 F4 175 1.516
68 F4 176 0.539
68 F4 177 1.516
68 F4 178 2.981
68 F4 179 3.957
68 F4 180 3.957
68 F4 181 2.492
68 F4 182 1.516
68 F4 183 2.004
68 F4 184 3.957
68 F4 185 6.399
68 F4 186 7.375
68 F4 187 7.375
68 F4 188 6.399
68 F4 189 5.422
68 F4 190 6.399
68 F4 191 8.352
68 F4 192 9.816
68 F4 193 9.816
68 F4 194 7.863
68 F4 195 4.445
68 F4 196 1.516
68 F4 197 -0.437
68 F4 198 0.051
68 F4 199 0.051
68 F4 200 0.539
68 F4 201 0.051
68 F4 202 -0.437
68 F4 203 -0.437
68 F4 204 0.539
68 F4 205 1.516
68 F4 206 2.004
68 F4 207 1.516
68 F4 208 0.539
68 F4 209 -1.414
68 F4 210 -1.902
68 F4 211 -1.414
68 F4 212 -0.926
68 F4 213 -0.437
68 F4 214 -1.414
68 F4 215 -2.879
68 F4 216 -4.344
68 F4 217 -4.832
68 F4 218 -3.367
68 F4 219 0.051
68 F4 220 3.469
68 F4 221 5.910
68 F4 222 6.399
68 F4 223 6.399
68 F4 224 6.399
68 F4 225 8.352
68 F4 226 11.281
68 F4 227 12.746
68 F4 228 12.258
68 F4 229 9.328
68 F4 230 5.910
68 F4 231 5.422
68 F4 232 7.863
68 F4 233 10.793
68 F4 234 12.258
68 F4 235 11.281
68 F4 236 9.328
68 F4 237 7.375
68 F4 238 7.375
68 F4 239 8.352
68 F4 240 9.328
68 F4 241 9.328
68 F4 242 8.352
68 F4 243 7.863
68 F4 244 9.328
68 F4 245 11.281
68 F4 246 13.234
68 F4 247 12.746
68 F4 248 10.793
68 F4 249 8.840
68 F4 250 8.352
68 F4 251 9.816
68 F4 252 12.258
68 F4 253 14.211
68 F4 254 14.211
68 F4 255 12.746
# F3 chan 8
68 F3 0 2.513
68 F3 1 2.024
68 F3 2 2.024
68 F3 3 2.024
68 F3 4 2.513
68 F3 5 3.489
68 F3 6 4.954
68 F3 7 5.931
68 F3 8 6.907
68 F3 9 7.395
68 F3 10 7.395
68 F3 11 7.395
68 F3 12 7.395
68 F3 13 7.884
68 F3 14 7.395
68 F3 15 5.931
68 F3 16 3.977
68 F3 17 3.001
68 F3 18 3.001
68 F3 19 3.489
68 F3 20 4.466
68 F3 21 4.466
68 F3 22 3.977
68 F3 23 3.489
68 F3 24 2.513
68 F3 25 1.536
68 F3 26 -0.905
68 F3 27 -3.347
68 F3 28 -5.300
68 F3 29 -6.276
68 F3 30 -4.323
68 F3 31 -1.394
68 F3 32 1.536
68 F3 33 4.954
68 F3 34 6.907
68 F3 35 8.860
68 F3 36 9.837
68 F3 37 10.325
68 F3 38 10.325
68 F3 39 10.325
68 F3 40 11.302
68 F3 41 12.278
68 F3 42 13.255
68 F3 43 13.255
68 F3 44 11.790
68 F3 45 9.837
68 F3 46 7.884
68 F3 47 6.419
68 F3 48 5.442
68 F3 49 3.977
68 F3 50 2.024
68 F3 51 -0.417
68 F3 52 -1.882
68 F3 53 -2.370
68 F3 54 -0.905
68 F3 55 0.559
68 F3 56 1.536
68 F3 57 1.536
68 F3 58 0.559
68 F3 59 0.071
68 F3 60 0.071
68 F3 61 1.048
68 F3 62 1.536
68 F3 63 1.536
68 F3 64 1.536
68 F3 65 2.024
68 F3 66 3.001
68 F3 67 4.466
68 F3 68 5.931
68 F3 69 6.907
68 F3 70 6.419
68 F3 71 5.442
68 F3 72 3.977
68 F3 73 3.489
68 F3 74 3.001
68 F3 75 2.513
68 F3 76 2.024
68 F3 77 2.513
68 F3 78 2.513
68 F3 79 3.489
68 F3 80 3.001
68 F3 81 1.048
68 F3 82 -1.882
68 F3 83 -5.300
68 F3 84 -7.253
68 F3 85 -7.741
68 F3 86 -6.765
68 F3 87 -5.300
68 F3 88 -4.812
68 F3 89 -4.323
68 F3 90 -3.835
68 F3 91 -3.347
68 F3 92 -1.882
68 F3 93 0.559
68 F3 94 1.536
68 F3 95 1.536
68 F3 96 0.559
68 F3 97 -0.417
68 F3 98 -0.417
68 F3 99 1.048
68 F3 100 3.001
68 F3 101 3.489
68 F3 102 2.513
68 F3 103 0.071
68 F3 104 -2.370
68 F3 105 -2.858
68 F3 106 -1.394
68 F3 107 1.048
68 F3 108 3.489
68 F3 109 3.489
68 F3 110 2.513
68 F3 111 0.559
68 F3 112 0.559
68 F3 113 0.559
68 F3 114 0.559
68 F3 115 -0.417
68 F3 116 -2.858
68 F3 117 -5.300
68 F3 118 -6.765
68 F3 119 -7.253
68 F3 120 -6.765
68 F3 121 -5.788
68 F3 122 -4.812
68 F3 123 -3.835
68 F3 124 -2.858
68 F3 125 -2.370
68 F3 126 -2.370
68 F3 127 -2.858
68 F3 128 -4.323
68 F3 129 -6.276
68 F3 130 -7.253
68 F3 131 -7.253
68 F3 132 -6.276
68 F3 133 -5.300
68 F3 134 -5.788
68 F3 135 -8.230
68 F3 136 -11.159
68 F3 137 -13.112
68 F3 138 -13.112
68 F3 139 -11.159
68 F3 140 -8.718
68 F3 141 -7.741
68 F3 142 -7.253
68 F3 143 -7.741
68 F3 144 -6.276
68 F3 145 -3.835
68 F3 146 -0.417
68 F3 147 2.513
68 F3 148 3.001
68 F3 149 2.513
68 F3 150 1.536
68 F3 151 1.536
68 F3 152 2.024
68 F3 153 2.513
68 F3 154 1.536
68 F3 155 0.559
68 F3 156 0.071
68 F3 157 0.559
68 F3 158 1.536
68 F3 159 2.024
68 F3 160 1.048
68 F3 161 -1.882
68 F3 162 -4.323
68 F3 163 -5.788
68 F3 164 -6.765
68 F3 165 -7.253
68 F3 166 -8.230
68 F3 167 -9.206
68 F3 168 -8.718
68 F3 169 -6.765
68 F3 170 -3.347
68 F3 171 -1.394
68 F3 172 -0.905
68 F3 173 -2.370
68 F3 174 -4.812
68 F3 175 -5.300
68 F3 176 -4.812
68 F3 177 -3.347
68 F3 178 -2.370
68 F3 179 -2.370
68 F3 180 -3.347
68 F3 181 -3.835
68 F3 182 -3.347
68 F3 183 -2.370
68 F3 184 -0.417
68 F3 185 0.559
68 F3 186 1.048
68 F3 187 1.536
68 F3 188 2.024
68 F3 189 3.001
68 F3 190 3.977
68 F3 191 4.466
68 F3 192 3.977
68 F3 193 3.489
68 F3 194 3.001
68 F3 195 3.001
68 F3 196 2.513
68 F3 197 1.048
68 F3 198 -1.394
68 F3 199 -3.835
68 F3 200 -5.300
68 F3 201 -6.276
68 F3 202 -5.300
68 F3 203 -4.323
68 F3 204 -2.858
68 F3 205 -2.370
68 F3 206 -2.370
68 F3 207 -3.347
68 F3 208 -4.812
68 F3 209 -6.276
68 F3 210 -7.253
68 F3 211 -8.230
68 F3 212 -8.230
68 F3 213 -8.230
68 F3 214 -8.230
68 F3 215 -7.741
68 F3 216 -6.765
68 F3 217 -5.300
68 F3 218 -2.858
68 F3 219 -0.905
68 F3 220 0.071
68 F3 221 -0.417
68 F3 222 -2.858
68 F3 223 -4.812
68 F3 224 -6.276
68 F3 225 -5.788
68 F3 226 -4.323
68 F3 227 -2.858
68 F3 228 -2.370
68 F3 229 -3.347
68 F3 230 -4.323
68 F3 231 -4.323
68 F3 232 -2.858
68 F3 233 -1.882
68 F3 234 -1.394
68 F3 235 -1.394
68 F3 236 -2.370
68 F3 237 -2.858
68 F3 238 -2.858
68 F3 239 -1.882
68 F3 240 -1.394
68 F3 241 -0.417
68 F3 242 0.559
68 F3 243 1.536
68 F3 244 3.489
68 F3 245 4.466
68 F3 246 4.954
68 F3 247 4.466
68 F3 248 3.489
68 F3 249 3.489
68 F3 250 4.466
68 F3 251 5.442
68 F3 252 5.442
68 F3 253 5.442
68 F3 254 5.931
68 F3 255 6.419
# FC6 chan 9
68 FC6 0 0.315
68 FC6 1 0.315
68 FC6 2 -0.173
68 FC6 3 -0.173
68 FC6 4 0.315
68 FC6 5 0.315
68 FC6 6 -0.661
68 FC6 7 -2.126
68 FC6 8 -3.103
68 FC6 9 -2.126
68 FC6 10 0.315
68 FC6 11 2.757
68 FC6 12 3.733
68 FC6 13 2.757
68 FC6 14 0.315
68 FC6 15 -1.638
68 FC6 16 -2.614
68 FC6 17 -1.638
68 FC6 18 -0.173
68 FC6 19 1.292
68 FC6 20 1.292
68 FC6 21 -0.173
68 FC6 22 -2.614
68 FC6 23 -4.079
68 FC6 24 -4.079
68 FC6 25 -4.079
68 FC6 26 -3.103
68 FC6 27 -3.103
68 FC6 28 -4.079
68 FC6 29 -4.079
68 FC6 30 -2.614
68 FC6 31 -0.173
68 FC6 32 2.268
68 FC6 33 3.733
68 FC6 34 3.733
68 FC6 35 3.245
68 FC6 36 4.222
68 FC6 37 6.663
68 FC6 38 9.104
68 FC6 39 10.569
68 FC6 40 9.593
68 FC6 41 7.640
68 FC6 42 5.686
68 FC6 43 5.198
68 FC6 44 5.686
68 FC6 45 6.663
68 FC6 46 6.663
68 FC6 47 5.198
68 FC6 48 2.757
68 FC6 49 0.315
68 FC6 50 -1.149
68 FC6 51 -1.638
68 FC6 52 -1.149
68 FC6 53 -0.661
68 FC6 54 -0.661
68 FC6 55 -1.149
68 FC6 56 -2.126
68 FC6 57 -2.614
68 FC6 58 -2.126
68 FC6 59 -0.173
68 FC6 60 2.757
68 FC6 61 5.198
68 FC6 62 6.175
68 FC6 63 5.198
68 FC6 64 3.733
68 FC6 65 2.757
68 FC6 66 3.245
68 FC6 67 5.686
68 FC6 68 8.128
68 FC6 69 10.081
68 FC6 70 9.593
68 FC6 71 7.640
68 FC6 72 4.710
68 FC6 73 1.292
68 FC6 74 -0.661
68 FC6 75 -0.661
68 FC6 76 0.804
68 FC6 77 2.757
68 FC6 78 4.710
68 FC6 79 4.710
68 FC6 80 4.222
68 FC6 81 3.733
68 FC6 82 3.733
68 FC6 83 4.710
68 FC6 84 4.710
68 FC6 85 3.733
68 FC6 86 1.780
68 FC6 87 -0.173
68 FC6 88 -0.661
68 FC6 89 -0.661
68 FC6 90 0.315
68 FC6 91 1.292
68 FC6 92 1.292
68 FC6 93 1.292
68 FC6 94 1.780
68 FC6 95 2.268
68 FC6 96 3.733
68 FC6 97 5.198
68 FC6 98 5.198
68 FC6 99 4.710
68 FC6 100 2.757
68 FC6 101 0.315
68 FC6 102 -1.638
68 FC6 103 -3.103
68 FC6 104 -2.614
68 FC6 105 -0.173
68 FC6 106 3.245
68 FC6 107 5.686
68 FC6 108 6.663
68 FC6 109 4.710
68 FC6 110 2.268
68 FC6 111 0.315
68 FC6 112 -0.173
68 FC6 113 0.315
68 FC6 114 1.292
68 FC6 115 1.292
68 FC6 116 0.315
68 FC6 117 -0.661
68 FC6 118 -1.149
68 FC6 119 -0.661
68 FC6 120 -0.661
68 FC6 121 -0.661
68 FC6 122 -1.149
68 FC6 123 -1.149
68 FC6 124 -0.173
68 FC6 125 1.780
68 FC6 126 4.710
68 FC6 127 6.663
68 FC6 128 6.663
68 FC6 129 4.710
68 FC6 130 1.292
68 FC6 131 -1.638
68 FC6 132 -2.614
68 FC6 133 -2.614
68 FC6 134 -0.661
68 FC6 135 1.292
68 FC6 136 1.292
68 FC6 137 -0.661
68 FC6 138 -2.614
68 FC6 139 -4.079
68 FC6 140 -3.591
68 FC6 141 -0.661
68 FC6 142 2.757
68 FC6 143 4.710
68 FC6 144 5.198
68 FC6 145 4.222
68 FC6 146 2.757
68 FC6 147 1.292
68 FC6 148 0.315
68 FC6 149 0.315
68 FC6 150 0.804
68 FC6 151 1.780
68 FC6 152 3.733
68 FC6 153 6.175
68 FC6 154 7.640
68 FC6 155 8.128
68 FC6 156 8.128
68 FC6 157 7.151
68 FC6 158 5.686
68 FC6 159 4.710
68 FC6 160 4.222
68 FC6 161 3.733
68 FC6 162 3.245
68 FC6 163 3.245
68 FC6 164 3.733
68 FC6 165 5.198
68 FC6 166 6.663
68 FC6 167 6.663
68 FC6 168 6.175
68 FC6 169 4.710
68 FC6 170 3.245
68 FC6 171 2.757
68 FC6 172 3.245
68 FC6 173 3.245
68 FC6 174 3.245
68 FC6 175 2.268
68 FC6 176 1.780
68 FC6 177 1.780
68 FC6 178 2.757
68 FC6 179 4.222
68 FC6 180 3.733
68 FC6 181 2.757
68 FC6 182 1.292
68 FC6 183 1.292
68 FC6 184 2.757
68 FC6 185 4.710
68 FC6 186 5.686
68 FC6 187 5.198
68 FC6 188 3.733
68 FC6 189 2.268
68 FC6 190 2.757
68 FC6 191 5.198
68 FC6 192 7.151
68 FC6 193 8.128
68 FC6 194 6.663
68 FC6 195 4.222
68 FC6 196 1.292
68 FC6 197 -0.661
68 FC6 198 -0.661
68 FC6 199 0.315
68 FC6 200 1.292
68 FC6 201 1.292
68 FC6 202 1.292
68 FC6 203 1.292
68 FC6 204 1.780
68 FC6 205 2.757
68 FC6 206 2.757
68 FC6 207 1.780
68 FC6 208 0.315
68 FC6 209 -1.149
68 FC6 210 -1.638
68 FC6 211 -0.661
68 FC6 212 0.804
68 FC6 213 2.268
68 FC6 214 1.780
68 FC6 215 0.315
68 FC6 216 -2.126
68 FC6 217 -3.103
68 FC6 218 -2.614
68 FC6 219 -0.173
68 FC6 220 3.245
68 FC6 221 6.663
68 FC6 222 8.128
68 FC6 223 9.593
68 FC6 224 10.569
68 FC6 225 12.034
68 FC6 226 13.987
68 FC6 227 14.476
68 FC6 228 13.499
68 FC6 229 11.546
68 FC6 230 9.593
68 FC6 231 9.593
68 FC6 232 11.058
68 FC6 233 12.522
68 FC6 234 12.522
68 FC6 235 11.058
68 FC6 236 8.128
68 FC6 237 6.175
68 FC6 238 5.198
68 FC6 239 5.198
68 FC6 240 5.686
68 FC6 241 4.710
68 FC6 242 3.733
68 FC6 243 2.757
68 FC6 244 3.733
68 FC6 245 6.175
68 FC6 246 8.616
68 FC6 247 9.593
68 FC6 248 8.616
68 FC6 249 7.640
68 FC6 250 6.663
68 FC6 251 7.640
68 FC6 252 9.593
68 FC6 253 11.058
68 FC6 254 11.058
68 FC6 255 10.081
# FC5 chan 10
68 FC5 0 -1.211
68 FC5 1 -0.722
68 FC5 2 -1.211
68 FC5 3 -1.699
68 FC5 4 -2.675
68 FC5 5 -2.675
68 FC5 6 -1.211
68 FC5 7 0.254
68 FC5 8 1.719
68 FC5 9 2.207
68 FC5 10 2.696
68 FC5 11 3.672
68 FC5 12 4.649
68 FC5 13 5.625
68 FC5 14 5.137
68 FC5 15 3.672
68 FC5 16 1.719
68 FC5 17 1.231
68 FC5 18 2.207
68 FC5 19 3.672
68 FC5 20 4.161
68 FC5 21 2.696
68 FC5 22 1.231
68 FC5 23 -0.234
68 FC5 24 -0.722
68 FC5 25 -1.699
68 FC5 26 -3.164
68 FC5 27 -5.605
68 FC5 28 -7.070
68 FC5 29 -6.093
68 FC5 30 -3.652
68 FC5 31 0.254
68 FC5 32 3.184
68 FC5 33 4.649
68 FC5 34 5.625
68 FC5 35 6.114
68 FC5 36 7.090
68 FC5 37 8.067
68 FC5 38 8.555
68 FC5 39 9.043
68 FC5 40 9.043
68 FC5 41 9.532
68 FC5 42 10.020
68 FC5 43 9.532
68 FC5 44 8.067
68 FC5 45 5.625
68 FC5 46 3.184
68 FC5 47 1.719
68 FC5 48 0.743
68 FC5 49 -0.722
68 FC5 50 -3.652
68 FC5 51 -7.070
68 FC5 52 -9.023
68 FC5 53 -9.023
68 FC5 54 -7.070
68 FC5 55 -4.628
68 FC5 56 -3.164
68 FC5 57 -4.140
68 FC5 58 -6.093
68 FC5 59 -7.070
68 FC5 60 -7.070
68 FC5 61 -5.117
68 FC5 62 -3.164
68 FC5 63 -1.699
68 FC5 64 -1.699
68 FC5 65 -2.187
68 FC5 66 -1.699
68 FC5 67 0.743
68 FC5 68 3.184
68 FC5 69 5.625
68 FC5 70 6.602
68 FC5 71 6.114
68 FC5 72 4.649
68 FC5 73 2.207
68 FC5 74 0.254
68 FC5 75 -1.211
68 FC5 76 -1.699
68 FC5 77 -1.699
68 FC5 78 -0.234
68 FC5 79 0.743
68 FC5 80 1.231
68 FC5 81 -0.234
68 FC5 82 -2.187
68 FC5 83 -4.628
68 FC5 84 -6.582
68 FC5 85 -6.582
68 FC5 86 -6.093
68 FC5 87 -5.117
68 FC5 88 -4.140
68 FC5 89 -4.140
68 FC5 90 -5.117
68 FC5 91 -5.117
68 FC5 92 -4.628
68 FC5 93 -2.675
68 FC5 94 -0.234
68 FC5 95 1.231
68 FC5 96 0.743
68 FC5 97 -0.234
68 FC5 98 -1.211
68 FC5 99 -1.699
68 FC5 100 -1.211
68 FC5 101 -0.722
68 FC5 102 -1.699
68 FC5 103 -2.675
68 FC5 104 -4.140
68 FC5 105 -3.164
68 FC5 106 -0.722
68 FC5 107 2.207
68 FC5 108 3.672
68 FC5 109 3.184
68 FC5 110 1.719
68 FC5 111 -0.234
68 FC5 112 -1.211
68 FC5 113 -0.722
68 FC5 114 0.743
68 FC5 115 0.743
68 FC5 116 -1.699
68 FC5 117 -5.117
68 FC5 118 -8.046
68 FC5 119 -9.023
68 FC5 120 -8.046
68 FC5 121 -5.605
68 FC5 122 -4.628
68 FC5 123 -4.140
68 FC5 124 -5.117
68 FC5 125 -5.117
68 FC5 126 -4.140
68 FC5 127 -2.187
68 FC5 128 -1.211
68 FC5 129 -2.675
68 FC5 130 -5.117
68 FC5 131 -7.558
68 FC5 132 -8.535
68 FC5 133 -7.070
68 FC5 134 -5.605
68 FC5 135 -5.605
68 FC5 136 -7.070
68 FC5 137 -8.535
68 FC5 138 -9.023
68 FC5 139 -8.535
68 FC5 140 -7.558
68 FC5 141 -7.070
68 FC5 142 -7.558
68 FC5 143 -7.070
68 FC5 144 -4.628
68 FC5 145 0.254
68 FC5 146 5.137
68 FC5 147 7.090
68 FC5 148 6.114
68 FC5 149 3.672
68 FC5 150 2.696
68 FC5 151 2.696
68 FC5 152 3.672
68 FC5 153 3.184
68 FC5 154 1.231
68 FC5 155 -0.722
68 FC5 156 -1.699
68 FC5 157 -0.234
68 FC5 158 1.719
68 FC5 159 3.184
68 FC5 160 1.719
68 FC5 161 -0.722
68 FC5 162 -3.164
68 FC5 163 -4.140
68 FC5 164 -3.652
68 FC5 165 -3.652
68 FC5 166 -5.117
68 FC5 167 -7.070
68 FC5 168 -8.046
68 FC5 169 -6.582
68 FC5 170 -3.164
68 FC5 171 -0.234
68 FC5 172 1.231
68 FC5 173 -0.234
68 FC5 174 -2.675
68 FC5 175 -4.140
68 FC5 176 -4.628
68 FC5 177 -4.628
68 FC5 178 -4.628
68 FC5 179 -5.605
68 FC5 180 -6.582
68 FC5 181 -6.582
68 FC5 182 -5.117
68 FC5 183 -3.164
68 FC5 184 -1.699
68 FC5 185 -0.722
68 FC5 186 -0.722
68 FC5 187 -0.722
68 FC5 188 -0.234
68 FC5 189 0.743
68 FC5 190 2.696
68 FC5 191 3.672
68 FC5 192 4.649
68 FC5 193 4.161
68 FC5 194 3.672
68 FC5 195 2.696
68 FC5 196 2.207
68 FC5 197 2.207
68 FC5 198 1.231
68 FC5 199 0.254
68 FC5 200 -2.187
68 FC5 201 -4.628
68 FC5 202 -6.093
68 FC5 203 -6.093
68 FC5 204 -4.628
68 FC5 205 -3.164
68 FC5 206 -2.187
68 FC5 207 -2.187
68 FC5 208 -3.652
68 FC5 209 -5.605
68 FC5 210 -7.558
68 FC5 211 -8.535
68 FC5 212 -8.535
68 FC5 213 -7.558
68 FC5 214 -6.582
68 FC5 215 -6.582
68 FC5 216 -5.605
68 FC5 217 -4.628
68 FC5 218 -3.164
68 FC5 219 -1.699
68 FC5 220 -1.211
68 FC5 221 -1.699
68 FC5 222 -3.164
68 FC5 223 -4.628
68 FC5 224 -5.605
68 FC5 225 -5.117
68 FC5 226 -4.140
68 FC5 227 -3.652
68 FC5 228 -4.628
68 FC5 229 -6.582
68 FC5 230 -8.535
68 FC5 231 -10.000
68 FC5 232 -9.511
68 FC5 233 -8.535
68 FC5 234 -7.070
68 FC5 235 -6.093
68 FC5 236 -5.605
68 FC5 237 -5.117
68 FC5 238 -4.628
68 FC5 239 -4.140
68 FC5 240 -4.140
68 FC5 241 -4.140
68 FC5 242 -4.140
68 FC5 243 -3.164
68 FC5 244 -1.699
68 FC5 245 0.254
68 FC5 246 1.231
68 FC5 247 0.743
68 FC5 248 0.254
68 FC5 249 0.254
68 FC5 250 1.719
68 FC5 251 3.672
68 FC5 252 4.161
68 FC5 253 3.184
68 FC5 254 1.231
68 FC5 255 0.254
# FC2 chan 11
68 FC2 0 1.526
68 FC2 1 1.526
68 FC2 2 1.038
68 FC2 3 1.038
68 FC2 4 2.014
68 FC2 5 2.502
68 FC2 6 2.991
68 FC2 7 2.014
68 FC2 8 1.526
68 FC2 9 1.038
68 FC2 10 2.014
68 FC2 11 2.502
68 FC2 12 2.991
68 FC2 13 2.502
68 FC2 14 1.038
68 FC2 15 0.061
68 FC2 16 -0.916
68 FC2 17 -1.404
68 FC2 18 -0.916
68 FC2 19 0.061
68 FC2 20 -0.427
68 FC2 21 -1.404
68 FC2 22 -2.380
68 FC2 23 -3.357
68 FC2 24 -3.357
68 FC2 25 -2.869
68 FC2 26 -1.892
68 FC2 27 -1.892
68 FC2 28 -2.869
68 FC2 29 -4.333
68 FC2 30 -4.822
68 FC2 31 -4.333
68 FC2 32 -3.357
68 FC2 33 -2.380
68 FC2 34 -1.404
68 FC2 35 -0.916
68 FC2 36 0.061
68 FC2 37 1.038
68 FC2 38 2.014
68 FC2 39 2.502
68 FC2 40 2.502
68 FC2 41 2.502
68 FC2 42 2.014
68 FC2 43 2.014
68 FC2 44 2.014
68 FC2 45 2.014
68 FC2 46 2.014
68 FC2 47 1.526
68 FC2 48 1.038
68 FC2 49 0.061
68 FC2 50 -0.427
68 FC2 51 -0.916
68 FC2 52 -0.916
68 FC2 53 -0.427
68 FC2 54 0.061
68 FC2 55 0.549
68 FC2 56 0.061
68 FC2 57 -0.427
68 FC2 58 -0.427
68 FC2 59 0.061
68 FC2 60 1.038
68 FC2 61 2.014
68 FC2 62 2.502
68 FC2 63 1.526
68 FC2 64 0.549
68 FC2 65 0.061
68 FC2 66 1.038
68 FC2 67 2.014
68 FC2 68 2.502
68 FC2 69 2.991
68 FC2 70 2.502
68 FC2 71 2.014
68 FC2 72 1.038
68 FC2 73 0.061
68 FC2 74 -0.427
68 FC2 75 -0.916
68 FC2 76 -0.427
68 FC2 77 0.061
68 FC2 78 1.038
68 FC2 79 1.526
68 FC2 80 1.526
68 FC2 81 0.549
68 FC2 82 -0.427
68 FC2 83 -0.916
68 FC2 84 -1.404
68 FC2 85 -1.892
68 FC2 86 -1.892
68 FC2 87 -2.380
68 FC2 88 -1.892
68 FC2 89 -1.892
68 FC2 90 -0.427
68 FC2 91 0.061
68 FC2 92 0.549
68 FC2 93 1.038
68 FC2 94 0.549
68 FC2 95 0.549
68 FC2 96 0.549
68 FC2 97 1.038
68 FC2 98 1.038
68 FC2 99 1.526
68 FC2 100 1.038
68 FC2 101 0.549
68 FC2 102 -0.427
68 FC2 103 -0.916
68 FC2 104 -1.404
68 FC2 105 -0.427
68 FC2 106 0.549
68 FC2 107 1.526
68 FC2 108 2.014
68 FC2 109 1.526
68 FC2 110 0.061
68 FC2 111 -0.916
68 FC2 112 -1.892
68 FC2 113 -1.892
68 FC2 114 -0.916
68 FC2 115 -0.427
68 FC2 116 -0.427
68 FC2 117 -0.916
68 FC2 118 -1.404
68 FC2 119 -1.404
68 FC2 120 -1.892
68 FC2 121 -1.892
68 FC2 122 -1.892
68 FC2 123 -1.892
68 FC2 124 -1.404
68 FC2 125 -0.916
68 FC2 126 0.061
68 FC2 127 0.549
68 FC2 128 0.549
68 FC2 129 0.061
68 FC2 130 -1.404
68 FC2 131 -2.380
68 FC2 132 -2.869
68 FC2 133 -2.869
68 FC2 134 -1.892
68 FC2 135 -1.404
68 FC2 136 -1.892
68 FC2 137 -2.869
68 FC2 138 -3.357
68 FC2 139 -4.333
68 FC2 140 -4.333
68 FC2 141 -3.357
68 FC2 142 -2.869
68 FC2 143 -2.380
68 FC2 144 -2.380
68 FC2 145 -2.869
68 FC2 146 -3.357
68 FC2 147 -3.357
68 FC2 148 -2.869
68 FC2 149 -2.380
68 FC2 150 -1.892
68 FC2 151 -1.404
68 FC2 152 -0.916
68 FC2 153 0.061
68 FC2 154 1.038
68 FC2 155 1.526
68 FC2 156 2.014
68 FC2 157 2.014
68 FC2 158 1.526
68 FC2 159 1.038
68 FC2 160 0.549
68 FC2 161 0.549
68 FC2 162 0.061
68 FC2 163 -0.427
68 FC2 164 -0.427
68 FC2 165 -0.916
68 FC2 166 -0.916
68 FC2 167 -0.916
68 FC2 168 -0.916
68 FC2 169 -0.916
68 FC2 170 -0.916
68 FC2 171 -0.427
68 FC2 172 0.061
68 FC2 173 0.549
68 FC2 174 0.549
68 FC2 175 0.549
68 FC2 176 1.038
68 FC2 177 1.038
68 FC2 178 1.038
68 FC2 179 2.014
68 FC2 180 2.502
68 FC2 181 2.502
68 FC2 182 2.991
68 FC2 183 2.991
68 FC2 184 3.479
68 FC2 185 3.967
68 FC2 186 3.967
68 FC2 187 3.967
68 FC2 188 3.967
68 FC2 189 3.479
68 FC2 190 3.479
68 FC2 191 3.967
68 FC2 192 4.456
68 FC2 193 4.456
68 FC2 194 3.967
68 FC2 195 2.502
68 FC2 196 1.038
68 FC2 197 0.061
68 FC2 198 -0.427
68 FC2 199 -0.916
68 FC2 200 -0.916
68 FC2 201 -0.427
68 FC2 202 -0.427
68 FC2 203 0.061
68 FC2 204 0.061
68 FC2 205 0.549
68 FC2 206 0.549
68 FC2 207 0.061
68 FC2 208 -0.916
68 FC2 209 -1.892
68 FC2 210 -2.869
68 FC2 211 -2.869
68 FC2 212 -1.892
68 FC2 213 -1.892
68 FC2 214 -1.892
68 FC2 215 -2.869
68 FC2 216 -3.845
68 FC2 217 -3.845
68 FC2 218 -2.869
68 FC2 219 -1.404
68 FC2 220 0.061
68 FC2 221 1.526
68 FC2 222 2.014
68 FC2 223 2.014
68 FC2 224 1.526
68 FC2 225 2.014
68 FC2 226 3.479
68 FC2 227 3.967
68 FC2 228 3.967
68 FC2 229 3.479
68 FC2 230 2.991
68 FC2 231 2.991
68 FC2 232 3.967
68 FC2 233 4.944
68 FC2 234 4.944
68 FC2 235 4.456
68 FC2 236 2.991
68 FC2 237 2.014
68 FC2 238 1.526
68 FC2 239 2.014
68 FC2 240 2.014
68 FC2 241 2.014
68 FC2 242 1.526
68 FC2 243 1.526
68 FC2 244 2.502
68 FC2 245 3.479
68 FC2 246 3.967
68 FC2 247 3.967
68 FC2 248 4.456
68 FC2 249 2.991
68 FC2 250 2.014
68 FC2 251 2.014
68 FC2 252 2.502
68 FC2 253 3.479
68 FC2 254 4.456
68 FC2 255 4.456
# FC1 chan 12
68 FC1 0 0.376
68 FC1 1 0.376
68 FC1 2 0.376
68 FC1 3 0.865
68 FC1 4 1.353
68 FC1 5 1.841
68 FC1 6 1.841
68 FC1 7 1.841
68 FC1 8 1.841
68 FC1 9 1.841
68 FC1 10 1.841
68 FC1 11 2.330
68 FC1 12 2.818
68 FC1 13 2.818
68 FC1 14 2.818
68 FC1 15 2.330
68 FC1 16 1.841
68 FC1 17 0.865
68 FC1 18 0.376
68 FC1 19 0.376
68 FC1 20 -0.112
68 FC1 21 -0.600
68 FC1 22 -1.088
68 FC1 23 -1.088
68 FC1 24 -1.577
68 FC1 25 -1.577
68 FC1 26 -2.553
68 FC1 27 -2.553
68 FC1 28 -4.018
68 FC1 29 -4.018
68 FC1 30 -3.530
68 FC1 31 -2.553
68 FC1 32 -1.088
68 FC1 33 -0.112
68 FC1 34 0.865
68 FC1 35 1.353
68 FC1 36 1.841
68 FC1 37 2.330
68 FC1 38 2.330
68 FC1 39 2.330
68 FC1 40 2.818
68 FC1 41 3.306
68 FC1 42 3.306
68 FC1 43 3.794
68 FC1 44 3.306
68 FC1 45 2.330
68 FC1 46 0.865
68 FC1 47 0.376
68 FC1 48 -0.112
68 FC1 49 -0.600
68 FC1 50 -1.088
68 FC1 51 -1.577
68 FC1 52 -2.553
68 FC1 53 -2.553
68 FC1 54 -2.065
68 FC1 55 -1.577
68 FC1 56 -1.088
68 FC1 57 -0.600
68 FC1 58 -1.088
68 FC1 59 -1.088
68 FC1 60 -0.600
68 FC1 61 -0.112
68 FC1 62 -0.112
68 FC1 63 -0.112
68 FC1 64 -0.600
68 FC1 65 -1.088
68 FC1 66 -0.600
68 FC1 67 0.376
68 FC1 68 1.353
68 FC1 69 2.330
68 FC1 70 1.841
68 FC1 71 0.865
68 FC1 72 0.376
68 FC1 73 -0.112
68 FC1 74 -0.112
68 FC1 75 -0.112
68 FC1 76 -0.600
68 FC1 77 -0.112
68 FC1 78 -0.112
68 FC1 79 -0.600
68 FC1 80 -0.600
68 FC1 81 -1.577
68 FC1 82 -3.042
68 FC1 83 -4.018
68 FC1 84 -4.995
68 FC1 85 -5.483
68 FC1 86 -4.995
68 FC1 87 -4.506
68 FC1 88 -3.530
68 FC1 89 -3.042
68 FC1 90 -3.042
68 FC1 91 -3.042
68 FC1 92 -2.553
68 FC1 93 -1.577
68 FC1 94 -1.088
68 FC1 95 -0.600
68 FC1 96 -0.600
68 FC1 97 -1.088
68 FC1 98 -1.088
68 FC1 99 -1.088
68 FC1 100 -0.600
68 FC1 101 -0.112
68 FC1 102 -0.112
68 FC1 103 -0.600
68 FC1 104 -1.088
68 FC1 105 -1.577
68 FC1 106 -1.088
68 FC1 107 -0.600
68 FC1 108 -0.112
68 FC1 109 0.376
68 FC1 110 -0.112
68 FC1 111 -1.088
68 FC1 112 -1.577
68 FC1 113 -1.577
68 FC1 114 -1.577
68 FC1 115 -1.577
68 FC1 116 -2.065
68 FC1 117 -3.042
68 FC1 118 -4.018
68 FC1 119 -4.506
68 FC1 120 -4.506
68 FC1 121 -4.018
68 FC1 122 -3.042
68 FC1 123 -3.042
68 FC1 124 -2.553
68 FC1 125 -2.065
68 FC1 126 -2.065
68 FC1 127 -1.577
68 FC1 128 -1.577
68 FC1 129 -1.577
68 FC1 130 -2.065
68 FC1 131 -2.553
68 FC1 132 -2.553
68 FC1 133 -2.553
68 FC1 134 -2.553
68 FC1 135 -3.530
68 FC1 136 -4.995
68 FC1 137 -6.460
68 FC1 138 -6.948
68 FC1 139 -6.460
68 FC1 140 -5.483
68 FC1 141 -4.018
68 FC1 142 -3.530
68 FC1 143 -3.530
68 FC1 144 -3.042
68 FC1 145 -2.065
68 FC1 146 -0.112
68 FC1 147 1.841
68 FC1 148 2.330
68 FC1 149 2.330
68 FC1 150 1.353
68 FC1 151 0.865
68 FC1 152 0.865
68 FC1 153 0.376
68 FC1 154 0.376
68 FC1 155 0.376
68 FC1 156 -0.112
68 FC1 157 -0.112
68 FC1 158 0.376
68 FC1 159 -0.112
68 FC1 160 -0.600
68 FC1 161 -2.065
68 FC1 162 -3.042
68 FC1 163 -3.530
68 FC1 164 -4.018
68 FC1 165 -4.018
68 FC1 166 -4.506
68 FC1 167 -5.483
68 FC1 168 -5.483
68 FC1 169 -5.483
68 FC1 170 -3.530
68 FC1 171 -1.577
68 FC1 172 -0.600
68 FC1 173 -0.112
68 FC1 174 -0.112
68 FC1 175 -0.112
68 FC1 176 -0.112
68 FC1 177 0.376
68 FC1 178 0.865
68 FC1 179 1.353
68 FC1 180 0.865
68 FC1 181 0.865
68 FC1 182 0.865
68 FC1 183 1.841
68 FC1 184 2.330
68 FC1 185 2.818
68 FC1 186 3.794
68 FC1 187 3.794
68 FC1 188 3.794
68 FC1 189 3.794
68 FC1 190 4.283
68 FC1 191 4.283
68 FC1 192 4.283
68 FC1 193 4.283
68 FC1 194 3.794
68 FC1 195 2.818
68 FC1 196 2.330
68 FC1 197 1.841
68 FC1 198 0.865
68 FC1 199 -0.112
68 FC1 200 -1.088
68 FC1 201 -1.577
68 FC1 202 -2.553
68 FC1 203 -2.065
68 FC1 204 -1.577
68 FC1 205 -0.600
68 FC1 206 0.376
68 FC1 207 0.376
68 FC1 208 -0.112
68 FC1 209 -1.088
68 FC1 210 -2.065
68 FC1 211 -3.042
68 FC1 212 -3.530
68 FC1 213 -3.530
68 FC1 214 -3.042
68 FC1 215 -3.042
68 FC1 216 -3.042
68 FC1 217 -2.065
68 FC1 218 -1.577
68 FC1 219 -0.600
68 FC1 220 -0.112
68 FC1 221 -0.112
68 FC1 222 -1.088
68 FC1 223 -2.553
68 FC1 224 -3.530
68 FC1 225 -4.018
68 FC1 226 -3.042
68 FC1 227 -2.553
68 FC1 228 -2.065
68 FC1 229 -2.065
68 FC1 230 -3.042
68 FC1 231 -3.042
68 FC1 232 -3.042
68 FC1 233 -2.065
68 FC1 234 -1.577
68 FC1 235 -1.088
68 FC1 236 -0.600
68 FC1 237 -0.600
68 FC1 238 -0.600
68 FC1 239 -0.600
68 FC1 240 -0.112
68 FC1 241 0.376
68 FC1 242 0.865
68 FC1 243 1.353
68 FC1 244 2.330
68 FC1 245 2.818
68 FC1 246 2.818
68 FC1 247 2.330
68 FC1 248 1.841
68 FC1 249 1.841
68 FC1 250 1.841
68 FC1 251 2.330
68 FC1 252 2.330
68 FC1 253 2.818
68 FC1 254 3.306
68 FC1 255 3.306
# T8 chan 13
68 T8 0 -9.237
68 T8 1 -9.725
68 T8 2 -10.701
68 T8 3 -9.725
68 T8 4 -6.795
68 T8 5 -2.889
68 T8 6 -0.448
68 T8 7 -1.424
68 T8 8 -5.819
68 T8 9 -10.213
68 T8 10 -11.190
68 T8 11 -7.772
68 T8 12 -2.889
68 T8 13 0.529
68 T8 14 0.041
68 T8 15 -3.377
68 T8 16 -6.795
68 T8 17 -8.748
68 T8 18 -8.260
68 T8 19 -6.795
68 T8 20 -6.307
68 T8 21 -5.819
68 T8 22 -4.354
68 T8 23 -1.912
68 T8 24 0.529
68 T8 25 0.529
68 T8 26 -1.424
68 T8 27 -4.354
68 T8 28 -6.795
68 T8 29 -7.284
68 T8 30 -5.819
68 T8 31 -3.377
68 T8 32 -0.936
68 T8 33 1.994
68 T8 34 4.924
68 T8 35 8.341
68 T8 36 10.295
68 T8 37 10.783
68 T8 38 9.806
68 T8 39 8.341
68 T8 40 6.877
68 T8 41 5.900
68 T8 42 5.412
68 T8 43 4.435
68 T8 44 3.459
68 T8 45 1.994
68 T8 46 0.041
68 T8 47 -1.912
68 T8 48 -3.866
68 T8 49 -4.842
68 T8 50 -5.819
68 T8 51 -5.819
68 T8 52 -5.819
68 T8 53 -6.307
68 T8 54 -7.772
68 T8 55 -9.725
68 T8 56 -11.190
68 T8 57 -10.213
68 T8 58 -8.260
68 T8 59 -4.842
68 T8 60 -2.401
68 T8 61 -0.936
68 T8 62 -0.448
68 T8 63 0.529
68 T8 64 1.506
68 T8 65 2.970
68 T8 66 2.970
68 T8 67 1.506
68 T8 68 -1.424
68 T8 69 -4.354
68 T8 70 -5.819
68 T8 71 -4.842
68 T8 72 -1.424
68 T8 73 1.994
68 T8 74 3.947
68 T8 75 3.459
68 T8 76 0.041
68 T8 77 -3.866
68 T8 78 -5.819
68 T8 79 -3.866
68 T8 80 0.529
68 T8 81 4.924
68 T8 82 6.388
68 T8 83 3.459
68 T8 84 -1.424
68 T8 85 -4.842
68 T8 86 -5.330
68 T8 87 -2.401
68 T8 88 1.017
68 T8 89 1.506
68 T8 90 -0.936
68 T8 91 -3.866
68 T8 92 -4.842
68 T8 93 -3.866
68 T8 94 -1.424
68 T8 95 -0.448
68 T8 96 -2.889
68 T8 97 -7.772
68 T8 98 -12.166
68 T8 99 -13.631
68 T8 100 -11.678
68 T8 101 -9.237
68 T8 102 -7.284
68 T8 103 -6.795
68 T8 104 -7.772
68 T8 105 -7.772
68 T8 106 -5.819
68 T8 107 -3.866
68 T8 108 -2.401
68 T8 109 -2.889
68 T8 110 -4.842
68 T8 111 -7.284
68 T8 112 -8.260
68 T8 113 -7.284
68 T8 114 -4.842
68 T8 115 -2.889
68 T8 116 -1.912
68 T8 117 -2.889
68 T8 118 -4.354
68 T8 119 -5.819
68 T8 120 -6.307
68 T8 121 -5.819
68 T8 122 -5.819
68 T8 123 -6.307
68 T8 124 -7.284
68 T8 125 -8.748
68 T8 126 -9.237
68 T8 127 -7.772
68 T8 128 -4.842
68 T8 129 -0.448
68 T8 130 2.970
68 T8 131 4.924
68 T8 132 3.459
68 T8 133 0.041
68 T8 134 -3.866
68 T8 135 -6.307
68 T8 136 -6.795
68 T8 137 -6.307
68 T8 138 -6.795
68 T8 139 -8.260
68 T8 140 -8.748
68 T8 141 -7.772
68 T8 142 -3.866
68 T8 143 1.017
68 T8 144 3.459
68 T8 145 2.482
68 T8 146 -1.912
68 T8 147 -5.819
68 T8 148 -6.307
68 T8 149 -2.889
68 T8 150 1.506
68 T8 151 4.924
68 T8 152 5.412
68 T8 153 3.459
68 T8 154 1.017
68 T8 155 1.017
68 T8 156 1.994
68 T8 157 3.459
68 T8 158 3.459
68 T8 159 1.506
68 T8 160 -0.448
68 T8 161 -1.424
68 T8 162 -0.448
68 T8 163 1.017
68 T8 164 1.994
68 T8 165 1.994
68 T8 166 1.506
68 T8 167 0.529
68 T8 168 0.041
68 T8 169 -1.424
68 T8 170 -2.401
68 T8 171 -3.866
68 T8 172 -3.866
68 T8 173 -2.401
68 T8 174 -0.936
68 T8 175 -0.448
68 T8 176 -1.424
68 T8 177 -2.889
68 T8 178 -3.866
68 T8 179 -3.377
68 T8 180 -2.889
68 T8 181 -3.866
68 T8 182 -4.842
68 T8 183 -5.819
68 T8 184 -4.354
68 T8 185 -2.401
68 T8 186 -0.936
68 T8 187 -2.401
68 T8 188 -5.819
68 T8 189 -9.725
68 T8 190 -10.701
68 T8 191 -8.748
68 T8 192 -4.842
68 T8 193 -2.401
68 T8 194 -3.377
68 T8 195 -6.307
68 T8 196 -8.748
68 T8 197 -9.725
68 T8 198 -8.748
68 T8 199 -7.772
68 T8 200 -7.284
68 T8 201 -7.772
68 T8 202 -7.284
68 T8 203 -5.819
68 T8 204 -3.866
68 T8 205 -2.889
68 T8 206 -5.330
68 T8 207 -9.725
68 T8 208 -13.631
68 T8 209 -15.584
68 T8 210 -14.608
68 T8 211 -11.190
68 T8 212 -6.795
68 T8 213 -1.912
68 T8 214 1.017
68 T8 215 1.994
68 T8 216 0.041
68 T8 217 -3.866
68 T8 218 -7.284
68 T8 219 -8.748
68 T8 220 -6.307
68 T8 221 -1.424
68 T8 222 4.435
68 T8 223 9.318
68 T8 224 10.783
68 T8 225 9.806
68 T8 226 8.341
68 T8 227 7.853
68 T8 228 7.365
68 T8 229 7.365
68 T8 230 6.388
68 T8 231 4.924
68 T8 232 3.947
68 T8 233 3.947
68 T8 234 3.947
68 T8 235 2.970
68 T8 236 -0.936
68 T8 237 -5.330
68 T8 238 -9.237
68 T8 239 -9.725
68 T8 240 -7.772
68 T8 241 -5.819
68 T8 242 -5.330
68 T8 243 -7.284
68 T8 244 -9.725
68 T8 245 -9.237
68 T8 246 -4.842
68 T8 247 0.529
68 T8 248 3.459
68 T8 249 2.970
68 T8 250 -0.936
68 T8 251 -3.866
68 T8 252 -3.866
68 T8 253 -1.424
68 T8 254 1.506
68 T8 255 2.482
# T7 chan 14
68 T7 0 -12.960
68 T7 1 -6.612
68 T7 2 -0.753
68 T7 3 2.665
68 T7 4 2.665
68 T7 5 0.712
68 T7 6 -0.753
68 T7 7 -1.241
68 T7 8 -0.264
68 T7 9 -0.264
68 T7 10 -1.729
68 T7 11 -2.706
68 T7 12 -2.218
68 T7 13 1.689
68 T7 14 7.060
68 T7 15 10.966
68 T7 16 11.454
68 T7 17 6.571
68 T7 18 -0.753
68 T7 19 -6.124
68 T7 20 -7.589
68 T7 21 -3.682
68 T7 22 2.665
68 T7 23 6.571
68 T7 24 5.595
68 T7 25 0.712
68 T7 26 -5.636
68 T7 27 -10.030
68 T7 28 -11.007
68 T7 29 -9.542
68 T7 30 -7.589
68 T7 31 -6.124
68 T7 32 -4.171
68 T7 33 -0.753
68 T7 34 4.618
68 T7 35 9.989
68 T7 36 14.384
68 T7 37 15.361
68 T7 38 12.919
68 T7 39 8.525
68 T7 40 4.618
68 T7 41 3.153
68 T7 42 4.130
68 T7 43 6.571
68 T7 44 8.525
68 T7 45 8.036
68 T7 46 5.107
68 T7 47 0.712
68 T7 48 -3.194
68 T7 49 -5.636
68 T7 50 -5.636
68 T7 51 -4.171
68 T7 52 -4.171
68 T7 53 -8.077
68 T7 54 -14.913
68 T7 55 -23.702
68 T7 56 -29.073
68 T7 57 -27.120
68 T7 58 -17.843
68 T7 59 -5.147
68 T7 60 3.642
68 T7 61 5.107
68 T7 62 0.712
68 T7 63 -5.147
68 T7 64 -7.589
68 T7 65 -5.147
68 T7 66 -0.753
68 T7 67 2.177
68 T7 68 0.712
68 T7 69 -3.682
68 T7 70 -7.589
68 T7 71 -7.100
68 T7 72 -1.729
68 T7 73 6.083
68 T7 74 11.454
68 T7 75 10.966
68 T7 76 4.618
68 T7 77 -4.171
68 T7 78 -10.518
68 T7 79 -10.030
68 T7 80 -4.171
68 T7 81 3.153
68 T7 82 5.107
68 T7 83 0.712
68 T7 84 -8.077
68 T7 85 -15.889
68 T7 86 -17.843
68 T7 87 -12.960
68 T7 88 -5.636
68 T7 89 -1.241
68 T7 90 -1.729
68 T7 91 -6.612
68 T7 92 -10.030
68 T7 93 -9.542
68 T7 94 -4.171
68 T7 95 2.177
68 T7 96 3.642
68 T7 97 -0.264
68 T7 98 -8.565
68 T7 99 -14.425
68 T7 100 -14.913
68 T7 101 -9.542
68 T7 102 -2.218
68 T7 103 2.665
68 T7 104 1.689
68 T7 105 -2.218
68 T7 106 -7.100
68 T7 107 -9.542
68 T7 108 -9.542
68 T7 109 -8.077
68 T7 110 -7.589
68 T7 111 -7.100
68 T7 112 -7.100
68 T7 113 -6.612
68 T7 114 -5.636
68 T7 115 -5.147
68 T7 116 -5.147
68 T7 117 -5.636
68 T7 118 -5.636
68 T7 119 -6.124
68 T7 120 -6.612
68 T7 121 -8.077
68 T7 122 -8.565
68 T7 123 -7.100
68 T7 124 -3.682
68 T7 125 -1.729
68 T7 126 -2.218
68 T7 127 -5.147
68 T7 128 -8.077
68 T7 129 -8.077
68 T7 130 -4.659
68 T7 131 -0.264
68 T7 132 0.712
68 T7 133 -2.706
68 T7 134 -9.054
68 T7 135 -14.913
68 T7 136 -16.866
68 T7 137 -15.889
68 T7 138 -12.960
68 T7 139 -11.495
68 T7 140 -11.007
68 T7 141 -10.518
68 T7 142 -7.100
68 T7 143 -3.194
68 T7 144 -0.264
68 T7 145 0.712
68 T7 146 0.224
68 T7 147 1.689
68 T7 148 5.595
68 T7 149 10.478
68 T7 150 11.454
68 T7 151 7.060
68 T7 152 -0.264
68 T7 153 -6.612
68 T7 154 -7.100
68 T7 155 -2.218
68 T7 156 4.618
68 T7 157 9.013
68 T7 158 7.548
68 T7 159 2.177
68 T7 160 -4.171
68 T7 161 -7.589
68 T7 162 -8.077
68 T7 163 -7.100
68 T7 164 -6.124
68 T7 165 -5.147
68 T7 166 -4.659
68 T7 167 -3.194
68 T7 168 -2.706
68 T7 169 -3.682
68 T7 170 -5.636
68 T7 171 -8.565
68 T7 172 -10.518
68 T7 173 -10.518
68 T7 174 -8.565
68 T7 175 -6.124
68 T7 176 -3.682
68 T7 177 -2.706
68 T7 178 -3.194
68 T7 179 -5.636
68 T7 180 -10.030
68 T7 181 -15.401
68 T7 182 -19.307
68 T7 183 -19.796
68 T7 184 -13.936
68 T7 185 -5.147
68 T7 186 3.642
68 T7 187 8.036
68 T7 188 6.571
68 T7 189 1.200
68 T7 190 -3.682
68 T7 191 -6.124
68 T7 192 -6.612
68 T7 193 -7.100
68 T7 194 -8.565
68 T7 195 -9.054
68 T7 196 -6.124
68 T7 197 -0.264
68 T7 198 5.107
68 T7 199 6.083
68 T7 200 1.200
68 T7 201 -6.612
68 T7 202 -12.960
68 T7 203 -13.448
68 T7 204 -8.077
68 T7 205 -1.241
68 T7 206 3.153
68 T7 207 1.689
68 T7 208 -4.659
68 T7 209 -12.960
68 T7 210 -18.331
68 T7 211 -19.796
68 T7 212 -16.866
68 T7 213 -10.518
68 T7 214 -3.194
68 T7 215 1.200
68 T7 216 2.177
68 T7 217 -0.753
68 T7 218 -5.147
68 T7 219 -7.100
68 T7 220 -6.124
68 T7 221 -1.241
68 T7 222 3.153
68 T7 223 5.595
68 T7 224 2.665
68 T7 225 -4.171
68 T7 226 -11.495
68 T7 227 -14.913
68 T7 228 -12.960
68 T7 229 -9.054
68 T7 230 -6.124
68 T7 231 -7.589
68 T7 232 -11.495
68 T7 233 -13.448
68 T7 234 -10.518
68 T7 235 -2.706
68 T7 236 3.153
68 T7 237 2.177
68 T7 238 -6.124
68 T7 239 -16.378
68 T7 240 -21.749
68 T7 241 -18.331
68 T7 242 -8.077
68 T7 243 2.177
68 T7 244 6.083
68 T7 245 4.130
68 T7 246 -0.264
68 T7 247 -2.218
68 T7 248 -0.264
68 T7 249 2.665
68 T7 250 4.130
68 T7 251 2.665
68 T7 252 0.712
68 T7 253 -0.264
68 T7 254 1.200
68 T7 255 2.665
# CZ chan 15
68 CZ 0 -9.145
68 CZ 1 -10.122
68 CZ 2 -10.610
68 CZ 3 -12.075
68 CZ 4 -14.028
68 CZ 5 -16.469
68 CZ 6 -17.446
68 CZ 7 -17.934
68 CZ 8 -16.469
68 CZ 9 -14.516
68 CZ 10 -12.075
68 CZ 11 -10.122
68 CZ 12 -8.169
68 CZ 13 -5.727
68 CZ 14 -4.262
68 CZ 15 -3.774
68 CZ 16 -3.774
68 CZ 17 -3.286
68 CZ 18 -1.821
68 CZ 19 1.109
68 CZ 20 3.062
68 CZ 21 3.550
68 CZ 22 1.109
68 CZ 23 -2.797
68 CZ 24 -5.239
68 CZ 25 -6.215
68 CZ 26 -6.215
68 CZ 27 -7.192
68 CZ 28 -9.145
68 CZ 29 -12.075
68 CZ 30 -13.051
68 CZ 31 -10.610
68 CZ 32 -4.751
68 CZ 33 0.621
68 CZ 34 4.038
68 CZ 35 5.503
68 CZ 36 6.480
68 CZ 37 7.456
68 CZ 38 8.921
68 CZ 39 9.410
68 CZ 40 6.968
68 CZ 41 2.085
68 CZ 42 -2.797
68 CZ 43 -6.215
68 CZ 44 -7.192
68 CZ 45 -7.192
68 CZ 46 -8.657
68 CZ 47 -11.098
68 CZ 48 -15.004
68 CZ 49 -17.446
68 CZ 50 -18.422
68 CZ 51 -18.422
68 CZ 52 -19.887
68 CZ 53 -22.817
68 CZ 54 -26.723
68 CZ 55 -29.653
68 CZ 56 -28.676
68 CZ 57 -25.258
68 CZ 58 -19.887
68 CZ 59 -15.004
68 CZ 60 -11.587
68 CZ 61 -9.633
68 CZ 62 -8.169
68 CZ 63 -7.192
68 CZ 64 -5.727
68 CZ 65 -4.751
68 CZ 66 -4.262
68 CZ 67 -3.774
68 CZ 68 -3.774
68 CZ 69 -3.286
68 CZ 70 -3.286
68 CZ 71 -2.797
68 CZ 72 -2.797
68 CZ 73 -2.309
68 CZ 74 -1.821
68 CZ 75 -2.309
68 CZ 76 -4.262
68 CZ 77 -7.192
68 CZ 78 -10.122
68 CZ 79 -12.563
68 CZ 80 -14.028
68 CZ 81 -14.516
68 CZ 82 -15.004
68 CZ 83 -15.981
68 CZ 84 -17.446
68 CZ 85 -18.422
68 CZ 86 -18.911
68 CZ 87 -17.446
68 CZ 88 -14.028
68 CZ 89 -10.610
68 CZ 90 -9.145
68 CZ 91 -10.122
68 CZ 92 -12.075
68 CZ 93 -13.051
68 CZ 94 -12.075
68 CZ 95 -9.633
68 CZ 96 -8.169
68 CZ 97 -8.169
68 CZ 98 -10.122
68 CZ 99 -12.563
68 CZ 100 -14.028
68 CZ 101 -14.028
68 CZ 102 -13.051
68 CZ 103 -12.563
68 CZ 104 -12.563
68 CZ 105 -13.051
68 CZ 106 -13.051
68 CZ 107 -12.075
68 CZ 108 -10.122
68 CZ 109 -9.145
68 CZ 110 -8.657
68 CZ 111 -8.169
68 CZ 112 -8.169
68 CZ 113 -8.657
68 CZ 114 -8.657
68 CZ 115 -9.145
68 CZ 116 -9.145
68 CZ 117 -8.657
68 CZ 118 -7.192
68 CZ 119 -6.215
68 CZ 120 -5.239
68 CZ 121 -4.751
68 CZ 122 -4.751
68 CZ 123 -5.239
68 CZ 124 -4.262
68 CZ 125 -3.774
68 CZ 126 -2.309
68 CZ 127 -1.333
68 CZ 128 -0.844
68 CZ 129 -0.844
68 CZ 130 -0.844
68 CZ 131 0.132
68 CZ 132 2.574
68 CZ 133 4.038
68 CZ 134 4.038
68 CZ 135 2.574
68 CZ 136 -1.333
68 CZ 137 -5.727
68 CZ 138 -9.145
68 CZ 139 -10.122
68 CZ 140 -9.633
68 CZ 141 -6.704
68 CZ 142 -3.286
68 CZ 143 0.621
68 CZ 144 4.527
68 CZ 145 6.480
68 CZ 146 6.480
68 CZ 147 3.550
68 CZ 148 -0.356
68 CZ 149 -4.262
68 CZ 150 -5.239
68 CZ 151 -4.262
68 CZ 152 -1.333
68 CZ 153 1.597
68 CZ 154 2.085
68 CZ 155 1.109
68 CZ 156 -1.333
68 CZ 157 -3.286
68 CZ 158 -5.727
68 CZ 159 -7.192
68 CZ 160 -8.657
68 CZ 161 -9.633
68 CZ 162 -9.633
68 CZ 163 -10.122
68 CZ 164 -10.610
68 CZ 165 -12.075
68 CZ 166 -13.540
68 CZ 167 -15.004
68 CZ 168 -15.981
68 CZ 169 -16.469
68 CZ 170 -17.446
68 CZ 171 -18.422
68 CZ 172 -19.887
68 CZ 173 -21.840
68 CZ 174 -23.794
68 CZ 175 -24.770
68 CZ 176 -25.258
68 CZ 177 -25.258
68 CZ 178 -26.723
68 CZ 179 -28.676
68 CZ 180 -31.606
68 CZ 181 -33.071
68 CZ 182 -32.583
68 CZ 183 -30.629
68 CZ 184 -28.188
68 CZ 185 -26.723
68 CZ 186 -26.723
68 CZ 187 -28.188
68 CZ 188 -28.676
68 CZ 189 -27.700
68 CZ 190 -26.235
68 CZ 191 -23.794
68 CZ 192 -22.817
68 CZ 193 -21.840
68 CZ 194 -21.840
68 CZ 195 -21.840
68 CZ 196 -22.329
68 CZ 197 -23.794
68 CZ 198 -25.258
68 CZ 199 -26.723
68 CZ 200 -26.723
68 CZ 201 -25.747
68 CZ 202 -24.282
68 CZ 203 -23.305
68 CZ 204 -23.305
68 CZ 205 -23.305
68 CZ 206 -22.817
68 CZ 207 -22.329
68 CZ 208 -22.817
68 CZ 209 -23.794
68 CZ 210 -24.770
68 CZ 211 -26.235
68 CZ 212 -27.700
68 CZ 213 -29.165
68 CZ 214 -30.629
68 CZ 215 -32.094
68 CZ 216 -32.094
68 CZ 217 -29.165
68 CZ 218 -23.794
68 CZ 219 -17.446
68 CZ 220 -12.563
68 CZ 221 -11.587
68 CZ 222 -13.540
68 CZ 223 -16.958
68 CZ 224 -19.399
68 CZ 225 -19.887
68 CZ 226 -17.934
68 CZ 227 -15.493
68 CZ 228 -14.516
68 CZ 229 -15.493
68 CZ 230 -17.446
68 CZ 231 -19.399
68 CZ 232 -19.887
68 CZ 233 -20.376
68 CZ 234 -20.376
68 CZ 235 -20.864
68 CZ 236 -22.329
68 CZ 237 -23.794
68 CZ 238 -24.770
68 CZ 239 -24.770
68 CZ 240 -24.770
68 CZ 241 -26.235
68 CZ 242 -28.188
68 CZ 243 -29.165
68 CZ 244 -27.700
68 CZ 245 -24.282
68 CZ 246 -19.887
68 CZ 247 -17.934
68 CZ 248 -17.934
68 CZ 249 -19.887
68 CZ 250 -21.840
68 CZ 251 -21.840
68 CZ 252 -20.376
68 CZ 253 -17.934
68 CZ 254 -16.469
68 CZ 255 -16.958
# C3 chan 16
68 C3 0 -3.479
68 C3 1 -2.991
68 C3 2 -2.014
68 C3 3 -1.038
68 C3 4 -1.038
68 C3 5 -1.038
68 C3 6 -1.038
68 C3 7 -0.549
68 C3 8 -0.061
68 C3 9 0.427
68 C3 10 -0.061
68 C3 11 -0.061
68 C3 12 0.427
68 C3 13 1.404
68 C3 14 2.380
68 C3 15 2.380
68 C3 16 1.404
68 C3 17 0.427
68 C3 18 -0.549
68 C3 19 -1.038
68 C3 20 -2.014
68 C3 21 -2.502
68 C3 22 -2.502
68 C3 23 -2.991
68 C3 24 -3.479
68 C3 25 -4.944
68 C3 26 -5.920
68 C3 27 -6.897
68 C3 28 -6.897
68 C3 29 -5.432
68 C3 30 -2.991
68 C3 31 -0.549
68 C3 32 0.916
68 C3 33 2.380
68 C3 34 2.869
68 C3 35 3.357
68 C3 36 3.845
68 C3 37 3.845
68 C3 38 3.845
68 C3 39 3.357
68 C3 40 2.869
68 C3 41 2.869
68 C3 42 2.869
68 C3 43 2.380
68 C3 44 1.892
68 C3 45 1.404
68 C3 46 0.427
68 C3 47 -0.549
68 C3 48 -1.526
68 C3 49 -2.502
68 C3 50 -2.991
68 C3 51 -3.967
68 C3 52 -4.456
68 C3 53 -5.432
68 C3 54 -5.920
68 C3 55 -5.920
68 C3 56 -5.432
68 C3 57 -4.944
68 C3 58 -4.456
68 C3 59 -3.479
68 C3 60 -2.991
68 C3 61 -2.991
68 C3 62 -2.991
68 C3 63 -2.502
68 C3 64 -2.502
68 C3 65 -2.502
68 C3 66 -2.014
68 C3 67 -1.038
68 C3 68 -0.549
68 C3 69 0.427
68 C3 70 0.427
68 C3 71 -0.061
68 C3 72 -1.038
68 C3 73 -1.526
68 C3 74 -1.038
68 C3 75 -1.038
68 C3 76 -1.038
68 C3 77 -1.526
68 C3 78 -2.014
68 C3 79 -2.502
68 C3 80 -2.502
68 C3 81 -2.502
68 C3 82 -2.502
68 C3 83 -3.479
68 C3 84 -4.456
68 C3 85 -4.944
68 C3 86 -4.456
68 C3 87 -3.479
68 C3 88 -2.502
68 C3 89 -2.502
68 C3 90 -2.991
68 C3 91 -3.479
68 C3 92 -3.479
68 C3 93 -2.502
68 C3 94 -1.038
68 C3 95 -0.061
68 C3 96 -0.061
68 C3 97 -1.526
68 C3 98 -2.502
68 C3 99 -3.967
68 C3 100 -3.967
68 C3 101 -3.479
68 C3 102 -2.991
68 C3 103 -2.014
68 C3 104 -2.014
68 C3 105 -1.526
68 C3 106 -1.038
68 C3 107 -1.038
68 C3 108 -1.038
68 C3 109 -1.038
68 C3 110 -1.038
68 C3 111 -0.549
68 C3 112 -0.549
68 C3 113 -0.061
68 C3 114 -0.549
68 C3 115 -1.526
68 C3 116 -2.991
68 C3 117 -4.944
68 C3 118 -5.920
68 C3 119 -6.409
68 C3 120 -6.409
68 C3 121 -4.944
68 C3 122 -4.456
68 C3 123 -3.967
68 C3 124 -3.967
68 C3 125 -4.456
68 C3 126 -3.967
68 C3 127 -3.479
68 C3 128 -2.991
68 C3 129 -2.502
68 C3 130 -2.991
68 C3 131 -3.479
68 C3 132 -3.479
68 C3 133 -3.479
68 C3 134 -3.479
68 C3 135 -4.944
68 C3 136 -6.409
68 C3 137 -6.897
68 C3 138 -6.897
68 C3 139 -5.432
68 C3 140 -4.944
68 C3 141 -3.967
68 C3 142 -3.967
68 C3 143 -2.991
68 C3 144 -1.038
68 C3 145 1.892
68 C3 146 4.333
68 C3 147 5.310
68 C3 148 4.822
68 C3 149 3.845
68 C3 150 2.869
68 C3 151 1.892
68 C3 152 1.892
68 C3 153 1.404
68 C3 154 -0.061
68 C3 155 -1.038
68 C3 156 -2.014
68 C3 157 -1.526
68 C3 158 -1.038
68 C3 159 -0.549
68 C3 160 -1.526
68 C3 161 -2.502
68 C3 162 -2.991
68 C3 163 -3.479
68 C3 164 -2.991
68 C3 165 -2.991
68 C3 166 -3.479
68 C3 167 -4.456
68 C3 168 -4.944
68 C3 169 -4.944
68 C3 170 -3.479
68 C3 171 -1.526
68 C3 172 -1.038
68 C3 173 -0.549
68 C3 174 -1.038
68 C3 175 -1.526
68 C3 176 -1.526
68 C3 177 -1.526
68 C3 178 -1.526
68 C3 179 -2.014
68 C3 180 -2.014
68 C3 181 -2.502
68 C3 182 -2.502
68 C3 183 -2.014
68 C3 184 -1.038
68 C3 185 -0.061
68 C3 186 -0.061
68 C3 187 0.916
68 C3 188 0.427
68 C3 189 0.427
68 C3 190 0.916
68 C3 191 0.916
68 C3 192 1.404
68 C3 193 0.916
68 C3 194 0.427
68 C3 195 -0.061
68 C3 196 -0.061
68 C3 197 -0.061
68 C3 198 0.427
68 C3 199 -0.061
68 C3 200 -1.038
68 C3 201 -2.991
68 C3 202 -4.456
68 C3 203 -4.944
68 C3 204 -3.967
68 C3 205 -2.991
68 C3 206 -1.038
68 C3 207 -1.038
68 C3 208 -1.526
68 C3 209 -2.502
68 C3 210 -3.479
68 C3 211 -3.967
68 C3 212 -3.479
68 C3 213 -2.991
68 C3 214 -2.014
68 C3 215 -1.526
68 C3 216 -1.038
68 C3 217 -1.038
68 C3 218 -0.549
68 C3 219 -1.038
68 C3 220 -1.038
68 C3 221 -2.014
68 C3 222 -2.991
68 C3 223 -3.967
68 C3 224 -3.967
68 C3 225 -4.456
68 C3 226 -4.456
68 C3 227 -4.944
68 C3 228 -4.944
68 C3 229 -5.920
68 C3 230 -6.409
68 C3 231 -6.897
68 C3 232 -6.897
68 C3 233 -7.385
68 C3 234 -6.409
68 C3 235 -5.920
68 C3 236 -4.456
68 C3 237 -3.967
68 C3 238 -3.967
68 C3 239 -3.967
68 C3 240 -3.967
68 C3 241 -3.479
68 C3 242 -2.502
68 C3 243 -1.526
68 C3 244 -0.549
68 C3 245 -0.061
68 C3 246 -0.061
68 C3 247 -0.549
68 C3 248 -1.038
68 C3 249 -0.549
68 C3 250 -0.061
68 C3 251 0.916
68 C3 252 1.404
68 C3 253 1.404
68 C3 254 1.404
68 C3 255 1.404
# C4 chan 17
68 C4 0 -0.580
68 C4 1 -1.068
68 C4 2 -1.556
68 C4 3 -1.556
68 C4 4 -1.556
68 C4 5 -1.068
68 C4 6 -0.580
68 C4 7 -1.068
68 C4 8 -2.045
68 C4 9 -2.533
68 C4 10 -2.533
68 C4 11 -2.045
68 C4 12 -1.068
68 C4 13 -1.068
68 C4 14 -1.556
68 C4 15 -3.021
68 C4 16 -3.510
68 C4 17 -3.998
68 C4 18 -3.510
68 C4 19 -2.533
68 C4 20 -2.045
68 C4 21 -3.021
68 C4 22 -4.486
68 C4 23 -5.463
68 C4 24 -5.951
68 C4 25 -5.463
68 C4 26 -4.486
68 C4 27 -3.998
68 C4 28 -4.486
68 C4 29 -4.974
68 C4 30 -4.974
68 C4 31 -4.486
68 C4 32 -3.021
68 C4 33 -1.556
68 C4 34 -0.580
68 C4 35 -0.580
68 C4 36 -0.092
68 C4 37 0.397
68 C4 38 1.862
68 C4 39 2.350
68 C4 40 2.838
68 C4 41 1.862
68 C4 42 0.397
68 C4 43 -0.092
68 C4 44 -0.092
68 C4 45 0.885
68 C4 46 0.885
68 C4 47 0.885
68 C4 48 -0.092
68 C4 49 -1.068
68 C4 50 -2.045
68 C4 51 -2.533
68 C4 52 -2.045
68 C4 53 -1.556
68 C4 54 -1.068
68 C4 55 -1.068
68 C4 56 -1.556
68 C4 57 -2.045
68 C4 58 -1.556
68 C4 59 -0.580
68 C4 60 0.397
68 C4 61 0.885
68 C4 62 0.885
68 C4 63 0.397
68 C4 64 0.397
68 C4 65 -0.092
68 C4 66 0.397
68 C4 67 0.885
68 C4 68 0.885
68 C4 69 0.885
68 C4 70 0.885
68 C4 71 0.397
68 C4 72 0.397
68 C4 73 -0.092
68 C4 74 -0.580
68 C4 75 -0.580
68 C4 76 -0.580
68 C4 77 0.397
68 C4 78 0.885
68 C4 79 1.373
68 C4 80 1.862
68 C4 81 1.862
68 C4 82 1.862
68 C4 83 1.373
68 C4 84 0.397
68 C4 85 -0.092
68 C4 86 -0.580
68 C4 87 -0.580
68 C4 88 -1.068
68 C4 89 -0.580
68 C4 90 -0.580
68 C4 91 -0.580
68 C4 92 -0.580
68 C4 93 -0.580
68 C4 94 -0.580
68 C4 95 -0.580
68 C4 96 -0.580
68 C4 97 -0.092
68 C4 98 -0.580
68 C4 99 -1.068
68 C4 100 -2.045
68 C4 101 -3.021
68 C4 102 -3.510
68 C4 103 -3.998
68 C4 104 -3.998
68 C4 105 -2.533
68 C4 106 -1.068
68 C4 107 -0.092
68 C4 108 -0.092
68 C4 109 -0.580
68 C4 110 -2.045
68 C4 111 -3.021
68 C4 112 -3.998
68 C4 113 -3.510
68 C4 114 -3.510
68 C4 115 -3.510
68 C4 116 -3.021
68 C4 117 -3.510
68 C4 118 -3.510
68 C4 119 -3.998
68 C4 120 -4.486
68 C4 121 -4.486
68 C4 122 -4.486
68 C4 123 -3.998
68 C4 124 -3.510
68 C4 125 -3.021
68 C4 126 -2.045
68 C4 127 -1.556
68 C4 128 -1.556
68 C4 129 -1.556
68 C4 130 -2.045
68 C4 131 -2.533
68 C4 132 -3.021
68 C4 133 -3.021
68 C4 134 -2.045
68 C4 135 -1.068
68 C4 136 -0.580
68 C4 137 -1.068
68 C4 138 -2.045
68 C4 139 -2.533
68 C4 140 -3.021
68 C4 141 -2.045
68 C4 142 -1.068
68 C4 143 -0.580
68 C4 144 -0.580
68 C4 145 -1.556
68 C4 146 -2.533
68 C4 147 -3.510
68 C4 148 -3.510
68 C4 149 -3.510
68 C4 150 -2.533
68 C4 151 -1.068
68 C4 152 -0.580
68 C4 153 0.397
68 C4 154 1.373
68 C4 155 1.862
68 C4 156 1.862
68 C4 157 1.373
68 C4 158 0.885
68 C4 159 0.397
68 C4 160 -0.092
68 C4 161 -0.092
68 C4 162 0.397
68 C4 163 0.397
68 C4 164 0.397
68 C4 165 0.885
68 C4 166 0.885
68 C4 167 1.373
68 C4 168 1.373
68 C4 169 0.885
68 C4 170 0.397
68 C4 171 -0.092
68 C4 172 -0.092
68 C4 173 -0.092
68 C4 174 -0.092
68 C4 175 -0.092
68 C4 176 -0.092
68 C4 177 -0.092
68 C4 178 0.397
68 C4 179 0.397
68 C4 180 0.397
68 C4 181 -0.092
68 C4 182 -0.580
68 C4 183 -1.068
68 C4 184 -0.580
68 C4 185 -0.092
68 C4 186 0.397
68 C4 187 -0.092
68 C4 188 -1.068
68 C4 189 -2.045
68 C4 190 -1.556
68 C4 191 -1.068
68 C4 192 -0.092
68 C4 193 0.397
68 C4 194 -0.580
68 C4 195 -1.556
68 C4 196 -2.533
68 C4 197 -3.021
68 C4 198 -2.533
68 C4 199 -2.045
68 C4 200 -1.556
68 C4 201 -1.068
68 C4 202 -0.580
68 C4 203 -0.580
68 C4 204 -0.092
68 C4 205 0.397
68 C4 206 -0.092
68 C4 207 -0.580
68 C4 208 -1.556
68 C4 209 -2.045
68 C4 210 -2.045
68 C4 211 -1.556
68 C4 212 -1.068
68 C4 213 -0.580
68 C4 214 -1.068
68 C4 215 -1.556
68 C4 216 -3.021
68 C4 217 -3.998
68 C4 218 -3.510
68 C4 219 -2.533
68 C4 220 -0.580
68 C4 221 0.885
68 C4 222 2.350
68 C4 223 3.326
68 C4 224 4.303
68 C4 225 4.303
68 C4 226 5.280
68 C4 227 5.768
68 C4 228 5.768
68 C4 229 5.280
68 C4 230 4.791
68 C4 231 4.303
68 C4 232 4.791
68 C4 233 4.791
68 C4 234 4.303
68 C4 235 3.326
68 C4 236 1.373
68 C4 237 -0.580
68 C4 238 -1.556
68 C4 239 -2.533
68 C4 240 -2.533
68 C4 241 -3.021
68 C4 242 -3.021
68 C4 243 -3.510
68 C4 244 -3.021
68 C4 245 -1.556
68 C4 246 -0.092
68 C4 247 0.885
68 C4 248 1.373
68 C4 249 0.885
68 C4 250 0.397
68 C4 251 0.397
68 C4 252 0.885
68 C4 253 1.373
68 C4 254 1.373
68 C4 255 1.373
# CP5 chan 18
68 CP5 0 -11.129
68 CP5 1 -9.664
68 CP5 2 -8.199
68 CP5 3 -7.222
68 CP5 4 -7.222
68 CP5 5 -6.734
68 CP5 6 -5.758
68 CP5 7 -4.293
68 CP5 8 -2.828
68 CP5 9 -2.340
68 CP5 10 -3.316
68 CP5 11 -3.805
68 CP5 12 -3.316
68 CP5 13 -0.875
68 CP5 14 2.055
68 CP5 15 4.008
68 CP5 16 4.008
68 CP5 17 1.567
68 CP5 18 -1.851
68 CP5 19 -4.293
68 CP5 20 -5.758
68 CP5 21 -5.758
68 CP5 22 -5.758
68 CP5 23 -6.734
68 CP5 24 -8.199
68 CP5 25 -11.617
68 CP5 26 -15.035
68 CP5 27 -16.988
68 CP5 28 -16.012
68 CP5 29 -13.082
68 CP5 30 -8.687
68 CP5 31 -4.781
68 CP5 32 -0.875
68 CP5 33 2.055
68 CP5 34 4.985
68 CP5 35 6.449
68 CP5 36 6.938
68 CP5 37 5.473
68 CP5 38 4.008
68 CP5 39 3.031
68 CP5 40 2.543
68 CP5 41 3.031
68 CP5 42 3.031
68 CP5 43 2.543
68 CP5 44 1.078
68 CP5 45 0.102
68 CP5 46 -1.363
68 CP5 47 -2.340
68 CP5 48 -3.316
68 CP5 49 -4.781
68 CP5 50 -5.758
68 CP5 51 -7.222
68 CP5 52 -8.199
68 CP5 53 -9.664
68 CP5 54 -12.105
68 CP5 55 -13.570
68 CP5 56 -15.035
68 CP5 57 -13.570
68 CP5 58 -10.640
68 CP5 59 -7.222
68 CP5 60 -5.269
68 CP5 61 -4.293
68 CP5 62 -4.781
68 CP5 63 -5.269
68 CP5 64 -4.293
68 CP5 65 -2.340
68 CP5 66 -0.387
68 CP5 67 0.590
68 CP5 68 0.590
68 CP5 69 -0.875
68 CP5 70 -2.340
68 CP5 71 -2.340
68 CP5 72 -2.340
68 CP5 73 -0.875
68 CP5 74 0.590
68 CP5 75 1.567
68 CP5 76 0.102
68 CP5 77 -1.363
68 CP5 78 -4.293
68 CP5 79 -4.781
68 CP5 80 -4.293
68 CP5 81 -2.828
68 CP5 82 -1.851
68 CP5 83 -2.340
68 CP5 84 -3.805
68 CP5 85 -4.781
68 CP5 86 -4.293
68 CP5 87 -3.316
68 CP5 88 -1.851
68 CP5 89 -1.851
68 CP5 90 -2.828
68 CP5 91 -4.781
68 CP5 92 -4.781
68 CP5 93 -3.316
68 CP5 94 -0.875
68 CP5 95 1.078
68 CP5 96 1.567
68 CP5 97 -0.387
68 CP5 98 -3.316
68 CP5 99 -6.734
68 CP5 100 -8.687
68 CP5 101 -8.687
68 CP5 102 -6.734
68 CP5 103 -4.293
68 CP5 104 -2.340
68 CP5 105 -1.363
68 CP5 106 -2.828
68 CP5 107 -4.781
68 CP5 108 -6.246
68 CP5 109 -6.246
68 CP5 110 -4.781
68 CP5 111 -2.340
68 CP5 112 -0.387
68 CP5 113 0.590
68 CP5 114 -0.387
68 CP5 115 -2.340
68 CP5 116 -3.805
68 CP5 117 -5.758
68 CP5 118 -6.734
68 CP5 119 -7.222
68 CP5 120 -7.222
68 CP5 121 -6.246
68 CP5 122 -4.781
68 CP5 123 -3.805
68 CP5 124 -3.316
68 CP5 125 -3.805
68 CP5 126 -4.293
68 CP5 127 -4.781
68 CP5 128 -4.293
68 CP5 129 -2.828
68 CP5 130 -0.875
68 CP5 131 0.590
68 CP5 132 0.590
68 CP5 133 -0.387
68 CP5 134 -2.340
68 CP5 135 -4.293
68 CP5 136 -6.246
68 CP5 137 -6.246
68 CP5 138 -5.758
68 CP5 139 -4.781
68 CP5 140 -4.293
68 CP5 141 -3.316
68 CP5 142 -2.340
68 CP5 143 -0.875
68 CP5 144 1.567
68 CP5 145 4.008
68 CP5 146 6.449
68 CP5 147 7.426
68 CP5 148 7.914
68 CP5 149 7.426
68 CP5 150 7.426
68 CP5 151 6.938
68 CP5 152 5.961
68 CP5 153 4.008
68 CP5 154 1.567
68 CP5 155 0.102
68 CP5 156 -0.387
68 CP5 157 0.102
68 CP5 158 1.078
68 CP5 159 1.078
68 CP5 160 0.590
68 CP5 161 -0.387
68 CP5 162 -0.387
68 CP5 163 0.102
68 CP5 164 1.078
68 CP5 165 1.078
68 CP5 166 -0.387
68 CP5 167 -2.340
68 CP5 168 -3.805
68 CP5 169 -3.316
68 CP5 170 -1.851
68 CP5 171 -0.875
68 CP5 172 -0.875
68 CP5 173 -1.363
68 CP5 174 -2.340
68 CP5 175 -3.316
68 CP5 176 -3.805
68 CP5 177 -4.293
68 CP5 178 -4.293
68 CP5 179 -5.269
68 CP5 180 -6.246
68 CP5 181 -6.734
68 CP5 182 -7.222
68 CP5 183 -6.734
68 CP5 184 -6.246
68 CP5 185 -4.781
68 CP5 186 -2.828
68 CP5 187 -1.363
68 CP5 188 -0.875
68 CP5 189 -0.387
68 CP5 190 -0.387
68 CP5 191 -0.387
68 CP5 192 0.102
68 CP5 193 -0.387
68 CP5 194 -1.851
68 CP5 195 -2.828
68 CP5 196 -2.828
68 CP5 197 -1.851
68 CP5 198 -0.387
68 CP5 199 0.102
68 CP5 200 -1.363
68 CP5 201 -4.781
68 CP5 202 -7.222
68 CP5 203 -7.711
68 CP5 204 -6.734
68 CP5 205 -4.781
68 CP5 206 -2.828
68 CP5 207 -2.340
68 CP5 208 -3.316
68 CP5 209 -4.781
68 CP5 210 -5.758
68 CP5 211 -5.269
68 CP5 212 -4.781
68 CP5 213 -2.828
68 CP5 214 -1.363
68 CP5 215 0.102
68 CP5 216 1.567
68 CP5 217 1.567
68 CP5 218 1.567
68 CP5 219 0.590
68 CP5 220 0.102
68 CP5 221 -1.363
68 CP5 222 -2.340
68 CP5 223 -2.828
68 CP5 224 -3.316
68 CP5 225 -3.316
68 CP5 226 -4.293
68 CP5 227 -5.269
68 CP5 228 -6.246
68 CP5 229 -6.734
68 CP5 230 -7.222
68 CP5 231 -7.711
68 CP5 232 -8.687
68 CP5 233 -9.176
68 CP5 234 -8.687
68 CP5 235 -7.711
68 CP5 236 -6.246
68 CP5 237 -5.758
68 CP5 238 -6.246
68 CP5 239 -7.222
68 CP5 240 -7.711
68 CP5 241 -7.222
68 CP5 242 -5.269
68 CP5 243 -3.316
68 CP5 244 -1.363
68 CP5 245 -0.387
68 CP5 246 -0.387
68 CP5 247 -0.875
68 CP5 248 -0.387
68 CP5 249 -0.387
68 CP5 250 0.590
68 CP5 251 1.078
68 CP5 252 2.055
68 CP5 253 2.543
68 CP5 254 3.031
68 CP5 255 3.031
# CP6 chan 19
68 CP6 0 -4.791
68 CP6 1 -5.768
68 CP6 2 -7.233
68 CP6 3 -7.721
68 CP6 4 -7.721
68 CP6 5 -7.233
68 CP6 6 -6.744
68 CP6 7 -6.744
68 CP6 8 -7.233
68 CP6 9 -7.721
68 CP6 10 -8.209
68 CP6 11 -7.233
68 CP6 12 -6.744
68 CP6 13 -5.768
68 CP6 14 -5.768
68 CP6 15 -5.768
68 CP6 16 -5.768
68 CP6 17 -6.256
68 CP6 18 -6.256
68 CP6 19 -6.744
68 CP6 20 -7.233
68 CP6 21 -7.721
68 CP6 22 -8.209
68 CP6 23 -8.698
68 CP6 24 -8.698
68 CP6 25 -8.209
68 CP6 26 -7.721
68 CP6 27 -6.744
68 CP6 28 -6.256
68 CP6 29 -5.280
68 CP6 30 -3.815
68 CP6 31 -1.862
68 CP6 32 0.092
68 CP6 33 2.045
68 CP6 34 3.510
68 CP6 35 3.998
68 CP6 36 3.998
68 CP6 37 4.486
68 CP6 38 4.974
68 CP6 39 5.463
68 CP6 40 4.974
68 CP6 41 3.021
68 CP6 42 0.580
68 CP6 43 -1.373
68 CP6 44 -1.373
68 CP6 45 -0.885
68 CP6 46 0.580
68 CP6 47 0.092
68 CP6 48 -1.862
68 CP6 49 -3.815
68 CP6 50 -4.791
68 CP6 51 -4.791
68 CP6 52 -3.326
68 CP6 53 -2.350
68 CP6 54 -2.838
68 CP6 55 -4.303
68 CP6 56 -5.768
68 CP6 57 -5.768
68 CP6 58 -3.815
68 CP6 59 -1.373
68 CP6 60 0.580
68 CP6 61 1.556
68 CP6 62 1.068
68 CP6 63 1.068
68 CP6 64 1.556
68 CP6 65 2.533
68 CP6 66 3.021
68 CP6 67 2.533
68 CP6 68 0.092
68 CP6 69 -1.862
68 CP6 70 -2.838
68 CP6 71 -2.838
68 CP6 72 -1.373
68 CP6 73 -0.397
68 CP6 74 0.092
68 CP6 75 0.092
68 CP6 76 0.092
68 CP6 77 0.092
68 CP6 78 0.580
68 CP6 79 1.556
68 CP6 80 3.021
68 CP6 81 3.510
68 CP6 82 3.510
68 CP6 83 3.021
68 CP6 84 1.556
68 CP6 85 0.580
68 CP6 86 0.092
68 CP6 87 0.092
68 CP6 88 1.068
68 CP6 89 1.556
68 CP6 90 1.068
68 CP6 91 0.580
68 CP6 92 -0.885
68 CP6 93 -0.885
68 CP6 94 -1.373
68 CP6 95 -1.862
68 CP6 96 -1.862
68 CP6 97 -2.838
68 CP6 98 -3.815
68 CP6 99 -4.791
68 CP6 100 -5.768
68 CP6 101 -6.256
68 CP6 102 -6.744
68 CP6 103 -6.744
68 CP6 104 -5.768
68 CP6 105 -4.303
68 CP6 106 -2.838
68 CP6 107 -2.350
68 CP6 108 -2.350
68 CP6 109 -2.838
68 CP6 110 -3.326
68 CP6 111 -3.815
68 CP6 112 -4.303
68 CP6 113 -4.791
68 CP6 114 -4.791
68 CP6 115 -4.791
68 CP6 116 -4.791
68 CP6 117 -4.303
68 CP6 118 -4.791
68 CP6 119 -5.280
68 CP6 120 -6.256
68 CP6 121 -7.233
68 CP6 122 -7.233
68 CP6 123 -6.744
68 CP6 124 -5.280
68 CP6 125 -4.791
68 CP6 126 -3.815
68 CP6 127 -3.326
68 CP6 128 -2.838
68 CP6 129 -1.373
68 CP6 130 -0.885
68 CP6 131 0.092
68 CP6 132 -0.397
68 CP6 133 -1.373
68 CP6 134 -2.838
68 CP6 135 -3.326
68 CP6 136 -3.326
68 CP6 137 -2.838
68 CP6 138 -2.350
68 CP6 139 -1.862
68 CP6 140 -0.885
68 CP6 141 -0.397
68 CP6 142 1.068
68 CP6 143 2.045
68 CP6 144 2.533
68 CP6 145 2.533
68 CP6 146 2.045
68 CP6 147 1.556
68 CP6 148 1.556
68 CP6 149 2.045
68 CP6 150 3.021
68 CP6 151 3.998
68 CP6 152 4.974
68 CP6 153 5.463
68 CP6 154 5.951
68 CP6 155 5.463
68 CP6 156 4.974
68 CP6 157 3.510
68 CP6 158 1.556
68 CP6 159 0.580
68 CP6 160 -0.397
68 CP6 161 -0.885
68 CP6 162 -0.885
68 CP6 163 0.092
68 CP6 164 1.068
68 CP6 165 2.533
68 CP6 166 3.021
68 CP6 167 3.998
68 CP6 168 3.510
68 CP6 169 2.533
68 CP6 170 1.556
68 CP6 171 1.068
68 CP6 172 1.068
68 CP6 173 1.556
68 CP6 174 1.556
68 CP6 175 1.068
68 CP6 176 -0.397
68 CP6 177 -1.373
68 CP6 178 -1.862
68 CP6 179 -1.862
68 CP6 180 -1.862
68 CP6 181 -2.838
68 CP6 182 -3.815
68 CP6 183 -4.791
68 CP6 184 -4.303
68 CP6 185 -3.815
68 CP6 186 -3.815
68 CP6 187 -4.303
68 CP6 188 -4.791
68 CP6 189 -5.280
68 CP6 190 -4.303
68 CP6 191 -2.838
68 CP6 192 -1.373
68 CP6 193 -1.373
68 CP6 194 -2.350
68 CP6 195 -4.303
68 CP6 196 -5.280
68 CP6 197 -5.280
68 CP6 198 -4.303
68 CP6 199 -3.326
68 CP6 200 -1.862
68 CP6 201 -1.373
68 CP6 202 -1.373
68 CP6 203 -0.885
68 CP6 204 -0.885
68 CP6 205 -1.373
68 CP6 206 -1.373
68 CP6 207 -2.838
68 CP6 208 -3.815
68 CP6 209 -4.303
68 CP6 210 -3.815
68 CP6 211 -3.326
68 CP6 212 -2.350
68 CP6 213 -1.862
68 CP6 214 -1.862
68 CP6 215 -1.862
68 CP6 216 -2.350
68 CP6 217 -2.838
68 CP6 218 -2.838
68 CP6 219 -2.838
68 CP6 220 -1.373
68 CP6 221 1.068
68 CP6 222 3.510
68 CP6 223 6.439
68 CP6 224 8.392
68 CP6 225 9.369
68 CP6 226 9.369
68 CP6 227 8.392
68 CP6 228 7.904
68 CP6 229 6.927
68 CP6 230 6.439
68 CP6 231 6.439
68 CP6 232 6.439
68 CP6 233 5.463
68 CP6 234 3.998
68 CP6 235 1.068
68 CP6 236 -1.862
68 CP6 237 -5.280
68 CP6 238 -7.721
68 CP6 239 -8.209
68 CP6 240 -7.721
68 CP6 241 -7.721
68 CP6 242 -7.721
68 CP6 243 -7.721
68 CP6 244 -6.744
68 CP6 245 -5.280
68 CP6 246 -2.838
68 CP6 247 -0.397
68 CP6 248 1.068
68 CP6 249 1.556
68 CP6 250 2.045
68 CP6 251 2.045
68 CP6 252 2.533
68 CP6 253 2.533
68 CP6 254 3.021
68 CP6 255 3.021
# CP1 chan 20
68 CP1 0 -5.442
68 CP1 1 -4.954
68 CP1 2 -4.954
68 CP1 3 -4.466
68 CP1 4 -4.466
68 CP1 5 -3.977
68 CP1 6 -3.489
68 CP1 7 -3.001
68 CP1 8 -2.513
68 CP1 9 -2.513
68 CP1 10 -3.001
68 CP1 11 -3.001
68 CP1 12 -2.513
68 CP1 13 -1.536
68 CP1 14 -0.559
68 CP1 15 0.417
68 CP1 16 -0.071
68 CP1 17 -0.559
68 CP1 18 -2.024
68 CP1 19 -3.489
68 CP1 20 -3.977
68 CP1 21 -4.954
68 CP1 22 -4.954
68 CP1 23 -4.954
68 CP1 24 -5.442
68 CP1 25 -6.907
68 CP1 26 -7.395
68 CP1 27 -7.395
68 CP1 28 -5.931
68 CP1 29 -3.977
68 CP1 30 -2.024
68 CP1 31 -0.559
68 CP1 32 0.905
68 CP1 33 1.882
68 CP1 34 2.370
68 CP1 35 2.858
68 CP1 36 1.882
68 CP1 37 0.905
68 CP1 38 -0.071
68 CP1 39 -0.559
68 CP1 40 -0.559
68 CP1 41 -0.559
68 CP1 42 -1.048
68 CP1 43 -2.024
68 CP1 44 -2.513
68 CP1 45 -2.513
68 CP1 46 -2.024
68 CP1 47 -2.024
68 CP1 48 -2.513
68 CP1 49 -2.513
68 CP1 50 -3.001
68 CP1 51 -3.001
68 CP1 52 -3.001
68 CP1 53 -3.001
68 CP1 54 -3.489
68 CP1 55 -4.466
68 CP1 56 -4.954
68 CP1 57 -4.466
68 CP1 58 -3.489
68 CP1 59 -2.513
68 CP1 60 -1.536
68 CP1 61 -1.536
68 CP1 62 -2.024
68 CP1 63 -2.024
68 CP1 64 -1.536
68 CP1 65 -1.048
68 CP1 66 -0.559
68 CP1 67 -0.559
68 CP1 68 -1.048
68 CP1 69 -1.536
68 CP1 70 -2.024
68 CP1 71 -2.024
68 CP1 72 -2.024
68 CP1 73 -1.048
68 CP1 74 -0.559
68 CP1 75 -0.071
68 CP1 76 -0.559
68 CP1 77 -1.536
68 CP1 78 -3.001
68 CP1 79 -3.001
68 CP1 80 -2.513
68 CP1 81 -1.536
68 CP1 82 -1.048
68 CP1 83 -1.048
68 CP1 84 -1.536
68 CP1 85 -2.024
68 CP1 86 -2.024
68 CP1 87 -1.048
68 CP1 88 -1.048
68 CP1 89 -1.536
68 CP1 90 -2.513
68 CP1 91 -3.489
68 CP1 92 -3.489
68 CP1 93 -3.001
68 CP1 94 -2.024
68 CP1 95 -1.536
68 CP1 96 -1.536
68 CP1 97 -2.513
68 CP1 98 -3.489
68 CP1 99 -4.954
68 CP1 100 -5.442
68 CP1 101 -5.442
68 CP1 102 -4.466
68 CP1 103 -3.001
68 CP1 104 -2.024
68 CP1 105 -1.048
68 CP1 106 -1.536
68 CP1 107 -2.024
68 CP1 108 -2.024
68 CP1 109 -1.536
68 CP1 110 -0.559
68 CP1 111 0.905
68 CP1 112 0.905
68 CP1 113 0.417
68 CP1 114 -0.559
68 CP1 115 -1.536
68 CP1 116 -2.024
68 CP1 117 -3.001
68 CP1 118 -3.977
68 CP1 119 -4.466
68 CP1 120 -4.466
68 CP1 121 -4.466
68 CP1 122 -3.977
68 CP1 123 -3.489
68 CP1 124 -3.977
68 CP1 125 -4.466
68 CP1 126 -4.954
68 CP1 127 -4.466
68 CP1 128 -3.977
68 CP1 129 -3.001
68 CP1 130 -1.536
68 CP1 131 -1.048
68 CP1 132 -0.071
68 CP1 133 -0.559
68 CP1 134 -1.048
68 CP1 135 -2.024
68 CP1 136 -2.024
68 CP1 137 -2.024
68 CP1 138 -1.048
68 CP1 139 -0.071
68 CP1 140 0.417
68 CP1 141 0.905
68 CP1 142 0.905
68 CP1 143 0.905
68 CP1 144 1.882
68 CP1 145 2.858
68 CP1 146 3.835
68 CP1 147 3.347
68 CP1 148 3.347
68 CP1 149 2.858
68 CP1 150 2.370
68 CP1 151 2.370
68 CP1 152 1.882
68 CP1 153 0.905
68 CP1 154 -0.559
68 CP1 155 -1.536
68 CP1 156 -2.024
68 CP1 157 -1.536
68 CP1 158 -1.536
68 CP1 159 -1.048
68 CP1 160 -1.048
68 CP1 161 -1.048
68 CP1 162 -1.048
68 CP1 163 -0.071
68 CP1 164 0.417
68 CP1 165 0.417
68 CP1 166 -0.071
68 CP1 167 -1.048
68 CP1 168 -1.536
68 CP1 169 -1.536
68 CP1 170 -0.559
68 CP1 171 -0.071
68 CP1 172 -0.071
68 CP1 173 -0.559
68 CP1 174 -1.048
68 CP1 175 -2.024
68 CP1 176 -2.513
68 CP1 177 -3.001
68 CP1 178 -3.001
68 CP1 179 -3.001
68 CP1 180 -3.001
68 CP1 181 -3.489
68 CP1 182 -3.977
68 CP1 183 -3.977
68 CP1 184 -3.977
68 CP1 185 -3.977
68 CP1 186 -3.489
68 CP1 187 -3.001
68 CP1 188 -3.001
68 CP1 189 -2.513
68 CP1 190 -2.024
68 CP1 191 -2.024
68 CP1 192 -2.024
68 CP1 193 -2.513
68 CP1 194 -3.001
68 CP1 195 -3.977
68 CP1 196 -3.489
68 CP1 197 -2.513
68 CP1 198 -1.536
68 CP1 199 -0.559
68 CP1 200 -1.536
68 CP1 201 -2.513
68 CP1 202 -3.977
68 CP1 203 -4.466
68 CP1 204 -3.977
68 CP1 205 -3.001
68 CP1 206 -2.513
68 CP1 207 -2.024
68 CP1 208 -2.024
68 CP1 209 -2.024
68 CP1 210 -2.024
68 CP1 211 -1.536
68 CP1 212 -1.048
68 CP1 213 -0.559
68 CP1 214 0.417
68 CP1 215 0.417
68 CP1 216 0.905
68 CP1 217 0.417
68 CP1 218 -0.071
68 CP1 219 -1.048
68 CP1 220 -2.024
68 CP1 221 -3.001
68 CP1 222 -3.001
68 CP1 223 -3.001
68 CP1 224 -3.489
68 CP1 225 -3.489
68 CP1 226 -3.977
68 CP1 227 -4.466
68 CP1 228 -4.954
68 CP1 229 -4.954
68 CP1 230 -5.442
68 CP1 231 -5.931
68 CP1 232 -6.419
68 CP1 233 -6.419
68 CP1 234 -5.931
68 CP1 235 -5.442
68 CP1 236 -4.954
68 CP1 237 -3.977
68 CP1 238 -4.466
68 CP1 239 -4.466
68 CP1 240 -4.466
68 CP1 241 -3.977
68 CP1 242 -3.489
68 CP1 243 -3.489
68 CP1 244 -3.489
68 CP1 245 -3.489
68 CP1 246 -3.489
68 CP1 247 -3.489
68 CP1 248 -3.001
68 CP1 249 -3.001
68 CP1 250 -2.513
68 CP1 251 -2.513
68 CP1 252 -2.024
68 CP1 253 -2.024
68 CP1 254 -2.024
68 CP1 255 -2.024
# CP2 chan 21
68 CP2 0 -3.418
68 CP2 1 -4.395
68 CP2 2 -5.371
68 CP2 3 -5.371
68 CP2 4 -4.883
68 CP2 5 -4.395
68 CP2 6 -4.395
68 CP2 7 -4.395
68 CP2 8 -4.883
68 CP2 9 -5.371
68 CP2 10 -5.371
68 CP2 11 -4.883
68 CP2 12 -4.395
68 CP2 13 -3.906
68 CP2 14 -3.906
68 CP2 15 -3.906
68 CP2 16 -3.906
68 CP2 17 -4.395
68 CP2 18 -4.395
68 CP2 19 -4.883
68 CP2 20 -4.883
68 CP2 21 -5.371
68 CP2 22 -5.859
68 CP2 23 -6.348
68 CP2 24 -6.348
68 CP2 25 -6.348
68 CP2 26 -6.348
68 CP2 27 -5.371
68 CP2 28 -4.883
68 CP2 29 -4.395
68 CP2 30 -3.906
68 CP2 31 -3.418
68 CP2 32 -2.441
68 CP2 33 -1.465
68 CP2 34 -0.488
68 CP2 35 0.000
68 CP2 36 -0.488
68 CP2 37 -0.488
68 CP2 38 -0.488
68 CP2 39 -0.488
68 CP2 40 -0.488
68 CP2 41 -1.465
68 CP2 42 -1.953
68 CP2 43 -2.930
68 CP2 44 -2.930
68 CP2 45 -2.441
68 CP2 46 -1.465
68 CP2 47 -1.465
68 CP2 48 -1.953
68 CP2 49 -2.930
68 CP2 50 -2.930
68 CP2 51 -2.441
68 CP2 52 -1.465
68 CP2 53 -0.977
68 CP2 54 -0.977
68 CP2 55 -1.953
68 CP2 56 -2.930
68 CP2 57 -2.441
68 CP2 58 -1.953
68 CP2 59 -1.465
68 CP2 60 -0.977
68 CP2 61 -0.977
68 CP2 62 -1.953
68 CP2 63 -1.953
68 CP2 64 -1.465
68 CP2 65 -0.977
68 CP2 66 -0.977
68 CP2 67 -0.977
68 CP2 68 -1.465
68 CP2 69 -2.441
68 CP2 70 -2.930
68 CP2 71 -2.930
68 CP2 72 -2.441
68 CP2 73 -1.953
68 CP2 74 -1.465
68 CP2 75 -1.465
68 CP2 76 -1.465
68 CP2 77 -1.465
68 CP2 78 -1.465
68 CP2 79 -1.465
68 CP2 80 -0.488
68 CP2 81 0.000
68 CP2 82 0.000
68 CP2 83 0.000
68 CP2 84 -0.488
68 CP2 85 -0.977
68 CP2 86 -1.465
68 CP2 87 -1.465
68 CP2 88 -0.977
68 CP2 89 -0.977
68 CP2 90 -1.465
68 CP2 91 -1.953
68 CP2 92 -2.441
68 CP2 93 -2.930
68 CP2 94 -2.930
68 CP2 95 -2.930
68 CP2 96 -2.930
68 CP2 97 -2.930
68 CP2 98 -3.906
68 CP2 99 -4.395
68 CP2 100 -5.371
68 CP2 101 -5.859
68 CP2 102 -5.859
68 CP2 103 -5.371
68 CP2 104 -4.395
68 CP2 105 -3.418
68 CP2 106 -2.930
68 CP2 107 -2.930
68 CP2 108 -2.441
68 CP2 109 -2.441
68 CP2 110 -1.953
68 CP2 111 -1.953
68 CP2 112 -2.441
68 CP2 113 -3.418
68 CP2 114 -3.906
68 CP2 115 -4.395
68 CP2 116 -4.395
68 CP2 117 -4.395
68 CP2 118 -4.395
68 CP2 119 -4.883
68 CP2 120 -5.371
68 CP2 121 -5.859
68 CP2 122 -5.859
68 CP2 123 -5.371
68 CP2 124 -4.883
68 CP2 125 -4.883
68 CP2 126 -4.883
68 CP2 127 -5.371
68 CP2 128 -4.883
68 CP2 129 -3.906
68 CP2 130 -2.930
68 CP2 131 -2.930
68 CP2 132 -2.441
68 CP2 133 -2.930
68 CP2 134 -2.930
68 CP2 135 -2.441
68 CP2 136 -1.953
68 CP2 137 -0.977
68 CP2 138 -0.488
68 CP2 139 -0.488
68 CP2 140 -0.488
68 CP2 141 0.000
68 CP2 142 0.488
68 CP2 143 0.488
68 CP2 144 0.488
68 CP2 145 0.488
68 CP2 146 -0.488
68 CP2 147 -0.977
68 CP2 148 -0.977
68 CP2 149 -0.977
68 CP2 150 -0.977
68 CP2 151 -0.488
68 CP2 152 -0.488
68 CP2 153 -0.488
68 CP2 154 -0.488
68 CP2 155 -0.977
68 CP2 156 -0.977
68 CP2 157 -1.465
68 CP2 158 -1.953
68 CP2 159 -2.441
68 CP2 160 -2.441
68 CP2 161 -2.441
68 CP2 162 -2.441
68 CP2 163 -1.953
68 CP2 164 -0.977
68 CP2 165 -0.488
68 CP2 166 0.000
68 CP2 167 0.000
68 CP2 168 -0.488
68 CP2 169 -0.488
68 CP2 170 -0.488
68 CP2 171 -0.488
68 CP2 172 -0.488
68 CP2 173 -0.488
68 CP2 174 -0.977
68 CP2 175 -1.953
68 CP2 176 -2.930
68 CP2 177 -3.418
68 CP2 178 -3.418
68 CP2 179 -3.906
68 CP2 180 -3.906
68 CP2 181 -4.395
68 CP2 182 -4.883
68 CP2 183 -5.371
68 CP2 184 -5.371
68 CP2 185 -4.883
68 CP2 186 -5.371
68 CP2 187 -5.371
68 CP2 188 -5.859
68 CP2 189 -5.371
68 CP2 190 -5.371
68 CP2 191 -4.395
68 CP2 192 -4.395
68 CP2 193 -4.395
68 CP2 194 -5.371
68 CP2 195 -6.348
68 CP2 196 -6.348
68 CP2 197 -6.348
68 CP2 198 -5.371
68 CP2 199 -4.395
68 CP2 200 -3.418
68 CP2 201 -3.418
68 CP2 202 -3.418
68 CP2 203 -3.418
68 CP2 204 -3.418
68 CP2 205 -3.418
68 CP2 206 -3.418
68 CP2 207 -3.906
68 CP2 208 -3.906
68 CP2 209 -3.906
68 CP2 210 -3.906
68 CP2 211 -3.418
68 CP2 212 -2.930
68 CP2 213 -2.930
68 CP2 214 -2.930
68 CP2 215 -2.930
68 CP2 216 -3.906
68 CP2 217 -4.395
68 CP2 218 -4.883
68 CP2 219 -4.883
68 CP2 220 -4.883
68 CP2 221 -3.906
68 CP2 222 -2.930
68 CP2 223 -1.465
68 CP2 224 -0.977
68 CP2 225 -0.488
68 CP2 226 -0.977
68 CP2 227 -1.465
68 CP2 228 -1.465
68 CP2 229 -1.465
68 CP2 230 -1.953
68 CP2 231 -1.953
68 CP2 232 -1.953
68 CP2 233 -2.441
68 CP2 234 -2.930
68 CP2 235 -4.395
68 CP2 236 -5.859
68 CP2 237 -7.324
68 CP2 238 -8.301
68 CP2 239 -8.789
68 CP2 240 -8.301
68 CP2 241 -8.789
68 CP2 242 -8.789
68 CP2 243 -8.789
68 CP2 244 -8.789
68 CP2 245 -7.812
68 CP2 246 -6.348
68 CP2 247 -5.371
68 CP2 248 -4.883
68 CP2 249 -4.883
68 CP2 250 -5.371
68 CP2 251 -4.883
68 CP2 252 -4.395
68 CP2 253 -3.906
68 CP2 254 -3.906
68 CP2 255 -3.906
# P3 chan 22
68 P3 0 -12.644
68 P3 1 -12.156
68 P3 2 -11.180
68 P3 3 -10.203
68 P3 4 -9.715
68 P3 5 -9.226
68 P3 6 -7.762
68 P3 7 -5.809
68 P3 8 -4.832
68 P3 9 -4.344
68 P3 10 -4.344
68 P3 11 -4.344
68 P3 12 -3.367
68 P3 13 -0.926
68 P3 14 1.516
68 P3 15 2.981
68 P3 16 2.981
68 P3 17 1.027
68 P3 18 -2.391
68 P3 19 -5.320
68 P3 20 -7.273
68 P3 21 -8.250
68 P3 22 -8.738
68 P3 23 -9.226
68 P3 24 -11.180
68 P3 25 -14.109
68 P3 26 -16.062
68 P3 27 -16.551
68 P3 28 -14.109
68 P3 29 -10.691
68 P3 30 -7.273
68 P3 31 -3.855
68 P3 32 -0.926
68 P3 33 2.004
68 P3 34 3.957
68 P3 35 5.422
68 P3 36 4.445
68 P3 37 2.492
68 P3 38 1.027
68 P3 39 0.539
68 P3 40 0.539
68 P3 41 0.539
68 P3 42 -0.437
68 P3 43 -1.414
68 P3 44 -2.879
68 P3 45 -2.879
68 P3 46 -2.391
68 P3 47 -2.391
68 P3 48 -3.367
68 P3 49 -4.344
68 P3 50 -5.320
68 P3 51 -5.320
68 P3 52 -5.320
68 P3 53 -6.297
68 P3 54 -8.738
68 P3 55 -10.691
68 P3 56 -11.180
68 P3 57 -9.226
68 P3 58 -6.297
68 P3 59 -2.879
68 P3 60 -1.414
68 P3 61 -1.414
68 P3 62 -1.902
68 P3 63 -2.391
68 P3 64 -1.414
68 P3 65 0.539
68 P3 66 1.516
68 P3 67 1.516
68 P3 68 0.539
68 P3 69 -1.414
68 P3 70 -2.879
68 P3 71 -3.367
68 P3 72 -2.391
68 P3 73 -1.414
68 P3 74 0.051
68 P3 75 0.539
68 P3 76 -0.437
68 P3 77 -2.391
68 P3 78 -4.344
68 P3 79 -4.832
68 P3 80 -3.855
68 P3 81 -2.391
68 P3 82 -0.926
68 P3 83 -0.926
68 P3 84 -1.902
68 P3 85 -2.391
68 P3 86 -1.902
68 P3 87 -0.926
68 P3 88 -0.926
68 P3 89 -2.391
68 P3 90 -3.855
68 P3 91 -4.344
68 P3 92 -3.855
68 P3 93 -1.902
68 P3 94 -0.437
68 P3 95 0.051
68 P3 96 -0.437
68 P3 97 -1.414
68 P3 98 -3.367
68 P3 99 -5.809
68 P3 100 -8.250
68 P3 101 -9.226
68 P3 102 -8.250
68 P3 103 -4.832
68 P3 104 -1.414
68 P3 105 0.051
68 P3 106 -0.926
68 P3 107 -2.879
68 P3 108 -4.832
68 P3 109 -4.344
68 P3 110 -1.902
68 P3 111 1.027
68 P3 112 2.492
68 P3 113 2.492
68 P3 114 1.516
68 P3 115 0.051
68 P3 116 -1.414
68 P3 117 -2.879
68 P3 118 -4.344
68 P3 119 -5.320
68 P3 120 -5.320
68 P3 121 -4.832
68 P3 122 -3.855
68 P3 123 -3.367
68 P3 124 -2.879
68 P3 125 -3.367
68 P3 126 -3.855
68 P3 127 -3.855
68 P3 128 -2.879
68 P3 129 -0.926
68 P3 130 1.516
68 P3 131 2.981
68 P3 132 3.469
68 P3 133 2.492
68 P3 134 0.539
68 P3 135 -0.926
68 P3 136 -1.902
68 P3 137 -1.414
68 P3 138 0.051
68 P3 139 1.027
68 P3 140 2.004
68 P3 141 2.492
68 P3 142 2.981
68 P3 143 3.957
68 P3 144 5.910
68 P3 145 7.375
68 P3 146 8.352
68 P3 147 8.352
68 P3 148 7.863
68 P3 149 7.863
68 P3 150 8.352
68 P3 151 8.352
68 P3 152 7.375
68 P3 153 4.445
68 P3 154 2.004
68 P3 155 0.051
68 P3 156 -0.437
68 P3 157 0.539
68 P3 158 1.027
68 P3 159 1.516
68 P3 160 1.516
68 P3 161 1.516
68 P3 162 2.492
68 P3 163 3.469
68 P3 164 4.445
68 P3 165 3.957
68 P3 166 2.492
68 P3 167 1.027
68 P3 168 0.539
68 P3 169 1.027
68 P3 170 2.492
68 P3 171 2.981
68 P3 172 2.981
68 P3 173 1.516
68 P3 174 0.051
68 P3 175 -1.414
68 P3 176 -2.391
68 P3 177 -3.367
68 P3 178 -3.855
68 P3 179 -4.344
68 P3 180 -4.344
68 P3 181 -4.832
68 P3 182 -5.809
68 P3 183 -6.297
68 P3 184 -6.785
68 P3 185 -6.297
68 P3 186 -4.344
68 P3 187 -2.879
68 P3 188 -1.414
68 P3 189 -0.926
68 P3 190 -0.437
68 P3 191 -0.437
68 P3 192 0.051
68 P3 193 -0.926
68 P3 194 -2.879
68 P3 195 -4.832
68 P3 196 -4.344
68 P3 197 -2.879
68 P3 198 -0.437
68 P3 199 0.539
68 P3 200 -0.926
68 P3 201 -3.855
68 P3 202 -6.297
68 P3 203 -6.785
68 P3 204 -5.320
68 P3 205 -3.855
68 P3 206 -2.879
68 P3 207 -2.879
68 P3 208 -2.879
68 P3 209 -2.391
68 P3 210 -1.902
68 P3 211 -0.926
68 P3 212 -0.437
68 P3 213 0.539
68 P3 214 1.516
68 P3 215 2.981
68 P3 216 3.957
68 P3 217 4.445
68 P3 218 3.469
68 P3 219 2.004
68 P3 220 0.051
68 P3 221 -0.926
68 P3 222 -0.926
68 P3 223 -0.926
68 P3 224 -0.437
68 P3 225 -0.926
68 P3 226 -1.902
68 P3 227 -3.367
68 P3 228 -4.344
68 P3 229 -4.832
68 P3 230 -4.832
68 P3 231 -5.320
68 P3 232 -6.297
68 P3 233 -7.273
68 P3 234 -7.762
68 P3 235 -7.273
68 P3 236 -6.297
68 P3 237 -5.320
68 P3 238 -5.320
68 P3 239 -5.809
68 P3 240 -5.809
68 P3 241 -5.320
68 P3 242 -4.344
68 P3 243 -3.367
68 P3 244 -2.391
68 P3 245 -1.414
68 P3 246 -0.926
68 P3 247 -0.437
68 P3 248 0.539
68 P3 249 0.539
68 P3 250 1.027
68 P3 251 1.516
68 P3 252 2.004
68 P3 253 2.492
68 P3 254 2.981
68 P3 255 2.492
# P4 chan 23
68 P4 0 -5.849
68 P4 1 -7.314
68 P4 2 -8.779
68 P4 3 -9.267
68 P4 4 -9.267
68 P4 5 -8.291
68 P4 6 -7.314
68 P4 7 -7.314
68 P4 8 -7.314
68 P4 9 -7.314
68 P4 10 -7.314
68 P4 11 -6.826
68 P4 12 -6.337
68 P4 13 -5.361
68 P4 14 -3.896
68 P4 15 -3.408
68 P4 16 -2.920
68 P4 17 -3.408
68 P4 18 -4.873
68 P4 19 -5.849
68 P4 20 -6.337
68 P4 21 -6.826
68 P4 22 -7.314
68 P4 23 -7.802
68 P4 24 -8.291
68 P4 25 -9.267
68 P4 26 -8.779
68 P4 27 -7.802
68 P4 28 -6.337
68 P4 29 -4.384
68 P4 30 -2.920
68 P4 31 -1.455
68 P4 32 1.475
68 P4 33 3.428
68 P4 34 5.381
68 P4 35 5.381
68 P4 36 4.893
68 P4 37 3.916
68 P4 38 3.916
68 P4 39 4.405
68 P4 40 3.916
68 P4 41 1.963
68 P4 42 -0.966
68 P4 43 -3.408
68 P4 44 -3.408
68 P4 45 -1.943
68 P4 46 -0.478
68 P4 47 -0.478
68 P4 48 -2.431
68 P4 49 -3.896
68 P4 50 -3.896
68 P4 51 -1.943
68 P4 52 0.010
68 P4 53 0.987
68 P4 54 -0.478
68 P4 55 -1.943
68 P4 56 -3.408
68 P4 57 -2.920
68 P4 58 -0.966
68 P4 59 0.987
68 P4 60 2.452
68 P4 61 1.963
68 P4 62 1.963
68 P4 63 1.963
68 P4 64 2.940
68 P4 65 3.916
68 P4 66 3.916
68 P4 67 2.452
68 P4 68 -0.478
68 P4 69 -2.431
68 P4 70 -3.408
68 P4 71 -2.920
68 P4 72 -1.943
68 P4 73 -0.478
68 P4 74 0.010
68 P4 75 0.010
68 P4 76 -0.478
68 P4 77 -0.478
68 P4 78 -0.478
68 P4 79 0.010
68 P4 80 0.498
68 P4 81 1.475
68 P4 82 1.475
68 P4 83 1.475
68 P4 84 0.498
68 P4 85 0.010
68 P4 86 0.010
68 P4 87 0.010
68 P4 88 0.498
68 P4 89 0.010
68 P4 90 -0.478
68 P4 91 -0.966
68 P4 92 -1.455
68 P4 93 -1.455
68 P4 94 -1.943
68 P4 95 -2.431
68 P4 96 -2.431
68 P4 97 -3.408
68 P4 98 -3.896
68 P4 99 -4.873
68 P4 100 -6.337
68 P4 101 -7.314
68 P4 102 -7.802
68 P4 103 -6.826
68 P4 104 -5.849
68 P4 105 -4.384
68 P4 106 -3.408
68 P4 107 -3.408
68 P4 108 -3.408
68 P4 109 -2.920
68 P4 110 -2.431
68 P4 111 -1.943
68 P4 112 -1.943
68 P4 113 -2.920
68 P4 114 -3.896
68 P4 115 -4.384
68 P4 116 -3.896
68 P4 117 -3.896
68 P4 118 -3.896
68 P4 119 -4.873
68 P4 120 -6.826
68 P4 121 -7.802
68 P4 122 -7.802
68 P4 123 -6.337
68 P4 124 -5.361
68 P4 125 -4.384
68 P4 126 -4.384
68 P4 127 -4.873
68 P4 128 -4.384
68 P4 129 -2.920
68 P4 130 -0.966
68 P4 131 0.010
68 P4 132 0.010
68 P4 133 -1.455
68 P4 134 -2.431
68 P4 135 -2.920
68 P4 136 -1.943
68 P4 137 -0.478
68 P4 138 0.987
68 P4 139 1.963
68 P4 140 2.452
68 P4 141 2.940
68 P4 142 3.428
68 P4 143 3.916
68 P4 144 3.916
68 P4 145 3.916
68 P4 146 3.916
68 P4 147 3.916
68 P4 148 3.916
68 P4 149 4.405
68 P4 150 4.405
68 P4 151 4.405
68 P4 152 4.405
68 P4 153 4.405
68 P4 154 3.916
68 P4 155 3.428
68 P4 156 2.940
68 P4 157 1.475
68 P4 158 0.498
68 P4 159 -0.478
68 P4 160 -1.455
68 P4 161 -1.943
68 P4 162 -1.943
68 P4 163 -0.966
68 P4 164 0.010
68 P4 165 1.475
68 P4 166 2.940
68 P4 167 3.428
68 P4 168 3.428
68 P4 169 3.428
68 P4 170 2.940
68 P4 171 2.940
68 P4 172 2.940
68 P4 173 2.940
68 P4 174 1.475
68 P4 175 -0.478
68 P4 176 -2.431
68 P4 177 -3.896
68 P4 178 -4.873
68 P4 179 -5.361
68 P4 180 -5.361
68 P4 181 -5.849
68 P4 182 -6.337
68 P4 183 -6.826
68 P4 184 -7.314
68 P4 185 -7.802
68 P4 186 -7.314
68 P4 187 -7.314
68 P4 188 -6.826
68 P4 189 -5.849
68 P4 190 -4.384
68 P4 191 -2.920
68 P4 192 -2.431
68 P4 193 -2.920
68 P4 194 -4.384
68 P4 195 -5.849
68 P4 196 -6.337
68 P4 197 -5.849
68 P4 198 -4.384
68 P4 199 -2.920
68 P4 200 -1.943
68 P4 201 -0.966
68 P4 202 -0.966
68 P4 203 -1.455
68 P4 204 -2.431
68 P4 205 -2.431
68 P4 206 -2.431
68 P4 207 -2.431
68 P4 208 -2.920
68 P4 209 -2.920
68 P4 210 -2.920
68 P4 211 -2.431
68 P4 212 -1.455
68 P4 213 -0.966
68 P4 214 -0.966
68 P4 215 -0.966
68 P4 216 -1.455
68 P4 217 -1.943
68 P4 218 -1.943
68 P4 219 -1.943
68 P4 220 -1.455
68 P4 221 0.010
68 P4 222 2.452
68 P4 223 4.405
68 P4 224 6.358
68 P4 225 7.334
68 P4 226 6.846
68 P4 227 5.870
68 P4 228 4.893
68 P4 229 4.405
68 P4 230 4.405
68 P4 231 4.405
68 P4 232 3.916
68 P4 233 2.452
68 P4 234 0.498
68 P4 235 -2.431
68 P4 236 -5.361
68 P4 237 -7.802
68 P4 238 -9.267
68 P4 239 -9.755
68 P4 240 -9.755
68 P4 241 -10.244
68 P4 242 -10.732
68 P4 243 -11.220
68 P4 244 -10.244
68 P4 245 -7.802
68 P4 246 -4.873
68 P4 247 -2.431
68 P4 248 -0.478
68 P4 249 0.498
68 P4 250 1.475
68 P4 251 2.452
68 P4 252 3.916
68 P4 253 4.405
68 P4 254 4.405
68 P4 255 3.916
# PZ chan 24
68 PZ 0 -7.507
68 PZ 1 -8.484
68 PZ 2 -8.972
68 PZ 3 -9.460
68 PZ 4 -8.972
68 PZ 5 -8.484
68 PZ 6 -7.507
68 PZ 7 -7.019
68 PZ 8 -6.042
68 PZ 9 -5.554
68 PZ 10 -5.066
68 PZ 11 -5.066
68 PZ 12 -4.089
68 PZ 13 -3.113
68 PZ 14 -1.648
68 PZ 15 -0.183
68 PZ 16 0.305
68 PZ 17 0.305
68 PZ 18 -1.160
68 PZ 19 -3.113
68 PZ 20 -4.578
68 PZ 21 -5.554
68 PZ 22 -5.554
68 PZ 23 -6.042
68 PZ 24 -7.019
68 PZ 25 -7.996
68 PZ 26 -8.972
68 PZ 27 -8.484
68 PZ 28 -7.019
68 PZ 29 -4.578
68 PZ 30 -2.625
68 PZ 31 -1.160
68 PZ 32 0.793
68 PZ 33 2.258
68 PZ 34 3.723
68 PZ 35 4.211
68 PZ 36 3.235
68 PZ 37 1.770
68 PZ 38 0.305
68 PZ 39 -0.183
68 PZ 40 0.305
68 PZ 41 -0.183
68 PZ 42 -1.160
68 PZ 43 -2.136
68 PZ 44 -2.625
68 PZ 45 -2.136
68 PZ 46 -0.671
68 PZ 47 -0.183
68 PZ 48 -0.183
68 PZ 49 -0.671
68 PZ 50 -1.160
68 PZ 51 -0.671
68 PZ 52 0.793
68 PZ 53 0.793
68 PZ 54 0.305
68 PZ 55 -1.160
68 PZ 56 -2.136
68 PZ 57 -2.136
68 PZ 58 -1.160
68 PZ 59 0.793
68 PZ 60 1.770
68 PZ 61 1.770
68 PZ 62 1.282
68 PZ 63 0.793
68 PZ 64 1.282
68 PZ 65 2.258
68 PZ 66 2.747
68 PZ 67 2.747
68 PZ 68 0.793
68 PZ 69 -1.160
68 PZ 70 -2.136
68 PZ 71 -2.136
68 PZ 72 -1.160
68 PZ 73 0.793
68 PZ 74 1.770
68 PZ 75 1.770
68 PZ 76 0.793
68 PZ 77 -0.671
68 PZ 78 -1.648
68 PZ 79 -1.648
68 PZ 80 -0.671
68 PZ 81 0.793
68 PZ 82 1.770
68 PZ 83 2.258
68 PZ 84 1.770
68 PZ 85 1.282
68 PZ 86 1.282
68 PZ 87 1.282
68 PZ 88 0.793
68 PZ 89 0.305
68 PZ 90 -0.671
68 PZ 91 -1.648
68 PZ 92 -2.136
68 PZ 93 -1.648
68 PZ 94 -1.648
68 PZ 95 -1.648
68 PZ 96 -2.136
68 PZ 97 -2.625
68 PZ 98 -4.089
68 PZ 99 -5.554
68 PZ 100 -7.019
68 PZ 101 -7.507
68 PZ 102 -7.019
68 PZ 103 -5.066
68 PZ 104 -2.136
68 PZ 105 -0.671
68 PZ 106 -0.671
68 PZ 107 -1.160
68 PZ 108 -1.648
68 PZ 109 -1.160
68 PZ 110 0.793
68 PZ 111 2.747
68 PZ 112 3.723
68 PZ 113 2.747
68 PZ 114 1.282
68 PZ 115 -0.671
68 PZ 116 -1.648
68 PZ 117 -2.136
68 PZ 118 -2.625
68 PZ 119 -3.601
68 PZ 120 -5.066
68 PZ 121 -5.554
68 PZ 122 -5.554
68 PZ 123 -5.066
68 PZ 124 -5.066
68 PZ 125 -5.066
68 PZ 126 -5.554
68 PZ 127 -6.042
68 PZ 128 -5.554
68 PZ 129 -3.601
68 PZ 130 -1.648
68 PZ 131 0.793
68 PZ 132 1.770
68 PZ 133 1.282
68 PZ 134 0.793
68 PZ 135 0.305
68 PZ 136 0.793
68 PZ 137 2.747
68 PZ 138 4.211
68 PZ 139 5.676
68 PZ 140 6.653
68 PZ 141 6.653
68 PZ 142 6.653
68 PZ 143 7.141
68 PZ 144 7.629
68 PZ 145 7.629
68 PZ 146 6.653
68 PZ 147 6.165
68 PZ 148 5.188
68 PZ 149 4.700
68 PZ 150 4.700
68 PZ 151 4.211
68 PZ 152 3.723
68 PZ 153 2.747
68 PZ 154 1.282
68 PZ 155 -0.183
68 PZ 156 -0.671
68 PZ 157 -0.671
68 PZ 158 -0.671
68 PZ 159 -0.183
68 PZ 160 -0.183
68 PZ 161 0.793
68 PZ 162 1.770
68 PZ 163 3.235
68 PZ 164 3.723
68 PZ 165 4.700
68 PZ 166 4.211
68 PZ 167 3.723
68 PZ 168 3.235
68 PZ 169 3.235
68 PZ 170 3.723
68 PZ 171 3.235
68 PZ 172 2.747
68 PZ 173 1.770
68 PZ 174 0.305
68 PZ 175 -1.160
68 PZ 176 -2.625
68 PZ 177 -4.089
68 PZ 178 -5.066
68 PZ 179 -5.066
68 PZ 180 -5.066
68 PZ 181 -5.066
68 PZ 182 -5.066
68 PZ 183 -5.554
68 PZ 184 -6.042
68 PZ 185 -6.042
68 PZ 186 -6.042
68 PZ 187 -5.066
68 PZ 188 -4.578
68 PZ 189 -3.601
68 PZ 190 -3.113
68 PZ 191 -2.625
68 PZ 192 -2.625
68 PZ 193 -3.113
68 PZ 194 -4.578
68 PZ 195 -5.554
68 PZ 196 -5.554
68 PZ 197 -5.066
68 PZ 198 -3.601
68 PZ 199 -2.136
68 PZ 200 -2.136
68 PZ 201 -2.625
68 PZ 202 -3.601
68 PZ 203 -3.601
68 PZ 204 -3.601
68 PZ 205 -3.113
68 PZ 206 -2.136
68 PZ 207 -1.648
68 PZ 208 -1.648
68 PZ 209 -1.160
68 PZ 210 -0.183
68 PZ 211 0.793
68 PZ 212 1.282
68 PZ 213 1.770
68 PZ 214 2.258
68 PZ 215 2.747
68 PZ 216 2.747
68 PZ 217 2.258
68 PZ 218 1.282
68 PZ 219 -0.183
68 PZ 220 -1.648
68 PZ 221 -1.648
68 PZ 222 -0.671
68 PZ 223 0.793
68 PZ 224 2.258
68 PZ 225 2.258
68 PZ 226 1.282
68 PZ 227 -0.183
68 PZ 228 -1.160
68 PZ 229 -1.648
68 PZ 230 -1.160
68 PZ 231 -1.160
68 PZ 232 -1.648
68 PZ 233 -2.136
68 PZ 234 -3.113
68 PZ 235 -3.601
68 PZ 236 -4.089
68 PZ 237 -4.089
68 PZ 238 -4.089
68 PZ 239 -4.578
68 PZ 240 -4.578
68 PZ 241 -4.578
68 PZ 242 -5.066
68 PZ 243 -5.554
68 PZ 244 -5.554
68 PZ 245 -5.066
68 PZ 246 -3.601
68 PZ 247 -2.136
68 PZ 248 -1.160
68 PZ 249 -0.671
68 PZ 250 -0.183
68 PZ 251 -0.183
68 PZ 252 0.305
68 PZ 253 1.282
68 PZ 254 1.282
68 PZ 255 1.282
# P8 chan 25
68 P8 0 -9.908
68 P8 1 -12.349
68 P8 2 -14.303
68 P8 3 -15.767
68 P8 4 -15.279
68 P8 5 -13.814
68 P8 6 -12.349
68 P8 7 -11.373
68 P8 8 -11.861
68 P8 9 -12.349
68 P8 10 -13.326
68 P8 11 -12.349
68 P8 12 -11.373
68 P8 13 -9.420
68 P8 14 -7.955
68 P8 15 -6.490
68 P8 16 -6.490
68 P8 17 -6.978
68 P8 18 -8.443
68 P8 19 -9.420
68 P8 20 -10.396
68 P8 21 -11.373
68 P8 22 -11.373
68 P8 23 -11.373
68 P8 24 -10.885
68 P8 25 -10.396
68 P8 26 -9.420
68 P8 27 -7.955
68 P8 28 -6.490
68 P8 29 -4.537
68 P8 30 -2.584
68 P8 31 -0.142
68 P8 32 2.787
68 P8 33 5.717
68 P8 34 8.158
68 P8 35 9.135
68 P8 36 9.135
68 P8 37 9.135
68 P8 38 9.623
68 P8 39 10.111
68 P8 40 8.647
68 P8 41 4.252
68 P8 42 -1.119
68 P8 43 -5.514
68 P8 44 -6.978
68 P8 45 -5.514
68 P8 46 -3.560
68 P8 47 -4.049
68 P8 48 -6.490
68 P8 49 -10.396
68 P8 50 -11.861
68 P8 51 -10.885
68 P8 52 -7.955
68 P8 53 -6.490
68 P8 54 -7.955
68 P8 55 -11.373
68 P8 56 -14.303
68 P8 57 -13.814
68 P8 58 -9.420
68 P8 59 -4.537
68 P8 60 -0.631
68 P8 61 0.346
68 P8 62 -0.142
68 P8 63 -0.142
68 P8 64 0.834
68 P8 65 2.787
68 P8 66 3.276
68 P8 67 0.834
68 P8 68 -3.560
68 P8 69 -7.467
68 P8 70 -9.420
68 P8 71 -8.931
68 P8 72 -6.490
68 P8 73 -4.537
68 P8 74 -3.560
68 P8 75 -3.560
68 P8 76 -4.049
68 P8 77 -4.049
68 P8 78 -4.049
68 P8 79 -3.072
68 P8 80 -2.584
68 P8 81 -1.607
68 P8 82 -2.096
68 P8 83 -2.584
68 P8 84 -4.049
68 P8 85 -5.025
68 P8 86 -4.537
68 P8 87 -3.072
68 P8 88 -1.607
68 P8 89 -0.631
68 P8 90 -0.631
68 P8 91 -1.607
68 P8 92 -2.584
68 P8 93 -4.049
68 P8 94 -4.537
68 P8 95 -5.514
68 P8 96 -6.002
68 P8 97 -6.978
68 P8 98 -8.443
68 P8 99 -10.396
68 P8 100 -11.861
68 P8 101 -13.326
68 P8 102 -14.303
68 P8 103 -13.814
68 P8 104 -12.838
68 P8 105 -10.885
68 P8 106 -9.908
68 P8 107 -9.420
68 P8 108 -9.420
68 P8 109 -9.908
68 P8 110 -9.908
68 P8 111 -9.908
68 P8 112 -10.396
68 P8 113 -10.396
68 P8 114 -10.396
68 P8 115 -9.420
68 P8 116 -7.955
68 P8 117 -6.978
68 P8 118 -6.978
68 P8 119 -8.443
68 P8 120 -10.885
68 P8 121 -12.838
68 P8 122 -12.349
68 P8 123 -9.420
68 P8 124 -6.002
68 P8 125 -3.560
68 P8 126 -2.584
68 P8 127 -3.560
68 P8 128 -3.560
68 P8 129 -3.072
68 P8 130 -1.119
68 P8 131 -0.142
68 P8 132 -0.631
68 P8 133 -3.072
68 P8 134 -5.514
68 P8 135 -6.978
68 P8 136 -6.978
68 P8 137 -5.514
68 P8 138 -3.560
68 P8 139 -1.607
68 P8 140 -0.631
68 P8 141 -0.142
68 P8 142 -0.142
68 P8 143 0.346
68 P8 144 1.322
68 P8 145 2.787
68 P8 146 4.252
68 P8 147 5.717
68 P8 148 6.694
68 P8 149 7.182
68 P8 150 7.182
68 P8 151 7.670
68 P8 152 8.158
68 P8 153 8.647
68 P8 154 8.647
68 P8 155 8.158
68 P8 156 6.694
68 P8 157 4.252
68 P8 158 1.811
68 P8 159 -0.142
68 P8 160 -1.607
68 P8 161 -2.584
68 P8 162 -3.560
68 P8 163 -3.560
68 P8 164 -2.584
68 P8 165 -0.142
68 P8 166 2.787
68 P8 167 4.740
68 P8 168 5.229
68 P8 169 4.252
68 P8 170 2.299
68 P8 171 1.322
68 P8 172 1.322
68 P8 173 1.322
68 P8 174 0.346
68 P8 175 -1.119
68 P8 176 -4.049
68 P8 177 -6.490
68 P8 178 -8.443
68 P8 179 -8.931
68 P8 180 -8.931
68 P8 181 -9.420
68 P8 182 -9.420
68 P8 183 -9.420
68 P8 184 -9.908
68 P8 185 -9.908
68 P8 186 -9.420
68 P8 187 -9.420
68 P8 188 -8.931
68 P8 189 -7.955
68 P8 190 -6.490
68 P8 191 -5.025
68 P8 192 -4.537
68 P8 193 -5.025
68 P8 194 -6.978
68 P8 195 -8.443
68 P8 196 -8.931
68 P8 197 -8.443
68 P8 198 -6.002
68 P8 199 -4.049
68 P8 200 -3.072
68 P8 201 -2.584
68 P8 202 -3.072
68 P8 203 -4.537
68 P8 204 -5.514
68 P8 205 -6.978
68 P8 206 -8.443
68 P8 207 -9.420
68 P8 208 -9.908
68 P8 209 -9.908
68 P8 210 -9.420
68 P8 211 -7.955
68 P8 212 -6.002
68 P8 213 -4.537
68 P8 214 -4.049
68 P8 215 -4.537
68 P8 216 -5.025
68 P8 217 -5.025
68 P8 218 -3.560
68 P8 219 -2.584
68 P8 220 -0.631
68 P8 221 1.322
68 P8 222 3.764
68 P8 223 6.205
68 P8 224 8.158
68 P8 225 9.135
68 P8 226 8.158
68 P8 227 6.694
68 P8 228 5.717
68 P8 229 5.229
68 P8 230 5.717
68 P8 231 5.717
68 P8 232 4.252
68 P8 233 1.322
68 P8 234 -2.584
68 P8 235 -6.978
68 P8 236 -11.373
68 P8 237 -15.279
68 P8 238 -17.721
68 P8 239 -18.209
68 P8 240 -17.232
68 P8 241 -15.279
68 P8 242 -13.814
68 P8 243 -13.326
68 P8 244 -11.861
68 P8 245 -9.420
68 P8 246 -5.514
68 P8 247 -1.607
68 P8 248 1.811
68 P8 249 3.276
68 P8 250 3.276
68 P8 251 3.276
68 P8 252 3.764
68 P8 253 4.740
68 P8 254 5.229
68 P8 255 4.740
# P7 chan 26
68 P7 0 -17.975
68 P7 1 -17.487
68 P7 2 -15.533
68 P7 3 -13.580
68 P7 4 -12.115
68 P7 5 -11.139
68 P7 6 -9.674
68 P7 7 -8.209
68 P7 8 -7.233
68 P7 9 -7.233
68 P7 10 -8.209
68 P7 11 -8.698
68 P7 12 -6.744
68 P7 13 -2.350
68 P7 14 2.533
68 P7 15 5.463
68 P7 16 5.951
68 P7 17 2.533
68 P7 18 -1.862
68 P7 19 -5.768
68 P7 20 -8.209
68 P7 21 -9.186
68 P7 22 -9.186
68 P7 23 -11.139
68 P7 24 -15.045
68 P7 25 -20.416
68 P7 26 -25.299
68 P7 27 -27.252
68 P7 28 -26.276
68 P7 29 -21.393
68 P7 30 -15.533
68 P7 31 -9.674
68 P7 32 -3.815
68 P7 33 2.045
68 P7 34 6.927
68 P7 35 9.369
68 P7 36 8.881
68 P7 37 5.951
68 P7 38 2.533
68 P7 39 0.580
68 P7 40 1.068
68 P7 41 1.556
68 P7 42 1.556
68 P7 43 0.092
68 P7 44 -2.350
68 P7 45 -3.815
68 P7 46 -4.791
68 P7 47 -4.791
68 P7 48 -5.768
68 P7 49 -7.721
68 P7 50 -10.162
68 P7 51 -11.139
68 P7 52 -12.115
68 P7 53 -14.069
68 P7 54 -17.487
68 P7 55 -20.905
68 P7 56 -22.858
68 P7 57 -21.393
68 P7 58 -16.998
68 P7 59 -12.115
68 P7 60 -8.698
68 P7 61 -7.721
68 P7 62 -8.698
68 P7 63 -9.186
68 P7 64 -7.233
68 P7 65 -3.815
68 P7 66 -0.885
68 P7 67 1.068
68 P7 68 0.580
68 P7 69 -1.862
68 P7 70 -4.303
68 P7 71 -5.768
68 P7 72 -5.768
68 P7 73 -3.326
68 P7 74 -0.397
68 P7 75 1.556
68 P7 76 0.580
68 P7 77 -2.838
68 P7 78 -7.233
68 P7 79 -9.674
68 P7 80 -8.698
68 P7 81 -6.256
68 P7 82 -4.303
68 P7 83 -4.303
68 P7 84 -5.280
68 P7 85 -6.256
68 P7 86 -4.791
68 P7 87 -2.838
68 P7 88 -1.862
68 P7 89 -3.326
68 P7 90 -5.768
68 P7 91 -7.233
68 P7 92 -5.768
68 P7 93 -2.350
68 P7 94 1.556
68 P7 95 3.021
68 P7 96 2.533
68 P7 97 -0.397
68 P7 98 -4.303
68 P7 99 -8.698
68 P7 100 -12.604
68 P7 101 -15.533
68 P7 102 -15.533
68 P7 103 -12.115
68 P7 104 -7.721
68 P7 105 -4.791
68 P7 106 -5.768
68 P7 107 -10.651
68 P7 108 -15.533
68 P7 109 -16.998
68 P7 110 -14.069
68 P7 111 -8.209
68 P7 112 -2.838
68 P7 113 0.092
68 P7 114 -0.885
68 P7 115 -3.326
68 P7 116 -5.768
68 P7 117 -7.233
68 P7 118 -8.209
68 P7 119 -8.698
68 P7 120 -8.209
68 P7 121 -6.744
68 P7 122 -3.815
68 P7 123 -1.862
68 P7 124 -1.373
68 P7 125 -2.350
68 P7 126 -4.791
68 P7 127 -5.768
68 P7 128 -4.303
68 P7 129 -0.885
68 P7 130 2.533
68 P7 131 4.486
68 P7 132 3.510
68 P7 133 1.068
68 P7 134 -2.838
68 P7 135 -5.768
68 P7 136 -7.233
68 P7 137 -7.721
68 P7 138 -7.721
68 P7 139 -6.256
68 P7 140 -4.791
68 P7 141 -3.815
68 P7 142 -2.350
68 P7 143 0.092
68 P7 144 2.533
68 P7 145 5.463
68 P7 146 7.904
68 P7 147 9.857
68 P7 148 11.322
68 P7 149 12.787
68 P7 150 13.763
68 P7 151 14.252
68 P7 152 12.299
68 P7 153 8.392
68 P7 154 3.021
68 P7 155 -0.885
68 P7 156 -2.350
68 P7 157 -0.885
68 P7 158 1.068
68 P7 159 2.045
68 P7 160 2.045
68 P7 161 1.068
68 P7 162 0.580
68 P7 163 1.068
68 P7 164 2.045
68 P7 165 2.045
68 P7 166 0.092
68 P7 167 -2.350
68 P7 168 -3.815
68 P7 169 -3.815
68 P7 170 -2.350
68 P7 171 -0.885
68 P7 172 -0.885
68 P7 173 -1.862
68 P7 174 -3.815
68 P7 175 -5.280
68 P7 176 -6.744
68 P7 177 -8.209
68 P7 178 -9.186
68 P7 179 -10.162
68 P7 180 -10.162
68 P7 181 -10.651
68 P7 182 -11.139
68 P7 183 -11.627
68 P7 184 -11.627
68 P7 185 -10.651
68 P7 186 -8.209
68 P7 187 -5.768
68 P7 188 -3.815
68 P7 189 -2.838
68 P7 190 -2.350
68 P7 191 -2.838
68 P7 192 -3.326
68 P7 193 -4.791
68 P7 194 -7.721
68 P7 195 -9.674
68 P7 196 -9.186
68 P7 197 -6.744
68 P7 198 -2.838
68 P7 199 -0.885
68 P7 200 -1.862
68 P7 201 -5.280
68 P7 202 -8.698
68 P7 203 -9.674
68 P7 204 -7.721
68 P7 205 -4.791
68 P7 206 -2.350
68 P7 207 -2.838
68 P7 208 -4.303
68 P7 209 -5.768
68 P7 210 -6.256
68 P7 211 -4.791
68 P7 212 -2.838
68 P7 213 -1.373
68 P7 214 0.092
68 P7 215 0.580
68 P7 216 2.045
68 P7 217 3.021
68 P7 218 3.510
68 P7 219 3.510
68 P7 220 2.045
68 P7 221 0.092
68 P7 222 -2.350
68 P7 223 -3.326
68 P7 224 -2.838
68 P7 225 -2.350
68 P7 226 -2.350
68 P7 227 -3.815
68 P7 228 -5.280
68 P7 229 -6.744
68 P7 230 -7.233
68 P7 231 -7.233
68 P7 232 -7.233
68 P7 233 -8.209
68 P7 234 -9.186
68 P7 235 -9.674
68 P7 236 -9.186
68 P7 237 -9.186
68 P7 238 -9.186
68 P7 239 -10.162
68 P7 240 -10.651
68 P7 241 -10.651
68 P7 242 -8.698
68 P7 243 -6.256
68 P7 244 -3.815
68 P7 245 -2.350
68 P7 246 -1.373
68 P7 247 -0.397
68 P7 248 0.092
68 P7 249 1.068
68 P7 250 2.533
68 P7 251 3.510
68 P7 252 4.974
68 P7 253 5.951
68 P7 254 6.927
68 P7 255 5.951
# PO2 chan 27
68 PO2 0 -8.545
68 PO2 1 -11.475
68 PO2 2 -13.428
68 PO2 3 -14.404
68 PO2 4 -14.404
68 PO2 5 -13.916
68 PO2 6 -13.428
68 PO2 7 -12.939
68 PO2 8 -11.963
68 PO2 9 -10.986
68 PO2 10 -10.010
68 PO2 11 -9.521
68 PO2 12 -9.033
68 PO2 13 -7.568
68 PO2 14 -5.127
68 PO2 15 -3.174
68 PO2 16 -1.221
68 PO2 17 -1.709
68 PO2 18 -3.662
68 PO2 19 -6.592
68 PO2 20 -9.033
68 PO2 21 -9.521
68 PO2 22 -9.033
68 PO2 23 -9.033
68 PO2 24 -10.010
68 PO2 25 -11.963
68 PO2 26 -13.428
68 PO2 27 -13.428
68 PO2 28 -11.963
68 PO2 29 -9.033
68 PO2 30 -6.592
68 PO2 31 -3.662
68 PO2 32 -1.221
68 PO2 33 2.197
68 PO2 34 4.639
68 PO2 35 5.127
68 PO2 36 4.150
68 PO2 37 2.686
68 PO2 38 1.709
68 PO2 39 1.709
68 PO2 40 1.709
68 PO2 41 0.244
68 PO2 42 -2.197
68 PO2 43 -4.639
68 PO2 44 -5.127
68 PO2 45 -3.662
68 PO2 46 -1.709
68 PO2 47 -1.221
68 PO2 48 -2.686
68 PO2 49 -4.639
68 PO2 50 -4.639
68 PO2 51 -2.686
68 PO2 52 -0.732
68 PO2 53 -0.244
68 PO2 54 -1.709
68 PO2 55 -4.639
68 PO2 56 -7.080
68 PO2 57 -6.592
68 PO2 58 -4.150
68 PO2 59 -0.732
68 PO2 60 1.709
68 PO2 61 2.197
68 PO2 62 2.197
68 PO2 63 2.197
68 PO2 64 3.174
68 PO2 65 4.639
68 PO2 66 4.639
68 PO2 67 2.686
68 PO2 68 -0.244
68 PO2 69 -3.662
68 PO2 70 -5.615
68 PO2 71 -5.615
68 PO2 72 -3.662
68 PO2 73 -2.197
68 PO2 74 -0.732
68 PO2 75 -1.221
68 PO2 76 -2.197
68 PO2 77 -4.150
68 PO2 78 -5.127
68 PO2 79 -4.639
68 PO2 80 -3.174
68 PO2 81 -1.709
68 PO2 82 -1.221
68 PO2 83 -1.221
68 PO2 84 -1.709
68 PO2 85 -2.197
68 PO2 86 -2.197
68 PO2 87 -1.709
68 PO2 88 -1.221
68 PO2 89 -1.709
68 PO2 90 -2.197
68 PO2 91 -2.686
68 PO2 92 -2.686
68 PO2 93 -2.686
68 PO2 94 -2.686
68 PO2 95 -3.174
68 PO2 96 -3.174
68 PO2 97 -3.662
68 PO2 98 -4.639
68 PO2 99 -7.080
68 PO2 100 -10.010
68 PO2 101 -12.451
68 PO2 102 -12.451
68 PO2 103 -10.498
68 PO2 104 -7.568
68 PO2 105 -5.127
68 PO2 106 -5.127
68 PO2 107 -6.104
68 PO2 108 -6.592
68 PO2 109 -6.104
68 PO2 110 -3.662
68 PO2 111 -1.221
68 PO2 112 -0.732
68 PO2 113 -1.221
68 PO2 114 -3.174
68 PO2 115 -4.150
68 PO2 116 -3.662
68 PO2 117 -3.174
68 PO2 118 -3.174
68 PO2 119 -4.639
68 PO2 120 -7.568
68 PO2 121 -9.521
68 PO2 122 -10.010
68 PO2 123 -8.057
68 PO2 124 -5.615
68 PO2 125 -4.639
68 PO2 126 -4.639
68 PO2 127 -5.615
68 PO2 128 -5.615
68 PO2 129 -3.662
68 PO2 130 -0.732
68 PO2 131 2.197
68 PO2 132 2.686
68 PO2 133 1.221
68 PO2 134 -1.221
68 PO2 135 -2.686
68 PO2 136 -2.686
68 PO2 137 -0.732
68 PO2 138 1.709
68 PO2 139 3.662
68 PO2 140 4.639
68 PO2 141 5.615
68 PO2 142 6.104
68 PO2 143 6.592
68 PO2 144 7.568
68 PO2 145 7.568
68 PO2 146 8.057
68 PO2 147 8.057
68 PO2 148 8.545
68 PO2 149 9.033
68 PO2 150 9.033
68 PO2 151 8.545
68 PO2 152 7.080
68 PO2 153 5.615
68 PO2 154 4.639
68 PO2 155 3.662
68 PO2 156 2.686
68 PO2 157 1.709
68 PO2 158 0.244
68 PO2 159 -0.732
68 PO2 160 -1.709
68 PO2 161 -1.709
68 PO2 162 -1.221
68 PO2 163 0.244
68 PO2 164 1.709
68 PO2 165 2.686
68 PO2 166 3.174
68 PO2 167 3.662
68 PO2 168 4.150
68 PO2 169 4.150
68 PO2 170 4.639
68 PO2 171 4.639
68 PO2 172 4.639
68 PO2 173 3.174
68 PO2 174 1.221
68 PO2 175 -2.197
68 PO2 176 -6.104
68 PO2 177 -9.033
68 PO2 178 -10.498
68 PO2 179 -10.010
68 PO2 180 -9.033
68 PO2 181 -8.057
68 PO2 182 -8.057
68 PO2 183 -9.033
68 PO2 184 -10.498
68 PO2 185 -10.986
68 PO2 186 -10.986
68 PO2 187 -10.010
68 PO2 188 -8.545
68 PO2 189 -6.592
68 PO2 190 -5.127
68 PO2 191 -3.174
68 PO2 192 -2.686
68 PO2 193 -3.662
68 PO2 194 -5.615
68 PO2 195 -8.057
68 PO2 196 -9.033
68 PO2 197 -8.545
68 PO2 198 -6.592
68 PO2 199 -4.150
68 PO2 200 -2.686
68 PO2 201 -2.197
68 PO2 202 -3.174
68 PO2 203 -4.150
68 PO2 204 -5.127
68 PO2 205 -6.104
68 PO2 206 -6.592
68 PO2 207 -6.104
68 PO2 208 -5.615
68 PO2 209 -5.127
68 PO2 210 -4.150
68 PO2 211 -4.150
68 PO2 212 -4.150
68 PO2 213 -3.662
68 PO2 214 -3.174
68 PO2 215 -2.686
68 PO2 216 -2.197
68 PO2 217 -1.709
68 PO2 218 -2.197
68 PO2 219 -3.174
68 PO2 220 -4.150
68 PO2 221 -3.174
68 PO2 222 -1.709
68 PO2 223 1.709
68 PO2 224 4.150
68 PO2 225 5.615
68 PO2 226 5.127
68 PO2 227 3.174
68 PO2 228 1.709
68 PO2 229 0.732
68 PO2 230 1.221
68 PO2 231 1.221
68 PO2 232 0.732
68 PO2 233 -1.709
68 PO2 234 -5.127
68 PO2 235 -9.033
68 PO2 236 -11.963
68 PO2 237 -13.428
68 PO2 238 -13.428
68 PO2 239 -12.939
68 PO2 240 -12.939
